time/ms;Fluo/V;P700 deltaI/I x10³;
-199.8000;0.2475;4.1022;
-199.5000;0.2499;4.1073;
-199.2000;0.2515;4.1224;
-198.9000;0.2491;4.1198;
-198.6000;0.2515;4.1249;
-198.3000;0.2491;4.1249;
-198.0000;0.2491;4.1324;
-197.7000;0.2523;4.1375;
-197.4000;0.2499;4.1299;
-197.1000;0.2499;4.1249;
-196.8000;0.2507;4.1198;
-196.5000;0.2515;4.1224;
-196.2000;0.2637;4.1450;
-195.9000;0.2507;4.1048;
-195.6000;0.2515;4.1098;
-195.3000;0.2523;4.1098;
-195.0000;0.2532;4.1022;
-194.7000;0.2646;4.1349;
-194.4000;0.2515;4.0972;
-194.1000;0.2532;4.0947;
-193.8000;0.2662;4.1400;
-193.5000;0.2515;4.0947;
-193.2000;0.2499;4.0947;
-192.9000;0.2523;4.1098;
-192.6000;0.2483;4.1123;
-192.3000;0.2499;4.1198;
-192.0000;0.2507;4.1148;
-191.7000;0.2515;4.1148;
-191.4000;0.2515;4.1224;
-191.1000;0.2507;4.1148;
-190.8000;0.2515;4.1123;
-190.5000;0.2572;4.1299;
-190.2000;0.2523;4.1123;
-189.9000;0.2466;4.0997;
-189.6000;0.2499;4.1022;
-189.3000;0.2499;4.1022;
-189.0000;0.2499;4.1098;
-188.7000;0.2589;4.1425;
-188.4000;0.2499;4.1224;
-188.1000;0.2369;4.0846;
-187.8000;0.2483;4.1249;
-187.5000;0.2507;4.1274;
-187.2000;0.2540;4.1425;
-186.9000;0.2499;4.1274;
-186.6000;0.2515;4.1324;
-186.3000;0.2540;4.1299;
-186.0000;0.2450;4.1123;
-185.7000;0.2507;4.1224;
-185.4000;0.2515;4.1073;
-185.1000;0.2515;4.1022;
-184.8000;0.2564;4.1224;
-184.5000;0.2507;4.1098;
-184.2000;0.2507;4.1022;
-183.9000;0.2515;4.0997;
-183.6000;0.2507;4.0897;
-183.3000;0.2491;4.0972;
-183.0000;0.2499;4.0972;
-182.7000;0.2523;4.0972;
-182.4000;0.2523;4.1073;
-182.1000;0.2499;4.1048;
-181.8000;0.2515;4.1148;
-181.5000;0.2466;4.1098;
-181.2000;0.2515;4.1198;
-180.9000;0.2515;4.1224;
-180.6000;0.2515;4.1173;
-180.3000;0.2515;4.1198;
-180.0000;0.2515;4.1249;
-179.7000;0.2507;4.1224;
-179.4000;0.2499;4.1198;
-179.1000;0.2515;4.1148;
-178.8000;0.2548;4.1274;
-178.5000;0.2523;4.1198;
-178.2000;0.2523;4.1098;
-177.9000;0.2442;4.0846;
-177.6000;0.2629;4.1274;
-177.3000;0.2515;4.0897;
-177.0000;0.2523;4.0897;
-176.7000;0.2499;4.0997;
-176.4000;0.2515;4.1073;
-176.1000;0.2523;4.1148;
-175.8000;0.2434;4.0897;
-175.5000;0.2572;4.1299;
-175.2000;0.2475;4.1048;
-174.9000;0.2401;4.0796;
-174.6000;0.2515;4.1123;
-174.3000;0.2499;4.1022;
-174.0000;0.2613;4.1324;
-173.7000;0.2499;4.1048;
-173.4000;0.2385;4.0796;
-173.1000;0.2589;4.1299;
-172.8000;0.2507;4.1173;
-172.5000;0.2418;4.0947;
-172.2000;0.2540;4.1324;
-171.9000;0.2613;4.1450;
-171.6000;0.2483;4.1098;
-171.3000;0.2532;4.1274;
-171.0000;0.2540;4.1224;
-170.7000;0.2515;4.1173;
-170.4000;0.2507;4.1173;
-170.1000;0.2499;4.1098;
-169.8000;0.2523;4.1198;
-169.5000;0.2589;4.1375;
-169.2000;0.2572;4.1224;
-168.9000;0.2523;4.1073;
-168.6000;0.2580;4.1349;
-168.3000;0.2466;4.1098;
-168.0000;0.2499;4.1198;
-167.7000;0.2466;4.1148;
-167.4000;0.2409;4.0897;
-167.1000;0.2532;4.1198;
-166.8000;0.2475;4.1073;
-166.5000;0.2491;4.1073;
-166.2000;0.2532;4.1173;
-165.9000;0.2532;4.1198;
-165.6000;0.2523;4.1148;
-165.3000;0.2491;4.1123;
-165.0000;0.2580;4.1349;
-164.7000;0.2532;4.1224;
-164.4000;0.2450;4.0997;
-164.1000;0.2483;4.1123;
-163.8000;0.2491;4.1123;
-163.5000;0.2507;4.1173;
-163.2000;0.2491;4.1098;
-162.9000;0.2589;4.1400;
-162.6000;0.2466;4.1123;
-162.3000;0.2507;4.1224;
-162.0000;0.2572;4.1375;
-161.7000;0.2548;4.1173;
-161.4000;0.2483;4.1098;
-161.1000;0.2678;4.1651;
-160.8000;0.2548;4.1299;
-160.5000;0.2515;4.1324;
-160.2000;0.2564;4.1450;
-159.9000;0.2499;4.1324;
-159.6000;0.2515;4.1425;
-159.3000;0.2515;4.1425;
-159.0000;0.2483;4.1349;
-158.7000;0.2532;4.1349;
-158.4000;0.2499;4.1349;
-158.1000;0.2491;4.1198;
-157.8000;0.2466;4.1123;
-157.5000;0.2532;4.1299;
-157.2000;0.2507;4.1173;
-156.9000;0.2499;4.1123;
-156.6000;0.2507;4.1173;
-156.3000;0.2540;4.1274;
-156.0000;0.2507;4.1375;
-155.7000;0.2515;4.1400;
-155.4000;0.2491;4.1299;
-155.1000;0.2442;4.1098;
-154.8000;0.2385;4.0947;
-154.5000;0.2499;4.1274;
-154.2000;0.2499;4.1224;
-153.9000;0.2507;4.1299;
-153.6000;0.2532;4.1400;
-153.3000;0.2515;4.1299;
-153.0000;0.2442;4.1073;
-152.7000;0.2491;4.1224;
-152.4000;0.2499;4.1249;
-152.1000;0.2548;4.1400;
-151.8000;0.2597;4.1551;
-151.5000;0.2540;4.1450;
-151.2000;0.2523;4.1349;
-150.9000;0.2507;4.1224;
-150.6000;0.2458;4.1098;
-150.3000;0.2499;4.1249;
-150.0000;0.2532;4.1450;
-149.7000;0.2491;4.1475;
-149.4000;0.2499;4.1475;
-149.1000;0.2515;4.1500;
-148.8000;0.2483;4.1425;
-148.5000;0.2491;4.1400;
-148.2000;0.2499;4.1475;
-147.9000;0.2540;4.1525;
-147.6000;0.2450;4.1249;
-147.3000;0.2491;4.1324;
-147.0000;0.2499;4.1400;
-146.7000;0.2507;4.1475;
-146.4000;0.2523;4.1450;
-146.1000;0.2507;4.1400;
-145.8000;0.2507;4.1425;
-145.5000;0.2564;4.1525;
-145.2000;0.2499;4.1425;
-144.9000;0.2442;4.1173;
-144.6000;0.2523;4.1349;
-144.3000;0.2483;4.1249;
-144.0000;0.2434;4.1198;
-143.7000;0.2515;4.1425;
-143.4000;0.2418;4.1123;
-143.1000;0.2483;4.1198;
-142.8000;0.2540;4.1375;
-142.5000;0.2515;4.1249;
-142.2000;0.2491;4.1224;
-141.9000;0.2442;4.1022;
-141.6000;0.2483;4.1098;
-141.3000;0.2499;4.1098;
-141.0000;0.2499;4.1224;
-140.7000;0.2491;4.1274;
-140.4000;0.2507;4.1299;
-140.1000;0.2385;4.0997;
-139.8000;0.2475;4.1324;
-139.5000;0.2458;4.1375;
-139.2000;0.2532;4.1576;
-138.9000;0.2532;4.1576;
-138.6000;0.2491;4.1450;
-138.3000;0.2515;4.1475;
-138.0000;0.2564;4.1525;
-137.7000;0.2515;4.1400;
-137.4000;0.2523;4.1475;
-137.1000;0.2515;4.1475;
-136.8000;0.2499;4.1576;
-136.5000;0.2475;4.1525;
-136.2000;0.2556;4.1752;
-135.9000;0.2499;4.1651;
-135.6000;0.2507;4.1551;
-135.3000;0.2466;4.1349;
-135.0000;0.2499;4.1375;
-134.7000;0.2507;4.1349;
-134.4000;0.2499;4.1349;
-134.1000;0.2523;4.1425;
-133.8000;0.2515;4.1475;
-133.5000;0.2450;4.1299;
-133.2000;0.2491;4.1425;
-132.9000;0.2532;4.1576;
-132.6000;0.2523;4.1551;
-132.3000;0.2523;4.1525;
-132.0000;0.2548;4.1626;
-131.7000;0.2540;4.1626;
-131.4000;0.2515;4.1676;
-131.1000;0.2507;4.1651;
-130.8000;0.2580;4.1852;
-130.5000;0.2597;4.1928;
-130.2000;0.2499;4.1626;
-129.9000;0.2499;4.1500;
-129.6000;0.2483;4.1475;
-129.3000;0.2507;4.1400;
-129.0000;0.2466;4.1274;
-128.7000;0.2475;4.1249;
-128.4000;0.2507;4.1324;
-128.1000;0.2515;4.1324;
-127.8000;0.2572;4.1425;
-127.5000;0.2499;4.1249;
-127.2000;0.2507;4.1299;
-126.9000;0.2450;4.1249;
-126.6000;0.2491;4.1299;
-126.3000;0.2499;4.1324;
-126.0000;0.2491;4.1224;
-125.7000;0.2507;4.1198;
-125.4000;0.2507;4.1274;
-125.1000;0.2491;4.1274;
-124.8000;0.2515;4.1299;
-124.5000;0.2515;4.1224;
-124.2000;0.2450;4.1148;
-123.9000;0.2515;4.1375;
-123.6000;0.2515;4.1400;
-123.3000;0.2523;4.1425;
-123.0000;0.2532;4.1425;
-122.7000;0.2515;4.1400;
-122.4000;0.2507;4.1400;
-122.1000;0.2507;4.1375;
-121.8000;0.2572;4.1551;
-121.5000;0.2507;4.1400;
-121.2000;0.2499;4.1500;
-120.9000;0.2540;4.1551;
-120.6000;0.2499;4.1475;
-120.3000;0.2523;4.1500;
-120.0000;0.2475;4.1425;
-119.7000;0.2523;4.1576;
-119.4000;0.2499;4.1450;
-119.1000;0.2523;4.1525;
-118.8000;0.2507;4.1450;
-118.5000;0.2499;4.1349;
-118.2000;0.2523;4.1400;
-117.9000;0.2515;4.1375;
-117.6000;0.2491;4.1349;
-117.3000;0.2483;4.1349;
-117.0000;0.2475;4.1274;
-116.7000;0.2515;4.1324;
-116.4000;0.2532;4.1425;
-116.1000;0.2532;4.1425;
-115.8000;0.2483;4.1324;
-115.5000;0.2515;4.1375;
-115.2000;0.2507;4.1299;
-114.9000;0.2499;4.1349;
-114.6000;0.2507;4.1425;
-114.3000;0.2499;4.1400;
-114.0000;0.2499;4.1324;
-113.7000;0.2548;4.1475;
-113.4000;0.2491;4.1299;
-113.1000;0.2483;4.1249;
-112.8000;0.2483;4.1224;
-112.5000;0.2499;4.1274;
-112.2000;0.2523;4.1299;
-111.9000;0.2523;4.1324;
-111.6000;0.2515;4.1375;
-111.3000;0.2507;4.1198;
-111.0000;0.2532;4.1249;
-110.7000;0.2507;4.1249;
-110.4000;0.2499;4.1299;
-110.1000;0.2507;4.1400;
-109.8000;0.2499;4.1349;
-109.5000;0.2401;4.1073;
-109.2000;0.2515;4.1324;
-108.9000;0.2515;4.1324;
-108.6000;0.2556;4.1525;
-108.3000;0.2540;4.1425;
-108.0000;0.2515;4.1324;
-107.7000;0.2548;4.1324;
-107.4000;0.2499;4.1249;
-107.1000;0.2507;4.1324;
-106.8000;0.2507;4.1425;
-106.5000;0.2540;4.1500;
-106.2000;0.2540;4.1525;
-105.9000;0.2572;4.1676;
-105.6000;0.2499;4.1500;
-105.3000;0.2499;4.1500;
-105.0000;0.2532;4.1626;
-104.7000;0.2532;4.1601;
-104.4000;0.2499;4.1475;
-104.1000;0.2507;4.1400;
-103.8000;0.2532;4.1375;
-103.5000;0.2515;4.1400;
-103.2000;0.2426;4.1123;
-102.9000;0.2483;4.1324;
-102.6000;0.2507;4.1425;
-102.3000;0.2483;4.1450;
-102.0000;0.2507;4.1425;
-101.7000;0.2523;4.1400;
-101.4000;0.2548;4.1475;
-101.1000;0.2434;4.1148;
-100.8000;0.2475;4.1274;
-100.5000;0.2491;4.1375;
-100.2000;0.2499;4.1525;
-99.9000;0.2409;4.1324;
-99.6000;0.2442;4.1375;
-99.3000;0.2540;4.1727;
-99.0000;0.2499;4.1651;
-98.7000;0.2458;4.1525;
-98.4000;0.2515;4.1626;
-98.1000;0.2401;4.1198;
-97.8000;0.2613;4.1827;
-97.5000;0.2475;4.1299;
-97.2000;0.2458;4.1299;
-96.9000;0.2483;4.1450;
-96.6000;0.2507;4.1425;
-96.3000;0.2523;4.1425;
-96.0000;0.2556;4.1450;
-95.7000;0.2499;4.1375;
-95.4000;0.2499;4.1375;
-95.1000;0.2491;4.1349;
-94.8000;0.2458;4.1274;
-94.5000;0.2499;4.1324;
-94.2000;0.2475;4.1299;
-93.9000;0.2507;4.1400;
-93.6000;0.2466;4.1324;
-93.3000;0.2499;4.1425;
-93.0000;0.2507;4.1450;
-92.7000;0.2491;4.1425;
-92.4000;0.2483;4.1450;
-92.1000;0.2523;4.1551;
-91.8000;0.2499;4.1400;
-91.5000;0.2426;4.1249;
-91.2000;0.2507;4.1450;
-90.9000;0.2499;4.1400;
-90.6000;0.2499;4.1299;
-90.3000;0.2499;4.1349;
-90.0000;0.2499;4.1400;
-89.7000;0.2507;4.1450;
-89.4000;0.2491;4.1475;
-89.1000;0.2523;4.1551;
-88.8000;0.2515;4.1500;
-88.5000;0.2491;4.1349;
-88.2000;0.2491;4.1299;
-87.9000;0.2491;4.1425;
-87.6000;0.2556;4.1475;
-87.3000;0.2523;4.1425;
-87.0000;0.2523;4.1425;
-86.7000;0.2515;4.1299;
-86.4000;0.2507;4.1324;
-86.1000;0.2523;4.1400;
-85.8000;0.2507;4.1299;
-85.5000;0.2515;4.1299;
-85.2000;0.2532;4.1400;
-84.9000;0.2507;4.1425;
-84.6000;0.2523;4.1375;
-84.3000;0.2515;4.1324;
-84.0000;0.2564;4.1475;
-83.7000;0.2507;4.1349;
-83.4000;0.2515;4.1324;
-83.1000;0.2507;4.1400;
-82.8000;0.2499;4.1425;
-82.5000;0.2540;4.1576;
-82.2000;0.2507;4.1525;
-81.9000;0.2499;4.1500;
-81.6000;0.2515;4.1576;
-81.3000;0.2499;4.1551;
-81.0000;0.2475;4.1500;
-80.7000;0.2491;4.1525;
-80.4000;0.2507;4.1576;
-80.1000;0.2515;4.1500;
-79.8000;0.2491;4.1450;
-79.5000;0.2483;4.1375;
-79.2000;0.2475;4.1224;
-78.9000;0.2532;4.1349;
-78.6000;0.2564;4.1425;
-78.3000;0.2499;4.1299;
-78.0000;0.2499;4.1324;
-77.7000;0.2499;4.1450;
-77.4000;0.2507;4.1450;
-77.1000;0.2491;4.1324;
-76.8000;0.2515;4.1425;
-76.5000;0.2491;4.1375;
-76.2000;0.2499;4.1425;
-75.9000;0.2515;4.1475;
-75.6000;0.2491;4.1525;
-75.3000;0.2491;4.1475;
-75.0000;0.2507;4.1551;
-74.7000;0.2491;4.1450;
-74.4000;0.2499;4.1425;
-74.1000;0.2507;4.1475;
-73.8000;0.2491;4.1450;
-73.5000;0.2475;4.1400;
-73.2000;0.2507;4.1425;
-72.9000;0.2450;4.1274;
-72.6000;0.2475;4.1349;
-72.3000;0.2499;4.1475;
-72.0000;0.2523;4.1475;
-71.7000;0.2499;4.1450;
-71.4000;0.2491;4.1375;
-71.1000;0.2507;4.1450;
-70.8000;0.2523;4.1551;
-70.5000;0.2532;4.1475;
-70.2000;0.2499;4.1425;
-69.9000;0.2491;4.1500;
-69.6000;0.2515;4.1601;
-69.3000;0.2515;4.1576;
-69.0000;0.2515;4.1551;
-68.7000;0.2515;4.1601;
-68.4000;0.2491;4.1450;
-68.1000;0.2491;4.1475;
-67.8000;0.2491;4.1375;
-67.5000;0.2597;4.1752;
-67.2000;0.2499;4.1525;
-66.9000;0.2515;4.1551;
-66.6000;0.2515;4.1576;
-66.3000;0.2515;4.1525;
-66.0000;0.2515;4.1475;
-65.7000;0.2499;4.1450;
-65.4000;0.2515;4.1400;
-65.1000;0.2572;4.1525;
-64.8000;0.2483;4.1349;
-64.5000;0.2548;4.1425;
-64.2000;0.2499;4.1274;
-63.9000;0.2426;4.1098;
-63.6000;0.2515;4.1324;
-63.3000;0.2491;4.1349;
-63.0000;0.2491;4.1375;
-62.7000;0.2483;4.1324;
-62.4000;0.2483;4.1274;
-62.1000;0.2507;4.1425;
-61.8000;0.2515;4.1375;
-61.5000;0.2507;4.1425;
-61.2000;0.2515;4.1375;
-60.9000;0.2564;4.1551;
-60.6000;0.2515;4.1274;
-60.3000;0.2507;4.1224;
-60.0000;0.2499;4.1249;
-59.7000;0.2507;4.1375;
-59.4000;0.2483;4.1324;
-59.1000;0.2401;4.1173;
-58.8000;0.2483;4.1450;
-58.5000;0.2491;4.1475;
-58.2000;0.2507;4.1576;
-57.9000;0.2523;4.1551;
-57.6000;0.2507;4.1500;
-57.3000;0.2499;4.1450;
-57.0000;0.2507;4.1450;
-56.7000;0.2572;4.1576;
-56.4000;0.2523;4.1425;
-56.1000;0.2499;4.1400;
-55.8000;0.2483;4.1299;
-55.5000;0.2532;4.1400;
-55.2000;0.2499;4.1299;
-54.9000;0.2499;4.1324;
-54.6000;0.2491;4.1324;
-54.3000;0.2532;4.1400;
-54.0000;0.2499;4.1299;
-53.7000;0.2499;4.1274;
-53.4000;0.2507;4.1274;
-53.1000;0.2418;4.1073;
-52.8000;0.2466;4.1224;
-52.5000;0.2532;4.1525;
-52.2000;0.2507;4.1450;
-51.9000;0.2499;4.1500;
-51.6000;0.2515;4.1525;
-51.3000;0.2548;4.1576;
-51.0000;0.2507;4.1425;
-50.7000;0.2515;4.1400;
-50.4000;0.2515;4.1400;
-50.1000;0.2515;4.1400;
-49.8000;0.2483;4.1375;
-49.5000;0.2483;4.1349;
-49.2000;0.2507;4.1475;
-48.9000;0.2450;4.1349;
-48.6000;0.2491;4.1425;
-48.3000;0.2499;4.1400;
-48.0000;0.2507;4.1375;
-47.7000;0.2572;4.1626;
-47.4000;0.2475;4.1425;
-47.1000;0.2507;4.1450;
-46.8000;0.2532;4.1475;
-46.5000;0.2548;4.1576;
-46.2000;0.2523;4.1500;
-45.9000;0.2475;4.1425;
-45.6000;0.2556;4.1626;
-45.3000;0.2523;4.1626;
-45.0000;0.2450;4.1500;
-44.7000;0.2507;4.1551;
-44.4000;0.2499;4.1576;
-44.1000;0.2556;4.1752;
-43.8000;0.2499;4.1601;
-43.5000;0.2507;4.1500;
-43.2000;0.2515;4.1375;
-42.9000;0.2523;4.1425;
-42.6000;0.2507;4.1324;
-42.3000;0.2507;4.1299;
-42.0000;0.2499;4.1274;
-41.7000;0.2540;4.1299;
-41.4000;0.2507;4.1198;
-41.1000;0.2507;4.1123;
-40.8000;0.2523;4.1224;
-40.5000;0.2499;4.1148;
-40.2000;0.2507;4.1224;
-39.9000;0.2434;4.1073;
-39.6000;0.2499;4.1249;
-39.3000;0.2499;4.1224;
-39.0000;0.2523;4.1274;
-38.7000;0.2532;4.1324;
-38.4000;0.2475;4.1148;
-38.1000;0.2499;4.1349;
-37.8000;0.2507;4.1324;
-37.5000;0.2491;4.1324;
-37.2000;0.2499;4.1249;
-36.9000;0.2491;4.1274;
-36.6000;0.2532;4.1324;
-36.3000;0.2507;4.1224;
-36.0000;0.2491;4.1123;
-35.7000;0.2515;4.1173;
-35.4000;0.2515;4.1148;
-35.1000;0.2523;4.1198;
-34.8000;0.2515;4.1173;
-34.5000;0.2515;4.1299;
-34.2000;0.2491;4.1224;
-33.9000;0.2491;4.1224;
-33.6000;0.2483;4.1148;
-33.3000;0.2507;4.1224;
-33.0000;0.2507;4.1299;
-32.7000;0.2532;4.1349;
-32.4000;0.2507;4.1224;
-32.1000;0.2523;4.1224;
-31.8000;0.2499;4.1299;
-31.5000;0.2499;4.1274;
-31.2000;0.2572;4.1425;
-30.9000;0.2499;4.1299;
-30.6000;0.2483;4.1198;
-30.3000;0.2515;4.1274;
-30.0000;0.2507;4.1274;
-29.7000;0.2458;4.1022;
-29.4000;0.2499;4.1249;
-29.1000;0.2450;4.1148;
-28.8000;0.2540;4.1274;
-28.5000;0.2507;4.1324;
-28.2000;0.2491;4.1400;
-27.9000;0.2507;4.1400;
-27.6000;0.2442;4.1224;
-27.3000;0.2499;4.1425;
-27.0000;0.2654;4.1777;
-26.7000;0.2491;4.1400;
-26.4000;0.2499;4.1349;
-26.1000;0.2515;4.1425;
-25.8000;0.2499;4.1475;
-25.5000;0.2515;4.1500;
-25.2000;0.2483;4.1500;
-24.9000;0.2491;4.1500;
-24.6000;0.2507;4.1425;
-24.3000;0.2499;4.1274;
-24.0000;0.2507;4.1274;
-23.7000;0.2515;4.1274;
-23.4000;0.2515;4.1123;
-23.1000;0.2507;4.1148;
-22.8000;0.2499;4.1123;
-22.5000;0.2523;4.1224;
-22.2000;0.2499;4.1224;
-21.9000;0.2483;4.1249;
-21.6000;0.2499;4.1299;
-21.3000;0.2515;4.1299;
-21.0000;0.2515;4.1299;
-20.7000;0.2491;4.1249;
-20.4000;0.2515;4.1349;
-20.1000;0.2515;4.1400;
-19.8000;0.2532;4.1425;
-19.5000;0.2499;4.1349;
-19.2000;0.2491;4.1249;
-18.9000;0.2499;4.1249;
-18.6000;0.2515;4.1299;
-18.3000;0.2491;4.1324;
-18.0000;0.2515;4.1375;
-17.7000;0.2564;4.1500;
-17.4000;0.2507;4.1299;
-17.1000;0.2507;4.1198;
-16.8000;0.2450;4.1048;
-16.5000;0.2475;4.1173;
-16.2000;0.2548;4.1349;
-15.9000;0.2499;4.1324;
-15.6000;0.2572;4.1475;
-15.3000;0.2475;4.1123;
-15.0000;0.2499;4.1249;
-14.7000;0.2491;4.1198;
-14.4000;0.2458;4.1123;
-14.1000;0.2515;4.1249;
-13.8000;0.2532;4.1274;
-13.5000;0.2523;4.1224;
-13.2000;0.2523;4.1224;
-12.9000;0.2499;4.1022;
-12.6000;0.2515;4.1048;
-12.3000;0.2499;4.1022;
-12.0000;0.2499;4.1098;
-11.7000;0.2507;4.1098;
-11.4000;0.2442;4.0972;
-11.1000;0.2507;4.1198;
-10.8000;0.2491;4.1173;
-10.5000;0.2499;4.1173;
-10.2000;0.2532;4.1198;
-9.9000;0.2483;4.1022;
-9.6000;0.2515;4.1173;
-9.3000;0.2532;4.1224;
-9.0000;0.2499;4.1324;
-8.7000;0.2523;4.1249;
-8.4000;0.2523;4.1375;
-8.1000;0.2532;4.1349;
-7.8000;0.2491;4.1198;
-7.5000;0.2515;4.1249;
-7.2000;0.2523;4.1198;
-6.9000;0.2523;4.1249;
-6.6000;0.2548;4.1324;
-6.3000;0.2507;4.1224;
-6.0000;0.2532;4.1324;
-5.7000;0.2523;4.1299;
-5.4000;0.2499;4.1349;
-5.1000;0.2507;4.1400;
-4.8000;0.2499;4.1324;
-4.5000;0.2491;4.1224;
-4.2000;0.2564;4.1400;
-3.9000;0.2491;4.1249;
-3.6000;0.2507;4.1198;
-3.3000;0.2466;4.1073;
-3.0000;0.2499;4.1249;
-2.7000;0.2507;4.1224;
-2.4000;0.2499;4.1123;
-2.1000;0.2556;4.1224;
-1.8000;0.2523;4.1148;
-1.5000;0.2532;4.1173;
-1.2000;0.2515;4.1173;
-0.9000;0.2507;4.1198;
-0.6000;0.2499;4.1198;
-0.3000;0.2466;4.1123;
0.0000;0.2466;4.1123;
0.3000;0.2515;4.1198;
0.6000;0.2507;4.1425;
0.9000;0.2532;4.1802;
1.2000;0.2548;4.2154;
1.5000;0.2572;4.2557;
1.8000;0.2564;4.2858;
2.1000;0.2540;4.2934;
2.4000;0.2605;4.3336;
2.7000;0.2605;4.3538;
3.0000;0.2629;4.3764;
3.3000;0.2719;4.4166;
3.6000;0.2613;4.3990;
3.9000;0.2637;4.4192;
4.2000;0.2629;4.4217;
4.5000;0.2637;4.4418;
4.8000;0.2629;4.4393;
5.1000;0.2637;4.4418;
5.4000;0.2637;4.4468;
5.7000;0.2621;4.4519;
6.0000;0.2580;4.4418;
6.3000;0.2662;4.4644;
6.6000;0.2621;4.4418;
6.9000;0.2646;4.4594;
7.2000;0.2654;4.4569;
7.5000;0.2816;4.4996;
7.8000;0.2694;4.4569;
8.1000;0.2662;4.4443;
8.4000;0.2719;4.4569;
8.7000;0.2686;4.4594;
9.0000;0.2670;4.4619;
9.3000;0.2751;4.4921;
9.6000;0.2662;4.4619;
9.9000;0.2646;4.4594;
10.2000;0.2662;4.4544;
10.5000;0.2629;4.4493;
10.8000;0.2654;4.4619;
11.1000;0.2646;4.4644;
11.4000;0.2613;4.4544;
11.7000;0.2646;4.4644;
12.0000;0.2589;4.4519;
12.3000;0.2646;4.4845;
12.6000;0.2637;4.4896;
12.9000;0.2694;4.5022;
13.2000;0.2654;4.4845;
13.5000;0.2637;4.4770;
13.8000;0.2629;4.4720;
14.1000;0.2637;4.4720;
14.4000;0.2605;4.4720;
14.7000;0.2646;4.4695;
15.0000;0.2654;4.4669;
15.3000;0.2654;4.4619;
15.6000;0.2678;4.4795;
15.9000;0.2751;4.5047;
16.2000;0.2564;4.4594;
16.5000;0.2637;4.4745;
16.8000;0.2654;4.4795;
17.1000;0.2646;4.4795;
17.4000;0.2654;4.4795;
17.7000;0.2589;4.4695;
18.0000;0.2621;4.4820;
18.3000;0.2654;4.4921;
18.6000;0.2654;4.4845;
18.9000;0.2686;4.4871;
19.2000;0.2662;4.4921;
19.5000;0.2621;4.4871;
19.8000;0.2654;4.4946;
20.1000;0.2670;4.5022;
20.4000;0.2621;4.4971;
20.7000;0.2686;4.5147;
21.0000;0.2654;4.5072;
21.3000;0.2654;4.5147;
21.6000;0.2662;4.5097;
21.9000;0.2572;4.4921;
22.2000;0.2654;4.5147;
22.5000;0.2654;4.5097;
22.8000;0.2654;4.5022;
23.1000;0.2621;4.4946;
23.4000;0.2646;4.4946;
23.7000;0.2646;4.4946;
24.0000;0.2735;4.5097;
24.3000;0.2686;4.5097;
24.6000;0.2646;4.4971;
24.9000;0.2654;4.5072;
25.2000;0.2662;4.5047;
25.5000;0.2654;4.5072;
25.8000;0.2678;4.5122;
26.1000;0.2629;4.5022;
26.4000;0.2629;4.5072;
26.7000;0.2670;4.5122;
27.0000;0.2662;4.5047;
27.3000;0.2637;4.4946;
27.6000;0.2637;4.4996;
27.9000;0.2646;4.5022;
28.2000;0.2678;4.5097;
28.5000;0.2654;4.4996;
28.8000;0.2532;4.4669;
29.1000;0.2678;4.4896;
29.4000;0.2637;4.4770;
29.7000;0.2637;4.4770;
30.0000;0.2637;4.4820;
30.3000;0.2605;4.4644;
30.6000;0.2637;4.4770;
30.9000;0.2637;4.4845;
31.2000;0.2637;4.4871;
31.5000;0.2654;4.4971;
31.8000;0.2686;4.4946;
32.1000;0.2662;4.4770;
32.4000;0.2654;4.4845;
32.7000;0.2637;4.4720;
33.0000;0.2597;4.4594;
33.3000;0.2670;4.4820;
33.6000;0.2621;4.4770;
33.9000;0.2654;4.4845;
34.2000;0.2589;4.4644;
34.5000;0.2637;4.4845;
34.8000;0.2654;4.4921;
35.1000;0.2637;4.4820;
35.4000;0.2654;4.4946;
35.7000;0.2613;4.4921;
36.0000;0.2646;4.5047;
36.3000;0.2629;4.5097;
36.6000;0.2654;4.5122;
36.9000;0.2654;4.5047;
37.2000;0.2686;4.4971;
37.5000;0.2621;4.4770;
37.8000;0.2670;4.4896;
38.1000;0.2613;4.4770;
38.4000;0.2646;4.4921;
38.7000;0.2629;4.4795;
39.0000;0.2654;4.4896;
39.3000;0.2670;4.4946;
39.6000;0.2646;4.4845;
39.9000;0.2637;4.4720;
40.2000;0.2654;4.4745;
40.5000;0.2662;4.4770;
40.8000;0.2678;4.4770;
41.1000;0.2654;4.4695;
41.4000;0.2646;4.4669;
41.7000;0.2629;4.4644;
42.0000;0.2564;4.4569;
42.3000;0.2662;4.4845;
42.6000;0.2654;4.4795;
42.9000;0.2654;4.4795;
43.2000;0.2646;4.4770;
43.5000;0.2670;4.4871;
43.8000;0.2678;4.4896;
44.1000;0.2629;4.4845;
44.4000;0.2654;4.4820;
44.7000;0.2654;4.4820;
45.0000;0.2654;4.4795;
45.3000;0.2556;4.4468;
45.6000;0.2654;4.4720;
45.9000;0.2646;4.4720;
46.2000;0.2670;4.4820;
46.5000;0.2621;4.4669;
46.8000;0.2646;4.4745;
47.1000;0.2686;4.4770;
47.4000;0.2621;4.4619;
47.7000;0.2637;4.4569;
48.0000;0.2662;4.4745;
48.3000;0.2646;4.4720;
48.6000;0.2727;4.4971;
48.9000;0.2670;4.4921;
49.2000;0.2589;4.4770;
49.5000;0.2621;4.4871;
49.8000;0.2646;4.4921;
50.1000;0.2646;4.4971;
50.4000;0.2646;4.5072;
50.7000;0.2556;4.4820;
51.0000;0.2605;4.4820;
51.3000;0.2646;4.4971;
51.6000;0.2613;4.4921;
51.9000;0.2686;4.5097;
52.2000;0.2646;4.4996;
52.5000;0.2654;4.4971;
52.8000;0.2670;4.5022;
53.1000;0.2719;4.5198;
53.4000;0.2670;4.5072;
53.7000;0.2629;4.4946;
54.0000;0.2597;4.4871;
54.3000;0.2589;4.4896;
54.6000;0.2646;4.5047;
54.9000;0.2637;4.5097;
55.2000;0.2597;4.5022;
55.5000;0.2646;4.5047;
55.8000;0.2621;4.4946;
56.1000;0.2735;4.5273;
56.4000;0.2662;4.5022;
56.7000;0.2646;4.4921;
57.0000;0.2654;4.4971;
57.3000;0.2629;4.4996;
57.6000;0.2646;4.5072;
57.9000;0.2646;4.5122;
58.2000;0.2646;4.5172;
58.5000;0.2637;4.5147;
58.8000;0.2670;4.5198;
59.1000;0.2613;4.5022;
59.4000;0.2637;4.5097;
59.7000;0.2662;4.5097;
60.0000;0.2637;4.5047;
60.3000;0.2637;4.5047;
60.6000;0.2629;4.4971;
60.9000;0.2646;4.5022;
61.2000;0.2548;4.4770;
61.5000;0.2646;4.5022;
61.8000;0.2597;4.4946;
62.1000;0.2646;4.5022;
62.4000;0.2662;4.5097;
62.7000;0.2670;4.5172;
63.0000;0.2686;4.5097;
63.3000;0.2743;4.5172;
63.6000;0.2646;4.4820;
63.9000;0.2654;4.4871;
64.2000;0.2670;4.4871;
64.5000;0.2629;4.4845;
64.8000;0.2621;4.4820;
65.1000;0.2751;4.5273;
65.4000;0.2637;4.4996;
65.7000;0.2646;4.5047;
66.0000;0.2646;4.5147;
66.3000;0.2613;4.5022;
66.6000;0.2646;4.5072;
66.9000;0.2637;4.5072;
67.2000;0.2629;4.5047;
67.5000;0.2751;4.5474;
67.8000;0.2654;4.5198;
68.1000;0.2637;4.5198;
68.4000;0.2654;4.5298;
68.7000;0.2694;4.5298;
69.0000;0.2613;4.5122;
69.3000;0.2629;4.5198;
69.6000;0.2719;4.5449;
69.9000;0.2637;4.5248;
70.2000;0.2637;4.5172;
70.5000;0.2621;4.5072;
70.8000;0.2662;4.5122;
71.1000;0.2662;4.5097;
71.4000;0.2646;4.5022;
71.7000;0.2654;4.4996;
72.0000;0.2759;4.5349;
72.3000;0.2621;4.4946;
72.6000;0.2662;4.5122;
72.9000;0.2637;4.5122;
73.2000;0.2654;4.5072;
73.5000;0.2637;4.5047;
73.8000;0.2646;4.5122;
74.1000;0.2654;4.5172;
74.4000;0.2646;4.5097;
74.7000;0.2646;4.4996;
75.0000;0.2654;4.5072;
75.3000;0.2654;4.5147;
75.6000;0.2629;4.5047;
75.9000;0.2646;4.5072;
76.2000;0.2637;4.4971;
76.5000;0.2646;4.5072;
76.8000;0.2662;4.5072;
77.1000;0.2637;4.5072;
77.4000;0.2702;4.5273;
77.7000;0.2646;4.5097;
78.0000;0.2646;4.5072;
78.3000;0.2670;4.5072;
78.6000;0.2646;4.5022;
78.9000;0.2629;4.4971;
79.2000;0.2654;4.5097;
79.5000;0.2629;4.5022;
79.8000;0.2719;4.5399;
80.1000;0.2662;4.5273;
80.4000;0.2751;4.5550;
80.7000;0.2629;4.5172;
81.0000;0.2727;4.5349;
81.3000;0.2637;4.5072;
81.6000;0.2662;4.5072;
81.9000;0.2662;4.5147;
82.2000;0.2564;4.4845;
82.5000;0.2629;4.4921;
82.8000;0.2670;4.4921;
83.1000;0.2662;4.5022;
83.4000;0.2605;4.4946;
83.7000;0.2629;4.5072;
84.0000;0.2654;4.5047;
84.3000;0.2670;4.5097;
84.6000;0.2646;4.5047;
84.9000;0.2629;4.5047;
85.2000;0.2637;4.5047;
85.5000;0.2637;4.5147;
85.8000;0.2556;4.4946;
86.1000;0.2646;4.5248;
86.4000;0.2637;4.5198;
86.7000;0.2646;4.5172;
87.0000;0.2572;4.4971;
87.3000;0.2637;4.5097;
87.6000;0.2629;4.5122;
87.9000;0.2605;4.5047;
88.2000;0.2646;4.5172;
88.5000;0.2646;4.5122;
88.8000;0.2637;4.5122;
89.1000;0.2646;4.5122;
89.4000;0.2605;4.5022;
89.7000;0.2646;4.5097;
90.0000;0.2646;4.5122;
90.3000;0.2629;4.5097;
90.6000;0.2621;4.5072;
90.9000;0.2613;4.4946;
91.2000;0.2662;4.5022;
91.5000;0.2637;4.4946;
91.8000;0.2629;4.4946;
92.1000;0.2670;4.5047;
92.4000;0.2646;4.5072;
92.7000;0.2686;4.5273;
93.0000;0.2540;4.4946;
93.3000;0.2646;4.5298;
93.6000;0.2637;4.5298;
93.9000;0.2654;4.5248;
94.2000;0.2654;4.5248;
94.5000;0.2613;4.5097;
94.8000;0.2597;4.5097;
95.1000;0.2694;4.5349;
95.4000;0.2613;4.5198;
95.7000;0.2686;4.5349;
96.0000;0.2621;4.5122;
96.3000;0.2621;4.5147;
96.6000;0.2605;4.4996;
96.9000;0.2654;4.5097;
97.2000;0.2670;4.5172;
97.5000;0.2621;4.5022;
97.8000;0.2621;4.5072;
98.1000;0.2621;4.5072;
98.4000;0.2483;4.4720;
98.7000;0.2621;4.5072;
99.0000;0.2621;4.5072;
99.3000;0.2670;4.5072;
99.6000;0.2597;4.4921;
99.9000;0.2621;4.5072;
100.2000;0.2637;4.5198;
100.5000;0.2694;4.5323;
100.8000;0.2629;4.5122;
101.1000;0.2499;4.4845;
101.4000;0.2613;4.5072;
101.7000;0.2646;4.5072;
102.0000;0.2646;4.5097;
102.3000;0.2646;4.5172;
102.6000;0.2646;4.5223;
102.9000;0.2637;4.5172;
103.2000;0.2646;4.5147;
103.5000;0.2670;4.5223;
103.8000;0.2637;4.5122;
104.1000;0.2629;4.5097;
104.4000;0.2662;4.5198;
104.7000;0.2654;4.5298;
105.0000;0.2654;4.5273;
105.3000;0.2678;4.5399;
105.6000;0.2662;4.5349;
105.9000;0.2637;4.5223;
106.2000;0.2711;4.5449;
106.5000;0.2629;4.5223;
106.8000;0.2637;4.5122;
107.1000;0.2646;4.5047;
107.4000;0.2637;4.4996;
107.7000;0.2646;4.5022;
108.0000;0.2662;4.5047;
108.3000;0.2646;4.5022;
108.6000;0.2637;4.4971;
108.9000;0.2621;4.4921;
109.2000;0.2605;4.4921;
109.5000;0.2654;4.5072;
109.8000;0.2637;4.5022;
110.1000;0.2613;4.4896;
110.4000;0.2597;4.4896;
110.7000;0.2646;4.4996;
111.0000;0.2580;4.4921;
111.3000;0.2629;4.5022;
111.6000;0.2654;4.5022;
111.9000;0.2629;4.4946;
112.2000;0.2678;4.5047;
112.5000;0.2654;4.4871;
112.8000;0.2646;4.4845;
113.1000;0.2662;4.4946;
113.4000;0.2654;4.4896;
113.7000;0.2629;4.4896;
114.0000;0.2654;4.4971;
114.3000;0.2589;4.4745;
114.6000;0.2637;4.4896;
114.9000;0.2605;4.4770;
115.2000;0.2629;4.4795;
115.5000;0.2613;4.4845;
115.8000;0.2646;4.4946;
116.1000;0.2678;4.4996;
116.4000;0.2637;4.4946;
116.7000;0.2629;4.4971;
117.0000;0.2629;4.4921;
117.3000;0.2637;4.4996;
117.6000;0.2694;4.5147;
117.9000;0.2564;4.4845;
118.2000;0.2637;4.4971;
118.5000;0.2637;4.4996;
118.8000;0.2637;4.4996;
119.1000;0.2646;4.5022;
119.4000;0.2743;4.5198;
119.7000;0.2711;4.5097;
120.0000;0.2629;4.4845;
120.3000;0.2629;4.4921;
120.6000;0.2654;4.4946;
120.9000;0.2621;4.4896;
121.2000;0.2637;4.4921;
121.5000;0.2613;4.4820;
121.8000;0.2629;4.4896;
122.1000;0.2686;4.4971;
122.4000;0.2613;4.4795;
122.7000;0.2621;4.4845;
123.0000;0.2540;4.4669;
123.3000;0.2621;4.4845;
123.6000;0.2637;4.4820;
123.9000;0.2605;4.4745;
124.2000;0.2694;4.4946;
124.5000;0.2629;4.4820;
124.8000;0.2678;4.4946;
125.1000;0.2629;4.4820;
125.4000;0.2678;4.5097;
125.7000;0.2629;4.4946;
126.0000;0.2654;4.4946;
126.3000;0.2605;4.4871;
126.6000;0.2629;4.4896;
126.9000;0.2637;4.4996;
127.2000;0.2646;4.4921;
127.5000;0.2629;4.4996;
127.8000;0.2629;4.4971;
128.1000;0.2637;4.4971;
128.4000;0.2646;4.4971;
128.7000;0.2629;4.4921;
129.0000;0.2629;4.4896;
129.3000;0.2646;4.4871;
129.6000;0.2637;4.4795;
129.9000;0.2629;4.4745;
130.2000;0.2621;4.4820;
130.5000;0.2637;4.4921;
130.8000;0.2621;4.4820;
131.1000;0.2662;4.4845;
131.4000;0.2654;4.4795;
131.7000;0.2629;4.4871;
132.0000;0.2646;4.4896;
132.3000;0.2629;4.4695;
132.6000;0.2670;4.4795;
132.9000;0.2621;4.4594;
133.2000;0.2637;4.4644;
133.5000;0.2670;4.4770;
133.8000;0.2629;4.4695;
134.1000;0.2637;4.4720;
134.4000;0.2694;4.4795;
134.7000;0.2670;4.4820;
135.0000;0.2719;4.4971;
135.3000;0.2654;4.4745;
135.6000;0.2629;4.4669;
135.9000;0.2605;4.4720;
136.2000;0.2646;4.4795;
136.5000;0.2637;4.4795;
136.8000;0.2629;4.4795;
137.1000;0.2637;4.4871;
137.4000;0.2621;4.4820;
137.7000;0.2637;4.4845;
138.0000;0.2670;4.4921;
138.3000;0.2662;4.4845;
138.6000;0.2686;4.4921;
138.9000;0.2694;4.5022;
139.2000;0.2646;4.4871;
139.5000;0.2548;4.4569;
139.8000;0.2621;4.4871;
140.1000;0.2621;4.4871;
140.4000;0.2646;4.4896;
140.7000;0.2613;4.4871;
141.0000;0.2629;4.4896;
141.3000;0.2678;4.5047;
141.6000;0.2605;4.4896;
141.9000;0.2605;4.4871;
142.2000;0.2532;4.4669;
142.5000;0.2637;4.5047;
142.8000;0.2646;4.5097;
143.1000;0.2629;4.4996;
143.4000;0.2646;4.5097;
143.7000;0.2646;4.5047;
144.0000;0.2670;4.5022;
144.3000;0.2654;4.4996;
144.6000;0.2629;4.4845;
144.9000;0.2662;4.4971;
145.2000;0.2589;4.4896;
145.5000;0.2597;4.4871;
145.8000;0.2629;4.4896;
146.1000;0.2637;4.4921;
146.4000;0.2646;4.4971;
146.7000;0.2637;4.4921;
147.0000;0.2629;4.4871;
147.3000;0.2654;4.4946;
147.6000;0.2637;4.4946;
147.9000;0.2629;4.4946;
148.2000;0.2646;4.4996;
148.5000;0.2629;4.4896;
148.8000;0.2629;4.4921;
149.1000;0.2613;4.4946;
149.4000;0.2629;4.4971;
149.7000;0.2654;4.5047;
150.0000;0.2646;4.5072;
150.3000;0.2686;4.5147;
150.6000;0.2654;4.5047;
150.9000;0.2646;4.5047;
151.2000;0.2580;4.4896;
151.5000;0.2613;4.4946;
151.8000;0.2776;4.5399;
152.1000;0.2751;4.5223;
152.4000;0.2646;4.4971;
152.7000;0.2662;4.4946;
153.0000;0.2670;4.5047;
153.3000;0.2629;4.4896;
153.6000;0.2646;4.4996;
153.9000;0.2646;4.4996;
154.2000;0.2637;4.4946;
154.5000;0.2621;4.4896;
154.8000;0.2613;4.4871;
155.1000;0.2646;4.4996;
155.4000;0.2646;4.5047;
155.7000;0.2646;4.5022;
156.0000;0.2580;4.4845;
156.3000;0.2719;4.5223;
156.6000;0.2629;4.4921;
156.9000;0.2662;4.4971;
157.2000;0.2646;4.4971;
157.5000;0.2646;4.4971;
157.8000;0.2637;4.5022;
158.1000;0.2629;4.5198;
158.4000;0.2637;4.5097;
158.7000;0.2654;4.5147;
159.0000;0.2572;4.4845;
159.3000;0.2670;4.5072;
159.6000;0.2621;4.4871;
159.9000;0.2678;4.5047;
160.2000;0.2613;4.4871;
160.5000;0.2637;4.4996;
160.8000;0.2646;4.4971;
161.1000;0.2556;4.4795;
161.4000;0.2613;4.4921;
161.7000;0.2613;4.4946;
162.0000;0.2613;4.4896;
162.3000;0.2654;4.4921;
162.6000;0.2629;4.4896;
162.9000;0.2727;4.5147;
163.2000;0.2621;4.4820;
163.5000;0.2589;4.4820;
163.8000;0.2637;4.4946;
164.1000;0.2662;4.4971;
164.4000;0.2654;4.4971;
164.7000;0.2621;4.4896;
165.0000;0.2629;4.4921;
165.3000;0.2637;4.5022;
165.6000;0.2605;4.4896;
165.9000;0.2629;4.5022;
166.2000;0.2629;4.4921;
166.5000;0.2637;4.4921;
166.8000;0.2646;4.4921;
167.1000;0.2637;4.4921;
167.4000;0.2629;4.4971;
167.7000;0.2621;4.4871;
168.0000;0.2621;4.4896;
168.3000;0.2637;4.4971;
168.6000;0.2629;4.4946;
168.9000;0.2621;4.4946;
169.2000;0.2629;4.4971;
169.5000;0.2654;4.5072;
169.8000;0.2629;4.5047;
170.1000;0.2646;4.5147;
170.4000;0.2556;4.4946;
170.7000;0.2637;4.5047;
171.0000;0.2637;4.4996;
171.3000;0.2727;4.5198;
171.6000;0.2613;4.4971;
171.9000;0.2637;4.4946;
172.2000;0.2686;4.5147;
172.5000;0.2613;4.5072;
172.8000;0.2637;4.5172;
173.1000;0.2654;4.5273;
173.4000;0.2637;4.5223;
173.7000;0.2637;4.5198;
174.0000;0.2613;4.5172;
174.3000;0.2564;4.4946;
174.6000;0.2491;4.4845;
174.9000;0.2646;4.5172;
175.2000;0.2621;4.4996;
175.5000;0.2654;4.5072;
175.8000;0.2646;4.5047;
176.1000;0.2621;4.4946;
176.4000;0.2637;4.4996;
176.7000;0.2621;4.4871;
177.0000;0.2662;4.4946;
177.3000;0.2605;4.4845;
177.6000;0.2654;4.4971;
177.9000;0.2613;4.4845;
178.2000;0.2629;4.4871;
178.5000;0.2654;4.4971;
178.8000;0.2629;4.5097;
179.1000;0.2637;4.5047;
179.4000;0.2556;4.4871;
179.7000;0.2621;4.5097;
180.0000;0.2629;4.5047;
180.3000;0.2694;4.5147;
180.6000;0.2637;4.4946;
180.9000;0.2605;4.4971;
181.2000;0.2613;4.5047;
181.5000;0.2613;4.5022;
181.8000;0.2613;4.5022;
182.1000;0.2499;4.4669;
182.4000;0.2637;4.5022;
182.7000;0.2629;4.4996;
183.0000;0.2629;4.5022;
183.3000;0.2637;4.5022;
183.6000;0.2597;4.4946;
183.9000;0.2629;4.4921;
184.2000;0.2646;4.4971;
184.5000;0.2621;4.4996;
184.8000;0.2637;4.4996;
185.1000;0.2629;4.4971;
185.4000;0.2629;4.4996;
185.7000;0.2629;4.5047;
186.0000;0.2646;4.5047;
186.3000;0.2597;4.5022;
186.6000;0.2646;4.5147;
186.9000;0.2662;4.5298;
187.2000;0.2637;4.5147;
187.5000;0.2629;4.5072;
187.8000;0.2637;4.5097;
188.1000;0.2572;4.4971;
188.4000;0.2613;4.5072;
188.7000;0.2654;4.5198;
189.0000;0.2507;4.4795;
189.3000;0.2605;4.5047;
189.6000;0.2637;4.5022;
189.9000;0.2654;4.5047;
190.2000;0.2597;4.4896;
190.5000;0.2629;4.4971;
190.8000;0.2597;4.4921;
191.1000;0.2719;4.5198;
191.4000;0.2605;4.4921;
191.7000;0.2646;4.5122;
192.0000;0.2621;4.5072;
192.3000;0.2637;4.5047;
192.6000;0.2621;4.4996;
192.9000;0.2629;4.5047;
193.2000;0.2637;4.5097;
193.5000;0.2572;4.5022;
193.8000;0.2646;4.5122;
194.1000;0.2637;4.5097;
194.4000;0.2670;4.5198;
194.7000;0.2646;4.5172;
195.0000;0.2629;4.5072;
195.3000;0.2702;4.5097;
195.6000;0.2702;4.5122;
195.9000;0.2605;4.4996;
196.2000;0.2629;4.5022;
196.5000;0.2727;4.5298;
196.8000;0.2629;4.4996;
197.1000;0.2621;4.4971;
197.4000;0.2637;4.5022;
197.7000;0.2629;4.5022;
198.0000;0.2719;4.5298;
198.3000;0.2654;4.5147;
198.6000;0.2605;4.5022;
198.9000;0.2670;4.5198;
199.2000;0.2670;4.5198;
199.5000;0.2662;4.5122;
199.8000;0.2605;4.5022;
200.1000;0.2605;4.5072;
200.4000;0.2613;4.5097;
200.7000;0.2621;4.5097;
201.0000;0.2646;4.5147;
201.3000;0.2637;4.5147;
201.6000;0.2629;4.5147;
201.9000;0.2605;4.5047;
202.2000;0.2613;4.5072;
202.5000;0.2613;4.5122;
202.8000;0.2637;4.5198;
203.1000;0.2646;4.5223;
203.4000;0.2646;4.5198;
203.7000;0.2589;4.4996;
204.0000;0.2784;4.5474;
204.3000;0.2629;4.5072;
204.6000;0.2637;4.5122;
204.9000;0.2654;4.5072;
205.2000;0.2613;4.4921;
205.5000;0.2605;4.4946;
205.8000;0.2637;4.5047;
206.1000;0.2564;4.4921;
206.4000;0.2613;4.4971;
206.7000;0.2613;4.4971;
207.0000;0.2621;4.4996;
207.3000;0.2670;4.5122;
207.6000;0.2646;4.4996;
207.9000;0.2613;4.5022;
208.2000;0.2613;4.4996;
208.5000;0.2629;4.5022;
208.8000;0.2629;4.4971;
209.1000;0.2694;4.5122;
209.4000;0.2646;4.5022;
209.7000;0.2702;4.5198;
210.0000;0.2621;4.4996;
210.3000;0.2646;4.5047;
210.6000;0.2613;4.4946;
210.9000;0.2670;4.5122;
211.2000;0.2621;4.5147;
211.5000;0.2613;4.5097;
211.8000;0.2670;4.5122;
212.1000;0.2597;4.4971;
212.4000;0.2637;4.5097;
212.7000;0.2637;4.5097;
213.0000;0.2589;4.4946;
213.3000;0.2637;4.5047;
213.6000;0.2629;4.4971;
213.9000;0.2702;4.5223;
214.2000;0.2605;4.4946;
214.5000;0.2613;4.4946;
214.8000;0.2629;4.4971;
215.1000;0.2621;4.4921;
215.4000;0.2621;4.5047;
215.7000;0.2621;4.5072;
216.0000;0.2637;4.5122;
216.3000;0.2646;4.5122;
216.6000;0.2637;4.5147;
216.9000;0.2629;4.5022;
217.2000;0.2621;4.4921;
217.5000;0.2637;4.4921;
217.8000;0.2637;4.4896;
218.1000;0.2646;4.4896;
218.4000;0.2572;4.4795;
218.7000;0.2654;4.4921;
219.0000;0.2702;4.4996;
219.3000;0.2637;4.4820;
219.6000;0.2613;4.4720;
219.9000;0.2637;4.4820;
220.2000;0.2637;4.4845;
220.5000;0.2694;4.4921;
220.8000;0.2499;4.4368;
221.1000;0.2613;4.4720;
221.4000;0.2572;4.4594;
221.7000;0.2646;4.4745;
222.0000;0.2621;4.4669;
222.3000;0.2637;4.4795;
222.6000;0.2646;4.4921;
222.9000;0.2629;4.4921;
223.2000;0.2613;4.4845;
223.5000;0.2637;4.4946;
223.8000;0.2654;4.5022;
224.1000;0.2646;4.4971;
224.4000;0.2572;4.4795;
224.7000;0.2646;4.4845;
225.0000;0.2621;4.4820;
225.3000;0.2621;4.4770;
225.6000;0.2629;4.4845;
225.9000;0.2605;4.4795;
226.2000;0.2499;4.4544;
226.5000;0.2637;4.4896;
226.8000;0.2629;4.4921;
227.1000;0.2597;4.4845;
227.4000;0.2637;4.4996;
227.7000;0.2646;4.4996;
228.0000;0.2523;4.4644;
228.3000;0.2629;4.4921;
228.6000;0.2646;4.4845;
228.9000;0.2662;4.4946;
229.2000;0.2662;4.4996;
229.5000;0.2646;4.5097;
229.8000;0.2605;4.5047;
230.1000;0.2629;4.5147;
230.4000;0.2621;4.5172;
230.7000;0.2629;4.5072;
231.0000;0.2605;4.4946;
231.3000;0.2605;4.4946;
231.6000;0.2662;4.5047;
231.9000;0.2613;4.4971;
232.2000;0.2727;4.5223;
232.5000;0.2589;4.4820;
232.8000;0.2629;4.5122;
233.1000;0.2629;4.5172;
233.4000;0.2694;4.5349;
233.7000;0.2556;4.5047;
234.0000;0.2621;4.5172;
234.3000;0.2654;4.5198;
234.6000;0.2646;4.5198;
234.9000;0.2637;4.5097;
235.2000;0.2662;4.5172;
235.5000;0.2589;4.5022;
235.8000;0.2621;4.5072;
236.1000;0.2637;4.5172;
236.4000;0.2621;4.4971;
236.7000;0.2589;4.4871;
237.0000;0.2637;4.4996;
237.3000;0.2629;4.4971;
237.6000;0.2629;4.4896;
237.9000;0.2613;4.4820;
238.2000;0.2613;4.4871;
238.5000;0.2613;4.4820;
238.8000;0.2621;4.4845;
239.1000;0.2637;4.4871;
239.4000;0.2637;4.4996;
239.7000;0.2629;4.4996;
240.0000;0.2637;4.5047;
240.3000;0.2629;4.5097;
240.6000;0.2637;4.5122;
240.9000;0.2613;4.5198;
241.2000;0.2662;4.5374;
241.5000;0.2646;4.5298;
241.8000;0.2621;4.5248;
242.1000;0.2662;4.5374;
242.4000;0.2637;4.5298;
242.7000;0.2629;4.5273;
243.0000;0.2678;4.5349;
243.3000;0.2589;4.5223;
243.6000;0.2589;4.5223;
243.9000;0.2637;4.5323;
244.2000;0.2654;4.5424;
244.5000;0.2613;4.5349;
244.8000;0.2621;4.5349;
245.1000;0.2564;4.5147;
245.4000;0.2621;4.5298;
245.7000;0.2637;4.5223;
246.0000;0.2670;4.5298;
246.3000;0.2621;4.5122;
246.6000;0.2621;4.5072;
246.9000;0.2515;4.4720;
247.2000;0.2589;4.4921;
247.5000;0.2654;4.5147;
247.8000;0.2589;4.4996;
248.1000;0.2654;4.5198;
248.4000;0.2515;4.4820;
248.7000;0.2637;4.5097;
249.0000;0.2654;4.5072;
249.3000;0.2580;4.4820;
249.6000;0.2646;4.4946;
249.9000;0.2670;4.4946;
250.2000;0.2613;4.4896;
250.5000;0.2637;4.4896;
250.8000;0.2572;4.4871;
251.1000;0.2637;4.5072;
251.4000;0.2768;4.5550;
251.7000;0.2629;4.5172;
252.0000;0.2629;4.5147;
252.3000;0.2605;4.5147;
252.6000;0.2629;4.5198;
252.9000;0.2637;4.5248;
253.2000;0.2662;4.5298;
253.5000;0.2621;4.5223;
253.8000;0.2654;4.5298;
254.1000;0.2646;4.5172;
254.4000;0.2605;4.5022;
254.7000;0.2629;4.5172;
255.0000;0.2646;4.5223;
255.3000;0.2621;4.5147;
255.6000;0.2637;4.5147;
255.9000;0.2605;4.5072;
256.2000;0.2597;4.5072;
256.5000;0.2613;4.5072;
256.8000;0.2621;4.5072;
257.1000;0.2629;4.5022;
257.4000;0.2515;4.4619;
257.7000;0.2621;4.4845;
258.0000;0.2629;4.4820;
258.3000;0.2646;4.4921;
258.6000;0.2646;4.4871;
258.9000;0.2637;4.4896;
259.2000;0.2654;4.5047;
259.5000;0.2670;4.5147;
259.8000;0.2637;4.5147;
260.1000;0.2629;4.5172;
260.4000;0.2629;4.5122;
260.7000;0.2629;4.4996;
261.0000;0.2646;4.5022;
261.3000;0.2605;4.4996;
261.6000;0.2637;4.4996;
261.9000;0.2646;4.4996;
262.2000;0.2662;4.4996;
262.5000;0.2646;4.4971;
262.8000;0.2637;4.4921;
263.1000;0.2621;4.4871;
263.4000;0.2646;4.4871;
263.7000;0.2646;4.4871;
264.0000;0.2572;4.4619;
264.3000;0.2654;4.4770;
264.6000;0.2646;4.4820;
264.9000;0.2637;4.4845;
265.2000;0.2646;4.4946;
265.5000;0.2621;4.4996;
265.8000;0.2646;4.5047;
266.1000;0.2532;4.4845;
266.4000;0.2597;4.4896;
266.7000;0.2605;4.4871;
267.0000;0.2629;4.4946;
267.3000;0.2670;4.5172;
267.6000;0.2597;4.4996;
267.9000;0.2768;4.5550;
268.2000;0.2637;4.5072;
268.5000;0.2629;4.5047;
268.8000;0.2621;4.5022;
269.1000;0.2629;4.5147;
269.4000;0.2637;4.5122;
269.7000;0.2654;4.5172;
270.0000;0.2646;4.5147;
270.3000;0.2654;4.5198;
270.6000;0.2621;4.5122;
270.9000;0.2637;4.5147;
271.2000;0.2613;4.5172;
271.5000;0.2629;4.5172;
271.8000;0.2637;4.5072;
272.1000;0.2613;4.5072;
272.4000;0.2637;4.5097;
272.7000;0.2605;4.4971;
273.0000;0.2605;4.5022;
273.3000;0.2556;4.4921;
273.6000;0.2637;4.5223;
273.9000;0.2621;4.5223;
274.2000;0.2605;4.5147;
274.5000;0.2637;4.5198;
274.8000;0.2711;4.5424;
275.1000;0.2613;4.5122;
275.4000;0.2613;4.5097;
275.7000;0.2621;4.5172;
276.0000;0.2556;4.5022;
276.3000;0.2613;4.5097;
276.6000;0.2629;4.5122;
276.9000;0.2637;4.5147;
277.2000;0.2654;4.5172;
277.5000;0.2629;4.5097;
277.8000;0.2589;4.5022;
278.1000;0.2605;4.5097;
278.4000;0.2572;4.4896;
278.7000;0.2637;4.5022;
279.0000;0.2621;4.4921;
279.3000;0.2613;4.4946;
279.6000;0.2646;4.4896;
279.9000;0.2629;4.4896;
280.2000;0.2613;4.4871;
280.5000;0.2629;4.4921;
280.8000;0.2605;4.4896;
281.1000;0.2629;4.4946;
281.4000;0.2629;4.4896;
281.7000;0.2686;4.4971;
282.0000;0.2621;4.4745;
282.3000;0.2613;4.4745;
282.6000;0.2637;4.4795;
282.9000;0.2605;4.4745;
283.2000;0.2597;4.4745;
283.5000;0.2556;4.4669;
283.8000;0.2629;4.4896;
284.1000;0.2621;4.4921;
284.4000;0.2621;4.5022;
284.7000;0.2646;4.5122;
285.0000;0.2646;4.5172;
285.3000;0.2613;4.5047;
285.6000;0.2605;4.5172;
285.9000;0.2637;4.5248;
286.2000;0.2654;4.5198;
286.5000;0.2637;4.5172;
286.8000;0.2621;4.4996;
287.1000;0.2654;4.5147;
287.4000;0.2621;4.5097;
287.7000;0.2629;4.5072;
288.0000;0.2694;4.5172;
288.3000;0.2629;4.5022;
288.6000;0.2646;4.5097;
288.9000;0.2678;4.5223;
289.2000;0.2621;4.4996;
289.5000;0.2646;4.5072;
289.8000;0.2629;4.5047;
290.1000;0.2637;4.5047;
290.4000;0.2589;4.4845;
290.7000;0.2646;4.4971;
291.0000;0.2621;4.4946;
291.3000;0.2686;4.5198;
291.6000;0.2621;4.5022;
291.9000;0.2613;4.4971;
292.2000;0.2637;4.5022;
292.5000;0.2670;4.5147;
292.8000;0.2646;4.5072;
293.1000;0.2629;4.5147;
293.4000;0.2646;4.5198;
293.7000;0.2654;4.5273;
294.0000;0.2654;4.5298;
294.3000;0.2629;4.5273;
294.6000;0.2629;4.5273;
294.9000;0.2629;4.5273;
295.2000;0.2637;4.5248;
295.5000;0.2629;4.5273;
295.8000;0.2613;4.5248;
296.1000;0.2499;4.4921;
296.4000;0.2580;4.5097;
296.7000;0.2532;4.4871;
297.0000;0.2613;4.5172;
297.3000;0.2637;4.5198;
297.6000;0.2613;4.5097;
297.9000;0.2629;4.5172;
298.2000;0.2621;4.5172;
298.5000;0.2711;4.5499;
298.8000;0.2637;4.5172;
299.1000;0.2711;4.5374;
299.4000;0.2637;4.5047;
299.7000;0.2711;4.5122;
300.0000;0.2743;4.5223;
300.3000;0.2589;4.4820;
300.6000;0.2605;4.4820;
300.9000;0.2621;4.4971;
301.2000;0.2564;4.4845;
301.5000;0.2580;4.4896;
301.8000;0.2637;4.5047;
302.1000;0.2637;4.5022;
302.4000;0.2621;4.5097;
302.7000;0.2629;4.5147;
303.0000;0.2613;4.5172;
303.3000;0.2629;4.5147;
303.6000;0.2621;4.5122;
303.9000;0.2572;4.5022;
304.2000;0.2646;4.5147;
304.5000;0.2556;4.4871;
304.8000;0.2629;4.5047;
305.1000;0.2654;4.5172;
305.4000;0.2654;4.5122;
305.7000;0.2637;4.5047;
306.0000;0.2613;4.5022;
306.3000;0.2621;4.4971;
306.6000;0.2646;4.5122;
306.9000;0.2613;4.5047;
307.2000;0.2605;4.5022;
307.5000;0.2646;4.5047;
307.8000;0.2605;4.4896;
308.1000;0.2613;4.4896;
308.4000;0.2597;4.4820;
308.7000;0.2719;4.5147;
309.0000;0.2751;4.5273;
309.3000;0.2654;4.4996;
309.6000;0.2621;4.4896;
309.9000;0.2662;4.5047;
310.2000;0.2646;4.4921;
310.5000;0.2637;4.4896;
310.8000;0.2621;4.4896;
311.1000;0.2670;4.5072;
311.4000;0.2629;4.5022;
311.7000;0.2646;4.5097;
312.0000;0.2613;4.4971;
312.3000;0.2499;4.4669;
312.6000;0.2621;4.4871;
312.9000;0.2637;4.4896;
313.2000;0.2637;4.4971;
313.5000;0.2621;4.4896;
313.8000;0.2654;4.4946;
314.1000;0.2637;4.4871;
314.4000;0.2654;4.4996;
314.7000;0.2629;4.4946;
315.0000;0.2662;4.4996;
315.3000;0.2637;4.4921;
315.6000;0.2621;4.4896;
315.9000;0.2621;4.4896;
316.2000;0.2589;4.4820;
316.5000;0.2646;4.5022;
316.8000;0.2646;4.5097;
317.1000;0.2637;4.5147;
317.4000;0.2621;4.5223;
317.7000;0.2613;4.5223;
318.0000;0.2629;4.5198;
318.3000;0.2621;4.5273;
318.6000;0.2629;4.5223;
318.9000;0.2629;4.5223;
319.2000;0.2646;4.5273;
319.5000;0.2613;4.5172;
319.8000;0.2670;4.5323;
320.1000;0.2646;4.5298;
320.4000;0.2572;4.5097;
320.7000;0.2605;4.5147;
321.0000;0.2670;4.5374;
321.3000;0.2646;4.5248;
321.6000;0.2613;4.5097;
321.9000;0.2499;4.4820;
322.2000;0.2702;4.5349;
322.5000;0.2621;4.5147;
322.8000;0.2621;4.5147;
323.1000;0.2637;4.5172;
323.4000;0.2637;4.4996;
323.7000;0.2613;4.4921;
324.0000;0.2629;4.4971;
324.3000;0.2589;4.4921;
324.6000;0.2637;4.5097;
324.9000;0.2621;4.5047;
325.2000;0.2637;4.5072;
325.5000;0.2597;4.4946;
325.8000;0.2621;4.4946;
326.1000;0.2637;4.5022;
326.4000;0.2613;4.5072;
326.7000;0.2621;4.5097;
327.0000;0.2597;4.5097;
327.3000;0.2580;4.4896;
327.6000;0.2621;4.5047;
327.9000;0.2605;4.4996;
328.2000;0.2605;4.4996;
328.5000;0.2637;4.4971;
328.8000;0.2613;4.4996;
329.1000;0.2654;4.5223;
329.4000;0.2629;4.5172;
329.7000;0.2719;4.5349;
330.0000;0.2646;4.5147;
330.3000;0.2613;4.5047;
330.6000;0.2629;4.5097;
330.9000;0.2613;4.5047;
331.2000;0.2621;4.5097;
331.5000;0.2621;4.5097;
331.8000;0.2629;4.5122;
332.1000;0.2646;4.5122;
332.4000;0.2621;4.5147;
332.7000;0.2646;4.5198;
333.0000;0.2662;4.5172;
333.3000;0.2654;4.5172;
333.6000;0.2646;4.5147;
333.9000;0.2621;4.5122;
334.2000;0.2637;4.5047;
334.5000;0.2621;4.4921;
334.8000;0.2597;4.4871;
335.1000;0.2605;4.4896;
335.4000;0.2637;4.4971;
335.7000;0.2646;4.5022;
336.0000;0.2629;4.4820;
336.3000;0.2597;4.4669;
336.6000;0.2613;4.4720;
336.9000;0.2613;4.4720;
337.2000;0.2637;4.4845;
337.5000;0.2621;4.4795;
337.8000;0.2670;4.5122;
338.1000;0.2637;4.5047;
338.4000;0.2629;4.4996;
338.7000;0.2613;4.4946;
339.0000;0.2589;4.4946;
339.3000;0.2670;4.5097;
339.6000;0.2637;4.5047;
339.9000;0.2654;4.5047;
340.2000;0.2629;4.4971;
340.5000;0.2654;4.5047;
340.8000;0.2670;4.5097;
341.1000;0.2605;4.4946;
341.4000;0.2597;4.4896;
341.7000;0.2597;4.4921;
342.0000;0.2654;4.5072;
342.3000;0.2646;4.5022;
342.6000;0.2629;4.4946;
342.9000;0.2637;4.4996;
343.2000;0.2621;4.4996;
343.5000;0.2613;4.4921;
343.8000;0.2629;4.4896;
344.1000;0.2597;4.4745;
344.4000;0.2621;4.4770;
344.7000;0.2629;4.4871;
345.0000;0.2678;4.4946;
345.3000;0.2621;4.4896;
345.6000;0.2646;4.4946;
345.9000;0.2621;4.4795;
346.2000;0.2564;4.4544;
346.5000;0.2605;4.4770;
346.8000;0.2768;4.5248;
347.1000;0.2637;4.4871;
347.4000;0.2605;4.4845;
347.7000;0.2605;4.4845;
348.0000;0.2629;4.4845;
348.3000;0.2662;4.4946;
348.6000;0.2621;4.4921;
348.9000;0.2654;4.4921;
349.2000;0.2613;4.4795;
349.5000;0.2580;4.4745;
349.8000;0.2605;4.4745;
350.1000;0.2613;4.4770;
350.4000;0.2637;4.4871;
350.7000;0.2694;4.4996;
351.0000;0.2637;4.4971;
351.3000;0.2670;4.5122;
351.6000;0.2646;4.5022;
351.9000;0.2597;4.4896;
352.2000;0.2580;4.4770;
352.5000;0.2491;4.4544;
352.8000;0.2613;4.4971;
353.1000;0.2670;4.5147;
353.4000;0.2702;4.5147;
353.7000;0.2637;4.4996;
354.0000;0.2637;4.4996;
354.3000;0.2646;4.5122;
354.6000;0.2646;4.5047;
354.9000;0.2670;4.5147;
355.2000;0.2646;4.5122;
355.5000;0.2629;4.5097;
355.8000;0.2621;4.4921;
356.1000;0.2629;4.4946;
356.4000;0.2589;4.4871;
356.7000;0.2621;4.4921;
357.0000;0.2621;4.4845;
357.3000;0.2654;4.4845;
357.6000;0.2613;4.4795;
357.9000;0.2621;4.4871;
358.2000;0.2532;4.4669;
358.5000;0.2654;4.4971;
358.8000;0.2613;4.4871;
359.1000;0.2605;4.4921;
359.4000;0.2629;4.4996;
359.7000;0.2637;4.5047;
360.0000;0.2678;4.5198;
360.3000;0.2629;4.5047;
360.6000;0.2605;4.4946;
360.9000;0.2629;4.4946;
361.2000;0.2621;4.5047;
361.5000;0.2629;4.5072;
361.8000;0.2605;4.4946;
362.1000;0.2580;4.4921;
362.4000;0.2605;4.5022;
362.7000;0.2646;4.5172;
363.0000;0.2548;4.4871;
363.3000;0.2735;4.5374;
363.6000;0.2727;4.5298;
363.9000;0.2621;4.5022;
364.2000;0.2694;4.5072;
364.5000;0.2637;4.4845;
364.8000;0.2637;4.4795;
365.1000;0.2637;4.4845;
365.4000;0.2662;4.4946;
365.7000;0.2646;4.5022;
366.0000;0.2556;4.4770;
366.3000;0.2621;4.4971;
366.6000;0.2629;4.4921;
366.9000;0.2621;4.4896;
367.2000;0.2556;4.4644;
367.5000;0.2589;4.4820;
367.8000;0.2621;4.4820;
368.1000;0.2621;4.4871;
368.4000;0.2654;4.4996;
368.7000;0.2654;4.4946;
369.0000;0.2646;4.4921;
369.3000;0.2629;4.4845;
369.6000;0.2654;4.4946;
369.9000;0.2670;4.5022;
370.2000;0.2646;4.4996;
370.5000;0.2491;4.4594;
370.8000;0.2629;4.4971;
371.1000;0.2678;4.5072;
371.4000;0.2605;4.4871;
371.7000;0.2629;4.4845;
372.0000;0.2629;4.4871;
372.3000;0.2621;4.4820;
372.6000;0.2637;4.4845;
372.9000;0.2605;4.4770;
373.2000;0.2613;4.4720;
373.5000;0.2621;4.4695;
373.8000;0.2678;4.4921;
374.1000;0.2613;4.4845;
374.4000;0.2605;4.4921;
374.7000;0.2621;4.4871;
375.0000;0.2621;4.4871;
375.3000;0.2637;4.4971;
375.6000;0.2686;4.5047;
375.9000;0.2564;4.4795;
376.2000;0.2621;4.4896;
376.5000;0.2572;4.4695;
376.8000;0.2621;4.4820;
377.1000;0.2670;4.4946;
377.4000;0.2589;4.4745;
377.7000;0.2621;4.4871;
378.0000;0.2629;4.4896;
378.3000;0.2621;4.4946;
378.6000;0.2613;4.4971;
378.9000;0.2670;4.5172;
379.2000;0.2662;4.5122;
379.5000;0.2613;4.4996;
379.8000;0.2637;4.5047;
380.1000;0.2621;4.4921;
380.4000;0.2605;4.4845;
380.7000;0.2605;4.4896;
381.0000;0.2605;4.4921;
381.3000;0.2621;4.4896;
381.6000;0.2605;4.4720;
381.9000;0.2605;4.4770;
382.2000;0.2613;4.4695;
382.5000;0.2629;4.4745;
382.8000;0.2613;4.4795;
383.1000;0.2605;4.4745;
383.4000;0.2629;4.4871;
383.7000;0.2646;4.4845;
384.0000;0.2621;4.4795;
384.3000;0.2637;4.4921;
384.6000;0.2621;4.4820;
384.9000;0.2613;4.4845;
385.2000;0.2637;4.4871;
385.5000;0.2621;4.4946;
385.8000;0.2613;4.5022;
386.1000;0.2564;4.4795;
386.4000;0.2637;4.4921;
386.7000;0.2646;4.4946;
387.0000;0.2540;4.4644;
387.3000;0.2597;4.4921;
387.6000;0.2605;4.4896;
387.9000;0.2629;4.4921;
388.2000;0.2678;4.4971;
388.5000;0.2629;4.4921;
388.8000;0.2621;4.4921;
389.1000;0.2646;4.4971;
389.4000;0.2637;4.5047;
389.7000;0.2646;4.5047;
390.0000;0.2654;4.5122;
390.3000;0.2637;4.5172;
390.6000;0.2637;4.5198;
390.9000;0.2629;4.5172;
391.2000;0.2605;4.5198;
391.5000;0.2629;4.5273;
391.8000;0.2629;4.5248;
392.1000;0.2613;4.5072;
392.4000;0.2646;4.5172;
392.7000;0.2637;4.5122;
393.0000;0.2605;4.4971;
393.3000;0.2646;4.5097;
393.6000;0.2621;4.5147;
393.9000;0.2629;4.5147;
394.2000;0.2629;4.5147;
394.5000;0.2597;4.5072;
394.8000;0.2621;4.5047;
395.1000;0.2662;4.5097;
395.4000;0.2670;4.5047;
395.7000;0.2621;4.4845;
396.0000;0.2654;4.4921;
396.3000;0.2621;4.4820;
396.6000;0.2613;4.4770;
396.9000;0.2605;4.4795;
397.2000;0.2613;4.4845;
397.5000;0.2613;4.4820;
397.8000;0.2654;4.4921;
398.1000;0.2637;4.4921;
398.4000;0.2621;4.4820;
398.7000;0.2613;4.4745;
399.0000;0.2646;4.4845;
399.3000;0.2654;4.4820;
399.6000;0.2629;4.4795;
399.9000;0.2743;4.5172;
400.2000;0.2637;4.4921;
400.5000;0.2621;4.4921;
400.8000;0.2629;4.4946;
401.1000;0.2605;4.4896;
401.4000;0.2629;4.4845;
401.7000;0.2621;4.4820;
402.0000;0.2605;4.4695;
402.3000;0.2499;4.4443;
402.6000;0.2621;4.4795;
402.9000;0.2605;4.4745;
403.2000;0.2662;4.4795;
403.5000;0.2605;4.4669;
403.8000;0.2621;4.4695;
404.1000;0.2605;4.4669;
404.4000;0.2621;4.4720;
404.7000;0.2637;4.4770;
405.0000;0.2629;4.4845;
405.3000;0.2580;4.4720;
405.6000;0.2629;4.4820;
405.9000;0.2613;4.4745;
406.2000;0.2646;4.4820;
406.5000;0.2654;4.4820;
406.8000;0.2613;4.4619;
407.1000;0.2711;4.4871;
407.4000;0.2637;4.4720;
407.7000;0.2621;4.4770;
408.0000;0.2613;4.4820;
408.3000;0.2621;4.4845;
408.6000;0.2605;4.4820;
408.9000;0.2629;4.4921;
409.2000;0.2621;4.4896;
409.5000;0.2654;4.4971;
409.8000;0.2629;4.4971;
410.1000;0.2589;4.4770;
410.4000;0.2629;4.4896;
410.7000;0.2637;4.4946;
411.0000;0.2759;4.5323;
411.3000;0.2580;4.4820;
411.6000;0.2629;4.4921;
411.9000;0.2605;4.4871;
412.2000;0.2621;4.5022;
412.5000;0.2613;4.5047;
412.8000;0.2621;4.4971;
413.1000;0.2654;4.5147;
413.4000;0.2572;4.4896;
413.7000;0.2621;4.4921;
414.0000;0.2670;4.5047;
414.3000;0.2637;4.4996;
414.6000;0.2646;4.4996;
414.9000;0.2621;4.4845;
415.2000;0.2621;4.4871;
415.5000;0.2605;4.4820;
415.8000;0.2621;4.4845;
416.1000;0.2629;4.4871;
416.4000;0.2597;4.4896;
416.7000;0.2613;4.4921;
417.0000;0.2637;4.4971;
417.3000;0.2637;4.5072;
417.6000;0.2613;4.4996;
417.9000;0.2646;4.5097;
418.2000;0.2637;4.5072;
418.5000;0.2629;4.5022;
418.8000;0.2572;4.4871;
419.1000;0.2613;4.4996;
419.4000;0.2637;4.5122;
419.7000;0.2637;4.5172;
420.0000;0.2483;4.4644;
420.3000;0.2711;4.5147;
420.6000;0.2532;4.4594;
420.9000;0.2613;4.4946;
421.2000;0.2589;4.4921;
421.5000;0.2654;4.5072;
421.8000;0.2613;4.4971;
422.1000;0.2613;4.4921;
422.4000;0.2605;4.4871;
422.7000;0.2613;4.4845;
423.0000;0.2597;4.4820;
423.3000;0.2629;4.4871;
423.6000;0.2613;4.4770;
423.9000;0.2580;4.4720;
424.2000;0.2629;4.4795;
424.5000;0.2589;4.4745;
424.8000;0.2597;4.4569;
425.1000;0.2621;4.4695;
425.4000;0.2621;4.4770;
425.7000;0.2686;4.5022;
426.0000;0.2597;4.4820;
426.3000;0.2572;4.4871;
426.6000;0.2613;4.4896;
426.9000;0.2670;4.5072;
427.2000;0.2646;4.4946;
427.5000;0.2621;4.4845;
427.8000;0.2597;4.4770;
428.1000;0.2605;4.4820;
428.4000;0.2637;4.4946;
428.7000;0.2629;4.4971;
429.0000;0.2621;4.5022;
429.3000;0.2548;4.4745;
429.6000;0.2646;4.5072;
429.9000;0.2670;4.5147;
430.2000;0.2637;4.4996;
430.5000;0.2629;4.4971;
430.8000;0.2532;4.4720;
431.1000;0.2629;4.4896;
431.4000;0.2613;4.4820;
431.7000;0.2711;4.5223;
432.0000;0.2670;4.5172;
432.3000;0.2605;4.4971;
432.6000;0.2597;4.4946;
432.9000;0.2597;4.4845;
433.2000;0.2605;4.4996;
433.5000;0.2637;4.5047;
433.8000;0.2556;4.4720;
434.1000;0.2621;4.4946;
434.4000;0.2621;4.4996;
434.7000;0.2629;4.4921;
435.0000;0.2654;4.5047;
435.3000;0.2605;4.4996;
435.6000;0.2637;4.5097;
435.9000;0.2621;4.5097;
436.2000;0.2605;4.5022;
436.5000;0.2613;4.5022;
436.8000;0.2629;4.5147;
437.1000;0.2621;4.5122;
437.4000;0.2613;4.5122;
437.7000;0.2629;4.5223;
438.0000;0.2621;4.5223;
438.3000;0.2532;4.5047;
438.6000;0.2646;4.5399;
438.9000;0.2629;4.5223;
439.2000;0.2629;4.5248;
439.5000;0.2605;4.5122;
439.8000;0.2637;4.5172;
440.1000;0.2613;4.5072;
440.4000;0.2621;4.5047;
440.7000;0.2564;4.4896;
441.0000;0.2605;4.5122;
441.3000;0.2613;4.5122;
441.6000;0.2613;4.5047;
441.9000;0.2613;4.5147;
442.2000;0.2613;4.5198;
442.5000;0.2637;4.5172;
442.8000;0.2621;4.5122;
443.1000;0.2605;4.5122;
443.4000;0.2605;4.5047;
443.7000;0.2613;4.5022;
444.0000;0.2621;4.5072;
444.3000;0.2670;4.5223;
444.6000;0.2589;4.4946;
444.9000;0.2637;4.5122;
445.2000;0.2719;4.5424;
445.5000;0.2564;4.5022;
445.8000;0.2629;4.5248;
446.1000;0.2589;4.5122;
446.4000;0.2678;4.5323;
446.7000;0.2605;4.5122;
447.0000;0.2613;4.5147;
447.3000;0.2621;4.5147;
447.6000;0.2629;4.5072;
447.9000;0.2532;4.4745;
448.2000;0.2621;4.4971;
448.5000;0.2589;4.4921;
448.8000;0.2670;4.5248;
449.1000;0.2646;4.5172;
449.4000;0.2613;4.5097;
449.7000;0.2646;4.5248;
450.0000;0.2629;4.5223;
450.3000;0.2711;4.5499;
450.6000;0.2629;4.5172;
450.9000;0.2564;4.5022;
451.2000;0.2702;4.5399;
451.5000;0.2597;4.5147;
451.8000;0.2613;4.5147;
452.1000;0.2629;4.5122;
452.4000;0.2629;4.5072;
452.7000;0.2637;4.5072;
453.0000;0.2654;4.5147;
453.3000;0.2637;4.5172;
453.6000;0.2654;4.5223;
453.9000;0.2621;4.5298;
454.2000;0.2621;4.5323;
454.5000;0.2621;4.5223;
454.8000;0.2605;4.5097;
455.1000;0.2637;4.5223;
455.4000;0.2646;4.5273;
455.7000;0.2646;4.5248;
456.0000;0.2621;4.5097;
456.3000;0.2621;4.5172;
456.6000;0.2621;4.5248;
456.9000;0.2629;4.5223;
457.2000;0.2605;4.5122;
457.5000;0.2589;4.5072;
457.8000;0.2629;4.5122;
458.1000;0.2629;4.5072;
458.4000;0.2605;4.5122;
458.7000;0.2646;4.5147;
459.0000;0.2613;4.5047;
459.3000;0.2654;4.5097;
459.6000;0.2646;4.5122;
459.9000;0.2711;4.5323;
460.2000;0.2629;4.5097;
460.5000;0.2605;4.4996;
460.8000;0.2646;4.5172;
461.1000;0.2637;4.5122;
461.4000;0.2670;4.5273;
461.7000;0.2613;4.5248;
462.0000;0.2589;4.5147;
462.3000;0.2629;4.5223;
462.6000;0.2637;4.5248;
462.9000;0.2621;4.5198;
463.2000;0.2629;4.5147;
463.5000;0.2589;4.5122;
463.8000;0.2629;4.5147;
464.1000;0.2646;4.5198;
464.4000;0.2613;4.5122;
464.7000;0.2646;4.5172;
465.0000;0.2613;4.5047;
465.3000;0.2613;4.5072;
465.6000;0.2637;4.5122;
465.9000;0.2621;4.5022;
466.2000;0.2605;4.5022;
466.5000;0.2637;4.5047;
466.8000;0.2637;4.5097;
467.1000;0.2613;4.5022;
467.4000;0.2597;4.4896;
467.7000;0.2629;4.4996;
468.0000;0.2629;4.5022;
468.3000;0.2637;4.5097;
468.6000;0.2613;4.5047;
468.9000;0.2654;4.5198;
469.2000;0.2629;4.5097;
469.5000;0.2613;4.5097;
469.8000;0.2613;4.5122;
470.1000;0.2654;4.5198;
470.4000;0.2646;4.5122;
470.7000;0.2621;4.5047;
471.0000;0.2637;4.5097;
471.3000;0.2662;4.5072;
471.6000;0.2646;4.5122;
471.9000;0.2605;4.5022;
472.2000;0.2613;4.5072;
472.5000;0.2621;4.5122;
472.8000;0.2621;4.5198;
473.1000;0.2621;4.5198;
473.4000;0.2605;4.5072;
473.7000;0.2629;4.5097;
474.0000;0.2621;4.5122;
474.3000;0.2629;4.5122;
474.6000;0.2637;4.5198;
474.9000;0.2637;4.5248;
475.2000;0.2540;4.4946;
475.5000;0.2621;4.5223;
475.8000;0.2621;4.5223;
476.1000;0.2670;4.5424;
476.4000;0.2654;4.5248;
476.7000;0.2621;4.5172;
477.0000;0.2613;4.5147;
477.3000;0.2589;4.5072;
477.6000;0.2629;4.5223;
477.9000;0.2572;4.5047;
478.2000;0.2637;4.5198;
478.5000;0.2613;4.5223;
478.8000;0.2621;4.5223;
479.1000;0.2629;4.5198;
479.4000;0.2580;4.5022;
479.7000;0.2613;4.4996;
480.0000;0.2629;4.5097;
480.3000;0.2621;4.5072;
480.6000;0.2646;4.5072;
480.9000;0.2621;4.5072;
481.2000;0.2629;4.5122;
481.5000;0.2629;4.5097;
481.8000;0.2613;4.5047;
482.1000;0.2589;4.5022;
482.4000;0.2597;4.5072;
482.7000;0.2548;4.4845;
483.0000;0.2637;4.5072;
483.3000;0.2613;4.5122;
483.6000;0.2548;4.5022;
483.9000;0.2605;4.5097;
484.2000;0.2702;4.5424;
484.5000;0.2580;4.5147;
484.8000;0.2613;4.5223;
485.1000;0.2621;4.5323;
485.4000;0.2621;4.5298;
485.7000;0.2605;4.5198;
486.0000;0.2621;4.5273;
486.3000;0.2621;4.5223;
486.6000;0.2621;4.5172;
486.9000;0.2605;4.5223;
487.2000;0.2605;4.5223;
487.5000;0.2629;4.5273;
487.8000;0.2629;4.5198;
488.1000;0.2629;4.5248;
488.4000;0.2613;4.5172;
488.7000;0.2597;4.5122;
489.0000;0.2629;4.5172;
489.3000;0.2621;4.5172;
489.6000;0.2572;4.5047;
489.9000;0.2605;4.5147;
490.2000;0.2637;4.5223;
490.5000;0.2646;4.5198;
490.8000;0.2621;4.5248;
491.1000;0.2621;4.5273;
491.4000;0.2589;4.5147;
491.7000;0.2711;4.5499;
492.0000;0.2711;4.5550;
492.3000;0.2605;4.5273;
492.6000;0.2621;4.5424;
492.9000;0.2605;4.5399;
493.2000;0.2662;4.5625;
493.5000;0.2654;4.5499;
493.8000;0.2694;4.5575;
494.1000;0.2605;4.5323;
494.4000;0.2621;4.5374;
494.7000;0.2654;4.5399;
495.0000;0.2637;4.5349;
495.3000;0.2621;4.5349;
495.6000;0.2613;4.5198;
495.9000;0.2613;4.5223;
496.2000;0.2572;4.5223;
496.5000;0.2637;4.5349;
496.8000;0.2629;4.5349;
497.1000;0.2613;4.5273;
497.4000;0.2637;4.5298;
497.7000;0.2621;4.5223;
498.0000;0.2629;4.5349;
498.3000;0.2637;4.5349;
498.6000;0.2654;4.5349;
498.9000;0.2621;4.5273;
499.2000;0.2572;4.5097;
499.5000;0.2613;4.5147;
499.8000;0.2613;4.5172;
500.1000;0.2621;4.5223;
500.4000;0.2605;4.5172;
500.7000;0.2613;4.5248;
501.0000;0.2597;4.5198;
501.3000;0.2654;4.5323;
501.6000;0.2597;4.5248;
501.9000;0.2662;4.5323;
502.2000;0.2654;4.5298;
502.5000;0.2605;4.5198;
502.8000;0.2597;4.5122;
503.1000;0.2605;4.5147;
503.4000;0.2662;4.5223;
503.7000;0.2637;4.5122;
504.0000;0.2621;4.5072;
504.3000;0.2646;4.5122;
504.6000;0.2646;4.5172;
504.9000;0.2654;4.5223;
505.2000;0.2694;4.5273;
505.5000;0.2540;4.4871;
505.8000;0.2629;4.5172;
506.1000;0.2621;4.5147;
506.4000;0.2629;4.5198;
506.7000;0.2637;4.5223;
507.0000;0.2613;4.5198;
507.3000;0.2678;4.5399;
507.6000;0.2605;4.5273;
507.9000;0.2613;4.5374;
508.2000;0.2702;4.5550;
508.5000;0.2580;4.5122;
508.8000;0.2646;4.5323;
509.1000;0.2597;4.5122;
509.4000;0.2646;4.5273;
509.7000;0.2662;4.5374;
510.0000;0.2629;4.5273;
510.3000;0.2589;4.5172;
510.6000;0.2613;4.5273;
510.9000;0.2646;4.5374;
511.2000;0.2629;4.5273;
511.5000;0.2637;4.5349;
511.8000;0.2621;4.5323;
512.1000;0.2613;4.5273;
512.4000;0.2621;4.5223;
512.7000;0.2678;4.5449;
513.0000;0.2735;4.5525;
513.3000;0.2637;4.5172;
513.6000;0.2605;4.5147;
513.9000;0.2629;4.5298;
514.2000;0.2629;4.5374;
514.5000;0.2637;4.5424;
514.8000;0.2556;4.5198;
515.1000;0.2613;4.5273;
515.4000;0.2662;4.5374;
515.7000;0.2556;4.5047;
516.0000;0.2613;4.5198;
516.3000;0.2637;4.5374;
516.6000;0.2597;4.5223;
516.9000;0.2662;4.5323;
517.2000;0.2629;4.5298;
517.5000;0.2613;4.5273;
517.8000;0.2670;4.5499;
518.1000;0.2621;4.5374;
518.4000;0.2613;4.5449;
518.7000;0.2629;4.5349;
519.0000;0.2621;4.5298;
519.3000;0.2597;4.5298;
519.6000;0.2629;4.5349;
519.9000;0.2621;4.5374;
520.2000;0.2572;4.5172;
520.5000;0.2621;4.5248;
520.8000;0.2605;4.5198;
521.1000;0.2621;4.5223;
521.4000;0.2637;4.5374;
521.7000;0.2621;4.5248;
522.0000;0.2589;4.5198;
522.3000;0.2637;4.5298;
522.6000;0.2613;4.5323;
522.9000;0.2605;4.5223;
523.2000;0.2597;4.5273;
523.5000;0.2629;4.5323;
523.8000;0.2629;4.5323;
524.1000;0.2589;4.5147;
524.4000;0.2621;4.5223;
524.7000;0.2637;4.5273;
525.0000;0.2613;4.5248;
525.3000;0.2621;4.5223;
525.6000;0.2613;4.5147;
525.9000;0.2654;4.5273;
526.2000;0.2629;4.5198;
526.5000;0.2629;4.5147;
526.8000;0.2605;4.5072;
527.1000;0.2621;4.5047;
527.4000;0.2646;4.5223;
527.7000;0.2621;4.5198;
528.0000;0.2605;4.5223;
528.3000;0.2613;4.5273;
528.6000;0.2646;4.5298;
528.9000;0.2646;4.5424;
529.2000;0.2646;4.5349;
529.5000;0.2613;4.5223;
529.8000;0.2637;4.5248;
530.1000;0.2597;4.5097;
530.4000;0.2605;4.5072;
530.7000;0.2613;4.5122;
531.0000;0.2637;4.5172;
531.3000;0.2646;4.5298;
531.6000;0.2621;4.5223;
531.9000;0.2589;4.5198;
532.2000;0.2621;4.5298;
532.5000;0.2613;4.5273;
532.8000;0.2548;4.5022;
533.1000;0.2629;4.5248;
533.4000;0.2694;4.5525;
533.7000;0.2613;4.5298;
534.0000;0.2637;4.5349;
534.3000;0.2629;4.5349;
534.6000;0.2613;4.5273;
534.9000;0.2605;4.5323;
535.2000;0.2646;4.5374;
535.5000;0.2572;4.5223;
535.8000;0.2678;4.5525;
536.1000;0.2556;4.5273;
536.4000;0.2719;4.5600;
536.7000;0.2621;4.5323;
537.0000;0.2540;4.5022;
537.3000;0.2523;4.4971;
537.6000;0.2654;4.5424;
537.9000;0.2621;4.5424;
538.2000;0.2572;4.5248;
538.5000;0.2637;4.5349;
538.8000;0.2564;4.5147;
539.1000;0.2597;4.5323;
539.4000;0.2711;4.5675;
539.7000;0.2768;4.5751;
540.0000;0.2678;4.5550;
540.3000;0.2662;4.5449;
540.6000;0.2605;4.5248;
540.9000;0.2532;4.5122;
541.2000;0.2605;4.5449;
541.5000;0.2621;4.5449;
541.8000;0.2621;4.5424;
542.1000;0.2662;4.5474;
542.4000;0.2556;4.5248;
542.7000;0.2735;4.5701;
543.0000;0.2556;4.5122;
543.3000;0.2621;4.5223;
543.6000;0.2613;4.5223;
543.9000;0.2637;4.5223;
544.2000;0.2646;4.5323;
544.5000;0.2629;4.5298;
544.8000;0.2556;4.5248;
545.1000;0.2654;4.5474;
545.4000;0.2637;4.5499;
545.7000;0.2605;4.5449;
546.0000;0.2629;4.5525;
546.3000;0.2597;4.5449;
546.6000;0.2629;4.5374;
546.9000;0.2637;4.5474;
547.2000;0.2637;4.5474;
547.5000;0.2629;4.5449;
547.8000;0.2621;4.5323;
548.1000;0.2646;4.5424;
548.4000;0.2621;4.5323;
548.7000;0.2621;4.5374;
549.0000;0.2499;4.4946;
549.3000;0.2597;4.5198;
549.6000;0.2629;4.5198;
549.9000;0.2605;4.5248;
550.2000;0.2589;4.5097;
550.5000;0.2613;4.5248;
550.8000;0.2580;4.5097;
551.1000;0.2605;4.5122;
551.4000;0.2654;4.5248;
551.7000;0.2613;4.5097;
552.0000;0.2662;4.5198;
552.3000;0.2605;4.4946;
552.6000;0.2597;4.4946;
552.9000;0.2589;4.5022;
553.2000;0.2670;4.5273;
553.5000;0.2613;4.5047;
553.8000;0.2605;4.5172;
554.1000;0.2629;4.5298;
554.4000;0.2768;4.5625;
554.7000;0.2605;4.5323;
555.0000;0.2629;4.5349;
555.3000;0.2637;4.5374;
555.6000;0.2613;4.5323;
555.9000;0.2605;4.5147;
556.2000;0.2621;4.5147;
556.5000;0.2613;4.5122;
556.8000;0.2605;4.5147;
557.1000;0.2605;4.5172;
557.4000;0.2605;4.5198;
557.7000;0.2605;4.5147;
558.0000;0.2646;4.5248;
558.3000;0.2654;4.5248;
558.6000;0.2556;4.5072;
558.9000;0.2646;4.5273;
559.2000;0.2646;4.5147;
559.5000;0.2613;4.5072;
559.8000;0.2523;4.4921;
560.1000;0.2646;4.5248;
560.4000;0.2702;4.5550;
560.7000;0.2613;4.5349;
561.0000;0.2605;4.5323;
561.3000;0.2662;4.5424;
561.6000;0.2597;4.5122;
561.9000;0.2621;4.5223;
562.2000;0.2629;4.5172;
562.5000;0.2613;4.5122;
562.8000;0.2621;4.5047;
563.1000;0.2613;4.4996;
563.4000;0.2532;4.4770;
563.7000;0.2507;4.4695;
564.0000;0.2637;4.5072;
564.3000;0.2629;4.5122;
564.6000;0.2605;4.5122;
564.9000;0.2654;4.5323;
565.2000;0.2621;4.5147;
565.5000;0.2613;4.5097;
565.8000;0.2621;4.5097;
566.1000;0.2572;4.4921;
566.4000;0.2629;4.5122;
566.7000;0.2613;4.5047;
567.0000;0.2662;4.5198;
567.3000;0.2613;4.5147;
567.6000;0.2621;4.5097;
567.9000;0.2540;4.4845;
568.2000;0.2646;4.5047;
568.5000;0.2629;4.5072;
568.8000;0.2646;4.5147;
569.1000;0.2678;4.5273;
569.4000;0.2597;4.5072;
569.7000;0.2629;4.5122;
570.0000;0.2564;4.4921;
570.3000;0.2613;4.5097;
570.6000;0.2654;4.5223;
570.9000;0.2507;4.4770;
571.2000;0.2613;4.5047;
571.5000;0.2605;4.4971;
571.8000;0.2621;4.5047;
572.1000;0.2637;4.5147;
572.4000;0.2605;4.5097;
572.7000;0.2621;4.5172;
573.0000;0.2621;4.5248;
573.3000;0.2629;4.5198;
573.6000;0.2702;4.5474;
573.9000;0.2621;4.5223;
574.2000;0.2597;4.5147;
574.5000;0.2613;4.5122;
574.8000;0.2613;4.5022;
575.1000;0.2613;4.4921;
575.4000;0.2670;4.5072;
575.7000;0.2646;4.4921;
576.0000;0.2613;4.4896;
576.3000;0.2751;4.5248;
576.6000;0.2662;4.4996;
576.9000;0.2646;4.4971;
577.2000;0.2654;4.5047;
577.5000;0.2662;4.4996;
577.8000;0.2629;4.4921;
578.1000;0.2646;4.5047;
578.4000;0.2564;4.4770;
578.7000;0.2613;4.4996;
579.0000;0.2613;4.5022;
579.3000;0.2613;4.4971;
579.6000;0.2629;4.4996;
579.9000;0.2572;4.4896;
580.2000;0.2613;4.5072;
580.5000;0.2613;4.4971;
580.8000;0.2621;4.4996;
581.1000;0.2589;4.4921;
581.4000;0.2597;4.4871;
581.7000;0.2605;4.4996;
582.0000;0.2580;4.4896;
582.3000;0.2580;4.4946;
582.6000;0.2629;4.5172;
582.9000;0.2605;4.5172;
583.2000;0.2548;4.5047;
583.5000;0.2629;4.5198;
583.8000;0.2613;4.5172;
584.1000;0.2605;4.5273;
584.4000;0.2621;4.5298;
584.7000;0.2540;4.5097;
585.0000;0.2621;4.5323;
585.3000;0.2605;4.5323;
585.6000;0.2678;4.5499;
585.9000;0.2621;4.5273;
586.2000;0.2621;4.5248;
586.5000;0.2613;4.5172;
586.8000;0.2646;4.5323;
587.1000;0.2597;4.5047;
587.4000;0.2670;4.5172;
587.7000;0.2597;4.5022;
588.0000;0.2613;4.5097;
588.3000;0.2654;4.5223;
588.6000;0.2613;4.5097;
588.9000;0.2662;4.5323;
589.2000;0.2637;4.5349;
589.5000;0.2597;4.5172;
589.8000;0.2613;4.5198;
590.1000;0.2613;4.5147;
590.4000;0.2621;4.5198;
590.7000;0.2475;4.4770;
591.0000;0.2621;4.5248;
591.3000;0.2629;4.5122;
591.6000;0.2629;4.5147;
591.9000;0.2605;4.5097;
592.2000;0.2613;4.5097;
592.5000;0.2629;4.5172;
592.8000;0.2637;4.5223;
593.1000;0.2613;4.5072;
593.4000;0.2605;4.5072;
593.7000;0.2629;4.5122;
594.0000;0.2621;4.5072;
594.3000;0.2597;4.5122;
594.6000;0.2621;4.5223;
594.9000;0.2637;4.5349;
595.2000;0.2629;4.5273;
595.5000;0.2629;4.5223;
595.8000;0.2621;4.5147;
596.1000;0.2605;4.5022;
596.4000;0.2564;4.4896;
596.7000;0.2605;4.4946;
597.0000;0.2621;4.4971;
597.3000;0.2589;4.4921;
597.6000;0.2589;4.4921;
597.9000;0.2483;4.4569;
598.2000;0.2629;4.5022;
598.5000;0.2613;4.5022;
598.8000;0.2646;4.5097;
599.1000;0.2613;4.4996;
599.4000;0.2678;4.5097;
599.7000;0.2629;4.4996;
600.0000;0.2621;4.4996;
600.3000;0.2621;4.4946;
600.6000;0.2621;4.4745;
600.9000;0.2572;4.4468;
601.2000;0.2605;4.4242;
601.5000;0.2564;4.3890;
601.8000;0.2564;4.3663;
602.1000;0.2442;4.3185;
602.4000;0.2540;4.3311;
602.7000;0.2564;4.3160;
603.0000;0.2491;4.2884;
603.3000;0.2499;4.2758;
603.6000;0.2548;4.2657;
603.9000;0.2515;4.2481;
604.2000;0.2491;4.2305;
604.5000;0.2491;4.2255;
604.8000;0.2515;4.2154;
605.1000;0.2483;4.1978;
605.4000;0.2450;4.1802;
605.7000;0.2548;4.2003;
606.0000;0.2475;4.1827;
606.3000;0.2466;4.1752;
606.6000;0.2532;4.1852;
606.9000;0.2458;4.1651;
607.2000;0.2499;4.1752;
607.5000;0.2466;4.1551;
607.8000;0.2442;4.1425;
608.1000;0.2458;4.1525;
608.4000;0.2475;4.1400;
608.7000;0.2426;4.1073;
609.0000;0.2434;4.1073;
609.3000;0.2458;4.1098;
609.6000;0.2442;4.1173;
609.9000;0.2458;4.1173;
610.2000;0.2458;4.1274;
610.5000;0.2434;4.1098;
610.8000;0.2450;4.1198;
611.1000;0.2491;4.1274;
611.4000;0.2450;4.1198;
611.7000;0.2442;4.1224;
612.0000;0.2450;4.1173;
612.3000;0.2450;4.1098;
612.6000;0.2442;4.0947;
612.9000;0.2458;4.1048;
613.2000;0.2418;4.0897;
613.5000;0.2434;4.0947;
613.8000;0.2442;4.1022;
614.1000;0.2442;4.1022;
614.4000;0.2442;4.1073;
614.7000;0.2442;4.0997;
615.0000;0.2442;4.1022;
615.3000;0.2434;4.0972;
615.6000;0.2442;4.0997;
615.9000;0.2426;4.0922;
616.2000;0.2434;4.0872;
616.5000;0.2434;4.0771;
616.8000;0.2426;4.0796;
617.1000;0.2369;4.0620;
617.4000;0.2442;4.0746;
617.7000;0.2434;4.0821;
618.0000;0.2434;4.0872;
618.3000;0.2434;4.0947;
618.6000;0.2458;4.0997;
618.9000;0.2426;4.0972;
619.2000;0.2434;4.1048;
619.5000;0.2442;4.1198;
619.8000;0.2450;4.1173;
620.1000;0.2450;4.1249;
620.4000;0.2401;4.1048;
620.7000;0.2450;4.1048;
621.0000;0.2434;4.0872;
621.3000;0.2450;4.0922;
621.6000;0.2434;4.0771;
621.9000;0.2426;4.0695;
622.2000;0.2426;4.0846;
622.5000;0.2426;4.0771;
622.8000;0.2442;4.0897;
623.1000;0.2434;4.0897;
623.4000;0.2426;4.0947;
623.7000;0.2434;4.0947;
624.0000;0.2442;4.0897;
624.3000;0.2418;4.0846;
624.6000;0.2450;4.0897;
624.9000;0.2434;4.0796;
625.2000;0.2450;4.0771;
625.5000;0.2458;4.0771;
625.8000;0.2426;4.0721;
626.1000;0.2418;4.0721;
626.4000;0.2458;4.0746;
626.7000;0.2434;4.0695;
627.0000;0.2361;4.0494;
627.3000;0.2426;4.0620;
627.6000;0.2418;4.0620;
627.9000;0.2418;4.0695;
628.2000;0.2418;4.0721;
628.5000;0.2409;4.0721;
628.8000;0.2556;4.1048;
629.1000;0.2458;4.0796;
629.4000;0.2458;4.0796;
629.7000;0.2352;4.0519;
630.0000;0.2450;4.0947;
630.3000;0.2450;4.0897;
630.6000;0.2523;4.1022;
630.9000;0.2426;4.0872;
631.2000;0.2450;4.0897;
631.5000;0.2409;4.0771;
631.8000;0.2418;4.0746;
632.1000;0.2401;4.0545;
632.4000;0.2434;4.0695;
632.7000;0.2377;4.0545;
633.0000;0.2393;4.0645;
633.3000;0.2450;4.0796;
633.6000;0.2426;4.0670;
633.9000;0.2442;4.0721;
634.2000;0.2426;4.0746;
634.5000;0.2507;4.0922;
634.8000;0.2434;4.0721;
635.1000;0.2442;4.0746;
635.4000;0.2483;4.0846;
635.7000;0.2426;4.0746;
636.0000;0.2475;4.0821;
636.3000;0.2434;4.0721;
636.6000;0.2426;4.0721;
636.9000;0.2434;4.0746;
637.2000;0.2377;4.0645;
637.5000;0.2401;4.0721;
637.8000;0.2418;4.0846;
638.1000;0.2409;4.0746;
638.4000;0.2458;4.0796;
638.7000;0.2418;4.0645;
639.0000;0.2450;4.0771;
639.3000;0.2450;4.0771;
639.6000;0.2434;4.0947;
639.9000;0.2418;4.0872;
640.2000;0.2434;4.0796;
640.5000;0.2418;4.0670;
640.8000;0.2442;4.0670;
641.1000;0.2426;4.0519;
641.4000;0.2442;4.0519;
641.7000;0.2434;4.0570;
642.0000;0.2442;4.0620;
642.3000;0.2442;4.0721;
642.6000;0.2401;4.0670;
642.9000;0.2426;4.0746;
643.2000;0.2434;4.0721;
643.5000;0.2450;4.0771;
643.8000;0.2418;4.0771;
644.1000;0.2426;4.0721;
644.4000;0.2450;4.0846;
644.7000;0.2426;4.0796;
645.0000;0.2401;4.0721;
645.3000;0.2352;4.0494;
645.6000;0.2320;4.0494;
645.9000;0.2426;4.0796;
646.2000;0.2418;4.0771;
646.5000;0.2426;4.0872;
646.8000;0.2426;4.0947;
647.1000;0.2418;4.0872;
647.4000;0.2466;4.0972;
647.7000;0.2320;4.0570;
648.0000;0.2426;4.0872;
648.3000;0.2450;4.0846;
648.6000;0.2442;4.0771;
648.9000;0.2458;4.0796;
649.2000;0.2466;4.0771;
649.5000;0.2450;4.0746;
649.8000;0.2418;4.0746;
650.1000;0.2426;4.0846;
650.4000;0.2442;4.0897;
650.7000;0.2434;4.0897;
651.0000;0.2507;4.1123;
651.3000;0.2418;4.0846;
651.6000;0.2426;4.0897;
651.9000;0.2426;4.0872;
652.2000;0.2336;4.0519;
652.5000;0.2515;4.0897;
652.8000;0.2409;4.0645;
653.1000;0.2532;4.1148;
653.4000;0.2426;4.0872;
653.7000;0.2361;4.0746;
654.0000;0.2442;4.0897;
654.3000;0.2434;4.0821;
654.6000;0.2393;4.0620;
654.9000;0.2409;4.0695;
655.2000;0.2426;4.0695;
655.5000;0.2426;4.0695;
655.8000;0.2385;4.0796;
656.1000;0.2352;4.0771;
656.4000;0.2442;4.0972;
656.7000;0.2426;4.0846;
657.0000;0.2401;4.0846;
657.3000;0.2450;4.0997;
657.6000;0.2401;4.0796;
657.9000;0.2418;4.0821;
658.2000;0.2450;4.0796;
658.5000;0.2442;4.0771;
658.8000;0.2377;4.0620;
659.1000;0.2442;4.0771;
659.4000;0.2442;4.0771;
659.7000;0.2426;4.0771;
660.0000;0.2442;4.0846;
660.3000;0.2475;4.0846;
660.6000;0.2434;4.0771;
660.9000;0.2442;4.0846;
661.2000;0.2458;4.0872;
661.5000;0.2426;4.0796;
661.8000;0.2499;4.1098;
662.1000;0.2434;4.0897;
662.4000;0.2377;4.0746;
662.7000;0.2426;4.0846;
663.0000;0.2450;4.0972;
663.3000;0.2401;4.0821;
663.6000;0.2418;4.0972;
663.9000;0.2442;4.1048;
664.2000;0.2409;4.0947;
664.5000;0.2426;4.0972;
664.8000;0.2434;4.0997;
665.1000;0.2377;4.0796;
665.4000;0.2426;4.0872;
665.7000;0.2418;4.0796;
666.0000;0.2442;4.0796;
666.3000;0.2458;4.0922;
666.6000;0.2434;4.0796;
666.9000;0.2450;4.0796;
667.2000;0.2442;4.0796;
667.5000;0.2418;4.0746;
667.8000;0.2369;4.0670;
668.1000;0.2426;4.0897;
668.4000;0.2491;4.1022;
668.7000;0.2442;4.0922;
669.0000;0.2450;4.0972;
669.3000;0.2434;4.1022;
669.6000;0.2426;4.0997;
669.9000;0.2426;4.0897;
670.2000;0.2409;4.0872;
670.5000;0.2450;4.0997;
670.8000;0.2352;4.0821;
671.1000;0.2458;4.1022;
671.4000;0.2426;4.1022;
671.7000;0.2352;4.0645;
672.0000;0.2572;4.1173;
672.3000;0.2556;4.1198;
672.6000;0.2442;4.0947;
672.9000;0.2426;4.0922;
673.2000;0.2442;4.0922;
673.5000;0.2418;4.0821;
673.8000;0.2418;4.0897;
674.1000;0.2458;4.0947;
674.4000;0.2344;4.0620;
674.7000;0.2458;4.0972;
675.0000;0.2401;4.0796;
675.3000;0.2409;4.0796;
675.6000;0.2466;4.0922;
675.9000;0.2475;4.0872;
676.2000;0.2434;4.0821;
676.5000;0.2434;4.0721;
676.8000;0.2426;4.0796;
677.1000;0.2352;4.0620;
677.4000;0.2426;4.0897;
677.7000;0.2409;4.0821;
678.0000;0.2426;4.0846;
678.3000;0.2442;4.0821;
678.6000;0.2442;4.0872;
678.9000;0.2442;4.0771;
679.2000;0.2466;4.0897;
679.5000;0.2361;4.0595;
679.8000;0.2442;4.0796;
680.1000;0.2434;4.0695;
680.4000;0.2409;4.0620;
680.7000;0.2434;4.0620;
681.0000;0.2442;4.0695;
681.3000;0.2442;4.0746;
681.6000;0.2450;4.0872;
681.9000;0.2409;4.0796;
682.2000;0.2352;4.0620;
682.5000;0.2426;4.0771;
682.8000;0.2442;4.0721;
683.1000;0.2450;4.0771;
683.4000;0.2418;4.0721;
683.7000;0.2401;4.0695;
684.0000;0.2434;4.0721;
684.3000;0.2426;4.0721;
684.6000;0.2434;4.0821;
684.9000;0.2450;4.0922;
685.2000;0.2434;4.0821;
685.5000;0.2361;4.0595;
685.8000;0.2409;4.0746;
686.1000;0.2458;4.0972;
686.4000;0.2393;4.0872;
686.7000;0.2434;4.0997;
687.0000;0.2418;4.0872;
687.3000;0.2409;4.0897;
687.6000;0.2418;4.0922;
687.9000;0.2426;4.0922;
688.2000;0.2434;4.0922;
688.5000;0.2442;4.0972;
688.8000;0.2434;4.0947;
689.1000;0.2385;4.0821;
689.4000;0.2426;4.0947;
689.7000;0.2426;4.0922;
690.0000;0.2523;4.1148;
690.3000;0.2572;4.1198;
690.6000;0.2466;4.0922;
690.9000;0.2385;4.0670;
691.2000;0.2418;4.0695;
691.5000;0.2434;4.0771;
691.8000;0.2434;4.0771;
692.1000;0.2434;4.0796;
692.4000;0.2515;4.1048;
692.7000;0.2409;4.0771;
693.0000;0.2442;4.0796;
693.3000;0.2336;4.0519;
693.6000;0.2491;4.0922;
693.9000;0.2426;4.0721;
694.2000;0.2409;4.0645;
694.5000;0.2442;4.0695;
694.8000;0.2377;4.0494;
695.1000;0.2442;4.0721;
695.4000;0.2499;4.0947;
695.7000;0.2426;4.0771;
696.0000;0.2515;4.1123;
696.3000;0.2409;4.0721;
696.6000;0.2442;4.0796;
696.9000;0.2426;4.0695;
697.2000;0.2442;4.0695;
697.5000;0.2458;4.0746;
697.8000;0.2442;4.0746;
698.1000;0.2523;4.0997;
698.4000;0.2369;4.0645;
698.7000;0.2450;4.0972;
699.0000;0.2450;4.1048;
699.3000;0.2401;4.0897;
699.6000;0.2458;4.0897;
699.9000;0.2434;4.0846;
700.2000;0.2442;4.0872;
700.5000;0.2442;4.0771;
700.8000;0.2418;4.0670;
701.1000;0.2442;4.0821;
701.4000;0.2418;4.0746;
701.7000;0.2369;4.0620;
702.0000;0.2442;4.0796;
702.3000;0.2442;4.0721;
702.6000;0.2458;4.0922;
702.9000;0.2409;4.0846;
703.2000;0.2442;4.0846;
703.5000;0.2434;4.0846;
703.8000;0.2393;4.0771;
704.1000;0.2409;4.0821;
704.4000;0.2434;4.0872;
704.7000;0.2426;4.0821;
705.0000;0.2434;4.0872;
705.3000;0.2458;4.0922;
705.6000;0.2450;4.0872;
705.9000;0.2434;4.0872;
706.2000;0.2450;4.0872;
706.5000;0.2434;4.0897;
706.8000;0.2426;4.0846;
707.1000;0.2385;4.0746;
707.4000;0.2409;4.0771;
707.7000;0.2450;4.0872;
708.0000;0.2409;4.0746;
708.3000;0.2418;4.0721;
708.6000;0.2434;4.0796;
708.9000;0.2434;4.0821;
709.2000;0.2540;4.1048;
709.5000;0.2287;4.0293;
709.8000;0.2336;4.0368;
710.1000;0.2409;4.0519;
710.4000;0.2385;4.0494;
710.7000;0.2418;4.0570;
711.0000;0.2434;4.0670;
711.3000;0.2426;4.0545;
711.6000;0.2418;4.0595;
711.9000;0.2434;4.0670;
712.2000;0.2426;4.0721;
712.5000;0.2434;4.0796;
712.8000;0.2434;4.0721;
713.1000;0.2426;4.0670;
713.4000;0.2442;4.0721;
713.7000;0.2418;4.0620;
714.0000;0.2442;4.0721;
714.3000;0.2515;4.1048;
714.6000;0.2409;4.0821;
714.9000;0.2426;4.0821;
715.2000;0.2458;4.0897;
715.5000;0.2426;4.0746;
715.8000;0.2434;4.0771;
716.1000;0.2426;4.0721;
716.4000;0.2532;4.0972;
716.7000;0.2426;4.0695;
717.0000;0.2418;4.0721;
717.3000;0.2450;4.0746;
717.6000;0.2491;4.0796;
717.9000;0.2483;4.0821;
718.2000;0.2426;4.0595;
718.5000;0.2393;4.0494;
718.8000;0.2426;4.0595;
719.1000;0.2466;4.0645;
719.4000;0.2450;4.0645;
719.7000;0.2434;4.0494;
720.0000;0.2401;4.0394;
720.3000;0.2409;4.0419;
720.6000;0.2434;4.0494;
720.9000;0.2450;4.0469;
721.2000;0.2475;4.0620;
721.5000;0.2450;4.0620;
721.8000;0.2426;4.0645;
722.1000;0.2426;4.0620;
722.4000;0.2515;4.0846;
722.7000;0.2442;4.0670;
723.0000;0.2295;4.0318;
723.3000;0.2442;4.0746;
723.6000;0.2434;4.0670;
723.9000;0.2450;4.0771;
724.2000;0.2458;4.0846;
724.5000;0.2458;4.0796;
724.8000;0.2434;4.0721;
725.1000;0.2312;4.0419;
725.4000;0.2450;4.0746;
725.7000;0.2434;4.0670;
726.0000;0.2328;4.0368;
726.3000;0.2466;4.0721;
726.6000;0.2450;4.0746;
726.9000;0.2483;4.0796;
727.2000;0.2442;4.0721;
727.5000;0.2418;4.0620;
727.8000;0.2458;4.0721;
728.1000;0.2434;4.0695;
728.4000;0.2442;4.0846;
728.7000;0.2418;4.0897;
729.0000;0.2450;4.0997;
729.3000;0.2491;4.1098;
729.6000;0.2442;4.0897;
729.9000;0.2450;4.0922;
730.2000;0.2434;4.0872;
730.5000;0.2442;4.0846;
730.8000;0.2442;4.0846;
731.1000;0.2320;4.0444;
731.4000;0.2434;4.0821;
731.7000;0.2434;4.0872;
732.0000;0.2418;4.0846;
732.3000;0.2426;4.0922;
732.6000;0.2377;4.0746;
732.9000;0.2426;4.0897;
733.2000;0.2409;4.0872;
733.5000;0.2532;4.1198;
733.8000;0.2361;4.0645;
734.1000;0.2426;4.0821;
734.4000;0.2336;4.0620;
734.7000;0.2409;4.0796;
735.0000;0.2426;4.0821;
735.3000;0.2434;4.0922;
735.6000;0.2434;4.1022;
735.9000;0.2458;4.1148;
736.2000;0.2393;4.0821;
736.5000;0.2385;4.0796;
736.8000;0.2401;4.0746;
737.1000;0.2442;4.0872;
737.4000;0.2442;4.0872;
737.7000;0.2434;4.0846;
738.0000;0.2434;4.0846;
738.3000;0.2458;4.0947;
738.6000;0.2450;4.0897;
738.9000;0.2442;4.0947;
739.2000;0.2434;4.0897;
739.5000;0.2434;4.0997;
739.8000;0.2458;4.0972;
740.1000;0.2434;4.0897;
740.4000;0.2523;4.1098;
740.7000;0.2434;4.0846;
741.0000;0.2426;4.0821;
741.3000;0.2434;4.0821;
741.6000;0.2450;4.0821;
741.9000;0.2304;4.0469;
742.2000;0.2361;4.0469;
742.5000;0.2442;4.0821;
742.8000;0.2426;4.0897;
743.1000;0.2377;4.0821;
743.4000;0.2409;4.0821;
743.7000;0.2442;4.0897;
744.0000;0.2369;4.0746;
744.3000;0.2458;4.0972;
744.6000;0.2442;4.0997;
744.9000;0.2418;4.0947;
745.2000;0.2442;4.1048;
745.5000;0.2442;4.0922;
745.8000;0.2418;4.0796;
746.1000;0.2418;4.0821;
746.4000;0.2393;4.0821;
746.7000;0.2409;4.0796;
747.0000;0.2564;4.1274;
747.3000;0.2426;4.0922;
747.6000;0.2377;4.0645;
747.9000;0.2491;4.0997;
748.2000;0.2426;4.0821;
748.5000;0.2434;4.0796;
748.8000;0.2418;4.0821;
749.1000;0.2271;4.0368;
749.4000;0.2442;4.0695;
749.7000;0.2401;4.0570;
750.0000;0.2483;4.0746;
750.3000;0.2434;4.0620;
750.6000;0.2369;4.0519;
750.9000;0.2434;4.0645;
751.2000;0.2442;4.0670;
751.5000;0.2434;4.0620;
751.8000;0.2434;4.0670;
752.1000;0.2442;4.0796;
752.4000;0.2450;4.0746;
752.7000;0.2458;4.0721;
753.0000;0.2434;4.0721;
753.3000;0.2385;4.0620;
753.6000;0.2491;4.0972;
753.9000;0.2450;4.0796;
754.2000;0.2450;4.0746;
754.5000;0.2475;4.0771;
754.8000;0.2458;4.0721;
755.1000;0.2418;4.0519;
755.4000;0.2418;4.0620;
755.7000;0.2418;4.0620;
756.0000;0.2466;4.0796;
756.3000;0.2556;4.1073;
756.6000;0.2409;4.0670;
756.9000;0.2434;4.0746;
757.2000;0.2507;4.0972;
757.5000;0.2450;4.0846;
757.8000;0.2401;4.0670;
758.1000;0.2344;4.0519;
758.4000;0.2426;4.0796;
758.7000;0.2434;4.0821;
759.0000;0.2466;4.0947;
759.3000;0.2418;4.0872;
759.6000;0.2418;4.0771;
759.9000;0.2442;4.0897;
760.2000;0.2466;4.0972;
760.5000;0.2434;4.0846;
760.8000;0.2450;4.0922;
761.1000;0.2450;4.0846;
761.4000;0.2548;4.1073;
761.7000;0.2450;4.0846;
762.0000;0.2377;4.0670;
762.3000;0.2458;4.0972;
762.6000;0.2442;4.0846;
762.9000;0.2434;4.0796;
763.2000;0.2369;4.0620;
763.5000;0.2491;4.1022;
763.8000;0.2450;4.0947;
764.1000;0.2442;4.0872;
764.4000;0.2499;4.0922;
764.7000;0.2426;4.0771;
765.0000;0.2450;4.0897;
765.3000;0.2434;4.0872;
765.6000;0.2426;4.0796;
765.9000;0.2580;4.1274;
766.2000;0.2377;4.0645;
766.5000;0.2442;4.0872;
766.8000;0.2418;4.0897;
767.1000;0.2426;4.0947;
767.4000;0.2426;4.0922;
767.7000;0.2442;4.1022;
768.0000;0.2491;4.1123;
768.3000;0.2409;4.0947;
768.6000;0.2418;4.0947;
768.9000;0.2466;4.1048;
769.2000;0.2475;4.1048;
769.5000;0.2418;4.0746;
769.8000;0.2426;4.0771;
770.1000;0.2426;4.0897;
770.4000;0.2426;4.0821;
770.7000;0.2450;4.0922;
771.0000;0.2450;4.0872;
771.3000;0.2426;4.0746;
771.6000;0.2450;4.0796;
771.9000;0.2418;4.0721;
772.2000;0.2393;4.0670;
772.5000;0.2426;4.0670;
772.8000;0.2401;4.0519;
773.1000;0.2442;4.0620;
773.4000;0.2450;4.0721;
773.7000;0.2507;4.0922;
774.0000;0.2418;4.0670;
774.3000;0.2450;4.0821;
774.6000;0.2369;4.0645;
774.9000;0.2458;4.0972;
775.2000;0.2442;4.0872;
775.5000;0.2450;4.0922;
775.8000;0.2426;4.0872;
776.1000;0.2458;4.0947;
776.4000;0.2434;4.0947;
776.7000;0.2434;4.0947;
777.0000;0.2426;4.0922;
777.3000;0.2369;4.0721;
777.6000;0.2434;4.0872;
777.9000;0.2450;4.0922;
778.2000;0.2418;4.0947;
778.5000;0.2426;4.0997;
778.8000;0.2458;4.0997;
779.1000;0.2418;4.0846;
779.4000;0.2361;4.0721;
779.7000;0.2409;4.0771;
780.0000;0.2434;4.0796;
780.3000;0.2434;4.0821;
780.6000;0.2434;4.0897;
780.9000;0.2426;4.0846;
781.2000;0.2385;4.0821;
781.5000;0.2499;4.1173;
781.8000;0.2369;4.0846;
782.1000;0.2401;4.0821;
782.4000;0.2361;4.0796;
782.7000;0.2515;4.1148;
783.0000;0.2401;4.0771;
783.3000;0.2466;4.0872;
783.6000;0.2450;4.0846;
783.9000;0.2475;4.1022;
784.2000;0.2426;4.0947;
784.5000;0.2401;4.0821;
784.8000;0.2320;4.0595;
785.1000;0.2450;4.0947;
785.4000;0.2401;4.0846;
785.7000;0.2434;4.0922;
786.0000;0.2458;4.0972;
786.3000;0.2442;4.0972;
786.6000;0.2418;4.0872;
786.9000;0.2434;4.0846;
787.2000;0.2287;4.0469;
787.5000;0.2450;4.1048;
787.8000;0.2491;4.1123;
788.1000;0.2450;4.1022;
788.4000;0.2475;4.1073;
788.7000;0.2442;4.0796;
789.0000;0.2409;4.0897;
789.3000;0.2352;4.0695;
789.6000;0.2442;4.0821;
789.9000;0.2450;4.0746;
790.2000;0.2450;4.0771;
790.5000;0.2483;4.0846;
790.8000;0.2450;4.0695;
791.1000;0.2418;4.0695;
791.4000;0.2450;4.0821;
791.7000;0.2434;4.0846;
792.0000;0.2450;4.0872;
792.3000;0.2385;4.0670;
792.6000;0.2450;4.0821;
792.9000;0.2426;4.0771;
793.2000;0.2361;4.0570;
793.5000;0.2442;4.0746;
793.8000;0.2450;4.0670;
794.1000;0.2418;4.0595;
794.4000;0.2434;4.0695;
794.7000;0.2450;4.0771;
795.0000;0.2442;4.0771;
795.3000;0.2458;4.0771;
795.6000;0.2418;4.0670;
795.9000;0.2418;4.0695;
796.2000;0.2466;4.0796;
796.5000;0.2434;4.0721;
796.8000;0.2434;4.0796;
797.1000;0.2442;4.0771;
797.4000;0.2426;4.0721;
797.7000;0.2377;4.0570;
798.0000;0.2426;4.0695;
798.3000;0.2418;4.0746;
798.6000;0.2385;4.0670;
798.9000;0.2434;4.0821;
799.2000;0.2450;4.0796;
799.5000;0.2434;4.0645;
799.8000;0.2442;4.0695;
800.1000;0.2450;4.0746;
800.4000;0.2336;4.0570;
800.7000;0.2458;4.0846;
801.0000;0.2442;4.0846;
801.3000;0.2434;4.0872;
801.6000;0.2434;4.0897;
801.9000;0.2409;4.0846;
802.2000;0.2426;4.0922;
802.5000;0.2426;4.0872;
802.8000;0.2442;4.0897;
803.1000;0.2475;4.0972;
803.4000;0.2442;4.0972;
803.7000;0.2442;4.0897;
804.0000;0.2442;4.0846;
804.3000;0.2369;4.0620;
804.6000;0.2466;4.0897;
804.9000;0.2434;4.0796;
805.2000;0.2442;4.0897;
805.5000;0.2466;4.1022;
805.8000;0.2418;4.0821;
806.1000;0.2540;4.1148;
806.4000;0.2312;4.0570;
806.7000;0.2442;4.0947;
807.0000;0.2491;4.1098;
807.3000;0.2426;4.0872;
807.6000;0.2434;4.0846;
807.9000;0.2418;4.0746;
808.2000;0.2515;4.0897;
808.5000;0.2418;4.0721;
808.8000;0.2491;4.0897;
809.1000;0.2426;4.0595;
809.4000;0.2475;4.0695;
809.7000;0.2434;4.0670;
810.0000;0.2426;4.0670;
810.3000;0.2450;4.0821;
810.6000;0.2540;4.1173;
810.9000;0.2401;4.0897;
811.2000;0.2418;4.0972;
811.5000;0.2418;4.0872;
811.8000;0.2523;4.1198;
812.1000;0.2475;4.1073;
812.4000;0.2466;4.1048;
812.7000;0.2434;4.0972;
813.0000;0.2352;4.0746;
813.3000;0.2442;4.0922;
813.6000;0.2409;4.0821;
813.9000;0.2475;4.0997;
814.2000;0.2450;4.1048;
814.5000;0.2450;4.0997;
814.8000;0.2409;4.0922;
815.1000;0.2409;4.0897;
815.4000;0.2475;4.1048;
815.7000;0.2450;4.0972;
816.0000;0.2426;4.0997;
816.3000;0.2426;4.1022;
816.6000;0.2442;4.1073;
816.9000;0.2442;4.1022;
817.2000;0.2352;4.0695;
817.5000;0.2426;4.0846;
817.8000;0.2442;4.0846;
818.1000;0.2442;4.0897;
818.4000;0.2475;4.0947;
818.7000;0.2532;4.1098;
819.0000;0.2401;4.0746;
819.3000;0.2458;4.0922;
819.6000;0.2450;4.0922;
819.9000;0.2434;4.0897;
820.2000;0.2434;4.0947;
820.5000;0.2409;4.0922;
820.8000;0.2450;4.0947;
821.1000;0.2442;4.0997;
821.4000;0.2409;4.0997;
821.7000;0.2418;4.0997;
822.0000;0.2475;4.1198;
822.3000;0.2426;4.1048;
822.6000;0.2442;4.1123;
822.9000;0.2418;4.0947;
823.2000;0.2458;4.1022;
823.5000;0.2418;4.0922;
823.8000;0.2434;4.1022;
824.1000;0.2442;4.1048;
824.4000;0.2499;4.1274;
824.7000;0.2426;4.0997;
825.0000;0.2450;4.0972;
825.3000;0.2548;4.1148;
825.6000;0.2532;4.1048;
825.9000;0.2426;4.0771;
826.2000;0.2442;4.0796;
826.5000;0.2475;4.0922;
826.8000;0.2466;4.0872;
827.1000;0.2426;4.0771;
827.4000;0.2409;4.0771;
827.7000;0.2442;4.0746;
828.0000;0.2434;4.0872;
828.3000;0.2507;4.1123;
828.6000;0.2434;4.0872;
828.9000;0.2393;4.0670;
829.2000;0.2442;4.0771;
829.5000;0.2426;4.0746;
829.8000;0.2434;4.0846;
830.1000;0.2580;4.1299;
830.4000;0.2442;4.0846;
830.7000;0.2450;4.0796;
831.0000;0.2442;4.0821;
831.3000;0.2450;4.0796;
831.6000;0.2401;4.0721;
831.9000;0.2401;4.0746;
832.2000;0.2401;4.0821;
832.5000;0.2409;4.0721;
832.8000;0.2466;4.0846;
833.1000;0.2426;4.0796;
833.4000;0.2426;4.0771;
833.7000;0.2434;4.0846;
834.0000;0.2434;4.0872;
834.3000;0.2385;4.0620;
834.6000;0.2434;4.0670;
834.9000;0.2466;4.0721;
835.2000;0.2458;4.0771;
835.5000;0.2442;4.0746;
835.8000;0.2393;4.0670;
836.1000;0.2393;4.0620;
836.4000;0.2434;4.0821;
836.7000;0.2450;4.0922;
837.0000;0.2401;4.0821;
837.3000;0.2442;4.0821;
837.6000;0.2426;4.0771;
837.9000;0.2434;4.0721;
838.2000;0.2466;4.0872;
838.5000;0.2434;4.0872;
838.8000;0.2434;4.0796;
839.1000;0.2426;4.0721;
839.4000;0.2442;4.0746;
839.7000;0.2458;4.0796;
840.0000;0.2328;4.0469;
840.3000;0.2434;4.0771;
840.6000;0.2426;4.0746;
840.9000;0.2434;4.0721;
841.2000;0.2344;4.0494;
841.5000;0.2426;4.0746;
841.8000;0.2434;4.0846;
842.1000;0.2426;4.0897;
842.4000;0.2434;4.0846;
842.7000;0.2401;4.0796;
843.0000;0.2344;4.0595;
843.3000;0.2409;4.0846;
843.6000;0.2483;4.0922;
843.9000;0.2458;4.0821;
844.2000;0.2483;4.0922;
844.5000;0.2442;4.0721;
844.8000;0.2475;4.0821;
845.1000;0.2385;4.0595;
845.4000;0.2450;4.0771;
845.7000;0.2418;4.0746;
846.0000;0.2409;4.0796;
846.3000;0.2442;4.0846;
846.6000;0.2393;4.0746;
846.9000;0.2483;4.0947;
847.2000;0.2401;4.0771;
847.5000;0.2499;4.1048;
847.8000;0.2483;4.0872;
848.1000;0.2434;4.0821;
848.4000;0.2499;4.1022;
848.7000;0.2434;4.0846;
849.0000;0.2442;4.0821;
849.3000;0.2377;4.0645;
849.6000;0.2491;4.0972;
849.9000;0.2450;4.0897;
850.2000;0.2434;4.0771;
850.5000;0.2393;4.0670;
850.8000;0.2418;4.0721;
851.1000;0.2450;4.0771;
851.4000;0.2450;4.0721;
851.7000;0.2442;4.0620;
852.0000;0.2418;4.0595;
852.3000;0.2401;4.0670;
852.6000;0.2434;4.0746;
852.9000;0.2409;4.0670;
853.2000;0.2426;4.0695;
853.5000;0.2426;4.0721;
853.8000;0.2418;4.0695;
854.1000;0.2499;4.0972;
854.4000;0.2450;4.0821;
854.7000;0.2450;4.0771;
855.0000;0.2442;4.0771;
855.3000;0.2442;4.0821;
855.6000;0.2450;4.0897;
855.9000;0.2418;4.0746;
856.2000;0.2434;4.0846;
856.5000;0.2450;4.0922;
856.8000;0.2409;4.0846;
857.1000;0.2434;4.0796;
857.4000;0.2442;4.0746;
857.7000;0.2450;4.0796;
858.0000;0.2352;4.0444;
858.3000;0.2401;4.0620;
858.6000;0.2393;4.0519;
858.9000;0.2426;4.0545;
859.2000;0.2442;4.0645;
859.5000;0.2385;4.0519;
859.8000;0.2548;4.0972;
860.1000;0.2458;4.0796;
860.4000;0.2450;4.0796;
860.7000;0.2442;4.0821;
861.0000;0.2450;4.0872;
861.3000;0.2450;4.0821;
861.6000;0.2458;4.0796;
861.9000;0.2434;4.0771;
862.2000;0.2426;4.0721;
862.5000;0.2442;4.0721;
862.8000;0.2450;4.0721;
863.1000;0.2483;4.0796;
863.4000;0.2434;4.0695;
863.7000;0.2434;4.0746;
864.0000;0.2344;4.0519;
864.3000;0.2466;4.0872;
864.6000;0.2507;4.0897;
864.9000;0.2491;4.0846;
865.2000;0.2442;4.0721;
865.5000;0.2434;4.0695;
865.8000;0.2442;4.0746;
866.1000;0.2458;4.0872;
866.4000;0.2458;4.0821;
866.7000;0.2450;4.0721;
867.0000;0.2515;4.0922;
867.3000;0.2426;4.0746;
867.6000;0.2450;4.0771;
867.9000;0.2418;4.0821;
868.2000;0.2434;4.0872;
868.5000;0.2426;4.0821;
868.8000;0.2418;4.0670;
869.1000;0.2418;4.0695;
869.4000;0.2450;4.0721;
869.7000;0.2572;4.1048;
870.0000;0.2450;4.0645;
870.3000;0.2426;4.0519;
870.6000;0.2418;4.0494;
870.9000;0.2426;4.0620;
871.2000;0.2426;4.0595;
871.5000;0.2572;4.0922;
871.8000;0.2442;4.0695;
872.1000;0.2434;4.0645;
872.4000;0.2409;4.0620;
872.7000;0.2450;4.0670;
873.0000;0.2450;4.0645;
873.3000;0.2426;4.0645;
873.6000;0.2401;4.0519;
873.9000;0.2442;4.0670;
874.2000;0.2442;4.0620;
874.5000;0.2434;4.0670;
874.8000;0.2466;4.0821;
875.1000;0.2450;4.0771;
875.4000;0.2458;4.0721;
875.7000;0.2450;4.0796;
876.0000;0.2458;4.0695;
876.3000;0.2450;4.0721;
876.6000;0.2434;4.0670;
876.9000;0.2418;4.0670;
877.2000;0.2450;4.0695;
877.5000;0.2442;4.0695;
877.8000;0.2434;4.0695;
878.1000;0.2418;4.0721;
878.4000;0.2450;4.0872;
878.7000;0.2418;4.0821;
879.0000;0.2442;4.0872;
879.3000;0.2515;4.1048;
879.6000;0.2434;4.0796;
879.9000;0.2434;4.0670;
880.2000;0.2450;4.0796;
880.5000;0.2450;4.0771;
880.8000;0.2409;4.0771;
881.1000;0.2426;4.0897;
881.4000;0.2450;4.1073;
881.7000;0.2458;4.1073;
882.0000;0.2442;4.0897;
882.3000;0.2458;4.0872;
882.6000;0.2434;4.0746;
882.9000;0.2336;4.0444;
883.2000;0.2442;4.0746;
883.5000;0.2434;4.0771;
883.8000;0.2475;4.0872;
884.1000;0.2483;4.0897;
884.4000;0.2442;4.0846;
884.7000;0.2369;4.0620;
885.0000;0.2466;4.0947;
885.3000;0.2466;4.0947;
885.6000;0.2466;4.0972;
885.9000;0.2458;4.0922;
886.2000;0.2523;4.1173;
886.5000;0.2434;4.0897;
886.8000;0.2515;4.1123;
887.1000;0.2507;4.1173;
887.4000;0.2458;4.0972;
887.7000;0.2475;4.1048;
888.0000;0.2434;4.0821;
888.3000;0.2442;4.0947;
888.6000;0.2450;4.0922;
888.9000;0.2434;4.0872;
889.2000;0.2426;4.0670;
889.5000;0.2450;4.0721;
889.8000;0.2442;4.0746;
890.1000;0.2434;4.0721;
890.4000;0.2434;4.0721;
890.7000;0.2458;4.0821;
891.0000;0.2442;4.0746;
891.3000;0.2434;4.0670;
891.6000;0.2434;4.0670;
891.9000;0.2442;4.0620;
892.2000;0.2442;4.0695;
892.5000;0.2426;4.0670;
892.8000;0.2450;4.0595;
893.1000;0.2426;4.0595;
893.4000;0.2466;4.0721;
893.7000;0.2434;4.0620;
894.0000;0.2434;4.0645;
894.3000;0.2393;4.0620;
894.6000;0.2418;4.0595;
894.9000;0.2466;4.0771;
895.2000;0.2418;4.0620;
895.5000;0.2377;4.0545;
895.8000;0.2483;4.0846;
896.1000;0.2401;4.0645;
896.4000;0.2385;4.0645;
896.7000;0.2458;4.0872;
897.0000;0.2450;4.0897;
897.3000;0.2499;4.1022;
897.6000;0.2442;4.0846;
897.9000;0.2426;4.0821;
898.2000;0.2434;4.0872;
898.5000;0.2361;4.0645;
898.8000;0.2426;4.0846;
899.1000;0.2442;4.0872;
899.4000;0.2475;4.0846;
899.7000;0.2426;4.0620;
900.0000;0.2450;4.0721;
900.3000;0.2450;4.0670;
900.6000;0.2426;4.0620;
900.9000;0.2442;4.0721;
901.2000;0.2426;4.0746;
901.5000;0.2369;4.0645;
901.8000;0.2434;4.0796;
902.1000;0.2466;4.0846;
902.4000;0.2475;4.0872;
902.7000;0.2426;4.0796;
903.0000;0.2442;4.0872;
903.3000;0.2385;4.0771;
903.6000;0.2450;4.0947;
903.9000;0.2442;4.0897;
904.2000;0.2393;4.0746;
904.5000;0.2491;4.1048;
904.8000;0.2475;4.0972;
905.1000;0.2466;4.0872;
905.4000;0.2507;4.0972;
905.7000;0.2491;4.0872;
906.0000;0.2385;4.0620;
906.3000;0.2450;4.0771;
906.6000;0.2442;4.0746;
906.9000;0.2556;4.1148;
907.2000;0.2385;4.0620;
907.5000;0.2458;4.0872;
907.8000;0.2475;4.0972;
908.1000;0.2458;4.0897;
908.4000;0.2418;4.0771;
908.7000;0.2466;4.0846;
909.0000;0.2466;4.0821;
909.3000;0.2458;4.0821;
909.6000;0.2442;4.0771;
909.9000;0.2426;4.0695;
910.2000;0.2458;4.0846;
910.5000;0.2475;4.0922;
910.8000;0.2434;4.0796;
911.1000;0.2458;4.0846;
911.4000;0.2450;4.0897;
911.7000;0.2442;4.0872;
912.0000;0.2434;4.0846;
912.3000;0.2434;4.0846;
912.6000;0.2418;4.0771;
912.9000;0.2442;4.0872;
913.2000;0.2442;4.0846;
913.5000;0.2426;4.0796;
913.8000;0.2442;4.0821;
914.1000;0.2434;4.0771;
914.4000;0.2442;4.0721;
914.7000;0.2393;4.0519;
915.0000;0.2434;4.0721;
915.3000;0.2442;4.0771;
915.6000;0.2499;4.0972;
915.9000;0.2450;4.0721;
916.2000;0.2458;4.0695;
916.5000;0.2458;4.0645;
916.8000;0.2409;4.0519;
917.1000;0.2515;4.0897;
917.4000;0.2442;4.0746;
917.7000;0.2483;4.0897;
918.0000;0.2458;4.0821;
918.3000;0.2442;4.0796;
918.6000;0.2458;4.0771;
918.9000;0.2458;4.0721;
919.2000;0.2385;4.0595;
919.5000;0.2409;4.0620;
919.8000;0.2418;4.0620;
920.1000;0.2466;4.0771;
920.4000;0.2409;4.0620;
920.7000;0.2491;4.0796;
921.0000;0.2426;4.0645;
921.3000;0.2580;4.1098;
921.6000;0.2442;4.0595;
921.9000;0.2450;4.0620;
922.2000;0.2458;4.0721;
922.5000;0.2377;4.0469;
922.8000;0.2434;4.0595;
923.1000;0.2434;4.0494;
923.4000;0.2426;4.0570;
923.7000;0.2458;4.0595;
924.0000;0.2450;4.0620;
924.3000;0.2466;4.0821;
924.6000;0.2409;4.0645;
924.9000;0.2458;4.0771;
925.2000;0.2426;4.0645;
925.5000;0.2393;4.0595;
925.8000;0.2418;4.0695;
926.1000;0.2442;4.0821;
926.4000;0.2450;4.0846;
926.7000;0.2450;4.0846;
927.0000;0.2426;4.0821;
927.3000;0.2418;4.0721;
927.6000;0.2458;4.0872;
927.9000;0.2434;4.0897;
928.2000;0.2426;4.0771;
928.5000;0.2426;4.0771;
928.8000;0.2450;4.0821;
929.1000;0.2426;4.0821;
929.4000;0.2556;4.1148;
929.7000;0.2434;4.0821;
930.0000;0.2532;4.1022;
930.3000;0.2442;4.0846;
930.6000;0.2442;4.0821;
930.9000;0.2328;4.0394;
931.2000;0.2450;4.0695;
931.5000;0.2442;4.0670;
931.8000;0.2450;4.0645;
932.1000;0.2450;4.0595;
932.4000;0.2418;4.0444;
932.7000;0.2418;4.0394;
933.0000;0.2475;4.0519;
933.3000;0.2409;4.0368;
933.6000;0.2434;4.0444;
933.9000;0.2450;4.0494;
934.2000;0.2418;4.0368;
934.5000;0.2450;4.0368;
934.8000;0.2409;4.0293;
935.1000;0.2450;4.0419;
935.4000;0.2426;4.0343;
935.7000;0.2491;4.0519;
936.0000;0.2475;4.0570;
936.3000;0.2442;4.0444;
936.6000;0.2466;4.0519;
936.9000;0.2393;4.0394;
937.2000;0.2279;4.0117;
937.5000;0.2361;4.0318;
937.8000;0.2434;4.0595;
938.1000;0.2499;4.0821;
938.4000;0.2499;4.0872;
938.7000;0.2450;4.0721;
939.0000;0.2450;4.0695;
939.3000;0.2442;4.0645;
939.6000;0.2442;4.0645;
939.9000;0.2418;4.0620;
940.2000;0.2393;4.0545;
940.5000;0.2483;4.0670;
940.8000;0.2507;4.0796;
941.1000;0.2458;4.0771;
941.4000;0.2475;4.0796;
941.7000;0.2393;4.0595;
942.0000;0.2442;4.0645;
942.3000;0.2418;4.0670;
942.6000;0.2434;4.0695;
942.9000;0.2442;4.0721;
943.2000;0.2418;4.0519;
943.5000;0.2442;4.0595;
943.8000;0.2385;4.0394;
944.1000;0.2466;4.0570;
944.4000;0.2450;4.0444;
944.7000;0.2515;4.0620;
945.0000;0.2434;4.0469;
945.3000;0.2450;4.0519;
945.6000;0.2418;4.0494;
945.9000;0.2401;4.0519;
946.2000;0.2361;4.0394;
946.5000;0.2426;4.0645;
946.8000;0.2426;4.0570;
947.1000;0.2418;4.0444;
947.4000;0.2442;4.0620;
947.7000;0.2442;4.0620;
948.0000;0.2442;4.0595;
948.3000;0.2418;4.0545;
948.6000;0.2409;4.0570;
948.9000;0.2450;4.0746;
949.2000;0.2450;4.0721;
949.5000;0.2450;4.0695;
949.8000;0.2466;4.0771;
950.1000;0.2434;4.0695;
950.4000;0.2458;4.0695;
950.7000;0.2426;4.0721;
951.0000;0.2442;4.0670;
951.3000;0.2458;4.0645;
951.6000;0.2434;4.0721;
951.9000;0.2418;4.0645;
952.2000;0.2458;4.0746;
952.5000;0.2361;4.0519;
952.8000;0.2442;4.0721;
953.1000;0.2385;4.0620;
953.4000;0.2442;4.0670;
953.7000;0.2434;4.0670;
954.0000;0.2466;4.0897;
954.3000;0.2442;4.0796;
954.6000;0.2385;4.0545;
954.9000;0.2450;4.0695;
955.2000;0.2434;4.0620;
955.5000;0.2426;4.0519;
955.8000;0.2466;4.0469;
956.1000;0.2466;4.0545;
956.4000;0.2426;4.0545;
956.7000;0.2426;4.0444;
957.0000;0.2491;4.0545;
957.3000;0.2409;4.0318;
957.6000;0.2418;4.0343;
957.9000;0.2418;4.0368;
958.2000;0.2458;4.0570;
958.5000;0.2442;4.0469;
958.8000;0.2426;4.0444;
959.1000;0.2401;4.0394;
959.4000;0.2442;4.0570;
959.7000;0.2426;4.0645;
960.0000;0.2434;4.0670;
960.3000;0.2450;4.0670;
960.6000;0.2434;4.0670;
960.9000;0.2418;4.0620;
961.2000;0.2442;4.0695;
961.5000;0.2418;4.0670;
961.8000;0.2426;4.0670;
962.1000;0.2466;4.0771;
962.4000;0.2450;4.0670;
962.7000;0.2434;4.0670;
963.0000;0.2401;4.0670;
963.3000;0.2442;4.0746;
963.6000;0.2434;4.0670;
963.9000;0.2450;4.0645;
964.2000;0.2434;4.0545;
964.5000;0.2442;4.0595;
964.8000;0.2458;4.0545;
965.1000;0.2442;4.0545;
965.4000;0.2450;4.0595;
965.7000;0.2442;4.0545;
966.0000;0.2450;4.0545;
966.3000;0.2434;4.0469;
966.6000;0.2450;4.0494;
966.9000;0.2450;4.0545;
967.2000;0.2418;4.0494;
967.5000;0.2466;4.0721;
967.8000;0.2409;4.0620;
968.1000;0.2475;4.0721;
968.4000;0.2466;4.0695;
968.7000;0.2442;4.0620;
969.0000;0.2409;4.0545;
969.3000;0.2442;4.0620;
969.6000;0.2442;4.0570;
969.9000;0.2458;4.0545;
970.2000;0.2426;4.0519;
970.5000;0.2450;4.0595;
970.8000;0.2442;4.0469;
971.1000;0.2426;4.0293;
971.4000;0.2434;4.0318;
971.7000;0.2466;4.0343;
972.0000;0.2450;4.0419;
972.3000;0.2434;4.0368;
972.6000;0.2572;4.0721;
972.9000;0.2409;4.0343;
973.2000;0.2466;4.0570;
973.5000;0.2515;4.0796;
973.8000;0.2450;4.0570;
974.1000;0.2434;4.0595;
974.4000;0.2458;4.0645;
974.7000;0.2442;4.0519;
975.0000;0.2475;4.0570;
975.3000;0.2409;4.0444;
975.6000;0.2393;4.0343;
975.9000;0.2458;4.0545;
976.2000;0.2458;4.0645;
976.5000;0.2450;4.0620;
976.8000;0.2475;4.0721;
977.1000;0.2458;4.0670;
977.4000;0.2426;4.0595;
977.7000;0.2426;4.0645;
978.0000;0.2458;4.0695;
978.3000;0.2450;4.0645;
978.6000;0.2499;4.0746;
978.9000;0.2458;4.0670;
979.2000;0.2475;4.0695;
979.5000;0.2475;4.0570;
979.8000;0.2483;4.0519;
980.1000;0.2442;4.0419;
980.4000;0.2418;4.0343;
980.7000;0.2458;4.0419;
981.0000;0.2466;4.0394;
981.3000;0.2312;4.0016;
981.6000;0.2426;4.0268;
981.9000;0.2442;4.0293;
982.2000;0.2369;4.0042;
982.5000;0.2434;4.0293;
982.8000;0.2426;4.0293;
983.1000;0.2499;4.0444;
983.4000;0.2418;4.0218;
983.7000;0.2418;4.0218;
984.0000;0.2426;4.0293;
984.3000;0.2434;4.0394;
984.6000;0.2458;4.0545;
984.9000;0.2434;4.0519;
985.2000;0.2442;4.0570;
985.5000;0.2458;4.0595;
985.8000;0.2450;4.0570;
986.1000;0.2426;4.0494;
986.4000;0.2466;4.0570;
986.7000;0.2434;4.0494;
987.0000;0.2532;4.0846;
987.3000;0.2442;4.0545;
987.6000;0.2434;4.0570;
987.9000;0.2434;4.0545;
988.2000;0.2450;4.0595;
988.5000;0.2377;4.0368;
988.8000;0.2466;4.0570;
989.1000;0.2450;4.0545;
989.4000;0.2532;4.0771;
989.7000;0.2458;4.0519;
990.0000;0.2434;4.0494;
990.3000;0.2507;4.0620;
990.6000;0.2458;4.0444;
990.9000;0.2434;4.0368;
991.2000;0.2466;4.0620;
991.5000;0.2532;4.0872;
991.8000;0.2450;4.0670;
992.1000;0.2442;4.0670;
992.4000;0.2450;4.0721;
992.7000;0.2442;4.0595;
993.0000;0.2442;4.0670;
993.3000;0.2458;4.0620;
993.6000;0.2458;4.0620;
993.9000;0.2458;4.0620;
994.2000;0.2434;4.0494;
994.5000;0.2515;4.0695;
994.8000;0.2458;4.0519;
995.1000;0.2466;4.0670;
995.4000;0.2458;4.0645;
995.7000;0.2458;4.0670;
996.0000;0.2475;4.0695;
996.3000;0.2450;4.0620;
996.6000;0.2466;4.0620;
996.9000;0.2434;4.0469;
997.2000;0.2450;4.0545;
997.5000;0.2532;4.0721;
997.8000;0.2434;4.0419;
998.1000;0.2450;4.0368;
998.4000;0.2466;4.0318;
998.7000;0.2450;4.0243;
999.0000;0.2466;4.0318;
999.3000;0.2426;4.0268;
999.6000;0.2442;4.0268;
999.9000;0.2475;4.0519;
1000.2000;0.2450;4.0469;
1000.5000;0.2475;4.0570;
1000.8000;0.2475;4.0545;
1001.1000;0.2434;4.0394;
1001.4000;0.2393;4.0293;
1001.7000;0.2426;4.0318;
1002.0000;0.2442;4.0469;
1002.3000;0.2458;4.0519;
1002.6000;0.2491;4.0670;
1002.9000;0.2450;4.0595;
1003.2000;0.2442;4.0721;
1003.5000;0.2434;4.0746;
1003.8000;0.2458;4.0670;
1004.1000;0.2507;4.0721;
1004.4000;0.2507;4.0570;
1004.7000;0.2442;4.0368;
1005.0000;0.2475;4.0494;
1005.3000;0.2287;3.9966;
1005.6000;0.2426;4.0318;
1005.9000;0.2434;4.0394;
1006.2000;0.2458;4.0494;
1006.5000;0.2475;4.0519;
1006.8000;0.2491;4.0595;
1007.1000;0.2466;4.0494;
1007.4000;0.2458;4.0620;
1007.7000;0.2442;4.0620;
1008.0000;0.2450;4.0620;
1008.3000;0.2418;4.0545;
1008.6000;0.2475;4.0645;
1008.9000;0.2442;4.0645;
1009.2000;0.2426;4.0620;
1009.5000;0.2434;4.0595;
1009.8000;0.2442;4.0695;
1010.1000;0.2515;4.0972;
1010.4000;0.2499;4.0972;
1010.7000;0.2450;4.0771;
1011.0000;0.2442;4.0645;
1011.3000;0.2499;4.0771;
1011.6000;0.2450;4.0645;
1011.9000;0.2426;4.0620;
1012.2000;0.2483;4.0746;
1012.5000;0.2442;4.0545;
1012.8000;0.2442;4.0620;
1013.1000;0.2442;4.0570;
1013.4000;0.2499;4.0746;
1013.7000;0.2434;4.0595;
1014.0000;0.2450;4.0670;
1014.3000;0.2401;4.0645;
1014.6000;0.2458;4.0821;
1014.9000;0.2450;4.0796;
1015.2000;0.2466;4.0771;
1015.5000;0.2418;4.0695;
1015.8000;0.2434;4.0746;
1016.1000;0.2458;4.0771;
1016.4000;0.2426;4.0645;
1016.7000;0.2426;4.0670;
1017.0000;0.2458;4.0746;
1017.3000;0.2418;4.0746;
1017.6000;0.2466;4.0796;
1017.9000;0.2434;4.0721;
1018.2000;0.2450;4.0821;
1018.5000;0.2418;4.0645;
1018.8000;0.2442;4.0620;
1019.1000;0.2434;4.0570;
1019.4000;0.2499;4.0746;
1019.7000;0.2442;4.0595;
1020.0000;0.2426;4.0620;
1020.3000;0.2450;4.0695;
1020.6000;0.2442;4.0670;
1020.9000;0.2426;4.0645;
1021.2000;0.2450;4.0670;
1021.5000;0.2426;4.0670;
1021.8000;0.2442;4.0746;
1022.1000;0.2434;4.0746;
1022.4000;0.2491;4.0997;
1022.7000;0.2548;4.1048;
1023.0000;0.2450;4.0746;
1023.3000;0.2409;4.0595;
1023.6000;0.2450;4.0620;
1023.9000;0.2442;4.0595;
1024.2000;0.2434;4.0645;
1024.5000;0.2442;4.0645;
1024.8000;0.2450;4.0695;
1025.1000;0.2409;4.0570;
1025.4000;0.2442;4.0721;
1025.7000;0.2426;4.0695;
1026.0000;0.2450;4.0721;
1026.3000;0.2458;4.0670;
1026.6000;0.2458;4.0670;
1026.9000;0.2450;4.0570;
1027.2000;0.2442;4.0570;
1027.5000;0.2434;4.0570;
1027.8000;0.2295;4.0142;
1028.1000;0.2426;4.0570;
1028.4000;0.2450;4.0721;
1028.7000;0.2450;4.0695;
1029.0000;0.2434;4.0620;
1029.3000;0.2491;4.0771;
1029.6000;0.2450;4.0670;
1029.9000;0.2434;4.0645;
1030.2000;0.2271;4.0092;
1030.5000;0.2466;4.0620;
1030.8000;0.2418;4.0419;
1031.1000;0.2434;4.0419;
1031.4000;0.2442;4.0519;
1031.7000;0.2466;4.0570;
1032.0000;0.2418;4.0444;
1032.3000;0.2434;4.0545;
1032.6000;0.2434;4.0695;
1032.9000;0.2442;4.0695;
1033.2000;0.2426;4.0620;
1033.5000;0.2434;4.0570;
1033.8000;0.2434;4.0620;
1034.1000;0.2466;4.0695;
1034.4000;0.2409;4.0519;
1034.7000;0.2434;4.0645;
1035.0000;0.2393;4.0469;
1035.3000;0.2483;4.0695;
1035.6000;0.2466;4.0519;
1035.9000;0.2475;4.0519;
1036.2000;0.2409;4.0343;
1036.5000;0.2426;4.0394;
1036.8000;0.2434;4.0419;
1037.1000;0.2597;4.0922;
1037.4000;0.2426;4.0469;
1037.7000;0.2426;4.0419;
1038.0000;0.2426;4.0394;
1038.3000;0.2483;4.0545;
1038.6000;0.2458;4.0595;
1038.9000;0.2418;4.0444;
1039.2000;0.2434;4.0570;
1039.5000;0.2458;4.0494;
1039.8000;0.2434;4.0293;
1040.1000;0.2442;4.0318;
1040.4000;0.2434;4.0318;
1040.7000;0.2442;4.0394;
1041.0000;0.2442;4.0293;
1041.3000;0.2450;4.0419;
1041.6000;0.2450;4.0545;
1041.9000;0.2426;4.0494;
1042.2000;0.2466;4.0670;
1042.5000;0.2466;4.0721;
1042.8000;0.2426;4.0545;
1043.1000;0.2466;4.0519;
1043.4000;0.2483;4.0570;
1043.7000;0.2434;4.0419;
1044.0000;0.2450;4.0519;
1044.3000;0.2458;4.0494;
1044.6000;0.2442;4.0343;
1044.9000;0.2418;4.0293;
1045.2000;0.2466;4.0419;
1045.5000;0.2458;4.0469;
1045.8000;0.2450;4.0469;
1046.1000;0.2450;4.0469;
1046.4000;0.2458;4.0545;
1046.7000;0.2426;4.0469;
1047.0000;0.2507;4.0620;
1047.3000;0.2434;4.0419;
1047.6000;0.2458;4.0545;
1047.9000;0.2450;4.0519;
1048.2000;0.2458;4.0545;
1048.5000;0.2434;4.0419;
1048.8000;0.2426;4.0394;
1049.1000;0.2393;4.0243;
1049.4000;0.2507;4.0620;
1049.7000;0.2442;4.0419;
1050.0000;0.2450;4.0444;
1050.3000;0.2450;4.0444;
1050.6000;0.2475;4.0620;
1050.9000;0.2434;4.0494;
1051.2000;0.2515;4.0721;
1051.5000;0.2466;4.0670;
1051.8000;0.2442;4.0620;
1052.1000;0.2401;4.0394;
1052.4000;0.2426;4.0444;
1052.7000;0.2418;4.0419;
1053.0000;0.2434;4.0469;
1053.3000;0.2426;4.0419;
1053.6000;0.2434;4.0469;
1053.9000;0.2442;4.0419;
1054.2000;0.2450;4.0494;
1054.5000;0.2475;4.0545;
1054.8000;0.2434;4.0394;
1055.1000;0.2450;4.0394;
1055.4000;0.2466;4.0469;
1055.7000;0.2393;4.0343;
1056.0000;0.2434;4.0394;
1056.3000;0.2434;4.0318;
1056.6000;0.2450;4.0318;
1056.9000;0.2450;4.0394;
1057.2000;0.2442;4.0394;
1057.5000;0.2442;4.0444;
1057.8000;0.2426;4.0570;
1058.1000;0.2442;4.0721;
1058.4000;0.2475;4.0821;
1058.7000;0.2426;4.0746;
1059.0000;0.2418;4.0645;
1059.3000;0.2361;4.0444;
1059.6000;0.2442;4.0670;
1059.9000;0.2466;4.0721;
1060.2000;0.2442;4.0570;
1060.5000;0.2450;4.0545;
1060.8000;0.2450;4.0620;
1061.1000;0.2418;4.0545;
1061.4000;0.2426;4.0645;
1061.7000;0.2434;4.0595;
1062.0000;0.2434;4.0620;
1062.3000;0.2418;4.0645;
1062.6000;0.2483;4.0872;
1062.9000;0.2418;4.0595;
1063.2000;0.2458;4.0695;
1063.5000;0.2458;4.0670;
1063.8000;0.2393;4.0394;
1064.1000;0.2434;4.0444;
1064.4000;0.2434;4.0368;
1064.7000;0.2426;4.0394;
1065.0000;0.2442;4.0444;
1065.3000;0.2458;4.0519;
1065.6000;0.2499;4.0570;
1065.9000;0.2458;4.0519;
1066.2000;0.2426;4.0419;
1066.5000;0.2426;4.0469;
1066.8000;0.2458;4.0519;
1067.1000;0.2466;4.0519;
1067.4000;0.2475;4.0595;
1067.7000;0.2418;4.0570;
1068.0000;0.2458;4.0746;
1068.3000;0.2450;4.0746;
1068.6000;0.2442;4.0721;
1068.9000;0.2426;4.0821;
1069.2000;0.2458;4.0821;
1069.5000;0.2434;4.0796;
1069.8000;0.2466;4.0796;
1070.1000;0.2401;4.0670;
1070.4000;0.2377;4.0595;
1070.7000;0.2442;4.0721;
1071.0000;0.2434;4.0695;
1071.3000;0.2426;4.0695;
1071.6000;0.2450;4.0746;
1071.9000;0.2369;4.0570;
1072.2000;0.2434;4.0721;
1072.5000;0.2418;4.0494;
1072.8000;0.2450;4.0545;
1073.1000;0.2499;4.0670;
1073.4000;0.2483;4.0670;
1073.7000;0.2434;4.0494;
1074.0000;0.2442;4.0620;
1074.3000;0.2466;4.0695;
1074.6000;0.2458;4.0645;
1074.9000;0.2442;4.0645;
1075.2000;0.2564;4.1022;
1075.5000;0.2434;4.0545;
1075.8000;0.2450;4.0570;
1076.1000;0.2442;4.0595;
1076.4000;0.2442;4.0695;
1076.7000;0.2434;4.0570;
1077.0000;0.2344;4.0394;
1077.3000;0.2450;4.0645;
1077.6000;0.2434;4.0595;
1077.9000;0.2458;4.0545;
1078.2000;0.2556;4.0846;
1078.5000;0.2475;4.0645;
1078.8000;0.2434;4.0519;
1079.1000;0.2426;4.0519;
1079.4000;0.2434;4.0545;
1079.7000;0.2515;4.0746;
1080.0000;0.2450;4.0620;
1080.3000;0.2450;4.0670;
1080.6000;0.2393;4.0545;
1080.9000;0.2409;4.0570;
1081.2000;0.2442;4.0570;
1081.5000;0.2450;4.0494;
1081.8000;0.2426;4.0444;
1082.1000;0.2442;4.0444;
1082.4000;0.2401;4.0318;
1082.7000;0.2442;4.0318;
1083.0000;0.2418;4.0218;
1083.3000;0.2442;4.0318;
1083.6000;0.2434;4.0293;
1083.9000;0.2450;4.0368;
1084.2000;0.2466;4.0343;
1084.5000;0.2450;4.0268;
1084.8000;0.2442;4.0218;
1085.1000;0.2434;4.0243;
1085.4000;0.2434;4.0293;
1085.7000;0.2434;4.0343;
1086.0000;0.2426;4.0318;
1086.3000;0.2450;4.0419;
1086.6000;0.2434;4.0519;
1086.9000;0.2442;4.0519;
1087.2000;0.2418;4.0444;
1087.5000;0.2442;4.0394;
1087.8000;0.2450;4.0394;
1088.1000;0.2442;4.0368;
1088.4000;0.2426;4.0318;
1088.7000;0.2483;4.0419;
1089.0000;0.2409;4.0368;
1089.3000;0.2450;4.0620;
1089.6000;0.2442;4.0620;
1089.9000;0.2450;4.0645;
1090.2000;0.2450;4.0746;
1090.5000;0.2466;4.0771;
1090.8000;0.2426;4.0695;
1091.1000;0.2426;4.0670;
1091.4000;0.2442;4.0469;
1091.7000;0.2515;4.0645;
1092.0000;0.2483;4.0570;
1092.3000;0.2418;4.0394;
1092.6000;0.2491;4.0545;
1092.9000;0.2548;4.0746;
1093.2000;0.2434;4.0519;
1093.5000;0.2458;4.0595;
1093.8000;0.2426;4.0519;
1094.1000;0.2450;4.0545;
1094.4000;0.2434;4.0444;
1094.7000;0.2450;4.0519;
1095.0000;0.2523;4.0721;
1095.3000;0.2401;4.0394;
1095.6000;0.2458;4.0595;
1095.9000;0.2434;4.0494;
1096.2000;0.2450;4.0545;
1096.5000;0.2442;4.0494;
1096.8000;0.2312;4.0092;
1097.1000;0.2418;4.0368;
1097.4000;0.2377;4.0293;
1097.7000;0.2442;4.0494;
1098.0000;0.2442;4.0545;
1098.3000;0.2442;4.0545;
1098.6000;0.2426;4.0444;
1098.9000;0.2442;4.0519;
1099.2000;0.2515;4.0695;
1099.5000;0.2442;4.0545;
1099.8000;0.2426;4.0494;
1100.1000;0.2426;4.0570;
1100.4000;0.2434;4.0519;
1100.7000;0.2442;4.0469;
1101.0000;0.2434;4.0469;
1101.3000;0.2475;4.0545;
1101.6000;0.2434;4.0444;
1101.9000;0.2450;4.0545;
1102.2000;0.2409;4.0519;
1102.5000;0.2442;4.0695;
1102.8000;0.2450;4.0645;
1103.1000;0.2418;4.0545;
1103.4000;0.2442;4.0645;
1103.7000;0.2450;4.0620;
1104.0000;0.2523;4.0872;
1104.3000;0.2287;4.0192;
1104.6000;0.2442;4.0645;
1104.9000;0.2418;4.0570;
1105.2000;0.2450;4.0695;
1105.5000;0.2450;4.0645;
1105.8000;0.2458;4.0670;
1106.1000;0.2450;4.0570;
1106.4000;0.2434;4.0494;
1106.7000;0.2458;4.0519;
1107.0000;0.2442;4.0444;
1107.3000;0.2434;4.0318;
1107.6000;0.2466;4.0419;
1107.9000;0.2466;4.0519;
1108.2000;0.2418;4.0444;
1108.5000;0.2418;4.0519;
1108.8000;0.2434;4.0620;
1109.1000;0.2426;4.0545;
1109.4000;0.2409;4.0545;
1109.7000;0.2540;4.0922;
1110.0000;0.2450;4.0670;
1110.3000;0.2409;4.0469;
1110.6000;0.2442;4.0620;
1110.9000;0.2442;4.0620;
1111.2000;0.2442;4.0620;
1111.5000;0.2418;4.0469;
1111.8000;0.2434;4.0519;
1112.1000;0.2450;4.0595;
1112.4000;0.2336;4.0268;
1112.7000;0.2426;4.0545;
1113.0000;0.2434;4.0469;
1113.3000;0.2434;4.0519;
1113.6000;0.2426;4.0570;
1113.9000;0.2458;4.0620;
1114.2000;0.2418;4.0494;
1114.5000;0.2466;4.0670;
1114.8000;0.2532;4.0746;
1115.1000;0.2352;4.0243;
1115.4000;0.2393;4.0394;
1115.7000;0.2426;4.0570;
1116.0000;0.2426;4.0570;
1116.3000;0.2442;4.0595;
1116.6000;0.2393;4.0494;
1116.9000;0.2499;4.0746;
1117.2000;0.2458;4.0645;
1117.5000;0.2450;4.0494;
1117.8000;0.2409;4.0394;
1118.1000;0.2442;4.0545;
1118.4000;0.2442;4.0469;
1118.7000;0.2434;4.0444;
1119.0000;0.2426;4.0444;
1119.3000;0.2450;4.0570;
1119.6000;0.2434;4.0469;
1119.9000;0.2434;4.0595;
1120.2000;0.2450;4.0695;
1120.5000;0.2466;4.0695;
1120.8000;0.2458;4.0771;
1121.1000;0.2499;4.0922;
1121.4000;0.2540;4.1048;
1121.7000;0.2466;4.0746;
1122.0000;0.2475;4.0771;
1122.3000;0.2434;4.0620;
1122.6000;0.2458;4.0695;
1122.9000;0.2450;4.0670;
1123.2000;0.2450;4.0570;
1123.5000;0.2434;4.0519;
1123.8000;0.2450;4.0545;
1124.1000;0.2475;4.0595;
1124.4000;0.2458;4.0444;
1124.7000;0.2450;4.0494;
1125.0000;0.2466;4.0494;
1125.3000;0.2475;4.0620;
1125.6000;0.2499;4.0645;
1125.9000;0.2434;4.0494;
1126.2000;0.2507;4.0771;
1126.5000;0.2458;4.0670;
1126.8000;0.2458;4.0545;
1127.1000;0.2409;4.0444;
1127.4000;0.2450;4.0545;
1127.7000;0.2434;4.0494;
1128.0000;0.2442;4.0519;
1128.3000;0.2352;4.0268;
1128.6000;0.2466;4.0645;
1128.9000;0.2369;4.0469;
1129.2000;0.2483;4.0846;
1129.5000;0.2466;4.0821;
1129.8000;0.2426;4.0721;
1130.1000;0.2442;4.0695;
1130.4000;0.2458;4.0645;
1130.7000;0.2450;4.0645;
1131.0000;0.2434;4.0645;
1131.3000;0.2491;4.0746;
1131.6000;0.2458;4.0670;
1131.9000;0.2491;4.0796;
1132.2000;0.2426;4.0595;
1132.5000;0.2434;4.0595;
1132.8000;0.2466;4.0595;
1133.1000;0.2434;4.0444;
1133.4000;0.2442;4.0545;
1133.7000;0.2418;4.0368;
1134.0000;0.2434;4.0368;
1134.3000;0.2491;4.0519;
1134.6000;0.2426;4.0343;
1134.9000;0.2442;4.0394;
1135.2000;0.2450;4.0494;
1135.5000;0.2466;4.0570;
1135.8000;0.2466;4.0469;
1136.1000;0.2442;4.0444;
1136.4000;0.2466;4.0469;
1136.7000;0.2401;4.0293;
1137.0000;0.2434;4.0368;
1137.3000;0.2458;4.0444;
1137.6000;0.2426;4.0268;
1137.9000;0.2426;4.0343;
1138.2000;0.2418;4.0394;
1138.5000;0.2540;4.0796;
1138.8000;0.2515;4.0721;
1139.1000;0.2434;4.0519;
1139.4000;0.2442;4.0519;
1139.7000;0.2426;4.0444;
1140.0000;0.2418;4.0419;
1140.3000;0.2401;4.0394;
1140.6000;0.2442;4.0570;
1140.9000;0.2442;4.0570;
1141.2000;0.2426;4.0620;
1141.5000;0.2434;4.0595;
1141.8000;0.2450;4.0670;
1142.1000;0.2434;4.0645;
1142.4000;0.2540;4.0846;
1142.7000;0.2434;4.0494;
1143.0000;0.2401;4.0419;
1143.3000;0.2426;4.0545;
1143.6000;0.2450;4.0494;
1143.9000;0.2466;4.0595;
1144.2000;0.2548;4.0897;
1144.5000;0.2450;4.0620;
1144.8000;0.2442;4.0670;
1145.1000;0.2458;4.0821;
1145.4000;0.2580;4.1022;
1145.7000;0.2409;4.0595;
1146.0000;0.2515;4.0796;
1146.3000;0.2491;4.0721;
1146.6000;0.2409;4.0545;
1146.9000;0.2426;4.0494;
1147.2000;0.2434;4.0519;
1147.5000;0.2491;4.0570;
1147.8000;0.2434;4.0368;
1148.1000;0.2442;4.0368;
1148.4000;0.2426;4.0268;
1148.7000;0.2442;4.0368;
1149.0000;0.2434;4.0394;
1149.3000;0.2401;4.0268;
1149.6000;0.2450;4.0444;
1149.9000;0.2466;4.0519;
1150.2000;0.2409;4.0343;
1150.5000;0.2442;4.0394;
1150.8000;0.2434;4.0343;
1151.1000;0.2377;4.0243;
1151.4000;0.2442;4.0343;
1151.7000;0.2426;4.0368;
1152.0000;0.2409;4.0293;
1152.3000;0.2499;4.0570;
1152.6000;0.2442;4.0419;
1152.9000;0.2442;4.0469;
1153.2000;0.2434;4.0519;
1153.5000;0.2385;4.0343;
1153.8000;0.2475;4.0595;
1154.1000;0.2426;4.0419;
1154.4000;0.2450;4.0519;
1154.7000;0.2442;4.0394;
1155.0000;0.2418;4.0343;
1155.3000;0.2475;4.0545;
1155.6000;0.2434;4.0494;
1155.9000;0.2434;4.0545;
1156.2000;0.2483;4.0695;
1156.5000;0.2418;4.0469;
1156.8000;0.2426;4.0419;
1157.1000;0.2434;4.0494;
1157.4000;0.2418;4.0419;
1157.7000;0.2458;4.0545;
1158.0000;0.2491;4.0695;
1158.3000;0.2377;4.0419;
1158.6000;0.2450;4.0570;
1158.9000;0.2458;4.0620;
1159.2000;0.2426;4.0494;
1159.5000;0.2450;4.0545;
1159.8000;0.2426;4.0444;
1160.1000;0.2458;4.0519;
1160.4000;0.2475;4.0595;
1160.7000;0.2442;4.0595;
1161.0000;0.2450;4.0595;
1161.3000;0.2442;4.0570;
1161.6000;0.2320;4.0243;
1161.9000;0.2409;4.0469;
1162.2000;0.2466;4.0670;
1162.5000;0.2393;4.0545;
1162.8000;0.2442;4.0721;
1163.1000;0.2409;4.0595;
1163.4000;0.2442;4.0645;
1163.7000;0.2450;4.0721;
1164.0000;0.2483;4.0771;
1164.3000;0.2401;4.0620;
1164.6000;0.2450;4.0670;
1164.9000;0.2450;4.0620;
1165.2000;0.2450;4.0620;
1165.5000;0.2458;4.0695;
1165.8000;0.2450;4.0721;
1166.1000;0.2466;4.0771;
1166.4000;0.2401;4.0545;
1166.7000;0.2442;4.0595;
1167.0000;0.2361;4.0419;
1167.3000;0.2458;4.0620;
1167.6000;0.2450;4.0645;
1167.9000;0.2442;4.0721;
1168.2000;0.2540;4.0947;
1168.5000;0.2426;4.0645;
1168.8000;0.2458;4.0721;
1169.1000;0.2426;4.0620;
1169.4000;0.2450;4.0721;
1169.7000;0.2466;4.0695;
1170.0000;0.2491;4.0872;
1170.3000;0.2385;4.0545;
1170.6000;0.2426;4.0595;
1170.9000;0.2442;4.0570;
1171.2000;0.2450;4.0595;
1171.5000;0.2450;4.0570;
1171.8000;0.2426;4.0519;
1172.1000;0.2418;4.0519;
1172.4000;0.2401;4.0545;
1172.7000;0.2442;4.0570;
1173.0000;0.2458;4.0695;
1173.3000;0.2401;4.0595;
1173.6000;0.2466;4.0771;
1173.9000;0.2458;4.0796;
1174.2000;0.2466;4.0695;
1174.5000;0.2442;4.0721;
1174.8000;0.2426;4.0721;
1175.1000;0.2450;4.0670;
1175.4000;0.2409;4.0519;
1175.7000;0.2450;4.0570;
1176.0000;0.2434;4.0645;
1176.3000;0.2458;4.0670;
1176.6000;0.2540;4.0922;
1176.9000;0.2458;4.0721;
1177.2000;0.2458;4.0595;
1177.5000;0.2442;4.0519;
1177.8000;0.2458;4.0620;
1178.1000;0.2434;4.0545;
1178.4000;0.2466;4.0670;
1178.7000;0.2434;4.0670;
1179.0000;0.2450;4.0670;
1179.3000;0.2409;4.0519;
1179.6000;0.2418;4.0620;
1179.9000;0.2458;4.0771;
1180.2000;0.2442;4.0695;
1180.5000;0.2418;4.0570;
1180.8000;0.2434;4.0645;
1181.1000;0.2442;4.0670;
1181.4000;0.2426;4.0721;
1181.7000;0.2442;4.0620;
1182.0000;0.2434;4.0519;
1182.3000;0.2458;4.0620;
1182.6000;0.2442;4.0570;
1182.9000;0.2434;4.0570;
1183.2000;0.2483;4.0670;
1183.5000;0.2426;4.0494;
1183.8000;0.2434;4.0620;
1184.1000;0.2426;4.0620;
1184.4000;0.2491;4.0771;
1184.7000;0.2434;4.0519;
1185.0000;0.2409;4.0494;
1185.3000;0.2442;4.0595;
1185.6000;0.2328;4.0142;
1185.9000;0.2434;4.0444;
1186.2000;0.2426;4.0318;
1186.5000;0.2247;3.9765;
1186.8000;0.2450;4.0368;
1187.1000;0.2369;4.0167;
1187.4000;0.2426;4.0394;
1187.7000;0.2450;4.0419;
1188.0000;0.2442;4.0545;
1188.3000;0.2442;4.0595;
1188.6000;0.2434;4.0545;
1188.9000;0.2393;4.0469;
1189.2000;0.2466;4.0670;
1189.5000;0.2450;4.0670;
1189.8000;0.2450;4.0670;
1190.1000;0.2418;4.0595;
1190.4000;0.2434;4.0645;
1190.7000;0.2434;4.0570;
1191.0000;0.2328;4.0142;
1191.3000;0.2442;4.0519;
1191.6000;0.2434;4.0394;
1191.9000;0.2409;4.0368;
1192.2000;0.2458;4.0469;
1192.5000;0.2450;4.0519;
1192.8000;0.2450;4.0494;
1193.1000;0.2491;4.0620;
1193.4000;0.2483;4.0595;
1193.7000;0.2442;4.0545;
1194.0000;0.2466;4.0645;
1194.3000;0.2377;4.0444;
1194.6000;0.2434;4.0620;
1194.9000;0.2434;4.0645;
1195.2000;0.2475;4.0821;
1195.5000;0.2523;4.0897;
1195.8000;0.2475;4.0620;
1196.1000;0.2442;4.0519;
1196.4000;0.2475;4.0469;
1196.7000;0.2466;4.0368;
1197.0000;0.2450;4.0318;
1197.3000;0.2458;4.0167;
1197.6000;0.2434;4.0218;
1197.9000;0.2475;4.0368;
1198.2000;0.2458;4.0368;
1198.5000;0.2409;4.0243;
1198.8000;0.2393;4.0243;
1199.1000;0.2450;4.0343;
1199.4000;0.2466;4.0419;
1199.7000;0.2458;4.0368;
1200.0000;0.2409;4.0192;
1200.3000;0.2466;4.0243;
1200.6000;0.2450;4.0268;
1200.9000;0.2442;4.0268;
1201.2000;0.2450;4.0318;
1201.5000;0.2393;4.0293;
1201.8000;0.2442;4.0469;
1202.1000;0.2458;4.0570;
1202.4000;0.2434;4.0444;
1202.7000;0.2507;4.0620;
1203.0000;0.2426;4.0368;
1203.3000;0.2483;4.0595;
1203.6000;0.2369;4.0394;
1203.9000;0.2426;4.0519;
1204.2000;0.2442;4.0519;
1204.5000;0.2442;4.0595;
1204.8000;0.2295;4.0218;
1205.1000;0.2450;4.0620;
1205.4000;0.2458;4.0595;
1205.7000;0.2458;4.0595;
1206.0000;0.2450;4.0645;
1206.3000;0.2458;4.0645;
1206.6000;0.2450;4.0620;
1206.9000;0.2458;4.0595;
1207.2000;0.2442;4.0519;
1207.5000;0.2409;4.0343;
1207.8000;0.2466;4.0494;
1208.1000;0.2475;4.0469;
1208.4000;0.2532;4.0670;
1208.7000;0.2442;4.0444;
1209.0000;0.2442;4.0419;
1209.3000;0.2458;4.0494;
1209.6000;0.2377;4.0243;
1209.9000;0.2458;4.0368;
1210.2000;0.2426;4.0368;
1210.5000;0.2458;4.0469;
1210.8000;0.2466;4.0419;
1211.1000;0.2450;4.0394;
1211.4000;0.2442;4.0519;
1211.7000;0.2442;4.0519;
1212.0000;0.2458;4.0595;
1212.3000;0.2483;4.0670;
1212.6000;0.2385;4.0469;
1212.9000;0.2523;4.0972;
1213.2000;0.2295;4.0469;
1213.5000;0.2393;4.0721;
1213.8000;0.2442;4.0771;
1214.1000;0.2426;4.0670;
1214.4000;0.2434;4.0695;
1214.7000;0.2458;4.0771;
1215.0000;0.2434;4.0645;
1215.3000;0.2426;4.0570;
1215.6000;0.2483;4.0771;
1215.9000;0.2426;4.0695;
1216.2000;0.2466;4.0645;
1216.5000;0.2475;4.0645;
1216.8000;0.2458;4.0570;
1217.1000;0.2450;4.0545;
1217.4000;0.2434;4.0469;
1217.7000;0.2450;4.0519;
1218.0000;0.2442;4.0595;
1218.3000;0.2385;4.0469;
1218.6000;0.2466;4.0695;
1218.9000;0.2458;4.0645;
1219.2000;0.2475;4.0695;
1219.5000;0.2458;4.0620;
1219.8000;0.2466;4.0545;
1220.1000;0.2450;4.0494;
1220.4000;0.2475;4.0519;
1220.7000;0.2475;4.0545;
1221.0000;0.2442;4.0494;
1221.3000;0.2409;4.0394;
1221.6000;0.2450;4.0570;
1221.9000;0.2450;4.0645;
1222.2000;0.2450;4.0670;
1222.5000;0.2434;4.0620;
1222.8000;0.2377;4.0293;
1223.1000;0.2418;4.0394;
1223.4000;0.2475;4.0595;
1223.7000;0.2458;4.0469;
1224.0000;0.2491;4.0645;
1224.3000;0.2426;4.0444;
1224.6000;0.2532;4.0645;
1224.9000;0.2434;4.0419;
1225.2000;0.2409;4.0343;
1225.5000;0.2401;4.0293;
1225.8000;0.2442;4.0343;
1226.1000;0.2434;4.0419;
1226.4000;0.2426;4.0444;
1226.7000;0.2361;4.0268;
1227.0000;0.2426;4.0469;
1227.3000;0.2450;4.0570;
1227.6000;0.2426;4.0545;
1227.9000;0.2401;4.0595;
1228.2000;0.2418;4.0670;
1228.5000;0.2483;4.0846;
1228.8000;0.2507;4.0922;
1229.1000;0.2442;4.0570;
1229.4000;0.2450;4.0670;
1229.7000;0.2458;4.0670;
1230.0000;0.2418;4.0519;
1230.3000;0.2466;4.0670;
1230.6000;0.2458;4.0570;
1230.9000;0.2450;4.0469;
1231.2000;0.2450;4.0419;
1231.5000;0.2442;4.0368;
1231.8000;0.2377;4.0142;
1232.1000;0.2434;4.0243;
1232.4000;0.2385;4.0117;
1232.7000;0.2450;4.0368;
1233.0000;0.2450;4.0343;
1233.3000;0.2369;4.0117;
1233.6000;0.2442;4.0368;
1233.9000;0.2295;4.0042;
1234.2000;0.2418;4.0368;
1234.5000;0.2458;4.0545;
1234.8000;0.2450;4.0620;
1235.1000;0.2466;4.0670;
1235.4000;0.2426;4.0469;
1235.7000;0.2418;4.0444;
1236.0000;0.2466;4.0645;
1236.3000;0.2475;4.0670;
1236.6000;0.2458;4.0620;
1236.9000;0.2466;4.0519;
1237.2000;0.2401;4.0343;
1237.5000;0.2450;4.0519;
1237.8000;0.2450;4.0545;
1238.1000;0.2434;4.0570;
1238.4000;0.2466;4.0645;
1238.7000;0.2442;4.0620;
1239.0000;0.2458;4.0670;
1239.3000;0.2312;4.0293;
1239.6000;0.2458;4.0670;
1239.9000;0.2458;4.0746;
1240.2000;0.2442;4.0721;
1240.5000;0.2458;4.0695;
1240.8000;0.2426;4.0570;
1241.1000;0.2466;4.0620;
1241.4000;0.2442;4.0519;
1241.7000;0.2458;4.0570;
1242.0000;0.2507;4.0771;
1242.3000;0.2466;4.0620;
1242.6000;0.2475;4.0771;
1242.9000;0.2418;4.0595;
1243.2000;0.2450;4.0595;
1243.5000;0.2458;4.0595;
1243.8000;0.2491;4.0721;
1244.1000;0.2450;4.0670;
1244.4000;0.2507;4.0897;
1244.7000;0.2450;4.0796;
1245.0000;0.2475;4.0846;
1245.3000;0.2523;4.1048;
1245.6000;0.2450;4.0796;
1245.9000;0.2442;4.0695;
1246.2000;0.2458;4.0695;
1246.5000;0.2442;4.0645;
1246.8000;0.2369;4.0494;
1247.1000;0.2426;4.0695;
1247.4000;0.2442;4.0721;
1247.7000;0.2466;4.0796;
1248.0000;0.2426;4.0645;
1248.3000;0.2385;4.0595;
1248.6000;0.2458;4.0821;
1248.9000;0.2450;4.0872;
1249.2000;0.2458;4.0846;
1249.5000;0.2442;4.0721;
1249.8000;0.2458;4.0771;
1250.1000;0.2434;4.0645;
1250.4000;0.2466;4.0695;
1250.7000;0.2450;4.0595;
1251.0000;0.2458;4.0570;
1251.3000;0.2442;4.0519;
1251.6000;0.2434;4.0570;
1251.9000;0.2434;4.0595;
1252.2000;0.2450;4.0670;
1252.5000;0.2434;4.0595;
1252.8000;0.2442;4.0570;
1253.1000;0.2418;4.0469;
1253.4000;0.2458;4.0519;
1253.7000;0.2434;4.0469;
1254.0000;0.2377;4.0192;
1254.3000;0.2434;4.0368;
1254.6000;0.2385;4.0293;
1254.9000;0.2466;4.0545;
1255.2000;0.2475;4.0519;
1255.5000;0.2409;4.0419;
1255.8000;0.2418;4.0519;
1256.1000;0.2409;4.0519;
1256.4000;0.2434;4.0645;
1256.7000;0.2532;4.0947;
1257.0000;0.2312;4.0293;
1257.3000;0.2418;4.0570;
1257.6000;0.2434;4.0721;
1257.9000;0.2328;4.0343;
1258.2000;0.2450;4.0670;
1258.5000;0.2458;4.0771;
1258.8000;0.2466;4.0746;
1259.1000;0.2442;4.0620;
1259.4000;0.2434;4.0570;
1259.7000;0.2442;4.0620;
1260.0000;0.2352;4.0444;
1260.3000;0.2377;4.0419;
1260.6000;0.2483;4.0821;
1260.9000;0.2418;4.0645;
1261.2000;0.2450;4.0746;
1261.5000;0.2475;4.0771;
1261.8000;0.2442;4.0695;
1262.1000;0.2393;4.0519;
1262.4000;0.2434;4.0645;
1262.7000;0.2426;4.0721;
1263.0000;0.2442;4.0872;
1263.3000;0.2442;4.0746;
1263.6000;0.2475;4.0821;
1263.9000;0.2466;4.0721;
1264.2000;0.2466;4.0746;
1264.5000;0.2475;4.0746;
1264.8000;0.2458;4.0846;
1265.1000;0.2458;4.0872;
1265.4000;0.2458;4.0821;
1265.7000;0.2450;4.0796;
1266.0000;0.2369;4.0570;
1266.3000;0.2393;4.0620;
1266.6000;0.2426;4.0721;
1266.9000;0.2442;4.0846;
1267.2000;0.2442;4.0771;
1267.5000;0.2418;4.0695;
1267.8000;0.2442;4.0746;
1268.1000;0.2426;4.0771;
1268.4000;0.2458;4.0721;
1268.7000;0.2442;4.0721;
1269.0000;0.2426;4.0620;
1269.3000;0.2426;4.0570;
1269.6000;0.2434;4.0670;
1269.9000;0.2409;4.0645;
1270.2000;0.2442;4.0620;
1270.5000;0.2434;4.0519;
1270.8000;0.2450;4.0570;
1271.1000;0.2434;4.0595;
1271.4000;0.2450;4.0519;
1271.7000;0.2442;4.0494;
1272.0000;0.2434;4.0545;
1272.3000;0.2507;4.0771;
1272.6000;0.2458;4.0595;
1272.9000;0.2458;4.0670;
1273.2000;0.2442;4.0670;
1273.5000;0.2418;4.0519;
1273.8000;0.2336;4.0368;
1274.1000;0.2442;4.0721;
1274.4000;0.2458;4.0771;
1274.7000;0.2450;4.0721;
1275.0000;0.2442;4.0746;
1275.3000;0.2418;4.0670;
1275.6000;0.2434;4.0771;
1275.9000;0.2458;4.0821;
1276.2000;0.2426;4.0771;
1276.5000;0.2458;4.0846;
1276.8000;0.2450;4.0796;
1277.1000;0.2434;4.0771;
1277.4000;0.2450;4.0746;
1277.7000;0.2442;4.0695;
1278.0000;0.2426;4.0620;
1278.3000;0.2450;4.0670;
1278.6000;0.2450;4.0595;
1278.9000;0.2466;4.0595;
1279.2000;0.2450;4.0570;
1279.5000;0.2466;4.0620;
1279.8000;0.2458;4.0620;
1280.1000;0.2434;4.0570;
1280.4000;0.2450;4.0595;
1280.7000;0.2475;4.0771;
1281.0000;0.2418;4.0595;
1281.3000;0.2458;4.0670;
1281.6000;0.2442;4.0670;
1281.9000;0.2352;4.0394;
1282.2000;0.2426;4.0545;
1282.5000;0.2442;4.0494;
1282.8000;0.2442;4.0620;
1283.1000;0.2491;4.0771;
1283.4000;0.2361;4.0343;
1283.7000;0.2450;4.0595;
1284.0000;0.2450;4.0620;
1284.3000;0.2466;4.0695;
1284.6000;0.2442;4.0595;
1284.9000;0.2442;4.0570;
1285.2000;0.2385;4.0394;
1285.5000;0.2409;4.0545;
1285.8000;0.2442;4.0570;
1286.1000;0.2385;4.0293;
1286.4000;0.2426;4.0494;
1286.7000;0.2409;4.0394;
1287.0000;0.2385;4.0394;
1287.3000;0.2458;4.0595;
1287.6000;0.2442;4.0645;
1287.9000;0.2450;4.0620;
1288.2000;0.2450;4.0645;
1288.5000;0.2434;4.0721;
1288.8000;0.2450;4.0821;
1289.1000;0.2434;4.0746;
1289.4000;0.2458;4.0771;
1289.7000;0.2442;4.0771;
1290.0000;0.2450;4.0771;
1290.3000;0.2450;4.0746;
1290.6000;0.2458;4.0721;
1290.9000;0.2466;4.0746;
1291.2000;0.2450;4.0746;
1291.5000;0.2434;4.0645;
1291.8000;0.2466;4.0645;
1292.1000;0.2466;4.0695;
1292.4000;0.2450;4.0670;
1292.7000;0.2418;4.0620;
1293.0000;0.2385;4.0645;
1293.3000;0.2442;4.0771;
1293.6000;0.2434;4.0821;
1293.9000;0.2434;4.0821;
1294.2000;0.2442;4.0796;
1294.5000;0.2475;4.0821;
1294.8000;0.2442;4.0821;
1295.1000;0.2434;4.0746;
1295.4000;0.2434;4.0695;
1295.7000;0.2442;4.0695;
1296.0000;0.2458;4.0721;
1296.3000;0.2426;4.0695;
1296.6000;0.2450;4.0746;
1296.9000;0.2450;4.0746;
1297.2000;0.2475;4.0746;
1297.5000;0.2442;4.0771;
1297.8000;0.2393;4.0545;
1298.1000;0.2450;4.0746;
1298.4000;0.2442;4.0746;
1298.7000;0.2458;4.0746;
1299.0000;0.2442;4.0796;
1299.3000;0.2450;4.0872;
1299.6000;0.2434;4.0746;
1299.9000;0.2466;4.0821;
1300.2000;0.2466;4.0796;
1300.5000;0.2401;4.0519;
1300.8000;0.2450;4.0595;
1301.1000;0.2442;4.0620;
1301.4000;0.2450;4.0645;
1301.7000;0.2442;4.0645;
1302.0000;0.2450;4.0670;
1302.3000;0.2483;4.0796;
1302.6000;0.2426;4.0519;
1302.9000;0.2458;4.0746;
1303.2000;0.2466;4.0897;
1303.5000;0.2434;4.0695;
1303.8000;0.2442;4.0721;
1304.1000;0.2442;4.0695;
1304.4000;0.2580;4.1022;
1304.7000;0.2458;4.0721;
1305.0000;0.2434;4.0545;
1305.3000;0.2401;4.0444;
1305.6000;0.2483;4.0721;
1305.9000;0.2442;4.0695;
1306.2000;0.2426;4.0595;
1306.5000;0.2409;4.0645;
1306.8000;0.2409;4.0771;
1307.1000;0.2523;4.1098;
1307.4000;0.2442;4.0821;
1307.7000;0.2434;4.0796;
1308.0000;0.2458;4.0821;
1308.3000;0.2377;4.0519;
1308.6000;0.2442;4.0670;
1308.9000;0.2442;4.0595;
1309.2000;0.2385;4.0444;
1309.5000;0.2434;4.0695;
1309.8000;0.2466;4.0897;
1310.1000;0.2466;4.0821;
1310.4000;0.2458;4.0821;
1310.7000;0.2450;4.0746;
1311.0000;0.2450;4.0670;
1311.3000;0.2450;4.0695;
1311.6000;0.2442;4.0620;
1311.9000;0.2442;4.0695;
1312.2000;0.2426;4.0670;
1312.5000;0.2499;4.0796;
1312.8000;0.2450;4.0670;
1313.1000;0.2434;4.0620;
1313.4000;0.2466;4.0670;
1313.7000;0.2483;4.0771;
1314.0000;0.2418;4.0595;
1314.3000;0.2434;4.0645;
1314.6000;0.2434;4.0645;
1314.9000;0.2458;4.0721;
1315.2000;0.2434;4.0721;
1315.5000;0.2393;4.0570;
1315.8000;0.2491;4.0796;
1316.1000;0.2434;4.0570;
1316.4000;0.2532;4.0721;
1316.7000;0.2442;4.0545;
1317.0000;0.2434;4.0645;
1317.3000;0.2458;4.0746;
1317.6000;0.2450;4.0846;
1317.9000;0.2466;4.0947;
1318.2000;0.2458;4.0846;
1318.5000;0.2475;4.0872;
1318.8000;0.2434;4.0695;
1319.1000;0.2401;4.0695;
1319.4000;0.2450;4.0846;
1319.7000;0.2450;4.0771;
1320.0000;0.2393;4.0570;
1320.3000;0.2450;4.0771;
1320.6000;0.2434;4.0721;
1320.9000;0.2442;4.0695;
1321.2000;0.2442;4.0695;
1321.5000;0.2442;4.0695;
1321.8000;0.2434;4.0670;
1322.1000;0.2434;4.0695;
1322.4000;0.2442;4.0645;
1322.7000;0.2458;4.0645;
1323.0000;0.2458;4.0695;
1323.3000;0.2426;4.0570;
1323.6000;0.2434;4.0645;
1323.9000;0.2466;4.0695;
1324.2000;0.2450;4.0796;
1324.5000;0.2442;4.0695;
1324.8000;0.2475;4.0721;
1325.1000;0.2466;4.0721;
1325.4000;0.2483;4.0821;
1325.7000;0.2556;4.1098;
1326.0000;0.2361;4.0519;
1326.3000;0.2450;4.0746;
1326.6000;0.2450;4.0796;
1326.9000;0.2426;4.0746;
1327.2000;0.2442;4.0746;
1327.5000;0.2426;4.0721;
1327.8000;0.2442;4.0796;
1328.1000;0.2442;4.0846;
1328.4000;0.2442;4.0821;
1328.7000;0.2442;4.0821;
1329.0000;0.2458;4.0872;
1329.3000;0.2466;4.0947;
1329.6000;0.2442;4.0796;
1329.9000;0.2442;4.0821;
1330.2000;0.2458;4.0846;
1330.5000;0.2426;4.0721;
1330.8000;0.2426;4.0695;
1331.1000;0.2369;4.0494;
1331.4000;0.2418;4.0570;
1331.7000;0.2499;4.0796;
1332.0000;0.2450;4.0595;
1332.3000;0.2434;4.0570;
1332.6000;0.2458;4.0695;
1332.9000;0.2458;4.0721;
1333.2000;0.2442;4.0595;
1333.5000;0.2458;4.0570;
1333.8000;0.2442;4.0469;
1334.1000;0.2361;4.0142;
1334.4000;0.2385;4.0218;
1334.7000;0.2458;4.0343;
1335.0000;0.2475;4.0444;
1335.3000;0.2475;4.0444;
1335.6000;0.2458;4.0469;
1335.9000;0.2458;4.0519;
1336.2000;0.2450;4.0444;
1336.5000;0.2450;4.0545;
1336.8000;0.2450;4.0545;
1337.1000;0.2450;4.0620;
1337.4000;0.2548;4.0922;
1337.7000;0.2466;4.0620;
1338.0000;0.2450;4.0570;
1338.3000;0.2434;4.0545;
1338.6000;0.2466;4.0620;
1338.9000;0.2450;4.0570;
1339.2000;0.2450;4.0545;
1339.5000;0.2361;4.0268;
1339.8000;0.2515;4.0695;
1340.1000;0.2458;4.0545;
1340.4000;0.2434;4.0545;
1340.7000;0.2442;4.0645;
1341.0000;0.2458;4.0695;
1341.3000;0.2475;4.0645;
1341.6000;0.2320;4.0318;
1341.9000;0.2442;4.0620;
1342.2000;0.2418;4.0595;
1342.5000;0.2426;4.0595;
1342.8000;0.2450;4.0595;
1343.1000;0.2450;4.0620;
1343.4000;0.2434;4.0519;
1343.7000;0.2458;4.0570;
1344.0000;0.2475;4.0645;
1344.3000;0.2466;4.0570;
1344.6000;0.2442;4.0444;
1344.9000;0.2458;4.0469;
1345.2000;0.2515;4.0519;
1345.5000;0.2450;4.0419;
1345.8000;0.2450;4.0419;
1346.1000;0.2442;4.0419;
1346.4000;0.2466;4.0620;
1346.7000;0.2458;4.0620;
1347.0000;0.2450;4.0670;
1347.3000;0.2409;4.0570;
1347.6000;0.2442;4.0746;
1347.9000;0.2466;4.0771;
1348.2000;0.2426;4.0620;
1348.5000;0.2442;4.0545;
1348.8000;0.2442;4.0570;
1349.1000;0.2515;4.0771;
1349.4000;0.2442;4.0570;
1349.7000;0.2442;4.0570;
1350.0000;0.2369;4.0519;
1350.3000;0.2458;4.0746;
1350.6000;0.2458;4.0771;
1350.9000;0.2442;4.0695;
1351.2000;0.2434;4.0545;
1351.5000;0.2458;4.0595;
1351.8000;0.2450;4.0494;
1352.1000;0.2409;4.0419;
1352.4000;0.2450;4.0494;
1352.7000;0.2450;4.0444;
1353.0000;0.2499;4.0595;
1353.3000;0.2442;4.0494;
1353.6000;0.2450;4.0469;
1353.9000;0.2450;4.0419;
1354.2000;0.2450;4.0343;
1354.5000;0.2450;4.0444;
1354.8000;0.2426;4.0394;
1355.1000;0.2475;4.0645;
1355.4000;0.2458;4.0620;
1355.7000;0.2458;4.0570;
1356.0000;0.2418;4.0519;
1356.3000;0.2450;4.0595;
1356.6000;0.2450;4.0570;
1356.9000;0.2450;4.0595;
1357.2000;0.2532;4.0771;
1357.5000;0.2426;4.0595;
1357.8000;0.2418;4.0545;
1358.1000;0.2507;4.0721;
1358.4000;0.2426;4.0570;
1358.7000;0.2426;4.0570;
1359.0000;0.2442;4.0570;
1359.3000;0.2442;4.0519;
1359.6000;0.2466;4.0519;
1359.9000;0.2466;4.0519;
1360.2000;0.2458;4.0570;
1360.5000;0.2418;4.0419;
1360.8000;0.2434;4.0419;
1361.1000;0.2442;4.0419;
1361.4000;0.2434;4.0394;
1361.7000;0.2442;4.0394;
1362.0000;0.2442;4.0444;
1362.3000;0.2434;4.0494;
1362.6000;0.2458;4.0519;
1362.9000;0.2458;4.0494;
1363.2000;0.2434;4.0494;
1363.5000;0.2475;4.0595;
1363.8000;0.2458;4.0570;
1364.1000;0.2450;4.0519;
1364.4000;0.2523;4.0695;
1364.7000;0.2450;4.0620;
1365.0000;0.2418;4.0595;
1365.3000;0.2442;4.0595;
1365.6000;0.2458;4.0545;
1365.9000;0.2385;4.0243;
1366.2000;0.2458;4.0469;
1366.5000;0.2442;4.0444;
1366.8000;0.2442;4.0368;
1367.1000;0.2434;4.0394;
1367.4000;0.2426;4.0394;
1367.7000;0.2442;4.0469;
1368.0000;0.2442;4.0519;
1368.3000;0.2442;4.0394;
1368.6000;0.2475;4.0494;
1368.9000;0.2450;4.0595;
1369.2000;0.2556;4.0796;
1369.5000;0.2475;4.0595;
1369.8000;0.2320;4.0243;
1370.1000;0.2450;4.0620;
1370.4000;0.2475;4.0771;
1370.7000;0.2466;4.0771;
1371.0000;0.2442;4.0695;
1371.3000;0.2401;4.0595;
1371.6000;0.2442;4.0670;
1371.9000;0.2458;4.0746;
1372.2000;0.2385;4.0519;
1372.5000;0.2442;4.0670;
1372.8000;0.2426;4.0645;
1373.1000;0.2450;4.0595;
1373.4000;0.2426;4.0494;
1373.7000;0.2442;4.0494;
1374.0000;0.2434;4.0469;
1374.3000;0.2458;4.0469;
1374.6000;0.2279;3.9991;
1374.9000;0.2377;4.0192;
1375.2000;0.2450;4.0494;
1375.5000;0.2466;4.0545;
1375.8000;0.2458;4.0620;
1376.1000;0.2540;4.0796;
1376.4000;0.2483;4.0570;
1376.7000;0.2385;4.0419;
1377.0000;0.2491;4.0620;
1377.3000;0.2491;4.0570;
1377.6000;0.2450;4.0444;
1377.9000;0.2418;4.0444;
1378.2000;0.2426;4.0444;
1378.5000;0.2442;4.0519;
1378.8000;0.2515;4.0645;
1379.1000;0.2426;4.0444;
1379.4000;0.2475;4.0595;
1379.7000;0.2466;4.0595;
1380.0000;0.2458;4.0595;
1380.3000;0.2458;4.0620;
1380.6000;0.2458;4.0670;
1380.9000;0.2458;4.0695;
1381.2000;0.2401;4.0469;
1381.5000;0.2450;4.0645;
1381.8000;0.2434;4.0620;
1382.1000;0.2450;4.0645;
1382.4000;0.2466;4.0645;
1382.7000;0.2442;4.0595;
1383.0000;0.2450;4.0670;
1383.3000;0.2409;4.0620;
1383.6000;0.2442;4.0695;
1383.9000;0.2458;4.0746;
1384.2000;0.2426;4.0595;
1384.5000;0.2475;4.0746;
1384.8000;0.2458;4.0595;
1385.1000;0.2450;4.0494;
1385.4000;0.2434;4.0444;
1385.7000;0.2393;4.0419;
1386.0000;0.2434;4.0444;
1386.3000;0.2426;4.0368;
1386.6000;0.2507;4.0570;
1386.9000;0.2434;4.0419;
1387.2000;0.2426;4.0494;
1387.5000;0.2475;4.0670;
1387.8000;0.2442;4.0595;
1388.1000;0.2442;4.0620;
1388.4000;0.2589;4.0947;
1388.7000;0.2466;4.0545;
1389.0000;0.2369;4.0293;
1389.3000;0.2426;4.0368;
1389.6000;0.2450;4.0469;
1389.9000;0.2450;4.0469;
1390.2000;0.2393;4.0368;
1390.5000;0.2418;4.0419;
1390.8000;0.2434;4.0494;
1391.1000;0.2450;4.0545;
1391.4000;0.2458;4.0570;
1391.7000;0.2442;4.0419;
1392.0000;0.2458;4.0444;
1392.3000;0.2523;4.0620;
1392.6000;0.2499;4.0570;
1392.9000;0.2442;4.0394;
1393.2000;0.2434;4.0394;
1393.5000;0.2458;4.0444;
1393.8000;0.2483;4.0519;
1394.1000;0.2434;4.0394;
1394.4000;0.2442;4.0368;
1394.7000;0.2450;4.0519;
1395.0000;0.2458;4.0394;
1395.3000;0.2442;4.0192;
1395.6000;0.2426;4.0117;
1395.9000;0.2450;4.0268;
1396.2000;0.2418;4.0167;
1396.5000;0.2434;4.0218;
1396.8000;0.2401;4.0218;
1397.1000;0.2442;4.0268;
1397.4000;0.2466;4.0343;
1397.7000;0.2426;4.0218;
1398.0000;0.2409;4.0293;
1398.3000;0.2450;4.0419;
1398.6000;0.2450;4.0419;
1398.9000;0.2466;4.0419;
1399.2000;0.2442;4.0444;
1399.5000;0.2450;4.0419;
1399.8000;0.2458;4.0444;
