time/ms;Fluo/V;P700 deltaI/I x10³;
-199.8000;0.2548;4.1073;
-199.5000;0.2540;4.0972;
-199.2000;0.2515;4.0872;
-198.9000;0.2499;4.0796;
-198.6000;0.2491;4.0721;
-198.3000;0.2499;4.0645;
-198.0000;0.2483;4.0695;
-197.7000;0.2499;4.0645;
-197.4000;0.2426;4.0469;
-197.1000;0.2466;4.0545;
-196.8000;0.2515;4.0620;
-196.5000;0.2483;4.0519;
-196.2000;0.2483;4.0494;
-195.9000;0.2491;4.0595;
-195.6000;0.2491;4.0670;
-195.3000;0.2523;4.0695;
-195.0000;0.2507;4.0670;
-194.7000;0.2507;4.0721;
-194.4000;0.2548;4.0897;
-194.1000;0.2499;4.0771;
-193.8000;0.2532;4.0821;
-193.5000;0.2442;4.0519;
-193.2000;0.2491;4.0620;
-192.9000;0.2499;4.0620;
-192.6000;0.2654;4.1048;
-192.3000;0.2466;4.0444;
-192.0000;0.2491;4.0620;
-191.7000;0.2548;4.0846;
-191.4000;0.2483;4.0721;
-191.1000;0.2499;4.0721;
-190.8000;0.2483;4.0695;
-190.5000;0.2466;4.0620;
-190.2000;0.2352;4.0368;
-189.9000;0.2523;4.0821;
-189.6000;0.2483;4.0570;
-189.3000;0.2475;4.0620;
-189.0000;0.2483;4.0670;
-188.7000;0.2507;4.0771;
-188.4000;0.2499;4.0796;
-188.1000;0.2507;4.0771;
-187.8000;0.2491;4.0746;
-187.5000;0.2483;4.0695;
-187.2000;0.2483;4.0620;
-186.9000;0.2491;4.0595;
-186.6000;0.2483;4.0620;
-186.3000;0.2491;4.0545;
-186.0000;0.2491;4.0595;
-185.7000;0.2507;4.0545;
-185.4000;0.2491;4.0494;
-185.1000;0.2475;4.0444;
-184.8000;0.2475;4.0394;
-184.5000;0.2499;4.0519;
-184.2000;0.2515;4.0620;
-183.9000;0.2507;4.0620;
-183.6000;0.2409;4.0368;
-183.3000;0.2499;4.0721;
-183.0000;0.2409;4.0494;
-182.7000;0.2499;4.0796;
-182.4000;0.2515;4.0821;
-182.1000;0.2458;4.0645;
-181.8000;0.2466;4.0620;
-181.5000;0.2499;4.0620;
-181.2000;0.2483;4.0519;
-180.9000;0.2466;4.0620;
-180.6000;0.2475;4.0645;
-180.3000;0.2483;4.0645;
-180.0000;0.2475;4.0796;
-179.7000;0.2507;4.0947;
-179.4000;0.2523;4.0872;
-179.1000;0.2491;4.0771;
-178.8000;0.2475;4.0721;
-178.5000;0.2475;4.0695;
-178.2000;0.2499;4.0645;
-177.9000;0.2491;4.0519;
-177.6000;0.2515;4.0670;
-177.3000;0.2491;4.0570;
-177.0000;0.2450;4.0494;
-176.7000;0.2466;4.0645;
-176.4000;0.2466;4.0570;
-176.1000;0.2499;4.0595;
-175.8000;0.2507;4.0595;
-175.5000;0.2491;4.0570;
-175.2000;0.2483;4.0570;
-174.9000;0.2466;4.0519;
-174.6000;0.2515;4.0695;
-174.3000;0.2450;4.0620;
-174.0000;0.2523;4.0821;
-173.7000;0.2515;4.0846;
-173.4000;0.2491;4.0695;
-173.1000;0.2499;4.0620;
-172.8000;0.2499;4.0595;
-172.5000;0.2483;4.0545;
-172.2000;0.2523;4.0620;
-171.9000;0.2458;4.0368;
-171.6000;0.2491;4.0469;
-171.3000;0.2475;4.0419;
-171.0000;0.2507;4.0519;
-170.7000;0.2548;4.0695;
-170.4000;0.2515;4.0645;
-170.1000;0.2491;4.0645;
-169.8000;0.2491;4.0695;
-169.5000;0.2491;4.0721;
-169.2000;0.2466;4.0721;
-168.9000;0.2532;4.0872;
-168.6000;0.2548;4.0846;
-168.3000;0.2491;4.0670;
-168.0000;0.2499;4.0645;
-167.7000;0.2466;4.0494;
-167.4000;0.2466;4.0494;
-167.1000;0.2491;4.0519;
-166.8000;0.2442;4.0519;
-166.5000;0.2515;4.0695;
-166.2000;0.2475;4.0620;
-165.9000;0.2499;4.0645;
-165.6000;0.2507;4.0570;
-165.3000;0.2491;4.0570;
-165.0000;0.2499;4.0695;
-164.7000;0.2515;4.0746;
-164.4000;0.2507;4.0570;
-164.1000;0.2450;4.0394;
-163.8000;0.2483;4.0545;
-163.5000;0.2523;4.0645;
-163.2000;0.2499;4.0570;
-162.9000;0.2475;4.0469;
-162.6000;0.2491;4.0570;
-162.3000;0.2475;4.0545;
-162.0000;0.2466;4.0444;
-161.7000;0.2442;4.0444;
-161.4000;0.2491;4.0645;
-161.1000;0.2491;4.0721;
-160.8000;0.2499;4.0670;
-160.5000;0.2491;4.0595;
-160.2000;0.2491;4.0570;
-159.9000;0.2523;4.0645;
-159.6000;0.2564;4.0846;
-159.3000;0.2491;4.0595;
-159.0000;0.2499;4.0545;
-158.7000;0.2458;4.0444;
-158.4000;0.2483;4.0519;
-158.1000;0.2499;4.0570;
-157.8000;0.2475;4.0595;
-157.5000;0.2483;4.0595;
-157.2000;0.2466;4.0545;
-156.9000;0.2466;4.0519;
-156.6000;0.2475;4.0545;
-156.3000;0.2499;4.0545;
-156.0000;0.2434;4.0419;
-155.7000;0.2491;4.0645;
-155.4000;0.2499;4.0670;
-155.1000;0.2475;4.0595;
-154.8000;0.2491;4.0620;
-154.5000;0.2458;4.0620;
-154.2000;0.2540;4.0771;
-153.9000;0.2426;4.0394;
-153.6000;0.2409;4.0394;
-153.3000;0.2491;4.0519;
-153.0000;0.2466;4.0519;
-152.7000;0.2491;4.0570;
-152.4000;0.2515;4.0645;
-152.1000;0.2483;4.0519;
-151.8000;0.2458;4.0444;
-151.5000;0.2532;4.0695;
-151.2000;0.2491;4.0494;
-150.9000;0.2637;4.0947;
-150.6000;0.2442;4.0419;
-150.3000;0.2483;4.0494;
-150.0000;0.2499;4.0494;
-149.7000;0.2499;4.0368;
-149.4000;0.2499;4.0444;
-149.1000;0.2507;4.0444;
-148.8000;0.2475;4.0343;
-148.5000;0.2483;4.0343;
-148.2000;0.2491;4.0368;
-147.9000;0.2483;4.0394;
-147.6000;0.2483;4.0368;
-147.3000;0.2466;4.0444;
-147.0000;0.2499;4.0494;
-146.7000;0.2450;4.0268;
-146.4000;0.2458;4.0368;
-146.1000;0.2491;4.0444;
-145.8000;0.2499;4.0469;
-145.5000;0.2491;4.0519;
-145.2000;0.2458;4.0519;
-144.9000;0.2483;4.0519;
-144.6000;0.2475;4.0494;
-144.3000;0.2483;4.0695;
-144.0000;0.2499;4.0721;
-143.7000;0.2434;4.0545;
-143.4000;0.2483;4.0721;
-143.1000;0.2466;4.0670;
-142.8000;0.2483;4.0695;
-142.5000;0.2442;4.0570;
-142.2000;0.2458;4.0645;
-141.9000;0.2507;4.0695;
-141.6000;0.2475;4.0570;
-141.3000;0.2475;4.0494;
-141.0000;0.2491;4.0494;
-140.7000;0.2491;4.0545;
-140.4000;0.2515;4.0595;
-140.1000;0.2458;4.0394;
-139.8000;0.2475;4.0293;
-139.5000;0.2556;4.0419;
-139.2000;0.2491;4.0318;
-138.9000;0.2499;4.0419;
-138.6000;0.2629;4.0771;
-138.3000;0.2483;4.0419;
-138.0000;0.2491;4.0545;
-137.7000;0.2548;4.0645;
-137.4000;0.2564;4.0721;
-137.1000;0.2450;4.0368;
-136.8000;0.2515;4.0545;
-136.5000;0.2499;4.0620;
-136.2000;0.2483;4.0620;
-135.9000;0.2499;4.0570;
-135.6000;0.2564;4.0721;
-135.3000;0.2491;4.0545;
-135.0000;0.2450;4.0469;
-134.7000;0.2499;4.0721;
-134.4000;0.2475;4.0595;
-134.1000;0.2491;4.0620;
-133.8000;0.2523;4.0796;
-133.5000;0.2483;4.0670;
-133.2000;0.2499;4.0746;
-132.9000;0.2499;4.0695;
-132.6000;0.2483;4.0746;
-132.3000;0.2491;4.0670;
-132.0000;0.2434;4.0494;
-131.7000;0.2491;4.0771;
-131.4000;0.2475;4.0771;
-131.1000;0.2499;4.0846;
-130.8000;0.2483;4.0796;
-130.5000;0.2499;4.0721;
-130.2000;0.2507;4.0746;
-129.9000;0.2483;4.0645;
-129.6000;0.2483;4.0695;
-129.3000;0.2475;4.0721;
-129.0000;0.2507;4.0796;
-128.7000;0.2499;4.0695;
-128.4000;0.2475;4.0570;
-128.1000;0.2491;4.0595;
-127.8000;0.2507;4.0620;
-127.5000;0.2491;4.0570;
-127.2000;0.2499;4.0620;
-126.9000;0.2450;4.0595;
-126.6000;0.2483;4.0545;
-126.3000;0.2499;4.0519;
-126.0000;0.2483;4.0494;
-125.7000;0.2507;4.0645;
-125.4000;0.2515;4.0695;
-125.1000;0.2483;4.0645;
-124.8000;0.2491;4.0620;
-124.5000;0.2491;4.0595;
-124.2000;0.2499;4.0545;
-123.9000;0.2499;4.0570;
-123.6000;0.2458;4.0419;
-123.3000;0.2491;4.0444;
-123.0000;0.2491;4.0570;
-122.7000;0.2442;4.0519;
-122.4000;0.2475;4.0595;
-122.1000;0.2401;4.0419;
-121.8000;0.2475;4.0645;
-121.5000;0.2483;4.0519;
-121.2000;0.2556;4.0771;
-120.9000;0.2483;4.0545;
-120.6000;0.2499;4.0620;
-120.3000;0.2540;4.0695;
-120.0000;0.2515;4.0645;
-119.7000;0.2458;4.0570;
-119.4000;0.2491;4.0721;
-119.1000;0.2475;4.0695;
-118.8000;0.2458;4.0595;
-118.5000;0.2466;4.0519;
-118.2000;0.2483;4.0494;
-117.9000;0.2499;4.0394;
-117.6000;0.2466;4.0293;
-117.3000;0.2483;4.0318;
-117.0000;0.2499;4.0343;
-116.7000;0.2499;4.0394;
-116.4000;0.2426;4.0192;
-116.1000;0.2483;4.0343;
-115.8000;0.2483;4.0419;
-115.5000;0.2385;4.0167;
-115.2000;0.2466;4.0444;
-114.9000;0.2499;4.0620;
-114.6000;0.2483;4.0469;
-114.3000;0.2409;4.0218;
-114.0000;0.2483;4.0469;
-113.7000;0.2483;4.0519;
-113.4000;0.2475;4.0545;
-113.1000;0.2466;4.0444;
-112.8000;0.2491;4.0519;
-112.5000;0.2361;4.0318;
-112.2000;0.2434;4.0570;
-111.9000;0.2466;4.0645;
-111.6000;0.2483;4.0620;
-111.3000;0.2483;4.0570;
-111.0000;0.2401;4.0343;
-110.7000;0.2507;4.0545;
-110.4000;0.2491;4.0645;
-110.1000;0.2491;4.0695;
-109.8000;0.2483;4.0695;
-109.5000;0.2507;4.0695;
-109.2000;0.2483;4.0595;
-108.9000;0.2499;4.0695;
-108.6000;0.2483;4.0771;
-108.3000;0.2458;4.0695;
-108.0000;0.2491;4.0645;
-107.7000;0.2491;4.0595;
-107.4000;0.2499;4.0570;
-107.1000;0.2475;4.0444;
-106.8000;0.2483;4.0419;
-106.5000;0.2507;4.0519;
-106.2000;0.2475;4.0494;
-105.9000;0.2475;4.0494;
-105.6000;0.2434;4.0394;
-105.3000;0.2491;4.0595;
-105.0000;0.2507;4.0620;
-104.7000;0.2491;4.0545;
-104.4000;0.2491;4.0595;
-104.1000;0.2499;4.0595;
-103.8000;0.2499;4.0570;
-103.5000;0.2483;4.0545;
-103.2000;0.2483;4.0545;
-102.9000;0.2621;4.0997;
-102.6000;0.2499;4.0670;
-102.3000;0.2483;4.0570;
-102.0000;0.2491;4.0419;
-101.7000;0.2499;4.0444;
-101.4000;0.2507;4.0419;
-101.1000;0.2483;4.0368;
-100.8000;0.2483;4.0343;
-100.5000;0.2466;4.0368;
-100.2000;0.2483;4.0268;
-99.9000;0.2442;4.0167;
-99.6000;0.2442;4.0142;
-99.3000;0.2499;4.0419;
-99.0000;0.2491;4.0368;
-98.7000;0.2548;4.0519;
-98.4000;0.2483;4.0368;
-98.1000;0.2540;4.0570;
-97.8000;0.2483;4.0394;
-97.5000;0.2507;4.0419;
-97.2000;0.2475;4.0394;
-96.9000;0.2466;4.0444;
-96.6000;0.2418;4.0469;
-96.3000;0.2564;4.0821;
-96.0000;0.2483;4.0519;
-95.7000;0.2466;4.0494;
-95.4000;0.2499;4.0519;
-95.1000;0.2491;4.0595;
-94.8000;0.2499;4.0620;
-94.5000;0.2499;4.0721;
-94.2000;0.2532;4.0796;
-93.9000;0.2401;4.0419;
-93.6000;0.2491;4.0670;
-93.3000;0.2499;4.0695;
-93.0000;0.2491;4.0620;
-92.7000;0.2507;4.0570;
-92.4000;0.2548;4.0721;
-92.1000;0.2507;4.0645;
-91.8000;0.2499;4.0645;
-91.5000;0.2540;4.0796;
-91.2000;0.2499;4.0721;
-90.9000;0.2499;4.0771;
-90.6000;0.2515;4.0821;
-90.3000;0.2507;4.0796;
-90.0000;0.2466;4.0670;
-89.7000;0.2475;4.0595;
-89.4000;0.2491;4.0721;
-89.1000;0.2491;4.0721;
-88.8000;0.2434;4.0620;
-88.5000;0.2605;4.1073;
-88.2000;0.2475;4.0721;
-87.9000;0.2483;4.0695;
-87.6000;0.2466;4.0721;
-87.3000;0.2483;4.0746;
-87.0000;0.2491;4.0821;
-86.7000;0.2491;4.0846;
-86.4000;0.2466;4.0721;
-86.1000;0.2621;4.1022;
-85.8000;0.2475;4.0519;
-85.5000;0.2483;4.0595;
-85.2000;0.2483;4.0570;
-84.9000;0.2548;4.0645;
-84.6000;0.2491;4.0595;
-84.3000;0.2491;4.0695;
-84.0000;0.2646;4.1148;
-83.7000;0.2483;4.0721;
-83.4000;0.2491;4.0695;
-83.1000;0.2491;4.0721;
-82.8000;0.2483;4.0645;
-82.5000;0.2483;4.0746;
-82.2000;0.2491;4.0771;
-81.9000;0.2483;4.0846;
-81.6000;0.2491;4.0872;
-81.3000;0.2483;4.0796;
-81.0000;0.2491;4.0771;
-80.7000;0.2475;4.0771;
-80.4000;0.2475;4.0821;
-80.1000;0.2491;4.0796;
-79.8000;0.2507;4.0746;
-79.5000;0.2499;4.0595;
-79.2000;0.2483;4.0494;
-78.9000;0.2499;4.0570;
-78.6000;0.2491;4.0695;
-78.3000;0.2491;4.0721;
-78.0000;0.2491;4.0721;
-77.7000;0.2515;4.0721;
-77.4000;0.2483;4.0620;
-77.1000;0.2475;4.0620;
-76.8000;0.2491;4.0595;
-76.5000;0.2483;4.0570;
-76.2000;0.2466;4.0570;
-75.9000;0.2491;4.0570;
-75.6000;0.2483;4.0570;
-75.3000;0.2491;4.0469;
-75.0000;0.2483;4.0545;
-74.7000;0.2515;4.0796;
-74.4000;0.2499;4.0620;
-74.1000;0.2491;4.0620;
-73.8000;0.2507;4.0645;
-73.5000;0.2491;4.0570;
-73.2000;0.2491;4.0570;
-72.9000;0.2434;4.0519;
-72.6000;0.2475;4.0620;
-72.3000;0.2491;4.0620;
-72.0000;0.2491;4.0545;
-71.7000;0.2483;4.0469;
-71.4000;0.2483;4.0494;
-71.1000;0.2483;4.0545;
-70.8000;0.2515;4.0670;
-70.5000;0.2475;4.0545;
-70.2000;0.2515;4.0620;
-69.9000;0.2532;4.0645;
-69.6000;0.2491;4.0595;
-69.3000;0.2515;4.0670;
-69.0000;0.2491;4.0570;
-68.7000;0.2491;4.0545;
-68.4000;0.2475;4.0469;
-68.1000;0.2483;4.0570;
-67.8000;0.2475;4.0545;
-67.5000;0.2418;4.0419;
-67.2000;0.2475;4.0545;
-66.9000;0.2491;4.0595;
-66.6000;0.2475;4.0519;
-66.3000;0.2491;4.0444;
-66.0000;0.2483;4.0368;
-65.7000;0.2450;4.0394;
-65.4000;0.2499;4.0444;
-65.1000;0.2499;4.0494;
-64.8000;0.2515;4.0494;
-64.5000;0.2507;4.0494;
-64.2000;0.2483;4.0469;
-63.9000;0.2475;4.0419;
-63.6000;0.2483;4.0419;
-63.3000;0.2483;4.0419;
-63.0000;0.2548;4.0570;
-62.7000;0.2491;4.0368;
-62.4000;0.2499;4.0394;
-62.1000;0.2523;4.0444;
-61.8000;0.2491;4.0368;
-61.5000;0.2491;4.0293;
-61.2000;0.2564;4.0570;
-60.9000;0.2483;4.0419;
-60.6000;0.2475;4.0343;
-60.3000;0.2507;4.0419;
-60.0000;0.2483;4.0293;
-59.7000;0.2499;4.0469;
-59.4000;0.2499;4.0545;
-59.1000;0.2458;4.0469;
-58.8000;0.2556;4.0695;
-58.5000;0.2483;4.0469;
-58.2000;0.2483;4.0368;
-57.9000;0.2499;4.0419;
-57.6000;0.2491;4.0343;
-57.3000;0.2499;4.0444;
-57.0000;0.2499;4.0368;
-56.7000;0.2499;4.0394;
-56.4000;0.2491;4.0368;
-56.1000;0.2483;4.0444;
-55.8000;0.2564;4.0695;
-55.5000;0.2540;4.0595;
-55.2000;0.2499;4.0519;
-54.9000;0.2491;4.0570;
-54.6000;0.2499;4.0670;
-54.3000;0.2540;4.0796;
-54.0000;0.2499;4.0771;
-53.7000;0.2466;4.0670;
-53.4000;0.2483;4.0620;
-53.1000;0.2499;4.0620;
-52.8000;0.2491;4.0494;
-52.5000;0.2491;4.0444;
-52.2000;0.2499;4.0419;
-51.9000;0.2475;4.0343;
-51.6000;0.2483;4.0318;
-51.3000;0.2483;4.0318;
-51.0000;0.2483;4.0394;
-50.7000;0.2507;4.0494;
-50.4000;0.2466;4.0444;
-50.1000;0.2475;4.0494;
-49.8000;0.2393;4.0243;
-49.5000;0.2466;4.0394;
-49.2000;0.2442;4.0293;
-48.9000;0.2483;4.0394;
-48.6000;0.2483;4.0469;
-48.3000;0.2466;4.0394;
-48.0000;0.2499;4.0394;
-47.7000;0.2499;4.0394;
-47.4000;0.2499;4.0293;
-47.1000;0.2450;4.0192;
-46.8000;0.2507;4.0368;
-46.5000;0.2507;4.0343;
-46.2000;0.2491;4.0293;
-45.9000;0.2491;4.0293;
-45.6000;0.2466;4.0243;
-45.3000;0.2532;4.0469;
-45.0000;0.2499;4.0343;
-44.7000;0.2621;4.0620;
-44.4000;0.2434;4.0218;
-44.1000;0.2507;4.0444;
-43.8000;0.2466;4.0318;
-43.5000;0.2491;4.0394;
-43.2000;0.2442;4.0419;
-42.9000;0.2483;4.0494;
-42.6000;0.2499;4.0519;
-42.3000;0.2499;4.0545;
-42.0000;0.2426;4.0444;
-41.7000;0.2483;4.0519;
-41.4000;0.2589;4.0872;
-41.1000;0.2499;4.0494;
-40.8000;0.2393;4.0167;
-40.5000;0.2491;4.0419;
-40.2000;0.2483;4.0469;
-39.9000;0.2507;4.0494;
-39.6000;0.2515;4.0469;
-39.3000;0.2507;4.0519;
-39.0000;0.2499;4.0444;
-38.7000;0.2515;4.0545;
-38.4000;0.2491;4.0469;
-38.1000;0.2426;4.0293;
-37.8000;0.2515;4.0570;
-37.5000;0.2466;4.0519;
-37.2000;0.2458;4.0469;
-36.9000;0.2466;4.0519;
-36.6000;0.2499;4.0670;
-36.3000;0.2491;4.0695;
-36.0000;0.2540;4.0695;
-35.7000;0.2483;4.0469;
-35.4000;0.2491;4.0519;
-35.1000;0.2491;4.0444;
-34.8000;0.2491;4.0394;
-34.5000;0.2458;4.0293;
-34.2000;0.2475;4.0368;
-33.9000;0.2483;4.0343;
-33.6000;0.2483;4.0318;
-33.3000;0.2475;4.0318;
-33.0000;0.2507;4.0419;
-32.7000;0.2564;4.0545;
-32.4000;0.2483;4.0318;
-32.1000;0.2499;4.0318;
-31.8000;0.2491;4.0268;
-31.5000;0.2483;4.0243;
-31.2000;0.2483;4.0243;
-30.9000;0.2483;4.0368;
-30.6000;0.2450;4.0243;
-30.3000;0.2499;4.0318;
-30.0000;0.2475;4.0268;
-29.7000;0.2499;4.0268;
-29.4000;0.2466;4.0192;
-29.1000;0.2532;4.0318;
-28.8000;0.2377;3.9916;
-28.5000;0.2507;4.0167;
-28.2000;0.2458;3.9991;
-27.9000;0.2466;3.9941;
-27.6000;0.2556;4.0243;
-27.3000;0.2491;4.0117;
-27.0000;0.2491;4.0167;
-26.7000;0.2491;4.0167;
-26.4000;0.2491;4.0192;
-26.1000;0.2491;4.0192;
-25.8000;0.2491;4.0243;
-25.5000;0.2475;4.0192;
-25.2000;0.2491;4.0218;
-24.9000;0.2507;4.0318;
-24.6000;0.2344;3.9865;
-24.3000;0.2491;4.0243;
-24.0000;0.2491;4.0268;
-23.7000;0.2499;4.0192;
-23.4000;0.2491;4.0192;
-23.1000;0.2475;4.0092;
-22.8000;0.2499;4.0218;
-22.5000;0.2540;4.0167;
-22.2000;0.2491;4.0117;
-21.9000;0.2426;3.9941;
-21.6000;0.2442;4.0042;
-21.3000;0.2597;4.0519;
-21.0000;0.2515;4.0218;
-20.7000;0.2418;3.9966;
-20.4000;0.2507;4.0192;
-20.1000;0.2409;4.0067;
-19.8000;0.2409;3.9941;
-19.5000;0.2507;4.0243;
-19.2000;0.2499;4.0167;
-18.9000;0.2491;4.0016;
-18.6000;0.2499;4.0016;
-18.3000;0.2523;4.0067;
-18.0000;0.2458;3.9966;
-17.7000;0.2466;3.9916;
-17.4000;0.2475;3.9966;
-17.1000;0.2491;4.0067;
-16.8000;0.2597;4.0368;
-16.5000;0.2507;4.0192;
-16.2000;0.2523;4.0293;
-15.9000;0.2475;4.0192;
-15.6000;0.2507;4.0268;
-15.3000;0.2499;4.0218;
-15.0000;0.2491;4.0218;
-14.7000;0.2507;4.0218;
-14.4000;0.2450;4.0167;
-14.1000;0.2483;4.0343;
-13.8000;0.2499;4.0368;
-13.5000;0.2475;4.0318;
-13.2000;0.2483;4.0343;
-12.9000;0.2475;4.0368;
-12.6000;0.2483;4.0444;
-12.3000;0.2483;4.0494;
-12.0000;0.2466;4.0419;
-11.7000;0.2450;4.0243;
-11.4000;0.2491;4.0318;
-11.1000;0.2458;4.0318;
-10.8000;0.2458;4.0368;
-10.5000;0.2458;4.0318;
-10.2000;0.2483;4.0293;
-9.9000;0.2499;4.0394;
-9.6000;0.2466;4.0268;
-9.3000;0.2499;4.0368;
-9.0000;0.2499;4.0394;
-8.7000;0.2466;4.0243;
-8.4000;0.2483;4.0343;
-8.1000;0.2466;4.0343;
-7.8000;0.2450;4.0343;
-7.5000;0.2499;4.0469;
-7.2000;0.2483;4.0444;
-6.9000;0.2466;4.0394;
-6.6000;0.2377;3.9991;
-6.3000;0.2523;4.0394;
-6.0000;0.2532;4.0368;
-5.7000;0.2442;4.0142;
-5.4000;0.2491;4.0318;
-5.1000;0.2499;4.0394;
-4.8000;0.2507;4.0444;
-4.5000;0.2442;4.0343;
-4.2000;0.2491;4.0444;
-3.9000;0.2491;4.0394;
-3.6000;0.2377;4.0117;
-3.3000;0.2426;4.0192;
-3.0000;0.2458;4.0218;
-2.7000;0.2507;4.0419;
-2.4000;0.2507;4.0469;
-2.1000;0.2483;4.0519;
-1.8000;0.2475;4.0519;
-1.5000;0.2475;4.0444;
-1.2000;0.2491;4.0444;
-0.9000;0.2491;4.0444;
-0.6000;0.2548;4.0620;
-0.3000;0.2711;4.1048;
0.0000;0.2711;4.1048;
0.3000;0.2475;4.0394;
0.6000;0.2499;4.0796;
0.9000;0.2523;4.1224;
1.2000;0.2532;4.1651;
1.5000;0.2629;4.2330;
1.8000;0.2589;4.2532;
2.1000;0.2548;4.2758;
2.4000;0.2621;4.3085;
2.7000;0.2678;4.3462;
3.0000;0.2646;4.3512;
3.3000;0.2629;4.3714;
3.6000;0.2646;4.3915;
3.9000;0.2654;4.4066;
4.2000;0.2670;4.4342;
4.5000;0.2621;4.4242;
4.8000;0.2646;4.4368;
5.1000;0.2670;4.4519;
5.4000;0.2654;4.4493;
5.7000;0.2613;4.4418;
6.0000;0.2662;4.4544;
6.3000;0.2662;4.4644;
6.6000;0.2654;4.4569;
6.9000;0.2613;4.4468;
7.2000;0.2629;4.4443;
7.5000;0.2678;4.4519;
7.8000;0.2646;4.4493;
8.1000;0.2719;4.4720;
8.4000;0.2662;4.4493;
8.7000;0.2662;4.4619;
9.0000;0.2686;4.4669;
9.3000;0.2686;4.4695;
9.6000;0.2678;4.4619;
9.9000;0.2670;4.4594;
10.2000;0.2670;4.4720;
10.5000;0.2678;4.4745;
10.8000;0.2670;4.4795;
11.1000;0.2646;4.4720;
11.4000;0.2654;4.4745;
11.7000;0.2686;4.4871;
12.0000;0.2629;4.4720;
12.3000;0.2678;4.4795;
12.6000;0.2654;4.4695;
12.9000;0.2654;4.4745;
13.2000;0.2654;4.4669;
13.5000;0.2670;4.4745;
13.8000;0.2678;4.4795;
14.1000;0.2751;4.4946;
14.4000;0.2637;4.4594;
14.7000;0.2686;4.4544;
15.0000;0.2605;4.4342;
15.3000;0.2654;4.4493;
15.6000;0.2654;4.4468;
15.9000;0.2654;4.4519;
16.2000;0.2719;4.4669;
16.5000;0.2654;4.4519;
16.8000;0.2694;4.4544;
17.1000;0.2670;4.4544;
17.4000;0.2597;4.4217;
17.7000;0.2654;4.4317;
18.0000;0.2605;4.4242;
18.3000;0.2662;4.4418;
18.6000;0.2662;4.4393;
18.9000;0.2662;4.4443;
19.2000;0.2654;4.4418;
19.5000;0.2711;4.4644;
19.8000;0.2670;4.4594;
20.1000;0.2646;4.4594;
20.4000;0.2678;4.4770;
20.7000;0.2597;4.4594;
21.0000;0.2678;4.4795;
21.3000;0.2589;4.4569;
21.6000;0.2686;4.4820;
21.9000;0.2694;4.4871;
22.2000;0.2670;4.4820;
22.5000;0.2654;4.4695;
22.8000;0.2654;4.4720;
23.1000;0.2686;4.4820;
23.4000;0.2654;4.4745;
23.7000;0.2678;4.4845;
24.0000;0.2670;4.4921;
24.3000;0.2662;4.4871;
24.6000;0.2670;4.4871;
24.9000;0.2670;4.4845;
25.2000;0.2662;4.4795;
25.5000;0.2743;4.4971;
25.8000;0.2654;4.4695;
26.1000;0.2678;4.4795;
26.4000;0.2686;4.4795;
26.7000;0.2678;4.4896;
27.0000;0.2678;4.4795;
27.3000;0.2711;4.4921;
27.6000;0.2613;4.4720;
27.9000;0.2646;4.4795;
28.2000;0.2670;4.4795;
28.5000;0.2662;4.4795;
28.8000;0.2776;4.5097;
29.1000;0.2678;4.4871;
29.4000;0.2662;4.4820;
29.7000;0.2678;4.4871;
30.0000;0.2800;4.5298;
30.3000;0.2670;4.4845;
30.6000;0.2670;4.4871;
30.9000;0.2662;4.4795;
31.2000;0.2589;4.4594;
31.5000;0.2662;4.4795;
31.8000;0.2548;4.4368;
32.1000;0.2662;4.4720;
32.4000;0.2654;4.4695;
32.7000;0.2678;4.4745;
33.0000;0.2670;4.4795;
33.3000;0.2849;4.5298;
33.6000;0.2678;4.4745;
33.9000;0.2686;4.4720;
34.2000;0.2662;4.4770;
34.5000;0.2678;4.4845;
34.8000;0.2678;4.4845;
35.1000;0.2654;4.4720;
35.4000;0.2637;4.4619;
35.7000;0.2662;4.4669;
36.0000;0.2735;4.4946;
36.3000;0.2686;4.4820;
36.6000;0.2694;4.4820;
36.9000;0.2670;4.4795;
37.2000;0.2735;4.4971;
37.5000;0.2662;4.4871;
37.8000;0.2662;4.4871;
38.1000;0.2678;4.4871;
38.4000;0.2694;4.4946;
38.7000;0.2654;4.4896;
39.0000;0.2654;4.4820;
39.3000;0.2686;4.4971;
39.6000;0.2662;4.4896;
39.9000;0.2662;4.4795;
40.2000;0.2613;4.4619;
40.5000;0.2670;4.4820;
40.8000;0.2662;4.4820;
41.1000;0.2646;4.4745;
41.4000;0.2621;4.4695;
41.7000;0.2637;4.4669;
42.0000;0.2686;4.4745;
42.3000;0.2580;4.4443;
42.6000;0.2662;4.4720;
42.9000;0.2670;4.4745;
43.2000;0.2580;4.4493;
43.5000;0.2613;4.4594;
43.8000;0.2670;4.4795;
44.1000;0.2759;4.4896;
44.4000;0.2654;4.4669;
44.7000;0.2646;4.4594;
45.0000;0.2662;4.4669;
45.3000;0.2654;4.4619;
45.6000;0.2686;4.4695;
45.9000;0.2686;4.4795;
46.2000;0.2686;4.4820;
46.5000;0.2686;4.4795;
46.8000;0.2637;4.4519;
47.1000;0.2613;4.4468;
47.4000;0.2654;4.4594;
47.7000;0.2654;4.4544;
48.0000;0.2678;4.4619;
48.3000;0.2637;4.4544;
48.6000;0.2613;4.4393;
48.9000;0.2654;4.4544;
49.2000;0.2654;4.4519;
49.5000;0.2735;4.4644;
49.8000;0.2670;4.4519;
50.1000;0.2629;4.4493;
50.4000;0.2751;4.4795;
50.7000;0.2735;4.4695;
51.0000;0.2654;4.4443;
51.3000;0.2670;4.4519;
51.6000;0.2613;4.4443;
51.9000;0.2646;4.4594;
52.2000;0.2686;4.4669;
52.5000;0.2686;4.4720;
52.8000;0.2613;4.4569;
53.1000;0.2646;4.4745;
53.4000;0.2654;4.4669;
53.7000;0.2670;4.4745;
54.0000;0.2597;4.4468;
54.3000;0.2662;4.4770;
54.6000;0.2654;4.4720;
54.9000;0.2662;4.4820;
55.2000;0.2662;4.4820;
55.5000;0.2686;4.4770;
55.8000;0.2629;4.4745;
56.1000;0.2662;4.4795;
56.4000;0.2686;4.4820;
56.7000;0.2662;4.4720;
57.0000;0.2572;4.4468;
57.3000;0.2629;4.4669;
57.6000;0.2654;4.4795;
57.9000;0.2662;4.4871;
58.2000;0.2637;4.4770;
58.5000;0.2670;4.4871;
58.8000;0.2670;4.4795;
59.1000;0.2678;4.4896;
59.4000;0.2670;4.4845;
59.7000;0.2662;4.4896;
60.0000;0.2662;4.4871;
60.3000;0.2670;4.4921;
60.6000;0.2662;4.4921;
60.9000;0.2678;4.4921;
61.2000;0.2646;4.4845;
61.5000;0.2646;4.4820;
61.8000;0.2646;4.4845;
62.1000;0.2613;4.4820;
62.4000;0.2670;4.4896;
62.7000;0.2686;4.4845;
63.0000;0.2646;4.4720;
63.3000;0.2646;4.4669;
63.6000;0.2662;4.4695;
63.9000;0.2743;4.5022;
64.2000;0.2654;4.4770;
64.5000;0.2662;4.4845;
64.8000;0.2654;4.4820;
65.1000;0.2670;4.4820;
65.4000;0.2637;4.4745;
65.7000;0.2719;4.4921;
66.0000;0.2670;4.4845;
66.3000;0.2662;4.4871;
66.6000;0.2694;4.4871;
66.9000;0.2678;4.4795;
67.2000;0.2686;4.4871;
67.5000;0.2646;4.4770;
67.8000;0.2670;4.4820;
68.1000;0.2654;4.4871;
68.4000;0.2694;4.5022;
68.7000;0.2629;4.4871;
69.0000;0.2637;4.4921;
69.3000;0.2670;4.5022;
69.6000;0.2662;4.4996;
69.9000;0.2678;4.4946;
70.2000;0.2654;4.4946;
70.5000;0.2605;4.4871;
70.8000;0.2637;4.4946;
71.1000;0.2670;4.4946;
71.4000;0.2678;4.4946;
71.7000;0.2654;4.4921;
72.0000;0.2646;4.4871;
72.3000;0.2727;4.5097;
72.6000;0.2711;4.4996;
72.9000;0.2654;4.4770;
73.2000;0.2711;4.4871;
73.5000;0.2654;4.4644;
73.8000;0.2662;4.4695;
74.1000;0.2670;4.4795;
74.4000;0.2629;4.4695;
74.7000;0.2646;4.4720;
75.0000;0.2727;4.4845;
75.3000;0.2621;4.4569;
75.6000;0.2646;4.4695;
75.9000;0.2711;4.4896;
76.2000;0.2662;4.4795;
76.5000;0.2670;4.4845;
76.8000;0.2637;4.4745;
77.1000;0.2678;4.4820;
77.4000;0.2662;4.4795;
77.7000;0.2670;4.4871;
78.0000;0.2686;4.4921;
78.3000;0.2670;4.4946;
78.6000;0.2654;4.4896;
78.9000;0.2629;4.4871;
79.2000;0.2637;4.4896;
79.5000;0.2670;4.4921;
79.8000;0.2678;4.4845;
80.1000;0.2646;4.4795;
80.4000;0.2670;4.4921;
80.7000;0.2662;4.4921;
81.0000;0.2670;4.4946;
81.3000;0.2662;4.4996;
81.6000;0.2662;4.4971;
81.9000;0.2678;4.5047;
82.2000;0.2654;4.5022;
82.5000;0.2646;4.4946;
82.8000;0.2654;4.4871;
83.1000;0.2572;4.4418;
83.4000;0.2637;4.4619;
83.7000;0.2662;4.4695;
84.0000;0.2629;4.4669;
84.3000;0.2654;4.4795;
84.6000;0.2654;4.4770;
84.9000;0.2589;4.4644;
85.2000;0.2637;4.4745;
85.5000;0.2646;4.4845;
85.8000;0.2597;4.4669;
86.1000;0.2751;4.5097;
86.4000;0.2816;4.5298;
86.7000;0.2646;4.4820;
87.0000;0.2613;4.4644;
87.3000;0.2646;4.4669;
87.6000;0.2629;4.4695;
87.9000;0.2589;4.4594;
88.2000;0.2654;4.4795;
88.5000;0.2523;4.4468;
88.8000;0.2621;4.4820;
89.1000;0.2654;4.4871;
89.4000;0.2654;4.4946;
89.7000;0.2662;4.4871;
90.0000;0.2662;4.4871;
90.3000;0.2629;4.4770;
90.6000;0.2654;4.4795;
90.9000;0.2670;4.4845;
91.2000;0.2727;4.4871;
91.5000;0.2662;4.4644;
91.8000;0.2654;4.4644;
92.1000;0.2670;4.4745;
92.4000;0.2637;4.4594;
92.7000;0.2646;4.4569;
93.0000;0.2662;4.4644;
93.3000;0.2694;4.4695;
93.6000;0.2637;4.4569;
93.9000;0.2637;4.4594;
94.2000;0.2694;4.4720;
94.5000;0.2662;4.4594;
94.8000;0.2662;4.4569;
95.1000;0.2662;4.4544;
95.4000;0.2637;4.4594;
95.7000;0.2654;4.4669;
96.0000;0.2686;4.4745;
96.3000;0.2646;4.4619;
96.6000;0.2670;4.4594;
96.9000;0.2678;4.4669;
97.2000;0.2621;4.4519;
97.5000;0.2621;4.4644;
97.8000;0.2646;4.4770;
98.1000;0.2646;4.4644;
98.4000;0.2646;4.4594;
98.7000;0.2637;4.4619;
99.0000;0.2621;4.4519;
99.3000;0.2670;4.4669;
99.6000;0.2662;4.4669;
99.9000;0.2670;4.4669;
100.2000;0.2727;4.4871;
100.5000;0.2678;4.4745;
100.8000;0.2670;4.4820;
101.1000;0.2637;4.4695;
101.4000;0.2670;4.4795;
101.7000;0.2662;4.4669;
102.0000;0.2654;4.4669;
102.3000;0.2646;4.4669;
102.6000;0.2654;4.4644;
102.9000;0.2670;4.4770;
103.2000;0.2662;4.4820;
103.5000;0.2702;4.4921;
103.8000;0.2654;4.4871;
104.1000;0.2572;4.4644;
104.4000;0.2629;4.4820;
104.7000;0.2637;4.4820;
105.0000;0.2654;4.4795;
105.3000;0.2662;4.4820;
105.6000;0.2646;4.4745;
105.9000;0.2646;4.4745;
106.2000;0.2686;4.4770;
106.5000;0.2670;4.4770;
106.8000;0.2646;4.4695;
107.1000;0.2662;4.4594;
107.4000;0.2646;4.4493;
107.7000;0.2637;4.4468;
108.0000;0.2662;4.4569;
108.3000;0.2670;4.4569;
108.6000;0.2637;4.4493;
108.9000;0.2613;4.4393;
109.2000;0.2670;4.4619;
109.5000;0.2686;4.4619;
109.8000;0.2678;4.4720;
110.1000;0.2646;4.4669;
110.4000;0.2670;4.4720;
110.7000;0.2670;4.4695;
111.0000;0.2686;4.4820;
111.3000;0.2662;4.4745;
111.6000;0.2662;4.4720;
111.9000;0.2735;4.4896;
112.2000;0.2556;4.4368;
112.5000;0.2784;4.5072;
112.8000;0.2515;4.4292;
113.1000;0.2637;4.4619;
113.4000;0.2719;4.4770;
113.7000;0.2678;4.4619;
114.0000;0.2678;4.4594;
114.3000;0.2662;4.4594;
114.6000;0.2629;4.4569;
114.9000;0.2646;4.4569;
115.2000;0.2702;4.4720;
115.5000;0.2646;4.4619;
115.8000;0.2646;4.4619;
116.1000;0.2654;4.4544;
116.4000;0.2670;4.4644;
116.7000;0.2694;4.4745;
117.0000;0.2670;4.4644;
117.3000;0.2654;4.4695;
117.6000;0.2662;4.4745;
117.9000;0.2654;4.4745;
118.2000;0.2759;4.5047;
118.5000;0.2654;4.4770;
118.8000;0.2646;4.4745;
119.1000;0.2654;4.4770;
119.4000;0.2646;4.4871;
119.7000;0.2678;4.5072;
120.0000;0.2646;4.4896;
120.3000;0.2646;4.4871;
120.6000;0.2654;4.4845;
120.9000;0.2629;4.4795;
121.2000;0.2621;4.4720;
121.5000;0.2768;4.4996;
121.8000;0.2662;4.4569;
122.1000;0.2605;4.4443;
122.4000;0.2621;4.4519;
122.7000;0.2646;4.4619;
123.0000;0.2597;4.4519;
123.3000;0.2629;4.4695;
123.6000;0.2670;4.4871;
123.9000;0.2662;4.4871;
124.2000;0.2678;4.5022;
124.5000;0.2670;4.4921;
124.8000;0.2670;4.4896;
125.1000;0.2629;4.4770;
125.4000;0.2662;4.4871;
125.7000;0.2686;4.4971;
126.0000;0.2662;4.4896;
126.3000;0.2662;4.4971;
126.6000;0.2629;4.4871;
126.9000;0.2678;4.4946;
127.2000;0.2662;4.4996;
127.5000;0.2670;4.5047;
127.8000;0.2621;4.4871;
128.1000;0.2670;4.4996;
128.4000;0.2629;4.4845;
128.7000;0.2646;4.4845;
129.0000;0.2654;4.4695;
129.3000;0.2719;4.4871;
129.6000;0.2654;4.4745;
129.9000;0.2670;4.4795;
130.2000;0.2662;4.4770;
130.5000;0.2646;4.4720;
130.8000;0.2670;4.4820;
131.1000;0.2743;4.5047;
131.4000;0.2662;4.4921;
131.7000;0.2646;4.4871;
132.0000;0.2646;4.4795;
132.3000;0.2646;4.4871;
132.6000;0.2646;4.4871;
132.9000;0.2621;4.4871;
133.2000;0.2670;4.4971;
133.5000;0.2678;4.4896;
133.8000;0.2637;4.4619;
134.1000;0.2564;4.4393;
134.4000;0.2597;4.4594;
134.7000;0.2572;4.4544;
135.0000;0.2678;4.4896;
135.3000;0.2637;4.4871;
135.6000;0.2654;4.5047;
135.9000;0.2662;4.4996;
136.2000;0.2499;4.4569;
136.5000;0.2686;4.5097;
136.8000;0.2572;4.4745;
137.1000;0.2678;4.5022;
137.4000;0.2646;4.5047;
137.7000;0.2564;4.4820;
138.0000;0.2629;4.4996;
138.3000;0.2613;4.4921;
138.6000;0.2654;4.4946;
138.9000;0.2637;4.4871;
139.2000;0.2646;4.4946;
139.5000;0.2646;4.5047;
139.8000;0.2646;4.5097;
140.1000;0.2654;4.5047;
140.4000;0.2613;4.4946;
140.7000;0.2735;4.5223;
141.0000;0.2637;4.4946;
141.3000;0.2654;4.4946;
141.6000;0.2662;4.4921;
141.9000;0.2646;4.4820;
142.2000;0.2654;4.4820;
142.5000;0.2646;4.4871;
142.8000;0.2776;4.5198;
143.1000;0.2678;4.4896;
143.4000;0.2654;4.4795;
143.7000;0.2686;4.4795;
144.0000;0.2662;4.4594;
144.3000;0.2662;4.4569;
144.6000;0.2678;4.4619;
144.9000;0.2694;4.4695;
145.2000;0.2694;4.4820;
145.5000;0.2621;4.4619;
145.8000;0.2637;4.4720;
146.1000;0.2637;4.4795;
146.4000;0.2646;4.4871;
146.7000;0.2711;4.5097;
147.0000;0.2662;4.4921;
147.3000;0.2694;4.4946;
147.6000;0.2629;4.4845;
147.9000;0.2621;4.4745;
148.2000;0.2646;4.4720;
148.5000;0.2670;4.4745;
148.8000;0.2637;4.4544;
149.1000;0.2613;4.4418;
149.4000;0.2621;4.4468;
149.7000;0.2662;4.4519;
150.0000;0.2662;4.4493;
150.3000;0.2662;4.4519;
150.6000;0.2654;4.4493;
150.9000;0.2654;4.4493;
151.2000;0.2637;4.4493;
151.5000;0.2670;4.4544;
151.8000;0.2654;4.4569;
152.1000;0.2719;4.4720;
152.4000;0.2646;4.4619;
152.7000;0.2646;4.4669;
153.0000;0.2654;4.4695;
153.3000;0.2507;4.4292;
153.6000;0.2637;4.4695;
153.9000;0.2678;4.4745;
154.2000;0.2646;4.4695;
154.5000;0.2637;4.4745;
154.8000;0.2621;4.4669;
155.1000;0.2670;4.4795;
155.4000;0.2646;4.4644;
155.7000;0.2662;4.4544;
156.0000;0.2629;4.4569;
156.3000;0.2654;4.4695;
156.6000;0.2613;4.4594;
156.9000;0.2654;4.4770;
157.2000;0.2646;4.4745;
157.5000;0.2646;4.4745;
157.8000;0.2678;4.4845;
158.1000;0.2637;4.4720;
158.4000;0.2442;4.4217;
158.7000;0.2621;4.4745;
159.0000;0.2654;4.4820;
159.3000;0.2613;4.4745;
159.6000;0.2589;4.4594;
159.9000;0.2670;4.4820;
160.2000;0.2613;4.4619;
160.5000;0.2784;4.5147;
160.8000;0.2637;4.4745;
161.1000;0.2727;4.5022;
161.4000;0.2654;4.4845;
161.7000;0.2654;4.4845;
162.0000;0.2670;4.4896;
162.3000;0.2654;4.4845;
162.6000;0.2637;4.4845;
162.9000;0.2654;4.4896;
163.2000;0.2670;4.4946;
163.5000;0.2605;4.4745;
163.8000;0.2654;4.4820;
164.1000;0.2637;4.4795;
164.4000;0.2743;4.5122;
164.7000;0.2556;4.4619;
165.0000;0.2646;4.4896;
165.3000;0.2784;4.5198;
165.6000;0.2719;4.5022;
165.9000;0.2670;4.4845;
166.2000;0.2654;4.4845;
166.5000;0.2385;4.4166;
166.8000;0.2637;4.4871;
167.1000;0.2711;4.5122;
167.4000;0.2613;4.4896;
167.7000;0.2686;4.5047;
168.0000;0.2678;4.4946;
168.3000;0.2662;4.4845;
168.6000;0.2694;4.4971;
168.9000;0.2597;4.4619;
169.2000;0.2621;4.4594;
169.5000;0.2662;4.4795;
169.8000;0.2654;4.4896;
170.1000;0.2670;4.4896;
170.4000;0.2686;4.4946;
170.7000;0.2654;4.4896;
171.0000;0.2654;4.4971;
171.3000;0.2605;4.4745;
171.6000;0.2662;4.4921;
171.9000;0.2702;4.4996;
172.2000;0.2662;4.4845;
172.5000;0.2654;4.4770;
172.8000;0.2654;4.4795;
173.1000;0.2662;4.4820;
173.4000;0.2646;4.4795;
173.7000;0.2637;4.4820;
174.0000;0.2637;4.4770;
174.3000;0.2572;4.4544;
174.6000;0.2637;4.4745;
174.9000;0.2646;4.4745;
175.2000;0.2605;4.4619;
175.5000;0.2662;4.4795;
175.8000;0.2662;4.4720;
176.1000;0.2654;4.4720;
176.4000;0.2629;4.4644;
176.7000;0.2654;4.4745;
177.0000;0.2637;4.4745;
177.3000;0.2646;4.4770;
177.6000;0.2646;4.4745;
177.9000;0.2654;4.4770;
178.2000;0.2678;4.4896;
178.5000;0.2637;4.4720;
178.8000;0.2637;4.4720;
179.1000;0.2646;4.4644;
179.4000;0.2662;4.4695;
179.7000;0.2621;4.4619;
180.0000;0.2678;4.4720;
180.3000;0.2654;4.4695;
180.6000;0.2637;4.4619;
180.9000;0.2646;4.4544;
181.2000;0.2605;4.4443;
181.5000;0.2629;4.4569;
181.8000;0.2629;4.4569;
182.1000;0.2662;4.4644;
182.4000;0.2409;4.4041;
182.7000;0.2637;4.4669;
183.0000;0.2670;4.4720;
183.3000;0.2662;4.4644;
183.6000;0.2629;4.4569;
183.9000;0.2523;4.4166;
184.2000;0.2654;4.4544;
184.5000;0.2654;4.4544;
184.8000;0.2711;4.4644;
185.1000;0.2637;4.4443;
185.4000;0.2670;4.4644;
185.7000;0.2637;4.4669;
186.0000;0.2662;4.4820;
186.3000;0.2654;4.4871;
186.6000;0.2686;4.4896;
186.9000;0.2637;4.4720;
187.2000;0.2629;4.4669;
187.5000;0.2654;4.4820;
187.8000;0.2637;4.4745;
188.1000;0.2646;4.4795;
188.4000;0.2597;4.4569;
188.7000;0.2637;4.4669;
189.0000;0.2589;4.4544;
189.3000;0.2646;4.4720;
189.6000;0.2637;4.4594;
189.9000;0.2719;4.4820;
190.2000;0.2702;4.4745;
190.5000;0.2678;4.4745;
190.8000;0.2670;4.4594;
191.1000;0.2678;4.4544;
191.4000;0.2646;4.4569;
191.7000;0.2637;4.4644;
192.0000;0.2694;4.4770;
192.3000;0.2637;4.4569;
192.6000;0.2678;4.4695;
192.9000;0.2646;4.4569;
193.2000;0.2654;4.4720;
193.5000;0.2662;4.4770;
193.8000;0.2629;4.4544;
194.1000;0.2719;4.4845;
194.4000;0.2654;4.4745;
194.7000;0.2654;4.4795;
195.0000;0.2646;4.4669;
195.3000;0.2654;4.4644;
195.6000;0.2637;4.4669;
195.9000;0.2629;4.4619;
196.2000;0.2646;4.4619;
196.5000;0.2621;4.4594;
196.8000;0.2646;4.4644;
197.1000;0.2621;4.4569;
197.4000;0.2629;4.4569;
197.7000;0.2621;4.4569;
198.0000;0.2597;4.4443;
198.3000;0.2646;4.4619;
198.6000;0.2621;4.4519;
198.9000;0.2613;4.4569;
199.2000;0.2556;4.4368;
199.5000;0.2654;4.4644;
199.8000;0.2646;4.4619;
200.1000;0.2613;4.4695;
200.4000;0.2646;4.4770;
200.7000;0.2662;4.4745;
201.0000;0.2662;4.4820;
201.3000;0.2670;4.4896;
201.6000;0.2646;4.4745;
201.9000;0.2662;4.4770;
202.2000;0.2637;4.4669;
202.5000;0.2670;4.4745;
202.8000;0.2621;4.4644;
203.1000;0.2662;4.4695;
203.4000;0.2621;4.4619;
203.7000;0.2743;4.4845;
204.0000;0.2654;4.4594;
204.3000;0.2589;4.4418;
204.6000;0.2499;4.4317;
204.9000;0.2564;4.4468;
205.2000;0.2548;4.4544;
205.5000;0.2654;4.4770;
205.8000;0.2678;4.4795;
206.1000;0.2637;4.4770;
206.4000;0.2711;4.4921;
206.7000;0.2646;4.4770;
207.0000;0.2702;4.4845;
207.3000;0.2654;4.4795;
207.6000;0.2646;4.4745;
207.9000;0.2670;4.4745;
208.2000;0.2621;4.4594;
208.5000;0.2662;4.4745;
208.8000;0.2646;4.4669;
209.1000;0.2637;4.4544;
209.4000;0.2613;4.4594;
209.7000;0.2654;4.4745;
210.0000;0.2662;4.4770;
210.3000;0.2662;4.4795;
210.6000;0.2637;4.4845;
210.9000;0.2646;4.4845;
211.2000;0.2654;4.4770;
211.5000;0.2654;4.4644;
211.8000;0.2646;4.4644;
212.1000;0.2629;4.4644;
212.4000;0.2670;4.4695;
212.7000;0.2613;4.4619;
213.0000;0.2613;4.4569;
213.3000;0.2646;4.4569;
213.6000;0.2662;4.4569;
213.9000;0.2670;4.4569;
214.2000;0.2637;4.4493;
214.5000;0.2654;4.4443;
214.8000;0.2654;4.4544;
215.1000;0.2654;4.4569;
215.4000;0.2646;4.4619;
215.7000;0.2629;4.4544;
216.0000;0.2646;4.4544;
216.3000;0.2646;4.4519;
216.6000;0.2629;4.4443;
216.9000;0.2629;4.4443;
217.2000;0.2637;4.4468;
217.5000;0.2637;4.4519;
217.8000;0.2629;4.4519;
218.1000;0.2621;4.4594;
218.4000;0.2654;4.4695;
218.7000;0.2662;4.4720;
219.0000;0.2646;4.4720;
219.3000;0.2637;4.4644;
219.6000;0.2670;4.4770;
219.9000;0.2613;4.4519;
220.2000;0.2572;4.4443;
220.5000;0.2629;4.4544;
220.8000;0.2629;4.4493;
221.1000;0.2662;4.4519;
221.4000;0.2654;4.4544;
221.7000;0.2662;4.4619;
222.0000;0.2629;4.4519;
222.3000;0.2621;4.4418;
222.6000;0.2654;4.4468;
222.9000;0.2629;4.4544;
223.2000;0.2629;4.4519;
223.5000;0.2629;4.4544;
223.8000;0.2637;4.4519;
224.1000;0.2654;4.4644;
224.4000;0.2646;4.4695;
224.7000;0.2678;4.4795;
225.0000;0.2654;4.4720;
225.3000;0.2646;4.4544;
225.6000;0.2751;4.4820;
225.9000;0.2629;4.4594;
226.2000;0.2743;4.4871;
226.5000;0.2564;4.4493;
226.8000;0.2654;4.4544;
227.1000;0.2637;4.4519;
227.4000;0.2662;4.4669;
227.7000;0.2637;4.4519;
228.0000;0.2654;4.4544;
228.3000;0.2694;4.4770;
228.6000;0.2662;4.4594;
228.9000;0.2670;4.4669;
229.2000;0.2605;4.4519;
229.5000;0.2662;4.4644;
229.8000;0.2654;4.4745;
230.1000;0.2654;4.4720;
230.4000;0.2719;4.4845;
230.7000;0.2670;4.4695;
231.0000;0.2646;4.4669;
231.3000;0.2646;4.4594;
231.6000;0.2507;4.4217;
231.9000;0.2654;4.4619;
232.2000;0.2678;4.4770;
232.5000;0.2597;4.4619;
232.8000;0.2637;4.4745;
233.1000;0.2646;4.4695;
233.4000;0.2629;4.4594;
233.7000;0.2646;4.4594;
234.0000;0.2637;4.4443;
234.3000;0.2654;4.4468;
234.6000;0.2646;4.4493;
234.9000;0.2637;4.4493;
235.2000;0.2670;4.4544;
235.5000;0.2654;4.4493;
235.8000;0.2637;4.4368;
236.1000;0.2662;4.4368;
236.4000;0.2646;4.4292;
236.7000;0.2621;4.4292;
237.0000;0.2654;4.4418;
237.3000;0.2629;4.4393;
237.6000;0.2670;4.4519;
237.9000;0.2662;4.4519;
238.2000;0.2654;4.4519;
238.5000;0.2629;4.4519;
238.8000;0.2637;4.4519;
239.1000;0.2686;4.4644;
239.4000;0.2654;4.4544;
239.7000;0.2580;4.4317;
240.0000;0.2646;4.4493;
240.3000;0.2678;4.4569;
240.6000;0.2694;4.4594;
240.9000;0.2637;4.4468;
241.2000;0.2597;4.4342;
241.5000;0.2646;4.4443;
241.8000;0.2662;4.4493;
242.1000;0.2759;4.4619;
242.4000;0.2646;4.4242;
242.7000;0.2613;4.4192;
243.0000;0.2670;4.4317;
243.3000;0.2621;4.4192;
243.6000;0.2646;4.4242;
243.9000;0.2621;4.4267;
244.2000;0.2646;4.4342;
244.5000;0.2637;4.4317;
244.8000;0.2637;4.4317;
245.1000;0.2629;4.4292;
245.4000;0.2646;4.4393;
245.7000;0.2621;4.4493;
246.0000;0.2662;4.4695;
246.3000;0.2646;4.4644;
246.6000;0.2662;4.4644;
246.9000;0.2629;4.4619;
247.2000;0.2629;4.4594;
247.5000;0.2605;4.4544;
247.8000;0.2662;4.4695;
248.1000;0.2670;4.4745;
248.4000;0.2637;4.4594;
248.7000;0.2646;4.4619;
249.0000;0.2670;4.4745;
249.3000;0.2694;4.4820;
249.6000;0.2654;4.4695;
249.9000;0.2629;4.4695;
250.2000;0.2637;4.4669;
250.5000;0.2646;4.4644;
250.8000;0.2654;4.4644;
251.1000;0.2662;4.4669;
251.4000;0.2670;4.4770;
251.7000;0.2654;4.4720;
252.0000;0.2646;4.4695;
252.3000;0.2613;4.4695;
252.6000;0.2719;4.5072;
252.9000;0.2678;4.4971;
253.2000;0.2637;4.4845;
253.5000;0.2629;4.4845;
253.8000;0.2646;4.4820;
254.1000;0.2654;4.4921;
254.4000;0.2654;4.4946;
254.7000;0.2719;4.5072;
255.0000;0.2686;4.4896;
255.3000;0.2678;4.4946;
255.6000;0.2572;4.4745;
255.9000;0.2637;4.4946;
256.2000;0.2646;4.4896;
256.5000;0.2621;4.4795;
256.8000;0.2597;4.4720;
257.1000;0.2629;4.4896;
257.4000;0.2637;4.4971;
257.7000;0.2540;4.4745;
258.0000;0.2654;4.5072;
258.3000;0.2621;4.4971;
258.6000;0.2646;4.4996;
258.9000;0.2654;4.4896;
259.2000;0.2637;4.4845;
259.5000;0.2719;4.5072;
259.8000;0.2646;4.4845;
260.1000;0.2662;4.4871;
260.4000;0.2646;4.4921;
260.7000;0.2654;4.4921;
261.0000;0.2646;4.4946;
261.3000;0.2621;4.4896;
261.6000;0.2629;4.4871;
261.9000;0.2670;4.4971;
262.2000;0.2646;4.4921;
262.5000;0.2613;4.4820;
262.8000;0.2613;4.4845;
263.1000;0.2605;4.4795;
263.4000;0.2654;4.4871;
263.7000;0.2654;4.4971;
264.0000;0.2654;4.4996;
264.3000;0.2646;4.4971;
264.6000;0.2637;4.4921;
264.9000;0.2646;4.4896;
265.2000;0.2646;4.4921;
265.5000;0.2654;4.4996;
265.8000;0.2629;4.4921;
266.1000;0.2589;4.4795;
266.4000;0.2654;4.4971;
266.7000;0.2654;4.5022;
267.0000;0.2662;4.4971;
267.3000;0.2646;4.4896;
267.6000;0.2678;4.4921;
267.9000;0.2678;4.4845;
268.2000;0.2637;4.4770;
268.5000;0.2637;4.4795;
268.8000;0.2662;4.4770;
269.1000;0.2654;4.4770;
269.4000;0.2646;4.4795;
269.7000;0.2621;4.4695;
270.0000;0.2646;4.4745;
270.3000;0.2654;4.4845;
270.6000;0.2637;4.4845;
270.9000;0.2678;4.4996;
271.2000;0.2694;4.5122;
271.5000;0.2654;4.5047;
271.8000;0.2637;4.5022;
272.1000;0.2621;4.4971;
272.4000;0.2613;4.4996;
272.7000;0.2637;4.5047;
273.0000;0.2637;4.4996;
273.3000;0.2613;4.4820;
273.6000;0.2637;4.4871;
273.9000;0.2654;4.4845;
274.2000;0.2637;4.4795;
274.5000;0.2678;4.4820;
274.8000;0.2662;4.4770;
275.1000;0.2719;4.4896;
275.4000;0.2597;4.4695;
275.7000;0.2646;4.4745;
276.0000;0.2662;4.4795;
276.3000;0.2678;4.4795;
276.6000;0.2702;4.4896;
276.9000;0.2646;4.4745;
277.2000;0.2629;4.4795;
277.5000;0.2654;4.4871;
277.8000;0.2719;4.4971;
278.1000;0.2580;4.4644;
278.4000;0.2629;4.4720;
278.7000;0.2662;4.4745;
279.0000;0.2662;4.4795;
279.3000;0.2670;4.4770;
279.6000;0.2540;4.4292;
279.9000;0.2629;4.4594;
280.2000;0.2629;4.4493;
280.5000;0.2711;4.4770;
280.8000;0.2646;4.4619;
281.1000;0.2670;4.4770;
281.4000;0.2662;4.4745;
281.7000;0.2792;4.5072;
282.0000;0.2613;4.4493;
282.3000;0.2662;4.4569;
282.6000;0.2654;4.4594;
282.9000;0.2646;4.4544;
283.2000;0.2605;4.4418;
283.5000;0.2646;4.4493;
283.8000;0.2646;4.4644;
284.1000;0.2646;4.4669;
284.4000;0.2637;4.4745;
284.7000;0.2662;4.4820;
285.0000;0.2646;4.4820;
285.3000;0.2637;4.4795;
285.6000;0.2646;4.4795;
285.9000;0.2646;4.4896;
286.2000;0.2654;4.4921;
286.5000;0.2646;4.4896;
286.8000;0.2613;4.4770;
287.1000;0.2662;4.4871;
287.4000;0.2646;4.4669;
287.7000;0.2662;4.4669;
288.0000;0.2629;4.4594;
288.3000;0.2646;4.4594;
288.6000;0.2662;4.4669;
288.9000;0.2654;4.4669;
289.2000;0.2621;4.4695;
289.5000;0.2564;4.4569;
289.8000;0.2646;4.4795;
290.1000;0.2654;4.4795;
290.4000;0.2678;4.4871;
290.7000;0.2654;4.4770;
291.0000;0.2646;4.4619;
291.3000;0.2646;4.4669;
291.6000;0.2629;4.4644;
291.9000;0.2654;4.4745;
292.2000;0.2727;4.5047;
292.5000;0.2621;4.4745;
292.8000;0.2662;4.4820;
293.1000;0.2670;4.4770;
293.4000;0.2637;4.4619;
293.7000;0.2629;4.4644;
294.0000;0.2621;4.4619;
294.3000;0.2629;4.4619;
294.6000;0.2654;4.4695;
294.9000;0.2629;4.4644;
295.2000;0.2507;4.4342;
295.5000;0.2613;4.4669;
295.8000;0.2662;4.4845;
296.1000;0.2702;4.4820;
296.4000;0.2711;4.4770;
296.7000;0.2670;4.4569;
297.0000;0.2646;4.4544;
297.3000;0.2613;4.4468;
297.6000;0.2662;4.4594;
297.9000;0.2507;4.4066;
298.2000;0.2613;4.4393;
298.5000;0.2621;4.4468;
298.8000;0.2670;4.4569;
299.1000;0.2670;4.4569;
299.4000;0.2589;4.4342;
299.7000;0.2735;4.4745;
300.0000;0.2654;4.4519;
300.3000;0.2670;4.4669;
300.6000;0.2572;4.4418;
300.9000;0.2507;4.4393;
301.2000;0.2621;4.4695;
301.5000;0.2670;4.4871;
301.8000;0.2662;4.4770;
302.1000;0.2629;4.4669;
302.4000;0.2621;4.4619;
302.7000;0.2662;4.4695;
303.0000;0.2727;4.4871;
303.3000;0.2694;4.4745;
303.6000;0.2621;4.4544;
303.9000;0.2646;4.4594;
304.2000;0.2621;4.4569;
304.5000;0.2621;4.4644;
304.8000;0.2678;4.4770;
305.1000;0.2743;4.4921;
305.4000;0.2629;4.4594;
305.7000;0.2694;4.4795;
306.0000;0.2637;4.4544;
306.3000;0.2646;4.4619;
306.6000;0.2654;4.4644;
306.9000;0.2646;4.4644;
307.2000;0.2637;4.4544;
307.5000;0.2637;4.4569;
307.8000;0.2662;4.4644;
308.1000;0.2621;4.4594;
308.4000;0.2637;4.4569;
308.7000;0.2621;4.4519;
309.0000;0.2662;4.4594;
309.3000;0.2646;4.4544;
309.6000;0.2646;4.4544;
309.9000;0.2637;4.4468;
310.2000;0.2670;4.4468;
310.5000;0.2654;4.4468;
310.8000;0.2646;4.4418;
311.1000;0.2662;4.4493;
311.4000;0.2621;4.4418;
311.7000;0.2637;4.4418;
312.0000;0.2629;4.4443;
312.3000;0.2540;4.4217;
312.6000;0.2629;4.4368;
312.9000;0.2646;4.4443;
313.2000;0.2637;4.4368;
313.5000;0.2637;4.4267;
313.8000;0.2654;4.4317;
314.1000;0.2621;4.4192;
314.4000;0.2654;4.4217;
314.7000;0.2646;4.4141;
315.0000;0.2637;4.4141;
315.3000;0.2572;4.3965;
315.6000;0.2629;4.4292;
315.9000;0.2621;4.4317;
316.2000;0.2629;4.4418;
316.5000;0.2662;4.4569;
316.8000;0.2637;4.4443;
317.1000;0.2637;4.4393;
317.4000;0.2637;4.4393;
317.7000;0.2637;4.4443;
318.0000;0.2646;4.4418;
318.3000;0.2646;4.4443;
318.6000;0.2629;4.4443;
318.9000;0.2523;4.4192;
319.2000;0.2629;4.4569;
319.5000;0.2605;4.4468;
319.8000;0.2621;4.4544;
320.1000;0.2702;4.4770;
320.4000;0.2719;4.4695;
320.7000;0.2613;4.4393;
321.0000;0.2751;4.4820;
321.3000;0.2629;4.4544;
321.6000;0.2662;4.4720;
321.9000;0.2719;4.4921;
322.2000;0.2621;4.4669;
322.5000;0.2662;4.4745;
322.8000;0.2637;4.4745;
323.1000;0.2621;4.4770;
323.4000;0.2637;4.4845;
323.7000;0.2637;4.4871;
324.0000;0.2637;4.4795;
324.3000;0.2637;4.4795;
324.6000;0.2735;4.5072;
324.9000;0.2662;4.4921;
325.2000;0.2540;4.4519;
325.5000;0.2646;4.4795;
325.8000;0.2678;4.4795;
326.1000;0.2621;4.4745;
326.4000;0.2629;4.4745;
326.7000;0.2637;4.4795;
327.0000;0.2743;4.5097;
327.3000;0.2621;4.4921;
327.6000;0.2580;4.4770;
327.9000;0.2654;4.5022;
328.2000;0.2654;4.4971;
328.5000;0.2637;4.4896;
328.8000;0.2637;4.4921;
329.1000;0.2637;4.4820;
329.4000;0.2621;4.4795;
329.7000;0.2637;4.4820;
330.0000;0.2654;4.4971;
330.3000;0.2637;4.4996;
330.6000;0.2743;4.5248;
330.9000;0.2646;4.4946;
331.2000;0.2654;4.4871;
331.5000;0.2670;4.4946;
331.8000;0.2629;4.4871;
332.1000;0.2629;4.5022;
332.4000;0.2662;4.5047;
332.7000;0.2629;4.4921;
333.0000;0.2849;4.5600;
333.3000;0.2654;4.5097;
333.6000;0.2637;4.5047;
333.9000;0.2613;4.4871;
334.2000;0.2532;4.4695;
334.5000;0.2597;4.4845;
334.8000;0.2654;4.4845;
335.1000;0.2589;4.4720;
335.4000;0.2629;4.4896;
335.7000;0.2629;4.4871;
336.0000;0.2776;4.5298;
336.3000;0.2784;4.5374;
336.6000;0.2662;4.5047;
336.9000;0.2637;4.4946;
337.2000;0.2507;4.4695;
337.5000;0.2654;4.5072;
337.8000;0.2629;4.4946;
338.1000;0.2702;4.5147;
338.4000;0.2646;4.4921;
338.7000;0.2646;4.4845;
339.0000;0.2629;4.4745;
339.3000;0.2751;4.4971;
339.6000;0.2613;4.4569;
339.9000;0.2637;4.4695;
340.2000;0.2613;4.4669;
340.5000;0.2670;4.4845;
340.8000;0.2629;4.4770;
341.1000;0.2654;4.4795;
341.4000;0.2678;4.4896;
341.7000;0.2662;4.4770;
342.0000;0.2629;4.4644;
342.3000;0.2654;4.4619;
342.6000;0.2597;4.4468;
342.9000;0.2702;4.4720;
343.2000;0.2637;4.4594;
343.5000;0.2621;4.4669;
343.8000;0.2597;4.4669;
344.1000;0.2629;4.4745;
344.4000;0.2646;4.4795;
344.7000;0.2654;4.4820;
345.0000;0.2629;4.4896;
345.3000;0.2670;4.4921;
345.6000;0.2629;4.4619;
345.9000;0.2637;4.4720;
346.2000;0.2735;4.4946;
346.5000;0.2686;4.4820;
346.8000;0.2629;4.4695;
347.1000;0.2629;4.4795;
347.4000;0.2646;4.4845;
347.7000;0.2670;4.4921;
348.0000;0.2637;4.4770;
348.3000;0.2654;4.4695;
348.6000;0.2654;4.4644;
348.9000;0.2646;4.4669;
349.2000;0.2613;4.4619;
349.5000;0.2629;4.4569;
349.8000;0.2597;4.4544;
350.1000;0.2621;4.4544;
350.4000;0.2637;4.4519;
350.7000;0.2662;4.4695;
351.0000;0.2662;4.4569;
351.3000;0.2646;4.4644;
351.6000;0.2694;4.4695;
351.9000;0.2646;4.4619;
352.2000;0.2662;4.4619;
352.5000;0.2621;4.4569;
352.8000;0.2637;4.4569;
353.1000;0.2646;4.4569;
353.4000;0.2621;4.4493;
353.7000;0.2646;4.4493;
354.0000;0.2637;4.4493;
354.3000;0.2621;4.4519;
354.6000;0.2727;4.4871;
354.9000;0.2654;4.4619;
355.2000;0.2637;4.4594;
355.5000;0.2662;4.4619;
355.8000;0.2629;4.4569;
356.1000;0.2646;4.4695;
356.4000;0.2678;4.4845;
356.7000;0.2637;4.4695;
357.0000;0.2654;4.4770;
357.3000;0.2621;4.4720;
357.6000;0.2629;4.4896;
357.9000;0.2613;4.4820;
358.2000;0.2678;4.5022;
358.5000;0.2800;4.5399;
358.8000;0.2678;4.5047;
359.1000;0.2491;4.4493;
359.4000;0.2621;4.4770;
359.7000;0.2621;4.4770;
360.0000;0.2637;4.4770;
360.3000;0.2605;4.4720;
360.6000;0.2637;4.4770;
360.9000;0.2662;4.4845;
361.2000;0.2491;4.4443;
361.5000;0.2629;4.4745;
361.8000;0.2605;4.4720;
362.1000;0.2637;4.4720;
362.4000;0.2719;4.4996;
362.7000;0.2637;4.4695;
363.0000;0.2613;4.4669;
363.3000;0.2702;4.4871;
363.6000;0.2589;4.4669;
363.9000;0.2646;4.4770;
364.2000;0.2605;4.4594;
364.5000;0.2637;4.4745;
364.8000;0.2654;4.4745;
365.1000;0.2662;4.4795;
365.4000;0.2678;4.4871;
365.7000;0.2646;4.4795;
366.0000;0.2654;4.4871;
366.3000;0.2662;4.4946;
366.6000;0.2727;4.5047;
366.9000;0.2621;4.4745;
367.2000;0.2646;4.4820;
367.5000;0.2613;4.4619;
367.8000;0.2654;4.4820;
368.1000;0.2711;4.4996;
368.4000;0.2646;4.4921;
368.7000;0.2654;4.4921;
369.0000;0.2654;4.4871;
369.3000;0.2589;4.4720;
369.6000;0.2654;4.4871;
369.9000;0.2637;4.4845;
370.2000;0.2662;4.4896;
370.5000;0.2621;4.4871;
370.8000;0.2637;4.4921;
371.1000;0.2507;4.4493;
371.4000;0.2580;4.4644;
371.7000;0.2646;4.4770;
372.0000;0.2637;4.4594;
372.3000;0.2646;4.4644;
372.6000;0.2548;4.4368;
372.9000;0.2637;4.4594;
373.2000;0.2629;4.4594;
373.5000;0.2548;4.4468;
373.8000;0.2637;4.4544;
374.1000;0.2613;4.4569;
374.4000;0.2637;4.4669;
374.7000;0.2597;4.4519;
375.0000;0.2637;4.4644;
375.3000;0.2637;4.4644;
375.6000;0.2629;4.4695;
375.9000;0.2637;4.4619;
376.2000;0.2621;4.4669;
376.5000;0.2751;4.5022;
376.8000;0.2637;4.4795;
377.1000;0.2621;4.4720;
377.4000;0.2613;4.4745;
377.7000;0.2580;4.4619;
378.0000;0.2654;4.4795;
378.3000;0.2637;4.4720;
378.6000;0.2548;4.4544;
378.9000;0.2646;4.4795;
379.2000;0.2646;4.4871;
379.5000;0.2670;4.4946;
379.8000;0.2605;4.4669;
380.1000;0.2613;4.4644;
380.4000;0.2621;4.4619;
380.7000;0.2637;4.4644;
381.0000;0.2637;4.4644;
381.3000;0.2637;4.4745;
381.6000;0.2629;4.4619;
381.9000;0.2670;4.4770;
382.2000;0.2589;4.4669;
382.5000;0.2556;4.4544;
382.8000;0.2637;4.4770;
383.1000;0.2654;4.4770;
383.4000;0.2646;4.4720;
383.7000;0.2637;4.4720;
384.0000;0.2629;4.4720;
384.3000;0.2670;4.4871;
384.6000;0.2678;4.4820;
384.9000;0.2646;4.4795;
385.2000;0.2727;4.5122;
385.5000;0.2613;4.4820;
385.8000;0.2613;4.4720;
386.1000;0.2572;4.4594;
386.4000;0.2654;4.4770;
386.7000;0.2662;4.4845;
387.0000;0.2654;4.4845;
387.3000;0.2670;4.5047;
387.6000;0.2637;4.4820;
387.9000;0.2654;4.4770;
388.2000;0.2646;4.4795;
388.5000;0.2613;4.4745;
388.8000;0.2637;4.4795;
389.1000;0.2605;4.4644;
389.4000;0.2621;4.4594;
389.7000;0.2621;4.4644;
390.0000;0.2646;4.4695;
390.3000;0.2629;4.4695;
390.6000;0.2719;4.4921;
390.9000;0.2637;4.4669;
391.2000;0.2646;4.4669;
391.5000;0.2629;4.4720;
391.8000;0.2637;4.4720;
392.1000;0.2654;4.4695;
392.4000;0.2719;4.4871;
392.7000;0.2646;4.4795;
393.0000;0.2629;4.4644;
393.3000;0.2702;4.4845;
393.6000;0.2670;4.4669;
393.9000;0.2646;4.4669;
394.2000;0.2637;4.4619;
394.5000;0.2629;4.4619;
394.8000;0.2646;4.4695;
395.1000;0.2629;4.4795;
395.4000;0.2694;4.4996;
395.7000;0.2507;4.4393;
396.0000;0.2564;4.4493;
396.3000;0.2654;4.4695;
396.6000;0.2605;4.4594;
396.9000;0.2613;4.4644;
397.2000;0.2637;4.4720;
397.5000;0.2621;4.4619;
397.8000;0.2629;4.4745;
398.1000;0.2646;4.4871;
398.4000;0.2629;4.4795;
398.7000;0.2629;4.4795;
399.0000;0.2605;4.4745;
399.3000;0.2613;4.4770;
399.6000;0.2629;4.4795;
399.9000;0.2621;4.4745;
400.2000;0.2621;4.4720;
400.5000;0.2711;4.4971;
400.8000;0.2621;4.4745;
401.1000;0.2540;4.4519;
401.4000;0.2629;4.4845;
401.7000;0.2637;4.4720;
402.0000;0.2613;4.4695;
402.3000;0.2654;4.4745;
402.6000;0.2621;4.4669;
402.9000;0.2605;4.4569;
403.2000;0.2629;4.4594;
403.5000;0.2613;4.4544;
403.8000;0.2621;4.4619;
404.1000;0.2646;4.4795;
404.4000;0.2637;4.4745;
404.7000;0.2646;4.4745;
405.0000;0.2637;4.4619;
405.3000;0.2654;4.4695;
405.6000;0.2654;4.4745;
405.9000;0.2637;4.4695;
406.2000;0.2629;4.4619;
406.5000;0.2621;4.4594;
406.8000;0.2654;4.4745;
407.1000;0.2629;4.4820;
407.4000;0.2646;4.4845;
407.7000;0.2637;4.4871;
408.0000;0.2605;4.4720;
408.3000;0.2621;4.4644;
408.6000;0.2670;4.4795;
408.9000;0.2654;4.4720;
409.2000;0.2621;4.4644;
409.5000;0.2719;4.4896;
409.8000;0.2637;4.4770;
410.1000;0.2629;4.4720;
410.4000;0.2637;4.4745;
410.7000;0.2646;4.4669;
411.0000;0.2637;4.4594;
411.3000;0.2637;4.4720;
411.6000;0.2629;4.4669;
411.9000;0.2678;4.4820;
412.2000;0.2580;4.4594;
412.5000;0.2646;4.4770;
412.8000;0.2629;4.4619;
413.1000;0.2646;4.4619;
413.4000;0.2654;4.4569;
413.7000;0.2702;4.4745;
414.0000;0.2694;4.4820;
414.3000;0.2702;4.4845;
414.6000;0.2711;4.4845;
414.9000;0.2613;4.4619;
415.2000;0.2646;4.4669;
415.5000;0.2646;4.4644;
415.8000;0.2646;4.4669;
416.1000;0.2646;4.4720;
416.4000;0.2532;4.4368;
416.7000;0.2629;4.4745;
417.0000;0.2637;4.4720;
417.3000;0.2727;4.4946;
417.6000;0.2637;4.4720;
417.9000;0.2637;4.4720;
418.2000;0.2670;4.4820;
418.5000;0.2646;4.4845;
418.8000;0.2621;4.4720;
419.1000;0.2613;4.4720;
419.4000;0.2735;4.5047;
419.7000;0.2637;4.4820;
420.0000;0.2629;4.4845;
420.3000;0.2662;4.4921;
420.6000;0.2662;4.4896;
420.9000;0.2621;4.4820;
421.2000;0.2637;4.4871;
421.5000;0.2637;4.4896;
421.8000;0.2629;4.4795;
422.1000;0.2637;4.4820;
422.4000;0.2637;4.4845;
422.7000;0.2597;4.4795;
423.0000;0.2572;4.4720;
423.3000;0.2662;4.4896;
423.6000;0.2613;4.4770;
423.9000;0.2621;4.4770;
424.2000;0.2646;4.4820;
424.5000;0.2637;4.4921;
424.8000;0.2629;4.4871;
425.1000;0.2629;4.4820;
425.4000;0.2662;4.4896;
425.7000;0.2629;4.4795;
426.0000;0.2646;4.4871;
426.3000;0.2654;4.4921;
426.6000;0.2556;4.4544;
426.9000;0.2613;4.4720;
427.2000;0.2629;4.4594;
427.5000;0.2597;4.4468;
427.8000;0.2646;4.4544;
428.1000;0.2646;4.4519;
428.4000;0.2605;4.4544;
428.7000;0.2662;4.4644;
429.0000;0.2637;4.4569;
429.3000;0.2711;4.4795;
429.6000;0.2646;4.4544;
429.9000;0.2621;4.4544;
430.2000;0.2605;4.4443;
430.5000;0.2556;4.4317;
430.8000;0.2637;4.4669;
431.1000;0.2646;4.4569;
431.4000;0.2621;4.4519;
431.7000;0.2621;4.4594;
432.0000;0.2613;4.4619;
432.3000;0.2727;4.4921;
432.6000;0.2629;4.4770;
432.9000;0.2637;4.4695;
433.2000;0.2629;4.4669;
433.5000;0.2637;4.4669;
433.8000;0.2621;4.4619;
434.1000;0.2686;4.4820;
434.4000;0.2637;4.4619;
434.7000;0.2637;4.4619;
435.0000;0.2629;4.4594;
435.3000;0.2702;4.4770;
435.6000;0.2597;4.4493;
435.9000;0.2564;4.4418;
436.2000;0.2629;4.4644;
436.5000;0.2629;4.4695;
436.8000;0.2670;4.4669;
437.1000;0.2580;4.4443;
437.4000;0.2572;4.4493;
437.7000;0.2694;4.4820;
438.0000;0.2621;4.4644;
438.3000;0.2670;4.4845;
438.6000;0.2646;4.4770;
438.9000;0.2646;4.4770;
439.2000;0.2621;4.4795;
439.5000;0.2621;4.4896;
439.8000;0.2613;4.4720;
440.1000;0.2759;4.5097;
440.4000;0.2629;4.4720;
440.7000;0.2629;4.4770;
441.0000;0.2629;4.4795;
441.3000;0.2646;4.4820;
441.6000;0.2580;4.4594;
441.9000;0.2702;4.4845;
442.2000;0.2637;4.4745;
442.5000;0.2662;4.4745;
442.8000;0.2711;4.4820;
443.1000;0.2605;4.4644;
443.4000;0.2646;4.4795;
443.7000;0.2646;4.4745;
444.0000;0.2637;4.4669;
444.3000;0.2629;4.4720;
444.6000;0.2613;4.4795;
444.9000;0.2646;4.4871;
445.2000;0.2646;4.4770;
445.5000;0.2694;4.4896;
445.8000;0.2654;4.4896;
446.1000;0.2654;4.4896;
446.4000;0.2654;4.4896;
446.7000;0.2654;4.4896;
447.0000;0.2646;4.4896;
447.3000;0.2637;4.4871;
447.6000;0.2637;4.4820;
447.9000;0.2597;4.4745;
448.2000;0.2629;4.4896;
448.5000;0.2646;4.4946;
448.8000;0.2580;4.4695;
449.1000;0.2646;4.4896;
449.4000;0.2662;4.4896;
449.7000;0.2654;4.4921;
450.0000;0.2605;4.4795;
450.3000;0.2613;4.4896;
450.6000;0.2637;4.4971;
450.9000;0.2629;4.5047;
451.2000;0.2613;4.4996;
451.5000;0.2678;4.5022;
451.8000;0.2637;4.4896;
452.1000;0.2621;4.4946;
452.4000;0.2597;4.4745;
452.7000;0.2613;4.4795;
453.0000;0.2605;4.4720;
453.3000;0.2613;4.4745;
453.6000;0.2621;4.4795;
453.9000;0.2743;4.5122;
454.2000;0.2694;4.4971;
454.5000;0.2564;4.4594;
454.8000;0.2646;4.4795;
455.1000;0.2654;4.4770;
455.4000;0.2654;4.4820;
455.7000;0.2629;4.4720;
456.0000;0.2556;4.4594;
456.3000;0.2654;4.4720;
456.6000;0.2686;4.4720;
456.9000;0.2646;4.4644;
457.2000;0.2654;4.4745;
457.5000;0.2662;4.4820;
457.8000;0.2662;4.4795;
458.1000;0.2735;4.5147;
458.4000;0.2637;4.4845;
458.7000;0.2646;4.4871;
459.0000;0.2629;4.4745;
459.3000;0.2646;4.4845;
459.6000;0.2597;4.4745;
459.9000;0.2662;4.4971;
460.2000;0.2654;4.4946;
460.5000;0.2556;4.4644;
460.8000;0.2646;4.4971;
461.1000;0.2654;4.4996;
461.4000;0.2637;4.4896;
461.7000;0.2637;4.4896;
462.0000;0.2629;4.4896;
462.3000;0.2629;4.4871;
462.6000;0.2580;4.4770;
462.9000;0.2629;4.4921;
463.2000;0.2605;4.4921;
463.5000;0.2637;4.4996;
463.8000;0.2629;4.4971;
464.1000;0.2702;4.5122;
464.4000;0.2621;4.4871;
464.7000;0.2597;4.4820;
465.0000;0.2629;4.4921;
465.3000;0.2637;4.4795;
465.6000;0.2686;4.4971;
465.9000;0.2646;4.4971;
466.2000;0.2629;4.4946;
466.5000;0.2646;4.4996;
466.8000;0.2629;4.4971;
467.1000;0.2621;4.4996;
467.4000;0.2662;4.5097;
467.7000;0.2629;4.5022;
468.0000;0.2637;4.5047;
468.3000;0.2605;4.4921;
468.6000;0.2670;4.4996;
468.9000;0.2621;4.4795;
469.2000;0.2621;4.4770;
469.5000;0.2719;4.4971;
469.8000;0.2613;4.4720;
470.1000;0.2597;4.4720;
470.4000;0.2589;4.4845;
470.7000;0.2662;4.5097;
471.0000;0.2621;4.5022;
471.3000;0.2646;4.5047;
471.6000;0.2572;4.4845;
471.9000;0.2678;4.5172;
472.2000;0.2629;4.5047;
472.5000;0.2589;4.4971;
472.8000;0.2629;4.5097;
473.1000;0.2629;4.5097;
473.4000;0.2605;4.5072;
473.7000;0.2646;4.5147;
474.0000;0.2629;4.5072;
474.3000;0.2621;4.4996;
474.6000;0.2605;4.5022;
474.9000;0.2654;4.4996;
475.2000;0.2605;4.4921;
475.5000;0.2629;4.4996;
475.8000;0.2621;4.4921;
476.1000;0.2637;4.4946;
476.4000;0.2735;4.5198;
476.7000;0.2637;4.4845;
477.0000;0.2629;4.4845;
477.3000;0.2597;4.4820;
477.6000;0.2613;4.4795;
477.9000;0.2629;4.4820;
478.2000;0.2621;4.4720;
478.5000;0.2629;4.4745;
478.8000;0.2662;4.4720;
479.1000;0.2621;4.4594;
479.4000;0.2654;4.4770;
479.7000;0.2637;4.4745;
480.0000;0.2613;4.4795;
480.3000;0.2646;4.4946;
480.6000;0.2654;4.4971;
480.9000;0.2613;4.4921;
481.2000;0.2646;4.5022;
481.5000;0.2637;4.4921;
481.8000;0.2670;4.4996;
482.1000;0.2613;4.4871;
482.4000;0.2646;4.4921;
482.7000;0.2621;4.4795;
483.0000;0.2637;4.4720;
483.3000;0.2597;4.4695;
483.6000;0.2637;4.4770;
483.9000;0.2637;4.4745;
484.2000;0.2637;4.4795;
484.5000;0.2646;4.4770;
484.8000;0.2654;4.4795;
485.1000;0.2629;4.4720;
485.4000;0.2686;4.4896;
485.7000;0.2589;4.4594;
486.0000;0.2637;4.4745;
486.3000;0.2629;4.4845;
486.6000;0.2646;4.4921;
486.9000;0.2621;4.4820;
487.2000;0.2792;4.5323;
487.5000;0.2621;4.4669;
487.8000;0.2637;4.4745;
488.1000;0.2629;4.4745;
488.4000;0.2621;4.4695;
488.7000;0.2613;4.4695;
489.0000;0.2646;4.4770;
489.3000;0.2621;4.4669;
489.6000;0.2646;4.4720;
489.9000;0.2629;4.4770;
490.2000;0.2597;4.4745;
490.5000;0.2621;4.4770;
490.8000;0.2637;4.4845;
491.1000;0.2629;4.4770;
491.4000;0.2646;4.4795;
491.7000;0.2637;4.4669;
492.0000;0.2654;4.4770;
492.3000;0.2621;4.4695;
492.6000;0.2711;4.4896;
492.9000;0.2629;4.4619;
493.2000;0.2654;4.4619;
493.5000;0.2694;4.4745;
493.8000;0.2637;4.4594;
494.1000;0.2637;4.4720;
494.4000;0.2621;4.4720;
494.7000;0.2621;4.4669;
495.0000;0.2613;4.4619;
495.3000;0.2637;4.4745;
495.6000;0.2654;4.4820;
495.9000;0.2629;4.4845;
496.2000;0.2654;4.4820;
496.5000;0.2621;4.4820;
496.8000;0.2621;4.4770;
497.1000;0.2589;4.4669;
497.4000;0.2629;4.4795;
497.7000;0.2646;4.4845;
498.0000;0.2613;4.4745;
498.3000;0.2646;4.4795;
498.6000;0.2621;4.4669;
498.9000;0.2637;4.4720;
499.2000;0.2637;4.4669;
499.5000;0.2654;4.4770;
499.8000;0.2637;4.4871;
500.1000;0.2654;4.4871;
500.4000;0.2589;4.4745;
500.7000;0.2654;4.4896;
501.0000;0.2597;4.4770;
501.3000;0.2621;4.4820;
501.6000;0.2629;4.4845;
501.9000;0.2646;4.4820;
502.2000;0.2646;4.4871;
502.5000;0.2613;4.4896;
502.8000;0.2654;4.4946;
503.1000;0.2637;4.4971;
503.4000;0.2613;4.4896;
503.7000;0.2629;4.4921;
504.0000;0.2629;4.4921;
504.3000;0.2629;4.4971;
504.6000;0.2637;4.4996;
504.9000;0.2629;4.4896;
505.2000;0.2605;4.4745;
505.5000;0.2621;4.4795;
505.8000;0.2646;4.4845;
506.1000;0.2637;4.4921;
506.4000;0.2418;4.4292;
506.7000;0.2629;4.4770;
507.0000;0.2621;4.4745;
507.3000;0.2621;4.4770;
507.6000;0.2629;4.4745;
507.9000;0.2662;4.4820;
508.2000;0.2694;4.4871;
508.5000;0.2629;4.4745;
508.8000;0.2556;4.4519;
509.1000;0.2637;4.4770;
509.4000;0.2759;4.5097;
509.7000;0.2686;4.4871;
510.0000;0.2637;4.4720;
510.3000;0.2637;4.4845;
510.6000;0.2629;4.4845;
510.9000;0.2564;4.4695;
511.2000;0.2662;4.4971;
511.5000;0.2597;4.4795;
511.8000;0.2580;4.4745;
512.1000;0.2621;4.4845;
512.4000;0.2637;4.4896;
512.7000;0.2589;4.4720;
513.0000;0.2629;4.4820;
513.3000;0.2629;4.4820;
513.6000;0.2702;4.4971;
513.9000;0.2751;4.5198;
514.2000;0.2662;4.4871;
514.5000;0.2654;4.4820;
514.8000;0.2646;4.4946;
515.1000;0.2580;4.4720;
515.4000;0.2646;4.4845;
515.7000;0.2629;4.4745;
516.0000;0.2646;4.4820;
516.3000;0.2629;4.4845;
516.6000;0.2637;4.4770;
516.9000;0.2654;4.4871;
517.2000;0.2646;4.4871;
517.5000;0.2662;4.4946;
517.8000;0.2637;4.4921;
518.1000;0.2629;4.4946;
518.4000;0.2621;4.4871;
518.7000;0.2646;4.4946;
519.0000;0.2572;4.4720;
519.3000;0.2597;4.4720;
519.6000;0.2629;4.4795;
519.9000;0.2629;4.4845;
520.2000;0.2629;4.4770;
520.5000;0.2613;4.4669;
520.8000;0.2621;4.4770;
521.1000;0.2662;4.4871;
521.4000;0.2654;4.4770;
521.7000;0.2629;4.4745;
522.0000;0.2605;4.4745;
522.3000;0.2702;4.5022;
522.6000;0.2629;4.4845;
522.9000;0.2629;4.4770;
523.2000;0.2621;4.4669;
523.5000;0.2646;4.4745;
523.8000;0.2654;4.4745;
524.1000;0.2580;4.4544;
524.4000;0.2654;4.4820;
524.7000;0.2646;4.4845;
525.0000;0.2637;4.4845;
525.3000;0.2751;4.5147;
525.6000;0.2662;4.4795;
525.9000;0.2646;4.4770;
526.2000;0.2613;4.4745;
526.5000;0.2637;4.4795;
526.8000;0.2613;4.4720;
527.1000;0.2621;4.4669;
527.4000;0.2678;4.4896;
527.7000;0.2629;4.4669;
528.0000;0.2678;4.4770;
528.3000;0.2605;4.4619;
528.6000;0.2629;4.4745;
528.9000;0.2670;4.4795;
529.2000;0.2654;4.4720;
529.5000;0.2654;4.4669;
529.8000;0.2621;4.4644;
530.1000;0.2686;4.4795;
530.4000;0.2662;4.4795;
530.7000;0.2613;4.4644;
531.0000;0.2629;4.4695;
531.3000;0.2637;4.4745;
531.6000;0.2605;4.4669;
531.9000;0.2637;4.4745;
532.2000;0.2580;4.4594;
532.5000;0.2564;4.4594;
532.8000;0.2621;4.4669;
533.1000;0.2629;4.4644;
533.4000;0.2597;4.4569;
533.7000;0.2597;4.4695;
534.0000;0.2654;4.4896;
534.3000;0.2589;4.4745;
534.6000;0.2580;4.4745;
534.9000;0.2662;4.4946;
535.2000;0.2629;4.4820;
535.5000;0.2711;4.5147;
535.8000;0.2637;4.4946;
536.1000;0.2613;4.4795;
536.4000;0.2637;4.4871;
536.7000;0.2694;4.5047;
537.0000;0.2621;4.4845;
537.3000;0.2621;4.4871;
537.6000;0.2637;4.4946;
537.9000;0.2621;4.4795;
538.2000;0.2646;4.4896;
538.5000;0.2637;4.4921;
538.8000;0.2646;4.4871;
539.1000;0.2637;4.4871;
539.4000;0.2637;4.4896;
539.7000;0.2621;4.4820;
540.0000;0.2629;4.4871;
540.3000;0.2646;4.4845;
540.6000;0.2637;4.4845;
540.9000;0.2629;4.4845;
541.2000;0.2646;4.4871;
541.5000;0.2662;4.4795;
541.8000;0.2629;4.4619;
542.1000;0.2613;4.4569;
542.4000;0.2646;4.4770;
542.7000;0.2589;4.4669;
543.0000;0.2646;4.4795;
543.3000;0.2597;4.4695;
543.6000;0.2637;4.4745;
543.9000;0.2646;4.4795;
544.2000;0.2637;4.4795;
544.5000;0.2646;4.4795;
544.8000;0.2646;4.4795;
545.1000;0.2711;4.4996;
545.4000;0.2670;4.4845;
545.7000;0.2654;4.4795;
546.0000;0.2613;4.4695;
546.3000;0.2556;4.4468;
546.6000;0.2654;4.4695;
546.9000;0.2629;4.4594;
547.2000;0.2621;4.4619;
547.5000;0.2629;4.4619;
547.8000;0.2605;4.4544;
548.1000;0.2694;4.4845;
548.4000;0.2621;4.4695;
548.7000;0.2678;4.4820;
549.0000;0.2621;4.4669;
549.3000;0.2507;4.4368;
549.6000;0.2621;4.4720;
549.9000;0.2613;4.4795;
550.2000;0.2629;4.4820;
550.5000;0.2621;4.4795;
550.8000;0.2629;4.4720;
551.1000;0.2621;4.4695;
551.4000;0.2629;4.4644;
551.7000;0.2646;4.4669;
552.0000;0.2654;4.4695;
552.3000;0.2613;4.4569;
552.6000;0.2646;4.4619;
552.9000;0.2646;4.4745;
553.2000;0.2605;4.4820;
553.5000;0.2597;4.4745;
553.8000;0.2613;4.4745;
554.1000;0.2654;4.4946;
554.4000;0.2694;4.5122;
554.7000;0.2621;4.4845;
555.0000;0.2499;4.4468;
555.3000;0.2646;4.4770;
555.6000;0.2589;4.4644;
555.9000;0.2621;4.4669;
556.2000;0.2629;4.4644;
556.5000;0.2637;4.4669;
556.8000;0.2646;4.4745;
557.1000;0.2621;4.4871;
557.4000;0.2621;4.4896;
557.7000;0.2686;4.5097;
558.0000;0.2621;4.4845;
558.3000;0.2597;4.4695;
558.6000;0.2702;4.4896;
558.9000;0.2670;4.4845;
559.2000;0.2589;4.4720;
559.5000;0.2637;4.4770;
559.8000;0.2621;4.4720;
560.1000;0.2597;4.4619;
560.4000;0.2621;4.4669;
560.7000;0.2621;4.4720;
561.0000;0.2670;4.4996;
561.3000;0.2597;4.4795;
561.6000;0.2646;4.4871;
561.9000;0.2637;4.4845;
562.2000;0.2654;4.4745;
562.5000;0.2621;4.4619;
562.8000;0.2556;4.4342;
563.1000;0.2613;4.4569;
563.4000;0.2654;4.4745;
563.7000;0.2686;4.4871;
564.0000;0.2637;4.4644;
564.3000;0.2637;4.4644;
564.6000;0.2654;4.4644;
564.9000;0.2621;4.4594;
565.2000;0.2646;4.4669;
565.5000;0.2613;4.4569;
565.8000;0.2621;4.4544;
566.1000;0.2646;4.4644;
566.4000;0.2629;4.4644;
566.7000;0.2637;4.4695;
567.0000;0.2637;4.4720;
567.3000;0.2597;4.4569;
567.6000;0.2605;4.4695;
567.9000;0.2613;4.4745;
568.2000;0.2678;4.4770;
568.5000;0.2662;4.4820;
568.8000;0.2556;4.4519;
569.1000;0.2727;4.5198;
569.4000;0.2621;4.4820;
569.7000;0.2589;4.4644;
570.0000;0.2621;4.4644;
570.3000;0.2580;4.4493;
570.6000;0.2662;4.4695;
570.9000;0.2646;4.4594;
571.2000;0.2646;4.4619;
571.5000;0.2637;4.4669;
571.8000;0.2548;4.4493;
572.1000;0.2654;4.4770;
572.4000;0.2646;4.4871;
572.7000;0.2702;4.5097;
573.0000;0.2572;4.4795;
573.3000;0.2654;4.4946;
573.6000;0.2605;4.4795;
573.9000;0.2589;4.4644;
574.2000;0.2621;4.4770;
574.5000;0.2646;4.4845;
574.8000;0.2629;4.4820;
575.1000;0.2662;4.4871;
575.4000;0.2613;4.4795;
575.7000;0.2637;4.4795;
576.0000;0.2654;4.4770;
576.3000;0.2646;4.4720;
576.6000;0.2621;4.4644;
576.9000;0.2621;4.4669;
577.2000;0.2629;4.4745;
577.5000;0.2532;4.4393;
577.8000;0.2654;4.4745;
578.1000;0.2654;4.4745;
578.4000;0.2621;4.4544;
578.7000;0.2629;4.4544;
579.0000;0.2621;4.4544;
579.3000;0.2605;4.4519;
579.6000;0.2678;4.4720;
579.9000;0.2629;4.4594;
580.2000;0.2654;4.4720;
580.5000;0.2646;4.4669;
580.8000;0.2727;4.4845;
581.1000;0.2629;4.4619;
581.4000;0.2629;4.4594;
581.7000;0.2621;4.4644;
582.0000;0.2637;4.4669;
582.3000;0.2629;4.4720;
582.6000;0.2629;4.4695;
582.9000;0.2629;4.4720;
583.2000;0.2629;4.4720;
583.5000;0.2662;4.4795;
583.8000;0.2637;4.4720;
584.1000;0.2702;4.4996;
584.4000;0.2613;4.4845;
584.7000;0.2654;4.4946;
585.0000;0.2646;4.4845;
585.3000;0.2646;4.4770;
585.6000;0.2629;4.4795;
585.9000;0.2621;4.4695;
586.2000;0.2637;4.4795;
586.5000;0.2621;4.4644;
586.8000;0.2621;4.4569;
587.1000;0.2637;4.4644;
587.4000;0.2621;4.4594;
587.7000;0.2613;4.4519;
588.0000;0.2637;4.4594;
588.3000;0.2637;4.4569;
588.6000;0.2629;4.4519;
588.9000;0.2621;4.4544;
589.2000;0.2654;4.4644;
589.5000;0.2654;4.4544;
589.8000;0.2621;4.4418;
590.1000;0.2597;4.4317;
590.4000;0.2629;4.4368;
590.7000;0.2654;4.4317;
591.0000;0.2621;4.4217;
591.3000;0.2613;4.4192;
591.6000;0.2654;4.4242;
591.9000;0.2629;4.4217;
592.2000;0.2621;4.4242;
592.5000;0.2637;4.4393;
592.8000;0.2637;4.4443;
593.1000;0.2621;4.4393;
593.4000;0.2621;4.4468;
593.7000;0.2621;4.4443;
594.0000;0.2605;4.4443;
594.3000;0.2702;4.4619;
594.6000;0.2629;4.4393;
594.9000;0.2654;4.4443;
595.2000;0.2637;4.4317;
595.5000;0.2637;4.4317;
595.8000;0.2621;4.4217;
596.1000;0.2613;4.4267;
596.4000;0.2613;4.4393;
596.7000;0.2646;4.4569;
597.0000;0.2646;4.4669;
597.3000;0.2629;4.4695;
597.6000;0.2621;4.4720;
597.9000;0.2597;4.4669;
598.2000;0.2621;4.4669;
598.5000;0.2629;4.4669;
598.8000;0.2646;4.4770;
599.1000;0.2507;4.4468;
599.4000;0.2637;4.4820;
599.7000;0.2637;4.4770;
600.0000;0.2580;4.4644;
600.3000;0.2621;4.4594;
600.6000;0.2637;4.4569;
600.9000;0.2605;4.4242;
601.2000;0.2605;4.4066;
601.5000;0.2580;4.3814;
601.8000;0.2589;4.3613;
602.1000;0.2540;4.3261;
602.4000;0.2572;4.3085;
602.7000;0.2532;4.2783;
603.0000;0.2540;4.2582;
603.3000;0.2540;4.2381;
603.6000;0.2507;4.2280;
603.9000;0.2515;4.2305;
604.2000;0.2507;4.2205;
604.5000;0.2523;4.2028;
604.8000;0.2507;4.1827;
605.1000;0.2491;4.1676;
605.4000;0.2483;4.1626;
605.7000;0.2507;4.1601;
606.0000;0.2450;4.1425;
606.3000;0.2491;4.1500;
606.6000;0.2409;4.1173;
606.9000;0.2458;4.1173;
607.2000;0.2458;4.1073;
607.5000;0.2499;4.1173;
607.8000;0.2483;4.1123;
608.1000;0.2483;4.1148;
608.4000;0.2458;4.0997;
608.7000;0.2483;4.0947;
609.0000;0.2466;4.0997;
609.3000;0.2466;4.0972;
609.6000;0.2442;4.0897;
609.9000;0.2458;4.0796;
610.2000;0.2458;4.0771;
610.5000;0.2466;4.0796;
610.8000;0.2466;4.0846;
611.1000;0.2418;4.0721;
611.4000;0.2450;4.0670;
611.7000;0.2450;4.0620;
612.0000;0.2605;4.0997;
612.3000;0.2475;4.0645;
612.6000;0.2491;4.0721;
612.9000;0.2418;4.0519;
613.2000;0.2442;4.0494;
613.5000;0.2426;4.0394;
613.8000;0.2434;4.0368;
614.1000;0.2475;4.0394;
614.4000;0.2483;4.0444;
614.7000;0.2442;4.0368;
615.0000;0.2458;4.0419;
615.3000;0.2458;4.0368;
615.6000;0.2442;4.0268;
615.9000;0.2426;4.0192;
616.2000;0.2458;4.0293;
616.5000;0.2499;4.0419;
616.8000;0.2434;4.0268;
617.1000;0.2458;4.0368;
617.4000;0.2450;4.0394;
617.7000;0.2450;4.0494;
618.0000;0.2385;4.0368;
618.3000;0.2442;4.0721;
618.6000;0.2458;4.0746;
618.9000;0.2418;4.0595;
619.2000;0.2540;4.0947;
619.5000;0.2450;4.0771;
619.8000;0.2450;4.0670;
620.1000;0.2499;4.0695;
620.4000;0.2466;4.0645;
620.7000;0.2418;4.0419;
621.0000;0.2442;4.0494;
621.3000;0.2418;4.0469;
621.6000;0.2434;4.0519;
621.9000;0.2442;4.0444;
622.2000;0.2426;4.0343;
622.5000;0.2475;4.0419;
622.8000;0.2434;4.0268;
623.1000;0.2369;4.0092;
623.4000;0.2418;4.0268;
623.7000;0.2401;4.0192;
624.0000;0.2499;4.0419;
624.3000;0.2434;4.0192;
624.6000;0.2369;4.0092;
624.9000;0.2434;4.0368;
625.2000;0.2442;4.0394;
625.5000;0.2442;4.0368;
625.8000;0.2352;4.0218;
626.1000;0.2442;4.0469;
626.4000;0.2328;4.0092;
626.7000;0.2450;4.0394;
627.0000;0.2361;4.0167;
627.3000;0.2442;4.0343;
627.6000;0.2532;4.0570;
627.9000;0.2458;4.0368;
628.2000;0.2442;4.0318;
628.5000;0.2475;4.0368;
628.8000;0.2442;4.0318;
629.1000;0.2556;4.0570;
629.4000;0.2434;4.0243;
629.7000;0.2418;4.0218;
630.0000;0.2344;4.0117;
630.3000;0.2442;4.0394;
630.6000;0.2295;4.0016;
630.9000;0.2434;4.0343;
631.2000;0.2418;4.0243;
631.5000;0.2458;4.0419;
631.8000;0.2361;4.0167;
632.1000;0.2385;4.0117;
632.4000;0.2548;4.0494;
632.7000;0.2442;4.0343;
633.0000;0.2548;4.0695;
633.3000;0.2426;4.0419;
633.6000;0.2385;4.0218;
633.9000;0.2434;4.0394;
634.2000;0.2442;4.0545;
634.5000;0.2458;4.0645;
634.8000;0.2499;4.0796;
635.1000;0.2320;4.0293;
635.4000;0.2450;4.0695;
635.7000;0.2442;4.0570;
636.0000;0.2466;4.0595;
636.3000;0.2466;4.0519;
636.6000;0.2458;4.0570;
636.9000;0.2458;4.0570;
637.2000;0.2458;4.0570;
637.5000;0.2418;4.0419;
637.8000;0.2458;4.0645;
638.1000;0.2458;4.0595;
638.4000;0.2532;4.0821;
638.7000;0.2434;4.0519;
639.0000;0.2434;4.0545;
639.3000;0.2450;4.0670;
639.6000;0.2442;4.0570;
639.9000;0.2434;4.0444;
640.2000;0.2442;4.0444;
640.5000;0.2442;4.0494;
640.8000;0.2450;4.0469;
641.1000;0.2499;4.0570;
641.4000;0.2352;4.0167;
641.7000;0.2434;4.0394;
642.0000;0.2458;4.0444;
642.3000;0.2572;4.0721;
642.6000;0.2418;4.0268;
642.9000;0.2442;4.0343;
643.2000;0.2491;4.0570;
643.5000;0.2434;4.0343;
643.8000;0.2450;4.0444;
644.1000;0.2434;4.0268;
644.4000;0.2442;4.0368;
644.7000;0.2450;4.0318;
645.0000;0.2426;4.0293;
645.3000;0.2418;4.0343;
645.6000;0.2409;4.0368;
645.9000;0.2466;4.0570;
646.2000;0.2466;4.0368;
646.5000;0.2483;4.0368;
646.8000;0.2450;4.0268;
647.1000;0.2426;4.0167;
647.4000;0.2450;4.0218;
647.7000;0.2418;4.0117;
648.0000;0.2434;4.0218;
648.3000;0.2434;4.0192;
648.6000;0.2450;4.0117;
648.9000;0.2442;4.0067;
649.2000;0.2418;4.0042;
649.5000;0.2409;4.0117;
649.8000;0.2320;3.9916;
650.1000;0.2434;4.0167;
650.4000;0.2426;4.0167;
650.7000;0.2475;4.0268;
651.0000;0.2483;4.0268;
651.3000;0.2426;4.0092;
651.6000;0.2418;3.9991;
651.9000;0.2475;4.0243;
652.2000;0.2409;4.0117;
652.5000;0.2442;4.0117;
652.8000;0.2483;4.0218;
653.1000;0.2458;4.0167;
653.4000;0.2442;4.0218;
653.7000;0.2426;4.0192;
654.0000;0.2409;4.0067;
654.3000;0.2523;4.0343;
654.6000;0.2442;4.0167;
654.9000;0.2491;4.0243;
655.2000;0.2426;4.0092;
655.5000;0.2434;4.0117;
655.8000;0.2466;4.0243;
656.1000;0.2450;4.0218;
656.4000;0.2458;4.0293;
656.7000;0.2442;4.0218;
657.0000;0.2507;4.0368;
657.3000;0.2442;4.0218;
657.6000;0.2320;3.9966;
657.9000;0.2442;4.0268;
658.2000;0.2475;4.0343;
658.5000;0.2418;4.0218;
658.8000;0.2393;4.0092;
659.1000;0.2483;4.0268;
659.4000;0.2409;4.0117;
659.7000;0.2442;4.0243;
660.0000;0.2450;4.0268;
660.3000;0.2458;4.0243;
660.6000;0.2450;4.0192;
660.9000;0.2466;4.0218;
661.2000;0.2409;4.0218;
661.5000;0.2442;4.0268;
661.8000;0.2458;4.0343;
662.1000;0.2401;4.0218;
662.4000;0.2442;4.0318;
662.7000;0.2458;4.0318;
663.0000;0.2279;3.9740;
663.3000;0.2442;4.0067;
663.6000;0.2466;4.0192;
663.9000;0.2426;4.0092;
664.2000;0.2483;4.0318;
664.5000;0.2442;4.0142;
664.8000;0.2434;4.0167;
665.1000;0.2279;3.9865;
665.4000;0.2523;4.0519;
665.7000;0.2458;4.0394;
666.0000;0.2458;4.0293;
666.3000;0.2499;4.0444;
666.6000;0.2442;4.0293;
666.9000;0.2458;4.0293;
667.2000;0.2458;4.0268;
667.5000;0.2523;4.0419;
667.8000;0.2450;4.0318;
668.1000;0.2450;4.0494;
668.4000;0.2442;4.0620;
668.7000;0.2458;4.0545;
669.0000;0.2434;4.0419;
669.3000;0.2434;4.0368;
669.6000;0.2458;4.0368;
669.9000;0.2434;4.0318;
670.2000;0.2475;4.0394;
670.5000;0.2418;4.0368;
670.8000;0.2450;4.0318;
671.1000;0.2458;4.0268;
671.4000;0.2450;4.0293;
671.7000;0.2426;4.0243;
672.0000;0.2418;4.0192;
672.3000;0.2466;4.0318;
672.6000;0.2458;4.0268;
672.9000;0.2434;4.0218;
673.2000;0.2442;4.0268;
673.5000;0.2434;4.0243;
673.8000;0.2450;4.0293;
674.1000;0.2418;4.0167;
674.4000;0.2434;4.0117;
674.7000;0.2450;4.0092;
675.0000;0.2385;4.0016;
675.3000;0.2458;4.0218;
675.6000;0.2491;4.0419;
675.9000;0.2442;4.0268;
676.2000;0.2418;4.0218;
676.5000;0.2377;4.0092;
676.8000;0.2401;4.0293;
677.1000;0.2450;4.0394;
677.4000;0.2336;4.0042;
677.7000;0.2466;4.0469;
678.0000;0.2499;4.0494;
678.3000;0.2434;4.0243;
678.6000;0.2426;4.0268;
678.9000;0.2458;4.0394;
679.2000;0.2450;4.0394;
679.5000;0.2475;4.0469;
679.8000;0.2442;4.0444;
680.1000;0.2442;4.0419;
680.4000;0.2458;4.0494;
680.7000;0.2434;4.0419;
681.0000;0.2491;4.0620;
681.3000;0.2466;4.0570;
681.6000;0.2458;4.0469;
681.9000;0.2450;4.0343;
682.2000;0.2466;4.0368;
682.5000;0.2426;4.0368;
682.8000;0.2450;4.0394;
683.1000;0.2499;4.0595;
683.4000;0.2409;4.0293;
683.7000;0.2450;4.0293;
684.0000;0.2434;4.0243;
684.3000;0.2393;4.0117;
684.6000;0.2458;4.0268;
684.9000;0.2450;4.0268;
685.2000;0.2475;4.0343;
685.5000;0.2401;4.0042;
685.8000;0.2418;4.0117;
686.1000;0.2426;4.0042;
686.4000;0.2442;4.0142;
686.7000;0.2466;4.0167;
687.0000;0.2401;4.0016;
687.3000;0.2442;4.0218;
687.6000;0.2434;4.0268;
687.9000;0.2434;4.0218;
688.2000;0.2458;4.0368;
688.5000;0.2434;4.0318;
688.8000;0.2458;4.0368;
689.1000;0.2491;4.0318;
689.4000;0.2418;4.0192;
689.7000;0.2434;4.0293;
690.0000;0.2450;4.0368;
690.3000;0.2434;4.0268;
690.6000;0.2418;4.0218;
690.9000;0.2442;4.0293;
691.2000;0.2458;4.0419;
691.5000;0.2442;4.0419;
691.8000;0.2442;4.0293;
692.1000;0.2450;4.0268;
692.4000;0.2450;4.0394;
692.7000;0.2450;4.0444;
693.0000;0.2434;4.0293;
693.3000;0.2401;4.0167;
693.6000;0.2418;4.0243;
693.9000;0.2450;4.0293;
694.2000;0.2458;4.0343;
694.5000;0.2458;4.0343;
694.8000;0.2458;4.0368;
695.1000;0.2426;4.0368;
695.4000;0.2450;4.0318;
695.7000;0.2450;4.0293;
696.0000;0.2434;4.0218;
696.3000;0.2466;4.0243;
696.6000;0.2418;4.0092;
696.9000;0.2442;4.0142;
697.2000;0.2426;4.0117;
697.5000;0.2442;4.0167;
697.8000;0.2450;4.0243;
698.1000;0.2450;4.0243;
698.4000;0.2442;4.0243;
698.7000;0.2475;4.0394;
699.0000;0.2442;4.0368;
699.3000;0.2393;4.0142;
699.6000;0.2515;4.0394;
699.9000;0.2434;4.0218;
700.2000;0.2532;4.0444;
700.5000;0.2475;4.0394;
700.8000;0.2442;4.0368;
701.1000;0.2393;4.0293;
701.4000;0.2377;4.0318;
701.7000;0.2418;4.0368;
702.0000;0.2450;4.0368;
702.3000;0.2475;4.0444;
702.6000;0.2409;4.0167;
702.9000;0.2466;4.0293;
703.2000;0.2523;4.0469;
703.5000;0.2450;4.0167;
703.8000;0.2442;4.0268;
704.1000;0.2466;4.0268;
704.4000;0.2450;4.0192;
704.7000;0.2532;4.0444;
705.0000;0.2515;4.0394;
705.3000;0.2442;4.0167;
705.6000;0.2466;4.0218;
705.9000;0.2434;4.0092;
706.2000;0.2475;4.0092;
706.5000;0.2418;3.9941;
706.8000;0.2434;4.0016;
707.1000;0.2540;4.0394;
707.4000;0.2418;4.0167;
707.7000;0.2466;4.0142;
708.0000;0.2466;4.0167;
708.3000;0.2401;3.9941;
708.6000;0.2426;3.9916;
708.9000;0.2442;4.0042;
709.2000;0.2442;4.0067;
709.5000;0.2442;4.0016;
709.8000;0.2442;4.0042;
710.1000;0.2475;4.0067;
710.4000;0.2361;3.9790;
710.7000;0.2515;4.0192;
711.0000;0.2361;3.9765;
711.3000;0.2442;4.0016;
711.6000;0.2442;3.9991;
711.9000;0.2507;4.0142;
712.2000;0.2466;4.0117;
712.5000;0.2442;4.0067;
712.8000;0.2458;4.0042;
713.1000;0.2442;3.9991;
713.4000;0.2458;4.0192;
713.7000;0.2450;4.0117;
714.0000;0.2466;4.0117;
714.3000;0.2442;3.9991;
714.6000;0.2434;3.9966;
714.9000;0.2442;4.0092;
715.2000;0.2426;4.0092;
715.5000;0.2499;4.0318;
715.8000;0.2458;4.0117;
716.1000;0.2458;4.0067;
716.4000;0.2450;4.0067;
716.7000;0.2434;3.9991;
717.0000;0.2491;4.0243;
717.3000;0.2475;4.0192;
717.6000;0.2450;4.0142;
717.9000;0.2401;4.0092;
718.2000;0.2442;4.0192;
718.5000;0.2361;3.9991;
718.8000;0.2442;4.0042;
719.1000;0.2434;4.0042;
719.4000;0.2409;3.9891;
719.7000;0.2450;4.0016;
720.0000;0.2450;4.0042;
720.3000;0.2409;3.9966;
720.6000;0.2336;3.9715;
720.9000;0.2523;4.0167;
721.2000;0.2426;3.9865;
721.5000;0.2442;3.9891;
721.8000;0.2377;3.9865;
722.1000;0.2499;4.0142;
722.4000;0.2458;4.0117;
722.7000;0.2393;3.9991;
723.0000;0.2458;4.0142;
723.3000;0.2450;4.0092;
723.6000;0.2466;4.0117;
723.9000;0.2336;3.9840;
724.2000;0.2515;4.0318;
724.5000;0.2377;3.9966;
724.8000;0.2434;4.0092;
725.1000;0.2401;3.9991;
725.4000;0.2385;3.9916;
725.7000;0.2385;4.0016;
726.0000;0.2393;4.0067;
726.3000;0.2434;4.0117;
726.6000;0.2507;4.0268;
726.9000;0.2580;4.0519;
727.2000;0.2442;4.0192;
727.5000;0.2426;4.0042;
727.8000;0.2434;3.9991;
728.1000;0.2450;4.0067;
728.4000;0.2483;4.0067;
728.7000;0.2442;3.9891;
729.0000;0.2548;4.0192;
729.3000;0.2450;3.9891;
729.6000;0.2450;3.9916;
729.9000;0.2434;3.9865;
730.2000;0.2466;3.9941;
730.5000;0.2475;3.9966;
730.8000;0.2385;3.9639;
731.1000;0.2466;3.9865;
731.4000;0.2458;3.9715;
731.7000;0.2458;3.9765;
732.0000;0.2499;3.9941;
732.3000;0.2426;3.9765;
732.6000;0.2466;3.9966;
732.9000;0.2450;3.9941;
733.2000;0.2344;3.9765;
733.5000;0.2475;4.0218;
733.8000;0.2450;4.0192;
734.1000;0.2442;4.0192;
734.4000;0.2458;4.0293;
734.7000;0.2434;4.0268;
735.0000;0.2426;4.0318;
735.3000;0.2515;4.0545;
735.6000;0.2458;4.0268;
735.9000;0.2523;4.0343;
736.2000;0.2450;4.0142;
736.5000;0.2466;4.0192;
736.8000;0.2450;4.0192;
737.1000;0.2426;4.0167;
737.4000;0.2450;4.0293;
737.7000;0.2442;4.0293;
738.0000;0.2409;4.0142;
738.3000;0.2466;4.0293;
738.6000;0.2409;4.0117;
738.9000;0.2450;4.0243;
739.2000;0.2442;4.0243;
739.5000;0.2418;4.0243;
739.8000;0.2466;4.0218;
740.1000;0.2442;4.0067;
740.4000;0.2450;4.0092;
740.7000;0.2466;4.0167;
741.0000;0.2442;4.0218;
741.3000;0.2458;4.0318;
741.6000;0.2393;4.0192;
741.9000;0.2458;4.0394;
742.2000;0.2458;4.0394;
742.5000;0.2499;4.0444;
742.8000;0.2483;4.0343;
743.1000;0.2442;4.0218;
743.4000;0.2385;4.0067;
743.7000;0.2523;4.0469;
744.0000;0.2458;4.0293;
744.3000;0.2434;4.0243;
744.6000;0.2515;4.0519;
744.9000;0.2483;4.0394;
745.2000;0.2458;4.0318;
745.5000;0.2458;4.0167;
745.8000;0.2369;3.9991;
746.1000;0.2491;4.0268;
746.4000;0.2450;4.0142;
746.7000;0.2336;3.9790;
747.0000;0.2418;3.9966;
747.3000;0.2434;4.0067;
747.6000;0.2466;4.0142;
747.9000;0.2458;4.0142;
748.2000;0.2434;4.0016;
748.5000;0.2450;4.0142;
748.8000;0.2401;4.0092;
749.1000;0.2507;4.0494;
749.4000;0.2450;4.0343;
749.7000;0.2434;4.0192;
750.0000;0.2328;3.9790;
750.3000;0.2491;4.0293;
750.6000;0.2385;4.0117;
750.9000;0.2434;4.0092;
751.2000;0.2385;3.9916;
751.5000;0.2556;4.0469;
751.8000;0.2475;4.0268;
752.1000;0.2458;4.0243;
752.4000;0.2434;4.0117;
752.7000;0.2434;4.0092;
753.0000;0.2458;4.0117;
753.3000;0.2434;3.9966;
753.6000;0.2442;4.0092;
753.9000;0.2434;4.0167;
754.2000;0.2434;4.0092;
754.5000;0.2401;4.0117;
754.8000;0.2475;4.0218;
755.1000;0.2483;4.0318;
755.4000;0.2458;4.0343;
755.7000;0.2458;4.0268;
756.0000;0.2458;4.0293;
756.3000;0.2523;4.0444;
756.6000;0.2450;4.0192;
756.9000;0.2483;4.0218;
757.2000;0.2377;4.0117;
757.5000;0.2523;4.0494;
757.8000;0.2434;4.0192;
758.1000;0.2401;4.0218;
758.4000;0.2434;4.0368;
758.7000;0.2458;4.0419;
759.0000;0.2434;4.0394;
759.3000;0.2369;4.0268;
759.6000;0.2426;4.0394;
759.9000;0.2458;4.0419;
760.2000;0.2434;4.0368;
760.5000;0.2418;4.0394;
760.8000;0.2475;4.0444;
761.1000;0.2442;4.0419;
761.4000;0.2450;4.0394;
761.7000;0.2442;4.0343;
762.0000;0.2426;4.0368;
762.3000;0.2442;4.0419;
762.6000;0.2458;4.0444;
762.9000;0.2491;4.0469;
763.2000;0.2418;4.0293;
763.5000;0.2434;4.0318;
763.8000;0.2442;4.0243;
764.1000;0.2442;4.0218;
764.4000;0.2442;4.0318;
764.7000;0.2458;4.0268;
765.0000;0.2442;4.0218;
765.3000;0.2442;4.0293;
765.6000;0.2401;4.0117;
765.9000;0.2434;4.0142;
766.2000;0.2434;4.0142;
766.5000;0.2352;3.9941;
766.8000;0.2426;4.0092;
767.1000;0.2450;4.0192;
767.4000;0.2450;4.0167;
767.7000;0.2515;4.0419;
768.0000;0.2466;4.0293;
768.3000;0.2466;4.0268;
768.6000;0.2434;4.0268;
768.9000;0.2442;4.0293;
769.2000;0.2450;4.0343;
769.5000;0.2442;4.0293;
769.8000;0.2442;4.0268;
770.1000;0.2450;4.0268;
770.4000;0.2442;4.0243;
770.7000;0.2401;4.0218;
771.0000;0.2491;4.0469;
771.3000;0.2434;4.0243;
771.6000;0.2401;4.0218;
771.9000;0.2418;4.0167;
772.2000;0.2312;4.0016;
772.5000;0.2466;4.0394;
772.8000;0.2458;4.0394;
773.1000;0.2483;4.0444;
773.4000;0.2418;4.0243;
773.7000;0.2344;4.0016;
774.0000;0.2320;3.9865;
774.3000;0.2532;4.0519;
774.6000;0.2450;4.0268;
774.9000;0.2450;4.0293;
775.2000;0.2483;4.0419;
775.5000;0.2450;4.0293;
775.8000;0.2507;4.0419;
776.1000;0.2442;4.0293;
776.4000;0.2572;4.0695;
776.7000;0.2458;4.0293;
777.0000;0.2450;4.0318;
777.3000;0.2418;4.0142;
777.6000;0.2499;4.0368;
777.9000;0.2466;4.0192;
778.2000;0.2483;4.0218;
778.5000;0.2385;4.0016;
778.8000;0.2442;4.0167;
779.1000;0.2426;4.0067;
779.4000;0.2458;4.0016;
779.7000;0.2418;3.9891;
780.0000;0.2466;4.0016;
780.3000;0.2426;4.0016;
780.6000;0.2442;4.0042;
780.9000;0.2442;3.9941;
781.2000;0.2458;3.9966;
781.5000;0.2450;4.0016;
781.8000;0.2458;4.0067;
782.1000;0.2426;4.0042;
782.4000;0.2523;4.0318;
782.7000;0.2466;4.0092;
783.0000;0.2442;3.9966;
783.3000;0.2385;3.9815;
783.6000;0.2458;4.0092;
783.9000;0.2466;4.0268;
784.2000;0.2450;4.0167;
784.5000;0.2475;4.0218;
784.8000;0.2450;4.0092;
785.1000;0.2409;3.9991;
785.4000;0.2450;4.0167;
785.7000;0.2466;4.0142;
786.0000;0.2442;4.0042;
786.3000;0.2442;4.0092;
786.6000;0.2450;4.0067;
786.9000;0.2458;4.0117;
787.2000;0.2458;4.0192;
787.5000;0.2442;4.0092;
787.8000;0.2442;4.0117;
788.1000;0.2532;4.0343;
788.4000;0.2475;4.0318;
788.7000;0.2418;4.0167;
789.0000;0.2450;4.0142;
789.3000;0.2442;4.0092;
789.6000;0.2434;4.0092;
789.9000;0.2450;4.0167;
790.2000;0.2466;4.0117;
790.5000;0.2450;4.0142;
790.8000;0.2434;4.0042;
791.1000;0.2458;4.0167;
791.4000;0.2450;4.0218;
791.7000;0.2450;4.0218;
792.0000;0.2466;4.0268;
792.3000;0.2450;4.0293;
792.6000;0.2434;4.0218;
792.9000;0.2458;4.0343;
793.2000;0.2442;4.0293;
793.5000;0.2458;4.0419;
793.8000;0.2418;4.0243;
794.1000;0.2434;4.0268;
794.4000;0.2483;4.0318;
794.7000;0.2369;4.0016;
795.0000;0.2450;4.0243;
795.3000;0.2426;4.0142;
795.6000;0.2491;4.0318;
795.9000;0.2434;4.0142;
796.2000;0.2336;3.9865;
796.5000;0.2442;4.0243;
796.8000;0.2458;4.0293;
797.1000;0.2426;4.0218;
797.4000;0.2523;4.0570;
797.7000;0.2409;4.0293;
798.0000;0.2605;4.0821;
798.3000;0.2393;4.0243;
798.6000;0.2515;4.0545;
798.9000;0.2483;4.0419;
799.2000;0.2450;4.0268;
799.5000;0.2466;4.0318;
799.8000;0.2361;4.0016;
800.1000;0.2466;4.0444;
800.4000;0.2458;4.0469;
800.7000;0.2475;4.0570;
801.0000;0.2450;4.0419;
801.3000;0.2491;4.0494;
801.6000;0.2320;4.0042;
801.9000;0.2458;4.0368;
802.2000;0.2434;4.0293;
802.5000;0.2385;4.0192;
802.8000;0.2450;4.0444;
803.1000;0.2499;4.0444;
803.4000;0.2458;4.0243;
803.7000;0.2450;4.0243;
804.0000;0.2458;4.0218;
804.3000;0.2450;4.0167;
804.6000;0.2450;4.0117;
804.9000;0.2442;4.0067;
805.2000;0.2458;4.0192;
805.5000;0.2426;4.0117;
805.8000;0.2458;4.0192;
806.1000;0.2442;4.0092;
806.4000;0.2442;4.0092;
806.7000;0.2450;4.0092;
807.0000;0.2466;4.0218;
807.3000;0.2361;3.9991;
807.6000;0.2426;4.0092;
807.9000;0.2450;4.0117;
808.2000;0.2466;4.0142;
808.5000;0.2442;4.0042;
808.8000;0.2418;3.9991;
809.1000;0.2491;4.0268;
809.4000;0.2450;4.0218;
809.7000;0.2442;4.0117;
810.0000;0.2418;4.0016;
810.3000;0.2450;4.0067;
810.6000;0.2426;3.9966;
810.9000;0.2450;4.0167;
811.2000;0.2458;4.0167;
811.5000;0.2499;4.0243;
811.8000;0.2466;4.0117;
812.1000;0.2426;4.0042;
812.4000;0.2475;4.0167;
812.7000;0.2458;4.0142;
813.0000;0.2466;4.0192;
813.3000;0.2458;4.0218;
813.6000;0.2466;4.0092;
813.9000;0.2450;4.0042;
814.2000;0.2450;4.0167;
814.5000;0.2458;4.0167;
814.8000;0.2442;4.0142;
815.1000;0.2418;4.0016;
815.4000;0.2532;4.0394;
815.7000;0.2450;4.0243;
816.0000;0.2434;4.0192;
816.3000;0.2450;4.0192;
816.6000;0.2418;4.0067;
816.9000;0.2458;4.0293;
817.2000;0.2458;4.0318;
817.5000;0.2466;4.0268;
817.8000;0.2450;4.0268;
818.1000;0.2556;4.0595;
818.4000;0.2475;4.0293;
818.7000;0.2450;4.0142;
819.0000;0.2450;4.0167;
819.3000;0.2458;4.0142;
819.6000;0.2418;4.0042;
819.9000;0.2450;4.0192;
820.2000;0.2434;4.0067;
820.5000;0.2434;3.9916;
820.8000;0.2466;4.0117;
821.1000;0.2450;4.0192;
821.4000;0.2458;4.0268;
821.7000;0.2475;4.0318;
822.0000;0.2450;4.0268;
822.3000;0.2442;4.0293;
822.6000;0.2442;4.0243;
822.9000;0.2458;4.0293;
823.2000;0.2409;4.0117;
823.5000;0.2434;4.0117;
823.8000;0.2450;4.0117;
824.1000;0.2458;4.0243;
824.4000;0.2491;4.0268;
824.7000;0.2442;4.0293;
825.0000;0.2442;4.0218;
825.3000;0.2418;4.0042;
825.6000;0.2450;4.0092;
825.9000;0.2458;4.0142;
826.2000;0.2507;4.0293;
826.5000;0.2450;4.0218;
826.8000;0.2450;4.0192;
827.1000;0.2548;4.0469;
827.4000;0.2466;4.0167;
827.7000;0.2450;4.0092;
828.0000;0.2418;3.9966;
828.3000;0.2426;4.0042;
828.6000;0.2450;4.0042;
828.9000;0.2442;4.0142;
829.2000;0.2499;4.0243;
829.5000;0.2491;4.0268;
829.8000;0.2450;4.0092;
830.1000;0.2426;3.9916;
830.4000;0.2434;3.9941;
830.7000;0.2450;4.0067;
831.0000;0.2426;4.0042;
831.3000;0.2466;4.0016;
831.6000;0.2442;3.9991;
831.9000;0.2434;3.9966;
832.2000;0.2450;3.9991;
832.5000;0.2450;4.0092;
832.8000;0.2442;4.0092;
833.1000;0.2475;4.0167;
833.4000;0.2442;4.0192;
833.7000;0.2491;4.0368;
834.0000;0.2450;4.0192;
834.3000;0.2450;4.0142;
834.6000;0.2409;3.9991;
834.9000;0.2458;4.0117;
835.2000;0.2466;4.0192;
835.5000;0.2409;4.0067;
835.8000;0.2442;4.0092;
836.1000;0.2483;4.0167;
836.4000;0.2507;4.0343;
836.7000;0.2442;4.0167;
837.0000;0.2377;4.0042;
837.3000;0.2458;4.0318;
837.6000;0.2409;4.0167;
837.9000;0.2458;4.0268;
838.2000;0.2434;4.0318;
838.5000;0.2458;4.0494;
838.8000;0.2442;4.0469;
839.1000;0.2450;4.0444;
839.4000;0.2507;4.0570;
839.7000;0.2466;4.0243;
840.0000;0.2458;4.0218;
840.3000;0.2426;4.0218;
840.6000;0.2442;4.0218;
840.9000;0.2442;4.0218;
841.2000;0.2401;4.0067;
841.5000;0.2523;4.0469;
841.8000;0.2466;4.0368;
842.1000;0.2434;4.0268;
842.4000;0.2442;4.0192;
842.7000;0.2458;4.0268;
843.0000;0.2434;4.0192;
843.3000;0.2426;4.0142;
843.6000;0.2507;4.0318;
843.9000;0.2466;4.0218;
844.2000;0.2385;4.0016;
844.5000;0.2418;4.0117;
844.8000;0.2442;4.0092;
845.1000;0.2466;4.0117;
845.4000;0.2564;4.0419;
845.7000;0.2475;4.0092;
846.0000;0.2458;4.0167;
846.3000;0.2466;4.0092;
846.6000;0.2483;4.0016;
846.9000;0.2475;4.0016;
847.2000;0.2458;4.0092;
847.5000;0.2450;3.9941;
847.8000;0.2466;4.0067;
848.1000;0.2418;3.9941;
848.4000;0.2523;4.0117;
848.7000;0.2466;3.9865;
849.0000;0.2475;4.0016;
849.3000;0.2483;4.0042;
849.6000;0.2458;4.0042;
849.9000;0.2450;4.0042;
850.2000;0.2393;3.9815;
850.5000;0.2409;3.9941;
850.8000;0.2450;3.9916;
851.1000;0.2418;3.9765;
851.4000;0.2466;3.9916;
851.7000;0.2450;3.9941;
852.0000;0.2466;3.9991;
852.3000;0.2344;3.9639;
852.6000;0.2450;3.9966;
852.9000;0.2434;3.9991;
853.2000;0.2426;4.0042;
853.5000;0.2450;4.0042;
853.8000;0.2434;3.9941;
854.1000;0.2466;4.0092;
854.4000;0.2442;4.0117;
854.7000;0.2450;4.0067;
855.0000;0.2475;4.0167;
855.3000;0.2434;4.0042;
855.6000;0.2434;4.0016;
855.9000;0.2458;4.0117;
856.2000;0.2532;4.0368;
856.5000;0.2466;4.0142;
856.8000;0.2442;4.0142;
857.1000;0.2475;4.0293;
857.4000;0.2450;4.0218;
857.7000;0.2450;4.0243;
858.0000;0.2458;4.0293;
858.3000;0.2450;4.0243;
858.6000;0.2434;4.0142;
858.9000;0.2450;4.0092;
859.2000;0.2442;4.0092;
859.5000;0.2458;4.0243;
859.8000;0.2491;4.0318;
860.1000;0.2507;4.0218;
860.4000;0.2491;4.0243;
860.7000;0.2450;4.0117;
861.0000;0.2426;4.0042;
861.3000;0.2458;4.0067;
861.6000;0.2572;4.0444;
861.9000;0.2450;4.0192;
862.2000;0.2442;4.0142;
862.5000;0.2450;4.0167;
862.8000;0.2475;4.0167;
863.1000;0.2320;3.9790;
863.4000;0.2312;3.9815;
863.7000;0.2499;4.0343;
864.0000;0.2393;3.9991;
864.3000;0.2450;4.0117;
864.6000;0.2418;4.0142;
864.9000;0.2458;4.0293;
865.2000;0.2418;4.0167;
865.5000;0.2483;4.0368;
865.8000;0.2434;4.0243;
866.1000;0.2483;4.0394;
866.4000;0.2450;4.0293;
866.7000;0.2458;4.0343;
867.0000;0.2556;4.0670;
867.3000;0.2483;4.0595;
867.6000;0.2491;4.0444;
867.9000;0.2458;4.0368;
868.2000;0.2589;4.0645;
868.5000;0.2418;4.0142;
868.8000;0.2450;4.0268;
869.1000;0.2442;4.0318;
869.4000;0.2475;4.0444;
869.7000;0.2426;4.0343;
870.0000;0.2409;4.0268;
870.3000;0.2450;4.0419;
870.6000;0.2434;4.0444;
870.9000;0.2426;4.0343;
871.2000;0.2475;4.0318;
871.5000;0.2442;4.0318;
871.8000;0.2442;4.0343;
872.1000;0.2450;4.0394;
872.4000;0.2548;4.0746;
872.7000;0.2458;4.0444;
873.0000;0.2540;4.0721;
873.3000;0.2540;4.0721;
873.6000;0.2442;4.0419;
873.9000;0.2450;4.0343;
874.2000;0.2393;4.0167;
874.5000;0.2523;4.0494;
874.8000;0.2466;4.0268;
875.1000;0.2491;4.0343;
875.4000;0.2450;4.0268;
875.7000;0.2442;4.0318;
876.0000;0.2483;4.0469;
876.3000;0.2409;4.0318;
876.6000;0.2475;4.0394;
876.9000;0.2450;4.0368;
877.2000;0.2434;4.0343;
877.5000;0.2450;4.0318;
877.8000;0.2442;4.0268;
878.1000;0.2434;4.0243;
878.4000;0.2499;4.0444;
878.7000;0.2450;4.0268;
879.0000;0.2409;4.0218;
879.3000;0.2442;4.0368;
879.6000;0.2418;4.0318;
879.9000;0.2442;4.0343;
880.2000;0.2450;4.0394;
880.5000;0.2475;4.0494;
880.8000;0.2450;4.0494;
881.1000;0.2458;4.0394;
881.4000;0.2426;4.0243;
881.7000;0.2491;4.0343;
882.0000;0.2466;4.0343;
882.3000;0.2450;4.0243;
882.6000;0.2466;4.0368;
882.9000;0.2475;4.0343;
883.2000;0.2458;4.0318;
883.5000;0.2475;4.0419;
883.8000;0.2483;4.0469;
884.1000;0.2466;4.0394;
884.4000;0.2466;4.0368;
884.7000;0.2442;4.0343;
885.0000;0.2426;4.0368;
885.3000;0.2466;4.0494;
885.6000;0.2450;4.0343;
885.9000;0.2532;4.0595;
886.2000;0.2450;4.0394;
886.5000;0.2442;4.0343;
886.8000;0.2458;4.0394;
887.1000;0.2442;4.0394;
887.4000;0.2458;4.0394;
887.7000;0.2418;4.0394;
888.0000;0.2466;4.0469;
888.3000;0.2385;4.0394;
888.6000;0.2532;4.0721;
888.9000;0.2434;4.0293;
889.2000;0.2393;4.0117;
889.5000;0.2426;4.0243;
889.8000;0.2442;4.0343;
890.1000;0.2475;4.0394;
890.4000;0.2507;4.0444;
890.7000;0.2515;4.0343;
891.0000;0.2434;4.0142;
891.3000;0.2369;3.9941;
891.6000;0.2515;4.0419;
891.9000;0.2483;4.0318;
892.2000;0.2409;4.0117;
892.5000;0.2393;3.9966;
892.8000;0.2418;4.0067;
893.1000;0.2426;4.0016;
893.4000;0.2409;3.9891;
893.7000;0.2466;3.9916;
894.0000;0.2442;3.9941;
894.3000;0.2393;3.9941;
894.6000;0.2491;4.0218;
894.9000;0.2458;4.0092;
895.2000;0.2499;4.0117;
895.5000;0.2458;4.0016;
895.8000;0.2385;3.9840;
896.1000;0.2458;4.0192;
896.4000;0.2434;4.0167;
896.7000;0.2450;4.0167;
897.0000;0.2450;4.0243;
897.3000;0.2304;3.9916;
897.6000;0.2434;4.0318;
897.9000;0.2450;4.0293;
898.2000;0.2483;4.0293;
898.5000;0.2450;4.0218;
898.8000;0.2377;3.9966;
899.1000;0.2442;4.0167;
899.4000;0.2499;4.0368;
899.7000;0.2450;4.0167;
900.0000;0.2458;4.0243;
900.3000;0.2458;4.0167;
900.6000;0.2434;4.0243;
900.9000;0.2466;4.0318;
901.2000;0.2466;4.0268;
901.5000;0.2442;4.0192;
901.8000;0.2442;4.0268;
902.1000;0.2483;4.0318;
902.4000;0.2475;4.0218;
902.7000;0.2450;4.0067;
903.0000;0.2450;3.9991;
903.3000;0.2458;4.0067;
903.6000;0.2483;4.0167;
903.9000;0.2450;4.0142;
904.2000;0.2458;4.0218;
904.5000;0.2475;4.0218;
904.8000;0.2466;4.0117;
905.1000;0.2434;4.0042;
905.4000;0.2491;4.0192;
905.7000;0.2466;4.0167;
906.0000;0.2442;4.0092;
906.3000;0.2458;4.0117;
906.6000;0.2418;4.0067;
906.9000;0.2442;4.0092;
907.2000;0.2458;4.0243;
907.5000;0.2475;4.0293;
907.8000;0.2450;4.0167;
908.1000;0.2409;4.0042;
908.4000;0.2442;4.0192;
908.7000;0.2442;4.0293;
909.0000;0.2434;4.0293;
909.3000;0.2458;4.0343;
909.6000;0.2483;4.0368;
909.9000;0.2523;4.0545;
910.2000;0.2540;4.0545;
910.5000;0.2458;4.0293;
910.8000;0.2409;4.0067;
911.1000;0.2466;4.0243;
911.4000;0.2426;4.0243;
911.7000;0.2458;4.0268;
912.0000;0.2548;4.0368;
912.3000;0.2401;4.0092;
912.6000;0.2466;4.0218;
912.9000;0.2466;4.0142;
913.2000;0.2450;4.0067;
913.5000;0.2466;4.0042;
913.8000;0.2458;4.0016;
914.1000;0.2475;4.0092;
914.4000;0.2466;4.0117;
914.7000;0.2434;4.0142;
915.0000;0.2450;4.0268;
915.3000;0.2385;4.0067;
915.6000;0.2442;4.0117;
915.9000;0.2475;4.0243;
916.2000;0.2442;4.0067;
916.5000;0.2458;4.0092;
916.8000;0.2442;4.0142;
917.1000;0.2466;4.0167;
917.4000;0.2466;4.0167;
917.7000;0.2466;4.0167;
918.0000;0.2434;4.0092;
918.3000;0.2450;4.0192;
918.6000;0.2434;4.0192;
918.9000;0.2458;4.0243;
919.2000;0.2442;4.0167;
919.5000;0.2426;4.0142;
919.8000;0.2458;4.0243;
920.1000;0.2458;4.0318;
920.4000;0.2499;4.0494;
920.7000;0.2442;4.0343;
921.0000;0.2442;4.0343;
921.3000;0.2466;4.0243;
921.6000;0.2483;4.0268;
921.9000;0.2393;3.9966;
922.2000;0.2434;4.0167;
922.5000;0.2475;4.0318;
922.8000;0.2450;4.0192;
923.1000;0.2450;4.0218;
923.4000;0.2442;4.0243;
923.7000;0.2450;4.0243;
924.0000;0.2442;4.0268;
924.3000;0.2426;4.0192;
924.6000;0.2418;4.0167;
924.9000;0.2434;4.0218;
925.2000;0.2475;4.0218;
925.5000;0.2434;4.0117;
925.8000;0.2458;4.0167;
926.1000;0.2442;4.0092;
926.4000;0.2361;3.9865;
926.7000;0.2466;4.0218;
927.0000;0.2475;4.0218;
927.3000;0.2442;4.0218;
927.6000;0.2491;4.0218;
927.9000;0.2458;4.0092;
928.2000;0.2426;4.0016;
928.5000;0.2393;3.9865;
928.8000;0.2442;4.0067;
929.1000;0.2458;4.0067;
929.4000;0.2450;4.0042;
929.7000;0.2442;4.0092;
930.0000;0.2426;4.0092;
930.3000;0.2450;4.0142;
930.6000;0.2442;4.0067;
930.9000;0.2385;3.9916;
931.2000;0.2466;4.0167;
931.5000;0.2540;4.0343;
931.8000;0.2450;4.0142;
932.1000;0.2442;4.0042;
932.4000;0.2458;4.0042;
932.7000;0.2466;4.0042;
933.0000;0.2369;3.9815;
933.3000;0.2458;3.9966;
933.6000;0.2426;3.9865;
933.9000;0.2483;4.0042;
934.2000;0.2466;4.0092;
934.5000;0.2434;4.0042;
934.8000;0.2458;4.0092;
935.1000;0.2450;4.0067;
935.4000;0.2458;3.9991;
935.7000;0.2450;3.9891;
936.0000;0.2450;3.9891;
936.3000;0.2580;4.0368;
936.6000;0.2442;3.9865;
936.9000;0.2450;3.9941;
937.2000;0.2434;3.9966;
937.5000;0.2442;4.0067;
937.8000;0.2450;4.0016;
938.1000;0.2385;3.9815;
938.4000;0.2450;4.0092;
938.7000;0.2442;4.0142;
939.0000;0.2426;4.0092;
939.3000;0.2483;4.0293;
939.6000;0.2450;4.0167;
939.9000;0.2450;4.0218;
940.2000;0.2426;4.0167;
940.5000;0.2466;4.0293;
940.8000;0.2426;4.0293;
941.1000;0.2434;4.0243;
941.4000;0.2475;4.0243;
941.7000;0.2466;4.0293;
942.0000;0.2458;4.0394;
942.3000;0.2442;4.0318;
942.6000;0.2450;4.0368;
942.9000;0.2434;4.0368;
943.2000;0.2418;4.0343;
943.5000;0.2426;4.0419;
943.8000;0.2450;4.0519;
944.1000;0.2434;4.0469;
944.4000;0.2385;4.0192;
944.7000;0.2458;4.0519;
945.0000;0.2450;4.0394;
945.3000;0.2458;4.0419;
945.6000;0.2458;4.0419;
945.9000;0.2450;4.0368;
946.2000;0.2458;4.0268;
946.5000;0.2466;4.0268;
946.8000;0.2442;4.0142;
947.1000;0.2450;4.0117;
947.4000;0.2540;4.0268;
947.7000;0.2442;4.0067;
948.0000;0.2450;4.0067;
948.3000;0.2450;4.0117;
948.6000;0.2458;4.0142;
948.9000;0.2458;4.0167;
949.2000;0.2344;3.9840;
949.5000;0.2458;4.0142;
949.8000;0.2466;4.0218;
950.1000;0.2450;4.0218;
950.4000;0.2466;4.0218;
950.7000;0.2458;4.0243;
951.0000;0.2450;4.0243;
951.3000;0.2475;4.0268;
951.6000;0.2466;4.0318;
951.9000;0.2450;4.0293;
952.2000;0.2442;4.0318;
952.5000;0.2442;4.0368;
952.8000;0.2442;4.0368;
953.1000;0.2442;4.0368;
953.4000;0.2540;4.0595;
953.7000;0.2442;4.0167;
954.0000;0.2458;4.0167;
954.3000;0.2458;4.0192;
954.6000;0.2450;4.0167;
954.9000;0.2532;4.0318;
955.2000;0.2458;4.0067;
955.5000;0.2466;3.9991;
955.8000;0.2458;4.0016;
956.1000;0.2458;3.9991;
956.4000;0.2426;4.0016;
956.7000;0.2418;4.0016;
957.0000;0.2418;4.0067;
957.3000;0.2442;4.0167;
957.6000;0.2458;4.0243;
957.9000;0.2466;4.0268;
958.2000;0.2475;4.0293;
958.5000;0.2442;4.0243;
958.8000;0.2442;4.0192;
959.1000;0.2450;4.0117;
959.4000;0.2434;4.0042;
959.7000;0.2475;4.0117;
960.0000;0.2393;3.9840;
960.3000;0.2466;4.0042;
960.6000;0.2328;3.9740;
960.9000;0.2401;3.9991;
961.2000;0.2450;4.0192;
961.5000;0.2426;4.0117;
961.8000;0.2450;4.0243;
962.1000;0.2458;4.0293;
962.4000;0.2475;4.0343;
962.7000;0.2450;4.0318;
963.0000;0.2491;4.0494;
963.3000;0.2458;4.0394;
963.6000;0.2442;4.0293;
963.9000;0.2442;4.0368;
964.2000;0.2401;4.0293;
964.5000;0.2442;4.0444;
964.8000;0.2450;4.0368;
965.1000;0.2450;4.0343;
965.4000;0.2475;4.0419;
965.7000;0.2450;4.0243;
966.0000;0.2442;4.0167;
966.3000;0.2393;4.0067;
966.6000;0.2442;4.0192;
966.9000;0.2475;4.0419;
967.2000;0.2466;4.0419;
967.5000;0.2418;4.0268;
967.8000;0.2466;4.0419;
968.1000;0.2458;4.0444;
968.4000;0.2369;4.0167;
968.7000;0.2466;4.0343;
969.0000;0.2466;4.0368;
969.3000;0.2385;4.0067;
969.6000;0.2458;4.0167;
969.9000;0.2426;4.0218;
970.2000;0.2458;4.0192;
970.5000;0.2458;4.0268;
970.8000;0.2458;4.0268;
971.1000;0.2466;4.0192;
971.4000;0.2450;4.0192;
971.7000;0.2475;4.0243;
972.0000;0.2483;4.0419;
972.3000;0.2475;4.0343;
972.6000;0.2442;4.0268;
972.9000;0.2458;4.0394;
973.2000;0.2450;4.0293;
973.5000;0.2442;4.0268;
973.8000;0.2450;4.0343;
974.1000;0.2409;4.0218;
974.4000;0.2385;4.0092;
974.7000;0.2442;4.0368;
975.0000;0.2466;4.0494;
975.3000;0.2393;4.0293;
975.6000;0.2450;4.0343;
975.9000;0.2458;4.0293;
976.2000;0.2466;4.0343;
976.5000;0.2458;4.0268;
976.8000;0.2442;4.0268;
977.1000;0.2458;4.0192;
977.4000;0.2466;4.0142;
977.7000;0.2450;4.0268;
978.0000;0.2499;4.0318;
978.3000;0.2409;4.0142;
978.6000;0.2458;4.0293;
978.9000;0.2442;4.0192;
979.2000;0.2418;4.0067;
979.5000;0.2458;4.0167;
979.8000;0.2450;4.0218;
980.1000;0.2418;4.0192;
980.4000;0.2458;4.0167;
980.7000;0.2450;4.0092;
981.0000;0.2304;3.9815;
981.3000;0.2507;4.0343;
981.6000;0.2377;3.9891;
981.9000;0.2466;4.0042;
982.2000;0.2409;3.9891;
982.5000;0.2532;4.0167;
982.8000;0.2442;3.9865;
983.1000;0.2466;3.9840;
983.4000;0.2442;3.9790;
983.7000;0.2377;3.9689;
984.0000;0.2344;3.9513;
984.3000;0.2507;3.9991;
984.6000;0.2385;3.9689;
984.9000;0.2442;3.9891;
985.2000;0.2450;3.9941;
985.5000;0.2458;4.0016;
985.8000;0.2409;3.9966;
986.1000;0.2450;4.0067;
986.4000;0.2450;4.0117;
986.7000;0.2458;4.0167;
987.0000;0.2499;4.0343;
987.3000;0.2483;4.0243;
987.6000;0.2409;4.0042;
987.9000;0.2434;4.0042;
988.2000;0.2499;4.0218;
988.5000;0.2377;3.9790;
988.8000;0.2344;3.9715;
989.1000;0.2450;4.0042;
989.4000;0.2418;3.9966;
989.7000;0.2418;3.9891;
990.0000;0.2442;3.9865;
990.3000;0.2442;3.9916;
990.6000;0.2442;3.9991;
990.9000;0.2434;4.0016;
991.2000;0.2475;4.0142;
991.5000;0.2442;4.0067;
991.8000;0.2434;4.0092;
992.1000;0.2458;4.0142;
992.4000;0.2385;4.0016;
992.7000;0.2475;4.0318;
993.0000;0.2458;4.0192;
993.3000;0.2483;4.0192;
993.6000;0.2483;4.0167;
993.9000;0.2458;4.0092;
994.2000;0.2385;3.9840;
994.5000;0.2458;4.0042;
994.8000;0.2450;4.0016;
995.1000;0.2458;4.0092;
995.4000;0.2434;3.9991;
995.7000;0.2475;4.0092;
996.0000;0.2532;4.0268;
996.3000;0.2466;4.0142;
996.6000;0.2434;4.0117;
996.9000;0.2450;4.0142;
997.2000;0.2409;3.9966;
997.5000;0.2458;4.0067;
997.8000;0.2466;4.0092;
998.1000;0.2475;4.0042;
998.4000;0.2458;3.9991;
998.7000;0.2491;4.0117;
999.0000;0.2532;4.0268;
999.3000;0.2409;4.0067;
999.6000;0.2458;4.0243;
999.9000;0.2442;4.0167;
1000.2000;0.2466;4.0218;
1000.5000;0.2442;4.0192;
1000.8000;0.2458;4.0192;
1001.1000;0.2434;4.0117;
1001.4000;0.2499;4.0268;
1001.7000;0.2450;4.0092;
1002.0000;0.2450;4.0117;
1002.3000;0.2450;4.0092;
1002.6000;0.2458;4.0142;
1002.9000;0.2475;4.0167;
1003.2000;0.2450;4.0167;
1003.5000;0.2548;4.0570;
1003.8000;0.2442;4.0368;
1004.1000;0.2377;4.0167;
1004.4000;0.2491;4.0343;
1004.7000;0.2483;4.0192;
1005.0000;0.2507;4.0293;
1005.3000;0.2401;3.9991;
1005.6000;0.2442;4.0067;
1005.9000;0.2450;4.0067;
1006.2000;0.2466;4.0092;
1006.5000;0.2515;4.0218;
1006.8000;0.2491;4.0117;
1007.1000;0.2442;3.9891;
1007.4000;0.2442;3.9891;
1007.7000;0.2450;3.9941;
1008.0000;0.2564;4.0293;
1008.3000;0.2442;3.9916;
1008.6000;0.2515;4.0042;
1008.9000;0.2450;3.9966;
1009.2000;0.2507;4.0142;
1009.5000;0.2458;3.9991;
1009.8000;0.2450;4.0016;
1010.1000;0.2442;4.0192;
1010.4000;0.2458;4.0167;
1010.7000;0.2426;4.0167;
1011.0000;0.2597;4.0595;
1011.3000;0.2466;4.0218;
1011.6000;0.2483;4.0218;
1011.9000;0.2458;4.0117;
1012.2000;0.2450;3.9941;
1012.5000;0.2450;3.9865;
1012.8000;0.2483;3.9941;
1013.1000;0.2458;3.9916;
1013.4000;0.2393;3.9740;
1013.7000;0.2450;3.9991;
1014.0000;0.2458;4.0092;
1014.3000;0.2483;4.0117;
1014.6000;0.2450;3.9840;
1014.9000;0.2442;3.9815;
1015.2000;0.2466;3.9865;
1015.5000;0.2458;3.9840;
1015.8000;0.2450;3.9891;
1016.1000;0.2483;3.9966;
1016.4000;0.2475;3.9891;
1016.7000;0.2450;3.9815;
1017.0000;0.2466;3.9840;
1017.3000;0.2475;3.9916;
1017.6000;0.2434;3.9865;
1017.9000;0.2450;3.9865;
1018.2000;0.2442;3.9891;
1018.5000;0.2442;3.9815;
1018.8000;0.2426;3.9865;
1019.1000;0.2458;3.9916;
1019.4000;0.2466;3.9916;
1019.7000;0.2426;3.9840;
1020.0000;0.2426;3.9815;
1020.3000;0.2466;3.9916;
1020.6000;0.2442;3.9865;
1020.9000;0.2458;3.9916;
1021.2000;0.2393;3.9689;
1021.5000;0.2475;3.9941;
1021.8000;0.2450;3.9966;
1022.1000;0.2426;3.9966;
1022.4000;0.2548;4.0394;
1022.7000;0.2475;4.0142;
1023.0000;0.2458;4.0142;
1023.3000;0.2466;4.0042;
1023.6000;0.2377;3.9740;
1023.9000;0.2426;3.9815;
1024.2000;0.2409;3.9740;
1024.5000;0.2458;3.9865;
1024.8000;0.2475;3.9941;
1025.1000;0.2483;4.0042;
1025.4000;0.2450;3.9966;
1025.7000;0.2475;3.9991;
1026.0000;0.2483;3.9916;
1026.3000;0.2475;3.9891;
1026.6000;0.2466;3.9966;
1026.9000;0.2491;4.0016;
1027.2000;0.2466;3.9991;
1027.5000;0.2507;4.0042;
1027.8000;0.2458;3.9991;
1028.1000;0.2466;4.0092;
1028.4000;0.2458;4.0092;
1028.7000;0.2385;4.0016;
1029.0000;0.2523;4.0368;
1029.3000;0.2442;4.0142;
1029.6000;0.2491;4.0243;
1029.9000;0.2458;4.0042;
1030.2000;0.2434;3.9916;
1030.5000;0.2475;3.9941;
1030.8000;0.2458;4.0016;
1031.1000;0.2466;3.9991;
1031.4000;0.2491;4.0142;
1031.7000;0.2475;4.0067;
1032.0000;0.2499;4.0218;
1032.3000;0.2450;4.0167;
1032.6000;0.2442;4.0142;
1032.9000;0.2466;4.0192;
1033.2000;0.2450;4.0117;
1033.5000;0.2466;4.0042;
1033.8000;0.2458;4.0016;
1034.1000;0.2483;4.0117;
1034.4000;0.2499;4.0117;
1034.7000;0.2450;4.0067;
1035.0000;0.2499;4.0218;
1035.3000;0.2442;4.0117;
1035.6000;0.2475;4.0117;
1035.9000;0.2458;4.0016;
1036.2000;0.2458;3.9991;
1036.5000;0.2458;3.9991;
1036.8000;0.2458;3.9966;
1037.1000;0.2475;3.9966;
1037.4000;0.2523;4.0117;
1037.7000;0.2458;3.9815;
1038.0000;0.2409;3.9715;
1038.3000;0.2279;3.9388;
1038.6000;0.2450;3.9840;
1038.9000;0.2434;3.9740;
1039.2000;0.2434;3.9740;
1039.5000;0.2532;4.0092;
1039.8000;0.2426;3.9840;
1040.1000;0.2401;3.9790;
1040.4000;0.2450;3.9916;
1040.7000;0.2458;4.0067;
1041.0000;0.2483;4.0117;
1041.3000;0.2458;4.0092;
1041.6000;0.2466;4.0142;
1041.9000;0.2401;3.9916;
1042.2000;0.2475;4.0042;
1042.5000;0.2450;3.9941;
1042.8000;0.2434;3.9865;
1043.1000;0.2434;3.9865;
1043.4000;0.2466;3.9966;
1043.7000;0.2426;3.9891;
1044.0000;0.2442;3.9941;
1044.3000;0.2442;3.9941;
1044.6000;0.2466;4.0092;
1044.9000;0.2442;4.0042;
1045.2000;0.2450;4.0067;
1045.5000;0.2450;4.0218;
1045.8000;0.2450;4.0167;
1046.1000;0.2385;3.9941;
1046.4000;0.2483;4.0142;
1046.7000;0.2450;3.9916;
1047.0000;0.2475;3.9916;
1047.3000;0.2458;3.9865;
1047.6000;0.2450;3.9941;
1047.9000;0.2458;3.9891;
1048.2000;0.2450;3.9815;
1048.5000;0.2434;3.9790;
1048.8000;0.2466;3.9815;
1049.1000;0.2442;3.9790;
1049.4000;0.2434;3.9765;
1049.7000;0.2540;4.0042;
1050.0000;0.2442;3.9765;
1050.3000;0.2458;3.9865;
1050.6000;0.2458;3.9941;
1050.9000;0.2466;3.9941;
1051.2000;0.2475;3.9941;
1051.5000;0.2442;3.9765;
1051.8000;0.2450;3.9765;
1052.1000;0.2450;3.9790;
1052.4000;0.2499;3.9916;
1052.7000;0.2450;3.9815;
1053.0000;0.2466;3.9891;
1053.3000;0.2458;3.9840;
1053.6000;0.2475;3.9916;
1053.9000;0.2466;4.0016;
1054.2000;0.2556;4.0318;
1054.5000;0.2491;4.0218;
1054.8000;0.2466;4.0117;
1055.1000;0.2450;4.0142;
1055.4000;0.2507;4.0268;
1055.7000;0.2475;4.0042;
1056.0000;0.2450;3.9941;
1056.3000;0.2450;3.9991;
1056.6000;0.2450;4.0067;
1056.9000;0.2401;3.9891;
1057.2000;0.2442;4.0016;
1057.5000;0.2450;4.0142;
1057.8000;0.2556;4.0419;
1058.1000;0.2450;4.0142;
1058.4000;0.2426;4.0192;
1058.7000;0.2458;4.0293;
1059.0000;0.2426;4.0192;
1059.3000;0.2442;4.0243;
1059.6000;0.2458;4.0268;
1059.9000;0.2426;4.0167;
1060.2000;0.2475;4.0218;
1060.5000;0.2426;4.0142;
1060.8000;0.2450;4.0067;
1061.1000;0.2434;4.0016;
1061.4000;0.2475;3.9991;
1061.7000;0.2450;3.9891;
1062.0000;0.2466;4.0092;
1062.3000;0.2458;3.9991;
1062.6000;0.2475;4.0042;
1062.9000;0.2466;4.0016;
1063.2000;0.2458;4.0042;
1063.5000;0.2450;3.9865;
1063.8000;0.2458;3.9916;
1064.1000;0.2442;3.9840;
1064.4000;0.2442;3.9916;
1064.7000;0.2483;4.0016;
1065.0000;0.2466;3.9991;
1065.3000;0.2434;3.9865;
1065.6000;0.2458;3.9966;
1065.9000;0.2458;3.9991;
1066.2000;0.2458;3.9991;
1066.5000;0.2491;4.0142;
1066.8000;0.2466;4.0067;
1067.1000;0.2458;4.0042;
1067.4000;0.2458;4.0067;
1067.7000;0.2458;4.0016;
1068.0000;0.2499;3.9991;
1068.3000;0.2401;3.9765;
1068.6000;0.2466;4.0016;
1068.9000;0.2434;3.9865;
1069.2000;0.2450;3.9941;
1069.5000;0.2434;4.0016;
1069.8000;0.2458;4.0117;
1070.1000;0.2475;4.0117;
1070.4000;0.2442;3.9991;
1070.7000;0.2442;3.9991;
1071.0000;0.2434;3.9916;
1071.3000;0.2450;4.0016;
1071.6000;0.2450;4.0067;
1071.9000;0.2466;4.0142;
1072.2000;0.2475;4.0218;
1072.5000;0.2483;4.0243;
1072.8000;0.2320;3.9765;
1073.1000;0.2466;4.0142;
1073.4000;0.2466;4.0142;
1073.7000;0.2458;4.0092;
1074.0000;0.2466;4.0167;
1074.3000;0.2442;4.0192;
1074.6000;0.2515;4.0419;
1074.9000;0.2466;4.0268;
1075.2000;0.2458;4.0293;
1075.5000;0.2466;4.0318;
1075.8000;0.2466;4.0343;
1076.1000;0.2466;4.0268;
1076.4000;0.2418;4.0142;
1076.7000;0.2458;4.0268;
1077.0000;0.2458;4.0192;
1077.3000;0.2475;4.0167;
1077.6000;0.2458;4.0117;
1077.9000;0.2442;4.0142;
1078.2000;0.2556;4.0444;
1078.5000;0.2458;4.0192;
1078.8000;0.2450;4.0042;
1079.1000;0.2450;4.0142;
1079.4000;0.2361;3.9865;
1079.7000;0.2458;4.0167;
1080.0000;0.2466;4.0142;
1080.3000;0.2442;4.0092;
1080.6000;0.2450;4.0042;
1080.9000;0.2450;4.0067;
1081.2000;0.2450;4.0167;
1081.5000;0.2499;4.0343;
1081.8000;0.2442;4.0092;
1082.1000;0.2458;4.0142;
1082.4000;0.2434;4.0142;
1082.7000;0.2458;4.0167;
1083.0000;0.2466;4.0192;
1083.3000;0.2418;4.0067;
1083.6000;0.2442;4.0016;
1083.9000;0.2450;4.0067;
1084.2000;0.2475;4.0192;
1084.5000;0.2515;4.0142;
1084.8000;0.2442;3.9941;
1085.1000;0.2442;3.9991;
1085.4000;0.2475;3.9966;
1085.7000;0.2458;3.9891;
1086.0000;0.2426;3.9840;
1086.3000;0.2393;3.9715;
1086.6000;0.2458;3.9916;
1086.9000;0.2434;3.9941;
1087.2000;0.2434;3.9991;
1087.5000;0.2458;4.0142;
1087.8000;0.2466;4.0243;
1088.1000;0.2409;4.0142;
1088.4000;0.2475;4.0268;
1088.7000;0.2442;4.0192;
1089.0000;0.2475;4.0142;
1089.3000;0.2418;3.9991;
1089.6000;0.2409;3.9916;
1089.9000;0.2450;4.0117;
1090.2000;0.2450;4.0067;
1090.5000;0.2442;4.0092;
1090.8000;0.2450;4.0192;
1091.1000;0.2418;4.0142;
1091.4000;0.2458;4.0192;
1091.7000;0.2475;4.0218;
1092.0000;0.2499;4.0293;
1092.3000;0.2434;4.0218;
1092.6000;0.2458;4.0268;
1092.9000;0.2450;4.0192;
1093.2000;0.2499;4.0394;
1093.5000;0.2450;4.0268;
1093.8000;0.2458;4.0343;
1094.1000;0.2450;4.0243;
1094.4000;0.2434;4.0167;
1094.7000;0.2442;4.0117;
1095.0000;0.2548;4.0444;
1095.3000;0.2458;4.0167;
1095.6000;0.2385;4.0092;
1095.9000;0.2361;3.9941;
1096.2000;0.2491;4.0293;
1096.5000;0.2434;4.0218;
1096.8000;0.2450;4.0318;
1097.1000;0.2466;4.0268;
1097.4000;0.2442;4.0167;
1097.7000;0.2475;4.0117;
1098.0000;0.2613;4.0469;
1098.3000;0.2532;4.0293;
1098.6000;0.2621;4.0519;
1098.9000;0.2466;4.0117;
1099.2000;0.2434;4.0042;
1099.5000;0.2532;4.0268;
1099.8000;0.2450;4.0092;
1100.1000;0.2320;3.9614;
1100.4000;0.2450;3.9991;
1100.7000;0.2491;4.0117;
1101.0000;0.2418;3.9941;
1101.3000;0.2466;4.0092;
1101.6000;0.2450;3.9991;
1101.9000;0.2491;4.0117;
1102.2000;0.2483;4.0117;
1102.5000;0.2491;4.0167;
1102.8000;0.2466;4.0142;
1103.1000;0.2466;4.0293;
1103.4000;0.2450;4.0167;
1103.7000;0.2458;4.0243;
1104.0000;0.2450;4.0293;
1104.3000;0.2426;4.0343;
1104.6000;0.2450;4.0318;
1104.9000;0.2450;4.0167;
1105.2000;0.2418;4.0016;
1105.5000;0.2475;4.0218;
1105.8000;0.2499;4.0167;
1106.1000;0.2450;4.0142;
1106.4000;0.2450;4.0092;
1106.7000;0.2385;3.9840;
1107.0000;0.2458;4.0067;
1107.3000;0.2442;4.0092;
1107.6000;0.2434;4.0016;
1107.9000;0.2475;4.0117;
1108.2000;0.2475;4.0067;
1108.5000;0.2475;4.0067;
1108.8000;0.2442;4.0042;
1109.1000;0.2442;4.0092;
1109.4000;0.2385;3.9966;
1109.7000;0.2450;4.0042;
1110.0000;0.2458;3.9991;
1110.3000;0.2442;3.9891;
1110.6000;0.2458;3.9916;
1110.9000;0.2442;3.9891;
1111.2000;0.2450;3.9916;
1111.5000;0.2344;3.9639;
1111.8000;0.2475;4.0016;
1112.1000;0.2475;4.0117;
1112.4000;0.2458;4.0016;
1112.7000;0.2450;3.9966;
1113.0000;0.2458;4.0142;
1113.3000;0.2442;4.0042;
1113.6000;0.2507;4.0167;
1113.9000;0.2450;4.0117;
1114.2000;0.2442;4.0142;
1114.5000;0.2629;4.0595;
1114.8000;0.2450;4.0167;
1115.1000;0.2475;4.0192;
1115.4000;0.2458;4.0243;
1115.7000;0.2442;4.0192;
1116.0000;0.2458;4.0167;
1116.3000;0.2532;4.0192;
1116.6000;0.2580;4.0343;
1116.9000;0.2458;4.0042;
1117.2000;0.2515;4.0067;
1117.5000;0.2475;4.0042;
1117.8000;0.2466;4.0067;
1118.1000;0.2466;4.0016;
1118.4000;0.2442;4.0042;
1118.7000;0.2458;4.0117;
1119.0000;0.2328;3.9765;
1119.3000;0.2499;4.0343;
1119.6000;0.2458;4.0218;
1119.9000;0.2458;4.0192;
1120.2000;0.2418;4.0117;
1120.5000;0.2450;4.0218;
1120.8000;0.2450;4.0268;
1121.1000;0.2385;4.0042;
1121.4000;0.2328;3.9891;
1121.7000;0.2426;4.0192;
1122.0000;0.2491;4.0318;
1122.3000;0.2483;4.0218;
1122.6000;0.2589;4.0595;
1122.9000;0.2458;4.0167;
1123.2000;0.2466;4.0243;
1123.5000;0.2442;4.0192;
1123.8000;0.2442;4.0167;
1124.1000;0.2393;3.9991;
1124.4000;0.2466;4.0117;
1124.7000;0.2475;4.0218;
1125.0000;0.2426;4.0117;
1125.3000;0.2458;4.0117;
1125.6000;0.2466;4.0117;
1125.9000;0.2491;4.0218;
1126.2000;0.2458;4.0092;
1126.5000;0.2458;4.0243;
1126.8000;0.2475;4.0318;
1127.1000;0.2426;4.0092;
1127.4000;0.2475;4.0192;
1127.7000;0.2466;4.0192;
1128.0000;0.2475;4.0218;
1128.3000;0.2466;4.0192;
1128.6000;0.2458;4.0343;
1128.9000;0.2458;4.0368;
1129.2000;0.2450;4.0394;
1129.5000;0.2475;4.0469;
1129.8000;0.2458;4.0444;
1130.1000;0.2442;4.0318;
1130.4000;0.2401;4.0117;
1130.7000;0.2434;4.0218;
1131.0000;0.2434;4.0218;
1131.3000;0.2491;4.0243;
1131.6000;0.2475;4.0192;
1131.9000;0.2466;4.0268;
1132.2000;0.2475;4.0218;
1132.5000;0.2466;4.0293;
1132.8000;0.2499;4.0192;
1133.1000;0.2458;4.0142;
1133.4000;0.2458;4.0142;
1133.7000;0.2523;4.0368;
1134.0000;0.2458;4.0167;
1134.3000;0.2393;3.9991;
1134.6000;0.2523;4.0444;
1134.9000;0.2466;4.0243;
1135.2000;0.2442;4.0268;
1135.5000;0.2450;4.0243;
1135.8000;0.2450;4.0318;
1136.1000;0.2442;4.0218;
1136.4000;0.2450;4.0293;
1136.7000;0.2442;4.0343;
1137.0000;0.2483;4.0419;
1137.3000;0.2507;4.0494;
1137.6000;0.2450;4.0368;
1137.9000;0.2483;4.0318;
1138.2000;0.2442;4.0293;
1138.5000;0.2458;4.0293;
1138.8000;0.2491;4.0368;
1139.1000;0.2458;4.0318;
1139.4000;0.2434;4.0318;
1139.7000;0.2450;4.0318;
1140.0000;0.2434;4.0293;
1140.3000;0.2458;4.0368;
1140.6000;0.2385;4.0192;
1140.9000;0.2475;4.0343;
1141.2000;0.2466;4.0318;
1141.5000;0.2426;4.0218;
1141.8000;0.2466;4.0268;
1142.1000;0.2515;4.0394;
1142.4000;0.2450;4.0268;
1142.7000;0.2442;4.0218;
1143.0000;0.2450;4.0268;
1143.3000;0.2483;4.0368;
1143.6000;0.2450;4.0343;
1143.9000;0.2475;4.0419;
1144.2000;0.2450;4.0343;
1144.5000;0.2442;4.0368;
1144.8000;0.2483;4.0368;
1145.1000;0.2466;4.0293;
1145.4000;0.2475;4.0192;
1145.7000;0.2483;4.0243;
1146.0000;0.2450;4.0192;
1146.3000;0.2483;4.0243;
1146.6000;0.2466;4.0218;
1146.9000;0.2483;4.0218;
1147.2000;0.2483;4.0268;
1147.5000;0.2458;4.0192;
1147.8000;0.2466;4.0167;
1148.1000;0.2491;4.0167;
1148.4000;0.2442;3.9991;
1148.7000;0.2450;3.9865;
1149.0000;0.2450;3.9865;
1149.3000;0.2450;3.9941;
1149.6000;0.2466;4.0067;
1149.9000;0.2475;4.0142;
1150.2000;0.2450;4.0092;
1150.5000;0.2458;4.0142;
1150.8000;0.2466;4.0167;
1151.1000;0.2475;4.0268;
1151.4000;0.2532;4.0444;
1151.7000;0.2466;4.0218;
1152.0000;0.2475;4.0268;
1152.3000;0.2450;4.0142;
1152.6000;0.2466;4.0368;
1152.9000;0.2442;4.0243;
1153.2000;0.2466;4.0218;
1153.5000;0.2442;4.0218;
1153.8000;0.2458;4.0218;
1154.1000;0.2434;4.0117;
1154.4000;0.2295;3.9865;
1154.7000;0.2458;4.0368;
1155.0000;0.2491;4.0444;
1155.3000;0.2475;4.0419;
1155.6000;0.2466;4.0444;
1155.9000;0.2377;4.0243;
1156.2000;0.2475;4.0570;
1156.5000;0.2442;4.0394;
1156.8000;0.2450;4.0444;
1157.1000;0.2434;4.0494;
1157.4000;0.2507;4.0645;
1157.7000;0.2466;4.0519;
1158.0000;0.2418;4.0343;
1158.3000;0.2466;4.0394;
1158.6000;0.2466;4.0343;
1158.9000;0.2450;4.0343;
1159.2000;0.2475;4.0343;
1159.5000;0.2442;4.0268;
1159.8000;0.2450;4.0192;
1160.1000;0.2458;4.0218;
1160.4000;0.2434;4.0218;
1160.7000;0.2458;4.0268;
1161.0000;0.2442;4.0218;
1161.3000;0.2450;4.0192;
1161.6000;0.2466;4.0192;
1161.9000;0.2458;4.0192;
1162.2000;0.2442;4.0218;
1162.5000;0.2458;4.0268;
1162.8000;0.2475;4.0318;
1163.1000;0.2491;4.0444;
1163.4000;0.2458;4.0368;
1163.7000;0.2442;4.0293;
1164.0000;0.2499;4.0394;
1164.3000;0.2458;4.0218;
1164.6000;0.2466;4.0192;
1164.9000;0.2466;4.0192;
1165.2000;0.2483;4.0293;
1165.5000;0.2458;4.0218;
1165.8000;0.2475;4.0167;
1166.1000;0.2466;4.0192;
1166.4000;0.2434;4.0117;
1166.7000;0.2458;4.0142;
1167.0000;0.2540;4.0343;
1167.3000;0.2491;4.0218;
1167.6000;0.2475;4.0117;
1167.9000;0.2466;4.0117;
1168.2000;0.2466;4.0167;
1168.5000;0.2466;4.0268;
1168.8000;0.2450;4.0192;
1169.1000;0.2458;4.0243;
1169.4000;0.2458;4.0293;
1169.7000;0.2450;4.0268;
1170.0000;0.2466;4.0318;
1170.3000;0.2483;4.0368;
1170.6000;0.2442;4.0268;
1170.9000;0.2458;4.0268;
1171.2000;0.2564;4.0494;
1171.5000;0.2442;4.0142;
1171.8000;0.2475;4.0368;
1172.1000;0.2466;4.0368;
1172.4000;0.2450;4.0368;
1172.7000;0.2466;4.0419;
1173.0000;0.2458;4.0444;
1173.3000;0.2442;4.0444;
1173.6000;0.2450;4.0343;
1173.9000;0.2450;4.0268;
1174.2000;0.2483;4.0343;
1174.5000;0.2507;4.0444;
1174.8000;0.2458;4.0218;
1175.1000;0.2475;4.0268;
1175.4000;0.2442;4.0218;
1175.7000;0.2442;4.0192;
1176.0000;0.2426;4.0142;
1176.3000;0.2475;4.0218;
1176.6000;0.2466;4.0218;
1176.9000;0.2466;4.0318;
1177.2000;0.2458;4.0368;
1177.5000;0.2426;4.0318;
1177.8000;0.2458;4.0268;
1178.1000;0.2475;4.0318;
1178.4000;0.2450;4.0218;
1178.7000;0.2442;4.0192;
1179.0000;0.2458;4.0192;
1179.3000;0.2434;4.0092;
1179.6000;0.2466;4.0092;
1179.9000;0.2475;4.0016;
1180.2000;0.2458;4.0092;
1180.5000;0.2458;4.0092;
1180.8000;0.2458;4.0067;
1181.1000;0.2409;3.9916;
1181.4000;0.2458;4.0042;
1181.7000;0.2466;4.0167;
1182.0000;0.2450;4.0117;
1182.3000;0.2434;4.0117;
1182.6000;0.2475;4.0192;
1182.9000;0.2458;4.0192;
1183.2000;0.2450;4.0167;
1183.5000;0.2458;4.0142;
1183.8000;0.2483;4.0192;
1184.1000;0.2458;4.0142;
1184.4000;0.2466;4.0167;
1184.7000;0.2515;4.0494;
1185.0000;0.2442;4.0218;
1185.3000;0.2466;4.0243;
1185.6000;0.2450;4.0243;
1185.9000;0.2475;4.0368;
1186.2000;0.2466;4.0268;
1186.5000;0.2556;4.0494;
1186.8000;0.2475;4.0192;
1187.1000;0.2466;4.0243;
1187.4000;0.2458;4.0167;
1187.7000;0.2515;4.0293;
1188.0000;0.2450;4.0092;
1188.3000;0.2458;4.0117;
1188.6000;0.2466;4.0142;
1188.9000;0.2458;4.0117;
1189.2000;0.2475;4.0192;
1189.5000;0.2458;4.0243;
1189.8000;0.2466;4.0243;
1190.1000;0.2450;4.0243;
1190.4000;0.2450;4.0293;
1190.7000;0.2499;4.0419;
1191.0000;0.2499;4.0343;
1191.3000;0.2450;4.0243;
1191.6000;0.2475;4.0268;
1191.9000;0.2515;4.0469;
1192.2000;0.2491;4.0394;
1192.5000;0.2369;4.0042;
1192.8000;0.2475;4.0268;
1193.1000;0.2466;4.0293;
1193.4000;0.2458;4.0293;
1193.7000;0.2409;4.0067;
1194.0000;0.2548;4.0419;
1194.3000;0.2548;4.0368;
1194.6000;0.2352;3.9765;
1194.9000;0.2450;4.0016;
1195.2000;0.2507;4.0293;
1195.5000;0.2491;4.0243;
1195.8000;0.2475;4.0192;
1196.1000;0.2442;4.0117;
1196.4000;0.2475;4.0243;
1196.7000;0.2466;4.0243;
1197.0000;0.2450;4.0243;
1197.3000;0.2507;4.0394;
1197.6000;0.2426;4.0142;
1197.9000;0.2450;4.0142;
1198.2000;0.2458;4.0092;
1198.5000;0.2491;4.0192;
1198.8000;0.2483;4.0042;
1199.1000;0.2434;3.9941;
1199.4000;0.2450;4.0042;
1199.7000;0.2434;4.0016;
1200.0000;0.2426;4.0016;
1200.3000;0.2458;4.0117;
1200.6000;0.2442;4.0167;
1200.9000;0.2442;4.0117;
1201.2000;0.2466;4.0142;
1201.5000;0.2352;3.9740;
1201.8000;0.2458;4.0167;
1202.1000;0.2458;4.0167;
1202.4000;0.2442;4.0192;
1202.7000;0.2466;4.0218;
1203.0000;0.2458;4.0243;
1203.3000;0.2466;4.0293;
1203.6000;0.2507;4.0494;
1203.9000;0.2434;4.0318;
1204.2000;0.2458;4.0318;
1204.5000;0.2434;4.0243;
1204.8000;0.2458;4.0318;
1205.1000;0.2450;4.0268;
1205.4000;0.2466;4.0293;
1205.7000;0.2442;4.0293;
1206.0000;0.2532;4.0545;
1206.3000;0.2450;4.0318;
1206.6000;0.2466;4.0343;
1206.9000;0.2418;4.0268;
1207.2000;0.2450;4.0318;
1207.5000;0.2442;4.0243;
1207.8000;0.2434;4.0293;
1208.1000;0.2450;4.0343;
1208.4000;0.2450;4.0394;
1208.7000;0.2442;4.0394;
1209.0000;0.2450;4.0444;
1209.3000;0.2418;4.0368;
1209.6000;0.2450;4.0318;
1209.9000;0.2418;4.0368;
1210.2000;0.2442;4.0419;
1210.5000;0.2369;4.0092;
1210.8000;0.2450;4.0167;
1211.1000;0.2450;4.0167;
1211.4000;0.2466;4.0092;
1211.7000;0.2450;4.0092;
1212.0000;0.2458;4.0192;
1212.3000;0.2466;4.0293;
1212.6000;0.2434;4.0167;
1212.9000;0.2344;3.9840;
1213.2000;0.2491;4.0142;
1213.5000;0.2450;4.0042;
1213.8000;0.2442;3.9991;
1214.1000;0.2491;4.0067;
1214.4000;0.2466;4.0117;
1214.7000;0.2426;4.0167;
1215.0000;0.2450;4.0243;
1215.3000;0.2442;4.0318;
1215.6000;0.2475;4.0368;
1215.9000;0.2540;4.0469;
1216.2000;0.2507;4.0394;
1216.5000;0.2523;4.0444;
1216.8000;0.2442;4.0268;
1217.1000;0.2409;4.0067;
1217.4000;0.2597;4.0645;
1217.7000;0.2409;4.0067;
1218.0000;0.2483;4.0318;
1218.3000;0.2483;4.0394;
1218.6000;0.2564;4.0570;
1218.9000;0.2466;4.0293;
1219.2000;0.2328;3.9941;
1219.5000;0.2475;4.0419;
1219.8000;0.2466;4.0343;
1220.1000;0.2450;4.0243;
1220.4000;0.2466;4.0218;
1220.7000;0.2450;4.0243;
1221.0000;0.2491;4.0343;
1221.3000;0.2458;4.0218;
1221.6000;0.2442;4.0167;
1221.9000;0.2450;4.0117;
1222.2000;0.2434;4.0192;
1222.5000;0.2483;4.0243;
1222.8000;0.2458;4.0142;
1223.1000;0.2483;4.0218;
1223.4000;0.2475;4.0092;
1223.7000;0.2458;4.0042;
1224.0000;0.2426;3.9916;
1224.3000;0.2491;4.0067;
1224.6000;0.2450;4.0142;
1224.9000;0.2393;4.0092;
1225.2000;0.2475;4.0268;
1225.5000;0.2483;4.0167;
1225.8000;0.2458;4.0243;
1226.1000;0.2499;4.0444;
1226.4000;0.2442;4.0293;
1226.7000;0.2450;4.0318;
1227.0000;0.2450;4.0318;
1227.3000;0.2540;4.0595;
1227.6000;0.2483;4.0469;
1227.9000;0.2434;4.0318;
1228.2000;0.2499;4.0519;
1228.5000;0.2475;4.0444;
1228.8000;0.2458;4.0343;
1229.1000;0.2458;4.0394;
1229.4000;0.2426;4.0444;
1229.7000;0.2483;4.0494;
1230.0000;0.2475;4.0419;
1230.3000;0.2491;4.0394;
1230.6000;0.2507;4.0519;
1230.9000;0.2442;4.0318;
1231.2000;0.2434;4.0243;
1231.5000;0.2475;4.0419;
1231.8000;0.2336;4.0016;
1232.1000;0.2450;4.0318;
1232.4000;0.2409;4.0142;
1232.7000;0.2450;4.0268;
1233.0000;0.2458;4.0243;
1233.3000;0.2450;4.0293;
1233.6000;0.2336;3.9941;
1233.9000;0.2442;4.0243;
1234.2000;0.2466;4.0293;
1234.5000;0.2483;4.0343;
1234.8000;0.2483;4.0293;
1235.1000;0.2458;4.0243;
1235.4000;0.2458;4.0318;
1235.7000;0.2458;4.0293;
1236.0000;0.2491;4.0368;
1236.3000;0.2466;4.0343;
1236.6000;0.2483;4.0394;
1236.9000;0.2418;4.0167;
1237.2000;0.2458;4.0293;
1237.5000;0.2466;4.0368;
1237.8000;0.2483;4.0343;
1238.1000;0.2442;4.0092;
1238.4000;0.2450;4.0192;
1238.7000;0.2466;4.0218;
1239.0000;0.2475;4.0243;
1239.3000;0.2458;4.0142;
1239.6000;0.2442;4.0117;
1239.9000;0.2409;4.0067;
1240.2000;0.2409;4.0042;
1240.5000;0.2475;4.0218;
1240.8000;0.2507;4.0268;
1241.1000;0.2434;4.0067;
1241.4000;0.2442;4.0268;
1241.7000;0.2466;4.0293;
1242.0000;0.2483;4.0394;
1242.3000;0.2466;4.0293;
1242.6000;0.2458;4.0243;
1242.9000;0.2499;4.0318;
1243.2000;0.2466;4.0218;
1243.5000;0.2483;4.0368;
1243.8000;0.2393;4.0092;
1244.1000;0.2483;4.0368;
1244.4000;0.2458;4.0268;
1244.7000;0.2466;4.0293;
1245.0000;0.2475;4.0343;
1245.3000;0.2466;4.0419;
1245.6000;0.2450;4.0394;
1245.9000;0.2458;4.0394;
1246.2000;0.2475;4.0419;
1246.5000;0.2466;4.0394;
1246.8000;0.2475;4.0419;
1247.1000;0.2475;4.0494;
1247.4000;0.2466;4.0570;
1247.7000;0.2458;4.0419;
1248.0000;0.2450;4.0368;
1248.3000;0.2426;4.0318;
1248.6000;0.2475;4.0469;
1248.9000;0.2466;4.0444;
1249.2000;0.2442;4.0343;
1249.5000;0.2450;4.0394;
1249.8000;0.2458;4.0343;
1250.1000;0.2466;4.0419;
1250.4000;0.2458;4.0293;
1250.7000;0.2475;4.0394;
1251.0000;0.2475;4.0394;
1251.3000;0.2442;4.0167;
1251.6000;0.2450;4.0192;
1251.9000;0.2466;4.0142;
1252.2000;0.2491;4.0293;
1252.5000;0.2458;4.0268;
1252.8000;0.2491;4.0394;
1253.1000;0.2442;4.0293;
1253.4000;0.2466;4.0293;
1253.7000;0.2434;4.0243;
1254.0000;0.2434;4.0192;
1254.3000;0.2483;4.0419;
1254.6000;0.2466;4.0394;
1254.9000;0.2458;4.0343;
1255.2000;0.2483;4.0444;
1255.5000;0.2475;4.0419;
1255.8000;0.2426;4.0268;
1256.1000;0.2458;4.0343;
1256.4000;0.2499;4.0494;
1256.7000;0.2475;4.0444;
1257.0000;0.2434;4.0318;
1257.3000;0.2466;4.0419;
1257.6000;0.2523;4.0570;
1257.9000;0.2491;4.0494;
1258.2000;0.2450;4.0394;
1258.5000;0.2450;4.0293;
1258.8000;0.2450;4.0343;
1259.1000;0.2466;4.0394;
1259.4000;0.2458;4.0394;
1259.7000;0.2491;4.0519;
1260.0000;0.2483;4.0519;
1260.3000;0.2458;4.0419;
1260.6000;0.2466;4.0368;
1260.9000;0.2483;4.0494;
1261.2000;0.2442;4.0368;
1261.5000;0.2483;4.0444;
1261.8000;0.2475;4.0545;
1262.1000;0.2466;4.0469;
1262.4000;0.2523;4.0695;
1262.7000;0.2483;4.0570;
1263.0000;0.2466;4.0469;
1263.3000;0.2450;4.0368;
1263.6000;0.2466;4.0343;
1263.9000;0.2434;4.0243;
1264.2000;0.2483;4.0343;
1264.5000;0.2450;4.0343;
1264.8000;0.2458;4.0318;
1265.1000;0.2426;4.0268;
1265.4000;0.2483;4.0394;
1265.7000;0.2450;4.0293;
1266.0000;0.2540;4.0469;
1266.3000;0.2450;4.0268;
1266.6000;0.2475;4.0268;
1266.9000;0.2466;4.0293;
1267.2000;0.2572;4.0620;
1267.5000;0.2450;4.0243;
1267.8000;0.2418;4.0142;
1268.1000;0.2450;4.0268;
1268.4000;0.2450;4.0243;
1268.7000;0.2466;4.0318;
1269.0000;0.2426;4.0243;
1269.3000;0.2458;4.0268;
1269.6000;0.2442;4.0167;
1269.9000;0.2434;4.0117;
1270.2000;0.2442;4.0117;
1270.5000;0.2556;4.0444;
1270.8000;0.2540;4.0444;
1271.1000;0.2466;4.0142;
1271.4000;0.2450;4.0067;
1271.7000;0.2491;4.0218;
1272.0000;0.2483;4.0167;
1272.3000;0.2426;4.0042;
1272.6000;0.2458;4.0243;
1272.9000;0.2483;4.0394;
1273.2000;0.2450;4.0368;
1273.5000;0.2442;4.0218;
1273.8000;0.2426;4.0117;
1274.1000;0.2466;4.0067;
1274.4000;0.2385;3.9865;
1274.7000;0.2450;4.0042;
1275.0000;0.2442;4.0016;
1275.3000;0.2385;3.9966;
1275.6000;0.2450;4.0042;
1275.9000;0.2458;4.0142;
1276.2000;0.2483;4.0243;
1276.5000;0.2458;4.0067;
1276.8000;0.2458;3.9991;
1277.1000;0.2466;4.0016;
1277.4000;0.2442;3.9991;
1277.7000;0.2475;4.0042;
1278.0000;0.2491;4.0167;
1278.3000;0.2475;4.0243;
1278.6000;0.2434;4.0142;
1278.9000;0.2442;4.0117;
1279.2000;0.2466;4.0243;
1279.5000;0.2458;4.0268;
1279.8000;0.2483;4.0394;
1280.1000;0.2458;4.0343;
1280.4000;0.2491;4.0469;
1280.7000;0.2442;4.0343;
1281.0000;0.2450;4.0343;
1281.3000;0.2458;4.0343;
1281.6000;0.2466;4.0293;
1281.9000;0.2475;4.0293;
1282.2000;0.2450;4.0268;
1282.5000;0.2458;4.0293;
1282.8000;0.2466;4.0243;
1283.1000;0.2532;4.0394;
1283.4000;0.2442;4.0218;
1283.7000;0.2450;4.0167;
1284.0000;0.2458;4.0192;
1284.3000;0.2532;4.0469;
1284.6000;0.2466;4.0268;
1284.9000;0.2466;4.0318;
1285.2000;0.2597;4.0645;
1285.5000;0.2458;4.0243;
1285.8000;0.2483;4.0293;
1286.1000;0.2483;4.0268;
1286.4000;0.2483;4.0343;
1286.7000;0.2475;4.0343;
1287.0000;0.2475;4.0268;
1287.3000;0.2475;4.0343;
1287.6000;0.2466;4.0318;
1287.9000;0.2442;4.0318;
1288.2000;0.2475;4.0368;
1288.5000;0.2483;4.0444;
1288.8000;0.2434;4.0293;
1289.1000;0.2450;4.0394;
1289.4000;0.2450;4.0293;
1289.7000;0.2475;4.0268;
1290.0000;0.2483;4.0243;
1290.3000;0.2458;4.0218;
1290.6000;0.2434;4.0117;
1290.9000;0.2458;4.0192;
1291.2000;0.2605;4.0620;
1291.5000;0.2458;4.0167;
1291.8000;0.2466;4.0218;
1292.1000;0.2483;4.0243;
1292.4000;0.2475;4.0117;
1292.7000;0.2442;4.0042;
1293.0000;0.2466;4.0167;
1293.3000;0.2483;4.0243;
1293.6000;0.2450;4.0142;
1293.9000;0.2450;4.0167;
1294.2000;0.2442;4.0243;
1294.5000;0.2507;4.0419;
1294.8000;0.2458;4.0318;
1295.1000;0.2442;4.0268;
1295.4000;0.2426;4.0167;
1295.7000;0.2466;4.0368;
1296.0000;0.2475;4.0519;
1296.3000;0.2483;4.0545;
1296.6000;0.2450;4.0419;
1296.9000;0.2409;4.0243;
1297.2000;0.2458;4.0394;
1297.5000;0.2466;4.0444;
1297.8000;0.2458;4.0293;
1298.1000;0.2475;4.0167;
1298.4000;0.2475;4.0167;
1298.7000;0.2466;4.0067;
1299.0000;0.2458;4.0067;
1299.3000;0.2466;4.0067;
1299.6000;0.2450;3.9916;
1299.9000;0.2466;3.9941;
1300.2000;0.2466;3.9916;
1300.5000;0.2450;4.0016;
1300.8000;0.2442;3.9941;
1301.1000;0.2466;4.0016;
1301.4000;0.2369;3.9740;
1301.7000;0.2450;4.0016;
1302.0000;0.2466;4.0067;
1302.3000;0.2507;4.0293;
1302.6000;0.2393;3.9916;
1302.9000;0.2483;4.0192;
1303.2000;0.2466;4.0117;
1303.5000;0.2426;4.0042;
1303.8000;0.2450;4.0067;
1304.1000;0.2458;4.0167;
1304.4000;0.2442;4.0117;
1304.7000;0.2442;4.0092;
1305.0000;0.2450;4.0067;
1305.3000;0.2458;4.0167;
1305.6000;0.2458;4.0092;
1305.9000;0.2409;3.9765;
1306.2000;0.2442;3.9966;
1306.5000;0.2450;4.0067;
1306.8000;0.2466;4.0042;
1307.1000;0.2377;3.9865;
1307.4000;0.2572;4.0419;
1307.7000;0.2418;4.0042;
1308.0000;0.2418;3.9966;
1308.3000;0.2409;3.9916;
1308.6000;0.2466;4.0016;
1308.9000;0.2466;4.0067;
1309.2000;0.2532;4.0318;
1309.5000;0.2458;4.0192;
1309.8000;0.2458;4.0167;
1310.1000;0.2450;4.0192;
1310.4000;0.2458;4.0192;
1310.7000;0.2466;4.0218;
1311.0000;0.2466;4.0318;
1311.3000;0.2450;4.0293;
1311.6000;0.2483;4.0293;
1311.9000;0.2483;4.0192;
1312.2000;0.2466;4.0192;
1312.5000;0.2458;4.0117;
1312.8000;0.2450;4.0117;
1313.1000;0.2434;4.0016;
1313.4000;0.2442;4.0042;
1313.7000;0.2458;3.9991;
1314.0000;0.2491;4.0092;
1314.3000;0.2491;4.0067;
1314.6000;0.2458;3.9941;
1314.9000;0.2475;3.9966;
1315.2000;0.2458;3.9991;
1315.5000;0.2450;3.9891;
1315.8000;0.2540;4.0142;
1316.1000;0.2556;4.0243;
1316.4000;0.2466;4.0067;
1316.7000;0.2458;4.0016;
1317.0000;0.2393;3.9840;
1317.3000;0.2458;4.0016;
1317.6000;0.2483;4.0117;
1317.9000;0.2491;4.0042;
1318.2000;0.2450;3.9991;
1318.5000;0.2475;3.9891;
1318.8000;0.2466;3.9916;
1319.1000;0.2491;3.9891;
1319.4000;0.2491;3.9941;
1319.7000;0.2450;3.9840;
1320.0000;0.2491;3.9966;
1320.3000;0.2458;3.9966;
1320.6000;0.2458;3.9916;
1320.9000;0.2475;4.0016;
1321.2000;0.2483;4.0092;
1321.5000;0.2450;4.0067;
1321.8000;0.2450;4.0016;
1322.1000;0.2426;3.9966;
1322.4000;0.2434;3.9991;
1322.7000;0.2458;4.0042;
1323.0000;0.2475;4.0092;
1323.3000;0.2458;4.0067;
1323.6000;0.2475;4.0142;
1323.9000;0.2475;4.0167;
1324.2000;0.2418;3.9991;
1324.5000;0.2450;4.0042;
1324.8000;0.2450;4.0092;
1325.1000;0.2475;4.0117;
1325.4000;0.2442;4.0092;
1325.7000;0.2466;4.0167;
1326.0000;0.2434;4.0016;
1326.3000;0.2418;3.9966;
1326.6000;0.2475;4.0117;
1326.9000;0.2393;4.0016;
1327.2000;0.2409;4.0067;
1327.5000;0.2540;4.0368;
1327.8000;0.2458;4.0218;
1328.1000;0.2556;4.0545;
1328.4000;0.2458;4.0318;
1328.7000;0.2466;4.0394;
1329.0000;0.2426;4.0167;
1329.3000;0.2475;4.0343;
1329.6000;0.2475;4.0293;
1329.9000;0.2426;4.0192;
1330.2000;0.2352;3.9891;
1330.5000;0.2426;4.0092;
1330.8000;0.2344;4.0016;
1331.1000;0.2450;4.0167;
1331.4000;0.2466;4.0192;
1331.7000;0.2458;4.0067;
1332.0000;0.2434;4.0092;
1332.3000;0.2450;4.0117;
1332.6000;0.2499;4.0243;
1332.9000;0.2450;4.0167;
1333.2000;0.2369;4.0067;
1333.5000;0.2434;4.0243;
1333.8000;0.2458;4.0343;
1334.1000;0.2466;4.0268;
1334.4000;0.2458;4.0318;
1334.7000;0.2442;4.0368;
1335.0000;0.2434;4.0343;
1335.3000;0.2466;4.0368;
1335.6000;0.2442;4.0293;
1335.9000;0.2336;3.9891;
1336.2000;0.2466;4.0243;
1336.5000;0.2483;4.0218;
1336.8000;0.2483;4.0243;
1337.1000;0.2475;4.0142;
1337.4000;0.2450;4.0092;
1337.7000;0.2475;4.0092;
1338.0000;0.2450;3.9941;
1338.3000;0.2483;3.9991;
1338.6000;0.2442;3.9941;
1338.9000;0.2475;4.0067;
1339.2000;0.2450;4.0117;
1339.5000;0.2434;4.0016;
1339.8000;0.2418;4.0117;
1340.1000;0.2491;4.0218;
1340.4000;0.2450;4.0117;
1340.7000;0.2458;4.0142;
1341.0000;0.2450;4.0092;
1341.3000;0.2458;4.0117;
1341.6000;0.2491;4.0218;
1341.9000;0.2466;4.0167;
1342.2000;0.2426;4.0016;
1342.5000;0.2458;4.0092;
1342.8000;0.2450;4.0067;
1343.1000;0.2540;4.0268;
1343.4000;0.2442;4.0092;
1343.7000;0.2442;4.0192;
1344.0000;0.2263;3.9689;
1344.3000;0.2483;4.0318;
1344.6000;0.2483;4.0419;
1344.9000;0.2483;4.0494;
1345.2000;0.2458;4.0419;
1345.5000;0.2483;4.0394;
1345.8000;0.2352;3.9966;
1346.1000;0.2442;4.0268;
1346.4000;0.2450;4.0268;
1346.7000;0.2450;4.0192;
1347.0000;0.2442;4.0243;
1347.3000;0.2442;4.0268;
1347.6000;0.2458;4.0268;
1347.9000;0.2450;4.0192;
1348.2000;0.2507;4.0218;
1348.5000;0.2426;4.0016;
1348.8000;0.2458;4.0117;
1349.1000;0.2458;4.0092;
1349.4000;0.2540;4.0419;
1349.7000;0.2450;4.0067;
1350.0000;0.2483;4.0167;
1350.3000;0.2532;4.0293;
1350.6000;0.2556;4.0394;
1350.9000;0.2466;4.0117;
1351.2000;0.2450;4.0142;
1351.5000;0.2401;4.0016;
1351.8000;0.2466;4.0243;
1352.1000;0.2401;4.0167;
1352.4000;0.2483;4.0368;
1352.7000;0.2597;4.0645;
1353.0000;0.2377;3.9941;
1353.3000;0.2434;4.0067;
1353.6000;0.2442;4.0167;
1353.9000;0.2483;4.0293;
1354.2000;0.2401;4.0117;
1354.5000;0.2458;4.0343;
1354.8000;0.2483;4.0394;
1355.1000;0.2475;4.0394;
1355.4000;0.2450;4.0394;
1355.7000;0.2466;4.0394;
1356.0000;0.2450;4.0318;
1356.3000;0.2548;4.0545;
1356.6000;0.2458;4.0318;
1356.9000;0.2483;4.0318;
1357.2000;0.2328;3.9966;
1357.5000;0.2491;4.0419;
1357.8000;0.2466;4.0419;
1358.1000;0.2466;4.0394;
1358.4000;0.2344;3.9941;
1358.7000;0.2450;4.0293;
1359.0000;0.2475;4.0218;
1359.3000;0.2466;4.0192;
1359.6000;0.2458;4.0167;
1359.9000;0.2458;4.0117;
1360.2000;0.2442;4.0067;
1360.5000;0.2450;4.0142;
1360.8000;0.2450;4.0117;
1361.1000;0.2466;4.0218;
1361.4000;0.2450;4.0192;
1361.7000;0.2458;4.0243;
1362.0000;0.2475;4.0343;
1362.3000;0.2401;4.0142;
1362.6000;0.2450;4.0318;
1362.9000;0.2450;4.0268;
1363.2000;0.2475;4.0318;
1363.5000;0.2442;4.0243;
1363.8000;0.2450;4.0343;
1364.1000;0.2426;4.0293;
1364.4000;0.2401;4.0142;
1364.7000;0.2442;4.0268;
1365.0000;0.2515;4.0469;
1365.3000;0.2466;4.0419;
1365.6000;0.2466;4.0343;
1365.9000;0.2450;4.0318;
1366.2000;0.2458;4.0318;
1366.5000;0.2548;4.0444;
1366.8000;0.2466;4.0218;
1367.1000;0.2458;4.0092;
1367.4000;0.2458;4.0117;
1367.7000;0.2491;4.0142;
1368.0000;0.2597;4.0419;
1368.3000;0.2434;4.0042;
1368.6000;0.2450;4.0117;
1368.9000;0.2336;3.9840;
1369.2000;0.2442;4.0167;
1369.5000;0.2426;4.0142;
1369.8000;0.2458;4.0142;
1370.1000;0.2458;4.0142;
1370.4000;0.2466;4.0243;
1370.7000;0.2475;4.0243;
1371.0000;0.2458;4.0218;
1371.3000;0.2458;4.0218;
1371.6000;0.2442;4.0067;
1371.9000;0.2466;4.0142;
1372.2000;0.2401;3.9966;
1372.5000;0.2475;4.0192;
1372.8000;0.2466;4.0192;
1373.1000;0.2483;4.0192;
1373.4000;0.2442;4.0117;
1373.7000;0.2458;4.0092;
1374.0000;0.2466;4.0117;
1374.3000;0.2409;3.9966;
1374.6000;0.2466;4.0067;
1374.9000;0.2442;4.0016;
1375.2000;0.2450;3.9916;
1375.5000;0.2434;3.9891;
1375.8000;0.2442;3.9966;
1376.1000;0.2442;4.0016;
1376.4000;0.2442;3.9966;
1376.7000;0.2442;4.0042;
1377.0000;0.2450;4.0067;
1377.3000;0.2466;4.0092;
1377.6000;0.2442;4.0042;
1377.9000;0.2442;4.0042;
1378.2000;0.2458;4.0042;
1378.5000;0.2458;4.0067;
1378.8000;0.2450;4.0067;
1379.1000;0.2442;4.0067;
1379.4000;0.2466;4.0117;
1379.7000;0.2450;4.0167;
1380.0000;0.2434;4.0042;
1380.3000;0.2466;4.0067;
1380.6000;0.2466;3.9991;
1380.9000;0.2458;4.0092;
1381.2000;0.2442;4.0192;
1381.5000;0.2475;4.0218;
1381.8000;0.2287;3.9740;
1382.1000;0.2458;4.0192;
1382.4000;0.2434;4.0117;
1382.7000;0.2458;4.0117;
1383.0000;0.2507;4.0218;
1383.3000;0.2499;4.0192;
1383.6000;0.2434;4.0167;
1383.9000;0.2450;4.0243;
1384.2000;0.2434;4.0268;
1384.5000;0.2466;4.0142;
1384.8000;0.2458;4.0117;
1385.1000;0.2450;4.0067;
1385.4000;0.2515;4.0293;
1385.7000;0.2458;4.0192;
1386.0000;0.2491;4.0368;
1386.3000;0.2491;4.0394;
1386.6000;0.2458;4.0268;
1386.9000;0.2466;4.0293;
1387.2000;0.2515;4.0318;
1387.5000;0.2491;4.0218;
1387.8000;0.2466;4.0167;
1388.1000;0.2434;4.0016;
1388.4000;0.2450;4.0167;
1388.7000;0.2475;4.0142;
1389.0000;0.2442;4.0016;
1389.3000;0.2369;3.9664;
1389.6000;0.2450;3.9891;
1389.9000;0.2466;3.9840;
1390.2000;0.2466;3.9916;
1390.5000;0.2466;3.9966;
1390.8000;0.2442;3.9891;
1391.1000;0.2466;3.9991;
1391.4000;0.2507;4.0167;
1391.7000;0.2523;4.0167;
1392.0000;0.2426;3.9966;
1392.3000;0.2483;4.0167;
1392.6000;0.2466;4.0016;
1392.9000;0.2466;3.9991;
1393.2000;0.2475;4.0042;
1393.5000;0.2466;4.0042;
1393.8000;0.2450;4.0067;
1394.1000;0.2458;4.0092;
1394.4000;0.2450;4.0067;
1394.7000;0.2450;4.0042;
1395.0000;0.2499;4.0192;
1395.3000;0.2450;4.0092;
1395.6000;0.2458;4.0042;
1395.9000;0.2458;3.9991;
1396.2000;0.2466;3.9991;
1396.5000;0.2450;3.9991;
1396.8000;0.2393;3.9765;
1397.1000;0.2580;4.0243;
1397.4000;0.2483;4.0016;
1397.7000;0.2450;3.9991;
1398.0000;0.2466;3.9966;
1398.3000;0.2409;3.9715;
1398.6000;0.2483;3.9966;
1398.9000;0.2483;4.0067;
1399.2000;0.2523;4.0218;
1399.5000;0.2458;4.0016;
1399.8000;0.2466;3.9991;
