time/ms;Fluo/V;P700 deltaI/I x10³;
-199.8000;0.2515;3.9941;
-199.5000;0.2523;3.9941;
-199.2000;0.2499;3.9815;
-198.9000;0.2507;3.9790;
-198.6000;0.2515;3.9815;
-198.3000;0.2515;3.9865;
-198.0000;0.2532;3.9916;
-197.7000;0.2523;3.9891;
-197.4000;0.2515;3.9840;
-197.1000;0.2515;3.9891;
-196.8000;0.2507;3.9765;
-196.5000;0.2523;3.9941;
-196.2000;0.2458;3.9790;
-195.9000;0.2515;3.9916;
-195.6000;0.2532;3.9966;
-195.3000;0.2515;3.9790;
-195.0000;0.2507;3.9765;
-194.7000;0.2499;3.9840;
-194.4000;0.2507;3.9891;
-194.1000;0.2507;4.0016;
-193.8000;0.2523;3.9991;
-193.5000;0.2507;3.9966;
-193.2000;0.2507;3.9916;
-192.9000;0.2556;4.0042;
-192.6000;0.2499;3.9891;
-192.3000;0.2540;3.9966;
-192.0000;0.2556;3.9991;
-191.7000;0.2532;3.9916;
-191.4000;0.2499;3.9815;
-191.1000;0.2523;3.9966;
-190.8000;0.2532;3.9991;
-190.5000;0.2499;3.9966;
-190.2000;0.2572;4.0117;
-189.9000;0.2637;4.0293;
-189.6000;0.2499;3.9891;
-189.3000;0.2499;3.9891;
-189.0000;0.2499;3.9891;
-188.7000;0.2491;3.9941;
-188.4000;0.2507;3.9966;
-188.1000;0.2491;3.9840;
-187.8000;0.2491;3.9840;
-187.5000;0.2515;3.9941;
-187.2000;0.2491;3.9765;
-186.9000;0.2466;3.9715;
-186.6000;0.2515;3.9916;
-186.3000;0.2523;4.0042;
-186.0000;0.2540;4.0092;
-185.7000;0.2515;3.9916;
-185.4000;0.2499;3.9815;
-185.1000;0.2515;3.9765;
-184.8000;0.2523;3.9916;
-184.5000;0.2507;3.9916;
-184.2000;0.2491;3.9891;
-183.9000;0.2499;3.9865;
-183.6000;0.2515;3.9815;
-183.3000;0.2507;3.9891;
-183.0000;0.2540;3.9966;
-182.7000;0.2450;3.9715;
-182.4000;0.2532;3.9941;
-182.1000;0.2548;3.9991;
-181.8000;0.2475;3.9815;
-181.5000;0.2499;3.9891;
-181.2000;0.2507;3.9941;
-180.9000;0.2483;3.9765;
-180.6000;0.2532;3.9815;
-180.3000;0.2532;3.9815;
-180.0000;0.2491;3.9715;
-179.7000;0.2515;3.9815;
-179.4000;0.2507;3.9740;
-179.1000;0.2532;3.9815;
-178.8000;0.2499;3.9715;
-178.5000;0.2393;3.9438;
-178.2000;0.2523;3.9664;
-177.9000;0.2499;3.9614;
-177.6000;0.2475;3.9488;
-177.3000;0.2515;3.9689;
-177.0000;0.2377;3.9388;
-176.7000;0.2515;3.9815;
-176.4000;0.2483;3.9689;
-176.1000;0.2523;3.9765;
-175.8000;0.2499;3.9765;
-175.5000;0.2483;3.9740;
-175.2000;0.2507;3.9815;
-174.9000;0.2507;3.9891;
-174.6000;0.2532;3.9865;
-174.3000;0.2491;3.9815;
-174.0000;0.2483;3.9840;
-173.7000;0.2450;3.9689;
-173.4000;0.2540;3.9991;
-173.1000;0.2589;4.0117;
-172.8000;0.2466;3.9664;
-172.5000;0.2450;3.9614;
-172.2000;0.2515;3.9790;
-171.9000;0.2483;3.9689;
-171.6000;0.2450;3.9664;
-171.3000;0.2515;3.9941;
-171.0000;0.2564;4.0117;
-170.7000;0.2491;3.9815;
-170.4000;0.2434;3.9689;
-170.1000;0.2409;3.9664;
-169.8000;0.2491;3.9840;
-169.5000;0.2515;3.9916;
-169.2000;0.2532;3.9966;
-168.9000;0.2491;3.9891;
-168.6000;0.2458;3.9916;
-168.3000;0.2532;4.0042;
-168.0000;0.2515;4.0016;
-167.7000;0.2491;3.9916;
-167.4000;0.2483;3.9865;
-167.1000;0.2564;4.0167;
-166.8000;0.2523;4.0016;
-166.5000;0.2532;3.9991;
-166.2000;0.2515;3.9815;
-165.9000;0.2499;3.9664;
-165.6000;0.2523;3.9639;
-165.3000;0.2499;3.9589;
-165.0000;0.2507;3.9538;
-164.7000;0.2483;3.9488;
-164.4000;0.2483;3.9614;
-164.1000;0.2523;3.9664;
-163.8000;0.2515;3.9664;
-163.5000;0.2491;3.9689;
-163.2000;0.2515;3.9765;
-162.9000;0.2532;3.9815;
-162.6000;0.2556;3.9991;
-162.3000;0.2532;3.9941;
-162.0000;0.2523;3.9891;
-161.7000;0.2491;3.9765;
-161.4000;0.2515;3.9865;
-161.1000;0.2450;3.9740;
-160.8000;0.2499;3.9941;
-160.5000;0.2507;3.9891;
-160.2000;0.2597;4.0192;
-159.9000;0.2475;3.9966;
-159.6000;0.2491;4.0016;
-159.3000;0.2426;3.9891;
-159.0000;0.2499;3.9991;
-158.7000;0.2507;3.9891;
-158.4000;0.2491;3.9865;
-158.1000;0.2475;3.9840;
-157.8000;0.2507;3.9891;
-157.5000;0.2442;3.9664;
-157.2000;0.2515;3.9815;
-156.9000;0.2483;3.9689;
-156.6000;0.2507;3.9765;
-156.3000;0.2507;3.9765;
-156.0000;0.2540;3.9840;
-155.7000;0.2515;3.9790;
-155.4000;0.2507;3.9765;
-155.1000;0.2491;3.9790;
-154.8000;0.2532;3.9865;
-154.5000;0.2434;3.9639;
-154.2000;0.2515;3.9790;
-153.9000;0.2523;3.9790;
-153.6000;0.2580;3.9916;
-153.3000;0.2548;3.9891;
-153.0000;0.2499;3.9765;
-152.7000;0.2540;3.9966;
-152.4000;0.2507;3.9865;
-152.1000;0.2499;3.9840;
-151.8000;0.2532;4.0016;
-151.5000;0.2507;3.9891;
-151.2000;0.2499;3.9891;
-150.9000;0.2369;3.9388;
-150.6000;0.2532;3.9840;
-150.3000;0.2483;3.9815;
-150.0000;0.2532;3.9966;
-149.7000;0.2589;4.0042;
-149.4000;0.2491;3.9815;
-149.1000;0.2491;3.9840;
-148.8000;0.2499;3.9865;
-148.5000;0.2515;3.9840;
-148.2000;0.2442;3.9614;
-147.9000;0.2466;3.9715;
-147.6000;0.2507;3.9815;
-147.3000;0.2523;3.9941;
-147.0000;0.2515;3.9865;
-146.7000;0.2515;3.9865;
-146.4000;0.2515;3.9765;
-146.1000;0.2393;3.9413;
-145.8000;0.2589;4.0016;
-145.5000;0.2678;4.0192;
-145.2000;0.2507;3.9765;
-144.9000;0.2515;3.9790;
-144.6000;0.2442;3.9538;
-144.3000;0.2515;3.9815;
-144.0000;0.2515;3.9765;
-143.7000;0.2515;3.9790;
-143.4000;0.2499;3.9790;
-143.1000;0.2515;3.9865;
-142.8000;0.2515;3.9891;
-142.5000;0.2499;3.9865;
-142.2000;0.2507;3.9891;
-141.9000;0.2540;3.9991;
-141.6000;0.2483;3.9916;
-141.3000;0.2556;3.9966;
-141.0000;0.2507;3.9840;
-140.7000;0.2491;3.9790;
-140.4000;0.2507;3.9740;
-140.1000;0.2532;3.9715;
-139.8000;0.2532;3.9765;
-139.5000;0.2523;3.9790;
-139.2000;0.2507;3.9765;
-138.9000;0.2507;3.9840;
-138.6000;0.2491;3.9840;
-138.3000;0.2523;3.9991;
-138.0000;0.2523;3.9891;
-137.7000;0.2491;3.9765;
-137.4000;0.2572;3.9941;
-137.1000;0.2442;3.9488;
-136.8000;0.2507;3.9664;
-136.5000;0.2515;3.9639;
-136.2000;0.2499;3.9614;
-135.9000;0.2507;3.9740;
-135.6000;0.2523;3.9790;
-135.3000;0.2450;3.9664;
-135.0000;0.2548;3.9941;
-134.7000;0.2515;3.9815;
-134.4000;0.2523;3.9916;
-134.1000;0.2515;3.9865;
-133.8000;0.2507;3.9966;
-133.5000;0.2540;3.9991;
-133.2000;0.2523;3.9865;
-132.9000;0.2507;3.9790;
-132.6000;0.2523;3.9865;
-132.3000;0.2491;3.9765;
-132.0000;0.2434;3.9564;
-131.7000;0.2515;3.9891;
-131.4000;0.2515;3.9916;
-131.1000;0.2491;3.9790;
-130.8000;0.2507;3.9765;
-130.5000;0.2515;3.9790;
-130.2000;0.2483;3.9891;
-129.9000;0.2491;3.9941;
-129.6000;0.2483;3.9815;
-129.3000;0.2515;3.9840;
-129.0000;0.2548;3.9991;
-128.7000;0.2483;3.9815;
-128.4000;0.2491;3.9941;
-128.1000;0.2491;3.9941;
-127.8000;0.2523;3.9991;
-127.5000;0.2507;3.9916;
-127.2000;0.2540;4.0042;
-126.9000;0.2515;3.9966;
-126.6000;0.2507;3.9941;
-126.3000;0.2491;3.9790;
-126.0000;0.2507;3.9840;
-125.7000;0.2515;3.9916;
-125.4000;0.2499;3.9815;
-125.1000;0.2523;3.9815;
-124.8000;0.2442;3.9715;
-124.5000;0.2532;3.9941;
-124.2000;0.2523;3.9891;
-123.9000;0.2515;3.9891;
-123.6000;0.2507;3.9916;
-123.3000;0.2532;3.9966;
-123.0000;0.2540;3.9941;
-122.7000;0.2515;3.9790;
-122.4000;0.2515;3.9815;
-122.1000;0.2532;3.9840;
-121.8000;0.2507;3.9840;
-121.5000;0.2605;4.0092;
-121.2000;0.2491;3.9790;
-120.9000;0.2523;3.9815;
-120.6000;0.2499;3.9765;
-120.3000;0.2499;3.9815;
-120.0000;0.2523;3.9916;
-119.7000;0.2523;3.9941;
-119.4000;0.2515;4.0092;
-119.1000;0.2605;4.0343;
-118.8000;0.2483;3.9891;
-118.5000;0.2515;3.9865;
-118.2000;0.2442;3.9564;
-117.9000;0.2515;3.9815;
-117.6000;0.2580;3.9941;
-117.3000;0.2629;4.0092;
-117.0000;0.2409;3.9438;
-116.7000;0.2491;3.9639;
-116.4000;0.2515;3.9664;
-116.1000;0.2589;4.0016;
-115.8000;0.2540;3.9815;
-115.5000;0.2499;3.9740;
-115.2000;0.2507;3.9740;
-114.9000;0.2540;3.9941;
-114.6000;0.2515;3.9966;
-114.3000;0.2540;3.9991;
-114.0000;0.2458;3.9689;
-113.7000;0.2523;3.9891;
-113.4000;0.2515;3.9916;
-113.1000;0.2523;3.9941;
-112.8000;0.2556;3.9991;
-112.5000;0.2523;3.9865;
-112.2000;0.2532;3.9991;
-111.9000;0.2491;3.9815;
-111.6000;0.2409;3.9513;
-111.3000;0.2507;3.9891;
-111.0000;0.2564;4.0016;
-110.7000;0.2499;3.9715;
-110.4000;0.2483;3.9614;
-110.1000;0.2572;3.9865;
-109.8000;0.2532;3.9689;
-109.5000;0.2491;3.9589;
-109.2000;0.2515;3.9664;
-108.9000;0.2507;3.9689;
-108.6000;0.2523;3.9664;
-108.3000;0.2515;3.9689;
-108.0000;0.2483;3.9639;
-107.7000;0.2483;3.9538;
-107.4000;0.2499;3.9715;
-107.1000;0.2507;3.9765;
-106.8000;0.2491;3.9715;
-106.5000;0.2499;3.9765;
-106.2000;0.2515;3.9664;
-105.9000;0.2499;3.9614;
-105.6000;0.2466;3.9614;
-105.3000;0.2507;3.9689;
-105.0000;0.2523;3.9689;
-104.7000;0.2532;3.9765;
-104.4000;0.2409;3.9463;
-104.1000;0.2483;3.9664;
-103.8000;0.2515;3.9689;
-103.5000;0.2483;3.9639;
-103.2000;0.2532;3.9715;
-102.9000;0.2548;3.9689;
-102.6000;0.2523;3.9614;
-102.3000;0.2507;3.9639;
-102.0000;0.2532;3.9740;
-101.7000;0.2532;3.9765;
-101.4000;0.2409;3.9388;
-101.1000;0.2466;3.9564;
-100.8000;0.2523;3.9664;
-100.5000;0.2523;3.9689;
-100.2000;0.2523;3.9715;
-99.9000;0.2523;3.9715;
-99.6000;0.2507;3.9639;
-99.3000;0.2466;3.9715;
-99.0000;0.2515;3.9790;
-98.7000;0.2515;3.9815;
-98.4000;0.2523;3.9790;
-98.1000;0.2475;3.9715;
-97.8000;0.2515;3.9840;
-97.5000;0.2499;3.9865;
-97.2000;0.2515;3.9891;
-96.9000;0.2507;3.9916;
-96.6000;0.2515;4.0016;
-96.3000;0.2499;3.9916;
-96.0000;0.2532;3.9941;
-95.7000;0.2499;3.9865;
-95.4000;0.2515;3.9840;
-95.1000;0.2507;3.9790;
-94.8000;0.2499;3.9689;
-94.5000;0.2515;3.9815;
-94.2000;0.2507;3.9840;
-93.9000;0.2507;3.9865;
-93.6000;0.2499;3.9765;
-93.3000;0.2499;3.9840;
-93.0000;0.2507;3.9865;
-92.7000;0.2499;3.9916;
-92.4000;0.2523;3.9891;
-92.1000;0.2572;4.0067;
-91.8000;0.2532;3.9966;
-91.5000;0.2491;3.9815;
-91.2000;0.2507;3.9865;
-90.9000;0.2523;3.9765;
-90.6000;0.2499;3.9664;
-90.3000;0.2450;3.9564;
-90.0000;0.2515;3.9715;
-89.7000;0.2515;3.9614;
-89.4000;0.2491;3.9614;
-89.1000;0.2475;3.9589;
-88.8000;0.2515;3.9790;
-88.5000;0.2523;3.9815;
-88.2000;0.2491;3.9790;
-87.9000;0.2507;3.9765;
-87.6000;0.2507;3.9715;
-87.3000;0.2483;3.9664;
-87.0000;0.2523;3.9715;
-86.7000;0.2499;3.9564;
-86.4000;0.2507;3.9639;
-86.1000;0.2499;3.9689;
-85.8000;0.2491;3.9715;
-85.5000;0.2515;3.9815;
-85.2000;0.2515;3.9815;
-84.9000;0.2499;3.9790;
-84.6000;0.2523;3.9840;
-84.3000;0.2507;3.9689;
-84.0000;0.2499;3.9689;
-83.7000;0.2507;3.9689;
-83.4000;0.2499;3.9689;
-83.1000;0.2491;3.9589;
-82.8000;0.2515;3.9589;
-82.5000;0.2450;3.9488;
-82.2000;0.2532;3.9740;
-81.9000;0.2515;3.9765;
-81.6000;0.2515;3.9790;
-81.3000;0.2507;3.9689;
-81.0000;0.2523;3.9715;
-80.7000;0.2499;3.9589;
-80.4000;0.2523;3.9664;
-80.1000;0.2475;3.9614;
-79.8000;0.2475;3.9564;
-79.5000;0.2507;3.9564;
-79.2000;0.2515;3.9538;
-78.9000;0.2556;3.9715;
-78.6000;0.2507;3.9614;
-78.3000;0.2523;3.9664;
-78.0000;0.2499;3.9589;
-77.7000;0.2507;3.9538;
-77.4000;0.2393;3.9262;
-77.1000;0.2466;3.9413;
-76.8000;0.2515;3.9538;
-76.5000;0.2491;3.9488;
-76.2000;0.2540;3.9589;
-75.9000;0.2499;3.9438;
-75.6000;0.2450;3.9413;
-75.3000;0.2564;3.9815;
-75.0000;0.2475;3.9639;
-74.7000;0.2499;3.9715;
-74.4000;0.2548;3.9891;
-74.1000;0.2507;3.9740;
-73.8000;0.2507;3.9664;
-73.5000;0.2409;3.9438;
-73.2000;0.2483;3.9715;
-72.9000;0.2556;3.9916;
-72.6000;0.2507;3.9840;
-72.3000;0.2532;3.9840;
-72.0000;0.2491;3.9765;
-71.7000;0.2523;3.9865;
-71.4000;0.2507;3.9765;
-71.1000;0.2483;3.9740;
-70.8000;0.2515;3.9941;
-70.5000;0.2523;3.9815;
-70.2000;0.2499;3.9715;
-69.9000;0.2483;3.9740;
-69.6000;0.2507;3.9790;
-69.3000;0.2499;3.9765;
-69.0000;0.2507;3.9740;
-68.7000;0.2491;3.9664;
-68.4000;0.2515;3.9740;
-68.1000;0.2597;3.9916;
-67.8000;0.2483;3.9538;
-67.5000;0.2499;3.9513;
-67.2000;0.2507;3.9488;
-66.9000;0.2499;3.9538;
-66.6000;0.2507;3.9614;
-66.3000;0.2491;3.9589;
-66.0000;0.2507;3.9664;
-65.7000;0.2523;3.9740;
-65.4000;0.2523;3.9715;
-65.1000;0.2466;3.9614;
-64.8000;0.2605;4.0016;
-64.5000;0.2515;3.9815;
-64.2000;0.2548;3.9941;
-63.9000;0.2491;3.9790;
-63.6000;0.2515;3.9865;
-63.3000;0.2491;3.9689;
-63.0000;0.2491;3.9639;
-62.7000;0.2499;3.9664;
-62.4000;0.2483;3.9664;
-62.1000;0.2564;3.9891;
-61.8000;0.2499;3.9639;
-61.5000;0.2556;3.9740;
-61.2000;0.2515;3.9614;
-60.9000;0.2532;3.9614;
-60.6000;0.2475;3.9538;
-60.3000;0.2499;3.9639;
-60.0000;0.2499;3.9664;
-59.7000;0.2491;3.9664;
-59.4000;0.2499;3.9765;
-59.1000;0.2418;3.9438;
-58.8000;0.2523;3.9790;
-58.5000;0.2580;3.9815;
-58.2000;0.2515;3.9639;
-57.9000;0.2515;3.9614;
-57.6000;0.2515;3.9689;
-57.3000;0.2515;3.9715;
-57.0000;0.2499;3.9765;
-56.7000;0.2540;3.9790;
-56.4000;0.2499;3.9614;
-56.1000;0.2532;3.9664;
-55.8000;0.2491;3.9564;
-55.5000;0.2523;3.9639;
-55.2000;0.2499;3.9715;
-54.9000;0.2556;3.9891;
-54.6000;0.2515;3.9765;
-54.3000;0.2515;3.9664;
-54.0000;0.2491;3.9664;
-53.7000;0.2515;3.9815;
-53.4000;0.2532;3.9840;
-53.1000;0.2523;3.9865;
-52.8000;0.2393;3.9488;
-52.5000;0.2369;3.9463;
-52.2000;0.2523;3.9865;
-51.9000;0.2466;3.9664;
-51.6000;0.2507;3.9740;
-51.3000;0.2523;3.9840;
-51.0000;0.2450;3.9689;
-50.7000;0.2515;3.9765;
-50.4000;0.2532;3.9740;
-50.1000;0.2515;3.9589;
-49.8000;0.2491;3.9589;
-49.5000;0.2515;3.9614;
-49.2000;0.2523;3.9538;
-48.9000;0.2475;3.9362;
-48.6000;0.2499;3.9564;
-48.3000;0.2483;3.9438;
-48.0000;0.2523;3.9589;
-47.7000;0.2507;3.9664;
-47.4000;0.2499;3.9715;
-47.1000;0.2515;3.9790;
-46.8000;0.2515;3.9790;
-46.5000;0.2491;3.9765;
-46.2000;0.2637;4.0167;
-45.9000;0.2515;3.9765;
-45.6000;0.2499;3.9715;
-45.3000;0.2580;3.9815;
-45.0000;0.2483;3.9664;
-44.7000;0.2507;3.9689;
-44.4000;0.2564;3.9865;
-44.1000;0.2491;3.9740;
-43.8000;0.2499;3.9715;
-43.5000;0.2532;3.9815;
-43.2000;0.2466;3.9664;
-42.9000;0.2532;3.9840;
-42.6000;0.2515;3.9765;
-42.3000;0.2499;3.9790;
-42.0000;0.2540;3.9865;
-41.7000;0.2523;3.9790;
-41.4000;0.2540;3.9865;
-41.1000;0.2523;3.9765;
-40.8000;0.2532;3.9790;
-40.5000;0.2507;3.9815;
-40.2000;0.2515;3.9790;
-39.9000;0.2475;3.9664;
-39.6000;0.2523;3.9765;
-39.3000;0.2491;3.9689;
-39.0000;0.2483;3.9664;
-38.7000;0.2532;3.9689;
-38.4000;0.2548;3.9740;
-38.1000;0.2532;3.9740;
-37.8000;0.2466;3.9614;
-37.5000;0.2532;3.9790;
-37.2000;0.2499;3.9639;
-36.9000;0.2532;3.9740;
-36.6000;0.2572;3.9765;
-36.3000;0.2515;3.9589;
-36.0000;0.2580;3.9715;
-35.7000;0.2507;3.9564;
-35.4000;0.2483;3.9589;
-35.1000;0.2507;3.9639;
-34.8000;0.2499;3.9589;
-34.5000;0.2475;3.9564;
-34.2000;0.2523;3.9639;
-33.9000;0.2532;3.9689;
-33.6000;0.2450;3.9463;
-33.3000;0.2523;3.9664;
-33.0000;0.2515;3.9614;
-32.7000;0.2564;3.9689;
-32.4000;0.2507;3.9538;
-32.1000;0.2499;3.9589;
-31.8000;0.2523;3.9664;
-31.5000;0.2507;3.9639;
-31.2000;0.2523;3.9664;
-30.9000;0.2532;3.9614;
-30.6000;0.2475;3.9438;
-30.3000;0.2515;3.9438;
-30.0000;0.2580;3.9564;
-29.7000;0.2523;3.9513;
-29.4000;0.2507;3.9513;
-29.1000;0.2507;3.9614;
-28.8000;0.2515;3.9689;
-28.5000;0.2515;3.9664;
-28.2000;0.2507;3.9765;
-27.9000;0.2483;3.9740;
-27.6000;0.2515;3.9765;
-27.3000;0.2515;3.9715;
-27.0000;0.2523;3.9639;
-26.7000;0.2499;3.9488;
-26.4000;0.2523;3.9513;
-26.1000;0.2548;3.9589;
-25.8000;0.2499;3.9488;
-25.5000;0.2523;3.9538;
-25.2000;0.2426;3.9337;
-24.9000;0.2532;3.9589;
-24.6000;0.2532;3.9715;
-24.3000;0.2523;3.9765;
-24.0000;0.2491;3.9639;
-23.7000;0.2523;3.9639;
-23.4000;0.2507;3.9614;
-23.1000;0.2532;3.9664;
-22.8000;0.2515;3.9564;
-22.5000;0.2507;3.9614;
-22.2000;0.2572;3.9840;
-21.9000;0.2450;3.9463;
-21.6000;0.2491;3.9513;
-21.3000;0.2540;3.9589;
-21.0000;0.2507;3.9513;
-20.7000;0.2507;3.9564;
-20.4000;0.2426;3.9262;
-20.1000;0.2499;3.9413;
-19.8000;0.2540;3.9564;
-19.5000;0.2499;3.9639;
-19.2000;0.2507;3.9740;
-18.9000;0.2499;3.9740;
-18.6000;0.2532;3.9815;
-18.3000;0.2515;3.9639;
-18.0000;0.2532;3.9765;
-17.7000;0.2515;3.9790;
-17.4000;0.2491;3.9639;
-17.1000;0.2507;3.9765;
-16.8000;0.2499;3.9740;
-16.5000;0.2515;3.9790;
-16.2000;0.2507;3.9715;
-15.9000;0.2499;3.9689;
-15.6000;0.2499;3.9639;
-15.3000;0.2523;3.9689;
-15.0000;0.2540;3.9790;
-14.7000;0.2499;3.9614;
-14.4000;0.2491;3.9589;
-14.1000;0.2491;3.9614;
-13.8000;0.2499;3.9589;
-13.5000;0.2507;3.9639;
-13.2000;0.2491;3.9664;
-12.9000;0.2499;3.9639;
-12.6000;0.2515;3.9664;
-12.3000;0.2515;3.9639;
-12.0000;0.2515;3.9589;
-11.7000;0.2458;3.9488;
-11.4000;0.2572;3.9765;
-11.1000;0.2523;3.9664;
-10.8000;0.2507;3.9564;
-10.5000;0.2483;3.9589;
-10.2000;0.2491;3.9614;
-9.9000;0.2499;3.9614;
-9.6000;0.2532;3.9664;
-9.3000;0.2458;3.9513;
-9.0000;0.2499;3.9463;
-8.7000;0.2515;3.9664;
-8.4000;0.2491;3.9564;
-8.1000;0.2507;3.9564;
-7.8000;0.2483;3.9513;
-7.5000;0.2507;3.9664;
-7.2000;0.2483;3.9689;
-6.9000;0.2499;3.9689;
-6.6000;0.2458;3.9715;
-6.3000;0.2507;3.9815;
-6.0000;0.2507;3.9840;
-5.7000;0.2515;3.9740;
-5.4000;0.2515;3.9664;
-5.1000;0.2515;3.9664;
-4.8000;0.2507;3.9564;
-4.5000;0.2507;3.9664;
-4.2000;0.2507;3.9689;
-3.9000;0.2515;3.9639;
-3.6000;0.2523;3.9664;
-3.3000;0.2426;3.9337;
-3.0000;0.2507;3.9614;
-2.7000;0.2515;3.9589;
-2.4000;0.2499;3.9488;
-2.1000;0.2548;3.9639;
-1.8000;0.2515;3.9564;
-1.5000;0.2499;3.9589;
-1.2000;0.2507;3.9715;
-0.9000;0.2491;3.9614;
-0.6000;0.2515;3.9639;
-0.3000;0.2540;3.9689;
0.0000;0.2540;3.9689;
0.3000;0.2491;3.9765;
0.6000;0.2556;4.0318;
0.9000;0.2564;4.0645;
1.2000;0.2572;4.1022;
1.5000;0.2589;4.1375;
1.8000;0.2564;4.1676;
2.1000;0.2629;4.2179;
2.4000;0.2621;4.2456;
2.7000;0.2629;4.2733;
3.0000;0.2523;4.2607;
3.3000;0.2662;4.3160;
3.6000;0.2654;4.3311;
3.9000;0.2735;4.3663;
4.2000;0.2662;4.3663;
4.5000;0.2694;4.3814;
4.8000;0.2686;4.3965;
5.1000;0.2678;4.4041;
5.4000;0.2694;4.4041;
5.7000;0.2702;4.4091;
6.0000;0.2686;4.4066;
6.3000;0.2711;4.4066;
6.6000;0.2702;4.3990;
6.9000;0.2702;4.4091;
7.2000;0.2694;4.4116;
7.5000;0.2719;4.4192;
7.8000;0.2702;4.4066;
8.1000;0.2751;4.4116;
8.4000;0.2719;4.4066;
8.7000;0.2719;4.4066;
9.0000;0.2686;4.4091;
9.3000;0.2605;4.3814;
9.6000;0.2719;4.4166;
9.9000;0.2686;4.4192;
10.2000;0.2686;4.4141;
10.5000;0.2702;4.4141;
10.8000;0.2670;4.4091;
11.1000;0.2719;4.4192;
11.4000;0.2865;4.4519;
11.7000;0.2694;4.4015;
12.0000;0.2702;4.4041;
12.3000;0.2621;4.3764;
12.6000;0.2727;4.4066;
12.9000;0.2589;4.3890;
13.2000;0.2694;4.4242;
13.5000;0.2678;4.4141;
13.8000;0.2719;4.4217;
14.1000;0.2670;4.4066;
14.4000;0.2686;4.4091;
14.7000;0.2686;4.4091;
15.0000;0.2759;4.4368;
15.3000;0.2678;4.4192;
15.6000;0.2670;4.4141;
15.9000;0.2694;4.4192;
16.2000;0.2702;4.4217;
16.5000;0.2711;4.4292;
16.8000;0.2694;4.4267;
17.1000;0.2702;4.4317;
17.4000;0.2702;4.4418;
17.7000;0.2727;4.4393;
18.0000;0.2678;4.4217;
18.3000;0.2702;4.4242;
18.6000;0.2784;4.4544;
18.9000;0.2662;4.4192;
19.2000;0.2702;4.4368;
19.5000;0.2686;4.4242;
19.8000;0.2678;4.4166;
20.1000;0.2686;4.4166;
20.4000;0.2686;4.4116;
20.7000;0.2784;4.4368;
21.0000;0.2711;4.4217;
21.3000;0.2702;4.4166;
21.6000;0.2686;4.4166;
21.9000;0.2702;4.4292;
22.2000;0.2694;4.4292;
22.5000;0.2686;4.4166;
22.8000;0.2694;4.4242;
23.1000;0.2719;4.4342;
23.4000;0.2694;4.4393;
23.7000;0.2727;4.4493;
24.0000;0.2727;4.4619;
24.3000;0.2711;4.4569;
24.6000;0.2702;4.4569;
24.9000;0.2686;4.4569;
25.2000;0.2678;4.4468;
25.5000;0.2686;4.4468;
25.8000;0.2776;4.4644;
26.1000;0.2711;4.4493;
26.4000;0.2597;4.4116;
26.7000;0.2694;4.4368;
27.0000;0.2686;4.4443;
27.3000;0.2711;4.4519;
27.6000;0.2727;4.4519;
27.9000;0.2694;4.4393;
28.2000;0.2694;4.4368;
28.5000;0.2735;4.4418;
28.8000;0.2727;4.4418;
29.1000;0.2727;4.4443;
29.4000;0.2694;4.4418;
29.7000;0.2654;4.4368;
30.0000;0.2784;4.4795;
30.3000;0.2686;4.4468;
30.6000;0.2719;4.4569;
30.9000;0.2702;4.4519;
31.2000;0.2678;4.4317;
31.5000;0.2686;4.4418;
31.8000;0.2702;4.4493;
32.1000;0.2686;4.4544;
32.4000;0.2702;4.4619;
32.7000;0.2702;4.4619;
33.0000;0.2735;4.4695;
33.3000;0.2719;4.4569;
33.6000;0.2719;4.4544;
33.9000;0.2637;4.4242;
34.2000;0.2694;4.4368;
34.5000;0.2694;4.4317;
34.8000;0.2711;4.4317;
35.1000;0.2686;4.4267;
35.4000;0.2719;4.4393;
35.7000;0.2694;4.4317;
36.0000;0.2727;4.4342;
36.3000;0.2702;4.4393;
36.6000;0.2686;4.4342;
36.9000;0.2759;4.4544;
37.2000;0.2702;4.4418;
37.5000;0.2694;4.4468;
37.8000;0.2597;4.4166;
38.1000;0.2662;4.4393;
38.4000;0.2776;4.4695;
38.7000;0.2694;4.4493;
39.0000;0.2702;4.4443;
39.3000;0.2702;4.4418;
39.6000;0.2597;4.4166;
39.9000;0.2751;4.4594;
40.2000;0.2686;4.4393;
40.5000;0.2735;4.4493;
40.8000;0.2694;4.4368;
41.1000;0.2735;4.4519;
41.4000;0.2702;4.4418;
41.7000;0.2686;4.4317;
42.0000;0.2670;4.4242;
42.3000;0.2702;4.4292;
42.6000;0.2686;4.4242;
42.9000;0.2702;4.4217;
43.2000;0.2678;4.4267;
43.5000;0.2694;4.4342;
43.8000;0.2727;4.4342;
44.1000;0.2686;4.4292;
44.4000;0.2727;4.4342;
44.7000;0.2694;4.4242;
45.0000;0.2719;4.4342;
45.3000;0.2678;4.4166;
45.6000;0.2686;4.4192;
45.9000;0.2711;4.4242;
46.2000;0.2694;4.4192;
46.5000;0.2670;4.4141;
46.8000;0.2670;4.4192;
47.1000;0.2678;4.4166;
47.4000;0.2702;4.4368;
47.7000;0.2694;4.4242;
48.0000;0.2719;4.4393;
48.3000;0.2694;4.4317;
48.6000;0.2662;4.4217;
48.9000;0.2711;4.4317;
49.2000;0.2678;4.4242;
49.5000;0.2670;4.4267;
49.8000;0.2686;4.4267;
50.1000;0.2800;4.4569;
50.4000;0.2694;4.4217;
50.7000;0.2654;4.4091;
51.0000;0.2662;4.4166;
51.3000;0.2678;4.4292;
51.6000;0.2678;4.4242;
51.9000;0.2694;4.4292;
52.2000;0.2670;4.4267;
52.5000;0.2678;4.4242;
52.8000;0.2646;4.4091;
53.1000;0.2694;4.4292;
53.4000;0.2686;4.4242;
53.7000;0.2686;4.4242;
54.0000;0.2686;4.4292;
54.3000;0.2686;4.4342;
54.6000;0.2694;4.4393;
54.9000;0.2702;4.4368;
55.2000;0.2711;4.4393;
55.5000;0.2694;4.4368;
55.8000;0.2662;4.4217;
56.1000;0.2751;4.4468;
56.4000;0.2694;4.4267;
56.7000;0.2719;4.4317;
57.0000;0.2735;4.4468;
57.3000;0.2702;4.4468;
57.6000;0.2711;4.4493;
57.9000;0.2719;4.4493;
58.2000;0.2694;4.4443;
58.5000;0.2621;4.4192;
58.8000;0.2694;4.4342;
59.1000;0.2711;4.4292;
59.4000;0.2702;4.4393;
59.7000;0.2686;4.4342;
60.0000;0.2686;4.4317;
60.3000;0.2719;4.4317;
60.6000;0.2678;4.4192;
60.9000;0.2702;4.4217;
61.2000;0.2686;4.4192;
61.5000;0.2686;4.4091;
61.8000;0.2816;4.4443;
62.1000;0.2694;4.4041;
62.4000;0.2711;4.4141;
62.7000;0.2686;4.4116;
63.0000;0.2711;4.4217;
63.3000;0.2694;4.4267;
63.6000;0.2678;4.4217;
63.9000;0.2711;4.4242;
64.2000;0.2751;4.4468;
64.5000;0.2751;4.4544;
64.8000;0.2670;4.4267;
65.1000;0.2670;4.4292;
65.4000;0.2678;4.4217;
65.7000;0.2702;4.4166;
66.0000;0.2654;4.3965;
66.3000;0.2702;4.4192;
66.6000;0.2702;4.4166;
66.9000;0.2678;4.4116;
67.2000;0.2678;4.4141;
67.5000;0.2702;4.4242;
67.8000;0.2727;4.4317;
68.1000;0.2678;4.4217;
68.4000;0.2662;4.4217;
68.7000;0.2662;4.4192;
69.0000;0.2719;4.4368;
69.3000;0.2686;4.4317;
69.6000;0.2833;4.4720;
69.9000;0.2580;4.3940;
70.2000;0.2686;4.4342;
70.5000;0.2702;4.4393;
70.8000;0.2694;4.4418;
71.1000;0.2678;4.4342;
71.4000;0.2719;4.4493;
71.7000;0.2621;4.4192;
72.0000;0.2702;4.4418;
72.3000;0.2678;4.4342;
72.6000;0.2711;4.4493;
72.9000;0.2686;4.4393;
73.2000;0.2711;4.4569;
73.5000;0.2670;4.4493;
73.8000;0.2694;4.4544;
74.1000;0.2670;4.4493;
74.4000;0.2727;4.4695;
74.7000;0.2711;4.4519;
75.0000;0.2686;4.4393;
75.3000;0.2694;4.4468;
75.6000;0.2678;4.4443;
75.9000;0.2670;4.4468;
76.2000;0.2662;4.4443;
76.5000;0.2686;4.4468;
76.8000;0.2654;4.4418;
77.1000;0.2621;4.4192;
77.4000;0.2670;4.4418;
77.7000;0.2686;4.4519;
78.0000;0.2743;4.4619;
78.3000;0.2686;4.4443;
78.6000;0.2678;4.4519;
78.9000;0.2735;4.4569;
79.2000;0.2686;4.4493;
79.5000;0.2719;4.4544;
79.8000;0.2678;4.4393;
80.1000;0.2678;4.4443;
80.4000;0.2646;4.4393;
80.7000;0.2694;4.4443;
81.0000;0.2589;4.4166;
81.3000;0.2637;4.4217;
81.6000;0.2694;4.4368;
81.9000;0.2711;4.4368;
82.2000;0.2759;4.4468;
82.5000;0.2678;4.4141;
82.8000;0.2662;4.4141;
83.1000;0.2702;4.4217;
83.4000;0.2686;4.4242;
83.7000;0.2711;4.4368;
84.0000;0.2711;4.4368;
84.3000;0.2670;4.4267;
84.6000;0.2678;4.4192;
84.9000;0.2727;4.4393;
85.2000;0.2686;4.4368;
85.5000;0.2646;4.4242;
85.8000;0.2694;4.4342;
86.1000;0.2678;4.4292;
86.4000;0.2702;4.4292;
86.7000;0.2702;4.4217;
87.0000;0.2727;4.4292;
87.3000;0.2678;4.4141;
87.6000;0.2686;4.4217;
87.9000;0.2727;4.4418;
88.2000;0.2686;4.4192;
88.5000;0.2621;4.4041;
88.8000;0.2654;4.4217;
89.1000;0.2711;4.4317;
89.4000;0.2743;4.4468;
89.7000;0.2711;4.4468;
90.0000;0.2702;4.4342;
90.3000;0.2702;4.4368;
90.6000;0.2662;4.4292;
90.9000;0.2670;4.4267;
91.2000;0.2702;4.4368;
91.5000;0.2662;4.4242;
91.8000;0.2605;4.3990;
92.1000;0.2686;4.4242;
92.4000;0.2686;4.4217;
92.7000;0.2694;4.4242;
93.0000;0.2662;4.4091;
93.3000;0.2654;4.4066;
93.6000;0.2743;4.4292;
93.9000;0.2727;4.4292;
94.2000;0.2686;4.4317;
94.5000;0.2686;4.4418;
94.8000;0.2735;4.4544;
95.1000;0.2686;4.4468;
95.4000;0.2694;4.4368;
95.7000;0.2751;4.4544;
96.0000;0.2743;4.4544;
96.3000;0.2694;4.4443;
96.6000;0.2597;4.4192;
96.9000;0.2686;4.4443;
97.2000;0.2711;4.4519;
97.5000;0.2727;4.4418;
97.8000;0.2678;4.4192;
98.1000;0.2719;4.4317;
98.4000;0.2759;4.4368;
98.7000;0.2686;4.4192;
99.0000;0.2654;4.4192;
99.3000;0.2686;4.4418;
99.6000;0.2662;4.4317;
99.9000;0.2629;4.4217;
100.2000;0.2694;4.4443;
100.5000;0.2678;4.4443;
100.8000;0.2702;4.4393;
101.1000;0.2678;4.4242;
101.4000;0.2670;4.4267;
101.7000;0.2694;4.4342;
102.0000;0.2686;4.4267;
102.3000;0.2711;4.4317;
102.6000;0.2662;4.4267;
102.9000;0.2711;4.4418;
103.2000;0.2686;4.4342;
103.5000;0.2702;4.4342;
103.8000;0.2670;4.4292;
104.1000;0.2670;4.4292;
104.4000;0.2759;4.4519;
104.7000;0.2654;4.4317;
105.0000;0.2646;4.4292;
105.3000;0.2654;4.4292;
105.6000;0.2719;4.4493;
105.9000;0.2694;4.4443;
106.2000;0.2702;4.4519;
106.5000;0.2605;4.4217;
106.8000;0.2662;4.4393;
107.1000;0.2711;4.4619;
107.4000;0.2792;4.4871;
107.7000;0.2727;4.4644;
108.0000;0.2686;4.4468;
108.3000;0.2678;4.4393;
108.6000;0.2702;4.4443;
108.9000;0.2727;4.4619;
109.2000;0.2670;4.4393;
109.5000;0.2702;4.4418;
109.8000;0.2654;4.4368;
110.1000;0.2678;4.4443;
110.4000;0.2678;4.4544;
110.7000;0.2646;4.4493;
111.0000;0.2686;4.4569;
111.3000;0.2702;4.4619;
111.6000;0.2670;4.4468;
111.9000;0.2702;4.4519;
112.2000;0.2670;4.4368;
112.5000;0.2654;4.4292;
112.8000;0.2678;4.4317;
113.1000;0.2654;4.4242;
113.4000;0.2792;4.4519;
113.7000;0.2694;4.4242;
114.0000;0.2694;4.4292;
114.3000;0.2686;4.4292;
114.6000;0.2694;4.4342;
114.9000;0.2694;4.4292;
115.2000;0.2678;4.4141;
115.5000;0.2654;4.4066;
115.8000;0.2670;4.4141;
116.1000;0.2711;4.4368;
116.4000;0.2686;4.4342;
116.7000;0.2662;4.4267;
117.0000;0.2686;4.4267;
117.3000;0.2686;4.4267;
117.6000;0.2686;4.4267;
117.9000;0.2678;4.4192;
118.2000;0.2670;4.4217;
118.5000;0.2686;4.4317;
118.8000;0.2686;4.4292;
119.1000;0.2662;4.4368;
119.4000;0.2702;4.4468;
119.7000;0.2662;4.4317;
120.0000;0.2686;4.4418;
120.3000;0.2662;4.4368;
120.6000;0.2686;4.4368;
120.9000;0.2662;4.4217;
121.2000;0.2654;4.4217;
121.5000;0.2711;4.4418;
121.8000;0.2702;4.4443;
122.1000;0.2678;4.4317;
122.4000;0.2727;4.4368;
122.7000;0.2694;4.4317;
123.0000;0.2637;4.4267;
123.3000;0.2670;4.4342;
123.6000;0.2646;4.4393;
123.9000;0.2694;4.4569;
124.2000;0.2694;4.4544;
124.5000;0.2702;4.4569;
124.8000;0.2694;4.4468;
125.1000;0.2678;4.4493;
125.4000;0.2719;4.4644;
125.7000;0.2662;4.4544;
126.0000;0.2662;4.4493;
126.3000;0.2686;4.4519;
126.6000;0.2694;4.4493;
126.9000;0.2686;4.4393;
127.2000;0.2686;4.4418;
127.5000;0.2686;4.4393;
127.8000;0.2702;4.4393;
128.1000;0.2694;4.4342;
128.4000;0.2784;4.4594;
128.7000;0.2686;4.4317;
129.0000;0.2572;4.4116;
129.3000;0.2670;4.4418;
129.6000;0.2670;4.4468;
129.9000;0.2678;4.4443;
130.2000;0.2670;4.4468;
130.5000;0.2751;4.4669;
130.8000;0.2629;4.4368;
131.1000;0.2694;4.4418;
131.4000;0.2662;4.4443;
131.7000;0.2613;4.4242;
132.0000;0.2702;4.4493;
132.3000;0.2678;4.4468;
132.6000;0.2670;4.4393;
132.9000;0.2694;4.4342;
133.2000;0.2759;4.4519;
133.5000;0.2702;4.4418;
133.8000;0.2670;4.4418;
134.1000;0.2670;4.4493;
134.4000;0.2694;4.4519;
134.7000;0.2694;4.4519;
135.0000;0.2670;4.4443;
135.3000;0.2670;4.4493;
135.6000;0.2662;4.4468;
135.9000;0.2678;4.4519;
136.2000;0.2678;4.4519;
136.5000;0.2694;4.4594;
136.8000;0.2694;4.4493;
137.1000;0.2694;4.4393;
137.4000;0.2686;4.4418;
137.7000;0.2694;4.4393;
138.0000;0.2702;4.4292;
138.3000;0.2694;4.4217;
138.6000;0.2670;4.4116;
138.9000;0.2686;4.4267;
139.2000;0.2686;4.4368;
139.5000;0.2654;4.4342;
139.8000;0.2670;4.4393;
140.1000;0.2694;4.4443;
140.4000;0.2686;4.4393;
140.7000;0.2678;4.4393;
141.0000;0.2629;4.4192;
141.3000;0.2686;4.4418;
141.6000;0.2670;4.4468;
141.9000;0.2686;4.4468;
142.2000;0.2670;4.4317;
142.5000;0.2694;4.4418;
142.8000;0.2727;4.4569;
143.1000;0.2711;4.4519;
143.4000;0.2678;4.4468;
143.7000;0.2646;4.4368;
144.0000;0.2711;4.4569;
144.3000;0.2670;4.4493;
144.6000;0.2670;4.4468;
144.9000;0.2678;4.4368;
145.2000;0.2702;4.4519;
145.5000;0.2654;4.4368;
145.8000;0.2654;4.4217;
146.1000;0.2621;4.4192;
146.4000;0.2686;4.4368;
146.7000;0.2702;4.4468;
147.0000;0.2678;4.4393;
147.3000;0.2678;4.4393;
147.6000;0.2694;4.4468;
147.9000;0.2694;4.4544;
148.2000;0.2686;4.4519;
148.5000;0.2694;4.4544;
148.8000;0.2686;4.4443;
149.1000;0.2702;4.4519;
149.4000;0.2678;4.4393;
149.7000;0.2694;4.4418;
150.0000;0.2654;4.4342;
150.3000;0.2694;4.4493;
150.6000;0.2678;4.4493;
150.9000;0.2702;4.4544;
151.2000;0.2662;4.4443;
151.5000;0.2694;4.4493;
151.8000;0.2711;4.4594;
152.1000;0.2646;4.4418;
152.4000;0.2686;4.4544;
152.7000;0.2702;4.4669;
153.0000;0.2613;4.4342;
153.3000;0.2694;4.4644;
153.6000;0.2702;4.4569;
153.9000;0.2686;4.4519;
154.2000;0.2694;4.4519;
154.5000;0.2629;4.4443;
154.8000;0.2702;4.4695;
155.1000;0.2678;4.4669;
155.4000;0.2637;4.4519;
155.7000;0.2727;4.4745;
156.0000;0.2686;4.4669;
156.3000;0.2686;4.4669;
156.6000;0.2670;4.4695;
156.9000;0.2670;4.4720;
157.2000;0.2727;4.4820;
157.5000;0.2670;4.4644;
157.8000;0.2694;4.4669;
158.1000;0.2670;4.4669;
158.4000;0.2686;4.4644;
158.7000;0.2694;4.4669;
159.0000;0.2662;4.4544;
159.3000;0.2694;4.4619;
159.6000;0.2662;4.4468;
159.9000;0.2670;4.4443;
160.2000;0.2686;4.4493;
160.5000;0.2711;4.4544;
160.8000;0.2694;4.4493;
161.1000;0.2686;4.4468;
161.4000;0.2686;4.4544;
161.7000;0.2670;4.4493;
162.0000;0.2662;4.4418;
162.3000;0.2678;4.4519;
162.6000;0.2678;4.4443;
162.9000;0.2662;4.4519;
163.2000;0.2686;4.4519;
163.5000;0.2654;4.4393;
163.8000;0.2768;4.4644;
164.1000;0.2727;4.4544;
164.4000;0.2694;4.4468;
164.7000;0.2694;4.4418;
165.0000;0.2702;4.4267;
165.3000;0.2678;4.4116;
165.6000;0.2678;4.4141;
165.9000;0.2678;4.4066;
166.2000;0.2670;4.3940;
166.5000;0.2670;4.3965;
166.8000;0.2678;4.4015;
167.1000;0.2694;4.4116;
167.4000;0.2637;4.4066;
167.7000;0.2670;4.4166;
168.0000;0.2694;4.4242;
168.3000;0.2743;4.4368;
168.6000;0.2686;4.4217;
168.9000;0.2686;4.4242;
169.2000;0.2662;4.4192;
169.5000;0.2711;4.4393;
169.8000;0.2678;4.4368;
170.1000;0.2727;4.4468;
170.4000;0.2662;4.4317;
170.7000;0.2654;4.4368;
171.0000;0.2589;4.4141;
171.3000;0.2686;4.4317;
171.6000;0.2662;4.4317;
171.9000;0.2670;4.4317;
172.2000;0.2678;4.4317;
172.5000;0.2678;4.4317;
172.8000;0.2678;4.4393;
173.1000;0.2711;4.4368;
173.4000;0.2702;4.4292;
173.7000;0.2686;4.4217;
174.0000;0.2662;4.4217;
174.3000;0.2678;4.4342;
174.6000;0.2865;4.4770;
174.9000;0.2662;4.4192;
175.2000;0.2654;4.4141;
175.5000;0.2686;4.4267;
175.8000;0.2678;4.4267;
176.1000;0.2678;4.4317;
176.4000;0.2678;4.4292;
176.7000;0.2662;4.4317;
177.0000;0.2711;4.4468;
177.3000;0.2694;4.4393;
177.6000;0.2686;4.4418;
177.9000;0.2646;4.4217;
178.2000;0.2670;4.4342;
178.5000;0.2727;4.4443;
178.8000;0.2686;4.4317;
179.1000;0.2678;4.4292;
179.4000;0.2637;4.4192;
179.7000;0.2768;4.4569;
180.0000;0.2759;4.4418;
180.3000;0.2670;4.4217;
180.6000;0.2670;4.4217;
180.9000;0.2621;4.4041;
181.2000;0.2711;4.4368;
181.5000;0.2686;4.4342;
181.8000;0.2686;4.4091;
182.1000;0.2719;4.4116;
182.4000;0.2605;4.3890;
182.7000;0.2694;4.4091;
183.0000;0.2670;4.3965;
183.3000;0.2694;4.4015;
183.6000;0.2686;4.4066;
183.9000;0.2654;4.4015;
184.2000;0.2678;4.4141;
184.5000;0.2694;4.4192;
184.8000;0.2784;4.4468;
185.1000;0.2686;4.4242;
185.4000;0.2686;4.4292;
185.7000;0.2686;4.4342;
186.0000;0.2678;4.4368;
186.3000;0.2702;4.4443;
186.6000;0.2662;4.4393;
186.9000;0.2670;4.4317;
187.2000;0.2678;4.4317;
187.5000;0.2670;4.4242;
187.8000;0.2678;4.4342;
188.1000;0.2662;4.4317;
188.4000;0.2670;4.4418;
188.7000;0.2702;4.4418;
189.0000;0.2719;4.4468;
189.3000;0.2686;4.4443;
189.6000;0.2686;4.4443;
189.9000;0.2719;4.4418;
190.2000;0.2686;4.4342;
190.5000;0.2670;4.4368;
190.8000;0.2686;4.4368;
191.1000;0.2678;4.4292;
191.4000;0.2670;4.4242;
191.7000;0.2629;4.4242;
192.0000;0.2670;4.4368;
192.3000;0.2686;4.4418;
192.6000;0.2662;4.4317;
192.9000;0.2629;4.4166;
193.2000;0.2670;4.4292;
193.5000;0.2686;4.4267;
193.8000;0.2678;4.4242;
194.1000;0.2678;4.4292;
194.4000;0.2670;4.4217;
194.7000;0.2662;4.4242;
195.0000;0.2702;4.4368;
195.3000;0.2678;4.4342;
195.6000;0.2678;4.4317;
195.9000;0.2751;4.4544;
196.2000;0.2686;4.4342;
196.5000;0.2711;4.4443;
196.8000;0.2849;4.4820;
197.1000;0.2646;4.4242;
197.4000;0.2694;4.4342;
197.7000;0.2678;4.4192;
198.0000;0.2678;4.4242;
198.3000;0.2686;4.4267;
198.6000;0.2637;4.4141;
198.9000;0.2694;4.4292;
199.2000;0.2686;4.4292;
199.5000;0.2662;4.4267;
199.8000;0.2686;4.4393;
200.1000;0.2694;4.4368;
200.4000;0.2670;4.4267;
200.7000;0.2654;4.4267;
201.0000;0.2711;4.4393;
201.3000;0.2678;4.4342;
201.6000;0.2434;4.3487;
201.9000;0.2743;4.4317;
202.2000;0.2678;4.4192;
202.5000;0.2629;4.4091;
202.8000;0.2621;4.4041;
203.1000;0.2580;4.3915;
203.4000;0.2678;4.4292;
203.7000;0.2784;4.4594;
204.0000;0.2792;4.4468;
204.3000;0.2670;4.4141;
204.6000;0.2646;4.4041;
204.9000;0.2694;4.4091;
205.2000;0.2670;4.3965;
205.5000;0.2670;4.3990;
205.8000;0.2670;4.3990;
206.1000;0.2678;4.4116;
206.4000;0.2694;4.4166;
206.7000;0.2686;4.4166;
207.0000;0.2646;4.4066;
207.3000;0.2662;4.4116;
207.6000;0.2678;4.4091;
207.9000;0.2719;4.4141;
208.2000;0.2678;4.4066;
208.5000;0.2670;4.4066;
208.8000;0.2662;4.4066;
209.1000;0.2670;4.4041;
209.4000;0.2670;4.4091;
209.7000;0.2670;4.4041;
210.0000;0.2572;4.3764;
210.3000;0.2694;4.4091;
210.6000;0.2686;4.4116;
210.9000;0.2646;4.3990;
211.2000;0.2670;4.4091;
211.5000;0.2654;4.4066;
211.8000;0.2662;4.4116;
212.1000;0.2670;4.4166;
212.4000;0.2662;4.4192;
212.7000;0.2662;4.4166;
213.0000;0.2678;4.4116;
213.3000;0.2678;4.4116;
213.6000;0.2654;4.4015;
213.9000;0.2662;4.4015;
214.2000;0.2678;4.4141;
214.5000;0.2654;4.4091;
214.8000;0.2670;4.4116;
215.1000;0.2694;4.4242;
215.4000;0.2694;4.4242;
215.7000;0.2654;4.4015;
216.0000;0.2670;4.4015;
216.3000;0.2678;4.3940;
216.6000;0.2662;4.3990;
216.9000;0.2678;4.4041;
217.2000;0.2694;4.4091;
217.5000;0.2702;4.4066;
217.8000;0.2686;4.4116;
218.1000;0.2686;4.4217;
218.4000;0.2646;4.4166;
218.7000;0.2694;4.4267;
219.0000;0.2662;4.4166;
219.3000;0.2678;4.4192;
219.6000;0.2597;4.3965;
219.9000;0.2686;4.4116;
220.2000;0.2670;4.4116;
220.5000;0.2629;4.4116;
220.8000;0.2784;4.4519;
221.1000;0.2654;4.4242;
221.4000;0.2727;4.4393;
221.7000;0.2678;4.4242;
222.0000;0.2678;4.4267;
222.3000;0.2678;4.4242;
222.6000;0.2743;4.4443;
222.9000;0.2686;4.4368;
223.2000;0.2694;4.4292;
223.5000;0.2646;4.4217;
223.8000;0.2548;4.3965;
224.1000;0.2654;4.4267;
224.4000;0.2670;4.4317;
224.7000;0.2702;4.4317;
225.0000;0.2711;4.4292;
225.3000;0.2670;4.4242;
225.6000;0.2678;4.4267;
225.9000;0.2621;4.4166;
226.2000;0.2686;4.4317;
226.5000;0.2759;4.4594;
226.8000;0.2702;4.4418;
227.1000;0.2727;4.4493;
227.4000;0.2670;4.4267;
227.7000;0.2727;4.4317;
228.0000;0.2727;4.4368;
228.3000;0.2702;4.4342;
228.6000;0.2686;4.4267;
228.9000;0.2629;4.4066;
229.2000;0.2694;4.4192;
229.5000;0.2702;4.4267;
229.8000;0.2702;4.4342;
230.1000;0.2662;4.4267;
230.4000;0.2711;4.4267;
230.7000;0.2686;4.4267;
231.0000;0.2702;4.4317;
231.3000;0.2686;4.4317;
231.6000;0.2711;4.4418;
231.9000;0.2719;4.4468;
232.2000;0.2670;4.4443;
232.5000;0.2662;4.4342;
232.8000;0.2702;4.4368;
233.1000;0.2686;4.4342;
233.4000;0.2686;4.4368;
233.7000;0.2662;4.4342;
234.0000;0.2654;4.4393;
234.3000;0.2694;4.4519;
234.6000;0.2686;4.4443;
234.9000;0.2678;4.4317;
235.2000;0.2662;4.4317;
235.5000;0.2694;4.4393;
235.8000;0.2654;4.4292;
236.1000;0.2694;4.4292;
236.4000;0.2686;4.4267;
236.7000;0.2670;4.4141;
237.0000;0.2702;4.4267;
237.3000;0.2670;4.4166;
237.6000;0.2654;4.4217;
237.9000;0.2711;4.4468;
238.2000;0.2686;4.4393;
238.5000;0.2711;4.4493;
238.8000;0.2662;4.4317;
239.1000;0.2662;4.4192;
239.4000;0.2670;4.4192;
239.7000;0.2621;4.4041;
240.0000;0.2662;4.4091;
240.3000;0.2605;4.3915;
240.6000;0.2678;4.4091;
240.9000;0.2694;4.4116;
241.2000;0.2646;4.4015;
241.5000;0.2702;4.4066;
241.8000;0.2670;4.4041;
242.1000;0.2662;4.4066;
242.4000;0.2678;4.4166;
242.7000;0.2776;4.4519;
243.0000;0.2743;4.4342;
243.3000;0.2678;4.4292;
243.6000;0.2768;4.4619;
243.9000;0.2678;4.4368;
244.2000;0.2662;4.4393;
244.5000;0.2686;4.4393;
244.8000;0.2654;4.4393;
245.1000;0.2654;4.4368;
245.4000;0.2743;4.4544;
245.7000;0.2662;4.4342;
246.0000;0.2694;4.4368;
246.3000;0.2654;4.4393;
246.6000;0.2686;4.4493;
246.9000;0.2678;4.4393;
247.2000;0.2662;4.4393;
247.5000;0.2654;4.4393;
247.8000;0.2646;4.4418;
248.1000;0.2670;4.4519;
248.4000;0.2694;4.4569;
248.7000;0.2654;4.4493;
249.0000;0.2711;4.4644;
249.3000;0.2678;4.4468;
249.6000;0.2743;4.4594;
249.9000;0.2678;4.4393;
250.2000;0.2711;4.4468;
250.5000;0.2646;4.4342;
250.8000;0.2694;4.4569;
251.1000;0.2751;4.4795;
251.4000;0.2670;4.4493;
251.7000;0.2727;4.4619;
252.0000;0.2662;4.4393;
252.3000;0.2711;4.4519;
252.6000;0.2678;4.4393;
252.9000;0.2743;4.4669;
253.2000;0.2702;4.4569;
253.5000;0.2678;4.4418;
253.8000;0.2702;4.4519;
254.1000;0.2670;4.4519;
254.4000;0.2678;4.4569;
254.7000;0.2702;4.4569;
255.0000;0.2654;4.4393;
255.3000;0.2670;4.4418;
255.6000;0.2678;4.4393;
255.9000;0.2735;4.4493;
256.2000;0.2678;4.4368;
256.5000;0.2637;4.4267;
256.8000;0.2662;4.4342;
257.1000;0.2686;4.4418;
257.4000;0.2694;4.4468;
257.7000;0.2686;4.4443;
258.0000;0.2629;4.4317;
258.3000;0.2662;4.4342;
258.6000;0.2637;4.4267;
258.9000;0.2800;4.4795;
259.2000;0.2678;4.4393;
259.5000;0.2686;4.4443;
259.8000;0.2759;4.4594;
260.1000;0.2678;4.4443;
260.4000;0.2564;4.4041;
260.7000;0.2694;4.4292;
261.0000;0.2727;4.4468;
261.3000;0.2670;4.4317;
261.6000;0.2654;4.4292;
261.9000;0.2670;4.4267;
262.2000;0.2678;4.4292;
262.5000;0.2662;4.4242;
262.8000;0.2637;4.4242;
263.1000;0.2654;4.4267;
263.4000;0.2670;4.4292;
263.7000;0.2694;4.4342;
264.0000;0.2662;4.4292;
264.3000;0.2662;4.4342;
264.6000;0.2678;4.4292;
264.9000;0.2678;4.4242;
265.2000;0.2670;4.4166;
265.5000;0.2646;4.4192;
265.8000;0.2646;4.4217;
266.1000;0.2548;4.3915;
266.4000;0.2678;4.4292;
266.7000;0.2670;4.4342;
267.0000;0.2759;4.4644;
267.3000;0.2621;4.4292;
267.6000;0.2686;4.4418;
267.9000;0.2605;4.4192;
268.2000;0.2686;4.4368;
268.5000;0.2678;4.4368;
268.8000;0.2646;4.4292;
269.1000;0.2654;4.4267;
269.4000;0.2678;4.4342;
269.7000;0.2654;4.4342;
270.0000;0.2678;4.4493;
270.3000;0.2654;4.4418;
270.6000;0.2702;4.4468;
270.9000;0.2670;4.4368;
271.2000;0.2678;4.4418;
271.5000;0.2670;4.4393;
271.8000;0.2670;4.4443;
272.1000;0.2678;4.4418;
272.4000;0.2702;4.4443;
272.7000;0.2678;4.4393;
273.0000;0.2776;4.4669;
273.3000;0.2662;4.4468;
273.6000;0.2646;4.4393;
273.9000;0.2694;4.4519;
274.2000;0.2670;4.4468;
274.5000;0.2646;4.4544;
274.8000;0.2670;4.4619;
275.1000;0.2670;4.4644;
275.4000;0.2637;4.4519;
275.7000;0.2662;4.4644;
276.0000;0.2686;4.4669;
276.3000;0.2694;4.4695;
276.6000;0.2686;4.4695;
276.9000;0.2523;4.4242;
277.2000;0.2670;4.4695;
277.5000;0.2694;4.4745;
277.8000;0.2670;4.4569;
278.1000;0.2678;4.4519;
278.4000;0.2694;4.4519;
278.7000;0.2678;4.4418;
279.0000;0.2702;4.4443;
279.3000;0.2678;4.4418;
279.6000;0.2662;4.4443;
279.9000;0.2556;4.4242;
280.2000;0.2670;4.4619;
280.5000;0.2678;4.4644;
280.8000;0.2646;4.4569;
281.1000;0.2686;4.4619;
281.4000;0.2637;4.4493;
281.7000;0.2662;4.4544;
282.0000;0.2654;4.4544;
282.3000;0.2670;4.4569;
282.6000;0.2654;4.4544;
282.9000;0.2727;4.4644;
283.2000;0.2678;4.4544;
283.5000;0.2686;4.4468;
283.8000;0.2686;4.4619;
284.1000;0.2670;4.4619;
284.4000;0.2670;4.4594;
284.7000;0.2654;4.4544;
285.0000;0.2694;4.4745;
285.3000;0.2662;4.4695;
285.6000;0.2686;4.4669;
285.9000;0.2629;4.4594;
286.2000;0.2662;4.4695;
286.5000;0.2694;4.4745;
286.8000;0.2654;4.4695;
287.1000;0.2670;4.4770;
287.4000;0.2654;4.4745;
287.7000;0.2580;4.4594;
288.0000;0.2694;4.4871;
288.3000;0.2686;4.4770;
288.6000;0.2670;4.4644;
288.9000;0.2654;4.4594;
289.2000;0.2678;4.4644;
289.5000;0.2670;4.4644;
289.8000;0.2646;4.4619;
290.1000;0.2678;4.4695;
290.4000;0.2678;4.4695;
290.7000;0.2686;4.4720;
291.0000;0.2678;4.4569;
291.3000;0.2670;4.4544;
291.6000;0.2694;4.4519;
291.9000;0.2686;4.4519;
292.2000;0.2670;4.4594;
292.5000;0.2621;4.4569;
292.8000;0.2751;4.4795;
293.1000;0.2678;4.4569;
293.4000;0.2654;4.4418;
293.7000;0.2735;4.4644;
294.0000;0.2694;4.4544;
294.3000;0.2654;4.4418;
294.6000;0.2678;4.4418;
294.9000;0.2686;4.4493;
295.2000;0.2670;4.4418;
295.5000;0.2776;4.4669;
295.8000;0.2670;4.4368;
296.1000;0.2662;4.4393;
296.4000;0.2678;4.4468;
296.7000;0.2646;4.4418;
297.0000;0.2580;4.4192;
297.3000;0.2654;4.4217;
297.6000;0.2678;4.4217;
297.9000;0.2670;4.4267;
298.2000;0.2678;4.4368;
298.5000;0.2670;4.4393;
298.8000;0.2654;4.4418;
299.1000;0.2662;4.4468;
299.4000;0.2662;4.4644;
299.7000;0.2678;4.4594;
300.0000;0.2662;4.4619;
300.3000;0.2670;4.4594;
300.6000;0.2580;4.4342;
300.9000;0.2686;4.4669;
301.2000;0.2654;4.4644;
301.5000;0.2662;4.4720;
301.8000;0.2670;4.4720;
302.1000;0.2670;4.4669;
302.4000;0.2662;4.4493;
302.7000;0.2670;4.4519;
303.0000;0.2678;4.4443;
303.3000;0.2759;4.4619;
303.6000;0.2637;4.4393;
303.9000;0.2662;4.4393;
304.2000;0.2662;4.4443;
304.5000;0.2678;4.4418;
304.8000;0.2670;4.4292;
305.1000;0.2694;4.4468;
305.4000;0.2670;4.4468;
305.7000;0.2654;4.4443;
306.0000;0.2694;4.4368;
306.3000;0.2735;4.4519;
306.6000;0.2662;4.4342;
306.9000;0.2670;4.4342;
307.2000;0.2654;4.4317;
307.5000;0.2589;4.4141;
307.8000;0.2678;4.4468;
308.1000;0.2646;4.4292;
308.4000;0.2670;4.4418;
308.7000;0.2654;4.4393;
309.0000;0.2686;4.4569;
309.3000;0.2637;4.4468;
309.6000;0.2654;4.4569;
309.9000;0.2670;4.4644;
310.2000;0.2646;4.4569;
310.5000;0.2686;4.4569;
310.8000;0.2816;4.4946;
311.1000;0.2686;4.4544;
311.4000;0.2654;4.4468;
311.7000;0.2678;4.4468;
312.0000;0.2572;4.4192;
312.3000;0.2686;4.4493;
312.6000;0.2662;4.4519;
312.9000;0.2654;4.4443;
313.2000;0.2654;4.4569;
313.5000;0.2621;4.4519;
313.8000;0.2694;4.4795;
314.1000;0.2613;4.4544;
314.4000;0.2727;4.4795;
314.7000;0.2678;4.4619;
315.0000;0.2662;4.4569;
315.3000;0.2637;4.4493;
315.6000;0.2702;4.4594;
315.9000;0.2678;4.4519;
316.2000;0.2686;4.4619;
316.5000;0.2662;4.4493;
316.8000;0.2711;4.4644;
317.1000;0.2702;4.4619;
317.4000;0.2662;4.4468;
317.7000;0.2637;4.4393;
318.0000;0.2678;4.4443;
318.3000;0.2654;4.4393;
318.6000;0.2548;4.4015;
318.9000;0.2694;4.4468;
319.2000;0.2654;4.4418;
319.5000;0.2597;4.4267;
319.8000;0.2678;4.4468;
320.1000;0.2507;4.3990;
320.4000;0.2678;4.4493;
320.7000;0.2711;4.4619;
321.0000;0.2686;4.4644;
321.3000;0.2678;4.4519;
321.6000;0.2743;4.4669;
321.9000;0.2670;4.4493;
322.2000;0.2621;4.4242;
322.5000;0.2735;4.4594;
322.8000;0.2670;4.4493;
323.1000;0.2662;4.4569;
323.4000;0.2580;4.4342;
323.7000;0.2670;4.4569;
324.0000;0.2678;4.4519;
324.3000;0.2662;4.4519;
324.6000;0.2646;4.4418;
324.9000;0.2654;4.4342;
325.2000;0.2776;4.4644;
325.5000;0.2694;4.4468;
325.8000;0.2686;4.4317;
326.1000;0.2646;4.4242;
326.4000;0.2662;4.4317;
326.7000;0.2670;4.4342;
327.0000;0.2654;4.4368;
327.3000;0.2662;4.4418;
327.6000;0.2637;4.4342;
327.9000;0.2662;4.4342;
328.2000;0.2646;4.4292;
328.5000;0.2711;4.4519;
328.8000;0.2670;4.4368;
329.1000;0.2646;4.4393;
329.4000;0.2662;4.4468;
329.7000;0.2670;4.4468;
330.0000;0.2662;4.4569;
330.3000;0.2662;4.4569;
330.6000;0.2678;4.4594;
330.9000;0.2711;4.4695;
331.2000;0.2702;4.4669;
331.5000;0.2662;4.4569;
331.8000;0.2678;4.4569;
332.1000;0.2702;4.4619;
332.4000;0.2686;4.4594;
332.7000;0.2662;4.4519;
333.0000;0.2646;4.4519;
333.3000;0.2678;4.4669;
333.6000;0.2662;4.4669;
333.9000;0.2572;4.4393;
334.2000;0.2686;4.4695;
334.5000;0.2678;4.4644;
334.8000;0.2751;4.4871;
335.1000;0.2678;4.4720;
335.4000;0.2637;4.4695;
335.7000;0.2662;4.4745;
336.0000;0.2637;4.4619;
336.3000;0.2670;4.4669;
336.6000;0.2662;4.4695;
336.9000;0.2662;4.4594;
337.2000;0.2654;4.4544;
337.5000;0.2662;4.4619;
337.8000;0.2580;4.4418;
338.1000;0.2654;4.4569;
338.4000;0.2702;4.4695;
338.7000;0.2686;4.4695;
339.0000;0.2654;4.4619;
339.3000;0.2686;4.4644;
339.6000;0.2702;4.4619;
339.9000;0.2670;4.4493;
340.2000;0.2670;4.4393;
340.5000;0.2605;4.4141;
340.8000;0.2654;4.4317;
341.1000;0.2646;4.4468;
341.4000;0.2670;4.4695;
341.7000;0.2686;4.4720;
342.0000;0.2597;4.4468;
342.3000;0.2670;4.4669;
342.6000;0.2686;4.4770;
342.9000;0.2735;4.4871;
343.2000;0.2735;4.4896;
343.5000;0.2735;4.4845;
343.8000;0.2678;4.4644;
344.1000;0.2670;4.4619;
344.4000;0.2670;4.4644;
344.7000;0.2654;4.4770;
345.0000;0.2662;4.4795;
345.3000;0.2662;4.4795;
345.6000;0.2662;4.4720;
345.9000;0.2654;4.4720;
346.2000;0.2678;4.4695;
346.5000;0.2694;4.4770;
346.8000;0.2670;4.4669;
347.1000;0.2694;4.4669;
347.4000;0.2621;4.4493;
347.7000;0.2662;4.4569;
348.0000;0.2670;4.4569;
348.3000;0.2678;4.4669;
348.6000;0.2670;4.4594;
348.9000;0.2662;4.4569;
349.2000;0.2654;4.4594;
349.5000;0.2670;4.4669;
349.8000;0.2654;4.4519;
350.1000;0.2678;4.4519;
350.4000;0.2637;4.4493;
350.7000;0.2678;4.4669;
351.0000;0.2646;4.4519;
351.3000;0.2654;4.4619;
351.6000;0.2654;4.4619;
351.9000;0.2662;4.4720;
352.2000;0.2686;4.4745;
352.5000;0.2662;4.4720;
352.8000;0.2646;4.4745;
353.1000;0.2637;4.4845;
353.4000;0.2637;4.4720;
353.7000;0.2670;4.4770;
354.0000;0.2711;4.4921;
354.3000;0.2654;4.4845;
354.6000;0.2678;4.4795;
354.9000;0.2662;4.4669;
355.2000;0.2678;4.4644;
355.5000;0.2654;4.4619;
355.8000;0.2637;4.4569;
356.1000;0.2637;4.4695;
356.4000;0.2678;4.4720;
356.7000;0.2670;4.4720;
357.0000;0.2678;4.4795;
357.3000;0.2637;4.4644;
357.6000;0.2589;4.4519;
357.9000;0.2629;4.4619;
358.2000;0.2662;4.4669;
358.5000;0.2670;4.4745;
358.8000;0.2597;4.4519;
359.1000;0.2621;4.4468;
359.4000;0.2670;4.4594;
359.7000;0.2523;4.4192;
360.0000;0.2621;4.4544;
360.3000;0.2670;4.4695;
360.6000;0.2743;4.4871;
360.9000;0.2654;4.4594;
361.2000;0.2532;4.4242;
361.5000;0.2694;4.4669;
361.8000;0.2646;4.4493;
362.1000;0.2654;4.4544;
362.4000;0.2678;4.4594;
362.7000;0.2654;4.4544;
363.0000;0.2719;4.4669;
363.3000;0.2678;4.4544;
363.6000;0.2702;4.4695;
363.9000;0.2727;4.4745;
364.2000;0.2670;4.4619;
364.5000;0.2654;4.4619;
364.8000;0.2662;4.4544;
365.1000;0.2662;4.4644;
365.4000;0.2686;4.4669;
365.7000;0.2662;4.4544;
366.0000;0.2654;4.4644;
366.3000;0.2646;4.4669;
366.6000;0.2637;4.4569;
366.9000;0.2621;4.4544;
367.2000;0.2654;4.4619;
367.5000;0.2711;4.4770;
367.8000;0.2605;4.4443;
368.1000;0.2662;4.4644;
368.4000;0.2694;4.4695;
368.7000;0.2670;4.4695;
369.0000;0.2670;4.4770;
369.3000;0.2678;4.4720;
369.6000;0.2678;4.4795;
369.9000;0.2646;4.4720;
370.2000;0.2662;4.4720;
370.5000;0.2670;4.4720;
370.8000;0.2662;4.4594;
371.1000;0.2678;4.4669;
371.4000;0.2662;4.4745;
371.7000;0.2637;4.4695;
372.0000;0.2670;4.4720;
372.3000;0.2678;4.4820;
372.6000;0.2662;4.4720;
372.9000;0.2678;4.4795;
373.2000;0.2678;4.4745;
373.5000;0.2678;4.4795;
373.8000;0.2670;4.4695;
374.1000;0.2694;4.4845;
374.4000;0.2646;4.4695;
374.7000;0.2670;4.4594;
375.0000;0.2694;4.4644;
375.3000;0.2670;4.4644;
375.6000;0.2702;4.4619;
375.9000;0.2662;4.4468;
376.2000;0.2662;4.4569;
376.5000;0.2686;4.4745;
376.8000;0.2654;4.4619;
377.1000;0.2694;4.4669;
377.4000;0.2694;4.4770;
377.7000;0.2678;4.4845;
378.0000;0.2678;4.4871;
378.3000;0.2670;4.4845;
378.6000;0.2662;4.4745;
378.9000;0.2678;4.4896;
379.2000;0.2686;4.4845;
379.5000;0.2670;4.4795;
379.8000;0.2662;4.4695;
380.1000;0.2678;4.4720;
380.4000;0.2670;4.4720;
380.7000;0.2662;4.4720;
381.0000;0.2662;4.4695;
381.3000;0.2670;4.4669;
381.6000;0.2670;4.4569;
381.9000;0.2670;4.4519;
382.2000;0.2686;4.4619;
382.5000;0.2670;4.4569;
382.8000;0.2670;4.4569;
383.1000;0.2808;4.4921;
383.4000;0.2662;4.4594;
383.7000;0.2670;4.4644;
384.0000;0.2662;4.4669;
384.3000;0.2662;4.4669;
384.6000;0.2670;4.4619;
384.9000;0.2646;4.4443;
385.2000;0.2670;4.4493;
385.5000;0.2759;4.4770;
385.8000;0.2662;4.4418;
386.1000;0.2711;4.4544;
386.4000;0.2662;4.4418;
386.7000;0.2678;4.4493;
387.0000;0.2637;4.4443;
387.3000;0.2678;4.4493;
387.6000;0.2613;4.4317;
387.9000;0.2621;4.4368;
388.2000;0.2678;4.4594;
388.5000;0.2743;4.4770;
388.8000;0.2694;4.4644;
389.1000;0.2776;4.4871;
389.4000;0.2670;4.4619;
389.7000;0.2678;4.4594;
390.0000;0.2670;4.4519;
390.3000;0.2686;4.4519;
390.6000;0.2637;4.4468;
390.9000;0.2605;4.4368;
391.2000;0.2654;4.4443;
391.5000;0.2654;4.4418;
391.8000;0.2540;4.4091;
392.1000;0.2670;4.4519;
392.4000;0.2670;4.4519;
392.7000;0.2776;4.4896;
393.0000;0.2662;4.4519;
393.3000;0.2605;4.4342;
393.6000;0.2694;4.4569;
393.9000;0.2662;4.4519;
394.2000;0.2678;4.4493;
394.5000;0.2702;4.4569;
394.8000;0.2686;4.4544;
395.1000;0.2727;4.4745;
395.4000;0.2662;4.4619;
395.7000;0.2654;4.4619;
396.0000;0.2654;4.4619;
396.3000;0.2646;4.4519;
396.6000;0.2637;4.4493;
396.9000;0.2670;4.4544;
397.2000;0.2654;4.4569;
397.5000;0.2654;4.4619;
397.8000;0.2727;4.4820;
398.1000;0.2702;4.4669;
398.4000;0.2711;4.4644;
398.7000;0.2686;4.4519;
399.0000;0.2580;4.4242;
399.3000;0.2719;4.4594;
399.6000;0.2686;4.4519;
399.9000;0.2670;4.4393;
400.2000;0.2670;4.4443;
400.5000;0.2662;4.4368;
400.8000;0.2662;4.4443;
401.1000;0.2670;4.4594;
401.4000;0.2662;4.4569;
401.7000;0.2646;4.4544;
402.0000;0.2637;4.4544;
402.3000;0.2702;4.4745;
402.6000;0.2654;4.4569;
402.9000;0.2646;4.4493;
403.2000;0.2678;4.4619;
403.5000;0.2670;4.4669;
403.8000;0.2654;4.4644;
404.1000;0.2662;4.4544;
404.4000;0.2735;4.4669;
404.7000;0.2694;4.4619;
405.0000;0.2694;4.4569;
405.3000;0.2654;4.4519;
405.6000;0.2589;4.4242;
405.9000;0.2686;4.4468;
406.2000;0.2662;4.4292;
406.5000;0.2678;4.4342;
406.8000;0.2678;4.4292;
407.1000;0.2670;4.4317;
407.4000;0.2662;4.4292;
407.7000;0.2678;4.4317;
408.0000;0.2646;4.4342;
408.3000;0.2686;4.4493;
408.6000;0.2646;4.4493;
408.9000;0.2702;4.4619;
409.2000;0.2670;4.4569;
409.5000;0.2678;4.4569;
409.8000;0.2686;4.4644;
410.1000;0.2694;4.4745;
410.4000;0.2597;4.4519;
410.7000;0.2662;4.4644;
411.0000;0.2605;4.4519;
411.3000;0.2662;4.4594;
411.6000;0.2751;4.4946;
411.9000;0.2605;4.4644;
412.2000;0.2808;4.5248;
412.5000;0.2621;4.4770;
412.8000;0.2727;4.5072;
413.1000;0.2686;4.4921;
413.4000;0.2670;4.4795;
413.7000;0.2662;4.4845;
414.0000;0.2523;4.4569;
414.3000;0.2686;4.4871;
414.6000;0.2515;4.4317;
414.9000;0.2776;4.5072;
415.2000;0.2800;4.5097;
415.5000;0.2686;4.4770;
415.8000;0.2670;4.4669;
416.1000;0.2670;4.4745;
416.4000;0.2646;4.4695;
416.7000;0.2727;4.4971;
417.0000;0.2678;4.4896;
417.3000;0.2654;4.4845;
417.6000;0.2662;4.4871;
417.9000;0.2629;4.4669;
418.2000;0.2662;4.4745;
418.5000;0.2768;4.4996;
418.8000;0.2678;4.4644;
419.1000;0.2654;4.4669;
419.4000;0.2670;4.4669;
419.7000;0.2711;4.4820;
420.0000;0.2678;4.4644;
420.3000;0.2662;4.4619;
420.6000;0.2654;4.4594;
420.9000;0.2678;4.4695;
421.2000;0.2670;4.4695;
421.5000;0.2654;4.4594;
421.8000;0.2662;4.4619;
422.1000;0.2670;4.4669;
422.4000;0.2670;4.4820;
422.7000;0.2678;4.4871;
423.0000;0.2694;4.4845;
423.3000;0.2670;4.4845;
423.6000;0.2670;4.4845;
423.9000;0.2686;4.4896;
424.2000;0.2646;4.4745;
424.5000;0.2597;4.4594;
424.8000;0.2694;4.4820;
425.1000;0.2678;4.4795;
425.4000;0.2670;4.4745;
425.7000;0.2670;4.4669;
426.0000;0.2686;4.4669;
426.3000;0.2646;4.4644;
426.6000;0.2670;4.4695;
426.9000;0.2702;4.4619;
427.2000;0.2670;4.4569;
427.5000;0.2670;4.4544;
427.8000;0.2751;4.4845;
428.1000;0.2654;4.4569;
428.4000;0.2686;4.4669;
428.7000;0.2670;4.4594;
429.0000;0.2654;4.4669;
429.3000;0.2678;4.4745;
429.6000;0.2662;4.4644;
429.9000;0.2670;4.4820;
430.2000;0.2678;4.4921;
430.5000;0.2646;4.4820;
430.8000;0.2637;4.4896;
431.1000;0.2670;4.4971;
431.4000;0.2759;4.5248;
431.7000;0.2678;4.4971;
432.0000;0.2662;4.4871;
432.3000;0.2670;4.4845;
432.6000;0.2621;4.4745;
432.9000;0.2621;4.4745;
433.2000;0.2499;4.4443;
433.5000;0.2654;4.4795;
433.8000;0.2670;4.4770;
434.1000;0.2694;4.4720;
434.4000;0.2564;4.4393;
434.7000;0.2670;4.4745;
435.0000;0.2702;4.4820;
435.3000;0.2678;4.4594;
435.6000;0.2727;4.4720;
435.9000;0.2662;4.4493;
436.2000;0.2621;4.4443;
436.5000;0.2572;4.4242;
436.8000;0.2662;4.4544;
437.1000;0.2646;4.4594;
437.4000;0.2670;4.4644;
437.7000;0.2580;4.4393;
438.0000;0.2759;4.4871;
438.3000;0.2654;4.4594;
438.6000;0.2589;4.4342;
438.9000;0.2670;4.4594;
439.2000;0.2670;4.4569;
439.5000;0.2670;4.4519;
439.8000;0.2686;4.4619;
440.1000;0.2694;4.4695;
440.4000;0.2670;4.4569;
440.7000;0.2637;4.4619;
441.0000;0.2629;4.4594;
441.3000;0.2637;4.4544;
441.6000;0.2637;4.4468;
441.9000;0.2678;4.4519;
442.2000;0.2621;4.4393;
442.5000;0.2694;4.4569;
442.8000;0.2654;4.4443;
443.1000;0.2670;4.4493;
443.4000;0.2654;4.4393;
443.7000;0.2662;4.4342;
444.0000;0.2662;4.4267;
444.3000;0.2694;4.4493;
444.6000;0.2621;4.4342;
444.9000;0.2686;4.4519;
445.2000;0.2662;4.4443;
445.5000;0.2678;4.4443;
445.8000;0.2629;4.4443;
446.1000;0.2670;4.4619;
446.4000;0.2580;4.4368;
446.7000;0.2613;4.4443;
447.0000;0.2662;4.4544;
447.3000;0.2654;4.4519;
447.6000;0.2662;4.4594;
447.9000;0.2654;4.4569;
448.2000;0.2662;4.4644;
448.5000;0.2727;4.4845;
448.8000;0.2711;4.4820;
449.1000;0.2662;4.4695;
449.4000;0.2662;4.4720;
449.7000;0.2670;4.4795;
450.0000;0.2654;4.4695;
450.3000;0.2613;4.4493;
450.6000;0.2629;4.4594;
450.9000;0.2629;4.4493;
451.2000;0.2662;4.4695;
451.5000;0.2686;4.4720;
451.8000;0.2711;4.4720;
452.1000;0.2580;4.4317;
452.4000;0.2654;4.4519;
452.7000;0.2646;4.4493;
453.0000;0.2646;4.4544;
453.3000;0.2670;4.4644;
453.6000;0.2702;4.4745;
453.9000;0.2605;4.4443;
454.2000;0.2654;4.4720;
454.5000;0.2662;4.4720;
454.8000;0.2670;4.4695;
455.1000;0.2678;4.4695;
455.4000;0.2670;4.4745;
455.7000;0.2662;4.4795;
456.0000;0.2621;4.4594;
456.3000;0.2646;4.4594;
456.6000;0.2654;4.4569;
456.9000;0.2646;4.4519;
457.2000;0.2678;4.4519;
457.5000;0.2670;4.4493;
457.8000;0.2670;4.4443;
458.1000;0.2654;4.4418;
458.4000;0.2589;4.4242;
458.7000;0.2646;4.4368;
459.0000;0.2678;4.4493;
459.3000;0.2670;4.4519;
459.6000;0.2702;4.4569;
459.9000;0.2613;4.4368;
460.2000;0.2662;4.4519;
460.5000;0.2654;4.4569;
460.8000;0.2613;4.4493;
461.1000;0.2662;4.4493;
461.4000;0.2621;4.4418;
461.7000;0.2613;4.4393;
462.0000;0.2678;4.4619;
462.3000;0.2637;4.4368;
462.6000;0.2702;4.4569;
462.9000;0.2670;4.4493;
463.2000;0.2646;4.4468;
463.5000;0.2637;4.4493;
463.8000;0.2662;4.4594;
464.1000;0.2678;4.4669;
464.4000;0.2654;4.4519;
464.7000;0.2719;4.4619;
465.0000;0.2654;4.4519;
465.3000;0.2637;4.4519;
465.6000;0.2637;4.4493;
465.9000;0.2621;4.4468;
466.2000;0.2662;4.4594;
466.5000;0.2637;4.4468;
466.8000;0.2686;4.4569;
467.1000;0.2678;4.4569;
467.4000;0.2654;4.4594;
467.7000;0.2646;4.4544;
468.0000;0.2654;4.4644;
468.3000;0.2686;4.4594;
468.6000;0.2678;4.4519;
468.9000;0.2670;4.4468;
469.2000;0.2654;4.4468;
469.5000;0.2686;4.4594;
469.8000;0.2694;4.4695;
470.1000;0.2629;4.4493;
470.4000;0.2670;4.4544;
470.7000;0.2662;4.4569;
471.0000;0.2654;4.4544;
471.3000;0.2629;4.4544;
471.6000;0.2678;4.4619;
471.9000;0.2678;4.4569;
472.2000;0.2629;4.4393;
472.5000;0.2678;4.4443;
472.8000;0.2654;4.4418;
473.1000;0.2678;4.4493;
473.4000;0.2662;4.4443;
473.7000;0.2589;4.4393;
474.0000;0.2629;4.4443;
474.3000;0.2670;4.4569;
474.6000;0.2613;4.4443;
474.9000;0.2662;4.4519;
475.2000;0.2646;4.4468;
475.5000;0.2686;4.4569;
475.8000;0.2702;4.4569;
476.1000;0.2613;4.4368;
476.4000;0.2678;4.4519;
476.7000;0.2629;4.4393;
477.0000;0.2654;4.4443;
477.3000;0.2662;4.4493;
477.6000;0.2646;4.4418;
477.9000;0.2662;4.4468;
478.2000;0.2686;4.4519;
478.5000;0.2816;4.4871;
478.8000;0.2654;4.4317;
479.1000;0.2678;4.4443;
479.4000;0.2678;4.4393;
479.7000;0.2670;4.4443;
480.0000;0.2686;4.4493;
480.3000;0.2654;4.4443;
480.6000;0.2784;4.4770;
480.9000;0.2629;4.4468;
481.2000;0.2613;4.4468;
481.5000;0.2654;4.4544;
481.8000;0.2670;4.4619;
482.1000;0.2678;4.4669;
482.4000;0.2662;4.4544;
482.7000;0.2662;4.4594;
483.0000;0.2678;4.4745;
483.3000;0.2678;4.4695;
483.6000;0.2686;4.4720;
483.9000;0.2776;4.4921;
484.2000;0.2654;4.4720;
484.5000;0.2686;4.4695;
484.8000;0.2662;4.4695;
485.1000;0.2654;4.4669;
485.4000;0.2662;4.4644;
485.7000;0.2662;4.4619;
486.0000;0.2637;4.4569;
486.3000;0.2662;4.4619;
486.6000;0.2670;4.4594;
486.9000;0.2678;4.4619;
487.2000;0.2670;4.4594;
487.5000;0.2654;4.4569;
487.8000;0.2694;4.4695;
488.1000;0.2678;4.4644;
488.4000;0.2654;4.4544;
488.7000;0.2654;4.4519;
489.0000;0.2662;4.4493;
489.3000;0.2670;4.4619;
489.6000;0.2678;4.4619;
489.9000;0.2629;4.4493;
490.2000;0.2662;4.4569;
490.5000;0.2670;4.4669;
490.8000;0.2670;4.4695;
491.1000;0.2662;4.4669;
491.4000;0.2670;4.4770;
491.7000;0.2670;4.4845;
492.0000;0.2678;4.4845;
492.3000;0.2646;4.4745;
492.6000;0.2670;4.4745;
492.9000;0.2597;4.4493;
493.2000;0.2670;4.4720;
493.5000;0.2662;4.4644;
493.8000;0.2686;4.4695;
494.1000;0.2654;4.4669;
494.4000;0.2654;4.4720;
494.7000;0.2670;4.4695;
495.0000;0.2654;4.4695;
495.3000;0.2670;4.4720;
495.6000;0.2670;4.4695;
495.9000;0.2637;4.4669;
496.2000;0.2605;4.4669;
496.5000;0.2670;4.4669;
496.8000;0.2662;4.4619;
497.1000;0.2637;4.4393;
497.4000;0.2646;4.4342;
497.7000;0.2662;4.4342;
498.0000;0.2654;4.4317;
498.3000;0.2670;4.4468;
498.6000;0.2662;4.4519;
498.9000;0.2662;4.4418;
499.2000;0.2670;4.4468;
499.5000;0.2662;4.4519;
499.8000;0.2694;4.4619;
500.1000;0.2654;4.4569;
500.4000;0.2711;4.4720;
500.7000;0.2662;4.4619;
501.0000;0.2613;4.4393;
501.3000;0.2702;4.4619;
501.6000;0.2654;4.4519;
501.9000;0.2646;4.4493;
502.2000;0.2662;4.4493;
502.5000;0.2662;4.4468;
502.8000;0.2678;4.4544;
503.1000;0.2654;4.4619;
503.4000;0.2702;4.4770;
503.7000;0.2686;4.4619;
504.0000;0.2662;4.4418;
504.3000;0.2613;4.4217;
504.6000;0.2662;4.4342;
504.9000;0.2670;4.4443;
505.2000;0.2654;4.4418;
505.5000;0.2662;4.4519;
505.8000;0.2670;4.4519;
506.1000;0.2678;4.4493;
506.4000;0.2662;4.4468;
506.7000;0.2523;4.4192;
507.0000;0.2629;4.4443;
507.3000;0.2686;4.4569;
507.6000;0.2662;4.4594;
507.9000;0.2662;4.4569;
508.2000;0.2662;4.4594;
508.5000;0.2646;4.4468;
508.8000;0.2597;4.4418;
509.1000;0.2654;4.4619;
509.4000;0.2654;4.4594;
509.7000;0.2662;4.4569;
510.0000;0.2702;4.4669;
510.3000;0.2670;4.4619;
510.6000;0.2662;4.4519;
510.9000;0.2662;4.4468;
511.2000;0.2654;4.4519;
511.5000;0.2670;4.4468;
511.8000;0.2654;4.4418;
512.1000;0.2629;4.4342;
512.4000;0.2654;4.4493;
512.7000;0.2670;4.4418;
513.0000;0.2646;4.4317;
513.3000;0.2654;4.4342;
513.6000;0.2662;4.4443;
513.9000;0.2646;4.4418;
514.2000;0.2711;4.4644;
514.5000;0.2646;4.4519;
514.8000;0.2654;4.4544;
515.1000;0.2670;4.4594;
515.4000;0.2719;4.4619;
515.7000;0.2654;4.4393;
516.0000;0.2597;4.4242;
516.3000;0.2694;4.4569;
516.6000;0.2662;4.4519;
516.9000;0.2637;4.4368;
517.2000;0.2662;4.4443;
517.5000;0.2654;4.4468;
517.8000;0.2678;4.4544;
518.1000;0.2678;4.4594;
518.4000;0.2662;4.4619;
518.7000;0.2670;4.4619;
519.0000;0.2686;4.4644;
519.3000;0.2654;4.4569;
519.6000;0.2670;4.4644;
519.9000;0.2662;4.4594;
520.2000;0.2646;4.4493;
520.5000;0.2702;4.4619;
520.8000;0.2662;4.4493;
521.1000;0.2646;4.4443;
521.4000;0.2670;4.4569;
521.7000;0.2686;4.4619;
522.0000;0.2678;4.4569;
522.3000;0.2662;4.4519;
522.6000;0.2670;4.4468;
522.9000;0.2637;4.4443;
523.2000;0.2654;4.4619;
523.5000;0.2629;4.4569;
523.8000;0.2662;4.4644;
524.1000;0.2768;4.4871;
524.4000;0.2654;4.4519;
524.7000;0.2597;4.4317;
525.0000;0.2816;4.4921;
525.3000;0.2646;4.4443;
525.6000;0.2646;4.4418;
525.9000;0.2646;4.4443;
526.2000;0.2662;4.4468;
526.5000;0.2751;4.4745;
526.8000;0.2646;4.4493;
527.1000;0.2654;4.4493;
527.4000;0.2637;4.4418;
527.7000;0.2702;4.4544;
528.0000;0.2621;4.4443;
528.3000;0.2654;4.4569;
528.6000;0.2662;4.4544;
528.9000;0.2654;4.4569;
529.2000;0.2686;4.4594;
529.5000;0.2662;4.4519;
529.8000;0.2646;4.4493;
530.1000;0.2662;4.4594;
530.4000;0.2662;4.4644;
530.7000;0.2686;4.4669;
531.0000;0.2646;4.4493;
531.3000;0.2637;4.4594;
531.6000;0.2654;4.4569;
531.9000;0.2678;4.4544;
532.2000;0.2637;4.4443;
532.5000;0.2662;4.4569;
532.8000;0.2711;4.4644;
533.1000;0.2662;4.4393;
533.4000;0.2662;4.4368;
533.7000;0.2678;4.4418;
534.0000;0.2621;4.4242;
534.3000;0.2646;4.4317;
534.6000;0.2662;4.4443;
534.9000;0.2686;4.4544;
535.2000;0.2670;4.4519;
535.5000;0.2654;4.4468;
535.8000;0.2646;4.4468;
536.1000;0.2621;4.4368;
536.4000;0.2678;4.4493;
536.7000;0.2654;4.4393;
537.0000;0.2670;4.4443;
537.3000;0.2646;4.4418;
537.6000;0.2654;4.4393;
537.9000;0.2670;4.4443;
538.2000;0.2670;4.4443;
538.5000;0.2800;4.4921;
538.8000;0.2670;4.4569;
539.1000;0.2589;4.4292;
539.4000;0.2678;4.4544;
539.7000;0.2654;4.4493;
540.0000;0.2654;4.4544;
540.3000;0.2556;4.4242;
540.6000;0.2589;4.4443;
540.9000;0.2735;4.4871;
541.2000;0.2637;4.4569;
541.5000;0.2654;4.4569;
541.8000;0.2694;4.4644;
542.1000;0.2662;4.4569;
542.4000;0.2654;4.4519;
542.7000;0.2621;4.4443;
543.0000;0.2686;4.4619;
543.3000;0.2678;4.4544;
543.6000;0.2662;4.4544;
543.9000;0.2589;4.4317;
544.2000;0.2670;4.4519;
544.5000;0.2702;4.4619;
544.8000;0.2613;4.4368;
545.1000;0.2662;4.4443;
545.4000;0.2670;4.4519;
545.7000;0.2629;4.4393;
546.0000;0.2662;4.4468;
546.3000;0.2662;4.4519;
546.6000;0.2686;4.4619;
546.9000;0.2654;4.4569;
547.2000;0.2670;4.4619;
547.5000;0.2572;4.4342;
547.8000;0.2637;4.4569;
548.1000;0.2678;4.4569;
548.4000;0.2662;4.4468;
548.7000;0.2605;4.4317;
549.0000;0.2637;4.4418;
549.3000;0.2605;4.4368;
549.6000;0.2727;4.4745;
549.9000;0.2686;4.4569;
550.2000;0.2654;4.4443;
550.5000;0.2629;4.4418;
550.8000;0.2678;4.4569;
551.1000;0.2646;4.4619;
551.4000;0.2629;4.4669;
551.7000;0.2662;4.4669;
552.0000;0.2621;4.4569;
552.3000;0.2646;4.4695;
552.6000;0.2678;4.4770;
552.9000;0.2678;4.4695;
553.2000;0.2589;4.4317;
553.5000;0.2646;4.4443;
553.8000;0.2686;4.4544;
554.1000;0.2637;4.4393;
554.4000;0.2662;4.4443;
554.7000;0.2694;4.4569;
555.0000;0.2654;4.4342;
555.3000;0.2670;4.4468;
555.6000;0.2637;4.4468;
555.9000;0.2637;4.4393;
556.2000;0.2629;4.4317;
556.5000;0.2678;4.4418;
556.8000;0.2662;4.4393;
557.1000;0.2637;4.4393;
557.4000;0.2646;4.4443;
557.7000;0.2646;4.4443;
558.0000;0.2678;4.4544;
558.3000;0.2662;4.4519;
558.6000;0.2662;4.4468;
558.9000;0.2646;4.4393;
559.2000;0.2670;4.4393;
559.5000;0.2621;4.4267;
559.8000;0.2727;4.4594;
560.1000;0.2629;4.4393;
560.4000;0.2678;4.4544;
560.7000;0.2637;4.4393;
561.0000;0.2694;4.4544;
561.3000;0.2670;4.4493;
561.6000;0.2654;4.4443;
561.9000;0.2654;4.4468;
562.2000;0.2670;4.4468;
562.5000;0.2654;4.4393;
562.8000;0.2686;4.4368;
563.1000;0.2678;4.4443;
563.4000;0.2646;4.4317;
563.7000;0.2670;4.4393;
564.0000;0.2621;4.4317;
564.3000;0.2646;4.4368;
564.6000;0.2678;4.4443;
564.9000;0.2694;4.4418;
565.2000;0.2670;4.4393;
565.5000;0.2589;4.4242;
565.8000;0.2589;4.4317;
566.1000;0.2654;4.4594;
566.4000;0.2662;4.4594;
566.7000;0.2621;4.4443;
567.0000;0.2727;4.4770;
567.3000;0.2654;4.4468;
567.6000;0.2662;4.4443;
567.9000;0.2654;4.4393;
568.2000;0.2670;4.4443;
568.5000;0.2654;4.4418;
568.8000;0.2637;4.4393;
569.1000;0.2678;4.4418;
569.4000;0.2637;4.4393;
569.7000;0.2654;4.4418;
570.0000;0.2686;4.4493;
570.3000;0.2654;4.4418;
570.6000;0.2670;4.4418;
570.9000;0.2662;4.4443;
571.2000;0.2654;4.4317;
571.5000;0.2629;4.4141;
571.8000;0.2662;4.4292;
572.1000;0.2662;4.4317;
572.4000;0.2678;4.4368;
572.7000;0.2735;4.4519;
573.0000;0.2621;4.4166;
573.3000;0.2654;4.4292;
573.6000;0.2654;4.4267;
573.9000;0.2662;4.4342;
574.2000;0.2670;4.4443;
574.5000;0.2678;4.4468;
574.8000;0.2646;4.4317;
575.1000;0.2670;4.4342;
575.4000;0.2646;4.4242;
575.7000;0.2654;4.4292;
576.0000;0.2662;4.4292;
576.3000;0.2662;4.4317;
576.6000;0.2662;4.4317;
576.9000;0.2646;4.4342;
577.2000;0.2646;4.4267;
577.5000;0.2637;4.4192;
577.8000;0.2662;4.4292;
578.1000;0.2629;4.4242;
578.4000;0.2654;4.4267;
578.7000;0.2694;4.4468;
579.0000;0.2662;4.4418;
579.3000;0.2637;4.4342;
579.6000;0.2670;4.4443;
579.9000;0.2670;4.4468;
580.2000;0.2654;4.4418;
580.5000;0.2646;4.4368;
580.8000;0.2678;4.4468;
581.1000;0.2662;4.4393;
581.4000;0.2654;4.4418;
581.7000;0.2670;4.4317;
582.0000;0.2711;4.4368;
582.3000;0.2629;4.4166;
582.6000;0.2678;4.4242;
582.9000;0.2662;4.4217;
583.2000;0.2662;4.4141;
583.5000;0.2711;4.4317;
583.8000;0.2743;4.4418;
584.1000;0.2686;4.4267;
584.4000;0.2662;4.4292;
584.7000;0.2670;4.4242;
585.0000;0.2646;4.4192;
585.3000;0.2564;4.4015;
585.6000;0.2662;4.4242;
585.9000;0.2654;4.4141;
586.2000;0.2662;4.4242;
586.5000;0.2597;4.4091;
586.8000;0.2654;4.4242;
587.1000;0.2670;4.4317;
587.4000;0.2605;4.4166;
587.7000;0.2540;4.3990;
588.0000;0.2621;4.4267;
588.3000;0.2646;4.4292;
588.6000;0.2727;4.4493;
588.9000;0.2670;4.4368;
589.2000;0.2654;4.4393;
589.5000;0.2743;4.4745;
589.8000;0.2654;4.4493;
590.1000;0.2694;4.4544;
590.4000;0.2670;4.4393;
590.7000;0.2678;4.4368;
591.0000;0.2613;4.4141;
591.3000;0.2694;4.4393;
591.6000;0.2637;4.4342;
591.9000;0.2580;4.4141;
592.2000;0.2670;4.4393;
592.5000;0.2759;4.4619;
592.8000;0.2711;4.4368;
593.1000;0.2662;4.4242;
593.4000;0.2646;4.4166;
593.7000;0.2662;4.4166;
594.0000;0.2670;4.4166;
594.3000;0.2654;4.4041;
594.6000;0.2662;4.4015;
594.9000;0.2670;4.4066;
595.2000;0.2629;4.3940;
595.5000;0.2629;4.4015;
595.8000;0.2654;4.4066;
596.1000;0.2605;4.3865;
596.4000;0.2654;4.4015;
596.7000;0.2646;4.3965;
597.0000;0.2646;4.3990;
597.3000;0.2654;4.4041;
597.6000;0.2637;4.4041;
597.9000;0.2662;4.4066;
598.2000;0.2654;4.4015;
598.5000;0.2670;4.4192;
598.8000;0.2702;4.4342;
599.1000;0.2735;4.4519;
599.4000;0.2637;4.4292;
599.7000;0.2637;4.4292;
600.0000;0.2654;4.4393;
600.3000;0.2637;4.4217;
600.6000;0.2646;4.4166;
600.9000;0.2637;4.4041;
601.2000;0.2637;4.3688;
601.5000;0.2621;4.3311;
601.8000;0.2719;4.3412;
602.1000;0.2507;4.2607;
602.4000;0.2597;4.2632;
602.7000;0.2580;4.2481;
603.0000;0.2613;4.2381;
603.3000;0.2589;4.2104;
603.6000;0.2556;4.1852;
603.9000;0.2540;4.1651;
604.2000;0.2532;4.1551;
604.5000;0.2556;4.1425;
604.8000;0.2589;4.1375;
605.1000;0.2540;4.1173;
605.4000;0.2532;4.1098;
605.7000;0.2532;4.1123;
606.0000;0.2507;4.1048;
606.3000;0.2532;4.1173;
606.6000;0.2499;4.1073;
606.9000;0.2491;4.0947;
607.2000;0.2442;4.0645;
607.5000;0.2499;4.0645;
607.8000;0.2491;4.0595;
608.1000;0.2507;4.0620;
608.4000;0.2491;4.0570;
608.7000;0.2507;4.0519;
609.0000;0.2483;4.0444;
609.3000;0.2491;4.0419;
609.6000;0.2483;4.0368;
609.9000;0.2483;4.0419;
610.2000;0.2483;4.0394;
610.5000;0.2491;4.0394;
610.8000;0.2483;4.0368;
611.1000;0.2580;4.0645;
611.4000;0.2483;4.0444;
611.7000;0.2401;4.0218;
612.0000;0.2483;4.0444;
612.3000;0.2548;4.0595;
612.6000;0.2491;4.0469;
612.9000;0.2442;4.0368;
613.2000;0.2499;4.0570;
613.5000;0.2352;4.0192;
613.8000;0.2491;4.0444;
614.1000;0.2532;4.0419;
614.4000;0.2491;4.0243;
614.7000;0.2491;4.0092;
615.0000;0.2475;4.0067;
615.3000;0.2475;4.0142;
615.6000;0.2450;4.0042;
615.9000;0.2466;4.0092;
616.2000;0.2466;4.0142;
616.5000;0.2401;4.0016;
616.8000;0.2450;4.0192;
617.1000;0.2483;4.0218;
617.4000;0.2458;4.0268;
617.7000;0.2483;4.0368;
618.0000;0.2458;4.0268;
618.3000;0.2466;4.0243;
618.6000;0.2466;4.0243;
618.9000;0.2466;4.0268;
619.2000;0.2491;4.0167;
619.5000;0.2597;4.0545;
619.8000;0.2507;4.0218;
620.1000;0.2499;4.0192;
620.4000;0.2458;4.0167;
620.7000;0.2483;4.0117;
621.0000;0.2564;4.0318;
621.3000;0.2458;4.0042;
621.6000;0.2442;4.0042;
621.9000;0.2597;4.0519;
622.2000;0.2491;4.0192;
622.5000;0.2483;4.0192;
622.8000;0.2466;4.0218;
623.1000;0.2491;4.0268;
623.4000;0.2466;4.0268;
623.7000;0.2336;3.9941;
624.0000;0.2466;4.0268;
624.3000;0.2483;4.0343;
624.6000;0.2483;4.0368;
624.9000;0.2466;4.0293;
625.2000;0.2466;4.0343;
625.5000;0.2499;4.0419;
625.8000;0.2475;4.0368;
626.1000;0.2475;4.0419;
626.4000;0.2450;4.0318;
626.7000;0.2458;4.0243;
627.0000;0.2475;4.0243;
627.3000;0.2483;4.0293;
627.6000;0.2458;4.0318;
627.9000;0.2475;4.0293;
628.2000;0.2532;4.0444;
628.5000;0.2483;4.0343;
628.8000;0.2483;4.0318;
629.1000;0.2515;4.0343;
629.4000;0.2483;4.0293;
629.7000;0.2483;4.0192;
630.0000;0.2466;4.0117;
630.3000;0.2458;4.0092;
630.6000;0.2483;4.0268;
630.9000;0.2466;4.0192;
631.2000;0.2458;4.0117;
631.5000;0.2426;4.0067;
631.8000;0.2450;4.0142;
632.1000;0.2475;4.0192;
632.4000;0.2483;4.0243;
632.7000;0.2466;4.0243;
633.0000;0.2548;4.0318;
633.3000;0.2466;4.0167;
633.6000;0.2475;4.0293;
633.9000;0.2491;4.0343;
634.2000;0.2491;4.0419;
634.5000;0.2483;4.0343;
634.8000;0.2499;4.0293;
635.1000;0.2442;4.0167;
635.4000;0.2475;4.0268;
635.7000;0.2523;4.0469;
636.0000;0.2491;4.0343;
636.3000;0.2475;4.0218;
636.6000;0.2475;4.0142;
636.9000;0.2483;4.0042;
637.2000;0.2434;3.9840;
637.5000;0.2475;3.9991;
637.8000;0.2475;3.9891;
638.1000;0.2483;4.0092;
638.4000;0.2499;4.0142;
638.7000;0.2491;4.0092;
639.0000;0.2434;3.9916;
639.3000;0.2483;3.9991;
639.6000;0.2483;3.9966;
639.9000;0.2475;3.9865;
640.2000;0.2491;3.9891;
640.5000;0.2540;4.0042;
640.8000;0.2483;3.9891;
641.1000;0.2475;3.9840;
641.4000;0.2483;3.9966;
641.7000;0.2483;3.9941;
642.0000;0.2499;3.9966;
642.3000;0.2442;3.9790;
642.6000;0.2523;4.0016;
642.9000;0.2483;3.9891;
643.2000;0.2458;3.9840;
643.5000;0.2589;4.0192;
643.8000;0.2499;3.9991;
644.1000;0.2475;3.9891;
644.4000;0.2483;3.9891;
644.7000;0.2450;3.9790;
645.0000;0.2483;3.9891;
645.3000;0.2499;3.9865;
645.6000;0.2523;4.0016;
645.9000;0.2475;3.9865;
646.2000;0.2458;3.9790;
646.5000;0.2426;3.9715;
646.8000;0.2507;3.9916;
647.1000;0.2483;3.9790;
647.4000;0.2466;3.9840;
647.7000;0.2507;4.0042;
648.0000;0.2491;3.9991;
648.3000;0.2483;3.9966;
648.6000;0.2483;3.9941;
648.9000;0.2483;3.9941;
649.2000;0.2491;4.0092;
649.5000;0.2442;4.0016;
649.8000;0.2442;4.0016;
650.1000;0.2458;4.0042;
650.4000;0.2491;4.0117;
650.7000;0.2475;4.0092;
651.0000;0.2483;4.0042;
651.3000;0.2458;3.9941;
651.6000;0.2450;3.9916;
651.9000;0.2475;4.0042;
652.2000;0.2483;4.0117;
652.5000;0.2475;4.0067;
652.8000;0.2450;4.0067;
653.1000;0.2466;4.0042;
653.4000;0.2483;4.0092;
653.7000;0.2466;4.0067;
654.0000;0.2499;4.0167;
654.3000;0.2475;4.0192;
654.6000;0.2466;4.0192;
654.9000;0.2475;4.0167;
655.2000;0.2483;4.0117;
655.5000;0.2475;4.0092;
655.8000;0.2475;4.0067;
656.1000;0.2475;4.0092;
656.4000;0.2466;4.0016;
656.7000;0.2475;4.0092;
657.0000;0.2621;4.0545;
657.3000;0.2605;4.0419;
657.6000;0.2491;4.0167;
657.9000;0.2458;4.0117;
658.2000;0.2466;3.9991;
658.5000;0.2491;4.0016;
658.8000;0.2483;3.9966;
659.1000;0.2466;3.9941;
659.4000;0.2475;3.9991;
659.7000;0.2458;3.9916;
660.0000;0.2466;3.9966;
660.3000;0.2564;4.0192;
660.6000;0.2483;4.0067;
660.9000;0.2491;4.0042;
661.2000;0.2475;4.0042;
661.5000;0.2475;4.0016;
661.8000;0.2385;3.9891;
662.1000;0.2483;4.0117;
662.4000;0.2466;4.0042;
662.7000;0.2458;4.0016;
663.0000;0.2426;3.9891;
663.3000;0.2483;4.0092;
663.6000;0.2483;4.0117;
663.9000;0.2450;4.0142;
664.2000;0.2466;4.0042;
664.5000;0.2475;3.9991;
664.8000;0.2499;4.0067;
665.1000;0.2475;4.0016;
665.4000;0.2532;4.0117;
665.7000;0.2491;4.0067;
666.0000;0.2483;4.0067;
666.3000;0.2458;4.0016;
666.6000;0.2385;3.9790;
666.9000;0.2458;3.9966;
667.2000;0.2483;3.9941;
667.5000;0.2475;3.9941;
667.8000;0.2580;4.0268;
668.1000;0.2491;4.0016;
668.4000;0.2475;4.0067;
668.7000;0.2450;4.0092;
669.0000;0.2450;4.0092;
669.3000;0.2442;4.0042;
669.6000;0.2475;4.0092;
669.9000;0.2515;4.0268;
670.2000;0.2483;4.0293;
670.5000;0.2466;4.0142;
670.8000;0.2466;4.0117;
671.1000;0.2483;4.0117;
671.4000;0.2491;4.0192;
671.7000;0.2466;4.0167;
672.0000;0.2466;4.0067;
672.3000;0.2491;4.0067;
672.6000;0.2499;4.0117;
672.9000;0.2507;4.0142;
673.2000;0.2458;3.9891;
673.5000;0.2466;3.9916;
673.8000;0.2491;3.9941;
674.1000;0.2475;3.9865;
674.4000;0.2475;3.9916;
674.7000;0.2483;3.9941;
675.0000;0.2458;3.9815;
675.3000;0.2491;3.9840;
675.6000;0.2475;3.9891;
675.9000;0.2385;3.9740;
676.2000;0.2483;3.9941;
676.5000;0.2475;3.9916;
676.8000;0.2475;3.9991;
677.1000;0.2442;3.9891;
677.4000;0.2418;3.9765;
677.7000;0.2491;3.9966;
678.0000;0.2491;4.0016;
678.3000;0.2458;3.9966;
678.6000;0.2442;3.9916;
678.9000;0.2507;4.0042;
679.2000;0.2475;3.9891;
679.5000;0.2475;3.9916;
679.8000;0.2442;3.9765;
680.1000;0.2515;3.9991;
680.4000;0.2491;3.9916;
680.7000;0.2507;3.9991;
681.0000;0.2352;3.9564;
681.3000;0.2475;4.0067;
681.6000;0.2532;4.0218;
681.9000;0.2466;4.0067;
682.2000;0.2483;4.0092;
682.5000;0.2491;4.0092;
682.8000;0.2499;4.0117;
683.1000;0.2483;4.0042;
683.4000;0.2475;3.9991;
683.7000;0.2361;3.9689;
684.0000;0.2458;3.9891;
684.3000;0.2475;3.9916;
684.6000;0.2491;3.9991;
684.9000;0.2475;3.9966;
685.2000;0.2646;4.0444;
685.5000;0.2483;3.9941;
685.8000;0.2426;3.9689;
686.1000;0.2475;3.9840;
686.4000;0.2450;3.9815;
686.7000;0.2491;3.9966;
687.0000;0.2458;3.9966;
687.3000;0.2450;3.9941;
687.6000;0.2450;3.9966;
687.9000;0.2466;3.9991;
688.2000;0.2475;4.0016;
688.5000;0.2475;4.0016;
688.8000;0.2483;4.0042;
689.1000;0.2442;3.9966;
689.4000;0.2475;4.0117;
689.7000;0.2483;4.0142;
690.0000;0.2491;4.0092;
690.3000;0.2499;4.0142;
690.6000;0.2458;3.9991;
690.9000;0.2458;3.9916;
691.2000;0.2442;3.9966;
691.5000;0.2450;3.9865;
691.8000;0.2475;3.9865;
692.1000;0.2466;3.9840;
692.4000;0.2475;3.9941;
692.7000;0.2426;3.9815;
693.0000;0.2499;4.0042;
693.3000;0.2458;3.9966;
693.6000;0.2483;3.9941;
693.9000;0.2491;4.0117;
694.2000;0.2532;4.0243;
694.5000;0.2458;4.0192;
694.8000;0.2475;4.0218;
695.1000;0.2450;4.0067;
695.4000;0.2499;4.0092;
695.7000;0.2507;4.0092;
696.0000;0.2499;4.0042;
696.3000;0.2466;3.9966;
696.6000;0.2434;3.9916;
696.9000;0.2466;4.0016;
697.2000;0.2458;4.0067;
697.5000;0.2450;4.0042;
697.8000;0.2442;3.9941;
698.1000;0.2475;4.0042;
698.4000;0.2491;4.0092;
698.7000;0.2483;4.0042;
699.0000;0.2523;4.0167;
699.3000;0.2491;4.0067;
699.6000;0.2483;4.0092;
699.9000;0.2450;4.0092;
700.2000;0.2409;3.9941;
700.5000;0.2458;4.0067;
700.8000;0.2507;4.0268;
701.1000;0.2466;4.0117;
701.4000;0.2491;4.0218;
701.7000;0.2475;4.0243;
702.0000;0.2401;4.0042;
702.3000;0.2491;4.0368;
702.6000;0.2466;4.0192;
702.9000;0.2589;4.0545;
703.2000;0.2491;4.0167;
703.5000;0.2564;4.0293;
703.8000;0.2466;4.0092;
704.1000;0.2418;4.0042;
704.4000;0.2483;4.0192;
704.7000;0.2475;4.0092;
705.0000;0.2352;3.9740;
705.3000;0.2548;4.0268;
705.6000;0.2475;4.0067;
705.9000;0.2475;4.0067;
706.2000;0.2466;4.0192;
706.5000;0.2491;4.0268;
706.8000;0.2442;4.0042;
707.1000;0.2458;4.0117;
707.4000;0.2466;4.0142;
707.7000;0.2475;4.0192;
708.0000;0.2475;4.0293;
708.3000;0.2475;4.0243;
708.6000;0.2507;4.0343;
708.9000;0.2475;4.0142;
709.2000;0.2491;4.0167;
709.5000;0.2450;4.0092;
709.8000;0.2466;4.0218;
710.1000;0.2458;4.0142;
710.4000;0.2597;4.0494;
710.7000;0.2483;4.0167;
711.0000;0.2458;4.0067;
711.3000;0.2466;4.0117;
711.6000;0.2475;4.0192;
711.9000;0.2483;4.0192;
712.2000;0.2548;4.0444;
712.5000;0.2475;4.0218;
712.8000;0.2475;4.0268;
713.1000;0.2475;4.0293;
713.4000;0.2491;4.0192;
713.7000;0.2499;4.0218;
714.0000;0.2483;4.0117;
714.3000;0.2491;4.0092;
714.6000;0.2483;4.0067;
714.9000;0.2483;4.0092;
715.2000;0.2466;4.0092;
715.5000;0.2483;4.0192;
715.8000;0.2483;4.0318;
716.1000;0.2475;4.0218;
716.4000;0.2499;4.0192;
716.7000;0.2475;4.0167;
717.0000;0.2491;4.0117;
717.3000;0.2564;4.0293;
717.6000;0.2475;4.0092;
717.9000;0.2442;3.9941;
718.2000;0.2434;3.9941;
718.5000;0.2491;4.0042;
718.8000;0.2556;4.0268;
719.1000;0.2475;3.9966;
719.4000;0.2483;3.9991;
719.7000;0.2418;3.9865;
720.0000;0.2475;4.0142;
720.3000;0.2475;4.0092;
720.6000;0.2475;4.0092;
720.9000;0.2532;4.0167;
721.2000;0.2442;3.9941;
721.5000;0.2507;4.0042;
721.8000;0.2507;4.0067;
722.1000;0.2475;4.0067;
722.4000;0.2475;3.9966;
722.7000;0.2466;4.0016;
723.0000;0.2483;3.9991;
723.3000;0.2426;3.9689;
723.6000;0.2475;3.9891;
723.9000;0.2475;3.9891;
724.2000;0.2466;3.9916;
724.5000;0.2466;3.9916;
724.8000;0.2499;4.0042;
725.1000;0.2499;4.0067;
725.4000;0.2475;4.0016;
725.7000;0.2483;4.0092;
726.0000;0.2466;3.9991;
726.3000;0.2450;3.9941;
726.6000;0.2466;3.9916;
726.9000;0.2475;4.0092;
727.2000;0.2491;4.0092;
727.5000;0.2483;4.0167;
727.8000;0.2483;4.0042;
728.1000;0.2475;3.9966;
728.4000;0.2466;4.0016;
728.7000;0.2466;3.9966;
729.0000;0.2475;4.0016;
729.3000;0.2646;4.0545;
729.6000;0.2483;4.0117;
729.9000;0.2507;4.0142;
730.2000;0.2515;4.0167;
730.5000;0.2483;4.0142;
730.8000;0.2491;4.0167;
731.1000;0.2466;4.0067;
731.4000;0.2458;4.0016;
731.7000;0.2434;4.0092;
732.0000;0.2475;4.0192;
732.3000;0.2458;4.0243;
732.6000;0.2426;4.0192;
732.9000;0.2483;4.0218;
733.2000;0.2450;4.0067;
733.5000;0.2507;4.0167;
733.8000;0.2442;3.9991;
734.1000;0.2458;4.0016;
734.4000;0.2483;4.0117;
734.7000;0.2475;4.0218;
735.0000;0.2507;4.0318;
735.3000;0.2434;4.0092;
735.6000;0.2442;4.0092;
735.9000;0.2458;4.0142;
736.2000;0.2466;4.0067;
736.5000;0.2532;4.0142;
736.8000;0.2458;3.9991;
737.1000;0.2426;3.9865;
737.4000;0.2409;3.9891;
737.7000;0.2499;3.9966;
738.0000;0.2483;3.9991;
738.3000;0.2466;3.9941;
738.6000;0.2548;4.0192;
738.9000;0.2442;3.9815;
739.2000;0.2475;3.9991;
739.5000;0.2491;4.0042;
739.8000;0.2540;4.0218;
740.1000;0.2483;4.0067;
740.4000;0.2466;4.0092;
740.7000;0.2483;4.0092;
741.0000;0.2491;4.0092;
741.3000;0.2409;3.9916;
741.6000;0.2483;4.0067;
741.9000;0.2450;3.9941;
742.2000;0.2450;3.9991;
742.5000;0.2475;3.9941;
742.8000;0.2458;3.9891;
743.1000;0.2450;3.9840;
743.4000;0.2466;3.9840;
743.7000;0.2491;3.9891;
744.0000;0.2466;3.9916;
744.3000;0.2475;3.9865;
744.6000;0.2458;3.9891;
744.9000;0.2458;3.9941;
745.2000;0.2450;3.9790;
745.5000;0.2466;3.9740;
745.8000;0.2466;3.9614;
746.1000;0.2466;3.9614;
746.4000;0.2475;3.9715;
746.7000;0.2466;3.9664;
747.0000;0.2442;3.9664;
747.3000;0.2450;3.9740;
747.6000;0.2442;3.9790;
747.9000;0.2450;3.9916;
748.2000;0.2475;3.9966;
748.5000;0.2475;3.9891;
748.8000;0.2483;3.9941;
749.1000;0.2466;3.9916;
749.4000;0.2466;3.9916;
749.7000;0.2466;3.9916;
750.0000;0.2491;4.0042;
750.3000;0.2450;3.9916;
750.6000;0.2523;4.0142;
750.9000;0.2458;4.0016;
751.2000;0.2515;4.0167;
751.5000;0.2499;4.0117;
751.8000;0.2450;4.0142;
752.1000;0.2483;4.0318;
752.4000;0.2483;4.0218;
752.7000;0.2458;4.0092;
753.0000;0.2475;4.0016;
753.3000;0.2475;4.0016;
753.6000;0.2401;3.9840;
753.9000;0.2515;4.0243;
754.2000;0.2475;4.0092;
754.5000;0.2458;4.0016;
754.8000;0.2515;4.0192;
755.1000;0.2393;3.9790;
755.4000;0.2548;4.0218;
755.7000;0.2466;4.0092;
756.0000;0.2491;4.0192;
756.3000;0.2458;4.0142;
756.6000;0.2401;3.9891;
756.9000;0.2426;3.9966;
757.2000;0.2466;3.9991;
757.5000;0.2483;4.0092;
757.8000;0.2475;3.9916;
758.1000;0.2483;3.9941;
758.4000;0.2515;4.0117;
758.7000;0.2466;4.0067;
759.0000;0.2483;4.0067;
759.3000;0.2507;4.0092;
759.6000;0.2458;4.0016;
759.9000;0.2507;4.0067;
760.2000;0.2499;4.0067;
760.5000;0.2401;3.9790;
760.8000;0.2426;3.9916;
761.1000;0.2499;4.0092;
761.4000;0.2426;3.9891;
761.7000;0.2458;3.9916;
762.0000;0.2491;3.9916;
762.3000;0.2491;3.9941;
762.6000;0.2491;3.9966;
762.9000;0.2320;3.9589;
763.2000;0.2475;3.9916;
763.5000;0.2475;3.9865;
763.8000;0.2466;3.9840;
764.1000;0.2499;3.9865;
764.4000;0.2458;3.9815;
764.7000;0.2466;3.9865;
765.0000;0.2491;3.9916;
765.3000;0.2548;4.0117;
765.6000;0.2450;3.9966;
765.9000;0.2450;3.9966;
766.2000;0.2491;4.0117;
766.5000;0.2450;4.0067;
766.8000;0.2450;4.0016;
767.1000;0.2466;3.9966;
767.4000;0.2475;3.9916;
767.7000;0.2483;4.0016;
768.0000;0.2499;4.0117;
768.3000;0.2483;4.0067;
768.6000;0.2515;4.0092;
768.9000;0.2483;4.0016;
769.2000;0.2483;3.9966;
769.5000;0.2475;3.9991;
769.8000;0.2393;3.9664;
770.1000;0.2499;3.9941;
770.4000;0.2491;3.9840;
770.7000;0.2475;3.9815;
771.0000;0.2450;3.9815;
771.3000;0.2475;3.9865;
771.6000;0.2442;3.9865;
771.9000;0.2475;4.0016;
772.2000;0.2458;4.0016;
772.5000;0.2499;4.0142;
772.8000;0.2515;4.0192;
773.1000;0.2507;4.0142;
773.4000;0.2450;4.0016;
773.7000;0.2540;4.0268;
774.0000;0.2466;4.0067;
774.3000;0.2515;4.0142;
774.6000;0.2499;4.0067;
774.9000;0.2458;3.9991;
775.2000;0.2466;4.0042;
775.5000;0.2401;3.9840;
775.8000;0.2458;3.9916;
776.1000;0.2475;4.0042;
776.4000;0.2491;4.0067;
776.7000;0.2466;4.0142;
777.0000;0.2491;4.0142;
777.3000;0.2442;3.9991;
777.6000;0.2475;4.0092;
777.9000;0.2556;4.0293;
778.2000;0.2483;4.0218;
778.5000;0.2475;4.0167;
778.8000;0.2426;4.0092;
779.1000;0.2491;4.0268;
779.4000;0.2450;4.0243;
779.7000;0.2466;4.0117;
780.0000;0.2401;3.9966;
780.3000;0.2483;4.0142;
780.6000;0.2483;4.0167;
780.9000;0.2483;4.0218;
781.2000;0.2442;4.0192;
781.5000;0.2507;4.0419;
781.8000;0.2466;4.0318;
782.1000;0.2491;4.0368;
782.4000;0.2475;4.0293;
782.7000;0.2475;4.0343;
783.0000;0.2466;4.0318;
783.3000;0.2491;4.0368;
783.6000;0.2475;4.0343;
783.9000;0.2483;4.0469;
784.2000;0.2483;4.0419;
784.5000;0.2475;4.0293;
784.8000;0.2491;4.0368;
785.1000;0.2458;4.0142;
785.4000;0.2466;4.0268;
785.7000;0.2466;4.0268;
786.0000;0.2483;4.0343;
786.3000;0.2532;4.0494;
786.6000;0.2507;4.0343;
786.9000;0.2352;3.9840;
787.2000;0.2475;4.0142;
787.5000;0.2458;4.0092;
787.8000;0.2458;4.0042;
788.1000;0.2491;4.0142;
788.4000;0.2499;4.0167;
788.7000;0.2540;4.0218;
789.0000;0.2483;4.0092;
789.3000;0.2483;4.0117;
789.6000;0.2483;4.0167;
789.9000;0.2483;4.0243;
790.2000;0.2466;4.0192;
790.5000;0.2475;4.0218;
790.8000;0.2475;4.0167;
791.1000;0.2491;4.0167;
791.4000;0.2442;4.0067;
791.7000;0.2491;4.0293;
792.0000;0.2450;4.0192;
792.3000;0.2483;4.0318;
792.6000;0.2483;4.0343;
792.9000;0.2393;4.0243;
793.2000;0.2466;4.0419;
793.5000;0.2491;4.0394;
793.8000;0.2442;4.0167;
794.1000;0.2466;4.0142;
794.4000;0.2483;4.0192;
794.7000;0.2475;4.0142;
795.0000;0.2369;3.9865;
795.3000;0.2556;4.0444;
795.6000;0.2475;4.0192;
795.9000;0.2483;4.0117;
796.2000;0.2442;4.0042;
796.5000;0.2523;4.0318;
796.8000;0.2393;3.9916;
797.1000;0.2483;4.0192;
797.4000;0.2515;4.0368;
797.7000;0.2458;4.0243;
798.0000;0.2458;4.0218;
798.3000;0.2499;4.0243;
798.6000;0.2409;3.9991;
798.9000;0.2450;4.0142;
799.2000;0.2369;3.9765;
799.5000;0.2466;4.0042;
799.8000;0.2458;4.0067;
800.1000;0.2483;4.0117;
800.4000;0.2475;4.0042;
800.7000;0.2450;3.9991;
801.0000;0.2466;4.0067;
801.3000;0.2475;4.0142;
801.6000;0.2532;4.0268;
801.9000;0.2434;4.0016;
802.2000;0.2483;4.0192;
802.5000;0.2458;4.0142;
802.8000;0.2475;4.0192;
803.1000;0.2475;4.0142;
803.4000;0.2483;4.0142;
803.7000;0.2483;4.0117;
804.0000;0.2466;4.0067;
804.3000;0.2483;4.0067;
804.6000;0.2475;4.0067;
804.9000;0.2466;4.0067;
805.2000;0.2466;4.0042;
805.5000;0.2450;3.9941;
805.8000;0.2491;4.0016;
806.1000;0.2458;3.9991;
806.4000;0.2475;4.0016;
806.7000;0.2475;4.0016;
807.0000;0.2515;4.0142;
807.3000;0.2491;4.0142;
807.6000;0.2466;4.0042;
807.9000;0.2458;4.0016;
808.2000;0.2532;4.0243;
808.5000;0.2515;4.0218;
808.8000;0.2458;4.0042;
809.1000;0.2556;4.0142;
809.4000;0.2483;3.9916;
809.7000;0.2507;4.0016;
810.0000;0.2450;3.9991;
810.3000;0.2483;4.0092;
810.6000;0.2475;4.0016;
810.9000;0.2523;4.0218;
811.2000;0.2458;3.9991;
811.5000;0.2466;4.0067;
811.8000;0.2475;4.0042;
812.1000;0.2540;4.0092;
812.4000;0.2491;4.0042;
812.7000;0.2556;4.0243;
813.0000;0.2483;4.0067;
813.3000;0.2507;4.0067;
813.6000;0.2491;3.9991;
813.9000;0.2499;4.0092;
814.2000;0.2499;4.0117;
814.5000;0.2491;4.0117;
814.8000;0.2475;4.0092;
815.1000;0.2491;4.0142;
815.4000;0.2507;4.0243;
815.7000;0.2450;4.0167;
816.0000;0.2442;4.0167;
816.3000;0.2450;4.0243;
816.6000;0.2499;4.0318;
816.9000;0.2458;4.0243;
817.2000;0.2458;4.0243;
817.5000;0.2515;4.0394;
817.8000;0.2409;4.0092;
818.1000;0.2523;4.0394;
818.4000;0.2483;4.0268;
818.7000;0.2466;4.0268;
819.0000;0.2475;4.0218;
819.3000;0.2532;4.0343;
819.6000;0.2483;4.0293;
819.9000;0.2491;4.0192;
820.2000;0.2499;4.0268;
820.5000;0.2491;4.0142;
820.8000;0.2491;4.0218;
821.1000;0.2466;4.0142;
821.4000;0.2466;4.0167;
821.7000;0.2458;4.0243;
822.0000;0.2450;4.0142;
822.3000;0.2458;4.0042;
822.6000;0.2442;3.9991;
822.9000;0.2475;4.0092;
823.2000;0.2507;4.0192;
823.5000;0.2499;4.0142;
823.8000;0.2491;4.0092;
824.1000;0.2458;3.9991;
824.4000;0.2466;4.0016;
824.7000;0.2491;4.0016;
825.0000;0.2507;4.0067;
825.3000;0.2475;3.9916;
825.6000;0.2475;3.9916;
825.9000;0.2507;4.0117;
826.2000;0.2589;4.0444;
826.5000;0.2483;4.0167;
826.8000;0.2475;4.0243;
827.1000;0.2483;4.0268;
827.4000;0.2483;4.0368;
827.7000;0.2491;4.0394;
828.0000;0.2466;4.0368;
828.3000;0.2393;4.0142;
828.6000;0.2580;4.0645;
828.9000;0.2507;4.0394;
829.2000;0.2475;4.0343;
829.5000;0.2458;4.0268;
829.8000;0.2475;4.0343;
830.1000;0.2475;4.0268;
830.4000;0.2499;4.0243;
830.7000;0.2475;4.0142;
831.0000;0.2434;3.9865;
831.3000;0.2377;3.9689;
831.6000;0.2475;3.9966;
831.9000;0.2507;4.0042;
832.2000;0.2466;3.9941;
832.5000;0.2483;4.0092;
832.8000;0.2499;4.0218;
833.1000;0.2499;4.0293;
833.4000;0.2483;4.0268;
833.7000;0.2499;4.0368;
834.0000;0.2523;4.0368;
834.3000;0.2466;4.0268;
834.6000;0.2499;4.0243;
834.9000;0.2589;4.0444;
835.2000;0.2507;4.0142;
835.5000;0.2491;4.0042;
835.8000;0.2466;3.9991;
836.1000;0.2475;4.0042;
836.4000;0.2491;4.0142;
836.7000;0.2483;4.0117;
837.0000;0.2475;4.0117;
837.3000;0.2483;4.0142;
837.6000;0.2483;4.0192;
837.9000;0.2466;4.0067;
838.2000;0.2466;4.0142;
838.5000;0.2483;4.0142;
838.8000;0.2499;4.0218;
839.1000;0.2548;4.0419;
839.4000;0.2491;4.0293;
839.7000;0.2458;4.0268;
840.0000;0.2483;4.0167;
840.3000;0.2507;4.0142;
840.6000;0.2442;3.9966;
840.9000;0.2475;4.0117;
841.2000;0.2466;4.0167;
841.5000;0.2475;4.0218;
841.8000;0.2483;4.0218;
842.1000;0.2466;4.0243;
842.4000;0.2466;4.0167;
842.7000;0.2483;4.0167;
843.0000;0.2483;4.0092;
843.3000;0.2564;4.0318;
843.6000;0.2475;4.0067;
843.9000;0.2491;4.0117;
844.2000;0.2572;4.0419;
844.5000;0.2499;4.0167;
844.8000;0.2491;4.0042;
845.1000;0.2491;4.0117;
845.4000;0.2483;4.0092;
845.7000;0.2515;4.0142;
846.0000;0.2475;4.0067;
846.3000;0.2401;3.9891;
846.6000;0.2475;4.0117;
846.9000;0.2475;4.0067;
847.2000;0.2401;3.9840;
847.5000;0.2491;4.0092;
847.8000;0.2621;4.0645;
848.1000;0.2491;4.0243;
848.4000;0.2499;4.0243;
848.7000;0.2450;4.0142;
849.0000;0.2491;4.0192;
849.3000;0.2475;4.0092;
849.6000;0.2466;3.9991;
849.9000;0.2475;4.0042;
850.2000;0.2450;3.9991;
850.5000;0.2499;4.0117;
850.8000;0.2450;4.0117;
851.1000;0.2507;4.0268;
851.4000;0.2483;4.0293;
851.7000;0.2475;4.0268;
852.0000;0.2426;4.0117;
852.3000;0.2475;4.0142;
852.6000;0.2442;4.0016;
852.9000;0.2466;4.0092;
853.2000;0.2491;4.0067;
853.5000;0.2483;4.0142;
853.8000;0.2466;4.0067;
854.1000;0.2442;4.0016;
854.4000;0.2499;4.0218;
854.7000;0.2466;4.0142;
855.0000;0.2466;4.0167;
855.3000;0.2491;4.0167;
855.6000;0.2499;4.0167;
855.9000;0.2475;3.9991;
856.2000;0.2418;3.9865;
856.5000;0.2483;4.0016;
856.8000;0.2483;4.0016;
857.1000;0.2442;3.9916;
857.4000;0.2523;4.0192;
857.7000;0.2515;4.0167;
858.0000;0.2499;4.0192;
858.3000;0.2507;4.0343;
858.6000;0.2507;4.0268;
858.9000;0.2483;4.0067;
859.2000;0.2491;4.0067;
859.5000;0.2491;4.0042;
859.8000;0.2483;3.9916;
860.1000;0.2458;3.9865;
860.4000;0.2450;3.9840;
860.7000;0.2475;3.9790;
861.0000;0.2475;3.9840;
861.3000;0.2466;3.9865;
861.6000;0.2466;3.9891;
861.9000;0.2475;3.9840;
862.2000;0.2458;3.9865;
862.5000;0.2466;3.9941;
862.8000;0.2491;4.0042;
863.1000;0.2434;3.9916;
863.4000;0.2458;3.9891;
863.7000;0.2475;3.9891;
864.0000;0.2491;3.9991;
864.3000;0.2515;4.0016;
864.6000;0.2515;4.0042;
864.9000;0.2458;3.9891;
865.2000;0.2491;3.9991;
865.5000;0.2483;4.0016;
865.8000;0.2572;4.0218;
866.1000;0.2450;3.9840;
866.4000;0.2442;3.9765;
866.7000;0.2458;3.9790;
867.0000;0.2466;3.9689;
867.3000;0.2475;3.9740;
867.6000;0.2515;3.9840;
867.9000;0.2483;3.9689;
868.2000;0.2483;3.9589;
868.5000;0.2466;3.9639;
868.8000;0.2523;3.9840;
869.1000;0.2483;3.9664;
869.4000;0.2475;3.9715;
869.7000;0.2605;4.0192;
870.0000;0.2475;3.9765;
870.3000;0.2466;3.9740;
870.6000;0.2466;3.9815;
870.9000;0.2499;3.9840;
871.2000;0.2491;3.9840;
871.5000;0.2491;3.9765;
871.8000;0.2466;3.9740;
872.1000;0.2475;3.9815;
872.4000;0.2466;3.9740;
872.7000;0.2466;3.9790;
873.0000;0.2540;4.0016;
873.3000;0.2605;4.0218;
873.6000;0.2466;3.9891;
873.9000;0.2499;3.9966;
874.2000;0.2491;3.9916;
874.5000;0.2466;3.9941;
874.8000;0.2475;3.9941;
875.1000;0.2458;3.9916;
875.4000;0.2483;4.0016;
875.7000;0.2458;3.9991;
876.0000;0.2475;4.0092;
876.3000;0.2466;4.0016;
876.6000;0.2483;3.9991;
876.9000;0.2507;4.0016;
877.2000;0.2475;3.9891;
877.5000;0.2483;3.9941;
877.8000;0.2499;4.0042;
878.1000;0.2475;3.9991;
878.4000;0.2483;3.9991;
878.7000;0.2450;3.9916;
879.0000;0.2385;3.9790;
879.3000;0.2499;4.0042;
879.6000;0.2483;3.9966;
879.9000;0.2458;3.9865;
880.2000;0.2483;3.9941;
880.5000;0.2483;3.9966;
880.8000;0.2434;3.9790;
881.1000;0.2507;3.9941;
881.4000;0.2418;3.9765;
881.7000;0.2491;3.9941;
882.0000;0.2475;3.9941;
882.3000;0.2466;3.9916;
882.6000;0.2450;3.9941;
882.9000;0.2491;4.0016;
883.2000;0.2466;3.9916;
883.5000;0.2483;4.0016;
883.8000;0.2499;4.0092;
884.1000;0.2458;4.0092;
884.4000;0.2483;4.0218;
884.7000;0.2523;4.0293;
885.0000;0.2499;4.0243;
885.3000;0.2483;4.0142;
885.6000;0.2483;4.0218;
885.9000;0.2418;3.9941;
886.2000;0.2475;4.0092;
886.5000;0.2442;3.9941;
886.8000;0.2491;4.0042;
887.1000;0.2466;3.9941;
887.4000;0.2369;3.9664;
887.7000;0.2450;3.9916;
888.0000;0.2515;4.0067;
888.3000;0.2483;3.9865;
888.6000;0.2491;3.9916;
888.9000;0.2523;3.9991;
889.2000;0.2434;3.9765;
889.5000;0.2572;4.0117;
889.8000;0.2475;3.9815;
890.1000;0.2450;3.9715;
890.4000;0.2450;3.9740;
890.7000;0.2499;3.9865;
891.0000;0.2466;3.9715;
891.3000;0.2483;3.9815;
891.6000;0.2483;3.9916;
891.9000;0.2491;3.9916;
892.2000;0.2466;3.9865;
892.5000;0.2475;3.9916;
892.8000;0.2458;3.9765;
893.1000;0.2434;3.9715;
893.4000;0.2483;3.9891;
893.7000;0.2483;3.9891;
894.0000;0.2475;3.9790;
894.3000;0.2466;3.9689;
894.6000;0.2426;3.9614;
894.9000;0.2483;3.9790;
895.2000;0.2483;3.9865;
895.5000;0.2475;3.9966;
895.8000;0.2442;3.9865;
896.1000;0.2418;3.9916;
896.4000;0.2499;4.0142;
896.7000;0.2491;4.0142;
897.0000;0.2466;4.0042;
897.3000;0.2450;4.0042;
897.6000;0.2523;4.0218;
897.9000;0.2466;4.0042;
898.2000;0.2466;4.0016;
898.5000;0.2499;4.0016;
898.8000;0.2466;3.9815;
899.1000;0.2483;3.9865;
899.4000;0.2491;4.0016;
899.7000;0.2507;4.0042;
900.0000;0.2466;3.9966;
900.3000;0.2466;3.9865;
900.6000;0.2458;3.9790;
900.9000;0.2507;3.9941;
901.2000;0.2475;3.9815;
901.5000;0.2515;3.9991;
901.8000;0.2572;4.0142;
902.1000;0.2475;3.9790;
902.4000;0.2475;3.9790;
902.7000;0.2483;3.9891;
903.0000;0.2450;3.9966;
903.3000;0.2491;4.0117;
903.6000;0.2507;4.0067;
903.9000;0.2458;4.0016;
904.2000;0.2483;3.9991;
904.5000;0.2466;4.0016;
904.8000;0.2540;4.0167;
905.1000;0.2491;4.0067;
905.4000;0.2491;4.0117;
905.7000;0.2458;3.9991;
906.0000;0.2475;4.0092;
906.3000;0.2450;3.9916;
906.6000;0.2434;3.9840;
906.9000;0.2475;3.9941;
907.2000;0.2475;3.9941;
907.5000;0.2499;4.0042;
907.8000;0.2450;3.9991;
908.1000;0.2466;4.0042;
908.4000;0.2507;4.0067;
908.7000;0.2507;4.0092;
909.0000;0.2491;4.0117;
909.3000;0.2515;4.0142;
909.6000;0.2499;4.0042;
909.9000;0.2475;3.9891;
910.2000;0.2507;4.0016;
910.5000;0.2491;3.9941;
910.8000;0.2401;3.9715;
911.1000;0.2483;3.9891;
911.4000;0.2491;3.9840;
911.7000;0.2491;3.9815;
912.0000;0.2491;3.9765;
912.3000;0.2483;3.9865;
912.6000;0.2540;4.0117;
912.9000;0.2466;3.9815;
913.2000;0.2499;3.9865;
913.5000;0.2442;3.9639;
913.8000;0.2483;3.9840;
914.1000;0.2483;3.9865;
914.4000;0.2458;3.9840;
914.7000;0.2401;3.9765;
915.0000;0.2483;3.9966;
915.3000;0.2556;4.0218;
915.6000;0.2499;3.9991;
915.9000;0.2475;4.0016;
916.2000;0.2483;4.0067;
916.5000;0.2499;4.0192;
916.8000;0.2499;4.0092;
917.1000;0.2491;3.9991;
917.4000;0.2515;3.9991;
917.7000;0.2434;3.9891;
918.0000;0.2475;3.9966;
918.3000;0.2475;3.9916;
918.6000;0.2418;3.9815;
918.9000;0.2499;3.9991;
919.2000;0.2499;3.9941;
919.5000;0.2466;3.9865;
919.8000;0.2401;3.9765;
920.1000;0.2540;4.0192;
920.4000;0.2515;4.0218;
920.7000;0.2515;4.0293;
921.0000;0.2426;3.9891;
921.3000;0.2466;4.0067;
921.6000;0.2458;4.0042;
921.9000;0.2475;4.0117;
922.2000;0.2466;3.9991;
922.5000;0.2466;3.9991;
922.8000;0.2515;4.0167;
923.1000;0.2483;4.0016;
923.4000;0.2483;4.0067;
923.7000;0.2434;4.0042;
924.0000;0.2572;4.0444;
924.3000;0.2466;4.0243;
924.6000;0.2475;4.0243;
924.9000;0.2458;4.0142;
925.2000;0.2499;4.0218;
925.5000;0.2475;4.0167;
925.8000;0.2442;4.0067;
926.1000;0.2450;4.0067;
926.4000;0.2491;4.0268;
926.7000;0.2442;4.0192;
927.0000;0.2466;4.0218;
927.3000;0.2475;4.0318;
927.6000;0.2475;4.0293;
927.9000;0.2491;4.0268;
928.2000;0.2491;4.0243;
928.5000;0.2499;4.0192;
928.8000;0.2491;4.0167;
929.1000;0.2499;4.0268;
929.4000;0.2466;4.0167;
929.7000;0.2483;4.0167;
930.0000;0.2491;4.0117;
930.3000;0.2483;4.0167;
930.6000;0.2491;4.0268;
930.9000;0.2458;4.0092;
931.2000;0.2475;4.0167;
931.5000;0.2491;4.0092;
931.8000;0.2483;3.9966;
932.1000;0.2409;3.9815;
932.4000;0.2475;3.9991;
932.7000;0.2483;3.9991;
933.0000;0.2483;3.9966;
933.3000;0.2491;3.9966;
933.6000;0.2499;3.9966;
933.9000;0.2515;3.9991;
934.2000;0.2548;4.0067;
934.5000;0.2499;3.9941;
934.8000;0.2450;3.9840;
935.1000;0.2434;3.9840;
935.4000;0.2491;4.0016;
935.7000;0.2507;4.0042;
936.0000;0.2401;3.9840;
936.3000;0.2466;4.0042;
936.6000;0.2450;3.9991;
936.9000;0.2442;3.9891;
937.2000;0.2515;4.0067;
937.5000;0.2475;3.9991;
937.8000;0.2483;4.0042;
938.1000;0.2491;4.0092;
938.4000;0.2572;4.0419;
938.7000;0.2491;4.0218;
939.0000;0.2507;4.0218;
939.3000;0.2572;4.0469;
939.6000;0.2491;4.0167;
939.9000;0.2507;4.0293;
940.2000;0.2442;4.0067;
940.5000;0.2483;4.0192;
940.8000;0.2491;4.0218;
941.1000;0.2483;4.0092;
941.4000;0.2475;3.9991;
941.7000;0.2621;4.0519;
942.0000;0.2475;4.0167;
942.3000;0.2483;4.0142;
942.6000;0.2507;4.0117;
942.9000;0.2475;4.0092;
943.2000;0.2483;4.0117;
943.5000;0.2450;3.9991;
943.8000;0.2434;3.9840;
944.1000;0.2483;4.0016;
944.4000;0.2475;3.9991;
944.7000;0.2507;4.0016;
945.0000;0.2491;3.9891;
945.3000;0.2515;3.9991;
945.6000;0.2499;4.0092;
945.9000;0.2475;4.0092;
946.2000;0.2475;4.0067;
946.5000;0.2475;4.0192;
946.8000;0.2434;4.0092;
947.1000;0.2475;4.0092;
947.4000;0.2507;4.0092;
947.7000;0.2475;3.9941;
948.0000;0.2491;4.0016;
948.3000;0.2475;3.9966;
948.6000;0.2483;3.9840;
948.9000;0.2483;3.9865;
949.2000;0.2499;3.9815;
949.5000;0.2466;3.9689;
949.8000;0.2466;3.9765;
950.1000;0.2499;3.9840;
950.4000;0.2475;3.9790;
950.7000;0.2507;3.9916;
951.0000;0.2475;3.9865;
951.3000;0.2458;3.9840;
951.6000;0.2483;3.9815;
951.9000;0.2483;3.9916;
952.2000;0.2507;3.9991;
952.5000;0.2491;3.9991;
952.8000;0.2523;4.0243;
953.1000;0.2499;4.0092;
953.4000;0.2475;4.0042;
953.7000;0.2532;4.0167;
954.0000;0.2499;4.0092;
954.3000;0.2475;3.9991;
954.6000;0.2523;4.0092;
954.9000;0.2540;4.0142;
955.2000;0.2499;4.0042;
955.5000;0.2475;3.9966;
955.8000;0.2491;3.9865;
956.1000;0.2458;3.9815;
956.4000;0.2564;4.0192;
956.7000;0.2499;4.0092;
957.0000;0.2515;4.0042;
957.3000;0.2483;4.0092;
957.6000;0.2483;4.0092;
957.9000;0.2499;4.0117;
958.2000;0.2540;4.0218;
958.5000;0.2499;4.0167;
958.8000;0.2466;4.0016;
959.1000;0.2572;4.0293;
959.4000;0.2499;4.0192;
959.7000;0.2475;4.0142;
960.0000;0.2475;4.0167;
960.3000;0.2523;4.0268;
960.6000;0.2344;3.9840;
960.9000;0.2475;4.0142;
961.2000;0.2483;4.0167;
961.5000;0.2466;4.0067;
961.8000;0.2491;4.0167;
962.1000;0.2564;4.0368;
962.4000;0.2491;4.0142;
962.7000;0.2418;3.9891;
963.0000;0.2515;4.0142;
963.3000;0.2491;4.0067;
963.6000;0.2434;3.9966;
963.9000;0.2442;3.9916;
964.2000;0.2499;4.0067;
964.5000;0.2491;3.9941;
964.8000;0.2499;4.0016;
965.1000;0.2483;3.9991;
965.4000;0.2483;4.0042;
965.7000;0.2450;3.9891;
966.0000;0.2491;4.0042;
966.3000;0.2491;4.0117;
966.6000;0.2466;4.0092;
966.9000;0.2483;4.0142;
967.2000;0.2515;4.0268;
967.5000;0.2475;4.0142;
967.8000;0.2458;4.0092;
968.1000;0.2483;4.0167;
968.4000;0.2507;4.0218;
968.7000;0.2475;4.0167;
969.0000;0.2483;4.0218;
969.3000;0.2499;4.0167;
969.6000;0.2466;4.0067;
969.9000;0.2507;4.0192;
970.2000;0.2393;3.9916;
970.5000;0.2483;4.0142;
970.8000;0.2507;4.0268;
971.1000;0.2475;4.0243;
971.4000;0.2483;4.0268;
971.7000;0.2475;4.0218;
972.0000;0.2491;4.0142;
972.3000;0.2458;4.0067;
972.6000;0.2450;4.0042;
972.9000;0.2564;4.0343;
973.2000;0.2499;4.0117;
973.5000;0.2515;4.0142;
973.8000;0.2499;4.0092;
974.1000;0.2491;4.0042;
974.4000;0.2483;3.9966;
974.7000;0.2483;3.9840;
975.0000;0.2515;3.9891;
975.3000;0.2507;3.9916;
975.6000;0.2540;4.0067;
975.9000;0.2483;3.9991;
976.2000;0.2491;4.0042;
976.5000;0.2442;3.9966;
976.8000;0.2491;4.0092;
977.1000;0.2466;4.0042;
977.4000;0.2458;4.0067;
977.7000;0.2491;4.0117;
978.0000;0.2483;4.0117;
978.3000;0.2483;4.0092;
978.6000;0.2458;3.9991;
978.9000;0.2523;4.0092;
979.2000;0.2491;4.0016;
979.5000;0.2483;3.9991;
979.8000;0.2409;3.9815;
980.1000;0.2507;4.0192;
980.4000;0.2466;4.0117;
980.7000;0.2515;4.0218;
981.0000;0.2475;4.0067;
981.3000;0.2483;4.0142;
981.6000;0.2466;4.0117;
981.9000;0.2483;4.0268;
982.2000;0.2499;4.0243;
982.5000;0.2499;4.0243;
982.8000;0.2621;4.0595;
983.1000;0.2507;4.0218;
983.4000;0.2475;4.0117;
983.7000;0.2466;4.0042;
984.0000;0.2475;4.0016;
984.3000;0.2507;4.0016;
984.6000;0.2548;4.0218;
984.9000;0.2572;4.0368;
985.2000;0.2483;4.0142;
985.5000;0.2483;4.0293;
985.8000;0.2499;4.0394;
986.1000;0.2515;4.0419;
986.4000;0.2483;4.0394;
986.7000;0.2385;4.0218;
987.0000;0.2475;4.0293;
987.3000;0.2466;4.0318;
987.6000;0.2442;4.0167;
987.9000;0.2458;4.0243;
988.2000;0.2491;4.0394;
988.5000;0.2483;4.0293;
988.8000;0.2515;4.0368;
989.1000;0.2491;4.0318;
989.4000;0.2491;4.0243;
989.7000;0.2556;4.0368;
990.0000;0.2491;4.0117;
990.3000;0.2491;4.0092;
990.6000;0.2483;4.0192;
990.9000;0.2483;4.0192;
991.2000;0.2466;4.0067;
991.5000;0.2483;4.0042;
991.8000;0.2483;4.0016;
992.1000;0.2483;3.9991;
992.4000;0.2475;3.9966;
992.7000;0.2483;4.0016;
993.0000;0.2499;4.0117;
993.3000;0.2475;4.0042;
993.6000;0.2491;4.0092;
993.9000;0.2499;4.0167;
994.2000;0.2483;4.0142;
994.5000;0.2483;4.0167;
994.8000;0.2475;4.0067;
995.1000;0.2507;4.0243;
995.4000;0.2483;4.0117;
995.7000;0.2499;4.0042;
996.0000;0.2466;3.9991;
996.3000;0.2475;4.0042;
996.6000;0.2491;4.0142;
996.9000;0.2483;4.0092;
997.2000;0.2540;4.0243;
997.5000;0.2483;4.0142;
997.8000;0.2499;4.0218;
998.1000;0.2491;4.0092;
998.4000;0.2491;4.0092;
998.7000;0.2385;3.9790;
999.0000;0.2483;4.0142;
999.3000;0.2483;4.0117;
999.6000;0.2483;4.0016;
999.9000;0.2458;3.9991;
1000.2000;0.2475;4.0092;
1000.5000;0.2499;4.0117;
1000.8000;0.2450;4.0016;
1001.1000;0.2475;4.0042;
1001.4000;0.2450;3.9991;
1001.7000;0.2483;4.0042;
1002.0000;0.2507;3.9966;
1002.3000;0.2450;3.9865;
1002.6000;0.2515;3.9916;
1002.9000;0.2442;3.9740;
1003.2000;0.2466;3.9891;
1003.5000;0.2523;4.0092;
1003.8000;0.2458;3.9840;
1004.1000;0.2499;3.9941;
1004.4000;0.2483;3.9891;
1004.7000;0.2507;4.0016;
1005.0000;0.2540;4.0167;
1005.3000;0.2475;4.0167;
1005.6000;0.2450;4.0192;
1005.9000;0.2523;4.0394;
1006.2000;0.2475;4.0268;
1006.5000;0.2507;4.0293;
1006.8000;0.2507;4.0218;
1007.1000;0.2466;4.0042;
1007.4000;0.2491;4.0067;
1007.7000;0.2507;4.0092;
1008.0000;0.2499;4.0067;
1008.3000;0.2475;4.0016;
1008.6000;0.2475;4.0042;
1008.9000;0.2540;4.0268;
1009.2000;0.2458;4.0042;
1009.5000;0.2548;4.0268;
1009.8000;0.2483;4.0067;
1010.1000;0.2491;4.0067;
1010.4000;0.2483;4.0142;
1010.7000;0.2466;4.0092;
1011.0000;0.2475;4.0042;
1011.3000;0.2483;4.0117;
1011.6000;0.2409;3.9966;
1011.9000;0.2458;4.0142;
1012.2000;0.2491;4.0192;
1012.5000;0.2483;4.0192;
1012.8000;0.2491;4.0117;
1013.1000;0.2483;4.0042;
1013.4000;0.2475;4.0016;
1013.7000;0.2532;4.0218;
1014.0000;0.2499;4.0042;
1014.3000;0.2491;4.0016;
1014.6000;0.2475;3.9941;
1014.9000;0.2491;3.9966;
1015.2000;0.2483;3.9865;
1015.5000;0.2475;3.9891;
1015.8000;0.2475;3.9765;
1016.1000;0.2483;3.9715;
1016.4000;0.2613;4.0192;
1016.7000;0.2483;3.9865;
1017.0000;0.2491;3.9966;
1017.3000;0.2499;4.0016;
1017.6000;0.2491;3.9991;
1017.9000;0.2475;4.0016;
1018.2000;0.2483;4.0016;
1018.5000;0.2466;4.0016;
1018.8000;0.2515;4.0167;
1019.1000;0.2499;4.0092;
1019.4000;0.2418;3.9941;
1019.7000;0.2458;3.9991;
1020.0000;0.2483;4.0016;
1020.3000;0.2483;4.0042;
1020.6000;0.2507;4.0067;
1020.9000;0.2466;3.9941;
1021.2000;0.2523;4.0092;
1021.5000;0.2458;3.9941;
1021.8000;0.2499;3.9966;
1022.1000;0.2483;3.9891;
1022.4000;0.2426;3.9765;
1022.7000;0.2458;3.9966;
1023.0000;0.2475;4.0067;
1023.3000;0.2491;4.0042;
1023.6000;0.2523;4.0042;
1023.9000;0.2507;4.0042;
1024.2000;0.2499;4.0016;
1024.5000;0.2491;4.0016;
1024.8000;0.2426;3.9790;
1025.1000;0.2483;3.9941;
1025.4000;0.2507;3.9941;
1025.7000;0.2491;3.9815;
1026.0000;0.2491;3.9865;
1026.3000;0.2491;3.9840;
1026.6000;0.2475;3.9790;
1026.9000;0.2450;3.9715;
1027.2000;0.2466;3.9790;
1027.5000;0.2556;3.9991;
1027.8000;0.2475;3.9815;
1028.1000;0.2418;3.9790;
1028.4000;0.2483;3.9966;
1028.7000;0.2450;3.9966;
1029.0000;0.2483;4.0042;
1029.3000;0.2385;3.9715;
1029.6000;0.2466;3.9916;
1029.9000;0.2515;3.9991;
1030.2000;0.2466;3.9891;
1030.5000;0.2466;3.9991;
1030.8000;0.2466;3.9991;
1031.1000;0.2458;3.9916;
1031.4000;0.2409;3.9815;
1031.7000;0.2483;3.9966;
1032.0000;0.2507;4.0067;
1032.3000;0.2458;3.9916;
1032.6000;0.2483;3.9966;
1032.9000;0.2458;3.9865;
1033.2000;0.2475;3.9916;
1033.5000;0.2336;3.9538;
1033.8000;0.2466;3.9891;
1034.1000;0.2483;3.9941;
1034.4000;0.2491;3.9865;
1034.7000;0.2491;3.9840;
1035.0000;0.2491;3.9840;
1035.3000;0.2483;3.9840;
1035.6000;0.2475;3.9865;
1035.9000;0.2483;3.9891;
1036.2000;0.2483;3.9941;
1036.5000;0.2515;3.9916;
1036.8000;0.2483;3.9941;
1037.1000;0.2507;3.9966;
1037.4000;0.2491;3.9941;
1037.7000;0.2466;3.9865;
1038.0000;0.2515;4.0016;
1038.3000;0.2483;3.9916;
1038.6000;0.2475;3.9991;
1038.9000;0.2523;4.0067;
1039.2000;0.2491;3.9991;
1039.5000;0.2515;3.9991;
1039.8000;0.2466;3.9891;
1040.1000;0.2466;3.9916;
1040.4000;0.2426;3.9790;
1040.7000;0.2572;4.0243;
1041.0000;0.2491;4.0092;
1041.3000;0.2483;4.0042;
1041.6000;0.2466;3.9991;
1041.9000;0.2466;4.0016;
1042.2000;0.2597;4.0318;
1042.5000;0.2523;4.0142;
1042.8000;0.2491;4.0092;
1043.1000;0.2483;3.9991;
1043.4000;0.2458;3.9891;
1043.7000;0.2450;3.9865;
1044.0000;0.2475;3.9891;
1044.3000;0.2483;3.9941;
1044.6000;0.2499;3.9991;
1044.9000;0.2776;4.0721;
1045.2000;0.2515;4.0016;
1045.5000;0.2491;4.0067;
1045.8000;0.2548;4.0268;
1046.1000;0.2515;4.0192;
1046.4000;0.2466;3.9991;
1046.7000;0.2499;4.0042;
1047.0000;0.2491;4.0042;
1047.3000;0.2475;3.9941;
1047.6000;0.2499;3.9991;
1047.9000;0.2499;4.0042;
1048.2000;0.2491;3.9966;
1048.5000;0.2466;3.9941;
1048.8000;0.2483;4.0067;
1049.1000;0.2515;4.0142;
1049.4000;0.2507;4.0142;
1049.7000;0.2507;4.0167;
1050.0000;0.2491;4.0142;
1050.3000;0.2475;4.0042;
1050.6000;0.2491;4.0042;
1050.9000;0.2507;4.0067;
1051.2000;0.2491;4.0042;
1051.5000;0.2475;3.9991;
1051.8000;0.2483;3.9991;
1052.1000;0.2483;4.0042;
1052.4000;0.2499;4.0092;
1052.7000;0.2426;3.9815;
1053.0000;0.2466;3.9941;
1053.3000;0.2483;3.9891;
1053.6000;0.2483;3.9966;
1053.9000;0.2515;4.0117;
1054.2000;0.2369;3.9689;
1054.5000;0.2491;3.9991;
1054.8000;0.2475;4.0042;
1055.1000;0.2336;3.9790;
1055.4000;0.2507;4.0243;
1055.7000;0.2450;4.0042;
1056.0000;0.2507;4.0192;
1056.3000;0.2434;4.0042;
1056.6000;0.2466;4.0192;
1056.9000;0.2475;4.0167;
1057.2000;0.2475;4.0268;
1057.5000;0.2540;4.0394;
1057.8000;0.2499;4.0192;
1058.1000;0.2369;3.9815;
1058.4000;0.2483;4.0142;
1058.7000;0.2499;4.0218;
1059.0000;0.2475;4.0142;
1059.3000;0.2491;4.0243;
1059.6000;0.2450;4.0167;
1059.9000;0.2475;4.0016;
1060.2000;0.2401;3.9815;
1060.5000;0.2523;4.0092;
1060.8000;0.2426;3.9966;
1061.1000;0.2515;4.0167;
1061.4000;0.2466;4.0016;
1061.7000;0.2491;4.0117;
1062.0000;0.2491;4.0092;
1062.3000;0.2499;4.0092;
1062.6000;0.2466;3.9966;
1062.9000;0.2507;4.0042;
1063.2000;0.2637;4.0293;
1063.5000;0.2532;4.0067;
1063.8000;0.2499;3.9941;
1064.1000;0.2475;3.9865;
1064.4000;0.2491;3.9916;
1064.7000;0.2597;4.0218;
1065.0000;0.2499;3.9916;
1065.3000;0.2434;3.9740;
1065.6000;0.2491;3.9740;
1065.9000;0.2466;3.9815;
1066.2000;0.2483;3.9815;
1066.5000;0.2385;3.9513;
1066.8000;0.2491;3.9790;
1067.1000;0.2336;3.9413;
1067.4000;0.2637;4.0293;
1067.7000;0.2491;3.9966;
1068.0000;0.2491;4.0016;
1068.3000;0.2523;4.0192;
1068.6000;0.2564;4.0318;
1068.9000;0.2491;4.0092;
1069.2000;0.2483;4.0117;
1069.5000;0.2475;4.0142;
1069.8000;0.2515;4.0192;
1070.1000;0.2475;4.0142;
1070.4000;0.2442;3.9991;
1070.7000;0.2499;4.0268;
1071.0000;0.2483;4.0293;
1071.3000;0.2483;4.0218;
1071.6000;0.2491;4.0268;
1071.9000;0.2483;4.0142;
1072.2000;0.2507;4.0092;
1072.5000;0.2491;3.9966;
1072.8000;0.2466;3.9891;
1073.1000;0.2458;4.0016;
1073.4000;0.2491;4.0142;
1073.7000;0.2491;4.0067;
1074.0000;0.2491;3.9991;
1074.3000;0.2499;4.0016;
1074.6000;0.2499;4.0042;
1074.9000;0.2475;3.9991;
1075.2000;0.2401;3.9840;
1075.5000;0.2491;4.0092;
1075.8000;0.2450;4.0016;
1076.1000;0.2466;4.0067;
1076.4000;0.2499;4.0042;
1076.7000;0.2475;3.9991;
1077.0000;0.2523;4.0042;
1077.3000;0.2483;3.9941;
1077.6000;0.2483;3.9966;
1077.9000;0.2483;3.9941;
1078.2000;0.2483;3.9941;
1078.5000;0.2491;4.0016;
1078.8000;0.2491;4.0016;
1079.1000;0.2426;3.9790;
1079.4000;0.2466;3.9941;
1079.7000;0.2499;3.9916;
1080.0000;0.2491;3.9840;
1080.3000;0.2491;3.9941;
1080.6000;0.2491;3.9891;
1080.9000;0.2475;3.9840;
1081.2000;0.2491;3.9840;
1081.5000;0.2483;3.9916;
1081.8000;0.2532;4.0042;
1082.1000;0.2499;3.9916;
1082.4000;0.2499;3.9941;
1082.7000;0.2523;3.9966;
1083.0000;0.2475;3.9765;
1083.3000;0.2475;3.9740;
1083.6000;0.2523;3.9865;
1083.9000;0.2458;3.9715;
1084.2000;0.2491;3.9740;
1084.5000;0.2483;3.9664;
1084.8000;0.2515;3.9689;
1085.1000;0.2499;3.9639;
1085.4000;0.2475;3.9564;
1085.7000;0.2434;3.9463;
1086.0000;0.2499;3.9639;
1086.3000;0.2507;3.9715;
1086.6000;0.2491;3.9664;
1086.9000;0.2483;3.9639;
1087.2000;0.2491;3.9639;
1087.5000;0.2475;3.9664;
1087.8000;0.2491;3.9715;
1088.1000;0.2491;3.9664;
1088.4000;0.2499;3.9639;
1088.7000;0.2491;3.9639;
1089.0000;0.2466;3.9589;
1089.3000;0.2491;3.9564;
1089.6000;0.2401;3.9362;
1089.9000;0.2491;3.9765;
1090.2000;0.2515;3.9815;
1090.5000;0.2409;3.9564;
1090.8000;0.2483;3.9740;
1091.1000;0.2466;3.9689;
1091.4000;0.2483;3.9765;
1091.7000;0.2483;3.9740;
1092.0000;0.2523;3.9891;
1092.3000;0.2475;3.9740;
1092.6000;0.2507;3.9840;
1092.9000;0.2491;3.9715;
1093.2000;0.2475;3.9689;
1093.5000;0.2483;3.9740;
1093.8000;0.2507;3.9916;
1094.1000;0.2515;3.9941;
1094.4000;0.2483;3.9865;
1094.7000;0.2491;3.9916;
1095.0000;0.2499;3.9891;
1095.3000;0.2475;3.9840;
1095.6000;0.2532;3.9916;
1095.9000;0.2434;3.9715;
1096.2000;0.2466;3.9840;
1096.5000;0.2475;3.9815;
1096.8000;0.2466;3.9765;
1097.1000;0.2491;3.9765;
1097.4000;0.2458;3.9765;
1097.7000;0.2458;3.9740;
1098.0000;0.2442;3.9765;
1098.3000;0.2540;4.0067;
1098.6000;0.2499;3.9991;
1098.9000;0.2605;4.0268;
1099.2000;0.2434;3.9790;
1099.5000;0.2466;3.9840;
1099.8000;0.2475;3.9941;
1100.1000;0.2507;3.9916;
1100.4000;0.2532;3.9941;
1100.7000;0.2336;3.9438;
1101.0000;0.2499;3.9891;
1101.3000;0.2483;3.9840;
1101.6000;0.2458;3.9865;
1101.9000;0.2483;3.9891;
1102.2000;0.2499;3.9941;
1102.5000;0.2442;3.9790;
1102.8000;0.2458;3.9790;
1103.1000;0.2418;3.9815;
1103.4000;0.2458;3.9941;
1103.7000;0.2597;4.0243;
1104.0000;0.2483;4.0016;
1104.3000;0.2621;4.0318;
1104.6000;0.2507;3.9941;
1104.9000;0.2515;3.9891;
1105.2000;0.2491;3.9891;
1105.5000;0.2466;3.9815;
1105.8000;0.2499;3.9916;
1106.1000;0.2418;3.9614;
1106.4000;0.2483;3.9840;
1106.7000;0.2434;3.9740;
1107.0000;0.2491;3.9840;
1107.3000;0.2475;3.9740;
1107.6000;0.2507;3.9815;
1107.9000;0.2499;3.9840;
1108.2000;0.2491;3.9916;
1108.5000;0.2523;4.0016;
1108.8000;0.2466;3.9790;
1109.1000;0.2450;3.9865;
1109.4000;0.2507;3.9941;
1109.7000;0.2409;3.9664;
1110.0000;0.2483;3.9840;
1110.3000;0.2507;3.9916;
1110.6000;0.2499;3.9840;
1110.9000;0.2483;3.9790;
1111.2000;0.2475;3.9916;
1111.5000;0.2466;3.9941;
1111.8000;0.2499;3.9840;
1112.1000;0.2475;3.9815;
1112.4000;0.2483;3.9865;
1112.7000;0.2491;3.9815;
1113.0000;0.2499;3.9815;
1113.3000;0.2475;3.9790;
1113.6000;0.2483;3.9840;
1113.9000;0.2385;3.9538;
1114.2000;0.2483;3.9891;
1114.5000;0.2434;3.9840;
1114.8000;0.2523;4.0016;
1115.1000;0.2491;3.9941;
1115.4000;0.2499;4.0016;
1115.7000;0.2507;4.0092;
1116.0000;0.2515;4.0067;
1116.3000;0.2515;4.0142;
1116.6000;0.2475;4.0067;
1116.9000;0.2491;4.0218;
1117.2000;0.2499;4.0167;
1117.5000;0.2483;4.0067;
1117.8000;0.2466;4.0016;
1118.1000;0.2507;4.0167;
1118.4000;0.2458;4.0067;
1118.7000;0.2491;4.0042;
1119.0000;0.2499;4.0042;
1119.3000;0.2507;4.0092;
1119.6000;0.2491;4.0092;
1119.9000;0.2548;4.0142;
1120.2000;0.2491;3.9991;
1120.5000;0.2385;3.9765;
1120.8000;0.2499;4.0092;
1121.1000;0.2483;4.0067;
1121.4000;0.2434;3.9891;
1121.7000;0.2475;3.9966;
1122.0000;0.2540;4.0092;
1122.3000;0.2491;3.9941;
1122.6000;0.2491;3.9966;
1122.9000;0.2426;3.9840;
1123.2000;0.2475;4.0016;
1123.5000;0.2442;3.9916;
1123.8000;0.2499;4.0067;
1124.1000;0.2483;3.9966;
1124.4000;0.2491;3.9991;
1124.7000;0.2499;3.9991;
1125.0000;0.2475;3.9916;
1125.3000;0.2458;3.9891;
1125.6000;0.2491;3.9991;
1125.9000;0.2475;3.9991;
1126.2000;0.2483;4.0016;
1126.5000;0.2507;3.9941;
1126.8000;0.2475;3.9865;
1127.1000;0.2475;3.9891;
1127.4000;0.2491;3.9865;
1127.7000;0.2418;3.9589;
1128.0000;0.2458;3.9740;
1128.3000;0.2466;3.9765;
1128.6000;0.2466;3.9765;
1128.9000;0.2483;3.9916;
1129.2000;0.2458;3.9941;
1129.5000;0.2515;4.0117;
1129.8000;0.2369;3.9815;
1130.1000;0.2548;4.0318;
1130.4000;0.2499;4.0142;
1130.7000;0.2507;4.0167;
1131.0000;0.2466;4.0117;
1131.3000;0.2499;4.0167;
1131.6000;0.2475;4.0067;
1131.9000;0.2475;4.0092;
1132.2000;0.2491;4.0142;
1132.5000;0.2442;4.0067;
1132.8000;0.2434;3.9941;
1133.1000;0.2491;4.0092;
1133.4000;0.2515;4.0192;
1133.7000;0.2491;4.0117;
1134.0000;0.2458;4.0042;
1134.3000;0.2491;4.0016;
1134.6000;0.2475;3.9991;
1134.9000;0.2409;3.9815;
1135.2000;0.2491;4.0016;
1135.5000;0.2458;3.9991;
1135.8000;0.2466;3.9991;
1136.1000;0.2491;4.0117;
1136.4000;0.2475;4.0142;
1136.7000;0.2475;4.0092;
1137.0000;0.2466;4.0067;
1137.3000;0.2507;4.0142;
1137.6000;0.2491;4.0092;
1137.9000;0.2515;4.0218;
1138.2000;0.2507;4.0167;
1138.5000;0.2564;4.0343;
1138.8000;0.2499;4.0218;
1139.1000;0.2483;4.0192;
1139.4000;0.2499;4.0243;
1139.7000;0.2483;4.0167;
1140.0000;0.2491;4.0192;
1140.3000;0.2475;4.0142;
1140.6000;0.2507;4.0142;
1140.9000;0.2466;4.0117;
1141.2000;0.2507;4.0218;
1141.5000;0.2491;4.0142;
1141.8000;0.2483;4.0016;
1142.1000;0.2491;4.0042;
1142.4000;0.2499;4.0092;
1142.7000;0.2483;3.9941;
1143.0000;0.2499;4.0067;
1143.3000;0.2466;3.9916;
1143.6000;0.2475;3.9941;
1143.9000;0.2499;3.9991;
1144.2000;0.2483;4.0016;
1144.5000;0.2491;3.9991;
1144.8000;0.2475;3.9966;
1145.1000;0.2491;3.9916;
1145.4000;0.2532;4.0042;
1145.7000;0.2499;3.9991;
1146.0000;0.2507;4.0067;
1146.3000;0.2515;4.0092;
1146.6000;0.2515;4.0117;
1146.9000;0.2483;4.0067;
1147.2000;0.2466;4.0042;
1147.5000;0.2515;4.0092;
1147.8000;0.2458;3.9966;
1148.1000;0.2483;4.0067;
1148.4000;0.2475;4.0042;
1148.7000;0.2344;3.9664;
1149.0000;0.2507;4.0092;
1149.3000;0.2483;4.0092;
1149.6000;0.2385;3.9715;
1149.9000;0.2491;3.9966;
1150.2000;0.2499;3.9966;
1150.5000;0.2336;3.9463;
1150.8000;0.2377;3.9639;
1151.1000;0.2499;3.9941;
1151.4000;0.2475;3.9865;
1151.7000;0.2491;3.9916;
1152.0000;0.2491;3.9891;
1152.3000;0.2491;3.9991;
1152.6000;0.2491;4.0016;
1152.9000;0.2491;4.0016;
1153.2000;0.2491;4.0042;
1153.5000;0.2466;4.0042;
1153.8000;0.2507;4.0218;
1154.1000;0.2483;4.0117;
1154.4000;0.2499;4.0167;
1154.7000;0.2426;4.0016;
1155.0000;0.2507;4.0167;
1155.3000;0.2499;4.0117;
1155.6000;0.2483;4.0067;
1155.9000;0.2475;4.0092;
1156.2000;0.2532;4.0293;
1156.5000;0.2458;4.0218;
1156.8000;0.2475;4.0293;
1157.1000;0.2475;4.0243;
1157.4000;0.2523;4.0293;
1157.7000;0.2483;4.0243;
1158.0000;0.2475;4.0218;
1158.3000;0.2442;4.0067;
1158.6000;0.2475;4.0016;
1158.9000;0.2499;3.9916;
1159.2000;0.2483;3.9815;
1159.5000;0.2499;3.9916;
1159.8000;0.2466;3.9966;
1160.1000;0.2491;4.0092;
1160.4000;0.2442;3.9941;
1160.7000;0.2483;4.0067;
1161.0000;0.2483;4.0067;
1161.3000;0.2466;4.0067;
1161.6000;0.2475;4.0092;
1161.9000;0.2564;4.0318;
1162.2000;0.2458;4.0016;
1162.5000;0.2458;3.9941;
1162.8000;0.2475;4.0067;
1163.1000;0.2483;4.0142;
1163.4000;0.2483;4.0142;
1163.7000;0.2491;4.0117;
1164.0000;0.2483;4.0117;
1164.3000;0.2507;4.0142;
1164.6000;0.2377;3.9815;
1164.9000;0.2548;4.0243;
1165.2000;0.2491;4.0092;
1165.5000;0.2466;4.0067;
1165.8000;0.2483;4.0092;
1166.1000;0.2564;4.0268;
1166.4000;0.2475;4.0042;
1166.7000;0.2499;4.0167;
1167.0000;0.2523;4.0142;
1167.3000;0.2475;4.0117;
1167.6000;0.2491;4.0192;
1167.9000;0.2491;4.0117;
1168.2000;0.2458;3.9941;
1168.5000;0.2499;4.0067;
1168.8000;0.2491;4.0067;
1169.1000;0.2523;4.0218;
1169.4000;0.2491;4.0016;
1169.7000;0.2483;3.9891;
1170.0000;0.2499;3.9966;
1170.3000;0.2483;3.9966;
1170.6000;0.2491;3.9991;
1170.9000;0.2491;3.9966;
1171.2000;0.2507;3.9966;
1171.5000;0.2483;3.9891;
1171.8000;0.2475;3.9790;
1172.1000;0.2475;3.9790;
1172.4000;0.2418;3.9790;
1172.7000;0.2491;3.9991;
1173.0000;0.2515;4.0142;
1173.3000;0.2499;4.0067;
1173.6000;0.2475;4.0016;
1173.9000;0.2466;3.9966;
1174.2000;0.2532;4.0218;
1174.5000;0.2466;3.9991;
1174.8000;0.2670;4.0545;
1175.1000;0.2678;4.0595;
1175.4000;0.2491;4.0042;
1175.7000;0.2483;4.0042;
1176.0000;0.2491;3.9991;
1176.3000;0.2466;3.9891;
1176.6000;0.2475;3.9840;
1176.9000;0.2499;3.9891;
1177.2000;0.2418;3.9639;
1177.5000;0.2475;3.9865;
1177.8000;0.2483;3.9916;
1178.1000;0.2475;3.9865;
1178.4000;0.2523;3.9916;
1178.7000;0.2475;3.9815;
1179.0000;0.2507;3.9865;
1179.3000;0.2499;4.0016;
1179.6000;0.2499;3.9991;
1179.9000;0.2491;4.0042;
1180.2000;0.2507;4.0067;
1180.5000;0.2483;4.0092;
1180.8000;0.2499;4.0192;
1181.1000;0.2466;4.0142;
1181.4000;0.2491;4.0192;
1181.7000;0.2475;4.0142;
1182.0000;0.2483;4.0092;
1182.3000;0.2491;4.0067;
1182.6000;0.2426;3.9840;
1182.9000;0.2499;4.0092;
1183.2000;0.2475;4.0067;
1183.5000;0.2409;3.9840;
1183.8000;0.2499;3.9966;
1184.1000;0.2475;3.9865;
1184.4000;0.2466;3.9941;
1184.7000;0.2515;4.0016;
1185.0000;0.2466;3.9916;
1185.3000;0.2499;4.0067;
1185.6000;0.2483;4.0067;
1185.9000;0.2483;3.9991;
1186.2000;0.2483;4.0016;
1186.5000;0.2548;4.0192;
1186.8000;0.2499;3.9991;
1187.1000;0.2532;4.0092;
1187.4000;0.2458;3.9941;
1187.7000;0.2458;4.0016;
1188.0000;0.2491;4.0067;
1188.3000;0.2491;4.0167;
1188.6000;0.2475;4.0016;
1188.9000;0.2458;3.9916;
1189.2000;0.2491;3.9966;
1189.5000;0.2483;3.9966;
1189.8000;0.2507;4.0042;
1190.1000;0.2458;3.9865;
1190.4000;0.2515;4.0042;
1190.7000;0.2515;3.9966;
1191.0000;0.2491;3.9891;
1191.3000;0.2458;3.9815;
1191.6000;0.2507;3.9991;
1191.9000;0.2499;4.0067;
1192.2000;0.2483;4.0067;
1192.5000;0.2483;3.9941;
1192.8000;0.2458;3.9840;
1193.1000;0.2491;3.9916;
1193.4000;0.2523;3.9891;
1193.7000;0.2385;3.9589;
1194.0000;0.2336;3.9438;
1194.3000;0.2409;3.9689;
1194.6000;0.2589;4.0167;
1194.9000;0.2507;4.0016;
1195.2000;0.2499;3.9991;
1195.5000;0.2564;4.0218;
1195.8000;0.2515;4.0092;
1196.1000;0.2491;4.0067;
1196.4000;0.2515;4.0117;
1196.7000;0.2540;4.0218;
1197.0000;0.2491;4.0243;
1197.3000;0.2483;4.0268;
1197.6000;0.2556;4.0394;
1197.9000;0.2458;4.0167;
1198.2000;0.2458;4.0042;
1198.5000;0.2499;4.0117;
1198.8000;0.2499;4.0067;
1199.1000;0.2515;4.0092;
1199.4000;0.2507;4.0016;
1199.7000;0.2572;4.0268;
1200.0000;0.2491;4.0067;
1200.3000;0.2556;4.0293;
1200.6000;0.2499;4.0142;
1200.9000;0.2483;4.0117;
1201.2000;0.2491;4.0117;
1201.5000;0.2458;4.0117;
1201.8000;0.2475;4.0117;
1202.1000;0.2466;4.0042;
1202.4000;0.2499;4.0092;
1202.7000;0.2475;3.9991;
1203.0000;0.2507;4.0067;
1203.3000;0.2515;4.0042;
1203.6000;0.2499;3.9966;
1203.9000;0.2499;4.0016;
1204.2000;0.2450;3.9941;
1204.5000;0.2532;4.0042;
1204.8000;0.2483;3.9916;
1205.1000;0.2491;3.9865;
1205.4000;0.2499;3.9966;
1205.7000;0.2409;3.9715;
1206.0000;0.2491;3.9991;
1206.3000;0.2483;3.9966;
1206.6000;0.2499;3.9991;
1206.9000;0.2458;3.9840;
1207.2000;0.2523;4.0042;
1207.5000;0.2426;3.9765;
1207.8000;0.2507;4.0042;
1208.1000;0.2483;3.9865;
1208.4000;0.2483;3.9865;
1208.7000;0.2515;4.0016;
1209.0000;0.2418;3.9790;
1209.3000;0.2475;3.9991;
1209.6000;0.2621;4.0394;
1209.9000;0.2483;4.0016;
1210.2000;0.2507;4.0142;
1210.5000;0.2499;4.0142;
1210.8000;0.2483;4.0167;
1211.1000;0.2491;4.0092;
1211.4000;0.2491;4.0117;
1211.7000;0.2483;4.0117;
1212.0000;0.2483;4.0042;
1212.3000;0.2475;4.0016;
1212.6000;0.2483;4.0016;
1212.9000;0.2491;4.0016;
1213.2000;0.2483;4.0067;
1213.5000;0.2491;3.9991;
1213.8000;0.2491;4.0016;
1214.1000;0.2369;3.9740;
1214.4000;0.2466;3.9916;
1214.7000;0.2499;4.0016;
1215.0000;0.2499;3.9991;
1215.3000;0.2491;3.9916;
1215.6000;0.2466;3.9916;
1215.9000;0.2442;3.9815;
1216.2000;0.2450;3.9790;
1216.5000;0.2540;3.9966;
1216.8000;0.2475;3.9840;
1217.1000;0.2515;4.0042;
1217.4000;0.2507;4.0092;
1217.7000;0.2548;4.0142;
1218.0000;0.2491;3.9916;
1218.3000;0.2499;3.9916;
1218.6000;0.2369;3.9639;
1218.9000;0.2483;4.0117;
1219.2000;0.2507;4.0092;
1219.5000;0.2450;3.9941;
1219.8000;0.2483;4.0092;
1220.1000;0.2458;4.0016;
1220.4000;0.2483;4.0042;
1220.7000;0.2491;4.0016;
1221.0000;0.2507;3.9941;
1221.3000;0.2507;3.9916;
1221.6000;0.2564;4.0142;
1221.9000;0.2483;3.9891;
1222.2000;0.2466;3.9891;
1222.5000;0.2507;3.9991;
1222.8000;0.2475;3.9865;
1223.1000;0.2572;4.0117;
1223.4000;0.2475;3.9790;
1223.7000;0.2483;3.9840;
1224.0000;0.2491;3.9865;
1224.3000;0.2483;3.9891;
1224.6000;0.2475;3.9891;
1224.9000;0.2458;3.9916;
1225.2000;0.2540;4.0142;
1225.5000;0.2499;4.0016;
1225.8000;0.2483;3.9941;
1226.1000;0.2466;3.9966;
1226.4000;0.2466;3.9991;
1226.7000;0.2475;3.9941;
1227.0000;0.2499;4.0016;
1227.3000;0.2483;4.0016;
1227.6000;0.2491;4.0092;
1227.9000;0.2507;4.0117;
1228.2000;0.2377;3.9815;
1228.5000;0.2475;4.0067;
1228.8000;0.2401;3.9891;
1229.1000;0.2466;3.9991;
1229.4000;0.2450;4.0042;
1229.7000;0.2483;4.0167;
1230.0000;0.2458;4.0117;
1230.3000;0.2507;4.0092;
1230.6000;0.2540;4.0142;
1230.9000;0.2475;3.9865;
1231.2000;0.2442;3.9790;
1231.5000;0.2369;3.9538;
1231.8000;0.2613;4.0167;
1232.1000;0.2483;3.9840;
1232.4000;0.2523;4.0016;
1232.7000;0.2556;4.0117;
1233.0000;0.2483;3.9815;
1233.3000;0.2475;3.9865;
1233.6000;0.2483;3.9891;
1233.9000;0.2483;3.9991;
1234.2000;0.2507;4.0117;
1234.5000;0.2515;4.0142;
1234.8000;0.2507;4.0117;
1235.1000;0.2499;4.0042;
1235.4000;0.2499;4.0042;
1235.7000;0.2466;3.9891;
1236.0000;0.2483;3.9966;
1236.3000;0.2475;3.9941;
1236.6000;0.2499;4.0042;
1236.9000;0.2483;3.9966;
1237.2000;0.2475;3.9916;
1237.5000;0.2483;3.9966;
1237.8000;0.2499;4.0067;
1238.1000;0.2483;3.9966;
1238.4000;0.2491;3.9991;
1238.7000;0.2515;4.0067;
1239.0000;0.2426;3.9840;
1239.3000;0.2450;3.9891;
1239.6000;0.2491;3.9991;
1239.9000;0.2507;3.9966;
1240.2000;0.2418;3.9790;
1240.5000;0.2483;3.9966;
1240.8000;0.2499;4.0067;
1241.1000;0.2466;3.9966;
1241.4000;0.2540;4.0243;
1241.7000;0.2499;4.0042;
1242.0000;0.2466;3.9991;
1242.3000;0.2483;4.0067;
1242.6000;0.2466;4.0042;
1242.9000;0.2475;4.0016;
1243.2000;0.2466;4.0016;
1243.5000;0.2564;4.0343;
1243.8000;0.2491;4.0167;
1244.1000;0.2491;4.0167;
1244.4000;0.2426;3.9941;
1244.7000;0.2499;4.0092;
1245.0000;0.2466;3.9991;
1245.3000;0.2556;4.0192;
1245.6000;0.2507;4.0067;
1245.9000;0.2475;3.9991;
1246.2000;0.2344;3.9689;
1246.5000;0.2491;4.0092;
1246.8000;0.2483;4.0016;
1247.1000;0.2450;3.9941;
1247.4000;0.2491;4.0092;
1247.7000;0.2475;3.9991;
1248.0000;0.2475;4.0016;
1248.3000;0.2475;3.9991;
1248.6000;0.2483;3.9991;
1248.9000;0.2475;4.0016;
1249.2000;0.2450;3.9941;
1249.5000;0.2515;4.0067;
1249.8000;0.2483;4.0067;
1250.1000;0.2483;4.0142;
1250.4000;0.2491;4.0067;
1250.7000;0.2466;3.9991;
1251.0000;0.2564;4.0192;
1251.3000;0.2483;3.9840;
1251.6000;0.2507;3.9966;
1251.9000;0.2670;4.0368;
1252.2000;0.2491;3.9840;
1252.5000;0.2507;3.9790;
1252.8000;0.2507;3.9815;
1253.1000;0.2499;3.9891;
1253.4000;0.2434;3.9765;
1253.7000;0.2409;3.9865;
1254.0000;0.2507;4.0092;
1254.3000;0.2532;4.0142;
1254.6000;0.2352;3.9715;
1254.9000;0.2466;4.0042;
1255.2000;0.2540;4.0218;
1255.5000;0.2507;4.0142;
1255.8000;0.2483;3.9941;
1256.1000;0.2450;3.9840;
1256.4000;0.2434;3.9715;
1256.7000;0.2499;3.9815;
1257.0000;0.2483;3.9840;
1257.3000;0.2499;3.9840;
1257.6000;0.2483;3.9790;
1257.9000;0.2458;3.9740;
1258.2000;0.2499;3.9941;
1258.5000;0.2475;3.9916;
1258.8000;0.2483;3.9865;
1259.1000;0.2507;3.9916;
1259.4000;0.2507;3.9916;
1259.7000;0.2491;3.9865;
1260.0000;0.2491;3.9891;
1260.3000;0.2523;3.9941;
1260.6000;0.2491;3.9865;
1260.9000;0.2499;3.9865;
1261.2000;0.2491;3.9865;
1261.5000;0.2515;3.9891;
1261.8000;0.2483;3.9740;
1262.1000;0.2564;3.9916;
1262.4000;0.2548;3.9941;
1262.7000;0.2483;3.9815;
1263.0000;0.2540;3.9916;
1263.3000;0.2475;3.9815;
1263.6000;0.2426;3.9689;
1263.9000;0.2491;3.9765;
1264.2000;0.2442;3.9664;
1264.5000;0.2483;3.9891;
1264.8000;0.2483;3.9916;
1265.1000;0.2466;3.9840;
1265.4000;0.2540;4.0067;
1265.7000;0.2499;3.9966;
1266.0000;0.2426;3.9689;
1266.3000;0.2491;3.9840;
1266.6000;0.2507;3.9991;
1266.9000;0.2475;3.9916;
1267.2000;0.2361;3.9614;
1267.5000;0.2491;3.9840;
1267.8000;0.2597;4.0192;
1268.1000;0.2507;3.9840;
1268.4000;0.2491;3.9815;
1268.7000;0.2532;3.9916;
1269.0000;0.2409;3.9614;
1269.3000;0.2499;3.9941;
1269.6000;0.2556;4.0117;
1269.9000;0.2466;3.9865;
1270.2000;0.2483;3.9891;
1270.5000;0.2491;3.9891;
1270.8000;0.2483;3.9941;
1271.1000;0.2418;3.9815;
1271.4000;0.2483;3.9966;
1271.7000;0.2483;4.0042;
1272.0000;0.2499;4.0092;
1272.3000;0.2466;3.9991;
1272.6000;0.2475;3.9991;
1272.9000;0.2483;4.0067;
1273.2000;0.2491;4.0092;
1273.5000;0.2475;4.0042;
1273.8000;0.2523;4.0192;
1274.1000;0.2483;4.0042;
1274.4000;0.2483;4.0067;
1274.7000;0.2491;3.9991;
1275.0000;0.2491;3.9941;
1275.3000;0.2491;3.9991;
1275.6000;0.2475;4.0042;
1275.9000;0.2491;4.0067;
1276.2000;0.2475;4.0042;
1276.5000;0.2548;4.0243;
1276.8000;0.2458;3.9966;
1277.1000;0.2507;4.0016;
1277.4000;0.2466;3.9865;
1277.7000;0.2466;3.9941;
1278.0000;0.2507;3.9966;
1278.3000;0.2515;3.9991;
1278.6000;0.2466;3.9865;
1278.9000;0.2434;3.9740;
1279.2000;0.2475;3.9740;
1279.5000;0.2491;3.9765;
1279.8000;0.2556;4.0016;
1280.1000;0.2499;3.9790;
1280.4000;0.2475;3.9740;
1280.7000;0.2450;3.9614;
1281.0000;0.2499;3.9740;
1281.3000;0.2475;3.9715;
1281.6000;0.2483;3.9664;
1281.9000;0.2491;3.9715;
1282.2000;0.2499;3.9715;
1282.5000;0.2483;3.9740;
1282.8000;0.2491;3.9815;
1283.1000;0.2483;3.9715;
1283.4000;0.2475;3.9790;
1283.7000;0.2475;3.9740;
1284.0000;0.2523;3.9790;
1284.3000;0.2475;3.9765;
1284.6000;0.2483;3.9715;
1284.9000;0.2475;3.9740;
1285.2000;0.2483;3.9740;
1285.5000;0.2466;3.9790;
1285.8000;0.2458;3.9840;
1286.1000;0.2483;3.9991;
1286.4000;0.2483;3.9916;
1286.7000;0.2507;3.9916;
1287.0000;0.2458;3.9840;
1287.3000;0.2491;3.9916;
1287.6000;0.2418;3.9664;
1287.9000;0.2491;3.9941;
1288.2000;0.2507;3.9991;
1288.5000;0.2466;3.9891;
1288.8000;0.2475;3.9941;
1289.1000;0.2507;3.9991;
1289.4000;0.2491;3.9941;
1289.7000;0.2523;4.0016;
1290.0000;0.2507;3.9891;
1290.3000;0.2540;4.0117;
1290.6000;0.2532;4.0016;
1290.9000;0.2507;4.0042;
1291.2000;0.2401;3.9740;
1291.5000;0.2458;3.9891;
1291.8000;0.2572;4.0268;
1292.1000;0.2499;4.0117;
1292.4000;0.2483;4.0167;
1292.7000;0.2475;4.0117;
1293.0000;0.2523;4.0268;
1293.3000;0.2491;4.0218;
1293.6000;0.2564;4.0394;
1293.9000;0.2507;4.0293;
1294.2000;0.2491;4.0268;
1294.5000;0.2483;4.0268;
1294.8000;0.2499;4.0293;
1295.1000;0.2450;4.0192;
1295.4000;0.2483;4.0142;
1295.7000;0.2475;4.0042;
1296.0000;0.2466;3.9966;
1296.3000;0.2491;3.9991;
1296.6000;0.2475;4.0042;
1296.9000;0.2466;3.9991;
1297.2000;0.2475;4.0067;
1297.5000;0.2499;4.0167;
1297.8000;0.2466;4.0067;
1298.1000;0.2393;3.9916;
1298.4000;0.2475;4.0092;
1298.7000;0.2466;4.0092;
1299.0000;0.2475;4.0016;
1299.3000;0.2491;4.0042;
1299.6000;0.2475;4.0016;
1299.9000;0.2483;4.0016;
1300.2000;0.2458;3.9966;
1300.5000;0.2442;3.9840;
1300.8000;0.2466;4.0016;
1301.1000;0.2483;4.0067;
1301.4000;0.2491;4.0067;
1301.7000;0.2515;4.0067;
1302.0000;0.2483;3.9916;
1302.3000;0.2491;3.9891;
1302.6000;0.2418;3.9664;
1302.9000;0.2475;3.9765;
1303.2000;0.2483;3.9790;
1303.5000;0.2499;3.9941;
1303.8000;0.2466;3.9916;
1304.1000;0.2532;4.0067;
1304.4000;0.2499;3.9891;
1304.7000;0.2466;3.9790;
1305.0000;0.2507;3.9840;
1305.3000;0.2499;3.9815;
1305.6000;0.2483;3.9790;
1305.9000;0.2475;3.9740;
1306.2000;0.2450;3.9715;
1306.5000;0.2499;3.9865;
1306.8000;0.2499;3.9865;
1307.1000;0.2475;3.9790;
1307.4000;0.2564;4.0042;
1307.7000;0.2491;3.9916;
1308.0000;0.2409;3.9715;
1308.3000;0.2491;3.9865;
1308.6000;0.2475;3.9840;
1308.9000;0.2483;3.9865;
1309.2000;0.2458;3.9840;
1309.5000;0.2483;3.9941;
1309.8000;0.2475;3.9916;
1310.1000;0.2491;3.9941;
1310.4000;0.2426;3.9790;
1310.7000;0.2475;3.9891;
1311.0000;0.2515;3.9966;
1311.3000;0.2393;3.9564;
1311.6000;0.2491;3.9840;
1311.9000;0.2475;3.9815;
1312.2000;0.2466;3.9740;
1312.5000;0.2475;3.9790;
1312.8000;0.2466;3.9815;
1313.1000;0.2475;3.9815;
1313.4000;0.2499;3.9865;
1313.7000;0.2491;3.9916;
1314.0000;0.2491;3.9991;
1314.3000;0.2475;3.9891;
1314.6000;0.2491;3.9916;
1314.9000;0.2499;3.9941;
1315.2000;0.2564;4.0142;
1315.5000;0.2466;3.9865;
1315.8000;0.2450;3.9916;
1316.1000;0.2483;4.0092;
1316.4000;0.2499;4.0192;
1316.7000;0.2491;4.0218;
1317.0000;0.2442;4.0067;
1317.3000;0.2491;4.0192;
1317.6000;0.2483;4.0167;
1317.9000;0.2483;4.0167;
1318.2000;0.2483;4.0142;
1318.5000;0.2499;4.0142;
1318.8000;0.2499;4.0142;
1319.1000;0.2548;4.0268;
1319.4000;0.2491;4.0117;
1319.7000;0.2475;4.0016;
1320.0000;0.2507;4.0142;
1320.3000;0.2499;4.0167;
1320.6000;0.2491;4.0192;
1320.9000;0.2466;4.0142;
1321.2000;0.2458;4.0092;
1321.5000;0.2523;4.0218;
1321.8000;0.2491;4.0092;
1322.1000;0.2491;4.0067;
1322.4000;0.2483;4.0092;
1322.7000;0.2483;4.0092;
1323.0000;0.2475;3.9991;
1323.3000;0.2483;3.9991;
1323.6000;0.2491;4.0092;
1323.9000;0.2352;3.9740;
1324.2000;0.2442;3.9941;
1324.5000;0.2491;4.0092;
1324.8000;0.2556;4.0243;
1325.1000;0.2491;4.0067;
1325.4000;0.2491;4.0092;
1325.7000;0.2491;4.0117;
1326.0000;0.2475;4.0092;
1326.3000;0.2466;4.0092;
1326.6000;0.2458;4.0016;
1326.9000;0.2491;4.0067;
1327.2000;0.2507;4.0092;
1327.5000;0.2491;4.0042;
1327.8000;0.2499;4.0016;
1328.1000;0.2466;3.9891;
1328.4000;0.2532;4.0092;
1328.7000;0.2491;3.9991;
1329.0000;0.2515;4.0092;
1329.3000;0.2515;4.0192;
1329.6000;0.2491;4.0042;
1329.9000;0.2491;3.9916;
1330.2000;0.2532;4.0016;
1330.5000;0.2499;3.9941;
1330.8000;0.2499;3.9941;
1331.1000;0.2466;3.9941;
1331.4000;0.2450;3.9941;
1331.7000;0.2483;3.9891;
1332.0000;0.2450;3.9740;
1332.3000;0.2491;3.9689;
1332.6000;0.2491;3.9765;
1332.9000;0.2499;3.9891;
1333.2000;0.2491;4.0042;
1333.5000;0.2475;3.9991;
1333.8000;0.2483;3.9991;
1334.1000;0.2499;4.0092;
1334.4000;0.2507;4.0142;
1334.7000;0.2548;4.0192;
1335.0000;0.2475;4.0042;
1335.3000;0.2369;3.9740;
1335.6000;0.2515;4.0192;
1335.9000;0.2499;4.0167;
1336.2000;0.2507;4.0067;
1336.5000;0.2483;4.0067;
1336.8000;0.2491;4.0142;
1337.1000;0.2483;4.0142;
1337.4000;0.2483;4.0117;
1337.7000;0.2426;3.9815;
1338.0000;0.2491;3.9966;
1338.3000;0.2401;3.9564;
1338.6000;0.2483;3.9765;
1338.9000;0.2499;3.9815;
1339.2000;0.2548;4.0016;
1339.5000;0.2475;3.9891;
1339.8000;0.2483;3.9941;
1340.1000;0.2475;3.9865;
1340.4000;0.2491;3.9991;
1340.7000;0.2483;3.9966;
1341.0000;0.2466;3.9991;
1341.3000;0.2475;3.9991;
1341.6000;0.2458;3.9941;
1341.9000;0.2475;3.9840;
1342.2000;0.2499;3.9865;
1342.5000;0.2475;3.9840;
1342.8000;0.2483;3.9865;
1343.1000;0.2475;3.9790;
1343.4000;0.2466;3.9865;
1343.7000;0.2491;3.9865;
1344.0000;0.2466;3.9815;
1344.3000;0.2483;3.9865;
1344.6000;0.2507;3.9916;
1344.9000;0.2483;3.9840;
1345.2000;0.2499;3.9790;
1345.5000;0.2409;3.9689;
1345.8000;0.2450;3.9790;
1346.1000;0.2491;3.9916;
1346.4000;0.2515;3.9966;
1346.7000;0.2499;3.9865;
1347.0000;0.2515;3.9966;
1347.3000;0.2499;3.9916;
1347.6000;0.2564;4.0167;
1347.9000;0.2556;4.0192;
1348.2000;0.2385;3.9715;
1348.5000;0.2507;3.9966;
1348.8000;0.2499;4.0016;
1349.1000;0.2491;3.9941;
1349.4000;0.2523;4.0117;
1349.7000;0.2507;4.0092;
1350.0000;0.2515;4.0218;
1350.3000;0.2507;4.0192;
1350.6000;0.2475;4.0092;
1350.9000;0.2515;4.0192;
1351.2000;0.2483;4.0042;
1351.5000;0.2491;4.0042;
1351.8000;0.2458;3.9991;
1352.1000;0.2491;4.0016;
1352.4000;0.2475;3.9941;
1352.7000;0.2434;3.9891;
1353.0000;0.2409;3.9891;
1353.3000;0.2499;3.9991;
1353.6000;0.2499;4.0067;
1353.9000;0.2491;4.0092;
1354.2000;0.2475;4.0042;
1354.5000;0.2499;3.9991;
1354.8000;0.2499;3.9941;
1355.1000;0.2523;4.0117;
1355.4000;0.2507;4.0142;
1355.7000;0.2499;4.0142;
1356.0000;0.2507;4.0192;
1356.3000;0.2540;4.0268;
1356.6000;0.2475;4.0067;
1356.9000;0.2466;4.0016;
1357.2000;0.2491;4.0092;
1357.5000;0.2483;4.0016;
1357.8000;0.2483;3.9941;
1358.1000;0.2434;3.9815;
1358.4000;0.2589;4.0293;
1358.7000;0.2499;3.9991;
1359.0000;0.2564;4.0218;
1359.3000;0.2540;4.0167;
1359.6000;0.2475;4.0016;
1359.9000;0.2483;4.0067;
1360.2000;0.2442;3.9916;
1360.5000;0.2507;4.0142;
1360.8000;0.2491;4.0067;
1361.1000;0.2475;4.0067;
1361.4000;0.2450;3.9991;
1361.7000;0.2646;4.0595;
1362.0000;0.2483;4.0218;
1362.3000;0.2548;4.0368;
1362.6000;0.2369;3.9765;
1362.9000;0.2491;4.0067;
1363.2000;0.2702;4.0645;
1363.5000;0.2499;3.9966;
1363.8000;0.2491;3.9941;
1364.1000;0.2450;3.9966;
1364.4000;0.2507;4.0117;
1364.7000;0.2483;4.0042;
1365.0000;0.2499;3.9991;
1365.3000;0.2491;3.9941;
1365.6000;0.2507;4.0042;
1365.9000;0.2466;3.9966;
1366.2000;0.2532;4.0016;
1366.5000;0.2475;3.9840;
1366.8000;0.2466;3.9815;
1367.1000;0.2475;3.9916;
1367.4000;0.2515;3.9941;
1367.7000;0.2442;3.9891;
1368.0000;0.2442;3.9865;
1368.3000;0.2458;3.9891;
1368.6000;0.2475;4.0016;
1368.9000;0.2483;4.0067;
1369.2000;0.2418;3.9891;
1369.5000;0.2491;4.0218;
1369.8000;0.2491;4.0117;
1370.1000;0.2507;4.0218;
1370.4000;0.2458;4.0042;
1370.7000;0.2466;4.0092;
1371.0000;0.2499;4.0142;
1371.3000;0.2491;4.0117;
1371.6000;0.2458;4.0016;
1371.9000;0.2458;4.0016;
1372.2000;0.2483;4.0067;
1372.5000;0.2507;4.0167;
1372.8000;0.2466;4.0067;
1373.1000;0.2393;3.9815;
1373.4000;0.2491;4.0142;
1373.7000;0.2499;4.0192;
1374.0000;0.2475;4.0192;
1374.3000;0.2491;4.0117;
1374.6000;0.2491;4.0142;
1374.9000;0.2507;4.0268;
1375.2000;0.2483;4.0192;
1375.5000;0.2483;4.0293;
1375.8000;0.2483;4.0293;
1376.1000;0.2507;4.0394;
1376.4000;0.2605;4.0670;
1376.7000;0.2499;4.0419;
1377.0000;0.2507;4.0419;
1377.3000;0.2475;4.0268;
1377.6000;0.2499;4.0343;
1377.9000;0.2466;4.0218;
1378.2000;0.2499;4.0218;
1378.5000;0.2483;4.0218;
1378.8000;0.2499;4.0192;
1379.1000;0.2515;4.0268;
1379.4000;0.2491;4.0318;
1379.7000;0.2523;4.0368;
1380.0000;0.2515;4.0343;
1380.3000;0.2483;4.0218;
1380.6000;0.2458;4.0243;
1380.9000;0.2491;4.0268;
1381.2000;0.2475;4.0192;
1381.5000;0.2418;4.0067;
1381.8000;0.2507;4.0243;
1382.1000;0.2483;4.0318;
1382.4000;0.2491;4.0318;
1382.7000;0.2401;4.0117;
1383.0000;0.2491;4.0293;
1383.3000;0.2572;4.0519;
1383.6000;0.2426;4.0167;
1383.9000;0.2491;4.0343;
1384.2000;0.2426;4.0167;
1384.5000;0.2483;4.0318;
1384.8000;0.2548;4.0419;
1385.1000;0.2491;4.0167;
1385.4000;0.2466;4.0067;
1385.7000;0.2564;4.0394;
1386.0000;0.2532;4.0218;
1386.3000;0.2401;3.9815;
1386.6000;0.2483;3.9991;
1386.9000;0.2475;3.9966;
1387.2000;0.2523;4.0167;
1387.5000;0.2515;4.0167;
1387.8000;0.2466;4.0016;
1388.1000;0.2483;4.0067;
1388.4000;0.2499;4.0167;
1388.7000;0.2499;4.0268;
1389.0000;0.2475;4.0142;
1389.3000;0.2491;4.0243;
1389.6000;0.2483;4.0167;
1389.9000;0.2499;4.0167;
1390.2000;0.2499;3.9966;
1390.5000;0.2499;3.9916;
1390.8000;0.2458;3.9815;
1391.1000;0.2491;3.9916;
1391.4000;0.2491;3.9891;
1391.7000;0.2475;3.9916;
1392.0000;0.2515;4.0092;
1392.3000;0.2507;4.0067;
1392.6000;0.2507;4.0067;
1392.9000;0.2499;4.0042;
1393.2000;0.2409;3.9891;
1393.5000;0.2491;4.0092;
1393.8000;0.2466;4.0142;
1394.1000;0.2491;4.0243;
1394.4000;0.2491;4.0218;
1394.7000;0.2491;4.0268;
1395.0000;0.2483;4.0218;
1395.3000;0.2491;4.0142;
1395.6000;0.2491;4.0218;
1395.9000;0.2507;4.0167;
1396.2000;0.2491;4.0042;
1396.5000;0.2458;3.9941;
1396.8000;0.2499;4.0092;
1397.1000;0.2466;4.0092;
1397.4000;0.2499;4.0067;
1397.7000;0.2507;4.0117;
1398.0000;0.2458;3.9916;
1398.3000;0.2491;4.0016;
1398.6000;0.2499;4.0142;
1398.9000;0.2523;4.0218;
1399.2000;0.2491;4.0067;
1399.5000;0.2491;4.0042;
1399.8000;0.2499;4.0042;
