time/ms;Fluo/V;P700 deltaI/I x10³;
-199.8000;0.2580;4.0469;
-199.5000;0.2483;4.0167;
-199.2000;0.2475;4.0042;
-198.9000;0.2605;4.0494;
-198.6000;0.2491;4.0167;
-198.3000;0.2483;4.0117;
-198.0000;0.2499;4.0218;
-197.7000;0.2483;4.0192;
-197.4000;0.2572;4.0519;
-197.1000;0.2507;4.0368;
-196.8000;0.2491;4.0293;
-196.5000;0.2401;4.0042;
-196.2000;0.2450;4.0142;
-195.9000;0.2515;4.0218;
-195.6000;0.2499;4.0167;
-195.3000;0.2629;4.0519;
-195.0000;0.2515;4.0218;
-194.7000;0.2491;4.0218;
-194.4000;0.2466;4.0167;
-194.1000;0.2507;4.0343;
-193.8000;0.2515;4.0394;
-193.5000;0.2564;4.0620;
-193.2000;0.2426;4.0218;
-192.9000;0.2466;4.0293;
-192.6000;0.2507;4.0318;
-192.3000;0.2491;4.0268;
-192.0000;0.2515;4.0293;
-191.7000;0.2499;4.0268;
-191.4000;0.2507;4.0343;
-191.1000;0.2548;4.0419;
-190.8000;0.2491;4.0117;
-190.5000;0.2507;4.0192;
-190.2000;0.2483;4.0117;
-189.9000;0.2458;4.0042;
-189.6000;0.2491;4.0117;
-189.3000;0.2466;4.0067;
-189.0000;0.2491;4.0167;
-188.7000;0.2499;4.0192;
-188.4000;0.2491;4.0218;
-188.1000;0.2483;4.0142;
-187.8000;0.2483;4.0192;
-187.5000;0.2515;4.0268;
-187.2000;0.2499;4.0243;
-186.9000;0.2499;4.0218;
-186.6000;0.2491;4.0218;
-186.3000;0.2483;4.0167;
-186.0000;0.2564;4.0318;
-185.7000;0.2499;4.0218;
-185.4000;0.2507;4.0318;
-185.1000;0.2466;4.0192;
-184.8000;0.2483;4.0243;
-184.5000;0.2418;4.0092;
-184.2000;0.2499;4.0318;
-183.9000;0.2532;4.0343;
-183.6000;0.2507;4.0243;
-183.3000;0.2507;4.0243;
-183.0000;0.2580;4.0494;
-182.7000;0.2491;4.0243;
-182.4000;0.2418;4.0042;
-182.1000;0.2532;4.0368;
-181.8000;0.2572;4.0444;
-181.5000;0.2458;4.0167;
-181.2000;0.2515;4.0343;
-180.9000;0.2637;4.0721;
-180.6000;0.2515;4.0469;
-180.3000;0.2466;4.0268;
-180.0000;0.2466;4.0243;
-179.7000;0.2580;4.0519;
-179.4000;0.2499;4.0419;
-179.1000;0.2491;4.0368;
-178.8000;0.2523;4.0419;
-178.5000;0.2491;4.0368;
-178.2000;0.2475;4.0394;
-177.9000;0.2499;4.0343;
-177.6000;0.2491;4.0243;
-177.3000;0.2515;4.0343;
-177.0000;0.2434;4.0192;
-176.7000;0.2507;4.0343;
-176.4000;0.2466;4.0243;
-176.1000;0.2466;4.0243;
-175.8000;0.2491;4.0293;
-175.5000;0.2491;4.0318;
-175.2000;0.2491;4.0268;
-174.9000;0.2523;4.0368;
-174.6000;0.2499;4.0318;
-174.3000;0.2483;4.0293;
-174.0000;0.2507;4.0394;
-173.7000;0.2491;4.0368;
-173.4000;0.2605;4.0796;
-173.1000;0.2491;4.0494;
-172.8000;0.2499;4.0494;
-172.5000;0.2475;4.0268;
-172.2000;0.2523;4.0368;
-171.9000;0.2507;4.0268;
-171.6000;0.2515;4.0243;
-171.3000;0.2483;4.0067;
-171.0000;0.2515;4.0067;
-170.7000;0.2385;3.9740;
-170.4000;0.2475;3.9966;
-170.1000;0.2499;3.9916;
-169.8000;0.2507;4.0067;
-169.5000;0.2475;3.9966;
-169.2000;0.2491;4.0092;
-168.9000;0.2507;4.0243;
-168.6000;0.2418;3.9991;
-168.3000;0.2491;4.0218;
-168.0000;0.2532;4.0343;
-167.7000;0.2491;4.0268;
-167.4000;0.2515;4.0243;
-167.1000;0.2450;4.0042;
-166.8000;0.2491;4.0142;
-166.5000;0.2605;4.0469;
-166.2000;0.2491;4.0117;
-165.9000;0.2507;4.0142;
-165.6000;0.2483;4.0067;
-165.3000;0.2491;4.0117;
-165.0000;0.2475;4.0142;
-164.7000;0.2483;4.0192;
-164.4000;0.2515;4.0293;
-164.1000;0.2499;4.0117;
-163.8000;0.2458;4.0016;
-163.5000;0.2523;4.0218;
-163.2000;0.2572;4.0343;
-162.9000;0.2507;4.0142;
-162.6000;0.2507;4.0042;
-162.3000;0.2499;3.9916;
-162.0000;0.2507;3.9991;
-161.7000;0.2523;4.0117;
-161.4000;0.2507;4.0016;
-161.1000;0.2523;4.0042;
-160.8000;0.2491;3.9966;
-160.5000;0.2515;4.0042;
-160.2000;0.2491;4.0092;
-159.9000;0.2499;4.0192;
-159.6000;0.2491;4.0293;
-159.3000;0.2499;4.0293;
-159.0000;0.2515;4.0343;
-158.7000;0.2491;4.0243;
-158.4000;0.2523;4.0293;
-158.1000;0.2499;4.0268;
-157.8000;0.2491;4.0318;
-157.5000;0.2523;4.0469;
-157.2000;0.2483;4.0394;
-156.9000;0.2491;4.0318;
-156.6000;0.2515;4.0419;
-156.3000;0.2483;4.0293;
-156.0000;0.2507;4.0419;
-155.7000;0.2499;4.0368;
-155.4000;0.2515;4.0343;
-155.1000;0.2491;4.0268;
-154.8000;0.2483;4.0142;
-154.5000;0.2515;4.0293;
-154.2000;0.2499;4.0218;
-153.9000;0.2491;4.0218;
-153.6000;0.2466;4.0167;
-153.3000;0.2499;4.0293;
-153.0000;0.2507;4.0268;
-152.7000;0.2483;4.0218;
-152.4000;0.2483;4.0268;
-152.1000;0.2491;4.0293;
-151.8000;0.2499;4.0394;
-151.5000;0.2507;4.0394;
-151.2000;0.2499;4.0243;
-150.9000;0.2483;4.0268;
-150.6000;0.2507;4.0268;
-150.3000;0.2483;4.0243;
-150.0000;0.2475;4.0218;
-149.7000;0.2475;4.0243;
-149.4000;0.2491;4.0243;
-149.1000;0.2499;4.0218;
-148.8000;0.2491;4.0243;
-148.5000;0.2515;4.0218;
-148.2000;0.2507;4.0218;
-147.9000;0.2483;4.0167;
-147.6000;0.2483;4.0268;
-147.3000;0.2475;4.0192;
-147.0000;0.2523;4.0293;
-146.7000;0.2491;4.0318;
-146.4000;0.2483;4.0394;
-146.1000;0.2491;4.0419;
-145.8000;0.2491;4.0343;
-145.5000;0.2499;4.0394;
-145.2000;0.2475;4.0218;
-144.9000;0.2532;4.0268;
-144.6000;0.2418;4.0016;
-144.3000;0.2483;4.0243;
-144.0000;0.2483;4.0293;
-143.7000;0.2491;4.0268;
-143.4000;0.2442;4.0117;
-143.1000;0.2450;4.0192;
-142.8000;0.2507;4.0318;
-142.5000;0.2499;4.0243;
-142.2000;0.2483;4.0268;
-141.9000;0.2483;4.0167;
-141.6000;0.2491;4.0067;
-141.3000;0.2434;3.9941;
-141.0000;0.2483;4.0142;
-140.7000;0.2491;4.0218;
-140.4000;0.2491;4.0167;
-140.1000;0.2458;4.0016;
-139.8000;0.2540;4.0192;
-139.5000;0.2499;4.0117;
-139.2000;0.2491;4.0167;
-138.9000;0.2491;4.0142;
-138.6000;0.2515;4.0192;
-138.3000;0.2491;4.0092;
-138.0000;0.2589;4.0368;
-137.7000;0.2426;3.9891;
-137.4000;0.2483;4.0016;
-137.1000;0.2483;4.0142;
-136.8000;0.2491;4.0343;
-136.5000;0.2491;4.0394;
-136.2000;0.2483;4.0318;
-135.9000;0.2572;4.0444;
-135.6000;0.2483;4.0192;
-135.3000;0.2499;4.0167;
-135.0000;0.2491;4.0167;
-134.7000;0.2475;4.0142;
-134.4000;0.2466;4.0067;
-134.1000;0.2499;4.0167;
-133.8000;0.2515;4.0318;
-133.5000;0.2483;4.0243;
-133.2000;0.2434;4.0067;
-132.9000;0.2483;4.0142;
-132.6000;0.2483;4.0117;
-132.3000;0.2499;4.0218;
-132.0000;0.2466;4.0117;
-131.7000;0.2507;4.0167;
-131.4000;0.2589;4.0368;
-131.1000;0.2483;4.0067;
-130.8000;0.2499;4.0042;
-130.5000;0.2483;4.0042;
-130.2000;0.2507;4.0117;
-129.9000;0.2507;4.0142;
-129.6000;0.2499;4.0092;
-129.3000;0.2426;3.9941;
-129.0000;0.2426;4.0042;
-128.7000;0.2491;4.0268;
-128.4000;0.2523;4.0318;
-128.1000;0.2507;4.0243;
-127.8000;0.2515;4.0268;
-127.5000;0.2515;4.0218;
-127.2000;0.2507;4.0192;
-126.9000;0.2507;4.0167;
-126.6000;0.2475;4.0142;
-126.3000;0.2475;4.0167;
-126.0000;0.2491;4.0218;
-125.7000;0.2466;4.0117;
-125.4000;0.2491;4.0243;
-125.1000;0.2466;4.0192;
-124.8000;0.2491;4.0243;
-124.5000;0.2491;4.0293;
-124.2000;0.2507;4.0343;
-123.9000;0.2597;4.0620;
-123.6000;0.2491;4.0293;
-123.3000;0.2532;4.0368;
-123.0000;0.2491;4.0167;
-122.7000;0.2499;4.0268;
-122.4000;0.2515;4.0318;
-122.1000;0.2507;4.0167;
-121.8000;0.2507;4.0117;
-121.5000;0.2589;4.0293;
-121.2000;0.2442;3.9916;
-120.9000;0.2475;3.9991;
-120.6000;0.2491;4.0067;
-120.3000;0.2507;4.0142;
-120.0000;0.2491;4.0092;
-119.7000;0.2450;3.9966;
-119.4000;0.2515;4.0192;
-119.1000;0.2523;4.0268;
-118.8000;0.2491;4.0218;
-118.5000;0.2499;4.0192;
-118.2000;0.2499;4.0142;
-117.9000;0.2409;3.9966;
-117.6000;0.2499;4.0243;
-117.3000;0.2507;4.0293;
-117.0000;0.2499;4.0268;
-116.7000;0.2466;4.0067;
-116.4000;0.2507;4.0142;
-116.1000;0.2475;4.0092;
-115.8000;0.2491;4.0142;
-115.5000;0.2475;4.0117;
-115.2000;0.2548;4.0243;
-114.9000;0.2523;4.0243;
-114.6000;0.2507;4.0243;
-114.3000;0.2499;4.0218;
-114.0000;0.2450;4.0142;
-113.7000;0.2507;4.0192;
-113.4000;0.2491;4.0092;
-113.1000;0.2507;4.0218;
-112.8000;0.2507;4.0167;
-112.5000;0.2466;4.0142;
-112.2000;0.2507;4.0192;
-111.9000;0.2507;4.0192;
-111.6000;0.2491;4.0167;
-111.3000;0.2491;4.0192;
-111.0000;0.2589;4.0419;
-110.7000;0.2466;4.0092;
-110.4000;0.2491;4.0117;
-110.1000;0.2580;4.0343;
-109.8000;0.2491;4.0192;
-109.5000;0.2475;4.0042;
-109.2000;0.2475;4.0117;
-108.9000;0.2491;4.0117;
-108.6000;0.2491;4.0167;
-108.3000;0.2491;4.0142;
-108.0000;0.2507;4.0142;
-107.7000;0.2475;4.0067;
-107.4000;0.2483;4.0042;
-107.1000;0.2523;3.9991;
-106.8000;0.2491;3.9966;
-106.5000;0.2515;4.0142;
-106.2000;0.2499;4.0142;
-105.9000;0.2499;4.0142;
-105.6000;0.2491;4.0142;
-105.3000;0.2556;4.0343;
-105.0000;0.2491;4.0218;
-104.7000;0.2491;4.0268;
-104.4000;0.2483;4.0167;
-104.1000;0.2629;4.0519;
-103.8000;0.2507;4.0167;
-103.5000;0.2532;4.0293;
-103.2000;0.2466;4.0067;
-102.9000;0.2491;4.0117;
-102.6000;0.2483;4.0092;
-102.3000;0.2556;4.0318;
-102.0000;0.2434;4.0016;
-101.7000;0.2499;4.0293;
-101.4000;0.2532;4.0368;
-101.1000;0.2523;4.0318;
-100.8000;0.2483;4.0142;
-100.5000;0.2377;3.9916;
-100.2000;0.2466;4.0117;
-99.9000;0.2491;4.0092;
-99.6000;0.2483;4.0142;
-99.3000;0.2483;4.0142;
-99.0000;0.2507;4.0243;
-98.7000;0.2499;4.0192;
-98.4000;0.2499;4.0192;
-98.1000;0.2523;4.0293;
-97.8000;0.2450;4.0142;
-97.5000;0.2507;4.0243;
-97.2000;0.2499;4.0243;
-96.9000;0.2499;4.0218;
-96.6000;0.2475;4.0167;
-96.3000;0.2507;4.0243;
-96.0000;0.2507;4.0167;
-95.7000;0.2491;4.0142;
-95.4000;0.2507;4.0167;
-95.1000;0.2499;4.0142;
-94.8000;0.2475;4.0142;
-94.5000;0.2515;4.0293;
-94.2000;0.2483;4.0218;
-93.9000;0.2475;4.0042;
-93.6000;0.2491;4.0092;
-93.3000;0.2507;4.0142;
-93.0000;0.2499;4.0142;
-92.7000;0.2483;4.0117;
-92.4000;0.2491;4.0117;
-92.1000;0.2483;4.0117;
-91.8000;0.2434;3.9916;
-91.5000;0.2515;4.0117;
-91.2000;0.2499;4.0117;
-90.9000;0.2483;4.0067;
-90.6000;0.2532;4.0218;
-90.3000;0.2491;4.0067;
-90.0000;0.2450;3.9966;
-89.7000;0.2499;4.0092;
-89.4000;0.2507;4.0167;
-89.1000;0.2499;4.0218;
-88.8000;0.2491;4.0268;
-88.5000;0.2483;4.0167;
-88.2000;0.2377;3.9840;
-87.9000;0.2475;4.0167;
-87.6000;0.2572;4.0394;
-87.3000;0.2483;4.0142;
-87.0000;0.2523;4.0218;
-86.7000;0.2499;4.0092;
-86.4000;0.2483;4.0042;
-86.1000;0.2491;4.0042;
-85.8000;0.2540;4.0268;
-85.5000;0.2466;4.0016;
-85.2000;0.2475;3.9991;
-84.9000;0.2483;3.9991;
-84.6000;0.2507;4.0042;
-84.3000;0.2491;3.9966;
-84.0000;0.2458;4.0042;
-83.7000;0.2499;4.0042;
-83.4000;0.2621;4.0419;
-83.1000;0.2523;4.0092;
-82.8000;0.2491;4.0067;
-82.5000;0.2499;4.0016;
-82.2000;0.2532;4.0117;
-81.9000;0.2499;4.0092;
-81.6000;0.2499;4.0117;
-81.3000;0.2385;3.9815;
-81.0000;0.2483;3.9991;
-80.7000;0.2491;4.0192;
-80.4000;0.2458;4.0016;
-80.1000;0.2475;4.0016;
-79.8000;0.2507;4.0092;
-79.5000;0.2491;4.0042;
-79.2000;0.2515;4.0067;
-78.9000;0.2434;3.9891;
-78.6000;0.2499;3.9991;
-78.3000;0.2507;3.9916;
-78.0000;0.2426;3.9740;
-77.7000;0.2491;3.9916;
-77.4000;0.2475;3.9916;
-77.1000;0.2458;3.9941;
-76.8000;0.2523;4.0167;
-76.5000;0.2499;4.0016;
-76.2000;0.2475;3.9916;
-75.9000;0.2442;3.9815;
-75.6000;0.2507;3.9941;
-75.3000;0.2499;4.0067;
-75.0000;0.2532;4.0167;
-74.7000;0.2483;4.0067;
-74.4000;0.2523;4.0042;
-74.1000;0.2475;3.9865;
-73.8000;0.2499;3.9865;
-73.5000;0.2475;3.9815;
-73.2000;0.2540;4.0042;
-72.9000;0.2515;3.9941;
-72.6000;0.2491;4.0067;
-72.3000;0.2418;3.9865;
-72.0000;0.2475;4.0042;
-71.7000;0.2491;4.0067;
-71.4000;0.2507;4.0167;
-71.1000;0.2507;4.0243;
-70.8000;0.2466;4.0092;
-70.5000;0.2352;3.9790;
-70.2000;0.2515;4.0192;
-69.9000;0.2475;4.0016;
-69.6000;0.2507;3.9991;
-69.3000;0.2475;3.9941;
-69.0000;0.2466;3.9916;
-68.7000;0.2491;4.0016;
-68.4000;0.2483;3.9991;
-68.1000;0.2532;4.0167;
-67.8000;0.2515;4.0117;
-67.5000;0.2409;3.9891;
-67.2000;0.2491;4.0142;
-66.9000;0.2475;4.0117;
-66.6000;0.2507;4.0092;
-66.3000;0.2507;4.0092;
-66.0000;0.2499;4.0092;
-65.7000;0.2466;3.9941;
-65.4000;0.2507;4.0167;
-65.1000;0.2548;4.0268;
-64.8000;0.2507;4.0142;
-64.5000;0.2483;4.0092;
-64.2000;0.2450;3.9941;
-63.9000;0.2499;4.0092;
-63.6000;0.2483;4.0092;
-63.3000;0.2483;4.0167;
-63.0000;0.2532;4.0318;
-62.7000;0.2491;4.0293;
-62.4000;0.2483;4.0268;
-62.1000;0.2426;4.0042;
-61.8000;0.2499;4.0167;
-61.5000;0.2491;4.0142;
-61.2000;0.2499;4.0117;
-60.9000;0.2483;4.0067;
-60.6000;0.2523;4.0167;
-60.3000;0.2499;4.0142;
-60.0000;0.2507;4.0218;
-59.7000;0.2483;4.0067;
-59.4000;0.2483;4.0092;
-59.1000;0.2507;4.0192;
-58.8000;0.2475;4.0117;
-58.5000;0.2507;4.0192;
-58.2000;0.2466;4.0092;
-57.9000;0.2466;4.0092;
-57.6000;0.2523;4.0192;
-57.3000;0.2466;3.9991;
-57.0000;0.2540;4.0218;
-56.7000;0.2475;4.0092;
-56.4000;0.2475;4.0092;
-56.1000;0.2483;4.0142;
-55.8000;0.2483;4.0092;
-55.5000;0.2597;4.0318;
-55.2000;0.2499;4.0092;
-54.9000;0.2515;4.0042;
-54.6000;0.2483;4.0042;
-54.3000;0.2475;3.9941;
-54.0000;0.2475;3.9941;
-53.7000;0.2434;3.9865;
-53.4000;0.2491;3.9916;
-53.1000;0.2475;4.0016;
-52.8000;0.2515;4.0067;
-52.5000;0.2336;3.9589;
-52.2000;0.2450;3.9840;
-51.9000;0.2458;3.9891;
-51.6000;0.2507;4.0067;
-51.3000;0.2532;4.0167;
-51.0000;0.2507;4.0016;
-50.7000;0.2491;3.9941;
-50.4000;0.2515;4.0042;
-50.1000;0.2466;3.9991;
-49.8000;0.2523;4.0042;
-49.5000;0.2418;3.9840;
-49.2000;0.2548;4.0092;
-48.9000;0.2499;3.9865;
-48.6000;0.2483;3.9891;
-48.3000;0.2507;3.9991;
-48.0000;0.2507;3.9865;
-47.7000;0.2507;3.9891;
-47.4000;0.2491;3.9790;
-47.1000;0.2491;3.9916;
-46.8000;0.2515;3.9991;
-46.5000;0.2499;4.0042;
-46.2000;0.2515;4.0092;
-45.9000;0.2491;4.0042;
-45.6000;0.2499;4.0092;
-45.3000;0.2483;4.0142;
-45.0000;0.2491;4.0067;
-44.7000;0.2515;4.0067;
-44.4000;0.2507;3.9991;
-44.1000;0.2491;3.9991;
-43.8000;0.2466;3.9991;
-43.5000;0.2475;4.0092;
-43.2000;0.2458;4.0016;
-42.9000;0.2483;4.0042;
-42.6000;0.2483;4.0016;
-42.3000;0.2475;3.9966;
-42.0000;0.2491;4.0016;
-41.7000;0.2483;4.0067;
-41.4000;0.2515;4.0092;
-41.1000;0.2491;3.9991;
-40.8000;0.2499;4.0016;
-40.5000;0.2572;4.0268;
-40.2000;0.2491;4.0092;
-39.9000;0.2499;4.0092;
-39.6000;0.2491;4.0117;
-39.3000;0.2499;4.0167;
-39.0000;0.2499;4.0067;
-38.7000;0.2418;3.9916;
-38.4000;0.2499;4.0092;
-38.1000;0.2491;4.0142;
-37.8000;0.2491;4.0042;
-37.5000;0.2515;3.9941;
-37.2000;0.2523;3.9966;
-36.9000;0.2491;3.9941;
-36.6000;0.2491;4.0042;
-36.3000;0.2515;4.0092;
-36.0000;0.2418;3.9891;
-35.7000;0.2499;4.0192;
-35.4000;0.2491;4.0293;
-35.1000;0.2572;4.0444;
-34.8000;0.2491;4.0268;
-34.5000;0.2491;4.0192;
-34.2000;0.2499;4.0092;
-33.9000;0.2458;4.0016;
-33.6000;0.2499;4.0042;
-33.3000;0.2507;4.0142;
-33.0000;0.2450;4.0042;
-32.7000;0.2507;4.0167;
-32.4000;0.2418;3.9916;
-32.1000;0.2532;4.0142;
-31.8000;0.2475;4.0016;
-31.5000;0.2475;4.0042;
-31.2000;0.2458;3.9865;
-30.9000;0.2507;3.9966;
-30.6000;0.2475;3.9891;
-30.3000;0.2564;4.0218;
-30.0000;0.2483;3.9991;
-29.7000;0.2491;3.9916;
-29.4000;0.2466;3.9765;
-29.1000;0.2499;3.9916;
-28.8000;0.2491;3.9815;
-28.5000;0.2532;4.0016;
-28.2000;0.2564;4.0092;
-27.9000;0.2483;3.9891;
-27.6000;0.2523;4.0042;
-27.3000;0.2483;3.9991;
-27.0000;0.2458;4.0016;
-26.7000;0.2483;4.0092;
-26.4000;0.2466;3.9991;
-26.1000;0.2491;3.9941;
-25.8000;0.2499;4.0042;
-25.5000;0.2548;4.0117;
-25.2000;0.2466;3.9865;
-24.9000;0.2491;3.9916;
-24.6000;0.2483;3.9941;
-24.3000;0.2499;4.0042;
-24.0000;0.2475;3.9966;
-23.7000;0.2491;4.0042;
-23.4000;0.2499;4.0117;
-23.1000;0.2483;4.0067;
-22.8000;0.2564;4.0318;
-22.5000;0.2483;4.0142;
-22.2000;0.2507;4.0117;
-21.9000;0.2491;3.9941;
-21.6000;0.2475;3.9916;
-21.3000;0.2491;4.0016;
-21.0000;0.2532;4.0117;
-20.7000;0.2409;3.9790;
-20.4000;0.2475;3.9991;
-20.1000;0.2491;4.0142;
-19.8000;0.2483;4.0117;
-19.5000;0.2475;4.0067;
-19.2000;0.2597;4.0394;
-18.9000;0.2523;4.0117;
-18.6000;0.2507;4.0016;
-18.3000;0.2491;3.9991;
-18.0000;0.2507;4.0016;
-17.7000;0.2499;3.9941;
-17.4000;0.2499;3.9916;
-17.1000;0.2483;3.9966;
-16.8000;0.2507;3.9991;
-16.5000;0.2523;3.9966;
-16.2000;0.2491;3.9991;
-15.9000;0.2499;4.0092;
-15.6000;0.2491;4.0016;
-15.3000;0.2466;3.9991;
-15.0000;0.2491;4.0142;
-14.7000;0.2499;4.0192;
-14.4000;0.2483;4.0092;
-14.1000;0.2466;4.0016;
-13.8000;0.2540;4.0218;
-13.5000;0.2458;3.9916;
-13.2000;0.2523;4.0117;
-12.9000;0.2515;4.0142;
-12.6000;0.2499;4.0092;
-12.3000;0.2523;4.0192;
-12.0000;0.2499;4.0142;
-11.7000;0.2450;3.9916;
-11.4000;0.2483;4.0016;
-11.1000;0.2548;4.0142;
-10.8000;0.2475;3.9941;
-10.5000;0.2499;4.0092;
-10.2000;0.2491;4.0092;
-9.9000;0.2491;3.9991;
-9.6000;0.2507;3.9991;
-9.3000;0.2483;3.9966;
-9.0000;0.2499;3.9966;
-8.7000;0.2515;4.0042;
-8.4000;0.2540;4.0092;
-8.1000;0.2475;3.9891;
-7.8000;0.2483;3.9865;
-7.5000;0.2491;3.9916;
-7.2000;0.2556;4.0218;
-6.9000;0.2499;4.0218;
-6.6000;0.2499;4.0167;
-6.3000;0.2483;4.0142;
-6.0000;0.2426;3.9966;
-5.7000;0.2475;4.0067;
-5.4000;0.2491;4.0092;
-5.1000;0.2475;3.9991;
-4.8000;0.2450;3.9966;
-4.5000;0.2434;3.9865;
-4.2000;0.2523;4.0067;
-3.9000;0.2466;3.9916;
-3.6000;0.2499;3.9991;
-3.3000;0.2450;3.9916;
-3.0000;0.2483;3.9966;
-2.7000;0.2491;3.9991;
-2.4000;0.2491;4.0067;
-2.1000;0.2458;3.9991;
-1.8000;0.2499;4.0167;
-1.5000;0.2507;4.0268;
-1.2000;0.2499;4.0192;
-0.9000;0.2434;4.0092;
-0.6000;0.2491;4.0218;
-0.3000;0.2466;4.0218;
0.0000;0.2466;4.0218;
0.3000;0.2491;4.0167;
0.6000;0.2499;4.0570;
0.9000;0.2523;4.0997;
1.2000;0.2564;4.1425;
1.5000;0.2556;4.1727;
1.8000;0.2580;4.2129;
2.1000;0.2532;4.2305;
2.4000;0.2662;4.2858;
2.7000;0.2670;4.3085;
3.0000;0.2621;4.3160;
3.3000;0.2662;4.3462;
3.6000;0.2678;4.3613;
3.9000;0.2556;4.3286;
4.2000;0.2678;4.3688;
4.5000;0.2629;4.3688;
4.8000;0.2662;4.3663;
5.1000;0.2678;4.3764;
5.4000;0.2670;4.3764;
5.7000;0.2686;4.3814;
6.0000;0.2621;4.3714;
6.3000;0.2694;4.4015;
6.6000;0.2662;4.4015;
6.9000;0.2686;4.4192;
7.2000;0.2702;4.4342;
7.5000;0.2702;4.4292;
7.8000;0.2670;4.4217;
8.1000;0.2654;4.4217;
8.4000;0.2678;4.4368;
8.7000;0.2694;4.4393;
9.0000;0.2678;4.4342;
9.3000;0.2686;4.4342;
9.6000;0.2670;4.4342;
9.9000;0.2686;4.4418;
10.2000;0.2678;4.4393;
10.5000;0.2702;4.4418;
10.8000;0.2613;4.4141;
11.1000;0.2678;4.4368;
11.4000;0.2678;4.4393;
11.7000;0.2702;4.4393;
12.0000;0.2670;4.4317;
12.3000;0.2670;4.4342;
12.6000;0.2613;4.4141;
12.9000;0.2662;4.4317;
13.2000;0.2662;4.4292;
13.5000;0.2686;4.4393;
13.8000;0.2670;4.4342;
14.1000;0.2816;4.4695;
14.4000;0.2686;4.4368;
14.7000;0.2686;4.4468;
15.0000;0.2711;4.4468;
15.3000;0.2670;4.4418;
15.6000;0.2694;4.4594;
15.9000;0.2686;4.4569;
16.2000;0.2702;4.4594;
16.5000;0.2694;4.4544;
16.8000;0.2670;4.4418;
17.1000;0.2694;4.4519;
17.4000;0.2694;4.4493;
17.7000;0.2670;4.4443;
18.0000;0.2678;4.4418;
18.3000;0.2678;4.4443;
18.6000;0.2694;4.4443;
18.9000;0.2694;4.4443;
19.2000;0.2686;4.4468;
19.5000;0.2670;4.4443;
19.8000;0.2686;4.4544;
20.1000;0.2670;4.4569;
20.4000;0.2678;4.4669;
20.7000;0.2776;4.4971;
21.0000;0.2841;4.5097;
21.3000;0.2702;4.4745;
21.6000;0.2743;4.4795;
21.9000;0.2654;4.4594;
22.2000;0.2694;4.4695;
22.5000;0.2711;4.4770;
22.8000;0.2719;4.4745;
23.1000;0.2735;4.4896;
23.4000;0.2694;4.4695;
23.7000;0.2702;4.4695;
24.0000;0.2678;4.4695;
24.3000;0.2694;4.4720;
24.6000;0.2662;4.4669;
24.9000;0.2637;4.4569;
25.2000;0.2670;4.4745;
25.5000;0.2686;4.4795;
25.8000;0.2702;4.4795;
26.1000;0.2735;4.4921;
26.4000;0.2670;4.4745;
26.7000;0.2719;4.4845;
27.0000;0.2727;4.4820;
27.3000;0.2686;4.4669;
27.6000;0.2686;4.4644;
27.9000;0.2686;4.4594;
28.2000;0.2686;4.4569;
28.5000;0.2678;4.4619;
28.8000;0.2686;4.4644;
29.1000;0.2662;4.4544;
29.4000;0.2662;4.4569;
29.7000;0.2654;4.4594;
30.0000;0.2735;4.4845;
30.3000;0.2670;4.4644;
30.6000;0.2662;4.4619;
30.9000;0.2702;4.4770;
31.2000;0.2686;4.4745;
31.5000;0.2678;4.4720;
31.8000;0.2702;4.4845;
32.1000;0.2678;4.4770;
32.4000;0.2694;4.4820;
32.7000;0.2686;4.4695;
33.0000;0.2670;4.4669;
33.3000;0.2686;4.4770;
33.6000;0.2711;4.4946;
33.9000;0.2719;4.4896;
34.2000;0.2646;4.4644;
34.5000;0.2670;4.4669;
34.8000;0.2686;4.4669;
35.1000;0.2678;4.4695;
35.4000;0.2678;4.4745;
35.7000;0.2629;4.4569;
36.0000;0.2694;4.4745;
36.3000;0.2678;4.4745;
36.6000;0.2678;4.4720;
36.9000;0.2654;4.4644;
37.2000;0.2686;4.4669;
37.5000;0.2751;4.4871;
37.8000;0.2743;4.4795;
38.1000;0.2825;4.5047;
38.4000;0.2694;4.4745;
38.7000;0.2711;4.4770;
39.0000;0.2702;4.4795;
39.3000;0.2719;4.4845;
39.6000;0.2662;4.4669;
39.9000;0.2621;4.4594;
40.2000;0.2678;4.4745;
40.5000;0.2654;4.4569;
40.8000;0.2629;4.4418;
41.1000;0.2678;4.4544;
41.4000;0.2686;4.4644;
41.7000;0.2678;4.4644;
42.0000;0.2670;4.4669;
42.3000;0.2686;4.4644;
42.6000;0.2662;4.4519;
42.9000;0.2629;4.4493;
43.2000;0.2662;4.4644;
43.5000;0.2711;4.4695;
43.8000;0.2654;4.4619;
44.1000;0.2629;4.4544;
44.4000;0.2662;4.4594;
44.7000;0.2694;4.4644;
45.0000;0.2670;4.4544;
45.3000;0.2686;4.4569;
45.6000;0.2727;4.4720;
45.9000;0.2694;4.4569;
46.2000;0.2694;4.4644;
46.5000;0.2711;4.4669;
46.8000;0.2694;4.4695;
47.1000;0.2678;4.4644;
47.4000;0.2686;4.4720;
47.7000;0.2678;4.4619;
48.0000;0.2678;4.4619;
48.3000;0.2670;4.4669;
48.6000;0.2686;4.4720;
48.9000;0.2678;4.4644;
49.2000;0.2670;4.4619;
49.5000;0.2678;4.4695;
49.8000;0.2694;4.4770;
50.1000;0.2670;4.4720;
50.4000;0.2678;4.4720;
50.7000;0.2654;4.4569;
51.0000;0.2646;4.4519;
51.3000;0.2686;4.4644;
51.6000;0.2694;4.4669;
51.9000;0.2702;4.4669;
52.2000;0.2678;4.4695;
52.5000;0.2694;4.4669;
52.8000;0.2670;4.4544;
53.1000;0.2702;4.4669;
53.4000;0.2678;4.4544;
53.7000;0.2686;4.4619;
54.0000;0.2654;4.4519;
54.3000;0.2694;4.4695;
54.6000;0.2670;4.4569;
54.9000;0.2670;4.4594;
55.2000;0.2670;4.4669;
55.5000;0.2694;4.4745;
55.8000;0.2702;4.4795;
56.1000;0.2678;4.4770;
56.4000;0.2694;4.4845;
56.7000;0.2694;4.4845;
57.0000;0.2678;4.4770;
57.3000;0.2629;4.4669;
57.6000;0.2686;4.4820;
57.9000;0.2711;4.4770;
58.2000;0.2719;4.4770;
58.5000;0.2670;4.4669;
58.8000;0.2719;4.4871;
59.1000;0.2686;4.4720;
59.4000;0.2670;4.4720;
59.7000;0.2589;4.4544;
60.0000;0.2662;4.4669;
60.3000;0.2678;4.4745;
60.6000;0.2670;4.4745;
60.9000;0.2686;4.4669;
61.2000;0.2686;4.4644;
61.5000;0.2580;4.4418;
61.8000;0.2580;4.4443;
62.1000;0.2670;4.4695;
62.4000;0.2702;4.4695;
62.7000;0.2694;4.4770;
63.0000;0.2702;4.4770;
63.3000;0.2678;4.4720;
63.6000;0.2735;4.4896;
63.9000;0.2702;4.4720;
64.2000;0.2694;4.4745;
64.5000;0.2686;4.4669;
64.8000;0.2580;4.4443;
65.1000;0.2678;4.4720;
65.4000;0.2678;4.4820;
65.7000;0.2662;4.4820;
66.0000;0.2670;4.4845;
66.3000;0.2670;4.4745;
66.6000;0.2621;4.4569;
66.9000;0.2776;4.4996;
67.2000;0.2678;4.4644;
67.5000;0.2564;4.4342;
67.8000;0.2670;4.4569;
68.1000;0.2686;4.4720;
68.4000;0.2670;4.4745;
68.7000;0.2694;4.4770;
69.0000;0.2678;4.4695;
69.3000;0.2702;4.4770;
69.6000;0.2670;4.4644;
69.9000;0.2662;4.4644;
70.2000;0.2686;4.4669;
70.5000;0.2694;4.4544;
70.8000;0.2654;4.4493;
71.1000;0.2686;4.4493;
71.4000;0.2678;4.4493;
71.7000;0.2702;4.4644;
72.0000;0.2605;4.4368;
72.3000;0.2662;4.4493;
72.6000;0.2670;4.4569;
72.9000;0.2621;4.4368;
73.2000;0.2702;4.4519;
73.5000;0.2694;4.4544;
73.8000;0.2702;4.4594;
74.1000;0.2702;4.4669;
74.4000;0.2654;4.4468;
74.7000;0.2670;4.4468;
75.0000;0.2719;4.4569;
75.3000;0.2670;4.4493;
75.6000;0.2686;4.4619;
75.9000;0.2678;4.4569;
76.2000;0.2646;4.4519;
76.5000;0.2694;4.4644;
76.8000;0.2654;4.4519;
77.1000;0.2670;4.4644;
77.4000;0.2670;4.4619;
77.7000;0.2670;4.4619;
78.0000;0.2662;4.4569;
78.3000;0.2670;4.4619;
78.6000;0.2678;4.4669;
78.9000;0.2702;4.4745;
79.2000;0.2654;4.4644;
79.5000;0.2694;4.4720;
79.8000;0.2686;4.4695;
80.1000;0.2637;4.4594;
80.4000;0.2670;4.4644;
80.7000;0.2646;4.4619;
81.0000;0.2702;4.4795;
81.3000;0.2589;4.4468;
81.6000;0.2776;4.4946;
81.9000;0.2678;4.4720;
82.2000;0.2662;4.4745;
82.5000;0.2621;4.4569;
82.8000;0.2686;4.4745;
83.1000;0.2686;4.4695;
83.4000;0.2686;4.4669;
83.7000;0.2719;4.4720;
84.0000;0.2572;4.4192;
84.3000;0.2662;4.4468;
84.6000;0.2727;4.4619;
84.9000;0.2637;4.4443;
85.2000;0.2662;4.4544;
85.5000;0.2637;4.4468;
85.8000;0.2694;4.4669;
86.1000;0.2678;4.4619;
86.4000;0.2678;4.4619;
86.7000;0.2694;4.4619;
87.0000;0.2662;4.4594;
87.3000;0.2694;4.4669;
87.6000;0.2768;4.4845;
87.9000;0.2751;4.4745;
88.2000;0.2686;4.4544;
88.5000;0.2702;4.4644;
88.8000;0.2719;4.4795;
89.1000;0.2686;4.4594;
89.4000;0.2678;4.4569;
89.7000;0.2694;4.4745;
90.0000;0.2646;4.4669;
90.3000;0.2670;4.4619;
90.6000;0.2646;4.4468;
90.9000;0.2694;4.4569;
91.2000;0.2654;4.4393;
91.5000;0.2670;4.4418;
91.8000;0.2646;4.4468;
92.1000;0.2670;4.4468;
92.4000;0.2678;4.4519;
92.7000;0.2711;4.4544;
93.0000;0.2654;4.4468;
93.3000;0.2719;4.4669;
93.6000;0.2686;4.4569;
93.9000;0.2670;4.4569;
94.2000;0.2646;4.4493;
94.5000;0.2662;4.4544;
94.8000;0.2646;4.4594;
95.1000;0.2654;4.4594;
95.4000;0.2686;4.4695;
95.7000;0.2678;4.4644;
96.0000;0.2662;4.4544;
96.3000;0.2662;4.4519;
96.6000;0.2662;4.4569;
96.9000;0.2662;4.4544;
97.2000;0.2654;4.4544;
97.5000;0.2670;4.4519;
97.8000;0.2662;4.4544;
98.1000;0.2711;4.4619;
98.4000;0.2694;4.4644;
98.7000;0.2637;4.4544;
99.0000;0.2678;4.4695;
99.3000;0.2670;4.4695;
99.6000;0.2646;4.4644;
99.9000;0.2646;4.4594;
100.2000;0.2670;4.4619;
100.5000;0.2759;4.4820;
100.8000;0.2670;4.4443;
101.1000;0.2613;4.4242;
101.4000;0.2670;4.4418;
101.7000;0.2646;4.4468;
102.0000;0.2743;4.4770;
102.3000;0.2678;4.4619;
102.6000;0.2678;4.4720;
102.9000;0.2670;4.4619;
103.2000;0.2670;4.4519;
103.5000;0.2678;4.4493;
103.8000;0.2702;4.4594;
104.1000;0.2694;4.4493;
104.4000;0.2670;4.4443;
104.7000;0.2654;4.4468;
105.0000;0.2686;4.4544;
105.3000;0.2662;4.4569;
105.6000;0.2654;4.4594;
105.9000;0.2670;4.4669;
106.2000;0.2678;4.4695;
106.5000;0.2646;4.4644;
106.8000;0.2751;4.4871;
107.1000;0.2654;4.4569;
107.4000;0.2694;4.4720;
107.7000;0.2646;4.4594;
108.0000;0.2670;4.4619;
108.3000;0.2646;4.4619;
108.6000;0.2694;4.4695;
108.9000;0.2654;4.4594;
109.2000;0.2646;4.4544;
109.5000;0.2662;4.4569;
109.8000;0.2654;4.4544;
110.1000;0.2686;4.4619;
110.4000;0.2751;4.4795;
110.7000;0.2662;4.4569;
111.0000;0.2686;4.4619;
111.3000;0.2702;4.4619;
111.6000;0.2678;4.4619;
111.9000;0.2678;4.4594;
112.2000;0.2678;4.4594;
112.5000;0.2686;4.4619;
112.8000;0.2719;4.4644;
113.1000;0.2686;4.4519;
113.4000;0.2686;4.4493;
113.7000;0.2743;4.4644;
114.0000;0.2686;4.4569;
114.3000;0.2678;4.4519;
114.6000;0.2670;4.4594;
114.9000;0.2678;4.4594;
115.2000;0.2670;4.4569;
115.5000;0.2662;4.4594;
115.8000;0.2613;4.4393;
116.1000;0.2711;4.4644;
116.4000;0.2678;4.4594;
116.7000;0.2670;4.4669;
117.0000;0.2662;4.4644;
117.3000;0.2678;4.4644;
117.6000;0.2694;4.4619;
117.9000;0.2678;4.4569;
118.2000;0.2670;4.4493;
118.5000;0.2711;4.4644;
118.8000;0.2711;4.4594;
119.1000;0.2678;4.4519;
119.4000;0.2719;4.4519;
119.7000;0.2662;4.4418;
120.0000;0.2597;4.4242;
120.3000;0.2759;4.4644;
120.6000;0.2678;4.4342;
120.9000;0.2646;4.4317;
121.2000;0.2637;4.4317;
121.5000;0.2654;4.4468;
121.8000;0.2662;4.4493;
122.1000;0.2637;4.4468;
122.4000;0.2719;4.4695;
122.7000;0.2694;4.4619;
123.0000;0.2654;4.4544;
123.3000;0.2589;4.4342;
123.6000;0.2678;4.4619;
123.9000;0.2678;4.4519;
124.2000;0.2629;4.4342;
124.5000;0.2654;4.4368;
124.8000;0.2686;4.4393;
125.1000;0.2670;4.4292;
125.4000;0.2719;4.4594;
125.7000;0.2678;4.4418;
126.0000;0.2727;4.4519;
126.3000;0.2694;4.4342;
126.6000;0.2654;4.4217;
126.9000;0.2670;4.4292;
127.2000;0.2662;4.4292;
127.5000;0.2686;4.4342;
127.8000;0.2662;4.4317;
128.1000;0.2662;4.4393;
128.4000;0.2654;4.4443;
128.7000;0.2548;4.4192;
129.0000;0.2637;4.4493;
129.3000;0.2662;4.4644;
129.6000;0.2711;4.4720;
129.9000;0.2662;4.4594;
130.2000;0.2670;4.4594;
130.5000;0.2662;4.4544;
130.8000;0.2654;4.4544;
131.1000;0.2662;4.4669;
131.4000;0.2678;4.4669;
131.7000;0.2670;4.4720;
132.0000;0.2662;4.4720;
132.3000;0.2678;4.4619;
132.6000;0.2678;4.4544;
132.9000;0.2686;4.4519;
133.2000;0.2686;4.4619;
133.5000;0.2727;4.4795;
133.8000;0.2654;4.4594;
134.1000;0.2646;4.4594;
134.4000;0.2654;4.4493;
134.7000;0.2808;4.5022;
135.0000;0.2670;4.4519;
135.3000;0.2678;4.4569;
135.6000;0.2662;4.4544;
135.9000;0.2711;4.4644;
136.2000;0.2637;4.4393;
136.5000;0.2678;4.4544;
136.8000;0.2621;4.4342;
137.1000;0.2686;4.4468;
137.4000;0.2670;4.4443;
137.7000;0.2637;4.4393;
138.0000;0.2621;4.4342;
138.3000;0.2678;4.4519;
138.6000;0.2670;4.4493;
138.9000;0.2768;4.4795;
139.2000;0.2678;4.4544;
139.5000;0.2678;4.4493;
139.8000;0.2629;4.4393;
140.1000;0.2670;4.4619;
140.4000;0.2686;4.4669;
140.7000;0.2670;4.4745;
141.0000;0.2654;4.4669;
141.3000;0.2662;4.4644;
141.6000;0.2670;4.4745;
141.9000;0.2678;4.4644;
142.2000;0.2678;4.4619;
142.5000;0.2613;4.4368;
142.8000;0.2678;4.4569;
143.1000;0.2694;4.4644;
143.4000;0.2711;4.4669;
143.7000;0.2654;4.4468;
144.0000;0.2597;4.4242;
144.3000;0.2670;4.4569;
144.6000;0.2662;4.4519;
144.9000;0.2662;4.4569;
145.2000;0.2646;4.4468;
145.5000;0.2670;4.4594;
145.8000;0.2654;4.4519;
146.1000;0.2540;4.4166;
146.4000;0.2662;4.4468;
146.7000;0.2694;4.4544;
147.0000;0.2654;4.4368;
147.3000;0.2800;4.4845;
147.6000;0.2654;4.4317;
147.9000;0.2670;4.4342;
148.2000;0.2605;4.4192;
148.5000;0.2694;4.4418;
148.8000;0.2670;4.4418;
149.1000;0.2678;4.4468;
149.4000;0.2532;4.4217;
149.7000;0.2686;4.4745;
150.0000;0.2654;4.4544;
150.3000;0.2662;4.4594;
150.6000;0.2678;4.4644;
150.9000;0.2629;4.4443;
151.2000;0.2637;4.4443;
151.5000;0.2662;4.4443;
151.8000;0.2719;4.4594;
152.1000;0.2686;4.4619;
152.4000;0.2678;4.4619;
152.7000;0.2646;4.4544;
153.0000;0.2694;4.4695;
153.3000;0.2621;4.4493;
153.6000;0.2922;4.5349;
153.9000;0.2686;4.4669;
154.2000;0.2678;4.4619;
154.5000;0.2662;4.4594;
154.8000;0.2662;4.4619;
155.1000;0.2751;4.4871;
155.4000;0.2646;4.4619;
155.7000;0.2678;4.4594;
156.0000;0.2654;4.4544;
156.3000;0.2654;4.4493;
156.6000;0.2621;4.4368;
156.9000;0.2662;4.4519;
157.2000;0.2662;4.4594;
157.5000;0.2686;4.4544;
157.8000;0.2621;4.4418;
158.1000;0.2646;4.4519;
158.4000;0.2686;4.4594;
158.7000;0.2727;4.4745;
159.0000;0.2654;4.4544;
159.3000;0.2694;4.4695;
159.6000;0.2686;4.4644;
159.9000;0.2678;4.4669;
160.2000;0.2678;4.4594;
160.5000;0.2702;4.4569;
160.8000;0.2678;4.4418;
161.1000;0.2670;4.4468;
161.4000;0.2670;4.4519;
161.7000;0.2727;4.4745;
162.0000;0.2670;4.4544;
162.3000;0.2662;4.4519;
162.6000;0.2662;4.4569;
162.9000;0.2686;4.4695;
163.2000;0.2686;4.4619;
163.5000;0.2670;4.4594;
163.8000;0.2662;4.4695;
164.1000;0.2662;4.4669;
164.4000;0.2686;4.4669;
164.7000;0.2637;4.4594;
165.0000;0.2605;4.4468;
165.3000;0.2654;4.4619;
165.6000;0.2670;4.4619;
165.9000;0.2686;4.4669;
166.2000;0.2719;4.4745;
166.5000;0.2629;4.4418;
166.8000;0.2678;4.4594;
167.1000;0.2686;4.4594;
167.4000;0.2654;4.4443;
167.7000;0.2670;4.4519;
168.0000;0.2694;4.4594;
168.3000;0.2686;4.4594;
168.6000;0.2670;4.4519;
168.9000;0.2597;4.4242;
169.2000;0.2670;4.4418;
169.5000;0.2637;4.4368;
169.8000;0.2654;4.4443;
170.1000;0.2556;4.4141;
170.4000;0.2654;4.4468;
170.7000;0.2637;4.4393;
171.0000;0.2654;4.4468;
171.3000;0.2621;4.4418;
171.6000;0.2711;4.4669;
171.9000;0.2637;4.4443;
172.2000;0.2670;4.4619;
172.5000;0.2678;4.4569;
172.8000;0.2662;4.4519;
173.1000;0.2678;4.4569;
173.4000;0.2702;4.4669;
173.7000;0.2702;4.4544;
174.0000;0.2702;4.4619;
174.3000;0.2670;4.4644;
174.6000;0.2694;4.4745;
174.9000;0.2670;4.4669;
175.2000;0.2662;4.4544;
175.5000;0.2662;4.4519;
175.8000;0.2662;4.4468;
176.1000;0.2678;4.4519;
176.4000;0.2670;4.4519;
176.7000;0.2686;4.4594;
177.0000;0.2711;4.4695;
177.3000;0.2654;4.4594;
177.6000;0.2613;4.4393;
177.9000;0.2678;4.4519;
178.2000;0.2621;4.4443;
178.5000;0.2694;4.4669;
178.8000;0.2670;4.4669;
179.1000;0.2646;4.4695;
179.4000;0.2613;4.4619;
179.7000;0.2662;4.4720;
180.0000;0.2670;4.4795;
180.3000;0.2646;4.4695;
180.6000;0.2637;4.4720;
180.9000;0.2654;4.4820;
181.2000;0.2654;4.4845;
181.5000;0.2670;4.4921;
181.8000;0.2629;4.4845;
182.1000;0.2678;4.4871;
182.4000;0.2686;4.4795;
182.7000;0.2670;4.4770;
183.0000;0.2670;4.4795;
183.3000;0.2662;4.4820;
183.6000;0.2662;4.4745;
183.9000;0.2654;4.4695;
184.2000;0.2654;4.4695;
184.5000;0.2654;4.4720;
184.8000;0.2670;4.4720;
185.1000;0.2637;4.4669;
185.4000;0.2670;4.4695;
185.7000;0.2662;4.4669;
186.0000;0.2678;4.4695;
186.3000;0.2678;4.4594;
186.6000;0.2694;4.4519;
186.9000;0.2637;4.4418;
187.2000;0.2727;4.4644;
187.5000;0.2670;4.4644;
187.8000;0.2662;4.4644;
188.1000;0.2662;4.4619;
188.4000;0.2702;4.4820;
188.7000;0.2670;4.4795;
189.0000;0.2662;4.4845;
189.3000;0.2637;4.4669;
189.6000;0.2670;4.4619;
189.9000;0.2637;4.4569;
190.2000;0.2621;4.4468;
190.5000;0.2564;4.4217;
190.8000;0.2686;4.4569;
191.1000;0.2654;4.4443;
191.4000;0.2605;4.4368;
191.7000;0.2678;4.4519;
192.0000;0.2711;4.4619;
192.3000;0.2678;4.4493;
192.6000;0.2670;4.4468;
192.9000;0.2662;4.4443;
193.2000;0.2735;4.4569;
193.5000;0.2540;4.4066;
193.8000;0.2727;4.4619;
194.1000;0.2670;4.4519;
194.4000;0.2686;4.4644;
194.7000;0.2694;4.4569;
195.0000;0.2678;4.4493;
195.3000;0.2662;4.4493;
195.6000;0.2670;4.4493;
195.9000;0.2654;4.4519;
196.2000;0.2670;4.4594;
196.5000;0.2694;4.4669;
196.8000;0.2670;4.4644;
197.1000;0.2670;4.4594;
197.4000;0.2662;4.4594;
197.7000;0.2670;4.4519;
198.0000;0.2686;4.4619;
198.3000;0.2670;4.4644;
198.6000;0.2662;4.4619;
198.9000;0.2678;4.4594;
199.2000;0.2629;4.4468;
199.5000;0.2662;4.4569;
199.8000;0.2670;4.4644;
200.1000;0.2686;4.4720;
200.4000;0.2670;4.4695;
200.7000;0.2662;4.4669;
201.0000;0.2686;4.4770;
201.3000;0.2670;4.4845;
201.6000;0.2694;4.4971;
201.9000;0.2670;4.4946;
202.2000;0.2678;4.4896;
202.5000;0.2670;4.4871;
202.8000;0.2646;4.4745;
203.1000;0.2686;4.4871;
203.4000;0.2662;4.4720;
203.7000;0.2646;4.4720;
204.0000;0.2670;4.4745;
204.3000;0.2670;4.4720;
204.6000;0.2654;4.4695;
204.9000;0.2654;4.4619;
205.2000;0.2670;4.4569;
205.5000;0.2662;4.4619;
205.8000;0.2662;4.4519;
206.1000;0.2670;4.4544;
206.4000;0.2670;4.4544;
206.7000;0.2678;4.4695;
207.0000;0.2702;4.4770;
207.3000;0.2646;4.4644;
207.6000;0.2670;4.4695;
207.9000;0.2670;4.4720;
208.2000;0.2654;4.4669;
208.5000;0.2662;4.4669;
208.8000;0.2637;4.4569;
209.1000;0.2678;4.4569;
209.4000;0.2662;4.4493;
209.7000;0.2637;4.4393;
210.0000;0.2670;4.4569;
210.3000;0.2654;4.4619;
210.6000;0.2646;4.4619;
210.9000;0.2646;4.4519;
211.2000;0.2637;4.4493;
211.5000;0.2686;4.4720;
211.8000;0.2670;4.4695;
212.1000;0.2654;4.4770;
212.4000;0.2678;4.4770;
212.7000;0.2678;4.4745;
213.0000;0.2662;4.4594;
213.3000;0.2646;4.4493;
213.6000;0.2670;4.4594;
213.9000;0.2662;4.4468;
214.2000;0.2670;4.4519;
214.5000;0.2580;4.4317;
214.8000;0.2686;4.4619;
215.1000;0.2670;4.4519;
215.4000;0.2556;4.4242;
215.7000;0.2654;4.4594;
216.0000;0.2662;4.4569;
216.3000;0.2670;4.4695;
216.6000;0.2686;4.4795;
216.9000;0.2646;4.4745;
217.2000;0.2662;4.4720;
217.5000;0.2670;4.4695;
217.8000;0.2662;4.4644;
218.1000;0.2702;4.4669;
218.4000;0.2678;4.4669;
218.7000;0.2670;4.4519;
219.0000;0.2662;4.4619;
219.3000;0.2629;4.4468;
219.6000;0.2678;4.4569;
219.9000;0.2654;4.4569;
220.2000;0.2621;4.4468;
220.5000;0.2637;4.4569;
220.8000;0.2589;4.4342;
221.1000;0.2637;4.4519;
221.4000;0.2654;4.4544;
221.7000;0.2654;4.4544;
222.0000;0.2678;4.4569;
222.3000;0.2662;4.4519;
222.6000;0.2654;4.4443;
222.9000;0.2678;4.4443;
223.2000;0.2670;4.4393;
223.5000;0.2654;4.4317;
223.8000;0.2662;4.4368;
224.1000;0.2678;4.4493;
224.4000;0.2637;4.4342;
224.7000;0.2662;4.4493;
225.0000;0.2654;4.4493;
225.3000;0.2694;4.4619;
225.6000;0.2475;4.4116;
225.9000;0.2670;4.4770;
226.2000;0.2678;4.4720;
226.5000;0.2686;4.4820;
226.8000;0.2670;4.4745;
227.1000;0.2678;4.4720;
227.4000;0.2670;4.4695;
227.7000;0.2670;4.4745;
228.0000;0.2597;4.4569;
228.3000;0.2629;4.4669;
228.6000;0.2646;4.4720;
228.9000;0.2662;4.4695;
229.2000;0.2637;4.4544;
229.5000;0.2662;4.4594;
229.8000;0.2646;4.4594;
230.1000;0.2646;4.4695;
230.4000;0.2654;4.4695;
230.7000;0.2686;4.4820;
231.0000;0.2646;4.4720;
231.3000;0.2662;4.4770;
231.6000;0.2662;4.4720;
231.9000;0.2654;4.4594;
232.2000;0.2678;4.4619;
232.5000;0.2670;4.4569;
232.8000;0.2654;4.4493;
233.1000;0.2678;4.4569;
233.4000;0.2670;4.4519;
233.7000;0.2719;4.4745;
234.0000;0.2654;4.4493;
234.3000;0.2686;4.4519;
234.6000;0.2662;4.4544;
234.9000;0.2646;4.4619;
235.2000;0.2662;4.4619;
235.5000;0.2621;4.4493;
235.8000;0.2646;4.4493;
236.1000;0.2572;4.4166;
236.4000;0.2637;4.4393;
236.7000;0.2694;4.4594;
237.0000;0.2629;4.4443;
237.3000;0.2654;4.4493;
237.6000;0.2727;4.4644;
237.9000;0.2637;4.4544;
238.2000;0.2670;4.4695;
238.5000;0.2800;4.5072;
238.8000;0.2678;4.4745;
239.1000;0.2686;4.4720;
239.4000;0.2686;4.4695;
239.7000;0.2646;4.4619;
240.0000;0.2580;4.4443;
240.3000;0.2637;4.4594;
240.6000;0.2605;4.4418;
240.9000;0.2646;4.4519;
241.2000;0.2727;4.4795;
241.5000;0.2678;4.4644;
241.8000;0.2678;4.4669;
242.1000;0.2735;4.4871;
242.4000;0.2694;4.4845;
242.7000;0.2654;4.4820;
243.0000;0.2662;4.4820;
243.3000;0.2686;4.4946;
243.6000;0.2613;4.4745;
243.9000;0.2646;4.4896;
244.2000;0.2662;4.4946;
244.5000;0.2629;4.4971;
244.8000;0.2646;4.4996;
245.1000;0.2637;4.4946;
245.4000;0.2694;4.5097;
245.7000;0.2662;4.4971;
246.0000;0.2654;4.4871;
246.3000;0.2670;4.4896;
246.6000;0.2654;4.4820;
246.9000;0.2670;4.4921;
247.2000;0.2743;4.5097;
247.5000;0.2662;4.4745;
247.8000;0.2808;4.5248;
248.1000;0.2597;4.4519;
248.4000;0.2678;4.4669;
248.7000;0.2678;4.4720;
249.0000;0.2759;4.4921;
249.3000;0.2637;4.4669;
249.6000;0.2702;4.4820;
249.9000;0.2686;4.4695;
250.2000;0.2646;4.4544;
250.5000;0.2678;4.4669;
250.8000;0.2735;4.4871;
251.1000;0.2727;4.4795;
251.4000;0.2678;4.4619;
251.7000;0.2711;4.4770;
252.0000;0.2646;4.4594;
252.3000;0.2662;4.4695;
252.6000;0.2686;4.4820;
252.9000;0.2727;4.4871;
253.2000;0.2670;4.4720;
253.5000;0.2670;4.4871;
253.8000;0.2686;4.4845;
254.1000;0.2654;4.4770;
254.4000;0.2654;4.4795;
254.7000;0.2670;4.4871;
255.0000;0.2735;4.4996;
255.3000;0.2670;4.4795;
255.6000;0.2670;4.4770;
255.9000;0.2678;4.4921;
256.2000;0.2662;4.4971;
256.5000;0.2678;4.4971;
256.8000;0.2654;4.4896;
257.1000;0.2662;4.4921;
257.4000;0.2694;4.4795;
257.7000;0.2670;4.4619;
258.0000;0.2654;4.4669;
258.3000;0.2694;4.4795;
258.6000;0.2686;4.4921;
258.9000;0.2654;4.4845;
259.2000;0.2670;4.4921;
259.5000;0.2670;4.4996;
259.8000;0.2646;4.4996;
260.1000;0.2637;4.4996;
260.4000;0.2662;4.5022;
260.7000;0.2678;4.5047;
261.0000;0.2654;4.4996;
261.3000;0.2621;4.4896;
261.6000;0.2727;4.5223;
261.9000;0.2637;4.4896;
262.2000;0.2727;4.5022;
262.5000;0.2686;4.4795;
262.8000;0.2670;4.4795;
263.1000;0.2637;4.4695;
263.4000;0.2662;4.4720;
263.7000;0.2735;4.4921;
264.0000;0.2670;4.4770;
264.3000;0.2646;4.4594;
264.6000;0.2662;4.4619;
264.9000;0.2556;4.4242;
265.2000;0.2670;4.4594;
265.5000;0.2662;4.4544;
265.8000;0.2637;4.4544;
266.1000;0.2678;4.4720;
266.4000;0.2654;4.4569;
266.7000;0.2743;4.4845;
267.0000;0.2646;4.4669;
267.3000;0.2678;4.4695;
267.6000;0.2613;4.4519;
267.9000;0.2654;4.4669;
268.2000;0.2662;4.4695;
268.5000;0.2670;4.4644;
268.8000;0.2646;4.4619;
269.1000;0.2670;4.4720;
269.4000;0.2654;4.4619;
269.7000;0.2727;4.4845;
270.0000;0.2637;4.4644;
270.3000;0.2629;4.4695;
270.6000;0.2662;4.4669;
270.9000;0.2662;4.4644;
271.2000;0.2654;4.4519;
271.5000;0.2784;4.4720;
271.8000;0.2670;4.4418;
272.1000;0.2662;4.4342;
272.4000;0.2776;4.4695;
272.7000;0.2637;4.4468;
273.0000;0.2637;4.4493;
273.3000;0.2662;4.4644;
273.6000;0.2646;4.4544;
273.9000;0.2678;4.4619;
274.2000;0.2670;4.4619;
274.5000;0.2523;4.4091;
274.8000;0.2678;4.4493;
275.1000;0.2694;4.4569;
275.4000;0.2678;4.4544;
275.7000;0.2670;4.4594;
276.0000;0.2694;4.4644;
276.3000;0.2670;4.4544;
276.6000;0.2662;4.4569;
276.9000;0.2654;4.4519;
277.2000;0.2678;4.4569;
277.5000;0.2702;4.4594;
277.8000;0.2678;4.4619;
278.1000;0.2686;4.4594;
278.4000;0.2694;4.4569;
278.7000;0.2678;4.4544;
279.0000;0.2670;4.4519;
279.3000;0.2678;4.4544;
279.6000;0.2662;4.4594;
279.9000;0.2613;4.4519;
280.2000;0.2654;4.4644;
280.5000;0.2670;4.4519;
280.8000;0.2654;4.4519;
281.1000;0.2646;4.4468;
281.4000;0.2654;4.4569;
281.7000;0.2654;4.4695;
282.0000;0.2670;4.4695;
282.3000;0.2654;4.4644;
282.6000;0.2646;4.4644;
282.9000;0.2646;4.4619;
283.2000;0.2654;4.4695;
283.5000;0.2662;4.4770;
283.8000;0.2662;4.4695;
284.1000;0.2662;4.4644;
284.4000;0.2662;4.4493;
284.7000;0.2662;4.4342;
285.0000;0.2678;4.4368;
285.3000;0.2654;4.4292;
285.6000;0.2727;4.4619;
285.9000;0.2646;4.4468;
286.2000;0.2662;4.4519;
286.5000;0.2662;4.4594;
286.8000;0.2662;4.4493;
287.1000;0.2637;4.4443;
287.4000;0.2654;4.4443;
287.7000;0.2637;4.4519;
288.0000;0.2662;4.4695;
288.3000;0.2670;4.4695;
288.6000;0.2637;4.4569;
288.9000;0.2670;4.4745;
289.2000;0.2556;4.4393;
289.5000;0.2654;4.4745;
289.8000;0.2654;4.4695;
290.1000;0.2694;4.4795;
290.4000;0.2654;4.4644;
290.7000;0.2678;4.4695;
291.0000;0.2678;4.4745;
291.3000;0.2646;4.4720;
291.6000;0.2580;4.4443;
291.9000;0.2654;4.4720;
292.2000;0.2646;4.4720;
292.5000;0.2662;4.4745;
292.8000;0.2719;4.4871;
293.1000;0.2621;4.4695;
293.4000;0.2637;4.4669;
293.7000;0.2646;4.4644;
294.0000;0.2678;4.4644;
294.3000;0.2662;4.4519;
294.6000;0.2629;4.4493;
294.9000;0.2629;4.4468;
295.2000;0.2670;4.4619;
295.5000;0.2654;4.4619;
295.8000;0.2621;4.4544;
296.1000;0.2662;4.4619;
296.4000;0.2646;4.4468;
296.7000;0.2662;4.4443;
297.0000;0.2670;4.4468;
297.3000;0.2637;4.4368;
297.6000;0.2646;4.4418;
297.9000;0.2662;4.4443;
298.2000;0.2637;4.4368;
298.5000;0.2719;4.4619;
298.8000;0.2694;4.4669;
299.1000;0.2646;4.4569;
299.4000;0.2678;4.4669;
299.7000;0.2662;4.4594;
300.0000;0.2654;4.4594;
300.3000;0.2670;4.4569;
300.6000;0.2621;4.4393;
300.9000;0.2800;4.4845;
301.2000;0.2621;4.4393;
301.5000;0.2646;4.4493;
301.8000;0.2654;4.4569;
302.1000;0.2654;4.4569;
302.4000;0.2646;4.4594;
302.7000;0.2686;4.4669;
303.0000;0.2670;4.4594;
303.3000;0.2654;4.4544;
303.6000;0.2646;4.4468;
303.9000;0.2621;4.4418;
304.2000;0.2670;4.4569;
304.5000;0.2646;4.4493;
304.8000;0.2621;4.4443;
305.1000;0.2662;4.4669;
305.4000;0.2662;4.4770;
305.7000;0.2678;4.4845;
306.0000;0.2637;4.4820;
306.3000;0.2662;4.4795;
306.6000;0.2711;4.4921;
306.9000;0.2646;4.4695;
307.2000;0.2654;4.4669;
307.5000;0.2662;4.4695;
307.8000;0.2654;4.4594;
308.1000;0.2662;4.4644;
308.4000;0.2548;4.4393;
308.7000;0.2637;4.4619;
309.0000;0.2670;4.4770;
309.3000;0.2670;4.4669;
309.6000;0.2572;4.4393;
309.9000;0.2646;4.4669;
310.2000;0.2637;4.4695;
310.5000;0.2735;4.4971;
310.8000;0.2662;4.4745;
311.1000;0.2637;4.4644;
311.4000;0.2629;4.4594;
311.7000;0.2662;4.4619;
312.0000;0.2646;4.4619;
312.3000;0.2670;4.4695;
312.6000;0.2702;4.4820;
312.9000;0.2654;4.4695;
313.2000;0.2670;4.4745;
313.5000;0.2654;4.4720;
313.8000;0.2589;4.4493;
314.1000;0.2678;4.4695;
314.4000;0.2662;4.4745;
314.7000;0.2735;4.5047;
315.0000;0.2646;4.4795;
315.3000;0.2654;4.4745;
315.6000;0.2678;4.4795;
315.9000;0.2654;4.4669;
316.2000;0.2670;4.4619;
316.5000;0.2678;4.4569;
316.8000;0.2678;4.4594;
317.1000;0.2654;4.4644;
317.4000;0.2662;4.4619;
317.7000;0.2637;4.4519;
318.0000;0.2662;4.4644;
318.3000;0.2662;4.4770;
318.6000;0.2662;4.4720;
318.9000;0.2646;4.4569;
319.2000;0.2670;4.4619;
319.5000;0.2678;4.4569;
319.8000;0.2637;4.4544;
320.1000;0.2646;4.4569;
320.4000;0.2637;4.4544;
320.7000;0.2670;4.4619;
321.0000;0.2678;4.4644;
321.3000;0.2654;4.4544;
321.6000;0.2629;4.4468;
321.9000;0.2662;4.4644;
322.2000;0.2670;4.4745;
322.5000;0.2662;4.4669;
322.8000;0.2686;4.4770;
323.1000;0.2646;4.4644;
323.4000;0.2670;4.4695;
323.7000;0.2670;4.4770;
324.0000;0.2637;4.4669;
324.3000;0.2670;4.4695;
324.6000;0.2670;4.4695;
324.9000;0.2670;4.4493;
325.2000;0.2670;4.4519;
325.5000;0.2637;4.4443;
325.8000;0.2678;4.4493;
326.1000;0.2654;4.4493;
326.4000;0.2637;4.4544;
326.7000;0.2646;4.4644;
327.0000;0.2646;4.4745;
327.3000;0.2662;4.4695;
327.6000;0.2686;4.4695;
327.9000;0.2646;4.4544;
328.2000;0.2768;4.4820;
328.5000;0.2654;4.4619;
328.8000;0.2670;4.4544;
329.1000;0.2662;4.4393;
329.4000;0.2670;4.4443;
329.7000;0.2678;4.4493;
330.0000;0.2654;4.4468;
330.3000;0.2637;4.4418;
330.6000;0.2646;4.4368;
330.9000;0.2670;4.4443;
331.2000;0.2621;4.4443;
331.5000;0.2662;4.4418;
331.8000;0.2654;4.4393;
332.1000;0.2654;4.4368;
332.4000;0.2540;4.4116;
332.7000;0.2654;4.4468;
333.0000;0.2580;4.4267;
333.3000;0.2580;4.4292;
333.6000;0.2654;4.4493;
333.9000;0.2654;4.4443;
334.2000;0.2646;4.4342;
334.5000;0.2670;4.4368;
334.8000;0.2670;4.4368;
335.1000;0.2702;4.4443;
335.4000;0.2629;4.4368;
335.7000;0.2702;4.4519;
336.0000;0.2678;4.4468;
336.3000;0.2662;4.4468;
336.6000;0.2629;4.4393;
336.9000;0.2646;4.4468;
337.2000;0.2621;4.4443;
337.5000;0.2637;4.4443;
337.8000;0.2678;4.4544;
338.1000;0.2654;4.4493;
338.4000;0.2654;4.4569;
338.7000;0.2654;4.4619;
339.0000;0.2694;4.4695;
339.3000;0.2637;4.4619;
339.6000;0.2670;4.4720;
339.9000;0.2662;4.4770;
340.2000;0.2646;4.4644;
340.5000;0.2654;4.4669;
340.8000;0.2646;4.4695;
341.1000;0.2654;4.4770;
341.4000;0.2743;4.5072;
341.7000;0.2662;4.4896;
342.0000;0.2678;4.4845;
342.3000;0.2646;4.4695;
342.6000;0.2662;4.4669;
342.9000;0.2662;4.4669;
343.2000;0.2646;4.4695;
343.5000;0.2654;4.4594;
343.8000;0.2646;4.4669;
344.1000;0.2670;4.4644;
344.4000;0.2646;4.4619;
344.7000;0.2605;4.4519;
345.0000;0.2686;4.4720;
345.3000;0.2654;4.4720;
345.6000;0.2637;4.4770;
345.9000;0.2654;4.4720;
346.2000;0.2662;4.4745;
346.5000;0.2686;4.4720;
346.8000;0.2564;4.4418;
347.1000;0.2686;4.4695;
347.4000;0.2678;4.4644;
347.7000;0.2662;4.4594;
348.0000;0.2621;4.4519;
348.3000;0.2654;4.4544;
348.6000;0.2678;4.4619;
348.9000;0.2694;4.4644;
349.2000;0.2646;4.4544;
349.5000;0.2654;4.4519;
349.8000;0.2654;4.4493;
350.1000;0.2662;4.4569;
350.4000;0.2662;4.4569;
350.7000;0.2662;4.4619;
351.0000;0.2694;4.4644;
351.3000;0.2711;4.4644;
351.6000;0.2613;4.4443;
351.9000;0.2621;4.4519;
352.2000;0.2654;4.4544;
352.5000;0.2686;4.4594;
352.8000;0.2646;4.4493;
353.1000;0.2646;4.4468;
353.4000;0.2670;4.4544;
353.7000;0.2670;4.4493;
354.0000;0.2662;4.4443;
354.3000;0.2646;4.4493;
354.6000;0.2662;4.4443;
354.9000;0.2662;4.4468;
355.2000;0.2711;4.4569;
355.5000;0.2605;4.4217;
355.8000;0.2662;4.4418;
356.1000;0.2686;4.4519;
356.4000;0.2735;4.4695;
356.7000;0.2646;4.4393;
357.0000;0.2637;4.4393;
357.3000;0.2597;4.4267;
357.6000;0.2670;4.4468;
357.9000;0.2646;4.4468;
358.2000;0.2629;4.4418;
358.5000;0.2678;4.4569;
358.8000;0.2654;4.4544;
359.1000;0.2694;4.4669;
359.4000;0.2670;4.4644;
359.7000;0.2727;4.4720;
360.0000;0.2662;4.4493;
360.3000;0.2646;4.4418;
360.6000;0.2662;4.4519;
360.9000;0.2735;4.4795;
361.2000;0.2654;4.4468;
361.5000;0.2678;4.4493;
361.8000;0.2654;4.4418;
362.1000;0.2654;4.4368;
362.4000;0.2654;4.4368;
362.7000;0.2515;4.4015;
363.0000;0.2735;4.4669;
363.3000;0.2670;4.4418;
363.6000;0.2662;4.4393;
363.9000;0.2662;4.4468;
364.2000;0.2629;4.4443;
364.5000;0.2621;4.4292;
364.8000;0.2678;4.4519;
365.1000;0.2654;4.4342;
365.4000;0.2523;4.4066;
365.7000;0.2662;4.4393;
366.0000;0.2735;4.4569;
366.3000;0.2670;4.4393;
366.6000;0.2556;4.4015;
366.9000;0.2646;4.4342;
367.2000;0.2662;4.4493;
367.5000;0.2743;4.4695;
367.8000;0.2727;4.4644;
368.1000;0.2637;4.4393;
368.4000;0.2670;4.4418;
368.7000;0.2646;4.4342;
369.0000;0.2670;4.4368;
369.3000;0.2637;4.4368;
369.6000;0.2654;4.4443;
369.9000;0.2646;4.4418;
370.2000;0.2678;4.4519;
370.5000;0.2662;4.4393;
370.8000;0.2532;4.4116;
371.1000;0.2637;4.4468;
371.4000;0.2670;4.4468;
371.7000;0.2646;4.4292;
372.0000;0.2670;4.4393;
372.3000;0.2662;4.4393;
372.6000;0.2678;4.4368;
372.9000;0.2670;4.4368;
373.2000;0.2637;4.4267;
373.5000;0.2670;4.4393;
373.8000;0.2654;4.4292;
374.1000;0.2670;4.4292;
374.4000;0.2662;4.4217;
374.7000;0.2629;4.4091;
375.0000;0.2629;4.4166;
375.3000;0.2654;4.4317;
375.6000;0.2637;4.4317;
375.9000;0.2646;4.4368;
376.2000;0.2613;4.4267;
376.5000;0.2637;4.4393;
376.8000;0.2662;4.4519;
377.1000;0.2646;4.4443;
377.4000;0.2662;4.4544;
377.7000;0.2629;4.4544;
378.0000;0.2662;4.4569;
378.3000;0.2654;4.4493;
378.6000;0.2686;4.4569;
378.9000;0.2662;4.4519;
379.2000;0.2662;4.4544;
379.5000;0.2719;4.4695;
379.8000;0.2654;4.4569;
380.1000;0.2629;4.4393;
380.4000;0.2678;4.4644;
380.7000;0.2523;4.4141;
381.0000;0.2654;4.4468;
381.3000;0.2662;4.4468;
381.6000;0.2670;4.4519;
381.9000;0.2694;4.4519;
382.2000;0.2637;4.4267;
382.5000;0.2646;4.4393;
382.8000;0.2759;4.4745;
383.1000;0.2646;4.4317;
383.4000;0.2646;4.4317;
383.7000;0.2792;4.4820;
384.0000;0.2670;4.4519;
384.3000;0.2654;4.4468;
384.6000;0.2662;4.4569;
384.9000;0.2678;4.4569;
385.2000;0.2646;4.4418;
385.5000;0.2646;4.4443;
385.8000;0.2605;4.4267;
386.1000;0.2646;4.4342;
386.4000;0.2629;4.4342;
386.7000;0.2711;4.4669;
387.0000;0.2605;4.4418;
387.3000;0.2678;4.4619;
387.6000;0.2637;4.4594;
387.9000;0.2580;4.4317;
388.2000;0.2629;4.4443;
388.5000;0.2654;4.4493;
388.8000;0.2662;4.4493;
389.1000;0.2646;4.4468;
389.4000;0.2662;4.4443;
389.7000;0.2678;4.4519;
390.0000;0.2548;4.4242;
390.3000;0.2654;4.4443;
390.6000;0.2613;4.4342;
390.9000;0.2792;4.4720;
391.2000;0.2654;4.4342;
391.5000;0.2694;4.4443;
391.8000;0.2662;4.4368;
392.1000;0.2654;4.4393;
392.4000;0.2654;4.4393;
392.7000;0.2702;4.4443;
393.0000;0.2678;4.4342;
393.3000;0.2646;4.4368;
393.6000;0.2662;4.4317;
393.9000;0.2654;4.4242;
394.2000;0.2629;4.4166;
394.5000;0.2646;4.4267;
394.8000;0.2711;4.4619;
395.1000;0.2637;4.4418;
395.4000;0.2678;4.4519;
395.7000;0.2637;4.4493;
396.0000;0.2532;4.4041;
396.3000;0.2694;4.4368;
396.6000;0.2662;4.4166;
396.9000;0.2637;4.4192;
397.2000;0.2621;4.4192;
397.5000;0.2637;4.4267;
397.8000;0.2670;4.4393;
398.1000;0.2646;4.4267;
398.4000;0.2654;4.4267;
398.7000;0.2646;4.4292;
399.0000;0.2654;4.4267;
399.3000;0.2637;4.4242;
399.6000;0.2654;4.4267;
399.9000;0.2637;4.4242;
400.2000;0.2637;4.4192;
400.5000;0.2686;4.4393;
400.8000;0.2662;4.4368;
401.1000;0.2808;4.4795;
401.4000;0.2646;4.4342;
401.7000;0.2621;4.4342;
402.0000;0.2654;4.4418;
402.3000;0.2678;4.4493;
402.6000;0.2670;4.4393;
402.9000;0.2621;4.4368;
403.2000;0.2646;4.4368;
403.5000;0.2646;4.4393;
403.8000;0.2662;4.4418;
404.1000;0.2637;4.4393;
404.4000;0.2670;4.4393;
404.7000;0.2662;4.4468;
405.0000;0.2702;4.4519;
405.3000;0.2629;4.4368;
405.6000;0.2646;4.4468;
405.9000;0.2621;4.4342;
406.2000;0.2646;4.4368;
406.5000;0.2654;4.4393;
406.8000;0.2654;4.4468;
407.1000;0.2637;4.4368;
407.4000;0.2654;4.4267;
407.7000;0.2735;4.4669;
408.0000;0.2646;4.4493;
408.3000;0.2637;4.4519;
408.6000;0.2646;4.4519;
408.9000;0.2654;4.4519;
409.2000;0.2646;4.4519;
409.5000;0.2646;4.4418;
409.8000;0.2597;4.4242;
410.1000;0.2637;4.4393;
410.4000;0.2629;4.4217;
410.7000;0.2670;4.4342;
411.0000;0.2662;4.4368;
411.3000;0.2662;4.4317;
411.6000;0.2662;4.4267;
411.9000;0.2662;4.4368;
412.2000;0.2686;4.4519;
412.5000;0.2654;4.4493;
412.8000;0.2629;4.4468;
413.1000;0.2637;4.4519;
413.4000;0.2662;4.4544;
413.7000;0.2654;4.4544;
414.0000;0.2678;4.4569;
414.3000;0.2654;4.4493;
414.6000;0.2662;4.4519;
414.9000;0.2727;4.4720;
415.2000;0.2637;4.4468;
415.5000;0.2654;4.4443;
415.8000;0.2572;4.4141;
416.1000;0.2670;4.4418;
416.4000;0.2670;4.4493;
416.7000;0.2662;4.4468;
417.0000;0.2646;4.4468;
417.3000;0.2662;4.4443;
417.6000;0.2654;4.4443;
417.9000;0.2662;4.4493;
418.2000;0.2670;4.4519;
418.5000;0.2646;4.4468;
418.8000;0.2646;4.4292;
419.1000;0.2629;4.4192;
419.4000;0.2654;4.4242;
419.7000;0.2662;4.4317;
420.0000;0.2654;4.4393;
420.3000;0.2646;4.4393;
420.6000;0.2646;4.4418;
420.9000;0.2670;4.4493;
421.2000;0.2646;4.4443;
421.5000;0.2646;4.4418;
421.8000;0.2654;4.4368;
422.1000;0.2662;4.4443;
422.4000;0.2605;4.4393;
422.7000;0.2662;4.4519;
423.0000;0.2646;4.4594;
423.3000;0.2662;4.4695;
423.6000;0.2662;4.4669;
423.9000;0.2662;4.4594;
424.2000;0.2637;4.4519;
424.5000;0.2613;4.4418;
424.8000;0.2654;4.4468;
425.1000;0.2637;4.4443;
425.4000;0.2654;4.4443;
425.7000;0.2646;4.4443;
426.0000;0.2654;4.4342;
426.3000;0.2637;4.4317;
426.6000;0.2727;4.4544;
426.9000;0.2621;4.4292;
427.2000;0.2629;4.4267;
427.5000;0.2637;4.4217;
427.8000;0.2670;4.4242;
428.1000;0.2507;4.3865;
428.4000;0.2646;4.4242;
428.7000;0.2646;4.4242;
429.0000;0.2678;4.4368;
429.3000;0.2654;4.4393;
429.6000;0.2654;4.4393;
429.9000;0.2662;4.4342;
430.2000;0.2662;4.4418;
430.5000;0.2646;4.4342;
430.8000;0.2694;4.4519;
431.1000;0.2686;4.4544;
431.4000;0.2654;4.4368;
431.7000;0.2580;4.4292;
432.0000;0.2654;4.4493;
432.3000;0.2646;4.4493;
432.6000;0.2686;4.4594;
432.9000;0.2662;4.4519;
433.2000;0.2597;4.4468;
433.5000;0.2637;4.4619;
433.8000;0.2654;4.4644;
434.1000;0.2678;4.4619;
434.4000;0.2629;4.4443;
434.7000;0.2629;4.4443;
435.0000;0.2654;4.4519;
435.3000;0.2662;4.4544;
435.6000;0.2637;4.4644;
435.9000;0.2662;4.4720;
436.2000;0.2662;4.4644;
436.5000;0.2646;4.4544;
436.8000;0.2662;4.4594;
437.1000;0.2646;4.4519;
437.4000;0.2662;4.4544;
437.7000;0.2654;4.4342;
438.0000;0.2662;4.4418;
438.3000;0.2662;4.4418;
438.6000;0.2654;4.4342;
438.9000;0.2670;4.4443;
439.2000;0.2637;4.4317;
439.5000;0.2637;4.4368;
439.8000;0.2637;4.4393;
440.1000;0.2662;4.4418;
440.4000;0.2662;4.4418;
440.7000;0.2719;4.4468;
441.0000;0.2637;4.4292;
441.3000;0.2646;4.4292;
441.6000;0.2646;4.4267;
441.9000;0.2548;4.3965;
442.2000;0.2629;4.4141;
442.5000;0.2662;4.4342;
442.8000;0.2646;4.4418;
443.1000;0.2678;4.4594;
443.4000;0.2637;4.4418;
443.7000;0.2654;4.4468;
444.0000;0.2662;4.4418;
444.3000;0.2646;4.4317;
444.6000;0.2654;4.4267;
444.9000;0.2637;4.4292;
445.2000;0.2646;4.4393;
445.5000;0.2637;4.4317;
445.8000;0.2654;4.4393;
446.1000;0.2637;4.4418;
446.4000;0.2678;4.4594;
446.7000;0.2613;4.4418;
447.0000;0.2654;4.4493;
447.3000;0.2662;4.4493;
447.6000;0.2654;4.4393;
447.9000;0.2637;4.4292;
448.2000;0.2646;4.4242;
448.5000;0.2646;4.4141;
448.8000;0.2662;4.4242;
449.1000;0.2654;4.4192;
449.4000;0.2629;4.4066;
449.7000;0.2629;4.4116;
450.0000;0.2646;4.4141;
450.3000;0.2662;4.4267;
450.6000;0.2621;4.4141;
450.9000;0.2637;4.4192;
451.2000;0.2678;4.4317;
451.5000;0.2637;4.4217;
451.8000;0.2654;4.4192;
452.1000;0.2686;4.4267;
452.4000;0.2800;4.4594;
452.7000;0.2662;4.4116;
453.0000;0.2743;4.4342;
453.3000;0.2654;4.4116;
453.6000;0.2662;4.4066;
453.9000;0.2654;4.4091;
454.2000;0.2646;4.4166;
454.5000;0.2621;4.4091;
454.8000;0.2629;4.4041;
455.1000;0.2637;4.4091;
455.4000;0.2662;4.4166;
455.7000;0.2646;4.4066;
456.0000;0.2646;4.4091;
456.3000;0.2654;4.4091;
456.6000;0.2637;4.4166;
456.9000;0.2629;4.4141;
457.2000;0.2637;4.4192;
457.5000;0.2646;4.4242;
457.8000;0.2670;4.4267;
458.1000;0.2621;4.4066;
458.4000;0.2629;4.4066;
458.7000;0.2637;4.4242;
459.0000;0.2646;4.4292;
459.3000;0.2654;4.4317;
459.6000;0.2654;4.4368;
459.9000;0.2637;4.4292;
460.2000;0.2646;4.4242;
460.5000;0.2646;4.4342;
460.8000;0.2597;4.4342;
461.1000;0.2662;4.4493;
461.4000;0.2637;4.4519;
461.7000;0.2629;4.4569;
462.0000;0.2637;4.4619;
462.3000;0.2662;4.4544;
462.6000;0.2646;4.4443;
462.9000;0.2727;4.4644;
463.2000;0.2646;4.4418;
463.5000;0.2670;4.4418;
463.8000;0.2662;4.4368;
464.1000;0.2662;4.4468;
464.4000;0.2670;4.4594;
464.7000;0.2646;4.4619;
465.0000;0.2654;4.4720;
465.3000;0.2637;4.4669;
465.6000;0.2637;4.4695;
465.9000;0.2686;4.4820;
466.2000;0.2662;4.4770;
466.5000;0.2662;4.4619;
466.8000;0.2670;4.4720;
467.1000;0.2662;4.4594;
467.4000;0.2654;4.4519;
467.7000;0.2686;4.4644;
468.0000;0.2670;4.4519;
468.3000;0.2662;4.4594;
468.6000;0.2654;4.4594;
468.9000;0.2646;4.4544;
469.2000;0.2589;4.4368;
469.5000;0.2621;4.4368;
469.8000;0.2548;4.4116;
470.1000;0.2662;4.4342;
470.4000;0.2654;4.4368;
470.7000;0.2629;4.4242;
471.0000;0.2637;4.4242;
471.3000;0.2597;4.4091;
471.6000;0.2637;4.4141;
471.9000;0.2646;4.4192;
472.2000;0.2743;4.4519;
472.5000;0.2670;4.4418;
472.8000;0.2646;4.4368;
473.1000;0.2646;4.4443;
473.4000;0.2646;4.4493;
473.7000;0.2654;4.4443;
474.0000;0.2637;4.4418;
474.3000;0.2646;4.4468;
474.6000;0.2678;4.4594;
474.9000;0.2662;4.4468;
475.2000;0.2637;4.4368;
475.5000;0.2694;4.4468;
475.8000;0.2613;4.4342;
476.1000;0.2613;4.4368;
476.4000;0.2646;4.4468;
476.7000;0.2735;4.4644;
477.0000;0.2670;4.4468;
477.3000;0.2597;4.4317;
477.6000;0.2670;4.4443;
477.9000;0.2654;4.4418;
478.2000;0.2621;4.4292;
478.5000;0.2654;4.4292;
478.8000;0.2694;4.4418;
479.1000;0.2702;4.4519;
479.4000;0.2637;4.4368;
479.7000;0.2751;4.4619;
480.0000;0.2654;4.4393;
480.3000;0.2662;4.4468;
480.6000;0.2589;4.4342;
480.9000;0.2613;4.4493;
481.2000;0.2646;4.4544;
481.5000;0.2670;4.4594;
481.8000;0.2654;4.4569;
482.1000;0.2629;4.4519;
482.4000;0.2654;4.4544;
482.7000;0.2678;4.4644;
483.0000;0.2646;4.4569;
483.3000;0.2637;4.4418;
483.6000;0.2662;4.4393;
483.9000;0.2589;4.4317;
484.2000;0.2621;4.4443;
484.5000;0.2670;4.4619;
484.8000;0.2621;4.4519;
485.1000;0.2629;4.4468;
485.4000;0.2662;4.4519;
485.7000;0.2646;4.4544;
486.0000;0.2637;4.4418;
486.3000;0.2637;4.4443;
486.6000;0.2646;4.4493;
486.9000;0.2662;4.4468;
487.2000;0.2646;4.4468;
487.5000;0.2678;4.4519;
487.8000;0.2605;4.4393;
488.1000;0.2629;4.4443;
488.4000;0.2646;4.4468;
488.7000;0.2654;4.4519;
489.0000;0.2637;4.4493;
489.3000;0.2637;4.4594;
489.6000;0.2572;4.4418;
489.9000;0.2654;4.4594;
490.2000;0.2646;4.4569;
490.5000;0.2646;4.4519;
490.8000;0.2637;4.4468;
491.1000;0.2646;4.4393;
491.4000;0.2613;4.4317;
491.7000;0.2646;4.4317;
492.0000;0.2646;4.4317;
492.3000;0.2654;4.4393;
492.6000;0.2654;4.4368;
492.9000;0.2637;4.4393;
493.2000;0.2686;4.4569;
493.5000;0.2670;4.4493;
493.8000;0.2662;4.4468;
494.1000;0.2654;4.4544;
494.4000;0.2646;4.4493;
494.7000;0.2670;4.4669;
495.0000;0.2662;4.4669;
495.3000;0.2727;4.4795;
495.6000;0.2678;4.4619;
495.9000;0.2654;4.4493;
496.2000;0.2540;4.4192;
496.5000;0.2564;4.4342;
496.8000;0.2629;4.4493;
497.1000;0.2491;4.4192;
497.4000;0.2564;4.4368;
497.7000;0.2629;4.4519;
498.0000;0.2637;4.4544;
498.3000;0.2654;4.4619;
498.6000;0.2678;4.4695;
498.9000;0.2646;4.4569;
499.2000;0.2621;4.4519;
499.5000;0.2654;4.4569;
499.8000;0.2556;4.4267;
500.1000;0.2629;4.4493;
500.4000;0.2637;4.4493;
500.7000;0.2572;4.4267;
501.0000;0.2678;4.4443;
501.3000;0.2572;4.4066;
501.6000;0.2637;4.4317;
501.9000;0.2662;4.4418;
502.2000;0.2629;4.4368;
502.5000;0.2662;4.4519;
502.8000;0.2711;4.4594;
503.1000;0.2507;4.4041;
503.4000;0.2654;4.4493;
503.7000;0.2776;4.4871;
504.0000;0.2662;4.4594;
504.3000;0.2670;4.4619;
504.6000;0.2646;4.4493;
504.9000;0.2654;4.4544;
505.2000;0.2662;4.4544;
505.5000;0.2646;4.4594;
505.8000;0.2572;4.4393;
506.1000;0.2621;4.4569;
506.4000;0.2646;4.4594;
506.7000;0.2629;4.4569;
507.0000;0.2646;4.4544;
507.3000;0.2654;4.4569;
507.6000;0.2629;4.4594;
507.9000;0.2564;4.4418;
508.2000;0.2646;4.4594;
508.5000;0.2646;4.4619;
508.8000;0.2580;4.4368;
509.1000;0.2637;4.4519;
509.4000;0.2654;4.4493;
509.7000;0.2637;4.4468;
510.0000;0.2670;4.4644;
510.3000;0.2613;4.4619;
510.6000;0.2629;4.4669;
510.9000;0.2646;4.4669;
511.2000;0.2613;4.4544;
511.5000;0.2629;4.4493;
511.8000;0.2572;4.4141;
512.1000;0.2678;4.4317;
512.4000;0.2597;4.4066;
512.7000;0.2637;4.4192;
513.0000;0.2629;4.4192;
513.3000;0.2629;4.4242;
513.6000;0.2564;4.4141;
513.9000;0.2646;4.4342;
514.2000;0.2564;4.4041;
514.5000;0.2662;4.4317;
514.8000;0.2637;4.4267;
515.1000;0.2711;4.4443;
515.4000;0.2629;4.4242;
515.7000;0.2646;4.4368;
516.0000;0.2637;4.4317;
516.3000;0.2646;4.4317;
516.6000;0.2670;4.4393;
516.9000;0.2621;4.4368;
517.2000;0.2654;4.4519;
517.5000;0.2654;4.4544;
517.8000;0.2646;4.4443;
518.1000;0.2662;4.4493;
518.4000;0.2572;4.4267;
518.7000;0.2646;4.4519;
519.0000;0.2670;4.4468;
519.3000;0.2743;4.4695;
519.6000;0.2629;4.4393;
519.9000;0.2670;4.4569;
520.2000;0.2637;4.4418;
520.5000;0.2646;4.4292;
520.8000;0.2637;4.4267;
521.1000;0.2637;4.4192;
521.4000;0.2646;4.4192;
521.7000;0.2662;4.4317;
522.0000;0.2605;4.4217;
522.3000;0.2654;4.4368;
522.6000;0.2654;4.4267;
522.9000;0.2613;4.4217;
523.2000;0.2727;4.4569;
523.5000;0.2735;4.4619;
523.8000;0.2646;4.4393;
524.1000;0.2572;4.4192;
524.4000;0.2662;4.4443;
524.7000;0.2621;4.4317;
525.0000;0.2646;4.4468;
525.3000;0.2646;4.4368;
525.6000;0.2800;4.4845;
525.9000;0.2662;4.4393;
526.2000;0.2654;4.4368;
526.5000;0.2711;4.4519;
526.8000;0.2613;4.4292;
527.1000;0.2686;4.4519;
527.4000;0.2646;4.4443;
527.7000;0.2727;4.4695;
528.0000;0.2654;4.4443;
528.3000;0.2646;4.4493;
528.6000;0.2637;4.4493;
528.9000;0.2662;4.4493;
529.2000;0.2654;4.4443;
529.5000;0.2654;4.4368;
529.8000;0.2646;4.4342;
530.1000;0.2629;4.4242;
530.4000;0.2662;4.4368;
530.7000;0.2637;4.4292;
531.0000;0.2597;4.4141;
531.3000;0.2654;4.4292;
531.6000;0.2654;4.4368;
531.9000;0.2646;4.4368;
532.2000;0.2670;4.4393;
532.5000;0.2646;4.4368;
532.8000;0.2613;4.4192;
533.1000;0.2637;4.4242;
533.4000;0.2678;4.4418;
533.7000;0.2597;4.4217;
534.0000;0.2654;4.4443;
534.3000;0.2678;4.4544;
534.6000;0.2654;4.4544;
534.9000;0.2702;4.4644;
535.2000;0.2678;4.4619;
535.5000;0.2727;4.4845;
535.8000;0.2637;4.4644;
536.1000;0.2589;4.4468;
536.4000;0.2597;4.4418;
536.7000;0.2654;4.4519;
537.0000;0.2654;4.4443;
537.3000;0.2662;4.4443;
537.6000;0.2637;4.4342;
537.9000;0.2637;4.4317;
538.2000;0.2646;4.4317;
538.5000;0.2662;4.4292;
538.8000;0.2654;4.4292;
539.1000;0.2662;4.4342;
539.4000;0.2605;4.4242;
539.7000;0.2646;4.4317;
540.0000;0.2637;4.4317;
540.3000;0.2605;4.4267;
540.6000;0.2637;4.4292;
540.9000;0.2654;4.4393;
541.2000;0.2597;4.4217;
541.5000;0.2654;4.4368;
541.8000;0.2605;4.4267;
542.1000;0.2646;4.4393;
542.4000;0.2605;4.4267;
542.7000;0.2629;4.4368;
543.0000;0.2662;4.4393;
543.3000;0.2637;4.4317;
543.6000;0.2613;4.4317;
543.9000;0.2637;4.4292;
544.2000;0.2662;4.4292;
544.5000;0.2711;4.4418;
544.8000;0.2637;4.4242;
545.1000;0.2637;4.4192;
545.4000;0.2702;4.4368;
545.7000;0.2662;4.4166;
546.0000;0.2662;4.4217;
546.3000;0.2678;4.4292;
546.6000;0.2646;4.4242;
546.9000;0.2670;4.4342;
547.2000;0.2572;4.4091;
547.5000;0.2686;4.4342;
547.8000;0.2719;4.4443;
548.1000;0.2662;4.4317;
548.4000;0.2629;4.4368;
548.7000;0.2637;4.4342;
549.0000;0.2646;4.4418;
549.3000;0.2654;4.4418;
549.6000;0.2629;4.4317;
549.9000;0.2564;4.4141;
550.2000;0.2572;4.4066;
550.5000;0.2654;4.4317;
550.8000;0.2686;4.4493;
551.1000;0.2540;4.4066;
551.4000;0.2621;4.4317;
551.7000;0.2646;4.4342;
552.0000;0.2646;4.4342;
552.3000;0.2654;4.4443;
552.6000;0.2629;4.4393;
552.9000;0.2670;4.4493;
553.2000;0.2694;4.4569;
553.5000;0.2654;4.4368;
553.8000;0.2646;4.4267;
554.1000;0.2637;4.4242;
554.4000;0.2621;4.4217;
554.7000;0.2589;4.4141;
555.0000;0.2629;4.4292;
555.3000;0.2670;4.4342;
555.6000;0.2694;4.4493;
555.9000;0.2564;4.4217;
556.2000;0.2637;4.4493;
556.5000;0.2662;4.4418;
556.8000;0.2662;4.4418;
557.1000;0.2662;4.4368;
557.4000;0.2580;4.4166;
557.7000;0.2857;4.4871;
558.0000;0.2662;4.4368;
558.3000;0.2670;4.4393;
558.6000;0.2743;4.4569;
558.9000;0.2515;4.3990;
559.2000;0.2654;4.4418;
559.5000;0.2662;4.4443;
559.8000;0.2646;4.4393;
560.1000;0.2654;4.4317;
560.4000;0.2678;4.4418;
560.7000;0.2662;4.4342;
561.0000;0.2629;4.4342;
561.3000;0.2654;4.4443;
561.6000;0.2637;4.4468;
561.9000;0.2621;4.4368;
562.2000;0.2621;4.4267;
562.5000;0.2646;4.4242;
562.8000;0.2654;4.4192;
563.1000;0.2662;4.4217;
563.4000;0.2629;4.4192;
563.7000;0.2646;4.4242;
564.0000;0.2646;4.4242;
564.3000;0.2678;4.4267;
564.6000;0.2646;4.4091;
564.9000;0.2637;4.4041;
565.2000;0.2654;4.4091;
565.5000;0.2637;4.4091;
565.8000;0.2637;4.4066;
566.1000;0.2662;4.4166;
566.4000;0.2646;4.4166;
566.7000;0.2637;4.4242;
567.0000;0.2654;4.4242;
567.3000;0.2702;4.4519;
567.6000;0.2654;4.4393;
567.9000;0.2629;4.4292;
568.2000;0.2654;4.4393;
568.5000;0.2825;4.4871;
568.8000;0.2637;4.4242;
569.1000;0.2662;4.4242;
569.4000;0.2711;4.4493;
569.7000;0.2605;4.4192;
570.0000;0.2654;4.4292;
570.3000;0.2613;4.4267;
570.6000;0.2662;4.4418;
570.9000;0.2678;4.4493;
571.2000;0.2621;4.4292;
571.5000;0.2654;4.4217;
571.8000;0.2507;4.3814;
572.1000;0.2654;4.4242;
572.4000;0.2654;4.4192;
572.7000;0.2751;4.4519;
573.0000;0.2637;4.4166;
573.3000;0.2727;4.4393;
573.6000;0.2751;4.4544;
573.9000;0.2662;4.4317;
574.2000;0.2597;4.4141;
574.5000;0.2646;4.4317;
574.8000;0.2654;4.4242;
575.1000;0.2637;4.4242;
575.4000;0.2613;4.4292;
575.7000;0.2662;4.4267;
576.0000;0.2694;4.4342;
576.3000;0.2637;4.4192;
576.6000;0.2637;4.4317;
576.9000;0.2637;4.4317;
577.2000;0.2637;4.4317;
577.5000;0.2654;4.4418;
577.8000;0.2523;4.4066;
578.1000;0.2702;4.4544;
578.4000;0.2735;4.4569;
578.7000;0.2637;4.4418;
579.0000;0.2629;4.4468;
579.3000;0.2629;4.4443;
579.6000;0.2637;4.4342;
579.9000;0.2621;4.4267;
580.2000;0.2629;4.4368;
580.5000;0.2654;4.4418;
580.8000;0.2637;4.4418;
581.1000;0.2686;4.4594;
581.4000;0.2515;4.4041;
581.7000;0.2662;4.4393;
582.0000;0.2629;4.4393;
582.3000;0.2613;4.4368;
582.6000;0.2629;4.4368;
582.9000;0.2637;4.4418;
583.2000;0.2589;4.4242;
583.5000;0.2670;4.4468;
583.8000;0.2654;4.4443;
584.1000;0.2621;4.4393;
584.4000;0.2637;4.4393;
584.7000;0.2646;4.4393;
585.0000;0.2637;4.4317;
585.3000;0.2646;4.4368;
585.6000;0.2646;4.4342;
585.9000;0.2646;4.4368;
586.2000;0.2654;4.4368;
586.5000;0.2637;4.4342;
586.8000;0.2654;4.4393;
587.1000;0.2654;4.4342;
587.4000;0.2670;4.4368;
587.7000;0.2637;4.4317;
588.0000;0.2662;4.4418;
588.3000;0.2646;4.4418;
588.6000;0.2662;4.4418;
588.9000;0.2719;4.4669;
589.2000;0.2646;4.4468;
589.5000;0.2670;4.4493;
589.8000;0.2694;4.4544;
590.1000;0.2646;4.4342;
590.4000;0.2646;4.4267;
590.7000;0.2637;4.4242;
591.0000;0.2759;4.4619;
591.3000;0.2646;4.4242;
591.6000;0.2654;4.4292;
591.9000;0.2637;4.4267;
592.2000;0.2621;4.4217;
592.5000;0.2629;4.4217;
592.8000;0.2702;4.4317;
593.1000;0.2637;4.4192;
593.4000;0.2621;4.4192;
593.7000;0.2613;4.4192;
594.0000;0.2507;4.4015;
594.3000;0.2613;4.4267;
594.6000;0.2654;4.4368;
594.9000;0.2646;4.4242;
595.2000;0.2662;4.4192;
595.5000;0.2621;4.4166;
595.8000;0.2597;4.4166;
596.1000;0.2629;4.4292;
596.4000;0.2646;4.4267;
596.7000;0.2621;4.4217;
597.0000;0.2662;4.4418;
597.3000;0.2646;4.4292;
597.6000;0.2613;4.4267;
597.9000;0.2654;4.4217;
598.2000;0.2662;4.4393;
598.5000;0.2654;4.4368;
598.8000;0.2499;4.4015;
599.1000;0.2637;4.4342;
599.4000;0.2637;4.4317;
599.7000;0.2678;4.4342;
600.0000;0.2686;4.4292;
600.3000;0.2646;4.4141;
600.6000;0.2629;4.3890;
600.9000;0.2605;4.3563;
601.2000;0.2605;4.3387;
601.5000;0.2572;4.3110;
601.8000;0.2572;4.2884;
602.1000;0.2556;4.2708;
602.4000;0.2572;4.2607;
602.7000;0.2548;4.2330;
603.0000;0.2499;4.1928;
603.3000;0.2515;4.1802;
603.6000;0.2572;4.1802;
603.9000;0.2637;4.1903;
604.2000;0.2637;4.1777;
604.5000;0.2499;4.1375;
604.8000;0.2499;4.1274;
605.1000;0.2532;4.1249;
605.4000;0.2515;4.1098;
605.7000;0.2629;4.1349;
606.0000;0.2491;4.0796;
606.3000;0.2499;4.0695;
606.6000;0.2507;4.0670;
606.9000;0.2426;4.0343;
607.2000;0.2466;4.0419;
607.5000;0.2483;4.0494;
607.8000;0.2499;4.0494;
608.1000;0.2475;4.0368;
608.4000;0.2475;4.0343;
608.7000;0.2466;4.0394;
609.0000;0.2466;4.0343;
609.3000;0.2450;4.0192;
609.6000;0.2491;4.0142;
609.9000;0.2466;4.0092;
610.2000;0.2483;4.0117;
610.5000;0.2458;4.0117;
610.8000;0.2434;4.0042;
611.1000;0.2475;4.0042;
611.4000;0.2483;4.0067;
611.7000;0.2450;3.9991;
612.0000;0.2458;4.0016;
612.3000;0.2475;4.0067;
612.6000;0.2450;4.0016;
612.9000;0.2466;4.0042;
613.2000;0.2548;4.0142;
613.5000;0.2442;3.9815;
613.8000;0.2540;4.0067;
614.1000;0.2450;3.9815;
614.4000;0.2483;3.9840;
614.7000;0.2418;3.9689;
615.0000;0.2409;3.9664;
615.3000;0.2475;3.9790;
615.6000;0.2466;3.9765;
615.9000;0.2466;3.9891;
616.2000;0.2442;3.9865;
616.5000;0.2475;4.0016;
616.8000;0.2466;4.0016;
617.1000;0.2466;3.9991;
617.4000;0.2442;3.9916;
617.7000;0.2483;4.0016;
618.0000;0.2466;3.9966;
618.3000;0.2466;3.9865;
618.6000;0.2466;3.9865;
618.9000;0.2475;3.9991;
619.2000;0.2369;3.9815;
619.5000;0.2491;4.0142;
619.8000;0.2523;4.0218;
620.1000;0.2483;4.0067;
620.4000;0.2450;3.9991;
620.7000;0.2450;4.0067;
621.0000;0.2434;4.0016;
621.3000;0.2385;3.9840;
621.6000;0.2401;3.9916;
621.9000;0.2442;3.9991;
622.2000;0.2458;3.9991;
622.5000;0.2458;3.9916;
622.8000;0.2466;3.9916;
623.1000;0.2491;3.9941;
623.4000;0.2450;3.9916;
623.7000;0.2450;3.9966;
624.0000;0.2475;4.0016;
624.3000;0.2466;3.9916;
624.6000;0.2409;3.9790;
624.9000;0.2458;3.9916;
625.2000;0.2450;3.9916;
625.5000;0.2458;3.9941;
625.8000;0.2418;3.9815;
626.1000;0.2442;3.9916;
626.4000;0.2458;3.9891;
626.7000;0.2458;3.9840;
627.0000;0.2466;3.9815;
627.3000;0.2450;3.9790;
627.6000;0.2532;4.0016;
627.9000;0.2458;3.9815;
628.2000;0.2442;3.9765;
628.5000;0.2369;3.9639;
628.8000;0.2450;3.9941;
629.1000;0.2442;3.9916;
629.4000;0.2491;3.9966;
629.7000;0.2458;3.9815;
630.0000;0.2393;3.9564;
630.3000;0.2426;3.9664;
630.6000;0.2450;3.9815;
630.9000;0.2450;3.9916;
631.2000;0.2483;4.0016;
631.5000;0.2369;3.9715;
631.8000;0.2426;3.9840;
632.1000;0.2434;3.9765;
632.4000;0.2499;3.9891;
632.7000;0.2475;3.9840;
633.0000;0.2450;3.9765;
633.3000;0.2475;3.9865;
633.6000;0.2450;3.9815;
633.9000;0.2442;3.9765;
634.2000;0.2458;3.9815;
634.5000;0.2532;4.0042;
634.8000;0.2434;3.9790;
635.1000;0.2466;3.9865;
635.4000;0.2426;3.9765;
635.7000;0.2515;3.9966;
636.0000;0.2426;3.9765;
636.3000;0.2450;3.9815;
636.6000;0.2450;3.9891;
636.9000;0.2450;3.9865;
637.2000;0.2475;3.9941;
637.5000;0.2442;3.9865;
637.8000;0.2426;3.9740;
638.1000;0.2442;3.9865;
638.4000;0.2450;3.9916;
638.7000;0.2458;3.9815;
639.0000;0.2466;3.9840;
639.3000;0.2426;3.9715;
639.6000;0.2483;3.9865;
639.9000;0.2507;3.9916;
640.2000;0.2434;3.9740;
640.5000;0.2442;3.9664;
640.8000;0.2466;3.9689;
641.1000;0.2442;3.9639;
641.4000;0.2466;3.9790;
641.7000;0.2466;3.9865;
642.0000;0.2442;3.9916;
642.3000;0.2466;3.9916;
642.6000;0.2450;3.9865;
642.9000;0.2418;3.9715;
643.2000;0.2450;3.9765;
643.5000;0.2475;3.9865;
643.8000;0.2458;3.9840;
644.1000;0.2515;4.0042;
644.4000;0.2466;3.9941;
644.7000;0.2458;3.9916;
645.0000;0.2450;3.9865;
645.3000;0.2442;3.9891;
645.6000;0.2401;3.9941;
645.9000;0.2450;3.9966;
646.2000;0.2426;3.9815;
646.5000;0.2434;3.9891;
646.8000;0.2450;3.9916;
647.1000;0.2458;4.0016;
647.4000;0.2434;3.9916;
647.7000;0.2434;3.9916;
648.0000;0.2458;3.9891;
648.3000;0.2458;3.9865;
648.6000;0.2475;3.9966;
648.9000;0.2442;4.0117;
649.2000;0.2475;4.0167;
649.5000;0.2483;4.0092;
649.8000;0.2458;4.0042;
650.1000;0.2458;4.0016;
650.4000;0.2393;3.9840;
650.7000;0.2458;4.0016;
651.0000;0.2483;4.0067;
651.3000;0.2466;4.0042;
651.6000;0.2434;3.9941;
651.9000;0.2458;4.0016;
652.2000;0.2434;3.9891;
652.5000;0.2442;3.9966;
652.8000;0.2458;4.0016;
653.1000;0.2442;3.9916;
653.4000;0.2426;3.9840;
653.7000;0.2442;3.9840;
654.0000;0.2450;3.9865;
654.3000;0.2409;3.9840;
654.6000;0.2466;4.0067;
654.9000;0.2434;3.9966;
655.2000;0.2458;3.9991;
655.5000;0.2523;4.0142;
655.8000;0.2450;3.9891;
656.1000;0.2499;4.0067;
656.4000;0.2458;3.9891;
656.7000;0.2475;3.9865;
657.0000;0.2434;3.9715;
657.3000;0.2434;3.9740;
657.6000;0.2458;3.9865;
657.9000;0.2450;3.9916;
658.2000;0.2491;4.0067;
658.5000;0.2499;4.0167;
658.8000;0.2466;4.0016;
659.1000;0.2426;3.9840;
659.4000;0.2629;4.0368;
659.7000;0.2483;3.9991;
660.0000;0.2426;3.9891;
660.3000;0.2523;4.0192;
660.6000;0.2434;3.9966;
660.9000;0.2458;4.0067;
661.2000;0.2450;4.0042;
661.5000;0.2426;3.9941;
661.8000;0.2442;4.0042;
662.1000;0.2466;4.0192;
662.4000;0.2409;3.9916;
662.7000;0.2597;4.0394;
663.0000;0.2450;4.0042;
663.3000;0.2442;3.9941;
663.6000;0.2475;4.0042;
663.9000;0.2475;4.0016;
664.2000;0.2434;3.9891;
664.5000;0.2458;3.9916;
664.8000;0.2409;3.9765;
665.1000;0.2434;3.9865;
665.4000;0.2418;3.9815;
665.7000;0.2450;3.9916;
666.0000;0.2466;3.9891;
666.3000;0.2483;3.9966;
666.6000;0.2336;3.9589;
666.9000;0.2442;3.9991;
667.2000;0.2450;4.0092;
667.5000;0.2466;4.0092;
667.8000;0.2458;4.0092;
668.1000;0.2466;4.0142;
668.4000;0.2450;4.0042;
668.7000;0.2475;4.0142;
669.0000;0.2450;4.0067;
669.3000;0.2458;4.0092;
669.6000;0.2442;3.9966;
669.9000;0.2466;4.0016;
670.2000;0.2466;3.9966;
670.5000;0.2523;4.0092;
670.8000;0.2458;3.9815;
671.1000;0.2475;3.9740;
671.4000;0.2426;3.9664;
671.7000;0.2442;3.9715;
672.0000;0.2426;3.9689;
672.3000;0.2483;3.9840;
672.6000;0.2401;3.9513;
672.9000;0.2466;3.9689;
673.2000;0.2312;3.9262;
673.5000;0.2426;3.9589;
673.8000;0.2426;3.9689;
674.1000;0.2475;3.9891;
674.4000;0.2491;4.0092;
674.7000;0.2458;4.0067;
675.0000;0.2458;4.0092;
675.3000;0.2450;4.0067;
675.6000;0.2442;4.0067;
675.9000;0.2458;4.0142;
676.2000;0.2434;4.0016;
676.5000;0.2458;4.0067;
676.8000;0.2442;3.9966;
677.1000;0.2458;4.0067;
677.4000;0.2475;4.0167;
677.7000;0.2458;4.0192;
678.0000;0.2458;4.0243;
678.3000;0.2458;4.0268;
678.6000;0.2483;4.0192;
678.9000;0.2475;4.0142;
679.2000;0.2450;3.9991;
679.5000;0.2466;3.9991;
679.8000;0.2450;3.9991;
680.1000;0.2409;3.9840;
680.4000;0.2450;3.9991;
680.7000;0.2442;3.9966;
681.0000;0.2377;3.9815;
681.3000;0.2442;3.9916;
681.6000;0.2507;4.0067;
681.9000;0.2418;3.9865;
682.2000;0.2458;3.9966;
682.5000;0.2483;3.9916;
682.8000;0.2475;3.9991;
683.1000;0.2458;3.9941;
683.4000;0.2507;4.0016;
683.7000;0.2442;3.9840;
684.0000;0.2393;3.9639;
684.3000;0.2458;3.9815;
684.6000;0.2458;3.9740;
684.9000;0.2385;3.9538;
685.2000;0.2426;3.9614;
685.5000;0.2458;3.9639;
685.8000;0.2466;3.9664;
686.1000;0.2442;3.9689;
686.4000;0.2466;3.9765;
686.7000;0.2442;3.9790;
687.0000;0.2466;3.9790;
687.3000;0.2458;3.9765;
687.6000;0.2605;4.0293;
687.9000;0.2450;3.9891;
688.2000;0.2523;4.0092;
688.5000;0.2434;3.9916;
688.8000;0.2499;4.0067;
689.1000;0.2466;4.0016;
689.4000;0.2450;3.9941;
689.7000;0.2523;4.0042;
690.0000;0.2442;3.9865;
690.3000;0.2475;3.9840;
690.6000;0.2450;3.9790;
690.9000;0.2450;3.9790;
691.2000;0.2450;3.9865;
691.5000;0.2458;3.9865;
691.8000;0.2458;3.9840;
692.1000;0.2442;3.9815;
692.4000;0.2442;3.9790;
692.7000;0.2466;3.9815;
693.0000;0.2450;3.9689;
693.3000;0.2466;3.9765;
693.6000;0.2483;3.9891;
693.9000;0.2483;3.9916;
694.2000;0.2515;3.9941;
694.5000;0.2450;3.9715;
694.8000;0.2377;3.9488;
695.1000;0.2442;3.9715;
695.4000;0.2491;3.9891;
695.7000;0.2434;3.9664;
696.0000;0.2426;3.9715;
696.3000;0.2442;3.9664;
696.6000;0.2475;3.9740;
696.9000;0.2458;3.9740;
697.2000;0.2466;3.9715;
697.5000;0.2458;3.9740;
697.8000;0.2475;3.9664;
698.1000;0.2450;3.9664;
698.4000;0.2458;3.9790;
698.7000;0.2377;3.9614;
699.0000;0.2442;3.9815;
699.3000;0.2483;3.9840;
699.6000;0.2475;3.9840;
699.9000;0.2458;3.9840;
700.2000;0.2466;3.9891;
700.5000;0.2466;3.9891;
700.8000;0.2491;3.9966;
701.1000;0.2458;3.9865;
701.4000;0.2442;3.9891;
701.7000;0.2483;3.9966;
702.0000;0.2466;3.9840;
702.3000;0.2434;3.9715;
702.6000;0.2466;3.9891;
702.9000;0.2458;4.0016;
703.2000;0.2442;4.0016;
703.5000;0.2450;4.0067;
703.8000;0.2450;4.0117;
704.1000;0.2475;4.0067;
704.4000;0.2442;4.0016;
704.7000;0.2507;4.0167;
705.0000;0.2466;3.9991;
705.3000;0.2450;3.9916;
705.6000;0.2458;3.9941;
705.9000;0.2434;3.9916;
706.2000;0.2515;4.0117;
706.5000;0.2442;3.9916;
706.8000;0.2458;3.9941;
707.1000;0.2450;3.9916;
707.4000;0.2450;3.9865;
707.7000;0.2450;3.9740;
708.0000;0.2466;3.9865;
708.3000;0.2458;3.9891;
708.6000;0.2483;4.0042;
708.9000;0.2450;4.0016;
709.2000;0.2434;3.9916;
709.5000;0.2450;3.9790;
709.8000;0.2434;3.9689;
710.1000;0.2401;3.9589;
710.4000;0.2426;3.9664;
710.7000;0.2597;4.0117;
711.0000;0.2475;3.9740;
711.3000;0.2507;3.9715;
711.6000;0.2523;3.9589;
711.9000;0.2458;3.9413;
712.2000;0.2336;3.9086;
712.5000;0.2466;3.9463;
712.8000;0.2409;3.9388;
713.1000;0.2434;3.9614;
713.4000;0.2466;3.9790;
713.7000;0.2491;3.9865;
714.0000;0.2458;3.9765;
714.3000;0.2458;3.9740;
714.6000;0.2418;3.9614;
714.9000;0.2426;3.9689;
715.2000;0.2434;3.9740;
715.5000;0.2466;3.9891;
715.8000;0.2442;3.9916;
716.1000;0.2458;4.0016;
716.4000;0.2442;3.9941;
716.7000;0.2458;3.9941;
717.0000;0.2434;3.9815;
717.3000;0.2458;3.9790;
717.6000;0.2426;3.9715;
717.9000;0.2589;4.0142;
718.2000;0.2450;3.9740;
718.5000;0.2352;3.9413;
718.8000;0.2540;3.9991;
719.1000;0.2475;3.9765;
719.4000;0.2540;3.9966;
719.7000;0.2418;3.9664;
720.0000;0.2548;4.0067;
720.3000;0.2442;3.9815;
720.6000;0.2458;3.9840;
720.9000;0.2589;4.0318;
721.2000;0.2458;3.9891;
721.5000;0.2475;3.9865;
721.8000;0.2401;3.9740;
722.1000;0.2483;3.9966;
722.4000;0.2475;3.9815;
722.7000;0.2442;3.9840;
723.0000;0.2426;3.9840;
723.3000;0.2450;3.9966;
723.6000;0.2483;4.0142;
723.9000;0.2507;4.0117;
724.2000;0.2458;4.0016;
724.5000;0.2458;3.9941;
724.8000;0.2483;3.9916;
725.1000;0.2458;3.9840;
725.4000;0.2466;3.9840;
725.7000;0.2475;3.9840;
726.0000;0.2466;3.9790;
726.3000;0.2442;3.9740;
726.6000;0.2450;3.9765;
726.9000;0.2450;3.9689;
727.2000;0.2377;3.9538;
727.5000;0.2466;3.9790;
727.8000;0.2483;3.9815;
728.1000;0.2499;3.9865;
728.4000;0.2466;3.9840;
728.7000;0.2499;3.9916;
729.0000;0.2393;3.9614;
729.3000;0.2475;3.9765;
729.6000;0.2475;3.9689;
729.9000;0.2450;3.9589;
730.2000;0.2507;3.9740;
730.5000;0.2466;3.9740;
730.8000;0.2483;3.9790;
731.1000;0.2475;3.9840;
731.4000;0.2466;3.9815;
731.7000;0.2548;4.0067;
732.0000;0.2466;3.9840;
732.3000;0.2483;3.9991;
732.6000;0.2450;3.9916;
732.9000;0.2507;4.0067;
733.2000;0.2499;4.0042;
733.5000;0.2475;3.9966;
733.8000;0.2458;3.9865;
734.1000;0.2475;3.9815;
734.4000;0.2491;3.9765;
734.7000;0.2458;3.9715;
735.0000;0.2426;3.9715;
735.3000;0.2458;3.9790;
735.6000;0.2442;3.9765;
735.9000;0.2475;3.9765;
736.2000;0.2426;3.9664;
736.5000;0.2442;3.9689;
736.8000;0.2458;3.9790;
737.1000;0.2426;3.9689;
737.4000;0.2450;3.9740;
737.7000;0.2458;3.9815;
738.0000;0.2442;3.9815;
738.3000;0.2475;3.9916;
738.6000;0.2458;3.9840;
738.9000;0.2450;3.9765;
739.2000;0.2475;3.9865;
739.5000;0.2483;3.9941;
739.8000;0.2475;3.9966;
740.1000;0.2450;3.9840;
740.4000;0.2434;3.9740;
740.7000;0.2458;3.9790;
741.0000;0.2475;3.9840;
741.3000;0.2483;3.9891;
741.6000;0.2450;3.9865;
741.9000;0.2483;3.9865;
742.2000;0.2442;3.9715;
742.5000;0.2426;3.9564;
742.8000;0.2434;3.9589;
743.1000;0.2434;3.9639;
743.4000;0.2491;3.9790;
743.7000;0.2450;3.9689;
744.0000;0.2499;3.9916;
744.3000;0.2442;3.9815;
744.6000;0.2450;3.9840;
744.9000;0.2548;4.0218;
745.2000;0.2458;3.9966;
745.5000;0.2515;4.0142;
745.8000;0.2491;3.9966;
746.1000;0.2450;3.9840;
746.4000;0.2466;3.9966;
746.7000;0.2426;3.9966;
747.0000;0.2401;3.9916;
747.3000;0.2434;4.0117;
747.6000;0.2450;4.0142;
747.9000;0.2434;4.0067;
748.2000;0.2450;4.0142;
748.5000;0.2466;4.0117;
748.8000;0.2418;4.0016;
749.1000;0.2434;4.0067;
749.4000;0.2483;4.0142;
749.7000;0.2629;4.0519;
750.0000;0.2442;3.9916;
750.3000;0.2458;3.9891;
750.6000;0.2434;3.9740;
750.9000;0.2556;4.0016;
751.2000;0.2385;3.9614;
751.5000;0.2475;3.9815;
751.8000;0.2475;3.9715;
752.1000;0.2442;3.9740;
752.4000;0.2450;3.9790;
752.7000;0.2483;3.9840;
753.0000;0.2564;4.0016;
753.3000;0.2434;3.9664;
753.6000;0.2483;3.9815;
753.9000;0.2466;3.9815;
754.2000;0.2458;3.9815;
754.5000;0.2475;3.9840;
754.8000;0.2466;3.9840;
755.1000;0.2491;4.0117;
755.4000;0.2466;4.0117;
755.7000;0.2271;3.9589;
756.0000;0.2442;3.9991;
756.3000;0.2499;4.0142;
756.6000;0.2475;4.0042;
756.9000;0.2450;4.0042;
757.2000;0.2442;3.9941;
757.5000;0.2572;4.0268;
757.8000;0.2434;3.9840;
758.1000;0.2458;3.9891;
758.4000;0.2434;3.9790;
758.7000;0.2475;3.9865;
759.0000;0.2458;3.9840;
759.3000;0.2483;3.9865;
759.6000;0.2409;3.9664;
759.9000;0.2475;3.9765;
760.2000;0.2466;3.9815;
760.5000;0.2483;3.9840;
760.8000;0.2426;3.9664;
761.1000;0.2589;4.0042;
761.4000;0.2442;3.9740;
761.7000;0.2580;4.0142;
762.0000;0.2450;3.9865;
762.3000;0.2450;3.9840;
762.6000;0.2450;3.9891;
762.9000;0.2450;3.9865;
763.2000;0.2442;3.9865;
763.5000;0.2499;4.0067;
763.8000;0.2466;4.0016;
764.1000;0.2434;3.9991;
764.4000;0.2434;3.9891;
764.7000;0.2442;3.9891;
765.0000;0.2499;3.9941;
765.3000;0.2450;3.9916;
765.6000;0.2491;4.0016;
765.9000;0.2458;3.9815;
766.2000;0.2466;3.9916;
766.5000;0.2466;3.9991;
766.8000;0.2483;4.0016;
767.1000;0.2475;3.9966;
767.4000;0.2564;4.0243;
767.7000;0.2466;4.0016;
768.0000;0.2491;4.0167;
768.3000;0.2475;4.0092;
768.6000;0.2564;4.0343;
768.9000;0.2442;3.9966;
769.2000;0.2458;3.9991;
769.5000;0.2458;3.9966;
769.8000;0.2491;4.0067;
770.1000;0.2442;3.9941;
770.4000;0.2466;3.9966;
770.7000;0.2434;3.9865;
771.0000;0.2385;3.9664;
771.3000;0.2442;3.9865;
771.6000;0.2442;3.9865;
771.9000;0.2483;3.9966;
772.2000;0.2434;3.9865;
772.5000;0.2450;3.9815;
772.8000;0.2458;3.9865;
773.1000;0.2458;3.9966;
773.4000;0.2458;3.9840;
773.7000;0.2450;3.9941;
774.0000;0.2466;3.9941;
774.3000;0.2466;4.0016;
774.6000;0.2434;3.9865;
774.9000;0.2450;3.9941;
775.2000;0.2369;3.9765;
775.5000;0.2458;3.9916;
775.8000;0.2458;3.9815;
776.1000;0.2361;3.9438;
776.4000;0.2450;3.9815;
776.7000;0.2450;3.9815;
777.0000;0.2442;3.9790;
777.3000;0.2532;4.0067;
777.6000;0.2450;3.9765;
777.9000;0.2483;3.9865;
778.2000;0.2466;3.9865;
778.5000;0.2458;3.9715;
778.8000;0.2458;3.9639;
779.1000;0.2466;3.9740;
779.4000;0.2475;3.9715;
779.7000;0.2442;3.9664;
780.0000;0.2491;3.9815;
780.3000;0.2393;3.9513;
780.6000;0.2450;3.9865;
780.9000;0.2458;3.9916;
781.2000;0.2450;3.9840;
781.5000;0.2458;3.9815;
781.8000;0.2450;3.9689;
782.1000;0.2442;3.9689;
782.4000;0.2442;3.9689;
782.7000;0.2442;3.9715;
783.0000;0.2361;3.9488;
783.3000;0.2458;3.9815;
783.6000;0.2466;3.9815;
783.9000;0.2458;3.9865;
784.2000;0.2483;3.9941;
784.5000;0.2466;3.9891;
784.8000;0.2426;3.9790;
785.1000;0.2426;3.9840;
785.4000;0.2475;3.9966;
785.7000;0.2491;4.0067;
786.0000;0.2475;4.0067;
786.3000;0.2458;3.9941;
786.6000;0.2475;3.9991;
786.9000;0.2475;4.0016;
787.2000;0.2434;3.9865;
787.5000;0.2475;3.9991;
787.8000;0.2458;3.9941;
788.1000;0.2458;3.9966;
788.4000;0.2385;3.9790;
788.7000;0.2442;3.9991;
789.0000;0.2466;4.0042;
789.3000;0.2564;4.0394;
789.6000;0.2458;4.0092;
789.9000;0.2491;4.0142;
790.2000;0.2475;4.0092;
790.5000;0.2393;3.9840;
790.8000;0.2466;3.9966;
791.1000;0.2442;3.9966;
791.4000;0.2466;3.9991;
791.7000;0.2475;4.0092;
792.0000;0.2458;4.0067;
792.3000;0.2385;3.9815;
792.6000;0.2491;4.0142;
792.9000;0.2466;3.9966;
793.2000;0.2491;4.0042;
793.5000;0.2499;4.0042;
793.8000;0.2458;4.0016;
794.1000;0.2434;4.0016;
794.4000;0.2483;4.0117;
794.7000;0.2475;4.0042;
795.0000;0.2475;3.9941;
795.3000;0.2450;3.9840;
795.6000;0.2466;3.9966;
795.9000;0.2466;3.9941;
796.2000;0.2442;3.9916;
796.5000;0.2458;3.9891;
796.8000;0.2458;3.9966;
797.1000;0.2475;4.0016;
797.4000;0.2466;3.9991;
797.7000;0.2475;4.0016;
798.0000;0.2466;3.9966;
798.3000;0.2483;4.0092;
798.6000;0.2483;4.0167;
798.9000;0.2483;4.0042;
799.2000;0.2466;4.0092;
799.5000;0.2442;3.9991;
799.8000;0.2491;3.9991;
800.1000;0.2540;4.0218;
800.4000;0.2466;3.9916;
800.7000;0.2450;3.9765;
801.0000;0.2475;3.9865;
801.3000;0.2475;3.9815;
801.6000;0.2450;3.9765;
801.9000;0.2458;3.9840;
802.2000;0.2442;3.9891;
802.5000;0.2369;3.9715;
802.8000;0.2450;3.9840;
803.1000;0.2475;3.9765;
803.4000;0.2483;3.9815;
803.7000;0.2344;3.9488;
804.0000;0.2450;3.9815;
804.3000;0.2450;3.9941;
804.6000;0.2515;4.0192;
804.9000;0.2458;4.0042;
805.2000;0.2475;4.0016;
805.5000;0.2369;3.9639;
805.8000;0.2458;3.9916;
806.1000;0.2466;3.9916;
806.4000;0.2450;3.9840;
806.7000;0.2450;3.9815;
807.0000;0.2483;3.9941;
807.3000;0.2475;4.0016;
807.6000;0.2483;3.9916;
807.9000;0.2466;3.9966;
808.2000;0.2475;4.0042;
808.5000;0.2475;4.0142;
808.8000;0.2450;4.0067;
809.1000;0.2475;4.0092;
809.4000;0.2450;3.9991;
809.7000;0.2458;3.9941;
810.0000;0.2523;4.0167;
810.3000;0.2483;4.0042;
810.6000;0.2458;3.9991;
810.9000;0.2393;3.9790;
811.2000;0.2458;3.9966;
811.5000;0.2475;4.0167;
811.8000;0.2466;4.0192;
812.1000;0.2458;4.0218;
812.4000;0.2475;4.0142;
812.7000;0.2475;4.0067;
813.0000;0.2466;4.0092;
813.3000;0.2466;4.0092;
813.6000;0.2523;4.0243;
813.9000;0.2483;4.0092;
814.2000;0.2466;4.0142;
814.5000;0.2475;4.0092;
814.8000;0.2499;4.0092;
815.1000;0.2450;3.9966;
815.4000;0.2458;3.9865;
815.7000;0.2475;3.9966;
816.0000;0.2475;3.9966;
816.3000;0.2491;3.9865;
816.6000;0.2409;3.9740;
816.9000;0.2418;3.9689;
817.2000;0.2466;3.9790;
817.5000;0.2434;3.9689;
817.8000;0.2475;3.9840;
818.1000;0.2458;3.9765;
818.4000;0.2483;3.9740;
818.7000;0.2466;3.9689;
819.0000;0.2385;3.9413;
819.3000;0.2483;3.9689;
819.6000;0.2466;3.9689;
819.9000;0.2466;3.9689;
820.2000;0.2426;3.9664;
820.5000;0.2458;3.9916;
820.8000;0.2458;3.9891;
821.1000;0.2475;3.9865;
821.4000;0.2442;3.9715;
821.7000;0.2483;3.9840;
822.0000;0.2466;3.9740;
822.3000;0.2483;3.9865;
822.6000;0.2458;3.9840;
822.9000;0.2466;3.9840;
823.2000;0.2450;3.9765;
823.5000;0.2564;4.0092;
823.8000;0.2499;3.9815;
824.1000;0.2466;3.9664;
824.4000;0.2426;3.9513;
824.7000;0.2499;3.9664;
825.0000;0.2523;3.9840;
825.3000;0.2442;3.9639;
825.6000;0.2450;3.9639;
825.9000;0.2507;3.9865;
826.2000;0.2499;3.9916;
826.5000;0.2320;3.9463;
826.8000;0.2418;3.9765;
827.1000;0.2442;3.9840;
827.4000;0.2434;3.9740;
827.7000;0.2434;3.9715;
828.0000;0.2450;3.9840;
828.3000;0.2556;4.0067;
828.6000;0.2483;3.9840;
828.9000;0.2393;3.9614;
829.2000;0.2507;3.9891;
829.5000;0.2499;3.9966;
829.8000;0.2491;3.9966;
830.1000;0.2475;3.9891;
830.4000;0.2466;3.9765;
830.7000;0.2466;3.9765;
831.0000;0.2466;3.9815;
831.3000;0.2450;3.9664;
831.6000;0.2458;3.9689;
831.9000;0.2450;3.9664;
832.2000;0.2466;3.9840;
832.5000;0.2475;3.9916;
832.8000;0.2466;3.9891;
833.1000;0.2442;3.9840;
833.4000;0.2458;3.9815;
833.7000;0.2466;3.9765;
834.0000;0.2466;3.9715;
834.3000;0.2466;3.9715;
834.6000;0.2466;3.9664;
834.9000;0.2475;3.9765;
835.2000;0.2483;3.9765;
835.5000;0.2491;3.9765;
835.8000;0.2499;3.9815;
836.1000;0.2466;3.9689;
836.4000;0.2475;3.9740;
836.7000;0.2426;3.9564;
837.0000;0.2458;3.9639;
837.3000;0.2507;3.9740;
837.6000;0.2458;3.9689;
837.9000;0.2450;3.9740;
838.2000;0.2475;3.9765;
838.5000;0.2458;3.9715;
838.8000;0.2475;3.9815;
839.1000;0.2491;3.9891;
839.4000;0.2475;3.9790;
839.7000;0.2483;3.9815;
840.0000;0.2475;3.9715;
840.3000;0.2450;3.9639;
840.6000;0.2475;3.9689;
840.9000;0.2434;3.9538;
841.2000;0.2401;3.9488;
841.5000;0.2450;3.9538;
841.8000;0.2499;3.9639;
842.1000;0.2442;3.9564;
842.4000;0.2466;3.9614;
842.7000;0.2491;3.9589;
843.0000;0.2556;3.9765;
843.3000;0.2483;3.9639;
843.6000;0.2450;3.9614;
843.9000;0.2458;3.9639;
844.2000;0.2409;3.9589;
844.5000;0.2450;3.9715;
844.8000;0.2434;3.9740;
845.1000;0.2418;3.9614;
845.4000;0.2442;3.9715;
845.7000;0.2458;3.9740;
846.0000;0.2499;3.9865;
846.3000;0.2466;3.9740;
846.6000;0.2418;3.9639;
846.9000;0.2475;3.9840;
847.2000;0.2556;4.0042;
847.5000;0.2540;4.0016;
847.8000;0.2475;3.9840;
848.1000;0.2475;3.9916;
848.4000;0.2483;3.9916;
848.7000;0.2393;3.9715;
849.0000;0.2491;3.9991;
849.3000;0.2336;3.9614;
849.6000;0.2458;3.9941;
849.9000;0.2442;3.9815;
850.2000;0.2401;3.9740;
850.5000;0.2458;3.9865;
850.8000;0.2556;4.0142;
851.1000;0.2450;3.9916;
851.4000;0.2458;3.9840;
851.7000;0.2499;3.9891;
852.0000;0.2458;3.9715;
852.3000;0.2442;3.9765;
852.6000;0.2458;3.9840;
852.9000;0.2589;4.0142;
853.2000;0.2458;3.9715;
853.5000;0.2466;3.9639;
853.8000;0.2475;3.9614;
854.1000;0.2475;3.9689;
854.4000;0.2450;3.9689;
854.7000;0.2450;3.9689;
855.0000;0.2466;3.9790;
855.3000;0.2483;3.9891;
855.6000;0.2483;3.9815;
855.9000;0.2458;3.9765;
856.2000;0.2450;3.9740;
856.5000;0.2475;3.9815;
856.8000;0.2491;3.9840;
857.1000;0.2434;3.9815;
857.4000;0.2466;3.9865;
857.7000;0.2483;3.9891;
858.0000;0.2483;3.9941;
858.3000;0.2483;3.9941;
858.6000;0.2491;3.9916;
858.9000;0.2442;3.9916;
859.2000;0.2442;3.9840;
859.5000;0.2491;3.9916;
859.8000;0.2466;3.9815;
860.1000;0.2450;3.9790;
860.4000;0.2426;3.9765;
860.7000;0.2491;3.9815;
861.0000;0.2450;3.9740;
861.3000;0.2442;3.9689;
861.6000;0.2418;3.9614;
861.9000;0.2466;3.9689;
862.2000;0.2475;3.9840;
862.5000;0.2458;3.9765;
862.8000;0.2466;3.9790;
863.1000;0.2466;3.9790;
863.4000;0.2475;3.9891;
863.7000;0.2491;3.9891;
864.0000;0.2458;3.9815;
864.3000;0.2491;3.9865;
864.6000;0.2434;3.9740;
864.9000;0.2475;3.9790;
865.2000;0.2491;3.9865;
865.5000;0.2442;3.9740;
865.8000;0.2475;3.9840;
866.1000;0.2475;3.9840;
866.4000;0.2458;3.9740;
866.7000;0.2450;3.9664;
867.0000;0.2466;3.9715;
867.3000;0.2458;3.9639;
867.6000;0.2475;3.9790;
867.9000;0.2361;3.9438;
868.2000;0.2540;3.9916;
868.5000;0.2466;3.9689;
868.8000;0.2491;3.9815;
869.1000;0.2466;3.9840;
869.4000;0.2442;3.9815;
869.7000;0.2458;3.9840;
870.0000;0.2483;3.9891;
870.3000;0.2466;3.9815;
870.6000;0.2466;3.9790;
870.9000;0.2589;4.0192;
871.2000;0.2377;3.9538;
871.5000;0.2475;3.9790;
871.8000;0.2483;3.9765;
872.1000;0.2548;4.0092;
872.4000;0.2458;3.9790;
872.7000;0.2458;3.9715;
873.0000;0.2499;3.9840;
873.3000;0.2466;3.9765;
873.6000;0.2458;3.9815;
873.9000;0.2515;3.9966;
874.2000;0.2572;4.0117;
874.5000;0.2466;3.9916;
874.8000;0.2491;3.9966;
875.1000;0.2418;3.9891;
875.4000;0.2475;4.0042;
875.7000;0.2442;3.9916;
876.0000;0.2466;3.9916;
876.3000;0.2442;3.9840;
876.6000;0.2409;3.9765;
876.9000;0.2466;3.9916;
877.2000;0.2483;3.9891;
877.5000;0.2491;3.9815;
877.8000;0.2450;3.9614;
878.1000;0.2458;3.9740;
878.4000;0.2491;3.9765;
878.7000;0.2466;3.9765;
879.0000;0.2491;3.9815;
879.3000;0.2475;3.9765;
879.6000;0.2483;3.9715;
879.9000;0.2491;3.9765;
880.2000;0.2458;3.9790;
880.5000;0.2466;3.9740;
880.8000;0.2450;3.9614;
881.1000;0.2475;3.9614;
881.4000;0.2483;3.9664;
881.7000;0.2475;3.9564;
882.0000;0.2442;3.9488;
882.3000;0.2466;3.9639;
882.6000;0.2475;3.9639;
882.9000;0.2458;3.9689;
883.2000;0.2442;3.9664;
883.5000;0.2507;3.9865;
883.8000;0.2491;3.9765;
884.1000;0.2385;3.9488;
884.4000;0.2418;3.9513;
884.7000;0.2491;3.9740;
885.0000;0.2466;3.9664;
885.3000;0.2450;3.9664;
885.6000;0.2434;3.9639;
885.9000;0.2450;3.9664;
886.2000;0.2466;3.9715;
886.5000;0.2442;3.9639;
886.8000;0.2491;3.9614;
887.1000;0.2523;3.9715;
887.4000;0.2483;3.9639;
887.7000;0.2475;3.9564;
888.0000;0.2507;3.9689;
888.3000;0.2475;3.9513;
888.6000;0.2475;3.9538;
888.9000;0.2475;3.9614;
889.2000;0.2466;3.9538;
889.5000;0.2475;3.9614;
889.8000;0.2458;3.9538;
890.1000;0.2442;3.9589;
890.4000;0.2426;3.9639;
890.7000;0.2458;3.9715;
891.0000;0.2475;3.9715;
891.3000;0.2475;3.9639;
891.6000;0.2466;3.9538;
891.9000;0.2491;3.9639;
892.2000;0.2434;3.9488;
892.5000;0.2434;3.9589;
892.8000;0.2385;3.9388;
893.1000;0.2466;3.9689;
893.4000;0.2458;3.9664;
893.7000;0.2466;3.9664;
894.0000;0.2475;3.9639;
894.3000;0.2475;3.9639;
894.6000;0.2580;3.9966;
894.9000;0.2491;3.9664;
895.2000;0.2483;3.9513;
895.5000;0.2523;3.9614;
895.8000;0.2458;3.9362;
896.1000;0.2572;3.9614;
896.4000;0.2442;3.9337;
896.7000;0.2442;3.9413;
897.0000;0.2475;3.9538;
897.3000;0.2629;4.0042;
897.6000;0.2475;3.9664;
897.9000;0.2466;3.9689;
898.2000;0.2605;4.0192;
898.5000;0.2475;3.9840;
898.8000;0.2491;3.9840;
899.1000;0.2434;3.9740;
899.4000;0.2475;3.9891;
899.7000;0.2458;3.9689;
900.0000;0.2434;3.9589;
900.3000;0.2450;3.9689;
900.6000;0.2450;3.9589;
900.9000;0.2548;3.9916;
901.2000;0.2499;3.9815;
901.5000;0.2466;3.9689;
901.8000;0.2483;3.9765;
902.1000;0.2475;3.9639;
902.4000;0.2475;3.9740;
902.7000;0.2475;3.9689;
903.0000;0.2507;3.9664;
903.3000;0.2491;3.9689;
903.6000;0.2475;3.9538;
903.9000;0.2458;3.9589;
904.2000;0.2450;3.9538;
904.5000;0.2491;3.9715;
904.8000;0.2491;3.9790;
905.1000;0.2475;3.9840;
905.4000;0.2475;3.9765;
905.7000;0.2475;3.9765;
906.0000;0.2426;3.9564;
906.3000;0.2458;3.9564;
906.6000;0.2475;3.9564;
906.9000;0.2466;3.9538;
907.2000;0.2434;3.9488;
907.5000;0.2450;3.9488;
907.8000;0.2458;3.9488;
908.1000;0.2434;3.9463;
908.4000;0.2458;3.9614;
908.7000;0.2475;3.9740;
909.0000;0.2450;3.9589;
909.3000;0.2475;3.9664;
909.6000;0.2540;3.9815;
909.9000;0.2491;3.9765;
910.2000;0.2491;3.9891;
910.5000;0.2466;3.9765;
910.8000;0.2466;3.9840;
911.1000;0.2475;3.9916;
911.4000;0.2434;3.9865;
911.7000;0.2385;3.9765;
912.0000;0.2450;4.0042;
912.3000;0.2483;4.0092;
912.6000;0.2450;3.9941;
912.9000;0.2483;4.0067;
913.2000;0.2483;3.9991;
913.5000;0.2475;4.0016;
913.8000;0.2491;3.9991;
914.1000;0.2491;3.9966;
914.4000;0.2450;3.9740;
914.7000;0.2491;3.9891;
915.0000;0.2475;3.9865;
915.3000;0.2475;3.9840;
915.6000;0.2507;3.9865;
915.9000;0.2450;3.9664;
916.2000;0.2589;4.0092;
916.5000;0.2458;3.9715;
916.8000;0.2450;3.9589;
917.1000;0.2483;3.9790;
917.4000;0.2434;3.9664;
917.7000;0.2320;3.9312;
918.0000;0.2377;3.9488;
918.3000;0.2483;3.9765;
918.6000;0.2466;3.9840;
918.9000;0.2483;3.9790;
919.2000;0.2499;3.9740;
919.5000;0.2483;3.9715;
919.8000;0.2442;3.9639;
920.1000;0.2564;3.9966;
920.4000;0.2483;3.9790;
920.7000;0.2475;3.9765;
921.0000;0.2515;3.9916;
921.3000;0.2466;3.9840;
921.6000;0.2466;3.9865;
921.9000;0.2458;3.9689;
922.2000;0.2466;3.9715;
922.5000;0.2458;3.9765;
922.8000;0.2499;3.9941;
923.1000;0.2475;3.9840;
923.4000;0.2450;3.9740;
923.7000;0.2450;3.9589;
924.0000;0.2458;3.9639;
924.3000;0.2532;3.9891;
924.6000;0.2466;3.9715;
924.9000;0.2434;3.9664;
925.2000;0.2475;3.9790;
925.5000;0.2475;3.9815;
925.8000;0.2458;3.9765;
926.1000;0.2458;3.9765;
926.4000;0.2475;3.9765;
926.7000;0.2450;3.9790;
927.0000;0.2475;3.9790;
927.3000;0.2483;3.9815;
927.6000;0.2434;3.9614;
927.9000;0.2475;3.9689;
928.2000;0.2475;3.9765;
928.5000;0.2491;3.9840;
928.8000;0.2442;3.9740;
929.1000;0.2458;3.9689;
929.4000;0.2442;3.9564;
929.7000;0.2458;3.9589;
930.0000;0.2483;3.9538;
930.3000;0.2475;3.9438;
930.6000;0.2418;3.9287;
930.9000;0.2515;3.9639;
931.2000;0.2450;3.9463;
931.5000;0.2564;3.9891;
931.8000;0.2556;3.9941;
932.1000;0.2507;3.9815;
932.4000;0.2458;3.9689;
932.7000;0.2450;3.9589;
933.0000;0.2475;3.9715;
933.3000;0.2450;3.9614;
933.6000;0.2369;3.9438;
933.9000;0.2475;3.9664;
934.2000;0.2483;3.9715;
934.5000;0.2475;3.9715;
934.8000;0.2466;3.9790;
935.1000;0.2475;3.9815;
935.4000;0.2458;3.9740;
935.7000;0.2475;3.9715;
936.0000;0.2483;3.9740;
936.3000;0.2483;3.9815;
936.6000;0.2401;3.9513;
936.9000;0.2458;3.9589;
937.2000;0.2434;3.9513;
937.5000;0.2442;3.9589;
937.8000;0.2580;3.9941;
938.1000;0.2466;3.9639;
938.4000;0.2491;3.9715;
938.7000;0.2442;3.9538;
939.0000;0.2475;3.9564;
939.3000;0.2548;3.9891;
939.6000;0.2450;3.9689;
939.9000;0.2434;3.9639;
940.2000;0.2523;3.9865;
940.5000;0.2580;3.9991;
940.8000;0.2466;3.9564;
941.1000;0.2450;3.9639;
941.4000;0.2450;3.9689;
941.7000;0.2483;3.9765;
942.0000;0.2426;3.9689;
942.3000;0.2450;3.9639;
942.6000;0.2450;3.9664;
942.9000;0.2466;3.9815;
943.2000;0.2466;3.9765;
943.5000;0.2507;3.9840;
943.8000;0.2475;3.9815;
944.1000;0.2434;3.9639;
944.4000;0.2483;3.9715;
944.7000;0.2475;3.9865;
945.0000;0.2466;3.9715;
945.3000;0.2466;3.9790;
945.6000;0.2548;3.9991;
945.9000;0.2458;3.9740;
946.2000;0.2491;3.9891;
946.5000;0.2458;3.9790;
946.8000;0.2401;3.9689;
947.1000;0.2532;3.9991;
947.4000;0.2466;3.9865;
947.7000;0.2499;3.9916;
948.0000;0.2442;3.9740;
948.3000;0.2466;3.9815;
948.6000;0.2458;3.9740;
948.9000;0.2466;3.9715;
949.2000;0.2434;3.9589;
949.5000;0.2466;3.9689;
949.8000;0.2450;3.9815;
950.1000;0.2466;3.9815;
950.4000;0.2466;3.9740;
950.7000;0.2483;3.9715;
951.0000;0.2483;3.9865;
951.3000;0.2450;3.9639;
951.6000;0.2450;3.9614;
951.9000;0.2499;3.9740;
952.2000;0.2475;3.9840;
952.5000;0.2466;3.9765;
952.8000;0.2426;3.9664;
953.1000;0.2466;3.9790;
953.4000;0.2466;3.9840;
953.7000;0.2483;3.9740;
954.0000;0.2589;3.9865;
954.3000;0.2491;3.9614;
954.6000;0.2515;3.9740;
954.9000;0.2393;3.9463;
955.2000;0.2466;3.9689;
955.5000;0.2401;3.9538;
955.8000;0.2458;3.9664;
956.1000;0.2458;3.9765;
956.4000;0.2458;3.9840;
956.7000;0.2434;3.9715;
957.0000;0.2483;3.9790;
957.3000;0.2450;3.9715;
957.6000;0.2483;3.9715;
957.9000;0.2466;3.9614;
958.2000;0.2483;3.9715;
958.5000;0.2450;3.9689;
958.8000;0.2491;3.9790;
959.1000;0.2466;3.9664;
959.4000;0.2475;3.9765;
959.7000;0.2475;3.9689;
960.0000;0.2361;3.9362;
960.3000;0.2491;3.9765;
960.6000;0.2450;3.9715;
960.9000;0.2434;3.9538;
961.2000;0.2344;3.9312;
961.5000;0.2418;3.9564;
961.8000;0.2450;3.9639;
962.1000;0.2466;3.9664;
962.4000;0.2361;3.9413;
962.7000;0.2450;3.9765;
963.0000;0.2458;3.9740;
963.3000;0.2515;3.9916;
963.6000;0.2491;3.9840;
963.9000;0.2475;3.9840;
964.2000;0.2434;3.9765;
964.5000;0.2548;4.0067;
964.8000;0.2491;3.9891;
965.1000;0.2426;3.9740;
965.4000;0.2312;3.9388;
965.7000;0.2475;3.9815;
966.0000;0.2466;3.9840;
966.3000;0.2548;4.0092;
966.6000;0.2385;3.9614;
966.9000;0.2442;3.9664;
967.2000;0.2385;3.9513;
967.5000;0.2401;3.9589;
967.8000;0.2409;3.9689;
968.1000;0.2377;3.9614;
968.4000;0.2466;3.9941;
968.7000;0.2523;4.0067;
969.0000;0.2466;3.9941;
969.3000;0.2475;3.9941;
969.6000;0.2475;3.9891;
969.9000;0.2491;3.9840;
970.2000;0.2450;3.9765;
970.5000;0.2450;3.9715;
970.8000;0.2409;3.9689;
971.1000;0.2466;3.9865;
971.4000;0.2450;3.9916;
971.7000;0.2564;4.0117;
972.0000;0.2475;4.0016;
972.3000;0.2450;3.9991;
972.6000;0.2483;4.0117;
972.9000;0.2523;4.0167;
973.2000;0.2450;3.9991;
973.5000;0.2475;3.9966;
973.8000;0.2458;3.9790;
974.1000;0.2475;3.9689;
974.4000;0.2475;3.9639;
974.7000;0.2458;3.9614;
975.0000;0.2458;3.9664;
975.3000;0.2466;3.9790;
975.6000;0.2466;3.9765;
975.9000;0.2466;3.9715;
976.2000;0.2426;3.9614;
976.5000;0.2458;3.9815;
976.8000;0.2434;3.9815;
977.1000;0.2393;3.9865;
977.4000;0.2450;3.9941;
977.7000;0.2458;3.9865;
978.0000;0.2401;3.9740;
978.3000;0.2475;3.9941;
978.6000;0.2491;3.9916;
978.9000;0.2475;3.9790;
979.2000;0.2434;3.9664;
979.5000;0.2426;3.9614;
979.8000;0.2458;3.9689;
980.1000;0.2466;3.9639;
980.4000;0.2466;3.9639;
980.7000;0.2426;3.9513;
981.0000;0.2491;3.9790;
981.3000;0.2475;3.9840;
981.6000;0.2499;3.9891;
981.9000;0.2466;3.9790;
982.2000;0.2491;3.9840;
982.5000;0.2483;3.9815;
982.8000;0.2483;3.9815;
983.1000;0.2434;3.9639;
983.4000;0.2458;3.9765;
983.7000;0.2491;3.9891;
984.0000;0.2466;3.9865;
984.3000;0.2475;3.9891;
984.6000;0.2483;3.9941;
984.9000;0.2450;3.9941;
985.2000;0.2597;4.0293;
985.5000;0.2466;3.9891;
985.8000;0.2434;3.9765;
986.1000;0.2466;3.9865;
986.4000;0.2442;3.9790;
986.7000;0.2458;3.9765;
987.0000;0.2515;3.9941;
987.3000;0.2475;3.9891;
987.6000;0.2475;3.9865;
987.9000;0.2475;3.9916;
988.2000;0.2475;3.9840;
988.5000;0.2483;3.9891;
988.8000;0.2483;3.9991;
989.1000;0.2491;3.9840;
989.4000;0.2458;3.9790;
989.7000;0.2458;3.9840;
990.0000;0.2532;3.9966;
990.3000;0.2442;3.9639;
990.6000;0.2393;3.9538;
990.9000;0.2458;3.9790;
991.2000;0.2483;3.9865;
991.5000;0.2458;3.9790;
991.8000;0.2466;3.9765;
992.1000;0.2418;3.9614;
992.4000;0.2483;3.9740;
992.7000;0.2466;3.9765;
993.0000;0.2475;3.9840;
993.3000;0.2466;3.9715;
993.6000;0.2475;3.9689;
993.9000;0.2475;3.9639;
994.2000;0.2466;3.9614;
994.5000;0.2442;3.9664;
994.8000;0.2483;3.9765;
995.1000;0.2475;3.9715;
995.4000;0.2458;3.9614;
995.7000;0.2458;3.9664;
996.0000;0.2507;3.9765;
996.3000;0.2483;3.9689;
996.6000;0.2450;3.9664;
996.9000;0.2442;3.9614;
997.2000;0.2442;3.9488;
997.5000;0.2499;3.9639;
997.8000;0.2458;3.9513;
998.1000;0.2466;3.9488;
998.4000;0.2507;3.9538;
998.7000;0.2466;3.9237;
999.0000;0.2466;3.9413;
999.3000;0.2499;3.9538;
999.6000;0.2442;3.9438;
999.9000;0.2483;3.9564;
1000.2000;0.2434;3.9438;
1000.5000;0.2458;3.9463;
1000.8000;0.2458;3.9463;
1001.1000;0.2548;3.9715;
1001.4000;0.2361;3.9136;
1001.7000;0.2475;3.9337;
1002.0000;0.2532;3.9488;
1002.3000;0.2434;3.9337;
1002.6000;0.2483;3.9337;
1002.9000;0.2450;3.9337;
1003.2000;0.2450;3.9287;
1003.5000;0.2450;3.9287;
1003.8000;0.2418;3.9287;
1004.1000;0.2483;3.9538;
1004.4000;0.2483;3.9589;
1004.7000;0.2491;3.9664;
1005.0000;0.2466;3.9715;
1005.3000;0.2450;3.9765;
1005.6000;0.2475;3.9765;
1005.9000;0.2475;3.9715;
1006.2000;0.2434;3.9715;
1006.5000;0.2458;3.9790;
1006.8000;0.2458;3.9740;
1007.1000;0.2458;3.9715;
1007.4000;0.2466;3.9715;
1007.7000;0.2475;3.9790;
1008.0000;0.2426;3.9664;
1008.3000;0.2466;3.9715;
1008.6000;0.2507;3.9815;
1008.9000;0.2483;3.9689;
1009.2000;0.2434;3.9589;
1009.5000;0.2466;3.9639;
1009.8000;0.2515;3.9765;
1010.1000;0.2409;3.9488;
1010.4000;0.2442;3.9538;
1010.7000;0.2450;3.9564;
1011.0000;0.2442;3.9564;
1011.3000;0.2458;3.9564;
1011.6000;0.2491;3.9689;
1011.9000;0.2434;3.9564;
1012.2000;0.2466;3.9689;
1012.5000;0.2466;3.9689;
1012.8000;0.2466;3.9715;
1013.1000;0.2466;3.9740;
1013.4000;0.2458;3.9790;
1013.7000;0.2426;3.9740;
1014.0000;0.2466;3.9815;
1014.3000;0.2564;4.0117;
1014.6000;0.2475;3.9840;
1014.9000;0.2450;3.9815;
1015.2000;0.2418;3.9765;
1015.5000;0.2466;3.9891;
1015.8000;0.2475;3.9865;
1016.1000;0.2458;3.9765;
1016.4000;0.2458;3.9689;
1016.7000;0.2458;3.9614;
1017.0000;0.2466;3.9513;
1017.3000;0.2458;3.9438;
1017.6000;0.2450;3.9413;
1017.9000;0.2483;3.9438;
1018.2000;0.2466;3.9564;
1018.5000;0.2475;3.9488;
1018.8000;0.2466;3.9564;
1019.1000;0.2466;3.9639;
1019.4000;0.2466;3.9664;
1019.7000;0.2458;3.9715;
1020.0000;0.2426;3.9564;
1020.3000;0.2483;3.9689;
1020.6000;0.2499;3.9740;
1020.9000;0.2458;3.9639;
1021.2000;0.2483;3.9664;
1021.5000;0.2458;3.9639;
1021.8000;0.2491;3.9589;
1022.1000;0.2450;3.9538;
1022.4000;0.2466;3.9589;
1022.7000;0.2458;3.9538;
1023.0000;0.2499;3.9689;
1023.3000;0.2466;3.9664;
1023.6000;0.2483;3.9715;
1023.9000;0.2426;3.9564;
1024.2000;0.2475;3.9715;
1024.5000;0.2475;3.9715;
1024.8000;0.2466;3.9664;
1025.1000;0.2450;3.9614;
1025.4000;0.2466;3.9639;
1025.7000;0.2434;3.9438;
1026.0000;0.2450;3.9488;
1026.3000;0.2434;3.9388;
1026.6000;0.2466;3.9413;
1026.9000;0.2475;3.9488;
1027.2000;0.2458;3.9538;
1027.5000;0.2442;3.9589;
1027.8000;0.2442;3.9564;
1028.1000;0.2483;3.9689;
1028.4000;0.2475;3.9664;
1028.7000;0.2466;3.9689;
1029.0000;0.2418;3.9564;
1029.3000;0.2434;3.9589;
1029.6000;0.2426;3.9689;
1029.9000;0.2491;3.9740;
1030.2000;0.2475;3.9664;
1030.5000;0.2450;3.9639;
1030.8000;0.2466;3.9715;
1031.1000;0.2499;3.9815;
1031.4000;0.2458;3.9639;
1031.7000;0.2466;3.9589;
1032.0000;0.2548;3.9765;
1032.3000;0.2475;3.9513;
1032.6000;0.2458;3.9639;
1032.9000;0.2475;3.9740;
1033.2000;0.2507;3.9765;
1033.5000;0.2491;3.9740;
1033.8000;0.2483;3.9765;
1034.1000;0.2475;3.9689;
1034.4000;0.2475;3.9689;
1034.7000;0.2483;3.9715;
1035.0000;0.2450;3.9664;
1035.3000;0.2475;3.9715;
1035.6000;0.2475;3.9715;
1035.9000;0.2499;3.9740;
1036.2000;0.2483;3.9740;
1036.5000;0.2401;3.9463;
1036.8000;0.2377;3.9362;
1037.1000;0.2483;3.9513;
1037.4000;0.2450;3.9438;
1037.7000;0.2507;3.9589;
1038.0000;0.2450;3.9463;
1038.3000;0.2466;3.9564;
1038.6000;0.2475;3.9538;
1038.9000;0.2466;3.9614;
1039.2000;0.2450;3.9740;
1039.5000;0.2475;3.9715;
1039.8000;0.2458;3.9715;
1040.1000;0.2548;3.9916;
1040.4000;0.2458;3.9815;
1040.7000;0.2475;3.9840;
1041.0000;0.2483;3.9891;
1041.3000;0.2483;3.9790;
1041.6000;0.2442;3.9689;
1041.9000;0.2499;3.9865;
1042.2000;0.2515;3.9916;
1042.5000;0.2475;3.9689;
1042.8000;0.2450;3.9614;
1043.1000;0.2458;3.9715;
1043.4000;0.2466;3.9765;
1043.7000;0.2466;3.9815;
1044.0000;0.2466;3.9815;
1044.3000;0.2450;3.9740;
1044.6000;0.2450;3.9664;
1044.9000;0.2466;3.9689;
1045.2000;0.2450;3.9664;
1045.5000;0.2458;3.9740;
1045.8000;0.2434;3.9664;
1046.1000;0.2475;3.9865;
1046.4000;0.2458;3.9689;
1046.7000;0.2409;3.9463;
1047.0000;0.2442;3.9589;
1047.3000;0.2483;3.9589;
1047.6000;0.2564;3.9865;
1047.9000;0.2483;3.9715;
1048.2000;0.2483;3.9740;
1048.5000;0.2409;3.9589;
1048.8000;0.2466;3.9765;
1049.1000;0.2475;3.9765;
1049.4000;0.2491;3.9891;
1049.7000;0.2499;3.9916;
1050.0000;0.2320;3.9438;
1050.3000;0.2458;3.9815;
1050.6000;0.2434;3.9765;
1050.9000;0.2466;3.9740;
1051.2000;0.2450;3.9765;
1051.5000;0.2458;3.9765;
1051.8000;0.2532;3.9916;
1052.1000;0.2523;3.9765;
1052.4000;0.2475;3.9564;
1052.7000;0.2466;3.9463;
1053.0000;0.2442;3.9488;
1053.3000;0.2475;3.9614;
1053.6000;0.2475;3.9639;
1053.9000;0.2336;3.9287;
1054.2000;0.2434;3.9689;
1054.5000;0.2466;3.9664;
1054.8000;0.2548;3.9966;
1055.1000;0.2483;3.9840;
1055.4000;0.2475;3.9840;
1055.7000;0.2442;3.9664;
1056.0000;0.2450;3.9765;
1056.3000;0.2401;3.9689;
1056.6000;0.2475;3.9991;
1056.9000;0.2458;3.9941;
1057.2000;0.2466;3.9966;
1057.5000;0.2401;3.9790;
1057.8000;0.2458;3.9891;
1058.1000;0.2466;3.9891;
1058.4000;0.2572;4.0167;
1058.7000;0.2393;3.9639;
1059.0000;0.2491;3.9891;
1059.3000;0.2475;3.9916;
1059.6000;0.2483;3.9966;
1059.9000;0.2515;3.9941;
1060.2000;0.2466;3.9840;
1060.5000;0.2401;3.9463;
1060.8000;0.2491;3.9715;
1061.1000;0.2483;3.9790;
1061.4000;0.2499;3.9865;
1061.7000;0.2466;3.9715;
1062.0000;0.2475;3.9664;
1062.3000;0.2466;3.9614;
1062.6000;0.2483;3.9740;
1062.9000;0.2523;3.9815;
1063.2000;0.2450;3.9513;
1063.5000;0.2458;3.9564;
1063.8000;0.2442;3.9488;
1064.1000;0.2580;3.9865;
1064.4000;0.2466;3.9564;
1064.7000;0.2442;3.9513;
1065.0000;0.2483;3.9689;
1065.3000;0.2466;3.9664;
1065.6000;0.2499;3.9815;
1065.9000;0.2418;3.9689;
1066.2000;0.2475;3.9916;
1066.5000;0.2466;3.9840;
1066.8000;0.2458;3.9790;
1067.1000;0.2466;3.9664;
1067.4000;0.2466;3.9765;
1067.7000;0.2442;3.9715;
1068.0000;0.2442;3.9614;
1068.3000;0.2483;3.9815;
1068.6000;0.2401;3.9538;
1068.9000;0.2475;3.9715;
1069.2000;0.2450;3.9538;
1069.5000;0.2475;3.9614;
1069.8000;0.2475;3.9815;
1070.1000;0.2491;3.9891;
1070.4000;0.2515;4.0016;
1070.7000;0.2418;3.9715;
1071.0000;0.2499;3.9916;
1071.3000;0.2507;3.9916;
1071.6000;0.2320;3.9438;
1071.9000;0.2369;3.9589;
1072.2000;0.2466;3.9916;
1072.5000;0.2475;3.9966;
1072.8000;0.2434;3.9840;
1073.1000;0.2466;3.9941;
1073.4000;0.2466;3.9991;
1073.7000;0.2491;4.0042;
1074.0000;0.2597;4.0343;
1074.3000;0.2458;3.9941;
1074.6000;0.2491;3.9941;
1074.9000;0.2466;3.9941;
1075.2000;0.2466;3.9991;
1075.5000;0.2507;4.0042;
1075.8000;0.2466;3.9891;
1076.1000;0.2475;3.9815;
1076.4000;0.2499;3.9865;
1076.7000;0.2475;3.9865;
1077.0000;0.2475;3.9790;
1077.3000;0.2466;3.9790;
1077.6000;0.2418;3.9564;
1077.9000;0.2540;3.9966;
1078.2000;0.2450;3.9589;
1078.5000;0.2466;3.9488;
1078.8000;0.2466;3.9513;
1079.1000;0.2499;3.9664;
1079.4000;0.2540;3.9865;
1079.7000;0.2491;3.9715;
1080.0000;0.2491;3.9765;
1080.3000;0.2377;3.9413;
1080.6000;0.2483;3.9614;
1080.9000;0.2458;3.9589;
1081.2000;0.2442;3.9538;
1081.5000;0.2483;3.9639;
1081.8000;0.2434;3.9589;
1082.1000;0.2442;3.9715;
1082.4000;0.2499;3.9941;
1082.7000;0.2458;3.9790;
1083.0000;0.2450;3.9815;
1083.3000;0.2483;3.9891;
1083.6000;0.2483;3.9840;
1083.9000;0.2475;3.9815;
1084.2000;0.2499;3.9991;
1084.5000;0.2466;3.9865;
1084.8000;0.2442;3.9765;
1085.1000;0.2491;3.9941;
1085.4000;0.2466;3.9865;
1085.7000;0.2442;3.9865;
1086.0000;0.2458;3.9916;
1086.3000;0.2475;3.9815;
1086.6000;0.2523;4.0016;
1086.9000;0.2401;3.9715;
1087.2000;0.2418;3.9815;
1087.5000;0.2458;3.9790;
1087.8000;0.2336;3.9438;
1088.1000;0.2450;3.9840;
1088.4000;0.2450;3.9941;
1088.7000;0.2556;4.0293;
1089.0000;0.2475;4.0092;
1089.3000;0.2475;4.0067;
1089.6000;0.2442;4.0016;
1089.9000;0.2442;3.9941;
1090.2000;0.2442;3.9916;
1090.5000;0.2466;3.9991;
1090.8000;0.2491;4.0016;
1091.1000;0.2458;3.9916;
1091.4000;0.2418;3.9891;
1091.7000;0.2491;4.0092;
1092.0000;0.2540;4.0192;
1092.3000;0.2483;4.0016;
1092.6000;0.2385;3.9689;
1092.9000;0.2491;4.0016;
1093.2000;0.2483;4.0042;
1093.5000;0.2580;4.0293;
1093.8000;0.2434;3.9865;
1094.1000;0.2450;3.9840;
1094.4000;0.2418;3.9790;
1094.7000;0.2385;3.9639;
1095.0000;0.2564;4.0016;
1095.3000;0.2434;3.9664;
1095.6000;0.2450;3.9715;
1095.9000;0.2515;3.9891;
1096.2000;0.2483;3.9765;
1096.5000;0.2458;3.9715;
1096.8000;0.2491;3.9815;
1097.1000;0.2515;3.9765;
1097.4000;0.2483;3.9589;
1097.7000;0.2475;3.9664;
1098.0000;0.2475;3.9765;
1098.3000;0.2466;3.9840;
1098.6000;0.2483;3.9815;
1098.9000;0.2507;3.9865;
1099.2000;0.2409;3.9589;
1099.5000;0.2458;3.9740;
1099.8000;0.2450;3.9664;
1100.1000;0.2540;3.9790;
1100.4000;0.2466;3.9639;
1100.7000;0.2491;3.9840;
1101.0000;0.2475;3.9815;
1101.3000;0.2458;3.9740;
1101.6000;0.2458;3.9689;
1101.9000;0.2483;3.9765;
1102.2000;0.2466;3.9790;
1102.5000;0.2458;3.9840;
1102.8000;0.2466;3.9891;
1103.1000;0.2483;3.9916;
1103.4000;0.2499;3.9916;
1103.7000;0.2426;3.9790;
1104.0000;0.2466;3.9941;
1104.3000;0.2458;3.9865;
1104.6000;0.2442;3.9790;
1104.9000;0.2466;3.9840;
1105.2000;0.2475;3.9840;
1105.5000;0.2466;3.9740;
1105.8000;0.2466;3.9790;
1106.1000;0.2409;3.9715;
1106.4000;0.2475;4.0016;
1106.7000;0.2483;3.9941;
1107.0000;0.2458;3.9966;
1107.3000;0.2499;4.0042;
1107.6000;0.2491;4.0016;
1107.9000;0.2572;4.0293;
1108.2000;0.2401;3.9715;
1108.5000;0.2491;3.9916;
1108.8000;0.2507;3.9966;
1109.1000;0.2540;4.0142;
1109.4000;0.2458;3.9891;
1109.7000;0.2458;4.0016;
1110.0000;0.2475;4.0067;
1110.3000;0.2409;3.9941;
1110.6000;0.2475;3.9991;
1110.9000;0.2475;3.9941;
1111.2000;0.2483;3.9991;
1111.5000;0.2458;3.9865;
1111.8000;0.2499;3.9916;
1112.1000;0.2475;3.9941;
1112.4000;0.2483;3.9916;
1112.7000;0.2515;3.9966;
1113.0000;0.2483;3.9891;
1113.3000;0.2450;3.9891;
1113.6000;0.2466;3.9991;
1113.9000;0.2458;3.9941;
1114.2000;0.2450;3.9865;
1114.5000;0.2483;3.9815;
1114.8000;0.2450;3.9765;
1115.1000;0.2458;3.9840;
1115.4000;0.2442;3.9740;
1115.7000;0.2475;3.9865;
1116.0000;0.2426;3.9765;
1116.3000;0.2466;3.9916;
1116.6000;0.2458;3.9941;
1116.9000;0.2385;3.9689;
1117.2000;0.2450;3.9765;
1117.5000;0.2466;3.9689;
1117.8000;0.2499;3.9689;
1118.1000;0.2475;3.9589;
1118.4000;0.2475;3.9740;
1118.7000;0.2491;3.9815;
1119.0000;0.2475;3.9790;
1119.3000;0.2450;3.9790;
1119.6000;0.2475;3.9840;
1119.9000;0.2442;3.9790;
1120.2000;0.2458;3.9765;
1120.5000;0.2475;3.9840;
1120.8000;0.2434;3.9765;
1121.1000;0.2475;3.9941;
1121.4000;0.2458;3.9865;
1121.7000;0.2483;3.9891;
1122.0000;0.2458;3.9815;
1122.3000;0.2458;3.9740;
1122.6000;0.2475;3.9765;
1122.9000;0.2442;3.9740;
1123.2000;0.2491;3.9941;
1123.5000;0.2475;3.9916;
1123.8000;0.2540;4.0092;
1124.1000;0.2393;3.9689;
1124.4000;0.2475;3.9991;
1124.7000;0.2466;3.9966;
1125.0000;0.2483;4.0016;
1125.3000;0.2475;4.0042;
1125.6000;0.2426;3.9966;
1125.9000;0.2483;4.0067;
1126.2000;0.2515;4.0218;
1126.5000;0.2483;4.0142;
1126.8000;0.2466;4.0167;
1127.1000;0.2450;4.0092;
1127.4000;0.2458;4.0042;
1127.7000;0.2466;4.0092;
1128.0000;0.2483;4.0067;
1128.3000;0.2491;4.0016;
1128.6000;0.2483;3.9966;
1128.9000;0.2475;3.9840;
1129.2000;0.2442;3.9790;
1129.5000;0.2409;3.9614;
1129.8000;0.2475;3.9891;
1130.1000;0.2450;3.9865;
1130.4000;0.2475;3.9991;
1130.7000;0.2483;3.9941;
1131.0000;0.2499;3.9815;
1131.3000;0.2458;3.9790;
1131.6000;0.2483;3.9790;
1131.9000;0.2450;3.9765;
1132.2000;0.2434;3.9740;
1132.5000;0.2466;3.9815;
1132.8000;0.2475;3.9891;
1133.1000;0.2458;3.9865;
1133.4000;0.2466;3.9916;
1133.7000;0.2458;3.9991;
1134.0000;0.2450;3.9916;
1134.3000;0.2442;3.9865;
1134.6000;0.2475;3.9966;
1134.9000;0.2475;4.0092;
1135.2000;0.2466;4.0016;
1135.5000;0.2466;4.0016;
1135.8000;0.2442;3.9916;
1136.1000;0.2483;3.9916;
1136.4000;0.2483;3.9865;
1136.7000;0.2434;3.9740;
1137.0000;0.2466;3.9840;
1137.3000;0.2483;3.9790;
1137.6000;0.2458;3.9689;
1137.9000;0.2450;3.9765;
1138.2000;0.2466;3.9840;
1138.5000;0.2483;3.9840;
1138.8000;0.2475;3.9715;
1139.1000;0.2475;3.9715;
1139.4000;0.2548;3.9991;
1139.7000;0.2483;3.9765;
1140.0000;0.2434;3.9689;
1140.3000;0.2475;3.9840;
1140.6000;0.2458;3.9715;
1140.9000;0.2458;3.9840;
1141.2000;0.2458;3.9865;
1141.5000;0.2532;3.9966;
1141.8000;0.2475;3.9941;
1142.1000;0.2385;3.9689;
1142.4000;0.2458;3.9865;
1142.7000;0.2450;3.9790;
1143.0000;0.2475;3.9916;
1143.3000;0.2458;3.9916;
1143.6000;0.2475;4.0067;
1143.9000;0.2466;4.0092;
1144.2000;0.2466;4.0117;
1144.5000;0.2466;4.0092;
1144.8000;0.2523;4.0192;
1145.1000;0.2556;4.0192;
1145.4000;0.2491;3.9941;
1145.7000;0.2475;3.9966;
1146.0000;0.2450;3.9991;
1146.3000;0.2483;3.9991;
1146.6000;0.2475;3.9991;
1146.9000;0.2475;3.9916;
1147.2000;0.2507;3.9891;
1147.5000;0.2475;3.9790;
1147.8000;0.2450;3.9765;
1148.1000;0.2466;3.9991;
1148.4000;0.2442;3.9891;
1148.7000;0.2475;3.9891;
1149.0000;0.2475;3.9916;
1149.3000;0.2475;3.9740;
1149.6000;0.2491;3.9865;
1149.9000;0.2483;3.9815;
1150.2000;0.2450;3.9715;
1150.5000;0.2483;3.9815;
1150.8000;0.2475;3.9840;
1151.1000;0.2450;3.9815;
1151.4000;0.2475;3.9740;
1151.7000;0.2475;3.9740;
1152.0000;0.2491;3.9790;
1152.3000;0.2458;3.9815;
1152.6000;0.2475;3.9891;
1152.9000;0.2483;3.9891;
1153.2000;0.2475;3.9865;
1153.5000;0.2483;3.9865;
1153.8000;0.2483;3.9865;
1154.1000;0.2483;3.9891;
1154.4000;0.2491;3.9966;
1154.7000;0.2442;3.9941;
1155.0000;0.2491;4.0016;
1155.3000;0.2466;3.9916;
1155.6000;0.2434;3.9815;
1155.9000;0.2475;3.9916;
1156.2000;0.2475;3.9916;
1156.5000;0.2426;3.9966;
1156.8000;0.2466;3.9991;
1157.1000;0.2475;3.9991;
1157.4000;0.2466;3.9941;
1157.7000;0.2483;3.9991;
1158.0000;0.2466;3.9891;
1158.3000;0.2336;3.9463;
1158.6000;0.2483;3.9966;
1158.9000;0.2475;3.9941;
1159.2000;0.2466;3.9916;
1159.5000;0.2491;3.9991;
1159.8000;0.2475;3.9966;
1160.1000;0.2442;3.9891;
1160.4000;0.2466;3.9865;
1160.7000;0.2458;3.9865;
1161.0000;0.2377;3.9715;
1161.3000;0.2466;4.0067;
1161.6000;0.2483;4.0092;
1161.9000;0.2458;4.0117;
1162.2000;0.2491;4.0092;
1162.5000;0.2483;4.0092;
1162.8000;0.2475;4.0067;
1163.1000;0.2401;3.9891;
1163.4000;0.2434;4.0042;
1163.7000;0.2466;4.0117;
1164.0000;0.2589;4.0444;
1164.3000;0.2450;4.0067;
1164.6000;0.2320;3.9689;
1164.9000;0.2450;3.9966;
1165.2000;0.2475;3.9941;
1165.5000;0.2434;3.9840;
1165.8000;0.2466;3.9790;
1166.1000;0.2532;3.9916;
1166.4000;0.2475;3.9790;
1166.7000;0.2466;3.9765;
1167.0000;0.2483;3.9639;
1167.3000;0.2458;3.9589;
1167.6000;0.2450;3.9740;
1167.9000;0.2491;3.9891;
1168.2000;0.2434;3.9916;
1168.5000;0.2450;3.9966;
1168.8000;0.2475;4.0016;
1169.1000;0.2523;4.0243;
1169.4000;0.2458;4.0042;
1169.7000;0.2466;4.0117;
1170.0000;0.2458;4.0117;
1170.3000;0.2458;4.0117;
1170.6000;0.2393;3.9941;
1170.9000;0.2515;4.0268;
1171.2000;0.2320;3.9689;
1171.5000;0.2458;4.0067;
1171.8000;0.2442;4.0092;
1172.1000;0.2548;4.0394;
1172.4000;0.2466;4.0042;
1172.7000;0.2458;4.0042;
1173.0000;0.2426;3.9941;
1173.3000;0.2458;4.0016;
1173.6000;0.2491;4.0142;
1173.9000;0.2475;4.0092;
1174.2000;0.2491;3.9991;
1174.5000;0.2483;3.9941;
1174.8000;0.2458;3.9891;
1175.1000;0.2466;3.9941;
1175.4000;0.2475;3.9966;
1175.7000;0.2466;3.9941;
1176.0000;0.2442;3.9840;
1176.3000;0.2458;3.9865;
1176.6000;0.2458;3.9966;
1176.9000;0.2458;3.9916;
1177.2000;0.2450;3.9865;
1177.5000;0.2458;3.9815;
1177.8000;0.2499;3.9865;
1178.1000;0.2466;3.9765;
1178.4000;0.2483;3.9891;
1178.7000;0.2483;3.9966;
1179.0000;0.2475;4.0042;
1179.3000;0.2475;3.9991;
1179.6000;0.2483;4.0042;
1179.9000;0.2483;4.0016;
1180.2000;0.2466;4.0042;
1180.5000;0.2475;4.0167;
1180.8000;0.2475;4.0117;
1181.1000;0.2466;4.0042;
1181.4000;0.2466;4.0042;
1181.7000;0.2401;3.9865;
1182.0000;0.2499;4.0167;
1182.3000;0.2483;4.0117;
1182.6000;0.2458;4.0117;
1182.9000;0.2466;4.0042;
1183.2000;0.2483;3.9991;
1183.5000;0.2466;3.9966;
1183.8000;0.2450;3.9891;
1184.1000;0.2532;4.0167;
1184.4000;0.2466;3.9941;
1184.7000;0.2475;3.9991;
1185.0000;0.2442;3.9765;
1185.3000;0.2466;3.9891;
1185.6000;0.2475;3.9916;
1185.9000;0.2499;3.9966;
1186.2000;0.2442;3.9865;
1186.5000;0.2475;3.9966;
1186.8000;0.2491;4.0067;
1187.1000;0.2548;4.0167;
1187.4000;0.2328;3.9538;
1187.7000;0.2499;3.9941;
1188.0000;0.2523;4.0092;
1188.3000;0.2466;3.9966;
1188.6000;0.2458;4.0117;
1188.9000;0.2450;4.0092;
1189.2000;0.2483;4.0192;
1189.5000;0.2466;4.0092;
1189.8000;0.2442;4.0142;
1190.1000;0.2564;4.0444;
1190.4000;0.2458;3.9966;
1190.7000;0.2466;4.0067;
1191.0000;0.2499;4.0192;
1191.3000;0.2466;4.0067;
1191.6000;0.2466;4.0016;
1191.9000;0.2475;4.0117;
1192.2000;0.2475;4.0167;
1192.5000;0.2466;4.0067;
1192.8000;0.2475;4.0092;
1193.1000;0.2475;4.0142;
1193.4000;0.2458;4.0117;
1193.7000;0.2434;4.0042;
1194.0000;0.2475;4.0192;
1194.3000;0.2532;4.0318;
1194.6000;0.2475;3.9966;
1194.9000;0.2475;4.0092;
1195.2000;0.2409;3.9865;
1195.5000;0.2466;4.0042;
1195.8000;0.2475;4.0092;
1196.1000;0.2491;4.0167;
1196.4000;0.2401;3.9815;
1196.7000;0.2442;3.9891;
1197.0000;0.2466;3.9966;
1197.3000;0.2458;3.9941;
1197.6000;0.2466;3.9991;
1197.9000;0.2442;3.9941;
1198.2000;0.2426;3.9941;
1198.5000;0.2466;3.9966;
1198.8000;0.2466;4.0067;
1199.1000;0.2434;4.0092;
1199.4000;0.2466;4.0142;
1199.7000;0.2475;4.0117;
1200.0000;0.2458;3.9966;
1200.3000;0.2442;3.9966;
1200.6000;0.2475;4.0067;
1200.9000;0.2450;4.0067;
1201.2000;0.2393;3.9941;
1201.5000;0.2450;4.0092;
1201.8000;0.2458;4.0117;
1202.1000;0.2385;3.9891;
1202.4000;0.2458;4.0016;
1202.7000;0.2491;4.0092;
1203.0000;0.2475;4.0042;
1203.3000;0.2621;4.0318;
1203.6000;0.2466;3.9765;
1203.9000;0.2466;3.9790;
1204.2000;0.2507;3.9865;
1204.5000;0.2458;3.9891;
1204.8000;0.2475;3.9916;
1205.1000;0.2442;4.0016;
1205.4000;0.2450;3.9991;
1205.7000;0.2483;4.0067;
1206.0000;0.2491;4.0042;
1206.3000;0.2458;3.9991;
1206.6000;0.2475;4.0092;
1206.9000;0.2450;4.0092;
1207.2000;0.2466;4.0042;
1207.5000;0.2483;3.9991;
1207.8000;0.2458;3.9991;
1208.1000;0.2466;3.9966;
1208.4000;0.2458;3.9891;
1208.7000;0.2450;3.9941;
1209.0000;0.2475;3.9966;
1209.3000;0.2483;4.0042;
1209.6000;0.2491;4.0092;
1209.9000;0.2491;4.0092;
1210.2000;0.2499;4.0167;
1210.5000;0.2548;4.0243;
1210.8000;0.2466;4.0167;
1211.1000;0.2515;4.0268;
1211.4000;0.2466;4.0067;
1211.7000;0.2409;3.9941;
1212.0000;0.2466;4.0167;
1212.3000;0.2499;4.0167;
1212.6000;0.2458;4.0042;
1212.9000;0.2466;4.0067;
1213.2000;0.2450;4.0067;
1213.5000;0.2442;3.9991;
1213.8000;0.2499;4.0167;
1214.1000;0.2426;4.0016;
1214.4000;0.2450;4.0067;
1214.7000;0.2523;4.0218;
1215.0000;0.2450;4.0042;
1215.3000;0.2491;4.0092;
1215.6000;0.2475;4.0092;
1215.9000;0.2475;4.0167;
1216.2000;0.2491;4.0167;
1216.5000;0.2466;4.0167;
1216.8000;0.2434;4.0042;
1217.1000;0.2483;4.0167;
1217.4000;0.2475;4.0192;
1217.7000;0.2418;4.0042;
1218.0000;0.2426;4.0092;
1218.3000;0.2483;4.0192;
1218.6000;0.2499;4.0293;
1218.9000;0.2466;4.0167;
1219.2000;0.2475;4.0117;
1219.5000;0.2483;4.0117;
1219.8000;0.2483;4.0117;
1220.1000;0.2475;4.0142;
1220.4000;0.2458;4.0016;
1220.7000;0.2466;4.0016;
1221.0000;0.2466;3.9991;
1221.3000;0.2450;3.9891;
1221.6000;0.2458;3.9991;
1221.9000;0.2442;3.9966;
1222.2000;0.2589;4.0343;
1222.5000;0.2483;4.0016;
1222.8000;0.2466;3.9991;
1223.1000;0.2401;3.9840;
1223.4000;0.2466;3.9941;
1223.7000;0.2466;3.9966;
1224.0000;0.2458;3.9941;
1224.3000;0.2523;4.0117;
1224.6000;0.2515;4.0067;
1224.9000;0.2499;4.0042;
1225.2000;0.2409;3.9891;
1225.5000;0.2475;3.9991;
1225.8000;0.2450;3.9966;
1226.1000;0.2483;4.0042;
1226.4000;0.2475;3.9916;
1226.7000;0.2475;3.9966;
1227.0000;0.2491;3.9891;
1227.3000;0.2491;3.9991;
1227.6000;0.2491;3.9916;
1227.9000;0.2483;3.9916;
1228.2000;0.2483;3.9815;
1228.5000;0.2458;3.9815;
1228.8000;0.2491;3.9991;
1229.1000;0.2507;4.0067;
1229.4000;0.2466;3.9941;
1229.7000;0.2483;4.0067;
1230.0000;0.2499;4.0192;
1230.3000;0.2491;4.0067;
1230.6000;0.2458;3.9891;
1230.9000;0.2458;3.9891;
1231.2000;0.2475;3.9941;
1231.5000;0.2475;3.9865;
1231.8000;0.2458;3.9840;
1232.1000;0.2548;4.0016;
1232.4000;0.2450;3.9740;
1232.7000;0.2646;4.0268;
1233.0000;0.2458;3.9790;
1233.3000;0.2434;3.9790;
1233.6000;0.2442;3.9815;
1233.9000;0.2450;3.9815;
1234.2000;0.2491;3.9865;
1234.5000;0.2515;3.9966;
1234.8000;0.2491;3.9840;
1235.1000;0.2458;3.9815;
1235.4000;0.2483;3.9815;
1235.7000;0.2523;3.9891;
1236.0000;0.2475;3.9715;
1236.3000;0.2466;3.9664;
1236.6000;0.2483;3.9639;
1236.9000;0.2466;3.9614;
1237.2000;0.2523;3.9765;
1237.5000;0.2466;3.9664;
1237.8000;0.2483;3.9815;
1238.1000;0.2491;3.9891;
1238.4000;0.2466;3.9891;
1238.7000;0.2466;3.9941;
1239.0000;0.2532;4.0142;
1239.3000;0.2458;3.9941;
1239.6000;0.2458;4.0016;
1239.9000;0.2483;3.9966;
1240.2000;0.2393;3.9840;
1240.5000;0.2450;4.0016;
1240.8000;0.2483;4.0142;
1241.1000;0.2515;4.0318;
1241.4000;0.2393;4.0042;
1241.7000;0.2450;4.0192;
1242.0000;0.2491;4.0293;
1242.3000;0.2466;4.0117;
1242.6000;0.2458;4.0067;
1242.9000;0.2475;4.0117;
1243.2000;0.2450;4.0067;
1243.5000;0.2442;4.0016;
1243.8000;0.2475;4.0117;
1244.1000;0.2466;4.0067;
1244.4000;0.2491;4.0092;
1244.7000;0.2540;4.0192;
1245.0000;0.2442;3.9991;
1245.3000;0.2483;4.0067;
1245.6000;0.2466;3.9991;
1245.9000;0.2466;3.9941;
1246.2000;0.2466;4.0016;
1246.5000;0.2475;4.0016;
1246.8000;0.2483;4.0042;
1247.1000;0.2458;4.0142;
1247.4000;0.2483;4.0142;
1247.7000;0.2483;4.0142;
1248.0000;0.2532;4.0343;
1248.3000;0.2483;4.0192;
1248.6000;0.2458;4.0092;
1248.9000;0.2605;4.0494;
1249.2000;0.2475;4.0117;
1249.5000;0.2442;3.9966;
1249.8000;0.2418;3.9966;
1250.1000;0.2475;4.0092;
1250.4000;0.2475;4.0067;
1250.7000;0.2475;4.0016;
1251.0000;0.2507;4.0117;
1251.3000;0.2475;4.0067;
1251.6000;0.2458;4.0067;
1251.9000;0.2442;4.0092;
1252.2000;0.2499;4.0167;
1252.5000;0.2450;4.0042;
1252.8000;0.2499;4.0243;
1253.1000;0.2450;4.0192;
1253.4000;0.2466;4.0218;
1253.7000;0.2466;4.0243;
1254.0000;0.2491;4.0192;
1254.3000;0.2466;4.0142;
1254.6000;0.2499;4.0293;
1254.9000;0.2466;4.0167;
1255.2000;0.2475;4.0117;
1255.5000;0.2385;3.9689;
1255.8000;0.2475;3.9916;
1256.1000;0.2523;4.0016;
1256.4000;0.2458;3.9916;
1256.7000;0.2483;3.9966;
1257.0000;0.2442;3.9840;
1257.3000;0.2475;3.9991;
1257.6000;0.2532;4.0092;
1257.9000;0.2523;4.0092;
1258.2000;0.2483;3.9991;
1258.5000;0.2442;3.9891;
1258.8000;0.2475;4.0016;
1259.1000;0.2418;3.9941;
1259.4000;0.2466;4.0117;
1259.7000;0.2466;4.0142;
1260.0000;0.2475;4.0192;
1260.3000;0.2466;4.0117;
1260.6000;0.2426;4.0016;
1260.9000;0.2466;4.0067;
1261.2000;0.2442;3.9966;
1261.5000;0.2499;4.0167;
1261.8000;0.2458;4.0042;
1262.1000;0.2475;4.0117;
1262.4000;0.2450;4.0142;
1262.7000;0.2564;4.0444;
1263.0000;0.2499;4.0293;
1263.3000;0.2483;4.0218;
1263.6000;0.2523;4.0368;
1263.9000;0.2499;4.0293;
1264.2000;0.2442;3.9991;
1264.5000;0.2466;4.0142;
1264.8000;0.2475;4.0092;
1265.1000;0.2507;4.0117;
1265.4000;0.2483;4.0117;
1265.7000;0.2458;4.0042;
1266.0000;0.2507;4.0192;
1266.3000;0.2320;3.9740;
1266.6000;0.2466;4.0142;
1266.9000;0.2442;4.0016;
1267.2000;0.2466;4.0092;
1267.5000;0.2483;4.0117;
1267.8000;0.2499;4.0067;
1268.1000;0.2475;3.9941;
1268.4000;0.2466;3.9865;
1268.7000;0.2475;3.9916;
1269.0000;0.2466;3.9891;
1269.3000;0.2483;3.9840;
1269.6000;0.2499;3.9815;
1269.9000;0.2491;3.9815;
1270.2000;0.2434;3.9765;
1270.5000;0.2466;3.9840;
1270.8000;0.2458;3.9891;
1271.1000;0.2450;4.0016;
1271.4000;0.2475;4.0167;
1271.7000;0.2475;4.0167;
1272.0000;0.2385;3.9815;
1272.3000;0.2450;4.0067;
1272.6000;0.2450;4.0042;
1272.9000;0.2556;4.0343;
1273.2000;0.2475;4.0042;
1273.5000;0.2499;4.0092;
1273.8000;0.2499;4.0117;
1274.1000;0.2556;4.0268;
1274.4000;0.2483;4.0042;
1274.7000;0.2426;3.9991;
1275.0000;0.2466;4.0016;
1275.3000;0.2458;3.9891;
1275.6000;0.2491;3.9966;
1275.9000;0.2491;4.0016;
1276.2000;0.2483;3.9941;
1276.5000;0.2442;3.9916;
1276.8000;0.2483;4.0016;
1277.1000;0.2466;3.9991;
1277.4000;0.2450;3.9991;
1277.7000;0.2515;4.0167;
1278.0000;0.2475;4.0117;
1278.3000;0.2483;4.0092;
1278.6000;0.2361;3.9689;
1278.9000;0.2580;4.0318;
1279.2000;0.2515;4.0142;
1279.5000;0.2385;3.9765;
1279.8000;0.2491;4.0117;
1280.1000;0.2483;4.0016;
1280.4000;0.2426;3.9891;
1280.7000;0.2466;3.9991;
1281.0000;0.2507;4.0142;
1281.3000;0.2475;3.9966;
1281.6000;0.2458;3.9991;
1281.9000;0.2466;3.9966;
1282.2000;0.2483;3.9916;
1282.5000;0.2458;3.9790;
1282.8000;0.2483;3.9891;
1283.1000;0.2491;3.9916;
1283.4000;0.2499;4.0016;
1283.7000;0.2458;4.0016;
1284.0000;0.2515;4.0218;
1284.3000;0.2475;4.0016;
1284.6000;0.2491;4.0067;
1284.9000;0.2483;4.0067;
1285.2000;0.2507;4.0016;
1285.5000;0.2466;4.0016;
1285.8000;0.2475;3.9941;
1286.1000;0.2491;3.9941;
1286.4000;0.2466;3.9966;
1286.7000;0.2466;3.9941;
1287.0000;0.2458;3.9941;
1287.3000;0.2475;4.0067;
1287.6000;0.2466;4.0117;
1287.9000;0.2434;3.9966;
1288.2000;0.2458;3.9891;
1288.5000;0.2491;3.9941;
1288.8000;0.2361;3.9639;
1289.1000;0.2466;3.9865;
1289.4000;0.2458;3.9865;
1289.7000;0.2491;3.9916;
1290.0000;0.2458;3.9891;
1290.3000;0.2442;3.9815;
1290.6000;0.2442;3.9865;
1290.9000;0.2466;3.9916;
1291.2000;0.2466;3.9891;
1291.5000;0.2466;3.9790;
1291.8000;0.2499;3.9790;
1292.1000;0.2475;3.9715;
1292.4000;0.2499;3.9740;
1292.7000;0.2491;3.9765;
1293.0000;0.2466;3.9664;
1293.3000;0.2475;3.9715;
1293.6000;0.2483;3.9790;
1293.9000;0.2475;3.9790;
1294.2000;0.2377;3.9589;
1294.5000;0.2491;3.9916;
1294.8000;0.2540;4.0067;
1295.1000;0.2475;3.9840;
1295.4000;0.2475;3.9840;
1295.7000;0.2483;3.9865;
1296.0000;0.2556;4.0117;
1296.3000;0.2548;4.0117;
1296.6000;0.2475;3.9916;
1296.9000;0.2450;3.9916;
1297.2000;0.2304;3.9589;
1297.5000;0.2450;3.9916;
1297.8000;0.2426;3.9815;
1298.1000;0.2556;4.0092;
1298.4000;0.2475;3.9916;
1298.7000;0.2466;3.9966;
1299.0000;0.2491;4.0042;
1299.3000;0.2466;4.0016;
1299.6000;0.2483;3.9991;
1299.9000;0.2499;4.0042;
1300.2000;0.2458;3.9941;
1300.5000;0.2491;3.9916;
1300.8000;0.2491;3.9966;
1301.1000;0.2442;3.9790;
1301.4000;0.2466;3.9765;
1301.7000;0.2458;3.9765;
1302.0000;0.2450;3.9740;
1302.3000;0.2499;3.9916;
1302.6000;0.2564;4.0218;
1302.9000;0.2491;4.0016;
1303.2000;0.2475;3.9966;
1303.5000;0.2483;4.0042;
1303.8000;0.2475;4.0092;
1304.1000;0.2483;4.0092;
1304.4000;0.2475;4.0092;
1304.7000;0.2507;4.0117;
1305.0000;0.2483;4.0067;
1305.3000;0.2466;4.0042;
1305.6000;0.2401;3.9916;
1305.9000;0.2385;3.9815;
1306.2000;0.2475;4.0142;
1306.5000;0.2499;4.0117;
1306.8000;0.2418;4.0067;
1307.1000;0.2458;4.0117;
1307.4000;0.2475;4.0016;
1307.7000;0.2532;4.0092;
1308.0000;0.2475;3.9966;
1308.3000;0.2499;4.0092;
1308.6000;0.2434;3.9991;
1308.9000;0.2434;4.0042;
1309.2000;0.2426;4.0092;
1309.5000;0.2393;3.9941;
1309.8000;0.2466;3.9941;
1310.1000;0.2491;4.0167;
1310.4000;0.2466;4.0016;
1310.7000;0.2401;3.9891;
1311.0000;0.2466;3.9966;
1311.3000;0.2466;3.9991;
1311.6000;0.2475;4.0016;
1311.9000;0.2483;4.0067;
1312.2000;0.2475;4.0016;
1312.5000;0.2458;4.0016;
1312.8000;0.2475;4.0092;
1313.1000;0.2393;3.9891;
1313.4000;0.2466;4.0167;
1313.7000;0.2572;4.0519;
1314.0000;0.2491;4.0268;
1314.3000;0.2540;4.0343;
1314.6000;0.2483;4.0192;
1314.9000;0.2475;4.0142;
1315.2000;0.2466;4.0092;
1315.5000;0.2491;4.0167;
1315.8000;0.2475;4.0117;
1316.1000;0.2523;4.0268;
1316.4000;0.2458;4.0167;
1316.7000;0.2491;4.0268;
1317.0000;0.2491;4.0444;
1317.3000;0.2507;4.0469;
1317.6000;0.2499;4.0343;
1317.9000;0.2466;4.0268;
1318.2000;0.2450;4.0268;
1318.5000;0.2475;4.0318;
1318.8000;0.2475;4.0293;
1319.1000;0.2515;4.0444;
1319.4000;0.2466;4.0243;
1319.7000;0.2450;4.0218;
1320.0000;0.2466;4.0142;
1320.3000;0.2377;3.9865;
1320.6000;0.2483;4.0067;
1320.9000;0.2548;4.0293;
1321.2000;0.2491;4.0092;
1321.5000;0.2475;4.0117;
1321.8000;0.2491;4.0167;
1322.1000;0.2466;4.0142;
1322.4000;0.2475;4.0268;
1322.7000;0.2450;4.0218;
1323.0000;0.2466;4.0318;
1323.3000;0.2507;4.0368;
1323.6000;0.2483;4.0167;
1323.9000;0.2466;4.0092;
1324.2000;0.2458;4.0142;
1324.5000;0.2483;4.0218;
1324.8000;0.2475;4.0167;
1325.1000;0.2491;4.0142;
1325.4000;0.2466;4.0092;
1325.7000;0.2466;4.0042;
1326.0000;0.2483;4.0092;
1326.3000;0.2475;4.0067;
1326.6000;0.2491;4.0092;
1326.9000;0.2475;4.0117;
1327.2000;0.2475;4.0042;
1327.5000;0.2491;3.9991;
1327.8000;0.2507;4.0092;
1328.1000;0.2507;4.0192;
1328.4000;0.2458;4.0142;
1328.7000;0.2466;4.0192;
1329.0000;0.2475;4.0117;
1329.3000;0.2458;4.0192;
1329.6000;0.2418;3.9991;
1329.9000;0.2426;3.9916;
1330.2000;0.2442;3.9941;
1330.5000;0.2458;4.0042;
1330.8000;0.2475;3.9991;
1331.1000;0.2450;3.9865;
1331.4000;0.2483;3.9840;
1331.7000;0.2499;3.9815;
1332.0000;0.2483;3.9815;
1332.3000;0.2442;3.9715;
1332.6000;0.2491;3.9815;
1332.9000;0.2466;3.9916;
1333.2000;0.2499;4.0042;
1333.5000;0.2393;3.9790;
1333.8000;0.2442;3.9991;
1334.1000;0.2450;4.0067;
1334.4000;0.2466;4.0067;
1334.7000;0.2442;4.0042;
1335.0000;0.2491;4.0167;
1335.3000;0.2580;4.0419;
1335.6000;0.2458;4.0016;
1335.9000;0.2434;4.0067;
1336.2000;0.2580;4.0368;
1336.5000;0.2450;4.0016;
1336.8000;0.2458;4.0016;
1337.1000;0.2458;3.9966;
1337.4000;0.2483;4.0067;
1337.7000;0.2475;4.0142;
1338.0000;0.2491;4.0218;
1338.3000;0.2540;4.0167;
1338.6000;0.2458;4.0042;
1338.9000;0.2466;4.0016;
1339.2000;0.2507;4.0192;
1339.5000;0.2458;4.0016;
1339.8000;0.2450;3.9991;
1340.1000;0.2475;4.0067;
1340.4000;0.2466;4.0067;
1340.7000;0.2483;4.0192;
1341.0000;0.2499;4.0243;
1341.3000;0.2458;4.0117;
1341.6000;0.2491;4.0192;
1341.9000;0.2507;4.0243;
1342.2000;0.2466;4.0192;
1342.5000;0.2450;4.0067;
1342.8000;0.2442;4.0042;
1343.1000;0.2483;4.0167;
1343.4000;0.2475;4.0218;
1343.7000;0.2450;4.0218;
1344.0000;0.2466;4.0293;
1344.3000;0.2540;4.0494;
1344.6000;0.2458;4.0243;
1344.9000;0.2475;4.0268;
1345.2000;0.2491;4.0318;
1345.5000;0.2466;4.0293;
1345.8000;0.2377;4.0092;
1346.1000;0.2466;4.0368;
1346.4000;0.2466;4.0419;
1346.7000;0.2475;4.0394;
1347.0000;0.2434;4.0293;
1347.3000;0.2507;4.0419;
1347.6000;0.2458;4.0218;
1347.9000;0.2458;4.0117;
1348.2000;0.2475;4.0192;
1348.5000;0.2475;4.0218;
1348.8000;0.2597;4.0519;
1349.1000;0.2475;4.0167;
1349.4000;0.2475;4.0117;
1349.7000;0.2491;4.0243;
1350.0000;0.2466;4.0142;
1350.3000;0.2475;4.0192;
1350.6000;0.2466;4.0142;
1350.9000;0.2475;4.0293;
1351.2000;0.2491;4.0419;
1351.5000;0.2475;4.0394;
1351.8000;0.2450;4.0293;
1352.1000;0.2499;4.0293;
1352.4000;0.2466;4.0142;
1352.7000;0.2483;4.0167;
1353.0000;0.2491;4.0167;
1353.3000;0.2466;4.0067;
1353.6000;0.2434;4.0042;
1353.9000;0.2523;4.0343;
1354.2000;0.2475;4.0293;
1354.5000;0.2475;4.0243;
1354.8000;0.2491;4.0243;
1355.1000;0.2483;4.0167;
1355.4000;0.2450;4.0092;
1355.7000;0.2483;4.0142;
1356.0000;0.2491;4.0142;
1356.3000;0.2540;4.0343;
1356.6000;0.2458;4.0142;
1356.9000;0.2466;4.0042;
1357.2000;0.2580;4.0268;
1357.5000;0.2475;3.9991;
1357.8000;0.2442;3.9991;
1358.1000;0.2475;4.0092;
1358.4000;0.2466;4.0092;
1358.7000;0.2466;4.0042;
1359.0000;0.2475;4.0016;
1359.3000;0.2475;4.0117;
1359.6000;0.2475;4.0042;
1359.9000;0.2491;4.0092;
1360.2000;0.2434;3.9966;
1360.5000;0.2466;4.0192;
1360.8000;0.2548;4.0444;
1361.1000;0.2483;4.0142;
1361.4000;0.2401;3.9891;
1361.7000;0.2393;3.9891;
1362.0000;0.2409;4.0016;
1362.3000;0.2475;4.0192;
1362.6000;0.2450;4.0117;
1362.9000;0.2450;4.0142;
1363.2000;0.2491;4.0243;
1363.5000;0.2458;4.0042;
1363.8000;0.2475;4.0067;
1364.1000;0.2499;4.0067;
1364.4000;0.2483;4.0042;
1364.7000;0.2548;4.0268;
1365.0000;0.2466;4.0117;
1365.3000;0.2475;4.0192;
1365.6000;0.2491;4.0192;
1365.9000;0.2450;3.9991;
1366.2000;0.2450;3.9941;
1366.5000;0.2458;4.0016;
1366.8000;0.2466;4.0092;
1367.1000;0.2466;4.0243;
1367.4000;0.2458;4.0167;
1367.7000;0.2523;4.0293;
1368.0000;0.2475;4.0117;
1368.3000;0.2491;4.0117;
1368.6000;0.2458;4.0016;
1368.9000;0.2466;3.9991;
1369.2000;0.2475;4.0016;
1369.5000;0.2450;3.9991;
1369.8000;0.2483;4.0067;
1370.1000;0.2466;4.0092;
1370.4000;0.2483;4.0067;
1370.7000;0.2475;3.9991;
1371.0000;0.2483;3.9941;
1371.3000;0.2450;3.9815;
1371.6000;0.2475;3.9865;
1371.9000;0.2393;3.9740;
1372.2000;0.2515;3.9991;
1372.5000;0.2491;4.0042;
1372.8000;0.2466;4.0016;
1373.1000;0.2466;4.0016;
1373.4000;0.2466;4.0016;
1373.7000;0.2491;4.0117;
1374.0000;0.2450;4.0092;
1374.3000;0.2466;4.0218;
1374.6000;0.2483;4.0218;
1374.9000;0.2475;4.0142;
1375.2000;0.2466;4.0067;
1375.5000;0.2458;4.0067;
1375.8000;0.2450;4.0117;
1376.1000;0.2491;4.0218;
1376.4000;0.2458;4.0042;
1376.7000;0.2589;4.0419;
1377.0000;0.2466;4.0142;
1377.3000;0.2458;4.0218;
1377.6000;0.2466;4.0218;
1377.9000;0.2409;3.9966;
1378.2000;0.2491;4.0192;
1378.5000;0.2475;4.0167;
1378.8000;0.2499;4.0142;
1379.1000;0.2499;4.0117;
1379.4000;0.2540;4.0368;
1379.7000;0.2466;4.0218;
1380.0000;0.2507;4.0343;
1380.3000;0.2475;4.0268;
1380.6000;0.2483;4.0394;
1380.9000;0.2499;4.0394;
1381.2000;0.2450;4.0243;
1381.5000;0.2475;4.0293;
1381.8000;0.2466;4.0293;
1382.1000;0.2450;4.0318;
1382.4000;0.2418;4.0142;
1382.7000;0.2475;4.0293;
1383.0000;0.2450;4.0192;
1383.3000;0.2466;4.0192;
1383.6000;0.2491;4.0218;
1383.9000;0.2507;4.0142;
1384.2000;0.2450;3.9991;
1384.5000;0.2458;4.0067;
1384.8000;0.2483;4.0117;
1385.1000;0.2466;4.0067;
1385.4000;0.2572;4.0368;
1385.7000;0.2475;4.0117;
1386.0000;0.2450;4.0092;
1386.3000;0.2483;4.0142;
1386.6000;0.2450;4.0016;
1386.9000;0.2466;4.0016;
1387.2000;0.2475;4.0092;
1387.5000;0.2475;4.0092;
1387.8000;0.2458;4.0067;
1388.1000;0.2466;3.9966;
1388.4000;0.2450;3.9966;
1388.7000;0.2328;3.9513;
1389.0000;0.2466;3.9916;
1389.3000;0.2475;3.9815;
1389.6000;0.2475;3.9941;
1389.9000;0.2491;3.9966;
1390.2000;0.2507;4.0092;
1390.5000;0.2418;3.9865;
1390.8000;0.2466;4.0117;
1391.1000;0.2507;4.0192;
1391.4000;0.2491;4.0142;
1391.7000;0.2483;4.0192;
1392.0000;0.2499;4.0243;
1392.3000;0.2475;4.0218;
1392.6000;0.2458;4.0293;
1392.9000;0.2450;4.0368;
1393.2000;0.2426;4.0394;
1393.5000;0.2466;4.0494;
1393.8000;0.2507;4.0645;
1394.1000;0.2458;4.0494;
1394.4000;0.2458;4.0394;
1394.7000;0.2450;4.0268;
1395.0000;0.2491;4.0368;
1395.3000;0.2475;4.0293;
1395.6000;0.2393;4.0042;
1395.9000;0.2483;4.0243;
1396.2000;0.2475;4.0192;
1396.5000;0.2507;4.0293;
1396.8000;0.2475;4.0243;
1397.1000;0.2475;4.0318;
1397.4000;0.2483;4.0368;
1397.7000;0.2507;4.0419;
1398.0000;0.2483;4.0394;
1398.3000;0.2434;4.0243;
1398.6000;0.2369;4.0117;
1398.9000;0.2361;4.0016;
1399.2000;0.2483;4.0343;
1399.5000;0.2442;4.0192;
1399.8000;0.2450;4.0192;
