time/ms;Fluo/V;P700 deltaI/I x10³;
-199.8000;0.2491;3.9639;
-199.5000;0.2515;3.9664;
-199.2000;0.2458;3.9538;
-198.9000;0.2556;3.9815;
-198.6000;0.2458;3.9564;
-198.3000;0.2458;3.9488;
-198.0000;0.2540;3.9689;
-197.7000;0.2515;3.9715;
-197.4000;0.2556;3.9815;
-197.1000;0.2515;3.9715;
-196.8000;0.2491;3.9689;
-196.5000;0.2499;3.9790;
-196.2000;0.2507;3.9790;
-195.9000;0.2654;4.0218;
-195.6000;0.2483;3.9664;
-195.3000;0.2499;3.9564;
-195.0000;0.2507;3.9589;
-194.7000;0.2418;3.9413;
-194.4000;0.2499;3.9639;
-194.1000;0.2491;3.9689;
-193.8000;0.2499;3.9589;
-193.5000;0.2499;3.9488;
-193.2000;0.2507;3.9488;
-192.9000;0.2442;3.9337;
-192.6000;0.2491;3.9463;
-192.3000;0.2532;3.9538;
-192.0000;0.2515;3.9513;
-191.7000;0.2491;3.9463;
-191.4000;0.2483;3.9513;
-191.1000;0.2507;3.9463;
-190.8000;0.2507;3.9564;
-190.5000;0.2580;3.9715;
-190.2000;0.2540;3.9589;
-189.9000;0.2507;3.9538;
-189.6000;0.2662;3.9966;
-189.3000;0.2483;3.9463;
-189.0000;0.2532;3.9589;
-188.7000;0.2458;3.9362;
-188.4000;0.2532;3.9438;
-188.1000;0.2499;3.9438;
-187.8000;0.2458;3.9362;
-187.5000;0.2507;3.9488;
-187.2000;0.2532;3.9589;
-186.9000;0.2499;3.9538;
-186.6000;0.2491;3.9538;
-186.3000;0.2540;3.9715;
-186.0000;0.2507;3.9639;
-185.7000;0.2499;3.9614;
-185.4000;0.2572;3.9790;
-185.1000;0.2507;3.9689;
-184.8000;0.2491;3.9589;
-184.5000;0.2507;3.9664;
-184.2000;0.2548;3.9790;
-183.9000;0.2523;3.9715;
-183.6000;0.2540;3.9740;
-183.3000;0.2507;3.9614;
-183.0000;0.2499;3.9614;
-182.7000;0.2548;3.9639;
-182.4000;0.2499;3.9513;
-182.1000;0.2605;3.9840;
-181.8000;0.2499;3.9438;
-181.5000;0.2515;3.9513;
-181.2000;0.2523;3.9488;
-180.9000;0.2483;3.9438;
-180.6000;0.2499;3.9438;
-180.3000;0.2475;3.9413;
-180.0000;0.2515;3.9463;
-179.7000;0.2507;3.9463;
-179.4000;0.2499;3.9413;
-179.1000;0.2491;3.9438;
-178.8000;0.2466;3.9388;
-178.5000;0.2499;3.9488;
-178.2000;0.2507;3.9463;
-177.9000;0.2523;3.9614;
-177.6000;0.2499;3.9589;
-177.3000;0.2548;3.9664;
-177.0000;0.2580;3.9740;
-176.7000;0.2483;3.9413;
-176.4000;0.2458;3.9337;
-176.1000;0.2450;3.9211;
-175.8000;0.2597;3.9639;
-175.5000;0.2483;3.9237;
-175.2000;0.2515;3.9262;
-174.9000;0.2523;3.9337;
-174.6000;0.2483;3.9362;
-174.3000;0.2507;3.9438;
-174.0000;0.2499;3.9413;
-173.7000;0.2491;3.9388;
-173.4000;0.2564;3.9589;
-173.1000;0.2507;3.9463;
-172.8000;0.2515;3.9488;
-172.5000;0.2507;3.9589;
-172.2000;0.2466;3.9488;
-171.9000;0.2507;3.9689;
-171.6000;0.2483;3.9614;
-171.3000;0.2499;3.9614;
-171.0000;0.2499;3.9538;
-170.7000;0.2507;3.9614;
-170.4000;0.2507;3.9639;
-170.1000;0.2499;3.9664;
-169.8000;0.2507;3.9664;
-169.5000;0.2515;3.9664;
-169.2000;0.2507;3.9790;
-168.9000;0.2540;3.9790;
-168.6000;0.2499;3.9689;
-168.3000;0.2499;3.9639;
-168.0000;0.2515;3.9639;
-167.7000;0.2426;3.9463;
-167.4000;0.2548;3.9840;
-167.1000;0.2507;3.9740;
-166.8000;0.2491;3.9639;
-166.5000;0.2491;3.9614;
-166.2000;0.2466;3.9488;
-165.9000;0.2507;3.9488;
-165.6000;0.2564;3.9740;
-165.3000;0.2475;3.9589;
-165.0000;0.2507;3.9639;
-164.7000;0.2523;3.9689;
-164.4000;0.2515;3.9765;
-164.1000;0.2491;3.9740;
-163.8000;0.2418;3.9513;
-163.5000;0.2507;3.9740;
-163.2000;0.2515;3.9740;
-162.9000;0.2507;3.9664;
-162.6000;0.2491;3.9564;
-162.3000;0.2540;3.9689;
-162.0000;0.2499;3.9589;
-161.7000;0.2540;3.9614;
-161.4000;0.2491;3.9538;
-161.1000;0.2532;3.9639;
-160.8000;0.2515;3.9664;
-160.5000;0.2499;3.9664;
-160.2000;0.2572;3.9840;
-159.9000;0.2523;3.9715;
-159.6000;0.2466;3.9538;
-159.3000;0.2515;3.9639;
-159.0000;0.2556;3.9815;
-158.7000;0.2483;3.9538;
-158.4000;0.2507;3.9614;
-158.1000;0.2515;3.9639;
-157.8000;0.2491;3.9538;
-157.5000;0.2499;3.9513;
-157.2000;0.2532;3.9664;
-156.9000;0.2499;3.9589;
-156.6000;0.2515;3.9564;
-156.3000;0.2507;3.9538;
-156.0000;0.2507;3.9564;
-155.7000;0.2515;3.9614;
-155.4000;0.2483;3.9488;
-155.1000;0.2491;3.9463;
-154.8000;0.2507;3.9538;
-154.5000;0.2475;3.9538;
-154.2000;0.2515;3.9614;
-153.9000;0.2572;3.9740;
-153.6000;0.2499;3.9438;
-153.3000;0.2475;3.9337;
-153.0000;0.2434;3.9287;
-152.7000;0.2499;3.9438;
-152.4000;0.2499;3.9337;
-152.1000;0.2475;3.9287;
-151.8000;0.2564;3.9538;
-151.5000;0.2523;3.9438;
-151.2000;0.2466;3.9287;
-150.9000;0.2434;3.9161;
-150.6000;0.2532;3.9463;
-150.3000;0.2515;3.9362;
-150.0000;0.2589;3.9538;
-149.7000;0.2523;3.9362;
-149.4000;0.2499;3.9287;
-149.1000;0.2499;3.9413;
-148.8000;0.2466;3.9388;
-148.5000;0.2515;3.9538;
-148.2000;0.2532;3.9538;
-147.9000;0.2532;3.9538;
-147.6000;0.2491;3.9438;
-147.3000;0.2491;3.9463;
-147.0000;0.2507;3.9564;
-146.7000;0.2499;3.9639;
-146.4000;0.2515;3.9689;
-146.1000;0.2515;3.9589;
-145.8000;0.2491;3.9538;
-145.5000;0.2515;3.9513;
-145.2000;0.2483;3.9362;
-144.9000;0.2499;3.9488;
-144.6000;0.2491;3.9438;
-144.3000;0.2556;3.9589;
-144.0000;0.2523;3.9488;
-143.7000;0.2426;3.9186;
-143.4000;0.2507;3.9362;
-143.1000;0.2499;3.9438;
-142.8000;0.2499;3.9538;
-142.5000;0.2507;3.9564;
-142.2000;0.2523;3.9664;
-141.9000;0.2532;3.9689;
-141.6000;0.2507;3.9564;
-141.3000;0.2515;3.9564;
-141.0000;0.2483;3.9488;
-140.7000;0.2515;3.9538;
-140.4000;0.2523;3.9513;
-140.1000;0.2499;3.9538;
-139.8000;0.2491;3.9463;
-139.5000;0.2507;3.9463;
-139.2000;0.2540;3.9639;
-138.9000;0.2499;3.9564;
-138.6000;0.2499;3.9564;
-138.3000;0.2491;3.9488;
-138.0000;0.2442;3.9312;
-137.7000;0.2515;3.9513;
-137.4000;0.2491;3.9362;
-137.1000;0.2499;3.9413;
-136.8000;0.2532;3.9639;
-136.5000;0.2515;3.9639;
-136.2000;0.2483;3.9513;
-135.9000;0.2499;3.9589;
-135.6000;0.2532;3.9740;
-135.3000;0.2515;3.9664;
-135.0000;0.2499;3.9589;
-134.7000;0.2450;3.9287;
-134.4000;0.2491;3.9664;
-134.1000;0.2515;3.9715;
-133.8000;0.2499;3.9765;
-133.5000;0.2580;3.9966;
-133.2000;0.2532;3.9765;
-132.9000;0.2515;3.9715;
-132.6000;0.2523;3.9765;
-132.3000;0.2515;3.9664;
-132.0000;0.2491;3.9538;
-131.7000;0.2442;3.9438;
-131.4000;0.2499;3.9639;
-131.1000;0.2491;3.9564;
-130.8000;0.2466;3.9513;
-130.5000;0.2475;3.9564;
-130.2000;0.2442;3.9388;
-129.9000;0.2523;3.9639;
-129.6000;0.2507;3.9639;
-129.3000;0.2499;3.9614;
-129.0000;0.2532;3.9765;
-128.7000;0.2515;3.9765;
-128.4000;0.2426;3.9513;
-128.1000;0.2499;3.9639;
-127.8000;0.2507;3.9639;
-127.5000;0.2523;3.9639;
-127.2000;0.2548;3.9740;
-126.9000;0.2491;3.9664;
-126.6000;0.2556;3.9840;
-126.3000;0.2491;3.9689;
-126.0000;0.2507;3.9639;
-125.7000;0.2499;3.9614;
-125.4000;0.2499;3.9463;
-125.1000;0.2523;3.9513;
-124.8000;0.2499;3.9463;
-124.5000;0.2499;3.9463;
-124.2000;0.2548;3.9564;
-123.9000;0.2532;3.9538;
-123.6000;0.2499;3.9362;
-123.3000;0.2507;3.9463;
-123.0000;0.2499;3.9589;
-122.7000;0.2515;3.9715;
-122.4000;0.2491;3.9689;
-122.1000;0.2532;3.9689;
-121.8000;0.2507;3.9513;
-121.5000;0.2523;3.9538;
-121.2000;0.2532;3.9614;
-120.9000;0.2409;3.9186;
-120.6000;0.2499;3.9488;
-120.3000;0.2466;3.9438;
-120.0000;0.2515;3.9538;
-119.7000;0.2499;3.9538;
-119.4000;0.2491;3.9564;
-119.1000;0.2515;3.9564;
-118.8000;0.2515;3.9564;
-118.5000;0.2515;3.9564;
-118.2000;0.2507;3.9589;
-117.9000;0.2499;3.9538;
-117.6000;0.2507;3.9639;
-117.3000;0.2434;3.9463;
-117.0000;0.2507;3.9639;
-116.7000;0.2418;3.9413;
-116.4000;0.2515;3.9664;
-116.1000;0.2507;3.9564;
-115.8000;0.2483;3.9488;
-115.5000;0.2507;3.9589;
-115.2000;0.2605;3.9840;
-114.9000;0.2523;3.9614;
-114.6000;0.2532;3.9589;
-114.3000;0.2499;3.9513;
-114.0000;0.2491;3.9589;
-113.7000;0.2548;3.9614;
-113.4000;0.2507;3.9488;
-113.1000;0.2580;3.9664;
-112.8000;0.2507;3.9564;
-112.5000;0.2507;3.9513;
-112.2000;0.2532;3.9538;
-111.9000;0.2515;3.9463;
-111.6000;0.2507;3.9564;
-111.3000;0.2507;3.9564;
-111.0000;0.2523;3.9639;
-110.7000;0.2491;3.9538;
-110.4000;0.2499;3.9538;
-110.1000;0.2483;3.9513;
-109.8000;0.2466;3.9513;
-109.5000;0.2515;3.9639;
-109.2000;0.2475;3.9538;
-108.9000;0.2499;3.9639;
-108.6000;0.2540;3.9715;
-108.3000;0.2515;3.9639;
-108.0000;0.2556;3.9715;
-107.7000;0.2621;3.9865;
-107.4000;0.2507;3.9564;
-107.1000;0.2507;3.9664;
-106.8000;0.2491;3.9664;
-106.5000;0.2499;3.9740;
-106.2000;0.2491;3.9664;
-105.9000;0.2491;3.9664;
-105.6000;0.2507;3.9715;
-105.3000;0.2499;3.9664;
-105.0000;0.2499;3.9639;
-104.7000;0.2515;3.9715;
-104.4000;0.2458;3.9589;
-104.1000;0.2499;3.9715;
-103.8000;0.2532;3.9815;
-103.5000;0.2507;3.9689;
-103.2000;0.2483;3.9564;
-102.9000;0.2507;3.9614;
-102.6000;0.2515;3.9664;
-102.3000;0.2515;3.9614;
-102.0000;0.2507;3.9564;
-101.7000;0.2507;3.9564;
-101.4000;0.2523;3.9589;
-101.1000;0.2523;3.9614;
-100.8000;0.2564;3.9689;
-100.5000;0.2475;3.9513;
-100.2000;0.2540;3.9564;
-99.9000;0.2515;3.9513;
-99.6000;0.2532;3.9488;
-99.3000;0.2499;3.9413;
-99.0000;0.2515;3.9438;
-98.7000;0.2515;3.9438;
-98.4000;0.2507;3.9463;
-98.1000;0.2515;3.9388;
-97.8000;0.2499;3.9413;
-97.5000;0.2532;3.9488;
-97.2000;0.2499;3.9463;
-96.9000;0.2532;3.9564;
-96.6000;0.2483;3.9488;
-96.3000;0.2564;3.9765;
-96.0000;0.2507;3.9614;
-95.7000;0.2475;3.9589;
-95.4000;0.2499;3.9715;
-95.1000;0.2515;3.9740;
-94.8000;0.2548;3.9715;
-94.5000;0.2507;3.9664;
-94.2000;0.2475;3.9639;
-93.9000;0.2605;4.0016;
-93.6000;0.2507;3.9689;
-93.3000;0.2369;3.9362;
-93.0000;0.2491;3.9765;
-92.7000;0.2385;3.9488;
-92.4000;0.2483;3.9664;
-92.1000;0.2515;3.9765;
-91.8000;0.2523;3.9740;
-91.5000;0.2499;3.9538;
-91.2000;0.2523;3.9614;
-90.9000;0.2532;3.9639;
-90.6000;0.2499;3.9513;
-90.3000;0.2491;3.9513;
-90.0000;0.2515;3.9513;
-89.7000;0.2491;3.9388;
-89.4000;0.2491;3.9513;
-89.1000;0.2483;3.9564;
-88.8000;0.2491;3.9513;
-88.5000;0.2499;3.9513;
-88.2000;0.2483;3.9538;
-87.9000;0.2515;3.9589;
-87.6000;0.2507;3.9639;
-87.3000;0.2515;3.9740;
-87.0000;0.2507;3.9740;
-86.7000;0.2499;3.9664;
-86.4000;0.2475;3.9589;
-86.1000;0.2475;3.9639;
-85.8000;0.2605;3.9916;
-85.5000;0.2499;3.9664;
-85.2000;0.2491;3.9715;
-84.9000;0.2483;3.9740;
-84.6000;0.2499;3.9765;
-84.3000;0.2532;3.9765;
-84.0000;0.2491;3.9689;
-83.7000;0.2499;3.9740;
-83.4000;0.2499;3.9715;
-83.1000;0.2483;3.9614;
-82.8000;0.2507;3.9689;
-82.5000;0.2507;3.9639;
-82.2000;0.2507;3.9664;
-81.9000;0.2491;3.9689;
-81.6000;0.2499;3.9765;
-81.3000;0.2483;3.9715;
-81.0000;0.2499;3.9740;
-80.7000;0.2532;3.9765;
-80.4000;0.2491;3.9715;
-80.1000;0.2483;3.9589;
-79.8000;0.2515;3.9614;
-79.5000;0.2507;3.9664;
-79.2000;0.2556;3.9765;
-78.9000;0.2491;3.9639;
-78.6000;0.2515;3.9715;
-78.3000;0.2507;3.9740;
-78.0000;0.2507;3.9740;
-77.7000;0.2491;3.9715;
-77.4000;0.2532;3.9765;
-77.1000;0.2499;3.9664;
-76.8000;0.2515;3.9715;
-76.5000;0.2515;3.9689;
-76.2000;0.2499;3.9715;
-75.9000;0.2515;3.9689;
-75.6000;0.2507;3.9538;
-75.3000;0.2491;3.9463;
-75.0000;0.2475;3.9413;
-74.7000;0.2499;3.9538;
-74.4000;0.2499;3.9312;
-74.1000;0.2589;3.9564;
-73.8000;0.2515;3.9362;
-73.5000;0.2507;3.9388;
-73.2000;0.2523;3.9337;
-72.9000;0.2499;3.9388;
-72.6000;0.2499;3.9463;
-72.3000;0.2507;3.9463;
-72.0000;0.2580;3.9689;
-71.7000;0.2589;3.9840;
-71.4000;0.2532;3.9639;
-71.1000;0.2458;3.9488;
-70.8000;0.2556;3.9639;
-70.5000;0.2491;3.9463;
-70.2000;0.2491;3.9488;
-69.9000;0.2491;3.9438;
-69.6000;0.2483;3.9513;
-69.3000;0.2515;3.9538;
-69.0000;0.2483;3.9463;
-68.7000;0.2466;3.9287;
-68.4000;0.2507;3.9488;
-68.1000;0.2426;3.9413;
-67.8000;0.2523;3.9614;
-67.5000;0.2572;3.9765;
-67.2000;0.2499;3.9664;
-66.9000;0.2483;3.9614;
-66.6000;0.2450;3.9639;
-66.3000;0.2466;3.9689;
-66.0000;0.2491;3.9715;
-65.7000;0.2507;3.9740;
-65.4000;0.2458;3.9538;
-65.1000;0.2450;3.9513;
-64.8000;0.2491;3.9639;
-64.5000;0.2507;3.9740;
-64.2000;0.2532;3.9715;
-63.9000;0.2507;3.9614;
-63.6000;0.2499;3.9614;
-63.3000;0.2491;3.9589;
-63.0000;0.2515;3.9614;
-62.7000;0.2507;3.9564;
-62.4000;0.2507;3.9513;
-62.1000;0.2515;3.9589;
-61.8000;0.2466;3.9438;
-61.5000;0.2491;3.9614;
-61.2000;0.2418;3.9413;
-60.9000;0.2499;3.9589;
-60.6000;0.2475;3.9614;
-60.3000;0.2523;3.9765;
-60.0000;0.2483;3.9664;
-59.7000;0.2515;3.9740;
-59.4000;0.2564;3.9891;
-59.1000;0.2507;3.9689;
-58.8000;0.2515;3.9689;
-58.5000;0.2499;3.9614;
-58.2000;0.2499;3.9614;
-57.9000;0.2532;3.9664;
-57.6000;0.2499;3.9639;
-57.3000;0.2572;3.9941;
-57.0000;0.2507;3.9865;
-56.7000;0.2548;3.9966;
-56.4000;0.2515;3.9865;
-56.1000;0.2515;3.9840;
-55.8000;0.2597;3.9966;
-55.5000;0.2499;3.9564;
-55.2000;0.2499;3.9488;
-54.9000;0.2458;3.9413;
-54.6000;0.2499;3.9513;
-54.3000;0.2515;3.9614;
-54.0000;0.2458;3.9538;
-53.7000;0.2507;3.9765;
-53.4000;0.2515;3.9790;
-53.1000;0.2426;3.9564;
-52.8000;0.2507;3.9765;
-52.5000;0.2507;3.9815;
-52.2000;0.2475;3.9689;
-51.9000;0.2499;3.9740;
-51.6000;0.2532;3.9840;
-51.3000;0.2475;3.9790;
-51.0000;0.2499;3.9865;
-50.7000;0.2499;3.9740;
-50.4000;0.2418;3.9513;
-50.1000;0.2491;3.9740;
-49.8000;0.2523;3.9840;
-49.5000;0.2483;3.9689;
-49.2000;0.2499;3.9815;
-48.9000;0.2450;3.9589;
-48.6000;0.2515;3.9740;
-48.3000;0.2499;3.9689;
-48.0000;0.2507;3.9614;
-47.7000;0.2613;3.9966;
-47.4000;0.2515;3.9715;
-47.1000;0.2580;3.9840;
-46.8000;0.2491;3.9664;
-46.5000;0.2483;3.9564;
-46.2000;0.2515;3.9664;
-45.9000;0.2491;3.9614;
-45.6000;0.2491;3.9538;
-45.3000;0.2385;3.9388;
-45.0000;0.2515;3.9715;
-44.7000;0.2597;4.0067;
-44.4000;0.2499;3.9740;
-44.1000;0.2393;3.9362;
-43.8000;0.2499;3.9639;
-43.5000;0.2597;3.9941;
-43.2000;0.2507;3.9715;
-42.9000;0.2515;3.9639;
-42.6000;0.2556;3.9740;
-42.3000;0.2483;3.9538;
-42.0000;0.2580;3.9840;
-41.7000;0.2548;3.9740;
-41.4000;0.2483;3.9564;
-41.1000;0.2523;3.9664;
-40.8000;0.2499;3.9564;
-40.5000;0.2507;3.9689;
-40.2000;0.2499;3.9689;
-39.9000;0.2589;3.9966;
-39.6000;0.2507;3.9740;
-39.3000;0.2458;3.9488;
-39.0000;0.2499;3.9538;
-38.7000;0.2499;3.9564;
-38.4000;0.2499;3.9538;
-38.1000;0.2523;3.9488;
-37.8000;0.2507;3.9438;
-37.5000;0.2499;3.9438;
-37.2000;0.2499;3.9388;
-36.9000;0.2532;3.9413;
-36.6000;0.2523;3.9438;
-36.3000;0.2491;3.9362;
-36.0000;0.2499;3.9513;
-35.7000;0.2507;3.9639;
-35.4000;0.2507;3.9689;
-35.1000;0.2499;3.9614;
-34.8000;0.2515;3.9589;
-34.5000;0.2491;3.9463;
-34.2000;0.2589;3.9740;
-33.9000;0.2515;3.9438;
-33.6000;0.2491;3.9337;
-33.3000;0.2507;3.9388;
-33.0000;0.2523;3.9463;
-32.7000;0.2491;3.9388;
-32.4000;0.2483;3.9413;
-32.1000;0.2499;3.9463;
-31.8000;0.2458;3.9337;
-31.5000;0.2523;3.9463;
-31.2000;0.2515;3.9413;
-30.9000;0.2491;3.9488;
-30.6000;0.2491;3.9488;
-30.3000;0.2507;3.9639;
-30.0000;0.2499;3.9589;
-29.7000;0.2499;3.9538;
-29.4000;0.2491;3.9538;
-29.1000;0.2515;3.9639;
-28.8000;0.2515;3.9614;
-28.5000;0.2483;3.9589;
-28.2000;0.2475;3.9564;
-27.9000;0.2491;3.9564;
-27.6000;0.2401;3.9362;
-27.3000;0.2507;3.9639;
-27.0000;0.2515;3.9664;
-26.7000;0.2491;3.9614;
-26.4000;0.2475;3.9488;
-26.1000;0.2499;3.9589;
-25.8000;0.2483;3.9413;
-25.5000;0.2507;3.9589;
-25.2000;0.2499;3.9639;
-24.9000;0.2491;3.9488;
-24.6000;0.2523;3.9513;
-24.3000;0.2637;3.9765;
-24.0000;0.2491;3.9337;
-23.7000;0.2532;3.9488;
-23.4000;0.2491;3.9488;
-23.1000;0.2418;3.9312;
-22.8000;0.2515;3.9639;
-22.5000;0.2475;3.9513;
-22.2000;0.2499;3.9538;
-21.9000;0.2499;3.9564;
-21.6000;0.2458;3.9488;
-21.3000;0.2491;3.9715;
-21.0000;0.2540;3.9815;
-20.7000;0.2499;3.9664;
-20.4000;0.2507;3.9689;
-20.1000;0.2491;3.9664;
-19.8000;0.2548;3.9865;
-19.5000;0.2499;3.9664;
-19.2000;0.2507;3.9614;
-18.9000;0.2491;3.9614;
-18.6000;0.2515;3.9664;
-18.3000;0.2507;3.9639;
-18.0000;0.2475;3.9538;
-17.7000;0.2515;3.9639;
-17.4000;0.2507;3.9589;
-17.1000;0.2507;3.9639;
-16.8000;0.2507;3.9639;
-16.5000;0.2491;3.9715;
-16.2000;0.2507;3.9765;
-15.9000;0.2523;3.9765;
-15.6000;0.2466;3.9513;
-15.3000;0.2499;3.9564;
-15.0000;0.2507;3.9614;
-14.7000;0.2507;3.9639;
-14.4000;0.2491;3.9614;
-14.1000;0.2491;3.9664;
-13.8000;0.2515;3.9664;
-13.5000;0.2532;3.9740;
-13.2000;0.2499;3.9664;
-12.9000;0.2483;3.9614;
-12.6000;0.2491;3.9564;
-12.3000;0.2499;3.9589;
-12.0000;0.2491;3.9538;
-11.7000;0.2515;3.9564;
-11.4000;0.2499;3.9438;
-11.1000;0.2499;3.9388;
-10.8000;0.2491;3.9488;
-10.5000;0.2491;3.9538;
-10.2000;0.2499;3.9564;
-9.9000;0.2507;3.9538;
-9.6000;0.2507;3.9639;
-9.3000;0.2499;3.9664;
-9.0000;0.2483;3.9564;
-8.7000;0.2475;3.9614;
-8.4000;0.2515;3.9589;
-8.1000;0.2507;3.9513;
-7.8000;0.2475;3.9438;
-7.5000;0.2491;3.9538;
-7.2000;0.2515;3.9538;
-6.9000;0.2540;3.9614;
-6.6000;0.2540;3.9614;
-6.3000;0.2507;3.9589;
-6.0000;0.2491;3.9513;
-5.7000;0.2507;3.9639;
-5.4000;0.2491;3.9639;
-5.1000;0.2499;3.9639;
-4.8000;0.2499;3.9715;
-4.5000;0.2564;3.9991;
-4.2000;0.2499;3.9740;
-3.9000;0.2393;3.9287;
-3.6000;0.2507;3.9589;
-3.3000;0.2540;3.9589;
-3.0000;0.2515;3.9513;
-2.7000;0.2499;3.9513;
-2.4000;0.2515;3.9513;
-2.1000;0.2499;3.9413;
-1.8000;0.2532;3.9513;
-1.5000;0.2483;3.9413;
-1.2000;0.2589;3.9765;
-0.9000;0.2523;3.9463;
-0.6000;0.2548;3.9488;
-0.3000;0.2564;3.9538;
0.0000;0.2564;3.9538;
0.3000;0.2548;3.9362;
0.6000;0.2532;3.9614;
0.9000;0.2426;3.9689;
1.2000;0.2564;4.0343;
1.5000;0.2580;4.0846;
1.8000;0.2523;4.0997;
2.1000;0.2589;4.1525;
2.4000;0.2621;4.1878;
2.7000;0.2580;4.1978;
3.0000;0.2613;4.2230;
3.3000;0.2654;4.2506;
3.6000;0.2646;4.2657;
3.9000;0.2646;4.2758;
4.2000;0.2670;4.2909;
4.5000;0.2654;4.2984;
4.8000;0.2678;4.3035;
5.1000;0.2670;4.3160;
5.4000;0.2629;4.3160;
5.7000;0.2678;4.3336;
6.0000;0.2670;4.3236;
6.3000;0.2719;4.3362;
6.6000;0.2678;4.3261;
6.9000;0.2670;4.3160;
7.2000;0.2670;4.3135;
7.5000;0.2646;4.3135;
7.8000;0.2670;4.3261;
8.1000;0.2694;4.3412;
8.4000;0.2702;4.3512;
8.7000;0.2702;4.3538;
9.0000;0.2646;4.3462;
9.3000;0.2694;4.3588;
9.6000;0.2686;4.3538;
9.9000;0.2702;4.3588;
10.2000;0.2694;4.3588;
10.5000;0.2711;4.3512;
10.8000;0.2727;4.3588;
11.1000;0.2686;4.3437;
11.4000;0.2711;4.3512;
11.7000;0.2686;4.3487;
12.0000;0.2678;4.3437;
12.3000;0.2694;4.3487;
12.6000;0.2678;4.3362;
12.9000;0.2694;4.3336;
13.2000;0.2711;4.3462;
13.5000;0.2694;4.3462;
13.8000;0.2743;4.3663;
14.1000;0.2686;4.3563;
14.4000;0.2702;4.3638;
14.7000;0.2678;4.3588;
15.0000;0.2629;4.3487;
15.3000;0.2654;4.3487;
15.6000;0.2694;4.3588;
15.9000;0.2711;4.3688;
16.2000;0.2629;4.3538;
16.5000;0.2654;4.3613;
16.8000;0.2702;4.3739;
17.1000;0.2711;4.3638;
17.4000;0.2727;4.3588;
17.7000;0.2678;4.3512;
18.0000;0.2637;4.3311;
18.3000;0.2670;4.3437;
18.6000;0.2613;4.3387;
18.9000;0.2694;4.3613;
19.2000;0.2654;4.3563;
19.5000;0.2686;4.3538;
19.8000;0.2686;4.3412;
20.1000;0.2670;4.3286;
20.4000;0.2719;4.3512;
20.7000;0.2662;4.3437;
21.0000;0.2702;4.3538;
21.3000;0.2686;4.3512;
21.6000;0.2662;4.3487;
21.9000;0.2670;4.3563;
22.2000;0.2719;4.3638;
22.5000;0.2719;4.3638;
22.8000;0.2670;4.3462;
23.1000;0.2808;4.3890;
23.4000;0.2743;4.3814;
23.7000;0.2694;4.3663;
24.0000;0.2694;4.3739;
24.3000;0.2768;4.3789;
24.6000;0.2686;4.3588;
24.9000;0.2678;4.3613;
25.2000;0.2727;4.3688;
25.5000;0.2678;4.3538;
25.8000;0.2613;4.3362;
26.1000;0.2768;4.3814;
26.4000;0.2711;4.3663;
26.7000;0.2694;4.3714;
27.0000;0.2694;4.3739;
27.3000;0.2711;4.3688;
27.6000;0.2686;4.3688;
27.9000;0.2686;4.3688;
28.2000;0.2662;4.3638;
28.5000;0.2556;4.3362;
28.8000;0.2678;4.3663;
29.1000;0.2686;4.3663;
29.4000;0.2662;4.3613;
29.7000;0.2678;4.3714;
30.0000;0.2686;4.3688;
30.3000;0.2662;4.3613;
30.6000;0.2670;4.3663;
30.9000;0.2678;4.3613;
31.2000;0.2662;4.3512;
31.5000;0.2637;4.3412;
31.8000;0.2694;4.3588;
32.1000;0.2719;4.3613;
32.4000;0.2694;4.3512;
32.7000;0.2735;4.3538;
33.0000;0.2678;4.3512;
33.3000;0.2678;4.3512;
33.6000;0.2678;4.3638;
33.9000;0.2678;4.3688;
34.2000;0.2621;4.3512;
34.5000;0.2694;4.3739;
34.8000;0.2678;4.3714;
35.1000;0.2613;4.3487;
35.4000;0.2678;4.3588;
35.7000;0.2686;4.3588;
36.0000;0.2678;4.3538;
36.3000;0.2686;4.3613;
36.6000;0.2621;4.3437;
36.9000;0.2662;4.3512;
37.2000;0.2678;4.3663;
37.5000;0.2662;4.3538;
37.8000;0.2686;4.3462;
38.1000;0.2662;4.3412;
38.4000;0.2711;4.3563;
38.7000;0.2670;4.3512;
39.0000;0.2670;4.3538;
39.3000;0.2654;4.3613;
39.6000;0.2662;4.3688;
39.9000;0.2670;4.3638;
40.2000;0.2670;4.3688;
40.5000;0.2686;4.3739;
40.8000;0.2686;4.3714;
41.1000;0.2686;4.3789;
41.4000;0.2686;4.3814;
41.7000;0.2694;4.3739;
42.0000;0.2629;4.3487;
42.3000;0.2702;4.3613;
42.6000;0.2759;4.3714;
42.9000;0.2702;4.3487;
43.2000;0.2686;4.3588;
43.5000;0.2678;4.3663;
43.8000;0.2605;4.3412;
44.1000;0.2662;4.3538;
44.4000;0.2686;4.3663;
44.7000;0.2694;4.3663;
45.0000;0.2686;4.3638;
45.3000;0.2694;4.3739;
45.6000;0.2686;4.3714;
45.9000;0.2702;4.3764;
46.2000;0.2719;4.3714;
46.5000;0.2694;4.3663;
46.8000;0.2694;4.3538;
47.1000;0.2686;4.3538;
47.4000;0.2686;4.3487;
47.7000;0.2686;4.3588;
48.0000;0.2662;4.3487;
48.3000;0.2751;4.3739;
48.6000;0.2702;4.3563;
48.9000;0.2784;4.3915;
49.2000;0.2670;4.3663;
49.5000;0.2719;4.3739;
49.8000;0.2670;4.3538;
50.1000;0.2572;4.3286;
50.4000;0.2580;4.3336;
50.7000;0.2678;4.3638;
51.0000;0.2637;4.3487;
51.3000;0.2564;4.3286;
51.6000;0.2694;4.3638;
51.9000;0.2662;4.3512;
52.2000;0.2662;4.3538;
52.5000;0.2743;4.3789;
52.8000;0.2702;4.3739;
53.1000;0.2654;4.3613;
53.4000;0.2711;4.3688;
53.7000;0.2694;4.3663;
54.0000;0.2686;4.3714;
54.3000;0.2670;4.3613;
54.6000;0.2727;4.3789;
54.9000;0.2678;4.3814;
55.2000;0.2654;4.3688;
55.5000;0.2662;4.3663;
55.8000;0.2678;4.3688;
56.1000;0.2702;4.3789;
56.4000;0.2694;4.3714;
56.7000;0.2629;4.3538;
57.0000;0.2670;4.3688;
57.3000;0.2580;4.3362;
57.6000;0.2694;4.3714;
57.9000;0.2678;4.3688;
58.2000;0.2654;4.3663;
58.5000;0.2702;4.3688;
58.8000;0.2743;4.3814;
59.1000;0.2686;4.3764;
59.4000;0.2662;4.3638;
59.7000;0.2670;4.3688;
60.0000;0.2678;4.3663;
60.3000;0.2678;4.3688;
60.6000;0.2735;4.3839;
60.9000;0.2686;4.3688;
61.2000;0.2686;4.3638;
61.5000;0.2702;4.3688;
61.8000;0.2678;4.3638;
62.1000;0.2662;4.3663;
62.4000;0.2694;4.3814;
62.7000;0.2686;4.3764;
63.0000;0.2686;4.3789;
63.3000;0.2702;4.3814;
63.6000;0.2694;4.3789;
63.9000;0.2686;4.3814;
64.2000;0.2662;4.3739;
64.5000;0.2686;4.3839;
64.8000;0.2678;4.3814;
65.1000;0.2670;4.3940;
65.4000;0.2784;4.4368;
65.7000;0.2670;4.3965;
66.0000;0.2686;4.3965;
66.3000;0.2702;4.3915;
66.6000;0.2694;4.3965;
66.9000;0.2711;4.3990;
67.2000;0.2678;4.3915;
67.5000;0.2694;4.3990;
67.8000;0.2678;4.3940;
68.1000;0.2686;4.3890;
68.4000;0.2808;4.4217;
68.7000;0.2702;4.3865;
69.0000;0.2702;4.3865;
69.3000;0.2694;4.3764;
69.6000;0.2662;4.3638;
69.9000;0.2833;4.4091;
70.2000;0.2678;4.3663;
70.5000;0.2670;4.3613;
70.8000;0.2629;4.3588;
71.1000;0.2686;4.3714;
71.4000;0.2686;4.3739;
71.7000;0.2670;4.3739;
72.0000;0.2702;4.3839;
72.3000;0.2694;4.3839;
72.6000;0.2719;4.3965;
72.9000;0.2621;4.3714;
73.2000;0.2686;4.3965;
73.5000;0.2686;4.4041;
73.8000;0.2670;4.3915;
74.1000;0.2686;4.3890;
74.4000;0.2694;4.3940;
74.7000;0.2662;4.3764;
75.0000;0.2702;4.3890;
75.3000;0.2776;4.4066;
75.6000;0.2654;4.3688;
75.9000;0.2662;4.3638;
76.2000;0.2670;4.3714;
76.5000;0.2678;4.3839;
76.8000;0.2678;4.3789;
77.1000;0.2670;4.3714;
77.4000;0.2654;4.3789;
77.7000;0.2662;4.3839;
78.0000;0.2694;4.3839;
78.3000;0.2702;4.3789;
78.6000;0.2646;4.3663;
78.9000;0.2678;4.3789;
79.2000;0.2670;4.3739;
79.5000;0.2678;4.3764;
79.8000;0.2629;4.3688;
80.1000;0.2670;4.3739;
80.4000;0.2670;4.3714;
80.7000;0.2686;4.3890;
81.0000;0.2686;4.3890;
81.3000;0.2654;4.3814;
81.6000;0.2686;4.3865;
81.9000;0.2719;4.3940;
82.2000;0.2637;4.3739;
82.5000;0.2694;4.3890;
82.8000;0.2808;4.4267;
83.1000;0.2727;4.4015;
83.4000;0.2662;4.3839;
83.7000;0.2735;4.3915;
84.0000;0.2662;4.3739;
84.3000;0.2646;4.3789;
84.6000;0.2751;4.4091;
84.9000;0.2654;4.3714;
85.2000;0.2654;4.3663;
85.5000;0.2686;4.3714;
85.8000;0.2686;4.3714;
86.1000;0.2654;4.3714;
86.4000;0.2621;4.3538;
86.7000;0.2702;4.3714;
87.0000;0.2670;4.3538;
87.3000;0.2711;4.3739;
87.6000;0.2597;4.3412;
87.9000;0.2686;4.3688;
88.2000;0.2670;4.3638;
88.5000;0.2637;4.3538;
88.8000;0.2662;4.3663;
89.1000;0.2751;4.3940;
89.4000;0.2646;4.3739;
89.7000;0.2686;4.3814;
90.0000;0.2654;4.3688;
90.3000;0.2678;4.3814;
90.6000;0.2654;4.3739;
90.9000;0.2532;4.3437;
91.2000;0.2670;4.3764;
91.5000;0.2711;4.3764;
91.8000;0.2646;4.3563;
92.1000;0.2678;4.3688;
92.4000;0.2564;4.3336;
92.7000;0.2613;4.3487;
93.0000;0.2670;4.3563;
93.3000;0.2678;4.3613;
93.6000;0.2646;4.3588;
93.9000;0.2686;4.3739;
94.2000;0.2686;4.3688;
94.5000;0.2621;4.3487;
94.8000;0.2613;4.3487;
95.1000;0.2678;4.3764;
95.4000;0.2637;4.3663;
95.7000;0.2678;4.3764;
96.0000;0.2670;4.3739;
96.3000;0.2702;4.3839;
96.6000;0.2670;4.3688;
96.9000;0.2694;4.3739;
97.2000;0.2670;4.3739;
97.5000;0.2621;4.3588;
97.8000;0.2694;4.3739;
98.1000;0.2678;4.3688;
98.4000;0.2613;4.3538;
98.7000;0.2662;4.3613;
99.0000;0.2678;4.3613;
99.3000;0.2670;4.3563;
99.6000;0.2678;4.3688;
99.9000;0.2670;4.3714;
100.2000;0.2621;4.3563;
100.5000;0.2662;4.3613;
100.8000;0.2637;4.3563;
101.1000;0.2694;4.3739;
101.4000;0.2654;4.3688;
101.7000;0.2686;4.3814;
102.0000;0.2686;4.3739;
102.3000;0.2686;4.3739;
102.6000;0.2711;4.3739;
102.9000;0.2702;4.3688;
103.2000;0.2694;4.3613;
103.5000;0.2678;4.3563;
103.8000;0.2702;4.3739;
104.1000;0.2670;4.3663;
104.4000;0.2678;4.3663;
104.7000;0.2678;4.3563;
105.0000;0.2662;4.3437;
105.3000;0.2694;4.3588;
105.6000;0.2702;4.3638;
105.9000;0.2670;4.3588;
106.2000;0.2694;4.3563;
106.5000;0.2686;4.3613;
106.8000;0.2694;4.3613;
107.1000;0.2694;4.3764;
107.4000;0.2694;4.3789;
107.7000;0.2702;4.3789;
108.0000;0.2686;4.3638;
108.3000;0.2686;4.3588;
108.6000;0.2694;4.3638;
108.9000;0.2637;4.3487;
109.2000;0.2646;4.3512;
109.5000;0.2711;4.3688;
109.8000;0.2678;4.3638;
110.1000;0.2662;4.3588;
110.4000;0.2678;4.3714;
110.7000;0.2702;4.3714;
111.0000;0.2646;4.3663;
111.3000;0.2646;4.3588;
111.6000;0.2572;4.3462;
111.9000;0.2670;4.3814;
112.2000;0.2629;4.3739;
112.5000;0.2662;4.3814;
112.8000;0.2678;4.3865;
113.1000;0.2670;4.3890;
113.4000;0.2564;4.3538;
113.7000;0.2646;4.3839;
114.0000;0.2670;4.3839;
114.3000;0.2727;4.3940;
114.6000;0.2678;4.3688;
114.9000;0.2654;4.3613;
115.2000;0.2833;4.4166;
115.5000;0.2670;4.3714;
115.8000;0.2670;4.3688;
116.1000;0.2719;4.3789;
116.4000;0.2637;4.3512;
116.7000;0.2662;4.3714;
117.0000;0.2711;4.3865;
117.3000;0.2670;4.3764;
117.6000;0.2654;4.3663;
117.9000;0.2670;4.3714;
118.2000;0.2613;4.3638;
118.5000;0.2670;4.3940;
118.8000;0.2768;4.4141;
119.1000;0.2670;4.3839;
119.4000;0.2670;4.3789;
119.7000;0.2678;4.3789;
120.0000;0.2678;4.3663;
120.3000;0.2694;4.3688;
120.6000;0.2662;4.3613;
120.9000;0.2637;4.3663;
121.2000;0.2662;4.3764;
121.5000;0.2670;4.3764;
121.8000;0.2678;4.3789;
122.1000;0.2702;4.3865;
122.4000;0.2678;4.3814;
122.7000;0.2686;4.3865;
123.0000;0.2678;4.3814;
123.3000;0.2670;4.3789;
123.6000;0.2654;4.3663;
123.9000;0.2646;4.3688;
124.2000;0.2686;4.3940;
124.5000;0.2662;4.3890;
124.8000;0.2646;4.3839;
125.1000;0.2776;4.4166;
125.4000;0.2654;4.3839;
125.7000;0.2637;4.3865;
126.0000;0.2678;4.3940;
126.3000;0.2662;4.3839;
126.6000;0.2686;4.3789;
126.9000;0.2686;4.3839;
127.2000;0.2686;4.3789;
127.5000;0.2662;4.3764;
127.8000;0.2678;4.3789;
128.1000;0.2751;4.4066;
128.4000;0.2719;4.3940;
128.7000;0.2678;4.3789;
129.0000;0.2646;4.3739;
129.3000;0.2621;4.3638;
129.6000;0.2621;4.3613;
129.9000;0.2670;4.3814;
130.2000;0.2735;4.3965;
130.5000;0.2629;4.3588;
130.8000;0.2678;4.3714;
131.1000;0.2662;4.3789;
131.4000;0.2702;4.3764;
131.7000;0.2670;4.3714;
132.0000;0.2670;4.3739;
132.3000;0.2686;4.3789;
132.6000;0.2678;4.3789;
132.9000;0.2670;4.3764;
133.2000;0.2670;4.3714;
133.5000;0.2654;4.3739;
133.8000;0.2694;4.3890;
134.1000;0.2678;4.3814;
134.4000;0.2670;4.3789;
134.7000;0.2678;4.3839;
135.0000;0.2678;4.3890;
135.3000;0.2613;4.3714;
135.6000;0.2670;4.3915;
135.9000;0.2637;4.3865;
136.2000;0.2743;4.4141;
136.5000;0.2735;4.4192;
136.8000;0.2637;4.3965;
137.1000;0.2637;4.3890;
137.4000;0.2792;4.4342;
137.7000;0.2686;4.3990;
138.0000;0.2702;4.4091;
138.3000;0.2670;4.3965;
138.6000;0.2670;4.3990;
138.9000;0.2670;4.3965;
139.2000;0.2694;4.3915;
139.5000;0.2654;4.3764;
139.8000;0.2702;4.3915;
140.1000;0.2670;4.3839;
140.4000;0.2686;4.3865;
140.7000;0.2694;4.3965;
141.0000;0.2711;4.3990;
141.3000;0.2694;4.3814;
141.6000;0.2678;4.3789;
141.9000;0.2711;4.3890;
142.2000;0.2686;4.3789;
142.5000;0.2686;4.3789;
142.8000;0.2686;4.3814;
143.1000;0.2686;4.3839;
143.4000;0.2678;4.3865;
143.7000;0.2694;4.3940;
144.0000;0.2613;4.3688;
144.3000;0.2686;4.3890;
144.6000;0.2678;4.3915;
144.9000;0.2646;4.3865;
145.2000;0.2637;4.3839;
145.5000;0.2694;4.3915;
145.8000;0.2686;4.3839;
146.1000;0.2686;4.3965;
146.4000;0.2678;4.3890;
146.7000;0.2662;4.3915;
147.0000;0.2629;4.3814;
147.3000;0.2670;4.3990;
147.6000;0.2678;4.4041;
147.9000;0.2654;4.3990;
148.2000;0.2694;4.4066;
148.5000;0.2686;4.4066;
148.8000;0.2662;4.4015;
149.1000;0.2702;4.4091;
149.4000;0.2637;4.3940;
149.7000;0.2654;4.3915;
150.0000;0.2694;4.3940;
150.3000;0.2686;4.3940;
150.6000;0.2694;4.4015;
150.9000;0.2670;4.3940;
151.2000;0.2678;4.3915;
151.5000;0.2678;4.4041;
151.8000;0.2678;4.4041;
152.1000;0.2646;4.3915;
152.4000;0.2654;4.3890;
152.7000;0.2662;4.3890;
153.0000;0.2678;4.3915;
153.3000;0.2662;4.3890;
153.6000;0.2523;4.3512;
153.9000;0.2711;4.3965;
154.2000;0.2670;4.3814;
154.5000;0.2694;4.3839;
154.8000;0.2662;4.3814;
155.1000;0.2654;4.3839;
155.4000;0.2637;4.3965;
155.7000;0.2670;4.4141;
156.0000;0.2637;4.4015;
156.3000;0.2654;4.4015;
156.6000;0.2678;4.3965;
156.9000;0.2670;4.3915;
157.2000;0.2662;4.3915;
157.5000;0.2589;4.3663;
157.8000;0.2678;4.3965;
158.1000;0.2662;4.3915;
158.4000;0.2702;4.4116;
158.7000;0.2670;4.3965;
159.0000;0.2678;4.3915;
159.3000;0.2727;4.4041;
159.6000;0.2662;4.3839;
159.9000;0.2654;4.3839;
160.2000;0.2711;4.3965;
160.5000;0.2670;4.3814;
160.8000;0.2646;4.3839;
161.1000;0.2670;4.3940;
161.4000;0.2637;4.3890;
161.7000;0.2711;4.4091;
162.0000;0.2686;4.4041;
162.3000;0.2646;4.3915;
162.6000;0.2646;4.3990;
162.9000;0.2580;4.3764;
163.2000;0.2629;4.3940;
163.5000;0.2678;4.3990;
163.8000;0.2670;4.4041;
164.1000;0.2670;4.3965;
164.4000;0.2662;4.3890;
164.7000;0.2654;4.3789;
165.0000;0.2597;4.3538;
165.3000;0.2580;4.3512;
165.6000;0.2686;4.3839;
165.9000;0.2719;4.3940;
166.2000;0.2637;4.3764;
166.5000;0.2702;4.3814;
166.8000;0.2572;4.3412;
167.1000;0.2833;4.4141;
167.4000;0.2776;4.4015;
167.7000;0.2678;4.3714;
168.0000;0.2540;4.3512;
168.3000;0.2686;4.3865;
168.6000;0.2694;4.3890;
168.9000;0.2662;4.3714;
169.2000;0.2686;4.3764;
169.5000;0.2662;4.3739;
169.8000;0.2670;4.3638;
170.1000;0.2825;4.4015;
170.4000;0.2670;4.3638;
170.7000;0.2678;4.3714;
171.0000;0.2646;4.3688;
171.3000;0.2670;4.3739;
171.6000;0.2678;4.3789;
171.9000;0.2686;4.3814;
172.2000;0.2686;4.3814;
172.5000;0.2670;4.3865;
172.8000;0.2670;4.3814;
173.1000;0.2670;4.3890;
173.4000;0.2678;4.3915;
173.7000;0.2654;4.3865;
174.0000;0.2678;4.3940;
174.3000;0.2654;4.3965;
174.6000;0.2637;4.3915;
174.9000;0.2670;4.3915;
175.2000;0.2686;4.3940;
175.5000;0.2678;4.3915;
175.8000;0.2678;4.3915;
176.1000;0.2678;4.3915;
176.4000;0.2678;4.3915;
176.7000;0.2613;4.3839;
177.0000;0.2670;4.4066;
177.3000;0.2678;4.4041;
177.6000;0.2629;4.3865;
177.9000;0.2678;4.3865;
178.2000;0.2662;4.3915;
178.5000;0.2654;4.3865;
178.8000;0.2646;4.3865;
179.1000;0.2654;4.3764;
179.4000;0.2605;4.3487;
179.7000;0.2637;4.3638;
180.0000;0.2719;4.3890;
180.3000;0.2662;4.3814;
180.6000;0.2613;4.3663;
180.9000;0.2678;4.3865;
181.2000;0.2637;4.3663;
181.5000;0.2670;4.3663;
181.8000;0.2662;4.3663;
182.1000;0.2662;4.3638;
182.4000;0.2678;4.3739;
182.7000;0.2702;4.3764;
183.0000;0.2678;4.3764;
183.3000;0.2686;4.3739;
183.6000;0.2670;4.3739;
183.9000;0.2580;4.3613;
184.2000;0.2654;4.3839;
184.5000;0.2678;4.3940;
184.8000;0.2694;4.3814;
185.1000;0.2678;4.3915;
185.4000;0.2646;4.3940;
185.7000;0.2678;4.3990;
186.0000;0.2702;4.3990;
186.3000;0.2678;4.3940;
186.6000;0.2678;4.4041;
186.9000;0.2735;4.4242;
187.2000;0.2670;4.4116;
187.5000;0.2646;4.4015;
187.8000;0.2670;4.4091;
188.1000;0.2784;4.4292;
188.4000;0.2621;4.3814;
188.7000;0.2654;4.3890;
189.0000;0.2678;4.3940;
189.3000;0.2743;4.4066;
189.6000;0.2670;4.3965;
189.9000;0.2629;4.3789;
190.2000;0.2670;4.3814;
190.5000;0.2694;4.3915;
190.8000;0.2727;4.3990;
191.1000;0.2670;4.3865;
191.4000;0.2646;4.3814;
191.7000;0.2678;4.3839;
192.0000;0.2654;4.3764;
192.3000;0.2711;4.3940;
192.6000;0.2662;4.3839;
192.9000;0.2702;4.3940;
193.2000;0.2621;4.3688;
193.5000;0.2678;4.3814;
193.8000;0.2678;4.3865;
194.1000;0.2597;4.3638;
194.4000;0.2719;4.4066;
194.7000;0.2686;4.3990;
195.0000;0.2776;4.4242;
195.3000;0.2662;4.3890;
195.6000;0.2678;4.3940;
195.9000;0.2711;4.3990;
196.2000;0.2686;4.3890;
196.5000;0.2686;4.3940;
196.8000;0.2646;4.3764;
197.1000;0.2686;4.3890;
197.4000;0.2662;4.3814;
197.7000;0.2670;4.3814;
198.0000;0.2654;4.3865;
198.3000;0.2637;4.3865;
198.6000;0.2646;4.3890;
198.9000;0.2678;4.3990;
199.2000;0.2662;4.3865;
199.5000;0.2670;4.3865;
199.8000;0.2646;4.3789;
200.1000;0.2678;4.3890;
200.4000;0.2686;4.3865;
200.7000;0.2702;4.3965;
201.0000;0.2662;4.3890;
201.3000;0.2670;4.3940;
201.6000;0.2654;4.3915;
201.9000;0.2654;4.3940;
202.2000;0.2646;4.3940;
202.5000;0.2678;4.4041;
202.8000;0.2686;4.4166;
203.1000;0.2694;4.4141;
203.4000;0.2768;4.4317;
203.7000;0.2670;4.4015;
204.0000;0.2694;4.4192;
204.3000;0.2686;4.4091;
204.6000;0.2678;4.4116;
204.9000;0.2678;4.4116;
205.2000;0.2702;4.4217;
205.5000;0.2629;4.4015;
205.8000;0.2678;4.4041;
206.1000;0.2654;4.4141;
206.4000;0.2589;4.3940;
206.7000;0.2654;4.4141;
207.0000;0.2646;4.4141;
207.3000;0.2507;4.3789;
207.6000;0.2678;4.4217;
207.9000;0.2686;4.4217;
208.2000;0.2646;4.4066;
208.5000;0.2678;4.4116;
208.8000;0.2686;4.4166;
209.1000;0.2646;4.4041;
209.4000;0.2670;4.4091;
209.7000;0.2735;4.4317;
210.0000;0.2670;4.4066;
210.3000;0.2637;4.3890;
210.6000;0.2670;4.3965;
210.9000;0.2646;4.3839;
211.2000;0.2670;4.3915;
211.5000;0.2670;4.3890;
211.8000;0.2662;4.3839;
212.1000;0.2678;4.3814;
212.4000;0.2670;4.3789;
212.7000;0.2678;4.3739;
213.0000;0.2670;4.3688;
213.3000;0.2670;4.3764;
213.6000;0.2670;4.3739;
213.9000;0.2662;4.3714;
214.2000;0.2572;4.3512;
214.5000;0.2702;4.3890;
214.8000;0.2646;4.3764;
215.1000;0.2686;4.3789;
215.4000;0.2694;4.3814;
215.7000;0.2662;4.3663;
216.0000;0.2686;4.3688;
216.3000;0.2686;4.3714;
216.6000;0.2678;4.3688;
216.9000;0.2662;4.3714;
217.2000;0.2646;4.3663;
217.5000;0.2670;4.3814;
217.8000;0.2670;4.3839;
218.1000;0.2670;4.3890;
218.4000;0.2646;4.3739;
218.7000;0.2686;4.3915;
219.0000;0.2670;4.3789;
219.3000;0.2686;4.3814;
219.6000;0.2637;4.3663;
219.9000;0.2662;4.3739;
220.2000;0.2654;4.3789;
220.5000;0.2694;4.3890;
220.8000;0.2678;4.3890;
221.1000;0.2654;4.3814;
221.4000;0.2637;4.3764;
221.7000;0.2670;4.3890;
222.0000;0.2670;4.3789;
222.3000;0.2605;4.3688;
222.6000;0.2735;4.4066;
222.9000;0.2727;4.4015;
223.2000;0.2646;4.3865;
223.5000;0.2670;4.3965;
223.8000;0.2686;4.4015;
224.1000;0.2678;4.3990;
224.4000;0.2670;4.4015;
224.7000;0.2646;4.3890;
225.0000;0.2637;4.3890;
225.3000;0.2670;4.3890;
225.6000;0.2605;4.3789;
225.9000;0.2686;4.3990;
226.2000;0.2735;4.4116;
226.5000;0.2702;4.4015;
226.8000;0.2662;4.3865;
227.1000;0.2662;4.3814;
227.4000;0.2662;4.3915;
227.7000;0.2670;4.3915;
228.0000;0.2646;4.3915;
228.3000;0.2670;4.4015;
228.6000;0.2670;4.4015;
228.9000;0.2670;4.4041;
229.2000;0.2678;4.3990;
229.5000;0.2662;4.3940;
229.8000;0.2678;4.3990;
230.1000;0.2670;4.3965;
230.4000;0.2597;4.3739;
230.7000;0.2670;4.3940;
231.0000;0.2662;4.3940;
231.3000;0.2678;4.4041;
231.6000;0.2670;4.4091;
231.9000;0.2670;4.4091;
232.2000;0.2670;4.4015;
232.5000;0.2678;4.4015;
232.8000;0.2670;4.3990;
233.1000;0.2662;4.4015;
233.4000;0.2654;4.3940;
233.7000;0.2597;4.3814;
234.0000;0.2670;4.4091;
234.3000;0.2662;4.3965;
234.6000;0.2670;4.3965;
234.9000;0.2621;4.3764;
235.2000;0.2670;4.3915;
235.5000;0.2662;4.3990;
235.8000;0.2654;4.3965;
236.1000;0.2654;4.3940;
236.4000;0.2662;4.3990;
236.7000;0.2686;4.4066;
237.0000;0.2670;4.3990;
237.3000;0.2694;4.4041;
237.6000;0.2646;4.3965;
237.9000;0.2662;4.4066;
238.2000;0.2662;4.4116;
238.5000;0.2654;4.4066;
238.8000;0.2662;4.4066;
239.1000;0.2686;4.4141;
239.4000;0.2670;4.4066;
239.7000;0.2670;4.4066;
240.0000;0.2662;4.4066;
240.3000;0.2670;4.4141;
240.6000;0.2662;4.4015;
240.9000;0.2678;4.3965;
241.2000;0.2670;4.4066;
241.5000;0.2686;4.4116;
241.8000;0.2662;4.4116;
242.1000;0.2678;4.4166;
242.4000;0.2662;4.3990;
242.7000;0.2580;4.3814;
243.0000;0.2654;4.4015;
243.3000;0.2686;4.4116;
243.6000;0.2637;4.3990;
243.9000;0.2654;4.4091;
244.2000;0.2662;4.4066;
244.5000;0.2686;4.4041;
244.8000;0.2670;4.3990;
245.1000;0.2670;4.3915;
245.4000;0.2662;4.3915;
245.7000;0.2670;4.3915;
246.0000;0.2670;4.3965;
246.3000;0.2678;4.3940;
246.6000;0.2654;4.3990;
246.9000;0.2686;4.4116;
247.2000;0.2662;4.4141;
247.5000;0.2646;4.4141;
247.8000;0.2654;4.4091;
248.1000;0.2662;4.4116;
248.4000;0.2654;4.4116;
248.7000;0.2654;4.4091;
249.0000;0.2654;4.4066;
249.3000;0.2694;4.4116;
249.6000;0.2646;4.4041;
249.9000;0.2662;4.4066;
250.2000;0.2662;4.4091;
250.5000;0.2670;4.4015;
250.8000;0.2694;4.4015;
251.1000;0.2629;4.3764;
251.4000;0.2711;4.4015;
251.7000;0.2637;4.3839;
252.0000;0.2662;4.3915;
252.3000;0.2629;4.3814;
252.6000;0.2646;4.3814;
252.9000;0.2670;4.3839;
253.2000;0.2678;4.3890;
253.5000;0.2751;4.4141;
253.8000;0.2654;4.3940;
254.1000;0.2629;4.3814;
254.4000;0.2629;4.3839;
254.7000;0.2670;4.3965;
255.0000;0.2670;4.3965;
255.3000;0.2662;4.3890;
255.6000;0.2686;4.3915;
255.9000;0.2662;4.3890;
256.2000;0.2662;4.3965;
256.5000;0.2662;4.3965;
256.8000;0.2670;4.3965;
257.1000;0.2678;4.4015;
257.4000;0.2686;4.4066;
257.7000;0.2589;4.3764;
258.0000;0.2662;4.3965;
258.3000;0.2670;4.3940;
258.6000;0.2654;4.3814;
258.9000;0.2670;4.3764;
259.2000;0.2662;4.3865;
259.5000;0.2662;4.3915;
259.8000;0.2662;4.3915;
260.1000;0.2662;4.3990;
260.4000;0.2670;4.3915;
260.7000;0.2670;4.3940;
261.0000;0.2662;4.3965;
261.3000;0.2670;4.4066;
261.6000;0.2670;4.4116;
261.9000;0.2670;4.4066;
262.2000;0.2662;4.4066;
262.5000;0.2654;4.3990;
262.8000;0.2654;4.3915;
263.1000;0.2637;4.3890;
263.4000;0.2670;4.3890;
263.7000;0.2654;4.3814;
264.0000;0.2662;4.3714;
264.3000;0.2662;4.3714;
264.6000;0.2702;4.3739;
264.9000;0.2646;4.3688;
265.2000;0.2646;4.3739;
265.5000;0.2670;4.3739;
265.8000;0.2621;4.3688;
266.1000;0.2694;4.3814;
266.4000;0.2686;4.3890;
266.7000;0.2613;4.3714;
267.0000;0.2678;4.3814;
267.3000;0.2572;4.3563;
267.6000;0.2662;4.3865;
267.9000;0.2686;4.3764;
268.2000;0.2702;4.3915;
268.5000;0.2670;4.3764;
268.8000;0.2662;4.3688;
269.1000;0.2662;4.3688;
269.4000;0.2678;4.3739;
269.7000;0.2654;4.3739;
270.0000;0.2678;4.3714;
270.3000;0.2646;4.3538;
270.6000;0.2670;4.3663;
270.9000;0.2678;4.3638;
271.2000;0.2711;4.3714;
271.5000;0.2646;4.3613;
271.8000;0.2702;4.3739;
272.1000;0.2768;4.3965;
272.4000;0.2662;4.3739;
272.7000;0.2678;4.3789;
273.0000;0.2662;4.3714;
273.3000;0.2735;4.3865;
273.6000;0.2694;4.3839;
273.9000;0.2711;4.3940;
274.2000;0.2637;4.3764;
274.5000;0.2637;4.3638;
274.8000;0.2662;4.3663;
275.1000;0.2670;4.3714;
275.4000;0.2556;4.3387;
275.7000;0.2670;4.3663;
276.0000;0.2686;4.3688;
276.3000;0.2678;4.3714;
276.6000;0.2662;4.3688;
276.9000;0.2662;4.3714;
277.2000;0.2662;4.3663;
277.5000;0.2670;4.3638;
277.8000;0.2702;4.3688;
278.1000;0.2711;4.3764;
278.4000;0.2686;4.3688;
278.7000;0.2605;4.3538;
279.0000;0.2670;4.3739;
279.3000;0.2662;4.3739;
279.6000;0.2662;4.3739;
279.9000;0.2646;4.3613;
280.2000;0.2727;4.3940;
280.5000;0.2686;4.3739;
280.8000;0.2743;4.3915;
281.1000;0.2646;4.3613;
281.4000;0.2654;4.3613;
281.7000;0.2654;4.3663;
282.0000;0.2670;4.3663;
282.3000;0.2654;4.3714;
282.6000;0.2670;4.3764;
282.9000;0.2670;4.3789;
283.2000;0.2654;4.3814;
283.5000;0.2654;4.3814;
283.8000;0.2686;4.3915;
284.1000;0.2637;4.3789;
284.4000;0.2646;4.3789;
284.7000;0.2686;4.3865;
285.0000;0.2678;4.3789;
285.3000;0.2654;4.3588;
285.6000;0.2670;4.3638;
285.9000;0.2654;4.3588;
286.2000;0.2686;4.3764;
286.5000;0.2670;4.3663;
286.8000;0.2646;4.3588;
287.1000;0.2808;4.3990;
287.4000;0.2678;4.3613;
287.7000;0.2646;4.3512;
288.0000;0.2662;4.3613;
288.3000;0.2662;4.3613;
288.6000;0.2678;4.3663;
288.9000;0.2678;4.3714;
289.2000;0.2637;4.3613;
289.5000;0.2743;4.4041;
289.8000;0.2646;4.3814;
290.1000;0.2637;4.3688;
290.4000;0.2662;4.3739;
290.7000;0.2637;4.3663;
291.0000;0.2670;4.3688;
291.3000;0.2662;4.3613;
291.6000;0.2678;4.3688;
291.9000;0.2694;4.3688;
292.2000;0.2654;4.3688;
292.5000;0.2662;4.3638;
292.8000;0.2743;4.3764;
293.1000;0.2654;4.3538;
293.4000;0.2662;4.3613;
293.7000;0.2686;4.3613;
294.0000;0.2662;4.3638;
294.3000;0.2654;4.3638;
294.6000;0.2637;4.3563;
294.9000;0.2580;4.3412;
295.2000;0.2711;4.3789;
295.5000;0.2662;4.3663;
295.8000;0.2670;4.3663;
296.1000;0.2654;4.3563;
296.4000;0.2670;4.3512;
296.7000;0.2678;4.3688;
297.0000;0.2686;4.3764;
297.3000;0.2654;4.3613;
297.6000;0.2670;4.3688;
297.9000;0.2662;4.3789;
298.2000;0.2662;4.3839;
298.5000;0.2670;4.3839;
298.8000;0.2678;4.3890;
299.1000;0.2751;4.3990;
299.4000;0.2613;4.3588;
299.7000;0.2662;4.3714;
300.0000;0.2662;4.3663;
300.3000;0.2686;4.3789;
300.6000;0.2654;4.3714;
300.9000;0.2670;4.3714;
301.2000;0.2670;4.3638;
301.5000;0.2735;4.3839;
301.8000;0.2686;4.3714;
302.1000;0.2686;4.3739;
302.4000;0.2670;4.3789;
302.7000;0.2597;4.3663;
303.0000;0.2654;4.3814;
303.3000;0.2646;4.3714;
303.6000;0.2654;4.3789;
303.9000;0.2654;4.3865;
304.2000;0.2662;4.3789;
304.5000;0.2597;4.3563;
304.8000;0.2743;4.4015;
305.1000;0.2646;4.3638;
305.4000;0.2670;4.3714;
305.7000;0.2678;4.3764;
306.0000;0.2662;4.3714;
306.3000;0.2686;4.3764;
306.6000;0.2670;4.3764;
306.9000;0.2605;4.3538;
307.2000;0.2678;4.3789;
307.5000;0.2654;4.3764;
307.8000;0.2686;4.3764;
308.1000;0.2605;4.3563;
308.4000;0.2629;4.3588;
308.7000;0.2694;4.3789;
309.0000;0.2605;4.3512;
309.3000;0.2523;4.3286;
309.6000;0.2646;4.3663;
309.9000;0.2662;4.3638;
310.2000;0.2646;4.3563;
310.5000;0.2662;4.3588;
310.8000;0.2662;4.3512;
311.1000;0.2654;4.3462;
311.4000;0.2654;4.3538;
311.7000;0.2702;4.3714;
312.0000;0.2646;4.3613;
312.3000;0.2662;4.3588;
312.6000;0.2678;4.3613;
312.9000;0.2654;4.3462;
313.2000;0.2670;4.3538;
313.5000;0.2670;4.3487;
313.8000;0.2670;4.3362;
314.1000;0.2654;4.3387;
314.4000;0.2654;4.3362;
314.7000;0.2792;4.3789;
315.0000;0.2629;4.3311;
315.3000;0.2670;4.3487;
315.6000;0.2662;4.3487;
315.9000;0.2662;4.3538;
316.2000;0.2670;4.3538;
316.5000;0.2654;4.3487;
316.8000;0.2702;4.3588;
317.1000;0.2654;4.3462;
317.4000;0.2629;4.3387;
317.7000;0.2678;4.3512;
318.0000;0.2670;4.3563;
318.3000;0.2678;4.3638;
318.6000;0.2662;4.3563;
318.9000;0.2662;4.3563;
319.2000;0.2654;4.3462;
319.5000;0.2646;4.3462;
319.8000;0.2662;4.3512;
320.1000;0.2686;4.3563;
320.4000;0.2654;4.3412;
320.7000;0.2678;4.3462;
321.0000;0.2678;4.3362;
321.3000;0.2686;4.3437;
321.6000;0.2662;4.3412;
321.9000;0.2654;4.3462;
322.2000;0.2654;4.3437;
322.5000;0.2523;4.3085;
322.8000;0.2670;4.3613;
323.1000;0.2646;4.3588;
323.4000;0.2646;4.3638;
323.7000;0.2654;4.3613;
324.0000;0.2654;4.3638;
324.3000;0.2597;4.3512;
324.6000;0.2654;4.3764;
324.9000;0.2711;4.3940;
325.2000;0.2654;4.3739;
325.5000;0.2662;4.3839;
325.8000;0.2735;4.4015;
326.1000;0.2686;4.3940;
326.4000;0.2654;4.3814;
326.7000;0.2654;4.3865;
327.0000;0.2686;4.3965;
327.3000;0.2662;4.4015;
327.6000;0.2637;4.4015;
327.9000;0.2727;4.4192;
328.2000;0.2686;4.4091;
328.5000;0.2686;4.4041;
328.8000;0.2621;4.3789;
329.1000;0.2662;4.3865;
329.4000;0.2678;4.3915;
329.7000;0.2646;4.3739;
330.0000;0.2646;4.3638;
330.3000;0.2654;4.3714;
330.6000;0.2678;4.3663;
330.9000;0.2646;4.3512;
331.2000;0.2670;4.3588;
331.5000;0.2654;4.3613;
331.8000;0.2694;4.3714;
332.1000;0.2662;4.3714;
332.4000;0.2662;4.3688;
332.7000;0.2662;4.3764;
333.0000;0.2654;4.3714;
333.3000;0.2662;4.3764;
333.6000;0.2670;4.3739;
333.9000;0.2654;4.3739;
334.2000;0.2670;4.3865;
334.5000;0.2670;4.3764;
334.8000;0.2629;4.3563;
335.1000;0.2646;4.3638;
335.4000;0.2646;4.3588;
335.7000;0.2621;4.3588;
336.0000;0.2637;4.3437;
336.3000;0.2646;4.3412;
336.6000;0.2613;4.3462;
336.9000;0.2686;4.3663;
337.2000;0.2751;4.3890;
337.5000;0.2670;4.3688;
337.8000;0.2670;4.3714;
338.1000;0.2629;4.3588;
338.4000;0.2662;4.3638;
338.7000;0.2759;4.3814;
339.0000;0.2646;4.3563;
339.3000;0.2670;4.3663;
339.6000;0.2654;4.3613;
339.9000;0.2605;4.3487;
340.2000;0.2540;4.3336;
340.5000;0.2654;4.3638;
340.8000;0.2621;4.3588;
341.1000;0.2678;4.3638;
341.4000;0.2654;4.3638;
341.7000;0.2629;4.3588;
342.0000;0.2654;4.3739;
342.3000;0.2646;4.3865;
342.6000;0.2670;4.3865;
342.9000;0.2646;4.3764;
343.2000;0.2654;4.3714;
343.5000;0.2662;4.3663;
343.8000;0.2621;4.3462;
344.1000;0.2629;4.3487;
344.4000;0.2646;4.3688;
344.7000;0.2646;4.3714;
345.0000;0.2646;4.3663;
345.3000;0.2646;4.3638;
345.6000;0.2654;4.3688;
345.9000;0.2646;4.3588;
346.2000;0.2670;4.3663;
346.5000;0.2751;4.3940;
346.8000;0.2670;4.3663;
347.1000;0.2662;4.3688;
347.4000;0.2654;4.3688;
347.7000;0.2646;4.3789;
348.0000;0.2694;4.3865;
348.3000;0.2678;4.3714;
348.6000;0.2646;4.3638;
348.9000;0.2646;4.3688;
349.2000;0.2662;4.3789;
349.5000;0.2629;4.3663;
349.8000;0.2662;4.3714;
350.1000;0.2654;4.3688;
350.4000;0.2662;4.3764;
350.7000;0.2646;4.3764;
351.0000;0.2589;4.3638;
351.3000;0.2662;4.3940;
351.6000;0.2654;4.3915;
351.9000;0.2654;4.3890;
352.2000;0.2662;4.3865;
352.5000;0.2646;4.3839;
352.8000;0.2572;4.3638;
353.1000;0.2670;4.3839;
353.4000;0.2662;4.3739;
353.7000;0.2629;4.3663;
354.0000;0.2670;4.3739;
354.3000;0.2646;4.3688;
354.6000;0.2646;4.3764;
354.9000;0.2743;4.3990;
355.2000;0.2670;4.3714;
355.5000;0.2678;4.3714;
355.8000;0.2637;4.3613;
356.1000;0.2662;4.3739;
356.4000;0.2678;4.3739;
356.7000;0.2629;4.3613;
357.0000;0.2694;4.3739;
357.3000;0.2629;4.3638;
357.6000;0.2654;4.3638;
357.9000;0.2646;4.3688;
358.2000;0.2637;4.3663;
358.5000;0.2670;4.3764;
358.8000;0.2662;4.3789;
359.1000;0.2670;4.3865;
359.4000;0.2597;4.3688;
359.7000;0.2662;4.3814;
360.0000;0.2605;4.3588;
360.3000;0.2670;4.3714;
360.6000;0.2589;4.3512;
360.9000;0.2654;4.3714;
361.2000;0.2548;4.3487;
361.5000;0.2580;4.3512;
361.8000;0.2678;4.3789;
362.1000;0.2532;4.3387;
362.4000;0.2637;4.3588;
362.7000;0.2629;4.3688;
363.0000;0.2646;4.3688;
363.3000;0.2662;4.3714;
363.6000;0.2654;4.3638;
363.9000;0.2678;4.3764;
364.2000;0.2646;4.3588;
364.5000;0.2670;4.3663;
364.8000;0.2646;4.3613;
365.1000;0.2694;4.3839;
365.4000;0.2670;4.3739;
365.7000;0.2646;4.3688;
366.0000;0.2662;4.3714;
366.3000;0.2646;4.3714;
366.6000;0.2662;4.3714;
366.9000;0.2678;4.3789;
367.2000;0.2686;4.3814;
367.5000;0.2621;4.3663;
367.8000;0.2678;4.3789;
368.1000;0.2662;4.3739;
368.4000;0.2727;4.3940;
368.7000;0.2678;4.3764;
369.0000;0.2637;4.3739;
369.3000;0.2654;4.3714;
369.6000;0.2662;4.3814;
369.9000;0.2702;4.4066;
370.2000;0.2629;4.3764;
370.5000;0.2637;4.3739;
370.8000;0.2646;4.3789;
371.1000;0.2597;4.3739;
371.4000;0.2662;4.3990;
371.7000;0.2670;4.3865;
372.0000;0.2670;4.3714;
372.3000;0.2694;4.3739;
372.6000;0.2670;4.3739;
372.9000;0.2686;4.3814;
373.2000;0.2670;4.3839;
373.5000;0.2654;4.3814;
373.8000;0.2654;4.3865;
374.1000;0.2670;4.3865;
374.4000;0.2605;4.3739;
374.7000;0.2629;4.3739;
375.0000;0.2670;4.3789;
375.3000;0.2637;4.3739;
375.6000;0.2662;4.3688;
375.9000;0.2654;4.3688;
376.2000;0.2678;4.3688;
376.5000;0.2662;4.3663;
376.8000;0.2629;4.3688;
377.1000;0.2637;4.3688;
377.4000;0.2662;4.3764;
377.7000;0.2662;4.3814;
378.0000;0.2646;4.3764;
378.3000;0.2670;4.3865;
378.6000;0.2646;4.3789;
378.9000;0.2621;4.3714;
379.2000;0.2637;4.3714;
379.5000;0.2662;4.3764;
379.8000;0.2637;4.3638;
380.1000;0.2637;4.3487;
380.4000;0.2646;4.3563;
380.7000;0.2654;4.3538;
381.0000;0.2637;4.3512;
381.3000;0.2621;4.3512;
381.6000;0.2637;4.3538;
381.9000;0.2743;4.3865;
382.2000;0.2694;4.3814;
382.5000;0.2654;4.3638;
382.8000;0.2678;4.3739;
383.1000;0.2637;4.3714;
383.4000;0.2637;4.3688;
383.7000;0.2646;4.3764;
384.0000;0.2646;4.3764;
384.3000;0.2540;4.3538;
384.6000;0.2637;4.3764;
384.9000;0.2646;4.3814;
385.2000;0.2629;4.3714;
385.5000;0.2711;4.3915;
385.8000;0.2621;4.3663;
386.1000;0.2646;4.3663;
386.4000;0.2743;4.3890;
386.7000;0.2670;4.3663;
387.0000;0.2670;4.3588;
387.3000;0.2637;4.3512;
387.6000;0.2662;4.3563;
387.9000;0.2654;4.3638;
388.2000;0.2662;4.3739;
388.5000;0.2654;4.3714;
388.8000;0.2686;4.3839;
389.1000;0.2654;4.3814;
389.4000;0.2605;4.3663;
389.7000;0.2646;4.3739;
390.0000;0.2637;4.3739;
390.3000;0.2662;4.3865;
390.6000;0.2572;4.3538;
390.9000;0.2670;4.3714;
391.2000;0.2532;4.3362;
391.5000;0.2662;4.3688;
391.8000;0.2678;4.3714;
392.1000;0.2646;4.3563;
392.4000;0.2784;4.3940;
392.7000;0.2678;4.3814;
393.0000;0.2670;4.3739;
393.3000;0.2646;4.3764;
393.6000;0.2629;4.3714;
393.9000;0.2646;4.3688;
394.2000;0.2662;4.3764;
394.5000;0.2784;4.4166;
394.8000;0.2694;4.3890;
395.1000;0.2654;4.3764;
395.4000;0.2662;4.3839;
395.7000;0.2670;4.3915;
396.0000;0.2678;4.3865;
396.3000;0.2686;4.3865;
396.6000;0.2670;4.3814;
396.9000;0.2678;4.3814;
397.2000;0.2621;4.3663;
397.5000;0.2637;4.3613;
397.8000;0.2719;4.3814;
398.1000;0.2784;4.3965;
398.4000;0.2646;4.3563;
398.7000;0.2646;4.3613;
399.0000;0.2654;4.3613;
399.3000;0.2646;4.3613;
399.6000;0.2662;4.3663;
399.9000;0.2613;4.3512;
400.2000;0.2532;4.3362;
400.5000;0.2654;4.3714;
400.8000;0.2621;4.3663;
401.1000;0.2670;4.3714;
401.4000;0.2654;4.3789;
401.7000;0.2654;4.3764;
402.0000;0.2654;4.3814;
402.3000;0.2654;4.3789;
402.6000;0.2711;4.3940;
402.9000;0.2654;4.3764;
403.2000;0.2670;4.3789;
403.5000;0.2654;4.3789;
403.8000;0.2629;4.3739;
404.1000;0.2646;4.3865;
404.4000;0.2646;4.3739;
404.7000;0.2637;4.3739;
405.0000;0.2637;4.3613;
405.3000;0.2629;4.3613;
405.6000;0.2646;4.3764;
405.9000;0.2637;4.3764;
406.2000;0.2784;4.4041;
406.5000;0.2825;4.4141;
406.8000;0.2694;4.3739;
407.1000;0.2670;4.3714;
407.4000;0.2662;4.3663;
407.7000;0.2629;4.3538;
408.0000;0.2662;4.3638;
408.3000;0.2646;4.3688;
408.6000;0.2637;4.3563;
408.9000;0.2621;4.3588;
409.2000;0.2711;4.3865;
409.5000;0.2646;4.3663;
409.8000;0.2629;4.3714;
410.1000;0.2621;4.3688;
410.4000;0.2662;4.3764;
410.7000;0.2792;4.3990;
411.0000;0.2646;4.3538;
411.3000;0.2654;4.3563;
411.6000;0.2654;4.3437;
411.9000;0.2637;4.3387;
412.2000;0.2589;4.3160;
412.5000;0.2629;4.3261;
412.8000;0.2686;4.3412;
413.1000;0.2662;4.3412;
413.4000;0.2727;4.3538;
413.7000;0.2662;4.3362;
414.0000;0.2589;4.3160;
414.3000;0.2711;4.3588;
414.6000;0.2670;4.3362;
414.9000;0.2637;4.3362;
415.2000;0.2564;4.3236;
415.5000;0.2662;4.3538;
415.8000;0.2654;4.3512;
416.1000;0.2654;4.3538;
416.4000;0.2662;4.3613;
416.7000;0.2662;4.3613;
417.0000;0.2646;4.3638;
417.3000;0.2759;4.3990;
417.6000;0.2646;4.3814;
417.9000;0.2670;4.3764;
418.2000;0.2662;4.3638;
418.5000;0.2637;4.3638;
418.8000;0.2654;4.3588;
419.1000;0.2613;4.3512;
419.4000;0.2670;4.3739;
419.7000;0.2670;4.3688;
420.0000;0.2702;4.3764;
420.3000;0.2654;4.3588;
420.6000;0.2654;4.3563;
420.9000;0.2654;4.3613;
421.2000;0.2646;4.3563;
421.5000;0.2678;4.3588;
421.8000;0.2605;4.3261;
422.1000;0.2694;4.3487;
422.4000;0.2670;4.3512;
422.7000;0.2646;4.3437;
423.0000;0.2662;4.3412;
423.3000;0.2670;4.3362;
423.6000;0.2629;4.3311;
423.9000;0.2678;4.3462;
424.2000;0.2646;4.3437;
424.5000;0.2662;4.3437;
424.8000;0.2637;4.3387;
425.1000;0.2670;4.3362;
425.4000;0.2662;4.3362;
425.7000;0.2670;4.3462;
426.0000;0.2678;4.3512;
426.3000;0.2637;4.3563;
426.6000;0.2637;4.3563;
426.9000;0.2654;4.3588;
427.2000;0.2662;4.3663;
427.5000;0.2646;4.3563;
427.8000;0.2662;4.3563;
428.1000;0.2621;4.3462;
428.4000;0.2654;4.3512;
428.7000;0.2637;4.3387;
429.0000;0.2686;4.3613;
429.3000;0.2629;4.3362;
429.6000;0.2621;4.3387;
429.9000;0.2678;4.3512;
430.2000;0.2654;4.3412;
430.5000;0.2654;4.3512;
430.8000;0.2637;4.3538;
431.1000;0.2768;4.3915;
431.4000;0.2743;4.3814;
431.7000;0.2646;4.3613;
432.0000;0.2646;4.3588;
432.3000;0.2646;4.3512;
432.6000;0.2548;4.3387;
432.9000;0.2662;4.3563;
433.2000;0.2662;4.3487;
433.5000;0.2654;4.3437;
433.8000;0.2597;4.3236;
434.1000;0.2735;4.3588;
434.4000;0.2637;4.3311;
434.7000;0.2621;4.3135;
435.0000;0.2629;4.3236;
435.3000;0.2646;4.3286;
435.6000;0.2662;4.3336;
435.9000;0.2637;4.3261;
436.2000;0.2572;4.3236;
436.5000;0.2597;4.3336;
436.8000;0.2629;4.3412;
437.1000;0.2686;4.3588;
437.4000;0.2678;4.3588;
437.7000;0.2654;4.3563;
438.0000;0.2654;4.3663;
438.3000;0.2637;4.3613;
438.6000;0.2605;4.3462;
438.9000;0.2654;4.3613;
439.2000;0.2662;4.3663;
439.5000;0.2548;4.3311;
439.8000;0.2662;4.3563;
440.1000;0.2646;4.3663;
440.4000;0.2621;4.3563;
440.7000;0.2662;4.3789;
441.0000;0.2678;4.3915;
441.3000;0.2637;4.3789;
441.6000;0.2654;4.3789;
441.9000;0.2629;4.3764;
442.2000;0.2662;4.3764;
442.5000;0.2670;4.3714;
442.8000;0.2637;4.3663;
443.1000;0.2637;4.3663;
443.4000;0.2629;4.3613;
443.7000;0.2646;4.3688;
444.0000;0.2637;4.3638;
444.3000;0.2662;4.3663;
444.6000;0.2662;4.3714;
444.9000;0.2654;4.3789;
445.2000;0.2654;4.3789;
445.5000;0.2637;4.3789;
445.8000;0.2637;4.3739;
446.1000;0.2654;4.3688;
446.4000;0.2694;4.3714;
446.7000;0.2662;4.3588;
447.0000;0.2654;4.3538;
447.3000;0.2662;4.3638;
447.6000;0.2662;4.3688;
447.9000;0.2572;4.3412;
448.2000;0.2662;4.3663;
448.5000;0.2662;4.3663;
448.8000;0.2621;4.3538;
449.1000;0.2637;4.3563;
449.4000;0.2629;4.3563;
449.7000;0.2637;4.3663;
450.0000;0.2654;4.3613;
450.3000;0.2670;4.3588;
450.6000;0.2646;4.3538;
450.9000;0.2654;4.3588;
451.2000;0.2694;4.3789;
451.5000;0.2662;4.3789;
451.8000;0.2662;4.3739;
452.1000;0.2629;4.3688;
452.4000;0.2670;4.3688;
452.7000;0.2719;4.3814;
453.0000;0.2654;4.3739;
453.3000;0.2654;4.3764;
453.6000;0.2800;4.4141;
453.9000;0.2678;4.3839;
454.2000;0.2515;4.3387;
454.5000;0.2629;4.3688;
454.8000;0.2646;4.3663;
455.1000;0.2613;4.3613;
455.4000;0.2654;4.3663;
455.7000;0.2605;4.3538;
456.0000;0.2654;4.3739;
456.3000;0.2621;4.3613;
456.6000;0.2637;4.3789;
456.9000;0.2629;4.3865;
457.2000;0.2597;4.3865;
457.5000;0.2670;4.3915;
457.8000;0.2719;4.3990;
458.1000;0.2629;4.3764;
458.4000;0.2670;4.3764;
458.7000;0.2662;4.3789;
459.0000;0.2654;4.3739;
459.3000;0.2613;4.3613;
459.6000;0.2629;4.3688;
459.9000;0.2646;4.3688;
460.2000;0.2662;4.3688;
460.5000;0.2646;4.3688;
460.8000;0.2662;4.3714;
461.1000;0.2662;4.3714;
461.4000;0.2646;4.3739;
461.7000;0.2637;4.3789;
462.0000;0.2662;4.3890;
462.3000;0.2621;4.3764;
462.6000;0.2589;4.3563;
462.9000;0.2662;4.3865;
463.2000;0.2662;4.3839;
463.5000;0.2678;4.3890;
463.8000;0.2637;4.3739;
464.1000;0.2719;4.3965;
464.4000;0.2637;4.3814;
464.7000;0.2678;4.3865;
465.0000;0.2662;4.3789;
465.3000;0.2662;4.3663;
465.6000;0.2686;4.3663;
465.9000;0.2646;4.3663;
466.2000;0.2654;4.3663;
466.5000;0.2670;4.3663;
466.8000;0.2637;4.3563;
467.1000;0.2759;4.3890;
467.4000;0.2646;4.3512;
467.7000;0.2637;4.3538;
468.0000;0.2637;4.3588;
468.3000;0.2654;4.3663;
468.6000;0.2654;4.3588;
468.9000;0.2613;4.3613;
469.2000;0.2670;4.3865;
469.5000;0.2646;4.3739;
469.8000;0.2662;4.3789;
470.1000;0.2654;4.3739;
470.4000;0.2629;4.3764;
470.7000;0.2646;4.3839;
471.0000;0.2637;4.3890;
471.3000;0.2605;4.3739;
471.6000;0.2662;4.3789;
471.9000;0.2678;4.3739;
472.2000;0.2678;4.3688;
472.5000;0.2637;4.3487;
472.8000;0.2662;4.3563;
473.1000;0.2694;4.3638;
473.4000;0.2654;4.3412;
473.7000;0.2629;4.3437;
474.0000;0.2670;4.3563;
474.3000;0.2662;4.3538;
474.6000;0.2605;4.3362;
474.9000;0.2662;4.3462;
475.2000;0.2621;4.3387;
475.5000;0.2654;4.3462;
475.8000;0.2670;4.3588;
476.1000;0.2662;4.3538;
476.4000;0.2646;4.3487;
476.7000;0.2621;4.3412;
477.0000;0.2654;4.3538;
477.3000;0.2637;4.3412;
477.6000;0.2662;4.3538;
477.9000;0.2678;4.3538;
478.2000;0.2646;4.3387;
478.5000;0.2646;4.3362;
478.8000;0.2646;4.3362;
479.1000;0.2580;4.3185;
479.4000;0.2605;4.3311;
479.7000;0.2719;4.3512;
480.0000;0.2605;4.3160;
480.3000;0.2662;4.3311;
480.6000;0.2662;4.3387;
480.9000;0.2654;4.3286;
481.2000;0.2637;4.3311;
481.5000;0.2637;4.3387;
481.8000;0.2646;4.3412;
482.1000;0.2621;4.3387;
482.4000;0.2654;4.3538;
482.7000;0.2719;4.3764;
483.0000;0.2580;4.3387;
483.3000;0.2637;4.3538;
483.6000;0.2670;4.3613;
483.9000;0.2654;4.3588;
484.2000;0.2646;4.3563;
484.5000;0.2711;4.3764;
484.8000;0.2646;4.3739;
485.1000;0.2694;4.3814;
485.4000;0.2654;4.3714;
485.7000;0.2629;4.3588;
486.0000;0.2589;4.3336;
486.3000;0.2621;4.3512;
486.6000;0.2662;4.3688;
486.9000;0.2662;4.3814;
487.2000;0.2662;4.3789;
487.5000;0.2572;4.3512;
487.8000;0.2711;4.3764;
488.1000;0.2654;4.3563;
488.4000;0.2816;4.4041;
488.7000;0.2702;4.3814;
489.0000;0.2646;4.3663;
489.3000;0.2646;4.3588;
489.6000;0.2662;4.3563;
489.9000;0.2654;4.3538;
490.2000;0.2654;4.3512;
490.5000;0.2654;4.3412;
490.8000;0.2662;4.3437;
491.1000;0.2646;4.3362;
491.4000;0.2629;4.3336;
491.7000;0.2646;4.3462;
492.0000;0.2646;4.3487;
492.3000;0.2646;4.3512;
492.6000;0.2654;4.3588;
492.9000;0.2662;4.3638;
493.2000;0.2654;4.3688;
493.5000;0.2637;4.3638;
493.8000;0.2654;4.3663;
494.1000;0.2613;4.3462;
494.4000;0.2702;4.3613;
494.7000;0.2654;4.3538;
495.0000;0.2637;4.3487;
495.3000;0.2646;4.3538;
495.6000;0.2646;4.3487;
495.9000;0.2629;4.3462;
496.2000;0.2719;4.3714;
496.5000;0.2662;4.3613;
496.8000;0.2646;4.3588;
497.1000;0.2662;4.3688;
497.4000;0.2637;4.3588;
497.7000;0.2686;4.3588;
498.0000;0.2605;4.3336;
498.3000;0.2654;4.3487;
498.6000;0.2670;4.3538;
498.9000;0.2678;4.3563;
499.2000;0.2662;4.3538;
499.5000;0.2662;4.3613;
499.8000;0.2613;4.3538;
500.1000;0.2629;4.3563;
500.4000;0.2662;4.3714;
500.7000;0.2654;4.3789;
501.0000;0.2646;4.3890;
501.3000;0.2629;4.3890;
501.6000;0.2662;4.3814;
501.9000;0.2662;4.3890;
502.2000;0.2654;4.3688;
502.5000;0.2654;4.3739;
502.8000;0.2662;4.3789;
503.1000;0.2654;4.3839;
503.4000;0.2670;4.3814;
503.7000;0.2532;4.3362;
504.0000;0.2662;4.3714;
504.3000;0.2621;4.3588;
504.6000;0.2629;4.3638;
504.9000;0.2694;4.3789;
505.2000;0.2784;4.3965;
505.5000;0.2629;4.3512;
505.8000;0.2613;4.3387;
506.1000;0.2662;4.3462;
506.4000;0.2662;4.3462;
506.7000;0.2646;4.3412;
507.0000;0.2646;4.3437;
507.3000;0.2735;4.3638;
507.6000;0.2646;4.3462;
507.9000;0.2637;4.3412;
508.2000;0.2654;4.3387;
508.5000;0.2662;4.3387;
508.8000;0.2646;4.3437;
509.1000;0.2629;4.3538;
509.4000;0.2759;4.3839;
509.7000;0.2662;4.3512;
510.0000;0.2654;4.3462;
510.3000;0.2548;4.3185;
510.6000;0.2694;4.3663;
510.9000;0.2662;4.3538;
511.2000;0.2816;4.3915;
511.5000;0.2670;4.3487;
511.8000;0.2670;4.3538;
512.1000;0.2637;4.3512;
512.4000;0.2727;4.3739;
512.7000;0.2646;4.3512;
513.0000;0.2670;4.3512;
513.3000;0.2670;4.3588;
513.6000;0.2662;4.3588;
513.9000;0.2597;4.3211;
514.2000;0.2662;4.3387;
514.5000;0.2637;4.3261;
514.8000;0.2759;4.3663;
515.1000;0.2646;4.3387;
515.4000;0.2646;4.3437;
515.7000;0.2662;4.3437;
516.0000;0.2662;4.3512;
516.3000;0.2662;4.3538;
516.6000;0.2662;4.3538;
516.9000;0.2662;4.3538;
517.2000;0.2662;4.3588;
517.5000;0.2646;4.3588;
517.8000;0.2670;4.3688;
518.1000;0.2662;4.3613;
518.4000;0.2637;4.3638;
518.7000;0.2646;4.3714;
519.0000;0.2646;4.3638;
519.3000;0.2646;4.3638;
519.6000;0.2646;4.3613;
519.9000;0.2637;4.3563;
520.2000;0.2629;4.3538;
520.5000;0.2670;4.3638;
520.8000;0.2637;4.3613;
521.1000;0.2637;4.3588;
521.4000;0.2678;4.3588;
521.7000;0.2637;4.3336;
522.0000;0.2662;4.3437;
522.3000;0.2621;4.3387;
522.6000;0.2662;4.3437;
522.9000;0.2637;4.3387;
523.2000;0.2719;4.3538;
523.5000;0.2646;4.3387;
523.8000;0.2654;4.3538;
524.1000;0.2597;4.3362;
524.4000;0.2621;4.3512;
524.7000;0.2629;4.3512;
525.0000;0.2654;4.3613;
525.3000;0.2662;4.3613;
525.6000;0.2743;4.3865;
525.9000;0.2629;4.3563;
526.2000;0.2564;4.3387;
526.5000;0.2637;4.3663;
526.8000;0.2686;4.3739;
527.1000;0.2646;4.3613;
527.4000;0.2646;4.3638;
527.7000;0.2629;4.3512;
528.0000;0.2686;4.3638;
528.3000;0.2621;4.3563;
528.6000;0.2532;4.3286;
528.9000;0.2670;4.3739;
529.2000;0.2662;4.3739;
529.5000;0.2662;4.3764;
529.8000;0.2629;4.3663;
530.1000;0.2670;4.3764;
530.4000;0.2637;4.3739;
530.7000;0.2637;4.3688;
531.0000;0.2629;4.3714;
531.3000;0.2694;4.3764;
531.6000;0.2597;4.3538;
531.9000;0.2654;4.3688;
532.2000;0.2637;4.3638;
532.5000;0.2646;4.3688;
532.8000;0.2629;4.3688;
533.1000;0.2662;4.3814;
533.4000;0.2637;4.3865;
533.7000;0.2654;4.3890;
534.0000;0.2686;4.4015;
534.3000;0.2605;4.3789;
534.6000;0.2629;4.3814;
534.9000;0.2678;4.3915;
535.2000;0.2646;4.3739;
535.5000;0.2646;4.3663;
535.8000;0.2686;4.3814;
536.1000;0.2646;4.3688;
536.4000;0.2662;4.3688;
536.7000;0.2654;4.3638;
537.0000;0.2637;4.3638;
537.3000;0.2662;4.3663;
537.6000;0.2654;4.3663;
537.9000;0.2589;4.3462;
538.2000;0.2686;4.3915;
538.5000;0.2646;4.3814;
538.8000;0.2759;4.4091;
539.1000;0.2621;4.3638;
539.4000;0.2670;4.3714;
539.7000;0.2637;4.3487;
540.0000;0.2637;4.3563;
540.3000;0.2629;4.3487;
540.6000;0.2646;4.3512;
540.9000;0.2646;4.3538;
541.2000;0.2646;4.3588;
541.5000;0.2605;4.3538;
541.8000;0.2621;4.3663;
542.1000;0.2662;4.3663;
542.4000;0.2662;4.3663;
542.7000;0.2662;4.3814;
543.0000;0.2637;4.3739;
543.3000;0.2662;4.3688;
543.6000;0.2637;4.3613;
543.9000;0.2629;4.3512;
544.2000;0.2605;4.3437;
544.5000;0.2629;4.3563;
544.8000;0.2654;4.3688;
545.1000;0.2646;4.3739;
545.4000;0.2637;4.3739;
545.7000;0.2646;4.3714;
546.0000;0.2654;4.3688;
546.3000;0.2678;4.3739;
546.6000;0.2654;4.3638;
546.9000;0.2646;4.3563;
547.2000;0.2654;4.3462;
547.5000;0.2621;4.3311;
547.8000;0.2654;4.3437;
548.1000;0.2654;4.3487;
548.4000;0.2646;4.3487;
548.7000;0.2637;4.3512;
549.0000;0.2646;4.3437;
549.3000;0.2694;4.3563;
549.6000;0.2759;4.3714;
549.9000;0.2646;4.3412;
550.2000;0.2637;4.3412;
550.5000;0.2743;4.3663;
550.8000;0.2629;4.3387;
551.1000;0.2662;4.3563;
551.4000;0.2654;4.3487;
551.7000;0.2670;4.3663;
552.0000;0.2670;4.3663;
552.3000;0.2678;4.3688;
552.6000;0.2597;4.3362;
552.9000;0.2662;4.3588;
553.2000;0.2613;4.3487;
553.5000;0.2629;4.3512;
553.8000;0.2629;4.3512;
554.1000;0.2646;4.3487;
554.4000;0.2654;4.3512;
554.7000;0.2637;4.3462;
555.0000;0.2605;4.3487;
555.3000;0.2670;4.3714;
555.6000;0.2637;4.3563;
555.9000;0.2613;4.3512;
556.2000;0.2654;4.3663;
556.5000;0.2662;4.3714;
556.8000;0.2686;4.3789;
557.1000;0.2646;4.3688;
557.4000;0.2580;4.3512;
557.7000;0.2629;4.3613;
558.0000;0.2678;4.3663;
558.3000;0.2646;4.3563;
558.6000;0.2629;4.3487;
558.9000;0.2629;4.3387;
559.2000;0.2597;4.3362;
559.5000;0.2605;4.3336;
559.8000;0.2621;4.3462;
560.1000;0.2646;4.3538;
560.4000;0.2621;4.3412;
560.7000;0.2637;4.3412;
561.0000;0.2686;4.3563;
561.3000;0.2654;4.3538;
561.6000;0.2670;4.3588;
561.9000;0.2654;4.3563;
562.2000;0.2564;4.3412;
562.5000;0.2670;4.3714;
562.8000;0.2646;4.3563;
563.1000;0.2621;4.3487;
563.4000;0.2654;4.3563;
563.7000;0.2654;4.3613;
564.0000;0.2629;4.3462;
564.3000;0.2654;4.3462;
564.6000;0.2670;4.3512;
564.9000;0.2654;4.3437;
565.2000;0.2686;4.3538;
565.5000;0.2646;4.3437;
565.8000;0.2654;4.3538;
566.1000;0.2646;4.3512;
566.4000;0.2646;4.3638;
566.7000;0.2654;4.3688;
567.0000;0.2646;4.3588;
567.3000;0.2702;4.3739;
567.6000;0.2654;4.3613;
567.9000;0.2678;4.3638;
568.2000;0.2662;4.3588;
568.5000;0.2654;4.3588;
568.8000;0.2686;4.3663;
569.1000;0.2597;4.3437;
569.4000;0.2646;4.3563;
569.7000;0.2654;4.3462;
570.0000;0.2637;4.3487;
570.3000;0.2621;4.3563;
570.6000;0.2646;4.3613;
570.9000;0.2646;4.3613;
571.2000;0.2654;4.3613;
571.5000;0.2629;4.3714;
571.8000;0.2646;4.3789;
572.1000;0.2662;4.3789;
572.4000;0.2629;4.3764;
572.7000;0.2654;4.3789;
573.0000;0.2646;4.3915;
573.3000;0.2605;4.3663;
573.6000;0.2629;4.3638;
573.9000;0.2646;4.3739;
574.2000;0.2637;4.3764;
574.5000;0.2743;4.4066;
574.8000;0.2654;4.3814;
575.1000;0.2646;4.3839;
575.4000;0.2646;4.3714;
575.7000;0.2637;4.3714;
576.0000;0.2646;4.3688;
576.3000;0.2629;4.3663;
576.6000;0.2629;4.3588;
576.9000;0.2646;4.3613;
577.2000;0.2662;4.3663;
577.5000;0.2629;4.3638;
577.8000;0.2629;4.3613;
578.1000;0.2743;4.3890;
578.4000;0.2686;4.3814;
578.7000;0.2654;4.3739;
579.0000;0.2662;4.3739;
579.3000;0.2654;4.3789;
579.6000;0.2613;4.3764;
579.9000;0.2637;4.3865;
580.2000;0.2654;4.3890;
580.5000;0.2694;4.3990;
580.8000;0.2637;4.3839;
581.1000;0.2670;4.3890;
581.4000;0.2654;4.3764;
581.7000;0.2654;4.3688;
582.0000;0.2580;4.3462;
582.3000;0.2654;4.3663;
582.6000;0.2662;4.3638;
582.9000;0.2678;4.3739;
583.2000;0.2654;4.3714;
583.5000;0.2654;4.3739;
583.8000;0.2646;4.3764;
584.1000;0.2629;4.3688;
584.4000;0.2637;4.3739;
584.7000;0.2662;4.3789;
585.0000;0.2621;4.3563;
585.3000;0.2654;4.3714;
585.6000;0.2654;4.3588;
585.9000;0.2654;4.3588;
586.2000;0.2646;4.3563;
586.5000;0.2637;4.3538;
586.8000;0.2670;4.3613;
587.1000;0.2629;4.3487;
587.4000;0.2654;4.3512;
587.7000;0.2646;4.3437;
588.0000;0.2670;4.3487;
588.3000;0.2662;4.3387;
588.6000;0.2662;4.3512;
588.9000;0.2670;4.3538;
589.2000;0.2637;4.3437;
589.5000;0.2629;4.3387;
589.8000;0.2646;4.3387;
590.1000;0.2629;4.3336;
590.4000;0.2637;4.3362;
590.7000;0.2654;4.3336;
591.0000;0.2629;4.3261;
591.3000;0.2621;4.3362;
591.6000;0.2646;4.3412;
591.9000;0.2646;4.3362;
592.2000;0.2646;4.3462;
592.5000;0.2646;4.3462;
592.8000;0.2637;4.3487;
593.1000;0.2662;4.3512;
593.4000;0.2800;4.3940;
593.7000;0.2662;4.3538;
594.0000;0.2605;4.3412;
594.3000;0.2662;4.3563;
594.6000;0.2621;4.3462;
594.9000;0.2646;4.3588;
595.2000;0.2629;4.3638;
595.5000;0.2702;4.3865;
595.8000;0.2670;4.3764;
596.1000;0.2637;4.3638;
596.4000;0.2686;4.3714;
596.7000;0.2646;4.3512;
597.0000;0.2694;4.3764;
597.3000;0.2654;4.3663;
597.6000;0.2621;4.3588;
597.9000;0.2654;4.3688;
598.2000;0.2637;4.3487;
598.5000;0.2589;4.3336;
598.8000;0.2646;4.3462;
599.1000;0.2629;4.3387;
599.4000;0.2646;4.3437;
599.7000;0.2662;4.3563;
600.0000;0.2629;4.3487;
600.3000;0.2646;4.3412;
600.6000;0.2629;4.3311;
600.9000;0.2597;4.2959;
601.2000;0.2605;4.2758;
601.5000;0.2662;4.2657;
601.8000;0.2580;4.2305;
602.1000;0.2580;4.2230;
602.4000;0.2646;4.2230;
602.7000;0.2580;4.1878;
603.0000;0.2540;4.1651;
603.3000;0.2548;4.1525;
603.6000;0.2540;4.1274;
603.9000;0.2540;4.1098;
604.2000;0.2515;4.0922;
604.5000;0.2507;4.0821;
604.8000;0.2515;4.0695;
605.1000;0.2507;4.0670;
605.4000;0.2532;4.0545;
605.7000;0.2499;4.0494;
606.0000;0.2507;4.0494;
606.3000;0.2515;4.0419;
606.6000;0.2548;4.0519;
606.9000;0.2499;4.0343;
607.2000;0.2475;4.0218;
607.5000;0.2507;4.0243;
607.8000;0.2515;4.0142;
608.1000;0.2515;4.0243;
608.4000;0.2491;4.0142;
608.7000;0.2507;4.0142;
609.0000;0.2507;4.0067;
609.3000;0.2475;3.9966;
609.6000;0.2499;3.9966;
609.9000;0.2483;3.9891;
610.2000;0.2466;3.9790;
610.5000;0.2450;3.9740;
610.8000;0.2450;3.9865;
611.1000;0.2507;4.0092;
611.4000;0.2483;4.0167;
611.7000;0.2466;4.0042;
612.0000;0.2434;3.9941;
612.3000;0.2483;4.0042;
612.6000;0.2483;4.0016;
612.9000;0.2475;3.9916;
613.2000;0.2458;3.9865;
613.5000;0.2491;3.9941;
613.8000;0.2491;3.9891;
614.1000;0.2466;3.9790;
614.4000;0.2385;3.9589;
614.7000;0.2466;3.9840;
615.0000;0.2475;3.9790;
615.3000;0.2483;3.9815;
615.6000;0.2507;3.9891;
615.9000;0.2466;3.9740;
616.2000;0.2483;3.9790;
616.5000;0.2475;3.9865;
616.8000;0.2466;3.9815;
617.1000;0.2483;3.9840;
617.4000;0.2458;3.9715;
617.7000;0.2434;3.9740;
618.0000;0.2401;3.9689;
618.3000;0.2401;3.9689;
618.6000;0.2491;3.9966;
618.9000;0.2629;4.0419;
619.2000;0.2466;3.9840;
619.5000;0.2458;3.9891;
619.8000;0.2475;3.9891;
620.1000;0.2466;3.9865;
620.4000;0.2475;3.9941;
620.7000;0.2458;3.9815;
621.0000;0.2458;3.9765;
621.3000;0.2466;3.9689;
621.6000;0.2491;3.9765;
621.9000;0.2475;3.9689;
622.2000;0.2475;3.9614;
622.5000;0.2475;3.9715;
622.8000;0.2475;3.9740;
623.1000;0.2466;3.9740;
623.4000;0.2450;3.9815;
623.7000;0.2385;3.9639;
624.0000;0.2426;3.9740;
624.3000;0.2540;4.0042;
624.6000;0.2475;3.9840;
624.9000;0.2466;3.9815;
625.2000;0.2483;3.9790;
625.5000;0.2499;3.9865;
625.8000;0.2483;3.9790;
626.1000;0.2442;3.9689;
626.4000;0.2523;3.9790;
626.7000;0.2475;3.9639;
627.0000;0.2475;3.9639;
627.3000;0.2458;3.9689;
627.6000;0.2466;3.9689;
627.9000;0.2491;3.9689;
628.2000;0.2491;3.9715;
628.5000;0.2434;3.9538;
628.8000;0.2499;3.9639;
629.1000;0.2458;3.9438;
629.4000;0.2475;3.9438;
629.7000;0.2442;3.9337;
630.0000;0.2450;3.9388;
630.3000;0.2475;3.9664;
630.6000;0.2458;3.9664;
630.9000;0.2466;3.9740;
631.2000;0.2507;3.9765;
631.5000;0.2450;3.9614;
631.8000;0.2507;3.9790;
632.1000;0.2499;3.9865;
632.4000;0.2442;3.9740;
632.7000;0.2499;3.9865;
633.0000;0.2621;4.0218;
633.3000;0.2483;3.9840;
633.6000;0.2483;3.9941;
633.9000;0.2442;3.9865;
634.2000;0.2287;3.9388;
634.5000;0.2434;3.9689;
634.8000;0.2450;3.9639;
635.1000;0.2458;3.9689;
635.4000;0.2507;3.9715;
635.7000;0.2442;3.9589;
636.0000;0.2466;3.9564;
636.3000;0.2483;3.9664;
636.6000;0.2450;3.9639;
636.9000;0.2458;3.9589;
637.2000;0.2409;3.9413;
637.5000;0.2450;3.9639;
637.8000;0.2491;3.9840;
638.1000;0.2475;3.9790;
638.4000;0.2491;3.9765;
638.7000;0.2466;3.9715;
639.0000;0.2458;3.9639;
639.3000;0.2483;3.9664;
639.6000;0.2475;3.9664;
639.9000;0.2466;3.9538;
640.2000;0.2475;3.9614;
640.5000;0.2475;3.9538;
640.8000;0.2491;3.9589;
641.1000;0.2450;3.9538;
641.4000;0.2532;3.9790;
641.7000;0.2499;3.9664;
642.0000;0.2442;3.9513;
642.3000;0.2491;3.9639;
642.6000;0.2377;3.9287;
642.9000;0.2458;3.9413;
643.2000;0.2450;3.9287;
643.5000;0.2450;3.9362;
643.8000;0.2475;3.9488;
644.1000;0.2564;3.9715;
644.4000;0.2418;3.9388;
644.7000;0.2589;3.9840;
645.0000;0.2442;3.9488;
645.3000;0.2450;3.9488;
645.6000;0.2450;3.9614;
645.9000;0.2540;3.9916;
646.2000;0.2483;3.9765;
646.5000;0.2434;3.9589;
646.8000;0.2475;3.9689;
647.1000;0.2442;3.9614;
647.4000;0.2507;3.9740;
647.7000;0.2483;3.9614;
648.0000;0.2450;3.9614;
648.3000;0.2458;3.9589;
648.6000;0.2475;3.9740;
648.9000;0.2450;3.9589;
649.2000;0.2491;3.9664;
649.5000;0.2475;3.9664;
649.8000;0.2475;3.9614;
650.1000;0.2475;3.9538;
650.4000;0.2475;3.9488;
650.7000;0.2458;3.9564;
651.0000;0.2466;3.9513;
651.3000;0.2434;3.9513;
651.6000;0.2483;3.9664;
651.9000;0.2450;3.9614;
652.2000;0.2483;3.9614;
652.5000;0.2458;3.9589;
652.8000;0.2442;3.9488;
653.1000;0.2409;3.9262;
653.4000;0.2491;3.9564;
653.7000;0.2475;3.9488;
654.0000;0.2450;3.9538;
654.3000;0.2450;3.9463;
654.6000;0.2475;3.9564;
654.9000;0.2458;3.9438;
655.2000;0.2466;3.9463;
655.5000;0.2523;3.9614;
655.8000;0.2475;3.9337;
656.1000;0.2466;3.9287;
656.4000;0.2458;3.9312;
656.7000;0.2466;3.9362;
657.0000;0.2499;3.9413;
657.3000;0.2458;3.9312;
657.6000;0.2442;3.9438;
657.9000;0.2475;3.9463;
658.2000;0.2515;3.9589;
658.5000;0.2458;3.9564;
658.8000;0.2491;3.9589;
659.1000;0.2475;3.9538;
659.4000;0.2466;3.9538;
659.7000;0.2450;3.9538;
660.0000;0.2450;3.9513;
660.3000;0.2483;3.9614;
660.6000;0.2426;3.9488;
660.9000;0.2450;3.9513;
661.2000;0.2475;3.9564;
661.5000;0.2507;3.9614;
661.8000;0.2434;3.9463;
662.1000;0.2475;3.9463;
662.4000;0.2450;3.9513;
662.7000;0.2442;3.9488;
663.0000;0.2475;3.9689;
663.3000;0.2450;3.9614;
663.6000;0.2466;3.9614;
663.9000;0.2483;3.9639;
664.2000;0.2458;3.9538;
664.5000;0.2450;3.9513;
664.8000;0.2450;3.9538;
665.1000;0.2507;3.9715;
665.4000;0.2507;3.9765;
665.7000;0.2458;3.9614;
666.0000;0.2540;3.9765;
666.3000;0.2532;3.9614;
666.6000;0.2589;3.9765;
666.9000;0.2491;3.9614;
667.2000;0.2434;3.9538;
667.5000;0.2466;3.9564;
667.8000;0.2385;3.9287;
668.1000;0.2466;3.9614;
668.4000;0.2507;3.9639;
668.7000;0.2483;3.9564;
669.0000;0.2458;3.9513;
669.3000;0.2499;3.9589;
669.6000;0.2491;3.9614;
669.9000;0.2475;3.9614;
670.2000;0.2442;3.9614;
670.5000;0.2450;3.9715;
670.8000;0.2450;3.9689;
671.1000;0.2458;3.9639;
671.4000;0.2540;3.9815;
671.7000;0.2434;3.9488;
672.0000;0.2499;3.9639;
672.3000;0.2458;3.9589;
672.6000;0.2475;3.9664;
672.9000;0.2434;3.9589;
673.2000;0.2458;3.9589;
673.5000;0.2491;3.9715;
673.8000;0.2483;3.9639;
674.1000;0.2483;3.9639;
674.4000;0.2450;3.9589;
674.7000;0.2475;3.9689;
675.0000;0.2483;3.9765;
675.3000;0.2450;3.9664;
675.6000;0.2458;3.9740;
675.9000;0.2491;3.9815;
676.2000;0.2499;3.9815;
676.5000;0.2458;3.9614;
676.8000;0.2458;3.9513;
677.1000;0.2458;3.9614;
677.4000;0.2499;3.9664;
677.7000;0.2458;3.9538;
678.0000;0.2450;3.9614;
678.3000;0.2466;3.9664;
678.6000;0.2450;3.9664;
678.9000;0.2475;3.9765;
679.2000;0.2434;3.9664;
679.5000;0.2475;3.9790;
679.8000;0.2418;3.9538;
680.1000;0.2507;3.9815;
680.4000;0.2491;3.9790;
680.7000;0.2491;3.9765;
681.0000;0.2434;3.9715;
681.3000;0.2483;3.9891;
681.6000;0.2491;3.9941;
681.9000;0.2450;3.9790;
682.2000;0.2458;3.9715;
682.5000;0.2466;3.9689;
682.8000;0.2450;3.9639;
683.1000;0.2475;3.9715;
683.4000;0.2491;3.9840;
683.7000;0.2458;3.9689;
684.0000;0.2466;3.9664;
684.3000;0.2458;3.9689;
684.6000;0.2483;3.9664;
684.9000;0.2458;3.9589;
685.2000;0.2466;3.9689;
685.5000;0.2434;3.9589;
685.8000;0.2483;3.9765;
686.1000;0.2418;3.9639;
686.4000;0.2369;3.9362;
686.7000;0.2523;3.9740;
687.0000;0.2458;3.9513;
687.3000;0.2483;3.9513;
687.6000;0.2475;3.9463;
687.9000;0.2442;3.9362;
688.2000;0.2458;3.9337;
688.5000;0.2507;3.9413;
688.8000;0.2475;3.9262;
689.1000;0.2507;3.9463;
689.4000;0.2507;3.9463;
689.7000;0.2409;3.9211;
690.0000;0.2475;3.9388;
690.3000;0.2458;3.9438;
690.6000;0.2483;3.9614;
690.9000;0.2442;3.9513;
691.2000;0.2499;3.9664;
691.5000;0.2483;3.9639;
691.8000;0.2532;3.9715;
692.1000;0.2450;3.9488;
692.4000;0.2499;3.9639;
692.7000;0.2450;3.9538;
693.0000;0.2515;3.9765;
693.3000;0.2466;3.9664;
693.6000;0.2483;3.9689;
693.9000;0.2572;3.9840;
694.2000;0.2466;3.9614;
694.5000;0.2475;3.9664;
694.8000;0.2466;3.9664;
695.1000;0.2475;3.9790;
695.4000;0.2483;3.9765;
695.7000;0.2450;3.9765;
696.0000;0.2450;3.9715;
696.3000;0.2483;3.9916;
696.6000;0.2483;3.9966;
696.9000;0.2442;3.9865;
697.2000;0.2483;3.9891;
697.5000;0.2621;4.0318;
697.8000;0.2466;3.9891;
698.1000;0.2450;3.9840;
698.4000;0.2458;3.9840;
698.7000;0.2466;3.9865;
699.0000;0.2458;3.9715;
699.3000;0.2458;3.9715;
699.6000;0.2450;3.9614;
699.9000;0.2475;3.9564;
700.2000;0.2483;3.9639;
700.5000;0.2491;3.9639;
700.8000;0.2450;3.9513;
701.1000;0.2458;3.9538;
701.4000;0.2466;3.9639;
701.7000;0.2450;3.9639;
702.0000;0.2580;3.9891;
702.3000;0.2483;3.9564;
702.6000;0.2466;3.9664;
702.9000;0.2466;3.9639;
703.2000;0.2352;3.9337;
703.5000;0.2548;3.9891;
703.8000;0.2442;3.9639;
704.1000;0.2434;3.9639;
704.4000;0.2466;3.9715;
704.7000;0.2450;3.9614;
705.0000;0.2483;3.9664;
705.3000;0.2475;3.9639;
705.6000;0.2442;3.9564;
705.9000;0.2458;3.9589;
706.2000;0.2491;3.9689;
706.5000;0.2458;3.9614;
706.8000;0.2483;3.9639;
707.1000;0.2466;3.9614;
707.4000;0.2475;3.9664;
707.7000;0.2475;3.9488;
708.0000;0.2523;3.9790;
708.3000;0.2475;3.9639;
708.6000;0.2450;3.9689;
708.9000;0.2475;3.9765;
709.2000;0.2450;3.9715;
709.5000;0.2466;3.9815;
709.8000;0.2458;3.9740;
710.1000;0.2475;3.9689;
710.4000;0.2540;3.9790;
710.7000;0.2499;3.9589;
711.0000;0.2442;3.9388;
711.3000;0.2564;3.9664;
711.6000;0.2450;3.9237;
711.9000;0.2466;3.9362;
712.2000;0.2483;3.9438;
712.5000;0.2466;3.9388;
712.8000;0.2523;3.9513;
713.1000;0.2458;3.9413;
713.4000;0.2475;3.9438;
713.7000;0.2458;3.9362;
714.0000;0.2442;3.9312;
714.3000;0.2491;3.9463;
714.6000;0.2442;3.9388;
714.9000;0.2434;3.9337;
715.2000;0.2418;3.9262;
715.5000;0.2393;3.9237;
715.8000;0.2475;3.9463;
716.1000;0.2458;3.9488;
716.4000;0.2532;3.9639;
716.7000;0.2426;3.9312;
717.0000;0.2442;3.9287;
717.3000;0.2491;3.9463;
717.6000;0.2442;3.9388;
717.9000;0.2458;3.9388;
718.2000;0.2442;3.9262;
718.5000;0.2523;3.9413;
718.8000;0.2475;3.9337;
719.1000;0.2475;3.9287;
719.4000;0.2499;3.9388;
719.7000;0.2442;3.9211;
720.0000;0.2475;3.9438;
720.3000;0.2442;3.9287;
720.6000;0.2426;3.9262;
720.9000;0.2426;3.9287;
721.2000;0.2483;3.9312;
721.5000;0.2466;3.9237;
721.8000;0.2442;3.9237;
722.1000;0.2466;3.9287;
722.4000;0.2466;3.9287;
722.7000;0.2475;3.9262;
723.0000;0.2426;3.9136;
723.3000;0.2475;3.9337;
723.6000;0.2483;3.9337;
723.9000;0.2466;3.9362;
724.2000;0.2475;3.9362;
724.5000;0.2475;3.9362;
724.8000;0.2466;3.9413;
725.1000;0.2466;3.9337;
725.4000;0.2483;3.9362;
725.7000;0.2377;3.9035;
726.0000;0.2458;3.9237;
726.3000;0.2312;3.8834;
726.6000;0.2466;3.9337;
726.9000;0.2491;3.9438;
727.2000;0.2483;3.9463;
727.5000;0.2475;3.9413;
727.8000;0.2483;3.9438;
728.1000;0.2458;3.9337;
728.4000;0.2450;3.9287;
728.7000;0.2491;3.9388;
729.0000;0.2466;3.9388;
729.3000;0.2450;3.9362;
729.6000;0.2426;3.9287;
729.9000;0.2466;3.9413;
730.2000;0.2442;3.9337;
730.5000;0.2450;3.9312;
730.8000;0.2458;3.9362;
731.1000;0.2483;3.9388;
731.4000;0.2483;3.9362;
731.7000;0.2466;3.9413;
732.0000;0.2409;3.9287;
732.3000;0.2475;3.9312;
732.6000;0.2475;3.9337;
732.9000;0.2483;3.9413;
733.2000;0.2556;3.9538;
733.5000;0.2491;3.9388;
733.8000;0.2483;3.9413;
734.1000;0.2450;3.9262;
734.4000;0.2434;3.9237;
734.7000;0.2458;3.9312;
735.0000;0.2442;3.9262;
735.3000;0.2442;3.9287;
735.6000;0.2499;3.9413;
735.9000;0.2475;3.9362;
736.2000;0.2442;3.9438;
736.5000;0.2475;3.9564;
736.8000;0.2475;3.9538;
737.1000;0.2564;3.9664;
737.4000;0.2458;3.9312;
737.7000;0.2466;3.9237;
738.0000;0.2483;3.9262;
738.3000;0.2475;3.9161;
738.6000;0.2466;3.9111;
738.9000;0.2434;3.9035;
739.2000;0.2458;3.9161;
739.5000;0.2458;3.9161;
739.8000;0.2458;3.9161;
740.1000;0.2385;3.9010;
740.4000;0.2442;3.9262;
740.7000;0.2475;3.9388;
741.0000;0.2499;3.9388;
741.3000;0.2442;3.9237;
741.6000;0.2523;3.9337;
741.9000;0.2483;3.9388;
742.2000;0.2450;3.9262;
742.5000;0.2434;3.9237;
742.8000;0.2491;3.9413;
743.1000;0.2450;3.9287;
743.4000;0.2621;3.9614;
743.7000;0.2450;3.9161;
744.0000;0.2483;3.9287;
744.3000;0.2426;3.9161;
744.6000;0.2450;3.9262;
744.9000;0.2499;3.9438;
745.2000;0.2450;3.9312;
745.5000;0.2475;3.9262;
745.8000;0.2466;3.9312;
746.1000;0.2483;3.9388;
746.4000;0.2499;3.9413;
746.7000;0.2475;3.9337;
747.0000;0.2466;3.9312;
747.3000;0.2475;3.9287;
747.6000;0.2483;3.9262;
747.9000;0.2499;3.9262;
748.2000;0.2458;3.9136;
748.5000;0.2466;3.9161;
748.8000;0.2466;3.9312;
749.1000;0.2458;3.9262;
749.4000;0.2385;3.9010;
749.7000;0.2458;3.9186;
750.0000;0.2491;3.9262;
750.3000;0.2442;3.9136;
750.6000;0.2507;3.9337;
750.9000;0.2507;3.9362;
751.2000;0.2556;3.9488;
751.5000;0.2458;3.9337;
751.8000;0.2450;3.9337;
752.1000;0.2458;3.9312;
752.4000;0.2491;3.9388;
752.7000;0.2491;3.9362;
753.0000;0.2475;3.9237;
753.3000;0.2499;3.9186;
753.6000;0.2466;3.9086;
753.9000;0.2491;3.9161;
754.2000;0.2466;3.9086;
754.5000;0.2507;3.9086;
754.8000;0.2532;3.9186;
755.1000;0.2483;3.9035;
755.4000;0.2442;3.8885;
755.7000;0.2475;3.8985;
756.0000;0.2475;3.9010;
756.3000;0.2499;3.9136;
756.6000;0.2466;3.9136;
756.9000;0.2491;3.9211;
757.2000;0.2475;3.9237;
757.5000;0.2499;3.9312;
757.8000;0.2466;3.9237;
758.1000;0.2564;3.9488;
758.4000;0.2442;3.9136;
758.7000;0.2434;3.9111;
759.0000;0.2466;3.9287;
759.3000;0.2532;3.9488;
759.6000;0.2491;3.9312;
759.9000;0.2475;3.9287;
760.2000;0.2499;3.9186;
760.5000;0.2466;3.9086;
760.8000;0.2466;3.9061;
761.1000;0.2475;3.9061;
761.4000;0.2483;3.9262;
761.7000;0.2491;3.9337;
762.0000;0.2458;3.9287;
762.3000;0.2466;3.9186;
762.6000;0.2466;3.9262;
762.9000;0.2475;3.9262;
763.2000;0.2450;3.9161;
763.5000;0.2499;3.9337;
763.8000;0.2458;3.9312;
764.1000;0.2466;3.9362;
764.4000;0.2483;3.9413;
764.7000;0.2483;3.9463;
765.0000;0.2475;3.9337;
765.3000;0.2491;3.9262;
765.6000;0.2458;3.9161;
765.9000;0.2466;3.9211;
766.2000;0.2475;3.9262;
766.5000;0.2523;3.9362;
766.8000;0.2450;3.9161;
767.1000;0.2458;3.9211;
767.4000;0.2466;3.9362;
767.7000;0.2466;3.9237;
768.0000;0.2466;3.9237;
768.3000;0.2450;3.9211;
768.6000;0.2458;3.9337;
768.9000;0.2418;3.9186;
769.2000;0.2458;3.9262;
769.5000;0.2466;3.9287;
769.8000;0.2458;3.9262;
770.1000;0.2458;3.9312;
770.4000;0.2475;3.9388;
770.7000;0.2491;3.9413;
771.0000;0.2483;3.9463;
771.3000;0.2426;3.9237;
771.6000;0.2466;3.9362;
771.9000;0.2450;3.9388;
772.2000;0.2483;3.9463;
772.5000;0.2491;3.9438;
772.8000;0.2483;3.9337;
773.1000;0.2450;3.9186;
773.4000;0.2548;3.9488;
773.7000;0.2426;3.9186;
774.0000;0.2532;3.9463;
774.3000;0.2621;3.9740;
774.6000;0.2458;3.9413;
774.9000;0.2466;3.9438;
775.2000;0.2483;3.9538;
775.5000;0.2475;3.9564;
775.8000;0.2475;3.9614;
776.1000;0.2483;3.9715;
776.4000;0.2393;3.9513;
776.7000;0.2515;3.9840;
777.0000;0.2418;3.9589;
777.3000;0.2483;3.9614;
777.6000;0.2515;3.9689;
777.9000;0.2434;3.9413;
778.2000;0.2434;3.9388;
778.5000;0.2483;3.9488;
778.8000;0.2466;3.9488;
779.1000;0.2475;3.9463;
779.4000;0.2466;3.9438;
779.7000;0.2434;3.9312;
780.0000;0.2458;3.9287;
780.3000;0.2475;3.9413;
780.6000;0.2507;3.9513;
780.9000;0.2475;3.9488;
781.2000;0.2466;3.9488;
781.5000;0.2361;3.9262;
781.8000;0.2475;3.9564;
782.1000;0.2507;3.9664;
782.4000;0.2466;3.9538;
782.7000;0.2434;3.9413;
783.0000;0.2483;3.9513;
783.3000;0.2466;3.9463;
783.6000;0.2491;3.9513;
783.9000;0.2458;3.9564;
784.2000;0.2458;3.9564;
784.5000;0.2507;3.9639;
784.8000;0.2458;3.9513;
785.1000;0.2442;3.9413;
785.4000;0.2499;3.9488;
785.7000;0.2523;3.9589;
786.0000;0.2475;3.9538;
786.3000;0.2483;3.9513;
786.6000;0.2418;3.9337;
786.9000;0.2442;3.9413;
787.2000;0.2450;3.9362;
787.5000;0.2475;3.9488;
787.8000;0.2483;3.9438;
788.1000;0.2491;3.9513;
788.4000;0.2499;3.9463;
788.7000;0.2466;3.9488;
789.0000;0.2458;3.9564;
789.3000;0.2483;3.9538;
789.6000;0.2458;3.9413;
789.9000;0.2458;3.9413;
790.2000;0.2458;3.9413;
790.5000;0.2491;3.9388;
790.8000;0.2426;3.9161;
791.1000;0.2475;3.9186;
791.4000;0.2450;3.9111;
791.7000;0.2483;3.9211;
792.0000;0.2466;3.9161;
792.3000;0.2483;3.9237;
792.6000;0.2466;3.9186;
792.9000;0.2475;3.9262;
793.2000;0.2475;3.9262;
793.5000;0.2458;3.9237;
793.8000;0.2458;3.9211;
794.1000;0.2458;3.9237;
794.4000;0.2491;3.9362;
794.7000;0.2450;3.9237;
795.0000;0.2532;3.9438;
795.3000;0.2466;3.9262;
795.6000;0.2483;3.9287;
795.9000;0.2483;3.9262;
796.2000;0.2466;3.9161;
796.5000;0.2483;3.9211;
796.8000;0.2450;3.9287;
797.1000;0.2434;3.9237;
797.4000;0.2434;3.9262;
797.7000;0.2475;3.9362;
798.0000;0.2491;3.9262;
798.3000;0.2491;3.9186;
798.6000;0.2515;3.9287;
798.9000;0.2499;3.9287;
799.2000;0.2475;3.9312;
799.5000;0.2491;3.9337;
799.8000;0.2458;3.9287;
800.1000;0.2548;3.9589;
800.4000;0.2458;3.9312;
800.7000;0.2483;3.9463;
801.0000;0.2385;3.9136;
801.3000;0.2466;3.9388;
801.6000;0.2466;3.9337;
801.9000;0.2475;3.9362;
802.2000;0.2466;3.9362;
802.5000;0.2523;3.9438;
802.8000;0.2483;3.9312;
803.1000;0.2483;3.9388;
803.4000;0.2523;3.9463;
803.7000;0.2458;3.9312;
804.0000;0.2458;3.9337;
804.3000;0.2491;3.9438;
804.6000;0.2466;3.9287;
804.9000;0.2491;3.9337;
805.2000;0.2483;3.9312;
805.5000;0.2450;3.9136;
805.8000;0.2450;3.9186;
806.1000;0.2458;3.9312;
806.4000;0.2475;3.9388;
806.7000;0.2466;3.9362;
807.0000;0.2466;3.9337;
807.3000;0.2475;3.9362;
807.6000;0.2466;3.9262;
807.9000;0.2442;3.9186;
808.2000;0.2483;3.9337;
808.5000;0.2532;3.9488;
808.8000;0.2385;3.9111;
809.1000;0.2483;3.9388;
809.4000;0.2466;3.9413;
809.7000;0.2466;3.9388;
810.0000;0.2466;3.9463;
810.3000;0.2483;3.9488;
810.6000;0.2475;3.9438;
810.9000;0.2434;3.9488;
811.2000;0.2434;3.9488;
811.5000;0.2613;3.9991;
811.8000;0.2466;3.9639;
812.1000;0.2458;3.9589;
812.4000;0.2393;3.9262;
812.7000;0.2483;3.9564;
813.0000;0.2532;3.9715;
813.3000;0.2466;3.9614;
813.6000;0.2491;3.9513;
813.9000;0.2483;3.9488;
814.2000;0.2458;3.9438;
814.5000;0.2466;3.9438;
814.8000;0.2483;3.9438;
815.1000;0.2483;3.9388;
815.4000;0.2466;3.9362;
815.7000;0.2442;3.9312;
816.0000;0.2458;3.9388;
816.3000;0.2458;3.9538;
816.6000;0.2450;3.9538;
816.9000;0.2475;3.9513;
817.2000;0.2466;3.9438;
817.5000;0.2491;3.9438;
817.8000;0.2434;3.9161;
818.1000;0.2515;3.9362;
818.4000;0.2491;3.9237;
818.7000;0.2483;3.9186;
819.0000;0.2466;3.9237;
819.3000;0.2475;3.9237;
819.6000;0.2475;3.9262;
819.9000;0.2450;3.9211;
820.2000;0.2475;3.9262;
820.5000;0.2491;3.9337;
820.8000;0.2466;3.9186;
821.1000;0.2475;3.9262;
821.4000;0.2483;3.9262;
821.7000;0.2491;3.9262;
822.0000;0.2401;3.9136;
822.3000;0.2458;3.9287;
822.6000;0.2450;3.9237;
822.9000;0.2450;3.9111;
823.2000;0.2466;3.9161;
823.5000;0.2491;3.9312;
823.8000;0.2466;3.9237;
824.1000;0.2458;3.9237;
824.4000;0.2483;3.9337;
824.7000;0.2475;3.9337;
825.0000;0.2442;3.9287;
825.3000;0.2491;3.9463;
825.6000;0.2475;3.9413;
825.9000;0.2442;3.9388;
826.2000;0.2475;3.9438;
826.5000;0.2401;3.9287;
826.8000;0.2515;3.9488;
827.1000;0.2491;3.9438;
827.4000;0.2532;3.9538;
827.7000;0.2475;3.9337;
828.0000;0.2475;3.9287;
828.3000;0.2458;3.9136;
828.6000;0.2499;3.9111;
828.9000;0.2466;3.9035;
829.2000;0.2491;3.9010;
829.5000;0.2475;3.8985;
829.8000;0.2466;3.8935;
830.1000;0.2418;3.8910;
830.4000;0.2483;3.9061;
830.7000;0.2475;3.9061;
831.0000;0.2491;3.9262;
831.3000;0.2466;3.9237;
831.6000;0.2466;3.9388;
831.9000;0.2458;3.9337;
832.2000;0.2336;3.8910;
832.5000;0.2352;3.8910;
832.8000;0.2491;3.9287;
833.1000;0.2442;3.9237;
833.4000;0.2450;3.9287;
833.7000;0.2466;3.9438;
834.0000;0.2483;3.9438;
834.3000;0.2458;3.9287;
834.6000;0.2466;3.9362;
834.9000;0.2515;3.9589;
835.2000;0.2442;3.9388;
835.5000;0.2434;3.9463;
835.8000;0.2450;3.9589;
836.1000;0.2507;3.9639;
836.4000;0.2458;3.9513;
836.7000;0.2475;3.9488;
837.0000;0.2450;3.9513;
837.3000;0.2483;3.9614;
837.6000;0.2483;3.9564;
837.9000;0.2466;3.9589;
838.2000;0.2466;3.9614;
838.5000;0.2458;3.9639;
838.8000;0.2483;3.9614;
839.1000;0.2442;3.9463;
839.4000;0.2483;3.9488;
839.7000;0.2466;3.9488;
840.0000;0.2475;3.9564;
840.3000;0.2483;3.9513;
840.6000;0.2458;3.9337;
840.9000;0.2475;3.9388;
841.2000;0.2548;3.9639;
841.5000;0.2434;3.9262;
841.8000;0.2450;3.9287;
842.1000;0.2442;3.9287;
842.4000;0.2450;3.9337;
842.7000;0.2458;3.9388;
843.0000;0.2491;3.9463;
843.3000;0.2475;3.9413;
843.6000;0.2458;3.9337;
843.9000;0.2475;3.9362;
844.2000;0.2499;3.9463;
844.5000;0.2572;3.9614;
844.8000;0.2466;3.9413;
845.1000;0.2483;3.9438;
845.4000;0.2450;3.9388;
845.7000;0.2458;3.9438;
846.0000;0.2580;3.9740;
846.3000;0.2475;3.9413;
846.6000;0.2483;3.9438;
846.9000;0.2385;3.9186;
847.2000;0.2483;3.9488;
847.5000;0.2483;3.9362;
847.8000;0.2458;3.9287;
848.1000;0.2442;3.9287;
848.4000;0.2450;3.9337;
848.7000;0.2466;3.9438;
849.0000;0.2336;3.9010;
849.3000;0.2385;3.9136;
849.6000;0.2483;3.9337;
849.9000;0.2475;3.9388;
850.2000;0.2434;3.9287;
850.5000;0.2572;3.9689;
850.8000;0.2450;3.9388;
851.1000;0.2401;3.9337;
851.4000;0.2483;3.9513;
851.7000;0.2466;3.9413;
852.0000;0.2475;3.9463;
852.3000;0.2442;3.9413;
852.6000;0.2369;3.9262;
852.9000;0.2475;3.9513;
853.2000;0.2532;3.9538;
853.5000;0.2532;3.9589;
853.8000;0.2499;3.9538;
854.1000;0.2507;3.9564;
854.4000;0.2475;3.9513;
854.7000;0.2409;3.9438;
855.0000;0.2483;3.9639;
855.3000;0.2458;3.9589;
855.6000;0.2507;3.9715;
855.9000;0.2442;3.9513;
856.2000;0.2475;3.9589;
856.5000;0.2442;3.9538;
856.8000;0.2597;3.9941;
857.1000;0.2458;3.9538;
857.4000;0.2491;3.9715;
857.7000;0.2475;3.9664;
858.0000;0.2450;3.9513;
858.3000;0.2426;3.9413;
858.6000;0.2483;3.9589;
858.9000;0.2466;3.9538;
859.2000;0.2475;3.9614;
859.5000;0.2572;3.9765;
859.8000;0.2450;3.9413;
860.1000;0.2466;3.9463;
860.4000;0.2475;3.9488;
860.7000;0.2475;3.9388;
861.0000;0.2475;3.9337;
861.3000;0.2442;3.9337;
861.6000;0.2466;3.9438;
861.9000;0.2458;3.9362;
862.2000;0.2483;3.9589;
862.5000;0.2458;3.9513;
862.8000;0.2507;3.9589;
863.1000;0.2475;3.9538;
863.4000;0.2466;3.9438;
863.7000;0.2466;3.9362;
864.0000;0.2532;3.9463;
864.3000;0.2442;3.9312;
864.6000;0.2499;3.9488;
864.9000;0.2475;3.9337;
865.2000;0.2458;3.9312;
865.5000;0.2491;3.9337;
865.8000;0.2344;3.8935;
866.1000;0.2589;3.9639;
866.4000;0.2466;3.9337;
866.7000;0.2483;3.9438;
867.0000;0.2450;3.9413;
867.3000;0.2548;3.9639;
867.6000;0.2466;3.9388;
867.9000;0.2344;3.9111;
868.2000;0.2491;3.9488;
868.5000;0.2466;3.9413;
868.8000;0.2450;3.9388;
869.1000;0.2466;3.9413;
869.4000;0.2466;3.9362;
869.7000;0.2475;3.9312;
870.0000;0.2475;3.9362;
870.3000;0.2458;3.9262;
870.6000;0.2458;3.9413;
870.9000;0.2475;3.9564;
871.2000;0.2483;3.9589;
871.5000;0.2458;3.9463;
871.8000;0.2466;3.9413;
872.1000;0.2466;3.9513;
872.4000;0.2491;3.9463;
872.7000;0.2523;3.9589;
873.0000;0.2507;3.9488;
873.3000;0.2450;3.9413;
873.6000;0.2458;3.9413;
873.9000;0.2483;3.9438;
874.2000;0.2409;3.9262;
874.5000;0.2466;3.9362;
874.8000;0.2442;3.9337;
875.1000;0.2450;3.9337;
875.4000;0.2328;3.8960;
875.7000;0.2458;3.9287;
876.0000;0.2589;3.9639;
876.3000;0.2458;3.9262;
876.6000;0.2532;3.9488;
876.9000;0.2458;3.9312;
877.2000;0.2418;3.9237;
877.5000;0.2499;3.9488;
877.8000;0.2483;3.9337;
878.1000;0.2483;3.9413;
878.4000;0.2475;3.9337;
878.7000;0.2466;3.9438;
879.0000;0.2466;3.9438;
879.3000;0.2466;3.9362;
879.6000;0.2450;3.9362;
879.9000;0.2466;3.9413;
880.2000;0.2475;3.9463;
880.5000;0.2458;3.9413;
880.8000;0.2442;3.9337;
881.1000;0.2466;3.9438;
881.4000;0.2483;3.9488;
881.7000;0.2475;3.9513;
882.0000;0.2491;3.9488;
882.3000;0.2442;3.9337;
882.6000;0.2466;3.9413;
882.9000;0.2458;3.9362;
883.2000;0.2491;3.9513;
883.5000;0.2483;3.9614;
883.8000;0.2458;3.9589;
884.1000;0.2564;3.9891;
884.4000;0.2458;3.9538;
884.7000;0.2483;3.9664;
885.0000;0.2475;3.9689;
885.3000;0.2515;3.9664;
885.6000;0.2458;3.9413;
885.9000;0.2475;3.9438;
886.2000;0.2483;3.9312;
886.5000;0.2483;3.9362;
886.8000;0.2458;3.9362;
887.1000;0.2450;3.9262;
887.4000;0.2491;3.9413;
887.7000;0.2466;3.9337;
888.0000;0.2491;3.9362;
888.3000;0.2475;3.9388;
888.6000;0.2466;3.9388;
888.9000;0.2450;3.9287;
889.2000;0.2507;3.9488;
889.5000;0.2450;3.9413;
889.8000;0.2523;3.9614;
890.1000;0.2426;3.9362;
890.4000;0.2483;3.9513;
890.7000;0.2499;3.9614;
891.0000;0.2458;3.9564;
891.3000;0.2499;3.9715;
891.6000;0.2458;3.9664;
891.9000;0.2442;3.9639;
892.2000;0.2434;3.9463;
892.5000;0.2475;3.9589;
892.8000;0.2475;3.9488;
893.1000;0.2491;3.9513;
893.4000;0.2475;3.9513;
893.7000;0.2458;3.9513;
894.0000;0.2450;3.9463;
894.3000;0.2483;3.9564;
894.6000;0.2466;3.9564;
894.9000;0.2442;3.9564;
895.2000;0.2466;3.9664;
895.5000;0.2458;3.9715;
895.8000;0.2458;3.9639;
896.1000;0.2483;3.9639;
896.4000;0.2466;3.9488;
896.7000;0.2450;3.9538;
897.0000;0.2475;3.9538;
897.3000;0.2450;3.9488;
897.6000;0.2434;3.9538;
897.9000;0.2605;4.0042;
898.2000;0.2491;3.9689;
898.5000;0.2475;3.9689;
898.8000;0.2401;3.9513;
899.1000;0.2450;3.9564;
899.4000;0.2442;3.9564;
899.7000;0.2483;3.9614;
900.0000;0.2450;3.9564;
900.3000;0.2475;3.9589;
900.6000;0.2475;3.9589;
900.9000;0.2499;3.9664;
901.2000;0.2466;3.9564;
901.5000;0.2450;3.9564;
901.8000;0.2458;3.9564;
902.1000;0.2450;3.9488;
902.4000;0.2491;3.9513;
902.7000;0.2475;3.9488;
903.0000;0.2344;3.9186;
903.3000;0.2475;3.9589;
903.6000;0.2409;3.9388;
903.9000;0.2491;3.9664;
904.2000;0.2458;3.9614;
904.5000;0.2458;3.9614;
904.8000;0.2442;3.9589;
905.1000;0.2466;3.9664;
905.4000;0.2458;3.9664;
905.7000;0.2466;3.9564;
906.0000;0.2466;3.9538;
906.3000;0.2442;3.9438;
906.6000;0.2344;3.9136;
906.9000;0.2434;3.9312;
907.2000;0.2483;3.9463;
907.5000;0.2434;3.9413;
907.8000;0.2597;3.9790;
908.1000;0.2450;3.9388;
908.4000;0.2466;3.9513;
908.7000;0.2556;3.9891;
909.0000;0.2475;3.9639;
909.3000;0.2442;3.9513;
909.6000;0.2458;3.9513;
909.9000;0.2475;3.9564;
910.2000;0.2466;3.9413;
910.5000;0.2426;3.9237;
910.8000;0.2450;3.9262;
911.1000;0.2434;3.9237;
911.4000;0.2369;3.9061;
911.7000;0.2466;3.9413;
912.0000;0.2483;3.9388;
912.3000;0.2434;3.9312;
912.6000;0.2418;3.9262;
912.9000;0.2499;3.9438;
913.2000;0.2466;3.9413;
913.5000;0.2475;3.9337;
913.8000;0.2483;3.9337;
914.1000;0.2507;3.9413;
914.4000;0.2466;3.9312;
914.7000;0.2442;3.9312;
915.0000;0.2499;3.9538;
915.3000;0.2466;3.9564;
915.6000;0.2499;3.9538;
915.9000;0.2442;3.9438;
916.2000;0.2458;3.9513;
916.5000;0.2458;3.9488;
916.8000;0.2499;3.9589;
917.1000;0.2523;3.9564;
917.4000;0.2491;3.9438;
917.7000;0.2491;3.9538;
918.0000;0.2442;3.9538;
918.3000;0.2466;3.9689;
918.6000;0.2475;3.9715;
918.9000;0.2491;3.9715;
919.2000;0.2491;3.9639;
919.5000;0.2491;3.9664;
919.8000;0.2483;3.9715;
920.1000;0.2458;3.9639;
920.4000;0.2458;3.9614;
920.7000;0.2458;3.9614;
921.0000;0.2466;3.9564;
921.3000;0.2458;3.9463;
921.6000;0.2442;3.9362;
921.9000;0.2418;3.9237;
922.2000;0.2499;3.9488;
922.5000;0.2499;3.9513;
922.8000;0.2466;3.9413;
923.1000;0.2491;3.9538;
923.4000;0.2458;3.9438;
923.7000;0.2466;3.9513;
924.0000;0.2466;3.9538;
924.3000;0.2475;3.9463;
924.6000;0.2475;3.9488;
924.9000;0.2483;3.9513;
925.2000;0.2491;3.9513;
925.5000;0.2434;3.9413;
925.8000;0.2466;3.9589;
926.1000;0.2466;3.9564;
926.4000;0.2466;3.9589;
926.7000;0.2458;3.9538;
927.0000;0.2458;3.9463;
927.3000;0.2475;3.9538;
927.6000;0.2483;3.9538;
927.9000;0.2466;3.9538;
928.2000;0.2458;3.9538;
928.5000;0.2483;3.9589;
928.8000;0.2483;3.9689;
929.1000;0.2466;3.9488;
929.4000;0.2491;3.9488;
929.7000;0.2458;3.9438;
930.0000;0.2483;3.9488;
930.3000;0.2466;3.9463;
930.6000;0.2442;3.9362;
930.9000;0.2499;3.9438;
931.2000;0.2475;3.9438;
931.5000;0.2475;3.9513;
931.8000;0.2483;3.9564;
932.1000;0.2475;3.9589;
932.4000;0.2491;3.9614;
932.7000;0.2475;3.9614;
933.0000;0.2597;3.9966;
933.3000;0.2458;3.9715;
933.6000;0.2483;3.9689;
933.9000;0.2475;3.9614;
934.2000;0.2475;3.9538;
934.5000;0.2515;3.9740;
934.8000;0.2475;3.9639;
935.1000;0.2475;3.9664;
935.4000;0.2491;3.9740;
935.7000;0.2442;3.9538;
936.0000;0.2466;3.9639;
936.3000;0.2475;3.9589;
936.6000;0.2466;3.9513;
936.9000;0.2466;3.9488;
937.2000;0.2572;3.9715;
937.5000;0.2483;3.9388;
937.8000;0.2466;3.9337;
938.1000;0.2458;3.9287;
938.4000;0.2499;3.9413;
938.7000;0.2491;3.9388;
939.0000;0.2458;3.9438;
939.3000;0.2450;3.9438;
939.6000;0.2458;3.9438;
939.9000;0.2466;3.9388;
940.2000;0.2475;3.9413;
940.5000;0.2475;3.9388;
940.8000;0.2483;3.9538;
941.1000;0.2466;3.9564;
941.4000;0.2458;3.9639;
941.7000;0.2450;3.9564;
942.0000;0.2466;3.9689;
942.3000;0.2475;3.9715;
942.6000;0.2491;3.9715;
942.9000;0.2475;3.9614;
943.2000;0.2475;3.9639;
943.5000;0.2458;3.9614;
943.8000;0.2491;3.9639;
944.1000;0.2483;3.9564;
944.4000;0.2450;3.9513;
944.7000;0.2442;3.9463;
945.0000;0.2491;3.9589;
945.3000;0.2458;3.9463;
945.6000;0.2458;3.9438;
945.9000;0.2475;3.9513;
946.2000;0.2491;3.9513;
946.5000;0.2475;3.9463;
946.8000;0.2491;3.9538;
947.1000;0.2475;3.9538;
947.4000;0.2499;3.9614;
947.7000;0.2475;3.9564;
948.0000;0.2450;3.9413;
948.3000;0.2475;3.9488;
948.6000;0.2442;3.9438;
948.9000;0.2483;3.9513;
949.2000;0.2507;3.9614;
949.5000;0.2483;3.9589;
949.8000;0.2475;3.9564;
950.1000;0.2466;3.9538;
950.4000;0.2483;3.9689;
950.7000;0.2483;3.9664;
951.0000;0.2466;3.9614;
951.3000;0.2491;3.9664;
951.6000;0.2466;3.9614;
951.9000;0.2499;3.9689;
952.2000;0.2442;3.9589;
952.5000;0.2466;3.9538;
952.8000;0.2499;3.9614;
953.1000;0.2483;3.9564;
953.4000;0.2361;3.9237;
953.7000;0.2466;3.9589;
954.0000;0.2466;3.9538;
954.3000;0.2483;3.9513;
954.6000;0.2475;3.9538;
954.9000;0.2523;3.9664;
955.2000;0.2483;3.9538;
955.5000;0.2466;3.9564;
955.8000;0.2491;3.9689;
956.1000;0.2450;3.9564;
956.4000;0.2466;3.9614;
956.7000;0.2515;3.9715;
957.0000;0.2475;3.9513;
957.3000;0.2483;3.9538;
957.6000;0.2466;3.9564;
957.9000;0.2458;3.9463;
958.2000;0.2466;3.9413;
958.5000;0.2483;3.9463;
958.8000;0.2475;3.9513;
959.1000;0.2491;3.9614;
959.4000;0.2515;3.9689;
959.7000;0.2491;3.9715;
960.0000;0.2361;3.9312;
960.3000;0.2507;3.9765;
960.6000;0.2483;3.9639;
960.9000;0.2499;3.9740;
961.2000;0.2442;3.9664;
961.5000;0.2475;3.9765;
961.8000;0.2483;3.9740;
962.1000;0.2629;4.0192;
962.4000;0.2483;3.9765;
962.7000;0.2458;3.9664;
963.0000;0.2491;3.9689;
963.3000;0.2458;3.9664;
963.6000;0.2466;3.9664;
963.9000;0.2466;3.9664;
964.2000;0.2466;3.9715;
964.5000;0.2475;3.9790;
964.8000;0.2450;3.9740;
965.1000;0.2466;3.9815;
965.4000;0.2483;3.9916;
965.7000;0.2458;3.9865;
966.0000;0.2491;3.9941;
966.3000;0.2491;3.9916;
966.6000;0.2450;3.9715;
966.9000;0.2483;3.9790;
967.2000;0.2450;3.9689;
967.5000;0.2475;3.9689;
967.8000;0.2483;3.9689;
968.1000;0.2491;3.9715;
968.4000;0.2458;3.9715;
968.7000;0.2572;3.9916;
969.0000;0.2483;3.9740;
969.3000;0.2475;3.9765;
969.6000;0.2475;3.9664;
969.9000;0.2442;3.9488;
970.2000;0.2483;3.9614;
970.5000;0.2466;3.9564;
970.8000;0.2466;3.9715;
971.1000;0.2475;3.9765;
971.4000;0.2466;3.9740;
971.7000;0.2377;3.9463;
972.0000;0.2466;3.9815;
972.3000;0.2409;3.9589;
972.6000;0.2499;3.9865;
972.9000;0.2458;3.9689;
973.2000;0.2458;3.9715;
973.5000;0.2540;3.9840;
973.8000;0.2466;3.9538;
974.1000;0.2475;3.9589;
974.4000;0.2450;3.9564;
974.7000;0.2483;3.9689;
975.0000;0.2499;3.9715;
975.3000;0.2442;3.9564;
975.6000;0.2475;3.9589;
975.9000;0.2499;3.9689;
976.2000;0.2475;3.9639;
976.5000;0.2458;3.9614;
976.8000;0.2466;3.9689;
977.1000;0.2450;3.9689;
977.4000;0.2458;3.9715;
977.7000;0.2499;3.9815;
978.0000;0.2483;3.9715;
978.3000;0.2475;3.9664;
978.6000;0.2466;3.9513;
978.9000;0.2475;3.9513;
979.2000;0.2450;3.9513;
979.5000;0.2434;3.9538;
979.8000;0.2458;3.9689;
980.1000;0.2475;3.9740;
980.4000;0.2450;3.9715;
980.7000;0.2458;3.9765;
981.0000;0.2442;3.9715;
981.3000;0.2450;3.9689;
981.6000;0.2466;3.9664;
981.9000;0.2483;3.9689;
982.2000;0.2426;3.9438;
982.5000;0.2483;3.9589;
982.8000;0.2466;3.9614;
983.1000;0.2483;3.9538;
983.4000;0.2458;3.9564;
983.7000;0.2483;3.9639;
984.0000;0.2499;3.9790;
984.3000;0.2532;3.9815;
984.6000;0.2556;3.9891;
984.9000;0.2458;3.9689;
985.2000;0.2483;3.9790;
985.5000;0.2466;3.9589;
985.8000;0.2523;3.9715;
986.1000;0.2475;3.9538;
986.4000;0.2483;3.9538;
986.7000;0.2475;3.9614;
987.0000;0.2458;3.9538;
987.3000;0.2475;3.9589;
987.6000;0.2475;3.9564;
987.9000;0.2426;3.9413;
988.2000;0.2442;3.9564;
988.5000;0.2483;3.9765;
988.8000;0.2385;3.9463;
989.1000;0.2466;3.9689;
989.4000;0.2466;3.9664;
989.7000;0.2450;3.9614;
990.0000;0.2401;3.9438;
990.3000;0.2491;3.9765;
990.6000;0.2458;3.9765;
990.9000;0.2475;3.9740;
991.2000;0.2483;3.9765;
991.5000;0.2385;3.9463;
991.8000;0.2475;3.9715;
992.1000;0.2475;3.9689;
992.4000;0.2483;3.9664;
992.7000;0.2597;3.9966;
993.0000;0.2491;3.9689;
993.3000;0.2393;3.9488;
993.6000;0.2548;3.9865;
993.9000;0.2475;3.9639;
994.2000;0.2458;3.9564;
994.5000;0.2466;3.9564;
994.8000;0.2475;3.9438;
995.1000;0.2507;3.9513;
995.4000;0.2483;3.9362;
995.7000;0.2466;3.9438;
996.0000;0.2483;3.9513;
996.3000;0.2466;3.9463;
996.6000;0.2466;3.9488;
996.9000;0.2466;3.9413;
997.2000;0.2483;3.9589;
997.5000;0.2466;3.9513;
997.8000;0.2450;3.9413;
998.1000;0.2475;3.9413;
998.4000;0.2466;3.9438;
998.7000;0.2466;3.9362;
999.0000;0.2434;3.9362;
999.3000;0.2548;3.9614;
999.6000;0.2475;3.9463;
999.9000;0.2434;3.9337;
1000.2000;0.2556;3.9564;
1000.5000;0.2580;3.9715;
1000.8000;0.2483;3.9488;
1001.1000;0.2401;3.9337;
1001.4000;0.2499;3.9463;
1001.7000;0.2466;3.9413;
1002.0000;0.2475;3.9413;
1002.3000;0.2475;3.9388;
1002.6000;0.2442;3.9262;
1002.9000;0.2450;3.9262;
1003.2000;0.2409;3.9136;
1003.5000;0.2523;3.9513;
1003.8000;0.2458;3.9362;
1004.1000;0.2491;3.9513;
1004.4000;0.2442;3.9438;
1004.7000;0.2458;3.9463;
1005.0000;0.2499;3.9589;
1005.3000;0.2523;3.9614;
1005.6000;0.2458;3.9488;
1005.9000;0.2393;3.9337;
1006.2000;0.2475;3.9513;
1006.5000;0.2483;3.9589;
1006.8000;0.2475;3.9488;
1007.1000;0.2418;3.9237;
1007.4000;0.2491;3.9312;
1007.7000;0.2466;3.9262;
1008.0000;0.2491;3.9413;
1008.3000;0.2385;3.9061;
1008.6000;0.2491;3.9337;
1008.9000;0.2483;3.9413;
1009.2000;0.2515;3.9589;
1009.5000;0.2483;3.9488;
1009.8000;0.2466;3.9438;
1010.1000;0.2491;3.9589;
1010.4000;0.2442;3.9438;
1010.7000;0.2442;3.9362;
1011.0000;0.2483;3.9463;
1011.3000;0.2475;3.9438;
1011.6000;0.2475;3.9488;
1011.9000;0.2426;3.9362;
1012.2000;0.2466;3.9538;
1012.5000;0.2491;3.9614;
1012.8000;0.2458;3.9463;
1013.1000;0.2491;3.9564;
1013.4000;0.2458;3.9362;
1013.7000;0.2483;3.9413;
1014.0000;0.2466;3.9362;
1014.3000;0.2466;3.9262;
1014.6000;0.2458;3.9211;
1014.9000;0.2499;3.9312;
1015.2000;0.2483;3.9186;
1015.5000;0.2475;3.9237;
1015.8000;0.2475;3.9337;
1016.1000;0.2458;3.9413;
1016.4000;0.2450;3.9413;
1016.7000;0.2548;3.9715;
1017.0000;0.2507;3.9589;
1017.3000;0.2458;3.9513;
1017.6000;0.2507;3.9614;
1017.9000;0.2475;3.9639;
1018.2000;0.2450;3.9614;
1018.5000;0.2466;3.9639;
1018.8000;0.2450;3.9564;
1019.1000;0.2458;3.9488;
1019.4000;0.2475;3.9513;
1019.7000;0.2466;3.9438;
1020.0000;0.2483;3.9513;
1020.3000;0.2483;3.9488;
1020.6000;0.2466;3.9463;
1020.9000;0.2556;3.9740;
1021.2000;0.2418;3.9362;
1021.5000;0.2466;3.9513;
1021.8000;0.2466;3.9564;
1022.1000;0.2409;3.9413;
1022.4000;0.2328;3.9161;
1022.7000;0.2458;3.9463;
1023.0000;0.2475;3.9463;
1023.3000;0.2458;3.9438;
1023.6000;0.2475;3.9538;
1023.9000;0.2475;3.9538;
1024.2000;0.2426;3.9337;
1024.5000;0.2426;3.9211;
1024.8000;0.2450;3.9388;
1025.1000;0.2475;3.9463;
1025.4000;0.2475;3.9513;
1025.7000;0.2450;3.9538;
1026.0000;0.2491;3.9689;
1026.3000;0.2475;3.9614;
1026.6000;0.2507;3.9664;
1026.9000;0.2466;3.9488;
1027.2000;0.2409;3.9362;
1027.5000;0.2507;3.9589;
1027.8000;0.2483;3.9513;
1028.1000;0.2466;3.9513;
1028.4000;0.2491;3.9689;
1028.7000;0.2483;3.9740;
1029.0000;0.2491;3.9790;
1029.3000;0.2458;3.9740;
1029.6000;0.2483;3.9765;
1029.9000;0.2466;3.9639;
1030.2000;0.2499;3.9664;
1030.5000;0.2491;3.9639;
1030.8000;0.2475;3.9538;
1031.1000;0.2442;3.9463;
1031.4000;0.2499;3.9589;
1031.7000;0.2499;3.9538;
1032.0000;0.2442;3.9488;
1032.3000;0.2475;3.9538;
1032.6000;0.2483;3.9639;
1032.9000;0.2507;3.9589;
1033.2000;0.2475;3.9463;
1033.5000;0.2466;3.9362;
1033.8000;0.2466;3.9337;
1034.1000;0.2499;3.9488;
1034.4000;0.2507;3.9513;
1034.7000;0.2466;3.9362;
1035.0000;0.2499;3.9413;
1035.3000;0.2458;3.9312;
1035.6000;0.2483;3.9413;
1035.9000;0.2458;3.9362;
1036.2000;0.2466;3.9564;
1036.5000;0.2336;3.9111;
1036.8000;0.2491;3.9538;
1037.1000;0.2475;3.9488;
1037.4000;0.2450;3.9463;
1037.7000;0.2466;3.9463;
1038.0000;0.2475;3.9513;
1038.3000;0.2483;3.9614;
1038.6000;0.2466;3.9564;
1038.9000;0.2475;3.9564;
1039.2000;0.2483;3.9538;
1039.5000;0.2458;3.9388;
1039.8000;0.2540;3.9664;
1040.1000;0.2466;3.9438;
1040.4000;0.2613;3.9916;
1040.7000;0.2483;3.9513;
1041.0000;0.2458;3.9513;
1041.3000;0.2475;3.9538;
1041.6000;0.2466;3.9488;
1041.9000;0.2491;3.9513;
1042.2000;0.2499;3.9538;
1042.5000;0.2458;3.9463;
1042.8000;0.2458;3.9513;
1043.1000;0.2475;3.9538;
1043.4000;0.2507;3.9488;
1043.7000;0.2466;3.9438;
1044.0000;0.2483;3.9438;
1044.3000;0.2491;3.9438;
1044.6000;0.2499;3.9463;
1044.9000;0.2450;3.9413;
1045.2000;0.2466;3.9413;
1045.5000;0.2523;3.9589;
1045.8000;0.2475;3.9538;
1046.1000;0.2540;3.9765;
1046.4000;0.2475;3.9438;
1046.7000;0.2466;3.9438;
1047.0000;0.2621;3.9840;
1047.3000;0.2450;3.9413;
1047.6000;0.2458;3.9438;
1047.9000;0.2475;3.9438;
1048.2000;0.2491;3.9564;
1048.5000;0.2466;3.9564;
1048.8000;0.2475;3.9564;
1049.1000;0.2458;3.9538;
1049.4000;0.2491;3.9639;
1049.7000;0.2475;3.9614;
1050.0000;0.2418;3.9438;
1050.3000;0.2466;3.9488;
1050.6000;0.2507;3.9664;
1050.9000;0.2418;3.9337;
1051.2000;0.2475;3.9538;
1051.5000;0.2458;3.9538;
1051.8000;0.2475;3.9538;
1052.1000;0.2450;3.9564;
1052.4000;0.2475;3.9664;
1052.7000;0.2458;3.9689;
1053.0000;0.2466;3.9664;
1053.3000;0.2475;3.9664;
1053.6000;0.2466;3.9689;
1053.9000;0.2466;3.9765;
1054.2000;0.2442;3.9740;
1054.5000;0.2458;3.9765;
1054.8000;0.2466;3.9765;
1055.1000;0.2458;3.9614;
1055.4000;0.2458;3.9639;
1055.7000;0.2450;3.9664;
1056.0000;0.2499;3.9765;
1056.3000;0.2369;3.9463;
1056.6000;0.2458;3.9715;
1056.9000;0.2466;3.9765;
1057.2000;0.2475;3.9689;
1057.5000;0.2450;3.9614;
1057.8000;0.2458;3.9564;
1058.1000;0.2458;3.9538;
1058.4000;0.2523;3.9664;
1058.7000;0.2458;3.9513;
1059.0000;0.2483;3.9538;
1059.3000;0.2466;3.9513;
1059.6000;0.2475;3.9564;
1059.9000;0.2483;3.9664;
1060.2000;0.2450;3.9538;
1060.5000;0.2450;3.9488;
1060.8000;0.2450;3.9513;
1061.1000;0.2499;3.9689;
1061.4000;0.2466;3.9538;
1061.7000;0.2499;3.9488;
1062.0000;0.2458;3.9463;
1062.3000;0.2458;3.9438;
1062.6000;0.2434;3.9413;
1062.9000;0.2458;3.9438;
1063.2000;0.2499;3.9664;
1063.5000;0.2426;3.9438;
1063.8000;0.2466;3.9538;
1064.1000;0.2466;3.9564;
1064.4000;0.2434;3.9438;
1064.7000;0.2483;3.9564;
1065.0000;0.2483;3.9438;
1065.3000;0.2475;3.9463;
1065.6000;0.2466;3.9413;
1065.9000;0.2336;3.9161;
1066.2000;0.2458;3.9413;
1066.5000;0.2483;3.9413;
1066.8000;0.2466;3.9337;
1067.1000;0.2499;3.9463;
1067.4000;0.2475;3.9388;
1067.7000;0.2475;3.9337;
1068.0000;0.2475;3.9438;
1068.3000;0.2442;3.9362;
1068.6000;0.2491;3.9463;
1068.9000;0.2532;3.9513;
1069.2000;0.2475;3.9438;
1069.5000;0.2483;3.9438;
1069.8000;0.2458;3.9312;
1070.1000;0.2458;3.9287;
1070.4000;0.2475;3.9337;
1070.7000;0.2458;3.9337;
1071.0000;0.2475;3.9362;
1071.3000;0.2466;3.9388;
1071.6000;0.2466;3.9337;
1071.9000;0.2401;3.9136;
1072.2000;0.2450;3.9337;
1072.5000;0.2548;3.9564;
1072.8000;0.2491;3.9438;
1073.1000;0.2442;3.9312;
1073.4000;0.2499;3.9463;
1073.7000;0.2466;3.9337;
1074.0000;0.2491;3.9388;
1074.3000;0.2458;3.9312;
1074.6000;0.2491;3.9362;
1074.9000;0.2540;3.9488;
1075.2000;0.2613;3.9689;
1075.5000;0.2475;3.9262;
1075.8000;0.2475;3.9262;
1076.1000;0.2458;3.9161;
1076.4000;0.2466;3.9111;
1076.7000;0.2466;3.9086;
1077.0000;0.2458;3.9161;
1077.3000;0.2483;3.9312;
1077.6000;0.2466;3.9262;
1077.9000;0.2458;3.9287;
1078.2000;0.2475;3.9388;
1078.5000;0.2491;3.9438;
1078.8000;0.2515;3.9564;
1079.1000;0.2475;3.9513;
1079.4000;0.2434;3.9337;
1079.7000;0.2466;3.9488;
1080.0000;0.2426;3.9287;
1080.3000;0.2458;3.9362;
1080.6000;0.2466;3.9438;
1080.9000;0.2475;3.9538;
1081.2000;0.2483;3.9589;
1081.5000;0.2450;3.9538;
1081.8000;0.2475;3.9538;
1082.1000;0.2450;3.9513;
1082.4000;0.2499;3.9639;
1082.7000;0.2491;3.9513;
1083.0000;0.2401;3.9262;
1083.3000;0.2475;3.9463;
1083.6000;0.2450;3.9413;
1083.9000;0.2515;3.9664;
1084.2000;0.2466;3.9488;
1084.5000;0.2450;3.9413;
1084.8000;0.2418;3.9388;
1085.1000;0.2458;3.9388;
1085.4000;0.2458;3.9337;
1085.7000;0.2352;3.8985;
1086.0000;0.2483;3.9312;
1086.3000;0.2540;3.9538;
1086.6000;0.2475;3.9237;
1086.9000;0.2434;3.9061;
1087.2000;0.2483;3.9211;
1087.5000;0.2475;3.9287;
1087.8000;0.2475;3.9287;
1088.1000;0.2458;3.9362;
1088.4000;0.2564;3.9765;
1088.7000;0.2393;3.9337;
1089.0000;0.2483;3.9463;
1089.3000;0.2491;3.9488;
1089.6000;0.2475;3.9438;
1089.9000;0.2458;3.9438;
1090.2000;0.2458;3.9438;
1090.5000;0.2458;3.9438;
1090.8000;0.2475;3.9488;
1091.1000;0.2580;3.9815;
1091.4000;0.2605;3.9865;
1091.7000;0.2458;3.9413;
1092.0000;0.2466;3.9438;
1092.3000;0.2491;3.9513;
1092.6000;0.2450;3.9513;
1092.9000;0.2483;3.9513;
1093.2000;0.2450;3.9488;
1093.5000;0.2442;3.9463;
1093.8000;0.2458;3.9614;
1094.1000;0.2540;3.9790;
1094.4000;0.2450;3.9538;
1094.7000;0.2475;3.9538;
1095.0000;0.2475;3.9488;
1095.3000;0.2466;3.9388;
1095.6000;0.2466;3.9488;
1095.9000;0.2458;3.9513;
1096.2000;0.2401;3.9362;
1096.5000;0.2475;3.9513;
1096.8000;0.2442;3.9362;
1097.1000;0.2466;3.9413;
1097.4000;0.2466;3.9513;
1097.7000;0.2491;3.9564;
1098.0000;0.2556;3.9689;
1098.3000;0.2483;3.9538;
1098.6000;0.2458;3.9463;
1098.9000;0.2466;3.9463;
1099.2000;0.2434;3.9337;
1099.5000;0.2491;3.9513;
1099.8000;0.2458;3.9362;
1100.1000;0.2442;3.9262;
1100.4000;0.2564;3.9538;
1100.7000;0.2491;3.9262;
1101.0000;0.2532;3.9488;
1101.3000;0.2475;3.9362;
1101.6000;0.2483;3.9287;
1101.9000;0.2442;3.9287;
1102.2000;0.2409;3.9111;
1102.5000;0.2458;3.9312;
1102.8000;0.2499;3.9538;
1103.1000;0.2475;3.9513;
1103.4000;0.2450;3.9488;
1103.7000;0.2475;3.9564;
1104.0000;0.2548;3.9790;
1104.3000;0.2483;3.9564;
1104.6000;0.2426;3.9463;
1104.9000;0.2442;3.9463;
1105.2000;0.2466;3.9564;
1105.5000;0.2466;3.9564;
1105.8000;0.2458;3.9463;
1106.1000;0.2475;3.9488;
1106.4000;0.2515;3.9689;
1106.7000;0.2507;3.9689;
1107.0000;0.2475;3.9513;
1107.3000;0.2483;3.9564;
1107.6000;0.2491;3.9639;
1107.9000;0.2540;3.9790;
1108.2000;0.2499;3.9564;
1108.5000;0.2491;3.9513;
1108.8000;0.2458;3.9388;
1109.1000;0.2499;3.9513;
1109.4000;0.2499;3.9538;
1109.7000;0.2393;3.9186;
1110.0000;0.2450;3.9337;
1110.3000;0.2466;3.9438;
1110.6000;0.2466;3.9463;
1110.9000;0.2491;3.9438;
1111.2000;0.2499;3.9488;
1111.5000;0.2475;3.9413;
1111.8000;0.2458;3.9438;
1112.1000;0.2491;3.9488;
1112.4000;0.2466;3.9463;
1112.7000;0.2548;3.9715;
1113.0000;0.2499;3.9689;
1113.3000;0.2483;3.9664;
1113.6000;0.2458;3.9564;
1113.9000;0.2434;3.9337;
1114.2000;0.2466;3.9463;
1114.5000;0.2483;3.9538;
1114.8000;0.2475;3.9488;
1115.1000;0.2458;3.9513;
1115.4000;0.2475;3.9639;
1115.7000;0.2483;3.9564;
1116.0000;0.2442;3.9413;
1116.3000;0.2450;3.9463;
1116.6000;0.2458;3.9513;
1116.9000;0.2515;3.9639;
1117.2000;0.2483;3.9538;
1117.5000;0.2434;3.9488;
1117.8000;0.2483;3.9639;
1118.1000;0.2548;3.9765;
1118.4000;0.2491;3.9564;
1118.7000;0.2475;3.9513;
1119.0000;0.2466;3.9488;
1119.3000;0.2499;3.9564;
1119.6000;0.2475;3.9488;
1119.9000;0.2418;3.9287;
1120.2000;0.2523;3.9639;
1120.5000;0.2475;3.9488;
1120.8000;0.2466;3.9538;
1121.1000;0.2450;3.9463;
1121.4000;0.2466;3.9538;
1121.7000;0.2466;3.9538;
1122.0000;0.2499;3.9639;
1122.3000;0.2426;3.9362;
1122.6000;0.2466;3.9538;
1122.9000;0.2466;3.9513;
1123.2000;0.2475;3.9513;
1123.5000;0.2491;3.9513;
1123.8000;0.2442;3.9413;
1124.1000;0.2475;3.9488;
1124.4000;0.2475;3.9513;
1124.7000;0.2466;3.9413;
1125.0000;0.2458;3.9413;
1125.3000;0.2458;3.9488;
1125.6000;0.2475;3.9589;
1125.9000;0.2466;3.9513;
1126.2000;0.2491;3.9564;
1126.5000;0.2475;3.9513;
1126.8000;0.2507;3.9589;
1127.1000;0.2491;3.9564;
1127.4000;0.2442;3.9388;
1127.7000;0.2515;3.9488;
1128.0000;0.2466;3.9413;
1128.3000;0.2605;3.9815;
1128.6000;0.2491;3.9564;
1128.9000;0.2466;3.9463;
1129.2000;0.2483;3.9564;
1129.5000;0.2466;3.9438;
1129.8000;0.2499;3.9463;
1130.1000;0.2458;3.9488;
1130.4000;0.2393;3.9362;
1130.7000;0.2458;3.9488;
1131.0000;0.2483;3.9463;
1131.3000;0.2475;3.9463;
1131.6000;0.2466;3.9488;
1131.9000;0.2491;3.9438;
1132.2000;0.2483;3.9262;
1132.5000;0.2483;3.9337;
1132.8000;0.2466;3.9312;
1133.1000;0.2507;3.9388;
1133.4000;0.2499;3.9413;
1133.7000;0.2483;3.9312;
1134.0000;0.2426;3.9262;
1134.3000;0.2466;3.9337;
1134.6000;0.2434;3.9262;
1134.9000;0.2499;3.9463;
1135.2000;0.2483;3.9463;
1135.5000;0.2483;3.9463;
1135.8000;0.2466;3.9513;
1136.1000;0.2442;3.9513;
1136.4000;0.2393;3.9463;
1136.7000;0.2491;3.9765;
1137.0000;0.2507;3.9815;
1137.3000;0.2442;3.9513;
1137.6000;0.2458;3.9488;
1137.9000;0.2499;3.9564;
1138.2000;0.2458;3.9538;
1138.5000;0.2589;3.9916;
1138.8000;0.2466;3.9538;
1139.1000;0.2385;3.9413;
1139.4000;0.2458;3.9664;
1139.7000;0.2499;3.9740;
1140.0000;0.2434;3.9538;
1140.3000;0.2475;3.9538;
1140.6000;0.2548;3.9740;
1140.9000;0.2466;3.9463;
1141.2000;0.2434;3.9413;
1141.5000;0.2613;3.9941;
1141.8000;0.2499;3.9639;
1142.1000;0.2491;3.9664;
1142.4000;0.2483;3.9639;
1142.7000;0.2377;3.9362;
1143.0000;0.2450;3.9614;
1143.3000;0.2442;3.9488;
1143.6000;0.2491;3.9463;
1143.9000;0.2385;3.9186;
1144.2000;0.2466;3.9513;
1144.5000;0.2320;3.9136;
1144.8000;0.2450;3.9463;
1145.1000;0.2475;3.9463;
1145.4000;0.2458;3.9388;
1145.7000;0.2466;3.9463;
1146.0000;0.2548;3.9614;
1146.3000;0.2418;3.9237;
1146.6000;0.2458;3.9337;
1146.9000;0.2475;3.9388;
1147.2000;0.2483;3.9413;
1147.5000;0.2475;3.9463;
1147.8000;0.2475;3.9538;
1148.1000;0.2466;3.9639;
1148.4000;0.2556;3.9941;
1148.7000;0.2466;3.9740;
1149.0000;0.2466;3.9664;
1149.3000;0.2475;3.9664;
1149.6000;0.2475;3.9740;
1149.9000;0.2466;3.9639;
1150.2000;0.2466;3.9589;
1150.5000;0.2483;3.9614;
1150.8000;0.2458;3.9538;
1151.1000;0.2475;3.9564;
1151.4000;0.2466;3.9538;
1151.7000;0.2499;3.9639;
1152.0000;0.2466;3.9538;
1152.3000;0.2532;3.9614;
1152.6000;0.2483;3.9513;
1152.9000;0.2458;3.9362;
1153.2000;0.2483;3.9388;
1153.5000;0.2466;3.9312;
1153.8000;0.2475;3.9413;
1154.1000;0.2458;3.9362;
1154.4000;0.2564;3.9589;
1154.7000;0.2466;3.9362;
1155.0000;0.2426;3.9262;
1155.3000;0.2483;3.9388;
1155.6000;0.2475;3.9413;
1155.9000;0.2475;3.9438;
1156.2000;0.2458;3.9362;
1156.5000;0.2442;3.9237;
1156.8000;0.2483;3.9312;
1157.1000;0.2466;3.9237;
1157.4000;0.2483;3.9362;
1157.7000;0.2507;3.9337;
1158.0000;0.2499;3.9262;
1158.3000;0.2466;3.9136;
1158.6000;0.2491;3.9312;
1158.9000;0.2491;3.9237;
1159.2000;0.2450;3.9161;
1159.5000;0.2507;3.9413;
1159.8000;0.2450;3.9337;
1160.1000;0.2483;3.9388;
1160.4000;0.2418;3.9237;
1160.7000;0.2466;3.9413;
1161.0000;0.2466;3.9488;
1161.3000;0.2475;3.9488;
1161.6000;0.2475;3.9413;
1161.9000;0.2475;3.9388;
1162.2000;0.2466;3.9438;
1162.5000;0.2523;3.9513;
1162.8000;0.2475;3.9362;
1163.1000;0.2312;3.8910;
1163.4000;0.2572;3.9614;
1163.7000;0.2466;3.9337;
1164.0000;0.2458;3.9337;
1164.3000;0.2434;3.9312;
1164.6000;0.2466;3.9337;
1164.9000;0.2475;3.9362;
1165.2000;0.2442;3.9262;
1165.5000;0.2442;3.9312;
1165.8000;0.2507;3.9413;
1166.1000;0.2483;3.9438;
1166.4000;0.2515;3.9488;
1166.7000;0.2483;3.9362;
1167.0000;0.2483;3.9388;
1167.3000;0.2466;3.9413;
1167.6000;0.2483;3.9413;
1167.9000;0.2483;3.9388;
1168.2000;0.2458;3.9337;
1168.5000;0.2434;3.9161;
1168.8000;0.2491;3.9362;
1169.1000;0.2507;3.9538;
1169.4000;0.2475;3.9463;
1169.7000;0.2466;3.9438;
1170.0000;0.2483;3.9564;
1170.3000;0.2401;3.9312;
1170.6000;0.2491;3.9664;
1170.9000;0.2532;3.9765;
1171.2000;0.2466;3.9564;
1171.5000;0.2475;3.9513;
1171.8000;0.2475;3.9463;
1172.1000;0.2548;3.9614;
1172.4000;0.2507;3.9538;
1172.7000;0.2491;3.9513;
1173.0000;0.2475;3.9538;
1173.3000;0.2458;3.9513;
1173.6000;0.2458;3.9513;
1173.9000;0.2450;3.9413;
1174.2000;0.2466;3.9463;
1174.5000;0.2564;3.9740;
1174.8000;0.2475;3.9388;
1175.1000;0.2475;3.9312;
1175.4000;0.2458;3.9262;
1175.7000;0.2450;3.9362;
1176.0000;0.2458;3.9463;
1176.3000;0.2491;3.9513;
1176.6000;0.2491;3.9513;
1176.9000;0.2475;3.9488;
1177.2000;0.2442;3.9413;
1177.5000;0.2491;3.9463;
1177.8000;0.2491;3.9488;
1178.1000;0.2483;3.9362;
1178.4000;0.2458;3.9413;
1178.7000;0.2475;3.9488;
1179.0000;0.2458;3.9413;
1179.3000;0.2507;3.9614;
1179.6000;0.2466;3.9513;
1179.9000;0.2491;3.9538;
1180.2000;0.2450;3.9463;
1180.5000;0.2466;3.9413;
1180.8000;0.2458;3.9287;
1181.1000;0.2483;3.9388;
1181.4000;0.2442;3.9211;
1181.7000;0.2540;3.9538;
1182.0000;0.2475;3.9287;
1182.3000;0.2507;3.9388;
1182.6000;0.2499;3.9388;
1182.9000;0.2483;3.9413;
1183.2000;0.2475;3.9287;
1183.5000;0.2458;3.9337;
1183.8000;0.2475;3.9463;
1184.1000;0.2483;3.9463;
1184.4000;0.2409;3.9262;
1184.7000;0.2466;3.9463;
1185.0000;0.2466;3.9538;
1185.3000;0.2507;3.9614;
1185.6000;0.2458;3.9438;
1185.9000;0.2515;3.9589;
1186.2000;0.2475;3.9513;
1186.5000;0.2507;3.9639;
1186.8000;0.2491;3.9614;
1187.1000;0.2450;3.9438;
1187.4000;0.2475;3.9438;
1187.7000;0.2475;3.9463;
1188.0000;0.2499;3.9488;
1188.3000;0.2401;3.9312;
1188.6000;0.2483;3.9438;
1188.9000;0.2442;3.9312;
1189.2000;0.2499;3.9463;
1189.5000;0.2483;3.9337;
1189.8000;0.2450;3.9287;
1190.1000;0.2491;3.9362;
1190.4000;0.2466;3.9362;
1190.7000;0.2475;3.9388;
1191.0000;0.2450;3.9388;
1191.3000;0.2450;3.9413;
1191.6000;0.2475;3.9438;
1191.9000;0.2475;3.9388;
1192.2000;0.2466;3.9362;
1192.5000;0.2466;3.9287;
1192.8000;0.2442;3.9362;
1193.1000;0.2393;3.9186;
1193.4000;0.2458;3.9388;
1193.7000;0.2491;3.9463;
1194.0000;0.2385;3.9186;
1194.3000;0.2564;3.9538;
1194.6000;0.2466;3.9237;
1194.9000;0.2434;3.9186;
1195.2000;0.2597;3.9664;
1195.5000;0.2475;3.9413;
1195.8000;0.2442;3.9438;
1196.1000;0.2499;3.9664;
1196.4000;0.2475;3.9589;
1196.7000;0.2507;3.9614;
1197.0000;0.2434;3.9463;
1197.3000;0.2483;3.9564;
1197.6000;0.2491;3.9538;
1197.9000;0.2458;3.9438;
1198.2000;0.2475;3.9438;
1198.5000;0.2483;3.9362;
1198.8000;0.2483;3.9287;
1199.1000;0.2499;3.9362;
1199.4000;0.2499;3.9438;
1199.7000;0.2475;3.9337;
1200.0000;0.2458;3.9337;
1200.3000;0.2499;3.9463;
1200.6000;0.2458;3.9413;
1200.9000;0.2434;3.9337;
1201.2000;0.2466;3.9413;
1201.5000;0.2450;3.9337;
1201.8000;0.2491;3.9388;
1202.1000;0.2483;3.9362;
1202.4000;0.2515;3.9513;
1202.7000;0.2507;3.9388;
1203.0000;0.2499;3.9438;
1203.3000;0.2483;3.9513;
1203.6000;0.2442;3.9488;
1203.9000;0.2466;3.9463;
1204.2000;0.2434;3.9388;
1204.5000;0.2450;3.9362;
1204.8000;0.2564;3.9664;
1205.1000;0.2466;3.9463;
1205.4000;0.2466;3.9488;
1205.7000;0.2548;3.9689;
1206.0000;0.2466;3.9388;
1206.3000;0.2450;3.9362;
1206.6000;0.2466;3.9438;
1206.9000;0.2401;3.9237;
1207.2000;0.2475;3.9488;
1207.5000;0.2466;3.9438;
1207.8000;0.2491;3.9513;
1208.1000;0.2434;3.9287;
1208.4000;0.2629;3.9790;
1208.7000;0.2475;3.9337;
1209.0000;0.2466;3.9237;
1209.3000;0.2499;3.9362;
1209.6000;0.2483;3.9262;
1209.9000;0.2450;3.9237;
1210.2000;0.2466;3.9312;
1210.5000;0.2466;3.9312;
1210.8000;0.2491;3.9388;
1211.1000;0.2580;3.9765;
1211.4000;0.2409;3.9312;
1211.7000;0.2401;3.9312;
1212.0000;0.2532;3.9589;
1212.3000;0.2475;3.9488;
1212.6000;0.2442;3.9312;
1212.9000;0.2466;3.9337;
1213.2000;0.2491;3.9362;
1213.5000;0.2491;3.9337;
1213.8000;0.2442;3.9237;
1214.1000;0.2458;3.9237;
1214.4000;0.2507;3.9312;
1214.7000;0.2450;3.9161;
1215.0000;0.2523;3.9413;
1215.3000;0.2442;3.9186;
1215.6000;0.2466;3.9186;
1215.9000;0.2442;3.9161;
1216.2000;0.2475;3.9211;
1216.5000;0.2483;3.9161;
1216.8000;0.2483;3.9111;
1217.1000;0.2458;3.9111;
1217.4000;0.2466;3.9186;
1217.7000;0.2475;3.9237;
1218.0000;0.2483;3.9287;
1218.3000;0.2483;3.9312;
1218.6000;0.2491;3.9362;
1218.9000;0.2466;3.9237;
1219.2000;0.2564;3.9463;
1219.5000;0.2458;3.9237;
1219.8000;0.2540;3.9438;
1220.1000;0.2466;3.9237;
1220.4000;0.2442;3.9161;
1220.7000;0.2475;3.9186;
1221.0000;0.2499;3.9262;
1221.3000;0.2458;3.9136;
1221.6000;0.2466;3.9136;
1221.9000;0.2499;3.9186;
1222.2000;0.2483;3.9211;
1222.5000;0.2458;3.9161;
1222.8000;0.2499;3.9312;
1223.1000;0.2483;3.9262;
1223.4000;0.2523;3.9362;
1223.7000;0.2483;3.9237;
1224.0000;0.2450;3.9136;
1224.3000;0.2409;3.8960;
1224.6000;0.2483;3.9287;
1224.9000;0.2475;3.9388;
1225.2000;0.2499;3.9388;
1225.5000;0.2515;3.9362;
1225.8000;0.2442;3.9186;
1226.1000;0.2466;3.9337;
1226.4000;0.2491;3.9362;
1226.7000;0.2434;3.9111;
1227.0000;0.2442;3.9111;
1227.3000;0.2426;3.9035;
1227.6000;0.2475;3.9337;
1227.9000;0.2450;3.9262;
1228.2000;0.2483;3.9413;
1228.5000;0.2377;3.9161;
1228.8000;0.2466;3.9337;
1229.1000;0.2515;3.9388;
1229.4000;0.2507;3.9388;
1229.7000;0.2540;3.9614;
1230.0000;0.2580;3.9689;
1230.3000;0.2442;3.9362;
1230.6000;0.2450;3.9312;
1230.9000;0.2637;3.9840;
1231.2000;0.2548;3.9488;
1231.5000;0.2409;3.9035;
1231.8000;0.2483;3.9211;
1232.1000;0.2466;3.9237;
1232.4000;0.2475;3.9161;
1232.7000;0.2491;3.9211;
1233.0000;0.2483;3.9136;
1233.3000;0.2458;3.9086;
1233.6000;0.2605;3.9564;
1233.9000;0.2523;3.9413;
1234.2000;0.2466;3.9262;
1234.5000;0.2475;3.9312;
1234.8000;0.2466;3.9362;
1235.1000;0.2466;3.9362;
1235.4000;0.2475;3.9463;
1235.7000;0.2450;3.9488;
1236.0000;0.2442;3.9287;
1236.3000;0.2442;3.9186;
1236.6000;0.2483;3.9262;
1236.9000;0.2515;3.9312;
1237.2000;0.2466;3.9287;
1237.5000;0.2491;3.9388;
1237.8000;0.2418;3.9111;
1238.1000;0.2458;3.9262;
1238.4000;0.2515;3.9262;
1238.7000;0.2491;3.9237;
1239.0000;0.2483;3.9211;
1239.3000;0.2458;3.9211;
1239.6000;0.2483;3.9287;
1239.9000;0.2483;3.9337;
1240.2000;0.2499;3.9413;
1240.5000;0.2450;3.9337;
1240.8000;0.2458;3.9463;
1241.1000;0.2483;3.9463;
1241.4000;0.2458;3.9262;
1241.7000;0.2466;3.9262;
1242.0000;0.2491;3.9237;
1242.3000;0.2483;3.9237;
1242.6000;0.2491;3.9312;
1242.9000;0.2491;3.9388;
1243.2000;0.2491;3.9488;
1243.5000;0.2466;3.9413;
1243.8000;0.2491;3.9488;
1244.1000;0.2458;3.9488;
1244.4000;0.2466;3.9589;
1244.7000;0.2483;3.9614;
1245.0000;0.2442;3.9488;
1245.3000;0.2483;3.9589;
1245.6000;0.2466;3.9513;
1245.9000;0.2442;3.9413;
1246.2000;0.2475;3.9312;
1246.5000;0.2426;3.9262;
1246.8000;0.2475;3.9413;
1247.1000;0.2475;3.9438;
1247.4000;0.2515;3.9589;
1247.7000;0.2507;3.9564;
1248.0000;0.2458;3.9488;
1248.3000;0.2483;3.9639;
1248.6000;0.2491;3.9790;
1248.9000;0.2491;3.9790;
1249.2000;0.2466;3.9765;
1249.5000;0.2556;3.9865;
1249.8000;0.2458;3.9564;
1250.1000;0.2499;3.9639;
1250.4000;0.2458;3.9463;
1250.7000;0.2466;3.9564;
1251.0000;0.2475;3.9589;
1251.3000;0.2483;3.9538;
1251.6000;0.2458;3.9463;
1251.9000;0.2507;3.9463;
1252.2000;0.2491;3.9513;
1252.5000;0.2458;3.9438;
1252.8000;0.2515;3.9639;
1253.1000;0.2434;3.9388;
1253.4000;0.2458;3.9488;
1253.7000;0.2458;3.9463;
1254.0000;0.2499;3.9639;
1254.3000;0.2393;3.9262;
1254.6000;0.2450;3.9413;
1254.9000;0.2548;3.9740;
1255.2000;0.2450;3.9463;
1255.5000;0.2475;3.9513;
1255.8000;0.2491;3.9564;
1256.1000;0.2491;3.9564;
1256.4000;0.2450;3.9438;
1256.7000;0.2466;3.9388;
1257.0000;0.2466;3.9312;
1257.3000;0.2336;3.8985;
1257.6000;0.2450;3.9237;
1257.9000;0.2418;3.9161;
1258.2000;0.2475;3.9312;
1258.5000;0.2483;3.9413;
1258.8000;0.2458;3.9312;
1259.1000;0.2475;3.9388;
1259.4000;0.2450;3.9312;
1259.7000;0.2450;3.9413;
1260.0000;0.2556;3.9689;
1260.3000;0.2475;3.9488;
1260.6000;0.2483;3.9488;
1260.9000;0.2475;3.9388;
1261.2000;0.2418;3.9362;
1261.5000;0.2466;3.9513;
1261.8000;0.2475;3.9564;
1262.1000;0.2475;3.9488;
1262.4000;0.2418;3.9262;
1262.7000;0.2458;3.9463;
1263.0000;0.2491;3.9589;
1263.3000;0.2491;3.9538;
1263.6000;0.2483;3.9488;
1263.9000;0.2466;3.9388;
1264.2000;0.2483;3.9413;
1264.5000;0.2450;3.9388;
1264.8000;0.2475;3.9388;
1265.1000;0.2491;3.9513;
1265.4000;0.2475;3.9513;
1265.7000;0.2450;3.9513;
1266.0000;0.2442;3.9538;
1266.3000;0.2466;3.9589;
1266.6000;0.2475;3.9614;
1266.9000;0.2491;3.9740;
1267.2000;0.2450;3.9689;
1267.5000;0.2491;3.9765;
1267.8000;0.2491;3.9715;
1268.1000;0.2483;3.9689;
1268.4000;0.2458;3.9589;
1268.7000;0.2475;3.9589;
1269.0000;0.2466;3.9689;
1269.3000;0.2434;3.9538;
1269.6000;0.2458;3.9664;
1269.9000;0.2450;3.9564;
1270.2000;0.2475;3.9614;
1270.5000;0.2499;3.9564;
1270.8000;0.2475;3.9463;
1271.1000;0.2458;3.9388;
1271.4000;0.2466;3.9413;
1271.7000;0.2507;3.9513;
1272.0000;0.2491;3.9488;
1272.3000;0.2466;3.9413;
1272.6000;0.2475;3.9488;
1272.9000;0.2442;3.9513;
1273.2000;0.2483;3.9589;
1273.5000;0.2483;3.9538;
1273.8000;0.2466;3.9564;
1274.1000;0.2483;3.9513;
1274.4000;0.2507;3.9614;
1274.7000;0.2458;3.9589;
1275.0000;0.2458;3.9614;
1275.3000;0.2450;3.9488;
1275.6000;0.2475;3.9589;
1275.9000;0.2466;3.9589;
1276.2000;0.2491;3.9664;
1276.5000;0.2491;3.9664;
1276.8000;0.2426;3.9564;
1277.1000;0.2475;3.9639;
1277.4000;0.2450;3.9438;
1277.7000;0.2475;3.9438;
1278.0000;0.2409;3.9413;
1278.3000;0.2475;3.9614;
1278.6000;0.2491;3.9689;
1278.9000;0.2507;3.9840;
1279.2000;0.2458;3.9815;
1279.5000;0.2475;3.9715;
1279.8000;0.2458;3.9639;
1280.1000;0.2483;3.9614;
1280.4000;0.2458;3.9488;
1280.7000;0.2466;3.9538;
1281.0000;0.2458;3.9513;
1281.3000;0.2532;3.9689;
1281.6000;0.2466;3.9463;
1281.9000;0.2475;3.9488;
1282.2000;0.2483;3.9463;
1282.5000;0.2458;3.9463;
1282.8000;0.2491;3.9463;
1283.1000;0.2466;3.9438;
1283.4000;0.2515;3.9589;
1283.7000;0.2483;3.9488;
1284.0000;0.2491;3.9488;
1284.3000;0.2466;3.9388;
1284.6000;0.2450;3.9413;
1284.9000;0.2475;3.9413;
1285.2000;0.2507;3.9513;
1285.5000;0.2475;3.9463;
1285.8000;0.2475;3.9413;
1286.1000;0.2466;3.9388;
1286.4000;0.2466;3.9337;
1286.7000;0.2458;3.9237;
1287.0000;0.2499;3.9312;
1287.3000;0.2466;3.9237;
1287.6000;0.2475;3.9312;
1287.9000;0.2483;3.9362;
1288.2000;0.2483;3.9362;
1288.5000;0.2483;3.9388;
1288.8000;0.2499;3.9388;
1289.1000;0.2491;3.9413;
1289.4000;0.2491;3.9388;
1289.7000;0.2491;3.9362;
1290.0000;0.2466;3.9262;
1290.3000;0.2499;3.9337;
1290.6000;0.2499;3.9388;
1290.9000;0.2475;3.9388;
1291.2000;0.2491;3.9463;
1291.5000;0.2483;3.9463;
1291.8000;0.2491;3.9538;
1292.1000;0.2466;3.9438;
1292.4000;0.2532;3.9614;
1292.7000;0.2475;3.9463;
1293.0000;0.2483;3.9538;
1293.3000;0.2540;3.9715;
1293.6000;0.2483;3.9513;
1293.9000;0.2475;3.9463;
1294.2000;0.2475;3.9438;
1294.5000;0.2515;3.9639;
1294.8000;0.2466;3.9413;
1295.1000;0.2556;3.9689;
1295.4000;0.2466;3.9513;
1295.7000;0.2450;3.9564;
1296.0000;0.2377;3.9237;
1296.3000;0.2475;3.9513;
1296.6000;0.2475;3.9463;
1296.9000;0.2466;3.9438;
1297.2000;0.2475;3.9287;
1297.5000;0.2483;3.9362;
1297.8000;0.2475;3.9287;
1298.1000;0.2507;3.9388;
1298.4000;0.2507;3.9362;
1298.7000;0.2491;3.9262;
1299.0000;0.2458;3.9287;
1299.3000;0.2483;3.9312;
1299.6000;0.2475;3.9337;
1299.9000;0.2466;3.9362;
1300.2000;0.2450;3.9438;
1300.5000;0.2483;3.9589;
1300.8000;0.2475;3.9564;
1301.1000;0.2466;3.9488;
1301.4000;0.2621;3.9916;
1301.7000;0.2466;3.9438;
1302.0000;0.2475;3.9463;
1302.3000;0.2434;3.9388;
1302.6000;0.2466;3.9513;
1302.9000;0.2483;3.9513;
1303.2000;0.2499;3.9564;
1303.5000;0.2483;3.9538;
1303.8000;0.2475;3.9538;
1304.1000;0.2344;3.9061;
1304.4000;0.2483;3.9438;
1304.7000;0.2589;3.9740;
1305.0000;0.2491;3.9438;
1305.3000;0.2458;3.9337;
1305.6000;0.2475;3.9413;
1305.9000;0.2475;3.9488;
1306.2000;0.2483;3.9413;
1306.5000;0.2475;3.9438;
1306.8000;0.2466;3.9488;
1307.1000;0.2466;3.9413;
1307.4000;0.2515;3.9614;
1307.7000;0.2483;3.9438;
1308.0000;0.2401;3.9287;
1308.3000;0.2475;3.9463;
1308.6000;0.2475;3.9513;
1308.9000;0.2499;3.9538;
1309.2000;0.2466;3.9488;
1309.5000;0.2491;3.9538;
1309.8000;0.2483;3.9589;
1310.1000;0.2483;3.9538;
1310.4000;0.2475;3.9513;
1310.7000;0.2458;3.9513;
1311.0000;0.2458;3.9438;
1311.3000;0.2450;3.9513;
1311.6000;0.2475;3.9538;
1311.9000;0.2475;3.9564;
1312.2000;0.2483;3.9564;
1312.5000;0.2466;3.9463;
1312.8000;0.2475;3.9438;
1313.1000;0.2466;3.9463;
1313.4000;0.2491;3.9614;
1313.7000;0.2483;3.9664;
1314.0000;0.2466;3.9538;
1314.3000;0.2434;3.9488;
1314.6000;0.2450;3.9513;
1314.9000;0.2458;3.9488;
1315.2000;0.2458;3.9438;
1315.5000;0.2458;3.9488;
1315.8000;0.2466;3.9488;
1316.1000;0.2458;3.9463;
1316.4000;0.2466;3.9488;
1316.7000;0.2540;3.9689;
1317.0000;0.2426;3.9337;
1317.3000;0.2499;3.9438;
1317.6000;0.2475;3.9388;
1317.9000;0.2466;3.9287;
1318.2000;0.2475;3.9211;
1318.5000;0.2491;3.9262;
1318.8000;0.2466;3.9262;
1319.1000;0.2483;3.9287;
1319.4000;0.2523;3.9362;
1319.7000;0.2475;3.9211;
1320.0000;0.2491;3.9362;
1320.3000;0.2393;3.9136;
1320.6000;0.2458;3.9312;
1320.9000;0.2442;3.9262;
1321.2000;0.2466;3.9388;
1321.5000;0.2458;3.9362;
1321.8000;0.2466;3.9463;
1322.1000;0.2458;3.9463;
1322.4000;0.2499;3.9463;
1322.7000;0.2491;3.9388;
1323.0000;0.2540;3.9538;
1323.3000;0.2450;3.9262;
1323.6000;0.2418;3.9061;
1323.9000;0.2483;3.9237;
1324.2000;0.2466;3.9061;
1324.5000;0.2483;3.9061;
1324.8000;0.2466;3.9061;
1325.1000;0.2418;3.8885;
1325.4000;0.2434;3.9010;
1325.7000;0.2475;3.9086;
1326.0000;0.2361;3.8809;
1326.3000;0.2458;3.9035;
1326.6000;0.2491;3.9161;
1326.9000;0.2458;3.9010;
1327.2000;0.2475;3.8960;
1327.5000;0.2458;3.8885;
1327.8000;0.2466;3.8960;
1328.1000;0.2409;3.8859;
1328.4000;0.2515;3.9211;
1328.7000;0.2475;3.9161;
1329.0000;0.2491;3.9186;
1329.3000;0.2458;3.9086;
1329.6000;0.2491;3.9161;
1329.9000;0.2458;3.9186;
1330.2000;0.2401;3.9136;
1330.5000;0.2442;3.9237;
1330.8000;0.2434;3.9186;
1331.1000;0.2483;3.9388;
1331.4000;0.2475;3.9438;
1331.7000;0.2466;3.9388;
1332.0000;0.2491;3.9639;
1332.3000;0.2475;3.9513;
1332.6000;0.2483;3.9538;
1332.9000;0.2475;3.9513;
1333.2000;0.2409;3.9488;
1333.5000;0.2475;3.9614;
1333.8000;0.2483;3.9488;
1334.1000;0.2499;3.9513;
1334.4000;0.2491;3.9463;
1334.7000;0.2475;3.9538;
1335.0000;0.2491;3.9538;
1335.3000;0.2475;3.9463;
1335.6000;0.2483;3.9463;
1335.9000;0.2483;3.9488;
1336.2000;0.2442;3.9337;
1336.5000;0.2483;3.9488;
1336.8000;0.2466;3.9337;
1337.1000;0.2475;3.9388;
1337.4000;0.2458;3.9413;
1337.7000;0.2499;3.9513;
1338.0000;0.2466;3.9388;
1338.3000;0.2483;3.9413;
1338.6000;0.2458;3.9388;
1338.9000;0.2475;3.9488;
1339.2000;0.2450;3.9337;
1339.5000;0.2475;3.9362;
1339.8000;0.2458;3.9312;
1340.1000;0.2475;3.9337;
1340.4000;0.2499;3.9388;
1340.7000;0.2442;3.9262;
1341.0000;0.2352;3.8985;
1341.3000;0.2434;3.9237;
1341.6000;0.2344;3.8960;
1341.9000;0.2507;3.9413;
1342.2000;0.2572;3.9614;
1342.5000;0.2466;3.9312;
1342.8000;0.2475;3.9237;
1343.1000;0.2483;3.9211;
1343.4000;0.2483;3.9186;
1343.7000;0.2475;3.9161;
1344.0000;0.2483;3.9237;
1344.3000;0.2507;3.9312;
1344.6000;0.2475;3.9237;
1344.9000;0.2483;3.9262;
1345.2000;0.2483;3.9237;
1345.5000;0.2483;3.9262;
1345.8000;0.2507;3.9237;
1346.1000;0.2426;3.9035;
1346.4000;0.2458;3.9111;
1346.7000;0.2466;3.9136;
1347.0000;0.2458;3.9161;
1347.3000;0.2458;3.9287;
1347.6000;0.2442;3.9312;
1347.9000;0.2637;3.9815;
1348.2000;0.2458;3.9388;
1348.5000;0.2507;3.9413;
1348.8000;0.2442;3.9262;
1349.1000;0.2409;3.9161;
1349.4000;0.2418;3.9186;
1349.7000;0.2442;3.9211;
1350.0000;0.2393;3.9186;
1350.3000;0.2466;3.9388;
1350.6000;0.2483;3.9413;
1350.9000;0.2418;3.9337;
1351.2000;0.2466;3.9413;
1351.5000;0.2491;3.9513;
1351.8000;0.2450;3.9388;
1352.1000;0.2458;3.9337;
1352.4000;0.2418;3.9111;
1352.7000;0.2458;3.9186;
1353.0000;0.2483;3.9312;
1353.3000;0.2475;3.9312;
1353.6000;0.2491;3.9362;
1353.9000;0.2458;3.9337;
1354.2000;0.2515;3.9463;
1354.5000;0.2466;3.9413;
1354.8000;0.2507;3.9488;
1355.1000;0.2458;3.9262;
1355.4000;0.2491;3.9312;
1355.7000;0.2466;3.9312;
1356.0000;0.2491;3.9362;
1356.3000;0.2450;3.9111;
1356.6000;0.2475;3.9111;
1356.9000;0.2466;3.9136;
1357.2000;0.2475;3.9061;
1357.5000;0.2475;3.9086;
1357.8000;0.2491;3.9186;
1358.1000;0.2499;3.9287;
1358.4000;0.2483;3.9337;
1358.7000;0.2450;3.9413;
1359.0000;0.2450;3.9438;
1359.3000;0.2475;3.9488;
1359.6000;0.2540;3.9715;
1359.9000;0.2458;3.9538;
1360.2000;0.2475;3.9564;
1360.5000;0.2475;3.9564;
1360.8000;0.2483;3.9664;
1361.1000;0.2426;3.9463;
1361.4000;0.2466;3.9488;
1361.7000;0.2475;3.9538;
1362.0000;0.2466;3.9538;
1362.3000;0.2507;3.9614;
1362.6000;0.2491;3.9589;
1362.9000;0.2458;3.9488;
1363.2000;0.2450;3.9438;
1363.5000;0.2442;3.9337;
1363.8000;0.2466;3.9413;
1364.1000;0.2499;3.9488;
1364.4000;0.2483;3.9337;
1364.7000;0.2483;3.9337;
1365.0000;0.2450;3.9161;
1365.3000;0.2328;3.8859;
1365.6000;0.2450;3.9237;
1365.9000;0.2499;3.9362;
1366.2000;0.2458;3.9237;
1366.5000;0.2393;3.9035;
1366.8000;0.2458;3.9337;
1367.1000;0.2515;3.9463;
1367.4000;0.2475;3.9438;
1367.7000;0.2475;3.9337;
1368.0000;0.2491;3.9337;
1368.3000;0.2483;3.9413;
1368.6000;0.2483;3.9463;
1368.9000;0.2418;3.9337;
1369.2000;0.2556;3.9740;
1369.5000;0.2458;3.9513;
1369.8000;0.2499;3.9488;
1370.1000;0.2385;3.9211;
1370.4000;0.2409;3.9287;
1370.7000;0.2475;3.9388;
1371.0000;0.2434;3.9262;
1371.3000;0.2564;3.9564;
1371.6000;0.2377;3.9035;
1371.9000;0.2475;3.9388;
1372.2000;0.2483;3.9362;
1372.5000;0.2458;3.9337;
1372.8000;0.2483;3.9438;
1373.1000;0.2475;3.9413;
1373.4000;0.2507;3.9589;
1373.7000;0.2499;3.9564;
1374.0000;0.2507;3.9664;
1374.3000;0.2499;3.9664;
1374.6000;0.2475;3.9689;
1374.9000;0.2393;3.9388;
1375.2000;0.2475;3.9564;
1375.5000;0.2491;3.9513;
1375.8000;0.2450;3.9513;
1376.1000;0.2434;3.9388;
1376.4000;0.2475;3.9413;
1376.7000;0.2483;3.9438;
1377.0000;0.2491;3.9413;
1377.3000;0.2466;3.9413;
1377.6000;0.2458;3.9463;
1377.9000;0.2450;3.9362;
1378.2000;0.2483;3.9413;
1378.5000;0.2483;3.9463;
1378.8000;0.2475;3.9538;
1379.1000;0.2450;3.9413;
1379.4000;0.2483;3.9564;
1379.7000;0.2483;3.9513;
1380.0000;0.2418;3.9413;
1380.3000;0.2499;3.9564;
1380.6000;0.2466;3.9488;
1380.9000;0.2475;3.9639;
1381.2000;0.2499;3.9664;
1381.5000;0.2483;3.9614;
1381.8000;0.2499;3.9664;
1382.1000;0.2475;3.9614;
1382.4000;0.2483;3.9564;
1382.7000;0.2475;3.9438;
1383.0000;0.2483;3.9463;
1383.3000;0.2483;3.9488;
1383.6000;0.2491;3.9538;
1383.9000;0.2475;3.9488;
1384.2000;0.2450;3.9463;
1384.5000;0.2483;3.9538;
1384.8000;0.2458;3.9513;
1385.1000;0.2458;3.9538;
1385.4000;0.2466;3.9538;
1385.7000;0.2442;3.9513;
1386.0000;0.2491;3.9639;
1386.3000;0.2475;3.9564;
1386.6000;0.2458;3.9463;
1386.9000;0.2483;3.9513;
1387.2000;0.2442;3.9337;
1387.5000;0.2491;3.9463;
1387.8000;0.2483;3.9362;
1388.1000;0.2466;3.9211;
1388.4000;0.2458;3.9136;
1388.7000;0.2466;3.9211;
1389.0000;0.2483;3.9262;
1389.3000;0.2475;3.9262;
1389.6000;0.2483;3.9161;
1389.9000;0.2466;3.9161;
1390.2000;0.2458;3.9111;
1390.5000;0.2458;3.9211;
1390.8000;0.2475;3.9237;
1391.1000;0.2466;3.9211;
1391.4000;0.2483;3.9312;
1391.7000;0.2458;3.9262;
1392.0000;0.2475;3.9312;
1392.3000;0.2426;3.9211;
1392.6000;0.2466;3.9362;
1392.9000;0.2491;3.9413;
1393.2000;0.2344;3.9035;
1393.5000;0.2499;3.9463;
1393.8000;0.2466;3.9413;
1394.1000;0.2499;3.9589;
1394.4000;0.2475;3.9564;
1394.7000;0.2475;3.9513;
1395.0000;0.2475;3.9488;
1395.3000;0.2483;3.9513;
1395.6000;0.2466;3.9538;
1395.9000;0.2466;3.9488;
1396.2000;0.2442;3.9388;
1396.5000;0.2483;3.9564;
1396.8000;0.2475;3.9538;
1397.1000;0.2491;3.9564;
1397.4000;0.2475;3.9513;
1397.7000;0.2483;3.9488;
1398.0000;0.2499;3.9463;
1398.3000;0.2523;3.9715;
1398.6000;0.2564;3.9765;
1398.9000;0.2466;3.9538;
1399.2000;0.2483;3.9664;
1399.5000;0.2442;3.9614;
1399.8000;0.2466;3.9664;
