time/ms;Fluo/V;P700 deltaI/I x10³;
-199.8000;0.2532;4.1299;
-199.5000;0.2466;4.1123;
-199.2000;0.2523;4.1224;
-198.9000;0.2507;4.1123;
-198.6000;0.2418;4.0872;
-198.3000;0.2491;4.1148;
-198.0000;0.2434;4.0997;
-197.7000;0.2426;4.0972;
-197.4000;0.2426;4.1022;
-197.1000;0.2491;4.1198;
-196.8000;0.2491;4.1073;
-196.5000;0.2580;4.1349;
-196.2000;0.2499;4.1098;
-195.9000;0.2515;4.1073;
-195.6000;0.2466;4.1022;
-195.3000;0.2491;4.1148;
-195.0000;0.2499;4.1123;
-194.7000;0.2532;4.1173;
-194.4000;0.2499;4.1224;
-194.1000;0.2515;4.1249;
-193.8000;0.2556;4.1274;
-193.5000;0.2475;4.1048;
-193.2000;0.2491;4.1123;
-192.9000;0.2523;4.1198;
-192.6000;0.2369;4.0771;
-192.3000;0.2532;4.1349;
-192.0000;0.2475;4.1173;
-191.7000;0.2499;4.1173;
-191.4000;0.2466;4.1073;
-191.1000;0.2499;4.1148;
-190.8000;0.2483;4.1173;
-190.5000;0.2499;4.1249;
-190.2000;0.2491;4.1249;
-189.9000;0.2507;4.1249;
-189.6000;0.2401;4.0997;
-189.3000;0.2499;4.1224;
-189.0000;0.2491;4.1073;
-188.7000;0.2491;4.0972;
-188.4000;0.2507;4.0997;
-188.1000;0.2483;4.1048;
-187.8000;0.2491;4.1198;
-187.5000;0.2491;4.1173;
-187.2000;0.2475;4.1048;
-186.9000;0.2507;4.1022;
-186.6000;0.2491;4.1048;
-186.3000;0.2483;4.1048;
-186.0000;0.2491;4.1073;
-185.7000;0.2466;4.1022;
-185.4000;0.2507;4.1098;
-185.1000;0.2507;4.0972;
-184.8000;0.2483;4.1022;
-184.5000;0.2491;4.0922;
-184.2000;0.2507;4.1022;
-183.9000;0.2597;4.1048;
-183.6000;0.2426;4.0645;
-183.3000;0.2507;4.0897;
-183.0000;0.2426;4.0796;
-182.7000;0.2491;4.1048;
-182.4000;0.2532;4.1224;
-182.1000;0.2515;4.1173;
-181.8000;0.2483;4.1123;
-181.5000;0.2499;4.1299;
-181.2000;0.2499;4.1299;
-180.9000;0.2548;4.1425;
-180.6000;0.2426;4.1198;
-180.3000;0.2401;4.1098;
-180.0000;0.2540;4.1450;
-179.7000;0.2483;4.1274;
-179.4000;0.2491;4.1249;
-179.1000;0.2491;4.1274;
-178.8000;0.2572;4.1425;
-178.5000;0.2483;4.1249;
-178.2000;0.2507;4.1274;
-177.9000;0.2613;4.1601;
-177.6000;0.2499;4.1148;
-177.3000;0.2507;4.1173;
-177.0000;0.2475;4.1048;
-176.7000;0.2515;4.1198;
-176.4000;0.2499;4.1173;
-176.1000;0.2499;4.1198;
-175.8000;0.2434;4.0997;
-175.5000;0.2515;4.1299;
-175.2000;0.2491;4.1224;
-174.9000;0.2466;4.1249;
-174.6000;0.2499;4.1375;
-174.3000;0.2491;4.1400;
-174.0000;0.2499;4.1299;
-173.7000;0.2483;4.1274;
-173.4000;0.2556;4.1400;
-173.1000;0.2491;4.1198;
-172.8000;0.2491;4.1098;
-172.5000;0.2458;4.0997;
-172.2000;0.2491;4.1123;
-171.9000;0.2491;4.1123;
-171.6000;0.2491;4.1173;
-171.3000;0.2483;4.1098;
-171.0000;0.2475;4.1123;
-170.7000;0.2548;4.1299;
-170.4000;0.2507;4.1173;
-170.1000;0.2491;4.1148;
-169.8000;0.2515;4.1198;
-169.5000;0.2491;4.1173;
-169.2000;0.2491;4.1198;
-168.9000;0.2475;4.1048;
-168.6000;0.2458;4.1022;
-168.3000;0.2507;4.1148;
-168.0000;0.2442;4.0972;
-167.7000;0.2483;4.1048;
-167.4000;0.2515;4.1224;
-167.1000;0.2515;4.1324;
-166.8000;0.2548;4.1400;
-166.5000;0.2507;4.1299;
-166.2000;0.2483;4.1148;
-165.9000;0.2475;4.1148;
-165.6000;0.2483;4.1123;
-165.3000;0.2548;4.1173;
-165.0000;0.2499;4.1098;
-164.7000;0.2499;4.1098;
-164.4000;0.2483;4.1022;
-164.1000;0.2515;4.1048;
-163.8000;0.2491;4.0997;
-163.5000;0.2572;4.1198;
-163.2000;0.2572;4.1198;
-162.9000;0.2434;4.0947;
-162.6000;0.2491;4.1198;
-162.3000;0.2361;4.0947;
-162.0000;0.2507;4.1299;
-161.7000;0.2499;4.1198;
-161.4000;0.2499;4.1123;
-161.1000;0.2483;4.1098;
-160.8000;0.2369;4.0821;
-160.5000;0.2450;4.1022;
-160.2000;0.2532;4.1148;
-159.9000;0.2605;4.1450;
-159.6000;0.2515;4.1274;
-159.3000;0.2556;4.1299;
-159.0000;0.2572;4.1299;
-158.7000;0.2532;4.1249;
-158.4000;0.2548;4.1324;
-158.1000;0.2523;4.1299;
-157.8000;0.2491;4.1198;
-157.5000;0.2507;4.1249;
-157.2000;0.2507;4.1249;
-156.9000;0.2466;4.1123;
-156.6000;0.2532;4.1349;
-156.3000;0.2515;4.1324;
-156.0000;0.2572;4.1425;
-155.7000;0.2507;4.1274;
-155.4000;0.2499;4.1198;
-155.1000;0.2548;4.1249;
-154.8000;0.2515;4.1148;
-154.5000;0.2393;4.0872;
-154.2000;0.2475;4.1123;
-153.9000;0.2507;4.1224;
-153.6000;0.2499;4.1198;
-153.3000;0.2515;4.1224;
-153.0000;0.2507;4.1274;
-152.7000;0.2499;4.1224;
-152.4000;0.2491;4.1148;
-152.1000;0.2515;4.1249;
-151.8000;0.2475;4.1173;
-151.5000;0.2475;4.1198;
-151.2000;0.2507;4.1148;
-150.9000;0.2491;4.1123;
-150.6000;0.2499;4.1148;
-150.3000;0.2483;4.1198;
-150.0000;0.2507;4.1299;
-149.7000;0.2499;4.1324;
-149.4000;0.2507;4.1249;
-149.1000;0.2507;4.1274;
-148.8000;0.2499;4.1249;
-148.5000;0.2507;4.1148;
-148.2000;0.2523;4.1198;
-147.9000;0.2523;4.1224;
-147.6000;0.2483;4.1123;
-147.3000;0.2491;4.1098;
-147.0000;0.2540;4.1299;
-146.7000;0.2491;4.1224;
-146.4000;0.2491;4.1123;
-146.1000;0.2523;4.1249;
-145.8000;0.2499;4.1224;
-145.5000;0.2475;4.1173;
-145.2000;0.2466;4.1098;
-144.9000;0.2491;4.1224;
-144.6000;0.2515;4.1249;
-144.3000;0.2475;4.1098;
-144.0000;0.2475;4.1022;
-143.7000;0.2491;4.1098;
-143.4000;0.2499;4.1123;
-143.1000;0.2523;4.1299;
-142.8000;0.2483;4.1198;
-142.5000;0.2491;4.1299;
-142.2000;0.2507;4.1400;
-141.9000;0.2466;4.1198;
-141.6000;0.2507;4.1198;
-141.3000;0.2426;4.1048;
-141.0000;0.2483;4.1299;
-140.7000;0.2507;4.1249;
-140.4000;0.2483;4.1098;
-140.1000;0.2442;4.1022;
-139.8000;0.2507;4.1148;
-139.5000;0.2466;4.1123;
-139.2000;0.2426;4.1098;
-138.9000;0.2483;4.1224;
-138.6000;0.2499;4.1249;
-138.3000;0.2418;4.1173;
-138.0000;0.2499;4.1249;
-137.7000;0.2466;4.1198;
-137.4000;0.2499;4.1299;
-137.1000;0.2572;4.1475;
-136.8000;0.2491;4.1249;
-136.5000;0.2532;4.1349;
-136.2000;0.2523;4.1274;
-135.9000;0.2499;4.1224;
-135.6000;0.2556;4.1224;
-135.3000;0.2466;4.1022;
-135.0000;0.2499;4.1022;
-134.7000;0.2540;4.1123;
-134.4000;0.2507;4.1148;
-134.1000;0.2491;4.1173;
-133.8000;0.2491;4.1123;
-133.5000;0.2483;4.1098;
-133.2000;0.2426;4.0922;
-132.9000;0.2458;4.1073;
-132.6000;0.2475;4.1173;
-132.3000;0.2483;4.1048;
-132.0000;0.2532;4.1324;
-131.7000;0.2442;4.1123;
-131.4000;0.2434;4.1073;
-131.1000;0.2515;4.1173;
-130.8000;0.2475;4.0997;
-130.5000;0.2483;4.0947;
-130.2000;0.2515;4.1048;
-129.9000;0.2466;4.0997;
-129.6000;0.2515;4.1073;
-129.3000;0.2515;4.1123;
-129.0000;0.2475;4.1022;
-128.7000;0.2491;4.1073;
-128.4000;0.2499;4.1148;
-128.1000;0.2507;4.1249;
-127.8000;0.2540;4.1324;
-127.5000;0.2450;4.1048;
-127.2000;0.2499;4.1123;
-126.9000;0.2483;4.1173;
-126.6000;0.2483;4.1148;
-126.3000;0.2499;4.1123;
-126.0000;0.2499;4.1098;
-125.7000;0.2450;4.0922;
-125.4000;0.2483;4.1073;
-125.1000;0.2491;4.1098;
-124.8000;0.2515;4.1148;
-124.5000;0.2507;4.1048;
-124.2000;0.2515;4.1098;
-123.9000;0.2499;4.1148;
-123.6000;0.2434;4.1048;
-123.3000;0.2499;4.1198;
-123.0000;0.2483;4.1048;
-122.7000;0.2540;4.1198;
-122.4000;0.2491;4.1022;
-122.1000;0.2361;4.0695;
-121.8000;0.2515;4.1048;
-121.5000;0.2499;4.1022;
-121.2000;0.2499;4.1073;
-120.9000;0.2483;4.0997;
-120.6000;0.2515;4.1048;
-120.3000;0.2507;4.0947;
-120.0000;0.2499;4.0821;
-119.7000;0.2466;4.0771;
-119.4000;0.2540;4.0972;
-119.1000;0.2458;4.0796;
-118.8000;0.2499;4.0972;
-118.5000;0.2442;4.0746;
-118.2000;0.2515;4.0947;
-117.9000;0.2507;4.1022;
-117.6000;0.2515;4.1073;
-117.3000;0.2507;4.1098;
-117.0000;0.2483;4.1022;
-116.7000;0.2491;4.1022;
-116.4000;0.2515;4.1073;
-116.1000;0.2466;4.0872;
-115.8000;0.2515;4.1048;
-115.5000;0.2450;4.0922;
-115.2000;0.2475;4.1048;
-114.9000;0.2483;4.1048;
-114.6000;0.2491;4.1073;
-114.3000;0.2491;4.1048;
-114.0000;0.2507;4.1098;
-113.7000;0.2491;4.1073;
-113.4000;0.2499;4.1123;
-113.1000;0.2532;4.1148;
-112.8000;0.2499;4.1048;
-112.5000;0.2491;4.0997;
-112.2000;0.2580;4.1224;
-111.9000;0.2336;4.0670;
-111.6000;0.2507;4.1098;
-111.3000;0.2491;4.1073;
-111.0000;0.2491;4.1073;
-110.7000;0.2483;4.0997;
-110.4000;0.2515;4.1148;
-110.1000;0.2491;4.1123;
-109.8000;0.2507;4.1073;
-109.5000;0.2377;4.0821;
-109.2000;0.2515;4.1224;
-108.9000;0.2483;4.1098;
-108.6000;0.2532;4.1299;
-108.3000;0.2434;4.1048;
-108.0000;0.2499;4.1148;
-107.7000;0.2499;4.1123;
-107.4000;0.2654;4.1601;
-107.1000;0.2483;4.1098;
-106.8000;0.2564;4.1299;
-106.5000;0.2499;4.1098;
-106.2000;0.2491;4.1022;
-105.9000;0.2515;4.1048;
-105.6000;0.2483;4.0922;
-105.3000;0.2548;4.1098;
-105.0000;0.2483;4.0947;
-104.7000;0.2564;4.1198;
-104.4000;0.2499;4.1048;
-104.1000;0.2491;4.0947;
-103.8000;0.2515;4.0997;
-103.5000;0.2418;4.0821;
-103.2000;0.2491;4.0947;
-102.9000;0.2507;4.0922;
-102.6000;0.2369;4.0570;
-102.3000;0.2499;4.1048;
-102.0000;0.2475;4.1048;
-101.7000;0.2483;4.1073;
-101.4000;0.2507;4.1098;
-101.1000;0.2540;4.1148;
-100.8000;0.2499;4.1022;
-100.5000;0.2523;4.1098;
-100.2000;0.2532;4.1148;
-99.9000;0.2401;4.0796;
-99.6000;0.2491;4.0997;
-99.3000;0.2499;4.1048;
-99.0000;0.2572;4.1299;
-98.7000;0.2507;4.1148;
-98.4000;0.2450;4.1022;
-98.1000;0.2491;4.1022;
-97.8000;0.2450;4.0897;
-97.5000;0.2458;4.0872;
-97.2000;0.2548;4.1148;
-96.9000;0.2483;4.0972;
-96.6000;0.2483;4.0972;
-96.3000;0.2483;4.1073;
-96.0000;0.2540;4.1173;
-95.7000;0.2491;4.0846;
-95.4000;0.2483;4.0746;
-95.1000;0.2507;4.0796;
-94.8000;0.2499;4.0771;
-94.5000;0.2475;4.0695;
-94.2000;0.2499;4.0821;
-93.9000;0.2483;4.0746;
-93.6000;0.2548;4.0872;
-93.3000;0.2491;4.0670;
-93.0000;0.2491;4.0595;
-92.7000;0.2466;4.0595;
-92.4000;0.2491;4.0771;
-92.1000;0.2483;4.0846;
-91.8000;0.2483;4.0897;
-91.5000;0.2532;4.0997;
-91.2000;0.2475;4.0846;
-90.9000;0.2475;4.0872;
-90.6000;0.2491;4.0897;
-90.3000;0.2499;4.1048;
-90.0000;0.2475;4.1123;
-89.7000;0.2483;4.1148;
-89.4000;0.2491;4.1198;
-89.1000;0.2540;4.1375;
-88.8000;0.2491;4.1198;
-88.5000;0.2499;4.1224;
-88.2000;0.2499;4.1098;
-87.9000;0.2483;4.0972;
-87.6000;0.2507;4.1073;
-87.3000;0.2483;4.0972;
-87.0000;0.2499;4.0872;
-86.7000;0.2499;4.0922;
-86.4000;0.2605;4.1123;
-86.1000;0.2434;4.0620;
-85.8000;0.2499;4.0821;
-85.5000;0.2483;4.0922;
-85.2000;0.2483;4.0997;
-84.9000;0.2532;4.1198;
-84.6000;0.2466;4.1073;
-84.3000;0.2409;4.0972;
-84.0000;0.2515;4.1299;
-83.7000;0.2499;4.1123;
-83.4000;0.2466;4.0997;
-83.1000;0.2466;4.0972;
-82.8000;0.2491;4.1048;
-82.5000;0.2409;4.0897;
-82.2000;0.2491;4.1048;
-81.9000;0.2434;4.0972;
-81.6000;0.2466;4.1022;
-81.3000;0.2466;4.1098;
-81.0000;0.2499;4.1173;
-80.7000;0.2499;4.1224;
-80.4000;0.2483;4.1198;
-80.1000;0.2499;4.1198;
-79.8000;0.2523;4.1274;
-79.5000;0.2507;4.1173;
-79.2000;0.2491;4.1198;
-78.9000;0.2483;4.1198;
-78.6000;0.2499;4.1224;
-78.3000;0.2499;4.1173;
-78.0000;0.2466;4.1073;
-77.7000;0.2507;4.1123;
-77.4000;0.2499;4.1173;
-77.1000;0.2507;4.1299;
-76.8000;0.2491;4.1198;
-76.5000;0.2491;4.1224;
-76.2000;0.2475;4.1198;
-75.9000;0.2499;4.1274;
-75.6000;0.2515;4.1249;
-75.3000;0.2499;4.1198;
-75.0000;0.2499;4.1198;
-74.7000;0.2540;4.1375;
-74.4000;0.2507;4.1299;
-74.1000;0.2523;4.1274;
-73.8000;0.2418;4.0972;
-73.5000;0.2507;4.1173;
-73.2000;0.2572;4.1349;
-72.9000;0.2507;4.1249;
-72.6000;0.2393;4.0922;
-72.3000;0.2515;4.1324;
-72.0000;0.2499;4.1375;
-71.7000;0.2507;4.1375;
-71.4000;0.2507;4.1324;
-71.1000;0.2507;4.1274;
-70.8000;0.2523;4.1349;
-70.5000;0.2564;4.1425;
-70.2000;0.2515;4.1274;
-69.9000;0.2450;4.1173;
-69.6000;0.2499;4.1224;
-69.3000;0.2507;4.1173;
-69.0000;0.2491;4.1173;
-68.7000;0.2507;4.1198;
-68.4000;0.2466;4.1073;
-68.1000;0.2515;4.1073;
-67.8000;0.2523;4.1198;
-67.5000;0.2499;4.1249;
-67.2000;0.2434;4.1148;
-66.9000;0.2483;4.1148;
-66.6000;0.2499;4.1249;
-66.3000;0.2548;4.1425;
-66.0000;0.2507;4.1324;
-65.7000;0.2499;4.1249;
-65.4000;0.2491;4.1198;
-65.1000;0.2418;4.1048;
-64.8000;0.2515;4.1299;
-64.5000;0.2499;4.1224;
-64.2000;0.2491;4.1173;
-63.9000;0.2483;4.1224;
-63.6000;0.2263;4.0494;
-63.3000;0.2434;4.1123;
-63.0000;0.2466;4.1173;
-62.7000;0.2466;4.1098;
-62.4000;0.2483;4.1173;
-62.1000;0.2458;4.1224;
-61.8000;0.2572;4.1576;
-61.5000;0.2540;4.1551;
-61.2000;0.2499;4.1551;
-60.9000;0.2483;4.1425;
-60.6000;0.2532;4.1475;
-60.3000;0.2352;4.0997;
-60.0000;0.2548;4.1400;
-59.7000;0.2499;4.1224;
-59.4000;0.2491;4.1349;
-59.1000;0.2515;4.1375;
-58.8000;0.2450;4.1173;
-58.5000;0.2523;4.1349;
-58.2000;0.2475;4.1198;
-57.9000;0.2491;4.1224;
-57.6000;0.2499;4.1173;
-57.3000;0.2475;4.1123;
-57.0000;0.2491;4.1123;
-56.7000;0.2515;4.1299;
-56.4000;0.2483;4.1274;
-56.1000;0.2491;4.1198;
-55.8000;0.2475;4.1098;
-55.5000;0.2491;4.1022;
-55.2000;0.2523;4.1048;
-54.9000;0.2532;4.1098;
-54.6000;0.2515;4.1098;
-54.3000;0.2499;4.1098;
-54.0000;0.2515;4.1098;
-53.7000;0.2507;4.1123;
-53.4000;0.2466;4.1173;
-53.1000;0.2466;4.1148;
-52.8000;0.2523;4.1299;
-52.5000;0.2491;4.1173;
-52.2000;0.2483;4.1123;
-51.9000;0.2532;4.1249;
-51.6000;0.2548;4.1198;
-51.3000;0.2507;4.1123;
-51.0000;0.2499;4.1073;
-50.7000;0.2540;4.1224;
-50.4000;0.2491;4.1098;
-50.1000;0.2483;4.1048;
-49.8000;0.2491;4.1048;
-49.5000;0.2426;4.0846;
-49.2000;0.2491;4.0972;
-48.9000;0.2515;4.1098;
-48.6000;0.2352;4.0771;
-48.3000;0.2507;4.1198;
-48.0000;0.2483;4.1173;
-47.7000;0.2532;4.1349;
-47.4000;0.2499;4.1274;
-47.1000;0.2507;4.1324;
-46.8000;0.2540;4.1324;
-46.5000;0.2499;4.1375;
-46.2000;0.2507;4.1299;
-45.9000;0.2507;4.1173;
-45.6000;0.2475;4.1048;
-45.3000;0.2515;4.1098;
-45.0000;0.2523;4.1123;
-44.7000;0.2491;4.1098;
-44.4000;0.2629;4.1450;
-44.1000;0.2491;4.1022;
-43.8000;0.2393;4.0695;
-43.5000;0.2499;4.1048;
-43.2000;0.2637;4.1500;
-42.9000;0.2483;4.1022;
-42.6000;0.2499;4.1022;
-42.3000;0.2572;4.1299;
-42.0000;0.2491;4.1098;
-41.7000;0.2523;4.1098;
-41.4000;0.2491;4.1048;
-41.1000;0.2491;4.1073;
-40.8000;0.2572;4.1324;
-40.5000;0.2548;4.1349;
-40.2000;0.2352;4.0771;
-39.9000;0.2499;4.1123;
-39.6000;0.2507;4.1148;
-39.3000;0.2523;4.1173;
-39.0000;0.2499;4.1148;
-38.7000;0.2434;4.0922;
-38.4000;0.2499;4.1098;
-38.1000;0.2483;4.1022;
-37.8000;0.2483;4.1048;
-37.5000;0.2499;4.1073;
-37.2000;0.2515;4.1173;
-36.9000;0.2507;4.1173;
-36.6000;0.2491;4.1123;
-36.3000;0.2491;4.1123;
-36.0000;0.2540;4.1224;
-35.7000;0.2483;4.1073;
-35.4000;0.2499;4.1048;
-35.1000;0.2499;4.1073;
-34.8000;0.2499;4.1022;
-34.5000;0.2483;4.0922;
-34.2000;0.2483;4.0972;
-33.9000;0.2507;4.1148;
-33.6000;0.2466;4.1123;
-33.3000;0.2507;4.1148;
-33.0000;0.2491;4.1173;
-32.7000;0.2491;4.1148;
-32.4000;0.2483;4.1148;
-32.1000;0.2491;4.1148;
-31.8000;0.2458;4.1123;
-31.5000;0.2466;4.1198;
-31.2000;0.2442;4.1148;
-30.9000;0.2515;4.1450;
-30.6000;0.2475;4.1324;
-30.3000;0.2523;4.1475;
-30.0000;0.2475;4.1400;
-29.7000;0.2507;4.1450;
-29.4000;0.2499;4.1425;
-29.1000;0.2507;4.1475;
-28.8000;0.2491;4.1525;
-28.5000;0.2499;4.1500;
-28.2000;0.2475;4.1425;
-27.9000;0.2483;4.1375;
-27.6000;0.2475;4.1299;
-27.3000;0.2483;4.1299;
-27.0000;0.2442;4.1073;
-26.7000;0.2515;4.1274;
-26.4000;0.2466;4.1098;
-26.1000;0.2499;4.1198;
-25.8000;0.2466;4.1148;
-25.5000;0.2475;4.1173;
-25.2000;0.2499;4.1299;
-24.9000;0.2499;4.1375;
-24.6000;0.2564;4.1601;
-24.3000;0.2507;4.1349;
-24.0000;0.2507;4.1299;
-23.7000;0.2499;4.1324;
-23.4000;0.2499;4.1324;
-23.1000;0.2491;4.1198;
-22.8000;0.2507;4.1198;
-22.5000;0.2491;4.1198;
-22.2000;0.2475;4.1098;
-21.9000;0.2483;4.1123;
-21.6000;0.2523;4.1224;
-21.3000;0.2499;4.1173;
-21.0000;0.2466;4.1073;
-20.7000;0.2499;4.1173;
-20.4000;0.2523;4.1249;
-20.1000;0.2507;4.1274;
-19.8000;0.2507;4.1148;
-19.5000;0.2540;4.1198;
-19.2000;0.2548;4.1249;
-18.9000;0.2515;4.1048;
-18.6000;0.2491;4.1048;
-18.3000;0.2540;4.1224;
-18.0000;0.2580;4.1375;
-17.7000;0.2532;4.1249;
-17.4000;0.2556;4.1425;
-17.1000;0.2629;4.1651;
-16.8000;0.2499;4.1324;
-16.5000;0.2450;4.1073;
-16.2000;0.2523;4.1249;
-15.9000;0.2499;4.1198;
-15.6000;0.2719;4.1752;
-15.3000;0.2515;4.1198;
-15.0000;0.2499;4.1073;
-14.7000;0.2515;4.1098;
-14.4000;0.2507;4.1123;
-14.1000;0.2507;4.1224;
-13.8000;0.2409;4.0997;
-13.5000;0.2523;4.1274;
-13.2000;0.2507;4.1224;
-12.9000;0.2491;4.1224;
-12.6000;0.2548;4.1249;
-12.3000;0.2507;4.1173;
-12.0000;0.2556;4.1349;
-11.7000;0.2515;4.1224;
-11.4000;0.2466;4.1073;
-11.1000;0.2483;4.1098;
-10.8000;0.2483;4.1098;
-10.5000;0.2475;4.0972;
-10.2000;0.2475;4.1073;
-9.9000;0.2483;4.1098;
-9.6000;0.2499;4.1098;
-9.3000;0.2491;4.1048;
-9.0000;0.2491;4.1098;
-8.7000;0.2499;4.1148;
-8.4000;0.2515;4.1249;
-8.1000;0.2466;4.1098;
-7.8000;0.2507;4.1148;
-7.5000;0.2491;4.1073;
-7.2000;0.2466;4.0972;
-6.9000;0.2466;4.1123;
-6.6000;0.2507;4.1198;
-6.3000;0.2442;4.1022;
-6.0000;0.2515;4.1198;
-5.7000;0.2491;4.1073;
-5.4000;0.2523;4.1148;
-5.1000;0.2540;4.1098;
-4.8000;0.2507;4.0947;
-4.5000;0.2523;4.0997;
-4.2000;0.2271;4.0368;
-3.9000;0.2507;4.0947;
-3.6000;0.2491;4.0872;
-3.3000;0.2491;4.0947;
-3.0000;0.2450;4.0947;
-2.7000;0.2507;4.1098;
-2.4000;0.2491;4.1123;
-2.1000;0.2523;4.1173;
-1.8000;0.2515;4.1148;
-1.5000;0.2499;4.1173;
-1.2000;0.2507;4.1198;
-0.9000;0.2483;4.1148;
-0.6000;0.2475;4.1022;
-0.3000;0.2418;4.0821;
0.0000;0.2418;4.0821;
0.3000;0.2540;4.1098;
0.6000;0.2507;4.1400;
0.9000;0.2532;4.1827;
1.2000;0.2564;4.2255;
1.5000;0.2556;4.2481;
1.8000;0.2580;4.2833;
2.1000;0.2556;4.3060;
2.4000;0.2621;4.3437;
2.7000;0.2621;4.3714;
3.0000;0.2637;4.3915;
3.3000;0.2613;4.4015;
3.6000;0.2589;4.4041;
3.9000;0.2605;4.4091;
4.2000;0.2637;4.4267;
4.5000;0.2564;4.4192;
4.8000;0.2654;4.4519;
5.1000;0.2662;4.4544;
5.4000;0.2654;4.4544;
5.7000;0.2662;4.4669;
6.0000;0.2768;4.5122;
6.3000;0.2654;4.4896;
6.6000;0.2686;4.4996;
6.9000;0.2646;4.4896;
7.2000;0.2646;4.4845;
7.5000;0.2548;4.4544;
7.8000;0.2654;4.4871;
8.1000;0.2646;4.4871;
8.4000;0.2646;4.4921;
8.7000;0.2637;4.4896;
9.0000;0.2646;4.4871;
9.3000;0.2637;4.4845;
9.6000;0.2637;4.4896;
9.9000;0.2662;4.4946;
10.2000;0.2702;4.5097;
10.5000;0.2564;4.4669;
10.8000;0.2637;4.4896;
11.1000;0.2662;4.4871;
11.4000;0.2646;4.4770;
11.7000;0.2711;4.4946;
12.0000;0.2654;4.4820;
12.3000;0.2662;4.4795;
12.6000;0.2662;4.4720;
12.9000;0.2662;4.4770;
13.2000;0.2662;4.4770;
13.5000;0.2654;4.4795;
13.8000;0.2605;4.4745;
14.1000;0.2662;4.4896;
14.4000;0.2621;4.4745;
14.7000;0.2637;4.4745;
15.0000;0.2670;4.4896;
15.3000;0.2662;4.4845;
15.6000;0.2646;4.4795;
15.9000;0.2637;4.4845;
16.2000;0.2662;4.4971;
16.5000;0.2654;4.4996;
16.8000;0.2751;4.5223;
17.1000;0.2670;4.5047;
17.4000;0.2654;4.4996;
17.7000;0.2654;4.5022;
18.0000;0.2662;4.4971;
18.3000;0.2572;4.4770;
18.6000;0.2629;4.4971;
18.9000;0.2605;4.4845;
19.2000;0.2662;4.5047;
19.5000;0.2637;4.4971;
19.8000;0.2637;4.4996;
20.1000;0.2662;4.5097;
20.4000;0.2654;4.5022;
20.7000;0.2662;4.4996;
21.0000;0.2662;4.5022;
21.3000;0.2735;4.5248;
21.6000;0.2670;4.5072;
21.9000;0.2670;4.5122;
22.2000;0.2621;4.5047;
22.5000;0.2654;4.5047;
22.8000;0.2670;4.5022;
23.1000;0.2776;4.5298;
23.4000;0.2702;4.5097;
23.7000;0.2621;4.4896;
24.0000;0.2702;4.5097;
24.3000;0.2629;4.4896;
24.6000;0.2678;4.5022;
24.9000;0.2637;4.4996;
25.2000;0.2646;4.4996;
25.5000;0.2719;4.5298;
25.8000;0.2670;4.5172;
26.1000;0.2637;4.5047;
26.4000;0.2654;4.5022;
26.7000;0.2670;4.5072;
27.0000;0.2637;4.4996;
27.3000;0.2637;4.5072;
27.6000;0.2629;4.5022;
27.9000;0.2629;4.5022;
28.2000;0.2662;4.5147;
28.5000;0.2670;4.5147;
28.8000;0.2727;4.5248;
29.1000;0.2735;4.5298;
29.4000;0.2662;4.5147;
29.7000;0.2678;4.5097;
30.0000;0.2719;4.5172;
30.3000;0.2662;4.4971;
30.6000;0.2654;4.5072;
30.9000;0.2694;4.5172;
31.2000;0.2597;4.4845;
31.5000;0.2646;4.5047;
31.8000;0.2686;4.5223;
32.1000;0.2646;4.5172;
32.4000;0.2654;4.5147;
32.7000;0.2646;4.5122;
33.0000;0.2662;4.5097;
33.3000;0.2646;4.4946;
33.6000;0.2646;4.5022;
33.9000;0.2654;4.5047;
34.2000;0.2629;4.4971;
34.5000;0.2662;4.5147;
34.8000;0.2662;4.5122;
35.1000;0.2637;4.4996;
35.4000;0.2646;4.4996;
35.7000;0.2654;4.5047;
36.0000;0.2646;4.5022;
36.3000;0.2646;4.5022;
36.6000;0.2637;4.4971;
36.9000;0.2670;4.4996;
37.2000;0.2629;4.4896;
37.5000;0.2597;4.4820;
37.8000;0.2662;4.4946;
38.1000;0.2646;4.4971;
38.4000;0.2646;4.4971;
38.7000;0.2637;4.4845;
39.0000;0.2662;4.4921;
39.3000;0.2686;4.4971;
39.6000;0.2654;4.4845;
39.9000;0.2654;4.4795;
40.2000;0.2646;4.4720;
40.5000;0.2646;4.4770;
40.8000;0.2670;4.4921;
41.1000;0.2686;4.4996;
41.4000;0.2654;4.4946;
41.7000;0.2662;4.4921;
42.0000;0.2662;4.4996;
42.3000;0.2637;4.5022;
42.6000;0.2670;4.5097;
42.9000;0.2654;4.5122;
43.2000;0.2637;4.4946;
43.5000;0.2654;4.4996;
43.8000;0.2637;4.4921;
44.1000;0.2637;4.4971;
44.4000;0.2670;4.5097;
44.7000;0.2637;4.4946;
45.0000;0.2662;4.4996;
45.3000;0.2637;4.4946;
45.6000;0.2629;4.4946;
45.9000;0.2646;4.4971;
46.2000;0.2694;4.4946;
46.5000;0.2621;4.4720;
46.8000;0.2662;4.4795;
47.1000;0.2670;4.4921;
47.4000;0.2589;4.4669;
47.7000;0.2662;4.4896;
48.0000;0.2670;4.4921;
48.3000;0.2662;4.4971;
48.6000;0.2670;4.4896;
48.9000;0.2646;4.4845;
49.2000;0.2654;4.4896;
49.5000;0.2540;4.4493;
49.8000;0.2702;4.4820;
50.1000;0.2629;4.4720;
50.4000;0.2629;4.4695;
50.7000;0.2572;4.4443;
51.0000;0.2597;4.4720;
51.3000;0.2605;4.4795;
51.6000;0.2768;4.5273;
51.9000;0.2654;4.4871;
52.2000;0.2654;4.4871;
52.5000;0.2735;4.5273;
52.8000;0.2637;4.5047;
53.1000;0.2654;4.5047;
53.4000;0.2670;4.5022;
53.7000;0.2735;4.5097;
54.0000;0.2613;4.4770;
54.3000;0.2662;4.4896;
54.6000;0.2678;4.4971;
54.9000;0.2654;4.4996;
55.2000;0.2637;4.4946;
55.5000;0.2646;4.4871;
55.8000;0.2678;4.4946;
56.1000;0.2662;4.4896;
56.4000;0.2719;4.5072;
56.7000;0.2637;4.4845;
57.0000;0.2637;4.4871;
57.3000;0.2637;4.4946;
57.6000;0.2646;4.4921;
57.9000;0.2646;4.4946;
58.2000;0.2662;4.5047;
58.5000;0.2662;4.5022;
58.8000;0.2670;4.5047;
59.1000;0.2613;4.4971;
59.4000;0.2654;4.5097;
59.7000;0.2662;4.5072;
60.0000;0.2662;4.5047;
60.3000;0.2686;4.5097;
60.6000;0.2670;4.5072;
60.9000;0.2662;4.4946;
61.2000;0.2646;4.4971;
61.5000;0.2662;4.4946;
61.8000;0.2646;4.4871;
62.1000;0.2670;4.4921;
62.4000;0.2646;4.4946;
62.7000;0.2629;4.4996;
63.0000;0.2646;4.5072;
63.3000;0.2646;4.5097;
63.6000;0.2662;4.5198;
63.9000;0.2629;4.4996;
64.2000;0.2654;4.5022;
64.5000;0.2654;4.4996;
64.8000;0.2662;4.5147;
65.1000;0.2678;4.5349;
65.4000;0.2637;4.5198;
65.7000;0.2662;4.5248;
66.0000;0.2662;4.5223;
66.3000;0.2768;4.5525;
66.6000;0.2629;4.5122;
66.9000;0.2662;4.5223;
67.2000;0.2654;4.5298;
67.5000;0.2629;4.5223;
67.8000;0.2654;4.5248;
68.1000;0.2646;4.5248;
68.4000;0.2662;4.5248;
68.7000;0.2646;4.5172;
69.0000;0.2629;4.5122;
69.3000;0.2646;4.5198;
69.6000;0.2678;4.5323;
69.9000;0.2670;4.5399;
70.2000;0.2670;4.5399;
70.5000;0.2646;4.5248;
70.8000;0.2629;4.5147;
71.1000;0.2686;4.5298;
71.4000;0.2719;4.5399;
71.7000;0.2646;4.5223;
72.0000;0.2686;4.5223;
72.3000;0.2629;4.5022;
72.6000;0.2646;4.5072;
72.9000;0.2637;4.5072;
73.2000;0.2662;4.5122;
73.5000;0.2670;4.5122;
73.8000;0.2654;4.5047;
74.1000;0.2637;4.5022;
74.4000;0.2637;4.4946;
74.7000;0.2515;4.4619;
75.0000;0.2662;4.4996;
75.3000;0.2670;4.4971;
75.6000;0.2727;4.5097;
75.9000;0.2662;4.4946;
76.2000;0.2670;4.4946;
76.5000;0.2670;4.4971;
76.8000;0.2670;4.4921;
77.1000;0.2654;4.4921;
77.4000;0.2646;4.4946;
77.7000;0.2662;4.5022;
78.0000;0.2646;4.4921;
78.3000;0.2662;4.4971;
78.6000;0.2678;4.5022;
78.9000;0.2662;4.4921;
79.2000;0.2589;4.4669;
79.5000;0.2646;4.4896;
79.8000;0.2662;4.4971;
80.1000;0.2776;4.5323;
80.4000;0.2646;4.4921;
80.7000;0.2670;4.5072;
81.0000;0.2670;4.4971;
81.3000;0.2670;4.4996;
81.6000;0.2646;4.4896;
81.9000;0.2662;4.4896;
82.2000;0.2662;4.4896;
82.5000;0.2646;4.4820;
82.8000;0.2646;4.4820;
83.1000;0.2637;4.4820;
83.4000;0.2662;4.4921;
83.7000;0.2654;4.4896;
84.0000;0.2621;4.4871;
84.3000;0.2637;4.4971;
84.6000;0.2662;4.5022;
84.9000;0.2637;4.5022;
85.2000;0.2743;4.5399;
85.5000;0.2662;4.5147;
85.8000;0.2637;4.5122;
86.1000;0.2646;4.5147;
86.4000;0.2654;4.5097;
86.7000;0.2654;4.5172;
87.0000;0.2646;4.5122;
87.3000;0.2711;4.5172;
87.6000;0.2637;4.5022;
87.9000;0.2654;4.5072;
88.2000;0.2646;4.5047;
88.5000;0.2654;4.5097;
88.8000;0.2662;4.5072;
89.1000;0.2662;4.5072;
89.4000;0.2654;4.5047;
89.7000;0.2637;4.4971;
90.0000;0.2621;4.4921;
90.3000;0.2670;4.5047;
90.6000;0.2654;4.5047;
90.9000;0.2654;4.5022;
91.2000;0.2670;4.4996;
91.5000;0.2654;4.4946;
91.8000;0.2662;4.4971;
92.1000;0.2613;4.4871;
92.4000;0.2662;4.4921;
92.7000;0.2670;4.4921;
93.0000;0.2662;4.4845;
93.3000;0.2662;4.4946;
93.6000;0.2637;4.4971;
93.9000;0.2646;4.5097;
94.2000;0.2654;4.5122;
94.5000;0.2597;4.4971;
94.8000;0.2654;4.5172;
95.1000;0.2654;4.5097;
95.4000;0.2743;4.5248;
95.7000;0.2654;4.5047;
96.0000;0.2662;4.5047;
96.3000;0.2646;4.5097;
96.6000;0.2670;4.5172;
96.9000;0.2670;4.5047;
97.2000;0.2776;4.5374;
97.5000;0.2597;4.4971;
97.8000;0.2646;4.5072;
98.1000;0.2621;4.5047;
98.4000;0.2629;4.5072;
98.7000;0.2637;4.4971;
99.0000;0.2572;4.4820;
99.3000;0.2808;4.5399;
99.6000;0.2678;4.5097;
99.9000;0.2702;4.5147;
100.2000;0.2654;4.5072;
100.5000;0.2662;4.5147;
100.8000;0.2662;4.5147;
101.1000;0.2646;4.5097;
101.4000;0.2646;4.5022;
101.7000;0.2670;4.5172;
102.0000;0.2646;4.5097;
102.3000;0.2637;4.5047;
102.6000;0.2662;4.5147;
102.9000;0.2629;4.5047;
103.2000;0.2662;4.5047;
103.5000;0.2629;4.5022;
103.8000;0.2637;4.5072;
104.1000;0.2646;4.4946;
104.4000;0.2556;4.4669;
104.7000;0.2654;4.4971;
105.0000;0.2613;4.4896;
105.3000;0.2548;4.4669;
105.6000;0.2621;4.4946;
105.9000;0.2646;4.4946;
106.2000;0.2629;4.4896;
106.5000;0.2629;4.4996;
106.8000;0.2646;4.5097;
107.1000;0.2654;4.5047;
107.4000;0.2629;4.5047;
107.7000;0.2637;4.5047;
108.0000;0.2637;4.5122;
108.3000;0.2646;4.5147;
108.6000;0.2662;4.5097;
108.9000;0.2646;4.5122;
109.2000;0.2597;4.4946;
109.5000;0.2670;4.5172;
109.8000;0.2646;4.5097;
110.1000;0.2694;4.5122;
110.4000;0.2678;4.5047;
110.7000;0.2621;4.4996;
111.0000;0.2646;4.5047;
111.3000;0.2662;4.5047;
111.6000;0.2654;4.5047;
111.9000;0.2702;4.5147;
112.2000;0.2670;4.5072;
112.5000;0.2621;4.4996;
112.8000;0.2702;4.5172;
113.1000;0.2662;4.4946;
113.4000;0.2654;4.4971;
113.7000;0.2637;4.4946;
114.0000;0.2637;4.4921;
114.3000;0.2670;4.5022;
114.6000;0.2637;4.5022;
114.9000;0.2637;4.5072;
115.2000;0.2654;4.5248;
115.5000;0.2654;4.5273;
115.8000;0.2646;4.5248;
116.1000;0.2629;4.5198;
116.4000;0.2629;4.5223;
116.7000;0.2637;4.5248;
117.0000;0.2621;4.5298;
117.3000;0.2735;4.5575;
117.6000;0.2637;4.5172;
117.9000;0.2637;4.5198;
118.2000;0.2670;4.5223;
118.5000;0.2597;4.4946;
118.8000;0.2637;4.5072;
119.1000;0.2654;4.5122;
119.4000;0.2621;4.4996;
119.7000;0.2613;4.4996;
120.0000;0.2629;4.4996;
120.3000;0.2670;4.5097;
120.6000;0.2654;4.5122;
120.9000;0.2686;4.5198;
121.2000;0.2670;4.5072;
121.5000;0.2572;4.4871;
121.8000;0.2637;4.4996;
122.1000;0.2597;4.4921;
122.4000;0.2580;4.4871;
122.7000;0.2646;4.4946;
123.0000;0.2662;4.4946;
123.3000;0.2654;4.4921;
123.6000;0.2654;4.4946;
123.9000;0.2629;4.4946;
124.2000;0.2613;4.4946;
124.5000;0.2711;4.5223;
124.8000;0.2629;4.5097;
125.1000;0.2580;4.4971;
125.4000;0.2670;4.5172;
125.7000;0.2670;4.5323;
126.0000;0.2629;4.5223;
126.3000;0.2629;4.5223;
126.6000;0.2613;4.5172;
126.9000;0.2646;4.5248;
127.2000;0.2670;4.5223;
127.5000;0.2621;4.5097;
127.8000;0.2646;4.5147;
128.1000;0.2646;4.5122;
128.4000;0.2654;4.5122;
128.7000;0.2662;4.5047;
129.0000;0.2654;4.5022;
129.3000;0.2711;4.5147;
129.6000;0.2654;4.4946;
129.9000;0.2637;4.4946;
130.2000;0.2637;4.4871;
130.5000;0.2654;4.4921;
130.8000;0.2629;4.5047;
131.1000;0.2589;4.4845;
131.4000;0.2654;4.5047;
131.7000;0.2613;4.4996;
132.0000;0.2646;4.5047;
132.3000;0.2654;4.5047;
132.6000;0.2637;4.4921;
132.9000;0.2646;4.5072;
133.2000;0.2670;4.5172;
133.5000;0.2637;4.5147;
133.8000;0.2662;4.5223;
134.1000;0.2654;4.5198;
134.4000;0.2662;4.5248;
134.7000;0.2646;4.5273;
135.0000;0.2654;4.5248;
135.3000;0.2751;4.5474;
135.6000;0.2629;4.4996;
135.9000;0.2678;4.5072;
136.2000;0.2654;4.5072;
136.5000;0.2646;4.4996;
136.8000;0.2646;4.5022;
137.1000;0.2670;4.5072;
137.4000;0.2670;4.5122;
137.7000;0.2629;4.5072;
138.0000;0.2678;4.5248;
138.3000;0.2637;4.5097;
138.6000;0.2654;4.5198;
138.9000;0.2613;4.4996;
139.2000;0.2629;4.5072;
139.5000;0.2540;4.4795;
139.8000;0.2646;4.5072;
140.1000;0.2646;4.4996;
140.4000;0.2637;4.4921;
140.7000;0.2646;4.4971;
141.0000;0.2637;4.4996;
141.3000;0.2654;4.5097;
141.6000;0.2776;4.5424;
141.9000;0.2654;4.5022;
142.2000;0.2629;4.4820;
142.5000;0.2776;4.5273;
142.8000;0.2613;4.4820;
143.1000;0.2613;4.4921;
143.4000;0.2605;4.4946;
143.7000;0.2662;4.5072;
144.0000;0.2589;4.4921;
144.3000;0.2654;4.5047;
144.6000;0.2654;4.4971;
144.9000;0.2637;4.4845;
145.2000;0.2646;4.4871;
145.5000;0.2621;4.4820;
145.8000;0.2743;4.5248;
146.1000;0.2605;4.4795;
146.4000;0.2637;4.5022;
146.7000;0.2589;4.4971;
147.0000;0.2637;4.5022;
147.3000;0.2621;4.5022;
147.6000;0.2646;4.5122;
147.9000;0.2629;4.5072;
148.2000;0.2646;4.4996;
148.5000;0.2621;4.5047;
148.8000;0.2637;4.5122;
149.1000;0.2694;4.5273;
149.4000;0.2629;4.5022;
149.7000;0.2629;4.5072;
150.0000;0.2637;4.4996;
150.3000;0.2637;4.4996;
150.6000;0.2646;4.5047;
150.9000;0.2629;4.4996;
151.2000;0.2654;4.5047;
151.5000;0.2670;4.5147;
151.8000;0.2629;4.5047;
152.1000;0.2637;4.5022;
152.4000;0.2629;4.4971;
152.7000;0.2629;4.4946;
153.0000;0.2686;4.5047;
153.3000;0.2654;4.4996;
153.6000;0.2662;4.5047;
153.9000;0.2637;4.5047;
154.2000;0.2654;4.4996;
154.5000;0.2637;4.4921;
154.8000;0.2654;4.4971;
155.1000;0.2654;4.4971;
155.4000;0.2646;4.4971;
155.7000;0.2646;4.4946;
156.0000;0.2670;4.5097;
156.3000;0.2637;4.5097;
156.6000;0.2646;4.5172;
156.9000;0.2629;4.5047;
157.2000;0.2621;4.5022;
157.5000;0.2646;4.5097;
157.8000;0.2629;4.5022;
158.1000;0.2540;4.4745;
158.4000;0.2637;4.5072;
158.7000;0.2646;4.5047;
159.0000;0.2646;4.5047;
159.3000;0.2637;4.5022;
159.6000;0.2637;4.4946;
159.9000;0.2678;4.4996;
160.2000;0.2670;4.4971;
160.5000;0.2629;4.4871;
160.8000;0.2646;4.4921;
161.1000;0.2678;4.4996;
161.4000;0.2678;4.4996;
161.7000;0.2662;4.5022;
162.0000;0.2629;4.5022;
162.3000;0.2605;4.4996;
162.6000;0.2605;4.5072;
162.9000;0.2646;4.5198;
163.2000;0.2719;4.5449;
163.5000;0.2621;4.5223;
163.8000;0.2637;4.5248;
164.1000;0.2637;4.5223;
164.4000;0.2646;4.5223;
164.7000;0.2613;4.5047;
165.0000;0.2646;4.5147;
165.3000;0.2637;4.5097;
165.6000;0.2580;4.5047;
165.9000;0.2629;4.5097;
166.2000;0.2613;4.4946;
166.5000;0.2662;4.4946;
166.8000;0.2540;4.4594;
167.1000;0.2654;4.4921;
167.4000;0.2654;4.4971;
167.7000;0.2759;4.5349;
168.0000;0.2670;4.5122;
168.3000;0.2694;4.5172;
168.6000;0.2694;4.5223;
168.9000;0.2629;4.5022;
169.2000;0.2719;4.5298;
169.5000;0.2662;4.5147;
169.8000;0.2678;4.5248;
170.1000;0.2621;4.5147;
170.4000;0.2662;4.5223;
170.7000;0.2646;4.5223;
171.0000;0.2759;4.5499;
171.3000;0.2662;4.5323;
171.6000;0.2613;4.5122;
171.9000;0.2646;4.5198;
172.2000;0.2621;4.5097;
172.5000;0.2621;4.5072;
172.8000;0.2646;4.5097;
173.1000;0.2629;4.4921;
173.4000;0.2621;4.4896;
173.7000;0.2621;4.4996;
174.0000;0.2597;4.4921;
174.3000;0.2711;4.5248;
174.6000;0.2613;4.4996;
174.9000;0.2629;4.5022;
175.2000;0.2613;4.4996;
175.5000;0.2629;4.5047;
175.8000;0.2637;4.5047;
176.1000;0.2670;4.5172;
176.4000;0.2637;4.5097;
176.7000;0.2589;4.5047;
177.0000;0.2654;4.5298;
177.3000;0.2621;4.5172;
177.6000;0.2621;4.5198;
177.9000;0.2637;4.5198;
178.2000;0.2662;4.5198;
178.5000;0.2662;4.5198;
178.8000;0.2646;4.5147;
179.1000;0.2654;4.5198;
179.4000;0.2637;4.5147;
179.7000;0.2646;4.5223;
180.0000;0.2637;4.5172;
180.3000;0.2637;4.5172;
180.6000;0.2654;4.5248;
180.9000;0.2646;4.5248;
181.2000;0.2637;4.5223;
181.5000;0.2662;4.5323;
181.8000;0.2621;4.5223;
182.1000;0.2670;4.5273;
182.4000;0.2646;4.5198;
182.7000;0.2637;4.5122;
183.0000;0.2564;4.4871;
183.3000;0.2621;4.5097;
183.6000;0.2637;4.5147;
183.9000;0.2629;4.5122;
184.2000;0.2670;4.5273;
184.5000;0.2637;4.5072;
184.8000;0.2613;4.5072;
185.1000;0.2670;4.5097;
185.4000;0.2507;4.4594;
185.7000;0.2654;4.5072;
186.0000;0.2621;4.5047;
186.3000;0.2686;4.5147;
186.6000;0.2646;4.5097;
186.9000;0.2637;4.5172;
187.2000;0.2637;4.5147;
187.5000;0.2678;4.5198;
187.8000;0.2637;4.5097;
188.1000;0.2629;4.5022;
188.4000;0.2621;4.4971;
188.7000;0.2662;4.5072;
189.0000;0.2654;4.5022;
189.3000;0.2637;4.5097;
189.6000;0.2580;4.4971;
189.9000;0.2637;4.5122;
190.2000;0.2613;4.5072;
190.5000;0.2654;4.5248;
190.8000;0.2589;4.5097;
191.1000;0.2646;4.5147;
191.4000;0.2654;4.5097;
191.7000;0.2711;4.5273;
192.0000;0.2572;4.4971;
192.3000;0.2597;4.4971;
192.6000;0.2751;4.5323;
192.9000;0.2654;4.5097;
193.2000;0.2662;4.5072;
193.5000;0.2678;4.5122;
193.8000;0.2589;4.5022;
194.1000;0.2654;4.5072;
194.4000;0.2654;4.4996;
194.7000;0.2629;4.4946;
195.0000;0.2662;4.5022;
195.3000;0.2629;4.4946;
195.6000;0.2646;4.5047;
195.9000;0.2637;4.5172;
196.2000;0.2727;4.5399;
196.5000;0.2629;4.5147;
196.8000;0.2637;4.5147;
197.1000;0.2646;4.5172;
197.4000;0.2629;4.5122;
197.7000;0.2621;4.5022;
198.0000;0.2597;4.4896;
198.3000;0.2662;4.4996;
198.6000;0.2646;4.4871;
198.9000;0.2621;4.4820;
199.2000;0.2662;4.4921;
199.5000;0.2629;4.4871;
199.8000;0.2637;4.4820;
200.1000;0.2613;4.4795;
200.4000;0.2605;4.4921;
200.7000;0.2629;4.4896;
201.0000;0.2654;4.4871;
201.3000;0.2540;4.4619;
201.6000;0.2662;4.4946;
201.9000;0.2670;4.4971;
202.2000;0.2646;4.4921;
202.5000;0.2646;4.4971;
202.8000;0.2605;4.4896;
203.1000;0.2637;4.4996;
203.4000;0.2654;4.5047;
203.7000;0.2646;4.4971;
204.0000;0.2597;4.4795;
204.3000;0.2629;4.4921;
204.6000;0.2654;4.5022;
204.9000;0.2515;4.4695;
205.2000;0.2621;4.5022;
205.5000;0.2654;4.5097;
205.8000;0.2686;4.5172;
206.1000;0.2670;4.5072;
206.4000;0.2629;4.4971;
206.7000;0.2629;4.5047;
207.0000;0.2670;4.5147;
207.3000;0.2637;4.5047;
207.6000;0.2662;4.4921;
207.9000;0.2637;4.4921;
208.2000;0.2621;4.4971;
208.5000;0.2646;4.5147;
208.8000;0.2662;4.5147;
209.1000;0.2646;4.5147;
209.4000;0.2637;4.5072;
209.7000;0.2629;4.5022;
210.0000;0.2654;4.5122;
210.3000;0.2629;4.5047;
210.6000;0.2711;4.5172;
210.9000;0.2654;4.5022;
211.2000;0.2629;4.4896;
211.5000;0.2686;4.5072;
211.8000;0.2629;4.4971;
212.1000;0.2637;4.4996;
212.4000;0.2629;4.4971;
212.7000;0.2589;4.4871;
213.0000;0.2646;4.4845;
213.3000;0.2654;4.4720;
213.6000;0.2637;4.4745;
213.9000;0.2621;4.4720;
214.2000;0.2637;4.4745;
214.5000;0.2629;4.4695;
214.8000;0.2662;4.4820;
215.1000;0.2654;4.4971;
215.4000;0.2621;4.4946;
215.7000;0.2629;4.4946;
216.0000;0.2678;4.5147;
216.3000;0.2621;4.4921;
216.6000;0.2751;4.5323;
216.9000;0.2556;4.4795;
217.2000;0.2613;4.5022;
217.5000;0.2548;4.4845;
217.8000;0.2637;4.5047;
218.1000;0.2507;4.4720;
218.4000;0.2637;4.5097;
218.7000;0.2548;4.4871;
219.0000;0.2654;4.5147;
219.3000;0.2637;4.5198;
219.6000;0.2727;4.5399;
219.9000;0.2621;4.5047;
220.2000;0.2654;4.4996;
220.5000;0.2613;4.4896;
220.8000;0.2637;4.4845;
221.1000;0.2597;4.4745;
221.4000;0.2637;4.4820;
221.7000;0.2646;4.4820;
222.0000;0.2646;4.4695;
222.3000;0.2629;4.4594;
222.6000;0.2662;4.4644;
222.9000;0.2637;4.4644;
223.2000;0.2621;4.4695;
223.5000;0.2654;4.4745;
223.8000;0.2646;4.4770;
224.1000;0.2605;4.4695;
224.4000;0.2572;4.4594;
224.7000;0.2662;4.4720;
225.0000;0.2646;4.4669;
225.3000;0.2629;4.4644;
225.6000;0.2662;4.4770;
225.9000;0.2637;4.4745;
226.2000;0.2613;4.4695;
226.5000;0.2629;4.4745;
226.8000;0.2637;4.4745;
227.1000;0.2654;4.4871;
227.4000;0.2646;4.4845;
227.7000;0.2646;4.4795;
228.0000;0.2605;4.4669;
228.3000;0.2629;4.4745;
228.6000;0.2686;4.4845;
228.9000;0.2613;4.4669;
229.2000;0.2646;4.4669;
229.5000;0.2629;4.4695;
229.8000;0.2646;4.4770;
230.1000;0.2646;4.4820;
230.4000;0.2646;4.4720;
230.7000;0.2637;4.4795;
231.0000;0.2637;4.4896;
231.3000;0.2621;4.4896;
231.6000;0.2637;4.4820;
231.9000;0.2662;4.4946;
232.2000;0.2702;4.5097;
232.5000;0.2637;4.5047;
232.8000;0.2629;4.4946;
233.1000;0.2629;4.4921;
233.4000;0.2694;4.5097;
233.7000;0.2629;4.4820;
234.0000;0.2637;4.4820;
234.3000;0.2654;4.4921;
234.6000;0.2686;4.4996;
234.9000;0.2646;4.4871;
235.2000;0.2637;4.4921;
235.5000;0.2654;4.4946;
235.8000;0.2637;4.4946;
236.1000;0.2613;4.4971;
236.4000;0.2662;4.5122;
236.7000;0.2646;4.5097;
237.0000;0.2654;4.5172;
237.3000;0.2637;4.5122;
237.6000;0.2589;4.4971;
237.9000;0.2564;4.4820;
238.2000;0.2629;4.5097;
238.5000;0.2662;4.5198;
238.8000;0.2670;4.5097;
239.1000;0.2662;4.5147;
239.4000;0.2654;4.5097;
239.7000;0.2605;4.5047;
240.0000;0.2629;4.5147;
240.3000;0.2670;4.5248;
240.6000;0.2694;4.5298;
240.9000;0.2621;4.5047;
241.2000;0.2637;4.5097;
241.5000;0.2800;4.5474;
241.8000;0.2670;4.5072;
242.1000;0.2621;4.4921;
242.4000;0.2646;4.4946;
242.7000;0.2629;4.4871;
243.0000;0.2654;4.4921;
243.3000;0.2629;4.4946;
243.6000;0.2621;4.4896;
243.9000;0.2637;4.4971;
244.2000;0.2629;4.5047;
244.5000;0.2605;4.5047;
244.8000;0.2637;4.4996;
245.1000;0.2637;4.4946;
245.4000;0.2702;4.5022;
245.7000;0.2637;4.4896;
246.0000;0.2629;4.4896;
246.3000;0.2637;4.4896;
246.6000;0.2605;4.4720;
246.9000;0.2629;4.4695;
247.2000;0.2621;4.4720;
247.5000;0.2637;4.4795;
247.8000;0.2637;4.4896;
248.1000;0.2597;4.4720;
248.4000;0.2637;4.4745;
248.7000;0.2605;4.4644;
249.0000;0.2580;4.4619;
249.3000;0.2621;4.4770;
249.6000;0.2646;4.4921;
249.9000;0.2735;4.5147;
250.2000;0.2654;4.4896;
250.5000;0.2662;4.4845;
250.8000;0.2637;4.4695;
251.1000;0.2621;4.4644;
251.4000;0.2613;4.4619;
251.7000;0.2646;4.4770;
252.0000;0.2629;4.4770;
252.3000;0.2621;4.4569;
252.6000;0.2646;4.4644;
252.9000;0.2662;4.4770;
253.2000;0.2621;4.4644;
253.5000;0.2621;4.4619;
253.8000;0.2613;4.4695;
254.1000;0.2564;4.4519;
254.4000;0.2637;4.4820;
254.7000;0.2646;4.4921;
255.0000;0.2572;4.4845;
255.3000;0.2654;4.5122;
255.6000;0.2621;4.4996;
255.9000;0.2629;4.5022;
256.2000;0.2637;4.5022;
256.5000;0.2637;4.5072;
256.8000;0.2637;4.5022;
257.1000;0.2597;4.4896;
257.4000;0.2621;4.4871;
257.7000;0.2629;4.4971;
258.0000;0.2637;4.4871;
258.3000;0.2629;4.4896;
258.6000;0.2654;4.5022;
258.9000;0.2646;4.4971;
259.2000;0.2654;4.4820;
259.5000;0.2556;4.4644;
259.8000;0.2621;4.4845;
260.1000;0.2613;4.4820;
260.4000;0.2572;4.4745;
260.7000;0.2662;4.4921;
261.0000;0.2637;4.4871;
261.3000;0.2646;4.4921;
261.6000;0.2637;4.4921;
261.9000;0.2564;4.4745;
262.2000;0.2711;4.5223;
262.5000;0.2621;4.5097;
262.8000;0.2629;4.5273;
263.1000;0.2597;4.5248;
263.4000;0.2637;4.5298;
263.7000;0.2637;4.5273;
264.0000;0.2637;4.5198;
264.3000;0.2637;4.5147;
264.6000;0.2654;4.5198;
264.9000;0.2621;4.5122;
265.2000;0.2637;4.5122;
265.5000;0.2629;4.5047;
265.8000;0.2646;4.4971;
266.1000;0.2662;4.5198;
266.4000;0.2621;4.5097;
266.7000;0.2637;4.5122;
267.0000;0.2621;4.5122;
267.3000;0.2759;4.5474;
267.6000;0.2629;4.5022;
267.9000;0.2646;4.5072;
268.2000;0.2694;4.5172;
268.5000;0.2637;4.4996;
268.8000;0.2646;4.5097;
269.1000;0.2646;4.5122;
269.4000;0.2654;4.5072;
269.7000;0.2613;4.4946;
270.0000;0.2613;4.4996;
270.3000;0.2702;4.5248;
270.6000;0.2637;4.5022;
270.9000;0.2621;4.4996;
271.2000;0.2637;4.5022;
271.5000;0.2654;4.5047;
271.8000;0.2621;4.5047;
272.1000;0.2605;4.4996;
272.4000;0.2613;4.5022;
272.7000;0.2637;4.4996;
273.0000;0.2629;4.4921;
273.3000;0.2605;4.4996;
273.6000;0.2637;4.5072;
273.9000;0.2646;4.5172;
274.2000;0.2629;4.5147;
274.5000;0.2637;4.5147;
274.8000;0.2613;4.4996;
275.1000;0.2605;4.5022;
275.4000;0.2751;4.5449;
275.7000;0.2629;4.5097;
276.0000;0.2654;4.5147;
276.3000;0.2637;4.5147;
276.6000;0.2670;4.5122;
276.9000;0.2743;4.5273;
277.2000;0.2719;4.5248;
277.5000;0.2597;4.4845;
277.8000;0.2646;4.4971;
278.1000;0.2629;4.4971;
278.4000;0.2654;4.5072;
278.7000;0.2646;4.4996;
279.0000;0.2621;4.4996;
279.3000;0.2629;4.5022;
279.6000;0.2621;4.5022;
279.9000;0.2637;4.5072;
280.2000;0.2662;4.5122;
280.5000;0.2646;4.4971;
280.8000;0.2646;4.4996;
281.1000;0.2646;4.5022;
281.4000;0.2629;4.4996;
281.7000;0.2646;4.5022;
282.0000;0.2621;4.4896;
282.3000;0.2637;4.4971;
282.6000;0.2589;4.4871;
282.9000;0.2629;4.5022;
283.2000;0.2580;4.4896;
283.5000;0.2540;4.4795;
283.8000;0.2605;4.5022;
284.1000;0.2564;4.4896;
284.4000;0.2654;4.5198;
284.7000;0.2564;4.5022;
285.0000;0.2621;4.5172;
285.3000;0.2637;4.5172;
285.6000;0.2702;4.5273;
285.9000;0.2654;4.5122;
286.2000;0.2719;4.5273;
286.5000;0.2637;4.5022;
286.8000;0.2605;4.5022;
287.1000;0.2662;4.5072;
287.4000;0.2597;4.4896;
287.7000;0.2637;4.4996;
288.0000;0.2629;4.5072;
288.3000;0.2702;4.5248;
288.6000;0.2605;4.4921;
288.9000;0.2621;4.4996;
289.2000;0.2580;4.4921;
289.5000;0.2654;4.5122;
289.8000;0.2629;4.5122;
290.1000;0.2646;4.5198;
290.4000;0.2613;4.5248;
290.7000;0.2637;4.5298;
291.0000;0.2629;4.5223;
291.3000;0.2548;4.4946;
291.6000;0.2613;4.5122;
291.9000;0.2613;4.4946;
292.2000;0.2637;4.5022;
292.5000;0.2646;4.5097;
292.8000;0.2613;4.5147;
293.1000;0.2637;4.5248;
293.4000;0.2613;4.5097;
293.7000;0.2654;4.5172;
294.0000;0.2646;4.5248;
294.3000;0.2711;4.5374;
294.6000;0.2662;4.5223;
294.9000;0.2646;4.5248;
295.2000;0.2621;4.5323;
295.5000;0.2662;4.5298;
295.8000;0.2654;4.5349;
296.1000;0.2637;4.5298;
296.4000;0.2662;4.5349;
296.7000;0.2629;4.5273;
297.0000;0.2629;4.5248;
297.3000;0.2564;4.5172;
297.6000;0.2629;4.5323;
297.9000;0.2621;4.5223;
298.2000;0.2637;4.5298;
298.5000;0.2654;4.5374;
298.8000;0.2646;4.5248;
299.1000;0.2580;4.5072;
299.4000;0.2613;4.5198;
299.7000;0.2637;4.5248;
300.0000;0.2621;4.5097;
300.3000;0.2646;4.5122;
300.6000;0.2646;4.5147;
300.9000;0.2646;4.5248;
301.2000;0.2678;4.5323;
301.5000;0.2629;4.5248;
301.8000;0.2637;4.5198;
302.1000;0.2637;4.5198;
302.4000;0.2670;4.5273;
302.7000;0.2629;4.5122;
303.0000;0.2597;4.5022;
303.3000;0.2629;4.5097;
303.6000;0.2646;4.5097;
303.9000;0.2654;4.5172;
304.2000;0.2548;4.4921;
304.5000;0.2637;4.5147;
304.8000;0.2637;4.5097;
305.1000;0.2613;4.5022;
305.4000;0.2629;4.5022;
305.7000;0.2629;4.4921;
306.0000;0.2694;4.5072;
306.3000;0.2637;4.4996;
306.6000;0.2654;4.5072;
306.9000;0.2637;4.5047;
307.2000;0.2629;4.4971;
307.5000;0.2629;4.4996;
307.8000;0.2637;4.4921;
308.1000;0.2605;4.4845;
308.4000;0.2621;4.4946;
308.7000;0.2637;4.4921;
309.0000;0.2719;4.5122;
309.3000;0.2646;4.4896;
309.6000;0.2629;4.4871;
309.9000;0.2678;4.4996;
310.2000;0.2629;4.4871;
310.5000;0.2654;4.4921;
310.8000;0.2637;4.4896;
311.1000;0.2662;4.4946;
311.4000;0.2646;4.4871;
311.7000;0.2678;4.4971;
312.0000;0.2637;4.4971;
312.3000;0.2654;4.4971;
312.6000;0.2662;4.4996;
312.9000;0.2621;4.4871;
313.2000;0.2613;4.4795;
313.5000;0.2646;4.4971;
313.8000;0.2654;4.4996;
314.1000;0.2621;4.4820;
314.4000;0.2646;4.4871;
314.7000;0.2597;4.4770;
315.0000;0.2654;4.4946;
315.3000;0.2637;4.4971;
315.6000;0.2670;4.5147;
315.9000;0.2637;4.5022;
316.2000;0.2654;4.5047;
316.5000;0.2646;4.5147;
316.8000;0.2629;4.5097;
317.1000;0.2662;4.5198;
317.4000;0.2646;4.5122;
317.7000;0.2637;4.5147;
318.0000;0.2613;4.5047;
318.3000;0.2629;4.5022;
318.6000;0.2646;4.5022;
318.9000;0.2629;4.4871;
319.2000;0.2621;4.4820;
319.5000;0.2654;4.4896;
319.8000;0.2629;4.4896;
320.1000;0.2654;4.4971;
320.4000;0.2621;4.4770;
320.7000;0.2646;4.4845;
321.0000;0.2654;4.4820;
321.3000;0.2711;4.4971;
321.6000;0.2646;4.4795;
321.9000;0.2629;4.4669;
322.2000;0.2621;4.4695;
322.5000;0.2597;4.4720;
322.8000;0.2629;4.4871;
323.1000;0.2646;4.4871;
323.4000;0.2621;4.4695;
323.7000;0.2637;4.4669;
324.0000;0.2637;4.4619;
324.3000;0.2597;4.4594;
324.6000;0.2621;4.4845;
324.9000;0.2621;4.4871;
325.2000;0.2597;4.4795;
325.5000;0.2646;4.4971;
325.8000;0.2637;4.5047;
326.1000;0.2654;4.5172;
326.4000;0.2629;4.5122;
326.7000;0.2646;4.5223;
327.0000;0.2629;4.5198;
327.3000;0.2621;4.5147;
327.6000;0.2646;4.5172;
327.9000;0.2597;4.5047;
328.2000;0.2629;4.5047;
328.5000;0.2654;4.5147;
328.8000;0.2629;4.5072;
329.1000;0.2662;4.5122;
329.4000;0.2637;4.5072;
329.7000;0.2637;4.5147;
330.0000;0.2637;4.5147;
330.3000;0.2637;4.5097;
330.6000;0.2646;4.5172;
330.9000;0.2702;4.5248;
331.2000;0.2589;4.4921;
331.5000;0.2646;4.5047;
331.8000;0.2629;4.4971;
332.1000;0.2629;4.5022;
332.4000;0.2646;4.5122;
332.7000;0.2654;4.5147;
333.0000;0.2654;4.5172;
333.3000;0.2646;4.5147;
333.6000;0.2613;4.5097;
333.9000;0.2654;4.5147;
334.2000;0.2637;4.5097;
334.5000;0.2646;4.5047;
334.8000;0.2621;4.5022;
335.1000;0.2564;4.4871;
335.4000;0.2637;4.5047;
335.7000;0.2637;4.5097;
336.0000;0.2646;4.5072;
336.3000;0.2629;4.5147;
336.6000;0.2605;4.5122;
336.9000;0.2589;4.5147;
337.2000;0.2621;4.5198;
337.5000;0.2654;4.5198;
337.8000;0.2637;4.5172;
338.1000;0.2629;4.5097;
338.4000;0.2637;4.5072;
338.7000;0.2621;4.5097;
339.0000;0.2613;4.5097;
339.3000;0.2646;4.5172;
339.6000;0.2613;4.5097;
339.9000;0.2605;4.5122;
340.2000;0.2670;4.5198;
340.5000;0.2654;4.5223;
340.8000;0.2654;4.5223;
341.1000;0.2637;4.5198;
341.4000;0.2637;4.5248;
341.7000;0.2629;4.5122;
342.0000;0.2646;4.5122;
342.3000;0.2629;4.5047;
342.6000;0.2621;4.4996;
342.9000;0.2629;4.4971;
343.2000;0.2621;4.4946;
343.5000;0.2621;4.4896;
343.8000;0.2621;4.4896;
344.1000;0.2629;4.4971;
344.4000;0.2629;4.4896;
344.7000;0.2605;4.4996;
345.0000;0.2629;4.5097;
345.3000;0.2532;4.4845;
345.6000;0.2637;4.5122;
345.9000;0.2637;4.5097;
346.2000;0.2629;4.4996;
346.5000;0.2654;4.5097;
346.8000;0.2621;4.4921;
347.1000;0.2621;4.4971;
347.4000;0.2637;4.5147;
347.7000;0.2605;4.5047;
348.0000;0.2637;4.5122;
348.3000;0.2637;4.5122;
348.6000;0.2621;4.5122;
348.9000;0.2646;4.5223;
349.2000;0.2629;4.5172;
349.5000;0.2597;4.5047;
349.8000;0.2646;4.5147;
350.1000;0.2597;4.5022;
350.4000;0.2719;4.5323;
350.7000;0.2621;4.5072;
351.0000;0.2637;4.5072;
351.3000;0.2646;4.5072;
351.6000;0.2613;4.5122;
351.9000;0.2621;4.5172;
352.2000;0.2646;4.5198;
352.5000;0.2572;4.5022;
352.8000;0.2621;4.5198;
353.1000;0.2621;4.5273;
353.4000;0.2556;4.5072;
353.7000;0.2629;4.5248;
354.0000;0.2637;4.5298;
354.3000;0.2646;4.5248;
354.6000;0.2646;4.5147;
354.9000;0.2613;4.5122;
355.2000;0.2621;4.5223;
355.5000;0.2646;4.5273;
355.8000;0.2621;4.5298;
356.1000;0.2654;4.5399;
356.4000;0.2751;4.5550;
356.7000;0.2629;4.5172;
357.0000;0.2637;4.5198;
357.3000;0.2605;4.5172;
357.6000;0.2621;4.5097;
357.9000;0.2621;4.4996;
358.2000;0.2597;4.4996;
358.5000;0.2629;4.5047;
358.8000;0.2629;4.5198;
359.1000;0.2637;4.5248;
359.4000;0.2621;4.5122;
359.7000;0.2637;4.5172;
360.0000;0.2646;4.5172;
360.3000;0.2621;4.5097;
360.6000;0.2629;4.5172;
360.9000;0.2629;4.5198;
361.2000;0.2613;4.5097;
361.5000;0.2702;4.5374;
361.8000;0.2621;4.5122;
362.1000;0.2694;4.5273;
362.4000;0.2605;4.4971;
362.7000;0.2613;4.4946;
363.0000;0.2613;4.5022;
363.3000;0.2629;4.4996;
363.6000;0.2621;4.5022;
363.9000;0.2564;4.4845;
364.2000;0.2637;4.4996;
364.5000;0.2580;4.4996;
364.8000;0.2662;4.5172;
365.1000;0.2711;4.5273;
365.4000;0.2629;4.5122;
365.7000;0.2637;4.5047;
366.0000;0.2637;4.5022;
366.3000;0.2646;4.5097;
366.6000;0.2662;4.5072;
366.9000;0.2637;4.5097;
367.2000;0.2735;4.5550;
367.5000;0.2719;4.5525;
367.8000;0.2646;4.5374;
368.1000;0.2629;4.5298;
368.4000;0.2589;4.5172;
368.7000;0.2621;4.5198;
369.0000;0.2589;4.5097;
369.3000;0.2637;4.5198;
369.6000;0.2637;4.5072;
369.9000;0.2711;4.5298;
370.2000;0.2605;4.5047;
370.5000;0.2637;4.5072;
370.8000;0.2629;4.4971;
371.1000;0.2613;4.4896;
371.4000;0.2637;4.4971;
371.7000;0.2621;4.4820;
372.0000;0.2597;4.4795;
372.3000;0.2629;4.4871;
372.6000;0.2621;4.4921;
372.9000;0.2621;4.4921;
373.2000;0.2621;4.4971;
373.5000;0.2670;4.5097;
373.8000;0.2629;4.4971;
374.1000;0.2589;4.4845;
374.4000;0.2605;4.4946;
374.7000;0.2613;4.4996;
375.0000;0.2662;4.5072;
375.3000;0.2629;4.5047;
375.6000;0.2637;4.5097;
375.9000;0.2654;4.5198;
376.2000;0.2621;4.5097;
376.5000;0.2613;4.5072;
376.8000;0.2646;4.5147;
377.1000;0.2662;4.5147;
377.4000;0.2686;4.5323;
377.7000;0.2637;4.5072;
378.0000;0.2621;4.5072;
378.3000;0.2637;4.5172;
378.6000;0.2621;4.5172;
378.9000;0.2613;4.5147;
379.2000;0.2613;4.5273;
379.5000;0.2686;4.5399;
379.8000;0.2637;4.5223;
380.1000;0.2670;4.5273;
380.4000;0.2678;4.5298;
380.7000;0.2621;4.5298;
381.0000;0.2751;4.5625;
381.3000;0.2621;4.5223;
381.6000;0.2637;4.5198;
381.9000;0.2629;4.5172;
382.2000;0.2629;4.5223;
382.5000;0.2637;4.5323;
382.8000;0.2629;4.5248;
383.1000;0.2637;4.5248;
383.4000;0.2605;4.5198;
383.7000;0.2629;4.5298;
384.0000;0.2629;4.5349;
384.3000;0.2629;4.5424;
384.6000;0.2621;4.5399;
384.9000;0.2629;4.5323;
385.2000;0.2580;4.5273;
385.5000;0.2654;4.5424;
385.8000;0.2629;4.5323;
386.1000;0.2637;4.5248;
386.4000;0.2629;4.5248;
386.7000;0.2637;4.5273;
387.0000;0.2662;4.5349;
387.3000;0.2637;4.5172;
387.6000;0.2662;4.5198;
387.9000;0.2597;4.4971;
388.2000;0.2621;4.5072;
388.5000;0.2629;4.5122;
388.8000;0.2621;4.5122;
389.1000;0.2637;4.5122;
389.4000;0.2646;4.5172;
389.7000;0.2621;4.5198;
390.0000;0.2605;4.5097;
390.3000;0.2629;4.5172;
390.6000;0.2621;4.5122;
390.9000;0.2646;4.5198;
391.2000;0.2629;4.5147;
391.5000;0.2572;4.4946;
391.8000;0.2597;4.5147;
392.1000;0.2629;4.5248;
392.4000;0.2662;4.5298;
392.7000;0.2629;4.5223;
393.0000;0.2654;4.5223;
393.3000;0.2532;4.4946;
393.6000;0.2597;4.5172;
393.9000;0.2621;4.5198;
394.2000;0.2629;4.5198;
394.5000;0.2629;4.5097;
394.8000;0.2637;4.5097;
395.1000;0.2629;4.5172;
395.4000;0.2629;4.5248;
395.7000;0.2637;4.5273;
396.0000;0.2629;4.5248;
396.3000;0.2637;4.5172;
396.6000;0.2613;4.5198;
396.9000;0.2629;4.5198;
397.2000;0.2637;4.5198;
397.5000;0.2662;4.5223;
397.8000;0.2548;4.4946;
398.1000;0.2678;4.5273;
398.4000;0.2629;4.5022;
398.7000;0.2621;4.5022;
399.0000;0.2605;4.4946;
399.3000;0.2605;4.4971;
399.6000;0.2629;4.5047;
399.9000;0.2629;4.4971;
400.2000;0.2629;4.4946;
400.5000;0.2629;4.4971;
400.8000;0.2637;4.5022;
401.1000;0.2629;4.4921;
401.4000;0.2678;4.5097;
401.7000;0.2629;4.4996;
402.0000;0.2613;4.4845;
402.3000;0.2662;4.4946;
402.6000;0.2646;4.4921;
402.9000;0.2621;4.4921;
403.2000;0.2572;4.4795;
403.5000;0.2621;4.4820;
403.8000;0.2629;4.4845;
404.1000;0.2629;4.4871;
404.4000;0.2540;4.4569;
404.7000;0.2637;4.4946;
405.0000;0.2654;4.4946;
405.3000;0.2637;4.4946;
405.6000;0.2694;4.5022;
405.9000;0.2646;4.4871;
406.2000;0.2654;4.4795;
406.5000;0.2580;4.4569;
406.8000;0.2621;4.4669;
407.1000;0.2629;4.4695;
407.4000;0.2597;4.4644;
407.7000;0.2629;4.4695;
408.0000;0.2613;4.4720;
408.3000;0.2613;4.4695;
408.6000;0.2711;4.4946;
408.9000;0.2654;4.4770;
409.2000;0.2621;4.4644;
409.5000;0.2621;4.4669;
409.8000;0.2629;4.4745;
410.1000;0.2646;4.4695;
410.4000;0.2613;4.4594;
410.7000;0.2637;4.4644;
411.0000;0.2654;4.4820;
411.3000;0.2621;4.4770;
411.6000;0.2605;4.4695;
411.9000;0.2597;4.4720;
412.2000;0.2621;4.4745;
412.5000;0.2654;4.4896;
412.8000;0.2621;4.4720;
413.1000;0.2621;4.4745;
413.4000;0.2621;4.4669;
413.7000;0.2637;4.4795;
414.0000;0.2646;4.4745;
414.3000;0.2621;4.4619;
414.6000;0.2637;4.4669;
414.9000;0.2613;4.4594;
415.2000;0.2548;4.4393;
415.5000;0.2556;4.4443;
415.8000;0.2629;4.4695;
416.1000;0.2556;4.4594;
416.4000;0.2646;4.4845;
416.7000;0.2621;4.4795;
417.0000;0.2629;4.4896;
417.3000;0.2589;4.4820;
417.6000;0.2670;4.5047;
417.9000;0.2605;4.4871;
418.2000;0.2605;4.4795;
418.5000;0.2597;4.4820;
418.8000;0.2621;4.4745;
419.1000;0.2621;4.4795;
419.4000;0.2629;4.4795;
419.7000;0.2621;4.4720;
420.0000;0.2629;4.4720;
420.3000;0.2637;4.4820;
420.6000;0.2629;4.4770;
420.9000;0.2613;4.4745;
421.2000;0.2637;4.4720;
421.5000;0.2759;4.5122;
421.8000;0.2580;4.4669;
422.1000;0.2621;4.4896;
422.4000;0.2605;4.4795;
422.7000;0.2564;4.4569;
423.0000;0.2605;4.4820;
423.3000;0.2621;4.4770;
423.6000;0.2597;4.4695;
423.9000;0.2646;4.4795;
424.2000;0.2637;4.4795;
424.5000;0.2637;4.4745;
424.8000;0.2621;4.4745;
425.1000;0.2637;4.4770;
425.4000;0.2670;4.4820;
425.7000;0.2621;4.4644;
426.0000;0.2613;4.4720;
426.3000;0.2629;4.4720;
426.6000;0.2637;4.4745;
426.9000;0.2646;4.4770;
427.2000;0.2597;4.4720;
427.5000;0.2621;4.4770;
427.8000;0.2637;4.4820;
428.1000;0.2637;4.4845;
428.4000;0.2621;4.4795;
428.7000;0.2597;4.4695;
429.0000;0.2646;4.4795;
429.3000;0.2621;4.4695;
429.6000;0.2637;4.4720;
429.9000;0.2605;4.4544;
430.2000;0.2621;4.4695;
430.5000;0.2654;4.4795;
430.8000;0.2646;4.4745;
431.1000;0.2654;4.4845;
431.4000;0.2654;4.4820;
431.7000;0.2629;4.4745;
432.0000;0.2629;4.4669;
432.3000;0.2629;4.4770;
432.6000;0.2613;4.4795;
432.9000;0.2646;4.4946;
433.2000;0.2637;4.4971;
433.5000;0.2637;4.4946;
433.8000;0.2613;4.4871;
434.1000;0.2646;4.4971;
434.4000;0.2621;4.4871;
434.7000;0.2629;4.4845;
435.0000;0.2637;4.4770;
435.3000;0.2637;4.4770;
435.6000;0.2613;4.4644;
435.9000;0.2637;4.4644;
436.2000;0.2727;4.4921;
436.5000;0.2646;4.4871;
436.8000;0.2654;4.4996;
437.1000;0.2629;4.4946;
437.4000;0.2662;4.4921;
437.7000;0.2637;4.4720;
438.0000;0.2694;4.4820;
438.3000;0.2629;4.4745;
438.6000;0.2646;4.4720;
438.9000;0.2589;4.4619;
439.2000;0.2727;4.5047;
439.5000;0.2654;4.4820;
439.8000;0.2629;4.4720;
440.1000;0.2646;4.4871;
440.4000;0.2629;4.4896;
440.7000;0.2621;4.4795;
441.0000;0.2613;4.4795;
441.3000;0.2556;4.4644;
441.6000;0.2686;4.5072;
441.9000;0.2646;4.4996;
442.2000;0.2613;4.4921;
442.5000;0.2621;4.4921;
442.8000;0.2572;4.4770;
443.1000;0.2629;4.4871;
443.4000;0.2654;4.4921;
443.7000;0.2629;4.4896;
444.0000;0.2629;4.4820;
444.3000;0.2629;4.4820;
444.6000;0.2670;4.4996;
444.9000;0.2564;4.4695;
445.2000;0.2621;4.4871;
445.5000;0.2711;4.5223;
445.8000;0.2702;4.5172;
446.1000;0.2646;4.5022;
446.4000;0.2523;4.4669;
446.7000;0.2613;4.4896;
447.0000;0.2621;4.4896;
447.3000;0.2621;4.4896;
447.6000;0.2564;4.4745;
447.9000;0.2605;4.4921;
448.2000;0.2646;4.4996;
448.5000;0.2589;4.4745;
448.8000;0.2621;4.4871;
449.1000;0.2654;4.4871;
449.4000;0.2637;4.4820;
449.7000;0.2646;4.4896;
450.0000;0.2629;4.4871;
450.3000;0.2613;4.4921;
450.6000;0.2654;4.5022;
450.9000;0.2646;4.5072;
451.2000;0.2654;4.5047;
451.5000;0.2613;4.4871;
451.8000;0.2637;4.4921;
452.1000;0.2646;4.4946;
452.4000;0.2646;4.4820;
452.7000;0.2613;4.4770;
453.0000;0.2629;4.4845;
453.3000;0.2613;4.4896;
453.6000;0.2654;4.5047;
453.9000;0.2629;4.4871;
454.2000;0.2637;4.4770;
454.5000;0.2621;4.4644;
454.8000;0.2597;4.4594;
455.1000;0.2646;4.4720;
455.4000;0.2621;4.4569;
455.7000;0.2605;4.4669;
456.0000;0.2646;4.4745;
456.3000;0.2597;4.4644;
456.6000;0.2605;4.4695;
456.9000;0.2629;4.4820;
457.2000;0.2605;4.4795;
457.5000;0.2646;4.4896;
457.8000;0.2629;4.4820;
458.1000;0.2613;4.4695;
458.4000;0.2564;4.4544;
458.7000;0.2637;4.4795;
459.0000;0.2646;4.4795;
459.3000;0.2711;4.4996;
459.6000;0.2637;4.4745;
459.9000;0.2629;4.4745;
460.2000;0.2654;4.4896;
460.5000;0.2621;4.4921;
460.8000;0.2621;4.4871;
461.1000;0.2629;4.4896;
461.4000;0.2515;4.4594;
461.7000;0.2605;4.4845;
462.0000;0.2629;4.4896;
462.3000;0.2662;4.5022;
462.6000;0.2654;4.4946;
462.9000;0.2621;4.4871;
463.2000;0.2621;4.4921;
463.5000;0.2637;4.4996;
463.8000;0.2654;4.5097;
464.1000;0.2605;4.5022;
464.4000;0.2694;4.5273;
464.7000;0.2621;4.5047;
465.0000;0.2711;4.5273;
465.3000;0.2654;4.5172;
465.6000;0.2613;4.5072;
465.9000;0.2654;4.5072;
466.2000;0.2678;4.5072;
466.5000;0.2654;4.4996;
466.8000;0.2589;4.4770;
467.1000;0.2621;4.4946;
467.4000;0.2646;4.5047;
467.7000;0.2613;4.4921;
468.0000;0.2629;4.4971;
468.3000;0.2605;4.4921;
468.6000;0.2711;4.5147;
468.9000;0.2629;4.4971;
469.2000;0.2654;4.4971;
469.5000;0.2597;4.4820;
469.8000;0.2629;4.5022;
470.1000;0.2613;4.4971;
470.4000;0.2580;4.4795;
470.7000;0.2678;4.5022;
471.0000;0.2621;4.4871;
471.3000;0.2597;4.4795;
471.6000;0.2743;4.5298;
471.9000;0.2646;4.5022;
472.2000;0.2646;4.5072;
472.5000;0.2637;4.4946;
472.8000;0.2654;4.4946;
473.1000;0.2613;4.4871;
473.4000;0.2629;4.4946;
473.7000;0.2654;4.4946;
474.0000;0.2621;4.4921;
474.3000;0.2646;4.4971;
474.6000;0.2613;4.4845;
474.9000;0.2621;4.4971;
475.2000;0.2597;4.4921;
475.5000;0.2629;4.4921;
475.8000;0.2621;4.4921;
476.1000;0.2646;4.4971;
476.4000;0.2629;4.5022;
476.7000;0.2532;4.4795;
477.0000;0.2621;4.5047;
477.3000;0.2613;4.5047;
477.6000;0.2589;4.5022;
477.9000;0.2637;4.5097;
478.2000;0.2629;4.5022;
478.5000;0.2621;4.5097;
478.8000;0.2621;4.5022;
479.1000;0.2605;4.4845;
479.4000;0.2629;4.4896;
479.7000;0.2589;4.4820;
480.0000;0.2646;4.5072;
480.3000;0.2540;4.4871;
480.6000;0.2629;4.5072;
480.9000;0.2637;4.5072;
481.2000;0.2621;4.5022;
481.5000;0.2654;4.5122;
481.8000;0.2629;4.4971;
482.1000;0.2605;4.4896;
482.4000;0.2629;4.5047;
482.7000;0.2597;4.4996;
483.0000;0.2629;4.5072;
483.3000;0.2743;4.5424;
483.6000;0.2646;4.5022;
483.9000;0.2629;4.4971;
484.2000;0.2629;4.5072;
484.5000;0.2637;4.5022;
484.8000;0.2621;4.4845;
485.1000;0.2637;4.4845;
485.4000;0.2605;4.4820;
485.7000;0.2621;4.4921;
486.0000;0.2597;4.4845;
486.3000;0.2589;4.4820;
486.6000;0.2605;4.4996;
486.9000;0.2646;4.5022;
487.2000;0.2629;4.4971;
487.5000;0.2686;4.5097;
487.8000;0.2621;4.4896;
488.1000;0.2597;4.4845;
488.4000;0.2597;4.4871;
488.7000;0.2621;4.4946;
489.0000;0.2629;4.4971;
489.3000;0.2613;4.4946;
489.6000;0.2580;4.4845;
489.9000;0.2621;4.4921;
490.2000;0.2418;4.4342;
490.5000;0.2621;4.4971;
490.8000;0.2540;4.4770;
491.1000;0.2507;4.4644;
491.4000;0.2621;4.4946;
491.7000;0.2670;4.5198;
492.0000;0.2629;4.5072;
492.3000;0.2605;4.4971;
492.6000;0.2605;4.4971;
492.9000;0.2613;4.4996;
493.2000;0.2727;4.5349;
493.5000;0.2605;4.4996;
493.8000;0.2646;4.5072;
494.1000;0.2678;4.5147;
494.4000;0.2613;4.4946;
494.7000;0.2621;4.4896;
495.0000;0.2637;4.4896;
495.3000;0.2711;4.5147;
495.6000;0.2637;4.5022;
495.9000;0.2629;4.5047;
496.2000;0.2637;4.5047;
496.5000;0.2629;4.4921;
496.8000;0.2621;4.4946;
497.1000;0.2621;4.4971;
497.4000;0.2637;4.4946;
497.7000;0.2621;4.4896;
498.0000;0.2662;4.5072;
498.3000;0.2702;4.5198;
498.6000;0.2702;4.5072;
498.9000;0.2621;4.4795;
499.2000;0.2597;4.4695;
499.5000;0.2621;4.4720;
499.8000;0.2613;4.4644;
500.1000;0.2637;4.4770;
500.4000;0.2629;4.4845;
500.7000;0.2540;4.4720;
501.0000;0.2654;4.5097;
501.3000;0.2507;4.4770;
501.6000;0.2507;4.4871;
501.9000;0.2646;4.5298;
502.2000;0.2580;4.5022;
502.5000;0.2654;4.5122;
502.8000;0.2621;4.5047;
503.1000;0.2597;4.5022;
503.4000;0.2589;4.5022;
503.7000;0.2621;4.5147;
504.0000;0.2646;4.5147;
504.3000;0.2621;4.5223;
504.6000;0.2621;4.5223;
504.9000;0.2605;4.5122;
505.2000;0.2637;4.5122;
505.5000;0.2646;4.5172;
505.8000;0.2597;4.5022;
506.1000;0.2662;4.5147;
506.4000;0.2572;4.4871;
506.7000;0.2646;4.5047;
507.0000;0.2572;4.4795;
507.3000;0.2597;4.4896;
507.6000;0.2605;4.4946;
507.9000;0.2621;4.4896;
508.2000;0.2678;4.5072;
508.5000;0.2662;4.4996;
508.8000;0.2597;4.4871;
509.1000;0.2637;4.5047;
509.4000;0.2580;4.4971;
509.7000;0.2621;4.5223;
510.0000;0.2646;4.5323;
510.3000;0.2646;4.5223;
510.6000;0.2646;4.5097;
510.9000;0.2621;4.5122;
511.2000;0.2621;4.5122;
511.5000;0.2646;4.5172;
511.8000;0.2605;4.5047;
512.1000;0.2629;4.5198;
512.4000;0.2597;4.5072;
512.7000;0.2621;4.5198;
513.0000;0.2548;4.4921;
513.3000;0.2646;4.5248;
513.6000;0.2597;4.5273;
513.9000;0.2597;4.5298;
514.2000;0.2597;4.5198;
514.5000;0.2629;4.5223;
514.8000;0.2637;4.5122;
515.1000;0.2654;4.5147;
515.4000;0.2629;4.5248;
515.7000;0.2629;4.5172;
516.0000;0.2629;4.5122;
516.3000;0.2556;4.4996;
516.6000;0.2629;4.5147;
516.9000;0.2605;4.5047;
517.2000;0.2556;4.4921;
517.5000;0.2605;4.5072;
517.8000;0.2515;4.4820;
518.1000;0.2621;4.5072;
518.4000;0.2629;4.5122;
518.7000;0.2605;4.5022;
519.0000;0.2637;4.5122;
519.3000;0.2637;4.5198;
519.6000;0.2613;4.5072;
519.9000;0.2629;4.5198;
520.2000;0.2613;4.5147;
520.5000;0.2605;4.5172;
520.8000;0.2621;4.5198;
521.1000;0.2540;4.5022;
521.4000;0.2564;4.5022;
521.7000;0.2597;4.5147;
522.0000;0.2637;4.5172;
522.3000;0.2556;4.4871;
522.6000;0.2621;4.5097;
522.9000;0.2613;4.5172;
523.2000;0.2515;4.4845;
523.5000;0.2613;4.5072;
523.8000;0.2597;4.4996;
524.1000;0.2654;4.5122;
524.4000;0.2621;4.5022;
524.7000;0.2629;4.5022;
525.0000;0.2613;4.5072;
525.3000;0.2613;4.5147;
525.6000;0.2580;4.5097;
525.9000;0.2629;4.5122;
526.2000;0.2646;4.5097;
526.5000;0.2629;4.5097;
526.8000;0.2589;4.5047;
527.1000;0.2637;4.5147;
527.4000;0.2613;4.5072;
527.7000;0.2621;4.5022;
528.0000;0.2629;4.4971;
528.3000;0.2646;4.5047;
528.6000;0.2654;4.4996;
528.9000;0.2637;4.4871;
529.2000;0.2605;4.4795;
529.5000;0.2548;4.4795;
529.8000;0.2662;4.5072;
530.1000;0.2621;4.4971;
530.4000;0.2629;4.5072;
530.7000;0.2629;4.5022;
531.0000;0.2702;4.5147;
531.3000;0.2629;4.4996;
531.6000;0.2613;4.5022;
531.9000;0.2670;4.5198;
532.2000;0.2613;4.5022;
532.5000;0.2605;4.5122;
532.8000;0.2597;4.5147;
533.1000;0.2629;4.5198;
533.4000;0.2621;4.5248;
533.7000;0.2621;4.5248;
534.0000;0.2613;4.5248;
534.3000;0.2589;4.5198;
534.6000;0.2654;4.5349;
534.9000;0.2613;4.5298;
535.2000;0.2629;4.5374;
535.5000;0.2629;4.5349;
535.8000;0.2621;4.5198;
536.1000;0.2678;4.5198;
536.4000;0.2629;4.4996;
536.7000;0.2613;4.4871;
537.0000;0.2629;4.4871;
537.3000;0.2613;4.4845;
537.6000;0.2597;4.4820;
537.9000;0.2637;4.4921;
538.2000;0.2605;4.4745;
538.5000;0.2735;4.5172;
538.8000;0.2629;4.4896;
539.1000;0.2646;4.4971;
539.4000;0.2491;4.4569;
539.7000;0.2475;4.4393;
540.0000;0.2621;4.4946;
540.3000;0.2637;4.4996;
540.6000;0.2548;4.4770;
540.9000;0.2605;4.5022;
541.2000;0.2637;4.4996;
541.5000;0.2670;4.5022;
541.8000;0.2654;4.5022;
542.1000;0.2597;4.4871;
542.4000;0.2629;4.4921;
542.7000;0.2637;4.5022;
543.0000;0.2613;4.5047;
543.3000;0.2654;4.5122;
543.6000;0.2613;4.5097;
543.9000;0.2621;4.5198;
544.2000;0.2637;4.5122;
544.5000;0.2686;4.5323;
544.8000;0.2654;4.5147;
545.1000;0.2646;4.5172;
545.4000;0.2629;4.5097;
545.7000;0.2694;4.5248;
546.0000;0.2572;4.4820;
546.3000;0.2621;4.4996;
546.6000;0.2646;4.4971;
546.9000;0.2605;4.4971;
547.2000;0.2621;4.4921;
547.5000;0.2621;4.4845;
547.8000;0.2637;4.4921;
548.1000;0.2662;4.4971;
548.4000;0.2572;4.4745;
548.7000;0.2629;4.4971;
549.0000;0.2646;4.5022;
549.3000;0.2629;4.4921;
549.6000;0.2580;4.4795;
549.9000;0.2629;4.4770;
550.2000;0.2637;4.4770;
550.5000;0.2589;4.4669;
550.8000;0.2621;4.4770;
551.1000;0.2678;4.4820;
551.4000;0.2646;4.4845;
551.7000;0.2621;4.4845;
552.0000;0.2637;4.4921;
552.3000;0.2621;4.4921;
552.6000;0.2613;4.4820;
552.9000;0.2613;4.4871;
553.2000;0.2621;4.4820;
553.5000;0.2621;4.4820;
553.8000;0.2629;4.4921;
554.1000;0.2646;4.4971;
554.4000;0.2621;4.4871;
554.7000;0.2605;4.4871;
555.0000;0.2523;4.4594;
555.3000;0.2621;4.4845;
555.6000;0.2597;4.4720;
555.9000;0.2678;4.4896;
556.2000;0.2621;4.4695;
556.5000;0.2605;4.4619;
556.8000;0.2597;4.4594;
557.1000;0.2613;4.4644;
557.4000;0.2629;4.4795;
557.7000;0.2613;4.4820;
558.0000;0.2605;4.4820;
558.3000;0.2646;4.4795;
558.6000;0.2662;4.4845;
558.9000;0.2621;4.4770;
559.2000;0.2597;4.4695;
559.5000;0.2613;4.4745;
559.8000;0.2719;4.5172;
560.1000;0.2646;4.4996;
560.4000;0.2637;4.4996;
560.7000;0.2613;4.4745;
561.0000;0.2613;4.4745;
561.3000;0.2646;4.4845;
561.6000;0.2678;4.5022;
561.9000;0.2613;4.4745;
562.2000;0.2621;4.4770;
562.5000;0.2507;4.4569;
562.8000;0.2637;4.4971;
563.1000;0.2621;4.4971;
563.4000;0.2466;4.4544;
563.7000;0.2621;4.4921;
564.0000;0.2629;4.4921;
564.3000;0.2483;4.4519;
564.6000;0.2702;4.5097;
564.9000;0.2621;4.4845;
565.2000;0.2629;4.4820;
565.5000;0.2637;4.4845;
565.8000;0.2646;4.4845;
566.1000;0.2637;4.4795;
566.4000;0.2621;4.4745;
566.7000;0.2605;4.4695;
567.0000;0.2597;4.4720;
567.3000;0.2532;4.4468;
567.6000;0.2629;4.4745;
567.9000;0.2589;4.4644;
568.2000;0.2580;4.4644;
568.5000;0.2613;4.4745;
568.8000;0.2629;4.4795;
569.1000;0.2637;4.4845;
569.4000;0.2580;4.4644;
569.7000;0.2621;4.4896;
570.0000;0.2613;4.4871;
570.3000;0.2621;4.4921;
570.6000;0.2613;4.4946;
570.9000;0.2629;4.4921;
571.2000;0.2637;4.4871;
571.5000;0.2629;4.4795;
571.8000;0.2646;4.4845;
572.1000;0.2629;4.4795;
572.4000;0.2719;4.5047;
572.7000;0.2637;4.4770;
573.0000;0.2621;4.4745;
573.3000;0.2613;4.4594;
573.6000;0.2597;4.4493;
573.9000;0.2597;4.4519;
574.2000;0.2678;4.4820;
574.5000;0.2613;4.4569;
574.8000;0.2613;4.4519;
575.1000;0.2580;4.4443;
575.4000;0.2637;4.4569;
575.7000;0.2637;4.4569;
576.0000;0.2646;4.4569;
576.3000;0.2629;4.4619;
576.6000;0.2662;4.4770;
576.9000;0.2589;4.4669;
577.2000;0.2654;4.4845;
577.5000;0.2532;4.4544;
577.8000;0.2637;4.4921;
578.1000;0.2654;4.4971;
578.4000;0.2719;4.5172;
578.7000;0.2613;4.4921;
579.0000;0.2646;4.4996;
579.3000;0.2646;4.4996;
579.6000;0.2637;4.4946;
579.9000;0.2605;4.4896;
580.2000;0.2605;4.4896;
580.5000;0.2646;4.5047;
580.8000;0.2621;4.5047;
581.1000;0.2629;4.4971;
581.4000;0.2637;4.5047;
581.7000;0.2629;4.4971;
582.0000;0.2694;4.5122;
582.3000;0.2629;4.4971;
582.6000;0.2646;4.4971;
582.9000;0.2654;4.5047;
583.2000;0.2629;4.5022;
583.5000;0.2580;4.4946;
583.8000;0.2621;4.5047;
584.1000;0.2613;4.4971;
584.4000;0.2621;4.4971;
584.7000;0.2662;4.4996;
585.0000;0.2597;4.4745;
585.3000;0.2637;4.4845;
585.6000;0.2637;4.4795;
585.9000;0.2621;4.4795;
586.2000;0.2621;4.4770;
586.5000;0.2540;4.4569;
586.8000;0.2629;4.4745;
587.1000;0.2637;4.4695;
587.4000;0.2621;4.4619;
587.7000;0.2629;4.4594;
588.0000;0.2621;4.4569;
588.3000;0.2646;4.4720;
588.6000;0.2637;4.4720;
588.9000;0.2637;4.4695;
589.2000;0.2654;4.4845;
589.5000;0.2646;4.4820;
589.8000;0.2605;4.4720;
590.1000;0.2711;4.5122;
590.4000;0.2646;4.4871;
590.7000;0.2621;4.4820;
591.0000;0.2629;4.4845;
591.3000;0.2621;4.4845;
591.6000;0.2621;4.4795;
591.9000;0.2637;4.4820;
592.2000;0.2735;4.5147;
592.5000;0.2556;4.4720;
592.8000;0.2613;4.4896;
593.1000;0.2621;4.4946;
593.4000;0.2540;4.4720;
593.7000;0.2629;4.4971;
594.0000;0.2629;4.4896;
594.3000;0.2711;4.5022;
594.6000;0.2629;4.4946;
594.9000;0.2637;4.4946;
595.2000;0.2621;4.4971;
595.5000;0.2597;4.4871;
595.8000;0.2654;4.4996;
596.1000;0.2637;4.4971;
596.4000;0.2629;4.4921;
596.7000;0.2694;4.5072;
597.0000;0.2646;4.5047;
597.3000;0.2605;4.4921;
597.6000;0.2637;4.4971;
597.9000;0.2629;4.4871;
598.2000;0.2621;4.4896;
598.5000;0.2662;4.4996;
598.8000;0.2589;4.4745;
599.1000;0.2532;4.4519;
599.4000;0.2646;4.4745;
599.7000;0.2637;4.4720;
600.0000;0.2629;4.4720;
600.3000;0.2637;4.4795;
600.6000;0.2613;4.4644;
600.9000;0.2621;4.4443;
601.2000;0.2605;4.4217;
601.5000;0.2613;4.4015;
601.8000;0.2564;4.3764;
602.1000;0.2572;4.3512;
602.4000;0.2556;4.3236;
602.7000;0.2532;4.3009;
603.0000;0.2548;4.2884;
603.3000;0.2523;4.2582;
603.6000;0.2540;4.2406;
603.9000;0.2499;4.2079;
604.2000;0.2523;4.2003;
604.5000;0.2507;4.1852;
604.8000;0.2483;4.1702;
605.1000;0.2491;4.1651;
605.4000;0.2507;4.1651;
605.7000;0.2491;4.1626;
606.0000;0.2556;4.1727;
606.3000;0.2499;4.1525;
606.6000;0.2434;4.1375;
606.9000;0.2475;4.1425;
607.2000;0.2458;4.1375;
607.5000;0.2458;4.1349;
607.8000;0.2458;4.1274;
608.1000;0.2458;4.1249;
608.4000;0.2442;4.1173;
608.7000;0.2466;4.1123;
609.0000;0.2450;4.1048;
609.3000;0.2458;4.1022;
609.6000;0.2483;4.1022;
609.9000;0.2442;4.0972;
610.2000;0.2475;4.1048;
610.5000;0.2475;4.1022;
610.8000;0.2377;4.0771;
611.1000;0.2409;4.0897;
611.4000;0.2434;4.0947;
611.7000;0.2450;4.0997;
612.0000;0.2483;4.0922;
612.3000;0.2442;4.0796;
612.6000;0.2442;4.0746;
612.9000;0.2466;4.0670;
613.2000;0.2483;4.0796;
613.5000;0.2466;4.0670;
613.8000;0.2466;4.0595;
614.1000;0.2434;4.0469;
614.4000;0.2336;4.0117;
614.7000;0.2426;4.0444;
615.0000;0.2434;4.0494;
615.3000;0.2434;4.0620;
615.6000;0.2523;4.0897;
615.9000;0.2434;4.0670;
616.2000;0.2450;4.0695;
616.5000;0.2540;4.0997;
616.8000;0.2409;4.0545;
617.1000;0.2466;4.0645;
617.4000;0.2409;4.0519;
617.7000;0.2295;4.0293;
618.0000;0.2458;4.0771;
618.3000;0.2401;4.0545;
618.6000;0.2434;4.0545;
618.9000;0.2466;4.0519;
619.2000;0.2442;4.0444;
619.5000;0.2434;4.0469;
619.8000;0.2450;4.0519;
620.1000;0.2442;4.0494;
620.4000;0.2450;4.0595;
620.7000;0.2401;4.0469;
621.0000;0.2466;4.0645;
621.3000;0.2458;4.0721;
621.6000;0.2426;4.0670;
621.9000;0.2450;4.0846;
622.2000;0.2548;4.1073;
622.5000;0.2434;4.0695;
622.8000;0.2442;4.0645;
623.1000;0.2442;4.0645;
623.4000;0.2442;4.0595;
623.7000;0.2434;4.0545;
624.0000;0.2418;4.0469;
624.3000;0.2442;4.0394;
624.6000;0.2442;4.0469;
624.9000;0.2442;4.0545;
625.2000;0.2336;4.0268;
625.5000;0.2295;4.0067;
625.8000;0.2466;4.0570;
626.1000;0.2442;4.0645;
626.4000;0.2434;4.0620;
626.7000;0.2450;4.0645;
627.0000;0.2426;4.0595;
627.3000;0.2426;4.0595;
627.6000;0.2426;4.0494;
627.9000;0.2466;4.0645;
628.2000;0.2361;4.0419;
628.5000;0.2442;4.0670;
628.8000;0.2442;4.0746;
629.1000;0.2458;4.0746;
629.4000;0.2418;4.0620;
629.7000;0.2434;4.0695;
630.0000;0.2458;4.0746;
630.3000;0.2434;4.0695;
630.6000;0.2434;4.0695;
630.9000;0.2442;4.0796;
631.2000;0.2450;4.0771;
631.5000;0.2328;4.0469;
631.8000;0.2475;4.0872;
632.1000;0.2409;4.0620;
632.4000;0.2442;4.0695;
632.7000;0.2369;4.0519;
633.0000;0.2434;4.0746;
633.3000;0.2377;4.0570;
633.6000;0.2491;4.0846;
633.9000;0.2434;4.0620;
634.2000;0.2442;4.0545;
634.5000;0.2564;4.0846;
634.8000;0.2442;4.0595;
635.1000;0.2393;4.0620;
635.4000;0.2418;4.0746;
635.7000;0.2426;4.0746;
636.0000;0.2409;4.0695;
636.3000;0.2401;4.0670;
636.6000;0.2377;4.0570;
636.9000;0.2418;4.0670;
637.2000;0.2401;4.0645;
637.5000;0.2426;4.0721;
637.8000;0.2418;4.0771;
638.1000;0.2442;4.0846;
638.4000;0.2434;4.0796;
638.7000;0.2434;4.0695;
639.0000;0.2393;4.0645;
639.3000;0.2409;4.0595;
639.6000;0.2418;4.0620;
639.9000;0.2442;4.0570;
640.2000;0.2426;4.0545;
640.5000;0.2426;4.0645;
640.8000;0.2409;4.0645;
641.1000;0.2409;4.0695;
641.4000;0.2450;4.0721;
641.7000;0.2385;4.0570;
642.0000;0.2426;4.0670;
642.3000;0.2450;4.0771;
642.6000;0.2442;4.0695;
642.9000;0.2442;4.0695;
643.2000;0.2418;4.0746;
643.5000;0.2393;4.0645;
643.8000;0.2450;4.0821;
644.1000;0.2450;4.0872;
644.4000;0.2434;4.0897;
644.7000;0.2434;4.0972;
645.0000;0.2426;4.0972;
645.3000;0.2393;4.0771;
645.6000;0.2450;4.0821;
645.9000;0.2434;4.0771;
646.2000;0.2426;4.0746;
646.5000;0.2426;4.0821;
646.8000;0.2434;4.0796;
647.1000;0.2418;4.0846;
647.4000;0.2426;4.0821;
647.7000;0.2434;4.0821;
648.0000;0.2344;4.0545;
648.3000;0.2458;4.0872;
648.6000;0.2418;4.0645;
648.9000;0.2418;4.0620;
649.2000;0.2458;4.0620;
649.5000;0.2287;4.0167;
649.8000;0.2418;4.0494;
650.1000;0.2401;4.0469;
650.4000;0.2450;4.0620;
650.7000;0.2434;4.0620;
651.0000;0.2426;4.0645;
651.3000;0.2442;4.0670;
651.6000;0.2450;4.0695;
651.9000;0.2507;4.0897;
652.2000;0.2523;4.0872;
652.5000;0.2450;4.0695;
652.8000;0.2426;4.0595;
653.1000;0.2295;4.0268;
653.4000;0.2442;4.0545;
653.7000;0.2434;4.0494;
654.0000;0.2377;4.0419;
654.3000;0.2418;4.0494;
654.6000;0.2418;4.0469;
654.9000;0.2336;4.0192;
655.2000;0.2409;4.0394;
655.5000;0.2499;4.0645;
655.8000;0.2466;4.0595;
656.1000;0.2442;4.0595;
656.4000;0.2466;4.0570;
656.7000;0.2434;4.0494;
657.0000;0.2409;4.0419;
657.3000;0.2377;4.0368;
657.6000;0.2458;4.0519;
657.9000;0.2450;4.0494;
658.2000;0.2450;4.0469;
658.5000;0.2426;4.0368;
658.8000;0.2442;4.0444;
659.1000;0.2418;4.0444;
659.4000;0.2450;4.0519;
659.7000;0.2418;4.0368;
660.0000;0.2466;4.0494;
660.3000;0.2442;4.0519;
660.6000;0.2418;4.0444;
660.9000;0.2434;4.0519;
661.2000;0.2450;4.0494;
661.5000;0.2426;4.0519;
661.8000;0.2442;4.0545;
662.1000;0.2442;4.0444;
662.4000;0.2434;4.0343;
662.7000;0.2458;4.0444;
663.0000;0.2426;4.0419;
663.3000;0.2426;4.0494;
663.6000;0.2450;4.0570;
663.9000;0.2466;4.0519;
664.2000;0.2418;4.0343;
664.5000;0.2434;4.0268;
664.8000;0.2426;4.0293;
665.1000;0.2466;4.0394;
665.4000;0.2458;4.0444;
665.7000;0.2426;4.0318;
666.0000;0.2401;4.0343;
666.3000;0.2434;4.0419;
666.6000;0.2450;4.0545;
666.9000;0.2442;4.0519;
667.2000;0.2450;4.0494;
667.5000;0.2401;4.0394;
667.8000;0.2426;4.0394;
668.1000;0.2426;4.0368;
668.4000;0.2450;4.0419;
668.7000;0.2434;4.0343;
669.0000;0.2426;4.0343;
669.3000;0.2515;4.0595;
669.6000;0.2418;4.0343;
669.9000;0.2442;4.0368;
670.2000;0.2426;4.0318;
670.5000;0.2458;4.0343;
670.8000;0.2442;4.0419;
671.1000;0.2475;4.0545;
671.4000;0.2483;4.0570;
671.7000;0.2450;4.0419;
672.0000;0.2426;4.0343;
672.3000;0.2426;4.0368;
672.6000;0.2426;4.0419;
672.9000;0.2442;4.0494;
673.2000;0.2434;4.0519;
673.5000;0.2475;4.0695;
673.8000;0.2434;4.0620;
674.1000;0.2418;4.0494;
674.4000;0.2426;4.0545;
674.7000;0.2466;4.0645;
675.0000;0.2418;4.0570;
675.3000;0.2434;4.0620;
675.6000;0.2499;4.0746;
675.9000;0.2466;4.0645;
676.2000;0.2434;4.0469;
676.5000;0.2426;4.0494;
676.8000;0.2442;4.0444;
677.1000;0.2442;4.0318;
677.4000;0.2426;4.0343;
677.7000;0.2426;4.0444;
678.0000;0.2450;4.0494;
678.3000;0.2434;4.0394;
678.6000;0.2369;4.0243;
678.9000;0.2426;4.0519;
679.2000;0.2434;4.0545;
679.5000;0.2409;4.0519;
679.8000;0.2523;4.0872;
680.1000;0.2434;4.0620;
680.4000;0.2434;4.0494;
680.7000;0.2442;4.0494;
681.0000;0.2523;4.0645;
681.3000;0.2450;4.0494;
681.6000;0.2450;4.0444;
681.9000;0.2475;4.0494;
682.2000;0.2442;4.0343;
682.5000;0.2442;4.0368;
682.8000;0.2483;4.0519;
683.1000;0.2434;4.0444;
683.4000;0.2434;4.0469;
683.7000;0.2450;4.0419;
684.0000;0.2442;4.0343;
684.3000;0.2409;4.0268;
684.6000;0.2540;4.0570;
684.9000;0.2458;4.0368;
685.2000;0.2434;4.0368;
685.5000;0.2442;4.0394;
685.8000;0.2442;4.0318;
686.1000;0.2434;4.0318;
686.4000;0.2418;4.0268;
686.7000;0.2434;4.0293;
687.0000;0.2491;4.0444;
687.3000;0.2466;4.0343;
687.6000;0.2434;4.0293;
687.9000;0.2409;4.0243;
688.2000;0.2458;4.0394;
688.5000;0.2450;4.0394;
688.8000;0.2450;4.0444;
689.1000;0.2401;4.0318;
689.4000;0.2434;4.0394;
689.7000;0.2458;4.0570;
690.0000;0.2434;4.0519;
690.3000;0.2401;4.0519;
690.6000;0.2466;4.0670;
690.9000;0.2450;4.0570;
691.2000;0.2442;4.0545;
691.5000;0.2450;4.0570;
691.8000;0.2442;4.0570;
692.1000;0.2377;4.0368;
692.4000;0.2418;4.0494;
692.7000;0.2426;4.0494;
693.0000;0.2409;4.0343;
693.3000;0.2475;4.0469;
693.6000;0.2409;4.0394;
693.9000;0.2442;4.0394;
694.2000;0.2434;4.0469;
694.5000;0.2385;4.0293;
694.8000;0.2450;4.0545;
695.1000;0.2442;4.0469;
695.4000;0.2491;4.0519;
695.7000;0.2426;4.0343;
696.0000;0.2466;4.0494;
696.3000;0.2458;4.0570;
696.6000;0.2418;4.0469;
696.9000;0.2466;4.0469;
697.2000;0.2418;4.0343;
697.5000;0.2385;4.0343;
697.8000;0.2466;4.0620;
698.1000;0.2442;4.0570;
698.4000;0.2458;4.0620;
698.7000;0.2434;4.0620;
699.0000;0.2361;4.0394;
699.3000;0.2442;4.0595;
699.6000;0.2418;4.0494;
699.9000;0.2458;4.0519;
700.2000;0.2458;4.0620;
700.5000;0.2442;4.0519;
700.8000;0.2418;4.0394;
701.1000;0.2466;4.0494;
701.4000;0.2556;4.0695;
701.7000;0.2442;4.0343;
702.0000;0.2458;4.0394;
702.3000;0.2450;4.0343;
702.6000;0.2418;4.0318;
702.9000;0.2466;4.0394;
703.2000;0.2434;4.0318;
703.5000;0.2418;4.0218;
703.8000;0.2442;4.0268;
704.1000;0.2450;4.0268;
704.4000;0.2442;4.0343;
704.7000;0.2475;4.0444;
705.0000;0.2458;4.0394;
705.3000;0.2458;4.0394;
705.6000;0.2426;4.0318;
705.9000;0.2450;4.0343;
706.2000;0.2426;4.0419;
706.5000;0.2434;4.0444;
706.8000;0.2442;4.0318;
707.1000;0.2450;4.0293;
707.4000;0.2475;4.0368;
707.7000;0.2450;4.0343;
708.0000;0.2450;4.0293;
708.3000;0.2434;4.0293;
708.6000;0.2426;4.0268;
708.9000;0.2442;4.0218;
709.2000;0.2377;3.9966;
709.5000;0.2434;4.0142;
709.8000;0.2442;4.0268;
710.1000;0.2450;4.0318;
710.4000;0.2295;3.9865;
710.7000;0.2442;4.0243;
711.0000;0.2434;4.0268;
711.3000;0.2450;4.0343;
711.6000;0.2458;4.0469;
711.9000;0.2434;4.0419;
712.2000;0.2361;4.0167;
712.5000;0.2458;4.0494;
712.8000;0.2475;4.0620;
713.1000;0.2450;4.0545;
713.4000;0.2434;4.0545;
713.7000;0.2442;4.0570;
714.0000;0.2450;4.0645;
714.3000;0.2409;4.0570;
714.6000;0.2458;4.0570;
714.9000;0.2409;4.0368;
715.2000;0.2507;4.0545;
715.5000;0.2450;4.0444;
715.8000;0.2434;4.0394;
716.1000;0.2401;4.0268;
716.4000;0.2426;4.0419;
716.7000;0.2442;4.0469;
717.0000;0.2466;4.0570;
717.3000;0.2418;4.0419;
717.6000;0.2434;4.0494;
717.9000;0.2450;4.0545;
718.2000;0.2369;4.0293;
718.5000;0.2434;4.0368;
718.8000;0.2434;4.0243;
719.1000;0.2418;4.0243;
719.4000;0.2377;4.0142;
719.7000;0.2434;4.0494;
720.0000;0.2426;4.0419;
720.3000;0.2450;4.0670;
720.6000;0.2458;4.0670;
720.9000;0.2572;4.1048;
721.2000;0.2458;4.0695;
721.5000;0.2426;4.0670;
721.8000;0.2450;4.0645;
722.1000;0.2515;4.0746;
722.4000;0.2426;4.0444;
722.7000;0.2434;4.0469;
723.0000;0.2434;4.0494;
723.3000;0.2426;4.0394;
723.6000;0.2434;4.0293;
723.9000;0.2442;4.0394;
724.2000;0.2466;4.0419;
724.5000;0.2434;4.0419;
724.8000;0.2483;4.0545;
725.1000;0.2450;4.0469;
725.4000;0.2450;4.0469;
725.7000;0.2458;4.0444;
726.0000;0.2401;4.0268;
726.3000;0.2507;4.0545;
726.6000;0.2393;4.0293;
726.9000;0.2458;4.0444;
727.2000;0.2434;4.0469;
727.5000;0.2458;4.0620;
727.8000;0.2499;4.0645;
728.1000;0.2450;4.0494;
728.4000;0.2434;4.0494;
728.7000;0.2442;4.0545;
729.0000;0.2499;4.0670;
729.3000;0.2450;4.0519;
729.6000;0.2426;4.0343;
729.9000;0.2434;4.0469;
730.2000;0.2458;4.0444;
730.5000;0.2466;4.0444;
730.8000;0.2442;4.0293;
731.1000;0.2409;4.0293;
731.4000;0.2458;4.0394;
731.7000;0.2450;4.0368;
732.0000;0.2426;4.0394;
732.3000;0.2409;4.0494;
732.6000;0.2434;4.0570;
732.9000;0.2442;4.0570;
733.2000;0.2458;4.0620;
733.5000;0.2426;4.0545;
733.8000;0.2450;4.0645;
734.1000;0.2450;4.0545;
734.4000;0.2361;4.0368;
734.7000;0.2409;4.0444;
735.0000;0.2450;4.0469;
735.3000;0.2499;4.0545;
735.6000;0.2450;4.0318;
735.9000;0.2418;4.0293;
736.2000;0.2393;4.0268;
736.5000;0.2434;4.0293;
736.8000;0.2450;4.0494;
737.1000;0.2393;4.0343;
737.4000;0.2475;4.0494;
737.7000;0.2426;4.0394;
738.0000;0.2442;4.0419;
738.3000;0.2450;4.0570;
738.6000;0.2418;4.0419;
738.9000;0.2352;4.0268;
739.2000;0.2401;4.0570;
739.5000;0.2434;4.0670;
739.8000;0.2434;4.0670;
740.1000;0.2466;4.0721;
740.4000;0.2418;4.0570;
740.7000;0.2466;4.0670;
741.0000;0.2499;4.0670;
741.3000;0.2442;4.0570;
741.6000;0.2442;4.0519;
741.9000;0.2491;4.0670;
742.2000;0.2361;4.0419;
742.5000;0.2434;4.0545;
742.8000;0.2450;4.0670;
743.1000;0.2540;4.0897;
743.4000;0.2418;4.0545;
743.7000;0.2418;4.0494;
744.0000;0.2466;4.0545;
744.3000;0.2491;4.0570;
744.6000;0.2418;4.0469;
744.9000;0.2418;4.0419;
745.2000;0.2442;4.0519;
745.5000;0.2475;4.0670;
745.8000;0.2458;4.0545;
746.1000;0.2434;4.0494;
746.4000;0.2418;4.0519;
746.7000;0.2450;4.0494;
747.0000;0.2442;4.0469;
747.3000;0.2458;4.0620;
747.6000;0.2418;4.0469;
747.9000;0.2401;4.0444;
748.2000;0.2458;4.0545;
748.5000;0.2418;4.0444;
748.8000;0.2434;4.0343;
749.1000;0.2475;4.0519;
749.4000;0.2442;4.0494;
749.7000;0.2515;4.0645;
750.0000;0.2442;4.0444;
750.3000;0.2458;4.0444;
750.6000;0.2312;4.0092;
750.9000;0.2450;4.0419;
751.2000;0.2458;4.0469;
751.5000;0.2450;4.0394;
751.8000;0.2434;4.0469;
752.1000;0.2580;4.0897;
752.4000;0.2434;4.0469;
752.7000;0.2442;4.0519;
753.0000;0.2426;4.0494;
753.3000;0.2426;4.0444;
753.6000;0.2426;4.0444;
753.9000;0.2458;4.0519;
754.2000;0.2352;4.0268;
754.5000;0.2426;4.0469;
754.8000;0.2450;4.0469;
755.1000;0.2450;4.0469;
755.4000;0.2450;4.0394;
755.7000;0.2458;4.0419;
756.0000;0.2409;4.0293;
756.3000;0.2426;4.0343;
756.6000;0.2483;4.0394;
756.9000;0.2458;4.0293;
757.2000;0.2483;4.0293;
757.5000;0.2442;4.0243;
757.8000;0.2450;4.0243;
758.1000;0.2450;4.0318;
758.4000;0.2450;4.0318;
758.7000;0.2426;4.0243;
759.0000;0.2434;4.0268;
759.3000;0.2442;4.0243;
759.6000;0.2442;4.0192;
759.9000;0.2466;4.0268;
760.2000;0.2418;4.0167;
760.5000;0.2466;4.0243;
760.8000;0.2434;4.0218;
761.1000;0.2450;4.0343;
761.4000;0.2442;4.0343;
761.7000;0.2434;4.0268;
762.0000;0.2450;4.0368;
762.3000;0.2475;4.0444;
762.6000;0.2458;4.0368;
762.9000;0.2434;4.0243;
763.2000;0.2377;4.0016;
763.5000;0.2458;4.0218;
763.8000;0.2426;4.0167;
764.1000;0.2434;4.0268;
764.4000;0.2458;4.0318;
764.7000;0.2409;4.0243;
765.0000;0.2442;4.0293;
765.3000;0.2344;4.0067;
765.6000;0.2442;4.0268;
765.9000;0.2434;4.0293;
766.2000;0.2458;4.0394;
766.5000;0.2580;4.0796;
766.8000;0.2434;4.0444;
767.1000;0.2458;4.0545;
767.4000;0.2418;4.0469;
767.7000;0.2442;4.0595;
768.0000;0.2466;4.0620;
768.3000;0.2450;4.0519;
768.6000;0.2369;4.0318;
768.9000;0.2426;4.0519;
769.2000;0.2572;4.0846;
769.5000;0.2450;4.0519;
769.8000;0.2475;4.0545;
770.1000;0.2450;4.0494;
770.4000;0.2450;4.0519;
770.7000;0.2442;4.0595;
771.0000;0.2442;4.0620;
771.3000;0.2442;4.0570;
771.6000;0.2507;4.0645;
771.9000;0.2434;4.0419;
772.2000;0.2418;4.0368;
772.5000;0.2450;4.0419;
772.8000;0.2344;4.0117;
773.1000;0.2409;4.0268;
773.4000;0.2393;4.0167;
773.7000;0.2304;3.9916;
774.0000;0.2450;4.0368;
774.3000;0.2434;4.0318;
774.6000;0.2377;4.0117;
774.9000;0.2401;4.0142;
775.2000;0.2418;4.0243;
775.5000;0.2434;4.0343;
775.8000;0.2450;4.0419;
776.1000;0.2613;4.0872;
776.4000;0.2426;4.0268;
776.7000;0.2475;4.0368;
777.0000;0.2361;4.0167;
777.3000;0.2409;4.0243;
777.6000;0.2442;4.0343;
777.9000;0.2426;4.0318;
778.2000;0.2426;4.0318;
778.5000;0.2434;4.0318;
778.8000;0.2434;4.0368;
779.1000;0.2401;4.0318;
779.4000;0.2426;4.0394;
779.7000;0.2426;4.0419;
780.0000;0.2442;4.0394;
780.3000;0.2458;4.0368;
780.6000;0.2458;4.0318;
780.9000;0.2450;4.0293;
781.2000;0.2540;4.0494;
781.5000;0.2418;4.0117;
781.8000;0.2409;4.0067;
782.1000;0.2409;4.0117;
782.4000;0.2361;3.9891;
782.7000;0.2434;4.0067;
783.0000;0.2442;4.0117;
783.3000;0.2409;4.0042;
783.6000;0.2450;4.0067;
783.9000;0.2450;4.0117;
784.2000;0.2442;4.0067;
784.5000;0.2434;4.0016;
784.8000;0.2409;3.9916;
785.1000;0.2409;3.9865;
785.4000;0.2426;3.9941;
785.7000;0.2450;4.0042;
786.0000;0.2458;4.0142;
786.3000;0.2442;4.0117;
786.6000;0.2523;4.0368;
786.9000;0.2434;4.0167;
787.2000;0.2434;4.0218;
787.5000;0.2442;4.0142;
787.8000;0.2409;4.0117;
788.1000;0.2418;4.0142;
788.4000;0.2426;4.0067;
788.7000;0.2450;4.0092;
789.0000;0.2434;4.0117;
789.3000;0.2385;3.9941;
789.6000;0.2442;4.0142;
789.9000;0.2450;4.0117;
790.2000;0.2426;4.0016;
790.5000;0.2426;4.0142;
790.8000;0.2426;4.0218;
791.1000;0.2442;4.0343;
791.4000;0.2466;4.0469;
791.7000;0.2418;4.0394;
792.0000;0.2377;4.0218;
792.3000;0.2287;4.0042;
792.6000;0.2475;4.0570;
792.9000;0.2434;4.0394;
793.2000;0.2434;4.0318;
793.5000;0.2401;4.0167;
793.8000;0.2483;4.0419;
794.1000;0.2385;4.0117;
794.4000;0.2466;4.0469;
794.7000;0.2458;4.0444;
795.0000;0.2377;4.0142;
795.3000;0.2426;4.0243;
795.6000;0.2426;4.0293;
795.9000;0.2409;4.0268;
796.2000;0.2507;4.0570;
796.5000;0.2442;4.0368;
796.8000;0.2434;4.0318;
797.1000;0.2491;4.0419;
797.4000;0.2442;4.0142;
797.7000;0.2418;4.0067;
798.0000;0.2434;4.0142;
798.3000;0.2442;4.0092;
798.6000;0.2483;4.0243;
798.9000;0.2426;4.0192;
799.2000;0.2556;4.0620;
799.5000;0.2426;4.0394;
799.8000;0.2426;4.0394;
800.1000;0.2409;4.0318;
800.4000;0.2442;4.0293;
800.7000;0.2458;4.0318;
801.0000;0.2434;4.0268;
801.3000;0.2499;4.0419;
801.6000;0.2458;4.0368;
801.9000;0.2434;4.0268;
802.2000;0.2352;3.9941;
802.5000;0.2458;4.0268;
802.8000;0.2418;4.0142;
803.1000;0.2426;4.0042;
803.4000;0.2434;4.0067;
803.7000;0.2434;4.0092;
804.0000;0.2434;4.0092;
804.3000;0.2466;4.0243;
804.6000;0.2418;4.0117;
804.9000;0.2328;3.9790;
805.2000;0.2426;4.0167;
805.5000;0.2458;4.0268;
805.8000;0.2434;4.0218;
806.1000;0.2442;4.0243;
806.4000;0.2426;4.0192;
806.7000;0.2466;4.0368;
807.0000;0.2450;4.0394;
807.3000;0.2418;4.0293;
807.6000;0.2450;4.0419;
807.9000;0.2426;4.0368;
808.2000;0.2450;4.0444;
808.5000;0.2426;4.0444;
808.8000;0.2450;4.0394;
809.1000;0.2426;4.0293;
809.4000;0.2475;4.0343;
809.7000;0.2426;4.0293;
810.0000;0.2450;4.0394;
810.3000;0.2377;4.0042;
810.6000;0.2418;4.0268;
810.9000;0.2409;4.0218;
811.2000;0.2483;4.0368;
811.5000;0.2320;3.9941;
811.8000;0.2426;4.0243;
812.1000;0.2426;4.0243;
812.4000;0.2434;4.0318;
812.7000;0.2426;4.0268;
813.0000;0.2458;4.0343;
813.3000;0.2523;4.0545;
813.6000;0.2426;4.0318;
813.9000;0.2458;4.0394;
814.2000;0.2426;4.0318;
814.5000;0.2458;4.0394;
814.8000;0.2442;4.0243;
815.1000;0.2442;4.0293;
815.4000;0.2475;4.0469;
815.7000;0.2466;4.0394;
816.0000;0.2458;4.0394;
816.3000;0.2393;4.0268;
816.6000;0.2515;4.0494;
816.9000;0.2434;4.0268;
817.2000;0.2426;4.0268;
817.5000;0.2442;4.0343;
817.8000;0.2540;4.0545;
818.1000;0.2434;4.0268;
818.4000;0.2426;4.0268;
818.7000;0.2442;4.0293;
819.0000;0.2458;4.0243;
819.3000;0.2475;4.0192;
819.6000;0.2385;4.0042;
819.9000;0.2458;4.0268;
820.2000;0.2434;4.0318;
820.5000;0.2450;4.0318;
820.8000;0.2434;4.0293;
821.1000;0.2442;4.0268;
821.4000;0.2418;4.0192;
821.7000;0.2442;4.0167;
822.0000;0.2442;4.0218;
822.3000;0.2450;4.0192;
822.6000;0.2418;4.0016;
822.9000;0.2434;4.0117;
823.2000;0.2361;3.9891;
823.5000;0.2401;4.0042;
823.8000;0.2434;4.0117;
824.1000;0.2442;4.0167;
824.4000;0.2466;4.0268;
824.7000;0.2442;4.0268;
825.0000;0.2450;4.0293;
825.3000;0.2483;4.0394;
825.6000;0.2475;4.0419;
825.9000;0.2442;4.0368;
826.2000;0.2442;4.0368;
826.5000;0.2426;4.0268;
826.8000;0.2442;4.0293;
827.1000;0.2434;4.0268;
827.4000;0.2377;4.0016;
827.7000;0.2450;4.0167;
828.0000;0.2450;4.0142;
828.3000;0.2499;4.0293;
828.6000;0.2466;4.0394;
828.9000;0.2450;4.0318;
829.2000;0.2409;4.0192;
829.5000;0.2426;4.0192;
829.8000;0.2458;4.0167;
830.1000;0.2450;4.0142;
830.4000;0.2442;4.0117;
830.7000;0.2426;4.0218;
831.0000;0.2450;4.0368;
831.3000;0.2458;4.0444;
831.6000;0.2369;4.0268;
831.9000;0.2442;4.0444;
832.2000;0.2434;4.0343;
832.5000;0.2434;4.0243;
832.8000;0.2434;4.0218;
833.1000;0.2523;4.0469;
833.4000;0.2434;4.0268;
833.7000;0.2434;4.0268;
834.0000;0.2450;4.0268;
834.3000;0.2434;4.0243;
834.6000;0.2450;4.0293;
834.9000;0.2442;4.0318;
835.2000;0.2418;4.0192;
835.5000;0.2426;4.0167;
835.8000;0.2458;4.0218;
836.1000;0.2475;4.0343;
836.4000;0.2426;4.0243;
836.7000;0.2401;4.0092;
837.0000;0.2418;4.0192;
837.3000;0.2450;4.0343;
837.6000;0.2434;4.0343;
837.9000;0.2409;4.0343;
838.2000;0.2450;4.0419;
838.5000;0.2475;4.0469;
838.8000;0.2532;4.0570;
839.1000;0.2491;4.0595;
839.4000;0.2442;4.0343;
839.7000;0.2475;4.0419;
840.0000;0.2442;4.0469;
840.3000;0.2458;4.0570;
840.6000;0.2450;4.0444;
840.9000;0.2442;4.0469;
841.2000;0.2385;4.0343;
841.5000;0.2426;4.0469;
841.8000;0.2426;4.0293;
842.1000;0.2328;3.9916;
842.4000;0.2507;4.0545;
842.7000;0.2409;4.0394;
843.0000;0.2426;4.0394;
843.3000;0.2450;4.0343;
843.6000;0.2507;4.0519;
843.9000;0.2442;4.0394;
844.2000;0.2418;4.0419;
844.5000;0.2393;4.0419;
844.8000;0.2458;4.0494;
845.1000;0.2418;4.0394;
845.4000;0.2442;4.0444;
845.7000;0.2401;4.0293;
846.0000;0.2450;4.0318;
846.3000;0.2434;4.0318;
846.6000;0.2450;4.0318;
846.9000;0.2434;4.0268;
847.2000;0.2442;4.0268;
847.5000;0.2426;4.0192;
847.8000;0.2426;4.0318;
848.1000;0.2418;4.0167;
848.4000;0.2483;4.0268;
848.7000;0.2450;4.0142;
849.0000;0.2442;4.0117;
849.3000;0.2434;4.0092;
849.6000;0.2434;4.0192;
849.9000;0.2450;4.0268;
850.2000;0.2450;4.0218;
850.5000;0.2442;4.0142;
850.8000;0.2450;4.0243;
851.1000;0.2434;4.0192;
851.4000;0.2418;4.0243;
851.7000;0.2450;4.0293;
852.0000;0.2450;4.0293;
852.3000;0.2548;4.0545;
852.6000;0.2458;4.0318;
852.9000;0.2450;4.0243;
853.2000;0.2564;4.0721;
853.5000;0.2458;4.0419;
853.8000;0.2466;4.0318;
854.1000;0.2377;4.0117;
854.4000;0.2434;4.0268;
854.7000;0.2426;4.0293;
855.0000;0.2336;4.0067;
855.3000;0.2450;4.0494;
855.6000;0.2442;4.0444;
855.9000;0.2466;4.0419;
856.2000;0.2426;4.0218;
856.5000;0.2450;4.0243;
856.8000;0.2442;4.0218;
857.1000;0.2418;4.0192;
857.4000;0.2426;4.0192;
857.7000;0.2393;4.0142;
858.0000;0.2434;4.0268;
858.3000;0.2442;4.0343;
858.6000;0.2304;3.9941;
858.9000;0.2409;4.0243;
859.2000;0.2491;4.0394;
859.5000;0.2442;4.0268;
859.8000;0.2458;4.0318;
860.1000;0.2442;4.0293;
860.4000;0.2466;4.0394;
860.7000;0.2442;4.0419;
861.0000;0.2458;4.0469;
861.3000;0.2450;4.0394;
861.6000;0.2442;4.0394;
861.9000;0.2377;4.0293;
862.2000;0.2450;4.0419;
862.5000;0.2426;4.0394;
862.8000;0.2450;4.0469;
863.1000;0.2434;4.0419;
863.4000;0.2507;4.0545;
863.7000;0.2450;4.0394;
864.0000;0.2418;4.0318;
864.3000;0.2450;4.0394;
864.6000;0.2442;4.0419;
864.9000;0.2491;4.0545;
865.2000;0.2466;4.0494;
865.5000;0.2369;4.0192;
865.8000;0.2442;4.0419;
866.1000;0.2515;4.0645;
866.4000;0.2475;4.0645;
866.7000;0.2466;4.0620;
867.0000;0.2523;4.0645;
867.3000;0.2466;4.0570;
867.6000;0.2499;4.0570;
867.9000;0.2507;4.0444;
868.2000;0.2475;4.0318;
868.5000;0.2442;4.0218;
868.8000;0.2442;4.0243;
869.1000;0.2515;4.0494;
869.4000;0.2475;4.0368;
869.7000;0.2442;4.0293;
870.0000;0.2409;4.0243;
870.3000;0.2450;4.0368;
870.6000;0.2450;4.0394;
870.9000;0.2466;4.0444;
871.2000;0.2409;4.0444;
871.5000;0.2418;4.0469;
871.8000;0.2458;4.0545;
872.1000;0.2442;4.0519;
872.4000;0.2458;4.0494;
872.7000;0.2450;4.0469;
873.0000;0.2401;4.0394;
873.3000;0.2434;4.0444;
873.6000;0.2418;4.0394;
873.9000;0.2499;4.0494;
874.2000;0.2466;4.0394;
874.5000;0.2442;4.0318;
874.8000;0.2426;4.0218;
875.1000;0.2450;4.0368;
875.4000;0.2523;4.0746;
875.7000;0.2458;4.0545;
876.0000;0.2434;4.0595;
876.3000;0.2442;4.0595;
876.6000;0.2458;4.0570;
876.9000;0.2409;4.0444;
877.2000;0.2409;4.0545;
877.5000;0.2458;4.0645;
877.8000;0.2458;4.0570;
878.1000;0.2409;4.0293;
878.4000;0.2418;4.0318;
878.7000;0.2401;4.0293;
879.0000;0.2434;4.0318;
879.3000;0.2450;4.0343;
879.6000;0.2442;4.0394;
879.9000;0.2442;4.0394;
880.2000;0.2458;4.0419;
880.5000;0.2450;4.0394;
880.8000;0.2483;4.0419;
881.1000;0.2434;4.0243;
881.4000;0.2434;4.0318;
881.7000;0.2507;4.0545;
882.0000;0.2442;4.0394;
882.3000;0.2450;4.0368;
882.6000;0.2458;4.0343;
882.9000;0.2409;4.0293;
883.2000;0.2442;4.0394;
883.5000;0.2369;4.0218;
883.8000;0.2442;4.0394;
884.1000;0.2491;4.0595;
884.4000;0.2458;4.0419;
884.7000;0.2450;4.0368;
885.0000;0.2458;4.0469;
885.3000;0.2426;4.0368;
885.6000;0.2418;4.0343;
885.9000;0.2418;4.0268;
886.2000;0.2377;4.0167;
886.5000;0.2434;4.0268;
886.8000;0.2418;4.0192;
887.1000;0.2450;4.0192;
887.4000;0.2450;4.0167;
887.7000;0.2426;4.0142;
888.0000;0.2426;4.0142;
888.3000;0.2466;4.0243;
888.6000;0.2434;4.0243;
888.9000;0.2442;4.0243;
889.2000;0.2442;4.0218;
889.5000;0.2393;4.0092;
889.8000;0.2442;4.0192;
890.1000;0.2507;4.0343;
890.4000;0.2450;4.0167;
890.7000;0.2450;4.0218;
891.0000;0.2434;4.0318;
891.3000;0.2475;4.0343;
891.6000;0.2515;4.0545;
891.9000;0.2450;4.0394;
892.2000;0.2450;4.0293;
892.5000;0.2442;4.0293;
892.8000;0.2523;4.0494;
893.1000;0.2434;4.0318;
893.4000;0.2450;4.0368;
893.7000;0.2426;4.0318;
894.0000;0.2450;4.0368;
894.3000;0.2426;4.0293;
894.6000;0.2442;4.0293;
894.9000;0.2434;4.0394;
895.2000;0.2483;4.0519;
895.5000;0.2450;4.0444;
895.8000;0.2442;4.0519;
896.1000;0.2458;4.0570;
896.4000;0.2458;4.0620;
896.7000;0.2304;4.0117;
897.0000;0.2247;3.9891;
897.3000;0.2450;4.0444;
897.6000;0.2450;4.0394;
897.9000;0.2458;4.0419;
898.2000;0.2377;4.0117;
898.5000;0.2418;4.0218;
898.8000;0.2434;4.0268;
899.1000;0.2458;4.0243;
899.4000;0.2475;4.0368;
899.7000;0.2442;4.0268;
900.0000;0.2442;4.0293;
900.3000;0.2442;4.0167;
900.6000;0.2344;3.9941;
900.9000;0.2426;4.0243;
901.2000;0.2377;4.0117;
901.5000;0.2450;4.0368;
901.8000;0.2442;4.0419;
902.1000;0.2450;4.0368;
902.4000;0.2426;4.0318;
902.7000;0.2491;4.0595;
903.0000;0.2442;4.0469;
903.3000;0.2523;4.0670;
903.6000;0.2409;4.0394;
903.9000;0.2442;4.0545;
904.2000;0.2434;4.0545;
904.5000;0.2401;4.0469;
904.8000;0.2450;4.0545;
905.1000;0.2466;4.0645;
905.4000;0.2426;4.0545;
905.7000;0.2564;4.0897;
906.0000;0.2458;4.0545;
906.3000;0.2532;4.0746;
906.6000;0.2442;4.0419;
906.9000;0.2434;4.0268;
907.2000;0.2442;4.0293;
907.5000;0.2466;4.0343;
907.8000;0.2458;4.0368;
908.1000;0.2450;4.0318;
908.4000;0.2442;4.0343;
908.7000;0.2483;4.0469;
909.0000;0.2466;4.0469;
909.3000;0.2418;4.0394;
909.6000;0.2450;4.0469;
909.9000;0.2450;4.0444;
910.2000;0.2475;4.0519;
910.5000;0.2450;4.0394;
910.8000;0.2450;4.0444;
911.1000;0.2434;4.0343;
911.4000;0.2426;4.0343;
911.7000;0.2450;4.0394;
912.0000;0.2426;4.0343;
912.3000;0.2466;4.0469;
912.6000;0.2548;4.0695;
912.9000;0.2418;4.0444;
913.2000;0.2409;4.0343;
913.5000;0.2409;4.0318;
913.8000;0.2369;4.0092;
914.1000;0.2466;4.0368;
914.4000;0.2442;4.0368;
914.7000;0.2426;4.0343;
915.0000;0.2458;4.0469;
915.3000;0.2377;4.0343;
915.6000;0.2434;4.0494;
915.9000;0.2336;4.0243;
916.2000;0.2304;4.0218;
916.5000;0.2458;4.0595;
916.8000;0.2434;4.0519;
917.1000;0.2426;4.0519;
917.4000;0.2426;4.0494;
917.7000;0.2434;4.0394;
918.0000;0.2434;4.0293;
918.3000;0.2418;4.0268;
918.6000;0.2434;4.0293;
918.9000;0.2434;4.0293;
919.2000;0.2442;4.0293;
919.5000;0.2442;4.0293;
919.8000;0.2434;4.0243;
920.1000;0.2434;4.0192;
920.4000;0.2434;4.0318;
920.7000;0.2442;4.0394;
921.0000;0.2466;4.0494;
921.3000;0.2336;4.0117;
921.6000;0.2442;4.0394;
921.9000;0.2442;4.0419;
922.2000;0.2548;4.0695;
922.5000;0.2466;4.0419;
922.8000;0.2442;4.0368;
923.1000;0.2434;4.0368;
923.4000;0.2409;4.0318;
923.7000;0.2426;4.0243;
924.0000;0.2458;4.0368;
924.3000;0.2336;4.0042;
924.6000;0.2434;4.0394;
924.9000;0.2434;4.0394;
925.2000;0.2409;4.0268;
925.5000;0.2450;4.0368;
925.8000;0.2426;4.0343;
926.1000;0.2458;4.0394;
926.4000;0.2369;4.0092;
926.7000;0.2491;4.0318;
927.0000;0.2450;4.0243;
927.3000;0.2458;4.0192;
927.6000;0.2377;4.0016;
927.9000;0.2450;4.0268;
928.2000;0.2401;4.0167;
928.5000;0.2442;4.0268;
928.8000;0.2442;4.0368;
929.1000;0.2458;4.0419;
929.4000;0.2466;4.0469;
929.7000;0.2442;4.0469;
930.0000;0.2450;4.0444;
930.3000;0.2434;4.0293;
930.6000;0.2442;4.0318;
930.9000;0.2483;4.0343;
931.2000;0.2458;4.0192;
931.5000;0.2426;4.0092;
931.8000;0.2458;4.0192;
932.1000;0.2450;4.0142;
932.4000;0.2442;4.0067;
932.7000;0.2434;4.0016;
933.0000;0.2352;3.9891;
933.3000;0.2426;4.0268;
933.6000;0.2450;4.0368;
933.9000;0.2548;4.0746;
934.2000;0.2352;4.0318;
934.5000;0.2450;4.0519;
934.8000;0.2434;4.0469;
935.1000;0.2320;4.0092;
935.4000;0.2450;4.0519;
935.7000;0.2458;4.0469;
936.0000;0.2442;4.0318;
936.3000;0.2458;4.0268;
936.6000;0.2450;4.0268;
936.9000;0.2450;4.0343;
937.2000;0.2458;4.0343;
937.5000;0.2475;4.0419;
937.8000;0.2442;4.0394;
938.1000;0.2434;4.0444;
938.4000;0.2409;4.0368;
938.7000;0.2450;4.0419;
939.0000;0.2458;4.0469;
939.3000;0.2418;4.0318;
939.6000;0.2434;4.0318;
939.9000;0.2426;4.0318;
940.2000;0.2434;4.0394;
940.5000;0.2532;4.0746;
940.8000;0.2426;4.0519;
941.1000;0.2483;4.0570;
941.4000;0.2393;4.0444;
941.7000;0.2426;4.0444;
942.0000;0.2483;4.0570;
942.3000;0.2458;4.0519;
942.6000;0.2450;4.0368;
942.9000;0.2458;4.0444;
943.2000;0.2450;4.0394;
943.5000;0.2458;4.0343;
943.8000;0.2418;4.0318;
944.1000;0.2426;4.0243;
944.4000;0.2426;4.0192;
944.7000;0.2434;4.0268;
945.0000;0.2426;4.0318;
945.3000;0.2434;4.0368;
945.6000;0.2442;4.0394;
945.9000;0.2458;4.0444;
946.2000;0.2450;4.0519;
946.5000;0.2426;4.0368;
946.8000;0.2434;4.0394;
947.1000;0.2434;4.0394;
947.4000;0.2434;4.0343;
947.7000;0.2491;4.0570;
948.0000;0.2393;4.0293;
948.3000;0.2409;4.0368;
948.6000;0.2442;4.0394;
948.9000;0.2450;4.0318;
949.2000;0.2426;4.0343;
949.5000;0.2418;4.0394;
949.8000;0.2426;4.0494;
950.1000;0.2458;4.0545;
950.4000;0.2458;4.0444;
950.7000;0.2385;4.0243;
951.0000;0.2458;4.0519;
951.3000;0.2434;4.0394;
951.6000;0.2450;4.0444;
951.9000;0.2426;4.0419;
952.2000;0.2458;4.0368;
952.5000;0.2352;4.0042;
952.8000;0.2434;4.0218;
953.1000;0.2450;4.0243;
953.4000;0.2442;4.0192;
953.7000;0.2434;4.0092;
954.0000;0.2450;4.0218;
954.3000;0.2434;4.0243;
954.6000;0.2426;4.0117;
954.9000;0.2458;4.0167;
955.2000;0.2418;4.0016;
955.5000;0.2466;4.0218;
955.8000;0.2442;4.0268;
956.1000;0.2466;4.0293;
956.4000;0.2458;4.0293;
956.7000;0.2507;4.0444;
957.0000;0.2377;4.0092;
957.3000;0.2442;4.0318;
957.6000;0.2361;4.0142;
957.9000;0.2450;4.0368;
958.2000;0.2466;4.0343;
958.5000;0.2605;4.0695;
958.8000;0.2450;4.0268;
959.1000;0.2499;4.0469;
959.4000;0.2532;4.0519;
959.7000;0.2434;4.0318;
960.0000;0.2491;4.0545;
960.3000;0.2466;4.0469;
960.6000;0.2475;4.0444;
960.9000;0.2434;4.0318;
961.2000;0.2483;4.0368;
961.5000;0.2442;4.0218;
961.8000;0.2466;4.0318;
962.1000;0.2409;4.0167;
962.4000;0.2458;4.0192;
962.7000;0.2450;4.0142;
963.0000;0.2344;3.9891;
963.3000;0.2450;4.0218;
963.6000;0.2450;4.0192;
963.9000;0.2442;4.0192;
964.2000;0.2426;4.0167;
964.5000;0.2540;4.0444;
964.8000;0.2450;4.0268;
965.1000;0.2418;4.0167;
965.4000;0.2418;4.0117;
965.7000;0.2450;4.0142;
966.0000;0.2434;4.0142;
966.3000;0.2385;3.9941;
966.6000;0.2458;4.0142;
966.9000;0.2434;4.0092;
967.2000;0.2409;4.0016;
967.5000;0.2426;3.9991;
967.8000;0.2450;3.9991;
968.1000;0.2434;3.9916;
968.4000;0.2442;4.0042;
968.7000;0.2418;3.9941;
969.0000;0.2442;3.9991;
969.3000;0.2450;4.0092;
969.6000;0.2434;4.0067;
969.9000;0.2466;4.0192;
970.2000;0.2385;3.9966;
970.5000;0.2458;4.0268;
970.8000;0.2466;4.0318;
971.1000;0.2450;4.0368;
971.4000;0.2466;4.0343;
971.7000;0.2450;4.0218;
972.0000;0.2450;4.0243;
972.3000;0.2434;4.0192;
972.6000;0.2466;4.0293;
972.9000;0.2434;4.0192;
973.2000;0.2442;4.0117;
973.5000;0.2434;4.0218;
973.8000;0.2418;4.0142;
974.1000;0.2458;4.0293;
974.4000;0.2442;4.0343;
974.7000;0.2401;4.0343;
975.0000;0.2442;4.0343;
975.3000;0.2450;4.0394;
975.6000;0.2450;4.0394;
975.9000;0.2434;4.0268;
976.2000;0.2458;4.0268;
976.5000;0.2361;4.0042;
976.8000;0.2475;4.0293;
977.1000;0.2458;4.0268;
977.4000;0.2434;4.0192;
977.7000;0.2434;4.0142;
978.0000;0.2434;4.0142;
978.3000;0.2450;4.0218;
978.6000;0.2450;4.0192;
978.9000;0.2426;4.0067;
979.2000;0.2523;4.0394;
979.5000;0.2418;4.0117;
979.8000;0.2434;4.0218;
980.1000;0.2401;4.0167;
980.4000;0.2450;4.0343;
980.7000;0.2458;4.0218;
981.0000;0.2458;4.0167;
981.3000;0.2458;4.0218;
981.6000;0.2418;4.0042;
981.9000;0.2442;4.0092;
982.2000;0.2515;4.0268;
982.5000;0.2491;4.0268;
982.8000;0.2466;4.0192;
983.1000;0.2442;4.0218;
983.4000;0.2475;4.0368;
983.7000;0.2507;4.0368;
984.0000;0.2442;4.0268;
984.3000;0.2434;4.0268;
984.6000;0.2369;4.0067;
984.9000;0.2483;4.0343;
985.2000;0.2450;4.0192;
985.5000;0.2426;4.0167;
985.8000;0.2344;3.9991;
986.1000;0.2393;4.0192;
986.4000;0.2442;4.0419;
986.7000;0.2450;4.0494;
987.0000;0.2483;4.0519;
987.3000;0.2442;4.0444;
987.6000;0.2450;4.0394;
987.9000;0.2450;4.0469;
988.2000;0.2450;4.0519;
988.5000;0.2426;4.0419;
988.8000;0.2442;4.0469;
989.1000;0.2450;4.0469;
989.4000;0.2458;4.0545;
989.7000;0.2523;4.0645;
990.0000;0.2523;4.0670;
990.3000;0.2450;4.0419;
990.6000;0.2426;4.0268;
990.9000;0.2409;4.0243;
991.2000;0.2434;4.0293;
991.5000;0.2466;4.0368;
991.8000;0.2450;4.0243;
992.1000;0.2434;4.0243;
992.4000;0.2507;4.0545;
992.7000;0.2442;4.0343;
993.0000;0.2434;4.0268;
993.3000;0.2548;4.0494;
993.6000;0.2442;4.0243;
993.9000;0.2434;4.0142;
994.2000;0.2442;4.0268;
994.5000;0.2442;4.0368;
994.8000;0.2442;4.0293;
995.1000;0.2450;4.0293;
995.4000;0.2409;4.0167;
995.7000;0.2450;4.0268;
996.0000;0.2450;4.0318;
996.3000;0.2458;4.0368;
996.6000;0.2434;4.0343;
996.9000;0.2426;4.0293;
997.2000;0.2450;4.0368;
997.5000;0.2450;4.0444;
997.8000;0.2442;4.0469;
998.1000;0.2426;4.0394;
998.4000;0.2499;4.0545;
998.7000;0.2352;4.0016;
999.0000;0.2434;4.0167;
999.3000;0.2466;4.0343;
999.6000;0.2450;4.0368;
999.9000;0.2393;4.0167;
1000.2000;0.2434;4.0218;
1000.5000;0.2491;4.0368;
1000.8000;0.2442;4.0218;
1001.1000;0.2450;4.0218;
1001.4000;0.2450;4.0343;
1001.7000;0.2434;4.0318;
1002.0000;0.2434;4.0343;
1002.3000;0.2442;4.0293;
1002.6000;0.2418;4.0192;
1002.9000;0.2450;4.0243;
1003.2000;0.2434;4.0268;
1003.5000;0.2458;4.0268;
1003.8000;0.2540;4.0494;
1004.1000;0.2434;4.0268;
1004.4000;0.2458;4.0293;
1004.7000;0.2426;4.0192;
1005.0000;0.2458;4.0243;
1005.3000;0.2401;4.0067;
1005.6000;0.2434;4.0268;
1005.9000;0.2442;4.0318;
1006.2000;0.2499;4.0545;
1006.5000;0.2466;4.0444;
1006.8000;0.2450;4.0318;
1007.1000;0.2466;4.0368;
1007.4000;0.2426;4.0243;
1007.7000;0.2442;4.0368;
1008.0000;0.2572;4.0846;
1008.3000;0.2450;4.0469;
1008.6000;0.2442;4.0469;
1008.9000;0.2491;4.0645;
1009.2000;0.2483;4.0545;
1009.5000;0.2418;4.0444;
1009.8000;0.2377;4.0167;
1010.1000;0.2450;4.0293;
1010.4000;0.2450;4.0293;
1010.7000;0.2418;4.0142;
1011.0000;0.2434;4.0243;
1011.3000;0.2401;4.0117;
1011.6000;0.2458;4.0268;
1011.9000;0.2409;4.0067;
1012.2000;0.2409;4.0067;
1012.5000;0.2458;4.0142;
1012.8000;0.2442;4.0142;
1013.1000;0.2450;4.0167;
1013.4000;0.2483;4.0218;
1013.7000;0.2458;4.0117;
1014.0000;0.2532;4.0368;
1014.3000;0.2466;4.0117;
1014.6000;0.2426;3.9991;
1014.9000;0.2418;3.9865;
1015.2000;0.2466;4.0142;
1015.5000;0.2442;4.0142;
1015.8000;0.2458;4.0192;
1016.1000;0.2450;4.0167;
1016.4000;0.2491;4.0268;
1016.7000;0.2475;4.0192;
1017.0000;0.2450;4.0117;
1017.3000;0.2458;4.0092;
1017.6000;0.2426;3.9966;
1017.9000;0.2466;3.9991;
1018.2000;0.2458;4.0016;
1018.5000;0.2466;4.0042;
1018.8000;0.2426;3.9941;
1019.1000;0.2450;3.9966;
1019.4000;0.2450;4.0167;
1019.7000;0.2458;4.0218;
1020.0000;0.2442;4.0218;
1020.3000;0.2426;4.0243;
1020.6000;0.2475;4.0368;
1020.9000;0.2442;4.0243;
1021.2000;0.2418;4.0192;
1021.5000;0.2418;4.0092;
1021.8000;0.2426;4.0067;
1022.1000;0.2442;4.0117;
1022.4000;0.2418;3.9916;
1022.7000;0.2369;3.9840;
1023.0000;0.2426;4.0067;
1023.3000;0.2499;4.0293;
1023.6000;0.2434;4.0117;
1023.9000;0.2475;4.0167;
1024.2000;0.2426;4.0117;
1024.5000;0.2442;4.0142;
1024.8000;0.2434;4.0092;
1025.1000;0.2466;4.0142;
1025.4000;0.2466;4.0117;
1025.7000;0.2475;4.0067;
1026.0000;0.2499;4.0167;
1026.3000;0.2418;3.9941;
1026.6000;0.2434;4.0092;
1026.9000;0.2458;4.0117;
1027.2000;0.2418;4.0092;
1027.5000;0.2434;4.0142;
1027.8000;0.2450;4.0218;
1028.1000;0.2450;4.0167;
1028.4000;0.2483;4.0243;
1028.7000;0.2458;4.0218;
1029.0000;0.2426;4.0142;
1029.3000;0.2442;4.0142;
1029.6000;0.2434;4.0117;
1029.9000;0.2418;4.0092;
1030.2000;0.2434;4.0117;
1030.5000;0.2434;4.0092;
1030.8000;0.2515;4.0318;
1031.1000;0.2450;4.0117;
1031.4000;0.2483;4.0167;
1031.7000;0.2442;4.0167;
1032.0000;0.2458;4.0243;
1032.3000;0.2450;4.0268;
1032.6000;0.2450;4.0243;
1032.9000;0.2442;4.0192;
1033.2000;0.2442;4.0243;
1033.5000;0.2458;4.0243;
1033.8000;0.2442;4.0167;
1034.1000;0.2442;4.0142;
1034.4000;0.2475;4.0268;
1034.7000;0.2458;4.0192;
1035.0000;0.2442;4.0243;
1035.3000;0.2352;4.0042;
1035.6000;0.2442;4.0218;
1035.9000;0.2434;4.0293;
1036.2000;0.2418;4.0192;
1036.5000;0.2458;4.0268;
1036.8000;0.2458;4.0318;
1037.1000;0.2442;4.0394;
1037.4000;0.2491;4.0494;
1037.7000;0.2442;4.0444;
1038.0000;0.2442;4.0419;
1038.3000;0.2466;4.0494;
1038.6000;0.2450;4.0444;
1038.9000;0.2450;4.0494;
1039.2000;0.2491;4.0444;
1039.5000;0.2426;4.0293;
1039.8000;0.2434;4.0293;
1040.1000;0.2409;4.0117;
1040.4000;0.2450;4.0343;
1040.7000;0.2426;4.0318;
1041.0000;0.2418;4.0293;
1041.3000;0.2450;4.0444;
1041.6000;0.2475;4.0494;
1041.9000;0.2458;4.0444;
1042.2000;0.2442;4.0368;
1042.5000;0.2442;4.0218;
1042.8000;0.2483;4.0343;
1043.1000;0.2442;4.0368;
1043.4000;0.2450;4.0343;
1043.7000;0.2483;4.0394;
1044.0000;0.2450;4.0218;
1044.3000;0.2442;4.0192;
1044.6000;0.2442;4.0167;
1044.9000;0.2352;3.9991;
1045.2000;0.2434;4.0243;
1045.5000;0.2450;4.0268;
1045.8000;0.2434;4.0318;
1046.1000;0.2466;4.0343;
1046.4000;0.2434;4.0268;
1046.7000;0.2450;4.0293;
1047.0000;0.2426;4.0243;
1047.3000;0.2458;4.0318;
1047.6000;0.2442;4.0293;
1047.9000;0.2434;4.0318;
1048.2000;0.2442;4.0343;
1048.5000;0.2418;4.0293;
1048.8000;0.2442;4.0394;
1049.1000;0.2434;4.0419;
1049.4000;0.2434;4.0444;
1049.7000;0.2401;4.0268;
1050.0000;0.2450;4.0394;
1050.3000;0.2450;4.0343;
1050.6000;0.2450;4.0268;
1050.9000;0.2442;4.0293;
1051.2000;0.2434;4.0293;
1051.5000;0.2475;4.0318;
1051.8000;0.2426;4.0293;
1052.1000;0.2499;4.0545;
1052.4000;0.2426;4.0394;
1052.7000;0.2442;4.0343;
1053.0000;0.2458;4.0343;
1053.3000;0.2466;4.0343;
1053.6000;0.2434;4.0343;
1053.9000;0.2442;4.0318;
1054.2000;0.2458;4.0368;
1054.5000;0.2426;4.0293;
1054.8000;0.2401;4.0243;
1055.1000;0.2507;4.0545;
1055.4000;0.2458;4.0368;
1055.7000;0.2458;4.0419;
1056.0000;0.2442;4.0343;
1056.3000;0.2426;4.0318;
1056.6000;0.2442;4.0343;
1056.9000;0.2409;4.0268;
1057.2000;0.2466;4.0368;
1057.5000;0.2352;4.0167;
1057.8000;0.2458;4.0419;
1058.1000;0.2450;4.0318;
1058.4000;0.2385;4.0268;
1058.7000;0.2450;4.0394;
1059.0000;0.2450;4.0394;
1059.3000;0.2426;4.0343;
1059.6000;0.2393;4.0318;
1059.9000;0.2450;4.0469;
1060.2000;0.2442;4.0469;
1060.5000;0.2483;4.0645;
1060.8000;0.2450;4.0570;
1061.1000;0.2450;4.0444;
1061.4000;0.2442;4.0469;
1061.7000;0.2466;4.0494;
1062.0000;0.2450;4.0494;
1062.3000;0.2450;4.0494;
1062.6000;0.2426;4.0494;
1062.9000;0.2466;4.0494;
1063.2000;0.2450;4.0469;
1063.5000;0.2434;4.0368;
1063.8000;0.2434;4.0368;
1064.1000;0.2466;4.0394;
1064.4000;0.2475;4.0343;
1064.7000;0.2458;4.0368;
1065.0000;0.2442;4.0343;
1065.3000;0.2458;4.0368;
1065.6000;0.2491;4.0469;
1065.9000;0.2442;4.0293;
1066.2000;0.2466;4.0368;
1066.5000;0.2507;4.0444;
1066.8000;0.2458;4.0394;
1067.1000;0.2426;4.0293;
1067.4000;0.2385;4.0067;
1067.7000;0.2523;4.0368;
1068.0000;0.2426;4.0142;
1068.3000;0.2409;4.0067;
1068.6000;0.2434;4.0192;
1068.9000;0.2450;4.0243;
1069.2000;0.2466;4.0268;
1069.5000;0.2450;4.0268;
1069.8000;0.2401;4.0142;
1070.1000;0.2426;4.0243;
1070.4000;0.2466;4.0318;
1070.7000;0.2458;4.0318;
1071.0000;0.2466;4.0243;
1071.3000;0.2426;4.0218;
1071.6000;0.2458;4.0368;
1071.9000;0.2450;4.0343;
1072.2000;0.2426;4.0243;
1072.5000;0.2336;3.9891;
1072.8000;0.2434;4.0092;
1073.1000;0.2369;3.9941;
1073.4000;0.2450;4.0293;
1073.7000;0.2426;4.0192;
1074.0000;0.2426;4.0243;
1074.3000;0.2458;4.0394;
1074.6000;0.2589;4.0796;
1074.9000;0.2458;4.0318;
1075.2000;0.2450;4.0343;
1075.5000;0.2466;4.0419;
1075.8000;0.2548;4.0695;
1076.1000;0.2418;4.0394;
1076.4000;0.2442;4.0545;
1076.7000;0.2434;4.0469;
1077.0000;0.2418;4.0419;
1077.3000;0.2515;4.0695;
1077.6000;0.2409;4.0419;
1077.9000;0.2450;4.0469;
1078.2000;0.2458;4.0444;
1078.5000;0.2426;4.0243;
1078.8000;0.2450;4.0318;
1079.1000;0.2458;4.0343;
1079.4000;0.2434;4.0293;
1079.7000;0.2442;4.0368;
1080.0000;0.2450;4.0368;
1080.3000;0.2483;4.0469;
1080.6000;0.2385;4.0192;
1080.9000;0.2466;4.0419;
1081.2000;0.2483;4.0494;
1081.5000;0.2385;4.0293;
1081.8000;0.2450;4.0419;
1082.1000;0.2450;4.0343;
1082.4000;0.2450;4.0318;
1082.7000;0.2458;4.0343;
1083.0000;0.2426;4.0318;
1083.3000;0.2491;4.0570;
1083.6000;0.2450;4.0394;
1083.9000;0.2434;4.0368;
1084.2000;0.2458;4.0343;
1084.5000;0.2418;4.0218;
1084.8000;0.2458;4.0318;
1085.1000;0.2434;4.0394;
1085.4000;0.2458;4.0469;
1085.7000;0.2466;4.0469;
1086.0000;0.2434;4.0419;
1086.3000;0.2450;4.0444;
1086.6000;0.2418;4.0419;
1086.9000;0.2442;4.0444;
1087.2000;0.2475;4.0620;
1087.5000;0.2466;4.0570;
1087.8000;0.2442;4.0444;
1088.1000;0.2458;4.0444;
1088.4000;0.2426;4.0243;
1088.7000;0.2458;4.0243;
1089.0000;0.2458;4.0343;
1089.3000;0.2450;4.0318;
1089.6000;0.2442;4.0293;
1089.9000;0.2491;4.0293;
1090.2000;0.2409;4.0142;
1090.5000;0.2442;4.0268;
1090.8000;0.2361;4.0092;
1091.1000;0.2466;4.0444;
1091.4000;0.2475;4.0494;
1091.7000;0.2458;4.0343;
1092.0000;0.2434;4.0218;
1092.3000;0.2515;4.0444;
1092.6000;0.2466;4.0318;
1092.9000;0.2450;4.0243;
1093.2000;0.2507;4.0444;
1093.5000;0.2458;4.0318;
1093.8000;0.2426;4.0218;
1094.1000;0.2361;4.0117;
1094.4000;0.2466;4.0519;
1094.7000;0.2442;4.0343;
1095.0000;0.2515;4.0519;
1095.3000;0.2426;4.0343;
1095.6000;0.2475;4.0469;
1095.9000;0.2426;4.0318;
1096.2000;0.2352;4.0092;
1096.5000;0.2589;4.0721;
1096.8000;0.2466;4.0545;
1097.1000;0.2450;4.0545;
1097.4000;0.2483;4.0595;
1097.7000;0.2466;4.0519;
1098.0000;0.2442;4.0419;
1098.3000;0.2450;4.0545;
1098.6000;0.2458;4.0670;
1098.9000;0.2450;4.0645;
1099.2000;0.2515;4.0821;
1099.5000;0.2466;4.0570;
1099.8000;0.2377;4.0268;
1100.1000;0.2466;4.0519;
1100.4000;0.2434;4.0419;
1100.7000;0.2409;4.0293;
1101.0000;0.2466;4.0394;
1101.3000;0.2442;4.0318;
1101.6000;0.2385;4.0218;
1101.9000;0.2434;4.0394;
1102.2000;0.2434;4.0318;
1102.5000;0.2458;4.0394;
1102.8000;0.2466;4.0419;
1103.1000;0.2458;4.0394;
1103.4000;0.2434;4.0268;
1103.7000;0.2418;4.0142;
1104.0000;0.2377;3.9840;
1104.3000;0.2548;4.0394;
1104.6000;0.2434;4.0142;
1104.9000;0.2434;4.0268;
1105.2000;0.2442;4.0318;
1105.5000;0.2450;4.0343;
1105.8000;0.2434;4.0218;
1106.1000;0.2466;4.0243;
1106.4000;0.2393;3.9966;
1106.7000;0.2458;4.0192;
1107.0000;0.2458;4.0268;
1107.3000;0.2434;4.0192;
1107.6000;0.2434;4.0042;
1107.9000;0.2450;4.0142;
1108.2000;0.2418;4.0117;
1108.5000;0.2450;4.0293;
1108.8000;0.2434;4.0318;
1109.1000;0.2450;4.0293;
1109.4000;0.2418;4.0243;
1109.7000;0.2475;4.0444;
1110.0000;0.2450;4.0368;
1110.3000;0.2442;4.0343;
1110.6000;0.2450;4.0318;
1110.9000;0.2426;4.0243;
1111.2000;0.2466;4.0394;
1111.5000;0.2466;4.0419;
1111.8000;0.2466;4.0419;
1112.1000;0.2426;4.0268;
1112.4000;0.2466;4.0419;
1112.7000;0.2426;4.0318;
1113.0000;0.2532;4.0620;
1113.3000;0.2409;4.0268;
1113.6000;0.2426;4.0268;
1113.9000;0.2442;4.0268;
1114.2000;0.2426;4.0218;
1114.5000;0.2450;4.0368;
1114.8000;0.2458;4.0368;
1115.1000;0.2458;4.0394;
1115.4000;0.2442;4.0394;
1115.7000;0.2458;4.0394;
1116.0000;0.2336;4.0016;
1116.3000;0.2458;4.0494;
1116.6000;0.2475;4.0545;
1116.9000;0.2475;4.0519;
1117.2000;0.2409;4.0293;
1117.5000;0.2409;4.0293;
1117.8000;0.2475;4.0444;
1118.1000;0.2507;4.0620;
1118.4000;0.2434;4.0469;
1118.7000;0.2434;4.0343;
1119.0000;0.2499;4.0519;
1119.3000;0.2466;4.0419;
1119.6000;0.2401;4.0243;
1119.9000;0.2450;4.0318;
1120.2000;0.2442;4.0293;
1120.5000;0.2442;4.0293;
1120.8000;0.2418;4.0243;
1121.1000;0.2466;4.0343;
1121.4000;0.2450;4.0268;
1121.7000;0.2483;4.0368;
1122.0000;0.2450;4.0368;
1122.3000;0.2458;4.0343;
1122.6000;0.2393;4.0117;
1122.9000;0.2442;4.0192;
1123.2000;0.2426;4.0167;
1123.5000;0.2450;4.0268;
1123.8000;0.2442;4.0218;
1124.1000;0.2442;4.0218;
1124.4000;0.2450;4.0243;
1124.7000;0.2442;4.0243;
1125.0000;0.2442;4.0343;
1125.3000;0.2418;4.0268;
1125.6000;0.2475;4.0368;
1125.9000;0.2499;4.0419;
1126.2000;0.2466;4.0368;
1126.5000;0.2401;4.0167;
1126.8000;0.2475;4.0243;
1127.1000;0.2426;4.0192;
1127.4000;0.2426;4.0268;
1127.7000;0.2466;4.0469;
1128.0000;0.2442;4.0368;
1128.3000;0.2442;4.0293;
1128.6000;0.2426;4.0167;
1128.9000;0.2442;4.0293;
1129.2000;0.2361;4.0117;
1129.5000;0.2483;4.0494;
1129.8000;0.2458;4.0444;
1130.1000;0.2458;4.0419;
1130.4000;0.2426;4.0368;
1130.7000;0.2434;4.0394;
1131.0000;0.2450;4.0268;
1131.3000;0.2499;4.0469;
1131.6000;0.2532;4.0469;
1131.9000;0.2369;3.9966;
1132.2000;0.2401;4.0092;
1132.5000;0.2369;3.9941;
1132.8000;0.2491;4.0218;
1133.1000;0.2426;4.0067;
1133.4000;0.2475;4.0192;
1133.7000;0.2442;4.0167;
1134.0000;0.2426;4.0142;
1134.3000;0.2475;4.0368;
1134.6000;0.2466;4.0368;
1134.9000;0.2458;4.0368;
1135.2000;0.2483;4.0469;
1135.5000;0.2442;4.0368;
1135.8000;0.2442;4.0268;
1136.1000;0.2426;4.0243;
1136.4000;0.2442;4.0218;
1136.7000;0.2458;4.0243;
1137.0000;0.2458;4.0192;
1137.3000;0.2466;4.0142;
1137.6000;0.2450;4.0142;
1137.9000;0.2426;4.0142;
1138.2000;0.2475;4.0268;
1138.5000;0.2361;4.0016;
1138.8000;0.2434;4.0092;
1139.1000;0.2466;4.0192;
1139.4000;0.2491;4.0293;
1139.7000;0.2377;4.0042;
1140.0000;0.2450;4.0293;
1140.3000;0.2458;4.0368;
1140.6000;0.2458;4.0368;
1140.9000;0.2466;4.0444;
1141.2000;0.2434;4.0444;
1141.5000;0.2442;4.0343;
1141.8000;0.2483;4.0419;
1142.1000;0.2434;4.0343;
1142.4000;0.2450;4.0343;
1142.7000;0.2442;4.0268;
1143.0000;0.2466;4.0343;
1143.3000;0.2458;4.0444;
1143.6000;0.2450;4.0368;
1143.9000;0.2442;4.0343;
1144.2000;0.2458;4.0318;
1144.5000;0.2361;4.0142;
1144.8000;0.2409;4.0318;
1145.1000;0.2344;4.0042;
1145.4000;0.2450;4.0394;
1145.7000;0.2434;4.0444;
1146.0000;0.2466;4.0570;
1146.3000;0.2401;4.0419;
1146.6000;0.2418;4.0444;
1146.9000;0.2475;4.0545;
1147.2000;0.2434;4.0394;
1147.5000;0.2458;4.0444;
1147.8000;0.2442;4.0318;
1148.1000;0.2450;4.0343;
1148.4000;0.2450;4.0444;
1148.7000;0.2450;4.0343;
1149.0000;0.2426;4.0268;
1149.3000;0.2450;4.0494;
1149.6000;0.2442;4.0494;
1149.9000;0.2458;4.0444;
1150.2000;0.2393;4.0318;
1150.5000;0.2458;4.0444;
1150.8000;0.2442;4.0394;
1151.1000;0.2418;4.0293;
1151.4000;0.2418;4.0318;
1151.7000;0.2426;4.0343;
1152.0000;0.2475;4.0444;
1152.3000;0.2475;4.0419;
1152.6000;0.2499;4.0469;
1152.9000;0.2434;4.0368;
1153.2000;0.2532;4.0670;
1153.5000;0.2475;4.0570;
1153.8000;0.2442;4.0444;
1154.1000;0.2426;4.0343;
1154.4000;0.2450;4.0318;
1154.7000;0.2483;4.0343;
1155.0000;0.2450;4.0318;
1155.3000;0.2442;4.0318;
1155.6000;0.2466;4.0293;
1155.9000;0.2507;4.0368;
1156.2000;0.2426;4.0167;
1156.5000;0.2458;4.0243;
1156.8000;0.2426;4.0092;
1157.1000;0.2466;4.0293;
1157.4000;0.2450;4.0268;
1157.7000;0.2409;4.0117;
1158.0000;0.2458;4.0218;
1158.3000;0.2450;4.0243;
1158.6000;0.2442;4.0218;
1158.9000;0.2450;4.0293;
1159.2000;0.2458;4.0268;
1159.5000;0.2458;4.0368;
1159.8000;0.2458;4.0394;
1160.1000;0.2434;4.0368;
1160.4000;0.2475;4.0545;
1160.7000;0.2450;4.0368;
1161.0000;0.2434;4.0218;
1161.3000;0.2442;4.0218;
1161.6000;0.2458;4.0192;
1161.9000;0.2442;4.0218;
1162.2000;0.2442;4.0218;
1162.5000;0.2426;4.0092;
1162.8000;0.2450;4.0243;
1163.1000;0.2426;4.0117;
1163.4000;0.2458;4.0192;
1163.7000;0.2450;4.0192;
1164.0000;0.2320;3.9891;
1164.3000;0.2418;4.0092;
1164.6000;0.2483;4.0293;
1164.9000;0.2507;4.0268;
1165.2000;0.2426;4.0042;
1165.5000;0.2466;4.0243;
1165.8000;0.2458;4.0293;
1166.1000;0.2336;4.0016;
1166.4000;0.2466;4.0419;
1166.7000;0.2434;4.0192;
1167.0000;0.2377;3.9966;
1167.3000;0.2475;4.0243;
1167.6000;0.2442;4.0167;
1167.9000;0.2450;4.0192;
1168.2000;0.2409;4.0192;
1168.5000;0.2434;4.0218;
1168.8000;0.2597;4.0746;
1169.1000;0.2304;3.9865;
1169.4000;0.2458;4.0218;
1169.7000;0.2361;3.9991;
1170.0000;0.2458;4.0092;
1170.3000;0.2385;3.9941;
1170.6000;0.2442;4.0117;
1170.9000;0.2458;4.0192;
1171.2000;0.2442;4.0067;
1171.5000;0.2434;4.0092;
1171.8000;0.2450;4.0092;
1172.1000;0.2556;4.0419;
1172.4000;0.2458;4.0192;
1172.7000;0.2458;4.0243;
1173.0000;0.2458;4.0218;
1173.3000;0.2450;4.0192;
1173.6000;0.2442;4.0218;
1173.9000;0.2499;4.0343;
1174.2000;0.2426;4.0092;
1174.5000;0.2361;3.9865;
1174.8000;0.2450;4.0167;
1175.1000;0.2458;4.0117;
1175.4000;0.2385;3.9941;
1175.7000;0.2483;4.0142;
1176.0000;0.2450;4.0117;
1176.3000;0.2458;4.0067;
1176.6000;0.2418;3.9891;
1176.9000;0.2458;4.0042;
1177.2000;0.2515;4.0243;
1177.5000;0.2328;3.9790;
1177.8000;0.2442;4.0117;
1178.1000;0.2434;4.0117;
1178.4000;0.2475;4.0268;
1178.7000;0.2450;4.0268;
1179.0000;0.2466;4.0268;
1179.3000;0.2401;4.0092;
1179.6000;0.2434;4.0167;
1179.9000;0.2572;4.0519;
1180.2000;0.2450;4.0218;
1180.5000;0.2491;4.0419;
1180.8000;0.2442;4.0368;
1181.1000;0.2466;4.0444;
1181.4000;0.2450;4.0419;
1181.7000;0.2442;4.0343;
1182.0000;0.2458;4.0444;
1182.3000;0.2458;4.0444;
1182.6000;0.2442;4.0394;
1182.9000;0.2532;4.0670;
1183.2000;0.2442;4.0394;
1183.5000;0.2475;4.0570;
1183.8000;0.2458;4.0368;
1184.1000;0.2442;4.0318;
1184.4000;0.2450;4.0243;
1184.7000;0.2442;4.0167;
1185.0000;0.2475;4.0293;
1185.3000;0.2401;4.0092;
1185.6000;0.2580;4.0695;
1185.9000;0.2458;4.0394;
1186.2000;0.2483;4.0444;
1186.5000;0.2320;3.9941;
1186.8000;0.2458;4.0343;
1187.1000;0.2409;4.0268;
1187.4000;0.2434;4.0268;
1187.7000;0.2466;4.0368;
1188.0000;0.2328;4.0067;
1188.3000;0.2507;4.0595;
1188.6000;0.2475;4.0620;
1188.9000;0.2450;4.0494;
1189.2000;0.2442;4.0494;
1189.5000;0.2450;4.0368;
1189.8000;0.2409;4.0368;
1190.1000;0.2458;4.0419;
1190.4000;0.2466;4.0394;
1190.7000;0.2458;4.0343;
1191.0000;0.2466;4.0394;
1191.3000;0.2442;4.0368;
1191.6000;0.2475;4.0444;
1191.9000;0.2458;4.0318;
1192.2000;0.2442;4.0268;
1192.5000;0.2442;4.0243;
1192.8000;0.2491;4.0394;
1193.1000;0.2442;4.0167;
1193.4000;0.2409;4.0142;
1193.7000;0.2466;4.0318;
1194.0000;0.2442;4.0167;
1194.3000;0.2450;4.0192;
1194.6000;0.2466;4.0218;
1194.9000;0.2442;4.0192;
1195.2000;0.2434;4.0192;
1195.5000;0.2450;4.0218;
1195.8000;0.2434;4.0192;
1196.1000;0.2458;4.0343;
1196.4000;0.2458;4.0368;
1196.7000;0.2458;4.0343;
1197.0000;0.2442;4.0268;
1197.3000;0.2458;4.0268;
1197.6000;0.2434;4.0268;
1197.9000;0.2450;4.0243;
1198.2000;0.2426;4.0167;
1198.5000;0.2393;4.0067;
1198.8000;0.2450;4.0243;
1199.1000;0.2385;4.0067;
1199.4000;0.2434;4.0218;
1199.7000;0.2426;4.0218;
1200.0000;0.2466;4.0318;
1200.3000;0.2442;4.0343;
1200.6000;0.2442;4.0394;
1200.9000;0.2434;4.0394;
1201.2000;0.2450;4.0368;
1201.5000;0.2336;4.0042;
1201.8000;0.2426;4.0293;
1202.1000;0.2442;4.0293;
1202.4000;0.2450;4.0419;
1202.7000;0.2475;4.0469;
1203.0000;0.2450;4.0444;
1203.3000;0.2442;4.0368;
1203.6000;0.2466;4.0444;
1203.9000;0.2466;4.0469;
1204.2000;0.2409;4.0318;
1204.5000;0.2434;4.0318;
1204.8000;0.2450;4.0293;
1205.1000;0.2426;4.0268;
1205.4000;0.2442;4.0318;
1205.7000;0.2475;4.0343;
1206.0000;0.2393;4.0117;
1206.3000;0.2499;4.0343;
1206.6000;0.2523;4.0519;
1206.9000;0.2532;4.0494;
1207.2000;0.2434;4.0192;
1207.5000;0.2377;3.9991;
1207.8000;0.2442;4.0218;
1208.1000;0.2442;4.0167;
1208.4000;0.2409;4.0117;
1208.7000;0.2580;4.0595;
1209.0000;0.2491;4.0268;
1209.3000;0.2458;4.0192;
1209.6000;0.2426;4.0192;
1209.9000;0.2450;4.0192;
1210.2000;0.2450;4.0343;
1210.5000;0.2434;4.0343;
1210.8000;0.2458;4.0368;
1211.1000;0.2532;4.0620;
1211.4000;0.2466;4.0394;
1211.7000;0.2515;4.0519;
1212.0000;0.2458;4.0419;
1212.3000;0.2426;4.0343;
1212.6000;0.2442;4.0419;
1212.9000;0.2458;4.0444;
1213.2000;0.2434;4.0368;
1213.5000;0.2466;4.0293;
1213.8000;0.2426;4.0218;
1214.1000;0.2442;4.0167;
1214.4000;0.2450;4.0318;
1214.7000;0.2475;4.0293;
1215.0000;0.2450;4.0167;
1215.3000;0.2442;4.0167;
1215.6000;0.2466;4.0218;
1215.9000;0.2450;4.0142;
1216.2000;0.2450;4.0142;
1216.5000;0.2426;4.0142;
1216.8000;0.2434;4.0167;
1217.1000;0.2466;4.0218;
1217.4000;0.2434;4.0167;
1217.7000;0.2409;4.0218;
1218.0000;0.2466;4.0394;
1218.3000;0.2491;4.0570;
1218.6000;0.2442;4.0394;
1218.9000;0.2491;4.0494;
1219.2000;0.2466;4.0394;
1219.5000;0.2466;4.0419;
1219.8000;0.2442;4.0394;
1220.1000;0.2564;4.0670;
1220.4000;0.2450;4.0293;
1220.7000;0.2450;4.0268;
1221.0000;0.2418;4.0192;
1221.3000;0.2409;4.0167;
1221.6000;0.2548;4.0545;
1221.9000;0.2458;4.0368;
1222.2000;0.2434;4.0394;
1222.5000;0.2475;4.0494;
1222.8000;0.2458;4.0519;
1223.1000;0.2434;4.0519;
1223.4000;0.2442;4.0595;
1223.7000;0.2442;4.0545;
1224.0000;0.2418;4.0368;
1224.3000;0.2418;4.0368;
1224.6000;0.2442;4.0318;
1224.9000;0.2450;4.0293;
1225.2000;0.2458;4.0368;
1225.5000;0.2475;4.0444;
1225.8000;0.2426;4.0343;
1226.1000;0.2458;4.0444;
1226.4000;0.2450;4.0394;
1226.7000;0.2458;4.0394;
1227.0000;0.2483;4.0444;
1227.3000;0.2450;4.0293;
1227.6000;0.2450;4.0293;
1227.9000;0.2442;4.0243;
1228.2000;0.2532;4.0444;
1228.5000;0.2434;4.0142;
1228.8000;0.2458;4.0318;
1229.1000;0.2344;4.0042;
1229.4000;0.2458;4.0343;
1229.7000;0.2426;4.0243;
1230.0000;0.2483;4.0318;
1230.3000;0.2434;4.0192;
1230.6000;0.2532;4.0419;
1230.9000;0.2401;4.0016;
1231.2000;0.2450;4.0218;
1231.5000;0.2393;4.0092;
1231.8000;0.2434;4.0218;
1232.1000;0.2532;4.0545;
1232.4000;0.2434;4.0343;
1232.7000;0.2434;4.0394;
1233.0000;0.2442;4.0469;
1233.3000;0.2458;4.0494;
1233.6000;0.2442;4.0444;
1233.9000;0.2499;4.0570;
1234.2000;0.2450;4.0595;
1234.5000;0.2393;4.0469;
1234.8000;0.2466;4.0620;
1235.1000;0.2613;4.0972;
1235.4000;0.2450;4.0469;
1235.7000;0.2466;4.0469;
1236.0000;0.2507;4.0444;
1236.3000;0.2458;4.0218;
1236.6000;0.2458;4.0268;
1236.9000;0.2475;4.0268;
1237.2000;0.2418;4.0092;
1237.5000;0.2442;4.0192;
1237.8000;0.2450;4.0268;
1238.1000;0.2434;4.0167;
1238.4000;0.2475;4.0293;
1238.7000;0.2434;4.0192;
1239.0000;0.2312;3.9991;
1239.3000;0.2450;4.0368;
1239.6000;0.2483;4.0469;
1239.9000;0.2458;4.0394;
1240.2000;0.2442;4.0368;
1240.5000;0.2466;4.0394;
1240.8000;0.2352;4.0218;
1241.1000;0.2434;4.0469;
1241.4000;0.2475;4.0670;
1241.7000;0.2466;4.0620;
1242.0000;0.2466;4.0519;
1242.3000;0.2426;4.0494;
1242.6000;0.2458;4.0519;
1242.9000;0.2442;4.0469;
1243.2000;0.2466;4.0595;
1243.5000;0.2458;4.0545;
1243.8000;0.2466;4.0570;
1244.1000;0.2475;4.0494;
1244.4000;0.2466;4.0419;
1244.7000;0.2491;4.0469;
1245.0000;0.2475;4.0469;
1245.3000;0.2377;4.0268;
1245.6000;0.2369;4.0268;
1245.9000;0.2450;4.0595;
1246.2000;0.2491;4.0721;
1246.5000;0.2369;4.0394;
1246.8000;0.2442;4.0620;
1247.1000;0.2458;4.0670;
1247.4000;0.2572;4.1022;
1247.7000;0.2458;4.0670;
1248.0000;0.2507;4.0746;
1248.3000;0.2515;4.0670;
1248.6000;0.2466;4.0494;
1248.9000;0.2442;4.0469;
1249.2000;0.2409;4.0343;
1249.5000;0.2442;4.0469;
1249.8000;0.2426;4.0419;
1250.1000;0.2393;4.0268;
1250.4000;0.2434;4.0368;
1250.7000;0.2466;4.0419;
1251.0000;0.2450;4.0394;
1251.3000;0.2426;4.0343;
1251.6000;0.2442;4.0494;
1251.9000;0.2442;4.0469;
1252.2000;0.2434;4.0394;
1252.5000;0.2450;4.0519;
1252.8000;0.2450;4.0494;
1253.1000;0.2442;4.0519;
1253.4000;0.2434;4.0545;
1253.7000;0.2442;4.0645;
1254.0000;0.2450;4.0620;
1254.3000;0.2450;4.0595;
1254.6000;0.2450;4.0570;
1254.9000;0.2426;4.0494;
1255.2000;0.2458;4.0620;
1255.5000;0.2572;4.0947;
1255.8000;0.2434;4.0494;
1256.1000;0.2450;4.0469;
1256.4000;0.2450;4.0469;
1256.7000;0.2466;4.0494;
1257.0000;0.2515;4.0721;
1257.3000;0.2491;4.0595;
1257.6000;0.2458;4.0570;
1257.9000;0.2426;4.0494;
1258.2000;0.2466;4.0519;
1258.5000;0.2426;4.0419;
1258.8000;0.2442;4.0545;
1259.1000;0.2499;4.0721;
1259.4000;0.2434;4.0519;
1259.7000;0.2466;4.0595;
1260.0000;0.2466;4.0695;
1260.3000;0.2466;4.0670;
1260.6000;0.2434;4.0545;
1260.9000;0.2458;4.0620;
1261.2000;0.2409;4.0570;
1261.5000;0.2483;4.0670;
1261.8000;0.2442;4.0620;
1262.1000;0.2442;4.0620;
1262.4000;0.2475;4.0570;
1262.7000;0.2466;4.0494;
1263.0000;0.2466;4.0469;
1263.3000;0.2458;4.0494;
1263.6000;0.2458;4.0519;
1263.9000;0.2426;4.0394;
1264.2000;0.2426;4.0444;
1264.5000;0.2475;4.0570;
1264.8000;0.2442;4.0595;
1265.1000;0.2458;4.0645;
1265.4000;0.2442;4.0620;
1265.7000;0.2442;4.0519;
1266.0000;0.2475;4.0570;
1266.3000;0.2442;4.0494;
1266.6000;0.2450;4.0545;
1266.9000;0.2434;4.0469;
1267.2000;0.2426;4.0469;
1267.5000;0.2483;4.0595;
1267.8000;0.2442;4.0444;
1268.1000;0.2426;4.0394;
1268.4000;0.2458;4.0469;
1268.7000;0.2483;4.0595;
1269.0000;0.2442;4.0519;
1269.3000;0.2515;4.0645;
1269.6000;0.2499;4.0595;
1269.9000;0.2458;4.0444;
1270.2000;0.2361;4.0218;
1270.5000;0.2458;4.0469;
1270.8000;0.2434;4.0494;
1271.1000;0.2458;4.0570;
1271.4000;0.2336;4.0318;
1271.7000;0.2450;4.0695;
1272.0000;0.2475;4.0721;
1272.3000;0.2450;4.0721;
1272.6000;0.2491;4.0846;
1272.9000;0.2466;4.0721;
1273.2000;0.2442;4.0670;
1273.5000;0.2426;4.0570;
1273.8000;0.2434;4.0620;
1274.1000;0.2450;4.0645;
1274.4000;0.2475;4.0645;
1274.7000;0.2434;4.0620;
1275.0000;0.2450;4.0695;
1275.3000;0.2466;4.0771;
1275.6000;0.2418;4.0620;
1275.9000;0.2377;4.0545;
1276.2000;0.2466;4.0746;
1276.5000;0.2450;4.0670;
1276.8000;0.2442;4.0645;
1277.1000;0.2458;4.0670;
1277.4000;0.2434;4.0670;
1277.7000;0.2450;4.0721;
1278.0000;0.2442;4.0721;
1278.3000;0.2458;4.0771;
1278.6000;0.2450;4.0796;
1278.9000;0.2458;4.0897;
1279.2000;0.2605;4.1274;
1279.5000;0.2450;4.0771;
1279.8000;0.2450;4.0670;
1280.1000;0.2385;4.0444;
1280.4000;0.2597;4.1022;
1280.7000;0.2491;4.0620;
1281.0000;0.2450;4.0545;
1281.3000;0.2450;4.0469;
1281.6000;0.2499;4.0494;
1281.9000;0.2442;4.0293;
1282.2000;0.2450;4.0394;
1282.5000;0.2442;4.0293;
1282.8000;0.2458;4.0368;
1283.1000;0.2483;4.0469;
1283.4000;0.2426;4.0318;
1283.7000;0.2401;4.0318;
1284.0000;0.2450;4.0444;
1284.3000;0.2466;4.0545;
1284.6000;0.2450;4.0545;
1284.9000;0.2458;4.0595;
1285.2000;0.2450;4.0545;
1285.5000;0.2442;4.0494;
1285.8000;0.2450;4.0595;
1286.1000;0.2393;4.0494;
1286.4000;0.2475;4.0771;
1286.7000;0.2434;4.0620;
1287.0000;0.2434;4.0670;
1287.3000;0.2499;4.0746;
1287.6000;0.2450;4.0570;
1287.9000;0.2475;4.0695;
1288.2000;0.2450;4.0595;
1288.5000;0.2434;4.0494;
1288.8000;0.2466;4.0746;
1289.1000;0.2475;4.0695;
1289.4000;0.2466;4.0595;
1289.7000;0.2442;4.0444;
1290.0000;0.2442;4.0444;
1290.3000;0.2426;4.0469;
1290.6000;0.2466;4.0494;
1290.9000;0.2426;4.0419;
1291.2000;0.2466;4.0494;
1291.5000;0.2450;4.0444;
1291.8000;0.2450;4.0494;
1292.1000;0.2458;4.0545;
1292.4000;0.2401;4.0318;
1292.7000;0.2466;4.0620;
1293.0000;0.2442;4.0645;
1293.3000;0.2458;4.0645;
1293.6000;0.2434;4.0595;
1293.9000;0.2426;4.0494;
1294.2000;0.2475;4.0695;
1294.5000;0.2450;4.0620;
1294.8000;0.2450;4.0494;
1295.1000;0.2458;4.0368;
1295.4000;0.2466;4.0419;
1295.7000;0.2344;4.0117;
1296.0000;0.2385;4.0268;
1296.3000;0.2426;4.0494;
1296.6000;0.2515;4.0796;
1296.9000;0.2491;4.0796;
1297.2000;0.2483;4.0821;
1297.5000;0.2434;4.0670;
1297.8000;0.2458;4.0746;
1298.1000;0.2418;4.0645;
1298.4000;0.2458;4.0695;
1298.7000;0.2434;4.0595;
1299.0000;0.2450;4.0620;
1299.3000;0.2466;4.0670;
1299.6000;0.2426;4.0595;
1299.9000;0.2393;4.0519;
1300.2000;0.2385;4.0494;
1300.5000;0.2450;4.0670;
1300.8000;0.2458;4.0746;
1301.1000;0.2450;4.0796;
1301.4000;0.2393;4.0620;
1301.7000;0.2483;4.0796;
1302.0000;0.2450;4.0695;
1302.3000;0.2507;4.0947;
1302.6000;0.2450;4.0796;
1302.9000;0.2499;4.0947;
1303.2000;0.2475;4.0796;
1303.5000;0.2499;4.0821;
1303.8000;0.2458;4.0695;
1304.1000;0.2475;4.0670;
1304.4000;0.2523;4.0922;
1304.7000;0.2458;4.0721;
1305.0000;0.2458;4.0645;
1305.3000;0.2434;4.0519;
1305.6000;0.2450;4.0519;
1305.9000;0.2475;4.0595;
1306.2000;0.2450;4.0595;
1306.5000;0.2442;4.0570;
1306.8000;0.2450;4.0494;
1307.1000;0.2418;4.0494;
1307.4000;0.2426;4.0469;
1307.7000;0.2475;4.0570;
1308.0000;0.2458;4.0545;
1308.3000;0.2458;4.0620;
1308.6000;0.2434;4.0570;
1308.9000;0.2458;4.0620;
1309.2000;0.2450;4.0670;
1309.5000;0.2442;4.0721;
1309.8000;0.2466;4.0645;
1310.1000;0.2418;4.0519;
1310.4000;0.2466;4.0645;
1310.7000;0.2466;4.0620;
1311.0000;0.2434;4.0545;
1311.3000;0.2434;4.0595;
1311.6000;0.2499;4.0796;
1311.9000;0.2450;4.0645;
1312.2000;0.2450;4.0595;
1312.5000;0.2458;4.0721;
1312.8000;0.2483;4.0721;
1313.1000;0.2458;4.0645;
1313.4000;0.2442;4.0595;
1313.7000;0.2499;4.0846;
1314.0000;0.2434;4.0771;
1314.3000;0.2434;4.0771;
1314.6000;0.2483;4.0821;
1314.9000;0.2475;4.0746;
1315.2000;0.2483;4.0846;
1315.5000;0.2540;4.0972;
1315.8000;0.2450;4.0746;
1316.1000;0.2442;4.0746;
1316.4000;0.2475;4.0922;
1316.7000;0.2475;4.0846;
1317.0000;0.2442;4.0771;
1317.3000;0.2377;4.0545;
1317.6000;0.2458;4.0796;
1317.9000;0.2466;4.0721;
1318.2000;0.2361;4.0368;
1318.5000;0.2458;4.0645;
1318.8000;0.2442;4.0545;
1319.1000;0.2442;4.0494;
1319.4000;0.2450;4.0519;
1319.7000;0.2426;4.0444;
1320.0000;0.2458;4.0469;
1320.3000;0.2466;4.0545;
1320.6000;0.2458;4.0444;
1320.9000;0.2458;4.0469;
1321.2000;0.2450;4.0570;
1321.5000;0.2466;4.0695;
1321.8000;0.2458;4.0695;
1322.1000;0.2450;4.0771;
1322.4000;0.2450;4.0695;
1322.7000;0.2458;4.0821;
1323.0000;0.2548;4.1098;
1323.3000;0.2393;4.0645;
1323.6000;0.2442;4.0796;
1323.9000;0.2442;4.0695;
1324.2000;0.2434;4.0670;
1324.5000;0.2409;4.0570;
1324.8000;0.2442;4.0821;
1325.1000;0.2491;4.0997;
1325.4000;0.2385;4.0771;
1325.7000;0.2320;4.0519;
1326.0000;0.2401;4.0746;
1326.3000;0.2418;4.0695;
1326.6000;0.2475;4.0796;
1326.9000;0.2442;4.0670;
1327.2000;0.2450;4.0620;
1327.5000;0.2507;4.0670;
1327.8000;0.2434;4.0419;
1328.1000;0.2450;4.0394;
1328.4000;0.2458;4.0444;
1328.7000;0.2401;4.0293;
1329.0000;0.2491;4.0545;
1329.3000;0.2426;4.0394;
1329.6000;0.2458;4.0394;
1329.9000;0.2442;4.0368;
1330.2000;0.2344;4.0117;
1330.5000;0.2450;4.0394;
1330.8000;0.2426;4.0394;
1331.1000;0.2499;4.0570;
1331.4000;0.2442;4.0494;
1331.7000;0.2450;4.0494;
1332.0000;0.2442;4.0570;
1332.3000;0.2434;4.0620;
1332.6000;0.2458;4.0695;
1332.9000;0.2442;4.0821;
1333.2000;0.2369;4.0645;
1333.5000;0.2409;4.0746;
1333.8000;0.2442;4.0872;
1334.1000;0.2434;4.0721;
1334.4000;0.2466;4.0872;
1334.7000;0.2426;4.0771;
1335.0000;0.2450;4.0746;
1335.3000;0.2434;4.0570;
1335.6000;0.2434;4.0444;
1335.9000;0.2466;4.0570;
1336.2000;0.2475;4.0695;
1336.5000;0.2483;4.0746;
1336.8000;0.2434;4.0595;
1337.1000;0.2434;4.0645;
1337.4000;0.2466;4.0796;
1337.7000;0.2507;4.0872;
1338.0000;0.2450;4.0620;
1338.3000;0.2434;4.0570;
1338.6000;0.2442;4.0670;
1338.9000;0.2458;4.0721;
1339.2000;0.2336;4.0318;
1339.5000;0.2352;4.0368;
1339.8000;0.2385;4.0545;
1340.1000;0.2434;4.0670;
1340.4000;0.2393;4.0570;
1340.7000;0.2458;4.0695;
1341.0000;0.2458;4.0721;
1341.3000;0.2401;4.0545;
1341.6000;0.2499;4.0771;
1341.9000;0.2475;4.0670;
1342.2000;0.2483;4.0771;
1342.5000;0.2515;4.0771;
1342.8000;0.2458;4.0545;
1343.1000;0.2450;4.0570;
1343.4000;0.2450;4.0620;
1343.7000;0.2450;4.0645;
1344.0000;0.2442;4.0645;
1344.3000;0.2458;4.0695;
1344.6000;0.2499;4.0771;
1344.9000;0.2483;4.0746;
1345.2000;0.2426;4.0670;
1345.5000;0.2458;4.0670;
1345.8000;0.2458;4.0670;
1346.1000;0.2426;4.0595;
1346.4000;0.2475;4.0695;
1346.7000;0.2458;4.0670;
1347.0000;0.2458;4.0670;
1347.3000;0.2466;4.0670;
1347.6000;0.2475;4.0746;
1347.9000;0.2458;4.0670;
1348.2000;0.2458;4.0695;
1348.5000;0.2434;4.0620;
1348.8000;0.2458;4.0670;
1349.1000;0.2434;4.0645;
1349.4000;0.2458;4.0620;
1349.7000;0.2515;4.0872;
1350.0000;0.2458;4.0545;
1350.3000;0.2442;4.0570;
1350.6000;0.2466;4.0595;
1350.9000;0.2434;4.0419;
1351.2000;0.2450;4.0494;
1351.5000;0.2458;4.0494;
1351.8000;0.2450;4.0469;
1352.1000;0.2580;4.0796;
1352.4000;0.2426;4.0469;
1352.7000;0.2466;4.0570;
1353.0000;0.2491;4.0545;
1353.3000;0.2507;4.0519;
1353.6000;0.2450;4.0419;
1353.9000;0.2499;4.0519;
1354.2000;0.2589;4.0846;
1354.5000;0.2450;4.0469;
1354.8000;0.2450;4.0419;
1355.1000;0.2450;4.0318;
1355.4000;0.2442;4.0343;
1355.7000;0.2466;4.0419;
1356.0000;0.2458;4.0419;
1356.3000;0.2426;4.0394;
1356.6000;0.2475;4.0570;
1356.9000;0.2556;4.0796;
1357.2000;0.2450;4.0444;
1357.5000;0.2418;4.0343;
1357.8000;0.2466;4.0494;
1358.1000;0.2450;4.0394;
1358.4000;0.2475;4.0444;
1358.7000;0.2426;4.0368;
1359.0000;0.2434;4.0394;
1359.3000;0.2426;4.0444;
1359.6000;0.2523;4.0695;
1359.9000;0.2475;4.0570;
1360.2000;0.2499;4.0670;
1360.5000;0.2393;4.0368;
1360.8000;0.2483;4.0620;
1361.1000;0.2475;4.0620;
1361.4000;0.2450;4.0570;
1361.7000;0.2450;4.0469;
1362.0000;0.2532;4.0670;
1362.3000;0.2409;4.0394;
1362.6000;0.2532;4.0670;
1362.9000;0.2385;4.0268;
1363.2000;0.2426;4.0368;
1363.5000;0.2442;4.0444;
1363.8000;0.2523;4.0746;
1364.1000;0.2450;4.0545;
1364.4000;0.2426;4.0419;
1364.7000;0.2434;4.0368;
1365.0000;0.2418;4.0318;
1365.3000;0.2401;4.0318;
1365.6000;0.2466;4.0519;
1365.9000;0.2564;4.0796;
1366.2000;0.2393;4.0243;
1366.5000;0.2507;4.0444;
1366.8000;0.2458;4.0268;
1367.1000;0.2466;4.0268;
1367.4000;0.2434;4.0142;
1367.7000;0.2434;4.0167;
1368.0000;0.2475;4.0167;
1368.3000;0.2458;4.0142;
1368.6000;0.2466;4.0167;
1368.9000;0.2458;4.0268;
1369.2000;0.2458;4.0268;
1369.5000;0.2442;4.0243;
1369.8000;0.2458;4.0218;
1370.1000;0.2475;4.0218;
1370.4000;0.2475;4.0318;
1370.7000;0.2287;3.9916;
1371.0000;0.2458;4.0444;
1371.3000;0.2466;4.0545;
1371.6000;0.2434;4.0519;
1371.9000;0.2442;4.0595;
1372.2000;0.2442;4.0545;
1372.5000;0.2458;4.0670;
1372.8000;0.2426;4.0519;
1373.1000;0.2409;4.0494;
1373.4000;0.2442;4.0469;
1373.7000;0.2475;4.0645;
1374.0000;0.2466;4.0595;
1374.3000;0.2483;4.0519;
1374.6000;0.2458;4.0419;
1374.9000;0.2458;4.0394;
1375.2000;0.2458;4.0368;
1375.5000;0.2458;4.0394;
1375.8000;0.2434;4.0318;
1376.1000;0.2344;4.0167;
1376.4000;0.2458;4.0469;
1376.7000;0.2589;4.0897;
1377.0000;0.2304;4.0243;
1377.3000;0.2450;4.0595;
1377.6000;0.2450;4.0620;
1377.9000;0.2475;4.0721;
1378.2000;0.2515;4.0771;
1378.5000;0.2458;4.0645;
1378.8000;0.2442;4.0620;
1379.1000;0.2434;4.0545;
1379.4000;0.2475;4.0721;
1379.7000;0.2556;4.0972;
1380.0000;0.2458;4.0746;
1380.3000;0.2466;4.0821;
1380.6000;0.2450;4.0872;
1380.9000;0.2458;4.0746;
1381.2000;0.2458;4.0746;
1381.5000;0.2434;4.0721;
1381.8000;0.2458;4.0796;
1382.1000;0.2247;4.0167;
1382.4000;0.2442;4.0695;
1382.7000;0.2458;4.0746;
1383.0000;0.2450;4.0645;
1383.3000;0.2426;4.0645;
1383.6000;0.2458;4.0645;
1383.9000;0.2458;4.0645;
1384.2000;0.2393;4.0494;
1384.5000;0.2458;4.0771;
1384.8000;0.2458;4.0721;
1385.1000;0.2442;4.0695;
1385.4000;0.2450;4.0545;
1385.7000;0.2466;4.0620;
1386.0000;0.2466;4.0670;
1386.3000;0.2458;4.0721;
1386.6000;0.2418;4.0620;
1386.9000;0.2458;4.0670;
1387.2000;0.2426;4.0595;
1387.5000;0.2540;4.0771;
1387.8000;0.2344;4.0318;
1388.1000;0.2434;4.0519;
1388.4000;0.2450;4.0620;
1388.7000;0.2434;4.0595;
1389.0000;0.2434;4.0721;
1389.3000;0.2426;4.0721;
1389.6000;0.2442;4.0771;
1389.9000;0.2393;4.0620;
1390.2000;0.2409;4.0771;
1390.5000;0.2450;4.0721;
1390.8000;0.2458;4.0645;
1391.1000;0.2540;4.0695;
1391.4000;0.2450;4.0545;
1391.7000;0.2475;4.0545;
1392.0000;0.2483;4.0469;
1392.3000;0.2352;4.0192;
1392.6000;0.2458;4.0545;
1392.9000;0.2442;4.0519;
1393.2000;0.2458;4.0570;
1393.5000;0.2475;4.0645;
1393.8000;0.2450;4.0595;
1394.1000;0.2466;4.0570;
1394.4000;0.2450;4.0494;
1394.7000;0.2434;4.0368;
1395.0000;0.2466;4.0519;
1395.3000;0.2450;4.0394;
1395.6000;0.2483;4.0444;
1395.9000;0.2426;4.0318;
1396.2000;0.2458;4.0368;
1396.5000;0.2475;4.0494;
1396.8000;0.2450;4.0570;
1397.1000;0.2458;4.0469;
1397.4000;0.2475;4.0570;
1397.7000;0.2450;4.0469;
1398.0000;0.2466;4.0394;
1398.3000;0.2401;4.0318;
1398.6000;0.2434;4.0293;
1398.9000;0.2401;4.0142;
1399.2000;0.2442;4.0368;
1399.5000;0.2483;4.0494;
1399.8000;0.2426;4.0394;
