time/ms;Fluo/V;P700 deltaI/I x10³;
-199.8000;0.4127;-1.4262;
-199.5000;0.4127;-1.4212;
-199.2000;0.4151;-1.4187;
-198.9000;0.4127;-1.4262;
-198.6000;0.4135;-1.4237;
-198.3000;0.4143;-1.4212;
-198.0000;0.4135;-1.4187;
-197.7000;0.4127;-1.4187;
-197.4000;0.4127;-1.4187;
-197.1000;0.4135;-1.4212;
-196.8000;0.4143;-1.4162;
-196.5000;0.4135;-1.4112;
-196.2000;0.4119;-1.4187;
-195.9000;0.4135;-1.4162;
-195.6000;0.4143;-1.4112;
-195.3000;0.4127;-1.4187;
-195.0000;0.4143;-1.4212;
-194.7000;0.4143;-1.4162;
-194.4000;0.4135;-1.4237;
-194.1000;0.4119;-1.4237;
-193.8000;0.4143;-1.4162;
-193.5000;0.4135;-1.4262;
-193.2000;0.4143;-1.4287;
-192.9000;0.4143;-1.4287;
-192.6000;0.4127;-1.4287;
-192.3000;0.4151;-1.4262;
-192.0000;0.4127;-1.4337;
-191.7000;0.4143;-1.4337;
-191.4000;0.4127;-1.4461;
-191.1000;0.4094;-1.4611;
-190.8000;0.4127;-1.4536;
-190.5000;0.4168;-1.4511;
-190.2000;0.4119;-1.4686;
-189.9000;0.4135;-1.4611;
-189.6000;0.4127;-1.4636;
-189.3000;0.4127;-1.4611;
-189.0000;0.4127;-1.4486;
-188.7000;0.4143;-1.4461;
-188.4000;0.4119;-1.4486;
-188.1000;0.4135;-1.4411;
-187.8000;0.4135;-1.4387;
-187.5000;0.4176;-1.4287;
-187.2000;0.4127;-1.4387;
-186.9000;0.4200;-1.4187;
-186.6000;0.4143;-1.4262;
-186.3000;0.4103;-1.4337;
-186.0000;0.4127;-1.4212;
-185.7000;0.4143;-1.4212;
-185.4000;0.4143;-1.4112;
-185.1000;0.4160;-1.4087;
-184.8000;0.4143;-1.4062;
-184.5000;0.4103;-1.4187;
-184.2000;0.4119;-1.4187;
-183.9000;0.4135;-1.4312;
-183.6000;0.4127;-1.4461;
-183.3000;0.4151;-1.4337;
-183.0000;0.4168;-1.4387;
-182.7000;0.4135;-1.4387;
-182.4000;0.4127;-1.4387;
-182.1000;0.4127;-1.4387;
-181.8000;0.4135;-1.4411;
-181.5000;0.4119;-1.4387;
-181.2000;0.4151;-1.4287;
-180.9000;0.4151;-1.4187;
-180.6000;0.4135;-1.4312;
-180.3000;0.4143;-1.4337;
-180.0000;0.4135;-1.4312;
-179.7000;0.4119;-1.4337;
-179.4000;0.4119;-1.4312;
-179.1000;0.4160;-1.4212;
-178.8000;0.4119;-1.4287;
-178.5000;0.4127;-1.4212;
-178.2000;0.4135;-1.4237;
-177.9000;0.4143;-1.4262;
-177.6000;0.4143;-1.4262;
-177.3000;0.4127;-1.4362;
-177.0000;0.4127;-1.4362;
-176.7000;0.4160;-1.4287;
-176.4000;0.4143;-1.4212;
-176.1000;0.4127;-1.4212;
-175.8000;0.4127;-1.4187;
-175.5000;0.4208;-1.4013;
-175.2000;0.4135;-1.4237;
-174.9000;0.4103;-1.4262;
-174.6000;0.4127;-1.4262;
-174.3000;0.4086;-1.4436;
-174.0000;0.4143;-1.4262;
-173.7000;0.4111;-1.4411;
-173.4000;0.4176;-1.4337;
-173.1000;0.4094;-1.4561;
-172.8000;0.4135;-1.4436;
-172.5000;0.4143;-1.4411;
-172.2000;0.4143;-1.4461;
-171.9000;0.4119;-1.4486;
-171.6000;0.4160;-1.4337;
-171.3000;0.4135;-1.4387;
-171.0000;0.4151;-1.4411;
-170.7000;0.4094;-1.4536;
-170.4000;0.4160;-1.4337;
-170.1000;0.4143;-1.4262;
-169.8000;0.4135;-1.4287;
-169.5000;0.4111;-1.4387;
-169.2000;0.4135;-1.4337;
-168.9000;0.4135;-1.4262;
-168.6000;0.4135;-1.4287;
-168.3000;0.4111;-1.4337;
-168.0000;0.4127;-1.4287;
-167.7000;0.4135;-1.4287;
-167.4000;0.4135;-1.4262;
-167.1000;0.4135;-1.4237;
-166.8000;0.4111;-1.4362;
-166.5000;0.4143;-1.4337;
-166.2000;0.4127;-1.4337;
-165.9000;0.4135;-1.4362;
-165.6000;0.4103;-1.4337;
-165.3000;0.4127;-1.4362;
-165.0000;0.4127;-1.4362;
-164.7000;0.4127;-1.4362;
-164.4000;0.4160;-1.4362;
-164.1000;0.4119;-1.4461;
-163.8000;0.4143;-1.4411;
-163.5000;0.4127;-1.4461;
-163.2000;0.4127;-1.4411;
-162.9000;0.4143;-1.4337;
-162.6000;0.4143;-1.4262;
-162.3000;0.4135;-1.4337;
-162.0000;0.4111;-1.4337;
-161.7000;0.4111;-1.4337;
-161.4000;0.4135;-1.4312;
-161.1000;0.4135;-1.4262;
-160.8000;0.4135;-1.4162;
-160.5000;0.4127;-1.4262;
-160.2000;0.4119;-1.4287;
-159.9000;0.4127;-1.4212;
-159.6000;0.4127;-1.4237;
-159.3000;0.4127;-1.4262;
-159.0000;0.4111;-1.4387;
-158.7000;0.4225;-1.4013;
-158.4000;0.4111;-1.4387;
-158.1000;0.4103;-1.4436;
-157.8000;0.4192;-1.4212;
-157.5000;0.4143;-1.4387;
-157.2000;0.4143;-1.4312;
-156.9000;0.4119;-1.4337;
-156.6000;0.4143;-1.4287;
-156.3000;0.4143;-1.4362;
-156.0000;0.4151;-1.4287;
-155.7000;0.4127;-1.4287;
-155.4000;0.4111;-1.4312;
-155.1000;0.4119;-1.4411;
-154.8000;0.4127;-1.4312;
-154.5000;0.4119;-1.4262;
-154.2000;0.4119;-1.4262;
-153.9000;0.4127;-1.4262;
-153.6000;0.4143;-1.4112;
-153.3000;0.4135;-1.4162;
-153.0000;0.4086;-1.4312;
-152.7000;0.4119;-1.4262;
-152.4000;0.4127;-1.4262;
-152.1000;0.4151;-1.4237;
-151.8000;0.4135;-1.4262;
-151.5000;0.4111;-1.4362;
-151.2000;0.4143;-1.4237;
-150.9000;0.4135;-1.4262;
-150.6000;0.4168;-1.4212;
-150.3000;0.4135;-1.4137;
-150.0000;0.4111;-1.4162;
-149.7000;0.4143;-1.4237;
-149.4000;0.4127;-1.4337;
-149.1000;0.4184;-1.4212;
-148.8000;0.4127;-1.4337;
-148.5000;0.4127;-1.4362;
-148.2000;0.4135;-1.4387;
-147.9000;0.4127;-1.4411;
-147.6000;0.4176;-1.4262;
-147.3000;0.4143;-1.4362;
-147.0000;0.4070;-1.4586;
-146.7000;0.4135;-1.4387;
-146.4000;0.4135;-1.4411;
-146.1000;0.4119;-1.4511;
-145.8000;0.4151;-1.4362;
-145.5000;0.4135;-1.4411;
-145.2000;0.4127;-1.4387;
-144.9000;0.4176;-1.4262;
-144.6000;0.4151;-1.4461;
-144.3000;0.4151;-1.4387;
-144.0000;0.4135;-1.4337;
-143.7000;0.4143;-1.4436;
-143.4000;0.4127;-1.4362;
-143.1000;0.4078;-1.4461;
-142.8000;0.4119;-1.4362;
-142.5000;0.4151;-1.4237;
-142.2000;0.4143;-1.4212;
-141.9000;0.4225;-1.3913;
-141.6000;0.4151;-1.4212;
-141.3000;0.4143;-1.4212;
-141.0000;0.4160;-1.4212;
-140.7000;0.4160;-1.4262;
-140.4000;0.4103;-1.4337;
-140.1000;0.4111;-1.4287;
-139.8000;0.4127;-1.4212;
-139.5000;0.4160;-1.4212;
-139.2000;0.4135;-1.4387;
-138.9000;0.4127;-1.4411;
-138.6000;0.4143;-1.4337;
-138.3000;0.4143;-1.4337;
-138.0000;0.4135;-1.4337;
-137.7000;0.4143;-1.4237;
-137.4000;0.4135;-1.4212;
-137.1000;0.4192;-1.4013;
-136.8000;0.4151;-1.4162;
-136.5000;0.4119;-1.4262;
-136.2000;0.4143;-1.4287;
-135.9000;0.4135;-1.4337;
-135.6000;0.4160;-1.4337;
-135.3000;0.4135;-1.4486;
-135.0000;0.4135;-1.4586;
-134.7000;0.4143;-1.4636;
-134.4000;0.4135;-1.4686;
-134.1000;0.4119;-1.4661;
-133.8000;0.4094;-1.4661;
-133.5000;0.4151;-1.4411;
-133.2000;0.4143;-1.4362;
-132.9000;0.4176;-1.4312;
-132.6000;0.4135;-1.4436;
-132.3000;0.4143;-1.4411;
-132.0000;0.4151;-1.4312;
-131.7000;0.4135;-1.4312;
-131.4000;0.4143;-1.4312;
-131.1000;0.4119;-1.4436;
-130.8000;0.4127;-1.4337;
-130.5000;0.4168;-1.4212;
-130.2000;0.4135;-1.4237;
-129.9000;0.4143;-1.4212;
-129.6000;0.4127;-1.4312;
-129.3000;0.4119;-1.4362;
-129.0000;0.4135;-1.4287;
-128.7000;0.4160;-1.4212;
-128.4000;0.4119;-1.4387;
-128.1000;0.4111;-1.4387;
-127.8000;0.4127;-1.4461;
-127.5000;0.4111;-1.4461;
-127.2000;0.4119;-1.4436;
-126.9000;0.4151;-1.4486;
-126.6000;0.4135;-1.4436;
-126.3000;0.4103;-1.4486;
-126.0000;0.4127;-1.4387;
-125.7000;0.4135;-1.4486;
-125.4000;0.4127;-1.4511;
-125.1000;0.4127;-1.4611;
-124.8000;0.4127;-1.4561;
-124.5000;0.4135;-1.4486;
-124.2000;0.4200;-1.4312;
-123.9000;0.4127;-1.4511;
-123.6000;0.4135;-1.4461;
-123.3000;0.4103;-1.4561;
-123.0000;0.4127;-1.4511;
-122.7000;0.4135;-1.4511;
-122.4000;0.4111;-1.4511;
-122.1000;0.4143;-1.4436;
-121.8000;0.4151;-1.4486;
-121.5000;0.4127;-1.4387;
-121.2000;0.4119;-1.4411;
-120.9000;0.4127;-1.4362;
-120.6000;0.4151;-1.4387;
-120.3000;0.4119;-1.4387;
-120.0000;0.4127;-1.4362;
-119.7000;0.4143;-1.4237;
-119.4000;0.4037;-1.4561;
-119.1000;0.4127;-1.4262;
-118.8000;0.4160;-1.4237;
-118.5000;0.4184;-1.4137;
-118.2000;0.4119;-1.4212;
-117.9000;0.4127;-1.4262;
-117.6000;0.4127;-1.4262;
-117.3000;0.4200;-1.4137;
-117.0000;0.4094;-1.4411;
-116.7000;0.4119;-1.4312;
-116.4000;0.4086;-1.4436;
-116.1000;0.4127;-1.4287;
-115.8000;0.4127;-1.4312;
-115.5000;0.4143;-1.4212;
-115.2000;0.4151;-1.4137;
-114.9000;0.4135;-1.4212;
-114.6000;0.4111;-1.4262;
-114.3000;0.4184;-1.4162;
-114.0000;0.4143;-1.4212;
-113.7000;0.4094;-1.4411;
-113.4000;0.4111;-1.4312;
-113.1000;0.4160;-1.4212;
-112.8000;0.4119;-1.4287;
-112.5000;0.4119;-1.4337;
-112.2000;0.4127;-1.4411;
-111.9000;0.4119;-1.4362;
-111.6000;0.4046;-1.4461;
-111.3000;0.4127;-1.4187;
-111.0000;0.4135;-1.4112;
-110.7000;0.4135;-1.4087;
-110.4000;0.4151;-1.4037;
-110.1000;0.4135;-1.4187;
-109.8000;0.4135;-1.4162;
-109.5000;0.4119;-1.4137;
-109.2000;0.4127;-1.4162;
-108.9000;0.4151;-1.4112;
-108.6000;0.4135;-1.4137;
-108.3000;0.4135;-1.4212;
-108.0000;0.4127;-1.4212;
-107.7000;0.4151;-1.4187;
-107.4000;0.4127;-1.4287;
-107.1000;0.4111;-1.4312;
-106.8000;0.4111;-1.4237;
-106.5000;0.4119;-1.4212;
-106.2000;0.4143;-1.4112;
-105.9000;0.4127;-1.4087;
-105.6000;0.4135;-1.4087;
-105.3000;0.4111;-1.4137;
-105.0000;0.4176;-1.4062;
-104.7000;0.4119;-1.4237;
-104.4000;0.4103;-1.4411;
-104.1000;0.4127;-1.4287;
-103.8000;0.4143;-1.4212;
-103.5000;0.4143;-1.4212;
-103.2000;0.4119;-1.4362;
-102.9000;0.4127;-1.4411;
-102.6000;0.4151;-1.4387;
-102.3000;0.4119;-1.4337;
-102.0000;0.4127;-1.4312;
-101.7000;0.4119;-1.4287;
-101.4000;0.4151;-1.4312;
-101.1000;0.4135;-1.4312;
-100.8000;0.4143;-1.4387;
-100.5000;0.4143;-1.4287;
-100.2000;0.4151;-1.4137;
-99.9000;0.4143;-1.4162;
-99.6000;0.4078;-1.4312;
-99.3000;0.4078;-1.4436;
-99.0000;0.4151;-1.4312;
-98.7000;0.4070;-1.4436;
-98.4000;0.4135;-1.4237;
-98.1000;0.4135;-1.4312;
-97.8000;0.4168;-1.4212;
-97.5000;0.4151;-1.4237;
-97.2000;0.4135;-1.4312;
-96.9000;0.4127;-1.4337;
-96.6000;0.4119;-1.4237;
-96.3000;0.4184;-1.4112;
-96.0000;0.4127;-1.4262;
-95.7000;0.4143;-1.4287;
-95.4000;0.4168;-1.4162;
-95.1000;0.4127;-1.4362;
-94.8000;0.4135;-1.4312;
-94.5000;0.4119;-1.4362;
-94.2000;0.4127;-1.4362;
-93.9000;0.4151;-1.4187;
-93.6000;0.4127;-1.4187;
-93.3000;0.4135;-1.4212;
-93.0000;0.4135;-1.4212;
-92.7000;0.4135;-1.4262;
-92.4000;0.4086;-1.4262;
-92.1000;0.4143;-1.4237;
-91.8000;0.4119;-1.4312;
-91.5000;0.4127;-1.4362;
-91.2000;0.4184;-1.4187;
-90.9000;0.4143;-1.4287;
-90.6000;0.4160;-1.4162;
-90.3000;0.4135;-1.4112;
-90.0000;0.4160;-1.4137;
-89.7000;0.4111;-1.4262;
-89.4000;0.4143;-1.4287;
-89.1000;0.4127;-1.4337;
-88.8000;0.4143;-1.4262;
-88.5000;0.4135;-1.4337;
-88.2000;0.4127;-1.4137;
-87.9000;0.4135;-1.4162;
-87.6000;0.4160;-1.4062;
-87.3000;0.4143;-1.4137;
-87.0000;0.4151;-1.4212;
-86.7000;0.4111;-1.4187;
-86.4000;0.4111;-1.4262;
-86.1000;0.4127;-1.4262;
-85.8000;0.4143;-1.4262;
-85.5000;0.4127;-1.4162;
-85.2000;0.4103;-1.4312;
-84.9000;0.4135;-1.4237;
-84.6000;0.4192;-1.4162;
-84.3000;0.4127;-1.4362;
-84.0000;0.4151;-1.4337;
-83.7000;0.4143;-1.4362;
-83.4000;0.4151;-1.4362;
-83.1000;0.4225;-1.4187;
-82.8000;0.4127;-1.4411;
-82.5000;0.4127;-1.4362;
-82.2000;0.4135;-1.4287;
-81.9000;0.4143;-1.4112;
-81.6000;0.4119;-1.4162;
-81.3000;0.4054;-1.4411;
-81.0000;0.4127;-1.4362;
-80.7000;0.4143;-1.4287;
-80.4000;0.4127;-1.4362;
-80.1000;0.4127;-1.4337;
-79.8000;0.4151;-1.4461;
-79.5000;0.4127;-1.4536;
-79.2000;0.4143;-1.4561;
-78.9000;0.4135;-1.4536;
-78.6000;0.4143;-1.4561;
-78.3000;0.4135;-1.4536;
-78.0000;0.4151;-1.4461;
-77.7000;0.4119;-1.4511;
-77.4000;0.4151;-1.4411;
-77.1000;0.4127;-1.4486;
-76.8000;0.4143;-1.4461;
-76.5000;0.4143;-1.4486;
-76.2000;0.4127;-1.4511;
-75.9000;0.4151;-1.4411;
-75.6000;0.4143;-1.4312;
-75.3000;0.4135;-1.4287;
-75.0000;0.4135;-1.4337;
-74.7000;0.4151;-1.4337;
-74.4000;0.4151;-1.4312;
-74.1000;0.4143;-1.4337;
-73.8000;0.4127;-1.4337;
-73.5000;0.4127;-1.4411;
-73.2000;0.4127;-1.4436;
-72.9000;0.4168;-1.4436;
-72.6000;0.4111;-1.4536;
-72.3000;0.4135;-1.4486;
-72.0000;0.4168;-1.4436;
-71.7000;0.4127;-1.4461;
-71.4000;0.4119;-1.4436;
-71.1000;0.4119;-1.4337;
-70.8000;0.4135;-1.4287;
-70.5000;0.4151;-1.4262;
-70.2000;0.4127;-1.4362;
-69.9000;0.4135;-1.4461;
-69.6000;0.4135;-1.4536;
-69.3000;0.4135;-1.4561;
-69.0000;0.4143;-1.4486;
-68.7000;0.4160;-1.4362;
-68.4000;0.4127;-1.4436;
-68.1000;0.4143;-1.4411;
-67.8000;0.4127;-1.4387;
-67.5000;0.4143;-1.4387;
-67.2000;0.4135;-1.4362;
-66.9000;0.4135;-1.4337;
-66.6000;0.4127;-1.4387;
-66.3000;0.4127;-1.4411;
-66.0000;0.4127;-1.4387;
-65.7000;0.4135;-1.4362;
-65.4000;0.4151;-1.4312;
-65.1000;0.4143;-1.4312;
-64.8000;0.4103;-1.4287;
-64.5000;0.4111;-1.4287;
-64.2000;0.4168;-1.4212;
-63.9000;0.4135;-1.4212;
-63.6000;0.4135;-1.4212;
-63.3000;0.4119;-1.4162;
-63.0000;0.4127;-1.4187;
-62.7000;0.4143;-1.4162;
-62.4000;0.4143;-1.4137;
-62.1000;0.4135;-1.4262;
-61.8000;0.4127;-1.4312;
-61.5000;0.4143;-1.4287;
-61.2000;0.4127;-1.4287;
-60.9000;0.4127;-1.4262;
-60.6000;0.4135;-1.4162;
-60.3000;0.4127;-1.4212;
-60.0000;0.4143;-1.4187;
-59.7000;0.4119;-1.4187;
-59.4000;0.4168;-1.4062;
-59.1000;0.4143;-1.4137;
-58.8000;0.4135;-1.4212;
-58.5000;0.4143;-1.4287;
-58.2000;0.4103;-1.4436;
-57.9000;0.4143;-1.4337;
-57.6000;0.4151;-1.4312;
-57.3000;0.4208;-1.4112;
-57.0000;0.4054;-1.4436;
-56.7000;0.4127;-1.4187;
-56.4000;0.4119;-1.4237;
-56.1000;0.4184;-1.4112;
-55.8000;0.4111;-1.4362;
-55.5000;0.4143;-1.4312;
-55.2000;0.4143;-1.4287;
-54.9000;0.4094;-1.4536;
-54.6000;0.4094;-1.4486;
-54.3000;0.4151;-1.4337;
-54.0000;0.4143;-1.4436;
-53.7000;0.4135;-1.4337;
-53.4000;0.4151;-1.4237;
-53.1000;0.4086;-1.4262;
-52.8000;0.4111;-1.4162;
-52.5000;0.4135;-1.4212;
-52.2000;0.4127;-1.4137;
-51.9000;0.4127;-1.4162;
-51.6000;0.4200;-1.4037;
-51.3000;0.4119;-1.4337;
-51.0000;0.4094;-1.4411;
-50.7000;0.4127;-1.4362;
-50.4000;0.4103;-1.4387;
-50.1000;0.4143;-1.4287;
-49.8000;0.4127;-1.4262;
-49.5000;0.4119;-1.4287;
-49.2000;0.4127;-1.4237;
-48.9000;0.4127;-1.4237;
-48.6000;0.4119;-1.4212;
-48.3000;0.4119;-1.4162;
-48.0000;0.4127;-1.4187;
-47.7000;0.4119;-1.4137;
-47.4000;0.4135;-1.4162;
-47.1000;0.4119;-1.4287;
-46.8000;0.4094;-1.4287;
-46.5000;0.4143;-1.4162;
-46.2000;0.4143;-1.4212;
-45.9000;0.4151;-1.4287;
-45.6000;0.4127;-1.4337;
-45.3000;0.4143;-1.4287;
-45.0000;0.4160;-1.4137;
-44.7000;0.4143;-1.4087;
-44.4000;0.4135;-1.4187;
-44.1000;0.4135;-1.4187;
-43.8000;0.4176;-1.4162;
-43.5000;0.4127;-1.4287;
-43.2000;0.4127;-1.4312;
-42.9000;0.4135;-1.4387;
-42.6000;0.4103;-1.4536;
-42.3000;0.4029;-1.4711;
-42.0000;0.4127;-1.4436;
-41.7000;0.4103;-1.4536;
-41.4000;0.4151;-1.4461;
-41.1000;0.4135;-1.4436;
-40.8000;0.4127;-1.4411;
-40.5000;0.4127;-1.4461;
-40.2000;0.4143;-1.4436;
-39.9000;0.4135;-1.4411;
-39.6000;0.4143;-1.4337;
-39.3000;0.4135;-1.4312;
-39.0000;0.4143;-1.4287;
-38.7000;0.4143;-1.4187;
-38.4000;0.4143;-1.4312;
-38.1000;0.4151;-1.4312;
-37.8000;0.4127;-1.4387;
-37.5000;0.4103;-1.4486;
-37.2000;0.4135;-1.4436;
-36.9000;0.4127;-1.4387;
-36.6000;0.4143;-1.4362;
-36.3000;0.4160;-1.4461;
-36.0000;0.4127;-1.4511;
-35.7000;0.4119;-1.4511;
-35.4000;0.4127;-1.4511;
-35.1000;0.4127;-1.4561;
-34.8000;0.4160;-1.4436;
-34.5000;0.4143;-1.4511;
-34.2000;0.4176;-1.4362;
-33.9000;0.4143;-1.4486;
-33.6000;0.4119;-1.4411;
-33.3000;0.4111;-1.4387;
-33.0000;0.4127;-1.4312;
-32.7000;0.4143;-1.4312;
-32.4000;0.4119;-1.4362;
-32.1000;0.4151;-1.4287;
-31.8000;0.4135;-1.4312;
-31.5000;0.4151;-1.4287;
-31.2000;0.4135;-1.4387;
-30.9000;0.4143;-1.4387;
-30.6000;0.4111;-1.4461;
-30.3000;0.4127;-1.4461;
-30.0000;0.4119;-1.4486;
-29.7000;0.4135;-1.4461;
-29.4000;0.4103;-1.4586;
-29.1000;0.4127;-1.4536;
-28.8000;0.4143;-1.4387;
-28.5000;0.4135;-1.4362;
-28.2000;0.4151;-1.4436;
-27.9000;0.4151;-1.4436;
-27.6000;0.4135;-1.4436;
-27.3000;0.4127;-1.4436;
-27.0000;0.4070;-1.4611;
-26.7000;0.4135;-1.4362;
-26.4000;0.4135;-1.4511;
-26.1000;0.4143;-1.4486;
-25.8000;0.4151;-1.4511;
-25.5000;0.4135;-1.4486;
-25.2000;0.4135;-1.4461;
-24.9000;0.4217;-1.4287;
-24.6000;0.4168;-1.4461;
-24.3000;0.4119;-1.4561;
-24.0000;0.4127;-1.4586;
-23.7000;0.4127;-1.4511;
-23.4000;0.4143;-1.4586;
-23.1000;0.4160;-1.4511;
-22.8000;0.4111;-1.4611;
-22.5000;0.4119;-1.4586;
-22.2000;0.4119;-1.4661;
-21.9000;0.4151;-1.4536;
-21.6000;0.4103;-1.4561;
-21.3000;0.4168;-1.4411;
-21.0000;0.4143;-1.4586;
-20.7000;0.4151;-1.4561;
-20.4000;0.4119;-1.4661;
-20.1000;0.4135;-1.4661;
-19.8000;0.4135;-1.4561;
-19.5000;0.4127;-1.4561;
-19.2000;0.4135;-1.4486;
-18.9000;0.4111;-1.4486;
-18.6000;0.4151;-1.4486;
-18.3000;0.4200;-1.4337;
-18.0000;0.4143;-1.4461;
-17.7000;0.4143;-1.4411;
-17.4000;0.4143;-1.4436;
-17.1000;0.4119;-1.4486;
-16.8000;0.4094;-1.4661;
-16.5000;0.4135;-1.4536;
-16.2000;0.4135;-1.4411;
-15.9000;0.4135;-1.4312;
-15.6000;0.4143;-1.4312;
-15.3000;0.4127;-1.4337;
-15.0000;0.4143;-1.4337;
-14.7000;0.4119;-1.4387;
-14.4000;0.4127;-1.4337;
-14.1000;0.4143;-1.4262;
-13.8000;0.4086;-1.4411;
-13.5000;0.4168;-1.4187;
-13.2000;0.4143;-1.4262;
-12.9000;0.4143;-1.4237;
-12.6000;0.4127;-1.4237;
-12.3000;0.4127;-1.4287;
-12.0000;0.4135;-1.4337;
-11.7000;0.4168;-1.4212;
-11.4000;0.4176;-1.4237;
-11.1000;0.4127;-1.4337;
-10.8000;0.4143;-1.4287;
-10.5000;0.4143;-1.4362;
-10.2000;0.4135;-1.4262;
-9.9000;0.4143;-1.4287;
-9.6000;0.4192;-1.4212;
-9.3000;0.4135;-1.4237;
-9.0000;0.4127;-1.4262;
-8.7000;0.4160;-1.4162;
-8.4000;0.4135;-1.4237;
-8.1000;0.4151;-1.4137;
-7.8000;0.4143;-1.4087;
-7.5000;0.4119;-1.4087;
-7.2000;0.4127;-1.4187;
-6.9000;0.4143;-1.4212;
-6.6000;0.4168;-1.4162;
-6.3000;0.4143;-1.4287;
-6.0000;0.4160;-1.4287;
-5.7000;0.4119;-1.4337;
-5.4000;0.4103;-1.4387;
-5.1000;0.4160;-1.4237;
-4.8000;0.4135;-1.4337;
-4.5000;0.4143;-1.4287;
-4.2000;0.4127;-1.4287;
-3.9000;0.4151;-1.4262;
-3.6000;0.4070;-1.4461;
-3.3000;0.4127;-1.4411;
-3.0000;0.4127;-1.4461;
-2.7000;0.4160;-1.4362;
-2.4000;0.4217;-1.4212;
-2.1000;0.4103;-1.4436;
-1.8000;0.4094;-1.4411;
-1.5000;0.4143;-1.4287;
-1.2000;0.4127;-1.4287;
-0.9000;0.4208;-1.4062;
-0.6000;0.4094;-1.4486;
-0.3000;0.4005;-1.4736;
0.0000;0.4005;-1.4736;
0.3000;0.4355;-1.4486;
0.6000;0.4851;-1.3788;
0.9000;0.5275;-1.3115;
1.2000;0.5543;-1.2616;
1.5000;0.5845;-1.1893;
1.8000;0.6024;-1.1419;
2.1000;0.6186;-1.1045;
2.4000;0.6325;-1.0721;
2.7000;0.6422;-1.0547;
3.0000;0.6512;-1.0422;
3.3000;0.6585;-1.0248;
3.6000;0.6650;-1.0148;
3.9000;0.6683;-1.0173;
4.2000;0.6724;-1.0098;
4.5000;0.6772;-0.9973;
4.8000;0.6829;-0.9899;
5.1000;0.6886;-0.9874;
5.4000;0.6878;-0.9998;
5.7000;0.6919;-0.9899;
6.0000;0.6968;-0.9824;
6.3000;0.6976;-0.9824;
6.6000;0.7017;-0.9774;
6.9000;0.7057;-0.9824;
7.2000;0.7082;-0.9899;
7.5000;0.7090;-0.9874;
7.8000;0.7049;-1.0098;
8.1000;0.7163;-0.9899;
8.4000;0.7179;-0.9899;
8.7000;0.7212;-0.9899;
9.0000;0.7228;-0.9874;
9.3000;0.7261;-0.9724;
9.6000;0.7293;-0.9724;
9.9000;0.7326;-0.9749;
10.2000;0.7342;-0.9749;
10.5000;0.7375;-0.9699;
10.8000;0.7367;-0.9799;
11.1000;0.7399;-0.9824;
11.4000;0.7359;-1.0023;
11.7000;0.7456;-0.9749;
12.0000;0.7464;-0.9774;
12.3000;0.7489;-0.9799;
12.6000;0.7464;-0.9874;
12.9000;0.7538;-0.9724;
13.2000;0.7554;-0.9774;
13.5000;0.7538;-0.9899;
13.8000;0.7595;-0.9849;
14.1000;0.7619;-0.9824;
14.4000;0.7554;-0.9998;
14.7000;0.7652;-0.9874;
15.0000;0.7660;-0.9973;
15.3000;0.7643;-1.0098;
15.6000;0.7684;-1.0023;
15.9000;0.7692;-1.0098;
16.2000;0.7733;-1.0048;
16.5000;0.7700;-1.0173;
16.8000;0.7757;-1.0098;
17.1000;0.7757;-1.0098;
17.4000;0.7733;-1.0173;
17.7000;0.7937;-0.9699;
18.0000;0.7798;-1.0073;
18.3000;0.7831;-1.0173;
18.6000;0.7798;-1.0322;
18.9000;0.7871;-1.0148;
19.2000;0.7855;-1.0123;
19.5000;0.7888;-1.0073;
19.8000;0.7896;-1.0073;
20.1000;0.7904;-0.9948;
20.4000;0.7928;-0.9923;
20.7000;0.7896;-1.0073;
21.0000;0.7945;-1.0098;
21.3000;0.7953;-1.0073;
21.6000;0.8067;-0.9849;
21.9000;0.7969;-1.0098;
22.2000;0.7985;-1.0098;
22.5000;0.8018;-1.0048;
22.8000;0.8050;-0.9998;
23.1000;0.8026;-1.0048;
23.4000;0.8067;-0.9998;
23.7000;0.8050;-0.9973;
24.0000;0.8124;-0.9849;
24.3000;0.8083;-0.9874;
24.6000;0.8083;-0.9948;
24.9000;0.8107;-0.9973;
25.2000;0.8116;-0.9973;
25.5000;0.8140;-0.9998;
25.8000;0.8132;-1.0123;
26.1000;0.8140;-1.0297;
26.4000;0.8156;-1.0297;
26.7000;0.8156;-1.0297;
27.0000;0.8164;-1.0347;
27.3000;0.8116;-1.0472;
27.6000;0.8189;-1.0372;
27.9000;0.8140;-1.0472;
28.2000;0.8197;-1.0397;
28.5000;0.8213;-1.0397;
28.8000;0.8295;-1.0223;
29.1000;0.8238;-1.0248;
29.4000;0.8246;-1.0322;
29.7000;0.8262;-1.0322;
30.0000;0.8254;-1.0397;
30.3000;0.8262;-1.0347;
30.6000;0.8270;-1.0347;
30.9000;0.8262;-1.0372;
31.2000;0.8270;-1.0447;
31.5000;0.8287;-1.0447;
31.8000;0.8287;-1.0497;
32.1000;0.8295;-1.0497;
32.4000;0.8295;-1.0572;
32.7000;0.8319;-1.0522;
33.0000;0.8319;-1.0472;
33.3000;0.8319;-1.0447;
33.6000;0.8376;-1.0297;
33.9000;0.8344;-1.0372;
34.2000;0.8360;-1.0248;
34.5000;0.8368;-1.0223;
34.8000;0.8368;-1.0273;
35.1000;0.8368;-1.0347;
35.4000;0.8400;-1.0322;
35.7000;0.8417;-1.0273;
36.0000;0.8441;-1.0273;
36.3000;0.8409;-1.0447;
36.6000;0.8417;-1.0547;
36.9000;0.8425;-1.0647;
37.2000;0.8417;-1.0696;
37.5000;0.8417;-1.0622;
37.8000;0.8449;-1.0422;
38.1000;0.8441;-1.0372;
38.4000;0.8425;-1.0397;
38.7000;0.8433;-1.0472;
39.0000;0.8466;-1.0447;
39.3000;0.8482;-1.0397;
39.6000;0.8490;-1.0422;
39.9000;0.8498;-1.0622;
40.2000;0.8466;-1.0597;
40.5000;0.8457;-1.0671;
40.8000;0.8498;-1.0547;
41.1000;0.8498;-1.0696;
41.4000;0.8539;-1.0721;
41.7000;0.8466;-1.0796;
42.0000;0.8555;-1.0522;
42.3000;0.8514;-1.0522;
42.6000;0.8441;-1.0746;
42.9000;0.8514;-1.0597;
43.2000;0.8531;-1.0547;
43.5000;0.8539;-1.0547;
43.8000;0.8563;-1.0522;
44.1000;0.8563;-1.0572;
44.4000;0.8588;-1.0597;
44.7000;0.8588;-1.0671;
45.0000;0.8563;-1.0721;
45.3000;0.8571;-1.0771;
45.6000;0.8596;-1.0696;
45.9000;0.8604;-1.0771;
46.2000;0.8596;-1.0771;
46.5000;0.8580;-1.0846;
46.8000;0.8604;-1.0771;
47.1000;0.8620;-1.0671;
47.4000;0.8628;-1.0671;
47.7000;0.8620;-1.0796;
48.0000;0.8628;-1.0771;
48.3000;0.8628;-1.0846;
48.6000;0.8661;-1.0721;
48.9000;0.8645;-1.0746;
49.2000;0.8726;-1.0522;
49.5000;0.8702;-1.0746;
49.8000;0.8685;-1.0746;
50.1000;0.8694;-1.0771;
50.4000;0.8677;-1.0821;
50.7000;0.8710;-1.0846;
51.0000;0.8734;-1.0821;
51.3000;0.8702;-1.0946;
51.6000;0.8702;-1.0996;
51.9000;0.8726;-1.0896;
52.2000;0.8694;-1.0996;
52.5000;0.8710;-1.1021;
52.8000;0.8726;-1.1095;
53.1000;0.8816;-1.0871;
53.4000;0.8742;-1.1120;
53.7000;0.8726;-1.1195;
54.0000;0.8751;-1.1170;
54.3000;0.8767;-1.1220;
54.6000;0.8759;-1.1195;
54.9000;0.8759;-1.1220;
55.2000;0.8751;-1.1220;
55.5000;0.8759;-1.1170;
55.8000;0.8783;-1.1120;
56.1000;0.8767;-1.1120;
56.4000;0.8775;-1.1070;
56.7000;0.8783;-1.1095;
57.0000;0.8791;-1.1045;
57.3000;0.8799;-1.0971;
57.6000;0.8807;-1.0971;
57.9000;0.8791;-1.0971;
58.2000;0.8807;-1.0946;
58.5000;0.8791;-1.0971;
58.8000;0.8824;-1.0921;
59.1000;0.8832;-1.0921;
59.4000;0.8848;-1.0946;
59.7000;0.8848;-1.0971;
60.0000;0.8864;-1.1021;
60.3000;0.8856;-1.1145;
60.6000;0.8848;-1.1245;
60.9000;0.8864;-1.1145;
61.2000;0.8873;-1.1170;
61.5000;0.8881;-1.1170;
61.8000;0.8864;-1.1245;
62.1000;0.8881;-1.1145;
62.4000;0.8832;-1.1295;
62.7000;0.8881;-1.1170;
63.0000;0.8856;-1.1320;
63.3000;0.8889;-1.1345;
63.6000;0.8889;-1.1395;
63.9000;0.8921;-1.1395;
64.2000;0.8864;-1.1419;
64.5000;0.8873;-1.1444;
64.8000;0.8913;-1.1320;
65.1000;0.8930;-1.1320;
65.4000;0.8913;-1.1370;
65.7000;0.8954;-1.1345;
66.0000;0.8930;-1.1395;
66.3000;0.8946;-1.1469;
66.6000;0.8930;-1.1494;
66.9000;0.8921;-1.1444;
67.2000;0.8978;-1.1220;
67.5000;0.8938;-1.1270;
67.8000;0.9003;-1.1095;
68.1000;0.8946;-1.1195;
68.4000;0.8946;-1.1220;
68.7000;0.8978;-1.1195;
69.0000;0.8970;-1.1195;
69.3000;0.8995;-1.1170;
69.6000;0.8987;-1.1295;
69.9000;0.8995;-1.1320;
70.2000;0.9003;-1.1270;
70.5000;0.8978;-1.1444;
70.8000;0.9003;-1.1395;
71.1000;0.8987;-1.1469;
71.4000;0.9011;-1.1444;
71.7000;0.9019;-1.1444;
72.0000;0.9003;-1.1494;
72.3000;0.9003;-1.1469;
72.6000;0.9003;-1.1419;
72.9000;0.9052;-1.1395;
73.2000;0.9044;-1.1419;
73.5000;0.9027;-1.1345;
73.8000;0.9101;-1.1145;
74.1000;0.9011;-1.1370;
74.4000;0.9011;-1.1345;
74.7000;0.9027;-1.1370;
75.0000;0.9084;-1.1270;
75.3000;0.9035;-1.1345;
75.6000;0.9044;-1.1395;
75.9000;0.9044;-1.1370;
76.2000;0.9052;-1.1320;
76.5000;0.9052;-1.1320;
76.8000;0.9060;-1.1270;
77.1000;0.9060;-1.1295;
77.4000;0.9068;-1.1295;
77.7000;0.9060;-1.1220;
78.0000;0.9052;-1.1245;
78.3000;0.9035;-1.1345;
78.6000;0.9101;-1.1195;
78.9000;0.9019;-1.1395;
79.2000;0.9076;-1.1295;
79.5000;0.9076;-1.1370;
79.8000;0.9084;-1.1370;
80.1000;0.9109;-1.1170;
80.4000;0.9092;-1.1270;
80.7000;0.9092;-1.1270;
81.0000;0.9141;-1.1170;
81.3000;0.9101;-1.1170;
81.6000;0.9101;-1.1320;
81.9000;0.9109;-1.1320;
82.2000;0.9084;-1.1370;
82.5000;0.9166;-1.1145;
82.8000;0.9141;-1.1195;
83.1000;0.9125;-1.1270;
83.4000;0.9068;-1.1444;
83.7000;0.9158;-1.1245;
84.0000;0.9011;-1.1669;
84.3000;0.9125;-1.1469;
84.6000;0.9133;-1.1419;
84.9000;0.9133;-1.1345;
85.2000;0.9125;-1.1395;
85.5000;0.9149;-1.1419;
85.8000;0.9141;-1.1419;
86.1000;0.9141;-1.1320;
86.4000;0.9141;-1.1320;
86.7000;0.9141;-1.1345;
87.0000;0.9133;-1.1370;
87.3000;0.9133;-1.1395;
87.6000;0.9133;-1.1519;
87.9000;0.9133;-1.1569;
88.2000;0.9149;-1.1444;
88.5000;0.9158;-1.1395;
88.8000;0.9158;-1.1444;
89.1000;0.9158;-1.1419;
89.4000;0.9141;-1.1419;
89.7000;0.9158;-1.1370;
90.0000;0.9158;-1.1345;
90.3000;0.9158;-1.1419;
90.6000;0.9166;-1.1419;
90.9000;0.9166;-1.1370;
91.2000;0.9182;-1.1345;
91.5000;0.9182;-1.1419;
91.8000;0.9166;-1.1494;
92.1000;0.9214;-1.1370;
92.4000;0.9182;-1.1544;
92.7000;0.9174;-1.1544;
93.0000;0.9223;-1.1494;
93.3000;0.9182;-1.1569;
93.6000;0.9182;-1.1619;
93.9000;0.9117;-1.1694;
94.2000;0.9166;-1.1544;
94.5000;0.9182;-1.1544;
94.8000;0.9239;-1.1494;
95.1000;0.9174;-1.1669;
95.4000;0.9182;-1.1594;
95.7000;0.9206;-1.1544;
96.0000;0.9190;-1.1644;
96.3000;0.9206;-1.1644;
96.6000;0.9190;-1.1694;
96.9000;0.9166;-1.1694;
97.2000;0.9198;-1.1594;
97.5000;0.9182;-1.1694;
97.8000;0.9190;-1.1619;
98.1000;0.9206;-1.1669;
98.4000;0.9206;-1.1744;
98.7000;0.9174;-1.1868;
99.0000;0.9182;-1.1893;
99.3000;0.9190;-1.1968;
99.6000;0.9223;-1.1843;
99.9000;0.9214;-1.1769;
100.2000;0.9182;-1.1793;
100.5000;0.9174;-1.1744;
100.8000;0.9206;-1.1644;
101.1000;0.9206;-1.1719;
101.4000;0.9198;-1.1744;
101.7000;0.9198;-1.1744;
102.0000;0.9182;-1.1769;
102.3000;0.9223;-1.1619;
102.6000;0.9214;-1.1669;
102.9000;0.9198;-1.1694;
103.2000;0.9223;-1.1669;
103.5000;0.9214;-1.1719;
103.8000;0.9214;-1.1744;
104.1000;0.9223;-1.1694;
104.4000;0.9214;-1.1694;
104.7000;0.9214;-1.1669;
105.0000;0.9198;-1.1644;
105.3000;0.9231;-1.1544;
105.6000;0.9214;-1.1519;
105.9000;0.9247;-1.1544;
106.2000;0.9206;-1.1644;
106.5000;0.9223;-1.1669;
106.8000;0.9223;-1.1669;
107.1000;0.9223;-1.1694;
107.4000;0.9182;-1.1893;
107.7000;0.9231;-1.1744;
108.0000;0.9223;-1.1793;
108.3000;0.9247;-1.1669;
108.6000;0.9206;-1.1793;
108.9000;0.9247;-1.1719;
109.2000;0.9223;-1.1694;
109.5000;0.9149;-1.1943;
109.8000;0.9214;-1.1818;
110.1000;0.9231;-1.1719;
110.4000;0.9141;-1.1918;
110.7000;0.9255;-1.1744;
111.0000;0.9271;-1.1644;
111.3000;0.9214;-1.1744;
111.6000;0.9239;-1.1694;
111.9000;0.9231;-1.1719;
112.2000;0.9239;-1.1719;
112.5000;0.9239;-1.1694;
112.8000;0.9231;-1.1744;
113.1000;0.9239;-1.1694;
113.4000;0.9223;-1.1644;
113.7000;0.9214;-1.1569;
114.0000;0.9263;-1.1494;
114.3000;0.9231;-1.1569;
114.6000;0.9304;-1.1444;
114.9000;0.9239;-1.1544;
115.2000;0.9223;-1.1519;
115.5000;0.9223;-1.1494;
115.8000;0.9239;-1.1469;
116.1000;0.9239;-1.1444;
116.4000;0.9231;-1.1544;
116.7000;0.9239;-1.1569;
117.0000;0.9247;-1.1594;
117.3000;0.9247;-1.1669;
117.6000;0.9247;-1.1669;
117.9000;0.9263;-1.1619;
118.2000;0.9255;-1.1569;
118.5000;0.9247;-1.1544;
118.8000;0.9247;-1.1644;
119.1000;0.9255;-1.1644;
119.4000;0.9247;-1.1644;
119.7000;0.9255;-1.1669;
120.0000;0.9255;-1.1669;
120.3000;0.9247;-1.1793;
120.6000;0.9247;-1.1769;
120.9000;0.9280;-1.1769;
121.2000;0.9239;-1.1769;
121.5000;0.9288;-1.1644;
121.8000;0.9231;-1.1744;
122.1000;0.9247;-1.1694;
122.4000;0.9271;-1.1744;
122.7000;0.9247;-1.1769;
123.0000;0.9247;-1.1694;
123.3000;0.9255;-1.1694;
123.6000;0.9239;-1.1694;
123.9000;0.9247;-1.1619;
124.2000;0.9231;-1.1744;
124.5000;0.9206;-1.1719;
124.8000;0.9263;-1.1619;
125.1000;0.9247;-1.1619;
125.4000;0.9255;-1.1644;
125.7000;0.9337;-1.1444;
126.0000;0.9206;-1.1669;
126.3000;0.9247;-1.1544;
126.6000;0.9247;-1.1469;
126.9000;0.9239;-1.1569;
127.2000;0.9255;-1.1619;
127.5000;0.9223;-1.1619;
127.8000;0.9247;-1.1569;
128.1000;0.9223;-1.1519;
128.4000;0.9239;-1.1395;
128.7000;0.9345;-1.1120;
129.0000;0.9263;-1.1295;
129.3000;0.9214;-1.1419;
129.6000;0.9255;-1.1395;
129.9000;0.9223;-1.1519;
130.2000;0.9247;-1.1519;
130.5000;0.9247;-1.1544;
130.8000;0.9247;-1.1444;
131.1000;0.9231;-1.1444;
131.4000;0.9231;-1.1419;
131.7000;0.9255;-1.1370;
132.0000;0.9223;-1.1469;
132.3000;0.9255;-1.1419;
132.6000;0.9312;-1.1345;
132.9000;0.9271;-1.1395;
133.2000;0.9247;-1.1370;
133.5000;0.9158;-1.1519;
133.8000;0.9182;-1.1569;
134.1000;0.9247;-1.1469;
134.4000;0.9231;-1.1594;
134.7000;0.9247;-1.1469;
135.0000;0.9239;-1.1494;
135.3000;0.9247;-1.1519;
135.6000;0.9231;-1.1544;
135.9000;0.9231;-1.1544;
136.2000;0.9247;-1.1494;
136.5000;0.9247;-1.1519;
136.8000;0.9239;-1.1569;
137.1000;0.9247;-1.1569;
137.4000;0.9255;-1.1519;
137.7000;0.9255;-1.1494;
138.0000;0.9255;-1.1519;
138.3000;0.9255;-1.1444;
138.6000;0.9247;-1.1419;
138.9000;0.9255;-1.1444;
139.2000;0.9263;-1.1469;
139.5000;0.9263;-1.1469;
139.8000;0.9247;-1.1519;
140.1000;0.9263;-1.1544;
140.4000;0.9239;-1.1594;
140.7000;0.9263;-1.1594;
141.0000;0.9263;-1.1619;
141.3000;0.9263;-1.1494;
141.6000;0.9255;-1.1444;
141.9000;0.9271;-1.1519;
142.2000;0.9247;-1.1569;
142.5000;0.9263;-1.1519;
142.8000;0.9239;-1.1494;
143.1000;0.9214;-1.1544;
143.4000;0.9239;-1.1419;
143.7000;0.9214;-1.1395;
144.0000;0.9190;-1.1469;
144.3000;0.9166;-1.1544;
144.6000;0.9239;-1.1295;
144.9000;0.9214;-1.1370;
145.2000;0.9231;-1.1395;
145.5000;0.9174;-1.1619;
145.8000;0.9223;-1.1544;
146.1000;0.9231;-1.1469;
146.4000;0.9214;-1.1469;
146.7000;0.9247;-1.1469;
147.0000;0.9223;-1.1419;
147.3000;0.9231;-1.1444;
147.6000;0.9231;-1.1395;
147.9000;0.9247;-1.1395;
148.2000;0.9247;-1.1370;
148.5000;0.9206;-1.1395;
148.8000;0.9231;-1.1419;
149.1000;0.9255;-1.1395;
149.4000;0.9255;-1.1370;
149.7000;0.9288;-1.1220;
150.0000;0.9247;-1.1270;
150.3000;0.9223;-1.1345;
150.6000;0.9239;-1.1295;
150.9000;0.9214;-1.1419;
151.2000;0.9239;-1.1370;
151.5000;0.9247;-1.1519;
151.8000;0.9214;-1.1594;
152.1000;0.9345;-1.1245;
152.4000;0.9247;-1.1395;
152.7000;0.9231;-1.1469;
153.0000;0.9239;-1.1519;
153.3000;0.9247;-1.1469;
153.6000;0.9239;-1.1494;
153.9000;0.9247;-1.1544;
154.2000;0.9255;-1.1419;
154.5000;0.9255;-1.1345;
154.8000;0.9198;-1.1469;
155.1000;0.9214;-1.1494;
155.4000;0.9223;-1.1569;
155.7000;0.9223;-1.1544;
156.0000;0.9206;-1.1569;
156.3000;0.9166;-1.1569;
156.6000;0.9231;-1.1469;
156.9000;0.9239;-1.1370;
157.2000;0.9231;-1.1320;
157.5000;0.9223;-1.1320;
157.8000;0.9117;-1.1594;
158.1000;0.9247;-1.1245;
158.4000;0.9231;-1.1195;
158.7000;0.9206;-1.1270;
159.0000;0.9198;-1.1395;
159.3000;0.9223;-1.1295;
159.6000;0.9214;-1.1270;
159.9000;0.9231;-1.1295;
160.2000;0.9239;-1.1295;
160.5000;0.9223;-1.1395;
160.8000;0.9223;-1.1345;
161.1000;0.9223;-1.1320;
161.4000;0.9214;-1.1320;
161.7000;0.9231;-1.1245;
162.0000;0.9239;-1.1170;
162.3000;0.9231;-1.1170;
162.6000;0.9247;-1.1095;
162.9000;0.9214;-1.1145;
163.2000;0.9223;-1.1145;
163.5000;0.9231;-1.1070;
163.8000;0.9223;-1.1170;
164.1000;0.9231;-1.1245;
164.4000;0.9214;-1.1220;
164.7000;0.9214;-1.1270;
165.0000;0.9190;-1.1270;
165.3000;0.9214;-1.1220;
165.6000;0.9231;-1.1120;
165.9000;0.9271;-1.1021;
166.2000;0.9198;-1.1145;
166.5000;0.9214;-1.1145;
166.8000;0.9190;-1.1195;
167.1000;0.9117;-1.1345;
167.4000;0.9206;-1.1145;
167.7000;0.9182;-1.1195;
168.0000;0.9255;-1.1070;
168.3000;0.9125;-1.1444;
168.6000;0.9304;-1.1170;
168.9000;0.9206;-1.1469;
169.2000;0.9190;-1.1469;
169.5000;0.9280;-1.1170;
169.8000;0.9214;-1.1295;
170.1000;0.9214;-1.1395;
170.4000;0.9255;-1.1345;
170.7000;0.9223;-1.1320;
171.0000;0.9206;-1.1419;
171.3000;0.9239;-1.1444;
171.6000;0.9223;-1.1544;
171.9000;0.9214;-1.1569;
172.2000;0.9223;-1.1544;
172.5000;0.9166;-1.1619;
172.8000;0.9223;-1.1469;
173.1000;0.9231;-1.1444;
173.4000;0.9239;-1.1370;
173.7000;0.9231;-1.1245;
174.0000;0.9214;-1.1245;
174.3000;0.9214;-1.1295;
174.6000;0.9223;-1.1320;
174.9000;0.9206;-1.1419;
175.2000;0.9214;-1.1469;
175.5000;0.9214;-1.1594;
175.8000;0.9231;-1.1594;
176.1000;0.9223;-1.1619;
176.4000;0.9198;-1.1694;
176.7000;0.9190;-1.1669;
177.0000;0.9206;-1.1569;
177.3000;0.9214;-1.1444;
177.6000;0.9239;-1.1370;
177.9000;0.9206;-1.1419;
178.2000;0.9223;-1.1395;
178.5000;0.9214;-1.1469;
178.8000;0.9214;-1.1419;
179.1000;0.9239;-1.1295;
179.4000;0.9206;-1.1370;
179.7000;0.9206;-1.1370;
180.0000;0.9223;-1.1370;
180.3000;0.9206;-1.1444;
180.6000;0.9214;-1.1395;
180.9000;0.9247;-1.1270;
181.2000;0.9223;-1.1320;
181.5000;0.9206;-1.1320;
181.8000;0.9263;-1.1170;
182.1000;0.9198;-1.1395;
182.4000;0.9182;-1.1395;
182.7000;0.9247;-1.1320;
183.0000;0.9198;-1.1569;
183.3000;0.9206;-1.1569;
183.6000;0.9214;-1.1544;
183.9000;0.9206;-1.1544;
184.2000;0.9231;-1.1569;
184.5000;0.9198;-1.1694;
184.8000;0.9214;-1.1744;
185.1000;0.9206;-1.1744;
185.4000;0.9223;-1.1644;
185.7000;0.9214;-1.1569;
186.0000;0.9198;-1.1594;
186.3000;0.9223;-1.1444;
186.6000;0.9214;-1.1419;
186.9000;0.9190;-1.1519;
187.2000;0.9214;-1.1419;
187.5000;0.9239;-1.1370;
187.8000;0.9198;-1.1469;
188.1000;0.9206;-1.1395;
188.4000;0.9231;-1.1320;
188.7000;0.9223;-1.1295;
189.0000;0.9214;-1.1270;
189.3000;0.9198;-1.1395;
189.6000;0.9206;-1.1320;
189.9000;0.9190;-1.1295;
190.2000;0.9247;-1.1145;
190.5000;0.9190;-1.1320;
190.8000;0.9190;-1.1295;
191.1000;0.9198;-1.1245;
191.4000;0.9206;-1.1220;
191.7000;0.9198;-1.1370;
192.0000;0.9280;-1.1095;
192.3000;0.9190;-1.1320;
192.6000;0.9133;-1.1444;
192.9000;0.9149;-1.1444;
193.2000;0.9190;-1.1295;
193.5000;0.9141;-1.1469;
193.8000;0.9206;-1.1245;
194.1000;0.9182;-1.1270;
194.4000;0.9174;-1.1320;
194.7000;0.9206;-1.1370;
195.0000;0.9198;-1.1469;
195.3000;0.9206;-1.1444;
195.6000;0.9206;-1.1469;
195.9000;0.9198;-1.1469;
196.2000;0.9182;-1.1444;
196.5000;0.9190;-1.1519;
196.8000;0.9198;-1.1519;
197.1000;0.9101;-1.1719;
197.4000;0.9182;-1.1395;
197.7000;0.9182;-1.1419;
198.0000;0.9133;-1.1619;
198.3000;0.9182;-1.1494;
198.6000;0.9101;-1.1694;
198.9000;0.9182;-1.1395;
199.2000;0.9182;-1.1395;
199.5000;0.9166;-1.1519;
199.8000;0.9182;-1.1469;
200.1000;0.9206;-1.1469;
200.4000;0.9255;-1.1320;
200.7000;0.9182;-1.1469;
201.0000;0.9182;-1.1544;
201.3000;0.9223;-1.1370;
201.6000;0.9174;-1.1419;
201.9000;0.9198;-1.1245;
202.2000;0.9198;-1.1245;
202.5000;0.9174;-1.1295;
202.8000;0.9117;-1.1444;
203.1000;0.9190;-1.1345;
203.4000;0.9166;-1.1320;
203.7000;0.9190;-1.1295;
204.0000;0.9190;-1.1370;
204.3000;0.9190;-1.1370;
204.6000;0.9174;-1.1395;
204.9000;0.9174;-1.1395;
205.2000;0.9231;-1.1170;
205.5000;0.9206;-1.1095;
205.8000;0.9198;-1.1170;
206.1000;0.9174;-1.1170;
206.4000;0.9174;-1.1145;
206.7000;0.9166;-1.1220;
207.0000;0.9214;-1.1120;
207.3000;0.9158;-1.1245;
207.6000;0.9149;-1.1295;
207.9000;0.9182;-1.1270;
208.2000;0.9174;-1.1220;
208.5000;0.9166;-1.1245;
208.8000;0.9174;-1.1270;
209.1000;0.9182;-1.1145;
209.4000;0.9182;-1.1120;
209.7000;0.9182;-1.1170;
210.0000;0.9158;-1.1245;
210.3000;0.9182;-1.1170;
210.6000;0.9182;-1.1220;
210.9000;0.9158;-1.1419;
211.2000;0.9149;-1.1395;
211.5000;0.9166;-1.1370;
211.8000;0.9190;-1.1345;
212.1000;0.9166;-1.1295;
212.4000;0.9223;-1.1095;
212.7000;0.9158;-1.1245;
213.0000;0.9166;-1.1170;
213.3000;0.9158;-1.1245;
213.6000;0.9166;-1.1270;
213.9000;0.9149;-1.1270;
214.2000;0.9158;-1.1245;
214.5000;0.9166;-1.1245;
214.8000;0.9133;-1.1444;
215.1000;0.9149;-1.1370;
215.4000;0.9125;-1.1395;
215.7000;0.9174;-1.1195;
216.0000;0.9149;-1.1245;
216.3000;0.9166;-1.1170;
216.6000;0.9166;-1.1145;
216.9000;0.9166;-1.1195;
217.2000;0.9158;-1.1170;
217.5000;0.9125;-1.1245;
217.8000;0.9158;-1.1195;
218.1000;0.9149;-1.1270;
218.4000;0.9198;-1.1120;
218.7000;0.9174;-1.1195;
219.0000;0.9166;-1.1245;
219.3000;0.9190;-1.1195;
219.6000;0.9158;-1.1245;
219.9000;0.9174;-1.1120;
220.2000;0.9166;-1.1170;
220.5000;0.9206;-1.1070;
220.8000;0.9149;-1.1245;
221.1000;0.9117;-1.1345;
221.4000;0.9166;-1.1345;
221.7000;0.9158;-1.1370;
222.0000;0.9166;-1.1444;
222.3000;0.9133;-1.1444;
222.6000;0.9206;-1.1220;
222.9000;0.9149;-1.1295;
223.2000;0.9166;-1.1220;
223.5000;0.9149;-1.1295;
223.8000;0.9166;-1.1270;
224.1000;0.9149;-1.1320;
224.4000;0.9166;-1.1245;
224.7000;0.9166;-1.1370;
225.0000;0.9166;-1.1419;
225.3000;0.9084;-1.1694;
225.6000;0.9141;-1.1519;
225.9000;0.9166;-1.1494;
226.2000;0.9166;-1.1395;
226.5000;0.9068;-1.1619;
226.8000;0.9263;-1.1145;
227.1000;0.9174;-1.1419;
227.4000;0.9158;-1.1469;
227.7000;0.9133;-1.1469;
228.0000;0.9158;-1.1419;
228.3000;0.9166;-1.1519;
228.6000;0.9052;-1.1719;
228.9000;0.9158;-1.1395;
229.2000;0.9141;-1.1395;
229.5000;0.9158;-1.1345;
229.8000;0.9117;-1.1395;
230.1000;0.9149;-1.1320;
230.4000;0.9141;-1.1345;
230.7000;0.9125;-1.1395;
231.0000;0.9141;-1.1370;
231.3000;0.9141;-1.1370;
231.6000;0.9141;-1.1469;
231.9000;0.9166;-1.1444;
232.2000;0.9117;-1.1519;
232.5000;0.9149;-1.1469;
232.8000;0.9133;-1.1419;
233.1000;0.9133;-1.1419;
233.4000;0.9149;-1.1395;
233.7000;0.9141;-1.1295;
234.0000;0.9141;-1.1345;
234.3000;0.9141;-1.1345;
234.6000;0.9158;-1.1345;
234.9000;0.9149;-1.1320;
235.2000;0.9149;-1.1270;
235.5000;0.9101;-1.1419;
235.8000;0.9141;-1.1320;
236.1000;0.9158;-1.1270;
236.4000;0.9239;-1.1045;
236.7000;0.9141;-1.1320;
237.0000;0.9149;-1.1295;
237.3000;0.9141;-1.1270;
237.6000;0.9133;-1.1195;
237.9000;0.9133;-1.1220;
238.2000;0.9125;-1.1295;
238.5000;0.9133;-1.1220;
238.8000;0.9125;-1.1170;
239.1000;0.9125;-1.1270;
239.4000;0.9133;-1.1245;
239.7000;0.9125;-1.1220;
240.0000;0.9149;-1.1170;
240.3000;0.9141;-1.1145;
240.6000;0.9052;-1.1295;
240.9000;0.9125;-1.1220;
241.2000;0.9125;-1.1145;
241.5000;0.9190;-1.0996;
241.8000;0.9125;-1.1145;
242.1000;0.9125;-1.1145;
242.4000;0.9125;-1.1145;
242.7000;0.9214;-1.0971;
243.0000;0.9133;-1.1170;
243.3000;0.9133;-1.1245;
243.6000;0.9125;-1.1245;
243.9000;0.9117;-1.1295;
244.2000;0.9166;-1.1295;
244.5000;0.9174;-1.1245;
244.8000;0.9158;-1.1345;
245.1000;0.9149;-1.1270;
245.4000;0.9166;-1.1220;
245.7000;0.9133;-1.1220;
246.0000;0.9141;-1.1170;
246.3000;0.9125;-1.1170;
246.6000;0.9133;-1.1245;
246.9000;0.9125;-1.1295;
247.2000;0.9141;-1.1145;
247.5000;0.9125;-1.1120;
247.8000;0.9117;-1.1195;
248.1000;0.9125;-1.1120;
248.4000;0.9109;-1.1245;
248.7000;0.9125;-1.1170;
249.0000;0.9125;-1.1120;
249.3000;0.9133;-1.1195;
249.6000;0.9141;-1.1220;
249.9000;0.9149;-1.1170;
250.2000;0.9149;-1.1195;
250.5000;0.9149;-1.1295;
250.8000;0.9133;-1.1370;
251.1000;0.9117;-1.1195;
251.4000;0.9133;-1.1170;
251.7000;0.9198;-1.1070;
252.0000;0.9158;-1.1195;
252.3000;0.9101;-1.1295;
252.6000;0.9117;-1.1195;
252.9000;0.9149;-1.1095;
253.2000;0.9117;-1.1270;
253.5000;0.9109;-1.1370;
253.8000;0.9117;-1.1370;
254.1000;0.9044;-1.1469;
254.4000;0.9117;-1.1320;
254.7000;0.9133;-1.1170;
255.0000;0.9133;-1.1120;
255.3000;0.9125;-1.1120;
255.6000;0.9133;-1.1070;
255.9000;0.9133;-1.0996;
256.2000;0.9125;-1.1095;
256.5000;0.9158;-1.1045;
256.8000;0.9133;-1.1120;
257.1000;0.9109;-1.1170;
257.4000;0.9133;-1.1195;
257.7000;0.9149;-1.1195;
258.0000;0.9133;-1.1195;
258.3000;0.9117;-1.1245;
258.6000;0.9117;-1.1270;
258.9000;0.9109;-1.1295;
259.2000;0.9117;-1.1220;
259.5000;0.9109;-1.1295;
259.8000;0.9117;-1.1295;
260.1000;0.9109;-1.1195;
260.4000;0.9109;-1.1220;
260.7000;0.9125;-1.1145;
261.0000;0.9101;-1.1245;
261.3000;0.9092;-1.1370;
261.6000;0.9141;-1.1295;
261.9000;0.9133;-1.1395;
262.2000;0.9092;-1.1419;
262.5000;0.9092;-1.1395;
262.8000;0.9109;-1.1370;
263.1000;0.9052;-1.1494;
263.4000;0.9117;-1.1370;
263.7000;0.9092;-1.1370;
264.0000;0.9101;-1.1395;
264.3000;0.9125;-1.1270;
264.6000;0.9060;-1.1345;
264.9000;0.9109;-1.1345;
265.2000;0.9117;-1.1345;
265.5000;0.9109;-1.1345;
265.8000;0.9125;-1.1320;
266.1000;0.9109;-1.1295;
266.4000;0.9092;-1.1345;
266.7000;0.9149;-1.1170;
267.0000;0.9117;-1.1295;
267.3000;0.9109;-1.1295;
267.6000;0.9084;-1.1320;
267.9000;0.9109;-1.1320;
268.2000;0.9101;-1.1270;
268.5000;0.9109;-1.1245;
268.8000;0.9101;-1.1245;
269.1000;0.9109;-1.1220;
269.4000;0.9117;-1.1170;
269.7000;0.9109;-1.1195;
270.0000;0.9133;-1.1070;
270.3000;0.9101;-1.1220;
270.6000;0.9141;-1.1170;
270.9000;0.9117;-1.1120;
271.2000;0.9101;-1.1145;
271.5000;0.9101;-1.1170;
271.8000;0.9060;-1.1320;
272.1000;0.9109;-1.1220;
272.4000;0.9109;-1.1245;
272.7000;0.9101;-1.1320;
273.0000;0.9117;-1.1245;
273.3000;0.9117;-1.1120;
273.6000;0.9117;-1.1095;
273.9000;0.9092;-1.1170;
274.2000;0.9109;-1.1120;
274.5000;0.9101;-1.1170;
274.8000;0.9109;-1.1270;
275.1000;0.9084;-1.1370;
275.4000;0.9117;-1.1170;
275.7000;0.9092;-1.1145;
276.0000;0.9109;-1.1095;
276.3000;0.9109;-1.1120;
276.6000;0.9092;-1.1170;
276.9000;0.9109;-1.1045;
277.2000;0.9125;-1.1045;
277.5000;0.9109;-1.1095;
277.8000;0.9084;-1.1070;
278.1000;0.9125;-1.1021;
278.4000;0.9092;-1.1145;
278.7000;0.9101;-1.1120;
279.0000;0.9068;-1.1170;
279.3000;0.9092;-1.1120;
279.6000;0.9109;-1.1070;
279.9000;0.9101;-1.1145;
280.2000;0.9076;-1.1195;
280.5000;0.9125;-1.1070;
280.8000;0.9092;-1.1145;
281.1000;0.9149;-1.1045;
281.4000;0.9060;-1.1345;
281.7000;0.9092;-1.1220;
282.0000;0.9084;-1.1270;
282.3000;0.9133;-1.1095;
282.6000;0.9117;-1.1145;
282.9000;0.9101;-1.1195;
283.2000;0.9044;-1.1320;
283.5000;0.9109;-1.1195;
283.8000;0.9092;-1.1095;
284.1000;0.9101;-1.1045;
284.4000;0.9101;-1.1095;
284.7000;0.9092;-1.1021;
285.0000;0.9125;-1.1070;
285.3000;0.9052;-1.1345;
285.6000;0.9109;-1.1220;
285.9000;0.9109;-1.1245;
286.2000;0.9101;-1.1370;
286.5000;0.9027;-1.1469;
286.8000;0.9101;-1.1220;
287.1000;0.9084;-1.1295;
287.4000;0.9076;-1.1320;
287.7000;0.9084;-1.1220;
288.0000;0.9068;-1.1220;
288.3000;0.9101;-1.1145;
288.6000;0.9084;-1.1145;
288.9000;0.9101;-1.1045;
289.2000;0.9092;-1.1070;
289.5000;0.9092;-1.1095;
289.8000;0.9076;-1.1145;
290.1000;0.9092;-1.1145;
290.4000;0.9109;-1.1045;
290.7000;0.9084;-1.1045;
291.0000;0.9068;-1.1070;
291.3000;0.9035;-1.1220;
291.6000;0.9060;-1.1070;
291.9000;0.9101;-1.1045;
292.2000;0.9117;-1.0971;
292.5000;0.9101;-1.1021;
292.8000;0.9060;-1.0996;
293.1000;0.9084;-1.1070;
293.4000;0.9117;-1.1045;
293.7000;0.9092;-1.1120;
294.0000;0.9092;-1.1120;
294.3000;0.9084;-1.1170;
294.6000;0.9068;-1.1245;
294.9000;0.9084;-1.1295;
295.2000;0.9068;-1.1345;
295.5000;0.9084;-1.1370;
295.8000;0.9101;-1.1370;
296.1000;0.9109;-1.1370;
296.4000;0.9109;-1.1345;
296.7000;0.9092;-1.1295;
297.0000;0.9092;-1.1295;
297.3000;0.9084;-1.1295;
297.6000;0.9117;-1.1095;
297.9000;0.9076;-1.1220;
298.2000;0.9076;-1.1145;
298.5000;0.9076;-1.1095;
298.8000;0.9076;-1.1120;
299.1000;0.9084;-1.1145;
299.4000;0.9076;-1.1120;
299.7000;0.9060;-1.1270;
300.0000;0.9092;-1.1070;
300.3000;0.9076;-1.1045;
300.6000;0.9084;-1.1045;
300.9000;0.9076;-1.0996;
301.2000;0.9076;-1.0996;
301.5000;0.9076;-1.0996;
301.8000;0.9076;-1.1021;
302.1000;0.9109;-1.0946;
302.4000;0.9076;-1.1021;
302.7000;0.9101;-1.0946;
303.0000;0.9117;-1.0946;
303.3000;0.9084;-1.1070;
303.6000;0.9076;-1.1095;
303.9000;0.9068;-1.1070;
304.2000;0.9068;-1.1120;
304.5000;0.9076;-1.1120;
304.8000;0.9068;-1.1070;
305.1000;0.9084;-1.1070;
305.4000;0.9068;-1.1095;
305.7000;0.9068;-1.0996;
306.0000;0.9084;-1.0921;
306.3000;0.9035;-1.1045;
306.6000;0.9101;-1.0946;
306.9000;0.9076;-1.1070;
307.2000;0.9084;-1.1070;
307.5000;0.9092;-1.1070;
307.8000;0.9109;-1.1095;
308.1000;0.9035;-1.1195;
308.4000;0.9092;-1.1045;
308.7000;0.9044;-1.1145;
309.0000;0.8995;-1.1270;
309.3000;0.9109;-1.1045;
309.6000;0.9109;-1.1070;
309.9000;0.9068;-1.1145;
310.2000;0.9076;-1.1220;
310.5000;0.9068;-1.1245;
310.8000;0.9044;-1.1295;
311.1000;0.9068;-1.1070;
311.4000;0.9019;-1.1220;
311.7000;0.9060;-1.1120;
312.0000;0.9060;-1.1170;
312.3000;0.9076;-1.1095;
312.6000;0.8987;-1.1270;
312.9000;0.9117;-1.0871;
313.2000;0.9060;-1.1021;
313.5000;0.9060;-1.1095;
313.8000;0.9027;-1.1195;
314.1000;0.9068;-1.1095;
314.4000;0.9068;-1.1170;
314.7000;0.9060;-1.1120;
315.0000;0.9092;-1.1021;
315.3000;0.9109;-1.0821;
315.6000;0.9060;-1.1021;
315.9000;0.9052;-1.1070;
316.2000;0.9060;-1.1021;
316.5000;0.9019;-1.1120;
316.8000;0.9068;-1.0946;
317.1000;0.9052;-1.0971;
317.4000;0.9003;-1.1145;
317.7000;0.9052;-1.0996;
318.0000;0.9060;-1.0996;
318.3000;0.8995;-1.1170;
318.6000;0.9068;-1.1095;
318.9000;0.9076;-1.1120;
319.2000;0.9011;-1.1295;
319.5000;0.9068;-1.1120;
319.8000;0.9068;-1.1195;
320.1000;0.9052;-1.1345;
320.4000;0.9060;-1.1395;
320.7000;0.9052;-1.1419;
321.0000;0.9052;-1.1395;
321.3000;0.9052;-1.1370;
321.6000;0.9060;-1.1370;
321.9000;0.9076;-1.1295;
322.2000;0.9060;-1.1270;
322.5000;0.9076;-1.1120;
322.8000;0.9084;-1.1021;
323.1000;0.9068;-1.1070;
323.4000;0.9052;-1.1045;
323.7000;0.9084;-1.0946;
324.0000;0.9068;-1.1021;
324.3000;0.9052;-1.1070;
324.6000;0.9052;-1.1095;
324.9000;0.9044;-1.1021;
325.2000;0.9027;-1.1021;
325.5000;0.9052;-1.1045;
325.8000;0.9084;-1.0921;
326.1000;0.9035;-1.1095;
326.4000;0.9044;-1.1120;
326.7000;0.9092;-1.1070;
327.0000;0.9109;-1.0996;
327.3000;0.9060;-1.1120;
327.6000;0.9052;-1.1195;
327.9000;0.9060;-1.1145;
328.2000;0.9052;-1.1220;
328.5000;0.9027;-1.1245;
328.8000;0.9044;-1.1245;
329.1000;0.9052;-1.1170;
329.4000;0.9035;-1.1295;
329.7000;0.9060;-1.1220;
330.0000;0.9044;-1.1295;
330.3000;0.9076;-1.1320;
330.6000;0.9092;-1.1220;
330.9000;0.9068;-1.1220;
331.2000;0.9060;-1.1345;
331.5000;0.9060;-1.1320;
331.8000;0.9068;-1.1245;
332.1000;0.9044;-1.1270;
332.4000;0.9003;-1.1320;
332.7000;0.9060;-1.1270;
333.0000;0.9076;-1.1120;
333.3000;0.9052;-1.1145;
333.6000;0.8995;-1.1320;
333.9000;0.9068;-1.1095;
334.2000;0.9027;-1.1120;
334.5000;0.9003;-1.1195;
334.8000;0.8995;-1.1195;
335.1000;0.9044;-1.1021;
335.4000;0.9035;-1.1070;
335.7000;0.9052;-1.1021;
336.0000;0.9060;-1.0996;
336.3000;0.9003;-1.1120;
336.6000;0.9035;-1.1021;
336.9000;0.9019;-1.1070;
337.2000;0.9044;-1.1095;
337.5000;0.9052;-1.1045;
337.8000;0.9003;-1.1170;
338.1000;0.9027;-1.1045;
338.4000;0.8995;-1.1170;
338.7000;0.9027;-1.1095;
339.0000;0.9052;-1.1045;
339.3000;0.9027;-1.1021;
339.6000;0.9003;-1.1045;
339.9000;0.9044;-1.0921;
340.2000;0.9035;-1.0971;
340.5000;0.9060;-1.0871;
340.8000;0.9052;-1.0896;
341.1000;0.9011;-1.0971;
341.4000;0.8995;-1.1045;
341.7000;0.9052;-1.1070;
342.0000;0.8970;-1.1270;
342.3000;0.9019;-1.1195;
342.6000;0.9044;-1.1270;
342.9000;0.9035;-1.1245;
343.2000;0.9044;-1.1120;
343.5000;0.9035;-1.1095;
343.8000;0.9052;-1.1045;
344.1000;0.9044;-1.0996;
344.4000;0.9035;-1.1070;
344.7000;0.8946;-1.1320;
345.0000;0.9035;-1.1195;
345.3000;0.9052;-1.1145;
345.6000;0.9011;-1.1270;
345.9000;0.8962;-1.1345;
346.2000;0.9044;-1.1145;
346.5000;0.9003;-1.1120;
346.8000;0.9060;-1.0996;
347.1000;0.9027;-1.0971;
347.4000;0.9044;-1.0896;
347.7000;0.9052;-1.0921;
348.0000;0.9019;-1.1021;
348.3000;0.9027;-1.1045;
348.6000;0.9052;-1.1021;
348.9000;0.9035;-1.0946;
349.2000;0.9019;-1.1145;
349.5000;0.9035;-1.1095;
349.8000;0.9044;-1.0996;
350.1000;0.9068;-1.0846;
350.4000;0.9052;-1.0871;
350.7000;0.9019;-1.0846;
351.0000;0.8987;-1.0921;
351.3000;0.9052;-1.0871;
351.6000;0.9003;-1.0996;
351.9000;0.8954;-1.1195;
352.2000;0.9027;-1.1021;
352.5000;0.9027;-1.1070;
352.8000;0.9076;-1.0846;
353.1000;0.9027;-1.0921;
353.4000;0.9003;-1.1021;
353.7000;0.9027;-1.0971;
354.0000;0.9035;-1.0946;
354.3000;0.8946;-1.1195;
354.6000;0.9044;-1.1045;
354.9000;0.9019;-1.1045;
355.2000;0.9011;-1.1021;
355.5000;0.9068;-1.0921;
355.8000;0.9035;-1.1145;
356.1000;0.9035;-1.1045;
356.4000;0.9027;-1.1095;
356.7000;0.9011;-1.1145;
357.0000;0.8954;-1.1245;
357.3000;0.9035;-1.0996;
357.6000;0.8962;-1.1195;
357.9000;0.9027;-1.1021;
358.2000;0.9035;-1.1120;
358.5000;0.9003;-1.1070;
358.8000;0.9035;-1.0996;
359.1000;0.9027;-1.0946;
359.4000;0.9027;-1.0996;
359.7000;0.9019;-1.0971;
360.0000;0.9044;-1.0846;
360.3000;0.9027;-1.0871;
360.6000;0.9044;-1.0846;
360.9000;0.9003;-1.0896;
361.2000;0.9044;-1.0846;
361.5000;0.9101;-1.0796;
361.8000;0.9019;-1.1021;
362.1000;0.9019;-1.1021;
362.4000;0.9035;-1.1021;
362.7000;0.9035;-1.0896;
363.0000;0.9035;-1.0771;
363.3000;0.9011;-1.0871;
363.6000;0.9035;-1.0871;
363.9000;0.9052;-1.0746;
364.2000;0.9027;-1.0746;
364.5000;0.9019;-1.0896;
364.8000;0.9027;-1.0946;
365.1000;0.8995;-1.0946;
365.4000;0.9027;-1.0896;
365.7000;0.9084;-1.0696;
366.0000;0.9003;-1.0921;
366.3000;0.9035;-1.0871;
366.6000;0.9044;-1.0871;
366.9000;0.9003;-1.0946;
367.2000;0.9035;-1.0821;
367.5000;0.9027;-1.0896;
367.8000;0.9011;-1.0896;
368.1000;0.9019;-1.0846;
368.4000;0.9019;-1.0821;
368.7000;0.9101;-1.0547;
369.0000;0.9044;-1.0671;
369.3000;0.9019;-1.0696;
369.6000;0.9011;-1.0671;
369.9000;0.9076;-1.0547;
370.2000;0.9060;-1.0622;
370.5000;0.9011;-1.0746;
370.8000;0.9011;-1.0696;
371.1000;0.9011;-1.0796;
371.4000;0.9035;-1.0746;
371.7000;0.9019;-1.0671;
372.0000;0.9027;-1.0647;
372.3000;0.8987;-1.0746;
372.6000;0.9011;-1.0597;
372.9000;0.9011;-1.0671;
373.2000;0.9027;-1.0696;
373.5000;0.9003;-1.0821;
373.8000;0.9019;-1.0796;
374.1000;0.9027;-1.0821;
374.4000;0.9019;-1.0796;
374.7000;0.9019;-1.0671;
375.0000;0.9027;-1.0696;
375.3000;0.9044;-1.0746;
375.6000;0.9027;-1.0771;
375.9000;0.9011;-1.0721;
376.2000;0.9003;-1.0696;
376.5000;0.9027;-1.0746;
376.8000;0.9011;-1.0821;
377.1000;0.9003;-1.0846;
377.4000;0.8930;-1.0971;
377.7000;0.9019;-1.0647;
378.0000;0.9035;-1.0647;
378.3000;0.8962;-1.0796;
378.6000;0.9011;-1.0696;
378.9000;0.9011;-1.0721;
379.2000;0.9011;-1.0622;
379.5000;0.9027;-1.0696;
379.8000;0.9003;-1.0846;
380.1000;0.9003;-1.0871;
380.4000;0.8987;-1.0846;
380.7000;0.9011;-1.0821;
381.0000;0.9035;-1.0796;
381.3000;0.9011;-1.0696;
381.6000;0.9003;-1.0796;
381.9000;0.9003;-1.0771;
382.2000;0.8938;-1.0996;
382.5000;0.9011;-1.0846;
382.8000;0.9011;-1.0796;
383.1000;0.9011;-1.0771;
383.4000;0.9003;-1.0721;
383.7000;0.8995;-1.0746;
384.0000;0.9003;-1.0696;
384.3000;0.9011;-1.0696;
384.6000;0.9027;-1.0696;
384.9000;0.9011;-1.0622;
385.2000;0.9011;-1.0597;
385.5000;0.9003;-1.0547;
385.8000;0.8995;-1.0597;
386.1000;0.8987;-1.0696;
386.4000;0.8995;-1.0846;
386.7000;0.9003;-1.0871;
387.0000;0.9019;-1.0871;
387.3000;0.8995;-1.0946;
387.6000;0.8970;-1.0996;
387.9000;0.9011;-1.0896;
388.2000;0.9019;-1.0896;
388.5000;0.9011;-1.0996;
388.8000;0.8962;-1.1095;
389.1000;0.9011;-1.0946;
389.4000;0.9011;-1.0921;
389.7000;0.8962;-1.1120;
390.0000;0.9011;-1.1070;
390.3000;0.9003;-1.1045;
390.6000;0.8978;-1.1120;
390.9000;0.9027;-1.1070;
391.2000;0.9003;-1.1070;
391.5000;0.9003;-1.0996;
391.8000;0.9003;-1.1021;
392.1000;0.9027;-1.1021;
392.4000;0.8995;-1.1045;
392.7000;0.9092;-1.0696;
393.0000;0.9011;-1.0996;
393.3000;0.9019;-1.0996;
393.6000;0.9003;-1.1145;
393.9000;0.9003;-1.1095;
394.2000;0.9027;-1.1021;
394.5000;0.9011;-1.1045;
394.8000;0.9011;-1.1070;
395.1000;0.8995;-1.1045;
395.4000;0.8978;-1.1021;
395.7000;0.9011;-1.0896;
396.0000;0.9019;-1.0896;
396.3000;0.9044;-1.0921;
396.6000;0.8995;-1.1070;
396.9000;0.8995;-1.1170;
397.2000;0.8954;-1.1220;
397.5000;0.8995;-1.1095;
397.8000;0.8995;-1.1045;
398.1000;0.9011;-1.0996;
398.4000;0.8978;-1.1021;
398.7000;0.8995;-1.0996;
399.0000;0.8995;-1.0921;
399.3000;0.9035;-1.0771;
399.6000;0.9011;-1.0896;
399.9000;0.8970;-1.1021;
400.2000;0.8995;-1.0921;
400.5000;0.8995;-1.0871;
400.8000;0.9019;-1.0921;
401.1000;0.8946;-1.1145;
401.4000;0.9092;-1.0771;
401.7000;0.9011;-1.0971;
402.0000;0.9003;-1.0946;
402.3000;0.8970;-1.1021;
402.6000;0.9003;-1.0921;
402.9000;0.8978;-1.1021;
403.2000;0.8962;-1.1095;
403.5000;0.8987;-1.0971;
403.8000;0.8987;-1.0996;
404.1000;0.8987;-1.0996;
404.4000;0.8978;-1.0971;
404.7000;0.8987;-1.0846;
405.0000;0.8995;-1.0871;
405.3000;0.8995;-1.0871;
405.6000;0.8987;-1.0896;
405.9000;0.8970;-1.0921;
406.2000;0.8995;-1.0821;
406.5000;0.8987;-1.0896;
406.8000;0.8978;-1.0896;
407.1000;0.8938;-1.1095;
407.4000;0.9003;-1.0921;
407.7000;0.8995;-1.0921;
408.0000;0.9019;-1.0871;
408.3000;0.8995;-1.0871;
408.6000;0.8995;-1.0871;
408.9000;0.9003;-1.0796;
409.2000;0.9011;-1.0746;
409.5000;0.9011;-1.0746;
409.8000;0.9019;-1.0696;
410.1000;0.8995;-1.0721;
410.4000;0.8987;-1.0846;
410.7000;0.8995;-1.0796;
411.0000;0.9003;-1.0721;
411.3000;0.9003;-1.0696;
411.6000;0.8978;-1.0846;
411.9000;0.8987;-1.0821;
412.2000;0.8978;-1.0846;
412.5000;0.9003;-1.0846;
412.8000;0.9003;-1.0896;
413.1000;0.8987;-1.1045;
413.4000;0.8970;-1.1045;
413.7000;0.9035;-1.0896;
414.0000;0.9101;-1.0746;
414.3000;0.8995;-1.0846;
414.6000;0.8978;-1.0921;
414.9000;0.8987;-1.0796;
415.2000;0.8987;-1.0721;
415.5000;0.9003;-1.0597;
415.8000;0.8987;-1.0671;
416.1000;0.8987;-1.0771;
416.4000;0.8995;-1.0771;
416.7000;0.9019;-1.0721;
417.0000;0.8987;-1.0721;
417.3000;0.8970;-1.0671;
417.6000;0.8978;-1.0721;
417.9000;0.8987;-1.0597;
418.2000;0.8954;-1.0647;
418.5000;0.8987;-1.0522;
418.8000;0.8978;-1.0522;
419.1000;0.8962;-1.0647;
419.4000;0.8978;-1.0597;
419.7000;0.8987;-1.0597;
420.0000;0.8978;-1.0671;
420.3000;0.8995;-1.0671;
420.6000;0.8978;-1.0746;
420.9000;0.8995;-1.0721;
421.2000;0.8946;-1.0821;
421.5000;0.8995;-1.0771;
421.8000;0.8995;-1.0896;
422.1000;0.8978;-1.0946;
422.4000;0.8962;-1.0971;
422.7000;0.8995;-1.0946;
423.0000;0.8995;-1.0921;
423.3000;0.8946;-1.1045;
423.6000;0.8987;-1.1021;
423.9000;0.8970;-1.1070;
424.2000;0.8954;-1.1045;
424.5000;0.8970;-1.0996;
424.8000;0.8970;-1.0996;
425.1000;0.8946;-1.0971;
425.4000;0.9084;-1.0522;
425.7000;0.8987;-1.0846;
426.0000;0.8962;-1.0796;
426.3000;0.8987;-1.0771;
426.6000;0.8987;-1.0796;
426.9000;0.8987;-1.0896;
427.2000;0.9003;-1.0821;
427.5000;0.8954;-1.0971;
427.8000;0.8962;-1.0846;
428.1000;0.8946;-1.0896;
428.4000;0.8954;-1.0871;
428.7000;0.8978;-1.0871;
429.0000;0.8987;-1.0921;
429.3000;0.8978;-1.0921;
429.6000;0.8978;-1.0896;
429.9000;0.8954;-1.0871;
430.2000;0.8978;-1.0796;
430.5000;0.8978;-1.0846;
430.8000;0.8987;-1.0796;
431.1000;0.8954;-1.0796;
431.4000;0.8978;-1.0846;
431.7000;0.8913;-1.0971;
432.0000;0.8978;-1.0796;
432.3000;0.8962;-1.0896;
432.6000;0.8970;-1.0971;
432.9000;0.8987;-1.0871;
433.2000;0.8962;-1.1021;
433.5000;0.8978;-1.1045;
433.8000;0.8930;-1.1245;
434.1000;0.8987;-1.1095;
434.4000;0.9003;-1.0946;
434.7000;0.8978;-1.1021;
435.0000;0.8995;-1.1021;
435.3000;0.8978;-1.1045;
435.6000;0.9003;-1.1045;
435.9000;0.8978;-1.1021;
436.2000;0.8962;-1.1070;
436.5000;0.8970;-1.0996;
436.8000;0.8930;-1.1045;
437.1000;0.8995;-1.0871;
437.4000;0.8987;-1.0921;
437.7000;0.8995;-1.0971;
438.0000;0.8978;-1.0971;
438.3000;0.8970;-1.0946;
438.6000;0.8978;-1.0921;
438.9000;0.8978;-1.0946;
439.2000;0.8978;-1.0996;
439.5000;0.8962;-1.1021;
439.8000;0.8987;-1.0821;
440.1000;0.8987;-1.0871;
440.4000;0.8987;-1.0871;
440.7000;0.8962;-1.0921;
441.0000;0.8978;-1.0846;
441.3000;0.8946;-1.0796;
441.6000;0.8987;-1.0671;
441.9000;0.8987;-1.0647;
442.2000;0.8962;-1.0671;
442.5000;0.8954;-1.0647;
442.8000;0.8978;-1.0746;
443.1000;0.8978;-1.0746;
443.4000;0.8962;-1.0846;
443.7000;0.8921;-1.0946;
444.0000;0.8978;-1.0871;
444.3000;0.8970;-1.0921;
444.6000;0.8978;-1.0896;
444.9000;0.8970;-1.0896;
445.2000;0.8970;-1.0821;
445.5000;0.8954;-1.0921;
445.8000;0.8946;-1.0946;
446.1000;0.8954;-1.0896;
446.4000;0.8987;-1.0921;
446.7000;0.8987;-1.0946;
447.0000;0.8978;-1.0896;
447.3000;0.8962;-1.0896;
447.6000;0.8970;-1.0921;
447.9000;0.8962;-1.0946;
448.2000;0.8987;-1.0921;
448.5000;0.8995;-1.0896;
448.8000;0.8962;-1.1045;
449.1000;0.8987;-1.0921;
449.4000;0.8930;-1.1095;
449.7000;0.8970;-1.0971;
450.0000;0.8938;-1.1070;
450.3000;0.8962;-1.1021;
450.6000;0.8938;-1.1120;
450.9000;0.8938;-1.1070;
451.2000;0.8946;-1.1070;
451.5000;0.8905;-1.1320;
451.8000;0.8970;-1.1070;
452.1000;0.8962;-1.1021;
452.4000;0.8970;-1.0971;
452.7000;0.8962;-1.0871;
453.0000;0.8954;-1.0896;
453.3000;0.8970;-1.0846;
453.6000;0.8962;-1.0821;
453.9000;0.8962;-1.0871;
454.2000;0.8962;-1.0821;
454.5000;0.8962;-1.0821;
454.8000;0.8962;-1.0871;
455.1000;0.8987;-1.0796;
455.4000;0.8954;-1.0946;
455.7000;0.8962;-1.0921;
456.0000;0.8962;-1.0946;
456.3000;0.8954;-1.0921;
456.6000;0.8962;-1.0921;
456.9000;0.8978;-1.0921;
457.2000;0.8970;-1.0921;
457.5000;0.8962;-1.0896;
457.8000;0.8954;-1.0846;
458.1000;0.8954;-1.0871;
458.4000;0.8970;-1.0871;
458.7000;0.8962;-1.0846;
459.0000;0.8970;-1.0846;
459.3000;0.8978;-1.0746;
459.6000;0.8954;-1.0721;
459.9000;0.8970;-1.0696;
460.2000;0.8946;-1.0696;
460.5000;0.8962;-1.0597;
460.8000;0.8962;-1.0622;
461.1000;0.8987;-1.0547;
461.4000;0.8946;-1.0696;
461.7000;0.8938;-1.0671;
462.0000;0.8962;-1.0622;
462.3000;0.8962;-1.0696;
462.6000;0.8913;-1.0821;
462.9000;0.8946;-1.0721;
463.2000;0.8946;-1.0696;
463.5000;0.8970;-1.0547;
463.8000;0.9011;-1.0372;
464.1000;0.8970;-1.0497;
464.4000;0.8970;-1.0547;
464.7000;0.8946;-1.0547;
465.0000;0.8954;-1.0497;
465.3000;0.8938;-1.0572;
465.6000;0.8946;-1.0472;
465.9000;0.8938;-1.0497;
466.2000;0.8954;-1.0547;
466.5000;0.8954;-1.0597;
466.8000;0.8938;-1.0696;
467.1000;0.8946;-1.0696;
467.4000;0.8946;-1.0771;
467.7000;0.8987;-1.0647;
468.0000;0.8954;-1.0622;
468.3000;0.9052;-1.0422;
468.6000;0.8938;-1.0721;
468.9000;0.8962;-1.0671;
469.2000;0.8930;-1.0896;
469.5000;0.8954;-1.0846;
469.8000;0.8995;-1.0796;
470.1000;0.8930;-1.0996;
470.4000;0.8962;-1.0921;
470.7000;0.8970;-1.0921;
471.0000;0.8930;-1.1021;
471.3000;0.8970;-1.0921;
471.6000;0.8970;-1.0971;
471.9000;0.8946;-1.1021;
472.2000;0.8962;-1.0896;
472.5000;0.8946;-1.0846;
472.8000;0.8978;-1.0721;
473.1000;0.8978;-1.0696;
473.4000;0.8938;-1.0771;
473.7000;0.9003;-1.0647;
474.0000;0.9019;-1.0647;
474.3000;0.8954;-1.0671;
474.6000;0.8930;-1.0821;
474.9000;0.8946;-1.0796;
475.2000;0.8970;-1.0671;
475.5000;0.8938;-1.0671;
475.8000;0.8946;-1.0746;
476.1000;0.9003;-1.0572;
476.4000;0.8954;-1.0647;
476.7000;0.8946;-1.0721;
477.0000;0.8921;-1.0771;
477.3000;0.8946;-1.0647;
477.6000;0.8954;-1.0547;
477.9000;0.8946;-1.0522;
478.2000;0.8962;-1.0472;
478.5000;0.8938;-1.0572;
478.8000;0.8987;-1.0447;
479.1000;0.8954;-1.0497;
479.4000;0.8954;-1.0497;
479.7000;0.8970;-1.0622;
480.0000;0.8962;-1.0671;
480.3000;0.8962;-1.0597;
480.6000;0.8954;-1.0547;
480.9000;0.8954;-1.0622;
481.2000;0.8954;-1.0696;
481.5000;0.8978;-1.0572;
481.8000;0.8962;-1.0696;
482.1000;0.8954;-1.0796;
482.4000;0.8946;-1.0846;
482.7000;0.9011;-1.0721;
483.0000;0.8962;-1.0821;
483.3000;0.8970;-1.0846;
483.6000;0.8946;-1.0971;
483.9000;0.8946;-1.0921;
484.2000;0.8954;-1.0846;
484.5000;0.8946;-1.0921;
484.8000;0.8946;-1.0996;
485.1000;0.8946;-1.1070;
485.4000;0.8954;-1.0921;
485.7000;0.8938;-1.0946;
486.0000;0.8970;-1.0921;
486.3000;0.8938;-1.1021;
486.6000;0.8962;-1.0871;
486.9000;0.8848;-1.1120;
487.2000;0.8930;-1.0771;
487.5000;0.8938;-1.0771;
487.8000;0.8938;-1.0771;
488.1000;0.8913;-1.0896;
488.4000;0.8938;-1.0846;
488.7000;0.8938;-1.0946;
489.0000;0.8938;-1.1021;
489.3000;0.8962;-1.0971;
489.6000;0.8930;-1.0921;
489.9000;0.8930;-1.0921;
490.2000;0.8881;-1.0846;
490.5000;0.8938;-1.0771;
490.8000;0.8946;-1.0821;
491.1000;0.8930;-1.0871;
491.4000;0.8954;-1.0846;
491.7000;0.8954;-1.0771;
492.0000;0.8970;-1.0721;
492.3000;0.8938;-1.0796;
492.6000;0.8946;-1.0721;
492.9000;0.8962;-1.0696;
493.2000;0.8913;-1.0796;
493.5000;0.8962;-1.0721;
493.8000;0.8946;-1.0696;
494.1000;0.8889;-1.0846;
494.4000;0.8970;-1.0721;
494.7000;0.8962;-1.0796;
495.0000;0.8930;-1.0896;
495.3000;0.8946;-1.0821;
495.6000;0.8946;-1.0796;
495.9000;0.8938;-1.0746;
496.2000;0.8938;-1.0746;
496.5000;0.9044;-1.0522;
496.8000;0.8921;-1.0896;
497.1000;0.8930;-1.0846;
497.4000;0.8938;-1.0771;
497.7000;0.8938;-1.0771;
498.0000;0.8962;-1.0771;
498.3000;0.8913;-1.0771;
498.6000;0.8921;-1.0721;
498.9000;0.8856;-1.0921;
499.2000;0.8905;-1.0771;
499.5000;0.8954;-1.0671;
499.8000;0.8921;-1.0796;
500.1000;0.8921;-1.0846;
500.4000;0.8954;-1.0796;
500.7000;0.8962;-1.0671;
501.0000;0.8856;-1.0896;
501.3000;0.8946;-1.0671;
501.6000;0.8930;-1.0796;
501.9000;0.8913;-1.0846;
502.2000;0.8921;-1.0821;
502.5000;0.8938;-1.0821;
502.8000;0.8938;-1.0821;
503.1000;0.8970;-1.0696;
503.4000;0.8921;-1.0721;
503.7000;0.8962;-1.0647;
504.0000;0.8946;-1.0671;
504.3000;0.8962;-1.0671;
504.6000;0.8938;-1.0696;
504.9000;0.8905;-1.0796;
505.2000;0.8946;-1.0771;
505.5000;0.8881;-1.0921;
505.8000;0.8921;-1.0721;
506.1000;0.8930;-1.0746;
506.4000;0.8954;-1.0721;
506.7000;0.8938;-1.0671;
507.0000;0.8930;-1.0671;
507.3000;0.8954;-1.0572;
507.6000;0.8930;-1.0696;
507.9000;0.8946;-1.0771;
508.2000;0.8954;-1.0821;
508.5000;0.8921;-1.0846;
508.8000;0.8954;-1.0796;
509.1000;0.8946;-1.0796;
509.4000;0.8954;-1.0771;
509.7000;0.8946;-1.0746;
510.0000;0.8962;-1.0771;
510.3000;0.8954;-1.0771;
510.6000;0.8954;-1.0696;
510.9000;0.8873;-1.0996;
511.2000;0.8930;-1.0821;
511.5000;0.8921;-1.0796;
511.8000;0.8938;-1.0696;
512.1000;0.8962;-1.0622;
512.4000;0.8946;-1.0696;
512.7000;0.8913;-1.0796;
513.0000;0.8930;-1.0721;
513.3000;0.8921;-1.0796;
513.6000;0.8930;-1.0821;
513.9000;0.8946;-1.0746;
514.2000;0.8913;-1.0796;
514.5000;0.8946;-1.0622;
514.8000;0.8938;-1.0647;
515.1000;0.8921;-1.0746;
515.4000;0.8970;-1.0647;
515.7000;0.8921;-1.0746;
516.0000;0.8946;-1.0746;
516.3000;0.8873;-1.0946;
516.6000;0.8921;-1.0796;
516.9000;0.8930;-1.0846;
517.2000;0.8897;-1.0971;
517.5000;0.8938;-1.0921;
517.8000;0.8938;-1.0871;
518.1000;0.8897;-1.0996;
518.4000;0.8938;-1.0896;
518.7000;0.8954;-1.0846;
519.0000;0.8930;-1.0896;
519.3000;0.8905;-1.0921;
519.6000;0.8930;-1.0746;
519.9000;0.8864;-1.0821;
520.2000;0.8930;-1.0622;
520.5000;0.8913;-1.0671;
520.8000;0.8970;-1.0622;
521.1000;0.8881;-1.0821;
521.4000;0.8921;-1.0622;
521.7000;0.8873;-1.0796;
522.0000;0.8930;-1.0597;
522.3000;0.8930;-1.0522;
522.6000;0.8954;-1.0597;
522.9000;0.8962;-1.0572;
523.2000;0.8921;-1.0671;
523.5000;0.8930;-1.0622;
523.8000;0.8921;-1.0622;
524.1000;0.8889;-1.0696;
524.4000;0.8921;-1.0647;
524.7000;0.8921;-1.0721;
525.0000;0.8962;-1.0622;
525.3000;0.8913;-1.0796;
525.6000;0.8921;-1.0746;
525.9000;0.8913;-1.0671;
526.2000;0.8905;-1.0622;
526.5000;0.8921;-1.0572;
526.8000;0.8897;-1.0647;
527.1000;0.8913;-1.0671;
527.4000;0.8930;-1.0647;
527.7000;0.8938;-1.0647;
528.0000;0.8856;-1.0821;
528.3000;0.8889;-1.0746;
528.6000;0.8921;-1.0647;
528.9000;0.8954;-1.0497;
529.2000;0.8905;-1.0622;
529.5000;0.8921;-1.0671;
529.8000;0.8930;-1.0647;
530.1000;0.8938;-1.0597;
530.4000;0.8930;-1.0547;
530.7000;0.8938;-1.0597;
531.0000;0.8913;-1.0647;
531.3000;0.8930;-1.0622;
531.6000;0.8930;-1.0622;
531.9000;0.8938;-1.0622;
532.2000;0.8921;-1.0547;
532.5000;0.8921;-1.0547;
532.8000;0.8930;-1.0547;
533.1000;0.8905;-1.0547;
533.4000;0.8905;-1.0572;
533.7000;0.8921;-1.0597;
534.0000;0.8938;-1.0572;
534.3000;0.8913;-1.0696;
534.6000;0.8913;-1.0671;
534.9000;0.8881;-1.0796;
535.2000;0.8962;-1.0597;
535.5000;0.8921;-1.0671;
535.8000;0.8921;-1.0771;
536.1000;0.8913;-1.0696;
536.4000;0.8913;-1.0622;
536.7000;0.8930;-1.0572;
537.0000;0.8913;-1.0796;
537.3000;0.8889;-1.0771;
537.6000;0.8930;-1.0696;
537.9000;0.8921;-1.0721;
538.2000;0.8897;-1.0871;
538.5000;0.8921;-1.0846;
538.8000;0.8921;-1.0821;
539.1000;0.8921;-1.0821;
539.4000;0.8946;-1.0771;
539.7000;0.8848;-1.0971;
540.0000;0.8938;-1.0746;
540.3000;0.8930;-1.0721;
540.6000;0.8873;-1.0846;
540.9000;0.8873;-1.0771;
541.2000;0.8930;-1.0572;
541.5000;0.8946;-1.0472;
541.8000;0.8938;-1.0522;
542.1000;0.8921;-1.0497;
542.4000;0.8913;-1.0497;
542.7000;0.8897;-1.0572;
543.0000;0.8873;-1.0622;
543.3000;0.8930;-1.0547;
543.6000;0.8995;-1.0372;
543.9000;0.9076;-1.0173;
544.2000;0.8930;-1.0522;
544.5000;0.8930;-1.0522;
544.8000;0.8905;-1.0597;
545.1000;0.8864;-1.0597;
545.4000;0.8987;-1.0347;
545.7000;0.8921;-1.0597;
546.0000;0.8856;-1.0821;
546.3000;0.8921;-1.0647;
546.6000;0.8889;-1.0597;
546.9000;0.8913;-1.0522;
547.2000;0.8897;-1.0497;
547.5000;0.8897;-1.0472;
547.8000;0.8921;-1.0447;
548.1000;0.8889;-1.0497;
548.4000;0.8897;-1.0522;
548.7000;0.8930;-1.0497;
549.0000;0.8921;-1.0497;
549.3000;0.8930;-1.0572;
549.6000;0.8938;-1.0597;
549.9000;0.8946;-1.0547;
550.2000;0.8913;-1.0472;
550.5000;0.8938;-1.0447;
550.8000;0.8930;-1.0472;
551.1000;0.8930;-1.0472;
551.4000;0.8962;-1.0447;
551.7000;0.8954;-1.0522;
552.0000;0.8921;-1.0622;
552.3000;0.8897;-1.0671;
552.6000;0.8897;-1.0597;
552.9000;0.8921;-1.0572;
553.2000;0.8921;-1.0696;
553.5000;0.8913;-1.0647;
553.8000;0.8921;-1.0572;
554.1000;0.8930;-1.0547;
554.4000;0.8832;-1.0746;
554.7000;0.8921;-1.0547;
555.0000;0.8938;-1.0497;
555.3000;0.8913;-1.0572;
555.6000;0.8930;-1.0547;
555.9000;0.8913;-1.0572;
556.2000;0.8889;-1.0597;
556.5000;0.8905;-1.0572;
556.8000;0.8905;-1.0547;
557.1000;0.8913;-1.0547;
557.4000;0.8905;-1.0597;
557.7000;0.8889;-1.0597;
558.0000;0.8905;-1.0547;
558.3000;0.8921;-1.0597;
558.6000;0.8889;-1.0622;
558.9000;0.8913;-1.0597;
559.2000;0.8921;-1.0597;
559.5000;0.8905;-1.0597;
559.8000;0.8905;-1.0597;
560.1000;0.8938;-1.0497;
560.4000;0.8921;-1.0497;
560.7000;0.8938;-1.0372;
561.0000;0.8897;-1.0397;
561.3000;0.8913;-1.0472;
561.6000;0.8913;-1.0497;
561.9000;0.8905;-1.0522;
562.2000;0.8962;-1.0372;
562.5000;0.8930;-1.0422;
562.8000;0.8864;-1.0572;
563.1000;0.8913;-1.0497;
563.4000;0.8889;-1.0522;
563.7000;0.8913;-1.0472;
564.0000;0.8930;-1.0422;
564.3000;0.8905;-1.0447;
564.6000;0.8873;-1.0597;
564.9000;0.8889;-1.0597;
565.2000;0.8881;-1.0647;
565.5000;0.8881;-1.0647;
565.8000;0.8913;-1.0572;
566.1000;0.8938;-1.0572;
566.4000;0.8897;-1.0597;
566.7000;0.8962;-1.0422;
567.0000;0.8930;-1.0472;
567.3000;0.8905;-1.0472;
567.6000;0.8889;-1.0497;
567.9000;0.8897;-1.0447;
568.2000;0.8946;-1.0372;
568.5000;0.8913;-1.0397;
568.8000;0.8946;-1.0297;
569.1000;0.8881;-1.0422;
569.4000;0.8905;-1.0372;
569.7000;0.8816;-1.0547;
570.0000;0.8905;-1.0322;
570.3000;0.8913;-1.0322;
570.6000;0.8856;-1.0472;
570.9000;0.8954;-1.0223;
571.2000;0.8930;-1.0322;
571.5000;0.8889;-1.0422;
571.8000;0.8905;-1.0372;
572.1000;0.8913;-1.0322;
572.4000;0.8897;-1.0347;
572.7000;0.8889;-1.0372;
573.0000;0.8905;-1.0248;
573.3000;0.8921;-1.0173;
573.6000;0.8913;-1.0173;
573.9000;0.8856;-1.0347;
574.2000;0.8905;-1.0273;
574.5000;0.9003;-1.0098;
574.8000;0.8913;-1.0322;
575.1000;0.8873;-1.0447;
575.4000;0.8897;-1.0347;
575.7000;0.8897;-1.0397;
576.0000;0.8921;-1.0322;
576.3000;0.8905;-1.0397;
576.6000;0.8897;-1.0472;
576.9000;0.8921;-1.0422;
577.2000;0.8897;-1.0422;
577.5000;0.8897;-1.0497;
577.8000;0.8905;-1.0422;
578.1000;0.8921;-1.0322;
578.4000;0.8897;-1.0422;
578.7000;0.8905;-1.0422;
579.0000;0.8905;-1.0397;
579.3000;0.8889;-1.0397;
579.6000;0.8905;-1.0347;
579.9000;0.8889;-1.0422;
580.2000;0.8905;-1.0472;
580.5000;0.8897;-1.0522;
580.8000;0.8905;-1.0572;
581.1000;0.8897;-1.0622;
581.4000;0.8954;-1.0397;
581.7000;0.8897;-1.0522;
582.0000;0.8856;-1.0647;
582.3000;0.8905;-1.0547;
582.6000;0.8897;-1.0497;
582.9000;0.8921;-1.0522;
583.2000;0.8889;-1.0547;
583.5000;0.8897;-1.0472;
583.8000;0.8864;-1.0597;
584.1000;0.8848;-1.0696;
584.4000;0.8889;-1.0647;
584.7000;0.8881;-1.0696;
585.0000;0.8864;-1.0721;
585.3000;0.8873;-1.0721;
585.6000;0.8913;-1.0622;
585.9000;0.8881;-1.0572;
586.2000;0.8856;-1.0696;
586.5000;0.8873;-1.0771;
586.8000;0.8881;-1.0771;
587.1000;0.8864;-1.0821;
587.4000;0.8913;-1.0647;
587.7000;0.8897;-1.0746;
588.0000;0.8905;-1.0746;
588.3000;0.8824;-1.1021;
588.6000;0.8881;-1.0821;
588.9000;0.8897;-1.0671;
589.2000;0.8897;-1.0647;
589.5000;0.8905;-1.0622;
589.8000;0.8905;-1.0671;
590.1000;0.8897;-1.0746;
590.4000;0.8913;-1.0671;
590.7000;0.8905;-1.0622;
591.0000;0.8897;-1.0696;
591.3000;0.8913;-1.0671;
591.6000;0.8905;-1.0671;
591.9000;0.8864;-1.0721;
592.2000;0.8848;-1.0871;
592.5000;0.8783;-1.1021;
592.8000;0.8913;-1.0696;
593.1000;0.8897;-1.0671;
593.4000;0.8889;-1.0671;
593.7000;0.8881;-1.0622;
594.0000;0.8905;-1.0547;
594.3000;0.8873;-1.0647;
594.6000;0.8873;-1.0547;
594.9000;0.8897;-1.0522;
595.2000;0.8913;-1.0547;
595.5000;0.8897;-1.0547;
595.8000;0.8897;-1.0572;
596.1000;0.8905;-1.0671;
596.4000;0.8905;-1.0597;
596.7000;0.8913;-1.0522;
597.0000;0.8913;-1.0472;
597.3000;0.8905;-1.0572;
597.6000;0.8905;-1.0547;
597.9000;0.8889;-1.0597;
598.2000;0.8889;-1.0647;
598.5000;0.8873;-1.0671;
598.8000;0.8897;-1.0622;
599.1000;0.8930;-1.0497;
599.4000;0.8889;-1.0622;
599.7000;0.8881;-1.0696;
600.0000;0.8873;-1.0721;
600.3000;0.8873;-1.0821;
600.6000;0.8775;-1.0996;
600.9000;0.8637;-1.1120;
601.2000;0.8441;-1.1295;
601.5000;0.8262;-1.1370;
601.8000;0.8050;-1.1594;
602.1000;0.7888;-1.1818;
602.4000;0.7749;-1.2018;
602.7000;0.7554;-1.2317;
603.0000;0.7407;-1.2517;
603.3000;0.7302;-1.2641;
603.6000;0.7155;-1.2816;
603.9000;0.7066;-1.2841;
604.2000;0.6976;-1.2940;
604.5000;0.6878;-1.3040;
604.8000;0.6772;-1.3190;
605.1000;0.6699;-1.3314;
605.4000;0.6659;-1.3289;
605.7000;0.6553;-1.3489;
606.0000;0.6488;-1.3514;
606.3000;0.6374;-1.3663;
606.6000;0.6365;-1.3663;
606.9000;0.6309;-1.3688;
607.2000;0.6243;-1.3688;
607.5000;0.6186;-1.3763;
607.8000;0.6146;-1.3913;
608.1000;0.6121;-1.3788;
608.4000;0.5999;-1.3913;
608.7000;0.5991;-1.3888;
609.0000;0.5967;-1.3963;
609.3000;0.5926;-1.3963;
609.6000;0.5910;-1.3963;
609.9000;0.5869;-1.4112;
610.2000;0.5820;-1.4187;
610.5000;0.5804;-1.4112;
610.8000;0.5779;-1.4162;
611.1000;0.5771;-1.4112;
611.4000;0.5706;-1.4162;
611.7000;0.5714;-1.4162;
612.0000;0.5568;-1.4461;
612.3000;0.5641;-1.4337;
612.6000;0.5551;-1.4611;
612.9000;0.5576;-1.4461;
613.2000;0.5568;-1.4387;
613.5000;0.5543;-1.4436;
613.8000;0.5503;-1.4387;
614.1000;0.5527;-1.4337;
614.4000;0.5486;-1.4411;
614.7000;0.5454;-1.4436;
615.0000;0.5511;-1.4387;
615.3000;0.5421;-1.4461;
615.6000;0.5413;-1.4486;
615.9000;0.5405;-1.4461;
616.2000;0.5364;-1.4461;
616.5000;0.5372;-1.4337;
616.8000;0.5364;-1.4362;
617.1000;0.5356;-1.4461;
617.4000;0.5324;-1.4486;
617.7000;0.5307;-1.4436;
618.0000;0.5299;-1.4337;
618.3000;0.5275;-1.4411;
618.6000;0.5275;-1.4411;
618.9000;0.5210;-1.4561;
619.2000;0.5250;-1.4411;
619.5000;0.5250;-1.4486;
619.8000;0.5169;-1.4686;
620.1000;0.5210;-1.4511;
620.4000;0.5210;-1.4486;
620.7000;0.5210;-1.4362;
621.0000;0.5169;-1.4337;
621.3000;0.5177;-1.4287;
621.6000;0.5177;-1.4436;
621.9000;0.5169;-1.4411;
622.2000;0.5161;-1.4486;
622.5000;0.5144;-1.4486;
622.8000;0.5112;-1.4586;
623.1000;0.5144;-1.4536;
623.4000;0.5136;-1.4486;
623.7000;0.5096;-1.4486;
624.0000;0.5104;-1.4511;
624.3000;0.5096;-1.4436;
624.6000;0.5112;-1.4411;
624.9000;0.5055;-1.4461;
625.2000;0.5055;-1.4411;
625.5000;0.5079;-1.4387;
625.8000;0.5112;-1.4312;
626.1000;0.5063;-1.4436;
626.4000;0.5014;-1.4536;
626.7000;0.5022;-1.4436;
627.0000;0.5039;-1.4337;
627.3000;0.4982;-1.4586;
627.6000;0.5014;-1.4611;
627.9000;0.5006;-1.4661;
628.2000;0.4990;-1.4611;
628.5000;0.4974;-1.4785;
628.8000;0.4982;-1.4835;
629.1000;0.4974;-1.4835;
629.4000;0.4957;-1.4835;
629.7000;0.4957;-1.4835;
630.0000;0.4949;-1.4661;
630.3000;0.4933;-1.4636;
630.6000;0.4933;-1.4661;
630.9000;0.4949;-1.4636;
631.2000;0.4933;-1.4536;
631.5000;0.4908;-1.4511;
631.8000;0.4917;-1.4436;
632.1000;0.4860;-1.4636;
632.4000;0.4917;-1.4511;
632.7000;0.4900;-1.4561;
633.0000;0.4900;-1.4511;
633.3000;0.4900;-1.4511;
633.6000;0.4876;-1.4561;
633.9000;0.4868;-1.4636;
634.2000;0.4884;-1.4661;
634.5000;0.4908;-1.4636;
634.8000;0.4892;-1.4661;
635.1000;0.4974;-1.4387;
635.4000;0.4860;-1.4711;
635.7000;0.4892;-1.4636;
636.0000;0.4827;-1.4686;
636.3000;0.4851;-1.4661;
636.6000;0.4819;-1.4686;
636.9000;0.4835;-1.4611;
637.2000;0.4794;-1.4711;
637.5000;0.4843;-1.4611;
637.8000;0.4819;-1.4711;
638.1000;0.4811;-1.4711;
638.4000;0.4827;-1.4711;
638.7000;0.4827;-1.4711;
639.0000;0.4860;-1.4636;
639.3000;0.4803;-1.4711;
639.6000;0.4835;-1.4611;
639.9000;0.4827;-1.4661;
640.2000;0.4697;-1.5010;
640.5000;0.4811;-1.4810;
640.8000;0.4794;-1.4835;
641.1000;0.4786;-1.4860;
641.4000;0.4786;-1.4860;
641.7000;0.4786;-1.4785;
642.0000;0.4786;-1.4686;
642.3000;0.4721;-1.4810;
642.6000;0.4754;-1.4636;
642.9000;0.4762;-1.4611;
643.2000;0.4754;-1.4611;
643.5000;0.4770;-1.4536;
643.8000;0.4762;-1.4586;
644.1000;0.4754;-1.4586;
644.4000;0.4778;-1.4536;
644.7000;0.4737;-1.4611;
645.0000;0.4729;-1.4611;
645.3000;0.4713;-1.4761;
645.6000;0.4729;-1.4810;
645.9000;0.4705;-1.4960;
646.2000;0.4729;-1.4935;
646.5000;0.4778;-1.4810;
646.8000;0.4713;-1.4985;
647.1000;0.4721;-1.4910;
647.4000;0.4737;-1.4835;
647.7000;0.4721;-1.4761;
648.0000;0.4705;-1.4785;
648.3000;0.4729;-1.4711;
648.6000;0.4689;-1.4835;
648.9000;0.4705;-1.4686;
649.2000;0.4689;-1.4611;
649.5000;0.4689;-1.4661;
649.8000;0.4713;-1.4686;
650.1000;0.4681;-1.4810;
650.4000;0.4681;-1.4711;
650.7000;0.4681;-1.4586;
651.0000;0.4689;-1.4561;
651.3000;0.4681;-1.4561;
651.6000;0.4664;-1.4561;
651.9000;0.4640;-1.4686;
652.2000;0.4648;-1.4686;
652.5000;0.4672;-1.4536;
652.8000;0.4664;-1.4611;
653.1000;0.4681;-1.4636;
653.4000;0.4656;-1.4785;
653.7000;0.4624;-1.4810;
654.0000;0.4681;-1.4611;
654.3000;0.4648;-1.4686;
654.6000;0.4632;-1.4711;
654.9000;0.4607;-1.4761;
655.2000;0.4648;-1.4761;
655.5000;0.4632;-1.4785;
655.8000;0.4624;-1.4761;
656.1000;0.4624;-1.4761;
656.4000;0.4640;-1.4686;
656.7000;0.4599;-1.4761;
657.0000;0.4624;-1.4711;
657.3000;0.4624;-1.4761;
657.6000;0.4640;-1.4711;
657.9000;0.4615;-1.4736;
658.2000;0.4615;-1.4736;
658.5000;0.4615;-1.4785;
658.8000;0.4632;-1.4785;
659.1000;0.4632;-1.4785;
659.4000;0.4624;-1.4761;
659.7000;0.4624;-1.4761;
660.0000;0.4615;-1.4810;
660.3000;0.4607;-1.4885;
660.6000;0.4624;-1.4761;
660.9000;0.4607;-1.4810;
661.2000;0.4607;-1.4711;
661.5000;0.4583;-1.4711;
661.8000;0.4607;-1.4661;
662.1000;0.4550;-1.4761;
662.4000;0.4583;-1.4661;
662.7000;0.4575;-1.4736;
663.0000;0.4591;-1.4611;
663.3000;0.4583;-1.4536;
663.6000;0.4591;-1.4561;
663.9000;0.4575;-1.4586;
664.2000;0.4624;-1.4511;
664.5000;0.4575;-1.4611;
664.8000;0.4567;-1.4736;
665.1000;0.4575;-1.4736;
665.4000;0.4583;-1.4785;
665.7000;0.4558;-1.4835;
666.0000;0.4567;-1.4835;
666.3000;0.4567;-1.4985;
666.6000;0.4550;-1.5184;
666.9000;0.4575;-1.5060;
667.2000;0.4567;-1.4960;
667.5000;0.4575;-1.4860;
667.8000;0.4550;-1.4860;
668.1000;0.4567;-1.4810;
668.4000;0.4575;-1.4885;
668.7000;0.4591;-1.4761;
669.0000;0.4534;-1.4761;
669.3000;0.4550;-1.4736;
669.6000;0.4501;-1.4761;
669.9000;0.4510;-1.4860;
670.2000;0.4518;-1.4785;
670.5000;0.4550;-1.4686;
670.8000;0.4493;-1.4835;
671.1000;0.4526;-1.4810;
671.4000;0.4428;-1.4985;
671.7000;0.4534;-1.4661;
672.0000;0.4550;-1.4536;
672.3000;0.4518;-1.4611;
672.6000;0.4485;-1.4636;
672.9000;0.4591;-1.4312;
673.2000;0.4526;-1.4387;
673.5000;0.4501;-1.4387;
673.8000;0.4493;-1.4287;
674.1000;0.4518;-1.4262;
674.4000;0.4493;-1.4461;
674.7000;0.4493;-1.4486;
675.0000;0.4485;-1.4611;
675.3000;0.4526;-1.4561;
675.6000;0.4542;-1.4586;
675.9000;0.4485;-1.4761;
676.2000;0.4428;-1.4910;
676.5000;0.4493;-1.4761;
676.8000;0.4510;-1.4711;
677.1000;0.4542;-1.4636;
677.4000;0.4477;-1.4835;
677.7000;0.4510;-1.4761;
678.0000;0.4412;-1.5110;
678.3000;0.4575;-1.4711;
678.6000;0.4485;-1.4835;
678.9000;0.4485;-1.4835;
679.2000;0.4485;-1.4885;
679.5000;0.4493;-1.4860;
679.8000;0.4534;-1.4711;
680.1000;0.4485;-1.4785;
680.4000;0.4493;-1.4686;
680.7000;0.4461;-1.4711;
681.0000;0.4485;-1.4686;
681.3000;0.4469;-1.4810;
681.6000;0.4469;-1.4810;
681.9000;0.4461;-1.4711;
682.2000;0.4461;-1.4711;
682.5000;0.4469;-1.4636;
682.8000;0.4461;-1.4611;
683.1000;0.4444;-1.4561;
683.4000;0.4453;-1.4486;
683.7000;0.4461;-1.4511;
684.0000;0.4501;-1.4337;
684.3000;0.4453;-1.4461;
684.6000;0.4469;-1.4411;
684.9000;0.4501;-1.4337;
685.2000;0.4453;-1.4461;
685.5000;0.4420;-1.4511;
685.8000;0.4469;-1.4337;
686.1000;0.4444;-1.4362;
686.4000;0.4436;-1.4337;
686.7000;0.4404;-1.4461;
687.0000;0.4436;-1.4362;
687.3000;0.4436;-1.4436;
687.6000;0.4420;-1.4461;
687.9000;0.4436;-1.4337;
688.2000;0.4436;-1.4411;
688.5000;0.4428;-1.4362;
688.8000;0.4420;-1.4312;
689.1000;0.4428;-1.4287;
689.4000;0.4428;-1.4262;
689.7000;0.4428;-1.4212;
690.0000;0.4412;-1.4337;
690.3000;0.4444;-1.4337;
690.6000;0.4428;-1.4411;
690.9000;0.4436;-1.4337;
691.2000;0.4412;-1.4436;
691.5000;0.4420;-1.4461;
691.8000;0.4412;-1.4586;
692.1000;0.4420;-1.4661;
692.4000;0.4420;-1.4686;
692.7000;0.4428;-1.4761;
693.0000;0.4428;-1.4785;
693.3000;0.4461;-1.4586;
693.6000;0.4404;-1.4711;
693.9000;0.4396;-1.4711;
694.2000;0.4404;-1.4636;
694.5000;0.4355;-1.4785;
694.8000;0.4412;-1.4686;
695.1000;0.4420;-1.4636;
695.4000;0.4412;-1.4785;
695.7000;0.4461;-1.4661;
696.0000;0.4412;-1.4785;
696.3000;0.4387;-1.4761;
696.6000;0.4444;-1.4636;
696.9000;0.4379;-1.4835;
697.2000;0.4387;-1.4761;
697.5000;0.4379;-1.4835;
697.8000;0.4371;-1.4835;
698.1000;0.4387;-1.4736;
698.4000;0.4379;-1.4636;
698.7000;0.4412;-1.4611;
699.0000;0.4444;-1.4362;
699.3000;0.4371;-1.4436;
699.6000;0.4371;-1.4436;
699.9000;0.4404;-1.4511;
700.2000;0.4363;-1.4561;
700.5000;0.4379;-1.4561;
700.8000;0.4371;-1.4611;
701.1000;0.4282;-1.4785;
701.4000;0.4371;-1.4661;
701.7000;0.4363;-1.4736;
702.0000;0.4355;-1.4736;
702.3000;0.4314;-1.4810;
702.6000;0.4420;-1.4611;
702.9000;0.4379;-1.4686;
703.2000;0.4371;-1.4736;
703.5000;0.4387;-1.4711;
703.8000;0.4396;-1.4636;
704.1000;0.4322;-1.4810;
704.4000;0.4314;-1.4860;
704.7000;0.4379;-1.4586;
705.0000;0.4387;-1.4561;
705.3000;0.4379;-1.4636;
705.6000;0.4371;-1.4661;
705.9000;0.4420;-1.4536;
706.2000;0.4363;-1.4711;
706.5000;0.4347;-1.4686;
706.8000;0.4347;-1.4611;
707.1000;0.4363;-1.4536;
707.4000;0.4371;-1.4536;
707.7000;0.4347;-1.4586;
708.0000;0.4436;-1.4262;
708.3000;0.4347;-1.4411;
708.6000;0.4257;-1.4586;
708.9000;0.4339;-1.4411;
709.2000;0.4339;-1.4436;
709.5000;0.4330;-1.4461;
709.8000;0.4330;-1.4511;
710.1000;0.4339;-1.4511;
710.4000;0.4322;-1.4511;
710.7000;0.4330;-1.4536;
711.0000;0.4339;-1.4611;
711.3000;0.4322;-1.4661;
711.6000;0.4322;-1.4636;
711.9000;0.4339;-1.4586;
712.2000;0.4371;-1.4486;
712.5000;0.4322;-1.4486;
712.8000;0.4363;-1.4411;
713.1000;0.4330;-1.4486;
713.4000;0.4322;-1.4561;
713.7000;0.4339;-1.4436;
714.0000;0.4355;-1.4362;
714.3000;0.4330;-1.4411;
714.6000;0.4339;-1.4362;
714.9000;0.4330;-1.4436;
715.2000;0.4339;-1.4312;
715.5000;0.4330;-1.4337;
715.8000;0.4330;-1.4287;
716.1000;0.4322;-1.4312;
716.4000;0.4314;-1.4287;
716.7000;0.4322;-1.4362;
717.0000;0.4306;-1.4387;
717.3000;0.4298;-1.4461;
717.6000;0.4306;-1.4461;
717.9000;0.4339;-1.4362;
718.2000;0.4322;-1.4362;
718.5000;0.4322;-1.4337;
718.8000;0.4314;-1.4411;
719.1000;0.4298;-1.4461;
719.4000;0.4290;-1.4486;
719.7000;0.4314;-1.4486;
720.0000;0.4298;-1.4511;
720.3000;0.4322;-1.4436;
720.6000;0.4314;-1.4461;
720.9000;0.4298;-1.4461;
721.2000;0.4306;-1.4436;
721.5000;0.4298;-1.4387;
721.8000;0.4306;-1.4387;
722.1000;0.4274;-1.4511;
722.4000;0.4306;-1.4511;
722.7000;0.4339;-1.4461;
723.0000;0.4274;-1.4536;
723.3000;0.4314;-1.4486;
723.6000;0.4282;-1.4461;
723.9000;0.4274;-1.4436;
724.2000;0.4314;-1.4387;
724.5000;0.4306;-1.4362;
724.8000;0.4298;-1.4362;
725.1000;0.4322;-1.4237;
725.4000;0.4290;-1.4411;
725.7000;0.4298;-1.4486;
726.0000;0.4298;-1.4436;
726.3000;0.4306;-1.4312;
726.6000;0.4298;-1.4362;
726.9000;0.4290;-1.4461;
727.2000;0.4290;-1.4436;
727.5000;0.4282;-1.4511;
727.8000;0.4290;-1.4486;
728.1000;0.4298;-1.4436;
728.4000;0.4265;-1.4536;
728.7000;0.4241;-1.4611;
729.0000;0.4274;-1.4411;
729.3000;0.4274;-1.4461;
729.6000;0.4200;-1.4636;
729.9000;0.4282;-1.4411;
730.2000;0.4290;-1.4387;
730.5000;0.4330;-1.4262;
730.8000;0.4290;-1.4411;
731.1000;0.4257;-1.4411;
731.4000;0.4274;-1.4387;
731.7000;0.4355;-1.4137;
732.0000;0.4339;-1.4262;
732.3000;0.4274;-1.4411;
732.6000;0.4168;-1.4586;
732.9000;0.4282;-1.4312;
733.2000;0.4306;-1.4237;
733.5000;0.4274;-1.4337;
733.8000;0.4265;-1.4411;
734.1000;0.4274;-1.4411;
734.4000;0.4298;-1.4312;
734.7000;0.4274;-1.4411;
735.0000;0.4274;-1.4436;
735.3000;0.4298;-1.4486;
735.6000;0.4290;-1.4486;
735.9000;0.4257;-1.4486;
736.2000;0.4265;-1.4461;
736.5000;0.4265;-1.4486;
736.8000;0.4274;-1.4511;
737.1000;0.4274;-1.4511;
737.4000;0.4225;-1.4686;
737.7000;0.4257;-1.4511;
738.0000;0.4282;-1.4461;
738.3000;0.4282;-1.4436;
738.6000;0.4274;-1.4461;
738.9000;0.4265;-1.4486;
739.2000;0.4249;-1.4486;
739.5000;0.4257;-1.4411;
739.8000;0.4265;-1.4362;
740.1000;0.4265;-1.4337;
740.4000;0.4225;-1.4461;
740.7000;0.4249;-1.4411;
741.0000;0.4274;-1.4436;
741.3000;0.4339;-1.4312;
741.6000;0.4257;-1.4411;
741.9000;0.4233;-1.4387;
742.2000;0.4257;-1.4387;
742.5000;0.4233;-1.4436;
742.8000;0.4225;-1.4486;
743.1000;0.4257;-1.4362;
743.4000;0.4241;-1.4436;
743.7000;0.4233;-1.4362;
744.0000;0.4257;-1.4312;
744.3000;0.4241;-1.4362;
744.6000;0.4241;-1.4362;
744.9000;0.4249;-1.4337;
745.2000;0.4217;-1.4362;
745.5000;0.4233;-1.4362;
745.8000;0.4233;-1.4387;
746.1000;0.4208;-1.4387;
746.4000;0.4233;-1.4337;
746.7000;0.4233;-1.4337;
747.0000;0.4225;-1.4436;
747.3000;0.4208;-1.4461;
747.6000;0.4208;-1.4436;
747.9000;0.4225;-1.4337;
748.2000;0.4249;-1.4411;
748.5000;0.4225;-1.4461;
748.8000;0.4249;-1.4411;
749.1000;0.4200;-1.4561;
749.4000;0.4249;-1.4461;
749.7000;0.4249;-1.4536;
750.0000;0.4233;-1.4511;
750.3000;0.4225;-1.4511;
750.6000;0.4298;-1.4262;
750.9000;0.4233;-1.4461;
751.2000;0.4168;-1.4511;
751.5000;0.4225;-1.4362;
751.8000;0.4217;-1.4436;
752.1000;0.4225;-1.4461;
752.4000;0.4160;-1.4636;
752.7000;0.4184;-1.4461;
753.0000;0.4176;-1.4411;
753.3000;0.4217;-1.4287;
753.6000;0.4217;-1.4337;
753.9000;0.4225;-1.4436;
754.2000;0.4176;-1.4611;
754.5000;0.4208;-1.4511;
754.8000;0.4225;-1.4511;
755.1000;0.4119;-1.4736;
755.4000;0.4217;-1.4561;
755.7000;0.4176;-1.4586;
756.0000;0.4192;-1.4536;
756.3000;0.4225;-1.4486;
756.6000;0.4208;-1.4561;
756.9000;0.4233;-1.4561;
757.2000;0.4225;-1.4636;
757.5000;0.4208;-1.4736;
757.8000;0.4217;-1.4785;
758.1000;0.4208;-1.4711;
758.4000;0.4208;-1.4711;
758.7000;0.4208;-1.4611;
759.0000;0.4208;-1.4561;
759.3000;0.4241;-1.4486;
759.6000;0.4208;-1.4436;
759.9000;0.4192;-1.4561;
760.2000;0.4200;-1.4461;
760.5000;0.4208;-1.4461;
760.8000;0.4217;-1.4387;
761.1000;0.4217;-1.4337;
761.4000;0.4168;-1.4411;
761.7000;0.4200;-1.4287;
762.0000;0.4184;-1.4461;
762.3000;0.4192;-1.4411;
762.6000;0.4208;-1.4362;
762.9000;0.4217;-1.4387;
763.2000;0.4192;-1.4362;
763.5000;0.4192;-1.4262;
763.8000;0.4192;-1.4337;
764.1000;0.4192;-1.4262;
764.4000;0.4160;-1.4337;
764.7000;0.4200;-1.4312;
765.0000;0.4200;-1.4287;
765.3000;0.4200;-1.4287;
765.6000;0.4143;-1.4411;
765.9000;0.4176;-1.4312;
766.2000;0.4200;-1.4212;
766.5000;0.4192;-1.4262;
766.8000;0.4192;-1.4237;
767.1000;0.4200;-1.4237;
767.4000;0.4200;-1.4187;
767.7000;0.4217;-1.4112;
768.0000;0.4192;-1.4262;
768.3000;0.4192;-1.4262;
768.6000;0.4200;-1.4187;
768.9000;0.4233;-1.4112;
769.2000;0.4184;-1.4212;
769.5000;0.4200;-1.4137;
769.8000;0.4208;-1.4137;
770.1000;0.4192;-1.4162;
770.4000;0.4200;-1.4262;
770.7000;0.4192;-1.4337;
771.0000;0.4208;-1.4312;
771.3000;0.4192;-1.4287;
771.6000;0.4200;-1.4337;
771.9000;0.4184;-1.4337;
772.2000;0.4184;-1.4387;
772.5000;0.4143;-1.4486;
772.8000;0.4208;-1.4312;
773.1000;0.4200;-1.4362;
773.4000;0.4119;-1.4511;
773.7000;0.4192;-1.4212;
774.0000;0.4184;-1.4137;
774.3000;0.4200;-1.4237;
774.6000;0.4168;-1.4337;
774.9000;0.4184;-1.4262;
775.2000;0.4160;-1.4287;
775.5000;0.4200;-1.4162;
775.8000;0.4160;-1.4262;
776.1000;0.4135;-1.4387;
776.4000;0.4184;-1.4237;
776.7000;0.4192;-1.4187;
777.0000;0.4168;-1.4312;
777.3000;0.4168;-1.4411;
777.6000;0.4176;-1.4387;
777.9000;0.4168;-1.4337;
778.2000;0.4168;-1.4287;
778.5000;0.4135;-1.4287;
778.8000;0.4217;-1.4062;
779.1000;0.4168;-1.4087;
779.4000;0.4160;-1.4112;
779.7000;0.4151;-1.4112;
780.0000;0.4168;-1.3988;
780.3000;0.4168;-1.3938;
780.6000;0.4184;-1.3838;
780.9000;0.4168;-1.3888;
781.2000;0.4160;-1.3988;
781.5000;0.4176;-1.4013;
781.8000;0.4176;-1.4062;
782.1000;0.4143;-1.4112;
782.4000;0.4192;-1.4087;
782.7000;0.4151;-1.4212;
783.0000;0.4168;-1.4187;
783.3000;0.4143;-1.4237;
783.6000;0.4160;-1.4137;
783.9000;0.4143;-1.4212;
784.2000;0.4176;-1.4212;
784.5000;0.4168;-1.4262;
784.8000;0.4160;-1.4337;
785.1000;0.4151;-1.4362;
785.4000;0.4208;-1.4212;
785.7000;0.4151;-1.4362;
786.0000;0.4151;-1.4337;
786.3000;0.4208;-1.4187;
786.6000;0.4176;-1.4237;
786.9000;0.4151;-1.4262;
787.2000;0.4168;-1.4262;
787.5000;0.4160;-1.4312;
787.8000;0.4143;-1.4237;
788.1000;0.4192;-1.4187;
788.4000;0.4151;-1.4187;
788.7000;0.4168;-1.4162;
789.0000;0.4184;-1.4162;
789.3000;0.4160;-1.4312;
789.6000;0.4151;-1.4312;
789.9000;0.4160;-1.4262;
790.2000;0.4151;-1.4212;
790.5000;0.4160;-1.4112;
790.8000;0.4160;-1.4112;
791.1000;0.4127;-1.4187;
791.4000;0.4151;-1.4187;
791.7000;0.4168;-1.4287;
792.0000;0.4192;-1.4237;
792.3000;0.4184;-1.4187;
792.6000;0.4160;-1.4411;
792.9000;0.4192;-1.4237;
793.2000;0.4151;-1.4312;
793.5000;0.4160;-1.4337;
793.8000;0.4151;-1.4362;
794.1000;0.4103;-1.4536;
794.4000;0.4151;-1.4312;
794.7000;0.4094;-1.4411;
795.0000;0.4143;-1.4287;
795.3000;0.4143;-1.4287;
795.6000;0.4151;-1.4212;
795.9000;0.4160;-1.4262;
796.2000;0.4176;-1.4287;
796.5000;0.4151;-1.4411;
796.8000;0.4160;-1.4436;
797.1000;0.4086;-1.4486;
797.4000;0.4111;-1.4436;
797.7000;0.4103;-1.4461;
798.0000;0.4151;-1.4262;
798.3000;0.4135;-1.4312;
798.6000;0.4046;-1.4511;
798.9000;0.4143;-1.4237;
799.2000;0.4160;-1.4162;
799.5000;0.4168;-1.4112;
799.8000;0.4127;-1.4262;
800.1000;0.4184;-1.4062;
800.4000;0.4127;-1.4212;
800.7000;0.4143;-1.4187;
801.0000;0.4127;-1.4212;
801.3000;0.4143;-1.4287;
801.6000;0.4135;-1.4312;
801.9000;0.4160;-1.4237;
802.2000;0.4143;-1.4287;
802.5000;0.4143;-1.4287;
802.8000;0.4143;-1.4262;
803.1000;0.4127;-1.4287;
803.4000;0.4143;-1.4262;
803.7000;0.4135;-1.4262;
804.0000;0.4135;-1.4237;
804.3000;0.4094;-1.4237;
804.6000;0.4135;-1.4162;
804.9000;0.4135;-1.4237;
805.2000;0.4127;-1.4337;
805.5000;0.4119;-1.4337;
805.8000;0.4143;-1.4337;
806.1000;0.4127;-1.4461;
806.4000;0.4127;-1.4337;
806.7000;0.4111;-1.4461;
807.0000;0.4119;-1.4436;
807.3000;0.4127;-1.4337;
807.6000;0.4135;-1.4312;
807.9000;0.4119;-1.4312;
808.2000;0.4111;-1.4237;
808.5000;0.4111;-1.4187;
808.8000;0.4103;-1.4187;
809.1000;0.4111;-1.4112;
809.4000;0.4143;-1.4013;
809.7000;0.4176;-1.3988;
810.0000;0.4119;-1.4037;
810.3000;0.4103;-1.4087;
810.6000;0.4119;-1.4087;
810.9000;0.4111;-1.4187;
811.2000;0.4111;-1.4137;
811.5000;0.4111;-1.4162;
811.8000;0.4111;-1.4062;
812.1000;0.4143;-1.4037;
812.4000;0.4103;-1.4087;
812.7000;0.4151;-1.3938;
813.0000;0.4151;-1.3938;
813.3000;0.4127;-1.3988;
813.6000;0.4111;-1.3963;
813.9000;0.4135;-1.3938;
814.2000;0.4111;-1.4037;
814.5000;0.4103;-1.4013;
814.8000;0.4119;-1.4013;
815.1000;0.4160;-1.3838;
815.4000;0.4111;-1.3888;
815.7000;0.4127;-1.3913;
816.0000;0.4127;-1.3938;
816.3000;0.4119;-1.3988;
816.6000;0.4103;-1.3938;
816.9000;0.4103;-1.3913;
817.2000;0.4111;-1.4037;
817.5000;0.4111;-1.4137;
817.8000;0.4111;-1.4212;
818.1000;0.4184;-1.4037;
818.4000;0.4111;-1.4187;
818.7000;0.4111;-1.4162;
819.0000;0.4111;-1.4112;
819.3000;0.4143;-1.3963;
819.6000;0.4054;-1.4112;
819.9000;0.4111;-1.3938;
820.2000;0.4127;-1.3888;
820.5000;0.4094;-1.4013;
820.8000;0.4094;-1.3988;
821.1000;0.4094;-1.3938;
821.4000;0.4119;-1.3963;
821.7000;0.4111;-1.3988;
822.0000;0.4103;-1.4162;
822.3000;0.4111;-1.4162;
822.6000;0.4111;-1.4187;
822.9000;0.4119;-1.4162;
823.2000;0.4086;-1.4212;
823.5000;0.4119;-1.4137;
823.8000;0.4119;-1.4037;
824.1000;0.4103;-1.4087;
824.4000;0.4094;-1.4162;
824.7000;0.4094;-1.4162;
825.0000;0.4086;-1.4137;
825.3000;0.4103;-1.4037;
825.6000;0.4103;-1.4112;
825.9000;0.4111;-1.4137;
826.2000;0.4111;-1.4162;
826.5000;0.4078;-1.4212;
826.8000;0.4086;-1.4262;
827.1000;0.4094;-1.4187;
827.4000;0.4127;-1.4112;
827.7000;0.4054;-1.4212;
828.0000;0.4111;-1.4013;
828.3000;0.4103;-1.4013;
828.6000;0.4103;-1.3988;
828.9000;0.4119;-1.3863;
829.2000;0.4103;-1.3938;
829.5000;0.4103;-1.3963;
829.8000;0.4103;-1.4013;
830.1000;0.4086;-1.4062;
830.4000;0.4094;-1.4087;
830.7000;0.4111;-1.4087;
831.0000;0.4111;-1.4087;
831.3000;0.4200;-1.3788;
831.6000;0.4119;-1.3938;
831.9000;0.4127;-1.3963;
832.2000;0.4078;-1.4037;
832.5000;0.4119;-1.3988;
832.8000;0.4103;-1.4037;
833.1000;0.4111;-1.4013;
833.4000;0.4103;-1.4013;
833.7000;0.4094;-1.4087;
834.0000;0.4094;-1.4087;
834.3000;0.4111;-1.4037;
834.6000;0.4078;-1.4062;
834.9000;0.4086;-1.4112;
835.2000;0.4103;-1.4137;
835.5000;0.4078;-1.4162;
835.8000;0.4094;-1.4287;
836.1000;0.4070;-1.4287;
836.4000;0.4103;-1.4212;
836.7000;0.4078;-1.4212;
837.0000;0.4086;-1.4137;
837.3000;0.4094;-1.4212;
837.6000;0.4094;-1.4162;
837.9000;0.4094;-1.4162;
838.2000;0.4086;-1.4287;
838.5000;0.4111;-1.4262;
838.8000;0.4103;-1.4187;
839.1000;0.4054;-1.4237;
839.4000;0.4086;-1.4112;
839.7000;0.4103;-1.4062;
840.0000;0.4103;-1.4112;
840.3000;0.4103;-1.4087;
840.6000;0.4062;-1.4237;
840.9000;0.4094;-1.4212;
841.2000;0.4086;-1.4187;
841.5000;0.4111;-1.4137;
841.8000;0.4111;-1.4062;
842.1000;0.4086;-1.4062;
842.4000;0.4094;-1.4137;
842.7000;0.4103;-1.4162;
843.0000;0.4094;-1.4112;
843.3000;0.4078;-1.4112;
843.6000;0.4143;-1.3938;
843.9000;0.4078;-1.4062;
844.2000;0.4103;-1.4062;
844.5000;0.3997;-1.4387;
844.8000;0.4078;-1.4262;
845.1000;0.4094;-1.4212;
845.4000;0.4037;-1.4362;
845.7000;0.4086;-1.4287;
846.0000;0.4176;-1.4087;
846.3000;0.4070;-1.4436;
846.6000;0.4103;-1.4312;
846.9000;0.4094;-1.4312;
847.2000;0.4062;-1.4387;
847.5000;0.4078;-1.4237;
847.8000;0.4151;-1.4037;
848.1000;0.4103;-1.4262;
848.4000;0.4103;-1.4262;
848.7000;0.4086;-1.4387;
849.0000;0.4078;-1.4337;
849.3000;0.4111;-1.4237;
849.6000;0.4078;-1.4287;
849.9000;0.4070;-1.4337;
850.2000;0.4086;-1.4362;
850.5000;0.4086;-1.4237;
850.8000;0.4111;-1.4187;
851.1000;0.4078;-1.4262;
851.4000;0.4086;-1.4187;
851.7000;0.4086;-1.4212;
852.0000;0.4086;-1.4262;
852.3000;0.4103;-1.4237;
852.6000;0.4070;-1.4312;
852.9000;0.4078;-1.4237;
853.2000;0.4070;-1.4237;
853.5000;0.4078;-1.4262;
853.8000;0.4070;-1.4212;
854.1000;0.4086;-1.4162;
854.4000;0.4103;-1.4137;
854.7000;0.4094;-1.4237;
855.0000;0.4094;-1.4262;
855.3000;0.4037;-1.4411;
855.6000;0.4078;-1.4312;
855.9000;0.4078;-1.4287;
856.2000;0.4078;-1.4237;
856.5000;0.4054;-1.4237;
856.8000;0.4094;-1.4137;
857.1000;0.4086;-1.4162;
857.4000;0.4086;-1.4087;
857.7000;0.4062;-1.4162;
858.0000;0.4070;-1.4137;
858.3000;0.4078;-1.4112;
858.6000;0.4094;-1.4087;
858.9000;0.4078;-1.4112;
859.2000;0.4070;-1.4262;
859.5000;0.4127;-1.4137;
859.8000;0.4070;-1.4312;
860.1000;0.4062;-1.4312;
860.4000;0.4078;-1.4312;
860.7000;0.4086;-1.4212;
861.0000;0.4086;-1.4287;
861.3000;0.4078;-1.4362;
861.6000;0.4062;-1.4312;
861.9000;0.4070;-1.4212;
862.2000;0.4086;-1.4137;
862.5000;0.4078;-1.4137;
862.8000;0.4086;-1.4212;
863.1000;0.4078;-1.4212;
863.4000;0.4078;-1.4112;
863.7000;0.4070;-1.4137;
864.0000;0.4070;-1.4087;
864.3000;0.4078;-1.4112;
864.6000;0.4094;-1.4087;
864.9000;0.4086;-1.4087;
865.2000;0.4070;-1.4162;
865.5000;0.4070;-1.4187;
865.8000;0.4070;-1.4087;
866.1000;0.4062;-1.4137;
866.4000;0.4070;-1.4087;
866.7000;0.4070;-1.4062;
867.0000;0.4086;-1.3988;
867.3000;0.4078;-1.4062;
867.6000;0.4078;-1.4062;
867.9000;0.4062;-1.4112;
868.2000;0.4062;-1.4162;
868.5000;0.4037;-1.4162;
868.8000;0.4062;-1.4112;
869.1000;0.4037;-1.4262;
869.4000;0.4013;-1.4237;
869.7000;0.4062;-1.4112;
870.0000;0.4070;-1.4062;
870.3000;0.4062;-1.4062;
870.6000;0.4062;-1.4087;
870.9000;0.4021;-1.4187;
871.2000;0.4070;-1.4037;
871.5000;0.4054;-1.4112;
871.8000;0.4078;-1.4187;
872.1000;0.4062;-1.4287;
872.4000;0.4062;-1.4337;
872.7000;0.4054;-1.4387;
873.0000;0.4078;-1.4411;
873.3000;0.4070;-1.4511;
873.6000;0.4054;-1.4486;
873.9000;0.4062;-1.4536;
874.2000;0.4037;-1.4561;
874.5000;0.4046;-1.4511;
874.8000;0.4054;-1.4411;
875.1000;0.4054;-1.4337;
875.4000;0.4054;-1.4312;
875.7000;0.4086;-1.4262;
876.0000;0.4054;-1.4262;
876.3000;0.4054;-1.4262;
876.6000;0.4046;-1.4237;
876.9000;0.4046;-1.4237;
877.2000;0.4070;-1.4212;
877.5000;0.4062;-1.4312;
877.8000;0.4062;-1.4287;
878.1000;0.4062;-1.4212;
878.4000;0.4062;-1.4137;
878.7000;0.4062;-1.4187;
879.0000;0.4037;-1.4312;
879.3000;0.4013;-1.4586;
879.6000;0.4062;-1.4411;
879.9000;0.4086;-1.4262;
880.2000;0.4062;-1.4237;
880.5000;0.4005;-1.4362;
880.8000;0.4086;-1.4162;
881.1000;0.4062;-1.4162;
881.4000;0.4062;-1.4087;
881.7000;0.4054;-1.4062;
882.0000;0.4054;-1.4162;
882.3000;0.4054;-1.4262;
882.6000;0.4054;-1.4237;
882.9000;0.4054;-1.4262;
883.2000;0.4062;-1.4137;
883.5000;0.4062;-1.4137;
883.8000;0.4046;-1.4162;
884.1000;0.4062;-1.4087;
884.4000;0.4062;-1.4062;
884.7000;0.4046;-1.4137;
885.0000;0.4005;-1.4287;
885.3000;0.4070;-1.4087;
885.6000;0.4054;-1.4137;
885.9000;0.4062;-1.4262;
886.2000;0.4062;-1.4237;
886.5000;0.4070;-1.4237;
886.8000;0.4070;-1.4162;
887.1000;0.4037;-1.4287;
887.4000;0.4021;-1.4287;
887.7000;0.4037;-1.4212;
888.0000;0.4151;-1.3963;
888.3000;0.3989;-1.4411;
888.6000;0.4070;-1.4262;
888.9000;0.4054;-1.4287;
889.2000;0.4070;-1.4337;
889.5000;0.4029;-1.4387;
889.8000;0.4062;-1.4312;
890.1000;0.4037;-1.4287;
890.4000;0.4054;-1.4112;
890.7000;0.4037;-1.4137;
891.0000;0.4029;-1.3988;
891.3000;0.4054;-1.4013;
891.6000;0.4062;-1.4037;
891.9000;0.4054;-1.4062;
892.2000;0.4046;-1.4087;
892.5000;0.4037;-1.4062;
892.8000;0.4054;-1.4062;
893.1000;0.4046;-1.4187;
893.4000;0.4046;-1.4262;
893.7000;0.4046;-1.4287;
894.0000;0.4021;-1.4237;
894.3000;0.4054;-1.4087;
894.6000;0.4054;-1.4062;
894.9000;0.4037;-1.4162;
895.2000;0.4046;-1.4062;
895.5000;0.4054;-1.4137;
895.8000;0.4029;-1.4137;
896.1000;0.4046;-1.4087;
896.4000;0.4062;-1.3963;
896.7000;0.4054;-1.4037;
897.0000;0.4037;-1.4087;
897.3000;0.4103;-1.3963;
897.6000;0.4037;-1.4137;
897.9000;0.4046;-1.4137;
898.2000;0.4062;-1.4137;
898.5000;0.4046;-1.4212;
898.8000;0.4054;-1.4212;
899.1000;0.4062;-1.4162;
899.4000;0.4054;-1.4187;
899.7000;0.4046;-1.4087;
900.0000;0.4013;-1.4137;
900.3000;0.4046;-1.4212;
900.6000;0.4062;-1.4287;
900.9000;0.4037;-1.4312;
901.2000;0.4046;-1.4187;
901.5000;0.4070;-1.4137;
901.8000;0.4037;-1.4062;
902.1000;0.4046;-1.3988;
902.4000;0.4094;-1.3963;
902.7000;0.4054;-1.4037;
903.0000;0.4037;-1.4037;
903.3000;0.4037;-1.4037;
903.6000;0.4037;-1.4062;
903.9000;0.4013;-1.4062;
904.2000;0.4046;-1.4062;
904.5000;0.4046;-1.4037;
904.8000;0.4054;-1.4013;
905.1000;0.4029;-1.4137;
905.4000;0.4046;-1.4112;
905.7000;0.4037;-1.4062;
906.0000;0.4054;-1.4087;
906.3000;0.4021;-1.4087;
906.6000;0.4005;-1.4062;
906.9000;0.4046;-1.4013;
907.2000;0.4029;-1.4112;
907.5000;0.4037;-1.4062;
907.8000;0.4029;-1.4062;
908.1000;0.4013;-1.4013;
908.4000;0.4037;-1.3938;
908.7000;0.4029;-1.3888;
909.0000;0.3907;-1.4262;
909.3000;0.4037;-1.3988;
909.6000;0.4046;-1.3988;
909.9000;0.4046;-1.3988;
910.2000;0.4094;-1.3963;
910.5000;0.4029;-1.4212;
910.8000;0.4046;-1.4287;
911.1000;0.4054;-1.4312;
911.4000;0.4013;-1.4486;
911.7000;0.4062;-1.4411;
912.0000;0.4021;-1.4511;
912.3000;0.4103;-1.4387;
912.6000;0.4021;-1.4561;
912.9000;0.4029;-1.4411;
913.2000;0.3948;-1.4686;
913.5000;0.4029;-1.4561;
913.8000;0.4046;-1.4636;
914.1000;0.4021;-1.4611;
914.4000;0.4046;-1.4511;
914.7000;0.4094;-1.4411;
915.0000;0.4029;-1.4536;
915.3000;0.4021;-1.4536;
915.6000;0.4029;-1.4636;
915.9000;0.4021;-1.4586;
916.2000;0.4037;-1.4486;
916.5000;0.4037;-1.4436;
916.8000;0.4029;-1.4362;
917.1000;0.4029;-1.4362;
917.4000;0.4029;-1.4262;
917.7000;0.4037;-1.4237;
918.0000;0.4086;-1.4162;
918.3000;0.4037;-1.4312;
918.6000;0.4029;-1.4262;
918.9000;0.4013;-1.4262;
919.2000;0.4021;-1.4287;
919.5000;0.4037;-1.4212;
919.8000;0.4046;-1.4262;
920.1000;0.4054;-1.4287;
920.4000;0.4037;-1.4262;
920.7000;0.4037;-1.4262;
921.0000;0.4078;-1.4212;
921.3000;0.4029;-1.4287;
921.6000;0.3980;-1.4436;
921.9000;0.4037;-1.4237;
922.2000;0.4029;-1.4212;
922.5000;0.4029;-1.4187;
922.8000;0.3964;-1.4337;
923.1000;0.4005;-1.4287;
923.4000;0.4046;-1.4162;
923.7000;0.4037;-1.4187;
924.0000;0.4013;-1.4337;
924.3000;0.4054;-1.4337;
924.6000;0.4054;-1.4287;
924.9000;0.4037;-1.4262;
925.2000;0.4046;-1.4237;
925.5000;0.4005;-1.4312;
925.8000;0.3899;-1.4561;
926.1000;0.4046;-1.4062;
926.4000;0.4037;-1.4087;
926.7000;0.4021;-1.4112;
927.0000;0.4029;-1.4062;
927.3000;0.3980;-1.4112;
927.6000;0.4029;-1.3988;
927.9000;0.4029;-1.4037;
928.2000;0.4046;-1.4087;
928.5000;0.4029;-1.4162;
928.8000;0.4127;-1.3913;
929.1000;0.4029;-1.4162;
929.4000;0.4021;-1.4212;
929.7000;0.4046;-1.4137;
930.0000;0.4021;-1.4262;
930.3000;0.3997;-1.4362;
930.6000;0.4021;-1.4287;
930.9000;0.4111;-1.4112;
931.2000;0.4037;-1.4312;
931.5000;0.4037;-1.4312;
931.8000;0.4013;-1.4362;
932.1000;0.4062;-1.4312;
932.4000;0.4037;-1.4362;
932.7000;0.4037;-1.4387;
933.0000;0.4037;-1.4312;
933.3000;0.4029;-1.4212;
933.6000;0.4054;-1.4162;
933.9000;0.4037;-1.4187;
934.2000;0.4029;-1.4262;
934.5000;0.4021;-1.4262;
934.8000;0.4021;-1.4212;
935.1000;0.4046;-1.4062;
935.4000;0.4021;-1.4062;
935.7000;0.4037;-1.4062;
936.0000;0.4021;-1.4137;
936.3000;0.4029;-1.4087;
936.6000;0.4029;-1.4162;
936.9000;0.4037;-1.4137;
937.2000;0.4037;-1.4162;
937.5000;0.4013;-1.4187;
937.8000;0.4029;-1.4162;
938.1000;0.3989;-1.4262;
938.4000;0.4005;-1.4112;
938.7000;0.4013;-1.4062;
939.0000;0.4037;-1.4087;
939.3000;0.3997;-1.4212;
939.6000;0.4013;-1.4137;
939.9000;0.4021;-1.4162;
940.2000;0.4037;-1.4187;
940.5000;0.3997;-1.4287;
940.8000;0.3997;-1.4287;
941.1000;0.4013;-1.4287;
941.4000;0.4046;-1.4262;
941.7000;0.4021;-1.4312;
942.0000;0.4021;-1.4362;
942.3000;0.4037;-1.4287;
942.6000;0.4021;-1.4362;
942.9000;0.4021;-1.4387;
943.2000;0.4062;-1.4287;
943.5000;0.4021;-1.4387;
943.8000;0.4013;-1.4511;
944.1000;0.4013;-1.4511;
944.4000;0.4021;-1.4511;
944.7000;0.4005;-1.4536;
945.0000;0.4037;-1.4461;
945.3000;0.4054;-1.4436;
945.6000;0.4021;-1.4362;
945.9000;0.4013;-1.4312;
946.2000;0.4021;-1.4337;
946.5000;0.4005;-1.4511;
946.8000;0.4070;-1.4411;
947.1000;0.4037;-1.4411;
947.4000;0.4037;-1.4411;
947.7000;0.4046;-1.4411;
948.0000;0.4029;-1.4411;
948.3000;0.4021;-1.4387;
948.6000;0.4005;-1.4436;
948.9000;0.3980;-1.4411;
949.2000;0.4029;-1.4362;
949.5000;0.4021;-1.4287;
949.8000;0.4078;-1.4162;
950.1000;0.4029;-1.4212;
950.4000;0.4037;-1.4187;
950.7000;0.4029;-1.4162;
951.0000;0.4021;-1.4112;
951.3000;0.4013;-1.4237;
951.6000;0.4037;-1.4137;
951.9000;0.4029;-1.4237;
952.2000;0.4013;-1.4337;
952.5000;0.4013;-1.4312;
952.8000;0.4021;-1.4337;
953.1000;0.4037;-1.4312;
953.4000;0.4029;-1.4237;
953.7000;0.3989;-1.4387;
954.0000;0.4013;-1.4387;
954.3000;0.4013;-1.4411;
954.6000;0.4029;-1.4387;
954.9000;0.4005;-1.4362;
955.2000;0.4021;-1.4312;
955.5000;0.4054;-1.4262;
955.8000;0.4021;-1.4436;
956.1000;0.3997;-1.4411;
956.4000;0.4013;-1.4362;
956.7000;0.4013;-1.4287;
957.0000;0.4021;-1.4287;
957.3000;0.4029;-1.4187;
957.6000;0.4021;-1.4312;
957.9000;0.4111;-1.4137;
958.2000;0.4021;-1.4287;
958.5000;0.4013;-1.4312;
958.8000;0.4103;-1.4087;
959.1000;0.4046;-1.4337;
959.4000;0.4021;-1.4387;
959.7000;0.4013;-1.4387;
960.0000;0.4021;-1.4436;
960.3000;0.4029;-1.4387;
960.6000;0.3956;-1.4461;
960.9000;0.4029;-1.4237;
961.2000;0.3997;-1.4312;
961.5000;0.3964;-1.4337;
961.8000;0.4013;-1.4187;
962.1000;0.3964;-1.4387;
962.4000;0.4013;-1.4362;
962.7000;0.4005;-1.4436;
963.0000;0.4037;-1.4337;
963.3000;0.4005;-1.4362;
963.6000;0.4005;-1.4312;
963.9000;0.4021;-1.4287;
964.2000;0.3997;-1.4312;
964.5000;0.4013;-1.4312;
964.8000;0.3989;-1.4312;
965.1000;0.3932;-1.4312;
965.4000;0.4005;-1.4087;
965.7000;0.4013;-1.3988;
966.0000;0.4021;-1.4037;
966.3000;0.3989;-1.4062;
966.6000;0.3997;-1.4187;
966.9000;0.4029;-1.4162;
967.2000;0.4013;-1.4162;
967.5000;0.4037;-1.4137;
967.8000;0.4021;-1.4137;
968.1000;0.4029;-1.4137;
968.4000;0.4037;-1.4187;
968.7000;0.4013;-1.4362;
969.0000;0.4013;-1.4312;
969.3000;0.3989;-1.4387;
969.6000;0.4021;-1.4312;
969.9000;0.4013;-1.4337;
970.2000;0.4013;-1.4436;
970.5000;0.3964;-1.4536;
970.8000;0.4013;-1.4362;
971.1000;0.3997;-1.4387;
971.4000;0.4005;-1.4461;
971.7000;0.4013;-1.4536;
972.0000;0.4021;-1.4511;
972.3000;0.3989;-1.4586;
972.6000;0.4021;-1.4486;
972.9000;0.4013;-1.4411;
973.2000;0.4021;-1.4362;
973.5000;0.4111;-1.4013;
973.8000;0.4062;-1.4062;
974.1000;0.4013;-1.4087;
974.4000;0.3997;-1.4212;
974.7000;0.3997;-1.4287;
975.0000;0.3989;-1.4287;
975.3000;0.3980;-1.4337;
975.6000;0.3997;-1.4387;
975.9000;0.4005;-1.4362;
976.2000;0.3972;-1.4411;
976.5000;0.4005;-1.4312;
976.8000;0.3989;-1.4337;
977.1000;0.4029;-1.4312;
977.4000;0.4013;-1.4337;
977.7000;0.3964;-1.4486;
978.0000;0.3997;-1.4387;
978.3000;0.4029;-1.4287;
978.6000;0.4029;-1.4187;
978.9000;0.4005;-1.4262;
979.2000;0.4005;-1.4262;
979.5000;0.4013;-1.4212;
979.8000;0.4013;-1.4212;
980.1000;0.4005;-1.4262;
980.4000;0.4005;-1.4337;
980.7000;0.4013;-1.4337;
981.0000;0.4013;-1.4362;
981.3000;0.4021;-1.4411;
981.6000;0.4103;-1.4112;
981.9000;0.4021;-1.4387;
982.2000;0.4037;-1.4461;
982.5000;0.4029;-1.4511;
982.8000;0.4013;-1.4486;
983.1000;0.4029;-1.4387;
983.4000;0.4029;-1.4287;
983.7000;0.4013;-1.4287;
984.0000;0.3972;-1.4312;
984.3000;0.3989;-1.4312;
984.6000;0.3956;-1.4387;
984.9000;0.4013;-1.4337;
985.2000;0.3997;-1.4387;
985.5000;0.3997;-1.4362;
985.8000;0.4013;-1.4287;
986.1000;0.4005;-1.4237;
986.4000;0.4013;-1.4237;
986.7000;0.4029;-1.4262;
987.0000;0.3997;-1.4337;
987.3000;0.4013;-1.4337;
987.6000;0.4005;-1.4362;
987.9000;0.4013;-1.4287;
988.2000;0.3989;-1.4312;
988.5000;0.4005;-1.4312;
988.8000;0.4005;-1.4337;
989.1000;0.3989;-1.4387;
989.4000;0.3989;-1.4337;
989.7000;0.4005;-1.4287;
990.0000;0.3989;-1.4362;
990.3000;0.3997;-1.4436;
990.6000;0.3997;-1.4436;
990.9000;0.4013;-1.4461;
991.2000;0.3997;-1.4387;
991.5000;0.4013;-1.4387;
991.8000;0.4037;-1.4337;
992.1000;0.3997;-1.4436;
992.4000;0.3980;-1.4486;
992.7000;0.4021;-1.4387;
993.0000;0.4013;-1.4362;
993.3000;0.4021;-1.4312;
993.6000;0.4021;-1.4337;
993.9000;0.4037;-1.4362;
994.2000;0.3997;-1.4436;
994.5000;0.3964;-1.4511;
994.8000;0.3997;-1.4511;
995.1000;0.4013;-1.4511;
995.4000;0.4005;-1.4536;
995.7000;0.4005;-1.4536;
996.0000;0.3972;-1.4561;
996.3000;0.4013;-1.4611;
996.6000;0.3997;-1.4636;
996.9000;0.3989;-1.4636;
997.2000;0.3989;-1.4561;
997.5000;0.4029;-1.4387;
997.8000;0.3972;-1.4561;
998.1000;0.4005;-1.4387;
998.4000;0.4005;-1.4362;
998.7000;0.4021;-1.4337;
999.0000;0.4021;-1.4337;
999.3000;0.3989;-1.4436;
999.6000;0.3948;-1.4586;
999.9000;0.4005;-1.4436;
1000.2000;0.4013;-1.4511;
1000.5000;0.4013;-1.4461;
1000.8000;0.4021;-1.4486;
1001.1000;0.4046;-1.4436;
1001.4000;0.4013;-1.4486;
1001.7000;0.3997;-1.4387;
1002.0000;0.4037;-1.4287;
1002.3000;0.4021;-1.4411;
1002.6000;0.4013;-1.4362;
1002.9000;0.3997;-1.4312;
1003.2000;0.4013;-1.4362;
1003.5000;0.3997;-1.4387;
1003.8000;0.3956;-1.4486;
1004.1000;0.3989;-1.4362;
1004.4000;0.4005;-1.4411;
1004.7000;0.3989;-1.4636;
1005.0000;0.3989;-1.4636;
1005.3000;0.3956;-1.4686;
1005.6000;0.3972;-1.4611;
1005.9000;0.4029;-1.4436;
1006.2000;0.4005;-1.4536;
1006.5000;0.4013;-1.4511;
1006.8000;0.4005;-1.4461;
1007.1000;0.3948;-1.4611;
1007.4000;0.3989;-1.4536;
1007.7000;0.3997;-1.4561;
1008.0000;0.3980;-1.4586;
1008.3000;0.3989;-1.4661;
1008.6000;0.3948;-1.4860;
1008.9000;0.3989;-1.4860;
1009.2000;0.3989;-1.4835;
1009.5000;0.3997;-1.4835;
1009.8000;0.3997;-1.4860;
1010.1000;0.3932;-1.5035;
1010.4000;0.4005;-1.4960;
1010.7000;0.4062;-1.4711;
1011.0000;0.4005;-1.4885;
1011.3000;0.4013;-1.4935;
1011.6000;0.4005;-1.4935;
1011.9000;0.4005;-1.5010;
1012.2000;0.3980;-1.4985;
1012.5000;0.4021;-1.4686;
1012.8000;0.3940;-1.4835;
1013.1000;0.4005;-1.4611;
1013.4000;0.3997;-1.4711;
1013.7000;0.3989;-1.4761;
1014.0000;0.4029;-1.4736;
1014.3000;0.3997;-1.4686;
1014.6000;0.3997;-1.4586;
1014.9000;0.4005;-1.4586;
1015.2000;0.3997;-1.4561;
1015.5000;0.3997;-1.4486;
1015.8000;0.3997;-1.4486;
1016.1000;0.3964;-1.4536;
1016.4000;0.3972;-1.4486;
1016.7000;0.3956;-1.4511;
1017.0000;0.3997;-1.4387;
1017.3000;0.4086;-1.4112;
1017.6000;0.3980;-1.4436;
1017.9000;0.4005;-1.4362;
1018.2000;0.3989;-1.4436;
1018.5000;0.3972;-1.4436;
1018.8000;0.3972;-1.4387;
1019.1000;0.4005;-1.4312;
1019.4000;0.3997;-1.4312;
1019.7000;0.4005;-1.4212;
1020.0000;0.4005;-1.4137;
1020.3000;0.3980;-1.4237;
1020.6000;0.3989;-1.4262;
1020.9000;0.3997;-1.4287;
1021.2000;0.3997;-1.4312;
1021.5000;0.4046;-1.4212;
1021.8000;0.3989;-1.4287;
1022.1000;0.3972;-1.4287;
1022.4000;0.3980;-1.4262;
1022.7000;0.3956;-1.4212;
1023.0000;0.3989;-1.4187;
1023.3000;0.4013;-1.4237;
1023.6000;0.4013;-1.4262;
1023.9000;0.4005;-1.4287;
1024.2000;0.3989;-1.4312;
1024.5000;0.3989;-1.4262;
1024.8000;0.3980;-1.4362;
1025.1000;0.3980;-1.4337;
1025.4000;0.3997;-1.4312;
1025.7000;0.4005;-1.4262;
1026.0000;0.3989;-1.4312;
1026.3000;0.4005;-1.4237;
1026.6000;0.3980;-1.4411;
1026.9000;0.3997;-1.4436;
1027.2000;0.3989;-1.4486;
1027.5000;0.4005;-1.4486;
1027.8000;0.3980;-1.4486;
1028.1000;0.3932;-1.4686;
1028.4000;0.4005;-1.4511;
1028.7000;0.3997;-1.4511;
1029.0000;0.3997;-1.4387;
1029.3000;0.3932;-1.4436;
1029.6000;0.3980;-1.4287;
1029.9000;0.3997;-1.4262;
1030.2000;0.3980;-1.4237;
1030.5000;0.3989;-1.4187;
1030.8000;0.4013;-1.4162;
1031.1000;0.3997;-1.4212;
1031.4000;0.3997;-1.4262;
1031.7000;0.3997;-1.4237;
1032.0000;0.3997;-1.4287;
1032.3000;0.3989;-1.4337;
1032.6000;0.3899;-1.4611;
1032.9000;0.3989;-1.4337;
1033.2000;0.3989;-1.4312;
1033.5000;0.3997;-1.4262;
1033.8000;0.3989;-1.4312;
1034.1000;0.3956;-1.4411;
1034.4000;0.4005;-1.4312;
1034.7000;0.3989;-1.4337;
1035.0000;0.3989;-1.4337;
1035.3000;0.3989;-1.4312;
1035.6000;0.4005;-1.4137;
1035.9000;0.3989;-1.4062;
1036.2000;0.3997;-1.4162;
1036.5000;0.3980;-1.4237;
1036.8000;0.3980;-1.4187;
1037.1000;0.4005;-1.4162;
1037.4000;0.4021;-1.4087;
1037.7000;0.3972;-1.4162;
1038.0000;0.4013;-1.4087;
1038.3000;0.3997;-1.4187;
1038.6000;0.3997;-1.4212;
1038.9000;0.3989;-1.4262;
1039.2000;0.3989;-1.4237;
1039.5000;0.4021;-1.4187;
1039.8000;0.3997;-1.4287;
1040.1000;0.3997;-1.4262;
1040.4000;0.3989;-1.4212;
1040.7000;0.3997;-1.4287;
1041.0000;0.4005;-1.4212;
1041.3000;0.3997;-1.4162;
1041.6000;0.3980;-1.4162;
1041.9000;0.4029;-1.4037;
1042.2000;0.4005;-1.4137;
1042.5000;0.4021;-1.4013;
1042.8000;0.4005;-1.4062;
1043.1000;0.3989;-1.4112;
1043.4000;0.3980;-1.4087;
1043.7000;0.3997;-1.4087;
1044.0000;0.3972;-1.4162;
1044.3000;0.4054;-1.4062;
1044.6000;0.3997;-1.4212;
1044.9000;0.3980;-1.4312;
1045.2000;0.3997;-1.4312;
1045.5000;0.4029;-1.4187;
1045.8000;0.3989;-1.4337;
1046.1000;0.3989;-1.4337;
1046.4000;0.4005;-1.4312;
1046.7000;0.3989;-1.4362;
1047.0000;0.3980;-1.4337;
1047.3000;0.3997;-1.4312;
1047.6000;0.3989;-1.4187;
1047.9000;0.3980;-1.4162;
1048.2000;0.3972;-1.4162;
1048.5000;0.3989;-1.4087;
1048.8000;0.3972;-1.4087;
1049.1000;0.3989;-1.4087;
1049.4000;0.3997;-1.4112;
1049.7000;0.4013;-1.4087;
1050.0000;0.4086;-1.3963;
1050.3000;0.4005;-1.4087;
1050.6000;0.3989;-1.4037;
1050.9000;0.3989;-1.4013;
1051.2000;0.3997;-1.4013;
1051.5000;0.4005;-1.4037;
1051.8000;0.3980;-1.4112;
1052.1000;0.3948;-1.4162;
1052.4000;0.3980;-1.3988;
1052.7000;0.4005;-1.3963;
1053.0000;0.3980;-1.4112;
1053.3000;0.3989;-1.4087;
1053.6000;0.4029;-1.3988;
1053.9000;0.4005;-1.4013;
1054.2000;0.3972;-1.4087;
1054.5000;0.3956;-1.4112;
1054.8000;0.3980;-1.4037;
1055.1000;0.4013;-1.3863;
1055.4000;0.3980;-1.4013;
1055.7000;0.3980;-1.4062;
1056.0000;0.3989;-1.4062;
1056.3000;0.3997;-1.4037;
1056.6000;0.3980;-1.4037;
1056.9000;0.3980;-1.4013;
1057.2000;0.3932;-1.4037;
1057.5000;0.4005;-1.3888;
1057.8000;0.3972;-1.4037;
1058.1000;0.3972;-1.4162;
1058.4000;0.3980;-1.4162;
1058.7000;0.3972;-1.4262;
1059.0000;0.3997;-1.4237;
1059.3000;0.3989;-1.4162;
1059.6000;0.3980;-1.4162;
1059.9000;0.3989;-1.4137;
1060.2000;0.4005;-1.4162;
1060.5000;0.3989;-1.4187;
1060.8000;0.3980;-1.4187;
1061.1000;0.4013;-1.4162;
1061.4000;0.3997;-1.4212;
1061.7000;0.3989;-1.4187;
1062.0000;0.3940;-1.4362;
1062.3000;0.3964;-1.4237;
1062.6000;0.3989;-1.4212;
1062.9000;0.4013;-1.4112;
1063.2000;0.3989;-1.4137;
1063.5000;0.4005;-1.4162;
1063.8000;0.3964;-1.4312;
1064.1000;0.4005;-1.4262;
1064.4000;0.3980;-1.4237;
1064.7000;0.3989;-1.4112;
1065.0000;0.3915;-1.4262;
1065.3000;0.3980;-1.4112;
1065.6000;0.3997;-1.4062;
1065.9000;0.4013;-1.3988;
1066.2000;0.3980;-1.3988;
1066.5000;0.3972;-1.4013;
1066.8000;0.3956;-1.3988;
1067.1000;0.3972;-1.3888;
1067.4000;0.3940;-1.4013;
1067.7000;0.3989;-1.3938;
1068.0000;0.3980;-1.4013;
1068.3000;0.3964;-1.4112;
1068.6000;0.3989;-1.4162;
1068.9000;0.3972;-1.4112;
1069.2000;0.3997;-1.4087;
1069.5000;0.4013;-1.4062;
1069.8000;0.4013;-1.3988;
1070.1000;0.3964;-1.3988;
1070.4000;0.4005;-1.3838;
1070.7000;0.3989;-1.3863;
1071.0000;0.4086;-1.3614;
1071.3000;0.3972;-1.3863;
1071.6000;0.3972;-1.3813;
1071.9000;0.3980;-1.3863;
1072.2000;0.3989;-1.3963;
1072.5000;0.3972;-1.3938;
1072.8000;0.3980;-1.3963;
1073.1000;0.4005;-1.3913;
1073.4000;0.3980;-1.3988;
1073.7000;0.3980;-1.3888;
1074.0000;0.4046;-1.3688;
1074.3000;0.3989;-1.3838;
1074.6000;0.3989;-1.3863;
1074.9000;0.3989;-1.3763;
1075.2000;0.4013;-1.3713;
1075.5000;0.3989;-1.3838;
1075.8000;0.3997;-1.3863;
1076.1000;0.3956;-1.3963;
1076.4000;0.3980;-1.3988;
1076.7000;0.3972;-1.3913;
1077.0000;0.3997;-1.4013;
1077.3000;0.3972;-1.4087;
1077.6000;0.3980;-1.4013;
1077.9000;0.3980;-1.3988;
1078.2000;0.4029;-1.3888;
1078.5000;0.3972;-1.3938;
1078.8000;0.3980;-1.3888;
1079.1000;0.4005;-1.3763;
1079.4000;0.3997;-1.3738;
1079.7000;0.3980;-1.3813;
1080.0000;0.3980;-1.3913;
1080.3000;0.3989;-1.3813;
1080.6000;0.3997;-1.3688;
1080.9000;0.3980;-1.3763;
1081.2000;0.3972;-1.3738;
1081.5000;0.3972;-1.3763;
1081.8000;0.3972;-1.3763;
1082.1000;0.3980;-1.3763;
1082.4000;0.3989;-1.3713;
1082.7000;0.3972;-1.3713;
1083.0000;0.3989;-1.3763;
1083.3000;0.3989;-1.3813;
1083.6000;0.3956;-1.3913;
1083.9000;0.4013;-1.3713;
1084.2000;0.3972;-1.3713;
1084.5000;0.3948;-1.3863;
1084.8000;0.4005;-1.3813;
1085.1000;0.3980;-1.3738;
1085.4000;0.3989;-1.3763;
1085.7000;0.3972;-1.3813;
1086.0000;0.3997;-1.3838;
1086.3000;0.3980;-1.3963;
1086.6000;0.3972;-1.4013;
1086.9000;0.3932;-1.4187;
1087.2000;0.3972;-1.4112;
1087.5000;0.3972;-1.4162;
1087.8000;0.3964;-1.4137;
1088.1000;0.3980;-1.4037;
1088.4000;0.3997;-1.3913;
1088.7000;0.3980;-1.3988;
1089.0000;0.3989;-1.3988;
1089.3000;0.3972;-1.4037;
1089.6000;0.3997;-1.3988;
1089.9000;0.3972;-1.4087;
1090.2000;0.3964;-1.4062;
1090.5000;0.3980;-1.3963;
1090.8000;0.3972;-1.3988;
1091.1000;0.4005;-1.3963;
1091.4000;0.3997;-1.3938;
1091.7000;0.3980;-1.3963;
1092.0000;0.3948;-1.4062;
1092.3000;0.3980;-1.4013;
1092.6000;0.3997;-1.4013;
1092.9000;0.3972;-1.4062;
1093.2000;0.3964;-1.4037;
1093.5000;0.3980;-1.4037;
1093.8000;0.3989;-1.3988;
1094.1000;0.3980;-1.4062;
1094.4000;0.3972;-1.4087;
1094.7000;0.3989;-1.4062;
1095.0000;0.3989;-1.4062;
1095.3000;0.3964;-1.4087;
1095.6000;0.3989;-1.4013;
1095.9000;0.3980;-1.4013;
1096.2000;0.3980;-1.4013;
1096.5000;0.3989;-1.3988;
1096.8000;0.3972;-1.3988;
1097.1000;0.4005;-1.3988;
1097.4000;0.4005;-1.4062;
1097.7000;0.3989;-1.4137;
1098.0000;0.4046;-1.3913;
1098.3000;0.3989;-1.4062;
1098.6000;0.3956;-1.4087;
1098.9000;0.3980;-1.4037;
1099.2000;0.3980;-1.4087;
1099.5000;0.4005;-1.4112;
1099.8000;0.3989;-1.4162;
1100.1000;0.3997;-1.4162;
1100.4000;0.4054;-1.4112;
1100.7000;0.3989;-1.4187;
1101.0000;0.3989;-1.4212;
1101.3000;0.3980;-1.4187;
1101.6000;0.3980;-1.4212;
1101.9000;0.3980;-1.4212;
1102.2000;0.3989;-1.4162;
1102.5000;0.3997;-1.4112;
1102.8000;0.3980;-1.4162;
1103.1000;0.3972;-1.4237;
1103.4000;0.3980;-1.4187;
1103.7000;0.3972;-1.4137;
1104.0000;0.3972;-1.4087;
1104.3000;0.3980;-1.4112;
1104.6000;0.3972;-1.4062;
1104.9000;0.3997;-1.4013;
1105.2000;0.3980;-1.4137;
1105.5000;0.3972;-1.4212;
1105.8000;0.3948;-1.4262;
1106.1000;0.3972;-1.4187;
1106.4000;0.3980;-1.4112;
1106.7000;0.3980;-1.4062;
1107.0000;0.4005;-1.4013;
1107.3000;0.3980;-1.4013;
1107.6000;0.3980;-1.3963;
1107.9000;0.3980;-1.3988;
1108.2000;0.3980;-1.4013;
1108.5000;0.4029;-1.3813;
1108.8000;0.3972;-1.3888;
1109.1000;0.3964;-1.3888;
1109.4000;0.3989;-1.3938;
1109.7000;0.3980;-1.4037;
1110.0000;0.3972;-1.4112;
1110.3000;0.3989;-1.4137;
1110.6000;0.3972;-1.4187;
1110.9000;0.3972;-1.4187;
1111.2000;0.3972;-1.4112;
1111.5000;0.3989;-1.4112;
1111.8000;0.3997;-1.4062;
1112.1000;0.3989;-1.4087;
1112.4000;0.4005;-1.4013;
1112.7000;0.3997;-1.4013;
1113.0000;0.3964;-1.4013;
1113.3000;0.3972;-1.4037;
1113.6000;0.3972;-1.4087;
1113.9000;0.4013;-1.4037;
1114.2000;0.3989;-1.4212;
1114.5000;0.3964;-1.4262;
1114.8000;0.3980;-1.4112;
1115.1000;0.3964;-1.4062;
1115.4000;0.3980;-1.4037;
1115.7000;0.3997;-1.4062;
1116.0000;0.3989;-1.4013;
1116.3000;0.3972;-1.4137;
1116.6000;0.3980;-1.4087;
1116.9000;0.3980;-1.4062;
1117.2000;0.3980;-1.4112;
1117.5000;0.3980;-1.4062;
1117.8000;0.3989;-1.4137;
1118.1000;0.4029;-1.3988;
1118.4000;0.3980;-1.4187;
1118.7000;0.3980;-1.4137;
1119.0000;0.3980;-1.4013;
1119.3000;0.3964;-1.3963;
1119.6000;0.4005;-1.3863;
1119.9000;0.3972;-1.3913;
1120.2000;0.3980;-1.3938;
1120.5000;0.4013;-1.3888;
1120.8000;0.3964;-1.4087;
1121.1000;0.3989;-1.3988;
1121.4000;0.3989;-1.4013;
1121.7000;0.3989;-1.4062;
1122.0000;0.3980;-1.4087;
1122.3000;0.3980;-1.4112;
1122.6000;0.3997;-1.4112;
1122.9000;0.3989;-1.4087;
1123.2000;0.3980;-1.4037;
1123.5000;0.3948;-1.4187;
1123.8000;0.3980;-1.4087;
1124.1000;0.3972;-1.4037;
1124.4000;0.3972;-1.3963;
1124.7000;0.3980;-1.3988;
1125.0000;0.3972;-1.3938;
1125.3000;0.3980;-1.4013;
1125.6000;0.4005;-1.3913;
1125.9000;0.3964;-1.4013;
1126.2000;0.3997;-1.3838;
1126.5000;0.3923;-1.3988;
1126.8000;0.3972;-1.4013;
1127.1000;0.3989;-1.3988;
1127.4000;0.3980;-1.3913;
1127.7000;0.3980;-1.4013;
1128.0000;0.3980;-1.4013;
1128.3000;0.3989;-1.4013;
1128.6000;0.3989;-1.3963;
1128.9000;0.3989;-1.4013;
1129.2000;0.3964;-1.4112;
1129.5000;0.3980;-1.4112;
1129.8000;0.3997;-1.4062;
1130.1000;0.3964;-1.4162;
1130.4000;0.3980;-1.4187;
1130.7000;0.4013;-1.3988;
1131.0000;0.3980;-1.4087;
1131.3000;0.3989;-1.4112;
1131.6000;0.4005;-1.4037;
1131.9000;0.3989;-1.4087;
1132.2000;0.3997;-1.4062;
1132.5000;0.3956;-1.4162;
1132.8000;0.3989;-1.4112;
1133.1000;0.3997;-1.4062;
1133.4000;0.3915;-1.4287;
1133.7000;0.3972;-1.4287;
1134.0000;0.3972;-1.4337;
1134.3000;0.4037;-1.4187;
1134.6000;0.3989;-1.4287;
1134.9000;0.3980;-1.4287;
1135.2000;0.3980;-1.4237;
1135.5000;0.3948;-1.4362;
1135.8000;0.3956;-1.4262;
1136.1000;0.3980;-1.4237;
1136.4000;0.3989;-1.4187;
1136.7000;0.3980;-1.4187;
1137.0000;0.3972;-1.4162;
1137.3000;0.3972;-1.4162;
1137.6000;0.3956;-1.4262;
1137.9000;0.3980;-1.4262;
1138.2000;0.3964;-1.4237;
1138.5000;0.3956;-1.4287;
1138.8000;0.3940;-1.4287;
1139.1000;0.3964;-1.4237;
1139.4000;0.3964;-1.4237;
1139.7000;0.3940;-1.4237;
1140.0000;0.3972;-1.4137;
1140.3000;0.3964;-1.4037;
1140.6000;0.3972;-1.4137;
1140.9000;0.3972;-1.4162;
1141.2000;0.3989;-1.4187;
1141.5000;0.3989;-1.4212;
1141.8000;0.4029;-1.4237;
1142.1000;0.4013;-1.4187;
1142.4000;0.3964;-1.4312;
1142.7000;0.3964;-1.4312;
1143.0000;0.3980;-1.4287;
1143.3000;0.3989;-1.4362;
1143.6000;0.3980;-1.4337;
1143.9000;0.4046;-1.4212;
1144.2000;0.3972;-1.4362;
1144.5000;0.3997;-1.4411;
1144.8000;0.3899;-1.4686;
1145.1000;0.3980;-1.4486;
1145.4000;0.3964;-1.4536;
1145.7000;0.3972;-1.4387;
1146.0000;0.3989;-1.4337;
1146.3000;0.3997;-1.4237;
1146.6000;0.3972;-1.4237;
1146.9000;0.3964;-1.4237;
1147.2000;0.3940;-1.4187;
1147.5000;0.3989;-1.4062;
1147.8000;0.3915;-1.4212;
1148.1000;0.3972;-1.4112;
1148.4000;0.3989;-1.4162;
1148.7000;0.3956;-1.4162;
1149.0000;0.3932;-1.4087;
1149.3000;0.3972;-1.3963;
1149.6000;0.3980;-1.3938;
1149.9000;0.3972;-1.3988;
1150.2000;0.3989;-1.4062;
1150.5000;0.3980;-1.4112;
1150.8000;0.4013;-1.4112;
1151.1000;0.3980;-1.4187;
1151.4000;0.3964;-1.4212;
1151.7000;0.3980;-1.4162;
1152.0000;0.3972;-1.4162;
1152.3000;0.3980;-1.4112;
1152.6000;0.3989;-1.4137;
1152.9000;0.3980;-1.4187;
1153.2000;0.3980;-1.4212;
1153.5000;0.3997;-1.4187;
1153.8000;0.3964;-1.4337;
1154.1000;0.3989;-1.4287;
1154.4000;0.3997;-1.4287;
1154.7000;0.3989;-1.4387;
1155.0000;0.4037;-1.4137;
1155.3000;0.3989;-1.4262;
1155.6000;0.3980;-1.4237;
1155.9000;0.3980;-1.4262;
1156.2000;0.3997;-1.4137;
1156.5000;0.3980;-1.4137;
1156.8000;0.3972;-1.4112;
1157.1000;0.3980;-1.4137;
1157.4000;0.3956;-1.4212;
1157.7000;0.3964;-1.4162;
1158.0000;0.3972;-1.4137;
1158.3000;0.3989;-1.4062;
1158.6000;0.3980;-1.4087;
1158.9000;0.3980;-1.4187;
1159.2000;0.3989;-1.4237;
1159.5000;0.3972;-1.4287;
1159.8000;0.3980;-1.4337;
1160.1000;0.3948;-1.4486;
1160.4000;0.3980;-1.4362;
1160.7000;0.3972;-1.4312;
1161.0000;0.3972;-1.4287;
1161.3000;0.3980;-1.4337;
1161.6000;0.3980;-1.4287;
1161.9000;0.3923;-1.4337;
1162.2000;0.3980;-1.4212;
1162.5000;0.3989;-1.4187;
1162.8000;0.3997;-1.4187;
1163.1000;0.3964;-1.4337;
1163.4000;0.3989;-1.4262;
1163.7000;0.3997;-1.4287;
1164.0000;0.3956;-1.4387;
1164.3000;0.3989;-1.4187;
1164.6000;0.4005;-1.4162;
1164.9000;0.3980;-1.4237;
1165.2000;0.3972;-1.4137;
1165.5000;0.3972;-1.4162;
1165.8000;0.3972;-1.4162;
1166.1000;0.3997;-1.4062;
1166.4000;0.3989;-1.4087;
1166.7000;0.3972;-1.4137;
1167.0000;0.3980;-1.4087;
1167.3000;0.3972;-1.4087;
1167.6000;0.3980;-1.4112;
1167.9000;0.3997;-1.3963;
1168.2000;0.3972;-1.4062;
1168.5000;0.3972;-1.4062;
1168.8000;0.3989;-1.4037;
1169.1000;0.3972;-1.4087;
1169.4000;0.3972;-1.4087;
1169.7000;0.3997;-1.4013;
1170.0000;0.3932;-1.4087;
1170.3000;0.3980;-1.3913;
1170.6000;0.3972;-1.3988;
1170.9000;0.3964;-1.3988;
1171.2000;0.4013;-1.3988;
1171.5000;0.3997;-1.4062;
1171.8000;0.3997;-1.4037;
1172.1000;0.3980;-1.3988;
1172.4000;0.3997;-1.4062;
1172.7000;0.3997;-1.4112;
1173.0000;0.3972;-1.4112;
1173.3000;0.3980;-1.4087;
1173.6000;0.3989;-1.4062;
1173.9000;0.3972;-1.4112;
1174.2000;0.3980;-1.4137;
1174.5000;0.3980;-1.4137;
1174.8000;0.3972;-1.4112;
1175.1000;0.3972;-1.4162;
1175.4000;0.3980;-1.4013;
1175.7000;0.3989;-1.4087;
1176.0000;0.3972;-1.4162;
1176.3000;0.3980;-1.4112;
1176.6000;0.3932;-1.4162;
1176.9000;0.3980;-1.4162;
1177.2000;0.3980;-1.4187;
1177.5000;0.3972;-1.4137;
1177.8000;0.3997;-1.4187;
1178.1000;0.3964;-1.4337;
1178.4000;0.3964;-1.4212;
1178.7000;0.3915;-1.4287;
1179.0000;0.3980;-1.4087;
1179.3000;0.3980;-1.4062;
1179.6000;0.3964;-1.4062;
1179.9000;0.3972;-1.4087;
1180.2000;0.3980;-1.4037;
1180.5000;0.3972;-1.4137;
1180.8000;0.3956;-1.4112;
1181.1000;0.3956;-1.4112;
1181.4000;0.3964;-1.4037;
1181.7000;0.3956;-1.4137;
1182.0000;0.3964;-1.4237;
1182.3000;0.3997;-1.4062;
1182.6000;0.3956;-1.4187;
1182.9000;0.3923;-1.4212;
1183.2000;0.3989;-1.4037;
1183.5000;0.3964;-1.4112;
1183.8000;0.3948;-1.4137;
1184.1000;0.3956;-1.4062;
1184.4000;0.3964;-1.4037;
1184.7000;0.3858;-1.4411;
1185.0000;0.3964;-1.4237;
1185.3000;0.3972;-1.4312;
1185.6000;0.3948;-1.4387;
1185.9000;0.3964;-1.4362;
1186.2000;0.3972;-1.4436;
1186.5000;0.3972;-1.4387;
1186.8000;0.3989;-1.4312;
1187.1000;0.3997;-1.4287;
1187.4000;0.3972;-1.4312;
1187.7000;0.3989;-1.4187;
1188.0000;0.4005;-1.4162;
1188.3000;0.3980;-1.4287;
1188.6000;0.3980;-1.4237;
1188.9000;0.4094;-1.3863;
1189.2000;0.3997;-1.4112;
1189.5000;0.3972;-1.4237;
1189.8000;0.3948;-1.4387;
1190.1000;0.3972;-1.4337;
1190.4000;0.3989;-1.4237;
1190.7000;0.3964;-1.4287;
1191.0000;0.3980;-1.4287;
1191.3000;0.3964;-1.4287;
1191.6000;0.3972;-1.4287;
1191.9000;0.4013;-1.4137;
1192.2000;0.3972;-1.4112;
1192.5000;0.3972;-1.3938;
1192.8000;0.3989;-1.3838;
1193.1000;0.4005;-1.3838;
1193.4000;0.3980;-1.3888;
1193.7000;0.3964;-1.4062;
1194.0000;0.3972;-1.4013;
1194.3000;0.3989;-1.4013;
1194.6000;0.3980;-1.3988;
1194.9000;0.3972;-1.4037;
1195.2000;0.3972;-1.4037;
1195.5000;0.3989;-1.3963;
1195.8000;0.3989;-1.3938;
1196.1000;0.3997;-1.3838;
1196.4000;0.3964;-1.3863;
1196.7000;0.4005;-1.3888;
1197.0000;0.3980;-1.4013;
1197.3000;0.3972;-1.4187;
1197.6000;0.4005;-1.4037;
1197.9000;0.3972;-1.4062;
1198.2000;0.3980;-1.3938;
1198.5000;0.3964;-1.3913;
1198.8000;0.3980;-1.3913;
1199.1000;0.3964;-1.3963;
1199.4000;0.3956;-1.3888;
1199.7000;0.3956;-1.3938;
1200.0000;0.3948;-1.3963;
1200.3000;0.3964;-1.4062;
1200.6000;0.3964;-1.4013;
1200.9000;0.3964;-1.4137;
1201.2000;0.3989;-1.4112;
1201.5000;0.3964;-1.4162;
1201.8000;0.3980;-1.4037;
1202.1000;0.3980;-1.4062;
1202.4000;0.3915;-1.4312;
1202.7000;0.3972;-1.4137;
1203.0000;0.4029;-1.4013;
1203.3000;0.3980;-1.4162;
1203.6000;0.3972;-1.4162;
1203.9000;0.3972;-1.4087;
1204.2000;0.3980;-1.4137;
1204.5000;0.3883;-1.4387;
1204.8000;0.3956;-1.4137;
1205.1000;0.4005;-1.4013;
1205.4000;0.3972;-1.4137;
1205.7000;0.3964;-1.4137;
1206.0000;0.3972;-1.4087;
1206.3000;0.3964;-1.4137;
1206.6000;0.3948;-1.4112;
1206.9000;0.3989;-1.3988;
1207.2000;0.3980;-1.4037;
1207.5000;0.3948;-1.4137;
1207.8000;0.3980;-1.4062;
1208.1000;0.3964;-1.4137;
1208.4000;0.3980;-1.4062;
1208.7000;0.3997;-1.3963;
1209.0000;0.3972;-1.4013;
1209.3000;0.3980;-1.3888;
1209.6000;0.3980;-1.3863;
1209.9000;0.3956;-1.4013;
1210.2000;0.3964;-1.3963;
1210.5000;0.3989;-1.3963;
1210.8000;0.3989;-1.3913;
1211.1000;0.3997;-1.3788;
1211.4000;0.3972;-1.3963;
1211.7000;0.3972;-1.3988;
1212.0000;0.3980;-1.3963;
1212.3000;0.3972;-1.3863;
1212.6000;0.3972;-1.3888;
1212.9000;0.3964;-1.3913;
1213.2000;0.3972;-1.3938;
1213.5000;0.3980;-1.4037;
1213.8000;0.3989;-1.3938;
1214.1000;0.3972;-1.3963;
1214.4000;0.3972;-1.4013;
1214.7000;0.3989;-1.3988;
1215.0000;0.3980;-1.3913;
1215.3000;0.3997;-1.3988;
1215.6000;0.3915;-1.4212;
1215.9000;0.3964;-1.4187;
1216.2000;0.3980;-1.4087;
1216.5000;0.3972;-1.4162;
1216.8000;0.3956;-1.4187;
1217.1000;0.3980;-1.4212;
1217.4000;0.3972;-1.4287;
1217.7000;0.3972;-1.4262;
1218.0000;0.3948;-1.4262;
1218.3000;0.3989;-1.4112;
1218.6000;0.3972;-1.4137;
1218.9000;0.3997;-1.4062;
1219.2000;0.3972;-1.4162;
1219.5000;0.3964;-1.4162;
1219.8000;0.3980;-1.4212;
1220.1000;0.3980;-1.4262;
1220.4000;0.3972;-1.4287;
1220.7000;0.3964;-1.4262;
1221.0000;0.3972;-1.4187;
1221.3000;0.3972;-1.4262;
1221.6000;0.3972;-1.4362;
1221.9000;0.3948;-1.4362;
1222.2000;0.3956;-1.4162;
1222.5000;0.3980;-1.4137;
1222.8000;0.4013;-1.4112;
1223.1000;0.3964;-1.4137;
1223.4000;0.3989;-1.4062;
1223.7000;0.3932;-1.4187;
1224.0000;0.3997;-1.4062;
1224.3000;0.3972;-1.4062;
1224.6000;0.3972;-1.4037;
1224.9000;0.3956;-1.4112;
1225.2000;0.3989;-1.3963;
1225.5000;0.3989;-1.4013;
1225.8000;0.3980;-1.4013;
1226.1000;0.3980;-1.3988;
1226.4000;0.3956;-1.4062;
1226.7000;0.3972;-1.3963;
1227.0000;0.3972;-1.3963;
1227.3000;0.3980;-1.4013;
1227.6000;0.3956;-1.4137;
1227.9000;0.3964;-1.4137;
1228.2000;0.3980;-1.4062;
1228.5000;0.4005;-1.4013;
1228.8000;0.4062;-1.3863;
1229.1000;0.3964;-1.4112;
1229.4000;0.3972;-1.4137;
1229.7000;0.3980;-1.4112;
1230.0000;0.3989;-1.4112;
1230.3000;0.3989;-1.4062;
1230.6000;0.3972;-1.4112;
1230.9000;0.3997;-1.3963;
1231.2000;0.3980;-1.3963;
1231.5000;0.3972;-1.4013;
1231.8000;0.3972;-1.4187;
1232.1000;0.3948;-1.4187;
1232.4000;0.3997;-1.4137;
1232.7000;0.3940;-1.4287;
1233.0000;0.3972;-1.4162;
1233.3000;0.3980;-1.4112;
1233.6000;0.3956;-1.4112;
1233.9000;0.3972;-1.4037;
1234.2000;0.3980;-1.4087;
1234.5000;0.3980;-1.4112;
1234.8000;0.3948;-1.4162;
1235.1000;0.3940;-1.4162;
1235.4000;0.3989;-1.4112;
1235.7000;0.3980;-1.4112;
1236.0000;0.3972;-1.4187;
1236.3000;0.4013;-1.4112;
1236.6000;0.4086;-1.3938;
1236.9000;0.3989;-1.4162;
1237.2000;0.3956;-1.4137;
1237.5000;0.3972;-1.4087;
1237.8000;0.3980;-1.4162;
1238.1000;0.3972;-1.4262;
1238.4000;0.3980;-1.4337;
1238.7000;0.3997;-1.4237;
1239.0000;0.3989;-1.4212;
1239.3000;0.3989;-1.4287;
1239.6000;0.3964;-1.4262;
1239.9000;0.3980;-1.4212;
1240.2000;0.4013;-1.4137;
1240.5000;0.3972;-1.4262;
1240.8000;0.3980;-1.4187;
1241.1000;0.3972;-1.4212;
1241.4000;0.3972;-1.4162;
1241.7000;0.3980;-1.4112;
1242.0000;0.3956;-1.4062;
1242.3000;0.3980;-1.3988;
1242.6000;0.3964;-1.3963;
1242.9000;0.3972;-1.4013;
1243.2000;0.3989;-1.4037;
1243.5000;0.3956;-1.4112;
1243.8000;0.4005;-1.4013;
1244.1000;0.3940;-1.4062;
1244.4000;0.3972;-1.4062;
1244.7000;0.3964;-1.4087;
1245.0000;0.3989;-1.4112;
1245.3000;0.3972;-1.4112;
1245.6000;0.3980;-1.4187;
1245.9000;0.4062;-1.3913;
1246.2000;0.3948;-1.4137;
1246.5000;0.3956;-1.4162;
1246.8000;0.3940;-1.4187;
1247.1000;0.3956;-1.4137;
1247.4000;0.3997;-1.4087;
1247.7000;0.3980;-1.4162;
1248.0000;0.3980;-1.4237;
1248.3000;0.3972;-1.4162;
1248.6000;0.3980;-1.4237;
1248.9000;0.4013;-1.4162;
1249.2000;0.3980;-1.4237;
1249.5000;0.3956;-1.4212;
1249.8000;0.3915;-1.4262;
1250.1000;0.3972;-1.4162;
1250.4000;0.3956;-1.4112;
1250.7000;0.3989;-1.4037;
1251.0000;0.3997;-1.3913;
1251.3000;0.3956;-1.4013;
1251.6000;0.3940;-1.4037;
1251.9000;0.3997;-1.3938;
1252.2000;0.3980;-1.3963;
1252.5000;0.3980;-1.3938;
1252.8000;0.3915;-1.4087;
1253.1000;0.3972;-1.3963;
1253.4000;0.3972;-1.3963;
1253.7000;0.3956;-1.4087;
1254.0000;0.3980;-1.3988;
1254.3000;0.3972;-1.4037;
1254.6000;0.4005;-1.3913;
1254.9000;0.3997;-1.3938;
1255.2000;0.3980;-1.3938;
1255.5000;0.3956;-1.3988;
1255.8000;0.3964;-1.3938;
1256.1000;0.3989;-1.3913;
1256.4000;0.3980;-1.4037;
1256.7000;0.4021;-1.3963;
1257.0000;0.4037;-1.3888;
1257.3000;0.3980;-1.4087;
1257.6000;0.3956;-1.4013;
1257.9000;0.3989;-1.3888;
1258.2000;0.3989;-1.3888;
1258.5000;0.3956;-1.4037;
1258.8000;0.3980;-1.4037;
1259.1000;0.4062;-1.3788;
1259.4000;0.3980;-1.4013;
1259.7000;0.3989;-1.3963;
1260.0000;0.3997;-1.3888;
1260.3000;0.3972;-1.3838;
1260.6000;0.3972;-1.3888;
1260.9000;0.3980;-1.3963;
1261.2000;0.3980;-1.4087;
1261.5000;0.3980;-1.4137;
1261.8000;0.3989;-1.4187;
1262.1000;0.4013;-1.4062;
1262.4000;0.3989;-1.4137;
1262.7000;0.3980;-1.4112;
1263.0000;0.3980;-1.4013;
1263.3000;0.3972;-1.4013;
1263.6000;0.3980;-1.3938;
1263.9000;0.3948;-1.3938;
1264.2000;0.3972;-1.3938;
1264.5000;0.3972;-1.3838;
1264.8000;0.3972;-1.3838;
1265.1000;0.4005;-1.3813;
1265.4000;0.3972;-1.3913;
1265.7000;0.3980;-1.3913;
1266.0000;0.4005;-1.3838;
1266.3000;0.3980;-1.3988;
1266.6000;0.3972;-1.3988;
1266.9000;0.3989;-1.4062;
1267.2000;0.3972;-1.4087;
1267.5000;0.3972;-1.3988;
1267.8000;0.3964;-1.4087;
1268.1000;0.3972;-1.4037;
1268.4000;0.4013;-1.3963;
1268.7000;0.3989;-1.3888;
1269.0000;0.3964;-1.3888;
1269.3000;0.3997;-1.3788;
1269.6000;0.3972;-1.3838;
1269.9000;0.4005;-1.3788;
1270.2000;0.3972;-1.3813;
1270.5000;0.3972;-1.3963;
1270.8000;0.3980;-1.3963;
1271.1000;0.3980;-1.3963;
1271.4000;0.3956;-1.4013;
1271.7000;0.3964;-1.4087;
1272.0000;0.4005;-1.4087;
1272.3000;0.4013;-1.4037;
1272.6000;0.4054;-1.3913;
1272.9000;0.3972;-1.4087;
1273.2000;0.3972;-1.4187;
1273.5000;0.4021;-1.4087;
1273.8000;0.3980;-1.4137;
1274.1000;0.3972;-1.4337;
1274.4000;0.3980;-1.4337;
1274.7000;0.3980;-1.4312;
1275.0000;0.3997;-1.4312;
1275.3000;0.3956;-1.4362;
1275.6000;0.3980;-1.4312;
1275.9000;0.3980;-1.4337;
1276.2000;0.3997;-1.4411;
1276.5000;0.3964;-1.4461;
1276.8000;0.3923;-1.4486;
1277.1000;0.3997;-1.4312;
1277.4000;0.3989;-1.4262;
1277.7000;0.3980;-1.4237;
1278.0000;0.3956;-1.4337;
1278.3000;0.3940;-1.4312;
1278.6000;0.4037;-1.4062;
1278.9000;0.3972;-1.4062;
1279.2000;0.3980;-1.3988;
1279.5000;0.3980;-1.3913;
1279.8000;0.3980;-1.3813;
1280.1000;0.3948;-1.3888;
1280.4000;0.3980;-1.3863;
1280.7000;0.3989;-1.3863;
1281.0000;0.3948;-1.3888;
1281.3000;0.4054;-1.3614;
1281.6000;0.3997;-1.3713;
1281.9000;0.3915;-1.3913;
1282.2000;0.3972;-1.3763;
1282.5000;0.3989;-1.3763;
1282.8000;0.3980;-1.3788;
1283.1000;0.3964;-1.3888;
1283.4000;0.3972;-1.3813;
1283.7000;0.3972;-1.3888;
1284.0000;0.3948;-1.3963;
1284.3000;0.3972;-1.3888;
1284.6000;0.3980;-1.3838;
1284.9000;0.3980;-1.3763;
1285.2000;0.3972;-1.3888;
1285.5000;0.3989;-1.3938;
1285.8000;0.3980;-1.3963;
1286.1000;0.3989;-1.3863;
1286.4000;0.3989;-1.3813;
1286.7000;0.3989;-1.3913;
1287.0000;0.3964;-1.3938;
1287.3000;0.3997;-1.3888;
1287.6000;0.3989;-1.3863;
1287.9000;0.3948;-1.3938;
1288.2000;0.3972;-1.4013;
1288.5000;0.3972;-1.3988;
1288.8000;0.3956;-1.3913;
1289.1000;0.3989;-1.3913;
1289.4000;0.3980;-1.4087;
1289.7000;0.3964;-1.4262;
1290.0000;0.4005;-1.4162;
1290.3000;0.3989;-1.4137;
1290.6000;0.3989;-1.4112;
1290.9000;0.4005;-1.4013;
1291.2000;0.3980;-1.4013;
1291.5000;0.3989;-1.4013;
1291.8000;0.4013;-1.3938;
1292.1000;0.3997;-1.3913;
1292.4000;0.3964;-1.3888;
1292.7000;0.3989;-1.3913;
1293.0000;0.3972;-1.3963;
1293.3000;0.3972;-1.4013;
1293.6000;0.3989;-1.4013;
1293.9000;0.3956;-1.4087;
1294.2000;0.3980;-1.4087;
1294.5000;0.3980;-1.4087;
1294.8000;0.3980;-1.4112;
1295.1000;0.3997;-1.4062;
1295.4000;0.4029;-1.3913;
1295.7000;0.3964;-1.3938;
1296.0000;0.3956;-1.3888;
1296.3000;0.4029;-1.3713;
1296.6000;0.3964;-1.3763;
1296.9000;0.4054;-1.3514;
1297.2000;0.3956;-1.3763;
1297.5000;0.4005;-1.3663;
1297.8000;0.3980;-1.3688;
1298.1000;0.4005;-1.3713;
1298.4000;0.3850;-1.4187;
1298.7000;0.3956;-1.4037;
1299.0000;0.3972;-1.4037;
1299.3000;0.3964;-1.4062;
1299.6000;0.3980;-1.4112;
1299.9000;0.3997;-1.4062;
1300.2000;0.3980;-1.4013;
1300.5000;0.3972;-1.3938;
1300.8000;0.3997;-1.3963;
1301.1000;0.3997;-1.3988;
1301.4000;0.3989;-1.3988;
1301.7000;0.3980;-1.4062;
1302.0000;0.4005;-1.3988;
1302.3000;0.3972;-1.4062;
1302.6000;0.3972;-1.4087;
1302.9000;0.3956;-1.4037;
1303.2000;0.4037;-1.3813;
1303.5000;0.3972;-1.3988;
1303.8000;0.3989;-1.4037;
1304.1000;0.3972;-1.4062;
1304.4000;0.3980;-1.4062;
1304.7000;0.3972;-1.4013;
1305.0000;0.3940;-1.4062;
1305.3000;0.4046;-1.3763;
1305.6000;0.3980;-1.3938;
1305.9000;0.3997;-1.3988;
1306.2000;0.3980;-1.3913;
1306.5000;0.3989;-1.3863;
1306.8000;0.4005;-1.3838;
1307.1000;0.3989;-1.3863;
1307.4000;0.3980;-1.3763;
1307.7000;0.3972;-1.3788;
1308.0000;0.3980;-1.3788;
1308.3000;0.3989;-1.3888;
1308.6000;0.3989;-1.3888;
1308.9000;0.3948;-1.4087;
1309.2000;0.3964;-1.4087;
1309.5000;0.3972;-1.4112;
1309.8000;0.3972;-1.4162;
1310.1000;0.3980;-1.4237;
1310.4000;0.4005;-1.4312;
1310.7000;0.3899;-1.4536;
1311.0000;0.3980;-1.4262;
1311.3000;0.3964;-1.4312;
1311.6000;0.3972;-1.4212;
1311.9000;0.3972;-1.4162;
1312.2000;0.3972;-1.4037;
1312.5000;0.3980;-1.4087;
1312.8000;0.3972;-1.4037;
1313.1000;0.3980;-1.4062;
1313.4000;0.3980;-1.4037;
1313.7000;0.3964;-1.4037;
1314.0000;0.3972;-1.4013;
1314.3000;0.3964;-1.3963;
1314.6000;0.3972;-1.3838;
1314.9000;0.3964;-1.3888;
1315.2000;0.3972;-1.3913;
1315.5000;0.3964;-1.3988;
1315.8000;0.3956;-1.4013;
1316.1000;0.3989;-1.3888;
1316.4000;0.3972;-1.3863;
1316.7000;0.4021;-1.3763;
1317.0000;0.4005;-1.3813;
1317.3000;0.4005;-1.3863;
1317.6000;0.3989;-1.3863;
1317.9000;0.4094;-1.3589;
1318.2000;0.3972;-1.3838;
1318.5000;0.3980;-1.3913;
1318.8000;0.3980;-1.3938;
1319.1000;0.3964;-1.4087;
1319.4000;0.3972;-1.4137;
1319.7000;0.3989;-1.4112;
1320.0000;0.3989;-1.4087;
1320.3000;0.3989;-1.4087;
1320.6000;0.3980;-1.4112;
1320.9000;0.4062;-1.3913;
1321.2000;0.3972;-1.4062;
1321.5000;0.3989;-1.4062;
1321.8000;0.3972;-1.4037;
1322.1000;0.3989;-1.4062;
1322.4000;0.3980;-1.4187;
1322.7000;0.3972;-1.4187;
1323.0000;0.3972;-1.4112;
1323.3000;0.3980;-1.4013;
1323.6000;0.3980;-1.4037;
1323.9000;0.3980;-1.4112;
1324.2000;0.3980;-1.4112;
1324.5000;0.3989;-1.4187;
1324.8000;0.3980;-1.4212;
1325.1000;0.4005;-1.4137;
1325.4000;0.4013;-1.4087;
1325.7000;0.3964;-1.4187;
1326.0000;0.3956;-1.4237;
1326.3000;0.3980;-1.4162;
1326.6000;0.3964;-1.4287;
1326.9000;0.3964;-1.4312;
1327.2000;0.3972;-1.4237;
1327.5000;0.3972;-1.4237;
1327.8000;0.3964;-1.4287;
1328.1000;0.3989;-1.4262;
1328.4000;0.3972;-1.4312;
1328.7000;0.3980;-1.4312;
1329.0000;0.4070;-1.4013;
1329.3000;0.3915;-1.4262;
1329.6000;0.4005;-1.3988;
1329.9000;0.3980;-1.4062;
1330.2000;0.3964;-1.4037;
1330.5000;0.3964;-1.4137;
1330.8000;0.3956;-1.4162;
1331.1000;0.3997;-1.4112;
1331.4000;0.3997;-1.4137;
1331.7000;0.3989;-1.4062;
1332.0000;0.4062;-1.3913;
1332.3000;0.3980;-1.4037;
1332.6000;0.3997;-1.4013;
1332.9000;0.3989;-1.4013;
1333.2000;0.3989;-1.3938;
1333.5000;0.3989;-1.3863;
1333.8000;0.4005;-1.3813;
1334.1000;0.4005;-1.3938;
1334.4000;0.3972;-1.4037;
1334.7000;0.3989;-1.4087;
1335.0000;0.3989;-1.4037;
1335.3000;0.3997;-1.4062;
1335.6000;0.3980;-1.4112;
1335.9000;0.4013;-1.4062;
1336.2000;0.4005;-1.4162;
1336.5000;0.3956;-1.4087;
1336.8000;0.3972;-1.4062;
1337.1000;0.3972;-1.4162;
1337.4000;0.3980;-1.4162;
1337.7000;0.3980;-1.4137;
1338.0000;0.3972;-1.4062;
1338.3000;0.3964;-1.4087;
1338.6000;0.3997;-1.4062;
1338.9000;0.3964;-1.4137;
1339.2000;0.3980;-1.4187;
1339.5000;0.3956;-1.4387;
1339.8000;0.3989;-1.4262;
1340.1000;0.4005;-1.4187;
1340.4000;0.3980;-1.4187;
1340.7000;0.3980;-1.4162;
1341.0000;0.3948;-1.4262;
1341.3000;0.3989;-1.4162;
1341.6000;0.3972;-1.4212;
1341.9000;0.4029;-1.4162;
1342.2000;0.3989;-1.4262;
1342.5000;0.3997;-1.4312;
1342.8000;0.4013;-1.4337;
1343.1000;0.3980;-1.4362;
1343.4000;0.3989;-1.4237;
1343.7000;0.3956;-1.4262;
1344.0000;0.3932;-1.4312;
1344.3000;0.3980;-1.4137;
1344.6000;0.3972;-1.4137;
1344.9000;0.3989;-1.4162;
1345.2000;0.3997;-1.4162;
1345.5000;0.4094;-1.3913;
1345.8000;0.3980;-1.4137;
1346.1000;0.4029;-1.4087;
1346.4000;0.3989;-1.4287;
1346.7000;0.3980;-1.4287;
1347.0000;0.3948;-1.4262;
1347.3000;0.3972;-1.4187;
1347.6000;0.3980;-1.4212;
1347.9000;0.3989;-1.4237;
1348.2000;0.3989;-1.4237;
1348.5000;0.3972;-1.4262;
1348.8000;0.3972;-1.4287;
1349.1000;0.3956;-1.4362;
1349.4000;0.3972;-1.4287;
1349.7000;0.3948;-1.4337;
1350.0000;0.3956;-1.4287;
1350.3000;0.3932;-1.4337;
1350.6000;0.4029;-1.4062;
1350.9000;0.3972;-1.4287;
1351.2000;0.4029;-1.4112;
1351.5000;0.3964;-1.4262;
1351.8000;0.3972;-1.4187;
1352.1000;0.3964;-1.4262;
1352.4000;0.3989;-1.4187;
1352.7000;0.4005;-1.4112;
1353.0000;0.3972;-1.4287;
1353.3000;0.3980;-1.4287;
1353.6000;0.3989;-1.4212;
1353.9000;0.3980;-1.4212;
1354.2000;0.3989;-1.4312;
1354.5000;0.4013;-1.4387;
1354.8000;0.3980;-1.4436;
1355.1000;0.3980;-1.4461;
1355.4000;0.3989;-1.4362;
1355.7000;0.4046;-1.4137;
1356.0000;0.3964;-1.4411;
1356.3000;0.3989;-1.4436;
1356.6000;0.3980;-1.4536;
1356.9000;0.4062;-1.4287;
1357.2000;0.4046;-1.4387;
1357.5000;0.3972;-1.4536;
1357.8000;0.4005;-1.4486;
1358.1000;0.3899;-1.4711;
1358.4000;0.3989;-1.4561;
1358.7000;0.3932;-1.4686;
1359.0000;0.4021;-1.4387;
1359.3000;0.3989;-1.4387;
1359.6000;0.4013;-1.4411;
1359.9000;0.3940;-1.4536;
1360.2000;0.3948;-1.4461;
1360.5000;0.3989;-1.4337;
1360.8000;0.3980;-1.4387;
1361.1000;0.3989;-1.4212;
1361.4000;0.4021;-1.4062;
1361.7000;0.3997;-1.4162;
1362.0000;0.3980;-1.4162;
1362.3000;0.3980;-1.4237;
1362.6000;0.3989;-1.4237;
1362.9000;0.3964;-1.4237;
1363.2000;0.3997;-1.4112;
1363.5000;0.3997;-1.4112;
1363.8000;0.3972;-1.4237;
1364.1000;0.3980;-1.4237;
1364.4000;0.3997;-1.4237;
1364.7000;0.3980;-1.4212;
1365.0000;0.3980;-1.4187;
1365.3000;0.3972;-1.4187;
1365.6000;0.3972;-1.4212;
1365.9000;0.3932;-1.4312;
1366.2000;0.3980;-1.4162;
1366.5000;0.4005;-1.4112;
1366.8000;0.3997;-1.4087;
1367.1000;0.3980;-1.4112;
1367.4000;0.3989;-1.4112;
1367.7000;0.3997;-1.4137;
1368.0000;0.3980;-1.4137;
1368.3000;0.3989;-1.4112;
1368.6000;0.3989;-1.4062;
1368.9000;0.3980;-1.4137;
1369.2000;0.3980;-1.4237;
1369.5000;0.3997;-1.4187;
1369.8000;0.3997;-1.4187;
1370.1000;0.3997;-1.4212;
1370.4000;0.3964;-1.4187;
1370.7000;0.4005;-1.4137;
1371.0000;0.3980;-1.4212;
1371.3000;0.3972;-1.4337;
1371.6000;0.3989;-1.4337;
1371.9000;0.3964;-1.4511;
1372.2000;0.4086;-1.4262;
1372.5000;0.4037;-1.4362;
1372.8000;0.3989;-1.4436;
1373.1000;0.3980;-1.4362;
1373.4000;0.3980;-1.4337;
1373.7000;0.4021;-1.4237;
1374.0000;0.3956;-1.4436;
1374.3000;0.3875;-1.4661;
1374.6000;0.4005;-1.4212;
1374.9000;0.4005;-1.4312;
1375.2000;0.3997;-1.4337;
1375.5000;0.3980;-1.4262;
1375.8000;0.3980;-1.4262;
1376.1000;0.3997;-1.4262;
1376.4000;0.3980;-1.4362;
1376.7000;0.4005;-1.4237;
1377.0000;0.3980;-1.4411;
1377.3000;0.3964;-1.4411;
1377.6000;0.3989;-1.4362;
1377.9000;0.4037;-1.4262;
1378.2000;0.3997;-1.4312;
1378.5000;0.3989;-1.4312;
1378.8000;0.3858;-1.4761;
1379.1000;0.3956;-1.4461;
1379.4000;0.3980;-1.4362;
1379.7000;0.4005;-1.4287;
1380.0000;0.3989;-1.4237;
1380.3000;0.3972;-1.4287;
1380.6000;0.3989;-1.4262;
1380.9000;0.3964;-1.4287;
1381.2000;0.3972;-1.4287;
1381.5000;0.3997;-1.4312;
1381.8000;0.4046;-1.4137;
1382.1000;0.3964;-1.4362;
1382.4000;0.3989;-1.4362;
1382.7000;0.3989;-1.4461;
1383.0000;0.3980;-1.4561;
1383.3000;0.3980;-1.4511;
1383.6000;0.3989;-1.4486;
1383.9000;0.3972;-1.4436;
1384.2000;0.3989;-1.4486;
1384.5000;0.3997;-1.4411;
1384.8000;0.3997;-1.4461;
1385.1000;0.3989;-1.4461;
1385.4000;0.3980;-1.4486;
1385.7000;0.3964;-1.4611;
1386.0000;0.3972;-1.4611;
1386.3000;0.3980;-1.4486;
1386.6000;0.3972;-1.4486;
1386.9000;0.3980;-1.4436;
1387.2000;0.3972;-1.4461;
1387.5000;0.3972;-1.4511;
1387.8000;0.3980;-1.4436;
1388.1000;0.3972;-1.4362;
1388.4000;0.3980;-1.4362;
1388.7000;0.3989;-1.4337;
1389.0000;0.3989;-1.4461;
1389.3000;0.3980;-1.4511;
1389.6000;0.4005;-1.4461;
1389.9000;0.3989;-1.4337;
1390.2000;0.4005;-1.4262;
1390.5000;0.3997;-1.4287;
1390.8000;0.3980;-1.4337;
1391.1000;0.3989;-1.4387;
1391.4000;0.4005;-1.4411;
1391.7000;0.3980;-1.4461;
1392.0000;0.4005;-1.4411;
1392.3000;0.3980;-1.4436;
1392.6000;0.3989;-1.4337;
1392.9000;0.3997;-1.4387;
1393.2000;0.3972;-1.4461;
1393.5000;0.3980;-1.4387;
1393.8000;0.3997;-1.4337;
1394.1000;0.3980;-1.4362;
1394.4000;0.3989;-1.4337;
1394.7000;0.3989;-1.4237;
1395.0000;0.3997;-1.4187;
1395.3000;0.3948;-1.4262;
1395.6000;0.3980;-1.4187;
1395.9000;0.3980;-1.4237;
1396.2000;0.4005;-1.4262;
1396.5000;0.3997;-1.4312;
1396.8000;0.3980;-1.4287;
1397.1000;0.3964;-1.4237;
1397.4000;0.3989;-1.4212;
1397.7000;0.3980;-1.4287;
1398.0000;0.3980;-1.4262;
1398.3000;0.3989;-1.4187;
1398.6000;0.3989;-1.4262;
1398.9000;0.3997;-1.4187;
1399.2000;0.3989;-1.4262;
1399.5000;0.3972;-1.4287;
1399.8000;0.3989;-1.4287;
