time/ms;Fluo/V;P700 deltaI/I x10³;
-199.8000;0.5112;-1.2317;
-199.5000;0.5144;-1.2292;
-199.2000;0.5128;-1.2267;
-198.9000;0.5128;-1.2317;
-198.6000;0.5136;-1.2317;
-198.3000;0.5112;-1.2392;
-198.0000;0.5136;-1.2292;
-197.7000;0.5128;-1.2317;
-197.4000;0.5120;-1.2267;
-197.1000;0.5047;-1.2492;
-196.8000;0.5104;-1.2317;
-196.5000;0.5128;-1.2317;
-196.2000;0.5144;-1.2267;
-195.9000;0.5153;-1.2242;
-195.6000;0.5153;-1.2167;
-195.3000;0.5039;-1.2367;
-195.0000;0.5169;-1.2043;
-194.7000;0.5144;-1.2093;
-194.4000;0.5136;-1.2093;
-194.1000;0.5153;-1.2068;
-193.8000;0.5128;-1.2167;
-193.5000;0.5169;-1.1993;
-193.2000;0.5177;-1.2093;
-192.9000;0.5136;-1.2242;
-192.6000;0.5128;-1.2167;
-192.3000;0.5161;-1.2093;
-192.0000;0.5144;-1.2118;
-191.7000;0.5169;-1.1993;
-191.4000;0.5128;-1.2093;
-191.1000;0.5128;-1.1943;
-190.8000;0.5136;-1.1918;
-190.5000;0.5079;-1.2068;
-190.2000;0.5112;-1.2068;
-189.9000;0.5144;-1.2043;
-189.6000;0.5120;-1.2093;
-189.3000;0.5136;-1.2093;
-189.0000;0.5088;-1.2167;
-188.7000;0.5153;-1.1993;
-188.4000;0.5136;-1.1993;
-188.1000;0.5079;-1.2143;
-187.8000;0.5136;-1.1968;
-187.5000;0.5128;-1.2068;
-187.2000;0.5144;-1.2118;
-186.9000;0.5136;-1.2192;
-186.6000;0.5128;-1.2292;
-186.3000;0.5210;-1.2068;
-186.0000;0.5120;-1.2267;
-185.7000;0.5153;-1.2217;
-185.4000;0.5104;-1.2192;
-185.1000;0.5088;-1.2192;
-184.8000;0.5136;-1.2093;
-184.5000;0.5136;-1.2093;
-184.2000;0.5144;-1.2068;
-183.9000;0.5128;-1.2118;
-183.6000;0.5153;-1.1993;
-183.3000;0.5136;-1.2018;
-183.0000;0.5161;-1.1793;
-182.7000;0.5144;-1.1868;
-182.4000;0.5136;-1.1918;
-182.1000;0.5079;-1.2143;
-181.8000;0.5144;-1.2018;
-181.5000;0.5120;-1.2043;
-181.2000;0.5144;-1.1918;
-180.9000;0.5153;-1.1968;
-180.6000;0.5144;-1.1918;
-180.3000;0.5144;-1.2018;
-180.0000;0.5153;-1.2043;
-179.7000;0.5144;-1.1993;
-179.4000;0.5104;-1.1993;
-179.1000;0.5169;-1.1868;
-178.8000;0.5128;-1.1968;
-178.5000;0.5128;-1.1968;
-178.2000;0.5079;-1.2093;
-177.9000;0.5136;-1.1993;
-177.6000;0.5128;-1.2068;
-177.3000;0.5088;-1.2068;
-177.0000;0.5161;-1.1843;
-176.7000;0.5144;-1.2018;
-176.4000;0.5136;-1.2043;
-176.1000;0.5169;-1.1918;
-175.8000;0.5104;-1.2043;
-175.5000;0.5144;-1.1968;
-175.2000;0.5144;-1.1993;
-174.9000;0.5120;-1.2043;
-174.6000;0.5128;-1.1918;
-174.3000;0.5128;-1.1893;
-174.0000;0.5128;-1.1818;
-173.7000;0.5112;-1.1968;
-173.4000;0.5104;-1.1993;
-173.1000;0.5136;-1.1943;
-172.8000;0.5136;-1.1943;
-172.5000;0.5112;-1.2018;
-172.2000;0.5177;-1.1943;
-171.9000;0.5136;-1.1968;
-171.6000;0.5136;-1.2018;
-171.3000;0.5201;-1.1793;
-171.0000;0.5128;-1.1968;
-170.7000;0.5144;-1.1993;
-170.4000;0.5153;-1.1993;
-170.1000;0.5169;-1.1968;
-169.8000;0.5153;-1.1993;
-169.5000;0.5153;-1.1968;
-169.2000;0.5128;-1.2068;
-168.9000;0.5136;-1.2093;
-168.6000;0.5120;-1.2143;
-168.3000;0.5128;-1.2093;
-168.0000;0.5136;-1.2093;
-167.7000;0.5112;-1.2118;
-167.4000;0.5104;-1.2093;
-167.1000;0.5169;-1.1918;
-166.8000;0.5136;-1.1943;
-166.5000;0.5120;-1.1968;
-166.2000;0.5201;-1.1793;
-165.9000;0.5185;-1.1893;
-165.6000;0.5144;-1.1943;
-165.3000;0.5169;-1.1893;
-165.0000;0.5144;-1.2068;
-164.7000;0.5144;-1.2068;
-164.4000;0.5169;-1.2018;
-164.1000;0.5210;-1.1968;
-163.8000;0.5128;-1.2143;
-163.5000;0.5144;-1.2068;
-163.2000;0.5128;-1.2242;
-162.9000;0.5153;-1.2217;
-162.6000;0.5161;-1.2242;
-162.3000;0.5136;-1.2267;
-162.0000;0.5161;-1.2192;
-161.7000;0.5136;-1.2118;
-161.4000;0.5136;-1.2068;
-161.1000;0.5112;-1.2068;
-160.8000;0.5136;-1.1918;
-160.5000;0.5136;-1.1868;
-160.2000;0.5144;-1.1968;
-159.9000;0.5136;-1.1968;
-159.6000;0.5128;-1.1993;
-159.3000;0.5153;-1.2018;
-159.0000;0.5153;-1.1993;
-158.7000;0.5144;-1.2018;
-158.4000;0.5112;-1.2267;
-158.1000;0.5169;-1.2143;
-157.8000;0.5136;-1.2217;
-157.5000;0.5144;-1.2242;
-157.2000;0.5144;-1.2267;
-156.9000;0.5112;-1.2342;
-156.6000;0.5088;-1.2392;
-156.3000;0.5144;-1.2167;
-156.0000;0.5120;-1.2267;
-155.7000;0.5136;-1.2267;
-155.4000;0.5063;-1.2342;
-155.1000;0.5128;-1.2167;
-154.8000;0.5153;-1.2143;
-154.5000;0.5144;-1.2143;
-154.2000;0.5120;-1.2267;
-153.9000;0.5153;-1.2192;
-153.6000;0.5144;-1.2292;
-153.3000;0.5128;-1.2392;
-153.0000;0.5144;-1.2417;
-152.7000;0.5136;-1.2442;
-152.4000;0.5144;-1.2367;
-152.1000;0.5136;-1.2292;
-151.8000;0.5120;-1.2317;
-151.5000;0.5120;-1.2342;
-151.2000;0.5144;-1.2217;
-150.9000;0.5112;-1.2217;
-150.6000;0.5112;-1.2167;
-150.3000;0.5144;-1.2143;
-150.0000;0.5120;-1.2192;
-149.7000;0.5136;-1.2167;
-149.4000;0.5136;-1.2167;
-149.1000;0.5210;-1.1943;
-148.8000;0.5153;-1.2118;
-148.5000;0.5144;-1.2093;
-148.2000;0.5144;-1.2167;
-147.9000;0.5112;-1.2242;
-147.6000;0.5177;-1.2093;
-147.3000;0.5144;-1.2093;
-147.0000;0.5193;-1.1968;
-146.7000;0.5096;-1.2267;
-146.4000;0.5128;-1.2118;
-146.1000;0.5161;-1.2018;
-145.8000;0.5136;-1.2143;
-145.5000;0.5128;-1.2143;
-145.2000;0.5128;-1.2118;
-144.9000;0.5136;-1.2093;
-144.6000;0.5063;-1.2317;
-144.3000;0.5153;-1.2292;
-144.0000;0.5185;-1.2317;
-143.7000;0.5218;-1.2118;
-143.4000;0.5128;-1.2292;
-143.1000;0.5112;-1.2392;
-142.8000;0.5144;-1.2317;
-142.5000;0.5169;-1.2292;
-142.2000;0.5144;-1.2392;
-141.9000;0.5096;-1.2467;
-141.6000;0.5153;-1.2417;
-141.3000;0.5144;-1.2442;
-141.0000;0.5120;-1.2317;
-140.7000;0.5128;-1.2267;
-140.4000;0.5185;-1.2093;
-140.1000;0.5136;-1.2242;
-139.8000;0.5144;-1.2217;
-139.5000;0.5169;-1.2118;
-139.2000;0.5136;-1.2192;
-138.9000;0.5144;-1.2267;
-138.6000;0.5136;-1.2267;
-138.3000;0.5136;-1.2167;
-138.0000;0.5136;-1.2192;
-137.7000;0.5144;-1.2217;
-137.4000;0.5144;-1.2192;
-137.1000;0.5153;-1.2118;
-136.8000;0.5144;-1.2167;
-136.5000;0.5136;-1.2242;
-136.2000;0.5169;-1.2118;
-135.9000;0.5128;-1.2167;
-135.6000;0.5136;-1.2093;
-135.3000;0.5210;-1.1843;
-135.0000;0.5136;-1.2093;
-134.7000;0.5144;-1.2068;
-134.4000;0.5161;-1.2068;
-134.1000;0.5136;-1.2192;
-133.8000;0.5153;-1.2192;
-133.5000;0.5136;-1.2192;
-133.2000;0.5169;-1.2167;
-132.9000;0.5153;-1.2242;
-132.6000;0.5136;-1.2292;
-132.3000;0.5161;-1.2217;
-132.0000;0.5136;-1.2292;
-131.7000;0.5128;-1.2267;
-131.4000;0.5112;-1.2317;
-131.1000;0.5112;-1.2367;
-130.8000;0.5136;-1.2267;
-130.5000;0.5136;-1.2217;
-130.2000;0.5177;-1.2093;
-129.9000;0.5136;-1.2217;
-129.6000;0.5144;-1.2167;
-129.3000;0.5153;-1.2143;
-129.0000;0.5210;-1.2018;
-128.7000;0.5128;-1.2143;
-128.4000;0.5153;-1.1993;
-128.1000;0.5136;-1.2093;
-127.8000;0.5120;-1.2167;
-127.5000;0.5128;-1.2167;
-127.2000;0.5136;-1.2143;
-126.9000;0.5144;-1.2217;
-126.6000;0.5120;-1.2217;
-126.3000;0.5153;-1.2192;
-126.0000;0.5136;-1.2192;
-125.7000;0.5161;-1.2167;
-125.4000;0.5153;-1.2217;
-125.1000;0.5144;-1.2167;
-124.8000;0.5136;-1.2217;
-124.5000;0.5128;-1.2192;
-124.2000;0.5136;-1.2217;
-123.9000;0.5144;-1.2317;
-123.6000;0.5128;-1.2342;
-123.3000;0.5144;-1.2392;
-123.0000;0.5169;-1.2367;
-122.7000;0.5128;-1.2392;
-122.4000;0.5144;-1.2342;
-122.1000;0.5153;-1.2342;
-121.8000;0.5144;-1.2367;
-121.5000;0.5136;-1.2342;
-121.2000;0.5031;-1.2566;
-120.9000;0.5120;-1.2317;
-120.6000;0.5161;-1.2242;
-120.3000;0.5136;-1.2317;
-120.0000;0.5120;-1.2342;
-119.7000;0.5177;-1.2242;
-119.4000;0.5104;-1.2367;
-119.1000;0.5120;-1.2292;
-118.8000;0.5128;-1.2267;
-118.5000;0.5112;-1.2292;
-118.2000;0.5128;-1.2267;
-117.9000;0.5128;-1.2292;
-117.6000;0.5128;-1.2267;
-117.3000;0.5120;-1.2242;
-117.0000;0.5112;-1.2242;
-116.7000;0.5088;-1.2292;
-116.4000;0.5144;-1.2167;
-116.1000;0.5112;-1.2267;
-115.8000;0.5120;-1.2217;
-115.5000;0.5136;-1.2118;
-115.2000;0.5128;-1.2068;
-114.9000;0.5136;-1.2093;
-114.6000;0.5128;-1.2093;
-114.3000;0.5088;-1.2068;
-114.0000;0.5193;-1.1793;
-113.7000;0.5120;-1.2043;
-113.4000;0.5136;-1.2068;
-113.1000;0.5128;-1.2217;
-112.8000;0.5136;-1.2267;
-112.5000;0.5136;-1.2217;
-112.2000;0.5096;-1.2292;
-111.9000;0.5136;-1.2167;
-111.6000;0.5112;-1.2192;
-111.3000;0.5112;-1.2292;
-111.0000;0.5128;-1.2192;
-110.7000;0.5120;-1.2167;
-110.4000;0.5144;-1.2093;
-110.1000;0.5128;-1.2118;
-109.8000;0.5128;-1.2093;
-109.5000;0.5136;-1.2118;
-109.2000;0.5104;-1.2242;
-108.9000;0.5153;-1.2167;
-108.6000;0.5128;-1.2143;
-108.3000;0.5136;-1.2118;
-108.0000;0.5128;-1.2167;
-107.7000;0.5128;-1.2118;
-107.4000;0.5136;-1.2093;
-107.1000;0.5112;-1.2192;
-106.8000;0.5144;-1.2167;
-106.5000;0.5104;-1.2267;
-106.2000;0.5128;-1.2217;
-105.9000;0.5136;-1.2217;
-105.6000;0.5144;-1.2192;
-105.3000;0.5128;-1.2143;
-105.0000;0.5112;-1.2217;
-104.7000;0.5112;-1.2217;
-104.4000;0.5144;-1.2043;
-104.1000;0.5153;-1.1943;
-103.8000;0.5112;-1.2043;
-103.5000;0.5120;-1.2018;
-103.2000;0.5120;-1.2093;
-102.9000;0.5201;-1.1793;
-102.6000;0.5153;-1.1968;
-102.3000;0.5144;-1.2118;
-102.0000;0.5136;-1.2167;
-101.7000;0.5144;-1.2192;
-101.4000;0.5153;-1.2267;
-101.1000;0.5136;-1.2242;
-100.8000;0.5136;-1.2192;
-100.5000;0.5136;-1.2143;
-100.2000;0.5144;-1.2118;
-99.9000;0.5144;-1.2118;
-99.6000;0.5120;-1.2143;
-99.3000;0.5153;-1.2018;
-99.0000;0.5136;-1.2068;
-98.7000;0.5185;-1.1968;
-98.4000;0.5144;-1.2167;
-98.1000;0.5144;-1.2093;
-97.8000;0.5112;-1.2192;
-97.5000;0.5136;-1.2167;
-97.2000;0.5120;-1.2118;
-96.9000;0.5144;-1.2043;
-96.6000;0.5136;-1.2043;
-96.3000;0.5144;-1.2018;
-96.0000;0.5153;-1.2018;
-95.7000;0.5088;-1.2192;
-95.4000;0.5136;-1.2043;
-95.1000;0.5128;-1.2118;
-94.8000;0.5112;-1.2167;
-94.5000;0.5128;-1.2068;
-94.2000;0.5079;-1.2167;
-93.9000;0.5128;-1.2018;
-93.6000;0.5128;-1.2043;
-93.3000;0.5128;-1.2068;
-93.0000;0.5136;-1.2143;
-92.7000;0.5144;-1.2143;
-92.4000;0.5153;-1.2143;
-92.1000;0.5128;-1.2192;
-91.8000;0.5128;-1.2118;
-91.5000;0.5161;-1.2018;
-91.2000;0.5153;-1.1943;
-90.9000;0.5128;-1.1968;
-90.6000;0.5136;-1.2043;
-90.3000;0.5096;-1.2143;
-90.0000;0.5169;-1.1968;
-89.7000;0.5144;-1.2093;
-89.4000;0.5128;-1.2118;
-89.1000;0.5136;-1.2068;
-88.8000;0.5136;-1.2143;
-88.5000;0.5153;-1.2167;
-88.2000;0.5177;-1.2043;
-87.9000;0.5136;-1.2093;
-87.6000;0.5144;-1.1993;
-87.3000;0.5144;-1.1918;
-87.0000;0.5153;-1.1918;
-86.7000;0.5153;-1.1968;
-86.4000;0.5161;-1.1993;
-86.1000;0.5144;-1.1993;
-85.8000;0.5153;-1.1993;
-85.5000;0.5136;-1.2093;
-85.2000;0.5136;-1.2118;
-84.9000;0.5136;-1.1993;
-84.6000;0.5128;-1.2068;
-84.3000;0.5128;-1.2043;
-84.0000;0.5201;-1.1893;
-83.7000;0.5161;-1.1993;
-83.4000;0.5136;-1.2068;
-83.1000;0.5136;-1.2043;
-82.8000;0.5128;-1.2068;
-82.5000;0.5144;-1.1968;
-82.2000;0.5218;-1.1793;
-81.9000;0.5136;-1.2093;
-81.6000;0.5096;-1.2217;
-81.3000;0.5120;-1.2217;
-81.0000;0.5136;-1.2242;
-80.7000;0.5136;-1.2118;
-80.4000;0.5136;-1.2118;
-80.1000;0.5128;-1.2167;
-79.8000;0.5144;-1.2043;
-79.5000;0.5161;-1.2068;
-79.2000;0.5136;-1.2242;
-78.9000;0.5128;-1.2167;
-78.6000;0.5128;-1.2167;
-78.3000;0.5120;-1.2118;
-78.0000;0.5128;-1.2167;
-77.7000;0.5136;-1.2143;
-77.4000;0.5136;-1.2217;
-77.1000;0.5144;-1.2217;
-76.8000;0.5136;-1.2167;
-76.5000;0.5128;-1.2217;
-76.2000;0.5128;-1.2118;
-75.9000;0.5169;-1.2068;
-75.6000;0.5128;-1.2217;
-75.3000;0.5128;-1.2192;
-75.0000;0.5112;-1.2143;
-74.7000;0.5169;-1.1943;
-74.4000;0.5128;-1.2093;
-74.1000;0.5128;-1.2167;
-73.8000;0.5144;-1.2167;
-73.5000;0.5128;-1.2217;
-73.2000;0.5136;-1.2217;
-72.9000;0.5144;-1.2192;
-72.6000;0.5112;-1.2317;
-72.3000;0.5136;-1.2292;
-72.0000;0.5079;-1.2492;
-71.7000;0.5177;-1.2217;
-71.4000;0.5128;-1.2242;
-71.1000;0.5144;-1.2167;
-70.8000;0.5193;-1.2143;
-70.5000;0.5144;-1.2267;
-70.2000;0.5120;-1.2317;
-69.9000;0.5136;-1.2342;
-69.6000;0.5153;-1.2093;
-69.3000;0.5120;-1.2093;
-69.0000;0.5112;-1.2143;
-68.7000;0.5144;-1.2068;
-68.4000;0.5104;-1.2267;
-68.1000;0.5153;-1.2043;
-67.8000;0.5112;-1.2167;
-67.5000;0.5136;-1.2143;
-67.2000;0.5128;-1.2093;
-66.9000;0.5185;-1.1993;
-66.6000;0.5136;-1.2167;
-66.3000;0.5136;-1.2167;
-66.0000;0.5144;-1.2143;
-65.7000;0.5161;-1.2118;
-65.4000;0.5120;-1.2292;
-65.1000;0.5128;-1.2242;
-64.8000;0.5128;-1.2217;
-64.5000;0.5144;-1.2217;
-64.2000;0.5136;-1.2242;
-63.9000;0.5112;-1.2242;
-63.6000;0.5161;-1.2217;
-63.3000;0.5144;-1.2317;
-63.0000;0.5144;-1.2292;
-62.7000;0.5144;-1.2367;
-62.4000;0.5104;-1.2392;
-62.1000;0.5136;-1.2167;
-61.8000;0.5201;-1.1918;
-61.5000;0.5193;-1.1893;
-61.2000;0.5153;-1.1993;
-60.9000;0.5104;-1.2093;
-60.6000;0.5112;-1.2143;
-60.3000;0.5161;-1.2043;
-60.0000;0.5112;-1.2093;
-59.7000;0.5120;-1.2093;
-59.4000;0.5120;-1.2167;
-59.1000;0.5218;-1.1943;
-58.8000;0.5128;-1.2192;
-58.5000;0.5128;-1.2143;
-58.2000;0.5120;-1.2167;
-57.9000;0.5136;-1.2043;
-57.6000;0.5120;-1.2093;
-57.3000;0.5128;-1.2118;
-57.0000;0.5120;-1.2068;
-56.7000;0.5144;-1.2068;
-56.4000;0.5144;-1.2043;
-56.1000;0.5169;-1.1993;
-55.8000;0.5234;-1.1893;
-55.5000;0.5161;-1.1968;
-55.2000;0.5153;-1.2018;
-54.9000;0.5144;-1.2068;
-54.6000;0.5112;-1.2118;
-54.3000;0.5128;-1.2118;
-54.0000;0.5120;-1.2118;
-53.7000;0.5128;-1.2118;
-53.4000;0.5153;-1.2068;
-53.1000;0.5144;-1.2143;
-52.8000;0.5088;-1.2267;
-52.5000;0.5144;-1.2118;
-52.2000;0.5144;-1.2118;
-51.9000;0.5136;-1.2093;
-51.6000;0.5128;-1.2043;
-51.3000;0.5144;-1.2043;
-51.0000;0.5144;-1.2043;
-50.7000;0.5144;-1.2043;
-50.4000;0.5144;-1.2018;
-50.1000;0.5136;-1.2068;
-49.8000;0.5144;-1.2043;
-49.5000;0.5210;-1.1793;
-49.2000;0.5161;-1.1918;
-48.9000;0.5144;-1.1868;
-48.6000;0.5177;-1.1793;
-48.3000;0.5128;-1.2018;
-48.0000;0.5136;-1.2018;
-47.7000;0.5088;-1.2043;
-47.4000;0.5120;-1.1918;
-47.1000;0.5096;-1.1968;
-46.8000;0.5055;-1.2068;
-46.5000;0.5128;-1.1893;
-46.2000;0.5136;-1.1843;
-45.9000;0.5161;-1.1818;
-45.6000;0.5136;-1.1968;
-45.3000;0.5128;-1.2043;
-45.0000;0.5210;-1.1918;
-44.7000;0.5112;-1.2068;
-44.4000;0.5096;-1.2068;
-44.1000;0.5128;-1.1918;
-43.8000;0.5120;-1.1968;
-43.5000;0.5136;-1.1968;
-43.2000;0.5120;-1.1968;
-42.9000;0.5169;-1.1868;
-42.6000;0.5128;-1.1893;
-42.3000;0.5120;-1.1918;
-42.0000;0.5112;-1.1893;
-41.7000;0.5153;-1.1793;
-41.4000;0.5112;-1.1918;
-41.1000;0.5144;-1.1793;
-40.8000;0.5120;-1.1943;
-40.5000;0.5128;-1.1868;
-40.2000;0.5169;-1.1769;
-39.9000;0.5112;-1.1918;
-39.6000;0.5185;-1.1818;
-39.3000;0.5169;-1.1918;
-39.0000;0.5128;-1.2043;
-38.7000;0.5136;-1.2118;
-38.4000;0.5153;-1.1968;
-38.1000;0.5161;-1.1843;
-37.8000;0.5120;-1.1893;
-37.5000;0.5153;-1.1868;
-37.2000;0.5144;-1.2018;
-36.9000;0.5144;-1.2018;
-36.6000;0.5096;-1.2143;
-36.3000;0.5144;-1.2118;
-36.0000;0.5120;-1.2167;
-35.7000;0.5136;-1.2093;
-35.4000;0.5144;-1.2068;
-35.1000;0.5153;-1.2068;
-34.8000;0.5144;-1.2167;
-34.5000;0.5144;-1.2118;
-34.2000;0.5128;-1.2118;
-33.9000;0.5169;-1.1893;
-33.6000;0.5136;-1.1893;
-33.3000;0.5079;-1.1968;
-33.0000;0.5120;-1.1943;
-32.7000;0.5088;-1.2043;
-32.4000;0.5128;-1.2018;
-32.1000;0.5096;-1.2068;
-31.8000;0.5128;-1.2093;
-31.5000;0.5144;-1.2018;
-31.2000;0.5153;-1.2118;
-30.9000;0.5136;-1.2167;
-30.6000;0.5153;-1.2093;
-30.3000;0.5153;-1.2043;
-30.0000;0.5153;-1.1993;
-29.7000;0.5144;-1.1918;
-29.4000;0.5136;-1.2043;
-29.1000;0.5144;-1.2043;
-28.8000;0.5144;-1.2118;
-28.5000;0.5128;-1.2118;
-28.2000;0.5161;-1.2018;
-27.9000;0.5128;-1.2068;
-27.6000;0.5169;-1.2018;
-27.3000;0.5136;-1.2068;
-27.0000;0.5112;-1.2217;
-26.7000;0.5088;-1.2292;
-26.4000;0.5112;-1.2192;
-26.1000;0.5210;-1.1943;
-25.8000;0.5128;-1.2192;
-25.5000;0.5144;-1.2217;
-25.2000;0.5153;-1.2317;
-24.9000;0.5136;-1.2292;
-24.6000;0.5136;-1.2267;
-24.3000;0.5104;-1.2317;
-24.0000;0.5088;-1.2367;
-23.7000;0.5096;-1.2292;
-23.4000;0.5136;-1.2143;
-23.1000;0.5112;-1.2143;
-22.8000;0.5144;-1.2267;
-22.5000;0.5104;-1.2342;
-22.2000;0.5120;-1.2267;
-21.9000;0.5096;-1.2342;
-21.6000;0.5136;-1.2267;
-21.3000;0.5136;-1.2292;
-21.0000;0.5153;-1.2192;
-20.7000;0.5128;-1.2192;
-20.4000;0.5136;-1.2192;
-20.1000;0.5136;-1.2118;
-19.8000;0.5144;-1.2217;
-19.5000;0.5161;-1.2267;
-19.2000;0.5096;-1.2292;
-18.9000;0.5136;-1.2217;
-18.6000;0.5128;-1.2267;
-18.3000;0.5128;-1.2118;
-18.0000;0.5120;-1.2093;
-17.7000;0.5153;-1.2118;
-17.4000;0.5128;-1.2242;
-17.1000;0.5128;-1.2192;
-16.8000;0.5128;-1.2217;
-16.5000;0.5088;-1.2292;
-16.2000;0.5136;-1.2217;
-15.9000;0.5136;-1.2317;
-15.6000;0.5136;-1.2217;
-15.3000;0.5128;-1.2267;
-15.0000;0.5161;-1.2143;
-14.7000;0.5144;-1.2143;
-14.4000;0.5153;-1.2217;
-14.1000;0.5136;-1.2292;
-13.8000;0.5144;-1.2267;
-13.5000;0.5144;-1.2267;
-13.2000;0.5136;-1.2217;
-12.9000;0.5136;-1.2267;
-12.6000;0.5128;-1.2217;
-12.3000;0.5079;-1.2342;
-12.0000;0.5112;-1.2317;
-11.7000;0.5136;-1.2143;
-11.4000;0.5153;-1.2167;
-11.1000;0.5136;-1.2242;
-10.8000;0.5136;-1.2292;
-10.5000;0.5136;-1.2242;
-10.2000;0.5144;-1.2167;
-9.9000;0.5144;-1.2068;
-9.6000;0.5153;-1.2018;
-9.3000;0.5144;-1.1943;
-9.0000;0.5112;-1.2093;
-8.7000;0.5144;-1.2043;
-8.4000;0.5136;-1.2043;
-8.1000;0.5144;-1.2118;
-7.8000;0.5120;-1.2167;
-7.5000;0.5136;-1.2068;
-7.2000;0.5136;-1.2018;
-6.9000;0.5153;-1.1943;
-6.6000;0.5136;-1.2018;
-6.3000;0.5120;-1.2093;
-6.0000;0.5234;-1.1793;
-5.7000;0.5112;-1.2143;
-5.4000;0.5136;-1.2068;
-5.1000;0.5136;-1.2018;
-4.8000;0.5128;-1.2143;
-4.5000;0.5144;-1.2118;
-4.2000;0.5112;-1.2167;
-3.9000;0.5128;-1.2143;
-3.6000;0.5169;-1.2018;
-3.3000;0.5144;-1.2043;
-3.0000;0.5144;-1.2118;
-2.7000;0.5104;-1.2093;
-2.4000;0.5144;-1.2043;
-2.1000;0.5128;-1.2143;
-1.8000;0.5128;-1.2242;
-1.5000;0.5169;-1.2118;
-1.2000;0.5112;-1.2167;
-0.9000;0.5120;-1.2118;
-0.6000;0.5047;-1.2242;
-0.3000;0.5104;-1.2118;
0.0000;0.5104;-1.2118;
0.3000;0.5267;-1.2118;
0.6000;0.5698;-1.1444;
0.9000;0.5991;-1.1070;
1.2000;0.6219;-1.0796;
1.5000;0.6390;-1.0472;
1.8000;0.6553;-1.0173;
2.1000;0.6642;-0.9874;
2.4000;0.6797;-0.9475;
2.7000;0.6821;-0.9400;
3.0000;0.6886;-0.9200;
3.3000;0.6984;-0.8976;
3.6000;0.7000;-0.8976;
3.9000;0.7017;-0.8976;
4.2000;0.7082;-0.8901;
4.5000;0.7131;-0.8826;
4.8000;0.7155;-0.8752;
5.1000;0.7171;-0.8677;
5.4000;0.7204;-0.8577;
5.7000;0.7236;-0.8527;
6.0000;0.7253;-0.8502;
6.3000;0.7285;-0.8552;
6.6000;0.7293;-0.8527;
6.9000;0.7326;-0.8577;
7.2000;0.7350;-0.8577;
7.5000;0.7367;-0.8602;
7.8000;0.7367;-0.8577;
8.1000;0.7407;-0.8502;
8.4000;0.7464;-0.8502;
8.7000;0.7456;-0.8577;
9.0000;0.7464;-0.8627;
9.3000;0.7497;-0.8677;
9.6000;0.7530;-0.8702;
9.9000;0.7538;-0.8752;
10.2000;0.7562;-0.8777;
10.5000;0.7578;-0.8752;
10.8000;0.7586;-0.8702;
11.1000;0.7700;-0.8403;
11.4000;0.7627;-0.8627;
11.7000;0.7676;-0.8527;
12.0000;0.7668;-0.8552;
12.3000;0.7668;-0.8602;
12.6000;0.7700;-0.8627;
12.9000;0.7692;-0.8677;
13.2000;0.7725;-0.8702;
13.5000;0.7733;-0.8677;
13.8000;0.7749;-0.8727;
14.1000;0.7749;-0.8777;
14.4000;0.7774;-0.8727;
14.7000;0.7782;-0.8677;
15.0000;0.7798;-0.8677;
15.3000;0.7798;-0.8652;
15.6000;0.7823;-0.8552;
15.9000;0.7831;-0.8627;
16.2000;0.7831;-0.8652;
16.5000;0.7888;-0.8552;
16.8000;0.7855;-0.8627;
17.1000;0.7855;-0.8702;
17.4000;0.7888;-0.8627;
17.7000;0.7880;-0.8652;
18.0000;0.7888;-0.8652;
18.3000;0.7928;-0.8502;
18.6000;0.7912;-0.8502;
18.9000;0.7937;-0.8502;
19.2000;0.7961;-0.8527;
19.5000;0.7945;-0.8627;
19.8000;0.7961;-0.8502;
20.1000;0.7985;-0.8502;
20.4000;0.7945;-0.8627;
20.7000;0.8002;-0.8527;
21.0000;0.8002;-0.8502;
21.3000;0.8050;-0.8403;
21.6000;0.8010;-0.8527;
21.9000;0.8018;-0.8627;
22.2000;0.8034;-0.8702;
22.5000;0.8059;-0.8677;
22.8000;0.8050;-0.8777;
23.1000;0.8042;-0.8876;
23.4000;0.8107;-0.8677;
23.7000;0.8091;-0.8727;
24.0000;0.8067;-0.8777;
24.3000;0.8116;-0.8627;
24.6000;0.8034;-0.8801;
24.9000;0.8091;-0.8677;
25.2000;0.8075;-0.8777;
25.5000;0.8083;-0.8702;
25.8000;0.8140;-0.8602;
26.1000;0.8116;-0.8752;
26.4000;0.8124;-0.8777;
26.7000;0.8132;-0.8702;
27.0000;0.8132;-0.8677;
27.3000;0.8173;-0.8627;
27.6000;0.8140;-0.8727;
27.9000;0.8132;-0.8801;
28.2000;0.8140;-0.8851;
28.5000;0.8148;-0.8901;
28.8000;0.8156;-0.8926;
29.1000;0.8173;-0.8976;
29.4000;0.8181;-0.9001;
29.7000;0.8173;-0.9051;
30.0000;0.8197;-0.8901;
30.3000;0.8205;-0.8926;
30.6000;0.8213;-0.8801;
30.9000;0.8205;-0.8777;
31.2000;0.8205;-0.8702;
31.5000;0.8213;-0.8727;
31.8000;0.8230;-0.8752;
32.1000;0.8230;-0.8826;
32.4000;0.8246;-0.8752;
32.7000;0.8221;-0.8876;
33.0000;0.8221;-0.9026;
33.3000;0.8213;-0.9051;
33.6000;0.8230;-0.9076;
33.9000;0.8246;-0.9001;
34.2000;0.8246;-0.9076;
34.5000;0.8254;-0.9126;
34.8000;0.8254;-0.9175;
35.1000;0.8254;-0.9275;
35.4000;0.8262;-0.9225;
35.7000;0.8270;-0.9250;
36.0000;0.8262;-0.9101;
36.3000;0.8295;-0.9076;
36.6000;0.8303;-0.9026;
36.9000;0.8205;-0.9175;
37.2000;0.8287;-0.9026;
37.5000;0.8295;-0.9001;
37.8000;0.8295;-0.8951;
38.1000;0.8319;-0.8926;
38.4000;0.8287;-0.8951;
38.7000;0.8303;-0.8851;
39.0000;0.8319;-0.8777;
39.3000;0.8295;-0.8901;
39.6000;0.8319;-0.8901;
39.9000;0.8311;-0.8876;
40.2000;0.8327;-0.8826;
40.5000;0.8344;-0.8876;
40.8000;0.8287;-0.8976;
41.1000;0.8327;-0.9026;
41.4000;0.8335;-0.9076;
41.7000;0.8344;-0.9126;
42.0000;0.8335;-0.9175;
42.3000;0.8335;-0.9275;
42.6000;0.8344;-0.9250;
42.9000;0.8360;-0.9175;
43.2000;0.8409;-0.9051;
43.5000;0.8344;-0.9300;
43.8000;0.8335;-0.9225;
44.1000;0.8360;-0.9051;
44.4000;0.8368;-0.8951;
44.7000;0.8344;-0.9076;
45.0000;0.8360;-0.9126;
45.3000;0.8376;-0.9101;
45.6000;0.8376;-0.9051;
45.9000;0.8417;-0.8976;
46.2000;0.8368;-0.9101;
46.5000;0.8368;-0.9151;
46.8000;0.8392;-0.9101;
47.1000;0.8376;-0.9001;
47.4000;0.8400;-0.8976;
47.7000;0.8392;-0.9001;
48.0000;0.8392;-0.8951;
48.3000;0.8433;-0.8876;
48.6000;0.8400;-0.8976;
48.9000;0.8376;-0.9026;
49.2000;0.8400;-0.9026;
49.5000;0.8514;-0.8801;
49.8000;0.8425;-0.9001;
50.1000;0.8400;-0.9076;
50.4000;0.8425;-0.8976;
50.7000;0.8417;-0.9051;
51.0000;0.8417;-0.9051;
51.3000;0.8409;-0.9051;
51.6000;0.8466;-0.8951;
51.9000;0.8425;-0.9101;
52.2000;0.8433;-0.9126;
52.5000;0.8441;-0.9126;
52.8000;0.8425;-0.9225;
53.1000;0.8449;-0.9076;
53.4000;0.8449;-0.9126;
53.7000;0.8457;-0.9225;
54.0000;0.8441;-0.9225;
54.3000;0.8433;-0.9325;
54.6000;0.8449;-0.9275;
54.9000;0.8449;-0.9300;
55.2000;0.8457;-0.9325;
55.5000;0.8449;-0.9325;
55.8000;0.8449;-0.9275;
56.1000;0.8466;-0.9275;
56.4000;0.8466;-0.9275;
56.7000;0.8474;-0.9275;
57.0000;0.8474;-0.9375;
57.3000;0.8490;-0.9350;
57.6000;0.8449;-0.9475;
57.9000;0.8449;-0.9450;
58.2000;0.8482;-0.9400;
58.5000;0.8474;-0.9475;
58.8000;0.8490;-0.9475;
59.1000;0.8482;-0.9549;
59.4000;0.8482;-0.9500;
59.7000;0.8523;-0.9450;
60.0000;0.8498;-0.9525;
60.3000;0.8490;-0.9450;
60.6000;0.8482;-0.9375;
60.9000;0.8506;-0.9425;
61.2000;0.8531;-0.9425;
61.5000;0.8514;-0.9475;
61.8000;0.8523;-0.9475;
62.1000;0.8523;-0.9549;
62.4000;0.8514;-0.9549;
62.7000;0.8514;-0.9500;
63.0000;0.8474;-0.9599;
63.3000;0.8531;-0.9500;
63.6000;0.8506;-0.9525;
63.9000;0.8490;-0.9674;
64.2000;0.8531;-0.9674;
64.5000;0.8523;-0.9674;
64.8000;0.8523;-0.9599;
65.1000;0.8531;-0.9574;
65.4000;0.8514;-0.9599;
65.7000;0.8506;-0.9574;
66.0000;0.8514;-0.9599;
66.3000;0.8539;-0.9525;
66.6000;0.8571;-0.9450;
66.9000;0.8547;-0.9525;
67.2000;0.8604;-0.9425;
67.5000;0.8547;-0.9624;
67.8000;0.8539;-0.9549;
68.1000;0.8539;-0.9574;
68.4000;0.8547;-0.9549;
68.7000;0.8523;-0.9649;
69.0000;0.8531;-0.9674;
69.3000;0.8539;-0.9649;
69.6000;0.8531;-0.9574;
69.9000;0.8539;-0.9500;
70.2000;0.8547;-0.9500;
70.5000;0.8531;-0.9500;
70.8000;0.8571;-0.9275;
71.1000;0.8563;-0.9300;
71.4000;0.8547;-0.9375;
71.7000;0.8555;-0.9450;
72.0000;0.8571;-0.9425;
72.3000;0.8571;-0.9475;
72.6000;0.8604;-0.9425;
72.9000;0.8580;-0.9450;
73.2000;0.8596;-0.9350;
73.5000;0.8580;-0.9375;
73.8000;0.8588;-0.9475;
74.1000;0.8571;-0.9450;
74.4000;0.8588;-0.9549;
74.7000;0.8596;-0.9549;
75.0000;0.8588;-0.9525;
75.3000;0.8588;-0.9624;
75.6000;0.8596;-0.9624;
75.9000;0.8612;-0.9599;
76.2000;0.8620;-0.9574;
76.5000;0.8580;-0.9674;
76.8000;0.8596;-0.9649;
77.1000;0.8490;-0.9923;
77.4000;0.8588;-0.9799;
77.7000;0.8588;-0.9724;
78.0000;0.8588;-0.9749;
78.3000;0.8620;-0.9599;
78.6000;0.8596;-0.9674;
78.9000;0.8620;-0.9699;
79.2000;0.8604;-0.9749;
79.5000;0.8580;-0.9749;
79.8000;0.8612;-0.9674;
80.1000;0.8604;-0.9749;
80.4000;0.8588;-0.9799;
80.7000;0.8620;-0.9749;
81.0000;0.8604;-0.9774;
81.3000;0.8612;-0.9674;
81.6000;0.8604;-0.9674;
81.9000;0.8563;-0.9724;
82.2000;0.8612;-0.9574;
82.5000;0.8645;-0.9599;
82.8000;0.8588;-0.9724;
83.1000;0.8612;-0.9599;
83.4000;0.8612;-0.9699;
83.7000;0.8620;-0.9749;
84.0000;0.8637;-0.9749;
84.3000;0.8604;-0.9799;
84.6000;0.8604;-0.9649;
84.9000;0.8620;-0.9500;
85.2000;0.8612;-0.9624;
85.5000;0.8620;-0.9724;
85.8000;0.8645;-0.9649;
86.1000;0.8588;-0.9774;
86.4000;0.8645;-0.9599;
86.7000;0.8645;-0.9699;
87.0000;0.8637;-0.9699;
87.3000;0.8620;-0.9824;
87.6000;0.8637;-0.9724;
87.9000;0.8628;-0.9699;
88.2000;0.8645;-0.9724;
88.5000;0.8620;-0.9824;
88.8000;0.8661;-0.9649;
89.1000;0.8653;-0.9699;
89.4000;0.8620;-0.9774;
89.7000;0.8645;-0.9724;
90.0000;0.8661;-0.9699;
90.3000;0.8637;-0.9724;
90.6000;0.8653;-0.9749;
90.9000;0.8637;-0.9749;
91.2000;0.8612;-0.9824;
91.5000;0.8694;-0.9574;
91.8000;0.8653;-0.9699;
92.1000;0.8612;-0.9799;
92.4000;0.8661;-0.9774;
92.7000;0.8653;-0.9774;
93.0000;0.8677;-0.9749;
93.3000;0.8726;-0.9624;
93.6000;0.8661;-0.9824;
93.9000;0.8677;-0.9724;
94.2000;0.8628;-0.9799;
94.5000;0.8661;-0.9724;
94.8000;0.8677;-0.9599;
95.1000;0.8661;-0.9549;
95.4000;0.8669;-0.9500;
95.7000;0.8637;-0.9549;
96.0000;0.8653;-0.9549;
96.3000;0.8645;-0.9599;
96.6000;0.8596;-0.9749;
96.9000;0.8637;-0.9674;
97.2000;0.8604;-0.9799;
97.5000;0.8661;-0.9649;
97.8000;0.8669;-0.9599;
98.1000;0.8734;-0.9325;
98.4000;0.8661;-0.9525;
98.7000;0.8685;-0.9475;
99.0000;0.8742;-0.9300;
99.3000;0.8694;-0.9475;
99.6000;0.8677;-0.9500;
99.9000;0.8669;-0.9475;
100.2000;0.8653;-0.9549;
100.5000;0.8685;-0.9475;
100.8000;0.8694;-0.9599;
101.1000;0.8669;-0.9624;
101.4000;0.8685;-0.9574;
101.7000;0.8669;-0.9599;
102.0000;0.8685;-0.9574;
102.3000;0.8669;-0.9574;
102.6000;0.8669;-0.9674;
102.9000;0.8702;-0.9649;
103.2000;0.8669;-0.9724;
103.5000;0.8694;-0.9674;
103.8000;0.8710;-0.9599;
104.1000;0.8702;-0.9599;
104.4000;0.8791;-0.9425;
104.7000;0.8645;-0.9799;
105.0000;0.8653;-0.9849;
105.3000;0.8685;-0.9699;
105.6000;0.8685;-0.9699;
105.9000;0.8645;-0.9849;
106.2000;0.8596;-0.9973;
106.5000;0.8694;-0.9799;
106.8000;0.8645;-0.9849;
107.1000;0.8685;-0.9749;
107.4000;0.8685;-0.9824;
107.7000;0.8694;-0.9774;
108.0000;0.8694;-0.9774;
108.3000;0.8685;-0.9824;
108.6000;0.8702;-0.9849;
108.9000;0.8685;-0.9849;
109.2000;0.8677;-0.9874;
109.5000;0.8718;-0.9824;
109.8000;0.8702;-0.9923;
110.1000;0.8645;-0.9998;
110.4000;0.8685;-0.9899;
110.7000;0.8694;-0.9874;
111.0000;0.8702;-0.9874;
111.3000;0.8645;-0.9874;
111.6000;0.8694;-0.9749;
111.9000;0.8702;-0.9824;
112.2000;0.8702;-0.9799;
112.5000;0.8677;-0.9874;
112.8000;0.8694;-0.9749;
113.1000;0.8718;-0.9699;
113.4000;0.8742;-0.9724;
113.7000;0.8677;-0.9824;
114.0000;0.8710;-0.9699;
114.3000;0.8685;-0.9724;
114.6000;0.8718;-0.9699;
114.9000;0.8718;-0.9699;
115.2000;0.8718;-0.9724;
115.5000;0.8767;-0.9599;
115.8000;0.8718;-0.9824;
116.1000;0.8718;-0.9874;
116.4000;0.8685;-0.9899;
116.7000;0.8710;-0.9799;
117.0000;0.8702;-0.9749;
117.3000;0.8694;-0.9799;
117.6000;0.8710;-0.9724;
117.9000;0.8677;-0.9799;
118.2000;0.8718;-0.9674;
118.5000;0.8726;-0.9599;
118.8000;0.8718;-0.9574;
119.1000;0.8677;-0.9699;
119.4000;0.8734;-0.9649;
119.7000;0.8734;-0.9674;
120.0000;0.8694;-0.9824;
120.3000;0.8653;-0.9874;
120.6000;0.8694;-0.9749;
120.9000;0.8718;-0.9749;
121.2000;0.8759;-0.9674;
121.5000;0.8710;-0.9849;
121.8000;0.8775;-0.9724;
122.1000;0.8726;-0.9749;
122.4000;0.8694;-0.9799;
122.7000;0.8726;-0.9649;
123.0000;0.8710;-0.9749;
123.3000;0.8742;-0.9749;
123.6000;0.8734;-0.9749;
123.9000;0.8645;-0.9923;
124.2000;0.8718;-0.9674;
124.5000;0.8759;-0.9649;
124.8000;0.8734;-0.9649;
125.1000;0.8726;-0.9624;
125.4000;0.8751;-0.9475;
125.7000;0.8751;-0.9599;
126.0000;0.8653;-0.9874;
126.3000;0.8734;-0.9674;
126.6000;0.8718;-0.9624;
126.9000;0.8718;-0.9624;
127.2000;0.8751;-0.9549;
127.5000;0.8791;-0.9400;
127.8000;0.8726;-0.9549;
128.1000;0.8653;-0.9724;
128.4000;0.8726;-0.9500;
128.7000;0.8718;-0.9500;
129.0000;0.8726;-0.9525;
129.3000;0.8710;-0.9574;
129.6000;0.8734;-0.9624;
129.9000;0.8734;-0.9649;
130.2000;0.8726;-0.9574;
130.5000;0.8726;-0.9549;
130.8000;0.8734;-0.9500;
131.1000;0.8751;-0.9450;
131.4000;0.8742;-0.9475;
131.7000;0.8726;-0.9450;
132.0000;0.8718;-0.9450;
132.3000;0.8734;-0.9400;
132.6000;0.8726;-0.9400;
132.9000;0.8734;-0.9450;
133.2000;0.8734;-0.9475;
133.5000;0.8685;-0.9624;
133.8000;0.8710;-0.9624;
134.1000;0.8685;-0.9749;
134.4000;0.8694;-0.9674;
134.7000;0.8734;-0.9699;
135.0000;0.8783;-0.9699;
135.3000;0.8718;-0.9749;
135.6000;0.8710;-0.9749;
135.9000;0.8653;-0.9874;
136.2000;0.8734;-0.9624;
136.5000;0.8694;-0.9649;
136.8000;0.8726;-0.9525;
137.1000;0.8734;-0.9549;
137.4000;0.8751;-0.9574;
137.7000;0.8742;-0.9574;
138.0000;0.8710;-0.9649;
138.3000;0.8718;-0.9599;
138.6000;0.8710;-0.9599;
138.9000;0.8734;-0.9525;
139.2000;0.8751;-0.9450;
139.5000;0.8742;-0.9500;
139.8000;0.8726;-0.9599;
140.1000;0.8742;-0.9574;
140.4000;0.8734;-0.9649;
140.7000;0.8710;-0.9649;
141.0000;0.8734;-0.9599;
141.3000;0.8726;-0.9649;
141.6000;0.8653;-0.9799;
141.9000;0.8702;-0.9699;
142.2000;0.8759;-0.9599;
142.5000;0.8726;-0.9699;
142.8000;0.8702;-0.9849;
143.1000;0.8620;-1.0073;
143.4000;0.8718;-0.9849;
143.7000;0.8718;-0.9774;
144.0000;0.8718;-0.9724;
144.3000;0.8726;-0.9724;
144.6000;0.8661;-0.9849;
144.9000;0.8702;-0.9749;
145.2000;0.8816;-0.9475;
145.5000;0.8718;-0.9674;
145.8000;0.8718;-0.9599;
146.1000;0.8734;-0.9549;
146.4000;0.8718;-0.9549;
146.7000;0.8710;-0.9574;
147.0000;0.8710;-0.9599;
147.3000;0.8702;-0.9624;
147.6000;0.8726;-0.9624;
147.9000;0.8726;-0.9649;
148.2000;0.8710;-0.9699;
148.5000;0.8710;-0.9774;
148.8000;0.8734;-0.9749;
149.1000;0.8783;-0.9674;
149.4000;0.8734;-0.9774;
149.7000;0.8734;-0.9749;
150.0000;0.8710;-0.9674;
150.3000;0.8734;-0.9624;
150.6000;0.8718;-0.9649;
150.9000;0.8718;-0.9649;
151.2000;0.8734;-0.9500;
151.5000;0.8767;-0.9425;
151.8000;0.8734;-0.9549;
152.1000;0.8726;-0.9500;
152.4000;0.8726;-0.9549;
152.7000;0.8742;-0.9475;
153.0000;0.8734;-0.9475;
153.3000;0.8726;-0.9425;
153.6000;0.8726;-0.9450;
153.9000;0.8734;-0.9500;
154.2000;0.8718;-0.9574;
154.5000;0.8653;-0.9749;
154.8000;0.8710;-0.9574;
155.1000;0.8734;-0.9574;
155.4000;0.8726;-0.9500;
155.7000;0.8710;-0.9525;
156.0000;0.8726;-0.9450;
156.3000;0.8726;-0.9425;
156.6000;0.8742;-0.9375;
156.9000;0.8726;-0.9525;
157.2000;0.8783;-0.9400;
157.5000;0.8726;-0.9425;
157.8000;0.8742;-0.9350;
158.1000;0.8742;-0.9375;
158.4000;0.8734;-0.9500;
158.7000;0.8734;-0.9525;
159.0000;0.8734;-0.9525;
159.3000;0.8734;-0.9500;
159.6000;0.8726;-0.9525;
159.9000;0.8734;-0.9500;
160.2000;0.8751;-0.9574;
160.5000;0.8710;-0.9674;
160.8000;0.8799;-0.9475;
161.1000;0.8742;-0.9525;
161.4000;0.8734;-0.9475;
161.7000;0.8783;-0.9325;
162.0000;0.8726;-0.9549;
162.3000;0.8726;-0.9599;
162.6000;0.8677;-0.9774;
162.9000;0.8702;-0.9849;
163.2000;0.8702;-0.9824;
163.5000;0.8726;-0.9699;
163.8000;0.8726;-0.9624;
164.1000;0.8742;-0.9549;
164.4000;0.8742;-0.9525;
164.7000;0.8694;-0.9574;
165.0000;0.8767;-0.9400;
165.3000;0.8718;-0.9574;
165.6000;0.8694;-0.9574;
165.9000;0.8710;-0.9500;
166.2000;0.8742;-0.9525;
166.5000;0.8734;-0.9549;
166.8000;0.8710;-0.9500;
167.1000;0.8742;-0.9450;
167.4000;0.8718;-0.9500;
167.7000;0.8734;-0.9425;
168.0000;0.8726;-0.9450;
168.3000;0.8742;-0.9375;
168.6000;0.8718;-0.9525;
168.9000;0.8710;-0.9574;
169.2000;0.8775;-0.9450;
169.5000;0.8726;-0.9500;
169.8000;0.8742;-0.9475;
170.1000;0.8726;-0.9525;
170.4000;0.8718;-0.9475;
170.7000;0.8751;-0.9400;
171.0000;0.8751;-0.9325;
171.3000;0.8718;-0.9400;
171.6000;0.8710;-0.9500;
171.9000;0.8734;-0.9425;
172.2000;0.8751;-0.9325;
172.5000;0.8726;-0.9350;
172.8000;0.8726;-0.9375;
173.1000;0.8742;-0.9300;
173.4000;0.8742;-0.9375;
173.7000;0.8718;-0.9325;
174.0000;0.8734;-0.9325;
174.3000;0.8759;-0.9325;
174.6000;0.8734;-0.9400;
174.9000;0.8726;-0.9475;
175.2000;0.8734;-0.9450;
175.5000;0.8734;-0.9425;
175.8000;0.8726;-0.9425;
176.1000;0.8726;-0.9350;
176.4000;0.8824;-0.9126;
176.7000;0.8702;-0.9400;
177.0000;0.8734;-0.9425;
177.3000;0.8734;-0.9425;
177.6000;0.8718;-0.9475;
177.9000;0.8734;-0.9500;
178.2000;0.8759;-0.9375;
178.5000;0.8759;-0.9300;
178.8000;0.8710;-0.9425;
179.1000;0.8702;-0.9450;
179.4000;0.8718;-0.9325;
179.7000;0.8726;-0.9350;
180.0000;0.8710;-0.9400;
180.3000;0.8718;-0.9375;
180.6000;0.8734;-0.9400;
180.9000;0.8726;-0.9375;
181.2000;0.8718;-0.9375;
181.5000;0.8726;-0.9325;
181.8000;0.8726;-0.9250;
182.1000;0.8710;-0.9325;
182.4000;0.8734;-0.9225;
182.7000;0.8718;-0.9275;
183.0000;0.8718;-0.9325;
183.3000;0.8734;-0.9250;
183.6000;0.8685;-0.9375;
183.9000;0.8710;-0.9350;
184.2000;0.8694;-0.9400;
184.5000;0.8677;-0.9549;
184.8000;0.8734;-0.9450;
185.1000;0.8726;-0.9574;
185.4000;0.8726;-0.9624;
185.7000;0.8742;-0.9599;
186.0000;0.8742;-0.9549;
186.3000;0.8742;-0.9549;
186.6000;0.8726;-0.9599;
186.9000;0.8710;-0.9574;
187.2000;0.8726;-0.9624;
187.5000;0.8677;-0.9674;
187.8000;0.8685;-0.9649;
188.1000;0.8816;-0.9350;
188.4000;0.8726;-0.9574;
188.7000;0.8751;-0.9450;
189.0000;0.8694;-0.9624;
189.3000;0.8726;-0.9624;
189.6000;0.8677;-0.9724;
189.9000;0.8807;-0.9375;
190.2000;0.8669;-0.9724;
190.5000;0.8726;-0.9574;
190.8000;0.8751;-0.9549;
191.1000;0.8677;-0.9724;
191.4000;0.8718;-0.9549;
191.7000;0.8637;-0.9699;
192.0000;0.8726;-0.9525;
192.3000;0.8718;-0.9500;
192.6000;0.8710;-0.9500;
192.9000;0.8669;-0.9574;
193.2000;0.8694;-0.9425;
193.5000;0.8734;-0.9400;
193.8000;0.8702;-0.9500;
194.1000;0.8702;-0.9525;
194.4000;0.8726;-0.9475;
194.7000;0.8742;-0.9400;
195.0000;0.8637;-0.9674;
195.3000;0.8718;-0.9500;
195.6000;0.8726;-0.9350;
195.9000;0.8751;-0.9400;
196.2000;0.8726;-0.9400;
196.5000;0.8718;-0.9400;
196.8000;0.8694;-0.9425;
197.1000;0.8726;-0.9425;
197.4000;0.8734;-0.9425;
197.7000;0.8702;-0.9475;
198.0000;0.8718;-0.9425;
198.3000;0.8726;-0.9425;
198.6000;0.8718;-0.9450;
198.9000;0.8718;-0.9525;
199.2000;0.8742;-0.9549;
199.5000;0.8726;-0.9624;
199.8000;0.8694;-0.9799;
200.1000;0.8710;-0.9749;
200.4000;0.8685;-0.9724;
200.7000;0.8726;-0.9500;
201.0000;0.8718;-0.9525;
201.3000;0.8742;-0.9475;
201.6000;0.8718;-0.9525;
201.9000;0.8759;-0.9400;
202.2000;0.8726;-0.9400;
202.5000;0.8685;-0.9475;
202.8000;0.8726;-0.9400;
203.1000;0.8718;-0.9425;
203.4000;0.8685;-0.9450;
203.7000;0.8742;-0.9400;
204.0000;0.8718;-0.9500;
204.3000;0.8669;-0.9724;
204.6000;0.8702;-0.9599;
204.9000;0.8710;-0.9574;
205.2000;0.8734;-0.9525;
205.5000;0.8694;-0.9525;
205.8000;0.8726;-0.9450;
206.1000;0.8710;-0.9500;
206.4000;0.8718;-0.9525;
206.7000;0.8710;-0.9525;
207.0000;0.8751;-0.9400;
207.3000;0.8734;-0.9375;
207.6000;0.8718;-0.9375;
207.9000;0.8710;-0.9475;
208.2000;0.8718;-0.9475;
208.5000;0.8661;-0.9574;
208.8000;0.8685;-0.9475;
209.1000;0.8702;-0.9475;
209.4000;0.8702;-0.9549;
209.7000;0.8718;-0.9624;
210.0000;0.8710;-0.9624;
210.3000;0.8791;-0.9425;
210.6000;0.8759;-0.9425;
210.9000;0.8694;-0.9599;
211.2000;0.8710;-0.9525;
211.5000;0.8628;-0.9649;
211.8000;0.8726;-0.9400;
212.1000;0.8669;-0.9425;
212.4000;0.8718;-0.9350;
212.7000;0.8767;-0.9200;
213.0000;0.8718;-0.9250;
213.3000;0.8604;-0.9475;
213.6000;0.8685;-0.9325;
213.9000;0.8702;-0.9275;
214.2000;0.8685;-0.9275;
214.5000;0.8702;-0.9350;
214.8000;0.8661;-0.9475;
215.1000;0.8751;-0.9275;
215.4000;0.8718;-0.9350;
215.7000;0.8685;-0.9475;
216.0000;0.8702;-0.9400;
216.3000;0.8718;-0.9275;
216.6000;0.8694;-0.9375;
216.9000;0.8718;-0.9350;
217.2000;0.8702;-0.9400;
217.5000;0.8751;-0.9375;
217.8000;0.8718;-0.9425;
218.1000;0.8718;-0.9450;
218.4000;0.8718;-0.9500;
218.7000;0.8702;-0.9450;
219.0000;0.8694;-0.9425;
219.3000;0.8677;-0.9475;
219.6000;0.8702;-0.9475;
219.9000;0.8685;-0.9425;
220.2000;0.8694;-0.9375;
220.5000;0.8783;-0.9101;
220.8000;0.8702;-0.9400;
221.1000;0.8767;-0.9225;
221.4000;0.8718;-0.9325;
221.7000;0.8734;-0.9325;
222.0000;0.8710;-0.9375;
222.3000;0.8718;-0.9375;
222.6000;0.8694;-0.9525;
222.9000;0.8685;-0.9574;
223.2000;0.8677;-0.9525;
223.5000;0.8726;-0.9350;
223.8000;0.8677;-0.9549;
224.1000;0.8702;-0.9400;
224.4000;0.8685;-0.9475;
224.7000;0.8694;-0.9350;
225.0000;0.8685;-0.9300;
225.3000;0.8645;-0.9350;
225.6000;0.8710;-0.9300;
225.9000;0.8702;-0.9350;
226.2000;0.8685;-0.9350;
226.5000;0.8677;-0.9375;
226.8000;0.8710;-0.9375;
227.1000;0.8702;-0.9350;
227.4000;0.8726;-0.9350;
227.7000;0.8694;-0.9525;
228.0000;0.8702;-0.9500;
228.3000;0.8669;-0.9574;
228.6000;0.8702;-0.9500;
228.9000;0.8685;-0.9475;
229.2000;0.8694;-0.9450;
229.5000;0.8685;-0.9475;
229.8000;0.8685;-0.9475;
230.1000;0.8702;-0.9549;
230.4000;0.8799;-0.9275;
230.7000;0.8726;-0.9375;
231.0000;0.8702;-0.9475;
231.3000;0.8685;-0.9475;
231.6000;0.8694;-0.9375;
231.9000;0.8645;-0.9599;
232.2000;0.8637;-0.9624;
232.5000;0.8710;-0.9475;
232.8000;0.8694;-0.9525;
233.1000;0.8694;-0.9525;
233.4000;0.8702;-0.9425;
233.7000;0.8710;-0.9375;
234.0000;0.8702;-0.9375;
234.3000;0.8694;-0.9375;
234.6000;0.8710;-0.9375;
234.9000;0.8759;-0.9350;
235.2000;0.8694;-0.9549;
235.5000;0.8710;-0.9525;
235.8000;0.8694;-0.9500;
236.1000;0.8734;-0.9450;
236.4000;0.8710;-0.9500;
236.7000;0.8694;-0.9500;
237.0000;0.8710;-0.9400;
237.3000;0.8710;-0.9450;
237.6000;0.8710;-0.9549;
237.9000;0.8677;-0.9674;
238.2000;0.8751;-0.9525;
238.5000;0.8718;-0.9599;
238.8000;0.8710;-0.9674;
239.1000;0.8710;-0.9724;
239.4000;0.8685;-0.9599;
239.7000;0.8702;-0.9500;
240.0000;0.8710;-0.9475;
240.3000;0.8702;-0.9549;
240.6000;0.8677;-0.9574;
240.9000;0.8702;-0.9500;
241.2000;0.8702;-0.9450;
241.5000;0.8702;-0.9375;
241.8000;0.8710;-0.9325;
242.1000;0.8604;-0.9549;
242.4000;0.8661;-0.9375;
242.7000;0.8718;-0.9225;
243.0000;0.8677;-0.9350;
243.3000;0.8710;-0.9325;
243.6000;0.8718;-0.9375;
243.9000;0.8677;-0.9375;
244.2000;0.8685;-0.9250;
244.5000;0.8653;-0.9275;
244.8000;0.8677;-0.9300;
245.1000;0.8661;-0.9400;
245.4000;0.8694;-0.9350;
245.7000;0.8685;-0.9375;
246.0000;0.8702;-0.9325;
246.3000;0.8677;-0.9450;
246.6000;0.8637;-0.9649;
246.9000;0.8661;-0.9475;
247.2000;0.8694;-0.9525;
247.5000;0.8685;-0.9574;
247.8000;0.8661;-0.9549;
248.1000;0.8661;-0.9500;
248.4000;0.8775;-0.9225;
248.7000;0.8669;-0.9525;
249.0000;0.8685;-0.9475;
249.3000;0.8677;-0.9574;
249.6000;0.8677;-0.9649;
249.9000;0.8677;-0.9599;
250.2000;0.8677;-0.9599;
250.5000;0.8685;-0.9500;
250.8000;0.8694;-0.9475;
251.1000;0.8718;-0.9400;
251.4000;0.8685;-0.9549;
251.7000;0.8702;-0.9574;
252.0000;0.8710;-0.9525;
252.3000;0.8661;-0.9549;
252.6000;0.8702;-0.9375;
252.9000;0.8677;-0.9525;
253.2000;0.8694;-0.9425;
253.5000;0.8694;-0.9475;
253.8000;0.8694;-0.9549;
254.1000;0.8637;-0.9624;
254.4000;0.8710;-0.9549;
254.7000;0.8677;-0.9549;
255.0000;0.8677;-0.9500;
255.3000;0.8669;-0.9574;
255.6000;0.8685;-0.9574;
255.9000;0.8669;-0.9599;
256.2000;0.8677;-0.9574;
256.5000;0.8669;-0.9599;
256.8000;0.8685;-0.9574;
257.1000;0.8685;-0.9500;
257.4000;0.8694;-0.9475;
257.7000;0.8734;-0.9350;
258.0000;0.8685;-0.9549;
258.3000;0.8702;-0.9525;
258.6000;0.8620;-0.9624;
258.9000;0.8694;-0.9400;
259.2000;0.8604;-0.9624;
259.5000;0.8669;-0.9475;
259.8000;0.8669;-0.9500;
260.1000;0.8694;-0.9425;
260.4000;0.8661;-0.9624;
260.7000;0.8612;-0.9674;
261.0000;0.8694;-0.9525;
261.3000;0.8726;-0.9250;
261.6000;0.8677;-0.9450;
261.9000;0.8677;-0.9400;
262.2000;0.8694;-0.9325;
262.5000;0.8694;-0.9350;
262.8000;0.8694;-0.9400;
263.1000;0.8694;-0.9350;
263.4000;0.8677;-0.9375;
263.7000;0.8677;-0.9400;
264.0000;0.8685;-0.9275;
264.3000;0.8694;-0.9225;
264.6000;0.8677;-0.9325;
264.9000;0.8677;-0.9400;
265.2000;0.8702;-0.9375;
265.5000;0.8685;-0.9500;
265.8000;0.8685;-0.9500;
266.1000;0.8702;-0.9400;
266.4000;0.8677;-0.9500;
266.7000;0.8685;-0.9500;
267.0000;0.8685;-0.9500;
267.3000;0.8685;-0.9500;
267.6000;0.8694;-0.9375;
267.9000;0.8677;-0.9350;
268.2000;0.8653;-0.9375;
268.5000;0.8685;-0.9350;
268.8000;0.8685;-0.9475;
269.1000;0.8685;-0.9400;
269.4000;0.8685;-0.9300;
269.7000;0.8677;-0.9275;
270.0000;0.8669;-0.9300;
270.3000;0.8685;-0.9300;
270.6000;0.8661;-0.9375;
270.9000;0.8661;-0.9400;
271.2000;0.8669;-0.9325;
271.5000;0.8669;-0.9350;
271.8000;0.8661;-0.9375;
272.1000;0.8685;-0.9425;
272.4000;0.8661;-0.9500;
272.7000;0.8669;-0.9475;
273.0000;0.8694;-0.9400;
273.3000;0.8661;-0.9549;
273.6000;0.8661;-0.9525;
273.9000;0.8677;-0.9475;
274.2000;0.8677;-0.9500;
274.5000;0.8637;-0.9574;
274.8000;0.8677;-0.9375;
275.1000;0.8645;-0.9350;
275.4000;0.8661;-0.9400;
275.7000;0.8685;-0.9400;
276.0000;0.8653;-0.9450;
276.3000;0.8677;-0.9425;
276.6000;0.8653;-0.9475;
276.9000;0.8694;-0.9475;
277.2000;0.8669;-0.9525;
277.5000;0.8677;-0.9450;
277.8000;0.8783;-0.9225;
278.1000;0.8710;-0.9400;
278.4000;0.8669;-0.9475;
278.7000;0.8759;-0.9300;
279.0000;0.8628;-0.9549;
279.3000;0.8677;-0.9375;
279.6000;0.8702;-0.9275;
279.9000;0.8571;-0.9599;
280.2000;0.8661;-0.9375;
280.5000;0.8742;-0.9051;
280.8000;0.8637;-0.9300;
281.1000;0.8661;-0.9151;
281.4000;0.8677;-0.9151;
281.7000;0.8661;-0.9200;
282.0000;0.8669;-0.9200;
282.3000;0.8669;-0.9250;
282.6000;0.8653;-0.9350;
282.9000;0.8669;-0.9325;
283.2000;0.8702;-0.9350;
283.5000;0.8653;-0.9500;
283.8000;0.8677;-0.9425;
284.1000;0.8653;-0.9475;
284.4000;0.8653;-0.9425;
284.7000;0.8710;-0.9225;
285.0000;0.8653;-0.9475;
285.3000;0.8677;-0.9475;
285.6000;0.8677;-0.9350;
285.9000;0.8661;-0.9400;
286.2000;0.8653;-0.9425;
286.5000;0.8669;-0.9450;
286.8000;0.8677;-0.9425;
287.1000;0.8661;-0.9350;
287.4000;0.8669;-0.9350;
287.7000;0.8645;-0.9425;
288.0000;0.8580;-0.9549;
288.3000;0.8645;-0.9300;
288.6000;0.8653;-0.9200;
288.9000;0.8645;-0.9200;
289.2000;0.8653;-0.9225;
289.5000;0.8677;-0.9250;
289.8000;0.8620;-0.9400;
290.1000;0.8661;-0.9250;
290.4000;0.8669;-0.9225;
290.7000;0.8685;-0.9200;
291.0000;0.8677;-0.9300;
291.3000;0.8661;-0.9325;
291.6000;0.8612;-0.9525;
291.9000;0.8653;-0.9375;
292.2000;0.8677;-0.9375;
292.5000;0.8645;-0.9425;
292.8000;0.8669;-0.9350;
293.1000;0.8669;-0.9400;
293.4000;0.8694;-0.9375;
293.7000;0.8685;-0.9425;
294.0000;0.8637;-0.9525;
294.3000;0.8677;-0.9375;
294.6000;0.8661;-0.9400;
294.9000;0.8628;-0.9375;
295.2000;0.8653;-0.9350;
295.5000;0.8612;-0.9425;
295.8000;0.8677;-0.9275;
296.1000;0.8669;-0.9275;
296.4000;0.8653;-0.9375;
296.7000;0.8628;-0.9450;
297.0000;0.8653;-0.9375;
297.3000;0.8677;-0.9300;
297.6000;0.8645;-0.9375;
297.9000;0.8669;-0.9375;
298.2000;0.8734;-0.9300;
298.5000;0.8661;-0.9425;
298.8000;0.8571;-0.9649;
299.1000;0.8645;-0.9475;
299.4000;0.8710;-0.9325;
299.7000;0.8669;-0.9450;
300.0000;0.8669;-0.9375;
300.3000;0.8702;-0.9175;
300.6000;0.8710;-0.9126;
300.9000;0.8669;-0.9275;
301.2000;0.8669;-0.9375;
301.5000;0.8685;-0.9400;
301.8000;0.8726;-0.9250;
302.1000;0.8637;-0.9500;
302.4000;0.8694;-0.9425;
302.7000;0.8661;-0.9500;
303.0000;0.8645;-0.9525;
303.3000;0.8637;-0.9475;
303.6000;0.8661;-0.9500;
303.9000;0.8677;-0.9500;
304.2000;0.8661;-0.9599;
304.5000;0.8710;-0.9475;
304.8000;0.8677;-0.9500;
305.1000;0.8742;-0.9325;
305.4000;0.8669;-0.9450;
305.7000;0.8637;-0.9500;
306.0000;0.8669;-0.9425;
306.3000;0.8669;-0.9400;
306.6000;0.8726;-0.9250;
306.9000;0.8661;-0.9350;
307.2000;0.8645;-0.9250;
307.5000;0.8661;-0.9300;
307.8000;0.8645;-0.9300;
308.1000;0.8661;-0.9300;
308.4000;0.8677;-0.9300;
308.7000;0.8653;-0.9425;
309.0000;0.8661;-0.9375;
309.3000;0.8661;-0.9350;
309.6000;0.8669;-0.9425;
309.9000;0.8645;-0.9425;
310.2000;0.8669;-0.9375;
310.5000;0.8645;-0.9350;
310.8000;0.8628;-0.9475;
311.1000;0.8661;-0.9375;
311.4000;0.8661;-0.9375;
311.7000;0.8645;-0.9325;
312.0000;0.8661;-0.9250;
312.3000;0.8653;-0.9400;
312.6000;0.8653;-0.9400;
312.9000;0.8628;-0.9450;
313.2000;0.8645;-0.9300;
313.5000;0.8580;-0.9425;
313.8000;0.8653;-0.9200;
314.1000;0.8653;-0.9225;
314.4000;0.8653;-0.9225;
314.7000;0.8685;-0.9225;
315.0000;0.8751;-0.9026;
315.3000;0.8653;-0.9250;
315.6000;0.8677;-0.9200;
315.9000;0.8620;-0.9375;
316.2000;0.8669;-0.9275;
316.5000;0.8628;-0.9475;
316.8000;0.8588;-0.9525;
317.1000;0.8628;-0.9425;
317.4000;0.8637;-0.9350;
317.7000;0.8637;-0.9275;
318.0000;0.8710;-0.9101;
318.3000;0.8661;-0.9126;
318.6000;0.8661;-0.9126;
318.9000;0.8718;-0.9026;
319.2000;0.8653;-0.9225;
319.5000;0.8653;-0.9275;
319.8000;0.8677;-0.9225;
320.1000;0.8645;-0.9250;
320.4000;0.8645;-0.9200;
320.7000;0.8628;-0.9225;
321.0000;0.8653;-0.9126;
321.3000;0.8661;-0.9126;
321.6000;0.8645;-0.9175;
321.9000;0.8628;-0.9225;
322.2000;0.8628;-0.9325;
322.5000;0.8637;-0.9275;
322.8000;0.8637;-0.9275;
323.1000;0.8653;-0.9300;
323.4000;0.8653;-0.9300;
323.7000;0.8694;-0.9200;
324.0000;0.8620;-0.9475;
324.3000;0.8596;-0.9500;
324.6000;0.8645;-0.9475;
324.9000;0.8661;-0.9500;
325.2000;0.8628;-0.9574;
325.5000;0.8612;-0.9599;
325.8000;0.8645;-0.9574;
326.1000;0.8677;-0.9450;
326.4000;0.8645;-0.9525;
326.7000;0.8645;-0.9400;
327.0000;0.8620;-0.9375;
327.3000;0.8628;-0.9275;
327.6000;0.8645;-0.9250;
327.9000;0.8645;-0.9275;
328.2000;0.8637;-0.9300;
328.5000;0.8645;-0.9375;
328.8000;0.8653;-0.9350;
329.1000;0.8661;-0.9375;
329.4000;0.8620;-0.9500;
329.7000;0.8637;-0.9500;
330.0000;0.8677;-0.9400;
330.3000;0.8653;-0.9525;
330.6000;0.8645;-0.9525;
330.9000;0.8628;-0.9549;
331.2000;0.8645;-0.9574;
331.5000;0.8669;-0.9400;
331.8000;0.8645;-0.9475;
332.1000;0.8604;-0.9549;
332.4000;0.8628;-0.9425;
332.7000;0.8653;-0.9400;
333.0000;0.8677;-0.9325;
333.3000;0.8710;-0.9225;
333.6000;0.8653;-0.9250;
333.9000;0.8677;-0.9200;
334.2000;0.8677;-0.9225;
334.5000;0.8620;-0.9425;
334.8000;0.8563;-0.9624;
335.1000;0.8661;-0.9325;
335.4000;0.8669;-0.9350;
335.7000;0.8645;-0.9400;
336.0000;0.8645;-0.9425;
336.3000;0.8637;-0.9450;
336.6000;0.8661;-0.9400;
336.9000;0.8645;-0.9350;
337.2000;0.8645;-0.9375;
337.5000;0.8620;-0.9450;
337.8000;0.8645;-0.9425;
338.1000;0.8645;-0.9275;
338.4000;0.8645;-0.9300;
338.7000;0.8645;-0.9325;
339.0000;0.8653;-0.9275;
339.3000;0.8645;-0.9300;
339.6000;0.8645;-0.9250;
339.9000;0.8612;-0.9325;
340.2000;0.8669;-0.9250;
340.5000;0.8653;-0.9275;
340.8000;0.8645;-0.9325;
341.1000;0.8677;-0.9275;
341.4000;0.8645;-0.9325;
341.7000;0.8653;-0.9225;
342.0000;0.8588;-0.9500;
342.3000;0.8628;-0.9400;
342.6000;0.8653;-0.9350;
342.9000;0.8620;-0.9325;
343.2000;0.8637;-0.9275;
343.5000;0.8645;-0.9175;
343.8000;0.8637;-0.9126;
344.1000;0.8596;-0.9300;
344.4000;0.8637;-0.9151;
344.7000;0.8653;-0.9151;
345.0000;0.8645;-0.9175;
345.3000;0.8620;-0.9175;
345.6000;0.8637;-0.9126;
345.9000;0.8637;-0.9126;
346.2000;0.8604;-0.9300;
346.5000;0.8637;-0.9175;
346.8000;0.8645;-0.9151;
347.1000;0.8628;-0.9175;
347.4000;0.8653;-0.9101;
347.7000;0.8612;-0.9151;
348.0000;0.8596;-0.9151;
348.3000;0.8580;-0.9175;
348.6000;0.8628;-0.9175;
348.9000;0.8628;-0.9275;
349.2000;0.8604;-0.9400;
349.5000;0.8645;-0.9300;
349.8000;0.8628;-0.9325;
350.1000;0.8604;-0.9300;
350.4000;0.8669;-0.9126;
350.7000;0.8628;-0.9175;
351.0000;0.8661;-0.9225;
351.3000;0.8628;-0.9275;
351.6000;0.8726;-0.9076;
351.9000;0.8645;-0.9250;
352.2000;0.8628;-0.9101;
352.5000;0.8612;-0.9076;
352.8000;0.8620;-0.9001;
353.1000;0.8661;-0.8876;
353.4000;0.8637;-0.9001;
353.7000;0.8645;-0.9101;
354.0000;0.8637;-0.9126;
354.3000;0.8661;-0.9051;
354.6000;0.8653;-0.9101;
354.9000;0.8653;-0.9051;
355.2000;0.8620;-0.9051;
355.5000;0.8702;-0.8951;
355.8000;0.8645;-0.9175;
356.1000;0.8653;-0.9225;
356.4000;0.8628;-0.9300;
356.7000;0.8628;-0.9225;
357.0000;0.8661;-0.9200;
357.3000;0.8661;-0.9126;
357.6000;0.8661;-0.9175;
357.9000;0.8645;-0.9175;
358.2000;0.8637;-0.9126;
358.5000;0.8620;-0.9250;
358.8000;0.8604;-0.9225;
359.1000;0.8620;-0.9151;
359.4000;0.8653;-0.8976;
359.7000;0.8637;-0.9051;
360.0000;0.8628;-0.9026;
360.3000;0.8604;-0.9101;
360.6000;0.8604;-0.9051;
360.9000;0.8637;-0.9001;
361.2000;0.8628;-0.9051;
361.5000;0.8645;-0.9001;
361.8000;0.8637;-0.9001;
362.1000;0.8628;-0.9001;
362.4000;0.8661;-0.8926;
362.7000;0.8628;-0.8976;
363.0000;0.8571;-0.9175;
363.3000;0.8628;-0.8976;
363.6000;0.8628;-0.8976;
363.9000;0.8620;-0.8951;
364.2000;0.8604;-0.9026;
364.5000;0.8628;-0.9076;
364.8000;0.8637;-0.8951;
365.1000;0.8620;-0.8901;
365.4000;0.8620;-0.8951;
365.7000;0.8637;-0.8951;
366.0000;0.8628;-0.9001;
366.3000;0.8620;-0.9076;
366.6000;0.8628;-0.9026;
366.9000;0.8628;-0.9076;
367.2000;0.8645;-0.9126;
367.5000;0.8637;-0.9076;
367.8000;0.8628;-0.9026;
368.1000;0.8637;-0.9051;
368.4000;0.8645;-0.9001;
368.7000;0.8637;-0.9001;
369.0000;0.8531;-0.9225;
369.3000;0.8628;-0.9026;
369.6000;0.8637;-0.9001;
369.9000;0.8694;-0.8926;
370.2000;0.8612;-0.9126;
370.5000;0.8620;-0.9076;
370.8000;0.8637;-0.9026;
371.1000;0.8694;-0.8926;
371.4000;0.8645;-0.9101;
371.7000;0.8645;-0.8951;
372.0000;0.8645;-0.8926;
372.3000;0.8612;-0.8926;
372.6000;0.8637;-0.8951;
372.9000;0.8620;-0.9051;
373.2000;0.8628;-0.9175;
373.5000;0.8580;-0.9300;
373.8000;0.8620;-0.9200;
374.1000;0.8596;-0.9250;
374.4000;0.8620;-0.9175;
374.7000;0.8637;-0.9051;
375.0000;0.8620;-0.9026;
375.3000;0.8596;-0.9051;
375.6000;0.8596;-0.9151;
375.9000;0.8628;-0.8976;
376.2000;0.8588;-0.9051;
376.5000;0.8628;-0.9001;
376.8000;0.8628;-0.8901;
377.1000;0.8612;-0.8976;
377.4000;0.8612;-0.8876;
377.7000;0.8628;-0.8752;
378.0000;0.8620;-0.8777;
378.3000;0.8604;-0.8976;
378.6000;0.8628;-0.8926;
378.9000;0.8628;-0.9001;
379.2000;0.8628;-0.9101;
379.5000;0.8612;-0.9126;
379.8000;0.8645;-0.9001;
380.1000;0.8612;-0.9076;
380.4000;0.8628;-0.9051;
380.7000;0.8620;-0.9026;
381.0000;0.8645;-0.8926;
381.3000;0.8620;-0.9076;
381.6000;0.8637;-0.9126;
381.9000;0.8620;-0.9225;
382.2000;0.8596;-0.9350;
382.5000;0.8612;-0.9350;
382.8000;0.8628;-0.9225;
383.1000;0.8628;-0.9225;
383.4000;0.8628;-0.9175;
383.7000;0.8604;-0.9300;
384.0000;0.8637;-0.9225;
384.3000;0.8620;-0.9225;
384.6000;0.8571;-0.9275;
384.9000;0.8628;-0.9101;
385.2000;0.8628;-0.9101;
385.5000;0.8637;-0.9101;
385.8000;0.8620;-0.9126;
386.1000;0.8628;-0.9126;
386.4000;0.8571;-0.9275;
386.7000;0.8637;-0.9250;
387.0000;0.8637;-0.9350;
387.3000;0.8620;-0.9325;
387.6000;0.8645;-0.9151;
387.9000;0.8694;-0.9026;
388.2000;0.8637;-0.9126;
388.5000;0.8612;-0.9175;
388.8000;0.8637;-0.9200;
389.1000;0.8620;-0.9200;
389.4000;0.8628;-0.9275;
389.7000;0.8620;-0.9325;
390.0000;0.8637;-0.9275;
390.3000;0.8637;-0.9200;
390.6000;0.8637;-0.9151;
390.9000;0.8620;-0.9250;
391.2000;0.8653;-0.9200;
391.5000;0.8645;-0.9151;
391.8000;0.8645;-0.9200;
392.1000;0.8531;-0.9425;
392.4000;0.8685;-0.9051;
392.7000;0.8645;-0.9126;
393.0000;0.8694;-0.8951;
393.3000;0.8702;-0.8951;
393.6000;0.8620;-0.9126;
393.9000;0.8661;-0.9101;
394.2000;0.8637;-0.9101;
394.5000;0.8612;-0.9126;
394.8000;0.8694;-0.8976;
395.1000;0.8628;-0.9101;
395.4000;0.8539;-0.9400;
395.7000;0.8612;-0.9126;
396.0000;0.8612;-0.9126;
396.3000;0.8628;-0.8976;
396.6000;0.8580;-0.9126;
396.9000;0.8612;-0.8976;
397.2000;0.8612;-0.9001;
397.5000;0.8571;-0.9076;
397.8000;0.8645;-0.9001;
398.1000;0.8653;-0.9026;
398.4000;0.8604;-0.9151;
398.7000;0.8604;-0.9101;
399.0000;0.8612;-0.9076;
399.3000;0.8661;-0.8926;
399.6000;0.8514;-0.9300;
399.9000;0.8612;-0.9051;
400.2000;0.8620;-0.9001;
400.5000;0.8628;-0.9026;
400.8000;0.8628;-0.9001;
401.1000;0.8653;-0.8951;
401.4000;0.8620;-0.9101;
401.7000;0.8677;-0.8826;
402.0000;0.8628;-0.9026;
402.3000;0.8637;-0.9051;
402.6000;0.8628;-0.9126;
402.9000;0.8628;-0.9175;
403.2000;0.8637;-0.9151;
403.5000;0.8620;-0.9175;
403.8000;0.8645;-0.9076;
404.1000;0.8620;-0.9076;
404.4000;0.8628;-0.9076;
404.7000;0.8604;-0.9026;
405.0000;0.8604;-0.9051;
405.3000;0.8620;-0.8951;
405.6000;0.8620;-0.9026;
405.9000;0.8628;-0.8976;
406.2000;0.8612;-0.8976;
406.5000;0.8604;-0.9001;
406.8000;0.8637;-0.9001;
407.1000;0.8620;-0.9076;
407.4000;0.8588;-0.9151;
407.7000;0.8620;-0.9026;
408.0000;0.8637;-0.9076;
408.3000;0.8612;-0.9175;
408.6000;0.8645;-0.9126;
408.9000;0.8620;-0.9126;
409.2000;0.8637;-0.9076;
409.5000;0.8628;-0.9076;
409.8000;0.8653;-0.8951;
410.1000;0.8604;-0.9026;
410.4000;0.8694;-0.8801;
410.7000;0.8604;-0.8976;
411.0000;0.8612;-0.8926;
411.3000;0.8604;-0.8901;
411.6000;0.8588;-0.8976;
411.9000;0.8612;-0.8951;
412.2000;0.8588;-0.9051;
412.5000;0.8628;-0.8926;
412.8000;0.8612;-0.9076;
413.1000;0.8620;-0.9026;
413.4000;0.8620;-0.9051;
413.7000;0.8612;-0.9175;
414.0000;0.8612;-0.9126;
414.3000;0.8628;-0.9076;
414.6000;0.8596;-0.9175;
414.9000;0.8734;-0.8951;
415.2000;0.8547;-0.9325;
415.5000;0.8653;-0.9126;
415.8000;0.8612;-0.9225;
416.1000;0.8588;-0.9250;
416.4000;0.8669;-0.9026;
416.7000;0.8645;-0.9126;
417.0000;0.8645;-0.9175;
417.3000;0.8612;-0.9225;
417.6000;0.8669;-0.9101;
417.9000;0.8596;-0.9250;
418.2000;0.8628;-0.9200;
418.5000;0.8620;-0.9101;
418.8000;0.8604;-0.9101;
419.1000;0.8604;-0.9101;
419.4000;0.8612;-0.9175;
419.7000;0.8580;-0.9200;
420.0000;0.8620;-0.9101;
420.3000;0.8661;-0.8926;
420.6000;0.8604;-0.9151;
420.9000;0.8620;-0.9051;
421.2000;0.8604;-0.9126;
421.5000;0.8612;-0.9051;
421.8000;0.8620;-0.8976;
422.1000;0.8620;-0.8901;
422.4000;0.8620;-0.8951;
422.7000;0.8620;-0.8926;
423.0000;0.8612;-0.8926;
423.3000;0.8620;-0.8951;
423.6000;0.8628;-0.8951;
423.9000;0.8612;-0.9026;
424.2000;0.8628;-0.8926;
424.5000;0.8612;-0.8926;
424.8000;0.8612;-0.8976;
425.1000;0.8620;-0.8951;
425.4000;0.8604;-0.9001;
425.7000;0.8604;-0.8926;
426.0000;0.8604;-0.8901;
426.3000;0.8612;-0.8901;
426.6000;0.8604;-0.8976;
426.9000;0.8612;-0.9001;
427.2000;0.8612;-0.9026;
427.5000;0.8620;-0.8976;
427.8000;0.8612;-0.8901;
428.1000;0.8604;-0.8901;
428.4000;0.8612;-0.8901;
428.7000;0.8645;-0.8926;
429.0000;0.8620;-0.8976;
429.3000;0.8620;-0.8951;
429.6000;0.8612;-0.8926;
429.9000;0.8653;-0.8801;
430.2000;0.8604;-0.8926;
430.5000;0.8612;-0.8901;
430.8000;0.8588;-0.9001;
431.1000;0.8628;-0.9026;
431.4000;0.8661;-0.8901;
431.7000;0.8677;-0.8801;
432.0000;0.8620;-0.8901;
432.3000;0.8612;-0.8876;
432.6000;0.8628;-0.8951;
432.9000;0.8620;-0.8951;
433.2000;0.8596;-0.9051;
433.5000;0.8588;-0.9151;
433.8000;0.8612;-0.9051;
434.1000;0.8563;-0.9151;
434.4000;0.8620;-0.9001;
434.7000;0.8612;-0.8951;
435.0000;0.8612;-0.8976;
435.3000;0.8620;-0.8926;
435.6000;0.8596;-0.9001;
435.9000;0.8604;-0.9026;
436.2000;0.8604;-0.8976;
436.5000;0.8620;-0.9026;
436.8000;0.8612;-0.9126;
437.1000;0.8645;-0.9101;
437.4000;0.8612;-0.9076;
437.7000;0.8604;-0.9026;
438.0000;0.8596;-0.9076;
438.3000;0.8604;-0.9051;
438.6000;0.8604;-0.9051;
438.9000;0.8628;-0.8976;
439.2000;0.8628;-0.8926;
439.5000;0.8596;-0.8976;
439.8000;0.8604;-0.8901;
440.1000;0.8620;-0.8851;
440.4000;0.8580;-0.8926;
440.7000;0.8547;-0.8951;
441.0000;0.8604;-0.8752;
441.3000;0.8580;-0.8801;
441.6000;0.8596;-0.8777;
441.9000;0.8612;-0.8752;
442.2000;0.8604;-0.8777;
442.5000;0.8604;-0.8826;
442.8000;0.8628;-0.8777;
443.1000;0.8612;-0.8826;
443.4000;0.8653;-0.8851;
443.7000;0.8612;-0.8851;
444.0000;0.8588;-0.8851;
444.3000;0.8596;-0.8826;
444.6000;0.8588;-0.8826;
444.9000;0.8604;-0.8752;
445.2000;0.8596;-0.8752;
445.5000;0.8604;-0.8727;
445.8000;0.8588;-0.8826;
446.1000;0.8588;-0.8826;
446.4000;0.8612;-0.8752;
446.7000;0.8596;-0.8876;
447.0000;0.8612;-0.8926;
447.3000;0.8620;-0.8951;
447.6000;0.8628;-0.8901;
447.9000;0.8588;-0.8826;
448.2000;0.8653;-0.8602;
448.5000;0.8620;-0.8777;
448.8000;0.8653;-0.8727;
449.1000;0.8628;-0.8752;
449.4000;0.8612;-0.8777;
449.7000;0.8645;-0.8702;
450.0000;0.8628;-0.8677;
450.3000;0.8596;-0.8727;
450.6000;0.8604;-0.8727;
450.9000;0.8588;-0.8727;
451.2000;0.8588;-0.8702;
451.5000;0.8588;-0.8752;
451.8000;0.8506;-0.9001;
452.1000;0.8612;-0.8777;
452.4000;0.8604;-0.8801;
452.7000;0.8620;-0.8901;
453.0000;0.8596;-0.9026;
453.3000;0.8620;-0.8951;
453.6000;0.8555;-0.9126;
453.9000;0.8596;-0.9051;
454.2000;0.8596;-0.9051;
454.5000;0.8563;-0.9151;
454.8000;0.8612;-0.9026;
455.1000;0.8596;-0.9026;
455.4000;0.8620;-0.8976;
455.7000;0.8604;-0.9001;
456.0000;0.8588;-0.8951;
456.3000;0.8588;-0.8926;
456.6000;0.8580;-0.8901;
456.9000;0.8596;-0.8801;
457.2000;0.8620;-0.8826;
457.5000;0.8620;-0.8851;
457.8000;0.8588;-0.8951;
458.1000;0.8604;-0.9051;
458.4000;0.8612;-0.9101;
458.7000;0.8612;-0.9051;
459.0000;0.8612;-0.9026;
459.3000;0.8604;-0.8926;
459.6000;0.8612;-0.8826;
459.9000;0.8620;-0.8926;
460.2000;0.8604;-0.9051;
460.5000;0.8612;-0.8976;
460.8000;0.8620;-0.8901;
461.1000;0.8604;-0.8926;
461.4000;0.8580;-0.8926;
461.7000;0.8612;-0.8926;
462.0000;0.8628;-0.8851;
462.3000;0.8588;-0.9026;
462.6000;0.8612;-0.8976;
462.9000;0.8620;-0.8851;
463.2000;0.8620;-0.8976;
463.5000;0.8571;-0.9175;
463.8000;0.8637;-0.9126;
464.1000;0.8588;-0.9250;
464.4000;0.8612;-0.9151;
464.7000;0.8588;-0.9101;
465.0000;0.8596;-0.9076;
465.3000;0.8612;-0.9076;
465.6000;0.8547;-0.9175;
465.9000;0.8596;-0.9225;
466.2000;0.8628;-0.9101;
466.5000;0.8596;-0.9200;
466.8000;0.8645;-0.9076;
467.1000;0.8596;-0.9076;
467.4000;0.8596;-0.9026;
467.7000;0.8555;-0.9126;
468.0000;0.8580;-0.9076;
468.3000;0.8571;-0.9151;
468.6000;0.8596;-0.9076;
468.9000;0.8604;-0.8976;
469.2000;0.8604;-0.8876;
469.5000;0.8580;-0.8801;
469.8000;0.8604;-0.8777;
470.1000;0.8612;-0.8826;
470.4000;0.8596;-0.8901;
470.7000;0.8612;-0.8901;
471.0000;0.8596;-0.9001;
471.3000;0.8588;-0.9001;
471.6000;0.8645;-0.8777;
471.9000;0.8596;-0.8901;
472.2000;0.8612;-0.8801;
472.5000;0.8596;-0.8876;
472.8000;0.8580;-0.8851;
473.1000;0.8588;-0.8777;
473.4000;0.8596;-0.8752;
473.7000;0.8620;-0.8801;
474.0000;0.8628;-0.8826;
474.3000;0.8620;-0.8851;
474.6000;0.8612;-0.8851;
474.9000;0.8604;-0.8901;
475.2000;0.8596;-0.8951;
475.5000;0.8604;-0.8901;
475.8000;0.8612;-0.8777;
476.1000;0.8588;-0.8876;
476.4000;0.8604;-0.8851;
476.7000;0.8596;-0.8876;
477.0000;0.8604;-0.8876;
477.3000;0.8588;-0.8777;
477.6000;0.8596;-0.8801;
477.9000;0.8588;-0.8876;
478.2000;0.8588;-0.8876;
478.5000;0.8588;-0.8876;
478.8000;0.8539;-0.9101;
479.1000;0.8620;-0.8876;
479.4000;0.8588;-0.8976;
479.7000;0.8612;-0.8826;
480.0000;0.8653;-0.8727;
480.3000;0.8588;-0.8876;
480.6000;0.8596;-0.8876;
480.9000;0.8596;-0.8801;
481.2000;0.8604;-0.8876;
481.5000;0.8596;-0.8926;
481.8000;0.8474;-0.9275;
482.1000;0.8571;-0.9076;
482.4000;0.8604;-0.9001;
482.7000;0.8596;-0.9076;
483.0000;0.8596;-0.9026;
483.3000;0.8588;-0.9026;
483.6000;0.8604;-0.9001;
483.9000;0.8596;-0.8951;
484.2000;0.8628;-0.8951;
484.5000;0.8604;-0.9101;
484.8000;0.8612;-0.9151;
485.1000;0.8571;-0.9350;
485.4000;0.8604;-0.9200;
485.7000;0.8580;-0.9200;
486.0000;0.8571;-0.9076;
486.3000;0.8588;-0.8951;
486.6000;0.8580;-0.9001;
486.9000;0.8571;-0.8976;
487.2000;0.8580;-0.9026;
487.5000;0.8596;-0.8951;
487.8000;0.8563;-0.9001;
488.1000;0.8539;-0.9001;
488.4000;0.8580;-0.8901;
488.7000;0.8645;-0.8777;
489.0000;0.8596;-0.8901;
489.3000;0.8563;-0.9051;
489.6000;0.8620;-0.8951;
489.9000;0.8620;-0.9001;
490.2000;0.8563;-0.9225;
490.5000;0.8596;-0.9225;
490.8000;0.8645;-0.9101;
491.1000;0.8588;-0.9200;
491.4000;0.8604;-0.9200;
491.7000;0.8588;-0.9250;
492.0000;0.8596;-0.9250;
492.3000;0.8547;-0.9325;
492.6000;0.8588;-0.9175;
492.9000;0.8588;-0.9076;
493.2000;0.8571;-0.9026;
493.5000;0.8571;-0.8901;
493.8000;0.8588;-0.8926;
494.1000;0.8677;-0.8826;
494.4000;0.8596;-0.9076;
494.7000;0.8571;-0.9151;
495.0000;0.8604;-0.9051;
495.3000;0.8604;-0.9051;
495.6000;0.8596;-0.9076;
495.9000;0.8604;-0.9126;
496.2000;0.8612;-0.9126;
496.5000;0.8588;-0.9200;
496.8000;0.8596;-0.9225;
497.1000;0.8596;-0.9225;
497.4000;0.8604;-0.9225;
497.7000;0.8588;-0.9275;
498.0000;0.8580;-0.9275;
498.3000;0.8588;-0.9175;
498.6000;0.8596;-0.9101;
498.9000;0.8588;-0.9051;
499.2000;0.8588;-0.9126;
499.5000;0.8596;-0.9026;
499.8000;0.8588;-0.9001;
500.1000;0.8604;-0.9051;
500.4000;0.8555;-0.9250;
500.7000;0.8580;-0.9076;
501.0000;0.8588;-0.8976;
501.3000;0.8612;-0.8976;
501.6000;0.8596;-0.9001;
501.9000;0.8604;-0.8901;
502.2000;0.8596;-0.8926;
502.5000;0.8580;-0.8976;
502.8000;0.8596;-0.8951;
503.1000;0.8588;-0.9076;
503.4000;0.8588;-0.9126;
503.7000;0.8588;-0.9051;
504.0000;0.8596;-0.9051;
504.3000;0.8596;-0.9026;
504.6000;0.8580;-0.9101;
504.9000;0.8580;-0.9101;
505.2000;0.8620;-0.9026;
505.5000;0.8620;-0.9026;
505.8000;0.8596;-0.9126;
506.1000;0.8604;-0.9126;
506.4000;0.8596;-0.9126;
506.7000;0.8596;-0.9076;
507.0000;0.8604;-0.9076;
507.3000;0.8580;-0.9126;
507.6000;0.8612;-0.9026;
507.9000;0.8604;-0.8951;
508.2000;0.8571;-0.8976;
508.5000;0.8620;-0.8951;
508.8000;0.8620;-0.8926;
509.1000;0.8596;-0.8926;
509.4000;0.8596;-0.8951;
509.7000;0.8555;-0.9001;
510.0000;0.8596;-0.8926;
510.3000;0.8596;-0.8951;
510.6000;0.8588;-0.9026;
510.9000;0.8588;-0.8951;
511.2000;0.8580;-0.8951;
511.5000;0.8596;-0.8876;
511.8000;0.8588;-0.8826;
512.1000;0.8571;-0.8901;
512.4000;0.8580;-0.8926;
512.7000;0.8580;-0.8976;
513.0000;0.8604;-0.8926;
513.3000;0.8596;-0.8926;
513.6000;0.8596;-0.8876;
513.9000;0.8596;-0.8876;
514.2000;0.8604;-0.8926;
514.5000;0.8588;-0.8976;
514.8000;0.8588;-0.9051;
515.1000;0.8588;-0.9151;
515.4000;0.8580;-0.9101;
515.7000;0.8645;-0.8901;
516.0000;0.8596;-0.9051;
516.3000;0.8588;-0.9101;
516.6000;0.8596;-0.9101;
516.9000;0.8604;-0.8876;
517.2000;0.8588;-0.8901;
517.5000;0.8571;-0.8926;
517.8000;0.8523;-0.9076;
518.1000;0.8596;-0.8926;
518.4000;0.8588;-0.8976;
518.7000;0.8588;-0.8901;
519.0000;0.8596;-0.8876;
519.3000;0.8596;-0.8826;
519.6000;0.8588;-0.8826;
519.9000;0.8604;-0.8901;
520.2000;0.8580;-0.8976;
520.5000;0.8637;-0.8876;
520.8000;0.8604;-0.8951;
521.1000;0.8596;-0.8926;
521.4000;0.8596;-0.8951;
521.7000;0.8596;-0.8926;
522.0000;0.8580;-0.8951;
522.3000;0.8571;-0.9026;
522.6000;0.8588;-0.9001;
522.9000;0.8677;-0.8826;
523.2000;0.8588;-0.9101;
523.5000;0.8555;-0.9250;
523.8000;0.8580;-0.9151;
524.1000;0.8596;-0.9076;
524.4000;0.8588;-0.9225;
524.7000;0.8588;-0.9101;
525.0000;0.8571;-0.9126;
525.3000;0.8580;-0.9101;
525.6000;0.8596;-0.9051;
525.9000;0.8604;-0.9026;
526.2000;0.8604;-0.9101;
526.5000;0.8588;-0.9175;
526.8000;0.8628;-0.9076;
527.1000;0.8596;-0.9101;
527.4000;0.8596;-0.9151;
527.7000;0.8596;-0.9200;
528.0000;0.8604;-0.9051;
528.3000;0.8580;-0.9026;
528.6000;0.8571;-0.9001;
528.9000;0.8596;-0.8876;
529.2000;0.8596;-0.8851;
529.5000;0.8580;-0.8926;
529.8000;0.8571;-0.8926;
530.1000;0.8588;-0.8976;
530.4000;0.8580;-0.9051;
530.7000;0.8563;-0.8901;
531.0000;0.8588;-0.8901;
531.3000;0.8588;-0.8826;
531.6000;0.8588;-0.8826;
531.9000;0.8612;-0.8801;
532.2000;0.8588;-0.8777;
532.5000;0.8580;-0.8826;
532.8000;0.8539;-0.8901;
533.1000;0.8596;-0.8876;
533.4000;0.8628;-0.8702;
533.7000;0.8637;-0.8702;
534.0000;0.8596;-0.8801;
534.3000;0.8637;-0.8801;
534.6000;0.8637;-0.8777;
534.9000;0.8588;-0.8976;
535.2000;0.8628;-0.8876;
535.5000;0.8555;-0.9026;
535.8000;0.8555;-0.9101;
536.1000;0.8604;-0.8851;
536.4000;0.8563;-0.9076;
536.7000;0.8506;-0.9175;
537.0000;0.8580;-0.8951;
537.3000;0.8588;-0.8951;
537.6000;0.8645;-0.8926;
537.9000;0.8620;-0.9001;
538.2000;0.8588;-0.9151;
538.5000;0.8604;-0.8951;
538.8000;0.8580;-0.9076;
539.1000;0.8580;-0.9126;
539.4000;0.8580;-0.9126;
539.7000;0.8604;-0.9151;
540.0000;0.8604;-0.9076;
540.3000;0.8596;-0.9101;
540.6000;0.8596;-0.9051;
540.9000;0.8596;-0.8951;
541.2000;0.8620;-0.8951;
541.5000;0.8580;-0.9026;
541.8000;0.8596;-0.8951;
542.1000;0.8604;-0.8951;
542.4000;0.8588;-0.8951;
542.7000;0.8596;-0.8926;
543.0000;0.8547;-0.9101;
543.3000;0.8571;-0.9026;
543.6000;0.8563;-0.9076;
543.9000;0.8588;-0.8976;
544.2000;0.8563;-0.9051;
544.5000;0.8531;-0.9151;
544.8000;0.8604;-0.8901;
545.1000;0.8580;-0.8926;
545.4000;0.8571;-0.8901;
545.7000;0.8563;-0.8926;
546.0000;0.8571;-0.8976;
546.3000;0.8596;-0.8851;
546.6000;0.8588;-0.8926;
546.9000;0.8539;-0.8976;
547.2000;0.8580;-0.8876;
547.5000;0.8571;-0.8926;
547.8000;0.8596;-0.8876;
548.1000;0.8588;-0.8926;
548.4000;0.8677;-0.8702;
548.7000;0.8588;-0.8926;
549.0000;0.8563;-0.8951;
549.3000;0.8555;-0.9051;
549.6000;0.8555;-0.9026;
549.9000;0.8580;-0.8951;
550.2000;0.8604;-0.8926;
550.5000;0.8563;-0.8926;
550.8000;0.8580;-0.8926;
551.1000;0.8596;-0.8851;
551.4000;0.8596;-0.8801;
551.7000;0.8571;-0.8901;
552.0000;0.8620;-0.8777;
552.3000;0.8588;-0.8752;
552.6000;0.8580;-0.8876;
552.9000;0.8580;-0.8926;
553.2000;0.8620;-0.8851;
553.5000;0.8580;-0.9001;
553.8000;0.8620;-0.9001;
554.1000;0.8596;-0.9051;
554.4000;0.8596;-0.8926;
554.7000;0.8604;-0.8926;
555.0000;0.8588;-0.8901;
555.3000;0.8580;-0.8876;
555.6000;0.8539;-0.8901;
555.9000;0.8596;-0.8826;
556.2000;0.8588;-0.8777;
556.5000;0.8612;-0.8727;
556.8000;0.8596;-0.8677;
557.1000;0.8580;-0.8702;
557.4000;0.8588;-0.8677;
557.7000;0.8514;-0.8901;
558.0000;0.8588;-0.8801;
558.3000;0.8555;-0.8951;
558.6000;0.8604;-0.8826;
558.9000;0.8588;-0.8976;
559.2000;0.8596;-0.9026;
559.5000;0.8596;-0.9001;
559.8000;0.8571;-0.9001;
560.1000;0.8547;-0.9051;
560.4000;0.8563;-0.8976;
560.7000;0.8523;-0.9001;
561.0000;0.8580;-0.8801;
561.3000;0.8571;-0.8876;
561.6000;0.8563;-0.8926;
561.9000;0.8571;-0.8951;
562.2000;0.8555;-0.9026;
562.5000;0.8596;-0.8901;
562.8000;0.8588;-0.8901;
563.1000;0.8563;-0.8951;
563.4000;0.8596;-0.8851;
563.7000;0.8563;-0.9026;
564.0000;0.8588;-0.9076;
564.3000;0.8580;-0.9101;
564.6000;0.8580;-0.9151;
564.9000;0.8571;-0.9126;
565.2000;0.8580;-0.9051;
565.5000;0.8563;-0.9076;
565.8000;0.8588;-0.9126;
566.1000;0.8571;-0.9151;
566.4000;0.8596;-0.9151;
566.7000;0.8580;-0.9126;
567.0000;0.8588;-0.9126;
567.3000;0.8563;-0.9101;
567.6000;0.8580;-0.9076;
567.9000;0.8620;-0.9026;
568.2000;0.8580;-0.9101;
568.5000;0.8580;-0.9026;
568.8000;0.8539;-0.9076;
569.1000;0.8571;-0.9101;
569.4000;0.8588;-0.9076;
569.7000;0.8563;-0.9101;
570.0000;0.8571;-0.9101;
570.3000;0.8571;-0.9101;
570.6000;0.8555;-0.9250;
570.9000;0.8563;-0.9175;
571.2000;0.8580;-0.9151;
571.5000;0.8539;-0.9175;
571.8000;0.8588;-0.9101;
572.1000;0.8637;-0.8951;
572.4000;0.8563;-0.9126;
572.7000;0.8596;-0.9076;
573.0000;0.8571;-0.9225;
573.3000;0.8580;-0.9225;
573.6000;0.8596;-0.9300;
573.9000;0.8588;-0.9275;
574.2000;0.8580;-0.9275;
574.5000;0.8588;-0.9200;
574.8000;0.8563;-0.9225;
575.1000;0.8563;-0.9275;
575.4000;0.8588;-0.9175;
575.7000;0.8563;-0.9151;
576.0000;0.8588;-0.9151;
576.3000;0.8571;-0.9175;
576.6000;0.8588;-0.9051;
576.9000;0.8571;-0.9175;
577.2000;0.8596;-0.9175;
577.5000;0.8588;-0.9325;
577.8000;0.8604;-0.9300;
578.1000;0.8596;-0.9275;
578.4000;0.8588;-0.9275;
578.7000;0.8604;-0.9300;
579.0000;0.8571;-0.9400;
579.3000;0.8588;-0.9350;
579.6000;0.8596;-0.9300;
579.9000;0.8580;-0.9350;
580.2000;0.8588;-0.9225;
580.5000;0.8563;-0.9275;
580.8000;0.8580;-0.9300;
581.1000;0.8588;-0.9275;
581.4000;0.8580;-0.9325;
581.7000;0.8539;-0.9425;
582.0000;0.8571;-0.9400;
582.3000;0.8555;-0.9574;
582.6000;0.8563;-0.9525;
582.9000;0.8563;-0.9450;
583.2000;0.8580;-0.9325;
583.5000;0.8580;-0.9350;
583.8000;0.8563;-0.9400;
584.1000;0.8588;-0.9250;
584.4000;0.8588;-0.9225;
584.7000;0.8588;-0.9126;
585.0000;0.8580;-0.9225;
585.3000;0.8539;-0.9350;
585.6000;0.8571;-0.9200;
585.9000;0.8588;-0.9225;
586.2000;0.8539;-0.9325;
586.5000;0.8563;-0.9300;
586.8000;0.8588;-0.9151;
587.1000;0.8580;-0.9101;
587.4000;0.8580;-0.9101;
587.7000;0.8571;-0.9126;
588.0000;0.8596;-0.9126;
588.3000;0.8612;-0.9101;
588.6000;0.8588;-0.9151;
588.9000;0.8588;-0.9200;
589.2000;0.8580;-0.9250;
589.5000;0.8588;-0.9175;
589.8000;0.8604;-0.9225;
590.1000;0.8588;-0.9250;
590.4000;0.8580;-0.9200;
590.7000;0.8571;-0.9101;
591.0000;0.8539;-0.9151;
591.3000;0.8588;-0.9126;
591.6000;0.8588;-0.9200;
591.9000;0.8571;-0.9275;
592.2000;0.8580;-0.9175;
592.5000;0.8612;-0.9076;
592.8000;0.8571;-0.9151;
593.1000;0.8547;-0.9200;
593.4000;0.8580;-0.9175;
593.7000;0.8580;-0.9200;
594.0000;0.8588;-0.9225;
594.3000;0.8580;-0.9225;
594.6000;0.8612;-0.9175;
594.9000;0.8580;-0.9200;
595.2000;0.8563;-0.9175;
595.5000;0.8555;-0.9225;
595.8000;0.8596;-0.9126;
596.1000;0.8588;-0.9200;
596.4000;0.8571;-0.9151;
596.7000;0.8571;-0.9051;
597.0000;0.8620;-0.9001;
597.3000;0.8588;-0.9126;
597.6000;0.8580;-0.9175;
597.9000;0.8563;-0.9250;
598.2000;0.8588;-0.9101;
598.5000;0.8588;-0.9076;
598.8000;0.8580;-0.9101;
599.1000;0.8580;-0.9151;
599.4000;0.8571;-0.9076;
599.7000;0.8596;-0.9051;
600.0000;0.8580;-0.9051;
600.3000;0.8563;-0.9200;
600.6000;0.8457;-0.9500;
600.9000;0.8327;-0.9724;
601.2000;0.8156;-0.9948;
601.5000;0.7969;-1.0248;
601.8000;0.7749;-1.0422;
602.1000;0.7595;-1.0696;
602.4000;0.7432;-1.0821;
602.7000;0.7277;-1.1070;
603.0000;0.7131;-1.1195;
603.3000;0.7009;-1.1295;
603.6000;0.6943;-1.1320;
603.9000;0.6772;-1.1569;
604.2000;0.6683;-1.1594;
604.5000;0.6618;-1.1694;
604.8000;0.6512;-1.1943;
605.1000;0.6422;-1.2068;
605.4000;0.6349;-1.2118;
605.7000;0.6243;-1.2342;
606.0000;0.6211;-1.2417;
606.3000;0.6170;-1.2492;
606.6000;0.6097;-1.2517;
606.9000;0.6032;-1.2616;
607.2000;0.5999;-1.2716;
607.5000;0.5967;-1.2691;
607.8000;0.5918;-1.2741;
608.1000;0.5869;-1.2816;
608.4000;0.5836;-1.2866;
608.7000;0.5796;-1.2866;
609.0000;0.5771;-1.2965;
609.3000;0.5828;-1.2791;
609.6000;0.5706;-1.3115;
609.9000;0.5657;-1.3140;
610.2000;0.5633;-1.3015;
610.5000;0.5584;-1.3140;
610.8000;0.5560;-1.3040;
611.1000;0.5527;-1.3165;
611.4000;0.5511;-1.3165;
611.7000;0.5503;-1.3140;
612.0000;0.5478;-1.3065;
612.3000;0.5429;-1.3165;
612.6000;0.5446;-1.3190;
612.9000;0.5372;-1.3314;
613.2000;0.5372;-1.3265;
613.5000;0.5356;-1.3265;
613.8000;0.5340;-1.3240;
614.1000;0.5291;-1.3289;
614.4000;0.5307;-1.3289;
614.7000;0.5299;-1.3265;
615.0000;0.5226;-1.3364;
615.3000;0.5267;-1.3240;
615.6000;0.5275;-1.3165;
615.9000;0.5218;-1.3314;
616.2000;0.5218;-1.3414;
616.5000;0.5193;-1.3464;
616.8000;0.5185;-1.3414;
617.1000;0.5161;-1.3439;
617.4000;0.5161;-1.3364;
617.7000;0.5153;-1.3364;
618.0000;0.5185;-1.3240;
618.3000;0.5120;-1.3439;
618.6000;0.5112;-1.3464;
618.9000;0.5088;-1.3414;
619.2000;0.5096;-1.3364;
619.5000;0.5079;-1.3389;
619.8000;0.5055;-1.3339;
620.1000;0.5047;-1.3414;
620.4000;0.5047;-1.3439;
620.7000;0.5031;-1.3539;
621.0000;0.5031;-1.3564;
621.3000;0.5022;-1.3639;
621.6000;0.4998;-1.3738;
621.9000;0.4998;-1.3589;
622.2000;0.4949;-1.3763;
622.5000;0.4974;-1.3639;
622.8000;0.4998;-1.3489;
623.1000;0.4990;-1.3514;
623.4000;0.4941;-1.3589;
623.7000;0.4949;-1.3489;
624.0000;0.4925;-1.3539;
624.3000;0.4925;-1.3489;
624.6000;0.4982;-1.3314;
624.9000;0.4925;-1.3489;
625.2000;0.4908;-1.3514;
625.5000;0.4892;-1.3539;
625.8000;0.4900;-1.3464;
626.1000;0.4892;-1.3489;
626.4000;0.4900;-1.3514;
626.7000;0.4892;-1.3489;
627.0000;0.4908;-1.3464;
627.3000;0.4835;-1.3614;
627.6000;0.4868;-1.3464;
627.9000;0.4868;-1.3539;
628.2000;0.4843;-1.3589;
628.5000;0.4860;-1.3514;
628.8000;0.4843;-1.3389;
629.1000;0.4860;-1.3389;
629.4000;0.4851;-1.3414;
629.7000;0.4827;-1.3389;
630.0000;0.4819;-1.3464;
630.3000;0.4851;-1.3439;
630.6000;0.4827;-1.3589;
630.9000;0.4811;-1.3589;
631.2000;0.4721;-1.3788;
631.5000;0.4819;-1.3539;
631.8000;0.4835;-1.3564;
632.1000;0.4803;-1.3813;
632.4000;0.4786;-1.3788;
632.7000;0.4794;-1.3788;
633.0000;0.4786;-1.3763;
633.3000;0.4762;-1.3813;
633.6000;0.4786;-1.3788;
633.9000;0.4778;-1.3813;
634.2000;0.4770;-1.3788;
634.5000;0.4770;-1.3639;
634.8000;0.4721;-1.3713;
635.1000;0.4713;-1.3738;
635.4000;0.4746;-1.3614;
635.7000;0.4762;-1.3539;
636.0000;0.4713;-1.3713;
636.3000;0.4721;-1.3713;
636.6000;0.4721;-1.3763;
636.9000;0.4689;-1.3788;
637.2000;0.4705;-1.3738;
637.5000;0.4689;-1.3738;
637.8000;0.4713;-1.3614;
638.1000;0.4705;-1.3614;
638.4000;0.4713;-1.3639;
638.7000;0.4705;-1.3688;
639.0000;0.4697;-1.3564;
639.3000;0.4713;-1.3614;
639.6000;0.4729;-1.3564;
639.9000;0.4689;-1.3564;
640.2000;0.4672;-1.3539;
640.5000;0.4591;-1.3738;
640.8000;0.4672;-1.3489;
641.1000;0.4591;-1.3813;
641.4000;0.4615;-1.3813;
641.7000;0.4648;-1.3713;
642.0000;0.4681;-1.3688;
642.3000;0.4672;-1.3713;
642.6000;0.4664;-1.3738;
642.9000;0.4689;-1.3614;
643.2000;0.4656;-1.3639;
643.5000;0.4656;-1.3688;
643.8000;0.4648;-1.3639;
644.1000;0.4632;-1.3614;
644.4000;0.4656;-1.3564;
644.7000;0.4656;-1.3514;
645.0000;0.4640;-1.3489;
645.3000;0.4624;-1.3539;
645.6000;0.4656;-1.3389;
645.9000;0.4599;-1.3539;
646.2000;0.4599;-1.3738;
646.5000;0.4632;-1.3738;
646.8000;0.4648;-1.3589;
647.1000;0.4632;-1.3614;
647.4000;0.4607;-1.3738;
647.7000;0.4624;-1.3713;
648.0000;0.4607;-1.3738;
648.3000;0.4575;-1.3813;
648.6000;0.4640;-1.3639;
648.9000;0.4632;-1.3564;
649.2000;0.4640;-1.3564;
649.5000;0.4607;-1.3639;
649.8000;0.4607;-1.3639;
650.1000;0.4599;-1.3688;
650.4000;0.4615;-1.3663;
650.7000;0.4575;-1.3738;
651.0000;0.4583;-1.3639;
651.3000;0.4550;-1.3763;
651.6000;0.4567;-1.3713;
651.9000;0.4550;-1.3788;
652.2000;0.4567;-1.3813;
652.5000;0.4583;-1.3713;
652.8000;0.4591;-1.3663;
653.1000;0.4567;-1.3663;
653.4000;0.4567;-1.3663;
653.7000;0.4567;-1.3639;
654.0000;0.4567;-1.3614;
654.3000;0.4567;-1.3663;
654.6000;0.4567;-1.3738;
654.9000;0.4558;-1.3838;
655.2000;0.4567;-1.3763;
655.5000;0.4558;-1.3663;
655.8000;0.4615;-1.3539;
656.1000;0.4558;-1.3813;
656.4000;0.4567;-1.3788;
656.7000;0.4542;-1.3763;
657.0000;0.4550;-1.3713;
657.3000;0.4550;-1.3639;
657.6000;0.4542;-1.3589;
657.9000;0.4510;-1.3713;
658.2000;0.4534;-1.3663;
658.5000;0.4534;-1.3713;
658.8000;0.4526;-1.3788;
659.1000;0.4567;-1.3763;
659.4000;0.4510;-1.3763;
659.7000;0.4534;-1.3763;
660.0000;0.4518;-1.3788;
660.3000;0.4510;-1.3788;
660.6000;0.4518;-1.3813;
660.9000;0.4575;-1.3713;
661.2000;0.4501;-1.3863;
661.5000;0.4493;-1.3863;
661.8000;0.4436;-1.3988;
662.1000;0.4567;-1.3589;
662.4000;0.4567;-1.3514;
662.7000;0.4501;-1.3639;
663.0000;0.4485;-1.3614;
663.3000;0.4501;-1.3639;
663.6000;0.4501;-1.3564;
663.9000;0.4477;-1.3713;
664.2000;0.4485;-1.3688;
664.5000;0.4453;-1.3713;
664.8000;0.4412;-1.3763;
665.1000;0.4493;-1.3713;
665.4000;0.4477;-1.3688;
665.7000;0.4461;-1.3688;
666.0000;0.4428;-1.3838;
666.3000;0.4477;-1.3614;
666.6000;0.4469;-1.3639;
666.9000;0.4469;-1.3639;
667.2000;0.4477;-1.3688;
667.5000;0.4477;-1.3738;
667.8000;0.4526;-1.3639;
668.1000;0.4477;-1.3663;
668.4000;0.4461;-1.3688;
668.7000;0.4477;-1.3614;
669.0000;0.4477;-1.3539;
669.3000;0.4453;-1.3539;
669.6000;0.4469;-1.3539;
669.9000;0.4461;-1.3564;
670.2000;0.4428;-1.3713;
670.5000;0.4453;-1.3614;
670.8000;0.4363;-1.3838;
671.1000;0.4461;-1.3639;
671.4000;0.4453;-1.3688;
671.7000;0.4453;-1.3639;
672.0000;0.4428;-1.3614;
672.3000;0.4453;-1.3539;
672.6000;0.4436;-1.3614;
672.9000;0.4436;-1.3614;
673.2000;0.4444;-1.3539;
673.5000;0.4404;-1.3614;
673.8000;0.4428;-1.3489;
674.1000;0.4436;-1.3589;
674.4000;0.4420;-1.3614;
674.7000;0.4428;-1.3564;
675.0000;0.4322;-1.3838;
675.3000;0.4436;-1.3514;
675.6000;0.4453;-1.3439;
675.9000;0.4420;-1.3514;
676.2000;0.4485;-1.3364;
676.5000;0.4518;-1.3265;
676.8000;0.4404;-1.3564;
677.1000;0.4444;-1.3514;
677.4000;0.4404;-1.3614;
677.7000;0.4420;-1.3639;
678.0000;0.4412;-1.3663;
678.3000;0.4404;-1.3688;
678.6000;0.4412;-1.3639;
678.9000;0.4412;-1.3589;
679.2000;0.4420;-1.3639;
679.5000;0.4412;-1.3639;
679.8000;0.4412;-1.3614;
680.1000;0.4428;-1.3614;
680.4000;0.4420;-1.3788;
680.7000;0.4404;-1.3938;
681.0000;0.4396;-1.3888;
681.3000;0.4404;-1.3863;
681.6000;0.4396;-1.3838;
681.9000;0.4387;-1.3713;
682.2000;0.4396;-1.3614;
682.5000;0.4379;-1.3539;
682.8000;0.4387;-1.3464;
683.1000;0.4387;-1.3464;
683.4000;0.4363;-1.3564;
683.7000;0.4387;-1.3489;
684.0000;0.4396;-1.3464;
684.3000;0.4379;-1.3564;
684.6000;0.4379;-1.3614;
684.9000;0.4379;-1.3639;
685.2000;0.4396;-1.3663;
685.5000;0.4396;-1.3663;
685.8000;0.4379;-1.3763;
686.1000;0.4379;-1.3763;
686.4000;0.4428;-1.3639;
686.7000;0.4355;-1.3813;
687.0000;0.4363;-1.3713;
687.3000;0.4371;-1.3663;
687.6000;0.4306;-1.3713;
687.9000;0.4363;-1.3514;
688.2000;0.4347;-1.3539;
688.5000;0.4371;-1.3439;
688.8000;0.4347;-1.3514;
689.1000;0.4339;-1.3489;
689.4000;0.4363;-1.3414;
689.7000;0.4347;-1.3439;
690.0000;0.4339;-1.3514;
690.3000;0.4371;-1.3464;
690.6000;0.4363;-1.3514;
690.9000;0.4339;-1.3514;
691.2000;0.4355;-1.3464;
691.5000;0.4355;-1.3514;
691.8000;0.4363;-1.3489;
692.1000;0.4330;-1.3514;
692.4000;0.4339;-1.3589;
692.7000;0.4347;-1.3614;
693.0000;0.4322;-1.3713;
693.3000;0.4347;-1.3639;
693.6000;0.4363;-1.3539;
693.9000;0.4314;-1.3663;
694.2000;0.4347;-1.3539;
694.5000;0.4363;-1.3539;
694.8000;0.4339;-1.3713;
695.1000;0.4404;-1.3464;
695.4000;0.4347;-1.3589;
695.7000;0.4339;-1.3589;
696.0000;0.4339;-1.3589;
696.3000;0.4314;-1.3663;
696.6000;0.4330;-1.3589;
696.9000;0.4347;-1.3539;
697.2000;0.4322;-1.3539;
697.5000;0.4322;-1.3514;
697.8000;0.4314;-1.3489;
698.1000;0.4322;-1.3489;
698.4000;0.4330;-1.3439;
698.7000;0.4290;-1.3539;
699.0000;0.4363;-1.3389;
699.3000;0.4330;-1.3564;
699.6000;0.4314;-1.3564;
699.9000;0.4306;-1.3589;
700.2000;0.4363;-1.3614;
700.5000;0.4306;-1.3713;
700.8000;0.4314;-1.3639;
701.1000;0.4282;-1.3614;
701.4000;0.4306;-1.3564;
701.7000;0.4314;-1.3514;
702.0000;0.4314;-1.3439;
702.3000;0.4282;-1.3539;
702.6000;0.4339;-1.3389;
702.9000;0.4282;-1.3539;
703.2000;0.4265;-1.3564;
703.5000;0.4322;-1.3489;
703.8000;0.4314;-1.3514;
704.1000;0.4314;-1.3564;
704.4000;0.4290;-1.3614;
704.7000;0.4290;-1.3539;
705.0000;0.4298;-1.3564;
705.3000;0.4298;-1.3639;
705.6000;0.4314;-1.3564;
705.9000;0.4282;-1.3589;
706.2000;0.4330;-1.3489;
706.5000;0.4200;-1.3763;
706.8000;0.4290;-1.3489;
707.1000;0.4306;-1.3389;
707.4000;0.4290;-1.3489;
707.7000;0.4330;-1.3314;
708.0000;0.4298;-1.3414;
708.3000;0.4298;-1.3439;
708.6000;0.4282;-1.3414;
708.9000;0.4241;-1.3539;
709.2000;0.4290;-1.3439;
709.5000;0.4282;-1.3464;
709.8000;0.4290;-1.3414;
710.1000;0.4298;-1.3464;
710.4000;0.4290;-1.3514;
710.7000;0.4298;-1.3514;
711.0000;0.4249;-1.3464;
711.3000;0.4282;-1.3364;
711.6000;0.4176;-1.3713;
711.9000;0.4274;-1.3439;
712.2000;0.4282;-1.3389;
712.5000;0.4282;-1.3414;
712.8000;0.4274;-1.3339;
713.1000;0.4265;-1.3339;
713.4000;0.4265;-1.3314;
713.7000;0.4282;-1.3314;
714.0000;0.4274;-1.3314;
714.3000;0.4249;-1.3389;
714.6000;0.4257;-1.3314;
714.9000;0.4306;-1.3165;
715.2000;0.4274;-1.3215;
715.5000;0.4282;-1.3240;
715.8000;0.4282;-1.3215;
716.1000;0.4330;-1.3165;
716.4000;0.4274;-1.3314;
716.7000;0.4282;-1.3339;
717.0000;0.4274;-1.3339;
717.3000;0.4249;-1.3464;
717.6000;0.4290;-1.3364;
717.9000;0.4265;-1.3414;
718.2000;0.4298;-1.3265;
718.5000;0.4249;-1.3414;
718.8000;0.4249;-1.3464;
719.1000;0.4249;-1.3564;
719.4000;0.4241;-1.3639;
719.7000;0.4200;-1.3763;
720.0000;0.4217;-1.3663;
720.3000;0.4241;-1.3564;
720.6000;0.4249;-1.3514;
720.9000;0.4249;-1.3539;
721.2000;0.4241;-1.3539;
721.5000;0.4249;-1.3514;
721.8000;0.4274;-1.3389;
722.1000;0.4192;-1.3614;
722.4000;0.4274;-1.3464;
722.7000;0.4249;-1.3514;
723.0000;0.4249;-1.3539;
723.3000;0.4208;-1.3564;
723.6000;0.4233;-1.3539;
723.9000;0.4249;-1.3514;
724.2000;0.4241;-1.3414;
724.5000;0.4225;-1.3389;
724.8000;0.4200;-1.3439;
725.1000;0.4233;-1.3289;
725.4000;0.4241;-1.3265;
725.7000;0.4233;-1.3289;
726.0000;0.4241;-1.3265;
726.3000;0.4265;-1.3289;
726.6000;0.4233;-1.3414;
726.9000;0.4208;-1.3489;
727.2000;0.4249;-1.3389;
727.5000;0.4257;-1.3414;
727.8000;0.4233;-1.3489;
728.1000;0.4241;-1.3589;
728.4000;0.4200;-1.3713;
728.7000;0.4233;-1.3614;
729.0000;0.4241;-1.3539;
729.3000;0.4241;-1.3639;
729.6000;0.4217;-1.3738;
729.9000;0.4233;-1.3663;
730.2000;0.4233;-1.3713;
730.5000;0.4225;-1.3713;
730.8000;0.4298;-1.3439;
731.1000;0.4200;-1.3589;
731.4000;0.4241;-1.3389;
731.7000;0.4233;-1.3414;
732.0000;0.4225;-1.3539;
732.3000;0.4217;-1.3564;
732.6000;0.4241;-1.3464;
732.9000;0.4233;-1.3514;
733.2000;0.4208;-1.3564;
733.5000;0.4208;-1.3614;
733.8000;0.4208;-1.3639;
734.1000;0.4160;-1.3788;
734.4000;0.4208;-1.3738;
734.7000;0.4176;-1.3788;
735.0000;0.4249;-1.3663;
735.3000;0.4217;-1.3688;
735.6000;0.4208;-1.3639;
735.9000;0.4184;-1.3564;
736.2000;0.4233;-1.3439;
736.5000;0.4225;-1.3439;
736.8000;0.4225;-1.3339;
737.1000;0.4208;-1.3414;
737.4000;0.4217;-1.3389;
737.7000;0.4241;-1.3389;
738.0000;0.4241;-1.3414;
738.3000;0.4176;-1.3589;
738.6000;0.4208;-1.3514;
738.9000;0.4176;-1.3614;
739.2000;0.4200;-1.3539;
739.5000;0.4200;-1.3539;
739.8000;0.4200;-1.3539;
740.1000;0.4217;-1.3439;
740.4000;0.4208;-1.3389;
740.7000;0.4217;-1.3389;
741.0000;0.4160;-1.3639;
741.3000;0.4208;-1.3514;
741.6000;0.4217;-1.3489;
741.9000;0.4208;-1.3414;
742.2000;0.4176;-1.3389;
742.5000;0.4192;-1.3265;
742.8000;0.4233;-1.3015;
743.1000;0.4184;-1.3115;
743.4000;0.4184;-1.3190;
743.7000;0.4176;-1.3215;
744.0000;0.4208;-1.3240;
744.3000;0.4200;-1.3339;
744.6000;0.4192;-1.3364;
744.9000;0.4192;-1.3339;
745.2000;0.4192;-1.3265;
745.5000;0.4192;-1.3265;
745.8000;0.4200;-1.3265;
746.1000;0.4184;-1.3339;
746.4000;0.4192;-1.3240;
746.7000;0.4217;-1.3065;
747.0000;0.4176;-1.3240;
747.3000;0.4143;-1.3339;
747.6000;0.4176;-1.3190;
747.9000;0.4200;-1.3115;
748.2000;0.4176;-1.3140;
748.5000;0.4184;-1.3165;
748.8000;0.4160;-1.3215;
749.1000;0.4160;-1.3140;
749.4000;0.4168;-1.3240;
749.7000;0.4151;-1.3314;
750.0000;0.4160;-1.3314;
750.3000;0.4192;-1.3265;
750.6000;0.4168;-1.3289;
750.9000;0.4143;-1.3389;
751.2000;0.4160;-1.3339;
751.5000;0.4192;-1.3265;
751.8000;0.4200;-1.3364;
752.1000;0.4176;-1.3389;
752.4000;0.4184;-1.3389;
752.7000;0.4176;-1.3514;
753.0000;0.4160;-1.3514;
753.3000;0.4176;-1.3464;
753.6000;0.4168;-1.3489;
753.9000;0.4184;-1.3464;
754.2000;0.4168;-1.3564;
754.5000;0.4168;-1.3564;
754.8000;0.4217;-1.3414;
755.1000;0.4176;-1.3464;
755.4000;0.4168;-1.3514;
755.7000;0.4127;-1.3489;
756.0000;0.4168;-1.3439;
756.3000;0.4151;-1.3414;
756.6000;0.4078;-1.3589;
756.9000;0.4168;-1.3364;
757.2000;0.4160;-1.3414;
757.5000;0.4168;-1.3389;
757.8000;0.4151;-1.3414;
758.1000;0.4265;-1.3040;
758.4000;0.4184;-1.3265;
758.7000;0.4160;-1.3389;
759.0000;0.4168;-1.3289;
759.3000;0.4176;-1.3190;
759.6000;0.4208;-1.3040;
759.9000;0.4143;-1.3190;
760.2000;0.4151;-1.3215;
760.5000;0.4160;-1.3165;
760.8000;0.4135;-1.3240;
761.1000;0.4135;-1.3289;
761.4000;0.4143;-1.3289;
761.7000;0.4168;-1.3190;
762.0000;0.4160;-1.3314;
762.3000;0.4151;-1.3389;
762.6000;0.4143;-1.3364;
762.9000;0.4176;-1.3265;
763.2000;0.4151;-1.3339;
763.5000;0.4143;-1.3364;
763.8000;0.4135;-1.3414;
764.1000;0.4135;-1.3464;
764.4000;0.4143;-1.3389;
764.7000;0.4151;-1.3389;
765.0000;0.4127;-1.3414;
765.3000;0.4160;-1.3289;
765.6000;0.4143;-1.3364;
765.9000;0.4160;-1.3289;
766.2000;0.4151;-1.3364;
766.5000;0.4127;-1.3389;
766.8000;0.4151;-1.3314;
767.1000;0.4160;-1.3389;
767.4000;0.4217;-1.3240;
767.7000;0.4119;-1.3439;
768.0000;0.4135;-1.3439;
768.3000;0.4135;-1.3514;
768.6000;0.4143;-1.3414;
768.9000;0.4135;-1.3489;
769.2000;0.4143;-1.3439;
769.5000;0.4135;-1.3464;
769.8000;0.4135;-1.3389;
770.1000;0.4135;-1.3389;
770.4000;0.4135;-1.3339;
770.7000;0.4135;-1.3464;
771.0000;0.4143;-1.3464;
771.3000;0.4151;-1.3389;
771.6000;0.4135;-1.3439;
771.9000;0.4119;-1.3489;
772.2000;0.4070;-1.3514;
772.5000;0.4119;-1.3364;
772.8000;0.4103;-1.3339;
773.1000;0.4127;-1.3289;
773.4000;0.4119;-1.3265;
773.7000;0.4135;-1.3339;
774.0000;0.4111;-1.3464;
774.3000;0.4111;-1.3439;
774.6000;0.4127;-1.3389;
774.9000;0.4127;-1.3364;
775.2000;0.4119;-1.3364;
775.5000;0.4111;-1.3389;
775.8000;0.4119;-1.3364;
776.1000;0.4111;-1.3389;
776.4000;0.4119;-1.3339;
776.7000;0.4111;-1.3339;
777.0000;0.4111;-1.3364;
777.3000;0.4103;-1.3364;
777.6000;0.4127;-1.3339;
777.9000;0.4143;-1.3090;
778.2000;0.4127;-1.3140;
778.5000;0.4094;-1.3140;
778.8000;0.4111;-1.3115;
779.1000;0.4135;-1.3015;
779.4000;0.4119;-1.3065;
779.7000;0.4119;-1.3165;
780.0000;0.4103;-1.3190;
780.3000;0.4103;-1.3190;
780.6000;0.4119;-1.3215;
780.9000;0.4103;-1.3265;
781.2000;0.4111;-1.3289;
781.5000;0.4111;-1.3314;
781.8000;0.4111;-1.3339;
782.1000;0.4094;-1.3414;
782.4000;0.4143;-1.3289;
782.7000;0.4127;-1.3190;
783.0000;0.4094;-1.3240;
783.3000;0.4119;-1.3289;
783.6000;0.4111;-1.3339;
783.9000;0.4135;-1.3314;
784.2000;0.4103;-1.3389;
784.5000;0.4103;-1.3389;
784.8000;0.4103;-1.3364;
785.1000;0.4046;-1.3564;
785.4000;0.4111;-1.3364;
785.7000;0.4094;-1.3389;
786.0000;0.4094;-1.3439;
786.3000;0.4119;-1.3439;
786.6000;0.4111;-1.3464;
786.9000;0.4111;-1.3439;
787.2000;0.4078;-1.3564;
787.5000;0.4111;-1.3539;
787.8000;0.4103;-1.3489;
788.1000;0.4029;-1.3589;
788.4000;0.4103;-1.3389;
788.7000;0.4119;-1.3314;
789.0000;0.4119;-1.3339;
789.3000;0.4103;-1.3314;
789.6000;0.4111;-1.3240;
789.9000;0.4127;-1.3265;
790.2000;0.4111;-1.3240;
790.5000;0.4119;-1.3165;
790.8000;0.4103;-1.3339;
791.1000;0.4005;-1.3663;
791.4000;0.4094;-1.3389;
791.7000;0.4103;-1.3289;
792.0000;0.4094;-1.3265;
792.3000;0.4094;-1.3265;
792.6000;0.4103;-1.3240;
792.9000;0.4094;-1.3289;
793.2000;0.4094;-1.3314;
793.5000;0.4086;-1.3414;
793.8000;0.4094;-1.3389;
794.1000;0.4062;-1.3414;
794.4000;0.4086;-1.3289;
794.7000;0.4086;-1.3289;
795.0000;0.4111;-1.3240;
795.3000;0.4103;-1.3265;
795.6000;0.4086;-1.3289;
795.9000;0.4127;-1.3165;
796.2000;0.4086;-1.3364;
796.5000;0.4094;-1.3339;
796.8000;0.4119;-1.3364;
797.1000;0.4094;-1.3389;
797.4000;0.4094;-1.3389;
797.7000;0.4094;-1.3389;
798.0000;0.4103;-1.3289;
798.3000;0.4094;-1.3289;
798.6000;0.4086;-1.3289;
798.9000;0.4094;-1.3265;
799.2000;0.4111;-1.3289;
799.5000;0.4111;-1.3265;
799.8000;0.4103;-1.3265;
800.1000;0.4119;-1.3190;
800.4000;0.4111;-1.3215;
800.7000;0.4070;-1.3314;
801.0000;0.4119;-1.3215;
801.3000;0.4094;-1.3289;
801.6000;0.4094;-1.3314;
801.9000;0.4103;-1.3339;
802.2000;0.4094;-1.3314;
802.5000;0.4103;-1.3289;
802.8000;0.4094;-1.3289;
803.1000;0.4086;-1.3265;
803.4000;0.4086;-1.3265;
803.7000;0.4078;-1.3364;
804.0000;0.4086;-1.3389;
804.3000;0.4094;-1.3364;
804.6000;0.4094;-1.3314;
804.9000;0.4103;-1.3265;
805.2000;0.4103;-1.3215;
805.5000;0.4160;-1.3115;
805.8000;0.4119;-1.3265;
806.1000;0.4103;-1.3389;
806.4000;0.4078;-1.3389;
806.7000;0.4143;-1.3215;
807.0000;0.4094;-1.3339;
807.3000;0.4078;-1.3240;
807.6000;0.4086;-1.3215;
807.9000;0.4054;-1.3339;
808.2000;0.4078;-1.3215;
808.5000;0.4086;-1.3215;
808.8000;0.4054;-1.3289;
809.1000;0.4143;-1.3115;
809.4000;0.4127;-1.3115;
809.7000;0.4094;-1.3115;
810.0000;0.4078;-1.3165;
810.3000;0.4078;-1.3140;
810.6000;0.4094;-1.3115;
810.9000;0.4070;-1.3289;
811.2000;0.4086;-1.3265;
811.5000;0.4094;-1.3190;
811.8000;0.4037;-1.3339;
812.1000;0.4062;-1.3364;
812.4000;0.4070;-1.3364;
812.7000;0.4062;-1.3339;
813.0000;0.4086;-1.3240;
813.3000;0.4078;-1.3314;
813.6000;0.4062;-1.3389;
813.9000;0.4070;-1.3215;
814.2000;0.4078;-1.3190;
814.5000;0.4094;-1.3215;
814.8000;0.4070;-1.3314;
815.1000;0.4160;-1.3140;
815.4000;0.4078;-1.3339;
815.7000;0.4119;-1.3190;
816.0000;0.4086;-1.3215;
816.3000;0.4094;-1.3240;
816.6000;0.4078;-1.3364;
816.9000;0.4135;-1.3215;
817.2000;0.4070;-1.3414;
817.5000;0.4135;-1.3314;
817.8000;0.4151;-1.3140;
818.1000;0.4062;-1.3240;
818.4000;0.4086;-1.3190;
818.7000;0.4094;-1.3190;
819.0000;0.4046;-1.3165;
819.3000;0.4054;-1.3090;
819.6000;0.4078;-1.2940;
819.9000;0.4054;-1.2915;
820.2000;0.4127;-1.2766;
820.5000;0.4070;-1.3015;
820.8000;0.4046;-1.2990;
821.1000;0.4037;-1.3015;
821.4000;0.4054;-1.2965;
821.7000;0.4054;-1.3090;
822.0000;0.4037;-1.3065;
822.3000;0.4062;-1.3065;
822.6000;0.4037;-1.3090;
822.9000;0.4078;-1.2965;
823.2000;0.4062;-1.2940;
823.5000;0.4037;-1.2965;
823.8000;0.4062;-1.2841;
824.1000;0.4062;-1.2841;
824.4000;0.4062;-1.2866;
824.7000;0.4086;-1.2791;
825.0000;0.4046;-1.2866;
825.3000;0.4070;-1.2891;
825.6000;0.4021;-1.2990;
825.9000;0.3989;-1.3090;
826.2000;0.4054;-1.2965;
826.5000;0.4054;-1.3015;
826.8000;0.4062;-1.3065;
827.1000;0.4078;-1.2915;
827.4000;0.4054;-1.2990;
827.7000;0.4046;-1.3065;
828.0000;0.4046;-1.3065;
828.3000;0.4070;-1.3115;
828.6000;0.4046;-1.3165;
828.9000;0.4005;-1.3240;
829.2000;0.4046;-1.3090;
829.5000;0.4119;-1.2940;
829.8000;0.4062;-1.3215;
830.1000;0.4103;-1.3215;
830.4000;0.4037;-1.3414;
830.7000;0.4037;-1.3414;
831.0000;0.4062;-1.3314;
831.3000;0.4054;-1.3190;
831.6000;0.4054;-1.3240;
831.9000;0.4029;-1.3314;
832.2000;0.3964;-1.3464;
832.5000;0.4046;-1.3265;
832.8000;0.4046;-1.3240;
833.1000;0.4094;-1.3140;
833.4000;0.4070;-1.3190;
833.7000;0.4062;-1.3190;
834.0000;0.4054;-1.3314;
834.3000;0.4046;-1.3240;
834.6000;0.4005;-1.3289;
834.9000;0.4094;-1.3015;
835.2000;0.4111;-1.3040;
835.5000;0.4054;-1.3115;
835.8000;0.4078;-1.3090;
836.1000;0.4037;-1.3190;
836.4000;0.4054;-1.3190;
836.7000;0.4046;-1.3289;
837.0000;0.4037;-1.3439;
837.3000;0.4054;-1.3414;
837.6000;0.4046;-1.3514;
837.9000;0.4021;-1.3589;
838.2000;0.4029;-1.3589;
838.5000;0.4046;-1.3564;
838.8000;0.4054;-1.3564;
839.1000;0.4046;-1.3589;
839.4000;0.4062;-1.3639;
839.7000;0.3989;-1.3788;
840.0000;0.4070;-1.3464;
840.3000;0.4054;-1.3414;
840.6000;0.4054;-1.3414;
840.9000;0.3980;-1.3539;
841.2000;0.4046;-1.3314;
841.5000;0.4054;-1.3265;
841.8000;0.3989;-1.3389;
842.1000;0.4046;-1.3215;
842.4000;0.4046;-1.3165;
842.7000;0.4037;-1.3140;
843.0000;0.4054;-1.3090;
843.3000;0.4046;-1.3090;
843.6000;0.3964;-1.3215;
843.9000;0.4013;-1.3140;
844.2000;0.4037;-1.3090;
844.5000;0.4013;-1.3190;
844.8000;0.4046;-1.3215;
845.1000;0.4013;-1.3339;
845.4000;0.4037;-1.3289;
845.7000;0.4046;-1.3339;
846.0000;0.4037;-1.3314;
846.3000;0.4054;-1.3314;
846.6000;0.4078;-1.3240;
846.9000;0.4037;-1.3289;
847.2000;0.4046;-1.3289;
847.5000;0.4046;-1.3240;
847.8000;0.4037;-1.3265;
848.1000;0.4021;-1.3265;
848.4000;0.4094;-1.3190;
848.7000;0.4046;-1.3240;
849.0000;0.4078;-1.3065;
849.3000;0.4037;-1.3165;
849.6000;0.3997;-1.3240;
849.9000;0.4046;-1.3015;
850.2000;0.4054;-1.2915;
850.5000;0.4046;-1.2891;
850.8000;0.4037;-1.2915;
851.1000;0.4013;-1.2965;
851.4000;0.3980;-1.3090;
851.7000;0.4135;-1.2741;
852.0000;0.4021;-1.2990;
852.3000;0.4021;-1.3040;
852.6000;0.4021;-1.3090;
852.9000;0.3989;-1.3065;
853.2000;0.4037;-1.2940;
853.5000;0.4021;-1.3015;
853.8000;0.4021;-1.3090;
854.1000;0.4013;-1.3090;
854.4000;0.4021;-1.3015;
854.7000;0.4021;-1.2990;
855.0000;0.4037;-1.2915;
855.3000;0.4029;-1.2891;
855.6000;0.4062;-1.2891;
855.9000;0.4046;-1.2915;
856.2000;0.4037;-1.2940;
856.5000;0.4013;-1.3015;
856.8000;0.4062;-1.3015;
857.1000;0.4029;-1.3115;
857.4000;0.4021;-1.3165;
857.7000;0.3989;-1.3165;
858.0000;0.4054;-1.2965;
858.3000;0.4013;-1.3040;
858.6000;0.4005;-1.3065;
858.9000;0.4037;-1.3040;
859.2000;0.4046;-1.3140;
859.5000;0.4037;-1.3140;
859.8000;0.4046;-1.3065;
860.1000;0.4021;-1.3140;
860.4000;0.4054;-1.3090;
860.7000;0.4029;-1.3115;
861.0000;0.4054;-1.3065;
861.3000;0.4029;-1.3140;
861.6000;0.4037;-1.3190;
861.9000;0.4005;-1.3215;
862.2000;0.4005;-1.3165;
862.5000;0.4029;-1.3140;
862.8000;0.3989;-1.3140;
863.1000;0.4037;-1.3065;
863.4000;0.4005;-1.3215;
863.7000;0.4103;-1.2816;
864.0000;0.4046;-1.2940;
864.3000;0.3964;-1.3115;
864.6000;0.4029;-1.2965;
864.9000;0.4029;-1.2965;
865.2000;0.4094;-1.2841;
865.5000;0.4021;-1.3065;
865.8000;0.4021;-1.3115;
866.1000;0.4021;-1.3140;
866.4000;0.4021;-1.3065;
866.7000;0.4070;-1.2940;
867.0000;0.4005;-1.3065;
867.3000;0.4021;-1.3115;
867.6000;0.4046;-1.3115;
867.9000;0.4013;-1.3040;
868.2000;0.4021;-1.2990;
868.5000;0.4013;-1.2940;
868.8000;0.4046;-1.3015;
869.1000;0.4013;-1.3065;
869.4000;0.4021;-1.2965;
869.7000;0.4005;-1.3115;
870.0000;0.4037;-1.3140;
870.3000;0.4013;-1.3190;
870.6000;0.4005;-1.3190;
870.9000;0.4021;-1.3215;
871.2000;0.4029;-1.3190;
871.5000;0.3997;-1.3265;
871.8000;0.4037;-1.3215;
872.1000;0.4037;-1.3240;
872.4000;0.4021;-1.3240;
872.7000;0.4013;-1.3190;
873.0000;0.3980;-1.3389;
873.3000;0.4021;-1.3265;
873.6000;0.3956;-1.3314;
873.9000;0.4021;-1.3140;
874.2000;0.4005;-1.3165;
874.5000;0.4013;-1.3190;
874.8000;0.4005;-1.3240;
875.1000;0.4029;-1.3140;
875.4000;0.4037;-1.3165;
875.7000;0.4013;-1.3289;
876.0000;0.4013;-1.3240;
876.3000;0.4029;-1.3289;
876.6000;0.4005;-1.3314;
876.9000;0.4005;-1.3314;
877.2000;0.3980;-1.3339;
877.5000;0.4005;-1.3215;
877.8000;0.4013;-1.3190;
878.1000;0.4005;-1.3265;
878.4000;0.4005;-1.3265;
878.7000;0.3989;-1.3265;
879.0000;0.3980;-1.3215;
879.3000;0.4078;-1.2990;
879.6000;0.4013;-1.3115;
879.9000;0.4021;-1.3140;
880.2000;0.4103;-1.2915;
880.5000;0.4005;-1.3215;
880.8000;0.3980;-1.3215;
881.1000;0.4029;-1.3165;
881.4000;0.3997;-1.3190;
881.7000;0.3989;-1.3240;
882.0000;0.4070;-1.3040;
882.3000;0.4013;-1.3165;
882.6000;0.4013;-1.3165;
882.9000;0.3989;-1.3215;
883.2000;0.4046;-1.3165;
883.5000;0.4021;-1.3265;
883.8000;0.4037;-1.3314;
884.1000;0.3997;-1.3339;
884.4000;0.4021;-1.3265;
884.7000;0.4021;-1.3165;
885.0000;0.4013;-1.3265;
885.3000;0.3989;-1.3265;
885.6000;0.4021;-1.3190;
885.9000;0.4029;-1.3140;
886.2000;0.4005;-1.3165;
886.5000;0.3997;-1.3140;
886.8000;0.4005;-1.3065;
887.1000;0.3964;-1.3065;
887.4000;0.4005;-1.2965;
887.7000;0.3997;-1.2965;
888.0000;0.3997;-1.2915;
888.3000;0.3964;-1.3040;
888.6000;0.3997;-1.2990;
888.9000;0.4078;-1.2841;
889.2000;0.4013;-1.3040;
889.5000;0.3972;-1.3140;
889.8000;0.4021;-1.3040;
890.1000;0.4013;-1.3040;
890.4000;0.4005;-1.3115;
890.7000;0.3980;-1.3165;
891.0000;0.3997;-1.3115;
891.3000;0.4029;-1.2940;
891.6000;0.3980;-1.3065;
891.9000;0.3980;-1.3190;
892.2000;0.4005;-1.3115;
892.5000;0.4005;-1.3065;
892.8000;0.4013;-1.3090;
893.1000;0.3972;-1.3140;
893.4000;0.4021;-1.3065;
893.7000;0.4013;-1.3090;
894.0000;0.4021;-1.3140;
894.3000;0.3989;-1.3265;
894.6000;0.3980;-1.3289;
894.9000;0.3980;-1.3190;
895.2000;0.4005;-1.3165;
895.5000;0.3997;-1.3165;
895.8000;0.4005;-1.3215;
896.1000;0.4013;-1.3190;
896.4000;0.4021;-1.3240;
896.7000;0.4005;-1.3215;
897.0000;0.3997;-1.3115;
897.3000;0.4021;-1.3115;
897.6000;0.3980;-1.3140;
897.9000;0.4021;-1.3140;
898.2000;0.3972;-1.3240;
898.5000;0.4103;-1.2940;
898.8000;0.3997;-1.3289;
899.1000;0.3989;-1.3364;
899.4000;0.4005;-1.3265;
899.7000;0.4005;-1.3240;
900.0000;0.4005;-1.3289;
900.3000;0.4005;-1.3289;
900.6000;0.3989;-1.3165;
900.9000;0.3980;-1.3140;
901.2000;0.3940;-1.3190;
901.5000;0.4005;-1.3065;
901.8000;0.3997;-1.3115;
902.1000;0.4005;-1.3165;
902.4000;0.3997;-1.3140;
902.7000;0.3989;-1.3165;
903.0000;0.4029;-1.2915;
903.3000;0.3997;-1.3015;
903.6000;0.3997;-1.2965;
903.9000;0.4005;-1.2990;
904.2000;0.4160;-1.2616;
904.5000;0.3997;-1.3215;
904.8000;0.3989;-1.3289;
905.1000;0.3980;-1.3314;
905.4000;0.3997;-1.3314;
905.7000;0.4021;-1.3240;
906.0000;0.4005;-1.3339;
906.3000;0.4013;-1.3289;
906.6000;0.4013;-1.3314;
906.9000;0.3989;-1.3339;
907.2000;0.3997;-1.3314;
907.5000;0.4021;-1.3240;
907.8000;0.3980;-1.3240;
908.1000;0.4005;-1.3165;
908.4000;0.3989;-1.3140;
908.7000;0.3980;-1.3140;
909.0000;0.3964;-1.3140;
909.3000;0.3989;-1.3140;
909.6000;0.3989;-1.3215;
909.9000;0.3923;-1.3364;
910.2000;0.4046;-1.3140;
910.5000;0.3989;-1.3240;
910.8000;0.3972;-1.3289;
911.1000;0.3972;-1.3165;
911.4000;0.3980;-1.3090;
911.7000;0.3932;-1.3364;
912.0000;0.3932;-1.3414;
912.3000;0.4021;-1.3190;
912.6000;0.3989;-1.3190;
912.9000;0.3972;-1.3190;
913.2000;0.3980;-1.3090;
913.5000;0.3989;-1.2990;
913.8000;0.3989;-1.3015;
914.1000;0.3980;-1.3090;
914.4000;0.3972;-1.3115;
914.7000;0.3956;-1.3090;
915.0000;0.3997;-1.3090;
915.3000;0.4005;-1.3090;
915.6000;0.3997;-1.3115;
915.9000;0.3997;-1.3165;
916.2000;0.3997;-1.3115;
916.5000;0.4021;-1.3040;
916.8000;0.3907;-1.3339;
917.1000;0.3989;-1.3165;
917.4000;0.3980;-1.3190;
917.7000;0.3972;-1.3240;
918.0000;0.4005;-1.3115;
918.3000;0.3980;-1.3065;
918.6000;0.3980;-1.3065;
918.9000;0.4005;-1.3015;
919.2000;0.3997;-1.3115;
919.5000;0.3997;-1.3065;
919.8000;0.3980;-1.3140;
920.1000;0.3980;-1.3190;
920.4000;0.3980;-1.3165;
920.7000;0.3972;-1.3165;
921.0000;0.3997;-1.3215;
921.3000;0.3972;-1.3265;
921.6000;0.3972;-1.3240;
921.9000;0.3989;-1.3265;
922.2000;0.3997;-1.3165;
922.5000;0.3997;-1.3115;
922.8000;0.3989;-1.3240;
923.1000;0.3989;-1.3265;
923.4000;0.3972;-1.3265;
923.7000;0.3980;-1.3190;
924.0000;0.3997;-1.3190;
924.3000;0.3997;-1.3165;
924.6000;0.3915;-1.3339;
924.9000;0.3964;-1.3215;
925.2000;0.3980;-1.3265;
925.5000;0.3980;-1.3265;
925.8000;0.3989;-1.3190;
926.1000;0.4013;-1.3140;
926.4000;0.3989;-1.3215;
926.7000;0.3989;-1.3190;
927.0000;0.3980;-1.3240;
927.3000;0.3980;-1.3314;
927.6000;0.3980;-1.3265;
927.9000;0.3997;-1.3215;
928.2000;0.4005;-1.3115;
928.5000;0.4013;-1.3090;
928.8000;0.3997;-1.3165;
929.1000;0.3980;-1.3115;
929.4000;0.3972;-1.3140;
929.7000;0.3980;-1.3165;
930.0000;0.3997;-1.3140;
930.3000;0.3972;-1.3215;
930.6000;0.3997;-1.3240;
930.9000;0.4029;-1.3090;
931.2000;0.3956;-1.3289;
931.5000;0.3972;-1.3165;
931.8000;0.3989;-1.3140;
932.1000;0.3972;-1.3140;
932.4000;0.3964;-1.3115;
932.7000;0.3972;-1.3140;
933.0000;0.3989;-1.3090;
933.3000;0.3989;-1.3115;
933.6000;0.3989;-1.3190;
933.9000;0.3972;-1.3190;
934.2000;0.3972;-1.3140;
934.5000;0.3989;-1.3215;
934.8000;0.4013;-1.3090;
935.1000;0.3972;-1.3240;
935.4000;0.3980;-1.3190;
935.7000;0.3923;-1.3389;
936.0000;0.4046;-1.3040;
936.3000;0.3989;-1.3240;
936.6000;0.3989;-1.3265;
936.9000;0.3980;-1.3389;
937.2000;0.3989;-1.3314;
937.5000;0.4005;-1.3190;
937.8000;0.3989;-1.3140;
938.1000;0.3989;-1.3015;
938.4000;0.3980;-1.2965;
938.7000;0.3972;-1.3040;
939.0000;0.3915;-1.3240;
939.3000;0.3997;-1.3015;
939.6000;0.3997;-1.2965;
939.9000;0.3989;-1.2990;
940.2000;0.3989;-1.3115;
940.5000;0.3972;-1.3140;
940.8000;0.3989;-1.3065;
941.1000;0.3964;-1.3065;
941.4000;0.3989;-1.3090;
941.7000;0.3964;-1.3090;
942.0000;0.3980;-1.3040;
942.3000;0.3980;-1.2990;
942.6000;0.3980;-1.3115;
942.9000;0.3972;-1.3065;
943.2000;0.3989;-1.3115;
943.5000;0.3989;-1.3115;
943.8000;0.3980;-1.3090;
944.1000;0.3972;-1.3165;
944.4000;0.3956;-1.3215;
944.7000;0.3980;-1.3090;
945.0000;0.3940;-1.3165;
945.3000;0.3972;-1.3040;
945.6000;0.3972;-1.3040;
945.9000;0.3972;-1.3015;
946.2000;0.3972;-1.3040;
946.5000;0.3972;-1.2990;
946.8000;0.3972;-1.2990;
947.1000;0.3972;-1.2965;
947.4000;0.3915;-1.3165;
947.7000;0.3956;-1.3140;
948.0000;0.4005;-1.3065;
948.3000;0.3997;-1.3090;
948.6000;0.3980;-1.3165;
948.9000;0.3972;-1.3065;
949.2000;0.3956;-1.3065;
949.5000;0.3972;-1.2915;
949.8000;0.3989;-1.2866;
950.1000;0.3964;-1.2990;
950.4000;0.3956;-1.3065;
950.7000;0.4013;-1.2940;
951.0000;0.3907;-1.3240;
951.3000;0.3964;-1.3065;
951.6000;0.3956;-1.3090;
951.9000;0.3956;-1.3115;
952.2000;0.4037;-1.2866;
952.5000;0.3972;-1.2965;
952.8000;0.3923;-1.3065;
953.1000;0.3956;-1.2990;
953.4000;0.3980;-1.2990;
953.7000;0.3997;-1.2965;
954.0000;0.3980;-1.2965;
954.3000;0.3956;-1.2940;
954.6000;0.3964;-1.2915;
954.9000;0.3997;-1.2940;
955.2000;0.3956;-1.2990;
955.5000;0.3980;-1.2940;
955.8000;0.4062;-1.2791;
956.1000;0.3980;-1.2990;
956.4000;0.3956;-1.3115;
956.7000;0.4013;-1.3090;
957.0000;0.3980;-1.3215;
957.3000;0.3956;-1.3289;
957.6000;0.3907;-1.3414;
957.9000;0.3964;-1.3140;
958.2000;0.3964;-1.3165;
958.5000;0.3948;-1.3215;
958.8000;0.3997;-1.3115;
959.1000;0.3948;-1.3240;
959.4000;0.3964;-1.3165;
959.7000;0.3964;-1.3115;
960.0000;0.3964;-1.3090;
960.3000;0.3964;-1.3140;
960.6000;0.3956;-1.3115;
960.9000;0.3972;-1.3115;
961.2000;0.3972;-1.3090;
961.5000;0.3956;-1.3090;
961.8000;0.3964;-1.3190;
962.1000;0.3948;-1.3215;
962.4000;0.3964;-1.3090;
962.7000;0.3989;-1.2965;
963.0000;0.3964;-1.2965;
963.3000;0.3972;-1.2866;
963.6000;0.3980;-1.2841;
963.9000;0.3915;-1.3015;
964.2000;0.3956;-1.2841;
964.5000;0.3980;-1.2816;
964.8000;0.3972;-1.2891;
965.1000;0.4013;-1.2866;
965.4000;0.3972;-1.3040;
965.7000;0.3956;-1.3115;
966.0000;0.3964;-1.3115;
966.3000;0.3980;-1.3115;
966.6000;0.4013;-1.2990;
966.9000;0.3980;-1.3065;
967.2000;0.3964;-1.2965;
967.5000;0.3972;-1.2965;
967.8000;0.3964;-1.2940;
968.1000;0.3972;-1.2915;
968.4000;0.3989;-1.2841;
968.7000;0.3956;-1.2940;
969.0000;0.3964;-1.2990;
969.3000;0.3980;-1.2965;
969.6000;0.3980;-1.2915;
969.9000;0.3956;-1.2990;
970.2000;0.3964;-1.2990;
970.5000;0.3964;-1.3015;
970.8000;0.3964;-1.2990;
971.1000;0.3980;-1.2965;
971.4000;0.3997;-1.2940;
971.7000;0.3989;-1.2965;
972.0000;0.3964;-1.2965;
972.3000;0.3891;-1.3289;
972.6000;0.3923;-1.3140;
972.9000;0.3956;-1.3040;
973.2000;0.3932;-1.3115;
973.5000;0.3956;-1.3090;
973.8000;0.3940;-1.3140;
974.1000;0.3956;-1.3190;
974.4000;0.3948;-1.3215;
974.7000;0.3932;-1.3240;
975.0000;0.3989;-1.3090;
975.3000;0.3972;-1.3090;
975.6000;0.3907;-1.3289;
975.9000;0.4021;-1.2915;
976.2000;0.3948;-1.3065;
976.5000;0.3964;-1.3090;
976.8000;0.3940;-1.3040;
977.1000;0.3956;-1.2915;
977.4000;0.3972;-1.2891;
977.7000;0.3980;-1.2965;
978.0000;0.4013;-1.2866;
978.3000;0.3948;-1.3015;
978.6000;0.3948;-1.3040;
978.9000;0.3956;-1.2915;
979.2000;0.3932;-1.2965;
979.5000;0.3980;-1.2915;
979.8000;0.3997;-1.2965;
980.1000;0.3932;-1.3140;
980.4000;0.3964;-1.3065;
980.7000;0.3956;-1.3090;
981.0000;0.3989;-1.2965;
981.3000;0.3867;-1.3314;
981.6000;0.3972;-1.3065;
981.9000;0.3956;-1.3115;
982.2000;0.4046;-1.2866;
982.5000;0.3940;-1.3165;
982.8000;0.3948;-1.3240;
983.1000;0.3980;-1.3165;
983.4000;0.3964;-1.3190;
983.7000;0.3980;-1.3140;
984.0000;0.3972;-1.3065;
984.3000;0.3948;-1.3090;
984.6000;0.3964;-1.2990;
984.9000;0.3964;-1.3140;
985.2000;0.3980;-1.3115;
985.5000;0.3964;-1.3165;
985.8000;0.3923;-1.3289;
986.1000;0.3948;-1.3165;
986.4000;0.3980;-1.3165;
986.7000;0.3980;-1.3090;
987.0000;0.3989;-1.3065;
987.3000;0.3948;-1.3190;
987.6000;0.3948;-1.3165;
987.9000;0.3923;-1.3289;
988.2000;0.3980;-1.3115;
988.5000;0.3964;-1.3165;
988.8000;0.3972;-1.3090;
989.1000;0.3972;-1.3190;
989.4000;0.3948;-1.3240;
989.7000;0.3940;-1.3265;
990.0000;0.3948;-1.3215;
990.3000;0.3956;-1.3165;
990.6000;0.4005;-1.3040;
990.9000;0.3972;-1.3165;
991.2000;0.3972;-1.3165;
991.5000;0.3899;-1.3314;
991.8000;0.3989;-1.3065;
992.1000;0.3964;-1.3265;
992.4000;0.3956;-1.3240;
992.7000;0.3964;-1.3314;
993.0000;0.3972;-1.3414;
993.3000;0.3932;-1.3414;
993.6000;0.3972;-1.3289;
993.9000;0.3923;-1.3289;
994.2000;0.3940;-1.3240;
994.5000;0.3964;-1.3215;
994.8000;0.3972;-1.3215;
995.1000;0.3932;-1.3140;
995.4000;0.3891;-1.3165;
995.7000;0.3915;-1.3115;
996.0000;0.3972;-1.2965;
996.3000;0.3932;-1.3190;
996.6000;0.3907;-1.3190;
996.9000;0.3948;-1.3015;
997.2000;0.4005;-1.2841;
997.5000;0.3940;-1.2990;
997.8000;0.3834;-1.3190;
998.1000;0.3923;-1.2990;
998.4000;0.3989;-1.2866;
998.7000;0.3964;-1.2915;
999.0000;0.3989;-1.2841;
999.3000;0.3956;-1.2891;
999.6000;0.3980;-1.2866;
999.9000;0.3940;-1.2965;
1000.2000;0.3989;-1.2965;
1000.5000;0.3948;-1.3140;
1000.8000;0.3956;-1.3190;
1001.1000;0.3956;-1.3215;
1001.4000;0.3940;-1.3190;
1001.7000;0.3948;-1.3115;
1002.0000;0.3899;-1.3115;
1002.3000;0.3932;-1.3090;
1002.6000;0.3932;-1.3215;
1002.9000;0.3989;-1.3165;
1003.2000;0.3948;-1.3289;
1003.5000;0.3956;-1.3240;
1003.8000;0.4005;-1.3115;
1004.1000;0.3932;-1.3314;
1004.4000;0.3948;-1.3265;
1004.7000;0.3956;-1.3240;
1005.0000;0.3964;-1.3240;
1005.3000;0.3964;-1.3240;
1005.6000;0.3940;-1.3265;
1005.9000;0.3964;-1.3215;
1006.2000;0.3932;-1.3240;
1006.5000;0.3948;-1.3190;
1006.8000;0.3923;-1.3289;
1007.1000;0.3956;-1.3190;
1007.4000;0.3940;-1.3165;
1007.7000;0.3956;-1.3165;
1008.0000;0.3956;-1.3140;
1008.3000;0.3972;-1.3140;
1008.6000;0.3948;-1.3215;
1008.9000;0.3940;-1.3165;
1009.2000;0.3948;-1.3165;
1009.5000;0.3948;-1.3165;
1009.8000;0.3932;-1.3190;
1010.1000;0.3948;-1.3115;
1010.4000;0.3948;-1.3165;
1010.7000;0.3899;-1.3314;
1011.0000;0.3956;-1.3115;
1011.3000;0.3964;-1.3140;
1011.6000;0.3972;-1.3215;
1011.9000;0.3932;-1.3265;
1012.2000;0.3948;-1.3165;
1012.5000;0.3899;-1.3364;
1012.8000;0.3956;-1.3165;
1013.1000;0.3858;-1.3414;
1013.4000;0.3883;-1.3265;
1013.7000;0.3948;-1.3165;
1014.0000;0.3972;-1.3115;
1014.3000;0.3948;-1.3265;
1014.6000;0.3948;-1.3265;
1014.9000;0.3948;-1.3314;
1015.2000;0.3932;-1.3339;
1015.5000;0.3948;-1.3389;
1015.8000;0.3948;-1.3314;
1016.1000;0.3923;-1.3389;
1016.4000;0.3932;-1.3414;
1016.7000;0.3940;-1.3414;
1017.0000;0.3989;-1.3265;
1017.3000;0.3948;-1.3414;
1017.6000;0.3923;-1.3389;
1017.9000;0.3932;-1.3314;
1018.2000;0.3899;-1.3339;
1018.5000;0.3915;-1.3339;
1018.8000;0.3964;-1.3190;
1019.1000;0.3956;-1.3190;
1019.4000;0.4029;-1.3040;
1019.7000;0.3956;-1.3165;
1020.0000;0.3940;-1.3165;
1020.3000;0.3956;-1.3240;
1020.6000;0.3964;-1.3289;
1020.9000;0.3907;-1.3339;
1021.2000;0.3972;-1.3165;
1021.5000;0.3940;-1.3240;
1021.8000;0.3940;-1.3240;
1022.1000;0.3948;-1.3215;
1022.4000;0.4013;-1.2940;
1022.7000;0.3956;-1.3040;
1023.0000;0.3948;-1.3090;
1023.3000;0.3972;-1.3115;
1023.6000;0.3948;-1.3190;
1023.9000;0.3940;-1.3140;
1024.2000;0.3956;-1.3165;
1024.5000;0.3956;-1.3215;
1024.8000;0.3989;-1.3165;
1025.1000;0.3940;-1.3314;
1025.4000;0.3948;-1.3314;
1025.7000;0.3948;-1.3314;
1026.0000;0.3948;-1.3314;
1026.3000;0.3964;-1.3165;
1026.6000;0.3915;-1.3215;
1026.9000;0.3964;-1.3040;
1027.2000;0.3948;-1.2965;
1027.5000;0.3948;-1.3015;
1027.8000;0.3875;-1.3190;
1028.1000;0.3940;-1.2990;
1028.4000;0.3940;-1.3090;
1028.7000;0.3923;-1.3115;
1029.0000;0.3956;-1.3040;
1029.3000;0.3956;-1.2965;
1029.6000;0.3964;-1.2990;
1029.9000;0.3932;-1.3040;
1030.2000;0.3923;-1.3090;
1030.5000;0.3964;-1.3015;
1030.8000;0.3940;-1.3065;
1031.1000;0.3940;-1.3040;
1031.4000;0.3932;-1.3115;
1031.7000;0.3948;-1.3015;
1032.0000;0.3915;-1.3140;
1032.3000;0.3932;-1.3090;
1032.6000;0.3940;-1.3015;
1032.9000;0.3989;-1.2915;
1033.2000;0.3940;-1.3065;
1033.5000;0.3932;-1.3115;
1033.8000;0.3932;-1.3090;
1034.1000;0.3948;-1.3065;
1034.4000;0.3923;-1.3040;
1034.7000;0.3940;-1.3065;
1035.0000;0.3907;-1.3115;
1035.3000;0.3964;-1.2891;
1035.6000;0.3948;-1.2940;
1035.9000;0.3948;-1.2965;
1036.2000;0.3940;-1.2965;
1036.5000;0.3932;-1.3015;
1036.8000;0.3972;-1.2891;
1037.1000;0.3932;-1.3015;
1037.4000;0.3932;-1.3065;
1037.7000;0.3948;-1.3090;
1038.0000;0.4005;-1.2915;
1038.3000;0.3940;-1.2990;
1038.6000;0.3956;-1.2915;
1038.9000;0.3907;-1.3090;
1039.2000;0.3948;-1.3065;
1039.5000;0.3948;-1.3140;
1039.8000;0.3932;-1.3015;
1040.1000;0.3956;-1.3115;
1040.4000;0.3883;-1.3339;
1040.7000;0.3948;-1.3115;
1041.0000;0.3997;-1.2965;
1041.3000;0.3956;-1.3115;
1041.6000;0.3932;-1.3215;
1041.9000;0.3964;-1.3090;
1042.2000;0.3932;-1.3190;
1042.5000;0.3940;-1.3265;
1042.8000;0.3948;-1.3165;
1043.1000;0.3940;-1.3190;
1043.4000;0.3948;-1.3215;
1043.7000;0.3964;-1.3165;
1044.0000;0.3980;-1.3115;
1044.3000;0.3940;-1.3115;
1044.6000;0.3940;-1.3190;
1044.9000;0.3964;-1.3015;
1045.2000;0.3915;-1.3090;
1045.5000;0.3956;-1.3040;
1045.8000;0.3923;-1.3165;
1046.1000;0.3948;-1.3190;
1046.4000;0.3923;-1.3215;
1046.7000;0.3964;-1.3190;
1047.0000;0.3956;-1.3215;
1047.3000;0.3940;-1.3215;
1047.6000;0.3940;-1.3165;
1047.9000;0.3923;-1.3339;
1048.2000;0.3932;-1.3364;
1048.5000;0.3932;-1.3339;
1048.8000;0.3940;-1.3339;
1049.1000;0.3948;-1.3364;
1049.4000;0.3956;-1.3314;
1049.7000;0.3948;-1.3414;
1050.0000;0.3915;-1.3489;
1050.3000;0.3956;-1.3414;
1050.6000;0.3940;-1.3389;
1050.9000;0.3883;-1.3564;
1051.2000;0.3964;-1.3339;
1051.5000;0.3948;-1.3364;
1051.8000;0.3940;-1.3314;
1052.1000;0.3948;-1.3289;
1052.4000;0.3923;-1.3314;
1052.7000;0.3932;-1.3289;
1053.0000;0.3923;-1.3289;
1053.3000;0.3956;-1.3314;
1053.6000;0.3940;-1.3339;
1053.9000;0.3915;-1.3389;
1054.2000;0.3932;-1.3339;
1054.5000;0.3948;-1.3265;
1054.8000;0.3875;-1.3339;
1055.1000;0.3915;-1.3240;
1055.4000;0.3972;-1.3090;
1055.7000;0.3948;-1.3140;
1056.0000;0.3948;-1.3165;
1056.3000;0.3948;-1.3165;
1056.6000;0.3948;-1.3215;
1056.9000;0.3891;-1.3265;
1057.2000;0.3907;-1.3240;
1057.5000;0.3956;-1.3215;
1057.8000;0.3964;-1.3115;
1058.1000;0.3915;-1.3240;
1058.4000;0.3956;-1.3090;
1058.7000;0.3940;-1.3065;
1059.0000;0.3940;-1.3115;
1059.3000;0.3940;-1.3165;
1059.6000;0.3972;-1.3190;
1059.9000;0.4021;-1.3040;
1060.2000;0.3948;-1.3265;
1060.5000;0.3972;-1.3215;
1060.8000;0.3948;-1.3265;
1061.1000;0.3948;-1.3215;
1061.4000;0.3940;-1.3339;
1061.7000;0.3956;-1.3289;
1062.0000;0.3940;-1.3289;
1062.3000;0.3940;-1.3215;
1062.6000;0.3948;-1.3165;
1062.9000;0.3932;-1.3215;
1063.2000;0.3940;-1.3215;
1063.5000;0.3932;-1.3265;
1063.8000;0.3940;-1.3339;
1064.1000;0.3932;-1.3314;
1064.4000;0.3915;-1.3289;
1064.7000;0.3940;-1.3215;
1065.0000;0.3932;-1.3265;
1065.3000;0.3932;-1.3364;
1065.6000;0.3964;-1.3265;
1065.9000;0.3923;-1.3314;
1066.2000;0.3899;-1.3414;
1066.5000;0.3932;-1.3364;
1066.8000;0.3932;-1.3339;
1067.1000;0.3940;-1.3314;
1067.4000;0.3940;-1.3265;
1067.7000;0.3923;-1.3339;
1068.0000;0.3932;-1.3364;
1068.3000;0.3940;-1.3289;
1068.6000;0.3940;-1.3339;
1068.9000;0.3932;-1.3364;
1069.2000;0.3932;-1.3389;
1069.5000;0.3907;-1.3389;
1069.8000;0.3948;-1.3215;
1070.1000;0.3956;-1.3165;
1070.4000;0.3915;-1.3240;
1070.7000;0.3932;-1.3190;
1071.0000;0.3948;-1.3190;
1071.3000;0.3956;-1.3289;
1071.6000;0.3932;-1.3339;
1071.9000;0.3867;-1.3414;
1072.2000;0.3940;-1.3389;
1072.5000;0.3940;-1.3464;
1072.8000;0.3956;-1.3364;
1073.1000;0.3956;-1.3314;
1073.4000;0.3932;-1.3314;
1073.7000;0.3940;-1.3414;
1074.0000;0.3923;-1.3414;
1074.3000;0.3940;-1.3265;
1074.6000;0.3923;-1.3314;
1074.9000;0.3915;-1.3240;
1075.2000;0.3923;-1.3190;
1075.5000;0.3883;-1.3289;
1075.8000;0.3915;-1.3240;
1076.1000;0.3940;-1.3190;
1076.4000;0.3948;-1.3190;
1076.7000;0.3948;-1.3190;
1077.0000;0.3940;-1.3165;
1077.3000;0.3932;-1.3240;
1077.6000;0.3915;-1.3289;
1077.9000;0.3932;-1.3364;
1078.2000;0.3948;-1.3265;
1078.5000;0.3932;-1.3314;
1078.8000;0.3940;-1.3314;
1079.1000;0.3932;-1.3389;
1079.4000;0.3932;-1.3389;
1079.7000;0.3923;-1.3364;
1080.0000;0.3940;-1.3289;
1080.3000;0.3940;-1.3364;
1080.6000;0.3915;-1.3364;
1080.9000;0.3923;-1.3265;
1081.2000;0.3948;-1.3140;
1081.5000;0.3948;-1.3165;
1081.8000;0.3940;-1.3190;
1082.1000;0.3932;-1.3265;
1082.4000;0.3964;-1.3289;
1082.7000;0.3932;-1.3339;
1083.0000;0.3964;-1.3339;
1083.3000;0.3980;-1.3240;
1083.6000;0.3940;-1.3439;
1083.9000;0.3932;-1.3364;
1084.2000;0.3940;-1.3265;
1084.5000;0.3923;-1.3314;
1084.8000;0.3932;-1.3339;
1085.1000;0.3964;-1.3314;
1085.4000;0.3948;-1.3389;
1085.7000;0.4013;-1.3215;
1086.0000;0.3948;-1.3314;
1086.3000;0.3948;-1.3314;
1086.6000;0.3948;-1.3314;
1086.9000;0.3989;-1.3190;
1087.2000;0.3907;-1.3389;
1087.5000;0.3923;-1.3364;
1087.8000;0.3923;-1.3314;
1088.1000;0.3923;-1.3289;
1088.4000;0.3899;-1.3240;
1088.7000;0.3923;-1.3289;
1089.0000;0.3923;-1.3364;
1089.3000;0.3899;-1.3514;
1089.6000;0.3915;-1.3439;
1089.9000;0.3923;-1.3364;
1090.2000;0.3891;-1.3464;
1090.5000;0.3972;-1.3215;
1090.8000;0.3899;-1.3389;
1091.1000;0.3980;-1.3190;
1091.4000;0.3932;-1.3314;
1091.7000;0.3923;-1.3289;
1092.0000;0.3915;-1.3289;
1092.3000;0.3875;-1.3439;
1092.6000;0.3858;-1.3539;
1092.9000;0.3940;-1.3389;
1093.2000;0.3932;-1.3589;
1093.5000;0.3932;-1.3589;
1093.8000;0.3923;-1.3614;
1094.1000;0.3923;-1.3514;
1094.4000;0.3923;-1.3489;
1094.7000;0.3948;-1.3464;
1095.0000;0.3907;-1.3539;
1095.3000;0.3932;-1.3514;
1095.6000;0.3940;-1.3539;
1095.9000;0.3940;-1.3464;
1096.2000;0.3932;-1.3489;
1096.5000;0.3932;-1.3364;
1096.8000;0.3980;-1.3265;
1097.1000;0.3940;-1.3289;
1097.4000;0.3932;-1.3339;
1097.7000;0.3932;-1.3339;
1098.0000;0.4021;-1.3015;
1098.3000;0.3932;-1.3215;
1098.6000;0.3915;-1.3314;
1098.9000;0.3932;-1.3314;
1099.2000;0.3948;-1.3289;
1099.5000;0.3932;-1.3364;
1099.8000;0.3932;-1.3364;
1100.1000;0.3923;-1.3389;
1100.4000;0.3932;-1.3339;
1100.7000;0.3891;-1.3414;
1101.0000;0.3932;-1.3289;
1101.3000;0.3915;-1.3364;
1101.6000;0.3891;-1.3439;
1101.9000;0.3932;-1.3289;
1102.2000;0.3956;-1.3165;
1102.5000;0.3923;-1.3364;
1102.8000;0.3915;-1.3489;
1103.1000;0.3940;-1.3464;
1103.4000;0.3932;-1.3514;
1103.7000;0.3940;-1.3489;
1104.0000;0.3923;-1.3564;
1104.3000;0.3907;-1.3589;
1104.6000;0.3907;-1.3464;
1104.9000;0.3875;-1.3639;
1105.2000;0.3932;-1.3464;
1105.5000;0.3923;-1.3564;
1105.8000;0.3948;-1.3414;
1106.1000;0.3915;-1.3414;
1106.4000;0.3932;-1.3389;
1106.7000;0.3956;-1.3439;
1107.0000;0.3932;-1.3389;
1107.3000;0.3932;-1.3339;
1107.6000;0.3948;-1.3265;
1107.9000;0.3923;-1.3339;
1108.2000;0.3948;-1.3314;
1108.5000;0.3940;-1.3240;
1108.8000;0.3907;-1.3289;
1109.1000;0.3907;-1.3364;
1109.4000;0.3923;-1.3265;
1109.7000;0.3948;-1.3240;
1110.0000;0.3972;-1.3215;
1110.3000;0.3915;-1.3364;
1110.6000;0.3964;-1.3339;
1110.9000;0.3932;-1.3464;
1111.2000;0.3972;-1.3364;
1111.5000;0.3932;-1.3389;
1111.8000;0.3915;-1.3314;
1112.1000;0.3980;-1.3090;
1112.4000;0.3940;-1.3115;
1112.7000;0.3940;-1.3065;
1113.0000;0.3891;-1.3065;
1113.3000;0.3940;-1.2965;
1113.6000;0.3932;-1.2965;
1113.9000;0.3932;-1.3065;
1114.2000;0.3899;-1.3265;
1114.5000;0.3915;-1.3265;
1114.8000;0.3932;-1.3215;
1115.1000;0.3923;-1.3190;
1115.4000;0.3948;-1.3115;
1115.7000;0.4013;-1.2940;
1116.0000;0.3932;-1.3190;
1116.3000;0.3932;-1.3190;
1116.6000;0.3932;-1.3165;
1116.9000;0.3948;-1.3165;
1117.2000;0.3948;-1.3115;
1117.5000;0.3923;-1.3090;
1117.8000;0.3948;-1.3140;
1118.1000;0.3932;-1.3140;
1118.4000;0.3923;-1.3140;
1118.7000;0.3899;-1.3165;
1119.0000;0.3923;-1.3115;
1119.3000;0.3932;-1.3115;
1119.6000;0.3940;-1.3115;
1119.9000;0.3923;-1.3115;
1120.2000;0.3907;-1.3115;
1120.5000;0.3932;-1.3140;
1120.8000;0.3915;-1.3289;
1121.1000;0.3940;-1.3289;
1121.4000;0.3940;-1.3314;
1121.7000;0.3793;-1.3663;
1122.0000;0.3923;-1.3265;
1122.3000;0.3915;-1.3265;
1122.6000;0.3932;-1.3314;
1122.9000;0.3932;-1.3389;
1123.2000;0.3940;-1.3364;
1123.5000;0.3956;-1.3364;
1123.8000;0.3948;-1.3389;
1124.1000;0.3940;-1.3389;
1124.4000;0.3923;-1.3464;
1124.7000;0.3923;-1.3389;
1125.0000;0.3915;-1.3339;
1125.3000;0.3980;-1.3165;
1125.6000;0.3932;-1.3314;
1125.9000;0.3923;-1.3289;
1126.2000;0.3899;-1.3339;
1126.5000;0.3915;-1.3339;
1126.8000;0.3915;-1.3364;
1127.1000;0.3923;-1.3414;
1127.4000;0.3915;-1.3439;
1127.7000;0.3850;-1.3564;
1128.0000;0.3850;-1.3539;
1128.3000;0.3915;-1.3364;
1128.6000;0.3932;-1.3314;
1128.9000;0.3932;-1.3364;
1129.2000;0.3923;-1.3364;
1129.5000;0.3891;-1.3414;
1129.8000;0.3915;-1.3314;
1130.1000;0.3891;-1.3389;
1130.4000;0.3907;-1.3364;
1130.7000;0.3907;-1.3314;
1131.0000;0.3932;-1.3190;
1131.3000;0.3923;-1.3190;
1131.6000;0.3980;-1.3015;
1131.9000;0.3907;-1.3140;
1132.2000;0.3891;-1.3165;
1132.5000;0.3923;-1.3090;
1132.8000;0.3923;-1.2990;
1133.1000;0.3907;-1.3090;
1133.4000;0.3964;-1.2915;
1133.7000;0.3915;-1.3040;
1134.0000;0.3875;-1.3115;
1134.3000;0.3956;-1.2965;
1134.6000;0.3915;-1.3015;
1134.9000;0.3932;-1.3040;
1135.2000;0.3940;-1.3065;
1135.5000;0.3932;-1.3015;
1135.8000;0.3940;-1.2990;
1136.1000;0.3891;-1.3015;
1136.4000;0.3923;-1.2990;
1136.7000;0.3932;-1.2990;
1137.0000;0.3948;-1.2990;
1137.3000;0.3980;-1.3040;
1137.6000;0.3940;-1.3115;
1137.9000;0.3915;-1.3115;
1138.2000;0.3956;-1.3040;
1138.5000;0.3932;-1.3040;
1138.8000;0.3956;-1.2990;
1139.1000;0.3842;-1.3190;
1139.4000;0.3932;-1.3140;
1139.7000;0.3923;-1.3140;
1140.0000;0.3948;-1.3115;
1140.3000;0.3940;-1.3140;
1140.6000;0.3932;-1.3190;
1140.9000;0.3923;-1.3215;
1141.2000;0.3932;-1.3215;
1141.5000;0.3932;-1.3215;
1141.8000;0.3948;-1.3190;
1142.1000;0.3915;-1.3240;
1142.4000;0.3875;-1.3289;
1142.7000;0.4021;-1.2891;
1143.0000;0.3940;-1.3090;
1143.3000;0.3932;-1.3115;
1143.6000;0.3932;-1.3140;
1143.9000;0.3997;-1.3015;
1144.2000;0.3915;-1.3240;
1144.5000;0.3915;-1.3314;
1144.8000;0.3923;-1.3240;
1145.1000;0.3899;-1.3265;
1145.4000;0.3915;-1.3314;
1145.7000;0.3834;-1.3564;
1146.0000;0.3923;-1.3339;
1146.3000;0.3932;-1.3314;
1146.6000;0.3923;-1.3314;
1146.9000;0.3923;-1.3215;
1147.2000;0.3923;-1.3265;
1147.5000;0.3932;-1.3190;
1147.8000;0.3923;-1.3314;
1148.1000;0.3867;-1.3389;
1148.4000;0.3923;-1.3265;
1148.7000;0.3915;-1.3339;
1149.0000;0.3907;-1.3339;
1149.3000;0.3989;-1.3065;
1149.6000;0.3932;-1.3190;
1149.9000;0.3932;-1.3240;
1150.2000;0.3907;-1.3339;
1150.5000;0.3948;-1.3265;
1150.8000;0.3923;-1.3314;
1151.1000;0.3948;-1.3165;
1151.4000;0.3923;-1.3190;
1151.7000;0.3923;-1.3140;
1152.0000;0.3858;-1.3314;
1152.3000;0.3907;-1.3215;
1152.6000;0.3899;-1.3240;
1152.9000;0.3956;-1.3140;
1153.2000;0.3956;-1.3165;
1153.5000;0.3932;-1.3190;
1153.8000;0.3940;-1.3115;
1154.1000;0.3956;-1.3090;
1154.4000;0.3932;-1.3040;
1154.7000;0.3948;-1.3040;
1155.0000;0.3923;-1.3090;
1155.3000;0.3932;-1.3040;
1155.6000;0.3932;-1.3140;
1155.9000;0.3907;-1.3190;
1156.2000;0.3883;-1.3265;
1156.5000;0.3923;-1.3115;
1156.8000;0.3940;-1.3165;
1157.1000;0.3915;-1.3190;
1157.4000;0.3915;-1.3240;
1157.7000;0.3915;-1.3265;
1158.0000;0.3940;-1.3190;
1158.3000;0.3915;-1.3289;
1158.6000;0.3940;-1.3215;
1158.9000;0.3923;-1.3190;
1159.2000;0.3940;-1.3165;
1159.5000;0.3923;-1.3314;
1159.8000;0.3923;-1.3289;
1160.1000;0.3907;-1.3314;
1160.4000;0.3923;-1.3314;
1160.7000;0.3940;-1.3190;
1161.0000;0.3923;-1.3190;
1161.3000;0.3907;-1.3240;
1161.6000;0.3907;-1.3265;
1161.9000;0.3932;-1.3165;
1162.2000;0.3923;-1.3190;
1162.5000;0.3932;-1.3165;
1162.8000;0.3940;-1.3190;
1163.1000;0.3932;-1.3190;
1163.4000;0.3923;-1.3314;
1163.7000;0.3923;-1.3314;
1164.0000;0.3899;-1.3389;
1164.3000;0.3923;-1.3215;
1164.6000;0.3907;-1.3215;
1164.9000;0.3907;-1.3314;
1165.2000;0.3923;-1.3265;
1165.5000;0.3956;-1.3140;
1165.8000;0.3964;-1.3140;
1166.1000;0.3948;-1.3190;
1166.4000;0.3932;-1.3190;
1166.7000;0.3932;-1.3215;
1167.0000;0.3923;-1.3165;
1167.3000;0.3932;-1.3065;
1167.6000;0.3923;-1.3040;
1167.9000;0.3923;-1.3090;
1168.2000;0.3923;-1.3040;
1168.5000;0.3923;-1.3040;
1168.8000;0.3915;-1.3215;
1169.1000;0.3948;-1.3140;
1169.4000;0.3932;-1.3165;
1169.7000;0.3883;-1.3314;
1170.0000;0.3956;-1.3090;
1170.3000;0.3932;-1.3115;
1170.6000;0.3940;-1.3115;
1170.9000;0.3932;-1.3115;
1171.2000;0.3964;-1.3115;
1171.5000;0.3923;-1.3190;
1171.8000;0.3932;-1.3165;
1172.1000;0.3875;-1.3289;
1172.4000;0.3915;-1.3140;
1172.7000;0.3923;-1.3140;
1173.0000;0.3956;-1.3015;
1173.3000;0.3923;-1.3140;
1173.6000;0.3915;-1.3314;
1173.9000;0.3923;-1.3289;
1174.2000;0.4013;-1.3090;
1174.5000;0.3932;-1.3339;
1174.8000;0.3923;-1.3339;
1175.1000;0.3923;-1.3364;
1175.4000;0.3915;-1.3364;
1175.7000;0.3980;-1.3115;
1176.0000;0.3940;-1.3090;
1176.3000;0.3907;-1.3140;
1176.6000;0.3932;-1.3240;
1176.9000;0.3972;-1.3115;
1177.2000;0.3932;-1.3240;
1177.5000;0.3915;-1.3314;
1177.8000;0.3956;-1.3190;
1178.1000;0.3940;-1.3240;
1178.4000;0.3899;-1.3364;
1178.7000;0.3948;-1.3289;
1179.0000;0.3923;-1.3389;
1179.3000;0.3842;-1.3614;
1179.6000;0.3997;-1.3314;
1179.9000;0.3948;-1.3389;
1180.2000;0.3989;-1.3215;
1180.5000;0.3948;-1.3339;
1180.8000;0.3956;-1.3289;
1181.1000;0.3940;-1.3265;
1181.4000;0.3980;-1.3140;
1181.7000;0.3899;-1.3289;
1182.0000;0.3923;-1.3289;
1182.3000;0.3940;-1.3190;
1182.6000;0.3940;-1.3215;
1182.9000;0.3940;-1.3240;
1183.2000;0.3940;-1.3289;
1183.5000;0.3948;-1.3389;
1183.8000;0.3948;-1.3339;
1184.1000;0.3923;-1.3265;
1184.4000;0.3923;-1.3265;
1184.7000;0.3923;-1.3265;
1185.0000;0.3972;-1.3165;
1185.3000;0.3923;-1.3289;
1185.6000;0.3948;-1.3265;
1185.9000;0.3956;-1.3265;
1186.2000;0.3923;-1.3364;
1186.5000;0.3923;-1.3314;
1186.8000;0.3891;-1.3364;
1187.1000;0.3989;-1.3215;
1187.4000;0.3932;-1.3314;
1187.7000;0.3932;-1.3314;
1188.0000;0.3932;-1.3364;
1188.3000;0.3940;-1.3339;
1188.6000;0.3948;-1.3289;
1188.9000;0.3956;-1.3265;
1189.2000;0.3948;-1.3314;
1189.5000;0.3932;-1.3364;
1189.8000;0.3956;-1.3389;
1190.1000;0.3932;-1.3389;
1190.4000;0.3923;-1.3414;
1190.7000;0.3932;-1.3439;
1191.0000;0.3923;-1.3389;
1191.3000;0.3940;-1.3314;
1191.6000;0.3867;-1.3489;
1191.9000;0.3915;-1.3364;
1192.2000;0.3948;-1.3314;
1192.5000;0.3940;-1.3364;
1192.8000;0.3940;-1.3314;
1193.1000;0.3915;-1.3464;
1193.4000;0.3923;-1.3489;
1193.7000;0.3932;-1.3539;
1194.0000;0.3940;-1.3414;
1194.3000;0.3932;-1.3389;
1194.6000;0.3923;-1.3364;
1194.9000;0.3923;-1.3289;
1195.2000;0.3932;-1.3240;
1195.5000;0.3915;-1.3165;
1195.8000;0.3915;-1.3165;
1196.1000;0.3940;-1.3140;
1196.4000;0.3964;-1.3065;
1196.7000;0.3891;-1.3389;
1197.0000;0.3932;-1.3314;
1197.3000;0.3923;-1.3414;
1197.6000;0.3923;-1.3314;
1197.9000;0.3907;-1.3314;
1198.2000;0.3923;-1.3289;
1198.5000;0.3915;-1.3364;
1198.8000;0.3899;-1.3489;
1199.1000;0.3915;-1.3464;
1199.4000;0.3907;-1.3389;
1199.7000;0.3883;-1.3439;
1200.0000;0.3923;-1.3389;
1200.3000;0.3932;-1.3289;
1200.6000;0.3875;-1.3389;
1200.9000;0.3923;-1.3265;
1201.2000;0.3932;-1.3240;
1201.5000;0.3932;-1.3240;
1201.8000;0.3980;-1.3040;
1202.1000;0.3932;-1.3314;
1202.4000;0.3915;-1.3364;
1202.7000;0.3915;-1.3339;
1203.0000;0.3923;-1.3314;
1203.3000;0.3948;-1.3289;
1203.6000;0.3915;-1.3389;
1203.9000;0.3923;-1.3314;
1204.2000;0.3989;-1.3090;
1204.5000;0.3923;-1.3265;
1204.8000;0.3899;-1.3339;
1205.1000;0.3948;-1.3215;
1205.4000;0.3932;-1.3265;
1205.7000;0.3948;-1.3289;
1206.0000;0.3907;-1.3464;
1206.3000;0.3948;-1.3389;
1206.6000;0.3923;-1.3314;
1206.9000;0.3883;-1.3314;
1207.2000;0.3899;-1.3265;
1207.5000;0.3932;-1.3165;
1207.8000;0.3948;-1.3140;
1208.1000;0.3923;-1.3215;
1208.4000;0.3867;-1.3289;
1208.7000;0.3923;-1.3190;
1209.0000;0.3923;-1.3115;
1209.3000;0.3932;-1.3115;
1209.6000;0.4013;-1.2891;
1209.9000;0.3923;-1.3115;
1210.2000;0.3915;-1.3140;
1210.5000;0.3940;-1.3115;
1210.8000;0.3923;-1.3090;
1211.1000;0.3997;-1.3015;
1211.4000;0.3964;-1.3015;
1211.7000;0.3940;-1.3165;
1212.0000;0.3940;-1.3165;
1212.3000;0.3940;-1.3190;
1212.6000;0.3923;-1.3215;
1212.9000;0.3923;-1.3190;
1213.2000;0.3915;-1.3265;
1213.5000;0.3932;-1.3314;
1213.8000;0.3948;-1.3289;
1214.1000;0.3932;-1.3265;
1214.4000;0.3932;-1.3215;
1214.7000;0.3923;-1.3215;
1215.0000;0.3923;-1.3040;
1215.3000;0.3932;-1.3090;
1215.6000;0.3915;-1.3115;
1215.9000;0.3932;-1.3140;
1216.2000;0.3915;-1.3215;
1216.5000;0.3940;-1.3190;
1216.8000;0.3907;-1.3265;
1217.1000;0.3907;-1.3265;
1217.4000;0.3940;-1.3190;
1217.7000;0.3915;-1.3215;
1218.0000;0.3923;-1.3190;
1218.3000;0.3915;-1.3240;
1218.6000;0.3915;-1.3215;
1218.9000;0.3915;-1.3240;
1219.2000;0.3932;-1.3215;
1219.5000;0.3907;-1.3240;
1219.8000;0.3932;-1.3165;
1220.1000;0.3883;-1.3339;
1220.4000;0.3915;-1.3165;
1220.7000;0.3867;-1.3265;
1221.0000;0.3915;-1.3240;
1221.3000;0.3932;-1.3215;
1221.6000;0.3932;-1.3190;
1221.9000;0.3923;-1.3190;
1222.2000;0.3940;-1.3165;
1222.5000;0.3907;-1.3240;
1222.8000;0.3923;-1.3265;
1223.1000;0.4037;-1.3040;
1223.4000;0.3915;-1.3265;
1223.7000;0.3826;-1.3539;
1224.0000;0.3907;-1.3314;
1224.3000;0.3956;-1.3165;
1224.6000;0.3891;-1.3339;
1224.9000;0.3923;-1.3190;
1225.2000;0.3891;-1.3289;
1225.5000;0.3940;-1.3140;
1225.8000;0.3923;-1.3215;
1226.1000;0.3907;-1.3240;
1226.4000;0.3899;-1.3265;
1226.7000;0.3915;-1.3140;
1227.0000;0.3915;-1.3090;
1227.3000;0.3923;-1.3065;
1227.6000;0.3923;-1.3115;
1227.9000;0.3915;-1.3165;
1228.2000;0.3956;-1.3015;
1228.5000;0.3940;-1.3115;
1228.8000;0.3907;-1.3215;
1229.1000;0.3899;-1.3289;
1229.4000;0.3867;-1.3439;
1229.7000;0.3932;-1.3289;
1230.0000;0.3915;-1.3289;
1230.3000;0.3948;-1.3215;
1230.6000;0.3842;-1.3489;
1230.9000;0.3948;-1.3215;
1231.2000;0.3980;-1.3140;
1231.5000;0.3932;-1.3289;
1231.8000;0.3948;-1.3140;
1232.1000;0.3923;-1.3090;
1232.4000;0.3923;-1.3040;
1232.7000;0.3891;-1.3090;
1233.0000;0.3940;-1.2940;
1233.3000;0.3940;-1.3015;
1233.6000;0.3923;-1.3065;
1233.9000;0.3907;-1.3090;
1234.2000;0.3932;-1.2940;
1234.5000;0.3915;-1.3015;
1234.8000;0.3923;-1.3165;
1235.1000;0.3915;-1.3240;
1235.4000;0.3940;-1.3165;
1235.7000;0.3940;-1.3190;
1236.0000;0.3932;-1.3215;
1236.3000;0.3932;-1.3215;
1236.6000;0.3940;-1.3190;
1236.9000;0.3899;-1.3289;
1237.2000;0.3923;-1.3240;
1237.5000;0.3956;-1.3140;
1237.8000;0.3940;-1.3240;
1238.1000;0.3940;-1.3140;
1238.4000;0.3940;-1.3090;
1238.7000;0.4005;-1.2915;
1239.0000;0.3923;-1.3040;
1239.3000;0.3932;-1.2990;
1239.6000;0.3948;-1.2915;
1239.9000;0.3956;-1.2891;
1240.2000;0.3956;-1.2965;
1240.5000;0.3932;-1.2990;
1240.8000;0.3923;-1.3040;
1241.1000;0.3915;-1.3015;
1241.4000;0.3940;-1.2940;
1241.7000;0.3907;-1.2990;
1242.0000;0.3915;-1.3040;
1242.3000;0.3932;-1.3065;
1242.6000;0.3923;-1.3140;
1242.9000;0.3932;-1.3140;
1243.2000;0.3883;-1.3314;
1243.5000;0.3907;-1.3190;
1243.8000;0.3915;-1.3190;
1244.1000;0.3964;-1.3065;
1244.4000;0.3915;-1.3240;
1244.7000;0.3932;-1.3140;
1245.0000;0.3940;-1.3140;
1245.3000;0.3923;-1.3090;
1245.6000;0.3932;-1.3090;
1245.9000;0.3940;-1.3065;
1246.2000;0.3964;-1.3015;
1246.5000;0.3940;-1.3140;
1246.8000;0.3907;-1.3190;
1247.1000;0.3915;-1.3115;
1247.4000;0.3948;-1.2990;
1247.7000;0.3932;-1.3090;
1248.0000;0.3932;-1.3090;
1248.3000;0.3915;-1.3215;
1248.6000;0.3940;-1.3115;
1248.9000;0.3923;-1.3215;
1249.2000;0.3923;-1.3190;
1249.5000;0.4005;-1.2965;
1249.8000;0.3940;-1.3065;
1250.1000;0.3923;-1.3015;
1250.4000;0.3899;-1.3140;
1250.7000;0.3932;-1.3165;
1251.0000;0.3915;-1.3240;
1251.3000;0.3972;-1.3140;
1251.6000;0.3923;-1.3265;
1251.9000;0.3875;-1.3240;
1252.2000;0.3883;-1.3240;
1252.5000;0.3923;-1.3165;
1252.8000;0.3923;-1.3165;
1253.1000;0.3915;-1.3190;
1253.4000;0.3915;-1.3240;
1253.7000;0.3915;-1.3215;
1254.0000;0.3932;-1.3289;
1254.3000;0.3948;-1.3215;
1254.6000;0.3915;-1.3314;
1254.9000;0.3891;-1.3389;
1255.2000;0.3932;-1.3314;
1255.5000;0.3940;-1.3265;
1255.8000;0.3923;-1.3265;
1256.1000;0.3940;-1.3215;
1256.4000;0.3940;-1.3140;
1256.7000;0.3932;-1.3190;
1257.0000;0.3923;-1.3140;
1257.3000;0.3923;-1.3115;
1257.6000;0.3923;-1.3090;
1257.9000;0.3923;-1.3065;
1258.2000;0.3915;-1.3140;
1258.5000;0.3915;-1.3165;
1258.8000;0.3915;-1.3190;
1259.1000;0.3948;-1.3115;
1259.4000;0.3940;-1.3140;
1259.7000;0.3899;-1.3165;
1260.0000;0.3923;-1.3140;
1260.3000;0.3932;-1.3115;
1260.6000;0.3932;-1.3115;
1260.9000;0.3964;-1.3015;
1261.2000;0.3932;-1.3140;
1261.5000;0.3948;-1.3090;
1261.8000;0.3932;-1.3215;
1262.1000;0.3940;-1.3289;
1262.4000;0.3923;-1.3414;
1262.7000;0.3883;-1.3464;
1263.0000;0.3932;-1.3364;
1263.3000;0.3923;-1.3364;
1263.6000;0.3932;-1.3289;
1263.9000;0.3948;-1.3240;
1264.2000;0.3915;-1.3339;
1264.5000;0.3923;-1.3289;
1264.8000;0.3899;-1.3339;
1265.1000;0.3923;-1.3314;
1265.4000;0.3932;-1.3364;
1265.7000;0.3907;-1.3389;
1266.0000;0.3932;-1.3289;
1266.3000;0.3915;-1.3364;
1266.6000;0.3923;-1.3215;
1266.9000;0.3915;-1.3190;
1267.2000;0.3940;-1.3215;
1267.5000;0.3915;-1.3339;
1267.8000;0.4021;-1.3040;
1268.1000;0.3956;-1.3240;
1268.4000;0.3923;-1.3265;
1268.7000;0.3891;-1.3289;
1269.0000;0.3980;-1.2965;
1269.3000;0.3940;-1.3115;
1269.6000;0.3932;-1.3140;
1269.9000;0.3932;-1.3115;
1270.2000;0.3940;-1.3190;
1270.5000;0.3964;-1.3115;
1270.8000;0.3940;-1.3190;
1271.1000;0.3915;-1.3190;
1271.4000;0.3923;-1.3115;
1271.7000;0.3932;-1.3165;
1272.0000;0.3932;-1.3090;
1272.3000;0.3923;-1.3165;
1272.6000;0.3915;-1.3265;
1272.9000;0.3907;-1.3289;
1273.2000;0.3899;-1.3364;
1273.5000;0.3932;-1.3314;
1273.8000;0.3834;-1.3464;
1274.1000;0.3932;-1.3190;
1274.4000;0.3940;-1.3190;
1274.7000;0.3907;-1.3215;
1275.0000;0.3915;-1.3265;
1275.3000;0.3964;-1.3215;
1275.6000;0.3948;-1.3215;
1275.9000;0.3932;-1.3165;
1276.2000;0.3915;-1.3190;
1276.5000;0.3948;-1.3115;
1276.8000;0.3915;-1.3165;
1277.1000;0.3923;-1.3065;
1277.4000;0.3915;-1.3215;
1277.7000;0.3932;-1.3314;
1278.0000;0.3923;-1.3289;
1278.3000;0.3932;-1.3165;
1278.6000;0.3989;-1.3040;
1278.9000;0.3875;-1.3289;
1279.2000;0.3923;-1.3190;
1279.5000;0.3932;-1.3140;
1279.8000;0.3932;-1.3240;
1280.1000;0.3915;-1.3339;
1280.4000;0.3940;-1.3364;
1280.7000;0.3932;-1.3364;
1281.0000;0.3915;-1.3389;
1281.3000;0.3948;-1.3240;
1281.6000;0.3915;-1.3314;
1281.9000;0.3980;-1.3090;
1282.2000;0.3923;-1.3215;
1282.5000;0.3915;-1.3240;
1282.8000;0.3915;-1.3339;
1283.1000;0.3907;-1.3240;
1283.4000;0.3923;-1.3165;
1283.7000;0.3932;-1.3140;
1284.0000;0.3932;-1.3140;
1284.3000;0.3907;-1.3240;
1284.6000;0.3923;-1.3265;
1284.9000;0.3923;-1.3215;
1285.2000;0.3923;-1.3215;
1285.5000;0.3923;-1.3140;
1285.8000;0.3923;-1.3140;
1286.1000;0.3964;-1.2990;
1286.4000;0.3907;-1.3090;
1286.7000;0.3932;-1.3065;
1287.0000;0.4029;-1.2691;
1287.3000;0.3923;-1.2990;
1287.6000;0.3907;-1.3140;
1287.9000;0.3883;-1.3265;
1288.2000;0.3923;-1.3165;
1288.5000;0.3923;-1.3215;
1288.8000;0.3923;-1.3265;
1289.1000;0.3907;-1.3289;
1289.4000;0.3907;-1.3339;
1289.7000;0.3940;-1.3314;
1290.0000;0.3907;-1.3314;
1290.3000;0.3923;-1.3140;
1290.6000;0.3915;-1.3090;
1290.9000;0.3923;-1.3115;
1291.2000;0.3891;-1.3240;
1291.5000;0.3932;-1.3240;
1291.8000;0.3883;-1.3314;
1292.1000;0.3915;-1.3215;
1292.4000;0.3891;-1.3215;
1292.7000;0.3899;-1.3240;
1293.0000;0.3915;-1.3190;
1293.3000;0.3923;-1.3190;
1293.6000;0.3915;-1.3215;
1293.9000;0.3932;-1.3265;
1294.2000;0.3923;-1.3389;
1294.5000;0.3932;-1.3289;
1294.8000;0.3940;-1.3265;
1295.1000;0.3915;-1.3289;
1295.4000;0.3940;-1.3265;
1295.7000;0.4021;-1.3115;
1296.0000;0.3923;-1.3339;
1296.3000;0.3972;-1.3289;
1296.6000;0.3899;-1.3364;
1296.9000;0.3923;-1.3289;
1297.2000;0.3915;-1.3265;
1297.5000;0.3932;-1.3165;
1297.8000;0.3940;-1.3140;
1298.1000;0.3923;-1.3190;
1298.4000;0.3932;-1.3289;
1298.7000;0.3956;-1.3240;
1299.0000;0.3923;-1.3289;
1299.3000;0.3940;-1.3289;
1299.6000;0.3932;-1.3414;
1299.9000;0.3923;-1.3389;
1300.2000;0.3915;-1.3414;
1300.5000;0.3932;-1.3364;
1300.8000;0.3940;-1.3265;
1301.1000;0.3932;-1.3190;
1301.4000;0.3923;-1.3165;
1301.7000;0.3923;-1.3314;
1302.0000;0.3907;-1.3314;
1302.3000;0.3948;-1.3240;
1302.6000;0.3956;-1.3240;
1302.9000;0.3923;-1.3364;
1303.2000;0.3940;-1.3240;
1303.5000;0.3932;-1.3364;
1303.8000;0.3907;-1.3439;
1304.1000;0.3948;-1.3464;
1304.4000;0.3932;-1.3514;
1304.7000;0.3940;-1.3514;
1305.0000;0.3932;-1.3464;
1305.3000;0.3948;-1.3389;
1305.6000;0.3932;-1.3339;
1305.9000;0.3932;-1.3314;
1306.2000;0.3923;-1.3339;
1306.5000;0.3932;-1.3289;
1306.8000;0.3948;-1.3240;
1307.1000;0.3923;-1.3339;
1307.4000;0.3932;-1.3215;
1307.7000;0.3989;-1.3040;
1308.0000;0.3940;-1.3115;
1308.3000;0.3923;-1.3090;
1308.6000;0.3923;-1.3090;
1308.9000;0.3932;-1.3215;
1309.2000;0.3899;-1.3389;
1309.5000;0.3923;-1.3389;
1309.8000;0.3923;-1.3389;
1310.1000;0.3940;-1.3289;
1310.4000;0.3875;-1.3439;
1310.7000;0.3891;-1.3439;
1311.0000;0.3932;-1.3339;
1311.3000;0.3899;-1.3364;
1311.6000;0.3907;-1.3364;
1311.9000;0.3932;-1.3339;
1312.2000;0.3923;-1.3314;
1312.5000;0.3907;-1.3364;
1312.8000;0.3940;-1.3265;
1313.1000;0.3932;-1.3215;
1313.4000;0.3948;-1.3190;
1313.7000;0.3948;-1.3190;
1314.0000;0.3940;-1.3339;
1314.3000;0.3932;-1.3439;
1314.6000;0.3923;-1.3514;
1314.9000;0.3989;-1.3240;
1315.2000;0.3907;-1.3439;
1315.5000;0.3907;-1.3389;
1315.8000;0.3940;-1.3339;
1316.1000;0.3932;-1.3314;
1316.4000;0.3923;-1.3314;
1316.7000;0.3923;-1.3339;
1317.0000;0.3907;-1.3314;
1317.3000;0.3907;-1.3364;
1317.6000;0.3932;-1.3265;
1317.9000;0.3932;-1.3265;
1318.2000;0.3907;-1.3215;
1318.5000;0.3923;-1.3165;
1318.8000;0.3923;-1.3165;
1319.1000;0.3932;-1.3215;
1319.4000;0.3899;-1.3289;
1319.7000;0.3997;-1.2990;
1320.0000;0.3980;-1.2965;
1320.3000;0.3948;-1.3090;
1320.6000;0.3932;-1.3115;
1320.9000;0.3915;-1.3215;
1321.2000;0.3964;-1.3240;
1321.5000;0.3923;-1.3240;
1321.8000;0.3842;-1.3489;
1322.1000;0.3980;-1.3065;
1322.4000;0.3915;-1.3339;
1322.7000;0.3923;-1.3364;
1323.0000;0.3948;-1.3314;
1323.3000;0.3923;-1.3439;
1323.6000;0.3915;-1.3414;
1323.9000;0.3932;-1.3389;
1324.2000;0.3940;-1.3464;
1324.5000;0.3923;-1.3464;
1324.8000;0.3956;-1.3389;
1325.1000;0.3923;-1.3464;
1325.4000;0.3932;-1.3339;
1325.7000;0.3875;-1.3464;
1326.0000;0.3932;-1.3265;
1326.3000;0.3915;-1.3265;
1326.6000;0.3932;-1.3190;
1326.9000;0.3899;-1.3289;
1327.2000;0.3997;-1.2990;
1327.5000;0.4005;-1.2990;
1327.8000;0.3907;-1.3240;
1328.1000;0.3940;-1.3240;
1328.4000;0.3940;-1.3339;
1328.7000;0.3940;-1.3314;
1329.0000;0.3940;-1.3265;
1329.3000;0.3940;-1.3364;
1329.6000;0.3940;-1.3339;
1329.9000;0.3932;-1.3289;
1330.2000;0.3948;-1.3314;
1330.5000;0.3858;-1.3564;
1330.8000;0.3932;-1.3464;
1331.1000;0.3923;-1.3614;
1331.4000;0.3842;-1.3738;
1331.7000;0.3932;-1.3439;
1332.0000;0.3948;-1.3464;
1332.3000;0.3932;-1.3564;
1332.6000;0.3923;-1.3639;
1332.9000;0.3923;-1.3564;
1333.2000;0.3932;-1.3514;
1333.5000;0.3940;-1.3639;
1333.8000;0.3923;-1.3614;
1334.1000;0.3915;-1.3614;
1334.4000;0.3915;-1.3614;
1334.7000;0.3932;-1.3614;
1335.0000;0.3923;-1.3639;
1335.3000;0.3923;-1.3688;
1335.6000;0.3923;-1.3688;
1335.9000;0.3948;-1.3589;
1336.2000;0.3907;-1.3663;
1336.5000;0.3940;-1.3564;
1336.8000;0.3899;-1.3564;
1337.1000;0.3907;-1.3514;
1337.4000;0.3875;-1.3589;
1337.7000;0.3923;-1.3389;
1338.0000;0.3932;-1.3314;
1338.3000;0.3875;-1.3539;
1338.6000;0.3923;-1.3364;
1338.9000;0.3932;-1.3339;
1339.2000;0.3956;-1.3165;
1339.5000;0.3923;-1.3289;
1339.8000;0.3915;-1.3314;
1340.1000;0.3940;-1.3240;
1340.4000;0.3948;-1.3314;
1340.7000;0.3923;-1.3289;
1341.0000;0.3964;-1.3265;
1341.3000;0.3956;-1.3289;
1341.6000;0.3923;-1.3339;
1341.9000;0.3899;-1.3389;
1342.2000;0.3915;-1.3314;
1342.5000;0.3858;-1.3564;
1342.8000;0.3948;-1.3364;
1343.1000;0.3956;-1.3265;
1343.4000;0.3940;-1.3289;
1343.7000;0.3948;-1.3215;
1344.0000;0.3956;-1.3165;
1344.3000;0.3883;-1.3314;
1344.6000;0.3923;-1.3289;
1344.9000;0.3923;-1.3314;
1345.2000;0.3899;-1.3364;
1345.5000;0.3923;-1.3364;
1345.8000;0.3989;-1.3165;
1346.1000;0.3923;-1.3314;
1346.4000;0.3907;-1.3364;
1346.7000;0.3915;-1.3414;
1347.0000;0.3972;-1.3314;
1347.3000;0.3923;-1.3464;
1347.6000;0.3899;-1.3489;
1347.9000;0.3923;-1.3464;
1348.2000;0.3907;-1.3414;
1348.5000;0.3915;-1.3314;
1348.8000;0.3891;-1.3314;
1349.1000;0.3932;-1.3364;
1349.4000;0.3923;-1.3314;
1349.7000;0.3948;-1.3364;
1350.0000;0.3923;-1.3514;
1350.3000;0.3923;-1.3514;
1350.6000;0.3940;-1.3489;
1350.9000;0.3915;-1.3414;
1351.2000;0.3932;-1.3364;
1351.5000;0.3923;-1.3439;
1351.8000;0.3883;-1.3539;
1352.1000;0.3915;-1.3639;
1352.4000;0.3964;-1.3389;
1352.7000;0.3915;-1.3414;
1353.0000;0.3875;-1.3589;
1353.3000;0.3940;-1.3414;
1353.6000;0.3980;-1.3339;
1353.9000;0.3932;-1.3314;
1354.2000;0.3940;-1.3314;
1354.5000;0.3948;-1.3265;
1354.8000;0.3923;-1.3339;
1355.1000;0.3932;-1.3289;
1355.4000;0.3964;-1.3240;
1355.7000;0.3923;-1.3389;
1356.0000;0.3948;-1.3389;
1356.3000;0.3915;-1.3464;
1356.6000;0.3915;-1.3489;
1356.9000;0.3932;-1.3389;
1357.2000;0.3932;-1.3439;
1357.5000;0.3932;-1.3464;
1357.8000;0.3923;-1.3414;
1358.1000;0.3923;-1.3464;
1358.4000;0.3932;-1.3389;
1358.7000;0.3923;-1.3439;
1359.0000;0.3915;-1.3414;
1359.3000;0.3907;-1.3364;
1359.6000;0.3899;-1.3364;
1359.9000;0.3932;-1.3289;
1360.2000;0.3948;-1.3289;
1360.5000;0.3923;-1.3265;
1360.8000;0.3940;-1.3240;
1361.1000;0.3948;-1.3240;
1361.4000;0.3940;-1.3339;
1361.7000;0.3940;-1.3464;
1362.0000;0.3948;-1.3364;
1362.3000;0.3964;-1.3314;
1362.6000;0.3948;-1.3364;
1362.9000;0.3923;-1.3289;
1363.2000;0.3964;-1.3165;
1363.5000;0.3940;-1.3289;
1363.8000;0.3956;-1.3240;
1364.1000;0.3940;-1.3314;
1364.4000;0.3907;-1.3439;
1364.7000;0.3875;-1.3539;
1365.0000;0.3932;-1.3314;
1365.3000;0.3989;-1.3190;
1365.6000;0.3932;-1.3289;
1365.9000;0.3923;-1.3265;
1366.2000;0.3923;-1.3289;
1366.5000;0.3858;-1.3389;
1366.8000;0.3940;-1.3140;
1367.1000;0.3932;-1.3165;
1367.4000;0.3923;-1.3140;
1367.7000;0.3940;-1.2940;
1368.0000;0.3923;-1.2915;
1368.3000;0.3915;-1.3140;
1368.6000;0.3891;-1.3364;
1368.9000;0.3932;-1.3215;
1369.2000;0.3932;-1.3165;
1369.5000;0.3932;-1.3115;
1369.8000;0.3923;-1.3165;
1370.1000;0.3899;-1.3065;
1370.4000;0.3923;-1.3040;
1370.7000;0.3915;-1.3240;
1371.0000;0.3907;-1.3364;
1371.3000;0.3932;-1.3240;
1371.6000;0.3923;-1.3265;
1371.9000;0.3940;-1.3289;
1372.2000;0.3948;-1.3314;
1372.5000;0.3932;-1.3314;
1372.8000;0.3907;-1.3339;
1373.1000;0.3948;-1.3215;
1373.4000;0.3948;-1.3140;
1373.7000;0.3940;-1.3165;
1374.0000;0.3997;-1.2965;
1374.3000;0.3940;-1.3040;
1374.6000;0.3915;-1.3065;
1374.9000;0.3907;-1.3165;
1375.2000;0.3948;-1.3090;
1375.5000;0.3964;-1.3040;
1375.8000;0.3940;-1.3090;
1376.1000;0.3964;-1.3065;
1376.4000;0.3932;-1.3265;
1376.7000;0.3932;-1.3289;
1377.0000;0.3842;-1.3539;
1377.3000;0.3940;-1.3339;
1377.6000;0.3940;-1.3314;
1377.9000;0.3883;-1.3389;
1378.2000;0.3923;-1.3339;
1378.5000;0.3891;-1.3364;
1378.8000;0.3940;-1.3240;
1379.1000;0.3932;-1.3215;
1379.4000;0.3932;-1.3165;
1379.7000;0.3915;-1.3314;
1380.0000;0.3940;-1.3289;
1380.3000;0.3948;-1.3240;
1380.6000;0.3932;-1.3265;
1380.9000;0.3932;-1.3215;
1381.2000;0.3980;-1.2990;
1381.5000;0.3923;-1.3190;
1381.8000;0.3940;-1.3165;
1382.1000;0.3932;-1.3165;
1382.4000;0.3907;-1.3265;
1382.7000;0.3923;-1.3289;
1383.0000;0.3907;-1.3265;
1383.3000;0.3940;-1.3215;
1383.6000;0.3915;-1.3389;
1383.9000;0.3875;-1.3539;
1384.2000;0.3940;-1.3314;
1384.5000;0.3907;-1.3364;
1384.8000;0.3932;-1.3339;
1385.1000;0.3940;-1.3289;
1385.4000;0.3940;-1.3215;
1385.7000;0.3940;-1.3140;
1386.0000;0.3923;-1.3140;
1386.3000;0.3940;-1.3090;
1386.6000;0.3923;-1.3140;
1386.9000;0.3932;-1.3065;
1387.2000;0.3923;-1.3140;
1387.5000;0.3940;-1.2965;
1387.8000;0.3964;-1.2940;
1388.1000;0.3940;-1.2990;
1388.4000;0.3915;-1.2990;
1388.7000;0.3997;-1.2791;
1389.0000;0.3907;-1.3115;
1389.3000;0.3956;-1.3140;
1389.6000;0.3940;-1.3165;
1389.9000;0.3932;-1.3165;
1390.2000;0.3932;-1.3240;
1390.5000;0.3940;-1.3265;
1390.8000;0.3940;-1.3265;
1391.1000;0.3940;-1.3215;
1391.4000;0.3932;-1.3215;
1391.7000;0.3980;-1.3115;
1392.0000;0.3948;-1.3240;
1392.3000;0.3940;-1.3289;
1392.6000;0.3923;-1.3314;
1392.9000;0.3907;-1.3339;
1393.2000;0.3915;-1.3265;
1393.5000;0.3915;-1.3265;
1393.8000;0.3923;-1.3240;
1394.1000;0.3907;-1.3240;
1394.4000;0.3932;-1.3115;
1394.7000;0.3850;-1.3289;
1395.0000;0.3899;-1.3190;
1395.3000;0.3932;-1.3090;
1395.6000;0.3915;-1.3140;
1395.9000;0.3907;-1.3240;
1396.2000;0.3923;-1.3265;
1396.5000;0.3923;-1.3265;
1396.8000;0.3940;-1.3240;
1397.1000;0.3940;-1.3190;
1397.4000;0.3972;-1.3065;
1397.7000;0.3915;-1.3165;
1398.0000;0.3915;-1.3190;
1398.3000;0.3875;-1.3289;
1398.6000;0.3915;-1.3215;
1398.9000;0.3932;-1.3165;
1399.2000;0.3907;-1.3240;
1399.5000;0.3923;-1.3190;
1399.8000;0.3932;-1.3289;
