time/ms;Fluo/V;P700 deltaI/I x10³;
-199.8000;0.6683;-0.9699;
-199.5000;0.6675;-0.9724;
-199.2000;0.6805;-0.9350;
-198.9000;0.6699;-0.9699;
-198.6000;0.6716;-0.9649;
-198.3000;0.6634;-0.9849;
-198.0000;0.6716;-0.9525;
-197.7000;0.6732;-0.9475;
-197.4000;0.6724;-0.9475;
-197.1000;0.6707;-0.9450;
-196.8000;0.6716;-0.9450;
-196.5000;0.6740;-0.9400;
-196.2000;0.6724;-0.9425;
-195.9000;0.6716;-0.9475;
-195.6000;0.6724;-0.9450;
-195.3000;0.6724;-0.9475;
-195.0000;0.6707;-0.9549;
-194.7000;0.6707;-0.9624;
-194.4000;0.6724;-0.9500;
-194.1000;0.6707;-0.9574;
-193.8000;0.6716;-0.9624;
-193.5000;0.6724;-0.9574;
-193.2000;0.6659;-0.9724;
-192.9000;0.6724;-0.9475;
-192.6000;0.6716;-0.9350;
-192.3000;0.6740;-0.9375;
-192.0000;0.6716;-0.9400;
-191.7000;0.6707;-0.9475;
-191.4000;0.6716;-0.9500;
-191.1000;0.6789;-0.9425;
-190.8000;0.6716;-0.9599;
-190.5000;0.6724;-0.9574;
-190.2000;0.6748;-0.9574;
-189.9000;0.6748;-0.9599;
-189.6000;0.6691;-0.9674;
-189.3000;0.6756;-0.9549;
-189.0000;0.6821;-0.9250;
-188.7000;0.6699;-0.9500;
-188.4000;0.6699;-0.9525;
-188.1000;0.6642;-0.9699;
-187.8000;0.6707;-0.9525;
-187.5000;0.6724;-0.9525;
-187.2000;0.6707;-0.9624;
-186.9000;0.6716;-0.9599;
-186.6000;0.6691;-0.9500;
-186.3000;0.6716;-0.9500;
-186.0000;0.6716;-0.9525;
-185.7000;0.6716;-0.9525;
-185.4000;0.6772;-0.9300;
-185.1000;0.6699;-0.9375;
-184.8000;0.6716;-0.9300;
-184.5000;0.6699;-0.9325;
-184.2000;0.6740;-0.9275;
-183.9000;0.6724;-0.9350;
-183.6000;0.6675;-0.9425;
-183.3000;0.6781;-0.9275;
-183.0000;0.6805;-0.9225;
-182.7000;0.6691;-0.9425;
-182.4000;0.6659;-0.9525;
-182.1000;0.6781;-0.9325;
-181.8000;0.6675;-0.9674;
-181.5000;0.6805;-0.9400;
-181.2000;0.6724;-0.9599;
-180.9000;0.6724;-0.9649;
-180.6000;0.6691;-0.9724;
-180.3000;0.6772;-0.9500;
-180.0000;0.6724;-0.9599;
-179.7000;0.6659;-0.9799;
-179.4000;0.6675;-0.9799;
-179.1000;0.6699;-0.9674;
-178.8000;0.6716;-0.9599;
-178.5000;0.6748;-0.9375;
-178.2000;0.6732;-0.9375;
-177.9000;0.6691;-0.9525;
-177.6000;0.6699;-0.9599;
-177.3000;0.6716;-0.9549;
-177.0000;0.6699;-0.9549;
-176.7000;0.6732;-0.9375;
-176.4000;0.6732;-0.9400;
-176.1000;0.6781;-0.9300;
-175.8000;0.6707;-0.9425;
-175.5000;0.6724;-0.9375;
-175.2000;0.6699;-0.9450;
-174.9000;0.6797;-0.9300;
-174.6000;0.6683;-0.9549;
-174.3000;0.6691;-0.9574;
-174.0000;0.6626;-0.9649;
-173.7000;0.6699;-0.9500;
-173.4000;0.6699;-0.9475;
-173.1000;0.6683;-0.9475;
-172.8000;0.6675;-0.9549;
-172.5000;0.6585;-0.9749;
-172.2000;0.6699;-0.9425;
-171.9000;0.6691;-0.9475;
-171.6000;0.6707;-0.9350;
-171.3000;0.6716;-0.9350;
-171.0000;0.6707;-0.9375;
-170.7000;0.6707;-0.9350;
-170.4000;0.6716;-0.9375;
-170.1000;0.6724;-0.9375;
-169.8000;0.6716;-0.9425;
-169.5000;0.6724;-0.9350;
-169.2000;0.6650;-0.9525;
-168.9000;0.6707;-0.9400;
-168.6000;0.6699;-0.9450;
-168.3000;0.6716;-0.9500;
-168.0000;0.6732;-0.9475;
-167.7000;0.6683;-0.9525;
-167.4000;0.6707;-0.9375;
-167.1000;0.6699;-0.9350;
-166.8000;0.6740;-0.9275;
-166.5000;0.6716;-0.9300;
-166.2000;0.6748;-0.9200;
-165.9000;0.6716;-0.9275;
-165.6000;0.6707;-0.9250;
-165.3000;0.6716;-0.9250;
-165.0000;0.6716;-0.9200;
-164.7000;0.6675;-0.9450;
-164.4000;0.6740;-0.9350;
-164.1000;0.6699;-0.9400;
-163.8000;0.6732;-0.9450;
-163.5000;0.6740;-0.9475;
-163.2000;0.6772;-0.9375;
-162.9000;0.6724;-0.9549;
-162.6000;0.6707;-0.9599;
-162.3000;0.6716;-0.9574;
-162.0000;0.6724;-0.9599;
-161.7000;0.6716;-0.9624;
-161.4000;0.6691;-0.9649;
-161.1000;0.6748;-0.9549;
-160.8000;0.6732;-0.9599;
-160.5000;0.6716;-0.9599;
-160.2000;0.6716;-0.9549;
-159.9000;0.6732;-0.9475;
-159.6000;0.6716;-0.9500;
-159.3000;0.6716;-0.9574;
-159.0000;0.6764;-0.9450;
-158.7000;0.6724;-0.9500;
-158.4000;0.6683;-0.9599;
-158.1000;0.6699;-0.9525;
-157.8000;0.6716;-0.9500;
-157.5000;0.6707;-0.9525;
-157.2000;0.6716;-0.9475;
-156.9000;0.6724;-0.9425;
-156.6000;0.6740;-0.9400;
-156.3000;0.6707;-0.9425;
-156.0000;0.6732;-0.9375;
-155.7000;0.6789;-0.9325;
-155.4000;0.6740;-0.9325;
-155.1000;0.6699;-0.9425;
-154.8000;0.6716;-0.9400;
-154.5000;0.6740;-0.9275;
-154.2000;0.6732;-0.9275;
-153.9000;0.6618;-0.9549;
-153.6000;0.6716;-0.9400;
-153.3000;0.6716;-0.9450;
-153.0000;0.6691;-0.9450;
-152.7000;0.6707;-0.9450;
-152.4000;0.6699;-0.9375;
-152.1000;0.6683;-0.9475;
-151.8000;0.6732;-0.9300;
-151.5000;0.6707;-0.9400;
-151.2000;0.6699;-0.9350;
-150.9000;0.6740;-0.9350;
-150.6000;0.6724;-0.9325;
-150.3000;0.6716;-0.9350;
-150.0000;0.6699;-0.9350;
-149.7000;0.6699;-0.9325;
-149.4000;0.6707;-0.9350;
-149.1000;0.6724;-0.9350;
-148.8000;0.6699;-0.9500;
-148.5000;0.6699;-0.9549;
-148.2000;0.6699;-0.9599;
-147.9000;0.6691;-0.9624;
-147.6000;0.6683;-0.9649;
-147.3000;0.6699;-0.9574;
-147.0000;0.6724;-0.9549;
-146.7000;0.6724;-0.9574;
-146.4000;0.6724;-0.9525;
-146.1000;0.6699;-0.9624;
-145.8000;0.6699;-0.9599;
-145.5000;0.6724;-0.9599;
-145.2000;0.6716;-0.9649;
-144.9000;0.6716;-0.9574;
-144.6000;0.6699;-0.9624;
-144.3000;0.6707;-0.9699;
-144.0000;0.6691;-0.9699;
-143.7000;0.6683;-0.9624;
-143.4000;0.6716;-0.9500;
-143.1000;0.6732;-0.9500;
-142.8000;0.6683;-0.9549;
-142.5000;0.6691;-0.9475;
-142.2000;0.6699;-0.9400;
-141.9000;0.6650;-0.9525;
-141.6000;0.6707;-0.9250;
-141.3000;0.6716;-0.9300;
-141.0000;0.6707;-0.9350;
-140.7000;0.6707;-0.9300;
-140.4000;0.6716;-0.9300;
-140.1000;0.6691;-0.9350;
-139.8000;0.6699;-0.9475;
-139.5000;0.6707;-0.9425;
-139.2000;0.6707;-0.9400;
-138.9000;0.6707;-0.9225;
-138.6000;0.6707;-0.9250;
-138.3000;0.6748;-0.9225;
-138.0000;0.6707;-0.9375;
-137.7000;0.6716;-0.9375;
-137.4000;0.6691;-0.9425;
-137.1000;0.6683;-0.9475;
-136.8000;0.6699;-0.9400;
-136.5000;0.6699;-0.9375;
-136.2000;0.6667;-0.9500;
-135.9000;0.6716;-0.9325;
-135.6000;0.6707;-0.9350;
-135.3000;0.6707;-0.9400;
-135.0000;0.6748;-0.9350;
-134.7000;0.6716;-0.9425;
-134.4000;0.6716;-0.9400;
-134.1000;0.6732;-0.9400;
-133.8000;0.6716;-0.9500;
-133.5000;0.6724;-0.9549;
-133.2000;0.6707;-0.9674;
-132.9000;0.6716;-0.9674;
-132.6000;0.6724;-0.9699;
-132.3000;0.6716;-0.9724;
-132.0000;0.6699;-0.9674;
-131.7000;0.6716;-0.9674;
-131.4000;0.6707;-0.9574;
-131.1000;0.6724;-0.9649;
-130.8000;0.6724;-0.9699;
-130.5000;0.6707;-0.9749;
-130.2000;0.6724;-0.9749;
-129.9000;0.6716;-0.9774;
-129.6000;0.6724;-0.9724;
-129.3000;0.6675;-0.9824;
-129.0000;0.6732;-0.9599;
-128.7000;0.6724;-0.9624;
-128.4000;0.6707;-0.9724;
-128.1000;0.6699;-0.9624;
-127.8000;0.6724;-0.9525;
-127.5000;0.6724;-0.9574;
-127.2000;0.6707;-0.9724;
-126.9000;0.6707;-0.9724;
-126.6000;0.6724;-0.9674;
-126.3000;0.6699;-0.9749;
-126.0000;0.6699;-0.9674;
-125.7000;0.6716;-0.9674;
-125.4000;0.6707;-0.9649;
-125.1000;0.6724;-0.9574;
-124.8000;0.6716;-0.9549;
-124.5000;0.6707;-0.9574;
-124.2000;0.6707;-0.9649;
-123.9000;0.6699;-0.9574;
-123.6000;0.6675;-0.9724;
-123.3000;0.6699;-0.9624;
-123.0000;0.6756;-0.9525;
-122.7000;0.6699;-0.9699;
-122.4000;0.6740;-0.9649;
-122.1000;0.6716;-0.9749;
-121.8000;0.6716;-0.9724;
-121.5000;0.6707;-0.9699;
-121.2000;0.6707;-0.9574;
-120.9000;0.6724;-0.9425;
-120.6000;0.6724;-0.9450;
-120.3000;0.6699;-0.9500;
-120.0000;0.6707;-0.9450;
-119.7000;0.6707;-0.9425;
-119.4000;0.6724;-0.9350;
-119.1000;0.6716;-0.9350;
-118.8000;0.6732;-0.9375;
-118.5000;0.6724;-0.9375;
-118.2000;0.6732;-0.9450;
-117.9000;0.6707;-0.9549;
-117.6000;0.6716;-0.9574;
-117.3000;0.6699;-0.9624;
-117.0000;0.6724;-0.9574;
-116.7000;0.6699;-0.9624;
-116.4000;0.6691;-0.9574;
-116.1000;0.6716;-0.9500;
-115.8000;0.6756;-0.9450;
-115.5000;0.6699;-0.9549;
-115.2000;0.6740;-0.9325;
-114.9000;0.6716;-0.9375;
-114.6000;0.6683;-0.9450;
-114.3000;0.6724;-0.9450;
-114.0000;0.6650;-0.9624;
-113.7000;0.6724;-0.9525;
-113.4000;0.6716;-0.9549;
-113.1000;0.6716;-0.9549;
-112.8000;0.6707;-0.9500;
-112.5000;0.6724;-0.9400;
-112.2000;0.6691;-0.9425;
-111.9000;0.6707;-0.9500;
-111.6000;0.6691;-0.9500;
-111.3000;0.6675;-0.9599;
-111.0000;0.6756;-0.9450;
-110.7000;0.6707;-0.9624;
-110.4000;0.6716;-0.9599;
-110.1000;0.6699;-0.9649;
-109.8000;0.6707;-0.9674;
-109.5000;0.6724;-0.9649;
-109.2000;0.6699;-0.9699;
-108.9000;0.6707;-0.9724;
-108.6000;0.6732;-0.9724;
-108.3000;0.6716;-0.9674;
-108.0000;0.6675;-0.9799;
-107.7000;0.6716;-0.9649;
-107.4000;0.6781;-0.9450;
-107.1000;0.6716;-0.9649;
-106.8000;0.6699;-0.9674;
-106.5000;0.6748;-0.9574;
-106.2000;0.6716;-0.9699;
-105.9000;0.6724;-0.9674;
-105.6000;0.6716;-0.9649;
-105.3000;0.6707;-0.9699;
-105.0000;0.6716;-0.9749;
-104.7000;0.6732;-0.9699;
-104.4000;0.6724;-0.9599;
-104.1000;0.6716;-0.9699;
-103.8000;0.6699;-0.9824;
-103.5000;0.6707;-0.9799;
-103.2000;0.6732;-0.9749;
-102.9000;0.6716;-0.9699;
-102.6000;0.6740;-0.9525;
-102.3000;0.6732;-0.9525;
-102.0000;0.6740;-0.9500;
-101.7000;0.6707;-0.9599;
-101.4000;0.6707;-0.9624;
-101.1000;0.6707;-0.9699;
-100.8000;0.6724;-0.9699;
-100.5000;0.6699;-0.9624;
-100.2000;0.6699;-0.9699;
-99.9000;0.6707;-0.9774;
-99.6000;0.6707;-0.9774;
-99.3000;0.6716;-0.9749;
-99.0000;0.6716;-0.9774;
-98.7000;0.6691;-0.9774;
-98.4000;0.6716;-0.9749;
-98.1000;0.6699;-0.9724;
-97.8000;0.6707;-0.9624;
-97.5000;0.6716;-0.9674;
-97.2000;0.6716;-0.9724;
-96.9000;0.6756;-0.9674;
-96.6000;0.6716;-0.9724;
-96.3000;0.6699;-0.9799;
-96.0000;0.6699;-0.9824;
-95.7000;0.6716;-0.9849;
-95.4000;0.6724;-0.9849;
-95.1000;0.6683;-0.9923;
-94.8000;0.6683;-0.9923;
-94.5000;0.6707;-0.9874;
-94.2000;0.6716;-0.9849;
-93.9000;0.6707;-0.9874;
-93.6000;0.6724;-0.9874;
-93.3000;0.6716;-0.9998;
-93.0000;0.6740;-0.9948;
-92.7000;0.6707;-1.0023;
-92.4000;0.6716;-0.9998;
-92.1000;0.6707;-0.9948;
-91.8000;0.6659;-1.0023;
-91.5000;0.6716;-0.9799;
-91.2000;0.6740;-0.9674;
-90.9000;0.6707;-0.9749;
-90.6000;0.6683;-0.9799;
-90.3000;0.6716;-0.9849;
-90.0000;0.6699;-0.9874;
-89.7000;0.6691;-0.9799;
-89.4000;0.6707;-0.9774;
-89.1000;0.6716;-0.9799;
-88.8000;0.6618;-1.0148;
-88.5000;0.6699;-0.9923;
-88.2000;0.6707;-0.9923;
-87.9000;0.6707;-0.9849;
-87.6000;0.6716;-0.9799;
-87.3000;0.6691;-0.9774;
-87.0000;0.6707;-0.9599;
-86.7000;0.6724;-0.9599;
-86.4000;0.6740;-0.9549;
-86.1000;0.6691;-0.9699;
-85.8000;0.6716;-0.9624;
-85.5000;0.6707;-0.9599;
-85.2000;0.6691;-0.9674;
-84.9000;0.6699;-0.9699;
-84.6000;0.6699;-0.9649;
-84.3000;0.6699;-0.9749;
-84.0000;0.6716;-0.9749;
-83.7000;0.6699;-0.9774;
-83.4000;0.6781;-0.9549;
-83.1000;0.6740;-0.9674;
-82.8000;0.6707;-0.9649;
-82.5000;0.6732;-0.9574;
-82.2000;0.6707;-0.9649;
-81.9000;0.6724;-0.9599;
-81.6000;0.6699;-0.9674;
-81.3000;0.6716;-0.9674;
-81.0000;0.6699;-0.9749;
-80.7000;0.6699;-0.9749;
-80.4000;0.6691;-0.9724;
-80.1000;0.6699;-0.9724;
-79.8000;0.6716;-0.9749;
-79.5000;0.6707;-0.9699;
-79.2000;0.6732;-0.9624;
-78.9000;0.6707;-0.9724;
-78.6000;0.6699;-0.9699;
-78.3000;0.6691;-0.9724;
-78.0000;0.6716;-0.9674;
-77.7000;0.6724;-0.9674;
-77.4000;0.6716;-0.9699;
-77.1000;0.6683;-0.9699;
-76.8000;0.6716;-0.9599;
-76.5000;0.6724;-0.9574;
-76.2000;0.6716;-0.9549;
-75.9000;0.6683;-0.9674;
-75.6000;0.6716;-0.9674;
-75.3000;0.6716;-0.9624;
-75.0000;0.6699;-0.9574;
-74.7000;0.6699;-0.9599;
-74.4000;0.6683;-0.9674;
-74.1000;0.6756;-0.9450;
-73.8000;0.6699;-0.9599;
-73.5000;0.6756;-0.9425;
-73.2000;0.6797;-0.9325;
-72.9000;0.6707;-0.9525;
-72.6000;0.6724;-0.9525;
-72.3000;0.6699;-0.9549;
-72.0000;0.6781;-0.9425;
-71.7000;0.6707;-0.9574;
-71.4000;0.6724;-0.9549;
-71.1000;0.6813;-0.9375;
-70.8000;0.6740;-0.9599;
-70.5000;0.6699;-0.9624;
-70.2000;0.6699;-0.9674;
-69.9000;0.6707;-0.9624;
-69.6000;0.6732;-0.9574;
-69.3000;0.6740;-0.9649;
-69.0000;0.6732;-0.9599;
-68.7000;0.6716;-0.9624;
-68.4000;0.6707;-0.9549;
-68.1000;0.6740;-0.9500;
-67.8000;0.6724;-0.9475;
-67.5000;0.6732;-0.9425;
-67.2000;0.6707;-0.9400;
-66.9000;0.6691;-0.9624;
-66.6000;0.6748;-0.9500;
-66.3000;0.6724;-0.9500;
-66.0000;0.6748;-0.9475;
-65.7000;0.6667;-0.9699;
-65.4000;0.6699;-0.9624;
-65.1000;0.6716;-0.9624;
-64.8000;0.6716;-0.9674;
-64.5000;0.6699;-0.9649;
-64.2000;0.6716;-0.9699;
-63.9000;0.6716;-0.9649;
-63.6000;0.6716;-0.9599;
-63.3000;0.6699;-0.9674;
-63.0000;0.6716;-0.9699;
-62.7000;0.6675;-0.9774;
-62.4000;0.6724;-0.9649;
-62.1000;0.6707;-0.9699;
-61.8000;0.6716;-0.9624;
-61.5000;0.6732;-0.9599;
-61.2000;0.6740;-0.9549;
-60.9000;0.6724;-0.9674;
-60.6000;0.6740;-0.9649;
-60.3000;0.6716;-0.9699;
-60.0000;0.6732;-0.9749;
-59.7000;0.6716;-0.9824;
-59.4000;0.6707;-0.9899;
-59.1000;0.6748;-0.9799;
-58.8000;0.6716;-0.9948;
-58.5000;0.6748;-0.9799;
-58.2000;0.6781;-0.9674;
-57.9000;0.6707;-0.9824;
-57.6000;0.6740;-0.9874;
-57.3000;0.6707;-0.9973;
-57.0000;0.6699;-1.0048;
-56.7000;0.6716;-0.9973;
-56.4000;0.6707;-0.9998;
-56.1000;0.6740;-0.9874;
-55.8000;0.6716;-0.9874;
-55.5000;0.6732;-0.9774;
-55.2000;0.6732;-0.9749;
-54.9000;0.6691;-0.9874;
-54.6000;0.6707;-0.9849;
-54.3000;0.6699;-0.9899;
-54.0000;0.6732;-0.9749;
-53.7000;0.6707;-0.9824;
-53.4000;0.6699;-0.9749;
-53.1000;0.6724;-0.9799;
-52.8000;0.6724;-0.9699;
-52.5000;0.6740;-0.9574;
-52.2000;0.6716;-0.9724;
-51.9000;0.6724;-0.9774;
-51.6000;0.6732;-0.9774;
-51.3000;0.6707;-0.9849;
-51.0000;0.6699;-0.9923;
-50.7000;0.6707;-0.9849;
-50.4000;0.6610;-0.9923;
-50.1000;0.6716;-0.9624;
-49.8000;0.6724;-0.9674;
-49.5000;0.6797;-0.9500;
-49.2000;0.6748;-0.9674;
-48.9000;0.6716;-0.9799;
-48.6000;0.6724;-0.9799;
-48.3000;0.6716;-0.9724;
-48.0000;0.6716;-0.9724;
-47.7000;0.6748;-0.9699;
-47.4000;0.6707;-0.9774;
-47.1000;0.6740;-0.9699;
-46.8000;0.6716;-0.9649;
-46.5000;0.6707;-0.9774;
-46.2000;0.6707;-0.9674;
-45.9000;0.6724;-0.9649;
-45.6000;0.6724;-0.9624;
-45.3000;0.6707;-0.9649;
-45.0000;0.6683;-0.9624;
-44.7000;0.6756;-0.9525;
-44.4000;0.6716;-0.9649;
-44.1000;0.6716;-0.9699;
-43.8000;0.6707;-0.9774;
-43.5000;0.6716;-0.9799;
-43.2000;0.6716;-0.9724;
-42.9000;0.6707;-0.9599;
-42.6000;0.6716;-0.9549;
-42.3000;0.6716;-0.9525;
-42.0000;0.6724;-0.9500;
-41.7000;0.6724;-0.9549;
-41.4000;0.6707;-0.9599;
-41.1000;0.6724;-0.9624;
-40.8000;0.6724;-0.9774;
-40.5000;0.6740;-0.9724;
-40.2000;0.6707;-0.9799;
-39.9000;0.6699;-0.9849;
-39.6000;0.6707;-0.9749;
-39.3000;0.6748;-0.9774;
-39.0000;0.6707;-0.9724;
-38.7000;0.6707;-0.9674;
-38.4000;0.6707;-0.9599;
-38.1000;0.6699;-0.9599;
-37.8000;0.6699;-0.9624;
-37.5000;0.6707;-0.9624;
-37.2000;0.6707;-0.9599;
-36.9000;0.6724;-0.9549;
-36.6000;0.6716;-0.9574;
-36.3000;0.6699;-0.9525;
-36.0000;0.6699;-0.9400;
-35.7000;0.6716;-0.9475;
-35.4000;0.6691;-0.9574;
-35.1000;0.6699;-0.9599;
-34.8000;0.6691;-0.9549;
-34.5000;0.6691;-0.9574;
-34.2000;0.6724;-0.9574;
-33.9000;0.6724;-0.9599;
-33.6000;0.6732;-0.9500;
-33.3000;0.6650;-0.9649;
-33.0000;0.6691;-0.9500;
-32.7000;0.6675;-0.9649;
-32.4000;0.6732;-0.9599;
-32.1000;0.6724;-0.9599;
-31.8000;0.6772;-0.9400;
-31.5000;0.6748;-0.9450;
-31.2000;0.6659;-0.9699;
-30.9000;0.6683;-0.9674;
-30.6000;0.6667;-0.9724;
-30.3000;0.6707;-0.9649;
-30.0000;0.6716;-0.9549;
-29.7000;0.6699;-0.9574;
-29.4000;0.6675;-0.9624;
-29.1000;0.6699;-0.9574;
-28.8000;0.6707;-0.9574;
-28.5000;0.6724;-0.9500;
-28.2000;0.6691;-0.9525;
-27.9000;0.6748;-0.9400;
-27.6000;0.6675;-0.9649;
-27.3000;0.6683;-0.9549;
-27.0000;0.6626;-0.9674;
-26.7000;0.6716;-0.9450;
-26.4000;0.6707;-0.9425;
-26.1000;0.6707;-0.9450;
-25.8000;0.6724;-0.9475;
-25.5000;0.6748;-0.9425;
-25.2000;0.6724;-0.9549;
-24.9000;0.6724;-0.9525;
-24.6000;0.6724;-0.9574;
-24.3000;0.6724;-0.9549;
-24.0000;0.6716;-0.9500;
-23.7000;0.6716;-0.9525;
-23.4000;0.6716;-0.9549;
-23.1000;0.6716;-0.9549;
-22.8000;0.6699;-0.9674;
-22.5000;0.6716;-0.9674;
-22.2000;0.6707;-0.9699;
-21.9000;0.6724;-0.9699;
-21.6000;0.6716;-0.9724;
-21.3000;0.6707;-0.9749;
-21.0000;0.6699;-0.9774;
-20.7000;0.6707;-0.9799;
-20.4000;0.6707;-0.9799;
-20.1000;0.6691;-0.9973;
-19.8000;0.6707;-0.9874;
-19.5000;0.6699;-0.9874;
-19.2000;0.6707;-0.9774;
-18.9000;0.6724;-0.9724;
-18.6000;0.6691;-0.9724;
-18.3000;0.6716;-0.9724;
-18.0000;0.6707;-0.9749;
-17.7000;0.6740;-0.9699;
-17.4000;0.6724;-0.9674;
-17.1000;0.6699;-0.9674;
-16.8000;0.6699;-0.9649;
-16.5000;0.6724;-0.9599;
-16.2000;0.6716;-0.9500;
-15.9000;0.6699;-0.9624;
-15.6000;0.6724;-0.9599;
-15.3000;0.6707;-0.9574;
-15.0000;0.6691;-0.9699;
-14.7000;0.6707;-0.9649;
-14.4000;0.6707;-0.9674;
-14.1000;0.6764;-0.9574;
-13.8000;0.6740;-0.9624;
-13.5000;0.6691;-0.9724;
-13.2000;0.6699;-0.9674;
-12.9000;0.6707;-0.9674;
-12.6000;0.6691;-0.9724;
-12.3000;0.6707;-0.9674;
-12.0000;0.6683;-0.9724;
-11.7000;0.6683;-0.9624;
-11.4000;0.6675;-0.9649;
-11.1000;0.6748;-0.9500;
-10.8000;0.6707;-0.9525;
-10.5000;0.6740;-0.9475;
-10.2000;0.6716;-0.9549;
-9.9000;0.6716;-0.9500;
-9.6000;0.6716;-0.9500;
-9.3000;0.6724;-0.9500;
-9.0000;0.6683;-0.9549;
-8.7000;0.6707;-0.9450;
-8.4000;0.6707;-0.9425;
-8.1000;0.6699;-0.9525;
-7.8000;0.6691;-0.9599;
-7.5000;0.6667;-0.9749;
-7.2000;0.6707;-0.9599;
-6.9000;0.6716;-0.9599;
-6.6000;0.6699;-0.9724;
-6.3000;0.6732;-0.9574;
-6.0000;0.6716;-0.9649;
-5.7000;0.6724;-0.9674;
-5.4000;0.6699;-0.9724;
-5.1000;0.6724;-0.9624;
-4.8000;0.6716;-0.9649;
-4.5000;0.6716;-0.9699;
-4.2000;0.6699;-0.9824;
-3.9000;0.6724;-0.9849;
-3.6000;0.6699;-0.9749;
-3.3000;0.6716;-0.9674;
-3.0000;0.6716;-0.9574;
-2.7000;0.6716;-0.9574;
-2.4000;0.6756;-0.9400;
-2.1000;0.6699;-0.9525;
-1.8000;0.6740;-0.9425;
-1.5000;0.6716;-0.9475;
-1.2000;0.6716;-0.9500;
-0.9000;0.6724;-0.9475;
-0.6000;0.6707;-0.9525;
-0.3000;0.6716;-0.9500;
0.0000;0.6716;-0.9500;
0.3000;0.6764;-0.9400;
0.6000;0.6919;-0.9126;
0.9000;0.7090;-0.8851;
1.2000;0.7147;-0.8702;
1.5000;0.7228;-0.8527;
1.8000;0.7236;-0.8602;
2.1000;0.7342;-0.8353;
2.4000;0.7375;-0.8253;
2.7000;0.7440;-0.8029;
3.0000;0.7440;-0.7829;
3.3000;0.7464;-0.7655;
3.6000;0.7473;-0.7605;
3.9000;0.7513;-0.7505;
4.2000;0.7538;-0.7480;
4.5000;0.7546;-0.7405;
4.8000;0.7538;-0.7455;
5.1000;0.7570;-0.7305;
5.4000;0.7578;-0.7305;
5.7000;0.7586;-0.7355;
6.0000;0.7635;-0.7231;
6.3000;0.7611;-0.7281;
6.6000;0.7635;-0.7256;
6.9000;0.7627;-0.7231;
7.2000;0.7660;-0.7106;
7.5000;0.7700;-0.7006;
7.8000;0.7652;-0.7156;
8.1000;0.7676;-0.7056;
8.4000;0.7668;-0.7106;
8.7000;0.7692;-0.7106;
9.0000;0.7749;-0.6956;
9.3000;0.7709;-0.7081;
9.6000;0.7749;-0.7031;
9.9000;0.7709;-0.7256;
10.2000;0.7757;-0.7156;
10.5000;0.7733;-0.7231;
10.8000;0.7733;-0.7256;
11.1000;0.7741;-0.7206;
11.4000;0.7749;-0.7206;
11.7000;0.7749;-0.7330;
12.0000;0.7782;-0.7231;
12.3000;0.7774;-0.7305;
12.6000;0.7790;-0.7355;
12.9000;0.7798;-0.7380;
13.2000;0.7823;-0.7355;
13.5000;0.7782;-0.7480;
13.8000;0.7806;-0.7455;
14.1000;0.7814;-0.7380;
14.4000;0.7847;-0.7405;
14.7000;0.7823;-0.7480;
15.0000;0.7839;-0.7380;
15.3000;0.7831;-0.7480;
15.6000;0.7855;-0.7405;
15.9000;0.7847;-0.7330;
16.2000;0.7863;-0.7330;
16.5000;0.7847;-0.7305;
16.8000;0.7920;-0.7256;
17.1000;0.7839;-0.7380;
17.4000;0.7847;-0.7305;
17.7000;0.7855;-0.7281;
18.0000;0.7814;-0.7405;
18.3000;0.7863;-0.7256;
18.6000;0.7896;-0.7206;
18.9000;0.7880;-0.7330;
19.2000;0.7880;-0.7405;
19.5000;0.7896;-0.7430;
19.8000;0.7888;-0.7380;
20.1000;0.7888;-0.7330;
20.4000;0.7896;-0.7330;
20.7000;0.7928;-0.7181;
21.0000;0.7928;-0.7281;
21.3000;0.7912;-0.7330;
21.6000;0.7920;-0.7405;
21.9000;0.7912;-0.7380;
22.2000;0.7977;-0.7305;
22.5000;0.7912;-0.7355;
22.8000;0.7969;-0.7206;
23.1000;0.7912;-0.7256;
23.4000;0.7937;-0.7256;
23.7000;0.7928;-0.7156;
24.0000;0.7920;-0.7156;
24.3000;0.7928;-0.7156;
24.6000;0.7953;-0.7056;
24.9000;0.7937;-0.7081;
25.2000;0.8002;-0.6907;
25.5000;0.7969;-0.6857;
25.8000;0.7961;-0.6931;
26.1000;0.7961;-0.6981;
26.4000;0.7953;-0.7056;
26.7000;0.7961;-0.7031;
27.0000;0.7920;-0.7206;
27.3000;0.7953;-0.7206;
27.6000;0.7945;-0.7156;
27.9000;0.7928;-0.7256;
28.2000;0.7953;-0.7231;
28.5000;0.7937;-0.7206;
28.8000;0.7953;-0.7156;
29.1000;0.8050;-0.6956;
29.4000;0.7969;-0.7231;
29.7000;0.7977;-0.7206;
30.0000;0.7977;-0.7181;
30.3000;0.7977;-0.7106;
30.6000;0.7961;-0.7131;
30.9000;0.7961;-0.7181;
31.2000;0.7977;-0.7181;
31.5000;0.7969;-0.7081;
31.8000;0.7985;-0.7056;
32.1000;0.7985;-0.7106;
32.4000;0.7993;-0.7156;
32.7000;0.7985;-0.7231;
33.0000;0.7977;-0.7256;
33.3000;0.7977;-0.7206;
33.6000;0.7985;-0.7231;
33.9000;0.7977;-0.7206;
34.2000;0.8018;-0.7156;
34.5000;0.8059;-0.6981;
34.8000;0.7945;-0.7156;
35.1000;0.7993;-0.7081;
35.4000;0.7977;-0.7031;
35.7000;0.8010;-0.6956;
36.0000;0.8010;-0.7056;
36.3000;0.8018;-0.7131;
36.6000;0.7993;-0.7206;
36.9000;0.7985;-0.7256;
37.2000;0.8002;-0.7156;
37.5000;0.8010;-0.7056;
37.8000;0.7993;-0.7156;
38.1000;0.7985;-0.7281;
38.4000;0.8002;-0.7281;
38.7000;0.8050;-0.7181;
39.0000;0.8010;-0.7305;
39.3000;0.8018;-0.7380;
39.6000;0.8010;-0.7305;
39.9000;0.8002;-0.7330;
40.2000;0.8018;-0.7380;
40.5000;0.8010;-0.7330;
40.8000;0.8026;-0.7305;
41.1000;0.8010;-0.7355;
41.4000;0.8010;-0.7330;
41.7000;0.8002;-0.7430;
42.0000;0.8002;-0.7480;
42.3000;0.8018;-0.7530;
42.6000;0.8018;-0.7405;
42.9000;0.8002;-0.7430;
43.2000;0.8010;-0.7405;
43.5000;0.8010;-0.7405;
43.8000;0.8002;-0.7380;
44.1000;0.8034;-0.7355;
44.4000;0.8034;-0.7380;
44.7000;0.8042;-0.7305;
45.0000;0.8026;-0.7281;
45.3000;0.8050;-0.7231;
45.6000;0.8042;-0.7405;
45.9000;0.8059;-0.7405;
46.2000;0.8026;-0.7505;
46.5000;0.8050;-0.7505;
46.8000;0.8010;-0.7605;
47.1000;0.8026;-0.7530;
47.4000;0.8026;-0.7530;
47.7000;0.8042;-0.7480;
48.0000;0.8034;-0.7430;
48.3000;0.8010;-0.7530;
48.6000;0.8050;-0.7430;
48.9000;0.8042;-0.7505;
49.2000;0.8067;-0.7380;
49.5000;0.8018;-0.7455;
49.8000;0.8034;-0.7480;
50.1000;0.8059;-0.7380;
50.4000;0.8059;-0.7355;
50.7000;0.8042;-0.7380;
51.0000;0.8050;-0.7355;
51.3000;0.8042;-0.7330;
51.6000;0.8010;-0.7380;
51.9000;0.8042;-0.7380;
52.2000;0.8034;-0.7380;
52.5000;0.7969;-0.7505;
52.8000;0.8042;-0.7380;
53.1000;0.8059;-0.7430;
53.4000;0.8034;-0.7455;
53.7000;0.8042;-0.7355;
54.0000;0.8050;-0.7305;
54.3000;0.8034;-0.7405;
54.6000;0.8034;-0.7380;
54.9000;0.8050;-0.7355;
55.2000;0.8050;-0.7281;
55.5000;0.8034;-0.7405;
55.8000;0.8042;-0.7305;
56.1000;0.8059;-0.7330;
56.4000;0.8059;-0.7405;
56.7000;0.8050;-0.7405;
57.0000;0.8059;-0.7355;
57.3000;0.8083;-0.7305;
57.6000;0.8050;-0.7305;
57.9000;0.8050;-0.7405;
58.2000;0.8050;-0.7355;
58.5000;0.8059;-0.7330;
58.8000;0.8075;-0.7380;
59.1000;0.8050;-0.7480;
59.4000;0.8083;-0.7405;
59.7000;0.8059;-0.7405;
60.0000;0.8067;-0.7455;
60.3000;0.8067;-0.7455;
60.6000;0.8075;-0.7505;
60.9000;0.8042;-0.7630;
61.2000;0.8075;-0.7505;
61.5000;0.7993;-0.7605;
61.8000;0.8059;-0.7405;
62.1000;0.8067;-0.7380;
62.4000;0.8075;-0.7330;
62.7000;0.8083;-0.7330;
63.0000;0.8075;-0.7256;
63.3000;0.8059;-0.7330;
63.6000;0.8059;-0.7305;
63.9000;0.8050;-0.7281;
64.2000;0.8067;-0.7231;
64.5000;0.8034;-0.7355;
64.8000;0.8059;-0.7355;
65.1000;0.8059;-0.7405;
65.4000;0.8059;-0.7405;
65.7000;0.8050;-0.7355;
66.0000;0.8059;-0.7330;
66.3000;0.8067;-0.7355;
66.6000;0.8075;-0.7355;
66.9000;0.8059;-0.7480;
67.2000;0.8075;-0.7405;
67.5000;0.8050;-0.7455;
67.8000;0.8059;-0.7405;
68.1000;0.8083;-0.7355;
68.4000;0.8067;-0.7330;
68.7000;0.8067;-0.7281;
69.0000;0.8075;-0.7231;
69.3000;0.8059;-0.7305;
69.6000;0.8083;-0.7256;
69.9000;0.8075;-0.7305;
70.2000;0.8083;-0.7355;
70.5000;0.8083;-0.7330;
70.8000;0.8075;-0.7430;
71.1000;0.8075;-0.7430;
71.4000;0.8075;-0.7430;
71.7000;0.8156;-0.7256;
72.0000;0.8099;-0.7530;
72.3000;0.8067;-0.7555;
72.6000;0.8067;-0.7555;
72.9000;0.8083;-0.7580;
73.2000;0.8075;-0.7655;
73.5000;0.8059;-0.7655;
73.8000;0.8075;-0.7530;
74.1000;0.8067;-0.7580;
74.4000;0.8075;-0.7555;
74.7000;0.8083;-0.7580;
75.0000;0.8099;-0.7505;
75.3000;0.8091;-0.7505;
75.6000;0.8107;-0.7405;
75.9000;0.8075;-0.7480;
76.2000;0.8067;-0.7430;
76.5000;0.8059;-0.7530;
76.8000;0.8059;-0.7655;
77.1000;0.8083;-0.7704;
77.4000;0.8083;-0.7605;
77.7000;0.8083;-0.7530;
78.0000;0.8075;-0.7505;
78.3000;0.8099;-0.7530;
78.6000;0.8075;-0.7480;
78.9000;0.8075;-0.7455;
79.2000;0.8075;-0.7380;
79.5000;0.8091;-0.7330;
79.8000;0.8091;-0.7405;
80.1000;0.8091;-0.7405;
80.4000;0.8083;-0.7380;
80.7000;0.8075;-0.7430;
81.0000;0.8067;-0.7480;
81.3000;0.8075;-0.7455;
81.6000;0.8091;-0.7480;
81.9000;0.8116;-0.7380;
82.2000;0.8083;-0.7555;
82.5000;0.8059;-0.7605;
82.8000;0.8059;-0.7605;
83.1000;0.8091;-0.7630;
83.4000;0.8116;-0.7555;
83.7000;0.8083;-0.7605;
84.0000;0.8075;-0.7555;
84.3000;0.8124;-0.7430;
84.6000;0.8091;-0.7430;
84.9000;0.8067;-0.7580;
85.2000;0.8067;-0.7655;
85.5000;0.8010;-0.7804;
85.8000;0.8083;-0.7605;
86.1000;0.8075;-0.7555;
86.4000;0.8091;-0.7505;
86.7000;0.8067;-0.7580;
87.0000;0.8099;-0.7555;
87.3000;0.8099;-0.7580;
87.6000;0.8164;-0.7355;
87.9000;0.8091;-0.7555;
88.2000;0.8083;-0.7555;
88.5000;0.8107;-0.7530;
88.8000;0.8075;-0.7555;
89.1000;0.8075;-0.7505;
89.4000;0.8091;-0.7455;
89.7000;0.8083;-0.7455;
90.0000;0.8067;-0.7430;
90.3000;0.8107;-0.7380;
90.6000;0.8116;-0.7330;
90.9000;0.8091;-0.7430;
91.2000;0.8026;-0.7530;
91.5000;0.8099;-0.7380;
91.8000;0.8099;-0.7355;
92.1000;0.8107;-0.7305;
92.4000;0.8107;-0.7355;
92.7000;0.8124;-0.7355;
93.0000;0.8091;-0.7480;
93.3000;0.8107;-0.7480;
93.6000;0.8107;-0.7405;
93.9000;0.8091;-0.7455;
94.2000;0.8091;-0.7430;
94.5000;0.8116;-0.7330;
94.8000;0.8083;-0.7455;
95.1000;0.8091;-0.7430;
95.4000;0.8059;-0.7430;
95.7000;0.8083;-0.7256;
96.0000;0.8107;-0.7256;
96.3000;0.8107;-0.7256;
96.6000;0.8099;-0.7355;
96.9000;0.8140;-0.7330;
97.2000;0.8132;-0.7380;
97.5000;0.8107;-0.7405;
97.8000;0.8116;-0.7355;
98.1000;0.8107;-0.7405;
98.4000;0.8059;-0.7530;
98.7000;0.8099;-0.7380;
99.0000;0.8124;-0.7305;
99.3000;0.8091;-0.7231;
99.6000;0.8099;-0.7256;
99.9000;0.8124;-0.7281;
100.2000;0.8083;-0.7430;
100.5000;0.8075;-0.7405;
100.8000;0.8075;-0.7405;
101.1000;0.8091;-0.7305;
101.4000;0.8083;-0.7305;
101.7000;0.8091;-0.7305;
102.0000;0.8091;-0.7405;
102.3000;0.8116;-0.7380;
102.6000;0.8099;-0.7455;
102.9000;0.8099;-0.7430;
103.2000;0.8116;-0.7405;
103.5000;0.8124;-0.7430;
103.8000;0.8124;-0.7430;
104.1000;0.8107;-0.7430;
104.4000;0.8091;-0.7430;
104.7000;0.8116;-0.7380;
105.0000;0.8156;-0.7281;
105.3000;0.8075;-0.7480;
105.6000;0.8099;-0.7480;
105.9000;0.8099;-0.7505;
106.2000;0.8116;-0.7455;
106.5000;0.8124;-0.7505;
106.8000;0.8067;-0.7580;
107.1000;0.8107;-0.7480;
107.4000;0.8107;-0.7380;
107.7000;0.8083;-0.7505;
108.0000;0.8091;-0.7555;
108.3000;0.8116;-0.7530;
108.6000;0.8099;-0.7530;
108.9000;0.8107;-0.7555;
109.2000;0.8091;-0.7530;
109.5000;0.8107;-0.7530;
109.8000;0.8083;-0.7655;
110.1000;0.8107;-0.7530;
110.4000;0.8099;-0.7555;
110.7000;0.8099;-0.7655;
111.0000;0.8107;-0.7679;
111.3000;0.8124;-0.7679;
111.6000;0.8116;-0.7704;
111.9000;0.8107;-0.7704;
112.2000;0.8075;-0.7754;
112.5000;0.8107;-0.7729;
112.8000;0.8140;-0.7630;
113.1000;0.8107;-0.7729;
113.4000;0.8099;-0.7754;
113.7000;0.8099;-0.7679;
114.0000;0.8091;-0.7779;
114.3000;0.8107;-0.7729;
114.6000;0.8107;-0.7729;
114.9000;0.8107;-0.7679;
115.2000;0.8116;-0.7505;
115.5000;0.8099;-0.7555;
115.8000;0.8083;-0.7530;
116.1000;0.8116;-0.7480;
116.4000;0.8099;-0.7580;
116.7000;0.8124;-0.7655;
117.0000;0.8132;-0.7655;
117.3000;0.8116;-0.7655;
117.6000;0.8140;-0.7580;
117.9000;0.8140;-0.7679;
118.2000;0.8148;-0.7704;
118.5000;0.8132;-0.7829;
118.8000;0.8148;-0.7804;
119.1000;0.8124;-0.7829;
119.4000;0.8091;-0.7829;
119.7000;0.8132;-0.7704;
120.0000;0.8181;-0.7480;
120.3000;0.8156;-0.7480;
120.6000;0.8091;-0.7630;
120.9000;0.8124;-0.7655;
121.2000;0.8075;-0.7804;
121.5000;0.8091;-0.7754;
121.8000;0.8075;-0.7829;
122.1000;0.8124;-0.7729;
122.4000;0.8116;-0.7754;
122.7000;0.8010;-0.8004;
123.0000;0.8116;-0.7779;
123.3000;0.8099;-0.7829;
123.6000;0.8083;-0.7904;
123.9000;0.8124;-0.7829;
124.2000;0.8148;-0.7729;
124.5000;0.8050;-0.7929;
124.8000;0.8091;-0.7804;
125.1000;0.8107;-0.7704;
125.4000;0.8132;-0.7630;
125.7000;0.8099;-0.7655;
126.0000;0.8124;-0.7555;
126.3000;0.8116;-0.7580;
126.6000;0.8132;-0.7605;
126.9000;0.8124;-0.7555;
127.2000;0.8116;-0.7480;
127.5000;0.8116;-0.7505;
127.8000;0.8140;-0.7430;
128.1000;0.8116;-0.7330;
128.4000;0.8132;-0.7330;
128.7000;0.8140;-0.7281;
129.0000;0.8132;-0.7330;
129.3000;0.8132;-0.7355;
129.6000;0.8116;-0.7405;
129.9000;0.8116;-0.7430;
130.2000;0.8107;-0.7505;
130.5000;0.8140;-0.7405;
130.8000;0.8107;-0.7380;
131.1000;0.8124;-0.7355;
131.4000;0.8124;-0.7430;
131.7000;0.8132;-0.7430;
132.0000;0.8124;-0.7430;
132.3000;0.8132;-0.7505;
132.6000;0.8124;-0.7505;
132.9000;0.8164;-0.7405;
133.2000;0.8091;-0.7605;
133.5000;0.8107;-0.7505;
133.8000;0.8181;-0.7405;
134.1000;0.8124;-0.7555;
134.4000;0.8140;-0.7530;
134.7000;0.8132;-0.7555;
135.0000;0.8132;-0.7555;
135.3000;0.8124;-0.7505;
135.6000;0.8132;-0.7430;
135.9000;0.8075;-0.7530;
136.2000;0.8116;-0.7455;
136.5000;0.8116;-0.7430;
136.8000;0.8173;-0.7206;
137.1000;0.8116;-0.7455;
137.4000;0.8124;-0.7505;
137.7000;0.8124;-0.7455;
138.0000;0.8107;-0.7530;
138.3000;0.8132;-0.7480;
138.6000;0.8140;-0.7530;
138.9000;0.8116;-0.7729;
139.2000;0.8116;-0.7704;
139.5000;0.8140;-0.7605;
139.8000;0.8124;-0.7580;
140.1000;0.8132;-0.7530;
140.4000;0.8132;-0.7455;
140.7000;0.8124;-0.7430;
141.0000;0.8124;-0.7380;
141.3000;0.8099;-0.7530;
141.6000;0.8107;-0.7480;
141.9000;0.8156;-0.7305;
142.2000;0.8067;-0.7555;
142.5000;0.8124;-0.7505;
142.8000;0.8099;-0.7505;
143.1000;0.8132;-0.7505;
143.4000;0.8050;-0.7704;
143.7000;0.8140;-0.7480;
144.0000;0.8116;-0.7455;
144.3000;0.8091;-0.7480;
144.6000;0.8107;-0.7480;
144.9000;0.8099;-0.7605;
145.2000;0.8197;-0.7380;
145.5000;0.8034;-0.7655;
145.8000;0.8107;-0.7455;
146.1000;0.8124;-0.7555;
146.4000;0.8124;-0.7555;
146.7000;0.8132;-0.7530;
147.0000;0.8124;-0.7555;
147.3000;0.8124;-0.7555;
147.6000;0.8124;-0.7630;
147.9000;0.8116;-0.7729;
148.2000;0.8132;-0.7505;
148.5000;0.8124;-0.7430;
148.8000;0.8148;-0.7405;
149.1000;0.8140;-0.7455;
149.4000;0.8140;-0.7455;
149.7000;0.8189;-0.7430;
150.0000;0.8140;-0.7580;
150.3000;0.8148;-0.7480;
150.6000;0.8148;-0.7480;
150.9000;0.8116;-0.7530;
151.2000;0.8132;-0.7455;
151.5000;0.8181;-0.7380;
151.8000;0.8091;-0.7555;
152.1000;0.8132;-0.7480;
152.4000;0.8132;-0.7530;
152.7000;0.8116;-0.7505;
153.0000;0.8099;-0.7555;
153.3000;0.8116;-0.7505;
153.6000;0.8116;-0.7530;
153.9000;0.8107;-0.7480;
154.2000;0.8132;-0.7380;
154.5000;0.8132;-0.7430;
154.8000;0.8124;-0.7405;
155.1000;0.8116;-0.7430;
155.4000;0.8107;-0.7555;
155.7000;0.8083;-0.7580;
156.0000;0.8099;-0.7480;
156.3000;0.8140;-0.7430;
156.6000;0.8148;-0.7505;
156.9000;0.8107;-0.7530;
157.2000;0.8116;-0.7480;
157.5000;0.8107;-0.7530;
157.8000;0.8099;-0.7555;
158.1000;0.8164;-0.7455;
158.4000;0.8107;-0.7580;
158.7000;0.8140;-0.7480;
159.0000;0.8124;-0.7555;
159.3000;0.8124;-0.7455;
159.6000;0.8116;-0.7430;
159.9000;0.8124;-0.7405;
160.2000;0.8132;-0.7480;
160.5000;0.8132;-0.7505;
160.8000;0.8124;-0.7555;
161.1000;0.8132;-0.7555;
161.4000;0.8132;-0.7555;
161.7000;0.8116;-0.7605;
162.0000;0.8116;-0.7555;
162.3000;0.8132;-0.7555;
162.6000;0.8124;-0.7580;
162.9000;0.8116;-0.7555;
163.2000;0.8116;-0.7555;
163.5000;0.8107;-0.7505;
163.8000;0.8132;-0.7480;
164.1000;0.8164;-0.7380;
164.4000;0.8132;-0.7455;
164.7000;0.8099;-0.7605;
165.0000;0.8148;-0.7555;
165.3000;0.8140;-0.7555;
165.6000;0.8099;-0.7655;
165.9000;0.8116;-0.7505;
166.2000;0.8140;-0.7480;
166.5000;0.8124;-0.7530;
166.8000;0.8116;-0.7455;
167.1000;0.8075;-0.7580;
167.4000;0.8075;-0.7605;
167.7000;0.8116;-0.7430;
168.0000;0.8124;-0.7305;
168.3000;0.8042;-0.7430;
168.6000;0.8083;-0.7256;
168.9000;0.8132;-0.7181;
169.2000;0.8099;-0.7206;
169.5000;0.8140;-0.7106;
169.8000;0.8116;-0.7281;
170.1000;0.8116;-0.7380;
170.4000;0.8116;-0.7530;
170.7000;0.8107;-0.7505;
171.0000;0.8140;-0.7380;
171.3000;0.8124;-0.7480;
171.6000;0.8124;-0.7505;
171.9000;0.8042;-0.7804;
172.2000;0.8107;-0.7655;
172.5000;0.8107;-0.7630;
172.8000;0.8132;-0.7505;
173.1000;0.8124;-0.7605;
173.4000;0.8075;-0.7754;
173.7000;0.8173;-0.7605;
174.0000;0.8099;-0.7804;
174.3000;0.8124;-0.7655;
174.6000;0.8140;-0.7580;
174.9000;0.8124;-0.7555;
175.2000;0.8132;-0.7555;
175.5000;0.8107;-0.7630;
175.8000;0.8132;-0.7555;
176.1000;0.8107;-0.7580;
176.4000;0.8132;-0.7605;
176.7000;0.8132;-0.7655;
177.0000;0.8124;-0.7729;
177.3000;0.8107;-0.7754;
177.6000;0.8107;-0.7754;
177.9000;0.8107;-0.7779;
178.2000;0.8091;-0.7704;
178.5000;0.8164;-0.7480;
178.8000;0.8091;-0.7704;
179.1000;0.8099;-0.7655;
179.4000;0.8067;-0.7679;
179.7000;0.8107;-0.7580;
180.0000;0.8107;-0.7679;
180.3000;0.8099;-0.7729;
180.6000;0.8075;-0.7829;
180.9000;0.8091;-0.7829;
181.2000;0.8107;-0.7804;
181.5000;0.8124;-0.7754;
181.8000;0.8173;-0.7555;
182.1000;0.8116;-0.7679;
182.4000;0.8116;-0.7580;
182.7000;0.8107;-0.7580;
183.0000;0.8132;-0.7480;
183.3000;0.8124;-0.7555;
183.6000;0.8116;-0.7580;
183.9000;0.8099;-0.7555;
184.2000;0.8124;-0.7480;
184.5000;0.8116;-0.7505;
184.8000;0.8099;-0.7555;
185.1000;0.8132;-0.7530;
185.4000;0.8140;-0.7480;
185.7000;0.8124;-0.7580;
186.0000;0.8124;-0.7605;
186.3000;0.8132;-0.7605;
186.6000;0.8124;-0.7505;
186.9000;0.8132;-0.7505;
187.2000;0.8116;-0.7555;
187.5000;0.8132;-0.7455;
187.8000;0.8099;-0.7555;
188.1000;0.8116;-0.7555;
188.4000;0.8067;-0.7704;
188.7000;0.8099;-0.7679;
189.0000;0.8116;-0.7630;
189.3000;0.8116;-0.7480;
189.6000;0.8148;-0.7505;
189.9000;0.8116;-0.7605;
190.2000;0.8075;-0.7704;
190.5000;0.8124;-0.7530;
190.8000;0.8099;-0.7605;
191.1000;0.8116;-0.7555;
191.4000;0.8116;-0.7505;
191.7000;0.8124;-0.7480;
192.0000;0.8034;-0.7779;
192.3000;0.8083;-0.7580;
192.6000;0.8107;-0.7555;
192.9000;0.8107;-0.7405;
193.2000;0.8132;-0.7405;
193.5000;0.8116;-0.7380;
193.8000;0.8116;-0.7455;
194.1000;0.8124;-0.7480;
194.4000;0.8132;-0.7505;
194.7000;0.8107;-0.7480;
195.0000;0.8132;-0.7405;
195.3000;0.8124;-0.7530;
195.6000;0.8107;-0.7580;
195.9000;0.8132;-0.7480;
196.2000;0.8116;-0.7555;
196.5000;0.8107;-0.7555;
196.8000;0.8099;-0.7580;
197.1000;0.8116;-0.7480;
197.4000;0.8140;-0.7480;
197.7000;0.8173;-0.7455;
198.0000;0.8083;-0.7630;
198.3000;0.8140;-0.7405;
198.6000;0.8116;-0.7505;
198.9000;0.8099;-0.7555;
199.2000;0.8107;-0.7555;
199.5000;0.8132;-0.7530;
199.8000;0.8124;-0.7505;
200.1000;0.8116;-0.7505;
200.4000;0.8116;-0.7455;
200.7000;0.8132;-0.7480;
201.0000;0.8132;-0.7455;
201.3000;0.8116;-0.7605;
201.6000;0.8124;-0.7655;
201.9000;0.8132;-0.7480;
202.2000;0.8140;-0.7505;
202.5000;0.8132;-0.7555;
202.8000;0.8099;-0.7530;
203.1000;0.8124;-0.7405;
203.4000;0.8107;-0.7380;
203.7000;0.8116;-0.7430;
204.0000;0.8075;-0.7605;
204.3000;0.8107;-0.7580;
204.6000;0.8099;-0.7555;
204.9000;0.8107;-0.7580;
205.2000;0.8116;-0.7580;
205.5000;0.8116;-0.7530;
205.8000;0.8124;-0.7405;
206.1000;0.8132;-0.7380;
206.4000;0.8124;-0.7305;
206.7000;0.8124;-0.7405;
207.0000;0.8124;-0.7430;
207.3000;0.8107;-0.7380;
207.6000;0.8132;-0.7355;
207.9000;0.8116;-0.7380;
208.2000;0.8148;-0.7330;
208.5000;0.8148;-0.7206;
208.8000;0.8124;-0.7355;
209.1000;0.8124;-0.7380;
209.4000;0.8132;-0.7330;
209.7000;0.8099;-0.7430;
210.0000;0.8156;-0.7355;
210.3000;0.8116;-0.7430;
210.6000;0.8091;-0.7430;
210.9000;0.8099;-0.7380;
211.2000;0.8124;-0.7355;
211.5000;0.8107;-0.7455;
211.8000;0.8075;-0.7530;
212.1000;0.8140;-0.7206;
212.4000;0.8099;-0.7305;
212.7000;0.8018;-0.7505;
213.0000;0.8124;-0.7355;
213.3000;0.8075;-0.7455;
213.6000;0.8107;-0.7430;
213.9000;0.8067;-0.7580;
214.2000;0.8116;-0.7530;
214.5000;0.8067;-0.7605;
214.8000;0.8164;-0.7405;
215.1000;0.8107;-0.7555;
215.4000;0.8116;-0.7555;
215.7000;0.8099;-0.7580;
216.0000;0.8116;-0.7530;
216.3000;0.8116;-0.7530;
216.6000;0.8099;-0.7505;
216.9000;0.8107;-0.7455;
217.2000;0.8140;-0.7330;
217.5000;0.8099;-0.7405;
217.8000;0.8132;-0.7305;
218.1000;0.8116;-0.7355;
218.4000;0.8116;-0.7355;
218.7000;0.8132;-0.7281;
219.0000;0.8116;-0.7231;
219.3000;0.8107;-0.7305;
219.6000;0.8124;-0.7330;
219.9000;0.8124;-0.7355;
220.2000;0.8124;-0.7380;
220.5000;0.8124;-0.7405;
220.8000;0.8116;-0.7405;
221.1000;0.8132;-0.7305;
221.4000;0.8140;-0.7330;
221.7000;0.8132;-0.7380;
222.0000;0.8124;-0.7455;
222.3000;0.8116;-0.7430;
222.6000;0.8059;-0.7580;
222.9000;0.8099;-0.7505;
223.2000;0.8099;-0.7555;
223.5000;0.8116;-0.7580;
223.8000;0.8124;-0.7605;
224.1000;0.8107;-0.7530;
224.4000;0.8107;-0.7430;
224.7000;0.8099;-0.7480;
225.0000;0.8124;-0.7505;
225.3000;0.8124;-0.7555;
225.6000;0.8132;-0.7455;
225.9000;0.8124;-0.7405;
226.2000;0.8124;-0.7330;
226.5000;0.8124;-0.7330;
226.8000;0.8132;-0.7305;
227.1000;0.8124;-0.7231;
227.4000;0.8116;-0.7181;
227.7000;0.8132;-0.7181;
228.0000;0.8181;-0.7056;
228.3000;0.8107;-0.7256;
228.6000;0.8091;-0.7305;
228.9000;0.8124;-0.7380;
229.2000;0.8099;-0.7430;
229.5000;0.8099;-0.7480;
229.8000;0.8091;-0.7530;
230.1000;0.8099;-0.7430;
230.4000;0.8107;-0.7355;
230.7000;0.8116;-0.7281;
231.0000;0.8116;-0.7231;
231.3000;0.8099;-0.7405;
231.6000;0.8116;-0.7455;
231.9000;0.8124;-0.7505;
232.2000;0.8132;-0.7455;
232.5000;0.8140;-0.7355;
232.8000;0.8116;-0.7505;
233.1000;0.8124;-0.7455;
233.4000;0.8148;-0.7455;
233.7000;0.8140;-0.7505;
234.0000;0.8083;-0.7655;
234.3000;0.8124;-0.7505;
234.6000;0.8091;-0.7555;
234.9000;0.8132;-0.7505;
235.2000;0.8148;-0.7480;
235.5000;0.8140;-0.7455;
235.8000;0.8091;-0.7555;
236.1000;0.8026;-0.7754;
236.4000;0.8099;-0.7555;
236.7000;0.8075;-0.7555;
237.0000;0.8099;-0.7505;
237.3000;0.8083;-0.7630;
237.6000;0.8075;-0.7605;
237.9000;0.8083;-0.7580;
238.2000;0.8107;-0.7630;
238.5000;0.8083;-0.7754;
238.8000;0.8091;-0.7754;
239.1000;0.8116;-0.7655;
239.4000;0.8132;-0.7580;
239.7000;0.8116;-0.7630;
240.0000;0.8124;-0.7530;
240.3000;0.8107;-0.7430;
240.6000;0.8099;-0.7530;
240.9000;0.8107;-0.7555;
241.2000;0.8099;-0.7530;
241.5000;0.8173;-0.7305;
241.8000;0.8132;-0.7355;
242.1000;0.8164;-0.7231;
242.4000;0.8107;-0.7380;
242.7000;0.8116;-0.7530;
243.0000;0.7993;-0.7829;
243.3000;0.8124;-0.7405;
243.6000;0.8124;-0.7355;
243.9000;0.8124;-0.7380;
244.2000;0.8124;-0.7330;
244.5000;0.8116;-0.7380;
244.8000;0.8107;-0.7355;
245.1000;0.8124;-0.7330;
245.4000;0.8124;-0.7355;
245.7000;0.8124;-0.7380;
246.0000;0.8083;-0.7430;
246.3000;0.8026;-0.7505;
246.6000;0.8140;-0.7206;
246.9000;0.8099;-0.7281;
247.2000;0.8099;-0.7231;
247.5000;0.8099;-0.7281;
247.8000;0.8099;-0.7256;
248.1000;0.8116;-0.7206;
248.4000;0.8116;-0.7206;
248.7000;0.8140;-0.7206;
249.0000;0.8116;-0.7281;
249.3000;0.8099;-0.7305;
249.6000;0.8189;-0.7081;
249.9000;0.8083;-0.7455;
250.2000;0.8099;-0.7330;
250.5000;0.8116;-0.7281;
250.8000;0.8116;-0.7305;
251.1000;0.8091;-0.7330;
251.4000;0.8099;-0.7330;
251.7000;0.8075;-0.7480;
252.0000;0.8140;-0.7206;
252.3000;0.8116;-0.7231;
252.6000;0.8075;-0.7281;
252.9000;0.8124;-0.7081;
253.2000;0.8124;-0.7181;
253.5000;0.8124;-0.7181;
253.8000;0.8116;-0.7281;
254.1000;0.8124;-0.7305;
254.4000;0.8124;-0.7430;
254.7000;0.8116;-0.7430;
255.0000;0.8132;-0.7330;
255.3000;0.8116;-0.7330;
255.6000;0.8132;-0.7305;
255.9000;0.8083;-0.7555;
256.2000;0.8116;-0.7505;
256.5000;0.8107;-0.7555;
256.8000;0.8173;-0.7405;
257.1000;0.8107;-0.7505;
257.4000;0.8116;-0.7430;
257.7000;0.8140;-0.7355;
258.0000;0.8099;-0.7480;
258.3000;0.8124;-0.7505;
258.6000;0.8107;-0.7480;
258.9000;0.8116;-0.7430;
259.2000;0.8091;-0.7405;
259.5000;0.8116;-0.7380;
259.8000;0.8067;-0.7530;
260.1000;0.8067;-0.7580;
260.4000;0.8099;-0.7555;
260.7000;0.8091;-0.7729;
261.0000;0.8075;-0.7804;
261.3000;0.8083;-0.7779;
261.6000;0.8083;-0.7655;
261.9000;0.8124;-0.7655;
262.2000;0.8173;-0.7555;
262.5000;0.8116;-0.7630;
262.8000;0.8189;-0.7405;
263.1000;0.8107;-0.7580;
263.4000;0.8107;-0.7580;
263.7000;0.8116;-0.7605;
264.0000;0.8107;-0.7555;
264.3000;0.8116;-0.7505;
264.6000;0.8107;-0.7505;
264.9000;0.8107;-0.7480;
265.2000;0.8107;-0.7480;
265.5000;0.8107;-0.7480;
265.8000;0.8083;-0.7530;
266.1000;0.8083;-0.7480;
266.4000;0.8091;-0.7405;
266.7000;0.8091;-0.7405;
267.0000;0.8116;-0.7330;
267.3000;0.8124;-0.7330;
267.6000;0.8099;-0.7330;
267.9000;0.8075;-0.7380;
268.2000;0.8099;-0.7305;
268.5000;0.8099;-0.7380;
268.8000;0.8205;-0.7006;
269.1000;0.8107;-0.7305;
269.4000;0.8091;-0.7256;
269.7000;0.8099;-0.7355;
270.0000;0.8116;-0.7281;
270.3000;0.7993;-0.7530;
270.6000;0.8099;-0.7206;
270.9000;0.8091;-0.7156;
271.2000;0.8107;-0.7106;
271.5000;0.8140;-0.7081;
271.8000;0.8083;-0.7281;
272.1000;0.8124;-0.7231;
272.4000;0.8099;-0.7231;
272.7000;0.8099;-0.7256;
273.0000;0.8116;-0.7256;
273.3000;0.8099;-0.7330;
273.6000;0.8107;-0.7281;
273.9000;0.8091;-0.7231;
274.2000;0.8099;-0.7181;
274.5000;0.8140;-0.7106;
274.8000;0.8107;-0.7380;
275.1000;0.8099;-0.7355;
275.4000;0.8075;-0.7455;
275.7000;0.8091;-0.7430;
276.0000;0.8091;-0.7455;
276.3000;0.8099;-0.7455;
276.6000;0.8099;-0.7405;
276.9000;0.8099;-0.7480;
277.2000;0.8124;-0.7430;
277.5000;0.8116;-0.7355;
277.8000;0.8116;-0.7330;
278.1000;0.8116;-0.7305;
278.4000;0.8132;-0.7281;
278.7000;0.8107;-0.7380;
279.0000;0.8107;-0.7480;
279.3000;0.8107;-0.7480;
279.6000;0.8116;-0.7455;
279.9000;0.8099;-0.7505;
280.2000;0.8107;-0.7480;
280.5000;0.8099;-0.7455;
280.8000;0.8116;-0.7405;
281.1000;0.8099;-0.7355;
281.4000;0.8107;-0.7330;
281.7000;0.8091;-0.7281;
282.0000;0.8091;-0.7206;
282.3000;0.8107;-0.7355;
282.6000;0.8083;-0.7480;
282.9000;0.8107;-0.7505;
283.2000;0.8107;-0.7480;
283.5000;0.8107;-0.7480;
283.8000;0.8124;-0.7480;
284.1000;0.8164;-0.7405;
284.4000;0.8140;-0.7405;
284.7000;0.8091;-0.7430;
285.0000;0.8099;-0.7330;
285.3000;0.8124;-0.7256;
285.6000;0.8091;-0.7231;
285.9000;0.8107;-0.7181;
286.2000;0.8059;-0.7380;
286.5000;0.8107;-0.7305;
286.8000;0.8091;-0.7380;
287.1000;0.8075;-0.7380;
287.4000;0.8083;-0.7480;
287.7000;0.8091;-0.7430;
288.0000;0.8083;-0.7430;
288.3000;0.8107;-0.7330;
288.6000;0.8075;-0.7330;
288.9000;0.8099;-0.7256;
289.2000;0.8124;-0.7256;
289.5000;0.8075;-0.7330;
289.8000;0.8107;-0.7256;
290.1000;0.8107;-0.7330;
290.4000;0.8091;-0.7455;
290.7000;0.8075;-0.7580;
291.0000;0.8067;-0.7630;
291.3000;0.8059;-0.7630;
291.6000;0.8083;-0.7630;
291.9000;0.8075;-0.7679;
292.2000;0.8091;-0.7679;
292.5000;0.8067;-0.7779;
292.8000;0.8181;-0.7505;
293.1000;0.8099;-0.7630;
293.4000;0.8107;-0.7605;
293.7000;0.8107;-0.7655;
294.0000;0.8124;-0.7605;
294.3000;0.8148;-0.7679;
294.6000;0.8156;-0.7655;
294.9000;0.8083;-0.7754;
295.2000;0.8067;-0.7854;
295.5000;0.8059;-0.7804;
295.8000;0.8075;-0.7804;
296.1000;0.8059;-0.7879;
296.4000;0.8091;-0.7704;
296.7000;0.8075;-0.7829;
297.0000;0.8116;-0.7729;
297.3000;0.8075;-0.7904;
297.6000;0.8083;-0.7829;
297.9000;0.8091;-0.7679;
298.2000;0.8132;-0.7655;
298.5000;0.8099;-0.7630;
298.8000;0.8099;-0.7630;
299.1000;0.8116;-0.7679;
299.4000;0.8099;-0.7729;
299.7000;0.8099;-0.7704;
300.0000;0.8059;-0.7829;
300.3000;0.8099;-0.7704;
300.6000;0.8075;-0.7779;
300.9000;0.8067;-0.7854;
301.2000;0.8091;-0.7804;
301.5000;0.8099;-0.7729;
301.8000;0.8099;-0.7804;
302.1000;0.8083;-0.7854;
302.4000;0.8099;-0.7804;
302.7000;0.8107;-0.7754;
303.0000;0.8124;-0.7704;
303.3000;0.8107;-0.7804;
303.6000;0.8116;-0.7729;
303.9000;0.8173;-0.7555;
304.2000;0.8099;-0.7729;
304.5000;0.8099;-0.7729;
304.8000;0.8116;-0.7655;
305.1000;0.8099;-0.7580;
305.4000;0.8116;-0.7555;
305.7000;0.8107;-0.7530;
306.0000;0.8091;-0.7455;
306.3000;0.8091;-0.7480;
306.6000;0.8140;-0.7505;
306.9000;0.8091;-0.7630;
307.2000;0.8107;-0.7605;
307.5000;0.8107;-0.7580;
307.8000;0.8083;-0.7679;
308.1000;0.8083;-0.7754;
308.4000;0.8034;-0.7904;
308.7000;0.8107;-0.7679;
309.0000;0.8107;-0.7655;
309.3000;0.8197;-0.7430;
309.6000;0.8099;-0.7729;
309.9000;0.8099;-0.7729;
310.2000;0.8099;-0.7605;
310.5000;0.8107;-0.7505;
310.8000;0.8083;-0.7655;
311.1000;0.8124;-0.7480;
311.4000;0.8059;-0.7655;
311.7000;0.8059;-0.7704;
312.0000;0.8107;-0.7555;
312.3000;0.8116;-0.7480;
312.6000;0.8042;-0.7630;
312.9000;0.8116;-0.7405;
313.2000;0.8116;-0.7380;
313.5000;0.8107;-0.7480;
313.8000;0.8059;-0.7530;
314.1000;0.8091;-0.7480;
314.4000;0.8116;-0.7380;
314.7000;0.8107;-0.7380;
315.0000;0.8124;-0.7380;
315.3000;0.8116;-0.7430;
315.6000;0.8107;-0.7530;
315.9000;0.8116;-0.7605;
316.2000;0.8116;-0.7605;
316.5000;0.8099;-0.7655;
316.8000;0.8099;-0.7530;
317.1000;0.8116;-0.7555;
317.4000;0.8091;-0.7455;
317.7000;0.8099;-0.7530;
318.0000;0.8099;-0.7480;
318.3000;0.8116;-0.7530;
318.6000;0.8107;-0.7530;
318.9000;0.8091;-0.7655;
319.2000;0.8091;-0.7655;
319.5000;0.8107;-0.7655;
319.8000;0.8132;-0.7555;
320.1000;0.8099;-0.7630;
320.4000;0.8083;-0.7605;
320.7000;0.8091;-0.7530;
321.0000;0.8116;-0.7455;
321.3000;0.8083;-0.7455;
321.6000;0.8075;-0.7580;
321.9000;0.8075;-0.7605;
322.2000;0.8099;-0.7630;
322.5000;0.8091;-0.7605;
322.8000;0.8083;-0.7555;
323.1000;0.8067;-0.7505;
323.4000;0.8099;-0.7480;
323.7000;0.8116;-0.7405;
324.0000;0.8083;-0.7480;
324.3000;0.8075;-0.7455;
324.6000;0.8132;-0.7355;
324.9000;0.8099;-0.7355;
325.2000;0.8116;-0.7305;
325.5000;0.8091;-0.7405;
325.8000;0.8099;-0.7530;
326.1000;0.8083;-0.7555;
326.4000;0.8083;-0.7405;
326.7000;0.8091;-0.7305;
327.0000;0.8075;-0.7405;
327.3000;0.8075;-0.7480;
327.6000;0.8099;-0.7480;
327.9000;0.8034;-0.7754;
328.2000;0.8164;-0.7455;
328.5000;0.8116;-0.7505;
328.8000;0.8116;-0.7530;
329.1000;0.8067;-0.7655;
329.4000;0.8099;-0.7505;
329.7000;0.7993;-0.7729;
330.0000;0.8091;-0.7505;
330.3000;0.8091;-0.7580;
330.6000;0.8050;-0.7729;
330.9000;0.8124;-0.7605;
331.2000;0.8099;-0.7704;
331.5000;0.8132;-0.7630;
331.8000;0.8075;-0.7754;
332.1000;0.8075;-0.7804;
332.4000;0.8116;-0.7704;
332.7000;0.8075;-0.7655;
333.0000;0.8075;-0.7605;
333.3000;0.8075;-0.7605;
333.6000;0.8075;-0.7605;
333.9000;0.8083;-0.7605;
334.2000;0.8091;-0.7580;
334.5000;0.8059;-0.7679;
334.8000;0.8099;-0.7580;
335.1000;0.8107;-0.7605;
335.4000;0.8083;-0.7679;
335.7000;0.8050;-0.7729;
336.0000;0.8091;-0.7605;
336.3000;0.8107;-0.7605;
336.6000;0.8083;-0.7605;
336.9000;0.8107;-0.7505;
337.2000;0.8091;-0.7530;
337.5000;0.8116;-0.7605;
337.8000;0.8091;-0.7605;
338.1000;0.8099;-0.7655;
338.4000;0.8075;-0.7779;
338.7000;0.8173;-0.7630;
339.0000;0.8116;-0.7704;
339.3000;0.8107;-0.7704;
339.6000;0.8107;-0.7605;
339.9000;0.8099;-0.7555;
340.2000;0.8091;-0.7530;
340.5000;0.8099;-0.7580;
340.8000;0.8116;-0.7605;
341.1000;0.8099;-0.7605;
341.4000;0.8099;-0.7605;
341.7000;0.8091;-0.7555;
342.0000;0.8091;-0.7555;
342.3000;0.8107;-0.7580;
342.6000;0.8091;-0.7555;
342.9000;0.8075;-0.7480;
343.2000;0.8083;-0.7555;
343.5000;0.8091;-0.7555;
343.8000;0.8140;-0.7455;
344.1000;0.8091;-0.7530;
344.4000;0.8091;-0.7605;
344.7000;0.8018;-0.7754;
345.0000;0.8107;-0.7580;
345.3000;0.8083;-0.7580;
345.6000;0.8099;-0.7555;
345.9000;0.8099;-0.7505;
346.2000;0.8075;-0.7530;
346.5000;0.8091;-0.7480;
346.8000;0.8107;-0.7530;
347.1000;0.8083;-0.7704;
347.4000;0.8067;-0.7804;
347.7000;0.8116;-0.7679;
348.0000;0.8116;-0.7679;
348.3000;0.8091;-0.7779;
348.6000;0.8083;-0.7804;
348.9000;0.8059;-0.7979;
349.2000;0.8091;-0.7804;
349.5000;0.8075;-0.7754;
349.8000;0.8075;-0.7754;
350.1000;0.8083;-0.7704;
350.4000;0.8099;-0.7605;
350.7000;0.8107;-0.7505;
351.0000;0.8091;-0.7555;
351.3000;0.8156;-0.7380;
351.6000;0.8091;-0.7605;
351.9000;0.8116;-0.7655;
352.2000;0.8132;-0.7655;
352.5000;0.8091;-0.7804;
352.8000;0.8083;-0.7829;
353.1000;0.8075;-0.7804;
353.4000;0.8010;-0.7879;
353.7000;0.8067;-0.7754;
354.0000;0.8132;-0.7605;
354.3000;0.8091;-0.7679;
354.6000;0.8099;-0.7630;
354.9000;0.8107;-0.7555;
355.2000;0.8099;-0.7555;
355.5000;0.8091;-0.7555;
355.8000;0.8091;-0.7555;
356.1000;0.8083;-0.7630;
356.4000;0.8059;-0.7605;
356.7000;0.8099;-0.7580;
357.0000;0.8067;-0.7679;
357.3000;0.8099;-0.7630;
357.6000;0.8140;-0.7580;
357.9000;0.8091;-0.7704;
358.2000;0.8002;-0.7954;
358.5000;0.8075;-0.7704;
358.8000;0.8099;-0.7655;
359.1000;0.8107;-0.7630;
359.4000;0.8091;-0.7655;
359.7000;0.8083;-0.7729;
360.0000;0.8107;-0.7729;
360.3000;0.8091;-0.7679;
360.6000;0.8116;-0.7605;
360.9000;0.8107;-0.7605;
361.2000;0.8083;-0.7754;
361.5000;0.8107;-0.7679;
361.8000;0.8091;-0.7679;
362.1000;0.8083;-0.7655;
362.4000;0.8083;-0.7679;
362.7000;0.8050;-0.7729;
363.0000;0.8059;-0.7704;
363.3000;0.8099;-0.7630;
363.6000;0.8099;-0.7580;
363.9000;0.8107;-0.7530;
364.2000;0.8075;-0.7605;
364.5000;0.8107;-0.7555;
364.8000;0.8067;-0.7679;
365.1000;0.8091;-0.7679;
365.4000;0.8083;-0.7679;
365.7000;0.8059;-0.7679;
366.0000;0.8059;-0.7679;
366.3000;0.7961;-0.7954;
366.6000;0.8083;-0.7505;
366.9000;0.8075;-0.7430;
367.2000;0.8083;-0.7330;
367.5000;0.8075;-0.7355;
367.8000;0.8042;-0.7430;
368.1000;0.8075;-0.7405;
368.4000;0.8091;-0.7380;
368.7000;0.8050;-0.7480;
369.0000;0.8091;-0.7256;
369.3000;0.8083;-0.7281;
369.6000;0.8075;-0.7355;
369.9000;0.8091;-0.7305;
370.2000;0.8099;-0.7355;
370.5000;0.8132;-0.7355;
370.8000;0.8091;-0.7355;
371.1000;0.8091;-0.7355;
371.4000;0.8124;-0.7330;
371.7000;0.8099;-0.7380;
372.0000;0.8132;-0.7281;
372.3000;0.8091;-0.7330;
372.6000;0.8091;-0.7380;
372.9000;0.8091;-0.7380;
373.2000;0.8091;-0.7530;
373.5000;0.8107;-0.7455;
373.8000;0.8116;-0.7480;
374.1000;0.8083;-0.7555;
374.4000;0.8050;-0.7580;
374.7000;0.8067;-0.7405;
375.0000;0.8075;-0.7355;
375.3000;0.8034;-0.7480;
375.6000;0.8083;-0.7405;
375.9000;0.8140;-0.7305;
376.2000;0.8067;-0.7455;
376.5000;0.8067;-0.7505;
376.8000;0.8116;-0.7380;
377.1000;0.8116;-0.7405;
377.4000;0.8116;-0.7405;
377.7000;0.8083;-0.7505;
378.0000;0.8091;-0.7430;
378.3000;0.8067;-0.7480;
378.6000;0.8075;-0.7405;
378.9000;0.8083;-0.7455;
379.2000;0.8075;-0.7455;
379.5000;0.8059;-0.7530;
379.8000;0.8099;-0.7455;
380.1000;0.8099;-0.7555;
380.4000;0.8099;-0.7605;
380.7000;0.8075;-0.7704;
381.0000;0.8140;-0.7605;
381.3000;0.8099;-0.7605;
381.6000;0.8010;-0.7754;
381.9000;0.8083;-0.7555;
382.2000;0.8075;-0.7455;
382.5000;0.8075;-0.7555;
382.8000;0.8067;-0.7555;
383.1000;0.8042;-0.7580;
383.4000;0.8091;-0.7455;
383.7000;0.8107;-0.7455;
384.0000;0.8075;-0.7480;
384.3000;0.8059;-0.7480;
384.6000;0.8075;-0.7430;
384.9000;0.8107;-0.7380;
385.2000;0.8099;-0.7330;
385.5000;0.8083;-0.7330;
385.8000;0.8099;-0.7256;
386.1000;0.8067;-0.7330;
386.4000;0.8107;-0.7256;
386.7000;0.8099;-0.7355;
387.0000;0.8091;-0.7305;
387.3000;0.8099;-0.7281;
387.6000;0.8075;-0.7330;
387.9000;0.8083;-0.7380;
388.2000;0.8083;-0.7455;
388.5000;0.8075;-0.7405;
388.8000;0.8075;-0.7430;
389.1000;0.8067;-0.7480;
389.4000;0.8059;-0.7405;
389.7000;0.8116;-0.7281;
390.0000;0.8116;-0.7281;
390.3000;0.8091;-0.7305;
390.6000;0.8091;-0.7256;
390.9000;0.8091;-0.7206;
391.2000;0.8075;-0.7256;
391.5000;0.8107;-0.7231;
391.8000;0.7993;-0.7480;
392.1000;0.8067;-0.7330;
392.4000;0.8091;-0.7256;
392.7000;0.8075;-0.7256;
393.0000;0.8050;-0.7305;
393.3000;0.8083;-0.7206;
393.6000;0.8083;-0.7181;
393.9000;0.8067;-0.7231;
394.2000;0.8075;-0.7256;
394.5000;0.8091;-0.7206;
394.8000;0.8091;-0.7156;
395.1000;0.8075;-0.7206;
395.4000;0.8083;-0.7206;
395.7000;0.8075;-0.7256;
396.0000;0.8099;-0.7231;
396.3000;0.8107;-0.7256;
396.6000;0.8099;-0.7305;
396.9000;0.8091;-0.7281;
397.2000;0.8075;-0.7330;
397.5000;0.8099;-0.7305;
397.8000;0.8099;-0.7330;
398.1000;0.8091;-0.7281;
398.4000;0.8091;-0.7231;
398.7000;0.8067;-0.7281;
399.0000;0.8091;-0.7156;
399.3000;0.8083;-0.7181;
399.6000;0.8107;-0.7056;
399.9000;0.8091;-0.7056;
400.2000;0.8075;-0.7056;
400.5000;0.8067;-0.7056;
400.8000;0.8091;-0.7006;
401.1000;0.8083;-0.7156;
401.4000;0.8083;-0.7131;
401.7000;0.8107;-0.7081;
402.0000;0.8075;-0.7106;
402.3000;0.8083;-0.7206;
402.6000;0.8083;-0.7081;
402.9000;0.8042;-0.7206;
403.2000;0.8091;-0.7206;
403.5000;0.8067;-0.7206;
403.8000;0.8091;-0.7106;
404.1000;0.8156;-0.6907;
404.4000;0.8075;-0.7056;
404.7000;0.8132;-0.6956;
405.0000;0.8083;-0.7156;
405.3000;0.8083;-0.7256;
405.6000;0.8059;-0.7355;
405.9000;0.8083;-0.7256;
406.2000;0.8091;-0.7231;
406.5000;0.8091;-0.7206;
406.8000;0.8099;-0.7131;
407.1000;0.8067;-0.7181;
407.4000;0.8091;-0.7131;
407.7000;0.8050;-0.7256;
408.0000;0.8083;-0.7081;
408.3000;0.8075;-0.7031;
408.6000;0.8091;-0.6981;
408.9000;0.8083;-0.7031;
409.2000;0.8083;-0.7031;
409.5000;0.8083;-0.7056;
409.8000;0.8067;-0.7206;
410.1000;0.8164;-0.7056;
410.4000;0.8091;-0.7281;
410.7000;0.8034;-0.7405;
411.0000;0.8107;-0.7330;
411.3000;0.8083;-0.7480;
411.6000;0.8067;-0.7530;
411.9000;0.8091;-0.7530;
412.2000;0.8083;-0.7455;
412.5000;0.8075;-0.7455;
412.8000;0.8075;-0.7405;
413.1000;0.8091;-0.7430;
413.4000;0.8075;-0.7430;
413.7000;0.8034;-0.7430;
414.0000;0.8075;-0.7355;
414.3000;0.8059;-0.7305;
414.6000;0.8050;-0.7256;
414.9000;0.8067;-0.7231;
415.2000;0.8083;-0.7206;
415.5000;0.8091;-0.7231;
415.8000;0.8083;-0.7330;
416.1000;0.8083;-0.7355;
416.4000;0.8067;-0.7405;
416.7000;0.8091;-0.7480;
417.0000;0.8075;-0.7580;
417.3000;0.8059;-0.7480;
417.6000;0.8059;-0.7455;
417.9000;0.8075;-0.7405;
418.2000;0.8091;-0.7355;
418.5000;0.8083;-0.7405;
418.8000;0.8067;-0.7380;
419.1000;0.8083;-0.7380;
419.4000;0.8091;-0.7430;
419.7000;0.8083;-0.7405;
420.0000;0.8067;-0.7430;
420.3000;0.8083;-0.7380;
420.6000;0.8083;-0.7355;
420.9000;0.8083;-0.7380;
421.2000;0.8116;-0.7355;
421.5000;0.8091;-0.7405;
421.8000;0.8083;-0.7355;
422.1000;0.8099;-0.7480;
422.4000;0.8099;-0.7430;
422.7000;0.8083;-0.7505;
423.0000;0.8091;-0.7530;
423.3000;0.8132;-0.7405;
423.6000;0.8132;-0.7430;
423.9000;0.8059;-0.7580;
424.2000;0.8059;-0.7530;
424.5000;0.8083;-0.7455;
424.8000;0.8067;-0.7480;
425.1000;0.8075;-0.7430;
425.4000;0.8075;-0.7380;
425.7000;0.8083;-0.7330;
426.0000;0.8026;-0.7480;
426.3000;0.8059;-0.7405;
426.6000;0.8140;-0.7256;
426.9000;0.8050;-0.7380;
427.2000;0.8067;-0.7305;
427.5000;0.8059;-0.7256;
427.8000;0.8067;-0.7131;
428.1000;0.8075;-0.7081;
428.4000;0.8075;-0.7131;
428.7000;0.8067;-0.7131;
429.0000;0.8067;-0.7131;
429.3000;0.8067;-0.7181;
429.6000;0.8050;-0.7256;
429.9000;0.8075;-0.7231;
430.2000;0.8075;-0.7281;
430.5000;0.8116;-0.7156;
430.8000;0.8099;-0.7006;
431.1000;0.8083;-0.7056;
431.4000;0.8075;-0.7031;
431.7000;0.8083;-0.6956;
432.0000;0.8099;-0.6981;
432.3000;0.8067;-0.7081;
432.6000;0.8099;-0.7106;
432.9000;0.8083;-0.7281;
433.2000;0.8059;-0.7330;
433.5000;0.8083;-0.7281;
433.8000;0.8099;-0.7231;
434.1000;0.8075;-0.7330;
434.4000;0.8067;-0.7330;
434.7000;0.8050;-0.7330;
435.0000;0.8075;-0.7330;
435.3000;0.8083;-0.7305;
435.6000;0.8075;-0.7156;
435.9000;0.8075;-0.7181;
436.2000;0.8116;-0.7131;
436.5000;0.8083;-0.7206;
436.8000;0.8042;-0.7256;
437.1000;0.8083;-0.7106;
437.4000;0.8107;-0.7131;
437.7000;0.8042;-0.7305;
438.0000;0.8075;-0.7231;
438.3000;0.8067;-0.7330;
438.6000;0.8075;-0.7330;
438.9000;0.8059;-0.7355;
439.2000;0.8099;-0.7231;
439.5000;0.8083;-0.7206;
439.8000;0.7985;-0.7355;
440.1000;0.8026;-0.7305;
440.4000;0.8083;-0.7156;
440.7000;0.8067;-0.7256;
441.0000;0.8075;-0.7380;
441.3000;0.8067;-0.7380;
441.6000;0.8083;-0.7355;
441.9000;0.8083;-0.7355;
442.2000;0.8091;-0.7405;
442.5000;0.8116;-0.7330;
442.8000;0.8148;-0.7305;
443.1000;0.8107;-0.7405;
443.4000;0.8083;-0.7455;
443.7000;0.8099;-0.7305;
444.0000;0.8099;-0.7281;
444.3000;0.8107;-0.7256;
444.6000;0.8099;-0.7256;
444.9000;0.8140;-0.7106;
445.2000;0.8067;-0.7256;
445.5000;0.8083;-0.7156;
445.8000;0.8075;-0.7206;
446.1000;0.8083;-0.7181;
446.4000;0.8067;-0.7305;
446.7000;0.8083;-0.7181;
447.0000;0.8075;-0.7181;
447.3000;0.8034;-0.7156;
447.6000;0.8075;-0.7106;
447.9000;0.8050;-0.7156;
448.2000;0.8050;-0.7206;
448.5000;0.8116;-0.7106;
448.8000;0.8083;-0.7281;
449.1000;0.8164;-0.7031;
449.4000;0.8067;-0.7305;
449.7000;0.8059;-0.7256;
450.0000;0.8091;-0.7231;
450.3000;0.8075;-0.7256;
450.6000;0.8067;-0.7281;
450.9000;0.8099;-0.7181;
451.2000;0.8091;-0.7106;
451.5000;0.8026;-0.7305;
451.8000;0.8067;-0.7131;
452.1000;0.8075;-0.7081;
452.4000;0.8075;-0.7081;
452.7000;0.8083;-0.7106;
453.0000;0.8067;-0.7206;
453.3000;0.8067;-0.7330;
453.6000;0.8042;-0.7430;
453.9000;0.8067;-0.7330;
454.2000;0.8083;-0.7305;
454.5000;0.8083;-0.7231;
454.8000;0.8067;-0.7330;
455.1000;0.8059;-0.7305;
455.4000;0.8075;-0.7231;
455.7000;0.8059;-0.7256;
456.0000;0.7985;-0.7405;
456.3000;0.8083;-0.7181;
456.6000;0.8059;-0.7330;
456.9000;0.7977;-0.7505;
457.2000;0.8050;-0.7181;
457.5000;0.8099;-0.7131;
457.8000;0.8059;-0.7231;
458.1000;0.8116;-0.7181;
458.4000;0.8083;-0.7256;
458.7000;0.8059;-0.7256;
459.0000;0.8099;-0.7181;
459.3000;0.8067;-0.7206;
459.6000;0.8010;-0.7330;
459.9000;0.8099;-0.7131;
460.2000;0.8075;-0.7081;
460.5000;0.8099;-0.7006;
460.8000;0.7993;-0.7355;
461.1000;0.8099;-0.7181;
461.4000;0.8034;-0.7231;
461.7000;0.8099;-0.7131;
462.0000;0.8050;-0.7181;
462.3000;0.8075;-0.7181;
462.6000;0.8083;-0.7206;
462.9000;0.8050;-0.7305;
463.2000;0.8059;-0.7355;
463.5000;0.8059;-0.7281;
463.8000;0.8075;-0.7206;
464.1000;0.8083;-0.7206;
464.4000;0.8083;-0.7181;
464.7000;0.8075;-0.7106;
465.0000;0.8067;-0.7106;
465.3000;0.8059;-0.7181;
465.6000;0.8075;-0.7131;
465.9000;0.8067;-0.7206;
466.2000;0.8042;-0.7355;
466.5000;0.8083;-0.7330;
466.8000;0.8083;-0.7256;
467.1000;0.8091;-0.7256;
467.4000;0.8059;-0.7380;
467.7000;0.8067;-0.7380;
468.0000;0.8059;-0.7380;
468.3000;0.8042;-0.7405;
468.6000;0.8091;-0.7281;
468.9000;0.8083;-0.7231;
469.2000;0.8083;-0.7256;
469.5000;0.8075;-0.7281;
469.8000;0.8067;-0.7206;
470.1000;0.8156;-0.6907;
470.4000;0.8148;-0.6956;
470.7000;0.8075;-0.7156;
471.0000;0.8124;-0.7081;
471.3000;0.8067;-0.7305;
471.6000;0.8083;-0.7305;
471.9000;0.8075;-0.7330;
472.2000;0.8075;-0.7330;
472.5000;0.8075;-0.7231;
472.8000;0.8164;-0.7006;
473.1000;0.8075;-0.7181;
473.4000;0.8010;-0.7430;
473.7000;0.8042;-0.7281;
474.0000;0.8018;-0.7380;
474.3000;0.8059;-0.7330;
474.6000;0.8075;-0.7380;
474.9000;0.8059;-0.7305;
475.2000;0.8075;-0.7256;
475.5000;0.8067;-0.7281;
475.8000;0.8059;-0.7231;
476.1000;0.8067;-0.7330;
476.4000;0.8067;-0.7305;
476.7000;0.8059;-0.7305;
477.0000;0.8099;-0.7305;
477.3000;0.8059;-0.7430;
477.6000;0.8050;-0.7430;
477.9000;0.8075;-0.7405;
478.2000;0.8059;-0.7455;
478.5000;0.8067;-0.7430;
478.8000;0.8156;-0.7281;
479.1000;0.8018;-0.7530;
479.4000;0.8067;-0.7330;
479.7000;0.8075;-0.7256;
480.0000;0.8075;-0.7305;
480.3000;0.8083;-0.7156;
480.6000;0.8059;-0.7206;
480.9000;0.8075;-0.7181;
481.2000;0.8075;-0.7256;
481.5000;0.8059;-0.7330;
481.8000;0.8067;-0.7305;
482.1000;0.8059;-0.7330;
482.4000;0.8059;-0.7355;
482.7000;0.8067;-0.7430;
483.0000;0.8075;-0.7355;
483.3000;0.8026;-0.7505;
483.6000;0.8050;-0.7330;
483.9000;0.8091;-0.7231;
484.2000;0.8067;-0.7305;
484.5000;0.8075;-0.7256;
484.8000;0.8067;-0.7231;
485.1000;0.8099;-0.7156;
485.4000;0.8067;-0.7206;
485.7000;0.8091;-0.7181;
486.0000;0.8083;-0.7206;
486.3000;0.8026;-0.7430;
486.6000;0.8067;-0.7330;
486.9000;0.8034;-0.7430;
487.2000;0.8059;-0.7231;
487.5000;0.8067;-0.7305;
487.8000;0.8067;-0.7305;
488.1000;0.8067;-0.7281;
488.4000;0.8059;-0.7281;
488.7000;0.8067;-0.7330;
489.0000;0.8083;-0.7330;
489.3000;0.8067;-0.7330;
489.6000;0.8042;-0.7305;
489.9000;0.8067;-0.7156;
490.2000;0.8075;-0.7206;
490.5000;0.8067;-0.7256;
490.8000;0.8075;-0.7231;
491.1000;0.8059;-0.7305;
491.4000;0.8067;-0.7206;
491.7000;0.8099;-0.7106;
492.0000;0.8091;-0.7131;
492.3000;0.8067;-0.7106;
492.6000;0.8042;-0.7081;
492.9000;0.8091;-0.6981;
493.2000;0.8075;-0.7056;
493.5000;0.8050;-0.7181;
493.8000;0.8075;-0.7081;
494.1000;0.8067;-0.7131;
494.4000;0.8107;-0.7181;
494.7000;0.8067;-0.7231;
495.0000;0.8067;-0.7256;
495.3000;0.8075;-0.7305;
495.6000;0.8099;-0.7206;
495.9000;0.8042;-0.7281;
496.2000;0.8075;-0.7156;
496.5000;0.7985;-0.7380;
496.8000;0.8059;-0.7231;
497.1000;0.8050;-0.7380;
497.4000;0.8075;-0.7330;
497.7000;0.8083;-0.7305;
498.0000;0.8050;-0.7380;
498.3000;0.8067;-0.7355;
498.6000;0.8059;-0.7330;
498.9000;0.8026;-0.7430;
499.2000;0.8067;-0.7305;
499.5000;0.8034;-0.7256;
499.8000;0.8059;-0.7206;
500.1000;0.8075;-0.7231;
500.4000;0.8075;-0.7206;
500.7000;0.8067;-0.7281;
501.0000;0.8067;-0.7206;
501.3000;0.8083;-0.7181;
501.6000;0.8067;-0.7181;
501.9000;0.8075;-0.7156;
502.2000;0.8050;-0.7256;
502.5000;0.8050;-0.7231;
502.8000;0.8067;-0.7131;
503.1000;0.8067;-0.7081;
503.4000;0.8116;-0.7006;
503.7000;0.8075;-0.7131;
504.0000;0.8067;-0.7156;
504.3000;0.8083;-0.7181;
504.6000;0.8083;-0.7156;
504.9000;0.8083;-0.7256;
505.2000;0.8075;-0.7305;
505.5000;0.8059;-0.7305;
505.8000;0.8059;-0.7281;
506.1000;0.8083;-0.7256;
506.4000;0.8075;-0.7305;
506.7000;0.8075;-0.7330;
507.0000;0.8059;-0.7430;
507.3000;0.8083;-0.7380;
507.6000;0.8067;-0.7355;
507.9000;0.8059;-0.7355;
508.2000;0.8059;-0.7430;
508.5000;0.8083;-0.7380;
508.8000;0.8050;-0.7355;
509.1000;0.8042;-0.7405;
509.4000;0.8075;-0.7305;
509.7000;0.8075;-0.7355;
510.0000;0.8059;-0.7480;
510.3000;0.8059;-0.7430;
510.6000;0.8067;-0.7430;
510.9000;0.8050;-0.7480;
511.2000;0.8067;-0.7455;
511.5000;0.8075;-0.7405;
511.8000;0.8059;-0.7505;
512.1000;0.8059;-0.7480;
512.4000;0.8067;-0.7455;
512.7000;0.8075;-0.7355;
513.0000;0.8050;-0.7455;
513.3000;0.8067;-0.7455;
513.6000;0.8091;-0.7405;
513.9000;0.8075;-0.7380;
514.2000;0.8067;-0.7330;
514.5000;0.8075;-0.7405;
514.8000;0.8075;-0.7430;
515.1000;0.8067;-0.7305;
515.4000;0.8083;-0.7330;
515.7000;0.8067;-0.7281;
516.0000;0.8099;-0.7206;
516.3000;0.8083;-0.7355;
516.6000;0.8099;-0.7231;
516.9000;0.8083;-0.7156;
517.2000;0.8075;-0.7131;
517.5000;0.8075;-0.7281;
517.8000;0.8067;-0.7281;
518.1000;0.8075;-0.7256;
518.4000;0.8059;-0.7231;
518.7000;0.8034;-0.7206;
519.0000;0.8067;-0.7181;
519.3000;0.8067;-0.7206;
519.6000;0.8075;-0.7231;
519.9000;0.8059;-0.7305;
520.2000;0.8059;-0.7380;
520.5000;0.8067;-0.7305;
520.8000;0.8050;-0.7330;
521.1000;0.8099;-0.7206;
521.4000;0.8107;-0.7281;
521.7000;0.8075;-0.7281;
522.0000;0.8034;-0.7355;
522.3000;0.8059;-0.7305;
522.6000;0.8059;-0.7305;
522.9000;0.8075;-0.7131;
523.2000;0.8075;-0.7106;
523.5000;0.8042;-0.7181;
523.8000;0.8075;-0.7131;
524.1000;0.8067;-0.7206;
524.4000;0.8075;-0.7231;
524.7000;0.8132;-0.7106;
525.0000;0.8067;-0.7281;
525.3000;0.8083;-0.7305;
525.6000;0.8067;-0.7256;
525.9000;0.8067;-0.7305;
526.2000;0.8075;-0.7330;
526.5000;0.8099;-0.7330;
526.8000;0.8091;-0.7330;
527.1000;0.8067;-0.7380;
527.4000;0.8059;-0.7281;
527.7000;0.8099;-0.7106;
528.0000;0.8091;-0.7031;
528.3000;0.8059;-0.7056;
528.6000;0.8075;-0.7106;
528.9000;0.8018;-0.7206;
529.2000;0.8083;-0.7106;
529.5000;0.8050;-0.7206;
529.8000;0.8164;-0.7006;
530.1000;0.8067;-0.7330;
530.4000;0.8059;-0.7281;
530.7000;0.8075;-0.7281;
531.0000;0.8050;-0.7305;
531.3000;0.8059;-0.7281;
531.6000;0.8067;-0.7256;
531.9000;0.8059;-0.7156;
532.2000;0.8067;-0.7181;
532.5000;0.8067;-0.7231;
532.8000;0.8083;-0.7156;
533.1000;0.8075;-0.7231;
533.4000;0.8059;-0.7281;
533.7000;0.8067;-0.7231;
534.0000;0.7993;-0.7405;
534.3000;0.8075;-0.7231;
534.6000;0.8091;-0.7281;
534.9000;0.8091;-0.7355;
535.2000;0.8034;-0.7405;
535.5000;0.8067;-0.7380;
535.8000;0.8067;-0.7330;
536.1000;0.8075;-0.7231;
536.4000;0.8010;-0.7430;
536.7000;0.8067;-0.7131;
537.0000;0.8067;-0.7131;
537.3000;0.7985;-0.7380;
537.6000;0.8075;-0.7131;
537.9000;0.8075;-0.7106;
538.2000;0.8059;-0.7181;
538.5000;0.8059;-0.7206;
538.8000;0.8042;-0.7181;
539.1000;0.8002;-0.7330;
539.4000;0.8034;-0.7181;
539.7000;0.8059;-0.7131;
540.0000;0.8083;-0.7031;
540.3000;0.7993;-0.7256;
540.6000;0.8018;-0.7231;
540.9000;0.8050;-0.7131;
541.2000;0.7977;-0.7355;
541.5000;0.8083;-0.7131;
541.8000;0.8083;-0.7081;
542.1000;0.8050;-0.7231;
542.4000;0.8067;-0.7156;
542.7000;0.8050;-0.7156;
543.0000;0.8075;-0.7156;
543.3000;0.8042;-0.7031;
543.6000;0.8002;-0.7106;
543.9000;0.8018;-0.7131;
544.2000;0.8042;-0.7131;
544.5000;0.8018;-0.7206;
544.8000;0.8050;-0.7156;
545.1000;0.8042;-0.7206;
545.4000;0.8042;-0.7231;
545.7000;0.8026;-0.7330;
546.0000;0.8067;-0.7281;
546.3000;0.8059;-0.7281;
546.6000;0.8067;-0.7231;
546.9000;0.8050;-0.7256;
547.2000;0.8067;-0.7181;
547.5000;0.8059;-0.7206;
547.8000;0.8067;-0.7181;
548.1000;0.8050;-0.7106;
548.4000;0.8050;-0.7106;
548.7000;0.8050;-0.7106;
549.0000;0.8059;-0.7131;
549.3000;0.8091;-0.7081;
549.6000;0.8075;-0.7131;
549.9000;0.8067;-0.7156;
550.2000;0.8067;-0.7056;
550.5000;0.8075;-0.7106;
550.8000;0.8075;-0.7106;
551.1000;0.8050;-0.7281;
551.4000;0.8042;-0.7430;
551.7000;0.8075;-0.7355;
552.0000;0.8059;-0.7281;
552.3000;0.8059;-0.7206;
552.6000;0.8075;-0.7156;
552.9000;0.8075;-0.7231;
553.2000;0.8050;-0.7305;
553.5000;0.8091;-0.7256;
553.8000;0.8010;-0.7480;
554.1000;0.8042;-0.7355;
554.4000;0.8050;-0.7355;
554.7000;0.8026;-0.7455;
555.0000;0.8010;-0.7405;
555.3000;0.8010;-0.7405;
555.6000;0.8026;-0.7480;
555.9000;0.8059;-0.7355;
556.2000;0.8083;-0.7330;
556.5000;0.8042;-0.7455;
556.8000;0.8059;-0.7405;
557.1000;0.7969;-0.7655;
557.4000;0.8067;-0.7405;
557.7000;0.8050;-0.7405;
558.0000;0.8067;-0.7355;
558.3000;0.8116;-0.7206;
558.6000;0.8059;-0.7256;
558.9000;0.8075;-0.7281;
559.2000;0.8067;-0.7355;
559.5000;0.8067;-0.7330;
559.8000;0.8067;-0.7330;
560.1000;0.8083;-0.7305;
560.4000;0.7985;-0.7480;
560.7000;0.8067;-0.7281;
561.0000;0.8042;-0.7305;
561.3000;0.8010;-0.7455;
561.6000;0.8059;-0.7305;
561.9000;0.8067;-0.7305;
562.2000;0.8099;-0.7330;
562.5000;0.8083;-0.7330;
562.8000;0.8075;-0.7355;
563.1000;0.8083;-0.7355;
563.4000;0.8042;-0.7455;
563.7000;0.8067;-0.7305;
564.0000;0.7985;-0.7505;
564.3000;0.8091;-0.7330;
564.6000;0.8075;-0.7405;
564.9000;0.8050;-0.7405;
565.2000;0.8034;-0.7530;
565.5000;0.8083;-0.7455;
565.8000;0.8067;-0.7455;
566.1000;0.8042;-0.7330;
566.4000;0.8075;-0.7231;
566.7000;0.8042;-0.7281;
567.0000;0.8034;-0.7231;
567.3000;0.8042;-0.7256;
567.6000;0.8083;-0.7181;
567.9000;0.7977;-0.7405;
568.2000;0.8132;-0.6931;
568.5000;0.8050;-0.7106;
568.8000;0.8067;-0.7031;
569.1000;0.8034;-0.7106;
569.4000;0.8059;-0.7156;
569.7000;0.8067;-0.7181;
570.0000;0.8067;-0.7206;
570.3000;0.8091;-0.7156;
570.6000;0.8067;-0.7231;
570.9000;0.8034;-0.7355;
571.2000;0.7993;-0.7555;
571.5000;0.8083;-0.7281;
571.8000;0.8042;-0.7380;
572.1000;0.8050;-0.7455;
572.4000;0.8067;-0.7430;
572.7000;0.8067;-0.7405;
573.0000;0.8059;-0.7380;
573.3000;0.8050;-0.7305;
573.6000;0.8042;-0.7305;
573.9000;0.8018;-0.7330;
574.2000;0.8050;-0.7305;
574.5000;0.8042;-0.7405;
574.8000;0.8034;-0.7430;
575.1000;0.8042;-0.7455;
575.4000;0.8083;-0.7305;
575.7000;0.8059;-0.7281;
576.0000;0.8067;-0.7156;
576.3000;0.8018;-0.7206;
576.6000;0.8099;-0.7031;
576.9000;0.8067;-0.7231;
577.2000;0.8059;-0.7206;
577.5000;0.7985;-0.7480;
577.8000;0.7977;-0.7530;
578.1000;0.8042;-0.7330;
578.4000;0.8034;-0.7305;
578.7000;0.8042;-0.7355;
579.0000;0.8067;-0.7330;
579.3000;0.8050;-0.7355;
579.6000;0.7993;-0.7430;
579.9000;0.8026;-0.7330;
580.2000;0.8042;-0.7355;
580.5000;0.8042;-0.7380;
580.8000;0.8026;-0.7430;
581.1000;0.8026;-0.7480;
581.4000;0.8059;-0.7380;
581.7000;0.8059;-0.7305;
582.0000;0.8034;-0.7330;
582.3000;0.8059;-0.7281;
582.6000;0.8050;-0.7305;
582.9000;0.8107;-0.7206;
583.2000;0.8067;-0.7256;
583.5000;0.8050;-0.7380;
583.8000;0.8083;-0.7281;
584.1000;0.8059;-0.7305;
584.4000;0.8050;-0.7281;
584.7000;0.8067;-0.7305;
585.0000;0.8034;-0.7305;
585.3000;0.8059;-0.7181;
585.6000;0.8075;-0.7206;
585.9000;0.8083;-0.7206;
586.2000;0.8067;-0.7256;
586.5000;0.8067;-0.7281;
586.8000;0.8034;-0.7281;
587.1000;0.8050;-0.7156;
587.4000;0.8067;-0.7106;
587.7000;0.8075;-0.7106;
588.0000;0.8059;-0.7081;
588.3000;0.8173;-0.6956;
588.6000;0.8059;-0.7231;
588.9000;0.8075;-0.7305;
589.2000;0.8034;-0.7430;
589.5000;0.8034;-0.7430;
589.8000;0.8059;-0.7330;
590.1000;0.8067;-0.7281;
590.4000;0.8059;-0.7281;
590.7000;0.8026;-0.7256;
591.0000;0.8026;-0.7256;
591.3000;0.8050;-0.7231;
591.6000;0.8075;-0.7106;
591.9000;0.8050;-0.7206;
592.2000;0.8075;-0.7156;
592.5000;0.7969;-0.7355;
592.8000;0.8067;-0.7056;
593.1000;0.8050;-0.7056;
593.4000;0.8059;-0.7031;
593.7000;0.8059;-0.7056;
594.0000;0.8010;-0.7256;
594.3000;0.8050;-0.7256;
594.6000;0.8026;-0.7281;
594.9000;0.8132;-0.7106;
595.2000;0.8059;-0.7131;
595.5000;0.8067;-0.7106;
595.8000;0.8067;-0.7206;
596.1000;0.8050;-0.7281;
596.4000;0.8050;-0.7206;
596.7000;0.8067;-0.7231;
597.0000;0.8050;-0.7281;
597.3000;0.8091;-0.7156;
597.6000;0.8067;-0.7256;
597.9000;0.8083;-0.7156;
598.2000;0.8067;-0.7256;
598.5000;0.8067;-0.7206;
598.8000;0.8059;-0.7106;
599.1000;0.8059;-0.7106;
599.4000;0.8059;-0.7081;
599.7000;0.8107;-0.6807;
600.0000;0.8067;-0.6931;
600.3000;0.8010;-0.7131;
600.6000;0.7945;-0.7380;
600.9000;0.7823;-0.7605;
601.2000;0.7660;-0.7979;
601.5000;0.7513;-0.8303;
601.8000;0.7326;-0.8527;
602.1000;0.7204;-0.8752;
602.4000;0.7025;-0.9051;
602.7000;0.6886;-0.9200;
603.0000;0.6772;-0.9375;
603.3000;0.6634;-0.9574;
603.6000;0.6545;-0.9649;
603.9000;0.6431;-0.9824;
604.2000;0.6341;-1.0023;
604.5000;0.6284;-1.0098;
604.8000;0.6195;-1.0273;
605.1000;0.6138;-1.0372;
605.4000;0.6048;-1.0547;
605.7000;0.6015;-1.0696;
606.0000;0.5926;-1.0871;
606.3000;0.5893;-1.0846;
606.6000;0.5836;-1.0846;
606.9000;0.5796;-1.0871;
607.2000;0.5755;-1.0946;
607.5000;0.5714;-1.1095;
607.8000;0.5706;-1.1120;
608.1000;0.5682;-1.1045;
608.4000;0.5633;-1.1170;
608.7000;0.5600;-1.1245;
609.0000;0.5568;-1.1320;
609.3000;0.5527;-1.1320;
609.6000;0.5478;-1.1444;
609.9000;0.5470;-1.1469;
610.2000;0.5446;-1.1395;
610.5000;0.5324;-1.1669;
610.8000;0.5389;-1.1494;
611.1000;0.5364;-1.1519;
611.4000;0.5356;-1.1544;
611.7000;0.5307;-1.1669;
612.0000;0.5324;-1.1569;
612.3000;0.5185;-1.1918;
612.6000;0.5283;-1.1569;
612.9000;0.5267;-1.1669;
613.2000;0.5242;-1.1694;
613.5000;0.5177;-1.1793;
613.8000;0.5193;-1.1719;
614.1000;0.5185;-1.1719;
614.4000;0.5153;-1.1694;
614.7000;0.5136;-1.1669;
615.0000;0.5136;-1.1644;
615.3000;0.5120;-1.1719;
615.6000;0.5039;-1.1893;
615.9000;0.5088;-1.1719;
616.2000;0.5071;-1.1694;
616.5000;0.4982;-1.1943;
616.8000;0.5063;-1.1744;
617.1000;0.5047;-1.1793;
617.4000;0.5047;-1.1719;
617.7000;0.5022;-1.1719;
618.0000;0.5022;-1.1719;
618.3000;0.5006;-1.1719;
618.6000;0.4990;-1.1818;
618.9000;0.5006;-1.1793;
619.2000;0.5006;-1.1893;
619.5000;0.4990;-1.1918;
619.8000;0.4974;-1.1968;
620.1000;0.4965;-1.1943;
620.4000;0.4917;-1.2018;
620.7000;0.4941;-1.1918;
621.0000;0.4933;-1.1943;
621.3000;0.4917;-1.1918;
621.6000;0.4933;-1.1793;
621.9000;0.4925;-1.1793;
622.2000;0.4900;-1.1918;
622.5000;0.4892;-1.1993;
622.8000;0.4900;-1.1968;
623.1000;0.4892;-1.1943;
623.4000;0.4884;-1.1993;
623.7000;0.4884;-1.1968;
624.0000;0.4868;-1.1968;
624.3000;0.4851;-1.1968;
624.6000;0.4860;-1.1918;
624.9000;0.4827;-1.2018;
625.2000;0.4827;-1.1893;
625.5000;0.4803;-1.1943;
625.8000;0.4843;-1.1893;
626.1000;0.4819;-1.2043;
626.4000;0.4803;-1.2043;
626.7000;0.4884;-1.1868;
627.0000;0.4803;-1.2093;
627.3000;0.4803;-1.1993;
627.6000;0.4819;-1.1993;
627.9000;0.4827;-1.2043;
628.2000;0.4762;-1.2043;
628.5000;0.4794;-1.2018;
628.8000;0.4770;-1.2043;
629.1000;0.4770;-1.2018;
629.4000;0.4778;-1.1968;
629.7000;0.4778;-1.1968;
630.0000;0.4762;-1.1943;
630.3000;0.4770;-1.1993;
630.6000;0.4648;-1.2342;
630.9000;0.4770;-1.2018;
631.2000;0.4721;-1.2043;
631.5000;0.4754;-1.2043;
631.8000;0.4705;-1.2267;
632.1000;0.4746;-1.2167;
632.4000;0.4794;-1.2018;
632.7000;0.4754;-1.2093;
633.0000;0.4737;-1.2093;
633.3000;0.4689;-1.2143;
633.6000;0.4721;-1.1993;
633.9000;0.4762;-1.1943;
634.2000;0.4737;-1.2068;
634.5000;0.4705;-1.2118;
634.8000;0.4721;-1.2018;
635.1000;0.4754;-1.2018;
635.4000;0.4689;-1.2267;
635.7000;0.4697;-1.2118;
636.0000;0.4689;-1.2068;
636.3000;0.4705;-1.1993;
636.6000;0.4664;-1.2118;
636.9000;0.4737;-1.1993;
637.2000;0.4721;-1.1993;
637.5000;0.4681;-1.2192;
637.8000;0.4681;-1.2167;
638.1000;0.4681;-1.2143;
638.4000;0.4664;-1.2043;
638.7000;0.4697;-1.1943;
639.0000;0.4640;-1.2093;
639.3000;0.4672;-1.2043;
639.6000;0.4656;-1.2118;
639.9000;0.4672;-1.2167;
640.2000;0.4640;-1.2143;
640.5000;0.4656;-1.2143;
640.8000;0.4648;-1.2217;
641.1000;0.4632;-1.2242;
641.4000;0.4656;-1.2143;
641.7000;0.4672;-1.1993;
642.0000;0.4640;-1.2068;
642.3000;0.4648;-1.1968;
642.6000;0.4656;-1.1993;
642.9000;0.4599;-1.2242;
643.2000;0.4648;-1.2167;
643.5000;0.4615;-1.2242;
643.8000;0.4624;-1.2143;
644.1000;0.4656;-1.2018;
644.4000;0.4632;-1.2018;
644.7000;0.4624;-1.2118;
645.0000;0.4624;-1.2192;
645.3000;0.4632;-1.2143;
645.6000;0.4624;-1.2093;
645.9000;0.4607;-1.2118;
646.2000;0.4615;-1.2068;
646.5000;0.4607;-1.2167;
646.8000;0.4624;-1.2118;
647.1000;0.4599;-1.2192;
647.4000;0.4615;-1.2192;
647.7000;0.4624;-1.2192;
648.0000;0.4615;-1.2143;
648.3000;0.4672;-1.1968;
648.6000;0.4591;-1.2192;
648.9000;0.4664;-1.1893;
649.2000;0.4599;-1.2093;
649.5000;0.4599;-1.2143;
649.8000;0.4615;-1.2043;
650.1000;0.4542;-1.2093;
650.4000;0.4542;-1.2068;
650.7000;0.4567;-1.1968;
651.0000;0.4518;-1.2068;
651.3000;0.4583;-1.1943;
651.6000;0.4575;-1.1943;
651.9000;0.4567;-1.1993;
652.2000;0.4542;-1.2018;
652.5000;0.4575;-1.2018;
652.8000;0.4510;-1.2192;
653.1000;0.4583;-1.2018;
653.4000;0.4550;-1.2093;
653.7000;0.4550;-1.2043;
654.0000;0.4501;-1.2192;
654.3000;0.4558;-1.1968;
654.6000;0.4583;-1.1918;
654.9000;0.4550;-1.1918;
655.2000;0.4550;-1.1943;
655.5000;0.4558;-1.1893;
655.8000;0.4558;-1.1893;
656.1000;0.4607;-1.1793;
656.4000;0.4542;-1.1968;
656.7000;0.4542;-1.1968;
657.0000;0.4550;-1.1943;
657.3000;0.4575;-1.1943;
657.6000;0.4526;-1.2043;
657.9000;0.4526;-1.2093;
658.2000;0.4477;-1.2192;
658.5000;0.4518;-1.2093;
658.8000;0.4501;-1.2043;
659.1000;0.4534;-1.1993;
659.4000;0.4461;-1.2093;
659.7000;0.4542;-1.1918;
660.0000;0.4510;-1.1993;
660.3000;0.4518;-1.1918;
660.6000;0.4501;-1.1993;
660.9000;0.4518;-1.1968;
661.2000;0.4526;-1.1993;
661.5000;0.4501;-1.2043;
661.8000;0.4510;-1.2093;
662.1000;0.4493;-1.2143;
662.4000;0.4485;-1.2167;
662.7000;0.4510;-1.2192;
663.0000;0.4412;-1.2417;
663.3000;0.4510;-1.2167;
663.6000;0.4510;-1.2118;
663.9000;0.4518;-1.2167;
664.2000;0.4501;-1.2093;
664.5000;0.4501;-1.2018;
664.8000;0.4501;-1.1968;
665.1000;0.4493;-1.1993;
665.4000;0.4485;-1.1993;
665.7000;0.4444;-1.1943;
666.0000;0.4501;-1.1818;
666.3000;0.4485;-1.1843;
666.6000;0.4469;-1.1818;
666.9000;0.4485;-1.1669;
667.2000;0.4461;-1.1793;
667.5000;0.4469;-1.1843;
667.8000;0.4477;-1.1893;
668.1000;0.4453;-1.2018;
668.4000;0.4477;-1.1993;
668.7000;0.4534;-1.1843;
669.0000;0.4485;-1.1893;
669.3000;0.4510;-1.1793;
669.6000;0.4469;-1.1918;
669.9000;0.4461;-1.1993;
670.2000;0.4461;-1.2093;
670.5000;0.4477;-1.2043;
670.8000;0.4428;-1.2043;
671.1000;0.4461;-1.1843;
671.4000;0.4469;-1.1793;
671.7000;0.4444;-1.1968;
672.0000;0.4444;-1.1993;
672.3000;0.4453;-1.2043;
672.6000;0.4444;-1.1968;
672.9000;0.4453;-1.1868;
673.2000;0.4453;-1.1893;
673.5000;0.4477;-1.1893;
673.8000;0.4469;-1.1868;
674.1000;0.4420;-1.1868;
674.4000;0.4453;-1.1818;
674.7000;0.4453;-1.1968;
675.0000;0.4469;-1.1943;
675.3000;0.4453;-1.1918;
675.6000;0.4461;-1.1968;
675.9000;0.4396;-1.2217;
676.2000;0.4461;-1.2143;
676.5000;0.4428;-1.2118;
676.8000;0.4461;-1.2068;
677.1000;0.4436;-1.2068;
677.4000;0.4428;-1.2143;
677.7000;0.4420;-1.2192;
678.0000;0.4428;-1.1968;
678.3000;0.4412;-1.1868;
678.6000;0.4371;-1.2043;
678.9000;0.4436;-1.1843;
679.2000;0.4461;-1.1843;
679.5000;0.4420;-1.2018;
679.8000;0.4428;-1.2018;
680.1000;0.4420;-1.1943;
680.4000;0.4420;-1.2018;
680.7000;0.4428;-1.1993;
681.0000;0.4428;-1.2018;
681.3000;0.4420;-1.2043;
681.6000;0.4412;-1.2018;
681.9000;0.4412;-1.1993;
682.2000;0.4339;-1.2143;
682.5000;0.4420;-1.2018;
682.8000;0.4428;-1.2043;
683.1000;0.4387;-1.2093;
683.4000;0.4379;-1.2018;
683.7000;0.4387;-1.1968;
684.0000;0.4420;-1.1893;
684.3000;0.4412;-1.2018;
684.6000;0.4469;-1.1793;
684.9000;0.4412;-1.1893;
685.2000;0.4420;-1.1918;
685.5000;0.4379;-1.1993;
685.8000;0.4396;-1.1943;
686.1000;0.4412;-1.1918;
686.4000;0.4420;-1.1868;
686.7000;0.4436;-1.1769;
687.0000;0.4412;-1.1868;
687.3000;0.4404;-1.1818;
687.6000;0.4453;-1.1769;
687.9000;0.4404;-1.1868;
688.2000;0.4387;-1.1943;
688.5000;0.4387;-1.1918;
688.8000;0.4396;-1.1918;
689.1000;0.4396;-1.1943;
689.4000;0.4396;-1.1993;
689.7000;0.4387;-1.2118;
690.0000;0.4396;-1.2068;
690.3000;0.4379;-1.2068;
690.6000;0.4412;-1.2068;
690.9000;0.4404;-1.2018;
691.2000;0.4396;-1.2018;
691.5000;0.4363;-1.2143;
691.8000;0.4387;-1.2043;
692.1000;0.4396;-1.1918;
692.4000;0.4404;-1.1968;
692.7000;0.4387;-1.2068;
693.0000;0.4355;-1.1968;
693.3000;0.4396;-1.1843;
693.6000;0.4371;-1.1943;
693.9000;0.4355;-1.1968;
694.2000;0.4306;-1.2043;
694.5000;0.4420;-1.1769;
694.8000;0.4363;-1.1968;
695.1000;0.4379;-1.2068;
695.4000;0.4436;-1.1818;
695.7000;0.4363;-1.2018;
696.0000;0.4379;-1.1968;
696.3000;0.4363;-1.2068;
696.6000;0.4371;-1.2043;
696.9000;0.4379;-1.1968;
697.2000;0.4339;-1.1968;
697.5000;0.4355;-1.1918;
697.8000;0.4371;-1.1893;
698.1000;0.4330;-1.1868;
698.4000;0.4420;-1.1544;
698.7000;0.4347;-1.1893;
699.0000;0.4363;-1.1918;
699.3000;0.4363;-1.1893;
699.6000;0.4347;-1.2018;
699.9000;0.4322;-1.2093;
700.2000;0.4355;-1.1868;
700.5000;0.4355;-1.1793;
700.8000;0.4355;-1.1744;
701.1000;0.4306;-1.1868;
701.4000;0.4330;-1.1843;
701.7000;0.4355;-1.1793;
702.0000;0.4330;-1.1843;
702.3000;0.4314;-1.1943;
702.6000;0.4347;-1.1868;
702.9000;0.4322;-1.1943;
703.2000;0.4314;-1.2043;
703.5000;0.4298;-1.2068;
703.8000;0.4322;-1.1918;
704.1000;0.4306;-1.1968;
704.4000;0.4314;-1.1918;
704.7000;0.4355;-1.1744;
705.0000;0.4282;-1.1868;
705.3000;0.4322;-1.1793;
705.6000;0.4322;-1.1843;
705.9000;0.4298;-1.1843;
706.2000;0.4306;-1.1818;
706.5000;0.4314;-1.1793;
706.8000;0.4363;-1.1769;
707.1000;0.4290;-1.1893;
707.4000;0.4322;-1.1793;
707.7000;0.4274;-1.1893;
708.0000;0.4314;-1.1818;
708.3000;0.4314;-1.1868;
708.6000;0.4363;-1.1769;
708.9000;0.4282;-1.1893;
709.2000;0.4290;-1.1918;
709.5000;0.4355;-1.1719;
709.8000;0.4322;-1.1744;
710.1000;0.4420;-1.1469;
710.4000;0.4314;-1.1793;
710.7000;0.4322;-1.1818;
711.0000;0.4330;-1.1818;
711.3000;0.4306;-1.1943;
711.6000;0.4322;-1.1868;
711.9000;0.4282;-1.1893;
712.2000;0.4314;-1.1868;
712.5000;0.4330;-1.1843;
712.8000;0.4241;-1.2043;
713.1000;0.4322;-1.1868;
713.4000;0.4339;-1.1843;
713.7000;0.4314;-1.1893;
714.0000;0.4330;-1.1868;
714.3000;0.4306;-1.1918;
714.6000;0.4314;-1.1918;
714.9000;0.4339;-1.1769;
715.2000;0.4306;-1.1744;
715.5000;0.4306;-1.1744;
715.8000;0.4322;-1.1744;
716.1000;0.4330;-1.1669;
716.4000;0.4225;-1.1868;
716.7000;0.4290;-1.1694;
717.0000;0.4290;-1.1818;
717.3000;0.4290;-1.1943;
717.6000;0.4306;-1.1868;
717.9000;0.4322;-1.1719;
718.2000;0.4306;-1.1769;
718.5000;0.4306;-1.1793;
718.8000;0.4282;-1.1719;
719.1000;0.4298;-1.1694;
719.4000;0.4298;-1.1744;
719.7000;0.4298;-1.1694;
720.0000;0.4306;-1.1769;
720.3000;0.4282;-1.1868;
720.6000;0.4282;-1.1843;
720.9000;0.4298;-1.1893;
721.2000;0.4306;-1.1893;
721.5000;0.4298;-1.1818;
721.8000;0.4298;-1.1793;
722.1000;0.4314;-1.1719;
722.4000;0.4274;-1.1868;
722.7000;0.4274;-1.1868;
723.0000;0.4274;-1.1818;
723.3000;0.4298;-1.1719;
723.6000;0.4290;-1.1719;
723.9000;0.4274;-1.1769;
724.2000;0.4274;-1.1818;
724.5000;0.4298;-1.1744;
724.8000;0.4282;-1.1793;
725.1000;0.4282;-1.1818;
725.4000;0.4282;-1.1818;
725.7000;0.4257;-1.1893;
726.0000;0.4257;-1.1893;
726.3000;0.4306;-1.1868;
726.6000;0.4274;-1.1968;
726.9000;0.4282;-1.1843;
727.2000;0.4322;-1.1793;
727.5000;0.4387;-1.1569;
727.8000;0.4249;-1.1993;
728.1000;0.4257;-1.1868;
728.4000;0.4322;-1.1793;
728.7000;0.4233;-1.2018;
729.0000;0.4241;-1.1993;
729.3000;0.4257;-1.1893;
729.6000;0.4217;-1.1993;
729.9000;0.4265;-1.1968;
730.2000;0.4249;-1.2043;
730.5000;0.4274;-1.2018;
730.8000;0.4265;-1.2068;
731.1000;0.4257;-1.2018;
731.4000;0.4274;-1.1993;
731.7000;0.4306;-1.1968;
732.0000;0.4282;-1.2018;
732.3000;0.4282;-1.1918;
732.6000;0.4282;-1.1868;
732.9000;0.4241;-1.2018;
733.2000;0.4217;-1.2068;
733.5000;0.4265;-1.1918;
733.8000;0.4274;-1.1818;
734.1000;0.4257;-1.1793;
734.4000;0.4257;-1.1918;
734.7000;0.4265;-1.1993;
735.0000;0.4274;-1.1868;
735.3000;0.4233;-1.2043;
735.6000;0.4265;-1.1943;
735.9000;0.4339;-1.1669;
736.2000;0.4249;-1.1893;
736.5000;0.4265;-1.1818;
736.8000;0.4274;-1.1769;
737.1000;0.4265;-1.1744;
737.4000;0.4265;-1.1744;
737.7000;0.4249;-1.1769;
738.0000;0.4249;-1.1719;
738.3000;0.4249;-1.1694;
738.6000;0.4257;-1.1694;
738.9000;0.4249;-1.1818;
739.2000;0.4241;-1.1893;
739.5000;0.4200;-1.1968;
739.8000;0.4249;-1.1793;
740.1000;0.4274;-1.1669;
740.4000;0.4249;-1.1719;
740.7000;0.4249;-1.1719;
741.0000;0.4249;-1.1719;
741.3000;0.4249;-1.1694;
741.6000;0.4241;-1.1793;
741.9000;0.4225;-1.1793;
742.2000;0.4233;-1.1694;
742.5000;0.4257;-1.1669;
742.8000;0.4249;-1.1818;
743.1000;0.4241;-1.1843;
743.4000;0.4249;-1.1793;
743.7000;0.4217;-1.1818;
744.0000;0.4241;-1.1818;
744.3000;0.4225;-1.1918;
744.6000;0.4208;-1.1943;
744.9000;0.4249;-1.1769;
745.2000;0.4249;-1.1719;
745.5000;0.4241;-1.1694;
745.8000;0.4233;-1.1793;
746.1000;0.4233;-1.1769;
746.4000;0.4208;-1.1868;
746.7000;0.4233;-1.1893;
747.0000;0.4249;-1.1843;
747.3000;0.4249;-1.1719;
747.6000;0.4241;-1.1694;
747.9000;0.4225;-1.1769;
748.2000;0.4200;-1.1843;
748.5000;0.4208;-1.1744;
748.8000;0.4233;-1.1744;
749.1000;0.4257;-1.1669;
749.4000;0.4200;-1.1769;
749.7000;0.4233;-1.1793;
750.0000;0.4330;-1.1469;
750.3000;0.4330;-1.1469;
750.6000;0.4168;-1.1818;
750.9000;0.4225;-1.1644;
751.2000;0.4217;-1.1594;
751.5000;0.4208;-1.1669;
751.8000;0.4225;-1.1644;
752.1000;0.4306;-1.1544;
752.4000;0.4168;-1.2043;
752.7000;0.4233;-1.2018;
753.0000;0.4257;-1.1769;
753.3000;0.4233;-1.1744;
753.6000;0.4208;-1.1719;
753.9000;0.4225;-1.1719;
754.2000;0.4217;-1.1669;
754.5000;0.4225;-1.1669;
754.8000;0.4192;-1.1744;
755.1000;0.4233;-1.1694;
755.4000;0.4217;-1.1669;
755.7000;0.4200;-1.1719;
756.0000;0.4200;-1.1719;
756.3000;0.4225;-1.1569;
756.6000;0.4200;-1.1544;
756.9000;0.4217;-1.1594;
757.2000;0.4225;-1.1644;
757.5000;0.4225;-1.1694;
757.8000;0.4217;-1.1769;
758.1000;0.4217;-1.1744;
758.4000;0.4233;-1.1744;
758.7000;0.4217;-1.1719;
759.0000;0.4217;-1.1669;
759.3000;0.4217;-1.1694;
759.6000;0.4217;-1.1694;
759.9000;0.4208;-1.1669;
760.2000;0.4208;-1.1669;
760.5000;0.4217;-1.1644;
760.8000;0.4233;-1.1619;
761.1000;0.4200;-1.1719;
761.4000;0.4225;-1.1619;
761.7000;0.4208;-1.1519;
762.0000;0.4208;-1.1619;
762.3000;0.4217;-1.1619;
762.6000;0.4168;-1.1818;
762.9000;0.4200;-1.1694;
763.2000;0.4217;-1.1619;
763.5000;0.4200;-1.1619;
763.8000;0.4200;-1.1569;
764.1000;0.4233;-1.1569;
764.4000;0.4217;-1.1644;
764.7000;0.4200;-1.1644;
765.0000;0.4225;-1.1594;
765.3000;0.4208;-1.1544;
765.6000;0.4217;-1.1519;
765.9000;0.4184;-1.1669;
766.2000;0.4176;-1.1619;
766.5000;0.4192;-1.1594;
766.8000;0.4208;-1.1644;
767.1000;0.4217;-1.1669;
767.4000;0.4192;-1.1694;
767.7000;0.4168;-1.1719;
768.0000;0.4176;-1.1694;
768.3000;0.4200;-1.1669;
768.6000;0.4217;-1.1594;
768.9000;0.4184;-1.1694;
769.2000;0.4200;-1.1694;
769.5000;0.4200;-1.1793;
769.8000;0.4192;-1.1769;
770.1000;0.4200;-1.1769;
770.4000;0.4208;-1.1769;
770.7000;0.4208;-1.1843;
771.0000;0.4151;-1.1968;
771.3000;0.4135;-1.1968;
771.6000;0.4168;-1.1868;
771.9000;0.4143;-1.2043;
772.2000;0.4241;-1.1719;
772.5000;0.4192;-1.1744;
772.8000;0.4184;-1.1818;
773.1000;0.4184;-1.1769;
773.4000;0.4233;-1.1619;
773.7000;0.4184;-1.1793;
774.0000;0.4184;-1.1868;
774.3000;0.4160;-1.1968;
774.6000;0.4176;-1.1893;
774.9000;0.4127;-1.1893;
775.2000;0.4151;-1.1744;
775.5000;0.4151;-1.1769;
775.8000;0.4192;-1.1669;
776.1000;0.4176;-1.1619;
776.4000;0.4160;-1.1644;
776.7000;0.4160;-1.1669;
777.0000;0.4192;-1.1594;
777.3000;0.4168;-1.1669;
777.6000;0.4192;-1.1569;
777.9000;0.4176;-1.1494;
778.2000;0.4168;-1.1569;
778.5000;0.4168;-1.1669;
778.8000;0.4094;-1.1868;
779.1000;0.4168;-1.1793;
779.4000;0.4160;-1.1793;
779.7000;0.4151;-1.1744;
780.0000;0.4151;-1.1793;
780.3000;0.4160;-1.1818;
780.6000;0.4143;-1.1818;
780.9000;0.4160;-1.1744;
781.2000;0.4160;-1.1793;
781.5000;0.4143;-1.1818;
781.8000;0.4176;-1.1744;
782.1000;0.4176;-1.1719;
782.4000;0.4184;-1.1644;
782.7000;0.4184;-1.1644;
783.0000;0.4176;-1.1619;
783.3000;0.4184;-1.1569;
783.6000;0.4176;-1.1594;
783.9000;0.4151;-1.1669;
784.2000;0.4168;-1.1719;
784.5000;0.4192;-1.1619;
784.8000;0.4176;-1.1818;
785.1000;0.4168;-1.1744;
785.4000;0.4168;-1.1694;
785.7000;0.4168;-1.1669;
786.0000;0.4168;-1.1594;
786.3000;0.4160;-1.1619;
786.6000;0.4160;-1.1594;
786.9000;0.4184;-1.1544;
787.2000;0.4168;-1.1619;
787.5000;0.4168;-1.1619;
787.8000;0.4135;-1.1744;
788.1000;0.4168;-1.1793;
788.4000;0.4111;-1.1843;
788.7000;0.4160;-1.1619;
789.0000;0.4143;-1.1619;
789.3000;0.4135;-1.1719;
789.6000;0.4160;-1.1594;
789.9000;0.4168;-1.1694;
790.2000;0.4151;-1.1694;
790.5000;0.4151;-1.1719;
790.8000;0.4127;-1.1619;
791.1000;0.4168;-1.1519;
791.4000;0.4151;-1.1519;
791.7000;0.4135;-1.1594;
792.0000;0.4184;-1.1594;
792.3000;0.4176;-1.1719;
792.6000;0.4160;-1.1719;
792.9000;0.4143;-1.1769;
793.2000;0.4151;-1.1719;
793.5000;0.4176;-1.1644;
793.8000;0.4168;-1.1744;
794.1000;0.4127;-1.1843;
794.4000;0.4151;-1.1818;
794.7000;0.4143;-1.1769;
795.0000;0.4143;-1.1769;
795.3000;0.4143;-1.1868;
795.6000;0.4160;-1.1868;
795.9000;0.4168;-1.1868;
796.2000;0.4160;-1.1893;
796.5000;0.4151;-1.1818;
796.8000;0.4143;-1.1843;
797.1000;0.4103;-1.1843;
797.4000;0.4168;-1.1694;
797.7000;0.4135;-1.1793;
798.0000;0.4168;-1.1793;
798.3000;0.4119;-1.1943;
798.6000;0.4160;-1.1893;
798.9000;0.4070;-1.1993;
799.2000;0.4127;-1.1793;
799.5000;0.4151;-1.1744;
799.8000;0.4151;-1.1744;
800.1000;0.4078;-1.1968;
800.4000;0.4135;-1.1818;
800.7000;0.4168;-1.1669;
801.0000;0.4062;-1.1968;
801.3000;0.4127;-1.1644;
801.6000;0.4168;-1.1594;
801.9000;0.4119;-1.1669;
802.2000;0.4135;-1.1569;
802.5000;0.4135;-1.1644;
802.8000;0.4160;-1.1644;
803.1000;0.4176;-1.1594;
803.4000;0.4168;-1.1669;
803.7000;0.4168;-1.1719;
804.0000;0.4143;-1.1719;
804.3000;0.4151;-1.1719;
804.6000;0.4143;-1.1744;
804.9000;0.4127;-1.1744;
805.2000;0.4160;-1.1719;
805.5000;0.4143;-1.1843;
805.8000;0.4127;-1.1893;
806.1000;0.4119;-1.1818;
806.4000;0.4151;-1.1769;
806.7000;0.4151;-1.1818;
807.0000;0.4135;-1.1818;
807.3000;0.4127;-1.1893;
807.6000;0.4143;-1.1893;
807.9000;0.4168;-1.1769;
808.2000;0.4143;-1.1943;
808.5000;0.4176;-1.1843;
808.8000;0.4135;-1.1918;
809.1000;0.4151;-1.1893;
809.4000;0.4135;-1.1943;
809.7000;0.4135;-1.1993;
810.0000;0.4143;-1.1943;
810.3000;0.4151;-1.1868;
810.6000;0.4143;-1.1893;
810.9000;0.4135;-1.1893;
811.2000;0.4135;-1.1943;
811.5000;0.4160;-1.1943;
811.8000;0.4151;-1.1843;
812.1000;0.4119;-1.1868;
812.4000;0.4111;-1.1943;
812.7000;0.4127;-1.1943;
813.0000;0.4135;-1.1893;
813.3000;0.4135;-1.1818;
813.6000;0.4135;-1.1793;
813.9000;0.4127;-1.1843;
814.2000;0.4135;-1.1818;
814.5000;0.4119;-1.1943;
814.8000;0.4111;-1.1893;
815.1000;0.4135;-1.1918;
815.4000;0.4127;-1.1943;
815.7000;0.4119;-1.1993;
816.0000;0.4127;-1.1993;
816.3000;0.4135;-1.2018;
816.6000;0.4135;-1.2068;
816.9000;0.4208;-1.1818;
817.2000;0.4127;-1.1943;
817.5000;0.4160;-1.1769;
817.8000;0.4151;-1.1793;
818.1000;0.4143;-1.1818;
818.4000;0.4119;-1.1843;
818.7000;0.4143;-1.1893;
819.0000;0.4119;-1.1968;
819.3000;0.4135;-1.1943;
819.6000;0.4070;-1.2192;
819.9000;0.4111;-1.2043;
820.2000;0.4135;-1.1918;
820.5000;0.4176;-1.1843;
820.8000;0.4135;-1.1893;
821.1000;0.4111;-1.2018;
821.4000;0.4135;-1.1893;
821.7000;0.4127;-1.1893;
822.0000;0.4111;-1.1918;
822.3000;0.4135;-1.1893;
822.6000;0.4086;-1.2068;
822.9000;0.4119;-1.1968;
823.2000;0.4127;-1.2018;
823.5000;0.4192;-1.1868;
823.8000;0.4103;-1.2043;
824.1000;0.4070;-1.2242;
824.4000;0.4151;-1.2043;
824.7000;0.4094;-1.2167;
825.0000;0.4078;-1.2118;
825.3000;0.4119;-1.1943;
825.6000;0.4111;-1.1993;
825.9000;0.4111;-1.1943;
826.2000;0.4046;-1.2068;
826.5000;0.4094;-1.2018;
826.8000;0.4086;-1.2118;
827.1000;0.4127;-1.2043;
827.4000;0.4103;-1.2118;
827.7000;0.4094;-1.1993;
828.0000;0.4127;-1.1868;
828.3000;0.4111;-1.1893;
828.6000;0.4127;-1.1968;
828.9000;0.4094;-1.1943;
829.2000;0.4119;-1.1943;
829.5000;0.4127;-1.1943;
829.8000;0.4111;-1.1993;
830.1000;0.4111;-1.1918;
830.4000;0.4111;-1.1893;
830.7000;0.4111;-1.1868;
831.0000;0.4103;-1.1918;
831.3000;0.4103;-1.1918;
831.6000;0.4111;-1.1918;
831.9000;0.4094;-1.1868;
832.2000;0.4111;-1.1818;
832.5000;0.4094;-1.1793;
832.8000;0.4094;-1.1769;
833.1000;0.4111;-1.1818;
833.4000;0.4094;-1.1968;
833.7000;0.4094;-1.1993;
834.0000;0.4127;-1.1868;
834.3000;0.4094;-1.1868;
834.6000;0.4094;-1.1843;
834.9000;0.4127;-1.1843;
835.2000;0.4094;-1.2018;
835.5000;0.4094;-1.2093;
835.8000;0.4127;-1.2043;
836.1000;0.4119;-1.2093;
836.4000;0.4143;-1.2143;
836.7000;0.4111;-1.2093;
837.0000;0.4127;-1.1993;
837.3000;0.4103;-1.1943;
837.6000;0.4111;-1.1893;
837.9000;0.4111;-1.1893;
838.2000;0.4103;-1.1943;
838.5000;0.4103;-1.1918;
838.8000;0.4111;-1.1968;
839.1000;0.4094;-1.1993;
839.4000;0.4111;-1.1918;
839.7000;0.4111;-1.1893;
840.0000;0.4103;-1.1893;
840.3000;0.4094;-1.1843;
840.6000;0.4119;-1.1793;
840.9000;0.4029;-1.1968;
841.2000;0.4143;-1.1694;
841.5000;0.4086;-1.1968;
841.8000;0.4029;-1.2143;
842.1000;0.4119;-1.2018;
842.4000;0.4119;-1.1993;
842.7000;0.4037;-1.2242;
843.0000;0.4103;-1.2093;
843.3000;0.4103;-1.2118;
843.6000;0.4184;-1.1943;
843.9000;0.4160;-1.2018;
844.2000;0.4200;-1.1893;
844.5000;0.4094;-1.2143;
844.8000;0.4086;-1.2167;
845.1000;0.4200;-1.1868;
845.4000;0.4062;-1.2143;
845.7000;0.4062;-1.1993;
846.0000;0.4103;-1.1893;
846.3000;0.4094;-1.1893;
846.6000;0.4094;-1.1818;
846.9000;0.4135;-1.1818;
847.2000;0.4119;-1.1769;
847.5000;0.4054;-1.2018;
847.8000;0.4086;-1.1868;
848.1000;0.4094;-1.1818;
848.4000;0.4103;-1.1868;
848.7000;0.4119;-1.1918;
849.0000;0.4086;-1.1868;
849.3000;0.4086;-1.1793;
849.6000;0.4103;-1.1744;
849.9000;0.4094;-1.1769;
850.2000;0.4094;-1.1719;
850.5000;0.4143;-1.1644;
850.8000;0.4094;-1.1744;
851.1000;0.4111;-1.1694;
851.4000;0.4086;-1.1694;
851.7000;0.4078;-1.1719;
852.0000;0.4086;-1.1694;
852.3000;0.4086;-1.1669;
852.6000;0.4086;-1.1769;
852.9000;0.4086;-1.1644;
853.2000;0.4078;-1.1719;
853.5000;0.4086;-1.1644;
853.8000;0.4111;-1.1669;
854.1000;0.4086;-1.1719;
854.4000;0.4103;-1.1669;
854.7000;0.4103;-1.1719;
855.0000;0.4086;-1.1719;
855.3000;0.4143;-1.1619;
855.6000;0.4086;-1.1669;
855.9000;0.4086;-1.1594;
856.2000;0.4094;-1.1594;
856.5000;0.4078;-1.1719;
856.8000;0.4070;-1.1818;
857.1000;0.4103;-1.1793;
857.4000;0.4086;-1.1843;
857.7000;0.4078;-1.1843;
858.0000;0.4086;-1.1843;
858.3000;0.4086;-1.1868;
858.6000;0.4086;-1.1868;
858.9000;0.4160;-1.1744;
859.2000;0.4103;-1.1843;
859.5000;0.4094;-1.1843;
859.8000;0.4111;-1.1843;
860.1000;0.4135;-1.1744;
860.4000;0.4094;-1.1769;
860.7000;0.4078;-1.1893;
861.0000;0.4070;-1.1968;
861.3000;0.4078;-1.1993;
861.6000;0.4119;-1.1843;
861.9000;0.4094;-1.1893;
862.2000;0.4086;-1.1918;
862.5000;0.4078;-1.1893;
862.8000;0.4070;-1.1868;
863.1000;0.4046;-1.1918;
863.4000;0.4070;-1.1918;
863.7000;0.4103;-1.1744;
864.0000;0.4054;-1.1843;
864.3000;0.4135;-1.1669;
864.6000;0.4078;-1.1719;
864.9000;0.4062;-1.1694;
865.2000;0.4176;-1.1419;
865.5000;0.4111;-1.1619;
865.8000;0.4078;-1.1744;
866.1000;0.4094;-1.1744;
866.4000;0.4111;-1.1644;
866.7000;0.4070;-1.1694;
867.0000;0.4078;-1.1793;
867.3000;0.4062;-1.1818;
867.6000;0.4094;-1.1594;
867.9000;0.4062;-1.1694;
868.2000;0.4046;-1.1793;
868.5000;0.4086;-1.1619;
868.8000;0.4086;-1.1594;
869.1000;0.4070;-1.1644;
869.4000;0.4021;-1.1818;
869.7000;0.4086;-1.1619;
870.0000;0.4086;-1.1644;
870.3000;0.4086;-1.1619;
870.6000;0.4070;-1.1694;
870.9000;0.4070;-1.1694;
871.2000;0.4086;-1.1694;
871.5000;0.4086;-1.1694;
871.8000;0.4070;-1.1644;
872.1000;0.4119;-1.1594;
872.4000;0.4054;-1.1669;
872.7000;0.4127;-1.1444;
873.0000;0.4070;-1.1569;
873.3000;0.4054;-1.1569;
873.6000;0.4070;-1.1644;
873.9000;0.4078;-1.1669;
874.2000;0.4094;-1.1644;
874.5000;0.4062;-1.1719;
874.8000;0.4111;-1.1544;
875.1000;0.4078;-1.1619;
875.4000;0.4062;-1.1719;
875.7000;0.4086;-1.1669;
876.0000;0.4029;-1.1868;
876.3000;0.4070;-1.1744;
876.6000;0.4070;-1.1769;
876.9000;0.4086;-1.1744;
877.2000;0.4078;-1.1744;
877.5000;0.4037;-1.1918;
877.8000;0.4070;-1.1843;
878.1000;0.3972;-1.2043;
878.4000;0.4103;-1.1619;
878.7000;0.4070;-1.1793;
879.0000;0.4078;-1.1918;
879.3000;0.4070;-1.1893;
879.6000;0.4078;-1.1843;
879.9000;0.4070;-1.1893;
880.2000;0.4086;-1.1968;
880.5000;0.4046;-1.2068;
880.8000;0.4086;-1.1968;
881.1000;0.4070;-1.2043;
881.4000;0.4070;-1.2043;
881.7000;0.4078;-1.2018;
882.0000;0.4070;-1.1993;
882.3000;0.4086;-1.1868;
882.6000;0.4062;-1.1918;
882.9000;0.4062;-1.1868;
883.2000;0.4103;-1.1893;
883.5000;0.4086;-1.1968;
883.8000;0.4111;-1.1893;
884.1000;0.4094;-1.1993;
884.4000;0.4070;-1.2018;
884.7000;0.4070;-1.2068;
885.0000;0.4070;-1.1993;
885.3000;0.4094;-1.1968;
885.6000;0.4078;-1.2068;
885.9000;0.4078;-1.2143;
886.2000;0.4086;-1.2043;
886.5000;0.4070;-1.1968;
886.8000;0.4062;-1.1893;
887.1000;0.4029;-1.2018;
887.4000;0.4086;-1.1968;
887.7000;0.4070;-1.1968;
888.0000;0.3989;-1.2043;
888.3000;0.4086;-1.1793;
888.6000;0.4078;-1.1719;
888.9000;0.4046;-1.1744;
889.2000;0.4094;-1.1669;
889.5000;0.4062;-1.1769;
889.8000;0.4062;-1.1818;
890.1000;0.4054;-1.1943;
890.4000;0.4054;-1.1868;
890.7000;0.4086;-1.1843;
891.0000;0.4054;-1.1893;
891.3000;0.4094;-1.1868;
891.6000;0.4070;-1.1793;
891.9000;0.4078;-1.1744;
892.2000;0.4078;-1.1818;
892.5000;0.4062;-1.1868;
892.8000;0.4054;-1.1868;
893.1000;0.4054;-1.1843;
893.4000;0.4070;-1.1843;
893.7000;0.4021;-1.1993;
894.0000;0.4070;-1.1868;
894.3000;0.4054;-1.1843;
894.6000;0.4257;-1.1270;
894.9000;0.4070;-1.1818;
895.2000;0.4094;-1.1719;
895.5000;0.4062;-1.1769;
895.8000;0.4070;-1.1744;
896.1000;0.4013;-1.1918;
896.4000;0.4054;-1.1868;
896.7000;0.4062;-1.1893;
897.0000;0.4062;-1.1843;
897.3000;0.4054;-1.1793;
897.6000;0.4070;-1.1818;
897.9000;0.4054;-1.1868;
898.2000;0.4054;-1.1769;
898.5000;0.4086;-1.1793;
898.8000;0.4070;-1.1843;
899.1000;0.4062;-1.1893;
899.4000;0.4070;-1.1843;
899.7000;0.4078;-1.1843;
900.0000;0.4078;-1.1843;
900.3000;0.4070;-1.1843;
900.6000;0.4070;-1.1868;
900.9000;0.4062;-1.1818;
901.2000;0.4070;-1.1744;
901.5000;0.4086;-1.1769;
901.8000;0.4054;-1.1893;
902.1000;0.4070;-1.1818;
902.4000;0.4111;-1.1744;
902.7000;0.4062;-1.1818;
903.0000;0.4046;-1.1744;
903.3000;0.4029;-1.1868;
903.6000;0.4054;-1.1769;
903.9000;0.4070;-1.1818;
904.2000;0.4070;-1.1843;
904.5000;0.4037;-1.1843;
904.8000;0.4070;-1.1744;
905.1000;0.4062;-1.1793;
905.4000;0.4070;-1.1818;
905.7000;0.4054;-1.1943;
906.0000;0.4046;-1.2068;
906.3000;0.4070;-1.2018;
906.6000;0.4078;-1.2018;
906.9000;0.4062;-1.2093;
907.2000;0.4046;-1.2018;
907.5000;0.4054;-1.1993;
907.8000;0.4062;-1.1918;
908.1000;0.4054;-1.1843;
908.4000;0.4062;-1.1893;
908.7000;0.4062;-1.1818;
909.0000;0.4062;-1.1793;
909.3000;0.4054;-1.1843;
909.6000;0.4054;-1.1818;
909.9000;0.4070;-1.1769;
910.2000;0.4062;-1.1818;
910.5000;0.4078;-1.1818;
910.8000;0.4046;-1.1893;
911.1000;0.4070;-1.1744;
911.4000;0.4054;-1.1818;
911.7000;0.4062;-1.1893;
912.0000;0.4054;-1.1868;
912.3000;0.4054;-1.1818;
912.6000;0.4070;-1.1793;
912.9000;0.4054;-1.1843;
913.2000;0.4054;-1.1843;
913.5000;0.4054;-1.1818;
913.8000;0.4054;-1.1818;
914.1000;0.4037;-1.1843;
914.4000;0.4029;-1.1818;
914.7000;0.4086;-1.1669;
915.0000;0.4046;-1.1744;
915.3000;0.4054;-1.1769;
915.6000;0.4086;-1.1619;
915.9000;0.4046;-1.1744;
916.2000;0.4054;-1.1793;
916.5000;0.3964;-1.1968;
916.8000;0.4037;-1.1818;
917.1000;0.4029;-1.1818;
917.4000;0.4054;-1.1793;
917.7000;0.4046;-1.1868;
918.0000;0.4054;-1.1843;
918.3000;0.4037;-1.1843;
918.6000;0.4143;-1.1544;
918.9000;0.4127;-1.1519;
919.2000;0.4013;-1.1793;
919.5000;0.3997;-1.1818;
919.8000;0.4062;-1.1744;
920.1000;0.4054;-1.1868;
920.4000;0.4054;-1.1843;
920.7000;0.4094;-1.1669;
921.0000;0.4054;-1.1769;
921.3000;0.4054;-1.1793;
921.6000;0.4046;-1.1769;
921.9000;0.4103;-1.1669;
922.2000;0.4054;-1.1744;
922.5000;0.3948;-1.1943;
922.8000;0.4054;-1.1669;
923.1000;0.4070;-1.1694;
923.4000;0.4046;-1.1744;
923.7000;0.4054;-1.1769;
924.0000;0.4046;-1.1719;
924.3000;0.4054;-1.1744;
924.6000;0.4046;-1.1769;
924.9000;0.4054;-1.1843;
925.2000;0.4054;-1.1843;
925.5000;0.4037;-1.1893;
925.8000;0.4062;-1.1868;
926.1000;0.4037;-1.2018;
926.4000;0.4078;-1.1843;
926.7000;0.4054;-1.1918;
927.0000;0.4046;-1.2018;
927.3000;0.4054;-1.2043;
927.6000;0.4070;-1.1918;
927.9000;0.4005;-1.2018;
928.2000;0.4046;-1.1868;
928.5000;0.4094;-1.1719;
928.8000;0.4054;-1.1719;
929.1000;0.4062;-1.1744;
929.4000;0.4062;-1.1744;
929.7000;0.4029;-1.1719;
930.0000;0.4046;-1.1694;
930.3000;0.4046;-1.1694;
930.6000;0.4046;-1.1769;
930.9000;0.4054;-1.1793;
931.2000;0.4054;-1.1868;
931.5000;0.4078;-1.1943;
931.8000;0.4021;-1.2118;
932.1000;0.3989;-1.2217;
932.4000;0.4029;-1.2143;
932.7000;0.4037;-1.2043;
933.0000;0.4070;-1.1993;
933.3000;0.4046;-1.2043;
933.6000;0.4046;-1.2043;
933.9000;0.4094;-1.1893;
934.2000;0.4054;-1.1943;
934.5000;0.4062;-1.1868;
934.8000;0.4046;-1.1793;
935.1000;0.4029;-1.1669;
935.4000;0.4070;-1.1569;
935.7000;0.4046;-1.1719;
936.0000;0.4054;-1.1744;
936.3000;0.4046;-1.1719;
936.6000;0.4054;-1.1694;
936.9000;0.4029;-1.1719;
937.2000;0.4029;-1.1669;
937.5000;0.4029;-1.1719;
937.8000;0.4054;-1.1669;
938.1000;0.4037;-1.1719;
938.4000;0.4037;-1.1669;
938.7000;0.4054;-1.1694;
939.0000;0.4021;-1.1818;
939.3000;0.4046;-1.1719;
939.6000;0.4078;-1.1594;
939.9000;0.4021;-1.1818;
940.2000;0.4029;-1.1769;
940.5000;0.4013;-1.1868;
940.8000;0.4046;-1.1793;
941.1000;0.4021;-1.1893;
941.4000;0.4037;-1.1918;
941.7000;0.4037;-1.1843;
942.0000;0.4021;-1.1843;
942.3000;0.4046;-1.1843;
942.6000;0.4037;-1.1843;
942.9000;0.4046;-1.1719;
943.2000;0.4054;-1.1719;
943.5000;0.4062;-1.1769;
943.8000;0.4037;-1.1918;
944.1000;0.4037;-1.1818;
944.4000;0.4054;-1.1769;
944.7000;0.4037;-1.1943;
945.0000;0.4037;-1.2043;
945.3000;0.4037;-1.2043;
945.6000;0.4062;-1.2018;
945.9000;0.4037;-1.2043;
946.2000;0.4037;-1.2018;
946.5000;0.4029;-1.2018;
946.8000;0.4046;-1.1968;
947.1000;0.4037;-1.1993;
947.4000;0.4062;-1.1918;
947.7000;0.4070;-1.1843;
948.0000;0.4062;-1.1769;
948.3000;0.4037;-1.1793;
948.6000;0.4046;-1.1744;
948.9000;0.4054;-1.1644;
949.2000;0.4046;-1.1619;
949.5000;0.4037;-1.1644;
949.8000;0.4037;-1.1744;
950.1000;0.4037;-1.1818;
950.4000;0.4029;-1.1793;
950.7000;0.3997;-1.1843;
951.0000;0.4046;-1.1793;
951.3000;0.4029;-1.1868;
951.6000;0.4005;-1.1918;
951.9000;0.4054;-1.1769;
952.2000;0.4037;-1.1769;
952.5000;0.4070;-1.1769;
952.8000;0.3980;-1.1993;
953.1000;0.4054;-1.1818;
953.4000;0.4054;-1.1868;
953.7000;0.4119;-1.1694;
954.0000;0.4046;-1.1893;
954.3000;0.4029;-1.1818;
954.6000;0.4046;-1.1744;
954.9000;0.3956;-1.1968;
955.2000;0.4029;-1.1893;
955.5000;0.4029;-1.1968;
955.8000;0.4037;-1.1943;
956.1000;0.4070;-1.1769;
956.4000;0.4046;-1.1893;
956.7000;0.4013;-1.2093;
957.0000;0.4078;-1.1868;
957.3000;0.4021;-1.1918;
957.6000;0.4054;-1.1793;
957.9000;0.3980;-1.1918;
958.2000;0.4029;-1.1818;
958.5000;0.4029;-1.1818;
958.8000;0.4029;-1.1818;
959.1000;0.4029;-1.1918;
959.4000;0.4037;-1.1943;
959.7000;0.4054;-1.1868;
960.0000;0.4054;-1.1868;
960.3000;0.3940;-1.2118;
960.6000;0.4021;-1.1893;
960.9000;0.4037;-1.1744;
961.2000;0.4037;-1.1744;
961.5000;0.4029;-1.1744;
961.8000;0.4021;-1.1744;
962.1000;0.4029;-1.1744;
962.4000;0.4029;-1.1769;
962.7000;0.4037;-1.1818;
963.0000;0.4054;-1.1769;
963.3000;0.4021;-1.1744;
963.6000;0.4046;-1.1744;
963.9000;0.4037;-1.1818;
964.2000;0.4046;-1.1793;
964.5000;0.4037;-1.1818;
964.8000;0.4029;-1.1818;
965.1000;0.4013;-1.1793;
965.4000;0.4013;-1.1769;
965.7000;0.3948;-1.1993;
966.0000;0.4046;-1.1744;
966.3000;0.4029;-1.1793;
966.6000;0.4029;-1.1694;
966.9000;0.4046;-1.1719;
967.2000;0.4037;-1.1694;
967.5000;0.4054;-1.1694;
967.8000;0.4046;-1.1818;
968.1000;0.4021;-1.1818;
968.4000;0.4021;-1.1868;
968.7000;0.4021;-1.1943;
969.0000;0.4037;-1.1893;
969.3000;0.4046;-1.1793;
969.6000;0.4037;-1.1843;
969.9000;0.4037;-1.1818;
970.2000;0.4029;-1.1843;
970.5000;0.4005;-1.1943;
970.8000;0.4054;-1.1868;
971.1000;0.4046;-1.1918;
971.4000;0.4029;-1.1943;
971.7000;0.4037;-1.1943;
972.0000;0.4021;-1.1943;
972.3000;0.3980;-1.1993;
972.6000;0.4013;-1.1918;
972.9000;0.4029;-1.1868;
973.2000;0.4029;-1.1893;
973.5000;0.4078;-1.1769;
973.8000;0.4021;-1.1893;
974.1000;0.4029;-1.1918;
974.4000;0.4037;-1.1968;
974.7000;0.4046;-1.1868;
975.0000;0.4046;-1.1893;
975.3000;0.4013;-1.1893;
975.6000;0.4029;-1.1719;
975.9000;0.4078;-1.1519;
976.2000;0.4054;-1.1694;
976.5000;0.4046;-1.1744;
976.8000;0.3964;-1.1918;
977.1000;0.4029;-1.1793;
977.4000;0.4021;-1.1793;
977.7000;0.4037;-1.1769;
978.0000;0.4037;-1.1769;
978.3000;0.4021;-1.1793;
978.6000;0.4029;-1.1744;
978.9000;0.4037;-1.1744;
979.2000;0.4029;-1.1793;
979.5000;0.4021;-1.1893;
979.8000;0.4062;-1.1744;
980.1000;0.4021;-1.1843;
980.4000;0.4054;-1.1694;
980.7000;0.4029;-1.1818;
981.0000;0.3997;-1.1943;
981.3000;0.4021;-1.1943;
981.6000;0.4037;-1.1943;
981.9000;0.4086;-1.1793;
982.2000;0.4029;-1.1893;
982.5000;0.4021;-1.1843;
982.8000;0.4037;-1.1918;
983.1000;0.3964;-1.2167;
983.4000;0.4013;-1.1993;
983.7000;0.4005;-1.1993;
984.0000;0.4021;-1.1968;
984.3000;0.4029;-1.1968;
984.6000;0.3956;-1.2167;
984.9000;0.4021;-1.2043;
985.2000;0.4013;-1.2018;
985.5000;0.4037;-1.1868;
985.8000;0.4054;-1.1868;
986.1000;0.4005;-1.1993;
986.4000;0.4029;-1.1993;
986.7000;0.4029;-1.1943;
987.0000;0.4037;-1.1893;
987.3000;0.4046;-1.1868;
987.6000;0.3940;-1.2143;
987.9000;0.4029;-1.1769;
988.2000;0.4029;-1.1818;
988.5000;0.4037;-1.1793;
988.8000;0.4029;-1.1843;
989.1000;0.4037;-1.1793;
989.4000;0.4013;-1.1868;
989.7000;0.4005;-1.1893;
990.0000;0.4037;-1.1793;
990.3000;0.4037;-1.1918;
990.6000;0.4070;-1.1868;
990.9000;0.4029;-1.1893;
991.2000;0.4029;-1.1843;
991.5000;0.4054;-1.1769;
991.8000;0.4046;-1.1893;
992.1000;0.4046;-1.1943;
992.4000;0.4029;-1.1918;
992.7000;0.4005;-1.1993;
993.0000;0.4037;-1.1918;
993.3000;0.4013;-1.1918;
993.6000;0.4029;-1.1918;
993.9000;0.4046;-1.1943;
994.2000;0.4037;-1.1868;
994.5000;0.4029;-1.1843;
994.8000;0.4029;-1.1793;
995.1000;0.4021;-1.1868;
995.4000;0.4037;-1.1818;
995.7000;0.4021;-1.1843;
996.0000;0.4037;-1.1843;
996.3000;0.3964;-1.1943;
996.6000;0.4005;-1.1843;
996.9000;0.4021;-1.1694;
997.2000;0.4013;-1.1744;
997.5000;0.4029;-1.1669;
997.8000;0.4021;-1.1694;
998.1000;0.4029;-1.1694;
998.4000;0.4013;-1.1793;
998.7000;0.4046;-1.1669;
999.0000;0.4013;-1.1669;
999.3000;0.4037;-1.1619;
999.6000;0.4029;-1.1594;
999.9000;0.4013;-1.1694;
1000.2000;0.4013;-1.1694;
1000.5000;0.4029;-1.1719;
1000.8000;0.4054;-1.1569;
1001.1000;0.4029;-1.1569;
1001.4000;0.4013;-1.1594;
1001.7000;0.4029;-1.1644;
1002.0000;0.3964;-1.1843;
1002.3000;0.4021;-1.1694;
1002.6000;0.4005;-1.1694;
1002.9000;0.4021;-1.1719;
1003.2000;0.4029;-1.1793;
1003.5000;0.4029;-1.1943;
1003.8000;0.4021;-1.1943;
1004.1000;0.4013;-1.1968;
1004.4000;0.4013;-1.1918;
1004.7000;0.4013;-1.1918;
1005.0000;0.4078;-1.1744;
1005.3000;0.4013;-1.1843;
1005.6000;0.4029;-1.1793;
1005.9000;0.4021;-1.1818;
1006.2000;0.4029;-1.1868;
1006.5000;0.4013;-1.1843;
1006.8000;0.4021;-1.1793;
1007.1000;0.4005;-1.1893;
1007.4000;0.4005;-1.1793;
1007.7000;0.4005;-1.1769;
1008.0000;0.4013;-1.1719;
1008.3000;0.4037;-1.1669;
1008.6000;0.4013;-1.1694;
1008.9000;0.4046;-1.1694;
1009.2000;0.3980;-1.1868;
1009.5000;0.3972;-1.1843;
1009.8000;0.3972;-1.1769;
1010.1000;0.4021;-1.1719;
1010.4000;0.4013;-1.1744;
1010.7000;0.4029;-1.1744;
1011.0000;0.4070;-1.1694;
1011.3000;0.4013;-1.1868;
1011.6000;0.3997;-1.1868;
1011.9000;0.3997;-1.1918;
1012.2000;0.3915;-1.2217;
1012.5000;0.4013;-1.1968;
1012.8000;0.4013;-1.1943;
1013.1000;0.4005;-1.1993;
1013.4000;0.4021;-1.1893;
1013.7000;0.4029;-1.1818;
1014.0000;0.3989;-1.1918;
1014.3000;0.4021;-1.1918;
1014.6000;0.4046;-1.1868;
1014.9000;0.4037;-1.1893;
1015.2000;0.4021;-1.1843;
1015.5000;0.4046;-1.1843;
1015.8000;0.4013;-1.1943;
1016.1000;0.4021;-1.1993;
1016.4000;0.4005;-1.2093;
1016.7000;0.4013;-1.2018;
1017.0000;0.4021;-1.1943;
1017.3000;0.4029;-1.1843;
1017.6000;0.4054;-1.1818;
1017.9000;0.4013;-1.1818;
1018.2000;0.4029;-1.1744;
1018.5000;0.4037;-1.1644;
1018.8000;0.4029;-1.1719;
1019.1000;0.4029;-1.1719;
1019.4000;0.4013;-1.1793;
1019.7000;0.4054;-1.1769;
1020.0000;0.4037;-1.1843;
1020.3000;0.4021;-1.1943;
1020.6000;0.4037;-1.1918;
1020.9000;0.4029;-1.1993;
1021.2000;0.4013;-1.1868;
1021.5000;0.4013;-1.1818;
1021.8000;0.3997;-1.1918;
1022.1000;0.4021;-1.1769;
1022.4000;0.3997;-1.1769;
1022.7000;0.4029;-1.1719;
1023.0000;0.4021;-1.1644;
1023.3000;0.4005;-1.1694;
1023.6000;0.4013;-1.1694;
1023.9000;0.4021;-1.1769;
1024.2000;0.4005;-1.1744;
1024.5000;0.4037;-1.1694;
1024.8000;0.4037;-1.1694;
1025.1000;0.4021;-1.1744;
1025.4000;0.4021;-1.1744;
1025.7000;0.4029;-1.1694;
1026.0000;0.4078;-1.1644;
1026.3000;0.4029;-1.1818;
1026.6000;0.4054;-1.1793;
1026.9000;0.4029;-1.1793;
1027.2000;0.4021;-1.1769;
1027.5000;0.4054;-1.1719;
1027.8000;0.4021;-1.1793;
1028.1000;0.4062;-1.1719;
1028.4000;0.4005;-1.1868;
1028.7000;0.4037;-1.1744;
1029.0000;0.3997;-1.1893;
1029.3000;0.4021;-1.1818;
1029.6000;0.4046;-1.1793;
1029.9000;0.3997;-1.1993;
1030.2000;0.4005;-1.1943;
1030.5000;0.4021;-1.1968;
1030.8000;0.3980;-1.1918;
1031.1000;0.4029;-1.1769;
1031.4000;0.4029;-1.1793;
1031.7000;0.4005;-1.1893;
1032.0000;0.4029;-1.1818;
1032.3000;0.4013;-1.1868;
1032.6000;0.4013;-1.1918;
1032.9000;0.4005;-1.1968;
1033.2000;0.4111;-1.1719;
1033.5000;0.3997;-1.2068;
1033.8000;0.3972;-1.2068;
1034.1000;0.4029;-1.1893;
1034.4000;0.4021;-1.1843;
1034.7000;0.4013;-1.1893;
1035.0000;0.3989;-1.1943;
1035.3000;0.4013;-1.1893;
1035.6000;0.4021;-1.1968;
1035.9000;0.4005;-1.2093;
1036.2000;0.4013;-1.2043;
1036.5000;0.3972;-1.2143;
1036.8000;0.4013;-1.1993;
1037.1000;0.4021;-1.2018;
1037.4000;0.4021;-1.2068;
1037.7000;0.4029;-1.2093;
1038.0000;0.4013;-1.2118;
1038.3000;0.3997;-1.2167;
1038.6000;0.4005;-1.2167;
1038.9000;0.4021;-1.2192;
1039.2000;0.4005;-1.2242;
1039.5000;0.4013;-1.2192;
1039.8000;0.4103;-1.1843;
1040.1000;0.4021;-1.2043;
1040.4000;0.4029;-1.2043;
1040.7000;0.3956;-1.2217;
1041.0000;0.4013;-1.2093;
1041.3000;0.3997;-1.2068;
1041.6000;0.4013;-1.1968;
1041.9000;0.3972;-1.2043;
1042.2000;0.3997;-1.1968;
1042.5000;0.4005;-1.1918;
1042.8000;0.4029;-1.1843;
1043.1000;0.4021;-1.1769;
1043.4000;0.4029;-1.1719;
1043.7000;0.4013;-1.1719;
1044.0000;0.4005;-1.1769;
1044.3000;0.3997;-1.1843;
1044.6000;0.4005;-1.1943;
1044.9000;0.4005;-1.1993;
1045.2000;0.4005;-1.1993;
1045.5000;0.4005;-1.1993;
1045.8000;0.4013;-1.2068;
1046.1000;0.4029;-1.2118;
1046.4000;0.4021;-1.2242;
1046.7000;0.4013;-1.2267;
1047.0000;0.3997;-1.2118;
1047.3000;0.4005;-1.2068;
1047.6000;0.4005;-1.2093;
1047.9000;0.4021;-1.1993;
1048.2000;0.3997;-1.1918;
1048.5000;0.3989;-1.1918;
1048.8000;0.4013;-1.1868;
1049.1000;0.4013;-1.1893;
1049.4000;0.4021;-1.1943;
1049.7000;0.3980;-1.2093;
1050.0000;0.3980;-1.2043;
1050.3000;0.4013;-1.1868;
1050.6000;0.4021;-1.1918;
1050.9000;0.3989;-1.1968;
1051.2000;0.4013;-1.2068;
1051.5000;0.4029;-1.2118;
1051.8000;0.3997;-1.2167;
1052.1000;0.4070;-1.1893;
1052.4000;0.4094;-1.1744;
1052.7000;0.4021;-1.1818;
1053.0000;0.4013;-1.1968;
1053.3000;0.4021;-1.1993;
1053.6000;0.3997;-1.2068;
1053.9000;0.3980;-1.2093;
1054.2000;0.3980;-1.2018;
1054.5000;0.3997;-1.1893;
1054.8000;0.3980;-1.1868;
1055.1000;0.3956;-1.1943;
1055.4000;0.3980;-1.1918;
1055.7000;0.4005;-1.1943;
1056.0000;0.3989;-1.1943;
1056.3000;0.3997;-1.1993;
1056.6000;0.4013;-1.1943;
1056.9000;0.4021;-1.1943;
1057.2000;0.4013;-1.1968;
1057.5000;0.4005;-1.2068;
1057.8000;0.4005;-1.1993;
1058.1000;0.4013;-1.1918;
1058.4000;0.4013;-1.1918;
1058.7000;0.3948;-1.2192;
1059.0000;0.4005;-1.1943;
1059.3000;0.4029;-1.1868;
1059.6000;0.4029;-1.1868;
1059.9000;0.3972;-1.2068;
1060.2000;0.4021;-1.1918;
1060.5000;0.4013;-1.1843;
1060.8000;0.4029;-1.1918;
1061.1000;0.4029;-1.1968;
1061.4000;0.4021;-1.1868;
1061.7000;0.4021;-1.1744;
1062.0000;0.4005;-1.1769;
1062.3000;0.4037;-1.1694;
1062.6000;0.4005;-1.1943;
1062.9000;0.4005;-1.1968;
1063.2000;0.4021;-1.1918;
1063.5000;0.4046;-1.1769;
1063.8000;0.4054;-1.1744;
1064.1000;0.4013;-1.1769;
1064.4000;0.4029;-1.1818;
1064.7000;0.4013;-1.1818;
1065.0000;0.3948;-1.2043;
1065.3000;0.3997;-1.1968;
1065.6000;0.4013;-1.1893;
1065.9000;0.4037;-1.1843;
1066.2000;0.3997;-1.1943;
1066.5000;0.4005;-1.1918;
1066.8000;0.3989;-1.1993;
1067.1000;0.4021;-1.1918;
1067.4000;0.3997;-1.2043;
1067.7000;0.4005;-1.1993;
1068.0000;0.3980;-1.2118;
1068.3000;0.4005;-1.2068;
1068.6000;0.3997;-1.1943;
1068.9000;0.4021;-1.1893;
1069.2000;0.3989;-1.2093;
1069.5000;0.3972;-1.2093;
1069.8000;0.4005;-1.2018;
1070.1000;0.4005;-1.1968;
1070.4000;0.4013;-1.1993;
1070.7000;0.3980;-1.2068;
1071.0000;0.4021;-1.1943;
1071.3000;0.4005;-1.2018;
1071.6000;0.4029;-1.1968;
1071.9000;0.4029;-1.1893;
1072.2000;0.4005;-1.2043;
1072.5000;0.3997;-1.2143;
1072.8000;0.3997;-1.2093;
1073.1000;0.3997;-1.2018;
1073.4000;0.4021;-1.1943;
1073.7000;0.3997;-1.1993;
1074.0000;0.3956;-1.2143;
1074.3000;0.3997;-1.2093;
1074.6000;0.4005;-1.2068;
1074.9000;0.3997;-1.2043;
1075.2000;0.4013;-1.2018;
1075.5000;0.3997;-1.1943;
1075.8000;0.4005;-1.1868;
1076.1000;0.4086;-1.1519;
1076.4000;0.3980;-1.1818;
1076.7000;0.4005;-1.1694;
1077.0000;0.4005;-1.1769;
1077.3000;0.3989;-1.1818;
1077.6000;0.4005;-1.1769;
1077.9000;0.4005;-1.1769;
1078.2000;0.4005;-1.1744;
1078.5000;0.3980;-1.1669;
1078.8000;0.3997;-1.1744;
1079.1000;0.3989;-1.1893;
1079.4000;0.3980;-1.1993;
1079.7000;0.3956;-1.2018;
1080.0000;0.3997;-1.2068;
1080.3000;0.3989;-1.2093;
1080.6000;0.4054;-1.1893;
1080.9000;0.3997;-1.2018;
1081.2000;0.3948;-1.2167;
1081.5000;0.3989;-1.2093;
1081.8000;0.4021;-1.2043;
1082.1000;0.3964;-1.2143;
1082.4000;0.4021;-1.1943;
1082.7000;0.3997;-1.2068;
1083.0000;0.3907;-1.2217;
1083.3000;0.4021;-1.1943;
1083.6000;0.4005;-1.1993;
1083.9000;0.4013;-1.1918;
1084.2000;0.4013;-1.1943;
1084.5000;0.3997;-1.2018;
1084.8000;0.3997;-1.2043;
1085.1000;0.4029;-1.1993;
1085.4000;0.3989;-1.2018;
1085.7000;0.3964;-1.2068;
1086.0000;0.4013;-1.2018;
1086.3000;0.4021;-1.2018;
1086.6000;0.4013;-1.2093;
1086.9000;0.4005;-1.2068;
1087.2000;0.3972;-1.2118;
1087.5000;0.4013;-1.1968;
1087.8000;0.3948;-1.2143;
1088.1000;0.3997;-1.1968;
1088.4000;0.4046;-1.1893;
1088.7000;0.3989;-1.2018;
1089.0000;0.3997;-1.1943;
1089.3000;0.3997;-1.1818;
1089.6000;0.3989;-1.1868;
1089.9000;0.4005;-1.1943;
1090.2000;0.3997;-1.2043;
1090.5000;0.3989;-1.2118;
1090.8000;0.3907;-1.2317;
1091.1000;0.3997;-1.2118;
1091.4000;0.4062;-1.1918;
1091.7000;0.3989;-1.2068;
1092.0000;0.4005;-1.2018;
1092.3000;0.4021;-1.2118;
1092.6000;0.4021;-1.2118;
1092.9000;0.3989;-1.2093;
1093.2000;0.4029;-1.1918;
1093.5000;0.4029;-1.1793;
1093.8000;0.4054;-1.1694;
1094.1000;0.3989;-1.1918;
1094.4000;0.3980;-1.1968;
1094.7000;0.3997;-1.2018;
1095.0000;0.4021;-1.2043;
1095.3000;0.4005;-1.2093;
1095.6000;0.3989;-1.2167;
1095.9000;0.4005;-1.2068;
1096.2000;0.3980;-1.2192;
1096.5000;0.4021;-1.2093;
1096.8000;0.3989;-1.2093;
1097.1000;0.4021;-1.2068;
1097.4000;0.4013;-1.1918;
1097.7000;0.4021;-1.1893;
1098.0000;0.3956;-1.2192;
1098.3000;0.3989;-1.2143;
1098.6000;0.3997;-1.2167;
1098.9000;0.4070;-1.1893;
1099.2000;0.3972;-1.2093;
1099.5000;0.4005;-1.2018;
1099.8000;0.3989;-1.2118;
1100.1000;0.4013;-1.2093;
1100.4000;0.4013;-1.2143;
1100.7000;0.4005;-1.2143;
1101.0000;0.3997;-1.2267;
1101.3000;0.4013;-1.2242;
1101.6000;0.3989;-1.2167;
1101.9000;0.3997;-1.2167;
1102.2000;0.3997;-1.2217;
1102.5000;0.3980;-1.2143;
1102.8000;0.4005;-1.2018;
1103.1000;0.4021;-1.1918;
1103.4000;0.4005;-1.2043;
1103.7000;0.3964;-1.2068;
1104.0000;0.3997;-1.1968;
1104.3000;0.3997;-1.2043;
1104.6000;0.3980;-1.2043;
1104.9000;0.3989;-1.2018;
1105.2000;0.3972;-1.2093;
1105.5000;0.4013;-1.2068;
1105.8000;0.3980;-1.2143;
1106.1000;0.3964;-1.2167;
1106.4000;0.4013;-1.2118;
1106.7000;0.4021;-1.2192;
1107.0000;0.4005;-1.2267;
1107.3000;0.3989;-1.2317;
1107.6000;0.3997;-1.2317;
1107.9000;0.4005;-1.2267;
1108.2000;0.4005;-1.2317;
1108.5000;0.3989;-1.2317;
1108.8000;0.4005;-1.2217;
1109.1000;0.3980;-1.2242;
1109.4000;0.4005;-1.2167;
1109.7000;0.4005;-1.2118;
1110.0000;0.3989;-1.2167;
1110.3000;0.4021;-1.2068;
1110.6000;0.4054;-1.1943;
1110.9000;0.4005;-1.2018;
1111.2000;0.3989;-1.2118;
1111.5000;0.4037;-1.2093;
1111.8000;0.3997;-1.2143;
1112.1000;0.4005;-1.2167;
1112.4000;0.3989;-1.2242;
1112.7000;0.3997;-1.2143;
1113.0000;0.4029;-1.2068;
1113.3000;0.3997;-1.2118;
1113.6000;0.3972;-1.2118;
1113.9000;0.3989;-1.2093;
1114.2000;0.3964;-1.2068;
1114.5000;0.4037;-1.1893;
1114.8000;0.3972;-1.2068;
1115.1000;0.4005;-1.1968;
1115.4000;0.4013;-1.1918;
1115.7000;0.3989;-1.1918;
1116.0000;0.3989;-1.1943;
1116.3000;0.3972;-1.1918;
1116.6000;0.3980;-1.1818;
1116.9000;0.4005;-1.1793;
1117.2000;0.3989;-1.1893;
1117.5000;0.4005;-1.1793;
1117.8000;0.3989;-1.1769;
1118.1000;0.4062;-1.1619;
1118.4000;0.3997;-1.1744;
1118.7000;0.3997;-1.1793;
1119.0000;0.4013;-1.1843;
1119.3000;0.4062;-1.1744;
1119.6000;0.3980;-1.1943;
1119.9000;0.3989;-1.1968;
1120.2000;0.3997;-1.1893;
1120.5000;0.3980;-1.1893;
1120.8000;0.4005;-1.1893;
1121.1000;0.3923;-1.2167;
1121.4000;0.4021;-1.1943;
1121.7000;0.4005;-1.1968;
1122.0000;0.3964;-1.2043;
1122.3000;0.3997;-1.1968;
1122.6000;0.4037;-1.1868;
1122.9000;0.4005;-1.1943;
1123.2000;0.4070;-1.1719;
1123.5000;0.4005;-1.1868;
1123.8000;0.4005;-1.1793;
1124.1000;0.4013;-1.1694;
1124.4000;0.3989;-1.1843;
1124.7000;0.4094;-1.1669;
1125.0000;0.3989;-1.1968;
1125.3000;0.4005;-1.2068;
1125.6000;0.3989;-1.2093;
1125.9000;0.3997;-1.1918;
1126.2000;0.3940;-1.2143;
1126.5000;0.3997;-1.2018;
1126.8000;0.4005;-1.2043;
1127.1000;0.3997;-1.2068;
1127.4000;0.4013;-1.2068;
1127.7000;0.3989;-1.1943;
1128.0000;0.3956;-1.2068;
1128.3000;0.3980;-1.1943;
1128.6000;0.3989;-1.1993;
1128.9000;0.3989;-1.2068;
1129.2000;0.3972;-1.2068;
1129.5000;0.4005;-1.1943;
1129.8000;0.3989;-1.1893;
1130.1000;0.4005;-1.1943;
1130.4000;0.3980;-1.1968;
1130.7000;0.3997;-1.1868;
1131.0000;0.3980;-1.1843;
1131.3000;0.3997;-1.1918;
1131.6000;0.3997;-1.1968;
1131.9000;0.4013;-1.1943;
1132.2000;0.4005;-1.1968;
1132.5000;0.3980;-1.2093;
1132.8000;0.4013;-1.1968;
1133.1000;0.3980;-1.2043;
1133.4000;0.3997;-1.1993;
1133.7000;0.3997;-1.1943;
1134.0000;0.4021;-1.1868;
1134.3000;0.4005;-1.1943;
1134.6000;0.4029;-1.1918;
1134.9000;0.3997;-1.1993;
1135.2000;0.3989;-1.1968;
1135.5000;0.3980;-1.1893;
1135.8000;0.3980;-1.1893;
1136.1000;0.4013;-1.1893;
1136.4000;0.3997;-1.1918;
1136.7000;0.4021;-1.1968;
1137.0000;0.4037;-1.1993;
1137.3000;0.3980;-1.2043;
1137.6000;0.3989;-1.2068;
1137.9000;0.4029;-1.1893;
1138.2000;0.3972;-1.2093;
1138.5000;0.3997;-1.2043;
1138.8000;0.3980;-1.1993;
1139.1000;0.3989;-1.2043;
1139.4000;0.4013;-1.1993;
1139.7000;0.4054;-1.1893;
1140.0000;0.4013;-1.2093;
1140.3000;0.4013;-1.2068;
1140.6000;0.3980;-1.2043;
1140.9000;0.3956;-1.2068;
1141.2000;0.3997;-1.1993;
1141.5000;0.4005;-1.2068;
1141.8000;0.4005;-1.2018;
1142.1000;0.4184;-1.1519;
1142.4000;0.3997;-1.2043;
1142.7000;0.4013;-1.1943;
1143.0000;0.3980;-1.1943;
1143.3000;0.3964;-1.2018;
1143.6000;0.4054;-1.1893;
1143.9000;0.3997;-1.2018;
1144.2000;0.3989;-1.2043;
1144.5000;0.4005;-1.2068;
1144.8000;0.4021;-1.1943;
1145.1000;0.3989;-1.2068;
1145.4000;0.4054;-1.1993;
1145.7000;0.3980;-1.2093;
1146.0000;0.4037;-1.2068;
1146.3000;0.4013;-1.2068;
1146.6000;0.3997;-1.2143;
1146.9000;0.3899;-1.2292;
1147.2000;0.4005;-1.2018;
1147.5000;0.3956;-1.2143;
1147.8000;0.3989;-1.2143;
1148.1000;0.4029;-1.1968;
1148.4000;0.3980;-1.1993;
1148.7000;0.4013;-1.1918;
1149.0000;0.4013;-1.1968;
1149.3000;0.3972;-1.2118;
1149.6000;0.4037;-1.1893;
1149.9000;0.3989;-1.1918;
1150.2000;0.3997;-1.1818;
1150.5000;0.3997;-1.1893;
1150.8000;0.3989;-1.1893;
1151.1000;0.4005;-1.1968;
1151.4000;0.3997;-1.1943;
1151.7000;0.3989;-1.1868;
1152.0000;0.3997;-1.1843;
1152.3000;0.3997;-1.1793;
1152.6000;0.4005;-1.1793;
1152.9000;0.3989;-1.1918;
1153.2000;0.3980;-1.1893;
1153.5000;0.3989;-1.1918;
1153.8000;0.3989;-1.1893;
1154.1000;0.3997;-1.1843;
1154.4000;0.4005;-1.1843;
1154.7000;0.3956;-1.1918;
1155.0000;0.4005;-1.1818;
1155.3000;0.3997;-1.1793;
1155.6000;0.3997;-1.1793;
1155.9000;0.3932;-1.2018;
1156.2000;0.3972;-1.1843;
1156.5000;0.4005;-1.1719;
1156.8000;0.3972;-1.1769;
1157.1000;0.3956;-1.1843;
1157.4000;0.3932;-1.1868;
1157.7000;0.4021;-1.1694;
1158.0000;0.4013;-1.1594;
1158.3000;0.3989;-1.1669;
1158.6000;0.3989;-1.1619;
1158.9000;0.3923;-1.1818;
1159.2000;0.3989;-1.1694;
1159.5000;0.3989;-1.1719;
1159.8000;0.3997;-1.1694;
1160.1000;0.4005;-1.1669;
1160.4000;0.4103;-1.1469;
1160.7000;0.3915;-1.1943;
1161.0000;0.3989;-1.1868;
1161.3000;0.3997;-1.1818;
1161.6000;0.4013;-1.1744;
1161.9000;0.4005;-1.1744;
1162.2000;0.4005;-1.1843;
1162.5000;0.3980;-1.1893;
1162.8000;0.3997;-1.1818;
1163.1000;0.3989;-1.1793;
1163.4000;0.3989;-1.1719;
1163.7000;0.4094;-1.1444;
1164.0000;0.4054;-1.1544;
1164.3000;0.4029;-1.1594;
1164.6000;0.3997;-1.1719;
1164.9000;0.3989;-1.1744;
1165.2000;0.3980;-1.1719;
1165.5000;0.3972;-1.1918;
1165.8000;0.3972;-1.1918;
1166.1000;0.3980;-1.1918;
1166.4000;0.4021;-1.1818;
1166.7000;0.3980;-1.1893;
1167.0000;0.3989;-1.1918;
1167.3000;0.3956;-1.1943;
1167.6000;0.3997;-1.1843;
1167.9000;0.3997;-1.1843;
1168.2000;0.3980;-1.1868;
1168.5000;0.3989;-1.1893;
1168.8000;0.3989;-1.1868;
1169.1000;0.4013;-1.1868;
1169.4000;0.3997;-1.1843;
1169.7000;0.4005;-1.1943;
1170.0000;0.3989;-1.1993;
1170.3000;0.3989;-1.2018;
1170.6000;0.4070;-1.1793;
1170.9000;0.3989;-1.1868;
1171.2000;0.3980;-1.1868;
1171.5000;0.4054;-1.1694;
1171.8000;0.3997;-1.1744;
1172.1000;0.3989;-1.1719;
1172.4000;0.3980;-1.1818;
1172.7000;0.3964;-1.1744;
1173.0000;0.3997;-1.1619;
1173.3000;0.3980;-1.1669;
1173.6000;0.3997;-1.1519;
1173.9000;0.4005;-1.1544;
1174.2000;0.3997;-1.1569;
1174.5000;0.3989;-1.1669;
1174.8000;0.3972;-1.1669;
1175.1000;0.3972;-1.1694;
1175.4000;0.3980;-1.1619;
1175.7000;0.3972;-1.1544;
1176.0000;0.3997;-1.1594;
1176.3000;0.3997;-1.1669;
1176.6000;0.3989;-1.1744;
1176.9000;0.4013;-1.1669;
1177.2000;0.3997;-1.1793;
1177.5000;0.3980;-1.1893;
1177.8000;0.4005;-1.1868;
1178.1000;0.3989;-1.1918;
1178.4000;0.3989;-1.1893;
1178.7000;0.3997;-1.1893;
1179.0000;0.3980;-1.1893;
1179.3000;0.4005;-1.1793;
1179.6000;0.4013;-1.1769;
1179.9000;0.3899;-1.2043;
1180.2000;0.4005;-1.1818;
1180.5000;0.4037;-1.1694;
1180.8000;0.4005;-1.1818;
1181.1000;0.4013;-1.1793;
1181.4000;0.3972;-1.1843;
1181.7000;0.3989;-1.1868;
1182.0000;0.3923;-1.1968;
1182.3000;0.3989;-1.1818;
1182.6000;0.3980;-1.1868;
1182.9000;0.4111;-1.1594;
1183.2000;0.3997;-1.2018;
1183.5000;0.4013;-1.1993;
1183.8000;0.3980;-1.2043;
1184.1000;0.3972;-1.2068;
1184.4000;0.3980;-1.1993;
1184.7000;0.3980;-1.1968;
1185.0000;0.3989;-1.1893;
1185.3000;0.3989;-1.1744;
1185.6000;0.3989;-1.1669;
1185.9000;0.4005;-1.1669;
1186.2000;0.4005;-1.1719;
1186.5000;0.3997;-1.1744;
1186.8000;0.3980;-1.1769;
1187.1000;0.3948;-1.1868;
1187.4000;0.3980;-1.1744;
1187.7000;0.4037;-1.1669;
1188.0000;0.3980;-1.1744;
1188.3000;0.3989;-1.1719;
1188.6000;0.3980;-1.1769;
1188.9000;0.3980;-1.1818;
1189.2000;0.3980;-1.1918;
1189.5000;0.4005;-1.1868;
1189.8000;0.3964;-1.1993;
1190.1000;0.3956;-1.2118;
1190.4000;0.3956;-1.2167;
1190.7000;0.3997;-1.2043;
1191.0000;0.3989;-1.1993;
1191.3000;0.3923;-1.2093;
1191.6000;0.3972;-1.1993;
1191.9000;0.3972;-1.2118;
1192.2000;0.3989;-1.2043;
1192.5000;0.3972;-1.2068;
1192.8000;0.3972;-1.2018;
1193.1000;0.3989;-1.1868;
1193.4000;0.3989;-1.1868;
1193.7000;0.3989;-1.1793;
1194.0000;0.3989;-1.1818;
1194.3000;0.3980;-1.1843;
1194.6000;0.3989;-1.1843;
1194.9000;0.3997;-1.1744;
1195.2000;0.3989;-1.1644;
1195.5000;0.3997;-1.1669;
1195.8000;0.3997;-1.1744;
1196.1000;0.4078;-1.1519;
1196.4000;0.3989;-1.1843;
1196.7000;0.3989;-1.1868;
1197.0000;0.4021;-1.1868;
1197.3000;0.3997;-1.1893;
1197.6000;0.3964;-1.1918;
1197.9000;0.3989;-1.1818;
1198.2000;0.3989;-1.1868;
1198.5000;0.3989;-1.1893;
1198.8000;0.3997;-1.1943;
1199.1000;0.3980;-1.1968;
1199.4000;0.3964;-1.1968;
1199.7000;0.4005;-1.1769;
1200.0000;0.3956;-1.1868;
1200.3000;0.4005;-1.1744;
1200.6000;0.3997;-1.1744;
1200.9000;0.4021;-1.1769;
1201.2000;0.3997;-1.1843;
1201.5000;0.3997;-1.1893;
1201.8000;0.4029;-1.1793;
1202.1000;0.3997;-1.1818;
1202.4000;0.3980;-1.1818;
1202.7000;0.3980;-1.1793;
1203.0000;0.3989;-1.1818;
1203.3000;0.3948;-1.1793;
1203.6000;0.3989;-1.1744;
1203.9000;0.3923;-1.2018;
1204.2000;0.3989;-1.1943;
1204.5000;0.4005;-1.1918;
1204.8000;0.3899;-1.2118;
1205.1000;0.3989;-1.1968;
1205.4000;0.3980;-1.1943;
1205.7000;0.3989;-1.1993;
1206.0000;0.3989;-1.1993;
1206.3000;0.4062;-1.1918;
1206.6000;0.3997;-1.2093;
1206.9000;0.3997;-1.2043;
1207.2000;0.3989;-1.2043;
1207.5000;0.3972;-1.2093;
1207.8000;0.3980;-1.2118;
1208.1000;0.3980;-1.2118;
1208.4000;0.4005;-1.2018;
1208.7000;0.4021;-1.1868;
1209.0000;0.4005;-1.1893;
1209.3000;0.3989;-1.1943;
1209.6000;0.3989;-1.1868;
1209.9000;0.3989;-1.1818;
1210.2000;0.3989;-1.1744;
1210.5000;0.3997;-1.1793;
1210.8000;0.3997;-1.1744;
1211.1000;0.3989;-1.1769;
1211.4000;0.4013;-1.1769;
1211.7000;0.4013;-1.1644;
1212.0000;0.3997;-1.1644;
1212.3000;0.3980;-1.1719;
1212.6000;0.3989;-1.1769;
1212.9000;0.3980;-1.1769;
1213.2000;0.3964;-1.1769;
1213.5000;0.3997;-1.1719;
1213.8000;0.4005;-1.1694;
1214.1000;0.4013;-1.1619;
1214.4000;0.3980;-1.1694;
1214.7000;0.3972;-1.1744;
1215.0000;0.3997;-1.1769;
1215.3000;0.4013;-1.1744;
1215.6000;0.3989;-1.1719;
1215.9000;0.3964;-1.1793;
1216.2000;0.4005;-1.1719;
1216.5000;0.3997;-1.1769;
1216.8000;0.3989;-1.1893;
1217.1000;0.3980;-1.1943;
1217.4000;0.3972;-1.1893;
1217.7000;0.3980;-1.1868;
1218.0000;0.3964;-1.1868;
1218.3000;0.3980;-1.1744;
1218.6000;0.3972;-1.1744;
1218.9000;0.3997;-1.1619;
1219.2000;0.3972;-1.1644;
1219.5000;0.4029;-1.1519;
1219.8000;0.3956;-1.1669;
1220.1000;0.4005;-1.1594;
1220.4000;0.3997;-1.1594;
1220.7000;0.3989;-1.1619;
1221.0000;0.4021;-1.1519;
1221.3000;0.3980;-1.1594;
1221.6000;0.3997;-1.1569;
1221.9000;0.4013;-1.1569;
1222.2000;0.3997;-1.1569;
1222.5000;0.3989;-1.1544;
1222.8000;0.3997;-1.1594;
1223.1000;0.4013;-1.1669;
1223.4000;0.3989;-1.1744;
1223.7000;0.3989;-1.1744;
1224.0000;0.3980;-1.1719;
1224.3000;0.4013;-1.1669;
1224.6000;0.3980;-1.1744;
1224.9000;0.4013;-1.1694;
1225.2000;0.3997;-1.1719;
1225.5000;0.3980;-1.1793;
1225.8000;0.3997;-1.1719;
1226.1000;0.3989;-1.1744;
1226.4000;0.4005;-1.1744;
1226.7000;0.4013;-1.1818;
1227.0000;0.3972;-1.1893;
1227.3000;0.4021;-1.1843;
1227.6000;0.3972;-1.1868;
1227.9000;0.3980;-1.1719;
1228.2000;0.4013;-1.1669;
1228.5000;0.3989;-1.1744;
1228.8000;0.3980;-1.1818;
1229.1000;0.3989;-1.1918;
1229.4000;0.4005;-1.1893;
1229.7000;0.3989;-1.1918;
1230.0000;0.3997;-1.1818;
1230.3000;0.3989;-1.1793;
1230.6000;0.4005;-1.1719;
1230.9000;0.3980;-1.1818;
1231.2000;0.3989;-1.1744;
1231.5000;0.3989;-1.1719;
1231.8000;0.3997;-1.1793;
1232.1000;0.3989;-1.1744;
1232.4000;0.3980;-1.1818;
1232.7000;0.3989;-1.1818;
1233.0000;0.3989;-1.1744;
1233.3000;0.3980;-1.1818;
1233.6000;0.3940;-1.2043;
1233.9000;0.4013;-1.1868;
1234.2000;0.3980;-1.1893;
1234.5000;0.3972;-1.1943;
1234.8000;0.3980;-1.1943;
1235.1000;0.3997;-1.1893;
1235.4000;0.3980;-1.1893;
1235.7000;0.3980;-1.1868;
1236.0000;0.3980;-1.1744;
1236.3000;0.4037;-1.1619;
1236.6000;0.4013;-1.1594;
1236.9000;0.3956;-1.1793;
1237.2000;0.3980;-1.1644;
1237.5000;0.3989;-1.1644;
1237.8000;0.3997;-1.1644;
1238.1000;0.3948;-1.1843;
1238.4000;0.3980;-1.1769;
1238.7000;0.3964;-1.1843;
1239.0000;0.4037;-1.1793;
1239.3000;0.3997;-1.1818;
1239.6000;0.3989;-1.1719;
1239.9000;0.3989;-1.1719;
1240.2000;0.3997;-1.1594;
1240.5000;0.3948;-1.1769;
1240.8000;0.3964;-1.1669;
1241.1000;0.3956;-1.1569;
1241.4000;0.3964;-1.1569;
1241.7000;0.3964;-1.1619;
1242.0000;0.3980;-1.1594;
1242.3000;0.3964;-1.1644;
1242.6000;0.3989;-1.1619;
1242.9000;0.3989;-1.1569;
1243.2000;0.3980;-1.1569;
1243.5000;0.3964;-1.1594;
1243.8000;0.3989;-1.1594;
1244.1000;0.3980;-1.1594;
1244.4000;0.3964;-1.1644;
1244.7000;0.3989;-1.1544;
1245.0000;0.3980;-1.1594;
1245.3000;0.3980;-1.1669;
1245.6000;0.3997;-1.1644;
1245.9000;0.3989;-1.1519;
1246.2000;0.3997;-1.1569;
1246.5000;0.3948;-1.1719;
1246.8000;0.3964;-1.1694;
1247.1000;0.3980;-1.1769;
1247.4000;0.3980;-1.1694;
1247.7000;0.3980;-1.1669;
1248.0000;0.3997;-1.1669;
1248.3000;0.3989;-1.1669;
1248.6000;0.4070;-1.1519;
1248.9000;0.3980;-1.1719;
1249.2000;0.3989;-1.1594;
1249.5000;0.3956;-1.1569;
1249.8000;0.3972;-1.1519;
1250.1000;0.3989;-1.1519;
1250.4000;0.3997;-1.1594;
1250.7000;0.4005;-1.1644;
1251.0000;0.4013;-1.1694;
1251.3000;0.3980;-1.1793;
1251.6000;0.3997;-1.1793;
1251.9000;0.3997;-1.1793;
1252.2000;0.4021;-1.1793;
1252.5000;0.3980;-1.1893;
1252.8000;0.4013;-1.1793;
1253.1000;0.3989;-1.1918;
1253.4000;0.4094;-1.1644;
1253.7000;0.3997;-1.1993;
1254.0000;0.3989;-1.1868;
1254.3000;0.3997;-1.1818;
1254.6000;0.4013;-1.1719;
1254.9000;0.3972;-1.1793;
1255.2000;0.3972;-1.1818;
1255.5000;0.3964;-1.1868;
1255.8000;0.3980;-1.1843;
1256.1000;0.3964;-1.1793;
1256.4000;0.3989;-1.1719;
1256.7000;0.4005;-1.1644;
1257.0000;0.3980;-1.1793;
1257.3000;0.3980;-1.1744;
1257.6000;0.3989;-1.1694;
1257.9000;0.3964;-1.1793;
1258.2000;0.3972;-1.1769;
1258.5000;0.3972;-1.1719;
1258.8000;0.3956;-1.1644;
1259.1000;0.4037;-1.1569;
1259.4000;0.3980;-1.1793;
1259.7000;0.4029;-1.1669;
1260.0000;0.3989;-1.1769;
1260.3000;0.3989;-1.1818;
1260.6000;0.3964;-1.1843;
1260.9000;0.4029;-1.1719;
1261.2000;0.3989;-1.1744;
1261.5000;0.3989;-1.1769;
1261.8000;0.3989;-1.1793;
1262.1000;0.3997;-1.1843;
1262.4000;0.3997;-1.1793;
1262.7000;0.3972;-1.1918;
1263.0000;0.4005;-1.1793;
1263.3000;0.3980;-1.1769;
1263.6000;0.3997;-1.1744;
1263.9000;0.3997;-1.1769;
1264.2000;0.3980;-1.1769;
1264.5000;0.3956;-1.1843;
1264.8000;0.3989;-1.1769;
1265.1000;0.3972;-1.1818;
1265.4000;0.3964;-1.1793;
1265.7000;0.3964;-1.1818;
1266.0000;0.3980;-1.1843;
1266.3000;0.3980;-1.1818;
1266.6000;0.3980;-1.1818;
1266.9000;0.3997;-1.1769;
1267.2000;0.3980;-1.1893;
1267.5000;0.4005;-1.1843;
1267.8000;0.3989;-1.1843;
1268.1000;0.3989;-1.1818;
1268.4000;0.3972;-1.1793;
1268.7000;0.3980;-1.1744;
1269.0000;0.3956;-1.1719;
1269.3000;0.3964;-1.1719;
1269.6000;0.4005;-1.1644;
1269.9000;0.3997;-1.1669;
1270.2000;0.3972;-1.1769;
1270.5000;0.4046;-1.1594;
1270.8000;0.3964;-1.1793;
1271.1000;0.3989;-1.1769;
1271.4000;0.3972;-1.1793;
1271.7000;0.3989;-1.1769;
1272.0000;0.4005;-1.1669;
1272.3000;0.3989;-1.1769;
1272.6000;0.3948;-1.1868;
1272.9000;0.4005;-1.1719;
1273.2000;0.3989;-1.1694;
1273.5000;0.4029;-1.1644;
1273.8000;0.4013;-1.1818;
1274.1000;0.4013;-1.1893;
1274.4000;0.3980;-1.2018;
1274.7000;0.3989;-1.2018;
1275.0000;0.3997;-1.2068;
1275.3000;0.4037;-1.1893;
1275.6000;0.3989;-1.2018;
1275.9000;0.3997;-1.2043;
1276.2000;0.3989;-1.2068;
1276.5000;0.4005;-1.2043;
1276.8000;0.3997;-1.1943;
1277.1000;0.3972;-1.2018;
1277.4000;0.3989;-1.1968;
1277.7000;0.3997;-1.1868;
1278.0000;0.4005;-1.1769;
1278.3000;0.3997;-1.1744;
1278.6000;0.3980;-1.1818;
1278.9000;0.4094;-1.1469;
1279.2000;0.3972;-1.1744;
1279.5000;0.3972;-1.1793;
1279.8000;0.3980;-1.1793;
1280.1000;0.4021;-1.1719;
1280.4000;0.4005;-1.1793;
1280.7000;0.3997;-1.1893;
1281.0000;0.4029;-1.1843;
1281.3000;0.4021;-1.1868;
1281.6000;0.3997;-1.1943;
1281.9000;0.4046;-1.1843;
1282.2000;0.3972;-1.2068;
1282.5000;0.3989;-1.2093;
1282.8000;0.4005;-1.2068;
1283.1000;0.4037;-1.1943;
1283.4000;0.3997;-1.2068;
1283.7000;0.3989;-1.1993;
1284.0000;0.3997;-1.1993;
1284.3000;0.3980;-1.1968;
1284.6000;0.3997;-1.1968;
1284.9000;0.3989;-1.1943;
1285.2000;0.3997;-1.1893;
1285.5000;0.3989;-1.1918;
1285.8000;0.3997;-1.1943;
1286.1000;0.3997;-1.1918;
1286.4000;0.3997;-1.1918;
1286.7000;0.3980;-1.2018;
1287.0000;0.4013;-1.1993;
1287.3000;0.3997;-1.2018;
1287.6000;0.3989;-1.2093;
1287.9000;0.3989;-1.1993;
1288.2000;0.3989;-1.1943;
1288.5000;0.3980;-1.1893;
1288.8000;0.3997;-1.1769;
1289.1000;0.3997;-1.1893;
1289.4000;0.3989;-1.1843;
1289.7000;0.3980;-1.1893;
1290.0000;0.3989;-1.1818;
1290.3000;0.3980;-1.1719;
1290.6000;0.3980;-1.1694;
1290.9000;0.3972;-1.1669;
1291.2000;0.3997;-1.1619;
1291.5000;0.3972;-1.1669;
1291.8000;0.3997;-1.1669;
1292.1000;0.3989;-1.1793;
1292.4000;0.3980;-1.1893;
1292.7000;0.3883;-1.2167;
1293.0000;0.3989;-1.1918;
1293.3000;0.3972;-1.1918;
1293.6000;0.3972;-1.1993;
1293.9000;0.3972;-1.2093;
1294.2000;0.3980;-1.1993;
1294.5000;0.3972;-1.1918;
1294.8000;0.3972;-1.1918;
1295.1000;0.3972;-1.1893;
1295.4000;0.3964;-1.1868;
1295.7000;0.3972;-1.1868;
1296.0000;0.3972;-1.1744;
1296.3000;0.3932;-1.1918;
1296.6000;0.3989;-1.1818;
1296.9000;0.3989;-1.1793;
1297.2000;0.3989;-1.1868;
1297.5000;0.3997;-1.1918;
1297.8000;0.4013;-1.1918;
1298.1000;0.3980;-1.2018;
1298.4000;0.3997;-1.1993;
1298.7000;0.3989;-1.2068;
1299.0000;0.4021;-1.1943;
1299.3000;0.3980;-1.1868;
1299.6000;0.3997;-1.1843;
1299.9000;0.3972;-1.1943;
1300.2000;0.3964;-1.1993;
1300.5000;0.3989;-1.2043;
1300.8000;0.4013;-1.2018;
1301.1000;0.3997;-1.2118;
1301.4000;0.3980;-1.2068;
1301.7000;0.3980;-1.2118;
1302.0000;0.3972;-1.2043;
1302.3000;0.4013;-1.1918;
1302.6000;0.4021;-1.1843;
1302.9000;0.3948;-1.2043;
1303.2000;0.3997;-1.1893;
1303.5000;0.3997;-1.1868;
1303.8000;0.4005;-1.1968;
1304.1000;0.4021;-1.1943;
1304.4000;0.3980;-1.2043;
1304.7000;0.3989;-1.2018;
1305.0000;0.3964;-1.2118;
1305.3000;0.3972;-1.2068;
1305.6000;0.4005;-1.1968;
1305.9000;0.3972;-1.2043;
1306.2000;0.3989;-1.2043;
1306.5000;0.3980;-1.2043;
1306.8000;0.3980;-1.1918;
1307.1000;0.3997;-1.1818;
1307.4000;0.4005;-1.1868;
1307.7000;0.4005;-1.1893;
1308.0000;0.3989;-1.1918;
1308.3000;0.3980;-1.1918;
1308.6000;0.3997;-1.1868;
1308.9000;0.3980;-1.1943;
1309.2000;0.3964;-1.2018;
1309.5000;0.3972;-1.1968;
1309.8000;0.3989;-1.1968;
1310.1000;0.3972;-1.2018;
1310.4000;0.3980;-1.1893;
1310.7000;0.3989;-1.1843;
1311.0000;0.3964;-1.1818;
1311.3000;0.3980;-1.1793;
1311.6000;0.3980;-1.1893;
1311.9000;0.3980;-1.1843;
1312.2000;0.4037;-1.1669;
1312.5000;0.3997;-1.1744;
1312.8000;0.3980;-1.1719;
1313.1000;0.3980;-1.1793;
1313.4000;0.3989;-1.1918;
1313.7000;0.4013;-1.1918;
1314.0000;0.4005;-1.1818;
1314.3000;0.3997;-1.1793;
1314.6000;0.3989;-1.1769;
1314.9000;0.3972;-1.1868;
1315.2000;0.3948;-1.1843;
1315.5000;0.3997;-1.1744;
1315.8000;0.3948;-1.1769;
1316.1000;0.3964;-1.1818;
1316.4000;0.3989;-1.1744;
1316.7000;0.3923;-1.1968;
1317.0000;0.3989;-1.1843;
1317.3000;0.3989;-1.1893;
1317.6000;0.4021;-1.1918;
1317.9000;0.3972;-1.2118;
1318.2000;0.3997;-1.2118;
1318.5000;0.3948;-1.2143;
1318.8000;0.3989;-1.1993;
1319.1000;0.3989;-1.1968;
1319.4000;0.3989;-1.1918;
1319.7000;0.3980;-1.1968;
1320.0000;0.4005;-1.1893;
1320.3000;0.3997;-1.1868;
1320.6000;0.3989;-1.1918;
1320.9000;0.3989;-1.1843;
1321.2000;0.3964;-1.1943;
1321.5000;0.3997;-1.1744;
1321.8000;0.3964;-1.1818;
1322.1000;0.3964;-1.1818;
1322.4000;0.4029;-1.1719;
1322.7000;0.3956;-1.1968;
1323.0000;0.3948;-1.1993;
1323.3000;0.3972;-1.1968;
1323.6000;0.3956;-1.2118;
1323.9000;0.3989;-1.2093;
1324.2000;0.3997;-1.1993;
1324.5000;0.4005;-1.2018;
1324.8000;0.3989;-1.2043;
1325.1000;0.3964;-1.2018;
1325.4000;0.3989;-1.1893;
1325.7000;0.3980;-1.1993;
1326.0000;0.3989;-1.1868;
1326.3000;0.3997;-1.1793;
1326.6000;0.3997;-1.1719;
1326.9000;0.3980;-1.1669;
1327.2000;0.4005;-1.1719;
1327.5000;0.3989;-1.1868;
1327.8000;0.4021;-1.1793;
1328.1000;0.3956;-1.1943;
1328.4000;0.3980;-1.1918;
1328.7000;0.3997;-1.1818;
1329.0000;0.3972;-1.1843;
1329.3000;0.3980;-1.1769;
1329.6000;0.3997;-1.1669;
1329.9000;0.3923;-1.1943;
1330.2000;0.3997;-1.1818;
1330.5000;0.3972;-1.1868;
1330.8000;0.3972;-1.1893;
1331.1000;0.3980;-1.1943;
1331.4000;0.3980;-1.1918;
1331.7000;0.3989;-1.1943;
1332.0000;0.3997;-1.2018;
1332.3000;0.3997;-1.2043;
1332.6000;0.3989;-1.2043;
1332.9000;0.3989;-1.2018;
1333.2000;0.4021;-1.1918;
1333.5000;0.3997;-1.1968;
1333.8000;0.3989;-1.1918;
1334.1000;0.3997;-1.1843;
1334.4000;0.3997;-1.1818;
1334.7000;0.3980;-1.1843;
1335.0000;0.3989;-1.1818;
1335.3000;0.4005;-1.1868;
1335.6000;0.3989;-1.1893;
1335.9000;0.4005;-1.1868;
1336.2000;0.4005;-1.1843;
1336.5000;0.4005;-1.1793;
1336.8000;0.3972;-1.1918;
1337.1000;0.3948;-1.1968;
1337.4000;0.3989;-1.1943;
1337.7000;0.3989;-1.1943;
1338.0000;0.4013;-1.1793;
1338.3000;0.3972;-1.1843;
1338.6000;0.3972;-1.1893;
1338.9000;0.4005;-1.1868;
1339.2000;0.3980;-1.1943;
1339.5000;0.3980;-1.1943;
1339.8000;0.3980;-1.1968;
1340.1000;0.3989;-1.1993;
1340.4000;0.3997;-1.1918;
1340.7000;0.4021;-1.1893;
1341.0000;0.3980;-1.1893;
1341.3000;0.3972;-1.1893;
1341.6000;0.3997;-1.1793;
1341.9000;0.3980;-1.1769;
1342.2000;0.4005;-1.1818;
1342.5000;0.3980;-1.1918;
1342.8000;0.3997;-1.2018;
1343.1000;0.3989;-1.2043;
1343.4000;0.3989;-1.1943;
1343.7000;0.3980;-1.1943;
1344.0000;0.4005;-1.1843;
1344.3000;0.3997;-1.1793;
1344.6000;0.3989;-1.1793;
1344.9000;0.4013;-1.1843;
1345.2000;0.3997;-1.1918;
1345.5000;0.3899;-1.2167;
1345.8000;0.3980;-1.1968;
1346.1000;0.3989;-1.1968;
1346.4000;0.3980;-1.1993;
1346.7000;0.3964;-1.1943;
1347.0000;0.3923;-1.1993;
1347.3000;0.3980;-1.1868;
1347.6000;0.3980;-1.2018;
1347.9000;0.3972;-1.2018;
1348.2000;0.3989;-1.1843;
1348.5000;0.3997;-1.1843;
1348.8000;0.3980;-1.1843;
1349.1000;0.4013;-1.1744;
1349.4000;0.3972;-1.1793;
1349.7000;0.3964;-1.1769;
1350.0000;0.3997;-1.1744;
1350.3000;0.3989;-1.1793;
1350.6000;0.3989;-1.1818;
1350.9000;0.3972;-1.1918;
1351.2000;0.3972;-1.2068;
1351.5000;0.3964;-1.2118;
1351.8000;0.3940;-1.2242;
1352.1000;0.3997;-1.2018;
1352.4000;0.3980;-1.2068;
1352.7000;0.3980;-1.2143;
1353.0000;0.3956;-1.2217;
1353.3000;0.3997;-1.2192;
1353.6000;0.4005;-1.2118;
1353.9000;0.3989;-1.2068;
1354.2000;0.3989;-1.1968;
1354.5000;0.4005;-1.1868;
1354.8000;0.3980;-1.1918;
1355.1000;0.3997;-1.1868;
1355.4000;0.3997;-1.1843;
1355.7000;0.4005;-1.1793;
1356.0000;0.3989;-1.1893;
1356.3000;0.3980;-1.1968;
1356.6000;0.3997;-1.1943;
1356.9000;0.3997;-1.1993;
1357.2000;0.3989;-1.2068;
1357.5000;0.4005;-1.2068;
1357.8000;0.4005;-1.2068;
1358.1000;0.3997;-1.2068;
1358.4000;0.4021;-1.1993;
1358.7000;0.4005;-1.1968;
1359.0000;0.3980;-1.2068;
1359.3000;0.3997;-1.1868;
1359.6000;0.4029;-1.1719;
1359.9000;0.3989;-1.1694;
1360.2000;0.3989;-1.1719;
1360.5000;0.4005;-1.1719;
1360.8000;0.4005;-1.1868;
1361.1000;0.3980;-1.1943;
1361.4000;0.3980;-1.1968;
1361.7000;0.4013;-1.1868;
1362.0000;0.3997;-1.1943;
1362.3000;0.3989;-1.1993;
1362.6000;0.3980;-1.2043;
1362.9000;0.3964;-1.2118;
1363.2000;0.3989;-1.1993;
1363.5000;0.3989;-1.1943;
1363.8000;0.3964;-1.2068;
1364.1000;0.3997;-1.2043;
1364.4000;0.3997;-1.1943;
1364.7000;0.4005;-1.1943;
1365.0000;0.3997;-1.1918;
1365.3000;0.3980;-1.2018;
1365.6000;0.3989;-1.2018;
1365.9000;0.4005;-1.1918;
1366.2000;0.3989;-1.2043;
1366.5000;0.3989;-1.2043;
1366.8000;0.3980;-1.2068;
1367.1000;0.3997;-1.2068;
1367.4000;0.4054;-1.1918;
1367.7000;0.3980;-1.2143;
1368.0000;0.3972;-1.2143;
1368.3000;0.3972;-1.1968;
1368.6000;0.3997;-1.1769;
1368.9000;0.4005;-1.1719;
1369.2000;0.3997;-1.1744;
1369.5000;0.4021;-1.1719;
1369.8000;0.4005;-1.1744;
1370.1000;0.3989;-1.1769;
1370.4000;0.3980;-1.1893;
1370.7000;0.3980;-1.1918;
1371.0000;0.3956;-1.1943;
1371.3000;0.3980;-1.1843;
1371.6000;0.3989;-1.1818;
1371.9000;0.3989;-1.1769;
1372.2000;0.3964;-1.1818;
1372.5000;0.3964;-1.1843;
1372.8000;0.3972;-1.1868;
1373.1000;0.3915;-1.1993;
1373.4000;0.4005;-1.1793;
1373.7000;0.3923;-1.2068;
1374.0000;0.4005;-1.1769;
1374.3000;0.3980;-1.1868;
1374.6000;0.3964;-1.1918;
1374.9000;0.3989;-1.1918;
1375.2000;0.3948;-1.2043;
1375.5000;0.3972;-1.2018;
1375.8000;0.3956;-1.2043;
1376.1000;0.3858;-1.2342;
1376.4000;0.3997;-1.2043;
1376.7000;0.3956;-1.2118;
1377.0000;0.3989;-1.2068;
1377.3000;0.3964;-1.2118;
1377.6000;0.3980;-1.2068;
1377.9000;0.3964;-1.2143;
1378.2000;0.3972;-1.2093;
1378.5000;0.3980;-1.1943;
1378.8000;0.3989;-1.1968;
1379.1000;0.3989;-1.1943;
1379.4000;0.3980;-1.1968;
1379.7000;0.3972;-1.2018;
1380.0000;0.3989;-1.2043;
1380.3000;0.4005;-1.2018;
1380.6000;0.4005;-1.2018;
1380.9000;0.3980;-1.2093;
1381.2000;0.3972;-1.2093;
1381.5000;0.3989;-1.2043;
1381.8000;0.3915;-1.2192;
1382.1000;0.3964;-1.1943;
1382.4000;0.3989;-1.1993;
1382.7000;0.3980;-1.2018;
1383.0000;0.3980;-1.2093;
1383.3000;0.3989;-1.2093;
1383.6000;0.3980;-1.2068;
1383.9000;0.3980;-1.2143;
1384.2000;0.3997;-1.2018;
1384.5000;0.3980;-1.1993;
1384.8000;0.4005;-1.1893;
1385.1000;0.4013;-1.1843;
1385.4000;0.4005;-1.1868;
1385.7000;0.3997;-1.1943;
1386.0000;0.3972;-1.2043;
1386.3000;0.3997;-1.1943;
1386.6000;0.4005;-1.1943;
1386.9000;0.3964;-1.2068;
1387.2000;0.3980;-1.1918;
1387.5000;0.3989;-1.1943;
1387.8000;0.3964;-1.1993;
1388.1000;0.3972;-1.2043;
1388.4000;0.3972;-1.2068;
1388.7000;0.3972;-1.2068;
1389.0000;0.3972;-1.2093;
1389.3000;0.4005;-1.2118;
1389.6000;0.3997;-1.2217;
1389.9000;0.4005;-1.2093;
1390.2000;0.4013;-1.1968;
1390.5000;0.3997;-1.1943;
1390.8000;0.3932;-1.2043;
1391.1000;0.4013;-1.1843;
1391.4000;0.3980;-1.1868;
1391.7000;0.4013;-1.1793;
1392.0000;0.3915;-1.2043;
1392.3000;0.3972;-1.1893;
1392.6000;0.3972;-1.1918;
1392.9000;0.3964;-1.1943;
1393.2000;0.3980;-1.1943;
1393.5000;0.3980;-1.1918;
1393.8000;0.3964;-1.1868;
1394.1000;0.3997;-1.1744;
1394.4000;0.3980;-1.1669;
1394.7000;0.3989;-1.1744;
1395.0000;0.3980;-1.1793;
1395.3000;0.3989;-1.1744;
1395.6000;0.3989;-1.1669;
1395.9000;0.3989;-1.1569;
1396.2000;0.4005;-1.1519;
1396.5000;0.3989;-1.1694;
1396.8000;0.4021;-1.1544;
1397.1000;0.4005;-1.1544;
1397.4000;0.3997;-1.1569;
1397.7000;0.4005;-1.1594;
1398.0000;0.4005;-1.1694;
1398.3000;0.3972;-1.1719;
1398.6000;0.4046;-1.1519;
1398.9000;0.4005;-1.1694;
1399.2000;0.3948;-1.1769;
1399.5000;0.3989;-1.1719;
1399.8000;0.4013;-1.1769;
