time/ms;Fluo/V;P700 deltaI/I x10³;
-199.8000;0.4697;-1.2791;
-199.5000;0.4648;-1.3040;
-199.2000;0.4681;-1.2990;
-198.9000;0.4664;-1.3090;
-198.6000;0.4729;-1.2841;
-198.3000;0.4681;-1.2915;
-198.0000;0.4689;-1.2766;
-197.7000;0.4656;-1.2766;
-197.4000;0.4640;-1.2816;
-197.1000;0.4632;-1.2816;
-196.8000;0.4689;-1.2691;
-196.5000;0.4656;-1.2791;
-196.2000;0.4754;-1.2566;
-195.9000;0.4770;-1.2566;
-195.6000;0.4762;-1.2492;
-195.3000;0.4672;-1.2741;
-195.0000;0.4681;-1.2816;
-194.7000;0.4689;-1.2741;
-194.4000;0.4681;-1.2766;
-194.1000;0.4705;-1.2716;
-193.8000;0.4632;-1.2940;
-193.5000;0.4705;-1.2766;
-193.2000;0.4664;-1.2965;
-192.9000;0.4664;-1.2965;
-192.6000;0.4664;-1.2965;
-192.3000;0.4656;-1.2915;
-192.0000;0.4664;-1.2891;
-191.7000;0.4640;-1.2915;
-191.4000;0.4672;-1.2841;
-191.1000;0.4681;-1.2791;
-190.8000;0.4689;-1.2791;
-190.5000;0.4672;-1.2741;
-190.2000;0.4664;-1.2841;
-189.9000;0.4664;-1.2766;
-189.6000;0.4648;-1.2741;
-189.3000;0.4664;-1.2791;
-189.0000;0.4681;-1.2641;
-188.7000;0.4656;-1.2741;
-188.4000;0.4664;-1.2691;
-188.1000;0.4640;-1.2741;
-187.8000;0.4656;-1.2566;
-187.5000;0.4672;-1.2517;
-187.2000;0.4672;-1.2591;
-186.9000;0.4656;-1.2691;
-186.6000;0.4672;-1.2716;
-186.3000;0.4672;-1.2716;
-186.0000;0.4762;-1.2492;
-185.7000;0.4689;-1.2666;
-185.4000;0.4664;-1.2716;
-185.1000;0.4672;-1.2666;
-184.8000;0.4689;-1.2591;
-184.5000;0.4689;-1.2616;
-184.2000;0.4681;-1.2641;
-183.9000;0.4681;-1.2691;
-183.6000;0.4697;-1.2741;
-183.3000;0.4656;-1.2791;
-183.0000;0.4591;-1.2866;
-182.7000;0.4746;-1.2417;
-182.4000;0.4664;-1.2566;
-182.1000;0.4681;-1.2492;
-181.8000;0.4681;-1.2492;
-181.5000;0.4672;-1.2492;
-181.2000;0.4681;-1.2492;
-180.9000;0.4672;-1.2467;
-180.6000;0.4672;-1.2566;
-180.3000;0.4672;-1.2591;
-180.0000;0.4648;-1.2591;
-179.7000;0.4681;-1.2616;
-179.4000;0.4672;-1.2566;
-179.1000;0.4697;-1.2517;
-178.8000;0.4729;-1.2392;
-178.5000;0.4648;-1.2641;
-178.2000;0.4672;-1.2591;
-177.9000;0.4672;-1.2641;
-177.6000;0.4697;-1.2566;
-177.3000;0.4681;-1.2616;
-177.0000;0.4664;-1.2591;
-176.7000;0.4681;-1.2591;
-176.4000;0.4664;-1.2616;
-176.1000;0.4689;-1.2566;
-175.8000;0.4681;-1.2591;
-175.5000;0.4648;-1.2616;
-175.2000;0.4648;-1.2666;
-174.9000;0.4672;-1.2666;
-174.6000;0.4681;-1.2666;
-174.3000;0.4689;-1.2591;
-174.0000;0.4664;-1.2691;
-173.7000;0.4664;-1.2666;
-173.4000;0.4689;-1.2517;
-173.1000;0.4681;-1.2566;
-172.8000;0.4664;-1.2666;
-172.5000;0.4656;-1.2766;
-172.2000;0.4656;-1.2866;
-171.9000;0.4664;-1.2841;
-171.6000;0.4705;-1.2666;
-171.3000;0.4672;-1.2641;
-171.0000;0.4713;-1.2541;
-170.7000;0.4681;-1.2616;
-170.4000;0.4689;-1.2566;
-170.1000;0.4664;-1.2691;
-169.8000;0.4672;-1.2666;
-169.5000;0.4697;-1.2616;
-169.2000;0.4664;-1.2741;
-168.9000;0.4681;-1.2666;
-168.6000;0.4656;-1.2866;
-168.3000;0.4713;-1.2766;
-168.0000;0.4664;-1.2915;
-167.7000;0.4664;-1.2891;
-167.4000;0.4640;-1.3015;
-167.1000;0.4672;-1.2940;
-166.8000;0.4648;-1.3065;
-166.5000;0.4664;-1.3065;
-166.2000;0.4672;-1.3015;
-165.9000;0.4672;-1.3040;
-165.6000;0.4656;-1.3040;
-165.3000;0.4664;-1.3190;
-165.0000;0.4672;-1.3065;
-164.7000;0.4664;-1.3065;
-164.4000;0.4672;-1.3040;
-164.1000;0.4681;-1.3015;
-163.8000;0.4672;-1.2965;
-163.5000;0.4672;-1.2965;
-163.2000;0.4672;-1.2965;
-162.9000;0.4672;-1.2990;
-162.6000;0.4681;-1.3015;
-162.3000;0.4656;-1.3015;
-162.0000;0.4697;-1.2965;
-161.7000;0.4664;-1.3040;
-161.4000;0.4664;-1.2965;
-161.1000;0.4615;-1.3140;
-160.8000;0.4632;-1.3115;
-160.5000;0.4664;-1.2940;
-160.2000;0.4689;-1.2891;
-159.9000;0.4656;-1.2940;
-159.6000;0.4640;-1.2866;
-159.3000;0.4656;-1.2841;
-159.0000;0.4672;-1.2791;
-158.7000;0.4672;-1.2816;
-158.4000;0.4664;-1.2841;
-158.1000;0.4656;-1.2841;
-157.8000;0.4681;-1.2866;
-157.5000;0.4672;-1.2915;
-157.2000;0.4664;-1.2965;
-156.9000;0.4689;-1.2940;
-156.6000;0.4672;-1.2891;
-156.3000;0.4729;-1.2816;
-156.0000;0.4648;-1.3065;
-155.7000;0.4681;-1.2990;
-155.4000;0.4697;-1.2915;
-155.1000;0.4681;-1.2965;
-154.8000;0.4681;-1.2866;
-154.5000;0.4672;-1.2891;
-154.2000;0.4737;-1.2766;
-153.9000;0.4672;-1.2940;
-153.6000;0.4648;-1.2940;
-153.3000;0.4664;-1.2940;
-153.0000;0.4689;-1.2816;
-152.7000;0.4672;-1.2866;
-152.4000;0.4672;-1.2816;
-152.1000;0.4656;-1.2940;
-151.8000;0.4672;-1.2841;
-151.5000;0.4664;-1.2940;
-151.2000;0.4672;-1.2990;
-150.9000;0.4656;-1.3090;
-150.6000;0.4681;-1.2990;
-150.3000;0.4672;-1.2965;
-150.0000;0.4672;-1.2965;
-149.7000;0.4656;-1.3015;
-149.4000;0.4681;-1.2915;
-149.1000;0.4681;-1.2965;
-148.8000;0.4632;-1.3090;
-148.5000;0.4664;-1.2915;
-148.2000;0.4656;-1.2891;
-147.9000;0.4624;-1.2990;
-147.6000;0.4664;-1.2891;
-147.3000;0.4697;-1.2866;
-147.0000;0.4681;-1.2816;
-146.7000;0.4689;-1.2791;
-146.4000;0.4591;-1.2990;
-146.1000;0.4689;-1.2791;
-145.8000;0.4672;-1.2841;
-145.5000;0.4681;-1.2891;
-145.2000;0.4689;-1.2766;
-144.9000;0.4705;-1.2766;
-144.6000;0.4681;-1.2841;
-144.3000;0.4664;-1.2841;
-144.0000;0.4697;-1.2666;
-143.7000;0.4681;-1.2666;
-143.4000;0.4648;-1.2766;
-143.1000;0.4664;-1.2816;
-142.8000;0.4672;-1.2766;
-142.5000;0.4664;-1.2766;
-142.2000;0.4664;-1.2766;
-141.9000;0.4681;-1.2791;
-141.6000;0.4672;-1.2791;
-141.3000;0.4689;-1.2816;
-141.0000;0.4689;-1.2866;
-140.7000;0.4681;-1.2841;
-140.4000;0.4664;-1.2841;
-140.1000;0.4705;-1.2741;
-139.8000;0.4640;-1.2965;
-139.5000;0.4681;-1.2990;
-139.2000;0.4681;-1.2940;
-138.9000;0.4672;-1.2891;
-138.6000;0.4681;-1.2866;
-138.3000;0.4672;-1.2816;
-138.0000;0.4632;-1.2940;
-137.7000;0.4672;-1.2766;
-137.4000;0.4697;-1.2741;
-137.1000;0.4672;-1.2841;
-136.8000;0.4632;-1.2965;
-136.5000;0.4672;-1.2965;
-136.2000;0.4672;-1.2990;
-135.9000;0.4664;-1.3040;
-135.6000;0.4664;-1.3015;
-135.3000;0.4648;-1.3165;
-135.0000;0.4697;-1.2990;
-134.7000;0.4689;-1.2965;
-134.4000;0.4672;-1.2990;
-134.1000;0.4656;-1.3015;
-133.8000;0.4672;-1.2915;
-133.5000;0.4689;-1.2841;
-133.2000;0.4624;-1.3065;
-132.9000;0.4689;-1.2866;
-132.6000;0.4656;-1.2891;
-132.3000;0.4615;-1.2915;
-132.0000;0.4656;-1.2791;
-131.7000;0.4648;-1.2891;
-131.4000;0.4672;-1.2891;
-131.1000;0.4664;-1.3015;
-130.8000;0.4664;-1.2965;
-130.5000;0.4648;-1.2965;
-130.2000;0.4770;-1.2641;
-129.9000;0.4640;-1.2866;
-129.6000;0.4681;-1.2816;
-129.3000;0.4681;-1.2766;
-129.0000;0.4648;-1.2716;
-128.7000;0.4664;-1.2666;
-128.4000;0.4664;-1.2641;
-128.1000;0.4632;-1.2716;
-127.8000;0.4648;-1.2566;
-127.5000;0.4689;-1.2541;
-127.2000;0.4672;-1.2517;
-126.9000;0.4705;-1.2467;
-126.6000;0.4656;-1.2591;
-126.3000;0.4656;-1.2591;
-126.0000;0.4681;-1.2541;
-125.7000;0.4697;-1.2467;
-125.4000;0.4664;-1.2566;
-125.1000;0.4664;-1.2716;
-124.8000;0.4681;-1.2741;
-124.5000;0.4664;-1.2866;
-124.2000;0.4672;-1.2940;
-123.9000;0.4672;-1.3015;
-123.6000;0.4672;-1.3040;
-123.3000;0.4681;-1.3140;
-123.0000;0.4648;-1.3115;
-122.7000;0.4656;-1.3065;
-122.4000;0.4664;-1.3065;
-122.1000;0.4664;-1.3040;
-121.8000;0.4656;-1.3065;
-121.5000;0.4648;-1.3040;
-121.2000;0.4615;-1.3140;
-120.9000;0.4672;-1.2965;
-120.6000;0.4672;-1.2891;
-120.3000;0.4681;-1.2841;
-120.0000;0.4672;-1.2915;
-119.7000;0.4681;-1.2990;
-119.4000;0.4689;-1.2965;
-119.1000;0.4681;-1.2891;
-118.8000;0.4672;-1.2891;
-118.5000;0.4689;-1.2866;
-118.2000;0.4681;-1.2816;
-117.9000;0.4681;-1.2816;
-117.6000;0.4681;-1.2791;
-117.3000;0.4672;-1.2816;
-117.0000;0.4681;-1.2841;
-116.7000;0.4681;-1.2915;
-116.4000;0.4664;-1.2891;
-116.1000;0.4664;-1.2915;
-115.8000;0.4681;-1.2816;
-115.5000;0.4672;-1.2891;
-115.2000;0.4672;-1.2915;
-114.9000;0.4681;-1.2791;
-114.6000;0.4681;-1.2666;
-114.3000;0.4591;-1.2891;
-114.0000;0.4648;-1.2716;
-113.7000;0.4664;-1.2741;
-113.4000;0.4664;-1.2816;
-113.1000;0.4656;-1.2940;
-112.8000;0.4664;-1.2915;
-112.5000;0.4664;-1.2866;
-112.2000;0.4648;-1.2891;
-111.9000;0.4672;-1.2741;
-111.6000;0.4656;-1.2791;
-111.3000;0.4689;-1.2816;
-111.0000;0.4681;-1.2915;
-110.7000;0.4656;-1.2915;
-110.4000;0.4681;-1.2866;
-110.1000;0.4672;-1.2940;
-109.8000;0.4664;-1.3015;
-109.5000;0.4689;-1.2990;
-109.2000;0.4681;-1.3065;
-108.9000;0.4681;-1.3115;
-108.6000;0.4689;-1.2965;
-108.3000;0.4672;-1.3065;
-108.0000;0.4689;-1.3140;
-107.7000;0.4681;-1.3215;
-107.4000;0.4664;-1.3190;
-107.1000;0.4689;-1.3190;
-106.8000;0.4656;-1.3364;
-106.5000;0.4672;-1.3265;
-106.2000;0.4672;-1.3265;
-105.9000;0.4681;-1.3140;
-105.6000;0.4648;-1.3115;
-105.3000;0.4615;-1.3115;
-105.0000;0.4672;-1.2965;
-104.7000;0.4697;-1.2915;
-104.4000;0.4664;-1.2965;
-104.1000;0.4615;-1.3090;
-103.8000;0.4689;-1.2841;
-103.5000;0.4681;-1.2791;
-103.2000;0.4681;-1.2841;
-102.9000;0.4689;-1.3065;
-102.6000;0.4672;-1.3240;
-102.3000;0.4672;-1.3265;
-102.0000;0.4672;-1.3215;
-101.7000;0.4681;-1.2990;
-101.4000;0.4664;-1.3015;
-101.1000;0.4664;-1.3015;
-100.8000;0.4632;-1.3065;
-100.5000;0.4656;-1.2915;
-100.2000;0.4672;-1.2891;
-99.9000;0.4681;-1.2866;
-99.6000;0.4672;-1.2816;
-99.3000;0.4672;-1.2841;
-99.0000;0.4656;-1.2965;
-98.7000;0.4721;-1.2866;
-98.4000;0.4664;-1.3040;
-98.1000;0.4672;-1.3065;
-97.8000;0.4689;-1.3015;
-97.5000;0.4664;-1.3090;
-97.2000;0.4640;-1.3140;
-96.9000;0.4672;-1.2965;
-96.6000;0.4681;-1.2965;
-96.3000;0.4689;-1.2990;
-96.0000;0.4664;-1.2891;
-95.7000;0.4664;-1.2866;
-95.4000;0.4672;-1.2766;
-95.1000;0.4672;-1.2791;
-94.8000;0.4664;-1.2741;
-94.5000;0.4672;-1.2766;
-94.2000;0.4697;-1.2841;
-93.9000;0.4672;-1.2891;
-93.6000;0.4640;-1.2940;
-93.3000;0.4689;-1.2841;
-93.0000;0.4681;-1.2866;
-92.7000;0.4567;-1.3165;
-92.4000;0.4672;-1.2915;
-92.1000;0.4664;-1.2915;
-91.8000;0.4656;-1.2891;
-91.5000;0.4729;-1.2791;
-91.2000;0.4697;-1.2891;
-90.9000;0.4664;-1.2990;
-90.6000;0.4672;-1.2940;
-90.3000;0.4640;-1.3090;
-90.0000;0.4656;-1.3090;
-89.7000;0.4664;-1.3040;
-89.4000;0.4664;-1.3015;
-89.1000;0.4672;-1.3065;
-88.8000;0.4664;-1.3065;
-88.5000;0.4664;-1.3040;
-88.2000;0.4713;-1.2866;
-87.9000;0.4648;-1.2990;
-87.6000;0.4697;-1.2891;
-87.3000;0.4664;-1.2990;
-87.0000;0.4681;-1.2891;
-86.7000;0.4689;-1.2915;
-86.4000;0.4664;-1.2990;
-86.1000;0.4664;-1.2891;
-85.8000;0.4681;-1.2965;
-85.5000;0.4737;-1.2915;
-85.2000;0.4729;-1.2866;
-84.9000;0.4672;-1.2841;
-84.6000;0.4664;-1.2816;
-84.3000;0.4664;-1.2866;
-84.0000;0.4656;-1.2791;
-83.7000;0.4681;-1.2666;
-83.4000;0.4567;-1.2990;
-83.1000;0.4672;-1.2666;
-82.8000;0.4681;-1.2741;
-82.5000;0.4681;-1.2791;
-82.2000;0.4672;-1.2816;
-81.9000;0.4672;-1.2915;
-81.6000;0.4672;-1.2891;
-81.3000;0.4681;-1.2891;
-81.0000;0.4681;-1.2741;
-80.7000;0.4672;-1.2816;
-80.4000;0.4664;-1.2841;
-80.1000;0.4672;-1.2866;
-79.8000;0.4672;-1.2866;
-79.5000;0.4664;-1.2866;
-79.2000;0.4664;-1.2965;
-78.9000;0.4681;-1.3040;
-78.6000;0.4656;-1.3065;
-78.3000;0.4648;-1.3065;
-78.0000;0.4591;-1.3165;
-77.7000;0.4672;-1.2891;
-77.4000;0.4672;-1.2915;
-77.1000;0.4681;-1.2841;
-76.8000;0.4664;-1.2816;
-76.5000;0.4632;-1.2841;
-76.2000;0.4672;-1.2766;
-75.9000;0.4770;-1.2492;
-75.6000;0.4664;-1.2791;
-75.3000;0.4697;-1.2691;
-75.0000;0.4664;-1.2816;
-74.7000;0.4681;-1.2866;
-74.4000;0.4664;-1.2891;
-74.1000;0.4713;-1.2741;
-73.8000;0.4664;-1.2841;
-73.5000;0.4664;-1.2915;
-73.2000;0.4664;-1.2915;
-72.9000;0.4672;-1.2915;
-72.6000;0.4697;-1.2891;
-72.3000;0.4672;-1.2915;
-72.0000;0.4681;-1.2841;
-71.7000;0.4681;-1.2891;
-71.4000;0.4672;-1.2866;
-71.1000;0.4656;-1.2990;
-70.8000;0.4689;-1.2940;
-70.5000;0.4672;-1.2940;
-70.2000;0.4664;-1.2891;
-69.9000;0.4705;-1.2841;
-69.6000;0.4624;-1.3115;
-69.3000;0.4656;-1.3090;
-69.0000;0.4664;-1.3040;
-68.7000;0.4697;-1.2891;
-68.4000;0.4672;-1.2965;
-68.1000;0.4672;-1.2965;
-67.8000;0.4681;-1.2965;
-67.5000;0.4681;-1.2841;
-67.2000;0.4664;-1.2791;
-66.9000;0.4697;-1.2766;
-66.6000;0.4656;-1.2741;
-66.3000;0.4689;-1.2641;
-66.0000;0.4689;-1.2691;
-65.7000;0.4632;-1.2716;
-65.4000;0.4672;-1.2666;
-65.1000;0.4681;-1.2741;
-64.8000;0.4681;-1.2766;
-64.5000;0.4656;-1.2891;
-64.2000;0.4681;-1.2891;
-63.9000;0.4656;-1.2940;
-63.6000;0.4656;-1.2965;
-63.3000;0.4664;-1.2990;
-63.0000;0.4672;-1.3090;
-62.7000;0.4664;-1.3165;
-62.4000;0.4672;-1.3140;
-62.1000;0.4713;-1.2990;
-61.8000;0.4672;-1.3065;
-61.5000;0.4664;-1.3040;
-61.2000;0.4664;-1.3015;
-60.9000;0.4681;-1.3015;
-60.6000;0.4648;-1.3040;
-60.3000;0.4648;-1.3065;
-60.0000;0.4664;-1.2990;
-59.7000;0.4689;-1.2866;
-59.4000;0.4672;-1.2816;
-59.1000;0.4656;-1.2891;
-58.8000;0.4656;-1.2965;
-58.5000;0.4648;-1.2940;
-58.2000;0.4656;-1.2940;
-57.9000;0.4632;-1.3040;
-57.6000;0.4624;-1.3090;
-57.3000;0.4664;-1.2891;
-57.0000;0.4689;-1.2816;
-56.7000;0.4754;-1.2691;
-56.4000;0.4575;-1.3115;
-56.1000;0.4656;-1.2891;
-55.8000;0.4624;-1.3040;
-55.5000;0.4664;-1.2965;
-55.2000;0.4664;-1.2990;
-54.9000;0.4664;-1.2965;
-54.6000;0.4689;-1.2866;
-54.3000;0.4648;-1.2990;
-54.0000;0.4656;-1.2990;
-53.7000;0.4672;-1.2965;
-53.4000;0.4689;-1.3015;
-53.1000;0.4689;-1.3090;
-52.8000;0.4672;-1.3090;
-52.5000;0.4656;-1.2990;
-52.2000;0.4705;-1.2866;
-51.9000;0.4672;-1.3040;
-51.6000;0.4681;-1.2940;
-51.3000;0.4664;-1.2915;
-51.0000;0.4681;-1.2791;
-50.7000;0.4689;-1.2741;
-50.4000;0.4672;-1.2816;
-50.1000;0.4672;-1.2766;
-49.8000;0.4672;-1.2716;
-49.5000;0.4664;-1.2741;
-49.2000;0.4697;-1.2641;
-48.9000;0.4672;-1.2766;
-48.6000;0.4672;-1.2791;
-48.3000;0.4721;-1.2691;
-48.0000;0.4681;-1.2816;
-47.7000;0.4689;-1.2841;
-47.4000;0.4664;-1.2891;
-47.1000;0.4672;-1.2766;
-46.8000;0.4672;-1.2741;
-46.5000;0.4672;-1.2741;
-46.2000;0.4697;-1.2691;
-45.9000;0.4664;-1.2741;
-45.6000;0.4664;-1.2741;
-45.3000;0.4656;-1.2666;
-45.0000;0.4648;-1.2766;
-44.7000;0.4689;-1.2616;
-44.4000;0.4664;-1.2741;
-44.1000;0.4656;-1.2791;
-43.8000;0.4664;-1.2666;
-43.5000;0.4672;-1.2691;
-43.2000;0.4689;-1.2691;
-42.9000;0.4681;-1.2691;
-42.6000;0.4664;-1.2691;
-42.3000;0.4664;-1.2641;
-42.0000;0.4664;-1.2716;
-41.7000;0.4681;-1.2616;
-41.4000;0.4697;-1.2517;
-41.1000;0.4672;-1.2566;
-40.8000;0.4656;-1.2666;
-40.5000;0.4681;-1.2666;
-40.2000;0.4583;-1.2990;
-39.9000;0.4664;-1.2766;
-39.6000;0.4664;-1.2741;
-39.3000;0.4681;-1.2741;
-39.0000;0.4664;-1.2716;
-38.7000;0.4672;-1.2716;
-38.4000;0.4681;-1.2741;
-38.1000;0.4664;-1.2766;
-37.8000;0.4681;-1.2641;
-37.5000;0.4681;-1.2641;
-37.2000;0.4664;-1.2641;
-36.9000;0.4672;-1.2666;
-36.6000;0.4697;-1.2616;
-36.3000;0.4664;-1.2691;
-36.0000;0.4664;-1.2766;
-35.7000;0.4664;-1.2716;
-35.4000;0.4624;-1.2816;
-35.1000;0.4672;-1.2691;
-34.8000;0.4615;-1.2841;
-34.5000;0.4656;-1.2741;
-34.2000;0.4681;-1.2691;
-33.9000;0.4672;-1.2716;
-33.6000;0.4697;-1.2641;
-33.3000;0.4656;-1.2716;
-33.0000;0.4632;-1.2716;
-32.7000;0.4656;-1.2666;
-32.4000;0.4672;-1.2666;
-32.1000;0.4656;-1.2691;
-31.8000;0.4664;-1.2616;
-31.5000;0.4681;-1.2641;
-31.2000;0.4656;-1.2666;
-30.9000;0.4656;-1.2741;
-30.6000;0.4689;-1.2741;
-30.3000;0.4672;-1.2766;
-30.0000;0.4681;-1.2741;
-29.7000;0.4664;-1.2791;
-29.4000;0.4681;-1.2791;
-29.1000;0.4681;-1.2866;
-28.8000;0.4672;-1.2791;
-28.5000;0.4672;-1.2791;
-28.2000;0.4664;-1.2791;
-27.9000;0.4697;-1.2741;
-27.6000;0.4672;-1.2741;
-27.3000;0.4672;-1.2741;
-27.0000;0.4672;-1.2766;
-26.7000;0.4672;-1.2691;
-26.4000;0.4681;-1.2666;
-26.1000;0.4689;-1.2716;
-25.8000;0.4656;-1.2841;
-25.5000;0.4672;-1.2891;
-25.2000;0.4672;-1.2965;
-24.9000;0.4656;-1.2940;
-24.6000;0.4648;-1.2915;
-24.3000;0.4664;-1.2841;
-24.0000;0.4672;-1.2691;
-23.7000;0.4681;-1.2641;
-23.4000;0.4689;-1.2641;
-23.1000;0.4656;-1.2741;
-22.8000;0.4648;-1.2766;
-22.5000;0.4656;-1.2791;
-22.2000;0.4664;-1.2741;
-21.9000;0.4664;-1.2741;
-21.6000;0.4672;-1.2691;
-21.3000;0.4697;-1.2541;
-21.0000;0.4672;-1.2691;
-20.7000;0.4672;-1.2666;
-20.4000;0.4648;-1.2741;
-20.1000;0.4656;-1.2791;
-19.8000;0.4681;-1.2791;
-19.5000;0.4656;-1.2791;
-19.2000;0.4672;-1.2816;
-18.9000;0.4664;-1.2816;
-18.6000;0.4664;-1.2766;
-18.3000;0.4664;-1.2716;
-18.0000;0.4664;-1.2741;
-17.7000;0.4672;-1.2816;
-17.4000;0.4640;-1.2866;
-17.1000;0.4664;-1.2841;
-16.8000;0.4664;-1.2841;
-16.5000;0.4697;-1.2716;
-16.2000;0.4672;-1.2766;
-15.9000;0.4672;-1.2791;
-15.6000;0.4681;-1.2816;
-15.3000;0.4681;-1.2841;
-15.0000;0.4681;-1.2891;
-14.7000;0.4672;-1.2891;
-14.4000;0.4648;-1.2940;
-14.1000;0.4697;-1.2716;
-13.8000;0.4672;-1.2766;
-13.5000;0.4656;-1.2791;
-13.2000;0.4664;-1.2716;
-12.9000;0.4672;-1.2616;
-12.6000;0.4648;-1.2616;
-12.3000;0.4672;-1.2541;
-12.0000;0.4656;-1.2666;
-11.7000;0.4656;-1.2716;
-11.4000;0.4648;-1.2741;
-11.1000;0.4672;-1.2691;
-10.8000;0.4689;-1.2691;
-10.5000;0.4664;-1.2915;
-10.2000;0.4672;-1.2915;
-9.9000;0.4672;-1.2816;
-9.6000;0.4672;-1.2841;
-9.3000;0.4664;-1.2841;
-9.0000;0.4607;-1.2940;
-8.7000;0.4664;-1.2915;
-8.4000;0.4672;-1.2940;
-8.1000;0.4664;-1.2965;
-7.8000;0.4656;-1.2940;
-7.5000;0.4672;-1.3015;
-7.2000;0.4656;-1.3015;
-6.9000;0.4664;-1.2965;
-6.6000;0.4664;-1.2940;
-6.3000;0.4672;-1.2841;
-6.0000;0.4664;-1.2891;
-5.7000;0.4664;-1.2866;
-5.4000;0.4672;-1.2866;
-5.1000;0.4672;-1.2816;
-4.8000;0.4640;-1.2816;
-4.5000;0.4672;-1.2791;
-4.2000;0.4664;-1.2741;
-3.9000;0.4664;-1.2716;
-3.6000;0.4672;-1.2741;
-3.3000;0.4664;-1.2791;
-3.0000;0.4681;-1.2691;
-2.7000;0.4681;-1.2816;
-2.4000;0.4664;-1.2940;
-2.1000;0.4689;-1.2841;
-1.8000;0.4624;-1.2990;
-1.5000;0.4664;-1.2816;
-1.2000;0.4624;-1.2915;
-0.9000;0.4672;-1.2741;
-0.6000;0.4681;-1.2866;
-0.3000;0.4664;-1.2940;
0.0000;0.4664;-1.2940;
0.3000;0.4876;-1.2641;
0.6000;0.5299;-1.2143;
0.9000;0.5657;-1.1519;
1.2000;0.5910;-1.1095;
1.5000;0.6105;-1.0696;
1.8000;0.6300;-1.0297;
2.1000;0.6398;-1.0123;
2.4000;0.6512;-0.9973;
2.7000;0.6561;-0.9849;
3.0000;0.6691;-0.9574;
3.3000;0.6748;-0.9450;
3.6000;0.6772;-0.9425;
3.9000;0.6854;-0.9250;
4.2000;0.6878;-0.9275;
4.5000;0.6878;-0.9350;
4.8000;0.7009;-0.9151;
5.1000;0.6992;-0.9250;
5.4000;0.7033;-0.9200;
5.7000;0.7074;-0.9101;
6.0000;0.7098;-0.9126;
6.3000;0.7098;-0.9076;
6.6000;0.7155;-0.8901;
6.9000;0.7147;-0.8976;
7.2000;0.7204;-0.8951;
7.5000;0.7220;-0.9001;
7.8000;0.7245;-0.9026;
8.1000;0.7261;-0.9076;
8.4000;0.7285;-0.9001;
8.7000;0.7318;-0.8951;
9.0000;0.7326;-0.8976;
9.3000;0.7359;-0.9001;
9.6000;0.7302;-0.9076;
9.9000;0.7416;-0.8851;
10.2000;0.7399;-0.8876;
10.5000;0.7448;-0.8777;
10.8000;0.7448;-0.8801;
11.1000;0.7456;-0.8777;
11.4000;0.7481;-0.8727;
11.7000;0.7562;-0.8602;
12.0000;0.7521;-0.8702;
12.3000;0.7546;-0.8702;
12.6000;0.7554;-0.8727;
12.9000;0.7570;-0.8826;
13.2000;0.7595;-0.8826;
13.5000;0.7595;-0.8926;
13.8000;0.7619;-0.8951;
14.1000;0.7660;-0.8901;
14.4000;0.7684;-0.8901;
14.7000;0.7749;-0.8876;
15.0000;0.7709;-0.9026;
15.3000;0.7668;-0.9250;
15.6000;0.7717;-0.9101;
15.9000;0.7749;-0.9051;
16.2000;0.7757;-0.9126;
16.5000;0.7757;-0.9101;
16.8000;0.7782;-0.9126;
17.1000;0.7790;-0.9126;
17.4000;0.7717;-0.9275;
17.7000;0.7814;-0.9126;
18.0000;0.7823;-0.9126;
18.3000;0.7855;-0.9076;
18.6000;0.7888;-0.9001;
18.9000;0.7871;-0.9101;
19.2000;0.7880;-0.9200;
19.5000;0.7888;-0.9101;
19.8000;0.7888;-0.9101;
20.1000;0.7912;-0.9101;
20.4000;0.7920;-0.9076;
20.7000;0.7945;-0.9101;
21.0000;0.7953;-0.9101;
21.3000;0.7977;-0.9175;
21.6000;0.7993;-0.9101;
21.9000;0.7977;-0.9175;
22.2000;0.8010;-0.9151;
22.5000;0.8010;-0.9126;
22.8000;0.8116;-0.8951;
23.1000;0.8018;-0.9200;
23.4000;0.8050;-0.9225;
23.7000;0.8018;-0.9400;
24.0000;0.8018;-0.9375;
24.3000;0.8067;-0.9300;
24.6000;0.8083;-0.9225;
24.9000;0.8067;-0.9300;
25.2000;0.8083;-0.9225;
25.5000;0.8075;-0.9101;
25.8000;0.8034;-0.9200;
26.1000;0.8099;-0.9126;
26.4000;0.8083;-0.9175;
26.7000;0.8099;-0.9225;
27.0000;0.8124;-0.9300;
27.3000;0.8116;-0.9375;
27.6000;0.8124;-0.9350;
27.9000;0.8140;-0.9375;
28.2000;0.8148;-0.9375;
28.5000;0.8124;-0.9425;
28.8000;0.8173;-0.9350;
29.1000;0.8189;-0.9300;
29.4000;0.8181;-0.9400;
29.7000;0.8173;-0.9425;
30.0000;0.8189;-0.9450;
30.3000;0.8148;-0.9525;
30.6000;0.8197;-0.9525;
30.9000;0.8213;-0.9475;
31.2000;0.8205;-0.9500;
31.5000;0.8213;-0.9500;
31.8000;0.8230;-0.9475;
32.1000;0.8205;-0.9500;
32.4000;0.8205;-0.9549;
32.7000;0.8213;-0.9475;
33.0000;0.8221;-0.9425;
33.3000;0.8197;-0.9549;
33.6000;0.8262;-0.9425;
33.9000;0.8254;-0.9525;
34.2000;0.8254;-0.9525;
34.5000;0.8230;-0.9549;
34.8000;0.8262;-0.9525;
35.1000;0.8278;-0.9525;
35.4000;0.8303;-0.9475;
35.7000;0.8295;-0.9425;
36.0000;0.8303;-0.9325;
36.3000;0.8262;-0.9350;
36.6000;0.8213;-0.9624;
36.9000;0.8295;-0.9450;
37.2000;0.8254;-0.9624;
37.5000;0.8303;-0.9500;
37.8000;0.8319;-0.9549;
38.1000;0.8262;-0.9649;
38.4000;0.8335;-0.9475;
38.7000;0.8311;-0.9549;
39.0000;0.8360;-0.9325;
39.3000;0.8344;-0.9350;
39.6000;0.8352;-0.9425;
39.9000;0.8344;-0.9450;
40.2000;0.8417;-0.9325;
40.5000;0.8368;-0.9450;
40.8000;0.8376;-0.9500;
41.1000;0.8376;-0.9475;
41.4000;0.8278;-0.9649;
41.7000;0.8384;-0.9350;
42.0000;0.8400;-0.9375;
42.3000;0.8417;-0.9450;
42.6000;0.8352;-0.9699;
42.9000;0.8409;-0.9624;
43.2000;0.8392;-0.9699;
43.5000;0.8400;-0.9749;
43.8000;0.8400;-0.9799;
44.1000;0.8409;-0.9749;
44.4000;0.8409;-0.9799;
44.7000;0.8311;-1.0098;
45.0000;0.8392;-0.9899;
45.3000;0.8409;-0.9923;
45.6000;0.8384;-0.9973;
45.9000;0.8433;-0.9899;
46.2000;0.8441;-0.9849;
46.5000;0.8466;-0.9824;
46.8000;0.8425;-0.9948;
47.1000;0.8449;-0.9899;
47.4000;0.8441;-0.9774;
47.7000;0.8441;-0.9799;
48.0000;0.8425;-0.9824;
48.3000;0.8449;-0.9849;
48.6000;0.8449;-0.9824;
48.9000;0.8466;-0.9749;
49.2000;0.8474;-0.9749;
49.5000;0.8449;-0.9824;
49.8000;0.8498;-0.9649;
50.1000;0.8506;-0.9649;
50.4000;0.8490;-0.9699;
50.7000;0.8498;-0.9824;
51.0000;0.8490;-0.9849;
51.3000;0.8523;-0.9824;
51.6000;0.8514;-0.9874;
51.9000;0.8531;-0.9923;
52.2000;0.8514;-0.9948;
52.5000;0.8523;-0.9923;
52.8000;0.8539;-0.9874;
53.1000;0.8531;-0.9923;
53.4000;0.8506;-0.9923;
53.7000;0.8539;-0.9824;
54.0000;0.8563;-0.9749;
54.3000;0.8523;-0.9824;
54.6000;0.8563;-0.9774;
54.9000;0.8531;-0.9749;
55.2000;0.8531;-0.9824;
55.5000;0.8555;-0.9849;
55.8000;0.8547;-0.9774;
56.1000;0.8547;-0.9824;
56.4000;0.8555;-0.9824;
56.7000;0.8547;-0.9849;
57.0000;0.8506;-0.9973;
57.3000;0.8571;-0.9824;
57.6000;0.8547;-0.9973;
57.9000;0.8571;-0.9948;
58.2000;0.8588;-0.9923;
58.5000;0.8571;-0.9874;
58.8000;0.8580;-0.9899;
59.1000;0.8596;-0.9923;
59.4000;0.8588;-0.9948;
59.7000;0.8620;-0.9899;
60.0000;0.8596;-0.9998;
60.3000;0.8563;-1.0073;
60.6000;0.8628;-0.9874;
60.9000;0.8596;-1.0123;
61.2000;0.8596;-1.0073;
61.5000;0.8531;-1.0198;
61.8000;0.8637;-0.9923;
62.1000;0.8620;-0.9899;
62.4000;0.8596;-0.9998;
62.7000;0.8637;-0.9948;
63.0000;0.8628;-1.0073;
63.3000;0.8628;-0.9973;
63.6000;0.8628;-0.9923;
63.9000;0.8653;-0.9899;
64.2000;0.8645;-0.9923;
64.5000;0.8637;-0.9923;
64.8000;0.8637;-0.9923;
65.1000;0.8628;-0.9998;
65.4000;0.8637;-1.0023;
65.7000;0.8637;-0.9923;
66.0000;0.8637;-0.9973;
66.3000;0.8645;-0.9948;
66.6000;0.8604;-0.9998;
66.9000;0.8637;-0.9923;
67.2000;0.8628;-0.9948;
67.5000;0.8661;-0.9874;
67.8000;0.8669;-0.9874;
68.1000;0.8669;-0.9899;
68.4000;0.8661;-0.9923;
68.7000;0.8637;-1.0023;
69.0000;0.8612;-0.9998;
69.3000;0.8669;-0.9849;
69.6000;0.8677;-0.9948;
69.9000;0.8694;-0.9824;
70.2000;0.8661;-0.9824;
70.5000;0.8669;-0.9749;
70.8000;0.8694;-0.9774;
71.1000;0.8669;-0.9923;
71.4000;0.8685;-0.9923;
71.7000;0.8661;-0.9899;
72.0000;0.8710;-0.9774;
72.3000;0.8710;-0.9849;
72.6000;0.8694;-0.9849;
72.9000;0.8694;-0.9899;
73.2000;0.8718;-0.9973;
73.5000;0.8734;-0.9874;
73.8000;0.8685;-1.0073;
74.1000;0.8726;-0.9973;
74.4000;0.8718;-1.0123;
74.7000;0.8726;-1.0098;
75.0000;0.8726;-1.0198;
75.3000;0.8718;-1.0173;
75.6000;0.8726;-1.0098;
75.9000;0.8751;-1.0098;
76.2000;0.8734;-1.0073;
76.5000;0.8734;-1.0123;
76.8000;0.8759;-1.0048;
77.1000;0.8751;-1.0098;
77.4000;0.8718;-1.0148;
77.7000;0.8702;-1.0198;
78.0000;0.8751;-1.0123;
78.3000;0.8734;-1.0198;
78.6000;0.8726;-1.0223;
78.9000;0.8726;-1.0173;
79.2000;0.8742;-0.9998;
79.5000;0.8734;-1.0048;
79.8000;0.8759;-1.0023;
80.1000;0.8710;-1.0173;
80.4000;0.8751;-1.0048;
80.7000;0.8751;-0.9998;
81.0000;0.8775;-0.9973;
81.3000;0.8767;-0.9998;
81.6000;0.8783;-1.0148;
81.9000;0.8759;-1.0123;
82.2000;0.8775;-1.0098;
82.5000;0.8759;-1.0123;
82.8000;0.8767;-1.0148;
83.1000;0.8824;-1.0023;
83.4000;0.8742;-1.0223;
83.7000;0.8734;-1.0148;
84.0000;0.8759;-1.0098;
84.3000;0.8767;-1.0023;
84.6000;0.8799;-0.9998;
84.9000;0.8783;-1.0048;
85.2000;0.8791;-0.9998;
85.5000;0.8767;-1.0023;
85.8000;0.8775;-0.9948;
86.1000;0.8856;-0.9849;
86.4000;0.8783;-1.0223;
86.7000;0.8775;-1.0297;
87.0000;0.8799;-1.0198;
87.3000;0.8799;-1.0223;
87.6000;0.8816;-1.0098;
87.9000;0.8816;-1.0173;
88.2000;0.8783;-1.0297;
88.5000;0.8807;-1.0297;
88.8000;0.8799;-1.0422;
89.1000;0.8799;-1.0422;
89.4000;0.8799;-1.0497;
89.7000;0.8783;-1.0472;
90.0000;0.8807;-1.0497;
90.3000;0.8799;-1.0597;
90.6000;0.8799;-1.0622;
90.9000;0.8816;-1.0547;
91.2000;0.8824;-1.0622;
91.5000;0.8816;-1.0622;
91.8000;0.8807;-1.0746;
92.1000;0.8840;-1.0696;
92.4000;0.8840;-1.0721;
92.7000;0.8751;-1.0921;
93.0000;0.8807;-1.0771;
93.3000;0.8824;-1.0746;
93.6000;0.8840;-1.0721;
93.9000;0.8832;-1.0796;
94.2000;0.8824;-1.0696;
94.5000;0.8807;-1.0771;
94.8000;0.8824;-1.0721;
95.1000;0.8832;-1.0746;
95.4000;0.8840;-1.0696;
95.7000;0.8816;-1.0696;
96.0000;0.8848;-1.0597;
96.3000;0.8840;-1.0696;
96.6000;0.8832;-1.0721;
96.9000;0.8873;-1.0572;
97.2000;0.8832;-1.0622;
97.5000;0.8840;-1.0572;
97.8000;0.8816;-1.0671;
98.1000;0.8832;-1.0721;
98.4000;0.8864;-1.0647;
98.7000;0.8848;-1.0622;
99.0000;0.8848;-1.0547;
99.3000;0.8848;-1.0522;
99.6000;0.8832;-1.0572;
99.9000;0.8816;-1.0647;
100.2000;0.8840;-1.0597;
100.5000;0.8848;-1.0597;
100.8000;0.8840;-1.0597;
101.1000;0.8824;-1.0572;
101.4000;0.8848;-1.0447;
101.7000;0.8840;-1.0522;
102.0000;0.8864;-1.0472;
102.3000;0.8848;-1.0522;
102.6000;0.8864;-1.0522;
102.9000;0.8840;-1.0572;
103.2000;0.8856;-1.0547;
103.5000;0.8840;-1.0671;
103.8000;0.8864;-1.0622;
104.1000;0.8832;-1.0696;
104.4000;0.8840;-1.0647;
104.7000;0.8856;-1.0696;
105.0000;0.8856;-1.0671;
105.3000;0.8856;-1.0647;
105.6000;0.8832;-1.0696;
105.9000;0.8864;-1.0647;
106.2000;0.8881;-1.0647;
106.5000;0.8848;-1.0647;
106.8000;0.8856;-1.0597;
107.1000;0.8864;-1.0597;
107.4000;0.8840;-1.0572;
107.7000;0.8856;-1.0447;
108.0000;0.8864;-1.0397;
108.3000;0.8856;-1.0472;
108.6000;0.8873;-1.0422;
108.9000;0.8864;-1.0547;
109.2000;0.8873;-1.0422;
109.5000;0.8856;-1.0472;
109.8000;0.8856;-1.0522;
110.1000;0.8848;-1.0522;
110.4000;0.8856;-1.0497;
110.7000;0.8889;-1.0422;
111.0000;0.8848;-1.0597;
111.3000;0.8864;-1.0721;
111.6000;0.8840;-1.0771;
111.9000;0.8873;-1.0622;
112.2000;0.8881;-1.0647;
112.5000;0.8864;-1.0671;
112.8000;0.8881;-1.0622;
113.1000;0.8864;-1.0622;
113.4000;0.8881;-1.0572;
113.7000;0.8905;-1.0497;
114.0000;0.8897;-1.0497;
114.3000;0.8897;-1.0572;
114.6000;0.8824;-1.0696;
114.9000;0.8873;-1.0497;
115.2000;0.8889;-1.0422;
115.5000;0.8889;-1.0422;
115.8000;0.8856;-1.0497;
116.1000;0.8889;-1.0472;
116.4000;0.8881;-1.0547;
116.7000;0.8889;-1.0522;
117.0000;0.8881;-1.0547;
117.3000;0.8889;-1.0472;
117.6000;0.8897;-1.0497;
117.9000;0.8913;-1.0472;
118.2000;0.8921;-1.0472;
118.5000;0.8905;-1.0497;
118.8000;0.8913;-1.0497;
119.1000;0.8864;-1.0572;
119.4000;0.8889;-1.0522;
119.7000;0.8889;-1.0547;
120.0000;0.8881;-1.0597;
120.3000;0.8897;-1.0522;
120.6000;0.8840;-1.0597;
120.9000;0.8881;-1.0397;
121.2000;0.8881;-1.0397;
121.5000;0.8881;-1.0322;
121.8000;0.8897;-1.0297;
122.1000;0.8881;-1.0297;
122.4000;0.8881;-1.0322;
122.7000;0.8873;-1.0422;
123.0000;0.8897;-1.0322;
123.3000;0.8905;-1.0273;
123.6000;0.8905;-1.0273;
123.9000;0.8881;-1.0372;
124.2000;0.8873;-1.0472;
124.5000;0.8905;-1.0447;
124.8000;0.8897;-1.0422;
125.1000;0.8889;-1.0447;
125.4000;0.8897;-1.0522;
125.7000;0.8921;-1.0497;
126.0000;0.8897;-1.0522;
126.3000;0.8856;-1.0796;
126.6000;0.8881;-1.0746;
126.9000;0.8897;-1.0771;
127.2000;0.8848;-1.0846;
127.5000;0.8905;-1.0696;
127.8000;0.8897;-1.0597;
128.1000;0.9011;-1.0248;
128.4000;0.8905;-1.0522;
128.7000;0.8873;-1.0622;
129.0000;0.8913;-1.0547;
129.3000;0.8913;-1.0472;
129.6000;0.8897;-1.0522;
129.9000;0.8897;-1.0547;
130.2000;0.8913;-1.0547;
130.5000;0.8832;-1.0771;
130.8000;0.8913;-1.0522;
131.1000;0.8913;-1.0522;
131.4000;0.8921;-1.0522;
131.7000;0.8905;-1.0422;
132.0000;0.8905;-1.0322;
132.3000;0.8921;-1.0248;
132.6000;0.8889;-1.0273;
132.9000;0.8881;-1.0223;
133.2000;0.8905;-1.0123;
133.5000;0.8799;-1.0397;
133.8000;0.8897;-1.0273;
134.1000;0.8913;-1.0248;
134.4000;0.8913;-1.0322;
134.7000;0.8864;-1.0447;
135.0000;0.8921;-1.0372;
135.3000;0.8946;-1.0273;
135.6000;0.8913;-1.0347;
135.9000;0.8889;-1.0497;
136.2000;0.8921;-1.0472;
136.5000;0.8905;-1.0547;
136.8000;0.8938;-1.0522;
137.1000;0.8905;-1.0572;
137.4000;0.8889;-1.0572;
137.7000;0.8921;-1.0572;
138.0000;0.8913;-1.0597;
138.3000;0.8978;-1.0372;
138.6000;0.8921;-1.0497;
138.9000;0.8962;-1.0497;
139.2000;0.8905;-1.0597;
139.5000;0.8921;-1.0622;
139.8000;0.8881;-1.0721;
140.1000;0.8905;-1.0671;
140.4000;0.8913;-1.0547;
140.7000;0.8913;-1.0497;
141.0000;0.8913;-1.0447;
141.3000;0.8905;-1.0547;
141.6000;0.8897;-1.0447;
141.9000;0.8995;-1.0223;
142.2000;0.8905;-1.0397;
142.5000;0.8889;-1.0497;
142.8000;0.8913;-1.0472;
143.1000;0.8905;-1.0472;
143.4000;0.8905;-1.0397;
143.7000;0.8921;-1.0347;
144.0000;0.8897;-1.0422;
144.3000;0.8905;-1.0447;
144.6000;0.8905;-1.0447;
144.9000;0.8913;-1.0372;
145.2000;0.8905;-1.0372;
145.5000;0.8881;-1.0397;
145.8000;0.8905;-1.0297;
146.1000;0.8889;-1.0422;
146.4000;0.8970;-1.0297;
146.7000;0.8913;-1.0522;
147.0000;0.8913;-1.0547;
147.3000;0.8930;-1.0522;
147.6000;0.8889;-1.0572;
147.9000;0.8913;-1.0572;
148.2000;0.8930;-1.0572;
148.5000;0.8897;-1.0572;
148.8000;0.8921;-1.0572;
149.1000;0.8905;-1.0622;
149.4000;0.8816;-1.0821;
149.7000;0.8913;-1.0647;
150.0000;0.8905;-1.0671;
150.3000;0.8897;-1.0746;
150.6000;0.8913;-1.0671;
150.9000;0.8905;-1.0597;
151.2000;0.8881;-1.0597;
151.5000;0.8921;-1.0522;
151.8000;0.8881;-1.0547;
152.1000;0.8913;-1.0547;
152.4000;0.8873;-1.0547;
152.7000;0.8864;-1.0572;
153.0000;0.8889;-1.0572;
153.3000;0.8864;-1.0622;
153.6000;0.8889;-1.0622;
153.9000;0.8905;-1.0597;
154.2000;0.8889;-1.0622;
154.5000;0.8856;-1.0671;
154.8000;0.8905;-1.0597;
155.1000;0.8913;-1.0547;
155.4000;0.8921;-1.0472;
155.7000;0.8905;-1.0472;
156.0000;0.8913;-1.0372;
156.3000;0.8881;-1.0422;
156.6000;0.8889;-1.0397;
156.9000;0.8881;-1.0447;
157.2000;0.8889;-1.0472;
157.5000;0.8848;-1.0472;
157.8000;0.8881;-1.0372;
158.1000;0.8881;-1.0372;
158.4000;0.8897;-1.0372;
158.7000;0.8962;-1.0273;
159.0000;0.8897;-1.0422;
159.3000;0.8905;-1.0472;
159.6000;0.8913;-1.0397;
159.9000;0.8938;-1.0297;
160.2000;0.8913;-1.0397;
160.5000;0.8913;-1.0372;
160.8000;0.8913;-1.0347;
161.1000;0.8897;-1.0347;
161.4000;0.8905;-1.0347;
161.7000;0.8897;-1.0372;
162.0000;0.8905;-1.0322;
162.3000;0.8905;-1.0397;
162.6000;0.8889;-1.0397;
162.9000;0.8913;-1.0397;
163.2000;0.8889;-1.0472;
163.5000;0.8905;-1.0422;
163.8000;0.8889;-1.0422;
164.1000;0.8889;-1.0497;
164.4000;0.8864;-1.0547;
164.7000;0.8889;-1.0447;
165.0000;0.8889;-1.0447;
165.3000;0.8897;-1.0472;
165.6000;0.8905;-1.0447;
165.9000;0.8881;-1.0422;
166.2000;0.8913;-1.0297;
166.5000;0.8897;-1.0397;
166.8000;0.8897;-1.0447;
167.1000;0.8889;-1.0422;
167.4000;0.8954;-1.0322;
167.7000;0.8913;-1.0422;
168.0000;0.8905;-1.0522;
168.3000;0.8897;-1.0547;
168.6000;0.8930;-1.0497;
168.9000;0.8807;-1.0771;
169.2000;0.8905;-1.0572;
169.5000;0.8970;-1.0422;
169.8000;0.8897;-1.0572;
170.1000;0.8962;-1.0397;
170.4000;0.8905;-1.0497;
170.7000;0.8905;-1.0522;
171.0000;0.8905;-1.0597;
171.3000;0.8889;-1.0597;
171.6000;0.8897;-1.0472;
171.9000;0.8897;-1.0522;
172.2000;0.8864;-1.0671;
172.5000;0.8889;-1.0622;
172.8000;0.8889;-1.0671;
173.1000;0.8905;-1.0647;
173.4000;0.8897;-1.0622;
173.7000;0.8840;-1.0796;
174.0000;0.8864;-1.0846;
174.3000;0.8930;-1.0472;
174.6000;0.8921;-1.0472;
174.9000;0.8881;-1.0447;
175.2000;0.8840;-1.0497;
175.5000;0.8864;-1.0447;
175.8000;0.8889;-1.0397;
176.1000;0.8889;-1.0422;
176.4000;0.8848;-1.0522;
176.7000;0.8913;-1.0347;
177.0000;0.8864;-1.0472;
177.3000;0.8840;-1.0671;
177.6000;0.8881;-1.0547;
177.9000;0.8889;-1.0522;
178.2000;0.8848;-1.0522;
178.5000;0.8824;-1.0572;
178.8000;0.8881;-1.0447;
179.1000;0.8889;-1.0422;
179.4000;0.8905;-1.0397;
179.7000;0.8881;-1.0447;
180.0000;0.8897;-1.0422;
180.3000;0.8913;-1.0372;
180.6000;0.8856;-1.0472;
180.9000;0.8905;-1.0347;
181.2000;0.8946;-1.0322;
181.5000;0.8905;-1.0472;
181.8000;0.8913;-1.0347;
182.1000;0.8889;-1.0372;
182.4000;0.8881;-1.0347;
182.7000;0.8889;-1.0397;
183.0000;0.8873;-1.0347;
183.3000;0.8873;-1.0248;
183.6000;0.8881;-1.0248;
183.9000;0.8881;-1.0372;
184.2000;0.8905;-1.0347;
184.5000;0.8889;-1.0422;
184.8000;0.8881;-1.0347;
185.1000;0.8873;-1.0372;
185.4000;0.8889;-1.0347;
185.7000;0.8905;-1.0248;
186.0000;0.8946;-1.0173;
186.3000;0.8897;-1.0273;
186.6000;0.8881;-1.0297;
186.9000;0.8913;-1.0173;
187.2000;0.8840;-1.0297;
187.5000;0.8873;-1.0273;
187.8000;0.8856;-1.0322;
188.1000;0.8881;-1.0273;
188.4000;0.8881;-1.0297;
188.7000;0.8913;-1.0248;
189.0000;0.8873;-1.0322;
189.3000;0.8873;-1.0223;
189.6000;0.8881;-1.0198;
189.9000;0.8897;-1.0123;
190.2000;0.8864;-1.0223;
190.5000;0.8921;-1.0098;
190.8000;0.8881;-1.0248;
191.1000;0.8946;-0.9998;
191.4000;0.8897;-1.0123;
191.7000;0.8930;-1.0148;
192.0000;0.8905;-1.0273;
192.3000;0.8889;-1.0322;
192.6000;0.8889;-1.0372;
192.9000;0.8889;-1.0397;
193.2000;0.8881;-1.0397;
193.5000;0.8897;-1.0372;
193.8000;0.8873;-1.0372;
194.1000;0.8873;-1.0322;
194.4000;0.8873;-1.0322;
194.7000;0.8889;-1.0297;
195.0000;0.8864;-1.0322;
195.3000;0.8873;-1.0248;
195.6000;0.8889;-1.0173;
195.9000;0.8889;-1.0173;
196.2000;0.8881;-1.0248;
196.5000;0.8873;-1.0297;
196.8000;0.8881;-1.0273;
197.1000;0.8897;-1.0248;
197.4000;0.8881;-1.0322;
197.7000;0.8864;-1.0422;
198.0000;0.8864;-1.0422;
198.3000;0.8864;-1.0372;
198.6000;0.8873;-1.0372;
198.9000;0.8897;-1.0322;
199.2000;0.8856;-1.0322;
199.5000;0.8856;-1.0223;
199.8000;0.8856;-1.0173;
200.1000;0.8864;-1.0098;
200.4000;0.8864;-1.0098;
200.7000;0.8856;-1.0123;
201.0000;0.8864;-1.0023;
201.3000;0.8881;-1.0048;
201.6000;0.8881;-0.9948;
201.9000;0.8864;-0.9998;
202.2000;0.8897;-1.0048;
202.5000;0.8881;-1.0148;
202.8000;0.8856;-1.0223;
203.1000;0.8864;-1.0198;
203.4000;0.8881;-1.0248;
203.7000;0.8856;-1.0248;
204.0000;0.8864;-1.0273;
204.3000;0.8864;-1.0273;
204.6000;0.8873;-1.0223;
204.9000;0.8864;-1.0223;
205.2000;0.8930;-0.9998;
205.5000;0.8873;-1.0123;
205.8000;0.8881;-1.0148;
206.1000;0.8864;-1.0123;
206.4000;0.8881;-1.0048;
206.7000;0.8873;-1.0048;
207.0000;0.8864;-1.0073;
207.3000;0.8873;-1.0148;
207.6000;0.8881;-1.0223;
207.9000;0.8873;-1.0347;
208.2000;0.8864;-1.0397;
208.5000;0.8864;-1.0447;
208.8000;0.8856;-1.0497;
209.1000;0.8881;-1.0447;
209.4000;0.8864;-1.0372;
209.7000;0.8864;-1.0248;
210.0000;0.8864;-1.0372;
210.3000;0.8856;-1.0297;
210.6000;0.8864;-1.0297;
210.9000;0.8913;-1.0173;
211.2000;0.8873;-1.0273;
211.5000;0.8856;-1.0297;
211.8000;0.8873;-1.0273;
212.1000;0.8848;-1.0372;
212.4000;0.8824;-1.0422;
212.7000;0.8840;-1.0497;
213.0000;0.8848;-1.0447;
213.3000;0.8856;-1.0397;
213.6000;0.8873;-1.0422;
213.9000;0.8840;-1.0572;
214.2000;0.8824;-1.0547;
214.5000;0.8889;-1.0322;
214.8000;0.8848;-1.0372;
215.1000;0.8864;-1.0422;
215.4000;0.8864;-1.0422;
215.7000;0.8824;-1.0547;
216.0000;0.8864;-1.0497;
216.3000;0.8873;-1.0422;
216.6000;0.8873;-1.0372;
216.9000;0.8864;-1.0347;
217.2000;0.8864;-1.0372;
217.5000;0.8913;-1.0123;
217.8000;0.8864;-1.0273;
218.1000;0.8881;-1.0273;
218.4000;0.8873;-1.0248;
218.7000;0.8856;-1.0198;
219.0000;0.8864;-1.0123;
219.3000;0.8905;-1.0023;
219.6000;0.8856;-1.0223;
219.9000;0.8864;-1.0148;
220.2000;0.8873;-1.0148;
220.5000;0.8848;-1.0173;
220.8000;0.8864;-1.0098;
221.1000;0.8856;-1.0123;
221.4000;0.8856;-1.0198;
221.7000;0.8873;-1.0173;
222.0000;0.8848;-1.0173;
222.3000;0.8856;-1.0248;
222.6000;0.8864;-1.0248;
222.9000;0.8856;-1.0273;
223.2000;0.8856;-1.0422;
223.5000;0.8832;-1.0422;
223.8000;0.8856;-1.0297;
224.1000;0.8848;-1.0297;
224.4000;0.8840;-1.0347;
224.7000;0.8840;-1.0372;
225.0000;0.8840;-1.0248;
225.3000;0.8856;-1.0173;
225.6000;0.8840;-1.0123;
225.9000;0.8832;-1.0123;
226.2000;0.8840;-1.0073;
226.5000;0.8856;-1.0123;
226.8000;0.8840;-1.0173;
227.1000;0.8864;-1.0048;
227.4000;0.8864;-0.9998;
227.7000;0.8873;-0.9948;
228.0000;0.8856;-0.9998;
228.3000;0.8856;-0.9923;
228.6000;0.8873;-0.9948;
228.9000;0.8848;-1.0023;
229.2000;0.8864;-0.9948;
229.5000;0.8864;-0.9899;
229.8000;0.8840;-0.9998;
230.1000;0.8848;-0.9948;
230.4000;0.8873;-0.9799;
230.7000;0.8848;-0.9899;
231.0000;0.8856;-0.9899;
231.3000;0.8856;-0.9948;
231.6000;0.8864;-0.9973;
231.9000;0.8856;-0.9998;
232.2000;0.8848;-0.9998;
232.5000;0.8832;-0.9973;
232.8000;0.8864;-0.9973;
233.1000;0.8848;-1.0073;
233.4000;0.8832;-1.0198;
233.7000;0.8824;-1.0173;
234.0000;0.8840;-1.0098;
234.3000;0.8832;-1.0073;
234.6000;0.8832;-0.9948;
234.9000;0.8832;-0.9899;
235.2000;0.8840;-0.9923;
235.5000;0.8840;-0.9899;
235.8000;0.8840;-0.9874;
236.1000;0.8873;-0.9774;
236.4000;0.8864;-0.9849;
236.7000;0.8856;-0.9899;
237.0000;0.8864;-0.9923;
237.3000;0.8848;-0.9998;
237.6000;0.8816;-1.0223;
237.9000;0.8856;-1.0098;
238.2000;0.8807;-1.0198;
238.5000;0.8824;-1.0148;
238.8000;0.8832;-1.0148;
239.1000;0.8889;-1.0073;
239.4000;0.8840;-1.0123;
239.7000;0.8856;-1.0148;
240.0000;0.8848;-1.0173;
240.3000;0.8848;-1.0048;
240.6000;0.8921;-0.9874;
240.9000;0.8848;-1.0123;
241.2000;0.8832;-1.0173;
241.5000;0.8848;-1.0098;
241.8000;0.8864;-1.0098;
242.1000;0.8856;-1.0098;
242.4000;0.8840;-1.0098;
242.7000;0.8816;-1.0073;
243.0000;0.8848;-1.0148;
243.3000;0.8889;-1.0023;
243.6000;0.8807;-1.0148;
243.9000;0.8840;-1.0098;
244.2000;0.8978;-0.9774;
244.5000;0.8840;-1.0073;
244.8000;0.8832;-0.9973;
245.1000;0.8856;-0.9948;
245.4000;0.8840;-0.9923;
245.7000;0.8824;-0.9923;
246.0000;0.8832;-0.9874;
246.3000;0.8824;-0.9774;
246.6000;0.8816;-0.9874;
246.9000;0.8824;-0.9799;
247.2000;0.8832;-0.9799;
247.5000;0.8840;-0.9799;
247.8000;0.8824;-0.9899;
248.1000;0.8824;-0.9923;
248.4000;0.8848;-0.9899;
248.7000;0.8840;-0.9874;
249.0000;0.8848;-0.9899;
249.3000;0.8816;-0.9923;
249.6000;0.8816;-0.9923;
249.9000;0.8824;-0.9923;
250.2000;0.8816;-0.9923;
250.5000;0.8832;-0.9899;
250.8000;0.8873;-0.9824;
251.1000;0.8840;-0.9874;
251.4000;0.8816;-0.9923;
251.7000;0.8856;-0.9874;
252.0000;0.8889;-0.9874;
252.3000;0.8840;-0.9973;
252.6000;0.8848;-0.9923;
252.9000;0.8840;-0.9874;
253.2000;0.8832;-0.9899;
253.5000;0.8848;-0.9874;
253.8000;0.8864;-0.9824;
254.1000;0.8824;-0.9849;
254.4000;0.8799;-0.9874;
254.7000;0.8816;-0.9973;
255.0000;0.8824;-0.9923;
255.3000;0.8832;-0.9973;
255.6000;0.8889;-0.9799;
255.9000;0.8840;-0.9899;
256.2000;0.8832;-0.9874;
256.5000;0.8824;-0.9923;
256.8000;0.8840;-0.9923;
257.1000;0.8840;-0.9874;
257.4000;0.8816;-0.9973;
257.7000;0.8840;-0.9973;
258.0000;0.8816;-1.0048;
258.3000;0.8848;-0.9998;
258.6000;0.8816;-1.0098;
258.9000;0.8832;-1.0023;
259.2000;0.8840;-0.9948;
259.5000;0.8848;-0.9923;
259.8000;0.8840;-0.9923;
260.1000;0.8832;-0.9948;
260.4000;0.8840;-0.9973;
260.7000;0.8799;-0.9973;
261.0000;0.8824;-0.9899;
261.3000;0.8807;-0.9948;
261.6000;0.8816;-0.9998;
261.9000;0.8848;-0.9899;
262.2000;0.8751;-1.0098;
262.5000;0.8807;-0.9874;
262.8000;0.8840;-0.9649;
263.1000;0.8848;-0.9699;
263.4000;0.8832;-0.9749;
263.7000;0.8881;-0.9674;
264.0000;0.8824;-0.9849;
264.3000;0.8824;-0.9824;
264.6000;0.8807;-0.9849;
264.9000;0.8832;-0.9749;
265.2000;0.8799;-0.9824;
265.5000;0.8807;-0.9874;
265.8000;0.8824;-0.9973;
266.1000;0.8832;-1.0023;
266.4000;0.8848;-1.0048;
266.7000;0.8816;-1.0123;
267.0000;0.8816;-1.0048;
267.3000;0.8840;-0.9923;
267.6000;0.8832;-0.9948;
267.9000;0.8832;-0.9948;
268.2000;0.8775;-1.0023;
268.5000;0.8881;-0.9774;
268.8000;0.8824;-0.9874;
269.1000;0.8824;-0.9973;
269.4000;0.8791;-0.9998;
269.7000;0.8824;-0.9849;
270.0000;0.8840;-0.9799;
270.3000;0.8832;-0.9774;
270.6000;0.8791;-0.9849;
270.9000;0.8816;-0.9774;
271.2000;0.8824;-0.9774;
271.5000;0.8775;-0.9899;
271.8000;0.8799;-0.9874;
272.1000;0.8807;-0.9799;
272.4000;0.8807;-0.9774;
272.7000;0.8807;-0.9674;
273.0000;0.8816;-0.9699;
273.3000;0.8816;-0.9724;
273.6000;0.8832;-0.9724;
273.9000;0.8824;-0.9899;
274.2000;0.8848;-0.9774;
274.5000;0.8807;-0.9874;
274.8000;0.8848;-0.9724;
275.1000;0.8840;-0.9774;
275.4000;0.8816;-0.9749;
275.7000;0.8807;-0.9824;
276.0000;0.8824;-0.9799;
276.3000;0.8824;-0.9849;
276.6000;0.8816;-0.9923;
276.9000;0.8767;-0.9973;
277.2000;0.8807;-0.9899;
277.5000;0.8799;-0.9923;
277.8000;0.8791;-0.9923;
278.1000;0.8816;-0.9899;
278.4000;0.8767;-1.0048;
278.7000;0.8824;-0.9899;
279.0000;0.8832;-0.9899;
279.3000;0.8897;-0.9774;
279.6000;0.8807;-0.9874;
279.9000;0.8824;-0.9874;
280.2000;0.8840;-0.9899;
280.5000;0.8816;-1.0023;
280.8000;0.8816;-1.0073;
281.1000;0.8816;-1.0098;
281.4000;0.8816;-1.0098;
281.7000;0.8816;-1.0073;
282.0000;0.8816;-1.0023;
282.3000;0.8832;-0.9948;
282.6000;0.8807;-1.0023;
282.9000;0.8832;-1.0023;
283.2000;0.8807;-1.0048;
283.5000;0.8824;-0.9998;
283.8000;0.8873;-0.9899;
284.1000;0.8832;-1.0123;
284.4000;0.8856;-1.0023;
284.7000;0.8726;-1.0372;
285.0000;0.8807;-1.0123;
285.3000;0.8807;-1.0123;
285.6000;0.8799;-1.0148;
285.9000;0.8840;-1.0073;
286.2000;0.8897;-0.9874;
286.5000;0.8799;-1.0048;
286.8000;0.8824;-1.0073;
287.1000;0.8816;-1.0098;
287.4000;0.8824;-1.0023;
287.7000;0.8832;-0.9923;
288.0000;0.8832;-0.9973;
288.3000;0.8816;-1.0023;
288.6000;0.8799;-1.0048;
288.9000;0.8799;-0.9973;
289.2000;0.8816;-0.9923;
289.5000;0.8783;-1.0048;
289.8000;0.8816;-1.0048;
290.1000;0.8767;-1.0048;
290.4000;0.8807;-1.0073;
290.7000;0.8759;-1.0198;
291.0000;0.8799;-0.9998;
291.3000;0.8791;-1.0048;
291.6000;0.8807;-1.0048;
291.9000;0.8799;-1.0098;
292.2000;0.8791;-1.0148;
292.5000;0.8799;-1.0073;
292.8000;0.8824;-1.0073;
293.1000;0.8799;-1.0098;
293.4000;0.8783;-1.0073;
293.7000;0.8807;-1.0073;
294.0000;0.8799;-1.0073;
294.3000;0.8775;-1.0198;
294.6000;0.8799;-1.0273;
294.9000;0.8783;-1.0297;
295.2000;0.8824;-1.0273;
295.5000;0.8816;-1.0223;
295.8000;0.8807;-1.0173;
296.1000;0.8799;-1.0173;
296.4000;0.8783;-1.0273;
296.7000;0.8799;-1.0223;
297.0000;0.8799;-1.0297;
297.3000;0.8783;-1.0248;
297.6000;0.8799;-1.0198;
297.9000;0.8807;-1.0248;
298.2000;0.8807;-1.0223;
298.5000;0.8799;-1.0297;
298.8000;0.8824;-1.0273;
299.1000;0.8799;-1.0273;
299.4000;0.8824;-1.0223;
299.7000;0.8799;-1.0347;
300.0000;0.8791;-1.0447;
300.3000;0.8816;-1.0322;
300.6000;0.8816;-1.0347;
300.9000;0.8807;-1.0347;
301.2000;0.8767;-1.0397;
301.5000;0.8824;-1.0397;
301.8000;0.8767;-1.0397;
302.1000;0.8807;-1.0372;
302.4000;0.8816;-1.0397;
302.7000;0.8791;-1.0397;
303.0000;0.8816;-1.0397;
303.3000;0.8807;-1.0347;
303.6000;0.8783;-1.0397;
303.9000;0.8791;-1.0273;
304.2000;0.8783;-1.0248;
304.5000;0.8816;-1.0123;
304.8000;0.8799;-1.0098;
305.1000;0.8807;-1.0148;
305.4000;0.8807;-1.0198;
305.7000;0.8807;-1.0322;
306.0000;0.8807;-1.0347;
306.3000;0.8791;-1.0322;
306.6000;0.8718;-1.0522;
306.9000;0.8783;-1.0372;
307.2000;0.8799;-1.0347;
307.5000;0.8807;-1.0322;
307.8000;0.8742;-1.0572;
308.1000;0.8791;-1.0422;
308.4000;0.8759;-1.0522;
308.7000;0.8742;-1.0397;
309.0000;0.8799;-1.0297;
309.3000;0.8791;-1.0273;
309.6000;0.8807;-1.0173;
309.9000;0.8799;-1.0198;
310.2000;0.8807;-1.0248;
310.5000;0.8791;-1.0297;
310.8000;0.8791;-1.0297;
311.1000;0.8799;-1.0223;
311.4000;0.8791;-1.0273;
311.7000;0.8783;-1.0297;
312.0000;0.8791;-1.0397;
312.3000;0.8775;-1.0447;
312.6000;0.8816;-1.0322;
312.9000;0.8799;-1.0297;
313.2000;0.8783;-1.0397;
313.5000;0.8791;-1.0397;
313.8000;0.8791;-1.0372;
314.1000;0.8799;-1.0397;
314.4000;0.8791;-1.0347;
314.7000;0.8791;-1.0397;
315.0000;0.8775;-1.0472;
315.3000;0.8775;-1.0447;
315.6000;0.8799;-1.0372;
315.9000;0.8767;-1.0397;
316.2000;0.8864;-1.0173;
316.5000;0.8791;-1.0297;
316.8000;0.8783;-1.0372;
317.1000;0.8807;-1.0322;
317.4000;0.8807;-1.0297;
317.7000;0.8791;-1.0322;
318.0000;0.8799;-1.0223;
318.3000;0.8791;-1.0198;
318.6000;0.8807;-1.0148;
318.9000;0.8791;-1.0173;
319.2000;0.8799;-1.0198;
319.5000;0.8799;-1.0223;
319.8000;0.8775;-1.0273;
320.1000;0.8791;-1.0173;
320.4000;0.8783;-1.0297;
320.7000;0.8791;-1.0322;
321.0000;0.8799;-1.0273;
321.3000;0.8783;-1.0223;
321.6000;0.8783;-1.0148;
321.9000;0.8799;-1.0098;
322.2000;0.8783;-1.0098;
322.5000;0.8791;-1.0098;
322.8000;0.8824;-1.0098;
323.1000;0.8759;-1.0422;
323.4000;0.8799;-1.0347;
323.7000;0.8791;-1.0322;
324.0000;0.8734;-1.0422;
324.3000;0.8799;-1.0223;
324.6000;0.8710;-1.0347;
324.9000;0.8791;-1.0048;
325.2000;0.8767;-1.0073;
325.5000;0.8791;-1.0023;
325.8000;0.8807;-0.9923;
326.1000;0.8799;-0.9998;
326.4000;0.8791;-0.9973;
326.7000;0.8799;-0.9973;
327.0000;0.8734;-1.0148;
327.3000;0.8799;-1.0098;
327.6000;0.8783;-1.0198;
327.9000;0.8767;-1.0322;
328.2000;0.8791;-1.0422;
328.5000;0.8783;-1.0422;
328.8000;0.8816;-1.0347;
329.1000;0.8775;-1.0447;
329.4000;0.8783;-1.0297;
329.7000;0.8799;-1.0148;
330.0000;0.8783;-1.0173;
330.3000;0.8791;-1.0123;
330.6000;0.8783;-1.0148;
330.9000;0.8807;-1.0073;
331.2000;0.8791;-1.0123;
331.5000;0.8751;-1.0297;
331.8000;0.8759;-1.0223;
332.1000;0.8783;-1.0223;
332.4000;0.8832;-1.0048;
332.7000;0.8783;-1.0173;
333.0000;0.8775;-1.0248;
333.3000;0.8799;-1.0248;
333.6000;0.8742;-1.0248;
333.9000;0.8791;-1.0173;
334.2000;0.8775;-1.0198;
334.5000;0.8775;-1.0223;
334.8000;0.8775;-1.0173;
335.1000;0.8783;-1.0123;
335.4000;0.8775;-1.0098;
335.7000;0.8767;-1.0148;
336.0000;0.8718;-1.0322;
336.3000;0.8767;-1.0248;
336.6000;0.8783;-1.0198;
336.9000;0.8767;-1.0223;
337.2000;0.8783;-1.0123;
337.5000;0.8775;-1.0198;
337.8000;0.8799;-1.0198;
338.1000;0.8775;-1.0198;
338.4000;0.8759;-1.0223;
338.7000;0.8718;-1.0347;
339.0000;0.8783;-1.0173;
339.3000;0.8759;-1.0173;
339.6000;0.8710;-1.0297;
339.9000;0.8791;-1.0148;
340.2000;0.8783;-1.0173;
340.5000;0.8783;-1.0023;
340.8000;0.8783;-1.0098;
341.1000;0.8791;-1.0098;
341.4000;0.8791;-1.0123;
341.7000;0.8799;-1.0048;
342.0000;0.8791;-1.0023;
342.3000;0.8783;-0.9998;
342.6000;0.8799;-1.0023;
342.9000;0.8775;-1.0098;
343.2000;0.8775;-1.0073;
343.5000;0.8775;-0.9899;
343.8000;0.8759;-0.9973;
344.1000;0.8791;-0.9998;
344.4000;0.8799;-0.9923;
344.7000;0.8718;-1.0148;
345.0000;0.8775;-1.0048;
345.3000;0.8791;-0.9948;
345.6000;0.8775;-1.0148;
345.9000;0.8783;-1.0098;
346.2000;0.8799;-1.0123;
346.5000;0.8726;-1.0297;
346.8000;0.8767;-1.0148;
347.1000;0.8775;-1.0123;
347.4000;0.8775;-1.0023;
347.7000;0.8718;-1.0123;
348.0000;0.8775;-0.9998;
348.3000;0.8767;-1.0098;
348.6000;0.8816;-0.9998;
348.9000;0.8783;-1.0098;
349.2000;0.8775;-1.0098;
349.5000;0.8767;-1.0173;
349.8000;0.8742;-1.0273;
350.1000;0.8767;-1.0048;
350.4000;0.8791;-0.9998;
350.7000;0.8767;-0.9923;
351.0000;0.8775;-0.9948;
351.3000;0.8759;-0.9998;
351.6000;0.8799;-0.9923;
351.9000;0.8767;-1.0048;
352.2000;0.8775;-1.0098;
352.5000;0.8807;-0.9948;
352.8000;0.8767;-1.0048;
353.1000;0.8767;-1.0048;
353.4000;0.8742;-1.0148;
353.7000;0.8751;-1.0123;
354.0000;0.8759;-1.0048;
354.3000;0.8759;-1.0048;
354.6000;0.8767;-1.0123;
354.9000;0.8759;-1.0198;
355.2000;0.8775;-1.0198;
355.5000;0.8734;-1.0198;
355.8000;0.8783;-1.0048;
356.1000;0.8759;-1.0073;
356.4000;0.8775;-1.0023;
356.7000;0.8775;-0.9973;
357.0000;0.8767;-0.9923;
357.3000;0.8775;-0.9948;
357.6000;0.8775;-0.9923;
357.9000;0.8767;-0.9973;
358.2000;0.8775;-1.0023;
358.5000;0.8767;-1.0048;
358.8000;0.8775;-0.9948;
359.1000;0.8759;-0.9948;
359.4000;0.8775;-0.9973;
359.7000;0.8726;-1.0123;
360.0000;0.8767;-1.0048;
360.3000;0.8840;-0.9824;
360.6000;0.8807;-0.9923;
360.9000;0.8775;-0.9998;
361.2000;0.8726;-1.0148;
361.5000;0.8742;-1.0123;
361.8000;0.8751;-1.0098;
362.1000;0.8742;-1.0223;
362.4000;0.8734;-1.0198;
362.7000;0.8734;-1.0098;
363.0000;0.8759;-1.0098;
363.3000;0.8751;-1.0173;
363.6000;0.8783;-1.0048;
363.9000;0.8767;-0.9998;
364.2000;0.8742;-1.0098;
364.5000;0.8751;-1.0073;
364.8000;0.8759;-1.0048;
365.1000;0.8775;-1.0023;
365.4000;0.8767;-0.9998;
365.7000;0.8685;-1.0223;
366.0000;0.8775;-1.0048;
366.3000;0.8767;-1.0098;
366.6000;0.8742;-1.0223;
366.9000;0.8775;-1.0098;
367.2000;0.8832;-0.9923;
367.5000;0.8751;-1.0123;
367.8000;0.8807;-0.9973;
368.1000;0.8759;-1.0098;
368.4000;0.8807;-0.9923;
368.7000;0.8775;-0.9998;
369.0000;0.8759;-1.0098;
369.3000;0.8783;-0.9998;
369.6000;0.8775;-1.0073;
369.9000;0.8775;-1.0098;
370.2000;0.8734;-1.0198;
370.5000;0.8783;-0.9923;
370.8000;0.8767;-0.9923;
371.1000;0.8767;-0.9899;
371.4000;0.8767;-0.9874;
371.7000;0.8799;-0.9749;
372.0000;0.8759;-0.9849;
372.3000;0.8767;-0.9824;
372.6000;0.8759;-0.9749;
372.9000;0.8734;-0.9824;
373.2000;0.8710;-0.9948;
373.5000;0.8767;-0.9824;
373.8000;0.8759;-0.9824;
374.1000;0.8726;-0.9899;
374.4000;0.8759;-0.9824;
374.7000;0.8751;-0.9923;
375.0000;0.8751;-0.9799;
375.3000;0.8734;-0.9849;
375.6000;0.8742;-0.9774;
375.9000;0.8767;-0.9699;
376.2000;0.8767;-0.9749;
376.5000;0.8718;-0.9899;
376.8000;0.8767;-0.9849;
377.1000;0.8767;-0.9774;
377.4000;0.8767;-0.9699;
377.7000;0.8759;-0.9674;
378.0000;0.8751;-0.9649;
378.3000;0.8669;-0.9774;
378.6000;0.8742;-0.9549;
378.9000;0.8742;-0.9549;
379.2000;0.8694;-0.9599;
379.5000;0.8824;-0.9325;
379.8000;0.8832;-0.9450;
380.1000;0.8783;-0.9574;
380.4000;0.8799;-0.9500;
380.7000;0.8759;-0.9624;
381.0000;0.8742;-0.9674;
381.3000;0.8816;-0.9525;
381.6000;0.8726;-0.9774;
381.9000;0.8759;-0.9574;
382.2000;0.8759;-0.9624;
382.5000;0.8767;-0.9599;
382.8000;0.8759;-0.9749;
383.1000;0.8677;-0.9973;
383.4000;0.8767;-0.9948;
383.7000;0.8751;-1.0098;
384.0000;0.8759;-1.0048;
384.3000;0.8759;-1.0098;
384.6000;0.8767;-1.0023;
384.9000;0.8759;-1.0073;
385.2000;0.8751;-1.0073;
385.5000;0.8751;-1.0023;
385.8000;0.8751;-0.9874;
386.1000;0.8751;-0.9874;
386.4000;0.8759;-0.9749;
386.7000;0.8702;-0.9923;
387.0000;0.8742;-0.9774;
387.3000;0.8669;-0.9923;
387.6000;0.8726;-0.9824;
387.9000;0.8734;-0.9799;
388.2000;0.8710;-0.9849;
388.5000;0.8734;-0.9799;
388.8000;0.8742;-0.9774;
389.1000;0.8759;-0.9774;
389.4000;0.8751;-0.9824;
389.7000;0.8759;-0.9849;
390.0000;0.8783;-0.9824;
390.3000;0.8791;-0.9799;
390.6000;0.8751;-0.9824;
390.9000;0.8742;-0.9799;
391.2000;0.8759;-0.9799;
391.5000;0.8759;-0.9923;
391.8000;0.8710;-0.9998;
392.1000;0.8694;-1.0148;
392.4000;0.8751;-0.9923;
392.7000;0.8783;-0.9774;
393.0000;0.8816;-0.9724;
393.3000;0.8742;-0.9948;
393.6000;0.8767;-0.9899;
393.9000;0.8759;-0.9899;
394.2000;0.8734;-0.9948;
394.5000;0.8751;-0.9824;
394.8000;0.8734;-0.9899;
395.1000;0.8751;-0.9849;
395.4000;0.8767;-0.9774;
395.7000;0.8759;-0.9749;
396.0000;0.8807;-0.9574;
396.3000;0.8751;-0.9724;
396.6000;0.8726;-0.9874;
396.9000;0.8759;-0.9799;
397.2000;0.8718;-0.9874;
397.5000;0.8751;-0.9724;
397.8000;0.8824;-0.9574;
398.1000;0.8759;-0.9799;
398.4000;0.8767;-0.9849;
398.7000;0.8734;-0.9948;
399.0000;0.8751;-0.9899;
399.3000;0.8751;-0.9923;
399.6000;0.8734;-0.9973;
399.9000;0.8832;-0.9674;
400.2000;0.8694;-1.0073;
400.5000;0.8742;-0.9923;
400.8000;0.8767;-0.9774;
401.1000;0.8734;-0.9824;
401.4000;0.8726;-0.9849;
401.7000;0.8751;-0.9874;
402.0000;0.8726;-0.9973;
402.3000;0.8718;-0.9899;
402.6000;0.8751;-0.9799;
402.9000;0.8816;-0.9699;
403.2000;0.8734;-0.9874;
403.5000;0.8751;-0.9824;
403.8000;0.8751;-0.9799;
404.1000;0.8734;-0.9824;
404.4000;0.8742;-0.9874;
404.7000;0.8742;-0.9774;
405.0000;0.8734;-0.9824;
405.3000;0.8628;-1.0123;
405.6000;0.8807;-0.9774;
405.9000;0.8734;-0.9923;
406.2000;0.8751;-0.9874;
406.5000;0.8751;-0.9774;
406.8000;0.8759;-0.9724;
407.1000;0.8710;-0.9849;
407.4000;0.8759;-0.9749;
407.7000;0.8767;-0.9649;
408.0000;0.8759;-0.9649;
408.3000;0.8742;-0.9699;
408.6000;0.8742;-0.9749;
408.9000;0.8742;-0.9824;
409.2000;0.8734;-0.9824;
409.5000;0.8751;-0.9824;
409.8000;0.8742;-0.9849;
410.1000;0.8751;-0.9824;
410.4000;0.8742;-0.9874;
410.7000;0.8759;-0.9774;
411.0000;0.8718;-0.9948;
411.3000;0.8734;-0.9899;
411.6000;0.8759;-0.9824;
411.9000;0.8759;-0.9849;
412.2000;0.8734;-0.9899;
412.5000;0.8726;-0.9973;
412.8000;0.8742;-0.9998;
413.1000;0.8694;-1.0148;
413.4000;0.8734;-1.0073;
413.7000;0.8742;-1.0148;
414.0000;0.8710;-1.0173;
414.3000;0.8742;-1.0073;
414.6000;0.8726;-1.0048;
414.9000;0.8832;-0.9799;
415.2000;0.8718;-0.9973;
415.5000;0.8775;-0.9749;
415.8000;0.8645;-1.0048;
416.1000;0.8742;-0.9774;
416.4000;0.8726;-0.9774;
416.7000;0.8718;-0.9899;
417.0000;0.8767;-0.9724;
417.3000;0.8726;-0.9874;
417.6000;0.8742;-0.9749;
417.9000;0.8742;-0.9699;
418.2000;0.8751;-0.9674;
418.5000;0.8759;-0.9574;
418.8000;0.8734;-0.9674;
419.1000;0.8702;-0.9649;
419.4000;0.8718;-0.9674;
419.7000;0.8742;-0.9649;
420.0000;0.8734;-0.9724;
420.3000;0.8742;-0.9649;
420.6000;0.8751;-0.9724;
420.9000;0.8775;-0.9824;
421.2000;0.8799;-0.9899;
421.5000;0.8783;-0.9973;
421.8000;0.8726;-1.0048;
422.1000;0.8742;-0.9849;
422.4000;0.8783;-0.9724;
422.7000;0.8759;-0.9824;
423.0000;0.8734;-0.9899;
423.3000;0.8799;-0.9699;
423.6000;0.8767;-0.9724;
423.9000;0.8742;-0.9874;
424.2000;0.8734;-0.9799;
424.5000;0.8734;-0.9849;
424.8000;0.8710;-0.9948;
425.1000;0.8726;-0.9874;
425.4000;0.8726;-0.9899;
425.7000;0.8751;-0.9824;
426.0000;0.8718;-0.9948;
426.3000;0.8734;-0.9824;
426.6000;0.8726;-0.9849;
426.9000;0.8718;-0.9923;
427.2000;0.8726;-0.9849;
427.5000;0.8742;-0.9774;
427.8000;0.8734;-0.9824;
428.1000;0.8751;-0.9824;
428.4000;0.8742;-0.9824;
428.7000;0.8742;-0.9774;
429.0000;0.8734;-0.9824;
429.3000;0.8734;-0.9724;
429.6000;0.8742;-0.9674;
429.9000;0.8726;-0.9749;
430.2000;0.8694;-0.9998;
430.5000;0.8759;-0.9849;
430.8000;0.8742;-0.9899;
431.1000;0.8734;-0.9874;
431.4000;0.8726;-0.9774;
431.7000;0.8710;-0.9849;
432.0000;0.8726;-0.9749;
432.3000;0.8734;-0.9774;
432.6000;0.8726;-0.9749;
432.9000;0.8734;-0.9799;
433.2000;0.8734;-0.9824;
433.5000;0.8734;-0.9874;
433.8000;0.8718;-0.9948;
434.1000;0.8742;-0.9799;
434.4000;0.8734;-0.9849;
434.7000;0.8734;-0.9774;
435.0000;0.8726;-0.9824;
435.3000;0.8710;-0.9899;
435.6000;0.8718;-0.9824;
435.9000;0.8718;-0.9849;
436.2000;0.8726;-0.9899;
436.5000;0.8710;-0.9948;
436.8000;0.8726;-0.9849;
437.1000;0.8734;-0.9774;
437.4000;0.8742;-0.9774;
437.7000;0.8718;-0.9849;
438.0000;0.8726;-0.9923;
438.3000;0.8751;-0.9849;
438.6000;0.8669;-0.9973;
438.9000;0.8734;-0.9774;
439.2000;0.8726;-0.9774;
439.5000;0.8677;-0.9824;
439.8000;0.8685;-0.9824;
440.1000;0.8726;-0.9774;
440.4000;0.8710;-0.9749;
440.7000;0.8694;-0.9948;
441.0000;0.8726;-0.9849;
441.3000;0.8694;-0.9899;
441.6000;0.8718;-0.9799;
441.9000;0.8710;-0.9899;
442.2000;0.8718;-0.9824;
442.5000;0.8726;-0.9724;
442.8000;0.8702;-0.9824;
443.1000;0.8734;-0.9749;
443.4000;0.8742;-0.9699;
443.7000;0.8718;-0.9649;
444.0000;0.8726;-0.9649;
444.3000;0.8726;-0.9649;
444.6000;0.8742;-0.9574;
444.9000;0.8751;-0.9674;
445.2000;0.8734;-0.9774;
445.5000;0.8742;-0.9724;
445.8000;0.8775;-0.9574;
446.1000;0.8710;-0.9799;
446.4000;0.8702;-0.9849;
446.7000;0.8726;-0.9799;
447.0000;0.8702;-0.9774;
447.3000;0.8718;-0.9699;
447.6000;0.8710;-0.9749;
447.9000;0.8718;-0.9674;
448.2000;0.8718;-0.9749;
448.5000;0.8710;-0.9699;
448.8000;0.8718;-0.9599;
449.1000;0.8726;-0.9649;
449.4000;0.8742;-0.9624;
449.7000;0.8734;-0.9674;
450.0000;0.8742;-0.9749;
450.3000;0.8734;-0.9849;
450.6000;0.8718;-0.9948;
450.9000;0.8718;-1.0023;
451.2000;0.8734;-0.9923;
451.5000;0.8726;-0.9899;
451.8000;0.8726;-0.9874;
452.1000;0.8718;-0.9874;
452.4000;0.8710;-0.9973;
452.7000;0.8734;-0.9973;
453.0000;0.8677;-1.0173;
453.3000;0.8718;-1.0048;
453.6000;0.8751;-1.0023;
453.9000;0.8742;-0.9923;
454.2000;0.8734;-0.9948;
454.5000;0.8734;-0.9973;
454.8000;0.8718;-0.9948;
455.1000;0.8734;-0.9849;
455.4000;0.8726;-0.9948;
455.7000;0.8726;-0.9923;
456.0000;0.8726;-0.9948;
456.3000;0.8726;-0.9923;
456.6000;0.8661;-1.0023;
456.9000;0.8718;-0.9948;
457.2000;0.8726;-0.9973;
457.5000;0.8751;-0.9849;
457.8000;0.8734;-0.9824;
458.1000;0.8710;-0.9874;
458.4000;0.8718;-0.9824;
458.7000;0.8726;-0.9824;
459.0000;0.8742;-0.9799;
459.3000;0.8751;-0.9749;
459.6000;0.8694;-0.9899;
459.9000;0.8718;-0.9849;
460.2000;0.8718;-0.9849;
460.5000;0.8726;-0.9849;
460.8000;0.8718;-0.9874;
461.1000;0.8702;-0.9948;
461.4000;0.8702;-0.9923;
461.7000;0.8742;-0.9824;
462.0000;0.8718;-0.9824;
462.3000;0.8742;-0.9774;
462.6000;0.8710;-0.9799;
462.9000;0.8718;-0.9774;
463.2000;0.8718;-0.9849;
463.5000;0.8710;-0.9874;
463.8000;0.8759;-0.9724;
464.1000;0.8726;-0.9774;
464.4000;0.8710;-0.9749;
464.7000;0.8710;-0.9749;
465.0000;0.8718;-0.9799;
465.3000;0.8759;-0.9874;
465.6000;0.8734;-0.9899;
465.9000;0.8726;-0.9849;
466.2000;0.8710;-0.9923;
466.5000;0.8710;-0.9899;
466.8000;0.8718;-0.9849;
467.1000;0.8710;-0.9923;
467.4000;0.8734;-0.9824;
467.7000;0.8718;-0.9874;
468.0000;0.8734;-0.9874;
468.3000;0.8734;-0.9824;
468.6000;0.8742;-0.9749;
468.9000;0.8726;-0.9774;
469.2000;0.8734;-0.9674;
469.5000;0.8734;-0.9574;
469.8000;0.8710;-0.9624;
470.1000;0.8710;-0.9599;
470.4000;0.8759;-0.9574;
470.7000;0.8726;-0.9774;
471.0000;0.8702;-0.9824;
471.3000;0.8734;-0.9799;
471.6000;0.8726;-0.9923;
471.9000;0.8718;-1.0023;
472.2000;0.8726;-1.0048;
472.5000;0.8710;-1.0048;
472.8000;0.8726;-1.0048;
473.1000;0.8718;-0.9948;
473.4000;0.8710;-0.9973;
473.7000;0.8718;-0.9973;
474.0000;0.8710;-0.9998;
474.3000;0.8718;-0.9973;
474.6000;0.8718;-0.9973;
474.9000;0.8710;-0.9899;
475.2000;0.8694;-0.9874;
475.5000;0.8767;-0.9699;
475.8000;0.8718;-0.9849;
476.1000;0.8710;-0.9874;
476.4000;0.8718;-0.9849;
476.7000;0.8734;-0.9874;
477.0000;0.8710;-0.9899;
477.3000;0.8734;-0.9849;
477.6000;0.8694;-0.9849;
477.9000;0.8702;-0.9724;
478.2000;0.8734;-0.9649;
478.5000;0.8710;-0.9649;
478.8000;0.8718;-0.9574;
479.1000;0.8718;-0.9624;
479.4000;0.8710;-0.9649;
479.7000;0.8824;-0.9250;
480.0000;0.8718;-0.9574;
480.3000;0.8734;-0.9599;
480.6000;0.8718;-0.9549;
480.9000;0.8718;-0.9549;
481.2000;0.8702;-0.9624;
481.5000;0.8645;-0.9799;
481.8000;0.8718;-0.9649;
482.1000;0.8702;-0.9699;
482.4000;0.8702;-0.9599;
482.7000;0.8710;-0.9649;
483.0000;0.8710;-0.9599;
483.3000;0.8718;-0.9674;
483.6000;0.8685;-0.9749;
483.9000;0.8702;-0.9824;
484.2000;0.8799;-0.9549;
484.5000;0.8718;-0.9724;
484.8000;0.8702;-0.9774;
485.1000;0.8710;-0.9749;
485.4000;0.8718;-0.9724;
485.7000;0.8726;-0.9649;
486.0000;0.8710;-0.9624;
486.3000;0.8694;-0.9599;
486.6000;0.8726;-0.9674;
486.9000;0.8726;-0.9649;
487.2000;0.8718;-0.9649;
487.5000;0.8710;-0.9649;
487.8000;0.8710;-0.9699;
488.1000;0.8710;-0.9649;
488.4000;0.8580;-1.0023;
488.7000;0.8726;-0.9749;
489.0000;0.8710;-0.9824;
489.3000;0.8677;-0.9948;
489.6000;0.8734;-0.9849;
489.9000;0.8710;-0.9899;
490.2000;0.8718;-0.9849;
490.5000;0.8718;-0.9849;
490.8000;0.8718;-0.9724;
491.1000;0.8734;-0.9699;
491.4000;0.8718;-0.9724;
491.7000;0.8685;-0.9849;
492.0000;0.8726;-0.9749;
492.3000;0.8767;-0.9649;
492.6000;0.8710;-0.9699;
492.9000;0.8799;-0.9500;
493.2000;0.8734;-0.9774;
493.5000;0.8718;-0.9849;
493.8000;0.8710;-0.9923;
494.1000;0.8734;-0.9899;
494.4000;0.8767;-0.9749;
494.7000;0.8694;-0.9948;
495.0000;0.8718;-0.9849;
495.3000;0.8710;-0.9948;
495.6000;0.8702;-0.9998;
495.9000;0.8799;-0.9849;
496.2000;0.8726;-1.0098;
496.5000;0.8694;-1.0123;
496.8000;0.8718;-0.9998;
497.1000;0.8718;-0.9899;
497.4000;0.8718;-0.9948;
497.7000;0.8710;-0.9899;
498.0000;0.8718;-0.9849;
498.3000;0.8718;-0.9923;
498.6000;0.8718;-0.9849;
498.9000;0.8710;-0.9849;
499.2000;0.8694;-0.9849;
499.5000;0.8718;-0.9749;
499.8000;0.8702;-0.9724;
500.1000;0.8661;-0.9923;
500.4000;0.8718;-0.9749;
500.7000;0.8718;-0.9799;
501.0000;0.8718;-0.9874;
501.3000;0.8734;-0.9799;
501.6000;0.8726;-0.9724;
501.9000;0.8734;-0.9774;
502.2000;0.8775;-0.9574;
502.5000;0.8702;-0.9674;
502.8000;0.8702;-0.9674;
503.1000;0.8710;-0.9599;
503.4000;0.8718;-0.9599;
503.7000;0.8685;-0.9624;
504.0000;0.8685;-0.9649;
504.3000;0.8694;-0.9699;
504.6000;0.8694;-0.9674;
504.9000;0.8694;-0.9649;
505.2000;0.8685;-0.9699;
505.5000;0.8612;-0.9874;
505.8000;0.8685;-0.9774;
506.1000;0.8718;-0.9749;
506.4000;0.8677;-0.9849;
506.7000;0.8685;-0.9774;
507.0000;0.8669;-0.9849;
507.3000;0.8718;-0.9724;
507.6000;0.8702;-0.9874;
507.9000;0.8694;-0.9874;
508.2000;0.8718;-0.9774;
508.5000;0.8710;-0.9724;
508.8000;0.8775;-0.9525;
509.1000;0.8702;-0.9699;
509.4000;0.8685;-0.9774;
509.7000;0.8677;-0.9948;
510.0000;0.8718;-0.9923;
510.3000;0.8702;-0.9923;
510.6000;0.8718;-0.9923;
510.9000;0.8742;-0.9923;
511.2000;0.8710;-0.9948;
511.5000;0.8734;-0.9824;
511.8000;0.8718;-0.9899;
512.1000;0.8742;-0.9824;
512.4000;0.8661;-0.9998;
512.7000;0.8783;-0.9724;
513.0000;0.8710;-0.9923;
513.3000;0.8710;-0.9948;
513.6000;0.8775;-0.9774;
513.9000;0.8694;-0.9948;
514.2000;0.8685;-1.0048;
514.5000;0.8710;-1.0023;
514.8000;0.8669;-1.0048;
515.1000;0.8702;-0.9973;
515.4000;0.8645;-1.0148;
515.7000;0.8710;-1.0073;
516.0000;0.8694;-1.0123;
516.3000;0.8759;-0.9899;
516.6000;0.8726;-0.9948;
516.9000;0.8718;-1.0048;
517.2000;0.8694;-1.0048;
517.5000;0.8685;-1.0098;
517.8000;0.8645;-1.0248;
518.1000;0.8710;-1.0073;
518.4000;0.8677;-1.0073;
518.7000;0.8669;-0.9973;
519.0000;0.8694;-0.9948;
519.3000;0.8718;-0.9874;
519.6000;0.8718;-0.9799;
519.9000;0.8694;-0.9874;
520.2000;0.8718;-0.9874;
520.5000;0.8734;-0.9874;
520.8000;0.8694;-0.9849;
521.1000;0.8702;-0.9849;
521.4000;0.8702;-0.9849;
521.7000;0.8685;-0.9824;
522.0000;0.8718;-0.9724;
522.3000;0.8694;-0.9799;
522.6000;0.8718;-0.9749;
522.9000;0.8710;-0.9749;
523.2000;0.8702;-0.9724;
523.5000;0.8685;-0.9849;
523.8000;0.8669;-0.9923;
524.1000;0.8718;-0.9824;
524.4000;0.8694;-0.9899;
524.7000;0.8702;-0.9973;
525.0000;0.8702;-0.9899;
525.3000;0.8710;-0.9899;
525.6000;0.8710;-0.9899;
525.9000;0.8702;-0.9874;
526.2000;0.8702;-0.9874;
526.5000;0.8694;-0.9774;
526.8000;0.8718;-0.9699;
527.1000;0.8685;-0.9699;
527.4000;0.8710;-0.9724;
527.7000;0.8685;-0.9774;
528.0000;0.8702;-0.9824;
528.3000;0.8677;-0.9948;
528.6000;0.8702;-0.9899;
528.9000;0.8677;-0.9923;
529.2000;0.8751;-0.9774;
529.5000;0.8726;-0.9923;
529.8000;0.8702;-0.9899;
530.1000;0.8702;-0.9923;
530.4000;0.8702;-0.9948;
530.7000;0.8718;-1.0023;
531.0000;0.8661;-1.0198;
531.3000;0.8694;-1.0123;
531.6000;0.8775;-0.9923;
531.9000;0.8694;-1.0173;
532.2000;0.8710;-0.9973;
532.5000;0.8669;-1.0098;
532.8000;0.8669;-0.9998;
533.1000;0.8710;-0.9948;
533.4000;0.8694;-0.9948;
533.7000;0.8694;-0.9874;
534.0000;0.8767;-0.9674;
534.3000;0.8718;-0.9849;
534.6000;0.8751;-0.9948;
534.9000;0.8685;-1.0073;
535.2000;0.8669;-1.0123;
535.5000;0.8661;-1.0173;
535.8000;0.8710;-1.0123;
536.1000;0.8710;-1.0098;
536.4000;0.8702;-1.0048;
536.7000;0.8694;-1.0073;
537.0000;0.8726;-0.9899;
537.3000;0.8710;-0.9923;
537.6000;0.8694;-1.0048;
537.9000;0.8685;-0.9948;
538.2000;0.8677;-0.9973;
538.5000;0.8694;-0.9923;
538.8000;0.8694;-0.9973;
539.1000;0.8702;-0.9998;
539.4000;0.8669;-1.0148;
539.7000;0.8710;-1.0048;
540.0000;0.8694;-1.0123;
540.3000;0.8702;-1.0073;
540.6000;0.8710;-1.0023;
540.9000;0.8702;-1.0098;
541.2000;0.8685;-1.0023;
541.5000;0.8702;-0.9948;
541.8000;0.8661;-1.0023;
542.1000;0.8694;-0.9948;
542.4000;0.8685;-0.9948;
542.7000;0.8694;-0.9874;
543.0000;0.8669;-0.9973;
543.3000;0.8734;-0.9774;
543.6000;0.8685;-0.9948;
543.9000;0.8685;-0.9973;
544.2000;0.8694;-0.9899;
544.5000;0.8685;-0.9899;
544.8000;0.8694;-0.9874;
545.1000;0.8661;-0.9948;
545.4000;0.8710;-0.9874;
545.7000;0.8710;-0.9824;
546.0000;0.8710;-0.9849;
546.3000;0.8702;-0.9948;
546.6000;0.8710;-0.9923;
546.9000;0.8710;-0.9874;
547.2000;0.8710;-0.9799;
547.5000;0.8669;-0.9874;
547.8000;0.8702;-0.9749;
548.1000;0.8685;-0.9849;
548.4000;0.8710;-0.9874;
548.7000;0.8685;-0.9899;
549.0000;0.8645;-0.9998;
549.3000;0.8702;-0.9874;
549.6000;0.8694;-0.9824;
549.9000;0.8710;-0.9799;
550.2000;0.8702;-0.9774;
550.5000;0.8685;-0.9824;
550.8000;0.8694;-0.9874;
551.1000;0.8702;-0.9899;
551.4000;0.8694;-0.9874;
551.7000;0.8710;-0.9923;
552.0000;0.8694;-1.0048;
552.3000;0.8710;-1.0048;
552.6000;0.8685;-1.0048;
552.9000;0.8677;-1.0148;
553.2000;0.8710;-1.0023;
553.5000;0.8726;-0.9948;
553.8000;0.8685;-0.9948;
554.1000;0.8702;-0.9899;
554.4000;0.8677;-0.9849;
554.7000;0.8677;-0.9874;
555.0000;0.8669;-1.0023;
555.3000;0.8759;-0.9749;
555.6000;0.8694;-1.0023;
555.9000;0.8620;-1.0123;
556.2000;0.8685;-0.9973;
556.5000;0.8710;-0.9899;
556.8000;0.8596;-1.0148;
557.1000;0.8726;-0.9874;
557.4000;0.8710;-0.9899;
557.7000;0.8694;-0.9923;
558.0000;0.8710;-0.9874;
558.3000;0.8694;-0.9849;
558.6000;0.8702;-0.9824;
558.9000;0.8710;-0.9874;
559.2000;0.8702;-0.9973;
559.5000;0.8677;-1.0023;
559.8000;0.8710;-0.9948;
560.1000;0.8710;-0.9923;
560.4000;0.8718;-0.9874;
560.7000;0.8685;-0.9973;
561.0000;0.8710;-0.9998;
561.3000;0.8694;-0.9948;
561.6000;0.8661;-1.0023;
561.9000;0.8694;-0.9923;
562.2000;0.8710;-0.9948;
562.5000;0.8710;-0.9923;
562.8000;0.8718;-0.9874;
563.1000;0.8702;-0.9874;
563.4000;0.8685;-0.9849;
563.7000;0.8694;-0.9774;
564.0000;0.8710;-0.9774;
564.3000;0.8669;-0.9799;
564.6000;0.8677;-0.9749;
564.9000;0.8685;-0.9774;
565.2000;0.8685;-0.9724;
565.5000;0.8767;-0.9475;
565.8000;0.8669;-0.9574;
566.1000;0.8677;-0.9525;
566.4000;0.8677;-0.9624;
566.7000;0.8685;-0.9774;
567.0000;0.8677;-0.9799;
567.3000;0.8677;-0.9749;
567.6000;0.8677;-0.9649;
567.9000;0.8702;-0.9549;
568.2000;0.8685;-0.9500;
568.5000;0.8669;-0.9525;
568.8000;0.8685;-0.9599;
569.1000;0.8677;-0.9674;
569.4000;0.8677;-0.9749;
569.7000;0.8685;-0.9724;
570.0000;0.8685;-0.9724;
570.3000;0.8694;-0.9649;
570.6000;0.8685;-0.9599;
570.9000;0.8685;-0.9574;
571.2000;0.8685;-0.9574;
571.5000;0.8677;-0.9500;
571.8000;0.8685;-0.9500;
572.1000;0.8669;-0.9574;
572.4000;0.8694;-0.9500;
572.7000;0.8791;-0.9350;
573.0000;0.8677;-0.9649;
573.3000;0.8685;-0.9649;
573.6000;0.8702;-0.9699;
573.9000;0.8694;-0.9774;
574.2000;0.8653;-0.9774;
574.5000;0.8685;-0.9699;
574.8000;0.8685;-0.9649;
575.1000;0.8669;-0.9699;
575.4000;0.8677;-0.9724;
575.7000;0.8669;-0.9699;
576.0000;0.8694;-0.9574;
576.3000;0.8661;-0.9749;
576.6000;0.8669;-0.9724;
576.9000;0.8791;-0.9400;
577.2000;0.8669;-0.9724;
577.5000;0.8661;-0.9849;
577.8000;0.8694;-0.9774;
578.1000;0.8677;-0.9749;
578.4000;0.8685;-0.9749;
578.7000;0.8726;-0.9699;
579.0000;0.8694;-0.9799;
579.3000;0.8702;-0.9674;
579.6000;0.8669;-0.9849;
579.9000;0.8694;-0.9799;
580.2000;0.8694;-0.9674;
580.5000;0.8685;-0.9699;
580.8000;0.8677;-0.9774;
581.1000;0.8710;-0.9624;
581.4000;0.8677;-0.9674;
581.7000;0.8669;-0.9699;
582.0000;0.8661;-0.9799;
582.3000;0.8685;-0.9724;
582.6000;0.8677;-0.9774;
582.9000;0.8702;-0.9724;
583.2000;0.8702;-0.9724;
583.5000;0.8734;-0.9599;
583.8000;0.8677;-0.9774;
584.1000;0.8677;-0.9799;
584.4000;0.8694;-0.9724;
584.7000;0.8685;-0.9799;
585.0000;0.8677;-0.9824;
585.3000;0.8694;-0.9849;
585.6000;0.8710;-0.9799;
585.9000;0.8685;-0.9749;
586.2000;0.8669;-0.9824;
586.5000;0.8653;-0.9849;
586.8000;0.8685;-0.9774;
587.1000;0.8669;-0.9874;
587.4000;0.8669;-0.9849;
587.7000;0.8677;-0.9849;
588.0000;0.8685;-0.9824;
588.3000;0.8685;-0.9774;
588.6000;0.8661;-0.9923;
588.9000;0.8685;-0.9799;
589.2000;0.8694;-0.9749;
589.5000;0.8677;-0.9849;
589.8000;0.8685;-0.9749;
590.1000;0.8694;-0.9749;
590.4000;0.8694;-0.9874;
590.7000;0.8702;-0.9799;
591.0000;0.8694;-0.9774;
591.3000;0.8661;-0.9749;
591.6000;0.8669;-0.9774;
591.9000;0.8685;-0.9699;
592.2000;0.8702;-0.9624;
592.5000;0.8653;-0.9749;
592.8000;0.8685;-0.9749;
593.1000;0.8677;-0.9674;
593.4000;0.8685;-0.9774;
593.7000;0.8661;-0.9774;
594.0000;0.8669;-0.9674;
594.3000;0.8685;-0.9699;
594.6000;0.8685;-0.9774;
594.9000;0.8685;-0.9824;
595.2000;0.8685;-0.9749;
595.5000;0.8661;-0.9849;
595.8000;0.8661;-0.9799;
596.1000;0.8669;-0.9749;
596.4000;0.8653;-0.9799;
596.7000;0.8677;-0.9724;
597.0000;0.8685;-0.9674;
597.3000;0.8677;-0.9724;
597.6000;0.8685;-0.9799;
597.9000;0.8685;-0.9824;
598.2000;0.8710;-0.9749;
598.5000;0.8702;-0.9799;
598.8000;0.8628;-1.0023;
599.1000;0.8677;-0.9799;
599.4000;0.8742;-0.9599;
599.7000;0.8677;-0.9824;
600.0000;0.8669;-0.9923;
600.3000;0.8661;-1.0098;
600.6000;0.8547;-1.0223;
600.9000;0.8441;-1.0447;
601.2000;0.8205;-1.0771;
601.5000;0.8026;-1.0896;
601.8000;0.7863;-1.1095;
602.1000;0.7692;-1.1345;
602.4000;0.7513;-1.1544;
602.7000;0.7359;-1.1744;
603.0000;0.7163;-1.2043;
603.3000;0.7106;-1.1968;
603.6000;0.6968;-1.2217;
603.9000;0.6943;-1.2093;
604.2000;0.6732;-1.2517;
604.5000;0.6691;-1.2442;
604.8000;0.6577;-1.2541;
605.1000;0.6528;-1.2517;
605.4000;0.6422;-1.2716;
605.7000;0.6382;-1.2841;
606.0000;0.6357;-1.2716;
606.3000;0.6227;-1.3015;
606.6000;0.6178;-1.3040;
606.9000;0.6121;-1.3015;
607.2000;0.6146;-1.2965;
607.5000;0.6007;-1.3215;
607.8000;0.5983;-1.3265;
608.1000;0.5902;-1.3389;
608.4000;0.5877;-1.3364;
608.7000;0.5836;-1.3439;
609.0000;0.5812;-1.3539;
609.3000;0.5779;-1.3539;
609.6000;0.5739;-1.3489;
609.9000;0.5714;-1.3564;
610.2000;0.5649;-1.3564;
610.5000;0.5698;-1.3439;
610.8000;0.5608;-1.3589;
611.1000;0.5592;-1.3688;
611.4000;0.5665;-1.3389;
611.7000;0.5543;-1.3589;
612.0000;0.5519;-1.3614;
612.3000;0.5503;-1.3589;
612.6000;0.5454;-1.3738;
612.9000;0.5462;-1.3738;
613.2000;0.5429;-1.3738;
613.5000;0.5372;-1.3838;
613.8000;0.5381;-1.3663;
614.1000;0.5372;-1.3663;
614.4000;0.5348;-1.3788;
614.7000;0.5348;-1.3788;
615.0000;0.5332;-1.3838;
615.3000;0.5291;-1.3863;
615.6000;0.5291;-1.3888;
615.9000;0.5275;-1.3788;
616.2000;0.5267;-1.3813;
616.5000;0.5226;-1.3888;
616.8000;0.5201;-1.3963;
617.1000;0.5218;-1.3938;
617.4000;0.5210;-1.3813;
617.7000;0.5161;-1.3863;
618.0000;0.5169;-1.3788;
618.3000;0.5144;-1.3838;
618.6000;0.5161;-1.3863;
618.9000;0.5153;-1.3813;
619.2000;0.5144;-1.3763;
619.5000;0.5120;-1.3713;
619.8000;0.5063;-1.3838;
620.1000;0.5096;-1.3788;
620.4000;0.5079;-1.3813;
620.7000;0.5031;-1.3913;
621.0000;0.5055;-1.3888;
621.3000;0.5006;-1.4087;
621.6000;0.5014;-1.4112;
621.9000;0.5006;-1.4062;
622.2000;0.5039;-1.4013;
622.5000;0.5039;-1.4013;
622.8000;0.5022;-1.4062;
623.1000;0.5006;-1.4087;
623.4000;0.4998;-1.4187;
623.7000;0.4941;-1.4362;
624.0000;0.4998;-1.4162;
624.3000;0.5014;-1.4112;
624.6000;0.5055;-1.3913;
624.9000;0.5022;-1.3863;
625.2000;0.4990;-1.4013;
625.5000;0.4949;-1.4112;
625.8000;0.4933;-1.4137;
626.1000;0.4933;-1.4162;
626.4000;0.4949;-1.4162;
626.7000;0.4892;-1.4262;
627.0000;0.4917;-1.4162;
627.3000;0.4892;-1.4237;
627.6000;0.4908;-1.4187;
627.9000;0.4900;-1.4237;
628.2000;0.4892;-1.4237;
628.5000;0.4900;-1.4262;
628.8000;0.4900;-1.4287;
629.1000;0.4851;-1.4337;
629.4000;0.4876;-1.4262;
629.7000;0.4868;-1.4187;
630.0000;0.4868;-1.4137;
630.3000;0.4843;-1.4112;
630.6000;0.4827;-1.4087;
630.9000;0.4835;-1.4062;
631.2000;0.4811;-1.4137;
631.5000;0.4811;-1.4162;
631.8000;0.4819;-1.4187;
632.1000;0.4794;-1.4312;
632.4000;0.4803;-1.4237;
632.7000;0.4835;-1.4112;
633.0000;0.4811;-1.4162;
633.3000;0.4811;-1.4162;
633.6000;0.4803;-1.4187;
633.9000;0.4786;-1.4137;
634.2000;0.4794;-1.4287;
634.5000;0.4786;-1.4212;
634.8000;0.4762;-1.4237;
635.1000;0.4786;-1.4112;
635.4000;0.4770;-1.4137;
635.7000;0.4770;-1.4137;
636.0000;0.4754;-1.4187;
636.3000;0.4746;-1.4262;
636.6000;0.4762;-1.4162;
636.9000;0.4746;-1.4162;
637.2000;0.4729;-1.4237;
637.5000;0.4664;-1.4337;
637.8000;0.4754;-1.4237;
638.1000;0.4754;-1.4212;
638.4000;0.4729;-1.4387;
638.7000;0.4762;-1.4237;
639.0000;0.4746;-1.4262;
639.3000;0.4705;-1.4287;
639.6000;0.4705;-1.4237;
639.9000;0.4672;-1.4436;
640.2000;0.4746;-1.4187;
640.5000;0.4746;-1.4162;
640.8000;0.4697;-1.4162;
641.1000;0.4697;-1.4062;
641.4000;0.4697;-1.4037;
641.7000;0.4713;-1.4062;
642.0000;0.4705;-1.4087;
642.3000;0.4697;-1.4137;
642.6000;0.4689;-1.4162;
642.9000;0.4681;-1.4212;
643.2000;0.4672;-1.4237;
643.5000;0.4664;-1.4237;
643.8000;0.4648;-1.4262;
644.1000;0.4648;-1.4162;
644.4000;0.4656;-1.4062;
644.7000;0.4672;-1.3988;
645.0000;0.4648;-1.4013;
645.3000;0.4648;-1.3988;
645.6000;0.4664;-1.3988;
645.9000;0.4648;-1.4037;
646.2000;0.4656;-1.4013;
646.5000;0.4632;-1.4087;
646.8000;0.4624;-1.4062;
647.1000;0.4656;-1.4013;
647.4000;0.4640;-1.4087;
647.7000;0.4656;-1.4087;
648.0000;0.4648;-1.4187;
648.3000;0.4632;-1.4112;
648.6000;0.4648;-1.4162;
648.9000;0.4640;-1.4137;
649.2000;0.4640;-1.4137;
649.5000;0.4640;-1.4162;
649.8000;0.4656;-1.4187;
650.1000;0.4615;-1.4337;
650.4000;0.4640;-1.4212;
650.7000;0.4648;-1.4137;
651.0000;0.4615;-1.4112;
651.3000;0.4640;-1.4037;
651.6000;0.4632;-1.3988;
651.9000;0.4615;-1.4087;
652.2000;0.4607;-1.4087;
652.5000;0.4599;-1.4013;
652.8000;0.4599;-1.4037;
653.1000;0.4615;-1.4037;
653.4000;0.4615;-1.4112;
653.7000;0.4591;-1.4137;
654.0000;0.4591;-1.4137;
654.3000;0.4534;-1.4287;
654.6000;0.4591;-1.4212;
654.9000;0.4591;-1.4187;
655.2000;0.4583;-1.4137;
655.5000;0.4558;-1.4187;
655.8000;0.4567;-1.4137;
656.1000;0.4558;-1.4162;
656.4000;0.4567;-1.4137;
656.7000;0.4558;-1.4137;
657.0000;0.4558;-1.4087;
657.3000;0.4583;-1.4087;
657.6000;0.4526;-1.4187;
657.9000;0.4567;-1.4137;
658.2000;0.4542;-1.4087;
658.5000;0.4567;-1.3938;
658.8000;0.4583;-1.3988;
659.1000;0.4534;-1.4062;
659.4000;0.4542;-1.4112;
659.7000;0.4542;-1.4087;
660.0000;0.4534;-1.4187;
660.3000;0.4534;-1.4237;
660.6000;0.4542;-1.4212;
660.9000;0.4542;-1.4087;
661.2000;0.4550;-1.4013;
661.5000;0.4550;-1.3963;
661.8000;0.4534;-1.4013;
662.1000;0.4542;-1.3988;
662.4000;0.4534;-1.3963;
662.7000;0.4501;-1.4087;
663.0000;0.4534;-1.3938;
663.3000;0.4534;-1.3938;
663.6000;0.4575;-1.3888;
663.9000;0.4526;-1.4037;
664.2000;0.4518;-1.3988;
664.5000;0.4469;-1.4087;
664.8000;0.4428;-1.4212;
665.1000;0.4510;-1.3988;
665.4000;0.4501;-1.3988;
665.7000;0.4485;-1.4037;
666.0000;0.4501;-1.4037;
666.3000;0.4501;-1.4013;
666.6000;0.4501;-1.4013;
666.9000;0.4485;-1.4062;
667.2000;0.4477;-1.4087;
667.5000;0.4477;-1.4187;
667.8000;0.4477;-1.4162;
668.1000;0.4485;-1.4087;
668.4000;0.4485;-1.4037;
668.7000;0.4469;-1.4087;
669.0000;0.4453;-1.4037;
669.3000;0.4477;-1.4062;
669.6000;0.4485;-1.4062;
669.9000;0.4420;-1.4212;
670.2000;0.4477;-1.4037;
670.5000;0.4510;-1.3963;
670.8000;0.4485;-1.4037;
671.1000;0.4469;-1.4137;
671.4000;0.4477;-1.4187;
671.7000;0.4485;-1.4187;
672.0000;0.4469;-1.4237;
672.3000;0.4469;-1.4162;
672.6000;0.4485;-1.4087;
672.9000;0.4469;-1.4112;
673.2000;0.4461;-1.4162;
673.5000;0.4469;-1.4112;
673.8000;0.4420;-1.4187;
674.1000;0.4453;-1.4137;
674.4000;0.4542;-1.3813;
674.7000;0.4453;-1.3938;
675.0000;0.4461;-1.3938;
675.3000;0.4453;-1.4013;
675.6000;0.4436;-1.4137;
675.9000;0.4436;-1.4112;
676.2000;0.4453;-1.4062;
676.5000;0.4461;-1.4037;
676.8000;0.4436;-1.4137;
677.1000;0.4444;-1.4137;
677.4000;0.4444;-1.4162;
677.7000;0.4428;-1.4187;
678.0000;0.4428;-1.4137;
678.3000;0.4444;-1.4087;
678.6000;0.4428;-1.4062;
678.9000;0.4420;-1.4062;
679.2000;0.4371;-1.4112;
679.5000;0.4379;-1.4013;
679.8000;0.4428;-1.3888;
680.1000;0.4412;-1.3888;
680.4000;0.4396;-1.3988;
680.7000;0.4420;-1.3938;
681.0000;0.4420;-1.3913;
681.3000;0.4444;-1.3913;
681.6000;0.4444;-1.3888;
681.9000;0.4404;-1.3938;
682.2000;0.4379;-1.4037;
682.5000;0.4404;-1.3938;
682.8000;0.4404;-1.3938;
683.1000;0.4387;-1.3988;
683.4000;0.4396;-1.3963;
683.7000;0.4412;-1.3938;
684.0000;0.4404;-1.4013;
684.3000;0.4379;-1.4062;
684.6000;0.4379;-1.4013;
684.9000;0.4412;-1.4037;
685.2000;0.4387;-1.4187;
685.5000;0.4404;-1.4112;
685.8000;0.4412;-1.4112;
686.1000;0.4396;-1.4162;
686.4000;0.4387;-1.4087;
686.7000;0.4387;-1.4062;
687.0000;0.4404;-1.4013;
687.3000;0.4396;-1.3988;
687.6000;0.4387;-1.3963;
687.9000;0.4404;-1.4013;
688.2000;0.4371;-1.4087;
688.5000;0.4371;-1.4013;
688.8000;0.4379;-1.4062;
689.1000;0.4396;-1.4162;
689.4000;0.4387;-1.4162;
689.7000;0.4371;-1.4112;
690.0000;0.4355;-1.4137;
690.3000;0.4371;-1.4062;
690.6000;0.4379;-1.4037;
690.9000;0.4355;-1.4212;
691.2000;0.4339;-1.4262;
691.5000;0.4355;-1.4187;
691.8000;0.4347;-1.4212;
692.1000;0.4371;-1.4162;
692.4000;0.4355;-1.4187;
692.7000;0.4363;-1.4237;
693.0000;0.4363;-1.4262;
693.3000;0.4322;-1.4312;
693.6000;0.4339;-1.4212;
693.9000;0.4347;-1.4287;
694.2000;0.4290;-1.4411;
694.5000;0.4290;-1.4411;
694.8000;0.4322;-1.4287;
695.1000;0.4339;-1.4237;
695.4000;0.4314;-1.4212;
695.7000;0.4339;-1.4212;
696.0000;0.4330;-1.4187;
696.3000;0.4363;-1.4087;
696.6000;0.4347;-1.4037;
696.9000;0.4322;-1.4112;
697.2000;0.4420;-1.3863;
697.5000;0.4355;-1.4037;
697.8000;0.4314;-1.4062;
698.1000;0.4339;-1.4013;
698.4000;0.4355;-1.3963;
698.7000;0.4314;-1.4013;
699.0000;0.4339;-1.3938;
699.3000;0.4274;-1.4087;
699.6000;0.4339;-1.3938;
699.9000;0.4314;-1.3963;
700.2000;0.4330;-1.3913;
700.5000;0.4339;-1.3963;
700.8000;0.4330;-1.3963;
701.1000;0.4306;-1.4112;
701.4000;0.4314;-1.4062;
701.7000;0.4314;-1.4137;
702.0000;0.4330;-1.4137;
702.3000;0.4306;-1.4087;
702.6000;0.4330;-1.3938;
702.9000;0.4298;-1.3988;
703.2000;0.4322;-1.3938;
703.5000;0.4371;-1.3788;
703.8000;0.4298;-1.3963;
704.1000;0.4306;-1.3963;
704.4000;0.4282;-1.3963;
704.7000;0.4314;-1.3888;
705.0000;0.4290;-1.4037;
705.3000;0.4322;-1.4013;
705.6000;0.4265;-1.4162;
705.9000;0.4306;-1.4087;
706.2000;0.4314;-1.3988;
706.5000;0.4330;-1.4013;
706.8000;0.4298;-1.4037;
707.1000;0.4314;-1.3988;
707.4000;0.4314;-1.3963;
707.7000;0.4265;-1.4162;
708.0000;0.4298;-1.4013;
708.3000;0.4298;-1.4037;
708.6000;0.4290;-1.4037;
708.9000;0.4290;-1.4037;
709.2000;0.4257;-1.4137;
709.5000;0.4257;-1.4162;
709.8000;0.4282;-1.4087;
710.1000;0.4290;-1.4037;
710.4000;0.4306;-1.4062;
710.7000;0.4274;-1.4087;
711.0000;0.4282;-1.4062;
711.3000;0.4282;-1.4062;
711.6000;0.4225;-1.4137;
711.9000;0.4290;-1.3913;
712.2000;0.4282;-1.3963;
712.5000;0.4306;-1.3938;
712.8000;0.4290;-1.4112;
713.1000;0.4274;-1.4087;
713.4000;0.4290;-1.3938;
713.7000;0.4274;-1.3863;
714.0000;0.4306;-1.3813;
714.3000;0.4306;-1.3713;
714.6000;0.4282;-1.3813;
714.9000;0.4282;-1.3838;
715.2000;0.4257;-1.3913;
715.5000;0.4282;-1.3813;
715.8000;0.4274;-1.3838;
716.1000;0.4257;-1.3888;
716.4000;0.4265;-1.3938;
716.7000;0.4282;-1.3988;
717.0000;0.4339;-1.3888;
717.3000;0.4298;-1.4013;
717.6000;0.4274;-1.4087;
717.9000;0.4274;-1.4137;
718.2000;0.4322;-1.4037;
718.5000;0.4282;-1.4037;
718.8000;0.4314;-1.3863;
719.1000;0.4274;-1.3888;
719.4000;0.4200;-1.4112;
719.7000;0.4265;-1.3988;
720.0000;0.4257;-1.4013;
720.3000;0.4314;-1.3788;
720.6000;0.4249;-1.3913;
720.9000;0.4257;-1.3963;
721.2000;0.4314;-1.3813;
721.5000;0.4184;-1.4087;
721.8000;0.4265;-1.3888;
722.1000;0.4217;-1.3888;
722.4000;0.4249;-1.3838;
722.7000;0.4249;-1.3913;
723.0000;0.4249;-1.3913;
723.3000;0.4306;-1.3788;
723.6000;0.4282;-1.3938;
723.9000;0.4257;-1.4013;
724.2000;0.4176;-1.4262;
724.5000;0.4225;-1.4187;
724.8000;0.4249;-1.4137;
725.1000;0.4241;-1.4087;
725.4000;0.4233;-1.4013;
725.7000;0.4241;-1.4112;
726.0000;0.4241;-1.4187;
726.3000;0.4290;-1.4013;
726.6000;0.4241;-1.4187;
726.9000;0.4241;-1.4187;
727.2000;0.4241;-1.4162;
727.5000;0.4249;-1.4087;
727.8000;0.4257;-1.4087;
728.1000;0.4233;-1.4137;
728.4000;0.4233;-1.4112;
728.7000;0.4241;-1.4013;
729.0000;0.4241;-1.3988;
729.3000;0.4217;-1.3988;
729.6000;0.4225;-1.4013;
729.9000;0.4233;-1.3963;
730.2000;0.4233;-1.3938;
730.5000;0.4225;-1.3963;
730.8000;0.4241;-1.3938;
731.1000;0.4241;-1.3913;
731.4000;0.4249;-1.3913;
731.7000;0.4225;-1.3938;
732.0000;0.4233;-1.3963;
732.3000;0.4217;-1.3963;
732.6000;0.4200;-1.4112;
732.9000;0.4233;-1.3988;
733.2000;0.4233;-1.3963;
733.5000;0.4265;-1.3863;
733.8000;0.4225;-1.3988;
734.1000;0.4217;-1.4037;
734.4000;0.4208;-1.4037;
734.7000;0.4225;-1.4013;
735.0000;0.4225;-1.3988;
735.3000;0.4217;-1.4087;
735.6000;0.4225;-1.4013;
735.9000;0.4217;-1.3913;
736.2000;0.4208;-1.3888;
736.5000;0.4208;-1.3913;
736.8000;0.4200;-1.3963;
737.1000;0.4225;-1.3938;
737.4000;0.4200;-1.3963;
737.7000;0.4200;-1.3913;
738.0000;0.4225;-1.3838;
738.3000;0.4208;-1.3888;
738.6000;0.4225;-1.3738;
738.9000;0.4225;-1.3688;
739.2000;0.4192;-1.3738;
739.5000;0.4217;-1.3788;
739.8000;0.4200;-1.3888;
740.1000;0.4200;-1.3938;
740.4000;0.4265;-1.3688;
740.7000;0.4290;-1.3614;
741.0000;0.4192;-1.3913;
741.3000;0.4225;-1.3813;
741.6000;0.4192;-1.3913;
741.9000;0.4184;-1.3963;
742.2000;0.4208;-1.4037;
742.5000;0.4127;-1.4237;
742.8000;0.4184;-1.3988;
743.1000;0.4233;-1.3788;
743.4000;0.4208;-1.3788;
743.7000;0.4135;-1.3963;
744.0000;0.4192;-1.3913;
744.3000;0.4184;-1.3913;
744.6000;0.4176;-1.4013;
744.9000;0.4200;-1.3963;
745.2000;0.4200;-1.4013;
745.5000;0.4135;-1.4162;
745.8000;0.4217;-1.4062;
746.1000;0.4225;-1.4013;
746.4000;0.4192;-1.4187;
746.7000;0.4217;-1.4137;
747.0000;0.4184;-1.4212;
747.3000;0.4192;-1.4187;
747.6000;0.4192;-1.4262;
747.9000;0.4233;-1.4137;
748.2000;0.4184;-1.4287;
748.5000;0.4192;-1.4212;
748.8000;0.4200;-1.4262;
749.1000;0.4184;-1.4312;
749.4000;0.4184;-1.4262;
749.7000;0.4184;-1.4237;
750.0000;0.4168;-1.4212;
750.3000;0.4208;-1.4013;
750.6000;0.4160;-1.3988;
750.9000;0.4168;-1.4037;
751.2000;0.4184;-1.3988;
751.5000;0.4103;-1.4237;
751.8000;0.4200;-1.3963;
752.1000;0.4168;-1.4087;
752.4000;0.4184;-1.4062;
752.7000;0.4176;-1.4062;
753.0000;0.4184;-1.3988;
753.3000;0.4160;-1.3888;
753.6000;0.4103;-1.4013;
753.9000;0.4184;-1.3688;
754.2000;0.4176;-1.3813;
754.5000;0.4192;-1.3763;
754.8000;0.4160;-1.3813;
755.1000;0.4160;-1.3888;
755.4000;0.4176;-1.3838;
755.7000;0.4168;-1.3863;
756.0000;0.4176;-1.3863;
756.3000;0.4168;-1.3863;
756.6000;0.4192;-1.3763;
756.9000;0.4176;-1.3738;
757.2000;0.4151;-1.3738;
757.5000;0.4135;-1.3838;
757.8000;0.4168;-1.3663;
758.1000;0.4168;-1.3788;
758.4000;0.4160;-1.3788;
758.7000;0.4176;-1.3763;
759.0000;0.4160;-1.3763;
759.3000;0.4208;-1.3713;
759.6000;0.4176;-1.3938;
759.9000;0.4168;-1.3888;
760.2000;0.4103;-1.3963;
760.5000;0.4151;-1.3863;
760.8000;0.4151;-1.3813;
761.1000;0.4151;-1.3813;
761.4000;0.4225;-1.3639;
761.7000;0.4135;-1.3788;
762.0000;0.4168;-1.3763;
762.3000;0.4078;-1.4037;
762.6000;0.4111;-1.3913;
762.9000;0.4151;-1.3838;
763.2000;0.4151;-1.3863;
763.5000;0.4168;-1.3863;
763.8000;0.4127;-1.3913;
764.1000;0.4151;-1.3788;
764.4000;0.4249;-1.3614;
764.7000;0.4151;-1.3913;
765.0000;0.4143;-1.3913;
765.3000;0.4143;-1.3963;
765.6000;0.4143;-1.3963;
765.9000;0.4143;-1.3938;
766.2000;0.4160;-1.3863;
766.5000;0.4135;-1.3888;
766.8000;0.4151;-1.3813;
767.1000;0.4151;-1.3788;
767.4000;0.4160;-1.3813;
767.7000;0.4127;-1.3863;
768.0000;0.4151;-1.3788;
768.3000;0.4143;-1.3863;
768.6000;0.4151;-1.3913;
768.9000;0.4160;-1.3913;
769.2000;0.4151;-1.4013;
769.5000;0.4078;-1.4262;
769.8000;0.4086;-1.4237;
770.1000;0.4135;-1.4137;
770.4000;0.4127;-1.4162;
770.7000;0.4143;-1.4062;
771.0000;0.4200;-1.3913;
771.3000;0.4135;-1.4013;
771.6000;0.4151;-1.3963;
771.9000;0.4143;-1.3938;
772.2000;0.4151;-1.3888;
772.5000;0.4135;-1.3963;
772.8000;0.4094;-1.4037;
773.1000;0.4143;-1.3963;
773.4000;0.4151;-1.3938;
773.7000;0.4111;-1.3963;
774.0000;0.4143;-1.3913;
774.3000;0.4160;-1.3788;
774.6000;0.4160;-1.3763;
774.9000;0.4143;-1.3788;
775.2000;0.4135;-1.3788;
775.5000;0.4135;-1.3788;
775.8000;0.4119;-1.3913;
776.1000;0.4127;-1.3938;
776.4000;0.4127;-1.3888;
776.7000;0.4127;-1.3813;
777.0000;0.4119;-1.3888;
777.3000;0.4143;-1.3888;
777.6000;0.4135;-1.3938;
777.9000;0.4111;-1.3963;
778.2000;0.4127;-1.3963;
778.5000;0.4135;-1.4037;
778.8000;0.4127;-1.4087;
779.1000;0.4127;-1.4137;
779.4000;0.4103;-1.4137;
779.7000;0.4094;-1.4237;
780.0000;0.4127;-1.4087;
780.3000;0.4094;-1.4112;
780.6000;0.4111;-1.4112;
780.9000;0.4078;-1.4187;
781.2000;0.4127;-1.4037;
781.5000;0.4111;-1.4037;
781.8000;0.4111;-1.4037;
782.1000;0.4127;-1.3938;
782.4000;0.4127;-1.3863;
782.7000;0.4111;-1.3888;
783.0000;0.4111;-1.3913;
783.3000;0.4111;-1.3863;
783.6000;0.4135;-1.3738;
783.9000;0.4127;-1.3763;
784.2000;0.4127;-1.3713;
784.5000;0.4119;-1.3663;
784.8000;0.4119;-1.3713;
785.1000;0.4111;-1.3614;
785.4000;0.4103;-1.3738;
785.7000;0.4119;-1.3688;
786.0000;0.4119;-1.3688;
786.3000;0.4127;-1.3663;
786.6000;0.4103;-1.3663;
786.9000;0.4127;-1.3639;
787.2000;0.4103;-1.3763;
787.5000;0.4119;-1.3763;
787.8000;0.4111;-1.3838;
788.1000;0.4119;-1.3888;
788.4000;0.4119;-1.3913;
788.7000;0.4127;-1.3988;
789.0000;0.4111;-1.3988;
789.3000;0.4094;-1.3988;
789.6000;0.4103;-1.3913;
789.9000;0.4127;-1.3863;
790.2000;0.4111;-1.3938;
790.5000;0.4119;-1.3938;
790.8000;0.4103;-1.3888;
791.1000;0.4094;-1.3888;
791.4000;0.4103;-1.3913;
791.7000;0.4111;-1.3888;
792.0000;0.4103;-1.3888;
792.3000;0.4094;-1.3913;
792.6000;0.4086;-1.3913;
792.9000;0.4094;-1.3938;
793.2000;0.4086;-1.3938;
793.5000;0.4094;-1.3813;
793.8000;0.4086;-1.3713;
794.1000;0.4086;-1.3738;
794.4000;0.4094;-1.3788;
794.7000;0.4094;-1.3813;
795.0000;0.4103;-1.3763;
795.3000;0.4094;-1.3863;
795.6000;0.4021;-1.4013;
795.9000;0.4103;-1.3913;
796.2000;0.4103;-1.3838;
796.5000;0.4086;-1.3888;
796.8000;0.4086;-1.3863;
797.1000;0.4119;-1.3813;
797.4000;0.4103;-1.3938;
797.7000;0.4119;-1.3963;
798.0000;0.4094;-1.3913;
798.3000;0.4086;-1.3913;
798.6000;0.4086;-1.3913;
798.9000;0.4103;-1.3938;
799.2000;0.4086;-1.3938;
799.5000;0.4094;-1.3913;
799.8000;0.4086;-1.3913;
800.1000;0.4103;-1.3913;
800.4000;0.4119;-1.3913;
800.7000;0.4127;-1.3913;
801.0000;0.4070;-1.4062;
801.3000;0.4094;-1.3988;
801.6000;0.4062;-1.4112;
801.9000;0.4094;-1.4087;
802.2000;0.4078;-1.4037;
802.5000;0.4094;-1.3988;
802.8000;0.4103;-1.4062;
803.1000;0.4103;-1.3963;
803.4000;0.4078;-1.3888;
803.7000;0.4094;-1.3838;
804.0000;0.4094;-1.3788;
804.3000;0.4094;-1.3763;
804.6000;0.4086;-1.3713;
804.9000;0.4078;-1.3713;
805.2000;0.4086;-1.3763;
805.5000;0.4078;-1.3888;
805.8000;0.4135;-1.3813;
806.1000;0.4070;-1.3963;
806.4000;0.4070;-1.3938;
806.7000;0.4086;-1.3913;
807.0000;0.4054;-1.3988;
807.3000;0.4062;-1.3838;
807.6000;0.4078;-1.3938;
807.9000;0.4086;-1.3913;
808.2000;0.4086;-1.3863;
808.5000;0.4078;-1.3788;
808.8000;0.4086;-1.3788;
809.1000;0.4070;-1.3763;
809.4000;0.4070;-1.3788;
809.7000;0.4054;-1.3913;
810.0000;0.4086;-1.3913;
810.3000;0.4103;-1.3888;
810.6000;0.4103;-1.3863;
810.9000;0.4078;-1.3963;
811.2000;0.4078;-1.3963;
811.5000;0.4054;-1.4037;
811.8000;0.4103;-1.3888;
812.1000;0.4086;-1.3913;
812.4000;0.4070;-1.3938;
812.7000;0.4086;-1.3888;
813.0000;0.4086;-1.3763;
813.3000;0.4054;-1.3838;
813.6000;0.4086;-1.3813;
813.9000;0.4111;-1.3813;
814.2000;0.4046;-1.4013;
814.5000;0.4062;-1.4013;
814.8000;0.4070;-1.3988;
815.1000;0.4176;-1.3788;
815.4000;0.4086;-1.3938;
815.7000;0.4094;-1.3913;
816.0000;0.4078;-1.3913;
816.3000;0.4013;-1.4037;
816.6000;0.4070;-1.4013;
816.9000;0.4086;-1.4013;
817.2000;0.4054;-1.4062;
817.5000;0.4086;-1.4037;
817.8000;0.4062;-1.4037;
818.1000;0.4176;-1.3738;
818.4000;0.4037;-1.3988;
818.7000;0.4070;-1.3963;
819.0000;0.4078;-1.3838;
819.3000;0.4086;-1.3763;
819.6000;0.4070;-1.3738;
819.9000;0.4070;-1.3813;
820.2000;0.4070;-1.3888;
820.5000;0.4078;-1.3938;
820.8000;0.4078;-1.4013;
821.1000;0.4078;-1.4013;
821.4000;0.4086;-1.3938;
821.7000;0.4078;-1.4013;
822.0000;0.4078;-1.3938;
822.3000;0.4086;-1.3938;
822.6000;0.4054;-1.4087;
822.9000;0.4070;-1.4062;
823.2000;0.4070;-1.4037;
823.5000;0.4078;-1.4112;
823.8000;0.4070;-1.4112;
824.1000;0.4062;-1.4037;
824.4000;0.4078;-1.3938;
824.7000;0.4037;-1.4062;
825.0000;0.4086;-1.4037;
825.3000;0.4078;-1.4037;
825.6000;0.4062;-1.3963;
825.9000;0.4070;-1.3938;
826.2000;0.4070;-1.3963;
826.5000;0.4046;-1.4013;
826.8000;0.4005;-1.4087;
827.1000;0.4062;-1.3988;
827.4000;0.4054;-1.4062;
827.7000;0.4046;-1.4037;
828.0000;0.4046;-1.3988;
828.3000;0.4070;-1.3813;
828.6000;0.4062;-1.3863;
828.9000;0.4127;-1.3763;
829.2000;0.4070;-1.3938;
829.5000;0.4062;-1.3963;
829.8000;0.4078;-1.3963;
830.1000;0.4054;-1.4013;
830.4000;0.4046;-1.4037;
830.7000;0.4062;-1.4112;
831.0000;0.3980;-1.4262;
831.3000;0.4078;-1.3988;
831.6000;0.4054;-1.4013;
831.9000;0.4046;-1.3988;
832.2000;0.4070;-1.3938;
832.5000;0.4054;-1.3938;
832.8000;0.4037;-1.4062;
833.1000;0.4054;-1.4013;
833.4000;0.4054;-1.4037;
833.7000;0.4062;-1.3963;
834.0000;0.4086;-1.3888;
834.3000;0.4021;-1.3988;
834.6000;0.4021;-1.4062;
834.9000;0.4029;-1.3963;
835.2000;0.4111;-1.3738;
835.5000;0.4021;-1.4013;
835.8000;0.3980;-1.4087;
836.1000;0.4127;-1.3713;
836.4000;0.4029;-1.3913;
836.7000;0.4021;-1.3963;
837.0000;0.4054;-1.3938;
837.3000;0.4062;-1.3963;
837.6000;0.4062;-1.3888;
837.9000;0.4013;-1.3938;
838.2000;0.4046;-1.3838;
838.5000;0.4046;-1.3813;
838.8000;0.4046;-1.3788;
839.1000;0.4078;-1.3763;
839.4000;0.4021;-1.3913;
839.7000;0.4046;-1.3838;
840.0000;0.4054;-1.3863;
840.3000;0.4046;-1.3863;
840.6000;0.4037;-1.3838;
840.9000;0.4046;-1.3639;
841.2000;0.4046;-1.3688;
841.5000;0.4037;-1.3713;
841.8000;0.4021;-1.3913;
842.1000;0.4078;-1.3863;
842.4000;0.4046;-1.3938;
842.7000;0.4054;-1.3938;
843.0000;0.4054;-1.3988;
843.3000;0.4062;-1.3988;
843.6000;0.4046;-1.4037;
843.9000;0.4029;-1.3988;
844.2000;0.4029;-1.4037;
844.5000;0.4046;-1.3988;
844.8000;0.4054;-1.3938;
845.1000;0.4029;-1.3938;
845.4000;0.4046;-1.3813;
845.7000;0.4046;-1.3788;
846.0000;0.4037;-1.3863;
846.3000;0.4021;-1.3938;
846.6000;0.4029;-1.3913;
846.9000;0.4054;-1.3938;
847.2000;0.4046;-1.3813;
847.5000;0.4029;-1.3938;
847.8000;0.3989;-1.4062;
848.1000;0.4094;-1.3688;
848.4000;0.4046;-1.3788;
848.7000;0.4054;-1.3788;
849.0000;0.4046;-1.3763;
849.3000;0.4037;-1.3639;
849.6000;0.4029;-1.3688;
849.9000;0.4078;-1.3439;
850.2000;0.4062;-1.3439;
850.5000;0.4029;-1.3589;
850.8000;0.4021;-1.3614;
851.1000;0.4151;-1.3289;
851.4000;0.4054;-1.3414;
851.7000;0.4078;-1.3314;
852.0000;0.4013;-1.3489;
852.3000;0.4037;-1.3464;
852.6000;0.4021;-1.3464;
852.9000;0.4037;-1.3564;
853.2000;0.4029;-1.3614;
853.5000;0.3948;-1.3838;
853.8000;0.4046;-1.3614;
854.1000;0.4029;-1.3639;
854.4000;0.4037;-1.3614;
854.7000;0.4046;-1.3614;
855.0000;0.4013;-1.3713;
855.3000;0.4054;-1.3614;
855.6000;0.4005;-1.3788;
855.9000;0.4054;-1.3639;
856.2000;0.4029;-1.3688;
856.5000;0.4046;-1.3763;
856.8000;0.4029;-1.3713;
857.1000;0.4029;-1.3713;
857.4000;0.4046;-1.3688;
857.7000;0.4029;-1.3713;
858.0000;0.4005;-1.3838;
858.3000;0.4029;-1.3813;
858.6000;0.4021;-1.3913;
858.9000;0.4029;-1.3838;
859.2000;0.4037;-1.3738;
859.5000;0.4029;-1.3788;
859.8000;0.4046;-1.3838;
860.1000;0.4054;-1.3813;
860.4000;0.4037;-1.3888;
860.7000;0.4029;-1.3813;
861.0000;0.3923;-1.4013;
861.3000;0.4021;-1.3763;
861.6000;0.4062;-1.3639;
861.9000;0.4029;-1.3639;
862.2000;0.4021;-1.3688;
862.5000;0.4037;-1.3713;
862.8000;0.4037;-1.3688;
863.1000;0.4013;-1.3788;
863.4000;0.4013;-1.3688;
863.7000;0.4013;-1.3663;
864.0000;0.4054;-1.3514;
864.3000;0.4046;-1.3564;
864.6000;0.4021;-1.3688;
864.9000;0.4021;-1.3663;
865.2000;0.4029;-1.3688;
865.5000;0.4029;-1.3713;
865.8000;0.4037;-1.3688;
866.1000;0.4037;-1.3614;
866.4000;0.4013;-1.3688;
866.7000;0.4029;-1.3564;
867.0000;0.4005;-1.3713;
867.3000;0.4029;-1.3639;
867.6000;0.4037;-1.3639;
867.9000;0.4029;-1.3564;
868.2000;0.4054;-1.3564;
868.5000;0.4005;-1.3663;
868.8000;0.4005;-1.3688;
869.1000;0.4029;-1.3639;
869.4000;0.4070;-1.3589;
869.7000;0.4029;-1.3614;
870.0000;0.3948;-1.3688;
870.3000;0.4037;-1.3489;
870.6000;0.4037;-1.3514;
870.9000;0.4013;-1.3614;
871.2000;0.4013;-1.3614;
871.5000;0.4037;-1.3514;
871.8000;0.4078;-1.3439;
872.1000;0.4062;-1.3439;
872.4000;0.4029;-1.3614;
872.7000;0.3980;-1.3738;
873.0000;0.4013;-1.3539;
873.3000;0.4013;-1.3564;
873.6000;0.4021;-1.3539;
873.9000;0.4021;-1.3514;
874.2000;0.4029;-1.3589;
874.5000;0.3989;-1.3763;
874.8000;0.3964;-1.3788;
875.1000;0.4013;-1.3688;
875.4000;0.4054;-1.3639;
875.7000;0.4013;-1.3738;
876.0000;0.4029;-1.3639;
876.3000;0.4021;-1.3663;
876.6000;0.4046;-1.3589;
876.9000;0.4037;-1.3614;
877.2000;0.4029;-1.3688;
877.5000;0.3972;-1.3863;
877.8000;0.4021;-1.3713;
878.1000;0.4021;-1.3639;
878.4000;0.4005;-1.3639;
878.7000;0.4029;-1.3564;
879.0000;0.3997;-1.3564;
879.3000;0.4005;-1.3539;
879.6000;0.4013;-1.3589;
879.9000;0.4005;-1.3663;
880.2000;0.4046;-1.3564;
880.5000;0.4005;-1.3788;
880.8000;0.3997;-1.3788;
881.1000;0.4005;-1.3738;
881.4000;0.4029;-1.3688;
881.7000;0.4013;-1.3663;
882.0000;0.4046;-1.3614;
882.3000;0.4029;-1.3589;
882.6000;0.4021;-1.3514;
882.9000;0.4029;-1.3489;
883.2000;0.4013;-1.3514;
883.5000;0.4078;-1.3464;
883.8000;0.4021;-1.3639;
884.1000;0.3972;-1.3639;
884.4000;0.4013;-1.3514;
884.7000;0.4013;-1.3514;
885.0000;0.3980;-1.3614;
885.3000;0.4005;-1.3564;
885.6000;0.4021;-1.3514;
885.9000;0.4013;-1.3489;
886.2000;0.3989;-1.3489;
886.5000;0.4029;-1.3364;
886.8000;0.4021;-1.3464;
887.1000;0.4013;-1.3464;
887.4000;0.4021;-1.3489;
887.7000;0.3980;-1.3639;
888.0000;0.4013;-1.3639;
888.3000;0.4013;-1.3589;
888.6000;0.4013;-1.3738;
888.9000;0.3972;-1.3838;
889.2000;0.3989;-1.3738;
889.5000;0.4013;-1.3713;
889.8000;0.4005;-1.3763;
890.1000;0.3997;-1.3738;
890.4000;0.4086;-1.3539;
890.7000;0.3997;-1.3763;
891.0000;0.3997;-1.3813;
891.3000;0.3989;-1.3863;
891.6000;0.4046;-1.3813;
891.9000;0.4078;-1.3639;
892.2000;0.4046;-1.3738;
892.5000;0.4021;-1.3713;
892.8000;0.4013;-1.3688;
893.1000;0.4013;-1.3614;
893.4000;0.3997;-1.3663;
893.7000;0.3980;-1.3663;
894.0000;0.4005;-1.3514;
894.3000;0.3997;-1.3539;
894.6000;0.3980;-1.3663;
894.9000;0.3948;-1.3738;
895.2000;0.3997;-1.3639;
895.5000;0.3997;-1.3663;
895.8000;0.4037;-1.3589;
896.1000;0.4021;-1.3639;
896.4000;0.4037;-1.3639;
896.7000;0.3989;-1.3813;
897.0000;0.4005;-1.3813;
897.3000;0.4046;-1.3738;
897.6000;0.4029;-1.3763;
897.9000;0.4013;-1.3763;
898.2000;0.3980;-1.3813;
898.5000;0.4013;-1.3713;
898.8000;0.3989;-1.3813;
899.1000;0.3980;-1.3863;
899.4000;0.3997;-1.3838;
899.7000;0.4021;-1.3913;
900.0000;0.4005;-1.3838;
900.3000;0.4005;-1.3863;
900.6000;0.3972;-1.3813;
900.9000;0.3997;-1.3763;
901.2000;0.4013;-1.3788;
901.5000;0.4005;-1.3763;
901.8000;0.4013;-1.3788;
902.1000;0.3997;-1.3763;
902.4000;0.4037;-1.3813;
902.7000;0.4013;-1.3838;
903.0000;0.3989;-1.3763;
903.3000;0.4013;-1.3688;
903.6000;0.4021;-1.3589;
903.9000;0.3972;-1.3713;
904.2000;0.4054;-1.3564;
904.5000;0.4021;-1.3663;
904.8000;0.3972;-1.3813;
905.1000;0.4005;-1.3738;
905.4000;0.3980;-1.3738;
905.7000;0.3989;-1.3713;
906.0000;0.3956;-1.3713;
906.3000;0.3997;-1.3589;
906.6000;0.4005;-1.3564;
906.9000;0.3989;-1.3464;
907.2000;0.3997;-1.3414;
907.5000;0.3997;-1.3464;
907.8000;0.4005;-1.3489;
908.1000;0.3997;-1.3539;
908.4000;0.3964;-1.3489;
908.7000;0.4013;-1.3389;
909.0000;0.4013;-1.3464;
909.3000;0.4029;-1.3389;
909.6000;0.3980;-1.3564;
909.9000;0.4021;-1.3489;
910.2000;0.3997;-1.3514;
910.5000;0.3972;-1.3564;
910.8000;0.3980;-1.3589;
911.1000;0.3997;-1.3564;
911.4000;0.3948;-1.3713;
911.7000;0.3980;-1.3589;
912.0000;0.3940;-1.3614;
912.3000;0.3989;-1.3414;
912.6000;0.4005;-1.3339;
912.9000;0.4013;-1.3339;
913.2000;0.3980;-1.3464;
913.5000;0.4005;-1.3364;
913.8000;0.4013;-1.3265;
914.1000;0.3997;-1.3265;
914.4000;0.3989;-1.3190;
914.7000;0.4005;-1.3165;
915.0000;0.4046;-1.3165;
915.3000;0.3997;-1.3314;
915.6000;0.3997;-1.3289;
915.9000;0.3923;-1.3489;
916.2000;0.3980;-1.3364;
916.5000;0.3997;-1.3364;
916.8000;0.4005;-1.3389;
917.1000;0.4005;-1.3514;
917.4000;0.4029;-1.3414;
917.7000;0.3972;-1.3589;
918.0000;0.3972;-1.3639;
918.3000;0.4005;-1.3539;
918.6000;0.3989;-1.3539;
918.9000;0.4005;-1.3589;
919.2000;0.3980;-1.3589;
919.5000;0.4005;-1.3614;
919.8000;0.4005;-1.3639;
920.1000;0.4029;-1.3614;
920.4000;0.4005;-1.3639;
920.7000;0.3997;-1.3663;
921.0000;0.3989;-1.3688;
921.3000;0.3997;-1.3663;
921.6000;0.3989;-1.3688;
921.9000;0.3980;-1.3663;
922.2000;0.4013;-1.3688;
922.5000;0.4005;-1.3688;
922.8000;0.3980;-1.3788;
923.1000;0.4005;-1.3788;
923.4000;0.4037;-1.3614;
923.7000;0.3989;-1.3688;
924.0000;0.3980;-1.3639;
924.3000;0.4005;-1.3614;
924.6000;0.3972;-1.3738;
924.9000;0.3956;-1.3738;
925.2000;0.3980;-1.3663;
925.5000;0.3989;-1.3713;
925.8000;0.3989;-1.3688;
926.1000;0.3980;-1.3663;
926.4000;0.4037;-1.3514;
926.7000;0.3980;-1.3663;
927.0000;0.3980;-1.3589;
927.3000;0.3964;-1.3614;
927.6000;0.3980;-1.3539;
927.9000;0.4005;-1.3539;
928.2000;0.4005;-1.3564;
928.5000;0.3997;-1.3614;
928.8000;0.3980;-1.3713;
929.1000;0.3989;-1.3788;
929.4000;0.3932;-1.3963;
929.7000;0.3980;-1.3763;
930.0000;0.3980;-1.3863;
930.3000;0.3972;-1.3963;
930.6000;0.3980;-1.3913;
930.9000;0.4005;-1.3788;
931.2000;0.3964;-1.3863;
931.5000;0.3972;-1.3888;
931.8000;0.3997;-1.3863;
932.1000;0.3964;-1.4013;
932.4000;0.3940;-1.4013;
932.7000;0.3980;-1.3863;
933.0000;0.3989;-1.3788;
933.3000;0.3989;-1.3763;
933.6000;0.3972;-1.3738;
933.9000;0.3964;-1.3763;
934.2000;0.3980;-1.3713;
934.5000;0.4005;-1.3639;
934.8000;0.3989;-1.3663;
935.1000;0.3997;-1.3639;
935.4000;0.3891;-1.3888;
935.7000;0.3956;-1.3713;
936.0000;0.3997;-1.3639;
936.3000;0.3989;-1.3688;
936.6000;0.3964;-1.3738;
936.9000;0.3980;-1.3763;
937.2000;0.3989;-1.3688;
937.5000;0.3972;-1.3713;
937.8000;0.3964;-1.3688;
938.1000;0.3980;-1.3713;
938.4000;0.4005;-1.3688;
938.7000;0.3980;-1.3763;
939.0000;0.3964;-1.3738;
939.3000;0.3972;-1.3763;
939.6000;0.3972;-1.3738;
939.9000;0.3980;-1.3663;
940.2000;0.3964;-1.3614;
940.5000;0.3932;-1.3564;
940.8000;0.3972;-1.3539;
941.1000;0.3980;-1.3614;
941.4000;0.3972;-1.3564;
941.7000;0.3972;-1.3539;
942.0000;0.4005;-1.3489;
942.3000;0.3972;-1.3564;
942.6000;0.3989;-1.3514;
942.9000;0.3980;-1.3639;
943.2000;0.3972;-1.3639;
943.5000;0.3964;-1.3688;
943.8000;0.3989;-1.3564;
944.1000;0.3980;-1.3663;
944.4000;0.4005;-1.3639;
944.7000;0.3989;-1.3539;
945.0000;0.3972;-1.3589;
945.3000;0.4021;-1.3514;
945.6000;0.3997;-1.3614;
945.9000;0.3948;-1.3738;
946.2000;0.3907;-1.3838;
946.5000;0.3964;-1.3639;
946.8000;0.3972;-1.3614;
947.1000;0.3964;-1.3564;
947.4000;0.3972;-1.3564;
947.7000;0.3989;-1.3464;
948.0000;0.3989;-1.3514;
948.3000;0.3997;-1.3464;
948.6000;0.3972;-1.3539;
948.9000;0.3997;-1.3539;
949.2000;0.3972;-1.3663;
949.5000;0.3989;-1.3589;
949.8000;0.3989;-1.3589;
950.1000;0.3972;-1.3639;
950.4000;0.4021;-1.3539;
950.7000;0.3989;-1.3614;
951.0000;0.3964;-1.3614;
951.3000;0.4005;-1.3464;
951.6000;0.3956;-1.3663;
951.9000;0.3972;-1.3614;
952.2000;0.3956;-1.3639;
952.5000;0.3980;-1.3663;
952.8000;0.3956;-1.3713;
953.1000;0.3980;-1.3639;
953.4000;0.3956;-1.3688;
953.7000;0.3972;-1.3713;
954.0000;0.3972;-1.3663;
954.3000;0.3980;-1.3539;
954.6000;0.3980;-1.3639;
954.9000;0.3980;-1.3688;
955.2000;0.3989;-1.3738;
955.5000;0.3980;-1.3663;
955.8000;0.3964;-1.3688;
956.1000;0.3980;-1.3639;
956.4000;0.3972;-1.3738;
956.7000;0.3956;-1.3813;
957.0000;0.3972;-1.3738;
957.3000;0.3972;-1.3738;
957.6000;0.3980;-1.3688;
957.9000;0.3907;-1.3838;
958.2000;0.3956;-1.3813;
958.5000;0.3989;-1.3738;
958.8000;0.3948;-1.3913;
959.1000;0.3964;-1.3963;
959.4000;0.3964;-1.3913;
959.7000;0.3972;-1.3888;
960.0000;0.3972;-1.3888;
960.3000;0.3989;-1.3813;
960.6000;0.3980;-1.3738;
960.9000;0.3940;-1.3888;
961.2000;0.3915;-1.4013;
961.5000;0.3972;-1.3738;
961.8000;0.3972;-1.3639;
962.1000;0.3964;-1.3688;
962.4000;0.3972;-1.3614;
962.7000;0.3972;-1.3614;
963.0000;0.3964;-1.3663;
963.3000;0.3989;-1.3663;
963.6000;0.3964;-1.3763;
963.9000;0.3972;-1.3788;
964.2000;0.4013;-1.3589;
964.5000;0.3932;-1.3863;
964.8000;0.3997;-1.3688;
965.1000;0.3972;-1.3763;
965.4000;0.3972;-1.3713;
965.7000;0.3989;-1.3564;
966.0000;0.3972;-1.3663;
966.3000;0.3989;-1.3564;
966.6000;0.4005;-1.3614;
966.9000;0.3867;-1.3913;
967.2000;0.4005;-1.3464;
967.5000;0.3980;-1.3564;
967.8000;0.3972;-1.3639;
968.1000;0.3980;-1.3688;
968.4000;0.3948;-1.3788;
968.7000;0.3972;-1.3738;
969.0000;0.3997;-1.3639;
969.3000;0.3972;-1.3713;
969.6000;0.3980;-1.3688;
969.9000;0.4005;-1.3639;
970.2000;0.3980;-1.3738;
970.5000;0.3989;-1.3738;
970.8000;0.3972;-1.3713;
971.1000;0.3997;-1.3738;
971.4000;0.4005;-1.3738;
971.7000;0.3964;-1.3788;
972.0000;0.3932;-1.3863;
972.3000;0.3964;-1.3838;
972.6000;0.3980;-1.3863;
972.9000;0.4021;-1.3813;
973.2000;0.3972;-1.3813;
973.5000;0.3989;-1.3838;
973.8000;0.3964;-1.3863;
974.1000;0.3940;-1.3838;
974.4000;0.3972;-1.3639;
974.7000;0.3989;-1.3639;
975.0000;0.3980;-1.3564;
975.3000;0.3948;-1.3639;
975.6000;0.3972;-1.3564;
975.9000;0.3989;-1.3539;
976.2000;0.3972;-1.3639;
976.5000;0.4062;-1.3514;
976.8000;0.3972;-1.3639;
977.1000;0.3940;-1.3738;
977.4000;0.3980;-1.3614;
977.7000;0.3964;-1.3713;
978.0000;0.3956;-1.3713;
978.3000;0.3964;-1.3688;
978.6000;0.3948;-1.3813;
978.9000;0.3980;-1.3713;
979.2000;0.3972;-1.3763;
979.5000;0.3972;-1.3738;
979.8000;0.3948;-1.3738;
980.1000;0.3940;-1.3713;
980.4000;0.4021;-1.3663;
980.7000;0.3972;-1.3788;
981.0000;0.3956;-1.3838;
981.3000;0.3948;-1.3863;
981.6000;0.3956;-1.3888;
981.9000;0.3997;-1.3763;
982.2000;0.3948;-1.3838;
982.5000;0.3883;-1.3963;
982.8000;0.3964;-1.3788;
983.1000;0.3964;-1.3838;
983.4000;0.3964;-1.3863;
983.7000;0.4046;-1.3589;
984.0000;0.3980;-1.3763;
984.3000;0.3948;-1.3888;
984.6000;0.3997;-1.3738;
984.9000;0.3980;-1.3688;
985.2000;0.3972;-1.3688;
985.5000;0.3980;-1.3688;
985.8000;0.3956;-1.3663;
986.1000;0.3972;-1.3589;
986.4000;0.3972;-1.3639;
986.7000;0.3980;-1.3589;
987.0000;0.3956;-1.3539;
987.3000;0.3948;-1.3614;
987.6000;0.3964;-1.3688;
987.9000;0.3956;-1.3688;
988.2000;0.3980;-1.3663;
988.5000;0.3997;-1.3614;
988.8000;0.3956;-1.3788;
989.1000;0.3964;-1.3838;
989.4000;0.3989;-1.3813;
989.7000;0.4013;-1.3763;
990.0000;0.3940;-1.3938;
990.3000;0.3980;-1.3813;
990.6000;0.3964;-1.3763;
990.9000;0.3964;-1.3763;
991.2000;0.3964;-1.3813;
991.5000;0.3972;-1.3738;
991.8000;0.3972;-1.3639;
992.1000;0.3948;-1.3663;
992.4000;0.3956;-1.3589;
992.7000;0.4013;-1.3514;
993.0000;0.3956;-1.3713;
993.3000;0.3997;-1.3564;
993.6000;0.3948;-1.3639;
993.9000;0.3907;-1.3663;
994.2000;0.3956;-1.3539;
994.5000;0.3989;-1.3539;
994.8000;0.3940;-1.3639;
995.1000;0.3956;-1.3564;
995.4000;0.3997;-1.3439;
995.7000;0.3964;-1.3663;
996.0000;0.3948;-1.3738;
996.3000;0.3907;-1.3863;
996.6000;0.3940;-1.3738;
996.9000;0.3940;-1.3713;
997.2000;0.3964;-1.3688;
997.5000;0.3940;-1.3713;
997.8000;0.3948;-1.3688;
998.1000;0.3940;-1.3713;
998.4000;0.3932;-1.3663;
998.7000;0.3956;-1.3688;
999.0000;0.3915;-1.3813;
999.3000;0.4021;-1.3589;
999.6000;0.3932;-1.3938;
999.9000;0.3940;-1.3913;
1000.2000;0.3948;-1.3888;
1000.5000;0.3956;-1.3838;
1000.8000;0.3972;-1.3813;
1001.1000;0.3940;-1.3863;
1001.4000;0.3964;-1.3813;
1001.7000;0.3956;-1.3813;
1002.0000;0.3972;-1.3788;
1002.3000;0.3956;-1.3838;
1002.6000;0.3948;-1.3813;
1002.9000;0.3956;-1.3813;
1003.2000;0.3940;-1.3888;
1003.5000;0.4029;-1.3663;
1003.8000;0.4046;-1.3514;
1004.1000;0.3948;-1.3863;
1004.4000;0.3964;-1.3788;
1004.7000;0.3972;-1.3713;
1005.0000;0.3907;-1.3938;
1005.3000;0.3956;-1.3788;
1005.6000;0.3972;-1.3663;
1005.9000;0.3964;-1.3663;
1006.2000;0.3964;-1.3788;
1006.5000;0.3858;-1.4013;
1006.8000;0.3948;-1.3838;
1007.1000;0.3964;-1.3663;
1007.4000;0.4005;-1.3614;
1007.7000;0.3932;-1.3813;
1008.0000;0.3956;-1.3763;
1008.3000;0.3972;-1.3738;
1008.6000;0.3956;-1.3763;
1008.9000;0.3972;-1.3639;
1009.2000;0.3940;-1.3688;
1009.5000;0.3956;-1.3614;
1009.8000;0.3932;-1.3688;
1010.1000;0.3956;-1.3738;
1010.4000;0.3948;-1.3713;
1010.7000;0.3907;-1.3738;
1011.0000;0.3940;-1.3688;
1011.3000;0.3932;-1.3713;
1011.6000;0.3948;-1.3713;
1011.9000;0.3923;-1.3763;
1012.2000;0.3964;-1.3713;
1012.5000;0.3940;-1.3763;
1012.8000;0.3940;-1.3788;
1013.1000;0.3956;-1.3738;
1013.4000;0.3948;-1.3713;
1013.7000;0.3956;-1.3713;
1014.0000;0.3964;-1.3763;
1014.3000;0.3956;-1.3688;
1014.6000;0.3972;-1.3663;
1014.9000;0.3964;-1.3788;
1015.2000;0.3972;-1.3813;
1015.5000;0.3923;-1.3888;
1015.8000;0.3932;-1.3938;
1016.1000;0.3907;-1.4137;
1016.4000;0.3948;-1.3988;
1016.7000;0.3948;-1.3938;
1017.0000;0.3948;-1.3888;
1017.3000;0.3932;-1.3888;
1017.6000;0.3980;-1.3763;
1017.9000;0.3932;-1.3788;
1018.2000;0.3940;-1.3738;
1018.5000;0.3980;-1.3564;
1018.8000;0.3923;-1.3688;
1019.1000;0.3932;-1.3663;
1019.4000;0.3980;-1.3663;
1019.7000;0.3956;-1.3639;
1020.0000;0.3932;-1.3713;
1020.3000;0.3956;-1.3639;
1020.6000;0.3956;-1.3639;
1020.9000;0.3964;-1.3688;
1021.2000;0.3940;-1.3713;
1021.5000;0.3964;-1.3838;
1021.8000;0.3964;-1.3813;
1022.1000;0.3956;-1.3913;
1022.4000;0.3948;-1.3838;
1022.7000;0.3964;-1.3713;
1023.0000;0.3948;-1.3688;
1023.3000;0.3932;-1.3763;
1023.6000;0.3932;-1.3663;
1023.9000;0.3964;-1.3589;
1024.2000;0.3940;-1.3564;
1024.5000;0.3956;-1.3514;
1024.8000;0.3956;-1.3514;
1025.1000;0.3964;-1.3589;
1025.4000;0.3907;-1.3738;
1025.7000;0.3948;-1.3663;
1026.0000;0.3964;-1.3663;
1026.3000;0.3948;-1.3663;
1026.6000;0.3940;-1.3688;
1026.9000;0.3972;-1.3639;
1027.2000;0.3956;-1.3688;
1027.5000;0.4005;-1.3564;
1027.8000;0.3997;-1.3639;
1028.1000;0.3948;-1.3788;
1028.4000;0.3956;-1.3763;
1028.7000;0.3948;-1.3713;
1029.0000;0.3972;-1.3688;
1029.3000;0.3948;-1.3663;
1029.6000;0.3940;-1.3688;
1029.9000;0.3923;-1.3713;
1030.2000;0.3956;-1.3589;
1030.5000;0.3956;-1.3589;
1030.8000;0.3989;-1.3564;
1031.1000;0.3956;-1.3688;
1031.4000;0.3964;-1.3614;
1031.7000;0.3964;-1.3514;
1032.0000;0.3940;-1.3663;
1032.3000;0.3956;-1.3589;
1032.6000;0.3923;-1.3614;
1032.9000;0.3940;-1.3663;
1033.2000;0.3948;-1.3614;
1033.5000;0.3948;-1.3614;
1033.8000;0.3940;-1.3688;
1034.1000;0.3932;-1.3639;
1034.4000;0.3940;-1.3564;
1034.7000;0.3989;-1.3564;
1035.0000;0.3923;-1.3688;
1035.3000;0.3956;-1.3614;
1035.6000;0.3940;-1.3688;
1035.9000;0.3932;-1.3614;
1036.2000;0.3948;-1.3589;
1036.5000;0.3948;-1.3688;
1036.8000;0.3923;-1.3813;
1037.1000;0.3948;-1.3788;
1037.4000;0.3956;-1.3713;
1037.7000;0.3940;-1.3738;
1038.0000;0.3948;-1.3813;
1038.3000;0.3932;-1.3763;
1038.6000;0.3956;-1.3688;
1038.9000;0.3940;-1.3813;
1039.2000;0.3964;-1.3713;
1039.5000;0.3948;-1.3738;
1039.8000;0.3956;-1.3663;
1040.1000;0.3940;-1.3688;
1040.4000;0.3980;-1.3589;
1040.7000;0.3940;-1.3614;
1041.0000;0.3948;-1.3564;
1041.3000;0.3956;-1.3639;
1041.6000;0.3956;-1.3663;
1041.9000;0.3923;-1.3713;
1042.2000;0.4005;-1.3514;
1042.5000;0.3956;-1.3589;
1042.8000;0.3948;-1.3539;
1043.1000;0.3964;-1.3514;
1043.4000;0.3997;-1.3439;
1043.7000;0.3923;-1.3639;
1044.0000;0.3948;-1.3639;
1044.3000;0.3923;-1.3738;
1044.6000;0.3964;-1.3713;
1044.9000;0.3932;-1.3788;
1045.2000;0.3956;-1.3564;
1045.5000;0.3964;-1.3489;
1045.8000;0.3948;-1.3614;
1046.1000;0.3948;-1.3614;
1046.4000;0.3948;-1.3663;
1046.7000;0.3956;-1.3639;
1047.0000;0.3989;-1.3564;
1047.3000;0.3997;-1.3564;
1047.6000;0.3964;-1.3663;
1047.9000;0.3956;-1.3589;
1048.2000;0.3956;-1.3539;
1048.5000;0.3948;-1.3564;
1048.8000;0.3948;-1.3489;
1049.1000;0.3948;-1.3564;
1049.4000;0.3964;-1.3514;
1049.7000;0.3948;-1.3688;
1050.0000;0.3948;-1.3639;
1050.3000;0.3932;-1.3663;
1050.6000;0.3932;-1.3514;
1050.9000;0.3948;-1.3439;
1051.2000;0.3940;-1.3464;
1051.5000;0.3956;-1.3414;
1051.8000;0.3948;-1.3464;
1052.1000;0.3940;-1.3464;
1052.4000;0.3940;-1.3564;
1052.7000;0.3940;-1.3663;
1053.0000;0.4005;-1.3539;
1053.3000;0.3956;-1.3688;
1053.6000;0.3948;-1.3663;
1053.9000;0.3932;-1.3713;
1054.2000;0.3932;-1.3738;
1054.5000;0.3923;-1.3713;
1054.8000;0.3940;-1.3639;
1055.1000;0.3940;-1.3663;
1055.4000;0.3948;-1.3614;
1055.7000;0.3948;-1.3589;
1056.0000;0.3899;-1.3639;
1056.3000;0.3932;-1.3564;
1056.6000;0.3915;-1.3663;
1056.9000;0.4013;-1.3414;
1057.2000;0.3948;-1.3489;
1057.5000;0.3907;-1.3564;
1057.8000;0.3915;-1.3539;
1058.1000;0.3915;-1.3589;
1058.4000;0.3948;-1.3639;
1058.7000;0.3883;-1.3863;
1059.0000;0.3980;-1.3614;
1059.3000;0.3972;-1.3589;
1059.6000;0.3915;-1.3738;
1059.9000;0.3940;-1.3663;
1060.2000;0.3932;-1.3788;
1060.5000;0.3932;-1.3888;
1060.8000;0.3940;-1.3838;
1061.1000;0.3907;-1.3938;
1061.4000;0.3932;-1.3738;
1061.7000;0.3972;-1.3639;
1062.0000;0.3948;-1.3738;
1062.3000;0.3923;-1.3738;
1062.6000;0.3923;-1.3713;
1062.9000;0.3940;-1.3713;
1063.2000;0.3989;-1.3663;
1063.5000;0.3972;-1.3663;
1063.8000;0.3948;-1.3663;
1064.1000;0.3948;-1.3663;
1064.4000;0.3923;-1.3763;
1064.7000;0.3932;-1.3738;
1065.0000;0.3932;-1.3663;
1065.3000;0.3956;-1.3639;
1065.6000;0.3932;-1.3738;
1065.9000;0.3940;-1.3738;
1066.2000;0.3997;-1.3614;
1066.5000;0.3956;-1.3713;
1066.8000;0.3948;-1.3788;
1067.1000;0.3915;-1.3863;
1067.4000;0.3932;-1.3763;
1067.7000;0.3932;-1.3788;
1068.0000;0.3940;-1.3763;
1068.3000;0.3940;-1.3713;
1068.6000;0.3956;-1.3589;
1068.9000;0.3940;-1.3639;
1069.2000;0.3948;-1.3614;
1069.5000;0.3956;-1.3614;
1069.8000;0.3915;-1.3639;
1070.1000;0.3923;-1.3663;
1070.4000;0.3932;-1.3713;
1070.7000;0.3932;-1.3813;
1071.0000;0.3964;-1.3763;
1071.3000;0.3964;-1.3838;
1071.6000;0.3940;-1.3863;
1071.9000;0.3956;-1.3763;
1072.2000;0.3948;-1.3713;
1072.5000;0.3948;-1.3614;
1072.8000;0.3956;-1.3564;
1073.1000;0.3891;-1.3763;
1073.4000;0.3932;-1.3688;
1073.7000;0.3940;-1.3763;
1074.0000;0.3997;-1.3639;
1074.3000;0.3948;-1.3813;
1074.6000;0.3940;-1.3763;
1074.9000;0.3940;-1.3738;
1075.2000;0.3948;-1.3763;
1075.5000;0.3972;-1.3639;
1075.8000;0.3932;-1.3663;
1076.1000;0.3932;-1.3614;
1076.4000;0.3940;-1.3663;
1076.7000;0.3940;-1.3713;
1077.0000;0.3948;-1.3688;
1077.3000;0.3948;-1.3639;
1077.6000;0.3907;-1.3788;
1077.9000;0.3940;-1.3813;
1078.2000;0.3964;-1.3738;
1078.5000;0.3915;-1.3763;
1078.8000;0.3932;-1.3838;
1079.1000;0.3891;-1.3988;
1079.4000;0.3940;-1.3838;
1079.7000;0.3850;-1.3988;
1080.0000;0.3989;-1.3663;
1080.3000;0.3948;-1.3838;
1080.6000;0.3989;-1.3763;
1080.9000;0.3875;-1.4087;
1081.2000;0.3940;-1.3838;
1081.5000;0.3940;-1.3763;
1081.8000;0.3875;-1.3988;
1082.1000;0.3818;-1.4112;
1082.4000;0.3940;-1.3938;
1082.7000;0.3972;-1.3863;
1083.0000;0.3956;-1.3788;
1083.3000;0.3956;-1.3738;
1083.6000;0.3891;-1.3938;
1083.9000;0.3997;-1.3738;
1084.2000;0.3923;-1.3938;
1084.5000;0.3940;-1.3813;
1084.8000;0.3940;-1.3763;
1085.1000;0.3932;-1.3813;
1085.4000;0.3915;-1.3813;
1085.7000;0.3923;-1.3738;
1086.0000;0.3956;-1.3688;
1086.3000;0.3940;-1.3688;
1086.6000;0.3842;-1.3938;
1086.9000;0.3932;-1.3738;
1087.2000;0.3932;-1.3688;
1087.5000;0.3948;-1.3688;
1087.8000;0.3940;-1.3688;
1088.1000;0.3948;-1.3614;
1088.4000;0.3940;-1.3663;
1088.7000;0.3956;-1.3539;
1089.0000;0.3948;-1.3539;
1089.3000;0.3948;-1.3564;
1089.6000;0.3932;-1.3663;
1089.9000;0.3932;-1.3539;
1090.2000;0.3948;-1.3514;
1090.5000;0.3875;-1.3688;
1090.8000;0.3940;-1.3639;
1091.1000;0.3899;-1.3738;
1091.4000;0.3940;-1.3589;
1091.7000;0.3932;-1.3663;
1092.0000;0.3940;-1.3688;
1092.3000;0.3923;-1.3639;
1092.6000;0.3956;-1.3514;
1092.9000;0.3956;-1.3539;
1093.2000;0.3940;-1.3614;
1093.5000;0.3940;-1.3614;
1093.8000;0.3915;-1.3663;
1094.1000;0.3940;-1.3514;
1094.4000;0.3956;-1.3489;
1094.7000;0.3907;-1.3589;
1095.0000;0.3948;-1.3439;
1095.3000;0.3948;-1.3464;
1095.6000;0.3940;-1.3539;
1095.9000;0.3932;-1.3489;
1096.2000;0.3948;-1.3464;
1096.5000;0.3940;-1.3539;
1096.8000;0.3964;-1.3489;
1097.1000;0.3923;-1.3639;
1097.4000;0.3948;-1.3589;
1097.7000;0.3948;-1.3539;
1098.0000;0.3956;-1.3489;
1098.3000;0.3932;-1.3564;
1098.6000;0.3932;-1.3614;
1098.9000;0.3940;-1.3639;
1099.2000;0.3964;-1.3564;
1099.5000;0.3964;-1.3564;
1099.8000;0.3940;-1.3589;
1100.1000;0.3915;-1.3663;
1100.4000;0.3956;-1.3614;
1100.7000;0.3948;-1.3514;
1101.0000;0.3923;-1.3663;
1101.3000;0.3940;-1.3663;
1101.6000;0.3956;-1.3514;
1101.9000;0.3940;-1.3539;
1102.2000;0.3956;-1.3439;
1102.5000;0.3980;-1.3414;
1102.8000;0.3956;-1.3514;
1103.1000;0.3915;-1.3614;
1103.4000;0.3932;-1.3614;
1103.7000;0.3923;-1.3639;
1104.0000;0.3907;-1.3713;
1104.3000;0.3940;-1.3514;
1104.6000;0.3964;-1.3539;
1104.9000;0.3932;-1.3688;
1105.2000;0.3948;-1.3639;
1105.5000;0.3940;-1.3589;
1105.8000;0.3964;-1.3564;
1106.1000;0.3956;-1.3539;
1106.4000;0.3964;-1.3539;
1106.7000;0.3940;-1.3564;
1107.0000;0.3907;-1.3589;
1107.3000;0.3948;-1.3464;
1107.6000;0.3915;-1.3539;
1107.9000;0.4005;-1.3265;
1108.2000;0.3932;-1.3339;
1108.5000;0.3964;-1.3414;
1108.8000;0.3915;-1.3564;
1109.1000;0.3940;-1.3389;
1109.4000;0.3948;-1.3414;
1109.7000;0.3915;-1.3489;
1110.0000;0.3915;-1.3389;
1110.3000;0.4037;-1.3090;
1110.6000;0.3915;-1.3389;
1110.9000;0.3915;-1.3514;
1111.2000;0.3891;-1.3663;
1111.5000;0.3923;-1.3564;
1111.8000;0.3923;-1.3539;
1112.1000;0.3915;-1.3614;
1112.4000;0.3867;-1.3763;
1112.7000;0.3932;-1.3639;
1113.0000;0.3940;-1.3688;
1113.3000;0.3915;-1.3713;
1113.6000;0.3948;-1.3738;
1113.9000;0.3956;-1.3763;
1114.2000;0.3956;-1.3688;
1114.5000;0.3932;-1.3663;
1114.8000;0.3948;-1.3663;
1115.1000;0.3923;-1.3688;
1115.4000;0.3948;-1.3564;
1115.7000;0.3940;-1.3539;
1116.0000;0.3923;-1.3589;
1116.3000;0.3940;-1.3564;
1116.6000;0.3940;-1.3663;
1116.9000;0.3915;-1.3639;
1117.2000;0.3907;-1.3639;
1117.5000;0.3923;-1.3489;
1117.8000;0.3875;-1.3614;
1118.1000;0.3932;-1.3464;
1118.4000;0.3972;-1.3439;
1118.7000;0.3948;-1.3539;
1119.0000;0.3932;-1.3539;
1119.3000;0.3948;-1.3539;
1119.6000;0.3980;-1.3539;
1119.9000;0.3940;-1.3688;
1120.2000;0.3932;-1.3713;
1120.5000;0.3907;-1.3663;
1120.8000;0.3948;-1.3589;
1121.1000;0.3989;-1.3514;
1121.4000;0.3940;-1.3713;
1121.7000;0.3923;-1.3863;
1122.0000;0.3932;-1.3763;
1122.3000;0.3932;-1.3788;
1122.6000;0.3875;-1.4062;
1122.9000;0.3932;-1.3888;
1123.2000;0.3940;-1.3813;
1123.5000;0.3997;-1.3639;
1123.8000;0.3940;-1.3688;
1124.1000;0.3940;-1.3639;
1124.4000;0.3980;-1.3539;
1124.7000;0.3948;-1.3663;
1125.0000;0.3956;-1.3688;
1125.3000;0.3948;-1.3688;
1125.6000;0.3907;-1.3763;
1125.9000;0.3948;-1.3663;
1126.2000;0.3932;-1.3663;
1126.5000;0.3915;-1.3614;
1126.8000;0.3948;-1.3589;
1127.1000;0.3932;-1.3614;
1127.4000;0.3923;-1.3639;
1127.7000;0.3964;-1.3489;
1128.0000;0.3915;-1.3539;
1128.3000;0.3932;-1.3589;
1128.6000;0.3956;-1.3539;
1128.9000;0.3940;-1.3539;
1129.2000;0.3932;-1.3489;
1129.5000;0.3940;-1.3489;
1129.8000;0.3948;-1.3514;
1130.1000;0.3964;-1.3389;
1130.4000;0.3948;-1.3339;
1130.7000;0.3899;-1.3464;
1131.0000;0.3907;-1.3489;
1131.3000;0.4005;-1.3339;
1131.6000;0.3923;-1.3539;
1131.9000;0.3923;-1.3564;
1132.2000;0.3923;-1.3614;
1132.5000;0.3948;-1.3564;
1132.8000;0.3932;-1.3564;
1133.1000;0.3915;-1.3514;
1133.4000;0.3940;-1.3439;
1133.7000;0.3923;-1.3439;
1134.0000;0.3915;-1.3439;
1134.3000;0.3980;-1.3314;
1134.6000;0.3940;-1.3464;
1134.9000;0.3923;-1.3414;
1135.2000;0.3932;-1.3339;
1135.5000;0.3923;-1.3339;
1135.8000;0.3932;-1.3439;
1136.1000;0.3932;-1.3439;
1136.4000;0.3980;-1.3389;
1136.7000;0.3940;-1.3464;
1137.0000;0.3923;-1.3489;
1137.3000;0.3940;-1.3539;
1137.6000;0.3940;-1.3663;
1137.9000;0.3932;-1.3738;
1138.2000;0.3948;-1.3688;
1138.5000;0.3948;-1.3713;
1138.8000;0.3956;-1.3688;
1139.1000;0.3915;-1.3738;
1139.4000;0.3915;-1.3688;
1139.7000;0.3923;-1.3589;
1140.0000;0.3940;-1.3489;
1140.3000;0.3940;-1.3439;
1140.6000;0.3915;-1.3514;
1140.9000;0.3940;-1.3489;
1141.2000;0.3940;-1.3464;
1141.5000;0.3940;-1.3489;
1141.8000;0.3948;-1.3489;
1142.1000;0.3948;-1.3439;
1142.4000;0.3923;-1.3489;
1142.7000;0.3948;-1.3439;
1143.0000;0.3923;-1.3564;
1143.3000;0.3923;-1.3514;
1143.6000;0.3956;-1.3489;
1143.9000;0.3940;-1.3589;
1144.2000;0.3940;-1.3564;
1144.5000;0.3907;-1.3564;
1144.8000;0.3915;-1.3663;
1145.1000;0.3972;-1.3539;
1145.4000;0.3940;-1.3564;
1145.7000;0.3932;-1.3688;
1146.0000;0.3915;-1.3663;
1146.3000;0.3899;-1.3639;
1146.6000;0.3932;-1.3564;
1146.9000;0.3923;-1.3564;
1147.2000;0.3932;-1.3614;
1147.5000;0.3923;-1.3614;
1147.8000;0.3940;-1.3688;
1148.1000;0.3915;-1.3838;
1148.4000;0.3932;-1.3788;
1148.7000;0.3940;-1.3738;
1149.0000;0.3932;-1.3738;
1149.3000;0.3907;-1.3813;
1149.6000;0.3932;-1.3738;
1149.9000;0.3940;-1.3738;
1150.2000;0.3956;-1.3763;
1150.5000;0.3932;-1.3688;
1150.8000;0.3923;-1.3713;
1151.1000;0.3923;-1.3763;
1151.4000;0.3940;-1.3663;
1151.7000;0.3923;-1.3813;
1152.0000;0.3923;-1.3788;
1152.3000;0.3940;-1.3788;
1152.6000;0.3923;-1.3713;
1152.9000;0.3972;-1.3564;
1153.2000;0.3932;-1.3589;
1153.5000;0.3964;-1.3564;
1153.8000;0.3956;-1.3713;
1154.1000;0.4021;-1.3539;
1154.4000;0.3923;-1.3738;
1154.7000;0.3923;-1.3738;
1155.0000;0.3915;-1.3688;
1155.3000;0.3964;-1.3589;
1155.6000;0.3932;-1.3639;
1155.9000;0.3907;-1.3663;
1156.2000;0.3956;-1.3564;
1156.5000;0.3915;-1.3663;
1156.8000;0.3932;-1.3564;
1157.1000;0.3923;-1.3589;
1157.4000;0.3964;-1.3489;
1157.7000;0.3932;-1.3614;
1158.0000;0.3948;-1.3639;
1158.3000;0.3907;-1.3813;
1158.6000;0.3899;-1.3838;
1158.9000;0.3932;-1.3788;
1159.2000;0.3932;-1.3713;
1159.5000;0.3923;-1.3713;
1159.8000;0.3948;-1.3564;
1160.1000;0.3940;-1.3539;
1160.4000;0.3842;-1.3813;
1160.7000;0.3940;-1.3663;
1161.0000;0.3932;-1.3639;
1161.3000;0.4005;-1.3414;
1161.6000;0.3923;-1.3589;
1161.9000;0.3923;-1.3663;
1162.2000;0.3923;-1.3688;
1162.5000;0.3923;-1.3738;
1162.8000;0.3932;-1.3863;
1163.1000;0.3932;-1.3863;
1163.4000;0.3932;-1.3713;
1163.7000;0.3956;-1.3589;
1164.0000;0.3932;-1.3614;
1164.3000;0.3948;-1.3663;
1164.6000;0.3923;-1.3763;
1164.9000;0.3940;-1.3763;
1165.2000;0.3915;-1.3863;
1165.5000;0.3915;-1.3838;
1165.8000;0.3923;-1.3863;
1166.1000;0.3907;-1.3913;
1166.4000;0.3915;-1.3863;
1166.7000;0.3923;-1.3863;
1167.0000;0.3915;-1.3788;
1167.3000;0.3923;-1.3763;
1167.6000;0.3899;-1.3838;
1167.9000;0.3940;-1.3763;
1168.2000;0.3940;-1.3688;
1168.5000;0.3932;-1.3713;
1168.8000;0.3997;-1.3564;
1169.1000;0.3940;-1.3688;
1169.4000;0.3923;-1.3713;
1169.7000;0.3915;-1.3713;
1170.0000;0.3923;-1.3738;
1170.3000;0.3940;-1.3688;
1170.6000;0.3948;-1.3688;
1170.9000;0.3940;-1.3663;
1171.2000;0.3948;-1.3589;
1171.5000;0.3915;-1.3614;
1171.8000;0.3834;-1.3838;
1172.1000;0.3940;-1.3589;
1172.4000;0.3948;-1.3614;
1172.7000;0.3899;-1.3763;
1173.0000;0.3923;-1.3738;
1173.3000;0.3932;-1.3738;
1173.6000;0.3915;-1.3788;
1173.9000;0.3923;-1.3788;
1174.2000;0.3923;-1.3763;
1174.5000;0.4029;-1.3539;
1174.8000;0.3899;-1.3838;
1175.1000;0.3899;-1.3813;
1175.4000;0.3923;-1.3763;
1175.7000;0.3826;-1.3938;
1176.0000;0.4021;-1.3489;
1176.3000;0.3923;-1.3713;
1176.6000;0.3997;-1.3539;
1176.9000;0.3867;-1.3913;
1177.2000;0.3891;-1.3788;
1177.5000;0.3923;-1.3614;
1177.8000;0.3948;-1.3614;
1178.1000;0.3907;-1.3713;
1178.4000;0.3956;-1.3713;
1178.7000;0.3923;-1.3863;
1179.0000;0.3867;-1.3988;
1179.3000;0.3891;-1.4013;
1179.6000;0.3940;-1.3863;
1179.9000;0.3883;-1.4062;
1180.2000;0.3997;-1.3838;
1180.5000;0.3915;-1.4013;
1180.8000;0.3923;-1.3938;
1181.1000;0.3972;-1.3788;
1181.4000;0.3940;-1.3938;
1181.7000;0.3923;-1.3938;
1182.0000;0.3948;-1.3913;
1182.3000;0.3932;-1.4013;
1182.6000;0.3940;-1.3913;
1182.9000;0.3948;-1.3888;
1183.2000;0.3932;-1.3913;
1183.5000;0.3899;-1.4013;
1183.8000;0.3932;-1.3988;
1184.1000;0.3907;-1.4087;
1184.4000;0.4013;-1.3763;
1184.7000;0.3923;-1.3988;
1185.0000;0.3875;-1.4037;
1185.3000;0.3980;-1.3763;
1185.6000;0.3932;-1.3863;
1185.9000;0.3964;-1.3738;
1186.2000;0.3940;-1.3713;
1186.5000;0.3940;-1.3763;
1186.8000;0.3940;-1.3888;
1187.1000;0.3948;-1.3838;
1187.4000;0.3940;-1.3813;
1187.7000;0.3940;-1.3838;
1188.0000;0.3915;-1.3763;
1188.3000;0.3940;-1.3763;
1188.6000;0.3923;-1.3838;
1188.9000;0.3932;-1.3763;
1189.2000;0.4021;-1.3514;
1189.5000;0.3907;-1.3813;
1189.8000;0.3923;-1.3763;
1190.1000;0.3972;-1.3688;
1190.4000;0.3932;-1.3888;
1190.7000;0.3932;-1.3863;
1191.0000;0.3907;-1.3888;
1191.3000;0.3932;-1.3888;
1191.6000;0.3907;-1.4013;
1191.9000;0.3923;-1.3938;
1192.2000;0.3932;-1.3913;
1192.5000;0.3932;-1.3913;
1192.8000;0.3940;-1.3938;
1193.1000;0.3940;-1.3888;
1193.4000;0.3923;-1.3838;
1193.7000;0.3940;-1.3713;
1194.0000;0.3923;-1.3663;
1194.3000;0.3923;-1.3639;
1194.6000;0.3932;-1.3564;
1194.9000;0.3956;-1.3564;
1195.2000;0.3915;-1.3639;
1195.5000;0.3932;-1.3713;
1195.8000;0.3915;-1.3838;
1196.1000;0.3940;-1.3813;
1196.4000;0.3932;-1.3813;
1196.7000;0.3964;-1.3788;
1197.0000;0.3923;-1.3813;
1197.3000;0.3932;-1.3863;
1197.6000;0.3932;-1.3863;
1197.9000;0.3923;-1.3863;
1198.2000;0.3940;-1.3838;
1198.5000;0.3956;-1.3763;
1198.8000;0.3923;-1.3838;
1199.1000;0.3948;-1.3713;
1199.4000;0.3932;-1.3788;
1199.7000;0.3883;-1.3838;
1200.0000;0.3948;-1.3738;
1200.3000;0.3899;-1.3863;
1200.6000;0.3940;-1.3813;
1200.9000;0.3915;-1.3763;
1201.2000;0.3923;-1.3763;
1201.5000;0.3940;-1.3713;
1201.8000;0.3915;-1.3688;
1202.1000;0.3940;-1.3788;
1202.4000;0.3940;-1.3813;
1202.7000;0.3923;-1.3863;
1203.0000;0.3948;-1.3838;
1203.3000;0.3932;-1.3863;
1203.6000;0.3940;-1.3713;
1203.9000;0.3932;-1.3738;
1204.2000;0.3948;-1.3713;
1204.5000;0.3932;-1.3688;
1204.8000;0.3907;-1.3663;
1205.1000;0.3923;-1.3688;
1205.4000;0.3940;-1.3663;
1205.7000;0.3948;-1.3589;
1206.0000;0.3940;-1.3564;
1206.3000;0.3964;-1.3539;
1206.6000;0.3923;-1.3614;
1206.9000;0.3932;-1.3564;
1207.2000;0.3932;-1.3614;
1207.5000;0.3940;-1.3589;
1207.8000;0.3948;-1.3539;
1208.1000;0.3956;-1.3639;
1208.4000;0.3948;-1.3713;
1208.7000;0.3932;-1.3688;
1209.0000;0.3948;-1.3788;
1209.3000;0.3915;-1.3863;
1209.6000;0.3932;-1.3863;
1209.9000;0.3956;-1.3913;
1210.2000;0.3940;-1.3913;
1210.5000;0.3932;-1.3938;
1210.8000;0.3915;-1.3988;
1211.1000;0.3964;-1.3838;
1211.4000;0.3940;-1.3863;
1211.7000;0.3997;-1.3713;
1212.0000;0.3932;-1.3888;
1212.3000;0.3923;-1.3913;
1212.6000;0.4054;-1.3614;
1212.9000;0.3948;-1.3863;
1213.2000;0.3972;-1.3863;
1213.5000;0.3948;-1.3863;
1213.8000;0.3923;-1.3863;
1214.1000;0.3907;-1.3963;
1214.4000;0.3989;-1.3639;
1214.7000;0.3948;-1.3738;
1215.0000;0.3932;-1.3788;
1215.3000;0.3932;-1.3788;
1215.6000;0.3858;-1.3863;
1215.9000;0.3923;-1.3713;
1216.2000;0.3972;-1.3639;
1216.5000;0.3948;-1.3738;
1216.8000;0.3956;-1.3763;
1217.1000;0.3932;-1.3913;
1217.4000;0.3940;-1.3888;
1217.7000;0.3915;-1.3838;
1218.0000;0.3932;-1.3788;
1218.3000;0.3932;-1.3838;
1218.6000;0.3907;-1.3788;
1218.9000;0.3915;-1.3788;
1219.2000;0.3923;-1.3788;
1219.5000;0.3940;-1.3863;
1219.8000;0.3940;-1.3913;
1220.1000;0.3923;-1.3888;
1220.4000;0.3948;-1.3888;
1220.7000;0.3932;-1.3938;
1221.0000;0.3940;-1.3888;
1221.3000;0.3972;-1.3863;
1221.6000;0.3940;-1.3938;
1221.9000;0.3940;-1.3938;
1222.2000;0.3932;-1.3888;
1222.5000;0.3940;-1.3913;
1222.8000;0.3940;-1.3838;
1223.1000;0.3923;-1.3788;
1223.4000;0.3932;-1.3913;
1223.7000;0.3915;-1.3863;
1224.0000;0.3915;-1.3838;
1224.3000;0.3940;-1.3738;
1224.6000;0.3932;-1.3713;
1224.9000;0.3899;-1.3963;
1225.2000;0.3915;-1.3838;
1225.5000;0.3932;-1.3788;
1225.8000;0.3899;-1.3788;
1226.1000;0.3932;-1.3713;
1226.4000;0.3980;-1.3539;
1226.7000;0.3956;-1.3663;
1227.0000;0.3923;-1.3788;
1227.3000;0.3923;-1.3738;
1227.6000;0.3932;-1.3713;
1227.9000;0.3940;-1.3688;
1228.2000;0.3948;-1.3688;
1228.5000;0.3932;-1.3688;
1228.8000;0.3915;-1.3813;
1229.1000;0.3923;-1.3813;
1229.4000;0.3915;-1.3713;
1229.7000;0.3932;-1.3663;
1230.0000;0.3915;-1.3688;
1230.3000;0.3940;-1.3639;
1230.6000;0.3940;-1.3589;
1230.9000;0.3923;-1.3639;
1231.2000;0.3940;-1.3514;
1231.5000;0.3997;-1.3364;
1231.8000;0.3932;-1.3489;
1232.1000;0.3940;-1.3389;
1232.4000;0.3940;-1.3364;
1232.7000;0.3907;-1.3439;
1233.0000;0.3948;-1.3289;
1233.3000;0.3948;-1.3314;
1233.6000;0.3940;-1.3364;
1233.9000;0.3907;-1.3339;
1234.2000;0.3964;-1.3289;
1234.5000;0.3940;-1.3439;
1234.8000;0.3923;-1.3589;
1235.1000;0.3858;-1.3763;
1235.4000;0.3883;-1.3663;
1235.7000;0.3948;-1.3539;
1236.0000;0.3948;-1.3489;
1236.3000;0.3956;-1.3514;
1236.6000;0.3964;-1.3564;
1236.9000;0.3915;-1.3713;
1237.2000;0.3964;-1.3614;
1237.5000;0.3932;-1.3688;
1237.8000;0.3923;-1.3713;
1238.1000;0.3915;-1.3713;
1238.4000;0.3940;-1.3663;
1238.7000;0.3923;-1.3639;
1239.0000;0.3932;-1.3614;
1239.3000;0.3883;-1.3763;
1239.6000;0.3932;-1.3639;
1239.9000;0.3932;-1.3713;
1240.2000;0.3923;-1.3788;
1240.5000;0.3915;-1.3763;
1240.8000;0.3948;-1.3738;
1241.1000;0.3932;-1.3738;
1241.4000;0.3940;-1.3663;
1241.7000;0.3932;-1.3663;
1242.0000;0.3932;-1.3639;
1242.3000;0.3923;-1.3663;
1242.6000;0.3956;-1.3564;
1242.9000;0.3923;-1.3663;
1243.2000;0.3899;-1.3763;
1243.5000;0.3923;-1.3663;
1243.8000;0.3940;-1.3514;
1244.1000;0.3948;-1.3514;
1244.4000;0.3915;-1.3539;
1244.7000;0.3923;-1.3663;
1245.0000;0.3948;-1.3639;
1245.3000;0.3932;-1.3663;
1245.6000;0.3923;-1.3713;
1245.9000;0.3948;-1.3663;
1246.2000;0.3932;-1.3614;
1246.5000;0.3940;-1.3589;
1246.8000;0.3948;-1.3464;
1247.1000;0.3940;-1.3389;
1247.4000;0.3940;-1.3389;
1247.7000;0.3915;-1.3539;
1248.0000;0.3932;-1.3539;
1248.3000;0.3915;-1.3514;
1248.6000;0.3923;-1.3514;
1248.9000;0.3915;-1.3464;
1249.2000;0.3867;-1.3639;
1249.5000;0.3923;-1.3539;
1249.8000;0.3932;-1.3539;
1250.1000;0.3923;-1.3564;
1250.4000;0.3899;-1.3763;
1250.7000;0.3915;-1.3788;
1251.0000;0.3907;-1.3763;
1251.3000;0.3915;-1.3738;
1251.6000;0.3923;-1.3663;
1251.9000;0.3932;-1.3688;
1252.2000;0.3980;-1.3514;
1252.5000;0.3923;-1.3514;
1252.8000;0.3940;-1.3514;
1253.1000;0.3923;-1.3539;
1253.4000;0.3883;-1.3614;
1253.7000;0.3932;-1.3464;
1254.0000;0.3932;-1.3514;
1254.3000;0.3989;-1.3414;
1254.6000;0.3923;-1.3564;
1254.9000;0.3932;-1.3639;
1255.2000;0.3940;-1.3539;
1255.5000;0.3932;-1.3688;
1255.8000;0.3915;-1.3713;
1256.1000;0.3932;-1.3688;
1256.4000;0.3940;-1.3589;
1256.7000;0.3899;-1.3763;
1257.0000;0.3932;-1.3614;
1257.3000;0.3915;-1.3614;
1257.6000;0.3932;-1.3439;
1257.9000;0.3932;-1.3414;
1258.2000;0.3923;-1.3414;
1258.5000;0.3923;-1.3464;
1258.8000;0.3932;-1.3514;
1259.1000;0.3948;-1.3489;
1259.4000;0.3915;-1.3564;
1259.7000;0.3899;-1.3539;
1260.0000;0.3932;-1.3514;
1260.3000;0.3948;-1.3439;
1260.6000;0.3867;-1.3564;
1260.9000;0.3932;-1.3364;
1261.2000;0.3956;-1.3339;
1261.5000;0.3923;-1.3539;
1261.8000;0.3932;-1.3564;
1262.1000;0.3989;-1.3489;
1262.4000;0.3923;-1.3589;
1262.7000;0.3940;-1.3614;
1263.0000;0.3940;-1.3514;
1263.3000;0.3923;-1.3564;
1263.6000;0.3932;-1.3514;
1263.9000;0.3915;-1.3564;
1264.2000;0.3940;-1.3514;
1264.5000;0.3940;-1.3514;
1264.8000;0.3948;-1.3514;
1265.1000;0.3932;-1.3514;
1265.4000;0.3850;-1.3838;
1265.7000;0.3923;-1.3663;
1266.0000;0.3923;-1.3589;
1266.3000;0.3923;-1.3514;
1266.6000;0.3923;-1.3489;
1266.9000;0.3948;-1.3489;
1267.2000;0.3940;-1.3589;
1267.5000;0.3940;-1.3663;
1267.8000;0.3915;-1.3663;
1268.1000;0.3948;-1.3589;
1268.4000;0.3915;-1.3639;
1268.7000;0.3915;-1.3713;
1269.0000;0.3915;-1.3738;
1269.3000;0.3948;-1.3688;
1269.6000;0.3948;-1.3738;
1269.9000;0.3899;-1.3863;
1270.2000;0.3997;-1.3639;
1270.5000;0.3932;-1.3738;
1270.8000;0.3915;-1.3713;
1271.1000;0.3923;-1.3688;
1271.4000;0.3915;-1.3539;
1271.7000;0.3907;-1.3514;
1272.0000;0.3948;-1.3389;
1272.3000;0.3923;-1.3464;
1272.6000;0.3907;-1.3414;
1272.9000;0.3923;-1.3364;
1273.2000;0.3932;-1.3414;
1273.5000;0.3923;-1.3439;
1273.8000;0.3948;-1.3439;
1274.1000;0.3940;-1.3464;
1274.4000;0.3891;-1.3614;
1274.7000;0.3940;-1.3489;
1275.0000;0.3940;-1.3439;
1275.3000;0.3923;-1.3464;
1275.6000;0.3948;-1.3439;
1275.9000;0.3956;-1.3439;
1276.2000;0.3907;-1.3514;
1276.5000;0.3940;-1.3514;
1276.8000;0.3932;-1.3514;
1277.1000;0.3940;-1.3589;
1277.4000;0.3932;-1.3539;
1277.7000;0.3940;-1.3564;
1278.0000;0.3932;-1.3589;
1278.3000;0.3980;-1.3464;
1278.6000;0.3948;-1.3564;
1278.9000;0.3923;-1.3639;
1279.2000;0.3940;-1.3589;
1279.5000;0.3923;-1.3514;
1279.8000;0.3923;-1.3489;
1280.1000;0.3940;-1.3339;
1280.4000;0.3948;-1.3339;
1280.7000;0.3956;-1.3339;
1281.0000;0.3923;-1.3539;
1281.3000;0.3932;-1.3539;
1281.6000;0.3940;-1.3564;
1281.9000;0.3948;-1.3464;
1282.2000;0.3956;-1.3464;
1282.5000;0.3923;-1.3539;
1282.8000;0.3923;-1.3614;
1283.1000;0.3923;-1.3539;
1283.4000;0.3956;-1.3439;
1283.7000;0.3923;-1.3464;
1284.0000;0.3907;-1.3514;
1284.3000;0.3915;-1.3514;
1284.6000;0.3940;-1.3489;
1284.9000;0.3915;-1.3688;
1285.2000;0.3932;-1.3564;
1285.5000;0.3980;-1.3464;
1285.8000;0.3948;-1.3514;
1286.1000;0.3875;-1.3639;
1286.4000;0.3932;-1.3564;
1286.7000;0.3899;-1.3639;
1287.0000;0.3997;-1.3414;
1287.3000;0.3940;-1.3539;
1287.6000;0.3932;-1.3489;
1287.9000;0.3923;-1.3564;
1288.2000;0.3932;-1.3614;
1288.5000;0.3940;-1.3589;
1288.8000;0.3948;-1.3564;
1289.1000;0.3956;-1.3464;
1289.4000;0.3940;-1.3514;
1289.7000;0.3932;-1.3589;
1290.0000;0.3980;-1.3414;
1290.3000;0.3923;-1.3489;
1290.6000;0.3923;-1.3514;
1290.9000;0.3923;-1.3589;
1291.2000;0.3932;-1.3514;
1291.5000;0.3940;-1.3489;
1291.8000;0.3972;-1.3414;
1292.1000;0.3956;-1.3439;
1292.4000;0.3964;-1.3389;
1292.7000;0.3932;-1.3464;
1293.0000;0.3932;-1.3539;
1293.3000;0.3956;-1.3514;
1293.6000;0.3948;-1.3639;
1293.9000;0.3972;-1.3614;
1294.2000;0.3932;-1.3614;
1294.5000;0.3932;-1.3614;
1294.8000;0.3956;-1.3439;
1295.1000;0.3940;-1.3389;
1295.4000;0.3932;-1.3389;
1295.7000;0.3907;-1.3414;
1296.0000;0.3915;-1.3364;
1296.3000;0.3915;-1.3364;
1296.6000;0.3972;-1.3165;
1296.9000;0.3948;-1.3215;
1297.2000;0.3923;-1.3165;
1297.5000;0.3923;-1.3215;
1297.8000;0.3940;-1.3165;
1298.1000;0.3907;-1.3240;
1298.4000;0.3940;-1.3215;
1298.7000;0.3948;-1.3289;
1299.0000;0.3915;-1.3364;
1299.3000;0.3932;-1.3339;
1299.6000;0.3923;-1.3439;
1299.9000;0.3932;-1.3314;
1300.2000;0.3923;-1.3240;
1300.5000;0.3940;-1.3215;
1300.8000;0.3940;-1.3265;
1301.1000;0.3923;-1.3265;
1301.4000;0.3948;-1.3289;
1301.7000;0.3915;-1.3314;
1302.0000;0.3940;-1.3265;
1302.3000;0.3932;-1.3314;
1302.6000;0.3932;-1.3339;
1302.9000;0.3940;-1.3314;
1303.2000;0.3932;-1.3339;
1303.5000;0.3923;-1.3439;
1303.8000;0.3948;-1.3364;
1304.1000;0.3940;-1.3289;
1304.4000;0.3932;-1.3339;
1304.7000;0.3932;-1.3289;
1305.0000;0.3948;-1.3240;
1305.3000;0.3948;-1.3240;
1305.6000;0.3948;-1.3140;
1305.9000;0.3915;-1.3289;
1306.2000;0.3932;-1.3339;
1306.5000;0.3915;-1.3364;
1306.8000;0.3932;-1.3414;
1307.1000;0.3923;-1.3439;
1307.4000;0.3948;-1.3389;
1307.7000;0.3907;-1.3439;
1308.0000;0.3923;-1.3489;
1308.3000;0.3964;-1.3414;
1308.6000;0.3932;-1.3439;
1308.9000;0.3932;-1.3389;
1309.2000;0.3932;-1.3414;
1309.5000;0.3932;-1.3389;
1309.8000;0.3972;-1.3364;
1310.1000;0.3948;-1.3564;
1310.4000;0.3940;-1.3639;
1310.7000;0.3923;-1.3688;
1311.0000;0.3923;-1.3738;
1311.3000;0.3940;-1.3663;
1311.6000;0.3956;-1.3663;
1311.9000;0.3940;-1.3639;
1312.2000;0.3932;-1.3589;
1312.5000;0.3932;-1.3639;
1312.8000;0.3956;-1.3639;
1313.1000;0.3948;-1.3589;
1313.4000;0.3923;-1.3539;
1313.7000;0.3932;-1.3514;
1314.0000;0.3940;-1.3464;
1314.3000;0.3923;-1.3439;
1314.6000;0.3923;-1.3514;
1314.9000;0.3948;-1.3464;
1315.2000;0.3948;-1.3564;
1315.5000;0.3940;-1.3514;
1315.8000;0.3915;-1.3514;
1316.1000;0.3907;-1.3439;
1316.4000;0.3867;-1.3589;
1316.7000;0.3915;-1.3514;
1317.0000;0.3940;-1.3464;
1317.3000;0.3932;-1.3514;
1317.6000;0.3923;-1.3539;
1317.9000;0.3907;-1.3589;
1318.2000;0.3923;-1.3514;
1318.5000;0.3915;-1.3564;
1318.8000;0.3940;-1.3539;
1319.1000;0.3932;-1.3539;
1319.4000;0.3923;-1.3464;
1319.7000;0.3932;-1.3414;
1320.0000;0.3940;-1.3564;
1320.3000;0.3932;-1.3539;
1320.6000;0.3923;-1.3614;
1320.9000;0.3932;-1.3639;
1321.2000;0.3932;-1.3564;
1321.5000;0.3956;-1.3439;
1321.8000;0.3932;-1.3489;
1322.1000;0.3915;-1.3589;
1322.4000;0.3923;-1.3539;
1322.7000;0.3932;-1.3464;
1323.0000;0.3940;-1.3439;
1323.3000;0.3915;-1.3489;
1323.6000;0.3940;-1.3414;
1323.9000;0.3915;-1.3489;
1324.2000;0.3956;-1.3339;
1324.5000;0.3923;-1.3314;
1324.8000;0.3907;-1.3314;
1325.1000;0.3932;-1.3265;
1325.4000;0.3907;-1.3314;
1325.7000;0.3972;-1.3165;
1326.0000;0.3940;-1.3265;
1326.3000;0.3948;-1.3289;
1326.6000;0.3940;-1.3215;
1326.9000;0.3932;-1.3314;
1327.2000;0.3907;-1.3389;
1327.5000;0.3907;-1.3364;
1327.8000;0.3964;-1.3215;
1328.1000;0.3923;-1.3314;
1328.4000;0.3883;-1.3389;
1328.7000;0.3948;-1.3339;
1329.0000;0.3923;-1.3464;
1329.3000;0.3915;-1.3539;
1329.6000;0.3940;-1.3564;
1329.9000;0.3915;-1.3589;
1330.2000;0.3948;-1.3489;
1330.5000;0.3915;-1.3514;
1330.8000;0.3948;-1.3414;
1331.1000;0.3940;-1.3489;
1331.4000;0.3899;-1.3564;
1331.7000;0.3964;-1.3439;
1332.0000;0.3932;-1.3489;
1332.3000;0.3932;-1.3464;
1332.6000;0.3964;-1.3464;
1332.9000;0.3923;-1.3539;
1333.2000;0.3858;-1.3688;
1333.5000;0.3932;-1.3514;
1333.8000;0.3948;-1.3514;
1334.1000;0.3923;-1.3564;
1334.4000;0.3956;-1.3539;
1334.7000;0.3948;-1.3614;
1335.0000;0.3940;-1.3738;
1335.3000;0.3964;-1.3688;
1335.6000;0.3932;-1.3688;
1335.9000;0.3932;-1.3713;
1336.2000;0.3932;-1.3738;
1336.5000;0.3923;-1.3713;
1336.8000;0.3932;-1.3639;
1337.1000;0.3932;-1.3539;
1337.4000;0.3940;-1.3514;
1337.7000;0.3940;-1.3514;
1338.0000;0.3915;-1.3589;
1338.3000;0.3923;-1.3564;
1338.6000;0.3932;-1.3489;
1338.9000;0.3915;-1.3489;
1339.2000;0.3923;-1.3514;
1339.5000;0.3932;-1.3564;
1339.8000;0.3948;-1.3489;
1340.1000;0.3932;-1.3564;
1340.4000;0.3940;-1.3688;
1340.7000;0.3948;-1.3639;
1341.0000;0.3940;-1.3688;
1341.3000;0.3883;-1.3888;
1341.6000;0.3858;-1.3938;
1341.9000;0.3932;-1.3738;
1342.2000;0.3891;-1.3738;
1342.5000;0.3923;-1.3614;
1342.8000;0.3915;-1.3738;
1343.1000;0.3907;-1.3838;
1343.4000;0.3972;-1.3688;
1343.7000;0.3923;-1.3763;
1344.0000;0.3915;-1.3763;
1344.3000;0.3899;-1.3788;
1344.6000;0.3923;-1.3663;
1344.9000;0.3932;-1.3564;
1345.2000;0.3932;-1.3564;
1345.5000;0.3932;-1.3489;
1345.8000;0.3923;-1.3414;
1346.1000;0.3932;-1.3364;
1346.4000;0.3932;-1.3314;
1346.7000;0.3932;-1.3389;
1347.0000;0.3940;-1.3439;
1347.3000;0.3867;-1.3713;
1347.6000;0.3940;-1.3589;
1347.9000;0.3940;-1.3663;
1348.2000;0.3923;-1.3639;
1348.5000;0.3932;-1.3589;
1348.8000;0.3932;-1.3589;
1349.1000;0.3940;-1.3614;
1349.4000;0.3907;-1.3614;
1349.7000;0.3932;-1.3539;
1350.0000;0.3940;-1.3514;
1350.3000;0.3915;-1.3489;
1350.6000;0.3948;-1.3389;
1350.9000;0.3940;-1.3514;
1351.2000;0.3915;-1.3564;
1351.5000;0.3940;-1.3489;
1351.8000;0.3932;-1.3439;
1352.1000;0.3997;-1.3339;
1352.4000;0.3964;-1.3364;
1352.7000;0.3940;-1.3514;
1353.0000;0.3932;-1.3639;
1353.3000;0.3948;-1.3639;
1353.6000;0.3932;-1.3589;
1353.9000;0.3915;-1.3614;
1354.2000;0.3923;-1.3639;
1354.5000;0.3932;-1.3639;
1354.8000;0.3940;-1.3614;
1355.1000;0.3915;-1.3688;
1355.4000;0.3964;-1.3663;
1355.7000;0.3932;-1.3639;
1356.0000;0.3940;-1.3663;
1356.3000;0.3923;-1.3663;
1356.6000;0.3932;-1.3539;
1356.9000;0.3956;-1.3514;
1357.2000;0.3932;-1.3564;
1357.5000;0.3964;-1.3564;
1357.8000;0.3932;-1.3639;
1358.1000;0.3932;-1.3539;
1358.4000;0.3940;-1.3539;
1358.7000;0.3932;-1.3514;
1359.0000;0.3948;-1.3514;
1359.3000;0.3948;-1.3489;
1359.6000;0.3932;-1.3514;
1359.9000;0.3956;-1.3414;
1360.2000;0.3923;-1.3614;
1360.5000;0.3923;-1.3663;
1360.8000;0.3940;-1.3614;
1361.1000;0.3940;-1.3564;
1361.4000;0.3932;-1.3539;
1361.7000;0.3948;-1.3564;
1362.0000;0.3932;-1.3539;
1362.3000;0.3948;-1.3589;
1362.6000;0.3956;-1.3589;
1362.9000;0.3964;-1.3539;
1363.2000;0.3899;-1.3614;
1363.5000;0.3923;-1.3639;
1363.8000;0.3948;-1.3539;
1364.1000;0.3923;-1.3614;
1364.4000;0.3923;-1.3614;
1364.7000;0.3915;-1.3589;
1365.0000;0.3923;-1.3688;
1365.3000;0.3923;-1.3763;
1365.6000;0.3923;-1.3713;
1365.9000;0.3858;-1.3963;
1366.2000;0.3858;-1.3988;
1366.5000;0.3972;-1.3639;
1366.8000;0.3907;-1.3838;
1367.1000;0.3932;-1.3663;
1367.4000;0.3932;-1.3589;
1367.7000;0.3932;-1.3688;
1368.0000;0.3940;-1.3713;
1368.3000;0.3956;-1.3738;
1368.6000;0.3948;-1.3738;
1368.9000;0.3948;-1.3663;
1369.2000;0.3940;-1.3688;
1369.5000;0.3891;-1.3688;
1369.8000;0.3923;-1.3539;
1370.1000;0.3940;-1.3489;
1370.4000;0.3932;-1.3414;
1370.7000;0.3940;-1.3339;
1371.0000;0.3940;-1.3414;
1371.3000;0.3940;-1.3514;
1371.6000;0.3932;-1.3464;
1371.9000;0.3940;-1.3414;
1372.2000;0.3932;-1.3389;
1372.5000;0.3940;-1.3414;
1372.8000;0.3948;-1.3439;
1373.1000;0.3923;-1.3464;
1373.4000;0.3899;-1.3539;
1373.7000;0.3948;-1.3514;
1374.0000;0.3923;-1.3564;
1374.3000;0.3940;-1.3614;
1374.6000;0.3932;-1.3663;
1374.9000;0.3915;-1.3738;
1375.2000;0.3899;-1.3763;
1375.5000;0.3940;-1.3614;
1375.8000;0.3989;-1.3464;
1376.1000;0.3940;-1.3539;
1376.4000;0.3932;-1.3589;
1376.7000;0.3948;-1.3589;
1377.0000;0.3940;-1.3539;
1377.3000;0.3923;-1.3589;
1377.6000;0.3923;-1.3514;
1377.9000;0.3826;-1.3713;
1378.2000;0.3932;-1.3489;
1378.5000;0.3940;-1.3439;
1378.8000;0.3826;-1.3614;
1379.1000;0.3883;-1.3514;
1379.4000;0.3923;-1.3389;
1379.7000;0.3948;-1.3314;
1380.0000;0.3883;-1.3464;
1380.3000;0.3915;-1.3414;
1380.6000;0.3940;-1.3364;
1380.9000;0.3940;-1.3265;
1381.2000;0.3948;-1.3215;
1381.5000;0.3948;-1.3265;
1381.8000;0.3948;-1.3314;
1382.1000;0.4013;-1.3190;
1382.4000;0.3948;-1.3339;
1382.7000;0.3948;-1.3439;
1383.0000;0.3948;-1.3464;
1383.3000;0.3948;-1.3439;
1383.6000;0.3948;-1.3439;
1383.9000;0.3923;-1.3464;
1384.2000;0.3932;-1.3464;
1384.5000;0.3932;-1.3564;
1384.8000;0.3989;-1.3464;
1385.1000;0.3948;-1.3539;
1385.4000;0.3932;-1.3564;
1385.7000;0.3940;-1.3539;
1386.0000;0.3948;-1.3539;
1386.3000;0.3907;-1.3564;
1386.6000;0.3940;-1.3514;
1386.9000;0.3940;-1.3314;
1387.2000;0.3964;-1.3265;
1387.5000;0.3923;-1.3215;
1387.8000;0.3923;-1.3314;
1388.1000;0.3932;-1.3314;
1388.4000;0.3932;-1.3439;
1388.7000;0.3915;-1.3414;
1389.0000;0.3915;-1.3439;
1389.3000;0.3923;-1.3439;
1389.6000;0.3932;-1.3464;
1389.9000;0.3932;-1.3414;
1390.2000;0.3915;-1.3414;
1390.5000;0.3891;-1.3464;
1390.8000;0.3932;-1.3314;
1391.1000;0.3883;-1.3489;
1391.4000;0.3883;-1.3539;
1391.7000;0.3956;-1.3364;
1392.0000;0.3932;-1.3364;
1392.3000;0.3940;-1.3339;
1392.6000;0.3915;-1.3464;
1392.9000;0.3932;-1.3414;
1393.2000;0.3940;-1.3464;
1393.5000;0.3956;-1.3439;
1393.8000;0.3940;-1.3439;
1394.1000;0.3964;-1.3464;
1394.4000;0.4054;-1.3240;
1394.7000;0.3932;-1.3464;
1395.0000;0.3948;-1.3414;
1395.3000;0.3972;-1.3339;
1395.6000;0.3956;-1.3489;
1395.9000;0.3932;-1.3464;
1396.2000;0.3948;-1.3364;
1396.5000;0.3923;-1.3489;
1396.8000;0.3948;-1.3514;
1397.1000;0.3932;-1.3539;
1397.4000;0.3956;-1.3439;
1397.7000;0.3915;-1.3539;
1398.0000;0.3932;-1.3489;
1398.3000;0.3940;-1.3364;
1398.6000;0.3964;-1.3339;
1398.9000;0.3948;-1.3389;
1399.2000;0.3932;-1.3489;
1399.5000;0.3948;-1.3464;
1399.8000;0.3891;-1.3639;
