time/ms;Fluo/V;P700 deltaI/I x10³;
-199.8000;0.6398;-0.9724;
-199.5000;0.6406;-0.9674;
-199.2000;0.6398;-0.9699;
-198.9000;0.6406;-0.9674;
-198.6000;0.6309;-0.9948;
-198.3000;0.6398;-0.9724;
-198.0000;0.6406;-0.9699;
-197.7000;0.6406;-0.9724;
-197.4000;0.6398;-0.9699;
-197.1000;0.6422;-0.9699;
-196.8000;0.6390;-0.9749;
-196.5000;0.6398;-0.9724;
-196.2000;0.6414;-0.9674;
-195.9000;0.6455;-0.9599;
-195.6000;0.6390;-0.9774;
-195.3000;0.6406;-0.9774;
-195.0000;0.6406;-0.9799;
-194.7000;0.6390;-0.9874;
-194.4000;0.6398;-0.9899;
-194.1000;0.6382;-0.9948;
-193.8000;0.6365;-0.9998;
-193.5000;0.6398;-0.9948;
-193.2000;0.6382;-1.0048;
-192.9000;0.6398;-1.0073;
-192.6000;0.6382;-1.0048;
-192.3000;0.6374;-0.9973;
-192.0000;0.6406;-0.9998;
-191.7000;0.6382;-1.0073;
-191.4000;0.6406;-1.0098;
-191.1000;0.6406;-0.9899;
-190.8000;0.6390;-0.9948;
-190.5000;0.6374;-1.0098;
-190.2000;0.6382;-1.0048;
-189.9000;0.6398;-1.0023;
-189.6000;0.6382;-0.9998;
-189.3000;0.6398;-1.0023;
-189.0000;0.6390;-0.9998;
-188.7000;0.6382;-0.9899;
-188.4000;0.6398;-0.9899;
-188.1000;0.6398;-0.9923;
-187.8000;0.6398;-0.9948;
-187.5000;0.6398;-0.9923;
-187.2000;0.6398;-0.9849;
-186.9000;0.6325;-1.0023;
-186.6000;0.6374;-0.9824;
-186.3000;0.6398;-0.9799;
-186.0000;0.6382;-0.9799;
-185.7000;0.6406;-0.9749;
-185.4000;0.6390;-0.9749;
-185.1000;0.6414;-0.9724;
-184.8000;0.6382;-0.9774;
-184.5000;0.6349;-0.9849;
-184.2000;0.6414;-0.9724;
-183.9000;0.6374;-0.9774;
-183.6000;0.6406;-0.9699;
-183.3000;0.6406;-0.9699;
-183.0000;0.6398;-0.9624;
-182.7000;0.6398;-0.9549;
-182.4000;0.6390;-0.9599;
-182.1000;0.6398;-0.9624;
-181.8000;0.6398;-0.9549;
-181.5000;0.6390;-0.9525;
-181.2000;0.6414;-0.9549;
-180.9000;0.6382;-0.9699;
-180.6000;0.6398;-0.9699;
-180.3000;0.6390;-0.9799;
-180.0000;0.6439;-0.9724;
-179.7000;0.6390;-0.9824;
-179.4000;0.6414;-0.9724;
-179.1000;0.6390;-0.9724;
-178.8000;0.6406;-0.9699;
-178.5000;0.6382;-0.9774;
-178.2000;0.6504;-0.9475;
-177.9000;0.6382;-0.9774;
-177.6000;0.6374;-0.9849;
-177.3000;0.6422;-0.9824;
-177.0000;0.6414;-0.9874;
-176.7000;0.6422;-0.9849;
-176.4000;0.6398;-0.9948;
-176.1000;0.6390;-0.9923;
-175.8000;0.6398;-0.9824;
-175.5000;0.6365;-0.9874;
-175.2000;0.6406;-0.9674;
-174.9000;0.6390;-0.9674;
-174.6000;0.6374;-0.9749;
-174.3000;0.6422;-0.9574;
-174.0000;0.6398;-0.9674;
-173.7000;0.6390;-0.9749;
-173.4000;0.6382;-0.9749;
-173.1000;0.6382;-0.9799;
-172.8000;0.6463;-0.9599;
-172.5000;0.6365;-0.9849;
-172.2000;0.6357;-0.9799;
-171.9000;0.6235;-1.0123;
-171.6000;0.6406;-0.9699;
-171.3000;0.6374;-0.9824;
-171.0000;0.6390;-0.9948;
-170.7000;0.6390;-1.0023;
-170.4000;0.6374;-1.0123;
-170.1000;0.6390;-1.0073;
-169.8000;0.6382;-1.0123;
-169.5000;0.6390;-1.0148;
-169.2000;0.6390;-1.0123;
-168.9000;0.6365;-1.0173;
-168.6000;0.6414;-1.0048;
-168.3000;0.6414;-1.0098;
-168.0000;0.6406;-1.0123;
-167.7000;0.6414;-1.0098;
-167.4000;0.6374;-1.0248;
-167.1000;0.6390;-1.0123;
-166.8000;0.6406;-1.0048;
-166.5000;0.6455;-0.9923;
-166.2000;0.6414;-1.0023;
-165.9000;0.6414;-1.0148;
-165.6000;0.6398;-1.0073;
-165.3000;0.6398;-1.0023;
-165.0000;0.6463;-0.9849;
-164.7000;0.6406;-0.9849;
-164.4000;0.6422;-0.9899;
-164.1000;0.6390;-1.0048;
-163.8000;0.6390;-1.0148;
-163.5000;0.6406;-1.0073;
-163.2000;0.6398;-1.0048;
-162.9000;0.6439;-0.9799;
-162.6000;0.6439;-0.9724;
-162.3000;0.6398;-0.9774;
-162.0000;0.6398;-0.9799;
-161.7000;0.6398;-0.9799;
-161.4000;0.6341;-0.9899;
-161.1000;0.6414;-0.9799;
-160.8000;0.6406;-0.9749;
-160.5000;0.6390;-0.9774;
-160.2000;0.6463;-0.9549;
-159.9000;0.6422;-0.9649;
-159.6000;0.6406;-0.9674;
-159.3000;0.6390;-0.9874;
-159.0000;0.6390;-0.9973;
-158.7000;0.6382;-1.0073;
-158.4000;0.6374;-1.0098;
-158.1000;0.6300;-1.0198;
-157.8000;0.6374;-0.9998;
-157.5000;0.6390;-0.9923;
-157.2000;0.6406;-0.9899;
-156.9000;0.6422;-0.9923;
-156.6000;0.6431;-0.9923;
-156.3000;0.6365;-0.9998;
-156.0000;0.6463;-0.9774;
-155.7000;0.6406;-0.9998;
-155.4000;0.6390;-1.0073;
-155.1000;0.6398;-1.0048;
-154.8000;0.6414;-0.9948;
-154.5000;0.6455;-0.9923;
-154.2000;0.6365;-1.0098;
-153.9000;0.6382;-1.0073;
-153.6000;0.6374;-1.0023;
-153.3000;0.6341;-1.0098;
-153.0000;0.6349;-0.9998;
-152.7000;0.6455;-0.9774;
-152.4000;0.6365;-0.9973;
-152.1000;0.6398;-0.9973;
-151.8000;0.6447;-0.9824;
-151.5000;0.6406;-0.9923;
-151.2000;0.6333;-1.0148;
-150.9000;0.6398;-0.9948;
-150.6000;0.6398;-0.9998;
-150.3000;0.6390;-0.9998;
-150.0000;0.6374;-1.0048;
-149.7000;0.6349;-1.0023;
-149.4000;0.6374;-0.9948;
-149.1000;0.6374;-0.9923;
-148.8000;0.6325;-0.9874;
-148.5000;0.6374;-0.9699;
-148.2000;0.6390;-0.9749;
-147.9000;0.6398;-0.9774;
-147.6000;0.6406;-0.9799;
-147.3000;0.6390;-0.9923;
-147.0000;0.6398;-0.9899;
-146.7000;0.6349;-0.9998;
-146.4000;0.6382;-0.9849;
-146.1000;0.6365;-0.9899;
-145.8000;0.6406;-0.9849;
-145.5000;0.6406;-0.9849;
-145.2000;0.6406;-0.9824;
-144.9000;0.6414;-0.9799;
-144.6000;0.6406;-0.9849;
-144.3000;0.6422;-0.9824;
-144.0000;0.6357;-0.9973;
-143.7000;0.6382;-0.9948;
-143.4000;0.6406;-0.9923;
-143.1000;0.6406;-0.9874;
-142.8000;0.6333;-1.0023;
-142.5000;0.6406;-0.9923;
-142.2000;0.6398;-0.9973;
-141.9000;0.6382;-0.9973;
-141.6000;0.6398;-0.9923;
-141.3000;0.6431;-0.9824;
-141.0000;0.6414;-0.9824;
-140.7000;0.6382;-0.9973;
-140.4000;0.6382;-0.9973;
-140.1000;0.6431;-0.9874;
-139.8000;0.6390;-0.9874;
-139.5000;0.6431;-0.9724;
-139.2000;0.6390;-0.9824;
-138.9000;0.6455;-0.9674;
-138.6000;0.6390;-0.9849;
-138.3000;0.6357;-0.9849;
-138.0000;0.6398;-0.9824;
-137.7000;0.6406;-0.9874;
-137.4000;0.6406;-0.9824;
-137.1000;0.6414;-0.9799;
-136.8000;0.6398;-0.9849;
-136.5000;0.6406;-0.9923;
-136.2000;0.6398;-0.9998;
-135.9000;0.6414;-0.9923;
-135.6000;0.6398;-0.9948;
-135.3000;0.6357;-0.9998;
-135.0000;0.6390;-0.9874;
-134.7000;0.6422;-0.9849;
-134.4000;0.6398;-0.9973;
-134.1000;0.6398;-1.0048;
-133.8000;0.6357;-1.0123;
-133.5000;0.6398;-0.9923;
-133.2000;0.6390;-0.9874;
-132.9000;0.6406;-0.9874;
-132.6000;0.6390;-0.9849;
-132.3000;0.6422;-0.9774;
-132.0000;0.6406;-0.9824;
-131.7000;0.6398;-0.9824;
-131.4000;0.6414;-0.9824;
-131.1000;0.6398;-0.9799;
-130.8000;0.6349;-0.9849;
-130.5000;0.6406;-0.9699;
-130.2000;0.6390;-0.9849;
-129.9000;0.6414;-0.9799;
-129.6000;0.6439;-0.9799;
-129.3000;0.6398;-0.9799;
-129.0000;0.6382;-0.9849;
-128.7000;0.6414;-0.9899;
-128.4000;0.6398;-0.9948;
-128.1000;0.6390;-0.9998;
-127.8000;0.6390;-0.9998;
-127.5000;0.6398;-1.0023;
-127.2000;0.6414;-0.9874;
-126.9000;0.6390;-0.9923;
-126.6000;0.6455;-0.9799;
-126.3000;0.6374;-1.0023;
-126.0000;0.6406;-0.9973;
-125.7000;0.6382;-1.0098;
-125.4000;0.6382;-0.9923;
-125.1000;0.6300;-1.0123;
-124.8000;0.6333;-1.0023;
-124.5000;0.6414;-0.9799;
-124.2000;0.6406;-0.9899;
-123.9000;0.6374;-0.9824;
-123.6000;0.6414;-0.9799;
-123.3000;0.6390;-0.9724;
-123.0000;0.6390;-0.9799;
-122.7000;0.6390;-0.9899;
-122.4000;0.6406;-0.9899;
-122.1000;0.6390;-0.9923;
-121.8000;0.6406;-0.9973;
-121.5000;0.6398;-1.0073;
-121.2000;0.6406;-0.9973;
-120.9000;0.6374;-1.0048;
-120.6000;0.6382;-1.0023;
-120.3000;0.6374;-0.9998;
-120.0000;0.6390;-0.9948;
-119.7000;0.6406;-0.9899;
-119.4000;0.6406;-0.9923;
-119.1000;0.6390;-1.0148;
-118.8000;0.6422;-1.0098;
-118.5000;0.6349;-1.0297;
-118.2000;0.6422;-1.0073;
-117.9000;0.6398;-1.0123;
-117.6000;0.6431;-1.0123;
-117.3000;0.6398;-1.0173;
-117.0000;0.6390;-1.0148;
-116.7000;0.6390;-1.0023;
-116.4000;0.6406;-1.0048;
-116.1000;0.6365;-1.0098;
-115.8000;0.6390;-1.0023;
-115.5000;0.6447;-0.9799;
-115.2000;0.6406;-0.9849;
-114.9000;0.6496;-0.9574;
-114.6000;0.6414;-0.9824;
-114.3000;0.6365;-0.9923;
-114.0000;0.6374;-0.9849;
-113.7000;0.6390;-0.9749;
-113.4000;0.6365;-0.9799;
-113.1000;0.6406;-0.9724;
-112.8000;0.6382;-0.9799;
-112.5000;0.6414;-0.9749;
-112.2000;0.6398;-0.9899;
-111.9000;0.6406;-0.9899;
-111.6000;0.6471;-0.9749;
-111.3000;0.6333;-1.0048;
-111.0000;0.6382;-0.9849;
-110.7000;0.6398;-0.9749;
-110.4000;0.6382;-0.9824;
-110.1000;0.6414;-0.9799;
-109.8000;0.6365;-0.9923;
-109.5000;0.6382;-0.9948;
-109.2000;0.6414;-0.9899;
-108.9000;0.6406;-1.0073;
-108.6000;0.6422;-1.0073;
-108.3000;0.6406;-1.0098;
-108.0000;0.6414;-1.0023;
-107.7000;0.6414;-0.9998;
-107.4000;0.6431;-0.9874;
-107.1000;0.6406;-0.9973;
-106.8000;0.6422;-0.9824;
-106.5000;0.6406;-0.9899;
-106.2000;0.6390;-0.9998;
-105.9000;0.6398;-0.9998;
-105.6000;0.6447;-0.9799;
-105.3000;0.6422;-0.9874;
-105.0000;0.6455;-0.9799;
-104.7000;0.6414;-0.9874;
-104.4000;0.6398;-0.9948;
-104.1000;0.6398;-0.9973;
-103.8000;0.6463;-0.9799;
-103.5000;0.6414;-0.9849;
-103.2000;0.6382;-0.9948;
-102.9000;0.6374;-0.9874;
-102.6000;0.6382;-0.9774;
-102.3000;0.6382;-0.9749;
-102.0000;0.6382;-0.9699;
-101.7000;0.6398;-0.9624;
-101.4000;0.6390;-0.9699;
-101.1000;0.6382;-0.9799;
-100.8000;0.6390;-0.9799;
-100.5000;0.6390;-0.9799;
-100.2000;0.6414;-0.9724;
-99.9000;0.6406;-0.9749;
-99.6000;0.6406;-0.9674;
-99.3000;0.6406;-0.9699;
-99.0000;0.6422;-0.9674;
-98.7000;0.6398;-0.9699;
-98.4000;0.6439;-0.9549;
-98.1000;0.6398;-0.9649;
-97.8000;0.6390;-0.9724;
-97.5000;0.6406;-0.9724;
-97.2000;0.6422;-0.9799;
-96.9000;0.6374;-0.9874;
-96.6000;0.6390;-0.9874;
-96.3000;0.6390;-0.9874;
-96.0000;0.6390;-0.9973;
-95.7000;0.6406;-0.9973;
-95.4000;0.6406;-0.9899;
-95.1000;0.6406;-0.9998;
-94.8000;0.6406;-0.9923;
-94.5000;0.6414;-0.9948;
-94.2000;0.6422;-0.9973;
-93.9000;0.6414;-0.9973;
-93.6000;0.6414;-1.0023;
-93.3000;0.6406;-1.0048;
-93.0000;0.6333;-1.0297;
-92.7000;0.6414;-0.9998;
-92.4000;0.6406;-1.0048;
-92.1000;0.6406;-1.0098;
-91.8000;0.6382;-1.0123;
-91.5000;0.6390;-1.0073;
-91.2000;0.6382;-1.0098;
-90.9000;0.6398;-0.9948;
-90.6000;0.6390;-0.9899;
-90.3000;0.6398;-0.9874;
-90.0000;0.6414;-0.9899;
-89.7000;0.6398;-1.0073;
-89.4000;0.6398;-0.9973;
-89.1000;0.6382;-0.9948;
-88.8000;0.6398;-0.9948;
-88.5000;0.6365;-1.0073;
-88.2000;0.6382;-1.0023;
-87.9000;0.6374;-0.9998;
-87.6000;0.6398;-0.9948;
-87.3000;0.6382;-0.9973;
-87.0000;0.6390;-0.9899;
-86.7000;0.6390;-0.9874;
-86.4000;0.6488;-0.9574;
-86.1000;0.6398;-0.9699;
-85.8000;0.6390;-0.9774;
-85.5000;0.6406;-0.9749;
-85.2000;0.6398;-0.9799;
-84.9000;0.6414;-0.9774;
-84.6000;0.6414;-0.9774;
-84.3000;0.6390;-0.9849;
-84.0000;0.6414;-0.9824;
-83.7000;0.6398;-0.9874;
-83.4000;0.6414;-0.9824;
-83.1000;0.6406;-0.9799;
-82.8000;0.6382;-0.9948;
-82.5000;0.6382;-0.9923;
-82.2000;0.6455;-0.9774;
-81.9000;0.6406;-0.9923;
-81.6000;0.6382;-0.9923;
-81.3000;0.6390;-0.9973;
-81.0000;0.6406;-0.9998;
-80.7000;0.6398;-1.0048;
-80.4000;0.6390;-1.0023;
-80.1000;0.6382;-0.9998;
-79.8000;0.6406;-0.9948;
-79.5000;0.6422;-0.9923;
-79.2000;0.6390;-0.9998;
-78.9000;0.6406;-0.9998;
-78.6000;0.6406;-1.0023;
-78.3000;0.6390;-1.0023;
-78.0000;0.6398;-1.0073;
-77.7000;0.6390;-1.0123;
-77.4000;0.6390;-1.0073;
-77.1000;0.6398;-0.9998;
-76.8000;0.6390;-0.9998;
-76.5000;0.6414;-0.9998;
-76.2000;0.6390;-1.0048;
-75.9000;0.6406;-1.0023;
-75.6000;0.6333;-1.0198;
-75.3000;0.6398;-0.9998;
-75.0000;0.6406;-0.9948;
-74.7000;0.6398;-0.9973;
-74.4000;0.6398;-0.9948;
-74.1000;0.6398;-0.9998;
-73.8000;0.6414;-1.0073;
-73.5000;0.6455;-0.9923;
-73.2000;0.6398;-1.0123;
-72.9000;0.6406;-1.0148;
-72.6000;0.6406;-1.0198;
-72.3000;0.6398;-1.0223;
-72.0000;0.6390;-1.0273;
-71.7000;0.6398;-1.0173;
-71.4000;0.6406;-1.0198;
-71.1000;0.6406;-1.0148;
-70.8000;0.6406;-1.0073;
-70.5000;0.6414;-1.0123;
-70.2000;0.6365;-1.0173;
-69.9000;0.6390;-1.0173;
-69.6000;0.6398;-1.0123;
-69.3000;0.6390;-1.0148;
-69.0000;0.6382;-1.0148;
-68.7000;0.6390;-1.0148;
-68.4000;0.6382;-1.0148;
-68.1000;0.6292;-1.0322;
-67.8000;0.6390;-0.9973;
-67.5000;0.6357;-1.0098;
-67.2000;0.6398;-0.9948;
-66.9000;0.6398;-1.0048;
-66.6000;0.6390;-1.0048;
-66.3000;0.6390;-1.0123;
-66.0000;0.6390;-1.0098;
-65.7000;0.6390;-1.0073;
-65.4000;0.6398;-1.0048;
-65.1000;0.6398;-1.0023;
-64.8000;0.6398;-0.9948;
-64.5000;0.6414;-0.9923;
-64.2000;0.6398;-0.9973;
-63.9000;0.6390;-0.9899;
-63.6000;0.6398;-0.9899;
-63.3000;0.6406;-0.9923;
-63.0000;0.6431;-0.9824;
-62.7000;0.6398;-0.9874;
-62.4000;0.6406;-0.9923;
-62.1000;0.6406;-0.9899;
-61.8000;0.6398;-0.9948;
-61.5000;0.6406;-0.9973;
-61.2000;0.6382;-0.9998;
-60.9000;0.6382;-1.0023;
-60.6000;0.6398;-0.9973;
-60.3000;0.6390;-1.0048;
-60.0000;0.6374;-1.0098;
-59.7000;0.6398;-1.0173;
-59.4000;0.6365;-1.0198;
-59.1000;0.6390;-1.0098;
-58.8000;0.6390;-1.0048;
-58.5000;0.6382;-1.0148;
-58.2000;0.6471;-0.9923;
-57.9000;0.6398;-1.0048;
-57.6000;0.6406;-0.9973;
-57.3000;0.6398;-0.9973;
-57.0000;0.6398;-0.9948;
-56.7000;0.6374;-0.9998;
-56.4000;0.6390;-0.9948;
-56.1000;0.6357;-1.0048;
-55.8000;0.6406;-0.9948;
-55.5000;0.6406;-0.9973;
-55.2000;0.6422;-0.9923;
-54.9000;0.6382;-0.9998;
-54.6000;0.6390;-1.0098;
-54.3000;0.6398;-1.0123;
-54.0000;0.6414;-1.0048;
-53.7000;0.6390;-1.0073;
-53.4000;0.6398;-1.0073;
-53.1000;0.6374;-1.0073;
-52.8000;0.6406;-0.9973;
-52.5000;0.6406;-1.0048;
-52.2000;0.6398;-1.0148;
-51.9000;0.6406;-1.0073;
-51.6000;0.6406;-1.0023;
-51.3000;0.6398;-0.9948;
-51.0000;0.6374;-1.0023;
-50.7000;0.6309;-1.0123;
-50.4000;0.6414;-0.9799;
-50.1000;0.6414;-0.9899;
-49.8000;0.6398;-1.0048;
-49.5000;0.6390;-1.0123;
-49.2000;0.6398;-1.0073;
-48.9000;0.6431;-1.0048;
-48.6000;0.6390;-1.0123;
-48.3000;0.6398;-1.0073;
-48.0000;0.6398;-1.0023;
-47.7000;0.6406;-1.0048;
-47.4000;0.6447;-0.9973;
-47.1000;0.6349;-1.0148;
-46.8000;0.6398;-1.0023;
-46.5000;0.6422;-0.9874;
-46.2000;0.6422;-0.9899;
-45.9000;0.6414;-0.9923;
-45.6000;0.6398;-0.9998;
-45.3000;0.6390;-1.0098;
-45.0000;0.6357;-1.0148;
-44.7000;0.6390;-1.0098;
-44.4000;0.6390;-1.0173;
-44.1000;0.6447;-0.9998;
-43.8000;0.6406;-1.0123;
-43.5000;0.6398;-1.0148;
-43.2000;0.6398;-1.0098;
-42.9000;0.6398;-1.0023;
-42.6000;0.6398;-1.0048;
-42.3000;0.6349;-1.0123;
-42.0000;0.6422;-0.9948;
-41.7000;0.6292;-1.0198;
-41.4000;0.6398;-0.9899;
-41.1000;0.6414;-0.9824;
-40.8000;0.6406;-0.9899;
-40.5000;0.6406;-0.9923;
-40.2000;0.6398;-0.9948;
-39.9000;0.6431;-0.9799;
-39.6000;0.6374;-0.9948;
-39.3000;0.6390;-0.9948;
-39.0000;0.6365;-1.0048;
-38.7000;0.6406;-0.9998;
-38.4000;0.6406;-0.9998;
-38.1000;0.6390;-1.0073;
-37.8000;0.6390;-0.9973;
-37.5000;0.6398;-0.9948;
-37.2000;0.6398;-0.9948;
-36.9000;0.6398;-0.9973;
-36.6000;0.6390;-1.0073;
-36.3000;0.6406;-1.0048;
-36.0000;0.6406;-1.0073;
-35.7000;0.6382;-1.0098;
-35.4000;0.6390;-1.0098;
-35.1000;0.6390;-1.0073;
-34.8000;0.6414;-0.9973;
-34.5000;0.6382;-1.0023;
-34.2000;0.6374;-1.0123;
-33.9000;0.6414;-1.0073;
-33.6000;0.6390;-1.0148;
-33.3000;0.6398;-1.0098;
-33.0000;0.6471;-0.9998;
-32.7000;0.6398;-1.0148;
-32.4000;0.6398;-1.0073;
-32.1000;0.6382;-1.0073;
-31.8000;0.6357;-1.0098;
-31.5000;0.6390;-1.0048;
-31.2000;0.6390;-0.9998;
-30.9000;0.6382;-1.0023;
-30.6000;0.6365;-1.0048;
-30.3000;0.6382;-0.9948;
-30.0000;0.6455;-0.9749;
-29.7000;0.6406;-0.9923;
-29.4000;0.6398;-0.9899;
-29.1000;0.6398;-0.9899;
-28.8000;0.6406;-0.9923;
-28.5000;0.6398;-0.9874;
-28.2000;0.6398;-0.9899;
-27.9000;0.6374;-0.9923;
-27.6000;0.6398;-0.9923;
-27.3000;0.6406;-0.9948;
-27.0000;0.6455;-0.9749;
-26.7000;0.6365;-0.9973;
-26.4000;0.6374;-0.9874;
-26.1000;0.6406;-0.9899;
-25.8000;0.6390;-0.9998;
-25.5000;0.6414;-0.9998;
-25.2000;0.6422;-0.9998;
-24.9000;0.6390;-1.0073;
-24.6000;0.6471;-0.9973;
-24.3000;0.6488;-0.9899;
-24.0000;0.6406;-1.0123;
-23.7000;0.6382;-1.0123;
-23.4000;0.6382;-1.0123;
-23.1000;0.6390;-1.0098;
-22.8000;0.6390;-1.0198;
-22.5000;0.6398;-1.0223;
-22.2000;0.6398;-1.0248;
-21.9000;0.6479;-1.0023;
-21.6000;0.6390;-1.0223;
-21.3000;0.6357;-1.0223;
-21.0000;0.6390;-1.0198;
-20.7000;0.6431;-1.0098;
-20.4000;0.6390;-1.0073;
-20.1000;0.6390;-0.9973;
-19.8000;0.6390;-0.9899;
-19.5000;0.6390;-0.9973;
-19.2000;0.6390;-1.0048;
-18.9000;0.6406;-0.9923;
-18.6000;0.6398;-0.9899;
-18.3000;0.6414;-0.9849;
-18.0000;0.6398;-0.9874;
-17.7000;0.6398;-0.9849;
-17.4000;0.6382;-0.9973;
-17.1000;0.6398;-0.9923;
-16.8000;0.6390;-0.9973;
-16.5000;0.6398;-0.9874;
-16.2000;0.6390;-0.9899;
-15.9000;0.6374;-0.9923;
-15.6000;0.6390;-0.9849;
-15.3000;0.6390;-0.9923;
-15.0000;0.6422;-0.9899;
-14.7000;0.6374;-1.0023;
-14.4000;0.6414;-0.9899;
-14.1000;0.6406;-0.9973;
-13.8000;0.6406;-0.9998;
-13.5000;0.6390;-0.9998;
-13.2000;0.6398;-0.9948;
-12.9000;0.6439;-0.9824;
-12.6000;0.6414;-0.9874;
-12.3000;0.6422;-0.9799;
-12.0000;0.6374;-0.9874;
-11.7000;0.6398;-0.9749;
-11.4000;0.6406;-0.9749;
-11.1000;0.6439;-0.9574;
-10.8000;0.6406;-0.9674;
-10.5000;0.6406;-0.9699;
-10.2000;0.6309;-0.9923;
-9.9000;0.6390;-0.9749;
-9.6000;0.6398;-0.9724;
-9.3000;0.6406;-0.9624;
-9.0000;0.6357;-0.9774;
-8.7000;0.6398;-0.9749;
-8.4000;0.6390;-0.9774;
-8.1000;0.6398;-0.9699;
-7.8000;0.6382;-0.9649;
-7.5000;0.6422;-0.9624;
-7.2000;0.6365;-0.9749;
-6.9000;0.6390;-0.9774;
-6.6000;0.6414;-0.9724;
-6.3000;0.6374;-0.9899;
-6.0000;0.6398;-0.9824;
-5.7000;0.6406;-0.9824;
-5.4000;0.6414;-0.9874;
-5.1000;0.6398;-0.9948;
-4.8000;0.6390;-0.9948;
-4.5000;0.6414;-0.9973;
-4.2000;0.6431;-0.9874;
-3.9000;0.6406;-0.9948;
-3.6000;0.6357;-1.0023;
-3.3000;0.6422;-0.9824;
-3.0000;0.6414;-0.9923;
-2.7000;0.6398;-0.9899;
-2.4000;0.6422;-0.9749;
-2.1000;0.6398;-0.9824;
-1.8000;0.6455;-0.9674;
-1.5000;0.6414;-0.9774;
-1.2000;0.6390;-0.9799;
-0.9000;0.6390;-0.9774;
-0.6000;0.6374;-0.9749;
-0.3000;0.6374;-0.9724;
0.0000;0.6374;-0.9724;
0.3000;0.6512;-0.9899;
0.6000;0.6699;-0.9525;
0.9000;0.6886;-0.9175;
1.2000;0.7009;-0.8951;
1.5000;0.7082;-0.8727;
1.8000;0.7147;-0.8552;
2.1000;0.7253;-0.8228;
2.4000;0.7293;-0.8128;
2.7000;0.7350;-0.7879;
3.0000;0.7383;-0.7729;
3.3000;0.7432;-0.7679;
3.6000;0.7424;-0.7605;
3.9000;0.7448;-0.7555;
4.2000;0.7448;-0.7480;
4.5000;0.7505;-0.7355;
4.8000;0.7521;-0.7305;
5.1000;0.7546;-0.7231;
5.4000;0.7586;-0.7106;
5.7000;0.7586;-0.7231;
6.0000;0.7578;-0.7305;
6.3000;0.7562;-0.7380;
6.6000;0.7611;-0.7206;
6.9000;0.7627;-0.7256;
7.2000;0.7660;-0.7256;
7.5000;0.7676;-0.7056;
7.8000;0.7676;-0.7006;
8.1000;0.7700;-0.6956;
8.4000;0.7733;-0.7006;
8.7000;0.7725;-0.7056;
9.0000;0.7717;-0.7181;
9.3000;0.7733;-0.7231;
9.6000;0.7757;-0.7206;
9.9000;0.7717;-0.7330;
10.2000;0.7774;-0.7330;
10.5000;0.7717;-0.7405;
10.8000;0.7782;-0.7231;
11.1000;0.7798;-0.7281;
11.4000;0.7831;-0.7256;
11.7000;0.7798;-0.7355;
12.0000;0.7782;-0.7330;
12.3000;0.7863;-0.7156;
12.6000;0.7823;-0.7156;
12.9000;0.7880;-0.7006;
13.2000;0.7896;-0.7006;
13.5000;0.7863;-0.7106;
13.8000;0.7855;-0.7106;
14.1000;0.7904;-0.7031;
14.4000;0.7855;-0.7256;
14.7000;0.7888;-0.7181;
15.0000;0.7880;-0.7256;
15.3000;0.7863;-0.7305;
15.6000;0.7904;-0.7206;
15.9000;0.7896;-0.7181;
16.2000;0.7904;-0.7181;
16.5000;0.7912;-0.7206;
16.8000;0.7953;-0.7206;
17.1000;0.7928;-0.7256;
17.4000;0.7937;-0.7231;
17.7000;0.7945;-0.7256;
18.0000;0.8010;-0.7131;
18.3000;0.7977;-0.7231;
18.6000;0.7985;-0.7231;
18.9000;0.7985;-0.7206;
19.2000;0.7969;-0.7156;
19.5000;0.7977;-0.7131;
19.8000;0.7993;-0.7181;
20.1000;0.8083;-0.7006;
20.4000;0.7993;-0.7231;
20.7000;0.7985;-0.7281;
21.0000;0.7985;-0.7330;
21.3000;0.7993;-0.7380;
21.6000;0.8042;-0.7181;
21.9000;0.8002;-0.7256;
22.2000;0.7969;-0.7430;
22.5000;0.8010;-0.7355;
22.8000;0.8010;-0.7355;
23.1000;0.8010;-0.7305;
23.4000;0.8018;-0.7281;
23.7000;0.8034;-0.7281;
24.0000;0.8026;-0.7330;
24.3000;0.8026;-0.7305;
24.6000;0.8091;-0.7156;
24.9000;0.8026;-0.7281;
25.2000;0.8042;-0.7231;
25.5000;0.8010;-0.7305;
25.8000;0.8018;-0.7305;
26.1000;0.8042;-0.7305;
26.4000;0.8059;-0.7305;
26.7000;0.8042;-0.7380;
27.0000;0.8067;-0.7355;
27.3000;0.8059;-0.7355;
27.6000;0.8042;-0.7380;
27.9000;0.8050;-0.7330;
28.2000;0.8059;-0.7305;
28.5000;0.8124;-0.7106;
28.8000;0.8067;-0.7231;
29.1000;0.8083;-0.7156;
29.4000;0.8091;-0.7256;
29.7000;0.8083;-0.7256;
30.0000;0.8083;-0.7181;
30.3000;0.8091;-0.7281;
30.6000;0.8075;-0.7305;
30.9000;0.8067;-0.7380;
31.2000;0.8083;-0.7355;
31.5000;0.8099;-0.7281;
31.8000;0.8075;-0.7380;
32.1000;0.8083;-0.7405;
32.4000;0.8099;-0.7405;
32.7000;0.8107;-0.7305;
33.0000;0.8083;-0.7380;
33.3000;0.8083;-0.7330;
33.6000;0.8091;-0.7380;
33.9000;0.8124;-0.7305;
34.2000;0.8116;-0.7305;
34.5000;0.8116;-0.7405;
34.8000;0.8099;-0.7380;
35.1000;0.8099;-0.7380;
35.4000;0.8083;-0.7455;
35.7000;0.8091;-0.7405;
36.0000;0.8107;-0.7480;
36.3000;0.8116;-0.7405;
36.6000;0.8124;-0.7355;
36.9000;0.8189;-0.7231;
37.2000;0.8099;-0.7355;
37.5000;0.8124;-0.7256;
37.8000;0.8132;-0.7330;
38.1000;0.8132;-0.7380;
38.4000;0.8189;-0.7256;
38.7000;0.8116;-0.7405;
39.0000;0.8124;-0.7405;
39.3000;0.8132;-0.7355;
39.6000;0.8132;-0.7231;
39.9000;0.8124;-0.7206;
40.2000;0.8124;-0.7106;
40.5000;0.8132;-0.7156;
40.8000;0.8124;-0.7206;
41.1000;0.8140;-0.7256;
41.4000;0.8148;-0.7305;
41.7000;0.8140;-0.7355;
42.0000;0.8132;-0.7305;
42.3000;0.8140;-0.7256;
42.6000;0.8132;-0.7281;
42.9000;0.8156;-0.7355;
43.2000;0.8140;-0.7480;
43.5000;0.8083;-0.7679;
43.8000;0.8156;-0.7480;
44.1000;0.8164;-0.7430;
44.4000;0.8099;-0.7555;
44.7000;0.8148;-0.7380;
45.0000;0.8156;-0.7455;
45.3000;0.8156;-0.7405;
45.6000;0.8107;-0.7530;
45.9000;0.8164;-0.7455;
46.2000;0.8181;-0.7455;
46.5000;0.8173;-0.7505;
46.8000;0.8156;-0.7555;
47.1000;0.8156;-0.7505;
47.4000;0.8140;-0.7530;
47.7000;0.8132;-0.7580;
48.0000;0.8164;-0.7505;
48.3000;0.8156;-0.7530;
48.6000;0.8148;-0.7505;
48.9000;0.8148;-0.7530;
49.2000;0.8181;-0.7480;
49.5000;0.8181;-0.7455;
49.8000;0.8173;-0.7430;
50.1000;0.8164;-0.7430;
50.4000;0.8189;-0.7405;
50.7000;0.8189;-0.7480;
51.0000;0.8140;-0.7580;
51.3000;0.8173;-0.7530;
51.6000;0.8148;-0.7555;
51.9000;0.8181;-0.7530;
52.2000;0.8181;-0.7530;
52.5000;0.8189;-0.7555;
52.8000;0.8181;-0.7555;
53.1000;0.8197;-0.7530;
53.4000;0.8270;-0.7256;
53.7000;0.8173;-0.7530;
54.0000;0.8189;-0.7455;
54.3000;0.8205;-0.7405;
54.6000;0.8205;-0.7430;
54.9000;0.8189;-0.7455;
55.2000;0.8156;-0.7455;
55.5000;0.8205;-0.7330;
55.8000;0.8205;-0.7455;
56.1000;0.8197;-0.7505;
56.4000;0.8205;-0.7405;
56.7000;0.8189;-0.7455;
57.0000;0.8205;-0.7455;
57.3000;0.8189;-0.7455;
57.6000;0.8197;-0.7405;
57.9000;0.8213;-0.7355;
58.2000;0.8205;-0.7430;
58.5000;0.8197;-0.7505;
58.8000;0.8197;-0.7405;
59.1000;0.8278;-0.7330;
59.4000;0.8270;-0.7355;
59.7000;0.8205;-0.7555;
60.0000;0.8197;-0.7679;
60.3000;0.8205;-0.7655;
60.6000;0.8205;-0.7580;
60.9000;0.8189;-0.7580;
61.2000;0.8205;-0.7505;
61.5000;0.8156;-0.7679;
61.8000;0.8197;-0.7480;
62.1000;0.8197;-0.7380;
62.4000;0.8197;-0.7380;
62.7000;0.8197;-0.7355;
63.0000;0.8213;-0.7355;
63.3000;0.8213;-0.7305;
63.6000;0.8181;-0.7455;
63.9000;0.8213;-0.7480;
64.2000;0.8197;-0.7455;
64.5000;0.8278;-0.7355;
64.8000;0.8213;-0.7480;
65.1000;0.8221;-0.7405;
65.4000;0.8197;-0.7505;
65.7000;0.8197;-0.7605;
66.0000;0.8238;-0.7505;
66.3000;0.8213;-0.7580;
66.6000;0.8230;-0.7530;
66.9000;0.8213;-0.7530;
67.2000;0.8230;-0.7530;
67.5000;0.8205;-0.7530;
67.8000;0.8238;-0.7505;
68.1000;0.8197;-0.7630;
68.4000;0.8221;-0.7630;
68.7000;0.8213;-0.7804;
69.0000;0.8221;-0.7779;
69.3000;0.8230;-0.7679;
69.6000;0.8221;-0.7655;
69.9000;0.8221;-0.7655;
70.2000;0.8230;-0.7779;
70.5000;0.8205;-0.7854;
70.8000;0.8221;-0.7754;
71.1000;0.8262;-0.7630;
71.4000;0.8205;-0.7679;
71.7000;0.8221;-0.7605;
72.0000;0.8230;-0.7555;
72.3000;0.8221;-0.7679;
72.6000;0.8213;-0.7754;
72.9000;0.8221;-0.7754;
73.2000;0.8246;-0.7655;
73.5000;0.8221;-0.7779;
73.8000;0.8238;-0.7804;
74.1000;0.8335;-0.7480;
74.4000;0.8221;-0.7779;
74.7000;0.8230;-0.7729;
75.0000;0.8197;-0.7804;
75.3000;0.8148;-0.7904;
75.6000;0.8303;-0.7480;
75.9000;0.8230;-0.7630;
76.2000;0.8221;-0.7555;
76.5000;0.8238;-0.7480;
76.8000;0.8230;-0.7530;
77.1000;0.8221;-0.7480;
77.4000;0.8246;-0.7505;
77.7000;0.8238;-0.7505;
78.0000;0.8230;-0.7530;
78.3000;0.8213;-0.7530;
78.6000;0.8246;-0.7505;
78.9000;0.8246;-0.7455;
79.2000;0.8221;-0.7480;
79.5000;0.8164;-0.7605;
79.8000;0.8197;-0.7630;
80.1000;0.8246;-0.7530;
80.4000;0.8238;-0.7580;
80.7000;0.8230;-0.7605;
81.0000;0.8230;-0.7580;
81.3000;0.8205;-0.7580;
81.6000;0.8230;-0.7655;
81.9000;0.8254;-0.7580;
82.2000;0.8173;-0.7704;
82.5000;0.8197;-0.7630;
82.8000;0.8221;-0.7555;
83.1000;0.8230;-0.7580;
83.4000;0.8221;-0.7580;
83.7000;0.8230;-0.7679;
84.0000;0.8246;-0.7655;
84.3000;0.8246;-0.7655;
84.6000;0.8254;-0.7729;
84.9000;0.8246;-0.7630;
85.2000;0.8278;-0.7580;
85.5000;0.8254;-0.7655;
85.8000;0.8246;-0.7630;
86.1000;0.8262;-0.7605;
86.4000;0.8238;-0.7704;
86.7000;0.8254;-0.7704;
87.0000;0.8238;-0.7804;
87.3000;0.8238;-0.7779;
87.6000;0.8246;-0.7829;
87.9000;0.8262;-0.7804;
88.2000;0.8246;-0.7854;
88.5000;0.8287;-0.7729;
88.8000;0.8270;-0.7779;
89.1000;0.8254;-0.7754;
89.4000;0.8254;-0.7804;
89.7000;0.8254;-0.7704;
90.0000;0.8246;-0.7754;
90.3000;0.8246;-0.7804;
90.6000;0.8254;-0.7729;
90.9000;0.8246;-0.7754;
91.2000;0.8221;-0.7854;
91.5000;0.8295;-0.7630;
91.8000;0.8287;-0.7679;
92.1000;0.8238;-0.7829;
92.4000;0.8262;-0.7754;
92.7000;0.8238;-0.7704;
93.0000;0.8246;-0.7779;
93.3000;0.8254;-0.7729;
93.6000;0.8262;-0.7655;
93.9000;0.8254;-0.7655;
94.2000;0.8238;-0.7704;
94.5000;0.8262;-0.7555;
94.8000;0.8254;-0.7455;
95.1000;0.8238;-0.7555;
95.4000;0.8254;-0.7530;
95.7000;0.8254;-0.7605;
96.0000;0.8262;-0.7580;
96.3000;0.8295;-0.7455;
96.6000;0.8270;-0.7480;
96.9000;0.8287;-0.7605;
97.2000;0.8262;-0.7729;
97.5000;0.8270;-0.7679;
97.8000;0.8270;-0.7655;
98.1000;0.8246;-0.7729;
98.4000;0.8278;-0.7754;
98.7000;0.8238;-0.7954;
99.0000;0.8303;-0.7754;
99.3000;0.8254;-0.7754;
99.6000;0.8278;-0.7704;
99.9000;0.8254;-0.7704;
100.2000;0.8270;-0.7655;
100.5000;0.8287;-0.7530;
100.8000;0.8270;-0.7455;
101.1000;0.8278;-0.7530;
101.4000;0.8278;-0.7505;
101.7000;0.8278;-0.7505;
102.0000;0.8303;-0.7405;
102.3000;0.8213;-0.7580;
102.6000;0.8262;-0.7505;
102.9000;0.8278;-0.7455;
103.2000;0.8262;-0.7430;
103.5000;0.8254;-0.7430;
103.8000;0.8254;-0.7430;
104.1000;0.8254;-0.7530;
104.4000;0.8262;-0.7505;
104.7000;0.8270;-0.7555;
105.0000;0.8270;-0.7580;
105.3000;0.8254;-0.7580;
105.6000;0.8262;-0.7530;
105.9000;0.8295;-0.7530;
106.2000;0.8262;-0.7655;
106.5000;0.8270;-0.7605;
106.8000;0.8376;-0.7355;
107.1000;0.8278;-0.7580;
107.4000;0.8270;-0.7605;
107.7000;0.8270;-0.7580;
108.0000;0.8270;-0.7605;
108.3000;0.8254;-0.7630;
108.6000;0.8246;-0.7630;
108.9000;0.8238;-0.7655;
109.2000;0.8262;-0.7580;
109.5000;0.8270;-0.7505;
109.8000;0.8278;-0.7505;
110.1000;0.8246;-0.7530;
110.4000;0.8230;-0.7505;
110.7000;0.8270;-0.7580;
111.0000;0.8270;-0.7605;
111.3000;0.8295;-0.7530;
111.6000;0.8278;-0.7580;
111.9000;0.8287;-0.7605;
112.2000;0.8295;-0.7555;
112.5000;0.8262;-0.7630;
112.8000;0.8295;-0.7555;
113.1000;0.8295;-0.7555;
113.4000;0.8278;-0.7555;
113.7000;0.8287;-0.7505;
114.0000;0.8262;-0.7630;
114.3000;0.8295;-0.7630;
114.6000;0.8319;-0.7530;
114.9000;0.8287;-0.7605;
115.2000;0.8295;-0.7580;
115.5000;0.8295;-0.7630;
115.8000;0.8262;-0.7655;
116.1000;0.8278;-0.7605;
116.4000;0.8278;-0.7655;
116.7000;0.8238;-0.7804;
117.0000;0.8221;-0.7804;
117.3000;0.8262;-0.7754;
117.6000;0.8254;-0.7704;
117.9000;0.8270;-0.7555;
118.2000;0.8287;-0.7530;
118.5000;0.8287;-0.7530;
118.8000;0.8278;-0.7630;
119.1000;0.8270;-0.7630;
119.4000;0.8295;-0.7530;
119.7000;0.8270;-0.7605;
120.0000;0.8270;-0.7655;
120.3000;0.8262;-0.7630;
120.6000;0.8295;-0.7480;
120.9000;0.8278;-0.7630;
121.2000;0.8270;-0.7630;
121.5000;0.8270;-0.7679;
121.8000;0.8270;-0.7555;
122.1000;0.8287;-0.7555;
122.4000;0.8287;-0.7605;
122.7000;0.8278;-0.7679;
123.0000;0.8287;-0.7679;
123.3000;0.8262;-0.7729;
123.6000;0.8287;-0.7605;
123.9000;0.8287;-0.7679;
124.2000;0.8262;-0.7704;
124.5000;0.8287;-0.7605;
124.8000;0.8319;-0.7555;
125.1000;0.8262;-0.7704;
125.4000;0.8295;-0.7655;
125.7000;0.8295;-0.7655;
126.0000;0.8295;-0.7580;
126.3000;0.8262;-0.7655;
126.6000;0.8295;-0.7605;
126.9000;0.8311;-0.7505;
127.2000;0.8311;-0.7455;
127.5000;0.8287;-0.7505;
127.8000;0.8278;-0.7530;
128.1000;0.8278;-0.7555;
128.4000;0.8295;-0.7555;
128.7000;0.8303;-0.7430;
129.0000;0.8303;-0.7430;
129.3000;0.8287;-0.7580;
129.6000;0.8262;-0.7679;
129.9000;0.8238;-0.7829;
130.2000;0.8287;-0.7679;
130.5000;0.8287;-0.7704;
130.8000;0.8295;-0.7655;
131.1000;0.8295;-0.7605;
131.4000;0.8295;-0.7580;
131.7000;0.8295;-0.7505;
132.0000;0.8295;-0.7530;
132.3000;0.8303;-0.7480;
132.6000;0.8295;-0.7555;
132.9000;0.8278;-0.7480;
133.2000;0.8238;-0.7530;
133.5000;0.8311;-0.7405;
133.8000;0.8303;-0.7480;
134.1000;0.8295;-0.7505;
134.4000;0.8287;-0.7580;
134.7000;0.8287;-0.7655;
135.0000;0.8278;-0.7729;
135.3000;0.8278;-0.7804;
135.6000;0.8287;-0.7704;
135.9000;0.8287;-0.7605;
136.2000;0.8295;-0.7505;
136.5000;0.8295;-0.7480;
136.8000;0.8278;-0.7530;
137.1000;0.8278;-0.7605;
137.4000;0.8303;-0.7605;
137.7000;0.8295;-0.7779;
138.0000;0.8295;-0.7804;
138.3000;0.8287;-0.7704;
138.6000;0.8287;-0.7630;
138.9000;0.8295;-0.7555;
139.2000;0.8287;-0.7530;
139.5000;0.8311;-0.7455;
139.8000;0.8287;-0.7530;
140.1000;0.8295;-0.7630;
140.4000;0.8287;-0.7630;
140.7000;0.8262;-0.7679;
141.0000;0.8278;-0.7704;
141.3000;0.8278;-0.7679;
141.6000;0.8278;-0.7729;
141.9000;0.8295;-0.7679;
142.2000;0.8278;-0.7679;
142.5000;0.8303;-0.7605;
142.8000;0.8278;-0.7605;
143.1000;0.8278;-0.7605;
143.4000;0.8278;-0.7555;
143.7000;0.8287;-0.7555;
144.0000;0.8278;-0.7555;
144.3000;0.8278;-0.7580;
144.6000;0.8213;-0.7754;
144.9000;0.8278;-0.7630;
145.2000;0.8287;-0.7580;
145.5000;0.8270;-0.7580;
145.8000;0.8270;-0.7605;
146.1000;0.8287;-0.7505;
146.4000;0.8197;-0.7679;
146.7000;0.8287;-0.7530;
147.0000;0.8303;-0.7555;
147.3000;0.8295;-0.7555;
147.6000;0.8287;-0.7480;
147.9000;0.8295;-0.7505;
148.2000;0.8278;-0.7605;
148.5000;0.8303;-0.7505;
148.8000;0.8303;-0.7505;
149.1000;0.8295;-0.7580;
149.4000;0.8287;-0.7480;
149.7000;0.8278;-0.7530;
150.0000;0.8287;-0.7555;
150.3000;0.8213;-0.7779;
150.6000;0.8303;-0.7505;
150.9000;0.8287;-0.7530;
151.2000;0.8344;-0.7480;
151.5000;0.8295;-0.7605;
151.8000;0.8303;-0.7505;
152.1000;0.8287;-0.7505;
152.4000;0.8303;-0.7480;
152.7000;0.8303;-0.7455;
153.0000;0.8230;-0.7655;
153.3000;0.8311;-0.7530;
153.6000;0.8303;-0.7505;
153.9000;0.8303;-0.7430;
154.2000;0.8287;-0.7555;
154.5000;0.8287;-0.7530;
154.8000;0.8270;-0.7580;
155.1000;0.8278;-0.7555;
155.4000;0.8303;-0.7530;
155.7000;0.8295;-0.7580;
156.0000;0.8295;-0.7630;
156.3000;0.8287;-0.7530;
156.6000;0.8287;-0.7505;
156.9000;0.8278;-0.7580;
157.2000;0.8295;-0.7630;
157.5000;0.8311;-0.7605;
157.8000;0.8295;-0.7655;
158.1000;0.8303;-0.7580;
158.4000;0.8319;-0.7580;
158.7000;0.8287;-0.7704;
159.0000;0.8295;-0.7679;
159.3000;0.8303;-0.7679;
159.6000;0.8254;-0.7804;
159.9000;0.8295;-0.7630;
160.2000;0.8295;-0.7605;
160.5000;0.8270;-0.7679;
160.8000;0.8278;-0.7704;
161.1000;0.8287;-0.7655;
161.4000;0.8295;-0.7555;
161.7000;0.8295;-0.7480;
162.0000;0.8303;-0.7580;
162.3000;0.8287;-0.7580;
162.6000;0.8295;-0.7480;
162.9000;0.8287;-0.7480;
163.2000;0.8311;-0.7455;
163.5000;0.8295;-0.7580;
163.8000;0.8303;-0.7530;
164.1000;0.8287;-0.7480;
164.4000;0.8278;-0.7480;
164.7000;0.8287;-0.7405;
165.0000;0.8278;-0.7455;
165.3000;0.8278;-0.7505;
165.6000;0.8278;-0.7555;
165.9000;0.8295;-0.7480;
166.2000;0.8270;-0.7430;
166.5000;0.8303;-0.7330;
166.8000;0.8278;-0.7355;
167.1000;0.8287;-0.7480;
167.4000;0.8278;-0.7555;
167.7000;0.8270;-0.7605;
168.0000;0.8287;-0.7580;
168.3000;0.8295;-0.7605;
168.6000;0.8287;-0.7605;
168.9000;0.8238;-0.7854;
169.2000;0.8295;-0.7729;
169.5000;0.8295;-0.7679;
169.8000;0.8287;-0.7704;
170.1000;0.8278;-0.7829;
170.4000;0.8287;-0.7879;
170.7000;0.8303;-0.7929;
171.0000;0.8295;-0.7929;
171.3000;0.8287;-0.7954;
171.6000;0.8278;-0.7929;
171.9000;0.8270;-0.7829;
172.2000;0.8287;-0.7679;
172.5000;0.8303;-0.7704;
172.8000;0.8270;-0.7779;
173.1000;0.8400;-0.7330;
173.4000;0.8295;-0.7530;
173.7000;0.8303;-0.7530;
174.0000;0.8335;-0.7455;
174.3000;0.8278;-0.7505;
174.6000;0.8287;-0.7505;
174.9000;0.8230;-0.7605;
175.2000;0.8287;-0.7505;
175.5000;0.8287;-0.7655;
175.8000;0.8254;-0.7729;
176.1000;0.8230;-0.7804;
176.4000;0.8335;-0.7580;
176.7000;0.8278;-0.7704;
177.0000;0.8278;-0.7679;
177.3000;0.8270;-0.7655;
177.6000;0.8287;-0.7555;
177.9000;0.8278;-0.7555;
178.2000;0.8287;-0.7530;
178.5000;0.8327;-0.7480;
178.8000;0.8287;-0.7605;
179.1000;0.8287;-0.7630;
179.4000;0.8278;-0.7679;
179.7000;0.8287;-0.7580;
180.0000;0.8295;-0.7580;
180.3000;0.8287;-0.7605;
180.6000;0.8287;-0.7605;
180.9000;0.8287;-0.7530;
181.2000;0.8295;-0.7530;
181.5000;0.8303;-0.7605;
181.8000;0.8278;-0.7729;
182.1000;0.8295;-0.7729;
182.4000;0.8262;-0.7829;
182.7000;0.8287;-0.7829;
183.0000;0.8311;-0.7779;
183.3000;0.8295;-0.7754;
183.6000;0.8181;-0.7954;
183.9000;0.8287;-0.7704;
184.2000;0.8303;-0.7729;
184.5000;0.8303;-0.7704;
184.8000;0.8311;-0.7704;
185.1000;0.8295;-0.7779;
185.4000;0.8287;-0.7854;
185.7000;0.8246;-0.7954;
186.0000;0.8295;-0.7754;
186.3000;0.8295;-0.7804;
186.6000;0.8287;-0.7804;
186.9000;0.8287;-0.7779;
187.2000;0.8295;-0.7879;
187.5000;0.8278;-0.7904;
187.8000;0.8303;-0.7804;
188.1000;0.8295;-0.7829;
188.4000;0.8295;-0.7829;
188.7000;0.8278;-0.7754;
189.0000;0.8303;-0.7605;
189.3000;0.8270;-0.7580;
189.6000;0.8287;-0.7679;
189.9000;0.8303;-0.7580;
190.2000;0.8278;-0.7655;
190.5000;0.8262;-0.7679;
190.8000;0.8278;-0.7704;
191.1000;0.8295;-0.7630;
191.4000;0.8278;-0.7704;
191.7000;0.8278;-0.7779;
192.0000;0.8230;-0.7854;
192.3000;0.8287;-0.7729;
192.6000;0.8295;-0.7704;
192.9000;0.8287;-0.7754;
193.2000;0.8254;-0.7754;
193.5000;0.8319;-0.7655;
193.8000;0.8303;-0.7754;
194.1000;0.8295;-0.7729;
194.4000;0.8295;-0.7804;
194.7000;0.8303;-0.7779;
195.0000;0.8303;-0.7729;
195.3000;0.8311;-0.7655;
195.6000;0.8287;-0.7804;
195.9000;0.8295;-0.7729;
196.2000;0.8344;-0.7555;
196.5000;0.8295;-0.7729;
196.8000;0.8238;-0.7904;
197.1000;0.8254;-0.7804;
197.4000;0.8303;-0.7555;
197.7000;0.8278;-0.7605;
198.0000;0.8246;-0.7679;
198.3000;0.8221;-0.7804;
198.6000;0.8270;-0.7679;
198.9000;0.8319;-0.7555;
199.2000;0.8221;-0.7779;
199.5000;0.8278;-0.7729;
199.8000;0.8270;-0.7754;
200.1000;0.8254;-0.7729;
200.4000;0.8270;-0.7704;
200.7000;0.8287;-0.7679;
201.0000;0.8311;-0.7630;
201.3000;0.8213;-0.7804;
201.6000;0.8287;-0.7679;
201.9000;0.8295;-0.7630;
202.2000;0.8303;-0.7580;
202.5000;0.8295;-0.7655;
202.8000;0.8295;-0.7704;
203.1000;0.8335;-0.7655;
203.4000;0.8287;-0.7804;
203.7000;0.8287;-0.7729;
204.0000;0.8278;-0.7779;
204.3000;0.8303;-0.7630;
204.6000;0.8303;-0.7630;
204.9000;0.8278;-0.7605;
205.2000;0.8311;-0.7480;
205.5000;0.8295;-0.7505;
205.8000;0.8270;-0.7655;
206.1000;0.8270;-0.7704;
206.4000;0.8319;-0.7679;
206.7000;0.8270;-0.7754;
207.0000;0.8287;-0.7679;
207.3000;0.8311;-0.7704;
207.6000;0.8335;-0.7655;
207.9000;0.8295;-0.7754;
208.2000;0.8311;-0.7679;
208.5000;0.8295;-0.7704;
208.8000;0.8295;-0.7655;
209.1000;0.8303;-0.7704;
209.4000;0.8254;-0.7779;
209.7000;0.8230;-0.7829;
210.0000;0.8278;-0.7655;
210.3000;0.8287;-0.7580;
210.6000;0.8278;-0.7605;
210.9000;0.8287;-0.7555;
211.2000;0.8270;-0.7630;
211.5000;0.8287;-0.7580;
211.8000;0.8278;-0.7630;
212.1000;0.8278;-0.7630;
212.4000;0.8319;-0.7505;
212.7000;0.8295;-0.7655;
213.0000;0.8287;-0.7754;
213.3000;0.8270;-0.7729;
213.6000;0.8278;-0.7655;
213.9000;0.8278;-0.7679;
214.2000;0.8303;-0.7704;
214.5000;0.8254;-0.7854;
214.8000;0.8278;-0.7829;
215.1000;0.8287;-0.7829;
215.4000;0.8278;-0.7854;
215.7000;0.8303;-0.7779;
216.0000;0.8303;-0.7679;
216.3000;0.8270;-0.7655;
216.6000;0.8311;-0.7530;
216.9000;0.8303;-0.7530;
217.2000;0.8246;-0.7704;
217.5000;0.8278;-0.7679;
217.8000;0.8311;-0.7630;
218.1000;0.8311;-0.7630;
218.4000;0.8262;-0.7704;
218.7000;0.8270;-0.7630;
219.0000;0.8262;-0.7630;
219.3000;0.8311;-0.7455;
219.6000;0.8270;-0.7530;
219.9000;0.8278;-0.7505;
220.2000;0.8311;-0.7555;
220.5000;0.8295;-0.7630;
220.8000;0.8303;-0.7580;
221.1000;0.8295;-0.7630;
221.4000;0.8270;-0.7605;
221.7000;0.8278;-0.7580;
222.0000;0.8295;-0.7580;
222.3000;0.8254;-0.7754;
222.6000;0.8262;-0.7679;
222.9000;0.8319;-0.7530;
223.2000;0.8287;-0.7655;
223.5000;0.8295;-0.7729;
223.8000;0.8278;-0.7704;
224.1000;0.8246;-0.7804;
224.4000;0.8295;-0.7679;
224.7000;0.8278;-0.7704;
225.0000;0.8262;-0.7704;
225.3000;0.8262;-0.7605;
225.6000;0.8287;-0.7505;
225.9000;0.8278;-0.7530;
226.2000;0.8319;-0.7480;
226.5000;0.8278;-0.7555;
226.8000;0.8270;-0.7580;
227.1000;0.8270;-0.7530;
227.4000;0.8295;-0.7455;
227.7000;0.8287;-0.7455;
228.0000;0.8262;-0.7580;
228.3000;0.8287;-0.7530;
228.6000;0.8246;-0.7704;
228.9000;0.8278;-0.7679;
229.2000;0.8295;-0.7580;
229.5000;0.8287;-0.7605;
229.8000;0.8287;-0.7580;
230.1000;0.8270;-0.7630;
230.4000;0.8295;-0.7605;
230.7000;0.8303;-0.7505;
231.0000;0.8295;-0.7580;
231.3000;0.8278;-0.7555;
231.6000;0.8287;-0.7405;
231.9000;0.8303;-0.7355;
232.2000;0.8303;-0.7355;
232.5000;0.8295;-0.7405;
232.8000;0.8278;-0.7530;
233.1000;0.8295;-0.7580;
233.4000;0.8287;-0.7605;
233.7000;0.8295;-0.7555;
234.0000;0.8254;-0.7704;
234.3000;0.8270;-0.7779;
234.6000;0.8246;-0.7804;
234.9000;0.8295;-0.7679;
235.2000;0.8230;-0.7779;
235.5000;0.8278;-0.7605;
235.8000;0.8270;-0.7605;
236.1000;0.8287;-0.7480;
236.4000;0.8246;-0.7580;
236.7000;0.8287;-0.7455;
237.0000;0.8262;-0.7505;
237.3000;0.8254;-0.7555;
237.6000;0.8189;-0.7729;
237.9000;0.8262;-0.7555;
238.2000;0.8221;-0.7605;
238.5000;0.8278;-0.7430;
238.8000;0.8254;-0.7480;
239.1000;0.8278;-0.7455;
239.4000;0.8287;-0.7480;
239.7000;0.8295;-0.7505;
240.0000;0.8287;-0.7555;
240.3000;0.8278;-0.7555;
240.6000;0.8278;-0.7555;
240.9000;0.8238;-0.7729;
241.2000;0.8278;-0.7580;
241.5000;0.8287;-0.7480;
241.8000;0.8287;-0.7430;
242.1000;0.8295;-0.7430;
242.4000;0.8295;-0.7405;
242.7000;0.8270;-0.7530;
243.0000;0.8270;-0.7580;
243.3000;0.8295;-0.7455;
243.6000;0.8311;-0.7455;
243.9000;0.8238;-0.7655;
244.2000;0.8287;-0.7530;
244.5000;0.8270;-0.7580;
244.8000;0.8319;-0.7380;
245.1000;0.8262;-0.7480;
245.4000;0.8270;-0.7555;
245.7000;0.8287;-0.7555;
246.0000;0.8295;-0.7630;
246.3000;0.8230;-0.7754;
246.6000;0.8287;-0.7530;
246.9000;0.8278;-0.7555;
247.2000;0.8270;-0.7480;
247.5000;0.8287;-0.7405;
247.8000;0.8278;-0.7480;
248.1000;0.8270;-0.7505;
248.4000;0.8295;-0.7430;
248.7000;0.8278;-0.7455;
249.0000;0.8238;-0.7605;
249.3000;0.8262;-0.7530;
249.6000;0.8303;-0.7430;
249.9000;0.8295;-0.7380;
250.2000;0.8270;-0.7455;
250.5000;0.8238;-0.7580;
250.8000;0.8287;-0.7480;
251.1000;0.8254;-0.7679;
251.4000;0.8270;-0.7679;
251.7000;0.8278;-0.7630;
252.0000;0.8262;-0.7630;
252.3000;0.8287;-0.7630;
252.6000;0.8278;-0.7655;
252.9000;0.8262;-0.7704;
253.2000;0.8270;-0.7704;
253.5000;0.8287;-0.7679;
253.8000;0.8270;-0.7729;
254.1000;0.8278;-0.7754;
254.4000;0.8287;-0.7754;
254.7000;0.8287;-0.7754;
255.0000;0.8319;-0.7754;
255.3000;0.8319;-0.7704;
255.6000;0.8295;-0.7779;
255.9000;0.8278;-0.7779;
256.2000;0.8295;-0.7704;
256.5000;0.8303;-0.7754;
256.8000;0.8287;-0.7779;
257.1000;0.8278;-0.7779;
257.4000;0.8262;-0.7754;
257.7000;0.8270;-0.7679;
258.0000;0.8287;-0.7655;
258.3000;0.8270;-0.7655;
258.6000;0.8295;-0.7630;
258.9000;0.8278;-0.7655;
259.2000;0.8344;-0.7455;
259.5000;0.8278;-0.7530;
259.8000;0.8262;-0.7580;
260.1000;0.8270;-0.7580;
260.4000;0.8295;-0.7505;
260.7000;0.8246;-0.7655;
261.0000;0.8278;-0.7555;
261.3000;0.8238;-0.7630;
261.6000;0.8295;-0.7455;
261.9000;0.8254;-0.7630;
262.2000;0.8311;-0.7480;
262.5000;0.8254;-0.7580;
262.8000;0.8278;-0.7505;
263.1000;0.8270;-0.7630;
263.4000;0.8278;-0.7580;
263.7000;0.8270;-0.7704;
264.0000;0.8278;-0.7704;
264.3000;0.8262;-0.7679;
264.6000;0.8270;-0.7655;
264.9000;0.8278;-0.7630;
265.2000;0.8262;-0.7530;
265.5000;0.8262;-0.7430;
265.8000;0.8254;-0.7430;
266.1000;0.8254;-0.7455;
266.4000;0.8303;-0.7455;
266.7000;0.8270;-0.7555;
267.0000;0.8262;-0.7530;
267.3000;0.8262;-0.7555;
267.6000;0.8278;-0.7530;
267.9000;0.8295;-0.7555;
268.2000;0.8270;-0.7655;
268.5000;0.8287;-0.7605;
268.8000;0.8278;-0.7505;
269.1000;0.8287;-0.7505;
269.4000;0.8319;-0.7480;
269.7000;0.8287;-0.7480;
270.0000;0.8287;-0.7455;
270.3000;0.8295;-0.7480;
270.6000;0.8278;-0.7480;
270.9000;0.8238;-0.7754;
271.2000;0.8278;-0.7580;
271.5000;0.8303;-0.7555;
271.8000;0.8295;-0.7505;
272.1000;0.8270;-0.7505;
272.4000;0.8270;-0.7555;
272.7000;0.8270;-0.7580;
273.0000;0.8270;-0.7530;
273.3000;0.8295;-0.7505;
273.6000;0.8270;-0.7655;
273.9000;0.8246;-0.7679;
274.2000;0.8254;-0.7605;
274.5000;0.8246;-0.7655;
274.8000;0.8319;-0.7480;
275.1000;0.8262;-0.7580;
275.4000;0.8189;-0.7630;
275.7000;0.8262;-0.7430;
276.0000;0.8270;-0.7480;
276.3000;0.8262;-0.7555;
276.6000;0.8221;-0.7605;
276.9000;0.8278;-0.7480;
277.2000;0.8254;-0.7530;
277.5000;0.8278;-0.7455;
277.8000;0.8295;-0.7380;
278.1000;0.8278;-0.7505;
278.4000;0.8246;-0.7605;
278.7000;0.8262;-0.7530;
279.0000;0.8262;-0.7605;
279.3000;0.8254;-0.7605;
279.6000;0.8254;-0.7605;
279.9000;0.8197;-0.7829;
280.2000;0.8238;-0.7679;
280.5000;0.8270;-0.7505;
280.8000;0.8278;-0.7480;
281.1000;0.8246;-0.7480;
281.4000;0.8270;-0.7505;
281.7000;0.8262;-0.7480;
282.0000;0.8311;-0.7355;
282.3000;0.8278;-0.7455;
282.6000;0.8278;-0.7480;
282.9000;0.8278;-0.7430;
283.2000;0.8278;-0.7430;
283.5000;0.8270;-0.7455;
283.8000;0.8262;-0.7555;
284.1000;0.8278;-0.7605;
284.4000;0.8230;-0.7729;
284.7000;0.8262;-0.7704;
285.0000;0.8262;-0.7580;
285.3000;0.8254;-0.7555;
285.6000;0.8278;-0.7480;
285.9000;0.8278;-0.7405;
286.2000;0.8270;-0.7430;
286.5000;0.8254;-0.7355;
286.8000;0.8278;-0.7405;
287.1000;0.8278;-0.7455;
287.4000;0.8254;-0.7555;
287.7000;0.8254;-0.7555;
288.0000;0.8262;-0.7580;
288.3000;0.8278;-0.7679;
288.6000;0.8270;-0.7630;
288.9000;0.8254;-0.7630;
289.2000;0.8213;-0.7729;
289.5000;0.8278;-0.7555;
289.8000;0.8270;-0.7555;
290.1000;0.8270;-0.7580;
290.4000;0.8262;-0.7655;
290.7000;0.8262;-0.7530;
291.0000;0.8278;-0.7430;
291.3000;0.8270;-0.7380;
291.6000;0.8278;-0.7430;
291.9000;0.8278;-0.7430;
292.2000;0.8262;-0.7455;
292.5000;0.8344;-0.7256;
292.8000;0.8270;-0.7430;
293.1000;0.8278;-0.7430;
293.4000;0.8319;-0.7405;
293.7000;0.8262;-0.7530;
294.0000;0.8295;-0.7455;
294.3000;0.8246;-0.7580;
294.6000;0.8270;-0.7580;
294.9000;0.8278;-0.7555;
295.2000;0.8246;-0.7605;
295.5000;0.8270;-0.7555;
295.8000;0.8278;-0.7455;
296.1000;0.8295;-0.7281;
296.4000;0.8213;-0.7505;
296.7000;0.8262;-0.7530;
297.0000;0.8270;-0.7580;
297.3000;0.8270;-0.7555;
297.6000;0.8262;-0.7530;
297.9000;0.8327;-0.7380;
298.2000;0.8311;-0.7380;
298.5000;0.8278;-0.7530;
298.8000;0.8254;-0.7580;
299.1000;0.8213;-0.7704;
299.4000;0.8254;-0.7580;
299.7000;0.8262;-0.7580;
300.0000;0.8254;-0.7630;
300.3000;0.8295;-0.7505;
300.6000;0.8270;-0.7505;
300.9000;0.8270;-0.7355;
301.2000;0.8278;-0.7305;
301.5000;0.8262;-0.7330;
301.8000;0.8270;-0.7281;
302.1000;0.8270;-0.7305;
302.4000;0.8270;-0.7281;
302.7000;0.8278;-0.7405;
303.0000;0.8262;-0.7455;
303.3000;0.8270;-0.7430;
303.6000;0.8270;-0.7405;
303.9000;0.8262;-0.7480;
304.2000;0.8287;-0.7430;
304.5000;0.8303;-0.7405;
304.8000;0.8270;-0.7455;
305.1000;0.8335;-0.7281;
305.4000;0.8270;-0.7480;
305.7000;0.8270;-0.7555;
306.0000;0.8262;-0.7505;
306.3000;0.8287;-0.7530;
306.6000;0.8278;-0.7480;
306.9000;0.8270;-0.7555;
307.2000;0.8254;-0.7505;
307.5000;0.8295;-0.7405;
307.8000;0.8270;-0.7455;
308.1000;0.8270;-0.7405;
308.4000;0.8254;-0.7480;
308.7000;0.8287;-0.7380;
309.0000;0.8213;-0.7555;
309.3000;0.8221;-0.7605;
309.6000;0.8270;-0.7480;
309.9000;0.8270;-0.7530;
310.2000;0.8238;-0.7505;
310.5000;0.8262;-0.7555;
310.8000;0.8287;-0.7505;
311.1000;0.8262;-0.7505;
311.4000;0.8254;-0.7505;
311.7000;0.8254;-0.7405;
312.0000;0.8246;-0.7505;
312.3000;0.8254;-0.7505;
312.6000;0.8278;-0.7580;
312.9000;0.8262;-0.7605;
313.2000;0.8278;-0.7580;
313.5000;0.8295;-0.7480;
313.8000;0.8287;-0.7380;
314.1000;0.8311;-0.7330;
314.4000;0.8164;-0.7655;
314.7000;0.8262;-0.7405;
315.0000;0.8278;-0.7305;
315.3000;0.8270;-0.7256;
315.6000;0.8270;-0.7281;
315.9000;0.8270;-0.7256;
316.2000;0.8368;-0.7031;
316.5000;0.8262;-0.7256;
316.8000;0.8254;-0.7330;
317.1000;0.8254;-0.7305;
317.4000;0.8262;-0.7256;
317.7000;0.8270;-0.7181;
318.0000;0.8295;-0.7056;
318.3000;0.8262;-0.7156;
318.6000;0.8254;-0.7206;
318.9000;0.8278;-0.7231;
319.2000;0.8254;-0.7355;
319.5000;0.8262;-0.7355;
319.8000;0.8254;-0.7355;
320.1000;0.8197;-0.7480;
320.4000;0.8262;-0.7281;
320.7000;0.8262;-0.7330;
321.0000;0.8189;-0.7630;
321.3000;0.8254;-0.7405;
321.6000;0.8246;-0.7355;
321.9000;0.8262;-0.7330;
322.2000;0.8262;-0.7355;
322.5000;0.8262;-0.7380;
322.8000;0.8262;-0.7405;
323.1000;0.8303;-0.7355;
323.4000;0.8295;-0.7430;
323.7000;0.8254;-0.7380;
324.0000;0.8278;-0.7305;
324.3000;0.8262;-0.7355;
324.6000;0.8262;-0.7330;
324.9000;0.8230;-0.7380;
325.2000;0.8246;-0.7430;
325.5000;0.8181;-0.7580;
325.8000;0.8270;-0.7380;
326.1000;0.8246;-0.7530;
326.4000;0.8287;-0.7555;
326.7000;0.8295;-0.7630;
327.0000;0.8270;-0.7605;
327.3000;0.8221;-0.7655;
327.6000;0.8230;-0.7605;
327.9000;0.8270;-0.7555;
328.2000;0.8441;-0.7131;
328.5000;0.8254;-0.7530;
328.8000;0.8270;-0.7505;
329.1000;0.8262;-0.7505;
329.4000;0.8262;-0.7505;
329.7000;0.8319;-0.7380;
330.0000;0.8270;-0.7430;
330.3000;0.8205;-0.7580;
330.6000;0.8287;-0.7430;
330.9000;0.8270;-0.7505;
331.2000;0.8270;-0.7505;
331.5000;0.8270;-0.7505;
331.8000;0.8254;-0.7480;
332.1000;0.8254;-0.7505;
332.4000;0.8254;-0.7555;
332.7000;0.8262;-0.7580;
333.0000;0.8270;-0.7555;
333.3000;0.8238;-0.7630;
333.6000;0.8254;-0.7505;
333.9000;0.8238;-0.7505;
334.2000;0.8254;-0.7405;
334.5000;0.8254;-0.7505;
334.8000;0.8254;-0.7530;
335.1000;0.8262;-0.7555;
335.4000;0.8238;-0.7679;
335.7000;0.8262;-0.7630;
336.0000;0.8262;-0.7679;
336.3000;0.8254;-0.7679;
336.6000;0.8262;-0.7655;
336.9000;0.8181;-0.7779;
337.2000;0.8262;-0.7530;
337.5000;0.8254;-0.7555;
337.8000;0.8246;-0.7555;
338.1000;0.8205;-0.7729;
338.4000;0.8213;-0.7729;
338.7000;0.8262;-0.7630;
339.0000;0.8246;-0.7605;
339.3000;0.8270;-0.7580;
339.6000;0.8238;-0.7655;
339.9000;0.8246;-0.7630;
340.2000;0.8246;-0.7630;
340.5000;0.8238;-0.7655;
340.8000;0.8278;-0.7530;
341.1000;0.8230;-0.7555;
341.4000;0.8246;-0.7555;
341.7000;0.8254;-0.7480;
342.0000;0.8270;-0.7455;
342.3000;0.8262;-0.7580;
342.6000;0.8262;-0.7480;
342.9000;0.8262;-0.7455;
343.2000;0.8246;-0.7455;
343.5000;0.8287;-0.7355;
343.8000;0.8319;-0.7181;
344.1000;0.8278;-0.7281;
344.4000;0.8278;-0.7256;
344.7000;0.8262;-0.7305;
345.0000;0.8254;-0.7256;
345.3000;0.8270;-0.7231;
345.6000;0.8246;-0.7206;
345.9000;0.8319;-0.6956;
346.2000;0.8254;-0.7081;
346.5000;0.8238;-0.7131;
346.8000;0.8246;-0.7156;
347.1000;0.8262;-0.7206;
347.4000;0.8238;-0.7231;
347.7000;0.8246;-0.7305;
348.0000;0.8311;-0.7106;
348.3000;0.8270;-0.7206;
348.6000;0.8246;-0.7256;
348.9000;0.8262;-0.7281;
349.2000;0.8254;-0.7330;
349.5000;0.8254;-0.7305;
349.8000;0.8270;-0.7355;
350.1000;0.8262;-0.7430;
350.4000;0.8262;-0.7505;
350.7000;0.8246;-0.7530;
351.0000;0.8278;-0.7455;
351.3000;0.8254;-0.7480;
351.6000;0.8181;-0.7605;
351.9000;0.8246;-0.7530;
352.2000;0.8246;-0.7555;
352.5000;0.8246;-0.7605;
352.8000;0.8262;-0.7580;
353.1000;0.8262;-0.7580;
353.4000;0.8262;-0.7480;
353.7000;0.8270;-0.7455;
354.0000;0.8246;-0.7405;
354.3000;0.8230;-0.7405;
354.6000;0.8213;-0.7480;
354.9000;0.8246;-0.7405;
355.2000;0.8246;-0.7480;
355.5000;0.8270;-0.7455;
355.8000;0.8303;-0.7380;
356.1000;0.8262;-0.7455;
356.4000;0.8295;-0.7405;
356.7000;0.8238;-0.7555;
357.0000;0.8254;-0.7555;
357.3000;0.8254;-0.7530;
357.6000;0.8254;-0.7530;
357.9000;0.8262;-0.7505;
358.2000;0.8270;-0.7455;
358.5000;0.8262;-0.7405;
358.8000;0.8238;-0.7480;
359.1000;0.8246;-0.7555;
359.4000;0.8295;-0.7480;
359.7000;0.8254;-0.7480;
360.0000;0.8213;-0.7580;
360.3000;0.8238;-0.7530;
360.6000;0.8230;-0.7704;
360.9000;0.8230;-0.7679;
361.2000;0.8270;-0.7505;
361.5000;0.8254;-0.7530;
361.8000;0.8262;-0.7505;
362.1000;0.8262;-0.7480;
362.4000;0.8270;-0.7380;
362.7000;0.8254;-0.7480;
363.0000;0.8213;-0.7630;
363.3000;0.8278;-0.7405;
363.6000;0.8238;-0.7505;
363.9000;0.8270;-0.7455;
364.2000;0.8254;-0.7505;
364.5000;0.8262;-0.7455;
364.8000;0.8254;-0.7355;
365.1000;0.8262;-0.7405;
365.4000;0.8278;-0.7355;
365.7000;0.8262;-0.7330;
366.0000;0.8278;-0.7380;
366.3000;0.8254;-0.7455;
366.6000;0.8221;-0.7605;
366.9000;0.8262;-0.7430;
367.2000;0.8246;-0.7405;
367.5000;0.8262;-0.7405;
367.8000;0.8270;-0.7405;
368.1000;0.8262;-0.7380;
368.4000;0.8278;-0.7231;
368.7000;0.8262;-0.7355;
369.0000;0.8270;-0.7380;
369.3000;0.8230;-0.7455;
369.6000;0.8327;-0.7206;
369.9000;0.8262;-0.7380;
370.2000;0.8238;-0.7405;
370.5000;0.8254;-0.7355;
370.8000;0.8230;-0.7505;
371.1000;0.8221;-0.7455;
371.4000;0.8254;-0.7455;
371.7000;0.8246;-0.7380;
372.0000;0.8230;-0.7480;
372.3000;0.8238;-0.7480;
372.6000;0.8254;-0.7380;
372.9000;0.8254;-0.7355;
373.2000;0.8246;-0.7330;
373.5000;0.8311;-0.7206;
373.8000;0.8270;-0.7330;
374.1000;0.8270;-0.7330;
374.4000;0.8230;-0.7430;
374.7000;0.8254;-0.7380;
375.0000;0.8254;-0.7405;
375.3000;0.8270;-0.7380;
375.6000;0.8254;-0.7430;
375.9000;0.8238;-0.7405;
376.2000;0.8303;-0.7281;
376.5000;0.8254;-0.7380;
376.8000;0.8230;-0.7405;
377.1000;0.8238;-0.7505;
377.4000;0.8230;-0.7530;
377.7000;0.8238;-0.7555;
378.0000;0.8246;-0.7580;
378.3000;0.8221;-0.7555;
378.6000;0.8221;-0.7630;
378.9000;0.8254;-0.7580;
379.2000;0.8319;-0.7455;
379.5000;0.8221;-0.7704;
379.8000;0.8246;-0.7630;
380.1000;0.8254;-0.7580;
380.4000;0.8262;-0.7555;
380.7000;0.8230;-0.7505;
381.0000;0.8262;-0.7405;
381.3000;0.8230;-0.7355;
381.6000;0.8246;-0.7380;
381.9000;0.8254;-0.7480;
382.2000;0.8238;-0.7555;
382.5000;0.8278;-0.7430;
382.8000;0.8254;-0.7430;
383.1000;0.8173;-0.7605;
383.4000;0.8262;-0.7480;
383.7000;0.8254;-0.7380;
384.0000;0.8238;-0.7256;
384.3000;0.8278;-0.7106;
384.6000;0.8254;-0.7256;
384.9000;0.8246;-0.7231;
385.2000;0.8262;-0.7206;
385.5000;0.8278;-0.7231;
385.8000;0.8278;-0.7305;
386.1000;0.8262;-0.7455;
386.4000;0.8246;-0.7480;
386.7000;0.8246;-0.7480;
387.0000;0.8246;-0.7455;
387.3000;0.8262;-0.7430;
387.6000;0.8238;-0.7455;
387.9000;0.8246;-0.7505;
388.2000;0.8246;-0.7555;
388.5000;0.8221;-0.7605;
388.8000;0.8238;-0.7704;
389.1000;0.8246;-0.7630;
389.4000;0.8311;-0.7405;
389.7000;0.8254;-0.7480;
390.0000;0.8238;-0.7505;
390.3000;0.8246;-0.7480;
390.6000;0.8262;-0.7480;
390.9000;0.8254;-0.7580;
391.2000;0.8246;-0.7530;
391.5000;0.8303;-0.7330;
391.8000;0.8238;-0.7455;
392.1000;0.8246;-0.7455;
392.4000;0.8221;-0.7480;
392.7000;0.8238;-0.7430;
393.0000;0.8254;-0.7405;
393.3000;0.8254;-0.7355;
393.6000;0.8230;-0.7355;
393.9000;0.8295;-0.7231;
394.2000;0.8262;-0.7355;
394.5000;0.8262;-0.7330;
394.8000;0.8262;-0.7380;
395.1000;0.8230;-0.7480;
395.4000;0.8238;-0.7430;
395.7000;0.8262;-0.7355;
396.0000;0.8262;-0.7330;
396.3000;0.8254;-0.7330;
396.6000;0.8254;-0.7305;
396.9000;0.8246;-0.7430;
397.2000;0.8270;-0.7355;
397.5000;0.8238;-0.7555;
397.8000;0.8246;-0.7530;
398.1000;0.8262;-0.7455;
398.4000;0.8246;-0.7505;
398.7000;0.8254;-0.7455;
399.0000;0.8262;-0.7455;
399.3000;0.8270;-0.7430;
399.6000;0.8262;-0.7430;
399.9000;0.8238;-0.7480;
400.2000;0.8246;-0.7605;
400.5000;0.8254;-0.7530;
400.8000;0.8246;-0.7555;
401.1000;0.8262;-0.7455;
401.4000;0.8262;-0.7455;
401.7000;0.8246;-0.7455;
402.0000;0.8213;-0.7455;
402.3000;0.8270;-0.7430;
402.6000;0.8221;-0.7505;
402.9000;0.8238;-0.7455;
403.2000;0.8254;-0.7480;
403.5000;0.8254;-0.7555;
403.8000;0.8246;-0.7605;
404.1000;0.8230;-0.7655;
404.4000;0.8246;-0.7530;
404.7000;0.8238;-0.7530;
405.0000;0.8238;-0.7505;
405.3000;0.8238;-0.7555;
405.6000;0.8238;-0.7580;
405.9000;0.8262;-0.7630;
406.2000;0.8254;-0.7679;
406.5000;0.8213;-0.7804;
406.8000;0.8246;-0.7655;
407.1000;0.8238;-0.7530;
407.4000;0.8238;-0.7555;
407.7000;0.8230;-0.7505;
408.0000;0.8230;-0.7455;
408.3000;0.8246;-0.7430;
408.6000;0.8246;-0.7380;
408.9000;0.8246;-0.7380;
409.2000;0.8344;-0.7231;
409.5000;0.8246;-0.7530;
409.8000;0.8246;-0.7505;
410.1000;0.8181;-0.7779;
410.4000;0.8270;-0.7555;
410.7000;0.8254;-0.7605;
411.0000;0.8262;-0.7580;
411.3000;0.8303;-0.7380;
411.6000;0.8238;-0.7430;
411.9000;0.8270;-0.7455;
412.2000;0.8254;-0.7455;
412.5000;0.8254;-0.7430;
412.8000;0.8246;-0.7455;
413.1000;0.8262;-0.7305;
413.4000;0.8246;-0.7380;
413.7000;0.8246;-0.7305;
414.0000;0.8213;-0.7405;
414.3000;0.8246;-0.7305;
414.6000;0.8254;-0.7305;
414.9000;0.8230;-0.7355;
415.2000;0.8181;-0.7505;
415.5000;0.8246;-0.7455;
415.8000;0.8246;-0.7505;
416.1000;0.8181;-0.7679;
416.4000;0.8246;-0.7455;
416.7000;0.8221;-0.7455;
417.0000;0.8221;-0.7455;
417.3000;0.8221;-0.7405;
417.6000;0.8303;-0.7206;
417.9000;0.8246;-0.7305;
418.2000;0.8254;-0.7281;
418.5000;0.8246;-0.7281;
418.8000;0.8246;-0.7305;
419.1000;0.8287;-0.7131;
419.4000;0.8246;-0.7106;
419.7000;0.8221;-0.7281;
420.0000;0.8254;-0.7256;
420.3000;0.8246;-0.7305;
420.6000;0.8246;-0.7256;
420.9000;0.8270;-0.7281;
421.2000;0.8246;-0.7330;
421.5000;0.8262;-0.7430;
421.8000;0.8254;-0.7480;
422.1000;0.8254;-0.7505;
422.4000;0.8270;-0.7580;
422.7000;0.8246;-0.7555;
423.0000;0.8246;-0.7505;
423.3000;0.8238;-0.7630;
423.6000;0.8173;-0.7754;
423.9000;0.8254;-0.7530;
424.2000;0.8230;-0.7530;
424.5000;0.8132;-0.7779;
424.8000;0.8238;-0.7480;
425.1000;0.8221;-0.7480;
425.4000;0.8238;-0.7480;
425.7000;0.8295;-0.7330;
426.0000;0.8246;-0.7455;
426.3000;0.8254;-0.7455;
426.6000;0.8246;-0.7455;
426.9000;0.8197;-0.7679;
427.2000;0.8254;-0.7580;
427.5000;0.8238;-0.7630;
427.8000;0.8230;-0.7630;
428.1000;0.8238;-0.7679;
428.4000;0.8238;-0.7754;
428.7000;0.8238;-0.7679;
429.0000;0.8181;-0.7804;
429.3000;0.8254;-0.7679;
429.6000;0.8230;-0.7630;
429.9000;0.8230;-0.7679;
430.2000;0.8254;-0.7679;
430.5000;0.8270;-0.7679;
430.8000;0.8262;-0.7679;
431.1000;0.8230;-0.7754;
431.4000;0.8221;-0.7630;
431.7000;0.8238;-0.7580;
432.0000;0.8221;-0.7704;
432.3000;0.8238;-0.7655;
432.6000;0.8246;-0.7679;
432.9000;0.8238;-0.7704;
433.2000;0.8287;-0.7580;
433.5000;0.8303;-0.7505;
433.8000;0.8254;-0.7605;
434.1000;0.8262;-0.7630;
434.4000;0.8246;-0.7655;
434.7000;0.8221;-0.7679;
435.0000;0.8254;-0.7555;
435.3000;0.8270;-0.7605;
435.6000;0.8230;-0.7729;
435.9000;0.8262;-0.7580;
436.2000;0.8238;-0.7655;
436.5000;0.8270;-0.7480;
436.8000;0.8254;-0.7580;
437.1000;0.8148;-0.7879;
437.4000;0.8230;-0.7605;
437.7000;0.8246;-0.7580;
438.0000;0.8205;-0.7754;
438.3000;0.8238;-0.7655;
438.6000;0.8230;-0.7779;
438.9000;0.8238;-0.7829;
439.2000;0.8205;-0.7954;
439.5000;0.8246;-0.7904;
439.8000;0.8221;-0.7954;
440.1000;0.8205;-0.7904;
440.4000;0.8230;-0.7704;
440.7000;0.8238;-0.7655;
441.0000;0.8230;-0.7555;
441.3000;0.8230;-0.7505;
441.6000;0.8360;-0.7206;
441.9000;0.8238;-0.7505;
442.2000;0.8238;-0.7455;
442.5000;0.8246;-0.7480;
442.8000;0.8246;-0.7480;
443.1000;0.8254;-0.7505;
443.4000;0.8221;-0.7530;
443.7000;0.8254;-0.7580;
444.0000;0.8254;-0.7630;
444.3000;0.8221;-0.7655;
444.6000;0.8221;-0.7729;
444.9000;0.8246;-0.7555;
445.2000;0.8254;-0.7505;
445.5000;0.8262;-0.7580;
445.8000;0.8238;-0.7605;
446.1000;0.8221;-0.7630;
446.4000;0.8221;-0.7704;
446.7000;0.8197;-0.7854;
447.0000;0.8246;-0.7804;
447.3000;0.8197;-0.7879;
447.6000;0.8221;-0.7854;
447.9000;0.8246;-0.7704;
448.2000;0.8254;-0.7655;
448.5000;0.8205;-0.7655;
448.8000;0.8230;-0.7480;
449.1000;0.8262;-0.7455;
449.4000;0.8230;-0.7430;
449.7000;0.8246;-0.7380;
450.0000;0.8238;-0.7405;
450.3000;0.8230;-0.7530;
450.6000;0.8254;-0.7480;
450.9000;0.8238;-0.7430;
451.2000;0.8238;-0.7530;
451.5000;0.8230;-0.7480;
451.8000;0.8189;-0.7605;
452.1000;0.8230;-0.7555;
452.4000;0.8230;-0.7580;
452.7000;0.8230;-0.7580;
453.0000;0.8238;-0.7580;
453.3000;0.8230;-0.7580;
453.6000;0.8254;-0.7655;
453.9000;0.8238;-0.7655;
454.2000;0.8238;-0.7555;
454.5000;0.8246;-0.7530;
454.8000;0.8238;-0.7505;
455.1000;0.8230;-0.7580;
455.4000;0.8319;-0.7330;
455.7000;0.8238;-0.7555;
456.0000;0.8254;-0.7580;
456.3000;0.8246;-0.7530;
456.6000;0.8230;-0.7580;
456.9000;0.8254;-0.7555;
457.2000;0.8254;-0.7505;
457.5000;0.8230;-0.7530;
457.8000;0.8270;-0.7405;
458.1000;0.8270;-0.7480;
458.4000;0.8254;-0.7505;
458.7000;0.8254;-0.7580;
459.0000;0.8230;-0.7605;
459.3000;0.8246;-0.7430;
459.6000;0.8270;-0.7405;
459.9000;0.8238;-0.7380;
460.2000;0.8221;-0.7455;
460.5000;0.8238;-0.7455;
460.8000;0.8213;-0.7455;
461.1000;0.8230;-0.7505;
461.4000;0.8238;-0.7480;
461.7000;0.8213;-0.7530;
462.0000;0.8254;-0.7605;
462.3000;0.8254;-0.7555;
462.6000;0.8221;-0.7655;
462.9000;0.8221;-0.7630;
463.2000;0.8230;-0.7630;
463.5000;0.8238;-0.7655;
463.8000;0.8278;-0.7605;
464.1000;0.8221;-0.7679;
464.4000;0.8238;-0.7655;
464.7000;0.8213;-0.7655;
465.0000;0.8221;-0.7630;
465.3000;0.8213;-0.7605;
465.6000;0.8238;-0.7530;
465.9000;0.8230;-0.7555;
466.2000;0.8238;-0.7655;
466.5000;0.8230;-0.7704;
466.8000;0.8254;-0.7530;
467.1000;0.8246;-0.7505;
467.4000;0.8254;-0.7430;
467.7000;0.8238;-0.7530;
468.0000;0.8303;-0.7355;
468.3000;0.8246;-0.7480;
468.6000;0.8238;-0.7555;
468.9000;0.8238;-0.7630;
469.2000;0.8221;-0.7630;
469.5000;0.8221;-0.7530;
469.8000;0.8221;-0.7605;
470.1000;0.8246;-0.7679;
470.4000;0.8205;-0.7704;
470.7000;0.8189;-0.7605;
471.0000;0.8230;-0.7530;
471.3000;0.8221;-0.7530;
471.6000;0.8213;-0.7580;
471.9000;0.8213;-0.7655;
472.2000;0.8238;-0.7580;
472.5000;0.8230;-0.7704;
472.8000;0.8221;-0.7704;
473.1000;0.8246;-0.7555;
473.4000;0.8197;-0.7630;
473.7000;0.8230;-0.7480;
474.0000;0.8238;-0.7505;
474.3000;0.8238;-0.7530;
474.6000;0.8221;-0.7580;
474.9000;0.8230;-0.7605;
475.2000;0.8246;-0.7555;
475.5000;0.8230;-0.7605;
475.8000;0.8254;-0.7630;
476.1000;0.8221;-0.7655;
476.4000;0.8246;-0.7455;
476.7000;0.8221;-0.7455;
477.0000;0.8254;-0.7405;
477.3000;0.8221;-0.7480;
477.6000;0.8238;-0.7555;
477.9000;0.8230;-0.7605;
478.2000;0.8205;-0.7679;
478.5000;0.8230;-0.7630;
478.8000;0.8238;-0.7679;
479.1000;0.8238;-0.7704;
479.4000;0.8213;-0.7655;
479.7000;0.8221;-0.7530;
480.0000;0.8246;-0.7430;
480.3000;0.8213;-0.7530;
480.6000;0.8254;-0.7430;
480.9000;0.8230;-0.7480;
481.2000;0.8230;-0.7505;
481.5000;0.8254;-0.7430;
481.8000;0.8238;-0.7455;
482.1000;0.8262;-0.7505;
482.4000;0.8262;-0.7405;
482.7000;0.8254;-0.7380;
483.0000;0.8246;-0.7380;
483.3000;0.8230;-0.7480;
483.6000;0.8352;-0.7231;
483.9000;0.8254;-0.7555;
484.2000;0.8238;-0.7655;
484.5000;0.8230;-0.7630;
484.8000;0.8140;-0.7804;
485.1000;0.8238;-0.7480;
485.4000;0.8238;-0.7455;
485.7000;0.8148;-0.7679;
486.0000;0.8205;-0.7555;
486.3000;0.8230;-0.7480;
486.6000;0.8238;-0.7580;
486.9000;0.8230;-0.7555;
487.2000;0.8238;-0.7530;
487.5000;0.8262;-0.7480;
487.8000;0.8230;-0.7555;
488.1000;0.8254;-0.7455;
488.4000;0.8262;-0.7455;
488.7000;0.8238;-0.7605;
489.0000;0.8230;-0.7630;
489.3000;0.8335;-0.7305;
489.6000;0.8238;-0.7555;
489.9000;0.8246;-0.7505;
490.2000;0.8246;-0.7505;
490.5000;0.8230;-0.7505;
490.8000;0.8238;-0.7430;
491.1000;0.8221;-0.7455;
491.4000;0.8197;-0.7555;
491.7000;0.8238;-0.7405;
492.0000;0.8230;-0.7380;
492.3000;0.8230;-0.7305;
492.6000;0.8246;-0.7330;
492.9000;0.8230;-0.7405;
493.2000;0.8230;-0.7355;
493.5000;0.8221;-0.7405;
493.8000;0.8221;-0.7455;
494.1000;0.8230;-0.7455;
494.4000;0.8230;-0.7455;
494.7000;0.8213;-0.7505;
495.0000;0.8213;-0.7480;
495.3000;0.8221;-0.7505;
495.6000;0.8221;-0.7480;
495.9000;0.8238;-0.7480;
496.2000;0.8213;-0.7555;
496.5000;0.8254;-0.7480;
496.8000;0.8230;-0.7480;
497.1000;0.8213;-0.7530;
497.4000;0.8230;-0.7455;
497.7000;0.8230;-0.7430;
498.0000;0.8221;-0.7430;
498.3000;0.8197;-0.7580;
498.6000;0.8230;-0.7555;
498.9000;0.8221;-0.7530;
499.2000;0.8238;-0.7380;
499.5000;0.8173;-0.7430;
499.8000;0.8246;-0.7256;
500.1000;0.8205;-0.7380;
500.4000;0.8197;-0.7505;
500.7000;0.8238;-0.7455;
501.0000;0.8230;-0.7455;
501.3000;0.8221;-0.7330;
501.6000;0.8221;-0.7281;
501.9000;0.8221;-0.7330;
502.2000;0.8254;-0.7305;
502.5000;0.8221;-0.7330;
502.8000;0.8230;-0.7330;
503.1000;0.8197;-0.7355;
503.4000;0.8221;-0.7330;
503.7000;0.8221;-0.7355;
504.0000;0.8246;-0.7405;
504.3000;0.8230;-0.7405;
504.6000;0.8221;-0.7330;
504.9000;0.8221;-0.7330;
505.2000;0.8238;-0.7206;
505.5000;0.8238;-0.7206;
505.8000;0.8238;-0.7256;
506.1000;0.8238;-0.7330;
506.4000;0.8238;-0.7281;
506.7000;0.8246;-0.7256;
507.0000;0.8230;-0.7330;
507.3000;0.8230;-0.7330;
507.6000;0.8278;-0.7256;
507.9000;0.8238;-0.7281;
508.2000;0.8238;-0.7231;
508.5000;0.8246;-0.7206;
508.8000;0.8230;-0.7330;
509.1000;0.8246;-0.7281;
509.4000;0.8230;-0.7330;
509.7000;0.8238;-0.7505;
510.0000;0.8238;-0.7580;
510.3000;0.8221;-0.7605;
510.6000;0.8295;-0.7355;
510.9000;0.8221;-0.7505;
511.2000;0.8230;-0.7530;
511.5000;0.8238;-0.7480;
511.8000;0.8238;-0.7430;
512.1000;0.8221;-0.7505;
512.4000;0.8221;-0.7455;
512.7000;0.8221;-0.7480;
513.0000;0.8213;-0.7455;
513.3000;0.8230;-0.7480;
513.6000;0.8230;-0.7505;
513.9000;0.8221;-0.7530;
514.2000;0.8181;-0.7555;
514.5000;0.8238;-0.7380;
514.8000;0.8246;-0.7330;
515.1000;0.8221;-0.7405;
515.4000;0.8156;-0.7480;
515.7000;0.8238;-0.7231;
516.0000;0.8230;-0.7206;
516.3000;0.8140;-0.7480;
516.6000;0.8205;-0.7305;
516.9000;0.8221;-0.7305;
517.2000;0.8221;-0.7355;
517.5000;0.8221;-0.7480;
517.8000;0.8221;-0.7530;
518.1000;0.8221;-0.7580;
518.4000;0.8221;-0.7630;
518.7000;0.8213;-0.7704;
519.0000;0.8230;-0.7605;
519.3000;0.8221;-0.7630;
519.6000;0.8254;-0.7580;
519.9000;0.8230;-0.7605;
520.2000;0.8221;-0.7555;
520.5000;0.8221;-0.7580;
520.8000;0.8221;-0.7679;
521.1000;0.8221;-0.7729;
521.4000;0.8213;-0.7804;
521.7000;0.8238;-0.7605;
522.0000;0.8238;-0.7580;
522.3000;0.8173;-0.7779;
522.6000;0.8221;-0.7580;
522.9000;0.8213;-0.7505;
523.2000;0.8238;-0.7430;
523.5000;0.8238;-0.7455;
523.8000;0.8262;-0.7430;
524.1000;0.8246;-0.7480;
524.4000;0.8311;-0.7256;
524.7000;0.8221;-0.7430;
525.0000;0.8230;-0.7480;
525.3000;0.8238;-0.7480;
525.6000;0.8230;-0.7630;
525.9000;0.8230;-0.7505;
526.2000;0.8205;-0.7530;
526.5000;0.8213;-0.7580;
526.8000;0.8221;-0.7580;
527.1000;0.8230;-0.7430;
527.4000;0.8238;-0.7455;
527.7000;0.8213;-0.7455;
528.0000;0.8213;-0.7480;
528.3000;0.8213;-0.7405;
528.6000;0.8238;-0.7455;
528.9000;0.8230;-0.7380;
529.2000;0.8230;-0.7430;
529.5000;0.8238;-0.7380;
529.8000;0.8213;-0.7355;
530.1000;0.8221;-0.7455;
530.4000;0.8221;-0.7430;
530.7000;0.8189;-0.7580;
531.0000;0.8278;-0.7355;
531.3000;0.8221;-0.7380;
531.6000;0.8189;-0.7530;
531.9000;0.8213;-0.7455;
532.2000;0.8132;-0.7605;
532.5000;0.8213;-0.7430;
532.8000;0.8238;-0.7430;
533.1000;0.8205;-0.7455;
533.4000;0.8278;-0.7156;
533.7000;0.8205;-0.7305;
534.0000;0.8148;-0.7530;
534.3000;0.8238;-0.7380;
534.6000;0.8238;-0.7330;
534.9000;0.8230;-0.7430;
535.2000;0.8254;-0.7455;
535.5000;0.8246;-0.7555;
535.8000;0.8230;-0.7605;
536.1000;0.8230;-0.7530;
536.4000;0.8221;-0.7505;
536.7000;0.8213;-0.7580;
537.0000;0.8221;-0.7555;
537.3000;0.8238;-0.7505;
537.6000;0.8213;-0.7480;
537.9000;0.8238;-0.7430;
538.2000;0.8156;-0.7630;
538.5000;0.8311;-0.7206;
538.8000;0.8221;-0.7480;
539.1000;0.8213;-0.7505;
539.4000;0.8262;-0.7380;
539.7000;0.8270;-0.7256;
540.0000;0.8238;-0.7380;
540.3000;0.8107;-0.7655;
540.6000;0.8295;-0.7156;
540.9000;0.8221;-0.7430;
541.2000;0.8238;-0.7455;
541.5000;0.8189;-0.7530;
541.8000;0.8205;-0.7405;
542.1000;0.8221;-0.7380;
542.4000;0.8213;-0.7355;
542.7000;0.8205;-0.7355;
543.0000;0.8213;-0.7305;
543.3000;0.8230;-0.7305;
543.6000;0.8221;-0.7330;
543.9000;0.8221;-0.7256;
544.2000;0.8238;-0.7305;
544.5000;0.8295;-0.7156;
544.8000;0.8213;-0.7330;
545.1000;0.8246;-0.7281;
545.4000;0.8246;-0.7480;
545.7000;0.8246;-0.7530;
546.0000;0.8246;-0.7605;
546.3000;0.8230;-0.7555;
546.6000;0.8230;-0.7630;
546.9000;0.8213;-0.7555;
547.2000;0.8238;-0.7505;
547.5000;0.8205;-0.7555;
547.8000;0.8213;-0.7530;
548.1000;0.8221;-0.7405;
548.4000;0.8205;-0.7405;
548.7000;0.8221;-0.7355;
549.0000;0.8238;-0.7305;
549.3000;0.8205;-0.7281;
549.6000;0.8238;-0.7256;
549.9000;0.8213;-0.7281;
550.2000;0.8254;-0.7256;
550.5000;0.8230;-0.7330;
550.8000;0.8221;-0.7231;
551.1000;0.8213;-0.7330;
551.4000;0.8221;-0.7355;
551.7000;0.8230;-0.7380;
552.0000;0.8230;-0.7355;
552.3000;0.8221;-0.7455;
552.6000;0.8221;-0.7430;
552.9000;0.8221;-0.7455;
553.2000;0.8213;-0.7405;
553.5000;0.8189;-0.7505;
553.8000;0.8238;-0.7480;
554.1000;0.8213;-0.7455;
554.4000;0.8156;-0.7530;
554.7000;0.8189;-0.7380;
555.0000;0.8213;-0.7181;
555.3000;0.8197;-0.7281;
555.6000;0.8124;-0.7505;
555.9000;0.8221;-0.7181;
556.2000;0.8238;-0.7231;
556.5000;0.8238;-0.7181;
556.8000;0.8221;-0.7181;
557.1000;0.8221;-0.7231;
557.4000;0.8213;-0.7256;
557.7000;0.8246;-0.7281;
558.0000;0.8205;-0.7405;
558.3000;0.8238;-0.7330;
558.6000;0.8254;-0.7256;
558.9000;0.8230;-0.7305;
559.2000;0.8238;-0.7281;
559.5000;0.8270;-0.7231;
559.8000;0.8213;-0.7405;
560.1000;0.8230;-0.7380;
560.4000;0.8238;-0.7256;
560.7000;0.8197;-0.7380;
561.0000;0.8221;-0.7305;
561.3000;0.8295;-0.7156;
561.6000;0.8221;-0.7380;
561.9000;0.8230;-0.7330;
562.2000;0.8221;-0.7405;
562.5000;0.8254;-0.7405;
562.8000;0.8230;-0.7405;
563.1000;0.8221;-0.7405;
563.4000;0.8262;-0.7405;
563.7000;0.8213;-0.7480;
564.0000;0.8230;-0.7405;
564.3000;0.8230;-0.7330;
564.6000;0.8221;-0.7355;
564.9000;0.8213;-0.7231;
565.2000;0.8221;-0.7181;
565.5000;0.8230;-0.7181;
565.8000;0.8221;-0.7305;
566.1000;0.8295;-0.7231;
566.4000;0.8213;-0.7405;
566.7000;0.8230;-0.7281;
567.0000;0.8164;-0.7430;
567.3000;0.8213;-0.7330;
567.6000;0.8221;-0.7330;
567.9000;0.8230;-0.7330;
568.2000;0.8230;-0.7305;
568.5000;0.8221;-0.7455;
568.8000;0.8238;-0.7455;
569.1000;0.8221;-0.7530;
569.4000;0.8221;-0.7480;
569.7000;0.8230;-0.7430;
570.0000;0.8230;-0.7480;
570.3000;0.8221;-0.7330;
570.6000;0.8230;-0.7305;
570.9000;0.8238;-0.7355;
571.2000;0.8213;-0.7405;
571.5000;0.8287;-0.7181;
571.8000;0.8254;-0.7330;
572.1000;0.8254;-0.7380;
572.4000;0.8230;-0.7430;
572.7000;0.8213;-0.7480;
573.0000;0.8197;-0.7555;
573.3000;0.8238;-0.7430;
573.6000;0.8254;-0.7355;
573.9000;0.8213;-0.7480;
574.2000;0.8213;-0.7580;
574.5000;0.8254;-0.7455;
574.8000;0.8213;-0.7480;
575.1000;0.8221;-0.7455;
575.4000;0.8213;-0.7505;
575.7000;0.8246;-0.7455;
576.0000;0.8238;-0.7455;
576.3000;0.8221;-0.7530;
576.6000;0.8246;-0.7455;
576.9000;0.8189;-0.7555;
577.2000;0.8205;-0.7555;
577.5000;0.8246;-0.7380;
577.8000;0.8246;-0.7355;
578.1000;0.8221;-0.7430;
578.4000;0.8221;-0.7480;
578.7000;0.8230;-0.7605;
579.0000;0.8221;-0.7630;
579.3000;0.8221;-0.7605;
579.6000;0.8083;-0.7954;
579.9000;0.8221;-0.7505;
580.2000;0.8246;-0.7455;
580.5000;0.8213;-0.7555;
580.8000;0.8221;-0.7505;
581.1000;0.8213;-0.7455;
581.4000;0.8173;-0.7630;
581.7000;0.8213;-0.7580;
582.0000;0.8238;-0.7455;
582.3000;0.8238;-0.7555;
582.6000;0.8230;-0.7530;
582.9000;0.8213;-0.7580;
583.2000;0.8197;-0.7555;
583.5000;0.8221;-0.7530;
583.8000;0.8230;-0.7580;
584.1000;0.8221;-0.7555;
584.4000;0.8238;-0.7530;
584.7000;0.8238;-0.7505;
585.0000;0.8238;-0.7480;
585.3000;0.8238;-0.7430;
585.6000;0.8221;-0.7330;
585.9000;0.8221;-0.7355;
586.2000;0.8254;-0.7281;
586.5000;0.8230;-0.7355;
586.8000;0.8230;-0.7355;
587.1000;0.8230;-0.7231;
587.4000;0.8230;-0.7305;
587.7000;0.8238;-0.7281;
588.0000;0.8205;-0.7330;
588.3000;0.8230;-0.7355;
588.6000;0.8221;-0.7330;
588.9000;0.8213;-0.7206;
589.2000;0.8132;-0.7430;
589.5000;0.8197;-0.7380;
589.8000;0.8205;-0.7405;
590.1000;0.8230;-0.7330;
590.4000;0.8230;-0.7355;
590.7000;0.8221;-0.7330;
591.0000;0.8221;-0.7281;
591.3000;0.8205;-0.7305;
591.6000;0.8238;-0.7305;
591.9000;0.8213;-0.7355;
592.2000;0.8230;-0.7330;
592.5000;0.8189;-0.7505;
592.8000;0.8189;-0.7555;
593.1000;0.8197;-0.7505;
593.4000;0.8254;-0.7305;
593.7000;0.8221;-0.7405;
594.0000;0.8205;-0.7455;
594.3000;0.8205;-0.7505;
594.6000;0.8205;-0.7430;
594.9000;0.8221;-0.7405;
595.2000;0.8213;-0.7355;
595.5000;0.8221;-0.7305;
595.8000;0.8230;-0.7480;
596.1000;0.8270;-0.7281;
596.4000;0.8230;-0.7305;
596.7000;0.8205;-0.7305;
597.0000;0.8246;-0.7206;
597.3000;0.8189;-0.7355;
597.6000;0.8205;-0.7380;
597.9000;0.8205;-0.7505;
598.2000;0.8181;-0.7580;
598.5000;0.8230;-0.7430;
598.8000;0.8213;-0.7530;
599.1000;0.8181;-0.7704;
599.4000;0.8238;-0.7580;
599.7000;0.8221;-0.7555;
600.0000;0.8148;-0.7804;
600.3000;0.8205;-0.7779;
600.6000;0.8059;-0.8103;
600.9000;0.7993;-0.8053;
601.2000;0.7823;-0.8328;
601.5000;0.7652;-0.8527;
601.8000;0.7448;-0.8876;
602.1000;0.7277;-0.9076;
602.4000;0.7139;-0.9350;
602.7000;0.7025;-0.9525;
603.0000;0.6870;-0.9774;
603.3000;0.6764;-0.9799;
603.6000;0.6764;-0.9649;
603.9000;0.6528;-1.0173;
604.2000;0.6463;-1.0297;
604.5000;0.6365;-1.0472;
604.8000;0.6292;-1.0597;
605.1000;0.6219;-1.0671;
605.4000;0.6121;-1.0821;
605.7000;0.6081;-1.0896;
606.0000;0.6024;-1.1070;
606.3000;0.5950;-1.1070;
606.6000;0.5934;-1.1120;
606.9000;0.5877;-1.1245;
607.2000;0.5796;-1.1345;
607.5000;0.5779;-1.1270;
607.8000;0.5755;-1.1245;
608.1000;0.5698;-1.1295;
608.4000;0.5665;-1.1444;
608.7000;0.5633;-1.1395;
609.0000;0.5600;-1.1469;
609.3000;0.5560;-1.1419;
609.6000;0.5543;-1.1469;
609.9000;0.5511;-1.1494;
610.2000;0.5495;-1.1519;
610.5000;0.5454;-1.1669;
610.8000;0.5446;-1.1694;
611.1000;0.5429;-1.1669;
611.4000;0.5389;-1.1694;
611.7000;0.5381;-1.1719;
612.0000;0.5405;-1.1594;
612.3000;0.5324;-1.1818;
612.6000;0.5315;-1.1843;
612.9000;0.5283;-1.1868;
613.2000;0.5242;-1.1993;
613.5000;0.5250;-1.1968;
613.8000;0.5226;-1.1993;
614.1000;0.5210;-1.2043;
614.4000;0.5193;-1.2118;
614.7000;0.5185;-1.2068;
615.0000;0.5210;-1.1893;
615.3000;0.5079;-1.2242;
615.6000;0.5144;-1.2018;
615.9000;0.5112;-1.2043;
616.2000;0.5022;-1.2242;
616.5000;0.5088;-1.1968;
616.8000;0.5096;-1.1968;
617.1000;0.5071;-1.2068;
617.4000;0.5088;-1.2018;
617.7000;0.5079;-1.1993;
618.0000;0.5063;-1.1943;
618.3000;0.5006;-1.1993;
618.6000;0.5014;-1.1918;
618.9000;0.5031;-1.1868;
619.2000;0.4998;-1.1943;
619.5000;0.4982;-1.1993;
619.8000;0.4982;-1.2043;
620.1000;0.5022;-1.1968;
620.4000;0.4965;-1.2167;
620.7000;0.4941;-1.2192;
621.0000;0.4965;-1.2118;
621.3000;0.4949;-1.2068;
621.6000;0.4933;-1.2093;
621.9000;0.4949;-1.2018;
622.2000;0.4908;-1.2068;
622.5000;0.4917;-1.1993;
622.8000;0.4900;-1.2043;
623.1000;0.4917;-1.1993;
623.4000;0.4892;-1.2068;
623.7000;0.4876;-1.2068;
624.0000;0.4892;-1.2068;
624.3000;0.4876;-1.2068;
624.6000;0.4876;-1.2118;
624.9000;0.4851;-1.2217;
625.2000;0.4868;-1.2167;
625.5000;0.4860;-1.2192;
625.8000;0.4851;-1.2118;
626.1000;0.4835;-1.2118;
626.4000;0.4827;-1.2118;
626.7000;0.4835;-1.2118;
627.0000;0.4737;-1.2367;
627.3000;0.4811;-1.2143;
627.6000;0.4819;-1.2118;
627.9000;0.4811;-1.2143;
628.2000;0.4819;-1.2118;
628.5000;0.4770;-1.2217;
628.8000;0.4762;-1.2242;
629.1000;0.4811;-1.2043;
629.4000;0.4786;-1.2018;
629.7000;0.4770;-1.2043;
630.0000;0.4770;-1.2018;
630.3000;0.4754;-1.2068;
630.6000;0.4762;-1.2143;
630.9000;0.4770;-1.2118;
631.2000;0.4762;-1.2043;
631.5000;0.4746;-1.2093;
631.8000;0.4746;-1.2217;
632.1000;0.4762;-1.2192;
632.4000;0.4737;-1.2143;
632.7000;0.4737;-1.2118;
633.0000;0.4721;-1.2217;
633.3000;0.4770;-1.2118;
633.6000;0.4737;-1.2167;
633.9000;0.4729;-1.2192;
634.2000;0.4737;-1.2192;
634.5000;0.4713;-1.2392;
634.8000;0.4713;-1.2392;
635.1000;0.4705;-1.2467;
635.4000;0.4697;-1.2492;
635.7000;0.4689;-1.2467;
636.0000;0.4729;-1.2367;
636.3000;0.4713;-1.2242;
636.6000;0.4681;-1.2342;
636.9000;0.4689;-1.2392;
637.2000;0.4689;-1.2467;
637.5000;0.4689;-1.2467;
637.8000;0.4681;-1.2392;
638.1000;0.4689;-1.2267;
638.4000;0.4648;-1.2442;
638.7000;0.4632;-1.2517;
639.0000;0.4672;-1.2292;
639.3000;0.4672;-1.2167;
639.6000;0.4672;-1.2143;
639.9000;0.4664;-1.2267;
640.2000;0.4664;-1.2367;
640.5000;0.4664;-1.2267;
640.8000;0.4664;-1.2242;
641.1000;0.4672;-1.2167;
641.4000;0.4672;-1.2118;
641.7000;0.4664;-1.2093;
642.0000;0.4656;-1.2018;
642.3000;0.4648;-1.2068;
642.6000;0.4656;-1.2143;
642.9000;0.4640;-1.2192;
643.2000;0.4632;-1.2192;
643.5000;0.4648;-1.2217;
643.8000;0.4648;-1.2217;
644.1000;0.4599;-1.2367;
644.4000;0.4632;-1.2267;
644.7000;0.4624;-1.2192;
645.0000;0.4624;-1.2167;
645.3000;0.4607;-1.2118;
645.6000;0.4632;-1.2018;
645.9000;0.4599;-1.2093;
646.2000;0.4615;-1.2068;
646.5000;0.4599;-1.2068;
646.8000;0.4591;-1.2068;
647.1000;0.4550;-1.2118;
647.4000;0.4615;-1.2018;
647.7000;0.4607;-1.2043;
648.0000;0.4615;-1.2143;
648.3000;0.4599;-1.2143;
648.6000;0.4615;-1.2118;
648.9000;0.4575;-1.2167;
649.2000;0.4599;-1.1968;
649.5000;0.4558;-1.1993;
649.8000;0.4599;-1.1943;
650.1000;0.4575;-1.1968;
650.4000;0.4591;-1.1868;
650.7000;0.4558;-1.2018;
651.0000;0.4534;-1.2192;
651.3000;0.4599;-1.2143;
651.6000;0.4575;-1.2167;
651.9000;0.4558;-1.2242;
652.2000;0.4575;-1.2217;
652.5000;0.4591;-1.2292;
652.8000;0.4575;-1.2317;
653.1000;0.4501;-1.2492;
653.4000;0.4542;-1.2317;
653.7000;0.4567;-1.2217;
654.0000;0.4558;-1.2242;
654.3000;0.4567;-1.2167;
654.6000;0.4558;-1.2167;
654.9000;0.4550;-1.2167;
655.2000;0.4591;-1.2093;
655.5000;0.4534;-1.2217;
655.8000;0.4542;-1.2192;
656.1000;0.4542;-1.2242;
656.4000;0.4526;-1.2217;
656.7000;0.4518;-1.2292;
657.0000;0.4534;-1.2342;
657.3000;0.4575;-1.2167;
657.6000;0.4550;-1.2217;
657.9000;0.4444;-1.2417;
658.2000;0.4510;-1.2217;
658.5000;0.4518;-1.2292;
658.8000;0.4567;-1.2192;
659.1000;0.4542;-1.2267;
659.4000;0.4526;-1.2267;
659.7000;0.4518;-1.2217;
660.0000;0.4567;-1.1993;
660.3000;0.4526;-1.2118;
660.6000;0.4550;-1.2018;
660.9000;0.4501;-1.2167;
661.2000;0.4526;-1.2043;
661.5000;0.4493;-1.2043;
661.8000;0.4501;-1.2093;
662.1000;0.4493;-1.2167;
662.4000;0.4501;-1.2143;
662.7000;0.4453;-1.2317;
663.0000;0.4510;-1.2242;
663.3000;0.4477;-1.2392;
663.6000;0.4485;-1.2392;
663.9000;0.4510;-1.2417;
664.2000;0.4510;-1.2292;
664.5000;0.4501;-1.2292;
664.8000;0.4485;-1.2242;
665.1000;0.4485;-1.2143;
665.4000;0.4461;-1.2192;
665.7000;0.4477;-1.2143;
666.0000;0.4518;-1.1993;
666.3000;0.4501;-1.2043;
666.6000;0.4461;-1.2192;
666.9000;0.4477;-1.2143;
667.2000;0.4493;-1.2143;
667.5000;0.4501;-1.2167;
667.8000;0.4420;-1.2317;
668.1000;0.4469;-1.2093;
668.4000;0.4453;-1.2292;
668.7000;0.4461;-1.2317;
669.0000;0.4469;-1.2367;
669.3000;0.4453;-1.2467;
669.6000;0.4453;-1.2492;
669.9000;0.4510;-1.2392;
670.2000;0.4542;-1.2267;
670.5000;0.4453;-1.2442;
670.8000;0.4444;-1.2492;
671.1000;0.4453;-1.2417;
671.4000;0.4428;-1.2342;
671.7000;0.4453;-1.2292;
672.0000;0.4453;-1.2192;
672.3000;0.4469;-1.2217;
672.6000;0.4428;-1.2392;
672.9000;0.4453;-1.2267;
673.2000;0.4444;-1.2267;
673.5000;0.4436;-1.2242;
673.8000;0.4387;-1.2342;
674.1000;0.4428;-1.2118;
674.4000;0.4428;-1.2018;
674.7000;0.4428;-1.1943;
675.0000;0.4355;-1.2192;
675.3000;0.4428;-1.1968;
675.6000;0.4420;-1.2018;
675.9000;0.4396;-1.2143;
676.2000;0.4420;-1.2093;
676.5000;0.4428;-1.2167;
676.8000;0.4428;-1.2118;
677.1000;0.4428;-1.2192;
677.4000;0.4444;-1.2242;
677.7000;0.4396;-1.2317;
678.0000;0.4396;-1.2367;
678.3000;0.4428;-1.2342;
678.6000;0.4420;-1.2417;
678.9000;0.4444;-1.2367;
679.2000;0.4404;-1.2392;
679.5000;0.4396;-1.2342;
679.8000;0.4412;-1.2317;
680.1000;0.4428;-1.2242;
680.4000;0.4396;-1.2317;
680.7000;0.4428;-1.2317;
681.0000;0.4412;-1.2317;
681.3000;0.4387;-1.2442;
681.6000;0.4404;-1.2467;
681.9000;0.4428;-1.2342;
682.2000;0.4412;-1.2342;
682.5000;0.4371;-1.2467;
682.8000;0.4477;-1.2118;
683.1000;0.4436;-1.2192;
683.4000;0.4420;-1.2217;
683.7000;0.4404;-1.2317;
684.0000;0.4420;-1.2217;
684.3000;0.4412;-1.2217;
684.6000;0.4420;-1.2192;
684.9000;0.4387;-1.2217;
685.2000;0.4379;-1.2242;
685.5000;0.4396;-1.2217;
685.8000;0.4371;-1.2143;
686.1000;0.4387;-1.2118;
686.4000;0.4371;-1.2118;
686.7000;0.4387;-1.2093;
687.0000;0.4396;-1.2093;
687.3000;0.4412;-1.2093;
687.6000;0.4363;-1.2167;
687.9000;0.4371;-1.2143;
688.2000;0.4363;-1.2093;
688.5000;0.4371;-1.2068;
688.8000;0.4379;-1.2018;
689.1000;0.4355;-1.2018;
689.4000;0.4347;-1.2068;
689.7000;0.4428;-1.1843;
690.0000;0.4371;-1.1993;
690.3000;0.4355;-1.1943;
690.6000;0.4363;-1.2018;
690.9000;0.4371;-1.1968;
691.2000;0.4387;-1.1993;
691.5000;0.4371;-1.2093;
691.8000;0.4371;-1.2118;
692.1000;0.4363;-1.2093;
692.4000;0.4306;-1.2093;
692.7000;0.4355;-1.1993;
693.0000;0.4347;-1.2068;
693.3000;0.4363;-1.2018;
693.6000;0.4379;-1.1968;
693.9000;0.4420;-1.1893;
694.2000;0.4371;-1.2167;
694.5000;0.4339;-1.2192;
694.8000;0.4404;-1.2143;
695.1000;0.4330;-1.2242;
695.4000;0.4249;-1.2467;
695.7000;0.4363;-1.2143;
696.0000;0.4330;-1.2192;
696.3000;0.4306;-1.2192;
696.6000;0.4379;-1.1993;
696.9000;0.4339;-1.2068;
697.2000;0.4355;-1.2118;
697.5000;0.4347;-1.2118;
697.8000;0.4339;-1.2167;
698.1000;0.4330;-1.2192;
698.4000;0.4355;-1.2118;
698.7000;0.4347;-1.2068;
699.0000;0.4339;-1.2093;
699.3000;0.4339;-1.2118;
699.6000;0.4347;-1.2143;
699.9000;0.4363;-1.2093;
700.2000;0.4339;-1.2093;
700.5000;0.4339;-1.2093;
700.8000;0.4339;-1.2018;
701.1000;0.4330;-1.1968;
701.4000;0.4322;-1.2093;
701.7000;0.4339;-1.2043;
702.0000;0.4339;-1.2068;
702.3000;0.4339;-1.2018;
702.6000;0.4339;-1.1968;
702.9000;0.4322;-1.1968;
703.2000;0.4265;-1.2143;
703.5000;0.4339;-1.1993;
703.8000;0.4330;-1.1918;
704.1000;0.4339;-1.1868;
704.4000;0.4306;-1.1868;
704.7000;0.4322;-1.1818;
705.0000;0.4330;-1.1843;
705.3000;0.4314;-1.1918;
705.6000;0.4322;-1.1918;
705.9000;0.4322;-1.1943;
706.2000;0.4306;-1.1993;
706.5000;0.4306;-1.2068;
706.8000;0.4290;-1.1993;
707.1000;0.4371;-1.1744;
707.4000;0.4274;-1.1918;
707.7000;0.4282;-1.2043;
708.0000;0.4298;-1.1993;
708.3000;0.4363;-1.1843;
708.6000;0.4330;-1.1868;
708.9000;0.4298;-1.1918;
709.2000;0.4298;-1.1943;
709.5000;0.4290;-1.2093;
709.8000;0.4298;-1.2143;
710.1000;0.4298;-1.2118;
710.4000;0.4298;-1.2118;
710.7000;0.4282;-1.2167;
711.0000;0.4298;-1.2068;
711.3000;0.4290;-1.2118;
711.6000;0.4265;-1.2118;
711.9000;0.4298;-1.2043;
712.2000;0.4241;-1.2143;
712.5000;0.4265;-1.2143;
712.8000;0.4290;-1.1993;
713.1000;0.4282;-1.2018;
713.4000;0.4355;-1.1843;
713.7000;0.4225;-1.2242;
714.0000;0.4306;-1.1943;
714.3000;0.4274;-1.2018;
714.6000;0.4298;-1.1993;
714.9000;0.4298;-1.2043;
715.2000;0.4379;-1.1893;
715.5000;0.4233;-1.2292;
715.8000;0.4274;-1.2143;
716.1000;0.4306;-1.2043;
716.4000;0.4290;-1.2043;
716.7000;0.4282;-1.2093;
717.0000;0.4347;-1.1918;
717.3000;0.4290;-1.2018;
717.6000;0.4290;-1.2068;
717.9000;0.4274;-1.2093;
718.2000;0.4282;-1.2167;
718.5000;0.4241;-1.2267;
718.8000;0.4298;-1.2143;
719.1000;0.4282;-1.2143;
719.4000;0.4290;-1.2018;
719.7000;0.4274;-1.2093;
720.0000;0.4290;-1.2018;
720.3000;0.4274;-1.1993;
720.6000;0.4265;-1.1943;
720.9000;0.4339;-1.1719;
721.2000;0.4249;-1.1893;
721.5000;0.4249;-1.1868;
721.8000;0.4257;-1.1868;
722.1000;0.4233;-1.1893;
722.4000;0.4225;-1.1968;
722.7000;0.4257;-1.1818;
723.0000;0.4282;-1.1818;
723.3000;0.4225;-1.1893;
723.6000;0.4257;-1.1893;
723.9000;0.4274;-1.1893;
724.2000;0.4306;-1.1818;
724.5000;0.4274;-1.1868;
724.8000;0.4249;-1.1893;
725.1000;0.4265;-1.1868;
725.4000;0.4274;-1.1818;
725.7000;0.4249;-1.1968;
726.0000;0.4233;-1.2068;
726.3000;0.4257;-1.1918;
726.6000;0.4265;-1.2018;
726.9000;0.4257;-1.1943;
727.2000;0.4168;-1.2143;
727.5000;0.4274;-1.1943;
727.8000;0.4274;-1.1918;
728.1000;0.4249;-1.2043;
728.4000;0.4249;-1.1968;
728.7000;0.4257;-1.1918;
729.0000;0.4257;-1.1893;
729.3000;0.4192;-1.2043;
729.6000;0.4241;-1.1993;
729.9000;0.4233;-1.2018;
730.2000;0.4306;-1.1968;
730.5000;0.4217;-1.2267;
730.8000;0.4249;-1.2217;
731.1000;0.4233;-1.2242;
731.4000;0.4257;-1.2242;
731.7000;0.4274;-1.2217;
732.0000;0.4249;-1.2342;
732.3000;0.4233;-1.2367;
732.6000;0.4225;-1.2317;
732.9000;0.4265;-1.2093;
733.2000;0.4217;-1.2118;
733.5000;0.4225;-1.2093;
733.8000;0.4241;-1.2068;
734.1000;0.4241;-1.2093;
734.4000;0.4233;-1.2018;
734.7000;0.4225;-1.2043;
735.0000;0.4217;-1.1993;
735.3000;0.4249;-1.1918;
735.6000;0.4257;-1.1893;
735.9000;0.4249;-1.1943;
736.2000;0.4249;-1.1868;
736.5000;0.4249;-1.1868;
736.8000;0.4233;-1.1918;
737.1000;0.4241;-1.1893;
737.4000;0.4249;-1.1868;
737.7000;0.4241;-1.1719;
738.0000;0.4192;-1.1793;
738.3000;0.4184;-1.1669;
738.6000;0.4225;-1.1744;
738.9000;0.4233;-1.1769;
739.2000;0.4257;-1.1719;
739.5000;0.4233;-1.1893;
739.8000;0.4184;-1.2068;
740.1000;0.4225;-1.2018;
740.4000;0.4233;-1.1943;
740.7000;0.4208;-1.2043;
741.0000;0.4241;-1.2018;
741.3000;0.4208;-1.2118;
741.6000;0.4233;-1.2068;
741.9000;0.4233;-1.1993;
742.2000;0.4217;-1.2093;
742.5000;0.4200;-1.2143;
742.8000;0.4208;-1.2093;
743.1000;0.4225;-1.2068;
743.4000;0.4208;-1.2242;
743.7000;0.4208;-1.2217;
744.0000;0.4184;-1.2292;
744.3000;0.4192;-1.2242;
744.6000;0.4225;-1.2167;
744.9000;0.4274;-1.2167;
745.2000;0.4233;-1.2317;
745.5000;0.4225;-1.2242;
745.8000;0.4208;-1.2267;
746.1000;0.4225;-1.2317;
746.4000;0.4249;-1.2292;
746.7000;0.4233;-1.2342;
747.0000;0.4233;-1.2167;
747.3000;0.4184;-1.2292;
747.6000;0.4208;-1.2093;
747.9000;0.4208;-1.2118;
748.2000;0.4184;-1.2192;
748.5000;0.4217;-1.2093;
748.8000;0.4208;-1.2043;
749.1000;0.4217;-1.2043;
749.4000;0.4217;-1.2118;
749.7000;0.4225;-1.2093;
750.0000;0.4208;-1.2143;
750.3000;0.4176;-1.2192;
750.6000;0.4217;-1.2043;
750.9000;0.4217;-1.2018;
751.2000;0.4233;-1.1918;
751.5000;0.4200;-1.1943;
751.8000;0.4217;-1.1893;
752.1000;0.4168;-1.2068;
752.4000;0.4208;-1.1918;
752.7000;0.4176;-1.2068;
753.0000;0.4192;-1.2068;
753.3000;0.4192;-1.2068;
753.6000;0.4208;-1.2018;
753.9000;0.4184;-1.2118;
754.2000;0.4176;-1.2018;
754.5000;0.4184;-1.2068;
754.8000;0.4184;-1.2093;
755.1000;0.4208;-1.2068;
755.4000;0.4208;-1.1968;
755.7000;0.4192;-1.1993;
756.0000;0.4200;-1.1993;
756.3000;0.4192;-1.2018;
756.6000;0.4200;-1.2043;
756.9000;0.4192;-1.2018;
757.2000;0.4200;-1.1993;
757.5000;0.4184;-1.2043;
757.8000;0.4192;-1.2043;
758.1000;0.4184;-1.2018;
758.4000;0.4192;-1.2068;
758.7000;0.4184;-1.2068;
759.0000;0.4168;-1.2093;
759.3000;0.4192;-1.2068;
759.6000;0.4168;-1.2118;
759.9000;0.4143;-1.2068;
760.2000;0.4160;-1.1918;
760.5000;0.4192;-1.1843;
760.8000;0.4184;-1.1843;
761.1000;0.4225;-1.1769;
761.4000;0.4168;-1.1843;
761.7000;0.4200;-1.1793;
762.0000;0.4111;-1.2018;
762.3000;0.4119;-1.1918;
762.6000;0.4225;-1.1744;
762.9000;0.4111;-1.2118;
763.2000;0.4160;-1.2068;
763.5000;0.4274;-1.1644;
763.8000;0.4160;-1.1868;
764.1000;0.4111;-1.1918;
764.4000;0.4160;-1.1744;
764.7000;0.4127;-1.1893;
765.0000;0.4176;-1.1868;
765.3000;0.4168;-1.1868;
765.6000;0.4151;-1.1943;
765.9000;0.4200;-1.1918;
766.2000;0.4094;-1.2242;
766.5000;0.4151;-1.2143;
766.8000;0.4160;-1.2167;
767.1000;0.4168;-1.2167;
767.4000;0.4200;-1.2192;
767.7000;0.4168;-1.2192;
768.0000;0.4184;-1.2118;
768.3000;0.4168;-1.2118;
768.6000;0.4176;-1.2068;
768.9000;0.4168;-1.2018;
769.2000;0.4176;-1.1968;
769.5000;0.4143;-1.1993;
769.8000;0.4151;-1.1993;
770.1000;0.4168;-1.2068;
770.4000;0.4241;-1.1868;
770.7000;0.4160;-1.2018;
771.0000;0.4160;-1.1893;
771.3000;0.4233;-1.1769;
771.6000;0.4168;-1.1968;
771.9000;0.4184;-1.1943;
772.2000;0.4184;-1.1893;
772.5000;0.4176;-1.1893;
772.8000;0.4168;-1.1868;
773.1000;0.4168;-1.1843;
773.4000;0.4151;-1.1868;
773.7000;0.4151;-1.1843;
774.0000;0.4143;-1.1918;
774.3000;0.4151;-1.1818;
774.6000;0.4160;-1.1843;
774.9000;0.4168;-1.1893;
775.2000;0.4160;-1.1943;
775.5000;0.4176;-1.1943;
775.8000;0.4168;-1.1993;
776.1000;0.4160;-1.2043;
776.4000;0.4168;-1.2018;
776.7000;0.4160;-1.1993;
777.0000;0.4103;-1.2143;
777.3000;0.4127;-1.1993;
777.6000;0.4160;-1.1943;
777.9000;0.4160;-1.2018;
778.2000;0.4160;-1.2043;
778.5000;0.4127;-1.2167;
778.8000;0.4151;-1.2043;
779.1000;0.4143;-1.2068;
779.4000;0.4078;-1.2292;
779.7000;0.4135;-1.2118;
780.0000;0.4184;-1.1993;
780.3000;0.4160;-1.2018;
780.6000;0.4070;-1.2217;
780.9000;0.4143;-1.2118;
781.2000;0.4151;-1.2143;
781.5000;0.4168;-1.2068;
781.8000;0.4135;-1.2192;
782.1000;0.4151;-1.2043;
782.4000;0.4176;-1.1968;
782.7000;0.4151;-1.2068;
783.0000;0.4233;-1.1793;
783.3000;0.4176;-1.1918;
783.6000;0.4127;-1.2068;
783.9000;0.4127;-1.2093;
784.2000;0.4119;-1.2143;
784.5000;0.4127;-1.2043;
784.8000;0.4135;-1.2018;
785.1000;0.4143;-1.1993;
785.4000;0.4168;-1.1943;
785.7000;0.4151;-1.1918;
786.0000;0.4184;-1.1793;
786.3000;0.4200;-1.1769;
786.6000;0.4192;-1.1818;
786.9000;0.4143;-1.1893;
787.2000;0.4086;-1.2043;
787.5000;0.4119;-1.1918;
787.8000;0.4151;-1.1843;
788.1000;0.4127;-1.1843;
788.4000;0.4094;-1.1918;
788.7000;0.4127;-1.1744;
789.0000;0.4127;-1.1719;
789.3000;0.4135;-1.1769;
789.6000;0.4111;-1.1868;
789.9000;0.4143;-1.1793;
790.2000;0.4119;-1.1868;
790.5000;0.4119;-1.1943;
790.8000;0.4143;-1.1918;
791.1000;0.4086;-1.1993;
791.4000;0.4143;-1.1893;
791.7000;0.4135;-1.1918;
792.0000;0.4119;-1.2018;
792.3000;0.4127;-1.1968;
792.6000;0.4151;-1.1843;
792.9000;0.4119;-1.1968;
793.2000;0.4127;-1.2043;
793.5000;0.4127;-1.2093;
793.8000;0.4127;-1.2018;
794.1000;0.4111;-1.2043;
794.4000;0.4135;-1.1968;
794.7000;0.4135;-1.1993;
795.0000;0.4151;-1.1918;
795.3000;0.4135;-1.1843;
795.6000;0.4151;-1.1769;
795.9000;0.4160;-1.1769;
796.2000;0.4208;-1.1719;
796.5000;0.4111;-1.1893;
796.8000;0.4143;-1.1694;
797.1000;0.4143;-1.1694;
797.4000;0.4143;-1.1669;
797.7000;0.4127;-1.1719;
798.0000;0.4094;-1.1918;
798.3000;0.4119;-1.1993;
798.6000;0.4111;-1.2093;
798.9000;0.4103;-1.2018;
799.2000;0.4135;-1.1993;
799.5000;0.4151;-1.2018;
799.8000;0.4135;-1.1943;
800.1000;0.4111;-1.1943;
800.4000;0.4127;-1.1918;
800.7000;0.4103;-1.1993;
801.0000;0.4119;-1.1993;
801.3000;0.4119;-1.2093;
801.6000;0.4119;-1.2118;
801.9000;0.4135;-1.2143;
802.2000;0.4119;-1.2143;
802.5000;0.4111;-1.2068;
802.8000;0.4135;-1.2018;
803.1000;0.4135;-1.1993;
803.4000;0.4103;-1.2043;
803.7000;0.4029;-1.2267;
804.0000;0.4119;-1.2068;
804.3000;0.4168;-1.1818;
804.6000;0.4119;-1.1918;
804.9000;0.4103;-1.1918;
805.2000;0.4119;-1.1918;
805.5000;0.4160;-1.1818;
805.8000;0.4111;-1.1843;
806.1000;0.4151;-1.1719;
806.4000;0.4103;-1.1943;
806.7000;0.4127;-1.1943;
807.0000;0.4151;-1.1893;
807.3000;0.4151;-1.1843;
807.6000;0.4111;-1.1843;
807.9000;0.4103;-1.1818;
808.2000;0.4111;-1.1793;
808.5000;0.4119;-1.1744;
808.8000;0.4119;-1.1744;
809.1000;0.4119;-1.1744;
809.4000;0.4103;-1.1818;
809.7000;0.4111;-1.1744;
810.0000;0.4111;-1.1793;
810.3000;0.4111;-1.1818;
810.6000;0.4103;-1.1843;
810.9000;0.4111;-1.1744;
811.2000;0.4111;-1.1644;
811.5000;0.4086;-1.1744;
811.8000;0.4135;-1.1644;
812.1000;0.4119;-1.1694;
812.4000;0.4103;-1.1719;
812.7000;0.3997;-1.1993;
813.0000;0.4111;-1.1719;
813.3000;0.4103;-1.1719;
813.6000;0.4094;-1.1744;
813.9000;0.4111;-1.1694;
814.2000;0.4094;-1.1843;
814.5000;0.4103;-1.1818;
814.8000;0.4103;-1.1818;
815.1000;0.4111;-1.1793;
815.4000;0.4103;-1.1818;
815.7000;0.4103;-1.1818;
816.0000;0.4111;-1.1818;
816.3000;0.4094;-1.1868;
816.6000;0.4103;-1.1843;
816.9000;0.4094;-1.1868;
817.2000;0.4119;-1.1918;
817.5000;0.4119;-1.1918;
817.8000;0.4086;-1.1893;
818.1000;0.4111;-1.1893;
818.4000;0.4127;-1.1918;
818.7000;0.4103;-1.1943;
819.0000;0.4103;-1.1843;
819.3000;0.4111;-1.1843;
819.6000;0.4086;-1.1943;
819.9000;0.4111;-1.1893;
820.2000;0.4013;-1.2192;
820.5000;0.4103;-1.1918;
820.8000;0.4103;-1.1918;
821.1000;0.4111;-1.1968;
821.4000;0.4160;-1.1818;
821.7000;0.4094;-1.1993;
822.0000;0.4111;-1.1968;
822.3000;0.4119;-1.1993;
822.6000;0.4111;-1.2018;
822.9000;0.4094;-1.1943;
823.2000;0.4119;-1.1793;
823.5000;0.4103;-1.1843;
823.8000;0.4111;-1.1843;
824.1000;0.4119;-1.1793;
824.4000;0.4062;-1.2043;
824.7000;0.4127;-1.1993;
825.0000;0.4103;-1.2093;
825.3000;0.4094;-1.2143;
825.6000;0.4103;-1.2192;
825.9000;0.4094;-1.2192;
826.2000;0.4143;-1.2018;
826.5000;0.4119;-1.2068;
826.8000;0.4086;-1.2167;
827.1000;0.4094;-1.2143;
827.4000;0.4143;-1.1968;
827.7000;0.4103;-1.2143;
828.0000;0.4086;-1.2192;
828.3000;0.4127;-1.2043;
828.6000;0.4103;-1.2068;
828.9000;0.4094;-1.2018;
829.2000;0.4078;-1.2118;
829.5000;0.4086;-1.2093;
829.8000;0.4086;-1.2143;
830.1000;0.4111;-1.2068;
830.4000;0.4078;-1.2217;
830.7000;0.4086;-1.2192;
831.0000;0.4094;-1.2167;
831.3000;0.4086;-1.2167;
831.6000;0.4086;-1.2143;
831.9000;0.4086;-1.2167;
832.2000;0.4078;-1.2167;
832.5000;0.4078;-1.2118;
832.8000;0.4151;-1.1968;
833.1000;0.4111;-1.2068;
833.4000;0.4103;-1.2167;
833.7000;0.4086;-1.2118;
834.0000;0.4103;-1.2118;
834.3000;0.4054;-1.2167;
834.6000;0.4094;-1.1993;
834.9000;0.4094;-1.1893;
835.2000;0.4103;-1.1918;
835.5000;0.4111;-1.1843;
835.8000;0.4062;-1.1893;
836.1000;0.4078;-1.1793;
836.4000;0.4103;-1.1744;
836.7000;0.4070;-1.1744;
837.0000;0.4127;-1.1669;
837.3000;0.4062;-1.1769;
837.6000;0.4070;-1.1793;
837.9000;0.4078;-1.1818;
838.2000;0.4070;-1.1968;
838.5000;0.4086;-1.1968;
838.8000;0.4086;-1.1968;
839.1000;0.4078;-1.1968;
839.4000;0.4111;-1.1993;
839.7000;0.4103;-1.2093;
840.0000;0.4086;-1.2118;
840.3000;0.4078;-1.2093;
840.6000;0.4062;-1.2267;
840.9000;0.4078;-1.2192;
841.2000;0.4070;-1.2143;
841.5000;0.4078;-1.2143;
841.8000;0.4078;-1.2118;
842.1000;0.4062;-1.2242;
842.4000;0.4062;-1.2192;
842.7000;0.4086;-1.2018;
843.0000;0.4086;-1.2043;
843.3000;0.4078;-1.2068;
843.6000;0.4094;-1.2018;
843.9000;0.4078;-1.2018;
844.2000;0.4070;-1.1918;
844.5000;0.4046;-1.1918;
844.8000;0.4070;-1.1818;
845.1000;0.4062;-1.1694;
845.4000;0.4078;-1.1619;
845.7000;0.4070;-1.1694;
846.0000;0.4086;-1.1644;
846.3000;0.4094;-1.1619;
846.6000;0.4094;-1.1594;
846.9000;0.4078;-1.1594;
847.2000;0.4062;-1.1744;
847.5000;0.4021;-1.1918;
847.8000;0.4070;-1.1744;
848.1000;0.4086;-1.1793;
848.4000;0.4062;-1.1818;
848.7000;0.4054;-1.1818;
849.0000;0.4070;-1.1769;
849.3000;0.4070;-1.1744;
849.6000;0.4070;-1.1744;
849.9000;0.4070;-1.1694;
850.2000;0.4046;-1.1793;
850.5000;0.4070;-1.1744;
850.8000;0.4119;-1.1644;
851.1000;0.4070;-1.1719;
851.4000;0.4094;-1.1569;
851.7000;0.4086;-1.1694;
852.0000;0.4070;-1.1694;
852.3000;0.4086;-1.1669;
852.6000;0.4054;-1.1719;
852.9000;0.4086;-1.1619;
853.2000;0.3997;-1.1918;
853.5000;0.4062;-1.1868;
853.8000;0.4070;-1.1968;
854.1000;0.4070;-1.1793;
854.4000;0.4070;-1.1719;
854.7000;0.4078;-1.1669;
855.0000;0.4070;-1.1719;
855.3000;0.4070;-1.1818;
855.6000;0.4070;-1.1918;
855.9000;0.4046;-1.1943;
856.2000;0.4070;-1.1843;
856.5000;0.4070;-1.1943;
856.8000;0.4070;-1.1968;
857.1000;0.4070;-1.1943;
857.4000;0.4046;-1.1918;
857.7000;0.4094;-1.1843;
858.0000;0.4062;-1.2018;
858.3000;0.4078;-1.1968;
858.6000;0.4078;-1.1893;
858.9000;0.4062;-1.1843;
859.2000;0.4070;-1.1918;
859.5000;0.4062;-1.1893;
859.8000;0.4070;-1.1893;
860.1000;0.4029;-1.1943;
860.4000;0.4062;-1.1943;
860.7000;0.4070;-1.1918;
861.0000;0.4029;-1.2018;
861.3000;0.4037;-1.1993;
861.6000;0.4054;-1.2018;
861.9000;0.4029;-1.2043;
862.2000;0.4070;-1.1968;
862.5000;0.4054;-1.2043;
862.8000;0.4078;-1.2018;
863.1000;0.4119;-1.1868;
863.4000;0.4054;-1.1968;
863.7000;0.4046;-1.1868;
864.0000;0.4168;-1.1644;
864.3000;0.4103;-1.1868;
864.6000;0.4062;-1.1993;
864.9000;0.4070;-1.1918;
865.2000;0.4054;-1.1943;
865.5000;0.4070;-1.1868;
865.8000;0.4078;-1.1943;
866.1000;0.4062;-1.1943;
866.4000;0.4037;-1.1968;
866.7000;0.4037;-1.2068;
867.0000;0.4054;-1.2018;
867.3000;0.4037;-1.1993;
867.6000;0.4046;-1.1868;
867.9000;0.4062;-1.1943;
868.2000;0.4054;-1.1993;
868.5000;0.4078;-1.2068;
868.8000;0.4046;-1.2167;
869.1000;0.4070;-1.2068;
869.4000;0.4062;-1.2043;
869.7000;0.4062;-1.1968;
870.0000;0.4062;-1.1968;
870.3000;0.4046;-1.2043;
870.6000;0.4046;-1.2043;
870.9000;0.4046;-1.1943;
871.2000;0.4062;-1.1893;
871.5000;0.4046;-1.1943;
871.8000;0.4046;-1.1868;
872.1000;0.3948;-1.2167;
872.4000;0.4029;-1.2043;
872.7000;0.4070;-1.1968;
873.0000;0.4021;-1.2068;
873.3000;0.4037;-1.2018;
873.6000;0.4070;-1.1968;
873.9000;0.4054;-1.1968;
874.2000;0.4029;-1.1943;
874.5000;0.4054;-1.1893;
874.8000;0.4062;-1.1769;
875.1000;0.4046;-1.1893;
875.4000;0.4054;-1.1843;
875.7000;0.4054;-1.1868;
876.0000;0.4037;-1.1943;
876.3000;0.4046;-1.1968;
876.6000;0.4046;-1.1968;
876.9000;0.4037;-1.1918;
877.2000;0.4062;-1.1843;
877.5000;0.4070;-1.1793;
877.8000;0.4086;-1.1669;
878.1000;0.4021;-1.1769;
878.4000;0.4078;-1.1694;
878.7000;0.4103;-1.1619;
879.0000;0.4078;-1.1694;
879.3000;0.3997;-1.1818;
879.6000;0.4070;-1.1569;
879.9000;0.4021;-1.1619;
880.2000;0.4029;-1.1694;
880.5000;0.3989;-1.1769;
880.8000;0.4037;-1.1644;
881.1000;0.4046;-1.1719;
881.4000;0.4054;-1.1744;
881.7000;0.4037;-1.1793;
882.0000;0.4078;-1.1644;
882.3000;0.4046;-1.1744;
882.6000;0.4151;-1.1444;
882.9000;0.4013;-1.1843;
883.2000;0.4029;-1.1769;
883.5000;0.4062;-1.1744;
883.8000;0.4070;-1.1769;
884.1000;0.4103;-1.1744;
884.4000;0.4037;-1.1818;
884.7000;0.4046;-1.1744;
885.0000;0.4046;-1.1769;
885.3000;0.4046;-1.1818;
885.6000;0.4005;-1.1843;
885.9000;0.4029;-1.1719;
886.2000;0.4046;-1.1594;
886.5000;0.4054;-1.1669;
886.8000;0.4037;-1.1719;
887.1000;0.3980;-1.1893;
887.4000;0.4062;-1.1769;
887.7000;0.4062;-1.1744;
888.0000;0.4086;-1.1694;
888.3000;0.4029;-1.1818;
888.6000;0.4054;-1.1793;
888.9000;0.4054;-1.1719;
889.2000;0.4070;-1.1594;
889.5000;0.4037;-1.1669;
889.8000;0.4037;-1.1694;
890.1000;0.4070;-1.1694;
890.4000;0.4070;-1.1744;
890.7000;0.4037;-1.1793;
891.0000;0.4054;-1.1744;
891.3000;0.4070;-1.1719;
891.6000;0.4037;-1.1793;
891.9000;0.3989;-1.1893;
892.2000;0.4029;-1.1793;
892.5000;0.4070;-1.1719;
892.8000;0.4013;-1.1843;
893.1000;0.4046;-1.1793;
893.4000;0.4037;-1.1818;
893.7000;0.4062;-1.1793;
894.0000;0.4078;-1.1719;
894.3000;0.4021;-1.1893;
894.6000;0.4021;-1.1818;
894.9000;0.4070;-1.1619;
895.2000;0.4054;-1.1669;
895.5000;0.4086;-1.1594;
895.8000;0.4029;-1.1744;
896.1000;0.4021;-1.1793;
896.4000;0.4013;-1.1818;
896.7000;0.4037;-1.1818;
897.0000;0.4054;-1.1694;
897.3000;0.4013;-1.1744;
897.6000;0.4037;-1.1744;
897.9000;0.4070;-1.1769;
898.2000;0.4029;-1.1918;
898.5000;0.4013;-1.1893;
898.8000;0.4046;-1.1744;
899.1000;0.4029;-1.1943;
899.4000;0.4046;-1.1918;
899.7000;0.4037;-1.1918;
900.0000;0.4062;-1.1868;
900.3000;0.4021;-1.1968;
900.6000;0.4094;-1.1793;
900.9000;0.4054;-1.1868;
901.2000;0.4029;-1.1993;
901.5000;0.4037;-1.1943;
901.8000;0.4046;-1.1918;
902.1000;0.4013;-1.1868;
902.4000;0.4021;-1.1793;
902.7000;0.4013;-1.1744;
903.0000;0.4046;-1.1694;
903.3000;0.4037;-1.1793;
903.6000;0.4029;-1.1968;
903.9000;0.4013;-1.2043;
904.2000;0.4029;-1.2043;
904.5000;0.3956;-1.2217;
904.8000;0.4046;-1.1893;
905.1000;0.4021;-1.1918;
905.4000;0.4046;-1.1843;
905.7000;0.4054;-1.1769;
906.0000;0.4037;-1.1719;
906.3000;0.4062;-1.1744;
906.6000;0.4054;-1.1719;
906.9000;0.4046;-1.1744;
907.2000;0.4029;-1.1744;
907.5000;0.4021;-1.1818;
907.8000;0.4013;-1.1793;
908.1000;0.4037;-1.1694;
908.4000;0.4046;-1.1694;
908.7000;0.4013;-1.1818;
909.0000;0.4037;-1.1818;
909.3000;0.4037;-1.1818;
909.6000;0.4029;-1.1868;
909.9000;0.4021;-1.1893;
910.2000;0.4021;-1.1993;
910.5000;0.4029;-1.2043;
910.8000;0.4029;-1.1893;
911.1000;0.4029;-1.1918;
911.4000;0.3964;-1.1993;
911.7000;0.4021;-1.1719;
912.0000;0.4021;-1.1744;
912.3000;0.4021;-1.1769;
912.6000;0.4037;-1.1843;
912.9000;0.4037;-1.1843;
913.2000;0.4078;-1.1694;
913.5000;0.4037;-1.1793;
913.8000;0.4021;-1.1843;
914.1000;0.4029;-1.1818;
914.4000;0.4037;-1.1669;
914.7000;0.4046;-1.1719;
915.0000;0.4046;-1.1669;
915.3000;0.4029;-1.1669;
915.6000;0.4021;-1.1619;
915.9000;0.4078;-1.1494;
916.2000;0.4013;-1.1694;
916.5000;0.4013;-1.1744;
916.8000;0.4021;-1.1669;
917.1000;0.4013;-1.1569;
917.4000;0.4029;-1.1544;
917.7000;0.4037;-1.1519;
918.0000;0.4029;-1.1544;
918.3000;0.3997;-1.1744;
918.6000;0.4029;-1.1594;
918.9000;0.4005;-1.1544;
919.2000;0.4037;-1.1494;
919.5000;0.3972;-1.1619;
919.8000;0.4029;-1.1444;
920.1000;0.4046;-1.1444;
920.4000;0.4094;-1.1419;
920.7000;0.4013;-1.1644;
921.0000;0.4046;-1.1544;
921.3000;0.4062;-1.1644;
921.6000;0.4013;-1.1769;
921.9000;0.4029;-1.1669;
922.2000;0.4029;-1.1769;
922.5000;0.4005;-1.1769;
922.8000;0.4021;-1.1818;
923.1000;0.4054;-1.1644;
923.4000;0.4013;-1.1694;
923.7000;0.4005;-1.1769;
924.0000;0.4029;-1.1744;
924.3000;0.4037;-1.1744;
924.6000;0.4029;-1.1843;
924.9000;0.4029;-1.1843;
925.2000;0.4021;-1.1843;
925.5000;0.4013;-1.1843;
925.8000;0.4054;-1.1694;
926.1000;0.4021;-1.1793;
926.4000;0.4037;-1.1719;
926.7000;0.4029;-1.1818;
927.0000;0.3997;-1.1818;
927.3000;0.4029;-1.1843;
927.6000;0.4021;-1.1968;
927.9000;0.4013;-1.1968;
928.2000;0.4005;-1.1943;
928.5000;0.4005;-1.1868;
928.8000;0.4070;-1.1694;
929.1000;0.4013;-1.1769;
929.4000;0.4021;-1.1793;
929.7000;0.4046;-1.1669;
930.0000;0.4013;-1.1843;
930.3000;0.4021;-1.1918;
930.6000;0.4037;-1.1868;
930.9000;0.4021;-1.1843;
931.2000;0.4021;-1.1744;
931.5000;0.4013;-1.1868;
931.8000;0.4029;-1.1644;
932.1000;0.4013;-1.1594;
932.4000;0.4029;-1.1544;
932.7000;0.4029;-1.1544;
933.0000;0.4013;-1.1619;
933.3000;0.4037;-1.1594;
933.6000;0.4021;-1.1694;
933.9000;0.4013;-1.1769;
934.2000;0.4037;-1.1669;
934.5000;0.4029;-1.1594;
934.8000;0.4021;-1.1669;
935.1000;0.4029;-1.1744;
935.4000;0.4070;-1.1694;
935.7000;0.4021;-1.1769;
936.0000;0.4021;-1.1719;
936.3000;0.4062;-1.1619;
936.6000;0.4029;-1.1694;
936.9000;0.4013;-1.1719;
937.2000;0.4005;-1.1669;
937.5000;0.4037;-1.1594;
937.8000;0.4021;-1.1644;
938.1000;0.4029;-1.1719;
938.4000;0.4086;-1.1569;
938.7000;0.4005;-1.1769;
939.0000;0.4029;-1.1843;
939.3000;0.4005;-1.1868;
939.6000;0.4013;-1.1868;
939.9000;0.4021;-1.1818;
940.2000;0.3997;-1.1893;
940.5000;0.4037;-1.1868;
940.8000;0.4005;-1.1943;
941.1000;0.4029;-1.1918;
941.4000;0.4029;-1.1943;
941.7000;0.3997;-1.2018;
942.0000;0.4021;-1.1968;
942.3000;0.4054;-1.1943;
942.6000;0.4005;-1.1918;
942.9000;0.4021;-1.1918;
943.2000;0.3989;-1.1918;
943.5000;0.4021;-1.1918;
943.8000;0.4021;-1.1918;
944.1000;0.3980;-1.1993;
944.4000;0.3997;-1.1943;
944.7000;0.4005;-1.1993;
945.0000;0.4021;-1.2018;
945.3000;0.4013;-1.1968;
945.6000;0.3989;-1.1918;
945.9000;0.3997;-1.1868;
946.2000;0.4013;-1.1868;
946.5000;0.4005;-1.1893;
946.8000;0.3997;-1.1918;
947.1000;0.3997;-1.1993;
947.4000;0.4013;-1.1868;
947.7000;0.4021;-1.1793;
948.0000;0.4013;-1.1818;
948.3000;0.4029;-1.1793;
948.6000;0.4086;-1.1569;
948.9000;0.4005;-1.1769;
949.2000;0.4013;-1.1793;
949.5000;0.3989;-1.1868;
949.8000;0.3997;-1.1868;
950.1000;0.4013;-1.1769;
950.4000;0.4021;-1.1694;
950.7000;0.3997;-1.1744;
951.0000;0.4021;-1.1694;
951.3000;0.4029;-1.1619;
951.6000;0.4029;-1.1569;
951.9000;0.4013;-1.1494;
952.2000;0.3997;-1.1469;
952.5000;0.4029;-1.1544;
952.8000;0.4029;-1.1544;
953.1000;0.3989;-1.1719;
953.4000;0.4005;-1.1694;
953.7000;0.3989;-1.1644;
954.0000;0.3997;-1.1694;
954.3000;0.3997;-1.1744;
954.6000;0.4013;-1.1644;
954.9000;0.4005;-1.1769;
955.2000;0.4013;-1.1719;
955.5000;0.4037;-1.1619;
955.8000;0.3997;-1.1619;
956.1000;0.4029;-1.1619;
956.4000;0.3980;-1.1744;
956.7000;0.4021;-1.1669;
957.0000;0.4029;-1.1569;
957.3000;0.4021;-1.1519;
957.6000;0.4013;-1.1519;
957.9000;0.4005;-1.1444;
958.2000;0.3923;-1.1669;
958.5000;0.3989;-1.1469;
958.8000;0.4013;-1.1320;
959.1000;0.4021;-1.1419;
959.4000;0.4013;-1.1544;
959.7000;0.3980;-1.1669;
960.0000;0.4013;-1.1719;
960.3000;0.4021;-1.1694;
960.6000;0.4021;-1.1719;
960.9000;0.4013;-1.1769;
961.2000;0.4021;-1.1744;
961.5000;0.4037;-1.1694;
961.8000;0.4021;-1.1644;
962.1000;0.4037;-1.1594;
962.4000;0.4029;-1.1719;
962.7000;0.4013;-1.1669;
963.0000;0.4021;-1.1669;
963.3000;0.4005;-1.1644;
963.6000;0.4021;-1.1569;
963.9000;0.4013;-1.1594;
964.2000;0.3980;-1.1719;
964.5000;0.3980;-1.1694;
964.8000;0.3989;-1.1619;
965.1000;0.3997;-1.1694;
965.4000;0.4005;-1.1619;
965.7000;0.3989;-1.1669;
966.0000;0.3997;-1.1494;
966.3000;0.3989;-1.1519;
966.6000;0.3997;-1.1594;
966.9000;0.4005;-1.1594;
967.2000;0.4005;-1.1669;
967.5000;0.3997;-1.1769;
967.8000;0.4013;-1.1594;
968.1000;0.3989;-1.1594;
968.4000;0.3997;-1.1594;
968.7000;0.4005;-1.1669;
969.0000;0.4013;-1.1594;
969.3000;0.4005;-1.1619;
969.6000;0.3989;-1.1594;
969.9000;0.4013;-1.1594;
970.2000;0.3956;-1.1769;
970.5000;0.4005;-1.1619;
970.8000;0.3997;-1.1669;
971.1000;0.3989;-1.1744;
971.4000;0.4005;-1.1694;
971.7000;0.4037;-1.1594;
972.0000;0.4005;-1.1669;
972.3000;0.3997;-1.1594;
972.6000;0.4005;-1.1644;
972.9000;0.4013;-1.1669;
973.2000;0.3980;-1.1744;
973.5000;0.3997;-1.1669;
973.8000;0.4013;-1.1619;
974.1000;0.3948;-1.1843;
974.4000;0.3964;-1.1793;
974.7000;0.3956;-1.1893;
975.0000;0.3972;-1.1818;
975.3000;0.3980;-1.1744;
975.6000;0.4013;-1.1619;
975.9000;0.4013;-1.1644;
976.2000;0.3997;-1.1619;
976.5000;0.3997;-1.1669;
976.8000;0.4021;-1.1594;
977.1000;0.4005;-1.1594;
977.4000;0.4013;-1.1594;
977.7000;0.3997;-1.1594;
978.0000;0.4005;-1.1669;
978.3000;0.4037;-1.1494;
978.6000;0.4005;-1.1519;
978.9000;0.3980;-1.1594;
979.2000;0.4013;-1.1569;
979.5000;0.4013;-1.1619;
979.8000;0.3997;-1.1644;
980.1000;0.3997;-1.1644;
980.4000;0.3997;-1.1694;
980.7000;0.3989;-1.1769;
981.0000;0.4013;-1.1744;
981.3000;0.4021;-1.1619;
981.6000;0.4046;-1.1469;
981.9000;0.4029;-1.1544;
982.2000;0.4013;-1.1594;
982.5000;0.4005;-1.1594;
982.8000;0.3997;-1.1519;
983.1000;0.4021;-1.1419;
983.4000;0.4013;-1.1469;
983.7000;0.3980;-1.1594;
984.0000;0.3980;-1.1669;
984.3000;0.3989;-1.1619;
984.6000;0.3997;-1.1619;
984.9000;0.4021;-1.1669;
985.2000;0.4005;-1.1694;
985.5000;0.3915;-1.1943;
985.8000;0.4005;-1.1644;
986.1000;0.4005;-1.1619;
986.4000;0.4013;-1.1544;
986.7000;0.4013;-1.1519;
987.0000;0.4013;-1.1544;
987.3000;0.3997;-1.1569;
987.6000;0.3997;-1.1694;
987.9000;0.3989;-1.1744;
988.2000;0.3997;-1.1769;
988.5000;0.3989;-1.1843;
988.8000;0.3997;-1.1943;
989.1000;0.4037;-1.1818;
989.4000;0.3989;-1.1843;
989.7000;0.3980;-1.1893;
990.0000;0.3989;-1.1868;
990.3000;0.3980;-1.1818;
990.6000;0.4013;-1.1843;
990.9000;0.3972;-1.1943;
991.2000;0.4013;-1.1943;
991.5000;0.4094;-1.1843;
991.8000;0.3956;-1.2018;
992.1000;0.4013;-1.1818;
992.4000;0.4005;-1.1744;
992.7000;0.4005;-1.1719;
993.0000;0.4021;-1.1619;
993.3000;0.4086;-1.1444;
993.6000;0.3940;-1.1868;
993.9000;0.3989;-1.1619;
994.2000;0.3956;-1.1744;
994.5000;0.3989;-1.1669;
994.8000;0.4046;-1.1569;
995.1000;0.4086;-1.1494;
995.4000;0.3989;-1.1719;
995.7000;0.3964;-1.1818;
996.0000;0.3980;-1.1818;
996.3000;0.3989;-1.1843;
996.6000;0.3964;-1.1893;
996.9000;0.4021;-1.1769;
997.2000;0.3972;-1.1943;
997.5000;0.3980;-1.1893;
997.8000;0.4054;-1.1694;
998.1000;0.4005;-1.1793;
998.4000;0.3972;-1.1769;
998.7000;0.4054;-1.1619;
999.0000;0.3972;-1.1719;
999.3000;0.3997;-1.1719;
999.6000;0.3997;-1.1694;
999.9000;0.3997;-1.1769;
1000.2000;0.3989;-1.1719;
1000.5000;0.3989;-1.1669;
1000.8000;0.4005;-1.1694;
1001.1000;0.4029;-1.1544;
1001.4000;0.4005;-1.1594;
1001.7000;0.4046;-1.1569;
1002.0000;0.3997;-1.1744;
1002.3000;0.3964;-1.1769;
1002.6000;0.3989;-1.1694;
1002.9000;0.3980;-1.1719;
1003.2000;0.4005;-1.1669;
1003.5000;0.4029;-1.1619;
1003.8000;0.3997;-1.1744;
1004.1000;0.4013;-1.1793;
1004.4000;0.3997;-1.1769;
1004.7000;0.4005;-1.1694;
1005.0000;0.4037;-1.1594;
1005.3000;0.4005;-1.1669;
1005.6000;0.3989;-1.1694;
1005.9000;0.3997;-1.1744;
1006.2000;0.4021;-1.1719;
1006.5000;0.4013;-1.1719;
1006.8000;0.3972;-1.1793;
1007.1000;0.3997;-1.1744;
1007.4000;0.3956;-1.1893;
1007.7000;0.3997;-1.1818;
1008.0000;0.4005;-1.1793;
1008.3000;0.4021;-1.1744;
1008.6000;0.3997;-1.1719;
1008.9000;0.4005;-1.1644;
1009.2000;0.4013;-1.1644;
1009.5000;0.3989;-1.1769;
1009.8000;0.3997;-1.1769;
1010.1000;0.4005;-1.1793;
1010.4000;0.3980;-1.1694;
1010.7000;0.3980;-1.1569;
1011.0000;0.4013;-1.1395;
1011.3000;0.3989;-1.1544;
1011.6000;0.3964;-1.1594;
1011.9000;0.3915;-1.1769;
1012.2000;0.3980;-1.1719;
1012.5000;0.3964;-1.1793;
1012.8000;0.3989;-1.1769;
1013.1000;0.3997;-1.1719;
1013.4000;0.3989;-1.1719;
1013.7000;0.4013;-1.1669;
1014.0000;0.4037;-1.1519;
1014.3000;0.4037;-1.1569;
1014.6000;0.4021;-1.1694;
1014.9000;0.3997;-1.1669;
1015.2000;0.4037;-1.1519;
1015.5000;0.3997;-1.1644;
1015.8000;0.4013;-1.1694;
1016.1000;0.3972;-1.1694;
1016.4000;0.4021;-1.1719;
1016.7000;0.4013;-1.1694;
1017.0000;0.4005;-1.1619;
1017.3000;0.3980;-1.1744;
1017.6000;0.3956;-1.1843;
1017.9000;0.3972;-1.1719;
1018.2000;0.4005;-1.1669;
1018.5000;0.3980;-1.1669;
1018.8000;0.4021;-1.1619;
1019.1000;0.3997;-1.1769;
1019.4000;0.4013;-1.1793;
1019.7000;0.3980;-1.1868;
1020.0000;0.3989;-1.1818;
1020.3000;0.3980;-1.1769;
1020.6000;0.3964;-1.1769;
1020.9000;0.3980;-1.1769;
1021.2000;0.3980;-1.1769;
1021.5000;0.3980;-1.1769;
1021.8000;0.3997;-1.1719;
1022.1000;0.3989;-1.1744;
1022.4000;0.4005;-1.1644;
1022.7000;0.3972;-1.1744;
1023.0000;0.3989;-1.1769;
1023.3000;0.3989;-1.1744;
1023.6000;0.3989;-1.1744;
1023.9000;0.4005;-1.1694;
1024.2000;0.3989;-1.1669;
1024.5000;0.3997;-1.1694;
1024.8000;0.3980;-1.1744;
1025.1000;0.3980;-1.1843;
1025.4000;0.3972;-1.1793;
1025.7000;0.3989;-1.1744;
1026.0000;0.3989;-1.1719;
1026.3000;0.3989;-1.1644;
1026.6000;0.4005;-1.1569;
1026.9000;0.3964;-1.1644;
1027.2000;0.3980;-1.1619;
1027.5000;0.3980;-1.1619;
1027.8000;0.3964;-1.1769;
1028.1000;0.3997;-1.1669;
1028.4000;0.4046;-1.1494;
1028.7000;0.3980;-1.1619;
1029.0000;0.3972;-1.1669;
1029.3000;0.3980;-1.1694;
1029.6000;0.3956;-1.1769;
1029.9000;0.3964;-1.1719;
1030.2000;0.3972;-1.1669;
1030.5000;0.3997;-1.1669;
1030.8000;0.3972;-1.1769;
1031.1000;0.3980;-1.1644;
1031.4000;0.3972;-1.1644;
1031.7000;0.3972;-1.1594;
1032.0000;0.3989;-1.1594;
1032.3000;0.3964;-1.1694;
1032.6000;0.3997;-1.1619;
1032.9000;0.3980;-1.1619;
1033.2000;0.3989;-1.1669;
1033.5000;0.3972;-1.1744;
1033.8000;0.3948;-1.1868;
1034.1000;0.3997;-1.1619;
1034.4000;0.4046;-1.1444;
1034.7000;0.3956;-1.1619;
1035.0000;0.3980;-1.1569;
1035.3000;0.3980;-1.1569;
1035.6000;0.4021;-1.1619;
1035.9000;0.3997;-1.1694;
1036.2000;0.3956;-1.1769;
1036.5000;0.3907;-1.1744;
1036.8000;0.3972;-1.1619;
1037.1000;0.3980;-1.1569;
1037.4000;0.3972;-1.1569;
1037.7000;0.3964;-1.1619;
1038.0000;0.3997;-1.1669;
1038.3000;0.3972;-1.1719;
1038.6000;0.3972;-1.1594;
1038.9000;0.3997;-1.1619;
1039.2000;0.3948;-1.1744;
1039.5000;0.3997;-1.1619;
1039.8000;0.3989;-1.1744;
1040.1000;0.3980;-1.1719;
1040.4000;0.3964;-1.1744;
1040.7000;0.3989;-1.1569;
1041.0000;0.3989;-1.1644;
1041.3000;0.3972;-1.1644;
1041.6000;0.3964;-1.1644;
1041.9000;0.3972;-1.1669;
1042.2000;0.3972;-1.1694;
1042.5000;0.3989;-1.1719;
1042.8000;0.3989;-1.1744;
1043.1000;0.3997;-1.1694;
1043.4000;0.3980;-1.1694;
1043.7000;0.4005;-1.1793;
1044.0000;0.3989;-1.1893;
1044.3000;0.4029;-1.1818;
1044.6000;0.4013;-1.1769;
1044.9000;0.4005;-1.1744;
1045.2000;0.4005;-1.1744;
1045.5000;0.3964;-1.1744;
1045.8000;0.3989;-1.1644;
1046.1000;0.3997;-1.1569;
1046.4000;0.3972;-1.1594;
1046.7000;0.3948;-1.1719;
1047.0000;0.3972;-1.1644;
1047.3000;0.3989;-1.1619;
1047.6000;0.3972;-1.1744;
1047.9000;0.3989;-1.1719;
1048.2000;0.3989;-1.1669;
1048.5000;0.3972;-1.1719;
1048.8000;0.3997;-1.1619;
1049.1000;0.3956;-1.1769;
1049.4000;0.3972;-1.1719;
1049.7000;0.3964;-1.1744;
1050.0000;0.4005;-1.1644;
1050.3000;0.3980;-1.1619;
1050.6000;0.3972;-1.1669;
1050.9000;0.3964;-1.1619;
1051.2000;0.3997;-1.1594;
1051.5000;0.3980;-1.1694;
1051.8000;0.3964;-1.1719;
1052.1000;0.3972;-1.1694;
1052.4000;0.3980;-1.1619;
1052.7000;0.3964;-1.1694;
1053.0000;0.4046;-1.1544;
1053.3000;0.3940;-1.1818;
1053.6000;0.4029;-1.1519;
1053.9000;0.3989;-1.1544;
1054.2000;0.3972;-1.1569;
1054.5000;0.3980;-1.1444;
1054.8000;0.3989;-1.1444;
1055.1000;0.3997;-1.1419;
1055.4000;0.4005;-1.1395;
1055.7000;0.4013;-1.1345;
1056.0000;0.3997;-1.1345;
1056.3000;0.3989;-1.1444;
1056.6000;0.3989;-1.1619;
1056.9000;0.3980;-1.1719;
1057.2000;0.3989;-1.1719;
1057.5000;0.3997;-1.1719;
1057.8000;0.3989;-1.1719;
1058.1000;0.3972;-1.1744;
1058.4000;0.3989;-1.1719;
1058.7000;0.4070;-1.1444;
1059.0000;0.3989;-1.1719;
1059.3000;0.3948;-1.1719;
1059.6000;0.3972;-1.1594;
1059.9000;0.4078;-1.1270;
1060.2000;0.3980;-1.1544;
1060.5000;0.4037;-1.1395;
1060.8000;0.3980;-1.1544;
1061.1000;0.3989;-1.1519;
1061.4000;0.3980;-1.1544;
1061.7000;0.3997;-1.1519;
1062.0000;0.4005;-1.1444;
1062.3000;0.3972;-1.1519;
1062.6000;0.3964;-1.1544;
1062.9000;0.3964;-1.1669;
1063.2000;0.3956;-1.1694;
1063.5000;0.3964;-1.1619;
1063.8000;0.3980;-1.1569;
1064.1000;0.3997;-1.1619;
1064.4000;0.3964;-1.1769;
1064.7000;0.3923;-1.1769;
1065.0000;0.3972;-1.1569;
1065.3000;0.3964;-1.1694;
1065.6000;0.3964;-1.1793;
1065.9000;0.3989;-1.1719;
1066.2000;0.3972;-1.1744;
1066.5000;0.3964;-1.1744;
1066.8000;0.3989;-1.1744;
1067.1000;0.3899;-1.2018;
1067.4000;0.3989;-1.1868;
1067.7000;0.3989;-1.1918;
1068.0000;0.4029;-1.1818;
1068.3000;0.3980;-1.1843;
1068.6000;0.3989;-1.1744;
1068.9000;0.3997;-1.1694;
1069.2000;0.3997;-1.1793;
1069.5000;0.3972;-1.1744;
1069.8000;0.3972;-1.1644;
1070.1000;0.3980;-1.1669;
1070.4000;0.4013;-1.1594;
1070.7000;0.3980;-1.1569;
1071.0000;0.3989;-1.1544;
1071.3000;0.3972;-1.1644;
1071.6000;0.3972;-1.1619;
1071.9000;0.3964;-1.1669;
1072.2000;0.4005;-1.1594;
1072.5000;0.3972;-1.1744;
1072.8000;0.3989;-1.1694;
1073.1000;0.3972;-1.1744;
1073.4000;0.3948;-1.1793;
1073.7000;0.4013;-1.1793;
1074.0000;0.3997;-1.1818;
1074.3000;0.3997;-1.1893;
1074.6000;0.3923;-1.1943;
1074.9000;0.3980;-1.1818;
1075.2000;0.3997;-1.1719;
1075.5000;0.3972;-1.1793;
1075.8000;0.3997;-1.1719;
1076.1000;0.3980;-1.1793;
1076.4000;0.3989;-1.1769;
1076.7000;0.3980;-1.1744;
1077.0000;0.3948;-1.1818;
1077.3000;0.3964;-1.1744;
1077.6000;0.3972;-1.1719;
1077.9000;0.3972;-1.1694;
1078.2000;0.3980;-1.1644;
1078.5000;0.3964;-1.1719;
1078.8000;0.3980;-1.1644;
1079.1000;0.3989;-1.1569;
1079.4000;0.3972;-1.1619;
1079.7000;0.4013;-1.1594;
1080.0000;0.3989;-1.1594;
1080.3000;0.3980;-1.1569;
1080.6000;0.3972;-1.1694;
1080.9000;0.3980;-1.1669;
1081.2000;0.3964;-1.1594;
1081.5000;0.3980;-1.1569;
1081.8000;0.3997;-1.1494;
1082.1000;0.3997;-1.1494;
1082.4000;0.3964;-1.1644;
1082.7000;0.3956;-1.1669;
1083.0000;0.3980;-1.1619;
1083.3000;0.4029;-1.1544;
1083.6000;0.3980;-1.1519;
1083.9000;0.3915;-1.1669;
1084.2000;0.3972;-1.1544;
1084.5000;0.3980;-1.1544;
1084.8000;0.4005;-1.1519;
1085.1000;0.3972;-1.1569;
1085.4000;0.3964;-1.1594;
1085.7000;0.4021;-1.1345;
1086.0000;0.3915;-1.1519;
1086.3000;0.3980;-1.1295;
1086.6000;0.3997;-1.1320;
1086.9000;0.3980;-1.1395;
1087.2000;0.3989;-1.1444;
1087.5000;0.3980;-1.1469;
1087.8000;0.3980;-1.1494;
1088.1000;0.3964;-1.1494;
1088.4000;0.3972;-1.1444;
1088.7000;0.3964;-1.1469;
1089.0000;0.3964;-1.1544;
1089.3000;0.3972;-1.1494;
1089.6000;0.3964;-1.1519;
1089.9000;0.3980;-1.1594;
1090.2000;0.4021;-1.1419;
1090.5000;0.3972;-1.1544;
1090.8000;0.3980;-1.1544;
1091.1000;0.3964;-1.1619;
1091.4000;0.3964;-1.1569;
1091.7000;0.3948;-1.1594;
1092.0000;0.3956;-1.1494;
1092.3000;0.3932;-1.1569;
1092.6000;0.3972;-1.1345;
1092.9000;0.3989;-1.1370;
1093.2000;0.4037;-1.1220;
1093.5000;0.3972;-1.1419;
1093.8000;0.3972;-1.1519;
1094.1000;0.3972;-1.1519;
1094.4000;0.3972;-1.1519;
1094.7000;0.3972;-1.1544;
1095.0000;0.3956;-1.1594;
1095.3000;0.4005;-1.1519;
1095.6000;0.3956;-1.1519;
1095.9000;0.3972;-1.1544;
1096.2000;0.4005;-1.1494;
1096.5000;0.3964;-1.1569;
1096.8000;0.4021;-1.1519;
1097.1000;0.3989;-1.1569;
1097.4000;0.3989;-1.1519;
1097.7000;0.3964;-1.1544;
1098.0000;0.3948;-1.1644;
1098.3000;0.3972;-1.1594;
1098.6000;0.3972;-1.1544;
1098.9000;0.3980;-1.1494;
1099.2000;0.3989;-1.1544;
1099.5000;0.3972;-1.1669;
1099.8000;0.4029;-1.1494;
1100.1000;0.3956;-1.1594;
1100.4000;0.3956;-1.1519;
1100.7000;0.3956;-1.1469;
1101.0000;0.3997;-1.1370;
1101.3000;0.3989;-1.1345;
1101.6000;0.3940;-1.1519;
1101.9000;0.3980;-1.1419;
1102.2000;0.3964;-1.1444;
1102.5000;0.3940;-1.1469;
1102.8000;0.3980;-1.1370;
1103.1000;0.3980;-1.1320;
1103.4000;0.3980;-1.1295;
1103.7000;0.3972;-1.1370;
1104.0000;0.3948;-1.1395;
1104.3000;0.3972;-1.1395;
1104.6000;0.3972;-1.1395;
1104.9000;0.3915;-1.1395;
1105.2000;0.3972;-1.1270;
1105.5000;0.4013;-1.1245;
1105.8000;0.3980;-1.1320;
1106.1000;0.3997;-1.1245;
1106.4000;0.4054;-1.1220;
1106.7000;0.3972;-1.1370;
1107.0000;0.3989;-1.1320;
1107.3000;0.3948;-1.1494;
1107.6000;0.3972;-1.1469;
1107.9000;0.3989;-1.1395;
1108.2000;0.3980;-1.1345;
1108.5000;0.3980;-1.1345;
1108.8000;0.3964;-1.1444;
1109.1000;0.3972;-1.1444;
1109.4000;0.3997;-1.1345;
1109.7000;0.3964;-1.1419;
1110.0000;0.3989;-1.1395;
1110.3000;0.3964;-1.1519;
1110.6000;0.3956;-1.1619;
1110.9000;0.3964;-1.1569;
1111.2000;0.3948;-1.1544;
1111.5000;0.3964;-1.1544;
1111.8000;0.3980;-1.1469;
1112.1000;0.3972;-1.1469;
1112.4000;0.3980;-1.1444;
1112.7000;0.3940;-1.1519;
1113.0000;0.3980;-1.1419;
1113.3000;0.3964;-1.1494;
1113.6000;0.3972;-1.1444;
1113.9000;0.3972;-1.1469;
1114.2000;0.3997;-1.1444;
1114.5000;0.3972;-1.1619;
1114.8000;0.3980;-1.1469;
1115.1000;0.3964;-1.1469;
1115.4000;0.3980;-1.1469;
1115.7000;0.3980;-1.1569;
1116.0000;0.3964;-1.1619;
1116.3000;0.3972;-1.1619;
1116.6000;0.3980;-1.1569;
1116.9000;0.3980;-1.1519;
1117.2000;0.4062;-1.1395;
1117.5000;0.4062;-1.1370;
1117.8000;0.3980;-1.1569;
1118.1000;0.3972;-1.1519;
1118.4000;0.3997;-1.1444;
1118.7000;0.3972;-1.1519;
1119.0000;0.3907;-1.1669;
1119.3000;0.4029;-1.1419;
1119.6000;0.3964;-1.1569;
1119.9000;0.3980;-1.1519;
1120.2000;0.3989;-1.1544;
1120.5000;0.3980;-1.1544;
1120.8000;0.3980;-1.1544;
1121.1000;0.3980;-1.1594;
1121.4000;0.3989;-1.1594;
1121.7000;0.3964;-1.1544;
1122.0000;0.3980;-1.1594;
1122.3000;0.3989;-1.1519;
1122.6000;0.3980;-1.1494;
1122.9000;0.3980;-1.1444;
1123.2000;0.3989;-1.1519;
1123.5000;0.3972;-1.1569;
1123.8000;0.3956;-1.1644;
1124.1000;0.3964;-1.1594;
1124.4000;0.3980;-1.1494;
1124.7000;0.3956;-1.1519;
1125.0000;0.3972;-1.1494;
1125.3000;0.3989;-1.1419;
1125.6000;0.3948;-1.1519;
1125.9000;0.4013;-1.1419;
1126.2000;0.3972;-1.1494;
1126.5000;0.4013;-1.1419;
1126.8000;0.3980;-1.1444;
1127.1000;0.3964;-1.1494;
1127.4000;0.3956;-1.1569;
1127.7000;0.3948;-1.1494;
1128.0000;0.3858;-1.1669;
1128.3000;0.3989;-1.1220;
1128.6000;0.3956;-1.1395;
1128.9000;0.3956;-1.1419;
1129.2000;0.4005;-1.1345;
1129.5000;0.3948;-1.1544;
1129.8000;0.3867;-1.1793;
1130.1000;0.3964;-1.1569;
1130.4000;0.3980;-1.1519;
1130.7000;0.4021;-1.1444;
1131.0000;0.3940;-1.1694;
1131.3000;0.3980;-1.1544;
1131.6000;0.3989;-1.1619;
1131.9000;0.3964;-1.1719;
1132.2000;0.4037;-1.1669;
1132.5000;0.3980;-1.1769;
1132.8000;0.3972;-1.1669;
1133.1000;0.3932;-1.1719;
1133.4000;0.3972;-1.1519;
1133.7000;0.3956;-1.1619;
1134.0000;0.3964;-1.1619;
1134.3000;0.3972;-1.1519;
1134.6000;0.3964;-1.1519;
1134.9000;0.3956;-1.1494;
1135.2000;0.4013;-1.1320;
1135.5000;0.3972;-1.1519;
1135.8000;0.3972;-1.1469;
1136.1000;0.3972;-1.1444;
1136.4000;0.3948;-1.1544;
1136.7000;0.3989;-1.1444;
1137.0000;0.3972;-1.1469;
1137.3000;0.3956;-1.1544;
1137.6000;0.3980;-1.1469;
1137.9000;0.3940;-1.1544;
1138.2000;0.3980;-1.1494;
1138.5000;0.3972;-1.1519;
1138.8000;0.3980;-1.1519;
1139.1000;0.3972;-1.1544;
1139.4000;0.3989;-1.1469;
1139.7000;0.3964;-1.1494;
1140.0000;0.3964;-1.1569;
1140.3000;0.3980;-1.1569;
1140.6000;0.3948;-1.1619;
1140.9000;0.3997;-1.1569;
1141.2000;0.3972;-1.1569;
1141.5000;0.3980;-1.1519;
1141.8000;0.3972;-1.1519;
1142.1000;0.3956;-1.1619;
1142.4000;0.3940;-1.1694;
1142.7000;0.3980;-1.1669;
1143.0000;0.3972;-1.1719;
1143.3000;0.3972;-1.1744;
1143.6000;0.3972;-1.1694;
1143.9000;0.3980;-1.1719;
1144.2000;0.3972;-1.1744;
1144.5000;0.3980;-1.1818;
1144.8000;0.3972;-1.1868;
1145.1000;0.3964;-1.1893;
1145.4000;0.3915;-1.1993;
1145.7000;0.3964;-1.1744;
1146.0000;0.3956;-1.1868;
1146.3000;0.3932;-1.1868;
1146.6000;0.3980;-1.1694;
1146.9000;0.3923;-1.1843;
1147.2000;0.3956;-1.1694;
1147.5000;0.3964;-1.1719;
1147.8000;0.3972;-1.1843;
1148.1000;0.3956;-1.1843;
1148.4000;0.3980;-1.1769;
1148.7000;0.3956;-1.1868;
1149.0000;0.4005;-1.1769;
1149.3000;0.3956;-1.1818;
1149.6000;0.3980;-1.1744;
1149.9000;0.3980;-1.1694;
1150.2000;0.3956;-1.1719;
1150.5000;0.3948;-1.1769;
1150.8000;0.3932;-1.1893;
1151.1000;0.3956;-1.1793;
1151.4000;0.3972;-1.1694;
1151.7000;0.4005;-1.1569;
1152.0000;0.3997;-1.1594;
1152.3000;0.3907;-1.1843;
1152.6000;0.3956;-1.1744;
1152.9000;0.3972;-1.1694;
1153.2000;0.4037;-1.1544;
1153.5000;0.3964;-1.1644;
1153.8000;0.3997;-1.1669;
1154.1000;0.3964;-1.1694;
1154.4000;0.3940;-1.1769;
1154.7000;0.3972;-1.1694;
1155.0000;0.3956;-1.1793;
1155.3000;0.3948;-1.1744;
1155.6000;0.3948;-1.1793;
1155.9000;0.3972;-1.1793;
1156.2000;0.3989;-1.1793;
1156.5000;0.3964;-1.1769;
1156.8000;0.3972;-1.1569;
1157.1000;0.4005;-1.1569;
1157.4000;0.3964;-1.1744;
1157.7000;0.3964;-1.1694;
1158.0000;0.3989;-1.1694;
1158.3000;0.3964;-1.1594;
1158.6000;0.3980;-1.1569;
1158.9000;0.3972;-1.1569;
1159.2000;0.4046;-1.1419;
1159.5000;0.3972;-1.1644;
1159.8000;0.3964;-1.1669;
1160.1000;0.3956;-1.1793;
1160.4000;0.3972;-1.1719;
1160.7000;0.3956;-1.1769;
1161.0000;0.3948;-1.1744;
1161.3000;0.3948;-1.1769;
1161.6000;0.3907;-1.1868;
1161.9000;0.3964;-1.1769;
1162.2000;0.3980;-1.1818;
1162.5000;0.3980;-1.1943;
1162.8000;0.3989;-1.1868;
1163.1000;0.3972;-1.1868;
1163.4000;0.3989;-1.1893;
1163.7000;0.3972;-1.1968;
1164.0000;0.3964;-1.1943;
1164.3000;0.3940;-1.1918;
1164.6000;0.3956;-1.1918;
1164.9000;0.3964;-1.1918;
1165.2000;0.3964;-1.1943;
1165.5000;0.3964;-1.1968;
1165.8000;0.3989;-1.1868;
1166.1000;0.3972;-1.1868;
1166.4000;0.3989;-1.1793;
1166.7000;0.3948;-1.1893;
1167.0000;0.3989;-1.1943;
1167.3000;0.4013;-1.1744;
1167.6000;0.3964;-1.1868;
1167.9000;0.3972;-1.1793;
1168.2000;0.3907;-1.2043;
1168.5000;0.3948;-1.1993;
1168.8000;0.3980;-1.1843;
1169.1000;0.3972;-1.1793;
1169.4000;0.3915;-1.1993;
1169.7000;0.3980;-1.1868;
1170.0000;0.3964;-1.1868;
1170.3000;0.3964;-1.1818;
1170.6000;0.3956;-1.1769;
1170.9000;0.3980;-1.1694;
1171.2000;0.3956;-1.1793;
1171.5000;0.3956;-1.1893;
1171.8000;0.3972;-1.1843;
1172.1000;0.3964;-1.1868;
1172.4000;0.3964;-1.1818;
1172.7000;0.3964;-1.1719;
1173.0000;0.3964;-1.1694;
1173.3000;0.3956;-1.1619;
1173.6000;0.3956;-1.1694;
1173.9000;0.3907;-1.1868;
1174.2000;0.3964;-1.1769;
1174.5000;0.3972;-1.1744;
1174.8000;0.3964;-1.1843;
1175.1000;0.3948;-1.1918;
1175.4000;0.3956;-1.1868;
1175.7000;0.3964;-1.1744;
1176.0000;0.3948;-1.1818;
1176.3000;0.3948;-1.1818;
1176.6000;0.3972;-1.1793;
1176.9000;0.3972;-1.1644;
1177.2000;0.3989;-1.1619;
1177.5000;0.3980;-1.1619;
1177.8000;0.3972;-1.1719;
1178.1000;0.3948;-1.1843;
1178.4000;0.3956;-1.1943;
1178.7000;0.3980;-1.1843;
1179.0000;0.3964;-1.1893;
1179.3000;0.4005;-1.1868;
1179.6000;0.3972;-1.1793;
1179.9000;0.3972;-1.1744;
1180.2000;0.3915;-1.1893;
1180.5000;0.3972;-1.1793;
1180.8000;0.3980;-1.1694;
1181.1000;0.4005;-1.1644;
1181.4000;0.3948;-1.1694;
1181.7000;0.3956;-1.1669;
1182.0000;0.3964;-1.1619;
1182.3000;0.3956;-1.1569;
1182.6000;0.3980;-1.1569;
1182.9000;0.3972;-1.1644;
1183.2000;0.3948;-1.1769;
1183.5000;0.3948;-1.1769;
1183.8000;0.3956;-1.1818;
1184.1000;0.4021;-1.1694;
1184.4000;0.3980;-1.1769;
1184.7000;0.4005;-1.1644;
1185.0000;0.3964;-1.1719;
1185.3000;0.3940;-1.1793;
1185.6000;0.3956;-1.1818;
1185.9000;0.4029;-1.1594;
1186.2000;0.3972;-1.1769;
1186.5000;0.3989;-1.1669;
1186.8000;0.3972;-1.1669;
1187.1000;0.3956;-1.1793;
1187.4000;0.3956;-1.1769;
1187.7000;0.3989;-1.1619;
1188.0000;0.3964;-1.1619;
1188.3000;0.3956;-1.1619;
1188.6000;0.3972;-1.1719;
1188.9000;0.3964;-1.1694;
1189.2000;0.3948;-1.1719;
1189.5000;0.3964;-1.1694;
1189.8000;0.3956;-1.1644;
1190.1000;0.3980;-1.1644;
1190.4000;0.3948;-1.1793;
1190.7000;0.3980;-1.1744;
1191.0000;0.3980;-1.1769;
1191.3000;0.3956;-1.1793;
1191.6000;0.3858;-1.2068;
1191.9000;0.3964;-1.1793;
1192.2000;0.3980;-1.1843;
1192.5000;0.4037;-1.1694;
1192.8000;0.3956;-1.1818;
1193.1000;0.3964;-1.1843;
1193.4000;0.4046;-1.1469;
1193.7000;0.3948;-1.1719;
1194.0000;0.3997;-1.1569;
1194.3000;0.3972;-1.1619;
1194.6000;0.3972;-1.1644;
1194.9000;0.3980;-1.1569;
1195.2000;0.3956;-1.1569;
1195.5000;0.3948;-1.1619;
1195.8000;0.3956;-1.1694;
1196.1000;0.3923;-1.1744;
1196.4000;0.3948;-1.1619;
1196.7000;0.3956;-1.1619;
1197.0000;0.3956;-1.1694;
1197.3000;0.3964;-1.1669;
1197.6000;0.3948;-1.1719;
1197.9000;0.3980;-1.1669;
1198.2000;0.3940;-1.1769;
1198.5000;0.3964;-1.1669;
1198.8000;0.3964;-1.1569;
1199.1000;0.3956;-1.1694;
1199.4000;0.3980;-1.1669;
1199.7000;0.3940;-1.1769;
1200.0000;0.3964;-1.1769;
1200.3000;0.3980;-1.1744;
1200.6000;0.3972;-1.1719;
1200.9000;0.4062;-1.1494;
1201.2000;0.3891;-1.1868;
1201.5000;0.3891;-1.1818;
1201.8000;0.3956;-1.1769;
1202.1000;0.3989;-1.1719;
1202.4000;0.3964;-1.1744;
1202.7000;0.3964;-1.1719;
1203.0000;0.3956;-1.1793;
1203.3000;0.3989;-1.1793;
1203.6000;0.3948;-1.1843;
1203.9000;0.3972;-1.1769;
1204.2000;0.3964;-1.1769;
1204.5000;0.3980;-1.1744;
1204.8000;0.3956;-1.1843;
1205.1000;0.3972;-1.1843;
1205.4000;0.3956;-1.1868;
1205.7000;0.3980;-1.1918;
1206.0000;0.3972;-1.1893;
1206.3000;0.3915;-1.1968;
1206.6000;0.3923;-1.1893;
1206.9000;0.3956;-1.1818;
1207.2000;0.3956;-1.1744;
1207.5000;0.3964;-1.1769;
1207.8000;0.3956;-1.1769;
1208.1000;0.3964;-1.1644;
1208.4000;0.3964;-1.1694;
1208.7000;0.3972;-1.1619;
1209.0000;0.3956;-1.1694;
1209.3000;0.3948;-1.1793;
1209.6000;0.3956;-1.1893;
1209.9000;0.4037;-1.1694;
1210.2000;0.3964;-1.1769;
1210.5000;0.3964;-1.1843;
1210.8000;0.3964;-1.1744;
1211.1000;0.3964;-1.1694;
1211.4000;0.3948;-1.1843;
1211.7000;0.3956;-1.1793;
1212.0000;0.3964;-1.1793;
1212.3000;0.3948;-1.1893;
1212.6000;0.3932;-1.1843;
1212.9000;0.3956;-1.1769;
1213.2000;0.3940;-1.1843;
1213.5000;0.3964;-1.1793;
1213.8000;0.3948;-1.1818;
1214.1000;0.3948;-1.1793;
1214.4000;0.3989;-1.1619;
1214.7000;0.3940;-1.1694;
1215.0000;0.3964;-1.1669;
1215.3000;0.3948;-1.1669;
1215.6000;0.4005;-1.1469;
1215.9000;0.3972;-1.1644;
1216.2000;0.3915;-1.1818;
1216.5000;0.3923;-1.1968;
1216.8000;0.3956;-1.1793;
1217.1000;0.3964;-1.1868;
1217.4000;0.3989;-1.1843;
1217.7000;0.3956;-1.1818;
1218.0000;0.3972;-1.1744;
1218.3000;0.3964;-1.1719;
1218.6000;0.3940;-1.1843;
1218.9000;0.3932;-1.1918;
1219.2000;0.3964;-1.1843;
1219.5000;0.4005;-1.1744;
1219.8000;0.3956;-1.1818;
1220.1000;0.3932;-1.1968;
1220.4000;0.4021;-1.1719;
1220.7000;0.3997;-1.1769;
1221.0000;0.3932;-1.1968;
1221.3000;0.4005;-1.1818;
1221.6000;0.3948;-1.1918;
1221.9000;0.3940;-1.1843;
1222.2000;0.3956;-1.1843;
1222.5000;0.3989;-1.1769;
1222.8000;0.3997;-1.1793;
1223.1000;0.3956;-1.1918;
1223.4000;0.3980;-1.1943;
1223.7000;0.3964;-1.1943;
1224.0000;0.3891;-1.2093;
1224.3000;0.3980;-1.1868;
1224.6000;0.3956;-1.1868;
1224.9000;0.3972;-1.1818;
1225.2000;0.3964;-1.1793;
1225.5000;0.3923;-1.1868;
1225.8000;0.4013;-1.1644;
1226.1000;0.3972;-1.1744;
1226.4000;0.3972;-1.1843;
1226.7000;0.3948;-1.1868;
1227.0000;0.3989;-1.1793;
1227.3000;0.3923;-1.1943;
1227.6000;0.3956;-1.1893;
1227.9000;0.3964;-1.1893;
1228.2000;0.3932;-1.1943;
1228.5000;0.3980;-1.1818;
1228.8000;0.3964;-1.1918;
1229.1000;0.3940;-1.1993;
1229.4000;0.3972;-1.1868;
1229.7000;0.3989;-1.1843;
1230.0000;0.3964;-1.1893;
1230.3000;0.3915;-1.1943;
1230.6000;0.3964;-1.1694;
1230.9000;0.3956;-1.1644;
1231.2000;0.3964;-1.1669;
1231.5000;0.3980;-1.1569;
1231.8000;0.3964;-1.1594;
1232.1000;0.3956;-1.1619;
1232.4000;0.3948;-1.1719;
1232.7000;0.4005;-1.1644;
1233.0000;0.3989;-1.1719;
1233.3000;0.3972;-1.1868;
1233.6000;0.3964;-1.1918;
1233.9000;0.3972;-1.1943;
1234.2000;0.3932;-1.1968;
1234.5000;0.3980;-1.1793;
1234.8000;0.3972;-1.1818;
1235.1000;0.3980;-1.1793;
1235.4000;0.3932;-1.1868;
1235.7000;0.3964;-1.1793;
1236.0000;0.3989;-1.1669;
1236.3000;0.3989;-1.1569;
1236.6000;0.3956;-1.1644;
1236.9000;0.3972;-1.1669;
1237.2000;0.3964;-1.1644;
1237.5000;0.3956;-1.1744;
1237.8000;0.3956;-1.1719;
1238.1000;0.3956;-1.1769;
1238.4000;0.3972;-1.1744;
1238.7000;0.3956;-1.1793;
1239.0000;0.3980;-1.1719;
1239.3000;0.3972;-1.1669;
1239.6000;0.3948;-1.1669;
1239.9000;0.3989;-1.1519;
1240.2000;0.3980;-1.1569;
1240.5000;0.3956;-1.1644;
1240.8000;0.3980;-1.1619;
1241.1000;0.3964;-1.1594;
1241.4000;0.3997;-1.1694;
1241.7000;0.3964;-1.1744;
1242.0000;0.3972;-1.1694;
1242.3000;0.3932;-1.1843;
1242.6000;0.3932;-1.1918;
1242.9000;0.3940;-1.1818;
1243.2000;0.3964;-1.1719;
1243.5000;0.3932;-1.1769;
1243.8000;0.3980;-1.1694;
1244.1000;0.3972;-1.1644;
1244.4000;0.3956;-1.1644;
1244.7000;0.4021;-1.1419;
1245.0000;0.3972;-1.1569;
1245.3000;0.3972;-1.1619;
1245.6000;0.3964;-1.1719;
1245.9000;0.3980;-1.1694;
1246.2000;0.3964;-1.1669;
1246.5000;0.3972;-1.1644;
1246.8000;0.3948;-1.1719;
1247.1000;0.3972;-1.1644;
1247.4000;0.3948;-1.1769;
1247.7000;0.3948;-1.1793;
1248.0000;0.4037;-1.1619;
1248.3000;0.3956;-1.1769;
1248.6000;0.3956;-1.1843;
1248.9000;0.3964;-1.1744;
1249.2000;0.3956;-1.1744;
1249.5000;0.3956;-1.1793;
1249.8000;0.3972;-1.1793;
1250.1000;0.3980;-1.1744;
1250.4000;0.3948;-1.1744;
1250.7000;0.3948;-1.1793;
1251.0000;0.4013;-1.1694;
1251.3000;0.3956;-1.1843;
1251.6000;0.3948;-1.1793;
1251.9000;0.3956;-1.1694;
1252.2000;0.3923;-1.1868;
1252.5000;0.3964;-1.1719;
1252.8000;0.3956;-1.1744;
1253.1000;0.3956;-1.1744;
1253.4000;0.3972;-1.1694;
1253.7000;0.3964;-1.1619;
1254.0000;0.3964;-1.1519;
1254.3000;0.3989;-1.1519;
1254.6000;0.3989;-1.1594;
1254.9000;0.3964;-1.1669;
1255.2000;0.3972;-1.1669;
1255.5000;0.3972;-1.1669;
1255.8000;0.3948;-1.1818;
1256.1000;0.3980;-1.1793;
1256.4000;0.3948;-1.1818;
1256.7000;0.3980;-1.1719;
1257.0000;0.3964;-1.1744;
1257.3000;0.3858;-1.2068;
1257.6000;0.3956;-1.1818;
1257.9000;0.3964;-1.1793;
1258.2000;0.3940;-1.1943;
1258.5000;0.3964;-1.1918;
1258.8000;0.3956;-1.1918;
1259.1000;0.3964;-1.1918;
1259.4000;0.4037;-1.1843;
1259.7000;0.3964;-1.1968;
1260.0000;0.3948;-1.2043;
1260.3000;0.3956;-1.1968;
1260.6000;0.3997;-1.1893;
1260.9000;0.3972;-1.1943;
1261.2000;0.3972;-1.1943;
1261.5000;0.3956;-1.2018;
1261.8000;0.4062;-1.1744;
1262.1000;0.3956;-1.2043;
1262.4000;0.3964;-1.1918;
1262.7000;0.3956;-1.1968;
1263.0000;0.3956;-1.1993;
1263.3000;0.3972;-1.1993;
1263.6000;0.3923;-1.2167;
1263.9000;0.3948;-1.2068;
1264.2000;0.3964;-1.1893;
1264.5000;0.4005;-1.1793;
1264.8000;0.3956;-1.1918;
1265.1000;0.3964;-1.1893;
1265.4000;0.3980;-1.1843;
1265.7000;0.3964;-1.1918;
1266.0000;0.3972;-1.1918;
1266.3000;0.3972;-1.1993;
1266.6000;0.3964;-1.1893;
1266.9000;0.3956;-1.1868;
1267.2000;0.3980;-1.1843;
1267.5000;0.3972;-1.1843;
1267.8000;0.3964;-1.1818;
1268.1000;0.3980;-1.1769;
1268.4000;0.3972;-1.1818;
1268.7000;0.3948;-1.1943;
1269.0000;0.3956;-1.1769;
1269.3000;0.3956;-1.1843;
1269.6000;0.3964;-1.1818;
1269.9000;0.3923;-1.1868;
1270.2000;0.3923;-1.1843;
1270.5000;0.3964;-1.1744;
1270.8000;0.3948;-1.1719;
1271.1000;0.3948;-1.1694;
1271.4000;0.3964;-1.1719;
1271.7000;0.3964;-1.1744;
1272.0000;0.4021;-1.1544;
1272.3000;0.3948;-1.1769;
1272.6000;0.3964;-1.1769;
1272.9000;0.3948;-1.1719;
1273.2000;0.3940;-1.1669;
1273.5000;0.3956;-1.1619;
1273.8000;0.3940;-1.1644;
1274.1000;0.3948;-1.1644;
1274.4000;0.3972;-1.1644;
1274.7000;0.3964;-1.1694;
1275.0000;0.3923;-1.1793;
1275.3000;0.3956;-1.1694;
1275.6000;0.3956;-1.1644;
1275.9000;0.3972;-1.1569;
1276.2000;0.3964;-1.1544;
1276.5000;0.3972;-1.1544;
1276.8000;0.3956;-1.1644;
1277.1000;0.4021;-1.1594;
1277.4000;0.3989;-1.1793;
1277.7000;0.3932;-1.1943;
1278.0000;0.3964;-1.1793;
1278.3000;0.3940;-1.1818;
1278.6000;0.3964;-1.1769;
1278.9000;0.4005;-1.1644;
1279.2000;0.3956;-1.1694;
1279.5000;0.4005;-1.1444;
1279.8000;0.3940;-1.1594;
1280.1000;0.3964;-1.1544;
1280.4000;0.3940;-1.1669;
1280.7000;0.3956;-1.1669;
1281.0000;0.3972;-1.1719;
1281.3000;0.3964;-1.1669;
1281.6000;0.3956;-1.1644;
1281.9000;0.4029;-1.1494;
1282.2000;0.4005;-1.1544;
1282.5000;0.3932;-1.1719;
1282.8000;0.3915;-1.1793;
1283.1000;0.3964;-1.1744;
1283.4000;0.3932;-1.1793;
1283.7000;0.3964;-1.1843;
1284.0000;0.3940;-1.1868;
1284.3000;0.3956;-1.1868;
1284.6000;0.3964;-1.1893;
1284.9000;0.3956;-1.1943;
1285.2000;0.3964;-1.1818;
1285.5000;0.3948;-1.1744;
1285.8000;0.3964;-1.1669;
1286.1000;0.4013;-1.1519;
1286.4000;0.3948;-1.1744;
1286.7000;0.3964;-1.1793;
1287.0000;0.3972;-1.1793;
1287.3000;0.3980;-1.1893;
1287.6000;0.3972;-1.1918;
1287.9000;0.3964;-1.1943;
1288.2000;0.3956;-1.1968;
1288.5000;0.3980;-1.1968;
1288.8000;0.3972;-1.1943;
1289.1000;0.3972;-1.1968;
1289.4000;0.3956;-1.1918;
1289.7000;0.3964;-1.1793;
1290.0000;0.3956;-1.1744;
1290.3000;0.3956;-1.1669;
1290.6000;0.3956;-1.1669;
1290.9000;0.3989;-1.1694;
1291.2000;0.3989;-1.1644;
1291.5000;0.3964;-1.1744;
1291.8000;0.3948;-1.1818;
1292.1000;0.3956;-1.1818;
1292.4000;0.3964;-1.1793;
1292.7000;0.3997;-1.1719;
1293.0000;0.4013;-1.1619;
1293.3000;0.3956;-1.1644;
1293.6000;0.3997;-1.1519;
1293.9000;0.3964;-1.1669;
1294.2000;0.3923;-1.1868;
1294.5000;0.3964;-1.1793;
1294.8000;0.3956;-1.1769;
1295.1000;0.3972;-1.1694;
1295.4000;0.3964;-1.1744;
1295.7000;0.3948;-1.1769;
1296.0000;0.3972;-1.1818;
1296.3000;0.4021;-1.1744;
1296.6000;0.3980;-1.1843;
1296.9000;0.4037;-1.1769;
1297.2000;0.3932;-1.2118;
1297.5000;0.3980;-1.1968;
1297.8000;0.3989;-1.1943;
1298.1000;0.3997;-1.1843;
1298.4000;0.3948;-1.1918;
1298.7000;0.3964;-1.1793;
1299.0000;0.4029;-1.1569;
1299.3000;0.3964;-1.1769;
1299.6000;0.3972;-1.1694;
1299.9000;0.3964;-1.1769;
1300.2000;0.3964;-1.1793;
1300.5000;0.3972;-1.1669;
1300.8000;0.3948;-1.1744;
1301.1000;0.3972;-1.1694;
1301.4000;0.3972;-1.1818;
1301.7000;0.3972;-1.1893;
1302.0000;0.3956;-1.1868;
1302.3000;0.3964;-1.1843;
1302.6000;0.3989;-1.1769;
1302.9000;0.3972;-1.1769;
1303.2000;0.3964;-1.1793;
1303.5000;0.3940;-1.1818;
1303.8000;0.3940;-1.1843;
1304.1000;0.3956;-1.1744;
1304.4000;0.3923;-1.1769;
1304.7000;0.4013;-1.1569;
1305.0000;0.3948;-1.1694;
1305.3000;0.4013;-1.1544;
1305.6000;0.3964;-1.1669;
1305.9000;0.3989;-1.1619;
1306.2000;0.3948;-1.1744;
1306.5000;0.3964;-1.1619;
1306.8000;0.3956;-1.1594;
1307.1000;0.3964;-1.1669;
1307.4000;0.3907;-1.1818;
1307.7000;0.4013;-1.1619;
1308.0000;0.3956;-1.1719;
1308.3000;0.3956;-1.1818;
1308.6000;0.3980;-1.1744;
1308.9000;0.3948;-1.1744;
1309.2000;0.3948;-1.1644;
1309.5000;0.3948;-1.1694;
1309.8000;0.3956;-1.1744;
1310.1000;0.3948;-1.1669;
1310.4000;0.3964;-1.1694;
1310.7000;0.3964;-1.1744;
1311.0000;0.3948;-1.1793;
1311.3000;0.3980;-1.1744;
1311.6000;0.3980;-1.1669;
1311.9000;0.3972;-1.1619;
1312.2000;0.3956;-1.1644;
1312.5000;0.3956;-1.1694;
1312.8000;0.3956;-1.1669;
1313.1000;0.3948;-1.1644;
1313.4000;0.3956;-1.1569;
1313.7000;0.3940;-1.1594;
1314.0000;0.3980;-1.1519;
1314.3000;0.3964;-1.1619;
1314.6000;0.3972;-1.1644;
1314.9000;0.3989;-1.1719;
1315.2000;0.3980;-1.1719;
1315.5000;0.3956;-1.1793;
1315.8000;0.3940;-1.1769;
1316.1000;0.3964;-1.1669;
1316.4000;0.3948;-1.1619;
1316.7000;0.3956;-1.1619;
1317.0000;0.3956;-1.1569;
1317.3000;0.3964;-1.1619;
1317.6000;0.3956;-1.1719;
1317.9000;0.3956;-1.1719;
1318.2000;0.4005;-1.1694;
1318.5000;0.3964;-1.1719;
1318.8000;0.3964;-1.1669;
1319.1000;0.3972;-1.1619;
1319.4000;0.3972;-1.1619;
1319.7000;0.3980;-1.1669;
1320.0000;0.3940;-1.1769;
1320.3000;0.4046;-1.1569;
1320.6000;0.3964;-1.1744;
1320.9000;0.3972;-1.1694;
1321.2000;0.3964;-1.1769;
1321.5000;0.3956;-1.1744;
1321.8000;0.3956;-1.1694;
1322.1000;0.3972;-1.1519;
1322.4000;0.3948;-1.1519;
1322.7000;0.3972;-1.1519;
1323.0000;0.3972;-1.1694;
1323.3000;0.3980;-1.1744;
1323.6000;0.3964;-1.1818;
1323.9000;0.3940;-1.1893;
1324.2000;0.3997;-1.1793;
1324.5000;0.3940;-1.1943;
1324.8000;0.3964;-1.1918;
1325.1000;0.3948;-1.1918;
1325.4000;0.3989;-1.1818;
1325.7000;0.3972;-1.1918;
1326.0000;0.3956;-1.1868;
1326.3000;0.3964;-1.1918;
1326.6000;0.3948;-1.1943;
1326.9000;0.3940;-1.1918;
1327.2000;0.3948;-1.1868;
1327.5000;0.3972;-1.1868;
1327.8000;0.3964;-1.1868;
1328.1000;0.3972;-1.1868;
1328.4000;0.3899;-1.2018;
1328.7000;0.3932;-1.1868;
1329.0000;0.3948;-1.1818;
1329.3000;0.3972;-1.1818;
1329.6000;0.3932;-1.1968;
1329.9000;0.3956;-1.1843;
1330.2000;0.3948;-1.1968;
1330.5000;0.3980;-1.1893;
1330.8000;0.3972;-1.1868;
1331.1000;0.3964;-1.1868;
1331.4000;0.3964;-1.1893;
1331.7000;0.3956;-1.1968;
1332.0000;0.3956;-1.1968;
1332.3000;0.3940;-1.1918;
1332.6000;0.3972;-1.1893;
1332.9000;0.3972;-1.1943;
1333.2000;0.3980;-1.1843;
1333.5000;0.3964;-1.1943;
1333.8000;0.3964;-1.1943;
1334.1000;0.3964;-1.1943;
1334.4000;0.3956;-1.1993;
1334.7000;0.3915;-1.2143;
1335.0000;0.3948;-1.1993;
1335.3000;0.3956;-1.1918;
1335.6000;0.3940;-1.1943;
1335.9000;0.3956;-1.1893;
1336.2000;0.3956;-1.1893;
1336.5000;0.3915;-1.1943;
1336.8000;0.3964;-1.1868;
1337.1000;0.3989;-1.1818;
1337.4000;0.3972;-1.1843;
1337.7000;0.3956;-1.1843;
1338.0000;0.3964;-1.1818;
1338.3000;0.3972;-1.1744;
1338.6000;0.3956;-1.1694;
1338.9000;0.3972;-1.1644;
1339.2000;0.3948;-1.1744;
1339.5000;0.3948;-1.1769;
1339.8000;0.3964;-1.1694;
1340.1000;0.3972;-1.1793;
1340.4000;0.3964;-1.1769;
1340.7000;0.3940;-1.1818;
1341.0000;0.3964;-1.1719;
1341.3000;0.3972;-1.1644;
1341.6000;0.3948;-1.1744;
1341.9000;0.3940;-1.1744;
1342.2000;0.3980;-1.1669;
1342.5000;0.3948;-1.1868;
1342.8000;0.3948;-1.1818;
1343.1000;0.3915;-1.1943;
1343.4000;0.3948;-1.1818;
1343.7000;0.3972;-1.1793;
1344.0000;0.3964;-1.1818;
1344.3000;0.3948;-1.1793;
1344.6000;0.3956;-1.1744;
1344.9000;0.3956;-1.1793;
1345.2000;0.3997;-1.1818;
1345.5000;0.3940;-1.1943;
1345.8000;0.3964;-1.1893;
1346.1000;0.3948;-1.1893;
1346.4000;0.3956;-1.1818;
1346.7000;0.3948;-1.1793;
1347.0000;0.3940;-1.1769;
1347.3000;0.3948;-1.1818;
1347.6000;0.3940;-1.1793;
1347.9000;0.3948;-1.1769;
1348.2000;0.3964;-1.1793;
1348.5000;0.3989;-1.1619;
1348.8000;0.3948;-1.1694;
1349.1000;0.3972;-1.1719;
1349.4000;0.3948;-1.1694;
1349.7000;0.3940;-1.1818;
1350.0000;0.3956;-1.1918;
1350.3000;0.3980;-1.1893;
1350.6000;0.3964;-1.1918;
1350.9000;0.3964;-1.2018;
1351.2000;0.4005;-1.1893;
1351.5000;0.3940;-1.1993;
1351.8000;0.3940;-1.2043;
1352.1000;0.3964;-1.1993;
1352.4000;0.3972;-1.2018;
1352.7000;0.3907;-1.2267;
1353.0000;0.3980;-1.2093;
1353.3000;0.3989;-1.2043;
1353.6000;0.3980;-1.1993;
1353.9000;0.3964;-1.2018;
1354.2000;0.3932;-1.2043;
1354.5000;0.4013;-1.1793;
1354.8000;0.3907;-1.2093;
1355.1000;0.3972;-1.1793;
1355.4000;0.4062;-1.1519;
1355.7000;0.3964;-1.1843;
1356.0000;0.4054;-1.1619;
1356.3000;0.3964;-1.1818;
1356.6000;0.3956;-1.1793;
1356.9000;0.3964;-1.1843;
1357.2000;0.3915;-1.1918;
1357.5000;0.3972;-1.1818;
1357.8000;0.3956;-1.1744;
1358.1000;0.3956;-1.1719;
1358.4000;0.3964;-1.1793;
1358.7000;0.3940;-1.1868;
1359.0000;0.3964;-1.1893;
1359.3000;0.3956;-1.1918;
1359.6000;0.3956;-1.1918;
1359.9000;0.3980;-1.1893;
1360.2000;0.3972;-1.1918;
1360.5000;0.3964;-1.1918;
1360.8000;0.3956;-1.1868;
1361.1000;0.3948;-1.1868;
1361.4000;0.3948;-1.1868;
1361.7000;0.3964;-1.1769;
1362.0000;0.3956;-1.1769;
1362.3000;0.3948;-1.1818;
1362.6000;0.3956;-1.1818;
1362.9000;0.4021;-1.1719;
1363.2000;0.3948;-1.1918;
1363.5000;0.3972;-1.1968;
1363.8000;0.3948;-1.1943;
1364.1000;0.3964;-1.1968;
1364.4000;0.3956;-1.2018;
1364.7000;0.3940;-1.2043;
1365.0000;0.3964;-1.1993;
1365.3000;0.3972;-1.1918;
1365.6000;0.3948;-1.1893;
1365.9000;0.3956;-1.1943;
1366.2000;0.3964;-1.1893;
1366.5000;0.3964;-1.1943;
1366.8000;0.3964;-1.1968;
1367.1000;0.4029;-1.1744;
1367.4000;0.3899;-1.2143;
1367.7000;0.3964;-1.1943;
1368.0000;0.3972;-1.1943;
1368.3000;0.3980;-1.1744;
1368.6000;0.3940;-1.1843;
1368.9000;0.4062;-1.1544;
1369.2000;0.3964;-1.1818;
1369.5000;0.3923;-1.1893;
1369.8000;0.3972;-1.1719;
1370.1000;0.3956;-1.1769;
1370.4000;0.3932;-1.1993;
1370.7000;0.3883;-1.2167;
1371.0000;0.3964;-1.1968;
1371.3000;0.4021;-1.1918;
1371.6000;0.3948;-1.2167;
1371.9000;0.4013;-1.2068;
1372.2000;0.3940;-1.2167;
1372.5000;0.4046;-1.1918;
1372.8000;0.3964;-1.2043;
1373.1000;0.3980;-1.1968;
1373.4000;0.4078;-1.1694;
1373.7000;0.3964;-1.2093;
1374.0000;0.3891;-1.2267;
1374.3000;0.3932;-1.2167;
1374.6000;0.3980;-1.2118;
1374.9000;0.3956;-1.2093;
1375.2000;0.3964;-1.2043;
1375.5000;0.3940;-1.2018;
1375.8000;0.3964;-1.1968;
1376.1000;0.3980;-1.1943;
1376.4000;0.3972;-1.1943;
1376.7000;0.3972;-1.1893;
1377.0000;0.3964;-1.1868;
1377.3000;0.3964;-1.1893;
1377.6000;0.3972;-1.1943;
1377.9000;0.3972;-1.1943;
1378.2000;0.3972;-1.1943;
1378.5000;0.3948;-1.1968;
1378.8000;0.3956;-1.1968;
1379.1000;0.3964;-1.1918;
1379.4000;0.3964;-1.1744;
1379.7000;0.3964;-1.1719;
1380.0000;0.3972;-1.1744;
1380.3000;0.3972;-1.1719;
1380.6000;0.3964;-1.1793;
1380.9000;0.3980;-1.1744;
1381.2000;0.3907;-1.1918;
1381.5000;0.3956;-1.1818;
1381.8000;0.3948;-1.1943;
1382.1000;0.3972;-1.1843;
1382.4000;0.3956;-1.1843;
1382.7000;0.3948;-1.1893;
1383.0000;0.3989;-1.1868;
1383.3000;0.3980;-1.1843;
1383.6000;0.3964;-1.1918;
1383.9000;0.3932;-1.1918;
1384.2000;0.3956;-1.1843;
1384.5000;0.3980;-1.1893;
1384.8000;0.3964;-1.1868;
1385.1000;0.3923;-1.1893;
1385.4000;0.3964;-1.1744;
1385.7000;0.3875;-1.1893;
1386.0000;0.3948;-1.1569;
1386.3000;0.3948;-1.1669;
1386.6000;0.3948;-1.1793;
1386.9000;0.3972;-1.1818;
1387.2000;0.4021;-1.1644;
1387.5000;0.3940;-1.1843;
1387.8000;0.3948;-1.1868;
1388.1000;0.3972;-1.1843;
1388.4000;0.3940;-1.1893;
1388.7000;0.3964;-1.1893;
1389.0000;0.3907;-1.2093;
1389.3000;0.3989;-1.1943;
1389.6000;0.3980;-1.1868;
1389.9000;0.3972;-1.1893;
1390.2000;0.3964;-1.1893;
1390.5000;0.3940;-1.1968;
1390.8000;0.3980;-1.1868;
1391.1000;0.3964;-1.1793;
1391.4000;0.3940;-1.1843;
1391.7000;0.3956;-1.1893;
1392.0000;0.3980;-1.1793;
1392.3000;0.3972;-1.1769;
1392.6000;0.3956;-1.1843;
1392.9000;0.3948;-1.1868;
1393.2000;0.3989;-1.1769;
1393.5000;0.3948;-1.1893;
1393.8000;0.3964;-1.1868;
1394.1000;0.3980;-1.1868;
1394.4000;0.3964;-1.1868;
1394.7000;0.3956;-1.1893;
1395.0000;0.3964;-1.1918;
1395.3000;0.3972;-1.1968;
1395.6000;0.3964;-1.2018;
1395.9000;0.3972;-1.1968;
1396.2000;0.3972;-1.1868;
1396.5000;0.4005;-1.1744;
1396.8000;0.3964;-1.1843;
1397.1000;0.3989;-1.1744;
1397.4000;0.3972;-1.1793;
1397.7000;0.3964;-1.1719;
1398.0000;0.3972;-1.1793;
1398.3000;0.3956;-1.1868;
1398.6000;0.3964;-1.1843;
1398.9000;0.3956;-1.1893;
1399.2000;0.4037;-1.1669;
1399.5000;0.3964;-1.1918;
1399.8000;0.3972;-1.2068;
