time/ms;Fluo/V;P700 deltaI/I x10³;
-199.8000;0.5397;-1.1569;
-199.5000;0.5389;-1.1594;
-199.2000;0.5421;-1.1469;
-198.9000;0.5397;-1.1594;
-198.6000;0.5405;-1.1594;
-198.3000;0.5389;-1.1544;
-198.0000;0.5389;-1.1544;
-197.7000;0.5381;-1.1494;
-197.4000;0.5397;-1.1519;
-197.1000;0.5397;-1.1444;
-196.8000;0.5389;-1.1494;
-196.5000;0.5405;-1.1494;
-196.2000;0.5446;-1.1419;
-195.9000;0.5397;-1.1569;
-195.6000;0.5381;-1.1644;
-195.3000;0.5438;-1.1395;
-195.0000;0.5405;-1.1519;
-194.7000;0.5405;-1.1494;
-194.4000;0.5397;-1.1519;
-194.1000;0.5397;-1.1569;
-193.8000;0.5381;-1.1669;
-193.5000;0.5381;-1.1694;
-193.2000;0.5405;-1.1719;
-192.9000;0.5405;-1.1719;
-192.6000;0.5413;-1.1619;
-192.3000;0.5389;-1.1669;
-192.0000;0.5405;-1.1644;
-191.7000;0.5389;-1.1644;
-191.4000;0.5381;-1.1619;
-191.1000;0.5381;-1.1619;
-190.8000;0.5397;-1.1519;
-190.5000;0.5413;-1.1469;
-190.2000;0.5389;-1.1519;
-189.9000;0.5389;-1.1569;
-189.6000;0.5397;-1.1494;
-189.3000;0.5397;-1.1544;
-189.0000;0.5389;-1.1569;
-188.7000;0.5389;-1.1594;
-188.4000;0.5389;-1.1594;
-188.1000;0.5397;-1.1594;
-187.8000;0.5397;-1.1519;
-187.5000;0.5389;-1.1544;
-187.2000;0.5397;-1.1569;
-186.9000;0.5413;-1.1519;
-186.6000;0.5397;-1.1619;
-186.3000;0.5397;-1.1519;
-186.0000;0.5381;-1.1544;
-185.7000;0.5405;-1.1494;
-185.4000;0.5413;-1.1494;
-185.1000;0.5381;-1.1544;
-184.8000;0.5389;-1.1544;
-184.5000;0.5421;-1.1469;
-184.2000;0.5389;-1.1619;
-183.9000;0.5413;-1.1544;
-183.6000;0.5397;-1.1569;
-183.3000;0.5397;-1.1494;
-183.0000;0.5405;-1.1544;
-182.7000;0.5381;-1.1569;
-182.4000;0.5405;-1.1519;
-182.1000;0.5389;-1.1519;
-181.8000;0.5405;-1.1444;
-181.5000;0.5389;-1.1544;
-181.2000;0.5381;-1.1594;
-180.9000;0.5381;-1.1619;
-180.6000;0.5389;-1.1544;
-180.3000;0.5381;-1.1594;
-180.0000;0.5381;-1.1619;
-179.7000;0.5397;-1.1569;
-179.4000;0.5389;-1.1544;
-179.1000;0.5381;-1.1694;
-178.8000;0.5389;-1.1719;
-178.5000;0.5397;-1.1644;
-178.2000;0.5397;-1.1619;
-177.9000;0.5389;-1.1519;
-177.6000;0.5389;-1.1594;
-177.3000;0.5397;-1.1594;
-177.0000;0.5381;-1.1619;
-176.7000;0.5381;-1.1644;
-176.4000;0.5397;-1.1619;
-176.1000;0.5389;-1.1669;
-175.8000;0.5389;-1.1694;
-175.5000;0.5389;-1.1669;
-175.2000;0.5381;-1.1669;
-174.9000;0.5364;-1.1719;
-174.6000;0.5381;-1.1719;
-174.3000;0.5397;-1.1694;
-174.0000;0.5381;-1.1669;
-173.7000;0.5397;-1.1669;
-173.4000;0.5372;-1.1694;
-173.1000;0.5397;-1.1669;
-172.8000;0.5389;-1.1644;
-172.5000;0.5397;-1.1669;
-172.2000;0.5381;-1.1644;
-171.9000;0.5389;-1.1594;
-171.6000;0.5389;-1.1594;
-171.3000;0.5397;-1.1544;
-171.0000;0.5381;-1.1569;
-170.7000;0.5389;-1.1519;
-170.4000;0.5397;-1.1619;
-170.1000;0.5381;-1.1669;
-169.8000;0.5389;-1.1719;
-169.5000;0.5389;-1.1769;
-169.2000;0.5381;-1.1669;
-168.9000;0.5372;-1.1594;
-168.6000;0.5389;-1.1544;
-168.3000;0.5389;-1.1544;
-168.0000;0.5397;-1.1494;
-167.7000;0.5429;-1.1444;
-167.4000;0.5413;-1.1494;
-167.1000;0.5413;-1.1519;
-166.8000;0.5283;-1.1918;
-166.5000;0.5405;-1.1544;
-166.2000;0.5364;-1.1644;
-165.9000;0.5413;-1.1444;
-165.6000;0.5389;-1.1469;
-165.3000;0.5438;-1.1395;
-165.0000;0.5381;-1.1519;
-164.7000;0.5364;-1.1519;
-164.4000;0.5397;-1.1569;
-164.1000;0.5397;-1.1569;
-163.8000;0.5340;-1.1769;
-163.5000;0.5372;-1.1644;
-163.2000;0.5381;-1.1644;
-162.9000;0.5405;-1.1644;
-162.6000;0.5397;-1.1644;
-162.3000;0.5389;-1.1744;
-162.0000;0.5389;-1.1744;
-161.7000;0.5389;-1.1619;
-161.4000;0.5389;-1.1619;
-161.1000;0.5381;-1.1544;
-160.8000;0.5389;-1.1494;
-160.5000;0.5405;-1.1444;
-160.2000;0.5397;-1.1494;
-159.9000;0.5421;-1.1395;
-159.6000;0.5397;-1.1569;
-159.3000;0.5389;-1.1519;
-159.0000;0.5397;-1.1519;
-158.7000;0.5389;-1.1619;
-158.4000;0.5397;-1.1619;
-158.1000;0.5381;-1.1619;
-157.8000;0.5405;-1.1619;
-157.5000;0.5405;-1.1569;
-157.2000;0.5397;-1.1494;
-156.9000;0.5389;-1.1594;
-156.6000;0.5405;-1.1519;
-156.3000;0.5405;-1.1544;
-156.0000;0.5381;-1.1519;
-155.7000;0.5389;-1.1594;
-155.4000;0.5381;-1.1619;
-155.1000;0.5397;-1.1544;
-154.8000;0.5381;-1.1519;
-154.5000;0.5397;-1.1544;
-154.2000;0.5405;-1.1494;
-153.9000;0.5397;-1.1544;
-153.6000;0.5381;-1.1569;
-153.3000;0.5389;-1.1469;
-153.0000;0.5372;-1.1544;
-152.7000;0.5372;-1.1544;
-152.4000;0.5389;-1.1544;
-152.1000;0.5389;-1.1694;
-151.8000;0.5389;-1.1644;
-151.5000;0.5405;-1.1494;
-151.2000;0.5389;-1.1519;
-150.9000;0.5389;-1.1569;
-150.6000;0.5389;-1.1594;
-150.3000;0.5389;-1.1594;
-150.0000;0.5413;-1.1544;
-149.7000;0.5389;-1.1544;
-149.4000;0.5397;-1.1494;
-149.1000;0.5340;-1.1619;
-148.8000;0.5372;-1.1569;
-148.5000;0.5381;-1.1594;
-148.2000;0.5372;-1.1694;
-147.9000;0.5364;-1.1694;
-147.6000;0.5389;-1.1719;
-147.3000;0.5389;-1.1744;
-147.0000;0.5397;-1.1694;
-146.7000;0.5381;-1.1694;
-146.4000;0.5397;-1.1544;
-146.1000;0.5429;-1.1469;
-145.8000;0.5397;-1.1494;
-145.5000;0.5405;-1.1494;
-145.2000;0.5405;-1.1544;
-144.9000;0.5381;-1.1619;
-144.6000;0.5397;-1.1719;
-144.3000;0.5372;-1.1793;
-144.0000;0.5364;-1.1694;
-143.7000;0.5397;-1.1644;
-143.4000;0.5413;-1.1569;
-143.1000;0.5381;-1.1694;
-142.8000;0.5389;-1.1669;
-142.5000;0.5405;-1.1594;
-142.2000;0.5421;-1.1594;
-141.9000;0.5405;-1.1569;
-141.6000;0.5438;-1.1469;
-141.3000;0.5413;-1.1619;
-141.0000;0.5389;-1.1644;
-140.7000;0.5299;-1.1893;
-140.4000;0.5397;-1.1644;
-140.1000;0.5389;-1.1544;
-139.8000;0.5413;-1.1395;
-139.5000;0.5340;-1.1494;
-139.2000;0.5381;-1.1370;
-138.9000;0.5389;-1.1395;
-138.6000;0.5397;-1.1519;
-138.3000;0.5389;-1.1494;
-138.0000;0.5381;-1.1494;
-137.7000;0.5381;-1.1569;
-137.4000;0.5389;-1.1544;
-137.1000;0.5332;-1.1719;
-136.8000;0.5405;-1.1569;
-136.5000;0.5397;-1.1644;
-136.2000;0.5413;-1.1669;
-135.9000;0.5348;-1.1719;
-135.6000;0.5397;-1.1519;
-135.3000;0.5389;-1.1569;
-135.0000;0.5389;-1.1494;
-134.7000;0.5405;-1.1544;
-134.4000;0.5389;-1.1619;
-134.1000;0.5405;-1.1619;
-133.8000;0.5381;-1.1644;
-133.5000;0.5381;-1.1594;
-133.2000;0.5389;-1.1694;
-132.9000;0.5389;-1.1843;
-132.6000;0.5389;-1.1868;
-132.3000;0.5397;-1.1918;
-132.0000;0.5397;-1.1893;
-131.7000;0.5421;-1.1868;
-131.4000;0.5389;-1.1993;
-131.1000;0.5405;-1.1968;
-130.8000;0.5389;-1.1993;
-130.5000;0.5389;-1.1918;
-130.2000;0.5381;-1.1893;
-129.9000;0.5389;-1.1793;
-129.6000;0.5397;-1.1769;
-129.3000;0.5364;-1.1843;
-129.0000;0.5372;-1.1918;
-128.7000;0.5389;-1.1918;
-128.4000;0.5381;-1.1993;
-128.1000;0.5413;-1.1868;
-127.8000;0.5389;-1.1818;
-127.5000;0.5372;-1.1893;
-127.2000;0.5372;-1.1943;
-126.9000;0.5397;-1.1893;
-126.6000;0.5405;-1.1868;
-126.3000;0.5397;-1.1818;
-126.0000;0.5397;-1.1818;
-125.7000;0.5470;-1.1669;
-125.4000;0.5397;-1.1744;
-125.1000;0.5348;-1.1893;
-124.8000;0.5405;-1.1619;
-124.5000;0.5397;-1.1619;
-124.2000;0.5372;-1.1669;
-123.9000;0.5381;-1.1619;
-123.6000;0.5364;-1.1694;
-123.3000;0.5389;-1.1694;
-123.0000;0.5397;-1.1694;
-122.7000;0.5397;-1.1619;
-122.4000;0.5372;-1.1744;
-122.1000;0.5356;-1.1644;
-121.8000;0.5405;-1.1519;
-121.5000;0.5372;-1.1569;
-121.2000;0.5381;-1.1594;
-120.9000;0.5421;-1.1469;
-120.6000;0.5397;-1.1519;
-120.3000;0.5389;-1.1519;
-120.0000;0.5397;-1.1444;
-119.7000;0.5389;-1.1494;
-119.4000;0.5389;-1.1544;
-119.1000;0.5381;-1.1694;
-118.8000;0.5389;-1.1769;
-118.5000;0.5389;-1.1694;
-118.2000;0.5397;-1.1669;
-117.9000;0.5421;-1.1644;
-117.6000;0.5413;-1.1644;
-117.3000;0.5405;-1.1619;
-117.0000;0.5397;-1.1569;
-116.7000;0.5421;-1.1594;
-116.4000;0.5381;-1.1694;
-116.1000;0.5381;-1.1594;
-115.8000;0.5397;-1.1544;
-115.5000;0.5389;-1.1694;
-115.2000;0.5413;-1.1619;
-114.9000;0.5364;-1.1744;
-114.6000;0.5397;-1.1669;
-114.3000;0.5389;-1.1669;
-114.0000;0.5364;-1.1719;
-113.7000;0.5340;-1.1793;
-113.4000;0.5372;-1.1793;
-113.1000;0.5381;-1.1744;
-112.8000;0.5397;-1.1744;
-112.5000;0.5372;-1.1793;
-112.2000;0.5389;-1.1744;
-111.9000;0.5381;-1.1769;
-111.6000;0.5454;-1.1594;
-111.3000;0.5397;-1.1744;
-111.0000;0.5397;-1.1669;
-110.7000;0.5397;-1.1719;
-110.4000;0.5486;-1.1469;
-110.1000;0.5381;-1.1694;
-109.8000;0.5397;-1.1644;
-109.5000;0.5486;-1.1370;
-109.2000;0.5413;-1.1569;
-108.9000;0.5389;-1.1619;
-108.6000;0.5283;-1.1868;
-108.3000;0.5413;-1.1494;
-108.0000;0.5381;-1.1494;
-107.7000;0.5389;-1.1594;
-107.4000;0.5389;-1.1594;
-107.1000;0.5389;-1.1644;
-106.8000;0.5364;-1.1669;
-106.5000;0.5389;-1.1619;
-106.2000;0.5364;-1.1669;
-105.9000;0.5397;-1.1644;
-105.6000;0.5397;-1.1719;
-105.3000;0.5421;-1.1619;
-105.0000;0.5389;-1.1644;
-104.7000;0.5389;-1.1594;
-104.4000;0.5372;-1.1669;
-104.1000;0.5381;-1.1644;
-103.8000;0.5381;-1.1669;
-103.5000;0.5405;-1.1669;
-103.2000;0.5397;-1.1644;
-102.9000;0.5389;-1.1569;
-102.6000;0.5389;-1.1594;
-102.3000;0.5405;-1.1569;
-102.0000;0.5381;-1.1694;
-101.7000;0.5397;-1.1719;
-101.4000;0.5397;-1.1719;
-101.1000;0.5381;-1.1719;
-100.8000;0.5405;-1.1694;
-100.5000;0.5397;-1.1719;
-100.2000;0.5332;-1.1868;
-99.9000;0.5389;-1.1694;
-99.6000;0.5372;-1.1744;
-99.3000;0.5364;-1.1669;
-99.0000;0.5405;-1.1669;
-98.7000;0.5397;-1.1719;
-98.4000;0.5397;-1.1769;
-98.1000;0.5389;-1.1719;
-97.8000;0.5405;-1.1694;
-97.5000;0.5397;-1.1669;
-97.2000;0.5381;-1.1669;
-96.9000;0.5389;-1.1694;
-96.6000;0.5389;-1.1694;
-96.3000;0.5389;-1.1744;
-96.0000;0.5381;-1.1868;
-95.7000;0.5413;-1.1818;
-95.4000;0.5495;-1.1519;
-95.1000;0.5405;-1.1719;
-94.8000;0.5397;-1.1669;
-94.5000;0.5372;-1.1694;
-94.2000;0.5397;-1.1619;
-93.9000;0.5397;-1.1569;
-93.6000;0.5429;-1.1494;
-93.3000;0.5372;-1.1644;
-93.0000;0.5421;-1.1544;
-92.7000;0.5397;-1.1544;
-92.4000;0.5389;-1.1544;
-92.1000;0.5364;-1.1544;
-91.8000;0.5381;-1.1594;
-91.5000;0.5356;-1.1744;
-91.2000;0.5356;-1.1818;
-90.9000;0.5381;-1.1719;
-90.6000;0.5397;-1.1694;
-90.3000;0.5405;-1.1619;
-90.0000;0.5397;-1.1569;
-89.7000;0.5267;-1.1843;
-89.4000;0.5405;-1.1519;
-89.1000;0.5405;-1.1519;
-88.8000;0.5389;-1.1519;
-88.5000;0.5429;-1.1444;
-88.2000;0.5389;-1.1694;
-87.9000;0.5397;-1.1644;
-87.6000;0.5381;-1.1619;
-87.3000;0.5389;-1.1619;
-87.0000;0.5332;-1.1793;
-86.7000;0.5381;-1.1644;
-86.4000;0.5389;-1.1644;
-86.1000;0.5397;-1.1594;
-85.8000;0.5381;-1.1719;
-85.5000;0.5397;-1.1719;
-85.2000;0.5364;-1.1793;
-84.9000;0.5397;-1.1719;
-84.6000;0.5389;-1.1843;
-84.3000;0.5429;-1.1769;
-84.0000;0.5372;-1.1868;
-83.7000;0.5397;-1.1793;
-83.4000;0.5381;-1.1943;
-83.1000;0.5372;-1.1868;
-82.8000;0.5381;-1.1769;
-82.5000;0.5389;-1.1694;
-82.2000;0.5397;-1.1719;
-81.9000;0.5397;-1.1719;
-81.6000;0.5389;-1.1818;
-81.3000;0.5381;-1.1893;
-81.0000;0.5405;-1.1818;
-80.7000;0.5397;-1.1793;
-80.4000;0.5381;-1.1843;
-80.1000;0.5397;-1.1769;
-79.8000;0.5397;-1.1719;
-79.5000;0.5405;-1.1694;
-79.2000;0.5405;-1.1669;
-78.9000;0.5364;-1.1818;
-78.6000;0.5372;-1.1818;
-78.3000;0.5413;-1.1694;
-78.0000;0.5413;-1.1594;
-77.7000;0.5438;-1.1594;
-77.4000;0.5405;-1.1594;
-77.1000;0.5405;-1.1694;
-76.8000;0.5381;-1.1719;
-76.5000;0.5364;-1.1694;
-76.2000;0.5397;-1.1669;
-75.9000;0.5389;-1.1719;
-75.6000;0.5397;-1.1769;
-75.3000;0.5397;-1.1769;
-75.0000;0.5397;-1.1744;
-74.7000;0.5381;-1.1719;
-74.4000;0.5389;-1.1694;
-74.1000;0.5397;-1.1669;
-73.8000;0.5389;-1.1793;
-73.5000;0.5421;-1.1619;
-73.2000;0.5389;-1.1644;
-72.9000;0.5397;-1.1594;
-72.6000;0.5372;-1.1644;
-72.3000;0.5405;-1.1569;
-72.0000;0.5381;-1.1569;
-71.7000;0.5421;-1.1444;
-71.4000;0.5397;-1.1519;
-71.1000;0.5397;-1.1569;
-70.8000;0.5438;-1.1444;
-70.5000;0.5421;-1.1519;
-70.2000;0.5413;-1.1519;
-69.9000;0.5405;-1.1594;
-69.6000;0.5413;-1.1569;
-69.3000;0.5405;-1.1569;
-69.0000;0.5405;-1.1569;
-68.7000;0.5397;-1.1644;
-68.4000;0.5405;-1.1694;
-68.1000;0.5413;-1.1669;
-67.8000;0.5397;-1.1669;
-67.5000;0.5372;-1.1669;
-67.2000;0.5429;-1.1544;
-66.9000;0.5405;-1.1619;
-66.6000;0.5389;-1.1594;
-66.3000;0.5389;-1.1619;
-66.0000;0.5397;-1.1469;
-65.7000;0.5340;-1.1644;
-65.4000;0.5397;-1.1469;
-65.1000;0.5381;-1.1419;
-64.8000;0.5389;-1.1419;
-64.5000;0.5381;-1.1395;
-64.2000;0.5454;-1.1270;
-63.9000;0.5389;-1.1519;
-63.6000;0.5413;-1.1519;
-63.3000;0.5389;-1.1544;
-63.0000;0.5397;-1.1494;
-62.7000;0.5389;-1.1519;
-62.4000;0.5389;-1.1569;
-62.1000;0.5397;-1.1519;
-61.8000;0.5389;-1.1469;
-61.5000;0.5389;-1.1569;
-61.2000;0.5381;-1.1619;
-60.9000;0.5397;-1.1619;
-60.6000;0.5405;-1.1494;
-60.3000;0.5389;-1.1619;
-60.0000;0.5372;-1.1569;
-59.7000;0.5389;-1.1619;
-59.4000;0.5405;-1.1669;
-59.1000;0.5372;-1.1744;
-58.8000;0.5389;-1.1644;
-58.5000;0.5381;-1.1619;
-58.2000;0.5413;-1.1494;
-57.9000;0.5397;-1.1419;
-57.6000;0.5381;-1.1419;
-57.3000;0.5389;-1.1419;
-57.0000;0.5389;-1.1469;
-56.7000;0.5389;-1.1519;
-56.4000;0.5389;-1.1494;
-56.1000;0.5381;-1.1594;
-55.8000;0.5429;-1.1469;
-55.5000;0.5389;-1.1569;
-55.2000;0.5356;-1.1644;
-54.9000;0.5381;-1.1619;
-54.6000;0.5389;-1.1694;
-54.3000;0.5397;-1.1694;
-54.0000;0.5381;-1.1669;
-53.7000;0.5405;-1.1644;
-53.4000;0.5397;-1.1619;
-53.1000;0.5381;-1.1544;
-52.8000;0.5397;-1.1469;
-52.5000;0.5356;-1.1494;
-52.2000;0.5405;-1.1370;
-51.9000;0.5389;-1.1395;
-51.6000;0.5356;-1.1419;
-51.3000;0.5372;-1.1345;
-51.0000;0.5397;-1.1419;
-50.7000;0.5389;-1.1544;
-50.4000;0.5372;-1.1594;
-50.1000;0.5389;-1.1519;
-49.8000;0.5381;-1.1644;
-49.5000;0.5389;-1.1619;
-49.2000;0.5389;-1.1594;
-48.9000;0.5372;-1.1619;
-48.6000;0.5397;-1.1494;
-48.3000;0.5405;-1.1469;
-48.0000;0.5405;-1.1469;
-47.7000;0.5413;-1.1419;
-47.4000;0.5307;-1.1744;
-47.1000;0.5405;-1.1544;
-46.8000;0.5389;-1.1519;
-46.5000;0.5438;-1.1370;
-46.2000;0.5389;-1.1519;
-45.9000;0.5381;-1.1594;
-45.6000;0.5397;-1.1519;
-45.3000;0.5389;-1.1519;
-45.0000;0.5397;-1.1569;
-44.7000;0.5389;-1.1619;
-44.4000;0.5397;-1.1644;
-44.1000;0.5397;-1.1644;
-43.8000;0.5413;-1.1519;
-43.5000;0.5413;-1.1469;
-43.2000;0.5397;-1.1519;
-42.9000;0.5389;-1.1494;
-42.6000;0.5405;-1.1494;
-42.3000;0.5389;-1.1494;
-42.0000;0.5397;-1.1395;
-41.7000;0.5413;-1.1419;
-41.4000;0.5405;-1.1419;
-41.1000;0.5389;-1.1494;
-40.8000;0.5421;-1.1444;
-40.5000;0.5397;-1.1494;
-40.2000;0.5438;-1.1370;
-39.9000;0.5397;-1.1370;
-39.6000;0.5381;-1.1444;
-39.3000;0.5405;-1.1395;
-39.0000;0.5397;-1.1395;
-38.7000;0.5364;-1.1295;
-38.4000;0.5381;-1.1195;
-38.1000;0.5397;-1.1170;
-37.8000;0.5397;-1.1295;
-37.5000;0.5397;-1.1395;
-37.2000;0.5397;-1.1494;
-36.9000;0.5381;-1.1569;
-36.6000;0.5397;-1.1594;
-36.3000;0.5381;-1.1569;
-36.0000;0.5405;-1.1594;
-35.7000;0.5405;-1.1569;
-35.4000;0.5397;-1.1594;
-35.1000;0.5372;-1.1694;
-34.8000;0.5405;-1.1644;
-34.5000;0.5389;-1.1694;
-34.2000;0.5389;-1.1694;
-33.9000;0.5405;-1.1519;
-33.6000;0.5405;-1.1469;
-33.3000;0.5397;-1.1469;
-33.0000;0.5405;-1.1544;
-32.7000;0.5372;-1.1594;
-32.4000;0.5421;-1.1519;
-32.1000;0.5381;-1.1619;
-31.8000;0.5372;-1.1694;
-31.5000;0.5389;-1.1519;
-31.2000;0.5462;-1.1295;
-30.9000;0.5389;-1.1469;
-30.6000;0.5372;-1.1519;
-30.3000;0.5364;-1.1519;
-30.0000;0.5421;-1.1444;
-29.7000;0.5405;-1.1519;
-29.4000;0.5389;-1.1544;
-29.1000;0.5405;-1.1469;
-28.8000;0.5405;-1.1419;
-28.5000;0.5413;-1.1419;
-28.2000;0.5397;-1.1594;
-27.9000;0.5397;-1.1569;
-27.6000;0.5397;-1.1494;
-27.3000;0.5381;-1.1469;
-27.0000;0.5372;-1.1419;
-26.7000;0.5340;-1.1444;
-26.4000;0.5324;-1.1644;
-26.1000;0.5389;-1.1519;
-25.8000;0.5364;-1.1519;
-25.5000;0.5381;-1.1419;
-25.2000;0.5389;-1.1345;
-24.9000;0.5389;-1.1419;
-24.6000;0.5372;-1.1469;
-24.3000;0.5381;-1.1419;
-24.0000;0.5389;-1.1419;
-23.7000;0.5389;-1.1419;
-23.4000;0.5389;-1.1444;
-23.1000;0.5397;-1.1444;
-22.8000;0.5389;-1.1469;
-22.5000;0.5389;-1.1345;
-22.2000;0.5389;-1.1295;
-21.9000;0.5364;-1.1419;
-21.6000;0.5421;-1.1295;
-21.3000;0.5381;-1.1494;
-21.0000;0.5397;-1.1444;
-20.7000;0.5389;-1.1370;
-20.4000;0.5372;-1.1395;
-20.1000;0.5389;-1.1320;
-19.8000;0.5389;-1.1295;
-19.5000;0.5397;-1.1395;
-19.2000;0.5397;-1.1444;
-18.9000;0.5389;-1.1494;
-18.6000;0.5389;-1.1494;
-18.3000;0.5397;-1.1395;
-18.0000;0.5421;-1.1220;
-17.7000;0.5389;-1.1270;
-17.4000;0.5397;-1.1295;
-17.1000;0.5381;-1.1370;
-16.8000;0.5389;-1.1419;
-16.5000;0.5397;-1.1419;
-16.2000;0.5397;-1.1444;
-15.9000;0.5397;-1.1444;
-15.6000;0.5405;-1.1519;
-15.3000;0.5405;-1.1519;
-15.0000;0.5381;-1.1644;
-14.7000;0.5389;-1.1619;
-14.4000;0.5397;-1.1669;
-14.1000;0.5397;-1.1644;
-13.8000;0.5405;-1.1644;
-13.5000;0.5389;-1.1769;
-13.2000;0.5397;-1.1719;
-12.9000;0.5405;-1.1619;
-12.6000;0.5405;-1.1594;
-12.3000;0.5372;-1.1619;
-12.0000;0.5397;-1.1569;
-11.7000;0.5389;-1.1544;
-11.4000;0.5381;-1.1569;
-11.1000;0.5389;-1.1494;
-10.8000;0.5389;-1.1444;
-10.5000;0.5446;-1.1295;
-10.2000;0.5397;-1.1370;
-9.9000;0.5372;-1.1419;
-9.6000;0.5389;-1.1345;
-9.3000;0.5389;-1.1320;
-9.0000;0.5389;-1.1370;
-8.7000;0.5397;-1.1419;
-8.4000;0.5381;-1.1419;
-8.1000;0.5381;-1.1419;
-7.8000;0.5364;-1.1494;
-7.5000;0.5381;-1.1519;
-7.2000;0.5324;-1.1669;
-6.9000;0.5405;-1.1395;
-6.6000;0.5397;-1.1395;
-6.3000;0.5389;-1.1494;
-6.0000;0.5389;-1.1469;
-5.7000;0.5389;-1.1395;
-5.4000;0.5413;-1.1320;
-5.1000;0.5356;-1.1519;
-4.8000;0.5324;-1.1569;
-4.5000;0.5389;-1.1295;
-4.2000;0.5397;-1.1270;
-3.9000;0.5405;-1.1345;
-3.6000;0.5397;-1.1320;
-3.3000;0.5413;-1.1320;
-3.0000;0.5397;-1.1295;
-2.7000;0.5389;-1.1320;
-2.4000;0.5397;-1.1444;
-2.1000;0.5397;-1.1469;
-1.8000;0.5413;-1.1519;
-1.5000;0.5389;-1.1619;
-1.2000;0.5389;-1.1669;
-0.9000;0.5372;-1.1694;
-0.6000;0.5389;-1.1619;
-0.3000;0.5397;-1.1594;
0.0000;0.5397;-1.1594;
0.3000;0.5600;-1.1419;
0.6000;0.5918;-1.1021;
0.9000;0.6178;-1.0522;
1.2000;0.6374;-1.0173;
1.5000;0.6545;-0.9899;
1.8000;0.6707;-0.9624;
2.1000;0.6797;-0.9574;
2.4000;0.6878;-0.9300;
2.7000;0.6911;-0.9126;
3.0000;0.6943;-0.9076;
3.3000;0.7041;-0.8777;
3.6000;0.7074;-0.8801;
3.9000;0.7066;-0.8826;
4.2000;0.7147;-0.8677;
4.5000;0.7179;-0.8602;
4.8000;0.7204;-0.8552;
5.1000;0.7228;-0.8452;
5.4000;0.7269;-0.8378;
5.7000;0.7285;-0.8303;
6.0000;0.7285;-0.8378;
6.3000;0.7310;-0.8328;
6.6000;0.7350;-0.8153;
6.9000;0.7367;-0.8103;
7.2000;0.7464;-0.7979;
7.5000;0.7432;-0.8153;
7.8000;0.7440;-0.8103;
8.1000;0.7464;-0.8053;
8.4000;0.7586;-0.7854;
8.7000;0.7505;-0.8203;
9.0000;0.7513;-0.8278;
9.3000;0.7578;-0.8153;
9.6000;0.7578;-0.8203;
9.9000;0.7578;-0.8253;
10.2000;0.7635;-0.8178;
10.5000;0.7603;-0.8303;
10.8000;0.7627;-0.8303;
11.1000;0.7627;-0.8378;
11.4000;0.7668;-0.8278;
11.7000;0.7660;-0.8303;
12.0000;0.7684;-0.8278;
12.3000;0.7700;-0.8178;
12.6000;0.7717;-0.8228;
12.9000;0.7725;-0.8403;
13.2000;0.7733;-0.8378;
13.5000;0.7749;-0.8403;
13.8000;0.7766;-0.8353;
14.1000;0.7790;-0.8353;
14.4000;0.7766;-0.8378;
14.7000;0.7782;-0.8452;
15.0000;0.7831;-0.8253;
15.3000;0.7823;-0.8253;
15.6000;0.7814;-0.8328;
15.9000;0.7823;-0.8378;
16.2000;0.7863;-0.8378;
16.5000;0.7831;-0.8477;
16.8000;0.7839;-0.8403;
17.1000;0.7814;-0.8552;
17.4000;0.7888;-0.8427;
17.7000;0.7920;-0.8403;
18.0000;0.7896;-0.8527;
18.3000;0.7896;-0.8602;
18.6000;0.7888;-0.8652;
18.9000;0.7928;-0.8502;
19.2000;0.7937;-0.8452;
19.5000;0.7961;-0.8452;
19.8000;0.7961;-0.8527;
20.1000;0.7961;-0.8552;
20.4000;0.8034;-0.8452;
20.7000;0.7977;-0.8627;
21.0000;0.7977;-0.8602;
21.3000;0.7920;-0.8752;
21.6000;0.8026;-0.8552;
21.9000;0.8010;-0.8552;
22.2000;0.8010;-0.8602;
22.5000;0.7969;-0.8677;
22.8000;0.8034;-0.8527;
23.1000;0.8034;-0.8527;
23.4000;0.8034;-0.8452;
23.7000;0.8059;-0.8452;
24.0000;0.8067;-0.8403;
24.3000;0.8067;-0.8477;
24.6000;0.8083;-0.8427;
24.9000;0.8091;-0.8378;
25.2000;0.8050;-0.8577;
25.5000;0.8091;-0.8502;
25.8000;0.8075;-0.8577;
26.1000;0.8075;-0.8602;
26.4000;0.8132;-0.8452;
26.7000;0.8107;-0.8477;
27.0000;0.8042;-0.8552;
27.3000;0.8099;-0.8502;
27.6000;0.8099;-0.8602;
27.9000;0.8116;-0.8677;
28.2000;0.8132;-0.8602;
28.5000;0.8132;-0.8677;
28.8000;0.8132;-0.8677;
29.1000;0.8124;-0.8627;
29.4000;0.8107;-0.8577;
29.7000;0.8132;-0.8552;
30.0000;0.8148;-0.8552;
30.3000;0.8148;-0.8602;
30.6000;0.8156;-0.8577;
30.9000;0.8140;-0.8652;
31.2000;0.8164;-0.8602;
31.5000;0.8173;-0.8602;
31.8000;0.8156;-0.8677;
32.1000;0.8181;-0.8677;
32.4000;0.8189;-0.8727;
32.7000;0.8173;-0.8652;
33.0000;0.8181;-0.8627;
33.3000;0.8238;-0.8452;
33.6000;0.8205;-0.8502;
33.9000;0.8230;-0.8477;
34.2000;0.8230;-0.8527;
34.5000;0.8189;-0.8552;
34.8000;0.8197;-0.8452;
35.1000;0.8197;-0.8328;
35.4000;0.8156;-0.8452;
35.7000;0.8197;-0.8353;
36.0000;0.8221;-0.8403;
36.3000;0.8262;-0.8378;
36.6000;0.8221;-0.8552;
36.9000;0.8221;-0.8627;
37.2000;0.8221;-0.8602;
37.5000;0.8213;-0.8602;
37.8000;0.8295;-0.8477;
38.1000;0.8270;-0.8552;
38.4000;0.8197;-0.8727;
38.7000;0.8173;-0.8801;
39.0000;0.8254;-0.8602;
39.3000;0.8230;-0.8602;
39.6000;0.8205;-0.8752;
39.9000;0.8205;-0.8851;
40.2000;0.8238;-0.8752;
40.5000;0.8287;-0.8702;
40.8000;0.8254;-0.8901;
41.1000;0.8287;-0.8777;
41.4000;0.8254;-0.8777;
41.7000;0.8278;-0.8652;
42.0000;0.8295;-0.8602;
42.3000;0.8278;-0.8677;
42.6000;0.8278;-0.8652;
42.9000;0.8287;-0.8702;
43.2000;0.8278;-0.8727;
43.5000;0.8344;-0.8652;
43.8000;0.8303;-0.8777;
44.1000;0.8262;-0.8901;
44.4000;0.8327;-0.8727;
44.7000;0.8335;-0.8627;
45.0000;0.8319;-0.8727;
45.3000;0.8327;-0.8727;
45.6000;0.8319;-0.8677;
45.9000;0.8303;-0.8677;
46.2000;0.8295;-0.8727;
46.5000;0.8270;-0.8826;
46.8000;0.8303;-0.8801;
47.1000;0.8311;-0.8777;
47.4000;0.8311;-0.8777;
47.7000;0.8319;-0.8851;
48.0000;0.8327;-0.8777;
48.3000;0.8335;-0.8777;
48.6000;0.8344;-0.8801;
48.9000;0.8335;-0.8826;
49.2000;0.8319;-0.8826;
49.5000;0.8352;-0.8801;
49.8000;0.8335;-0.8752;
50.1000;0.8335;-0.8777;
50.4000;0.8335;-0.8801;
50.7000;0.8344;-0.8777;
51.0000;0.8352;-0.8727;
51.3000;0.8360;-0.8752;
51.6000;0.8344;-0.8826;
51.9000;0.8344;-0.8876;
52.2000;0.8344;-0.8876;
52.5000;0.8352;-0.8976;
52.8000;0.8352;-0.9001;
53.1000;0.8352;-0.8926;
53.4000;0.8360;-0.8976;
53.7000;0.8352;-0.9051;
54.0000;0.8360;-0.9101;
54.3000;0.8376;-0.9001;
54.6000;0.8376;-0.9026;
54.9000;0.8384;-0.9026;
55.2000;0.8376;-0.8976;
55.5000;0.8392;-0.9001;
55.8000;0.8376;-0.8976;
56.1000;0.8376;-0.9051;
56.4000;0.8392;-0.9051;
56.7000;0.8384;-0.8976;
57.0000;0.8384;-0.8976;
57.3000;0.8376;-0.9101;
57.6000;0.8376;-0.9200;
57.9000;0.8384;-0.9275;
58.2000;0.8344;-0.9325;
58.5000;0.8400;-0.9126;
58.8000;0.8376;-0.9151;
59.1000;0.8400;-0.9126;
59.4000;0.8400;-0.9175;
59.7000;0.8425;-0.9175;
60.0000;0.8409;-0.9200;
60.3000;0.8425;-0.9126;
60.6000;0.8466;-0.9126;
60.9000;0.8409;-0.9250;
61.2000;0.8409;-0.9225;
61.5000;0.8539;-0.8801;
61.8000;0.8417;-0.9026;
62.1000;0.8433;-0.8976;
62.4000;0.8368;-0.9126;
62.7000;0.8400;-0.9101;
63.0000;0.8425;-0.9001;
63.3000;0.8514;-0.8851;
63.6000;0.8433;-0.8926;
63.9000;0.8392;-0.9001;
64.2000;0.8409;-0.9001;
64.5000;0.8425;-0.8901;
64.8000;0.8433;-0.8901;
65.1000;0.8441;-0.8901;
65.4000;0.8400;-0.9076;
65.7000;0.8433;-0.9101;
66.0000;0.8441;-0.9126;
66.3000;0.8449;-0.9101;
66.6000;0.8433;-0.9126;
66.9000;0.8417;-0.9101;
67.2000;0.8441;-0.9026;
67.5000;0.8441;-0.8926;
67.8000;0.8417;-0.8901;
68.1000;0.8409;-0.9001;
68.4000;0.8441;-0.8951;
68.7000;0.8482;-0.8901;
69.0000;0.8441;-0.8951;
69.3000;0.8441;-0.9051;
69.6000;0.8457;-0.9001;
69.9000;0.8417;-0.9175;
70.2000;0.8457;-0.9076;
70.5000;0.8466;-0.8976;
70.8000;0.8449;-0.8951;
71.1000;0.8466;-0.8801;
71.4000;0.8441;-0.8826;
71.7000;0.8449;-0.8926;
72.0000;0.8433;-0.9001;
72.3000;0.8449;-0.8926;
72.6000;0.8466;-0.8876;
72.9000;0.8449;-0.8901;
73.2000;0.8457;-0.8851;
73.5000;0.8466;-0.8901;
73.8000;0.8457;-0.8926;
74.1000;0.8482;-0.8926;
74.4000;0.8466;-0.9026;
74.7000;0.8457;-0.9101;
75.0000;0.8482;-0.9001;
75.3000;0.8482;-0.9051;
75.6000;0.8482;-0.9026;
75.9000;0.8490;-0.9001;
76.2000;0.8466;-0.9101;
76.5000;0.8506;-0.9051;
76.8000;0.8457;-0.9126;
77.1000;0.8457;-0.9225;
77.4000;0.8490;-0.9151;
77.7000;0.8466;-0.9175;
78.0000;0.8482;-0.9151;
78.3000;0.8474;-0.9200;
78.6000;0.8482;-0.9225;
78.9000;0.8498;-0.9151;
79.2000;0.8490;-0.9175;
79.5000;0.8514;-0.9151;
79.8000;0.8490;-0.9225;
80.1000;0.8514;-0.9250;
80.4000;0.8506;-0.9200;
80.7000;0.8474;-0.9325;
81.0000;0.8482;-0.9325;
81.3000;0.8449;-0.9375;
81.6000;0.8490;-0.9325;
81.9000;0.8490;-0.9325;
82.2000;0.8490;-0.9275;
82.5000;0.8523;-0.9126;
82.8000;0.8612;-0.8876;
83.1000;0.8466;-0.9250;
83.4000;0.8539;-0.9151;
83.7000;0.8506;-0.9151;
84.0000;0.8523;-0.9175;
84.3000;0.8474;-0.9400;
84.6000;0.8498;-0.9300;
84.9000;0.8563;-0.9175;
85.2000;0.8547;-0.9300;
85.5000;0.8498;-0.9400;
85.8000;0.8441;-0.9649;
86.1000;0.8506;-0.9425;
86.4000;0.8531;-0.9350;
86.7000;0.8571;-0.9151;
87.0000;0.8482;-0.9325;
87.3000;0.8514;-0.9375;
87.6000;0.8523;-0.9350;
87.9000;0.8539;-0.9400;
88.2000;0.8523;-0.9500;
88.5000;0.8531;-0.9475;
88.8000;0.8539;-0.9375;
89.1000;0.8531;-0.9400;
89.4000;0.8547;-0.9450;
89.7000;0.8539;-0.9375;
90.0000;0.8523;-0.9300;
90.3000;0.8563;-0.9200;
90.6000;0.8531;-0.9200;
90.9000;0.8523;-0.9375;
91.2000;0.8547;-0.9375;
91.5000;0.8547;-0.9350;
91.8000;0.8531;-0.9275;
92.1000;0.8523;-0.9300;
92.4000;0.8539;-0.9275;
92.7000;0.8523;-0.9300;
93.0000;0.8539;-0.9250;
93.3000;0.8531;-0.9225;
93.6000;0.8514;-0.9225;
93.9000;0.8563;-0.9151;
94.2000;0.8539;-0.9175;
94.5000;0.8539;-0.9175;
94.8000;0.8523;-0.9225;
95.1000;0.8547;-0.9275;
95.4000;0.8539;-0.9250;
95.7000;0.8514;-0.9151;
96.0000;0.8547;-0.9101;
96.3000;0.8539;-0.9200;
96.6000;0.8563;-0.9200;
96.9000;0.8555;-0.9375;
97.2000;0.8547;-0.9325;
97.5000;0.8539;-0.9350;
97.8000;0.8547;-0.9350;
98.1000;0.8482;-0.9450;
98.4000;0.8539;-0.9350;
98.7000;0.8539;-0.9375;
99.0000;0.8547;-0.9400;
99.3000;0.8531;-0.9425;
99.6000;0.8547;-0.9375;
99.9000;0.8531;-0.9500;
100.2000;0.8555;-0.9549;
100.5000;0.8563;-0.9475;
100.8000;0.8563;-0.9500;
101.1000;0.8539;-0.9500;
101.4000;0.8580;-0.9400;
101.7000;0.8571;-0.9325;
102.0000;0.8571;-0.9325;
102.3000;0.8555;-0.9275;
102.6000;0.8563;-0.9350;
102.9000;0.8563;-0.9325;
103.2000;0.8588;-0.9275;
103.5000;0.8571;-0.9325;
103.8000;0.8539;-0.9450;
104.1000;0.8571;-0.9450;
104.4000;0.8588;-0.9325;
104.7000;0.8563;-0.9350;
105.0000;0.8547;-0.9275;
105.3000;0.8571;-0.9200;
105.6000;0.8563;-0.9175;
105.9000;0.8555;-0.9200;
106.2000;0.8555;-0.9200;
106.5000;0.8547;-0.9250;
106.8000;0.8547;-0.9200;
107.1000;0.8539;-0.9275;
107.4000;0.8563;-0.9200;
107.7000;0.8563;-0.9225;
108.0000;0.8547;-0.9225;
108.3000;0.8555;-0.9250;
108.6000;0.8531;-0.9325;
108.9000;0.8571;-0.9300;
109.2000;0.8563;-0.9275;
109.5000;0.8563;-0.9400;
109.8000;0.8555;-0.9425;
110.1000;0.8604;-0.9275;
110.4000;0.8523;-0.9450;
110.7000;0.8563;-0.9300;
111.0000;0.8620;-0.9200;
111.3000;0.8563;-0.9475;
111.6000;0.8563;-0.9375;
111.9000;0.8571;-0.9300;
112.2000;0.8580;-0.9225;
112.5000;0.8547;-0.9375;
112.8000;0.8588;-0.9250;
113.1000;0.8612;-0.9126;
113.4000;0.8588;-0.9275;
113.7000;0.8523;-0.9400;
114.0000;0.8580;-0.9250;
114.3000;0.8580;-0.9325;
114.6000;0.8531;-0.9350;
114.9000;0.8596;-0.9126;
115.2000;0.8588;-0.9051;
115.5000;0.8620;-0.9051;
115.8000;0.8596;-0.9175;
116.1000;0.8563;-0.9250;
116.4000;0.8669;-0.9026;
116.7000;0.8580;-0.9225;
117.0000;0.8547;-0.9375;
117.3000;0.8571;-0.9300;
117.6000;0.8604;-0.9225;
117.9000;0.8555;-0.9300;
118.2000;0.8588;-0.9250;
118.5000;0.8628;-0.9175;
118.8000;0.8539;-0.9500;
119.1000;0.8596;-0.9475;
119.4000;0.8596;-0.9525;
119.7000;0.8580;-0.9475;
120.0000;0.8612;-0.9400;
120.3000;0.8588;-0.9500;
120.6000;0.8596;-0.9400;
120.9000;0.8588;-0.9425;
121.2000;0.8571;-0.9350;
121.5000;0.8555;-0.9300;
121.8000;0.8596;-0.9275;
122.1000;0.8596;-0.9325;
122.4000;0.8571;-0.9325;
122.7000;0.8563;-0.9325;
123.0000;0.8645;-0.9126;
123.3000;0.8555;-0.9350;
123.6000;0.8596;-0.9250;
123.9000;0.8571;-0.9225;
124.2000;0.8571;-0.9275;
124.5000;0.8580;-0.9151;
124.8000;0.8588;-0.9101;
125.1000;0.8580;-0.9051;
125.4000;0.8588;-0.9101;
125.7000;0.8604;-0.9151;
126.0000;0.8588;-0.9126;
126.3000;0.8580;-0.9250;
126.6000;0.8596;-0.9225;
126.9000;0.8588;-0.9325;
127.2000;0.8555;-0.9475;
127.5000;0.8571;-0.9450;
127.8000;0.8588;-0.9450;
128.1000;0.8628;-0.9325;
128.4000;0.8531;-0.9525;
128.7000;0.8580;-0.9475;
129.0000;0.8563;-0.9475;
129.3000;0.8580;-0.9425;
129.6000;0.8596;-0.9300;
129.9000;0.8580;-0.9350;
130.2000;0.8620;-0.9225;
130.5000;0.8588;-0.9325;
130.8000;0.8588;-0.9325;
131.1000;0.8596;-0.9250;
131.4000;0.8588;-0.9250;
131.7000;0.8596;-0.9250;
132.0000;0.8596;-0.9200;
132.3000;0.8669;-0.9076;
132.6000;0.8588;-0.9250;
132.9000;0.8588;-0.9350;
133.2000;0.8588;-0.9350;
133.5000;0.8580;-0.9325;
133.8000;0.8604;-0.9151;
134.1000;0.8571;-0.9325;
134.4000;0.8628;-0.9250;
134.7000;0.8612;-0.9275;
135.0000;0.8612;-0.9200;
135.3000;0.8555;-0.9325;
135.6000;0.8563;-0.9300;
135.9000;0.8596;-0.9200;
136.2000;0.8539;-0.9151;
136.5000;0.8580;-0.9026;
136.8000;0.8580;-0.9051;
137.1000;0.8620;-0.9051;
137.4000;0.8637;-0.9051;
137.7000;0.8563;-0.9200;
138.0000;0.8596;-0.9126;
138.3000;0.8620;-0.9076;
138.6000;0.8596;-0.9126;
138.9000;0.8604;-0.9126;
139.2000;0.8628;-0.9101;
139.5000;0.8523;-0.9300;
139.8000;0.8604;-0.9076;
140.1000;0.8580;-0.9151;
140.4000;0.8604;-0.9026;
140.7000;0.8588;-0.9051;
141.0000;0.8588;-0.9026;
141.3000;0.8612;-0.8901;
141.6000;0.8596;-0.8976;
141.9000;0.8571;-0.9051;
142.2000;0.8604;-0.9051;
142.5000;0.8588;-0.9051;
142.8000;0.8628;-0.8901;
143.1000;0.8571;-0.9001;
143.4000;0.8571;-0.9026;
143.7000;0.8604;-0.9026;
144.0000;0.8588;-0.9151;
144.3000;0.8596;-0.9275;
144.6000;0.8588;-0.9275;
144.9000;0.8563;-0.9225;
145.2000;0.8588;-0.9175;
145.5000;0.8596;-0.9225;
145.8000;0.8580;-0.9275;
146.1000;0.8563;-0.9375;
146.4000;0.8588;-0.9200;
146.7000;0.8596;-0.9175;
147.0000;0.8596;-0.9151;
147.3000;0.8612;-0.9051;
147.6000;0.8620;-0.9001;
147.9000;0.8580;-0.9175;
148.2000;0.8612;-0.9126;
148.5000;0.8588;-0.9076;
148.8000;0.8588;-0.8976;
149.1000;0.8588;-0.9001;
149.4000;0.8596;-0.9076;
149.7000;0.8596;-0.9101;
150.0000;0.8588;-0.9101;
150.3000;0.8588;-0.9051;
150.6000;0.8580;-0.9126;
150.9000;0.8588;-0.9076;
151.2000;0.8588;-0.9151;
151.5000;0.8604;-0.9151;
151.8000;0.8588;-0.9175;
152.1000;0.8604;-0.9175;
152.4000;0.8677;-0.9001;
152.7000;0.8580;-0.9225;
153.0000;0.8612;-0.9151;
153.3000;0.8580;-0.9151;
153.6000;0.8596;-0.9126;
153.9000;0.8596;-0.9175;
154.2000;0.8604;-0.9151;
154.5000;0.8571;-0.9175;
154.8000;0.8588;-0.9200;
155.1000;0.8604;-0.9200;
155.4000;0.8661;-0.9001;
155.7000;0.8571;-0.9225;
156.0000;0.8588;-0.9151;
156.3000;0.8628;-0.9076;
156.6000;0.8620;-0.9101;
156.9000;0.8596;-0.9200;
157.2000;0.8604;-0.9126;
157.5000;0.8612;-0.9026;
157.8000;0.8612;-0.9001;
158.1000;0.8580;-0.9026;
158.4000;0.8580;-0.9051;
158.7000;0.8596;-0.9076;
159.0000;0.8580;-0.9101;
159.3000;0.8604;-0.9101;
159.6000;0.8596;-0.9151;
159.9000;0.8604;-0.9101;
160.2000;0.8596;-0.9126;
160.5000;0.8669;-0.9001;
160.8000;0.8596;-0.9126;
161.1000;0.8580;-0.9200;
161.4000;0.8620;-0.8926;
161.7000;0.8620;-0.8926;
162.0000;0.8612;-0.8976;
162.3000;0.8596;-0.9051;
162.6000;0.8588;-0.8976;
162.9000;0.8596;-0.8876;
163.2000;0.8628;-0.8876;
163.5000;0.8596;-0.9051;
163.8000;0.8588;-0.9126;
164.1000;0.8596;-0.9076;
164.4000;0.8563;-0.9151;
164.7000;0.8596;-0.9126;
165.0000;0.8571;-0.9175;
165.3000;0.8571;-0.9200;
165.6000;0.8588;-0.9200;
165.9000;0.8604;-0.9151;
166.2000;0.8580;-0.9225;
166.5000;0.8547;-0.9275;
166.8000;0.8604;-0.9151;
167.1000;0.8612;-0.9126;
167.4000;0.8604;-0.9076;
167.7000;0.8612;-0.9101;
168.0000;0.8620;-0.9026;
168.3000;0.8596;-0.9151;
168.6000;0.8596;-0.9151;
168.9000;0.8604;-0.9126;
169.2000;0.8588;-0.9076;
169.5000;0.8580;-0.9101;
169.8000;0.8604;-0.9051;
170.1000;0.8604;-0.8951;
170.4000;0.8596;-0.8976;
170.7000;0.8612;-0.8901;
171.0000;0.8506;-0.9275;
171.3000;0.8604;-0.9051;
171.6000;0.8620;-0.9051;
171.9000;0.8563;-0.9076;
172.2000;0.8571;-0.9001;
172.5000;0.8612;-0.8901;
172.8000;0.8604;-0.8876;
173.1000;0.8596;-0.9026;
173.4000;0.8637;-0.8976;
173.7000;0.8580;-0.9051;
174.0000;0.8555;-0.9200;
174.3000;0.8596;-0.9126;
174.6000;0.8596;-0.9126;
174.9000;0.8596;-0.9151;
175.2000;0.8580;-0.9175;
175.5000;0.8620;-0.9101;
175.8000;0.8563;-0.9175;
176.1000;0.8580;-0.9101;
176.4000;0.8563;-0.9101;
176.7000;0.8588;-0.8926;
177.0000;0.8596;-0.8926;
177.3000;0.8523;-0.9051;
177.6000;0.8563;-0.8851;
177.9000;0.8596;-0.8826;
178.2000;0.8604;-0.8876;
178.5000;0.8596;-0.9001;
178.8000;0.8555;-0.9076;
179.1000;0.8547;-0.9126;
179.4000;0.8580;-0.9126;
179.7000;0.8596;-0.9101;
180.0000;0.8563;-0.9200;
180.3000;0.8588;-0.9101;
180.6000;0.8612;-0.9076;
180.9000;0.8604;-0.8951;
181.2000;0.8588;-0.9026;
181.5000;0.8596;-0.8901;
181.8000;0.8612;-0.8901;
182.1000;0.8588;-0.8926;
182.4000;0.8588;-0.9051;
182.7000;0.8588;-0.9076;
183.0000;0.8571;-0.9051;
183.3000;0.8604;-0.9001;
183.6000;0.8604;-0.9051;
183.9000;0.8596;-0.9151;
184.2000;0.8628;-0.9101;
184.5000;0.8596;-0.9051;
184.8000;0.8604;-0.9026;
185.1000;0.8547;-0.9200;
185.4000;0.8580;-0.9175;
185.7000;0.8604;-0.9126;
186.0000;0.8563;-0.9200;
186.3000;0.8580;-0.9151;
186.6000;0.8482;-0.9400;
186.9000;0.8580;-0.9126;
187.2000;0.8580;-0.8976;
187.5000;0.8596;-0.8876;
187.8000;0.8571;-0.8926;
188.1000;0.8588;-0.8951;
188.4000;0.8588;-0.8851;
188.7000;0.8580;-0.8851;
189.0000;0.8563;-0.8752;
189.3000;0.8571;-0.8727;
189.6000;0.8580;-0.8777;
189.9000;0.8596;-0.8801;
190.2000;0.8588;-0.8876;
190.5000;0.8571;-0.8851;
190.8000;0.8612;-0.8702;
191.1000;0.8604;-0.8777;
191.4000;0.8596;-0.8727;
191.7000;0.8596;-0.8801;
192.0000;0.8596;-0.8926;
192.3000;0.8612;-0.8926;
192.6000;0.8596;-0.9001;
192.9000;0.8596;-0.8976;
193.2000;0.8588;-0.9001;
193.5000;0.8604;-0.8901;
193.8000;0.8580;-0.8901;
194.1000;0.8596;-0.8752;
194.4000;0.8596;-0.8777;
194.7000;0.8596;-0.8752;
195.0000;0.8604;-0.8777;
195.3000;0.8580;-0.8851;
195.6000;0.8588;-0.8901;
195.9000;0.8580;-0.8826;
196.2000;0.8612;-0.8801;
196.5000;0.8596;-0.8876;
196.8000;0.8571;-0.8926;
197.1000;0.8588;-0.8901;
197.4000;0.8563;-0.8976;
197.7000;0.8604;-0.8801;
198.0000;0.8580;-0.8826;
198.3000;0.8555;-0.8976;
198.6000;0.8588;-0.9001;
198.9000;0.8588;-0.9126;
199.2000;0.8531;-0.9225;
199.5000;0.8588;-0.9051;
199.8000;0.8588;-0.9051;
200.1000;0.8588;-0.9001;
200.4000;0.8580;-0.8951;
200.7000;0.8580;-0.8951;
201.0000;0.8596;-0.8926;
201.3000;0.8612;-0.8926;
201.6000;0.8612;-0.9026;
201.9000;0.8596;-0.9051;
202.2000;0.8596;-0.9051;
202.5000;0.8596;-0.9026;
202.8000;0.8604;-0.8951;
203.1000;0.8588;-0.9026;
203.4000;0.8596;-0.8976;
203.7000;0.8571;-0.8976;
204.0000;0.8596;-0.9026;
204.3000;0.8596;-0.9101;
204.6000;0.8612;-0.9101;
204.9000;0.8588;-0.9225;
205.2000;0.8596;-0.9151;
205.5000;0.8604;-0.9200;
205.8000;0.8588;-0.9151;
206.1000;0.8596;-0.9076;
206.4000;0.8588;-0.9051;
206.7000;0.8547;-0.9126;
207.0000;0.8555;-0.9151;
207.3000;0.8596;-0.9076;
207.6000;0.8604;-0.9051;
207.9000;0.8612;-0.8951;
208.2000;0.8588;-0.8976;
208.5000;0.8580;-0.8951;
208.8000;0.8588;-0.8926;
209.1000;0.8596;-0.8951;
209.4000;0.8580;-0.8951;
209.7000;0.8482;-0.9175;
210.0000;0.8612;-0.8876;
210.3000;0.8596;-0.8951;
210.6000;0.8563;-0.9026;
210.9000;0.8571;-0.9001;
211.2000;0.8580;-0.8826;
211.5000;0.8588;-0.8826;
211.8000;0.8653;-0.8577;
212.1000;0.8580;-0.8801;
212.4000;0.8596;-0.8777;
212.7000;0.8580;-0.8752;
213.0000;0.8596;-0.8777;
213.3000;0.8580;-0.8777;
213.6000;0.8588;-0.8777;
213.9000;0.8604;-0.8752;
214.2000;0.8596;-0.8727;
214.5000;0.8596;-0.8727;
214.8000;0.8571;-0.8801;
215.1000;0.8588;-0.8727;
215.4000;0.8588;-0.8801;
215.7000;0.8596;-0.8826;
216.0000;0.8596;-0.8851;
216.3000;0.8604;-0.8777;
216.6000;0.8604;-0.8777;
216.9000;0.8588;-0.8901;
217.2000;0.8555;-0.8926;
217.5000;0.8588;-0.8876;
217.8000;0.8588;-0.8801;
218.1000;0.8588;-0.8801;
218.4000;0.8588;-0.8901;
218.7000;0.8580;-0.8901;
219.0000;0.8580;-0.8851;
219.3000;0.8620;-0.8727;
219.6000;0.8604;-0.8851;
219.9000;0.8588;-0.8926;
220.2000;0.8588;-0.8926;
220.5000;0.8588;-0.8851;
220.8000;0.8588;-0.8901;
221.1000;0.8555;-0.9076;
221.4000;0.8596;-0.8976;
221.7000;0.8571;-0.9126;
222.0000;0.8571;-0.9101;
222.3000;0.8580;-0.9101;
222.6000;0.8563;-0.9051;
222.9000;0.8563;-0.9051;
223.2000;0.8580;-0.9101;
223.5000;0.8580;-0.9101;
223.8000;0.8563;-0.9101;
224.1000;0.8580;-0.9026;
224.4000;0.8588;-0.8976;
224.7000;0.8588;-0.8926;
225.0000;0.8588;-0.8851;
225.3000;0.8580;-0.8851;
225.6000;0.8580;-0.8876;
225.9000;0.8571;-0.8926;
226.2000;0.8596;-0.8926;
226.5000;0.8580;-0.8926;
226.8000;0.8604;-0.8901;
227.1000;0.8596;-0.8926;
227.4000;0.8588;-0.8976;
227.7000;0.8588;-0.9001;
228.0000;0.8580;-0.8951;
228.3000;0.8555;-0.8951;
228.6000;0.8580;-0.8876;
228.9000;0.8580;-0.8777;
229.2000;0.8547;-0.8826;
229.5000;0.8620;-0.8677;
229.8000;0.8580;-0.8727;
230.1000;0.8531;-0.8851;
230.4000;0.8571;-0.8826;
230.7000;0.8596;-0.9001;
231.0000;0.8580;-0.9026;
231.3000;0.8523;-0.9076;
231.6000;0.8571;-0.8976;
231.9000;0.8588;-0.8901;
232.2000;0.8637;-0.8876;
232.5000;0.8523;-0.9001;
232.8000;0.8539;-0.8976;
233.1000;0.8580;-0.8851;
233.4000;0.8669;-0.8752;
233.7000;0.8539;-0.9076;
234.0000;0.8563;-0.8951;
234.3000;0.8514;-0.9076;
234.6000;0.8563;-0.8876;
234.9000;0.8669;-0.8627;
235.2000;0.8588;-0.8801;
235.5000;0.8547;-0.8951;
235.8000;0.8612;-0.8851;
236.1000;0.8571;-0.9026;
236.4000;0.8571;-0.8951;
236.7000;0.8555;-0.9026;
237.0000;0.8555;-0.9076;
237.3000;0.8571;-0.9126;
237.6000;0.8580;-0.9051;
237.9000;0.8563;-0.9126;
238.2000;0.8547;-0.9151;
238.5000;0.8563;-0.9076;
238.8000;0.8555;-0.9051;
239.1000;0.8555;-0.9076;
239.4000;0.8563;-0.9076;
239.7000;0.8571;-0.9026;
240.0000;0.8563;-0.9051;
240.3000;0.8580;-0.8976;
240.6000;0.8555;-0.9051;
240.9000;0.8596;-0.8976;
241.2000;0.8555;-0.9026;
241.5000;0.8580;-0.9001;
241.8000;0.8555;-0.9051;
242.1000;0.8571;-0.8951;
242.4000;0.8563;-0.8976;
242.7000;0.8555;-0.8926;
243.0000;0.8571;-0.8876;
243.3000;0.8555;-0.8876;
243.6000;0.8563;-0.8876;
243.9000;0.8571;-0.8851;
244.2000;0.8571;-0.8951;
244.5000;0.8514;-0.9101;
244.8000;0.8539;-0.9076;
245.1000;0.8563;-0.9051;
245.4000;0.8580;-0.8951;
245.7000;0.8580;-0.8951;
246.0000;0.8571;-0.8901;
246.3000;0.8571;-0.8801;
246.6000;0.8563;-0.8926;
246.9000;0.8604;-0.8901;
247.2000;0.8571;-0.9001;
247.5000;0.8563;-0.9001;
247.8000;0.8571;-0.9026;
248.1000;0.8571;-0.8901;
248.4000;0.8555;-0.8926;
248.7000;0.8547;-0.8951;
249.0000;0.8563;-0.8801;
249.3000;0.8514;-0.8901;
249.6000;0.8563;-0.8801;
249.9000;0.8555;-0.8826;
250.2000;0.8466;-0.8976;
250.5000;0.8523;-0.8851;
250.8000;0.8563;-0.8777;
251.1000;0.8563;-0.8727;
251.4000;0.8588;-0.8727;
251.7000;0.8547;-0.8826;
252.0000;0.8563;-0.8826;
252.3000;0.8539;-0.8901;
252.6000;0.8580;-0.8851;
252.9000;0.8547;-0.9026;
253.2000;0.8563;-0.8976;
253.5000;0.8596;-0.8976;
253.8000;0.8563;-0.9001;
254.1000;0.8563;-0.8976;
254.4000;0.8563;-0.8901;
254.7000;0.8555;-0.9001;
255.0000;0.8571;-0.8826;
255.3000;0.8531;-0.8901;
255.6000;0.8514;-0.8851;
255.9000;0.8555;-0.8752;
256.2000;0.8547;-0.8851;
256.5000;0.8580;-0.8777;
256.8000;0.8555;-0.8876;
257.1000;0.8539;-0.8976;
257.4000;0.8539;-0.8976;
257.7000;0.8563;-0.9001;
258.0000;0.8563;-0.8976;
258.3000;0.8563;-0.9051;
258.6000;0.8563;-0.9001;
258.9000;0.8563;-0.8951;
259.2000;0.8555;-0.8976;
259.5000;0.8547;-0.8951;
259.8000;0.8539;-0.9026;
260.1000;0.8547;-0.9076;
260.4000;0.8539;-0.9175;
260.7000;0.8580;-0.9126;
261.0000;0.8580;-0.9026;
261.3000;0.8563;-0.9026;
261.6000;0.8580;-0.8901;
261.9000;0.8563;-0.8876;
262.2000;0.8580;-0.8777;
262.5000;0.8571;-0.8801;
262.8000;0.8563;-0.8777;
263.1000;0.8539;-0.8851;
263.4000;0.8547;-0.8951;
263.7000;0.8571;-0.8951;
264.0000;0.8604;-0.8901;
264.3000;0.8571;-0.9076;
264.6000;0.8571;-0.9026;
264.9000;0.8563;-0.8976;
265.2000;0.8571;-0.8926;
265.5000;0.8596;-0.8777;
265.8000;0.8547;-0.8851;
266.1000;0.8563;-0.8727;
266.4000;0.8555;-0.8727;
266.7000;0.8580;-0.8702;
267.0000;0.8563;-0.8677;
267.3000;0.8514;-0.8752;
267.6000;0.8563;-0.8727;
267.9000;0.8547;-0.8851;
268.2000;0.8620;-0.8627;
268.5000;0.8539;-0.8851;
268.8000;0.8563;-0.8826;
269.1000;0.8563;-0.8801;
269.4000;0.8571;-0.8777;
269.7000;0.8555;-0.8826;
270.0000;0.8523;-0.8901;
270.3000;0.8539;-0.8801;
270.6000;0.8555;-0.8801;
270.9000;0.8588;-0.8777;
271.2000;0.8547;-0.8826;
271.5000;0.8523;-0.8826;
271.8000;0.8547;-0.8752;
272.1000;0.8547;-0.8727;
272.4000;0.8547;-0.8752;
272.7000;0.8547;-0.8702;
273.0000;0.8555;-0.8702;
273.3000;0.8563;-0.8702;
273.6000;0.8571;-0.8702;
273.9000;0.8563;-0.8677;
274.2000;0.8653;-0.8502;
274.5000;0.8555;-0.8727;
274.8000;0.8555;-0.8752;
275.1000;0.8555;-0.8702;
275.4000;0.8555;-0.8677;
275.7000;0.8571;-0.8652;
276.0000;0.8555;-0.8702;
276.3000;0.8571;-0.8652;
276.6000;0.8555;-0.8727;
276.9000;0.8563;-0.8777;
277.2000;0.8563;-0.8851;
277.5000;0.8523;-0.9026;
277.8000;0.8555;-0.8951;
278.1000;0.8482;-0.9101;
278.4000;0.8547;-0.8951;
278.7000;0.8539;-0.8951;
279.0000;0.8490;-0.9101;
279.3000;0.8604;-0.8801;
279.6000;0.8555;-0.8901;
279.9000;0.8555;-0.8876;
280.2000;0.8555;-0.8876;
280.5000;0.8555;-0.8876;
280.8000;0.8555;-0.8926;
281.1000;0.8555;-0.8826;
281.4000;0.8555;-0.8901;
281.7000;0.8580;-0.8801;
282.0000;0.8563;-0.8777;
282.3000;0.8555;-0.8876;
282.6000;0.8539;-0.8976;
282.9000;0.8555;-0.8951;
283.2000;0.8547;-0.9026;
283.5000;0.8555;-0.8976;
283.8000;0.8555;-0.8926;
284.1000;0.8547;-0.8851;
284.4000;0.8571;-0.8801;
284.7000;0.8571;-0.8801;
285.0000;0.8555;-0.8901;
285.3000;0.8539;-0.8876;
285.6000;0.8555;-0.8851;
285.9000;0.8547;-0.8851;
286.2000;0.8547;-0.8876;
286.5000;0.8555;-0.8876;
286.8000;0.8555;-0.9026;
287.1000;0.8555;-0.9026;
287.4000;0.8547;-0.9076;
287.7000;0.8555;-0.9175;
288.0000;0.8555;-0.9151;
288.3000;0.8563;-0.9126;
288.6000;0.8539;-0.9151;
288.9000;0.8555;-0.9151;
289.2000;0.8555;-0.9076;
289.5000;0.8547;-0.9026;
289.8000;0.8514;-0.9175;
290.1000;0.8547;-0.9051;
290.4000;0.8539;-0.9026;
290.7000;0.8571;-0.8976;
291.0000;0.8555;-0.9001;
291.3000;0.8555;-0.9076;
291.6000;0.8555;-0.9026;
291.9000;0.8547;-0.9026;
292.2000;0.8596;-0.8851;
292.5000;0.8539;-0.8926;
292.8000;0.8547;-0.8976;
293.1000;0.8482;-0.9126;
293.4000;0.8645;-0.8702;
293.7000;0.8547;-0.8752;
294.0000;0.8555;-0.8777;
294.3000;0.8539;-0.8801;
294.6000;0.8555;-0.8826;
294.9000;0.8653;-0.8552;
295.2000;0.8523;-0.8826;
295.5000;0.8547;-0.8777;
295.8000;0.8457;-0.9026;
296.1000;0.8628;-0.8527;
296.4000;0.8563;-0.8702;
296.7000;0.8571;-0.8677;
297.0000;0.8506;-0.8851;
297.3000;0.8498;-0.8926;
297.6000;0.8539;-0.8851;
297.9000;0.8539;-0.8801;
298.2000;0.8547;-0.8801;
298.5000;0.8571;-0.8777;
298.8000;0.8523;-0.8851;
299.1000;0.8547;-0.8752;
299.4000;0.8539;-0.8777;
299.7000;0.8547;-0.8752;
300.0000;0.8563;-0.8777;
300.3000;0.8539;-0.8851;
300.6000;0.8490;-0.8901;
300.9000;0.8539;-0.8876;
301.2000;0.8539;-0.8876;
301.5000;0.8539;-0.8826;
301.8000;0.8539;-0.8851;
302.1000;0.8539;-0.8826;
302.4000;0.8555;-0.8826;
302.7000;0.8523;-0.8926;
303.0000;0.8547;-0.8826;
303.3000;0.8539;-0.8752;
303.6000;0.8514;-0.8801;
303.9000;0.8539;-0.8777;
304.2000;0.8506;-0.8851;
304.5000;0.8531;-0.8901;
304.8000;0.8539;-0.8901;
305.1000;0.8539;-0.8901;
305.4000;0.8547;-0.8926;
305.7000;0.8555;-0.8901;
306.0000;0.8563;-0.8826;
306.3000;0.8571;-0.8777;
306.6000;0.8539;-0.8752;
306.9000;0.8547;-0.8727;
307.2000;0.8539;-0.8702;
307.5000;0.8547;-0.8652;
307.8000;0.8523;-0.8727;
308.1000;0.8555;-0.8602;
308.4000;0.8539;-0.8627;
308.7000;0.8555;-0.8502;
309.0000;0.8547;-0.8477;
309.3000;0.8531;-0.8552;
309.6000;0.8523;-0.8627;
309.9000;0.8531;-0.8602;
310.2000;0.8547;-0.8727;
310.5000;0.8547;-0.8677;
310.8000;0.8547;-0.8652;
311.1000;0.8506;-0.8801;
311.4000;0.8547;-0.8727;
311.7000;0.8555;-0.8702;
312.0000;0.8531;-0.8876;
312.3000;0.8539;-0.8851;
312.6000;0.8555;-0.8826;
312.9000;0.8637;-0.8677;
313.2000;0.8523;-0.8851;
313.5000;0.8539;-0.8801;
313.8000;0.8539;-0.8826;
314.1000;0.8539;-0.8876;
314.4000;0.8539;-0.8727;
314.7000;0.8555;-0.8727;
315.0000;0.8539;-0.8777;
315.3000;0.8531;-0.8851;
315.6000;0.8563;-0.8851;
315.9000;0.8588;-0.8901;
316.2000;0.8547;-0.8976;
316.5000;0.8514;-0.9001;
316.8000;0.8539;-0.8801;
317.1000;0.8531;-0.8876;
317.4000;0.8523;-0.8876;
317.7000;0.8506;-0.8876;
318.0000;0.8523;-0.8777;
318.3000;0.8523;-0.8901;
318.6000;0.8637;-0.8552;
318.9000;0.8539;-0.8777;
319.2000;0.8539;-0.8901;
319.5000;0.8539;-0.8951;
319.8000;0.8531;-0.9001;
320.1000;0.8539;-0.9026;
320.4000;0.8547;-0.8976;
320.7000;0.8523;-0.9001;
321.0000;0.8531;-0.8876;
321.3000;0.8531;-0.8901;
321.6000;0.8531;-0.8951;
321.9000;0.8539;-0.8926;
322.2000;0.8547;-0.8926;
322.5000;0.8531;-0.8826;
322.8000;0.8563;-0.8777;
323.1000;0.8523;-0.8901;
323.4000;0.8539;-0.8876;
323.7000;0.8523;-0.8876;
324.0000;0.8531;-0.8901;
324.3000;0.8523;-0.8826;
324.6000;0.8596;-0.8777;
324.9000;0.8523;-0.8951;
325.2000;0.8531;-0.9001;
325.5000;0.8547;-0.8976;
325.8000;0.8523;-0.9051;
326.1000;0.8547;-0.8976;
326.4000;0.8547;-0.8926;
326.7000;0.8514;-0.8951;
327.0000;0.8539;-0.8926;
327.3000;0.8506;-0.8926;
327.6000;0.8563;-0.8826;
327.9000;0.8539;-0.8876;
328.2000;0.8523;-0.9001;
328.5000;0.8514;-0.8951;
328.8000;0.8523;-0.8876;
329.1000;0.8474;-0.8976;
329.4000;0.8531;-0.8777;
329.7000;0.8539;-0.8826;
330.0000;0.8531;-0.8777;
330.3000;0.8531;-0.8777;
330.6000;0.8539;-0.8727;
330.9000;0.8539;-0.8727;
331.2000;0.8514;-0.8851;
331.5000;0.8531;-0.8876;
331.8000;0.8531;-0.8826;
332.1000;0.8539;-0.8826;
332.4000;0.8523;-0.8851;
332.7000;0.8539;-0.8851;
333.0000;0.8555;-0.8851;
333.3000;0.8466;-0.9076;
333.6000;0.8523;-0.8951;
333.9000;0.8531;-0.8901;
334.2000;0.8539;-0.8876;
334.5000;0.8523;-0.8976;
334.8000;0.8523;-0.9001;
335.1000;0.8514;-0.9001;
335.4000;0.8531;-0.8926;
335.7000;0.8539;-0.8851;
336.0000;0.8555;-0.8727;
336.3000;0.8539;-0.8777;
336.6000;0.8523;-0.8876;
336.9000;0.8514;-0.8951;
337.2000;0.8539;-0.8951;
337.5000;0.8547;-0.8926;
337.8000;0.8539;-0.8876;
338.1000;0.8547;-0.8876;
338.4000;0.8531;-0.8851;
338.7000;0.8506;-0.8777;
339.0000;0.8514;-0.8702;
339.3000;0.8506;-0.8702;
339.6000;0.8580;-0.8552;
339.9000;0.8531;-0.8627;
340.2000;0.8514;-0.8752;
340.5000;0.8539;-0.8702;
340.8000;0.8547;-0.8702;
341.1000;0.8506;-0.8702;
341.4000;0.8523;-0.8727;
341.7000;0.8539;-0.8677;
342.0000;0.8555;-0.8677;
342.3000;0.8531;-0.8677;
342.6000;0.8514;-0.8777;
342.9000;0.8531;-0.8727;
343.2000;0.8539;-0.8677;
343.5000;0.8531;-0.8727;
343.8000;0.8523;-0.8727;
344.1000;0.8531;-0.8652;
344.4000;0.8523;-0.8677;
344.7000;0.8539;-0.8677;
345.0000;0.8531;-0.8702;
345.3000;0.8531;-0.8702;
345.6000;0.8531;-0.8677;
345.9000;0.8531;-0.8677;
346.2000;0.8531;-0.8727;
346.5000;0.8506;-0.8752;
346.8000;0.8523;-0.8627;
347.1000;0.8539;-0.8727;
347.4000;0.8531;-0.8727;
347.7000;0.8539;-0.8826;
348.0000;0.8547;-0.8752;
348.3000;0.8531;-0.8826;
348.6000;0.8490;-0.9026;
348.9000;0.8514;-0.8901;
349.2000;0.8580;-0.8727;
349.5000;0.8547;-0.8851;
349.8000;0.8539;-0.8901;
350.1000;0.8457;-0.9076;
350.4000;0.8523;-0.8926;
350.7000;0.8514;-0.8901;
351.0000;0.8523;-0.8801;
351.3000;0.8514;-0.8851;
351.6000;0.8490;-0.8801;
351.9000;0.8514;-0.8851;
352.2000;0.8531;-0.8777;
352.5000;0.8506;-0.8826;
352.8000;0.8506;-0.8851;
353.1000;0.8514;-0.8851;
353.4000;0.8523;-0.8777;
353.7000;0.8498;-0.8826;
354.0000;0.8555;-0.8652;
354.3000;0.8531;-0.8677;
354.6000;0.8523;-0.8727;
354.9000;0.8563;-0.8702;
355.2000;0.8514;-0.8777;
355.5000;0.8514;-0.8826;
355.8000;0.8506;-0.8901;
356.1000;0.8449;-0.8976;
356.4000;0.8506;-0.8826;
356.7000;0.8514;-0.8826;
357.0000;0.8531;-0.8851;
357.3000;0.8417;-0.9126;
357.6000;0.8514;-0.8851;
357.9000;0.8539;-0.8876;
358.2000;0.8474;-0.8976;
358.5000;0.8531;-0.8777;
358.8000;0.8539;-0.8826;
359.1000;0.8523;-0.8752;
359.4000;0.8563;-0.8677;
359.7000;0.8531;-0.8752;
360.0000;0.8474;-0.8851;
360.3000;0.8490;-0.8801;
360.6000;0.8531;-0.8702;
360.9000;0.8531;-0.8602;
361.2000;0.8580;-0.8527;
361.5000;0.8555;-0.8577;
361.8000;0.8490;-0.8727;
362.1000;0.8523;-0.8677;
362.4000;0.8547;-0.8627;
362.7000;0.8498;-0.8752;
363.0000;0.8523;-0.8677;
363.3000;0.8523;-0.8777;
363.6000;0.8555;-0.8677;
363.9000;0.8449;-0.8926;
364.2000;0.8514;-0.8777;
364.5000;0.8523;-0.8752;
364.8000;0.8523;-0.8752;
365.1000;0.8531;-0.8727;
365.4000;0.8514;-0.8826;
365.7000;0.8514;-0.8876;
366.0000;0.8571;-0.8801;
366.3000;0.8531;-0.8801;
366.6000;0.8514;-0.8901;
366.9000;0.8531;-0.8876;
367.2000;0.8547;-0.8752;
367.5000;0.8506;-0.8826;
367.8000;0.8531;-0.8727;
368.1000;0.8571;-0.8652;
368.4000;0.8523;-0.8752;
368.7000;0.8531;-0.8702;
369.0000;0.8539;-0.8727;
369.3000;0.8547;-0.8752;
369.6000;0.8539;-0.8801;
369.9000;0.8523;-0.8752;
370.2000;0.8523;-0.8727;
370.5000;0.8523;-0.8702;
370.8000;0.8506;-0.8752;
371.1000;0.8498;-0.8851;
371.4000;0.8514;-0.8777;
371.7000;0.8506;-0.8801;
372.0000;0.8474;-0.8951;
372.3000;0.8531;-0.8851;
372.6000;0.8474;-0.8976;
372.9000;0.8466;-0.9051;
373.2000;0.8514;-0.8901;
373.5000;0.8514;-0.8826;
373.8000;0.8506;-0.8752;
374.1000;0.8457;-0.8851;
374.4000;0.8506;-0.8727;
374.7000;0.8498;-0.8752;
375.0000;0.8620;-0.8502;
375.3000;0.8523;-0.8851;
375.6000;0.8531;-0.8826;
375.9000;0.8514;-0.8851;
376.2000;0.8506;-0.8901;
376.5000;0.8555;-0.8851;
376.8000;0.8498;-0.8926;
377.1000;0.8514;-0.8851;
377.4000;0.8506;-0.8826;
377.7000;0.8506;-0.8876;
378.0000;0.8531;-0.8826;
378.3000;0.8523;-0.8951;
378.6000;0.8498;-0.8926;
378.9000;0.8514;-0.8901;
379.2000;0.8506;-0.8876;
379.5000;0.8514;-0.8777;
379.8000;0.8506;-0.8901;
380.1000;0.8596;-0.8677;
380.4000;0.8514;-0.8951;
380.7000;0.8523;-0.8901;
381.0000;0.8514;-0.8901;
381.3000;0.8514;-0.8876;
381.6000;0.8523;-0.8777;
381.9000;0.8514;-0.8826;
382.2000;0.8588;-0.8752;
382.5000;0.8523;-0.8851;
382.8000;0.8547;-0.8876;
383.1000;0.8523;-0.8951;
383.4000;0.8498;-0.9026;
383.7000;0.8547;-0.8976;
384.0000;0.8498;-0.9101;
384.3000;0.8563;-0.8901;
384.6000;0.8523;-0.8976;
384.9000;0.8539;-0.8876;
385.2000;0.8563;-0.8851;
385.5000;0.8555;-0.8826;
385.8000;0.8531;-0.8801;
386.1000;0.8531;-0.8752;
386.4000;0.8514;-0.8727;
386.7000;0.8506;-0.8801;
387.0000;0.8547;-0.8727;
387.3000;0.8498;-0.8851;
387.6000;0.8523;-0.8901;
387.9000;0.8490;-0.8826;
388.2000;0.8506;-0.8727;
388.5000;0.8498;-0.8677;
388.8000;0.8449;-0.8801;
389.1000;0.8571;-0.8502;
389.4000;0.8490;-0.8777;
389.7000;0.8514;-0.8727;
390.0000;0.8474;-0.8727;
390.3000;0.8466;-0.8677;
390.6000;0.8498;-0.8702;
390.9000;0.8498;-0.8752;
391.2000;0.8506;-0.8752;
391.5000;0.8514;-0.8752;
391.8000;0.8523;-0.8777;
392.1000;0.8539;-0.8677;
392.4000;0.8490;-0.8752;
392.7000;0.8514;-0.8777;
393.0000;0.8514;-0.8752;
393.3000;0.8547;-0.8727;
393.6000;0.8490;-0.8901;
393.9000;0.8514;-0.8826;
394.2000;0.8514;-0.8826;
394.5000;0.8514;-0.8702;
394.8000;0.8506;-0.8727;
395.1000;0.8523;-0.8702;
395.4000;0.8523;-0.8702;
395.7000;0.8498;-0.8702;
396.0000;0.8514;-0.8652;
396.3000;0.8482;-0.8627;
396.6000;0.8490;-0.8627;
396.9000;0.8531;-0.8577;
397.2000;0.8498;-0.8677;
397.5000;0.8474;-0.8752;
397.8000;0.8531;-0.8652;
398.1000;0.8523;-0.8702;
398.4000;0.8498;-0.8777;
398.7000;0.8523;-0.8752;
399.0000;0.8506;-0.8752;
399.3000;0.8490;-0.8801;
399.6000;0.8523;-0.8752;
399.9000;0.8523;-0.8826;
400.2000;0.8498;-0.8801;
400.5000;0.8506;-0.8677;
400.8000;0.8506;-0.8602;
401.1000;0.8514;-0.8727;
401.4000;0.8506;-0.8702;
401.7000;0.8498;-0.8652;
402.0000;0.8482;-0.8652;
402.3000;0.8482;-0.8752;
402.6000;0.8523;-0.8702;
402.9000;0.8523;-0.8752;
403.2000;0.8514;-0.8727;
403.5000;0.8531;-0.8677;
403.8000;0.8506;-0.8727;
404.1000;0.8506;-0.8652;
404.4000;0.8498;-0.8652;
404.7000;0.8539;-0.8677;
405.0000;0.8514;-0.8752;
405.3000;0.8523;-0.8801;
405.6000;0.8523;-0.8727;
405.9000;0.8539;-0.8677;
406.2000;0.8539;-0.8652;
406.5000;0.8514;-0.8727;
406.8000;0.8490;-0.8826;
407.1000;0.8523;-0.8777;
407.4000;0.8466;-0.8976;
407.7000;0.8506;-0.8777;
408.0000;0.8523;-0.8702;
408.3000;0.8523;-0.8702;
408.6000;0.8523;-0.8652;
408.9000;0.8474;-0.8727;
409.2000;0.8506;-0.8627;
409.5000;0.8514;-0.8702;
409.8000;0.8523;-0.8752;
410.1000;0.8498;-0.8801;
410.4000;0.8506;-0.8801;
410.7000;0.8498;-0.8801;
411.0000;0.8523;-0.8752;
411.3000;0.8498;-0.8901;
411.6000;0.8392;-0.9200;
411.9000;0.8506;-0.8876;
412.2000;0.8506;-0.8752;
412.5000;0.8539;-0.8652;
412.8000;0.8449;-0.8777;
413.1000;0.8506;-0.8652;
413.4000;0.8506;-0.8652;
413.7000;0.8482;-0.8677;
414.0000;0.8506;-0.8652;
414.3000;0.8498;-0.8677;
414.6000;0.8498;-0.8752;
414.9000;0.8506;-0.8677;
415.2000;0.8514;-0.8677;
415.5000;0.8498;-0.8652;
415.8000;0.8514;-0.8602;
416.1000;0.8506;-0.8602;
416.4000;0.8506;-0.8702;
416.7000;0.8474;-0.8901;
417.0000;0.8514;-0.8777;
417.3000;0.8531;-0.8752;
417.6000;0.8514;-0.8777;
417.9000;0.8523;-0.8901;
418.2000;0.8490;-0.8901;
418.5000;0.8506;-0.8926;
418.8000;0.8531;-0.8926;
419.1000;0.8506;-0.9001;
419.4000;0.8498;-0.9001;
419.7000;0.8523;-0.9051;
420.0000;0.8514;-0.9001;
420.3000;0.8514;-0.8951;
420.6000;0.8490;-0.8926;
420.9000;0.8506;-0.8901;
421.2000;0.8514;-0.8951;
421.5000;0.8490;-0.8976;
421.8000;0.8498;-0.8851;
422.1000;0.8498;-0.8876;
422.4000;0.8523;-0.8851;
422.7000;0.8498;-0.8851;
423.0000;0.8490;-0.8876;
423.3000;0.8457;-0.8951;
423.6000;0.8506;-0.8801;
423.9000;0.8506;-0.8752;
424.2000;0.8498;-0.8752;
424.5000;0.8498;-0.8752;
424.8000;0.8514;-0.8851;
425.1000;0.8466;-0.8976;
425.4000;0.8498;-0.8901;
425.7000;0.8498;-0.8901;
426.0000;0.8506;-0.8976;
426.3000;0.8539;-0.8926;
426.6000;0.8506;-0.9026;
426.9000;0.8498;-0.9076;
427.2000;0.8514;-0.9175;
427.5000;0.8514;-0.9175;
427.8000;0.8514;-0.9101;
428.1000;0.8506;-0.9026;
428.4000;0.8498;-0.9026;
428.7000;0.8506;-0.9076;
429.0000;0.8531;-0.8976;
429.3000;0.8514;-0.9001;
429.6000;0.8514;-0.9026;
429.9000;0.8523;-0.9051;
430.2000;0.8506;-0.9026;
430.5000;0.8514;-0.8951;
430.8000;0.8514;-0.8926;
431.1000;0.8563;-0.8901;
431.4000;0.8523;-0.9026;
431.7000;0.8506;-0.9101;
432.0000;0.8506;-0.9051;
432.3000;0.8498;-0.9126;
432.6000;0.8482;-0.9225;
432.9000;0.8474;-0.9300;
433.2000;0.8514;-0.9250;
433.5000;0.8506;-0.9126;
433.8000;0.8514;-0.9026;
434.1000;0.8514;-0.9026;
434.4000;0.8571;-0.8801;
434.7000;0.8506;-0.8901;
435.0000;0.8523;-0.8826;
435.3000;0.8514;-0.8777;
435.6000;0.8580;-0.8677;
435.9000;0.8490;-0.8901;
436.2000;0.8514;-0.8901;
436.5000;0.8506;-0.8851;
436.8000;0.8506;-0.8901;
437.1000;0.8498;-0.8901;
437.4000;0.8506;-0.8876;
437.7000;0.8506;-0.8951;
438.0000;0.8490;-0.8976;
438.3000;0.8498;-0.8976;
438.6000;0.8498;-0.9026;
438.9000;0.8506;-0.8951;
439.2000;0.8498;-0.8926;
439.5000;0.8523;-0.8926;
439.8000;0.8506;-0.8926;
440.1000;0.8506;-0.8951;
440.4000;0.8514;-0.8901;
440.7000;0.8506;-0.8801;
441.0000;0.8523;-0.8702;
441.3000;0.8514;-0.8727;
441.6000;0.8449;-0.8951;
441.9000;0.8498;-0.8901;
442.2000;0.8506;-0.8901;
442.5000;0.8457;-0.9051;
442.8000;0.8506;-0.8876;
443.1000;0.8490;-0.8901;
443.4000;0.8490;-0.8976;
443.7000;0.8490;-0.8901;
444.0000;0.8400;-0.9076;
444.3000;0.8506;-0.8801;
444.6000;0.8498;-0.8727;
444.9000;0.8490;-0.8752;
445.2000;0.8490;-0.8752;
445.5000;0.8498;-0.8752;
445.8000;0.8523;-0.8801;
446.1000;0.8441;-0.9051;
446.4000;0.8506;-0.8876;
446.7000;0.8506;-0.8901;
447.0000;0.8490;-0.8951;
447.3000;0.8506;-0.8976;
447.6000;0.8514;-0.8976;
447.9000;0.8482;-0.9001;
448.2000;0.8506;-0.8926;
448.5000;0.8441;-0.9001;
448.8000;0.8490;-0.8951;
449.1000;0.8506;-0.8926;
449.4000;0.8498;-0.8876;
449.7000;0.8506;-0.8876;
450.0000;0.8490;-0.8926;
450.3000;0.8506;-0.8951;
450.6000;0.8531;-0.8752;
450.9000;0.8531;-0.8752;
451.2000;0.8514;-0.8727;
451.5000;0.8514;-0.8677;
451.8000;0.8531;-0.8727;
452.1000;0.8531;-0.8652;
452.4000;0.8539;-0.8627;
452.7000;0.8498;-0.8752;
453.0000;0.8498;-0.8777;
453.3000;0.8457;-0.8826;
453.6000;0.8474;-0.8826;
453.9000;0.8498;-0.8702;
454.2000;0.8547;-0.8627;
454.5000;0.8514;-0.8627;
454.8000;0.8506;-0.8577;
455.1000;0.8490;-0.8652;
455.4000;0.8490;-0.8627;
455.7000;0.8506;-0.8702;
456.0000;0.8506;-0.8727;
456.3000;0.8506;-0.8752;
456.6000;0.8506;-0.8752;
456.9000;0.8506;-0.8826;
457.2000;0.8441;-0.9001;
457.5000;0.8482;-0.8876;
457.8000;0.8482;-0.8926;
458.1000;0.8490;-0.8901;
458.4000;0.8531;-0.8801;
458.7000;0.8498;-0.8826;
459.0000;0.8490;-0.8801;
459.3000;0.8506;-0.8801;
459.6000;0.8531;-0.8677;
459.9000;0.8506;-0.8752;
460.2000;0.8490;-0.8702;
460.5000;0.8514;-0.8702;
460.8000;0.8555;-0.8702;
461.1000;0.8498;-0.8851;
461.4000;0.8514;-0.8876;
461.7000;0.8523;-0.8876;
462.0000;0.8498;-0.8876;
462.3000;0.8482;-0.8926;
462.6000;0.8498;-0.8926;
462.9000;0.8482;-0.8951;
463.2000;0.8498;-0.8926;
463.5000;0.8523;-0.8901;
463.8000;0.8498;-0.8901;
464.1000;0.8498;-0.8901;
464.4000;0.8514;-0.8926;
464.7000;0.8490;-0.9001;
465.0000;0.8506;-0.8926;
465.3000;0.8523;-0.8801;
465.6000;0.8523;-0.8752;
465.9000;0.8498;-0.8801;
466.2000;0.8506;-0.8851;
466.5000;0.8514;-0.8777;
466.8000;0.8514;-0.8926;
467.1000;0.8482;-0.9026;
467.4000;0.8514;-0.8926;
467.7000;0.8506;-0.8951;
468.0000;0.8506;-0.8826;
468.3000;0.8498;-0.8851;
468.6000;0.8506;-0.8801;
468.9000;0.8474;-0.8826;
469.2000;0.8474;-0.8926;
469.5000;0.8482;-0.8876;
469.8000;0.8482;-0.8851;
470.1000;0.8531;-0.8727;
470.4000;0.8441;-0.8926;
470.7000;0.8498;-0.8876;
471.0000;0.8490;-0.8851;
471.3000;0.8539;-0.8851;
471.6000;0.8498;-0.8926;
471.9000;0.8531;-0.8876;
472.2000;0.8457;-0.9001;
472.5000;0.8490;-0.8901;
472.8000;0.8523;-0.8851;
473.1000;0.8482;-0.8851;
473.4000;0.8523;-0.8702;
473.7000;0.8506;-0.8777;
474.0000;0.8506;-0.8876;
474.3000;0.8457;-0.9001;
474.6000;0.8498;-0.8926;
474.9000;0.8449;-0.9026;
475.2000;0.8514;-0.8851;
475.5000;0.8514;-0.8901;
475.8000;0.8498;-0.8876;
476.1000;0.8490;-0.8901;
476.4000;0.8474;-0.8926;
476.7000;0.8506;-0.8876;
477.0000;0.8531;-0.8851;
477.3000;0.8482;-0.9001;
477.6000;0.8482;-0.8976;
477.9000;0.8482;-0.9076;
478.2000;0.8490;-0.8976;
478.5000;0.8506;-0.9001;
478.8000;0.8490;-0.8951;
479.1000;0.8482;-0.9001;
479.4000;0.8514;-0.8901;
479.7000;0.8571;-0.8801;
480.0000;0.8441;-0.9126;
480.3000;0.8490;-0.9126;
480.6000;0.8400;-0.9325;
480.9000;0.8482;-0.9026;
481.2000;0.8506;-0.8951;
481.5000;0.8490;-0.9076;
481.8000;0.8482;-0.9051;
482.1000;0.8490;-0.9001;
482.4000;0.8490;-0.9076;
482.7000;0.8449;-0.9151;
483.0000;0.8490;-0.9076;
483.3000;0.8466;-0.9126;
483.6000;0.8482;-0.9126;
483.9000;0.8474;-0.9200;
484.2000;0.8474;-0.9126;
484.5000;0.8474;-0.9101;
484.8000;0.8474;-0.9026;
485.1000;0.8506;-0.8901;
485.4000;0.8490;-0.8951;
485.7000;0.8474;-0.9076;
486.0000;0.8506;-0.8951;
486.3000;0.8490;-0.8976;
486.6000;0.8523;-0.8851;
486.9000;0.8523;-0.8926;
487.2000;0.8482;-0.9026;
487.5000;0.8514;-0.8951;
487.8000;0.8523;-0.9001;
488.1000;0.8547;-0.8976;
488.4000;0.8482;-0.9126;
488.7000;0.8482;-0.9051;
489.0000;0.8466;-0.8976;
489.3000;0.8490;-0.8951;
489.6000;0.8474;-0.8951;
489.9000;0.8490;-0.8926;
490.2000;0.8425;-0.9101;
490.5000;0.8457;-0.8926;
490.8000;0.8466;-0.8901;
491.1000;0.8457;-0.9001;
491.4000;0.8514;-0.8876;
491.7000;0.8498;-0.8926;
492.0000;0.8482;-0.8826;
492.3000;0.8498;-0.8752;
492.6000;0.8482;-0.8851;
492.9000;0.8490;-0.8777;
493.2000;0.8457;-0.8876;
493.5000;0.8490;-0.8826;
493.8000;0.8482;-0.8777;
494.1000;0.8474;-0.8851;
494.4000;0.8474;-0.8851;
494.7000;0.8474;-0.8826;
495.0000;0.8360;-0.9076;
495.3000;0.8482;-0.8777;
495.6000;0.8482;-0.8901;
495.9000;0.8449;-0.9026;
496.2000;0.8474;-0.8926;
496.5000;0.8498;-0.8851;
496.8000;0.8490;-0.8851;
497.1000;0.8506;-0.8851;
497.4000;0.8482;-0.8926;
497.7000;0.8490;-0.8876;
498.0000;0.8523;-0.8826;
498.3000;0.8571;-0.8652;
498.6000;0.8498;-0.8777;
498.9000;0.8466;-0.8826;
499.2000;0.8449;-0.8876;
499.5000;0.8466;-0.8826;
499.8000;0.8457;-0.8901;
500.1000;0.8490;-0.8851;
500.4000;0.8449;-0.8951;
500.7000;0.8506;-0.8801;
501.0000;0.8482;-0.8951;
501.3000;0.8506;-0.8876;
501.6000;0.8523;-0.8752;
501.9000;0.8539;-0.8777;
502.2000;0.8482;-0.8851;
502.5000;0.8506;-0.8752;
502.8000;0.8490;-0.8851;
503.1000;0.8514;-0.8876;
503.4000;0.8506;-0.8926;
503.7000;0.8506;-0.8951;
504.0000;0.8490;-0.8976;
504.3000;0.8514;-0.8901;
504.6000;0.8490;-0.8951;
504.9000;0.8474;-0.8976;
505.2000;0.8474;-0.9101;
505.5000;0.8498;-0.9076;
505.8000;0.8498;-0.8951;
506.1000;0.8490;-0.8926;
506.4000;0.8498;-0.8901;
506.7000;0.8555;-0.8777;
507.0000;0.8506;-0.8901;
507.3000;0.8490;-0.8876;
507.6000;0.8482;-0.8926;
507.9000;0.8490;-0.8876;
508.2000;0.8498;-0.8901;
508.5000;0.8506;-0.9026;
508.8000;0.8482;-0.9051;
509.1000;0.8506;-0.9001;
509.4000;0.8498;-0.9051;
509.7000;0.8482;-0.9126;
510.0000;0.8474;-0.9126;
510.3000;0.8482;-0.9101;
510.6000;0.8466;-0.9076;
510.9000;0.8490;-0.9001;
511.2000;0.8474;-0.9076;
511.5000;0.8482;-0.9101;
511.8000;0.8490;-0.9076;
512.1000;0.8474;-0.9051;
512.4000;0.8482;-0.8951;
512.7000;0.8482;-0.8951;
513.0000;0.8482;-0.9026;
513.3000;0.8482;-0.8976;
513.6000;0.8482;-0.9101;
513.9000;0.8474;-0.9101;
514.2000;0.8490;-0.9151;
514.5000;0.8482;-0.9101;
514.8000;0.8523;-0.8951;
515.1000;0.8474;-0.9026;
515.4000;0.8490;-0.8976;
515.7000;0.8498;-0.9076;
516.0000;0.8523;-0.9001;
516.3000;0.8457;-0.9175;
516.6000;0.8474;-0.9126;
516.9000;0.8474;-0.9126;
517.2000;0.8466;-0.9101;
517.5000;0.8514;-0.9051;
517.8000;0.8490;-0.9225;
518.1000;0.8466;-0.9300;
518.4000;0.8433;-0.9225;
518.7000;0.8474;-0.9076;
519.0000;0.8482;-0.9101;
519.3000;0.8474;-0.9076;
519.6000;0.8498;-0.8976;
519.9000;0.8466;-0.9101;
520.2000;0.8506;-0.9126;
520.5000;0.8498;-0.9151;
520.8000;0.8482;-0.9250;
521.1000;0.8482;-0.9275;
521.4000;0.8482;-0.9250;
521.7000;0.8506;-0.9250;
522.0000;0.8490;-0.9175;
522.3000;0.8514;-0.8976;
522.6000;0.8490;-0.8976;
522.9000;0.8506;-0.8926;
523.2000;0.8498;-0.8851;
523.5000;0.8498;-0.8901;
523.8000;0.8490;-0.8951;
524.1000;0.8506;-0.8926;
524.4000;0.8490;-0.9001;
524.7000;0.8482;-0.8951;
525.0000;0.8474;-0.8901;
525.3000;0.8474;-0.8901;
525.6000;0.8474;-0.8976;
525.9000;0.8498;-0.8951;
526.2000;0.8474;-0.8876;
526.5000;0.8449;-0.8901;
526.8000;0.8441;-0.8926;
527.1000;0.8490;-0.8826;
527.4000;0.8523;-0.8702;
527.7000;0.8474;-0.8826;
528.0000;0.8474;-0.8801;
528.3000;0.8498;-0.8801;
528.6000;0.8490;-0.8801;
528.9000;0.8482;-0.8801;
529.2000;0.8474;-0.8901;
529.5000;0.8482;-0.8876;
529.8000;0.8466;-0.8801;
530.1000;0.8457;-0.8826;
530.4000;0.8400;-0.9225;
530.7000;0.8490;-0.9051;
531.0000;0.8498;-0.9001;
531.3000;0.8498;-0.9051;
531.6000;0.8474;-0.9076;
531.9000;0.8466;-0.9126;
532.2000;0.8482;-0.9101;
532.5000;0.8482;-0.9101;
532.8000;0.8482;-0.9101;
533.1000;0.8466;-0.9026;
533.4000;0.8482;-0.8976;
533.7000;0.8425;-0.9101;
534.0000;0.8474;-0.9001;
534.3000;0.8514;-0.8926;
534.6000;0.8482;-0.8951;
534.9000;0.8498;-0.8901;
535.2000;0.8514;-0.8801;
535.5000;0.8490;-0.8951;
535.8000;0.8482;-0.9051;
536.1000;0.8531;-0.9051;
536.4000;0.8482;-0.9151;
536.7000;0.8474;-0.9076;
537.0000;0.8457;-0.9026;
537.3000;0.8490;-0.9001;
537.6000;0.8482;-0.8976;
537.9000;0.8457;-0.8926;
538.2000;0.8474;-0.8901;
538.5000;0.8490;-0.8826;
538.8000;0.8474;-0.8777;
539.1000;0.8482;-0.8777;
539.4000;0.8490;-0.8777;
539.7000;0.8506;-0.8727;
540.0000;0.8490;-0.8677;
540.3000;0.8474;-0.8752;
540.6000;0.8474;-0.8801;
540.9000;0.8498;-0.8801;
541.2000;0.8466;-0.8901;
541.5000;0.8514;-0.8752;
541.8000;0.8474;-0.8777;
542.1000;0.8466;-0.8851;
542.4000;0.8482;-0.8851;
542.7000;0.8490;-0.8826;
543.0000;0.8482;-0.8876;
543.3000;0.8474;-0.8951;
543.6000;0.8466;-0.8876;
543.9000;0.8474;-0.8926;
544.2000;0.8474;-0.8926;
544.5000;0.8490;-0.8976;
544.8000;0.8490;-0.9026;
545.1000;0.8482;-0.8976;
545.4000;0.8482;-0.9026;
545.7000;0.8474;-0.9051;
546.0000;0.8482;-0.9051;
546.3000;0.8531;-0.8951;
546.6000;0.8490;-0.9051;
546.9000;0.8482;-0.8976;
547.2000;0.8563;-0.8727;
547.5000;0.8441;-0.9076;
547.8000;0.8482;-0.8901;
548.1000;0.8490;-0.8926;
548.4000;0.8376;-0.9126;
548.7000;0.8490;-0.8901;
549.0000;0.8547;-0.8727;
549.3000;0.8474;-0.8851;
549.6000;0.8482;-0.8826;
549.9000;0.8457;-0.8926;
550.2000;0.8539;-0.8851;
550.5000;0.8498;-0.8876;
550.8000;0.8425;-0.9051;
551.1000;0.8490;-0.8976;
551.4000;0.8490;-0.9026;
551.7000;0.8474;-0.9026;
552.0000;0.8474;-0.9051;
552.3000;0.8474;-0.9051;
552.6000;0.8482;-0.9101;
552.9000;0.8482;-0.9026;
553.2000;0.8490;-0.8951;
553.5000;0.8490;-0.8876;
553.8000;0.8474;-0.8951;
554.1000;0.8474;-0.8901;
554.4000;0.8474;-0.8876;
554.7000;0.8466;-0.8876;
555.0000;0.8466;-0.8876;
555.3000;0.8490;-0.8851;
555.6000;0.8474;-0.8976;
555.9000;0.8482;-0.8926;
556.2000;0.8466;-0.8926;
556.5000;0.8514;-0.8801;
556.8000;0.8474;-0.9001;
557.1000;0.8474;-0.8926;
557.4000;0.8457;-0.8976;
557.7000;0.8547;-0.8727;
558.0000;0.8498;-0.8826;
558.3000;0.8474;-0.8826;
558.6000;0.8482;-0.8826;
558.9000;0.8498;-0.8777;
559.2000;0.8490;-0.8777;
559.5000;0.8466;-0.8801;
559.8000;0.8466;-0.8801;
560.1000;0.8490;-0.8777;
560.4000;0.8490;-0.8851;
560.7000;0.8474;-0.8951;
561.0000;0.8466;-0.9026;
561.3000;0.8482;-0.8976;
561.6000;0.8482;-0.8976;
561.9000;0.8457;-0.9051;
562.2000;0.8449;-0.8976;
562.5000;0.8482;-0.8976;
562.8000;0.8474;-0.8926;
563.1000;0.8474;-0.8976;
563.4000;0.8441;-0.9101;
563.7000;0.8466;-0.9001;
564.0000;0.8441;-0.9076;
564.3000;0.8523;-0.8851;
564.6000;0.8466;-0.9001;
564.9000;0.8474;-0.8926;
565.2000;0.8466;-0.8901;
565.5000;0.8474;-0.8826;
565.8000;0.8466;-0.8801;
566.1000;0.8457;-0.8777;
566.4000;0.8441;-0.8901;
566.7000;0.8490;-0.8801;
567.0000;0.8490;-0.8851;
567.3000;0.8441;-0.8951;
567.6000;0.8466;-0.9001;
567.9000;0.8466;-0.8976;
568.2000;0.8474;-0.9026;
568.5000;0.8466;-0.8976;
568.8000;0.8466;-0.8951;
569.1000;0.8474;-0.8851;
569.4000;0.8482;-0.8801;
569.7000;0.8482;-0.8777;
570.0000;0.8482;-0.8851;
570.3000;0.8482;-0.8876;
570.6000;0.8466;-0.8777;
570.9000;0.8457;-0.8801;
571.2000;0.8457;-0.8901;
571.5000;0.8482;-0.8901;
571.8000;0.8506;-0.8801;
572.1000;0.8474;-0.8777;
572.4000;0.8490;-0.8801;
572.7000;0.8490;-0.8777;
573.0000;0.8482;-0.8727;
573.3000;0.8441;-0.8826;
573.6000;0.8482;-0.8752;
573.9000;0.8523;-0.8652;
574.2000;0.8547;-0.8677;
574.5000;0.8506;-0.8801;
574.8000;0.8457;-0.8777;
575.1000;0.8441;-0.8727;
575.4000;0.8482;-0.8627;
575.7000;0.8457;-0.8677;
576.0000;0.8474;-0.8702;
576.3000;0.8490;-0.8777;
576.6000;0.8474;-0.8901;
576.9000;0.8498;-0.8851;
577.2000;0.8466;-0.8926;
577.5000;0.8466;-0.8901;
577.8000;0.8457;-0.8926;
578.1000;0.8498;-0.8876;
578.4000;0.8466;-0.9026;
578.7000;0.8482;-0.8901;
579.0000;0.8490;-0.8876;
579.3000;0.8482;-0.8901;
579.6000;0.8506;-0.8777;
579.9000;0.8482;-0.8801;
580.2000;0.8490;-0.8727;
580.5000;0.8466;-0.8702;
580.8000;0.8482;-0.8677;
581.1000;0.8466;-0.8702;
581.4000;0.8490;-0.8752;
581.7000;0.8474;-0.8752;
582.0000;0.8360;-0.9126;
582.3000;0.8474;-0.8851;
582.6000;0.8474;-0.8926;
582.9000;0.8466;-0.8801;
583.2000;0.8482;-0.8801;
583.5000;0.8482;-0.8727;
583.8000;0.8474;-0.8727;
584.1000;0.8457;-0.8801;
584.4000;0.8474;-0.8777;
584.7000;0.8482;-0.8752;
585.0000;0.8490;-0.8702;
585.3000;0.8457;-0.8702;
585.6000;0.8474;-0.8702;
585.9000;0.8474;-0.8677;
586.2000;0.8498;-0.8552;
586.5000;0.8474;-0.8627;
586.8000;0.8474;-0.8627;
587.1000;0.8457;-0.8752;
587.4000;0.8466;-0.8652;
587.7000;0.8457;-0.8727;
588.0000;0.8384;-0.8951;
588.3000;0.8555;-0.8502;
588.6000;0.8482;-0.8727;
588.9000;0.8474;-0.8727;
589.2000;0.8457;-0.8777;
589.5000;0.8474;-0.8851;
589.8000;0.8466;-0.8826;
590.1000;0.8498;-0.8727;
590.4000;0.8457;-0.8777;
590.7000;0.8482;-0.8752;
591.0000;0.8474;-0.8851;
591.3000;0.8466;-0.8826;
591.6000;0.8482;-0.8876;
591.9000;0.8514;-0.8851;
592.2000;0.8482;-0.8901;
592.5000;0.8482;-0.8926;
592.8000;0.8498;-0.8926;
593.1000;0.8482;-0.8951;
593.4000;0.8409;-0.9051;
593.7000;0.8466;-0.8876;
594.0000;0.8474;-0.8727;
594.3000;0.8466;-0.8777;
594.6000;0.8514;-0.8752;
594.9000;0.8482;-0.8901;
595.2000;0.8506;-0.8801;
595.5000;0.8482;-0.8752;
595.8000;0.8490;-0.8602;
596.1000;0.8482;-0.8677;
596.4000;0.8482;-0.8577;
596.7000;0.8482;-0.8652;
597.0000;0.8482;-0.8677;
597.3000;0.8433;-0.8702;
597.6000;0.8457;-0.8752;
597.9000;0.8466;-0.8801;
598.2000;0.8482;-0.8777;
598.5000;0.8474;-0.8727;
598.8000;0.8506;-0.8727;
599.1000;0.8449;-0.8801;
599.4000;0.8449;-0.8777;
599.7000;0.8417;-0.8826;
600.0000;0.8457;-0.8702;
600.3000;0.8441;-0.8677;
600.6000;0.8376;-0.8777;
600.9000;0.8213;-0.9101;
601.2000;0.8018;-0.9325;
601.5000;0.7855;-0.9525;
601.8000;0.7676;-0.9774;
602.1000;0.7489;-1.0048;
602.4000;0.7359;-1.0223;
602.7000;0.7196;-1.0472;
603.0000;0.7057;-1.0647;
603.3000;0.6935;-1.0721;
603.6000;0.6781;-1.0896;
603.9000;0.6716;-1.1021;
604.2000;0.6618;-1.1120;
604.5000;0.6504;-1.1419;
604.8000;0.6447;-1.1519;
605.1000;0.6374;-1.1544;
605.4000;0.6300;-1.1619;
605.7000;0.6227;-1.1744;
606.0000;0.6170;-1.1769;
606.3000;0.6113;-1.1843;
606.6000;0.6048;-1.1893;
606.9000;0.5991;-1.2093;
607.2000;0.5950;-1.2217;
607.5000;0.5885;-1.2342;
607.8000;0.5869;-1.2392;
608.1000;0.5788;-1.2467;
608.4000;0.5755;-1.2417;
608.7000;0.5714;-1.2442;
609.0000;0.5690;-1.2467;
609.3000;0.5657;-1.2517;
609.6000;0.5625;-1.2541;
609.9000;0.5617;-1.2467;
610.2000;0.5551;-1.2517;
610.5000;0.5543;-1.2591;
610.8000;0.5503;-1.2616;
611.1000;0.5429;-1.2791;
611.4000;0.5397;-1.2940;
611.7000;0.5446;-1.2791;
612.0000;0.5413;-1.2841;
612.3000;0.5307;-1.3040;
612.6000;0.5397;-1.2841;
612.9000;0.5332;-1.2940;
613.2000;0.5364;-1.2891;
613.5000;0.5348;-1.2891;
613.8000;0.5307;-1.3040;
614.1000;0.5299;-1.2990;
614.4000;0.5218;-1.3115;
614.7000;0.5242;-1.2990;
615.0000;0.5226;-1.3015;
615.3000;0.5210;-1.2990;
615.6000;0.5210;-1.3015;
615.9000;0.5201;-1.3065;
616.2000;0.5185;-1.3040;
616.5000;0.5169;-1.3090;
616.8000;0.5169;-1.3140;
617.1000;0.5136;-1.3190;
617.4000;0.5128;-1.3165;
617.7000;0.5128;-1.3215;
618.0000;0.5096;-1.3140;
618.3000;0.5063;-1.3115;
618.6000;0.5071;-1.3090;
618.9000;0.5055;-1.3090;
619.2000;0.5071;-1.3115;
619.5000;0.5006;-1.3240;
619.8000;0.5047;-1.3190;
620.1000;0.5031;-1.3240;
620.4000;0.4974;-1.3339;
620.7000;0.4974;-1.3364;
621.0000;0.4998;-1.3314;
621.3000;0.4982;-1.3314;
621.6000;0.4982;-1.3314;
621.9000;0.4974;-1.3265;
622.2000;0.4957;-1.3289;
622.5000;0.4917;-1.3289;
622.8000;0.4957;-1.3165;
623.1000;0.4949;-1.3240;
623.4000;0.4925;-1.3265;
623.7000;0.4933;-1.3265;
624.0000;0.4900;-1.3265;
624.3000;0.4908;-1.3240;
624.6000;0.4908;-1.3240;
624.9000;0.4794;-1.3439;
625.2000;0.4892;-1.3240;
625.5000;0.4900;-1.3215;
625.8000;0.4884;-1.3190;
626.1000;0.4876;-1.3265;
626.4000;0.4843;-1.3464;
626.7000;0.4917;-1.3190;
627.0000;0.4860;-1.3339;
627.3000;0.4835;-1.3339;
627.6000;0.4827;-1.3339;
627.9000;0.4868;-1.3314;
628.2000;0.4827;-1.3489;
628.5000;0.4819;-1.3539;
628.8000;0.4794;-1.3564;
629.1000;0.4811;-1.3514;
629.4000;0.4786;-1.3589;
629.7000;0.4811;-1.3439;
630.0000;0.4803;-1.3439;
630.3000;0.4778;-1.3489;
630.6000;0.4803;-1.3464;
630.9000;0.4819;-1.3414;
631.2000;0.4786;-1.3514;
631.5000;0.4762;-1.3514;
631.8000;0.4770;-1.3489;
632.1000;0.4721;-1.3663;
632.4000;0.4729;-1.3464;
632.7000;0.4721;-1.3439;
633.0000;0.4737;-1.3364;
633.3000;0.4803;-1.3240;
633.6000;0.4713;-1.3464;
633.9000;0.4794;-1.3240;
634.2000;0.4737;-1.3414;
634.5000;0.4746;-1.3339;
634.8000;0.4713;-1.3364;
635.1000;0.4721;-1.3364;
635.4000;0.4656;-1.3439;
635.7000;0.4721;-1.3314;
636.0000;0.4705;-1.3389;
636.3000;0.4746;-1.3339;
636.6000;0.4713;-1.3364;
636.9000;0.4697;-1.3364;
637.2000;0.4721;-1.3364;
637.5000;0.4705;-1.3439;
637.8000;0.4729;-1.3489;
638.1000;0.4681;-1.3564;
638.4000;0.4689;-1.3464;
638.7000;0.4681;-1.3464;
639.0000;0.4672;-1.3464;
639.3000;0.4672;-1.3439;
639.6000;0.4754;-1.3190;
639.9000;0.4656;-1.3414;
640.2000;0.4648;-1.3464;
640.5000;0.4648;-1.3389;
640.8000;0.4672;-1.3289;
641.1000;0.4672;-1.3364;
641.4000;0.4648;-1.3389;
641.7000;0.4648;-1.3314;
642.0000;0.4640;-1.3414;
642.3000;0.4648;-1.3389;
642.6000;0.4681;-1.3389;
642.9000;0.4656;-1.3489;
643.2000;0.4648;-1.3464;
643.5000;0.4648;-1.3439;
643.8000;0.4640;-1.3364;
644.1000;0.4648;-1.3314;
644.4000;0.4607;-1.3389;
644.7000;0.4640;-1.3265;
645.0000;0.4648;-1.3115;
645.3000;0.4624;-1.3090;
645.6000;0.4640;-1.3015;
645.9000;0.4607;-1.3115;
646.2000;0.4640;-1.3040;
646.5000;0.4624;-1.3090;
646.8000;0.4664;-1.2965;
647.1000;0.4615;-1.3115;
647.4000;0.4624;-1.3065;
647.7000;0.4591;-1.3140;
648.0000;0.4615;-1.3140;
648.3000;0.4615;-1.3140;
648.6000;0.4599;-1.3265;
648.9000;0.4599;-1.3289;
649.2000;0.4607;-1.3289;
649.5000;0.4607;-1.3289;
649.8000;0.4591;-1.3339;
650.1000;0.4599;-1.3514;
650.4000;0.4575;-1.3464;
650.7000;0.4583;-1.3389;
651.0000;0.4607;-1.3265;
651.3000;0.4599;-1.3265;
651.6000;0.4501;-1.3564;
651.9000;0.4567;-1.3514;
652.2000;0.4591;-1.3439;
652.5000;0.4575;-1.3464;
652.8000;0.4575;-1.3414;
653.1000;0.4558;-1.3389;
653.4000;0.4567;-1.3389;
653.7000;0.4542;-1.3389;
654.0000;0.4558;-1.3364;
654.3000;0.4558;-1.3289;
654.6000;0.4558;-1.3265;
654.9000;0.4567;-1.3240;
655.2000;0.4567;-1.3314;
655.5000;0.4518;-1.3314;
655.8000;0.4526;-1.3314;
656.1000;0.4550;-1.3140;
656.4000;0.4526;-1.3165;
656.7000;0.4550;-1.3165;
657.0000;0.4575;-1.3090;
657.3000;0.4526;-1.3289;
657.6000;0.4526;-1.3339;
657.9000;0.4534;-1.3339;
658.2000;0.4461;-1.3389;
658.5000;0.4493;-1.3240;
658.8000;0.4518;-1.3165;
659.1000;0.4510;-1.3240;
659.4000;0.4510;-1.3289;
659.7000;0.4501;-1.3215;
660.0000;0.4493;-1.3215;
660.3000;0.4510;-1.3190;
660.6000;0.4510;-1.3090;
660.9000;0.4469;-1.3289;
661.2000;0.4493;-1.3265;
661.5000;0.4501;-1.3289;
661.8000;0.4485;-1.3339;
662.1000;0.4493;-1.3314;
662.4000;0.4558;-1.3140;
662.7000;0.4518;-1.3240;
663.0000;0.4485;-1.3215;
663.3000;0.4469;-1.3289;
663.6000;0.4444;-1.3364;
663.9000;0.4485;-1.3265;
664.2000;0.4501;-1.3115;
664.5000;0.4436;-1.3190;
664.8000;0.4469;-1.3040;
665.1000;0.4469;-1.3015;
665.4000;0.4461;-1.3115;
665.7000;0.4453;-1.3165;
666.0000;0.4461;-1.3140;
666.3000;0.4477;-1.3115;
666.6000;0.4453;-1.3065;
666.9000;0.4428;-1.3115;
667.2000;0.4444;-1.3090;
667.5000;0.4444;-1.3090;
667.8000;0.4461;-1.3065;
668.1000;0.4477;-1.2990;
668.4000;0.4477;-1.3040;
668.7000;0.4453;-1.3115;
669.0000;0.4469;-1.3115;
669.3000;0.4469;-1.3240;
669.6000;0.4444;-1.3314;
669.9000;0.4436;-1.3389;
670.2000;0.4461;-1.3289;
670.5000;0.4420;-1.3314;
670.8000;0.4436;-1.3289;
671.1000;0.4436;-1.3289;
671.4000;0.4444;-1.3289;
671.7000;0.4453;-1.3289;
672.0000;0.4428;-1.3414;
672.3000;0.4444;-1.3314;
672.6000;0.4444;-1.3389;
672.9000;0.4436;-1.3439;
673.2000;0.4436;-1.3464;
673.5000;0.4412;-1.3539;
673.8000;0.4428;-1.3464;
674.1000;0.4444;-1.3339;
674.4000;0.4428;-1.3339;
674.7000;0.4436;-1.3265;
675.0000;0.4428;-1.3414;
675.3000;0.4428;-1.3339;
675.6000;0.4412;-1.3389;
675.9000;0.4420;-1.3464;
676.2000;0.4420;-1.3439;
676.5000;0.4420;-1.3414;
676.8000;0.4428;-1.3464;
677.1000;0.4420;-1.3389;
677.4000;0.4412;-1.3514;
677.7000;0.4412;-1.3414;
678.0000;0.4461;-1.3265;
678.3000;0.4404;-1.3364;
678.6000;0.4387;-1.3489;
678.9000;0.4396;-1.3464;
679.2000;0.4436;-1.3339;
679.5000;0.4387;-1.3464;
679.8000;0.4355;-1.3489;
680.1000;0.4379;-1.3439;
680.4000;0.4420;-1.3314;
680.7000;0.4387;-1.3414;
681.0000;0.4379;-1.3489;
681.3000;0.4387;-1.3564;
681.6000;0.4404;-1.3539;
681.9000;0.4404;-1.3514;
682.2000;0.4355;-1.3589;
682.5000;0.4436;-1.3464;
682.8000;0.4396;-1.3589;
683.1000;0.4420;-1.3539;
683.4000;0.4396;-1.3639;
683.7000;0.4363;-1.3688;
684.0000;0.4379;-1.3564;
684.3000;0.4396;-1.3489;
684.6000;0.4371;-1.3564;
684.9000;0.4371;-1.3564;
685.2000;0.4355;-1.3489;
685.5000;0.4355;-1.3514;
685.8000;0.4371;-1.3389;
686.1000;0.4363;-1.3464;
686.4000;0.4298;-1.3589;
686.7000;0.4371;-1.3339;
687.0000;0.4363;-1.3364;
687.3000;0.4371;-1.3314;
687.6000;0.4363;-1.3439;
687.9000;0.4347;-1.3439;
688.2000;0.4379;-1.3339;
688.5000;0.4371;-1.3339;
688.8000;0.4339;-1.3314;
689.1000;0.4347;-1.3314;
689.4000;0.4314;-1.3389;
689.7000;0.4347;-1.3314;
690.0000;0.4347;-1.3439;
690.3000;0.4339;-1.3389;
690.6000;0.4355;-1.3364;
690.9000;0.4363;-1.3364;
691.2000;0.4298;-1.3589;
691.5000;0.4314;-1.3464;
691.8000;0.4371;-1.3265;
692.1000;0.4298;-1.3439;
692.4000;0.4339;-1.3389;
692.7000;0.4306;-1.3514;
693.0000;0.4322;-1.3414;
693.3000;0.4363;-1.3364;
693.6000;0.4347;-1.3364;
693.9000;0.4314;-1.3364;
694.2000;0.4306;-1.3339;
694.5000;0.4330;-1.3265;
694.8000;0.4339;-1.3289;
695.1000;0.4339;-1.3339;
695.4000;0.4314;-1.3314;
695.7000;0.4330;-1.3289;
696.0000;0.4314;-1.3314;
696.3000;0.4339;-1.3289;
696.6000;0.4306;-1.3489;
696.9000;0.4379;-1.3314;
697.2000;0.4249;-1.3688;
697.5000;0.4314;-1.3589;
697.8000;0.4314;-1.3564;
698.1000;0.4290;-1.3489;
698.4000;0.4322;-1.3364;
698.7000;0.4208;-1.3738;
699.0000;0.4274;-1.3539;
699.3000;0.4306;-1.3464;
699.6000;0.4314;-1.3439;
699.9000;0.4306;-1.3514;
700.2000;0.4298;-1.3489;
700.5000;0.4298;-1.3439;
700.8000;0.4314;-1.3364;
701.1000;0.4314;-1.3439;
701.4000;0.4322;-1.3414;
701.7000;0.4306;-1.3389;
702.0000;0.4339;-1.3414;
702.3000;0.4290;-1.3514;
702.6000;0.4330;-1.3339;
702.9000;0.4298;-1.3389;
703.2000;0.4306;-1.3339;
703.5000;0.4290;-1.3389;
703.8000;0.4298;-1.3439;
704.1000;0.4298;-1.3514;
704.4000;0.4265;-1.3589;
704.7000;0.4290;-1.3464;
705.0000;0.4257;-1.3389;
705.3000;0.4265;-1.3389;
705.6000;0.4306;-1.3339;
705.9000;0.4298;-1.3314;
706.2000;0.4314;-1.3314;
706.5000;0.4282;-1.3439;
706.8000;0.4282;-1.3489;
707.1000;0.4298;-1.3439;
707.4000;0.4298;-1.3489;
707.7000;0.4314;-1.3439;
708.0000;0.4298;-1.3439;
708.3000;0.4306;-1.3439;
708.6000;0.4265;-1.3514;
708.9000;0.4290;-1.3439;
709.2000;0.4257;-1.3564;
709.5000;0.4274;-1.3539;
709.8000;0.4298;-1.3414;
710.1000;0.4347;-1.3190;
710.4000;0.4265;-1.3389;
710.7000;0.4274;-1.3389;
711.0000;0.4282;-1.3464;
711.3000;0.4282;-1.3514;
711.6000;0.4241;-1.3663;
711.9000;0.4265;-1.3514;
712.2000;0.4274;-1.3439;
712.5000;0.4265;-1.3489;
712.8000;0.4233;-1.3614;
713.1000;0.4257;-1.3439;
713.4000;0.4274;-1.3289;
713.7000;0.4257;-1.3314;
714.0000;0.4265;-1.3215;
714.3000;0.4274;-1.3215;
714.6000;0.4265;-1.3240;
714.9000;0.4290;-1.3215;
715.2000;0.4265;-1.3265;
715.5000;0.4257;-1.3339;
715.8000;0.4249;-1.3489;
716.1000;0.4290;-1.3339;
716.4000;0.4282;-1.3289;
716.7000;0.4257;-1.3389;
717.0000;0.4257;-1.3289;
717.3000;0.4257;-1.3389;
717.6000;0.4282;-1.3314;
717.9000;0.4274;-1.3339;
718.2000;0.4265;-1.3364;
718.5000;0.4274;-1.3514;
718.8000;0.4290;-1.3539;
719.1000;0.4282;-1.3464;
719.4000;0.4314;-1.3389;
719.7000;0.4265;-1.3439;
720.0000;0.4249;-1.3389;
720.3000;0.4241;-1.3364;
720.6000;0.4249;-1.3389;
720.9000;0.4306;-1.3140;
721.2000;0.4233;-1.3314;
721.5000;0.4249;-1.3265;
721.8000;0.4241;-1.3215;
722.1000;0.4233;-1.3289;
722.4000;0.4282;-1.3115;
722.7000;0.4225;-1.3190;
723.0000;0.4225;-1.3240;
723.3000;0.4233;-1.3289;
723.6000;0.4225;-1.3240;
723.9000;0.4241;-1.3289;
724.2000;0.4217;-1.3389;
724.5000;0.4208;-1.3364;
724.8000;0.4233;-1.3364;
725.1000;0.4249;-1.3364;
725.4000;0.4225;-1.3489;
725.7000;0.4233;-1.3514;
726.0000;0.4233;-1.3539;
726.3000;0.4257;-1.3489;
726.6000;0.4225;-1.3489;
726.9000;0.4208;-1.3539;
727.2000;0.4217;-1.3414;
727.5000;0.4225;-1.3489;
727.8000;0.4217;-1.3414;
728.1000;0.4225;-1.3414;
728.4000;0.4184;-1.3539;
728.7000;0.4208;-1.3464;
729.0000;0.4257;-1.3314;
729.3000;0.4208;-1.3439;
729.6000;0.4233;-1.3439;
729.9000;0.4225;-1.3489;
730.2000;0.4249;-1.3489;
730.5000;0.4217;-1.3639;
730.8000;0.4225;-1.3688;
731.1000;0.4225;-1.3639;
731.4000;0.4200;-1.3663;
731.7000;0.4233;-1.3564;
732.0000;0.4208;-1.3589;
732.3000;0.4233;-1.3564;
732.6000;0.4168;-1.3663;
732.9000;0.4225;-1.3514;
733.2000;0.4225;-1.3514;
733.5000;0.4257;-1.3464;
733.8000;0.4217;-1.3514;
734.1000;0.4233;-1.3464;
734.4000;0.4225;-1.3389;
734.7000;0.4208;-1.3464;
735.0000;0.4200;-1.3439;
735.3000;0.4200;-1.3389;
735.6000;0.4208;-1.3389;
735.9000;0.4208;-1.3389;
736.2000;0.4192;-1.3489;
736.5000;0.4257;-1.3339;
736.8000;0.4208;-1.3514;
737.1000;0.4217;-1.3489;
737.4000;0.4208;-1.3489;
737.7000;0.4208;-1.3539;
738.0000;0.4208;-1.3489;
738.3000;0.4208;-1.3489;
738.6000;0.4143;-1.3663;
738.9000;0.4217;-1.3514;
739.2000;0.4208;-1.3564;
739.5000;0.4200;-1.3564;
739.8000;0.4184;-1.3514;
740.1000;0.4192;-1.3564;
740.4000;0.4184;-1.3489;
740.7000;0.4217;-1.3514;
741.0000;0.4233;-1.3439;
741.3000;0.4192;-1.3489;
741.6000;0.4249;-1.3289;
741.9000;0.4217;-1.3339;
742.2000;0.4176;-1.3339;
742.5000;0.4217;-1.3240;
742.8000;0.4200;-1.3240;
743.1000;0.4217;-1.3115;
743.4000;0.4233;-1.3165;
743.7000;0.4168;-1.3314;
744.0000;0.4192;-1.3289;
744.3000;0.4168;-1.3339;
744.6000;0.4184;-1.3289;
744.9000;0.4184;-1.3265;
745.2000;0.4176;-1.3289;
745.5000;0.4184;-1.3439;
745.8000;0.4192;-1.3489;
746.1000;0.4184;-1.3564;
746.4000;0.4176;-1.3589;
746.7000;0.4192;-1.3489;
747.0000;0.4151;-1.3564;
747.3000;0.4184;-1.3489;
747.6000;0.4176;-1.3464;
747.9000;0.4168;-1.3514;
748.2000;0.4160;-1.3514;
748.5000;0.4176;-1.3439;
748.8000;0.4184;-1.3414;
749.1000;0.4192;-1.3364;
749.4000;0.4184;-1.3464;
749.7000;0.4184;-1.3464;
750.0000;0.4168;-1.3389;
750.3000;0.4200;-1.3265;
750.6000;0.4168;-1.3339;
750.9000;0.4168;-1.3364;
751.2000;0.4168;-1.3439;
751.5000;0.4168;-1.3414;
751.8000;0.4168;-1.3389;
752.1000;0.4184;-1.3339;
752.4000;0.4176;-1.3314;
752.7000;0.4151;-1.3439;
753.0000;0.4160;-1.3364;
753.3000;0.4151;-1.3389;
753.6000;0.4184;-1.3339;
753.9000;0.4168;-1.3364;
754.2000;0.4168;-1.3314;
754.5000;0.4160;-1.3289;
754.8000;0.4160;-1.3215;
755.1000;0.4151;-1.3314;
755.4000;0.4176;-1.3289;
755.7000;0.4168;-1.3265;
756.0000;0.4176;-1.3240;
756.3000;0.4176;-1.3215;
756.6000;0.4151;-1.3240;
756.9000;0.4160;-1.3289;
757.2000;0.4151;-1.3389;
757.5000;0.4160;-1.3364;
757.8000;0.4200;-1.3165;
758.1000;0.4143;-1.3314;
758.4000;0.4192;-1.3190;
758.7000;0.4168;-1.3215;
759.0000;0.4176;-1.3240;
759.3000;0.4160;-1.3314;
759.6000;0.4168;-1.3289;
759.9000;0.4135;-1.3339;
760.2000;0.4160;-1.3289;
760.5000;0.4127;-1.3339;
760.8000;0.4160;-1.3314;
761.1000;0.4135;-1.3364;
761.4000;0.4143;-1.3289;
761.7000;0.4160;-1.3165;
762.0000;0.4143;-1.3215;
762.3000;0.4151;-1.3140;
762.6000;0.4160;-1.3265;
762.9000;0.4151;-1.3314;
763.2000;0.4135;-1.3389;
763.5000;0.4151;-1.3265;
763.8000;0.4143;-1.3215;
764.1000;0.4135;-1.3190;
764.4000;0.4151;-1.3140;
764.7000;0.4168;-1.3140;
765.0000;0.4168;-1.3240;
765.3000;0.4143;-1.3364;
765.6000;0.4192;-1.3265;
765.9000;0.4143;-1.3389;
766.2000;0.4119;-1.3464;
766.5000;0.4184;-1.3289;
766.8000;0.4143;-1.3414;
767.1000;0.4241;-1.3140;
767.4000;0.4176;-1.3240;
767.7000;0.4135;-1.3265;
768.0000;0.4062;-1.3439;
768.3000;0.4119;-1.3314;
768.6000;0.4143;-1.3314;
768.9000;0.4127;-1.3364;
769.2000;0.4135;-1.3314;
769.5000;0.4127;-1.3265;
769.8000;0.4135;-1.3265;
770.1000;0.4151;-1.3289;
770.4000;0.4143;-1.3240;
770.7000;0.4135;-1.3165;
771.0000;0.4184;-1.2940;
771.3000;0.4135;-1.3040;
771.6000;0.4119;-1.3115;
771.9000;0.4127;-1.3115;
772.2000;0.4119;-1.3140;
772.5000;0.4111;-1.3165;
772.8000;0.4127;-1.3165;
773.1000;0.4111;-1.3240;
773.4000;0.4160;-1.3240;
773.7000;0.4135;-1.3339;
774.0000;0.4127;-1.3364;
774.3000;0.4143;-1.3389;
774.6000;0.4127;-1.3389;
774.9000;0.4119;-1.3364;
775.2000;0.4143;-1.3339;
775.5000;0.4070;-1.3539;
775.8000;0.4119;-1.3289;
776.1000;0.4135;-1.3289;
776.4000;0.4135;-1.3265;
776.7000;0.4135;-1.3364;
777.0000;0.4127;-1.3364;
777.3000;0.4119;-1.3389;
777.6000;0.4127;-1.3389;
777.9000;0.4119;-1.3339;
778.2000;0.4070;-1.3539;
778.5000;0.4021;-1.3614;
778.8000;0.4111;-1.3489;
779.1000;0.4119;-1.3439;
779.4000;0.4135;-1.3464;
779.7000;0.4119;-1.3339;
780.0000;0.4119;-1.3414;
780.3000;0.4143;-1.3314;
780.6000;0.4192;-1.3140;
780.9000;0.4135;-1.3240;
781.2000;0.4135;-1.3314;
781.5000;0.4143;-1.3265;
781.8000;0.4086;-1.3389;
782.1000;0.4078;-1.3464;
782.4000;0.4094;-1.3339;
782.7000;0.4135;-1.3265;
783.0000;0.4103;-1.3389;
783.3000;0.4111;-1.3439;
783.6000;0.4127;-1.3439;
783.9000;0.4111;-1.3464;
784.2000;0.4078;-1.3564;
784.5000;0.4111;-1.3464;
784.8000;0.4119;-1.3364;
785.1000;0.4135;-1.3265;
785.4000;0.4119;-1.3240;
785.7000;0.4094;-1.3215;
786.0000;0.4103;-1.3140;
786.3000;0.4119;-1.3040;
786.6000;0.4127;-1.3015;
786.9000;0.4111;-1.3090;
787.2000;0.4062;-1.3165;
787.5000;0.4094;-1.3115;
787.8000;0.4119;-1.3015;
788.1000;0.4135;-1.2990;
788.4000;0.4135;-1.3090;
788.7000;0.4127;-1.3090;
789.0000;0.4119;-1.3090;
789.3000;0.4094;-1.3265;
789.6000;0.4094;-1.3165;
789.9000;0.4111;-1.3215;
790.2000;0.4151;-1.3115;
790.5000;0.4127;-1.3240;
790.8000;0.4094;-1.3240;
791.1000;0.4111;-1.3240;
791.4000;0.4119;-1.3190;
791.7000;0.4103;-1.3190;
792.0000;0.4054;-1.3339;
792.3000;0.4094;-1.3314;
792.6000;0.4094;-1.3389;
792.9000;0.4078;-1.3364;
793.2000;0.4111;-1.3289;
793.5000;0.4103;-1.3314;
793.8000;0.4094;-1.3389;
794.1000;0.4094;-1.3314;
794.4000;0.4103;-1.3314;
794.7000;0.4103;-1.3240;
795.0000;0.4021;-1.3464;
795.3000;0.4151;-1.3165;
795.6000;0.4111;-1.3190;
795.9000;0.4086;-1.3190;
796.2000;0.4111;-1.3215;
796.5000;0.4111;-1.3165;
796.8000;0.4086;-1.3265;
797.1000;0.4086;-1.3364;
797.4000;0.4103;-1.3314;
797.7000;0.4086;-1.3339;
798.0000;0.4094;-1.3289;
798.3000;0.4070;-1.3414;
798.6000;0.4086;-1.3439;
798.9000;0.4029;-1.3564;
799.2000;0.4176;-1.3165;
799.5000;0.4103;-1.3389;
799.8000;0.4070;-1.3539;
800.1000;0.4103;-1.3514;
800.4000;0.4111;-1.3489;
800.7000;0.4094;-1.3489;
801.0000;0.4062;-1.3564;
801.3000;0.4078;-1.3489;
801.6000;0.4111;-1.3389;
801.9000;0.4103;-1.3265;
802.2000;0.4078;-1.3289;
802.5000;0.4062;-1.3389;
802.8000;0.4078;-1.3339;
803.1000;0.4094;-1.3289;
803.4000;0.4094;-1.3314;
803.7000;0.4078;-1.3314;
804.0000;0.4094;-1.3265;
804.3000;0.4078;-1.3240;
804.6000;0.4062;-1.3339;
804.9000;0.4127;-1.3065;
805.2000;0.4062;-1.3165;
805.5000;0.4094;-1.3090;
805.8000;0.4127;-1.3040;
806.1000;0.4078;-1.3090;
806.4000;0.4094;-1.3140;
806.7000;0.4119;-1.3215;
807.0000;0.4086;-1.3314;
807.3000;0.4070;-1.3364;
807.6000;0.3997;-1.3564;
807.9000;0.4078;-1.3339;
808.2000;0.4086;-1.3364;
808.5000;0.4070;-1.3364;
808.8000;0.4005;-1.3489;
809.1000;0.4046;-1.3364;
809.4000;0.4094;-1.3265;
809.7000;0.3989;-1.3514;
810.0000;0.4054;-1.3314;
810.3000;0.4094;-1.3215;
810.6000;0.4078;-1.3240;
810.9000;0.4078;-1.3314;
811.2000;0.4176;-1.3040;
811.5000;0.4086;-1.3265;
811.8000;0.4103;-1.3140;
812.1000;0.4029;-1.3215;
812.4000;0.4037;-1.3215;
812.7000;0.4078;-1.3165;
813.0000;0.4021;-1.3265;
813.3000;0.4054;-1.3040;
813.6000;0.4135;-1.2965;
813.9000;0.4094;-1.3115;
814.2000;0.4013;-1.3364;
814.5000;0.4086;-1.3140;
814.8000;0.4070;-1.3190;
815.1000;0.4062;-1.3165;
815.4000;0.4046;-1.3190;
815.7000;0.4054;-1.3165;
816.0000;0.4070;-1.3115;
816.3000;0.4078;-1.3065;
816.6000;0.4078;-1.3090;
816.9000;0.4094;-1.3015;
817.2000;0.4062;-1.3115;
817.5000;0.4054;-1.3165;
817.8000;0.4054;-1.3190;
818.1000;0.4062;-1.3240;
818.4000;0.4078;-1.3265;
818.7000;0.4062;-1.3265;
819.0000;0.4070;-1.3215;
819.3000;0.4119;-1.3040;
819.6000;0.4078;-1.3115;
819.9000;0.4046;-1.3140;
820.2000;0.4086;-1.3090;
820.5000;0.4046;-1.3190;
820.8000;0.4070;-1.3140;
821.1000;0.4054;-1.3215;
821.4000;0.4046;-1.3165;
821.7000;0.4054;-1.3090;
822.0000;0.4062;-1.3015;
822.3000;0.4078;-1.2940;
822.6000;0.4111;-1.3015;
822.9000;0.4070;-1.3090;
823.2000;0.4054;-1.3215;
823.5000;0.4054;-1.3190;
823.8000;0.4086;-1.3215;
824.1000;0.4046;-1.3240;
824.4000;0.4062;-1.3165;
824.7000;0.4054;-1.3165;
825.0000;0.4021;-1.3289;
825.3000;0.4062;-1.3215;
825.6000;0.4046;-1.3265;
825.9000;0.4062;-1.3215;
826.2000;0.4151;-1.2940;
826.5000;0.4054;-1.3090;
826.8000;0.4062;-1.3115;
827.1000;0.4078;-1.3015;
827.4000;0.4078;-1.3015;
827.7000;0.4029;-1.3215;
828.0000;0.4070;-1.3190;
828.3000;0.4029;-1.3265;
828.6000;0.4054;-1.3140;
828.9000;0.4062;-1.3165;
829.2000;0.4070;-1.3190;
829.5000;0.4062;-1.3215;
829.8000;0.4062;-1.3215;
830.1000;0.4086;-1.3065;
830.4000;0.4037;-1.3165;
830.7000;0.4070;-1.3190;
831.0000;0.4054;-1.3115;
831.3000;0.4062;-1.3090;
831.6000;0.4005;-1.3314;
831.9000;0.4046;-1.3289;
832.2000;0.4054;-1.3190;
832.5000;0.4054;-1.3040;
832.8000;0.4046;-1.3140;
833.1000;0.4062;-1.3140;
833.4000;0.4013;-1.3289;
833.7000;0.4046;-1.3265;
834.0000;0.4070;-1.3165;
834.3000;0.4046;-1.3140;
834.6000;0.4005;-1.3240;
834.9000;0.4037;-1.3090;
835.2000;0.4046;-1.3165;
835.5000;0.4103;-1.3090;
835.8000;0.4062;-1.3140;
836.1000;0.4029;-1.3215;
836.4000;0.4070;-1.3115;
836.7000;0.3972;-1.3339;
837.0000;0.4094;-1.3140;
837.3000;0.4046;-1.3265;
837.6000;0.4054;-1.3140;
837.9000;0.4029;-1.3289;
838.2000;0.4078;-1.3140;
838.5000;0.4046;-1.3140;
838.8000;0.4054;-1.3165;
839.1000;0.4078;-1.3115;
839.4000;0.4078;-1.3115;
839.7000;0.4029;-1.3190;
840.0000;0.4037;-1.3289;
840.3000;0.4070;-1.3215;
840.6000;0.4046;-1.3314;
840.9000;0.4013;-1.3364;
841.2000;0.4021;-1.3314;
841.5000;0.4046;-1.3240;
841.8000;0.4054;-1.3190;
842.1000;0.4046;-1.3215;
842.4000;0.4054;-1.3165;
842.7000;0.4054;-1.3165;
843.0000;0.4037;-1.3165;
843.3000;0.4086;-1.3090;
843.6000;0.4037;-1.3265;
843.9000;0.4029;-1.3190;
844.2000;0.4005;-1.3240;
844.5000;0.4013;-1.3190;
844.8000;0.4029;-1.3215;
845.1000;0.4037;-1.3190;
845.4000;0.4070;-1.3115;
845.7000;0.4037;-1.3065;
846.0000;0.4037;-1.3115;
846.3000;0.4037;-1.3215;
846.6000;0.4046;-1.3165;
846.9000;0.4054;-1.3215;
847.2000;0.4029;-1.3190;
847.5000;0.4029;-1.3115;
847.8000;0.4037;-1.3190;
848.1000;0.4062;-1.3190;
848.4000;0.4013;-1.3339;
848.7000;0.4037;-1.3314;
849.0000;0.4054;-1.3265;
849.3000;0.4062;-1.3289;
849.6000;0.4037;-1.3314;
849.9000;0.4037;-1.3314;
850.2000;0.4013;-1.3314;
850.5000;0.4046;-1.3265;
850.8000;0.4046;-1.3215;
851.1000;0.4029;-1.3265;
851.4000;0.4021;-1.3289;
851.7000;0.4037;-1.3140;
852.0000;0.4021;-1.3314;
852.3000;0.4021;-1.3314;
852.6000;0.4037;-1.3265;
852.9000;0.4046;-1.3265;
853.2000;0.4062;-1.3165;
853.5000;0.4062;-1.3215;
853.8000;0.4037;-1.3265;
854.1000;0.4070;-1.3090;
854.4000;0.4021;-1.3065;
854.7000;0.4054;-1.3040;
855.0000;0.4029;-1.3165;
855.3000;0.4070;-1.3040;
855.6000;0.4037;-1.3090;
855.9000;0.4005;-1.3190;
856.2000;0.4029;-1.3140;
856.5000;0.4021;-1.3240;
856.8000;0.4037;-1.3165;
857.1000;0.3940;-1.3489;
857.4000;0.4029;-1.3240;
857.7000;0.3989;-1.3314;
858.0000;0.4078;-1.2990;
858.3000;0.4013;-1.3115;
858.6000;0.4029;-1.3015;
858.9000;0.4021;-1.2990;
859.2000;0.4013;-1.3015;
859.5000;0.3980;-1.3065;
859.8000;0.4029;-1.2940;
860.1000;0.3980;-1.3165;
860.4000;0.4021;-1.3040;
860.7000;0.4029;-1.3015;
861.0000;0.4029;-1.3090;
861.3000;0.4013;-1.3265;
861.6000;0.4029;-1.3265;
861.9000;0.4046;-1.3115;
862.2000;0.4054;-1.3115;
862.5000;0.4005;-1.3240;
862.8000;0.4029;-1.3265;
863.1000;0.4037;-1.3190;
863.4000;0.4013;-1.3314;
863.7000;0.4021;-1.3289;
864.0000;0.4021;-1.3215;
864.3000;0.4021;-1.3240;
864.6000;0.4021;-1.3190;
864.9000;0.4013;-1.3215;
865.2000;0.4021;-1.3165;
865.5000;0.4021;-1.3040;
865.8000;0.4029;-1.2990;
866.1000;0.4021;-1.3040;
866.4000;0.4021;-1.3040;
866.7000;0.4013;-1.3015;
867.0000;0.4029;-1.3040;
867.3000;0.4037;-1.3040;
867.6000;0.4013;-1.2965;
867.9000;0.4013;-1.3040;
868.2000;0.4013;-1.3040;
868.5000;0.4086;-1.2791;
868.8000;0.4013;-1.3015;
869.1000;0.4021;-1.3040;
869.4000;0.4029;-1.2940;
869.7000;0.4021;-1.2915;
870.0000;0.3989;-1.3040;
870.3000;0.4013;-1.2940;
870.6000;0.3989;-1.2940;
870.9000;0.4013;-1.3015;
871.2000;0.4029;-1.3015;
871.5000;0.4029;-1.3015;
871.8000;0.4013;-1.3015;
872.1000;0.4037;-1.2940;
872.4000;0.3989;-1.3040;
872.7000;0.4013;-1.2940;
873.0000;0.4021;-1.2940;
873.3000;0.4021;-1.2965;
873.6000;0.4029;-1.2915;
873.9000;0.4037;-1.3015;
874.2000;0.4029;-1.3015;
874.5000;0.4013;-1.3015;
874.8000;0.4037;-1.2915;
875.1000;0.4029;-1.2965;
875.4000;0.4013;-1.3115;
875.7000;0.4037;-1.3090;
876.0000;0.4021;-1.3015;
876.3000;0.4029;-1.3015;
876.6000;0.4103;-1.2766;
876.9000;0.4062;-1.2841;
877.2000;0.4029;-1.2915;
877.5000;0.4029;-1.2915;
877.8000;0.4005;-1.2940;
878.1000;0.4005;-1.2891;
878.4000;0.3997;-1.2841;
878.7000;0.4013;-1.2791;
879.0000;0.4013;-1.2841;
879.3000;0.4013;-1.2915;
879.6000;0.3989;-1.2990;
879.9000;0.3989;-1.2965;
880.2000;0.4013;-1.2915;
880.5000;0.3989;-1.2940;
880.8000;0.4021;-1.2866;
881.1000;0.3997;-1.2915;
881.4000;0.4013;-1.2915;
881.7000;0.4046;-1.2841;
882.0000;0.4021;-1.2791;
882.3000;0.4037;-1.2791;
882.6000;0.4029;-1.2816;
882.9000;0.4005;-1.2915;
883.2000;0.3956;-1.3090;
883.5000;0.4005;-1.2990;
883.8000;0.4005;-1.2940;
884.1000;0.4094;-1.2741;
884.4000;0.4021;-1.2915;
884.7000;0.4013;-1.3115;
885.0000;0.4078;-1.2891;
885.3000;0.4037;-1.2915;
885.6000;0.4013;-1.2915;
885.9000;0.4037;-1.2891;
886.2000;0.3997;-1.3040;
886.5000;0.3997;-1.3090;
886.8000;0.4013;-1.2965;
887.1000;0.4005;-1.2915;
887.4000;0.4021;-1.2841;
887.7000;0.4013;-1.2891;
888.0000;0.3989;-1.2915;
888.3000;0.3964;-1.2965;
888.6000;0.4021;-1.2816;
888.9000;0.4013;-1.2816;
889.2000;0.3989;-1.2841;
889.5000;0.3997;-1.2891;
889.8000;0.4005;-1.2940;
890.1000;0.4005;-1.2915;
890.4000;0.4037;-1.2891;
890.7000;0.4005;-1.2915;
891.0000;0.4005;-1.2891;
891.3000;0.3964;-1.3015;
891.6000;0.4005;-1.2990;
891.9000;0.4005;-1.2990;
892.2000;0.4005;-1.3015;
892.5000;0.3997;-1.3040;
892.8000;0.4005;-1.2965;
893.1000;0.3989;-1.2940;
893.4000;0.3980;-1.3015;
893.7000;0.4005;-1.2891;
894.0000;0.4021;-1.2940;
894.3000;0.3997;-1.3015;
894.6000;0.3989;-1.3090;
894.9000;0.3997;-1.2990;
895.2000;0.4013;-1.2965;
895.5000;0.3980;-1.3065;
895.8000;0.3899;-1.3289;
896.1000;0.3997;-1.3040;
896.4000;0.3948;-1.3165;
896.7000;0.3989;-1.2990;
897.0000;0.3956;-1.3140;
897.3000;0.4013;-1.3015;
897.6000;0.3997;-1.3090;
897.9000;0.4005;-1.3090;
898.2000;0.3989;-1.3140;
898.5000;0.3997;-1.3115;
898.8000;0.3997;-1.3165;
899.1000;0.3997;-1.3165;
899.4000;0.4078;-1.2915;
899.7000;0.4021;-1.2990;
900.0000;0.3997;-1.3040;
900.3000;0.4021;-1.2965;
900.6000;0.4021;-1.2891;
900.9000;0.4013;-1.3040;
901.2000;0.3997;-1.2990;
901.5000;0.3989;-1.3090;
901.8000;0.3997;-1.3040;
902.1000;0.4013;-1.3040;
902.4000;0.3989;-1.3065;
902.7000;0.3989;-1.3040;
903.0000;0.4005;-1.2965;
903.3000;0.3989;-1.3090;
903.6000;0.4013;-1.3090;
903.9000;0.4005;-1.3015;
904.2000;0.4021;-1.3090;
904.5000;0.4005;-1.3115;
904.8000;0.3997;-1.3190;
905.1000;0.3956;-1.3240;
905.4000;0.3989;-1.3240;
905.7000;0.3989;-1.3240;
906.0000;0.3989;-1.3215;
906.3000;0.3972;-1.3140;
906.6000;0.4005;-1.3090;
906.9000;0.3997;-1.3090;
907.2000;0.4062;-1.2990;
907.5000;0.4005;-1.3090;
907.8000;0.4021;-1.2990;
908.1000;0.3997;-1.2990;
908.4000;0.3997;-1.2965;
908.7000;0.3989;-1.2940;
909.0000;0.4013;-1.2915;
909.3000;0.4021;-1.2915;
909.6000;0.3997;-1.2990;
909.9000;0.3923;-1.3190;
910.2000;0.4013;-1.2891;
910.5000;0.4005;-1.2915;
910.8000;0.3997;-1.2965;
911.1000;0.3980;-1.2990;
911.4000;0.3989;-1.2891;
911.7000;0.3932;-1.3015;
912.0000;0.3997;-1.2816;
912.3000;0.4013;-1.2766;
912.6000;0.3948;-1.2940;
912.9000;0.3997;-1.2891;
913.2000;0.4037;-1.2816;
913.5000;0.3972;-1.2990;
913.8000;0.3989;-1.2915;
914.1000;0.3997;-1.2915;
914.4000;0.4005;-1.2915;
914.7000;0.4054;-1.2841;
915.0000;0.4029;-1.2866;
915.3000;0.3997;-1.2915;
915.6000;0.3915;-1.3090;
915.9000;0.4037;-1.2891;
916.2000;0.3980;-1.3015;
916.5000;0.3989;-1.2915;
916.8000;0.4046;-1.2791;
917.1000;0.3980;-1.2915;
917.4000;0.3972;-1.2940;
917.7000;0.3989;-1.2891;
918.0000;0.3997;-1.2915;
918.3000;0.4021;-1.2791;
918.6000;0.3932;-1.2965;
918.9000;0.4005;-1.2841;
919.2000;0.3980;-1.2891;
919.5000;0.3989;-1.2891;
919.8000;0.4005;-1.2716;
920.1000;0.3980;-1.2866;
920.4000;0.4021;-1.2741;
920.7000;0.4021;-1.2716;
921.0000;0.3997;-1.2816;
921.3000;0.4005;-1.2841;
921.6000;0.3989;-1.2940;
921.9000;0.3948;-1.2990;
922.2000;0.3972;-1.2891;
922.5000;0.3964;-1.2940;
922.8000;0.4046;-1.2841;
923.1000;0.3997;-1.2940;
923.4000;0.3989;-1.2891;
923.7000;0.4013;-1.2816;
924.0000;0.3980;-1.2841;
924.3000;0.3980;-1.2841;
924.6000;0.3972;-1.2891;
924.9000;0.3997;-1.2866;
925.2000;0.3989;-1.2841;
925.5000;0.3980;-1.2816;
925.8000;0.3989;-1.2915;
926.1000;0.3980;-1.2990;
926.4000;0.3980;-1.3040;
926.7000;0.3989;-1.3015;
927.0000;0.3989;-1.2940;
927.3000;0.4005;-1.3065;
927.6000;0.4078;-1.2915;
927.9000;0.3997;-1.3040;
928.2000;0.3989;-1.3065;
928.5000;0.3972;-1.3090;
928.8000;0.3997;-1.3015;
929.1000;0.3948;-1.3215;
929.4000;0.4054;-1.2965;
929.7000;0.3980;-1.3015;
930.0000;0.4046;-1.2891;
930.3000;0.3997;-1.2866;
930.6000;0.3923;-1.2940;
930.9000;0.3989;-1.2816;
931.2000;0.3980;-1.2866;
931.5000;0.3972;-1.2866;
931.8000;0.3980;-1.2766;
932.1000;0.3989;-1.2766;
932.4000;0.3964;-1.2816;
932.7000;0.3980;-1.2791;
933.0000;0.3972;-1.2816;
933.3000;0.3997;-1.2766;
933.6000;0.3972;-1.2816;
933.9000;0.3989;-1.2915;
934.2000;0.3972;-1.2990;
934.5000;0.3980;-1.2965;
934.8000;0.3972;-1.3065;
935.1000;0.3997;-1.3040;
935.4000;0.3948;-1.3015;
935.7000;0.3980;-1.2965;
936.0000;0.3980;-1.3015;
936.3000;0.4013;-1.2990;
936.6000;0.3980;-1.2965;
936.9000;0.4005;-1.2940;
937.2000;0.3972;-1.2965;
937.5000;0.3964;-1.2915;
937.8000;0.3980;-1.2816;
938.1000;0.3964;-1.2940;
938.4000;0.4005;-1.2866;
938.7000;0.3980;-1.2891;
939.0000;0.3956;-1.2841;
939.3000;0.4013;-1.2616;
939.6000;0.3948;-1.2716;
939.9000;0.3964;-1.2691;
940.2000;0.3964;-1.2666;
940.5000;0.3964;-1.2691;
940.8000;0.3972;-1.2716;
941.1000;0.4005;-1.2566;
941.4000;0.3989;-1.2616;
941.7000;0.3972;-1.2641;
942.0000;0.3964;-1.2666;
942.3000;0.3989;-1.2641;
942.6000;0.3980;-1.2716;
942.9000;0.3972;-1.2866;
943.2000;0.3989;-1.2841;
943.5000;0.3972;-1.2841;
943.8000;0.3948;-1.2915;
944.1000;0.3972;-1.2891;
944.4000;0.3980;-1.2816;
944.7000;0.3964;-1.2841;
945.0000;0.3980;-1.2866;
945.3000;0.3980;-1.2940;
945.6000;0.3989;-1.3015;
945.9000;0.3980;-1.2990;
946.2000;0.3989;-1.2841;
946.5000;0.4046;-1.2641;
946.8000;0.3980;-1.2691;
947.1000;0.3989;-1.2716;
947.4000;0.3972;-1.2766;
947.7000;0.3997;-1.2741;
948.0000;0.3972;-1.2841;
948.3000;0.3964;-1.2915;
948.6000;0.3956;-1.2816;
948.9000;0.3956;-1.2816;
949.2000;0.4029;-1.2741;
949.5000;0.3972;-1.2891;
949.8000;0.3972;-1.2915;
950.1000;0.3980;-1.2940;
950.4000;0.3980;-1.2940;
950.7000;0.3980;-1.2915;
951.0000;0.4029;-1.2766;
951.3000;0.3964;-1.2940;
951.6000;0.3964;-1.3015;
951.9000;0.3956;-1.3065;
952.2000;0.3834;-1.3414;
952.5000;0.4021;-1.2866;
952.8000;0.3964;-1.3065;
953.1000;0.3899;-1.3265;
953.4000;0.3948;-1.3140;
953.7000;0.3964;-1.3215;
954.0000;0.4037;-1.3015;
954.3000;0.3997;-1.2990;
954.6000;0.3989;-1.3040;
954.9000;0.3972;-1.3140;
955.2000;0.3997;-1.3140;
955.5000;0.3997;-1.3165;
955.8000;0.3972;-1.3090;
956.1000;0.3980;-1.3115;
956.4000;0.3997;-1.3115;
956.7000;0.3980;-1.3065;
957.0000;0.3980;-1.3040;
957.3000;0.3972;-1.3115;
957.6000;0.3972;-1.3015;
957.9000;0.3989;-1.3065;
958.2000;0.3956;-1.3065;
958.5000;0.3980;-1.3015;
958.8000;0.3964;-1.3015;
959.1000;0.3980;-1.3040;
959.4000;0.3867;-1.3289;
959.7000;0.3989;-1.3065;
960.0000;0.3972;-1.2990;
960.3000;0.3980;-1.2940;
960.6000;0.3972;-1.2940;
960.9000;0.3972;-1.3015;
961.2000;0.3948;-1.3090;
961.5000;0.3956;-1.3140;
961.8000;0.3964;-1.3090;
962.1000;0.3964;-1.3165;
962.4000;0.3972;-1.3215;
962.7000;0.3972;-1.3165;
963.0000;0.3964;-1.3115;
963.3000;0.3972;-1.3190;
963.6000;0.3956;-1.3240;
963.9000;0.3997;-1.3165;
964.2000;0.3972;-1.3065;
964.5000;0.3972;-1.3065;
964.8000;0.3964;-1.3065;
965.1000;0.3972;-1.2940;
965.4000;0.3980;-1.2891;
965.7000;0.3980;-1.2891;
966.0000;0.3972;-1.2965;
966.3000;0.3964;-1.3090;
966.6000;0.3948;-1.3140;
966.9000;0.3964;-1.3090;
967.2000;0.3972;-1.3065;
967.5000;0.3883;-1.3339;
967.8000;0.3948;-1.3165;
968.1000;0.3923;-1.3165;
968.4000;0.3891;-1.3464;
968.7000;0.3980;-1.3165;
969.0000;0.3964;-1.3190;
969.3000;0.3972;-1.3090;
969.6000;0.3940;-1.3065;
969.9000;0.3997;-1.2965;
970.2000;0.3972;-1.3115;
970.5000;0.3989;-1.3015;
970.8000;0.3980;-1.2990;
971.1000;0.3989;-1.2940;
971.4000;0.3948;-1.3015;
971.7000;0.4005;-1.2866;
972.0000;0.3932;-1.3140;
972.3000;0.3964;-1.3190;
972.6000;0.3940;-1.3265;
972.9000;0.3956;-1.3215;
973.2000;0.3956;-1.3190;
973.5000;0.3923;-1.3289;
973.8000;0.3956;-1.3240;
974.1000;0.3956;-1.3265;
974.4000;0.3964;-1.3115;
974.7000;0.3964;-1.3015;
975.0000;0.3948;-1.3015;
975.3000;0.3948;-1.3040;
975.6000;0.3964;-1.3040;
975.9000;0.3956;-1.3115;
976.2000;0.3940;-1.3065;
976.5000;0.3940;-1.3065;
976.8000;0.3964;-1.2990;
977.1000;0.4013;-1.2891;
977.4000;0.3948;-1.3090;
977.7000;0.4005;-1.2940;
978.0000;0.3948;-1.3040;
978.3000;0.3972;-1.3065;
978.6000;0.3964;-1.3090;
978.9000;0.3948;-1.3065;
979.2000;0.3956;-1.3040;
979.5000;0.3972;-1.3015;
979.8000;0.3980;-1.2990;
980.1000;0.3964;-1.3040;
980.4000;0.3964;-1.3015;
980.7000;0.3964;-1.3015;
981.0000;0.3948;-1.3115;
981.3000;0.3989;-1.2990;
981.6000;0.3956;-1.3040;
981.9000;0.3956;-1.3115;
982.2000;0.3980;-1.3065;
982.5000;0.3980;-1.3090;
982.8000;0.3940;-1.3165;
983.1000;0.3964;-1.3065;
983.4000;0.3948;-1.3040;
983.7000;0.3940;-1.3140;
984.0000;0.3940;-1.3140;
984.3000;0.3948;-1.3090;
984.6000;0.3956;-1.3140;
984.9000;0.3956;-1.3090;
985.2000;0.3948;-1.3165;
985.5000;0.3932;-1.3140;
985.8000;0.3940;-1.3115;
986.1000;0.3948;-1.3165;
986.4000;0.3915;-1.3215;
986.7000;0.3948;-1.3090;
987.0000;0.3956;-1.2965;
987.3000;0.3972;-1.2915;
987.6000;0.3948;-1.2990;
987.9000;0.3964;-1.2965;
988.2000;0.3948;-1.2940;
988.5000;0.3915;-1.3090;
988.8000;0.3956;-1.3090;
989.1000;0.3948;-1.3090;
989.4000;0.3997;-1.2866;
989.7000;0.3964;-1.2990;
990.0000;0.3956;-1.2891;
990.3000;0.3932;-1.3015;
990.6000;0.3948;-1.2940;
990.9000;0.3948;-1.2940;
991.2000;0.3948;-1.2915;
991.5000;0.3915;-1.2990;
991.8000;0.3956;-1.2965;
992.1000;0.3964;-1.2940;
992.4000;0.3948;-1.3015;
992.7000;0.3964;-1.3015;
993.0000;0.3932;-1.3065;
993.3000;0.3964;-1.3015;
993.6000;0.4021;-1.2965;
993.9000;0.3964;-1.3215;
994.2000;0.3948;-1.3215;
994.5000;0.3964;-1.3165;
994.8000;0.3972;-1.3115;
995.1000;0.3980;-1.3040;
995.4000;0.3956;-1.3165;
995.7000;0.3948;-1.3165;
996.0000;0.3867;-1.3364;
996.3000;0.3932;-1.3140;
996.6000;0.3956;-1.3115;
996.9000;0.3932;-1.3190;
997.2000;0.4021;-1.2990;
997.5000;0.3964;-1.3140;
997.8000;0.3956;-1.3165;
998.1000;0.3948;-1.3240;
998.4000;0.3956;-1.3190;
998.7000;0.3956;-1.3265;
999.0000;0.3972;-1.3265;
999.3000;0.3956;-1.3289;
999.6000;0.3948;-1.3289;
999.9000;0.3964;-1.3140;
1000.2000;0.3899;-1.3215;
1000.5000;0.3948;-1.3040;
1000.8000;0.3948;-1.3040;
1001.1000;0.3956;-1.2965;
1001.4000;0.3948;-1.3015;
1001.7000;0.3948;-1.2990;
1002.0000;0.3956;-1.3065;
1002.3000;0.3964;-1.3090;
1002.6000;0.4046;-1.2816;
1002.9000;0.3972;-1.2891;
1003.2000;0.3964;-1.2915;
1003.5000;0.3956;-1.2965;
1003.8000;0.3948;-1.3015;
1004.1000;0.3964;-1.2915;
1004.4000;0.3907;-1.3065;
1004.7000;0.3948;-1.3015;
1005.0000;0.3964;-1.2965;
1005.3000;0.3964;-1.3040;
1005.6000;0.3948;-1.3040;
1005.9000;0.3940;-1.3040;
1006.2000;0.3948;-1.2940;
1006.5000;0.3956;-1.2940;
1006.8000;0.3989;-1.2891;
1007.1000;0.3956;-1.2965;
1007.4000;0.3899;-1.3140;
1007.7000;0.3964;-1.2990;
1008.0000;0.3964;-1.2915;
1008.3000;0.3940;-1.2940;
1008.6000;0.3964;-1.2915;
1008.9000;0.3915;-1.3065;
1009.2000;0.3956;-1.2866;
1009.5000;0.3972;-1.2891;
1009.8000;0.3940;-1.3015;
1010.1000;0.3915;-1.3015;
1010.4000;0.3923;-1.3065;
1010.7000;0.3923;-1.3015;
1011.0000;0.3932;-1.3040;
1011.3000;0.3923;-1.3165;
1011.6000;0.3948;-1.3065;
1011.9000;0.3940;-1.3115;
1012.2000;0.3948;-1.3115;
1012.5000;0.3948;-1.3165;
1012.8000;0.3940;-1.3190;
1013.1000;0.3964;-1.3140;
1013.4000;0.3850;-1.3439;
1013.7000;0.3964;-1.3215;
1014.0000;0.3956;-1.3165;
1014.3000;0.3948;-1.3140;
1014.6000;0.3940;-1.3115;
1014.9000;0.3875;-1.3115;
1015.2000;0.3956;-1.2891;
1015.5000;0.3940;-1.2891;
1015.8000;0.3923;-1.2915;
1016.1000;0.3948;-1.2891;
1016.4000;0.3956;-1.2915;
1016.7000;0.3948;-1.2915;
1017.0000;0.3980;-1.2940;
1017.3000;0.3956;-1.3015;
1017.6000;0.3956;-1.2866;
1017.9000;0.3956;-1.2891;
1018.2000;0.3956;-1.2965;
1018.5000;0.3907;-1.3065;
1018.8000;0.3997;-1.2866;
1019.1000;0.3907;-1.3040;
1019.4000;0.3940;-1.2965;
1019.7000;0.3948;-1.2940;
1020.0000;0.3923;-1.2965;
1020.3000;0.3956;-1.2841;
1020.6000;0.3948;-1.2866;
1020.9000;0.3932;-1.2915;
1021.2000;0.3907;-1.3040;
1021.5000;0.3956;-1.2866;
1021.8000;0.3956;-1.2866;
1022.1000;0.3972;-1.2841;
1022.4000;0.3964;-1.2891;
1022.7000;0.4005;-1.2766;
1023.0000;0.3972;-1.2891;
1023.3000;0.3932;-1.3090;
1023.6000;0.3948;-1.3115;
1023.9000;0.3948;-1.3065;
1024.2000;0.3964;-1.2990;
1024.5000;0.3972;-1.2866;
1024.8000;0.3948;-1.2891;
1025.1000;0.3940;-1.2841;
1025.4000;0.3972;-1.2741;
1025.7000;0.3948;-1.2766;
1026.0000;0.3858;-1.3115;
1026.3000;0.3932;-1.2940;
1026.6000;0.3956;-1.2940;
1026.9000;0.3932;-1.2965;
1027.2000;0.3940;-1.2915;
1027.5000;0.3948;-1.2915;
1027.8000;0.3948;-1.2816;
1028.1000;0.3980;-1.2766;
1028.4000;0.3956;-1.2841;
1028.7000;0.3948;-1.2866;
1029.0000;0.3940;-1.2891;
1029.3000;0.3907;-1.3015;
1029.6000;0.3915;-1.2940;
1029.9000;0.3956;-1.2866;
1030.2000;0.3932;-1.2915;
1030.5000;0.3948;-1.2990;
1030.8000;0.3948;-1.2965;
1031.1000;0.3940;-1.3015;
1031.4000;0.3940;-1.2915;
1031.7000;0.3948;-1.2965;
1032.0000;0.3948;-1.2940;
1032.3000;0.3923;-1.3015;
1032.6000;0.3923;-1.3040;
1032.9000;0.3956;-1.2965;
1033.2000;0.3964;-1.2965;
1033.5000;0.3956;-1.3040;
1033.8000;0.3956;-1.3090;
1034.1000;0.3956;-1.3065;
1034.4000;0.3964;-1.3065;
1034.7000;0.3956;-1.3065;
1035.0000;0.3948;-1.3090;
1035.3000;0.3932;-1.3065;
1035.6000;0.3940;-1.3015;
1035.9000;0.3940;-1.3065;
1036.2000;0.3948;-1.3015;
1036.5000;0.3956;-1.2940;
1036.8000;0.3940;-1.2791;
1037.1000;0.4013;-1.2541;
1037.4000;0.3923;-1.2816;
1037.7000;0.3940;-1.2841;
1038.0000;0.3989;-1.2741;
1038.3000;0.3997;-1.2716;
1038.6000;0.3964;-1.2766;
1038.9000;0.4005;-1.2641;
1039.2000;0.3956;-1.2716;
1039.5000;0.3956;-1.2691;
1039.8000;0.3940;-1.2766;
1040.1000;0.3997;-1.2641;
1040.4000;0.3940;-1.2791;
1040.7000;0.3932;-1.2791;
1041.0000;0.3956;-1.2766;
1041.3000;0.3989;-1.2616;
1041.6000;0.3940;-1.2791;
1041.9000;0.3989;-1.2641;
1042.2000;0.3956;-1.2741;
1042.5000;0.3980;-1.2716;
1042.8000;0.3932;-1.2841;
1043.1000;0.3891;-1.2915;
1043.4000;0.3948;-1.2841;
1043.7000;0.3980;-1.2766;
1044.0000;0.4005;-1.2766;
1044.3000;0.3980;-1.2891;
1044.6000;0.3923;-1.2940;
1044.9000;0.3956;-1.2965;
1045.2000;0.3850;-1.3215;
1045.5000;0.3948;-1.2891;
1045.8000;0.3948;-1.2866;
1046.1000;0.3948;-1.2866;
1046.4000;0.3964;-1.2791;
1046.7000;0.3940;-1.2841;
1047.0000;0.3980;-1.2816;
1047.3000;0.3915;-1.2940;
1047.6000;0.3956;-1.2841;
1047.9000;0.3948;-1.2766;
1048.2000;0.3956;-1.2716;
1048.5000;0.3948;-1.2666;
1048.8000;0.3956;-1.2691;
1049.1000;0.3923;-1.2741;
1049.4000;0.3940;-1.2766;
1049.7000;0.3948;-1.2666;
1050.0000;0.3932;-1.2741;
1050.3000;0.3932;-1.2666;
1050.6000;0.3956;-1.2616;
1050.9000;0.3956;-1.2591;
1051.2000;0.3956;-1.2641;
1051.5000;0.4005;-1.2616;
1051.8000;0.3940;-1.2766;
1052.1000;0.3956;-1.2841;
1052.4000;0.3964;-1.2791;
1052.7000;0.3956;-1.2816;
1053.0000;0.3956;-1.2841;
1053.3000;0.3932;-1.2841;
1053.6000;0.3932;-1.2841;
1053.9000;0.3940;-1.2866;
1054.2000;0.3940;-1.2915;
1054.5000;0.4021;-1.2716;
1054.8000;0.3948;-1.2841;
1055.1000;0.3964;-1.2841;
1055.4000;0.3948;-1.2741;
1055.7000;0.3940;-1.2716;
1056.0000;0.3956;-1.2741;
1056.3000;0.3980;-1.2666;
1056.6000;0.3948;-1.2766;
1056.9000;0.3948;-1.2816;
1057.2000;0.3956;-1.2766;
1057.5000;0.3964;-1.2766;
1057.8000;0.3972;-1.2766;
1058.1000;0.3964;-1.2816;
1058.4000;0.3972;-1.2841;
1058.7000;0.3956;-1.2841;
1059.0000;0.3956;-1.2791;
1059.3000;0.3907;-1.2841;
1059.6000;0.3972;-1.2741;
1059.9000;0.3964;-1.2766;
1060.2000;0.3948;-1.2716;
1060.5000;0.3915;-1.2766;
1060.8000;0.3956;-1.2741;
1061.1000;0.3972;-1.2716;
1061.4000;0.3948;-1.2741;
1061.7000;0.3932;-1.2791;
1062.0000;0.3980;-1.2766;
1062.3000;0.3980;-1.2791;
1062.6000;0.3972;-1.2741;
1062.9000;0.3932;-1.2741;
1063.2000;0.3923;-1.2791;
1063.5000;0.3964;-1.2766;
1063.8000;0.3940;-1.2816;
1064.1000;0.3932;-1.2866;
1064.4000;0.3932;-1.2891;
1064.7000;0.4005;-1.2766;
1065.0000;0.3801;-1.3289;
1065.3000;0.3915;-1.3040;
1065.6000;0.3899;-1.3140;
1065.9000;0.3932;-1.3065;
1066.2000;0.3932;-1.3090;
1066.5000;0.3923;-1.3090;
1066.8000;0.3932;-1.3140;
1067.1000;0.3948;-1.3065;
1067.4000;0.3948;-1.3065;
1067.7000;0.3915;-1.3090;
1068.0000;0.3956;-1.2940;
1068.3000;0.3923;-1.2965;
1068.6000;0.3858;-1.3040;
1068.9000;0.3956;-1.2791;
1069.2000;0.3899;-1.2965;
1069.5000;0.3932;-1.2915;
1069.8000;0.3923;-1.3015;
1070.1000;0.3923;-1.2990;
1070.4000;0.3964;-1.2915;
1070.7000;0.3923;-1.3015;
1071.0000;0.3940;-1.3065;
1071.3000;0.3940;-1.2965;
1071.6000;0.3940;-1.3040;
1071.9000;0.3940;-1.2990;
1072.2000;0.3923;-1.2915;
1072.5000;0.3932;-1.2891;
1072.8000;0.3964;-1.2866;
1073.1000;0.3948;-1.2940;
1073.4000;0.3948;-1.2891;
1073.7000;0.3940;-1.2940;
1074.0000;0.3956;-1.2940;
1074.3000;0.3923;-1.2990;
1074.6000;0.3923;-1.2891;
1074.9000;0.3948;-1.2915;
1075.2000;0.3948;-1.2940;
1075.5000;0.3997;-1.2841;
1075.8000;0.3964;-1.2965;
1076.1000;0.3940;-1.2990;
1076.4000;0.3940;-1.2965;
1076.7000;0.3907;-1.3090;
1077.0000;0.3923;-1.3065;
1077.3000;0.3956;-1.2965;
1077.6000;0.3948;-1.3015;
1077.9000;0.3940;-1.2866;
1078.2000;0.3932;-1.2841;
1078.5000;0.3940;-1.2866;
1078.8000;0.3932;-1.2891;
1079.1000;0.3948;-1.2915;
1079.4000;0.3915;-1.3015;
1079.7000;0.3932;-1.2990;
1080.0000;0.3940;-1.2990;
1080.3000;0.3948;-1.3015;
1080.6000;0.3932;-1.3165;
1080.9000;0.3915;-1.3240;
1081.2000;0.3940;-1.3165;
1081.5000;0.3940;-1.3065;
1081.8000;0.3907;-1.3165;
1082.1000;0.3940;-1.3040;
1082.4000;0.3932;-1.2990;
1082.7000;0.3940;-1.3040;
1083.0000;0.3948;-1.3065;
1083.3000;0.3899;-1.3215;
1083.6000;0.3932;-1.3140;
1083.9000;0.3948;-1.3040;
1084.2000;0.3915;-1.3040;
1084.5000;0.3964;-1.2915;
1084.8000;0.3940;-1.3040;
1085.1000;0.3923;-1.2990;
1085.4000;0.3850;-1.3115;
1085.7000;0.3932;-1.2891;
1086.0000;0.3932;-1.2940;
1086.3000;0.3899;-1.3065;
1086.6000;0.3956;-1.2965;
1086.9000;0.3932;-1.2915;
1087.2000;0.3972;-1.2841;
1087.5000;0.3940;-1.2866;
1087.8000;0.3948;-1.2816;
1088.1000;0.3997;-1.2691;
1088.4000;0.3940;-1.2915;
1088.7000;0.3932;-1.2915;
1089.0000;0.3972;-1.2816;
1089.3000;0.3940;-1.2866;
1089.6000;0.3956;-1.2816;
1089.9000;0.3923;-1.2866;
1090.2000;0.3956;-1.2816;
1090.5000;0.3956;-1.2841;
1090.8000;0.3948;-1.2866;
1091.1000;0.3923;-1.2866;
1091.4000;0.3940;-1.2891;
1091.7000;0.3948;-1.2891;
1092.0000;0.3891;-1.2965;
1092.3000;0.3899;-1.2891;
1092.6000;0.3915;-1.2841;
1092.9000;0.3940;-1.2891;
1093.2000;0.3932;-1.2940;
1093.5000;0.3956;-1.2965;
1093.8000;0.3940;-1.2990;
1094.1000;0.3948;-1.2990;
1094.4000;0.3956;-1.3040;
1094.7000;0.3956;-1.3090;
1095.0000;0.3948;-1.3115;
1095.3000;0.3948;-1.3090;
1095.6000;0.3940;-1.3115;
1095.9000;0.3932;-1.3090;
1096.2000;0.3940;-1.3065;
1096.5000;0.3923;-1.3015;
1096.8000;0.3915;-1.3065;
1097.1000;0.3940;-1.2891;
1097.4000;0.3932;-1.2866;
1097.7000;0.3948;-1.2841;
1098.0000;0.3940;-1.2766;
1098.3000;0.3923;-1.2716;
1098.6000;0.4013;-1.2367;
1098.9000;0.3923;-1.2641;
1099.2000;0.3948;-1.2741;
1099.5000;0.3940;-1.2841;
1099.8000;0.3940;-1.2891;
1100.1000;0.3923;-1.2866;
1100.4000;0.3940;-1.2816;
1100.7000;0.3940;-1.2741;
1101.0000;0.3940;-1.2716;
1101.3000;0.3915;-1.2716;
1101.6000;0.3923;-1.2741;
1101.9000;0.3915;-1.2841;
1102.2000;0.3956;-1.2841;
1102.5000;0.3956;-1.2866;
1102.8000;0.3923;-1.2940;
1103.1000;0.3940;-1.2915;
1103.4000;0.3915;-1.3015;
1103.7000;0.3923;-1.2866;
1104.0000;0.3932;-1.2891;
1104.3000;0.3907;-1.2866;
1104.6000;0.3932;-1.2866;
1104.9000;0.3940;-1.2891;
1105.2000;0.3923;-1.2866;
1105.5000;0.3883;-1.3065;
1105.8000;0.3948;-1.2891;
1106.1000;0.3956;-1.2891;
1106.4000;0.3932;-1.2940;
1106.7000;0.3948;-1.2866;
1107.0000;0.3915;-1.2866;
1107.3000;0.4005;-1.2616;
1107.6000;0.3940;-1.2766;
1107.9000;0.3915;-1.2841;
1108.2000;0.3907;-1.2866;
1108.5000;0.3834;-1.3140;
1108.8000;0.3940;-1.2940;
1109.1000;0.3948;-1.2891;
1109.4000;0.3989;-1.2766;
1109.7000;0.3932;-1.2866;
1110.0000;0.3923;-1.2841;
1110.3000;0.3948;-1.2866;
1110.6000;0.3948;-1.2766;
1110.9000;0.3932;-1.2866;
1111.2000;0.3956;-1.2841;
1111.5000;0.3923;-1.2841;
1111.8000;0.3915;-1.2915;
1112.1000;0.3923;-1.2940;
1112.4000;0.3915;-1.2915;
1112.7000;0.3932;-1.2940;
1113.0000;0.3956;-1.2841;
1113.3000;0.3956;-1.2841;
1113.6000;0.3932;-1.2965;
1113.9000;0.3948;-1.2990;
1114.2000;0.3907;-1.3065;
1114.5000;0.3907;-1.3090;
1114.8000;0.3940;-1.3015;
1115.1000;0.3940;-1.2965;
1115.4000;0.3948;-1.2990;
1115.7000;0.3932;-1.3065;
1116.0000;0.3940;-1.3065;
1116.3000;0.3875;-1.3289;
1116.6000;0.3948;-1.3115;
1116.9000;0.3932;-1.3165;
1117.2000;0.3923;-1.3115;
1117.5000;0.3915;-1.3065;
1117.8000;0.3915;-1.2990;
1118.1000;0.3923;-1.3040;
1118.4000;0.3915;-1.3090;
1118.7000;0.3932;-1.3065;
1119.0000;0.3932;-1.3065;
1119.3000;0.3899;-1.3140;
1119.6000;0.3923;-1.3115;
1119.9000;0.3923;-1.3165;
1120.2000;0.3964;-1.3040;
1120.5000;0.3940;-1.3115;
1120.8000;0.3923;-1.3065;
1121.1000;0.3940;-1.3065;
1121.4000;0.3932;-1.2990;
1121.7000;0.3940;-1.3015;
1122.0000;0.3932;-1.3015;
1122.3000;0.3940;-1.2990;
1122.6000;0.3940;-1.3065;
1122.9000;0.3940;-1.3065;
1123.2000;0.3923;-1.3065;
1123.5000;0.3907;-1.3140;
1123.8000;0.3915;-1.3065;
1124.1000;0.3940;-1.2990;
1124.4000;0.3915;-1.3090;
1124.7000;0.3915;-1.3040;
1125.0000;0.3932;-1.2940;
1125.3000;0.3932;-1.3090;
1125.6000;0.3940;-1.3040;
1125.9000;0.3932;-1.2990;
1126.2000;0.3940;-1.3090;
1126.5000;0.3891;-1.3140;
1126.8000;0.3964;-1.3015;
1127.1000;0.3875;-1.3140;
1127.4000;0.3989;-1.2866;
1127.7000;0.3907;-1.3015;
1128.0000;0.3907;-1.3015;
1128.3000;0.3907;-1.3090;
1128.6000;0.3907;-1.3115;
1128.9000;0.3980;-1.3040;
1129.2000;0.3907;-1.3314;
1129.5000;0.3932;-1.3314;
1129.8000;0.3915;-1.3190;
1130.1000;0.3923;-1.3065;
1130.4000;0.3932;-1.2965;
1130.7000;0.3940;-1.2990;
1131.0000;0.3932;-1.2990;
1131.3000;0.3948;-1.2891;
1131.6000;0.3932;-1.2841;
1131.9000;0.3907;-1.2990;
1132.2000;0.3940;-1.2915;
1132.5000;0.3923;-1.2891;
1132.8000;0.3915;-1.2866;
1133.1000;0.3923;-1.2841;
1133.4000;0.3932;-1.2841;
1133.7000;0.3932;-1.2816;
1134.0000;0.3956;-1.2741;
1134.3000;0.3956;-1.2841;
1134.6000;0.3932;-1.2915;
1134.9000;0.3923;-1.2940;
1135.2000;0.3948;-1.2965;
1135.5000;0.3948;-1.2891;
1135.8000;0.3940;-1.2940;
1136.1000;0.3940;-1.2990;
1136.4000;0.3972;-1.2841;
1136.7000;0.3948;-1.2866;
1137.0000;0.3948;-1.2866;
1137.3000;0.3915;-1.2915;
1137.6000;0.3875;-1.3090;
1137.9000;0.3923;-1.2990;
1138.2000;0.3923;-1.2915;
1138.5000;0.3883;-1.2965;
1138.8000;0.3923;-1.2816;
1139.1000;0.3858;-1.2990;
1139.4000;0.3891;-1.2891;
1139.7000;0.4021;-1.2566;
1140.0000;0.3956;-1.2716;
1140.3000;0.3907;-1.2791;
1140.6000;0.3932;-1.2766;
1140.9000;0.3923;-1.2841;
1141.2000;0.3923;-1.2915;
1141.5000;0.3932;-1.2915;
1141.8000;0.3883;-1.3015;
1142.1000;0.3883;-1.3065;
1142.4000;0.3915;-1.2965;
1142.7000;0.3989;-1.2741;
1143.0000;0.3940;-1.2791;
1143.3000;0.3875;-1.2965;
1143.6000;0.3915;-1.2940;
1143.9000;0.3915;-1.2915;
1144.2000;0.3932;-1.2891;
1144.5000;0.3948;-1.2841;
1144.8000;0.3989;-1.2791;
1145.1000;0.3948;-1.2841;
1145.4000;0.3907;-1.2841;
1145.7000;0.3923;-1.2816;
1146.0000;0.3940;-1.2816;
1146.3000;0.3915;-1.2841;
1146.6000;0.3989;-1.2666;
1146.9000;0.3956;-1.2791;
1147.2000;0.3923;-1.2841;
1147.5000;0.3989;-1.2741;
1147.8000;0.3923;-1.2965;
1148.1000;0.3932;-1.2841;
1148.4000;0.3940;-1.2766;
1148.7000;0.3923;-1.2791;
1149.0000;0.3948;-1.2791;
1149.3000;0.3948;-1.2841;
1149.6000;0.3940;-1.2891;
1149.9000;0.3932;-1.2915;
1150.2000;0.3923;-1.2915;
1150.5000;0.3940;-1.2990;
1150.8000;0.3940;-1.2990;
1151.1000;0.3932;-1.3090;
1151.4000;0.3932;-1.3140;
1151.7000;0.3915;-1.3090;
1152.0000;0.3948;-1.2866;
1152.3000;0.3923;-1.2990;
1152.6000;0.3948;-1.2965;
1152.9000;0.3923;-1.3015;
1153.2000;0.3826;-1.3165;
1153.5000;0.3940;-1.2866;
1153.8000;0.3923;-1.2891;
1154.1000;0.3948;-1.2816;
1154.4000;0.3923;-1.2866;
1154.7000;0.3915;-1.2816;
1155.0000;0.3932;-1.2741;
1155.3000;0.3964;-1.2666;
1155.6000;0.3964;-1.2616;
1155.9000;0.3915;-1.2741;
1156.2000;0.3948;-1.2591;
1156.5000;0.3915;-1.2616;
1156.8000;0.3997;-1.2417;
1157.1000;0.3899;-1.2716;
1157.4000;0.3956;-1.2591;
1157.7000;0.3956;-1.2566;
1158.0000;0.3948;-1.2541;
1158.3000;0.4029;-1.2292;
1158.6000;0.3932;-1.2641;
1158.9000;0.3850;-1.2866;
1159.2000;0.3923;-1.2741;
1159.5000;0.3980;-1.2691;
1159.8000;0.3915;-1.2816;
1160.1000;0.3932;-1.2716;
1160.4000;0.3923;-1.2791;
1160.7000;0.3972;-1.2566;
1161.0000;0.3964;-1.2591;
1161.3000;0.3964;-1.2616;
1161.6000;0.3940;-1.2716;
1161.9000;0.3923;-1.2741;
1162.2000;0.3915;-1.2891;
1162.5000;0.3940;-1.2841;
1162.8000;0.3980;-1.2716;
1163.1000;0.3932;-1.2791;
1163.4000;0.3932;-1.2716;
1163.7000;0.3915;-1.2741;
1164.0000;0.3932;-1.2716;
1164.3000;0.3923;-1.2791;
1164.6000;0.3923;-1.2716;
1164.9000;0.3948;-1.2641;
1165.2000;0.3932;-1.2666;
1165.5000;0.3923;-1.2716;
1165.8000;0.3923;-1.2741;
1166.1000;0.3891;-1.2766;
1166.4000;0.3907;-1.2791;
1166.7000;0.3923;-1.2741;
1167.0000;0.3915;-1.2816;
1167.3000;0.3940;-1.2741;
1167.6000;0.3956;-1.2766;
1167.9000;0.3923;-1.2841;
1168.2000;0.3932;-1.2866;
1168.5000;0.3956;-1.2766;
1168.8000;0.3948;-1.2666;
1169.1000;0.3923;-1.2691;
1169.4000;0.3923;-1.2691;
1169.7000;0.3948;-1.2641;
1170.0000;0.3948;-1.2566;
1170.3000;0.3940;-1.2691;
1170.6000;0.3923;-1.2716;
1170.9000;0.3997;-1.2616;
1171.2000;0.3956;-1.2716;
1171.5000;0.3907;-1.2891;
1171.8000;0.3964;-1.2716;
1172.1000;0.3923;-1.2691;
1172.4000;0.3940;-1.2591;
1172.7000;0.3932;-1.2591;
1173.0000;0.3956;-1.2467;
1173.3000;0.3923;-1.2541;
1173.6000;0.3948;-1.2517;
1173.9000;0.3940;-1.2591;
1174.2000;0.3940;-1.2591;
1174.5000;0.3940;-1.2517;
1174.8000;0.3923;-1.2716;
1175.1000;0.3948;-1.2791;
1175.4000;0.4021;-1.2566;
1175.7000;0.3923;-1.2841;
1176.0000;0.3932;-1.2940;
1176.3000;0.3940;-1.2915;
1176.6000;0.3932;-1.2891;
1176.9000;0.3923;-1.2915;
1177.2000;0.3923;-1.2915;
1177.5000;0.3932;-1.2940;
1177.8000;0.3940;-1.2891;
1178.1000;0.3932;-1.2891;
1178.4000;0.3940;-1.2891;
1178.7000;0.3940;-1.2791;
1179.0000;0.3948;-1.2791;
1179.3000;0.3932;-1.2841;
1179.6000;0.3915;-1.2915;
1179.9000;0.3915;-1.2766;
1180.2000;0.3923;-1.2716;
1180.5000;0.3923;-1.2791;
1180.8000;0.3915;-1.2816;
1181.1000;0.4029;-1.2616;
1181.4000;0.3956;-1.2866;
1181.7000;0.3899;-1.2891;
1182.0000;0.3915;-1.2841;
1182.3000;0.3940;-1.2891;
1182.6000;0.3940;-1.2891;
1182.9000;0.3932;-1.2866;
1183.2000;0.3891;-1.2915;
1183.5000;0.3932;-1.2841;
1183.8000;0.3932;-1.2866;
1184.1000;0.3940;-1.2915;
1184.4000;0.3923;-1.2940;
1184.7000;0.3915;-1.2990;
1185.0000;0.3923;-1.2891;
1185.3000;0.3923;-1.2816;
1185.6000;0.3899;-1.2940;
1185.9000;0.3923;-1.2866;
1186.2000;0.3932;-1.2891;
1186.5000;0.3932;-1.2891;
1186.8000;0.3932;-1.2940;
1187.1000;0.3923;-1.2965;
1187.4000;0.3923;-1.2891;
1187.7000;0.3923;-1.2816;
1188.0000;0.3923;-1.2791;
1188.3000;0.3932;-1.2741;
1188.6000;0.3923;-1.2816;
1188.9000;0.3940;-1.2766;
1189.2000;0.3932;-1.2766;
1189.5000;0.3923;-1.2791;
1189.8000;0.3915;-1.2691;
1190.1000;0.3915;-1.2641;
1190.4000;0.3915;-1.2691;
1190.7000;0.3915;-1.2716;
1191.0000;0.3891;-1.2791;
1191.3000;0.3907;-1.2716;
1191.6000;0.3923;-1.2741;
1191.9000;0.3899;-1.2940;
1192.2000;0.3932;-1.2891;
1192.5000;0.3932;-1.2891;
1192.8000;0.3923;-1.2841;
1193.1000;0.3932;-1.2841;
1193.4000;0.3923;-1.2965;
1193.7000;0.3932;-1.2866;
1194.0000;0.3915;-1.2791;
1194.3000;0.3948;-1.2816;
1194.6000;0.3923;-1.2841;
1194.9000;0.3907;-1.2940;
1195.2000;0.3915;-1.2915;
1195.5000;0.3915;-1.2841;
1195.8000;0.3948;-1.2766;
1196.1000;0.3915;-1.2915;
1196.4000;0.3907;-1.2891;
1196.7000;0.3940;-1.2791;
1197.0000;0.3907;-1.2915;
1197.3000;0.3923;-1.2965;
1197.6000;0.3923;-1.2965;
1197.9000;0.3932;-1.2791;
1198.2000;0.3940;-1.2666;
1198.5000;0.3915;-1.2641;
1198.8000;0.3932;-1.2616;
1199.1000;0.3964;-1.2616;
1199.4000;0.3932;-1.2716;
1199.7000;0.3923;-1.2741;
1200.0000;0.3891;-1.2841;
1200.3000;0.3923;-1.2766;
1200.6000;0.3923;-1.2816;
1200.9000;0.3891;-1.2841;
1201.2000;0.3915;-1.2766;
1201.5000;0.3915;-1.2766;
1201.8000;0.3948;-1.2716;
1202.1000;0.3956;-1.2791;
1202.4000;0.3948;-1.2816;
1202.7000;0.3940;-1.2891;
1203.0000;0.3948;-1.2841;
1203.3000;0.3932;-1.2915;
1203.6000;0.3940;-1.2915;
1203.9000;0.3964;-1.2965;
1204.2000;0.3932;-1.3015;
1204.5000;0.3948;-1.2965;
1204.8000;0.3956;-1.3015;
1205.1000;0.3907;-1.3115;
1205.4000;0.3932;-1.2965;
1205.7000;0.3940;-1.2940;
1206.0000;0.3923;-1.2866;
1206.3000;0.3923;-1.2940;
1206.6000;0.3923;-1.2965;
1206.9000;0.3923;-1.2965;
1207.2000;0.3923;-1.2965;
1207.5000;0.3923;-1.3015;
1207.8000;0.3932;-1.2866;
1208.1000;0.3915;-1.2891;
1208.4000;0.3932;-1.2866;
1208.7000;0.3923;-1.2866;
1209.0000;0.3899;-1.2866;
1209.3000;0.3915;-1.2816;
1209.6000;0.3956;-1.2691;
1209.9000;0.3907;-1.2691;
1210.2000;0.3923;-1.2591;
1210.5000;0.3923;-1.2616;
1210.8000;0.3915;-1.2716;
1211.1000;0.3891;-1.2766;
1211.4000;0.3915;-1.2766;
1211.7000;0.3907;-1.2766;
1212.0000;0.3907;-1.2791;
1212.3000;0.3915;-1.2841;
1212.6000;0.3907;-1.2915;
1212.9000;0.3915;-1.2891;
1213.2000;0.3915;-1.2940;
1213.5000;0.3915;-1.2891;
1213.8000;0.3932;-1.2816;
1214.1000;0.3923;-1.2816;
1214.4000;0.3932;-1.2866;
1214.7000;0.3948;-1.2791;
1215.0000;0.3932;-1.2816;
1215.3000;0.3899;-1.2791;
1215.6000;0.3923;-1.2841;
1215.9000;0.3923;-1.2816;
1216.2000;0.3940;-1.2791;
1216.5000;0.3891;-1.2915;
1216.8000;0.3915;-1.2841;
1217.1000;0.3948;-1.2841;
1217.4000;0.3972;-1.2866;
1217.7000;0.3932;-1.2915;
1218.0000;0.3932;-1.2965;
1218.3000;0.3964;-1.2866;
1218.6000;0.3923;-1.2990;
1218.9000;0.3932;-1.2915;
1219.2000;0.3899;-1.2940;
1219.5000;0.3964;-1.2766;
1219.8000;0.3932;-1.2766;
1220.1000;0.3899;-1.2866;
1220.4000;0.3883;-1.2965;
1220.7000;0.3915;-1.2940;
1221.0000;0.3923;-1.2915;
1221.3000;0.4013;-1.2741;
1221.6000;0.3956;-1.2841;
1221.9000;0.3932;-1.2866;
1222.2000;0.3948;-1.2866;
1222.5000;0.3915;-1.2965;
1222.8000;0.3915;-1.2841;
1223.1000;0.3891;-1.2816;
1223.4000;0.4013;-1.2467;
1223.7000;0.3923;-1.2616;
1224.0000;0.3932;-1.2566;
1224.3000;0.3850;-1.2841;
1224.6000;0.3923;-1.2741;
1224.9000;0.3915;-1.2841;
1225.2000;0.3940;-1.2791;
1225.5000;0.3923;-1.2866;
1225.8000;0.3940;-1.2841;
1226.1000;0.3972;-1.2841;
1226.4000;0.3923;-1.2915;
1226.7000;0.3923;-1.2866;
1227.0000;0.3915;-1.2841;
1227.3000;0.3948;-1.2866;
1227.6000;0.3923;-1.2990;
1227.9000;0.3923;-1.3015;
1228.2000;0.3948;-1.2891;
1228.5000;0.3915;-1.2915;
1228.8000;0.3932;-1.2816;
1229.1000;0.3948;-1.2766;
1229.4000;0.3940;-1.2841;
1229.7000;0.3923;-1.2866;
1230.0000;0.3932;-1.2816;
1230.3000;0.3932;-1.2816;
1230.6000;0.3980;-1.2716;
1230.9000;0.3940;-1.2866;
1231.2000;0.3956;-1.2766;
1231.5000;0.3923;-1.2816;
1231.8000;0.3932;-1.2766;
1232.1000;0.3948;-1.2766;
1232.4000;0.3948;-1.2791;
1232.7000;0.3940;-1.2766;
1233.0000;0.3940;-1.2766;
1233.3000;0.3940;-1.2691;
1233.6000;0.3948;-1.2641;
1233.9000;0.3948;-1.2741;
1234.2000;0.3940;-1.2741;
1234.5000;0.3932;-1.2741;
1234.8000;0.3875;-1.2866;
1235.1000;0.3932;-1.2691;
1235.4000;0.3940;-1.2691;
1235.7000;0.3883;-1.2841;
1236.0000;0.3915;-1.2766;
1236.3000;0.3923;-1.2766;
1236.6000;0.3923;-1.2741;
1236.9000;0.3915;-1.2741;
1237.2000;0.3923;-1.2766;
1237.5000;0.3989;-1.2591;
1237.8000;0.3940;-1.2716;
1238.1000;0.3899;-1.2816;
1238.4000;0.3956;-1.2666;
1238.7000;0.3940;-1.2766;
1239.0000;0.3940;-1.2691;
1239.3000;0.3940;-1.2566;
1239.6000;0.3948;-1.2591;
1239.9000;0.3932;-1.2691;
1240.2000;0.3948;-1.2716;
1240.5000;0.3940;-1.2716;
1240.8000;0.3923;-1.2791;
1241.1000;0.3932;-1.2766;
1241.4000;0.3932;-1.2791;
1241.7000;0.3932;-1.2791;
1242.0000;0.3915;-1.2766;
1242.3000;0.3923;-1.2741;
1242.6000;0.3923;-1.2741;
1242.9000;0.3948;-1.2716;
1243.2000;0.3915;-1.2915;
1243.5000;0.3907;-1.2990;
1243.8000;0.3932;-1.2940;
1244.1000;0.3923;-1.2891;
1244.4000;0.3915;-1.2915;
1244.7000;0.3923;-1.2940;
1245.0000;0.3932;-1.2915;
1245.3000;0.3956;-1.2791;
1245.6000;0.3915;-1.2866;
1245.9000;0.3956;-1.2791;
1246.2000;0.3907;-1.2940;
1246.5000;0.3940;-1.2940;
1246.8000;0.3932;-1.2940;
1247.1000;0.3915;-1.2891;
1247.4000;0.3907;-1.2891;
1247.7000;0.3915;-1.2891;
1248.0000;0.3932;-1.2866;
1248.3000;0.3932;-1.2965;
1248.6000;0.3915;-1.3015;
1248.9000;0.3923;-1.2940;
1249.2000;0.3989;-1.2766;
1249.5000;0.3915;-1.2891;
1249.8000;0.3915;-1.2940;
1250.1000;0.3948;-1.2891;
1250.4000;0.3932;-1.2915;
1250.7000;0.3923;-1.2915;
1251.0000;0.3940;-1.2816;
1251.3000;0.3923;-1.2915;
1251.6000;0.3915;-1.2940;
1251.9000;0.3932;-1.2915;
1252.2000;0.3932;-1.2891;
1252.5000;0.3956;-1.2791;
1252.8000;0.3923;-1.2891;
1253.1000;0.3940;-1.2816;
1253.4000;0.3883;-1.2940;
1253.7000;0.3948;-1.2791;
1254.0000;0.3915;-1.2866;
1254.3000;0.3923;-1.2816;
1254.6000;0.3956;-1.2816;
1254.9000;0.3932;-1.3015;
1255.2000;0.3997;-1.2691;
1255.5000;0.3940;-1.2866;
1255.8000;0.3980;-1.2741;
1256.1000;0.3932;-1.2816;
1256.4000;0.3932;-1.2766;
1256.7000;0.3923;-1.2816;
1257.0000;0.3932;-1.2741;
1257.3000;0.3980;-1.2616;
1257.6000;0.3915;-1.2866;
1257.9000;0.3915;-1.2791;
1258.2000;0.3964;-1.2716;
1258.5000;0.3883;-1.2816;
1258.8000;0.3923;-1.2816;
1259.1000;0.3932;-1.2716;
1259.4000;0.3915;-1.2816;
1259.7000;0.3915;-1.2940;
1260.0000;0.3915;-1.2990;
1260.3000;0.3932;-1.2791;
1260.6000;0.3915;-1.2766;
1260.9000;0.3932;-1.2766;
1261.2000;0.3932;-1.2841;
1261.5000;0.3940;-1.2866;
1261.8000;0.3932;-1.2816;
1262.1000;0.3932;-1.2766;
1262.4000;0.3948;-1.2691;
1262.7000;0.3915;-1.2766;
1263.0000;0.3932;-1.2691;
1263.3000;0.3932;-1.2791;
1263.6000;0.3923;-1.2866;
1263.9000;0.3948;-1.2816;
1264.2000;0.3940;-1.2940;
1264.5000;0.3891;-1.3040;
1264.8000;0.3891;-1.2915;
1265.1000;0.3899;-1.2866;
1265.4000;0.3915;-1.2691;
1265.7000;0.3915;-1.2716;
1266.0000;0.3964;-1.2691;
1266.3000;0.3907;-1.2791;
1266.6000;0.3923;-1.2766;
1266.9000;0.3932;-1.2741;
1267.2000;0.3915;-1.2766;
1267.5000;0.3891;-1.2891;
1267.8000;0.3932;-1.2841;
1268.1000;0.3972;-1.2741;
1268.4000;0.3948;-1.2841;
1268.7000;0.3940;-1.2866;
1269.0000;0.3923;-1.2866;
1269.3000;0.3915;-1.2866;
1269.6000;0.3940;-1.2866;
1269.9000;0.3923;-1.2816;
1270.2000;0.3940;-1.2766;
1270.5000;0.3940;-1.2766;
1270.8000;0.3932;-1.2940;
1271.1000;0.3940;-1.3015;
1271.4000;0.3956;-1.2990;
1271.7000;0.3915;-1.3090;
1272.0000;0.3883;-1.3065;
1272.3000;0.3948;-1.2866;
1272.6000;0.3891;-1.2990;
1272.9000;0.3923;-1.2866;
1273.2000;0.3923;-1.2866;
1273.5000;0.3956;-1.2766;
1273.8000;0.3923;-1.2891;
1274.1000;0.3956;-1.2866;
1274.4000;0.3923;-1.2990;
1274.7000;0.3915;-1.3065;
1275.0000;0.3883;-1.3090;
1275.3000;0.3923;-1.3015;
1275.6000;0.3907;-1.3065;
1275.9000;0.4037;-1.2541;
1276.2000;0.3899;-1.2891;
1276.5000;0.3940;-1.2766;
1276.8000;0.3923;-1.2841;
1277.1000;0.3972;-1.2691;
1277.4000;0.3923;-1.2741;
1277.7000;0.3915;-1.2691;
1278.0000;0.3972;-1.2517;
1278.3000;0.3923;-1.2716;
1278.6000;0.3867;-1.2891;
1278.9000;0.3899;-1.2741;
1279.2000;0.3915;-1.2716;
1279.5000;0.3915;-1.2766;
1279.8000;0.3915;-1.2816;
1280.1000;0.3948;-1.2666;
1280.4000;0.3932;-1.2741;
1280.7000;0.3923;-1.2691;
1281.0000;0.3932;-1.2517;
1281.3000;0.3948;-1.2492;
1281.6000;0.3948;-1.2541;
1281.9000;0.3932;-1.2641;
1282.2000;0.3923;-1.2716;
1282.5000;0.3923;-1.2791;
1282.8000;0.3932;-1.2741;
1283.1000;0.3899;-1.2891;
1283.4000;0.3923;-1.2791;
1283.7000;0.3940;-1.2841;
1284.0000;0.3923;-1.2965;
1284.3000;0.3907;-1.3015;
1284.6000;0.3940;-1.2891;
1284.9000;0.3915;-1.2866;
1285.2000;0.3915;-1.2866;
1285.5000;0.3875;-1.2866;
1285.8000;0.3923;-1.2816;
1286.1000;0.3932;-1.2791;
1286.4000;0.3948;-1.2741;
1286.7000;0.3915;-1.2766;
1287.0000;0.3948;-1.2666;
1287.3000;0.3915;-1.2691;
1287.6000;0.3915;-1.2666;
1287.9000;0.3923;-1.2641;
1288.2000;0.3899;-1.2766;
1288.5000;0.3899;-1.2766;
1288.8000;0.3932;-1.2816;
1289.1000;0.3891;-1.2940;
1289.4000;0.3915;-1.2990;
1289.7000;0.3923;-1.2915;
1290.0000;0.3907;-1.2965;
1290.3000;0.3915;-1.2915;
1290.6000;0.3932;-1.2866;
1290.9000;0.3867;-1.2990;
1291.2000;0.3932;-1.2891;
1291.5000;0.3875;-1.2990;
1291.8000;0.3932;-1.2915;
1292.1000;0.3940;-1.2891;
1292.4000;0.3923;-1.2866;
1292.7000;0.3932;-1.2841;
1293.0000;0.3923;-1.2816;
1293.3000;0.3923;-1.2791;
1293.6000;0.3997;-1.2641;
1293.9000;0.3932;-1.2791;
1294.2000;0.3972;-1.2666;
1294.5000;0.3940;-1.2716;
1294.8000;0.3932;-1.2666;
1295.1000;0.3923;-1.2691;
1295.4000;0.3940;-1.2641;
1295.7000;0.3923;-1.2691;
1296.0000;0.3948;-1.2641;
1296.3000;0.3940;-1.2816;
1296.6000;0.3915;-1.2891;
1296.9000;0.3972;-1.2716;
1297.2000;0.3875;-1.2866;
1297.5000;0.3932;-1.2691;
1297.8000;0.3932;-1.2766;
1298.1000;0.3923;-1.2716;
1298.4000;0.3932;-1.2741;
1298.7000;0.3932;-1.2766;
1299.0000;0.3932;-1.2741;
1299.3000;0.3964;-1.2766;
1299.6000;0.3915;-1.2841;
1299.9000;0.3940;-1.2741;
1300.2000;0.3907;-1.2766;
1300.5000;0.3932;-1.2716;
1300.8000;0.3915;-1.2716;
1301.1000;0.3932;-1.2666;
1301.4000;0.3932;-1.2716;
1301.7000;0.3923;-1.2766;
1302.0000;0.3932;-1.2716;
1302.3000;0.3923;-1.2791;
1302.6000;0.3932;-1.2791;
1302.9000;0.3940;-1.2841;
1303.2000;0.3923;-1.2841;
1303.5000;0.3923;-1.2990;
1303.8000;0.3932;-1.2965;
1304.1000;0.3923;-1.3015;
1304.4000;0.3915;-1.2990;
1304.7000;0.3907;-1.3040;
1305.0000;0.3948;-1.2940;
1305.3000;0.3948;-1.2866;
1305.6000;0.3940;-1.2940;
1305.9000;0.3940;-1.2841;
1306.2000;0.3948;-1.2691;
1306.5000;0.3948;-1.2641;
1306.8000;0.3932;-1.2716;
1307.1000;0.3940;-1.2641;
1307.4000;0.3907;-1.2641;
1307.7000;0.3948;-1.2517;
1308.0000;0.3948;-1.2517;
1308.3000;0.3964;-1.2417;
1308.6000;0.3899;-1.2641;
1308.9000;0.3932;-1.2591;
1309.2000;0.3923;-1.2716;
1309.5000;0.3915;-1.2716;
1309.8000;0.3907;-1.2716;
1310.1000;0.3915;-1.2716;
1310.4000;0.3956;-1.2517;
1310.7000;0.3907;-1.2591;
1311.0000;0.3932;-1.2566;
1311.3000;0.3915;-1.2541;
1311.6000;0.3923;-1.2392;
1311.9000;0.3956;-1.2467;
1312.2000;0.3940;-1.2566;
1312.5000;0.3923;-1.2641;
1312.8000;0.3923;-1.2691;
1313.1000;0.3891;-1.2766;
1313.4000;0.3940;-1.2716;
1313.7000;0.3923;-1.2791;
1314.0000;0.3907;-1.2716;
1314.3000;0.3932;-1.2716;
1314.6000;0.3915;-1.2741;
1314.9000;0.3915;-1.2766;
1315.2000;0.3932;-1.2691;
1315.5000;0.3964;-1.2591;
1315.8000;0.3940;-1.2666;
1316.1000;0.3940;-1.2591;
1316.4000;0.3915;-1.2691;
1316.7000;0.3932;-1.2816;
1317.0000;0.3940;-1.2816;
1317.3000;0.3875;-1.2990;
1317.6000;0.3907;-1.2915;
1317.9000;0.3948;-1.2866;
1318.2000;0.3940;-1.2841;
1318.5000;0.3932;-1.2866;
1318.8000;0.3923;-1.2791;
1319.1000;0.3932;-1.2816;
1319.4000;0.3932;-1.2866;
1319.7000;0.3932;-1.2816;
1320.0000;0.3932;-1.2866;
1320.3000;0.3932;-1.2866;
1320.6000;0.3940;-1.2866;
1320.9000;0.3948;-1.2716;
1321.2000;0.3932;-1.2716;
1321.5000;0.3940;-1.2791;
1321.8000;0.3948;-1.2741;
1322.1000;0.3932;-1.2766;
1322.4000;0.3915;-1.2791;
1322.7000;0.3956;-1.2791;
1323.0000;0.3940;-1.2841;
1323.3000;0.3867;-1.3090;
1323.6000;0.3923;-1.2915;
1323.9000;0.3932;-1.2891;
1324.2000;0.3899;-1.2940;
1324.5000;0.3923;-1.2891;
1324.8000;0.3932;-1.2841;
1325.1000;0.3923;-1.2791;
1325.4000;0.3915;-1.2766;
1325.7000;0.3940;-1.2716;
1326.0000;0.3932;-1.2766;
1326.3000;0.3932;-1.2841;
1326.6000;0.3932;-1.2816;
1326.9000;0.3948;-1.2816;
1327.2000;0.3956;-1.2891;
1327.5000;0.3932;-1.2891;
1327.8000;0.3932;-1.2866;
1328.1000;0.3948;-1.2766;
1328.4000;0.3923;-1.2766;
1328.7000;0.3923;-1.2866;
1329.0000;0.3915;-1.2866;
1329.3000;0.3907;-1.2816;
1329.6000;0.3948;-1.2841;
1329.9000;0.3907;-1.2891;
1330.2000;0.3932;-1.2766;
1330.5000;0.3915;-1.2716;
1330.8000;0.3948;-1.2716;
1331.1000;0.3940;-1.2741;
1331.4000;0.3923;-1.2841;
1331.7000;0.3923;-1.2940;
1332.0000;0.3940;-1.2866;
1332.3000;0.4005;-1.2691;
1332.6000;0.3907;-1.2990;
1332.9000;0.3923;-1.2816;
1333.2000;0.3923;-1.2791;
1333.5000;0.4005;-1.2666;
1333.8000;0.3915;-1.2965;
1334.1000;0.3915;-1.2990;
1334.4000;0.3956;-1.2891;
1334.7000;0.3899;-1.3015;
1335.0000;0.3915;-1.3040;
1335.3000;0.3899;-1.3065;
1335.6000;0.3923;-1.3065;
1335.9000;0.3940;-1.3065;
1336.2000;0.3875;-1.3190;
1336.5000;0.3923;-1.3040;
1336.8000;0.3940;-1.2965;
1337.1000;0.3907;-1.3015;
1337.4000;0.3923;-1.2990;
1337.7000;0.3899;-1.3065;
1338.0000;0.3932;-1.3065;
1338.3000;0.3923;-1.2990;
1338.6000;0.3940;-1.2866;
1338.9000;0.3923;-1.2940;
1339.2000;0.3875;-1.3115;
1339.5000;0.3923;-1.2965;
1339.8000;0.3923;-1.3015;
1340.1000;0.3875;-1.3090;
1340.4000;0.3923;-1.3040;
1340.7000;0.3891;-1.3140;
1341.0000;0.3915;-1.3040;
1341.3000;0.3923;-1.2990;
1341.6000;0.3932;-1.3090;
1341.9000;0.3923;-1.3115;
1342.2000;0.3907;-1.3215;
1342.5000;0.3891;-1.3265;
1342.8000;0.3891;-1.3215;
1343.1000;0.3907;-1.3090;
1343.4000;0.3923;-1.3040;
1343.7000;0.3980;-1.2866;
1344.0000;0.3932;-1.2940;
1344.3000;0.3932;-1.2866;
1344.6000;0.3907;-1.2891;
1344.9000;0.3923;-1.2866;
1345.2000;0.3964;-1.2816;
1345.5000;0.3915;-1.2965;
1345.8000;0.3923;-1.2990;
1346.1000;0.3923;-1.2866;
1346.4000;0.3940;-1.2766;
1346.7000;0.3923;-1.2841;
1347.0000;0.3940;-1.2866;
1347.3000;0.3834;-1.2990;
1347.6000;0.3932;-1.2741;
1347.9000;0.3923;-1.2791;
1348.2000;0.4021;-1.2591;
1348.5000;0.3915;-1.2841;
1348.8000;0.3915;-1.2915;
1349.1000;0.3923;-1.2915;
1349.4000;0.3899;-1.3040;
1349.7000;0.3923;-1.2990;
1350.0000;0.3932;-1.2990;
1350.3000;0.3932;-1.2990;
1350.6000;0.3923;-1.2915;
1350.9000;0.3923;-1.3090;
1351.2000;0.3940;-1.3090;
1351.5000;0.3932;-1.3115;
1351.8000;0.4005;-1.2940;
1352.1000;0.3932;-1.3115;
1352.4000;0.3940;-1.2990;
1352.7000;0.3875;-1.3165;
1353.0000;0.3915;-1.3090;
1353.3000;0.3940;-1.3015;
1353.6000;0.3932;-1.3040;
1353.9000;0.3948;-1.3040;
1354.2000;0.3948;-1.3040;
1354.5000;0.3940;-1.3065;
1354.8000;0.3899;-1.3115;
1355.1000;0.3932;-1.3065;
1355.4000;0.3826;-1.3265;
1355.7000;0.4029;-1.2691;
1356.0000;0.3923;-1.3015;
1356.3000;0.3932;-1.2915;
1356.6000;0.3923;-1.2915;
1356.9000;0.3915;-1.2990;
1357.2000;0.3923;-1.2915;
1357.5000;0.3923;-1.2940;
1357.8000;0.3980;-1.2841;
1358.1000;0.3972;-1.2866;
1358.4000;0.3915;-1.3090;
1358.7000;0.3915;-1.2990;
1359.0000;0.3923;-1.2915;
1359.3000;0.3915;-1.2915;
1359.6000;0.3915;-1.2866;
1359.9000;0.3915;-1.2841;
1360.2000;0.3915;-1.2915;
1360.5000;0.3932;-1.2940;
1360.8000;0.3907;-1.2990;
1361.1000;0.3858;-1.3140;
1361.4000;0.3932;-1.2891;
1361.7000;0.3923;-1.2965;
1362.0000;0.3964;-1.2841;
1362.3000;0.3915;-1.2816;
1362.6000;0.3915;-1.2816;
1362.9000;0.3932;-1.2816;
1363.2000;0.3932;-1.2866;
1363.5000;0.3940;-1.2841;
1363.8000;0.3940;-1.2816;
1364.1000;0.3858;-1.3115;
1364.4000;0.4037;-1.2641;
1364.7000;0.3932;-1.2915;
1365.0000;0.3932;-1.2866;
1365.3000;0.3932;-1.2841;
1365.6000;0.3932;-1.2915;
1365.9000;0.3989;-1.2816;
1366.2000;0.3850;-1.3240;
1366.5000;0.3923;-1.3090;
1366.8000;0.3964;-1.2990;
1367.1000;0.3940;-1.2940;
1367.4000;0.3940;-1.2940;
1367.7000;0.3923;-1.2965;
1368.0000;0.3948;-1.2866;
1368.3000;0.3923;-1.2866;
1368.6000;0.3923;-1.2891;
1368.9000;0.3915;-1.2816;
1369.2000;0.3940;-1.2841;
1369.5000;0.3948;-1.2816;
1369.8000;0.3923;-1.2915;
1370.1000;0.3915;-1.2891;
1370.4000;0.3932;-1.2891;
1370.7000;0.3923;-1.2841;
1371.0000;0.3915;-1.2816;
1371.3000;0.3915;-1.2816;
1371.6000;0.3915;-1.2816;
1371.9000;0.3932;-1.2841;
1372.2000;0.3948;-1.2866;
1372.5000;0.3923;-1.2965;
1372.8000;0.3923;-1.2965;
1373.1000;0.3932;-1.2965;
1373.4000;0.3932;-1.2915;
1373.7000;0.3923;-1.2940;
1374.0000;0.3932;-1.2940;
1374.3000;0.3875;-1.3140;
1374.6000;0.3923;-1.2965;
1374.9000;0.3932;-1.2841;
1375.2000;0.3915;-1.2866;
1375.5000;0.3932;-1.2841;
1375.8000;0.3932;-1.2816;
1376.1000;0.3915;-1.2816;
1376.4000;0.3997;-1.2591;
1376.7000;0.3923;-1.2791;
1377.0000;0.3940;-1.2766;
1377.3000;0.3940;-1.2841;
1377.6000;0.3923;-1.2940;
1377.9000;0.3940;-1.2816;
1378.2000;0.3940;-1.2791;
1378.5000;0.3923;-1.2866;
1378.8000;0.3923;-1.2965;
1379.1000;0.3956;-1.2965;
1379.4000;0.3948;-1.2915;
1379.7000;0.3875;-1.3065;
1380.0000;0.3940;-1.2816;
1380.3000;0.3932;-1.2791;
1380.6000;0.3923;-1.2791;
1380.9000;0.3923;-1.2791;
1381.2000;0.3915;-1.2816;
1381.5000;0.3923;-1.2741;
1381.8000;0.3997;-1.2492;
1382.1000;0.3915;-1.2741;
1382.4000;0.3923;-1.2741;
1382.7000;0.3948;-1.2666;
1383.0000;0.3972;-1.2666;
1383.3000;0.3956;-1.2641;
1383.6000;0.3932;-1.2641;
1383.9000;0.3932;-1.2616;
1384.2000;0.3956;-1.2616;
1384.5000;0.3940;-1.2641;
1384.8000;0.3923;-1.2741;
1385.1000;0.3923;-1.2741;
1385.4000;0.3932;-1.2691;
1385.7000;0.3940;-1.2741;
1386.0000;0.3907;-1.2816;
1386.3000;0.3940;-1.2691;
1386.6000;0.3923;-1.2616;
1386.9000;0.3899;-1.2691;
1387.2000;0.3940;-1.2616;
1387.5000;0.3940;-1.2666;
1387.8000;0.3948;-1.2666;
1388.1000;0.3980;-1.2591;
1388.4000;0.3956;-1.2566;
1388.7000;0.3923;-1.2691;
1389.0000;0.3923;-1.2741;
1389.3000;0.3948;-1.2741;
1389.6000;0.3932;-1.2791;
1389.9000;0.3932;-1.2766;
1390.2000;0.3883;-1.2841;
1390.5000;0.3932;-1.2666;
1390.8000;0.3932;-1.2666;
1391.1000;0.3948;-1.2566;
1391.4000;0.3915;-1.2666;
1391.7000;0.3899;-1.2666;
1392.0000;0.3940;-1.2691;
1392.3000;0.3948;-1.2716;
1392.6000;0.3948;-1.2741;
1392.9000;0.3923;-1.2791;
1393.2000;0.3932;-1.2866;
1393.5000;0.3948;-1.2641;
1393.8000;0.3948;-1.2616;
1394.1000;0.3940;-1.2666;
1394.4000;0.3932;-1.2741;
1394.7000;0.3948;-1.2616;
1395.0000;0.3964;-1.2716;
1395.3000;0.3932;-1.2841;
1395.6000;0.3923;-1.2915;
1395.9000;0.3915;-1.2915;
1396.2000;0.3940;-1.2791;
1396.5000;0.3932;-1.2841;
1396.8000;0.3915;-1.2791;
1397.1000;0.3923;-1.2766;
1397.4000;0.3932;-1.2691;
1397.7000;0.4029;-1.2417;
1398.0000;0.3948;-1.2691;
1398.3000;0.3932;-1.2716;
1398.6000;0.3883;-1.2791;
1398.9000;0.3923;-1.2691;
1399.2000;0.3923;-1.2716;
1399.5000;0.3891;-1.2791;
1399.8000;0.3940;-1.2741;
