time/ms;Fluo/V;P700 deltaI/I x10³;
-199.8000;0.4290;-1.3813;
-199.5000;0.4314;-1.3813;
-199.2000;0.4306;-1.3863;
-198.9000;0.4306;-1.3639;
-198.6000;0.4298;-1.3614;
-198.3000;0.4314;-1.3589;
-198.0000;0.4298;-1.3564;
-197.7000;0.4306;-1.3539;
-197.4000;0.4298;-1.3564;
-197.1000;0.4298;-1.3614;
-196.8000;0.4290;-1.3688;
-196.5000;0.4274;-1.3713;
-196.2000;0.4314;-1.3589;
-195.9000;0.4217;-1.3713;
-195.6000;0.4298;-1.3464;
-195.3000;0.4282;-1.3564;
-195.0000;0.4314;-1.3514;
-194.7000;0.4347;-1.3414;
-194.4000;0.4339;-1.3314;
-194.1000;0.4298;-1.3489;
-193.8000;0.4298;-1.3489;
-193.5000;0.4371;-1.3289;
-193.2000;0.4298;-1.3439;
-192.9000;0.4298;-1.3389;
-192.6000;0.4290;-1.3389;
-192.3000;0.4339;-1.3240;
-192.0000;0.4298;-1.3414;
-191.7000;0.4298;-1.3514;
-191.4000;0.4274;-1.3514;
-191.1000;0.4306;-1.3339;
-190.8000;0.4298;-1.3314;
-190.5000;0.4282;-1.3464;
-190.2000;0.4314;-1.3414;
-189.9000;0.4322;-1.3514;
-189.6000;0.4306;-1.3589;
-189.3000;0.4282;-1.3663;
-189.0000;0.4274;-1.3713;
-188.7000;0.4282;-1.3663;
-188.4000;0.4241;-1.3813;
-188.1000;0.4347;-1.3514;
-187.8000;0.4282;-1.3738;
-187.5000;0.4306;-1.3639;
-187.2000;0.4298;-1.3688;
-186.9000;0.4274;-1.3738;
-186.6000;0.4233;-1.3788;
-186.3000;0.4282;-1.3589;
-186.0000;0.4290;-1.3514;
-185.7000;0.4314;-1.3439;
-185.4000;0.4290;-1.3564;
-185.1000;0.4306;-1.3614;
-184.8000;0.4274;-1.3614;
-184.5000;0.4265;-1.3614;
-184.2000;0.4298;-1.3539;
-183.9000;0.4282;-1.3614;
-183.6000;0.4453;-1.3140;
-183.3000;0.4314;-1.3539;
-183.0000;0.4314;-1.3564;
-182.7000;0.4314;-1.3514;
-182.4000;0.4396;-1.3265;
-182.1000;0.4363;-1.3339;
-181.8000;0.4306;-1.3364;
-181.5000;0.4298;-1.3439;
-181.2000;0.4282;-1.3464;
-180.9000;0.4314;-1.3489;
-180.6000;0.4314;-1.3464;
-180.3000;0.4314;-1.3439;
-180.0000;0.4355;-1.3514;
-179.7000;0.4314;-1.3589;
-179.4000;0.4330;-1.3514;
-179.1000;0.4290;-1.3564;
-178.8000;0.4290;-1.3439;
-178.5000;0.4282;-1.3364;
-178.2000;0.4322;-1.3414;
-177.9000;0.4347;-1.3314;
-177.6000;0.4249;-1.3614;
-177.3000;0.4347;-1.3364;
-177.0000;0.4298;-1.3414;
-176.7000;0.4282;-1.3464;
-176.4000;0.4298;-1.3539;
-176.1000;0.4290;-1.3464;
-175.8000;0.4306;-1.3414;
-175.5000;0.4306;-1.3414;
-175.2000;0.4298;-1.3364;
-174.9000;0.4306;-1.3389;
-174.6000;0.4298;-1.3414;
-174.3000;0.4290;-1.3439;
-174.0000;0.4282;-1.3539;
-173.7000;0.4290;-1.3539;
-173.4000;0.4282;-1.3589;
-173.1000;0.4298;-1.3564;
-172.8000;0.4298;-1.3589;
-172.5000;0.4314;-1.3539;
-172.2000;0.4322;-1.3539;
-171.9000;0.4306;-1.3688;
-171.6000;0.4298;-1.3738;
-171.3000;0.4306;-1.3688;
-171.0000;0.4306;-1.3614;
-170.7000;0.4322;-1.3539;
-170.4000;0.4282;-1.3564;
-170.1000;0.4314;-1.3414;
-169.8000;0.4298;-1.3514;
-169.5000;0.4306;-1.3514;
-169.2000;0.4282;-1.3539;
-168.9000;0.4282;-1.3614;
-168.6000;0.4233;-1.3763;
-168.3000;0.4298;-1.3589;
-168.0000;0.4274;-1.3589;
-167.7000;0.4290;-1.3539;
-167.4000;0.4306;-1.3539;
-167.1000;0.4282;-1.3614;
-166.8000;0.4290;-1.3614;
-166.5000;0.4298;-1.3514;
-166.2000;0.4249;-1.3564;
-165.9000;0.4290;-1.3464;
-165.6000;0.4298;-1.3489;
-165.3000;0.4290;-1.3663;
-165.0000;0.4298;-1.3614;
-164.7000;0.4306;-1.3614;
-164.4000;0.4322;-1.3589;
-164.1000;0.4298;-1.3663;
-163.8000;0.4298;-1.3663;
-163.5000;0.4249;-1.3688;
-163.2000;0.4298;-1.3614;
-162.9000;0.4298;-1.3589;
-162.6000;0.4314;-1.3514;
-162.3000;0.4282;-1.3614;
-162.0000;0.4282;-1.3589;
-161.7000;0.4347;-1.3414;
-161.4000;0.4274;-1.3539;
-161.1000;0.4306;-1.3539;
-160.8000;0.4298;-1.3539;
-160.5000;0.4298;-1.3589;
-160.2000;0.4306;-1.3564;
-159.9000;0.4282;-1.3589;
-159.6000;0.4282;-1.3489;
-159.3000;0.4347;-1.3339;
-159.0000;0.4265;-1.3564;
-158.7000;0.4290;-1.3539;
-158.4000;0.4282;-1.3589;
-158.1000;0.4363;-1.3439;
-157.8000;0.4306;-1.3564;
-157.5000;0.4330;-1.3489;
-157.2000;0.4379;-1.3364;
-156.9000;0.4298;-1.3514;
-156.6000;0.4306;-1.3514;
-156.3000;0.4306;-1.3489;
-156.0000;0.4330;-1.3364;
-155.7000;0.4355;-1.3265;
-155.4000;0.4298;-1.3414;
-155.1000;0.4314;-1.3489;
-154.8000;0.4306;-1.3639;
-154.5000;0.4339;-1.3564;
-154.2000;0.4314;-1.3614;
-153.9000;0.4306;-1.3564;
-153.6000;0.4290;-1.3688;
-153.3000;0.4371;-1.3289;
-153.0000;0.4306;-1.3564;
-152.7000;0.4290;-1.3539;
-152.4000;0.4282;-1.3589;
-152.1000;0.4241;-1.3589;
-151.8000;0.4282;-1.3539;
-151.5000;0.4314;-1.3439;
-151.2000;0.4306;-1.3464;
-150.9000;0.4282;-1.3514;
-150.6000;0.4298;-1.3414;
-150.3000;0.4306;-1.3489;
-150.0000;0.4282;-1.3589;
-149.7000;0.4322;-1.3489;
-149.4000;0.4290;-1.3539;
-149.1000;0.4314;-1.3464;
-148.8000;0.4322;-1.3464;
-148.5000;0.4306;-1.3439;
-148.2000;0.4290;-1.3414;
-147.9000;0.4249;-1.3464;
-147.6000;0.4265;-1.3464;
-147.3000;0.4306;-1.3414;
-147.0000;0.4306;-1.3389;
-146.7000;0.4355;-1.3265;
-146.4000;0.4298;-1.3364;
-146.1000;0.4282;-1.3514;
-145.8000;0.4249;-1.3589;
-145.5000;0.4290;-1.3414;
-145.2000;0.4282;-1.3364;
-144.9000;0.4306;-1.3364;
-144.6000;0.4306;-1.3314;
-144.3000;0.4339;-1.3140;
-144.0000;0.4257;-1.3190;
-143.7000;0.4257;-1.3314;
-143.4000;0.4330;-1.3190;
-143.1000;0.4339;-1.3240;
-142.8000;0.4379;-1.3140;
-142.5000;0.4298;-1.3339;
-142.2000;0.4355;-1.3215;
-141.9000;0.4265;-1.3439;
-141.6000;0.4265;-1.3489;
-141.3000;0.4290;-1.3414;
-141.0000;0.4298;-1.3464;
-140.7000;0.4282;-1.3564;
-140.4000;0.4290;-1.3514;
-140.1000;0.4306;-1.3439;
-139.8000;0.4298;-1.3539;
-139.5000;0.4306;-1.3589;
-139.2000;0.4290;-1.3589;
-138.9000;0.4265;-1.3663;
-138.6000;0.4306;-1.3539;
-138.3000;0.4265;-1.3614;
-138.0000;0.4257;-1.3663;
-137.7000;0.4314;-1.3464;
-137.4000;0.4387;-1.3265;
-137.1000;0.4298;-1.3439;
-136.8000;0.4290;-1.3514;
-136.5000;0.4322;-1.3389;
-136.2000;0.4306;-1.3489;
-135.9000;0.4314;-1.3564;
-135.6000;0.4290;-1.3688;
-135.3000;0.4282;-1.3713;
-135.0000;0.4322;-1.3614;
-134.7000;0.4306;-1.3663;
-134.4000;0.4257;-1.3688;
-134.1000;0.4257;-1.3639;
-133.8000;0.4290;-1.3564;
-133.5000;0.4306;-1.3514;
-133.2000;0.4282;-1.3489;
-132.9000;0.4290;-1.3514;
-132.6000;0.4298;-1.3614;
-132.3000;0.4282;-1.3713;
-132.0000;0.4355;-1.3589;
-131.7000;0.4306;-1.3738;
-131.4000;0.4290;-1.3763;
-131.1000;0.4306;-1.3639;
-130.8000;0.4314;-1.3639;
-130.5000;0.4306;-1.3713;
-130.2000;0.4290;-1.3813;
-129.9000;0.4298;-1.3813;
-129.6000;0.4322;-1.3788;
-129.3000;0.4298;-1.3888;
-129.0000;0.4298;-1.3838;
-128.7000;0.4298;-1.3788;
-128.4000;0.4306;-1.3813;
-128.1000;0.4298;-1.3788;
-127.8000;0.4298;-1.3688;
-127.5000;0.4306;-1.3713;
-127.2000;0.4282;-1.3838;
-126.9000;0.4298;-1.3738;
-126.6000;0.4298;-1.3813;
-126.3000;0.4298;-1.3913;
-126.0000;0.4298;-1.3913;
-125.7000;0.4314;-1.3838;
-125.4000;0.4290;-1.3813;
-125.1000;0.4265;-1.3863;
-124.8000;0.4290;-1.3813;
-124.5000;0.4314;-1.3738;
-124.2000;0.4282;-1.3863;
-123.9000;0.4265;-1.3838;
-123.6000;0.4298;-1.3713;
-123.3000;0.4306;-1.3539;
-123.0000;0.4306;-1.3539;
-122.7000;0.4306;-1.3514;
-122.4000;0.4306;-1.3489;
-122.1000;0.4265;-1.3614;
-121.8000;0.4298;-1.3539;
-121.5000;0.4306;-1.3439;
-121.2000;0.4290;-1.3589;
-120.9000;0.4298;-1.3539;
-120.6000;0.4298;-1.3589;
-120.3000;0.4290;-1.3589;
-120.0000;0.4282;-1.3614;
-119.7000;0.4257;-1.3713;
-119.4000;0.4314;-1.3539;
-119.1000;0.4249;-1.3763;
-118.8000;0.4290;-1.3564;
-118.5000;0.4306;-1.3564;
-118.2000;0.4355;-1.3489;
-117.9000;0.4306;-1.3564;
-117.6000;0.4225;-1.3763;
-117.3000;0.4347;-1.3439;
-117.0000;0.4282;-1.3564;
-116.7000;0.4257;-1.3614;
-116.4000;0.4314;-1.3514;
-116.1000;0.4282;-1.3614;
-115.8000;0.4322;-1.3639;
-115.5000;0.4265;-1.3788;
-115.2000;0.4298;-1.3663;
-114.9000;0.4306;-1.3614;
-114.6000;0.4225;-1.3863;
-114.3000;0.4314;-1.3539;
-114.0000;0.4282;-1.3439;
-113.7000;0.4306;-1.3364;
-113.4000;0.4290;-1.3389;
-113.1000;0.4314;-1.3389;
-112.8000;0.4314;-1.3439;
-112.5000;0.4298;-1.3489;
-112.2000;0.4298;-1.3439;
-111.9000;0.4306;-1.3389;
-111.6000;0.4290;-1.3414;
-111.3000;0.4282;-1.3464;
-111.0000;0.4290;-1.3464;
-110.7000;0.4306;-1.3514;
-110.4000;0.4314;-1.3564;
-110.1000;0.4298;-1.3489;
-109.8000;0.4282;-1.3439;
-109.5000;0.4298;-1.3414;
-109.2000;0.4298;-1.3389;
-108.9000;0.4274;-1.3464;
-108.6000;0.4282;-1.3339;
-108.3000;0.4282;-1.3289;
-108.0000;0.4314;-1.3165;
-107.7000;0.4306;-1.3190;
-107.4000;0.4314;-1.3240;
-107.1000;0.4298;-1.3240;
-106.8000;0.4290;-1.3215;
-106.5000;0.4314;-1.3265;
-106.2000;0.4274;-1.3265;
-105.9000;0.4282;-1.3215;
-105.6000;0.4282;-1.3190;
-105.3000;0.4314;-1.3140;
-105.0000;0.4306;-1.3265;
-104.7000;0.4282;-1.3314;
-104.4000;0.4282;-1.3314;
-104.1000;0.4290;-1.3339;
-103.8000;0.4282;-1.3439;
-103.5000;0.4298;-1.3464;
-103.2000;0.4306;-1.3489;
-102.9000;0.4306;-1.3489;
-102.6000;0.4314;-1.3439;
-102.3000;0.4314;-1.3589;
-102.0000;0.4314;-1.3589;
-101.7000;0.4306;-1.3614;
-101.4000;0.4306;-1.3589;
-101.1000;0.4322;-1.3589;
-100.8000;0.4282;-1.3713;
-100.5000;0.4298;-1.3539;
-100.2000;0.4314;-1.3489;
-99.9000;0.4306;-1.3539;
-99.6000;0.4282;-1.3539;
-99.3000;0.4290;-1.3589;
-99.0000;0.4298;-1.3589;
-98.7000;0.4298;-1.3639;
-98.4000;0.4306;-1.3614;
-98.1000;0.4322;-1.3589;
-97.8000;0.4314;-1.3614;
-97.5000;0.4298;-1.3564;
-97.2000;0.4290;-1.3539;
-96.9000;0.4290;-1.3614;
-96.6000;0.4298;-1.3589;
-96.3000;0.4314;-1.3539;
-96.0000;0.4314;-1.3564;
-95.7000;0.4274;-1.3663;
-95.4000;0.4306;-1.3464;
-95.1000;0.4290;-1.3414;
-94.8000;0.4298;-1.3464;
-94.5000;0.4314;-1.3439;
-94.2000;0.4290;-1.3564;
-93.9000;0.4290;-1.3589;
-93.6000;0.4290;-1.3639;
-93.3000;0.4298;-1.3688;
-93.0000;0.4298;-1.3688;
-92.7000;0.4306;-1.3663;
-92.4000;0.4314;-1.3614;
-92.1000;0.4298;-1.3589;
-91.8000;0.4282;-1.3564;
-91.5000;0.4298;-1.3464;
-91.2000;0.4298;-1.3439;
-90.9000;0.4290;-1.3464;
-90.6000;0.4290;-1.3489;
-90.3000;0.4306;-1.3539;
-90.0000;0.4306;-1.3464;
-89.7000;0.4298;-1.3439;
-89.4000;0.4371;-1.3140;
-89.1000;0.4290;-1.3240;
-88.8000;0.4282;-1.3215;
-88.5000;0.4298;-1.3215;
-88.2000;0.4322;-1.3339;
-87.9000;0.4322;-1.3389;
-87.6000;0.4306;-1.3489;
-87.3000;0.4298;-1.3464;
-87.0000;0.4298;-1.3464;
-86.7000;0.4298;-1.3514;
-86.4000;0.4322;-1.3414;
-86.1000;0.4298;-1.3439;
-85.8000;0.4290;-1.3464;
-85.5000;0.4298;-1.3514;
-85.2000;0.4282;-1.3614;
-84.9000;0.4298;-1.3564;
-84.6000;0.4298;-1.3514;
-84.3000;0.4274;-1.3614;
-84.0000;0.4330;-1.3439;
-83.7000;0.4298;-1.3514;
-83.4000;0.4355;-1.3289;
-83.1000;0.4290;-1.3539;
-82.8000;0.4290;-1.3489;
-82.5000;0.4290;-1.3489;
-82.2000;0.4290;-1.3514;
-81.9000;0.4290;-1.3489;
-81.6000;0.4298;-1.3589;
-81.3000;0.4339;-1.3539;
-81.0000;0.4298;-1.3688;
-80.7000;0.4298;-1.3688;
-80.4000;0.4290;-1.3688;
-80.1000;0.4282;-1.3663;
-79.8000;0.4314;-1.3589;
-79.5000;0.4298;-1.3688;
-79.2000;0.4306;-1.3738;
-78.9000;0.4306;-1.3639;
-78.6000;0.4282;-1.3688;
-78.3000;0.4298;-1.3663;
-78.0000;0.4282;-1.3813;
-77.7000;0.4314;-1.3713;
-77.4000;0.4306;-1.3738;
-77.1000;0.4306;-1.3738;
-76.8000;0.4290;-1.3738;
-76.5000;0.4282;-1.3639;
-76.2000;0.4306;-1.3564;
-75.9000;0.4290;-1.3589;
-75.6000;0.4290;-1.3489;
-75.3000;0.4282;-1.3439;
-75.0000;0.4298;-1.3389;
-74.7000;0.4298;-1.3539;
-74.4000;0.4314;-1.3514;
-74.1000;0.4347;-1.3489;
-73.8000;0.4298;-1.3639;
-73.5000;0.4298;-1.3614;
-73.2000;0.4298;-1.3514;
-72.9000;0.4298;-1.3464;
-72.6000;0.4233;-1.3663;
-72.3000;0.4306;-1.3489;
-72.0000;0.4306;-1.3489;
-71.7000;0.4290;-1.3514;
-71.4000;0.4290;-1.3489;
-71.1000;0.4282;-1.3589;
-70.8000;0.4290;-1.3639;
-70.5000;0.4290;-1.3639;
-70.2000;0.4274;-1.3763;
-69.9000;0.4298;-1.3738;
-69.6000;0.4298;-1.3813;
-69.3000;0.4274;-1.3863;
-69.0000;0.4306;-1.3813;
-68.7000;0.4290;-1.3788;
-68.4000;0.4322;-1.3738;
-68.1000;0.4387;-1.3514;
-67.8000;0.4314;-1.3738;
-67.5000;0.4290;-1.3788;
-67.2000;0.4298;-1.3813;
-66.9000;0.4290;-1.3838;
-66.6000;0.4290;-1.3838;
-66.3000;0.4282;-1.3738;
-66.0000;0.4290;-1.3688;
-65.7000;0.4290;-1.3738;
-65.4000;0.4363;-1.3489;
-65.1000;0.4290;-1.3738;
-64.8000;0.4217;-1.3988;
-64.5000;0.4322;-1.3688;
-64.2000;0.4314;-1.3788;
-63.9000;0.4290;-1.3738;
-63.6000;0.4298;-1.3663;
-63.3000;0.4298;-1.3614;
-63.0000;0.4298;-1.3614;
-62.7000;0.4306;-1.3614;
-62.4000;0.4282;-1.3788;
-62.1000;0.4298;-1.3813;
-61.8000;0.4290;-1.3738;
-61.5000;0.4298;-1.3688;
-61.2000;0.4265;-1.3813;
-60.9000;0.4298;-1.3663;
-60.6000;0.4322;-1.3589;
-60.3000;0.4306;-1.3564;
-60.0000;0.4265;-1.3639;
-59.7000;0.4290;-1.3688;
-59.4000;0.4241;-1.3813;
-59.1000;0.4306;-1.3763;
-58.8000;0.4298;-1.3813;
-58.5000;0.4306;-1.3813;
-58.2000;0.4298;-1.3863;
-57.9000;0.4298;-1.3963;
-57.6000;0.4290;-1.3963;
-57.3000;0.4265;-1.3963;
-57.0000;0.4314;-1.3788;
-56.7000;0.4290;-1.3813;
-56.4000;0.4306;-1.3738;
-56.1000;0.4379;-1.3564;
-55.8000;0.4290;-1.3788;
-55.5000;0.4298;-1.3863;
-55.2000;0.4298;-1.3813;
-54.9000;0.4298;-1.3813;
-54.6000;0.4290;-1.3788;
-54.3000;0.4282;-1.3838;
-54.0000;0.4274;-1.3888;
-53.7000;0.4282;-1.3888;
-53.4000;0.4274;-1.3788;
-53.1000;0.4257;-1.3813;
-52.8000;0.4290;-1.3713;
-52.5000;0.4290;-1.3713;
-52.2000;0.4290;-1.3763;
-51.9000;0.4298;-1.3788;
-51.6000;0.4290;-1.3763;
-51.3000;0.4298;-1.3763;
-51.0000;0.4290;-1.3763;
-50.7000;0.4322;-1.3763;
-50.4000;0.4298;-1.3763;
-50.1000;0.4282;-1.3863;
-49.8000;0.4290;-1.3813;
-49.5000;0.4290;-1.3788;
-49.2000;0.4290;-1.3813;
-48.9000;0.4274;-1.3863;
-48.6000;0.4330;-1.3813;
-48.3000;0.4355;-1.3663;
-48.0000;0.4298;-1.3788;
-47.7000;0.4322;-1.3713;
-47.4000;0.4298;-1.3713;
-47.1000;0.4274;-1.3713;
-46.8000;0.4306;-1.3688;
-46.5000;0.4322;-1.3639;
-46.2000;0.4298;-1.3713;
-45.9000;0.4290;-1.3788;
-45.6000;0.4290;-1.3838;
-45.3000;0.4314;-1.3788;
-45.0000;0.4306;-1.3913;
-44.7000;0.4314;-1.3938;
-44.4000;0.4290;-1.3963;
-44.1000;0.4330;-1.3938;
-43.8000;0.4290;-1.4062;
-43.5000;0.4290;-1.4037;
-43.2000;0.4306;-1.4013;
-42.9000;0.4298;-1.3913;
-42.6000;0.4314;-1.3913;
-42.3000;0.4306;-1.3913;
-42.0000;0.4322;-1.3863;
-41.7000;0.4298;-1.3988;
-41.4000;0.4298;-1.3963;
-41.1000;0.4314;-1.3813;
-40.8000;0.4298;-1.3863;
-40.5000;0.4306;-1.3763;
-40.2000;0.4306;-1.3713;
-39.9000;0.4298;-1.3738;
-39.6000;0.4290;-1.3788;
-39.3000;0.4314;-1.3713;
-39.0000;0.4339;-1.3738;
-38.7000;0.4290;-1.3888;
-38.4000;0.4290;-1.3888;
-38.1000;0.4298;-1.3963;
-37.8000;0.4241;-1.4062;
-37.5000;0.4298;-1.3938;
-37.2000;0.4290;-1.3963;
-36.9000;0.4298;-1.3888;
-36.6000;0.4306;-1.3788;
-36.3000;0.4306;-1.3788;
-36.0000;0.4298;-1.3888;
-35.7000;0.4298;-1.3888;
-35.4000;0.4298;-1.3888;
-35.1000;0.4306;-1.3838;
-34.8000;0.4298;-1.3838;
-34.5000;0.4322;-1.3763;
-34.2000;0.4306;-1.3788;
-33.9000;0.4314;-1.3788;
-33.6000;0.4339;-1.3614;
-33.3000;0.4314;-1.3713;
-33.0000;0.4265;-1.3838;
-32.7000;0.4314;-1.3763;
-32.4000;0.4298;-1.3763;
-32.1000;0.4290;-1.3788;
-31.8000;0.4290;-1.3813;
-31.5000;0.4274;-1.3838;
-31.2000;0.4306;-1.3788;
-30.9000;0.4314;-1.3788;
-30.6000;0.4249;-1.3938;
-30.3000;0.4306;-1.3763;
-30.0000;0.4298;-1.3688;
-29.7000;0.4322;-1.3713;
-29.4000;0.4290;-1.3813;
-29.1000;0.4379;-1.3614;
-28.8000;0.4306;-1.3788;
-28.5000;0.4298;-1.3863;
-28.2000;0.4314;-1.3963;
-27.9000;0.4298;-1.3963;
-27.6000;0.4274;-1.3938;
-27.3000;0.4233;-1.4187;
-27.0000;0.4290;-1.4037;
-26.7000;0.4290;-1.3988;
-26.4000;0.4298;-1.3838;
-26.1000;0.4217;-1.4037;
-25.8000;0.4306;-1.3788;
-25.5000;0.4298;-1.3838;
-25.2000;0.4339;-1.3713;
-24.9000;0.4306;-1.3688;
-24.6000;0.4412;-1.3439;
-24.3000;0.4265;-1.3614;
-24.0000;0.4282;-1.3514;
-23.7000;0.4306;-1.3514;
-23.4000;0.4298;-1.3564;
-23.1000;0.4290;-1.3564;
-22.8000;0.4290;-1.3564;
-22.5000;0.4339;-1.3414;
-22.2000;0.4290;-1.3489;
-21.9000;0.4298;-1.3514;
-21.6000;0.4274;-1.3589;
-21.3000;0.4298;-1.3564;
-21.0000;0.4298;-1.3539;
-20.7000;0.4290;-1.3539;
-20.4000;0.4298;-1.3539;
-20.1000;0.4298;-1.3589;
-19.8000;0.4298;-1.3688;
-19.5000;0.4290;-1.3738;
-19.2000;0.4290;-1.3713;
-18.9000;0.4314;-1.3688;
-18.6000;0.4330;-1.3688;
-18.3000;0.4306;-1.3738;
-18.0000;0.4290;-1.3863;
-17.7000;0.4290;-1.3863;
-17.4000;0.4225;-1.4037;
-17.1000;0.4282;-1.3863;
-16.8000;0.4298;-1.3863;
-16.5000;0.4339;-1.3713;
-16.2000;0.4298;-1.3713;
-15.9000;0.4330;-1.3614;
-15.6000;0.4298;-1.3763;
-15.3000;0.4298;-1.3688;
-15.0000;0.4306;-1.3663;
-14.7000;0.4355;-1.3564;
-14.4000;0.4298;-1.3763;
-14.1000;0.4298;-1.3863;
-13.8000;0.4274;-1.3913;
-13.5000;0.4306;-1.3838;
-13.2000;0.4290;-1.3863;
-12.9000;0.4290;-1.3863;
-12.6000;0.4290;-1.3938;
-12.3000;0.4282;-1.3913;
-12.0000;0.4282;-1.3863;
-11.7000;0.4290;-1.3813;
-11.4000;0.4290;-1.3788;
-11.1000;0.4306;-1.3788;
-10.8000;0.4306;-1.3763;
-10.5000;0.4298;-1.3763;
-10.2000;0.4306;-1.3813;
-9.9000;0.4298;-1.3763;
-9.6000;0.4282;-1.3838;
-9.3000;0.4282;-1.3888;
-9.0000;0.4314;-1.3813;
-8.7000;0.4241;-1.3863;
-8.4000;0.4233;-1.3838;
-8.1000;0.4306;-1.3589;
-7.8000;0.4322;-1.3589;
-7.5000;0.4314;-1.3614;
-7.2000;0.4298;-1.3464;
-6.9000;0.4355;-1.3389;
-6.6000;0.4257;-1.3663;
-6.3000;0.4282;-1.3663;
-6.0000;0.4306;-1.3564;
-5.7000;0.4282;-1.3539;
-5.4000;0.4298;-1.3489;
-5.1000;0.4306;-1.3589;
-4.8000;0.4314;-1.3564;
-4.5000;0.4306;-1.3614;
-4.2000;0.4282;-1.3713;
-3.9000;0.4290;-1.3639;
-3.6000;0.4347;-1.3514;
-3.3000;0.4298;-1.3589;
-3.0000;0.4298;-1.3589;
-2.7000;0.4290;-1.3614;
-2.4000;0.4282;-1.3589;
-2.1000;0.4314;-1.3414;
-1.8000;0.4298;-1.3489;
-1.5000;0.4306;-1.3439;
-1.2000;0.4274;-1.3489;
-0.9000;0.4274;-1.3489;
-0.6000;0.4282;-1.3489;
-0.3000;0.4298;-1.3464;
0.0000;0.4298;-1.3464;
0.3000;0.4542;-1.3713;
0.6000;0.4990;-1.3040;
0.9000;0.5381;-1.2367;
1.2000;0.5682;-1.1769;
1.5000;0.5910;-1.1295;
1.8000;0.6072;-1.1045;
2.1000;0.6219;-1.0771;
2.4000;0.6341;-1.0597;
2.7000;0.6439;-1.0372;
3.0000;0.6504;-1.0148;
3.3000;0.6593;-0.9874;
3.6000;0.6675;-0.9699;
3.9000;0.6683;-0.9699;
4.2000;0.6724;-0.9674;
4.5000;0.6789;-0.9475;
4.8000;0.6821;-0.9425;
5.1000;0.6870;-0.9450;
5.4000;0.6895;-0.9325;
5.7000;0.6935;-0.9275;
6.0000;0.6952;-0.9275;
6.3000;0.6984;-0.9250;
6.6000;0.7025;-0.9151;
6.9000;0.7041;-0.9126;
7.2000;0.7066;-0.9175;
7.5000;0.7090;-0.9175;
7.8000;0.7114;-0.9325;
8.1000;0.7147;-0.9275;
8.4000;0.7171;-0.9225;
8.7000;0.7196;-0.9225;
9.0000;0.7204;-0.9300;
9.3000;0.7212;-0.9300;
9.6000;0.7204;-0.9375;
9.9000;0.7236;-0.9375;
10.2000;0.7293;-0.9325;
10.5000;0.7342;-0.9375;
10.8000;0.7293;-0.9549;
11.1000;0.7367;-0.9400;
11.4000;0.7391;-0.9475;
11.7000;0.7383;-0.9500;
12.0000;0.7448;-0.9425;
12.3000;0.7464;-0.9400;
12.6000;0.7481;-0.9375;
12.9000;0.7481;-0.9400;
13.2000;0.7513;-0.9375;
13.5000;0.7530;-0.9350;
13.8000;0.7554;-0.9275;
14.1000;0.7570;-0.9250;
14.4000;0.7578;-0.9225;
14.7000;0.7643;-0.9225;
15.0000;0.7619;-0.9325;
15.3000;0.7619;-0.9350;
15.6000;0.7660;-0.9425;
15.9000;0.7676;-0.9375;
16.2000;0.7676;-0.9425;
16.5000;0.7692;-0.9475;
16.8000;0.7717;-0.9599;
17.1000;0.7766;-0.9525;
17.4000;0.7733;-0.9649;
17.7000;0.7741;-0.9674;
18.0000;0.7790;-0.9549;
18.3000;0.7766;-0.9549;
18.6000;0.7798;-0.9475;
18.9000;0.7798;-0.9475;
19.2000;0.7814;-0.9500;
19.5000;0.7831;-0.9375;
19.8000;0.7823;-0.9500;
20.1000;0.7871;-0.9425;
20.4000;0.7880;-0.9525;
20.7000;0.7896;-0.9500;
21.0000;0.7920;-0.9599;
21.3000;0.7920;-0.9624;
21.6000;0.7928;-0.9525;
21.9000;0.7912;-0.9500;
22.2000;0.7937;-0.9325;
22.5000;0.7993;-0.9275;
22.8000;0.7953;-0.9549;
23.1000;0.7953;-0.9649;
23.4000;0.7969;-0.9674;
23.7000;0.7993;-0.9624;
24.0000;0.7953;-0.9749;
24.3000;0.7993;-0.9624;
24.6000;0.8099;-0.9475;
24.9000;0.8026;-0.9649;
25.2000;0.8034;-0.9624;
25.5000;0.8091;-0.9525;
25.8000;0.8067;-0.9599;
26.1000;0.8075;-0.9525;
26.4000;0.8075;-0.9599;
26.7000;0.8018;-0.9824;
27.0000;0.8107;-0.9599;
27.3000;0.8107;-0.9574;
27.6000;0.8116;-0.9599;
27.9000;0.8132;-0.9500;
28.2000;0.8116;-0.9475;
28.5000;0.8132;-0.9475;
28.8000;0.8116;-0.9400;
29.1000;0.8140;-0.9475;
29.4000;0.8140;-0.9574;
29.7000;0.8156;-0.9624;
30.0000;0.8189;-0.9525;
30.3000;0.8164;-0.9674;
30.6000;0.8189;-0.9624;
30.9000;0.8189;-0.9724;
31.2000;0.8189;-0.9724;
31.5000;0.8205;-0.9699;
31.8000;0.8181;-0.9724;
32.1000;0.8213;-0.9699;
32.4000;0.8295;-0.9574;
32.7000;0.8230;-0.9824;
33.0000;0.8262;-0.9824;
33.3000;0.8238;-0.9948;
33.6000;0.8254;-0.9874;
33.9000;0.8221;-0.9923;
34.2000;0.8270;-0.9799;
34.5000;0.8230;-0.9948;
34.8000;0.8238;-0.9874;
35.1000;0.8303;-0.9724;
35.4000;0.8295;-0.9799;
35.7000;0.8295;-0.9874;
36.0000;0.8295;-1.0048;
36.3000;0.8262;-1.0198;
36.6000;0.8319;-1.0073;
36.9000;0.8303;-1.0023;
37.2000;0.8327;-0.9948;
37.5000;0.8335;-0.9923;
37.8000;0.8352;-0.9899;
38.1000;0.8368;-0.9998;
38.4000;0.8352;-0.9998;
38.7000;0.8360;-1.0098;
39.0000;0.8344;-1.0148;
39.3000;0.8376;-1.0173;
39.6000;0.8392;-1.0148;
39.9000;0.8400;-1.0148;
40.2000;0.8384;-1.0173;
40.5000;0.8392;-1.0098;
40.8000;0.8400;-1.0098;
41.1000;0.8400;-1.0148;
41.4000;0.8400;-1.0123;
41.7000;0.8384;-1.0123;
42.0000;0.8433;-1.0098;
42.3000;0.8417;-1.0073;
42.6000;0.8425;-1.0098;
42.9000;0.8449;-1.0073;
43.2000;0.8490;-0.9973;
43.5000;0.8433;-1.0198;
43.8000;0.8449;-1.0173;
44.1000;0.8441;-1.0297;
44.4000;0.8441;-1.0397;
44.7000;0.8474;-1.0297;
45.0000;0.8457;-1.0248;
45.3000;0.8466;-1.0297;
45.6000;0.8482;-1.0223;
45.9000;0.8490;-1.0248;
46.2000;0.8506;-1.0223;
46.5000;0.8523;-1.0248;
46.8000;0.8498;-1.0322;
47.1000;0.8498;-1.0248;
47.4000;0.8523;-1.0322;
47.7000;0.8531;-1.0347;
48.0000;0.8523;-1.0422;
48.3000;0.8523;-1.0372;
48.6000;0.8506;-1.0372;
48.9000;0.8547;-1.0322;
49.2000;0.8539;-1.0472;
49.5000;0.8580;-1.0372;
49.8000;0.8523;-1.0497;
50.1000;0.8588;-1.0322;
50.4000;0.8555;-1.0322;
50.7000;0.8547;-1.0397;
51.0000;0.8563;-1.0273;
51.3000;0.8563;-1.0322;
51.6000;0.8588;-1.0297;
51.9000;0.8588;-1.0223;
52.2000;0.8620;-1.0173;
52.5000;0.8571;-1.0372;
52.8000;0.8596;-1.0322;
53.1000;0.8604;-1.0322;
53.4000;0.8612;-1.0397;
53.7000;0.8596;-1.0497;
54.0000;0.8604;-1.0572;
54.3000;0.8620;-1.0547;
54.6000;0.8620;-1.0547;
54.9000;0.8628;-1.0522;
55.2000;0.8588;-1.0647;
55.5000;0.8628;-1.0622;
55.8000;0.8612;-1.0547;
56.1000;0.8645;-1.0472;
56.4000;0.8637;-1.0422;
56.7000;0.8653;-1.0397;
57.0000;0.8661;-1.0522;
57.3000;0.8677;-1.0547;
57.6000;0.8677;-1.0647;
57.9000;0.8685;-1.0597;
58.2000;0.8685;-1.0572;
58.5000;0.8677;-1.0647;
58.8000;0.8783;-1.0472;
59.1000;0.8685;-1.0871;
59.4000;0.8702;-1.0771;
59.7000;0.8685;-1.0771;
60.0000;0.8685;-1.0721;
60.3000;0.8669;-1.0771;
60.6000;0.8694;-1.0721;
60.9000;0.8726;-1.0597;
61.2000;0.8710;-1.0622;
61.5000;0.8718;-1.0647;
61.8000;0.8734;-1.0497;
62.1000;0.8759;-1.0472;
62.4000;0.8718;-1.0472;
62.7000;0.8694;-1.0547;
63.0000;0.8718;-1.0547;
63.3000;0.8759;-1.0597;
63.6000;0.8767;-1.0597;
63.9000;0.8742;-1.0696;
64.2000;0.8767;-1.0647;
64.5000;0.8767;-1.0746;
64.8000;0.8759;-1.0721;
65.1000;0.8807;-1.0597;
65.4000;0.8767;-1.0622;
65.7000;0.8734;-1.0721;
66.0000;0.8751;-1.0671;
66.3000;0.8775;-1.0572;
66.6000;0.8767;-1.0671;
66.9000;0.8702;-1.0946;
67.2000;0.8807;-1.0647;
67.5000;0.8848;-1.0572;
67.8000;0.8824;-1.0671;
68.1000;0.8783;-1.0746;
68.4000;0.8799;-1.0696;
68.7000;0.8816;-1.0597;
69.0000;0.8726;-1.0871;
69.3000;0.8816;-1.0696;
69.6000;0.8799;-1.0671;
69.9000;0.8824;-1.0696;
70.2000;0.8783;-1.0771;
70.5000;0.8832;-1.0647;
70.8000;0.8832;-1.0647;
71.1000;0.8832;-1.0572;
71.4000;0.8824;-1.0597;
71.7000;0.8848;-1.0572;
72.0000;0.8856;-1.0522;
72.3000;0.8856;-1.0572;
72.6000;0.8856;-1.0622;
72.9000;0.8848;-1.0696;
73.2000;0.8864;-1.0721;
73.5000;0.8889;-1.0622;
73.8000;0.8848;-1.0647;
74.1000;0.8791;-1.0796;
74.4000;0.8873;-1.0547;
74.7000;0.8873;-1.0597;
75.0000;0.8864;-1.0597;
75.3000;0.8840;-1.0696;
75.6000;0.8864;-1.0671;
75.9000;0.8921;-1.0547;
76.2000;0.8881;-1.0671;
76.5000;0.8881;-1.0597;
76.8000;0.8889;-1.0572;
77.1000;0.8905;-1.0547;
77.4000;0.8897;-1.0572;
77.7000;0.8889;-1.0597;
78.0000;0.8889;-1.0522;
78.3000;0.8889;-1.0547;
78.6000;0.8881;-1.0547;
78.9000;0.8897;-1.0572;
79.2000;0.8905;-1.0547;
79.5000;0.8905;-1.0547;
79.8000;0.8905;-1.0547;
80.1000;0.8913;-1.0671;
80.4000;0.8921;-1.0671;
80.7000;0.8921;-1.0721;
81.0000;0.8938;-1.0771;
81.3000;0.8938;-1.0871;
81.6000;0.8905;-1.0971;
81.9000;0.8856;-1.1021;
82.2000;0.8938;-1.0821;
82.5000;0.8946;-1.0746;
82.8000;0.8970;-1.0497;
83.1000;0.8913;-1.0572;
83.4000;0.8930;-1.0547;
83.7000;0.8938;-1.0647;
84.0000;0.8930;-1.0771;
84.3000;0.8921;-1.0821;
84.6000;0.8946;-1.0771;
84.9000;0.8921;-1.0821;
85.2000;0.8905;-1.0746;
85.5000;0.8954;-1.0671;
85.8000;0.8938;-1.0671;
86.1000;0.8970;-1.0597;
86.4000;0.8954;-1.0746;
86.7000;0.8913;-1.0871;
87.0000;0.8954;-1.0821;
87.3000;0.8970;-1.0746;
87.6000;0.8962;-1.0796;
87.9000;0.8962;-1.0796;
88.2000;0.9003;-1.0622;
88.5000;0.9011;-1.0647;
88.8000;0.9027;-1.0647;
89.1000;0.8987;-1.0846;
89.4000;0.8987;-1.0846;
89.7000;0.9052;-1.0622;
90.0000;0.8978;-1.0821;
90.3000;0.8978;-1.0821;
90.6000;0.8987;-1.0821;
90.9000;0.8978;-1.0821;
91.2000;0.8978;-1.0746;
91.5000;0.8970;-1.0746;
91.8000;0.8987;-1.0746;
92.1000;0.8987;-1.0771;
92.4000;0.9003;-1.0721;
92.7000;0.9011;-1.0696;
93.0000;0.8962;-1.0796;
93.3000;0.8995;-1.0771;
93.6000;0.8938;-1.0946;
93.9000;0.8995;-1.0871;
94.2000;0.9003;-1.0871;
94.5000;0.8987;-1.0921;
94.8000;0.9019;-1.0896;
95.1000;0.9003;-1.0896;
95.4000;0.9011;-1.0871;
95.7000;0.9011;-1.0771;
96.0000;0.9003;-1.0721;
96.3000;0.9019;-1.0622;
96.6000;0.9019;-1.0547;
96.9000;0.8995;-1.0572;
97.2000;0.9011;-1.0597;
97.5000;0.8995;-1.0622;
97.8000;0.9027;-1.0597;
98.1000;0.9011;-1.0671;
98.4000;0.9011;-1.0696;
98.7000;0.9011;-1.0821;
99.0000;0.9019;-1.0846;
99.3000;0.9035;-1.0946;
99.6000;0.9011;-1.1070;
99.9000;0.9019;-1.1045;
100.2000;0.9027;-1.0946;
100.5000;0.9027;-1.0946;
100.8000;0.9027;-1.0996;
101.1000;0.9019;-1.0946;
101.4000;0.9060;-1.0871;
101.7000;0.9027;-1.0921;
102.0000;0.9027;-1.0971;
102.3000;0.9109;-1.0771;
102.6000;0.9035;-1.0896;
102.9000;0.9044;-1.0921;
103.2000;0.9019;-1.0971;
103.5000;0.9068;-1.0846;
103.8000;0.9052;-1.0871;
104.1000;0.9052;-1.0921;
104.4000;0.9044;-1.0971;
104.7000;0.9052;-1.0921;
105.0000;0.9035;-1.0946;
105.3000;0.8954;-1.1145;
105.6000;0.8946;-1.1195;
105.9000;0.9044;-1.0896;
106.2000;0.9011;-1.0921;
106.5000;0.9052;-1.0921;
106.8000;0.9019;-1.0996;
107.1000;0.9060;-1.0971;
107.4000;0.9035;-1.0921;
107.7000;0.9035;-1.1045;
108.0000;0.9060;-1.0996;
108.3000;0.9092;-1.0871;
108.6000;0.9044;-1.0871;
108.9000;0.9060;-1.0896;
109.2000;0.9027;-1.0946;
109.5000;0.9027;-1.0871;
109.8000;0.9003;-1.0796;
110.1000;0.9044;-1.0746;
110.4000;0.9052;-1.0746;
110.7000;0.9068;-1.0746;
111.0000;0.9052;-1.0871;
111.3000;0.9019;-1.0921;
111.6000;0.9027;-1.0846;
111.9000;0.9092;-1.0721;
112.2000;0.9011;-1.1021;
112.5000;0.9044;-1.0971;
112.8000;0.9019;-1.1021;
113.1000;0.9052;-1.1095;
113.4000;0.9044;-1.1245;
113.7000;0.9052;-1.1295;
114.0000;0.9003;-1.1320;
114.3000;0.9044;-1.1070;
114.6000;0.9076;-1.0996;
114.9000;0.9068;-1.0946;
115.2000;0.9060;-1.1045;
115.5000;0.9052;-1.1070;
115.8000;0.9052;-1.0996;
116.1000;0.9076;-1.0996;
116.4000;0.9052;-1.0996;
116.7000;0.9068;-1.0971;
117.0000;0.9076;-1.0921;
117.3000;0.9076;-1.0921;
117.6000;0.9076;-1.0871;
117.9000;0.9060;-1.0921;
118.2000;0.9076;-1.0871;
118.5000;0.9068;-1.0971;
118.8000;0.9084;-1.0921;
119.1000;0.9027;-1.0996;
119.4000;0.9076;-1.0846;
119.7000;0.9076;-1.0871;
120.0000;0.9092;-1.0846;
120.3000;0.9076;-1.0871;
120.6000;0.9076;-1.0921;
120.9000;0.9068;-1.0821;
121.2000;0.9052;-1.0896;
121.5000;0.9060;-1.0846;
121.8000;0.9052;-1.0871;
122.1000;0.9060;-1.0896;
122.4000;0.9068;-1.0946;
122.7000;0.9044;-1.0921;
123.0000;0.9092;-1.0821;
123.3000;0.9076;-1.0896;
123.6000;0.9101;-1.0846;
123.9000;0.9084;-1.0896;
124.2000;0.9068;-1.0896;
124.5000;0.9068;-1.0896;
124.8000;0.9084;-1.0871;
125.1000;0.9084;-1.0971;
125.4000;0.9068;-1.0996;
125.7000;0.9068;-1.0946;
126.0000;0.9076;-1.0921;
126.3000;0.9076;-1.0871;
126.6000;0.9076;-1.0871;
126.9000;0.9092;-1.0896;
127.2000;0.9092;-1.0946;
127.5000;0.9076;-1.0871;
127.8000;0.9019;-1.1045;
128.1000;0.9076;-1.0921;
128.4000;0.9076;-1.0921;
128.7000;0.9044;-1.0946;
129.0000;0.9068;-1.0846;
129.3000;0.9076;-1.0846;
129.6000;0.9052;-1.1045;
129.9000;0.9158;-1.0771;
130.2000;0.9068;-1.0971;
130.5000;0.9076;-1.0946;
130.8000;0.9084;-1.0921;
131.1000;0.9068;-1.0946;
131.4000;0.9068;-1.0996;
131.7000;0.9035;-1.1120;
132.0000;0.9068;-1.1070;
132.3000;0.9076;-1.0971;
132.6000;0.9076;-1.0946;
132.9000;0.9060;-1.0971;
133.2000;0.9084;-1.0921;
133.5000;0.9101;-1.0921;
133.8000;0.9076;-1.1045;
134.1000;0.9068;-1.1070;
134.4000;0.9068;-1.1045;
134.7000;0.9101;-1.0946;
135.0000;0.9068;-1.0871;
135.3000;0.9068;-1.0846;
135.6000;0.9084;-1.0821;
135.9000;0.9068;-1.0871;
136.2000;0.9076;-1.0871;
136.5000;0.9060;-1.0796;
136.8000;0.9060;-1.0846;
137.1000;0.9011;-1.0946;
137.4000;0.9076;-1.0771;
137.7000;0.9092;-1.0721;
138.0000;0.9092;-1.0746;
138.3000;0.9084;-1.0821;
138.6000;0.9068;-1.0921;
138.9000;0.9084;-1.0796;
139.2000;0.9084;-1.0946;
139.5000;0.9068;-1.0971;
139.8000;0.9076;-1.0896;
140.1000;0.9084;-1.0871;
140.4000;0.9092;-1.0721;
140.7000;0.9060;-1.0721;
141.0000;0.9068;-1.0746;
141.3000;0.9092;-1.0572;
141.6000;0.9084;-1.0522;
141.9000;0.9084;-1.0597;
142.2000;0.9060;-1.0622;
142.5000;0.9068;-1.0622;
142.8000;0.9060;-1.0746;
143.1000;0.9068;-1.0796;
143.4000;0.9068;-1.0796;
143.7000;0.9076;-1.0846;
144.0000;0.9092;-1.0896;
144.3000;0.9092;-1.0821;
144.6000;0.9084;-1.0771;
144.9000;0.9092;-1.0721;
145.2000;0.9092;-1.0671;
145.5000;0.9068;-1.0671;
145.8000;0.9052;-1.0721;
146.1000;0.9027;-1.0696;
146.4000;0.9060;-1.0671;
146.7000;0.9092;-1.0597;
147.0000;0.9076;-1.0746;
147.3000;0.9092;-1.0771;
147.6000;0.9092;-1.0746;
147.9000;0.9092;-1.0721;
148.2000;0.9060;-1.0871;
148.5000;0.9101;-1.0771;
148.8000;0.9092;-1.0871;
149.1000;0.9092;-1.0921;
149.4000;0.9084;-1.0871;
149.7000;0.9068;-1.0996;
150.0000;0.9092;-1.0946;
150.3000;0.9174;-1.0696;
150.6000;0.9052;-1.0921;
150.9000;0.9068;-1.0871;
151.2000;0.9084;-1.0846;
151.5000;0.9076;-1.0921;
151.8000;0.9076;-1.0946;
152.1000;0.9060;-1.0871;
152.4000;0.9068;-1.0821;
152.7000;0.9092;-1.0771;
153.0000;0.9068;-1.0896;
153.3000;0.9044;-1.0971;
153.6000;0.9084;-1.0871;
153.9000;0.9149;-1.0746;
154.2000;0.9060;-1.0946;
154.5000;0.9068;-1.0921;
154.8000;0.9092;-1.0871;
155.1000;0.9084;-1.0896;
155.4000;0.9068;-1.0921;
155.7000;0.9068;-1.0896;
156.0000;0.9044;-1.0896;
156.3000;0.9076;-1.0796;
156.6000;0.9052;-1.0821;
156.9000;0.9060;-1.0771;
157.2000;0.9060;-1.0871;
157.5000;0.9060;-1.0871;
157.8000;0.9060;-1.0921;
158.1000;0.9092;-1.0846;
158.4000;0.9068;-1.0896;
158.7000;0.9052;-1.0896;
159.0000;0.9068;-1.0771;
159.3000;0.9068;-1.0771;
159.6000;0.9003;-1.0896;
159.9000;0.9076;-1.0721;
160.2000;0.9076;-1.0721;
160.5000;0.9052;-1.0771;
160.8000;0.9060;-1.0796;
161.1000;0.9060;-1.0846;
161.4000;0.9035;-1.0746;
161.7000;0.9068;-1.0622;
162.0000;0.9060;-1.0572;
162.3000;0.9052;-1.0696;
162.6000;0.9109;-1.0597;
162.9000;0.9084;-1.0771;
163.2000;0.9076;-1.0846;
163.5000;0.9068;-1.0821;
163.8000;0.9084;-1.0796;
164.1000;0.9076;-1.0746;
164.4000;0.8987;-1.0946;
164.7000;0.9125;-1.0771;
165.0000;0.9068;-1.0846;
165.3000;0.9076;-1.0796;
165.6000;0.9101;-1.0721;
165.9000;0.9084;-1.0846;
166.2000;0.9076;-1.0921;
166.5000;0.9052;-1.1095;
166.8000;0.9060;-1.1095;
167.1000;0.9076;-1.1120;
167.4000;0.9060;-1.1120;
167.7000;0.9101;-1.0946;
168.0000;0.9068;-1.0946;
168.3000;0.9068;-1.0971;
168.6000;0.9035;-1.0971;
168.9000;0.9068;-1.0946;
169.2000;0.9060;-1.1045;
169.5000;0.9068;-1.0971;
169.8000;0.9044;-1.0996;
170.1000;0.9035;-1.1045;
170.4000;0.9068;-1.0921;
170.7000;0.9060;-1.0896;
171.0000;0.9060;-1.0921;
171.3000;0.9035;-1.0871;
171.6000;0.9060;-1.0821;
171.9000;0.9003;-1.0946;
172.2000;0.9052;-1.0846;
172.5000;0.9060;-1.0721;
172.8000;0.9125;-1.0497;
173.1000;0.9076;-1.0597;
173.4000;0.9052;-1.0572;
173.7000;0.9035;-1.0572;
174.0000;0.9052;-1.0572;
174.3000;0.9044;-1.0597;
174.6000;0.9060;-1.0497;
174.9000;0.9052;-1.0547;
175.2000;0.9035;-1.0547;
175.5000;0.9052;-1.0547;
175.8000;0.9125;-1.0472;
176.1000;0.9068;-1.0547;
176.4000;0.9044;-1.0696;
176.7000;0.9052;-1.0647;
177.0000;0.9068;-1.0622;
177.3000;0.9027;-1.0771;
177.6000;0.9068;-1.0522;
177.9000;0.9044;-1.0547;
178.2000;0.9109;-1.0497;
178.5000;0.9052;-1.0597;
178.8000;0.9044;-1.0622;
179.1000;0.9019;-1.0622;
179.4000;0.9019;-1.0547;
179.7000;0.9052;-1.0447;
180.0000;0.9052;-1.0497;
180.3000;0.9060;-1.0497;
180.6000;0.9076;-1.0447;
180.9000;0.9052;-1.0522;
181.2000;0.9019;-1.0597;
181.5000;0.9035;-1.0547;
181.8000;0.8995;-1.0671;
182.1000;0.9052;-1.0597;
182.4000;0.9044;-1.0622;
182.7000;0.9084;-1.0347;
183.0000;0.9035;-1.0497;
183.3000;0.9101;-1.0372;
183.6000;0.9027;-1.0572;
183.9000;0.9052;-1.0572;
184.2000;0.9003;-1.0796;
184.5000;0.9060;-1.0696;
184.8000;0.9019;-1.0746;
185.1000;0.9044;-1.0696;
185.4000;0.8987;-1.0846;
185.7000;0.9019;-1.0796;
186.0000;0.9060;-1.0746;
186.3000;0.9068;-1.0696;
186.6000;0.9027;-1.0771;
186.9000;0.9044;-1.0647;
187.2000;0.9035;-1.0622;
187.5000;0.9052;-1.0547;
187.8000;0.9019;-1.0597;
188.1000;0.9027;-1.0572;
188.4000;0.9060;-1.0422;
188.7000;0.8978;-1.0671;
189.0000;0.9019;-1.0547;
189.3000;0.9035;-1.0497;
189.6000;0.9052;-1.0472;
189.9000;0.9052;-1.0447;
190.2000;0.9052;-1.0472;
190.5000;0.9044;-1.0572;
190.8000;0.9044;-1.0647;
191.1000;0.9052;-1.0472;
191.4000;0.9035;-1.0472;
191.7000;0.9019;-1.0497;
192.0000;0.9019;-1.0447;
192.3000;0.9044;-1.0522;
192.6000;0.9035;-1.0497;
192.9000;0.9035;-1.0472;
193.2000;0.9035;-1.0447;
193.5000;0.9035;-1.0422;
193.8000;0.9044;-1.0472;
194.1000;0.9019;-1.0422;
194.4000;0.9044;-1.0422;
194.7000;0.9019;-1.0522;
195.0000;0.9035;-1.0497;
195.3000;0.9027;-1.0522;
195.6000;0.9052;-1.0422;
195.9000;0.9044;-1.0447;
196.2000;0.9044;-1.0522;
196.5000;0.9027;-1.0522;
196.8000;0.9019;-1.0597;
197.1000;0.9068;-1.0397;
197.4000;0.9044;-1.0397;
197.7000;0.8987;-1.0447;
198.0000;0.9035;-1.0322;
198.3000;0.9019;-1.0372;
198.6000;0.9035;-1.0372;
198.9000;0.9044;-1.0347;
199.2000;0.9027;-1.0372;
199.5000;0.9035;-1.0472;
199.8000;0.9027;-1.0447;
200.1000;0.9035;-1.0522;
200.4000;0.9019;-1.0572;
200.7000;0.9035;-1.0472;
201.0000;0.9035;-1.0397;
201.3000;0.9027;-1.0347;
201.6000;0.9027;-1.0372;
201.9000;0.9052;-1.0322;
202.2000;0.9027;-1.0347;
202.5000;0.9027;-1.0322;
202.8000;0.8987;-1.0497;
203.1000;0.9044;-1.0397;
203.4000;0.8978;-1.0597;
203.7000;0.9027;-1.0472;
204.0000;0.9027;-1.0397;
204.3000;0.9035;-1.0522;
204.6000;0.9027;-1.0447;
204.9000;0.9035;-1.0397;
205.2000;0.9044;-1.0472;
205.5000;0.9035;-1.0447;
205.8000;0.8987;-1.0547;
206.1000;0.9027;-1.0522;
206.4000;0.9035;-1.0472;
206.7000;0.9044;-1.0447;
207.0000;0.9019;-1.0572;
207.3000;0.9003;-1.0622;
207.6000;0.9060;-1.0248;
207.9000;0.9019;-1.0297;
208.2000;0.8995;-1.0347;
208.5000;0.9011;-1.0347;
208.8000;0.9011;-1.0447;
209.1000;0.9027;-1.0547;
209.4000;0.9035;-1.0622;
209.7000;0.9035;-1.0597;
210.0000;0.9019;-1.0572;
210.3000;0.9044;-1.0497;
210.6000;0.9044;-1.0422;
210.9000;0.9019;-1.0472;
211.2000;0.9011;-1.0397;
211.5000;0.9027;-1.0322;
211.8000;0.9003;-1.0422;
212.1000;0.8987;-1.0522;
212.4000;0.9019;-1.0447;
212.7000;0.8995;-1.0447;
213.0000;0.9011;-1.0447;
213.3000;0.9003;-1.0397;
213.6000;0.8978;-1.0422;
213.9000;0.8995;-1.0347;
214.2000;0.9027;-1.0322;
214.5000;0.9052;-1.0273;
214.8000;0.9027;-1.0322;
215.1000;0.9011;-1.0397;
215.4000;0.9003;-1.0472;
215.7000;0.9003;-1.0372;
216.0000;0.9003;-1.0397;
216.3000;0.9003;-1.0322;
216.6000;0.9011;-1.0322;
216.9000;0.9052;-1.0248;
217.2000;0.9019;-1.0273;
217.5000;0.8987;-1.0347;
217.8000;0.9019;-1.0273;
218.1000;0.9003;-1.0347;
218.4000;0.9019;-1.0397;
218.7000;0.9052;-1.0322;
219.0000;0.9044;-1.0397;
219.3000;0.9035;-1.0397;
219.6000;0.9060;-1.0422;
219.9000;0.9019;-1.0522;
220.2000;0.9019;-1.0597;
220.5000;0.9060;-1.0522;
220.8000;0.8995;-1.0622;
221.1000;0.9027;-1.0472;
221.4000;0.8987;-1.0572;
221.7000;0.9019;-1.0522;
222.0000;0.9003;-1.0547;
222.3000;0.8978;-1.0547;
222.6000;0.9003;-1.0447;
222.9000;0.9019;-1.0422;
223.2000;0.9003;-1.0447;
223.5000;0.9003;-1.0497;
223.8000;0.8978;-1.0547;
224.1000;0.9019;-1.0497;
224.4000;0.9003;-1.0547;
224.7000;0.8995;-1.0547;
225.0000;0.9011;-1.0547;
225.3000;0.9019;-1.0472;
225.6000;0.9027;-1.0372;
225.9000;0.9003;-1.0372;
226.2000;0.8995;-1.0422;
226.5000;0.8970;-1.0472;
226.8000;0.9003;-1.0372;
227.1000;0.9003;-1.0372;
227.4000;0.9035;-1.0273;
227.7000;0.9003;-1.0372;
228.0000;0.9035;-1.0347;
228.3000;0.8995;-1.0372;
228.6000;0.9003;-1.0347;
228.9000;0.8987;-1.0322;
229.2000;0.8987;-1.0347;
229.5000;0.8978;-1.0397;
229.8000;0.8995;-1.0422;
230.1000;0.8978;-1.0497;
230.4000;0.9003;-1.0447;
230.7000;0.8995;-1.0472;
231.0000;0.8995;-1.0422;
231.3000;0.8987;-1.0397;
231.6000;0.8978;-1.0422;
231.9000;0.9011;-1.0372;
232.2000;0.8995;-1.0447;
232.5000;0.8995;-1.0497;
232.8000;0.8995;-1.0397;
233.1000;0.8995;-1.0372;
233.4000;0.9011;-1.0248;
233.7000;0.8987;-1.0347;
234.0000;0.9011;-1.0223;
234.3000;0.8995;-1.0347;
234.6000;0.8987;-1.0372;
234.9000;0.8970;-1.0447;
235.2000;0.8978;-1.0547;
235.5000;0.8921;-1.0647;
235.8000;0.8995;-1.0397;
236.1000;0.8987;-1.0472;
236.4000;0.8962;-1.0472;
236.7000;0.8970;-1.0547;
237.0000;0.8987;-1.0572;
237.3000;0.8970;-1.0522;
237.6000;0.8978;-1.0597;
237.9000;0.8970;-1.0622;
238.2000;0.9011;-1.0422;
238.5000;0.8995;-1.0472;
238.8000;0.8987;-1.0497;
239.1000;0.8987;-1.0572;
239.4000;0.8970;-1.0622;
239.7000;0.8970;-1.0547;
240.0000;0.8978;-1.0497;
240.3000;0.9011;-1.0372;
240.6000;0.8987;-1.0397;
240.9000;0.8987;-1.0372;
241.2000;0.8970;-1.0397;
241.5000;0.8978;-1.0447;
241.8000;0.8905;-1.0547;
242.1000;0.9003;-1.0223;
242.4000;0.8987;-1.0248;
242.7000;0.9092;-0.9998;
243.0000;0.9011;-1.0173;
243.3000;0.9019;-1.0098;
243.6000;0.8987;-1.0248;
243.9000;0.8970;-1.0297;
244.2000;0.8930;-1.0422;
244.5000;0.8970;-1.0273;
244.8000;0.8946;-1.0347;
245.1000;0.8970;-1.0372;
245.4000;0.8962;-1.0422;
245.7000;0.8995;-1.0422;
246.0000;0.9003;-1.0547;
246.3000;0.8938;-1.0647;
246.6000;0.8987;-1.0522;
246.9000;0.8978;-1.0572;
247.2000;0.8978;-1.0447;
247.5000;0.8978;-1.0497;
247.8000;0.8938;-1.0547;
248.1000;0.8987;-1.0447;
248.4000;0.8987;-1.0372;
248.7000;0.8978;-1.0397;
249.0000;0.8978;-1.0372;
249.3000;0.8962;-1.0322;
249.6000;0.8970;-1.0297;
249.9000;0.8962;-1.0447;
250.2000;0.8954;-1.0497;
250.5000;0.8962;-1.0522;
250.8000;0.8970;-1.0447;
251.1000;0.8978;-1.0422;
251.4000;0.8978;-1.0422;
251.7000;0.8970;-1.0397;
252.0000;0.8913;-1.0372;
252.3000;0.8978;-1.0198;
252.6000;0.9003;-1.0273;
252.9000;0.8962;-1.0347;
253.2000;0.8970;-1.0273;
253.5000;0.8970;-1.0173;
253.8000;0.8978;-1.0198;
254.1000;0.8962;-1.0198;
254.4000;0.8970;-1.0198;
254.7000;0.8970;-1.0248;
255.0000;0.8978;-1.0273;
255.3000;0.8954;-1.0372;
255.6000;0.8962;-1.0372;
255.9000;0.8970;-1.0347;
256.2000;0.8970;-1.0347;
256.5000;0.8970;-1.0372;
256.8000;0.8970;-1.0372;
257.1000;0.9027;-1.0198;
257.4000;0.8978;-1.0322;
257.7000;0.9027;-1.0173;
258.0000;0.8970;-1.0297;
258.3000;0.8954;-1.0248;
258.6000;0.8962;-1.0198;
258.9000;0.8970;-1.0223;
259.2000;0.8962;-1.0173;
259.5000;0.8978;-1.0148;
259.8000;0.8970;-1.0148;
260.1000;0.8970;-1.0098;
260.4000;0.8970;-1.0073;
260.7000;0.9003;-0.9973;
261.0000;0.8954;-1.0073;
261.3000;0.8970;-1.0048;
261.6000;0.8970;-1.0123;
261.9000;0.8954;-1.0173;
262.2000;0.8962;-1.0173;
262.5000;0.8946;-1.0173;
262.8000;0.8954;-1.0198;
263.1000;0.8864;-1.0397;
263.4000;0.8954;-1.0198;
263.7000;0.9003;-1.0148;
264.0000;0.8970;-1.0297;
264.3000;0.8946;-1.0297;
264.6000;0.8946;-1.0248;
264.9000;0.8913;-1.0447;
265.2000;0.8970;-1.0223;
265.5000;0.8946;-1.0223;
265.8000;0.8970;-1.0223;
266.1000;0.8987;-1.0173;
266.4000;0.8978;-1.0173;
266.7000;0.8978;-1.0248;
267.0000;0.8938;-1.0173;
267.3000;0.8962;-1.0173;
267.6000;0.8962;-1.0273;
267.9000;0.8962;-1.0397;
268.2000;0.8978;-1.0372;
268.5000;0.8970;-1.0397;
268.8000;0.8946;-1.0447;
269.1000;0.8905;-1.0522;
269.4000;0.8938;-1.0397;
269.7000;0.8962;-1.0372;
270.0000;0.8946;-1.0422;
270.3000;0.8913;-1.0522;
270.6000;0.8946;-1.0447;
270.9000;0.8938;-1.0472;
271.2000;0.8954;-1.0397;
271.5000;0.8930;-1.0422;
271.8000;0.9052;-0.9998;
272.1000;0.8905;-1.0447;
272.4000;0.8938;-1.0347;
272.7000;0.8938;-1.0297;
273.0000;0.8970;-1.0223;
273.3000;0.8946;-1.0273;
273.6000;0.8946;-1.0248;
273.9000;0.8954;-1.0273;
274.2000;0.8938;-1.0297;
274.5000;0.8946;-1.0248;
274.8000;0.8946;-1.0173;
275.1000;0.8954;-1.0123;
275.4000;0.8954;-1.0148;
275.7000;0.8938;-1.0273;
276.0000;0.8921;-1.0397;
276.3000;0.8946;-1.0347;
276.6000;0.9003;-1.0173;
276.9000;0.8938;-1.0273;
277.2000;0.8930;-1.0297;
277.5000;0.8921;-1.0322;
277.8000;0.8938;-1.0297;
278.1000;0.8930;-1.0347;
278.4000;0.8913;-1.0397;
278.7000;0.8938;-1.0273;
279.0000;0.8921;-1.0322;
279.3000;0.8946;-1.0322;
279.6000;0.8930;-1.0347;
279.9000;0.8938;-1.0322;
280.2000;0.8881;-1.0447;
280.5000;0.8946;-1.0347;
280.8000;0.8938;-1.0297;
281.1000;0.8946;-1.0273;
281.4000;0.8970;-1.0223;
281.7000;0.8995;-1.0248;
282.0000;0.8921;-1.0447;
282.3000;0.8938;-1.0397;
282.6000;0.8889;-1.0497;
282.9000;0.9011;-1.0297;
283.2000;0.8930;-1.0422;
283.5000;0.8930;-1.0422;
283.8000;0.8946;-1.0322;
284.1000;0.8962;-1.0198;
284.4000;0.8954;-1.0273;
284.7000;0.8946;-1.0297;
285.0000;0.8930;-1.0223;
285.3000;0.8938;-1.0173;
285.6000;0.8938;-1.0198;
285.9000;0.8921;-1.0223;
286.2000;0.8905;-1.0123;
286.5000;0.8930;-1.0123;
286.8000;0.8930;-1.0098;
287.1000;0.8897;-1.0248;
287.4000;0.8921;-1.0148;
287.7000;0.8921;-1.0198;
288.0000;0.8946;-1.0198;
288.3000;0.8921;-1.0347;
288.6000;0.8921;-1.0397;
288.9000;0.8946;-1.0297;
289.2000;0.8930;-1.0297;
289.5000;0.8978;-1.0173;
289.8000;0.8946;-1.0248;
290.1000;0.8938;-1.0248;
290.4000;0.8930;-1.0347;
290.7000;0.8962;-1.0273;
291.0000;0.8913;-1.0297;
291.3000;0.8930;-1.0273;
291.6000;0.8946;-1.0173;
291.9000;0.8946;-1.0173;
292.2000;0.8921;-1.0322;
292.5000;0.8930;-1.0322;
292.8000;0.8938;-1.0372;
293.1000;0.8905;-1.0347;
293.4000;0.8954;-1.0297;
293.7000;0.8930;-1.0372;
294.0000;0.8921;-1.0322;
294.3000;0.8930;-1.0248;
294.6000;0.8954;-1.0223;
294.9000;0.8930;-1.0273;
295.2000;0.8930;-1.0223;
295.5000;0.8921;-1.0248;
295.8000;0.8921;-1.0322;
296.1000;0.8962;-1.0248;
296.4000;0.8930;-1.0347;
296.7000;0.8930;-1.0248;
297.0000;0.8905;-1.0322;
297.3000;0.8921;-1.0248;
297.6000;0.8946;-1.0273;
297.9000;0.8921;-1.0447;
298.2000;0.8938;-1.0422;
298.5000;0.8954;-1.0372;
298.8000;0.8905;-1.0497;
299.1000;0.8921;-1.0397;
299.4000;0.8905;-1.0372;
299.7000;0.8954;-1.0248;
300.0000;0.8946;-1.0273;
300.3000;0.8946;-1.0372;
300.6000;0.8946;-1.0447;
300.9000;0.8938;-1.0472;
301.2000;0.8938;-1.0572;
301.5000;0.8873;-1.0597;
301.8000;0.8913;-1.0522;
302.1000;0.8938;-1.0422;
302.4000;0.8938;-1.0397;
302.7000;0.8897;-1.0397;
303.0000;0.8905;-1.0397;
303.3000;0.9011;-1.0123;
303.6000;0.8930;-1.0297;
303.9000;0.8930;-1.0248;
304.2000;0.8930;-1.0248;
304.5000;0.8921;-1.0248;
304.8000;0.8930;-1.0173;
305.1000;0.8921;-1.0198;
305.4000;0.8987;-1.0173;
305.7000;0.8889;-1.0372;
306.0000;0.9003;-1.0098;
306.3000;0.8930;-1.0223;
306.6000;0.8889;-1.0223;
306.9000;0.8905;-1.0223;
307.2000;0.8905;-1.0297;
307.5000;0.8913;-1.0198;
307.8000;0.8987;-1.0023;
308.1000;0.8897;-1.0248;
308.4000;0.8905;-1.0273;
308.7000;0.8921;-1.0198;
309.0000;0.8848;-1.0422;
309.3000;0.8905;-1.0297;
309.6000;0.8921;-1.0248;
309.9000;0.8954;-1.0248;
310.2000;0.8938;-1.0322;
310.5000;0.8946;-1.0372;
310.8000;0.8905;-1.0422;
311.1000;0.8930;-1.0297;
311.4000;0.8913;-1.0223;
311.7000;0.8913;-1.0297;
312.0000;0.8905;-1.0223;
312.3000;0.8921;-1.0173;
312.6000;0.8930;-1.0098;
312.9000;0.8881;-1.0123;
313.2000;0.8921;-1.0023;
313.5000;0.8889;-1.0148;
313.8000;0.8938;-1.0073;
314.1000;0.8930;-1.0098;
314.4000;0.8962;-1.0098;
314.7000;0.9003;-0.9948;
315.0000;0.8978;-1.0023;
315.3000;0.8921;-1.0173;
315.6000;0.8921;-1.0098;
315.9000;0.8930;-1.0073;
316.2000;0.8930;-1.0073;
316.5000;0.8913;-1.0173;
316.8000;0.8913;-1.0223;
317.1000;0.8897;-1.0297;
317.4000;0.8921;-1.0372;
317.7000;0.8913;-1.0447;
318.0000;0.8921;-1.0447;
318.3000;0.8897;-1.0472;
318.6000;0.8921;-1.0372;
318.9000;0.8930;-1.0372;
319.2000;0.8913;-1.0397;
319.5000;0.8905;-1.0372;
319.8000;0.8921;-1.0297;
320.1000;0.8946;-1.0173;
320.4000;0.8905;-1.0223;
320.7000;0.8897;-1.0173;
321.0000;0.8905;-1.0198;
321.3000;0.8905;-1.0223;
321.6000;0.8913;-1.0173;
321.9000;0.8889;-1.0248;
322.2000;0.8897;-1.0322;
322.5000;0.8913;-1.0297;
322.8000;0.8930;-1.0397;
323.1000;0.8897;-1.0347;
323.4000;0.8930;-1.0248;
323.7000;0.8897;-1.0372;
324.0000;0.8987;-1.0173;
324.3000;0.8921;-1.0322;
324.6000;0.8938;-1.0173;
324.9000;0.8930;-1.0198;
325.2000;0.8824;-1.0497;
325.5000;0.8897;-1.0273;
325.8000;0.8921;-1.0123;
326.1000;0.8897;-1.0073;
326.4000;0.8913;-1.0023;
326.7000;0.8913;-1.0023;
327.0000;0.8913;-1.0148;
327.3000;0.8905;-1.0148;
327.6000;0.8905;-1.0173;
327.9000;0.8881;-1.0248;
328.2000;0.8905;-1.0098;
328.5000;0.8913;-1.0148;
328.8000;0.8913;-1.0123;
329.1000;0.8946;-0.9948;
329.4000;0.8889;-1.0048;
329.7000;0.8913;-1.0073;
330.0000;0.8913;-1.0048;
330.3000;0.8921;-1.0098;
330.6000;0.8905;-1.0073;
330.9000;0.8897;-1.0198;
331.2000;0.8889;-1.0248;
331.5000;0.8905;-1.0198;
331.8000;0.8913;-1.0223;
332.1000;0.8913;-1.0248;
332.4000;0.8913;-1.0248;
332.7000;0.8897;-1.0273;
333.0000;0.8921;-1.0248;
333.3000;0.8897;-1.0273;
333.6000;0.8897;-1.0248;
333.9000;0.8873;-1.0148;
334.2000;0.8889;-1.0123;
334.5000;0.8889;-1.0073;
334.8000;0.8864;-1.0148;
335.1000;0.8848;-1.0198;
335.4000;0.8905;-1.0098;
335.7000;0.8889;-1.0048;
336.0000;0.8913;-0.9998;
336.3000;0.8873;-1.0123;
336.6000;0.8938;-0.9923;
336.9000;0.8905;-0.9973;
337.2000;0.8913;-0.9998;
337.5000;0.8897;-1.0148;
337.8000;0.8913;-0.9998;
338.1000;0.8889;-1.0073;
338.4000;0.8873;-1.0048;
338.7000;0.8840;-1.0198;
339.0000;0.8938;-0.9998;
339.3000;0.8897;-1.0148;
339.6000;0.8889;-1.0048;
339.9000;0.8807;-1.0248;
340.2000;0.8873;-1.0048;
340.5000;0.8970;-0.9799;
340.8000;0.8889;-0.9973;
341.1000;0.8889;-0.9973;
341.4000;0.8881;-0.9973;
341.7000;0.8897;-0.9948;
342.0000;0.8897;-1.0048;
342.3000;0.8897;-1.0098;
342.6000;0.8897;-1.0198;
342.9000;0.8897;-1.0123;
343.2000;0.8905;-1.0198;
343.5000;0.8873;-1.0223;
343.8000;0.8897;-1.0372;
344.1000;0.8889;-1.0322;
344.4000;0.8905;-1.0223;
344.7000;0.8889;-1.0148;
345.0000;0.8881;-1.0098;
345.3000;0.8905;-1.0073;
345.6000;0.8905;-1.0023;
345.9000;0.8897;-1.0023;
346.2000;0.8913;-0.9998;
346.5000;0.8897;-1.0048;
346.8000;0.8905;-0.9948;
347.1000;0.8921;-1.0073;
347.4000;0.8897;-1.0173;
347.7000;0.8905;-1.0173;
348.0000;0.8783;-1.0422;
348.3000;0.8889;-1.0248;
348.6000;0.8897;-1.0223;
348.9000;0.8889;-1.0148;
349.2000;0.8881;-1.0123;
349.5000;0.8897;-1.0073;
349.8000;0.8921;-1.0173;
350.1000;0.8897;-1.0223;
350.4000;0.8905;-1.0198;
350.7000;0.8978;-0.9998;
351.0000;0.8905;-1.0073;
351.3000;0.8897;-0.9998;
351.6000;0.8889;-0.9948;
351.9000;0.8889;-0.9923;
352.2000;0.8881;-0.9923;
352.5000;0.8889;-0.9948;
352.8000;0.8856;-0.9948;
353.1000;0.8889;-1.0023;
353.4000;0.8873;-1.0023;
353.7000;0.8889;-1.0023;
354.0000;0.8864;-1.0048;
354.3000;0.8873;-1.0073;
354.6000;0.8889;-1.0098;
354.9000;0.8881;-1.0098;
355.2000;0.8873;-1.0098;
355.5000;0.8832;-1.0273;
355.8000;0.8889;-1.0223;
356.1000;0.8873;-1.0148;
356.4000;0.8864;-1.0098;
356.7000;0.8889;-1.0048;
357.0000;0.8881;-1.0098;
357.3000;0.8864;-1.0123;
357.6000;0.8864;-1.0123;
357.9000;0.8873;-1.0223;
358.2000;0.8881;-1.0248;
358.5000;0.8905;-1.0173;
358.8000;0.8913;-1.0073;
359.1000;0.8799;-1.0273;
359.4000;0.8864;-1.0073;
359.7000;0.8905;-0.9948;
360.0000;0.8848;-1.0073;
360.3000;0.8881;-0.9923;
360.6000;0.8873;-0.9849;
360.9000;0.8864;-0.9923;
361.2000;0.8889;-0.9899;
361.5000;0.8873;-0.9899;
361.8000;0.8897;-0.9948;
362.1000;0.8889;-0.9849;
362.4000;0.8840;-0.9948;
362.7000;0.8881;-0.9998;
363.0000;0.8864;-1.0123;
363.3000;0.8889;-1.0098;
363.6000;0.8840;-1.0148;
363.9000;0.8873;-1.0073;
364.2000;0.8873;-0.9998;
364.5000;0.8873;-0.9948;
364.8000;0.8856;-1.0048;
365.1000;0.8987;-0.9674;
365.4000;0.8856;-0.9899;
365.7000;0.8856;-0.9973;
366.0000;0.8881;-1.0048;
366.3000;0.8873;-0.9948;
366.6000;0.8873;-0.9973;
366.9000;0.8848;-1.0048;
367.2000;0.8881;-1.0023;
367.5000;0.8897;-1.0023;
367.8000;0.8873;-1.0023;
368.1000;0.8864;-1.0073;
368.4000;0.8881;-1.0073;
368.7000;0.8864;-1.0048;
369.0000;0.8856;-1.0048;
369.3000;0.8881;-1.0023;
369.6000;0.8864;-1.0148;
369.9000;0.8946;-0.9874;
370.2000;0.8881;-1.0098;
370.5000;0.8856;-1.0073;
370.8000;0.8889;-1.0023;
371.1000;0.8873;-0.9973;
371.4000;0.8864;-0.9899;
371.7000;0.8840;-0.9998;
372.0000;0.8864;-1.0023;
372.3000;0.8873;-0.9998;
372.6000;0.8897;-0.9899;
372.9000;0.8881;-0.9973;
373.2000;0.8864;-0.9998;
373.5000;0.8889;-0.9899;
373.8000;0.8889;-0.9874;
374.1000;0.8856;-0.9973;
374.4000;0.8873;-0.9849;
374.7000;0.8889;-0.9774;
375.0000;0.8889;-0.9799;
375.3000;0.8873;-0.9874;
375.6000;0.8873;-0.9923;
375.9000;0.8881;-0.9874;
376.2000;0.8873;-0.9923;
376.5000;0.8832;-1.0098;
376.8000;0.8889;-1.0098;
377.1000;0.8873;-1.0098;
377.4000;0.8864;-1.0023;
377.7000;0.8905;-0.9899;
378.0000;0.8856;-1.0048;
378.3000;0.8881;-1.0123;
378.6000;0.8881;-1.0123;
378.9000;0.8881;-1.0098;
379.2000;0.8864;-1.0123;
379.5000;0.8873;-1.0123;
379.8000;0.8873;-1.0198;
380.1000;0.8873;-1.0098;
380.4000;0.8873;-1.0048;
380.7000;0.8848;-1.0073;
381.0000;0.8856;-1.0048;
381.3000;0.8864;-1.0073;
381.6000;0.8856;-1.0098;
381.9000;0.8848;-1.0098;
382.2000;0.8856;-1.0073;
382.5000;0.8897;-0.9948;
382.8000;0.8864;-0.9998;
383.1000;0.8848;-1.0098;
383.4000;0.8856;-1.0123;
383.7000;0.8856;-1.0098;
384.0000;0.8881;-0.9998;
384.3000;0.8856;-1.0098;
384.6000;0.8873;-1.0048;
384.9000;0.8873;-0.9973;
385.2000;0.8873;-0.9923;
385.5000;0.8807;-1.0048;
385.8000;0.8864;-0.9948;
386.1000;0.8848;-1.0048;
386.4000;0.8840;-0.9998;
386.7000;0.8848;-0.9923;
387.0000;0.8856;-0.9948;
387.3000;0.8856;-0.9948;
387.6000;0.8856;-1.0023;
387.9000;0.8873;-0.9973;
388.2000;0.8848;-0.9973;
388.5000;0.8856;-1.0123;
388.8000;0.8864;-1.0198;
389.1000;0.8856;-1.0098;
389.4000;0.8848;-1.0048;
389.7000;0.8848;-1.0048;
390.0000;0.8881;-1.0048;
390.3000;0.8873;-1.0148;
390.6000;0.8848;-1.0248;
390.9000;0.8905;-1.0073;
391.2000;0.8856;-1.0123;
391.5000;0.8840;-1.0073;
391.8000;0.8856;-1.0098;
392.1000;0.8856;-1.0098;
392.4000;0.8848;-1.0098;
392.7000;0.8873;-1.0148;
393.0000;0.8856;-1.0198;
393.3000;0.8864;-1.0098;
393.6000;0.8856;-1.0048;
393.9000;0.8856;-1.0048;
394.2000;0.8856;-0.9948;
394.5000;0.8881;-0.9948;
394.8000;0.8848;-0.9973;
395.1000;0.8873;-0.9874;
395.4000;0.8864;-0.9874;
395.7000;0.8840;-0.9923;
396.0000;0.8840;-0.9998;
396.3000;0.8856;-0.9874;
396.6000;0.8864;-0.9799;
396.9000;0.8897;-0.9699;
397.2000;0.8889;-0.9724;
397.5000;0.8832;-0.9749;
397.8000;0.8864;-0.9674;
398.1000;0.8881;-0.9699;
398.4000;0.8856;-0.9849;
398.7000;0.8962;-0.9549;
399.0000;0.8864;-0.9799;
399.3000;0.8864;-0.9799;
399.6000;0.8824;-0.9923;
399.9000;0.8840;-0.9824;
400.2000;0.8848;-0.9824;
400.5000;0.8848;-0.9824;
400.8000;0.8864;-0.9774;
401.1000;0.8856;-0.9774;
401.4000;0.8848;-0.9849;
401.7000;0.8856;-0.9899;
402.0000;0.8840;-0.9998;
402.3000;0.8856;-0.9973;
402.6000;0.8848;-0.9973;
402.9000;0.8881;-0.9948;
403.2000;0.8873;-0.9998;
403.5000;0.8840;-1.0048;
403.8000;0.8905;-0.9874;
404.1000;0.8881;-0.9874;
404.4000;0.8856;-0.9899;
404.7000;0.8832;-0.9849;
405.0000;0.8840;-0.9849;
405.3000;0.8816;-0.9998;
405.6000;0.8848;-0.9948;
405.9000;0.8913;-0.9824;
406.2000;0.8856;-0.9923;
406.5000;0.8848;-1.0073;
406.8000;0.8799;-1.0248;
407.1000;0.8848;-1.0198;
407.4000;0.8856;-1.0173;
407.7000;0.8856;-1.0223;
408.0000;0.8856;-1.0148;
408.3000;0.8873;-1.0073;
408.6000;0.8816;-1.0148;
408.9000;0.8816;-1.0173;
409.2000;0.8848;-1.0048;
409.5000;0.8856;-0.9998;
409.8000;0.8848;-1.0023;
410.1000;0.8881;-0.9923;
410.4000;0.8848;-0.9998;
410.7000;0.8856;-0.9948;
411.0000;0.8864;-0.9923;
411.3000;0.8848;-0.9923;
411.6000;0.8848;-0.9899;
411.9000;0.8840;-0.9849;
412.2000;0.8881;-0.9774;
412.5000;0.8840;-0.9899;
412.8000;0.8840;-0.9948;
413.1000;0.8864;-0.9998;
413.4000;0.8856;-1.0048;
413.7000;0.8832;-1.0223;
414.0000;0.8824;-1.0198;
414.3000;0.8848;-1.0098;
414.6000;0.8873;-1.0073;
414.9000;0.8848;-1.0123;
415.2000;0.8816;-1.0223;
415.5000;0.8824;-1.0098;
415.8000;0.8848;-1.0023;
416.1000;0.8873;-0.9923;
416.4000;0.8832;-1.0098;
416.7000;0.8824;-1.0048;
417.0000;0.8832;-0.9973;
417.3000;0.8799;-1.0098;
417.6000;0.8881;-0.9824;
417.9000;0.8856;-0.9899;
418.2000;0.8799;-1.0048;
418.5000;0.8864;-0.9923;
418.8000;0.8848;-0.9923;
419.1000;0.8840;-0.9899;
419.4000;0.8832;-0.9973;
419.7000;0.8864;-0.9923;
420.0000;0.8856;-0.9973;
420.3000;0.8840;-0.9998;
420.6000;0.8856;-0.9874;
420.9000;0.8848;-0.9874;
421.2000;0.8848;-0.9923;
421.5000;0.8832;-0.9973;
421.8000;0.8881;-0.9749;
422.1000;0.8856;-0.9824;
422.4000;0.8848;-0.9874;
422.7000;0.8751;-1.0123;
423.0000;0.8832;-0.9923;
423.3000;0.8848;-0.9849;
423.6000;0.8775;-1.0023;
423.9000;0.8742;-1.0098;
424.2000;0.8832;-0.9973;
424.5000;0.8816;-0.9973;
424.8000;0.8832;-1.0023;
425.1000;0.8824;-1.0048;
425.4000;0.8840;-1.0048;
425.7000;0.8832;-0.9998;
426.0000;0.8824;-0.9998;
426.3000;0.8848;-0.9923;
426.6000;0.8816;-1.0023;
426.9000;0.8832;-0.9973;
427.2000;0.8848;-0.9899;
427.5000;0.8840;-1.0098;
427.8000;0.8921;-0.9923;
428.1000;0.8832;-1.0173;
428.4000;0.8881;-1.0023;
428.7000;0.8848;-1.0198;
429.0000;0.8840;-1.0248;
429.3000;0.8864;-1.0123;
429.6000;0.8856;-1.0148;
429.9000;0.8840;-1.0223;
430.2000;0.8832;-1.0248;
430.5000;0.8840;-1.0198;
430.8000;0.8751;-1.0422;
431.1000;0.8824;-1.0198;
431.4000;0.8832;-1.0123;
431.7000;0.8889;-1.0023;
432.0000;0.8824;-1.0148;
432.3000;0.8840;-1.0123;
432.6000;0.8856;-1.0073;
432.9000;0.8864;-1.0048;
433.2000;0.8840;-1.0173;
433.5000;0.8856;-1.0098;
433.8000;0.8873;-1.0023;
434.1000;0.8848;-1.0148;
434.4000;0.8848;-1.0148;
434.7000;0.8832;-1.0198;
435.0000;0.8832;-1.0098;
435.3000;0.8856;-0.9998;
435.6000;0.8889;-1.0023;
435.9000;0.8840;-1.0173;
436.2000;0.8848;-1.0123;
436.5000;0.8840;-1.0098;
436.8000;0.8840;-1.0048;
437.1000;0.8807;-1.0123;
437.4000;0.8856;-0.9973;
437.7000;0.8824;-1.0073;
438.0000;0.8840;-1.0098;
438.3000;0.8832;-1.0148;
438.6000;0.8824;-1.0297;
438.9000;0.8840;-1.0372;
439.2000;0.8840;-1.0397;
439.5000;0.8840;-1.0497;
439.8000;0.8848;-1.0397;
440.1000;0.8905;-1.0198;
440.4000;0.8816;-1.0347;
440.7000;0.8840;-1.0223;
441.0000;0.8832;-1.0198;
441.3000;0.8824;-1.0248;
441.6000;0.8840;-1.0223;
441.9000;0.8832;-1.0248;
442.2000;0.8824;-1.0248;
442.5000;0.8807;-1.0223;
442.8000;0.8816;-1.0223;
443.1000;0.8824;-1.0173;
443.4000;0.8824;-1.0198;
443.7000;0.8824;-1.0223;
444.0000;0.8848;-1.0098;
444.3000;0.8856;-1.0048;
444.6000;0.8824;-1.0048;
444.9000;0.8840;-1.0023;
445.2000;0.8848;-1.0023;
445.5000;0.8791;-1.0198;
445.8000;0.8759;-1.0297;
446.1000;0.8824;-1.0123;
446.4000;0.8807;-1.0098;
446.7000;0.8799;-1.0148;
447.0000;0.8799;-1.0098;
447.3000;0.8783;-1.0148;
447.6000;0.8848;-0.9998;
447.9000;0.8807;-1.0123;
448.2000;0.8799;-1.0073;
448.5000;0.8799;-1.0123;
448.8000;0.8832;-1.0123;
449.1000;0.8824;-1.0148;
449.4000;0.8816;-1.0123;
449.7000;0.8816;-1.0123;
450.0000;0.8807;-1.0148;
450.3000;0.8816;-1.0248;
450.6000;0.8832;-1.0198;
450.9000;0.8807;-1.0322;
451.2000;0.8816;-1.0273;
451.5000;0.8816;-1.0223;
451.8000;0.8840;-1.0173;
452.1000;0.8816;-1.0148;
452.4000;0.8824;-1.0148;
452.7000;0.8799;-1.0173;
453.0000;0.8840;-1.0098;
453.3000;0.8840;-1.0073;
453.6000;0.8791;-1.0098;
453.9000;0.8816;-1.0123;
454.2000;0.8824;-1.0023;
454.5000;0.8807;-1.0148;
454.8000;0.8848;-0.9948;
455.1000;0.8840;-0.9948;
455.4000;0.8816;-0.9973;
455.7000;0.8840;-0.9874;
456.0000;0.8816;-0.9923;
456.3000;0.8816;-0.9923;
456.6000;0.8807;-0.9923;
456.9000;0.8848;-0.9849;
457.2000;0.8832;-0.9899;
457.5000;0.8816;-0.9899;
457.8000;0.8807;-0.9824;
458.1000;0.8832;-0.9849;
458.4000;0.8832;-0.9824;
458.7000;0.8832;-0.9948;
459.0000;0.8848;-1.0023;
459.3000;0.8840;-0.9998;
459.6000;0.8824;-0.9998;
459.9000;0.8807;-1.0048;
460.2000;0.8824;-1.0023;
460.5000;0.8832;-0.9923;
460.8000;0.8824;-0.9973;
461.1000;0.8832;-0.9948;
461.4000;0.8824;-0.9973;
461.7000;0.8807;-1.0098;
462.0000;0.8791;-1.0148;
462.3000;0.8832;-0.9998;
462.6000;0.8840;-0.9998;
462.9000;0.8816;-1.0098;
463.2000;0.8832;-1.0073;
463.5000;0.8889;-0.9948;
463.8000;0.8832;-1.0123;
464.1000;0.8799;-1.0123;
464.4000;0.8816;-1.0023;
464.7000;0.8848;-0.9973;
465.0000;0.8816;-1.0048;
465.3000;0.8807;-0.9998;
465.6000;0.8824;-0.9948;
465.9000;0.8759;-1.0148;
466.2000;0.8832;-0.9948;
466.5000;0.8718;-1.0273;
466.8000;0.8816;-0.9998;
467.1000;0.8840;-0.9973;
467.4000;0.8832;-0.9948;
467.7000;0.8807;-0.9998;
468.0000;0.8832;-1.0023;
468.3000;0.8832;-1.0073;
468.6000;0.8864;-0.9998;
468.9000;0.8856;-0.9948;
469.2000;0.8816;-1.0023;
469.5000;0.8816;-0.9998;
469.8000;0.8824;-0.9923;
470.1000;0.8807;-0.9899;
470.4000;0.8816;-0.9824;
470.7000;0.8759;-0.9923;
471.0000;0.8816;-0.9724;
471.3000;0.8807;-0.9799;
471.6000;0.8848;-0.9749;
471.9000;0.8799;-0.9749;
472.2000;0.8807;-0.9699;
472.5000;0.8807;-0.9724;
472.8000;0.8783;-0.9749;
473.1000;0.8783;-0.9799;
473.4000;0.8783;-0.9899;
473.7000;0.8816;-0.9874;
474.0000;0.8791;-0.9849;
474.3000;0.8742;-0.9923;
474.6000;0.8799;-0.9724;
474.9000;0.8840;-0.9699;
475.2000;0.8824;-0.9774;
475.5000;0.8824;-0.9824;
475.8000;0.8816;-0.9874;
476.1000;0.8816;-0.9874;
476.4000;0.8824;-0.9824;
476.7000;0.8807;-0.9849;
477.0000;0.8807;-0.9749;
477.3000;0.8824;-0.9774;
477.6000;0.8816;-0.9849;
477.9000;0.8824;-0.9824;
478.2000;0.8816;-0.9899;
478.5000;0.8816;-0.9799;
478.8000;0.8824;-0.9749;
479.1000;0.8759;-0.9899;
479.4000;0.8816;-0.9774;
479.7000;0.8816;-0.9724;
480.0000;0.8832;-0.9774;
480.3000;0.8816;-0.9899;
480.6000;0.8816;-0.9899;
480.9000;0.8799;-0.9973;
481.2000;0.8799;-0.9998;
481.5000;0.8816;-0.9899;
481.8000;0.8799;-0.9973;
482.1000;0.8759;-1.0073;
482.4000;0.8824;-0.9849;
482.7000;0.8799;-0.9899;
483.0000;0.8799;-0.9948;
483.3000;0.8816;-0.9998;
483.6000;0.8799;-1.0023;
483.9000;0.8807;-1.0048;
484.2000;0.8807;-1.0098;
484.5000;0.8816;-1.0173;
484.8000;0.8799;-1.0123;
485.1000;0.8816;-1.0098;
485.4000;0.8767;-1.0223;
485.7000;0.8799;-1.0223;
486.0000;0.8791;-1.0248;
486.3000;0.8799;-1.0173;
486.6000;0.8799;-1.0148;
486.9000;0.8742;-1.0173;
487.2000;0.8783;-1.0173;
487.5000;0.8799;-1.0148;
487.8000;0.8783;-1.0148;
488.1000;0.8783;-1.0173;
488.4000;0.8791;-1.0148;
488.7000;0.8799;-1.0198;
489.0000;0.8799;-1.0123;
489.3000;0.8807;-1.0173;
489.6000;0.8873;-0.9899;
489.9000;0.8791;-1.0073;
490.2000;0.8824;-0.9899;
490.5000;0.8783;-0.9948;
490.8000;0.8848;-0.9899;
491.1000;0.8807;-0.9973;
491.4000;0.8799;-1.0073;
491.7000;0.8824;-1.0073;
492.0000;0.8856;-0.9973;
492.3000;0.8799;-1.0073;
492.6000;0.8807;-1.0073;
492.9000;0.8799;-1.0123;
493.2000;0.8791;-1.0123;
493.5000;0.8816;-1.0073;
493.8000;0.8824;-1.0048;
494.1000;0.8775;-1.0123;
494.4000;0.8783;-1.0048;
494.7000;0.8807;-0.9973;
495.0000;0.8799;-0.9973;
495.3000;0.8799;-1.0073;
495.6000;0.8816;-0.9998;
495.9000;0.8791;-0.9973;
496.2000;0.8799;-0.9899;
496.5000;0.8816;-0.9824;
496.8000;0.8807;-0.9849;
497.1000;0.8807;-0.9923;
497.4000;0.8791;-0.9998;
497.7000;0.8799;-0.9948;
498.0000;0.8816;-0.9948;
498.3000;0.8848;-0.9849;
498.6000;0.8799;-1.0048;
498.9000;0.8807;-1.0073;
499.2000;0.8799;-1.0073;
499.5000;0.8799;-1.0073;
499.8000;0.8791;-1.0098;
500.1000;0.8791;-1.0098;
500.4000;0.8824;-0.9973;
500.7000;0.8791;-0.9998;
501.0000;0.8824;-0.9948;
501.3000;0.8816;-0.9998;
501.6000;0.8807;-0.9923;
501.9000;0.8783;-0.9899;
502.2000;0.8791;-0.9899;
502.5000;0.8824;-0.9824;
502.8000;0.8807;-0.9774;
503.1000;0.8816;-0.9799;
503.4000;0.8775;-0.9799;
503.7000;0.8848;-0.9599;
504.0000;0.8791;-0.9799;
504.3000;0.8791;-0.9774;
504.6000;0.8816;-0.9699;
504.9000;0.8807;-0.9824;
505.2000;0.8824;-0.9749;
505.5000;0.8824;-0.9749;
505.8000;0.8799;-0.9774;
506.1000;0.8873;-0.9599;
506.4000;0.8807;-0.9749;
506.7000;0.8807;-0.9749;
507.0000;0.8791;-0.9774;
507.3000;0.8807;-0.9774;
507.6000;0.8783;-0.9799;
507.9000;0.8816;-0.9724;
508.2000;0.8816;-0.9799;
508.5000;0.8775;-0.9849;
508.8000;0.8783;-0.9849;
509.1000;0.8897;-0.9475;
509.4000;0.8840;-0.9649;
509.7000;0.8767;-0.9874;
510.0000;0.8791;-0.9849;
510.3000;0.8775;-0.9923;
510.6000;0.8807;-0.9849;
510.9000;0.8807;-0.9923;
511.2000;0.8807;-0.9899;
511.5000;0.8783;-0.9899;
511.8000;0.8783;-0.9948;
512.1000;0.8807;-0.9874;
512.4000;0.8791;-0.9899;
512.7000;0.8791;-0.9874;
513.0000;0.8791;-0.9899;
513.3000;0.8791;-0.9899;
513.6000;0.8791;-0.9899;
513.9000;0.8734;-0.9948;
514.2000;0.8816;-0.9749;
514.5000;0.8799;-0.9849;
514.8000;0.8791;-0.9824;
515.1000;0.8799;-0.9874;
515.4000;0.8816;-0.9849;
515.7000;0.8783;-0.9849;
516.0000;0.8799;-0.9799;
516.3000;0.8775;-0.9824;
516.6000;0.8783;-0.9824;
516.9000;0.8791;-0.9849;
517.2000;0.8799;-0.9774;
517.5000;0.8783;-0.9824;
517.8000;0.8783;-0.9749;
518.1000;0.8791;-0.9774;
518.4000;0.8775;-0.9874;
518.7000;0.8767;-0.9948;
519.0000;0.8718;-1.0023;
519.3000;0.8791;-0.9874;
519.6000;0.8710;-1.0073;
519.9000;0.8889;-0.9649;
520.2000;0.8783;-0.9874;
520.5000;0.8775;-0.9774;
520.8000;0.8783;-0.9749;
521.1000;0.8783;-0.9724;
521.4000;0.8783;-0.9699;
521.7000;0.8726;-0.9998;
522.0000;0.8775;-0.9874;
522.3000;0.8767;-0.9923;
522.6000;0.8783;-0.9948;
522.9000;0.8807;-0.9948;
523.2000;0.8807;-0.9948;
523.5000;0.8791;-0.9973;
523.8000;0.8775;-0.9998;
524.1000;0.8791;-0.9824;
524.4000;0.8694;-0.9973;
524.7000;0.8913;-0.9549;
525.0000;0.8791;-0.9774;
525.3000;0.8775;-0.9774;
525.6000;0.8791;-0.9724;
525.9000;0.8799;-0.9649;
526.2000;0.8799;-0.9674;
526.5000;0.8807;-0.9649;
526.8000;0.8816;-0.9674;
527.1000;0.8824;-0.9749;
527.4000;0.8897;-0.9525;
527.7000;0.8799;-0.9849;
528.0000;0.8791;-0.9774;
528.3000;0.8783;-0.9849;
528.6000;0.8783;-0.9849;
528.9000;0.8791;-0.9874;
529.2000;0.8864;-0.9674;
529.5000;0.8791;-0.9849;
529.8000;0.8791;-0.9899;
530.1000;0.8799;-0.9849;
530.4000;0.8783;-0.9749;
530.7000;0.8791;-0.9749;
531.0000;0.8799;-0.9799;
531.3000;0.8807;-0.9774;
531.6000;0.8783;-0.9749;
531.9000;0.8791;-0.9724;
532.2000;0.8791;-0.9724;
532.5000;0.8783;-0.9774;
532.8000;0.8791;-0.9724;
533.1000;0.8767;-0.9824;
533.4000;0.8791;-0.9799;
533.7000;0.8767;-0.9849;
534.0000;0.8783;-0.9849;
534.3000;0.8759;-0.9849;
534.6000;0.8791;-0.9923;
534.9000;0.8791;-0.9899;
535.2000;0.8783;-0.9874;
535.5000;0.8783;-0.9824;
535.8000;0.8799;-0.9849;
536.1000;0.8807;-0.9749;
536.4000;0.8775;-0.9849;
536.7000;0.8856;-0.9699;
537.0000;0.8791;-0.9874;
537.3000;0.8799;-0.9874;
537.6000;0.8775;-0.9923;
537.9000;0.8864;-0.9774;
538.2000;0.8767;-0.9948;
538.5000;0.8799;-0.9824;
538.8000;0.8702;-1.0048;
539.1000;0.8775;-0.9923;
539.4000;0.8783;-0.9849;
539.7000;0.8824;-0.9699;
540.0000;0.8767;-0.9849;
540.3000;0.8775;-0.9799;
540.6000;0.8751;-0.9849;
540.9000;0.8775;-0.9799;
541.2000;0.8783;-0.9774;
541.5000;0.8783;-0.9899;
541.8000;0.8775;-0.9774;
542.1000;0.8807;-0.9724;
542.4000;0.8824;-0.9624;
542.7000;0.8816;-0.9749;
543.0000;0.8791;-0.9749;
543.3000;0.8799;-0.9699;
543.6000;0.8783;-0.9649;
543.9000;0.8832;-0.9674;
544.2000;0.8799;-0.9724;
544.5000;0.8775;-0.9799;
544.8000;0.8807;-0.9799;
545.1000;0.8783;-0.9874;
545.4000;0.8742;-1.0123;
545.7000;0.8824;-0.9973;
546.0000;0.8783;-0.9973;
546.3000;0.8799;-0.9923;
546.6000;0.8767;-1.0048;
546.9000;0.8791;-0.9998;
547.2000;0.8783;-0.9998;
547.5000;0.8783;-0.9973;
547.8000;0.8799;-0.9899;
548.1000;0.8799;-0.9899;
548.4000;0.8775;-0.9948;
548.7000;0.8807;-0.9824;
549.0000;0.8799;-0.9874;
549.3000;0.8840;-0.9749;
549.6000;0.8767;-0.9899;
549.9000;0.8775;-0.9774;
550.2000;0.8775;-0.9749;
550.5000;0.8783;-0.9874;
550.8000;0.8799;-0.9923;
551.1000;0.8783;-0.9874;
551.4000;0.8783;-0.9824;
551.7000;0.8856;-0.9574;
552.0000;0.8751;-0.9874;
552.3000;0.8799;-0.9724;
552.6000;0.8807;-0.9749;
552.9000;0.8799;-0.9774;
553.2000;0.8783;-0.9799;
553.5000;0.8775;-0.9774;
553.8000;0.8791;-0.9799;
554.1000;0.8775;-0.9899;
554.4000;0.8767;-0.9874;
554.7000;0.8751;-0.9923;
555.0000;0.8775;-0.9923;
555.3000;0.8783;-0.9923;
555.6000;0.8791;-0.9948;
555.9000;0.8791;-0.9998;
556.2000;0.8783;-0.9998;
556.5000;0.8775;-1.0048;
556.8000;0.8791;-1.0048;
557.1000;0.8791;-1.0023;
557.4000;0.8775;-1.0048;
557.7000;0.8791;-0.9948;
558.0000;0.8775;-0.9973;
558.3000;0.8791;-0.9973;
558.6000;0.8791;-1.0023;
558.9000;0.8726;-1.0123;
559.2000;0.8775;-0.9923;
559.5000;0.8791;-0.9874;
559.8000;0.8767;-0.9923;
560.1000;0.8767;-0.9923;
560.4000;0.8775;-0.9973;
560.7000;0.8661;-1.0273;
561.0000;0.8751;-1.0098;
561.3000;0.8783;-0.9948;
561.6000;0.8767;-0.9923;
561.9000;0.8799;-0.9674;
562.2000;0.8767;-0.9799;
562.5000;0.8702;-1.0048;
562.8000;0.8783;-0.9849;
563.1000;0.8775;-0.9849;
563.4000;0.8751;-0.9948;
563.7000;0.8759;-0.9923;
564.0000;0.8832;-0.9699;
564.3000;0.8783;-0.9874;
564.6000;0.8759;-0.9998;
564.9000;0.8767;-0.9923;
565.2000;0.8751;-0.9874;
565.5000;0.8767;-0.9824;
565.8000;0.8759;-0.9849;
566.1000;0.8775;-0.9948;
566.4000;0.8734;-0.9899;
566.7000;0.8759;-0.9799;
567.0000;0.8791;-0.9849;
567.3000;0.8767;-0.9849;
567.6000;0.8791;-0.9774;
567.9000;0.8775;-0.9724;
568.2000;0.8783;-0.9749;
568.5000;0.8775;-0.9874;
568.8000;0.8767;-0.9874;
569.1000;0.8783;-0.9849;
569.4000;0.8807;-0.9874;
569.7000;0.8783;-0.9948;
570.0000;0.8759;-0.9923;
570.3000;0.8775;-0.9923;
570.6000;0.8759;-0.9948;
570.9000;0.8775;-0.9948;
571.2000;0.8775;-0.9973;
571.5000;0.8791;-0.9998;
571.8000;0.8775;-0.9948;
572.1000;0.8816;-0.9774;
572.4000;0.8775;-0.9874;
572.7000;0.8767;-0.9923;
573.0000;0.8783;-0.9799;
573.3000;0.8791;-0.9824;
573.6000;0.8791;-0.9874;
573.9000;0.8799;-0.9799;
574.2000;0.8783;-0.9774;
574.5000;0.8791;-0.9774;
574.8000;0.8783;-0.9874;
575.1000;0.8767;-0.9874;
575.4000;0.8767;-0.9774;
575.7000;0.8751;-0.9799;
576.0000;0.8767;-0.9923;
576.3000;0.8759;-0.9899;
576.6000;0.8767;-0.9899;
576.9000;0.8767;-0.9899;
577.2000;0.8775;-0.9874;
577.5000;0.8726;-0.9948;
577.8000;0.8767;-0.9849;
578.1000;0.8767;-0.9849;
578.4000;0.8799;-0.9774;
578.7000;0.8759;-0.9849;
579.0000;0.8775;-0.9849;
579.3000;0.8783;-0.9824;
579.6000;0.8799;-0.9749;
579.9000;0.8775;-0.9774;
580.2000;0.8759;-0.9799;
580.5000;0.8685;-0.9998;
580.8000;0.8767;-0.9774;
581.1000;0.8759;-0.9849;
581.4000;0.8734;-1.0023;
581.7000;0.8816;-0.9824;
582.0000;0.8767;-0.9874;
582.3000;0.8775;-0.9774;
582.6000;0.8694;-0.9899;
582.9000;0.8759;-0.9749;
583.2000;0.8775;-0.9699;
583.5000;0.8775;-0.9674;
583.8000;0.8791;-0.9699;
584.1000;0.8759;-0.9849;
584.4000;0.8799;-0.9774;
584.7000;0.8799;-0.9774;
585.0000;0.8775;-0.9749;
585.3000;0.8775;-0.9749;
585.6000;0.8751;-0.9899;
585.9000;0.8767;-0.9923;
586.2000;0.8783;-0.9849;
586.5000;0.8775;-0.9799;
586.8000;0.8767;-0.9849;
587.1000;0.8783;-0.9799;
587.4000;0.8775;-0.9824;
587.7000;0.8775;-0.9774;
588.0000;0.8759;-0.9674;
588.3000;0.8767;-0.9724;
588.6000;0.8775;-0.9799;
588.9000;0.8767;-0.9849;
589.2000;0.8759;-0.9899;
589.5000;0.8767;-0.9799;
589.8000;0.8759;-0.9749;
590.1000;0.8742;-0.9749;
590.4000;0.8718;-0.9849;
590.7000;0.8767;-0.9774;
591.0000;0.8767;-0.9874;
591.3000;0.8775;-0.9899;
591.6000;0.8759;-0.9973;
591.9000;0.8751;-0.9948;
592.2000;0.8775;-0.9973;
592.5000;0.8702;-1.0148;
592.8000;0.8767;-0.9973;
593.1000;0.8767;-0.9923;
593.4000;0.8775;-0.9923;
593.7000;0.8751;-1.0048;
594.0000;0.8791;-0.9899;
594.3000;0.8759;-0.9948;
594.6000;0.8775;-0.9948;
594.9000;0.8775;-0.9973;
595.2000;0.8767;-0.9973;
595.5000;0.8751;-0.9973;
595.8000;0.8759;-0.9923;
596.1000;0.8759;-0.9899;
596.4000;0.8783;-0.9799;
596.7000;0.8775;-0.9824;
597.0000;0.8767;-0.9799;
597.3000;0.8767;-0.9799;
597.6000;0.8767;-0.9824;
597.9000;0.8742;-0.9874;
598.2000;0.8767;-0.9799;
598.5000;0.8759;-0.9799;
598.8000;0.8759;-0.9849;
599.1000;0.8775;-0.9824;
599.4000;0.8759;-0.9874;
599.7000;0.8751;-0.9849;
600.0000;0.8734;-0.9923;
600.3000;0.8742;-0.9899;
600.6000;0.8661;-1.0098;
600.9000;0.8490;-1.0273;
601.2000;0.8311;-1.0547;
601.5000;0.8091;-1.0896;
601.8000;0.7912;-1.1070;
602.1000;0.7741;-1.1170;
602.4000;0.7586;-1.1345;
602.7000;0.7407;-1.1569;
603.0000;0.7277;-1.1818;
603.3000;0.7155;-1.1968;
603.6000;0.7033;-1.2068;
603.9000;0.6919;-1.2292;
604.2000;0.6829;-1.2417;
604.5000;0.6716;-1.2517;
604.8000;0.6634;-1.2641;
605.1000;0.6553;-1.2741;
605.4000;0.6414;-1.3015;
605.7000;0.6349;-1.3090;
606.0000;0.6365;-1.3015;
606.3000;0.6292;-1.3040;
606.6000;0.6260;-1.3065;
606.9000;0.6195;-1.3090;
607.2000;0.6105;-1.3289;
607.5000;0.6064;-1.3265;
607.8000;0.6040;-1.3314;
608.1000;0.6056;-1.3165;
608.4000;0.5942;-1.3439;
608.7000;0.5918;-1.3464;
609.0000;0.5877;-1.3464;
609.3000;0.5828;-1.3539;
609.6000;0.5804;-1.3614;
609.9000;0.5771;-1.3589;
610.2000;0.5739;-1.3539;
610.5000;0.5714;-1.3589;
610.8000;0.5682;-1.3589;
611.1000;0.5657;-1.3639;
611.4000;0.5617;-1.3663;
611.7000;0.5592;-1.3713;
612.0000;0.5584;-1.3614;
612.3000;0.5527;-1.3639;
612.6000;0.5511;-1.3688;
612.9000;0.5511;-1.3688;
613.2000;0.5470;-1.3888;
613.5000;0.5462;-1.3888;
613.8000;0.5446;-1.3888;
614.1000;0.5429;-1.3963;
614.4000;0.5397;-1.3888;
614.7000;0.5381;-1.3863;
615.0000;0.5397;-1.3688;
615.3000;0.5356;-1.3788;
615.6000;0.5324;-1.3838;
615.9000;0.5299;-1.3938;
616.2000;0.5299;-1.4013;
616.5000;0.5332;-1.3913;
616.8000;0.5283;-1.4013;
617.1000;0.5267;-1.3963;
617.4000;0.5250;-1.3963;
617.7000;0.5242;-1.3988;
618.0000;0.5226;-1.3938;
618.3000;0.5153;-1.4112;
618.6000;0.5210;-1.4013;
618.9000;0.5185;-1.4013;
619.2000;0.5177;-1.4062;
619.5000;0.5201;-1.4087;
619.8000;0.5177;-1.4087;
620.1000;0.5153;-1.4062;
620.4000;0.5136;-1.4013;
620.7000;0.5128;-1.3913;
621.0000;0.5104;-1.3938;
621.3000;0.5079;-1.4062;
621.6000;0.5096;-1.3963;
621.9000;0.5079;-1.4013;
622.2000;0.5079;-1.3938;
622.5000;0.5063;-1.3938;
622.8000;0.5063;-1.3938;
623.1000;0.5047;-1.3913;
623.4000;0.5039;-1.3838;
623.7000;0.5031;-1.3813;
624.0000;0.5014;-1.3888;
624.3000;0.5022;-1.3963;
624.6000;0.5039;-1.4013;
624.9000;0.5006;-1.4037;
625.2000;0.5006;-1.4037;
625.5000;0.4998;-1.4062;
625.8000;0.4982;-1.4037;
626.1000;0.4974;-1.3963;
626.4000;0.4957;-1.3938;
626.7000;0.4957;-1.3938;
627.0000;0.4941;-1.3988;
627.3000;0.4925;-1.4013;
627.6000;0.4868;-1.4013;
627.9000;0.4941;-1.3913;
628.2000;0.4933;-1.3888;
628.5000;0.4933;-1.3863;
628.8000;0.4917;-1.3863;
629.1000;0.4908;-1.3888;
629.4000;0.4917;-1.3938;
629.7000;0.4949;-1.3838;
630.0000;0.4892;-1.4112;
630.3000;0.4908;-1.4112;
630.6000;0.4974;-1.3888;
630.9000;0.4868;-1.4162;
631.2000;0.4884;-1.4062;
631.5000;0.4851;-1.3988;
631.8000;0.4876;-1.3838;
632.1000;0.4860;-1.3813;
632.4000;0.4843;-1.3838;
632.7000;0.4843;-1.3888;
633.0000;0.4835;-1.3938;
633.3000;0.4860;-1.3888;
633.6000;0.4827;-1.3988;
633.9000;0.4827;-1.3938;
634.2000;0.4827;-1.3963;
634.5000;0.4827;-1.4037;
634.8000;0.4827;-1.3963;
635.1000;0.4835;-1.3888;
635.4000;0.4811;-1.3963;
635.7000;0.4819;-1.4037;
636.0000;0.4803;-1.4037;
636.3000;0.4778;-1.4112;
636.6000;0.4786;-1.4013;
636.9000;0.4786;-1.4013;
637.2000;0.4762;-1.4013;
637.5000;0.4721;-1.4162;
637.8000;0.4729;-1.4087;
638.1000;0.4713;-1.4112;
638.4000;0.4762;-1.4062;
638.7000;0.4762;-1.4112;
639.0000;0.4746;-1.4137;
639.3000;0.4737;-1.4062;
639.6000;0.4754;-1.3938;
639.9000;0.4762;-1.3938;
640.2000;0.4737;-1.3963;
640.5000;0.4729;-1.3938;
640.8000;0.4721;-1.3963;
641.1000;0.4729;-1.3988;
641.4000;0.4729;-1.3963;
641.7000;0.4819;-1.3663;
642.0000;0.4697;-1.3988;
642.3000;0.4721;-1.3963;
642.6000;0.4705;-1.4137;
642.9000;0.4729;-1.4087;
643.2000;0.4713;-1.4137;
643.5000;0.4721;-1.4212;
643.8000;0.4697;-1.4187;
644.1000;0.4705;-1.4062;
644.4000;0.4705;-1.4013;
644.7000;0.4656;-1.4087;
645.0000;0.4713;-1.3988;
645.3000;0.4664;-1.4162;
645.6000;0.4689;-1.4062;
645.9000;0.4689;-1.4013;
646.2000;0.4689;-1.4013;
646.5000;0.4672;-1.4137;
646.8000;0.4672;-1.4137;
647.1000;0.4672;-1.4212;
647.4000;0.4664;-1.4262;
647.7000;0.4672;-1.4312;
648.0000;0.4681;-1.4337;
648.3000;0.4737;-1.4162;
648.6000;0.4656;-1.4312;
648.9000;0.4664;-1.4312;
649.2000;0.4648;-1.4337;
649.5000;0.4664;-1.4262;
649.8000;0.4656;-1.4137;
650.1000;0.4648;-1.4162;
650.4000;0.4648;-1.4137;
650.7000;0.4672;-1.4037;
651.0000;0.4697;-1.3938;
651.3000;0.4648;-1.4013;
651.6000;0.4648;-1.4013;
651.9000;0.4624;-1.4087;
652.2000;0.4632;-1.4037;
652.5000;0.4599;-1.4087;
652.8000;0.4615;-1.4037;
653.1000;0.4599;-1.4087;
653.4000;0.4624;-1.3988;
653.7000;0.4591;-1.4087;
654.0000;0.4640;-1.3988;
654.3000;0.4615;-1.4112;
654.6000;0.4640;-1.4062;
654.9000;0.4632;-1.4062;
655.2000;0.4664;-1.3938;
655.5000;0.4599;-1.4087;
655.8000;0.4615;-1.4087;
656.1000;0.4615;-1.4037;
656.4000;0.4624;-1.4137;
656.7000;0.4599;-1.4137;
657.0000;0.4632;-1.4037;
657.3000;0.4583;-1.4137;
657.6000;0.4575;-1.4087;
657.9000;0.4583;-1.4137;
658.2000;0.4567;-1.4237;
658.5000;0.4575;-1.4212;
658.8000;0.4567;-1.4312;
659.1000;0.4583;-1.4287;
659.4000;0.4567;-1.4262;
659.7000;0.4550;-1.4262;
660.0000;0.4558;-1.4312;
660.3000;0.4550;-1.4362;
660.6000;0.4567;-1.4362;
660.9000;0.4567;-1.4262;
661.2000;0.4550;-1.4312;
661.5000;0.4526;-1.4312;
661.8000;0.4526;-1.4337;
662.1000;0.4534;-1.4312;
662.4000;0.4518;-1.4262;
662.7000;0.4542;-1.4212;
663.0000;0.4550;-1.4137;
663.3000;0.4518;-1.4212;
663.6000;0.4534;-1.4187;
663.9000;0.4542;-1.4137;
664.2000;0.4518;-1.4162;
664.5000;0.4526;-1.4137;
664.8000;0.4542;-1.4087;
665.1000;0.4550;-1.4087;
665.4000;0.4518;-1.4237;
665.7000;0.4526;-1.4187;
666.0000;0.4526;-1.3988;
666.3000;0.4534;-1.3988;
666.6000;0.4558;-1.4062;
666.9000;0.4526;-1.4137;
667.2000;0.4534;-1.4162;
667.5000;0.4501;-1.4237;
667.8000;0.4510;-1.4137;
668.1000;0.4526;-1.4212;
668.4000;0.4518;-1.4162;
668.7000;0.4526;-1.4187;
669.0000;0.4510;-1.4237;
669.3000;0.4591;-1.3963;
669.6000;0.4510;-1.4187;
669.9000;0.4510;-1.4137;
670.2000;0.4510;-1.4112;
670.5000;0.4526;-1.3988;
670.8000;0.4510;-1.4037;
671.1000;0.4485;-1.4062;
671.4000;0.4550;-1.3813;
671.7000;0.4477;-1.3988;
672.0000;0.4469;-1.4013;
672.3000;0.4469;-1.3888;
672.6000;0.4469;-1.3963;
672.9000;0.4469;-1.3988;
673.2000;0.4477;-1.4013;
673.5000;0.4396;-1.4237;
673.8000;0.4477;-1.4087;
674.1000;0.4485;-1.4037;
674.4000;0.4510;-1.3963;
674.7000;0.4469;-1.3988;
675.0000;0.4501;-1.4037;
675.3000;0.4485;-1.3988;
675.6000;0.4493;-1.3913;
675.9000;0.4485;-1.3963;
676.2000;0.4436;-1.4087;
676.5000;0.4493;-1.3938;
676.8000;0.4428;-1.4037;
677.1000;0.4477;-1.3788;
677.4000;0.4461;-1.3813;
677.7000;0.4477;-1.3788;
678.0000;0.4444;-1.3863;
678.3000;0.4453;-1.3838;
678.6000;0.4444;-1.3913;
678.9000;0.4444;-1.3888;
679.2000;0.4436;-1.3938;
679.5000;0.4461;-1.3913;
679.8000;0.4469;-1.3888;
680.1000;0.4428;-1.3988;
680.4000;0.4436;-1.3963;
680.7000;0.4444;-1.3988;
681.0000;0.4420;-1.4062;
681.3000;0.4436;-1.3988;
681.6000;0.4420;-1.3963;
681.9000;0.4436;-1.4013;
682.2000;0.4436;-1.4037;
682.5000;0.4444;-1.4013;
682.8000;0.4412;-1.4037;
683.1000;0.4428;-1.4087;
683.4000;0.4436;-1.3963;
683.7000;0.4420;-1.3988;
684.0000;0.4420;-1.4087;
684.3000;0.4404;-1.4087;
684.6000;0.4412;-1.3988;
684.9000;0.4420;-1.4087;
685.2000;0.4420;-1.4062;
685.5000;0.4461;-1.3963;
685.8000;0.4404;-1.4162;
686.1000;0.4396;-1.4287;
686.4000;0.4404;-1.4287;
686.7000;0.4420;-1.4237;
687.0000;0.4428;-1.4212;
687.3000;0.4371;-1.4337;
687.6000;0.4404;-1.4362;
687.9000;0.4412;-1.4362;
688.2000;0.4387;-1.4387;
688.5000;0.4387;-1.4362;
688.8000;0.4396;-1.4237;
689.1000;0.4404;-1.4137;
689.4000;0.4396;-1.4162;
689.7000;0.4379;-1.4187;
690.0000;0.4396;-1.4137;
690.3000;0.4396;-1.4137;
690.6000;0.4396;-1.4062;
690.9000;0.4404;-1.4062;
691.2000;0.4387;-1.4162;
691.5000;0.4355;-1.4287;
691.8000;0.4379;-1.4137;
692.1000;0.4371;-1.4087;
692.4000;0.4371;-1.4187;
692.7000;0.4379;-1.4137;
693.0000;0.4387;-1.4112;
693.3000;0.4355;-1.4137;
693.6000;0.4371;-1.4037;
693.9000;0.4379;-1.3938;
694.2000;0.4371;-1.3988;
694.5000;0.4371;-1.3938;
694.8000;0.4371;-1.3938;
695.1000;0.4363;-1.3913;
695.4000;0.4396;-1.3838;
695.7000;0.4387;-1.3863;
696.0000;0.4363;-1.3888;
696.3000;0.4371;-1.3913;
696.6000;0.4379;-1.3888;
696.9000;0.4379;-1.3863;
697.2000;0.4387;-1.3863;
697.5000;0.4339;-1.3888;
697.8000;0.4363;-1.3813;
698.1000;0.4363;-1.3863;
698.4000;0.4363;-1.3888;
698.7000;0.4371;-1.3963;
699.0000;0.4412;-1.3913;
699.3000;0.4371;-1.3988;
699.6000;0.4371;-1.3988;
699.9000;0.4347;-1.3963;
700.2000;0.4355;-1.4062;
700.5000;0.4355;-1.4087;
700.8000;0.4355;-1.4112;
701.1000;0.4347;-1.4137;
701.4000;0.4339;-1.4212;
701.7000;0.4355;-1.4212;
702.0000;0.4347;-1.4112;
702.3000;0.4355;-1.4137;
702.6000;0.4347;-1.4162;
702.9000;0.4347;-1.4212;
703.2000;0.4387;-1.4037;
703.5000;0.4330;-1.4162;
703.8000;0.4322;-1.4262;
704.1000;0.4355;-1.4237;
704.4000;0.4314;-1.4287;
704.7000;0.4330;-1.4237;
705.0000;0.4241;-1.4511;
705.3000;0.4314;-1.4287;
705.6000;0.4322;-1.4162;
705.9000;0.4314;-1.4162;
706.2000;0.4314;-1.4162;
706.5000;0.4306;-1.4112;
706.8000;0.4322;-1.4137;
707.1000;0.4314;-1.4137;
707.4000;0.4314;-1.4262;
707.7000;0.4322;-1.4262;
708.0000;0.4290;-1.4337;
708.3000;0.4363;-1.4137;
708.6000;0.4314;-1.4287;
708.9000;0.4330;-1.4237;
709.2000;0.4314;-1.4287;
709.5000;0.4233;-1.4511;
709.8000;0.4306;-1.4312;
710.1000;0.4322;-1.4137;
710.4000;0.4298;-1.4137;
710.7000;0.4339;-1.4037;
711.0000;0.4314;-1.4087;
711.3000;0.4339;-1.4037;
711.6000;0.4314;-1.4137;
711.9000;0.4298;-1.4137;
712.2000;0.4306;-1.4112;
712.5000;0.4306;-1.4087;
712.8000;0.4314;-1.4112;
713.1000;0.4298;-1.4162;
713.4000;0.4290;-1.4187;
713.7000;0.4290;-1.4087;
714.0000;0.4265;-1.4087;
714.3000;0.4290;-1.4013;
714.6000;0.4282;-1.4062;
714.9000;0.4322;-1.4087;
715.2000;0.4306;-1.4112;
715.5000;0.4314;-1.4087;
715.8000;0.4306;-1.4062;
716.1000;0.4282;-1.4112;
716.4000;0.4290;-1.4037;
716.7000;0.4298;-1.4013;
717.0000;0.4298;-1.4037;
717.3000;0.4290;-1.4037;
717.6000;0.4347;-1.3938;
717.9000;0.4298;-1.4087;
718.2000;0.4290;-1.4062;
718.5000;0.4290;-1.4037;
718.8000;0.4274;-1.3938;
719.1000;0.4282;-1.3988;
719.4000;0.4282;-1.3913;
719.7000;0.4265;-1.3963;
720.0000;0.4298;-1.3963;
720.3000;0.4265;-1.3988;
720.6000;0.4282;-1.3938;
720.9000;0.4249;-1.3988;
721.2000;0.4290;-1.3863;
721.5000;0.4298;-1.3838;
721.8000;0.4274;-1.3863;
722.1000;0.4241;-1.3963;
722.4000;0.4265;-1.3838;
722.7000;0.4290;-1.3813;
723.0000;0.4322;-1.3663;
723.3000;0.4257;-1.3913;
723.6000;0.4290;-1.3863;
723.9000;0.4257;-1.3888;
724.2000;0.4265;-1.3913;
724.5000;0.4265;-1.3913;
724.8000;0.4274;-1.3863;
725.1000;0.4257;-1.3963;
725.4000;0.4257;-1.3938;
725.7000;0.4257;-1.3938;
726.0000;0.4241;-1.3888;
726.3000;0.4265;-1.3838;
726.6000;0.4249;-1.3838;
726.9000;0.4257;-1.3813;
727.2000;0.4249;-1.3863;
727.5000;0.4282;-1.3838;
727.8000;0.4217;-1.3963;
728.1000;0.4249;-1.3863;
728.4000;0.4249;-1.3888;
728.7000;0.4257;-1.3888;
729.0000;0.4241;-1.3913;
729.3000;0.4249;-1.3938;
729.6000;0.4249;-1.3938;
729.9000;0.4233;-1.3988;
730.2000;0.4249;-1.3938;
730.5000;0.4257;-1.3888;
730.8000;0.4233;-1.4013;
731.1000;0.4225;-1.4162;
731.4000;0.4241;-1.4087;
731.7000;0.4282;-1.3988;
732.0000;0.4274;-1.4062;
732.3000;0.4233;-1.4162;
732.6000;0.4265;-1.4062;
732.9000;0.4274;-1.3988;
733.2000;0.4241;-1.4062;
733.5000;0.4233;-1.4162;
733.8000;0.4249;-1.4087;
734.1000;0.4257;-1.4087;
734.4000;0.4233;-1.4137;
734.7000;0.4249;-1.4087;
735.0000;0.4233;-1.4062;
735.3000;0.4233;-1.4087;
735.6000;0.4257;-1.4037;
735.9000;0.4233;-1.3988;
736.2000;0.4225;-1.4062;
736.5000;0.4233;-1.4087;
736.8000;0.4241;-1.4013;
737.1000;0.4257;-1.3938;
737.4000;0.4233;-1.3988;
737.7000;0.4282;-1.3813;
738.0000;0.4249;-1.3963;
738.3000;0.4249;-1.3888;
738.6000;0.4233;-1.3813;
738.9000;0.4225;-1.3838;
739.2000;0.4249;-1.3788;
739.5000;0.4217;-1.3838;
739.8000;0.4217;-1.3863;
740.1000;0.4225;-1.3813;
740.4000;0.4233;-1.3788;
740.7000;0.4282;-1.3663;
741.0000;0.4225;-1.3863;
741.3000;0.4233;-1.3788;
741.6000;0.4225;-1.3763;
741.9000;0.4217;-1.3813;
742.2000;0.4217;-1.3863;
742.5000;0.4225;-1.3913;
742.8000;0.4233;-1.3888;
743.1000;0.4241;-1.3738;
743.4000;0.4249;-1.3663;
743.7000;0.4200;-1.3838;
744.0000;0.4225;-1.3788;
744.3000;0.4208;-1.3788;
744.6000;0.4184;-1.3888;
744.9000;0.4208;-1.3788;
745.2000;0.4208;-1.3763;
745.5000;0.4225;-1.3614;
745.8000;0.4217;-1.3688;
746.1000;0.4225;-1.3763;
746.4000;0.4200;-1.3813;
746.7000;0.4233;-1.3738;
747.0000;0.4217;-1.3713;
747.3000;0.4225;-1.3614;
747.6000;0.4225;-1.3639;
747.9000;0.4217;-1.3763;
748.2000;0.4168;-1.3888;
748.5000;0.4208;-1.3738;
748.8000;0.4200;-1.3738;
749.1000;0.4176;-1.3838;
749.4000;0.4233;-1.3713;
749.7000;0.4192;-1.3813;
750.0000;0.4200;-1.3863;
750.3000;0.4192;-1.3863;
750.6000;0.4208;-1.3888;
750.9000;0.4208;-1.3913;
751.2000;0.4160;-1.4037;
751.5000;0.4208;-1.3788;
751.8000;0.4200;-1.3838;
752.1000;0.4217;-1.3838;
752.4000;0.4176;-1.3863;
752.7000;0.4192;-1.3888;
753.0000;0.4176;-1.3938;
753.3000;0.4200;-1.3913;
753.6000;0.4184;-1.3913;
753.9000;0.4184;-1.3913;
754.2000;0.4168;-1.3938;
754.5000;0.4208;-1.3863;
754.8000;0.4176;-1.3863;
755.1000;0.4233;-1.3838;
755.4000;0.4176;-1.3838;
755.7000;0.4192;-1.3788;
756.0000;0.4160;-1.3888;
756.3000;0.4176;-1.3863;
756.6000;0.4192;-1.3863;
756.9000;0.4176;-1.3838;
757.2000;0.4184;-1.3688;
757.5000;0.4208;-1.3738;
757.8000;0.4184;-1.3863;
758.1000;0.4176;-1.3988;
758.4000;0.4184;-1.3913;
758.7000;0.4168;-1.3963;
759.0000;0.4184;-1.3988;
759.3000;0.4184;-1.3988;
759.6000;0.4200;-1.3888;
759.9000;0.4184;-1.3863;
760.2000;0.4168;-1.3938;
760.5000;0.4160;-1.3938;
760.8000;0.4160;-1.4013;
761.1000;0.4184;-1.4013;
761.4000;0.4176;-1.4013;
761.7000;0.4192;-1.3963;
762.0000;0.4184;-1.3863;
762.3000;0.4184;-1.3838;
762.6000;0.4168;-1.3863;
762.9000;0.4200;-1.3838;
763.2000;0.4184;-1.3913;
763.5000;0.4184;-1.3963;
763.8000;0.4111;-1.4112;
764.1000;0.4103;-1.4162;
764.4000;0.4168;-1.4062;
764.7000;0.4176;-1.3963;
765.0000;0.4184;-1.3813;
765.3000;0.4111;-1.3963;
765.6000;0.4233;-1.3564;
765.9000;0.4135;-1.3738;
766.2000;0.4143;-1.3688;
766.5000;0.4160;-1.3639;
766.8000;0.4176;-1.3639;
767.1000;0.4151;-1.3713;
767.4000;0.4184;-1.3788;
767.7000;0.4160;-1.3888;
768.0000;0.4176;-1.3813;
768.3000;0.4168;-1.3713;
768.6000;0.4176;-1.3688;
768.9000;0.4143;-1.3738;
769.2000;0.4160;-1.3738;
769.5000;0.4135;-1.3813;
769.8000;0.4151;-1.3738;
770.1000;0.4119;-1.3913;
770.4000;0.4233;-1.3614;
770.7000;0.4176;-1.3763;
771.0000;0.4192;-1.3713;
771.3000;0.4160;-1.3738;
771.6000;0.4143;-1.3863;
771.9000;0.4160;-1.3888;
772.2000;0.4168;-1.3838;
772.5000;0.4233;-1.3713;
772.8000;0.4168;-1.3838;
773.1000;0.4176;-1.3688;
773.4000;0.4176;-1.3713;
773.7000;0.4176;-1.3713;
774.0000;0.4151;-1.3763;
774.3000;0.4168;-1.3813;
774.6000;0.4151;-1.3788;
774.9000;0.4160;-1.3763;
775.2000;0.4151;-1.3738;
775.5000;0.4135;-1.3863;
775.8000;0.4119;-1.3863;
776.1000;0.4143;-1.3838;
776.4000;0.4127;-1.3838;
776.7000;0.4143;-1.3863;
777.0000;0.4151;-1.3888;
777.3000;0.4160;-1.3913;
777.6000;0.4151;-1.3838;
777.9000;0.4151;-1.3713;
778.2000;0.4143;-1.3788;
778.5000;0.4119;-1.3813;
778.8000;0.4143;-1.3763;
779.1000;0.4119;-1.3788;
779.4000;0.4119;-1.3813;
779.7000;0.4127;-1.3813;
780.0000;0.4151;-1.3738;
780.3000;0.4143;-1.3763;
780.6000;0.4135;-1.3763;
780.9000;0.4143;-1.3713;
781.2000;0.4127;-1.3713;
781.5000;0.4143;-1.3639;
781.8000;0.4135;-1.3663;
782.1000;0.4119;-1.3688;
782.4000;0.4135;-1.3663;
782.7000;0.4151;-1.3564;
783.0000;0.4127;-1.3639;
783.3000;0.4111;-1.3813;
783.6000;0.4135;-1.3813;
783.9000;0.4143;-1.3713;
784.2000;0.4135;-1.3838;
784.5000;0.4127;-1.3938;
784.8000;0.4160;-1.3863;
785.1000;0.4086;-1.4013;
785.4000;0.4135;-1.3838;
785.7000;0.4070;-1.4013;
786.0000;0.4135;-1.3838;
786.3000;0.4151;-1.3863;
786.6000;0.4143;-1.3888;
786.9000;0.4127;-1.3888;
787.2000;0.4143;-1.3863;
787.5000;0.4143;-1.3813;
787.8000;0.4119;-1.3863;
788.1000;0.4135;-1.3813;
788.4000;0.4119;-1.3788;
788.7000;0.4086;-1.3888;
789.0000;0.4119;-1.3788;
789.3000;0.4135;-1.3763;
789.6000;0.4135;-1.3863;
789.9000;0.4086;-1.3938;
790.2000;0.4151;-1.3863;
790.5000;0.4143;-1.3938;
790.8000;0.4111;-1.4013;
791.1000;0.4094;-1.4013;
791.4000;0.4111;-1.3938;
791.7000;0.4054;-1.4162;
792.0000;0.4111;-1.3938;
792.3000;0.4119;-1.3913;
792.6000;0.4111;-1.3963;
792.9000;0.4119;-1.3938;
793.2000;0.4151;-1.3838;
793.5000;0.4094;-1.3963;
793.8000;0.4119;-1.3863;
794.1000;0.4151;-1.3813;
794.4000;0.4119;-1.3913;
794.7000;0.4078;-1.4037;
795.0000;0.4119;-1.3838;
795.3000;0.4135;-1.3788;
795.6000;0.4119;-1.3788;
795.9000;0.4078;-1.3938;
796.2000;0.4111;-1.3838;
796.5000;0.4119;-1.3863;
796.8000;0.4127;-1.3838;
797.1000;0.4111;-1.3738;
797.4000;0.4103;-1.3763;
797.7000;0.4111;-1.3713;
798.0000;0.4119;-1.3713;
798.3000;0.4135;-1.3738;
798.6000;0.4111;-1.3738;
798.9000;0.4094;-1.3713;
799.2000;0.4111;-1.3663;
799.5000;0.4062;-1.3763;
799.8000;0.4127;-1.3614;
800.1000;0.4111;-1.3738;
800.4000;0.4094;-1.3863;
800.7000;0.4119;-1.3838;
801.0000;0.4103;-1.3938;
801.3000;0.4111;-1.3938;
801.6000;0.4086;-1.3963;
801.9000;0.4094;-1.4013;
802.2000;0.4094;-1.3963;
802.5000;0.4119;-1.3913;
802.8000;0.4111;-1.3938;
803.1000;0.4094;-1.4062;
803.4000;0.4078;-1.4087;
803.7000;0.4086;-1.4062;
804.0000;0.4143;-1.3963;
804.3000;0.4111;-1.4013;
804.6000;0.4086;-1.4037;
804.9000;0.4021;-1.4137;
805.2000;0.4111;-1.3913;
805.5000;0.4094;-1.3813;
805.8000;0.4103;-1.3813;
806.1000;0.4127;-1.3788;
806.4000;0.4094;-1.3813;
806.7000;0.4119;-1.3763;
807.0000;0.4103;-1.3713;
807.3000;0.4111;-1.3589;
807.6000;0.4111;-1.3614;
807.9000;0.4103;-1.3688;
808.2000;0.4111;-1.3663;
808.5000;0.4111;-1.3713;
808.8000;0.4168;-1.3614;
809.1000;0.4070;-1.3838;
809.4000;0.4094;-1.3788;
809.7000;0.4054;-1.3913;
810.0000;0.4086;-1.3838;
810.3000;0.4070;-1.3913;
810.6000;0.4086;-1.3888;
810.9000;0.4094;-1.3888;
811.2000;0.4094;-1.3963;
811.5000;0.4086;-1.3963;
811.8000;0.4070;-1.3963;
812.1000;0.4070;-1.4013;
812.4000;0.4086;-1.3938;
812.7000;0.4078;-1.3938;
813.0000;0.4086;-1.4013;
813.3000;0.4086;-1.4013;
813.6000;0.4103;-1.3963;
813.9000;0.4094;-1.3888;
814.2000;0.4078;-1.3888;
814.5000;0.4111;-1.3813;
814.8000;0.4094;-1.3813;
815.1000;0.4103;-1.3763;
815.4000;0.4094;-1.3738;
815.7000;0.4111;-1.3639;
816.0000;0.4094;-1.3589;
816.3000;0.4103;-1.3539;
816.6000;0.4086;-1.3713;
816.9000;0.4094;-1.3663;
817.2000;0.4078;-1.3763;
817.5000;0.4078;-1.3713;
817.8000;0.4070;-1.3713;
818.1000;0.4078;-1.3663;
818.4000;0.4086;-1.3539;
818.7000;0.4086;-1.3614;
819.0000;0.4078;-1.3713;
819.3000;0.4070;-1.3688;
819.6000;0.4127;-1.3639;
819.9000;0.4078;-1.3738;
820.2000;0.4078;-1.3813;
820.5000;0.4078;-1.3913;
820.8000;0.4094;-1.3863;
821.1000;0.4078;-1.3813;
821.4000;0.4078;-1.3838;
821.7000;0.4086;-1.3813;
822.0000;0.4078;-1.3738;
822.3000;0.4054;-1.3888;
822.6000;0.4070;-1.3938;
822.9000;0.4070;-1.3988;
823.2000;0.4078;-1.3988;
823.5000;0.4062;-1.4037;
823.8000;0.4062;-1.3988;
824.1000;0.4062;-1.3988;
824.4000;0.4094;-1.3863;
824.7000;0.4103;-1.3863;
825.0000;0.4086;-1.3888;
825.3000;0.4119;-1.3713;
825.6000;0.4078;-1.3813;
825.9000;0.4094;-1.3663;
826.2000;0.4070;-1.3663;
826.5000;0.4094;-1.3639;
826.8000;0.4054;-1.3813;
827.1000;0.4070;-1.3663;
827.4000;0.4062;-1.3663;
827.7000;0.4062;-1.3663;
828.0000;0.4046;-1.3738;
828.3000;0.4070;-1.3663;
828.6000;0.4062;-1.3639;
828.9000;0.4062;-1.3639;
829.2000;0.4070;-1.3688;
829.5000;0.4054;-1.3738;
829.8000;0.4062;-1.3738;
830.1000;0.4070;-1.3838;
830.4000;0.4086;-1.3788;
830.7000;0.4078;-1.3763;
831.0000;0.4086;-1.3763;
831.3000;0.4078;-1.3813;
831.6000;0.4094;-1.3788;
831.9000;0.4078;-1.3888;
832.2000;0.4070;-1.3838;
832.5000;0.4086;-1.3688;
832.8000;0.4078;-1.3688;
833.1000;0.4086;-1.3639;
833.4000;0.4054;-1.3713;
833.7000;0.4005;-1.3888;
834.0000;0.4070;-1.3813;
834.3000;0.4078;-1.3838;
834.6000;0.4070;-1.3863;
834.9000;0.4070;-1.3788;
835.2000;0.4086;-1.3763;
835.5000;0.4062;-1.3788;
835.8000;0.4054;-1.3813;
836.1000;0.4078;-1.3763;
836.4000;0.4119;-1.3639;
836.7000;0.4037;-1.3788;
837.0000;0.4062;-1.3738;
837.3000;0.4062;-1.3713;
837.6000;0.4046;-1.3738;
837.9000;0.4037;-1.3838;
838.2000;0.4054;-1.3788;
838.5000;0.4062;-1.3788;
838.8000;0.4078;-1.3813;
839.1000;0.4054;-1.3813;
839.4000;0.4046;-1.3838;
839.7000;0.4054;-1.3863;
840.0000;0.4103;-1.3713;
840.3000;0.4046;-1.3863;
840.6000;0.4070;-1.3813;
840.9000;0.4046;-1.3813;
841.2000;0.4054;-1.3813;
841.5000;0.4062;-1.3813;
841.8000;0.4078;-1.3788;
842.1000;0.4062;-1.3813;
842.4000;0.4086;-1.3788;
842.7000;0.4070;-1.3763;
843.0000;0.4151;-1.3564;
843.3000;0.4062;-1.3813;
843.6000;0.4062;-1.3713;
843.9000;0.4103;-1.3663;
844.2000;0.4070;-1.3738;
844.5000;0.4046;-1.3888;
844.8000;0.4062;-1.3888;
845.1000;0.4013;-1.4013;
845.4000;0.4094;-1.3838;
845.7000;0.4046;-1.3963;
846.0000;0.4062;-1.3888;
846.3000;0.4111;-1.3688;
846.6000;0.4062;-1.3788;
846.9000;0.3997;-1.4037;
847.2000;0.4054;-1.3888;
847.5000;0.4046;-1.3788;
847.8000;0.4054;-1.3688;
848.1000;0.4046;-1.3688;
848.4000;0.4054;-1.3713;
848.7000;0.4046;-1.3663;
849.0000;0.4078;-1.3713;
849.3000;0.4062;-1.3788;
849.6000;0.4054;-1.3763;
849.9000;0.4005;-1.3888;
850.2000;0.4054;-1.3813;
850.5000;0.4070;-1.3763;
850.8000;0.4086;-1.3863;
851.1000;0.4054;-1.3913;
851.4000;0.4062;-1.3838;
851.7000;0.4062;-1.3913;
852.0000;0.4062;-1.3913;
852.3000;0.4062;-1.3913;
852.6000;0.4054;-1.3938;
852.9000;0.4070;-1.3863;
853.2000;0.4029;-1.3988;
853.5000;0.4054;-1.3963;
853.8000;0.4046;-1.3938;
854.1000;0.4078;-1.3763;
854.4000;0.4046;-1.3813;
854.7000;0.4046;-1.3863;
855.0000;0.4070;-1.3688;
855.3000;0.3997;-1.3888;
855.6000;0.4078;-1.3713;
855.9000;0.4078;-1.3713;
856.2000;0.4062;-1.3813;
856.5000;0.4054;-1.3788;
856.8000;0.4046;-1.3788;
857.1000;0.4005;-1.3813;
857.4000;0.4021;-1.3788;
857.7000;0.4037;-1.3813;
858.0000;0.4029;-1.3838;
858.3000;0.4078;-1.3763;
858.6000;0.4037;-1.3763;
858.9000;0.4021;-1.3863;
859.2000;0.4046;-1.3888;
859.5000;0.4013;-1.4087;
859.8000;0.4037;-1.3963;
860.1000;0.4037;-1.3938;
860.4000;0.4070;-1.3838;
860.7000;0.4029;-1.3913;
861.0000;0.4062;-1.3788;
861.3000;0.4062;-1.3663;
861.6000;0.4046;-1.3713;
861.9000;0.4046;-1.3688;
862.2000;0.4062;-1.3589;
862.5000;0.4094;-1.3514;
862.8000;0.4046;-1.3713;
863.1000;0.4094;-1.3589;
863.4000;0.4029;-1.3838;
863.7000;0.4021;-1.3863;
864.0000;0.4103;-1.3663;
864.3000;0.4054;-1.3788;
864.6000;0.3948;-1.3963;
864.9000;0.4037;-1.3713;
865.2000;0.4046;-1.3663;
865.5000;0.4037;-1.3738;
865.8000;0.4054;-1.3688;
866.1000;0.4046;-1.3663;
866.4000;0.4046;-1.3713;
866.7000;0.4070;-1.3614;
867.0000;0.4037;-1.3813;
867.3000;0.4046;-1.3888;
867.6000;0.4037;-1.3888;
867.9000;0.4021;-1.3913;
868.2000;0.4046;-1.3838;
868.5000;0.4046;-1.3788;
868.8000;0.4029;-1.3863;
869.1000;0.4029;-1.3813;
869.4000;0.4037;-1.3763;
869.7000;0.4021;-1.3838;
870.0000;0.4029;-1.3913;
870.3000;0.4029;-1.3863;
870.6000;0.4046;-1.3963;
870.9000;0.4021;-1.4087;
871.2000;0.4037;-1.4037;
871.5000;0.4054;-1.4037;
871.8000;0.4046;-1.4187;
872.1000;0.4062;-1.4037;
872.4000;0.4046;-1.4013;
872.7000;0.4029;-1.3938;
873.0000;0.4029;-1.3838;
873.3000;0.4054;-1.3763;
873.6000;0.4054;-1.3738;
873.9000;0.4021;-1.3913;
874.2000;0.4013;-1.3913;
874.5000;0.4021;-1.3913;
874.8000;0.4021;-1.3863;
875.1000;0.4046;-1.3863;
875.4000;0.3948;-1.4287;
875.7000;0.4029;-1.4062;
876.0000;0.4021;-1.4137;
876.3000;0.4029;-1.4062;
876.6000;0.4021;-1.4037;
876.9000;0.4029;-1.4062;
877.2000;0.4005;-1.4212;
877.5000;0.4037;-1.4013;
877.8000;0.4054;-1.3838;
878.1000;0.4054;-1.3963;
878.4000;0.4021;-1.4137;
878.7000;0.4037;-1.4062;
879.0000;0.4013;-1.4037;
879.3000;0.4070;-1.3863;
879.6000;0.4013;-1.3988;
879.9000;0.4013;-1.4062;
880.2000;0.4021;-1.3988;
880.5000;0.4029;-1.3913;
880.8000;0.4078;-1.3738;
881.1000;0.4013;-1.4037;
881.4000;0.4013;-1.4037;
881.7000;0.4013;-1.4112;
882.0000;0.4013;-1.4212;
882.3000;0.4029;-1.4187;
882.6000;0.4111;-1.3888;
882.9000;0.3964;-1.4337;
883.2000;0.4013;-1.4312;
883.5000;0.4013;-1.4237;
883.8000;0.4005;-1.4137;
884.1000;0.4021;-1.3988;
884.4000;0.4021;-1.4037;
884.7000;0.4005;-1.4062;
885.0000;0.4021;-1.4087;
885.3000;0.4029;-1.4112;
885.6000;0.4086;-1.3938;
885.9000;0.4037;-1.4087;
886.2000;0.4062;-1.4062;
886.5000;0.4062;-1.4013;
886.8000;0.4029;-1.4013;
887.1000;0.4021;-1.4137;
887.4000;0.4021;-1.4112;
887.7000;0.4037;-1.4037;
888.0000;0.4021;-1.4112;
888.3000;0.4021;-1.4187;
888.6000;0.4046;-1.4162;
888.9000;0.4013;-1.4262;
889.2000;0.4086;-1.4037;
889.5000;0.3997;-1.4212;
889.8000;0.4013;-1.4187;
890.1000;0.4005;-1.4187;
890.4000;0.4037;-1.4087;
890.7000;0.4054;-1.3963;
891.0000;0.4029;-1.4013;
891.3000;0.4021;-1.4087;
891.6000;0.4021;-1.4013;
891.9000;0.4013;-1.4062;
892.2000;0.4029;-1.4062;
892.5000;0.4021;-1.4087;
892.8000;0.3997;-1.4112;
893.1000;0.4013;-1.4112;
893.4000;0.4005;-1.4013;
893.7000;0.4029;-1.3913;
894.0000;0.4013;-1.3913;
894.3000;0.3997;-1.3988;
894.6000;0.3997;-1.3988;
894.9000;0.4013;-1.3913;
895.2000;0.4021;-1.3863;
895.5000;0.4021;-1.3913;
895.8000;0.4005;-1.3938;
896.1000;0.4013;-1.3963;
896.4000;0.4037;-1.3913;
896.7000;0.4021;-1.3888;
897.0000;0.4005;-1.3788;
897.3000;0.4037;-1.3788;
897.6000;0.4005;-1.3763;
897.9000;0.4021;-1.3713;
898.2000;0.4021;-1.3688;
898.5000;0.4021;-1.3738;
898.8000;0.4005;-1.3813;
899.1000;0.4029;-1.3838;
899.4000;0.4013;-1.3938;
899.7000;0.4013;-1.4037;
900.0000;0.4021;-1.4062;
900.3000;0.4029;-1.4037;
900.6000;0.3997;-1.4162;
900.9000;0.4013;-1.4062;
901.2000;0.4005;-1.4037;
901.5000;0.4005;-1.3988;
901.8000;0.4062;-1.3838;
902.1000;0.4037;-1.3888;
902.4000;0.4070;-1.3913;
902.7000;0.4005;-1.3988;
903.0000;0.4070;-1.3738;
903.3000;0.3989;-1.3963;
903.6000;0.3932;-1.4137;
903.9000;0.4013;-1.3938;
904.2000;0.3956;-1.4137;
904.5000;0.3956;-1.4062;
904.8000;0.3989;-1.3913;
905.1000;0.4021;-1.3863;
905.4000;0.4005;-1.3938;
905.7000;0.3997;-1.3963;
906.0000;0.3980;-1.4062;
906.3000;0.3997;-1.4037;
906.6000;0.4078;-1.3913;
906.9000;0.3972;-1.4212;
907.2000;0.4005;-1.4037;
907.5000;0.4021;-1.4013;
907.8000;0.4005;-1.4087;
908.1000;0.4029;-1.3938;
908.4000;0.3997;-1.3963;
908.7000;0.4013;-1.3963;
909.0000;0.4021;-1.3838;
909.3000;0.4005;-1.3913;
909.6000;0.4005;-1.3863;
909.9000;0.3964;-1.3913;
910.2000;0.4005;-1.3838;
910.5000;0.4021;-1.3788;
910.8000;0.4005;-1.3813;
911.1000;0.4013;-1.3763;
911.4000;0.4005;-1.3763;
911.7000;0.4029;-1.3713;
912.0000;0.4021;-1.3713;
912.3000;0.4005;-1.3663;
912.6000;0.4013;-1.3713;
912.9000;0.4021;-1.3639;
913.2000;0.4021;-1.3589;
913.5000;0.4013;-1.3564;
913.8000;0.3989;-1.3663;
914.1000;0.4021;-1.3738;
914.4000;0.4013;-1.3788;
914.7000;0.4021;-1.3813;
915.0000;0.3972;-1.3913;
915.3000;0.4013;-1.3738;
915.6000;0.4005;-1.3763;
915.9000;0.3997;-1.3763;
916.2000;0.3997;-1.3713;
916.5000;0.3997;-1.3589;
916.8000;0.4013;-1.3514;
917.1000;0.4021;-1.3489;
917.4000;0.3997;-1.3663;
917.7000;0.4013;-1.3713;
918.0000;0.4013;-1.3763;
918.3000;0.4013;-1.3738;
918.6000;0.3989;-1.3813;
918.9000;0.3972;-1.3938;
919.2000;0.3997;-1.3913;
919.5000;0.3997;-1.3863;
919.8000;0.3980;-1.3738;
920.1000;0.3989;-1.3713;
920.4000;0.3997;-1.3763;
920.7000;0.3989;-1.3788;
921.0000;0.3997;-1.3813;
921.3000;0.3980;-1.3763;
921.6000;0.4005;-1.3788;
921.9000;0.4005;-1.3813;
922.2000;0.4005;-1.3838;
922.5000;0.4005;-1.3788;
922.8000;0.3997;-1.3813;
923.1000;0.4037;-1.3589;
923.4000;0.4005;-1.3713;
923.7000;0.4005;-1.3614;
924.0000;0.3980;-1.3688;
924.3000;0.3997;-1.3639;
924.6000;0.3997;-1.3614;
924.9000;0.3948;-1.3813;
925.2000;0.3989;-1.3738;
925.5000;0.4037;-1.3539;
925.8000;0.4013;-1.3688;
926.1000;0.3964;-1.3788;
926.4000;0.3989;-1.3738;
926.7000;0.3997;-1.3738;
927.0000;0.3989;-1.3838;
927.3000;0.4005;-1.3788;
927.6000;0.3997;-1.3738;
927.9000;0.4029;-1.3639;
928.2000;0.4021;-1.3738;
928.5000;0.3997;-1.3813;
928.8000;0.3989;-1.3813;
929.1000;0.3989;-1.3813;
929.4000;0.4005;-1.3763;
929.7000;0.3972;-1.3713;
930.0000;0.3989;-1.3663;
930.3000;0.3989;-1.3639;
930.6000;0.4062;-1.3464;
930.9000;0.4021;-1.3539;
931.2000;0.4013;-1.3589;
931.5000;0.4005;-1.3564;
931.8000;0.4005;-1.3514;
932.1000;0.3989;-1.3539;
932.4000;0.3997;-1.3564;
932.7000;0.4005;-1.3589;
933.0000;0.3989;-1.3639;
933.3000;0.4013;-1.3639;
933.6000;0.4013;-1.3614;
933.9000;0.3932;-1.3713;
934.2000;0.3989;-1.3614;
934.5000;0.3964;-1.3663;
934.8000;0.3989;-1.3688;
935.1000;0.3997;-1.3688;
935.4000;0.3997;-1.3663;
935.7000;0.3989;-1.3663;
936.0000;0.4005;-1.3589;
936.3000;0.3972;-1.3688;
936.6000;0.3980;-1.3688;
936.9000;0.3989;-1.3688;
937.2000;0.3997;-1.3688;
937.5000;0.3972;-1.3663;
937.8000;0.3989;-1.3564;
938.1000;0.4005;-1.3439;
938.4000;0.4005;-1.3414;
938.7000;0.3997;-1.3464;
939.0000;0.3980;-1.3514;
939.3000;0.3972;-1.3688;
939.6000;0.3989;-1.3738;
939.9000;0.3972;-1.3838;
940.2000;0.3980;-1.3863;
940.5000;0.4021;-1.3763;
940.8000;0.3972;-1.3913;
941.1000;0.3989;-1.3888;
941.4000;0.4046;-1.3713;
941.7000;0.3989;-1.3788;
942.0000;0.3972;-1.3813;
942.3000;0.4013;-1.3663;
942.6000;0.4005;-1.3639;
942.9000;0.3972;-1.3688;
943.2000;0.3997;-1.3614;
943.5000;0.3923;-1.3838;
943.8000;0.3989;-1.3639;
944.1000;0.4013;-1.3564;
944.4000;0.4013;-1.3539;
944.7000;0.4037;-1.3514;
945.0000;0.4005;-1.3713;
945.3000;0.3980;-1.3688;
945.6000;0.3972;-1.3614;
945.9000;0.3980;-1.3514;
946.2000;0.3997;-1.3514;
946.5000;0.3997;-1.3539;
946.8000;0.3972;-1.3663;
947.1000;0.4054;-1.3489;
947.4000;0.3997;-1.3688;
947.7000;0.3989;-1.3614;
948.0000;0.4005;-1.3713;
948.3000;0.3997;-1.3763;
948.6000;0.3980;-1.3713;
948.9000;0.4013;-1.3639;
949.2000;0.3997;-1.3688;
949.5000;0.4005;-1.3688;
949.8000;0.3997;-1.3539;
950.1000;0.3997;-1.3489;
950.4000;0.3980;-1.3489;
950.7000;0.3972;-1.3589;
951.0000;0.3989;-1.3663;
951.3000;0.3997;-1.3688;
951.6000;0.3915;-1.3763;
951.9000;0.3980;-1.3439;
952.2000;0.3989;-1.3414;
952.5000;0.4005;-1.3314;
952.8000;0.3964;-1.3464;
953.1000;0.3989;-1.3364;
953.4000;0.3972;-1.3389;
953.7000;0.4054;-1.3165;
954.0000;0.3980;-1.3339;
954.3000;0.3972;-1.3414;
954.6000;0.3940;-1.3614;
954.9000;0.4046;-1.3364;
955.2000;0.3972;-1.3564;
955.5000;0.3972;-1.3564;
955.8000;0.3964;-1.3589;
956.1000;0.3972;-1.3564;
956.4000;0.3964;-1.3614;
956.7000;0.3989;-1.3564;
957.0000;0.3972;-1.3589;
957.3000;0.3980;-1.3589;
957.6000;0.3989;-1.3688;
957.9000;0.4013;-1.3688;
958.2000;0.3997;-1.3713;
958.5000;0.3989;-1.3713;
958.8000;0.3956;-1.3639;
959.1000;0.4013;-1.3489;
959.4000;0.3989;-1.3514;
959.7000;0.3980;-1.3539;
960.0000;0.3980;-1.3539;
960.3000;0.3972;-1.3713;
960.6000;0.3964;-1.3763;
960.9000;0.3972;-1.3913;
961.2000;0.4005;-1.3813;
961.5000;0.3964;-1.3863;
961.8000;0.4005;-1.3738;
962.1000;0.3972;-1.3688;
962.4000;0.3964;-1.3738;
962.7000;0.3980;-1.3688;
963.0000;0.3989;-1.3663;
963.3000;0.3997;-1.3639;
963.6000;0.3972;-1.3614;
963.9000;0.3989;-1.3639;
964.2000;0.3980;-1.3639;
964.5000;0.3980;-1.3713;
964.8000;0.3948;-1.3838;
965.1000;0.4013;-1.3589;
965.4000;0.3980;-1.3589;
965.7000;0.3964;-1.3663;
966.0000;0.3997;-1.3589;
966.3000;0.3989;-1.3663;
966.6000;0.3980;-1.3564;
966.9000;0.3989;-1.3564;
967.2000;0.3989;-1.3564;
967.5000;0.4111;-1.3240;
967.8000;0.3980;-1.3639;
968.1000;0.3997;-1.3663;
968.4000;0.3989;-1.3614;
968.7000;0.3989;-1.3489;
969.0000;0.3964;-1.3589;
969.3000;0.3989;-1.3514;
969.6000;0.3997;-1.3564;
969.9000;0.3989;-1.3564;
970.2000;0.3980;-1.3564;
970.5000;0.4005;-1.3514;
970.8000;0.4005;-1.3564;
971.1000;0.3964;-1.3663;
971.4000;0.4021;-1.3564;
971.7000;0.3972;-1.3663;
972.0000;0.3964;-1.3763;
972.3000;0.3972;-1.3763;
972.6000;0.3972;-1.3688;
972.9000;0.3948;-1.3763;
973.2000;0.3989;-1.3589;
973.5000;0.3989;-1.3564;
973.8000;0.3964;-1.3564;
974.1000;0.3972;-1.3514;
974.4000;0.3997;-1.3464;
974.7000;0.3989;-1.3514;
975.0000;0.3948;-1.3564;
975.3000;0.3948;-1.3614;
975.6000;0.3972;-1.3589;
975.9000;0.3940;-1.3614;
976.2000;0.3964;-1.3464;
976.5000;0.3956;-1.3564;
976.8000;0.3989;-1.3464;
977.1000;0.3989;-1.3514;
977.4000;0.3972;-1.3514;
977.7000;0.3989;-1.3464;
978.0000;0.4029;-1.3414;
978.3000;0.3964;-1.3564;
978.6000;0.3972;-1.3539;
978.9000;0.3997;-1.3489;
979.2000;0.3997;-1.3489;
979.5000;0.3989;-1.3514;
979.8000;0.4086;-1.3289;
980.1000;0.3964;-1.3589;
980.4000;0.3980;-1.3589;
980.7000;0.3980;-1.3663;
981.0000;0.3997;-1.3713;
981.3000;0.3980;-1.3788;
981.6000;0.3980;-1.3813;
981.9000;0.3980;-1.3813;
982.2000;0.3980;-1.3888;
982.5000;0.3980;-1.3838;
982.8000;0.3932;-1.3963;
983.1000;0.3980;-1.3838;
983.4000;0.3989;-1.3763;
983.7000;0.3972;-1.3713;
984.0000;0.3956;-1.3763;
984.3000;0.3964;-1.3763;
984.6000;0.3964;-1.3713;
984.9000;0.3972;-1.3614;
985.2000;0.3948;-1.3614;
985.5000;0.3980;-1.3589;
985.8000;0.3997;-1.3688;
986.1000;0.3948;-1.3763;
986.4000;0.3964;-1.3738;
986.7000;0.3883;-1.3938;
987.0000;0.3964;-1.3688;
987.3000;0.3972;-1.3738;
987.6000;0.3956;-1.3713;
987.9000;0.3956;-1.3763;
988.2000;0.3972;-1.3663;
988.5000;0.3964;-1.3639;
988.8000;0.3989;-1.3688;
989.1000;0.3956;-1.3738;
989.4000;0.3972;-1.3639;
989.7000;0.4029;-1.3564;
990.0000;0.3972;-1.3738;
990.3000;0.4005;-1.3763;
990.6000;0.4029;-1.3688;
990.9000;0.3997;-1.3738;
991.2000;0.3980;-1.3763;
991.5000;0.3989;-1.3713;
991.8000;0.3972;-1.3713;
992.1000;0.3997;-1.3589;
992.4000;0.3980;-1.3688;
992.7000;0.3964;-1.3688;
993.0000;0.3980;-1.3564;
993.3000;0.3972;-1.3564;
993.6000;0.3972;-1.3614;
993.9000;0.3989;-1.3564;
994.2000;0.3964;-1.3663;
994.5000;0.3989;-1.3539;
994.8000;0.3997;-1.3639;
995.1000;0.3964;-1.3763;
995.4000;0.3956;-1.3713;
995.7000;0.3980;-1.3738;
996.0000;0.3980;-1.3663;
996.3000;0.3972;-1.3614;
996.6000;0.3980;-1.3589;
996.9000;0.3932;-1.3614;
997.2000;0.3956;-1.3439;
997.5000;0.3948;-1.3464;
997.8000;0.3948;-1.3464;
998.1000;0.3940;-1.3589;
998.4000;0.3980;-1.3389;
998.7000;0.3972;-1.3289;
999.0000;0.3956;-1.3339;
999.3000;0.3964;-1.3439;
999.6000;0.3989;-1.3364;
999.9000;0.3980;-1.3339;
1000.2000;0.3980;-1.3364;
1000.5000;0.4029;-1.3240;
1000.8000;0.3948;-1.3389;
1001.1000;0.3964;-1.3414;
1001.4000;0.3964;-1.3464;
1001.7000;0.3964;-1.3414;
1002.0000;0.3980;-1.3364;
1002.3000;0.3964;-1.3389;
1002.6000;0.3972;-1.3414;
1002.9000;0.3989;-1.3364;
1003.2000;0.3964;-1.3464;
1003.5000;0.3964;-1.3514;
1003.8000;0.3956;-1.3514;
1004.1000;0.3964;-1.3489;
1004.4000;0.3980;-1.3539;
1004.7000;0.3989;-1.3514;
1005.0000;0.3972;-1.3539;
1005.3000;0.3980;-1.3614;
1005.6000;0.3972;-1.3663;
1005.9000;0.3964;-1.3589;
1006.2000;0.3964;-1.3489;
1006.5000;0.3964;-1.3539;
1006.8000;0.3948;-1.3639;
1007.1000;0.3980;-1.3589;
1007.4000;0.3972;-1.3688;
1007.7000;0.3997;-1.3539;
1008.0000;0.3964;-1.3589;
1008.3000;0.3940;-1.3589;
1008.6000;0.3948;-1.3564;
1008.9000;0.3956;-1.3639;
1009.2000;0.3972;-1.3639;
1009.5000;0.4021;-1.3489;
1009.8000;0.3972;-1.3539;
1010.1000;0.3964;-1.3564;
1010.4000;0.3940;-1.3639;
1010.7000;0.3964;-1.3489;
1011.0000;0.3956;-1.3564;
1011.3000;0.3980;-1.3564;
1011.6000;0.3948;-1.3688;
1011.9000;0.3956;-1.3614;
1012.2000;0.3948;-1.3663;
1012.5000;0.3899;-1.3838;
1012.8000;0.3972;-1.3639;
1013.1000;0.3932;-1.3713;
1013.4000;0.3989;-1.3614;
1013.7000;0.3972;-1.3639;
1014.0000;0.3980;-1.3639;
1014.3000;0.3964;-1.3663;
1014.6000;0.3997;-1.3589;
1014.9000;0.3964;-1.3688;
1015.2000;0.3972;-1.3589;
1015.5000;0.3997;-1.3539;
1015.8000;0.3948;-1.3688;
1016.1000;0.3948;-1.3713;
1016.4000;0.3956;-1.3713;
1016.7000;0.3948;-1.3713;
1017.0000;0.3883;-1.3863;
1017.3000;0.4013;-1.3539;
1017.6000;0.3940;-1.3738;
1017.9000;0.3940;-1.3763;
1018.2000;0.3932;-1.3763;
1018.5000;0.3948;-1.3738;
1018.8000;0.3948;-1.3763;
1019.1000;0.3948;-1.3738;
1019.4000;0.3923;-1.3763;
1019.7000;0.3964;-1.3663;
1020.0000;0.3972;-1.3614;
1020.3000;0.3972;-1.3539;
1020.6000;0.3972;-1.3564;
1020.9000;0.3964;-1.3589;
1021.2000;0.3989;-1.3489;
1021.5000;0.3964;-1.3539;
1021.8000;0.3956;-1.3539;
1022.1000;0.3948;-1.3663;
1022.4000;0.3972;-1.3639;
1022.7000;0.3956;-1.3713;
1023.0000;0.3972;-1.3614;
1023.3000;0.3956;-1.3564;
1023.6000;0.3948;-1.3688;
1023.9000;0.3972;-1.3688;
1024.2000;0.3972;-1.3614;
1024.5000;0.3964;-1.3639;
1024.8000;0.3980;-1.3564;
1025.1000;0.3972;-1.3539;
1025.4000;0.3980;-1.3514;
1025.7000;0.3989;-1.3564;
1026.0000;0.3964;-1.3614;
1026.3000;0.3964;-1.3614;
1026.6000;0.3964;-1.3589;
1026.9000;0.3956;-1.3589;
1027.2000;0.3940;-1.3614;
1027.5000;0.3980;-1.3614;
1027.8000;0.3867;-1.3988;
1028.1000;0.3964;-1.3663;
1028.4000;0.3940;-1.3713;
1028.7000;0.3964;-1.3738;
1029.0000;0.3980;-1.3639;
1029.3000;0.3964;-1.3589;
1029.6000;0.3948;-1.3564;
1029.9000;0.3956;-1.3539;
1030.2000;0.4005;-1.3364;
1030.5000;0.3980;-1.3364;
1030.8000;0.3972;-1.3339;
1031.1000;0.3980;-1.3364;
1031.4000;0.3956;-1.3389;
1031.7000;0.3956;-1.3389;
1032.0000;0.3948;-1.3514;
1032.3000;0.3940;-1.3539;
1032.6000;0.3964;-1.3539;
1032.9000;0.3948;-1.3539;
1033.2000;0.3989;-1.3589;
1033.5000;0.4005;-1.3614;
1033.8000;0.3948;-1.3713;
1034.1000;0.3956;-1.3713;
1034.4000;0.3989;-1.3663;
1034.7000;0.3948;-1.3663;
1035.0000;0.3858;-1.3813;
1035.3000;0.3964;-1.3489;
1035.6000;0.3940;-1.3639;
1035.9000;0.3956;-1.3614;
1036.2000;0.3956;-1.3514;
1036.5000;0.3980;-1.3514;
1036.8000;0.3964;-1.3489;
1037.1000;0.3980;-1.3489;
1037.4000;0.3964;-1.3539;
1037.7000;0.3956;-1.3514;
1038.0000;0.3956;-1.3489;
1038.3000;0.3956;-1.3564;
1038.6000;0.3899;-1.3738;
1038.9000;0.3932;-1.3738;
1039.2000;0.4013;-1.3414;
1039.5000;0.3948;-1.3614;
1039.8000;0.3964;-1.3564;
1040.1000;0.3980;-1.3439;
1040.4000;0.3956;-1.3514;
1040.7000;0.3964;-1.3489;
1041.0000;0.3964;-1.3539;
1041.3000;0.3964;-1.3564;
1041.6000;0.3956;-1.3688;
1041.9000;0.3956;-1.3738;
1042.2000;0.3956;-1.3788;
1042.5000;0.3956;-1.3763;
1042.8000;0.3948;-1.3738;
1043.1000;0.3940;-1.3688;
1043.4000;0.3948;-1.3564;
1043.7000;0.3940;-1.3589;
1044.0000;0.4054;-1.3265;
1044.3000;0.3956;-1.3589;
1044.6000;0.3964;-1.3639;
1044.9000;0.3948;-1.3663;
1045.2000;0.3948;-1.3738;
1045.5000;0.3972;-1.3688;
1045.8000;0.3956;-1.3639;
1046.1000;0.3956;-1.3663;
1046.4000;0.3964;-1.3639;
1046.7000;0.3956;-1.3663;
1047.0000;0.3964;-1.3639;
1047.3000;0.3948;-1.3688;
1047.6000;0.3940;-1.3713;
1047.9000;0.3948;-1.3639;
1048.2000;0.3948;-1.3663;
1048.5000;0.3948;-1.3614;
1048.8000;0.3964;-1.3589;
1049.1000;0.3956;-1.3663;
1049.4000;0.3948;-1.3639;
1049.7000;0.3964;-1.3589;
1050.0000;0.3948;-1.3564;
1050.3000;0.3956;-1.3614;
1050.6000;0.3964;-1.3614;
1050.9000;0.3964;-1.3514;
1051.2000;0.3948;-1.3539;
1051.5000;0.3956;-1.3614;
1051.8000;0.3956;-1.3614;
1052.1000;0.3948;-1.3614;
1052.4000;0.3956;-1.3663;
1052.7000;0.3989;-1.3589;
1053.0000;0.3956;-1.3713;
1053.3000;0.3972;-1.3713;
1053.6000;0.3956;-1.3738;
1053.9000;0.3964;-1.3639;
1054.2000;0.3940;-1.3663;
1054.5000;0.3972;-1.3639;
1054.8000;0.3972;-1.3564;
1055.1000;0.4005;-1.3514;
1055.4000;0.3956;-1.3639;
1055.7000;0.3948;-1.3614;
1056.0000;0.3956;-1.3564;
1056.3000;0.3964;-1.3663;
1056.6000;0.3956;-1.3663;
1056.9000;0.3980;-1.3564;
1057.2000;0.3980;-1.3464;
1057.5000;0.4013;-1.3314;
1057.8000;0.3980;-1.3364;
1058.1000;0.3940;-1.3539;
1058.4000;0.3989;-1.3589;
1058.7000;0.3956;-1.3663;
1059.0000;0.3956;-1.3639;
1059.3000;0.3948;-1.3663;
1059.6000;0.3948;-1.3639;
1059.9000;0.3964;-1.3564;
1060.2000;0.3948;-1.3639;
1060.5000;0.3956;-1.3564;
1060.8000;0.3972;-1.3539;
1061.1000;0.3964;-1.3539;
1061.4000;0.3964;-1.3464;
1061.7000;0.3964;-1.3389;
1062.0000;0.3989;-1.3339;
1062.3000;0.3989;-1.3339;
1062.6000;0.3956;-1.3339;
1062.9000;0.4005;-1.3240;
1063.2000;0.3972;-1.3314;
1063.5000;0.3956;-1.3389;
1063.8000;0.3940;-1.3389;
1064.1000;0.3948;-1.3289;
1064.4000;0.3964;-1.3215;
1064.7000;0.3964;-1.3140;
1065.0000;0.3972;-1.3115;
1065.3000;0.3948;-1.3289;
1065.6000;0.3932;-1.3389;
1065.9000;0.3956;-1.3414;
1066.2000;0.3932;-1.3464;
1066.5000;0.3923;-1.3589;
1066.8000;0.3956;-1.3639;
1067.1000;0.3956;-1.3713;
1067.4000;0.3932;-1.3738;
1067.7000;0.3964;-1.3663;
1068.0000;0.3899;-1.3788;
1068.3000;0.3932;-1.3738;
1068.6000;0.3940;-1.3688;
1068.9000;0.3940;-1.3639;
1069.2000;0.3956;-1.3589;
1069.5000;0.3940;-1.3564;
1069.8000;0.3956;-1.3539;
1070.1000;0.3964;-1.3514;
1070.4000;0.3875;-1.3738;
1070.7000;0.3956;-1.3514;
1071.0000;0.3964;-1.3464;
1071.3000;0.3964;-1.3414;
1071.6000;0.3964;-1.3514;
1071.9000;0.3948;-1.3514;
1072.2000;0.3956;-1.3539;
1072.5000;0.3989;-1.3514;
1072.8000;0.4013;-1.3389;
1073.1000;0.3956;-1.3464;
1073.4000;0.3948;-1.3439;
1073.7000;0.3980;-1.3339;
1074.0000;0.3956;-1.3514;
1074.3000;0.3948;-1.3639;
1074.6000;0.3948;-1.3614;
1074.9000;0.3932;-1.3688;
1075.2000;0.3948;-1.3564;
1075.5000;0.3956;-1.3489;
1075.8000;0.3948;-1.3389;
1076.1000;0.3956;-1.3414;
1076.4000;0.3956;-1.3489;
1076.7000;0.3883;-1.3713;
1077.0000;0.3948;-1.3639;
1077.3000;0.3948;-1.3663;
1077.6000;0.3956;-1.3539;
1077.9000;0.3972;-1.3489;
1078.2000;0.3948;-1.3539;
1078.5000;0.3940;-1.3539;
1078.8000;0.3956;-1.3514;
1079.1000;0.3964;-1.3414;
1079.4000;0.3899;-1.3539;
1079.7000;0.3940;-1.3364;
1080.0000;0.3964;-1.3314;
1080.3000;0.3956;-1.3364;
1080.6000;0.3956;-1.3389;
1080.9000;0.3948;-1.3364;
1081.2000;0.3956;-1.3389;
1081.5000;0.3972;-1.3414;
1081.8000;0.3972;-1.3489;
1082.1000;0.3956;-1.3514;
1082.4000;0.3948;-1.3439;
1082.7000;0.3989;-1.3364;
1083.0000;0.3964;-1.3489;
1083.3000;0.3956;-1.3489;
1083.6000;0.3915;-1.3614;
1083.9000;0.3932;-1.3564;
1084.2000;0.3948;-1.3489;
1084.5000;0.3980;-1.3489;
1084.8000;0.3948;-1.3389;
1085.1000;0.3940;-1.3539;
1085.4000;0.3940;-1.3514;
1085.7000;0.3932;-1.3639;
1086.0000;0.3940;-1.3514;
1086.3000;0.4005;-1.3389;
1086.6000;0.3956;-1.3514;
1086.9000;0.3907;-1.3589;
1087.2000;0.3956;-1.3439;
1087.5000;0.3964;-1.3539;
1087.8000;0.3956;-1.3539;
1088.1000;0.3964;-1.3564;
1088.4000;0.3980;-1.3514;
1088.7000;0.3956;-1.3589;
1089.0000;0.3875;-1.3788;
1089.3000;0.3956;-1.3514;
1089.6000;0.3980;-1.3414;
1089.9000;0.3810;-1.3763;
1090.2000;0.3940;-1.3339;
1090.5000;0.3964;-1.3265;
1090.8000;0.3940;-1.3339;
1091.1000;0.3923;-1.3289;
1091.4000;0.3948;-1.3215;
1091.7000;0.3956;-1.3165;
1092.0000;0.3964;-1.3090;
1092.3000;0.3972;-1.3140;
1092.6000;0.3940;-1.3265;
1092.9000;0.3980;-1.3190;
1093.2000;0.3956;-1.3115;
1093.5000;0.3858;-1.3414;
1093.8000;0.3923;-1.3339;
1094.1000;0.3964;-1.3240;
1094.4000;0.4029;-1.3065;
1094.7000;0.3932;-1.3339;
1095.0000;0.3948;-1.3364;
1095.3000;0.3948;-1.3414;
1095.6000;0.3956;-1.3339;
1095.9000;0.3972;-1.3240;
1096.2000;0.3956;-1.3289;
1096.5000;0.3948;-1.3215;
1096.8000;0.3980;-1.3240;
1097.1000;0.3940;-1.3339;
1097.4000;0.3948;-1.3389;
1097.7000;0.3956;-1.3489;
1098.0000;0.3956;-1.3439;
1098.3000;0.3956;-1.3439;
1098.6000;0.3948;-1.3514;
1098.9000;0.3940;-1.3464;
1099.2000;0.3956;-1.3464;
1099.5000;0.3923;-1.3489;
1099.8000;0.3972;-1.3489;
1100.1000;0.3956;-1.3539;
1100.4000;0.3956;-1.3489;
1100.7000;0.3956;-1.3464;
1101.0000;0.3964;-1.3364;
1101.3000;0.3948;-1.3489;
1101.6000;0.3964;-1.3389;
1101.9000;0.3972;-1.3389;
1102.2000;0.3940;-1.3564;
1102.5000;0.4029;-1.3289;
1102.8000;0.3948;-1.3364;
1103.1000;0.3948;-1.3339;
1103.4000;0.3956;-1.3389;
1103.7000;0.3989;-1.3339;
1104.0000;0.3940;-1.3439;
1104.3000;0.3940;-1.3489;
1104.6000;0.3956;-1.3464;
1104.9000;0.3948;-1.3514;
1105.2000;0.3989;-1.3464;
1105.5000;0.3964;-1.3514;
1105.8000;0.3956;-1.3514;
1106.1000;0.3972;-1.3414;
1106.4000;0.3948;-1.3539;
1106.7000;0.3940;-1.3614;
1107.0000;0.3907;-1.3713;
1107.3000;0.3956;-1.3614;
1107.6000;0.3948;-1.3713;
1107.9000;0.3932;-1.3688;
1108.2000;0.3956;-1.3639;
1108.5000;0.3956;-1.3663;
1108.8000;0.3948;-1.3489;
1109.1000;0.3980;-1.3414;
1109.4000;0.3956;-1.3439;
1109.7000;0.3956;-1.3414;
1110.0000;0.3932;-1.3439;
1110.3000;0.3956;-1.3464;
1110.6000;0.3948;-1.3439;
1110.9000;0.3948;-1.3439;
1111.2000;0.3948;-1.3489;
1111.5000;0.3948;-1.3439;
1111.8000;0.4029;-1.3240;
1112.1000;0.3956;-1.3414;
1112.4000;0.3940;-1.3414;
1112.7000;0.3899;-1.3539;
1113.0000;0.3956;-1.3414;
1113.3000;0.3964;-1.3439;
1113.6000;0.3915;-1.3539;
1113.9000;0.3948;-1.3514;
1114.2000;0.3948;-1.3564;
1114.5000;0.3956;-1.3564;
1114.8000;0.3940;-1.3688;
1115.1000;0.3956;-1.3663;
1115.4000;0.3948;-1.3688;
1115.7000;0.3932;-1.3738;
1116.0000;0.3948;-1.3539;
1116.3000;0.3964;-1.3539;
1116.6000;0.3948;-1.3564;
1116.9000;0.3932;-1.3564;
1117.2000;0.3948;-1.3564;
1117.5000;0.3948;-1.3464;
1117.8000;0.3972;-1.3364;
1118.1000;0.3956;-1.3439;
1118.4000;0.3948;-1.3439;
1118.7000;0.3948;-1.3414;
1119.0000;0.3948;-1.3514;
1119.3000;0.3940;-1.3489;
1119.6000;0.3964;-1.3464;
1119.9000;0.3956;-1.3489;
1120.2000;0.3948;-1.3639;
1120.5000;0.3964;-1.3663;
1120.8000;0.3932;-1.3738;
1121.1000;0.3948;-1.3713;
1121.4000;0.3948;-1.3738;
1121.7000;0.3940;-1.3713;
1122.0000;0.3940;-1.3763;
1122.3000;0.4005;-1.3514;
1122.6000;0.3940;-1.3564;
1122.9000;0.3956;-1.3489;
1123.2000;0.3932;-1.3539;
1123.5000;0.3964;-1.3489;
1123.8000;0.3948;-1.3539;
1124.1000;0.3932;-1.3539;
1124.4000;0.3964;-1.3489;
1124.7000;0.3940;-1.3489;
1125.0000;0.3956;-1.3439;
1125.3000;0.3883;-1.3688;
1125.6000;0.3940;-1.3614;
1125.9000;0.3948;-1.3614;
1126.2000;0.3923;-1.3564;
1126.5000;0.4013;-1.3265;
1126.8000;0.3940;-1.3663;
1127.1000;0.3932;-1.3639;
1127.4000;0.3956;-1.3564;
1127.7000;0.3956;-1.3589;
1128.0000;0.3956;-1.3564;
1128.3000;0.3948;-1.3663;
1128.6000;0.3923;-1.3763;
1128.9000;0.3907;-1.3788;
1129.2000;0.3980;-1.3614;
1129.5000;0.3932;-1.3738;
1129.8000;0.3964;-1.3763;
1130.1000;0.3932;-1.3838;
1130.4000;0.3932;-1.3763;
1130.7000;0.3907;-1.3938;
1131.0000;0.3923;-1.3788;
1131.3000;0.3956;-1.3639;
1131.6000;0.3956;-1.3614;
1131.9000;0.3948;-1.3663;
1132.2000;0.3956;-1.3663;
1132.5000;0.3932;-1.3639;
1132.8000;0.3932;-1.3713;
1133.1000;0.3980;-1.3539;
1133.4000;0.3956;-1.3564;
1133.7000;0.3940;-1.3539;
1134.0000;0.3948;-1.3539;
1134.3000;0.3907;-1.3663;
1134.6000;0.3948;-1.3539;
1134.9000;0.3891;-1.3688;
1135.2000;0.3948;-1.3589;
1135.5000;0.3932;-1.3614;
1135.8000;0.3948;-1.3589;
1136.1000;0.3956;-1.3514;
1136.4000;0.3948;-1.3589;
1136.7000;0.3940;-1.3539;
1137.0000;0.3948;-1.3539;
1137.3000;0.3932;-1.3539;
1137.6000;0.3923;-1.3539;
1137.9000;0.3932;-1.3589;
1138.2000;0.3948;-1.3564;
1138.5000;0.3948;-1.3688;
1138.8000;0.3956;-1.3663;
1139.1000;0.3964;-1.3639;
1139.4000;0.3932;-1.3688;
1139.7000;0.3940;-1.3713;
1140.0000;0.3948;-1.3663;
1140.3000;0.3948;-1.3589;
1140.6000;0.3948;-1.3614;
1140.9000;0.3940;-1.3564;
1141.2000;0.3932;-1.3663;
1141.5000;0.3956;-1.3688;
1141.8000;0.3948;-1.3614;
1142.1000;0.3932;-1.3663;
1142.4000;0.3964;-1.3738;
1142.7000;0.3948;-1.3639;
1143.0000;0.3956;-1.3688;
1143.3000;0.3948;-1.3663;
1143.6000;0.3964;-1.3688;
1143.9000;0.3948;-1.3713;
1144.2000;0.3940;-1.3738;
1144.5000;0.3948;-1.3738;
1144.8000;0.3940;-1.3713;
1145.1000;0.3932;-1.3738;
1145.4000;0.3964;-1.3663;
1145.7000;0.3940;-1.3688;
1146.0000;0.3948;-1.3663;
1146.3000;0.3956;-1.3564;
1146.6000;0.3964;-1.3564;
1146.9000;0.3940;-1.3514;
1147.2000;0.3923;-1.3539;
1147.5000;0.3932;-1.3614;
1147.8000;0.3940;-1.3539;
1148.1000;0.3923;-1.3564;
1148.4000;0.3923;-1.3489;
1148.7000;0.3915;-1.3514;
1149.0000;0.3948;-1.3439;
1149.3000;0.4005;-1.3314;
1149.6000;0.3940;-1.3564;
1149.9000;0.3923;-1.3639;
1150.2000;0.3907;-1.3713;
1150.5000;0.3932;-1.3663;
1150.8000;0.3940;-1.3639;
1151.1000;0.3940;-1.3589;
1151.4000;0.3883;-1.3763;
1151.7000;0.3915;-1.3713;
1152.0000;0.4021;-1.3414;
1152.3000;0.3923;-1.3688;
1152.6000;0.3932;-1.3688;
1152.9000;0.3956;-1.3688;
1153.2000;0.3980;-1.3589;
1153.5000;0.3948;-1.3614;
1153.8000;0.3940;-1.3614;
1154.1000;0.3940;-1.3589;
1154.4000;0.3940;-1.3539;
1154.7000;0.3956;-1.3489;
1155.0000;0.3956;-1.3514;
1155.3000;0.3956;-1.3489;
1155.6000;0.3972;-1.3539;
1155.9000;0.3940;-1.3713;
1156.2000;0.3948;-1.3614;
1156.5000;0.3940;-1.3713;
1156.8000;0.3948;-1.3639;
1157.1000;0.4021;-1.3339;
1157.4000;0.3940;-1.3439;
1157.7000;0.4013;-1.3289;
1158.0000;0.3948;-1.3514;
1158.3000;0.3948;-1.3464;
1158.6000;0.3956;-1.3364;
1158.9000;0.3940;-1.3364;
1159.2000;0.4037;-1.3165;
1159.5000;0.3956;-1.3389;
1159.8000;0.3940;-1.3514;
1160.1000;0.3932;-1.3514;
1160.4000;0.3956;-1.3389;
1160.7000;0.3932;-1.3389;
1161.0000;0.3923;-1.3389;
1161.3000;0.3915;-1.3489;
1161.6000;0.3956;-1.3439;
1161.9000;0.3948;-1.3414;
1162.2000;0.3948;-1.3464;
1162.5000;0.3948;-1.3439;
1162.8000;0.3932;-1.3489;
1163.1000;0.3940;-1.3414;
1163.4000;0.4013;-1.3339;
1163.7000;0.3940;-1.3589;
1164.0000;0.3915;-1.3614;
1164.3000;0.3932;-1.3564;
1164.6000;0.3940;-1.3564;
1164.9000;0.3932;-1.3539;
1165.2000;0.3948;-1.3639;
1165.5000;0.3948;-1.3713;
1165.8000;0.3923;-1.3738;
1166.1000;0.3940;-1.3663;
1166.4000;0.3932;-1.3688;
1166.7000;0.3932;-1.3713;
1167.0000;0.3980;-1.3514;
1167.3000;0.3964;-1.3539;
1167.6000;0.3932;-1.3589;
1167.9000;0.3956;-1.3539;
1168.2000;0.3940;-1.3589;
1168.5000;0.3956;-1.3589;
1168.8000;0.3964;-1.3589;
1169.1000;0.3956;-1.3539;
1169.4000;0.3948;-1.3589;
1169.7000;0.3964;-1.3589;
1170.0000;0.3948;-1.3663;
1170.3000;0.3932;-1.3614;
1170.6000;0.3948;-1.3539;
1170.9000;0.3956;-1.3564;
1171.2000;0.3923;-1.3738;
1171.5000;0.3948;-1.3663;
1171.8000;0.3948;-1.3663;
1172.1000;0.3932;-1.3763;
1172.4000;0.3940;-1.3688;
1172.7000;0.3915;-1.3763;
1173.0000;0.3834;-1.3988;
1173.3000;0.3948;-1.3688;
1173.6000;0.3964;-1.3688;
1173.9000;0.3940;-1.3663;
1174.2000;0.4021;-1.3414;
1174.5000;0.3923;-1.3713;
1174.8000;0.3948;-1.3539;
1175.1000;0.3948;-1.3464;
1175.4000;0.3899;-1.3663;
1175.7000;0.3948;-1.3539;
1176.0000;0.4013;-1.3464;
1176.3000;0.3883;-1.3763;
1176.6000;0.3956;-1.3564;
1176.9000;0.3923;-1.3639;
1177.2000;0.3997;-1.3464;
1177.5000;0.3948;-1.3639;
1177.8000;0.3923;-1.3738;
1178.1000;0.3940;-1.3688;
1178.4000;0.4005;-1.3539;
1178.7000;0.3932;-1.3663;
1179.0000;0.3932;-1.3663;
1179.3000;0.3964;-1.3663;
1179.6000;0.3956;-1.3589;
1179.9000;0.3972;-1.3614;
1180.2000;0.3907;-1.3813;
1180.5000;0.3932;-1.3788;
1180.8000;0.3948;-1.3788;
1181.1000;0.3964;-1.3738;
1181.4000;0.3948;-1.3788;
1181.7000;0.3989;-1.3713;
1182.0000;0.3948;-1.3788;
1182.3000;0.3932;-1.3788;
1182.6000;0.3915;-1.3788;
1182.9000;0.3915;-1.3738;
1183.2000;0.3923;-1.3813;
1183.5000;0.3915;-1.3863;
1183.8000;0.3956;-1.3788;
1184.1000;0.3875;-1.4037;
1184.4000;0.3948;-1.3863;
1184.7000;0.3801;-1.4137;
1185.0000;0.3940;-1.3738;
1185.3000;0.3948;-1.3763;
1185.6000;0.3923;-1.3963;
1185.9000;0.3940;-1.3913;
1186.2000;0.3940;-1.3888;
1186.5000;0.3980;-1.3738;
1186.8000;0.3940;-1.3788;
1187.1000;0.3923;-1.3838;
1187.4000;0.3956;-1.3788;
1187.7000;0.3932;-1.3888;
1188.0000;0.3932;-1.3888;
1188.3000;0.3940;-1.3863;
1188.6000;0.3948;-1.3788;
1188.9000;0.3940;-1.3813;
1189.2000;0.3948;-1.3788;
1189.5000;0.3948;-1.3838;
1189.8000;0.3956;-1.3888;
1190.1000;0.3972;-1.3863;
1190.4000;0.3948;-1.3963;
1190.7000;0.3948;-1.3913;
1191.0000;0.3964;-1.3988;
1191.3000;0.3956;-1.4037;
1191.6000;0.3923;-1.4013;
1191.9000;0.3956;-1.3963;
1192.2000;0.3915;-1.3988;
1192.5000;0.3956;-1.3838;
1192.8000;0.3948;-1.3763;
1193.1000;0.3948;-1.3713;
1193.4000;0.3940;-1.3788;
1193.7000;0.3948;-1.3763;
1194.0000;0.3956;-1.3738;
1194.3000;0.3932;-1.3813;
1194.6000;0.3899;-1.3838;
1194.9000;0.3940;-1.3738;
1195.2000;0.3956;-1.3639;
1195.5000;0.3932;-1.3713;
1195.8000;0.3948;-1.3639;
1196.1000;0.3948;-1.3564;
1196.4000;0.3940;-1.3589;
1196.7000;0.3948;-1.3539;
1197.0000;0.3932;-1.3539;
1197.3000;0.3932;-1.3663;
1197.6000;0.3915;-1.3813;
1197.9000;0.3932;-1.3738;
1198.2000;0.3932;-1.3738;
1198.5000;0.3940;-1.3713;
1198.8000;0.3956;-1.3614;
1199.1000;0.3940;-1.3639;
1199.4000;0.3964;-1.3614;
1199.7000;0.3932;-1.3663;
1200.0000;0.3932;-1.3688;
1200.3000;0.3948;-1.3589;
1200.6000;0.3972;-1.3589;
1200.9000;0.3940;-1.3713;
1201.2000;0.3948;-1.3663;
1201.5000;0.3923;-1.3589;
1201.8000;0.3940;-1.3589;
1202.1000;0.3932;-1.3539;
1202.4000;0.3964;-1.3614;
1202.7000;0.3932;-1.3639;
1203.0000;0.3989;-1.3464;
1203.3000;0.3883;-1.3738;
1203.6000;0.3948;-1.3614;
1203.9000;0.3940;-1.3539;
1204.2000;0.3956;-1.3589;
1204.5000;0.3940;-1.3663;
1204.8000;0.3940;-1.3763;
1205.1000;0.3964;-1.3663;
1205.4000;0.3980;-1.3663;
1205.7000;0.3948;-1.3713;
1206.0000;0.3940;-1.3713;
1206.3000;0.3956;-1.3589;
1206.6000;0.3923;-1.3614;
1206.9000;0.3948;-1.3564;
1207.2000;0.3940;-1.3564;
1207.5000;0.3842;-1.3738;
1207.8000;0.3940;-1.3639;
1208.1000;0.3948;-1.3589;
1208.4000;0.3989;-1.3464;
1208.7000;0.3923;-1.3539;
1209.0000;0.3956;-1.3464;
1209.3000;0.3940;-1.3464;
1209.6000;0.3907;-1.3539;
1209.9000;0.3956;-1.3489;
1210.2000;0.3932;-1.3589;
1210.5000;0.3932;-1.3614;
1210.8000;0.3940;-1.3589;
1211.1000;0.3940;-1.3639;
1211.4000;0.3956;-1.3639;
1211.7000;0.3972;-1.3688;
1212.0000;0.3956;-1.3713;
1212.3000;0.3940;-1.3763;
1212.6000;0.3940;-1.3713;
1212.9000;0.3964;-1.3589;
1213.2000;0.3948;-1.3564;
1213.5000;0.3948;-1.3514;
1213.8000;0.3940;-1.3439;
1214.1000;0.3956;-1.3489;
1214.4000;0.3948;-1.3389;
1214.7000;0.3948;-1.3389;
1215.0000;0.3932;-1.3514;
1215.3000;0.3964;-1.3389;
1215.6000;0.3940;-1.3464;
1215.9000;0.3940;-1.3564;
1216.2000;0.3948;-1.3539;
1216.5000;0.3956;-1.3539;
1216.8000;0.3923;-1.3663;
1217.1000;0.3940;-1.3639;
1217.4000;0.3932;-1.3713;
1217.7000;0.3948;-1.3713;
1218.0000;0.3956;-1.3614;
1218.3000;0.3948;-1.3489;
1218.6000;0.3948;-1.3439;
1218.9000;0.3956;-1.3464;
1219.2000;0.3940;-1.3514;
1219.5000;0.3940;-1.3489;
1219.8000;0.3948;-1.3564;
1220.1000;0.3948;-1.3539;
1220.4000;0.3915;-1.3663;
1220.7000;0.3940;-1.3713;
1221.0000;0.3891;-1.3763;
1221.3000;0.3940;-1.3614;
1221.6000;0.3964;-1.3564;
1221.9000;0.3956;-1.3663;
1222.2000;0.3948;-1.3738;
1222.5000;0.3940;-1.3763;
1222.8000;0.3956;-1.3738;
1223.1000;0.3948;-1.3688;
1223.4000;0.3907;-1.3813;
1223.7000;0.3940;-1.3788;
1224.0000;0.3989;-1.3589;
1224.3000;0.3940;-1.3763;
1224.6000;0.3932;-1.3863;
1224.9000;0.3932;-1.3763;
1225.2000;0.3867;-1.3813;
1225.5000;0.3915;-1.3614;
1225.8000;0.3948;-1.3539;
1226.1000;0.3972;-1.3514;
1226.4000;0.3948;-1.3589;
1226.7000;0.3972;-1.3514;
1227.0000;0.3980;-1.3564;
1227.3000;0.3980;-1.3539;
1227.6000;0.3932;-1.3639;
1227.9000;0.3940;-1.3639;
1228.2000;0.3948;-1.3589;
1228.5000;0.3956;-1.3589;
1228.8000;0.3948;-1.3614;
1229.1000;0.3940;-1.3713;
1229.4000;0.3948;-1.3614;
1229.7000;0.4005;-1.3314;
1230.0000;0.3940;-1.3464;
1230.3000;0.3923;-1.3514;
1230.6000;0.3932;-1.3539;
1230.9000;0.3956;-1.3589;
1231.2000;0.3948;-1.3589;
1231.5000;0.3923;-1.3738;
1231.8000;0.3923;-1.3713;
1232.1000;0.3948;-1.3688;
1232.4000;0.3972;-1.3514;
1232.7000;0.3932;-1.3589;
1233.0000;0.3923;-1.3564;
1233.3000;0.3932;-1.3639;
1233.6000;0.3932;-1.3738;
1233.9000;0.3948;-1.3713;
1234.2000;0.3956;-1.3763;
1234.5000;0.3948;-1.3788;
1234.8000;0.4037;-1.3589;
1235.1000;0.3940;-1.3788;
1235.4000;0.3940;-1.3663;
1235.7000;0.3948;-1.3688;
1236.0000;0.3964;-1.3564;
1236.3000;0.3940;-1.3713;
1236.6000;0.3948;-1.3713;
1236.9000;0.3956;-1.3688;
1237.2000;0.3956;-1.3639;
1237.5000;0.3964;-1.3589;
1237.8000;0.3940;-1.3564;
1238.1000;0.3940;-1.3489;
1238.4000;0.3923;-1.3489;
1238.7000;0.3940;-1.3539;
1239.0000;0.3964;-1.3464;
1239.3000;0.3940;-1.3564;
1239.6000;0.3932;-1.3564;
1239.9000;0.3915;-1.3589;
1240.2000;0.3940;-1.3539;
1240.5000;0.3940;-1.3539;
1240.8000;0.3948;-1.3589;
1241.1000;0.3964;-1.3564;
1241.4000;0.3972;-1.3539;
1241.7000;0.3932;-1.3589;
1242.0000;0.4013;-1.3389;
1242.3000;0.3956;-1.3439;
1242.6000;0.3948;-1.3439;
1242.9000;0.3989;-1.3389;
1243.2000;0.3891;-1.3639;
1243.5000;0.3907;-1.3489;
1243.8000;0.3948;-1.3464;
1244.1000;0.3923;-1.3414;
1244.4000;0.3883;-1.3539;
1244.7000;0.3940;-1.3464;
1245.0000;0.3948;-1.3614;
1245.3000;0.3932;-1.3564;
1245.6000;0.3923;-1.3639;
1245.9000;0.3940;-1.3614;
1246.2000;0.3940;-1.3589;
1246.5000;0.3948;-1.3564;
1246.8000;0.3940;-1.3614;
1247.1000;0.3940;-1.3639;
1247.4000;0.3948;-1.3589;
1247.7000;0.3964;-1.3539;
1248.0000;0.3948;-1.3589;
1248.3000;0.3932;-1.3564;
1248.6000;0.3940;-1.3539;
1248.9000;0.3940;-1.3614;
1249.2000;0.3940;-1.3564;
1249.5000;0.3940;-1.3464;
1249.8000;0.3940;-1.3439;
1250.1000;0.3948;-1.3389;
1250.4000;0.3932;-1.3439;
1250.7000;0.3948;-1.3439;
1251.0000;0.3932;-1.3489;
1251.3000;0.3940;-1.3539;
1251.6000;0.3948;-1.3539;
1251.9000;0.3940;-1.3614;
1252.2000;0.3948;-1.3614;
1252.5000;0.3964;-1.3514;
1252.8000;0.3932;-1.3564;
1253.1000;0.3948;-1.3663;
1253.4000;0.3956;-1.3663;
1253.7000;0.3923;-1.3639;
1254.0000;0.3940;-1.3639;
1254.3000;0.3932;-1.3639;
1254.6000;0.3923;-1.3589;
1254.9000;0.3932;-1.3514;
1255.2000;0.3940;-1.3514;
1255.5000;0.3940;-1.3639;
1255.8000;0.3932;-1.3738;
1256.1000;0.3940;-1.3738;
1256.4000;0.3964;-1.3564;
1256.7000;0.3956;-1.3564;
1257.0000;0.3923;-1.3564;
1257.3000;0.3932;-1.3663;
1257.6000;0.3997;-1.3539;
1257.9000;0.3956;-1.3514;
1258.2000;0.3940;-1.3639;
1258.5000;0.3932;-1.3614;
1258.8000;0.3932;-1.3564;
1259.1000;0.3923;-1.3614;
1259.4000;0.3940;-1.3489;
1259.7000;0.3940;-1.3514;
1260.0000;0.3923;-1.3589;
1260.3000;0.3964;-1.3514;
1260.6000;0.3932;-1.3589;
1260.9000;0.3907;-1.3738;
1261.2000;0.3923;-1.3713;
1261.5000;0.3956;-1.3589;
1261.8000;0.3932;-1.3639;
1262.1000;0.3940;-1.3639;
1262.4000;0.3948;-1.3589;
1262.7000;0.3964;-1.3464;
1263.0000;0.3997;-1.3314;
1263.3000;0.3932;-1.3539;
1263.6000;0.3932;-1.3639;
1263.9000;0.3972;-1.3489;
1264.2000;0.3980;-1.3464;
1264.5000;0.3948;-1.3614;
1264.8000;0.3891;-1.3763;
1265.1000;0.3948;-1.3564;
1265.4000;0.3956;-1.3489;
1265.7000;0.3972;-1.3464;
1266.0000;0.3964;-1.3614;
1266.3000;0.3964;-1.3614;
1266.6000;0.3948;-1.3564;
1266.9000;0.3891;-1.3639;
1267.2000;0.3948;-1.3414;
1267.5000;0.3932;-1.3464;
1267.8000;0.3972;-1.3489;
1268.1000;0.3964;-1.3539;
1268.4000;0.3867;-1.3688;
1268.7000;0.3940;-1.3489;
1269.0000;0.3948;-1.3464;
1269.3000;0.3899;-1.3564;
1269.6000;0.3940;-1.3539;
1269.9000;0.3923;-1.3539;
1270.2000;0.3923;-1.3564;
1270.5000;0.3923;-1.3614;
1270.8000;0.3940;-1.3589;
1271.1000;0.3932;-1.3663;
1271.4000;0.3923;-1.3589;
1271.7000;0.3948;-1.3614;
1272.0000;0.3932;-1.3738;
1272.3000;0.3932;-1.3813;
1272.6000;0.3972;-1.3713;
1272.9000;0.3940;-1.3713;
1273.2000;0.3948;-1.3639;
1273.5000;0.3940;-1.3589;
1273.8000;0.3940;-1.3589;
1274.1000;0.3923;-1.3663;
1274.4000;0.3948;-1.3589;
1274.7000;0.3932;-1.3614;
1275.0000;0.3932;-1.3663;
1275.3000;0.3875;-1.3863;
1275.6000;0.3932;-1.3888;
1275.9000;0.3948;-1.3763;
1276.2000;0.3997;-1.3663;
1276.5000;0.3948;-1.3763;
1276.8000;0.3940;-1.3713;
1277.1000;0.3948;-1.3813;
1277.4000;0.3940;-1.3863;
1277.7000;0.3923;-1.3988;
1278.0000;0.3948;-1.3913;
1278.3000;0.3932;-1.3963;
1278.6000;0.3948;-1.3863;
1278.9000;0.3932;-1.3863;
1279.2000;0.3956;-1.3763;
1279.5000;0.3956;-1.3738;
1279.8000;0.3940;-1.3713;
1280.1000;0.3923;-1.3738;
1280.4000;0.3915;-1.3713;
1280.7000;0.3932;-1.3663;
1281.0000;0.3940;-1.3663;
1281.3000;0.3956;-1.3738;
1281.6000;0.3948;-1.3788;
1281.9000;0.3956;-1.3713;
1282.2000;0.3948;-1.3564;
1282.5000;0.3940;-1.3464;
1282.8000;0.3948;-1.3514;
1283.1000;0.3956;-1.3539;
1283.4000;0.3948;-1.3589;
1283.7000;0.3948;-1.3464;
1284.0000;0.3932;-1.3489;
1284.3000;0.3932;-1.3514;
1284.6000;0.3932;-1.3539;
1284.9000;0.3940;-1.3614;
1285.2000;0.3940;-1.3663;
1285.5000;0.3940;-1.3688;
1285.8000;0.3948;-1.3688;
1286.1000;0.3907;-1.3788;
1286.4000;0.3948;-1.3688;
1286.7000;0.3932;-1.3713;
1287.0000;0.3932;-1.3738;
1287.3000;0.3932;-1.3763;
1287.6000;0.3940;-1.3738;
1287.9000;0.3940;-1.3763;
1288.2000;0.3956;-1.3688;
1288.5000;0.3940;-1.3738;
1288.8000;0.3948;-1.3688;
1289.1000;0.3932;-1.3713;
1289.4000;0.3940;-1.3639;
1289.7000;0.3923;-1.3763;
1290.0000;0.4013;-1.3464;
1290.3000;0.3972;-1.3464;
1290.6000;0.3932;-1.3514;
1290.9000;0.3932;-1.3564;
1291.2000;0.4037;-1.3389;
1291.5000;0.3940;-1.3738;
1291.8000;0.3956;-1.3688;
1292.1000;0.3948;-1.3713;
1292.4000;0.3948;-1.3639;
1292.7000;0.3956;-1.3589;
1293.0000;0.3940;-1.3688;
1293.3000;0.3972;-1.3614;
1293.6000;0.3940;-1.3688;
1293.9000;0.3948;-1.3663;
1294.2000;0.3915;-1.3763;
1294.5000;0.3940;-1.3639;
1294.8000;0.3956;-1.3663;
1295.1000;0.3948;-1.3738;
1295.4000;0.3948;-1.3688;
1295.7000;0.3948;-1.3738;
1296.0000;0.3948;-1.3763;
1296.3000;0.3932;-1.3913;
1296.6000;0.3923;-1.3888;
1296.9000;0.3972;-1.3738;
1297.2000;0.3948;-1.3763;
1297.5000;0.3956;-1.3639;
1297.8000;0.3956;-1.3614;
1298.1000;0.3956;-1.3614;
1298.4000;0.3956;-1.3688;
1298.7000;0.3915;-1.3738;
1299.0000;0.3948;-1.3539;
1299.3000;0.3964;-1.3539;
1299.6000;0.3948;-1.3539;
1299.9000;0.3932;-1.3564;
1300.2000;0.3932;-1.3564;
1300.5000;0.3956;-1.3464;
1300.8000;0.3834;-1.3663;
1301.1000;0.3923;-1.3564;
1301.4000;0.3923;-1.3589;
1301.7000;0.3940;-1.3589;
1302.0000;0.3923;-1.3688;
1302.3000;0.3932;-1.3663;
1302.6000;0.3883;-1.3688;
1302.9000;0.3948;-1.3539;
1303.2000;0.3915;-1.3639;
1303.5000;0.3883;-1.3813;
1303.8000;0.3891;-1.3688;
1304.1000;0.3940;-1.3639;
1304.4000;0.3923;-1.3738;
1304.7000;0.3932;-1.3788;
1305.0000;0.3948;-1.3838;
1305.3000;0.3932;-1.3788;
1305.6000;0.3899;-1.3763;
1305.9000;0.3948;-1.3688;
1306.2000;0.3940;-1.3688;
1306.5000;0.4005;-1.3539;
1306.8000;0.3940;-1.3813;
1307.1000;0.3956;-1.3838;
1307.4000;0.3948;-1.3863;
1307.7000;0.3923;-1.3938;
1308.0000;0.4013;-1.3663;
1308.3000;0.3932;-1.3813;
1308.6000;0.3940;-1.3838;
1308.9000;0.3964;-1.3838;
1309.2000;0.3956;-1.3813;
1309.5000;0.3932;-1.3888;
1309.8000;0.3891;-1.3938;
1310.1000;0.3956;-1.3688;
1310.4000;0.3948;-1.3663;
1310.7000;0.3891;-1.3763;
1311.0000;0.4013;-1.3364;
1311.3000;0.3948;-1.3688;
1311.6000;0.3948;-1.3688;
1311.9000;0.3948;-1.3614;
1312.2000;0.3923;-1.3663;
1312.5000;0.3932;-1.3713;
1312.8000;0.3826;-1.3988;
1313.1000;0.3923;-1.3688;
1313.4000;0.3923;-1.3738;
1313.7000;0.3956;-1.3663;
1314.0000;0.3956;-1.3713;
1314.3000;0.3940;-1.3763;
1314.6000;0.3964;-1.3813;
1314.9000;0.3940;-1.3863;
1315.2000;0.3964;-1.3738;
1315.5000;0.3948;-1.3713;
1315.8000;0.3932;-1.3788;
1316.1000;0.3956;-1.3663;
1316.4000;0.3915;-1.3738;
1316.7000;0.3932;-1.3788;
1317.0000;0.3940;-1.3738;
1317.3000;0.3923;-1.3738;
1317.6000;0.3923;-1.3713;
1317.9000;0.3932;-1.3763;
1318.2000;0.3932;-1.3813;
1318.5000;0.3956;-1.3738;
1318.8000;0.3948;-1.3788;
1319.1000;0.3948;-1.3863;
1319.4000;0.3932;-1.3888;
1319.7000;0.3940;-1.3838;
1320.0000;0.3940;-1.3863;
1320.3000;0.3956;-1.3788;
1320.6000;0.3956;-1.3763;
1320.9000;0.3948;-1.3813;
1321.2000;0.3923;-1.3888;
1321.5000;0.3964;-1.3738;
1321.8000;0.3923;-1.3888;
1322.1000;0.3932;-1.3763;
1322.4000;0.3923;-1.3788;
1322.7000;0.3948;-1.3688;
1323.0000;0.3948;-1.3614;
1323.3000;0.3940;-1.3589;
1323.6000;0.3940;-1.3539;
1323.9000;0.3940;-1.3564;
1324.2000;0.3956;-1.3614;
1324.5000;0.3948;-1.3713;
1324.8000;0.3932;-1.3663;
1325.1000;0.3940;-1.3614;
1325.4000;0.3948;-1.3713;
1325.7000;0.3948;-1.3738;
1326.0000;0.3940;-1.3763;
1326.3000;0.3932;-1.3788;
1326.6000;0.3932;-1.3788;
1326.9000;0.3940;-1.3838;
1327.2000;0.3940;-1.3813;
1327.5000;0.3915;-1.3863;
1327.8000;0.3948;-1.3738;
1328.1000;0.3980;-1.3614;
1328.4000;0.3891;-1.3763;
1328.7000;0.3972;-1.3564;
1329.0000;0.3964;-1.3564;
1329.3000;0.3948;-1.3564;
1329.6000;0.3932;-1.3564;
1329.9000;0.3948;-1.3489;
1330.2000;0.3956;-1.3514;
1330.5000;0.4062;-1.3289;
1330.8000;0.3940;-1.3539;
1331.1000;0.3964;-1.3414;
1331.4000;0.3956;-1.3464;
1331.7000;0.3964;-1.3464;
1332.0000;0.3891;-1.3688;
1332.3000;0.3980;-1.3464;
1332.6000;0.3948;-1.3439;
1332.9000;0.3956;-1.3514;
1333.2000;0.3932;-1.3564;
1333.5000;0.3964;-1.3514;
1333.8000;0.3964;-1.3564;
1334.1000;0.3948;-1.3589;
1334.4000;0.3940;-1.3589;
1334.7000;0.3940;-1.3514;
1335.0000;0.3956;-1.3439;
1335.3000;0.3948;-1.3514;
1335.6000;0.3940;-1.3539;
1335.9000;0.3956;-1.3489;
1336.2000;0.3932;-1.3539;
1336.5000;0.3980;-1.3339;
1336.8000;0.3867;-1.3614;
1337.1000;0.3915;-1.3589;
1337.4000;0.4021;-1.3339;
1337.7000;0.3940;-1.3514;
1338.0000;0.3972;-1.3414;
1338.3000;0.3932;-1.3514;
1338.6000;0.3956;-1.3489;
1338.9000;0.3956;-1.3564;
1339.2000;0.3940;-1.3589;
1339.5000;0.3915;-1.3713;
1339.8000;0.3899;-1.3888;
1340.1000;0.3899;-1.3838;
1340.4000;0.3940;-1.3738;
1340.7000;0.3964;-1.3663;
1341.0000;0.3956;-1.3713;
1341.3000;0.3932;-1.3788;
1341.6000;0.3923;-1.3688;
1341.9000;0.3948;-1.3639;
1342.2000;0.3940;-1.3688;
1342.5000;0.3972;-1.3663;
1342.8000;0.3989;-1.3663;
1343.1000;0.3956;-1.3738;
1343.4000;0.3923;-1.3713;
1343.7000;0.3956;-1.3688;
1344.0000;0.3923;-1.3688;
1344.3000;0.3923;-1.3713;
1344.6000;0.3899;-1.3713;
1344.9000;0.3940;-1.3688;
1345.2000;0.3940;-1.3639;
1345.5000;0.3940;-1.3564;
1345.8000;0.3940;-1.3614;
1346.1000;0.3940;-1.3589;
1346.4000;0.3932;-1.3688;
1346.7000;0.3940;-1.3663;
1347.0000;0.3948;-1.3788;
1347.3000;0.3940;-1.3688;
1347.6000;0.3907;-1.3763;
1347.9000;0.3932;-1.3713;
1348.2000;0.3980;-1.3614;
1348.5000;0.3956;-1.3663;
1348.8000;0.3940;-1.3713;
1349.1000;0.3940;-1.3788;
1349.4000;0.3940;-1.3763;
1349.7000;0.3956;-1.3763;
1350.0000;0.3956;-1.3788;
1350.3000;0.3923;-1.3888;
1350.6000;0.3923;-1.3863;
1350.9000;0.3940;-1.3813;
1351.2000;0.3948;-1.3738;
1351.5000;0.3907;-1.3863;
1351.8000;0.3932;-1.3763;
1352.1000;0.3891;-1.3838;
1352.4000;0.3948;-1.3713;
1352.7000;0.3956;-1.3713;
1353.0000;0.3980;-1.3713;
1353.3000;0.3964;-1.3788;
1353.6000;0.3875;-1.4013;
1353.9000;0.3948;-1.3813;
1354.2000;0.3915;-1.3788;
1354.5000;0.3948;-1.3713;
1354.8000;0.3972;-1.3564;
1355.1000;0.3956;-1.3564;
1355.4000;0.3932;-1.3713;
1355.7000;0.3948;-1.3763;
1356.0000;0.3956;-1.3788;
1356.3000;0.3948;-1.3888;
1356.6000;0.3948;-1.3938;
1356.9000;0.3948;-1.3863;
1357.2000;0.3940;-1.3838;
1357.5000;0.3899;-1.3888;
1357.8000;0.3972;-1.3688;
1358.1000;0.3891;-1.3813;
1358.4000;0.3964;-1.3614;
1358.7000;0.3956;-1.3614;
1359.0000;0.3907;-1.3738;
1359.3000;0.3956;-1.3639;
1359.6000;0.3948;-1.3663;
1359.9000;0.3915;-1.3713;
1360.2000;0.3940;-1.3663;
1360.5000;0.3980;-1.3589;
1360.8000;0.3923;-1.3713;
1361.1000;0.3932;-1.3788;
1361.4000;0.3940;-1.3738;
1361.7000;0.3948;-1.3788;
1362.0000;0.3932;-1.3888;
1362.3000;0.3948;-1.3913;
1362.6000;0.3923;-1.3988;
1362.9000;0.3948;-1.3913;
1363.2000;0.3867;-1.4087;
1363.5000;0.3940;-1.3813;
1363.8000;0.3972;-1.3788;
1364.1000;0.3923;-1.3788;
1364.4000;0.3948;-1.3813;
1364.7000;0.3956;-1.3863;
1365.0000;0.3932;-1.3963;
1365.3000;0.3997;-1.3763;
1365.6000;0.3948;-1.3913;
1365.9000;0.3940;-1.3963;
1366.2000;0.3948;-1.3988;
1366.5000;0.3940;-1.3963;
1366.8000;0.3956;-1.3938;
1367.1000;0.3923;-1.4013;
1367.4000;0.3923;-1.4087;
1367.7000;0.4013;-1.3863;
1368.0000;0.3956;-1.3963;
1368.3000;0.3956;-1.3988;
1368.6000;0.3932;-1.4062;
1368.9000;0.3964;-1.3938;
1369.2000;0.3948;-1.3988;
1369.5000;0.3932;-1.3913;
1369.8000;0.3940;-1.3788;
1370.1000;0.3948;-1.3763;
1370.4000;0.3932;-1.3688;
1370.7000;0.3972;-1.3614;
1371.0000;0.3956;-1.3688;
1371.3000;0.3956;-1.3663;
1371.6000;0.3948;-1.3639;
1371.9000;0.3948;-1.3589;
1372.2000;0.3948;-1.3539;
1372.5000;0.3956;-1.3589;
1372.8000;0.3923;-1.3688;
1373.1000;0.3891;-1.3813;
1373.4000;0.3932;-1.3763;
1373.7000;0.3932;-1.3838;
1374.0000;0.3907;-1.3813;
1374.3000;0.3964;-1.3788;
1374.6000;0.3948;-1.3813;
1374.9000;0.3940;-1.3813;
1375.2000;0.3972;-1.3813;
1375.5000;0.3923;-1.3863;
1375.8000;0.3956;-1.3713;
1376.1000;0.3964;-1.3713;
1376.4000;0.3980;-1.3763;
1376.7000;0.3972;-1.3813;
1377.0000;0.3972;-1.3738;
1377.3000;0.3948;-1.3763;
1377.6000;0.3972;-1.3713;
1377.9000;0.3948;-1.3663;
1378.2000;0.3948;-1.3589;
1378.5000;0.3940;-1.3614;
1378.8000;0.3915;-1.3713;
1379.1000;0.4013;-1.3489;
1379.4000;0.3956;-1.3713;
1379.7000;0.3940;-1.3813;
1380.0000;0.3948;-1.3763;
1380.3000;0.3956;-1.3713;
1380.6000;0.3964;-1.3713;
1380.9000;0.3964;-1.3713;
1381.2000;0.3964;-1.3713;
1381.5000;0.3867;-1.3938;
1381.8000;0.3964;-1.3738;
1382.1000;0.3948;-1.3788;
1382.4000;0.3923;-1.3863;
1382.7000;0.3964;-1.3688;
1383.0000;0.3948;-1.3639;
1383.3000;0.3940;-1.3763;
1383.6000;0.3932;-1.3738;
1383.9000;0.3948;-1.3688;
1384.2000;0.3972;-1.3738;
1384.5000;0.3915;-1.3888;
1384.8000;0.3907;-1.3963;
1385.1000;0.3932;-1.3913;
1385.4000;0.3964;-1.3813;
1385.7000;0.3915;-1.3888;
1386.0000;0.3948;-1.3788;
1386.3000;0.3948;-1.3863;
1386.6000;0.3972;-1.3788;
1386.9000;0.3948;-1.3763;
1387.2000;0.3875;-1.3963;
1387.5000;0.3948;-1.3863;
1387.8000;0.3948;-1.3913;
1388.1000;0.3956;-1.3963;
1388.4000;0.3940;-1.3913;
1388.7000;0.3932;-1.3938;
1389.0000;0.3956;-1.3913;
1389.3000;0.3964;-1.3863;
1389.6000;0.3948;-1.3913;
1389.9000;0.3948;-1.3788;
1390.2000;0.3940;-1.3738;
1390.5000;0.3956;-1.3688;
1390.8000;0.3997;-1.3639;
1391.1000;0.4046;-1.3439;
1391.4000;0.3923;-1.3663;
1391.7000;0.3940;-1.3614;
1392.0000;0.3972;-1.3639;
1392.3000;0.3972;-1.3663;
1392.6000;0.3980;-1.3738;
1392.9000;0.3964;-1.3763;
1393.2000;0.3883;-1.3988;
1393.5000;0.3956;-1.3788;
1393.8000;0.4029;-1.3589;
1394.1000;0.3972;-1.3688;
1394.4000;0.3964;-1.3688;
1394.7000;0.3964;-1.3738;
1395.0000;0.3972;-1.3688;
1395.3000;0.3956;-1.3713;
1395.6000;0.3932;-1.3738;
1395.9000;0.3956;-1.3688;
1396.2000;0.4054;-1.3414;
1396.5000;0.3932;-1.3713;
1396.8000;0.3940;-1.3763;
1397.1000;0.3948;-1.3763;
1397.4000;0.3940;-1.3738;
1397.7000;0.3956;-1.3738;
1398.0000;0.3940;-1.3788;
1398.3000;0.4005;-1.3713;
1398.6000;0.3972;-1.3788;
1398.9000;0.3948;-1.3788;
1399.2000;0.3923;-1.3838;
1399.5000;0.3899;-1.3963;
1399.8000;0.3940;-1.3788;
