time/ms;Fluo/V;P700 deltaI/I x10³;
-199.8000;0.3907;-1.1070;
-199.5000;0.3907;-1.1120;
-199.2000;0.3858;-1.1270;
-198.9000;0.3923;-1.1070;
-198.6000;0.3923;-1.1045;
-198.3000;0.3915;-1.1120;
-198.0000;0.3932;-1.1120;
-197.7000;0.3907;-1.1145;
-197.4000;0.3891;-1.1245;
-197.1000;0.3907;-1.1170;
-196.8000;0.3915;-1.1145;
-196.5000;0.3923;-1.1070;
-196.2000;0.3932;-1.1045;
-195.9000;0.3923;-1.1095;
-195.6000;0.3915;-1.1095;
-195.3000;0.3923;-1.1070;
-195.0000;0.3907;-1.1095;
-194.7000;0.3956;-1.0921;
-194.4000;0.3915;-1.0971;
-194.1000;0.3923;-1.0946;
-193.8000;0.3972;-1.0871;
-193.5000;0.3891;-1.1120;
-193.2000;0.3923;-1.1220;
-192.9000;0.3923;-1.1120;
-192.6000;0.3932;-1.1145;
-192.3000;0.3948;-1.1070;
-192.0000;0.3915;-1.1220;
-191.7000;0.3915;-1.1195;
-191.4000;0.3915;-1.1145;
-191.1000;0.3907;-1.1145;
-190.8000;0.3915;-1.1120;
-190.5000;0.3907;-1.1095;
-190.2000;0.3867;-1.1120;
-189.9000;0.3907;-1.0996;
-189.6000;0.3932;-1.0946;
-189.3000;0.3948;-1.0896;
-189.0000;0.3932;-1.0971;
-188.7000;0.3932;-1.0946;
-188.4000;0.3915;-1.0996;
-188.1000;0.3915;-1.1021;
-187.8000;0.3932;-1.0996;
-187.5000;0.3948;-1.0946;
-187.2000;0.3932;-1.1045;
-186.9000;0.3923;-1.1045;
-186.6000;0.3932;-1.0921;
-186.3000;0.3923;-1.0871;
-186.0000;0.3907;-1.0871;
-185.7000;0.3915;-1.0846;
-185.4000;0.3907;-1.0971;
-185.1000;0.3932;-1.0946;
-184.8000;0.3907;-1.0996;
-184.5000;0.3923;-1.0946;
-184.2000;0.3907;-1.0921;
-183.9000;0.3915;-1.0896;
-183.6000;0.3907;-1.0921;
-183.3000;0.3923;-1.0921;
-183.0000;0.3915;-1.0921;
-182.7000;0.3932;-1.0821;
-182.4000;0.3932;-1.0921;
-182.1000;0.3932;-1.0946;
-181.8000;0.3907;-1.1070;
-181.5000;0.3940;-1.0946;
-181.2000;0.3940;-1.0921;
-180.9000;0.3899;-1.0896;
-180.6000;0.3907;-1.0921;
-180.3000;0.3899;-1.0971;
-180.0000;0.3923;-1.0971;
-179.7000;0.3907;-1.1045;
-179.4000;0.3915;-1.0996;
-179.1000;0.3907;-1.0996;
-178.8000;0.3923;-1.0946;
-178.5000;0.3923;-1.1021;
-178.2000;0.3923;-1.1070;
-177.9000;0.3932;-1.1070;
-177.6000;0.3923;-1.1070;
-177.3000;0.3915;-1.0921;
-177.0000;0.3907;-1.0971;
-176.7000;0.3891;-1.1021;
-176.4000;0.3923;-1.0971;
-176.1000;0.3899;-1.1045;
-175.8000;0.4005;-1.0846;
-175.5000;0.3915;-1.1021;
-175.2000;0.3907;-1.1021;
-174.9000;0.3915;-1.0996;
-174.6000;0.3899;-1.1095;
-174.3000;0.3907;-1.1045;
-174.0000;0.3907;-1.0996;
-173.7000;0.3891;-1.1095;
-173.4000;0.3915;-1.1070;
-173.1000;0.3915;-1.1045;
-172.8000;0.3915;-1.1045;
-172.5000;0.3940;-1.0971;
-172.2000;0.3915;-1.1045;
-171.9000;0.3907;-1.1120;
-171.6000;0.3907;-1.1120;
-171.3000;0.3915;-1.1120;
-171.0000;0.3834;-1.1320;
-170.7000;0.3915;-1.1145;
-170.4000;0.3899;-1.1120;
-170.1000;0.3907;-1.1120;
-169.8000;0.3842;-1.1320;
-169.5000;0.3907;-1.1145;
-169.2000;0.3915;-1.1070;
-168.9000;0.3948;-1.0971;
-168.6000;0.3907;-1.1070;
-168.3000;0.3923;-1.0996;
-168.0000;0.3915;-1.0971;
-167.7000;0.3883;-1.1021;
-167.4000;0.3923;-1.0871;
-167.1000;0.3923;-1.0821;
-166.8000;0.3923;-1.0896;
-166.5000;0.3907;-1.0871;
-166.2000;0.3948;-1.0896;
-165.9000;0.3932;-1.0946;
-165.6000;0.3923;-1.0921;
-165.3000;0.3915;-1.0996;
-165.0000;0.3915;-1.1070;
-164.7000;0.3907;-1.1021;
-164.4000;0.3907;-1.1120;
-164.1000;0.3850;-1.1220;
-163.8000;0.3899;-1.1170;
-163.5000;0.3907;-1.1070;
-163.2000;0.3915;-1.1045;
-162.9000;0.3923;-1.1045;
-162.6000;0.3915;-1.1070;
-162.3000;0.3907;-1.1070;
-162.0000;0.3923;-1.1095;
-161.7000;0.3915;-1.1170;
-161.4000;0.3907;-1.1120;
-161.1000;0.3940;-1.1070;
-160.8000;0.3923;-1.1195;
-160.5000;0.3899;-1.1045;
-160.2000;0.3923;-1.1021;
-159.9000;0.3899;-1.0996;
-159.6000;0.3915;-1.0946;
-159.3000;0.3915;-1.0996;
-159.0000;0.3907;-1.0996;
-158.7000;0.3915;-1.0946;
-158.4000;0.3923;-1.0946;
-158.1000;0.3915;-1.0821;
-157.8000;0.3875;-1.0921;
-157.5000;0.3915;-1.0796;
-157.2000;0.3923;-1.0696;
-156.9000;0.3923;-1.0696;
-156.6000;0.3907;-1.0746;
-156.3000;0.3923;-1.0696;
-156.0000;0.3923;-1.0796;
-155.7000;0.3915;-1.0871;
-155.4000;0.3907;-1.0921;
-155.1000;0.3899;-1.0946;
-154.8000;0.3923;-1.0946;
-154.5000;0.3923;-1.0971;
-154.2000;0.3923;-1.1045;
-153.9000;0.3923;-1.1120;
-153.6000;0.3915;-1.1070;
-153.3000;0.3915;-1.1045;
-153.0000;0.3915;-1.1045;
-152.7000;0.3915;-1.1070;
-152.4000;0.3923;-1.1045;
-152.1000;0.3923;-1.1070;
-151.8000;0.3948;-1.1021;
-151.5000;0.3899;-1.1195;
-151.2000;0.3923;-1.1095;
-150.9000;0.3923;-1.1045;
-150.6000;0.3915;-1.1021;
-150.3000;0.3915;-1.1120;
-150.0000;0.3915;-1.1120;
-149.7000;0.3907;-1.1120;
-149.4000;0.3915;-1.1070;
-149.1000;0.3915;-1.1021;
-148.8000;0.3907;-1.0996;
-148.5000;0.3923;-1.1021;
-148.2000;0.3932;-1.0921;
-147.9000;0.3980;-1.0771;
-147.6000;0.3940;-1.0896;
-147.3000;0.3899;-1.0946;
-147.0000;0.3923;-1.0871;
-146.7000;0.3915;-1.0821;
-146.4000;0.3907;-1.0871;
-146.1000;0.3915;-1.0846;
-145.8000;0.3948;-1.0771;
-145.5000;0.3915;-1.0821;
-145.2000;0.3915;-1.0871;
-144.9000;0.3915;-1.0846;
-144.6000;0.3923;-1.0896;
-144.3000;0.3907;-1.0896;
-144.0000;0.3915;-1.0946;
-143.7000;0.3923;-1.0921;
-143.4000;0.3907;-1.0921;
-143.1000;0.3891;-1.0971;
-142.8000;0.3907;-1.0871;
-142.5000;0.3907;-1.0896;
-142.2000;0.3915;-1.0846;
-141.9000;0.3972;-1.0821;
-141.6000;0.3932;-1.0896;
-141.3000;0.3923;-1.0896;
-141.0000;0.3899;-1.0946;
-140.7000;0.3932;-1.0821;
-140.4000;0.3907;-1.0821;
-140.1000;0.3907;-1.0771;
-139.8000;0.3891;-1.0946;
-139.5000;0.3932;-1.0896;
-139.2000;0.3956;-1.0846;
-138.9000;0.3907;-1.0846;
-138.6000;0.3826;-1.1021;
-138.3000;0.3907;-1.0871;
-138.0000;0.3932;-1.0846;
-137.7000;0.3923;-1.0846;
-137.4000;0.3989;-1.0622;
-137.1000;0.3891;-1.0921;
-136.8000;0.3915;-1.0821;
-136.5000;0.3923;-1.0896;
-136.2000;0.3899;-1.0846;
-135.9000;0.3899;-1.0771;
-135.6000;0.3915;-1.0746;
-135.3000;0.3907;-1.0846;
-135.0000;0.3915;-1.0821;
-134.7000;0.3915;-1.0796;
-134.4000;0.3899;-1.0821;
-134.1000;0.3932;-1.0821;
-133.8000;0.3915;-1.0871;
-133.5000;0.3858;-1.1045;
-133.2000;0.3923;-1.0921;
-132.9000;0.3948;-1.0846;
-132.6000;0.3940;-1.0796;
-132.3000;0.3964;-1.0746;
-132.0000;0.3932;-1.0821;
-131.7000;0.3915;-1.0921;
-131.4000;0.3932;-1.0846;
-131.1000;0.3915;-1.0796;
-130.8000;0.3956;-1.0721;
-130.5000;0.4013;-1.0572;
-130.2000;0.3915;-1.0846;
-129.9000;0.3940;-1.0846;
-129.6000;0.3915;-1.0796;
-129.3000;0.3915;-1.0771;
-129.0000;0.3923;-1.0771;
-128.7000;0.3899;-1.0871;
-128.4000;0.3907;-1.0871;
-128.1000;0.3923;-1.0871;
-127.8000;0.3923;-1.0846;
-127.5000;0.3980;-1.0671;
-127.2000;0.3932;-1.0821;
-126.9000;0.3867;-1.0971;
-126.6000;0.3915;-1.0871;
-126.3000;0.3923;-1.0896;
-126.0000;0.3891;-1.0971;
-125.7000;0.3907;-1.0971;
-125.4000;0.3899;-1.0921;
-125.1000;0.3907;-1.0796;
-124.8000;0.3899;-1.0771;
-124.5000;0.3899;-1.0796;
-124.2000;0.3891;-1.0821;
-123.9000;0.3867;-1.0946;
-123.6000;0.3907;-1.0896;
-123.3000;0.3891;-1.0896;
-123.0000;0.3907;-1.0846;
-122.7000;0.3940;-1.0746;
-122.4000;0.3940;-1.0796;
-122.1000;0.3907;-1.0946;
-121.8000;0.3915;-1.0971;
-121.5000;0.3923;-1.0896;
-121.2000;0.3932;-1.0796;
-120.9000;0.3932;-1.0746;
-120.6000;0.3923;-1.0771;
-120.3000;0.3899;-1.0871;
-120.0000;0.3923;-1.0846;
-119.7000;0.3923;-1.0796;
-119.4000;0.3932;-1.0896;
-119.1000;0.3932;-1.0921;
-118.8000;0.3932;-1.0821;
-118.5000;0.3964;-1.0746;
-118.2000;0.3907;-1.0846;
-117.9000;0.3923;-1.0846;
-117.6000;0.3907;-1.0871;
-117.3000;0.3907;-1.0771;
-117.0000;0.3883;-1.0771;
-116.7000;0.3907;-1.0746;
-116.4000;0.3956;-1.0647;
-116.1000;0.3915;-1.0771;
-115.8000;0.3907;-1.0921;
-115.5000;0.3867;-1.0971;
-115.2000;0.3899;-1.0921;
-114.9000;0.3891;-1.0946;
-114.6000;0.3907;-1.0846;
-114.3000;0.3932;-1.0796;
-114.0000;0.3915;-1.0771;
-113.7000;0.3915;-1.0771;
-113.4000;0.3972;-1.0497;
-113.1000;0.3907;-1.0721;
-112.8000;0.3899;-1.0746;
-112.5000;0.3923;-1.0647;
-112.2000;0.3915;-1.0696;
-111.9000;0.3923;-1.0671;
-111.6000;0.3940;-1.0647;
-111.3000;0.3923;-1.0696;
-111.0000;0.3891;-1.0796;
-110.7000;0.3907;-1.0796;
-110.4000;0.3891;-1.0821;
-110.1000;0.3907;-1.0746;
-109.8000;0.3915;-1.0771;
-109.5000;0.3915;-1.0796;
-109.2000;0.3907;-1.0821;
-108.9000;0.3932;-1.0721;
-108.6000;0.3956;-1.0696;
-108.3000;0.3915;-1.0746;
-108.0000;0.3980;-1.0647;
-107.7000;0.3932;-1.0796;
-107.4000;0.3923;-1.0771;
-107.1000;0.3891;-1.0796;
-106.8000;0.3915;-1.0771;
-106.5000;0.3915;-1.0871;
-106.2000;0.3932;-1.0871;
-105.9000;0.3932;-1.0821;
-105.6000;0.3899;-1.0871;
-105.3000;0.3883;-1.0971;
-105.0000;0.3907;-1.0871;
-104.7000;0.3867;-1.1021;
-104.4000;0.3858;-1.0971;
-104.1000;0.3915;-1.0821;
-103.8000;0.3907;-1.0796;
-103.5000;0.3883;-1.0796;
-103.2000;0.3907;-1.0796;
-102.9000;0.3923;-1.0821;
-102.6000;0.3899;-1.0871;
-102.3000;0.3932;-1.0746;
-102.0000;0.3932;-1.0746;
-101.7000;0.3899;-1.0821;
-101.4000;0.3907;-1.0821;
-101.1000;0.3915;-1.0846;
-100.8000;0.3932;-1.0821;
-100.5000;0.3875;-1.0796;
-100.2000;0.3907;-1.0796;
-99.9000;0.3891;-1.0946;
-99.6000;0.3915;-1.0921;
-99.3000;0.3956;-1.0696;
-99.0000;0.3907;-1.0921;
-98.7000;0.3940;-1.0871;
-98.4000;0.3940;-1.0846;
-98.1000;0.3932;-1.0821;
-97.8000;0.3932;-1.0746;
-97.5000;0.3932;-1.0796;
-97.2000;0.3915;-1.0821;
-96.9000;0.3915;-1.0871;
-96.6000;0.3867;-1.1120;
-96.3000;0.3915;-1.0946;
-96.0000;0.3923;-1.0946;
-95.7000;0.3940;-1.0871;
-95.4000;0.3915;-1.1070;
-95.1000;0.3907;-1.1021;
-94.8000;0.3923;-1.0996;
-94.5000;0.3899;-1.1095;
-94.2000;0.3932;-1.1021;
-93.9000;0.3923;-1.0996;
-93.6000;0.3907;-1.1045;
-93.3000;0.3923;-1.1045;
-93.0000;0.3923;-1.0971;
-92.7000;0.3923;-1.0896;
-92.4000;0.3875;-1.1021;
-92.1000;0.3915;-1.0946;
-91.8000;0.3915;-1.1045;
-91.5000;0.3867;-1.1170;
-91.2000;0.3907;-1.1095;
-90.9000;0.3923;-1.1070;
-90.6000;0.3940;-1.1021;
-90.3000;0.3932;-1.0996;
-90.0000;0.3923;-1.0946;
-89.7000;0.3940;-1.0896;
-89.4000;0.3932;-1.0946;
-89.1000;0.3940;-1.0946;
-88.8000;0.3932;-1.0946;
-88.5000;0.3915;-1.0996;
-88.2000;0.3932;-1.0996;
-87.9000;0.3915;-1.1220;
-87.6000;0.3875;-1.1345;
-87.3000;0.3923;-1.1220;
-87.0000;0.3923;-1.1170;
-86.7000;0.3915;-1.1120;
-86.4000;0.3964;-1.0946;
-86.1000;0.3891;-1.1170;
-85.8000;0.3915;-1.1021;
-85.5000;0.3940;-1.0971;
-85.2000;0.3923;-1.1021;
-84.9000;0.3923;-1.0996;
-84.6000;0.3940;-1.1045;
-84.3000;0.3940;-1.0971;
-84.0000;0.3932;-1.0971;
-83.7000;0.3915;-1.0946;
-83.4000;0.3923;-1.0921;
-83.1000;0.3972;-1.0696;
-82.8000;0.3923;-1.0921;
-82.5000;0.3915;-1.0896;
-82.2000;0.3923;-1.0821;
-81.9000;0.3923;-1.0746;
-81.6000;0.3915;-1.0821;
-81.3000;0.3915;-1.0871;
-81.0000;0.3923;-1.0871;
-80.7000;0.3915;-1.0896;
-80.4000;0.3915;-1.0971;
-80.1000;0.3915;-1.0971;
-79.8000;0.3923;-1.0946;
-79.5000;0.3915;-1.0971;
-79.2000;0.3932;-1.0946;
-78.9000;0.3907;-1.0971;
-78.6000;0.3923;-1.0921;
-78.3000;0.3907;-1.0871;
-78.0000;0.3932;-1.0896;
-77.7000;0.3940;-1.0946;
-77.4000;0.3867;-1.1295;
-77.1000;0.3907;-1.1145;
-76.8000;0.3948;-1.0996;
-76.5000;0.3899;-1.1045;
-76.2000;0.3793;-1.1295;
-75.9000;0.3932;-1.0946;
-75.6000;0.3867;-1.1145;
-75.3000;0.3956;-1.0921;
-75.0000;0.3964;-1.0846;
-74.7000;0.3858;-1.1070;
-74.4000;0.3915;-1.0921;
-74.1000;0.3915;-1.0921;
-73.8000;0.3907;-1.1045;
-73.5000;0.3940;-1.0846;
-73.2000;0.3923;-1.0971;
-72.9000;0.3915;-1.0971;
-72.6000;0.3915;-1.0871;
-72.3000;0.3899;-1.0821;
-72.0000;0.3907;-1.0796;
-71.7000;0.3907;-1.0846;
-71.4000;0.3915;-1.0896;
-71.1000;0.3915;-1.0896;
-70.8000;0.3907;-1.0921;
-70.5000;0.3989;-1.0746;
-70.2000;0.3915;-1.0871;
-69.9000;0.3915;-1.0746;
-69.6000;0.3883;-1.0846;
-69.3000;0.3899;-1.0871;
-69.0000;0.3907;-1.0896;
-68.7000;0.3907;-1.0896;
-68.4000;0.3834;-1.1095;
-68.1000;0.3915;-1.0846;
-67.8000;0.3932;-1.0821;
-67.5000;0.3923;-1.0771;
-67.2000;0.3907;-1.0846;
-66.9000;0.3907;-1.0796;
-66.6000;0.3915;-1.0721;
-66.3000;0.3915;-1.0746;
-66.0000;0.3980;-1.0597;
-65.7000;0.3907;-1.0846;
-65.4000;0.3932;-1.0696;
-65.1000;0.3923;-1.0671;
-64.8000;0.3915;-1.0721;
-64.5000;0.3915;-1.0846;
-64.2000;0.3899;-1.0971;
-63.9000;0.3923;-1.0996;
-63.6000;0.3915;-1.0946;
-63.3000;0.3883;-1.0996;
-63.0000;0.3915;-1.0921;
-62.7000;0.3923;-1.0971;
-62.4000;0.3948;-1.0896;
-62.1000;0.3858;-1.0996;
-61.8000;0.3923;-1.0796;
-61.5000;0.3867;-1.0871;
-61.2000;0.3907;-1.0771;
-60.9000;0.3915;-1.0796;
-60.6000;0.3907;-1.0946;
-60.3000;0.3907;-1.0971;
-60.0000;0.3932;-1.0821;
-59.7000;0.3923;-1.0821;
-59.4000;0.3875;-1.0971;
-59.1000;0.3932;-1.0721;
-58.8000;0.3883;-1.0796;
-58.5000;0.3923;-1.0721;
-58.2000;0.3948;-1.0746;
-57.9000;0.3915;-1.0896;
-57.6000;0.3899;-1.0971;
-57.3000;0.3948;-1.0871;
-57.0000;0.3899;-1.0921;
-56.7000;0.3899;-1.0921;
-56.4000;0.3883;-1.0946;
-56.1000;0.3858;-1.0996;
-55.8000;0.3923;-1.0771;
-55.5000;0.3907;-1.0771;
-55.2000;0.3923;-1.0771;
-54.9000;0.3972;-1.0647;
-54.6000;0.3915;-1.0771;
-54.3000;0.3915;-1.0821;
-54.0000;0.3932;-1.0821;
-53.7000;0.3923;-1.0771;
-53.4000;0.3980;-1.0572;
-53.1000;0.3915;-1.0696;
-52.8000;0.3932;-1.0647;
-52.5000;0.3883;-1.0846;
-52.2000;0.3907;-1.0846;
-51.9000;0.3907;-1.0896;
-51.6000;0.3923;-1.0921;
-51.3000;0.3948;-1.0846;
-51.0000;0.3915;-1.0971;
-50.7000;0.3915;-1.0996;
-50.4000;0.3915;-1.1045;
-50.1000;0.3915;-1.1070;
-49.8000;0.3923;-1.1120;
-49.5000;0.3956;-1.0996;
-49.2000;0.3907;-1.1070;
-48.9000;0.3915;-1.1021;
-48.6000;0.4005;-1.0821;
-48.3000;0.3932;-1.1045;
-48.0000;0.3932;-1.0996;
-47.7000;0.3923;-1.1070;
-47.4000;0.3891;-1.1070;
-47.1000;0.3932;-1.0996;
-46.8000;0.3891;-1.1095;
-46.5000;0.3907;-1.1045;
-46.2000;0.3940;-1.1021;
-45.9000;0.3940;-1.1095;
-45.6000;0.3923;-1.1145;
-45.3000;0.3907;-1.1095;
-45.0000;0.3891;-1.1095;
-44.7000;0.3932;-1.0846;
-44.4000;0.3932;-1.0821;
-44.1000;0.3891;-1.0921;
-43.8000;0.3915;-1.0821;
-43.5000;0.3989;-1.0622;
-43.2000;0.3932;-1.0721;
-42.9000;0.3867;-1.0896;
-42.6000;0.3891;-1.0871;
-42.3000;0.3923;-1.0846;
-42.0000;0.3915;-1.0871;
-41.7000;0.3915;-1.0896;
-41.4000;0.3915;-1.0896;
-41.1000;0.4005;-1.0647;
-40.8000;0.3932;-1.0796;
-40.5000;0.3915;-1.0946;
-40.2000;0.3907;-1.0971;
-39.9000;0.3907;-1.1021;
-39.6000;0.3923;-1.0946;
-39.3000;0.3923;-1.0871;
-39.0000;0.3907;-1.0896;
-38.7000;0.3915;-1.0821;
-38.4000;0.3915;-1.0696;
-38.1000;0.3875;-1.0771;
-37.8000;0.3923;-1.0721;
-37.5000;0.3923;-1.0671;
-37.2000;0.3940;-1.0647;
-36.9000;0.3915;-1.0746;
-36.6000;0.3915;-1.0696;
-36.3000;0.3810;-1.1021;
-36.0000;0.3923;-1.0771;
-35.7000;0.3826;-1.1145;
-35.4000;0.3940;-1.0746;
-35.1000;0.3907;-1.0771;
-34.8000;0.3899;-1.0746;
-34.5000;0.3940;-1.0671;
-34.2000;0.3923;-1.0671;
-33.9000;0.3915;-1.0771;
-33.6000;0.3932;-1.0746;
-33.3000;0.3923;-1.0846;
-33.0000;0.3915;-1.0971;
-32.7000;0.3883;-1.1070;
-32.4000;0.3915;-1.0996;
-32.1000;0.3940;-1.0996;
-31.8000;0.3932;-1.0971;
-31.5000;0.3923;-1.0921;
-31.2000;0.3940;-1.0871;
-30.9000;0.3915;-1.0971;
-30.6000;0.3907;-1.0896;
-30.3000;0.3923;-1.0796;
-30.0000;0.3915;-1.0846;
-29.7000;0.3915;-1.0921;
-29.4000;0.3907;-1.0946;
-29.1000;0.3923;-1.0946;
-28.8000;0.3932;-1.0846;
-28.5000;0.3923;-1.0871;
-28.2000;0.3923;-1.0921;
-27.9000;0.3915;-1.0921;
-27.6000;0.3907;-1.0971;
-27.3000;0.3907;-1.0971;
-27.0000;0.3891;-1.0996;
-26.7000;0.3980;-1.0846;
-26.4000;0.3923;-1.0996;
-26.1000;0.3923;-1.0946;
-25.8000;0.4005;-1.0647;
-25.5000;0.3932;-1.0896;
-25.2000;0.3915;-1.0871;
-24.9000;0.3907;-1.0921;
-24.6000;0.3907;-1.0896;
-24.3000;0.3923;-1.0821;
-24.0000;0.3907;-1.0871;
-23.7000;0.3899;-1.0796;
-23.4000;0.3923;-1.0796;
-23.1000;0.3907;-1.0696;
-22.8000;0.3915;-1.0622;
-22.5000;0.3899;-1.0622;
-22.2000;0.3915;-1.0696;
-21.9000;0.3923;-1.0746;
-21.6000;0.3923;-1.0746;
-21.3000;0.3907;-1.0896;
-21.0000;0.3923;-1.0946;
-20.7000;0.3883;-1.1045;
-20.4000;0.3907;-1.0946;
-20.1000;0.3891;-1.0946;
-19.8000;0.3883;-1.1021;
-19.5000;0.3956;-1.0946;
-19.2000;0.3899;-1.1070;
-18.9000;0.3907;-1.1045;
-18.6000;0.3891;-1.1070;
-18.3000;0.3923;-1.0896;
-18.0000;0.3923;-1.0871;
-17.7000;0.3923;-1.0846;
-17.4000;0.3940;-1.0746;
-17.1000;0.3915;-1.0871;
-16.8000;0.3899;-1.0896;
-16.5000;0.3923;-1.0821;
-16.2000;0.3891;-1.0796;
-15.9000;0.3989;-1.0647;
-15.6000;0.3923;-1.0796;
-15.3000;0.3899;-1.0821;
-15.0000;0.3915;-1.0796;
-14.7000;0.3891;-1.0771;
-14.4000;0.3915;-1.0771;
-14.1000;0.3972;-1.0647;
-13.8000;0.3915;-1.0796;
-13.5000;0.3907;-1.0846;
-13.2000;0.3923;-1.0821;
-12.9000;0.3923;-1.0846;
-12.6000;0.3915;-1.0996;
-12.3000;0.3923;-1.0971;
-12.0000;0.3923;-1.0971;
-11.7000;0.3923;-1.0846;
-11.4000;0.3867;-1.0996;
-11.1000;0.3915;-1.0896;
-10.8000;0.3907;-1.0921;
-10.5000;0.3923;-1.0921;
-10.2000;0.3923;-1.0896;
-9.9000;0.3907;-1.0871;
-9.6000;0.3907;-1.0796;
-9.3000;0.3899;-1.0746;
-9.0000;0.3915;-1.0746;
-8.7000;0.3899;-1.0796;
-8.4000;0.3907;-1.0696;
-8.1000;0.3899;-1.0771;
-7.8000;0.3915;-1.0721;
-7.5000;0.3915;-1.0647;
-7.2000;0.3883;-1.0721;
-6.9000;0.3899;-1.0696;
-6.6000;0.3932;-1.0622;
-6.3000;0.3923;-1.0746;
-6.0000;0.3997;-1.0572;
-5.7000;0.3891;-1.0896;
-5.4000;0.3923;-1.0846;
-5.1000;0.3923;-1.0846;
-4.8000;0.3891;-1.0896;
-4.5000;0.3932;-1.0796;
-4.2000;0.3907;-1.0921;
-3.9000;0.3948;-1.0896;
-3.6000;0.3915;-1.0871;
-3.3000;0.3907;-1.0846;
-3.0000;0.3923;-1.0771;
-2.7000;0.3826;-1.0996;
-2.4000;0.3948;-1.0746;
-2.1000;0.3932;-1.0771;
-1.8000;0.3923;-1.0771;
-1.5000;0.3940;-1.0696;
-1.2000;0.3923;-1.0696;
-0.9000;0.3923;-1.0696;
-0.6000;0.3915;-1.0796;
-0.3000;0.3932;-1.0771;
0.0000;0.3932;-1.0771;
0.3000;0.4127;-1.0671;
0.6000;0.4607;-0.9998;
0.9000;0.4949;-0.9425;
1.2000;0.5258;-0.8801;
1.5000;0.5495;-0.8278;
1.8000;0.5682;-0.7804;
2.1000;0.5820;-0.7405;
2.4000;0.5910;-0.7181;
2.7000;0.6024;-0.6907;
3.0000;0.6121;-0.6732;
3.3000;0.6162;-0.6707;
3.6000;0.6195;-0.6557;
3.9000;0.6243;-0.6408;
4.2000;0.6309;-0.6358;
4.5000;0.6325;-0.6308;
4.8000;0.6382;-0.6183;
5.1000;0.6398;-0.6109;
5.4000;0.6422;-0.6084;
5.7000;0.6455;-0.6009;
6.0000;0.6479;-0.6009;
6.3000;0.6504;-0.6009;
6.6000;0.6520;-0.5984;
6.9000;0.6545;-0.5859;
7.2000;0.6610;-0.5834;
7.5000;0.6602;-0.5909;
7.8000;0.6618;-0.5959;
8.1000;0.6691;-0.5859;
8.4000;0.6634;-0.6059;
8.7000;0.6650;-0.6084;
9.0000;0.6675;-0.6034;
9.3000;0.6707;-0.5959;
9.6000;0.6707;-0.5934;
9.9000;0.6707;-0.5909;
10.2000;0.6724;-0.5809;
10.5000;0.6772;-0.5685;
10.8000;0.6789;-0.5685;
11.1000;0.6772;-0.5685;
11.4000;0.6813;-0.5660;
11.7000;0.6829;-0.5660;
12.0000;0.6870;-0.5635;
12.3000;0.6846;-0.5710;
12.6000;0.6846;-0.5834;
12.9000;0.6935;-0.5685;
13.2000;0.6943;-0.5710;
13.5000;0.6911;-0.5909;
13.8000;0.6943;-0.5909;
14.1000;0.7009;-0.5785;
14.4000;0.6952;-0.5859;
14.7000;0.6984;-0.5859;
15.0000;0.7057;-0.5735;
15.3000;0.7000;-0.5834;
15.6000;0.7025;-0.5859;
15.9000;0.7017;-0.5909;
16.2000;0.7025;-0.5984;
16.5000;0.7049;-0.5884;
16.8000;0.7057;-0.5809;
17.1000;0.7074;-0.5710;
17.4000;0.7066;-0.5710;
17.7000;0.7082;-0.5710;
18.0000;0.7098;-0.5760;
18.3000;0.7123;-0.5785;
18.6000;0.7131;-0.5809;
18.9000;0.7131;-0.5909;
19.2000;0.7196;-0.5760;
19.5000;0.7155;-0.5785;
19.8000;0.7179;-0.5884;
20.1000;0.7171;-0.5859;
20.4000;0.7179;-0.5785;
20.7000;0.7106;-0.5934;
21.0000;0.7188;-0.5809;
21.3000;0.7188;-0.5909;
21.6000;0.7204;-0.6009;
21.9000;0.7228;-0.5984;
22.2000;0.7253;-0.5909;
22.5000;0.7302;-0.5834;
22.8000;0.7261;-0.5984;
23.1000;0.7285;-0.5909;
23.4000;0.7302;-0.5809;
23.7000;0.7285;-0.5884;
24.0000;0.7302;-0.5834;
24.3000;0.7310;-0.5834;
24.6000;0.7302;-0.5909;
24.9000;0.7302;-0.5984;
25.2000;0.7310;-0.6059;
25.5000;0.7318;-0.6059;
25.8000;0.7334;-0.6159;
26.1000;0.7326;-0.6183;
26.4000;0.7310;-0.6233;
26.7000;0.7350;-0.6159;
27.0000;0.7367;-0.6159;
27.3000;0.7375;-0.6159;
27.6000;0.7375;-0.6134;
27.9000;0.7383;-0.6109;
28.2000;0.7391;-0.6134;
28.5000;0.7407;-0.5959;
28.8000;0.7416;-0.5959;
29.1000;0.7399;-0.6034;
29.4000;0.7416;-0.5984;
29.7000;0.7416;-0.5859;
30.0000;0.7350;-0.6109;
30.3000;0.7432;-0.5884;
30.6000;0.7448;-0.5909;
30.9000;0.7440;-0.5934;
31.2000;0.7440;-0.5984;
31.5000;0.7473;-0.5934;
31.8000;0.7440;-0.6059;
32.1000;0.7448;-0.6109;
32.4000;0.7464;-0.6084;
32.7000;0.7481;-0.6009;
33.0000;0.7473;-0.6034;
33.3000;0.7448;-0.6134;
33.6000;0.7481;-0.5984;
33.9000;0.7546;-0.5859;
34.2000;0.7497;-0.6009;
34.5000;0.7505;-0.6034;
34.8000;0.7473;-0.6109;
35.1000;0.7473;-0.6134;
35.4000;0.7489;-0.6109;
35.7000;0.7505;-0.5934;
36.0000;0.7513;-0.5959;
36.3000;0.7627;-0.5785;
36.6000;0.7611;-0.5959;
36.9000;0.7530;-0.6283;
37.2000;0.7603;-0.6208;
37.5000;0.7530;-0.6258;
37.8000;0.7489;-0.6308;
38.1000;0.7407;-0.6533;
38.4000;0.7562;-0.6159;
38.7000;0.7497;-0.6358;
39.0000;0.7554;-0.6233;
39.3000;0.7554;-0.6208;
39.6000;0.7538;-0.6258;
39.9000;0.7530;-0.6233;
40.2000;0.7554;-0.6208;
40.5000;0.7546;-0.6208;
40.8000;0.7603;-0.6109;
41.1000;0.7562;-0.6159;
41.4000;0.7546;-0.6208;
41.7000;0.7578;-0.6159;
42.0000;0.7586;-0.6208;
42.3000;0.7595;-0.6283;
42.6000;0.7619;-0.6233;
42.9000;0.7603;-0.6233;
43.2000;0.7611;-0.6183;
43.5000;0.7627;-0.6059;
43.8000;0.7595;-0.6084;
44.1000;0.7619;-0.6109;
44.4000;0.7611;-0.6159;
44.7000;0.7595;-0.6258;
45.0000;0.7619;-0.6208;
45.3000;0.7586;-0.6208;
45.6000;0.7627;-0.6208;
45.9000;0.7595;-0.6333;
46.2000;0.7611;-0.6233;
46.5000;0.7627;-0.6233;
46.8000;0.7603;-0.6208;
47.1000;0.7611;-0.6159;
47.4000;0.7603;-0.6183;
47.7000;0.7643;-0.6034;
48.0000;0.7611;-0.6084;
48.3000;0.7652;-0.6084;
48.6000;0.7676;-0.6034;
48.9000;0.7660;-0.6134;
49.2000;0.7652;-0.6183;
49.5000;0.7652;-0.6233;
49.8000;0.7652;-0.6233;
50.1000;0.7660;-0.6233;
50.4000;0.7668;-0.6333;
50.7000;0.7692;-0.6383;
51.0000;0.7676;-0.6458;
51.3000;0.7684;-0.6408;
51.6000;0.7660;-0.6483;
51.9000;0.7643;-0.6533;
52.2000;0.7684;-0.6433;
52.5000;0.7652;-0.6408;
52.8000;0.7684;-0.6458;
53.1000;0.7692;-0.6607;
53.4000;0.7709;-0.6533;
53.7000;0.7692;-0.6582;
54.0000;0.7709;-0.6408;
54.3000;0.7692;-0.6383;
54.6000;0.7749;-0.6308;
54.9000;0.7692;-0.6483;
55.2000;0.7709;-0.6458;
55.5000;0.7717;-0.6508;
55.8000;0.7725;-0.6508;
56.1000;0.7725;-0.6557;
56.4000;0.7733;-0.6557;
56.7000;0.7831;-0.6283;
57.0000;0.7733;-0.6483;
57.3000;0.7733;-0.6408;
57.6000;0.7733;-0.6458;
57.9000;0.7749;-0.6433;
58.2000;0.7717;-0.6433;
58.5000;0.7725;-0.6408;
58.8000;0.7774;-0.6358;
59.1000;0.7717;-0.6408;
59.4000;0.7741;-0.6358;
59.7000;0.7774;-0.6233;
60.0000;0.7774;-0.6358;
60.3000;0.7725;-0.6433;
60.6000;0.7766;-0.6333;
60.9000;0.7766;-0.6408;
61.2000;0.7733;-0.6533;
61.5000;0.7749;-0.6508;
61.8000;0.7806;-0.6533;
62.1000;0.7766;-0.6757;
62.4000;0.7782;-0.6757;
62.7000;0.7798;-0.6707;
63.0000;0.7790;-0.6657;
63.3000;0.7774;-0.6732;
63.6000;0.7725;-0.6832;
63.9000;0.7774;-0.6782;
64.2000;0.7782;-0.6807;
64.5000;0.7717;-0.7006;
64.8000;0.7782;-0.6907;
65.1000;0.7814;-0.6857;
65.4000;0.7814;-0.6931;
65.7000;0.7831;-0.6956;
66.0000;0.7798;-0.6907;
66.3000;0.7847;-0.6732;
66.6000;0.7839;-0.6732;
66.9000;0.7823;-0.6757;
67.2000;0.7937;-0.6408;
67.5000;0.7806;-0.6782;
67.8000;0.7823;-0.6832;
68.1000;0.7823;-0.6882;
68.4000;0.7831;-0.6907;
68.7000;0.7839;-0.6931;
69.0000;0.7823;-0.6931;
69.3000;0.7823;-0.6857;
69.6000;0.7847;-0.6807;
69.9000;0.7847;-0.6857;
70.2000;0.7863;-0.6832;
70.5000;0.7855;-0.6882;
70.8000;0.7855;-0.6857;
71.1000;0.7855;-0.6832;
71.4000;0.7855;-0.6807;
71.7000;0.7888;-0.6807;
72.0000;0.7871;-0.6832;
72.3000;0.7855;-0.6832;
72.6000;0.7888;-0.6807;
72.9000;0.7880;-0.6807;
73.2000;0.7880;-0.6732;
73.5000;0.7880;-0.6757;
73.8000;0.7896;-0.6732;
74.1000;0.7888;-0.6807;
74.4000;0.7888;-0.6857;
74.7000;0.7904;-0.6882;
75.0000;0.7871;-0.6981;
75.3000;0.7896;-0.6882;
75.6000;0.7896;-0.6857;
75.9000;0.7912;-0.6857;
76.2000;0.7904;-0.6782;
76.5000;0.7904;-0.6757;
76.8000;0.7888;-0.6857;
77.1000;0.7904;-0.6857;
77.4000;0.7912;-0.6807;
77.7000;0.7912;-0.6956;
78.0000;0.7920;-0.6782;
78.3000;0.7920;-0.6757;
78.6000;0.7839;-0.6857;
78.9000;0.7855;-0.6857;
79.2000;0.7928;-0.6682;
79.5000;0.7928;-0.6732;
79.8000;0.7904;-0.6757;
80.1000;0.7920;-0.6882;
80.4000;0.7937;-0.6907;
80.7000;0.7961;-0.6832;
81.0000;0.7953;-0.6882;
81.3000;0.8002;-0.6782;
81.6000;0.7945;-0.6907;
81.9000;0.7937;-0.6956;
82.2000;0.7937;-0.6956;
82.5000;0.7953;-0.6907;
82.8000;0.7953;-0.6907;
83.1000;0.7953;-0.6907;
83.4000;0.7953;-0.6956;
83.7000;0.7969;-0.6782;
84.0000;0.7961;-0.6807;
84.3000;0.8002;-0.6657;
84.6000;0.7985;-0.6732;
84.9000;0.7977;-0.6907;
85.2000;0.7961;-0.6857;
85.5000;0.7969;-0.6931;
85.8000;0.8034;-0.6782;
86.1000;0.7977;-0.6956;
86.4000;0.7985;-0.6956;
86.7000;0.7993;-0.6981;
87.0000;0.7977;-0.7081;
87.3000;0.7993;-0.7006;
87.6000;0.7985;-0.7006;
87.9000;0.8050;-0.6931;
88.2000;0.8002;-0.7106;
88.5000;0.7977;-0.7131;
88.8000;0.7985;-0.7256;
89.1000;0.7985;-0.7281;
89.4000;0.8010;-0.7181;
89.7000;0.7993;-0.7106;
90.0000;0.8010;-0.6981;
90.3000;0.7993;-0.7056;
90.6000;0.8010;-0.6931;
90.9000;0.8034;-0.6956;
91.2000;0.8026;-0.7006;
91.5000;0.7969;-0.7256;
91.8000;0.8002;-0.7206;
92.1000;0.8018;-0.7181;
92.4000;0.8050;-0.7156;
92.7000;0.8026;-0.7181;
93.0000;0.8010;-0.7131;
93.3000;0.8034;-0.7006;
93.6000;0.8026;-0.6981;
93.9000;0.8034;-0.7006;
94.2000;0.8042;-0.6907;
94.5000;0.8059;-0.6956;
94.8000;0.8050;-0.6981;
95.1000;0.8059;-0.7031;
95.4000;0.8042;-0.7081;
95.7000;0.8083;-0.7006;
96.0000;0.8034;-0.7206;
96.3000;0.8075;-0.7131;
96.6000;0.8059;-0.7181;
96.9000;0.8091;-0.7056;
97.2000;0.8050;-0.7156;
97.5000;0.8075;-0.7256;
97.8000;0.8067;-0.7206;
98.1000;0.8091;-0.7206;
98.4000;0.8091;-0.7156;
98.7000;0.8107;-0.7156;
99.0000;0.8083;-0.7181;
99.3000;0.8050;-0.7206;
99.6000;0.8083;-0.7106;
99.9000;0.8042;-0.7181;
100.2000;0.8116;-0.6931;
100.5000;0.8124;-0.6907;
100.8000;0.8099;-0.7131;
101.1000;0.8091;-0.7181;
101.4000;0.8083;-0.7281;
101.7000;0.8075;-0.7380;
102.0000;0.8075;-0.7430;
102.3000;0.8107;-0.7355;
102.6000;0.8116;-0.7405;
102.9000;0.8107;-0.7405;
103.2000;0.8116;-0.7380;
103.5000;0.8075;-0.7430;
103.8000;0.8140;-0.7330;
104.1000;0.8091;-0.7380;
104.4000;0.8091;-0.7405;
104.7000;0.8067;-0.7505;
105.0000;0.8107;-0.7305;
105.3000;0.8132;-0.7281;
105.6000;0.8124;-0.7355;
105.9000;0.8132;-0.7355;
106.2000;0.8132;-0.7380;
106.5000;0.8116;-0.7455;
106.8000;0.8116;-0.7505;
107.1000;0.8132;-0.7405;
107.4000;0.8132;-0.7330;
107.7000;0.8132;-0.7206;
108.0000;0.8221;-0.7106;
108.3000;0.8132;-0.7405;
108.6000;0.8140;-0.7405;
108.9000;0.8140;-0.7380;
109.2000;0.8116;-0.7405;
109.5000;0.8132;-0.7330;
109.8000;0.8197;-0.7156;
110.1000;0.8156;-0.7181;
110.4000;0.8164;-0.7256;
110.7000;0.8140;-0.7305;
111.0000;0.8246;-0.7006;
111.3000;0.8181;-0.7231;
111.6000;0.8124;-0.7405;
111.9000;0.8140;-0.7380;
112.2000;0.8173;-0.7281;
112.5000;0.8164;-0.7256;
112.8000;0.8075;-0.7480;
113.1000;0.8156;-0.7305;
113.4000;0.8107;-0.7480;
113.7000;0.8156;-0.7281;
114.0000;0.8148;-0.7380;
114.3000;0.8124;-0.7455;
114.6000;0.8156;-0.7405;
114.9000;0.8181;-0.7305;
115.2000;0.8164;-0.7455;
115.5000;0.8238;-0.7305;
115.8000;0.8197;-0.7430;
116.1000;0.8173;-0.7530;
116.4000;0.8181;-0.7605;
116.7000;0.8181;-0.7580;
117.0000;0.8181;-0.7630;
117.3000;0.8189;-0.7605;
117.6000;0.8197;-0.7630;
117.9000;0.8189;-0.7580;
118.2000;0.8205;-0.7530;
118.5000;0.8181;-0.7505;
118.8000;0.8181;-0.7580;
119.1000;0.8173;-0.7530;
119.4000;0.8189;-0.7430;
119.7000;0.8173;-0.7555;
120.0000;0.8181;-0.7480;
120.3000;0.8197;-0.7455;
120.6000;0.8205;-0.7430;
120.9000;0.8205;-0.7430;
121.2000;0.8189;-0.7530;
121.5000;0.8213;-0.7505;
121.8000;0.8213;-0.7505;
122.1000;0.8205;-0.7530;
122.4000;0.8221;-0.7530;
122.7000;0.8205;-0.7505;
123.0000;0.8205;-0.7530;
123.3000;0.8221;-0.7430;
123.6000;0.8197;-0.7430;
123.9000;0.8164;-0.7430;
124.2000;0.8197;-0.7281;
124.5000;0.8213;-0.7256;
124.8000;0.8197;-0.7256;
125.1000;0.8213;-0.7206;
125.4000;0.8197;-0.7380;
125.7000;0.8164;-0.7430;
126.0000;0.8254;-0.7330;
126.3000;0.8164;-0.7580;
126.6000;0.8221;-0.7555;
126.9000;0.8213;-0.7605;
127.2000;0.8230;-0.7605;
127.5000;0.8213;-0.7704;
127.8000;0.8213;-0.7655;
128.1000;0.8238;-0.7530;
128.4000;0.8221;-0.7530;
128.7000;0.8140;-0.7729;
129.0000;0.8230;-0.7430;
129.3000;0.8205;-0.7480;
129.6000;0.8254;-0.7455;
129.9000;0.8189;-0.7679;
130.2000;0.8246;-0.7530;
130.5000;0.8238;-0.7555;
130.8000;0.8221;-0.7580;
131.1000;0.8262;-0.7480;
131.4000;0.8238;-0.7430;
131.7000;0.8238;-0.7530;
132.0000;0.8246;-0.7555;
132.3000;0.8213;-0.7630;
132.6000;0.8221;-0.7530;
132.9000;0.8230;-0.7555;
133.2000;0.8319;-0.7330;
133.5000;0.8221;-0.7505;
133.8000;0.8140;-0.7729;
134.1000;0.8287;-0.7455;
134.4000;0.8319;-0.7380;
134.7000;0.8230;-0.7555;
135.0000;0.8230;-0.7605;
135.3000;0.8213;-0.7605;
135.6000;0.8238;-0.7580;
135.9000;0.8246;-0.7555;
136.2000;0.8254;-0.7555;
136.5000;0.8238;-0.7555;
136.8000;0.8262;-0.7505;
137.1000;0.8262;-0.7480;
137.4000;0.8303;-0.7355;
137.7000;0.8254;-0.7430;
138.0000;0.8270;-0.7355;
138.3000;0.8270;-0.7330;
138.6000;0.8205;-0.7480;
138.9000;0.8270;-0.7305;
139.2000;0.8270;-0.7380;
139.5000;0.8254;-0.7455;
139.8000;0.8254;-0.7480;
140.1000;0.8278;-0.7455;
140.4000;0.8230;-0.7580;
140.7000;0.8262;-0.7480;
141.0000;0.8262;-0.7455;
141.3000;0.8238;-0.7455;
141.6000;0.8262;-0.7430;
141.9000;0.8270;-0.7455;
142.2000;0.8270;-0.7530;
142.5000;0.8254;-0.7555;
142.8000;0.8270;-0.7505;
143.1000;0.8270;-0.7505;
143.4000;0.8262;-0.7505;
143.7000;0.8270;-0.7480;
144.0000;0.8270;-0.7505;
144.3000;0.8278;-0.7605;
144.6000;0.8246;-0.7679;
144.9000;0.8254;-0.7679;
145.2000;0.8270;-0.7655;
145.5000;0.8262;-0.7704;
145.8000;0.8270;-0.7754;
146.1000;0.8262;-0.7754;
146.4000;0.8246;-0.7679;
146.7000;0.8238;-0.7580;
147.0000;0.8254;-0.7505;
147.3000;0.8246;-0.7530;
147.6000;0.8197;-0.7630;
147.9000;0.8262;-0.7505;
148.2000;0.8278;-0.7430;
148.5000;0.8246;-0.7505;
148.8000;0.8270;-0.7530;
149.1000;0.8254;-0.7580;
149.4000;0.8278;-0.7555;
149.7000;0.8344;-0.7380;
150.0000;0.8287;-0.7605;
150.3000;0.8270;-0.7729;
150.6000;0.8254;-0.7829;
150.9000;0.8278;-0.7729;
151.2000;0.8295;-0.7655;
151.5000;0.8287;-0.7555;
151.8000;0.8319;-0.7430;
152.1000;0.8303;-0.7480;
152.4000;0.8287;-0.7480;
152.7000;0.8254;-0.7655;
153.0000;0.8278;-0.7655;
153.3000;0.8295;-0.7679;
153.6000;0.8262;-0.7679;
153.9000;0.8287;-0.7679;
154.2000;0.8270;-0.7605;
154.5000;0.8303;-0.7555;
154.8000;0.8352;-0.7455;
155.1000;0.8303;-0.7630;
155.4000;0.8262;-0.7704;
155.7000;0.8254;-0.7679;
156.0000;0.8295;-0.7530;
156.3000;0.8278;-0.7555;
156.6000;0.8287;-0.7530;
156.9000;0.8295;-0.7480;
157.2000;0.8287;-0.7505;
157.5000;0.8270;-0.7605;
157.8000;0.8327;-0.7555;
158.1000;0.8270;-0.7754;
158.4000;0.8295;-0.7779;
158.7000;0.8287;-0.7779;
159.0000;0.8254;-0.7829;
159.3000;0.8246;-0.7729;
159.6000;0.8287;-0.7679;
159.9000;0.8303;-0.7704;
160.2000;0.8303;-0.7555;
160.5000;0.8287;-0.7555;
160.8000;0.8287;-0.7480;
161.1000;0.8262;-0.7430;
161.4000;0.8295;-0.7380;
161.7000;0.8287;-0.7355;
162.0000;0.8295;-0.7405;
162.3000;0.8287;-0.7330;
162.6000;0.8368;-0.7181;
162.9000;0.8287;-0.7380;
163.2000;0.8303;-0.7505;
163.5000;0.8303;-0.7405;
163.8000;0.8295;-0.7405;
164.1000;0.8287;-0.7405;
164.4000;0.8270;-0.7430;
164.7000;0.8295;-0.7505;
165.0000;0.8311;-0.7530;
165.3000;0.8295;-0.7530;
165.6000;0.8295;-0.7480;
165.9000;0.8335;-0.7380;
166.2000;0.8303;-0.7305;
166.5000;0.8278;-0.7480;
166.8000;0.8278;-0.7455;
167.1000;0.8278;-0.7455;
167.4000;0.8303;-0.7480;
167.7000;0.8311;-0.7405;
168.0000;0.8311;-0.7455;
168.3000;0.8205;-0.7679;
168.6000;0.8270;-0.7530;
168.9000;0.8303;-0.7380;
169.2000;0.8295;-0.7430;
169.5000;0.8295;-0.7430;
169.8000;0.8213;-0.7580;
170.1000;0.8311;-0.7380;
170.4000;0.8278;-0.7430;
170.7000;0.8311;-0.7380;
171.0000;0.8278;-0.7455;
171.3000;0.8295;-0.7405;
171.6000;0.8254;-0.7530;
171.9000;0.8368;-0.7355;
172.2000;0.8311;-0.7505;
172.5000;0.8311;-0.7405;
172.8000;0.8352;-0.7355;
173.1000;0.8303;-0.7430;
173.4000;0.8295;-0.7530;
173.7000;0.8368;-0.7380;
174.0000;0.8311;-0.7505;
174.3000;0.8360;-0.7405;
174.6000;0.8295;-0.7555;
174.9000;0.8287;-0.7455;
175.2000;0.8278;-0.7430;
175.5000;0.8295;-0.7355;
175.8000;0.8303;-0.7430;
176.1000;0.8287;-0.7530;
176.4000;0.8287;-0.7580;
176.7000;0.8287;-0.7704;
177.0000;0.8295;-0.7655;
177.3000;0.8303;-0.7605;
177.6000;0.8311;-0.7455;
177.9000;0.8303;-0.7480;
178.2000;0.8295;-0.7455;
178.5000;0.8311;-0.7405;
178.8000;0.8270;-0.7405;
179.1000;0.8303;-0.7355;
179.4000;0.8295;-0.7430;
179.7000;0.8278;-0.7480;
180.0000;0.8303;-0.7430;
180.3000;0.8230;-0.7655;
180.6000;0.8303;-0.7380;
180.9000;0.8295;-0.7455;
181.2000;0.8303;-0.7455;
181.5000;0.8295;-0.7430;
181.8000;0.8287;-0.7380;
182.1000;0.8303;-0.7430;
182.4000;0.8295;-0.7455;
182.7000;0.8295;-0.7430;
183.0000;0.8311;-0.7430;
183.3000;0.8295;-0.7480;
183.6000;0.8287;-0.7555;
183.9000;0.8311;-0.7605;
184.2000;0.8311;-0.7505;
184.5000;0.8278;-0.7555;
184.8000;0.8400;-0.7305;
185.1000;0.8311;-0.7530;
185.4000;0.8335;-0.7405;
185.7000;0.8295;-0.7480;
186.0000;0.8327;-0.7380;
186.3000;0.8278;-0.7455;
186.6000;0.8278;-0.7505;
186.9000;0.8295;-0.7555;
187.2000;0.8311;-0.7480;
187.5000;0.8311;-0.7480;
187.8000;0.8287;-0.7480;
188.1000;0.8303;-0.7380;
188.4000;0.8295;-0.7281;
188.7000;0.8295;-0.7281;
189.0000;0.8303;-0.7281;
189.3000;0.8303;-0.7281;
189.6000;0.8311;-0.7256;
189.9000;0.8311;-0.7305;
190.2000;0.8335;-0.7206;
190.5000;0.8327;-0.7281;
190.8000;0.8295;-0.7405;
191.1000;0.8270;-0.7555;
191.4000;0.8262;-0.7630;
191.7000;0.8303;-0.7605;
192.0000;0.8287;-0.7605;
192.3000;0.8262;-0.7655;
192.6000;0.8278;-0.7605;
192.9000;0.8278;-0.7580;
193.2000;0.8352;-0.7555;
193.5000;0.8327;-0.7505;
193.8000;0.8278;-0.7530;
194.1000;0.8254;-0.7580;
194.4000;0.8295;-0.7480;
194.7000;0.8262;-0.7555;
195.0000;0.8270;-0.7480;
195.3000;0.8270;-0.7505;
195.6000;0.8303;-0.7380;
195.9000;0.8270;-0.7455;
196.2000;0.8278;-0.7355;
196.5000;0.8295;-0.7355;
196.8000;0.8327;-0.7405;
197.1000;0.8278;-0.7555;
197.4000;0.8287;-0.7555;
197.7000;0.8262;-0.7704;
198.0000;0.8254;-0.7655;
198.3000;0.8278;-0.7455;
198.6000;0.8287;-0.7430;
198.9000;0.8287;-0.7480;
199.2000;0.8303;-0.7355;
199.5000;0.8295;-0.7355;
199.8000;0.8287;-0.7380;
200.1000;0.8287;-0.7355;
200.4000;0.8278;-0.7281;
200.7000;0.8295;-0.7231;
201.0000;0.8311;-0.7181;
201.3000;0.8262;-0.7330;
201.6000;0.8287;-0.7256;
201.9000;0.8409;-0.6956;
202.2000;0.8287;-0.7231;
202.5000;0.8270;-0.7281;
202.8000;0.8270;-0.7355;
203.1000;0.8262;-0.7355;
203.4000;0.8287;-0.7256;
203.7000;0.8278;-0.7256;
204.0000;0.8254;-0.7430;
204.3000;0.8360;-0.7106;
204.6000;0.8303;-0.7330;
204.9000;0.8295;-0.7405;
205.2000;0.8246;-0.7480;
205.5000;0.8287;-0.7330;
205.8000;0.8278;-0.7281;
206.1000;0.8287;-0.7281;
206.4000;0.8327;-0.7256;
206.7000;0.8278;-0.7430;
207.0000;0.8360;-0.7281;
207.3000;0.8278;-0.7455;
207.6000;0.8254;-0.7430;
207.9000;0.8278;-0.7380;
208.2000;0.8270;-0.7330;
208.5000;0.8278;-0.7330;
208.8000;0.8270;-0.7380;
209.1000;0.8287;-0.7330;
209.4000;0.8287;-0.7305;
209.7000;0.8295;-0.7330;
210.0000;0.8295;-0.7330;
210.3000;0.8311;-0.7281;
210.6000;0.8254;-0.7455;
210.9000;0.8295;-0.7355;
211.2000;0.8278;-0.7405;
211.5000;0.8319;-0.7355;
211.8000;0.8262;-0.7530;
212.1000;0.8270;-0.7505;
212.4000;0.8352;-0.7380;
212.7000;0.8270;-0.7580;
213.0000;0.8278;-0.7530;
213.3000;0.8262;-0.7580;
213.6000;0.8295;-0.7630;
213.9000;0.8278;-0.7605;
214.2000;0.8287;-0.7455;
214.5000;0.8287;-0.7380;
214.8000;0.8270;-0.7330;
215.1000;0.8270;-0.7405;
215.4000;0.8270;-0.7480;
215.7000;0.8295;-0.7505;
216.0000;0.8270;-0.7530;
216.3000;0.8254;-0.7580;
216.6000;0.8254;-0.7555;
216.9000;0.8254;-0.7530;
217.2000;0.8270;-0.7505;
217.5000;0.8278;-0.7430;
217.8000;0.8205;-0.7679;
218.1000;0.8262;-0.7630;
218.4000;0.8287;-0.7605;
218.7000;0.8278;-0.7605;
219.0000;0.8278;-0.7530;
219.3000;0.8278;-0.7480;
219.6000;0.8287;-0.7430;
219.9000;0.8270;-0.7505;
220.2000;0.8270;-0.7480;
220.5000;0.8262;-0.7505;
220.8000;0.8270;-0.7430;
221.1000;0.8246;-0.7480;
221.4000;0.8270;-0.7455;
221.7000;0.8262;-0.7555;
222.0000;0.8270;-0.7580;
222.3000;0.8287;-0.7655;
222.6000;0.8278;-0.7729;
222.9000;0.8262;-0.7679;
223.2000;0.8246;-0.7580;
223.5000;0.8254;-0.7505;
223.8000;0.8262;-0.7480;
224.1000;0.8254;-0.7505;
224.4000;0.8278;-0.7380;
224.7000;0.8254;-0.7355;
225.0000;0.8262;-0.7355;
225.3000;0.8278;-0.7355;
225.6000;0.8270;-0.7430;
225.9000;0.8238;-0.7530;
226.2000;0.8278;-0.7405;
226.5000;0.8254;-0.7455;
226.8000;0.8262;-0.7455;
227.1000;0.8278;-0.7455;
227.4000;0.8254;-0.7480;
227.7000;0.8254;-0.7530;
228.0000;0.8246;-0.7555;
228.3000;0.8246;-0.7630;
228.6000;0.8254;-0.7580;
228.9000;0.8262;-0.7430;
229.2000;0.8270;-0.7480;
229.5000;0.8311;-0.7305;
229.8000;0.8278;-0.7355;
230.1000;0.8246;-0.7430;
230.4000;0.8221;-0.7505;
230.7000;0.8262;-0.7380;
231.0000;0.8270;-0.7430;
231.3000;0.8278;-0.7430;
231.6000;0.8262;-0.7505;
231.9000;0.8254;-0.7480;
232.2000;0.8246;-0.7580;
232.5000;0.8254;-0.7530;
232.8000;0.8262;-0.7480;
233.1000;0.8270;-0.7505;
233.4000;0.8238;-0.7655;
233.7000;0.8246;-0.7630;
234.0000;0.8270;-0.7455;
234.3000;0.8270;-0.7405;
234.6000;0.8287;-0.7455;
234.9000;0.8254;-0.7480;
235.2000;0.8238;-0.7480;
235.5000;0.8254;-0.7430;
235.8000;0.8254;-0.7480;
236.1000;0.8246;-0.7430;
236.4000;0.8221;-0.7480;
236.7000;0.8238;-0.7405;
237.0000;0.8230;-0.7580;
237.3000;0.8246;-0.7605;
237.6000;0.8270;-0.7480;
237.9000;0.8254;-0.7405;
238.2000;0.8238;-0.7455;
238.5000;0.8254;-0.7380;
238.8000;0.8189;-0.7605;
239.1000;0.8303;-0.7355;
239.4000;0.8303;-0.7330;
239.7000;0.8254;-0.7380;
240.0000;0.8278;-0.7206;
240.3000;0.8278;-0.7206;
240.6000;0.8262;-0.7181;
240.9000;0.8254;-0.7131;
241.2000;0.8278;-0.6981;
241.5000;0.8238;-0.7181;
241.8000;0.8254;-0.7181;
242.1000;0.8262;-0.7131;
242.4000;0.8238;-0.7231;
242.7000;0.8246;-0.7131;
243.0000;0.8303;-0.6981;
243.3000;0.8205;-0.7305;
243.6000;0.8246;-0.7305;
243.9000;0.8262;-0.7305;
244.2000;0.8278;-0.7206;
244.5000;0.8262;-0.7206;
244.8000;0.8262;-0.7281;
245.1000;0.8238;-0.7355;
245.4000;0.8238;-0.7231;
245.7000;0.8262;-0.7281;
246.0000;0.8205;-0.7505;
246.3000;0.8270;-0.7380;
246.6000;0.8270;-0.7330;
246.9000;0.8278;-0.7181;
247.2000;0.8230;-0.7380;
247.5000;0.8254;-0.7405;
247.8000;0.8246;-0.7530;
248.1000;0.8254;-0.7505;
248.4000;0.8246;-0.7555;
248.7000;0.8254;-0.7580;
249.0000;0.8230;-0.7530;
249.3000;0.8254;-0.7480;
249.6000;0.8230;-0.7530;
249.9000;0.8254;-0.7480;
250.2000;0.8246;-0.7480;
250.5000;0.8238;-0.7455;
250.8000;0.8254;-0.7430;
251.1000;0.8246;-0.7505;
251.4000;0.8221;-0.7505;
251.7000;0.8230;-0.7480;
252.0000;0.8230;-0.7430;
252.3000;0.8230;-0.7380;
252.6000;0.8221;-0.7480;
252.9000;0.8246;-0.7480;
253.2000;0.8221;-0.7505;
253.5000;0.8213;-0.7480;
253.8000;0.8213;-0.7455;
254.1000;0.8238;-0.7430;
254.4000;0.8262;-0.7380;
254.7000;0.8238;-0.7430;
255.0000;0.8205;-0.7430;
255.3000;0.8213;-0.7505;
255.6000;0.8132;-0.7704;
255.9000;0.8254;-0.7405;
256.2000;0.8246;-0.7380;
256.5000;0.8221;-0.7355;
256.8000;0.8238;-0.7305;
257.1000;0.8262;-0.7305;
257.4000;0.8221;-0.7305;
257.7000;0.8246;-0.7305;
258.0000;0.8238;-0.7281;
258.3000;0.8221;-0.7380;
258.6000;0.8213;-0.7355;
258.9000;0.8221;-0.7380;
259.2000;0.8213;-0.7330;
259.5000;0.8221;-0.7281;
259.8000;0.8238;-0.7281;
260.1000;0.8230;-0.7380;
260.4000;0.8205;-0.7455;
260.7000;0.8262;-0.7380;
261.0000;0.8238;-0.7430;
261.3000;0.8213;-0.7455;
261.6000;0.8246;-0.7380;
261.9000;0.8295;-0.7206;
262.2000;0.8221;-0.7430;
262.5000;0.8181;-0.7555;
262.8000;0.8221;-0.7505;
263.1000;0.8230;-0.7505;
263.4000;0.8311;-0.7181;
263.7000;0.8221;-0.7430;
264.0000;0.8221;-0.7430;
264.3000;0.8221;-0.7405;
264.6000;0.8205;-0.7430;
264.9000;0.8205;-0.7455;
265.2000;0.8262;-0.7305;
265.5000;0.8238;-0.7380;
265.8000;0.8335;-0.7081;
266.1000;0.8238;-0.7256;
266.4000;0.8230;-0.7256;
266.7000;0.8213;-0.7281;
267.0000;0.8230;-0.7305;
267.3000;0.8238;-0.7231;
267.6000;0.8238;-0.7281;
267.9000;0.8238;-0.7256;
268.2000;0.8230;-0.7305;
268.5000;0.8140;-0.7505;
268.8000;0.8221;-0.7380;
269.1000;0.8335;-0.7106;
269.4000;0.8221;-0.7281;
269.7000;0.8221;-0.7256;
270.0000;0.8213;-0.7231;
270.3000;0.8213;-0.7206;
270.6000;0.8246;-0.7181;
270.9000;0.8221;-0.7281;
271.2000;0.8238;-0.7231;
271.5000;0.8230;-0.7380;
271.8000;0.8124;-0.7729;
272.1000;0.8262;-0.7405;
272.4000;0.8221;-0.7505;
272.7000;0.8238;-0.7505;
273.0000;0.8213;-0.7505;
273.3000;0.8213;-0.7530;
273.6000;0.8246;-0.7555;
273.9000;0.8205;-0.7655;
274.2000;0.8221;-0.7630;
274.5000;0.8221;-0.7555;
274.8000;0.8221;-0.7630;
275.1000;0.8205;-0.7605;
275.4000;0.8213;-0.7530;
275.7000;0.8213;-0.7530;
276.0000;0.8197;-0.7530;
276.3000;0.8221;-0.7430;
276.6000;0.8205;-0.7480;
276.9000;0.8213;-0.7530;
277.2000;0.8221;-0.7405;
277.5000;0.8189;-0.7555;
277.8000;0.8205;-0.7555;
278.1000;0.8221;-0.7505;
278.4000;0.8213;-0.7505;
278.7000;0.8205;-0.7505;
279.0000;0.8213;-0.7530;
279.3000;0.8230;-0.7480;
279.6000;0.8205;-0.7555;
279.9000;0.8213;-0.7555;
280.2000;0.8230;-0.7505;
280.5000;0.8189;-0.7530;
280.8000;0.8213;-0.7505;
281.1000;0.8221;-0.7555;
281.4000;0.8124;-0.7754;
281.7000;0.8230;-0.7480;
282.0000;0.8197;-0.7505;
282.3000;0.8213;-0.7530;
282.6000;0.8205;-0.7580;
282.9000;0.8205;-0.7555;
283.2000;0.8221;-0.7405;
283.5000;0.8221;-0.7380;
283.8000;0.8238;-0.7305;
284.1000;0.8197;-0.7330;
284.4000;0.8197;-0.7281;
284.7000;0.8213;-0.7231;
285.0000;0.8221;-0.7231;
285.3000;0.8205;-0.7305;
285.6000;0.8205;-0.7305;
285.9000;0.8270;-0.7206;
286.2000;0.8335;-0.7131;
286.5000;0.8254;-0.7330;
286.8000;0.8213;-0.7430;
287.1000;0.8205;-0.7480;
287.4000;0.8197;-0.7505;
287.7000;0.8067;-0.7879;
288.0000;0.8189;-0.7555;
288.3000;0.8197;-0.7555;
288.6000;0.8246;-0.7430;
288.9000;0.8205;-0.7605;
289.2000;0.8197;-0.7655;
289.5000;0.8197;-0.7580;
289.8000;0.8197;-0.7530;
290.1000;0.8205;-0.7530;
290.4000;0.8148;-0.7804;
290.7000;0.8189;-0.7729;
291.0000;0.8205;-0.7704;
291.3000;0.8213;-0.7555;
291.6000;0.8230;-0.7530;
291.9000;0.8205;-0.7555;
292.2000;0.8197;-0.7505;
292.5000;0.8213;-0.7430;
292.8000;0.8205;-0.7480;
293.1000;0.8189;-0.7555;
293.4000;0.8205;-0.7480;
293.7000;0.8197;-0.7530;
294.0000;0.8213;-0.7530;
294.3000;0.8205;-0.7555;
294.6000;0.8230;-0.7455;
294.9000;0.8189;-0.7555;
295.2000;0.8197;-0.7555;
295.5000;0.8205;-0.7530;
295.8000;0.8189;-0.7580;
296.1000;0.8189;-0.7455;
296.4000;0.8213;-0.7505;
296.7000;0.8197;-0.7505;
297.0000;0.8156;-0.7580;
297.3000;0.8221;-0.7480;
297.6000;0.8189;-0.7605;
297.9000;0.8197;-0.7605;
298.2000;0.8205;-0.7605;
298.5000;0.8173;-0.7630;
298.8000;0.8189;-0.7655;
299.1000;0.8181;-0.7580;
299.4000;0.8107;-0.7729;
299.7000;0.8205;-0.7530;
300.0000;0.8181;-0.7505;
300.3000;0.8197;-0.7480;
300.6000;0.8197;-0.7555;
300.9000;0.8107;-0.7704;
301.2000;0.8189;-0.7555;
301.5000;0.8213;-0.7505;
301.8000;0.8213;-0.7430;
302.1000;0.8205;-0.7430;
302.4000;0.8278;-0.7181;
302.7000;0.8124;-0.7480;
303.0000;0.8197;-0.7181;
303.3000;0.8189;-0.7181;
303.6000;0.8164;-0.7330;
303.9000;0.8221;-0.7281;
304.2000;0.8205;-0.7281;
304.5000;0.8197;-0.7231;
304.8000;0.8156;-0.7355;
305.1000;0.8221;-0.7206;
305.4000;0.8132;-0.7480;
305.7000;0.8181;-0.7405;
306.0000;0.8173;-0.7405;
306.3000;0.8189;-0.7355;
306.6000;0.8189;-0.7330;
306.9000;0.8197;-0.7231;
307.2000;0.8181;-0.7281;
307.5000;0.8189;-0.7380;
307.8000;0.8181;-0.7430;
308.1000;0.8181;-0.7330;
308.4000;0.8181;-0.7231;
308.7000;0.8173;-0.7206;
309.0000;0.8173;-0.7231;
309.3000;0.8197;-0.7206;
309.6000;0.8213;-0.7081;
309.9000;0.8213;-0.7181;
310.2000;0.8205;-0.7281;
310.5000;0.8173;-0.7405;
310.8000;0.8173;-0.7455;
311.1000;0.8181;-0.7405;
311.4000;0.8189;-0.7330;
311.7000;0.8181;-0.7380;
312.0000;0.8197;-0.7256;
312.3000;0.8197;-0.7131;
312.6000;0.8181;-0.7056;
312.9000;0.8164;-0.7031;
313.2000;0.8189;-0.6931;
313.5000;0.8189;-0.7006;
313.8000;0.8189;-0.7156;
314.1000;0.8181;-0.7156;
314.4000;0.8205;-0.7056;
314.7000;0.8181;-0.7106;
315.0000;0.8213;-0.7106;
315.3000;0.8173;-0.7256;
315.6000;0.8181;-0.7206;
315.9000;0.8181;-0.7181;
316.2000;0.8189;-0.7156;
316.5000;0.8197;-0.7231;
316.8000;0.8181;-0.7405;
317.1000;0.8189;-0.7355;
317.4000;0.8197;-0.7355;
317.7000;0.8197;-0.7181;
318.0000;0.8246;-0.7106;
318.3000;0.8205;-0.7206;
318.6000;0.8189;-0.7256;
318.9000;0.8173;-0.7281;
319.2000;0.8181;-0.7231;
319.5000;0.8181;-0.7131;
319.8000;0.8189;-0.7106;
320.1000;0.8181;-0.7156;
320.4000;0.8197;-0.6956;
320.7000;0.8189;-0.6956;
321.0000;0.8246;-0.6882;
321.3000;0.8181;-0.7081;
321.6000;0.8197;-0.7031;
321.9000;0.8132;-0.7131;
322.2000;0.8164;-0.7006;
322.5000;0.8189;-0.7031;
322.8000;0.8156;-0.7206;
323.1000;0.8173;-0.7181;
323.4000;0.8181;-0.7156;
323.7000;0.8173;-0.7256;
324.0000;0.8181;-0.7231;
324.3000;0.8189;-0.7156;
324.6000;0.8189;-0.7081;
324.9000;0.8205;-0.7131;
325.2000;0.8164;-0.7181;
325.5000;0.8262;-0.6907;
325.8000;0.8156;-0.7256;
326.1000;0.8189;-0.7156;
326.4000;0.8205;-0.7181;
326.7000;0.8099;-0.7430;
327.0000;0.8189;-0.7206;
327.3000;0.8189;-0.7206;
327.6000;0.8124;-0.7380;
327.9000;0.8164;-0.7330;
328.2000;0.8173;-0.7256;
328.5000;0.8173;-0.7256;
328.8000;0.8278;-0.6931;
329.1000;0.8164;-0.7355;
329.4000;0.8156;-0.7430;
329.7000;0.8173;-0.7480;
330.0000;0.8173;-0.7455;
330.3000;0.8156;-0.7505;
330.6000;0.8156;-0.7530;
330.9000;0.8156;-0.7455;
331.2000;0.8164;-0.7480;
331.5000;0.8156;-0.7455;
331.8000;0.8181;-0.7330;
332.1000;0.8173;-0.7380;
332.4000;0.8156;-0.7455;
332.7000;0.8173;-0.7455;
333.0000;0.8189;-0.7405;
333.3000;0.8164;-0.7430;
333.6000;0.8164;-0.7405;
333.9000;0.8164;-0.7530;
334.2000;0.8059;-0.7804;
334.5000;0.8164;-0.7580;
334.8000;0.8148;-0.7555;
335.1000;0.8164;-0.7530;
335.4000;0.8164;-0.7555;
335.7000;0.8181;-0.7530;
336.0000;0.8173;-0.7480;
336.3000;0.8156;-0.7355;
336.6000;0.8164;-0.7281;
336.9000;0.8213;-0.7131;
337.2000;0.8262;-0.6981;
337.5000;0.8164;-0.7131;
337.8000;0.8197;-0.7081;
338.1000;0.8189;-0.7106;
338.4000;0.8181;-0.7106;
338.7000;0.8173;-0.7206;
339.0000;0.8254;-0.7006;
339.3000;0.8164;-0.7231;
339.6000;0.8156;-0.7256;
339.9000;0.8230;-0.7106;
340.2000;0.8173;-0.7231;
340.5000;0.8148;-0.7380;
340.8000;0.8156;-0.7256;
341.1000;0.8148;-0.7206;
341.4000;0.8140;-0.7256;
341.7000;0.8164;-0.7106;
342.0000;0.8164;-0.7006;
342.3000;0.8156;-0.6956;
342.6000;0.8156;-0.6931;
342.9000;0.8124;-0.7031;
343.2000;0.8140;-0.7031;
343.5000;0.8140;-0.7156;
343.8000;0.8156;-0.7281;
344.1000;0.8173;-0.7231;
344.4000;0.8156;-0.7231;
344.7000;0.8148;-0.7206;
345.0000;0.8132;-0.7231;
345.3000;0.8091;-0.7355;
345.6000;0.8156;-0.7281;
345.9000;0.8132;-0.7330;
346.2000;0.8132;-0.7330;
346.5000;0.8132;-0.7305;
346.8000;0.8213;-0.7056;
347.1000;0.8124;-0.7231;
347.4000;0.8132;-0.7256;
347.7000;0.8140;-0.7181;
348.0000;0.8132;-0.7206;
348.3000;0.8156;-0.7156;
348.6000;0.8156;-0.7156;
348.9000;0.8181;-0.7081;
349.2000;0.8148;-0.7281;
349.5000;0.8148;-0.7380;
349.8000;0.8156;-0.7405;
350.1000;0.8164;-0.7380;
350.4000;0.8140;-0.7405;
350.7000;0.8148;-0.7305;
351.0000;0.8140;-0.7305;
351.3000;0.8156;-0.7355;
351.6000;0.8230;-0.7081;
351.9000;0.8132;-0.7305;
352.2000;0.8140;-0.7106;
352.5000;0.8156;-0.6956;
352.8000;0.8132;-0.7006;
353.1000;0.8148;-0.6981;
353.4000;0.8148;-0.6956;
353.7000;0.8156;-0.6956;
354.0000;0.8124;-0.7006;
354.3000;0.8140;-0.7056;
354.6000;0.8107;-0.7206;
354.9000;0.8140;-0.7156;
355.2000;0.8173;-0.7106;
355.5000;0.8132;-0.7231;
355.8000;0.8132;-0.7281;
356.1000;0.8148;-0.7281;
356.4000;0.8140;-0.7231;
356.7000;0.8173;-0.7231;
357.0000;0.8148;-0.7330;
357.3000;0.8132;-0.7380;
357.6000;0.8140;-0.7455;
357.9000;0.8107;-0.7530;
358.2000;0.8083;-0.7430;
358.5000;0.8140;-0.7231;
358.8000;0.8148;-0.7231;
359.1000;0.8124;-0.7355;
359.4000;0.8124;-0.7405;
359.7000;0.8140;-0.7355;
360.0000;0.8132;-0.7281;
360.3000;0.8140;-0.7231;
360.6000;0.8181;-0.7156;
360.9000;0.8132;-0.7355;
361.2000;0.8189;-0.7206;
361.5000;0.8156;-0.7305;
361.8000;0.8164;-0.7281;
362.1000;0.8099;-0.7430;
362.4000;0.8099;-0.7455;
362.7000;0.8132;-0.7405;
363.0000;0.8116;-0.7505;
363.3000;0.8140;-0.7430;
363.6000;0.8148;-0.7405;
363.9000;0.8148;-0.7430;
364.2000;0.8173;-0.7330;
364.5000;0.8148;-0.7380;
364.8000;0.8116;-0.7430;
365.1000;0.8148;-0.7355;
365.4000;0.8140;-0.7355;
365.7000;0.8140;-0.7355;
366.0000;0.8156;-0.7355;
366.3000;0.8124;-0.7430;
366.6000;0.8132;-0.7330;
366.9000;0.8140;-0.7281;
367.2000;0.8132;-0.7256;
367.5000;0.8132;-0.7206;
367.8000;0.8148;-0.7181;
368.1000;0.8132;-0.7156;
368.4000;0.8140;-0.7131;
368.7000;0.8140;-0.7181;
369.0000;0.8116;-0.7281;
369.3000;0.8148;-0.7181;
369.6000;0.8140;-0.7156;
369.9000;0.8140;-0.7156;
370.2000;0.8132;-0.7106;
370.5000;0.8132;-0.7131;
370.8000;0.8107;-0.7156;
371.1000;0.8124;-0.7106;
371.4000;0.8099;-0.7106;
371.7000;0.8173;-0.7081;
372.0000;0.8148;-0.7206;
372.3000;0.8107;-0.7305;
372.6000;0.8124;-0.7231;
372.9000;0.8156;-0.7031;
373.2000;0.8148;-0.7006;
373.5000;0.8124;-0.7006;
373.8000;0.8116;-0.7006;
374.1000;0.8124;-0.7006;
374.4000;0.8132;-0.6931;
374.7000;0.8124;-0.7031;
375.0000;0.8132;-0.7081;
375.3000;0.8140;-0.7106;
375.6000;0.8164;-0.7131;
375.9000;0.8132;-0.7231;
376.2000;0.8132;-0.7281;
376.5000;0.8124;-0.7281;
376.8000;0.8132;-0.7156;
377.1000;0.8140;-0.7131;
377.4000;0.8132;-0.7206;
377.7000;0.8140;-0.7156;
378.0000;0.8148;-0.7106;
378.3000;0.8140;-0.7056;
378.6000;0.8148;-0.7131;
378.9000;0.8189;-0.7081;
379.2000;0.8213;-0.6981;
379.5000;0.8189;-0.7031;
379.8000;0.8107;-0.7181;
380.1000;0.8132;-0.7156;
380.4000;0.8107;-0.7156;
380.7000;0.8116;-0.7131;
381.0000;0.8132;-0.7156;
381.3000;0.8132;-0.7181;
381.6000;0.8099;-0.7305;
381.9000;0.8132;-0.7206;
382.2000;0.8132;-0.7181;
382.5000;0.8124;-0.7206;
382.8000;0.8116;-0.7206;
383.1000;0.8132;-0.7206;
383.4000;0.8124;-0.7256;
383.7000;0.8132;-0.7206;
384.0000;0.8124;-0.7231;
384.3000;0.8132;-0.7156;
384.6000;0.8132;-0.7081;
384.9000;0.8140;-0.7056;
385.2000;0.8107;-0.7156;
385.5000;0.8140;-0.7156;
385.8000;0.8140;-0.7231;
386.1000;0.8132;-0.7206;
386.4000;0.8132;-0.7256;
386.7000;0.8124;-0.7305;
387.0000;0.8124;-0.7231;
387.3000;0.8140;-0.7231;
387.6000;0.8124;-0.7181;
387.9000;0.8124;-0.7131;
388.2000;0.8075;-0.7081;
388.5000;0.8132;-0.6882;
388.8000;0.8124;-0.6882;
389.1000;0.8116;-0.6956;
389.4000;0.8116;-0.7006;
389.7000;0.8132;-0.6981;
390.0000;0.8132;-0.6981;
390.3000;0.8124;-0.7006;
390.6000;0.8124;-0.6907;
390.9000;0.8124;-0.6981;
391.2000;0.8107;-0.7006;
391.5000;0.8132;-0.6882;
391.8000;0.8107;-0.6857;
392.1000;0.8148;-0.6807;
392.4000;0.8205;-0.6632;
392.7000;0.8107;-0.6931;
393.0000;0.8099;-0.6981;
393.3000;0.8132;-0.6907;
393.6000;0.8116;-0.7081;
393.9000;0.8124;-0.7081;
394.2000;0.8132;-0.7056;
394.5000;0.8132;-0.7081;
394.8000;0.8099;-0.7181;
395.1000;0.8140;-0.7131;
395.4000;0.8140;-0.7131;
395.7000;0.8124;-0.7156;
396.0000;0.8116;-0.7131;
396.3000;0.8148;-0.6981;
396.6000;0.8156;-0.7031;
396.9000;0.8116;-0.7206;
397.2000;0.8140;-0.7231;
397.5000;0.8164;-0.7181;
397.8000;0.8156;-0.7156;
398.1000;0.8124;-0.7131;
398.4000;0.8107;-0.7131;
398.7000;0.8132;-0.7056;
399.0000;0.8132;-0.6981;
399.3000;0.8124;-0.6981;
399.6000;0.8107;-0.6981;
399.9000;0.8107;-0.7006;
400.2000;0.8132;-0.6907;
400.5000;0.8124;-0.6931;
400.8000;0.8099;-0.6956;
401.1000;0.8140;-0.6931;
401.4000;0.8140;-0.6807;
401.7000;0.8099;-0.6882;
402.0000;0.8099;-0.6907;
402.3000;0.8107;-0.6882;
402.6000;0.8124;-0.6981;
402.9000;0.8140;-0.6882;
403.2000;0.8091;-0.7056;
403.5000;0.8099;-0.7031;
403.8000;0.8116;-0.7031;
404.1000;0.8116;-0.7031;
404.4000;0.8107;-0.6981;
404.7000;0.8116;-0.6907;
405.0000;0.8132;-0.6907;
405.3000;0.8116;-0.6931;
405.6000;0.8124;-0.6882;
405.9000;0.8075;-0.6956;
406.2000;0.8132;-0.6782;
406.5000;0.8124;-0.6832;
406.8000;0.8116;-0.6882;
407.1000;0.8116;-0.7006;
407.4000;0.8124;-0.7081;
407.7000;0.8124;-0.7006;
408.0000;0.8116;-0.6956;
408.3000;0.8107;-0.6956;
408.6000;0.8132;-0.6931;
408.9000;0.8099;-0.6956;
409.2000;0.8083;-0.7081;
409.5000;0.8083;-0.7156;
409.8000;0.8091;-0.7156;
410.1000;0.8116;-0.7106;
410.4000;0.8116;-0.7081;
410.7000;0.8116;-0.7006;
411.0000;0.8107;-0.7006;
411.3000;0.8099;-0.7006;
411.6000;0.8083;-0.7056;
411.9000;0.8099;-0.6956;
412.2000;0.8099;-0.6931;
412.5000;0.8083;-0.6956;
412.8000;0.8116;-0.6832;
413.1000;0.8140;-0.6757;
413.4000;0.8099;-0.6857;
413.7000;0.8132;-0.6807;
414.0000;0.8116;-0.6857;
414.3000;0.8099;-0.6882;
414.6000;0.8067;-0.6931;
414.9000;0.8124;-0.6882;
415.2000;0.8099;-0.6857;
415.5000;0.8026;-0.7056;
415.8000;0.8099;-0.6832;
416.1000;0.8116;-0.6857;
416.4000;0.8189;-0.6682;
416.7000;0.8132;-0.6832;
417.0000;0.8083;-0.6931;
417.3000;0.8026;-0.7056;
417.6000;0.8148;-0.6782;
417.9000;0.8107;-0.6857;
418.2000;0.8107;-0.6907;
418.5000;0.8124;-0.6782;
418.8000;0.8083;-0.6907;
419.1000;0.8132;-0.6832;
419.4000;0.8067;-0.6857;
419.7000;0.8107;-0.6807;
420.0000;0.8148;-0.6732;
420.3000;0.8107;-0.6882;
420.6000;0.8107;-0.6956;
420.9000;0.8099;-0.6882;
421.2000;0.8083;-0.6882;
421.5000;0.8091;-0.6907;
421.8000;0.8107;-0.6956;
422.1000;0.8083;-0.6956;
422.4000;0.8091;-0.6981;
422.7000;0.8091;-0.7006;
423.0000;0.8107;-0.6981;
423.3000;0.8099;-0.7006;
423.6000;0.8091;-0.7006;
423.9000;0.8091;-0.6981;
424.2000;0.8124;-0.6857;
424.5000;0.8091;-0.6907;
424.8000;0.8099;-0.6907;
425.1000;0.8083;-0.6907;
425.4000;0.8099;-0.6832;
425.7000;0.8002;-0.7081;
426.0000;0.8075;-0.6956;
426.3000;0.8091;-0.6956;
426.6000;0.8107;-0.7006;
426.9000;0.8091;-0.7081;
427.2000;0.8116;-0.6956;
427.5000;0.8075;-0.7106;
427.8000;0.8083;-0.6981;
428.1000;0.8116;-0.6931;
428.4000;0.8099;-0.7031;
428.7000;0.8099;-0.7031;
429.0000;0.8091;-0.7056;
429.3000;0.8091;-0.6956;
429.6000;0.8107;-0.6956;
429.9000;0.8091;-0.7006;
430.2000;0.8091;-0.7006;
430.5000;0.8091;-0.6981;
430.8000;0.8091;-0.7006;
431.1000;0.8099;-0.6956;
431.4000;0.8083;-0.6931;
431.7000;0.8107;-0.6832;
432.0000;0.8099;-0.6782;
432.3000;0.8091;-0.6857;
432.6000;0.8091;-0.6882;
432.9000;0.8099;-0.6882;
433.2000;0.8091;-0.6857;
433.5000;0.8099;-0.6956;
433.8000;0.8091;-0.7031;
434.1000;0.8083;-0.7056;
434.4000;0.8083;-0.7156;
434.7000;0.8107;-0.7131;
435.0000;0.8091;-0.7156;
435.3000;0.8075;-0.7156;
435.6000;0.8107;-0.7006;
435.9000;0.8091;-0.7056;
436.2000;0.8083;-0.7031;
436.5000;0.8189;-0.6832;
436.8000;0.8099;-0.7031;
437.1000;0.8107;-0.7056;
437.4000;0.8091;-0.7081;
437.7000;0.8075;-0.7056;
438.0000;0.8075;-0.7056;
438.3000;0.8148;-0.6907;
438.6000;0.8091;-0.7031;
438.9000;0.8059;-0.7106;
439.2000;0.8083;-0.6981;
439.5000;0.8075;-0.7006;
439.8000;0.8075;-0.7156;
440.1000;0.8067;-0.7206;
440.4000;0.8067;-0.7156;
440.7000;0.8099;-0.7156;
441.0000;0.8099;-0.7256;
441.3000;0.8156;-0.7156;
441.6000;0.8091;-0.7330;
441.9000;0.8042;-0.7405;
442.2000;0.8091;-0.7106;
442.5000;0.8042;-0.7355;
442.8000;0.8083;-0.7206;
443.1000;0.8107;-0.7206;
443.4000;0.8099;-0.7131;
443.7000;0.8091;-0.6956;
444.0000;0.8124;-0.6931;
444.3000;0.8099;-0.7056;
444.6000;0.8140;-0.6931;
444.9000;0.8091;-0.7006;
445.2000;0.8083;-0.7031;
445.5000;0.8083;-0.6981;
445.8000;0.8107;-0.6956;
446.1000;0.8091;-0.6931;
446.4000;0.8091;-0.7031;
446.7000;0.8099;-0.7006;
447.0000;0.8091;-0.6981;
447.3000;0.8107;-0.6956;
447.6000;0.8083;-0.7031;
447.9000;0.8067;-0.7106;
448.2000;0.8075;-0.6981;
448.5000;0.8083;-0.6956;
448.8000;0.8099;-0.7081;
449.1000;0.8075;-0.7181;
449.4000;0.8148;-0.6981;
449.7000;0.8124;-0.6956;
450.0000;0.8067;-0.7031;
450.3000;0.8010;-0.7231;
450.6000;0.8075;-0.7081;
450.9000;0.8042;-0.7156;
451.2000;0.8107;-0.6956;
451.5000;0.8083;-0.6981;
451.8000;0.8026;-0.7081;
452.1000;0.8099;-0.6907;
452.4000;0.8091;-0.6857;
452.7000;0.8083;-0.6832;
453.0000;0.8099;-0.6807;
453.3000;0.8083;-0.6857;
453.6000;0.8083;-0.6682;
453.9000;0.8042;-0.6707;
454.2000;0.8018;-0.6782;
454.5000;0.8075;-0.6782;
454.8000;0.8075;-0.6857;
455.1000;0.7953;-0.7206;
455.4000;0.8091;-0.6857;
455.7000;0.8075;-0.6956;
456.0000;0.8059;-0.7056;
456.3000;0.8091;-0.6931;
456.6000;0.8059;-0.6956;
456.9000;0.8067;-0.6907;
457.2000;0.8091;-0.6907;
457.5000;0.8083;-0.6931;
457.8000;0.8091;-0.6882;
458.1000;0.8083;-0.6931;
458.4000;0.8075;-0.6931;
458.7000;0.8083;-0.6832;
459.0000;0.8091;-0.6857;
459.3000;0.8067;-0.6931;
459.6000;0.8067;-0.7081;
459.9000;0.8075;-0.7006;
460.2000;0.8067;-0.6956;
460.5000;0.8059;-0.6882;
460.8000;0.8042;-0.6931;
461.1000;0.8075;-0.6882;
461.4000;0.8091;-0.6931;
461.7000;0.8116;-0.7006;
462.0000;0.8042;-0.7231;
462.3000;0.8059;-0.7231;
462.6000;0.8099;-0.7056;
462.9000;0.8050;-0.7106;
463.2000;0.8083;-0.7056;
463.5000;0.8050;-0.7056;
463.8000;0.8067;-0.6981;
464.1000;0.8083;-0.6956;
464.4000;0.8067;-0.7006;
464.7000;0.8075;-0.7006;
465.0000;0.8075;-0.7056;
465.3000;0.8067;-0.6956;
465.6000;0.8018;-0.7131;
465.9000;0.8067;-0.6931;
466.2000;0.8059;-0.6956;
466.5000;0.8148;-0.6807;
466.8000;0.8050;-0.7031;
467.1000;0.8067;-0.7056;
467.4000;0.8099;-0.7006;
467.7000;0.8075;-0.6981;
468.0000;0.8018;-0.7031;
468.3000;0.8075;-0.6931;
468.6000;0.8059;-0.7006;
468.9000;0.8075;-0.6907;
469.2000;0.8075;-0.6931;
469.5000;0.8067;-0.7031;
469.8000;0.8050;-0.7056;
470.1000;0.8059;-0.7006;
470.4000;0.8059;-0.6981;
470.7000;0.8083;-0.6956;
471.0000;0.8059;-0.7031;
471.3000;0.8050;-0.6981;
471.6000;0.8067;-0.6931;
471.9000;0.8042;-0.7056;
472.2000;0.8075;-0.6981;
472.5000;0.8091;-0.6931;
472.8000;0.8083;-0.6931;
473.1000;0.8059;-0.7031;
473.4000;0.8132;-0.6807;
473.7000;0.8067;-0.7006;
474.0000;0.8099;-0.6956;
474.3000;0.8026;-0.7056;
474.6000;0.8067;-0.6832;
474.9000;0.8034;-0.6832;
475.2000;0.8075;-0.6732;
475.5000;0.8059;-0.6707;
475.8000;0.8002;-0.6857;
476.1000;0.8050;-0.6807;
476.4000;0.8075;-0.6857;
476.7000;0.8050;-0.6857;
477.0000;0.8132;-0.6657;
477.3000;0.8091;-0.6807;
477.6000;0.8107;-0.6832;
477.9000;0.8083;-0.6931;
478.2000;0.8083;-0.6981;
478.5000;0.8083;-0.6931;
478.8000;0.8075;-0.6956;
479.1000;0.8059;-0.6907;
479.4000;0.8075;-0.6832;
479.7000;0.8075;-0.6807;
480.0000;0.8067;-0.6732;
480.3000;0.8059;-0.6782;
480.6000;0.8067;-0.6757;
480.9000;0.8075;-0.6782;
481.2000;0.8075;-0.6782;
481.5000;0.8059;-0.6907;
481.8000;0.8083;-0.6931;
482.1000;0.8067;-0.7006;
482.4000;0.8075;-0.7081;
482.7000;0.8075;-0.7081;
483.0000;0.8164;-0.6807;
483.3000;0.8059;-0.7006;
483.6000;0.8075;-0.7031;
483.9000;0.8156;-0.6857;
484.2000;0.8083;-0.7031;
484.5000;0.8075;-0.6981;
484.8000;0.8067;-0.6956;
485.1000;0.8059;-0.7081;
485.4000;0.8067;-0.7106;
485.7000;0.8083;-0.6981;
486.0000;0.8042;-0.7156;
486.3000;0.8042;-0.7131;
486.6000;0.8067;-0.7106;
486.9000;0.8091;-0.7006;
487.2000;0.8067;-0.6882;
487.5000;0.8083;-0.6807;
487.8000;0.8083;-0.6807;
488.1000;0.8091;-0.6807;
488.4000;0.8083;-0.6782;
488.7000;0.8042;-0.6931;
489.0000;0.8075;-0.6931;
489.3000;0.8067;-0.6956;
489.6000;0.8042;-0.7006;
489.9000;0.8042;-0.7056;
490.2000;0.8042;-0.6981;
490.5000;0.8083;-0.6907;
490.8000;0.8075;-0.6832;
491.1000;0.8059;-0.6807;
491.4000;0.8067;-0.6882;
491.7000;0.8042;-0.7056;
492.0000;0.8083;-0.6907;
492.3000;0.8075;-0.6857;
492.6000;0.8034;-0.6882;
492.9000;0.8067;-0.6832;
493.2000;0.8099;-0.6832;
493.5000;0.8099;-0.6757;
493.8000;0.8075;-0.6832;
494.1000;0.8059;-0.6782;
494.4000;0.8059;-0.6707;
494.7000;0.8091;-0.6682;
495.0000;0.8050;-0.6807;
495.3000;0.8059;-0.6732;
495.6000;0.8067;-0.6682;
495.9000;0.8083;-0.6657;
496.2000;0.8059;-0.6657;
496.5000;0.8099;-0.6557;
496.8000;0.8042;-0.6682;
497.1000;0.8059;-0.6607;
497.4000;0.8050;-0.6707;
497.7000;0.8034;-0.6807;
498.0000;0.8059;-0.6732;
498.3000;0.8050;-0.6707;
498.6000;0.8132;-0.6433;
498.9000;0.7993;-0.6782;
499.2000;0.8042;-0.6632;
499.5000;0.8099;-0.6508;
499.8000;0.8075;-0.6582;
500.1000;0.8050;-0.6607;
500.4000;0.8018;-0.6707;
500.7000;0.8059;-0.6732;
501.0000;0.8050;-0.6807;
501.3000;0.8059;-0.6882;
501.6000;0.8050;-0.6931;
501.9000;0.8050;-0.6907;
502.2000;0.8083;-0.6807;
502.5000;0.8059;-0.6757;
502.8000;0.8075;-0.6707;
503.1000;0.8059;-0.6732;
503.4000;0.8075;-0.6657;
503.7000;0.8067;-0.6632;
504.0000;0.8050;-0.6632;
504.3000;0.8075;-0.6582;
504.6000;0.8059;-0.6533;
504.9000;0.8050;-0.6483;
505.2000;0.8059;-0.6483;
505.5000;0.8050;-0.6557;
505.8000;0.8050;-0.6632;
506.1000;0.8059;-0.6657;
506.4000;0.8034;-0.6757;
506.7000;0.8075;-0.6682;
507.0000;0.8050;-0.6682;
507.3000;0.8050;-0.6682;
507.6000;0.8059;-0.6582;
507.9000;0.8050;-0.6632;
508.2000;0.8034;-0.6607;
508.5000;0.8010;-0.6607;
508.8000;0.8075;-0.6483;
509.1000;0.8050;-0.6582;
509.4000;0.8026;-0.6657;
509.7000;0.8050;-0.6557;
510.0000;0.8059;-0.6557;
510.3000;0.8042;-0.6632;
510.6000;0.8034;-0.6582;
510.9000;0.8050;-0.6533;
511.2000;0.8042;-0.6557;
511.5000;0.8042;-0.6483;
511.8000;0.8075;-0.6433;
512.1000;0.8050;-0.6632;
512.4000;0.8050;-0.6657;
512.7000;0.8059;-0.6682;
513.0000;0.8034;-0.6632;
513.3000;0.8067;-0.6483;
513.6000;0.8091;-0.6408;
513.9000;0.8034;-0.6582;
514.2000;0.8059;-0.6557;
514.5000;0.8124;-0.6433;
514.8000;0.8050;-0.6582;
515.1000;0.8050;-0.6533;
515.4000;0.8059;-0.6582;
515.7000;0.8050;-0.6657;
516.0000;0.8075;-0.6632;
516.3000;0.8050;-0.6632;
516.6000;0.8010;-0.6557;
516.9000;0.8010;-0.6508;
517.2000;0.8050;-0.6358;
517.5000;0.8034;-0.6283;
517.8000;0.8042;-0.6333;
518.1000;0.8034;-0.6258;
518.4000;0.8059;-0.6258;
518.7000;0.8042;-0.6283;
519.0000;0.8050;-0.6308;
519.3000;0.8091;-0.6183;
519.6000;0.8034;-0.6358;
519.9000;0.8050;-0.6258;
520.2000;0.8042;-0.6333;
520.5000;0.8050;-0.6358;
520.8000;0.8050;-0.6408;
521.1000;0.8042;-0.6483;
521.4000;0.8026;-0.6557;
521.7000;0.8116;-0.6333;
522.0000;0.8042;-0.6582;
522.3000;0.8034;-0.6682;
522.6000;0.8059;-0.6557;
522.9000;0.8059;-0.6582;
523.2000;0.8050;-0.6657;
523.5000;0.8042;-0.6632;
523.8000;0.8059;-0.6657;
524.1000;0.8042;-0.6707;
524.4000;0.8034;-0.6657;
524.7000;0.8050;-0.6632;
525.0000;0.8050;-0.6557;
525.3000;0.8050;-0.6557;
525.6000;0.8042;-0.6657;
525.9000;0.8042;-0.6607;
526.2000;0.8050;-0.6682;
526.5000;0.8067;-0.6557;
526.8000;0.8034;-0.6533;
527.1000;0.8050;-0.6483;
527.4000;0.8042;-0.6508;
527.7000;0.8026;-0.6582;
528.0000;0.8059;-0.6508;
528.3000;0.8026;-0.6582;
528.6000;0.8018;-0.6508;
528.9000;0.8034;-0.6433;
529.2000;0.8042;-0.6483;
529.5000;0.8067;-0.6283;
529.8000;0.8034;-0.6433;
530.1000;0.8034;-0.6383;
530.4000;0.8018;-0.6533;
530.7000;0.8026;-0.6557;
531.0000;0.8034;-0.6508;
531.3000;0.8091;-0.6358;
531.6000;0.8002;-0.6508;
531.9000;0.8042;-0.6483;
532.2000;0.8026;-0.6508;
532.5000;0.8010;-0.6533;
532.8000;0.8059;-0.6358;
533.1000;0.8050;-0.6458;
533.4000;0.8059;-0.6433;
533.7000;0.8034;-0.6508;
534.0000;0.8059;-0.6508;
534.3000;0.8010;-0.6732;
534.6000;0.8067;-0.6607;
534.9000;0.8042;-0.6632;
535.2000;0.8050;-0.6607;
535.5000;0.8107;-0.6433;
535.8000;0.8042;-0.6582;
536.1000;0.8026;-0.6632;
536.4000;0.8002;-0.6632;
536.7000;0.8002;-0.6632;
537.0000;0.8059;-0.6408;
537.3000;0.8050;-0.6458;
537.6000;0.8050;-0.6533;
537.9000;0.8075;-0.6433;
538.2000;0.8059;-0.6433;
538.5000;0.8042;-0.6458;
538.8000;0.8099;-0.6358;
539.1000;0.8050;-0.6433;
539.4000;0.8067;-0.6557;
539.7000;0.8091;-0.6557;
540.0000;0.8050;-0.6632;
540.3000;0.8050;-0.6657;
540.6000;0.8034;-0.6682;
540.9000;0.8026;-0.6657;
541.2000;0.8026;-0.6632;
541.5000;0.8042;-0.6707;
541.8000;0.8042;-0.6607;
542.1000;0.8042;-0.6632;
542.4000;0.8018;-0.6632;
542.7000;0.8026;-0.6607;
543.0000;0.8034;-0.6508;
543.3000;0.8042;-0.6557;
543.6000;0.8034;-0.6557;
543.9000;0.8091;-0.6433;
544.2000;0.8050;-0.6508;
544.5000;0.8042;-0.6458;
544.8000;0.8042;-0.6358;
545.1000;0.8059;-0.6358;
545.4000;0.8026;-0.6483;
545.7000;0.8026;-0.6557;
546.0000;0.8050;-0.6582;
546.3000;0.8026;-0.6582;
546.6000;0.8034;-0.6657;
546.9000;0.8034;-0.6757;
547.2000;0.8050;-0.6782;
547.5000;0.8042;-0.6807;
547.8000;0.8083;-0.6757;
548.1000;0.8050;-0.6782;
548.4000;0.8050;-0.6807;
548.7000;0.8026;-0.6782;
549.0000;0.8026;-0.6682;
549.3000;0.8050;-0.6682;
549.6000;0.8050;-0.6657;
549.9000;0.8050;-0.6582;
550.2000;0.8034;-0.6557;
550.5000;0.8067;-0.6607;
550.8000;0.8059;-0.6682;
551.1000;0.8050;-0.6732;
551.4000;0.8034;-0.6757;
551.7000;0.8026;-0.6757;
552.0000;0.8034;-0.6732;
552.3000;0.8026;-0.6732;
552.6000;0.8018;-0.6707;
552.9000;0.8010;-0.6682;
553.2000;0.8018;-0.6707;
553.5000;0.8018;-0.6757;
553.8000;0.7993;-0.6782;
554.1000;0.8034;-0.6632;
554.4000;0.8050;-0.6582;
554.7000;0.8018;-0.6657;
555.0000;0.8034;-0.6657;
555.3000;0.8059;-0.6657;
555.6000;0.8026;-0.6682;
555.9000;0.8067;-0.6657;
556.2000;0.8034;-0.6807;
556.5000;0.8018;-0.6807;
556.8000;0.8042;-0.6682;
557.1000;0.8026;-0.6707;
557.4000;0.8034;-0.6657;
557.7000;0.8026;-0.6682;
558.0000;0.8034;-0.6632;
558.3000;0.8042;-0.6707;
558.6000;0.8050;-0.6657;
558.9000;0.8042;-0.6732;
559.2000;0.8042;-0.6732;
559.5000;0.7993;-0.6807;
559.8000;0.8010;-0.6807;
560.1000;0.8042;-0.6782;
560.4000;0.8042;-0.6732;
560.7000;0.8026;-0.6757;
561.0000;0.8042;-0.6657;
561.3000;0.8026;-0.6682;
561.6000;0.8010;-0.6732;
561.9000;0.8034;-0.6682;
562.2000;0.8034;-0.6632;
562.5000;0.8042;-0.6632;
562.8000;0.8026;-0.6607;
563.1000;0.8034;-0.6657;
563.4000;0.8042;-0.6582;
563.7000;0.8083;-0.6483;
564.0000;0.8059;-0.6533;
564.3000;0.8034;-0.6557;
564.6000;0.8042;-0.6508;
564.9000;0.8050;-0.6557;
565.2000;0.8026;-0.6657;
565.5000;0.8026;-0.6582;
565.8000;0.8099;-0.6383;
566.1000;0.8026;-0.6557;
566.4000;0.8042;-0.6557;
566.7000;0.8034;-0.6657;
567.0000;0.8018;-0.6757;
567.3000;0.8018;-0.6732;
567.6000;0.8026;-0.6832;
567.9000;0.8034;-0.6782;
568.2000;0.8010;-0.6807;
568.5000;0.8026;-0.6857;
568.8000;0.8034;-0.6782;
569.1000;0.8042;-0.6707;
569.4000;0.8083;-0.6607;
569.7000;0.8026;-0.6757;
570.0000;0.8067;-0.6657;
570.3000;0.8026;-0.6782;
570.6000;0.8034;-0.6832;
570.9000;0.8018;-0.6807;
571.2000;0.8059;-0.6732;
571.5000;0.8034;-0.6782;
571.8000;0.8042;-0.6782;
572.1000;0.8010;-0.6882;
572.4000;0.8034;-0.6857;
572.7000;0.8018;-0.6882;
573.0000;0.8034;-0.6807;
573.3000;0.8026;-0.6757;
573.6000;0.7969;-0.6931;
573.9000;0.7985;-0.6907;
574.2000;0.8034;-0.6632;
574.5000;0.8018;-0.6682;
574.8000;0.8042;-0.6682;
575.1000;0.8018;-0.6707;
575.4000;0.8018;-0.6682;
575.7000;0.8083;-0.6533;
576.0000;0.8034;-0.6657;
576.3000;0.8026;-0.6682;
576.6000;0.8010;-0.6707;
576.9000;0.8018;-0.6657;
577.2000;0.8018;-0.6732;
577.5000;0.8042;-0.6732;
577.8000;0.8042;-0.6682;
578.1000;0.8042;-0.6707;
578.4000;0.8002;-0.6707;
578.7000;0.8034;-0.6732;
579.0000;0.8034;-0.6657;
579.3000;0.8034;-0.6607;
579.6000;0.8034;-0.6508;
579.9000;0.8034;-0.6533;
580.2000;0.8034;-0.6582;
580.5000;0.8026;-0.6508;
580.8000;0.8034;-0.6557;
581.1000;0.7985;-0.6632;
581.4000;0.8018;-0.6533;
581.7000;0.8067;-0.6408;
582.0000;0.8002;-0.6732;
582.3000;0.7985;-0.6757;
582.6000;0.8042;-0.6533;
582.9000;0.8026;-0.6632;
583.2000;0.8034;-0.6707;
583.5000;0.8026;-0.6657;
583.8000;0.8026;-0.6557;
584.1000;0.8034;-0.6557;
584.4000;0.8099;-0.6433;
584.7000;0.8026;-0.6682;
585.0000;0.8042;-0.6582;
585.3000;0.8026;-0.6632;
585.6000;0.8034;-0.6533;
585.9000;0.8026;-0.6582;
586.2000;0.8026;-0.6557;
586.5000;0.8026;-0.6557;
586.8000;0.7993;-0.6657;
587.1000;0.8018;-0.6732;
587.4000;0.8026;-0.6832;
587.7000;0.7969;-0.6981;
588.0000;0.7993;-0.6931;
588.3000;0.8026;-0.6832;
588.6000;0.8010;-0.6782;
588.9000;0.7977;-0.6832;
589.2000;0.8002;-0.6782;
589.5000;0.8026;-0.6832;
589.8000;0.7993;-0.6882;
590.1000;0.8010;-0.6757;
590.4000;0.8042;-0.6732;
590.7000;0.8026;-0.6782;
591.0000;0.8034;-0.6782;
591.3000;0.7969;-0.6857;
591.6000;0.8026;-0.6757;
591.9000;0.8042;-0.6782;
592.2000;0.8034;-0.6757;
592.5000;0.8010;-0.6782;
592.8000;0.8010;-0.6707;
593.1000;0.8010;-0.6732;
593.4000;0.8018;-0.6757;
593.7000;0.8002;-0.6757;
594.0000;0.8010;-0.6657;
594.3000;0.8018;-0.6707;
594.6000;0.8010;-0.6707;
594.9000;0.8002;-0.6757;
595.2000;0.8034;-0.6682;
595.5000;0.8050;-0.6707;
595.8000;0.8034;-0.6657;
596.1000;0.8002;-0.6657;
596.4000;0.8026;-0.6657;
596.7000;0.8018;-0.6632;
597.0000;0.8042;-0.6557;
597.3000;0.8026;-0.6533;
597.6000;0.8018;-0.6582;
597.9000;0.7985;-0.6657;
598.2000;0.8018;-0.6582;
598.5000;0.7993;-0.6732;
598.8000;0.8034;-0.6682;
599.1000;0.8026;-0.6607;
599.4000;0.8026;-0.6458;
599.7000;0.8018;-0.6557;
600.0000;0.7928;-0.6707;
600.3000;0.8034;-0.6533;
600.6000;0.7912;-0.6832;
600.9000;0.7757;-0.7131;
601.2000;0.7619;-0.7305;
601.5000;0.7481;-0.7355;
601.8000;0.7269;-0.7729;
602.1000;0.7106;-0.8103;
602.4000;0.6960;-0.8303;
602.7000;0.6797;-0.8602;
603.0000;0.6667;-0.8801;
603.3000;0.6569;-0.8901;
603.6000;0.6447;-0.9076;
603.9000;0.6349;-0.9250;
604.2000;0.6268;-0.9450;
604.5000;0.6178;-0.9500;
604.8000;0.6105;-0.9624;
605.1000;0.6024;-0.9749;
605.4000;0.6007;-0.9774;
605.7000;0.5926;-0.9973;
606.0000;0.5885;-0.9998;
606.3000;0.5796;-1.0148;
606.6000;0.5804;-1.0023;
606.9000;0.5722;-1.0173;
607.2000;0.5682;-1.0173;
607.5000;0.5625;-1.0322;
607.8000;0.5543;-1.0447;
608.1000;0.5543;-1.0472;
608.4000;0.5576;-1.0297;
608.7000;0.5470;-1.0447;
609.0000;0.5446;-1.0472;
609.3000;0.5421;-1.0497;
609.6000;0.5397;-1.0597;
609.9000;0.5372;-1.0547;
610.2000;0.5348;-1.0647;
610.5000;0.5299;-1.0671;
610.8000;0.5291;-1.0547;
611.1000;0.5275;-1.0597;
611.4000;0.5234;-1.0696;
611.7000;0.5210;-1.0721;
612.0000;0.5201;-1.0721;
612.3000;0.5193;-1.0771;
612.6000;0.5169;-1.0846;
612.9000;0.5144;-1.0971;
613.2000;0.5161;-1.0871;
613.5000;0.5136;-1.0946;
613.8000;0.5096;-1.1070;
614.1000;0.5088;-1.1120;
614.4000;0.5079;-1.1045;
614.7000;0.5071;-1.1021;
615.0000;0.5047;-1.1021;
615.3000;0.5031;-1.1045;
615.6000;0.5039;-1.0971;
615.9000;0.5014;-1.1021;
616.2000;0.4965;-1.1095;
616.5000;0.4965;-1.1095;
616.8000;0.4965;-1.1120;
617.1000;0.4908;-1.1220;
617.4000;0.4974;-1.1045;
617.7000;0.4957;-1.0996;
618.0000;0.4941;-1.0946;
618.3000;0.4917;-1.0921;
618.6000;0.4900;-1.1095;
618.9000;0.4917;-1.1045;
619.2000;0.4892;-1.1095;
619.5000;0.4827;-1.1170;
619.8000;0.4860;-1.0921;
620.1000;0.4868;-1.0821;
620.4000;0.4851;-1.0871;
620.7000;0.4884;-1.0846;
621.0000;0.4876;-1.0871;
621.3000;0.4835;-1.0946;
621.6000;0.4827;-1.1021;
621.9000;0.4827;-1.0996;
622.2000;0.4819;-1.0946;
622.5000;0.4794;-1.1145;
622.8000;0.4713;-1.1370;
623.1000;0.4778;-1.1195;
623.4000;0.4770;-1.1195;
623.7000;0.4778;-1.1245;
624.0000;0.4762;-1.1295;
624.3000;0.4770;-1.1320;
624.6000;0.4672;-1.1619;
624.9000;0.4746;-1.1419;
625.2000;0.4762;-1.1370;
625.5000;0.4786;-1.1245;
625.8000;0.4746;-1.1220;
626.1000;0.4729;-1.1220;
626.4000;0.4664;-1.1270;
626.7000;0.4729;-1.1095;
627.0000;0.4713;-1.1170;
627.3000;0.4754;-1.1070;
627.6000;0.4729;-1.1295;
627.9000;0.4705;-1.1320;
628.2000;0.4705;-1.1370;
628.5000;0.4689;-1.1320;
628.8000;0.4689;-1.1295;
629.1000;0.4632;-1.1494;
629.4000;0.4729;-1.1195;
629.7000;0.4632;-1.1469;
630.0000;0.4681;-1.1320;
630.3000;0.4681;-1.1370;
630.6000;0.4697;-1.1295;
630.9000;0.4681;-1.1295;
631.2000;0.4672;-1.1270;
631.5000;0.4672;-1.1295;
631.8000;0.4681;-1.1320;
632.1000;0.4672;-1.1270;
632.4000;0.4656;-1.1245;
632.7000;0.4648;-1.1320;
633.0000;0.4640;-1.1395;
633.3000;0.4648;-1.1419;
633.6000;0.4656;-1.1295;
633.9000;0.4640;-1.1320;
634.2000;0.4640;-1.1370;
634.5000;0.4640;-1.1320;
634.8000;0.4624;-1.1395;
635.1000;0.4615;-1.1320;
635.4000;0.4607;-1.1295;
635.7000;0.4615;-1.1345;
636.0000;0.4632;-1.1345;
636.3000;0.4591;-1.1320;
636.6000;0.4624;-1.1295;
636.9000;0.4632;-1.1245;
637.2000;0.4615;-1.1270;
637.5000;0.4624;-1.1245;
637.8000;0.4632;-1.1270;
638.1000;0.4591;-1.1345;
638.4000;0.4615;-1.1245;
638.7000;0.4599;-1.1195;
639.0000;0.4583;-1.1295;
639.3000;0.4591;-1.1295;
639.6000;0.4615;-1.1270;
639.9000;0.4575;-1.1370;
640.2000;0.4567;-1.1419;
640.5000;0.4575;-1.1444;
640.8000;0.4558;-1.1444;
641.1000;0.4567;-1.1469;
641.4000;0.4575;-1.1395;
641.7000;0.4542;-1.1494;
642.0000;0.4558;-1.1419;
642.3000;0.4583;-1.1320;
642.6000;0.4591;-1.1170;
642.9000;0.4558;-1.1370;
643.2000;0.4558;-1.1395;
643.5000;0.4542;-1.1370;
643.8000;0.4550;-1.1245;
644.1000;0.4534;-1.1170;
644.4000;0.4534;-1.1145;
644.7000;0.4583;-1.1095;
645.0000;0.4542;-1.1170;
645.3000;0.4526;-1.1245;
645.6000;0.4510;-1.1295;
645.9000;0.4501;-1.1295;
646.2000;0.4518;-1.1270;
646.5000;0.4558;-1.1170;
646.8000;0.4518;-1.1345;
647.1000;0.4510;-1.1320;
647.4000;0.4501;-1.1295;
647.7000;0.4526;-1.1245;
648.0000;0.4510;-1.1345;
648.3000;0.4493;-1.1320;
648.6000;0.4518;-1.1295;
648.9000;0.4510;-1.1270;
649.2000;0.4518;-1.1220;
649.5000;0.4501;-1.1245;
649.8000;0.4510;-1.1320;
650.1000;0.4493;-1.1320;
650.4000;0.4485;-1.1320;
650.7000;0.4550;-1.1220;
651.0000;0.4485;-1.1419;
651.3000;0.4501;-1.1370;
651.6000;0.4469;-1.1370;
651.9000;0.4485;-1.1295;
652.2000;0.4436;-1.1320;
652.5000;0.4493;-1.1170;
652.8000;0.4469;-1.1245;
653.1000;0.4477;-1.1195;
653.4000;0.4477;-1.1220;
653.7000;0.4453;-1.1245;
654.0000;0.4469;-1.1220;
654.3000;0.4453;-1.1245;
654.6000;0.4477;-1.1220;
654.9000;0.4461;-1.1245;
655.2000;0.4453;-1.1270;
655.5000;0.4477;-1.1220;
655.8000;0.4461;-1.1220;
656.1000;0.4444;-1.1245;
656.4000;0.4469;-1.1270;
656.7000;0.4436;-1.1370;
657.0000;0.4436;-1.1345;
657.3000;0.4444;-1.1245;
657.6000;0.4453;-1.1195;
657.9000;0.4444;-1.1145;
658.2000;0.4428;-1.1170;
658.5000;0.4461;-1.1145;
658.8000;0.4461;-1.1170;
659.1000;0.4444;-1.1245;
659.4000;0.4428;-1.1320;
659.7000;0.4436;-1.1245;
660.0000;0.4420;-1.1345;
660.3000;0.4420;-1.1370;
660.6000;0.4428;-1.1245;
660.9000;0.4436;-1.1220;
661.2000;0.4387;-1.1370;
661.5000;0.4420;-1.1295;
661.8000;0.4436;-1.1295;
662.1000;0.4428;-1.1345;
662.4000;0.4420;-1.1320;
662.7000;0.4428;-1.1444;
663.0000;0.4428;-1.1469;
663.3000;0.4436;-1.1419;
663.6000;0.4412;-1.1395;
663.9000;0.4420;-1.1395;
664.2000;0.4428;-1.1345;
664.5000;0.4420;-1.1395;
664.8000;0.4396;-1.1370;
665.1000;0.4404;-1.1320;
665.4000;0.4404;-1.1345;
665.7000;0.4444;-1.1270;
666.0000;0.4412;-1.1469;
666.3000;0.4396;-1.1494;
666.6000;0.4436;-1.1370;
666.9000;0.4387;-1.1395;
667.2000;0.4387;-1.1295;
667.5000;0.4379;-1.1320;
667.8000;0.4379;-1.1320;
668.1000;0.4404;-1.1295;
668.4000;0.4404;-1.1345;
668.7000;0.4420;-1.1245;
669.0000;0.4379;-1.1295;
669.3000;0.4387;-1.1320;
669.6000;0.4404;-1.1270;
669.9000;0.4355;-1.1345;
670.2000;0.4379;-1.1370;
670.5000;0.4363;-1.1444;
670.8000;0.4387;-1.1395;
671.1000;0.4379;-1.1320;
671.4000;0.4420;-1.1170;
671.7000;0.4363;-1.1170;
672.0000;0.4371;-1.1120;
672.3000;0.4379;-1.1120;
672.6000;0.4387;-1.1120;
672.9000;0.4371;-1.1070;
673.2000;0.4387;-1.1045;
673.5000;0.4387;-1.1021;
673.8000;0.4355;-1.1045;
674.1000;0.4371;-1.1021;
674.4000;0.4387;-1.1045;
674.7000;0.4396;-1.1070;
675.0000;0.4387;-1.1095;
675.3000;0.4363;-1.1270;
675.6000;0.4363;-1.1245;
675.9000;0.4371;-1.1245;
676.2000;0.4371;-1.1245;
676.5000;0.4347;-1.1270;
676.8000;0.4347;-1.1245;
677.1000;0.4355;-1.1345;
677.4000;0.4371;-1.1295;
677.7000;0.4355;-1.1395;
678.0000;0.4306;-1.1419;
678.3000;0.4339;-1.1320;
678.6000;0.4363;-1.1295;
678.9000;0.4330;-1.1370;
679.2000;0.4339;-1.1245;
679.5000;0.4355;-1.1295;
679.8000;0.4330;-1.1245;
680.1000;0.4339;-1.1220;
680.4000;0.4322;-1.1170;
680.7000;0.4355;-1.1220;
681.0000;0.4387;-1.1170;
681.3000;0.4347;-1.1295;
681.6000;0.4339;-1.1370;
681.9000;0.4347;-1.1370;
682.2000;0.4355;-1.1170;
682.5000;0.4314;-1.1170;
682.8000;0.4330;-1.1220;
683.1000;0.4371;-1.1170;
683.4000;0.4363;-1.1245;
683.7000;0.4330;-1.1345;
684.0000;0.4322;-1.1320;
684.3000;0.4347;-1.1245;
684.6000;0.4314;-1.1270;
684.9000;0.4314;-1.1295;
685.2000;0.4314;-1.1170;
685.5000;0.4290;-1.1245;
685.8000;0.4306;-1.1170;
686.1000;0.4306;-1.1270;
686.4000;0.4322;-1.1220;
686.7000;0.4306;-1.1245;
687.0000;0.4330;-1.1220;
687.3000;0.4322;-1.1170;
687.6000;0.4314;-1.1270;
687.9000;0.4306;-1.1320;
688.2000;0.4330;-1.1220;
688.5000;0.4298;-1.1145;
688.8000;0.4314;-1.1120;
689.1000;0.4314;-1.1095;
689.4000;0.4306;-1.1145;
689.7000;0.4339;-1.1070;
690.0000;0.4412;-1.0946;
690.3000;0.4298;-1.1220;
690.6000;0.4257;-1.1220;
690.9000;0.4249;-1.1295;
691.2000;0.4290;-1.1045;
691.5000;0.4290;-1.1120;
691.8000;0.4282;-1.1195;
692.1000;0.4282;-1.1220;
692.4000;0.4355;-1.0996;
692.7000;0.4314;-1.1120;
693.0000;0.4298;-1.1095;
693.3000;0.4282;-1.1145;
693.6000;0.4290;-1.1045;
693.9000;0.4241;-1.1120;
694.2000;0.4298;-1.1045;
694.5000;0.4282;-1.1070;
694.8000;0.4282;-1.1120;
695.1000;0.4274;-1.1220;
695.4000;0.4265;-1.1195;
695.7000;0.4274;-1.1070;
696.0000;0.4249;-1.1095;
696.3000;0.4282;-1.1070;
696.6000;0.4282;-1.1095;
696.9000;0.4265;-1.1145;
697.2000;0.4282;-1.1070;
697.5000;0.4282;-1.0946;
697.8000;0.4257;-1.0996;
698.1000;0.4265;-1.0971;
698.4000;0.4282;-1.0946;
698.7000;0.4249;-1.0896;
699.0000;0.4298;-1.0746;
699.3000;0.4274;-1.0771;
699.6000;0.4241;-1.0946;
699.9000;0.4282;-1.0971;
700.2000;0.4282;-1.1045;
700.5000;0.4314;-1.0946;
700.8000;0.4257;-1.0946;
701.1000;0.4282;-1.0846;
701.4000;0.4282;-1.0921;
701.7000;0.4257;-1.1095;
702.0000;0.4265;-1.1120;
702.3000;0.4257;-1.1220;
702.6000;0.4257;-1.1170;
702.9000;0.4249;-1.1070;
703.2000;0.4282;-1.0946;
703.5000;0.4249;-1.0846;
703.8000;0.4192;-1.0971;
704.1000;0.4265;-1.0821;
704.4000;0.4249;-1.0896;
704.7000;0.4233;-1.1021;
705.0000;0.4298;-1.0846;
705.3000;0.4265;-1.0896;
705.6000;0.4257;-1.0971;
705.9000;0.4208;-1.1070;
706.2000;0.4233;-1.1045;
706.5000;0.4249;-1.0996;
706.8000;0.4257;-1.0946;
707.1000;0.4225;-1.1021;
707.4000;0.4274;-1.0921;
707.7000;0.4265;-1.0946;
708.0000;0.4249;-1.1070;
708.3000;0.4233;-1.1095;
708.6000;0.4233;-1.1045;
708.9000;0.4265;-1.0921;
709.2000;0.4225;-1.1021;
709.5000;0.4249;-1.0996;
709.8000;0.4249;-1.1021;
710.1000;0.4241;-1.1045;
710.4000;0.4249;-1.1045;
710.7000;0.4257;-1.1021;
711.0000;0.4241;-1.1045;
711.3000;0.4225;-1.1070;
711.6000;0.4257;-1.1070;
711.9000;0.4184;-1.1195;
712.2000;0.4265;-1.0921;
712.5000;0.4208;-1.0971;
712.8000;0.4233;-1.0946;
713.1000;0.4225;-1.0971;
713.4000;0.4225;-1.0971;
713.7000;0.4265;-1.0846;
714.0000;0.4249;-1.0871;
714.3000;0.4233;-1.0846;
714.6000;0.4225;-1.0846;
714.9000;0.4200;-1.0921;
715.2000;0.4225;-1.0846;
715.5000;0.4225;-1.0896;
715.8000;0.4225;-1.0871;
716.1000;0.4208;-1.0821;
716.4000;0.4200;-1.0846;
716.7000;0.4225;-1.0846;
717.0000;0.4192;-1.1021;
717.3000;0.4200;-1.0971;
717.6000;0.4192;-1.0971;
717.9000;0.4282;-1.0871;
718.2000;0.4225;-1.1021;
718.5000;0.4208;-1.1021;
718.8000;0.4200;-1.1095;
719.1000;0.4225;-1.1145;
719.4000;0.4160;-1.1320;
719.7000;0.4225;-1.1220;
720.0000;0.4192;-1.1245;
720.3000;0.4217;-1.1095;
720.6000;0.4217;-1.1045;
720.9000;0.4217;-1.1045;
721.2000;0.4192;-1.1021;
721.5000;0.4192;-1.0946;
721.8000;0.4274;-1.0746;
722.1000;0.4168;-1.0996;
722.4000;0.4160;-1.1045;
722.7000;0.4192;-1.0996;
723.0000;0.4184;-1.0996;
723.3000;0.4208;-1.0896;
723.6000;0.4257;-1.0721;
723.9000;0.4217;-1.0771;
724.2000;0.4217;-1.0721;
724.5000;0.4208;-1.0821;
724.8000;0.4208;-1.0871;
725.1000;0.4208;-1.0821;
725.4000;0.4192;-1.0821;
725.7000;0.4217;-1.0771;
726.0000;0.4217;-1.0746;
726.3000;0.4192;-1.0647;
726.6000;0.4192;-1.0622;
726.9000;0.4176;-1.0696;
727.2000;0.4200;-1.0721;
727.5000;0.4176;-1.0821;
727.8000;0.4176;-1.0921;
728.1000;0.4192;-1.0921;
728.4000;0.4176;-1.0946;
728.7000;0.4249;-1.0771;
729.0000;0.4200;-1.0921;
729.3000;0.4192;-1.0921;
729.6000;0.4200;-1.0996;
729.9000;0.4192;-1.1070;
730.2000;0.4176;-1.1045;
730.5000;0.4192;-1.1095;
730.8000;0.4192;-1.1145;
731.1000;0.4200;-1.1170;
731.4000;0.4208;-1.1070;
731.7000;0.4160;-1.1120;
732.0000;0.4176;-1.1070;
732.3000;0.4119;-1.1120;
732.6000;0.4184;-1.0946;
732.9000;0.4160;-1.0946;
733.2000;0.4184;-1.0846;
733.5000;0.4176;-1.0921;
733.8000;0.4184;-1.0946;
734.1000;0.4184;-1.1021;
734.4000;0.4176;-1.1120;
734.7000;0.4233;-1.0946;
735.0000;0.4192;-1.0996;
735.3000;0.4192;-1.1021;
735.6000;0.4176;-1.1095;
735.9000;0.4176;-1.1170;
736.2000;0.4225;-1.1095;
736.5000;0.4217;-1.1120;
736.8000;0.4217;-1.1021;
737.1000;0.4103;-1.1270;
737.4000;0.4160;-1.1095;
737.7000;0.4160;-1.1070;
738.0000;0.4176;-1.1021;
738.3000;0.4160;-1.1095;
738.6000;0.4176;-1.1045;
738.9000;0.4176;-1.1120;
739.2000;0.4151;-1.1095;
739.5000;0.4249;-1.0871;
739.8000;0.4233;-1.0921;
740.1000;0.4176;-1.1021;
740.4000;0.4176;-1.0971;
740.7000;0.4176;-1.1021;
741.0000;0.4192;-1.0996;
741.3000;0.4143;-1.1145;
741.6000;0.4208;-1.0871;
741.9000;0.4160;-1.0871;
742.2000;0.4233;-1.0721;
742.5000;0.4119;-1.0971;
742.8000;0.4151;-1.0846;
743.1000;0.4168;-1.0821;
743.4000;0.4176;-1.0921;
743.7000;0.4135;-1.1095;
744.0000;0.4168;-1.0971;
744.3000;0.4151;-1.0946;
744.6000;0.4160;-1.0971;
744.9000;0.4184;-1.0971;
745.2000;0.4176;-1.0921;
745.5000;0.4160;-1.0896;
745.8000;0.4176;-1.0821;
746.1000;0.4176;-1.0821;
746.4000;0.4184;-1.0896;
746.7000;0.4135;-1.0996;
747.0000;0.4176;-1.0921;
747.3000;0.4151;-1.0971;
747.6000;0.4151;-1.0971;
747.9000;0.4151;-1.0846;
748.2000;0.4151;-1.0896;
748.5000;0.4135;-1.0871;
748.8000;0.4160;-1.0821;
749.1000;0.4151;-1.0796;
749.4000;0.4151;-1.0796;
749.7000;0.4151;-1.0821;
750.0000;0.4168;-1.0796;
750.3000;0.4111;-1.0871;
750.6000;0.4168;-1.0597;
750.9000;0.4135;-1.0671;
751.2000;0.4119;-1.0696;
751.5000;0.4135;-1.0671;
751.8000;0.4151;-1.0746;
752.1000;0.4135;-1.0771;
752.4000;0.4151;-1.0721;
752.7000;0.4160;-1.0696;
753.0000;0.4143;-1.0771;
753.3000;0.4151;-1.0771;
753.6000;0.4135;-1.0871;
753.9000;0.4119;-1.0896;
754.2000;0.4103;-1.0946;
754.5000;0.4135;-1.0871;
754.8000;0.4143;-1.0846;
755.1000;0.4151;-1.0871;
755.4000;0.4143;-1.0871;
755.7000;0.4127;-1.0921;
756.0000;0.4135;-1.0871;
756.3000;0.4143;-1.0821;
756.6000;0.4135;-1.0846;
756.9000;0.4127;-1.0896;
757.2000;0.4119;-1.0896;
757.5000;0.4168;-1.0796;
757.8000;0.4119;-1.0946;
758.1000;0.4135;-1.0846;
758.4000;0.4119;-1.0821;
758.7000;0.4127;-1.0871;
759.0000;0.4135;-1.0871;
759.3000;0.4127;-1.0871;
759.6000;0.4217;-1.0597;
759.9000;0.4135;-1.0821;
760.2000;0.4160;-1.0771;
760.5000;0.4143;-1.0796;
760.8000;0.4135;-1.0921;
761.1000;0.4135;-1.0921;
761.4000;0.4135;-1.0896;
761.7000;0.4143;-1.0946;
762.0000;0.4143;-1.0896;
762.3000;0.4151;-1.0871;
762.6000;0.4127;-1.0871;
762.9000;0.4135;-1.0821;
763.2000;0.4127;-1.0771;
763.5000;0.4103;-1.0796;
763.8000;0.4135;-1.0771;
764.1000;0.4127;-1.0896;
764.4000;0.4119;-1.0946;
764.7000;0.4111;-1.0996;
765.0000;0.4119;-1.0946;
765.3000;0.4143;-1.0996;
765.6000;0.4135;-1.1095;
765.9000;0.4135;-1.1070;
766.2000;0.4119;-1.1070;
766.5000;0.4119;-1.1021;
766.8000;0.4119;-1.0996;
767.1000;0.4119;-1.1045;
767.4000;0.4119;-1.0946;
767.7000;0.4094;-1.1021;
768.0000;0.4119;-1.0921;
768.3000;0.4119;-1.0846;
768.6000;0.4094;-1.0821;
768.9000;0.4111;-1.0846;
769.2000;0.4127;-1.0921;
769.5000;0.4119;-1.0946;
769.8000;0.4111;-1.0896;
770.1000;0.4103;-1.0946;
770.4000;0.4111;-1.0921;
770.7000;0.4111;-1.0946;
771.0000;0.4054;-1.1120;
771.3000;0.4111;-1.0946;
771.6000;0.4127;-1.0921;
771.9000;0.4127;-1.0996;
772.2000;0.4111;-1.1021;
772.5000;0.4127;-1.0971;
772.8000;0.4119;-1.0946;
773.1000;0.4111;-1.0896;
773.4000;0.4127;-1.0871;
773.7000;0.4103;-1.0896;
774.0000;0.4135;-1.0971;
774.3000;0.4103;-1.1095;
774.6000;0.4103;-1.1245;
774.9000;0.4094;-1.1220;
775.2000;0.4168;-1.0996;
775.5000;0.4127;-1.1070;
775.8000;0.4111;-1.1120;
776.1000;0.4103;-1.1170;
776.4000;0.4103;-1.1070;
776.7000;0.4119;-1.1021;
777.0000;0.4103;-1.0971;
777.3000;0.4103;-1.0971;
777.6000;0.4103;-1.0896;
777.9000;0.4127;-1.0746;
778.2000;0.4257;-1.0397;
778.5000;0.4086;-1.0671;
778.8000;0.4094;-1.0671;
779.1000;0.4103;-1.0721;
779.4000;0.4103;-1.0721;
779.7000;0.4103;-1.0846;
780.0000;0.4094;-1.0896;
780.3000;0.4062;-1.0921;
780.6000;0.4119;-1.0796;
780.9000;0.4094;-1.0771;
781.2000;0.4094;-1.0821;
781.5000;0.4192;-1.0622;
781.8000;0.4094;-1.0821;
782.1000;0.4086;-1.0921;
782.4000;0.4094;-1.0921;
782.7000;0.4094;-1.0921;
783.0000;0.4119;-1.0971;
783.3000;0.4111;-1.0871;
783.6000;0.4078;-1.0946;
783.9000;0.4111;-1.0871;
784.2000;0.4103;-1.0821;
784.5000;0.4094;-1.0771;
784.8000;0.4094;-1.0821;
785.1000;0.4021;-1.0896;
785.4000;0.4094;-1.0721;
785.7000;0.4103;-1.0746;
786.0000;0.4103;-1.0771;
786.3000;0.4103;-1.0846;
786.6000;0.4078;-1.0846;
786.9000;0.4086;-1.0796;
787.2000;0.4094;-1.0696;
787.5000;0.4103;-1.0647;
787.8000;0.4046;-1.0871;
788.1000;0.4086;-1.0846;
788.4000;0.4086;-1.0871;
788.7000;0.4078;-1.0971;
789.0000;0.4094;-1.0946;
789.3000;0.4078;-1.0871;
789.6000;0.4078;-1.0846;
789.9000;0.4070;-1.0921;
790.2000;0.4078;-1.0921;
790.5000;0.4168;-1.0696;
790.8000;0.4094;-1.0896;
791.1000;0.4086;-1.0871;
791.4000;0.4070;-1.0896;
791.7000;0.4070;-1.0921;
792.0000;0.4086;-1.0946;
792.3000;0.4103;-1.0896;
792.6000;0.4111;-1.0821;
792.9000;0.3980;-1.1245;
793.2000;0.4086;-1.0996;
793.5000;0.4078;-1.0996;
793.8000;0.4094;-1.0896;
794.1000;0.4054;-1.0896;
794.4000;0.4070;-1.0821;
794.7000;0.4078;-1.0896;
795.0000;0.4086;-1.0846;
795.3000;0.4062;-1.0896;
795.6000;0.4086;-1.0771;
795.9000;0.4094;-1.0796;
796.2000;0.4094;-1.0746;
796.5000;0.4078;-1.0796;
796.8000;0.4168;-1.0547;
797.1000;0.4078;-1.0771;
797.4000;0.4078;-1.0696;
797.7000;0.4086;-1.0746;
798.0000;0.4062;-1.0746;
798.3000;0.4078;-1.0746;
798.6000;0.4078;-1.0771;
798.9000;0.4037;-1.0821;
799.2000;0.4062;-1.0746;
799.5000;0.4054;-1.0696;
799.8000;0.4021;-1.0871;
800.1000;0.4078;-1.0796;
800.4000;0.4062;-1.0771;
800.7000;0.4070;-1.0746;
801.0000;0.4062;-1.0796;
801.3000;0.4086;-1.0771;
801.6000;0.4070;-1.0771;
801.9000;0.4054;-1.0796;
802.2000;0.4046;-1.0796;
802.5000;0.4070;-1.0771;
802.8000;0.4046;-1.0896;
803.1000;0.4078;-1.0771;
803.4000;0.4078;-1.0871;
803.7000;0.4037;-1.1021;
804.0000;0.4103;-1.0846;
804.3000;0.4054;-1.0896;
804.6000;0.4078;-1.0696;
804.9000;0.4094;-1.0671;
805.2000;0.4054;-1.0746;
805.5000;0.4078;-1.0671;
805.8000;0.4078;-1.0771;
806.1000;0.4078;-1.0771;
806.4000;0.4078;-1.0721;
806.7000;0.4111;-1.0696;
807.0000;0.4078;-1.0871;
807.3000;0.4078;-1.0921;
807.6000;0.4062;-1.0921;
807.9000;0.4054;-1.0921;
808.2000;0.4070;-1.0946;
808.5000;0.4021;-1.1120;
808.8000;0.4054;-1.0946;
809.1000;0.4078;-1.0871;
809.4000;0.4046;-1.0871;
809.7000;0.4062;-1.0921;
810.0000;0.4103;-1.0846;
810.3000;0.4070;-1.0871;
810.6000;0.4103;-1.0871;
810.9000;0.4046;-1.1021;
811.2000;0.4062;-1.1021;
811.5000;0.4046;-1.1045;
811.8000;0.4054;-1.1070;
812.1000;0.4046;-1.1045;
812.4000;0.4062;-1.0996;
812.7000;0.4094;-1.0921;
813.0000;0.4037;-1.1021;
813.3000;0.4037;-1.1045;
813.6000;0.4062;-1.0996;
813.9000;0.4111;-1.0821;
814.2000;0.4054;-1.0896;
814.5000;0.3997;-1.1045;
814.8000;0.4070;-1.0821;
815.1000;0.4062;-1.0871;
815.4000;0.3997;-1.1220;
815.7000;0.4062;-1.1045;
816.0000;0.4021;-1.1021;
816.3000;0.4046;-1.0996;
816.6000;0.4062;-1.0996;
816.9000;0.3964;-1.1295;
817.2000;0.4054;-1.1120;
817.5000;0.4062;-1.1095;
817.8000;0.4062;-1.1095;
818.1000;0.4054;-1.1095;
818.4000;0.4054;-1.1095;
818.7000;0.4062;-1.1070;
819.0000;0.3980;-1.1170;
819.3000;0.4062;-1.0971;
819.6000;0.4037;-1.0996;
819.9000;0.4094;-1.0871;
820.2000;0.4062;-1.0946;
820.5000;0.4054;-1.0971;
820.8000;0.4094;-1.0846;
821.1000;0.4054;-1.1120;
821.4000;0.4054;-1.1045;
821.7000;0.4054;-1.1095;
822.0000;0.4046;-1.1120;
822.3000;0.4046;-1.1070;
822.6000;0.4070;-1.0996;
822.9000;0.4029;-1.0946;
823.2000;0.4013;-1.0996;
823.5000;0.4046;-1.0946;
823.8000;0.4046;-1.1021;
824.1000;0.4054;-1.1045;
824.4000;0.4037;-1.1045;
824.7000;0.4062;-1.0996;
825.0000;0.4046;-1.1070;
825.3000;0.4054;-1.1021;
825.6000;0.4029;-1.1045;
825.9000;0.4037;-1.0971;
826.2000;0.4046;-1.0846;
826.5000;0.4046;-1.0896;
826.8000;0.4062;-1.0921;
827.1000;0.4054;-1.0996;
827.4000;0.4037;-1.1120;
827.7000;0.4037;-1.1120;
828.0000;0.4037;-1.1170;
828.3000;0.4037;-1.1045;
828.6000;0.4046;-1.0996;
828.9000;0.4046;-1.1070;
829.2000;0.4013;-1.1095;
829.5000;0.4046;-1.0996;
829.8000;0.3997;-1.1095;
830.1000;0.4029;-1.1045;
830.4000;0.4013;-1.1095;
830.7000;0.3972;-1.1220;
831.0000;0.4021;-1.1070;
831.3000;0.4054;-1.0971;
831.6000;0.3980;-1.1145;
831.9000;0.4062;-1.1021;
832.2000;0.4111;-1.0846;
832.5000;0.4029;-1.0971;
832.8000;0.4046;-1.0996;
833.1000;0.4103;-1.0896;
833.4000;0.4054;-1.0996;
833.7000;0.4070;-1.0896;
834.0000;0.4054;-1.0821;
834.3000;0.4005;-1.0896;
834.6000;0.4037;-1.0771;
834.9000;0.4054;-1.0696;
835.2000;0.4037;-1.0746;
835.5000;0.4005;-1.0746;
835.8000;0.4029;-1.0821;
836.1000;0.4021;-1.0896;
836.4000;0.4037;-1.0896;
836.7000;0.4029;-1.0946;
837.0000;0.4037;-1.0871;
837.3000;0.4054;-1.0796;
837.6000;0.4062;-1.0746;
837.9000;0.4046;-1.0771;
838.2000;0.4046;-1.0696;
838.5000;0.4037;-1.0696;
838.8000;0.4005;-1.0796;
839.1000;0.3989;-1.0821;
839.4000;0.3932;-1.1021;
839.7000;0.4029;-1.0721;
840.0000;0.4037;-1.0721;
840.3000;0.4062;-1.0746;
840.6000;0.4021;-1.0796;
840.9000;0.4029;-1.0746;
841.2000;0.4029;-1.0846;
841.5000;0.4021;-1.0996;
841.8000;0.4046;-1.0896;
842.1000;0.4054;-1.0771;
842.4000;0.4054;-1.0746;
842.7000;0.4037;-1.0721;
843.0000;0.4054;-1.0721;
843.3000;0.4054;-1.0721;
843.6000;0.4037;-1.0746;
843.9000;0.4062;-1.0696;
844.2000;0.4046;-1.0721;
844.5000;0.4046;-1.0796;
844.8000;0.4029;-1.0821;
845.1000;0.4021;-1.0871;
845.4000;0.4046;-1.0846;
845.7000;0.4046;-1.0871;
846.0000;0.4005;-1.0821;
846.3000;0.4013;-1.0871;
846.6000;0.4021;-1.0946;
846.9000;0.4029;-1.0921;
847.2000;0.4054;-1.0871;
847.5000;0.4037;-1.0846;
847.8000;0.4021;-1.0821;
848.1000;0.4037;-1.0771;
848.4000;0.4021;-1.0846;
848.7000;0.4046;-1.0846;
849.0000;0.4037;-1.0846;
849.3000;0.4021;-1.0796;
849.6000;0.3989;-1.0871;
849.9000;0.4029;-1.0821;
850.2000;0.4005;-1.0946;
850.5000;0.4005;-1.0896;
850.8000;0.4021;-1.0871;
851.1000;0.4013;-1.0846;
851.4000;0.4013;-1.0871;
851.7000;0.4021;-1.0821;
852.0000;0.4062;-1.0647;
852.3000;0.4062;-1.0671;
852.6000;0.3989;-1.0821;
852.9000;0.4013;-1.0796;
853.2000;0.4021;-1.0896;
853.5000;0.4029;-1.0921;
853.8000;0.4021;-1.0921;
854.1000;0.4021;-1.0946;
854.4000;0.4046;-1.0996;
854.7000;0.4029;-1.1070;
855.0000;0.4029;-1.1021;
855.3000;0.4021;-1.0971;
855.6000;0.4013;-1.0996;
855.9000;0.3997;-1.0971;
856.2000;0.4013;-1.0946;
856.5000;0.4037;-1.0871;
856.8000;0.4029;-1.0946;
857.1000;0.4005;-1.0971;
857.4000;0.3989;-1.0996;
857.7000;0.4037;-1.0871;
858.0000;0.4029;-1.0771;
858.3000;0.4078;-1.0622;
858.6000;0.3980;-1.0796;
858.9000;0.4029;-1.0721;
859.2000;0.4013;-1.0821;
859.5000;0.4013;-1.0721;
859.8000;0.4013;-1.0671;
860.1000;0.4013;-1.0647;
860.4000;0.3989;-1.0721;
860.7000;0.4021;-1.0771;
861.0000;0.4021;-1.0721;
861.3000;0.4021;-1.0696;
861.6000;0.4046;-1.0696;
861.9000;0.4029;-1.0771;
862.2000;0.4013;-1.0846;
862.5000;0.4013;-1.0896;
862.8000;0.4013;-1.0971;
863.1000;0.4005;-1.0996;
863.4000;0.4021;-1.0971;
863.7000;0.4021;-1.1021;
864.0000;0.4037;-1.1070;
864.3000;0.4021;-1.0996;
864.6000;0.4021;-1.0971;
864.9000;0.4021;-1.0896;
865.2000;0.4029;-1.0821;
865.5000;0.3989;-1.0871;
865.8000;0.3989;-1.0871;
866.1000;0.4013;-1.0821;
866.4000;0.4005;-1.0871;
866.7000;0.4005;-1.0821;
867.0000;0.4029;-1.0746;
867.3000;0.4005;-1.0871;
867.6000;0.4005;-1.0921;
867.9000;0.4013;-1.0846;
868.2000;0.4037;-1.0771;
868.5000;0.4029;-1.0821;
868.8000;0.4021;-1.0846;
869.1000;0.4046;-1.0796;
869.4000;0.4021;-1.0896;
869.7000;0.4005;-1.1070;
870.0000;0.4005;-1.1145;
870.3000;0.4013;-1.1070;
870.6000;0.4029;-1.0946;
870.9000;0.3997;-1.0971;
871.2000;0.3948;-1.1070;
871.5000;0.4037;-1.0946;
871.8000;0.3972;-1.1070;
872.1000;0.3997;-1.1045;
872.4000;0.4029;-1.0996;
872.7000;0.4005;-1.0996;
873.0000;0.4013;-1.1021;
873.3000;0.4013;-1.0971;
873.6000;0.4013;-1.0971;
873.9000;0.4005;-1.1045;
874.2000;0.4029;-1.0996;
874.5000;0.4005;-1.1021;
874.8000;0.4013;-1.0921;
875.1000;0.4021;-1.0896;
875.4000;0.4021;-1.0946;
875.7000;0.3915;-1.1145;
876.0000;0.4021;-1.1021;
876.3000;0.4021;-1.1021;
876.6000;0.4013;-1.1070;
876.9000;0.4013;-1.0971;
877.2000;0.3997;-1.0946;
877.5000;0.4005;-1.0946;
877.8000;0.4013;-1.0871;
878.1000;0.4062;-1.0721;
878.4000;0.3980;-1.0971;
878.7000;0.3948;-1.1045;
879.0000;0.4013;-1.0846;
879.3000;0.4005;-1.0871;
879.6000;0.3980;-1.0871;
879.9000;0.3997;-1.0796;
880.2000;0.4013;-1.0846;
880.5000;0.4013;-1.0846;
880.8000;0.3997;-1.0821;
881.1000;0.3997;-1.0821;
881.4000;0.4005;-1.0896;
881.7000;0.3997;-1.0946;
882.0000;0.3989;-1.0921;
882.3000;0.4005;-1.0896;
882.6000;0.4021;-1.0946;
882.9000;0.3997;-1.0971;
883.2000;0.3989;-1.0921;
883.5000;0.4021;-1.0821;
883.8000;0.4013;-1.0871;
884.1000;0.3997;-1.0921;
884.4000;0.3997;-1.0821;
884.7000;0.3997;-1.0871;
885.0000;0.3997;-1.0771;
885.3000;0.3997;-1.0796;
885.6000;0.4021;-1.0647;
885.9000;0.4005;-1.0647;
886.2000;0.3997;-1.0647;
886.5000;0.3997;-1.0647;
886.8000;0.3980;-1.0597;
887.1000;0.3980;-1.0696;
887.4000;0.3989;-1.0671;
887.7000;0.3899;-1.0946;
888.0000;0.4005;-1.0671;
888.3000;0.3997;-1.0522;
888.6000;0.4013;-1.0572;
888.9000;0.3989;-1.0721;
889.2000;0.4005;-1.0746;
889.5000;0.4005;-1.0721;
889.8000;0.4070;-1.0547;
890.1000;0.3989;-1.0647;
890.4000;0.4005;-1.0721;
890.7000;0.4005;-1.0796;
891.0000;0.4005;-1.0796;
891.3000;0.3980;-1.0771;
891.6000;0.3972;-1.0647;
891.9000;0.3989;-1.0647;
892.2000;0.3997;-1.0597;
892.5000;0.3997;-1.0572;
892.8000;0.4013;-1.0472;
893.1000;0.3997;-1.0447;
893.4000;0.3972;-1.0522;
893.7000;0.3980;-1.0597;
894.0000;0.3980;-1.0622;
894.3000;0.4078;-1.0322;
894.6000;0.3997;-1.0597;
894.9000;0.4013;-1.0572;
895.2000;0.4021;-1.0622;
895.5000;0.4005;-1.0671;
895.8000;0.4013;-1.0696;
896.1000;0.3997;-1.0871;
896.4000;0.3997;-1.0846;
896.7000;0.3989;-1.0846;
897.0000;0.3997;-1.0721;
897.3000;0.3989;-1.0671;
897.6000;0.3989;-1.0696;
897.9000;0.3980;-1.0846;
898.2000;0.3980;-1.0846;
898.5000;0.4021;-1.0821;
898.8000;0.3989;-1.0896;
899.1000;0.4029;-1.0771;
899.4000;0.4013;-1.0721;
899.7000;0.3997;-1.0746;
900.0000;0.3915;-1.0921;
900.3000;0.3989;-1.0696;
900.6000;0.3989;-1.0746;
900.9000;0.3997;-1.0721;
901.2000;0.3980;-1.0846;
901.5000;0.3980;-1.0871;
901.8000;0.3980;-1.0896;
902.1000;0.3980;-1.0846;
902.4000;0.3989;-1.0746;
902.7000;0.3989;-1.0846;
903.0000;0.3964;-1.0871;
903.3000;0.3964;-1.0871;
903.6000;0.3989;-1.0846;
903.9000;0.3980;-1.0846;
904.2000;0.4013;-1.0846;
904.5000;0.3989;-1.0896;
904.8000;0.3997;-1.0896;
905.1000;0.3989;-1.0921;
905.4000;0.3980;-1.0921;
905.7000;0.3964;-1.0946;
906.0000;0.3980;-1.0921;
906.3000;0.3980;-1.0946;
906.6000;0.3980;-1.0996;
906.9000;0.3956;-1.1045;
907.2000;0.3964;-1.0946;
907.5000;0.3972;-1.0921;
907.8000;0.3915;-1.1045;
908.1000;0.3964;-1.0921;
908.4000;0.3997;-1.0871;
908.7000;0.4013;-1.0746;
909.0000;0.3980;-1.0821;
909.3000;0.3980;-1.0871;
909.6000;0.3972;-1.0821;
909.9000;0.3964;-1.0921;
910.2000;0.3956;-1.0871;
910.5000;0.3964;-1.0871;
910.8000;0.3956;-1.0971;
911.1000;0.3989;-1.0846;
911.4000;0.3997;-1.0846;
911.7000;0.4054;-1.0671;
912.0000;0.3980;-1.0796;
912.3000;0.3997;-1.0696;
912.6000;0.4013;-1.0622;
912.9000;0.3997;-1.0671;
913.2000;0.3964;-1.0721;
913.5000;0.3980;-1.0796;
913.8000;0.3989;-1.0771;
914.1000;0.3989;-1.0771;
914.4000;0.3980;-1.0771;
914.7000;0.3997;-1.0671;
915.0000;0.4070;-1.0472;
915.3000;0.3907;-1.0846;
915.6000;0.3972;-1.0696;
915.9000;0.3980;-1.0721;
916.2000;0.3989;-1.0696;
916.5000;0.3964;-1.0796;
916.8000;0.3956;-1.0771;
917.1000;0.3980;-1.0696;
917.4000;0.3964;-1.0721;
917.7000;0.4046;-1.0447;
918.0000;0.3964;-1.0572;
918.3000;0.3956;-1.0572;
918.6000;0.3964;-1.0497;
918.9000;0.3980;-1.0597;
919.2000;0.3964;-1.0622;
919.5000;0.3972;-1.0671;
919.8000;0.3948;-1.0696;
920.1000;0.3972;-1.0622;
920.4000;0.3964;-1.0721;
920.7000;0.3972;-1.0746;
921.0000;0.4013;-1.0671;
921.3000;0.3980;-1.0721;
921.6000;0.3948;-1.0771;
921.9000;0.3956;-1.0771;
922.2000;0.3956;-1.0721;
922.5000;0.3923;-1.0771;
922.8000;0.3956;-1.0622;
923.1000;0.3956;-1.0572;
923.4000;0.3989;-1.0572;
923.7000;0.3980;-1.0622;
924.0000;0.3956;-1.0746;
924.3000;0.3972;-1.0771;
924.6000;0.3972;-1.0846;
924.9000;0.3980;-1.0796;
925.2000;0.3972;-1.0871;
925.5000;0.4005;-1.0771;
925.8000;0.3997;-1.0746;
926.1000;0.3989;-1.0746;
926.4000;0.4029;-1.0622;
926.7000;0.3972;-1.0771;
927.0000;0.3980;-1.0746;
927.3000;0.3956;-1.0796;
927.6000;0.3956;-1.0846;
927.9000;0.4005;-1.0796;
928.2000;0.3972;-1.0771;
928.5000;0.3972;-1.0746;
928.8000;0.4046;-1.0622;
929.1000;0.3989;-1.0696;
929.4000;0.3972;-1.0771;
929.7000;0.3980;-1.0696;
930.0000;0.3980;-1.0796;
930.3000;0.3980;-1.0796;
930.6000;0.3972;-1.0871;
930.9000;0.3972;-1.0871;
931.2000;0.3980;-1.0871;
931.5000;0.3989;-1.0971;
931.8000;0.3964;-1.1021;
932.1000;0.3972;-1.1021;
932.4000;0.3989;-1.0921;
932.7000;0.3989;-1.0771;
933.0000;0.3980;-1.0821;
933.3000;0.3956;-1.0796;
933.6000;0.3964;-1.0746;
933.9000;0.3980;-1.0647;
934.2000;0.3964;-1.0647;
934.5000;0.3980;-1.0721;
934.8000;0.3972;-1.0771;
935.1000;0.4005;-1.0696;
935.4000;0.3997;-1.0721;
935.7000;0.3980;-1.0721;
936.0000;0.3980;-1.0647;
936.3000;0.3972;-1.0746;
936.6000;0.3980;-1.0622;
936.9000;0.3997;-1.0622;
937.2000;0.3972;-1.0796;
937.5000;0.3997;-1.0647;
937.8000;0.3989;-1.0597;
938.1000;0.3956;-1.0622;
938.4000;0.3940;-1.0622;
938.7000;0.3989;-1.0497;
939.0000;0.3972;-1.0597;
939.3000;0.3972;-1.0671;
939.6000;0.3964;-1.0821;
939.9000;0.3948;-1.0846;
940.2000;0.3980;-1.0696;
940.5000;0.3989;-1.0572;
940.8000;0.4013;-1.0522;
941.1000;0.3964;-1.0597;
941.4000;0.3989;-1.0397;
941.7000;0.3972;-1.0372;
942.0000;0.3948;-1.0397;
942.3000;0.3972;-1.0397;
942.6000;0.3972;-1.0522;
942.9000;0.3964;-1.0572;
943.2000;0.3964;-1.0671;
943.5000;0.3964;-1.0696;
943.8000;0.3964;-1.0796;
944.1000;0.3964;-1.0846;
944.4000;0.3972;-1.0846;
944.7000;0.3956;-1.0896;
945.0000;0.3948;-1.0996;
945.3000;0.3980;-1.0971;
945.6000;0.3923;-1.1120;
945.9000;0.3956;-1.1021;
946.2000;0.3997;-1.0821;
946.5000;0.3972;-1.0796;
946.8000;0.3972;-1.0796;
947.1000;0.3964;-1.0846;
947.4000;0.3997;-1.0796;
947.7000;0.4005;-1.0796;
948.0000;0.4013;-1.0746;
948.3000;0.3972;-1.0921;
948.6000;0.3907;-1.1095;
948.9000;0.3972;-1.0996;
949.2000;0.3980;-1.0996;
949.5000;0.3907;-1.1270;
949.8000;0.3972;-1.1145;
950.1000;0.3948;-1.1270;
950.4000;0.3948;-1.1270;
950.7000;0.3964;-1.1195;
951.0000;0.3956;-1.1170;
951.3000;0.3972;-1.1120;
951.6000;0.3964;-1.1095;
951.9000;0.3964;-1.1095;
952.2000;0.3948;-1.1070;
952.5000;0.3932;-1.1070;
952.8000;0.3956;-1.0921;
953.1000;0.3956;-1.0946;
953.4000;0.3989;-1.0921;
953.7000;0.3972;-1.0971;
954.0000;0.3980;-1.1021;
954.3000;0.3956;-1.0996;
954.6000;0.3972;-1.0971;
954.9000;0.3964;-1.0971;
955.2000;0.3956;-1.1021;
955.5000;0.3972;-1.1045;
955.8000;0.3972;-1.1070;
956.1000;0.3948;-1.1045;
956.4000;0.3964;-1.0996;
956.7000;0.3964;-1.0971;
957.0000;0.3964;-1.1070;
957.3000;0.3956;-1.0996;
957.6000;0.3923;-1.1045;
957.9000;0.3948;-1.1021;
958.2000;0.3980;-1.1021;
958.5000;0.3997;-1.0896;
958.8000;0.3989;-1.0921;
959.1000;0.3956;-1.1021;
959.4000;0.3956;-1.0971;
959.7000;0.3972;-1.0946;
960.0000;0.3956;-1.0971;
960.3000;0.3964;-1.0921;
960.6000;0.3964;-1.0871;
960.9000;0.3972;-1.0871;
961.2000;0.3980;-1.0921;
961.5000;0.3956;-1.0896;
961.8000;0.3989;-1.0771;
962.1000;0.3980;-1.0647;
962.4000;0.3948;-1.0746;
962.7000;0.3948;-1.0796;
963.0000;0.3964;-1.0746;
963.3000;0.3997;-1.0597;
963.6000;0.3948;-1.0622;
963.9000;0.3948;-1.0696;
964.2000;0.3915;-1.0846;
964.5000;0.3948;-1.0746;
964.8000;0.3972;-1.0696;
965.1000;0.3956;-1.0771;
965.4000;0.4013;-1.0572;
965.7000;0.3956;-1.0671;
966.0000;0.3956;-1.0671;
966.3000;0.3964;-1.0572;
966.6000;0.3932;-1.0597;
966.9000;0.3972;-1.0497;
967.2000;0.3956;-1.0547;
967.5000;0.3980;-1.0447;
967.8000;0.3964;-1.0522;
968.1000;0.4005;-1.0547;
968.4000;0.3956;-1.0771;
968.7000;0.3964;-1.0671;
969.0000;0.3932;-1.0746;
969.3000;0.3923;-1.0771;
969.6000;0.3997;-1.0572;
969.9000;0.4013;-1.0622;
970.2000;0.3972;-1.0696;
970.5000;0.3956;-1.0671;
970.8000;0.3972;-1.0696;
971.1000;0.3972;-1.0721;
971.4000;0.3964;-1.0746;
971.7000;0.3956;-1.0746;
972.0000;0.3964;-1.0696;
972.3000;0.3980;-1.0696;
972.6000;0.3956;-1.0721;
972.9000;0.3940;-1.0721;
973.2000;0.3964;-1.0721;
973.5000;0.3956;-1.0771;
973.8000;0.3948;-1.0846;
974.1000;0.3948;-1.0896;
974.4000;0.3932;-1.0996;
974.7000;0.3956;-1.0846;
975.0000;0.3980;-1.0647;
975.3000;0.3940;-1.0721;
975.6000;0.3940;-1.0721;
975.9000;0.3964;-1.0647;
976.2000;0.3964;-1.0721;
976.5000;0.3932;-1.0796;
976.8000;0.3964;-1.0696;
977.1000;0.3956;-1.0622;
977.4000;0.3972;-1.0447;
977.7000;0.3972;-1.0422;
978.0000;0.3948;-1.0397;
978.3000;0.3964;-1.0422;
978.6000;0.3980;-1.0447;
978.9000;0.3940;-1.0547;
979.2000;0.3940;-1.0497;
979.5000;0.3964;-1.0572;
979.8000;0.3948;-1.0547;
980.1000;0.3956;-1.0447;
980.4000;0.3948;-1.0472;
980.7000;0.3940;-1.0447;
981.0000;0.3948;-1.0472;
981.3000;0.3915;-1.0597;
981.6000;0.3956;-1.0547;
981.9000;0.3940;-1.0522;
982.2000;0.3972;-1.0472;
982.5000;0.3964;-1.0447;
982.8000;0.3964;-1.0497;
983.1000;0.3948;-1.0547;
983.4000;0.3915;-1.0597;
983.7000;0.3956;-1.0547;
984.0000;0.3972;-1.0572;
984.3000;0.3964;-1.0572;
984.6000;0.3940;-1.0647;
984.9000;0.3964;-1.0597;
985.2000;0.4013;-1.0397;
985.5000;0.3940;-1.0622;
985.8000;0.3948;-1.0547;
986.1000;0.3956;-1.0547;
986.4000;0.3997;-1.0547;
986.7000;0.3964;-1.0671;
987.0000;0.3940;-1.0746;
987.3000;0.3932;-1.0746;
987.6000;0.3964;-1.0771;
987.9000;0.3989;-1.0696;
988.2000;0.3964;-1.0721;
988.5000;0.3956;-1.0696;
988.8000;0.3972;-1.0647;
989.1000;0.3956;-1.0721;
989.4000;0.4013;-1.0497;
989.7000;0.3932;-1.0846;
990.0000;0.3915;-1.0796;
990.3000;0.3940;-1.0696;
990.6000;0.3948;-1.0746;
990.9000;0.3940;-1.0746;
991.2000;0.3956;-1.0671;
991.5000;0.4013;-1.0422;
991.8000;0.3948;-1.0622;
992.1000;0.3940;-1.0647;
992.4000;0.3932;-1.0721;
992.7000;0.3940;-1.0671;
993.0000;0.3948;-1.0671;
993.3000;0.3956;-1.0622;
993.6000;0.3948;-1.0572;
993.9000;0.3948;-1.0622;
994.2000;0.3948;-1.0572;
994.5000;0.3932;-1.0622;
994.8000;0.3932;-1.0721;
995.1000;0.3997;-1.0522;
995.4000;0.3964;-1.0522;
995.7000;0.3948;-1.0547;
996.0000;0.3940;-1.0622;
996.3000;0.3948;-1.0572;
996.6000;0.3997;-1.0397;
996.9000;0.3980;-1.0372;
997.2000;0.3948;-1.0372;
997.5000;0.3940;-1.0422;
997.8000;0.3956;-1.0497;
998.1000;0.3948;-1.0547;
998.4000;0.3932;-1.0522;
998.7000;0.3932;-1.0597;
999.0000;0.3948;-1.0522;
999.3000;0.3940;-1.0522;
999.6000;0.3948;-1.0497;
999.9000;0.3932;-1.0547;
1000.2000;0.3940;-1.0522;
1000.5000;0.3940;-1.0572;
1000.8000;0.3948;-1.0671;
1001.1000;0.3948;-1.0622;
1001.4000;0.3964;-1.0597;
1001.7000;0.3940;-1.0671;
1002.0000;0.3940;-1.0746;
1002.3000;0.3948;-1.0696;
1002.6000;0.3940;-1.0696;
1002.9000;0.4021;-1.0547;
1003.2000;0.3940;-1.0696;
1003.5000;0.3932;-1.0721;
1003.8000;0.3940;-1.0622;
1004.1000;0.3956;-1.0547;
1004.4000;0.3956;-1.0597;
1004.7000;0.3956;-1.0671;
1005.0000;0.3940;-1.0746;
1005.3000;0.3932;-1.0896;
1005.6000;0.3956;-1.0846;
1005.9000;0.3948;-1.0921;
1006.2000;0.3964;-1.0971;
1006.5000;0.3948;-1.0996;
1006.8000;0.3940;-1.0921;
1007.1000;0.3948;-1.0821;
1007.4000;0.3923;-1.0771;
1007.7000;0.3956;-1.0696;
1008.0000;0.3964;-1.0572;
1008.3000;0.3948;-1.0622;
1008.6000;0.3940;-1.0721;
1008.9000;0.3940;-1.0622;
1009.2000;0.3940;-1.0746;
1009.5000;0.3940;-1.0696;
1009.8000;0.3940;-1.0647;
1010.1000;0.3948;-1.0696;
1010.4000;0.3940;-1.0796;
1010.7000;0.3964;-1.0796;
1011.0000;0.3948;-1.0821;
1011.3000;0.3891;-1.0996;
1011.6000;0.3948;-1.0821;
1011.9000;0.3940;-1.0846;
1012.2000;0.3932;-1.0846;
1012.5000;0.3940;-1.0896;
1012.8000;0.3948;-1.0946;
1013.1000;0.3940;-1.0946;
1013.4000;0.3980;-1.0821;
1013.7000;0.3956;-1.0896;
1014.0000;0.3932;-1.0796;
1014.3000;0.3956;-1.0796;
1014.6000;0.3940;-1.0771;
1014.9000;0.3940;-1.0746;
1015.2000;0.3940;-1.0746;
1015.5000;0.3980;-1.0721;
1015.8000;0.3989;-1.0696;
1016.1000;0.3883;-1.0921;
1016.4000;0.3932;-1.0846;
1016.7000;0.4037;-1.0497;
1017.0000;0.3956;-1.0647;
1017.3000;0.3956;-1.0572;
1017.6000;0.3923;-1.0647;
1017.9000;0.3948;-1.0522;
1018.2000;0.4046;-1.0248;
1018.5000;0.3997;-1.0472;
1018.8000;0.3932;-1.0547;
1019.1000;0.3923;-1.0572;
1019.4000;0.4005;-1.0522;
1019.7000;0.3964;-1.0597;
1020.0000;0.3956;-1.0597;
1020.3000;0.3915;-1.0647;
1020.6000;0.3940;-1.0597;
1020.9000;0.3980;-1.0522;
1021.2000;0.3932;-1.0671;
1021.5000;0.3980;-1.0597;
1021.8000;0.3956;-1.0671;
1022.1000;0.3923;-1.0746;
1022.4000;0.3972;-1.0647;
1022.7000;0.3956;-1.0647;
1023.0000;0.3956;-1.0671;
1023.3000;0.3948;-1.0696;
1023.6000;0.3932;-1.0671;
1023.9000;0.3940;-1.0696;
1024.2000;0.3932;-1.0746;
1024.5000;0.3956;-1.0746;
1024.8000;0.4005;-1.0671;
1025.1000;0.3932;-1.0771;
1025.4000;0.3923;-1.0821;
1025.7000;0.3940;-1.0821;
1026.0000;0.3923;-1.0896;
1026.3000;0.3964;-1.0846;
1026.6000;0.3972;-1.0896;
1026.9000;0.3932;-1.0921;
1027.2000;0.3956;-1.0821;
1027.5000;0.3972;-1.0771;
1027.8000;0.3956;-1.0796;
1028.1000;0.3940;-1.0821;
1028.4000;0.3948;-1.0721;
1028.7000;0.3956;-1.0771;
1029.0000;0.3932;-1.0821;
1029.3000;0.3932;-1.0871;
1029.6000;0.3956;-1.0896;
1029.9000;0.3932;-1.0921;
1030.2000;0.3932;-1.0846;
1030.5000;0.3923;-1.0896;
1030.8000;0.3989;-1.0721;
1031.1000;0.3932;-1.0871;
1031.4000;0.3948;-1.0796;
1031.7000;0.3948;-1.0796;
1032.0000;0.3932;-1.0796;
1032.3000;0.3948;-1.0771;
1032.6000;0.3956;-1.0746;
1032.9000;0.3980;-1.0647;
1033.2000;0.3923;-1.0771;
1033.5000;0.3980;-1.0671;
1033.8000;0.4021;-1.0497;
1034.1000;0.3932;-1.0696;
1034.4000;0.3940;-1.0647;
1034.7000;0.3899;-1.0796;
1035.0000;0.3940;-1.0647;
1035.3000;0.3932;-1.0721;
1035.6000;0.3915;-1.0746;
1035.9000;0.3940;-1.0696;
1036.2000;0.3932;-1.0671;
1036.5000;0.3980;-1.0622;
1036.8000;0.3932;-1.0696;
1037.1000;0.3932;-1.0796;
1037.4000;0.3997;-1.0671;
1037.7000;0.3907;-1.0921;
1038.0000;0.3948;-1.0896;
1038.3000;0.3948;-1.0846;
1038.6000;0.3956;-1.0746;
1038.9000;0.3915;-1.0896;
1039.2000;0.3940;-1.0921;
1039.5000;0.3956;-1.0821;
1039.8000;0.3948;-1.0771;
1040.1000;0.3940;-1.0796;
1040.4000;0.3915;-1.0846;
1040.7000;0.3867;-1.0821;
1041.0000;0.3915;-1.0622;
1041.3000;0.3915;-1.0572;
1041.6000;0.3964;-1.0472;
1041.9000;0.3932;-1.0597;
1042.2000;0.4005;-1.0597;
1042.5000;0.3989;-1.0647;
1042.8000;0.3948;-1.0696;
1043.1000;0.3940;-1.0597;
1043.4000;0.3923;-1.0597;
1043.7000;0.3940;-1.0547;
1044.0000;0.3956;-1.0472;
1044.3000;0.3923;-1.0497;
1044.6000;0.3932;-1.0472;
1044.9000;0.3940;-1.0422;
1045.2000;0.3940;-1.0472;
1045.5000;0.3842;-1.0771;
1045.8000;0.3923;-1.0572;
1046.1000;0.3948;-1.0647;
1046.4000;0.3940;-1.0671;
1046.7000;0.3948;-1.0597;
1047.0000;0.3932;-1.0572;
1047.3000;0.3940;-1.0547;
1047.6000;0.3948;-1.0572;
1047.9000;0.3915;-1.0721;
1048.2000;0.3932;-1.0671;
1048.5000;0.3923;-1.0671;
1048.8000;0.3948;-1.0647;
1049.1000;0.3964;-1.0696;
1049.4000;0.3956;-1.0696;
1049.7000;0.3948;-1.0771;
1050.0000;0.3932;-1.0721;
1050.3000;0.3923;-1.0647;
1050.6000;0.3940;-1.0721;
1050.9000;0.3948;-1.0572;
1051.2000;0.3923;-1.0696;
1051.5000;0.3948;-1.0622;
1051.8000;0.3972;-1.0472;
1052.1000;0.3923;-1.0547;
1052.4000;0.3923;-1.0522;
1052.7000;0.3923;-1.0572;
1053.0000;0.3972;-1.0522;
1053.3000;0.3948;-1.0671;
1053.6000;0.3940;-1.0696;
1053.9000;0.3964;-1.0597;
1054.2000;0.3964;-1.0622;
1054.5000;0.3923;-1.0721;
1054.8000;0.3972;-1.0622;
1055.1000;0.3923;-1.0721;
1055.4000;0.3907;-1.0796;
1055.7000;0.3940;-1.0821;
1056.0000;0.3948;-1.0796;
1056.3000;0.3940;-1.0746;
1056.6000;0.3956;-1.0771;
1056.9000;0.3923;-1.0796;
1057.2000;0.3923;-1.0771;
1057.5000;0.3932;-1.0746;
1057.8000;0.3932;-1.0771;
1058.1000;0.3948;-1.0821;
1058.4000;0.3948;-1.0771;
1058.7000;0.3980;-1.0647;
1059.0000;0.3915;-1.0821;
1059.3000;0.3948;-1.0721;
1059.6000;0.3915;-1.0721;
1059.9000;0.3932;-1.0671;
1060.2000;0.3948;-1.0622;
1060.5000;0.3940;-1.0597;
1060.8000;0.3948;-1.0622;
1061.1000;0.3907;-1.0746;
1061.4000;0.3948;-1.0721;
1061.7000;0.3989;-1.0647;
1062.0000;0.3923;-1.0821;
1062.3000;0.3932;-1.0871;
1062.6000;0.3907;-1.0971;
1062.9000;0.3964;-1.0896;
1063.2000;0.3875;-1.1145;
1063.5000;0.3948;-1.0896;
1063.8000;0.3899;-1.1070;
1064.1000;0.3932;-1.0971;
1064.4000;0.3956;-1.0871;
1064.7000;0.3972;-1.0796;
1065.0000;0.3915;-1.0871;
1065.3000;0.3932;-1.0746;
1065.6000;0.3956;-1.0696;
1065.9000;0.3923;-1.0821;
1066.2000;0.3932;-1.0846;
1066.5000;0.3915;-1.0796;
1066.8000;0.3948;-1.0746;
1067.1000;0.3948;-1.0622;
1067.4000;0.3972;-1.0597;
1067.7000;0.3923;-1.0671;
1068.0000;0.3923;-1.0671;
1068.3000;0.3932;-1.0647;
1068.6000;0.3932;-1.0622;
1068.9000;0.3940;-1.0622;
1069.2000;0.3923;-1.0696;
1069.5000;0.3923;-1.0721;
1069.8000;0.3940;-1.0671;
1070.1000;0.3915;-1.0746;
1070.4000;0.3932;-1.0647;
1070.7000;0.3940;-1.0622;
1071.0000;0.3932;-1.0696;
1071.3000;0.3923;-1.0746;
1071.6000;0.3907;-1.0796;
1071.9000;0.3972;-1.0696;
1072.2000;0.3932;-1.0671;
1072.5000;0.3923;-1.0671;
1072.8000;0.3932;-1.0547;
1073.1000;0.3948;-1.0497;
1073.4000;0.3948;-1.0547;
1073.7000;0.3915;-1.0647;
1074.0000;0.3948;-1.0547;
1074.3000;0.3940;-1.0547;
1074.6000;0.3915;-1.0622;
1074.9000;0.3923;-1.0647;
1075.2000;0.3915;-1.0721;
1075.5000;0.3956;-1.0671;
1075.8000;0.3923;-1.0721;
1076.1000;0.3899;-1.0796;
1076.4000;0.3940;-1.0671;
1076.7000;0.3923;-1.0647;
1077.0000;0.3923;-1.0671;
1077.3000;0.3932;-1.0597;
1077.6000;0.3923;-1.0622;
1077.9000;0.3923;-1.0572;
1078.2000;0.3948;-1.0522;
1078.5000;0.3932;-1.0547;
1078.8000;0.3932;-1.0597;
1079.1000;0.3940;-1.0572;
1079.4000;0.3850;-1.0846;
1079.7000;0.3948;-1.0671;
1080.0000;0.3932;-1.0821;
1080.3000;0.3915;-1.0796;
1080.6000;0.3850;-1.0946;
1080.9000;0.3956;-1.0671;
1081.2000;0.3923;-1.0771;
1081.5000;0.3932;-1.0846;
1081.8000;0.3932;-1.0871;
1082.1000;0.3932;-1.0871;
1082.4000;0.3899;-1.0846;
1082.7000;0.3923;-1.0721;
1083.0000;0.3940;-1.0671;
1083.3000;0.3940;-1.0671;
1083.6000;0.3907;-1.0746;
1083.9000;0.3891;-1.0796;
1084.2000;0.3915;-1.0647;
1084.5000;0.3907;-1.0746;
1084.8000;0.3948;-1.0696;
1085.1000;0.3940;-1.0671;
1085.4000;0.3907;-1.0721;
1085.7000;0.3940;-1.0696;
1086.0000;0.3891;-1.0696;
1086.3000;0.3923;-1.0671;
1086.6000;0.3915;-1.0696;
1086.9000;0.3923;-1.0696;
1087.2000;0.3932;-1.0696;
1087.5000;0.3875;-1.0796;
1087.8000;0.3907;-1.0647;
1088.1000;0.3932;-1.0671;
1088.4000;0.3923;-1.0696;
1088.7000;0.3932;-1.0671;
1089.0000;0.3932;-1.0696;
1089.3000;0.3923;-1.0622;
1089.6000;0.3915;-1.0746;
1089.9000;0.3932;-1.0721;
1090.2000;0.3915;-1.0746;
1090.5000;0.3915;-1.0696;
1090.8000;0.3915;-1.0671;
1091.1000;0.3940;-1.0671;
1091.4000;0.3932;-1.0771;
1091.7000;0.3932;-1.0871;
1092.0000;0.3915;-1.0921;
1092.3000;0.3932;-1.0796;
1092.6000;0.3915;-1.0896;
1092.9000;0.3891;-1.0871;
1093.2000;0.3915;-1.0846;
1093.5000;0.3923;-1.0846;
1093.8000;0.3940;-1.0921;
1094.1000;0.3923;-1.0821;
1094.4000;0.3923;-1.0721;
1094.7000;0.3907;-1.0721;
1095.0000;0.3923;-1.0647;
1095.3000;0.3940;-1.0696;
1095.6000;0.3915;-1.0746;
1095.9000;0.3940;-1.0622;
1096.2000;0.3915;-1.0622;
1096.5000;0.3915;-1.0671;
1096.8000;0.3932;-1.0671;
1097.1000;0.3923;-1.0721;
1097.4000;0.3907;-1.0821;
1097.7000;0.3923;-1.0796;
1098.0000;0.3907;-1.0796;
1098.3000;0.3932;-1.0647;
1098.6000;0.3940;-1.0547;
1098.9000;0.3915;-1.0572;
1099.2000;0.3948;-1.0597;
1099.5000;0.3923;-1.0696;
1099.8000;0.3915;-1.0696;
1100.1000;0.4029;-1.0372;
1100.4000;0.3932;-1.0572;
1100.7000;0.3932;-1.0547;
1101.0000;0.3932;-1.0572;
1101.3000;0.4021;-1.0248;
1101.6000;0.3940;-1.0497;
1101.9000;0.3940;-1.0497;
1102.2000;0.3907;-1.0622;
1102.5000;0.3923;-1.0572;
1102.8000;0.3940;-1.0671;
1103.1000;0.3923;-1.0696;
1103.4000;0.3923;-1.0647;
1103.7000;0.3923;-1.0647;
1104.0000;0.3932;-1.0671;
1104.3000;0.3940;-1.0647;
1104.6000;0.3932;-1.0696;
1104.9000;0.3948;-1.0622;
1105.2000;0.3940;-1.0597;
1105.5000;0.3989;-1.0547;
1105.8000;0.3923;-1.0721;
1106.1000;0.3907;-1.0746;
1106.4000;0.3980;-1.0597;
1106.7000;0.3932;-1.0746;
1107.0000;0.3915;-1.0746;
1107.3000;0.3923;-1.0647;
1107.6000;0.3940;-1.0671;
1107.9000;0.3932;-1.0721;
1108.2000;0.3923;-1.0721;
1108.5000;0.3907;-1.0796;
1108.8000;0.3923;-1.0721;
1109.1000;0.3858;-1.0821;
1109.4000;0.3907;-1.0597;
1109.7000;0.3907;-1.0647;
1110.0000;0.3940;-1.0696;
1110.3000;0.3940;-1.0796;
1110.6000;0.3923;-1.0846;
1110.9000;0.3915;-1.0896;
1111.2000;0.3923;-1.0896;
1111.5000;0.3932;-1.0871;
1111.8000;0.3923;-1.0946;
1112.1000;0.3932;-1.0946;
1112.4000;0.3858;-1.1021;
1112.7000;0.3915;-1.0771;
1113.0000;0.3907;-1.0796;
1113.3000;0.3907;-1.0821;
1113.6000;0.3899;-1.0796;
1113.9000;0.3932;-1.0896;
1114.2000;0.3948;-1.0846;
1114.5000;0.3915;-1.0921;
1114.8000;0.3915;-1.0871;
1115.1000;0.3915;-1.0946;
1115.4000;0.3915;-1.0846;
1115.7000;0.3907;-1.0921;
1116.0000;0.3932;-1.0921;
1116.3000;0.3915;-1.0846;
1116.6000;0.3923;-1.0871;
1116.9000;0.3932;-1.0846;
1117.2000;0.3915;-1.0846;
1117.5000;0.3923;-1.0821;
1117.8000;0.3907;-1.0796;
1118.1000;0.3915;-1.0771;
1118.4000;0.3940;-1.0696;
1118.7000;0.3980;-1.0572;
1119.0000;0.3932;-1.0771;
1119.3000;0.3932;-1.0821;
1119.6000;0.3915;-1.0871;
1119.9000;0.3915;-1.0871;
1120.2000;0.3923;-1.0846;
1120.5000;0.3915;-1.0746;
1120.8000;0.3940;-1.0622;
1121.1000;0.3940;-1.0671;
1121.4000;0.3948;-1.0721;
1121.7000;0.3915;-1.0896;
1122.0000;0.3875;-1.0946;
1122.3000;0.3932;-1.0647;
1122.6000;0.3907;-1.0647;
1122.9000;0.3923;-1.0647;
1123.2000;0.3956;-1.0497;
1123.5000;0.3915;-1.0547;
1123.8000;0.3923;-1.0572;
1124.1000;0.3956;-1.0497;
1124.4000;0.4005;-1.0447;
1124.7000;0.3915;-1.0647;
1125.0000;0.3915;-1.0647;
1125.3000;0.3956;-1.0522;
1125.6000;0.3932;-1.0622;
1125.9000;0.3883;-1.0696;
1126.2000;0.3915;-1.0622;
1126.5000;0.3932;-1.0622;
1126.8000;0.3923;-1.0647;
1127.1000;0.4013;-1.0397;
1127.4000;0.3907;-1.0547;
1127.7000;0.3923;-1.0522;
1128.0000;0.3915;-1.0597;
1128.3000;0.3923;-1.0622;
1128.6000;0.3923;-1.0671;
1128.9000;0.3907;-1.0796;
1129.2000;0.3899;-1.0871;
1129.5000;0.3915;-1.0821;
1129.8000;0.3915;-1.0746;
1130.1000;0.3915;-1.0746;
1130.4000;0.3932;-1.0721;
1130.7000;0.3923;-1.0622;
1131.0000;0.3932;-1.0647;
1131.3000;0.3923;-1.0671;
1131.6000;0.3972;-1.0522;
1131.9000;0.3923;-1.0622;
1132.2000;0.3932;-1.0647;
1132.5000;0.3956;-1.0671;
1132.8000;0.3915;-1.0696;
1133.1000;0.3923;-1.0721;
1133.4000;0.3932;-1.0696;
1133.7000;0.3923;-1.0671;
1134.0000;0.3923;-1.0721;
1134.3000;0.3915;-1.0796;
1134.6000;0.3875;-1.0746;
1134.9000;0.3923;-1.0572;
1135.2000;0.3923;-1.0572;
1135.5000;0.3980;-1.0522;
1135.8000;0.3923;-1.0696;
1136.1000;0.3915;-1.0746;
1136.4000;0.3858;-1.0946;
1136.7000;0.3972;-1.0597;
1137.0000;0.3842;-1.0996;
1137.3000;0.3923;-1.0746;
1137.6000;0.3907;-1.0721;
1137.9000;0.3915;-1.0746;
1138.2000;0.3907;-1.0871;
1138.5000;0.3980;-1.0622;
1138.8000;0.3915;-1.0796;
1139.1000;0.3907;-1.0771;
1139.4000;0.3915;-1.0771;
1139.7000;0.3842;-1.0846;
1140.0000;0.3923;-1.0622;
1140.3000;0.3940;-1.0547;
1140.6000;0.3923;-1.0497;
1140.9000;0.3923;-1.0622;
1141.2000;0.3923;-1.0622;
1141.5000;0.3932;-1.0671;
1141.8000;0.3915;-1.0671;
1142.1000;0.3923;-1.0647;
1142.4000;0.3948;-1.0547;
1142.7000;0.3907;-1.0572;
1143.0000;0.3923;-1.0547;
1143.3000;0.3923;-1.0522;
1143.6000;0.3940;-1.0547;
1143.9000;0.3899;-1.0721;
1144.2000;0.3907;-1.0721;
1144.5000;0.3989;-1.0572;
1144.8000;0.3915;-1.0746;
1145.1000;0.3923;-1.0721;
1145.4000;0.3915;-1.0771;
1145.7000;0.3915;-1.0746;
1146.0000;0.3915;-1.0671;
1146.3000;0.3923;-1.0597;
1146.6000;0.3923;-1.0547;
1146.9000;0.3899;-1.0696;
1147.2000;0.3907;-1.0622;
1147.5000;0.3948;-1.0647;
1147.8000;0.3899;-1.0846;
1148.1000;0.3948;-1.0846;
1148.4000;0.3915;-1.0946;
1148.7000;0.3899;-1.0821;
1149.0000;0.3980;-1.0671;
1149.3000;0.3907;-1.0647;
1149.6000;0.3899;-1.0522;
1149.9000;0.3915;-1.0497;
1150.2000;0.3907;-1.0547;
1150.5000;0.3899;-1.0622;
1150.8000;0.3883;-1.0671;
1151.1000;0.3923;-1.0721;
1151.4000;0.3932;-1.0671;
1151.7000;0.3915;-1.0597;
1152.0000;0.3932;-1.0522;
1152.3000;0.3907;-1.0522;
1152.6000;0.3948;-1.0322;
1152.9000;0.3826;-1.0597;
1153.2000;0.3915;-1.0372;
1153.5000;0.3932;-1.0397;
1153.8000;0.3940;-1.0422;
1154.1000;0.3915;-1.0572;
1154.4000;0.3923;-1.0572;
1154.7000;0.3923;-1.0522;
1155.0000;0.3932;-1.0472;
1155.3000;0.3907;-1.0472;
1155.6000;0.3923;-1.0397;
1155.9000;0.3858;-1.0622;
1156.2000;0.3948;-1.0372;
1156.5000;0.3907;-1.0497;
1156.8000;0.3826;-1.0746;
1157.1000;0.3907;-1.0522;
1157.4000;0.3948;-1.0497;
1157.7000;0.3915;-1.0547;
1158.0000;0.3915;-1.0522;
1158.3000;0.3940;-1.0547;
1158.6000;0.3915;-1.0622;
1158.9000;0.3915;-1.0671;
1159.2000;0.3923;-1.0622;
1159.5000;0.3891;-1.0771;
1159.8000;0.3899;-1.0696;
1160.1000;0.3915;-1.0721;
1160.4000;0.3899;-1.0721;
1160.7000;0.3907;-1.0721;
1161.0000;0.3899;-1.0721;
1161.3000;0.3899;-1.0696;
1161.6000;0.3899;-1.0597;
1161.9000;0.3907;-1.0647;
1162.2000;0.3907;-1.0821;
1162.5000;0.3915;-1.0896;
1162.8000;0.3997;-1.0597;
1163.1000;0.3915;-1.0821;
1163.4000;0.3899;-1.0846;
1163.7000;0.3907;-1.0746;
1164.0000;0.3923;-1.0597;
1164.3000;0.3923;-1.0597;
1164.6000;0.3940;-1.0647;
1164.9000;0.3915;-1.0696;
1165.2000;0.3915;-1.0721;
1165.5000;0.3907;-1.0696;
1165.8000;0.3899;-1.0597;
1166.1000;0.3915;-1.0622;
1166.4000;0.3899;-1.0597;
1166.7000;0.3858;-1.0721;
1167.0000;0.3899;-1.0622;
1167.3000;0.3899;-1.0572;
1167.6000;0.3956;-1.0497;
1167.9000;0.3907;-1.0572;
1168.2000;0.3932;-1.0522;
1168.5000;0.3907;-1.0522;
1168.8000;0.3932;-1.0572;
1169.1000;0.3915;-1.0572;
1169.4000;0.3923;-1.0622;
1169.7000;0.3932;-1.0622;
1170.0000;0.3940;-1.0647;
1170.3000;0.3907;-1.0746;
1170.6000;0.3915;-1.0647;
1170.9000;0.3907;-1.0647;
1171.2000;0.3891;-1.0696;
1171.5000;0.3915;-1.0522;
1171.8000;0.3907;-1.0572;
1172.1000;0.3940;-1.0547;
1172.4000;0.3923;-1.0622;
1172.7000;0.3915;-1.0671;
1173.0000;0.3899;-1.0696;
1173.3000;0.3915;-1.0696;
1173.6000;0.3940;-1.0696;
1173.9000;0.3858;-1.0746;
1174.2000;0.3842;-1.0846;
1174.5000;0.3923;-1.0497;
1174.8000;0.3932;-1.0497;
1175.1000;0.3948;-1.0522;
1175.4000;0.3883;-1.0647;
1175.7000;0.3923;-1.0547;
1176.0000;0.3932;-1.0547;
1176.3000;0.3915;-1.0572;
1176.6000;0.3907;-1.0647;
1176.9000;0.3940;-1.0522;
1177.2000;0.3907;-1.0547;
1177.5000;0.3907;-1.0572;
1177.8000;0.3932;-1.0572;
1178.1000;0.3923;-1.0572;
1178.4000;0.3915;-1.0572;
1178.7000;0.3915;-1.0597;
1179.0000;0.3932;-1.0572;
1179.3000;0.3923;-1.0597;
1179.6000;0.3923;-1.0696;
1179.9000;0.3907;-1.0696;
1180.2000;0.4013;-1.0422;
1180.5000;0.3923;-1.0696;
1180.8000;0.3923;-1.0696;
1181.1000;0.3923;-1.0622;
1181.4000;0.3915;-1.0597;
1181.7000;0.3923;-1.0572;
1182.0000;0.3956;-1.0447;
1182.3000;0.3899;-1.0522;
1182.6000;0.3932;-1.0497;
1182.9000;0.3923;-1.0572;
1183.2000;0.3923;-1.0572;
1183.5000;0.3915;-1.0671;
1183.8000;0.3923;-1.0622;
1184.1000;0.3915;-1.0671;
1184.4000;0.3923;-1.0547;
1184.7000;0.3940;-1.0572;
1185.0000;0.3915;-1.0696;
1185.3000;0.3867;-1.0721;
1185.6000;0.3932;-1.0696;
1185.9000;0.3923;-1.0721;
1186.2000;0.3907;-1.0721;
1186.5000;0.3915;-1.0696;
1186.8000;0.3923;-1.0647;
1187.1000;0.3915;-1.0696;
1187.4000;0.3915;-1.0721;
1187.7000;0.3899;-1.0721;
1188.0000;0.3907;-1.0647;
1188.3000;0.3899;-1.0721;
1188.6000;0.3915;-1.0721;
1188.9000;0.3915;-1.0746;
1189.2000;0.3932;-1.0671;
1189.5000;0.3915;-1.0746;
1189.8000;0.3932;-1.0647;
1190.1000;0.3932;-1.0622;
1190.4000;0.3932;-1.0547;
1190.7000;0.3915;-1.0522;
1191.0000;0.3907;-1.0572;
1191.3000;0.3932;-1.0472;
1191.6000;0.3907;-1.0522;
1191.9000;0.3915;-1.0497;
1192.2000;0.3915;-1.0522;
1192.5000;0.3907;-1.0572;
1192.8000;0.3875;-1.0597;
1193.1000;0.3875;-1.0671;
1193.4000;0.3980;-1.0447;
1193.7000;0.3915;-1.0572;
1194.0000;0.3932;-1.0647;
1194.3000;0.3867;-1.0771;
1194.6000;0.3899;-1.0647;
1194.9000;0.3915;-1.0597;
1195.2000;0.3867;-1.0796;
1195.5000;0.3915;-1.0647;
1195.8000;0.3826;-1.0871;
1196.1000;0.3948;-1.0647;
1196.4000;0.3875;-1.0846;
1196.7000;0.3915;-1.0771;
1197.0000;0.3915;-1.0721;
1197.3000;0.3907;-1.0622;
1197.6000;0.3867;-1.0721;
1197.9000;0.3923;-1.0597;
1198.2000;0.3964;-1.0447;
1198.5000;0.3972;-1.0372;
1198.8000;0.3932;-1.0372;
1199.1000;0.3875;-1.0547;
1199.4000;0.3932;-1.0522;
1199.7000;0.3932;-1.0522;
1200.0000;0.3932;-1.0522;
1200.3000;0.3915;-1.0572;
1200.6000;0.3940;-1.0447;
1200.9000;0.3915;-1.0547;
1201.2000;0.3923;-1.0522;
1201.5000;0.3932;-1.0597;
1201.8000;0.3891;-1.0721;
1202.1000;0.3915;-1.0597;
1202.4000;0.3932;-1.0522;
1202.7000;0.3915;-1.0522;
1203.0000;0.3932;-1.0497;
1203.3000;0.3915;-1.0497;
1203.6000;0.3883;-1.0572;
1203.9000;0.3915;-1.0522;
1204.2000;0.3923;-1.0447;
1204.5000;0.3940;-1.0347;
1204.8000;0.3915;-1.0522;
1205.1000;0.3818;-1.0821;
1205.4000;0.3907;-1.0522;
1205.7000;0.3907;-1.0572;
1206.0000;0.3899;-1.0721;
1206.3000;0.3907;-1.0696;
1206.6000;0.3899;-1.0696;
1206.9000;0.3915;-1.0547;
1207.2000;0.3915;-1.0597;
1207.5000;0.3923;-1.0597;
1207.8000;0.3915;-1.0622;
1208.1000;0.3907;-1.0721;
1208.4000;0.3932;-1.0622;
1208.7000;0.3923;-1.0597;
1209.0000;0.3923;-1.0597;
1209.3000;0.3907;-1.0647;
1209.6000;0.3923;-1.0497;
1209.9000;0.3907;-1.0497;
1210.2000;0.3932;-1.0447;
1210.5000;0.3915;-1.0572;
1210.8000;0.3907;-1.0572;
1211.1000;0.3907;-1.0647;
1211.4000;0.3907;-1.0647;
1211.7000;0.3915;-1.0671;
1212.0000;0.3907;-1.0671;
1212.3000;0.3915;-1.0597;
1212.6000;0.3932;-1.0522;
1212.9000;0.3932;-1.0547;
1213.2000;0.3907;-1.0547;
1213.5000;0.3923;-1.0497;
1213.8000;0.3964;-1.0422;
1214.1000;0.3923;-1.0522;
1214.4000;0.3940;-1.0372;
1214.7000;0.3915;-1.0372;
1215.0000;0.3940;-1.0297;
1215.3000;0.3940;-1.0297;
1215.6000;0.3907;-1.0372;
1215.9000;0.3891;-1.0547;
1216.2000;0.3964;-1.0372;
1216.5000;0.3907;-1.0547;
1216.8000;0.3899;-1.0522;
1217.1000;0.3915;-1.0372;
1217.4000;0.3907;-1.0422;
1217.7000;0.3923;-1.0472;
1218.0000;0.3989;-1.0372;
1218.3000;0.3964;-1.0547;
1218.6000;0.3915;-1.0721;
1218.9000;0.3907;-1.0721;
1219.2000;0.3867;-1.0846;
1219.5000;0.3907;-1.0696;
1219.8000;0.3899;-1.0622;
1220.1000;0.4054;-1.0223;
1220.4000;0.3883;-1.0647;
1220.7000;0.3907;-1.0472;
1221.0000;0.3915;-1.0522;
1221.3000;0.3964;-1.0273;
1221.6000;0.3899;-1.0422;
1221.9000;0.3907;-1.0472;
1222.2000;0.3907;-1.0497;
1222.5000;0.3899;-1.0472;
1222.8000;0.3915;-1.0372;
1223.1000;0.3875;-1.0397;
1223.4000;0.3915;-1.0347;
1223.7000;0.3932;-1.0397;
1224.0000;0.3915;-1.0397;
1224.3000;0.3923;-1.0422;
1224.6000;0.3923;-1.0447;
1224.9000;0.3915;-1.0497;
1225.2000;0.3907;-1.0522;
1225.5000;0.3923;-1.0447;
1225.8000;0.3899;-1.0447;
1226.1000;0.3932;-1.0422;
1226.4000;0.3891;-1.0547;
1226.7000;0.3923;-1.0472;
1227.0000;0.3997;-1.0248;
1227.3000;0.3907;-1.0572;
1227.6000;0.3915;-1.0522;
1227.9000;0.3915;-1.0497;
1228.2000;0.3923;-1.0472;
1228.5000;0.3923;-1.0422;
1228.8000;0.3940;-1.0397;
1229.1000;0.3932;-1.0397;
1229.4000;0.3915;-1.0372;
1229.7000;0.3907;-1.0347;
1230.0000;0.3915;-1.0347;
1230.3000;0.3915;-1.0422;
1230.6000;0.3972;-1.0397;
1230.9000;0.3899;-1.0597;
1231.2000;0.3907;-1.0622;
1231.5000;0.3932;-1.0547;
1231.8000;0.3899;-1.0647;
1232.1000;0.3907;-1.0547;
1232.4000;0.3915;-1.0597;
1232.7000;0.3907;-1.0597;
1233.0000;0.3907;-1.0547;
1233.3000;0.3923;-1.0572;
1233.6000;0.3915;-1.0522;
1233.9000;0.3923;-1.0397;
1234.2000;0.3915;-1.0347;
1234.5000;0.3923;-1.0372;
1234.8000;0.3923;-1.0347;
1235.1000;0.3891;-1.0347;
1235.4000;0.3907;-1.0322;
1235.7000;0.3923;-1.0322;
1236.0000;0.3899;-1.0347;
1236.3000;0.3907;-1.0297;
1236.6000;0.3875;-1.0472;
1236.9000;0.3915;-1.0422;
1237.2000;0.3907;-1.0422;
1237.5000;0.3907;-1.0372;
1237.8000;0.3923;-1.0322;
1238.1000;0.3915;-1.0322;
1238.4000;0.3899;-1.0422;
1238.7000;0.3891;-1.0522;
1239.0000;0.3858;-1.0597;
1239.3000;0.3915;-1.0472;
1239.6000;0.3907;-1.0447;
1239.9000;0.3956;-1.0347;
1240.2000;0.3915;-1.0522;
1240.5000;0.3923;-1.0522;
1240.8000;0.3932;-1.0522;
1241.1000;0.3915;-1.0572;
1241.4000;0.3923;-1.0622;
1241.7000;0.3932;-1.0547;
1242.0000;0.3923;-1.0597;
1242.3000;0.3899;-1.0796;
1242.6000;0.3915;-1.0746;
1242.9000;0.3899;-1.0671;
1243.2000;0.3891;-1.0696;
1243.5000;0.3907;-1.0572;
1243.8000;0.3956;-1.0422;
1244.1000;0.3956;-1.0422;
1244.4000;0.3948;-1.0497;
1244.7000;0.3915;-1.0597;
1245.0000;0.3850;-1.0771;
1245.3000;0.3923;-1.0547;
1245.6000;0.3956;-1.0472;
1245.9000;0.3915;-1.0522;
1246.2000;0.3907;-1.0572;
1246.5000;0.3907;-1.0547;
1246.8000;0.3923;-1.0472;
1247.1000;0.3899;-1.0547;
1247.4000;0.3915;-1.0597;
1247.7000;0.3899;-1.0597;
1248.0000;0.3907;-1.0547;
1248.3000;0.3915;-1.0447;
1248.6000;0.3899;-1.0497;
1248.9000;0.3899;-1.0572;
1249.2000;0.3923;-1.0497;
1249.5000;0.3891;-1.0572;
1249.8000;0.3923;-1.0547;
1250.1000;0.3956;-1.0422;
1250.4000;0.3899;-1.0572;
1250.7000;0.3923;-1.0622;
1251.0000;0.3899;-1.0721;
1251.3000;0.3907;-1.0696;
1251.6000;0.3915;-1.0671;
1251.9000;0.3907;-1.0696;
1252.2000;0.3899;-1.0671;
1252.5000;0.3915;-1.0671;
1252.8000;0.3858;-1.0821;
1253.1000;0.3923;-1.0622;
1253.4000;0.3899;-1.0647;
1253.7000;0.3923;-1.0696;
1254.0000;0.3915;-1.0671;
1254.3000;0.3915;-1.0647;
1254.6000;0.3899;-1.0721;
1254.9000;0.3907;-1.0696;
1255.2000;0.3899;-1.0771;
1255.5000;0.3923;-1.0671;
1255.8000;0.3923;-1.0696;
1256.1000;0.3915;-1.0671;
1256.4000;0.3907;-1.0696;
1256.7000;0.3915;-1.0671;
1257.0000;0.3932;-1.0622;
1257.3000;0.3989;-1.0497;
1257.6000;0.3907;-1.0746;
1257.9000;0.3891;-1.0696;
1258.2000;0.3915;-1.0597;
1258.5000;0.3915;-1.0671;
1258.8000;0.3875;-1.0846;
1259.1000;0.3899;-1.0771;
1259.4000;0.3932;-1.0671;
1259.7000;0.3899;-1.0796;
1260.0000;0.3915;-1.0721;
1260.3000;0.3907;-1.0647;
1260.6000;0.3915;-1.0696;
1260.9000;0.3923;-1.0771;
1261.2000;0.3907;-1.0746;
1261.5000;0.3899;-1.0721;
1261.8000;0.3907;-1.0746;
1262.1000;0.3915;-1.0622;
1262.4000;0.3907;-1.0522;
1262.7000;0.3891;-1.0647;
1263.0000;0.3915;-1.0597;
1263.3000;0.3899;-1.0671;
1263.6000;0.3907;-1.0622;
1263.9000;0.3923;-1.0597;
1264.2000;0.3883;-1.0721;
1264.5000;0.3883;-1.0771;
1264.8000;0.3915;-1.0671;
1265.1000;0.3915;-1.0746;
1265.4000;0.3923;-1.0721;
1265.7000;0.3932;-1.0721;
1266.0000;0.3850;-1.0871;
1266.3000;0.3850;-1.0846;
1266.6000;0.3899;-1.0671;
1266.9000;0.3907;-1.0622;
1267.2000;0.3883;-1.0622;
1267.5000;0.3932;-1.0422;
1267.8000;0.3907;-1.0547;
1268.1000;0.3923;-1.0597;
1268.4000;0.3907;-1.0572;
1268.7000;0.3923;-1.0622;
1269.0000;0.3956;-1.0597;
1269.3000;0.3899;-1.0696;
1269.6000;0.3915;-1.0771;
1269.9000;0.3940;-1.0696;
1270.2000;0.3907;-1.0771;
1270.5000;0.3907;-1.0771;
1270.8000;0.3907;-1.0771;
1271.1000;0.3964;-1.0597;
1271.4000;0.3923;-1.0721;
1271.7000;0.3915;-1.0721;
1272.0000;0.3915;-1.0647;
1272.3000;0.3907;-1.0696;
1272.6000;0.3899;-1.0696;
1272.9000;0.3891;-1.0771;
1273.2000;0.3915;-1.0721;
1273.5000;0.3899;-1.0746;
1273.8000;0.3875;-1.0846;
1274.1000;0.3899;-1.0671;
1274.4000;0.3899;-1.0622;
1274.7000;0.3907;-1.0647;
1275.0000;0.3891;-1.0696;
1275.3000;0.3907;-1.0572;
1275.6000;0.3899;-1.0597;
1275.9000;0.4029;-1.0372;
1276.2000;0.3923;-1.0671;
1276.5000;0.3923;-1.0647;
1276.8000;0.3907;-1.0721;
1277.1000;0.3915;-1.0746;
1277.4000;0.3915;-1.0771;
1277.7000;0.3956;-1.0622;
1278.0000;0.3923;-1.0622;
1278.3000;0.3907;-1.0622;
1278.6000;0.3883;-1.0597;
1278.9000;0.3932;-1.0447;
1279.2000;0.3907;-1.0597;
1279.5000;0.3899;-1.0647;
1279.8000;0.3875;-1.0746;
1280.1000;0.3932;-1.0671;
1280.4000;0.3907;-1.0771;
1280.7000;0.3964;-1.0597;
1281.0000;0.3907;-1.0771;
1281.3000;0.3923;-1.0746;
1281.6000;0.3932;-1.0821;
1281.9000;0.3915;-1.0671;
1282.2000;0.3899;-1.0647;
1282.5000;0.3972;-1.0397;
1282.8000;0.3891;-1.0497;
1283.1000;0.3891;-1.0447;
1283.4000;0.3907;-1.0372;
1283.7000;0.3899;-1.0447;
1284.0000;0.3891;-1.0497;
1284.3000;0.3907;-1.0447;
1284.6000;0.3915;-1.0422;
1284.9000;0.3891;-1.0472;
1285.2000;0.3883;-1.0497;
1285.5000;0.3899;-1.0547;
1285.8000;0.3932;-1.0547;
1286.1000;0.3834;-1.0846;
1286.4000;0.3899;-1.0721;
1286.7000;0.3875;-1.0746;
1287.0000;0.3923;-1.0671;
1287.3000;0.3850;-1.0821;
1287.6000;0.3915;-1.0622;
1287.9000;0.3980;-1.0522;
1288.2000;0.3899;-1.0771;
1288.5000;0.3891;-1.0696;
1288.8000;0.3891;-1.0597;
1289.1000;0.3899;-1.0472;
1289.4000;0.3858;-1.0597;
1289.7000;0.3891;-1.0497;
1290.0000;0.3899;-1.0397;
1290.3000;0.3997;-1.0173;
1290.6000;0.3891;-1.0447;
1290.9000;0.3899;-1.0472;
1291.2000;0.3948;-1.0322;
1291.5000;0.3940;-1.0472;
1291.8000;0.3915;-1.0472;
1292.1000;0.3907;-1.0422;
1292.4000;0.3899;-1.0397;
1292.7000;0.3932;-1.0322;
1293.0000;0.3932;-1.0273;
1293.3000;0.3932;-1.0173;
1293.6000;0.3891;-1.0198;
1293.9000;0.3907;-1.0223;
1294.2000;0.3875;-1.0472;
1294.5000;0.3923;-1.0273;
1294.8000;0.3907;-1.0248;
1295.1000;0.3818;-1.0622;
1295.4000;0.3907;-1.0422;
1295.7000;0.3948;-1.0372;
1296.0000;0.3948;-1.0422;
1296.3000;0.3923;-1.0572;
1296.6000;0.3907;-1.0522;
1296.9000;0.3899;-1.0597;
1297.2000;0.3875;-1.0696;
1297.5000;0.3915;-1.0547;
1297.8000;0.3907;-1.0547;
1298.1000;0.3875;-1.0572;
1298.4000;0.3899;-1.0497;
1298.7000;0.3891;-1.0547;
1299.0000;0.3891;-1.0447;
1299.3000;0.3907;-1.0372;
1299.6000;0.3915;-1.0372;
1299.9000;0.3923;-1.0322;
1300.2000;0.3915;-1.0447;
1300.5000;0.3899;-1.0522;
1300.8000;0.3956;-1.0422;
1301.1000;0.3891;-1.0597;
1301.4000;0.3915;-1.0547;
1301.7000;0.3923;-1.0572;
1302.0000;0.3915;-1.0547;
1302.3000;0.3923;-1.0497;
1302.6000;0.3907;-1.0472;
1302.9000;0.3907;-1.0422;
1303.2000;0.3915;-1.0372;
1303.5000;0.3915;-1.0347;
1303.8000;0.3907;-1.0472;
1304.1000;0.3907;-1.0497;
1304.4000;0.3915;-1.0447;
1304.7000;0.3891;-1.0472;
1305.0000;0.3899;-1.0497;
1305.3000;0.3923;-1.0572;
1305.6000;0.3899;-1.0671;
1305.9000;0.3891;-1.0721;
1306.2000;0.3899;-1.0746;
1306.5000;0.3858;-1.0796;
1306.8000;0.3915;-1.0572;
1307.1000;0.3932;-1.0522;
1307.4000;0.3915;-1.0622;
1307.7000;0.3907;-1.0647;
1308.0000;0.3899;-1.0547;
1308.3000;0.3915;-1.0497;
1308.6000;0.3923;-1.0447;
1308.9000;0.3899;-1.0472;
1309.2000;0.3850;-1.0572;
1309.5000;0.3915;-1.0422;
1309.8000;0.3891;-1.0472;
1310.1000;0.3899;-1.0472;
1310.4000;0.3907;-1.0597;
1310.7000;0.3907;-1.0572;
1311.0000;0.3932;-1.0522;
1311.3000;0.3972;-1.0397;
1311.6000;0.3932;-1.0472;
1311.9000;0.3989;-1.0273;
1312.2000;0.3915;-1.0622;
1312.5000;0.3923;-1.0572;
1312.8000;0.3899;-1.0472;
1313.1000;0.3907;-1.0447;
1313.4000;0.3956;-1.0347;
1313.7000;0.3923;-1.0547;
1314.0000;0.3956;-1.0497;
1314.3000;0.3997;-1.0472;
1314.6000;0.3956;-1.0572;
1314.9000;0.3915;-1.0696;
1315.2000;0.3899;-1.0821;
1315.5000;0.3915;-1.0771;
1315.8000;0.3907;-1.0721;
1316.1000;0.3842;-1.0821;
1316.4000;0.3932;-1.0572;
1316.7000;0.3907;-1.0647;
1317.0000;0.3899;-1.0622;
1317.3000;0.3923;-1.0572;
1317.6000;0.3907;-1.0696;
1317.9000;0.3899;-1.0696;
1318.2000;0.3932;-1.0572;
1318.5000;0.3923;-1.0572;
1318.8000;0.3867;-1.0771;
1319.1000;0.3923;-1.0721;
1319.4000;0.3907;-1.0721;
1319.7000;0.3932;-1.0622;
1320.0000;0.3923;-1.0547;
1320.3000;0.3899;-1.0622;
1320.6000;0.3915;-1.0622;
1320.9000;0.3923;-1.0671;
1321.2000;0.3899;-1.0696;
1321.5000;0.3915;-1.0771;
1321.8000;0.3964;-1.0647;
1322.1000;0.3915;-1.0696;
1322.4000;0.3915;-1.0746;
1322.7000;0.3923;-1.0696;
1323.0000;0.3923;-1.0671;
1323.3000;0.3923;-1.0696;
1323.6000;0.3907;-1.0671;
1323.9000;0.3907;-1.0721;
1324.2000;0.3899;-1.0647;
1324.5000;0.3907;-1.0622;
1324.8000;0.3932;-1.0647;
1325.1000;0.3907;-1.0647;
1325.4000;0.3891;-1.0721;
1325.7000;0.3915;-1.0696;
1326.0000;0.3940;-1.0647;
1326.3000;0.3891;-1.0771;
1326.6000;0.3907;-1.0721;
1326.9000;0.3915;-1.0622;
1327.2000;0.3915;-1.0597;
1327.5000;0.3940;-1.0547;
1327.8000;0.3915;-1.0572;
1328.1000;0.3899;-1.0647;
1328.4000;0.3932;-1.0522;
1328.7000;0.3915;-1.0647;
1329.0000;0.3899;-1.0597;
1329.3000;0.3907;-1.0597;
1329.6000;0.3915;-1.0622;
1329.9000;0.3915;-1.0497;
1330.2000;0.3932;-1.0447;
1330.5000;0.3907;-1.0572;
1330.8000;0.3891;-1.0746;
1331.1000;0.3915;-1.0597;
1331.4000;0.3899;-1.0597;
1331.7000;0.3907;-1.0547;
1332.0000;0.3915;-1.0547;
1332.3000;0.3923;-1.0472;
1332.6000;0.3915;-1.0547;
1332.9000;0.3932;-1.0522;
1333.2000;0.3899;-1.0572;
1333.5000;0.3907;-1.0572;
1333.8000;0.3915;-1.0522;
1334.1000;0.3891;-1.0447;
1334.4000;0.3899;-1.0372;
1334.7000;0.3891;-1.0447;
1335.0000;0.3883;-1.0397;
1335.3000;0.3907;-1.0297;
1335.6000;0.3810;-1.0547;
1335.9000;0.3899;-1.0322;
1336.2000;0.3883;-1.0372;
1336.5000;0.3907;-1.0322;
1336.8000;0.3899;-1.0248;
1337.1000;0.3883;-1.0297;
1337.4000;0.3923;-1.0223;
1337.7000;0.3923;-1.0297;
1338.0000;0.3883;-1.0472;
1338.3000;0.3891;-1.0547;
1338.6000;0.3948;-1.0472;
1338.9000;0.3915;-1.0572;
1339.2000;0.3907;-1.0572;
1339.5000;0.3907;-1.0597;
1339.8000;0.3891;-1.0671;
1340.1000;0.3915;-1.0597;
1340.4000;0.3891;-1.0572;
1340.7000;0.3899;-1.0547;
1341.0000;0.3915;-1.0572;
1341.3000;0.3883;-1.0572;
1341.6000;0.3923;-1.0572;
1341.9000;0.3899;-1.0622;
1342.2000;0.3907;-1.0547;
1342.5000;0.3907;-1.0572;
1342.8000;0.3907;-1.0572;
1343.1000;0.3989;-1.0397;
1343.4000;0.3923;-1.0572;
1343.7000;0.3899;-1.0696;
1344.0000;0.3940;-1.0597;
1344.3000;0.3899;-1.0721;
1344.6000;0.3899;-1.0746;
1344.9000;0.3891;-1.0746;
1345.2000;0.3964;-1.0572;
1345.5000;0.3932;-1.0671;
1345.8000;0.3915;-1.0622;
1346.1000;0.3915;-1.0422;
1346.4000;0.3891;-1.0472;
1346.7000;0.3883;-1.0447;
1347.0000;0.3915;-1.0422;
1347.3000;0.3915;-1.0447;
1347.6000;0.3899;-1.0497;
1347.9000;0.3899;-1.0547;
1348.2000;0.3899;-1.0547;
1348.5000;0.3850;-1.0696;
1348.8000;0.3899;-1.0472;
1349.1000;0.3891;-1.0572;
1349.4000;0.3915;-1.0497;
1349.7000;0.3899;-1.0522;
1350.0000;0.3899;-1.0547;
1350.3000;0.3891;-1.0622;
1350.6000;0.3915;-1.0547;
1350.9000;0.3915;-1.0547;
1351.2000;0.3915;-1.0497;
1351.5000;0.3899;-1.0597;
1351.8000;0.3907;-1.0547;
1352.1000;0.3932;-1.0522;
1352.4000;0.3923;-1.0547;
1352.7000;0.3899;-1.0572;
1353.0000;0.3923;-1.0572;
1353.3000;0.3915;-1.0547;
1353.6000;0.3899;-1.0622;
1353.9000;0.3915;-1.0597;
1354.2000;0.3907;-1.0622;
1354.5000;0.3915;-1.0622;
1354.8000;0.3883;-1.0671;
1355.1000;0.3907;-1.0622;
1355.4000;0.3899;-1.0597;
1355.7000;0.3923;-1.0597;
1356.0000;0.3883;-1.0547;
1356.3000;0.3883;-1.0472;
1356.6000;0.3915;-1.0497;
1356.9000;0.3915;-1.0447;
1357.2000;0.3923;-1.0422;
1357.5000;0.3850;-1.0547;
1357.8000;0.3867;-1.0547;
1358.1000;0.3891;-1.0472;
1358.4000;0.3907;-1.0472;
1358.7000;0.3858;-1.0572;
1359.0000;0.3989;-1.0347;
1359.3000;0.3964;-1.0472;
1359.6000;0.3907;-1.0647;
1359.9000;0.3899;-1.0696;
1360.2000;0.3915;-1.0721;
1360.5000;0.3899;-1.0746;
1360.8000;0.3907;-1.0721;
1361.1000;0.3850;-1.0796;
1361.4000;0.3891;-1.0721;
1361.7000;0.3899;-1.0721;
1362.0000;0.3899;-1.0746;
1362.3000;0.3940;-1.0696;
1362.6000;0.3899;-1.0771;
1362.9000;0.3915;-1.0721;
1363.2000;0.3923;-1.0771;
1363.5000;0.3980;-1.0572;
1363.8000;0.3940;-1.0696;
1364.1000;0.3907;-1.0896;
1364.4000;0.3891;-1.0921;
1364.7000;0.3915;-1.0871;
1365.0000;0.3923;-1.0846;
1365.3000;0.3915;-1.0871;
1365.6000;0.3907;-1.0921;
1365.9000;0.3923;-1.0896;
1366.2000;0.3883;-1.0996;
1366.5000;0.3899;-1.0946;
1366.8000;0.3891;-1.0921;
1367.1000;0.3923;-1.0846;
1367.4000;0.3915;-1.0846;
1367.7000;0.3899;-1.0796;
1368.0000;0.3915;-1.0721;
1368.3000;0.3907;-1.0696;
1368.6000;0.3915;-1.0547;
1368.9000;0.3940;-1.0597;
1369.2000;0.3907;-1.0597;
1369.5000;0.3899;-1.0622;
1369.8000;0.3989;-1.0372;
1370.1000;0.3907;-1.0547;
1370.4000;0.3907;-1.0522;
1370.7000;0.3907;-1.0597;
1371.0000;0.3899;-1.0597;
1371.3000;0.3891;-1.0547;
1371.6000;0.3834;-1.0696;
1371.9000;0.3867;-1.0696;
1372.2000;0.3891;-1.0572;
1372.5000;0.3907;-1.0547;
1372.8000;0.3883;-1.0671;
1373.1000;0.3907;-1.0597;
1373.4000;0.3915;-1.0547;
1373.7000;0.3875;-1.0647;
1374.0000;0.3907;-1.0547;
1374.3000;0.3907;-1.0647;
1374.6000;0.3932;-1.0572;
1374.9000;0.3932;-1.0597;
1375.2000;0.3907;-1.0597;
1375.5000;0.3907;-1.0622;
1375.8000;0.3907;-1.0522;
1376.1000;0.3907;-1.0372;
1376.4000;0.3907;-1.0422;
1376.7000;0.3883;-1.0447;
1377.0000;0.3915;-1.0347;
1377.3000;0.3940;-1.0347;
1377.6000;0.3932;-1.0472;
1377.9000;0.3923;-1.0447;
1378.2000;0.3915;-1.0522;
1378.5000;0.3932;-1.0447;
1378.8000;0.3923;-1.0447;
1379.1000;0.3907;-1.0497;
1379.4000;0.3907;-1.0622;
1379.7000;0.3899;-1.0696;
1380.0000;0.3842;-1.0846;
1380.3000;0.3899;-1.0746;
1380.6000;0.3891;-1.0746;
1380.9000;0.3883;-1.0746;
1381.2000;0.3907;-1.0647;
1381.5000;0.3883;-1.0647;
1381.8000;0.3948;-1.0472;
1382.1000;0.3858;-1.0647;
1382.4000;0.3875;-1.0622;
1382.7000;0.3899;-1.0696;
1383.0000;0.3883;-1.0796;
1383.3000;0.3923;-1.0597;
1383.6000;0.3801;-1.0846;
1383.9000;0.3883;-1.0696;
1384.2000;0.3867;-1.0696;
1384.5000;0.3883;-1.0696;
1384.8000;0.3867;-1.0746;
1385.1000;0.3964;-1.0547;
1385.4000;0.3907;-1.0721;
1385.7000;0.3891;-1.0721;
1386.0000;0.3907;-1.0696;
1386.3000;0.3891;-1.0696;
1386.6000;0.3891;-1.0647;
1386.9000;0.3907;-1.0597;
1387.2000;0.3907;-1.0547;
1387.5000;0.3923;-1.0497;
1387.8000;0.3915;-1.0522;
1388.1000;0.3907;-1.0572;
1388.4000;0.3899;-1.0647;
1388.7000;0.3899;-1.0671;
1389.0000;0.3923;-1.0696;
1389.3000;0.3899;-1.0746;
1389.6000;0.3891;-1.0821;
1389.9000;0.3883;-1.0821;
1390.2000;0.3907;-1.0796;
1390.5000;0.3907;-1.0821;
1390.8000;0.3923;-1.0771;
1391.1000;0.3907;-1.0846;
1391.4000;0.3899;-1.0921;
1391.7000;0.3899;-1.0946;
1392.0000;0.3907;-1.0946;
1392.3000;0.3891;-1.1021;
1392.6000;0.3899;-1.0946;
1392.9000;0.3899;-1.0846;
1393.2000;0.3899;-1.0846;
1393.5000;0.3915;-1.0846;
1393.8000;0.3923;-1.0821;
1394.1000;0.3907;-1.0821;
1394.4000;0.3891;-1.0771;
1394.7000;0.3948;-1.0597;
1395.0000;0.3907;-1.0622;
1395.3000;0.3907;-1.0671;
1395.6000;0.3907;-1.0572;
1395.9000;0.3932;-1.0597;
1396.2000;0.3891;-1.0647;
1396.5000;0.3899;-1.0647;
1396.8000;0.3932;-1.0597;
1397.1000;0.3915;-1.0522;
1397.4000;0.3899;-1.0522;
1397.7000;0.3915;-1.0472;
1398.0000;0.3915;-1.0497;
1398.3000;0.3891;-1.0572;
1398.6000;0.3915;-1.0472;
1398.9000;0.3883;-1.0472;
1399.2000;0.3915;-1.0447;
1399.5000;0.3899;-1.0472;
1399.8000;0.3907;-1.0472;
