time/ms;Fluo/V;P700 deltaI/I x10³;
-199.8000;0.4054;-1.4860;
-199.5000;0.4070;-1.4885;
-199.2000;0.4070;-1.4910;
-198.9000;0.4078;-1.4960;
-198.6000;0.4127;-1.4835;
-198.3000;0.4054;-1.5135;
-198.0000;0.4078;-1.5110;
-197.7000;0.4078;-1.5135;
-197.4000;0.3980;-1.5434;
-197.1000;0.4062;-1.5234;
-196.8000;0.4062;-1.5209;
-196.5000;0.4127;-1.5060;
-196.2000;0.4062;-1.5259;
-195.9000;0.4054;-1.5184;
-195.6000;0.4078;-1.5135;
-195.3000;0.4078;-1.5010;
-195.0000;0.4070;-1.5035;
-194.7000;0.4062;-1.5010;
-194.4000;0.4046;-1.5085;
-194.1000;0.4005;-1.5259;
-193.8000;0.4094;-1.5060;
-193.5000;0.4086;-1.5159;
-193.2000;0.4070;-1.5110;
-192.9000;0.4070;-1.5110;
-192.6000;0.4070;-1.5184;
-192.3000;0.4046;-1.5284;
-192.0000;0.4046;-1.5259;
-191.7000;0.4062;-1.5209;
-191.4000;0.4046;-1.5234;
-191.1000;0.4046;-1.5309;
-190.8000;0.4070;-1.5209;
-190.5000;0.4062;-1.5184;
-190.2000;0.4046;-1.5184;
-189.9000;0.4086;-1.5060;
-189.6000;0.4078;-1.5085;
-189.3000;0.4103;-1.5010;
-189.0000;0.4070;-1.5060;
-188.7000;0.4086;-1.5085;
-188.4000;0.4070;-1.5110;
-188.1000;0.4119;-1.5035;
-187.8000;0.4078;-1.5209;
-187.5000;0.4046;-1.5135;
-187.2000;0.4070;-1.5135;
-186.9000;0.4046;-1.5159;
-186.6000;0.4062;-1.4985;
-186.3000;0.4078;-1.4960;
-186.0000;0.4094;-1.5010;
-185.7000;0.4151;-1.4910;
-185.4000;0.4160;-1.4785;
-185.1000;0.4070;-1.5035;
-184.8000;0.4078;-1.5085;
-184.5000;0.4062;-1.5110;
-184.2000;0.4062;-1.5159;
-183.9000;0.4013;-1.5209;
-183.6000;0.4054;-1.5135;
-183.3000;0.4062;-1.5159;
-183.0000;0.4037;-1.5135;
-182.7000;0.4046;-1.5135;
-182.4000;0.4103;-1.5110;
-182.1000;0.4086;-1.5209;
-181.8000;0.4054;-1.5259;
-181.5000;0.4094;-1.5085;
-181.2000;0.4029;-1.5209;
-180.9000;0.4046;-1.5209;
-180.6000;0.4078;-1.5135;
-180.3000;0.4046;-1.5234;
-180.0000;0.4086;-1.5159;
-179.7000;0.4086;-1.5159;
-179.4000;0.4086;-1.5110;
-179.1000;0.4062;-1.5110;
-178.8000;0.4046;-1.5135;
-178.5000;0.4062;-1.5035;
-178.2000;0.4151;-1.4860;
-177.9000;0.4013;-1.5209;
-177.6000;0.4070;-1.5135;
-177.3000;0.4078;-1.5110;
-177.0000;0.4062;-1.5035;
-176.7000;0.4070;-1.5035;
-176.4000;0.4094;-1.4985;
-176.1000;0.4046;-1.5085;
-175.8000;0.4062;-1.4960;
-175.5000;0.4037;-1.5035;
-175.2000;0.4062;-1.5060;
-174.9000;0.4062;-1.5110;
-174.6000;0.4054;-1.5184;
-174.3000;0.4062;-1.5234;
-174.0000;0.4070;-1.5284;
-173.7000;0.4062;-1.5334;
-173.4000;0.4046;-1.5359;
-173.1000;0.4086;-1.5184;
-172.8000;0.4078;-1.5259;
-172.5000;0.4054;-1.5309;
-172.2000;0.4054;-1.5259;
-171.9000;0.4062;-1.5234;
-171.6000;0.4062;-1.5284;
-171.3000;0.4046;-1.5259;
-171.0000;0.4046;-1.5284;
-170.7000;0.4054;-1.5334;
-170.4000;0.4086;-1.5209;
-170.1000;0.4054;-1.5284;
-169.8000;0.4046;-1.5284;
-169.5000;0.4070;-1.5234;
-169.2000;0.4062;-1.5209;
-168.9000;0.4070;-1.5209;
-168.6000;0.4062;-1.5159;
-168.3000;0.4078;-1.5110;
-168.0000;0.4086;-1.5159;
-167.7000;0.4062;-1.5184;
-167.4000;0.4070;-1.5209;
-167.1000;0.4070;-1.5135;
-166.8000;0.4054;-1.5234;
-166.5000;0.4046;-1.5334;
-166.2000;0.4070;-1.5259;
-165.9000;0.4046;-1.5309;
-165.6000;0.4086;-1.5184;
-165.3000;0.4111;-1.5060;
-165.0000;0.4078;-1.5159;
-164.7000;0.4070;-1.5259;
-164.4000;0.4070;-1.5284;
-164.1000;0.4037;-1.5359;
-163.8000;0.4054;-1.5334;
-163.5000;0.4062;-1.5259;
-163.2000;0.4054;-1.5234;
-162.9000;0.4062;-1.5135;
-162.6000;0.4062;-1.5159;
-162.3000;0.4062;-1.5110;
-162.0000;0.4062;-1.5085;
-161.7000;0.4054;-1.5010;
-161.4000;0.4062;-1.5010;
-161.1000;0.4070;-1.5085;
-160.8000;0.4054;-1.5209;
-160.5000;0.4046;-1.5234;
-160.2000;0.4078;-1.5209;
-159.9000;0.4054;-1.5259;
-159.6000;0.4054;-1.5334;
-159.3000;0.4078;-1.5284;
-159.0000;0.4054;-1.5234;
-158.7000;0.4070;-1.5259;
-158.4000;0.4054;-1.5259;
-158.1000;0.4078;-1.5184;
-157.8000;0.4070;-1.5184;
-157.5000;0.4062;-1.5234;
-157.2000;0.4062;-1.5234;
-156.9000;0.4086;-1.5110;
-156.6000;0.4070;-1.5234;
-156.3000;0.4054;-1.5309;
-156.0000;0.4070;-1.5209;
-155.7000;0.4078;-1.5159;
-155.4000;0.4013;-1.5209;
-155.1000;0.4062;-1.5085;
-154.8000;0.4070;-1.5110;
-154.5000;0.4062;-1.5110;
-154.2000;0.4054;-1.5135;
-153.9000;0.4062;-1.5010;
-153.6000;0.4054;-1.4935;
-153.3000;0.4070;-1.4935;
-153.0000;0.4054;-1.5010;
-152.7000;0.4078;-1.5085;
-152.4000;0.4078;-1.5085;
-152.1000;0.4054;-1.5035;
-151.8000;0.4054;-1.5035;
-151.5000;0.4070;-1.4935;
-151.2000;0.4070;-1.4960;
-150.9000;0.4078;-1.4960;
-150.6000;0.4046;-1.5035;
-150.3000;0.4037;-1.5035;
-150.0000;0.4062;-1.5010;
-149.7000;0.4054;-1.5060;
-149.4000;0.4054;-1.5085;
-149.1000;0.4054;-1.5159;
-148.8000;0.4078;-1.5085;
-148.5000;0.4062;-1.5135;
-148.2000;0.4062;-1.5184;
-147.9000;0.4046;-1.5135;
-147.6000;0.4062;-1.5085;
-147.3000;0.4070;-1.5035;
-147.0000;0.4062;-1.5110;
-146.7000;0.4062;-1.5209;
-146.4000;0.4054;-1.5259;
-146.1000;0.4070;-1.5334;
-145.8000;0.4054;-1.5334;
-145.5000;0.4046;-1.5259;
-145.2000;0.4037;-1.5209;
-144.9000;0.4062;-1.5259;
-144.6000;0.4046;-1.5284;
-144.3000;0.4054;-1.5234;
-144.0000;0.4062;-1.5184;
-143.7000;0.4054;-1.5209;
-143.4000;0.4086;-1.5259;
-143.1000;0.4062;-1.5209;
-142.8000;0.4054;-1.5209;
-142.5000;0.4054;-1.5209;
-142.2000;0.4062;-1.5184;
-141.9000;0.4062;-1.5110;
-141.6000;0.4062;-1.5035;
-141.3000;0.4070;-1.5085;
-141.0000;0.4078;-1.5060;
-140.7000;0.3997;-1.5234;
-140.4000;0.4070;-1.5010;
-140.1000;0.4078;-1.5060;
-139.8000;0.4054;-1.5135;
-139.5000;0.4054;-1.5184;
-139.2000;0.4078;-1.5209;
-138.9000;0.4070;-1.5159;
-138.6000;0.4054;-1.5135;
-138.3000;0.4070;-1.5159;
-138.0000;0.4054;-1.5209;
-137.7000;0.4046;-1.5234;
-137.4000;0.4062;-1.5184;
-137.1000;0.4111;-1.5035;
-136.8000;0.4054;-1.5184;
-136.5000;0.4037;-1.5234;
-136.2000;0.4070;-1.5184;
-135.9000;0.4070;-1.5060;
-135.6000;0.4070;-1.5060;
-135.3000;0.4070;-1.5159;
-135.0000;0.4086;-1.5209;
-134.7000;0.4070;-1.5309;
-134.4000;0.4070;-1.5359;
-134.1000;0.4013;-1.5509;
-133.8000;0.4151;-1.5085;
-133.5000;0.4046;-1.5284;
-133.2000;0.4062;-1.5309;
-132.9000;0.4062;-1.5384;
-132.6000;0.4054;-1.5309;
-132.3000;0.4078;-1.5234;
-132.0000;0.4078;-1.5234;
-131.7000;0.4094;-1.5135;
-131.4000;0.4054;-1.5110;
-131.1000;0.4086;-1.5035;
-130.8000;0.4070;-1.5135;
-130.5000;0.4070;-1.5184;
-130.2000;0.4062;-1.5259;
-129.9000;0.4046;-1.5309;
-129.6000;0.4021;-1.5334;
-129.3000;0.4062;-1.5209;
-129.0000;0.4070;-1.5234;
-128.7000;0.4062;-1.5159;
-128.4000;0.4070;-1.5234;
-128.1000;0.4062;-1.5209;
-127.8000;0.4078;-1.5110;
-127.5000;0.4013;-1.5334;
-127.2000;0.4046;-1.5334;
-126.9000;0.4078;-1.5284;
-126.6000;0.4070;-1.5284;
-126.3000;0.4046;-1.5284;
-126.0000;0.4037;-1.5309;
-125.7000;0.4135;-1.4985;
-125.4000;0.4062;-1.5110;
-125.1000;0.4046;-1.5135;
-124.8000;0.4037;-1.5159;
-124.5000;0.4054;-1.5184;
-124.2000;0.4046;-1.5209;
-123.9000;0.4078;-1.5110;
-123.6000;0.4070;-1.5060;
-123.3000;0.4062;-1.5035;
-123.0000;0.4078;-1.5060;
-122.7000;0.4070;-1.5035;
-122.4000;0.4046;-1.5110;
-122.1000;0.4054;-1.5060;
-121.8000;0.4029;-1.5234;
-121.5000;0.4078;-1.5159;
-121.2000;0.4078;-1.5284;
-120.9000;0.4111;-1.5135;
-120.6000;0.4078;-1.5159;
-120.3000;0.4094;-1.5234;
-120.0000;0.4037;-1.5309;
-119.7000;0.4086;-1.5234;
-119.4000;0.3956;-1.5558;
-119.1000;0.4070;-1.5234;
-118.8000;0.4046;-1.5334;
-118.5000;0.4029;-1.5359;
-118.2000;0.4094;-1.5184;
-117.9000;0.4013;-1.5334;
-117.6000;0.4062;-1.5184;
-117.3000;0.4070;-1.5184;
-117.0000;0.4070;-1.5184;
-116.7000;0.4070;-1.5184;
-116.4000;0.4029;-1.5184;
-116.1000;0.4078;-1.5010;
-115.8000;0.4054;-1.5085;
-115.5000;0.4070;-1.5060;
-115.2000;0.4054;-1.4985;
-114.9000;0.4062;-1.4885;
-114.6000;0.4046;-1.5010;
-114.3000;0.4086;-1.4860;
-114.0000;0.4054;-1.4935;
-113.7000;0.4062;-1.4960;
-113.4000;0.4062;-1.5035;
-113.1000;0.4062;-1.5085;
-112.8000;0.4078;-1.5035;
-112.5000;0.4054;-1.5035;
-112.2000;0.4037;-1.5035;
-111.9000;0.4070;-1.4960;
-111.6000;0.4046;-1.5085;
-111.3000;0.4046;-1.5159;
-111.0000;0.4070;-1.5110;
-110.7000;0.4070;-1.5110;
-110.4000;0.4086;-1.5135;
-110.1000;0.4151;-1.5035;
-109.8000;0.4078;-1.5135;
-109.5000;0.4054;-1.5035;
-109.2000;0.4054;-1.5010;
-108.9000;0.4070;-1.4835;
-108.6000;0.4005;-1.5060;
-108.3000;0.4078;-1.4935;
-108.0000;0.4086;-1.4960;
-107.7000;0.4037;-1.5135;
-107.4000;0.4078;-1.5184;
-107.1000;0.4046;-1.5209;
-106.8000;0.4062;-1.5159;
-106.5000;0.4070;-1.5234;
-106.2000;0.4062;-1.5284;
-105.9000;0.4062;-1.5234;
-105.6000;0.4078;-1.5159;
-105.3000;0.4078;-1.5110;
-105.0000;0.4070;-1.5159;
-104.7000;0.4078;-1.5060;
-104.4000;0.4086;-1.5035;
-104.1000;0.4078;-1.4985;
-103.8000;0.4070;-1.5010;
-103.5000;0.4070;-1.4935;
-103.2000;0.4078;-1.4885;
-102.9000;0.4070;-1.4910;
-102.6000;0.4078;-1.4935;
-102.3000;0.4078;-1.4985;
-102.0000;0.4062;-1.5060;
-101.7000;0.4078;-1.5035;
-101.4000;0.4078;-1.5010;
-101.1000;0.4054;-1.5010;
-100.8000;0.4070;-1.4960;
-100.5000;0.4070;-1.5010;
-100.2000;0.4094;-1.4935;
-99.9000;0.4078;-1.4960;
-99.6000;0.4054;-1.4960;
-99.3000;0.4054;-1.4885;
-99.0000;0.4054;-1.4860;
-98.7000;0.4029;-1.4935;
-98.4000;0.4046;-1.4885;
-98.1000;0.4054;-1.4910;
-97.8000;0.4078;-1.4835;
-97.5000;0.4062;-1.4910;
-97.2000;0.4062;-1.4885;
-96.9000;0.4054;-1.4960;
-96.6000;0.4078;-1.4935;
-96.3000;0.4054;-1.5135;
-96.0000;0.4029;-1.5309;
-95.7000;0.4054;-1.5135;
-95.4000;0.4070;-1.5060;
-95.1000;0.4070;-1.5085;
-94.8000;0.4054;-1.5085;
-94.5000;0.4054;-1.5060;
-94.2000;0.4070;-1.5010;
-93.9000;0.4054;-1.5035;
-93.6000;0.4054;-1.5035;
-93.3000;0.4046;-1.5135;
-93.0000;0.4078;-1.5085;
-92.7000;0.4054;-1.5110;
-92.4000;0.4054;-1.5085;
-92.1000;0.4127;-1.4935;
-91.8000;0.4070;-1.5085;
-91.5000;0.4070;-1.4935;
-91.2000;0.4070;-1.4935;
-90.9000;0.4160;-1.4785;
-90.6000;0.4062;-1.5035;
-90.3000;0.4070;-1.5035;
-90.0000;0.4070;-1.4960;
-89.7000;0.4086;-1.4910;
-89.4000;0.4062;-1.5085;
-89.1000;0.4021;-1.5209;
-88.8000;0.4070;-1.5110;
-88.5000;0.4062;-1.5209;
-88.2000;0.4062;-1.5234;
-87.9000;0.4054;-1.5259;
-87.6000;0.4119;-1.5060;
-87.3000;0.4054;-1.5234;
-87.0000;0.4062;-1.5184;
-86.7000;0.4054;-1.5209;
-86.4000;0.4062;-1.5184;
-86.1000;0.4086;-1.5135;
-85.8000;0.4037;-1.5184;
-85.5000;0.4029;-1.5309;
-85.2000;0.4078;-1.5159;
-84.9000;0.4070;-1.5135;
-84.6000;0.4054;-1.5110;
-84.3000;0.4054;-1.5085;
-84.0000;0.4070;-1.5060;
-83.7000;0.4078;-1.5035;
-83.4000;0.4094;-1.5035;
-83.1000;0.4037;-1.5135;
-82.8000;0.4062;-1.5110;
-82.5000;0.4070;-1.5060;
-82.2000;0.4119;-1.4960;
-81.9000;0.4070;-1.5060;
-81.6000;0.4070;-1.5035;
-81.3000;0.4062;-1.5010;
-81.0000;0.4054;-1.5085;
-80.7000;0.4078;-1.4960;
-80.4000;0.4078;-1.5060;
-80.1000;0.4046;-1.5060;
-79.8000;0.4070;-1.5035;
-79.5000;0.4054;-1.5110;
-79.2000;0.4127;-1.4960;
-78.9000;0.4127;-1.4985;
-78.6000;0.4119;-1.4985;
-78.3000;0.4062;-1.5135;
-78.0000;0.4062;-1.5184;
-77.7000;0.4054;-1.5209;
-77.4000;0.4086;-1.5135;
-77.1000;0.4078;-1.5010;
-76.8000;0.4070;-1.5085;
-76.5000;0.4062;-1.5159;
-76.2000;0.4062;-1.5135;
-75.9000;0.4070;-1.5110;
-75.6000;0.4062;-1.5010;
-75.3000;0.4054;-1.5010;
-75.0000;0.4062;-1.5060;
-74.7000;0.4062;-1.5184;
-74.4000;0.4103;-1.5060;
-74.1000;0.4103;-1.5184;
-73.8000;0.4070;-1.5209;
-73.5000;0.4046;-1.5234;
-73.2000;0.4070;-1.5159;
-72.9000;0.4054;-1.5209;
-72.6000;0.4070;-1.5184;
-72.3000;0.4062;-1.5209;
-72.0000;0.4062;-1.5209;
-71.7000;0.4078;-1.5234;
-71.4000;0.4054;-1.5209;
-71.1000;0.4062;-1.5284;
-70.8000;0.4078;-1.5234;
-70.5000;0.4070;-1.5259;
-70.2000;0.4054;-1.5334;
-69.9000;0.4054;-1.5409;
-69.6000;0.4070;-1.5309;
-69.3000;0.4046;-1.5309;
-69.0000;0.4046;-1.5284;
-68.7000;0.4086;-1.5135;
-68.4000;0.4217;-1.4810;
-68.1000;0.4086;-1.5135;
-67.8000;0.4070;-1.5060;
-67.5000;0.4086;-1.5035;
-67.2000;0.4094;-1.4910;
-66.9000;0.4078;-1.4910;
-66.6000;0.4062;-1.4935;
-66.3000;0.4062;-1.4985;
-66.0000;0.4070;-1.4910;
-65.7000;0.4070;-1.4985;
-65.4000;0.4062;-1.5085;
-65.1000;0.4135;-1.4885;
-64.8000;0.4070;-1.5110;
-64.5000;0.4062;-1.5085;
-64.2000;0.4054;-1.5035;
-63.9000;0.4054;-1.5060;
-63.6000;0.4054;-1.5110;
-63.3000;0.4078;-1.5060;
-63.0000;0.4062;-1.5085;
-62.7000;0.4046;-1.5085;
-62.4000;0.4054;-1.5085;
-62.1000;0.4037;-1.5060;
-61.8000;0.4119;-1.4835;
-61.5000;0.4029;-1.5010;
-61.2000;0.4054;-1.4910;
-60.9000;0.4037;-1.4960;
-60.6000;0.4062;-1.5110;
-60.3000;0.4062;-1.5135;
-60.0000;0.4046;-1.5159;
-59.7000;0.4037;-1.5159;
-59.4000;0.4086;-1.5110;
-59.1000;0.4070;-1.5110;
-58.8000;0.4054;-1.5135;
-58.5000;0.4184;-1.4761;
-58.2000;0.4054;-1.5085;
-57.9000;0.4062;-1.5060;
-57.6000;0.4062;-1.5035;
-57.3000;0.4054;-1.5060;
-57.0000;0.4143;-1.4810;
-56.7000;0.4046;-1.5085;
-56.4000;0.4029;-1.5159;
-56.1000;0.4062;-1.5159;
-55.8000;0.4054;-1.5209;
-55.5000;0.4054;-1.5234;
-55.2000;0.4062;-1.5110;
-54.9000;0.4054;-1.5209;
-54.6000;0.4054;-1.5259;
-54.3000;0.4054;-1.5259;
-54.0000;0.4062;-1.5184;
-53.7000;0.4078;-1.5135;
-53.4000;0.4046;-1.5085;
-53.1000;0.4046;-1.5035;
-52.8000;0.4078;-1.4960;
-52.5000;0.4119;-1.4810;
-52.2000;0.4062;-1.5010;
-51.9000;0.4070;-1.5035;
-51.6000;0.4054;-1.5060;
-51.3000;0.4054;-1.5010;
-51.0000;0.4046;-1.4910;
-50.7000;0.4062;-1.4935;
-50.4000;0.3964;-1.5159;
-50.1000;0.4070;-1.4960;
-49.8000;0.4094;-1.4785;
-49.5000;0.4021;-1.4935;
-49.2000;0.4070;-1.4885;
-48.9000;0.4086;-1.4935;
-48.6000;0.4111;-1.4860;
-48.3000;0.4021;-1.5110;
-48.0000;0.4062;-1.4985;
-47.7000;0.4029;-1.5060;
-47.4000;0.4054;-1.5060;
-47.1000;0.4070;-1.5035;
-46.8000;0.4062;-1.5085;
-46.5000;0.4046;-1.5010;
-46.2000;0.4046;-1.5010;
-45.9000;0.4062;-1.4960;
-45.6000;0.4078;-1.4885;
-45.3000;0.4070;-1.4910;
-45.0000;0.4062;-1.4910;
-44.7000;0.4070;-1.4885;
-44.4000;0.4062;-1.4885;
-44.1000;0.4094;-1.4885;
-43.8000;0.4070;-1.4935;
-43.5000;0.4070;-1.4985;
-43.2000;0.4111;-1.4935;
-42.9000;0.4046;-1.5135;
-42.6000;0.4086;-1.5035;
-42.3000;0.4078;-1.5110;
-42.0000;0.4078;-1.4985;
-41.7000;0.4062;-1.4985;
-41.4000;0.4078;-1.4935;
-41.1000;0.4135;-1.4835;
-40.8000;0.4062;-1.4960;
-40.5000;0.4062;-1.4910;
-40.2000;0.4094;-1.4885;
-39.9000;0.4029;-1.5035;
-39.6000;0.4021;-1.5035;
-39.3000;0.4013;-1.5085;
-39.0000;0.4070;-1.4960;
-38.7000;0.4070;-1.4910;
-38.4000;0.4062;-1.4960;
-38.1000;0.4070;-1.5035;
-37.8000;0.4070;-1.4985;
-37.5000;0.4070;-1.5010;
-37.2000;0.4062;-1.5010;
-36.9000;0.4062;-1.5010;
-36.6000;0.4062;-1.4885;
-36.3000;0.4054;-1.4910;
-36.0000;0.4062;-1.4860;
-35.7000;0.4062;-1.4860;
-35.4000;0.4029;-1.4885;
-35.1000;0.4054;-1.4885;
-34.8000;0.4054;-1.4885;
-34.5000;0.4054;-1.4860;
-34.2000;0.4070;-1.4736;
-33.9000;0.4054;-1.4736;
-33.6000;0.4054;-1.4761;
-33.3000;0.4054;-1.4810;
-33.0000;0.4078;-1.4810;
-32.7000;0.4046;-1.4761;
-32.4000;0.4054;-1.4761;
-32.1000;0.4062;-1.4711;
-31.8000;0.4062;-1.4711;
-31.5000;0.4111;-1.4661;
-31.2000;0.4078;-1.4636;
-30.9000;0.4037;-1.4711;
-30.6000;0.4046;-1.4761;
-30.3000;0.4054;-1.4736;
-30.0000;0.4062;-1.4810;
-29.7000;0.4029;-1.4885;
-29.4000;0.4078;-1.4810;
-29.1000;0.4054;-1.4935;
-28.8000;0.4094;-1.4885;
-28.5000;0.4054;-1.5010;
-28.2000;0.4070;-1.4960;
-27.9000;0.4054;-1.4985;
-27.6000;0.4062;-1.4935;
-27.3000;0.4062;-1.4885;
-27.0000;0.4046;-1.4835;
-26.7000;0.4054;-1.4860;
-26.4000;0.4070;-1.4810;
-26.1000;0.4054;-1.4810;
-25.8000;0.4062;-1.4885;
-25.5000;0.3989;-1.5110;
-25.2000;0.4054;-1.4935;
-24.9000;0.4054;-1.5010;
-24.6000;0.4046;-1.5110;
-24.3000;0.4062;-1.5085;
-24.0000;0.4070;-1.5035;
-23.7000;0.4078;-1.4935;
-23.4000;0.4070;-1.5010;
-23.1000;0.4086;-1.4860;
-22.8000;0.4070;-1.4960;
-22.5000;0.4094;-1.4885;
-22.2000;0.4078;-1.4935;
-21.9000;0.4070;-1.4985;
-21.6000;0.4054;-1.5010;
-21.3000;0.4054;-1.4885;
-21.0000;0.4070;-1.4835;
-20.7000;0.4054;-1.4835;
-20.4000;0.4070;-1.4761;
-20.1000;0.4086;-1.4761;
-19.8000;0.4046;-1.4935;
-19.5000;0.4054;-1.4985;
-19.2000;0.4054;-1.4935;
-18.9000;0.4062;-1.4935;
-18.6000;0.4054;-1.4910;
-18.3000;0.4054;-1.4885;
-18.0000;0.4062;-1.4960;
-17.7000;0.4078;-1.4960;
-17.4000;0.4062;-1.4960;
-17.1000;0.4046;-1.4960;
-16.8000;0.4094;-1.4960;
-16.5000;0.4046;-1.5035;
-16.2000;0.4062;-1.4960;
-15.9000;0.4054;-1.4935;
-15.6000;0.4013;-1.5035;
-15.3000;0.4054;-1.4860;
-15.0000;0.4054;-1.4910;
-14.7000;0.4062;-1.4910;
-14.4000;0.4086;-1.4910;
-14.1000;0.4062;-1.4860;
-13.8000;0.4119;-1.4810;
-13.5000;0.4054;-1.5085;
-13.2000;0.4062;-1.5010;
-12.9000;0.4070;-1.4985;
-12.6000;0.4046;-1.5060;
-12.3000;0.4062;-1.4935;
-12.0000;0.4086;-1.4910;
-11.7000;0.4062;-1.5010;
-11.4000;0.4070;-1.5010;
-11.1000;0.4046;-1.5110;
-10.8000;0.4078;-1.4985;
-10.5000;0.3997;-1.5060;
-10.2000;0.4054;-1.4910;
-9.9000;0.4054;-1.4935;
-9.6000;0.4078;-1.4835;
-9.3000;0.4062;-1.4885;
-9.0000;0.4070;-1.4810;
-8.7000;0.4062;-1.4885;
-8.4000;0.4103;-1.4761;
-8.1000;0.4070;-1.4985;
-7.8000;0.4070;-1.4935;
-7.5000;0.4094;-1.4810;
-7.2000;0.4070;-1.4860;
-6.9000;0.4046;-1.4935;
-6.6000;0.4054;-1.4910;
-6.3000;0.4070;-1.4910;
-6.0000;0.4078;-1.4885;
-5.7000;0.4054;-1.4960;
-5.4000;0.4070;-1.4985;
-5.1000;0.4046;-1.5010;
-4.8000;0.4070;-1.4985;
-4.5000;0.4046;-1.5010;
-4.2000;0.4062;-1.4935;
-3.9000;0.4037;-1.5035;
-3.6000;0.4062;-1.5010;
-3.3000;0.4062;-1.4935;
-3.0000;0.4054;-1.4960;
-2.7000;0.4021;-1.5085;
-2.4000;0.4029;-1.5085;
-2.1000;0.4037;-1.5085;
-1.8000;0.4078;-1.5010;
-1.5000;0.4119;-1.4835;
-1.2000;0.4086;-1.5010;
-0.9000;0.4070;-1.5135;
-0.6000;0.4046;-1.5234;
-0.3000;0.4054;-1.5184;
0.0000;0.4054;-1.5184;
0.3000;0.4339;-1.5035;
0.6000;0.4843;-1.4337;
0.9000;0.5258;-1.3813;
1.2000;0.5592;-1.3240;
1.5000;0.5845;-1.2791;
1.8000;0.6048;-1.2367;
2.1000;0.6211;-1.2018;
2.4000;0.6349;-1.1669;
2.7000;0.6439;-1.1370;
3.0000;0.6512;-1.1095;
3.3000;0.6626;-1.0871;
3.6000;0.6634;-1.0821;
3.9000;0.6699;-1.0721;
4.2000;0.6756;-1.0671;
4.5000;0.6813;-1.0671;
4.8000;0.6854;-1.0721;
5.1000;0.6878;-1.0671;
5.4000;0.6927;-1.0597;
5.7000;0.6960;-1.0472;
6.0000;0.6984;-1.0572;
6.3000;0.7017;-1.0696;
6.6000;0.7066;-1.0746;
6.9000;0.7090;-1.0696;
7.2000;0.7188;-1.0522;
7.5000;0.7155;-1.0597;
7.8000;0.7196;-1.0547;
8.1000;0.7196;-1.0522;
8.4000;0.7253;-1.0372;
8.7000;0.7212;-1.0497;
9.0000;0.7253;-1.0522;
9.3000;0.7285;-1.0647;
9.6000;0.7310;-1.0696;
9.9000;0.7367;-1.0572;
10.2000;0.7375;-1.0647;
10.5000;0.7391;-1.0647;
10.8000;0.7432;-1.0497;
11.1000;0.7440;-1.0522;
11.4000;0.7448;-1.0597;
11.7000;0.7481;-1.0597;
12.0000;0.7505;-1.0572;
12.3000;0.7521;-1.0497;
12.6000;0.7464;-1.0846;
12.9000;0.7562;-1.0671;
13.2000;0.7586;-1.0572;
13.5000;0.7611;-1.0547;
13.8000;0.7627;-1.0522;
14.1000;0.7627;-1.0547;
14.4000;0.7660;-1.0497;
14.7000;0.7676;-1.0472;
15.0000;0.7684;-1.0447;
15.3000;0.7717;-1.0547;
15.6000;0.7725;-1.0472;
15.9000;0.7741;-1.0572;
16.2000;0.7766;-1.0597;
16.5000;0.7782;-1.0696;
16.8000;0.7774;-1.0771;
17.1000;0.7814;-1.0696;
17.4000;0.7831;-1.0721;
17.7000;0.7863;-1.0771;
18.0000;0.7855;-1.0771;
18.3000;0.7888;-1.0647;
18.6000;0.7945;-1.0447;
18.9000;0.7904;-1.0597;
19.2000;0.7896;-1.0671;
19.5000;0.7937;-1.0721;
19.8000;0.7945;-1.0671;
20.1000;0.7945;-1.0721;
20.4000;0.7969;-1.0647;
20.7000;0.7969;-1.0721;
21.0000;0.8010;-1.0696;
21.3000;0.8002;-1.0746;
21.6000;0.8018;-1.0771;
21.9000;0.8132;-1.0622;
22.2000;0.8140;-1.0647;
22.5000;0.8050;-1.0896;
22.8000;0.8075;-1.0871;
23.1000;0.8050;-1.0946;
23.4000;0.8091;-1.0921;
23.7000;0.8140;-1.0796;
24.0000;0.8124;-1.0871;
24.3000;0.8132;-1.0796;
24.6000;0.8148;-1.0921;
24.9000;0.8262;-1.0671;
25.2000;0.8164;-1.0946;
25.5000;0.8181;-1.0971;
25.8000;0.8189;-1.0946;
26.1000;0.8189;-1.0821;
26.4000;0.8213;-1.0846;
26.7000;0.8213;-1.0896;
27.0000;0.8213;-1.0921;
27.3000;0.8238;-1.0846;
27.6000;0.8254;-1.0821;
27.9000;0.8238;-1.0871;
28.2000;0.8238;-1.0946;
28.5000;0.8262;-1.0946;
28.8000;0.8270;-1.0971;
29.1000;0.8270;-1.1021;
29.4000;0.8262;-1.1045;
29.7000;0.8278;-1.1120;
30.0000;0.8303;-1.1095;
30.3000;0.8295;-1.1095;
30.6000;0.8295;-1.1070;
30.9000;0.8254;-1.1220;
31.2000;0.8335;-1.1045;
31.5000;0.8335;-1.1145;
31.8000;0.8344;-1.1145;
32.1000;0.8344;-1.1095;
32.4000;0.8352;-1.1170;
32.7000;0.8335;-1.1270;
33.0000;0.8344;-1.1245;
33.3000;0.8384;-1.1095;
33.6000;0.8384;-1.1220;
33.9000;0.8384;-1.1195;
34.2000;0.8368;-1.1295;
34.5000;0.8400;-1.1270;
34.8000;0.8400;-1.1395;
35.1000;0.8425;-1.1345;
35.4000;0.8417;-1.1444;
35.7000;0.8425;-1.1494;
36.0000;0.8425;-1.1469;
36.3000;0.8457;-1.1469;
36.6000;0.8466;-1.1419;
36.9000;0.8449;-1.1469;
37.2000;0.8474;-1.1469;
37.5000;0.8514;-1.1370;
37.8000;0.8482;-1.1469;
38.1000;0.8523;-1.1419;
38.4000;0.8514;-1.1395;
38.7000;0.8514;-1.1370;
39.0000;0.8539;-1.1395;
39.3000;0.8539;-1.1395;
39.6000;0.8531;-1.1345;
39.9000;0.8547;-1.1320;
40.2000;0.8531;-1.1395;
40.5000;0.8547;-1.1419;
40.8000;0.8547;-1.1544;
41.1000;0.8588;-1.1444;
41.4000;0.8588;-1.1395;
41.7000;0.8604;-1.1345;
42.0000;0.8571;-1.1519;
42.3000;0.8588;-1.1444;
42.6000;0.8620;-1.1469;
42.9000;0.8604;-1.1494;
43.2000;0.8604;-1.1519;
43.5000;0.8604;-1.1544;
43.8000;0.8580;-1.1719;
44.1000;0.8620;-1.1769;
44.4000;0.8596;-1.1843;
44.7000;0.8661;-1.1669;
45.0000;0.8669;-1.1644;
45.3000;0.8669;-1.1694;
45.6000;0.8661;-1.1769;
45.9000;0.8710;-1.1694;
46.2000;0.8694;-1.1793;
46.5000;0.8702;-1.1843;
46.8000;0.8694;-1.1843;
47.1000;0.8685;-1.1868;
47.4000;0.8718;-1.1793;
47.7000;0.8718;-1.1769;
48.0000;0.8685;-1.1818;
48.3000;0.8734;-1.1719;
48.6000;0.8718;-1.1744;
48.9000;0.8726;-1.1744;
49.2000;0.8742;-1.1769;
49.5000;0.8742;-1.1893;
49.8000;0.8751;-1.1818;
50.1000;0.8767;-1.1843;
50.4000;0.8759;-1.1818;
50.7000;0.8791;-1.1769;
51.0000;0.8783;-1.1793;
51.3000;0.8799;-1.1669;
51.6000;0.8791;-1.1719;
51.9000;0.8807;-1.1769;
52.2000;0.8807;-1.1943;
52.5000;0.8807;-1.1943;
52.8000;0.8832;-1.1893;
53.1000;0.8832;-1.1893;
53.4000;0.8832;-1.1793;
53.7000;0.8840;-1.1818;
54.0000;0.8840;-1.1868;
54.3000;0.8856;-1.1843;
54.6000;0.8824;-1.1943;
54.9000;0.8856;-1.1993;
55.2000;0.8864;-1.1968;
55.5000;0.8873;-1.1943;
55.8000;0.8930;-1.1594;
56.1000;0.8864;-1.1793;
56.4000;0.8856;-1.1818;
56.7000;0.8881;-1.1818;
57.0000;0.8864;-1.1843;
57.3000;0.8881;-1.1843;
57.6000;0.8897;-1.1843;
57.9000;0.8905;-1.1893;
58.2000;0.8905;-1.1818;
58.5000;0.8856;-1.2043;
58.8000;0.8921;-1.1843;
59.1000;0.8824;-1.2068;
59.4000;0.8978;-1.1669;
59.7000;0.8930;-1.1843;
60.0000;0.8930;-1.1918;
60.3000;0.8954;-1.1843;
60.6000;0.8946;-1.1943;
60.9000;0.8978;-1.1968;
61.2000;0.8962;-1.1893;
61.5000;0.8970;-1.1868;
61.8000;0.8978;-1.1843;
62.1000;0.8995;-1.1818;
62.4000;0.9003;-1.1893;
62.7000;0.9003;-1.2043;
63.0000;0.8987;-1.1993;
63.3000;0.8995;-1.2043;
63.6000;0.9003;-1.2143;
63.9000;0.9035;-1.2167;
64.2000;0.9035;-1.2192;
64.5000;0.8978;-1.2317;
64.8000;0.9019;-1.2192;
65.1000;0.9076;-1.2043;
65.4000;0.9084;-1.2018;
65.7000;0.9044;-1.2093;
66.0000;0.9044;-1.2093;
66.3000;0.9044;-1.2093;
66.6000;0.9133;-1.1918;
66.9000;0.9052;-1.2018;
67.2000;0.9092;-1.1968;
67.5000;0.9076;-1.2093;
67.8000;0.9084;-1.2118;
68.1000;0.9068;-1.2217;
68.4000;0.9149;-1.1968;
68.7000;0.9092;-1.2143;
69.0000;0.9068;-1.2192;
69.3000;0.9068;-1.2167;
69.6000;0.9101;-1.2093;
69.9000;0.9109;-1.2118;
70.2000;0.9084;-1.2143;
70.5000;0.9101;-1.2118;
70.8000;0.9101;-1.2267;
71.1000;0.9117;-1.2192;
71.4000;0.9149;-1.2143;
71.7000;0.9190;-1.2167;
72.0000;0.9125;-1.2317;
72.3000;0.9125;-1.2292;
72.6000;0.9133;-1.2192;
72.9000;0.9133;-1.2242;
73.2000;0.9141;-1.2242;
73.5000;0.9141;-1.2292;
73.8000;0.9141;-1.2342;
74.1000;0.9149;-1.2267;
74.4000;0.9133;-1.2242;
74.7000;0.9166;-1.2242;
75.0000;0.9190;-1.2167;
75.3000;0.9182;-1.2242;
75.6000;0.9174;-1.2242;
75.9000;0.9174;-1.2292;
76.2000;0.9174;-1.2192;
76.5000;0.9166;-1.2118;
76.8000;0.9149;-1.2217;
77.1000;0.9182;-1.2118;
77.4000;0.9182;-1.2043;
77.7000;0.9174;-1.1993;
78.0000;0.9174;-1.2068;
78.3000;0.9174;-1.2192;
78.6000;0.9174;-1.2317;
78.9000;0.9158;-1.2367;
79.2000;0.9182;-1.2342;
79.5000;0.9166;-1.2417;
79.8000;0.9190;-1.2392;
80.1000;0.9190;-1.2317;
80.4000;0.9182;-1.2217;
80.7000;0.9255;-1.2068;
81.0000;0.9198;-1.2342;
81.3000;0.9198;-1.2392;
81.6000;0.9198;-1.2292;
81.9000;0.9206;-1.2217;
82.2000;0.9206;-1.2267;
82.5000;0.9149;-1.2442;
82.8000;0.9247;-1.2317;
83.1000;0.9239;-1.2267;
83.4000;0.9190;-1.2467;
83.7000;0.9239;-1.2517;
84.0000;0.9247;-1.2392;
84.3000;0.9239;-1.2442;
84.6000;0.9206;-1.2541;
84.9000;0.9247;-1.2442;
85.2000;0.9255;-1.2392;
85.5000;0.9247;-1.2392;
85.8000;0.9247;-1.2442;
86.1000;0.9263;-1.2367;
86.4000;0.9263;-1.2242;
86.7000;0.9198;-1.2417;
87.0000;0.9263;-1.2342;
87.3000;0.9271;-1.2292;
87.6000;0.9263;-1.2242;
87.9000;0.9247;-1.2517;
88.2000;0.9206;-1.2716;
88.5000;0.9288;-1.2467;
88.8000;0.9288;-1.2541;
89.1000;0.9288;-1.2566;
89.4000;0.9271;-1.2517;
89.7000;0.9320;-1.2492;
90.0000;0.9280;-1.2616;
90.3000;0.9288;-1.2641;
90.6000;0.9271;-1.2591;
90.9000;0.9288;-1.2591;
91.2000;0.9214;-1.2841;
91.5000;0.9263;-1.2691;
91.8000;0.9288;-1.2641;
92.1000;0.9280;-1.2666;
92.4000;0.9288;-1.2691;
92.7000;0.9255;-1.2716;
93.0000;0.9271;-1.2541;
93.3000;0.9263;-1.2591;
93.6000;0.9263;-1.2666;
93.9000;0.9288;-1.2641;
94.2000;0.9296;-1.2616;
94.5000;0.9280;-1.2616;
94.8000;0.9304;-1.2541;
95.1000;0.9288;-1.2541;
95.4000;0.9304;-1.2442;
95.7000;0.9304;-1.2517;
96.0000;0.9304;-1.2417;
96.3000;0.9320;-1.2417;
96.6000;0.9312;-1.2467;
96.9000;0.9296;-1.2417;
97.2000;0.9296;-1.2417;
97.5000;0.9288;-1.2517;
97.8000;0.9320;-1.2492;
98.1000;0.9312;-1.2492;
98.4000;0.9312;-1.2492;
98.7000;0.9328;-1.2442;
99.0000;0.9312;-1.2392;
99.3000;0.9345;-1.2392;
99.6000;0.9345;-1.2417;
99.9000;0.9320;-1.2492;
100.2000;0.9320;-1.2492;
100.5000;0.9320;-1.2442;
100.8000;0.9337;-1.2467;
101.1000;0.9320;-1.2417;
101.4000;0.9312;-1.2417;
101.7000;0.9296;-1.2392;
102.0000;0.9328;-1.2342;
102.3000;0.9312;-1.2417;
102.6000;0.9345;-1.2317;
102.9000;0.9345;-1.2292;
103.2000;0.9328;-1.2242;
103.5000;0.9328;-1.2417;
103.8000;0.9353;-1.2492;
104.1000;0.9328;-1.2517;
104.4000;0.9345;-1.2492;
104.7000;0.9304;-1.2492;
105.0000;0.9328;-1.2367;
105.3000;0.9353;-1.2392;
105.6000;0.9345;-1.2467;
105.9000;0.9345;-1.2566;
106.2000;0.9320;-1.2591;
106.5000;0.9361;-1.2467;
106.8000;0.9320;-1.2541;
107.1000;0.9369;-1.2392;
107.4000;0.9385;-1.2342;
107.7000;0.9402;-1.2192;
108.0000;0.9345;-1.2317;
108.3000;0.9353;-1.2317;
108.6000;0.9353;-1.2417;
108.9000;0.9353;-1.2367;
109.2000;0.9385;-1.2342;
109.5000;0.9345;-1.2467;
109.8000;0.9345;-1.2367;
110.1000;0.9345;-1.2317;
110.4000;0.9361;-1.2392;
110.7000;0.9369;-1.2442;
111.0000;0.9320;-1.2541;
111.3000;0.9328;-1.2541;
111.6000;0.9353;-1.2492;
111.9000;0.9377;-1.2417;
112.2000;0.9369;-1.2367;
112.5000;0.9353;-1.2442;
112.8000;0.9377;-1.2517;
113.1000;0.9377;-1.2566;
113.4000;0.9369;-1.2641;
113.7000;0.9361;-1.2566;
114.0000;0.9361;-1.2492;
114.3000;0.9345;-1.2467;
114.6000;0.9426;-1.2292;
114.9000;0.9369;-1.2467;
115.2000;0.9369;-1.2442;
115.5000;0.9361;-1.2442;
115.8000;0.9377;-1.2442;
116.1000;0.9377;-1.2591;
116.4000;0.9337;-1.2666;
116.7000;0.9394;-1.2566;
117.0000;0.9377;-1.2591;
117.3000;0.9377;-1.2616;
117.6000;0.9377;-1.2591;
117.9000;0.9361;-1.2517;
118.2000;0.9377;-1.2467;
118.5000;0.9369;-1.2541;
118.8000;0.9402;-1.2417;
119.1000;0.9361;-1.2467;
119.4000;0.9369;-1.2392;
119.7000;0.9377;-1.2367;
120.0000;0.9377;-1.2442;
120.3000;0.9385;-1.2442;
120.6000;0.9369;-1.2467;
120.9000;0.9394;-1.2442;
121.2000;0.9369;-1.2517;
121.5000;0.9385;-1.2492;
121.8000;0.9361;-1.2467;
122.1000;0.9402;-1.2467;
122.4000;0.9353;-1.2641;
122.7000;0.9385;-1.2467;
123.0000;0.9288;-1.2691;
123.3000;0.9377;-1.2492;
123.6000;0.9377;-1.2566;
123.9000;0.9377;-1.2492;
124.2000;0.9459;-1.2317;
124.5000;0.9377;-1.2467;
124.8000;0.9369;-1.2442;
125.1000;0.9394;-1.2467;
125.4000;0.9337;-1.2566;
125.7000;0.9345;-1.2566;
126.0000;0.9385;-1.2392;
126.3000;0.9369;-1.2417;
126.6000;0.9418;-1.2267;
126.9000;0.9385;-1.2292;
127.2000;0.9369;-1.2342;
127.5000;0.9402;-1.2317;
127.8000;0.9361;-1.2417;
128.1000;0.9361;-1.2417;
128.4000;0.9345;-1.2492;
128.7000;0.9385;-1.2442;
129.0000;0.9377;-1.2442;
129.3000;0.9385;-1.2392;
129.6000;0.9361;-1.2492;
129.9000;0.9385;-1.2467;
130.2000;0.9385;-1.2467;
130.5000;0.9426;-1.2267;
130.8000;0.9377;-1.2367;
131.1000;0.9402;-1.2317;
131.4000;0.9377;-1.2267;
131.7000;0.9345;-1.2342;
132.0000;0.9377;-1.2242;
132.3000;0.9394;-1.2217;
132.6000;0.9402;-1.2317;
132.9000;0.9394;-1.2192;
133.2000;0.9394;-1.2192;
133.5000;0.9394;-1.2167;
133.8000;0.9385;-1.2217;
134.1000;0.9394;-1.2143;
134.4000;0.9385;-1.2167;
134.7000;0.9345;-1.2167;
135.0000;0.9377;-1.2068;
135.3000;0.9361;-1.2043;
135.6000;0.9353;-1.2217;
135.9000;0.9377;-1.2192;
136.2000;0.9434;-1.2018;
136.5000;0.9369;-1.2242;
136.8000;0.9369;-1.2242;
137.1000;0.9369;-1.2267;
137.4000;0.9402;-1.2267;
137.7000;0.9385;-1.2367;
138.0000;0.9385;-1.2317;
138.3000;0.9361;-1.2342;
138.6000;0.9369;-1.2292;
138.9000;0.9345;-1.2367;
139.2000;0.9385;-1.2217;
139.5000;0.9280;-1.2467;
139.8000;0.9361;-1.2192;
140.1000;0.9369;-1.2217;
140.4000;0.9337;-1.2292;
140.7000;0.9361;-1.2367;
141.0000;0.9296;-1.2492;
141.3000;0.9394;-1.2242;
141.6000;0.9377;-1.2292;
141.9000;0.9361;-1.2392;
142.2000;0.9369;-1.2317;
142.5000;0.9377;-1.2367;
142.8000;0.9410;-1.2292;
143.1000;0.9369;-1.2392;
143.4000;0.9345;-1.2417;
143.7000;0.9377;-1.2292;
144.0000;0.9385;-1.2217;
144.3000;0.9361;-1.2217;
144.6000;0.9377;-1.2118;
144.9000;0.9402;-1.2118;
145.2000;0.9353;-1.2192;
145.5000;0.9385;-1.2143;
145.8000;0.9385;-1.2068;
146.1000;0.9385;-1.2167;
146.4000;0.9418;-1.2143;
146.7000;0.9385;-1.2217;
147.0000;0.9369;-1.2267;
147.3000;0.9385;-1.2217;
147.6000;0.9402;-1.2317;
147.9000;0.9394;-1.2342;
148.2000;0.9361;-1.2242;
148.5000;0.9369;-1.2192;
148.8000;0.9369;-1.2192;
149.1000;0.9377;-1.2192;
149.4000;0.9361;-1.2217;
149.7000;0.9361;-1.2242;
150.0000;0.9361;-1.2217;
150.3000;0.9328;-1.2342;
150.6000;0.9345;-1.2242;
150.9000;0.9353;-1.2242;
151.2000;0.9369;-1.2267;
151.5000;0.9385;-1.2118;
151.8000;0.9385;-1.2167;
152.1000;0.9345;-1.2217;
152.4000;0.9369;-1.2217;
152.7000;0.9296;-1.2442;
153.0000;0.9377;-1.2292;
153.3000;0.9361;-1.2267;
153.6000;0.9361;-1.2292;
153.9000;0.9394;-1.2143;
154.2000;0.9369;-1.2192;
154.5000;0.9377;-1.2192;
154.8000;0.9369;-1.2143;
155.1000;0.9369;-1.2143;
155.4000;0.9385;-1.2093;
155.7000;0.9377;-1.2043;
156.0000;0.9377;-1.1993;
156.3000;0.9402;-1.2043;
156.6000;0.9353;-1.2143;
156.9000;0.9320;-1.2118;
157.2000;0.9337;-1.2043;
157.5000;0.9320;-1.2267;
157.8000;0.9369;-1.2118;
158.1000;0.9369;-1.2192;
158.4000;0.9345;-1.2217;
158.7000;0.9312;-1.2267;
159.0000;0.9361;-1.2118;
159.3000;0.9353;-1.2118;
159.6000;0.9369;-1.2093;
159.9000;0.9361;-1.1993;
160.2000;0.9385;-1.1893;
160.5000;0.9467;-1.1744;
160.8000;0.9271;-1.2217;
161.1000;0.9328;-1.2068;
161.4000;0.9369;-1.1968;
161.7000;0.9361;-1.1993;
162.0000;0.9361;-1.1993;
162.3000;0.9377;-1.1943;
162.6000;0.9385;-1.1993;
162.9000;0.9369;-1.2018;
163.2000;0.9361;-1.2093;
163.5000;0.9312;-1.2267;
163.8000;0.9345;-1.2167;
164.1000;0.9369;-1.2118;
164.4000;0.9394;-1.2043;
164.7000;0.9353;-1.2118;
165.0000;0.9337;-1.2192;
165.3000;0.9385;-1.2118;
165.6000;0.9377;-1.2143;
165.9000;0.9402;-1.2068;
166.2000;0.9369;-1.2068;
166.5000;0.9369;-1.2093;
166.8000;0.9353;-1.2242;
167.1000;0.9385;-1.2192;
167.4000;0.9377;-1.2167;
167.7000;0.9418;-1.1993;
168.0000;0.9369;-1.2093;
168.3000;0.9385;-1.2043;
168.6000;0.9304;-1.2267;
168.9000;0.9499;-1.1868;
169.2000;0.9361;-1.2143;
169.5000;0.9369;-1.2118;
169.8000;0.9353;-1.2192;
170.1000;0.9312;-1.2292;
170.4000;0.9426;-1.2093;
170.7000;0.9353;-1.2167;
171.0000;0.9353;-1.2167;
171.3000;0.9328;-1.2143;
171.6000;0.9337;-1.2093;
171.9000;0.9361;-1.2018;
172.2000;0.9304;-1.2167;
172.5000;0.9345;-1.2192;
172.8000;0.9328;-1.2342;
173.1000;0.9337;-1.2317;
173.4000;0.9369;-1.2217;
173.7000;0.9345;-1.2192;
174.0000;0.9345;-1.2043;
174.3000;0.9377;-1.1993;
174.6000;0.9353;-1.2018;
174.9000;0.9337;-1.2093;
175.2000;0.9328;-1.2242;
175.5000;0.9353;-1.2167;
175.8000;0.9353;-1.2192;
176.1000;0.9361;-1.2143;
176.4000;0.9337;-1.2118;
176.7000;0.9337;-1.2118;
177.0000;0.9345;-1.2043;
177.3000;0.9361;-1.2043;
177.6000;0.9337;-1.2068;
177.9000;0.9361;-1.2018;
178.2000;0.9361;-1.1993;
178.5000;0.9377;-1.1968;
178.8000;0.9353;-1.2068;
179.1000;0.9353;-1.2167;
179.4000;0.9369;-1.2217;
179.7000;0.9345;-1.2242;
180.0000;0.9337;-1.2242;
180.3000;0.9353;-1.2292;
180.6000;0.9369;-1.2267;
180.9000;0.9369;-1.2292;
181.2000;0.9288;-1.2417;
181.5000;0.9402;-1.2167;
181.8000;0.9263;-1.2541;
182.1000;0.9361;-1.2267;
182.4000;0.9312;-1.2292;
182.7000;0.9337;-1.2192;
183.0000;0.9345;-1.2217;
183.3000;0.9361;-1.2217;
183.6000;0.9410;-1.2192;
183.9000;0.9328;-1.2317;
184.2000;0.9328;-1.2367;
184.5000;0.9418;-1.2093;
184.8000;0.9345;-1.2242;
185.1000;0.9402;-1.2018;
185.4000;0.9312;-1.2167;
185.7000;0.9337;-1.2068;
186.0000;0.9328;-1.2143;
186.3000;0.9345;-1.2043;
186.6000;0.9312;-1.2068;
186.9000;0.9320;-1.2043;
187.2000;0.9337;-1.2093;
187.5000;0.9320;-1.2068;
187.8000;0.9320;-1.2068;
188.1000;0.9304;-1.2143;
188.4000;0.9328;-1.2093;
188.7000;0.9337;-1.2093;
189.0000;0.9328;-1.2143;
189.3000;0.9328;-1.2167;
189.6000;0.9353;-1.2167;
189.9000;0.9345;-1.2167;
190.2000;0.9345;-1.2217;
190.5000;0.9328;-1.2217;
190.8000;0.9337;-1.2192;
191.1000;0.9337;-1.2143;
191.4000;0.9288;-1.2118;
191.7000;0.9377;-1.1868;
192.0000;0.9353;-1.1993;
192.3000;0.9320;-1.2143;
192.6000;0.9312;-1.2093;
192.9000;0.9328;-1.1993;
193.2000;0.9255;-1.2143;
193.5000;0.9320;-1.2068;
193.8000;0.9337;-1.2093;
194.1000;0.9304;-1.2143;
194.4000;0.9320;-1.2093;
194.7000;0.9312;-1.2043;
195.0000;0.9312;-1.1993;
195.3000;0.9320;-1.2043;
195.6000;0.9312;-1.2242;
195.9000;0.9280;-1.2292;
196.2000;0.9255;-1.2392;
196.5000;0.9442;-1.1993;
196.8000;0.9320;-1.2292;
197.1000;0.9320;-1.2267;
197.4000;0.9271;-1.2417;
197.7000;0.9320;-1.2317;
198.0000;0.9328;-1.2267;
198.3000;0.9280;-1.2292;
198.6000;0.9312;-1.2242;
198.9000;0.9337;-1.2192;
199.2000;0.9320;-1.2217;
199.5000;0.9361;-1.2143;
199.8000;0.9288;-1.2392;
200.1000;0.9328;-1.2242;
200.4000;0.9328;-1.2292;
200.7000;0.9328;-1.2267;
201.0000;0.9320;-1.2292;
201.3000;0.9337;-1.2317;
201.6000;0.9328;-1.2367;
201.9000;0.9337;-1.2292;
202.2000;0.9361;-1.2292;
202.5000;0.9312;-1.2417;
202.8000;0.9288;-1.2566;
203.1000;0.9312;-1.2492;
203.4000;0.9320;-1.2392;
203.7000;0.9328;-1.2392;
204.0000;0.9320;-1.2367;
204.3000;0.9320;-1.2367;
204.6000;0.9296;-1.2442;
204.9000;0.9304;-1.2442;
205.2000;0.9320;-1.2317;
205.5000;0.9337;-1.2342;
205.8000;0.9312;-1.2392;
206.1000;0.9328;-1.2317;
206.4000;0.9288;-1.2317;
206.7000;0.9288;-1.2267;
207.0000;0.9296;-1.2217;
207.3000;0.9312;-1.2192;
207.6000;0.9271;-1.2267;
207.9000;0.9328;-1.2167;
208.2000;0.9296;-1.2217;
208.5000;0.9304;-1.2242;
208.8000;0.9312;-1.2242;
209.1000;0.9328;-1.2192;
209.4000;0.9304;-1.2267;
209.7000;0.9312;-1.2267;
210.0000;0.9328;-1.2217;
210.3000;0.9320;-1.2167;
210.6000;0.9304;-1.2118;
210.9000;0.9304;-1.2043;
211.2000;0.9304;-1.2068;
211.5000;0.9296;-1.1968;
211.8000;0.9304;-1.1943;
212.1000;0.9304;-1.1968;
212.4000;0.9304;-1.2018;
212.7000;0.9320;-1.1943;
213.0000;0.9312;-1.1968;
213.3000;0.9280;-1.2068;
213.6000;0.9312;-1.1968;
213.9000;0.9312;-1.2043;
214.2000;0.9304;-1.2143;
214.5000;0.9320;-1.2043;
214.8000;0.9312;-1.2167;
215.1000;0.9296;-1.2068;
215.4000;0.9255;-1.2217;
215.7000;0.9304;-1.2167;
216.0000;0.9288;-1.2192;
216.3000;0.9328;-1.2143;
216.6000;0.9288;-1.2292;
216.9000;0.9288;-1.2367;
217.2000;0.9304;-1.2392;
217.5000;0.9328;-1.2317;
217.8000;0.9288;-1.2317;
218.1000;0.9280;-1.2267;
218.4000;0.9263;-1.2342;
218.7000;0.9280;-1.2267;
219.0000;0.9288;-1.2167;
219.3000;0.9288;-1.2068;
219.6000;0.9288;-1.1943;
219.9000;0.9296;-1.1968;
220.2000;0.9288;-1.1993;
220.5000;0.9247;-1.2167;
220.8000;0.9280;-1.2217;
221.1000;0.9288;-1.2192;
221.4000;0.9288;-1.2192;
221.7000;0.9280;-1.2267;
222.0000;0.9304;-1.2242;
222.3000;0.9296;-1.2242;
222.6000;0.9231;-1.2342;
222.9000;0.9296;-1.2167;
223.2000;0.9304;-1.2217;
223.5000;0.9255;-1.2267;
223.8000;0.9280;-1.2167;
224.1000;0.9288;-1.2068;
224.4000;0.9296;-1.2217;
224.7000;0.9296;-1.2292;
225.0000;0.9288;-1.2342;
225.3000;0.9271;-1.2392;
225.6000;0.9353;-1.2192;
225.9000;0.9296;-1.2292;
226.2000;0.9288;-1.2217;
226.5000;0.9296;-1.2267;
226.8000;0.9280;-1.2267;
227.1000;0.9288;-1.2167;
227.4000;0.9288;-1.2192;
227.7000;0.9337;-1.2143;
228.0000;0.9288;-1.2242;
228.3000;0.9223;-1.2417;
228.6000;0.9296;-1.2242;
228.9000;0.9288;-1.2292;
229.2000;0.9288;-1.2217;
229.5000;0.9271;-1.2292;
229.8000;0.9296;-1.2292;
230.1000;0.9280;-1.2217;
230.4000;0.9288;-1.2242;
230.7000;0.9304;-1.2267;
231.0000;0.9288;-1.2317;
231.3000;0.9280;-1.2342;
231.6000;0.9312;-1.2267;
231.9000;0.9271;-1.2292;
232.2000;0.9304;-1.2192;
232.5000;0.9288;-1.2143;
232.8000;0.9288;-1.2167;
233.1000;0.9280;-1.2143;
233.4000;0.9288;-1.2118;
233.7000;0.9255;-1.2217;
234.0000;0.9263;-1.2167;
234.3000;0.9263;-1.2118;
234.6000;0.9280;-1.2093;
234.9000;0.9255;-1.2093;
235.2000;0.9271;-1.2068;
235.5000;0.9280;-1.2043;
235.8000;0.9288;-1.2043;
236.1000;0.9271;-1.2093;
236.4000;0.9288;-1.2043;
236.7000;0.9280;-1.2068;
237.0000;0.9280;-1.2143;
237.3000;0.9304;-1.2143;
237.6000;0.9239;-1.2192;
237.9000;0.9206;-1.2192;
238.2000;0.9288;-1.1993;
238.5000;0.9280;-1.1918;
238.8000;0.9263;-1.2043;
239.1000;0.9280;-1.1993;
239.4000;0.9288;-1.1893;
239.7000;0.9263;-1.1943;
240.0000;0.9288;-1.1893;
240.3000;0.9296;-1.1769;
240.6000;0.9288;-1.1793;
240.9000;0.9288;-1.1868;
241.2000;0.9280;-1.1943;
241.5000;0.9271;-1.1943;
241.8000;0.9255;-1.1968;
242.1000;0.9280;-1.2018;
242.4000;0.9263;-1.2167;
242.7000;0.9312;-1.2068;
243.0000;0.9255;-1.2143;
243.3000;0.9255;-1.2093;
243.6000;0.9263;-1.2043;
243.9000;0.9255;-1.2143;
244.2000;0.9255;-1.2118;
244.5000;0.9263;-1.2143;
244.8000;0.9271;-1.2167;
245.1000;0.9271;-1.2167;
245.4000;0.9255;-1.2217;
245.7000;0.9353;-1.1993;
246.0000;0.9263;-1.2267;
246.3000;0.9271;-1.2267;
246.6000;0.9271;-1.2267;
246.9000;0.9247;-1.2317;
247.2000;0.9255;-1.2342;
247.5000;0.9263;-1.2267;
247.8000;0.9255;-1.2292;
248.1000;0.9239;-1.2317;
248.4000;0.9263;-1.2217;
248.7000;0.9271;-1.2118;
249.0000;0.9304;-1.2018;
249.3000;0.9255;-1.2143;
249.6000;0.9255;-1.2192;
249.9000;0.9149;-1.2417;
250.2000;0.9263;-1.2043;
250.5000;0.9255;-1.2093;
250.8000;0.9247;-1.2192;
251.1000;0.9255;-1.2267;
251.4000;0.9263;-1.2267;
251.7000;0.9280;-1.2242;
252.0000;0.9263;-1.2217;
252.3000;0.9320;-1.2043;
252.6000;0.9239;-1.2242;
252.9000;0.9263;-1.2242;
253.2000;0.9214;-1.2267;
253.5000;0.9255;-1.2118;
253.8000;0.9280;-1.1968;
254.1000;0.9223;-1.2217;
254.4000;0.9239;-1.2192;
254.7000;0.9320;-1.1968;
255.0000;0.9263;-1.2093;
255.3000;0.9239;-1.2093;
255.6000;0.9255;-1.2118;
255.9000;0.9255;-1.2043;
256.2000;0.9247;-1.2093;
256.5000;0.9247;-1.1968;
256.8000;0.9312;-1.1744;
257.1000;0.9231;-1.1943;
257.4000;0.9239;-1.1918;
257.7000;0.9255;-1.1943;
258.0000;0.9239;-1.1918;
258.3000;0.9239;-1.1993;
258.6000;0.9263;-1.2043;
258.9000;0.9296;-1.1993;
259.2000;0.9239;-1.2118;
259.5000;0.9288;-1.1968;
259.8000;0.9255;-1.2043;
260.1000;0.9255;-1.2043;
260.4000;0.9255;-1.2018;
260.7000;0.9263;-1.1968;
261.0000;0.9166;-1.2217;
261.3000;0.9263;-1.1868;
261.6000;0.9255;-1.1893;
261.9000;0.9247;-1.1918;
262.2000;0.9288;-1.1943;
262.5000;0.9263;-1.2093;
262.8000;0.9247;-1.2093;
263.1000;0.9247;-1.1993;
263.4000;0.9255;-1.2018;
263.7000;0.9255;-1.1943;
264.0000;0.9247;-1.1843;
264.3000;0.9231;-1.1943;
264.6000;0.9247;-1.1968;
264.9000;0.9214;-1.2043;
265.2000;0.9239;-1.1993;
265.5000;0.9239;-1.1943;
265.8000;0.9198;-1.2043;
266.1000;0.9231;-1.2093;
266.4000;0.9255;-1.2043;
266.7000;0.9231;-1.2118;
267.0000;0.9239;-1.2192;
267.3000;0.9231;-1.2192;
267.6000;0.9255;-1.2118;
267.9000;0.9247;-1.2118;
268.2000;0.9231;-1.2167;
268.5000;0.9231;-1.2242;
268.8000;0.9255;-1.2143;
269.1000;0.9263;-1.2068;
269.4000;0.9223;-1.2143;
269.7000;0.9223;-1.2192;
270.0000;0.9214;-1.2192;
270.3000;0.9214;-1.2093;
270.6000;0.9239;-1.1943;
270.9000;0.9288;-1.1793;
271.2000;0.9247;-1.1918;
271.5000;0.9214;-1.1943;
271.8000;0.9239;-1.1918;
272.1000;0.9214;-1.1943;
272.4000;0.9231;-1.1918;
272.7000;0.9214;-1.1968;
273.0000;0.9223;-1.1943;
273.3000;0.9206;-1.2118;
273.6000;0.9231;-1.2118;
273.9000;0.9239;-1.1968;
274.2000;0.9231;-1.2068;
274.5000;0.9214;-1.2068;
274.8000;0.9198;-1.2093;
275.1000;0.9214;-1.2143;
275.4000;0.9231;-1.2043;
275.7000;0.9206;-1.2093;
276.0000;0.9231;-1.2093;
276.3000;0.9214;-1.2093;
276.6000;0.9231;-1.1918;
276.9000;0.9231;-1.1893;
277.2000;0.9206;-1.1968;
277.5000;0.9255;-1.1968;
277.8000;0.9223;-1.2043;
278.1000;0.9247;-1.1968;
278.4000;0.9214;-1.2043;
278.7000;0.9198;-1.2068;
279.0000;0.9271;-1.2018;
279.3000;0.9239;-1.2068;
279.6000;0.9223;-1.2068;
279.9000;0.9231;-1.2018;
280.2000;0.9239;-1.1993;
280.5000;0.9231;-1.1968;
280.8000;0.9288;-1.1868;
281.1000;0.9239;-1.1943;
281.4000;0.9214;-1.2018;
281.7000;0.9255;-1.1843;
282.0000;0.9231;-1.1993;
282.3000;0.9223;-1.1968;
282.6000;0.9174;-1.1943;
282.9000;0.9198;-1.1868;
283.2000;0.9182;-1.1843;
283.5000;0.9190;-1.1943;
283.8000;0.9214;-1.1893;
284.1000;0.9231;-1.1893;
284.4000;0.9198;-1.1918;
284.7000;0.9214;-1.1843;
285.0000;0.9166;-1.1893;
285.3000;0.9231;-1.1769;
285.6000;0.9214;-1.1793;
285.9000;0.9223;-1.1843;
286.2000;0.9198;-1.1993;
286.5000;0.9214;-1.1943;
286.8000;0.9214;-1.1943;
287.1000;0.9206;-1.1918;
287.4000;0.9190;-1.1968;
287.7000;0.9231;-1.1918;
288.0000;0.9223;-1.1868;
288.3000;0.9214;-1.1893;
288.6000;0.9206;-1.1943;
288.9000;0.9223;-1.1968;
289.2000;0.9231;-1.1993;
289.5000;0.9214;-1.2118;
289.8000;0.9214;-1.2093;
290.1000;0.9198;-1.2093;
290.4000;0.9223;-1.1993;
290.7000;0.9133;-1.2242;
291.0000;0.9231;-1.2093;
291.3000;0.9223;-1.2118;
291.6000;0.9190;-1.2192;
291.9000;0.9190;-1.2143;
292.2000;0.9206;-1.2167;
292.5000;0.9304;-1.1968;
292.8000;0.9214;-1.2118;
293.1000;0.9214;-1.2068;
293.4000;0.9231;-1.1993;
293.7000;0.9190;-1.1943;
294.0000;0.9198;-1.1868;
294.3000;0.9198;-1.1918;
294.6000;0.9214;-1.1868;
294.9000;0.9223;-1.1769;
295.2000;0.9198;-1.1843;
295.5000;0.9206;-1.1744;
295.8000;0.9206;-1.1769;
296.1000;0.9223;-1.1719;
296.4000;0.9206;-1.1793;
296.7000;0.9206;-1.1868;
297.0000;0.9206;-1.1968;
297.3000;0.9174;-1.2118;
297.6000;0.9198;-1.2143;
297.9000;0.9198;-1.2192;
298.2000;0.9190;-1.2167;
298.5000;0.9198;-1.2192;
298.8000;0.9198;-1.2143;
299.1000;0.9190;-1.2068;
299.4000;0.9190;-1.2093;
299.7000;0.9206;-1.2167;
300.0000;0.9198;-1.2143;
300.3000;0.9198;-1.2093;
300.6000;0.9182;-1.2118;
300.9000;0.9214;-1.1918;
301.2000;0.9296;-1.1744;
301.5000;0.9214;-1.1918;
301.8000;0.9214;-1.1943;
302.1000;0.9166;-1.1968;
302.4000;0.9214;-1.1744;
302.7000;0.9174;-1.1943;
303.0000;0.9263;-1.1644;
303.3000;0.9377;-1.1320;
303.6000;0.9198;-1.1769;
303.9000;0.9206;-1.1744;
304.2000;0.9198;-1.1744;
304.5000;0.9247;-1.1644;
304.8000;0.9206;-1.1694;
305.1000;0.9198;-1.1694;
305.4000;0.9198;-1.1719;
305.7000;0.9198;-1.1769;
306.0000;0.9190;-1.1843;
306.3000;0.9214;-1.1868;
306.6000;0.9198;-1.1843;
306.9000;0.9198;-1.1818;
307.2000;0.9206;-1.1843;
307.5000;0.9255;-1.1694;
307.8000;0.9206;-1.1769;
308.1000;0.9190;-1.1744;
308.4000;0.9190;-1.1769;
308.7000;0.9182;-1.1744;
309.0000;0.9190;-1.1793;
309.3000;0.9158;-1.1893;
309.6000;0.9198;-1.1843;
309.9000;0.9109;-1.2068;
310.2000;0.9182;-1.1943;
310.5000;0.9190;-1.1769;
310.8000;0.9182;-1.1694;
311.1000;0.9198;-1.1669;
311.4000;0.9182;-1.1744;
311.7000;0.9182;-1.1818;
312.0000;0.9198;-1.1744;
312.3000;0.9182;-1.1694;
312.6000;0.9206;-1.1694;
312.9000;0.9198;-1.1744;
313.2000;0.9198;-1.1694;
313.5000;0.9206;-1.1719;
313.8000;0.9198;-1.1769;
314.1000;0.9190;-1.1918;
314.4000;0.9190;-1.1893;
314.7000;0.9166;-1.1968;
315.0000;0.9190;-1.1843;
315.3000;0.9174;-1.1893;
315.6000;0.9198;-1.1893;
315.9000;0.9190;-1.1943;
316.2000;0.9198;-1.2018;
316.5000;0.9206;-1.2068;
316.8000;0.9198;-1.2118;
317.1000;0.9174;-1.2043;
317.4000;0.9190;-1.1993;
317.7000;0.9198;-1.1993;
318.0000;0.9198;-1.2018;
318.3000;0.9198;-1.1993;
318.6000;0.9206;-1.1918;
318.9000;0.9198;-1.1918;
319.2000;0.9214;-1.1893;
319.5000;0.9255;-1.1694;
319.8000;0.9182;-1.1744;
320.1000;0.9182;-1.1793;
320.4000;0.9190;-1.1868;
320.7000;0.9174;-1.1993;
321.0000;0.9166;-1.2043;
321.3000;0.9190;-1.1943;
321.6000;0.9182;-1.1893;
321.9000;0.9190;-1.1893;
322.2000;0.9174;-1.1893;
322.5000;0.9182;-1.1793;
322.8000;0.9198;-1.1744;
323.1000;0.9182;-1.1744;
323.4000;0.9182;-1.1669;
323.7000;0.9182;-1.1694;
324.0000;0.9198;-1.1594;
324.3000;0.9182;-1.1619;
324.6000;0.9198;-1.1719;
324.9000;0.9125;-1.1893;
325.2000;0.9255;-1.1594;
325.5000;0.9166;-1.1694;
325.8000;0.9158;-1.1744;
326.1000;0.9174;-1.1769;
326.4000;0.9141;-1.1943;
326.7000;0.9182;-1.1943;
327.0000;0.9182;-1.1918;
327.3000;0.9141;-1.2068;
327.6000;0.9198;-1.1868;
327.9000;0.9158;-1.1818;
328.2000;0.9174;-1.1644;
328.5000;0.9141;-1.1744;
328.8000;0.9190;-1.1544;
329.1000;0.9182;-1.1594;
329.4000;0.9166;-1.1669;
329.7000;0.9182;-1.1694;
330.0000;0.9182;-1.1619;
330.3000;0.9198;-1.1644;
330.6000;0.9149;-1.1769;
330.9000;0.9158;-1.1694;
331.2000;0.9190;-1.1594;
331.5000;0.9174;-1.1644;
331.8000;0.9174;-1.1644;
332.1000;0.9174;-1.1793;
332.4000;0.9182;-1.1793;
332.7000;0.9174;-1.1893;
333.0000;0.9190;-1.1868;
333.3000;0.9206;-1.1918;
333.6000;0.9182;-1.2043;
333.9000;0.9174;-1.2118;
334.2000;0.9158;-1.2192;
334.5000;0.9158;-1.2118;
334.8000;0.9141;-1.2143;
335.1000;0.9166;-1.2068;
335.4000;0.9182;-1.2018;
335.7000;0.9174;-1.2043;
336.0000;0.9166;-1.2093;
336.3000;0.9182;-1.2043;
336.6000;0.9182;-1.2093;
336.9000;0.9182;-1.2143;
337.2000;0.9166;-1.2143;
337.5000;0.9166;-1.2167;
337.8000;0.9190;-1.2068;
338.1000;0.9166;-1.2068;
338.4000;0.9133;-1.2043;
338.7000;0.9182;-1.1843;
339.0000;0.9182;-1.1769;
339.3000;0.9174;-1.1769;
339.6000;0.9166;-1.1868;
339.9000;0.9166;-1.1818;
340.2000;0.9158;-1.1893;
340.5000;0.9166;-1.1843;
340.8000;0.9239;-1.1719;
341.1000;0.9158;-1.1943;
341.4000;0.9166;-1.1993;
341.7000;0.9158;-1.2043;
342.0000;0.9182;-1.1918;
342.3000;0.9166;-1.1993;
342.6000;0.9174;-1.1868;
342.9000;0.9166;-1.1769;
343.2000;0.9166;-1.1868;
343.5000;0.9158;-1.1818;
343.8000;0.9158;-1.1793;
344.1000;0.9206;-1.1744;
344.4000;0.9158;-1.1868;
344.7000;0.9149;-1.1769;
345.0000;0.9149;-1.1769;
345.3000;0.9214;-1.1544;
345.6000;0.9158;-1.1744;
345.9000;0.9158;-1.1769;
346.2000;0.9158;-1.1769;
346.5000;0.9149;-1.1918;
346.8000;0.9166;-1.1843;
347.1000;0.9182;-1.1744;
347.4000;0.9158;-1.1918;
347.7000;0.9166;-1.1918;
348.0000;0.9174;-1.1868;
348.3000;0.9182;-1.1669;
348.6000;0.9182;-1.1719;
348.9000;0.9149;-1.1694;
349.2000;0.9141;-1.1669;
349.5000;0.9166;-1.1744;
349.8000;0.9174;-1.1669;
350.1000;0.9166;-1.1719;
350.4000;0.9158;-1.1843;
350.7000;0.9166;-1.1793;
351.0000;0.9166;-1.1769;
351.3000;0.9158;-1.1793;
351.6000;0.9166;-1.1818;
351.9000;0.9158;-1.1843;
352.2000;0.9166;-1.1793;
352.5000;0.9174;-1.1818;
352.8000;0.9149;-1.1918;
353.1000;0.9158;-1.1893;
353.4000;0.9182;-1.1793;
353.7000;0.9092;-1.2018;
354.0000;0.9158;-1.1893;
354.3000;0.9117;-1.1943;
354.6000;0.9166;-1.1744;
354.9000;0.9149;-1.1769;
355.2000;0.9149;-1.1769;
355.5000;0.9141;-1.1769;
355.8000;0.9149;-1.1619;
356.1000;0.9141;-1.1669;
356.4000;0.9149;-1.1694;
356.7000;0.9149;-1.1719;
357.0000;0.9149;-1.1744;
357.3000;0.9117;-1.1793;
357.6000;0.9141;-1.1694;
357.9000;0.9149;-1.1619;
358.2000;0.9158;-1.1644;
358.5000;0.9158;-1.1594;
358.8000;0.9166;-1.1519;
359.1000;0.9149;-1.1619;
359.4000;0.9141;-1.1669;
359.7000;0.9166;-1.1694;
360.0000;0.9166;-1.1694;
360.3000;0.9149;-1.1769;
360.6000;0.9133;-1.1694;
360.9000;0.9117;-1.1694;
361.2000;0.9174;-1.1569;
361.5000;0.9141;-1.1669;
361.8000;0.9149;-1.1719;
362.1000;0.9141;-1.1744;
362.4000;0.9141;-1.1744;
362.7000;0.9149;-1.1669;
363.0000;0.9141;-1.1694;
363.3000;0.9158;-1.1669;
363.6000;0.9101;-1.1893;
363.9000;0.9166;-1.1744;
364.2000;0.9141;-1.1818;
364.5000;0.9158;-1.1719;
364.8000;0.9214;-1.1544;
365.1000;0.9174;-1.1694;
365.4000;0.9158;-1.1793;
365.7000;0.9092;-1.1818;
366.0000;0.9141;-1.1719;
366.3000;0.9125;-1.1843;
366.6000;0.9141;-1.1793;
366.9000;0.9109;-1.1818;
367.2000;0.9149;-1.1719;
367.5000;0.9141;-1.1694;
367.8000;0.9206;-1.1444;
368.1000;0.9182;-1.1494;
368.4000;0.9158;-1.1469;
368.7000;0.9166;-1.1444;
369.0000;0.9149;-1.1519;
369.3000;0.9149;-1.1469;
369.6000;0.9133;-1.1444;
369.9000;0.9149;-1.1345;
370.2000;0.9158;-1.1395;
370.5000;0.9133;-1.1469;
370.8000;0.9182;-1.1395;
371.1000;0.9133;-1.1519;
371.4000;0.9149;-1.1469;
371.7000;0.9141;-1.1494;
372.0000;0.9149;-1.1519;
372.3000;0.9133;-1.1519;
372.6000;0.9125;-1.1494;
372.9000;0.9060;-1.1843;
373.2000;0.9125;-1.1694;
373.5000;0.9117;-1.1694;
373.8000;0.9125;-1.1669;
374.1000;0.9133;-1.1744;
374.4000;0.9141;-1.1694;
374.7000;0.9133;-1.1719;
375.0000;0.9141;-1.1719;
375.3000;0.9125;-1.1769;
375.6000;0.9182;-1.1744;
375.9000;0.9117;-1.1918;
376.2000;0.9117;-1.1943;
376.5000;0.9117;-1.1943;
376.8000;0.9133;-1.1769;
377.1000;0.9125;-1.1818;
377.4000;0.9198;-1.1619;
377.7000;0.9141;-1.1744;
378.0000;0.9158;-1.1744;
378.3000;0.9141;-1.1744;
378.6000;0.9141;-1.1744;
378.9000;0.9158;-1.1694;
379.2000;0.9092;-1.1868;
379.5000;0.9125;-1.1843;
379.8000;0.9125;-1.1868;
380.1000;0.9158;-1.1719;
380.4000;0.9141;-1.1719;
380.7000;0.9125;-1.1719;
381.0000;0.9133;-1.1594;
381.3000;0.9141;-1.1569;
381.6000;0.9125;-1.1544;
381.9000;0.9125;-1.1594;
382.2000;0.9133;-1.1644;
382.5000;0.9141;-1.1544;
382.8000;0.9149;-1.1519;
383.1000;0.9133;-1.1469;
383.4000;0.9141;-1.1494;
383.7000;0.9133;-1.1569;
384.0000;0.9166;-1.1569;
384.3000;0.9109;-1.1644;
384.6000;0.9141;-1.1594;
384.9000;0.9117;-1.1669;
385.2000;0.9125;-1.1669;
385.5000;0.9133;-1.1644;
385.8000;0.9125;-1.1719;
386.1000;0.9125;-1.1644;
386.4000;0.9133;-1.1644;
386.7000;0.9141;-1.1619;
387.0000;0.9125;-1.1669;
387.3000;0.9076;-1.1793;
387.6000;0.9125;-1.1744;
387.9000;0.9125;-1.1719;
388.2000;0.9133;-1.1669;
388.5000;0.9141;-1.1669;
388.8000;0.9149;-1.1619;
389.1000;0.9149;-1.1719;
389.4000;0.9133;-1.1594;
389.7000;0.9149;-1.1619;
390.0000;0.9141;-1.1594;
390.3000;0.9068;-1.1769;
390.6000;0.9117;-1.1519;
390.9000;0.9117;-1.1544;
391.2000;0.9117;-1.1569;
391.5000;0.9109;-1.1719;
391.8000;0.9101;-1.1744;
392.1000;0.9060;-1.1893;
392.4000;0.9101;-1.1843;
392.7000;0.9141;-1.1793;
393.0000;0.9084;-1.1868;
393.3000;0.9101;-1.1793;
393.6000;0.9125;-1.1769;
393.9000;0.9117;-1.1769;
394.2000;0.9125;-1.1744;
394.5000;0.9117;-1.1694;
394.8000;0.9117;-1.1793;
395.1000;0.9101;-1.1793;
395.4000;0.9125;-1.1843;
395.7000;0.9084;-1.1968;
396.0000;0.9109;-1.1818;
396.3000;0.9117;-1.1719;
396.6000;0.9133;-1.1694;
396.9000;0.9092;-1.1669;
397.2000;0.9101;-1.1694;
397.5000;0.9076;-1.1669;
397.8000;0.9141;-1.1494;
398.1000;0.9117;-1.1544;
398.4000;0.9125;-1.1519;
398.7000;0.9158;-1.1395;
399.0000;0.9149;-1.1395;
399.3000;0.9076;-1.1669;
399.6000;0.9117;-1.1594;
399.9000;0.9141;-1.1594;
400.2000;0.9125;-1.1644;
400.5000;0.9125;-1.1644;
400.8000;0.9133;-1.1644;
401.1000;0.9125;-1.1694;
401.4000;0.9092;-1.1719;
401.7000;0.9125;-1.1619;
402.0000;0.9166;-1.1594;
402.3000;0.9109;-1.1719;
402.6000;0.9109;-1.1669;
402.9000;0.9109;-1.1619;
403.2000;0.9076;-1.1569;
403.5000;0.9109;-1.1544;
403.8000;0.9109;-1.1544;
404.1000;0.9109;-1.1519;
404.4000;0.9198;-1.1295;
404.7000;0.9133;-1.1444;
405.0000;0.9125;-1.1594;
405.3000;0.9125;-1.1594;
405.6000;0.9158;-1.1469;
405.9000;0.9133;-1.1569;
406.2000;0.9117;-1.1594;
406.5000;0.9003;-1.1769;
406.8000;0.9101;-1.1519;
407.1000;0.9109;-1.1395;
407.4000;0.9133;-1.1245;
407.7000;0.9109;-1.1320;
408.0000;0.9125;-1.1370;
408.3000;0.9149;-1.1320;
408.6000;0.9125;-1.1395;
408.9000;0.9092;-1.1444;
409.2000;0.9101;-1.1444;
409.5000;0.9133;-1.1494;
409.8000;0.9117;-1.1569;
410.1000;0.9117;-1.1569;
410.4000;0.9109;-1.1619;
410.7000;0.9117;-1.1694;
411.0000;0.9109;-1.1719;
411.3000;0.9092;-1.1694;
411.6000;0.9068;-1.1744;
411.9000;0.9109;-1.1669;
412.2000;0.9101;-1.1594;
412.5000;0.9092;-1.1569;
412.8000;0.9092;-1.1544;
413.1000;0.9109;-1.1519;
413.4000;0.9101;-1.1494;
413.7000;0.9109;-1.1469;
414.0000;0.9101;-1.1419;
414.3000;0.9084;-1.1370;
414.6000;0.9109;-1.1345;
414.9000;0.9125;-1.1320;
415.2000;0.9117;-1.1320;
415.5000;0.9101;-1.1419;
415.8000;0.9109;-1.1419;
416.1000;0.9117;-1.1395;
416.4000;0.9109;-1.1419;
416.7000;0.9076;-1.1619;
417.0000;0.9092;-1.1569;
417.3000;0.9084;-1.1494;
417.6000;0.9084;-1.1494;
417.9000;0.8995;-1.1769;
418.2000;0.9084;-1.1519;
418.5000;0.9125;-1.1345;
418.8000;0.9101;-1.1519;
419.1000;0.9101;-1.1544;
419.4000;0.9117;-1.1519;
419.7000;0.9117;-1.1494;
420.0000;0.9109;-1.1494;
420.3000;0.9076;-1.1644;
420.6000;0.9125;-1.1544;
420.9000;0.9117;-1.1569;
421.2000;0.9117;-1.1594;
421.5000;0.9109;-1.1619;
421.8000;0.9092;-1.1644;
422.1000;0.9109;-1.1494;
422.4000;0.9133;-1.1370;
422.7000;0.9117;-1.1469;
423.0000;0.9092;-1.1469;
423.3000;0.9092;-1.1444;
423.6000;0.9109;-1.1444;
423.9000;0.9109;-1.1419;
424.2000;0.9101;-1.1444;
424.5000;0.9101;-1.1519;
424.8000;0.9109;-1.1594;
425.1000;0.9109;-1.1544;
425.4000;0.9117;-1.1519;
425.7000;0.9092;-1.1594;
426.0000;0.9052;-1.1769;
426.3000;0.9109;-1.1619;
426.6000;0.9109;-1.1619;
426.9000;0.9076;-1.1669;
427.2000;0.9101;-1.1619;
427.5000;0.9101;-1.1619;
427.8000;0.9092;-1.1544;
428.1000;0.9092;-1.1569;
428.4000;0.8987;-1.1868;
428.7000;0.9141;-1.1594;
429.0000;0.9084;-1.1719;
429.3000;0.9109;-1.1644;
429.6000;0.9084;-1.1719;
429.9000;0.9084;-1.1669;
430.2000;0.9101;-1.1669;
430.5000;0.9035;-1.1843;
430.8000;0.9101;-1.1744;
431.1000;0.9084;-1.1843;
431.4000;0.9068;-1.1868;
431.7000;0.9092;-1.1893;
432.0000;0.9092;-1.1769;
432.3000;0.9084;-1.1793;
432.6000;0.9092;-1.1619;
432.9000;0.9092;-1.1594;
433.2000;0.9084;-1.1669;
433.5000;0.9101;-1.1719;
433.8000;0.9101;-1.1769;
434.1000;0.9092;-1.1719;
434.4000;0.9101;-1.1694;
434.7000;0.9101;-1.1594;
435.0000;0.9092;-1.1569;
435.3000;0.9092;-1.1594;
435.6000;0.9109;-1.1594;
435.9000;0.9084;-1.1619;
436.2000;0.9092;-1.1494;
436.5000;0.9109;-1.1519;
436.8000;0.9084;-1.1544;
437.1000;0.9092;-1.1594;
437.4000;0.9076;-1.1544;
437.7000;0.9076;-1.1594;
438.0000;0.9019;-1.1818;
438.3000;0.9060;-1.1694;
438.6000;0.9060;-1.1694;
438.9000;0.9076;-1.1719;
439.2000;0.9092;-1.1769;
439.5000;0.9084;-1.1744;
439.8000;0.9068;-1.1694;
440.1000;0.9092;-1.1644;
440.4000;0.9060;-1.1694;
440.7000;0.9068;-1.1619;
441.0000;0.9092;-1.1519;
441.3000;0.9101;-1.1395;
441.6000;0.9068;-1.1619;
441.9000;0.9060;-1.1594;
442.2000;0.9068;-1.1569;
442.5000;0.9109;-1.1444;
442.8000;0.9084;-1.1469;
443.1000;0.9068;-1.1469;
443.4000;0.9060;-1.1519;
443.7000;0.9068;-1.1569;
444.0000;0.9166;-1.1370;
444.3000;0.9068;-1.1569;
444.6000;0.9117;-1.1444;
444.9000;0.9084;-1.1469;
445.2000;0.9109;-1.1444;
445.5000;0.9101;-1.1569;
445.8000;0.9076;-1.1569;
446.1000;0.9076;-1.1494;
446.4000;0.9092;-1.1395;
446.7000;0.9084;-1.1444;
447.0000;0.9076;-1.1519;
447.3000;0.9068;-1.1519;
447.6000;0.9068;-1.1544;
447.9000;0.9133;-1.1569;
448.2000;0.9084;-1.1619;
448.5000;0.9092;-1.1619;
448.8000;0.9060;-1.1669;
449.1000;0.9076;-1.1669;
449.4000;0.9084;-1.1644;
449.7000;0.9092;-1.1694;
450.0000;0.9068;-1.1694;
450.3000;0.9084;-1.1669;
450.6000;0.9084;-1.1818;
450.9000;0.9044;-1.2018;
451.2000;0.9076;-1.1918;
451.5000;0.9084;-1.1769;
451.8000;0.9076;-1.1818;
452.1000;0.9084;-1.1793;
452.4000;0.9060;-1.1868;
452.7000;0.9092;-1.1669;
453.0000;0.9084;-1.1669;
453.3000;0.9068;-1.1793;
453.6000;0.9060;-1.1868;
453.9000;0.9068;-1.1843;
454.2000;0.9068;-1.1918;
454.5000;0.9035;-1.1968;
454.8000;0.9052;-1.1918;
455.1000;0.9060;-1.1868;
455.4000;0.9068;-1.1843;
455.7000;0.9068;-1.1793;
456.0000;0.9044;-1.1769;
456.3000;0.9052;-1.1818;
456.6000;0.9044;-1.1793;
456.9000;0.9076;-1.1669;
457.2000;0.9076;-1.1544;
457.5000;0.9060;-1.1544;
457.8000;0.9060;-1.1669;
458.1000;0.9076;-1.1744;
458.4000;0.9084;-1.1694;
458.7000;0.9092;-1.1669;
459.0000;0.9060;-1.1694;
459.3000;0.9084;-1.1744;
459.6000;0.9092;-1.1694;
459.9000;0.9076;-1.1594;
460.2000;0.9060;-1.1519;
460.5000;0.9076;-1.1469;
460.8000;0.9084;-1.1444;
461.1000;0.9044;-1.1594;
461.4000;0.9060;-1.1619;
461.7000;0.9060;-1.1619;
462.0000;0.9068;-1.1569;
462.3000;0.9092;-1.1494;
462.6000;0.9052;-1.1494;
462.9000;0.9052;-1.1494;
463.2000;0.9076;-1.1494;
463.5000;0.9084;-1.1544;
463.8000;0.9044;-1.1569;
464.1000;0.9044;-1.1544;
464.4000;0.9068;-1.1519;
464.7000;0.9076;-1.1494;
465.0000;0.9060;-1.1494;
465.3000;0.9060;-1.1544;
465.6000;0.9060;-1.1519;
465.9000;0.9068;-1.1494;
466.2000;0.9060;-1.1544;
466.5000;0.9060;-1.1594;
466.8000;0.9044;-1.1594;
467.1000;0.9068;-1.1569;
467.4000;0.9084;-1.1594;
467.7000;0.9060;-1.1793;
468.0000;0.9019;-1.1918;
468.3000;0.9076;-1.1843;
468.6000;0.9149;-1.1669;
468.9000;0.9101;-1.1769;
469.2000;0.9076;-1.1793;
469.5000;0.9101;-1.1669;
469.8000;0.9076;-1.1619;
470.1000;0.9117;-1.1694;
470.4000;0.9060;-1.1893;
470.7000;0.9068;-1.1818;
471.0000;0.9060;-1.1694;
471.3000;0.9068;-1.1619;
471.6000;0.9166;-1.1444;
471.9000;0.9076;-1.1818;
472.2000;0.9076;-1.1918;
472.5000;0.9068;-1.1843;
472.8000;0.9060;-1.1793;
473.1000;0.9068;-1.1744;
473.4000;0.9076;-1.1744;
473.7000;0.9060;-1.1744;
474.0000;0.9060;-1.1868;
474.3000;0.9044;-1.1868;
474.6000;0.9076;-1.1793;
474.9000;0.9117;-1.1594;
475.2000;0.9060;-1.1619;
475.5000;0.9044;-1.1619;
475.8000;0.8978;-1.1818;
476.1000;0.9060;-1.1544;
476.4000;0.9076;-1.1519;
476.7000;0.8987;-1.1744;
477.0000;0.9060;-1.1544;
477.3000;0.9052;-1.1469;
477.6000;0.9035;-1.1444;
477.9000;0.9125;-1.1195;
478.2000;0.9068;-1.1469;
478.5000;0.9060;-1.1544;
478.8000;0.9052;-1.1619;
479.1000;0.9052;-1.1694;
479.4000;0.9035;-1.1694;
479.7000;0.9044;-1.1694;
480.0000;0.9052;-1.1644;
480.3000;0.9052;-1.1619;
480.6000;0.9068;-1.1594;
480.9000;0.9052;-1.1769;
481.2000;0.9060;-1.1744;
481.5000;0.9076;-1.1694;
481.8000;0.9076;-1.1818;
482.1000;0.9060;-1.1818;
482.4000;0.9076;-1.1744;
482.7000;0.9052;-1.1644;
483.0000;0.9060;-1.1644;
483.3000;0.9060;-1.1644;
483.6000;0.9068;-1.1644;
483.9000;0.8978;-1.1793;
484.2000;0.9084;-1.1594;
484.5000;0.9035;-1.1694;
484.8000;0.9052;-1.1669;
485.1000;0.9003;-1.1793;
485.4000;0.9044;-1.1619;
485.7000;0.9060;-1.1594;
486.0000;0.9027;-1.1569;
486.3000;0.8946;-1.1719;
486.6000;0.9052;-1.1419;
486.9000;0.9052;-1.1469;
487.2000;0.9027;-1.1444;
487.5000;0.9052;-1.1395;
487.8000;0.9084;-1.1320;
488.1000;0.9052;-1.1370;
488.4000;0.9035;-1.1469;
488.7000;0.9060;-1.1395;
489.0000;0.9044;-1.1419;
489.3000;0.9060;-1.1469;
489.6000;0.9044;-1.1494;
489.9000;0.9060;-1.1419;
490.2000;0.9035;-1.1419;
490.5000;0.9044;-1.1419;
490.8000;0.9052;-1.1469;
491.1000;0.9011;-1.1569;
491.4000;0.9060;-1.1419;
491.7000;0.9101;-1.1345;
492.0000;0.9052;-1.1644;
492.3000;0.9052;-1.1569;
492.6000;0.9011;-1.1644;
492.9000;0.9044;-1.1619;
493.2000;0.9044;-1.1569;
493.5000;0.9044;-1.1569;
493.8000;0.9019;-1.1644;
494.1000;0.9044;-1.1594;
494.4000;0.9019;-1.1544;
494.7000;0.9076;-1.1469;
495.0000;0.9060;-1.1494;
495.3000;0.8978;-1.1744;
495.6000;0.9044;-1.1619;
495.9000;0.9060;-1.1544;
496.2000;0.9068;-1.1544;
496.5000;0.9035;-1.1619;
496.8000;0.9027;-1.1719;
497.1000;0.9060;-1.1644;
497.4000;0.9052;-1.1594;
497.7000;0.9068;-1.1544;
498.0000;0.9060;-1.1519;
498.3000;0.9003;-1.1669;
498.6000;0.9068;-1.1544;
498.9000;0.9109;-1.1395;
499.2000;0.9035;-1.1544;
499.5000;0.9068;-1.1469;
499.8000;0.9076;-1.1469;
500.1000;0.9027;-1.1569;
500.4000;0.9101;-1.1370;
500.7000;0.9027;-1.1519;
501.0000;0.9044;-1.1370;
501.3000;0.9011;-1.1594;
501.6000;0.9019;-1.1644;
501.9000;0.9035;-1.1669;
502.2000;0.9019;-1.1594;
502.5000;0.9044;-1.1544;
502.8000;0.9027;-1.1619;
503.1000;0.9044;-1.1519;
503.4000;0.9092;-1.1370;
503.7000;0.9019;-1.1544;
504.0000;0.9019;-1.1494;
504.3000;0.9052;-1.1395;
504.6000;0.9060;-1.1444;
504.9000;0.8987;-1.1569;
505.2000;0.9019;-1.1544;
505.5000;0.9044;-1.1594;
505.8000;0.8987;-1.1594;
506.1000;0.9027;-1.1544;
506.4000;0.9035;-1.1494;
506.7000;0.9044;-1.1444;
507.0000;0.9044;-1.1469;
507.3000;0.9044;-1.1419;
507.6000;0.9044;-1.1469;
507.9000;0.9044;-1.1444;
508.2000;0.9027;-1.1419;
508.5000;0.9035;-1.1345;
508.8000;0.9003;-1.1444;
509.1000;0.9003;-1.1469;
509.4000;0.9035;-1.1419;
509.7000;0.9019;-1.1444;
510.0000;0.9019;-1.1469;
510.3000;0.9101;-1.1295;
510.6000;0.9019;-1.1469;
510.9000;0.9027;-1.1519;
511.2000;0.9084;-1.1395;
511.5000;0.9027;-1.1519;
511.8000;0.9158;-1.1195;
512.1000;0.9003;-1.1494;
512.4000;0.9027;-1.1419;
512.7000;0.9011;-1.1469;
513.0000;0.9019;-1.1519;
513.3000;0.9027;-1.1519;
513.6000;0.9027;-1.1519;
513.9000;0.9035;-1.1395;
514.2000;0.9003;-1.1469;
514.5000;0.9044;-1.1395;
514.8000;0.9019;-1.1544;
515.1000;0.8921;-1.1818;
515.4000;0.9035;-1.1519;
515.7000;0.9027;-1.1469;
516.0000;0.9076;-1.1345;
516.3000;0.9060;-1.1419;
516.6000;0.9019;-1.1519;
516.9000;0.9027;-1.1395;
517.2000;0.8995;-1.1444;
517.5000;0.9027;-1.1395;
517.8000;0.9003;-1.1494;
518.1000;0.9027;-1.1345;
518.4000;0.8978;-1.1444;
518.7000;0.9052;-1.1295;
519.0000;0.9044;-1.1395;
519.3000;0.9044;-1.1469;
519.6000;0.9027;-1.1419;
519.9000;0.9027;-1.1444;
520.2000;0.8987;-1.1494;
520.5000;0.9019;-1.1345;
520.8000;0.9035;-1.1295;
521.1000;0.9027;-1.1370;
521.4000;0.9133;-1.1070;
521.7000;0.9019;-1.1320;
522.0000;0.9076;-1.1195;
522.3000;0.9068;-1.1245;
522.6000;0.9019;-1.1444;
522.9000;0.8995;-1.1494;
523.2000;0.9019;-1.1469;
523.5000;0.8995;-1.1494;
523.8000;0.9027;-1.1494;
524.1000;0.9035;-1.1444;
524.4000;0.9003;-1.1519;
524.7000;0.9076;-1.1320;
525.0000;0.9044;-1.1419;
525.3000;0.9076;-1.1370;
525.6000;0.9003;-1.1569;
525.9000;0.9011;-1.1494;
526.2000;0.9027;-1.1370;
526.5000;0.9019;-1.1419;
526.8000;0.9027;-1.1395;
527.1000;0.9011;-1.1444;
527.4000;0.9044;-1.1320;
527.7000;0.9035;-1.1419;
528.0000;0.9027;-1.1419;
528.3000;0.9027;-1.1444;
528.6000;0.9027;-1.1419;
528.9000;0.9027;-1.1519;
529.2000;0.9060;-1.1419;
529.5000;0.9019;-1.1519;
529.8000;0.9044;-1.1569;
530.1000;0.9011;-1.1594;
530.4000;0.9027;-1.1594;
530.7000;0.9019;-1.1644;
531.0000;0.9003;-1.1669;
531.3000;0.9027;-1.1619;
531.6000;0.9019;-1.1694;
531.9000;0.9011;-1.1619;
532.2000;0.9019;-1.1644;
532.5000;0.9035;-1.1644;
532.8000;0.9027;-1.1669;
533.1000;0.9003;-1.1769;
533.4000;0.8995;-1.1843;
533.7000;0.9027;-1.1669;
534.0000;0.9027;-1.1594;
534.3000;0.9027;-1.1594;
534.6000;0.9052;-1.1519;
534.9000;0.9011;-1.1669;
535.2000;0.9003;-1.1669;
535.5000;0.9027;-1.1669;
535.8000;0.9068;-1.1469;
536.1000;0.9019;-1.1544;
536.4000;0.9027;-1.1544;
536.7000;0.9019;-1.1469;
537.0000;0.9011;-1.1469;
537.3000;0.9035;-1.1320;
537.6000;0.9035;-1.1320;
537.9000;0.9027;-1.1395;
538.2000;0.9019;-1.1395;
538.5000;0.9027;-1.1370;
538.8000;0.9044;-1.1345;
539.1000;0.9035;-1.1395;
539.4000;0.9011;-1.1494;
539.7000;0.9011;-1.1569;
540.0000;0.8995;-1.1519;
540.3000;0.9052;-1.1419;
540.6000;0.9027;-1.1544;
540.9000;0.9019;-1.1519;
541.2000;0.8987;-1.1569;
541.5000;0.9019;-1.1444;
541.8000;0.9027;-1.1469;
542.1000;0.9011;-1.1519;
542.4000;0.9003;-1.1594;
542.7000;0.8995;-1.1644;
543.0000;0.9019;-1.1544;
543.3000;0.9003;-1.1644;
543.6000;0.9068;-1.1469;
543.9000;0.9035;-1.1519;
544.2000;0.9035;-1.1544;
544.5000;0.8987;-1.1644;
544.8000;0.9019;-1.1594;
545.1000;0.9027;-1.1594;
545.4000;0.9011;-1.1594;
545.7000;0.9019;-1.1594;
546.0000;0.9011;-1.1619;
546.3000;0.9027;-1.1619;
546.6000;0.9019;-1.1594;
546.9000;0.8987;-1.1594;
547.2000;0.9019;-1.1494;
547.5000;0.8987;-1.1370;
547.8000;0.9003;-1.1320;
548.1000;0.9003;-1.1419;
548.4000;0.9003;-1.1469;
548.7000;0.9019;-1.1345;
549.0000;0.8978;-1.1419;
549.3000;0.9003;-1.1320;
549.6000;0.9003;-1.1419;
549.9000;0.9011;-1.1395;
550.2000;0.9019;-1.1345;
550.5000;0.9027;-1.1295;
550.8000;0.9003;-1.1444;
551.1000;0.9011;-1.1469;
551.4000;0.9003;-1.1469;
551.7000;0.9035;-1.1345;
552.0000;0.9011;-1.1469;
552.3000;0.9011;-1.1594;
552.6000;0.8995;-1.1669;
552.9000;0.9019;-1.1519;
553.2000;0.9003;-1.1519;
553.5000;0.9011;-1.1544;
553.8000;0.9003;-1.1544;
554.1000;0.9011;-1.1519;
554.4000;0.8995;-1.1544;
554.7000;0.9003;-1.1519;
555.0000;0.9019;-1.1494;
555.3000;0.9011;-1.1569;
555.6000;0.9003;-1.1619;
555.9000;0.8970;-1.1694;
556.2000;0.9003;-1.1619;
556.5000;0.9060;-1.1519;
556.8000;0.9027;-1.1669;
557.1000;0.9003;-1.1619;
557.4000;0.8978;-1.1644;
557.7000;0.8995;-1.1544;
558.0000;0.9011;-1.1519;
558.3000;0.9003;-1.1569;
558.6000;0.8995;-1.1544;
558.9000;0.8954;-1.1669;
559.2000;0.9011;-1.1469;
559.5000;0.9027;-1.1469;
559.8000;0.9027;-1.1494;
560.1000;0.9003;-1.1519;
560.4000;0.9035;-1.1395;
560.7000;0.9019;-1.1395;
561.0000;0.9003;-1.1519;
561.3000;0.9027;-1.1419;
561.6000;0.9019;-1.1419;
561.9000;0.9019;-1.1395;
562.2000;0.9011;-1.1395;
562.5000;0.9003;-1.1444;
562.8000;0.9019;-1.1419;
563.1000;0.9011;-1.1320;
563.4000;0.9044;-1.1295;
563.7000;0.9003;-1.1444;
564.0000;0.8987;-1.1469;
564.3000;0.9027;-1.1444;
564.6000;0.9035;-1.1469;
564.9000;0.9003;-1.1494;
565.2000;0.9019;-1.1469;
565.5000;0.9003;-1.1444;
565.8000;0.9003;-1.1494;
566.1000;0.9011;-1.1519;
566.4000;0.9011;-1.1544;
566.7000;0.9027;-1.1370;
567.0000;0.9003;-1.1519;
567.3000;0.9003;-1.1519;
567.6000;0.8995;-1.1544;
567.9000;0.8995;-1.1569;
568.2000;0.9011;-1.1419;
568.5000;0.8995;-1.1419;
568.8000;0.8987;-1.1494;
569.1000;0.8987;-1.1469;
569.4000;0.9011;-1.1370;
569.7000;0.8995;-1.1469;
570.0000;0.8995;-1.1469;
570.3000;0.8987;-1.1469;
570.6000;0.8995;-1.1494;
570.9000;0.9011;-1.1494;
571.2000;0.8987;-1.1494;
571.5000;0.8946;-1.1569;
571.8000;0.9003;-1.1444;
572.1000;0.9011;-1.1469;
572.4000;0.8995;-1.1395;
572.7000;0.8995;-1.1345;
573.0000;0.9011;-1.1320;
573.3000;0.9019;-1.1320;
573.6000;0.9003;-1.1345;
573.9000;0.8995;-1.1444;
574.2000;0.9011;-1.1345;
574.5000;0.8987;-1.1370;
574.8000;0.9019;-1.1419;
575.1000;0.8995;-1.1444;
575.4000;0.8995;-1.1395;
575.7000;0.9011;-1.1295;
576.0000;0.9011;-1.1419;
576.3000;0.9060;-1.1320;
576.6000;0.9035;-1.1419;
576.9000;0.9003;-1.1444;
577.2000;0.9011;-1.1295;
577.5000;0.8987;-1.1245;
577.8000;0.8995;-1.1295;
578.1000;0.8995;-1.1295;
578.4000;0.9019;-1.1245;
578.7000;0.9003;-1.1270;
579.0000;0.9003;-1.1295;
579.3000;0.9019;-1.1245;
579.6000;0.8995;-1.1320;
579.9000;0.9003;-1.1370;
580.2000;0.8995;-1.1419;
580.5000;0.8995;-1.1469;
580.8000;0.8995;-1.1395;
581.1000;0.9003;-1.1320;
581.4000;0.9003;-1.1295;
581.7000;0.8970;-1.1370;
582.0000;0.9003;-1.1370;
582.3000;0.9003;-1.1320;
582.6000;0.9011;-1.1245;
582.9000;0.8987;-1.1295;
583.2000;0.8978;-1.1245;
583.5000;0.8987;-1.1220;
583.8000;0.8995;-1.1295;
584.1000;0.9003;-1.1245;
584.4000;0.8970;-1.1345;
584.7000;0.9003;-1.1345;
585.0000;0.8962;-1.1395;
585.3000;0.9011;-1.1345;
585.6000;0.8938;-1.1519;
585.9000;0.9003;-1.1345;
586.2000;0.9019;-1.1170;
586.5000;0.8978;-1.1195;
586.8000;0.9019;-1.1170;
587.1000;0.9035;-1.1145;
587.4000;0.8938;-1.1370;
587.7000;0.8995;-1.1270;
588.0000;0.8970;-1.1320;
588.3000;0.8987;-1.1245;
588.6000;0.9019;-1.1245;
588.9000;0.9003;-1.1345;
589.2000;0.8995;-1.1345;
589.5000;0.9003;-1.1370;
589.8000;0.8995;-1.1395;
590.1000;0.9003;-1.1395;
590.4000;0.8995;-1.1370;
590.7000;0.9003;-1.1320;
591.0000;0.8995;-1.1295;
591.3000;0.9003;-1.1295;
591.6000;0.8995;-1.1370;
591.9000;0.8987;-1.1469;
592.2000;0.8995;-1.1444;
592.5000;0.9003;-1.1494;
592.8000;0.8995;-1.1519;
593.1000;0.8978;-1.1594;
593.4000;0.8978;-1.1594;
593.7000;0.8978;-1.1594;
594.0000;0.8978;-1.1494;
594.3000;0.8970;-1.1469;
594.6000;0.8995;-1.1370;
594.9000;0.8987;-1.1370;
595.2000;0.8995;-1.1320;
595.5000;0.8954;-1.1320;
595.8000;0.9019;-1.1195;
596.1000;0.8970;-1.1345;
596.4000;0.8995;-1.1320;
596.7000;0.8978;-1.1270;
597.0000;0.8978;-1.1145;
597.3000;0.8987;-1.1095;
597.6000;0.9011;-1.0946;
597.9000;0.8962;-1.1095;
598.2000;0.8970;-1.1045;
598.5000;0.8970;-1.1070;
598.8000;0.8987;-1.0996;
599.1000;0.9011;-1.1021;
599.4000;0.8995;-1.1095;
599.7000;0.9003;-1.1045;
600.0000;0.8987;-1.1120;
600.3000;0.8978;-1.1395;
600.6000;0.8864;-1.1619;
600.9000;0.8734;-1.1818;
601.2000;0.8514;-1.2043;
601.5000;0.8352;-1.2267;
601.8000;0.8173;-1.2442;
602.1000;0.7977;-1.2791;
602.4000;0.7823;-1.2841;
602.7000;0.7643;-1.2990;
603.0000;0.7530;-1.3115;
603.3000;0.7407;-1.3364;
603.6000;0.7277;-1.3589;
603.9000;0.7179;-1.3639;
604.2000;0.7049;-1.3688;
604.5000;0.6976;-1.3663;
604.8000;0.6960;-1.3589;
605.1000;0.6781;-1.4013;
605.4000;0.6716;-1.4212;
605.7000;0.6634;-1.4287;
606.0000;0.6585;-1.4237;
606.3000;0.6520;-1.4262;
606.6000;0.6447;-1.4262;
606.9000;0.6398;-1.4312;
607.2000;0.6349;-1.4337;
607.5000;0.6292;-1.4436;
607.8000;0.6268;-1.4337;
608.1000;0.6146;-1.4536;
608.4000;0.6186;-1.4337;
608.7000;0.6105;-1.4486;
609.0000;0.5975;-1.4711;
609.3000;0.6007;-1.4461;
609.6000;0.5926;-1.4561;
609.9000;0.5934;-1.4586;
610.2000;0.5926;-1.4661;
610.5000;0.5877;-1.4810;
610.8000;0.5845;-1.4885;
611.1000;0.5820;-1.4935;
611.4000;0.5779;-1.4985;
611.7000;0.5788;-1.4910;
612.0000;0.5763;-1.4985;
612.3000;0.5722;-1.5035;
612.6000;0.5690;-1.5085;
612.9000;0.5633;-1.5234;
613.2000;0.5649;-1.5284;
613.5000;0.5617;-1.5184;
613.8000;0.5665;-1.5110;
614.1000;0.5600;-1.5209;
614.4000;0.5560;-1.5209;
614.7000;0.5543;-1.5234;
615.0000;0.5527;-1.5234;
615.3000;0.5519;-1.5234;
615.6000;0.5503;-1.5284;
615.9000;0.5511;-1.5284;
616.2000;0.5470;-1.5309;
616.5000;0.5446;-1.5334;
616.8000;0.5470;-1.5309;
617.1000;0.5421;-1.5459;
617.4000;0.5405;-1.5484;
617.7000;0.5397;-1.5459;
618.0000;0.5381;-1.5484;
618.3000;0.5397;-1.5434;
618.6000;0.5364;-1.5434;
618.9000;0.5340;-1.5434;
619.2000;0.5324;-1.5334;
619.5000;0.5315;-1.5334;
619.8000;0.5315;-1.5334;
620.1000;0.5307;-1.5309;
620.4000;0.5283;-1.5359;
620.7000;0.5258;-1.5334;
621.0000;0.5210;-1.5409;
621.3000;0.5226;-1.5409;
621.6000;0.5144;-1.5608;
621.9000;0.5201;-1.5384;
622.2000;0.5201;-1.5359;
622.5000;0.5210;-1.5359;
622.8000;0.5210;-1.5259;
623.1000;0.5193;-1.5284;
623.4000;0.5234;-1.5259;
623.7000;0.5226;-1.5209;
624.0000;0.5161;-1.5309;
624.3000;0.5153;-1.5259;
624.6000;0.5153;-1.5334;
624.9000;0.5112;-1.5409;
625.2000;0.5136;-1.5309;
625.5000;0.5128;-1.5259;
625.8000;0.5128;-1.5259;
626.1000;0.5104;-1.5234;
626.4000;0.5088;-1.5209;
626.7000;0.5104;-1.5159;
627.0000;0.5088;-1.5135;
627.3000;0.5071;-1.5259;
627.6000;0.5096;-1.5309;
627.9000;0.5055;-1.5434;
628.2000;0.5063;-1.5509;
628.5000;0.5022;-1.5633;
628.8000;0.5031;-1.5558;
629.1000;0.5022;-1.5509;
629.4000;0.5014;-1.5509;
629.7000;0.5031;-1.5459;
630.0000;0.5071;-1.5384;
630.3000;0.5006;-1.5583;
630.6000;0.4974;-1.5633;
630.9000;0.5006;-1.5509;
631.2000;0.5006;-1.5384;
631.5000;0.4998;-1.5309;
631.8000;0.4990;-1.5184;
632.1000;0.4974;-1.5309;
632.4000;0.4974;-1.5359;
632.7000;0.4957;-1.5384;
633.0000;0.4982;-1.5359;
633.3000;0.4941;-1.5509;
633.6000;0.4933;-1.5558;
633.9000;0.4965;-1.5509;
634.2000;0.4957;-1.5533;
634.5000;0.4941;-1.5533;
634.8000;0.4933;-1.5484;
635.1000;0.4908;-1.5558;
635.4000;0.4933;-1.5484;
635.7000;0.4933;-1.5434;
636.0000;0.4941;-1.5409;
636.3000;0.4917;-1.5409;
636.6000;0.4908;-1.5459;
636.9000;0.4900;-1.5509;
637.2000;0.4892;-1.5583;
637.5000;0.4892;-1.5409;
637.8000;0.4892;-1.5384;
638.1000;0.4892;-1.5409;
638.4000;0.4900;-1.5484;
638.7000;0.4876;-1.5509;
639.0000;0.4868;-1.5683;
639.3000;0.4860;-1.5683;
639.6000;0.4860;-1.5608;
639.9000;0.4876;-1.5484;
640.2000;0.4843;-1.5533;
640.5000;0.4843;-1.5533;
640.8000;0.4851;-1.5509;
641.1000;0.4860;-1.5459;
641.4000;0.4843;-1.5459;
641.7000;0.4827;-1.5608;
642.0000;0.4786;-1.5758;
642.3000;0.4835;-1.5558;
642.6000;0.4819;-1.5608;
642.9000;0.4803;-1.5683;
643.2000;0.4835;-1.5583;
643.5000;0.4819;-1.5558;
643.8000;0.4811;-1.5633;
644.1000;0.4811;-1.5633;
644.4000;0.4811;-1.5558;
644.7000;0.4786;-1.5608;
645.0000;0.4803;-1.5558;
645.3000;0.4746;-1.5583;
645.6000;0.4778;-1.5558;
645.9000;0.4811;-1.5484;
646.2000;0.4778;-1.5558;
646.5000;0.4770;-1.5509;
646.8000;0.4770;-1.5384;
647.1000;0.4762;-1.5409;
647.4000;0.4754;-1.5409;
647.7000;0.4762;-1.5434;
648.0000;0.4737;-1.5384;
648.3000;0.4705;-1.5509;
648.6000;0.4754;-1.5434;
648.9000;0.4762;-1.5359;
649.2000;0.4737;-1.5409;
649.5000;0.4729;-1.5309;
649.8000;0.4737;-1.5334;
650.1000;0.4721;-1.5459;
650.4000;0.4721;-1.5533;
650.7000;0.4721;-1.5533;
651.0000;0.4721;-1.5558;
651.3000;0.4729;-1.5484;
651.6000;0.4689;-1.5533;
651.9000;0.4721;-1.5459;
652.2000;0.4713;-1.5334;
652.5000;0.4754;-1.5334;
652.8000;0.4713;-1.5359;
653.1000;0.4697;-1.5459;
653.4000;0.4697;-1.5533;
653.7000;0.4705;-1.5509;
654.0000;0.4689;-1.5533;
654.3000;0.4697;-1.5533;
654.6000;0.4583;-1.5783;
654.9000;0.4705;-1.5459;
655.2000;0.4705;-1.5459;
655.5000;0.4689;-1.5484;
655.8000;0.4681;-1.5484;
656.1000;0.4697;-1.5409;
656.4000;0.4697;-1.5434;
656.7000;0.4681;-1.5558;
657.0000;0.4672;-1.5484;
657.3000;0.4681;-1.5434;
657.6000;0.4681;-1.5558;
657.9000;0.4672;-1.5509;
658.2000;0.4664;-1.5359;
658.5000;0.4656;-1.5309;
658.8000;0.4664;-1.5309;
659.1000;0.4664;-1.5284;
659.4000;0.4648;-1.5334;
659.7000;0.4648;-1.5284;
660.0000;0.4648;-1.5234;
660.3000;0.4656;-1.5209;
660.6000;0.4640;-1.5259;
660.9000;0.4648;-1.5284;
661.2000;0.4632;-1.5384;
661.5000;0.4640;-1.5409;
661.8000;0.4640;-1.5409;
662.1000;0.4632;-1.5309;
662.4000;0.4624;-1.5309;
662.7000;0.4624;-1.5309;
663.0000;0.4615;-1.5334;
663.3000;0.4615;-1.5359;
663.6000;0.4624;-1.5359;
663.9000;0.4624;-1.5384;
664.2000;0.4615;-1.5459;
664.5000;0.4624;-1.5359;
664.8000;0.4607;-1.5384;
665.1000;0.4599;-1.5434;
665.4000;0.4599;-1.5409;
665.7000;0.4567;-1.5459;
666.0000;0.4615;-1.5384;
666.3000;0.4591;-1.5334;
666.6000;0.4648;-1.5135;
666.9000;0.4599;-1.5334;
667.2000;0.4567;-1.5359;
667.5000;0.4583;-1.5409;
667.8000;0.4599;-1.5359;
668.1000;0.4575;-1.5384;
668.4000;0.4583;-1.5284;
668.7000;0.4583;-1.5334;
669.0000;0.4591;-1.5384;
669.3000;0.4575;-1.5384;
669.6000;0.4567;-1.5384;
669.9000;0.4550;-1.5359;
670.2000;0.4575;-1.5284;
670.5000;0.4558;-1.5409;
670.8000;0.4550;-1.5409;
671.1000;0.4550;-1.5409;
671.4000;0.4542;-1.5384;
671.7000;0.4550;-1.5259;
672.0000;0.4567;-1.5334;
672.3000;0.4607;-1.5209;
672.6000;0.4567;-1.5359;
672.9000;0.4558;-1.5359;
673.2000;0.4550;-1.5459;
673.5000;0.4550;-1.5459;
673.8000;0.4550;-1.5459;
674.1000;0.4542;-1.5484;
674.4000;0.4558;-1.5434;
674.7000;0.4534;-1.5509;
675.0000;0.4542;-1.5533;
675.3000;0.4534;-1.5533;
675.6000;0.4534;-1.5558;
675.9000;0.4534;-1.5583;
676.2000;0.4542;-1.5558;
676.5000;0.4534;-1.5509;
676.8000;0.4518;-1.5484;
677.1000;0.4526;-1.5484;
677.4000;0.4518;-1.5359;
677.7000;0.4518;-1.5359;
678.0000;0.4534;-1.5309;
678.3000;0.4526;-1.5259;
678.6000;0.4526;-1.5284;
678.9000;0.4518;-1.5234;
679.2000;0.4526;-1.5259;
679.5000;0.4510;-1.5309;
679.8000;0.4510;-1.5334;
680.1000;0.4485;-1.5334;
680.4000;0.4510;-1.5309;
680.7000;0.4510;-1.5359;
681.0000;0.4501;-1.5434;
681.3000;0.4501;-1.5409;
681.6000;0.4493;-1.5509;
681.9000;0.4510;-1.5434;
682.2000;0.4501;-1.5409;
682.5000;0.4485;-1.5359;
682.8000;0.4485;-1.5309;
683.1000;0.4518;-1.5234;
683.4000;0.4493;-1.5334;
683.7000;0.4477;-1.5409;
684.0000;0.4493;-1.5384;
684.3000;0.4485;-1.5384;
684.6000;0.4469;-1.5359;
684.9000;0.4485;-1.5334;
685.2000;0.4477;-1.5359;
685.5000;0.4453;-1.5409;
685.8000;0.4477;-1.5434;
686.1000;0.4477;-1.5434;
686.4000;0.4461;-1.5434;
686.7000;0.4469;-1.5384;
687.0000;0.4477;-1.5359;
687.3000;0.4485;-1.5259;
687.6000;0.4477;-1.5234;
687.9000;0.4469;-1.5284;
688.2000;0.4469;-1.5259;
688.5000;0.4469;-1.5259;
688.8000;0.4477;-1.5234;
689.1000;0.4444;-1.5384;
689.4000;0.4477;-1.5259;
689.7000;0.4428;-1.5359;
690.0000;0.4469;-1.5334;
690.3000;0.4453;-1.5384;
690.6000;0.4526;-1.5035;
690.9000;0.4453;-1.5234;
691.2000;0.4420;-1.5359;
691.5000;0.4461;-1.5259;
691.8000;0.4436;-1.5284;
692.1000;0.4477;-1.5234;
692.4000;0.4428;-1.5309;
692.7000;0.4428;-1.5234;
693.0000;0.4444;-1.5284;
693.3000;0.4436;-1.5234;
693.6000;0.4436;-1.5159;
693.9000;0.4444;-1.5110;
694.2000;0.4453;-1.5085;
694.5000;0.4453;-1.5159;
694.8000;0.4493;-1.4985;
695.1000;0.4444;-1.5159;
695.4000;0.4461;-1.5035;
695.7000;0.4412;-1.5209;
696.0000;0.4428;-1.5234;
696.3000;0.4420;-1.5110;
696.6000;0.4453;-1.5035;
696.9000;0.4404;-1.5159;
697.2000;0.4428;-1.5209;
697.5000;0.4404;-1.5359;
697.8000;0.4420;-1.5259;
698.1000;0.4387;-1.5309;
698.4000;0.4379;-1.5334;
698.7000;0.4428;-1.5060;
699.0000;0.4428;-1.5085;
699.3000;0.4420;-1.5110;
699.6000;0.4404;-1.5085;
699.9000;0.4428;-1.5085;
700.2000;0.4436;-1.5110;
700.5000;0.4453;-1.5135;
700.8000;0.4428;-1.5184;
701.1000;0.4420;-1.5184;
701.4000;0.4412;-1.5159;
701.7000;0.4412;-1.5234;
702.0000;0.4404;-1.5259;
702.3000;0.4396;-1.5284;
702.6000;0.4314;-1.5509;
702.9000;0.4371;-1.5284;
703.2000;0.4412;-1.5159;
703.5000;0.4396;-1.5135;
703.8000;0.4396;-1.5085;
704.1000;0.4396;-1.5110;
704.4000;0.4387;-1.5159;
704.7000;0.4387;-1.5110;
705.0000;0.4396;-1.5184;
705.3000;0.4363;-1.5234;
705.6000;0.4274;-1.5409;
705.9000;0.4396;-1.5060;
706.2000;0.4404;-1.5085;
706.5000;0.4371;-1.5259;
706.8000;0.4371;-1.5259;
707.1000;0.4355;-1.5234;
707.4000;0.4371;-1.5135;
707.7000;0.4379;-1.5159;
708.0000;0.4355;-1.5135;
708.3000;0.4363;-1.5184;
708.6000;0.4355;-1.5184;
708.9000;0.4371;-1.5184;
709.2000;0.4363;-1.5209;
709.5000;0.4371;-1.5110;
709.8000;0.4379;-1.5184;
710.1000;0.4387;-1.5135;
710.4000;0.4363;-1.5259;
710.7000;0.4404;-1.5135;
711.0000;0.4387;-1.5209;
711.3000;0.4371;-1.5110;
711.6000;0.4355;-1.5135;
711.9000;0.4330;-1.5309;
712.2000;0.4355;-1.5334;
712.5000;0.4363;-1.5409;
712.8000;0.4355;-1.5409;
713.1000;0.4363;-1.5434;
713.4000;0.4347;-1.5409;
713.7000;0.4363;-1.5234;
714.0000;0.4355;-1.5234;
714.3000;0.4363;-1.5259;
714.6000;0.4355;-1.5209;
714.9000;0.4274;-1.5434;
715.2000;0.4339;-1.5284;
715.5000;0.4379;-1.5159;
715.8000;0.4379;-1.5159;
716.1000;0.4379;-1.5209;
716.4000;0.4355;-1.5259;
716.7000;0.4282;-1.5434;
717.0000;0.4339;-1.5359;
717.3000;0.4339;-1.5259;
717.6000;0.4371;-1.5209;
717.9000;0.4396;-1.5035;
718.2000;0.4339;-1.5234;
718.5000;0.4330;-1.5359;
718.8000;0.4363;-1.5309;
719.1000;0.4363;-1.5309;
719.4000;0.4298;-1.5484;
719.7000;0.4347;-1.5384;
720.0000;0.4306;-1.5434;
720.3000;0.4339;-1.5359;
720.6000;0.4330;-1.5334;
720.9000;0.4330;-1.5359;
721.2000;0.4339;-1.5334;
721.5000;0.4339;-1.5259;
721.8000;0.4347;-1.5259;
722.1000;0.4314;-1.5284;
722.4000;0.4241;-1.5459;
722.7000;0.4298;-1.5209;
723.0000;0.4330;-1.5234;
723.3000;0.4314;-1.5334;
723.6000;0.4322;-1.5159;
723.9000;0.4371;-1.4985;
724.2000;0.4330;-1.5085;
724.5000;0.4298;-1.5060;
724.8000;0.4322;-1.5035;
725.1000;0.4347;-1.4960;
725.4000;0.4339;-1.5035;
725.7000;0.4290;-1.5035;
726.0000;0.4306;-1.5035;
726.3000;0.4314;-1.5060;
726.6000;0.4314;-1.5010;
726.9000;0.4282;-1.5085;
727.2000;0.4274;-1.5085;
727.5000;0.4298;-1.4985;
727.8000;0.4306;-1.4935;
728.1000;0.4314;-1.5060;
728.4000;0.4233;-1.5209;
728.7000;0.4274;-1.5010;
729.0000;0.4298;-1.4985;
729.3000;0.4330;-1.4885;
729.6000;0.4298;-1.5060;
729.9000;0.4290;-1.5010;
730.2000;0.4314;-1.4960;
730.5000;0.4290;-1.4985;
730.8000;0.4306;-1.4985;
731.1000;0.4298;-1.5035;
731.4000;0.4298;-1.5060;
731.7000;0.4330;-1.5010;
732.0000;0.4306;-1.5209;
732.3000;0.4290;-1.5284;
732.6000;0.4314;-1.5209;
732.9000;0.4330;-1.5184;
733.2000;0.4298;-1.5234;
733.5000;0.4298;-1.5184;
733.8000;0.4290;-1.5135;
734.1000;0.4298;-1.5159;
734.4000;0.4290;-1.5135;
734.7000;0.4282;-1.5060;
735.0000;0.4282;-1.5135;
735.3000;0.4298;-1.5060;
735.6000;0.4265;-1.5159;
735.9000;0.4274;-1.5085;
736.2000;0.4274;-1.5085;
736.5000;0.4282;-1.5110;
736.8000;0.4314;-1.5085;
737.1000;0.4274;-1.5159;
737.4000;0.4298;-1.5110;
737.7000;0.4314;-1.5060;
738.0000;0.4290;-1.5159;
738.3000;0.4282;-1.5234;
738.6000;0.4298;-1.5110;
738.9000;0.4322;-1.5060;
739.2000;0.4290;-1.5135;
739.5000;0.4290;-1.5110;
739.8000;0.4274;-1.5159;
740.1000;0.4363;-1.4810;
740.4000;0.4282;-1.5010;
740.7000;0.4241;-1.5135;
741.0000;0.4290;-1.5060;
741.3000;0.4282;-1.5135;
741.6000;0.4265;-1.5085;
741.9000;0.4257;-1.5110;
742.2000;0.4282;-1.5010;
742.5000;0.4265;-1.5085;
742.8000;0.4249;-1.5209;
743.1000;0.4282;-1.5135;
743.4000;0.4322;-1.4985;
743.7000;0.4274;-1.5259;
744.0000;0.4265;-1.5259;
744.3000;0.4241;-1.5284;
744.6000;0.4241;-1.5309;
744.9000;0.4208;-1.5434;
745.2000;0.4265;-1.5209;
745.5000;0.4257;-1.5234;
745.8000;0.4274;-1.5184;
746.1000;0.4274;-1.5159;
746.4000;0.4249;-1.5259;
746.7000;0.4274;-1.5085;
747.0000;0.4241;-1.5159;
747.3000;0.4265;-1.5159;
747.6000;0.4233;-1.5309;
747.9000;0.4233;-1.5334;
748.2000;0.4265;-1.5234;
748.5000;0.4282;-1.5259;
748.8000;0.4249;-1.5259;
749.1000;0.4225;-1.5209;
749.4000;0.4249;-1.5209;
749.7000;0.4282;-1.5234;
750.0000;0.4265;-1.5259;
750.3000;0.4241;-1.5259;
750.6000;0.4257;-1.5234;
750.9000;0.4265;-1.5184;
751.2000;0.4241;-1.5135;
751.5000;0.4249;-1.5135;
751.8000;0.4249;-1.5159;
752.1000;0.4241;-1.5209;
752.4000;0.4217;-1.5209;
752.7000;0.4225;-1.5159;
753.0000;0.4225;-1.5135;
753.3000;0.4233;-1.5060;
753.6000;0.4233;-1.5060;
753.9000;0.4249;-1.5060;
754.2000;0.4241;-1.5135;
754.5000;0.4225;-1.5135;
754.8000;0.4241;-1.5110;
755.1000;0.4257;-1.4985;
755.4000;0.4233;-1.5110;
755.7000;0.4249;-1.5110;
756.0000;0.4233;-1.5110;
756.3000;0.4233;-1.5184;
756.6000;0.4233;-1.5159;
756.9000;0.4168;-1.5409;
757.2000;0.4233;-1.5159;
757.5000;0.4233;-1.5060;
757.8000;0.4257;-1.5010;
758.1000;0.4225;-1.5010;
758.4000;0.4225;-1.4985;
758.7000;0.4241;-1.5010;
759.0000;0.4192;-1.5110;
759.3000;0.4249;-1.4985;
759.6000;0.4208;-1.5060;
759.9000;0.4225;-1.5110;
760.2000;0.4200;-1.5085;
760.5000;0.4233;-1.4985;
760.8000;0.4282;-1.4885;
761.1000;0.4208;-1.5035;
761.4000;0.4208;-1.5135;
761.7000;0.4225;-1.5135;
762.0000;0.4233;-1.5085;
762.3000;0.4241;-1.5085;
762.6000;0.4241;-1.5035;
762.9000;0.4217;-1.5085;
763.2000;0.4225;-1.5110;
763.5000;0.4241;-1.5060;
763.8000;0.4225;-1.5085;
764.1000;0.4217;-1.5085;
764.4000;0.4225;-1.5085;
764.7000;0.4241;-1.5184;
765.0000;0.4225;-1.5234;
765.3000;0.4282;-1.4960;
765.6000;0.4225;-1.5159;
765.9000;0.4233;-1.5135;
766.2000;0.4225;-1.5184;
766.5000;0.4233;-1.5110;
766.8000;0.4249;-1.5010;
767.1000;0.4225;-1.4960;
767.4000;0.4233;-1.4935;
767.7000;0.4208;-1.4960;
768.0000;0.4192;-1.5010;
768.3000;0.4176;-1.5060;
768.6000;0.4249;-1.4860;
768.9000;0.4176;-1.5135;
769.2000;0.4208;-1.5035;
769.5000;0.4200;-1.5110;
769.8000;0.4217;-1.5085;
770.1000;0.4225;-1.5035;
770.4000;0.4119;-1.5284;
770.7000;0.4160;-1.5159;
771.0000;0.4176;-1.5184;
771.3000;0.4217;-1.5110;
771.6000;0.4086;-1.5384;
771.9000;0.4200;-1.5060;
772.2000;0.4208;-1.5035;
772.5000;0.4184;-1.5209;
772.8000;0.4249;-1.5010;
773.1000;0.4168;-1.5209;
773.4000;0.4200;-1.5110;
773.7000;0.4200;-1.5159;
774.0000;0.4192;-1.5209;
774.3000;0.4176;-1.5259;
774.6000;0.4200;-1.5234;
774.9000;0.4184;-1.5184;
775.2000;0.4200;-1.5110;
775.5000;0.4184;-1.5135;
775.8000;0.4184;-1.5035;
776.1000;0.4208;-1.5010;
776.4000;0.4200;-1.4985;
776.7000;0.4208;-1.4910;
777.0000;0.4217;-1.4860;
777.3000;0.4192;-1.4960;
777.6000;0.4208;-1.4960;
777.9000;0.4208;-1.4960;
778.2000;0.4184;-1.4935;
778.5000;0.4192;-1.4960;
778.8000;0.4184;-1.4960;
779.1000;0.4184;-1.4960;
779.4000;0.4168;-1.5060;
779.7000;0.4184;-1.5085;
780.0000;0.4168;-1.5110;
780.3000;0.4200;-1.5135;
780.6000;0.4192;-1.5110;
780.9000;0.4192;-1.5035;
781.2000;0.4200;-1.4985;
781.5000;0.4192;-1.5035;
781.8000;0.4217;-1.4960;
782.1000;0.4176;-1.5035;
782.4000;0.4176;-1.4985;
782.7000;0.4192;-1.4985;
783.0000;0.4192;-1.5110;
783.3000;0.4184;-1.5085;
783.6000;0.4217;-1.4910;
783.9000;0.4160;-1.5110;
784.2000;0.4143;-1.5159;
784.5000;0.4184;-1.5060;
784.8000;0.4160;-1.5110;
785.1000;0.4151;-1.5110;
785.4000;0.4184;-1.4960;
785.7000;0.4192;-1.4985;
786.0000;0.4176;-1.5035;
786.3000;0.4176;-1.5035;
786.6000;0.4160;-1.5035;
786.9000;0.4184;-1.4960;
787.2000;0.4168;-1.4935;
787.5000;0.4225;-1.4835;
787.8000;0.4168;-1.4960;
788.1000;0.4151;-1.5085;
788.4000;0.4151;-1.5110;
788.7000;0.4176;-1.5110;
789.0000;0.4176;-1.5110;
789.3000;0.4241;-1.4985;
789.6000;0.4176;-1.5060;
789.9000;0.4176;-1.5060;
790.2000;0.4184;-1.5010;
790.5000;0.4192;-1.5010;
790.8000;0.4168;-1.4985;
791.1000;0.4249;-1.4736;
791.4000;0.4160;-1.4960;
791.7000;0.4176;-1.4910;
792.0000;0.4143;-1.5010;
792.3000;0.4176;-1.4885;
792.6000;0.4151;-1.4935;
792.9000;0.4151;-1.4985;
793.2000;0.4160;-1.4985;
793.5000;0.4168;-1.4960;
793.8000;0.4151;-1.5035;
794.1000;0.4184;-1.4960;
794.4000;0.4176;-1.4985;
794.7000;0.4168;-1.5010;
795.0000;0.4265;-1.4761;
795.3000;0.4176;-1.5035;
795.6000;0.4217;-1.4885;
795.9000;0.4160;-1.5060;
796.2000;0.4160;-1.5035;
796.5000;0.4168;-1.4935;
796.8000;0.4160;-1.4910;
797.1000;0.4160;-1.5010;
797.4000;0.4168;-1.4985;
797.7000;0.4217;-1.4810;
798.0000;0.4168;-1.4935;
798.3000;0.4151;-1.4985;
798.6000;0.4151;-1.4935;
798.9000;0.4176;-1.4960;
799.2000;0.4176;-1.4960;
799.5000;0.4168;-1.4935;
799.8000;0.4176;-1.4810;
800.1000;0.4160;-1.4860;
800.4000;0.4168;-1.4736;
800.7000;0.4168;-1.4860;
801.0000;0.4160;-1.4960;
801.3000;0.4168;-1.4910;
801.6000;0.4168;-1.4885;
801.9000;0.4160;-1.4860;
802.2000;0.4151;-1.4885;
802.5000;0.4160;-1.4935;
802.8000;0.4160;-1.4910;
803.1000;0.4143;-1.4785;
803.4000;0.4135;-1.4736;
803.7000;0.4168;-1.4736;
804.0000;0.4160;-1.4761;
804.3000;0.4135;-1.4810;
804.6000;0.4168;-1.4761;
804.9000;0.4160;-1.4785;
805.2000;0.4151;-1.4860;
805.5000;0.4135;-1.4835;
805.8000;0.4241;-1.4536;
806.1000;0.4143;-1.4910;
806.4000;0.4168;-1.4885;
806.7000;0.4176;-1.4810;
807.0000;0.4168;-1.4860;
807.3000;0.4143;-1.4860;
807.6000;0.4143;-1.4835;
807.9000;0.4135;-1.4736;
808.2000;0.4160;-1.4686;
808.5000;0.4151;-1.4761;
808.8000;0.4151;-1.4810;
809.1000;0.4143;-1.4810;
809.4000;0.4143;-1.4810;
809.7000;0.4151;-1.4835;
810.0000;0.4143;-1.4785;
810.3000;0.4143;-1.4761;
810.6000;0.4184;-1.4686;
810.9000;0.4143;-1.4810;
811.2000;0.4111;-1.4860;
811.5000;0.4135;-1.4711;
811.8000;0.4257;-1.4337;
812.1000;0.4127;-1.4661;
812.4000;0.4127;-1.4586;
812.7000;0.4070;-1.4711;
813.0000;0.4143;-1.4561;
813.3000;0.4143;-1.4661;
813.6000;0.4127;-1.4761;
813.9000;0.4119;-1.4761;
814.2000;0.4111;-1.4761;
814.5000;0.4135;-1.4686;
814.8000;0.4135;-1.4711;
815.1000;0.4160;-1.4686;
815.4000;0.4119;-1.4736;
815.7000;0.4127;-1.4761;
816.0000;0.4127;-1.4761;
816.3000;0.4143;-1.4711;
816.6000;0.4094;-1.4835;
816.9000;0.4127;-1.4711;
817.2000;0.4151;-1.4636;
817.5000;0.4021;-1.4935;
817.8000;0.4135;-1.4711;
818.1000;0.4086;-1.4860;
818.4000;0.4176;-1.4636;
818.7000;0.4151;-1.4711;
819.0000;0.4200;-1.4586;
819.3000;0.4119;-1.4885;
819.6000;0.4143;-1.4835;
819.9000;0.4127;-1.4910;
820.2000;0.4111;-1.4910;
820.5000;0.4143;-1.4835;
820.8000;0.4233;-1.4536;
821.1000;0.4143;-1.4736;
821.4000;0.4119;-1.4736;
821.7000;0.4111;-1.4810;
822.0000;0.4111;-1.4711;
822.3000;0.4078;-1.4910;
822.6000;0.4111;-1.4835;
822.9000;0.4143;-1.4785;
823.2000;0.4119;-1.4785;
823.5000;0.4135;-1.4736;
823.8000;0.4127;-1.4711;
824.1000;0.4119;-1.4761;
824.4000;0.4135;-1.4736;
824.7000;0.4111;-1.4910;
825.0000;0.4127;-1.4785;
825.3000;0.4135;-1.4761;
825.6000;0.4225;-1.4436;
825.9000;0.4103;-1.4661;
826.2000;0.4119;-1.4661;
826.5000;0.4127;-1.4686;
826.8000;0.4225;-1.4436;
827.1000;0.4111;-1.4736;
827.4000;0.4135;-1.4711;
827.7000;0.4135;-1.4686;
828.0000;0.4119;-1.4711;
828.3000;0.4119;-1.4860;
828.6000;0.4135;-1.4810;
828.9000;0.4111;-1.4835;
829.2000;0.4111;-1.4835;
829.5000;0.4111;-1.4835;
829.8000;0.4094;-1.4935;
830.1000;0.4127;-1.4835;
830.4000;0.4111;-1.4835;
830.7000;0.4119;-1.4761;
831.0000;0.4135;-1.4761;
831.3000;0.4143;-1.4761;
831.6000;0.4143;-1.4810;
831.9000;0.4127;-1.4810;
832.2000;0.4119;-1.4810;
832.5000;0.4127;-1.4761;
832.8000;0.4111;-1.4736;
833.1000;0.4119;-1.4661;
833.4000;0.4127;-1.4611;
833.7000;0.4127;-1.4711;
834.0000;0.4127;-1.4711;
834.3000;0.4062;-1.4910;
834.6000;0.4143;-1.4736;
834.9000;0.4135;-1.4761;
835.2000;0.4070;-1.4960;
835.5000;0.4119;-1.4885;
835.8000;0.4119;-1.4885;
836.1000;0.4062;-1.4935;
836.4000;0.4103;-1.4711;
836.7000;0.4103;-1.4785;
837.0000;0.4103;-1.4810;
837.3000;0.4094;-1.4835;
837.6000;0.4103;-1.4761;
837.9000;0.4119;-1.4661;
838.2000;0.4127;-1.4686;
838.5000;0.4151;-1.4736;
838.8000;0.4127;-1.4686;
839.1000;0.4127;-1.4661;
839.4000;0.4119;-1.4761;
839.7000;0.4078;-1.4860;
840.0000;0.4103;-1.4810;
840.3000;0.4103;-1.4761;
840.6000;0.4103;-1.4736;
840.9000;0.4217;-1.4436;
841.2000;0.4135;-1.4711;
841.5000;0.4094;-1.4761;
841.8000;0.4208;-1.4486;
842.1000;0.4111;-1.4686;
842.4000;0.4094;-1.4686;
842.7000;0.4103;-1.4636;
843.0000;0.4111;-1.4586;
843.3000;0.4127;-1.4561;
843.6000;0.4078;-1.4711;
843.9000;0.4086;-1.4661;
844.2000;0.4160;-1.4461;
844.5000;0.4103;-1.4661;
844.8000;0.4119;-1.4611;
845.1000;0.4103;-1.4636;
845.4000;0.4078;-1.4761;
845.7000;0.4111;-1.4661;
846.0000;0.4086;-1.4711;
846.3000;0.4094;-1.4661;
846.6000;0.4127;-1.4586;
846.9000;0.4094;-1.4686;
847.2000;0.4111;-1.4810;
847.5000;0.4111;-1.4711;
847.8000;0.4168;-1.4561;
848.1000;0.4094;-1.4711;
848.4000;0.4070;-1.4785;
848.7000;0.4103;-1.4736;
849.0000;0.4103;-1.4711;
849.3000;0.4094;-1.4686;
849.6000;0.4111;-1.4661;
849.9000;0.4094;-1.4761;
850.2000;0.4094;-1.4835;
850.5000;0.4103;-1.4761;
850.8000;0.4094;-1.4810;
851.1000;0.4086;-1.4885;
851.4000;0.4094;-1.4885;
851.7000;0.4086;-1.4810;
852.0000;0.4086;-1.4785;
852.3000;0.4103;-1.4736;
852.6000;0.4103;-1.4686;
852.9000;0.4111;-1.4785;
853.2000;0.4078;-1.4860;
853.5000;0.4103;-1.4835;
853.8000;0.4103;-1.4860;
854.1000;0.4094;-1.4860;
854.4000;0.4094;-1.4860;
854.7000;0.4103;-1.4785;
855.0000;0.4143;-1.4636;
855.3000;0.4103;-1.4736;
855.6000;0.4103;-1.4785;
855.9000;0.4094;-1.4736;
856.2000;0.4078;-1.4686;
856.5000;0.4070;-1.4736;
856.8000;0.4111;-1.4661;
857.1000;0.4111;-1.4636;
857.4000;0.4094;-1.4636;
857.7000;0.4070;-1.4761;
858.0000;0.4111;-1.4711;
858.3000;0.4070;-1.4785;
858.6000;0.4119;-1.4736;
858.9000;0.4103;-1.4785;
859.2000;0.4111;-1.4835;
859.5000;0.4111;-1.4785;
859.8000;0.4103;-1.4761;
860.1000;0.4078;-1.4885;
860.4000;0.4103;-1.4736;
860.7000;0.4062;-1.4835;
861.0000;0.4111;-1.4686;
861.3000;0.4062;-1.4711;
861.6000;0.4062;-1.4711;
861.9000;0.4078;-1.4686;
862.2000;0.4094;-1.4611;
862.5000;0.4094;-1.4611;
862.8000;0.4094;-1.4586;
863.1000;0.4078;-1.4661;
863.4000;0.4103;-1.4686;
863.7000;0.4103;-1.4711;
864.0000;0.4086;-1.4785;
864.3000;0.4078;-1.4860;
864.6000;0.4103;-1.4761;
864.9000;0.4046;-1.4860;
865.2000;0.4094;-1.4810;
865.5000;0.4086;-1.4785;
865.8000;0.4094;-1.4736;
866.1000;0.4086;-1.4785;
866.4000;0.4078;-1.4785;
866.7000;0.4094;-1.4736;
867.0000;0.4078;-1.4736;
867.3000;0.4078;-1.4711;
867.6000;0.4086;-1.4736;
867.9000;0.4078;-1.4711;
868.2000;0.4078;-1.4661;
868.5000;0.4078;-1.4636;
868.8000;0.4086;-1.4736;
869.1000;0.4086;-1.4636;
869.4000;0.4078;-1.4611;
869.7000;0.4078;-1.4686;
870.0000;0.4070;-1.4686;
870.3000;0.4070;-1.4686;
870.6000;0.4094;-1.4561;
870.9000;0.4086;-1.4586;
871.2000;0.4103;-1.4736;
871.5000;0.4070;-1.4935;
871.8000;0.4062;-1.4960;
872.1000;0.4094;-1.4910;
872.4000;0.4111;-1.4835;
872.7000;0.4086;-1.4860;
873.0000;0.4078;-1.4835;
873.3000;0.4103;-1.4736;
873.6000;0.4046;-1.4835;
873.9000;0.4078;-1.4586;
874.2000;0.4070;-1.4611;
874.5000;0.4094;-1.4636;
874.8000;0.4094;-1.4686;
875.1000;0.4078;-1.4761;
875.4000;0.4111;-1.4586;
875.7000;0.4127;-1.4586;
876.0000;0.4111;-1.4586;
876.3000;0.4078;-1.4611;
876.6000;0.4054;-1.4611;
876.9000;0.4086;-1.4636;
877.2000;0.4062;-1.4636;
877.5000;0.4086;-1.4661;
877.8000;0.4037;-1.4860;
878.1000;0.4029;-1.4885;
878.4000;0.4078;-1.4785;
878.7000;0.4078;-1.4810;
879.0000;0.4143;-1.4586;
879.3000;0.4046;-1.4835;
879.6000;0.4078;-1.4711;
879.9000;0.4037;-1.4860;
880.2000;0.4078;-1.4835;
880.5000;0.4070;-1.4761;
880.8000;0.4086;-1.4711;
881.1000;0.4070;-1.4661;
881.4000;0.4062;-1.4661;
881.7000;0.4078;-1.4611;
882.0000;0.4078;-1.4511;
882.3000;0.4111;-1.4511;
882.6000;0.4046;-1.4711;
882.9000;0.4070;-1.4736;
883.2000;0.4070;-1.4810;
883.5000;0.4070;-1.4810;
883.8000;0.4062;-1.4810;
884.1000;0.4103;-1.4736;
884.4000;0.4029;-1.4860;
884.7000;0.4094;-1.4736;
885.0000;0.4078;-1.4761;
885.3000;0.4054;-1.4785;
885.6000;0.4070;-1.4785;
885.9000;0.4070;-1.4810;
886.2000;0.4078;-1.4761;
886.5000;0.4070;-1.4736;
886.8000;0.4078;-1.4686;
887.1000;0.4062;-1.4736;
887.4000;0.4094;-1.4761;
887.7000;0.4062;-1.4935;
888.0000;0.4062;-1.4960;
888.3000;0.4078;-1.4860;
888.6000;0.4013;-1.4960;
888.9000;0.4094;-1.4761;
889.2000;0.4070;-1.4885;
889.5000;0.4029;-1.4935;
889.8000;0.4062;-1.4910;
890.1000;0.4054;-1.4860;
890.4000;0.4054;-1.4935;
890.7000;0.4062;-1.4985;
891.0000;0.4062;-1.5060;
891.3000;0.4070;-1.5010;
891.6000;0.4062;-1.4985;
891.9000;0.4054;-1.5035;
892.2000;0.4062;-1.5085;
892.5000;0.4046;-1.5209;
892.8000;0.4054;-1.5209;
893.1000;0.4078;-1.5209;
893.4000;0.4062;-1.5184;
893.7000;0.4086;-1.5184;
894.0000;0.4046;-1.5159;
894.3000;0.4070;-1.5060;
894.6000;0.4062;-1.5135;
894.9000;0.4062;-1.5159;
895.2000;0.4086;-1.5159;
895.5000;0.4070;-1.5184;
895.8000;0.4070;-1.5085;
896.1000;0.4078;-1.5085;
896.4000;0.4086;-1.5035;
896.7000;0.4062;-1.5035;
897.0000;0.4037;-1.5010;
897.3000;0.4037;-1.4960;
897.6000;0.4054;-1.4910;
897.9000;0.4070;-1.4910;
898.2000;0.4070;-1.4910;
898.5000;0.4062;-1.4935;
898.8000;0.4070;-1.4810;
899.1000;0.4062;-1.4810;
899.4000;0.4054;-1.4761;
899.7000;0.4054;-1.4686;
900.0000;0.4054;-1.4711;
900.3000;0.4029;-1.4835;
900.6000;0.4062;-1.4835;
900.9000;0.4005;-1.4985;
901.2000;0.4054;-1.4761;
901.5000;0.4062;-1.4785;
901.8000;0.4062;-1.4835;
902.1000;0.4054;-1.4885;
902.4000;0.4046;-1.4935;
902.7000;0.4046;-1.4935;
903.0000;0.4070;-1.4860;
903.3000;0.4070;-1.4860;
903.6000;0.4062;-1.4885;
903.9000;0.4062;-1.4885;
904.2000;0.4070;-1.4785;
904.5000;0.4013;-1.4860;
904.8000;0.4046;-1.4860;
905.1000;0.4013;-1.5060;
905.4000;0.4078;-1.4885;
905.7000;0.4078;-1.4835;
906.0000;0.3964;-1.5060;
906.3000;0.4062;-1.4885;
906.6000;0.4062;-1.4885;
906.9000;0.4054;-1.4860;
907.2000;0.4143;-1.4586;
907.5000;0.4037;-1.4736;
907.8000;0.4046;-1.4736;
908.1000;0.4070;-1.4686;
908.4000;0.4062;-1.4711;
908.7000;0.4054;-1.4736;
909.0000;0.4062;-1.4686;
909.3000;0.4054;-1.4736;
909.6000;0.4062;-1.4761;
909.9000;0.4070;-1.4736;
910.2000;0.4054;-1.4785;
910.5000;0.4103;-1.4686;
910.8000;0.4062;-1.4810;
911.1000;0.4054;-1.4835;
911.4000;0.4062;-1.4785;
911.7000;0.4054;-1.4785;
912.0000;0.4037;-1.4711;
912.3000;0.4046;-1.4761;
912.6000;0.4046;-1.4785;
912.9000;0.4054;-1.4835;
913.2000;0.4078;-1.4785;
913.5000;0.4127;-1.4636;
913.8000;0.4046;-1.4910;
914.1000;0.4070;-1.4835;
914.4000;0.4078;-1.4736;
914.7000;0.4054;-1.4860;
915.0000;0.4054;-1.4860;
915.3000;0.4062;-1.4785;
915.6000;0.4070;-1.4761;
915.9000;0.4103;-1.4736;
916.2000;0.4054;-1.4835;
916.5000;0.4046;-1.4810;
916.8000;0.4054;-1.4785;
917.1000;0.4054;-1.4785;
917.4000;0.3980;-1.4985;
917.7000;0.3948;-1.5060;
918.0000;0.4054;-1.4736;
918.3000;0.4037;-1.4810;
918.6000;0.4078;-1.4686;
918.9000;0.4070;-1.4785;
919.2000;0.4037;-1.4835;
919.5000;0.4062;-1.4736;
919.8000;0.4070;-1.4711;
920.1000;0.4054;-1.4736;
920.4000;0.4062;-1.4736;
920.7000;0.4054;-1.4736;
921.0000;0.4062;-1.4761;
921.3000;0.4021;-1.4860;
921.6000;0.4078;-1.4761;
921.9000;0.4046;-1.4910;
922.2000;0.4054;-1.4860;
922.5000;0.4062;-1.4860;
922.8000;0.4013;-1.4935;
923.1000;0.4021;-1.4910;
923.4000;0.4046;-1.4835;
923.7000;0.4046;-1.4885;
924.0000;0.4013;-1.4985;
924.3000;0.4062;-1.4985;
924.6000;0.4046;-1.4985;
924.9000;0.4046;-1.4910;
925.2000;0.4021;-1.4960;
925.5000;0.4062;-1.4935;
925.8000;0.4046;-1.4985;
926.1000;0.4046;-1.4960;
926.4000;0.4046;-1.4860;
926.7000;0.4135;-1.4561;
927.0000;0.3989;-1.4835;
927.3000;0.4037;-1.4686;
927.6000;0.4037;-1.4686;
927.9000;0.4005;-1.4711;
928.2000;0.4111;-1.4436;
928.5000;0.4054;-1.4611;
928.8000;0.4054;-1.4785;
929.1000;0.4094;-1.4736;
929.4000;0.4046;-1.4910;
929.7000;0.4135;-1.4636;
930.0000;0.4005;-1.4960;
930.3000;0.4046;-1.4736;
930.6000;0.4111;-1.4536;
930.9000;0.4021;-1.4736;
931.2000;0.4054;-1.4686;
931.5000;0.4119;-1.4436;
931.8000;0.4037;-1.4636;
932.1000;0.4070;-1.4486;
932.4000;0.4037;-1.4511;
932.7000;0.4037;-1.4586;
933.0000;0.4013;-1.4661;
933.3000;0.4037;-1.4636;
933.6000;0.4054;-1.4661;
933.9000;0.4054;-1.4636;
934.2000;0.4046;-1.4686;
934.5000;0.4103;-1.4561;
934.8000;0.4062;-1.4661;
935.1000;0.4062;-1.4686;
935.4000;0.4037;-1.4686;
935.7000;0.4037;-1.4686;
936.0000;0.4127;-1.4436;
936.3000;0.4054;-1.4661;
936.6000;0.4037;-1.4736;
936.9000;0.4021;-1.4810;
937.2000;0.4037;-1.4686;
937.5000;0.4029;-1.4636;
937.8000;0.4078;-1.4636;
938.1000;0.4013;-1.4785;
938.4000;0.3989;-1.4785;
938.7000;0.4046;-1.4686;
939.0000;0.4029;-1.4761;
939.3000;0.4029;-1.4810;
939.6000;0.4103;-1.4611;
939.9000;0.4029;-1.4736;
940.2000;0.4037;-1.4661;
940.5000;0.4046;-1.4711;
940.8000;0.4013;-1.4785;
941.1000;0.4029;-1.4686;
941.4000;0.3989;-1.4835;
941.7000;0.4037;-1.4736;
942.0000;0.4029;-1.4810;
942.3000;0.4029;-1.4860;
942.6000;0.4037;-1.4810;
942.9000;0.4037;-1.4835;
943.2000;0.4037;-1.4810;
943.5000;0.3899;-1.5159;
943.8000;0.4046;-1.4761;
944.1000;0.4037;-1.4686;
944.4000;0.4021;-1.4736;
944.7000;0.4062;-1.4686;
945.0000;0.4029;-1.4736;
945.3000;0.4046;-1.4736;
945.6000;0.4021;-1.4686;
945.9000;0.4046;-1.4611;
946.2000;0.4070;-1.4686;
946.5000;0.4054;-1.4761;
946.8000;0.4054;-1.4761;
947.1000;0.4046;-1.4761;
947.4000;0.4046;-1.4736;
947.7000;0.4037;-1.4711;
948.0000;0.4062;-1.4561;
948.3000;0.4013;-1.4636;
948.6000;0.4046;-1.4611;
948.9000;0.4062;-1.4636;
949.2000;0.4046;-1.4686;
949.5000;0.4078;-1.4586;
949.8000;0.4037;-1.4661;
950.1000;0.4054;-1.4661;
950.4000;0.4046;-1.4561;
950.7000;0.3964;-1.4810;
951.0000;0.4054;-1.4661;
951.3000;0.4054;-1.4711;
951.6000;0.4062;-1.4686;
951.9000;0.4029;-1.4761;
952.2000;0.4046;-1.4761;
952.5000;0.4046;-1.4761;
952.8000;0.4029;-1.4835;
953.1000;0.4054;-1.4661;
953.4000;0.4021;-1.4761;
953.7000;0.4037;-1.4860;
954.0000;0.4037;-1.4810;
954.3000;0.4046;-1.4661;
954.6000;0.4062;-1.4661;
954.9000;0.4005;-1.4711;
955.2000;0.4046;-1.4561;
955.5000;0.4029;-1.4561;
955.8000;0.4062;-1.4486;
956.1000;0.4037;-1.4536;
956.4000;0.4029;-1.4611;
956.7000;0.4046;-1.4686;
957.0000;0.4054;-1.4686;
957.3000;0.4029;-1.4686;
957.6000;0.4029;-1.4636;
957.9000;0.3964;-1.4885;
958.2000;0.4037;-1.4785;
958.5000;0.4021;-1.4835;
958.8000;0.4021;-1.4785;
959.1000;0.4029;-1.4761;
959.4000;0.4037;-1.4810;
959.7000;0.4013;-1.4885;
960.0000;0.4054;-1.4810;
960.3000;0.4037;-1.4885;
960.6000;0.4005;-1.4960;
960.9000;0.4037;-1.4910;
961.2000;0.4037;-1.5010;
961.5000;0.4054;-1.4885;
961.8000;0.4021;-1.4835;
962.1000;0.4046;-1.4785;
962.4000;0.4029;-1.4835;
962.7000;0.4062;-1.4785;
963.0000;0.4054;-1.4736;
963.3000;0.4054;-1.4761;
963.6000;0.4013;-1.4910;
963.9000;0.4037;-1.4910;
964.2000;0.4046;-1.4860;
964.5000;0.4046;-1.4960;
964.8000;0.4021;-1.4935;
965.1000;0.4021;-1.4860;
965.4000;0.4037;-1.4736;
965.7000;0.4005;-1.4686;
966.0000;0.4021;-1.4611;
966.3000;0.4037;-1.4611;
966.6000;0.4062;-1.4561;
966.9000;0.4021;-1.4686;
967.2000;0.3972;-1.4860;
967.5000;0.4013;-1.4711;
967.8000;0.4094;-1.4436;
968.1000;0.4029;-1.4636;
968.4000;0.4029;-1.4736;
968.7000;0.4029;-1.4761;
969.0000;0.4013;-1.4785;
969.3000;0.4029;-1.4736;
969.6000;0.4037;-1.4761;
969.9000;0.3980;-1.4810;
970.2000;0.4037;-1.4611;
970.5000;0.3948;-1.4835;
970.8000;0.4037;-1.4561;
971.1000;0.4037;-1.4511;
971.4000;0.4021;-1.4486;
971.7000;0.4151;-1.4287;
972.0000;0.4070;-1.4511;
972.3000;0.4013;-1.4611;
972.6000;0.4013;-1.4586;
972.9000;0.4029;-1.4511;
973.2000;0.3940;-1.4736;
973.5000;0.3989;-1.4736;
973.8000;0.4037;-1.4586;
974.1000;0.4021;-1.4611;
974.4000;0.4021;-1.4586;
974.7000;0.4029;-1.4611;
975.0000;0.4013;-1.4686;
975.3000;0.4021;-1.4711;
975.6000;0.4078;-1.4661;
975.9000;0.4005;-1.4885;
976.2000;0.4013;-1.4885;
976.5000;0.4029;-1.4860;
976.8000;0.4037;-1.4835;
977.1000;0.4046;-1.4711;
977.4000;0.4111;-1.4461;
977.7000;0.4037;-1.4561;
978.0000;0.4046;-1.4586;
978.3000;0.4046;-1.4561;
978.6000;0.4054;-1.4536;
978.9000;0.3989;-1.4761;
979.2000;0.4029;-1.4761;
979.5000;0.4021;-1.4711;
979.8000;0.3948;-1.4985;
980.1000;0.3948;-1.5060;
980.4000;0.4021;-1.4910;
980.7000;0.4054;-1.4860;
981.0000;0.4046;-1.4910;
981.3000;0.4029;-1.4960;
981.6000;0.4029;-1.4935;
981.9000;0.4046;-1.4935;
982.2000;0.4037;-1.4885;
982.5000;0.4037;-1.4960;
982.8000;0.4021;-1.4960;
983.1000;0.4029;-1.4885;
983.4000;0.4021;-1.4935;
983.7000;0.4005;-1.4960;
984.0000;0.4021;-1.4860;
984.3000;0.4013;-1.4785;
984.6000;0.4046;-1.4711;
984.9000;0.4013;-1.4736;
985.2000;0.4021;-1.4686;
985.5000;0.4013;-1.4711;
985.8000;0.4029;-1.4736;
986.1000;0.4021;-1.4736;
986.4000;0.3932;-1.4960;
986.7000;0.4021;-1.4711;
987.0000;0.4037;-1.4661;
987.3000;0.4078;-1.4611;
987.6000;0.4005;-1.4761;
987.9000;0.4021;-1.4736;
988.2000;0.4046;-1.4586;
988.5000;0.4021;-1.4611;
988.8000;0.4013;-1.4611;
989.1000;0.4029;-1.4511;
989.4000;0.4127;-1.4337;
989.7000;0.4037;-1.4511;
990.0000;0.4013;-1.4611;
990.3000;0.3980;-1.4661;
990.6000;0.4021;-1.4711;
990.9000;0.4054;-1.4636;
991.2000;0.4013;-1.4761;
991.5000;0.4005;-1.4761;
991.8000;0.4029;-1.4736;
992.1000;0.4013;-1.4736;
992.4000;0.4046;-1.4711;
992.7000;0.4013;-1.4785;
993.0000;0.4046;-1.4686;
993.3000;0.4013;-1.4711;
993.6000;0.4037;-1.4611;
993.9000;0.4021;-1.4611;
994.2000;0.4046;-1.4561;
994.5000;0.4013;-1.4661;
994.8000;0.4021;-1.4661;
995.1000;0.4037;-1.4711;
995.4000;0.4029;-1.4661;
995.7000;0.4021;-1.4661;
996.0000;0.4029;-1.4636;
996.3000;0.4005;-1.4636;
996.6000;0.3997;-1.4661;
996.9000;0.4005;-1.4686;
997.2000;0.4070;-1.4561;
997.5000;0.3989;-1.4810;
997.8000;0.4021;-1.4761;
998.1000;0.3948;-1.4910;
998.4000;0.4013;-1.4636;
998.7000;0.4029;-1.4661;
999.0000;0.4021;-1.4761;
999.3000;0.4013;-1.4761;
999.6000;0.4005;-1.4711;
999.9000;0.4029;-1.4736;
1000.2000;0.4029;-1.4686;
1000.5000;0.4005;-1.4661;
1000.8000;0.4021;-1.4661;
1001.1000;0.4021;-1.4686;
1001.4000;0.3997;-1.4860;
1001.7000;0.4029;-1.4761;
1002.0000;0.4005;-1.4835;
1002.3000;0.4037;-1.4736;
1002.6000;0.4029;-1.4711;
1002.9000;0.4021;-1.4661;
1003.2000;0.4029;-1.4736;
1003.5000;0.4021;-1.4736;
1003.8000;0.4021;-1.4761;
1004.1000;0.3940;-1.4910;
1004.4000;0.4021;-1.4736;
1004.7000;0.4029;-1.4711;
1005.0000;0.4029;-1.4686;
1005.3000;0.4029;-1.4711;
1005.6000;0.4021;-1.4736;
1005.9000;0.4021;-1.4810;
1006.2000;0.4021;-1.4810;
1006.5000;0.4029;-1.4761;
1006.8000;0.4029;-1.4860;
1007.1000;0.4021;-1.4935;
1007.4000;0.4029;-1.4910;
1007.7000;0.4021;-1.4910;
1008.0000;0.4013;-1.4885;
1008.3000;0.4046;-1.4761;
1008.6000;0.4029;-1.4761;
1008.9000;0.4029;-1.4661;
1009.2000;0.3956;-1.4860;
1009.5000;0.4005;-1.4736;
1009.8000;0.4013;-1.4785;
1010.1000;0.4013;-1.4686;
1010.4000;0.3972;-1.4785;
1010.7000;0.4013;-1.4611;
1011.0000;0.4013;-1.4561;
1011.3000;0.4094;-1.4387;
1011.6000;0.4021;-1.4586;
1011.9000;0.3980;-1.4736;
1012.2000;0.3932;-1.4860;
1012.5000;0.4029;-1.4611;
1012.8000;0.4037;-1.4561;
1013.1000;0.4037;-1.4636;
1013.4000;0.4046;-1.4611;
1013.7000;0.4013;-1.4736;
1014.0000;0.4005;-1.4711;
1014.3000;0.4029;-1.4661;
1014.6000;0.4021;-1.4636;
1014.9000;0.4021;-1.4586;
1015.2000;0.4021;-1.4586;
1015.5000;0.4037;-1.4561;
1015.8000;0.3997;-1.4785;
1016.1000;0.4021;-1.4561;
1016.4000;0.4029;-1.4586;
1016.7000;0.4013;-1.4586;
1017.0000;0.4127;-1.4287;
1017.3000;0.4005;-1.4561;
1017.6000;0.4029;-1.4536;
1017.9000;0.4029;-1.4536;
1018.2000;0.4021;-1.4611;
1018.5000;0.4005;-1.4611;
1018.8000;0.3932;-1.4885;
1019.1000;0.4005;-1.4636;
1019.4000;0.3989;-1.4636;
1019.7000;0.4046;-1.4486;
1020.0000;0.3980;-1.4636;
1020.3000;0.4021;-1.4636;
1020.6000;0.4037;-1.4561;
1020.9000;0.4005;-1.4636;
1021.2000;0.4005;-1.4661;
1021.5000;0.4005;-1.4785;
1021.8000;0.4029;-1.4711;
1022.1000;0.4029;-1.4661;
1022.4000;0.4005;-1.4686;
1022.7000;0.3997;-1.4611;
1023.0000;0.3989;-1.4611;
1023.3000;0.4029;-1.4561;
1023.6000;0.4013;-1.4711;
1023.9000;0.4021;-1.4686;
1024.2000;0.4013;-1.4686;
1024.5000;0.4005;-1.4785;
1024.8000;0.4005;-1.4810;
1025.1000;0.4005;-1.4761;
1025.4000;0.4021;-1.4636;
1025.7000;0.3980;-1.4711;
1026.0000;0.3997;-1.4736;
1026.3000;0.3997;-1.4686;
1026.6000;0.4029;-1.4636;
1026.9000;0.4103;-1.4411;
1027.2000;0.4005;-1.4661;
1027.5000;0.4037;-1.4586;
1027.8000;0.4021;-1.4736;
1028.1000;0.4037;-1.4661;
1028.4000;0.3997;-1.4711;
1028.7000;0.4013;-1.4661;
1029.0000;0.3997;-1.4686;
1029.3000;0.4021;-1.4661;
1029.6000;0.4013;-1.4636;
1029.9000;0.4021;-1.4686;
1030.2000;0.3989;-1.4711;
1030.5000;0.3989;-1.4586;
1030.8000;0.4005;-1.4486;
1031.1000;0.4005;-1.4486;
1031.4000;0.3997;-1.4586;
1031.7000;0.3980;-1.4736;
1032.0000;0.4013;-1.4661;
1032.3000;0.4013;-1.4611;
1032.6000;0.3997;-1.4611;
1032.9000;0.4013;-1.4636;
1033.2000;0.4029;-1.4611;
1033.5000;0.4013;-1.4586;
1033.8000;0.4013;-1.4461;
1034.1000;0.3997;-1.4486;
1034.4000;0.4021;-1.4411;
1034.7000;0.4021;-1.4436;
1035.0000;0.4021;-1.4436;
1035.3000;0.3932;-1.4661;
1035.6000;0.4021;-1.4536;
1035.9000;0.4013;-1.4536;
1036.2000;0.3997;-1.4536;
1036.5000;0.4013;-1.4461;
1036.8000;0.4046;-1.4287;
1037.1000;0.4021;-1.4486;
1037.4000;0.4013;-1.4561;
1037.7000;0.3997;-1.4586;
1038.0000;0.4021;-1.4611;
1038.3000;0.4021;-1.4636;
1038.6000;0.3997;-1.4761;
1038.9000;0.4005;-1.4686;
1039.2000;0.4005;-1.4686;
1039.5000;0.4029;-1.4736;
1039.8000;0.4021;-1.4711;
1040.1000;0.4021;-1.4785;
1040.4000;0.4021;-1.4835;
1040.7000;0.4046;-1.4761;
1041.0000;0.4029;-1.4761;
1041.3000;0.3997;-1.4785;
1041.6000;0.3989;-1.4810;
1041.9000;0.3989;-1.4810;
1042.2000;0.4013;-1.4736;
1042.5000;0.4029;-1.4536;
1042.8000;0.3997;-1.4586;
1043.1000;0.4062;-1.4362;
1043.4000;0.4029;-1.4536;
1043.7000;0.4029;-1.4436;
1044.0000;0.4037;-1.4312;
1044.3000;0.4029;-1.4436;
1044.6000;0.3956;-1.4711;
1044.9000;0.4037;-1.4511;
1045.2000;0.3997;-1.4636;
1045.5000;0.4054;-1.4436;
1045.8000;0.3948;-1.4686;
1046.1000;0.4062;-1.4312;
1046.4000;0.3956;-1.4636;
1046.7000;0.3980;-1.4586;
1047.0000;0.3948;-1.4711;
1047.3000;0.4021;-1.4536;
1047.6000;0.4029;-1.4586;
1047.9000;0.4005;-1.4611;
1048.2000;0.4013;-1.4586;
1048.5000;0.4054;-1.4411;
1048.8000;0.4013;-1.4486;
1049.1000;0.4062;-1.4387;
1049.4000;0.4013;-1.4486;
1049.7000;0.4005;-1.4461;
1050.0000;0.4037;-1.4387;
1050.3000;0.4013;-1.4486;
1050.6000;0.3989;-1.4561;
1050.9000;0.4013;-1.4636;
1051.2000;0.4021;-1.4586;
1051.5000;0.4005;-1.4611;
1051.8000;0.4021;-1.4636;
1052.1000;0.4005;-1.4586;
1052.4000;0.4119;-1.4287;
1052.7000;0.4005;-1.4636;
1053.0000;0.4005;-1.4736;
1053.3000;0.3989;-1.4810;
1053.6000;0.4054;-1.4611;
1053.9000;0.4021;-1.4686;
1054.2000;0.4021;-1.4636;
1054.5000;0.3980;-1.4686;
1054.8000;0.3956;-1.4736;
1055.1000;0.4005;-1.4561;
1055.4000;0.3997;-1.4586;
1055.7000;0.4005;-1.4586;
1056.0000;0.4013;-1.4611;
1056.3000;0.4013;-1.4536;
1056.6000;0.3980;-1.4561;
1056.9000;0.4103;-1.4312;
1057.2000;0.3964;-1.4586;
1057.5000;0.3997;-1.4511;
1057.8000;0.4029;-1.4486;
1058.1000;0.3980;-1.4511;
1058.4000;0.4086;-1.4287;
1058.7000;0.4029;-1.4511;
1059.0000;0.4029;-1.4511;
1059.3000;0.4005;-1.4586;
1059.6000;0.4005;-1.4586;
1059.9000;0.4013;-1.4486;
1060.2000;0.4054;-1.4387;
1060.5000;0.4005;-1.4436;
1060.8000;0.4013;-1.4536;
1061.1000;0.3997;-1.4561;
1061.4000;0.4013;-1.4536;
1061.7000;0.4037;-1.4461;
1062.0000;0.3997;-1.4611;
1062.3000;0.4013;-1.4536;
1062.6000;0.4111;-1.4287;
1062.9000;0.4029;-1.4461;
1063.2000;0.4021;-1.4461;
1063.5000;0.3948;-1.4636;
1063.8000;0.4037;-1.4312;
1064.1000;0.4013;-1.4262;
1064.4000;0.3980;-1.4312;
1064.7000;0.4021;-1.4287;
1065.0000;0.4013;-1.4287;
1065.3000;0.4005;-1.4461;
1065.6000;0.3899;-1.4686;
1065.9000;0.3997;-1.4411;
1066.2000;0.4013;-1.4436;
1066.5000;0.4021;-1.4486;
1066.8000;0.4013;-1.4436;
1067.1000;0.4029;-1.4411;
1067.4000;0.4013;-1.4486;
1067.7000;0.3989;-1.4636;
1068.0000;0.4021;-1.4636;
1068.3000;0.4029;-1.4611;
1068.6000;0.4005;-1.4636;
1068.9000;0.4005;-1.4611;
1069.2000;0.4005;-1.4561;
1069.5000;0.3948;-1.4761;
1069.8000;0.4013;-1.4561;
1070.1000;0.3940;-1.4860;
1070.4000;0.3989;-1.4686;
1070.7000;0.3997;-1.4536;
1071.0000;0.4013;-1.4486;
1071.3000;0.3997;-1.4536;
1071.6000;0.3997;-1.4461;
1071.9000;0.3964;-1.4486;
1072.2000;0.4013;-1.4387;
1072.5000;0.4037;-1.4287;
1072.8000;0.3989;-1.4387;
1073.1000;0.3972;-1.4486;
1073.4000;0.3989;-1.4461;
1073.7000;0.3997;-1.4461;
1074.0000;0.4021;-1.4411;
1074.3000;0.4005;-1.4511;
1074.6000;0.4013;-1.4561;
1074.9000;0.4029;-1.4486;
1075.2000;0.4013;-1.4561;
1075.5000;0.4013;-1.4636;
1075.8000;0.4005;-1.4561;
1076.1000;0.4005;-1.4536;
1076.4000;0.4021;-1.4536;
1076.7000;0.4037;-1.4586;
1077.0000;0.4013;-1.4611;
1077.3000;0.4005;-1.4561;
1077.6000;0.3997;-1.4536;
1077.9000;0.3997;-1.4586;
1078.2000;0.3980;-1.4661;
1078.5000;0.3997;-1.4711;
1078.8000;0.4046;-1.4686;
1079.1000;0.4029;-1.4711;
1079.4000;0.4037;-1.4611;
1079.7000;0.4005;-1.4686;
1080.0000;0.4013;-1.4586;
1080.3000;0.4013;-1.4611;
1080.6000;0.4013;-1.4586;
1080.9000;0.4005;-1.4686;
1081.2000;0.4005;-1.4761;
1081.5000;0.4005;-1.4711;
1081.8000;0.3989;-1.4711;
1082.1000;0.3997;-1.4686;
1082.4000;0.3989;-1.4661;
1082.7000;0.4021;-1.4536;
1083.0000;0.4013;-1.4536;
1083.3000;0.4013;-1.4486;
1083.6000;0.4005;-1.4511;
1083.9000;0.3997;-1.4461;
1084.2000;0.4070;-1.4287;
1084.5000;0.4021;-1.4486;
1084.8000;0.4021;-1.4461;
1085.1000;0.3964;-1.4561;
1085.4000;0.4029;-1.4436;
1085.7000;0.4037;-1.4387;
1086.0000;0.3997;-1.4436;
1086.3000;0.3956;-1.4561;
1086.6000;0.3948;-1.4611;
1086.9000;0.4037;-1.4362;
1087.2000;0.4005;-1.4461;
1087.5000;0.3989;-1.4536;
1087.8000;0.4005;-1.4511;
1088.1000;0.3980;-1.4536;
1088.4000;0.3972;-1.4636;
1088.7000;0.3891;-1.4885;
1089.0000;0.4078;-1.4337;
1089.3000;0.4094;-1.4362;
1089.6000;0.3997;-1.4736;
1089.9000;0.3997;-1.4711;
1090.2000;0.3997;-1.4686;
1090.5000;0.4021;-1.4536;
1090.8000;0.4005;-1.4536;
1091.1000;0.3980;-1.4586;
1091.4000;0.3997;-1.4536;
1091.7000;0.3932;-1.4711;
1092.0000;0.4029;-1.4411;
1092.3000;0.3932;-1.4561;
1092.6000;0.4013;-1.4387;
1092.9000;0.4013;-1.4237;
1093.2000;0.4005;-1.4187;
1093.5000;0.3997;-1.4287;
1093.8000;0.3980;-1.4411;
1094.1000;0.3989;-1.4362;
1094.4000;0.4005;-1.4387;
1094.7000;0.4021;-1.4362;
1095.0000;0.4013;-1.4411;
1095.3000;0.3997;-1.4486;
1095.6000;0.4005;-1.4461;
1095.9000;0.3989;-1.4586;
1096.2000;0.3980;-1.4586;
1096.5000;0.4005;-1.4536;
1096.8000;0.4013;-1.4486;
1097.1000;0.3989;-1.4561;
1097.4000;0.4013;-1.4536;
1097.7000;0.4021;-1.4536;
1098.0000;0.3989;-1.4686;
1098.3000;0.3997;-1.4661;
1098.6000;0.3972;-1.4736;
1098.9000;0.3980;-1.4711;
1099.2000;0.3989;-1.4661;
1099.5000;0.3997;-1.4586;
1099.8000;0.3989;-1.4611;
1100.1000;0.3972;-1.4611;
1100.4000;0.3980;-1.4661;
1100.7000;0.4005;-1.4561;
1101.0000;0.3972;-1.4636;
1101.3000;0.4005;-1.4511;
1101.6000;0.4013;-1.4461;
1101.9000;0.4029;-1.4411;
1102.2000;0.3997;-1.4486;
1102.5000;0.3972;-1.4511;
1102.8000;0.4005;-1.4536;
1103.1000;0.3997;-1.4586;
1103.4000;0.3989;-1.4611;
1103.7000;0.3989;-1.4536;
1104.0000;0.3997;-1.4561;
1104.3000;0.3980;-1.4661;
1104.6000;0.3997;-1.4661;
1104.9000;0.4013;-1.4686;
1105.2000;0.4005;-1.4686;
1105.5000;0.3989;-1.4686;
1105.8000;0.4013;-1.4661;
1106.1000;0.3989;-1.4686;
1106.4000;0.4005;-1.4611;
1106.7000;0.4013;-1.4586;
1107.0000;0.4029;-1.4461;
1107.3000;0.4029;-1.4461;
1107.6000;0.3980;-1.4511;
1107.9000;0.3989;-1.4486;
1108.2000;0.3980;-1.4486;
1108.5000;0.3997;-1.4511;
1108.8000;0.4005;-1.4486;
1109.1000;0.4005;-1.4536;
1109.4000;0.3997;-1.4636;
1109.7000;0.3989;-1.4611;
1110.0000;0.3980;-1.4661;
1110.3000;0.4005;-1.4586;
1110.6000;0.4029;-1.4611;
1110.9000;0.4005;-1.4661;
1111.2000;0.3989;-1.4661;
1111.5000;0.4013;-1.4561;
1111.8000;0.4005;-1.4561;
1112.1000;0.4013;-1.4511;
1112.4000;0.4005;-1.4486;
1112.7000;0.4054;-1.4387;
1113.0000;0.3964;-1.4561;
1113.3000;0.4005;-1.4411;
1113.6000;0.3989;-1.4362;
1113.9000;0.3997;-1.4362;
1114.2000;0.3980;-1.4486;
1114.5000;0.3989;-1.4511;
1114.8000;0.4005;-1.4511;
1115.1000;0.3997;-1.4536;
1115.4000;0.3980;-1.4661;
1115.7000;0.3997;-1.4661;
1116.0000;0.4037;-1.4536;
1116.3000;0.3997;-1.4611;
1116.6000;0.4005;-1.4611;
1116.9000;0.3997;-1.4586;
1117.2000;0.4013;-1.4561;
1117.5000;0.4013;-1.4586;
1117.8000;0.4029;-1.4461;
1118.1000;0.3956;-1.4686;
1118.4000;0.3997;-1.4561;
1118.7000;0.3989;-1.4586;
1119.0000;0.4005;-1.4561;
1119.3000;0.3980;-1.4561;
1119.6000;0.3980;-1.4561;
1119.9000;0.3932;-1.4761;
1120.2000;0.3997;-1.4586;
1120.5000;0.3989;-1.4586;
1120.8000;0.4013;-1.4586;
1121.1000;0.4013;-1.4511;
1121.4000;0.4005;-1.4486;
1121.7000;0.3989;-1.4561;
1122.0000;0.3972;-1.4611;
1122.3000;0.3997;-1.4511;
1122.6000;0.3997;-1.4511;
1122.9000;0.3997;-1.4536;
1123.2000;0.3956;-1.4611;
1123.5000;0.3989;-1.4586;
1123.8000;0.4005;-1.4511;
1124.1000;0.3980;-1.4486;
1124.4000;0.4037;-1.4387;
1124.7000;0.4013;-1.4436;
1125.0000;0.3997;-1.4611;
1125.3000;0.3972;-1.4661;
1125.6000;0.3989;-1.4586;
1125.9000;0.3997;-1.4561;
1126.2000;0.3964;-1.4636;
1126.5000;0.4054;-1.4362;
1126.8000;0.4005;-1.4611;
1127.1000;0.3997;-1.4561;
1127.4000;0.3989;-1.4536;
1127.7000;0.4013;-1.4611;
1128.0000;0.3980;-1.4686;
1128.3000;0.3972;-1.4711;
1128.6000;0.3997;-1.4636;
1128.9000;0.3997;-1.4636;
1129.2000;0.4005;-1.4611;
1129.5000;0.3923;-1.4785;
1129.8000;0.3972;-1.4711;
1130.1000;0.3997;-1.4661;
1130.4000;0.4005;-1.4711;
1130.7000;0.3997;-1.4661;
1131.0000;0.3997;-1.4561;
1131.3000;0.4005;-1.4611;
1131.6000;0.4013;-1.4561;
1131.9000;0.4021;-1.4511;
1132.2000;0.4029;-1.4461;
1132.5000;0.4021;-1.4486;
1132.8000;0.3972;-1.4561;
1133.1000;0.3997;-1.4486;
1133.4000;0.3980;-1.4586;
1133.7000;0.3989;-1.4536;
1134.0000;0.4013;-1.4536;
1134.3000;0.4013;-1.4486;
1134.6000;0.3989;-1.4536;
1134.9000;0.3997;-1.4511;
1135.2000;0.3940;-1.4586;
1135.5000;0.3989;-1.4461;
1135.8000;0.4005;-1.4486;
1136.1000;0.4054;-1.4411;
1136.4000;0.4005;-1.4536;
1136.7000;0.4013;-1.4486;
1137.0000;0.4005;-1.4561;
1137.3000;0.3989;-1.4586;
1137.6000;0.3997;-1.4536;
1137.9000;0.4005;-1.4561;
1138.2000;0.3997;-1.4511;
1138.5000;0.3989;-1.4511;
1138.8000;0.3997;-1.4536;
1139.1000;0.4005;-1.4611;
1139.4000;0.3997;-1.4586;
1139.7000;0.3980;-1.4611;
1140.0000;0.3972;-1.4561;
1140.3000;0.3997;-1.4486;
1140.6000;0.3997;-1.4536;
1140.9000;0.4037;-1.4436;
1141.2000;0.3989;-1.4536;
1141.5000;0.3989;-1.4536;
1141.8000;0.3997;-1.4536;
1142.1000;0.3997;-1.4611;
1142.4000;0.3997;-1.4611;
1142.7000;0.3989;-1.4586;
1143.0000;0.3891;-1.4835;
1143.3000;0.4005;-1.4536;
1143.6000;0.3989;-1.4486;
1143.9000;0.4046;-1.4411;
1144.2000;0.4013;-1.4511;
1144.5000;0.4021;-1.4511;
1144.8000;0.3997;-1.4536;
1145.1000;0.3972;-1.4586;
1145.4000;0.3972;-1.4561;
1145.7000;0.4013;-1.4461;
1146.0000;0.4005;-1.4461;
1146.3000;0.4005;-1.4486;
1146.6000;0.3972;-1.4661;
1146.9000;0.3989;-1.4561;
1147.2000;0.3997;-1.4511;
1147.5000;0.3989;-1.4511;
1147.8000;0.4013;-1.4461;
1148.1000;0.3989;-1.4436;
1148.4000;0.3989;-1.4586;
1148.7000;0.3980;-1.4661;
1149.0000;0.4021;-1.4661;
1149.3000;0.3997;-1.4810;
1149.6000;0.4021;-1.4736;
1149.9000;0.3980;-1.4761;
1150.2000;0.3989;-1.4636;
1150.5000;0.4013;-1.4611;
1150.8000;0.4013;-1.4586;
1151.1000;0.4021;-1.4661;
1151.4000;0.4005;-1.4686;
1151.7000;0.4029;-1.4586;
1152.0000;0.3997;-1.4611;
1152.3000;0.4005;-1.4636;
1152.6000;0.4005;-1.4636;
1152.9000;0.3989;-1.4785;
1153.2000;0.4005;-1.4636;
1153.5000;0.3997;-1.4636;
1153.8000;0.4037;-1.4511;
1154.1000;0.4005;-1.4611;
1154.4000;0.3997;-1.4611;
1154.7000;0.4005;-1.4536;
1155.0000;0.3997;-1.4586;
1155.3000;0.3980;-1.4536;
1155.6000;0.3997;-1.4536;
1155.9000;0.4013;-1.4511;
1156.2000;0.4005;-1.4511;
1156.5000;0.4021;-1.4536;
1156.8000;0.3940;-1.4785;
1157.1000;0.4013;-1.4636;
1157.4000;0.4029;-1.4586;
1157.7000;0.4013;-1.4561;
1158.0000;0.4046;-1.4511;
1158.3000;0.4005;-1.4536;
1158.6000;0.4037;-1.4461;
1158.9000;0.3997;-1.4636;
1159.2000;0.4013;-1.4561;
1159.5000;0.4046;-1.4461;
1159.8000;0.3972;-1.4586;
1160.1000;0.3997;-1.4486;
1160.4000;0.3989;-1.4636;
1160.7000;0.4021;-1.4611;
1161.0000;0.4062;-1.4486;
1161.3000;0.3997;-1.4711;
1161.6000;0.4013;-1.4711;
1161.9000;0.4005;-1.4636;
1162.2000;0.4005;-1.4611;
1162.5000;0.4021;-1.4586;
1162.8000;0.3997;-1.4561;
1163.1000;0.3948;-1.4711;
1163.4000;0.3997;-1.4611;
1163.7000;0.3980;-1.4611;
1164.0000;0.4005;-1.4461;
1164.3000;0.3980;-1.4536;
1164.6000;0.3980;-1.4536;
1164.9000;0.4005;-1.4511;
1165.2000;0.3989;-1.4536;
1165.5000;0.3980;-1.4611;
1165.8000;0.3989;-1.4636;
1166.1000;0.3997;-1.4611;
1166.4000;0.3989;-1.4661;
1166.7000;0.3980;-1.4661;
1167.0000;0.3980;-1.4661;
1167.3000;0.3980;-1.4636;
1167.6000;0.4005;-1.4586;
1167.9000;0.4005;-1.4636;
1168.2000;0.3980;-1.4561;
1168.5000;0.3980;-1.4561;
1168.8000;0.3997;-1.4611;
1169.1000;0.3989;-1.4686;
1169.4000;0.3997;-1.4686;
1169.7000;0.3997;-1.4611;
1170.0000;0.3989;-1.4511;
1170.3000;0.3972;-1.4636;
1170.6000;0.3972;-1.4586;
1170.9000;0.4029;-1.4461;
1171.2000;0.4013;-1.4461;
1171.5000;0.3956;-1.4561;
1171.8000;0.4005;-1.4511;
1172.1000;0.4013;-1.4536;
1172.4000;0.3989;-1.4561;
1172.7000;0.3989;-1.4586;
1173.0000;0.3989;-1.4611;
1173.3000;0.3980;-1.4711;
1173.6000;0.4021;-1.4586;
1173.9000;0.4013;-1.4536;
1174.2000;0.4005;-1.4561;
1174.5000;0.4005;-1.4611;
1174.8000;0.4094;-1.4312;
1175.1000;0.3989;-1.4636;
1175.4000;0.4037;-1.4661;
1175.7000;0.3972;-1.4785;
1176.0000;0.3997;-1.4785;
1176.3000;0.4013;-1.4736;
1176.6000;0.3997;-1.4686;
1176.9000;0.3980;-1.4686;
1177.2000;0.3980;-1.4661;
1177.5000;0.3972;-1.4686;
1177.8000;0.3964;-1.4661;
1178.1000;0.3997;-1.4636;
1178.4000;0.3989;-1.4611;
1178.7000;0.4054;-1.4411;
1179.0000;0.4029;-1.4486;
1179.3000;0.4021;-1.4536;
1179.6000;0.4037;-1.4561;
1179.9000;0.3997;-1.4686;
1180.2000;0.3964;-1.4785;
1180.5000;0.4037;-1.4686;
1180.8000;0.3997;-1.4785;
1181.1000;0.3956;-1.4785;
1181.4000;0.3997;-1.4661;
1181.7000;0.4046;-1.4511;
1182.0000;0.4013;-1.4686;
1182.3000;0.4037;-1.4561;
1182.6000;0.3997;-1.4536;
1182.9000;0.3989;-1.4636;
1183.2000;0.4046;-1.4536;
1183.5000;0.3997;-1.4661;
1183.8000;0.3989;-1.4711;
1184.1000;0.3989;-1.4736;
1184.4000;0.4013;-1.4661;
1184.7000;0.3972;-1.4636;
1185.0000;0.3964;-1.4636;
1185.3000;0.4013;-1.4536;
1185.6000;0.4070;-1.4411;
1185.9000;0.3964;-1.4686;
1186.2000;0.3997;-1.4736;
1186.5000;0.3997;-1.4686;
1186.8000;0.3997;-1.4736;
1187.1000;0.4005;-1.4736;
1187.4000;0.4021;-1.4711;
1187.7000;0.3997;-1.4761;
1188.0000;0.3997;-1.4711;
1188.3000;0.4005;-1.4686;
1188.6000;0.3972;-1.4686;
1188.9000;0.3997;-1.4636;
1189.2000;0.4021;-1.4611;
1189.5000;0.4005;-1.4636;
1189.8000;0.4013;-1.4611;
1190.1000;0.4054;-1.4536;
1190.4000;0.4013;-1.4636;
1190.7000;0.3980;-1.4711;
1191.0000;0.3997;-1.4761;
1191.3000;0.3989;-1.4711;
1191.6000;0.4013;-1.4661;
1191.9000;0.4005;-1.4686;
1192.2000;0.3997;-1.4736;
1192.5000;0.3997;-1.4711;
1192.8000;0.4021;-1.4586;
1193.1000;0.4029;-1.4536;
1193.4000;0.3980;-1.4636;
1193.7000;0.3989;-1.4636;
1194.0000;0.4005;-1.4611;
1194.3000;0.3964;-1.4810;
1194.6000;0.4021;-1.4686;
1194.9000;0.3997;-1.4785;
1195.2000;0.3997;-1.4636;
1195.5000;0.3980;-1.4636;
1195.8000;0.3980;-1.4661;
1196.1000;0.4005;-1.4561;
1196.4000;0.3989;-1.4586;
1196.7000;0.3997;-1.4561;
1197.0000;0.3997;-1.4636;
1197.3000;0.3964;-1.4711;
1197.6000;0.3997;-1.4636;
1197.9000;0.4029;-1.4636;
1198.2000;0.4046;-1.4661;
1198.5000;0.3972;-1.4785;
1198.8000;0.3997;-1.4661;
1199.1000;0.3997;-1.4736;
1199.4000;0.3989;-1.4860;
1199.7000;0.3997;-1.4885;
1200.0000;0.3989;-1.4885;
1200.3000;0.3997;-1.4910;
1200.6000;0.3964;-1.4960;
1200.9000;0.4005;-1.4835;
1201.2000;0.3997;-1.4860;
1201.5000;0.3997;-1.4860;
1201.8000;0.4013;-1.4835;
1202.1000;0.4005;-1.4835;
1202.4000;0.3989;-1.4785;
1202.7000;0.3997;-1.4711;
1203.0000;0.4005;-1.4785;
1203.3000;0.4013;-1.4736;
1203.6000;0.3989;-1.4785;
1203.9000;0.3964;-1.4860;
1204.2000;0.3997;-1.4835;
1204.5000;0.3997;-1.4810;
1204.8000;0.3972;-1.4835;
1205.1000;0.4046;-1.4661;
1205.4000;0.3989;-1.4736;
1205.7000;0.3989;-1.4736;
1206.0000;0.3989;-1.4761;
1206.3000;0.3997;-1.4711;
1206.6000;0.3997;-1.4711;
1206.9000;0.3989;-1.4785;
1207.2000;0.4029;-1.4761;
1207.5000;0.3989;-1.4960;
1207.8000;0.3989;-1.4985;
1208.1000;0.4029;-1.4885;
1208.4000;0.3940;-1.5085;
1208.7000;0.4013;-1.4910;
1209.0000;0.4005;-1.4935;
1209.3000;0.4005;-1.4960;
1209.6000;0.4021;-1.4885;
1209.9000;0.4005;-1.4910;
1210.2000;0.3997;-1.4810;
1210.5000;0.4005;-1.4761;
1210.8000;0.4005;-1.4810;
1211.1000;0.3997;-1.4835;
1211.4000;0.3989;-1.4885;
1211.7000;0.4021;-1.4810;
1212.0000;0.4046;-1.4711;
1212.3000;0.3997;-1.4860;
1212.6000;0.3997;-1.4835;
1212.9000;0.4005;-1.4860;
1213.2000;0.4021;-1.4835;
1213.5000;0.4021;-1.4860;
1213.8000;0.3997;-1.4860;
1214.1000;0.3980;-1.4960;
1214.4000;0.4013;-1.4885;
1214.7000;0.4013;-1.4810;
1215.0000;0.4005;-1.4810;
1215.3000;0.4021;-1.4835;
1215.6000;0.4013;-1.4910;
1215.9000;0.3997;-1.4910;
1216.2000;0.4037;-1.4810;
1216.5000;0.3997;-1.4885;
1216.8000;0.3940;-1.4960;
1217.1000;0.4005;-1.4860;
1217.4000;0.4005;-1.4785;
1217.7000;0.3940;-1.4985;
1218.0000;0.3997;-1.4810;
1218.3000;0.4013;-1.4860;
1218.6000;0.4029;-1.4835;
1218.9000;0.3989;-1.4960;
1219.2000;0.3964;-1.5035;
1219.5000;0.3989;-1.4910;
1219.8000;0.3997;-1.4935;
1220.1000;0.3997;-1.5010;
1220.4000;0.3989;-1.5010;
1220.7000;0.3989;-1.4960;
1221.0000;0.4021;-1.4935;
1221.3000;0.3989;-1.4960;
1221.6000;0.4005;-1.4935;
1221.9000;0.3997;-1.4910;
1222.2000;0.4005;-1.4885;
1222.5000;0.4029;-1.4835;
1222.8000;0.4021;-1.4785;
1223.1000;0.4013;-1.4810;
1223.4000;0.4086;-1.4586;
1223.7000;0.3997;-1.4785;
1224.0000;0.3989;-1.4860;
1224.3000;0.4005;-1.4860;
1224.6000;0.4005;-1.4810;
1224.9000;0.4021;-1.4761;
1225.2000;0.4029;-1.4711;
1225.5000;0.4013;-1.4761;
1225.8000;0.4094;-1.4561;
1226.1000;0.3997;-1.4761;
1226.4000;0.4013;-1.4736;
1226.7000;0.3964;-1.4810;
1227.0000;0.3899;-1.4960;
1227.3000;0.4005;-1.4661;
1227.6000;0.4005;-1.4561;
1227.9000;0.3997;-1.4536;
1228.2000;0.4005;-1.4611;
1228.5000;0.3972;-1.4611;
1228.8000;0.3989;-1.4561;
1229.1000;0.3980;-1.4561;
1229.4000;0.4013;-1.4461;
1229.7000;0.3997;-1.4511;
1230.0000;0.4005;-1.4486;
1230.3000;0.4021;-1.4436;
1230.6000;0.3997;-1.4461;
1230.9000;0.4005;-1.4461;
1231.2000;0.3980;-1.4461;
1231.5000;0.4013;-1.4411;
1231.8000;0.4013;-1.4486;
1232.1000;0.4013;-1.4511;
1232.4000;0.3997;-1.4486;
1232.7000;0.3997;-1.4486;
1233.0000;0.3989;-1.4561;
1233.3000;0.4005;-1.4511;
1233.6000;0.3980;-1.4536;
1233.9000;0.3989;-1.4636;
1234.2000;0.4013;-1.4636;
1234.5000;0.4005;-1.4661;
1234.8000;0.3997;-1.4686;
1235.1000;0.4021;-1.4561;
1235.4000;0.3997;-1.4586;
1235.7000;0.4005;-1.4686;
1236.0000;0.4078;-1.4461;
1236.3000;0.4013;-1.4561;
1236.6000;0.4013;-1.4561;
1236.9000;0.3972;-1.4761;
1237.2000;0.3980;-1.4636;
1237.5000;0.4013;-1.4561;
1237.8000;0.4005;-1.4536;
1238.1000;0.3997;-1.4636;
1238.4000;0.3997;-1.4711;
1238.7000;0.3956;-1.4810;
1239.0000;0.4005;-1.4711;
1239.3000;0.4070;-1.4586;
1239.6000;0.3989;-1.4761;
1239.9000;0.3989;-1.4810;
1240.2000;0.4013;-1.4860;
1240.5000;0.4013;-1.4835;
1240.8000;0.3989;-1.4860;
1241.1000;0.4021;-1.4785;
1241.4000;0.4005;-1.4785;
1241.7000;0.3972;-1.4810;
1242.0000;0.3989;-1.4686;
1242.3000;0.3948;-1.4736;
1242.6000;0.3997;-1.4536;
1242.9000;0.3956;-1.4686;
1243.2000;0.3980;-1.4611;
1243.5000;0.3964;-1.4686;
1243.8000;0.4021;-1.4511;
1244.1000;0.4037;-1.4486;
1244.4000;0.3997;-1.4711;
1244.7000;0.3997;-1.4736;
1245.0000;0.3980;-1.4910;
1245.3000;0.4078;-1.4711;
1245.6000;0.4013;-1.4960;
1245.9000;0.4013;-1.4885;
1246.2000;0.3989;-1.4885;
1246.5000;0.4013;-1.4960;
1246.8000;0.3997;-1.4910;
1247.1000;0.3989;-1.4985;
1247.4000;0.4046;-1.4810;
1247.7000;0.3997;-1.4935;
1248.0000;0.3997;-1.4910;
1248.3000;0.3997;-1.4860;
1248.6000;0.3989;-1.4835;
1248.9000;0.4037;-1.4686;
1249.2000;0.3997;-1.4860;
1249.5000;0.4005;-1.4785;
1249.8000;0.4005;-1.4860;
1250.1000;0.3980;-1.4935;
1250.4000;0.4070;-1.4736;
1250.7000;0.3997;-1.4910;
1251.0000;0.4005;-1.4910;
1251.3000;0.3989;-1.4885;
1251.6000;0.4005;-1.4810;
1251.9000;0.4013;-1.4785;
1252.2000;0.4013;-1.4761;
1252.5000;0.3989;-1.4686;
1252.8000;0.3997;-1.4686;
1253.1000;0.3972;-1.4661;
1253.4000;0.3980;-1.4661;
1253.7000;0.3989;-1.4636;
1254.0000;0.3989;-1.4586;
1254.3000;0.3997;-1.4611;
1254.6000;0.3989;-1.4611;
1254.9000;0.3989;-1.4686;
1255.2000;0.3989;-1.4611;
1255.5000;0.4013;-1.4536;
1255.8000;0.4013;-1.4561;
1256.1000;0.3964;-1.4686;
1256.4000;0.3997;-1.4711;
1256.7000;0.4021;-1.4761;
1257.0000;0.4005;-1.4711;
1257.3000;0.3997;-1.4785;
1257.6000;0.3997;-1.4761;
1257.9000;0.4013;-1.4636;
1258.2000;0.4013;-1.4611;
1258.5000;0.4054;-1.4461;
1258.8000;0.3989;-1.4686;
1259.1000;0.4021;-1.4436;
1259.4000;0.4005;-1.4486;
1259.7000;0.4005;-1.4411;
1260.0000;0.4013;-1.4362;
1260.3000;0.3964;-1.4511;
1260.6000;0.3997;-1.4486;
1260.9000;0.4021;-1.4511;
1261.2000;0.3980;-1.4636;
1261.5000;0.3948;-1.4810;
1261.8000;0.3997;-1.4736;
1262.1000;0.4013;-1.4661;
1262.4000;0.4005;-1.4711;
1262.7000;0.3989;-1.4736;
1263.0000;0.4013;-1.4561;
1263.3000;0.3989;-1.4561;
1263.6000;0.4005;-1.4511;
1263.9000;0.3997;-1.4536;
1264.2000;0.4021;-1.4561;
1264.5000;0.4013;-1.4661;
1264.8000;0.4013;-1.4661;
1265.1000;0.4029;-1.4636;
1265.4000;0.3948;-1.4785;
1265.7000;0.4013;-1.4686;
1266.0000;0.3997;-1.4810;
1266.3000;0.3997;-1.4910;
1266.6000;0.3997;-1.4810;
1266.9000;0.4021;-1.4835;
1267.2000;0.4013;-1.4835;
1267.5000;0.4005;-1.4860;
1267.8000;0.3989;-1.4885;
1268.1000;0.3980;-1.4885;
1268.4000;0.4013;-1.4885;
1268.7000;0.3980;-1.4910;
1269.0000;0.4013;-1.4810;
1269.3000;0.3997;-1.4860;
1269.6000;0.4005;-1.4761;
1269.9000;0.3989;-1.4761;
1270.2000;0.3997;-1.4761;
1270.5000;0.3989;-1.4711;
1270.8000;0.4021;-1.4661;
1271.1000;0.4005;-1.4686;
1271.4000;0.3989;-1.4636;
1271.7000;0.4037;-1.4362;
1272.0000;0.4005;-1.4387;
1272.3000;0.4021;-1.4337;
1272.6000;0.4005;-1.4411;
1272.9000;0.4013;-1.4262;
1273.2000;0.3972;-1.4312;
1273.5000;0.3997;-1.4337;
1273.8000;0.3989;-1.4362;
1274.1000;0.4037;-1.4387;
1274.4000;0.3997;-1.4486;
1274.7000;0.4013;-1.4387;
1275.0000;0.3997;-1.4387;
1275.3000;0.4021;-1.4337;
1275.6000;0.4013;-1.4411;
1275.9000;0.4013;-1.4436;
1276.2000;0.3989;-1.4436;
1276.5000;0.3980;-1.4411;
1276.8000;0.4005;-1.4312;
1277.1000;0.3980;-1.4262;
1277.4000;0.3972;-1.4312;
1277.7000;0.4021;-1.4287;
1278.0000;0.3997;-1.4511;
1278.3000;0.3972;-1.4461;
1278.6000;0.3997;-1.4461;
1278.9000;0.4013;-1.4561;
1279.2000;0.4013;-1.4586;
1279.5000;0.4005;-1.4561;
1279.8000;0.4005;-1.4611;
1280.1000;0.4005;-1.4586;
1280.4000;0.4062;-1.4436;
1280.7000;0.4013;-1.4561;
1281.0000;0.3907;-1.4785;
1281.3000;0.4013;-1.4536;
1281.6000;0.4021;-1.4511;
1281.9000;0.3997;-1.4536;
1282.2000;0.3980;-1.4636;
1282.5000;0.3997;-1.4661;
1282.8000;0.3997;-1.4711;
1283.1000;0.3989;-1.4785;
1283.4000;0.3997;-1.4611;
1283.7000;0.4021;-1.4611;
1284.0000;0.4005;-1.4711;
1284.3000;0.4013;-1.4711;
1284.6000;0.4005;-1.4785;
1284.9000;0.4021;-1.4810;
1285.2000;0.4005;-1.4910;
1285.5000;0.4013;-1.4910;
1285.8000;0.4013;-1.4835;
1286.1000;0.4029;-1.4761;
1286.4000;0.4005;-1.4810;
1286.7000;0.3989;-1.4810;
1287.0000;0.4005;-1.4711;
1287.3000;0.4013;-1.4661;
1287.6000;0.3997;-1.4661;
1287.9000;0.3997;-1.4711;
1288.2000;0.4013;-1.4785;
1288.5000;0.4005;-1.4835;
1288.8000;0.3997;-1.4910;
1289.1000;0.4021;-1.4785;
1289.4000;0.4021;-1.4736;
1289.7000;0.3997;-1.4810;
1290.0000;0.4029;-1.4736;
1290.3000;0.3980;-1.4835;
1290.6000;0.4013;-1.4761;
1290.9000;0.3997;-1.4736;
1291.2000;0.4029;-1.4761;
1291.5000;0.3956;-1.4810;
1291.8000;0.3915;-1.4910;
1292.1000;0.3980;-1.4711;
1292.4000;0.4037;-1.4561;
1292.7000;0.3989;-1.4686;
1293.0000;0.3964;-1.4761;
1293.3000;0.3997;-1.4711;
1293.6000;0.3997;-1.4636;
1293.9000;0.4029;-1.4586;
1294.2000;0.3964;-1.4686;
1294.5000;0.3989;-1.4661;
1294.8000;0.4005;-1.4661;
1295.1000;0.3997;-1.4736;
1295.4000;0.4005;-1.4661;
1295.7000;0.3980;-1.4586;
1296.0000;0.3989;-1.4536;
1296.3000;0.3989;-1.4586;
1296.6000;0.3997;-1.4661;
1296.9000;0.3915;-1.4960;
1297.2000;0.3997;-1.4686;
1297.5000;0.4029;-1.4636;
1297.8000;0.4086;-1.4511;
1298.1000;0.4037;-1.4686;
1298.4000;0.3980;-1.4810;
1298.7000;0.4005;-1.4686;
1299.0000;0.4005;-1.4761;
1299.3000;0.3989;-1.4785;
1299.6000;0.3989;-1.4860;
1299.9000;0.3997;-1.4736;
1300.2000;0.3997;-1.4661;
1300.5000;0.4070;-1.4486;
1300.8000;0.3989;-1.4736;
1301.1000;0.3997;-1.4561;
1301.4000;0.3997;-1.4536;
1301.7000;0.4029;-1.4536;
1302.0000;0.3997;-1.4686;
1302.3000;0.3980;-1.4711;
1302.6000;0.3964;-1.4736;
1302.9000;0.4094;-1.4337;
1303.2000;0.3997;-1.4711;
1303.5000;0.3989;-1.4785;
1303.8000;0.4005;-1.4810;
1304.1000;0.3980;-1.4935;
1304.4000;0.4013;-1.4835;
1304.7000;0.3989;-1.4860;
1305.0000;0.4013;-1.4785;
1305.3000;0.4005;-1.4761;
1305.6000;0.3972;-1.4785;
1305.9000;0.3997;-1.4761;
1306.2000;0.4005;-1.4761;
1306.5000;0.3989;-1.4761;
1306.8000;0.4013;-1.4736;
1307.1000;0.3989;-1.4736;
1307.4000;0.3980;-1.4686;
1307.7000;0.3989;-1.4661;
1308.0000;0.4005;-1.4561;
1308.3000;0.4029;-1.4561;
1308.6000;0.3989;-1.4661;
1308.9000;0.4005;-1.4586;
1309.2000;0.3989;-1.4711;
1309.5000;0.4029;-1.4661;
1309.8000;0.3972;-1.4711;
1310.1000;0.3980;-1.4611;
1310.4000;0.4013;-1.4611;
1310.7000;0.4029;-1.4561;
1311.0000;0.3989;-1.4711;
1311.3000;0.4005;-1.4736;
1311.6000;0.3989;-1.4761;
1311.9000;0.3989;-1.4661;
1312.2000;0.4037;-1.4536;
1312.5000;0.3972;-1.4686;
1312.8000;0.3997;-1.4636;
1313.1000;0.3997;-1.4636;
1313.4000;0.3989;-1.4711;
1313.7000;0.4005;-1.4711;
1314.0000;0.3980;-1.4761;
1314.3000;0.4005;-1.4761;
1314.6000;0.3972;-1.4686;
1314.9000;0.4005;-1.4661;
1315.2000;0.3989;-1.4611;
1315.5000;0.4013;-1.4536;
1315.8000;0.3997;-1.4586;
1316.1000;0.4013;-1.4561;
1316.4000;0.4005;-1.4636;
1316.7000;0.4021;-1.4561;
1317.0000;0.4005;-1.4611;
1317.3000;0.3997;-1.4636;
1317.6000;0.4013;-1.4611;
1317.9000;0.4029;-1.4536;
1318.2000;0.4021;-1.4486;
1318.5000;0.4029;-1.4586;
1318.8000;0.4021;-1.4511;
1319.1000;0.4021;-1.4461;
1319.4000;0.4013;-1.4411;
1319.7000;0.4013;-1.4511;
1320.0000;0.4005;-1.4561;
1320.3000;0.3989;-1.4611;
1320.6000;0.4021;-1.4461;
1320.9000;0.4005;-1.4511;
1321.2000;0.3940;-1.4686;
1321.5000;0.4013;-1.4561;
1321.8000;0.4021;-1.4561;
1322.1000;0.4013;-1.4511;
1322.4000;0.3997;-1.4486;
1322.7000;0.4021;-1.4436;
1323.0000;0.4029;-1.4536;
1323.3000;0.4005;-1.4611;
1323.6000;0.3964;-1.4761;
1323.9000;0.3972;-1.4736;
1324.2000;0.3989;-1.4736;
1324.5000;0.3997;-1.4586;
1324.8000;0.3964;-1.4661;
1325.1000;0.3980;-1.4611;
1325.4000;0.3989;-1.4561;
1325.7000;0.4013;-1.4561;
1326.0000;0.4005;-1.4611;
1326.3000;0.4013;-1.4686;
1326.6000;0.4005;-1.4636;
1326.9000;0.3980;-1.4686;
1327.2000;0.3989;-1.4636;
1327.5000;0.4005;-1.4611;
1327.8000;0.4005;-1.4611;
1328.1000;0.4013;-1.4561;
1328.4000;0.4029;-1.4586;
1328.7000;0.4005;-1.4586;
1329.0000;0.3997;-1.4486;
1329.3000;0.4013;-1.4536;
1329.6000;0.3989;-1.4636;
1329.9000;0.3980;-1.4661;
1330.2000;0.4005;-1.4611;
1330.5000;0.4005;-1.4636;
1330.8000;0.3997;-1.4586;
1331.1000;0.3989;-1.4536;
1331.4000;0.3997;-1.4411;
1331.7000;0.3964;-1.4511;
1332.0000;0.3997;-1.4436;
1332.3000;0.3997;-1.4486;
1332.6000;0.3989;-1.4586;
1332.9000;0.4021;-1.4486;
1333.2000;0.3972;-1.4661;
1333.5000;0.4005;-1.4561;
1333.8000;0.4005;-1.4511;
1334.1000;0.3997;-1.4486;
1334.4000;0.3980;-1.4486;
1334.7000;0.4005;-1.4436;
1335.0000;0.4013;-1.4387;
1335.3000;0.3980;-1.4461;
1335.6000;0.3997;-1.4536;
1335.9000;0.3980;-1.4661;
1336.2000;0.4021;-1.4611;
1336.5000;0.4013;-1.4686;
1336.8000;0.4005;-1.4686;
1337.1000;0.4021;-1.4736;
1337.4000;0.4021;-1.4711;
1337.7000;0.4005;-1.4611;
1338.0000;0.4005;-1.4536;
1338.3000;0.4013;-1.4436;
1338.6000;0.4037;-1.4387;
1338.9000;0.4021;-1.4411;
1339.2000;0.3980;-1.4636;
1339.5000;0.4021;-1.4636;
1339.8000;0.4005;-1.4636;
1340.1000;0.4005;-1.4611;
1340.4000;0.3989;-1.4636;
1340.7000;0.3989;-1.4636;
1341.0000;0.3997;-1.4611;
1341.3000;0.4021;-1.4611;
1341.6000;0.4013;-1.4636;
1341.9000;0.4005;-1.4636;
1342.2000;0.4037;-1.4511;
1342.5000;0.4029;-1.4511;
1342.8000;0.3989;-1.4636;
1343.1000;0.4013;-1.4586;
1343.4000;0.4037;-1.4511;
1343.7000;0.4021;-1.4511;
1344.0000;0.3980;-1.4586;
1344.3000;0.4013;-1.4561;
1344.6000;0.4013;-1.4611;
1344.9000;0.4021;-1.4611;
1345.2000;0.4013;-1.4636;
1345.5000;0.3989;-1.4661;
1345.8000;0.3989;-1.4661;
1346.1000;0.3964;-1.4711;
1346.4000;0.4013;-1.4586;
1346.7000;0.4005;-1.4661;
1347.0000;0.3980;-1.4661;
1347.3000;0.3997;-1.4611;
1347.6000;0.4021;-1.4511;
1347.9000;0.4005;-1.4586;
1348.2000;0.4013;-1.4536;
1348.5000;0.3997;-1.4561;
1348.8000;0.3989;-1.4561;
1349.1000;0.3980;-1.4636;
1349.4000;0.3989;-1.4686;
1349.7000;0.4046;-1.4611;
1350.0000;0.3964;-1.4935;
1350.3000;0.4013;-1.4761;
1350.6000;0.3989;-1.4885;
1350.9000;0.3997;-1.4810;
1351.2000;0.4029;-1.4711;
1351.5000;0.4005;-1.4810;
1351.8000;0.4029;-1.4711;
1352.1000;0.3972;-1.4935;
1352.4000;0.4021;-1.4810;
1352.7000;0.4021;-1.4711;
1353.0000;0.4013;-1.4860;
1353.3000;0.4013;-1.4860;
1353.6000;0.4021;-1.4835;
1353.9000;0.4013;-1.4711;
1354.2000;0.4021;-1.4586;
1354.5000;0.4005;-1.4561;
1354.8000;0.3989;-1.4686;
1355.1000;0.4029;-1.4586;
1355.4000;0.3997;-1.4586;
1355.7000;0.4021;-1.4611;
1356.0000;0.4029;-1.4586;
1356.3000;0.4013;-1.4611;
1356.6000;0.4054;-1.4611;
1356.9000;0.4005;-1.4761;
1357.2000;0.3997;-1.4835;
1357.5000;0.3997;-1.4761;
1357.8000;0.4005;-1.4785;
1358.1000;0.4005;-1.4785;
1358.4000;0.3989;-1.4910;
1358.7000;0.3940;-1.4935;
1359.0000;0.4005;-1.4636;
1359.3000;0.4013;-1.4711;
1359.6000;0.4005;-1.4835;
1359.9000;0.4013;-1.4835;
1360.2000;0.4021;-1.4835;
1360.5000;0.4021;-1.4860;
1360.8000;0.3997;-1.4835;
1361.1000;0.3989;-1.4810;
1361.4000;0.4005;-1.4761;
1361.7000;0.4013;-1.4785;
1362.0000;0.4013;-1.4761;
1362.3000;0.4013;-1.4810;
1362.6000;0.4005;-1.4785;
1362.9000;0.4013;-1.4885;
1363.2000;0.4021;-1.4935;
1363.5000;0.4013;-1.4935;
1363.8000;0.4029;-1.4810;
1364.1000;0.4029;-1.4686;
1364.4000;0.4021;-1.4686;
1364.7000;0.4029;-1.4586;
1365.0000;0.3948;-1.4810;
1365.3000;0.4029;-1.4611;
1365.6000;0.4013;-1.4711;
1365.9000;0.3989;-1.4785;
1366.2000;0.4005;-1.4736;
1366.5000;0.4029;-1.4686;
1366.8000;0.4005;-1.4661;
1367.1000;0.4013;-1.4611;
1367.4000;0.4013;-1.4586;
1367.7000;0.4013;-1.4561;
1368.0000;0.4013;-1.4586;
1368.3000;0.3997;-1.4661;
1368.6000;0.3997;-1.4736;
1368.9000;0.4005;-1.4736;
1369.2000;0.4005;-1.4686;
1369.5000;0.3997;-1.4686;
1369.8000;0.4005;-1.4711;
1370.1000;0.4013;-1.4686;
1370.4000;0.4005;-1.4686;
1370.7000;0.4005;-1.4686;
1371.0000;0.4029;-1.4636;
1371.3000;0.4005;-1.4835;
1371.6000;0.3989;-1.4860;
1371.9000;0.4013;-1.4810;
1372.2000;0.3989;-1.4835;
1372.5000;0.3997;-1.4810;
1372.8000;0.3997;-1.4835;
1373.1000;0.4054;-1.4686;
1373.4000;0.4005;-1.4761;
1373.7000;0.3989;-1.4761;
1374.0000;0.3972;-1.4785;
1374.3000;0.3997;-1.4711;
1374.6000;0.3997;-1.4711;
1374.9000;0.3997;-1.4711;
1375.2000;0.4046;-1.4611;
1375.5000;0.4021;-1.4711;
1375.8000;0.4037;-1.4661;
1376.1000;0.3997;-1.4661;
1376.4000;0.3997;-1.4686;
1376.7000;0.4013;-1.4686;
1377.0000;0.4005;-1.4711;
1377.3000;0.4046;-1.4586;
1377.6000;0.3997;-1.4661;
1377.9000;0.4013;-1.4686;
1378.2000;0.4029;-1.4686;
1378.5000;0.4029;-1.4711;
1378.8000;0.3997;-1.4711;
1379.1000;0.3997;-1.4785;
1379.4000;0.3964;-1.4885;
1379.7000;0.4021;-1.4910;
1380.0000;0.4005;-1.5010;
1380.3000;0.4005;-1.4960;
1380.6000;0.4005;-1.4835;
1380.9000;0.3940;-1.4985;
1381.2000;0.3989;-1.4860;
1381.5000;0.3940;-1.4935;
1381.8000;0.4021;-1.4736;
1382.1000;0.3989;-1.4736;
1382.4000;0.3989;-1.4761;
1382.7000;0.4054;-1.4636;
1383.0000;0.3997;-1.4785;
1383.3000;0.4054;-1.4661;
1383.6000;0.3932;-1.4935;
1383.9000;0.3989;-1.4736;
1384.2000;0.4021;-1.4661;
1384.5000;0.4013;-1.4611;
1384.8000;0.4046;-1.4486;
1385.1000;0.4013;-1.4486;
1385.4000;0.4029;-1.4486;
1385.7000;0.4029;-1.4411;
1386.0000;0.4013;-1.4511;
1386.3000;0.4005;-1.4536;
1386.6000;0.3989;-1.4586;
1386.9000;0.4021;-1.4486;
1387.2000;0.4029;-1.4486;
1387.5000;0.4029;-1.4511;
1387.8000;0.4029;-1.4611;
1388.1000;0.4029;-1.4636;
1388.4000;0.4029;-1.4661;
1388.7000;0.4021;-1.4785;
1389.0000;0.4029;-1.4835;
1389.3000;0.4021;-1.4885;
1389.6000;0.3997;-1.4935;
1389.9000;0.4094;-1.4686;
1390.2000;0.3940;-1.5060;
1390.5000;0.3997;-1.4835;
1390.8000;0.4046;-1.4860;
1391.1000;0.4005;-1.4985;
1391.4000;0.4021;-1.4985;
1391.7000;0.4005;-1.4910;
1392.0000;0.3899;-1.5110;
1392.3000;0.3997;-1.4860;
1392.6000;0.4013;-1.4810;
1392.9000;0.3997;-1.4860;
1393.2000;0.4021;-1.4910;
1393.5000;0.4054;-1.4810;
1393.8000;0.4013;-1.4910;
1394.1000;0.3980;-1.4910;
1394.4000;0.4005;-1.4885;
1394.7000;0.4021;-1.4885;
1395.0000;0.4054;-1.4860;
1395.3000;0.4013;-1.4860;
1395.6000;0.3997;-1.4860;
1395.9000;0.4013;-1.4860;
1396.2000;0.4029;-1.4860;
1396.5000;0.3997;-1.4885;
1396.8000;0.3964;-1.4985;
1397.1000;0.4013;-1.4860;
1397.4000;0.3997;-1.4860;
1397.7000;0.3989;-1.4885;
1398.0000;0.4013;-1.4785;
1398.3000;0.4021;-1.4711;
1398.6000;0.4037;-1.4711;
1398.9000;0.4013;-1.4761;
1399.2000;0.4005;-1.4860;
1399.5000;0.3980;-1.4985;
1399.8000;0.4013;-1.4910;
