time/ms;Fluo/V;P700 deltaI/I x10³;
-199.8000;0.4037;-1.5159;
-199.5000;0.4021;-1.5159;
-199.2000;0.4021;-1.5184;
-198.9000;0.4054;-1.5110;
-198.6000;0.4037;-1.5159;
-198.3000;0.4029;-1.5259;
-198.0000;0.4046;-1.5284;
-197.7000;0.4037;-1.5184;
-197.4000;0.4054;-1.5035;
-197.1000;0.4021;-1.5085;
-196.8000;0.4037;-1.5110;
-196.5000;0.4046;-1.5135;
-196.2000;0.4013;-1.5159;
-195.9000;0.4046;-1.5110;
-195.6000;0.4046;-1.5085;
-195.3000;0.4062;-1.5035;
-195.0000;0.4054;-1.4985;
-194.7000;0.4037;-1.5010;
-194.4000;0.4046;-1.5010;
-194.1000;0.4037;-1.5035;
-193.8000;0.4062;-1.5110;
-193.5000;0.4046;-1.5110;
-193.2000;0.4037;-1.5159;
-192.9000;0.4054;-1.5035;
-192.6000;0.4037;-1.5010;
-192.3000;0.4086;-1.4835;
-192.0000;0.4054;-1.4860;
-191.7000;0.4005;-1.4885;
-191.4000;0.4054;-1.4810;
-191.1000;0.4086;-1.4785;
-190.8000;0.4086;-1.4885;
-190.5000;0.4046;-1.4985;
-190.2000;0.4046;-1.4935;
-189.9000;0.4054;-1.4935;
-189.6000;0.4046;-1.5035;
-189.3000;0.4054;-1.4985;
-189.0000;0.4029;-1.5060;
-188.7000;0.3972;-1.5184;
-188.4000;0.4021;-1.5159;
-188.1000;0.4029;-1.5184;
-187.8000;0.4021;-1.5209;
-187.5000;0.4054;-1.5184;
-187.2000;0.4078;-1.5085;
-186.9000;0.4046;-1.5159;
-186.6000;0.4029;-1.5110;
-186.3000;0.4021;-1.5184;
-186.0000;0.4062;-1.5010;
-185.7000;0.4054;-1.5085;
-185.4000;0.3964;-1.5309;
-185.1000;0.4029;-1.5085;
-184.8000;0.4037;-1.5085;
-184.5000;0.4054;-1.5060;
-184.2000;0.4054;-1.5085;
-183.9000;0.4037;-1.5085;
-183.6000;0.4054;-1.5010;
-183.3000;0.4029;-1.5085;
-183.0000;0.4046;-1.5010;
-182.7000;0.4037;-1.4985;
-182.4000;0.4143;-1.4711;
-182.1000;0.4037;-1.5010;
-181.8000;0.4054;-1.5035;
-181.5000;0.4086;-1.4935;
-181.2000;0.4029;-1.5110;
-180.9000;0.3997;-1.5209;
-180.6000;0.4037;-1.5060;
-180.3000;0.4037;-1.5159;
-180.0000;0.4094;-1.5010;
-179.7000;0.4037;-1.5159;
-179.4000;0.4037;-1.5135;
-179.1000;0.4062;-1.5110;
-178.8000;0.4037;-1.5184;
-178.5000;0.4054;-1.5085;
-178.2000;0.3932;-1.5334;
-177.9000;0.4037;-1.5060;
-177.6000;0.4046;-1.5060;
-177.3000;0.4005;-1.5209;
-177.0000;0.4054;-1.5085;
-176.7000;0.4054;-1.5010;
-176.4000;0.4046;-1.4960;
-176.1000;0.4046;-1.5010;
-175.8000;0.4013;-1.5010;
-175.5000;0.4054;-1.4960;
-175.2000;0.4054;-1.5035;
-174.9000;0.4054;-1.5060;
-174.6000;0.4021;-1.5159;
-174.3000;0.4062;-1.4960;
-174.0000;0.4070;-1.4935;
-173.7000;0.4054;-1.4985;
-173.4000;0.4046;-1.5010;
-173.1000;0.4046;-1.4985;
-172.8000;0.4046;-1.4985;
-172.5000;0.4029;-1.5110;
-172.2000;0.4054;-1.5060;
-171.9000;0.4013;-1.5085;
-171.6000;0.4070;-1.4960;
-171.3000;0.4037;-1.5010;
-171.0000;0.4070;-1.4810;
-170.7000;0.4037;-1.4910;
-170.4000;0.4054;-1.4935;
-170.1000;0.3956;-1.5159;
-169.8000;0.4021;-1.5060;
-169.5000;0.4037;-1.5035;
-169.2000;0.4021;-1.5035;
-168.9000;0.4094;-1.4960;
-168.6000;0.4054;-1.5035;
-168.3000;0.4021;-1.5184;
-168.0000;0.4062;-1.5085;
-167.7000;0.4062;-1.5035;
-167.4000;0.3997;-1.5284;
-167.1000;0.4054;-1.5184;
-166.8000;0.3997;-1.5284;
-166.5000;0.4046;-1.5110;
-166.2000;0.4029;-1.5110;
-165.9000;0.3964;-1.5209;
-165.6000;0.4029;-1.5085;
-165.3000;0.4037;-1.5110;
-165.0000;0.4119;-1.5060;
-164.7000;0.4037;-1.5234;
-164.4000;0.4054;-1.5159;
-164.1000;0.4037;-1.5184;
-163.8000;0.4046;-1.5184;
-163.5000;0.4046;-1.5184;
-163.2000;0.4046;-1.5234;
-162.9000;0.4070;-1.5184;
-162.6000;0.4070;-1.5184;
-162.3000;0.4054;-1.5159;
-162.0000;0.4029;-1.5259;
-161.7000;0.4046;-1.5159;
-161.4000;0.4046;-1.5060;
-161.1000;0.3997;-1.5234;
-160.8000;0.4046;-1.5209;
-160.5000;0.4046;-1.5234;
-160.2000;0.4029;-1.5234;
-159.9000;0.4103;-1.5159;
-159.6000;0.4078;-1.5184;
-159.3000;0.4037;-1.5259;
-159.0000;0.4054;-1.5184;
-158.7000;0.4029;-1.5309;
-158.4000;0.4037;-1.5234;
-158.1000;0.4046;-1.5234;
-157.8000;0.4037;-1.5234;
-157.5000;0.4037;-1.5184;
-157.2000;0.4029;-1.5209;
-156.9000;0.4070;-1.5159;
-156.6000;0.4005;-1.5309;
-156.3000;0.4013;-1.5184;
-156.0000;0.4029;-1.5184;
-155.7000;0.4029;-1.5309;
-155.4000;0.4143;-1.5035;
-155.1000;0.4054;-1.5284;
-154.8000;0.4046;-1.5309;
-154.5000;0.4046;-1.5359;
-154.2000;0.4094;-1.5234;
-153.9000;0.4046;-1.5384;
-153.6000;0.4046;-1.5384;
-153.3000;0.4021;-1.5509;
-153.0000;0.4046;-1.5459;
-152.7000;0.4054;-1.5484;
-152.4000;0.4103;-1.5484;
-152.1000;0.4046;-1.5583;
-151.8000;0.4029;-1.5633;
-151.5000;0.4070;-1.5384;
-151.2000;0.4046;-1.5384;
-150.9000;0.4070;-1.5384;
-150.6000;0.4054;-1.5384;
-150.3000;0.4062;-1.5384;
-150.0000;0.4094;-1.5259;
-149.7000;0.4046;-1.5259;
-149.4000;0.4151;-1.4935;
-149.1000;0.4013;-1.5309;
-148.8000;0.4005;-1.5284;
-148.5000;0.4046;-1.5184;
-148.2000;0.4046;-1.5184;
-147.9000;0.4029;-1.5135;
-147.6000;0.4037;-1.5035;
-147.3000;0.4086;-1.5035;
-147.0000;0.4054;-1.5110;
-146.7000;0.4062;-1.5135;
-146.4000;0.4013;-1.5284;
-146.1000;0.3989;-1.5409;
-145.8000;0.4037;-1.5334;
-145.5000;0.4037;-1.5334;
-145.2000;0.4029;-1.5334;
-144.9000;0.4054;-1.5234;
-144.6000;0.4021;-1.5234;
-144.3000;0.4086;-1.5110;
-144.0000;0.4029;-1.5184;
-143.7000;0.4037;-1.5159;
-143.4000;0.4029;-1.5110;
-143.1000;0.4029;-1.5060;
-142.8000;0.4046;-1.4985;
-142.5000;0.4037;-1.5035;
-142.2000;0.4037;-1.5110;
-141.9000;0.4054;-1.5035;
-141.6000;0.3997;-1.5259;
-141.3000;0.4070;-1.5085;
-141.0000;0.4037;-1.5060;
-140.7000;0.4046;-1.4960;
-140.4000;0.4062;-1.4910;
-140.1000;0.4046;-1.4960;
-139.8000;0.4029;-1.5110;
-139.5000;0.4037;-1.5085;
-139.2000;0.4054;-1.5110;
-138.9000;0.4037;-1.5110;
-138.6000;0.4021;-1.5135;
-138.3000;0.4021;-1.5135;
-138.0000;0.4021;-1.5110;
-137.7000;0.4062;-1.5110;
-137.4000;0.4062;-1.5060;
-137.1000;0.4070;-1.5010;
-136.8000;0.4029;-1.5085;
-136.5000;0.4046;-1.4985;
-136.2000;0.4046;-1.4985;
-135.9000;0.4046;-1.4985;
-135.6000;0.4021;-1.5035;
-135.3000;0.4021;-1.5085;
-135.0000;0.4021;-1.5110;
-134.7000;0.4029;-1.5159;
-134.4000;0.4070;-1.5135;
-134.1000;0.3989;-1.5359;
-133.8000;0.4021;-1.5309;
-133.5000;0.4037;-1.5209;
-133.2000;0.4037;-1.5159;
-132.9000;0.4046;-1.5110;
-132.6000;0.4037;-1.5234;
-132.3000;0.4054;-1.5234;
-132.0000;0.4037;-1.5309;
-131.7000;0.4029;-1.5334;
-131.4000;0.4094;-1.5184;
-131.1000;0.4046;-1.5259;
-130.8000;0.4021;-1.5334;
-130.5000;0.4037;-1.5284;
-130.2000;0.4005;-1.5359;
-129.9000;0.4046;-1.5284;
-129.6000;0.4054;-1.5284;
-129.3000;0.4037;-1.5309;
-129.0000;0.4037;-1.5284;
-128.7000;0.4046;-1.5259;
-128.4000;0.4078;-1.5234;
-128.1000;0.4062;-1.5284;
-127.8000;0.4037;-1.5259;
-127.5000;0.4037;-1.5209;
-127.2000;0.4037;-1.5184;
-126.9000;0.4029;-1.5234;
-126.6000;0.4054;-1.5209;
-126.3000;0.4070;-1.5234;
-126.0000;0.4029;-1.5384;
-125.7000;0.4062;-1.5334;
-125.4000;0.4070;-1.5309;
-125.1000;0.4062;-1.5334;
-124.8000;0.4054;-1.5409;
-124.5000;0.4094;-1.5309;
-124.2000;0.4037;-1.5434;
-123.9000;0.4070;-1.5334;
-123.6000;0.4029;-1.5359;
-123.3000;0.4037;-1.5334;
-123.0000;0.4046;-1.5234;
-122.7000;0.4029;-1.5085;
-122.4000;0.4062;-1.4985;
-122.1000;0.4013;-1.5085;
-121.8000;0.4021;-1.5035;
-121.5000;0.4029;-1.5060;
-121.2000;0.4013;-1.5060;
-120.9000;0.4062;-1.4935;
-120.6000;0.4054;-1.5010;
-120.3000;0.4029;-1.5184;
-120.0000;0.4029;-1.5234;
-119.7000;0.4037;-1.5184;
-119.4000;0.4029;-1.5159;
-119.1000;0.4029;-1.5209;
-118.8000;0.4046;-1.5110;
-118.5000;0.4029;-1.5159;
-118.2000;0.4037;-1.5110;
-117.9000;0.4054;-1.5060;
-117.6000;0.4029;-1.5035;
-117.3000;0.4037;-1.5060;
-117.0000;0.4054;-1.5060;
-116.7000;0.4037;-1.5159;
-116.4000;0.4029;-1.5184;
-116.1000;0.4062;-1.5085;
-115.8000;0.4054;-1.5060;
-115.5000;0.4046;-1.5035;
-115.2000;0.4021;-1.5209;
-114.9000;0.4037;-1.5184;
-114.6000;0.4046;-1.5110;
-114.3000;0.4062;-1.5035;
-114.0000;0.4046;-1.4960;
-113.7000;0.4029;-1.5085;
-113.4000;0.4037;-1.5135;
-113.1000;0.4037;-1.5060;
-112.8000;0.4046;-1.5110;
-112.5000;0.4062;-1.5110;
-112.2000;0.4046;-1.5110;
-111.9000;0.4037;-1.5209;
-111.6000;0.4037;-1.5159;
-111.3000;0.4037;-1.5184;
-111.0000;0.4037;-1.5184;
-110.7000;0.4046;-1.5159;
-110.4000;0.4037;-1.5209;
-110.1000;0.4135;-1.4885;
-109.8000;0.4029;-1.5110;
-109.5000;0.4029;-1.5110;
-109.2000;0.4046;-1.5060;
-108.9000;0.4046;-1.5135;
-108.6000;0.4029;-1.5209;
-108.3000;0.4054;-1.5209;
-108.0000;0.4029;-1.5209;
-107.7000;0.4046;-1.5159;
-107.4000;0.4013;-1.5284;
-107.1000;0.4037;-1.5135;
-106.8000;0.4054;-1.5060;
-106.5000;0.4070;-1.5035;
-106.2000;0.4103;-1.5010;
-105.9000;0.4046;-1.5209;
-105.6000;0.4054;-1.5184;
-105.3000;0.4054;-1.5234;
-105.0000;0.4037;-1.5234;
-104.7000;0.4046;-1.5259;
-104.4000;0.4046;-1.5234;
-104.1000;0.4046;-1.5309;
-103.8000;0.4054;-1.5234;
-103.5000;0.4054;-1.5284;
-103.2000;0.4054;-1.5209;
-102.9000;0.4005;-1.5284;
-102.6000;0.4029;-1.5184;
-102.3000;0.4046;-1.5135;
-102.0000;0.4046;-1.5135;
-101.7000;0.4054;-1.5110;
-101.4000;0.4037;-1.5159;
-101.1000;0.4062;-1.5085;
-100.8000;0.4046;-1.5060;
-100.5000;0.4037;-1.5110;
-100.2000;0.4021;-1.5110;
-99.9000;0.4046;-1.5060;
-99.6000;0.4103;-1.4810;
-99.3000;0.4029;-1.5060;
-99.0000;0.4037;-1.5060;
-98.7000;0.4029;-1.5085;
-98.4000;0.4029;-1.5135;
-98.1000;0.4021;-1.5184;
-97.8000;0.4029;-1.5184;
-97.5000;0.4062;-1.5159;
-97.2000;0.4037;-1.5284;
-96.9000;0.4062;-1.5184;
-96.6000;0.4021;-1.5334;
-96.3000;0.4029;-1.5359;
-96.0000;0.4013;-1.5284;
-95.7000;0.4029;-1.5309;
-95.4000;0.4021;-1.5234;
-95.1000;0.4037;-1.5209;
-94.8000;0.4037;-1.5334;
-94.5000;0.4046;-1.5334;
-94.2000;0.4054;-1.5334;
-93.9000;0.4054;-1.5409;
-93.6000;0.4046;-1.5359;
-93.3000;0.4037;-1.5484;
-93.0000;0.4046;-1.5608;
-92.7000;0.4046;-1.5583;
-92.4000;0.4037;-1.5608;
-92.1000;0.4037;-1.5583;
-91.8000;0.4054;-1.5533;
-91.5000;0.4086;-1.5409;
-91.2000;0.4046;-1.5434;
-90.9000;0.4046;-1.5434;
-90.6000;0.4029;-1.5484;
-90.3000;0.4037;-1.5409;
-90.0000;0.4070;-1.5334;
-89.7000;0.4029;-1.5359;
-89.4000;0.4029;-1.5434;
-89.1000;0.4046;-1.5484;
-88.8000;0.4046;-1.5533;
-88.5000;0.4029;-1.5633;
-88.2000;0.4029;-1.5608;
-87.9000;0.3923;-1.5858;
-87.6000;0.4029;-1.5558;
-87.3000;0.4013;-1.5558;
-87.0000;0.4029;-1.5359;
-86.7000;0.4054;-1.5234;
-86.4000;0.4046;-1.5284;
-86.1000;0.4062;-1.5209;
-85.8000;0.4029;-1.5359;
-85.5000;0.4046;-1.5334;
-85.2000;0.4046;-1.5309;
-84.9000;0.4054;-1.5259;
-84.6000;0.4054;-1.5234;
-84.3000;0.4037;-1.5234;
-84.0000;0.4013;-1.5284;
-83.7000;0.4054;-1.5234;
-83.4000;0.4037;-1.5184;
-83.1000;0.4021;-1.5159;
-82.8000;0.4094;-1.4985;
-82.5000;0.4037;-1.5209;
-82.2000;0.3956;-1.5359;
-81.9000;0.4037;-1.5085;
-81.6000;0.4029;-1.5234;
-81.3000;0.4029;-1.5334;
-81.0000;0.4029;-1.5409;
-80.7000;0.4005;-1.5558;
-80.4000;0.4021;-1.5484;
-80.1000;0.4046;-1.5384;
-79.8000;0.4062;-1.5359;
-79.5000;0.4062;-1.5484;
-79.2000;0.4037;-1.5558;
-78.9000;0.4046;-1.5533;
-78.6000;0.4086;-1.5359;
-78.3000;0.4037;-1.5434;
-78.0000;0.4021;-1.5484;
-77.7000;0.4021;-1.5384;
-77.4000;0.4029;-1.5359;
-77.1000;0.4046;-1.5334;
-76.8000;0.4054;-1.5234;
-76.5000;0.4037;-1.5259;
-76.2000;0.4054;-1.5135;
-75.9000;0.4037;-1.5159;
-75.6000;0.3948;-1.5384;
-75.3000;0.4046;-1.5209;
-75.0000;0.4054;-1.5159;
-74.7000;0.4046;-1.5209;
-74.4000;0.4029;-1.5259;
-74.1000;0.4046;-1.5060;
-73.8000;0.4037;-1.5135;
-73.5000;0.4046;-1.5110;
-73.2000;0.4054;-1.5085;
-72.9000;0.4029;-1.4985;
-72.6000;0.4046;-1.4985;
-72.3000;0.4021;-1.4935;
-72.0000;0.4062;-1.4885;
-71.7000;0.4021;-1.5010;
-71.4000;0.4037;-1.4985;
-71.1000;0.4054;-1.5035;
-70.8000;0.4054;-1.4960;
-70.5000;0.4062;-1.4910;
-70.2000;0.4046;-1.4985;
-69.9000;0.4094;-1.4935;
-69.6000;0.4070;-1.4960;
-69.3000;0.4046;-1.5110;
-69.0000;0.4086;-1.5010;
-68.7000;0.4054;-1.5010;
-68.4000;0.4054;-1.5060;
-68.1000;0.4046;-1.5085;
-67.8000;0.3980;-1.5284;
-67.5000;0.4037;-1.5159;
-67.2000;0.4037;-1.5209;
-66.9000;0.4037;-1.5209;
-66.6000;0.4037;-1.5135;
-66.3000;0.4037;-1.5159;
-66.0000;0.4021;-1.5234;
-65.7000;0.4037;-1.5135;
-65.4000;0.4046;-1.5159;
-65.1000;0.4062;-1.5159;
-64.8000;0.4046;-1.5234;
-64.5000;0.4046;-1.5135;
-64.2000;0.4046;-1.5159;
-63.9000;0.4029;-1.5135;
-63.6000;0.4037;-1.5159;
-63.3000;0.4046;-1.5110;
-63.0000;0.4046;-1.5085;
-62.7000;0.4021;-1.5135;
-62.4000;0.4119;-1.4935;
-62.1000;0.4037;-1.5060;
-61.8000;0.4037;-1.5010;
-61.5000;0.4046;-1.5085;
-61.2000;0.4046;-1.5085;
-60.9000;0.4086;-1.4985;
-60.6000;0.4029;-1.5110;
-60.3000;0.3997;-1.5184;
-60.0000;0.3964;-1.5259;
-59.7000;0.4029;-1.5035;
-59.4000;0.4046;-1.4985;
-59.1000;0.4037;-1.5010;
-58.8000;0.4046;-1.5035;
-58.5000;0.4054;-1.5035;
-58.2000;0.4070;-1.4960;
-57.9000;0.4078;-1.4910;
-57.6000;0.4037;-1.5010;
-57.3000;0.4046;-1.5184;
-57.0000;0.4046;-1.5110;
-56.7000;0.4029;-1.5234;
-56.4000;0.4062;-1.5209;
-56.1000;0.4013;-1.5309;
-55.8000;0.4086;-1.5135;
-55.5000;0.4029;-1.5359;
-55.2000;0.4037;-1.5359;
-54.9000;0.4021;-1.5384;
-54.6000;0.4103;-1.5110;
-54.3000;0.4054;-1.5259;
-54.0000;0.4054;-1.5234;
-53.7000;0.4046;-1.5309;
-53.4000;0.4062;-1.5234;
-53.1000;0.4054;-1.5209;
-52.8000;0.4029;-1.5284;
-52.5000;0.4046;-1.5284;
-52.2000;0.4037;-1.5334;
-51.9000;0.4037;-1.5284;
-51.6000;0.4005;-1.5359;
-51.3000;0.4046;-1.5234;
-51.0000;0.4046;-1.5135;
-50.7000;0.4029;-1.5085;
-50.4000;0.4062;-1.4985;
-50.1000;0.4037;-1.5060;
-49.8000;0.4078;-1.4935;
-49.5000;0.4037;-1.5010;
-49.2000;0.4046;-1.4960;
-48.9000;0.4046;-1.4935;
-48.6000;0.4037;-1.4985;
-48.3000;0.4037;-1.4985;
-48.0000;0.4062;-1.4935;
-47.7000;0.4046;-1.4935;
-47.4000;0.4037;-1.4910;
-47.1000;0.4021;-1.4910;
-46.8000;0.4070;-1.4761;
-46.5000;0.4029;-1.4935;
-46.2000;0.4029;-1.4960;
-45.9000;0.3972;-1.5209;
-45.6000;0.4054;-1.5010;
-45.3000;0.4029;-1.5010;
-45.0000;0.4037;-1.4835;
-44.7000;0.4021;-1.4885;
-44.4000;0.4029;-1.4885;
-44.1000;0.4046;-1.4910;
-43.8000;0.4046;-1.5010;
-43.5000;0.4046;-1.5010;
-43.2000;0.4013;-1.5135;
-42.9000;0.4013;-1.5209;
-42.6000;0.4029;-1.5159;
-42.3000;0.4029;-1.5085;
-42.0000;0.4029;-1.5035;
-41.7000;0.4037;-1.4960;
-41.4000;0.4070;-1.4860;
-41.1000;0.4021;-1.4860;
-40.8000;0.4029;-1.4810;
-40.5000;0.3956;-1.5060;
-40.2000;0.4021;-1.4985;
-39.9000;0.4029;-1.4960;
-39.6000;0.4054;-1.4935;
-39.3000;0.4046;-1.4935;
-39.0000;0.4062;-1.4935;
-38.7000;0.4054;-1.4935;
-38.4000;0.4029;-1.4985;
-38.1000;0.4037;-1.4960;
-37.8000;0.4054;-1.4985;
-37.5000;0.4046;-1.4985;
-37.2000;0.4046;-1.5060;
-36.9000;0.4005;-1.5159;
-36.6000;0.4013;-1.5135;
-36.3000;0.4029;-1.5135;
-36.0000;0.4054;-1.5184;
-35.7000;0.4029;-1.5184;
-35.4000;0.4021;-1.5184;
-35.1000;0.4046;-1.5135;
-34.8000;0.4046;-1.5159;
-34.5000;0.4029;-1.5209;
-34.2000;0.4046;-1.5234;
-33.9000;0.4037;-1.5284;
-33.6000;0.4054;-1.5209;
-33.3000;0.4037;-1.5234;
-33.0000;0.4037;-1.5209;
-32.7000;0.4037;-1.5209;
-32.4000;0.4086;-1.5159;
-32.1000;0.4029;-1.5259;
-31.8000;0.4046;-1.5184;
-31.5000;0.4046;-1.5135;
-31.2000;0.4037;-1.5010;
-30.9000;0.4037;-1.5085;
-30.6000;0.4037;-1.5184;
-30.3000;0.4046;-1.5234;
-30.0000;0.4046;-1.5259;
-29.7000;0.4037;-1.5334;
-29.4000;0.4029;-1.5284;
-29.1000;0.4062;-1.5135;
-28.8000;0.4029;-1.5135;
-28.5000;0.4037;-1.5060;
-28.2000;0.4046;-1.5135;
-27.9000;0.4037;-1.5184;
-27.6000;0.4062;-1.5110;
-27.3000;0.4046;-1.5135;
-27.0000;0.4037;-1.5085;
-26.7000;0.4029;-1.5060;
-26.4000;0.4029;-1.5010;
-26.1000;0.4054;-1.4960;
-25.8000;0.4037;-1.4985;
-25.5000;0.4005;-1.5110;
-25.2000;0.4005;-1.5085;
-24.9000;0.4037;-1.5085;
-24.6000;0.4037;-1.5085;
-24.3000;0.4046;-1.5035;
-24.0000;0.4021;-1.5234;
-23.7000;0.4046;-1.5159;
-23.4000;0.4046;-1.5184;
-23.1000;0.3989;-1.5334;
-22.8000;0.4029;-1.5209;
-22.5000;0.4029;-1.5209;
-22.2000;0.4037;-1.5159;
-21.9000;0.4103;-1.5110;
-21.6000;0.4054;-1.5309;
-21.3000;0.4029;-1.5309;
-21.0000;0.4046;-1.5309;
-20.7000;0.4046;-1.5309;
-20.4000;0.3997;-1.5509;
-20.1000;0.4037;-1.5409;
-19.8000;0.4046;-1.5384;
-19.5000;0.4046;-1.5409;
-19.2000;0.4070;-1.5259;
-18.9000;0.4037;-1.5209;
-18.6000;0.4127;-1.4885;
-18.3000;0.4037;-1.5060;
-18.0000;0.4021;-1.5085;
-17.7000;0.4029;-1.5159;
-17.4000;0.4046;-1.5110;
-17.1000;0.4062;-1.5110;
-16.8000;0.4046;-1.5159;
-16.5000;0.4005;-1.5234;
-16.2000;0.4013;-1.5209;
-15.9000;0.4062;-1.5060;
-15.6000;0.4054;-1.5085;
-15.3000;0.4037;-1.5184;
-15.0000;0.3964;-1.5334;
-14.7000;0.4046;-1.5085;
-14.4000;0.4037;-1.4985;
-14.1000;0.4094;-1.4935;
-13.8000;0.4054;-1.5035;
-13.5000;0.4046;-1.5035;
-13.2000;0.4062;-1.4985;
-12.9000;0.4046;-1.5085;
-12.6000;0.4054;-1.5035;
-12.3000;0.4021;-1.5085;
-12.0000;0.4078;-1.4960;
-11.7000;0.4037;-1.5060;
-11.4000;0.4062;-1.5060;
-11.1000;0.4046;-1.5060;
-10.8000;0.4054;-1.5060;
-10.5000;0.4046;-1.5035;
-10.2000;0.4029;-1.5035;
-9.9000;0.4078;-1.4910;
-9.6000;0.4046;-1.5010;
-9.3000;0.4046;-1.5035;
-9.0000;0.4037;-1.4960;
-8.7000;0.4029;-1.5035;
-8.4000;0.4046;-1.4985;
-8.1000;0.4029;-1.5035;
-7.8000;0.4005;-1.5110;
-7.5000;0.4029;-1.5010;
-7.2000;0.4029;-1.4935;
-6.9000;0.4037;-1.4935;
-6.6000;0.4062;-1.4885;
-6.3000;0.4021;-1.4910;
-6.0000;0.4021;-1.5035;
-5.7000;0.4046;-1.5110;
-5.4000;0.4054;-1.5085;
-5.1000;0.4037;-1.5184;
-4.8000;0.4037;-1.5159;
-4.5000;0.4037;-1.5135;
-4.2000;0.4037;-1.5110;
-3.9000;0.4046;-1.5110;
-3.6000;0.4046;-1.5184;
-3.3000;0.4054;-1.5159;
-3.0000;0.4046;-1.5110;
-2.7000;0.4046;-1.5159;
-2.4000;0.4046;-1.5209;
-2.1000;0.4037;-1.5234;
-1.8000;0.4070;-1.5110;
-1.5000;0.4037;-1.5184;
-1.2000;0.4046;-1.5184;
-0.9000;0.4046;-1.5184;
-0.6000;0.4054;-1.5209;
-0.3000;0.4054;-1.5259;
0.0000;0.4054;-1.5259;
0.3000;0.4314;-1.5334;
0.6000;0.4860;-1.4661;
0.9000;0.5250;-1.4112;
1.2000;0.5568;-1.3564;
1.5000;0.5796;-1.3240;
1.8000;0.6024;-1.2816;
2.1000;0.6211;-1.2492;
2.4000;0.6325;-1.2267;
2.7000;0.6422;-1.2018;
3.0000;0.6496;-1.1744;
3.3000;0.6577;-1.1494;
3.6000;0.6667;-1.1220;
3.9000;0.6699;-1.1120;
4.2000;0.6732;-1.1045;
4.5000;0.6805;-1.0971;
4.8000;0.6838;-1.0946;
5.1000;0.6862;-1.0946;
5.4000;0.6886;-1.0996;
5.7000;0.6943;-1.0871;
6.0000;0.6976;-1.0896;
6.3000;0.7009;-1.0921;
6.6000;0.7025;-1.0871;
6.9000;0.7066;-1.0721;
7.2000;0.7090;-1.0696;
7.5000;0.7139;-1.0671;
7.8000;0.7131;-1.0771;
8.1000;0.7188;-1.0647;
8.4000;0.7204;-1.0622;
8.7000;0.7212;-1.0572;
9.0000;0.7253;-1.0547;
9.3000;0.7277;-1.0522;
9.6000;0.7310;-1.0671;
9.9000;0.7342;-1.0572;
10.2000;0.7367;-1.0547;
10.5000;0.7391;-1.0497;
10.8000;0.7407;-1.0522;
11.1000;0.7448;-1.0497;
11.4000;0.7416;-1.0696;
11.7000;0.7481;-1.0696;
12.0000;0.7473;-1.0771;
12.3000;0.7538;-1.0622;
12.6000;0.7546;-1.0746;
12.9000;0.7562;-1.0746;
13.2000;0.7627;-1.0622;
13.5000;0.7603;-1.0647;
13.8000;0.7611;-1.0671;
14.1000;0.7635;-1.0547;
14.4000;0.7635;-1.0721;
14.7000;0.7692;-1.0597;
15.0000;0.7700;-1.0597;
15.3000;0.7725;-1.0647;
15.6000;0.7733;-1.0671;
15.9000;0.7749;-1.0671;
16.2000;0.7790;-1.0696;
16.5000;0.7709;-1.1021;
16.8000;0.7814;-1.0796;
17.1000;0.7814;-1.0821;
17.4000;0.7749;-1.0996;
17.7000;0.7871;-1.0771;
18.0000;0.7928;-1.0771;
18.3000;0.7896;-1.0846;
18.6000;0.7928;-1.0796;
18.9000;0.7928;-1.0896;
19.2000;0.7953;-1.0921;
19.5000;0.7937;-1.0946;
19.8000;0.7961;-1.0921;
20.1000;0.7985;-1.0846;
20.4000;0.7993;-1.0896;
20.7000;0.8026;-1.0746;
21.0000;0.8018;-1.0771;
21.3000;0.8034;-1.0846;
21.6000;0.8050;-1.0871;
21.9000;0.8075;-1.0921;
22.2000;0.8075;-1.0946;
22.5000;0.8116;-1.0846;
22.8000;0.8083;-1.0946;
23.1000;0.8116;-1.0896;
23.4000;0.8132;-1.0871;
23.7000;0.8124;-1.0996;
24.0000;0.8173;-1.0896;
24.3000;0.8173;-1.0946;
24.6000;0.8173;-1.1070;
24.9000;0.8189;-1.1145;
25.2000;0.8205;-1.1170;
25.5000;0.8173;-1.1469;
25.8000;0.8213;-1.1320;
26.1000;0.8221;-1.1320;
26.4000;0.8238;-1.1270;
26.7000;0.8246;-1.1320;
27.0000;0.8238;-1.1345;
27.3000;0.8278;-1.1220;
27.6000;0.8311;-1.1220;
27.9000;0.8303;-1.1220;
28.2000;0.8303;-1.1270;
28.5000;0.8327;-1.1220;
28.8000;0.8335;-1.1320;
29.1000;0.8335;-1.1320;
29.4000;0.8352;-1.1320;
29.7000;0.8352;-1.1370;
30.0000;0.8360;-1.1370;
30.3000;0.8352;-1.1419;
30.6000;0.8360;-1.1345;
30.9000;0.8352;-1.1395;
31.2000;0.8425;-1.1270;
31.5000;0.8400;-1.1419;
31.8000;0.8441;-1.1395;
32.1000;0.8417;-1.1419;
32.4000;0.8425;-1.1444;
32.7000;0.8457;-1.1395;
33.0000;0.8588;-1.0946;
33.3000;0.8449;-1.1320;
33.6000;0.8457;-1.1395;
33.9000;0.8466;-1.1544;
34.2000;0.8474;-1.1519;
34.5000;0.8498;-1.1619;
34.8000;0.8506;-1.1644;
35.1000;0.8498;-1.1619;
35.4000;0.8514;-1.1519;
35.7000;0.8506;-1.1594;
36.0000;0.8514;-1.1644;
36.3000;0.8531;-1.1719;
36.6000;0.8539;-1.1793;
36.9000;0.8555;-1.1793;
37.2000;0.8596;-1.1694;
37.5000;0.8555;-1.1818;
37.8000;0.8588;-1.1843;
38.1000;0.8612;-1.1818;
38.4000;0.8588;-1.1843;
38.7000;0.8588;-1.1868;
39.0000;0.8612;-1.1818;
39.3000;0.8661;-1.1744;
39.6000;0.8604;-1.1943;
39.9000;0.8612;-1.1893;
40.2000;0.8596;-1.1943;
40.5000;0.8637;-1.1843;
40.8000;0.8612;-1.1868;
41.1000;0.8628;-1.1893;
41.4000;0.8661;-1.1868;
41.7000;0.8661;-1.1918;
42.0000;0.8677;-1.1893;
42.3000;0.8661;-1.1993;
42.6000;0.8677;-1.1943;
42.9000;0.8694;-1.1868;
43.2000;0.8685;-1.1868;
43.5000;0.8694;-1.1744;
43.8000;0.8734;-1.1694;
44.1000;0.8742;-1.1619;
44.4000;0.8742;-1.1719;
44.7000;0.8734;-1.1694;
45.0000;0.8742;-1.1694;
45.3000;0.8799;-1.1569;
45.6000;0.8759;-1.1744;
45.9000;0.8718;-1.1893;
46.2000;0.8694;-1.2093;
46.5000;0.8767;-1.1893;
46.8000;0.8791;-1.1793;
47.1000;0.8767;-1.1918;
47.4000;0.8791;-1.1893;
47.7000;0.8791;-1.1893;
48.0000;0.8824;-1.1918;
48.3000;0.8807;-1.1943;
48.6000;0.8824;-1.1993;
48.9000;0.8848;-1.1918;
49.2000;0.8832;-1.2043;
49.5000;0.8840;-1.1993;
49.8000;0.8946;-1.1793;
50.1000;0.8848;-1.1968;
50.4000;0.8873;-1.1968;
50.7000;0.8840;-1.2118;
51.0000;0.8864;-1.2167;
51.3000;0.8832;-1.2292;
51.6000;0.8897;-1.2167;
51.9000;0.8889;-1.2242;
52.2000;0.8824;-1.2467;
52.5000;0.8913;-1.2217;
52.8000;0.8889;-1.2292;
53.1000;0.8921;-1.2242;
53.4000;0.8921;-1.2242;
53.7000;0.9019;-1.2068;
54.0000;0.8938;-1.2442;
54.3000;0.8938;-1.2367;
54.6000;0.8978;-1.2317;
54.9000;0.8889;-1.2492;
55.2000;0.8962;-1.2317;
55.5000;0.8970;-1.2317;
55.8000;0.8962;-1.2292;
56.1000;0.8978;-1.2317;
56.4000;0.8987;-1.2267;
56.7000;0.8970;-1.2317;
57.0000;0.9060;-1.2118;
57.3000;0.9003;-1.2192;
57.6000;0.8995;-1.2192;
57.9000;0.8995;-1.2192;
58.2000;0.8954;-1.2292;
58.5000;0.9019;-1.2217;
58.8000;0.9003;-1.2292;
59.1000;0.8995;-1.2292;
59.4000;0.9035;-1.2292;
59.7000;0.9027;-1.2317;
60.0000;0.9027;-1.2192;
60.3000;0.9027;-1.2192;
60.6000;0.9052;-1.2242;
60.9000;0.9052;-1.2217;
61.2000;0.9076;-1.2118;
61.5000;0.9060;-1.2217;
61.8000;0.9068;-1.2192;
62.1000;0.9052;-1.2217;
62.4000;0.9076;-1.2192;
62.7000;0.9076;-1.2267;
63.0000;0.9092;-1.2167;
63.3000;0.9060;-1.2217;
63.6000;0.9109;-1.2068;
63.9000;0.9084;-1.2143;
64.2000;0.9117;-1.2018;
64.5000;0.9206;-1.1793;
64.8000;0.9117;-1.2118;
65.1000;0.9117;-1.2093;
65.4000;0.9133;-1.2118;
65.7000;0.9117;-1.2167;
66.0000;0.9141;-1.2167;
66.3000;0.9125;-1.2292;
66.6000;0.9149;-1.2267;
66.9000;0.9133;-1.2317;
67.2000;0.9141;-1.2317;
67.5000;0.9141;-1.2367;
67.8000;0.9149;-1.2342;
68.1000;0.9149;-1.2292;
68.4000;0.9158;-1.2292;
68.7000;0.9174;-1.2217;
69.0000;0.9149;-1.2217;
69.3000;0.9149;-1.2317;
69.6000;0.9174;-1.2217;
69.9000;0.9190;-1.2242;
70.2000;0.9182;-1.2342;
70.5000;0.9141;-1.2417;
70.8000;0.9149;-1.2392;
71.1000;0.9214;-1.2292;
71.4000;0.9190;-1.2367;
71.7000;0.9190;-1.2342;
72.0000;0.9223;-1.2167;
72.3000;0.9190;-1.2267;
72.6000;0.9198;-1.2267;
72.9000;0.9231;-1.2317;
73.2000;0.9255;-1.2292;
73.5000;0.9223;-1.2392;
73.8000;0.9271;-1.2192;
74.1000;0.9214;-1.2342;
74.4000;0.9239;-1.2317;
74.7000;0.9231;-1.2442;
75.0000;0.9255;-1.2442;
75.3000;0.9247;-1.2367;
75.6000;0.9271;-1.2342;
75.9000;0.9239;-1.2442;
76.2000;0.9255;-1.2467;
76.5000;0.9280;-1.2417;
76.8000;0.9263;-1.2467;
77.1000;0.9247;-1.2517;
77.4000;0.9271;-1.2442;
77.7000;0.9223;-1.2691;
78.0000;0.9190;-1.2816;
78.3000;0.9247;-1.2666;
78.6000;0.9247;-1.2691;
78.9000;0.9280;-1.2591;
79.2000;0.9263;-1.2591;
79.5000;0.9263;-1.2566;
79.8000;0.9304;-1.2492;
80.1000;0.9288;-1.2591;
80.4000;0.9296;-1.2591;
80.7000;0.9296;-1.2591;
81.0000;0.9304;-1.2566;
81.3000;0.9288;-1.2641;
81.6000;0.9296;-1.2666;
81.9000;0.9280;-1.2766;
82.2000;0.9296;-1.2691;
82.5000;0.9320;-1.2691;
82.8000;0.9312;-1.2666;
83.1000;0.9304;-1.2641;
83.4000;0.9304;-1.2616;
83.7000;0.9320;-1.2666;
84.0000;0.9320;-1.2716;
84.3000;0.9312;-1.2691;
84.6000;0.9377;-1.2467;
84.9000;0.9312;-1.2591;
85.2000;0.9337;-1.2492;
85.5000;0.9328;-1.2492;
85.8000;0.9328;-1.2492;
86.1000;0.9328;-1.2517;
86.4000;0.9377;-1.2467;
86.7000;0.9312;-1.2616;
87.0000;0.9337;-1.2566;
87.3000;0.9337;-1.2541;
87.6000;0.9353;-1.2517;
87.9000;0.9377;-1.2492;
88.2000;0.9345;-1.2591;
88.5000;0.9369;-1.2566;
88.8000;0.9345;-1.2641;
89.1000;0.9345;-1.2641;
89.4000;0.9345;-1.2566;
89.7000;0.9337;-1.2517;
90.0000;0.9369;-1.2442;
90.3000;0.9377;-1.2442;
90.6000;0.9410;-1.2342;
90.9000;0.9369;-1.2417;
91.2000;0.9320;-1.2616;
91.5000;0.9385;-1.2517;
91.8000;0.9394;-1.2541;
92.1000;0.9377;-1.2541;
92.4000;0.9369;-1.2541;
92.7000;0.9385;-1.2616;
93.0000;0.9410;-1.2517;
93.3000;0.9377;-1.2541;
93.6000;0.9402;-1.2467;
93.9000;0.9394;-1.2467;
94.2000;0.9385;-1.2392;
94.5000;0.9410;-1.2417;
94.8000;0.9369;-1.2541;
95.1000;0.9402;-1.2367;
95.4000;0.9385;-1.2467;
95.7000;0.9426;-1.2392;
96.0000;0.9402;-1.2541;
96.3000;0.9385;-1.2566;
96.6000;0.9418;-1.2541;
96.9000;0.9394;-1.2591;
97.2000;0.9385;-1.2616;
97.5000;0.9434;-1.2467;
97.8000;0.9418;-1.2541;
98.1000;0.9385;-1.2616;
98.4000;0.9394;-1.2541;
98.7000;0.9402;-1.2591;
99.0000;0.9418;-1.2616;
99.3000;0.9402;-1.2716;
99.6000;0.9499;-1.2417;
99.9000;0.9377;-1.2766;
100.2000;0.9442;-1.2616;
100.5000;0.9402;-1.2716;
100.8000;0.9361;-1.2866;
101.1000;0.9402;-1.2791;
101.4000;0.9426;-1.2766;
101.7000;0.9394;-1.2866;
102.0000;0.9426;-1.2716;
102.3000;0.9410;-1.2766;
102.6000;0.9369;-1.2766;
102.9000;0.9410;-1.2591;
103.2000;0.9402;-1.2616;
103.5000;0.9418;-1.2541;
103.8000;0.9402;-1.2442;
104.1000;0.9410;-1.2492;
104.4000;0.9451;-1.2467;
104.7000;0.9434;-1.2566;
105.0000;0.9418;-1.2566;
105.3000;0.9410;-1.2691;
105.6000;0.9418;-1.2691;
105.9000;0.9442;-1.2716;
106.2000;0.9426;-1.2691;
106.5000;0.9434;-1.2666;
106.8000;0.9402;-1.2616;
107.1000;0.9467;-1.2541;
107.4000;0.9410;-1.2666;
107.7000;0.9418;-1.2691;
108.0000;0.9418;-1.2666;
108.3000;0.9426;-1.2641;
108.6000;0.9459;-1.2566;
108.9000;0.9434;-1.2641;
109.2000;0.9418;-1.2641;
109.5000;0.9491;-1.2467;
109.8000;0.9426;-1.2541;
110.1000;0.9426;-1.2467;
110.4000;0.9434;-1.2492;
110.7000;0.9442;-1.2541;
111.0000;0.9426;-1.2591;
111.3000;0.9434;-1.2591;
111.6000;0.9451;-1.2566;
111.9000;0.9451;-1.2591;
112.2000;0.9434;-1.2616;
112.5000;0.9442;-1.2691;
112.8000;0.9442;-1.2591;
113.1000;0.9426;-1.2616;
113.4000;0.9434;-1.2691;
113.7000;0.9451;-1.2541;
114.0000;0.9426;-1.2591;
114.3000;0.9426;-1.2591;
114.6000;0.9516;-1.2392;
114.9000;0.9434;-1.2641;
115.2000;0.9475;-1.2591;
115.5000;0.9451;-1.2591;
115.8000;0.9459;-1.2641;
116.1000;0.9451;-1.2666;
116.4000;0.9410;-1.2791;
116.7000;0.9459;-1.2641;
117.0000;0.9442;-1.2541;
117.3000;0.9434;-1.2517;
117.6000;0.9434;-1.2467;
117.9000;0.9434;-1.2517;
118.2000;0.9442;-1.2517;
118.5000;0.9426;-1.2541;
118.8000;0.9434;-1.2467;
119.1000;0.9442;-1.2541;
119.4000;0.9540;-1.2442;
119.7000;0.9451;-1.2666;
120.0000;0.9459;-1.2691;
120.3000;0.9451;-1.2666;
120.6000;0.9459;-1.2641;
120.9000;0.9459;-1.2591;
121.2000;0.9442;-1.2591;
121.5000;0.9418;-1.2766;
121.8000;0.9459;-1.2616;
122.1000;0.9451;-1.2591;
122.4000;0.9442;-1.2666;
122.7000;0.9434;-1.2666;
123.0000;0.9475;-1.2566;
123.3000;0.9442;-1.2591;
123.6000;0.9508;-1.2467;
123.9000;0.9442;-1.2591;
124.2000;0.9434;-1.2691;
124.5000;0.9442;-1.2716;
124.8000;0.9459;-1.2741;
125.1000;0.9442;-1.2716;
125.4000;0.9434;-1.2666;
125.7000;0.9451;-1.2716;
126.0000;0.9451;-1.2741;
126.3000;0.9434;-1.2791;
126.6000;0.9434;-1.2766;
126.9000;0.9369;-1.3015;
127.2000;0.9459;-1.2816;
127.5000;0.9442;-1.2841;
127.8000;0.9434;-1.2891;
128.1000;0.9459;-1.2841;
128.4000;0.9451;-1.2841;
128.7000;0.9442;-1.2866;
129.0000;0.9459;-1.2816;
129.3000;0.9459;-1.2716;
129.6000;0.9459;-1.2666;
129.9000;0.9459;-1.2566;
130.2000;0.9434;-1.2641;
130.5000;0.9434;-1.2616;
130.8000;0.9459;-1.2467;
131.1000;0.9475;-1.2492;
131.4000;0.9475;-1.2566;
131.7000;0.9475;-1.2517;
132.0000;0.9467;-1.2541;
132.3000;0.9491;-1.2467;
132.6000;0.9491;-1.2342;
132.9000;0.9451;-1.2442;
133.2000;0.9451;-1.2392;
133.5000;0.9459;-1.2317;
133.8000;0.9434;-1.2417;
134.1000;0.9442;-1.2517;
134.4000;0.9451;-1.2566;
134.7000;0.9451;-1.2641;
135.0000;0.9451;-1.2716;
135.3000;0.9451;-1.2641;
135.6000;0.9459;-1.2641;
135.9000;0.9459;-1.2641;
136.2000;0.9451;-1.2591;
136.5000;0.9451;-1.2541;
136.8000;0.9451;-1.2541;
137.1000;0.9442;-1.2442;
137.4000;0.9434;-1.2492;
137.7000;0.9418;-1.2467;
138.0000;0.9467;-1.2317;
138.3000;0.9442;-1.2442;
138.6000;0.9442;-1.2417;
138.9000;0.9426;-1.2442;
139.2000;0.9451;-1.2492;
139.5000;0.9442;-1.2517;
139.8000;0.9459;-1.2442;
140.1000;0.9451;-1.2442;
140.4000;0.9459;-1.2417;
140.7000;0.9426;-1.2442;
141.0000;0.9442;-1.2367;
141.3000;0.9442;-1.2392;
141.6000;0.9451;-1.2292;
141.9000;0.9459;-1.2167;
142.2000;0.9442;-1.2242;
142.5000;0.9451;-1.2267;
142.8000;0.9442;-1.2267;
143.1000;0.9434;-1.2317;
143.4000;0.9459;-1.2342;
143.7000;0.9442;-1.2442;
144.0000;0.9434;-1.2517;
144.3000;0.9442;-1.2467;
144.6000;0.9385;-1.2517;
144.9000;0.9426;-1.2467;
145.2000;0.9442;-1.2392;
145.5000;0.9434;-1.2467;
145.8000;0.9467;-1.2367;
146.1000;0.9451;-1.2517;
146.4000;0.9451;-1.2591;
146.7000;0.9451;-1.2566;
147.0000;0.9361;-1.2816;
147.3000;0.9499;-1.2417;
147.6000;0.9451;-1.2566;
147.9000;0.9459;-1.2666;
148.2000;0.9426;-1.2766;
148.5000;0.9434;-1.2766;
148.8000;0.9451;-1.2716;
149.1000;0.9459;-1.2616;
149.4000;0.9451;-1.2591;
149.7000;0.9426;-1.2716;
150.0000;0.9451;-1.2517;
150.3000;0.9434;-1.2517;
150.6000;0.9451;-1.2541;
150.9000;0.9434;-1.2492;
151.2000;0.9434;-1.2367;
151.5000;0.9467;-1.2392;
151.8000;0.9442;-1.2442;
152.1000;0.9426;-1.2517;
152.4000;0.9418;-1.2616;
152.7000;0.9451;-1.2566;
153.0000;0.9459;-1.2641;
153.3000;0.9451;-1.2541;
153.6000;0.9385;-1.2641;
153.9000;0.9475;-1.2417;
154.2000;0.9434;-1.2492;
154.5000;0.9418;-1.2616;
154.8000;0.9434;-1.2566;
155.1000;0.9426;-1.2616;
155.4000;0.9442;-1.2591;
155.7000;0.9434;-1.2591;
156.0000;0.9385;-1.2691;
156.3000;0.9451;-1.2517;
156.6000;0.9459;-1.2417;
156.9000;0.9442;-1.2467;
157.2000;0.9532;-1.2167;
157.5000;0.9516;-1.2167;
157.8000;0.9467;-1.2267;
158.1000;0.9402;-1.2392;
158.4000;0.9426;-1.2467;
158.7000;0.9418;-1.2492;
159.0000;0.9483;-1.2317;
159.3000;0.9442;-1.2467;
159.6000;0.9434;-1.2566;
159.9000;0.9426;-1.2591;
160.2000;0.9434;-1.2517;
160.5000;0.9442;-1.2566;
160.8000;0.9451;-1.2541;
161.1000;0.9442;-1.2641;
161.4000;0.9442;-1.2616;
161.7000;0.9418;-1.2641;
162.0000;0.9451;-1.2566;
162.3000;0.9442;-1.2566;
162.6000;0.9426;-1.2541;
162.9000;0.9459;-1.2417;
163.2000;0.9402;-1.2417;
163.5000;0.9442;-1.2342;
163.8000;0.9451;-1.2367;
164.1000;0.9442;-1.2442;
164.4000;0.9434;-1.2467;
164.7000;0.9426;-1.2492;
165.0000;0.9426;-1.2417;
165.3000;0.9402;-1.2492;
165.6000;0.9426;-1.2342;
165.9000;0.9442;-1.2342;
166.2000;0.9451;-1.2392;
166.5000;0.9377;-1.2591;
166.8000;0.9451;-1.2517;
167.1000;0.9459;-1.2442;
167.4000;0.9418;-1.2566;
167.7000;0.9410;-1.2541;
168.0000;0.9451;-1.2442;
168.3000;0.9434;-1.2492;
168.6000;0.9581;-1.2068;
168.9000;0.9459;-1.2342;
169.2000;0.9353;-1.2517;
169.5000;0.9434;-1.2342;
169.8000;0.9361;-1.2517;
170.1000;0.9442;-1.2292;
170.4000;0.9410;-1.2417;
170.7000;0.9410;-1.2492;
171.0000;0.9418;-1.2492;
171.3000;0.9402;-1.2566;
171.6000;0.9337;-1.2691;
171.9000;0.9410;-1.2517;
172.2000;0.9442;-1.2392;
172.5000;0.9426;-1.2492;
172.8000;0.9402;-1.2392;
173.1000;0.9361;-1.2417;
173.4000;0.9434;-1.2267;
173.7000;0.9394;-1.2417;
174.0000;0.9483;-1.2292;
174.3000;0.9410;-1.2442;
174.6000;0.9418;-1.2417;
174.9000;0.9426;-1.2417;
175.2000;0.9377;-1.2517;
175.5000;0.9410;-1.2392;
175.8000;0.9451;-1.2267;
176.1000;0.9410;-1.2317;
176.4000;0.9410;-1.2292;
176.7000;0.9434;-1.2192;
177.0000;0.9426;-1.2317;
177.3000;0.9426;-1.2317;
177.6000;0.9451;-1.2317;
177.9000;0.9410;-1.2566;
178.2000;0.9410;-1.2492;
178.5000;0.9394;-1.2442;
178.8000;0.9402;-1.2467;
179.1000;0.9426;-1.2541;
179.4000;0.9394;-1.2666;
179.7000;0.9426;-1.2517;
180.0000;0.9418;-1.2492;
180.3000;0.9402;-1.2467;
180.6000;0.9410;-1.2392;
180.9000;0.9394;-1.2417;
181.2000;0.9410;-1.2342;
181.5000;0.9402;-1.2317;
181.8000;0.9418;-1.2267;
182.1000;0.9410;-1.2267;
182.4000;0.9394;-1.2317;
182.7000;0.9410;-1.2317;
183.0000;0.9410;-1.2467;
183.3000;0.9394;-1.2467;
183.6000;0.9434;-1.2392;
183.9000;0.9410;-1.2492;
184.2000;0.9418;-1.2467;
184.5000;0.9426;-1.2467;
184.8000;0.9426;-1.2467;
185.1000;0.9410;-1.2541;
185.4000;0.9459;-1.2467;
185.7000;0.9410;-1.2541;
186.0000;0.9402;-1.2591;
186.3000;0.9377;-1.2691;
186.6000;0.9394;-1.2616;
186.9000;0.9418;-1.2517;
187.2000;0.9426;-1.2492;
187.5000;0.9451;-1.2492;
187.8000;0.9402;-1.2541;
188.1000;0.9402;-1.2691;
188.4000;0.9385;-1.2841;
188.7000;0.9434;-1.2741;
189.0000;0.9410;-1.2716;
189.3000;0.9394;-1.2791;
189.6000;0.9434;-1.2616;
189.9000;0.9369;-1.2691;
190.2000;0.9410;-1.2566;
190.5000;0.9377;-1.2616;
190.8000;0.9377;-1.2591;
191.1000;0.9410;-1.2442;
191.4000;0.9402;-1.2417;
191.7000;0.9385;-1.2492;
192.0000;0.9385;-1.2566;
192.3000;0.9394;-1.2566;
192.6000;0.9434;-1.2367;
192.9000;0.9426;-1.2392;
193.2000;0.9410;-1.2317;
193.5000;0.9385;-1.2392;
193.8000;0.9394;-1.2492;
194.1000;0.9385;-1.2467;
194.4000;0.9369;-1.2566;
194.7000;0.9402;-1.2417;
195.0000;0.9402;-1.2392;
195.3000;0.9394;-1.2392;
195.6000;0.9508;-1.2192;
195.9000;0.9394;-1.2367;
196.2000;0.9442;-1.2192;
196.5000;0.9385;-1.2367;
196.8000;0.9345;-1.2367;
197.1000;0.9377;-1.2292;
197.4000;0.9402;-1.2267;
197.7000;0.9402;-1.2317;
198.0000;0.9410;-1.2267;
198.3000;0.9394;-1.2267;
198.6000;0.9385;-1.2292;
198.9000;0.9385;-1.2317;
199.2000;0.9369;-1.2392;
199.5000;0.9394;-1.2367;
199.8000;0.9377;-1.2467;
200.1000;0.9394;-1.2317;
200.4000;0.9377;-1.2492;
200.7000;0.9361;-1.2591;
201.0000;0.9377;-1.2566;
201.3000;0.9385;-1.2467;
201.6000;0.9377;-1.2541;
201.9000;0.9385;-1.2417;
202.2000;0.9385;-1.2417;
202.5000;0.9410;-1.2342;
202.8000;0.9394;-1.2392;
203.1000;0.9353;-1.2492;
203.4000;0.9263;-1.2666;
203.7000;0.9377;-1.2342;
204.0000;0.9467;-1.2018;
204.3000;0.9377;-1.2267;
204.6000;0.9394;-1.2217;
204.9000;0.9377;-1.2342;
205.2000;0.9385;-1.2392;
205.5000;0.9369;-1.2467;
205.8000;0.9426;-1.2342;
206.1000;0.9385;-1.2417;
206.4000;0.9369;-1.2217;
206.7000;0.9483;-1.1918;
207.0000;0.9385;-1.2192;
207.3000;0.9394;-1.2167;
207.6000;0.9394;-1.2093;
207.9000;0.9467;-1.1918;
208.2000;0.9377;-1.2018;
208.5000;0.9361;-1.2167;
208.8000;0.9385;-1.2292;
209.1000;0.9394;-1.2367;
209.4000;0.9385;-1.2342;
209.7000;0.9402;-1.2317;
210.0000;0.9385;-1.2417;
210.3000;0.9394;-1.2392;
210.6000;0.9385;-1.2367;
210.9000;0.9353;-1.2417;
211.2000;0.9369;-1.2417;
211.5000;0.9353;-1.2417;
211.8000;0.9377;-1.2342;
212.1000;0.9369;-1.2342;
212.4000;0.9369;-1.2292;
212.7000;0.9410;-1.2292;
213.0000;0.9385;-1.2342;
213.3000;0.9369;-1.2367;
213.6000;0.9402;-1.2317;
213.9000;0.9385;-1.2417;
214.2000;0.9402;-1.2242;
214.5000;0.9361;-1.2292;
214.8000;0.9361;-1.2317;
215.1000;0.9385;-1.2392;
215.4000;0.9385;-1.2367;
215.7000;0.9377;-1.2367;
216.0000;0.9385;-1.2342;
216.3000;0.9369;-1.2317;
216.6000;0.9369;-1.2217;
216.9000;0.9385;-1.2167;
217.2000;0.9369;-1.2217;
217.5000;0.9369;-1.2217;
217.8000;0.9361;-1.2217;
218.1000;0.9345;-1.2342;
218.4000;0.9345;-1.2442;
218.7000;0.9361;-1.2417;
219.0000;0.9361;-1.2367;
219.3000;0.9377;-1.2267;
219.6000;0.9361;-1.2242;
219.9000;0.9369;-1.2192;
220.2000;0.9353;-1.2217;
220.5000;0.9361;-1.2317;
220.8000;0.9361;-1.2292;
221.1000;0.9353;-1.2342;
221.4000;0.9361;-1.2317;
221.7000;0.9361;-1.2367;
222.0000;0.9320;-1.2467;
222.3000;0.9353;-1.2467;
222.6000;0.9353;-1.2342;
222.9000;0.9353;-1.2292;
223.2000;0.9369;-1.2292;
223.5000;0.9394;-1.2292;
223.8000;0.9369;-1.2292;
224.1000;0.9377;-1.2342;
224.4000;0.9296;-1.2566;
224.7000;0.9361;-1.2417;
225.0000;0.9361;-1.2392;
225.3000;0.9377;-1.2392;
225.6000;0.9369;-1.2317;
225.9000;0.9345;-1.2292;
226.2000;0.9337;-1.2292;
226.5000;0.9345;-1.2392;
226.8000;0.9345;-1.2342;
227.1000;0.9377;-1.2367;
227.4000;0.9353;-1.2392;
227.7000;0.9361;-1.2367;
228.0000;0.9353;-1.2342;
228.3000;0.9361;-1.2342;
228.6000;0.9402;-1.2267;
228.9000;0.9353;-1.2392;
229.2000;0.9337;-1.2517;
229.5000;0.9353;-1.2566;
229.8000;0.9353;-1.2616;
230.1000;0.9337;-1.2641;
230.4000;0.9337;-1.2616;
230.7000;0.9345;-1.2566;
231.0000;0.9353;-1.2541;
231.3000;0.9353;-1.2492;
231.6000;0.9361;-1.2541;
231.9000;0.9214;-1.2866;
232.2000;0.9394;-1.2417;
232.5000;0.9361;-1.2517;
232.8000;0.9353;-1.2392;
233.1000;0.9353;-1.2367;
233.4000;0.9361;-1.2292;
233.7000;0.9345;-1.2417;
234.0000;0.9394;-1.2267;
234.3000;0.9369;-1.2342;
234.6000;0.9361;-1.2342;
234.9000;0.9337;-1.2317;
235.2000;0.9337;-1.2292;
235.5000;0.9369;-1.2317;
235.8000;0.9377;-1.2442;
236.1000;0.9353;-1.2492;
236.4000;0.9320;-1.2541;
236.7000;0.9337;-1.2492;
237.0000;0.9345;-1.2467;
237.3000;0.9345;-1.2492;
237.6000;0.9353;-1.2591;
237.9000;0.9345;-1.2591;
238.2000;0.9353;-1.2566;
238.5000;0.9345;-1.2591;
238.8000;0.9353;-1.2641;
239.1000;0.9337;-1.2591;
239.4000;0.9361;-1.2541;
239.7000;0.9353;-1.2517;
240.0000;0.9345;-1.2517;
240.3000;0.9345;-1.2566;
240.6000;0.9353;-1.2566;
240.9000;0.9345;-1.2517;
241.2000;0.9361;-1.2541;
241.5000;0.9345;-1.2566;
241.8000;0.9369;-1.2517;
242.1000;0.9361;-1.2417;
242.4000;0.9345;-1.2467;
242.7000;0.9304;-1.2591;
243.0000;0.9328;-1.2467;
243.3000;0.9328;-1.2367;
243.6000;0.9345;-1.2317;
243.9000;0.9288;-1.2467;
244.2000;0.9328;-1.2317;
244.5000;0.9345;-1.2242;
244.8000;0.9361;-1.2267;
245.1000;0.9337;-1.2367;
245.4000;0.9337;-1.2467;
245.7000;0.9328;-1.2517;
246.0000;0.9239;-1.2741;
246.3000;0.9353;-1.2492;
246.6000;0.9337;-1.2492;
246.9000;0.9337;-1.2442;
247.2000;0.9328;-1.2442;
247.5000;0.9271;-1.2616;
247.8000;0.9337;-1.2467;
248.1000;0.9280;-1.2616;
248.4000;0.9345;-1.2217;
248.7000;0.9328;-1.2118;
249.0000;0.9320;-1.2143;
249.3000;0.9320;-1.2143;
249.6000;0.9369;-1.2043;
249.9000;0.9263;-1.2442;
250.2000;0.9337;-1.2242;
250.5000;0.9337;-1.2242;
250.8000;0.9345;-1.2267;
251.1000;0.9345;-1.2192;
251.4000;0.9345;-1.2192;
251.7000;0.9337;-1.2192;
252.0000;0.9320;-1.2317;
252.3000;0.9320;-1.2367;
252.6000;0.9353;-1.2242;
252.9000;0.9312;-1.2292;
253.2000;0.9304;-1.2292;
253.5000;0.9337;-1.2217;
253.8000;0.9369;-1.2093;
254.1000;0.9320;-1.2118;
254.4000;0.9361;-1.2118;
254.7000;0.9353;-1.2167;
255.0000;0.9337;-1.2167;
255.3000;0.9337;-1.2143;
255.6000;0.9328;-1.2167;
255.9000;0.9296;-1.2367;
256.2000;0.9320;-1.2317;
256.5000;0.9312;-1.2417;
256.8000;0.9320;-1.2467;
257.1000;0.9320;-1.2517;
257.4000;0.9312;-1.2442;
257.7000;0.9328;-1.2467;
258.0000;0.9312;-1.2492;
258.3000;0.9304;-1.2566;
258.6000;0.9328;-1.2517;
258.9000;0.9345;-1.2392;
259.2000;0.9312;-1.2392;
259.5000;0.9312;-1.2417;
259.8000;0.9320;-1.2442;
260.1000;0.9296;-1.2566;
260.4000;0.9328;-1.2517;
260.7000;0.9296;-1.2467;
261.0000;0.9304;-1.2392;
261.3000;0.9320;-1.2367;
261.6000;0.9361;-1.2167;
261.9000;0.9271;-1.2367;
262.2000;0.9304;-1.2167;
262.5000;0.9320;-1.2217;
262.8000;0.9263;-1.2442;
263.1000;0.9296;-1.2442;
263.4000;0.9304;-1.2467;
263.7000;0.9304;-1.2566;
264.0000;0.9304;-1.2541;
264.3000;0.9320;-1.2467;
264.6000;0.9320;-1.2492;
264.9000;0.9320;-1.2541;
265.2000;0.9304;-1.2566;
265.5000;0.9320;-1.2492;
265.8000;0.9214;-1.2666;
266.1000;0.9320;-1.2367;
266.4000;0.9337;-1.2217;
266.7000;0.9280;-1.2342;
267.0000;0.9304;-1.2292;
267.3000;0.9304;-1.2242;
267.6000;0.9304;-1.2167;
267.9000;0.9288;-1.2217;
268.2000;0.9328;-1.2143;
268.5000;0.9288;-1.2267;
268.8000;0.9320;-1.2267;
269.1000;0.9337;-1.2118;
269.4000;0.9328;-1.2043;
269.7000;0.9312;-1.2043;
270.0000;0.9296;-1.2018;
270.3000;0.9320;-1.1818;
270.6000;0.9328;-1.1793;
270.9000;0.9320;-1.1769;
271.2000;0.9312;-1.1868;
271.5000;0.9328;-1.2018;
271.8000;0.9312;-1.2143;
272.1000;0.9223;-1.2442;
272.4000;0.9280;-1.2267;
272.7000;0.9312;-1.2217;
273.0000;0.9271;-1.2367;
273.3000;0.9312;-1.2217;
273.6000;0.9312;-1.2317;
273.9000;0.9328;-1.2317;
274.2000;0.9328;-1.2317;
274.5000;0.9337;-1.2267;
274.8000;0.9328;-1.2367;
275.1000;0.9320;-1.2367;
275.4000;0.9304;-1.2367;
275.7000;0.9320;-1.2367;
276.0000;0.9296;-1.2367;
276.3000;0.9280;-1.2417;
276.6000;0.9304;-1.2292;
276.9000;0.9345;-1.2192;
277.2000;0.9320;-1.2292;
277.5000;0.9296;-1.2292;
277.8000;0.9312;-1.2242;
278.1000;0.9288;-1.2317;
278.4000;0.9320;-1.2217;
278.7000;0.9288;-1.2317;
279.0000;0.9288;-1.2292;
279.3000;0.9304;-1.2317;
279.6000;0.9312;-1.2292;
279.9000;0.9280;-1.2342;
280.2000;0.9263;-1.2467;
280.5000;0.9296;-1.2317;
280.8000;0.9304;-1.2292;
281.1000;0.9312;-1.2167;
281.4000;0.9361;-1.1993;
281.7000;0.9271;-1.2143;
282.0000;0.9296;-1.2118;
282.3000;0.9288;-1.2118;
282.6000;0.9263;-1.2143;
282.9000;0.9296;-1.2043;
283.2000;0.9288;-1.2043;
283.5000;0.9280;-1.2093;
283.8000;0.9288;-1.1993;
284.1000;0.9263;-1.2093;
284.4000;0.9296;-1.1993;
284.7000;0.9263;-1.2018;
285.0000;0.9296;-1.1918;
285.3000;0.9304;-1.1893;
285.6000;0.9320;-1.1918;
285.9000;0.9296;-1.2043;
286.2000;0.9288;-1.2068;
286.5000;0.9280;-1.2217;
286.8000;0.9304;-1.2267;
287.1000;0.9296;-1.2267;
287.4000;0.9288;-1.2217;
287.7000;0.9280;-1.2167;
288.0000;0.9296;-1.2043;
288.3000;0.9304;-1.2093;
288.6000;0.9296;-1.2093;
288.9000;0.9296;-1.2068;
289.2000;0.9280;-1.2118;
289.5000;0.9296;-1.2093;
289.8000;0.9280;-1.2118;
290.1000;0.9312;-1.1968;
290.4000;0.9288;-1.2093;
290.7000;0.9304;-1.2093;
291.0000;0.9312;-1.2118;
291.3000;0.9312;-1.2043;
291.6000;0.9312;-1.1993;
291.9000;0.9296;-1.1893;
292.2000;0.9304;-1.1893;
292.5000;0.9280;-1.1943;
292.8000;0.9280;-1.1918;
293.1000;0.9328;-1.1868;
293.4000;0.9288;-1.2143;
293.7000;0.9255;-1.2242;
294.0000;0.9337;-1.2068;
294.3000;0.9296;-1.2167;
294.6000;0.9280;-1.2093;
294.9000;0.9223;-1.2292;
295.2000;0.9304;-1.2043;
295.5000;0.9296;-1.2118;
295.8000;0.9296;-1.2068;
296.1000;0.9353;-1.1943;
296.4000;0.9288;-1.2118;
296.7000;0.9337;-1.2018;
297.0000;0.9345;-1.2068;
297.3000;0.9288;-1.2167;
297.6000;0.9280;-1.2242;
297.9000;0.9304;-1.2167;
298.2000;0.9304;-1.2192;
298.5000;0.9312;-1.2242;
298.8000;0.9280;-1.2342;
299.1000;0.9255;-1.2317;
299.4000;0.9280;-1.2317;
299.7000;0.9263;-1.2367;
300.0000;0.9271;-1.2392;
300.3000;0.9296;-1.2342;
300.6000;0.9296;-1.2292;
300.9000;0.9255;-1.2267;
301.2000;0.9312;-1.2068;
301.5000;0.9296;-1.2167;
301.8000;0.9288;-1.2068;
302.1000;0.9280;-1.1993;
302.4000;0.9280;-1.2043;
302.7000;0.9271;-1.2043;
303.0000;0.9263;-1.2043;
303.3000;0.9353;-1.1943;
303.6000;0.9304;-1.2018;
303.9000;0.9296;-1.1993;
304.2000;0.9296;-1.1943;
304.5000;0.9288;-1.2068;
304.8000;0.9296;-1.1993;
305.1000;0.9263;-1.2018;
305.4000;0.9280;-1.2068;
305.7000;0.9280;-1.2043;
306.0000;0.9288;-1.2068;
306.3000;0.9304;-1.1993;
306.6000;0.9288;-1.2068;
306.9000;0.9263;-1.2093;
307.2000;0.9288;-1.2043;
307.5000;0.9255;-1.2093;
307.8000;0.9255;-1.2043;
308.1000;0.9255;-1.2018;
308.4000;0.9263;-1.1943;
308.7000;0.9328;-1.1843;
309.0000;0.9288;-1.1993;
309.3000;0.9280;-1.1968;
309.6000;0.9255;-1.1943;
309.9000;0.9263;-1.1993;
310.2000;0.9271;-1.2068;
310.5000;0.9271;-1.2018;
310.8000;0.9280;-1.1943;
311.1000;0.9255;-1.2018;
311.4000;0.9280;-1.2118;
311.7000;0.9288;-1.2167;
312.0000;0.9271;-1.2217;
312.3000;0.9288;-1.2068;
312.6000;0.9271;-1.2068;
312.9000;0.9271;-1.2018;
313.2000;0.9271;-1.2068;
313.5000;0.9280;-1.2068;
313.8000;0.9288;-1.1993;
314.1000;0.9280;-1.2068;
314.4000;0.9263;-1.2018;
314.7000;0.9263;-1.2043;
315.0000;0.9271;-1.2093;
315.3000;0.9280;-1.2167;
315.6000;0.9263;-1.2167;
315.9000;0.9263;-1.2267;
316.2000;0.9271;-1.2242;
316.5000;0.9296;-1.2143;
316.8000;0.9288;-1.2143;
317.1000;0.9263;-1.2167;
317.4000;0.9337;-1.2043;
317.7000;0.9255;-1.2242;
318.0000;0.9263;-1.2068;
318.3000;0.9263;-1.2143;
318.6000;0.9255;-1.2118;
318.9000;0.9263;-1.2043;
319.2000;0.9255;-1.1993;
319.5000;0.9263;-1.1943;
319.8000;0.9247;-1.2043;
320.1000;0.9271;-1.1943;
320.4000;0.9214;-1.2118;
320.7000;0.9239;-1.2043;
321.0000;0.9263;-1.1993;
321.3000;0.9271;-1.2018;
321.6000;0.9223;-1.2192;
321.9000;0.9255;-1.2118;
322.2000;0.9247;-1.2068;
322.5000;0.9231;-1.2093;
322.8000;0.9263;-1.1918;
323.1000;0.9239;-1.1943;
323.4000;0.9255;-1.2018;
323.7000;0.9328;-1.1943;
324.0000;0.9263;-1.2217;
324.3000;0.9247;-1.2217;
324.6000;0.9247;-1.2217;
324.9000;0.9247;-1.2267;
325.2000;0.9255;-1.2242;
325.5000;0.9288;-1.2167;
325.8000;0.9174;-1.2492;
326.1000;0.9353;-1.2018;
326.4000;0.9328;-1.2068;
326.7000;0.9288;-1.2093;
327.0000;0.9263;-1.2093;
327.3000;0.9271;-1.2093;
327.6000;0.9271;-1.2118;
327.9000;0.9263;-1.2118;
328.2000;0.9263;-1.2143;
328.5000;0.9255;-1.2143;
328.8000;0.9255;-1.2143;
329.1000;0.9280;-1.2043;
329.4000;0.9247;-1.2217;
329.7000;0.9255;-1.2143;
330.0000;0.9247;-1.2093;
330.3000;0.9263;-1.1968;
330.6000;0.9263;-1.2043;
330.9000;0.9255;-1.2068;
331.2000;0.9263;-1.2093;
331.5000;0.9239;-1.2192;
331.8000;0.9263;-1.2167;
332.1000;0.9239;-1.2267;
332.4000;0.9247;-1.2167;
332.7000;0.9255;-1.2093;
333.0000;0.9271;-1.1943;
333.3000;0.9263;-1.1918;
333.6000;0.9247;-1.2018;
333.9000;0.9255;-1.2143;
334.2000;0.9239;-1.2143;
334.5000;0.9247;-1.2143;
334.8000;0.9239;-1.2118;
335.1000;0.9255;-1.1993;
335.4000;0.9255;-1.2018;
335.7000;0.9255;-1.2043;
336.0000;0.9255;-1.1968;
336.3000;0.9255;-1.1993;
336.6000;0.9239;-1.1918;
336.9000;0.9263;-1.1843;
337.2000;0.9247;-1.1893;
337.5000;0.9255;-1.1868;
337.8000;0.9255;-1.1843;
338.1000;0.9255;-1.1868;
338.4000;0.9239;-1.1893;
338.7000;0.9263;-1.1868;
339.0000;0.9255;-1.1893;
339.3000;0.9247;-1.1868;
339.6000;0.9247;-1.1943;
339.9000;0.9231;-1.2093;
340.2000;0.9231;-1.2143;
340.5000;0.9247;-1.2167;
340.8000;0.9239;-1.2167;
341.1000;0.9231;-1.2267;
341.4000;0.9263;-1.2192;
341.7000;0.9255;-1.2217;
342.0000;0.9247;-1.2292;
342.3000;0.9255;-1.2317;
342.6000;0.9231;-1.2217;
342.9000;0.9239;-1.2167;
343.2000;0.9255;-1.2118;
343.5000;0.9255;-1.2093;
343.8000;0.9239;-1.2143;
344.1000;0.9255;-1.2018;
344.4000;0.9223;-1.1993;
344.7000;0.9231;-1.1968;
345.0000;0.9223;-1.1968;
345.3000;0.9231;-1.1893;
345.6000;0.9247;-1.1868;
345.9000;0.9206;-1.2018;
346.2000;0.9247;-1.2018;
346.5000;0.9239;-1.1968;
346.8000;0.9247;-1.2018;
347.1000;0.9239;-1.2093;
347.4000;0.9255;-1.2118;
347.7000;0.9247;-1.2143;
348.0000;0.9255;-1.2242;
348.3000;0.9320;-1.1993;
348.6000;0.9255;-1.2143;
348.9000;0.9214;-1.2217;
349.2000;0.9231;-1.2143;
349.5000;0.9247;-1.2143;
349.8000;0.9247;-1.2143;
350.1000;0.9182;-1.2267;
350.4000;0.9239;-1.2068;
350.7000;0.9166;-1.2217;
351.0000;0.9239;-1.1968;
351.3000;0.9206;-1.1968;
351.6000;0.9239;-1.1868;
351.9000;0.9247;-1.1868;
352.2000;0.9263;-1.1793;
352.5000;0.9247;-1.1769;
352.8000;0.9255;-1.1719;
353.1000;0.9239;-1.1893;
353.4000;0.9255;-1.1893;
353.7000;0.9255;-1.1818;
354.0000;0.9247;-1.1843;
354.3000;0.9231;-1.1868;
354.6000;0.9247;-1.1893;
354.9000;0.9223;-1.1993;
355.2000;0.9239;-1.1968;
355.5000;0.9231;-1.1918;
355.8000;0.9255;-1.1793;
356.1000;0.9223;-1.1868;
356.4000;0.9239;-1.1843;
356.7000;0.9231;-1.1993;
357.0000;0.9231;-1.1993;
357.3000;0.9271;-1.1893;
357.6000;0.9239;-1.1893;
357.9000;0.9223;-1.1993;
358.2000;0.9239;-1.1868;
358.5000;0.9239;-1.1843;
358.8000;0.9239;-1.1943;
359.1000;0.9231;-1.1993;
359.4000;0.9198;-1.2118;
359.7000;0.9239;-1.1993;
360.0000;0.9239;-1.2018;
360.3000;0.9239;-1.1993;
360.6000;0.9214;-1.1943;
360.9000;0.9239;-1.1893;
361.2000;0.9231;-1.1918;
361.5000;0.9198;-1.1993;
361.8000;0.9231;-1.1968;
362.1000;0.9231;-1.1993;
362.4000;0.9239;-1.1993;
362.7000;0.9223;-1.1968;
363.0000;0.9239;-1.1843;
363.3000;0.9231;-1.1818;
363.6000;0.9231;-1.1918;
363.9000;0.9255;-1.1793;
364.2000;0.9263;-1.1744;
364.5000;0.9198;-1.1843;
364.8000;0.9206;-1.1943;
365.1000;0.9223;-1.1918;
365.4000;0.9190;-1.1968;
365.7000;0.9182;-1.2043;
366.0000;0.9214;-1.2068;
366.3000;0.9223;-1.2068;
366.6000;0.9223;-1.1993;
366.9000;0.9239;-1.2018;
367.2000;0.9231;-1.1993;
367.5000;0.9231;-1.2018;
367.8000;0.9255;-1.2018;
368.1000;0.9239;-1.2018;
368.4000;0.9231;-1.1943;
368.7000;0.9239;-1.1943;
369.0000;0.9239;-1.1993;
369.3000;0.9223;-1.2018;
369.6000;0.9190;-1.2118;
369.9000;0.9328;-1.1744;
370.2000;0.9255;-1.1843;
370.5000;0.9231;-1.1993;
370.8000;0.9255;-1.1943;
371.1000;0.9247;-1.1968;
371.4000;0.9239;-1.1918;
371.7000;0.9223;-1.1893;
372.0000;0.9223;-1.1868;
372.3000;0.9206;-1.1818;
372.6000;0.9239;-1.1818;
372.9000;0.9239;-1.1843;
373.2000;0.9223;-1.1943;
373.5000;0.9231;-1.1918;
373.8000;0.9231;-1.2043;
374.1000;0.9231;-1.2118;
374.4000;0.9223;-1.2093;
374.7000;0.9288;-1.1893;
375.0000;0.9247;-1.2043;
375.3000;0.9231;-1.2018;
375.6000;0.9255;-1.2068;
375.9000;0.9206;-1.2118;
376.2000;0.9206;-1.2018;
376.5000;0.9214;-1.2018;
376.8000;0.9214;-1.2068;
377.1000;0.9239;-1.1968;
377.4000;0.9214;-1.1893;
377.7000;0.9231;-1.1843;
378.0000;0.9117;-1.2018;
378.3000;0.9214;-1.1744;
378.6000;0.9214;-1.1769;
378.9000;0.9239;-1.1669;
379.2000;0.9223;-1.1769;
379.5000;0.9231;-1.1843;
379.8000;0.9214;-1.1818;
380.1000;0.9223;-1.1793;
380.4000;0.9239;-1.1818;
380.7000;0.9239;-1.1843;
381.0000;0.9231;-1.1843;
381.3000;0.9223;-1.1918;
381.6000;0.9231;-1.1918;
381.9000;0.9223;-1.2018;
382.2000;0.9288;-1.1918;
382.5000;0.9214;-1.2043;
382.8000;0.9198;-1.2018;
383.1000;0.9223;-1.2068;
383.4000;0.9190;-1.2217;
383.7000;0.9214;-1.2192;
384.0000;0.9206;-1.2217;
384.3000;0.9206;-1.2317;
384.6000;0.9206;-1.2242;
384.9000;0.9198;-1.2192;
385.2000;0.9223;-1.2068;
385.5000;0.9223;-1.1993;
385.8000;0.9214;-1.2018;
386.1000;0.9125;-1.2192;
386.4000;0.9214;-1.2043;
386.7000;0.9198;-1.2093;
387.0000;0.9166;-1.2143;
387.3000;0.9206;-1.1993;
387.6000;0.9206;-1.1968;
387.9000;0.9214;-1.2043;
388.2000;0.9214;-1.1993;
388.5000;0.9166;-1.2217;
388.8000;0.9214;-1.2043;
389.1000;0.9263;-1.1968;
389.4000;0.9214;-1.1993;
389.7000;0.9190;-1.1918;
390.0000;0.9223;-1.1818;
390.3000;0.9206;-1.1893;
390.6000;0.9288;-1.1818;
390.9000;0.9214;-1.2093;
391.2000;0.9206;-1.2167;
391.5000;0.9223;-1.2192;
391.8000;0.9214;-1.2118;
392.1000;0.9214;-1.2118;
392.4000;0.9198;-1.2217;
392.7000;0.9231;-1.2043;
393.0000;0.9223;-1.2093;
393.3000;0.9174;-1.2192;
393.6000;0.9182;-1.2143;
393.9000;0.9190;-1.2167;
394.2000;0.9247;-1.2043;
394.5000;0.9198;-1.2093;
394.8000;0.9231;-1.2068;
395.1000;0.9174;-1.2192;
395.4000;0.9190;-1.2068;
395.7000;0.9206;-1.2043;
396.0000;0.9214;-1.1943;
396.3000;0.9198;-1.2018;
396.6000;0.9206;-1.2068;
396.9000;0.9223;-1.2068;
397.2000;0.9198;-1.2167;
397.5000;0.9174;-1.2143;
397.8000;0.9190;-1.2018;
398.1000;0.9223;-1.1993;
398.4000;0.9223;-1.1943;
398.7000;0.9280;-1.1893;
399.0000;0.9214;-1.2018;
399.3000;0.9206;-1.2018;
399.6000;0.9255;-1.1843;
399.9000;0.9174;-1.2018;
400.2000;0.9158;-1.2043;
400.5000;0.9158;-1.1993;
400.8000;0.9223;-1.1818;
401.1000;0.9190;-1.1843;
401.4000;0.9190;-1.1868;
401.7000;0.9198;-1.1793;
402.0000;0.9198;-1.1868;
402.3000;0.9206;-1.1893;
402.6000;0.9198;-1.1943;
402.9000;0.9190;-1.1818;
403.2000;0.9190;-1.1868;
403.5000;0.9206;-1.1843;
403.8000;0.9231;-1.1868;
404.1000;0.9198;-1.1918;
404.4000;0.9206;-1.1843;
404.7000;0.9198;-1.1943;
405.0000;0.9198;-1.1918;
405.3000;0.9198;-1.1968;
405.6000;0.9214;-1.1918;
405.9000;0.9206;-1.1943;
406.2000;0.9214;-1.1893;
406.5000;0.9182;-1.1893;
406.8000;0.9198;-1.1818;
407.1000;0.9231;-1.1793;
407.4000;0.9206;-1.1868;
407.7000;0.9198;-1.1868;
408.0000;0.9223;-1.1818;
408.3000;0.9198;-1.1918;
408.6000;0.9206;-1.1943;
408.9000;0.9206;-1.2093;
409.2000;0.9149;-1.2292;
409.5000;0.9190;-1.2118;
409.8000;0.9223;-1.2018;
410.1000;0.9239;-1.2043;
410.4000;0.9214;-1.2143;
410.7000;0.9133;-1.2217;
411.0000;0.9206;-1.1968;
411.3000;0.9214;-1.1943;
411.6000;0.9206;-1.1968;
411.9000;0.9198;-1.2043;
412.2000;0.9182;-1.2093;
412.5000;0.9092;-1.2292;
412.8000;0.9133;-1.2068;
413.1000;0.9174;-1.2018;
413.4000;0.9109;-1.2267;
413.7000;0.9198;-1.2018;
414.0000;0.9198;-1.1918;
414.3000;0.9125;-1.2118;
414.6000;0.9198;-1.2018;
414.9000;0.9214;-1.2043;
415.2000;0.9198;-1.2093;
415.5000;0.9182;-1.2068;
415.8000;0.9158;-1.2093;
416.1000;0.9239;-1.1843;
416.4000;0.9206;-1.2043;
416.7000;0.9182;-1.2018;
417.0000;0.9198;-1.1868;
417.3000;0.9206;-1.1893;
417.6000;0.9271;-1.1694;
417.9000;0.9214;-1.1793;
418.2000;0.9296;-1.1644;
418.5000;0.9190;-1.1868;
418.8000;0.9198;-1.1918;
419.1000;0.9190;-1.1943;
419.4000;0.9158;-1.2068;
419.7000;0.9255;-1.1918;
420.0000;0.9190;-1.2068;
420.3000;0.9190;-1.2093;
420.6000;0.9214;-1.1943;
420.9000;0.9198;-1.1868;
421.2000;0.9190;-1.1893;
421.5000;0.9214;-1.1744;
421.8000;0.9182;-1.1744;
422.1000;0.9182;-1.1744;
422.4000;0.9174;-1.1818;
422.7000;0.9182;-1.1943;
423.0000;0.9166;-1.1993;
423.3000;0.9182;-1.1893;
423.6000;0.9166;-1.1868;
423.9000;0.9198;-1.1818;
424.2000;0.9182;-1.1769;
424.5000;0.9182;-1.1793;
424.8000;0.9190;-1.1818;
425.1000;0.9174;-1.1918;
425.4000;0.9182;-1.1843;
425.7000;0.9198;-1.1968;
426.0000;0.9174;-1.2068;
426.3000;0.9198;-1.2093;
426.6000;0.9223;-1.2068;
426.9000;0.9214;-1.2093;
427.2000;0.9190;-1.2068;
427.5000;0.9190;-1.2043;
427.8000;0.9190;-1.2018;
428.1000;0.9174;-1.2018;
428.4000;0.9182;-1.1943;
428.7000;0.9182;-1.1868;
429.0000;0.9182;-1.1893;
429.3000;0.9166;-1.1968;
429.6000;0.9174;-1.1868;
429.9000;0.9190;-1.1918;
430.2000;0.9190;-1.1968;
430.5000;0.9174;-1.2043;
430.8000;0.9288;-1.1644;
431.1000;0.9149;-1.2018;
431.4000;0.9149;-1.1993;
431.7000;0.9198;-1.1893;
432.0000;0.9198;-1.1968;
432.3000;0.9125;-1.2118;
432.6000;0.9158;-1.1968;
432.9000;0.9174;-1.1868;
433.2000;0.9092;-1.2068;
433.5000;0.9109;-1.2093;
433.8000;0.9190;-1.1793;
434.1000;0.9174;-1.1868;
434.4000;0.9166;-1.1893;
434.7000;0.9182;-1.1893;
435.0000;0.9198;-1.1918;
435.3000;0.9133;-1.2018;
435.6000;0.9198;-1.1818;
435.9000;0.9182;-1.1868;
436.2000;0.9133;-1.1893;
436.5000;0.9190;-1.1744;
436.8000;0.9182;-1.1769;
437.1000;0.9182;-1.1843;
437.4000;0.9149;-1.1918;
437.7000;0.9190;-1.1893;
438.0000;0.9174;-1.1943;
438.3000;0.9190;-1.1918;
438.6000;0.9182;-1.1968;
438.9000;0.9174;-1.1993;
439.2000;0.9255;-1.1769;
439.5000;0.9174;-1.1918;
439.8000;0.9182;-1.1918;
440.1000;0.9182;-1.1893;
440.4000;0.9190;-1.1893;
440.7000;0.9190;-1.1843;
441.0000;0.9214;-1.1744;
441.3000;0.9182;-1.1793;
441.6000;0.9190;-1.1793;
441.9000;0.9182;-1.1868;
442.2000;0.9141;-1.1993;
442.5000;0.9166;-1.1943;
442.8000;0.9166;-1.1893;
443.1000;0.9158;-1.1943;
443.4000;0.9239;-1.1744;
443.7000;0.9149;-1.1793;
444.0000;0.9158;-1.1769;
444.3000;0.9174;-1.1744;
444.6000;0.9158;-1.1843;
444.9000;0.9166;-1.1843;
445.2000;0.9182;-1.1868;
445.5000;0.9166;-1.1993;
445.8000;0.9166;-1.2018;
446.1000;0.9182;-1.2018;
446.4000;0.9182;-1.2093;
446.7000;0.9190;-1.1968;
447.0000;0.9182;-1.1818;
447.3000;0.9149;-1.1843;
447.6000;0.9174;-1.1744;
447.9000;0.9182;-1.1744;
448.2000;0.9166;-1.1719;
448.5000;0.9190;-1.1594;
448.8000;0.9174;-1.1644;
449.1000;0.9166;-1.1669;
449.4000;0.9174;-1.1594;
449.7000;0.9166;-1.1669;
450.0000;0.9190;-1.1619;
450.3000;0.9166;-1.1769;
450.6000;0.9190;-1.1744;
450.9000;0.9182;-1.1868;
451.2000;0.9174;-1.1943;
451.5000;0.9174;-1.1943;
451.8000;0.9182;-1.1893;
452.1000;0.9158;-1.1893;
452.4000;0.9158;-1.1843;
452.7000;0.9149;-1.1818;
453.0000;0.9174;-1.1868;
453.3000;0.9174;-1.1918;
453.6000;0.9182;-1.1943;
453.9000;0.9166;-1.1893;
454.2000;0.9166;-1.1744;
454.5000;0.9182;-1.1719;
454.8000;0.9149;-1.1893;
455.1000;0.9166;-1.1868;
455.4000;0.9198;-1.1694;
455.7000;0.9198;-1.1769;
456.0000;0.9166;-1.1893;
456.3000;0.9117;-1.2068;
456.6000;0.9214;-1.1769;
456.9000;0.9174;-1.1843;
457.2000;0.9060;-1.2192;
457.5000;0.9125;-1.1993;
457.8000;0.9182;-1.1843;
458.1000;0.9223;-1.1694;
458.4000;0.9166;-1.1669;
458.7000;0.9158;-1.1719;
459.0000;0.9158;-1.1769;
459.3000;0.9166;-1.1669;
459.6000;0.9158;-1.1669;
459.9000;0.9149;-1.1744;
460.2000;0.9182;-1.1594;
460.5000;0.9174;-1.1544;
460.8000;0.9092;-1.1769;
461.1000;0.9101;-1.1769;
461.4000;0.9174;-1.1644;
461.7000;0.9174;-1.1619;
462.0000;0.9182;-1.1619;
462.3000;0.9182;-1.1594;
462.6000;0.9166;-1.1644;
462.9000;0.9166;-1.1644;
463.2000;0.9084;-1.1818;
463.5000;0.9149;-1.1569;
463.8000;0.9231;-1.1444;
464.1000;0.9190;-1.1569;
464.4000;0.9158;-1.1694;
464.7000;0.9166;-1.1843;
465.0000;0.9158;-1.1943;
465.3000;0.9141;-1.2068;
465.6000;0.9149;-1.1968;
465.9000;0.9158;-1.2018;
466.2000;0.9166;-1.2043;
466.5000;0.9149;-1.2118;
466.8000;0.9141;-1.2043;
467.1000;0.9166;-1.1893;
467.4000;0.9158;-1.1868;
467.7000;0.9166;-1.1943;
468.0000;0.9158;-1.1968;
468.3000;0.9166;-1.1993;
468.6000;0.9174;-1.1968;
468.9000;0.9206;-1.1893;
469.2000;0.9149;-1.2167;
469.5000;0.9174;-1.2143;
469.8000;0.9158;-1.2167;
470.1000;0.9141;-1.2143;
470.4000;0.9149;-1.2143;
470.7000;0.9166;-1.2143;
471.0000;0.9158;-1.2167;
471.3000;0.9182;-1.2118;
471.6000;0.9158;-1.2242;
471.9000;0.9174;-1.2093;
472.2000;0.9182;-1.2118;
472.5000;0.9158;-1.2217;
472.8000;0.9174;-1.2267;
473.1000;0.9149;-1.2292;
473.4000;0.9190;-1.2143;
473.7000;0.9166;-1.2093;
474.0000;0.9166;-1.1918;
474.3000;0.9149;-1.1769;
474.6000;0.9158;-1.1719;
474.9000;0.9149;-1.1719;
475.2000;0.9133;-1.1769;
475.5000;0.9158;-1.1694;
475.8000;0.9125;-1.1793;
476.1000;0.9166;-1.1719;
476.4000;0.9158;-1.1669;
476.7000;0.9149;-1.1644;
477.0000;0.9133;-1.1594;
477.3000;0.9158;-1.1594;
477.6000;0.9149;-1.1669;
477.9000;0.9149;-1.1744;
478.2000;0.9068;-1.1943;
478.5000;0.9117;-1.1943;
478.8000;0.9149;-1.1893;
479.1000;0.9166;-1.1943;
479.4000;0.9149;-1.1993;
479.7000;0.9158;-1.2018;
480.0000;0.9149;-1.1918;
480.3000;0.9141;-1.1943;
480.6000;0.9149;-1.1893;
480.9000;0.9174;-1.1843;
481.2000;0.9166;-1.1744;
481.5000;0.9149;-1.1868;
481.8000;0.9149;-1.1744;
482.1000;0.9158;-1.1719;
482.4000;0.9174;-1.1694;
482.7000;0.9166;-1.1694;
483.0000;0.9149;-1.1744;
483.3000;0.9149;-1.1793;
483.6000;0.9149;-1.1669;
483.9000;0.9117;-1.1719;
484.2000;0.9133;-1.1694;
484.5000;0.9149;-1.1744;
484.8000;0.9141;-1.1793;
485.1000;0.9158;-1.1843;
485.4000;0.9117;-1.1943;
485.7000;0.9158;-1.1843;
486.0000;0.9158;-1.1818;
486.3000;0.9125;-1.1943;
486.6000;0.9158;-1.1843;
486.9000;0.9158;-1.1868;
487.2000;0.9149;-1.1943;
487.5000;0.9158;-1.1918;
487.8000;0.9182;-1.1918;
488.1000;0.9158;-1.1968;
488.4000;0.9158;-1.1943;
488.7000;0.9271;-1.1619;
489.0000;0.9174;-1.1818;
489.3000;0.9141;-1.1818;
489.6000;0.9133;-1.1793;
489.9000;0.9117;-1.1843;
490.2000;0.9158;-1.1669;
490.5000;0.9141;-1.1769;
490.8000;0.9125;-1.1868;
491.1000;0.9084;-1.1943;
491.4000;0.9141;-1.1744;
491.7000;0.9206;-1.1594;
492.0000;0.9198;-1.1594;
492.3000;0.9149;-1.1644;
492.6000;0.9076;-1.1843;
492.9000;0.9133;-1.1669;
493.2000;0.9149;-1.1519;
493.5000;0.9068;-1.1843;
493.8000;0.9158;-1.1619;
494.1000;0.9223;-1.1519;
494.4000;0.9174;-1.1494;
494.7000;0.9141;-1.1569;
495.0000;0.9125;-1.1694;
495.3000;0.9166;-1.1544;
495.6000;0.9149;-1.1544;
495.9000;0.9158;-1.1519;
496.2000;0.9149;-1.1444;
496.5000;0.9166;-1.1419;
496.8000;0.9158;-1.1419;
497.1000;0.9149;-1.1519;
497.4000;0.9141;-1.1594;
497.7000;0.9166;-1.1619;
498.0000;0.9174;-1.1793;
498.3000;0.9149;-1.1793;
498.6000;0.9158;-1.1818;
498.9000;0.9149;-1.1769;
499.2000;0.9166;-1.1719;
499.5000;0.9133;-1.1694;
499.8000;0.9141;-1.1669;
500.1000;0.9166;-1.1644;
500.4000;0.9133;-1.1744;
500.7000;0.9141;-1.1843;
501.0000;0.9109;-1.1818;
501.3000;0.9133;-1.1744;
501.6000;0.9141;-1.1719;
501.9000;0.9084;-1.1843;
502.2000;0.9158;-1.1719;
502.5000;0.9174;-1.1818;
502.8000;0.9158;-1.1818;
503.1000;0.9133;-1.1769;
503.4000;0.9125;-1.1793;
503.7000;0.9149;-1.1744;
504.0000;0.9133;-1.1843;
504.3000;0.9133;-1.1893;
504.6000;0.9182;-1.1744;
504.9000;0.9125;-1.1868;
505.2000;0.9117;-1.1918;
505.5000;0.9141;-1.1868;
505.8000;0.9117;-1.1868;
506.1000;0.9117;-1.1818;
506.4000;0.9133;-1.1744;
506.7000;0.9182;-1.1694;
507.0000;0.9117;-1.1943;
507.3000;0.9141;-1.1918;
507.6000;0.9117;-1.1968;
507.9000;0.9133;-1.1893;
508.2000;0.9133;-1.1918;
508.5000;0.9133;-1.1918;
508.8000;0.8987;-1.2242;
509.1000;0.9166;-1.1669;
509.4000;0.9084;-1.1769;
509.7000;0.9158;-1.1669;
510.0000;0.9223;-1.1569;
510.3000;0.9182;-1.1669;
510.6000;0.9141;-1.1744;
510.9000;0.9166;-1.1669;
511.2000;0.9182;-1.1569;
511.5000;0.9166;-1.1619;
511.8000;0.9141;-1.1719;
512.1000;0.9141;-1.1744;
512.4000;0.9117;-1.1818;
512.7000;0.9117;-1.1893;
513.0000;0.9149;-1.1769;
513.3000;0.9133;-1.1769;
513.6000;0.9158;-1.1719;
513.9000;0.9101;-1.1818;
514.2000;0.9125;-1.1744;
514.5000;0.9125;-1.1719;
514.8000;0.9117;-1.1769;
515.1000;0.9076;-1.1893;
515.4000;0.9125;-1.1918;
515.7000;0.9141;-1.1793;
516.0000;0.9117;-1.1893;
516.3000;0.9125;-1.1868;
516.6000;0.9076;-1.1893;
516.9000;0.9133;-1.1843;
517.2000;0.9141;-1.1893;
517.5000;0.9133;-1.1818;
517.8000;0.9076;-1.1843;
518.1000;0.9101;-1.1868;
518.4000;0.9141;-1.1719;
518.7000;0.9101;-1.1793;
519.0000;0.9125;-1.1694;
519.3000;0.9133;-1.1619;
519.6000;0.9125;-1.1719;
519.9000;0.9109;-1.1793;
520.2000;0.9158;-1.1719;
520.5000;0.9133;-1.1793;
520.8000;0.9141;-1.1644;
521.1000;0.9133;-1.1719;
521.4000;0.9141;-1.1769;
521.7000;0.9133;-1.1719;
522.0000;0.9125;-1.1619;
522.3000;0.9141;-1.1594;
522.6000;0.9125;-1.1519;
522.9000;0.9158;-1.1444;
523.2000;0.9141;-1.1594;
523.5000;0.9149;-1.1494;
523.8000;0.9166;-1.1494;
524.1000;0.9133;-1.1619;
524.4000;0.9125;-1.1669;
524.7000;0.9141;-1.1669;
525.0000;0.9141;-1.1619;
525.3000;0.9068;-1.1619;
525.6000;0.9182;-1.1345;
525.9000;0.9141;-1.1444;
526.2000;0.9117;-1.1519;
526.5000;0.9125;-1.1519;
526.8000;0.9133;-1.1519;
527.1000;0.9166;-1.1345;
527.4000;0.9255;-1.1045;
527.7000;0.9149;-1.1395;
528.0000;0.9141;-1.1419;
528.3000;0.9117;-1.1469;
528.6000;0.9158;-1.1494;
528.9000;0.9117;-1.1594;
529.2000;0.9125;-1.1544;
529.5000;0.9223;-1.1270;
529.8000;0.9133;-1.1519;
530.1000;0.9125;-1.1544;
530.4000;0.9158;-1.1569;
530.7000;0.9125;-1.1644;
531.0000;0.9133;-1.1669;
531.3000;0.9117;-1.1669;
531.6000;0.9149;-1.1519;
531.9000;0.9117;-1.1619;
532.2000;0.9109;-1.1694;
532.5000;0.9125;-1.1544;
532.8000;0.9158;-1.1469;
533.1000;0.9182;-1.1345;
533.4000;0.9158;-1.1419;
533.7000;0.9166;-1.1494;
534.0000;0.9149;-1.1544;
534.3000;0.9133;-1.1544;
534.6000;0.9133;-1.1519;
534.9000;0.9149;-1.1544;
535.2000;0.9158;-1.1569;
535.5000;0.9125;-1.1544;
535.8000;0.9125;-1.1594;
536.1000;0.9198;-1.1395;
536.4000;0.9125;-1.1594;
536.7000;0.9141;-1.1544;
537.0000;0.9109;-1.1619;
537.3000;0.9141;-1.1519;
537.6000;0.9125;-1.1619;
537.9000;0.9133;-1.1594;
538.2000;0.9141;-1.1494;
538.5000;0.9125;-1.1544;
538.8000;0.9214;-1.1395;
539.1000;0.9117;-1.1694;
539.4000;0.9117;-1.1818;
539.7000;0.9133;-1.1744;
540.0000;0.9117;-1.1694;
540.3000;0.9125;-1.1644;
540.6000;0.9117;-1.1644;
540.9000;0.9117;-1.1669;
541.2000;0.9133;-1.1569;
541.5000;0.9125;-1.1494;
541.8000;0.9117;-1.1569;
542.1000;0.9109;-1.1669;
542.4000;0.9109;-1.1694;
542.7000;0.9149;-1.1644;
543.0000;0.9133;-1.1644;
543.3000;0.9125;-1.1644;
543.6000;0.9117;-1.1644;
543.9000;0.9117;-1.1669;
544.2000;0.9117;-1.1594;
544.5000;0.9117;-1.1694;
544.8000;0.9109;-1.1669;
545.1000;0.9117;-1.1644;
545.4000;0.9125;-1.1594;
545.7000;0.9117;-1.1569;
546.0000;0.9117;-1.1594;
546.3000;0.9109;-1.1494;
546.6000;0.9133;-1.1494;
546.9000;0.9125;-1.1469;
547.2000;0.9125;-1.1544;
547.5000;0.9158;-1.1444;
547.8000;0.9084;-1.1619;
548.1000;0.9174;-1.1494;
548.4000;0.9084;-1.1719;
548.7000;0.9166;-1.1519;
549.0000;0.9133;-1.1544;
549.3000;0.9133;-1.1669;
549.6000;0.9214;-1.1419;
549.9000;0.9141;-1.1619;
550.2000;0.9141;-1.1544;
550.5000;0.9101;-1.1644;
550.8000;0.9117;-1.1644;
551.1000;0.9109;-1.1644;
551.4000;0.9101;-1.1644;
551.7000;0.9092;-1.1694;
552.0000;0.9109;-1.1669;
552.3000;0.9125;-1.1669;
552.6000;0.9174;-1.1594;
552.9000;0.9117;-1.1818;
553.2000;0.9117;-1.1843;
553.5000;0.9084;-1.1968;
553.8000;0.9092;-1.1943;
554.1000;0.9141;-1.1744;
554.4000;0.9133;-1.1818;
554.7000;0.9125;-1.1769;
555.0000;0.9125;-1.1843;
555.3000;0.9084;-1.1918;
555.6000;0.9149;-1.1694;
555.9000;0.9133;-1.1818;
556.2000;0.9109;-1.1893;
556.5000;0.9125;-1.1893;
556.8000;0.9158;-1.1793;
557.1000;0.9125;-1.1843;
557.4000;0.9141;-1.1719;
557.7000;0.9117;-1.1793;
558.0000;0.9125;-1.1818;
558.3000;0.9125;-1.1843;
558.6000;0.9117;-1.1818;
558.9000;0.9117;-1.1769;
559.2000;0.9133;-1.1793;
559.5000;0.9117;-1.1793;
559.8000;0.9117;-1.1719;
560.1000;0.9125;-1.1793;
560.4000;0.9117;-1.1868;
560.7000;0.9117;-1.1943;
561.0000;0.9125;-1.1943;
561.3000;0.9109;-1.1744;
561.6000;0.9101;-1.1843;
561.9000;0.9117;-1.1843;
562.2000;0.9109;-1.1868;
562.5000;0.9117;-1.1744;
562.8000;0.9125;-1.1719;
563.1000;0.9125;-1.1793;
563.4000;0.9101;-1.1868;
563.7000;0.9117;-1.1818;
564.0000;0.9101;-1.1769;
564.3000;0.9133;-1.1644;
564.6000;0.9109;-1.1719;
564.9000;0.9101;-1.1843;
565.2000;0.9101;-1.1893;
565.5000;0.9101;-1.1918;
565.8000;0.9117;-1.1769;
566.1000;0.9109;-1.1744;
566.4000;0.9109;-1.1843;
566.7000;0.9117;-1.1893;
567.0000;0.9109;-1.1868;
567.3000;0.9101;-1.1843;
567.6000;0.9092;-1.1943;
567.9000;0.9125;-1.1893;
568.2000;0.9109;-1.1918;
568.5000;0.9125;-1.1868;
568.8000;0.9109;-1.1893;
569.1000;0.9117;-1.1769;
569.4000;0.9117;-1.1793;
569.7000;0.9109;-1.1918;
570.0000;0.9101;-1.2018;
570.3000;0.9101;-1.2018;
570.6000;0.9084;-1.2068;
570.9000;0.9125;-1.1993;
571.2000;0.9092;-1.1993;
571.5000;0.9117;-1.1943;
571.8000;0.9117;-1.1893;
572.1000;0.9109;-1.1918;
572.4000;0.9125;-1.1943;
572.7000;0.9149;-1.1868;
573.0000;0.9117;-1.1918;
573.3000;0.9092;-1.1968;
573.6000;0.9109;-1.1868;
573.9000;0.9109;-1.1793;
574.2000;0.9117;-1.1694;
574.5000;0.9223;-1.1345;
574.8000;0.9109;-1.1669;
575.1000;0.9109;-1.1694;
575.4000;0.9109;-1.1669;
575.7000;0.9117;-1.1569;
576.0000;0.9117;-1.1644;
576.3000;0.9117;-1.1694;
576.6000;0.9109;-1.1843;
576.9000;0.9092;-1.1868;
577.2000;0.9125;-1.1793;
577.5000;0.9101;-1.1868;
577.8000;0.9133;-1.1719;
578.1000;0.9117;-1.1669;
578.4000;0.9125;-1.1719;
578.7000;0.9125;-1.1843;
579.0000;0.9117;-1.1843;
579.3000;0.9092;-1.1818;
579.6000;0.9109;-1.1793;
579.9000;0.9109;-1.1893;
580.2000;0.9084;-1.1943;
580.5000;0.9101;-1.1868;
580.8000;0.9117;-1.1793;
581.1000;0.9117;-1.1769;
581.4000;0.9092;-1.1744;
581.7000;0.9117;-1.1769;
582.0000;0.9109;-1.1769;
582.3000;0.9125;-1.1719;
582.6000;0.9109;-1.1719;
582.9000;0.9092;-1.1619;
583.2000;0.9101;-1.1619;
583.5000;0.9125;-1.1569;
583.8000;0.9101;-1.1669;
584.1000;0.9101;-1.1744;
584.4000;0.9084;-1.1893;
584.7000;0.9092;-1.1918;
585.0000;0.9117;-1.1818;
585.3000;0.9117;-1.1843;
585.6000;0.9117;-1.1769;
585.9000;0.9109;-1.1744;
586.2000;0.9101;-1.1793;
586.5000;0.9092;-1.1619;
586.8000;0.9109;-1.1644;
587.1000;0.9101;-1.1644;
587.4000;0.9109;-1.1669;
587.7000;0.9109;-1.1669;
588.0000;0.9101;-1.1619;
588.3000;0.9117;-1.1619;
588.6000;0.9125;-1.1669;
588.9000;0.9117;-1.1769;
589.2000;0.9101;-1.1719;
589.5000;0.9092;-1.1694;
589.8000;0.9174;-1.1419;
590.1000;0.9117;-1.1644;
590.4000;0.9125;-1.1669;
590.7000;0.9117;-1.1619;
591.0000;0.9109;-1.1619;
591.3000;0.9109;-1.1669;
591.6000;0.9109;-1.1669;
591.9000;0.9109;-1.1744;
592.2000;0.9117;-1.1719;
592.5000;0.9125;-1.1694;
592.8000;0.9117;-1.1669;
593.1000;0.9109;-1.1744;
593.4000;0.9109;-1.1669;
593.7000;0.9117;-1.1619;
594.0000;0.9117;-1.1619;
594.3000;0.9044;-1.1793;
594.6000;0.9158;-1.1594;
594.9000;0.9117;-1.1594;
595.2000;0.9117;-1.1619;
595.5000;0.9101;-1.1569;
595.8000;0.9109;-1.1594;
596.1000;0.9101;-1.1544;
596.4000;0.9117;-1.1544;
596.7000;0.9125;-1.1569;
597.0000;0.9109;-1.1594;
597.3000;0.9141;-1.1469;
597.6000;0.9125;-1.1444;
597.9000;0.9109;-1.1519;
598.2000;0.9084;-1.1619;
598.5000;0.9141;-1.1544;
598.8000;0.9101;-1.1669;
599.1000;0.9076;-1.1744;
599.4000;0.9068;-1.1793;
599.7000;0.9068;-1.1793;
600.0000;0.9092;-1.1793;
600.3000;0.9109;-1.1893;
600.6000;0.8987;-1.2043;
600.9000;0.8824;-1.2192;
601.2000;0.8645;-1.2342;
601.5000;0.8482;-1.2591;
601.8000;0.8287;-1.2841;
602.1000;0.8116;-1.3015;
602.4000;0.7953;-1.3140;
602.7000;0.7790;-1.3364;
603.0000;0.7643;-1.3514;
603.3000;0.7513;-1.3539;
603.6000;0.7416;-1.3738;
603.9000;0.7293;-1.3888;
604.2000;0.7082;-1.4212;
604.5000;0.7098;-1.4162;
604.8000;0.6992;-1.4187;
605.1000;0.6919;-1.4337;
605.4000;0.6789;-1.4511;
605.7000;0.6756;-1.4536;
606.0000;0.6683;-1.4661;
606.3000;0.6667;-1.4586;
606.6000;0.6561;-1.4835;
606.9000;0.6504;-1.4860;
607.2000;0.6455;-1.4860;
607.5000;0.6398;-1.4885;
607.8000;0.6349;-1.4910;
608.1000;0.6292;-1.4985;
608.4000;0.6260;-1.4935;
608.7000;0.6219;-1.4960;
609.0000;0.6178;-1.5060;
609.3000;0.6154;-1.5110;
609.6000;0.6105;-1.5135;
609.9000;0.6105;-1.5010;
610.2000;0.6048;-1.5110;
610.5000;0.6024;-1.5135;
610.8000;0.5934;-1.5184;
611.1000;0.5918;-1.5159;
611.4000;0.5918;-1.5159;
611.7000;0.5885;-1.5159;
612.0000;0.5869;-1.5184;
612.3000;0.5828;-1.5209;
612.6000;0.5796;-1.5159;
612.9000;0.5771;-1.5159;
613.2000;0.5747;-1.5135;
613.5000;0.5731;-1.5184;
613.8000;0.5625;-1.5334;
614.1000;0.5682;-1.5159;
614.4000;0.5649;-1.5234;
614.7000;0.5641;-1.5159;
615.0000;0.5633;-1.5234;
615.3000;0.5608;-1.5184;
615.6000;0.5608;-1.5135;
615.9000;0.5568;-1.5309;
616.2000;0.5600;-1.5209;
616.5000;0.5551;-1.5184;
616.8000;0.5600;-1.5110;
617.1000;0.5535;-1.5209;
617.4000;0.5486;-1.5434;
617.7000;0.5478;-1.5359;
618.0000;0.5486;-1.5284;
618.3000;0.5446;-1.5334;
618.6000;0.5454;-1.5259;
618.9000;0.5381;-1.5484;
619.2000;0.5438;-1.5359;
619.5000;0.5405;-1.5409;
619.8000;0.5324;-1.5608;
620.1000;0.5438;-1.5259;
620.4000;0.5397;-1.5359;
620.7000;0.5389;-1.5359;
621.0000;0.5348;-1.5384;
621.3000;0.5307;-1.5558;
621.6000;0.5340;-1.5409;
621.9000;0.5315;-1.5359;
622.2000;0.5315;-1.5334;
622.5000;0.5299;-1.5309;
622.8000;0.5291;-1.5359;
623.1000;0.5250;-1.5334;
623.4000;0.5324;-1.5184;
623.7000;0.5267;-1.5209;
624.0000;0.5177;-1.5359;
624.3000;0.5226;-1.5209;
624.6000;0.5226;-1.5209;
624.9000;0.5201;-1.5234;
625.2000;0.5144;-1.5459;
625.5000;0.5218;-1.5209;
625.8000;0.5193;-1.5334;
626.1000;0.5210;-1.5309;
626.4000;0.5177;-1.5284;
626.7000;0.5234;-1.5110;
627.0000;0.5242;-1.5010;
627.3000;0.5185;-1.5085;
627.6000;0.5153;-1.5060;
627.9000;0.5161;-1.5085;
628.2000;0.5120;-1.5209;
628.5000;0.5128;-1.5234;
628.8000;0.5120;-1.5209;
629.1000;0.5104;-1.5209;
629.4000;0.5104;-1.5234;
629.7000;0.5079;-1.5259;
630.0000;0.5088;-1.5309;
630.3000;0.5088;-1.5309;
630.6000;0.5088;-1.5334;
630.9000;0.5071;-1.5359;
631.2000;0.5071;-1.5334;
631.5000;0.5063;-1.5384;
631.8000;0.5047;-1.5334;
632.1000;0.5063;-1.5309;
632.4000;0.5039;-1.5309;
632.7000;0.5006;-1.5359;
633.0000;0.5039;-1.5259;
633.3000;0.5031;-1.5334;
633.6000;0.5014;-1.5409;
633.9000;0.5014;-1.5384;
634.2000;0.5014;-1.5309;
634.5000;0.5006;-1.5284;
634.8000;0.5006;-1.5309;
635.1000;0.4998;-1.5284;
635.4000;0.4982;-1.5409;
635.7000;0.4998;-1.5359;
636.0000;0.5039;-1.5184;
636.3000;0.4998;-1.5284;
636.6000;0.4957;-1.5459;
636.9000;0.5014;-1.5234;
637.2000;0.4957;-1.5309;
637.5000;0.4949;-1.5334;
637.8000;0.4957;-1.5334;
638.1000;0.4933;-1.5334;
638.4000;0.4941;-1.5259;
638.7000;0.4941;-1.5284;
639.0000;0.4933;-1.5334;
639.3000;0.4908;-1.5334;
639.6000;0.4925;-1.5334;
639.9000;0.4908;-1.5309;
640.2000;0.4933;-1.5209;
640.5000;0.4941;-1.5259;
640.8000;0.4900;-1.5334;
641.1000;0.4941;-1.5309;
641.4000;0.4957;-1.5309;
641.7000;0.4860;-1.5583;
642.0000;0.4892;-1.5509;
642.3000;0.4868;-1.5459;
642.6000;0.4884;-1.5434;
642.9000;0.4892;-1.5359;
643.2000;0.4908;-1.5334;
643.5000;0.4892;-1.5384;
643.8000;0.4851;-1.5608;
644.1000;0.4851;-1.5608;
644.4000;0.4851;-1.5509;
644.7000;0.4835;-1.5533;
645.0000;0.4811;-1.5608;
645.3000;0.4819;-1.5608;
645.6000;0.4868;-1.5434;
645.9000;0.4843;-1.5434;
646.2000;0.4827;-1.5359;
646.5000;0.4843;-1.5309;
646.8000;0.4803;-1.5409;
647.1000;0.4819;-1.5359;
647.4000;0.4786;-1.5359;
647.7000;0.4827;-1.5284;
648.0000;0.4811;-1.5359;
648.3000;0.4811;-1.5309;
648.6000;0.4884;-1.5159;
648.9000;0.4794;-1.5359;
649.2000;0.4746;-1.5509;
649.5000;0.4786;-1.5484;
649.8000;0.4778;-1.5583;
650.1000;0.4811;-1.5459;
650.4000;0.4786;-1.5484;
650.7000;0.4778;-1.5533;
651.0000;0.4778;-1.5509;
651.3000;0.4786;-1.5558;
651.6000;0.4762;-1.5633;
651.9000;0.4770;-1.5608;
652.2000;0.4762;-1.5633;
652.5000;0.4770;-1.5484;
652.8000;0.4762;-1.5533;
653.1000;0.4737;-1.5708;
653.4000;0.4754;-1.5633;
653.7000;0.4746;-1.5583;
654.0000;0.4721;-1.5758;
654.3000;0.4737;-1.5708;
654.6000;0.4737;-1.5683;
654.9000;0.4754;-1.5583;
655.2000;0.4729;-1.5583;
655.5000;0.4729;-1.5533;
655.8000;0.4705;-1.5708;
656.1000;0.4721;-1.5658;
656.4000;0.4729;-1.5633;
656.7000;0.4713;-1.5633;
657.0000;0.4689;-1.5583;
657.3000;0.4697;-1.5533;
657.6000;0.4713;-1.5484;
657.9000;0.4681;-1.5459;
658.2000;0.4664;-1.5509;
658.5000;0.4672;-1.5509;
658.8000;0.4681;-1.5558;
659.1000;0.4664;-1.5533;
659.4000;0.4664;-1.5633;
659.7000;0.4689;-1.5608;
660.0000;0.4697;-1.5484;
660.3000;0.4672;-1.5509;
660.6000;0.4697;-1.5459;
660.9000;0.4681;-1.5509;
661.2000;0.4664;-1.5608;
661.5000;0.4672;-1.5608;
661.8000;0.4681;-1.5608;
662.1000;0.4648;-1.5683;
662.4000;0.4664;-1.5409;
662.7000;0.4664;-1.5459;
663.0000;0.4672;-1.5384;
663.3000;0.4656;-1.5409;
663.6000;0.4672;-1.5309;
663.9000;0.4697;-1.5384;
664.2000;0.4648;-1.5509;
664.5000;0.4632;-1.5558;
664.8000;0.4615;-1.5658;
665.1000;0.4607;-1.5658;
665.4000;0.4672;-1.5409;
665.7000;0.4640;-1.5509;
666.0000;0.4640;-1.5434;
666.3000;0.4656;-1.5334;
666.6000;0.4656;-1.5334;
666.9000;0.4648;-1.5459;
667.2000;0.4607;-1.5608;
667.5000;0.4526;-1.5808;
667.8000;0.4632;-1.5583;
668.1000;0.4624;-1.5608;
668.4000;0.4681;-1.5484;
668.7000;0.4599;-1.5658;
669.0000;0.4607;-1.5658;
669.3000;0.4575;-1.5708;
669.6000;0.4599;-1.5633;
669.9000;0.4624;-1.5558;
670.2000;0.4607;-1.5558;
670.5000;0.4607;-1.5633;
670.8000;0.4591;-1.5758;
671.1000;0.4632;-1.5533;
671.4000;0.4591;-1.5583;
671.7000;0.4591;-1.5509;
672.0000;0.4591;-1.5484;
672.3000;0.4681;-1.5284;
672.6000;0.4542;-1.5583;
672.9000;0.4583;-1.5509;
673.2000;0.4681;-1.5159;
673.5000;0.4599;-1.5409;
673.8000;0.4591;-1.5459;
674.1000;0.4591;-1.5409;
674.4000;0.4591;-1.5409;
674.7000;0.4575;-1.5434;
675.0000;0.4583;-1.5434;
675.3000;0.4583;-1.5434;
675.6000;0.4575;-1.5384;
675.9000;0.4591;-1.5309;
676.2000;0.4575;-1.5334;
676.5000;0.4615;-1.5209;
676.8000;0.4599;-1.5234;
677.1000;0.4558;-1.5359;
677.4000;0.4575;-1.5334;
677.7000;0.4558;-1.5334;
678.0000;0.4567;-1.5284;
678.3000;0.4550;-1.5209;
678.6000;0.4550;-1.5284;
678.9000;0.4583;-1.5284;
679.2000;0.4534;-1.5434;
679.5000;0.4550;-1.5434;
679.8000;0.4534;-1.5509;
680.1000;0.4534;-1.5484;
680.4000;0.4550;-1.5409;
680.7000;0.4534;-1.5434;
681.0000;0.4542;-1.5359;
681.3000;0.4542;-1.5309;
681.6000;0.4461;-1.5509;
681.9000;0.4518;-1.5309;
682.2000;0.4453;-1.5509;
682.5000;0.4550;-1.5259;
682.8000;0.4518;-1.5334;
683.1000;0.4518;-1.5384;
683.4000;0.4518;-1.5384;
683.7000;0.4501;-1.5384;
684.0000;0.4510;-1.5334;
684.3000;0.4493;-1.5409;
684.6000;0.4550;-1.5284;
684.9000;0.4510;-1.5384;
685.2000;0.4493;-1.5384;
685.5000;0.4501;-1.5384;
685.8000;0.4501;-1.5384;
686.1000;0.4493;-1.5434;
686.4000;0.4493;-1.5384;
686.7000;0.4510;-1.5384;
687.0000;0.4518;-1.5334;
687.3000;0.4510;-1.5309;
687.6000;0.4501;-1.5334;
687.9000;0.4526;-1.5384;
688.2000;0.4510;-1.5459;
688.5000;0.4485;-1.5309;
688.8000;0.4501;-1.5259;
689.1000;0.4501;-1.5234;
689.4000;0.4493;-1.5284;
689.7000;0.4493;-1.5234;
690.0000;0.4461;-1.5284;
690.3000;0.4469;-1.5209;
690.6000;0.4485;-1.5309;
690.9000;0.4461;-1.5334;
691.2000;0.4461;-1.5284;
691.5000;0.4501;-1.5284;
691.8000;0.4477;-1.5334;
692.1000;0.4485;-1.5309;
692.4000;0.4534;-1.5135;
692.7000;0.4444;-1.5309;
693.0000;0.4469;-1.5184;
693.3000;0.4493;-1.5035;
693.6000;0.4420;-1.5184;
693.9000;0.4461;-1.5110;
694.2000;0.4444;-1.5135;
694.5000;0.4461;-1.5060;
694.8000;0.4436;-1.5010;
695.1000;0.4436;-1.4910;
695.4000;0.4436;-1.5035;
695.7000;0.4453;-1.4960;
696.0000;0.4453;-1.4960;
696.3000;0.4453;-1.5035;
696.6000;0.4436;-1.5184;
696.9000;0.4444;-1.5135;
697.2000;0.4404;-1.5184;
697.5000;0.4469;-1.5085;
697.8000;0.4436;-1.5110;
698.1000;0.4453;-1.5010;
698.4000;0.4453;-1.5110;
698.7000;0.4436;-1.5159;
699.0000;0.4436;-1.5110;
699.3000;0.4444;-1.5085;
699.6000;0.4428;-1.5085;
699.9000;0.4453;-1.5060;
700.2000;0.4428;-1.5159;
700.5000;0.4420;-1.5085;
700.8000;0.4444;-1.5085;
701.1000;0.4420;-1.5135;
701.4000;0.4412;-1.5110;
701.7000;0.4412;-1.5159;
702.0000;0.4412;-1.5110;
702.3000;0.4412;-1.5234;
702.6000;0.4404;-1.5209;
702.9000;0.4371;-1.5259;
703.2000;0.4404;-1.5184;
703.5000;0.4420;-1.5159;
703.8000;0.4387;-1.5209;
704.1000;0.4420;-1.5159;
704.4000;0.4396;-1.5159;
704.7000;0.4396;-1.5159;
705.0000;0.4420;-1.5060;
705.3000;0.4404;-1.5135;
705.6000;0.4412;-1.5085;
705.9000;0.4396;-1.5209;
706.2000;0.4412;-1.5234;
706.5000;0.4420;-1.5284;
706.8000;0.4404;-1.5284;
707.1000;0.4396;-1.5359;
707.4000;0.4420;-1.5359;
707.7000;0.4404;-1.5434;
708.0000;0.4420;-1.5309;
708.3000;0.4379;-1.5334;
708.6000;0.4412;-1.5284;
708.9000;0.4379;-1.5284;
709.2000;0.4404;-1.5234;
709.5000;0.4387;-1.5209;
709.8000;0.4387;-1.5184;
710.1000;0.4493;-1.4935;
710.4000;0.4396;-1.5184;
710.7000;0.4379;-1.5135;
711.0000;0.4387;-1.5159;
711.3000;0.4387;-1.5159;
711.6000;0.4387;-1.5259;
711.9000;0.4396;-1.5259;
712.2000;0.4371;-1.5259;
712.5000;0.4379;-1.5159;
712.8000;0.4396;-1.5085;
713.1000;0.4379;-1.5085;
713.4000;0.4379;-1.5035;
713.7000;0.4379;-1.5110;
714.0000;0.4379;-1.5085;
714.3000;0.4396;-1.5035;
714.6000;0.4436;-1.4910;
714.9000;0.4363;-1.5085;
715.2000;0.4363;-1.5035;
715.5000;0.4314;-1.5209;
715.8000;0.4322;-1.5209;
716.1000;0.4363;-1.5184;
716.4000;0.4371;-1.5135;
716.7000;0.4371;-1.5110;
717.0000;0.4444;-1.4935;
717.3000;0.4379;-1.5110;
717.6000;0.4355;-1.5234;
717.9000;0.4363;-1.5284;
718.2000;0.4363;-1.5334;
718.5000;0.4355;-1.5409;
718.8000;0.4355;-1.5334;
719.1000;0.4379;-1.5259;
719.4000;0.4371;-1.5259;
719.7000;0.4387;-1.5234;
720.0000;0.4379;-1.5234;
720.3000;0.4461;-1.5010;
720.6000;0.4363;-1.5259;
720.9000;0.4355;-1.5234;
721.2000;0.4339;-1.5209;
721.5000;0.4347;-1.5209;
721.8000;0.4363;-1.5184;
722.1000;0.4322;-1.5259;
722.4000;0.4322;-1.5135;
722.7000;0.4306;-1.5284;
723.0000;0.4347;-1.5234;
723.3000;0.4330;-1.5434;
723.6000;0.4355;-1.5384;
723.9000;0.4330;-1.5434;
724.2000;0.4330;-1.5359;
724.5000;0.4347;-1.5334;
724.8000;0.4306;-1.5434;
725.1000;0.4363;-1.5284;
725.4000;0.4339;-1.5359;
725.7000;0.4347;-1.5259;
726.0000;0.4330;-1.5359;
726.3000;0.4314;-1.5334;
726.6000;0.4339;-1.5234;
726.9000;0.4306;-1.5334;
727.2000;0.4322;-1.5359;
727.5000;0.4282;-1.5459;
727.8000;0.4322;-1.5434;
728.1000;0.4314;-1.5434;
728.4000;0.4306;-1.5434;
728.7000;0.4225;-1.5683;
729.0000;0.4314;-1.5509;
729.3000;0.4314;-1.5509;
729.6000;0.4412;-1.5159;
729.9000;0.4322;-1.5359;
730.2000;0.4330;-1.5284;
730.5000;0.4314;-1.5284;
730.8000;0.4314;-1.5284;
731.1000;0.4322;-1.5284;
731.4000;0.4314;-1.5309;
731.7000;0.4339;-1.5334;
732.0000;0.4322;-1.5334;
732.3000;0.4314;-1.5309;
732.6000;0.4347;-1.5284;
732.9000;0.4322;-1.5284;
733.2000;0.4322;-1.5234;
733.5000;0.4298;-1.5284;
733.8000;0.4282;-1.5259;
734.1000;0.4241;-1.5384;
734.4000;0.4298;-1.5284;
734.7000;0.4306;-1.5309;
735.0000;0.4282;-1.5284;
735.3000;0.4282;-1.5284;
735.6000;0.4306;-1.5259;
735.9000;0.4225;-1.5484;
736.2000;0.4282;-1.5334;
736.5000;0.4282;-1.5359;
736.8000;0.4290;-1.5334;
737.1000;0.4282;-1.5309;
737.4000;0.4282;-1.5234;
737.7000;0.4298;-1.5309;
738.0000;0.4290;-1.5184;
738.3000;0.4265;-1.5234;
738.6000;0.4200;-1.5459;
738.9000;0.4241;-1.5384;
739.2000;0.4290;-1.5259;
739.5000;0.4290;-1.5359;
739.8000;0.4282;-1.5359;
740.1000;0.4265;-1.5384;
740.4000;0.4282;-1.5284;
740.7000;0.4314;-1.5209;
741.0000;0.4274;-1.5359;
741.3000;0.4339;-1.5234;
741.6000;0.4298;-1.5309;
741.9000;0.4274;-1.5284;
742.2000;0.4314;-1.5209;
742.5000;0.4298;-1.5234;
742.8000;0.4282;-1.5259;
743.1000;0.4298;-1.5209;
743.4000;0.4290;-1.5209;
743.7000;0.4282;-1.5259;
744.0000;0.4265;-1.5284;
744.3000;0.4290;-1.5259;
744.6000;0.4282;-1.5284;
744.9000;0.4347;-1.5135;
745.2000;0.4274;-1.5234;
745.5000;0.4290;-1.5135;
745.8000;0.4306;-1.5085;
746.1000;0.4282;-1.5159;
746.4000;0.4282;-1.5234;
746.7000;0.4290;-1.5334;
747.0000;0.4290;-1.5334;
747.3000;0.4282;-1.5309;
747.6000;0.4265;-1.5359;
747.9000;0.4257;-1.5309;
748.2000;0.4257;-1.5334;
748.5000;0.4274;-1.5259;
748.8000;0.4274;-1.5359;
749.1000;0.4265;-1.5359;
749.4000;0.4274;-1.5359;
749.7000;0.4257;-1.5334;
750.0000;0.4257;-1.5334;
750.3000;0.4249;-1.5384;
750.6000;0.4306;-1.5234;
750.9000;0.4233;-1.5359;
751.2000;0.4249;-1.5309;
751.5000;0.4306;-1.5135;
751.8000;0.4249;-1.5259;
752.1000;0.4298;-1.5135;
752.4000;0.4265;-1.5135;
752.7000;0.4274;-1.5259;
753.0000;0.4274;-1.5259;
753.3000;0.4249;-1.5284;
753.6000;0.4257;-1.5234;
753.9000;0.4233;-1.5259;
754.2000;0.4233;-1.5259;
754.5000;0.4208;-1.5409;
754.8000;0.4241;-1.5284;
755.1000;0.4257;-1.5209;
755.4000;0.4330;-1.5035;
755.7000;0.4241;-1.5284;
756.0000;0.4233;-1.5309;
756.3000;0.4249;-1.5334;
756.6000;0.4200;-1.5509;
756.9000;0.4249;-1.5409;
757.2000;0.4282;-1.5334;
757.5000;0.4298;-1.5184;
757.8000;0.4249;-1.5284;
758.1000;0.4192;-1.5459;
758.4000;0.4225;-1.5284;
758.7000;0.4306;-1.5035;
759.0000;0.4192;-1.5334;
759.3000;0.4233;-1.5135;
759.6000;0.4192;-1.5159;
759.9000;0.4249;-1.4985;
760.2000;0.4306;-1.4835;
760.5000;0.4265;-1.5010;
760.8000;0.4241;-1.5085;
761.1000;0.4225;-1.5010;
761.4000;0.4233;-1.5010;
761.7000;0.4265;-1.4985;
762.0000;0.4249;-1.5060;
762.3000;0.4225;-1.5135;
762.6000;0.4274;-1.5060;
762.9000;0.4265;-1.5035;
763.2000;0.4233;-1.5159;
763.5000;0.4184;-1.5259;
763.8000;0.4208;-1.5184;
764.1000;0.4225;-1.5159;
764.4000;0.4233;-1.5110;
764.7000;0.4249;-1.5110;
765.0000;0.4233;-1.5110;
765.3000;0.4233;-1.5159;
765.6000;0.4233;-1.5159;
765.9000;0.4233;-1.5085;
766.2000;0.4217;-1.5159;
766.5000;0.4249;-1.4985;
766.8000;0.4225;-1.5035;
767.1000;0.4225;-1.4985;
767.4000;0.4233;-1.4985;
767.7000;0.4225;-1.4960;
768.0000;0.4225;-1.5010;
768.3000;0.4217;-1.5110;
768.6000;0.4217;-1.5060;
768.9000;0.4241;-1.5184;
769.2000;0.4233;-1.5259;
769.5000;0.4200;-1.5384;
769.8000;0.4217;-1.5359;
770.1000;0.4168;-1.5583;
770.4000;0.4225;-1.5409;
770.7000;0.4225;-1.5359;
771.0000;0.4225;-1.5259;
771.3000;0.4225;-1.5284;
771.6000;0.4217;-1.5284;
771.9000;0.4208;-1.5284;
772.2000;0.4217;-1.5234;
772.5000;0.4225;-1.5159;
772.8000;0.4200;-1.5259;
773.1000;0.4217;-1.5060;
773.4000;0.4225;-1.5010;
773.7000;0.4233;-1.4935;
774.0000;0.4217;-1.5010;
774.3000;0.4233;-1.5035;
774.6000;0.4241;-1.5085;
774.9000;0.4208;-1.5234;
775.2000;0.4241;-1.5085;
775.5000;0.4306;-1.4935;
775.8000;0.4217;-1.5110;
776.1000;0.4208;-1.5085;
776.4000;0.4208;-1.5085;
776.7000;0.4233;-1.5085;
777.0000;0.4208;-1.5110;
777.3000;0.4217;-1.5060;
777.6000;0.4208;-1.5085;
777.9000;0.4192;-1.5110;
778.2000;0.4217;-1.5060;
778.5000;0.4200;-1.5135;
778.8000;0.4200;-1.5159;
779.1000;0.4217;-1.5085;
779.4000;0.4217;-1.5085;
779.7000;0.4200;-1.5159;
780.0000;0.4208;-1.5159;
780.3000;0.4200;-1.5234;
780.6000;0.4249;-1.5159;
780.9000;0.4208;-1.5135;
781.2000;0.4217;-1.5135;
781.5000;0.4233;-1.5085;
781.8000;0.4233;-1.5060;
782.1000;0.4143;-1.5209;
782.4000;0.4184;-1.5060;
782.7000;0.4160;-1.5135;
783.0000;0.4192;-1.4985;
783.3000;0.4192;-1.4935;
783.6000;0.4176;-1.5110;
783.9000;0.4200;-1.5085;
784.2000;0.4184;-1.5135;
784.5000;0.4200;-1.5159;
784.8000;0.4192;-1.5234;
785.1000;0.4200;-1.5259;
785.4000;0.4192;-1.5259;
785.7000;0.4200;-1.5135;
786.0000;0.4200;-1.5110;
786.3000;0.4208;-1.5085;
786.6000;0.4208;-1.5085;
786.9000;0.4192;-1.5060;
787.2000;0.4208;-1.5060;
787.5000;0.4192;-1.5110;
787.8000;0.4184;-1.5184;
788.1000;0.4200;-1.5259;
788.4000;0.4184;-1.5209;
788.7000;0.4192;-1.5209;
789.0000;0.4208;-1.5159;
789.3000;0.4208;-1.5085;
789.6000;0.4168;-1.5234;
789.9000;0.4176;-1.5209;
790.2000;0.4192;-1.5184;
790.5000;0.4184;-1.5259;
790.8000;0.4192;-1.5359;
791.1000;0.4192;-1.5434;
791.4000;0.4176;-1.5434;
791.7000;0.4176;-1.5384;
792.0000;0.4168;-1.5384;
792.3000;0.4176;-1.5409;
792.6000;0.4176;-1.5409;
792.9000;0.4168;-1.5409;
793.2000;0.4192;-1.5309;
793.5000;0.4143;-1.5259;
793.8000;0.4176;-1.5259;
794.1000;0.4192;-1.5209;
794.4000;0.4184;-1.5184;
794.7000;0.4160;-1.5259;
795.0000;0.4176;-1.5309;
795.3000;0.4192;-1.5284;
795.6000;0.4184;-1.5209;
795.9000;0.4160;-1.5209;
796.2000;0.4208;-1.5085;
796.5000;0.4217;-1.5060;
796.8000;0.4192;-1.5035;
797.1000;0.4233;-1.4860;
797.4000;0.4192;-1.4885;
797.7000;0.4135;-1.5060;
798.0000;0.4176;-1.4960;
798.3000;0.4151;-1.4960;
798.6000;0.4176;-1.4835;
798.9000;0.4176;-1.4785;
799.2000;0.4160;-1.4810;
799.5000;0.4094;-1.4985;
799.8000;0.4208;-1.4711;
800.1000;0.4168;-1.4860;
800.4000;0.4192;-1.4885;
800.7000;0.4192;-1.5060;
801.0000;0.4168;-1.5085;
801.3000;0.4168;-1.5135;
801.6000;0.4151;-1.5135;
801.9000;0.4184;-1.5035;
802.2000;0.4176;-1.5035;
802.5000;0.4160;-1.4985;
802.8000;0.4143;-1.5010;
803.1000;0.4160;-1.4960;
803.4000;0.4192;-1.4860;
803.7000;0.4151;-1.4935;
804.0000;0.4160;-1.4935;
804.3000;0.4184;-1.5035;
804.6000;0.4151;-1.5110;
804.9000;0.4127;-1.5135;
805.2000;0.4176;-1.5110;
805.5000;0.4151;-1.5209;
805.8000;0.4225;-1.4960;
806.1000;0.4151;-1.5184;
806.4000;0.4143;-1.5234;
806.7000;0.4160;-1.5209;
807.0000;0.4160;-1.5085;
807.3000;0.4151;-1.5035;
807.6000;0.4151;-1.5010;
807.9000;0.4151;-1.5010;
808.2000;0.4119;-1.5060;
808.5000;0.4135;-1.5060;
808.8000;0.4127;-1.5135;
809.1000;0.4119;-1.5209;
809.4000;0.4119;-1.5259;
809.7000;0.4168;-1.5209;
810.0000;0.4143;-1.5209;
810.3000;0.4127;-1.5234;
810.6000;0.4168;-1.5209;
810.9000;0.4143;-1.5184;
811.2000;0.4143;-1.5209;
811.5000;0.4151;-1.5184;
811.8000;0.4143;-1.5184;
812.1000;0.4151;-1.5184;
812.4000;0.4200;-1.5110;
812.7000;0.4143;-1.5209;
813.0000;0.4160;-1.5135;
813.3000;0.4168;-1.5184;
813.6000;0.4143;-1.5234;
813.9000;0.4151;-1.5184;
814.2000;0.4168;-1.5159;
814.5000;0.4168;-1.5159;
814.8000;0.4257;-1.4910;
815.1000;0.4143;-1.5184;
815.4000;0.4184;-1.5085;
815.7000;0.4143;-1.5259;
816.0000;0.4160;-1.5234;
816.3000;0.4151;-1.5135;
816.6000;0.4143;-1.5159;
816.9000;0.4143;-1.5135;
817.2000;0.4119;-1.5135;
817.5000;0.4151;-1.5035;
817.8000;0.4119;-1.5159;
818.1000;0.4168;-1.5010;
818.4000;0.4127;-1.4985;
818.7000;0.4135;-1.5010;
819.0000;0.4143;-1.5159;
819.3000;0.4151;-1.5184;
819.6000;0.4143;-1.5209;
819.9000;0.4127;-1.5234;
820.2000;0.4143;-1.5309;
820.5000;0.4160;-1.5209;
820.8000;0.4151;-1.5184;
821.1000;0.4151;-1.5184;
821.4000;0.4143;-1.5159;
821.7000;0.4151;-1.5085;
822.0000;0.4151;-1.4985;
822.3000;0.4151;-1.4935;
822.6000;0.4184;-1.4810;
822.9000;0.4322;-1.4387;
823.2000;0.4249;-1.4686;
823.5000;0.4160;-1.4935;
823.8000;0.4143;-1.4935;
824.1000;0.4151;-1.4985;
824.4000;0.4135;-1.5135;
824.7000;0.4160;-1.5085;
825.0000;0.4151;-1.5085;
825.3000;0.4127;-1.5060;
825.6000;0.4119;-1.5085;
825.9000;0.4168;-1.5035;
826.2000;0.4168;-1.4985;
826.5000;0.4143;-1.5060;
826.8000;0.4151;-1.4985;
827.1000;0.4143;-1.4960;
827.4000;0.4143;-1.4910;
827.7000;0.4135;-1.4935;
828.0000;0.4111;-1.4960;
828.3000;0.4143;-1.4885;
828.6000;0.4135;-1.4910;
828.9000;0.4111;-1.4910;
829.2000;0.4225;-1.4636;
829.5000;0.4119;-1.4910;
829.8000;0.4119;-1.4835;
830.1000;0.4135;-1.4885;
830.4000;0.4135;-1.4860;
830.7000;0.4119;-1.4985;
831.0000;0.4111;-1.4960;
831.3000;0.4135;-1.4860;
831.6000;0.4119;-1.4910;
831.9000;0.4094;-1.5010;
832.2000;0.4103;-1.5060;
832.5000;0.4135;-1.5035;
832.8000;0.4160;-1.4910;
833.1000;0.4127;-1.5010;
833.4000;0.4127;-1.4960;
833.7000;0.4111;-1.5035;
834.0000;0.4103;-1.5035;
834.3000;0.4103;-1.4935;
834.6000;0.4119;-1.4910;
834.9000;0.4111;-1.4960;
835.2000;0.4168;-1.4935;
835.5000;0.4111;-1.5060;
835.8000;0.4070;-1.5159;
836.1000;0.4111;-1.5085;
836.4000;0.4086;-1.5110;
836.7000;0.4103;-1.5085;
837.0000;0.4119;-1.5159;
837.3000;0.4111;-1.5234;
837.6000;0.4135;-1.5184;
837.9000;0.4103;-1.5284;
838.2000;0.4111;-1.5409;
838.5000;0.4119;-1.5309;
838.8000;0.4127;-1.5234;
839.1000;0.4111;-1.5384;
839.4000;0.4127;-1.5384;
839.7000;0.4127;-1.5359;
840.0000;0.4135;-1.5259;
840.3000;0.4127;-1.5184;
840.6000;0.4119;-1.5159;
840.9000;0.4094;-1.5184;
841.2000;0.4192;-1.4910;
841.5000;0.4111;-1.5035;
841.8000;0.4111;-1.5010;
842.1000;0.4094;-1.4935;
842.4000;0.4111;-1.4960;
842.7000;0.4094;-1.5085;
843.0000;0.4094;-1.5159;
843.3000;0.4119;-1.5085;
843.6000;0.4111;-1.5110;
843.9000;0.4176;-1.4935;
844.2000;0.4135;-1.5184;
844.5000;0.4135;-1.5209;
844.8000;0.4094;-1.5259;
845.1000;0.4111;-1.5184;
845.4000;0.4094;-1.5110;
845.7000;0.4094;-1.5184;
846.0000;0.4111;-1.5159;
846.3000;0.4111;-1.5209;
846.6000;0.4119;-1.5135;
846.9000;0.4078;-1.5284;
847.2000;0.4127;-1.5209;
847.5000;0.4119;-1.5259;
847.8000;0.4119;-1.5334;
848.1000;0.4078;-1.5484;
848.4000;0.4094;-1.5384;
848.7000;0.4094;-1.5359;
849.0000;0.4103;-1.5309;
849.3000;0.4094;-1.5259;
849.6000;0.4127;-1.5184;
849.9000;0.4176;-1.5010;
850.2000;0.4143;-1.5085;
850.5000;0.4119;-1.5209;
850.8000;0.4103;-1.5234;
851.1000;0.4111;-1.5209;
851.4000;0.4119;-1.5135;
851.7000;0.4111;-1.5135;
852.0000;0.4135;-1.5085;
852.3000;0.4078;-1.5135;
852.6000;0.4127;-1.4985;
852.9000;0.4168;-1.4935;
853.2000;0.4119;-1.5135;
853.5000;0.4078;-1.5284;
853.8000;0.4103;-1.5234;
854.1000;0.4103;-1.5259;
854.4000;0.4176;-1.5135;
854.7000;0.4119;-1.5259;
855.0000;0.4176;-1.5085;
855.3000;0.4103;-1.5284;
855.6000;0.4151;-1.5135;
855.9000;0.4119;-1.5209;
856.2000;0.4094;-1.5259;
856.5000;0.4111;-1.5184;
856.8000;0.4119;-1.5184;
857.1000;0.4086;-1.5234;
857.4000;0.4070;-1.5209;
857.7000;0.4094;-1.5184;
858.0000;0.4094;-1.5209;
858.3000;0.4143;-1.5060;
858.6000;0.4127;-1.5085;
858.9000;0.4111;-1.5010;
859.2000;0.4119;-1.4985;
859.5000;0.4094;-1.5060;
859.8000;0.4070;-1.5184;
860.1000;0.4119;-1.5085;
860.4000;0.4103;-1.5159;
860.7000;0.4103;-1.5159;
861.0000;0.4103;-1.5110;
861.3000;0.4086;-1.5110;
861.6000;0.4103;-1.5010;
861.9000;0.4111;-1.4985;
862.2000;0.4078;-1.5010;
862.5000;0.4078;-1.5035;
862.8000;0.4111;-1.5010;
863.1000;0.4127;-1.5135;
863.4000;0.4103;-1.5184;
863.7000;0.4094;-1.5234;
864.0000;0.4094;-1.5209;
864.3000;0.4103;-1.5110;
864.6000;0.4111;-1.5060;
864.9000;0.4111;-1.5159;
865.2000;0.4103;-1.5184;
865.5000;0.4143;-1.4960;
865.8000;0.4103;-1.4960;
866.1000;0.4078;-1.5060;
866.4000;0.4086;-1.4960;
866.7000;0.4168;-1.4711;
867.0000;0.4046;-1.4935;
867.3000;0.4111;-1.4860;
867.6000;0.4127;-1.4761;
867.9000;0.4094;-1.4810;
868.2000;0.4094;-1.4935;
868.5000;0.4021;-1.5209;
868.8000;0.4103;-1.5110;
869.1000;0.4070;-1.5259;
869.4000;0.4103;-1.5135;
869.7000;0.4119;-1.5135;
870.0000;0.4111;-1.5159;
870.3000;0.4103;-1.5234;
870.6000;0.4086;-1.5309;
870.9000;0.4094;-1.5309;
871.2000;0.4086;-1.5234;
871.5000;0.4086;-1.5159;
871.8000;0.4086;-1.5159;
872.1000;0.4086;-1.5159;
872.4000;0.4086;-1.5159;
872.7000;0.4094;-1.5110;
873.0000;0.4062;-1.5135;
873.3000;0.4135;-1.5035;
873.6000;0.4111;-1.5010;
873.9000;0.4127;-1.5035;
874.2000;0.4086;-1.5110;
874.5000;0.4078;-1.5159;
874.8000;0.4086;-1.5135;
875.1000;0.4062;-1.5209;
875.4000;0.4037;-1.5334;
875.7000;0.4086;-1.5110;
876.0000;0.4078;-1.4985;
876.3000;0.4054;-1.5060;
876.6000;0.4070;-1.5035;
876.9000;0.4078;-1.5010;
877.2000;0.4094;-1.5060;
877.5000;0.4046;-1.5184;
877.8000;0.4094;-1.5184;
878.1000;0.4094;-1.5209;
878.4000;0.4103;-1.5110;
878.7000;0.3980;-1.5384;
879.0000;0.4078;-1.5060;
879.3000;0.4094;-1.5035;
879.6000;0.4078;-1.5035;
879.9000;0.4078;-1.5060;
880.2000;0.4094;-1.5035;
880.5000;0.4078;-1.5085;
880.8000;0.4054;-1.5209;
881.1000;0.4094;-1.5184;
881.4000;0.4029;-1.5384;
881.7000;0.4086;-1.5284;
882.0000;0.4070;-1.5259;
882.3000;0.4086;-1.5209;
882.6000;0.4086;-1.5135;
882.9000;0.4103;-1.5135;
883.2000;0.4086;-1.5209;
883.5000;0.4103;-1.5159;
883.8000;0.4094;-1.5085;
884.1000;0.4094;-1.5060;
884.4000;0.4078;-1.5010;
884.7000;0.4086;-1.4935;
885.0000;0.4086;-1.4935;
885.3000;0.4070;-1.5085;
885.6000;0.4086;-1.5110;
885.9000;0.4078;-1.5085;
886.2000;0.4086;-1.5010;
886.5000;0.4070;-1.5135;
886.8000;0.4070;-1.5159;
887.1000;0.4054;-1.5184;
887.4000;0.4070;-1.5135;
887.7000;0.4094;-1.5110;
888.0000;0.4078;-1.5085;
888.3000;0.4094;-1.5085;
888.6000;0.4094;-1.5159;
888.9000;0.4094;-1.5184;
889.2000;0.4021;-1.5409;
889.5000;0.4078;-1.5334;
889.8000;0.4160;-1.5085;
890.1000;0.4086;-1.5284;
890.4000;0.4070;-1.5234;
890.7000;0.4054;-1.5184;
891.0000;0.4062;-1.5110;
891.3000;0.4086;-1.5184;
891.6000;0.4078;-1.5234;
891.9000;0.4127;-1.5110;
892.2000;0.4078;-1.5234;
892.5000;0.4103;-1.5035;
892.8000;0.4070;-1.5110;
893.1000;0.4086;-1.5135;
893.4000;0.4103;-1.5110;
893.7000;0.4086;-1.5060;
894.0000;0.4094;-1.4935;
894.3000;0.4062;-1.4985;
894.6000;0.4094;-1.4935;
894.9000;0.4086;-1.4960;
895.2000;0.4078;-1.4985;
895.5000;0.4086;-1.4935;
895.8000;0.4070;-1.4985;
896.1000;0.4070;-1.5010;
896.4000;0.4103;-1.4960;
896.7000;0.4062;-1.4985;
897.0000;0.4103;-1.4985;
897.3000;0.4062;-1.5110;
897.6000;0.4054;-1.5259;
897.9000;0.4070;-1.5159;
898.2000;0.4062;-1.5060;
898.5000;0.4078;-1.5035;
898.8000;0.4070;-1.5060;
899.1000;0.4078;-1.5035;
899.4000;0.4078;-1.4935;
899.7000;0.4046;-1.5060;
900.0000;0.4094;-1.4985;
900.3000;0.4151;-1.4736;
900.6000;0.4062;-1.4960;
900.9000;0.4070;-1.4960;
901.2000;0.4062;-1.4985;
901.5000;0.3997;-1.5234;
901.8000;0.4054;-1.5060;
902.1000;0.4078;-1.4985;
902.4000;0.4021;-1.5035;
902.7000;0.4046;-1.4935;
903.0000;0.4078;-1.4860;
903.3000;0.4029;-1.4960;
903.6000;0.4086;-1.4860;
903.9000;0.4070;-1.4885;
904.2000;0.4078;-1.4910;
904.5000;0.4078;-1.4910;
904.8000;0.4062;-1.4910;
905.1000;0.4070;-1.4860;
905.4000;0.4070;-1.4761;
905.7000;0.4062;-1.4885;
906.0000;0.4062;-1.4860;
906.3000;0.3972;-1.5184;
906.6000;0.4086;-1.4885;
906.9000;0.4013;-1.5010;
907.2000;0.4021;-1.4960;
907.5000;0.4046;-1.4910;
907.8000;0.4086;-1.4686;
908.1000;0.4054;-1.4711;
908.4000;0.4078;-1.4686;
908.7000;0.4078;-1.4611;
909.0000;0.4070;-1.4636;
909.3000;0.4078;-1.4736;
909.6000;0.4029;-1.4885;
909.9000;0.4070;-1.4835;
910.2000;0.4037;-1.4935;
910.5000;0.4013;-1.4985;
910.8000;0.4054;-1.4860;
911.1000;0.4046;-1.4860;
911.4000;0.4078;-1.4761;
911.7000;0.4103;-1.4686;
912.0000;0.4103;-1.4661;
912.3000;0.4062;-1.4761;
912.6000;0.4062;-1.4736;
912.9000;0.4062;-1.4785;
913.2000;0.4086;-1.4785;
913.5000;0.3997;-1.5060;
913.8000;0.4070;-1.4885;
914.1000;0.4062;-1.4885;
914.4000;0.4086;-1.4885;
914.7000;0.4054;-1.4985;
915.0000;0.4070;-1.4935;
915.3000;0.4062;-1.4910;
915.6000;0.4005;-1.5060;
915.9000;0.4029;-1.5060;
916.2000;0.4062;-1.5035;
916.5000;0.4070;-1.4960;
916.8000;0.4103;-1.4785;
917.1000;0.4054;-1.4885;
917.4000;0.4078;-1.4885;
917.7000;0.4070;-1.4960;
918.0000;0.4062;-1.5010;
918.3000;0.4078;-1.4985;
918.6000;0.4078;-1.4960;
918.9000;0.4062;-1.4985;
919.2000;0.4078;-1.4985;
919.5000;0.4070;-1.4960;
919.8000;0.4062;-1.4910;
920.1000;0.4078;-1.4835;
920.4000;0.4070;-1.4885;
920.7000;0.4078;-1.4860;
921.0000;0.4111;-1.4736;
921.3000;0.3972;-1.4960;
921.6000;0.4054;-1.4636;
921.9000;0.4086;-1.4561;
922.2000;0.4078;-1.4511;
922.5000;0.4037;-1.4586;
922.8000;0.4078;-1.4586;
923.1000;0.4062;-1.4586;
923.4000;0.4078;-1.4536;
923.7000;0.4119;-1.4461;
924.0000;0.4046;-1.4711;
924.3000;0.4078;-1.4661;
924.6000;0.4103;-1.4611;
924.9000;0.4078;-1.4636;
925.2000;0.4070;-1.4586;
925.5000;0.4070;-1.4561;
925.8000;0.3972;-1.4910;
926.1000;0.4054;-1.4736;
926.4000;0.4062;-1.4785;
926.7000;0.4111;-1.4761;
927.0000;0.4078;-1.4785;
927.3000;0.4054;-1.4860;
927.6000;0.4062;-1.4935;
927.9000;0.4005;-1.5010;
928.2000;0.4062;-1.4785;
928.5000;0.4062;-1.4711;
928.8000;0.4062;-1.4711;
929.1000;0.4062;-1.4736;
929.4000;0.3980;-1.4860;
929.7000;0.4021;-1.4636;
930.0000;0.4062;-1.4661;
930.3000;0.4046;-1.4686;
930.6000;0.4046;-1.4636;
930.9000;0.4054;-1.4636;
931.2000;0.4119;-1.4387;
931.5000;0.4046;-1.4611;
931.8000;0.4062;-1.4611;
932.1000;0.4046;-1.4661;
932.4000;0.4062;-1.4636;
932.7000;0.4054;-1.4661;
933.0000;0.4046;-1.4736;
933.3000;0.4054;-1.4736;
933.6000;0.4054;-1.4686;
933.9000;0.4119;-1.4461;
934.2000;0.4046;-1.4711;
934.5000;0.4046;-1.4611;
934.8000;0.3997;-1.4661;
935.1000;0.4046;-1.4511;
935.4000;0.4046;-1.4636;
935.7000;0.4078;-1.4536;
936.0000;0.4046;-1.4461;
936.3000;0.4037;-1.4436;
936.6000;0.4037;-1.4461;
936.9000;0.4094;-1.4411;
937.2000;0.4046;-1.4511;
937.5000;0.4046;-1.4511;
937.8000;0.4046;-1.4511;
938.1000;0.4037;-1.4561;
938.4000;0.4046;-1.4636;
938.7000;0.4046;-1.4686;
939.0000;0.4021;-1.4885;
939.3000;0.4054;-1.4835;
939.6000;0.4029;-1.4960;
939.9000;0.4062;-1.4935;
940.2000;0.4054;-1.4960;
940.5000;0.4062;-1.4910;
940.8000;0.4046;-1.4910;
941.1000;0.4046;-1.4910;
941.4000;0.4078;-1.4835;
941.7000;0.4070;-1.4985;
942.0000;0.4054;-1.4935;
942.3000;0.4070;-1.4835;
942.6000;0.4062;-1.4785;
942.9000;0.4078;-1.4761;
943.2000;0.4054;-1.4935;
943.5000;0.4062;-1.4860;
943.8000;0.4046;-1.4885;
944.1000;0.3980;-1.5010;
944.4000;0.4029;-1.4910;
944.7000;0.4021;-1.4960;
945.0000;0.4054;-1.5035;
945.3000;0.3997;-1.5259;
945.6000;0.4054;-1.5060;
945.9000;0.4054;-1.5010;
946.2000;0.4054;-1.5010;
946.5000;0.4054;-1.4960;
946.8000;0.4046;-1.4860;
947.1000;0.4078;-1.4736;
947.4000;0.4029;-1.4810;
947.7000;0.4021;-1.4835;
948.0000;0.3980;-1.4935;
948.3000;0.4029;-1.4910;
948.6000;0.4013;-1.4960;
948.9000;0.4062;-1.4885;
949.2000;0.4070;-1.4860;
949.5000;0.4062;-1.4860;
949.8000;0.4021;-1.4860;
950.1000;0.4037;-1.4761;
950.4000;0.4078;-1.4611;
950.7000;0.4037;-1.4661;
951.0000;0.4021;-1.4810;
951.3000;0.3997;-1.4985;
951.6000;0.4013;-1.4910;
951.9000;0.4054;-1.4711;
952.2000;0.4037;-1.4686;
952.5000;0.4054;-1.4661;
952.8000;0.4054;-1.4661;
953.1000;0.4046;-1.4636;
953.4000;0.4037;-1.4611;
953.7000;0.4046;-1.4611;
954.0000;0.4046;-1.4586;
954.3000;0.4062;-1.4611;
954.6000;0.4046;-1.4661;
954.9000;0.4037;-1.4736;
955.2000;0.4046;-1.4761;
955.5000;0.4054;-1.4686;
955.8000;0.4037;-1.4661;
956.1000;0.4046;-1.4636;
956.4000;0.4062;-1.4611;
956.7000;0.4046;-1.4711;
957.0000;0.4054;-1.4736;
957.3000;0.4046;-1.4711;
957.6000;0.4046;-1.4686;
957.9000;0.4054;-1.4686;
958.2000;0.4037;-1.4711;
958.5000;0.4029;-1.4761;
958.8000;0.4054;-1.4785;
959.1000;0.4037;-1.4835;
959.4000;0.4037;-1.4761;
959.7000;0.4046;-1.4661;
960.0000;0.4046;-1.4736;
960.3000;0.4037;-1.4711;
960.6000;0.4021;-1.4785;
960.9000;0.4046;-1.4711;
961.2000;0.4029;-1.4711;
961.5000;0.4046;-1.4736;
961.8000;0.4037;-1.4736;
962.1000;0.4046;-1.4636;
962.4000;0.4037;-1.4636;
962.7000;0.4046;-1.4636;
963.0000;0.3956;-1.4910;
963.3000;0.4054;-1.4661;
963.6000;0.4037;-1.4686;
963.9000;0.4103;-1.4486;
964.2000;0.4037;-1.4611;
964.5000;0.4029;-1.4586;
964.8000;0.4046;-1.4586;
965.1000;0.4046;-1.4586;
965.4000;0.4062;-1.4561;
965.7000;0.4037;-1.4711;
966.0000;0.4029;-1.4736;
966.3000;0.4037;-1.4636;
966.6000;0.4046;-1.4711;
966.9000;0.4086;-1.4711;
967.2000;0.4046;-1.4860;
967.5000;0.4070;-1.4835;
967.8000;0.4078;-1.4785;
968.1000;0.4046;-1.4785;
968.4000;0.4119;-1.4536;
968.7000;0.4029;-1.4810;
969.0000;0.4054;-1.4736;
969.3000;0.4135;-1.4536;
969.6000;0.4029;-1.4835;
969.9000;0.4021;-1.4860;
970.2000;0.4029;-1.4761;
970.5000;0.4037;-1.4885;
970.8000;0.4054;-1.4860;
971.1000;0.4103;-1.4686;
971.4000;0.3989;-1.5010;
971.7000;0.4037;-1.4935;
972.0000;0.4037;-1.4935;
972.3000;0.4054;-1.4935;
972.6000;0.4046;-1.4960;
972.9000;0.4029;-1.5035;
973.2000;0.4037;-1.4960;
973.5000;0.4054;-1.4885;
973.8000;0.4070;-1.4835;
974.1000;0.4046;-1.4910;
974.4000;0.3972;-1.5110;
974.7000;0.4029;-1.4885;
975.0000;0.4054;-1.4761;
975.3000;0.4029;-1.4785;
975.6000;0.3940;-1.5035;
975.9000;0.4029;-1.4785;
976.2000;0.4029;-1.4835;
976.5000;0.4021;-1.4960;
976.8000;0.3997;-1.5085;
977.1000;0.4046;-1.4885;
977.4000;0.4037;-1.4885;
977.7000;0.4037;-1.4860;
978.0000;0.4021;-1.4935;
978.3000;0.4037;-1.5035;
978.6000;0.4037;-1.4985;
978.9000;0.4037;-1.4935;
979.2000;0.4054;-1.4910;
979.5000;0.4029;-1.5060;
979.8000;0.4029;-1.5060;
980.1000;0.4054;-1.4985;
980.4000;0.4029;-1.5085;
980.7000;0.4037;-1.5035;
981.0000;0.4046;-1.4985;
981.3000;0.4037;-1.5060;
981.6000;0.4029;-1.5035;
981.9000;0.4037;-1.4985;
982.2000;0.4054;-1.4960;
982.5000;0.4029;-1.4860;
982.8000;0.4029;-1.4885;
983.1000;0.3997;-1.4985;
983.4000;0.4029;-1.4910;
983.7000;0.4046;-1.4810;
984.0000;0.4013;-1.4810;
984.3000;0.4029;-1.4785;
984.6000;0.4046;-1.4785;
984.9000;0.4046;-1.4761;
985.2000;0.4054;-1.4835;
985.5000;0.4029;-1.4835;
985.8000;0.4037;-1.4810;
986.1000;0.4029;-1.4860;
986.4000;0.4029;-1.4935;
986.7000;0.4111;-1.4736;
987.0000;0.4037;-1.4910;
987.3000;0.4054;-1.4860;
987.6000;0.4037;-1.4885;
987.9000;0.4037;-1.4910;
988.2000;0.3997;-1.5060;
988.5000;0.4054;-1.4910;
988.8000;0.4037;-1.4910;
989.1000;0.4029;-1.4960;
989.4000;0.4054;-1.4935;
989.7000;0.4062;-1.4960;
990.0000;0.3972;-1.5135;
990.3000;0.4021;-1.5035;
990.6000;0.4021;-1.4935;
990.9000;0.4029;-1.4960;
991.2000;0.4037;-1.4985;
991.5000;0.4062;-1.4985;
991.8000;0.4037;-1.5010;
992.1000;0.4021;-1.5035;
992.4000;0.4094;-1.4935;
992.7000;0.4037;-1.5035;
993.0000;0.4021;-1.5060;
993.3000;0.4013;-1.5035;
993.6000;0.4037;-1.5010;
993.9000;0.4086;-1.4885;
994.2000;0.3997;-1.5135;
994.5000;0.3980;-1.4985;
994.8000;0.4013;-1.4810;
995.1000;0.4021;-1.4860;
995.4000;0.4029;-1.4860;
995.7000;0.4013;-1.5035;
996.0000;0.4029;-1.5135;
996.3000;0.4021;-1.5110;
996.6000;0.4037;-1.5060;
996.9000;0.4029;-1.5010;
997.2000;0.4013;-1.4985;
997.5000;0.4029;-1.4935;
997.8000;0.4037;-1.4960;
998.1000;0.4046;-1.5035;
998.4000;0.4029;-1.4960;
998.7000;0.4021;-1.4935;
999.0000;0.4029;-1.4910;
999.3000;0.4037;-1.5010;
999.6000;0.4029;-1.4985;
999.9000;0.4029;-1.5085;
1000.2000;0.4037;-1.5060;
1000.5000;0.4021;-1.5035;
1000.8000;0.4013;-1.5060;
1001.1000;0.4029;-1.4885;
1001.4000;0.4029;-1.4835;
1001.7000;0.4029;-1.4885;
1002.0000;0.4021;-1.4935;
1002.3000;0.3980;-1.5060;
1002.6000;0.4037;-1.4810;
1002.9000;0.4037;-1.4935;
1003.2000;0.4029;-1.4960;
1003.5000;0.3997;-1.4985;
1003.8000;0.4021;-1.4860;
1004.1000;0.4029;-1.4711;
1004.4000;0.4037;-1.4686;
1004.7000;0.4013;-1.4661;
1005.0000;0.4005;-1.4736;
1005.3000;0.4054;-1.4711;
1005.6000;0.4029;-1.4761;
1005.9000;0.4021;-1.4736;
1006.2000;0.4046;-1.4611;
1006.5000;0.4029;-1.4661;
1006.8000;0.4005;-1.4785;
1007.1000;0.4046;-1.4711;
1007.4000;0.4021;-1.4736;
1007.7000;0.4037;-1.4835;
1008.0000;0.4029;-1.4885;
1008.3000;0.4013;-1.4960;
1008.6000;0.4021;-1.4935;
1008.9000;0.4013;-1.4885;
1009.2000;0.4054;-1.4761;
1009.5000;0.4037;-1.4885;
1009.8000;0.4021;-1.4910;
1010.1000;0.4054;-1.4860;
1010.4000;0.4037;-1.4935;
1010.7000;0.3980;-1.5110;
1011.0000;0.4021;-1.4910;
1011.3000;0.4037;-1.4860;
1011.6000;0.4037;-1.4860;
1011.9000;0.4005;-1.4885;
1012.2000;0.3964;-1.5010;
1012.5000;0.4037;-1.4736;
1012.8000;0.4037;-1.4736;
1013.1000;0.4013;-1.4810;
1013.4000;0.4029;-1.4835;
1013.7000;0.4021;-1.4910;
1014.0000;0.4005;-1.4885;
1014.3000;0.3997;-1.4885;
1014.6000;0.4029;-1.4835;
1014.9000;0.4021;-1.4960;
1015.2000;0.4021;-1.4960;
1015.5000;0.4037;-1.4860;
1015.8000;0.4013;-1.4935;
1016.1000;0.4005;-1.4910;
1016.4000;0.4029;-1.4785;
1016.7000;0.4046;-1.4761;
1017.0000;0.4037;-1.4860;
1017.3000;0.3989;-1.4935;
1017.6000;0.4029;-1.4885;
1017.9000;0.4037;-1.4860;
1018.2000;0.4029;-1.4835;
1018.5000;0.4037;-1.4810;
1018.8000;0.4037;-1.4810;
1019.1000;0.4037;-1.4761;
1019.4000;0.4062;-1.4810;
1019.7000;0.4037;-1.4835;
1020.0000;0.4119;-1.4586;
1020.3000;0.4029;-1.4761;
1020.6000;0.4029;-1.4810;
1020.9000;0.4037;-1.4785;
1021.2000;0.4021;-1.4810;
1021.5000;0.4046;-1.4736;
1021.8000;0.4046;-1.4736;
1022.1000;0.3989;-1.4860;
1022.4000;0.4005;-1.4835;
1022.7000;0.4029;-1.4761;
1023.0000;0.4046;-1.4711;
1023.3000;0.4070;-1.4785;
1023.6000;0.4046;-1.4960;
1023.9000;0.4037;-1.4960;
1024.2000;0.4054;-1.4860;
1024.5000;0.4029;-1.4910;
1024.8000;0.4046;-1.4835;
1025.1000;0.4037;-1.4835;
1025.4000;0.4037;-1.4935;
1025.7000;0.4021;-1.4935;
1026.0000;0.4054;-1.4860;
1026.3000;0.4021;-1.4935;
1026.6000;0.4021;-1.5010;
1026.9000;0.4046;-1.4960;
1027.2000;0.4037;-1.4935;
1027.5000;0.4021;-1.5010;
1027.8000;0.4013;-1.4935;
1028.1000;0.4078;-1.4810;
1028.4000;0.4029;-1.5035;
1028.7000;0.4086;-1.4935;
1029.0000;0.4086;-1.4910;
1029.3000;0.4021;-1.5060;
1029.6000;0.4046;-1.4935;
1029.9000;0.4005;-1.4910;
1030.2000;0.4054;-1.4785;
1030.5000;0.4054;-1.4711;
1030.8000;0.4029;-1.4785;
1031.1000;0.4013;-1.4810;
1031.4000;0.4013;-1.4785;
1031.7000;0.4013;-1.4810;
1032.0000;0.4037;-1.4835;
1032.3000;0.4013;-1.4960;
1032.6000;0.4013;-1.4960;
1032.9000;0.4021;-1.4935;
1033.2000;0.4013;-1.4960;
1033.5000;0.4021;-1.4910;
1033.8000;0.4046;-1.4810;
1034.1000;0.3989;-1.4885;
1034.4000;0.4046;-1.4736;
1034.7000;0.4029;-1.4736;
1035.0000;0.4021;-1.4736;
1035.3000;0.4037;-1.4686;
1035.6000;0.4037;-1.4686;
1035.9000;0.4046;-1.4686;
1036.2000;0.4037;-1.4661;
1036.5000;0.4029;-1.4785;
1036.8000;0.4021;-1.4785;
1037.1000;0.4086;-1.4736;
1037.4000;0.4021;-1.4860;
1037.7000;0.4029;-1.4711;
1038.0000;0.4013;-1.4686;
1038.3000;0.4029;-1.4636;
1038.6000;0.4029;-1.4611;
1038.9000;0.4029;-1.4511;
1039.2000;0.4029;-1.4511;
1039.5000;0.4005;-1.4686;
1039.8000;0.4054;-1.4511;
1040.1000;0.4054;-1.4486;
1040.4000;0.4013;-1.4561;
1040.7000;0.4062;-1.4511;
1041.0000;0.4037;-1.4661;
1041.3000;0.4013;-1.4785;
1041.6000;0.4005;-1.4835;
1041.9000;0.4005;-1.4860;
1042.2000;0.3997;-1.4785;
1042.5000;0.4021;-1.4736;
1042.8000;0.3989;-1.4810;
1043.1000;0.4005;-1.4810;
1043.4000;0.4029;-1.4636;
1043.7000;0.4021;-1.4586;
1044.0000;0.4021;-1.4761;
1044.3000;0.4013;-1.4835;
1044.6000;0.3989;-1.4810;
1044.9000;0.4029;-1.4736;
1045.2000;0.3989;-1.4810;
1045.5000;0.4005;-1.4810;
1045.8000;0.4013;-1.4810;
1046.1000;0.4029;-1.4810;
1046.4000;0.3997;-1.4935;
1046.7000;0.3997;-1.4885;
1047.0000;0.4013;-1.4785;
1047.3000;0.4021;-1.4860;
1047.6000;0.4037;-1.4761;
1047.9000;0.3997;-1.4785;
1048.2000;0.4021;-1.4785;
1048.5000;0.4021;-1.4810;
1048.8000;0.4029;-1.4711;
1049.1000;0.4029;-1.4636;
1049.4000;0.4013;-1.4736;
1049.7000;0.4021;-1.4810;
1050.0000;0.4013;-1.4835;
1050.3000;0.4021;-1.4860;
1050.6000;0.4013;-1.4785;
1050.9000;0.4013;-1.4785;
1051.2000;0.4037;-1.4711;
1051.5000;0.4013;-1.4711;
1051.8000;0.4013;-1.4761;
1052.1000;0.4013;-1.4661;
1052.4000;0.4037;-1.4636;
1052.7000;0.4005;-1.4761;
1053.0000;0.4021;-1.4785;
1053.3000;0.4029;-1.4785;
1053.6000;0.4013;-1.4860;
1053.9000;0.3964;-1.5010;
1054.2000;0.4029;-1.4885;
1054.5000;0.4013;-1.4885;
1054.8000;0.4029;-1.4810;
1055.1000;0.4046;-1.4761;
1055.4000;0.4013;-1.4835;
1055.7000;0.4054;-1.4736;
1056.0000;0.4013;-1.4785;
1056.3000;0.4005;-1.4835;
1056.6000;0.4037;-1.4736;
1056.9000;0.4021;-1.4761;
1057.2000;0.4005;-1.4761;
1057.5000;0.4013;-1.4761;
1057.8000;0.4029;-1.4686;
1058.1000;0.4037;-1.4586;
1058.4000;0.4029;-1.4536;
1058.7000;0.4013;-1.4536;
1059.0000;0.4029;-1.4511;
1059.3000;0.3989;-1.4561;
1059.6000;0.4037;-1.4611;
1059.9000;0.4029;-1.4586;
1060.2000;0.4013;-1.4686;
1060.5000;0.4013;-1.4761;
1060.8000;0.3989;-1.4860;
1061.1000;0.4037;-1.4711;
1061.4000;0.4046;-1.4636;
1061.7000;0.3964;-1.4860;
1062.0000;0.4013;-1.4761;
1062.3000;0.4013;-1.4785;
1062.6000;0.4029;-1.4761;
1062.9000;0.4013;-1.4761;
1063.2000;0.4013;-1.4686;
1063.5000;0.3923;-1.4960;
1063.8000;0.4021;-1.4661;
1064.1000;0.4021;-1.4611;
1064.4000;0.4005;-1.4561;
1064.7000;0.4021;-1.4511;
1065.0000;0.4021;-1.4511;
1065.3000;0.4021;-1.4461;
1065.6000;0.4013;-1.4411;
1065.9000;0.4029;-1.4411;
1066.2000;0.4078;-1.4262;
1066.5000;0.4013;-1.4436;
1066.8000;0.4013;-1.4461;
1067.1000;0.4029;-1.4511;
1067.4000;0.4054;-1.4461;
1067.7000;0.4021;-1.4611;
1068.0000;0.4021;-1.4636;
1068.3000;0.3980;-1.4711;
1068.6000;0.4013;-1.4661;
1068.9000;0.4021;-1.4586;
1069.2000;0.4046;-1.4486;
1069.5000;0.4005;-1.4661;
1069.8000;0.4005;-1.4661;
1070.1000;0.4005;-1.4661;
1070.4000;0.3997;-1.4636;
1070.7000;0.4005;-1.4611;
1071.0000;0.4021;-1.4611;
1071.3000;0.4005;-1.4636;
1071.6000;0.4021;-1.4511;
1071.9000;0.4013;-1.4611;
1072.2000;0.4005;-1.4686;
1072.5000;0.4021;-1.4761;
1072.8000;0.4021;-1.4736;
1073.1000;0.4013;-1.4736;
1073.4000;0.3997;-1.4835;
1073.7000;0.4013;-1.4761;
1074.0000;0.4062;-1.4686;
1074.3000;0.4021;-1.4736;
1074.6000;0.4029;-1.4686;
1074.9000;0.4037;-1.4611;
1075.2000;0.4013;-1.4586;
1075.5000;0.4013;-1.4536;
1075.8000;0.4054;-1.4411;
1076.1000;0.3980;-1.4561;
1076.4000;0.4029;-1.4561;
1076.7000;0.4005;-1.4536;
1077.0000;0.3997;-1.4636;
1077.3000;0.3997;-1.4561;
1077.6000;0.3956;-1.4711;
1077.9000;0.3989;-1.4636;
1078.2000;0.4021;-1.4661;
1078.5000;0.3997;-1.4636;
1078.8000;0.3940;-1.4810;
1079.1000;0.4013;-1.4561;
1079.4000;0.3997;-1.4536;
1079.7000;0.4013;-1.4511;
1080.0000;0.3997;-1.4461;
1080.3000;0.3964;-1.4561;
1080.6000;0.4021;-1.4436;
1080.9000;0.4005;-1.4511;
1081.2000;0.4013;-1.4511;
1081.5000;0.4037;-1.4436;
1081.8000;0.4021;-1.4536;
1082.1000;0.4029;-1.4486;
1082.4000;0.4029;-1.4561;
1082.7000;0.4021;-1.4511;
1083.0000;0.4021;-1.4511;
1083.3000;0.3964;-1.4661;
1083.6000;0.3989;-1.4536;
1083.9000;0.4021;-1.4536;
1084.2000;0.4037;-1.4486;
1084.5000;0.4103;-1.4387;
1084.8000;0.4013;-1.4636;
1085.1000;0.4013;-1.4711;
1085.4000;0.4029;-1.4636;
1085.7000;0.4094;-1.4411;
1086.0000;0.4013;-1.4761;
1086.3000;0.4013;-1.4835;
1086.6000;0.4037;-1.4711;
1086.9000;0.4021;-1.4736;
1087.2000;0.4021;-1.4661;
1087.5000;0.4054;-1.4611;
1087.8000;0.4013;-1.4661;
1088.1000;0.4029;-1.4611;
1088.4000;0.4021;-1.4586;
1088.7000;0.4005;-1.4561;
1089.0000;0.4021;-1.4586;
1089.3000;0.4021;-1.4561;
1089.6000;0.4029;-1.4511;
1089.9000;0.4078;-1.4436;
1090.2000;0.3997;-1.4586;
1090.5000;0.4013;-1.4486;
1090.8000;0.4013;-1.4486;
1091.1000;0.3972;-1.4636;
1091.4000;0.4005;-1.4686;
1091.7000;0.4021;-1.4661;
1092.0000;0.4046;-1.4636;
1092.3000;0.4086;-1.4561;
1092.6000;0.4013;-1.4785;
1092.9000;0.3989;-1.4835;
1093.2000;0.3997;-1.4761;
1093.5000;0.4029;-1.4785;
1093.8000;0.4005;-1.4785;
1094.1000;0.4029;-1.4885;
1094.4000;0.4021;-1.4910;
1094.7000;0.4029;-1.4860;
1095.0000;0.4021;-1.4910;
1095.3000;0.4029;-1.4960;
1095.6000;0.4029;-1.4885;
1095.9000;0.4062;-1.4761;
1096.2000;0.4029;-1.4810;
1096.5000;0.4013;-1.4835;
1096.8000;0.3997;-1.4910;
1097.1000;0.4054;-1.4736;
1097.4000;0.4013;-1.4785;
1097.7000;0.4013;-1.4785;
1098.0000;0.4054;-1.4661;
1098.3000;0.4029;-1.4711;
1098.6000;0.4013;-1.4711;
1098.9000;0.3989;-1.4661;
1099.2000;0.4005;-1.4636;
1099.5000;0.4037;-1.4561;
1099.8000;0.4021;-1.4536;
1100.1000;0.4013;-1.4636;
1100.4000;0.4005;-1.4736;
1100.7000;0.4013;-1.4661;
1101.0000;0.4029;-1.4611;
1101.3000;0.3980;-1.4736;
1101.6000;0.4005;-1.4736;
1101.9000;0.4013;-1.4761;
1102.2000;0.3997;-1.4761;
1102.5000;0.4037;-1.4736;
1102.8000;0.4013;-1.4810;
1103.1000;0.4021;-1.4661;
1103.4000;0.4029;-1.4636;
1103.7000;0.4013;-1.4686;
1104.0000;0.4013;-1.4636;
1104.3000;0.4029;-1.4636;
1104.6000;0.3980;-1.4761;
1104.9000;0.3997;-1.4711;
1105.2000;0.4013;-1.4611;
1105.5000;0.4013;-1.4511;
1105.8000;0.4021;-1.4461;
1106.1000;0.4005;-1.4461;
1106.4000;0.3964;-1.4611;
1106.7000;0.4005;-1.4536;
1107.0000;0.4029;-1.4561;
1107.3000;0.4029;-1.4561;
1107.6000;0.4029;-1.4561;
1107.9000;0.4013;-1.4461;
1108.2000;0.4021;-1.4511;
1108.5000;0.4037;-1.4486;
1108.8000;0.4013;-1.4586;
1109.1000;0.3997;-1.4586;
1109.4000;0.3997;-1.4636;
1109.7000;0.3989;-1.4711;
1110.0000;0.4013;-1.4686;
1110.3000;0.4037;-1.4686;
1110.6000;0.3997;-1.4785;
1110.9000;0.4013;-1.4761;
1111.2000;0.4021;-1.4686;
1111.5000;0.3980;-1.4785;
1111.8000;0.4005;-1.4686;
1112.1000;0.4013;-1.4636;
1112.4000;0.4094;-1.4436;
1112.7000;0.4013;-1.4636;
1113.0000;0.4013;-1.4711;
1113.3000;0.4029;-1.4561;
1113.6000;0.4005;-1.4686;
1113.9000;0.4013;-1.4785;
1114.2000;0.3948;-1.5060;
1114.5000;0.4005;-1.4935;
1114.8000;0.3997;-1.4885;
1115.1000;0.4013;-1.4835;
1115.4000;0.3997;-1.4960;
1115.7000;0.4013;-1.4885;
1116.0000;0.3989;-1.4835;
1116.3000;0.4021;-1.4785;
1116.6000;0.4021;-1.4785;
1116.9000;0.4021;-1.4785;
1117.2000;0.4029;-1.4810;
1117.5000;0.4029;-1.4810;
1117.8000;0.4005;-1.4885;
1118.1000;0.4029;-1.4860;
1118.4000;0.3997;-1.4910;
1118.7000;0.4029;-1.5010;
1119.0000;0.4013;-1.5035;
1119.3000;0.4029;-1.4935;
1119.6000;0.4013;-1.4810;
1119.9000;0.4013;-1.4736;
1120.2000;0.4046;-1.4611;
1120.5000;0.4021;-1.4661;
1120.8000;0.4037;-1.4561;
1121.1000;0.4013;-1.4586;
1121.4000;0.4021;-1.4611;
1121.7000;0.4013;-1.4661;
1122.0000;0.4013;-1.4686;
1122.3000;0.4005;-1.4686;
1122.6000;0.4005;-1.4711;
1122.9000;0.4021;-1.4761;
1123.2000;0.4013;-1.4736;
1123.5000;0.4021;-1.4686;
1123.8000;0.3997;-1.4661;
1124.1000;0.4029;-1.4586;
1124.4000;0.4005;-1.4636;
1124.7000;0.4021;-1.4586;
1125.0000;0.4005;-1.4636;
1125.3000;0.3997;-1.4711;
1125.6000;0.4005;-1.4785;
1125.9000;0.4005;-1.4761;
1126.2000;0.4029;-1.4736;
1126.5000;0.3989;-1.4785;
1126.8000;0.4078;-1.4511;
1127.1000;0.4021;-1.4661;
1127.4000;0.4013;-1.4636;
1127.7000;0.4029;-1.4661;
1128.0000;0.3997;-1.4711;
1128.3000;0.4013;-1.4761;
1128.6000;0.4029;-1.4785;
1128.9000;0.4021;-1.4785;
1129.2000;0.3997;-1.4860;
1129.5000;0.4013;-1.4810;
1129.8000;0.4005;-1.4835;
1130.1000;0.4046;-1.4711;
1130.4000;0.4005;-1.4785;
1130.7000;0.4037;-1.4736;
1131.0000;0.4029;-1.4860;
1131.3000;0.3997;-1.4960;
1131.6000;0.4029;-1.4860;
1131.9000;0.4005;-1.4910;
1132.2000;0.3989;-1.4910;
1132.5000;0.4005;-1.4835;
1132.8000;0.3997;-1.4885;
1133.1000;0.4005;-1.4935;
1133.4000;0.4013;-1.4935;
1133.7000;0.3980;-1.4910;
1134.0000;0.3997;-1.4761;
1134.3000;0.4021;-1.4661;
1134.6000;0.4005;-1.4686;
1134.9000;0.4021;-1.4736;
1135.2000;0.3989;-1.4885;
1135.5000;0.4005;-1.4935;
1135.8000;0.3989;-1.5060;
1136.1000;0.3972;-1.5159;
1136.4000;0.4013;-1.4985;
1136.7000;0.4029;-1.4985;
1137.0000;0.4062;-1.4885;
1137.3000;0.3997;-1.5010;
1137.6000;0.4013;-1.4860;
1137.9000;0.4005;-1.4785;
1138.2000;0.3907;-1.4960;
1138.5000;0.4005;-1.4686;
1138.8000;0.4005;-1.4686;
1139.1000;0.4070;-1.4436;
1139.4000;0.4013;-1.4661;
1139.7000;0.3997;-1.4661;
1140.0000;0.4005;-1.4661;
1140.3000;0.4005;-1.4835;
1140.6000;0.4005;-1.4835;
1140.9000;0.4005;-1.4785;
1141.2000;0.4021;-1.4711;
1141.5000;0.4037;-1.4636;
1141.8000;0.4029;-1.4711;
1142.1000;0.4013;-1.4736;
1142.4000;0.4029;-1.4711;
1142.7000;0.4029;-1.4636;
1143.0000;0.4013;-1.4561;
1143.3000;0.4021;-1.4461;
1143.6000;0.4029;-1.4536;
1143.9000;0.4005;-1.4686;
1144.2000;0.4005;-1.4686;
1144.5000;0.4021;-1.4636;
1144.8000;0.4005;-1.4661;
1145.1000;0.3956;-1.4785;
1145.4000;0.4005;-1.4736;
1145.7000;0.4013;-1.4761;
1146.0000;0.3997;-1.4736;
1146.3000;0.4013;-1.4686;
1146.6000;0.4013;-1.4611;
1146.9000;0.4013;-1.4636;
1147.2000;0.4021;-1.4761;
1147.5000;0.4005;-1.4736;
1147.8000;0.4013;-1.4761;
1148.1000;0.4013;-1.4835;
1148.4000;0.3997;-1.4835;
1148.7000;0.3997;-1.4885;
1149.0000;0.4005;-1.4736;
1149.3000;0.4005;-1.4736;
1149.6000;0.4021;-1.4711;
1149.9000;0.3997;-1.4736;
1150.2000;0.4029;-1.4711;
1150.5000;0.4013;-1.4785;
1150.8000;0.4029;-1.4761;
1151.1000;0.4029;-1.4761;
1151.4000;0.4013;-1.4761;
1151.7000;0.4054;-1.4686;
1152.0000;0.4037;-1.4736;
1152.3000;0.4013;-1.4810;
1152.6000;0.4005;-1.4835;
1152.9000;0.4029;-1.4785;
1153.2000;0.4029;-1.4761;
1153.5000;0.4037;-1.4785;
1153.8000;0.3989;-1.4810;
1154.1000;0.4021;-1.4785;
1154.4000;0.4005;-1.4835;
1154.7000;0.4005;-1.4810;
1155.0000;0.4005;-1.4810;
1155.3000;0.4021;-1.4736;
1155.6000;0.4013;-1.4686;
1155.9000;0.4046;-1.4636;
1156.2000;0.4013;-1.4686;
1156.5000;0.4013;-1.4661;
1156.8000;0.4013;-1.4611;
1157.1000;0.4029;-1.4611;
1157.4000;0.4005;-1.4686;
1157.7000;0.3907;-1.4985;
1158.0000;0.3989;-1.4810;
1158.3000;0.4021;-1.4736;
1158.6000;0.4029;-1.4736;
1158.9000;0.4013;-1.4810;
1159.2000;0.3972;-1.4935;
1159.5000;0.4013;-1.4835;
1159.8000;0.4021;-1.4885;
1160.1000;0.4005;-1.4910;
1160.4000;0.3997;-1.4935;
1160.7000;0.4013;-1.4910;
1161.0000;0.4021;-1.4761;
1161.3000;0.4021;-1.4686;
1161.6000;0.4037;-1.4661;
1161.9000;0.4029;-1.4686;
1162.2000;0.4037;-1.4711;
1162.5000;0.4029;-1.4711;
1162.8000;0.4021;-1.4761;
1163.1000;0.4029;-1.4835;
1163.4000;0.4021;-1.4860;
1163.7000;0.4037;-1.4835;
1164.0000;0.4005;-1.4910;
1164.3000;0.4013;-1.4985;
1164.6000;0.4046;-1.4910;
1164.9000;0.4021;-1.4835;
1165.2000;0.3997;-1.4910;
1165.5000;0.3997;-1.4935;
1165.8000;0.3989;-1.4835;
1166.1000;0.3980;-1.4860;
1166.4000;0.4005;-1.4910;
1166.7000;0.4005;-1.4835;
1167.0000;0.3972;-1.4835;
1167.3000;0.4013;-1.4835;
1167.6000;0.4078;-1.4686;
1167.9000;0.3997;-1.4835;
1168.2000;0.3997;-1.4885;
1168.5000;0.4021;-1.4885;
1168.8000;0.3956;-1.5035;
1169.1000;0.4005;-1.4810;
1169.4000;0.3997;-1.4860;
1169.7000;0.4037;-1.4810;
1170.0000;0.4005;-1.4810;
1170.3000;0.3997;-1.4860;
1170.6000;0.3997;-1.4835;
1170.9000;0.4021;-1.4661;
1171.2000;0.4062;-1.4511;
1171.5000;0.4021;-1.4661;
1171.8000;0.4005;-1.4711;
1172.1000;0.4021;-1.4736;
1172.4000;0.4029;-1.4736;
1172.7000;0.4037;-1.4711;
1173.0000;0.4021;-1.4686;
1173.3000;0.3964;-1.4885;
1173.6000;0.4029;-1.4785;
1173.9000;0.4021;-1.4785;
1174.2000;0.3997;-1.4761;
1174.5000;0.4029;-1.4711;
1174.8000;0.4005;-1.4736;
1175.1000;0.4013;-1.4661;
1175.4000;0.3997;-1.4686;
1175.7000;0.4021;-1.4686;
1176.0000;0.4013;-1.4785;
1176.3000;0.3948;-1.4935;
1176.6000;0.4013;-1.4835;
1176.9000;0.4029;-1.4910;
1177.2000;0.4078;-1.4711;
1177.5000;0.4062;-1.4636;
1177.8000;0.4013;-1.4636;
1178.1000;0.4005;-1.4561;
1178.4000;0.4021;-1.4536;
1178.7000;0.4021;-1.4561;
1179.0000;0.4029;-1.4611;
1179.3000;0.3980;-1.4711;
1179.6000;0.3989;-1.4711;
1179.9000;0.4013;-1.4686;
1180.2000;0.4005;-1.4611;
1180.5000;0.4029;-1.4586;
1180.8000;0.4005;-1.4661;
1181.1000;0.3997;-1.4661;
1181.4000;0.4021;-1.4536;
1181.7000;0.4005;-1.4511;
1182.0000;0.3989;-1.4611;
1182.3000;0.4046;-1.4536;
1182.6000;0.4013;-1.4636;
1182.9000;0.4054;-1.4561;
1183.2000;0.4062;-1.4636;
1183.5000;0.4005;-1.4835;
1183.8000;0.4021;-1.4860;
1184.1000;0.4029;-1.4785;
1184.4000;0.3997;-1.4935;
1184.7000;0.4005;-1.4960;
1185.0000;0.4021;-1.4985;
1185.3000;0.4029;-1.4860;
1185.6000;0.3997;-1.4985;
1185.9000;0.4005;-1.4885;
1186.2000;0.4005;-1.4860;
1186.5000;0.3972;-1.4935;
1186.8000;0.3989;-1.4835;
1187.1000;0.4037;-1.4785;
1187.4000;0.4013;-1.4835;
1187.7000;0.4029;-1.4785;
1188.0000;0.4013;-1.4885;
1188.3000;0.4046;-1.4810;
1188.6000;0.4021;-1.4910;
1188.9000;0.4021;-1.4935;
1189.2000;0.4013;-1.5060;
1189.5000;0.4029;-1.5085;
1189.8000;0.4005;-1.4985;
1190.1000;0.4013;-1.4910;
1190.4000;0.4005;-1.4860;
1190.7000;0.3997;-1.4935;
1191.0000;0.4021;-1.4860;
1191.3000;0.3989;-1.4935;
1191.6000;0.3997;-1.4960;
1191.9000;0.3932;-1.5159;
1192.2000;0.3989;-1.5010;
1192.5000;0.4021;-1.4860;
1192.8000;0.3972;-1.4885;
1193.1000;0.4029;-1.4686;
1193.4000;0.4005;-1.4736;
1193.7000;0.4021;-1.4686;
1194.0000;0.4021;-1.4785;
1194.3000;0.4013;-1.4860;
1194.6000;0.3989;-1.4935;
1194.9000;0.3997;-1.4910;
1195.2000;0.3989;-1.4960;
1195.5000;0.4021;-1.4860;
1195.8000;0.4013;-1.4885;
1196.1000;0.3940;-1.5060;
1196.4000;0.3972;-1.4885;
1196.7000;0.4021;-1.4860;
1197.0000;0.4021;-1.4860;
1197.3000;0.4070;-1.4711;
1197.6000;0.4005;-1.4835;
1197.9000;0.4013;-1.4835;
1198.2000;0.4013;-1.4810;
1198.5000;0.4005;-1.4810;
1198.8000;0.4046;-1.4711;
1199.1000;0.4029;-1.4736;
1199.4000;0.3964;-1.4835;
1199.7000;0.4094;-1.4686;
1200.0000;0.3997;-1.4910;
1200.3000;0.4037;-1.4761;
1200.6000;0.4005;-1.4835;
1200.9000;0.4054;-1.4785;
1201.2000;0.3997;-1.4910;
1201.5000;0.4037;-1.4785;
1201.8000;0.4013;-1.4835;
1202.1000;0.4021;-1.4761;
1202.4000;0.4029;-1.4785;
1202.7000;0.4029;-1.4761;
1203.0000;0.4013;-1.4785;
1203.3000;0.4037;-1.4785;
1203.6000;0.4005;-1.4810;
1203.9000;0.3997;-1.4835;
1204.2000;0.4005;-1.4785;
1204.5000;0.4029;-1.4686;
1204.8000;0.3997;-1.4711;
1205.1000;0.3980;-1.4711;
1205.4000;0.3997;-1.4736;
1205.7000;0.4021;-1.4736;
1206.0000;0.4013;-1.4686;
1206.3000;0.4103;-1.4511;
1206.6000;0.4021;-1.4736;
1206.9000;0.3989;-1.4810;
1207.2000;0.4054;-1.4586;
1207.5000;0.3997;-1.4636;
1207.8000;0.4005;-1.4511;
1208.1000;0.3989;-1.4586;
1208.4000;0.4013;-1.4486;
1208.7000;0.4005;-1.4636;
1209.0000;0.4070;-1.4387;
1209.3000;0.4021;-1.4586;
1209.6000;0.4021;-1.4636;
1209.9000;0.4037;-1.4661;
1210.2000;0.4021;-1.4686;
1210.5000;0.4013;-1.4686;
1210.8000;0.4013;-1.4711;
1211.1000;0.4005;-1.4785;
1211.4000;0.4005;-1.4711;
1211.7000;0.4005;-1.4686;
1212.0000;0.4029;-1.4711;
1212.3000;0.4005;-1.4711;
1212.6000;0.4013;-1.4686;
1212.9000;0.3972;-1.4835;
1213.2000;0.4037;-1.4785;
1213.5000;0.4037;-1.4736;
1213.8000;0.3980;-1.4835;
1214.1000;0.4021;-1.4785;
1214.4000;0.4021;-1.4711;
1214.7000;0.4021;-1.4686;
1215.0000;0.3997;-1.4736;
1215.3000;0.4013;-1.4686;
1215.6000;0.4013;-1.4736;
1215.9000;0.4005;-1.4810;
1216.2000;0.4021;-1.4860;
1216.5000;0.3997;-1.4910;
1216.8000;0.3997;-1.4935;
1217.1000;0.3997;-1.4835;
1217.4000;0.4013;-1.4810;
1217.7000;0.4013;-1.4860;
1218.0000;0.4005;-1.4935;
1218.3000;0.4021;-1.4960;
1218.6000;0.4005;-1.5035;
1218.9000;0.3940;-1.5159;
1219.2000;0.4005;-1.4885;
1219.5000;0.4005;-1.4835;
1219.8000;0.4029;-1.4736;
1220.1000;0.4005;-1.4860;
1220.4000;0.4013;-1.4910;
1220.7000;0.3964;-1.4985;
1221.0000;0.3997;-1.4960;
1221.3000;0.4013;-1.4910;
1221.6000;0.3989;-1.5010;
1221.9000;0.4005;-1.4935;
1222.2000;0.3980;-1.4885;
1222.5000;0.4005;-1.4835;
1222.8000;0.4021;-1.4860;
1223.1000;0.4005;-1.4910;
1223.4000;0.3997;-1.4885;
1223.7000;0.4078;-1.4686;
1224.0000;0.4021;-1.4835;
1224.3000;0.4013;-1.4910;
1224.6000;0.4070;-1.4860;
1224.9000;0.4021;-1.4960;
1225.2000;0.4005;-1.4935;
1225.5000;0.4013;-1.4910;
1225.8000;0.3989;-1.4985;
1226.1000;0.4021;-1.4910;
1226.4000;0.4005;-1.4985;
1226.7000;0.4005;-1.4985;
1227.0000;0.3989;-1.5085;
1227.3000;0.4094;-1.4885;
1227.6000;0.4005;-1.5010;
1227.9000;0.3989;-1.5010;
1228.2000;0.4013;-1.4885;
1228.5000;0.4005;-1.4885;
1228.8000;0.4021;-1.4810;
1229.1000;0.4005;-1.4810;
1229.4000;0.4054;-1.4785;
1229.7000;0.3989;-1.4860;
1230.0000;0.4037;-1.4761;
1230.3000;0.3997;-1.4910;
1230.6000;0.4005;-1.4910;
1230.9000;0.3997;-1.5060;
1231.2000;0.3980;-1.5110;
1231.5000;0.3997;-1.5035;
1231.8000;0.3989;-1.5035;
1232.1000;0.4005;-1.5035;
1232.4000;0.4005;-1.4960;
1232.7000;0.4037;-1.4910;
1233.0000;0.4021;-1.4835;
1233.3000;0.3972;-1.4985;
1233.6000;0.3980;-1.4910;
1233.9000;0.4013;-1.4785;
1234.2000;0.3997;-1.4860;
1234.5000;0.4005;-1.4835;
1234.8000;0.4046;-1.4810;
1235.1000;0.4021;-1.4885;
1235.4000;0.4013;-1.4935;
1235.7000;0.4021;-1.4860;
1236.0000;0.4046;-1.4761;
1236.3000;0.4021;-1.4810;
1236.6000;0.3997;-1.4835;
1236.9000;0.3997;-1.4761;
1237.2000;0.4005;-1.4761;
1237.5000;0.4005;-1.4761;
1237.8000;0.4013;-1.4761;
1238.1000;0.3997;-1.4810;
1238.4000;0.3997;-1.4761;
1238.7000;0.3972;-1.4785;
1239.0000;0.4054;-1.4536;
1239.3000;0.4013;-1.4711;
1239.6000;0.4054;-1.4661;
1239.9000;0.4021;-1.4761;
1240.2000;0.4013;-1.4785;
1240.5000;0.3997;-1.4835;
1240.8000;0.3932;-1.5035;
1241.1000;0.4021;-1.4835;
1241.4000;0.4021;-1.4910;
1241.7000;0.3980;-1.4935;
1242.0000;0.4013;-1.4910;
1242.3000;0.3997;-1.4985;
1242.6000;0.4013;-1.4885;
1242.9000;0.4013;-1.4860;
1243.2000;0.4013;-1.4860;
1243.5000;0.4013;-1.4910;
1243.8000;0.4005;-1.4935;
1244.1000;0.3989;-1.4960;
1244.4000;0.4037;-1.4810;
1244.7000;0.4029;-1.4785;
1245.0000;0.4021;-1.4661;
1245.3000;0.4037;-1.4586;
1245.6000;0.4013;-1.4636;
1245.9000;0.4013;-1.4636;
1246.2000;0.4021;-1.4611;
1246.5000;0.4021;-1.4686;
1246.8000;0.4021;-1.4736;
1247.1000;0.3989;-1.4711;
1247.4000;0.3997;-1.4686;
1247.7000;0.4005;-1.4711;
1248.0000;0.4021;-1.4785;
1248.3000;0.4005;-1.4935;
1248.6000;0.4013;-1.5010;
1248.9000;0.4005;-1.5035;
1249.2000;0.4005;-1.5035;
1249.5000;0.4013;-1.4935;
1249.8000;0.4013;-1.4885;
1250.1000;0.4021;-1.4835;
1250.4000;0.4005;-1.4935;
1250.7000;0.4005;-1.4935;
1251.0000;0.3997;-1.4935;
1251.3000;0.3989;-1.4935;
1251.6000;0.3997;-1.4885;
1251.9000;0.4046;-1.4736;
1252.2000;0.4062;-1.4736;
1252.5000;0.4013;-1.4935;
1252.8000;0.4013;-1.4985;
1253.1000;0.4005;-1.5010;
1253.4000;0.4013;-1.5010;
1253.7000;0.4013;-1.4985;
1254.0000;0.3980;-1.5110;
1254.3000;0.4029;-1.4935;
1254.6000;0.4029;-1.5010;
1254.9000;0.4029;-1.4960;
1255.2000;0.4013;-1.5010;
1255.5000;0.4013;-1.5010;
1255.8000;0.3997;-1.4960;
1256.1000;0.4005;-1.4960;
1256.4000;0.4013;-1.4910;
1256.7000;0.3923;-1.5159;
1257.0000;0.4021;-1.4860;
1257.3000;0.4005;-1.4910;
1257.6000;0.3989;-1.4885;
1257.9000;0.4013;-1.4761;
1258.2000;0.4005;-1.4785;
1258.5000;0.4013;-1.4761;
1258.8000;0.4013;-1.4785;
1259.1000;0.3997;-1.4835;
1259.4000;0.4013;-1.4810;
1259.7000;0.4029;-1.4910;
1260.0000;0.4005;-1.4985;
1260.3000;0.4005;-1.4985;
1260.6000;0.4013;-1.4910;
1260.9000;0.4013;-1.4910;
1261.2000;0.3997;-1.4935;
1261.5000;0.4005;-1.4885;
1261.8000;0.3997;-1.4910;
1262.1000;0.4005;-1.4960;
1262.4000;0.4005;-1.4935;
1262.7000;0.3972;-1.5010;
1263.0000;0.4005;-1.4960;
1263.3000;0.4029;-1.4860;
1263.6000;0.4013;-1.4910;
1263.9000;0.4013;-1.4960;
1264.2000;0.4005;-1.4885;
1264.5000;0.4005;-1.4935;
1264.8000;0.3997;-1.4985;
1265.1000;0.3997;-1.4985;
1265.4000;0.4005;-1.4910;
1265.7000;0.4029;-1.4885;
1266.0000;0.4029;-1.4910;
1266.3000;0.3997;-1.5010;
1266.6000;0.4021;-1.4960;
1266.9000;0.4021;-1.4985;
1267.2000;0.4013;-1.5010;
1267.5000;0.4021;-1.4985;
1267.8000;0.4021;-1.5010;
1268.1000;0.3989;-1.5010;
1268.4000;0.4013;-1.5035;
1268.7000;0.4013;-1.4985;
1269.0000;0.4013;-1.5010;
1269.3000;0.4013;-1.4960;
1269.6000;0.4021;-1.4960;
1269.9000;0.4013;-1.5010;
1270.2000;0.4005;-1.5085;
1270.5000;0.4013;-1.5060;
1270.8000;0.4029;-1.5060;
1271.1000;0.4054;-1.4860;
1271.4000;0.4029;-1.4960;
1271.7000;0.4013;-1.5060;
1272.0000;0.3989;-1.5060;
1272.3000;0.4013;-1.4935;
1272.6000;0.4005;-1.4960;
1272.9000;0.3989;-1.4985;
1273.2000;0.4021;-1.4885;
1273.5000;0.4005;-1.4910;
1273.8000;0.3997;-1.4960;
1274.1000;0.3997;-1.4935;
1274.4000;0.3997;-1.4935;
1274.7000;0.4005;-1.4935;
1275.0000;0.3997;-1.4985;
1275.3000;0.3997;-1.5010;
1275.6000;0.3972;-1.5035;
1275.9000;0.4021;-1.4935;
1276.2000;0.4021;-1.4935;
1276.5000;0.4005;-1.4960;
1276.8000;0.4005;-1.4985;
1277.1000;0.4021;-1.4985;
1277.4000;0.4037;-1.4960;
1277.7000;0.4021;-1.4985;
1278.0000;0.4005;-1.5085;
1278.3000;0.4021;-1.5110;
1278.6000;0.4021;-1.5035;
1278.9000;0.4005;-1.5085;
1279.2000;0.4013;-1.5060;
1279.5000;0.4013;-1.5035;
1279.8000;0.4013;-1.4960;
1280.1000;0.4037;-1.4885;
1280.4000;0.3997;-1.4885;
1280.7000;0.4037;-1.4785;
1281.0000;0.4021;-1.4835;
1281.3000;0.4021;-1.4761;
1281.6000;0.4021;-1.4736;
1281.9000;0.3997;-1.4835;
1282.2000;0.3964;-1.4935;
1282.5000;0.4013;-1.4835;
1282.8000;0.4013;-1.4885;
1283.1000;0.4062;-1.4810;
1283.4000;0.4013;-1.4761;
1283.7000;0.4037;-1.4785;
1284.0000;0.4005;-1.4885;
1284.3000;0.4005;-1.4935;
1284.6000;0.4054;-1.4910;
1284.9000;0.4013;-1.5010;
1285.2000;0.3997;-1.4985;
1285.5000;0.4013;-1.4935;
1285.8000;0.4005;-1.4885;
1286.1000;0.4013;-1.4885;
1286.4000;0.4046;-1.4785;
1286.7000;0.4013;-1.4761;
1287.0000;0.3989;-1.4711;
1287.3000;0.4021;-1.4661;
1287.6000;0.4021;-1.4736;
1287.9000;0.3956;-1.5035;
1288.2000;0.3997;-1.4885;
1288.5000;0.3997;-1.4860;
1288.8000;0.4005;-1.4910;
1289.1000;0.3940;-1.5010;
1289.4000;0.4005;-1.4935;
1289.7000;0.4078;-1.4835;
1290.0000;0.4005;-1.5135;
1290.3000;0.3997;-1.5060;
1290.6000;0.4013;-1.4985;
1290.9000;0.4005;-1.4885;
1291.2000;0.4029;-1.4736;
1291.5000;0.4029;-1.4761;
1291.8000;0.3915;-1.4985;
1292.1000;0.4021;-1.4736;
1292.4000;0.3980;-1.4835;
1292.7000;0.4029;-1.4761;
1293.0000;0.4013;-1.4860;
1293.3000;0.3997;-1.4835;
1293.6000;0.4013;-1.4810;
1293.9000;0.3972;-1.4761;
1294.2000;0.4005;-1.4860;
1294.5000;0.4005;-1.4885;
1294.8000;0.4005;-1.4935;
1295.1000;0.3932;-1.5085;
1295.4000;0.3997;-1.4810;
1295.7000;0.4005;-1.4785;
1296.0000;0.4037;-1.4785;
1296.3000;0.4021;-1.4835;
1296.6000;0.4029;-1.4860;
1296.9000;0.4005;-1.4960;
1297.2000;0.3997;-1.5010;
1297.5000;0.3997;-1.5035;
1297.8000;0.4013;-1.5085;
1298.1000;0.3989;-1.5209;
1298.4000;0.4021;-1.5135;
1298.7000;0.3997;-1.5135;
1299.0000;0.4005;-1.5060;
1299.3000;0.4046;-1.4960;
1299.6000;0.4005;-1.4910;
1299.9000;0.3907;-1.5035;
1300.2000;0.3989;-1.4885;
1300.5000;0.4021;-1.4835;
1300.8000;0.3972;-1.4935;
1301.1000;0.4029;-1.4736;
1301.4000;0.4013;-1.4785;
1301.7000;0.4037;-1.4736;
1302.0000;0.4013;-1.4761;
1302.3000;0.4005;-1.4810;
1302.6000;0.4013;-1.4835;
1302.9000;0.4037;-1.4736;
1303.2000;0.4037;-1.4761;
1303.5000;0.3997;-1.4860;
1303.8000;0.4103;-1.4561;
1304.1000;0.4013;-1.4835;
1304.4000;0.4029;-1.4835;
1304.7000;0.4021;-1.4885;
1305.0000;0.3997;-1.4935;
1305.3000;0.4021;-1.4860;
1305.6000;0.4062;-1.4785;
1305.9000;0.4013;-1.4960;
1306.2000;0.3964;-1.5085;
1306.5000;0.3997;-1.5010;
1306.8000;0.4037;-1.4910;
1307.1000;0.4037;-1.4935;
1307.4000;0.4037;-1.4935;
1307.7000;0.3964;-1.4960;
1308.0000;0.4013;-1.4885;
1308.3000;0.4013;-1.4960;
1308.6000;0.3997;-1.4985;
1308.9000;0.3989;-1.5035;
1309.2000;0.3948;-1.5184;
1309.5000;0.3972;-1.5234;
1309.8000;0.3989;-1.5209;
1310.1000;0.3980;-1.5159;
1310.4000;0.4013;-1.4985;
1310.7000;0.4029;-1.4910;
1311.0000;0.4005;-1.4960;
1311.3000;0.3989;-1.5035;
1311.6000;0.4013;-1.4960;
1311.9000;0.3972;-1.5035;
1312.2000;0.4013;-1.4985;
1312.5000;0.4021;-1.5085;
1312.8000;0.4021;-1.5035;
1313.1000;0.4029;-1.4985;
1313.4000;0.4005;-1.5035;
1313.7000;0.4005;-1.5085;
1314.0000;0.4021;-1.5085;
1314.3000;0.4029;-1.5110;
1314.6000;0.4021;-1.5135;
1314.9000;0.4021;-1.5060;
1315.2000;0.4005;-1.4985;
1315.5000;0.4021;-1.4910;
1315.8000;0.4021;-1.4910;
1316.1000;0.3989;-1.4960;
1316.4000;0.4037;-1.4910;
1316.7000;0.4086;-1.4785;
1317.0000;0.4021;-1.4910;
1317.3000;0.4021;-1.4860;
1317.6000;0.4021;-1.4835;
1317.9000;0.4046;-1.4835;
1318.2000;0.4021;-1.4860;
1318.5000;0.3997;-1.4860;
1318.8000;0.4013;-1.4910;
1319.1000;0.4029;-1.4935;
1319.4000;0.4021;-1.4860;
1319.7000;0.4013;-1.4785;
1320.0000;0.3989;-1.4810;
1320.3000;0.4005;-1.4761;
1320.6000;0.3997;-1.4785;
1320.9000;0.4013;-1.4761;
1321.2000;0.4111;-1.4461;
1321.5000;0.4013;-1.4810;
1321.8000;0.4013;-1.4860;
1322.1000;0.4029;-1.4860;
1322.4000;0.4021;-1.4885;
1322.7000;0.4005;-1.4960;
1323.0000;0.4005;-1.5010;
1323.3000;0.3989;-1.5085;
1323.6000;0.4005;-1.5010;
1323.9000;0.4005;-1.5035;
1324.2000;0.4094;-1.4835;
1324.5000;0.3989;-1.5085;
1324.8000;0.4013;-1.5060;
1325.1000;0.4005;-1.5060;
1325.4000;0.4005;-1.5110;
1325.7000;0.4013;-1.5035;
1326.0000;0.4046;-1.4960;
1326.3000;0.4013;-1.5010;
1326.6000;0.3997;-1.5060;
1326.9000;0.4021;-1.4935;
1327.2000;0.4013;-1.4985;
1327.5000;0.4021;-1.5035;
1327.8000;0.4029;-1.5035;
1328.1000;0.4021;-1.5035;
1328.4000;0.4021;-1.5035;
1328.7000;0.4029;-1.5035;
1329.0000;0.4013;-1.5085;
1329.3000;0.4029;-1.5085;
1329.6000;0.4021;-1.5110;
1329.9000;0.4005;-1.5060;
1330.2000;0.4013;-1.5060;
1330.5000;0.3997;-1.5035;
1330.8000;0.4005;-1.5060;
1331.1000;0.3972;-1.5085;
1331.4000;0.4005;-1.4935;
1331.7000;0.4029;-1.4935;
1332.0000;0.4086;-1.4885;
1332.3000;0.4021;-1.5010;
1332.6000;0.4021;-1.5110;
1332.9000;0.4029;-1.5135;
1333.2000;0.3997;-1.5085;
1333.5000;0.4037;-1.5010;
1333.8000;0.4037;-1.5060;
1334.1000;0.4021;-1.5035;
1334.4000;0.4029;-1.4960;
1334.7000;0.4029;-1.4910;
1335.0000;0.4037;-1.4910;
1335.3000;0.4062;-1.4810;
1335.6000;0.4029;-1.4910;
1335.9000;0.4013;-1.4810;
1336.2000;0.4070;-1.4586;
1336.5000;0.4005;-1.4761;
1336.8000;0.3997;-1.4910;
1337.1000;0.4029;-1.4885;
1337.4000;0.4029;-1.4960;
1337.7000;0.3997;-1.5060;
1338.0000;0.4021;-1.4960;
1338.3000;0.4005;-1.4960;
1338.6000;0.4013;-1.4910;
1338.9000;0.4029;-1.4885;
1339.2000;0.3964;-1.5085;
1339.5000;0.4013;-1.5035;
1339.8000;0.4029;-1.5159;
1340.1000;0.4021;-1.5159;
1340.4000;0.4021;-1.5035;
1340.7000;0.3997;-1.4985;
1341.0000;0.3989;-1.4960;
1341.3000;0.4037;-1.4810;
1341.6000;0.3989;-1.4885;
1341.9000;0.4021;-1.4785;
1342.2000;0.4029;-1.4736;
1342.5000;0.4013;-1.4835;
1342.8000;0.4013;-1.4785;
1343.1000;0.4005;-1.4860;
1343.4000;0.4046;-1.4761;
1343.7000;0.4046;-1.4761;
1344.0000;0.4054;-1.4736;
1344.3000;0.3980;-1.4960;
1344.6000;0.4029;-1.4910;
1344.9000;0.4021;-1.4960;
1345.2000;0.4021;-1.5035;
1345.5000;0.4021;-1.5035;
1345.8000;0.4054;-1.4910;
1346.1000;0.3956;-1.5159;
1346.4000;0.3997;-1.4960;
1346.7000;0.4021;-1.4885;
1347.0000;0.3989;-1.4935;
1347.3000;0.4005;-1.4935;
1347.6000;0.4005;-1.5010;
1347.9000;0.4021;-1.4860;
1348.2000;0.4021;-1.4810;
1348.5000;0.4013;-1.4935;
1348.8000;0.4013;-1.4935;
1349.1000;0.4037;-1.4910;
1349.4000;0.4005;-1.5035;
1349.7000;0.4021;-1.5035;
1350.0000;0.4021;-1.5010;
1350.3000;0.4021;-1.5010;
1350.6000;0.3964;-1.5010;
1350.9000;0.4013;-1.4910;
1351.2000;0.4021;-1.4910;
1351.5000;0.4013;-1.4985;
1351.8000;0.3997;-1.5035;
1352.1000;0.4029;-1.4985;
1352.4000;0.4021;-1.5060;
1352.7000;0.4005;-1.5035;
1353.0000;0.3997;-1.5035;
1353.3000;0.4021;-1.5110;
1353.6000;0.4021;-1.5209;
1353.9000;0.4013;-1.5259;
1354.2000;0.4021;-1.5259;
1354.5000;0.4029;-1.5135;
1354.8000;0.4013;-1.5110;
1355.1000;0.4029;-1.5035;
1355.4000;0.3997;-1.4910;
1355.7000;0.4005;-1.4960;
1356.0000;0.4005;-1.4935;
1356.3000;0.4021;-1.4935;
1356.6000;0.4021;-1.4960;
1356.9000;0.3997;-1.4910;
1357.2000;0.4029;-1.4835;
1357.5000;0.3997;-1.4985;
1357.8000;0.3956;-1.5060;
1358.1000;0.3997;-1.4960;
1358.4000;0.4037;-1.4910;
1358.7000;0.4021;-1.5035;
1359.0000;0.4021;-1.4935;
1359.3000;0.4054;-1.4810;
1359.6000;0.3997;-1.4985;
1359.9000;0.4005;-1.4985;
1360.2000;0.4062;-1.4785;
1360.5000;0.4021;-1.4860;
1360.8000;0.4021;-1.4885;
1361.1000;0.4013;-1.4860;
1361.4000;0.4013;-1.4785;
1361.7000;0.4021;-1.4711;
1362.0000;0.4037;-1.4711;
1362.3000;0.3875;-1.5010;
1362.6000;0.4013;-1.4611;
1362.9000;0.4013;-1.4661;
1363.2000;0.4013;-1.4686;
1363.5000;0.4013;-1.4736;
1363.8000;0.4013;-1.4785;
1364.1000;0.4013;-1.4785;
1364.4000;0.4037;-1.4785;
1364.7000;0.4021;-1.4910;
1365.0000;0.4021;-1.4935;
1365.3000;0.4021;-1.4935;
1365.6000;0.4021;-1.4985;
1365.9000;0.3997;-1.4985;
1366.2000;0.3972;-1.5010;
1366.5000;0.4021;-1.4835;
1366.8000;0.4029;-1.4736;
1367.1000;0.4021;-1.4910;
1367.4000;0.4013;-1.4960;
1367.7000;0.4029;-1.4985;
1368.0000;0.4013;-1.5035;
1368.3000;0.4021;-1.4935;
1368.6000;0.3997;-1.4985;
1368.9000;0.4029;-1.4885;
1369.2000;0.4013;-1.4885;
1369.5000;0.4021;-1.4835;
1369.8000;0.4013;-1.4810;
1370.1000;0.4013;-1.4860;
1370.4000;0.4021;-1.4860;
1370.7000;0.4005;-1.4810;
1371.0000;0.4013;-1.4885;
1371.3000;0.4021;-1.4885;
1371.6000;0.3997;-1.4885;
1371.9000;0.4005;-1.4810;
1372.2000;0.4005;-1.4761;
1372.5000;0.4013;-1.4935;
1372.8000;0.4029;-1.4910;
1373.1000;0.4021;-1.5035;
1373.4000;0.4021;-1.5085;
1373.7000;0.4021;-1.5035;
1374.0000;0.3989;-1.5209;
1374.3000;0.4037;-1.5035;
1374.6000;0.4021;-1.4960;
1374.9000;0.3940;-1.5110;
1375.2000;0.4013;-1.4885;
1375.5000;0.4021;-1.4860;
1375.8000;0.4013;-1.4860;
1376.1000;0.4013;-1.4910;
1376.4000;0.3989;-1.4935;
1376.7000;0.4021;-1.4910;
1377.0000;0.3964;-1.5060;
1377.3000;0.4029;-1.4985;
1377.6000;0.4013;-1.5010;
1377.9000;0.4046;-1.4885;
1378.2000;0.4029;-1.4985;
1378.5000;0.4021;-1.5035;
1378.8000;0.4029;-1.5085;
1379.1000;0.4005;-1.5135;
1379.4000;0.4029;-1.5085;
1379.7000;0.4029;-1.5010;
1380.0000;0.4021;-1.5010;
1380.3000;0.4005;-1.4935;
1380.6000;0.4021;-1.4985;
1380.9000;0.4021;-1.4985;
1381.2000;0.4029;-1.5010;
1381.5000;0.4021;-1.5035;
1381.8000;0.4021;-1.4960;
1382.1000;0.4037;-1.4860;
1382.4000;0.4029;-1.4885;
1382.7000;0.3980;-1.4985;
1383.0000;0.4021;-1.4935;
1383.3000;0.4070;-1.4885;
1383.6000;0.4029;-1.4935;
1383.9000;0.4013;-1.4885;
1384.2000;0.4054;-1.4835;
1384.5000;0.4037;-1.4835;
1384.8000;0.4021;-1.4910;
1385.1000;0.3989;-1.5010;
1385.4000;0.4029;-1.4935;
1385.7000;0.4021;-1.4935;
1386.0000;0.4013;-1.4910;
1386.3000;0.4013;-1.4935;
1386.6000;0.4021;-1.4960;
1386.9000;0.4021;-1.4935;
1387.2000;0.4119;-1.4661;
1387.5000;0.4046;-1.4910;
1387.8000;0.4046;-1.4935;
1388.1000;0.4029;-1.4860;
1388.4000;0.4013;-1.4885;
1388.7000;0.4029;-1.4761;
1389.0000;0.3972;-1.4910;
1389.3000;0.4086;-1.4611;
1389.6000;0.3997;-1.4810;
1389.9000;0.4021;-1.4785;
1390.2000;0.4054;-1.4761;
1390.5000;0.3997;-1.4860;
1390.8000;0.4021;-1.4885;
1391.1000;0.4021;-1.4860;
1391.4000;0.4029;-1.4910;
1391.7000;0.4013;-1.4960;
1392.0000;0.4029;-1.4960;
1392.3000;0.4021;-1.4985;
1392.6000;0.4021;-1.5010;
1392.9000;0.4037;-1.4960;
1393.2000;0.4029;-1.5010;
1393.5000;0.4029;-1.4985;
1393.8000;0.4054;-1.4885;
1394.1000;0.4037;-1.4860;
1394.4000;0.4046;-1.4885;
1394.7000;0.4021;-1.4910;
1395.0000;0.4037;-1.4860;
1395.3000;0.4021;-1.4935;
1395.6000;0.4021;-1.4985;
1395.9000;0.4013;-1.4935;
1396.2000;0.4046;-1.4860;
1396.5000;0.4029;-1.4935;
1396.8000;0.4013;-1.4935;
1397.1000;0.3948;-1.5159;
1397.4000;0.4046;-1.4910;
1397.7000;0.4029;-1.4910;
1398.0000;0.4013;-1.4960;
1398.3000;0.4005;-1.4985;
1398.6000;0.4037;-1.4810;
1398.9000;0.3972;-1.4960;
1399.2000;0.3989;-1.4860;
1399.5000;0.4021;-1.4810;
1399.8000;0.4029;-1.4761;
