time/ms;Fluo/V;P700 deltaI/I x10³;
-199.8000;0.4339;-1.6232;
-199.5000;0.4322;-1.6381;
-199.2000;0.4314;-1.6456;
-198.9000;0.4322;-1.6556;
-198.6000;0.4322;-1.6531;
-198.3000;0.4322;-1.6606;
-198.0000;0.4306;-1.6631;
-197.7000;0.4339;-1.6556;
-197.4000;0.4347;-1.6431;
-197.1000;0.4339;-1.6431;
-196.8000;0.4314;-1.6481;
-196.5000;0.4322;-1.6506;
-196.2000;0.4330;-1.6481;
-195.9000;0.4330;-1.6406;
-195.6000;0.4306;-1.6406;
-195.3000;0.4314;-1.6257;
-195.0000;0.4290;-1.6306;
-194.7000;0.4322;-1.6207;
-194.4000;0.4265;-1.6406;
-194.1000;0.4322;-1.6257;
-193.8000;0.4314;-1.6331;
-193.5000;0.4347;-1.6331;
-193.2000;0.4265;-1.6481;
-192.9000;0.4330;-1.6381;
-192.6000;0.4322;-1.6406;
-192.3000;0.4355;-1.6356;
-192.0000;0.4314;-1.6431;
-191.7000;0.4306;-1.6356;
-191.4000;0.4298;-1.6431;
-191.1000;0.4330;-1.6381;
-190.8000;0.4306;-1.6381;
-190.5000;0.4314;-1.6281;
-190.2000;0.4298;-1.6281;
-189.9000;0.4298;-1.6232;
-189.6000;0.4322;-1.6182;
-189.3000;0.4306;-1.6306;
-189.0000;0.4306;-1.6306;
-188.7000;0.4306;-1.6281;
-188.4000;0.4314;-1.6381;
-188.1000;0.4396;-1.6107;
-187.8000;0.4298;-1.6381;
-187.5000;0.4314;-1.6381;
-187.2000;0.4330;-1.6257;
-186.9000;0.4298;-1.6306;
-186.6000;0.4314;-1.6257;
-186.3000;0.4306;-1.6232;
-186.0000;0.4306;-1.6232;
-185.7000;0.4314;-1.6182;
-185.4000;0.4306;-1.6132;
-185.1000;0.4298;-1.6257;
-184.8000;0.4298;-1.6331;
-184.5000;0.4314;-1.6381;
-184.2000;0.4306;-1.6306;
-183.9000;0.4298;-1.6406;
-183.6000;0.4290;-1.6381;
-183.3000;0.4298;-1.6306;
-183.0000;0.4306;-1.6207;
-182.7000;0.4265;-1.6306;
-182.4000;0.4306;-1.6257;
-182.1000;0.4282;-1.6257;
-181.8000;0.4290;-1.6182;
-181.5000;0.4298;-1.6257;
-181.2000;0.4282;-1.6331;
-180.9000;0.4298;-1.6257;
-180.6000;0.4265;-1.6257;
-180.3000;0.4282;-1.6281;
-180.0000;0.4290;-1.6232;
-179.7000;0.4298;-1.6157;
-179.4000;0.4306;-1.6082;
-179.1000;0.4298;-1.6132;
-178.8000;0.4298;-1.6157;
-178.5000;0.4274;-1.6207;
-178.2000;0.4282;-1.6232;
-177.9000;0.4290;-1.6281;
-177.6000;0.4282;-1.6331;
-177.3000;0.4282;-1.6331;
-177.0000;0.4274;-1.6306;
-176.7000;0.4274;-1.6331;
-176.4000;0.4282;-1.6331;
-176.1000;0.4282;-1.6331;
-175.8000;0.4298;-1.6281;
-175.5000;0.4306;-1.6207;
-175.2000;0.4274;-1.6281;
-174.9000;0.4306;-1.6182;
-174.6000;0.4306;-1.6157;
-174.3000;0.4298;-1.6057;
-174.0000;0.4282;-1.6157;
-173.7000;0.4330;-1.6032;
-173.4000;0.4282;-1.6232;
-173.1000;0.4290;-1.6207;
-172.8000;0.4290;-1.6207;
-172.5000;0.4274;-1.6257;
-172.2000;0.4282;-1.6257;
-171.9000;0.4274;-1.6281;
-171.6000;0.4282;-1.6281;
-171.3000;0.4282;-1.6182;
-171.0000;0.4265;-1.6281;
-170.7000;0.4371;-1.5982;
-170.4000;0.4282;-1.6232;
-170.1000;0.4274;-1.6207;
-169.8000;0.4290;-1.6107;
-169.5000;0.4265;-1.6207;
-169.2000;0.4290;-1.6157;
-168.9000;0.4274;-1.6257;
-168.6000;0.4282;-1.6207;
-168.3000;0.4274;-1.6157;
-168.0000;0.4208;-1.6381;
-167.7000;0.4339;-1.6107;
-167.4000;0.4306;-1.6207;
-167.1000;0.4249;-1.6281;
-166.8000;0.4282;-1.6306;
-166.5000;0.4282;-1.6232;
-166.2000;0.4290;-1.6207;
-165.9000;0.4265;-1.6257;
-165.6000;0.4265;-1.6281;
-165.3000;0.4282;-1.6182;
-165.0000;0.4233;-1.6331;
-164.7000;0.4290;-1.6232;
-164.4000;0.4290;-1.6232;
-164.1000;0.4290;-1.6132;
-163.8000;0.4298;-1.6132;
-163.5000;0.4282;-1.6207;
-163.2000;0.4282;-1.6182;
-162.9000;0.4290;-1.6132;
-162.6000;0.4265;-1.6207;
-162.3000;0.4282;-1.6157;
-162.0000;0.4274;-1.6207;
-161.7000;0.4274;-1.6182;
-161.4000;0.4249;-1.6257;
-161.1000;0.4274;-1.6182;
-160.8000;0.4257;-1.6257;
-160.5000;0.4192;-1.6331;
-160.2000;0.4282;-1.6157;
-159.9000;0.4200;-1.6381;
-159.6000;0.4314;-1.6007;
-159.3000;0.4282;-1.6057;
-159.0000;0.4265;-1.6132;
-158.7000;0.4257;-1.6107;
-158.4000;0.4282;-1.6032;
-158.1000;0.4298;-1.6032;
-157.8000;0.4282;-1.6207;
-157.5000;0.4249;-1.6406;
-157.2000;0.4282;-1.6381;
-156.9000;0.4257;-1.6406;
-156.6000;0.4257;-1.6431;
-156.3000;0.4265;-1.6381;
-156.0000;0.4265;-1.6381;
-155.7000;0.4314;-1.6331;
-155.4000;0.4274;-1.6381;
-155.1000;0.4330;-1.6232;
-154.8000;0.4282;-1.6356;
-154.5000;0.4274;-1.6431;
-154.2000;0.4274;-1.6456;
-153.9000;0.4290;-1.6406;
-153.6000;0.4282;-1.6456;
-153.3000;0.4265;-1.6506;
-153.0000;0.4274;-1.6506;
-152.7000;0.4265;-1.6506;
-152.4000;0.4257;-1.6406;
-152.1000;0.4274;-1.6506;
-151.8000;0.4265;-1.6481;
-151.5000;0.4282;-1.6481;
-151.2000;0.4265;-1.6556;
-150.9000;0.4282;-1.6431;
-150.6000;0.4257;-1.6381;
-150.3000;0.4265;-1.6331;
-150.0000;0.4322;-1.6157;
-149.7000;0.4249;-1.6331;
-149.4000;0.4257;-1.6232;
-149.1000;0.4265;-1.6107;
-148.8000;0.4257;-1.6182;
-148.5000;0.4257;-1.6132;
-148.2000;0.4241;-1.6182;
-147.9000;0.4274;-1.6107;
-147.6000;0.4265;-1.6057;
-147.3000;0.4249;-1.6107;
-147.0000;0.4233;-1.6232;
-146.7000;0.4249;-1.6157;
-146.4000;0.4249;-1.6082;
-146.1000;0.4249;-1.6082;
-145.8000;0.4233;-1.6182;
-145.5000;0.4249;-1.6132;
-145.2000;0.4257;-1.6082;
-144.9000;0.4249;-1.6057;
-144.6000;0.4274;-1.6082;
-144.3000;0.4241;-1.6107;
-144.0000;0.4265;-1.5957;
-143.7000;0.4249;-1.6007;
-143.4000;0.4217;-1.6207;
-143.1000;0.4241;-1.6082;
-142.8000;0.4265;-1.6082;
-142.5000;0.4322;-1.5957;
-142.2000;0.4257;-1.6057;
-141.9000;0.4265;-1.6057;
-141.6000;0.4274;-1.6132;
-141.3000;0.4282;-1.6207;
-141.0000;0.4274;-1.6132;
-140.7000;0.4249;-1.6207;
-140.4000;0.4298;-1.6132;
-140.1000;0.4200;-1.6356;
-139.8000;0.4265;-1.6182;
-139.5000;0.4265;-1.6157;
-139.2000;0.4233;-1.6207;
-138.9000;0.4282;-1.6107;
-138.6000;0.4274;-1.6182;
-138.3000;0.4265;-1.6182;
-138.0000;0.4241;-1.6257;
-137.7000;0.4257;-1.6057;
-137.4000;0.4290;-1.5957;
-137.1000;0.4265;-1.5957;
-136.8000;0.4274;-1.6007;
-136.5000;0.4306;-1.5957;
-136.2000;0.4265;-1.6132;
-135.9000;0.4282;-1.6132;
-135.6000;0.4168;-1.6406;
-135.3000;0.4265;-1.6281;
-135.0000;0.4257;-1.6381;
-134.7000;0.4282;-1.6356;
-134.4000;0.4339;-1.6207;
-134.1000;0.4265;-1.6356;
-133.8000;0.4274;-1.6281;
-133.5000;0.4282;-1.6182;
-133.2000;0.4298;-1.6132;
-132.9000;0.4265;-1.6157;
-132.6000;0.4265;-1.6257;
-132.3000;0.4330;-1.6082;
-132.0000;0.4249;-1.6281;
-131.7000;0.4249;-1.6406;
-131.4000;0.4225;-1.6456;
-131.1000;0.4322;-1.6281;
-130.8000;0.4257;-1.6381;
-130.5000;0.4274;-1.6331;
-130.2000;0.4241;-1.6381;
-129.9000;0.4265;-1.6281;
-129.6000;0.4265;-1.6281;
-129.3000;0.4274;-1.6281;
-129.0000;0.4265;-1.6257;
-128.7000;0.4274;-1.6182;
-128.4000;0.4282;-1.6257;
-128.1000;0.4274;-1.6306;
-127.8000;0.4282;-1.6331;
-127.5000;0.4282;-1.6306;
-127.2000;0.4282;-1.6306;
-126.9000;0.4233;-1.6356;
-126.6000;0.4282;-1.6306;
-126.3000;0.4282;-1.6306;
-126.0000;0.4282;-1.6331;
-125.7000;0.4282;-1.6331;
-125.4000;0.4274;-1.6257;
-125.1000;0.4274;-1.6356;
-124.8000;0.4290;-1.6356;
-124.5000;0.4290;-1.6281;
-124.2000;0.4282;-1.6281;
-123.9000;0.4274;-1.6207;
-123.6000;0.4274;-1.6182;
-123.3000;0.4282;-1.6107;
-123.0000;0.4257;-1.6132;
-122.7000;0.4265;-1.6257;
-122.4000;0.4282;-1.6207;
-122.1000;0.4274;-1.6257;
-121.8000;0.4306;-1.6157;
-121.5000;0.4265;-1.6232;
-121.2000;0.4274;-1.6232;
-120.9000;0.4282;-1.6082;
-120.6000;0.4314;-1.6132;
-120.3000;0.4265;-1.6257;
-120.0000;0.4257;-1.6257;
-119.7000;0.4306;-1.6182;
-119.4000;0.4233;-1.6431;
-119.1000;0.4298;-1.6207;
-118.8000;0.4282;-1.6232;
-118.5000;0.4282;-1.6232;
-118.2000;0.4274;-1.6306;
-117.9000;0.4290;-1.6331;
-117.6000;0.4290;-1.6406;
-117.3000;0.4396;-1.6157;
-117.0000;0.4282;-1.6381;
-116.7000;0.4290;-1.6257;
-116.4000;0.4322;-1.6132;
-116.1000;0.4274;-1.6207;
-115.8000;0.4282;-1.6157;
-115.5000;0.4290;-1.6157;
-115.2000;0.4290;-1.6207;
-114.9000;0.4184;-1.6381;
-114.6000;0.4282;-1.6306;
-114.3000;0.4314;-1.6257;
-114.0000;0.4265;-1.6331;
-113.7000;0.4282;-1.6257;
-113.4000;0.4290;-1.6157;
-113.1000;0.4282;-1.6182;
-112.8000;0.4290;-1.6182;
-112.5000;0.4298;-1.6182;
-112.2000;0.4290;-1.6157;
-111.9000;0.4241;-1.6331;
-111.6000;0.4290;-1.6207;
-111.3000;0.4290;-1.6207;
-111.0000;0.4241;-1.6257;
-110.7000;0.4306;-1.6082;
-110.4000;0.4355;-1.5957;
-110.1000;0.4306;-1.6107;
-109.8000;0.4298;-1.6182;
-109.5000;0.4306;-1.6157;
-109.2000;0.4371;-1.5982;
-108.9000;0.4298;-1.6132;
-108.6000;0.4282;-1.6207;
-108.3000;0.4290;-1.6232;
-108.0000;0.4314;-1.6132;
-107.7000;0.4314;-1.6157;
-107.4000;0.4298;-1.6257;
-107.1000;0.4339;-1.6207;
-106.8000;0.4322;-1.6232;
-106.5000;0.4339;-1.6232;
-106.2000;0.4355;-1.6157;
-105.9000;0.4314;-1.6257;
-105.6000;0.4322;-1.6331;
-105.3000;0.4290;-1.6431;
-105.0000;0.4314;-1.6356;
-104.7000;0.4339;-1.6306;
-104.4000;0.4298;-1.6306;
-104.1000;0.4330;-1.6257;
-103.8000;0.4306;-1.6331;
-103.5000;0.4314;-1.6281;
-103.2000;0.4339;-1.6182;
-102.9000;0.4306;-1.6257;
-102.6000;0.4322;-1.6207;
-102.3000;0.4314;-1.6182;
-102.0000;0.4290;-1.6257;
-101.7000;0.4339;-1.6232;
-101.4000;0.4355;-1.6157;
-101.1000;0.4330;-1.6157;
-100.8000;0.4290;-1.6306;
-100.5000;0.4339;-1.6132;
-100.2000;0.4322;-1.6182;
-99.9000;0.4322;-1.6107;
-99.6000;0.4314;-1.6107;
-99.3000;0.4322;-1.6232;
-99.0000;0.4355;-1.6182;
-98.7000;0.4298;-1.6281;
-98.4000;0.4314;-1.6306;
-98.1000;0.4314;-1.6306;
-97.8000;0.4379;-1.6132;
-97.5000;0.4330;-1.6207;
-97.2000;0.4322;-1.6281;
-96.9000;0.4322;-1.6306;
-96.6000;0.4330;-1.6356;
-96.3000;0.4347;-1.6331;
-96.0000;0.4314;-1.6406;
-95.7000;0.4314;-1.6356;
-95.4000;0.4347;-1.6232;
-95.1000;0.4330;-1.6257;
-94.8000;0.4363;-1.6257;
-94.5000;0.4314;-1.6356;
-94.2000;0.4330;-1.6381;
-93.9000;0.4379;-1.6356;
-93.6000;0.4347;-1.6456;
-93.3000;0.4347;-1.6456;
-93.0000;0.4306;-1.6381;
-92.7000;0.4339;-1.6281;
-92.4000;0.4306;-1.6356;
-92.1000;0.4322;-1.6331;
-91.8000;0.4347;-1.6331;
-91.5000;0.4420;-1.6032;
-91.2000;0.4355;-1.6207;
-90.9000;0.4322;-1.6306;
-90.6000;0.4347;-1.6381;
-90.3000;0.4363;-1.6306;
-90.0000;0.4330;-1.6356;
-89.7000;0.4339;-1.6356;
-89.4000;0.4347;-1.6381;
-89.1000;0.4347;-1.6506;
-88.8000;0.4347;-1.6556;
-88.5000;0.4306;-1.6655;
-88.2000;0.4347;-1.6481;
-87.9000;0.4379;-1.6331;
-87.6000;0.4371;-1.6331;
-87.3000;0.4347;-1.6331;
-87.0000;0.4355;-1.6356;
-86.7000;0.4379;-1.6207;
-86.4000;0.4379;-1.6157;
-86.1000;0.4355;-1.6232;
-85.8000;0.4363;-1.6207;
-85.5000;0.4339;-1.6182;
-85.2000;0.4371;-1.6107;
-84.9000;0.4355;-1.6232;
-84.6000;0.4371;-1.6182;
-84.3000;0.4355;-1.6257;
-84.0000;0.4371;-1.6182;
-83.7000;0.4396;-1.6157;
-83.4000;0.4379;-1.6232;
-83.1000;0.4379;-1.6207;
-82.8000;0.4371;-1.6207;
-82.5000;0.4371;-1.6182;
-82.2000;0.4363;-1.6257;
-81.9000;0.4387;-1.6207;
-81.6000;0.4387;-1.6132;
-81.3000;0.4379;-1.6132;
-81.0000;0.4379;-1.6132;
-80.7000;0.4387;-1.6157;
-80.4000;0.4371;-1.6257;
-80.1000;0.4379;-1.6232;
-79.8000;0.4396;-1.6281;
-79.5000;0.4396;-1.6406;
-79.2000;0.4371;-1.6456;
-78.9000;0.4371;-1.6456;
-78.6000;0.4363;-1.6431;
-78.3000;0.4363;-1.6481;
-78.0000;0.4387;-1.6406;
-77.7000;0.4379;-1.6356;
-77.4000;0.4396;-1.6207;
-77.1000;0.4387;-1.6281;
-76.8000;0.4371;-1.6356;
-76.5000;0.4363;-1.6431;
-76.2000;0.4396;-1.6356;
-75.9000;0.4412;-1.6331;
-75.6000;0.4387;-1.6506;
-75.3000;0.4396;-1.6481;
-75.0000;0.4453;-1.6356;
-74.7000;0.4436;-1.6431;
-74.4000;0.4461;-1.6381;
-74.1000;0.4387;-1.6556;
-73.8000;0.4404;-1.6406;
-73.5000;0.4412;-1.6356;
-73.2000;0.4306;-1.6556;
-72.9000;0.4412;-1.6232;
-72.6000;0.4412;-1.6207;
-72.3000;0.4355;-1.6232;
-72.0000;0.4420;-1.6082;
-71.7000;0.4412;-1.6057;
-71.4000;0.4412;-1.6207;
-71.1000;0.4355;-1.6431;
-70.8000;0.4404;-1.6306;
-70.5000;0.4412;-1.6207;
-70.2000;0.4444;-1.6157;
-69.9000;0.4436;-1.6157;
-69.6000;0.4412;-1.6232;
-69.3000;0.4420;-1.6257;
-69.0000;0.4420;-1.6207;
-68.7000;0.4420;-1.6232;
-68.4000;0.4485;-1.6107;
-68.1000;0.4420;-1.6257;
-67.8000;0.4428;-1.6182;
-67.5000;0.4469;-1.6057;
-67.2000;0.4428;-1.6057;
-66.9000;0.4371;-1.6281;
-66.6000;0.4404;-1.6207;
-66.3000;0.4428;-1.6082;
-66.0000;0.4420;-1.6207;
-65.7000;0.4436;-1.6207;
-65.4000;0.4379;-1.6356;
-65.1000;0.4436;-1.6281;
-64.8000;0.4387;-1.6306;
-64.5000;0.4436;-1.6157;
-64.2000;0.4461;-1.6132;
-63.9000;0.4436;-1.6182;
-63.6000;0.4444;-1.6132;
-63.3000;0.4453;-1.6157;
-63.0000;0.4420;-1.6232;
-62.7000;0.4469;-1.6082;
-62.4000;0.4436;-1.6207;
-62.1000;0.4461;-1.6157;
-61.8000;0.4477;-1.6182;
-61.5000;0.4469;-1.6306;
-61.2000;0.4469;-1.6381;
-60.9000;0.4453;-1.6456;
-60.6000;0.4477;-1.6306;
-60.3000;0.4477;-1.6281;
-60.0000;0.4461;-1.6456;
-59.7000;0.4469;-1.6406;
-59.4000;0.4469;-1.6406;
-59.1000;0.4469;-1.6481;
-58.8000;0.4461;-1.6481;
-58.5000;0.4493;-1.6381;
-58.2000;0.4469;-1.6431;
-57.9000;0.4477;-1.6381;
-57.6000;0.4469;-1.6381;
-57.3000;0.4485;-1.6381;
-57.0000;0.4493;-1.6406;
-56.7000;0.4485;-1.6356;
-56.4000;0.4485;-1.6306;
-56.1000;0.4493;-1.6306;
-55.8000;0.4493;-1.6306;
-55.5000;0.4493;-1.6257;
-55.2000;0.4493;-1.6257;
-54.9000;0.4453;-1.6431;
-54.6000;0.4493;-1.6331;
-54.3000;0.4510;-1.6306;
-54.0000;0.4477;-1.6331;
-53.7000;0.4501;-1.6356;
-53.4000;0.4510;-1.6331;
-53.1000;0.4501;-1.6306;
-52.8000;0.4501;-1.6306;
-52.5000;0.4501;-1.6331;
-52.2000;0.4501;-1.6431;
-51.9000;0.4477;-1.6506;
-51.6000;0.4510;-1.6481;
-51.3000;0.4493;-1.6531;
-51.0000;0.4501;-1.6606;
-50.7000;0.4510;-1.6606;
-50.4000;0.4428;-1.6730;
-50.1000;0.4501;-1.6481;
-49.8000;0.4501;-1.6456;
-49.5000;0.4510;-1.6331;
-49.2000;0.4518;-1.6356;
-48.9000;0.4526;-1.6331;
-48.6000;0.4518;-1.6331;
-48.3000;0.4518;-1.6381;
-48.0000;0.4526;-1.6381;
-47.7000;0.4534;-1.6306;
-47.4000;0.4436;-1.6531;
-47.1000;0.4518;-1.6331;
-46.8000;0.4534;-1.6356;
-46.5000;0.4526;-1.6281;
-46.2000;0.4542;-1.6281;
-45.9000;0.4583;-1.6082;
-45.6000;0.4550;-1.6281;
-45.3000;0.4542;-1.6306;
-45.0000;0.4534;-1.6182;
-44.7000;0.4526;-1.6207;
-44.4000;0.4526;-1.6232;
-44.1000;0.4550;-1.6207;
-43.8000;0.4542;-1.6257;
-43.5000;0.4583;-1.6232;
-43.2000;0.4550;-1.6406;
-42.9000;0.4550;-1.6406;
-42.6000;0.4518;-1.6331;
-42.3000;0.4534;-1.6182;
-42.0000;0.4558;-1.6182;
-41.7000;0.4558;-1.6157;
-41.4000;0.4567;-1.6132;
-41.1000;0.4550;-1.6232;
-40.8000;0.4542;-1.6257;
-40.5000;0.4550;-1.6232;
-40.2000;0.4567;-1.6257;
-39.9000;0.4567;-1.6331;
-39.6000;0.4575;-1.6431;
-39.3000;0.4567;-1.6356;
-39.0000;0.4575;-1.6356;
-38.7000;0.4575;-1.6381;
-38.4000;0.4583;-1.6406;
-38.1000;0.4575;-1.6481;
-37.8000;0.4550;-1.6631;
-37.5000;0.4591;-1.6531;
-37.2000;0.4583;-1.6456;
-36.9000;0.4583;-1.6431;
-36.6000;0.4591;-1.6456;
-36.3000;0.4583;-1.6531;
-36.0000;0.4607;-1.6531;
-35.7000;0.4599;-1.6531;
-35.4000;0.4599;-1.6506;
-35.1000;0.4599;-1.6431;
-34.8000;0.4624;-1.6406;
-34.5000;0.4599;-1.6481;
-34.2000;0.4599;-1.6556;
-33.9000;0.4615;-1.6631;
-33.6000;0.4591;-1.6631;
-33.3000;0.4599;-1.6680;
-33.0000;0.4583;-1.6655;
-32.7000;0.4624;-1.6531;
-32.4000;0.4607;-1.6655;
-32.1000;0.4607;-1.6655;
-31.8000;0.4599;-1.6655;
-31.5000;0.4624;-1.6581;
-31.2000;0.4624;-1.6631;
-30.9000;0.4615;-1.6655;
-30.6000;0.4615;-1.6581;
-30.3000;0.4624;-1.6556;
-30.0000;0.4640;-1.6456;
-29.7000;0.4624;-1.6680;
-29.4000;0.4648;-1.6655;
-29.1000;0.4624;-1.6680;
-28.8000;0.4624;-1.6655;
-28.5000;0.4599;-1.6631;
-28.2000;0.4615;-1.6456;
-27.9000;0.4624;-1.6356;
-27.6000;0.4632;-1.6456;
-27.3000;0.4624;-1.6531;
-27.0000;0.4607;-1.6631;
-26.7000;0.4656;-1.6456;
-26.4000;0.4640;-1.6506;
-26.1000;0.4640;-1.6431;
-25.8000;0.4624;-1.6456;
-25.5000;0.4640;-1.6531;
-25.2000;0.4624;-1.6606;
-24.9000;0.4640;-1.6556;
-24.6000;0.4542;-1.6955;
-24.3000;0.4648;-1.6730;
-24.0000;0.4632;-1.6705;
-23.7000;0.4640;-1.6680;
-23.4000;0.4640;-1.6755;
-23.1000;0.4640;-1.6755;
-22.8000;0.4640;-1.6805;
-22.5000;0.4632;-1.6780;
-22.2000;0.4656;-1.6755;
-21.9000;0.4770;-1.6431;
-21.6000;0.4664;-1.6680;
-21.3000;0.4656;-1.6606;
-21.0000;0.4713;-1.6381;
-20.7000;0.4689;-1.6431;
-20.4000;0.4672;-1.6506;
-20.1000;0.4664;-1.6506;
-19.8000;0.4689;-1.6556;
-19.5000;0.4672;-1.6730;
-19.2000;0.4681;-1.6755;
-18.9000;0.4672;-1.6680;
-18.6000;0.4672;-1.6606;
-18.3000;0.4672;-1.6606;
-18.0000;0.4681;-1.6556;
-17.7000;0.4664;-1.6531;
-17.4000;0.4681;-1.6481;
-17.1000;0.4681;-1.6381;
-16.8000;0.4681;-1.6431;
-16.5000;0.4672;-1.6431;
-16.2000;0.4689;-1.6356;
-15.9000;0.4713;-1.6331;
-15.6000;0.4672;-1.6481;
-15.3000;0.4697;-1.6456;
-15.0000;0.4689;-1.6456;
-14.7000;0.4681;-1.6481;
-14.4000;0.4681;-1.6456;
-14.1000;0.4689;-1.6406;
-13.8000;0.4737;-1.6381;
-13.5000;0.4681;-1.6531;
-13.2000;0.4697;-1.6431;
-12.9000;0.4689;-1.6381;
-12.6000;0.4689;-1.6406;
-12.3000;0.4705;-1.6406;
-12.0000;0.4713;-1.6431;
-11.7000;0.4705;-1.6306;
-11.4000;0.4721;-1.6281;
-11.1000;0.4697;-1.6381;
-10.8000;0.4713;-1.6381;
-10.5000;0.4689;-1.6406;
-10.2000;0.4705;-1.6356;
-9.9000;0.4713;-1.6381;
-9.6000;0.4705;-1.6406;
-9.3000;0.4713;-1.6431;
-9.0000;0.4746;-1.6331;
-8.7000;0.4697;-1.6431;
-8.4000;0.4713;-1.6456;
-8.1000;0.4705;-1.6556;
-7.8000;0.4721;-1.6431;
-7.5000;0.4721;-1.6356;
-7.2000;0.4721;-1.6381;
-6.9000;0.4754;-1.6306;
-6.6000;0.4721;-1.6331;
-6.3000;0.4737;-1.6356;
-6.0000;0.4729;-1.6381;
-5.7000;0.4762;-1.6381;
-5.4000;0.4721;-1.6456;
-5.1000;0.4721;-1.6456;
-4.8000;0.4737;-1.6456;
-4.5000;0.4729;-1.6406;
-4.2000;0.4729;-1.6456;
-3.9000;0.4721;-1.6456;
-3.6000;0.4746;-1.6406;
-3.3000;0.4746;-1.6456;
-3.0000;0.4705;-1.6680;
-2.7000;0.4737;-1.6531;
-2.4000;0.4746;-1.6481;
-2.1000;0.4721;-1.6481;
-1.8000;0.4762;-1.6406;
-1.5000;0.4762;-1.6406;
-1.2000;0.4721;-1.6556;
-0.9000;0.4778;-1.6306;
-0.6000;0.4754;-1.6381;
-0.3000;0.4713;-1.6456;
0.0000;0.4713;-1.6456;
0.3000;0.5088;-1.6456;
0.6000;0.5617;-1.6057;
0.9000;0.6048;-1.5708;
1.2000;0.6422;-1.5209;
1.5000;0.6756;-1.4785;
1.8000;0.7049;-1.4362;
2.1000;0.7196;-1.4162;
2.4000;0.7277;-1.4137;
2.7000;0.7464;-1.3763;
3.0000;0.7562;-1.3614;
3.3000;0.7684;-1.3464;
3.6000;0.7733;-1.3414;
3.9000;0.7790;-1.3339;
4.2000;0.7839;-1.3240;
4.5000;0.7912;-1.3040;
4.8000;0.7977;-1.3040;
5.1000;0.7993;-1.3215;
5.4000;0.8067;-1.3140;
5.7000;0.8107;-1.3140;
6.0000;0.8148;-1.3190;
6.3000;0.8140;-1.3215;
6.6000;0.8189;-1.3140;
6.9000;0.8221;-1.3115;
7.2000;0.8262;-1.3040;
7.5000;0.8287;-1.3015;
7.8000;0.8319;-1.3090;
8.1000;0.8368;-1.2965;
8.4000;0.8376;-1.3015;
8.7000;0.8392;-1.3090;
9.0000;0.8417;-1.3065;
9.3000;0.8441;-1.3065;
9.6000;0.8490;-1.3040;
9.9000;0.8482;-1.3040;
10.2000;0.8514;-1.2990;
10.5000;0.8514;-1.2965;
10.8000;0.8555;-1.2891;
11.1000;0.8588;-1.2915;
11.4000;0.8596;-1.2990;
11.7000;0.8588;-1.3015;
12.0000;0.8645;-1.3065;
12.3000;0.8604;-1.3240;
12.6000;0.8637;-1.3265;
12.9000;0.8685;-1.3215;
13.2000;0.8694;-1.3215;
13.5000;0.8718;-1.3240;
13.8000;0.8710;-1.3265;
14.1000;0.8694;-1.3339;
14.4000;0.8783;-1.3165;
14.7000;0.8816;-1.3165;
15.0000;0.8824;-1.3215;
15.3000;0.8848;-1.3265;
15.6000;0.8832;-1.3339;
15.9000;0.8889;-1.3314;
16.2000;0.8873;-1.3314;
16.5000;0.8946;-1.3190;
16.8000;0.8897;-1.3389;
17.1000;0.8938;-1.3464;
17.4000;0.8946;-1.3489;
17.7000;0.9019;-1.3265;
18.0000;0.8995;-1.3314;
18.3000;0.9044;-1.3265;
18.6000;0.8995;-1.3514;
18.9000;0.9052;-1.3439;
19.2000;0.9052;-1.3514;
19.5000;0.8905;-1.3938;
19.8000;0.9019;-1.3663;
20.1000;0.9092;-1.3564;
20.4000;0.9117;-1.3589;
20.7000;0.9109;-1.3663;
21.0000;0.9158;-1.3589;
21.3000;0.9158;-1.3589;
21.6000;0.9158;-1.3688;
21.9000;0.9174;-1.3589;
22.2000;0.9182;-1.3589;
22.5000;0.9174;-1.3663;
22.8000;0.9182;-1.3688;
23.1000;0.9206;-1.3713;
23.4000;0.9239;-1.3738;
23.7000;0.9255;-1.3763;
24.0000;0.9231;-1.3888;
24.3000;0.9263;-1.3813;
24.6000;0.9288;-1.3863;
24.9000;0.9304;-1.3888;
25.2000;0.9312;-1.3988;
25.5000;0.9328;-1.4013;
25.8000;0.9337;-1.3913;
26.1000;0.9361;-1.3813;
26.4000;0.9345;-1.3888;
26.7000;0.9394;-1.3838;
27.0000;0.9377;-1.3913;
27.3000;0.9418;-1.3888;
27.6000;0.9418;-1.3863;
27.9000;0.9426;-1.3888;
28.2000;0.9434;-1.3888;
28.5000;0.9459;-1.3838;
28.8000;0.9508;-1.3738;
29.1000;0.9442;-1.3913;
29.4000;0.9475;-1.3938;
29.7000;0.9475;-1.3913;
30.0000;0.9499;-1.3913;
30.3000;0.9524;-1.3888;
30.6000;0.9508;-1.4013;
30.9000;0.9532;-1.3888;
31.2000;0.9516;-1.3938;
31.5000;0.9556;-1.3963;
31.8000;0.9556;-1.3963;
32.1000;0.9589;-1.3888;
32.4000;0.9573;-1.3913;
32.7000;0.9573;-1.3913;
33.0000;0.9589;-1.3938;
33.3000;0.9605;-1.3988;
33.6000;0.9621;-1.4037;
33.9000;0.9621;-1.3938;
34.2000;0.9646;-1.3963;
34.5000;0.9638;-1.4037;
34.8000;0.9678;-1.3913;
35.1000;0.9662;-1.4037;
35.4000;0.9670;-1.4037;
35.7000;0.9695;-1.3988;
36.0000;0.9687;-1.4087;
36.3000;0.9744;-1.3963;
36.6000;0.9711;-1.4087;
36.9000;0.9711;-1.4137;
37.2000;0.9727;-1.4137;
37.5000;0.9727;-1.4162;
37.8000;0.9735;-1.4162;
38.1000;0.9719;-1.4237;
38.4000;0.9752;-1.4237;
38.7000;0.9735;-1.4287;
39.0000;0.9760;-1.4262;
39.3000;0.9776;-1.4262;
39.6000;0.9760;-1.4312;
39.9000;0.9784;-1.4187;
40.2000;0.9760;-1.4162;
40.5000;0.9833;-1.3938;
40.8000;0.9801;-1.4112;
41.1000;0.9833;-1.4037;
41.4000;0.9817;-1.4112;
41.7000;0.9858;-1.4062;
42.0000;0.9841;-1.4137;
42.3000;0.9744;-1.4262;
42.6000;0.9833;-1.4087;
42.9000;0.9833;-1.4112;
43.2000;0.9915;-1.3963;
43.5000;0.9882;-1.4087;
43.8000;0.9833;-1.4337;
44.1000;0.9882;-1.4287;
44.4000;0.9915;-1.4262;
44.7000;0.9874;-1.4287;
45.0000;0.9898;-1.4287;
45.3000;0.9858;-1.4387;
45.6000;0.9931;-1.4162;
45.9000;0.9792;-1.4561;
46.2000;0.9923;-1.4237;
46.5000;0.9923;-1.4237;
46.8000;0.9988;-1.4162;
47.1000;0.9947;-1.4312;
47.4000;0.9931;-1.4337;
47.7000;0.9947;-1.4237;
48.0000;0.9939;-1.4212;
48.3000;0.9963;-1.4137;
48.6000;0.9923;-1.4237;
48.9000;0.9972;-1.4237;
49.2000;0.9963;-1.4287;
49.5000;0.9996;-1.4187;
49.8000;0.9955;-1.4312;
50.1000;0.9972;-1.4362;
50.4000;0.9988;-1.4287;
50.7000;0.9988;-1.4187;
51.0000;0.9931;-1.4387;
51.3000;0.9988;-1.4262;
51.6000;0.9980;-1.4411;
51.9000;1.0020;-1.4337;
52.2000;1.0020;-1.4411;
52.5000;1.0028;-1.4436;
52.8000;1.0020;-1.4436;
53.1000;1.0020;-1.4337;
53.4000;1.0028;-1.4362;
53.7000;1.0037;-1.4362;
54.0000;1.0053;-1.4362;
54.3000;1.0037;-1.4411;
54.6000;1.0053;-1.4387;
54.9000;1.0069;-1.4362;
55.2000;1.0061;-1.4362;
55.5000;1.0061;-1.4362;
55.8000;1.0085;-1.4362;
56.1000;1.0069;-1.4436;
56.4000;1.0077;-1.4387;
56.7000;1.0061;-1.4511;
57.0000;1.0069;-1.4511;
57.3000;1.0077;-1.4536;
57.6000;1.0102;-1.4511;
57.9000;1.0110;-1.4436;
58.2000;1.0118;-1.4362;
58.5000;1.0102;-1.4362;
58.8000;1.0102;-1.4436;
59.1000;1.0110;-1.4436;
59.4000;1.0118;-1.4511;
59.7000;1.0118;-1.4611;
60.0000;1.0118;-1.4686;
60.3000;1.0134;-1.4536;
60.6000;1.0151;-1.4486;
60.9000;1.0151;-1.4511;
61.2000;1.0159;-1.4486;
61.5000;1.0142;-1.4511;
61.8000;1.0134;-1.4536;
62.1000;1.0142;-1.4586;
62.4000;1.0142;-1.4536;
62.7000;1.0167;-1.4586;
63.0000;1.0151;-1.4611;
63.3000;1.0175;-1.4511;
63.6000;1.0199;-1.4436;
63.9000;1.0151;-1.4611;
64.2000;1.0134;-1.4736;
64.5000;1.0167;-1.4711;
64.8000;1.0159;-1.4785;
65.1000;1.0191;-1.4736;
65.4000;1.0183;-1.4661;
65.7000;1.0175;-1.4686;
66.0000;1.0191;-1.4586;
66.3000;1.0183;-1.4586;
66.6000;1.0126;-1.4636;
66.9000;1.0175;-1.4461;
67.2000;1.0248;-1.4312;
67.5000;1.0191;-1.4436;
67.8000;1.0240;-1.4436;
68.1000;1.0208;-1.4536;
68.4000;1.0224;-1.4636;
68.7000;1.0208;-1.4661;
69.0000;1.0208;-1.4636;
69.3000;1.0216;-1.4686;
69.6000;1.0273;-1.4561;
69.9000;1.0224;-1.4611;
70.2000;1.0216;-1.4586;
70.5000;1.0208;-1.4561;
70.8000;1.0248;-1.4461;
71.1000;1.0232;-1.4436;
71.4000;1.0232;-1.4411;
71.7000;1.0240;-1.4411;
72.0000;1.0248;-1.4486;
72.3000;1.0256;-1.4436;
72.6000;1.0224;-1.4461;
72.9000;1.0248;-1.4411;
73.2000;1.0265;-1.4387;
73.5000;1.0281;-1.4312;
73.8000;1.0248;-1.4486;
74.1000;1.0224;-1.4611;
74.4000;1.0240;-1.4611;
74.7000;1.0240;-1.4611;
75.0000;1.0313;-1.4411;
75.3000;1.0256;-1.4536;
75.6000;1.0265;-1.4561;
75.9000;1.0273;-1.4536;
76.2000;1.0232;-1.4636;
76.5000;1.0265;-1.4611;
76.8000;1.0281;-1.4511;
77.1000;1.0281;-1.4511;
77.4000;1.0297;-1.4561;
77.7000;1.0305;-1.4611;
78.0000;1.0297;-1.4686;
78.3000;1.0281;-1.4661;
78.6000;1.0289;-1.4586;
78.9000;1.0330;-1.4436;
79.2000;1.0232;-1.4711;
79.5000;1.0297;-1.4561;
79.8000;1.0346;-1.4486;
80.1000;1.0330;-1.4661;
80.4000;1.0305;-1.4785;
80.7000;1.0297;-1.4736;
81.0000;1.0322;-1.4586;
81.3000;1.0305;-1.4586;
81.6000;1.0313;-1.4611;
81.9000;1.0305;-1.4561;
82.2000;1.0313;-1.4511;
82.5000;1.0322;-1.4461;
82.8000;1.0322;-1.4486;
83.1000;1.0322;-1.4611;
83.4000;1.0313;-1.4586;
83.7000;1.0322;-1.4536;
84.0000;1.0313;-1.4586;
84.3000;1.0273;-1.4761;
84.6000;1.0322;-1.4661;
84.9000;1.0322;-1.4536;
85.2000;1.0240;-1.4736;
85.5000;1.0313;-1.4486;
85.8000;1.0330;-1.4611;
86.1000;1.0338;-1.4636;
86.4000;1.0313;-1.4586;
86.7000;1.0330;-1.4436;
87.0000;1.0322;-1.4511;
87.3000;1.0322;-1.4586;
87.6000;1.0322;-1.4611;
87.9000;1.0330;-1.4586;
88.2000;1.0322;-1.4586;
88.5000;1.0338;-1.4711;
88.8000;1.0338;-1.4686;
89.1000;1.0330;-1.4711;
89.4000;1.0330;-1.4736;
89.7000;1.0338;-1.4686;
90.0000;1.0330;-1.4661;
90.3000;1.0468;-1.4362;
90.6000;1.0338;-1.4661;
90.9000;1.0354;-1.4536;
91.2000;1.0338;-1.4586;
91.5000;1.0387;-1.4486;
91.8000;1.0452;-1.4312;
92.1000;1.0346;-1.4536;
92.4000;1.0354;-1.4486;
92.7000;1.0379;-1.4461;
93.0000;1.0354;-1.4436;
93.3000;1.0346;-1.4461;
93.6000;1.0354;-1.4461;
93.9000;1.0354;-1.4586;
94.2000;1.0379;-1.4511;
94.5000;1.0338;-1.4636;
94.8000;1.0354;-1.4661;
95.1000;1.0379;-1.4636;
95.4000;1.0370;-1.4661;
95.7000;1.0362;-1.4686;
96.0000;1.0370;-1.4736;
96.3000;1.0387;-1.4661;
96.6000;1.0370;-1.4661;
96.9000;1.0370;-1.4586;
97.2000;1.0370;-1.4561;
97.5000;1.0370;-1.4461;
97.8000;1.0387;-1.4461;
98.1000;1.0379;-1.4511;
98.4000;1.0379;-1.4561;
98.7000;1.0379;-1.4561;
99.0000;1.0379;-1.4611;
99.3000;1.0370;-1.4561;
99.6000;1.0370;-1.4611;
99.9000;1.0387;-1.4636;
100.2000;1.0395;-1.4661;
100.5000;1.0395;-1.4736;
100.8000;1.0411;-1.4686;
101.1000;1.0387;-1.4736;
101.4000;1.0444;-1.4536;
101.7000;1.0379;-1.4711;
102.0000;1.0395;-1.4536;
102.3000;1.0419;-1.4561;
102.6000;1.0411;-1.4711;
102.9000;1.0444;-1.4736;
103.2000;1.0484;-1.4611;
103.5000;1.0395;-1.4711;
103.8000;1.0411;-1.4661;
104.1000;1.0435;-1.4611;
104.4000;1.0411;-1.4636;
104.7000;1.0403;-1.4611;
105.0000;1.0370;-1.4661;
105.3000;1.0387;-1.4661;
105.6000;1.0395;-1.4636;
105.9000;1.0395;-1.4661;
106.2000;1.0403;-1.4661;
106.5000;1.0362;-1.4711;
106.8000;1.0387;-1.4711;
107.1000;1.0379;-1.4736;
107.4000;1.0387;-1.4661;
107.7000;1.0395;-1.4586;
108.0000;1.0403;-1.4611;
108.3000;1.0427;-1.4586;
108.6000;1.0419;-1.4636;
108.9000;1.0411;-1.4611;
109.2000;1.0403;-1.4611;
109.5000;1.0427;-1.4636;
109.8000;1.0427;-1.4661;
110.1000;1.0427;-1.4661;
110.4000;1.0411;-1.4686;
110.7000;1.0403;-1.4636;
111.0000;1.0395;-1.4661;
111.3000;1.0435;-1.4536;
111.6000;1.0403;-1.4586;
111.9000;1.0403;-1.4636;
112.2000;1.0468;-1.4536;
112.5000;1.0395;-1.4686;
112.8000;1.0427;-1.4586;
113.1000;1.0419;-1.4636;
113.4000;1.0419;-1.4636;
113.7000;1.0411;-1.4636;
114.0000;1.0468;-1.4511;
114.3000;1.0419;-1.4611;
114.6000;1.0435;-1.4561;
114.9000;1.0419;-1.4711;
115.2000;1.0387;-1.4810;
115.5000;1.0419;-1.4661;
115.8000;1.0468;-1.4586;
116.1000;1.0403;-1.4810;
116.4000;1.0411;-1.4785;
116.7000;1.0435;-1.4736;
117.0000;1.0427;-1.4810;
117.3000;1.0411;-1.4885;
117.6000;1.0403;-1.4910;
117.9000;1.0387;-1.4935;
118.2000;1.0435;-1.4661;
118.5000;1.0411;-1.4636;
118.8000;1.0419;-1.4636;
119.1000;1.0419;-1.4711;
119.4000;1.0419;-1.4711;
119.7000;1.0435;-1.4711;
120.0000;1.0427;-1.4686;
120.3000;1.0444;-1.4636;
120.6000;1.0525;-1.4511;
120.9000;1.0435;-1.4736;
121.2000;1.0427;-1.4761;
121.5000;1.0435;-1.4761;
121.8000;1.0427;-1.4711;
122.1000;1.0419;-1.4810;
122.4000;1.0427;-1.4810;
122.7000;1.0395;-1.4885;
123.0000;1.0435;-1.4785;
123.3000;1.0460;-1.4686;
123.6000;1.0427;-1.4711;
123.9000;1.0452;-1.4611;
124.2000;1.0460;-1.4611;
124.5000;1.0427;-1.4636;
124.8000;1.0444;-1.4586;
125.1000;1.0435;-1.4611;
125.4000;1.0419;-1.4636;
125.7000;1.0427;-1.4561;
126.0000;1.0435;-1.4611;
126.3000;1.0427;-1.4686;
126.6000;1.0427;-1.4686;
126.9000;1.0444;-1.4661;
127.2000;1.0484;-1.4611;
127.5000;1.0452;-1.4661;
127.8000;1.0411;-1.4761;
128.1000;1.0468;-1.4636;
128.4000;1.0460;-1.4661;
128.7000;1.0427;-1.4711;
129.0000;1.0452;-1.4761;
129.3000;1.0427;-1.4860;
129.6000;1.0419;-1.4935;
129.9000;1.0468;-1.4761;
130.2000;1.0435;-1.4885;
130.5000;1.0427;-1.4885;
130.8000;1.0403;-1.4960;
131.1000;1.0444;-1.4835;
131.4000;1.0435;-1.4761;
131.7000;1.0484;-1.4636;
132.0000;1.0435;-1.4810;
132.3000;1.0444;-1.4835;
132.6000;1.0435;-1.4910;
132.9000;1.0452;-1.4785;
133.2000;1.0452;-1.4810;
133.5000;1.0484;-1.4661;
133.8000;1.0468;-1.4586;
134.1000;1.0460;-1.4586;
134.4000;1.0387;-1.4736;
134.7000;1.0338;-1.4810;
135.0000;1.0444;-1.4636;
135.3000;1.0484;-1.4536;
135.6000;1.0452;-1.4686;
135.9000;1.0435;-1.4761;
136.2000;1.0444;-1.4711;
136.5000;1.0427;-1.4810;
136.8000;1.0403;-1.4985;
137.1000;1.0452;-1.4810;
137.4000;1.0452;-1.4761;
137.7000;1.0435;-1.4860;
138.0000;1.0444;-1.4910;
138.3000;1.0444;-1.4835;
138.6000;1.0444;-1.4885;
138.9000;1.0444;-1.4860;
139.2000;1.0444;-1.4810;
139.5000;1.0411;-1.4910;
139.8000;1.0484;-1.4785;
140.1000;1.0452;-1.4835;
140.4000;1.0444;-1.4860;
140.7000;1.0427;-1.4885;
141.0000;1.0435;-1.4885;
141.3000;1.0444;-1.4935;
141.6000;1.0427;-1.4935;
141.9000;1.0427;-1.5010;
142.2000;1.0444;-1.4960;
142.5000;1.0419;-1.5060;
142.8000;1.0452;-1.4935;
143.1000;1.0444;-1.4910;
143.4000;1.0444;-1.4885;
143.7000;1.0435;-1.4935;
144.0000;1.0452;-1.4935;
144.3000;1.0452;-1.4935;
144.6000;1.0427;-1.4960;
144.9000;1.0444;-1.5085;
145.2000;1.0427;-1.5060;
145.5000;1.0444;-1.5010;
145.8000;1.0419;-1.5060;
146.1000;1.0427;-1.5085;
146.4000;1.0427;-1.5010;
146.7000;1.0468;-1.4985;
147.0000;1.0435;-1.5010;
147.3000;1.0419;-1.4985;
147.6000;1.0468;-1.4785;
147.9000;1.0452;-1.4785;
148.2000;1.0460;-1.4885;
148.5000;1.0435;-1.4885;
148.8000;1.0460;-1.4835;
149.1000;1.0452;-1.4910;
149.4000;1.0444;-1.4935;
149.7000;1.0452;-1.4960;
150.0000;1.0435;-1.5010;
150.3000;1.0452;-1.4985;
150.6000;1.0419;-1.5135;
150.9000;1.0338;-1.5434;
151.2000;1.0444;-1.5110;
151.5000;1.0452;-1.4985;
151.8000;1.0411;-1.5010;
152.1000;1.0419;-1.4985;
152.4000;1.0484;-1.4785;
152.7000;1.0411;-1.4985;
153.0000;1.0460;-1.4860;
153.3000;1.0476;-1.4835;
153.6000;1.0452;-1.4810;
153.9000;1.0501;-1.4761;
154.2000;1.0452;-1.4761;
154.5000;1.0435;-1.4810;
154.8000;1.0403;-1.4860;
155.1000;1.0452;-1.4761;
155.4000;1.0435;-1.4785;
155.7000;1.0468;-1.4661;
156.0000;1.0411;-1.4711;
156.3000;1.0427;-1.4711;
156.6000;1.0403;-1.4860;
156.9000;1.0419;-1.4910;
157.2000;1.0370;-1.4985;
157.5000;1.0419;-1.4935;
157.8000;1.0370;-1.5060;
158.1000;1.0435;-1.4910;
158.4000;1.0444;-1.4985;
158.7000;1.0411;-1.5060;
159.0000;1.0435;-1.4885;
159.3000;1.0492;-1.4785;
159.6000;1.0501;-1.4736;
159.9000;1.0435;-1.4736;
160.2000;1.0444;-1.4686;
160.5000;1.0492;-1.4636;
160.8000;1.0435;-1.4835;
161.1000;1.0411;-1.4935;
161.4000;1.0427;-1.4860;
161.7000;1.0370;-1.5035;
162.0000;1.0525;-1.4686;
162.3000;1.0411;-1.4935;
162.6000;1.0444;-1.4885;
162.9000;1.0411;-1.4935;
163.2000;1.0444;-1.4810;
163.5000;1.0435;-1.4835;
163.8000;1.0419;-1.4910;
164.1000;1.0419;-1.4885;
164.4000;1.0452;-1.4860;
164.7000;1.0419;-1.4960;
165.0000;1.0403;-1.5060;
165.3000;1.0452;-1.4935;
165.6000;1.0435;-1.4910;
165.9000;1.0435;-1.4885;
166.2000;1.0435;-1.4835;
166.5000;1.0435;-1.4910;
166.8000;1.0435;-1.4935;
167.1000;1.0435;-1.4960;
167.4000;1.0435;-1.4910;
167.7000;1.0427;-1.4960;
168.0000;1.0435;-1.4985;
168.3000;1.0452;-1.4935;
168.6000;1.0427;-1.5035;
168.9000;1.0419;-1.5060;
169.2000;1.0435;-1.4985;
169.5000;1.0525;-1.4736;
169.8000;1.0411;-1.4985;
170.1000;1.0427;-1.5010;
170.4000;1.0435;-1.5010;
170.7000;1.0411;-1.5035;
171.0000;1.0452;-1.4935;
171.3000;1.0435;-1.4935;
171.6000;1.0427;-1.4935;
171.9000;1.0387;-1.5010;
172.2000;1.0403;-1.4885;
172.5000;1.0419;-1.4910;
172.8000;1.0411;-1.4935;
173.1000;1.0427;-1.5010;
173.4000;1.0435;-1.4960;
173.7000;1.0460;-1.4960;
174.0000;1.0427;-1.5085;
174.3000;1.0427;-1.5010;
174.6000;1.0444;-1.5035;
174.9000;1.0419;-1.5159;
175.2000;1.0419;-1.5135;
175.5000;1.0411;-1.5085;
175.8000;1.0411;-1.4985;
176.1000;1.0411;-1.4935;
176.4000;1.0427;-1.4910;
176.7000;1.0419;-1.4910;
177.0000;1.0419;-1.4885;
177.3000;1.0427;-1.4860;
177.6000;1.0419;-1.4910;
177.9000;1.0411;-1.4885;
178.2000;1.0427;-1.4785;
178.5000;1.0444;-1.4785;
178.8000;1.0411;-1.4835;
179.1000;1.0419;-1.4885;
179.4000;1.0419;-1.4910;
179.7000;1.0419;-1.4885;
180.0000;1.0419;-1.4935;
180.3000;1.0444;-1.4910;
180.6000;1.0435;-1.4960;
180.9000;1.0419;-1.5035;
181.2000;1.0427;-1.4935;
181.5000;1.0370;-1.5085;
181.8000;1.0379;-1.4960;
182.1000;1.0427;-1.4885;
182.4000;1.0419;-1.4810;
182.7000;1.0403;-1.4785;
183.0000;1.0395;-1.4910;
183.3000;1.0419;-1.4935;
183.6000;1.0387;-1.5035;
183.9000;1.0411;-1.4910;
184.2000;1.0395;-1.4761;
184.5000;1.0379;-1.4736;
184.8000;1.0427;-1.4686;
185.1000;1.0411;-1.4661;
185.4000;1.0370;-1.4810;
185.7000;1.0411;-1.4711;
186.0000;1.0354;-1.4810;
186.3000;1.0387;-1.4835;
186.6000;1.0370;-1.4910;
186.9000;1.0411;-1.4785;
187.2000;1.0362;-1.4960;
187.5000;1.0452;-1.4785;
187.8000;1.0460;-1.4810;
188.1000;1.0411;-1.4910;
188.4000;1.0435;-1.4835;
188.7000;1.0411;-1.4960;
189.0000;1.0403;-1.4985;
189.3000;1.0395;-1.4885;
189.6000;1.0444;-1.4761;
189.9000;1.0411;-1.4835;
190.2000;1.0403;-1.4860;
190.5000;1.0370;-1.4985;
190.8000;1.0411;-1.4910;
191.1000;1.0419;-1.4935;
191.4000;1.0411;-1.4860;
191.7000;1.0387;-1.4885;
192.0000;1.0403;-1.4910;
192.3000;1.0403;-1.4935;
192.6000;1.0387;-1.4960;
192.9000;1.0379;-1.5010;
193.2000;1.0411;-1.4910;
193.5000;1.0411;-1.5010;
193.8000;1.0419;-1.4960;
194.1000;1.0403;-1.4860;
194.4000;1.0403;-1.4835;
194.7000;1.0411;-1.4711;
195.0000;1.0419;-1.4711;
195.3000;1.0395;-1.4761;
195.6000;1.0387;-1.4810;
195.9000;1.0403;-1.4736;
196.2000;1.0411;-1.4711;
196.5000;1.0395;-1.4711;
196.8000;1.0370;-1.4686;
197.1000;1.0403;-1.4611;
197.4000;1.0395;-1.4736;
197.7000;1.0403;-1.4711;
198.0000;1.0387;-1.4761;
198.3000;1.0379;-1.4736;
198.6000;1.0403;-1.4611;
198.9000;1.0395;-1.4661;
199.2000;1.0370;-1.4636;
199.5000;1.0395;-1.4561;
199.8000;1.0387;-1.4636;
200.1000;1.0387;-1.4661;
200.4000;1.0370;-1.4810;
200.7000;1.0370;-1.4785;
201.0000;1.0362;-1.4835;
201.3000;1.0379;-1.4810;
201.6000;1.0387;-1.4860;
201.9000;1.0370;-1.4860;
202.2000;1.0387;-1.4935;
202.5000;1.0411;-1.4860;
202.8000;1.0387;-1.4860;
203.1000;1.0395;-1.4860;
203.4000;1.0362;-1.4885;
203.7000;1.0395;-1.4860;
204.0000;1.0379;-1.4885;
204.3000;1.0387;-1.4885;
204.6000;1.0354;-1.4910;
204.9000;1.0379;-1.4810;
205.2000;1.0411;-1.4736;
205.5000;1.0387;-1.4761;
205.8000;1.0362;-1.4835;
206.1000;1.0362;-1.4761;
206.4000;1.0370;-1.4736;
206.7000;1.0346;-1.4785;
207.0000;1.0370;-1.4761;
207.3000;1.0322;-1.4885;
207.6000;1.0379;-1.4835;
207.9000;1.0362;-1.4885;
208.2000;1.0354;-1.4860;
208.5000;1.0346;-1.4910;
208.8000;1.0362;-1.4785;
209.1000;1.0362;-1.4711;
209.4000;1.0346;-1.4736;
209.7000;1.0362;-1.4761;
210.0000;1.0370;-1.4711;
210.3000;1.0387;-1.4661;
210.6000;1.0379;-1.4785;
210.9000;1.0362;-1.4761;
211.2000;1.0435;-1.4711;
211.5000;1.0313;-1.4935;
211.8000;1.0354;-1.4860;
212.1000;1.0370;-1.4761;
212.4000;1.0444;-1.4561;
212.7000;1.0362;-1.4761;
213.0000;1.0322;-1.4860;
213.3000;1.0354;-1.4835;
213.6000;1.0354;-1.4860;
213.9000;1.0362;-1.4785;
214.2000;1.0289;-1.5085;
214.5000;1.0370;-1.4885;
214.8000;1.0354;-1.4910;
215.1000;1.0354;-1.4885;
215.4000;1.0354;-1.4885;
215.7000;1.0346;-1.5085;
216.0000;1.0346;-1.5085;
216.3000;1.0346;-1.4935;
216.6000;1.0362;-1.4761;
216.9000;1.0354;-1.4835;
217.2000;1.0354;-1.4736;
217.5000;1.0354;-1.4686;
217.8000;1.0362;-1.4611;
218.1000;1.0338;-1.4761;
218.4000;1.0346;-1.4661;
218.7000;1.0338;-1.4785;
219.0000;1.0313;-1.4860;
219.3000;1.0370;-1.4736;
219.6000;1.0370;-1.4835;
219.9000;1.0419;-1.4636;
220.2000;1.0313;-1.4885;
220.5000;1.0370;-1.4661;
220.8000;1.0354;-1.4736;
221.1000;1.0354;-1.4736;
221.4000;1.0379;-1.4711;
221.7000;1.0354;-1.4711;
222.0000;1.0338;-1.4686;
222.3000;1.0346;-1.4636;
222.6000;1.0346;-1.4636;
222.9000;1.0460;-1.4362;
223.2000;1.0346;-1.4661;
223.5000;1.0346;-1.4761;
223.8000;1.0330;-1.4835;
224.1000;1.0362;-1.4736;
224.4000;1.0313;-1.4885;
224.7000;1.0330;-1.4835;
225.0000;1.0354;-1.4810;
225.3000;1.0346;-1.4810;
225.6000;1.0379;-1.4810;
225.9000;1.0346;-1.4810;
226.2000;1.0346;-1.4761;
226.5000;1.0362;-1.4636;
226.8000;1.0322;-1.4686;
227.1000;1.0346;-1.4636;
227.4000;1.0362;-1.4636;
227.7000;1.0346;-1.4561;
228.0000;1.0346;-1.4561;
228.3000;1.0313;-1.4586;
228.6000;1.0330;-1.4536;
228.9000;1.0330;-1.4561;
229.2000;1.0322;-1.4711;
229.5000;1.0411;-1.4536;
229.8000;1.0265;-1.4860;
230.1000;1.0346;-1.4661;
230.4000;1.0330;-1.4711;
230.7000;1.0281;-1.4761;
231.0000;1.0330;-1.4686;
231.3000;1.0338;-1.4761;
231.6000;1.0273;-1.4835;
231.9000;1.0346;-1.4561;
232.2000;1.0338;-1.4611;
232.5000;1.0322;-1.4661;
232.8000;1.0313;-1.4661;
233.1000;1.0330;-1.4711;
233.4000;1.0322;-1.4785;
233.7000;1.0305;-1.4810;
234.0000;1.0330;-1.4785;
234.3000;1.0305;-1.4810;
234.6000;1.0322;-1.4711;
234.9000;1.0330;-1.4761;
235.2000;1.0322;-1.4835;
235.5000;1.0273;-1.4960;
235.8000;1.0322;-1.4885;
236.1000;1.0330;-1.4885;
236.4000;1.0256;-1.4960;
236.7000;1.0313;-1.4885;
237.0000;1.0330;-1.4785;
237.3000;1.0313;-1.4661;
237.6000;1.0362;-1.4536;
237.9000;1.0305;-1.4661;
238.2000;1.0313;-1.4711;
238.5000;1.0313;-1.4661;
238.8000;1.0322;-1.4611;
239.1000;1.0313;-1.4611;
239.4000;1.0305;-1.4586;
239.7000;1.0305;-1.4511;
240.0000;1.0305;-1.4486;
240.3000;1.0289;-1.4486;
240.6000;1.0297;-1.4561;
240.9000;1.0313;-1.4586;
241.2000;1.0305;-1.4611;
241.5000;1.0289;-1.4686;
241.8000;1.0338;-1.4561;
242.1000;1.0256;-1.4785;
242.4000;1.0305;-1.4711;
242.7000;1.0305;-1.4661;
243.0000;1.0305;-1.4661;
243.3000;1.0305;-1.4611;
243.6000;1.0322;-1.4636;
243.9000;1.0313;-1.4761;
244.2000;1.0354;-1.4661;
244.5000;1.0297;-1.4785;
244.8000;1.0354;-1.4736;
245.1000;1.0313;-1.4885;
245.4000;1.0289;-1.4860;
245.7000;1.0338;-1.4711;
246.0000;1.0305;-1.4761;
246.3000;1.0330;-1.4761;
246.6000;1.0281;-1.4835;
246.9000;1.0273;-1.4686;
247.2000;1.0265;-1.4761;
247.5000;1.0297;-1.4661;
247.8000;1.0289;-1.4785;
248.1000;1.0232;-1.4985;
248.4000;1.0281;-1.4835;
248.7000;1.0289;-1.4761;
249.0000;1.0265;-1.4810;
249.3000;1.0313;-1.4636;
249.6000;1.0248;-1.4686;
249.9000;1.0248;-1.4736;
250.2000;1.0313;-1.4536;
250.5000;1.0273;-1.4586;
250.8000;1.0297;-1.4586;
251.1000;1.0273;-1.4536;
251.4000;1.0265;-1.4636;
251.7000;1.0297;-1.4511;
252.0000;1.0297;-1.4561;
252.3000;1.0273;-1.4636;
252.6000;1.0297;-1.4686;
252.9000;1.0281;-1.4785;
253.2000;1.0289;-1.4736;
253.5000;1.0289;-1.4785;
253.8000;1.0256;-1.4785;
254.1000;1.0265;-1.4785;
254.4000;1.0281;-1.4785;
254.7000;1.0265;-1.4860;
255.0000;1.0265;-1.4885;
255.3000;1.0273;-1.4835;
255.6000;1.0216;-1.4960;
255.9000;1.0305;-1.4761;
256.2000;1.0273;-1.4785;
256.5000;1.0256;-1.4835;
256.8000;1.0273;-1.4810;
257.1000;1.0281;-1.4736;
257.4000;1.0281;-1.4686;
257.7000;1.0281;-1.4761;
258.0000;1.0256;-1.4810;
258.3000;1.0281;-1.4711;
258.6000;1.0289;-1.4611;
258.9000;1.0281;-1.4686;
259.2000;1.0240;-1.4736;
259.5000;1.0248;-1.4661;
259.8000;1.0265;-1.4611;
260.1000;1.0256;-1.4636;
260.4000;1.0379;-1.4362;
260.7000;1.0248;-1.4661;
261.0000;1.0265;-1.4636;
261.3000;1.0248;-1.4686;
261.6000;1.0256;-1.4785;
261.9000;1.0265;-1.4761;
262.2000;1.0248;-1.4810;
262.5000;1.0273;-1.4761;
262.8000;1.0256;-1.4711;
263.1000;1.0265;-1.4711;
263.4000;1.0305;-1.4536;
263.7000;1.0240;-1.4661;
264.0000;1.0265;-1.4611;
264.3000;1.0240;-1.4661;
264.6000;1.0248;-1.4611;
264.9000;1.0240;-1.4661;
265.2000;1.0248;-1.4686;
265.5000;1.0232;-1.4686;
265.8000;1.0289;-1.4586;
266.1000;1.0248;-1.4686;
266.4000;1.0240;-1.4661;
266.7000;1.0199;-1.4860;
267.0000;1.0248;-1.4686;
267.3000;1.0248;-1.4736;
267.6000;1.0256;-1.4736;
267.9000;1.0256;-1.4711;
268.2000;1.0265;-1.4761;
268.5000;1.0256;-1.4711;
268.8000;1.0240;-1.4736;
269.1000;1.0256;-1.4736;
269.4000;1.0240;-1.4785;
269.7000;1.0232;-1.4761;
270.0000;1.0240;-1.4736;
270.3000;1.0216;-1.4761;
270.6000;1.0224;-1.4611;
270.9000;1.0240;-1.4536;
271.2000;1.0232;-1.4661;
271.5000;1.0224;-1.4586;
271.8000;1.0232;-1.4611;
272.1000;1.0232;-1.4636;
272.4000;1.0216;-1.4611;
272.7000;1.0248;-1.4611;
273.0000;1.0240;-1.4686;
273.3000;1.0224;-1.4686;
273.6000;1.0224;-1.4661;
273.9000;1.0224;-1.4686;
274.2000;1.0232;-1.4611;
274.5000;1.0208;-1.4636;
274.8000;1.0224;-1.4561;
275.1000;1.0208;-1.4561;
275.4000;1.0224;-1.4611;
275.7000;1.0232;-1.4561;
276.0000;1.0232;-1.4486;
276.3000;1.0232;-1.4611;
276.6000;1.0256;-1.4586;
276.9000;1.0175;-1.4860;
277.2000;1.0224;-1.4835;
277.5000;1.0281;-1.4736;
277.8000;1.0216;-1.4736;
278.1000;1.0216;-1.4736;
278.4000;1.0216;-1.4711;
278.7000;1.0224;-1.4686;
279.0000;1.0159;-1.4910;
279.3000;1.0248;-1.4711;
279.6000;1.0224;-1.4785;
279.9000;1.0281;-1.4711;
280.2000;1.0224;-1.4910;
280.5000;1.0224;-1.4960;
280.8000;1.0224;-1.4985;
281.1000;1.0208;-1.4985;
281.4000;1.0265;-1.4835;
281.7000;1.0216;-1.4935;
282.0000;1.0208;-1.4910;
282.3000;1.0224;-1.4885;
282.6000;1.0126;-1.5085;
282.9000;1.0199;-1.4910;
283.2000;1.0216;-1.4860;
283.5000;1.0216;-1.4835;
283.8000;1.0199;-1.4835;
284.1000;1.0199;-1.4736;
284.4000;1.0199;-1.4661;
284.7000;1.0216;-1.4611;
285.0000;1.0208;-1.4636;
285.3000;1.0199;-1.4561;
285.6000;1.0240;-1.4511;
285.9000;1.0208;-1.4561;
286.2000;1.0183;-1.4536;
286.5000;1.0216;-1.4511;
286.8000;1.0159;-1.4661;
287.1000;1.0199;-1.4561;
287.4000;1.0183;-1.4611;
287.7000;1.0216;-1.4436;
288.0000;1.0191;-1.4536;
288.3000;1.0191;-1.4536;
288.6000;1.0224;-1.4436;
288.9000;1.0281;-1.4287;
289.2000;1.0183;-1.4486;
289.5000;1.0208;-1.4362;
289.8000;1.0134;-1.4561;
290.1000;1.0281;-1.4287;
290.4000;1.0183;-1.4486;
290.7000;1.0199;-1.4461;
291.0000;1.0183;-1.4536;
291.3000;1.0191;-1.4436;
291.6000;1.0167;-1.4511;
291.9000;1.0191;-1.4486;
292.2000;1.0175;-1.4511;
292.5000;1.0191;-1.4561;
292.8000;1.0191;-1.4511;
293.1000;1.0199;-1.4561;
293.4000;1.0183;-1.4636;
293.7000;1.0183;-1.4636;
294.0000;1.0175;-1.4661;
294.3000;1.0142;-1.4835;
294.6000;1.0175;-1.4761;
294.9000;1.0151;-1.4810;
295.2000;1.0175;-1.4885;
295.5000;1.0175;-1.4935;
295.8000;1.0159;-1.4960;
296.1000;1.0175;-1.4885;
296.4000;1.0159;-1.4835;
296.7000;1.0167;-1.4810;
297.0000;1.0199;-1.4736;
297.3000;1.0175;-1.4810;
297.6000;1.0167;-1.4686;
297.9000;1.0183;-1.4761;
298.2000;1.0159;-1.4785;
298.5000;1.0142;-1.4785;
298.8000;1.0159;-1.4835;
299.1000;1.0159;-1.4785;
299.4000;1.0159;-1.4761;
299.7000;1.0167;-1.4736;
300.0000;1.0159;-1.4661;
300.3000;1.0167;-1.4536;
300.6000;1.0159;-1.4511;
300.9000;1.0167;-1.4511;
301.2000;1.0183;-1.4461;
301.5000;1.0151;-1.4536;
301.8000;1.0142;-1.4611;
302.1000;1.0175;-1.4486;
302.4000;1.0159;-1.4511;
302.7000;1.0151;-1.4511;
303.0000;1.0134;-1.4586;
303.3000;1.0142;-1.4536;
303.6000;1.0167;-1.4486;
303.9000;1.0167;-1.4536;
304.2000;1.0175;-1.4586;
304.5000;1.0159;-1.4511;
304.8000;1.0183;-1.4436;
305.1000;1.0159;-1.4461;
305.4000;1.0159;-1.4511;
305.7000;1.0151;-1.4486;
306.0000;1.0159;-1.4436;
306.3000;1.0159;-1.4586;
306.6000;1.0134;-1.4536;
306.9000;1.0159;-1.4536;
307.2000;1.0175;-1.4486;
307.5000;1.0151;-1.4561;
307.8000;1.0134;-1.4636;
308.1000;1.0142;-1.4661;
308.4000;1.0151;-1.4711;
308.7000;1.0159;-1.4711;
309.0000;1.0159;-1.4711;
309.3000;1.0142;-1.4761;
309.6000;1.0134;-1.4711;
309.9000;1.0167;-1.4561;
310.2000;1.0126;-1.4611;
310.5000;1.0118;-1.4636;
310.8000;1.0134;-1.4561;
311.1000;1.0126;-1.4511;
311.4000;1.0134;-1.4511;
311.7000;1.0240;-1.4287;
312.0000;1.0151;-1.4436;
312.3000;1.0151;-1.4486;
312.6000;1.0159;-1.4536;
312.9000;1.0134;-1.4511;
313.2000;1.0102;-1.4611;
313.5000;1.0126;-1.4486;
313.8000;1.0126;-1.4387;
314.1000;1.0102;-1.4411;
314.4000;1.0159;-1.4312;
314.7000;1.0151;-1.4337;
315.0000;1.0142;-1.4312;
315.3000;1.0134;-1.4387;
315.6000;1.0126;-1.4411;
315.9000;1.0126;-1.4312;
316.2000;1.0151;-1.4362;
316.5000;1.0142;-1.4411;
316.8000;1.0191;-1.4287;
317.1000;1.0110;-1.4436;
317.4000;1.0126;-1.4461;
317.7000;1.0126;-1.4486;
318.0000;1.0118;-1.4511;
318.3000;1.0126;-1.4536;
318.6000;1.0134;-1.4511;
318.9000;1.0126;-1.4461;
319.2000;1.0110;-1.4436;
319.5000;1.0102;-1.4461;
319.8000;1.0118;-1.4411;
320.1000;1.0110;-1.4411;
320.4000;1.0118;-1.4411;
320.7000;1.0094;-1.4411;
321.0000;1.0110;-1.4387;
321.3000;1.0094;-1.4387;
321.6000;1.0102;-1.4461;
321.9000;1.0085;-1.4436;
322.2000;1.0118;-1.4436;
322.5000;1.0053;-1.4636;
322.8000;1.0110;-1.4561;
323.1000;1.0094;-1.4661;
323.4000;1.0094;-1.4636;
323.7000;1.0110;-1.4561;
324.0000;1.0077;-1.4636;
324.3000;1.0102;-1.4561;
324.6000;1.0094;-1.4561;
324.9000;1.0094;-1.4561;
325.2000;1.0102;-1.4511;
325.5000;1.0085;-1.4611;
325.8000;1.0094;-1.4661;
326.1000;1.0118;-1.4661;
326.4000;1.0102;-1.4661;
326.7000;1.0110;-1.4636;
327.0000;1.0126;-1.4661;
327.3000;1.0094;-1.4736;
327.6000;1.0085;-1.4661;
327.9000;1.0102;-1.4661;
328.2000;1.0028;-1.4860;
328.5000;1.0061;-1.4761;
328.8000;1.0110;-1.4761;
329.1000;1.0102;-1.4860;
329.4000;1.0102;-1.4736;
329.7000;1.0110;-1.4736;
330.0000;1.0077;-1.4736;
330.3000;1.0069;-1.4711;
330.6000;1.0094;-1.4661;
330.9000;1.0085;-1.4661;
331.2000;1.0069;-1.4711;
331.5000;1.0085;-1.4711;
331.8000;1.0094;-1.4611;
332.1000;1.0094;-1.4686;
332.4000;1.0045;-1.4661;
332.7000;1.0069;-1.4711;
333.0000;1.0077;-1.4736;
333.3000;1.0069;-1.4661;
333.6000;1.0077;-1.4586;
333.9000;1.0118;-1.4436;
334.2000;1.0094;-1.4536;
334.5000;1.0085;-1.4636;
334.8000;1.0085;-1.4586;
335.1000;1.0077;-1.4586;
335.4000;1.0094;-1.4586;
335.7000;1.0085;-1.4636;
336.0000;1.0069;-1.4561;
336.3000;1.0085;-1.4586;
336.6000;1.0094;-1.4561;
336.9000;1.0077;-1.4611;
337.2000;1.0077;-1.4636;
337.5000;1.0061;-1.4636;
337.8000;1.0077;-1.4586;
338.1000;1.0085;-1.4636;
338.4000;1.0061;-1.4636;
338.7000;1.0061;-1.4686;
339.0000;1.0061;-1.4586;
339.3000;1.0085;-1.4486;
339.6000;1.0077;-1.4486;
339.9000;1.0045;-1.4561;
340.2000;1.0069;-1.4586;
340.5000;1.0053;-1.4511;
340.8000;1.0069;-1.4561;
341.1000;1.0061;-1.4636;
341.4000;1.0053;-1.4636;
341.7000;1.0069;-1.4511;
342.0000;1.0069;-1.4561;
342.3000;1.0012;-1.4785;
342.6000;1.0045;-1.4711;
342.9000;1.0069;-1.4686;
343.2000;1.0053;-1.4711;
343.5000;1.0012;-1.4761;
343.8000;1.0053;-1.4661;
344.1000;1.0045;-1.4661;
344.4000;0.9980;-1.4785;
344.7000;1.0053;-1.4661;
345.0000;1.0045;-1.4636;
345.3000;1.0069;-1.4511;
345.6000;1.0077;-1.4461;
345.9000;1.0061;-1.4586;
346.2000;1.0028;-1.4661;
346.5000;1.0028;-1.4661;
346.8000;1.0094;-1.4636;
347.1000;1.0020;-1.4785;
347.4000;1.0061;-1.4736;
347.7000;1.0037;-1.4736;
348.0000;1.0045;-1.4785;
348.3000;1.0053;-1.4711;
348.6000;1.0037;-1.4736;
348.9000;1.0045;-1.4711;
349.2000;1.0053;-1.4661;
349.5000;1.0020;-1.4711;
349.8000;1.0045;-1.4611;
350.1000;1.0037;-1.4636;
350.4000;1.0020;-1.4636;
350.7000;1.0045;-1.4586;
351.0000;1.0020;-1.4586;
351.3000;1.0053;-1.4586;
351.6000;1.0045;-1.4561;
351.9000;1.0028;-1.4486;
352.2000;1.0053;-1.4337;
352.5000;1.0037;-1.4337;
352.8000;1.0028;-1.4362;
353.1000;1.0037;-1.4362;
353.4000;1.0061;-1.4411;
353.7000;1.0037;-1.4387;
354.0000;1.0028;-1.4411;
354.3000;1.0053;-1.4461;
354.6000;1.0028;-1.4536;
354.9000;1.0037;-1.4461;
355.2000;1.0028;-1.4461;
355.5000;1.0037;-1.4436;
355.8000;1.0028;-1.4511;
356.1000;1.0012;-1.4511;
356.4000;1.0020;-1.4536;
356.7000;1.0037;-1.4561;
357.0000;1.0045;-1.4586;
357.3000;1.0028;-1.4636;
357.6000;1.0004;-1.4561;
357.9000;1.0004;-1.4611;
358.2000;1.0061;-1.4561;
358.5000;1.0061;-1.4511;
358.8000;1.0020;-1.4561;
359.1000;1.0020;-1.4511;
359.4000;1.0020;-1.4486;
359.7000;1.0012;-1.4486;
360.0000;1.0020;-1.4511;
360.3000;0.9988;-1.4636;
360.6000;1.0020;-1.4586;
360.9000;1.0004;-1.4611;
361.2000;0.9972;-1.4561;
361.5000;0.9996;-1.4486;
361.8000;0.9988;-1.4436;
362.1000;0.9947;-1.4511;
362.4000;0.9980;-1.4387;
362.7000;0.9980;-1.4337;
363.0000;0.9972;-1.4362;
363.3000;0.9955;-1.4362;
363.6000;0.9972;-1.4287;
363.9000;0.9980;-1.4411;
364.2000;0.9947;-1.4411;
364.5000;0.9963;-1.4461;
364.8000;0.9996;-1.4312;
365.1000;0.9963;-1.4337;
365.4000;0.9972;-1.4362;
365.7000;1.0004;-1.4312;
366.0000;0.9988;-1.4337;
366.3000;0.9980;-1.4362;
366.6000;0.9947;-1.4436;
366.9000;0.9972;-1.4337;
367.2000;0.9980;-1.4411;
367.5000;0.9947;-1.4486;
367.8000;0.9955;-1.4461;
368.1000;0.9955;-1.4436;
368.4000;0.9939;-1.4436;
368.7000;0.9923;-1.4486;
369.0000;0.9980;-1.4337;
369.3000;0.9915;-1.4411;
369.6000;0.9931;-1.4337;
369.9000;0.9963;-1.4212;
370.2000;0.9980;-1.4162;
370.5000;1.0069;-1.3938;
370.8000;0.9963;-1.4137;
371.1000;0.9980;-1.4162;
371.4000;0.9980;-1.4212;
371.7000;0.9955;-1.4287;
372.0000;0.9963;-1.4312;
372.3000;0.9972;-1.4262;
372.6000;0.9963;-1.4237;
372.9000;0.9955;-1.4212;
373.2000;0.9947;-1.4137;
373.5000;1.0020;-1.4037;
373.8000;0.9955;-1.4187;
374.1000;0.9947;-1.4262;
374.4000;0.9915;-1.4237;
374.7000;0.9955;-1.4087;
375.0000;0.9939;-1.4162;
375.3000;0.9882;-1.4362;
375.6000;0.9963;-1.4237;
375.9000;0.9947;-1.4212;
376.2000;0.9947;-1.4187;
376.5000;0.9939;-1.4162;
376.8000;0.9923;-1.4237;
377.1000;0.9955;-1.4162;
377.4000;0.9947;-1.4162;
377.7000;0.9955;-1.4037;
378.0000;0.9915;-1.4137;
378.3000;0.9963;-1.4013;
378.6000;0.9939;-1.4137;
378.9000;1.0012;-1.4037;
379.2000;0.9939;-1.4237;
379.5000;0.9898;-1.4411;
379.8000;0.9947;-1.4411;
380.1000;0.9947;-1.4312;
380.4000;0.9963;-1.4187;
380.7000;0.9898;-1.4411;
381.0000;0.9906;-1.4287;
381.3000;0.9849;-1.4411;
381.6000;0.9915;-1.4212;
381.9000;0.9915;-1.4262;
382.2000;0.9931;-1.4212;
382.5000;0.9915;-1.4237;
382.8000;0.9939;-1.4162;
383.1000;0.9915;-1.4237;
383.4000;0.9906;-1.4287;
383.7000;1.0012;-1.4037;
384.0000;0.9931;-1.4237;
384.3000;0.9906;-1.4362;
384.6000;0.9915;-1.4461;
384.9000;0.9931;-1.4362;
385.2000;0.9988;-1.4162;
385.5000;0.9947;-1.4187;
385.8000;0.9906;-1.4237;
386.1000;0.9915;-1.4237;
386.4000;0.9915;-1.4137;
386.7000;0.9915;-1.4112;
387.0000;0.9898;-1.4187;
387.3000;0.9906;-1.4162;
387.6000;0.9906;-1.4237;
387.9000;0.9915;-1.4287;
388.2000;0.9915;-1.4312;
388.5000;0.9963;-1.4162;
388.8000;0.9915;-1.4237;
389.1000;0.9915;-1.4312;
389.4000;0.9906;-1.4287;
389.7000;0.9898;-1.4237;
390.0000;0.9915;-1.4187;
390.3000;0.9955;-1.4187;
390.6000;0.9923;-1.4287;
390.9000;0.9915;-1.4387;
391.2000;0.9915;-1.4337;
391.5000;0.9963;-1.4212;
391.8000;0.9906;-1.4387;
392.1000;0.9906;-1.4262;
392.4000;0.9866;-1.4312;
392.7000;0.9963;-1.4087;
393.0000;0.9906;-1.4162;
393.3000;0.9817;-1.4362;
393.6000;0.9890;-1.4212;
393.9000;0.9898;-1.4087;
394.2000;0.9931;-1.4013;
394.5000;0.9915;-1.4062;
394.8000;0.9898;-1.4137;
395.1000;0.9898;-1.3963;
395.4000;0.9866;-1.4062;
395.7000;0.9882;-1.4037;
396.0000;0.9882;-1.4037;
396.3000;0.9898;-1.3938;
396.6000;0.9923;-1.3813;
396.9000;0.9939;-1.3863;
397.2000;0.9898;-1.3963;
397.5000;0.9972;-1.3813;
397.8000;0.9915;-1.3963;
398.1000;0.9906;-1.3913;
398.4000;0.9898;-1.3963;
398.7000;0.9890;-1.3988;
399.0000;0.9890;-1.4062;
399.3000;0.9906;-1.4062;
399.6000;0.9858;-1.4237;
399.9000;0.9923;-1.3988;
400.2000;0.9898;-1.4087;
400.5000;0.9890;-1.4162;
400.8000;0.9882;-1.4112;
401.1000;0.9890;-1.4087;
401.4000;0.9882;-1.4062;
401.7000;0.9882;-1.4013;
402.0000;0.9898;-1.3963;
402.3000;0.9841;-1.3938;
402.6000;0.9874;-1.3863;
402.9000;0.9890;-1.3863;
403.2000;0.9947;-1.3813;
403.5000;0.9882;-1.4037;
403.8000;0.9882;-1.4013;
404.1000;0.9882;-1.4062;
404.4000;0.9915;-1.3938;
404.7000;0.9882;-1.4087;
405.0000;0.9890;-1.4037;
405.3000;0.9866;-1.4137;
405.6000;0.9874;-1.3988;
405.9000;0.9915;-1.3738;
406.2000;0.9890;-1.3688;
406.5000;0.9882;-1.3713;
406.8000;0.9882;-1.3863;
407.1000;0.9890;-1.3963;
407.4000;0.9825;-1.4087;
407.7000;0.9866;-1.3938;
408.0000;0.9849;-1.3838;
408.3000;0.9858;-1.3838;
408.6000;0.9882;-1.3838;
408.9000;0.9858;-1.3988;
409.2000;0.9915;-1.3838;
409.5000;0.9882;-1.3888;
409.8000;0.9858;-1.3863;
410.1000;0.9963;-1.3564;
410.4000;0.9858;-1.3863;
410.7000;0.9866;-1.3813;
411.0000;0.9849;-1.3838;
411.3000;0.9866;-1.3788;
411.6000;0.9849;-1.3738;
411.9000;0.9866;-1.3713;
412.2000;0.9866;-1.3788;
412.5000;0.9849;-1.3938;
412.8000;0.9849;-1.3888;
413.1000;0.9849;-1.3763;
413.4000;0.9858;-1.3738;
413.7000;0.9825;-1.3813;
414.0000;0.9874;-1.3738;
414.3000;0.9849;-1.3738;
414.6000;0.9849;-1.3713;
414.9000;0.9858;-1.3813;
415.2000;0.9841;-1.3788;
415.5000;0.9841;-1.3763;
415.8000;0.9833;-1.3763;
416.1000;0.9858;-1.3738;
416.4000;0.9866;-1.3688;
416.7000;0.9841;-1.3738;
417.0000;0.9809;-1.3788;
417.3000;0.9841;-1.3763;
417.6000;0.9866;-1.3788;
417.9000;0.9866;-1.3813;
418.2000;0.9833;-1.3813;
418.5000;0.9841;-1.3838;
418.8000;0.9866;-1.3663;
419.1000;0.9858;-1.3564;
419.4000;0.9931;-1.3489;
419.7000;0.9858;-1.3663;
420.0000;0.9760;-1.3888;
420.3000;0.9841;-1.3663;
420.6000;0.9866;-1.3663;
420.9000;0.9833;-1.3738;
421.2000;0.9858;-1.3688;
421.5000;0.9849;-1.3589;
421.8000;0.9841;-1.3639;
422.1000;0.9939;-1.3439;
422.4000;0.9841;-1.3738;
422.7000;0.9849;-1.3788;
423.0000;0.9841;-1.3738;
423.3000;0.9858;-1.3688;
423.6000;0.9849;-1.3738;
423.9000;0.9849;-1.3738;
424.2000;0.9841;-1.3838;
424.5000;0.9825;-1.3913;
424.8000;0.9841;-1.3913;
425.1000;0.9817;-1.3913;
425.4000;0.9801;-1.3863;
425.7000;0.9825;-1.3863;
426.0000;0.9841;-1.3813;
426.3000;0.9825;-1.3913;
426.6000;0.9825;-1.3863;
426.9000;0.9801;-1.3838;
427.2000;0.9906;-1.3589;
427.5000;0.9849;-1.3788;
427.8000;0.9825;-1.3838;
428.1000;0.9841;-1.3788;
428.4000;0.9849;-1.3888;
428.7000;0.9849;-1.3838;
429.0000;0.9833;-1.3763;
429.3000;0.9833;-1.3788;
429.6000;0.9833;-1.3738;
429.9000;0.9833;-1.3763;
430.2000;0.9817;-1.3838;
430.5000;0.9825;-1.3813;
430.8000;0.9817;-1.3913;
431.1000;0.9833;-1.3863;
431.4000;0.9833;-1.3813;
431.7000;0.9825;-1.3763;
432.0000;0.9809;-1.3738;
432.3000;0.9809;-1.3713;
432.6000;0.9825;-1.3688;
432.9000;0.9833;-1.3838;
433.2000;0.9801;-1.3938;
433.5000;0.9833;-1.3888;
433.8000;0.9744;-1.4037;
434.1000;0.9792;-1.3788;
434.4000;0.9833;-1.3763;
434.7000;0.9833;-1.3838;
435.0000;0.9768;-1.4062;
435.3000;0.9817;-1.3913;
435.6000;0.9809;-1.3938;
435.9000;0.9727;-1.4162;
436.2000;0.9735;-1.4062;
436.5000;0.9890;-1.3688;
436.8000;0.9801;-1.3913;
437.1000;0.9776;-1.4037;
437.4000;0.9858;-1.3863;
437.7000;0.9841;-1.3888;
438.0000;0.9792;-1.4013;
438.3000;0.9784;-1.4212;
438.6000;0.9792;-1.4162;
438.9000;0.9801;-1.4062;
439.2000;0.9825;-1.3988;
439.5000;0.9882;-1.3838;
439.8000;0.9809;-1.4013;
440.1000;0.9801;-1.3913;
440.4000;0.9817;-1.3788;
440.7000;0.9784;-1.3763;
441.0000;0.9801;-1.3738;
441.3000;0.9792;-1.3738;
441.6000;0.9801;-1.3738;
441.9000;0.9801;-1.3713;
442.2000;0.9833;-1.3688;
442.5000;0.9801;-1.3813;
442.8000;0.9833;-1.3763;
443.1000;0.9776;-1.3888;
443.4000;0.9809;-1.3788;
443.7000;0.9809;-1.3738;
444.0000;0.9882;-1.3614;
444.3000;0.9809;-1.3838;
444.6000;0.9801;-1.3888;
444.9000;0.9809;-1.3913;
445.2000;0.9817;-1.3838;
445.5000;0.9809;-1.3888;
445.8000;0.9801;-1.3838;
446.1000;0.9825;-1.3888;
446.4000;0.9792;-1.3913;
446.7000;0.9784;-1.3938;
447.0000;0.9776;-1.3938;
447.3000;0.9792;-1.3938;
447.6000;0.9784;-1.4013;
447.9000;0.9752;-1.4062;
448.2000;0.9760;-1.4037;
448.5000;0.9784;-1.4087;
448.8000;0.9760;-1.4112;
449.1000;0.9768;-1.4062;
449.4000;0.9776;-1.4037;
449.7000;0.9784;-1.4013;
450.0000;0.9776;-1.3988;
450.3000;0.9768;-1.3963;
450.6000;0.9776;-1.3988;
450.9000;0.9760;-1.3938;
451.2000;0.9809;-1.3888;
451.5000;0.9784;-1.3888;
451.8000;0.9792;-1.3788;
452.1000;0.9768;-1.3788;
452.4000;0.9744;-1.3813;
452.7000;0.9784;-1.3738;
453.0000;0.9784;-1.3713;
453.3000;0.9784;-1.3738;
453.6000;0.9776;-1.3763;
453.9000;0.9784;-1.3738;
454.2000;0.9776;-1.3813;
454.5000;0.9776;-1.3813;
454.8000;0.9784;-1.3863;
455.1000;0.9768;-1.3938;
455.4000;0.9776;-1.3938;
455.7000;0.9776;-1.3938;
456.0000;0.9760;-1.3913;
456.3000;0.9760;-1.3913;
456.6000;0.9776;-1.3863;
456.9000;0.9776;-1.3838;
457.2000;0.9744;-1.3963;
457.5000;0.9760;-1.3913;
457.8000;0.9760;-1.3888;
458.1000;0.9801;-1.3788;
458.4000;0.9768;-1.3888;
458.7000;0.9752;-1.4037;
459.0000;0.9792;-1.3863;
459.3000;0.9768;-1.3838;
459.6000;0.9760;-1.3938;
459.9000;0.9776;-1.3963;
460.2000;0.9760;-1.4062;
460.5000;0.9817;-1.3888;
460.8000;0.9768;-1.3963;
461.1000;0.9752;-1.3963;
461.4000;0.9760;-1.3888;
461.7000;0.9711;-1.3988;
462.0000;0.9760;-1.3838;
462.3000;0.9760;-1.3913;
462.6000;0.9695;-1.4037;
462.9000;0.9760;-1.3813;
463.2000;0.9752;-1.3763;
463.5000;0.9719;-1.3738;
463.8000;0.9825;-1.3489;
464.1000;0.9744;-1.3639;
464.4000;0.9776;-1.3539;
464.7000;0.9727;-1.3763;
465.0000;0.9760;-1.3564;
465.3000;0.9768;-1.3589;
465.6000;0.9752;-1.3564;
465.9000;0.9784;-1.3514;
466.2000;0.9768;-1.3589;
466.5000;0.9687;-1.3763;
466.8000;0.9727;-1.3663;
467.1000;0.9784;-1.3514;
467.4000;0.9735;-1.3713;
467.7000;0.9760;-1.3788;
468.0000;0.9752;-1.3863;
468.3000;0.9776;-1.3788;
468.6000;0.9776;-1.3763;
468.9000;0.9760;-1.3738;
469.2000;0.9801;-1.3489;
469.5000;0.9760;-1.3539;
469.8000;0.9784;-1.3589;
470.1000;0.9849;-1.3489;
470.4000;0.9744;-1.3788;
470.7000;0.9760;-1.3663;
471.0000;0.9760;-1.3663;
471.3000;0.9760;-1.3713;
471.6000;0.9752;-1.3713;
471.9000;0.9784;-1.3738;
472.2000;0.9760;-1.3838;
472.5000;0.9752;-1.3938;
472.8000;0.9744;-1.3863;
473.1000;0.9752;-1.3863;
473.4000;0.9752;-1.3713;
473.7000;0.9744;-1.3713;
474.0000;0.9727;-1.3639;
474.3000;0.9744;-1.3464;
474.6000;0.9752;-1.3364;
474.9000;0.9727;-1.3439;
475.2000;0.9809;-1.3190;
475.5000;0.9760;-1.3439;
475.8000;0.9801;-1.3439;
476.1000;0.9744;-1.3614;
476.4000;0.9752;-1.3639;
476.7000;0.9768;-1.3663;
477.0000;0.9768;-1.3738;
477.3000;0.9744;-1.3738;
477.6000;0.9760;-1.3763;
477.9000;0.9752;-1.3863;
478.2000;0.9760;-1.3938;
478.5000;0.9784;-1.3813;
478.8000;0.9792;-1.3838;
479.1000;0.9752;-1.3888;
479.4000;0.9735;-1.3938;
479.7000;0.9744;-1.3913;
480.0000;0.9801;-1.3838;
480.3000;0.9760;-1.3938;
480.6000;0.9735;-1.3863;
480.9000;0.9760;-1.3838;
481.2000;0.9760;-1.3813;
481.5000;0.9744;-1.3888;
481.8000;0.9735;-1.3913;
482.1000;0.9752;-1.3888;
482.4000;0.9752;-1.3938;
482.7000;0.9719;-1.3988;
483.0000;0.9752;-1.3938;
483.3000;0.9711;-1.4087;
483.6000;0.9776;-1.3913;
483.9000;0.9752;-1.3913;
484.2000;0.9735;-1.3938;
484.5000;0.9735;-1.3863;
484.8000;0.9752;-1.3838;
485.1000;0.9768;-1.3788;
485.4000;0.9744;-1.3888;
485.7000;0.9735;-1.3963;
486.0000;0.9752;-1.3913;
486.3000;0.9735;-1.3963;
486.6000;0.9752;-1.3988;
486.9000;0.9744;-1.3988;
487.2000;0.9752;-1.3913;
487.5000;0.9809;-1.3813;
487.8000;0.9752;-1.3963;
488.1000;0.9727;-1.4013;
488.4000;0.9752;-1.3988;
488.7000;0.9735;-1.3913;
489.0000;0.9744;-1.3838;
489.3000;0.9768;-1.3813;
489.6000;0.9776;-1.3813;
489.9000;0.9768;-1.3963;
490.2000;0.9744;-1.4037;
490.5000;0.9719;-1.4062;
490.8000;0.9752;-1.3988;
491.1000;0.9760;-1.4037;
491.4000;0.9711;-1.4112;
491.7000;0.9752;-1.4013;
492.0000;0.9735;-1.4087;
492.3000;0.9760;-1.4162;
492.6000;0.9801;-1.4013;
492.9000;0.9752;-1.4037;
493.2000;0.9727;-1.4037;
493.5000;0.9752;-1.3913;
493.8000;0.9744;-1.3788;
494.1000;0.9760;-1.3813;
494.4000;0.9744;-1.3913;
494.7000;0.9752;-1.3813;
495.0000;0.9744;-1.3813;
495.3000;0.9719;-1.3813;
495.6000;0.9735;-1.3763;
495.9000;0.9768;-1.3614;
496.2000;0.9825;-1.3539;
496.5000;0.9719;-1.3838;
496.8000;0.9719;-1.3888;
497.1000;0.9752;-1.3813;
497.4000;0.9735;-1.3863;
497.7000;0.9735;-1.3838;
498.0000;0.9752;-1.3763;
498.3000;0.9719;-1.3788;
498.6000;0.9703;-1.3813;
498.9000;0.9744;-1.3589;
499.2000;0.9719;-1.3614;
499.5000;0.9727;-1.3564;
499.8000;0.9719;-1.3614;
500.1000;0.9735;-1.3663;
500.4000;0.9735;-1.3713;
500.7000;0.9727;-1.3688;
501.0000;0.9719;-1.3713;
501.3000;0.9735;-1.3813;
501.6000;0.9719;-1.3938;
501.9000;0.9727;-1.3913;
502.2000;0.9727;-1.3813;
502.5000;0.9719;-1.3813;
502.8000;0.9711;-1.3813;
503.1000;0.9711;-1.3863;
503.4000;0.9727;-1.3838;
503.7000;0.9711;-1.3813;
504.0000;0.9711;-1.3838;
504.3000;0.9695;-1.3838;
504.6000;0.9719;-1.3763;
504.9000;0.9727;-1.3788;
505.2000;0.9711;-1.3838;
505.5000;0.9735;-1.3763;
505.8000;0.9703;-1.3838;
506.1000;0.9703;-1.3863;
506.4000;0.9719;-1.3738;
506.7000;0.9727;-1.3763;
507.0000;0.9695;-1.3838;
507.3000;0.9678;-1.3963;
507.6000;0.9711;-1.3763;
507.9000;0.9719;-1.3713;
508.2000;0.9711;-1.3863;
508.5000;0.9727;-1.3763;
508.8000;0.9695;-1.3788;
509.1000;0.9703;-1.3738;
509.4000;0.9711;-1.3713;
509.7000;0.9711;-1.3688;
510.0000;0.9711;-1.3763;
510.3000;0.9703;-1.3813;
510.6000;0.9703;-1.3763;
510.9000;0.9719;-1.3738;
511.2000;0.9719;-1.3788;
511.5000;0.9719;-1.3813;
511.8000;0.9727;-1.3713;
512.1000;0.9711;-1.3738;
512.4000;0.9752;-1.3663;
512.7000;0.9711;-1.3813;
513.0000;0.9605;-1.4037;
513.3000;0.9711;-1.3838;
513.6000;0.9695;-1.3913;
513.9000;0.9703;-1.3913;
514.2000;0.9703;-1.4062;
514.5000;0.9646;-1.4137;
514.8000;0.9687;-1.4037;
515.1000;0.9703;-1.3988;
515.4000;0.9695;-1.4037;
515.7000;0.9703;-1.3963;
516.0000;0.9695;-1.3938;
516.3000;0.9727;-1.3863;
516.6000;0.9687;-1.3913;
516.9000;0.9678;-1.3863;
517.2000;0.9703;-1.3763;
517.5000;0.9695;-1.3738;
517.8000;0.9703;-1.3738;
518.1000;0.9711;-1.3688;
518.4000;0.9711;-1.3639;
518.7000;0.9711;-1.3713;
519.0000;0.9695;-1.3788;
519.3000;0.9768;-1.3688;
519.6000;0.9695;-1.3913;
519.9000;0.9687;-1.3963;
520.2000;0.9695;-1.3963;
520.5000;0.9695;-1.3988;
520.8000;0.9678;-1.3988;
521.1000;0.9703;-1.3963;
521.4000;0.9662;-1.3938;
521.7000;0.9703;-1.3888;
522.0000;0.9711;-1.3863;
522.3000;0.9678;-1.3938;
522.6000;0.9695;-1.3938;
522.9000;0.9695;-1.3913;
523.2000;0.9760;-1.3788;
523.5000;0.9670;-1.3963;
523.8000;0.9695;-1.3938;
524.1000;0.9687;-1.3913;
524.4000;0.9703;-1.3888;
524.7000;0.9638;-1.4062;
525.0000;0.9687;-1.3963;
525.3000;0.9687;-1.3913;
525.6000;0.9695;-1.3913;
525.9000;0.9695;-1.3938;
526.2000;0.9703;-1.3913;
526.5000;0.9678;-1.3938;
526.8000;0.9687;-1.3863;
527.1000;0.9711;-1.3688;
527.4000;0.9605;-1.3838;
527.7000;0.9662;-1.3738;
528.0000;0.9678;-1.3763;
528.3000;0.9687;-1.3788;
528.6000;0.9687;-1.3763;
528.9000;0.9687;-1.3738;
529.2000;0.9703;-1.3663;
529.5000;0.9703;-1.3614;
529.8000;0.9711;-1.3589;
530.1000;0.9678;-1.3663;
530.4000;0.9687;-1.3564;
530.7000;0.9695;-1.3663;
531.0000;0.9703;-1.3713;
531.3000;0.9678;-1.3763;
531.6000;0.9678;-1.3688;
531.9000;0.9678;-1.3713;
532.2000;0.9678;-1.3713;
532.5000;0.9662;-1.3688;
532.8000;0.9678;-1.3763;
533.1000;0.9670;-1.3788;
533.4000;0.9735;-1.3614;
533.7000;0.9662;-1.3813;
534.0000;0.9662;-1.3763;
534.3000;0.9654;-1.3788;
534.6000;0.9678;-1.3688;
534.9000;0.9678;-1.3639;
535.2000;0.9662;-1.3763;
535.5000;0.9670;-1.3763;
535.8000;0.9678;-1.3763;
536.1000;0.9638;-1.3863;
536.4000;0.9687;-1.3713;
536.7000;0.9662;-1.3663;
537.0000;0.9654;-1.3589;
537.3000;0.9630;-1.3713;
537.6000;0.9662;-1.3589;
537.9000;0.9662;-1.3514;
538.2000;0.9670;-1.3614;
538.5000;0.9662;-1.3639;
538.8000;0.9670;-1.3564;
539.1000;0.9654;-1.3539;
539.4000;0.9654;-1.3489;
539.7000;0.9654;-1.3514;
540.0000;0.9670;-1.3464;
540.3000;0.9662;-1.3514;
540.6000;0.9646;-1.3564;
540.9000;0.9565;-1.3738;
541.2000;0.9670;-1.3489;
541.5000;0.9662;-1.3539;
541.8000;0.9646;-1.3514;
542.1000;0.9638;-1.3564;
542.4000;0.9695;-1.3414;
542.7000;0.9613;-1.3663;
543.0000;0.9678;-1.3564;
543.3000;0.9678;-1.3564;
543.6000;0.9654;-1.3639;
543.9000;0.9662;-1.3564;
544.2000;0.9646;-1.3639;
544.5000;0.9646;-1.3663;
544.8000;0.9678;-1.3514;
545.1000;0.9662;-1.3589;
545.4000;0.9621;-1.3688;
545.7000;0.9654;-1.3589;
546.0000;0.9654;-1.3614;
546.3000;0.9638;-1.3738;
546.6000;0.9654;-1.3713;
546.9000;0.9573;-1.3888;
547.2000;0.9646;-1.3688;
547.5000;0.9662;-1.3663;
547.8000;0.9638;-1.3838;
548.1000;0.9638;-1.3913;
548.4000;0.9662;-1.3913;
548.7000;0.9630;-1.3988;
549.0000;0.9670;-1.3913;
549.3000;0.9646;-1.3913;
549.6000;0.9646;-1.3913;
549.9000;0.9670;-1.3913;
550.2000;0.9654;-1.3963;
550.5000;0.9646;-1.4013;
550.8000;0.9654;-1.4013;
551.1000;0.9613;-1.4112;
551.4000;0.9678;-1.3988;
551.7000;0.9654;-1.4037;
552.0000;0.9646;-1.4112;
552.3000;0.9662;-1.4037;
552.6000;0.9654;-1.3938;
552.9000;0.9638;-1.3913;
553.2000;0.9565;-1.4062;
553.5000;0.9687;-1.3738;
553.8000;0.9670;-1.3763;
554.1000;0.9646;-1.3813;
554.4000;0.9630;-1.3813;
554.7000;0.9573;-1.3938;
555.0000;0.9670;-1.3738;
555.3000;0.9646;-1.3888;
555.6000;0.9556;-1.4137;
555.9000;0.9621;-1.3938;
556.2000;0.9630;-1.3938;
556.5000;0.9621;-1.3938;
556.8000;0.9646;-1.3963;
557.1000;0.9621;-1.4087;
557.4000;0.9654;-1.3988;
557.7000;0.9646;-1.3913;
558.0000;0.9638;-1.3838;
558.3000;0.9654;-1.3813;
558.6000;0.9638;-1.3913;
558.9000;0.9638;-1.3788;
559.2000;0.9646;-1.3813;
559.5000;0.9630;-1.3838;
559.8000;0.9638;-1.3788;
560.1000;0.9638;-1.3788;
560.4000;0.9630;-1.3763;
560.7000;0.9630;-1.3788;
561.0000;0.9670;-1.3663;
561.3000;0.9621;-1.3813;
561.6000;0.9638;-1.3813;
561.9000;0.9613;-1.3838;
562.2000;0.9630;-1.3738;
562.5000;0.9638;-1.3738;
562.8000;0.9687;-1.3564;
563.1000;0.9646;-1.3688;
563.4000;0.9630;-1.3713;
563.7000;0.9630;-1.3738;
564.0000;0.9613;-1.3813;
564.3000;0.9621;-1.3888;
564.6000;0.9613;-1.3888;
564.9000;0.9589;-1.3838;
565.2000;0.9630;-1.3688;
565.5000;0.9621;-1.3663;
565.8000;0.9630;-1.3713;
566.1000;0.9670;-1.3539;
566.4000;0.9662;-1.3564;
566.7000;0.9613;-1.3639;
567.0000;0.9638;-1.3564;
567.3000;0.9621;-1.3688;
567.6000;0.9621;-1.3713;
567.9000;0.9597;-1.3863;
568.2000;0.9605;-1.3938;
568.5000;0.9630;-1.3863;
568.8000;0.9605;-1.3888;
569.1000;0.9646;-1.3838;
569.4000;0.9621;-1.3963;
569.7000;0.9605;-1.4037;
570.0000;0.9630;-1.3913;
570.3000;0.9630;-1.3913;
570.6000;0.9589;-1.3938;
570.9000;0.9670;-1.3788;
571.2000;0.9621;-1.3838;
571.5000;0.9646;-1.3788;
571.8000;0.9646;-1.3813;
572.1000;0.9630;-1.3863;
572.4000;0.9621;-1.3938;
572.7000;0.9605;-1.3863;
573.0000;0.9695;-1.3614;
573.3000;0.9613;-1.3738;
573.6000;0.9646;-1.3639;
573.9000;0.9621;-1.3639;
574.2000;0.9613;-1.3614;
574.5000;0.9638;-1.3589;
574.8000;0.9630;-1.3614;
575.1000;0.9581;-1.3688;
575.4000;0.9589;-1.3663;
575.7000;0.9556;-1.3713;
576.0000;0.9621;-1.3464;
576.3000;0.9597;-1.3464;
576.6000;0.9605;-1.3439;
576.9000;0.9613;-1.3389;
577.2000;0.9621;-1.3489;
577.5000;0.9573;-1.3663;
577.8000;0.9589;-1.3614;
578.1000;0.9621;-1.3489;
578.4000;0.9613;-1.3489;
578.7000;0.9597;-1.3489;
579.0000;0.9605;-1.3464;
579.3000;0.9630;-1.3389;
579.6000;0.9565;-1.3489;
579.9000;0.9589;-1.3389;
580.2000;0.9597;-1.3339;
580.5000;0.9613;-1.3314;
580.8000;0.9597;-1.3289;
581.1000;0.9605;-1.3389;
581.4000;0.9589;-1.3364;
581.7000;0.9589;-1.3314;
582.0000;0.9605;-1.3265;
582.3000;0.9630;-1.3314;
582.6000;0.9630;-1.3339;
582.9000;0.9646;-1.3414;
583.2000;0.9646;-1.3489;
583.5000;0.9613;-1.3514;
583.8000;0.9613;-1.3489;
584.1000;0.9621;-1.3439;
584.4000;0.9605;-1.3489;
584.7000;0.9613;-1.3464;
585.0000;0.9613;-1.3514;
585.3000;0.9613;-1.3489;
585.6000;0.9589;-1.3564;
585.9000;0.9597;-1.3489;
586.2000;0.9581;-1.3589;
586.5000;0.9573;-1.3663;
586.8000;0.9581;-1.3614;
587.1000;0.9613;-1.3514;
587.4000;0.9589;-1.3589;
587.7000;0.9597;-1.3639;
588.0000;0.9556;-1.3663;
588.3000;0.9589;-1.3639;
588.6000;0.9589;-1.3663;
588.9000;0.9597;-1.3663;
589.2000;0.9581;-1.3713;
589.5000;0.9581;-1.3763;
589.8000;0.9687;-1.3464;
590.1000;0.9605;-1.3639;
590.4000;0.9565;-1.3688;
590.7000;0.9605;-1.3564;
591.0000;0.9565;-1.3688;
591.3000;0.9499;-1.3863;
591.6000;0.9556;-1.3688;
591.9000;0.9540;-1.3688;
592.2000;0.9556;-1.3738;
592.5000;0.9597;-1.3713;
592.8000;0.9573;-1.3763;
593.1000;0.9581;-1.3688;
593.4000;0.9565;-1.3614;
593.7000;0.9589;-1.3564;
594.0000;0.9556;-1.3589;
594.3000;0.9581;-1.3614;
594.6000;0.9597;-1.3589;
594.9000;0.9573;-1.3663;
595.2000;0.9589;-1.3564;
595.5000;0.9573;-1.3564;
595.8000;0.9589;-1.3539;
596.1000;0.9589;-1.3514;
596.4000;0.9589;-1.3514;
596.7000;0.9556;-1.3663;
597.0000;0.9605;-1.3589;
597.3000;0.9613;-1.3514;
597.6000;0.9581;-1.3614;
597.9000;0.9573;-1.3539;
598.2000;0.9581;-1.3414;
598.5000;0.9597;-1.3414;
598.8000;0.9597;-1.3439;
599.1000;0.9573;-1.3539;
599.4000;0.9581;-1.3539;
599.7000;0.9573;-1.3514;
600.0000;0.9573;-1.3539;
600.3000;0.9573;-1.3589;
600.6000;0.9459;-1.3838;
600.9000;0.9328;-1.3988;
601.2000;0.9166;-1.4062;
601.5000;0.8921;-1.4411;
601.8000;0.8856;-1.4411;
602.1000;0.8653;-1.4611;
602.4000;0.8498;-1.4785;
602.7000;0.8344;-1.4960;
603.0000;0.8221;-1.5035;
603.3000;0.8083;-1.5135;
603.6000;0.7977;-1.5259;
603.9000;0.7880;-1.5334;
604.2000;0.7749;-1.5484;
604.5000;0.7692;-1.5633;
604.8000;0.7619;-1.5683;
605.1000;0.7497;-1.5733;
605.4000;0.7432;-1.5683;
605.7000;0.7342;-1.5833;
606.0000;0.7318;-1.5783;
606.3000;0.7228;-1.5833;
606.6000;0.7147;-1.5932;
606.9000;0.7106;-1.5883;
607.2000;0.7066;-1.5858;
607.5000;0.6976;-1.5808;
607.8000;0.6976;-1.5683;
608.1000;0.6968;-1.5658;
608.4000;0.6895;-1.5733;
608.7000;0.6870;-1.5758;
609.0000;0.6838;-1.5783;
609.3000;0.6789;-1.5833;
609.6000;0.6805;-1.5808;
609.9000;0.6707;-1.5883;
610.2000;0.6691;-1.5957;
610.5000;0.6642;-1.6032;
610.8000;0.6626;-1.6057;
611.1000;0.6569;-1.5982;
611.4000;0.6569;-1.5883;
611.7000;0.6528;-1.5783;
612.0000;0.6520;-1.5833;
612.3000;0.6455;-1.6032;
612.6000;0.6471;-1.6082;
612.9000;0.6431;-1.6107;
613.2000;0.6422;-1.6107;
613.5000;0.6390;-1.6057;
613.8000;0.6374;-1.6082;
614.1000;0.6357;-1.6032;
614.4000;0.6292;-1.6207;
614.7000;0.6341;-1.6032;
615.0000;0.6300;-1.6132;
615.3000;0.6284;-1.6107;
615.6000;0.6284;-1.6107;
615.9000;0.6227;-1.6182;
616.2000;0.6227;-1.6207;
616.5000;0.6203;-1.6107;
616.8000;0.6195;-1.6057;
617.1000;0.6170;-1.5982;
617.4000;0.6162;-1.6057;
617.7000;0.6170;-1.5982;
618.0000;0.6138;-1.6057;
618.3000;0.6129;-1.6032;
618.6000;0.6113;-1.6107;
618.9000;0.6105;-1.6082;
619.2000;0.6089;-1.6107;
619.5000;0.6081;-1.6107;
619.8000;0.6056;-1.6082;
620.1000;0.6040;-1.6082;
620.4000;0.6089;-1.5883;
620.7000;0.6024;-1.6107;
621.0000;0.5999;-1.6107;
621.3000;0.6007;-1.6057;
621.6000;0.5991;-1.6057;
621.9000;0.5983;-1.6107;
622.2000;0.5975;-1.6082;
622.5000;0.5999;-1.6057;
622.8000;0.5926;-1.6182;
623.1000;0.5918;-1.6232;
623.4000;0.5926;-1.6082;
623.7000;0.5926;-1.6007;
624.0000;0.5918;-1.6057;
624.3000;0.5902;-1.6057;
624.6000;0.5893;-1.6032;
624.9000;0.5869;-1.6007;
625.2000;0.5861;-1.6032;
625.5000;0.5836;-1.6107;
625.8000;0.5845;-1.6157;
626.1000;0.5828;-1.6157;
626.4000;0.5796;-1.6257;
626.7000;0.5828;-1.6207;
627.0000;0.5804;-1.6232;
627.3000;0.5796;-1.6132;
627.6000;0.5771;-1.6157;
627.9000;0.5788;-1.6057;
628.2000;0.5771;-1.6157;
628.5000;0.5804;-1.6207;
628.8000;0.5747;-1.6306;
629.1000;0.5739;-1.6232;
629.4000;0.5755;-1.6182;
629.7000;0.5747;-1.6082;
630.0000;0.5714;-1.6107;
630.3000;0.5739;-1.5982;
630.6000;0.5592;-1.6306;
630.9000;0.5690;-1.5982;
631.2000;0.5665;-1.6032;
631.5000;0.5665;-1.6007;
631.8000;0.5682;-1.5932;
632.1000;0.5657;-1.6007;
632.4000;0.5657;-1.6132;
632.7000;0.5649;-1.6007;
633.0000;0.5649;-1.6057;
633.3000;0.5576;-1.6232;
633.6000;0.5633;-1.6132;
633.9000;0.5608;-1.6207;
634.2000;0.5600;-1.6232;
634.5000;0.5600;-1.6182;
634.8000;0.5600;-1.6157;
635.1000;0.5551;-1.6232;
635.4000;0.5568;-1.6107;
635.7000;0.5584;-1.6107;
636.0000;0.5543;-1.6157;
636.3000;0.5560;-1.6082;
636.6000;0.5543;-1.6082;
636.9000;0.5535;-1.5957;
637.2000;0.5551;-1.5907;
637.5000;0.5535;-1.5957;
637.8000;0.5495;-1.6057;
638.1000;0.5527;-1.5957;
638.4000;0.5511;-1.6007;
638.7000;0.5511;-1.6132;
639.0000;0.5486;-1.6132;
639.3000;0.5511;-1.6032;
639.6000;0.5486;-1.6082;
639.9000;0.5372;-1.6381;
640.2000;0.5470;-1.6132;
640.5000;0.5470;-1.6132;
640.8000;0.5470;-1.6207;
641.1000;0.5462;-1.6032;
641.4000;0.5446;-1.6082;
641.7000;0.5429;-1.6107;
642.0000;0.5438;-1.6082;
642.3000;0.5421;-1.5982;
642.6000;0.5413;-1.6057;
642.9000;0.5421;-1.6132;
643.2000;0.5413;-1.6082;
643.5000;0.5421;-1.6107;
643.8000;0.5389;-1.6182;
644.1000;0.5389;-1.6107;
644.4000;0.5429;-1.5883;
644.7000;0.5413;-1.6057;
645.0000;0.5389;-1.6032;
645.3000;0.5372;-1.6107;
645.6000;0.5372;-1.6182;
645.9000;0.5356;-1.6281;
646.2000;0.5340;-1.6207;
646.5000;0.5340;-1.6132;
646.8000;0.5348;-1.6032;
647.1000;0.5315;-1.6032;
647.4000;0.5324;-1.6132;
647.7000;0.5315;-1.6182;
648.0000;0.5315;-1.6132;
648.3000;0.5291;-1.6157;
648.6000;0.5315;-1.6132;
648.9000;0.5291;-1.6182;
649.2000;0.5299;-1.6107;
649.5000;0.5275;-1.6157;
649.8000;0.5307;-1.5982;
650.1000;0.5267;-1.5883;
650.4000;0.5275;-1.5907;
650.7000;0.5258;-1.5858;
651.0000;0.5283;-1.5758;
651.3000;0.5291;-1.5833;
651.6000;0.5258;-1.5932;
651.9000;0.5234;-1.5907;
652.2000;0.5258;-1.5932;
652.5000;0.5250;-1.5932;
652.8000;0.5226;-1.5957;
653.1000;0.5218;-1.5932;
653.4000;0.5242;-1.5858;
653.7000;0.5218;-1.5858;
654.0000;0.5218;-1.5833;
654.3000;0.5226;-1.5758;
654.6000;0.5218;-1.5808;
654.9000;0.5226;-1.5858;
655.2000;0.5193;-1.5883;
655.5000;0.5177;-1.5907;
655.8000;0.5136;-1.6082;
656.1000;0.5185;-1.5907;
656.4000;0.5177;-1.5932;
656.7000;0.5177;-1.5858;
657.0000;0.5161;-1.5808;
657.3000;0.5128;-1.5907;
657.6000;0.5144;-1.5957;
657.9000;0.5112;-1.6057;
658.2000;0.5112;-1.6057;
658.5000;0.5144;-1.6057;
658.8000;0.5169;-1.6007;
659.1000;0.5136;-1.6132;
659.4000;0.5128;-1.6007;
659.7000;0.5136;-1.5907;
660.0000;0.5104;-1.5907;
660.3000;0.5047;-1.6057;
660.6000;0.5120;-1.5907;
660.9000;0.5120;-1.5858;
661.2000;0.5112;-1.5883;
661.5000;0.5112;-1.6007;
661.8000;0.5055;-1.6057;
662.1000;0.5079;-1.5982;
662.4000;0.5088;-1.5883;
662.7000;0.5079;-1.5858;
663.0000;0.5063;-1.5932;
663.3000;0.5079;-1.5883;
663.6000;0.5071;-1.5858;
663.9000;0.5063;-1.5982;
664.2000;0.5071;-1.5883;
664.5000;0.5104;-1.5783;
664.8000;0.5079;-1.5808;
665.1000;0.5047;-1.5858;
665.4000;0.5039;-1.5858;
665.7000;0.5031;-1.5883;
666.0000;0.5063;-1.5907;
666.3000;0.5031;-1.6082;
666.6000;0.5014;-1.6132;
666.9000;0.5047;-1.5982;
667.2000;0.5014;-1.5907;
667.5000;0.4998;-1.5932;
667.8000;0.5022;-1.5858;
668.1000;0.5014;-1.5833;
668.4000;0.4965;-1.5957;
668.7000;0.5006;-1.5907;
669.0000;0.4998;-1.5858;
669.3000;0.5014;-1.5883;
669.6000;0.4990;-1.5982;
669.9000;0.4998;-1.5982;
670.2000;0.4998;-1.6057;
670.5000;0.4982;-1.6082;
670.8000;0.4949;-1.6057;
671.1000;0.4957;-1.6032;
671.4000;0.4957;-1.5957;
671.7000;0.4965;-1.5982;
672.0000;0.4957;-1.6057;
672.3000;0.4974;-1.5982;
672.6000;0.4957;-1.5907;
672.9000;0.4974;-1.5932;
673.2000;0.4925;-1.6032;
673.5000;0.4941;-1.5957;
673.8000;0.4917;-1.6057;
674.1000;0.4949;-1.5932;
674.4000;0.4908;-1.5982;
674.7000;0.4917;-1.5907;
675.0000;0.4941;-1.5808;
675.3000;0.4917;-1.5858;
675.6000;0.4917;-1.5907;
675.9000;0.4908;-1.5957;
676.2000;0.4884;-1.6157;
676.5000;0.4925;-1.5957;
676.8000;0.4917;-1.5982;
677.1000;0.4900;-1.5982;
677.4000;0.4892;-1.6057;
677.7000;0.4908;-1.6057;
678.0000;0.4892;-1.6082;
678.3000;0.4892;-1.6157;
678.6000;0.4876;-1.6157;
678.9000;0.4892;-1.6082;
679.2000;0.4868;-1.6082;
679.5000;0.4868;-1.6107;
679.8000;0.4900;-1.5982;
680.1000;0.4876;-1.6032;
680.4000;0.4884;-1.5982;
680.7000;0.4876;-1.6082;
681.0000;0.4868;-1.6082;
681.3000;0.4851;-1.6107;
681.6000;0.4868;-1.6157;
681.9000;0.4851;-1.6132;
682.2000;0.4868;-1.6132;
682.5000;0.4843;-1.6182;
682.8000;0.4884;-1.6107;
683.1000;0.4868;-1.6107;
683.4000;0.4851;-1.6107;
683.7000;0.4851;-1.6132;
684.0000;0.4851;-1.6132;
684.3000;0.4851;-1.5932;
684.6000;0.4843;-1.6032;
684.9000;0.4819;-1.6032;
685.2000;0.4827;-1.6107;
685.5000;0.4843;-1.6107;
685.8000;0.4827;-1.6132;
686.1000;0.4835;-1.6032;
686.4000;0.4827;-1.6107;
686.7000;0.4827;-1.6207;
687.0000;0.4827;-1.6207;
687.3000;0.4835;-1.6107;
687.6000;0.4843;-1.5957;
687.9000;0.4851;-1.5833;
688.2000;0.4819;-1.5957;
688.5000;0.4754;-1.6057;
688.8000;0.4762;-1.6057;
689.1000;0.4794;-1.5932;
689.4000;0.4786;-1.5932;
689.7000;0.4762;-1.5957;
690.0000;0.4811;-1.5758;
690.3000;0.4786;-1.5957;
690.6000;0.4794;-1.5982;
690.9000;0.4770;-1.6007;
691.2000;0.4762;-1.5982;
691.5000;0.4770;-1.6007;
691.8000;0.4778;-1.6032;
692.1000;0.4721;-1.6182;
692.4000;0.4770;-1.6032;
692.7000;0.4754;-1.6007;
693.0000;0.4762;-1.5883;
693.3000;0.4762;-1.5907;
693.6000;0.4689;-1.6107;
693.9000;0.4754;-1.5932;
694.2000;0.4689;-1.6107;
694.5000;0.4754;-1.5883;
694.8000;0.4754;-1.5833;
695.1000;0.4762;-1.5833;
695.4000;0.4754;-1.5858;
695.7000;0.4770;-1.5733;
696.0000;0.4746;-1.5783;
696.3000;0.4737;-1.5758;
696.6000;0.4737;-1.5858;
696.9000;0.4721;-1.5907;
697.2000;0.4737;-1.5858;
697.5000;0.4746;-1.5783;
697.8000;0.4721;-1.5858;
698.1000;0.4737;-1.5907;
698.4000;0.4721;-1.5858;
698.7000;0.4729;-1.5883;
699.0000;0.4713;-1.5907;
699.3000;0.4746;-1.5783;
699.6000;0.4672;-1.5982;
699.9000;0.4705;-1.5932;
700.2000;0.4721;-1.5833;
700.5000;0.4632;-1.6057;
700.8000;0.4737;-1.5808;
701.1000;0.4705;-1.5907;
701.4000;0.4705;-1.5957;
701.7000;0.4697;-1.5932;
702.0000;0.4713;-1.5858;
702.3000;0.4713;-1.5833;
702.6000;0.4705;-1.5932;
702.9000;0.4689;-1.5957;
703.2000;0.4681;-1.5858;
703.5000;0.4672;-1.5883;
703.8000;0.4664;-1.5883;
704.1000;0.4697;-1.5783;
704.4000;0.4664;-1.5907;
704.7000;0.4681;-1.5907;
705.0000;0.4648;-1.5982;
705.3000;0.4689;-1.5932;
705.6000;0.4648;-1.6082;
705.9000;0.4664;-1.6157;
706.2000;0.4689;-1.6082;
706.5000;0.4672;-1.6182;
706.8000;0.4681;-1.6132;
707.1000;0.4697;-1.6057;
707.4000;0.4672;-1.6107;
707.7000;0.4672;-1.6032;
708.0000;0.4558;-1.6306;
708.3000;0.4575;-1.6207;
708.6000;0.4672;-1.5982;
708.9000;0.4664;-1.6132;
709.2000;0.4672;-1.6107;
709.5000;0.4656;-1.6032;
709.8000;0.4713;-1.5808;
710.1000;0.4632;-1.5957;
710.4000;0.4672;-1.5907;
710.7000;0.4672;-1.5957;
711.0000;0.4656;-1.5932;
711.3000;0.4632;-1.5982;
711.6000;0.4648;-1.5932;
711.9000;0.4648;-1.6032;
712.2000;0.4656;-1.6007;
712.5000;0.4689;-1.5883;
712.8000;0.4640;-1.5957;
713.1000;0.4624;-1.6082;
713.4000;0.4656;-1.5982;
713.7000;0.4648;-1.6007;
714.0000;0.4640;-1.6032;
714.3000;0.4615;-1.6032;
714.6000;0.4632;-1.5982;
714.9000;0.4632;-1.5957;
715.2000;0.4615;-1.6007;
715.5000;0.4648;-1.5907;
715.8000;0.4640;-1.5907;
716.1000;0.4648;-1.5858;
716.4000;0.4672;-1.5783;
716.7000;0.4615;-1.5907;
717.0000;0.4640;-1.5883;
717.3000;0.4721;-1.5608;
717.6000;0.4632;-1.5858;
717.9000;0.4624;-1.5858;
718.2000;0.4615;-1.5932;
718.5000;0.4615;-1.5957;
718.8000;0.4624;-1.5907;
719.1000;0.4615;-1.5957;
719.4000;0.4599;-1.5907;
719.7000;0.4615;-1.5858;
720.0000;0.4624;-1.5858;
720.3000;0.4558;-1.6032;
720.6000;0.4567;-1.6007;
720.9000;0.4599;-1.5883;
721.2000;0.4607;-1.5858;
721.5000;0.4615;-1.5858;
721.8000;0.4607;-1.5858;
722.1000;0.4615;-1.5758;
722.4000;0.4607;-1.5783;
722.7000;0.4583;-1.5858;
723.0000;0.4599;-1.5858;
723.3000;0.4591;-1.5858;
723.6000;0.4607;-1.5783;
723.9000;0.4632;-1.5683;
724.2000;0.4558;-1.5833;
724.5000;0.4624;-1.5683;
724.8000;0.4591;-1.5758;
725.1000;0.4583;-1.5783;
725.4000;0.4583;-1.5783;
725.7000;0.4526;-1.5932;
726.0000;0.4575;-1.5907;
726.3000;0.4575;-1.5883;
726.6000;0.4550;-1.5932;
726.9000;0.4550;-1.5932;
727.2000;0.4583;-1.5858;
727.5000;0.4558;-1.5907;
727.8000;0.4567;-1.5883;
728.1000;0.4567;-1.5833;
728.4000;0.4542;-1.5833;
728.7000;0.4550;-1.5858;
729.0000;0.4575;-1.5783;
729.3000;0.4567;-1.5883;
729.6000;0.4550;-1.6007;
729.9000;0.4542;-1.6057;
730.2000;0.4477;-1.6207;
730.5000;0.4558;-1.6057;
730.8000;0.4567;-1.6057;
731.1000;0.4550;-1.6082;
731.4000;0.4575;-1.6057;
731.7000;0.4542;-1.6032;
732.0000;0.4558;-1.5982;
732.3000;0.4526;-1.6007;
732.6000;0.4542;-1.5982;
732.9000;0.4534;-1.5982;
733.2000;0.4477;-1.6132;
733.5000;0.4510;-1.6007;
733.8000;0.4534;-1.5957;
734.1000;0.4542;-1.5907;
734.4000;0.4550;-1.5883;
734.7000;0.4518;-1.6107;
735.0000;0.4558;-1.6132;
735.3000;0.4526;-1.6107;
735.6000;0.4485;-1.6182;
735.9000;0.4550;-1.5982;
736.2000;0.4526;-1.5957;
736.5000;0.4534;-1.5957;
736.8000;0.4534;-1.6032;
737.1000;0.4526;-1.6007;
737.4000;0.4526;-1.5982;
737.7000;0.4518;-1.5982;
738.0000;0.4518;-1.6032;
738.3000;0.4567;-1.5907;
738.6000;0.4485;-1.6132;
738.9000;0.4510;-1.6082;
739.2000;0.4534;-1.5982;
739.5000;0.4534;-1.5982;
739.8000;0.4501;-1.6082;
740.1000;0.4501;-1.6057;
740.4000;0.4518;-1.5982;
740.7000;0.4510;-1.5932;
741.0000;0.4510;-1.5957;
741.3000;0.4501;-1.5932;
741.6000;0.4518;-1.5858;
741.9000;0.4518;-1.5883;
742.2000;0.4526;-1.5957;
742.5000;0.4485;-1.6007;
742.8000;0.4510;-1.6032;
743.1000;0.4501;-1.6032;
743.4000;0.4493;-1.5982;
743.7000;0.4485;-1.5957;
744.0000;0.4404;-1.6182;
744.3000;0.4534;-1.5783;
744.6000;0.4485;-1.5907;
744.9000;0.4453;-1.5932;
745.2000;0.4493;-1.5932;
745.5000;0.4485;-1.5883;
745.8000;0.4493;-1.5858;
746.1000;0.4428;-1.5907;
746.4000;0.4477;-1.5833;
746.7000;0.4477;-1.5932;
747.0000;0.4493;-1.5808;
747.3000;0.4493;-1.5808;
747.6000;0.4493;-1.5783;
747.9000;0.4493;-1.5808;
748.2000;0.4477;-1.5833;
748.5000;0.4477;-1.5907;
748.8000;0.4477;-1.5858;
749.1000;0.4453;-1.5907;
749.4000;0.4493;-1.5808;
749.7000;0.4477;-1.5833;
750.0000;0.4477;-1.5858;
750.3000;0.4477;-1.5858;
750.6000;0.4477;-1.5808;
750.9000;0.4453;-1.5858;
751.2000;0.4379;-1.6057;
751.5000;0.4453;-1.5907;
751.8000;0.4444;-1.5858;
752.1000;0.4485;-1.5783;
752.4000;0.4477;-1.5833;
752.7000;0.4444;-1.5932;
753.0000;0.4444;-1.5982;
753.3000;0.4453;-1.5932;
753.6000;0.4453;-1.5833;
753.9000;0.4444;-1.5883;
754.2000;0.4461;-1.5858;
754.5000;0.4444;-1.6032;
754.8000;0.4461;-1.5982;
755.1000;0.4453;-1.5808;
755.4000;0.4461;-1.5808;
755.7000;0.4469;-1.5783;
756.0000;0.4453;-1.5833;
756.3000;0.4461;-1.5833;
756.6000;0.4420;-1.5907;
756.9000;0.4461;-1.5783;
757.2000;0.4485;-1.5733;
757.5000;0.4436;-1.5907;
757.8000;0.4461;-1.5982;
758.1000;0.4461;-1.5982;
758.4000;0.4444;-1.6007;
758.7000;0.4493;-1.5907;
759.0000;0.4469;-1.5883;
759.3000;0.4469;-1.5833;
759.6000;0.4436;-1.5932;
759.9000;0.4436;-1.5957;
760.2000;0.4461;-1.5932;
760.5000;0.4453;-1.6007;
760.8000;0.4461;-1.6032;
761.1000;0.4444;-1.6032;
761.4000;0.4428;-1.6032;
761.7000;0.4453;-1.5932;
762.0000;0.4412;-1.6007;
762.3000;0.4444;-1.5907;
762.6000;0.4436;-1.5883;
762.9000;0.4428;-1.5982;
763.2000;0.4396;-1.6207;
763.5000;0.4444;-1.6082;
763.8000;0.4444;-1.5982;
764.1000;0.4412;-1.5957;
764.4000;0.4420;-1.5932;
764.7000;0.4436;-1.5957;
765.0000;0.4428;-1.6007;
765.3000;0.4379;-1.6207;
765.6000;0.4428;-1.5957;
765.9000;0.4428;-1.5982;
766.2000;0.4436;-1.5932;
766.5000;0.4436;-1.5957;
766.8000;0.4436;-1.5883;
767.1000;0.4428;-1.5883;
767.4000;0.4444;-1.5883;
767.7000;0.4420;-1.5907;
768.0000;0.4420;-1.5907;
768.3000;0.4444;-1.5758;
768.6000;0.4420;-1.5858;
768.9000;0.4412;-1.5858;
769.2000;0.4396;-1.5833;
769.5000;0.4444;-1.5633;
769.8000;0.4412;-1.5733;
770.1000;0.4404;-1.5758;
770.4000;0.4404;-1.5708;
770.7000;0.4412;-1.5733;
771.0000;0.4420;-1.5758;
771.3000;0.4420;-1.5733;
771.6000;0.4420;-1.5708;
771.9000;0.4396;-1.5808;
772.2000;0.4404;-1.5957;
772.5000;0.4412;-1.5932;
772.8000;0.4396;-1.5932;
773.1000;0.4428;-1.5758;
773.4000;0.4420;-1.5808;
773.7000;0.4412;-1.5733;
774.0000;0.4412;-1.5658;
774.3000;0.4387;-1.5683;
774.6000;0.4412;-1.5658;
774.9000;0.4396;-1.5708;
775.2000;0.4420;-1.5683;
775.5000;0.4387;-1.5783;
775.8000;0.4412;-1.5833;
776.1000;0.4412;-1.5858;
776.4000;0.4404;-1.5858;
776.7000;0.4404;-1.5883;
777.0000;0.4322;-1.6157;
777.3000;0.4314;-1.6157;
777.6000;0.4404;-1.5907;
777.9000;0.4379;-1.5858;
778.2000;0.4379;-1.5808;
778.5000;0.4420;-1.5758;
778.8000;0.4387;-1.5858;
779.1000;0.4371;-1.5858;
779.4000;0.4387;-1.5858;
779.7000;0.4379;-1.5932;
780.0000;0.4396;-1.5883;
780.3000;0.4363;-1.5957;
780.6000;0.4379;-1.5932;
780.9000;0.4371;-1.5957;
781.2000;0.4396;-1.5808;
781.5000;0.4396;-1.5683;
781.8000;0.4371;-1.5683;
782.1000;0.4387;-1.5633;
782.4000;0.4453;-1.5484;
782.7000;0.4355;-1.5808;
783.0000;0.4477;-1.5533;
783.3000;0.4379;-1.5808;
783.6000;0.4387;-1.5733;
783.9000;0.4396;-1.5633;
784.2000;0.4379;-1.5708;
784.5000;0.4363;-1.5783;
784.8000;0.4379;-1.5683;
785.1000;0.4379;-1.5708;
785.4000;0.4371;-1.5783;
785.7000;0.4282;-1.5982;
786.0000;0.4371;-1.5733;
786.3000;0.4371;-1.5758;
786.6000;0.4363;-1.5733;
786.9000;0.4363;-1.5708;
787.2000;0.4330;-1.5808;
787.5000;0.4347;-1.5758;
787.8000;0.4274;-1.5858;
788.1000;0.4371;-1.5708;
788.4000;0.4379;-1.5733;
788.7000;0.4363;-1.5708;
789.0000;0.4371;-1.5683;
789.3000;0.4453;-1.5434;
789.6000;0.4355;-1.5708;
789.9000;0.4371;-1.5658;
790.2000;0.4363;-1.5708;
790.5000;0.4363;-1.5708;
790.8000;0.4371;-1.5733;
791.1000;0.4363;-1.5808;
791.4000;0.4355;-1.5758;
791.7000;0.4371;-1.5783;
792.0000;0.4290;-1.5932;
792.3000;0.4347;-1.5833;
792.6000;0.4371;-1.5833;
792.9000;0.4387;-1.5758;
793.2000;0.4363;-1.5858;
793.5000;0.4355;-1.5833;
793.8000;0.4355;-1.5733;
794.1000;0.4436;-1.5558;
794.4000;0.4379;-1.5633;
794.7000;0.4371;-1.5708;
795.0000;0.4355;-1.5733;
795.3000;0.4355;-1.5708;
795.6000;0.4355;-1.5658;
795.9000;0.4355;-1.5658;
796.2000;0.4347;-1.5733;
796.5000;0.4371;-1.5708;
796.8000;0.4355;-1.5783;
797.1000;0.4339;-1.5833;
797.4000;0.4347;-1.5808;
797.7000;0.4339;-1.5708;
798.0000;0.4363;-1.5509;
798.3000;0.4347;-1.5633;
798.6000;0.4355;-1.5658;
798.9000;0.4355;-1.5758;
799.2000;0.4347;-1.5708;
799.5000;0.4371;-1.5733;
799.8000;0.4306;-1.5932;
800.1000;0.4363;-1.5858;
800.4000;0.4298;-1.6007;
800.7000;0.4347;-1.5858;
801.0000;0.4387;-1.5858;
801.3000;0.4339;-1.5833;
801.6000;0.4330;-1.5907;
801.9000;0.4371;-1.5858;
802.2000;0.4339;-1.5808;
802.5000;0.4306;-1.5883;
802.8000;0.4347;-1.5783;
803.1000;0.4363;-1.5733;
803.4000;0.4322;-1.5833;
803.7000;0.4322;-1.5883;
804.0000;0.4339;-1.5883;
804.3000;0.4339;-1.5883;
804.6000;0.4363;-1.5683;
804.9000;0.4347;-1.5783;
805.2000;0.4314;-1.5808;
805.5000;0.4322;-1.5808;
805.8000;0.4330;-1.5833;
806.1000;0.4322;-1.5907;
806.4000;0.4322;-1.5783;
806.7000;0.4371;-1.5733;
807.0000;0.4339;-1.5808;
807.3000;0.4314;-1.5858;
807.6000;0.4306;-1.5858;
807.9000;0.4322;-1.5733;
808.2000;0.4347;-1.5658;
808.5000;0.4306;-1.5758;
808.8000;0.4322;-1.5708;
809.1000;0.4330;-1.5708;
809.4000;0.4298;-1.5758;
809.7000;0.4314;-1.5658;
810.0000;0.4387;-1.5533;
810.3000;0.4306;-1.5783;
810.6000;0.4322;-1.5758;
810.9000;0.4322;-1.5733;
811.2000;0.4330;-1.5758;
811.5000;0.4322;-1.5758;
811.8000;0.4306;-1.5683;
812.1000;0.4347;-1.5633;
812.4000;0.4322;-1.5733;
812.7000;0.4330;-1.5733;
813.0000;0.4314;-1.5708;
813.3000;0.4257;-1.5907;
813.6000;0.4306;-1.5733;
813.9000;0.4306;-1.5608;
814.2000;0.4274;-1.5608;
814.5000;0.4298;-1.5533;
814.8000;0.4306;-1.5558;
815.1000;0.4330;-1.5509;
815.4000;0.4282;-1.5608;
815.7000;0.4306;-1.5533;
816.0000;0.4298;-1.5583;
816.3000;0.4274;-1.5708;
816.6000;0.4379;-1.5509;
816.9000;0.4306;-1.5708;
817.2000;0.4298;-1.5733;
817.5000;0.4274;-1.5808;
817.8000;0.4314;-1.5758;
818.1000;0.4274;-1.5808;
818.4000;0.4314;-1.5708;
818.7000;0.4298;-1.5683;
819.0000;0.4298;-1.5683;
819.3000;0.4306;-1.5683;
819.6000;0.4298;-1.5683;
819.9000;0.4298;-1.5708;
820.2000;0.4290;-1.5783;
820.5000;0.4298;-1.5833;
820.8000;0.4290;-1.5858;
821.1000;0.4298;-1.5858;
821.4000;0.4306;-1.5858;
821.7000;0.4274;-1.5932;
822.0000;0.4274;-1.5932;
822.3000;0.4298;-1.5858;
822.6000;0.4298;-1.5833;
822.9000;0.4298;-1.5833;
823.2000;0.4298;-1.5808;
823.5000;0.4298;-1.5858;
823.8000;0.4290;-1.5932;
824.1000;0.4290;-1.5907;
824.4000;0.4290;-1.5883;
824.7000;0.4298;-1.5733;
825.0000;0.4306;-1.5708;
825.3000;0.4298;-1.5683;
825.6000;0.4282;-1.5733;
825.9000;0.4290;-1.5708;
826.2000;0.4290;-1.5683;
826.5000;0.4298;-1.5583;
826.8000;0.4241;-1.5783;
827.1000;0.4282;-1.5633;
827.4000;0.4274;-1.5733;
827.7000;0.4265;-1.5833;
828.0000;0.4298;-1.5808;
828.3000;0.4282;-1.5783;
828.6000;0.4290;-1.5808;
828.9000;0.4298;-1.5708;
829.2000;0.4265;-1.5733;
829.5000;0.4282;-1.5783;
829.8000;0.4339;-1.5633;
830.1000;0.4282;-1.5858;
830.4000;0.4282;-1.5758;
830.7000;0.4274;-1.5733;
831.0000;0.4282;-1.5733;
831.3000;0.4330;-1.5633;
831.6000;0.4298;-1.5733;
831.9000;0.4249;-1.5833;
832.2000;0.4290;-1.5783;
832.5000;0.4290;-1.5733;
832.8000;0.4217;-1.5858;
833.1000;0.4274;-1.5658;
833.4000;0.4290;-1.5683;
833.7000;0.4290;-1.5608;
834.0000;0.4298;-1.5608;
834.3000;0.4298;-1.5733;
834.6000;0.4306;-1.5683;
834.9000;0.4306;-1.5683;
835.2000;0.4306;-1.5633;
835.5000;0.4298;-1.5633;
835.8000;0.4282;-1.5708;
836.1000;0.4274;-1.5858;
836.4000;0.4298;-1.5758;
836.7000;0.4265;-1.5758;
837.0000;0.4265;-1.5708;
837.3000;0.4282;-1.5658;
837.6000;0.4274;-1.5733;
837.9000;0.4290;-1.5808;
838.2000;0.4265;-1.5833;
838.5000;0.4274;-1.5758;
838.8000;0.4290;-1.5833;
839.1000;0.4298;-1.5783;
839.4000;0.4233;-1.5907;
839.7000;0.4274;-1.5758;
840.0000;0.4265;-1.5783;
840.3000;0.4274;-1.5708;
840.6000;0.4339;-1.5434;
840.9000;0.4282;-1.5533;
841.2000;0.4274;-1.5658;
841.5000;0.4282;-1.5583;
841.8000;0.4257;-1.5708;
842.1000;0.4257;-1.5683;
842.4000;0.4274;-1.5658;
842.7000;0.4282;-1.5658;
843.0000;0.4274;-1.5683;
843.3000;0.4241;-1.5758;
843.6000;0.4274;-1.5583;
843.9000;0.4274;-1.5633;
844.2000;0.4265;-1.5608;
844.5000;0.4257;-1.5533;
844.8000;0.4233;-1.5558;
845.1000;0.4274;-1.5533;
845.4000;0.4274;-1.5583;
845.7000;0.4306;-1.5484;
846.0000;0.4257;-1.5683;
846.3000;0.4265;-1.5733;
846.6000;0.4257;-1.5733;
846.9000;0.4257;-1.5758;
847.2000;0.4249;-1.5783;
847.5000;0.4249;-1.5808;
847.8000;0.4265;-1.5783;
848.1000;0.4330;-1.5583;
848.4000;0.4241;-1.5758;
848.7000;0.4265;-1.5758;
849.0000;0.4257;-1.5733;
849.3000;0.4192;-1.5858;
849.6000;0.4241;-1.5808;
849.9000;0.4257;-1.5808;
850.2000;0.4249;-1.5758;
850.5000;0.4249;-1.5708;
850.8000;0.4274;-1.5683;
851.1000;0.4241;-1.5758;
851.4000;0.4241;-1.5683;
851.7000;0.4355;-1.5434;
852.0000;0.4282;-1.5658;
852.3000;0.4233;-1.5783;
852.6000;0.4249;-1.5808;
852.9000;0.4225;-1.5808;
853.2000;0.4265;-1.5583;
853.5000;0.4241;-1.5558;
853.8000;0.4249;-1.5583;
854.1000;0.4249;-1.5434;
854.4000;0.4241;-1.5409;
854.7000;0.4233;-1.5558;
855.0000;0.4160;-1.5833;
855.3000;0.4257;-1.5658;
855.6000;0.4241;-1.5783;
855.9000;0.4257;-1.5758;
856.2000;0.4249;-1.5733;
856.5000;0.4257;-1.5708;
856.8000;0.4241;-1.5658;
857.1000;0.4233;-1.5658;
857.4000;0.4249;-1.5683;
857.7000;0.4257;-1.5683;
858.0000;0.4225;-1.5758;
858.3000;0.4233;-1.5733;
858.6000;0.4225;-1.5758;
858.9000;0.4241;-1.5833;
859.2000;0.4233;-1.5932;
859.5000;0.4225;-1.5858;
859.8000;0.4249;-1.5733;
860.1000;0.4241;-1.5758;
860.4000;0.4249;-1.5733;
860.7000;0.4217;-1.5758;
861.0000;0.4217;-1.5708;
861.3000;0.4249;-1.5683;
861.6000;0.4225;-1.5733;
861.9000;0.4249;-1.5758;
862.2000;0.4168;-1.5932;
862.5000;0.4233;-1.5783;
862.8000;0.4241;-1.5658;
863.1000;0.4225;-1.5633;
863.4000;0.4225;-1.5583;
863.7000;0.4249;-1.5509;
864.0000;0.4217;-1.5533;
864.3000;0.4265;-1.5459;
864.6000;0.4233;-1.5583;
864.9000;0.4306;-1.5484;
865.2000;0.4282;-1.5509;
865.5000;0.4233;-1.5558;
865.8000;0.4217;-1.5633;
866.1000;0.4249;-1.5533;
866.4000;0.4241;-1.5583;
866.7000;0.4233;-1.5683;
867.0000;0.4249;-1.5833;
867.3000;0.4241;-1.5883;
867.6000;0.4200;-1.5957;
867.9000;0.4233;-1.5858;
868.2000;0.4241;-1.5833;
868.5000;0.4233;-1.5733;
868.8000;0.4217;-1.5808;
869.1000;0.4200;-1.5758;
869.4000;0.4208;-1.5658;
869.7000;0.4225;-1.5683;
870.0000;0.4208;-1.5708;
870.3000;0.4225;-1.5733;
870.6000;0.4233;-1.5683;
870.9000;0.4241;-1.5683;
871.2000;0.4241;-1.5583;
871.5000;0.4241;-1.5583;
871.8000;0.4208;-1.5658;
872.1000;0.4257;-1.5658;
872.4000;0.4225;-1.5758;
872.7000;0.4249;-1.5608;
873.0000;0.4225;-1.5633;
873.3000;0.4160;-1.5758;
873.6000;0.4233;-1.5658;
873.9000;0.4225;-1.5708;
874.2000;0.4208;-1.5733;
874.5000;0.4168;-1.5783;
874.8000;0.4233;-1.5608;
875.1000;0.4208;-1.5658;
875.4000;0.4208;-1.5658;
875.7000;0.4217;-1.5733;
876.0000;0.4233;-1.5683;
876.3000;0.4208;-1.5683;
876.6000;0.4233;-1.5583;
876.9000;0.4208;-1.5608;
877.2000;0.4241;-1.5558;
877.5000;0.4200;-1.5633;
877.8000;0.4225;-1.5583;
878.1000;0.4233;-1.5633;
878.4000;0.4233;-1.5583;
878.7000;0.4233;-1.5558;
879.0000;0.4225;-1.5708;
879.3000;0.4225;-1.5608;
879.6000;0.4233;-1.5633;
879.9000;0.4225;-1.5708;
880.2000;0.4233;-1.5733;
880.5000;0.4225;-1.5783;
880.8000;0.4233;-1.5808;
881.1000;0.4241;-1.5783;
881.4000;0.4208;-1.5783;
881.7000;0.4241;-1.5608;
882.0000;0.4200;-1.5633;
882.3000;0.4225;-1.5484;
882.6000;0.4225;-1.5484;
882.9000;0.4217;-1.5509;
883.2000;0.4225;-1.5558;
883.5000;0.4225;-1.5583;
883.8000;0.4200;-1.5633;
884.1000;0.4192;-1.5758;
884.4000;0.4217;-1.5758;
884.7000;0.4217;-1.5708;
885.0000;0.4225;-1.5733;
885.3000;0.4217;-1.5783;
885.6000;0.4241;-1.5658;
885.9000;0.4225;-1.5608;
886.2000;0.4233;-1.5633;
886.5000;0.4225;-1.5683;
886.8000;0.4217;-1.5633;
887.1000;0.4176;-1.5683;
887.4000;0.4217;-1.5608;
887.7000;0.4217;-1.5583;
888.0000;0.4200;-1.5633;
888.3000;0.4217;-1.5509;
888.6000;0.4200;-1.5509;
888.9000;0.4241;-1.5334;
889.2000;0.4217;-1.5384;
889.5000;0.4192;-1.5459;
889.8000;0.4208;-1.5484;
890.1000;0.4200;-1.5558;
890.4000;0.4208;-1.5509;
890.7000;0.4192;-1.5533;
891.0000;0.4217;-1.5334;
891.3000;0.4265;-1.5259;
891.6000;0.4233;-1.5359;
891.9000;0.4208;-1.5384;
892.2000;0.4249;-1.5384;
892.5000;0.4225;-1.5484;
892.8000;0.4200;-1.5558;
893.1000;0.4176;-1.5583;
893.4000;0.4249;-1.5409;
893.7000;0.4208;-1.5484;
894.0000;0.4225;-1.5509;
894.3000;0.4208;-1.5658;
894.6000;0.4217;-1.5583;
894.9000;0.4208;-1.5608;
895.2000;0.4225;-1.5558;
895.5000;0.4192;-1.5608;
895.8000;0.4208;-1.5708;
896.1000;0.4192;-1.5683;
896.4000;0.4184;-1.5733;
896.7000;0.4184;-1.5758;
897.0000;0.4176;-1.5783;
897.3000;0.4200;-1.5733;
897.6000;0.4200;-1.5758;
897.9000;0.4176;-1.5758;
898.2000;0.4184;-1.5733;
898.5000;0.4241;-1.5608;
898.8000;0.4192;-1.5658;
899.1000;0.4151;-1.5708;
899.4000;0.4208;-1.5683;
899.7000;0.4168;-1.5733;
900.0000;0.4265;-1.5409;
900.3000;0.4225;-1.5509;
900.6000;0.4200;-1.5583;
900.9000;0.4208;-1.5583;
901.2000;0.4217;-1.5558;
901.5000;0.4119;-1.5758;
901.8000;0.4192;-1.5608;
902.1000;0.4217;-1.5583;
902.4000;0.4217;-1.5683;
902.7000;0.4200;-1.5658;
903.0000;0.4249;-1.5509;
903.3000;0.4208;-1.5683;
903.6000;0.4208;-1.5708;
903.9000;0.4184;-1.5733;
904.2000;0.4168;-1.5883;
904.5000;0.4200;-1.5883;
904.8000;0.4200;-1.5907;
905.1000;0.4192;-1.5883;
905.4000;0.4192;-1.5932;
905.7000;0.4200;-1.5858;
906.0000;0.4192;-1.5758;
906.3000;0.4208;-1.5658;
906.6000;0.4151;-1.5808;
906.9000;0.4208;-1.5683;
907.2000;0.4200;-1.5633;
907.5000;0.4160;-1.5733;
907.8000;0.4208;-1.5608;
908.1000;0.4184;-1.5708;
908.4000;0.4233;-1.5658;
908.7000;0.4184;-1.5758;
909.0000;0.4184;-1.5683;
909.3000;0.4241;-1.5558;
909.6000;0.4184;-1.5658;
909.9000;0.4184;-1.5683;
910.2000;0.4192;-1.5758;
910.5000;0.4192;-1.5858;
910.8000;0.4184;-1.5907;
911.1000;0.4192;-1.5907;
911.4000;0.4192;-1.5932;
911.7000;0.4208;-1.5858;
912.0000;0.4192;-1.5932;
912.3000;0.4208;-1.5858;
912.6000;0.4176;-1.5783;
912.9000;0.4184;-1.5833;
913.2000;0.4192;-1.5733;
913.5000;0.4176;-1.5758;
913.8000;0.4176;-1.5683;
914.1000;0.4200;-1.5708;
914.4000;0.4200;-1.5808;
914.7000;0.4176;-1.5883;
915.0000;0.4192;-1.5883;
915.3000;0.4094;-1.6082;
915.6000;0.4192;-1.5932;
915.9000;0.4208;-1.5883;
916.2000;0.4168;-1.5957;
916.5000;0.4160;-1.5932;
916.8000;0.4184;-1.5833;
917.1000;0.4168;-1.5883;
917.4000;0.4233;-1.5783;
917.7000;0.4192;-1.5932;
918.0000;0.4241;-1.5758;
918.3000;0.4192;-1.5858;
918.6000;0.4200;-1.5858;
918.9000;0.4168;-1.5808;
919.2000;0.4192;-1.5858;
919.5000;0.4176;-1.5808;
919.8000;0.4184;-1.5808;
920.1000;0.4176;-1.5833;
920.4000;0.4184;-1.5683;
920.7000;0.4217;-1.5583;
921.0000;0.4176;-1.5683;
921.3000;0.4184;-1.5683;
921.6000;0.4176;-1.5683;
921.9000;0.4192;-1.5708;
922.2000;0.4192;-1.5633;
922.5000;0.4192;-1.5658;
922.8000;0.4176;-1.5733;
923.1000;0.4168;-1.5758;
923.4000;0.4192;-1.5583;
923.7000;0.4086;-1.5808;
924.0000;0.4225;-1.5459;
924.3000;0.4086;-1.5833;
924.6000;0.4233;-1.5459;
924.9000;0.4184;-1.5558;
925.2000;0.4160;-1.5633;
925.5000;0.4184;-1.5633;
925.8000;0.4184;-1.5633;
926.1000;0.4151;-1.5733;
926.4000;0.4160;-1.5733;
926.7000;0.4176;-1.5658;
927.0000;0.4176;-1.5683;
927.3000;0.4168;-1.5633;
927.6000;0.4225;-1.5484;
927.9000;0.4176;-1.5484;
928.2000;0.4160;-1.5409;
928.5000;0.4135;-1.5459;
928.8000;0.4168;-1.5384;
929.1000;0.4168;-1.5459;
929.4000;0.4176;-1.5459;
929.7000;0.4160;-1.5484;
930.0000;0.4160;-1.5558;
930.3000;0.4208;-1.5409;
930.6000;0.4200;-1.5484;
930.9000;0.4176;-1.5558;
931.2000;0.4168;-1.5608;
931.5000;0.4168;-1.5583;
931.8000;0.4176;-1.5558;
932.1000;0.4176;-1.5533;
932.4000;0.4160;-1.5509;
932.7000;0.4168;-1.5509;
933.0000;0.4168;-1.5558;
933.3000;0.4192;-1.5459;
933.6000;0.4192;-1.5459;
933.9000;0.4184;-1.5484;
934.2000;0.4168;-1.5484;
934.5000;0.4184;-1.5459;
934.8000;0.4168;-1.5533;
935.1000;0.4168;-1.5484;
935.4000;0.4208;-1.5484;
935.7000;0.4184;-1.5459;
936.0000;0.4176;-1.5459;
936.3000;0.4143;-1.5633;
936.6000;0.4176;-1.5683;
936.9000;0.4168;-1.5708;
937.2000;0.4168;-1.5533;
937.5000;0.4176;-1.5484;
937.8000;0.4176;-1.5459;
938.1000;0.4160;-1.5484;
938.4000;0.4143;-1.5409;
938.7000;0.4168;-1.5384;
939.0000;0.4151;-1.5434;
939.3000;0.4176;-1.5359;
939.6000;0.4168;-1.5309;
939.9000;0.4135;-1.5434;
940.2000;0.4192;-1.5234;
940.5000;0.4160;-1.5209;
940.8000;0.4160;-1.5159;
941.1000;0.4168;-1.5159;
941.4000;0.4265;-1.4910;
941.7000;0.4184;-1.5085;
942.0000;0.4168;-1.5234;
942.3000;0.4184;-1.5259;
942.6000;0.4184;-1.5184;
942.9000;0.4184;-1.5159;
943.2000;0.4160;-1.5110;
943.5000;0.4127;-1.5234;
943.8000;0.4168;-1.5110;
944.1000;0.4151;-1.5234;
944.4000;0.4160;-1.5234;
944.7000;0.4160;-1.5284;
945.0000;0.4094;-1.5484;
945.3000;0.4151;-1.5434;
945.6000;0.4160;-1.5484;
945.9000;0.4127;-1.5509;
946.2000;0.4151;-1.5434;
946.5000;0.4217;-1.5184;
946.8000;0.4241;-1.5159;
947.1000;0.4176;-1.5409;
947.4000;0.4225;-1.5259;
947.7000;0.4160;-1.5509;
948.0000;0.4176;-1.5509;
948.3000;0.4200;-1.5459;
948.6000;0.4168;-1.5484;
948.9000;0.4160;-1.5558;
949.2000;0.4168;-1.5533;
949.5000;0.4184;-1.5459;
949.8000;0.4151;-1.5558;
950.1000;0.4135;-1.5509;
950.4000;0.4160;-1.5384;
950.7000;0.4135;-1.5409;
951.0000;0.4143;-1.5359;
951.3000;0.4151;-1.5384;
951.6000;0.4151;-1.5434;
951.9000;0.4143;-1.5484;
952.2000;0.4151;-1.5484;
952.5000;0.4151;-1.5533;
952.8000;0.4160;-1.5484;
953.1000;0.4143;-1.5558;
953.4000;0.4160;-1.5459;
953.7000;0.4168;-1.5434;
954.0000;0.4151;-1.5459;
954.3000;0.4160;-1.5484;
954.6000;0.4160;-1.5484;
954.9000;0.4160;-1.5334;
955.2000;0.4208;-1.5309;
955.5000;0.4160;-1.5484;
955.8000;0.4151;-1.5558;
956.1000;0.4151;-1.5558;
956.4000;0.4127;-1.5583;
956.7000;0.4143;-1.5434;
957.0000;0.4086;-1.5484;
957.3000;0.4160;-1.5309;
957.6000;0.4168;-1.5334;
957.9000;0.4151;-1.5334;
958.2000;0.4168;-1.5284;
958.5000;0.4160;-1.5309;
958.8000;0.4160;-1.5234;
959.1000;0.4168;-1.5309;
959.4000;0.4160;-1.5284;
959.7000;0.4176;-1.5234;
960.0000;0.4168;-1.5259;
960.3000;0.4176;-1.5259;
960.6000;0.4151;-1.5434;
960.9000;0.4135;-1.5558;
961.2000;0.4151;-1.5583;
961.5000;0.4176;-1.5484;
961.8000;0.4160;-1.5509;
962.1000;0.4168;-1.5384;
962.4000;0.4111;-1.5459;
962.7000;0.4160;-1.5334;
963.0000;0.4151;-1.5334;
963.3000;0.4241;-1.5110;
963.6000;0.4151;-1.5309;
963.9000;0.4168;-1.5259;
964.2000;0.4160;-1.5384;
964.5000;0.4111;-1.5608;
964.8000;0.4135;-1.5533;
965.1000;0.4160;-1.5509;
965.4000;0.4151;-1.5459;
965.7000;0.4151;-1.5409;
966.0000;0.4127;-1.5509;
966.3000;0.4119;-1.5484;
966.6000;0.4151;-1.5359;
966.9000;0.4151;-1.5384;
967.2000;0.4127;-1.5533;
967.5000;0.4046;-1.5783;
967.8000;0.4151;-1.5459;
968.1000;0.4160;-1.5484;
968.4000;0.4160;-1.5558;
968.7000;0.4225;-1.5459;
969.0000;0.4217;-1.5434;
969.3000;0.4160;-1.5608;
969.6000;0.4143;-1.5583;
969.9000;0.4151;-1.5583;
970.2000;0.4168;-1.5608;
970.5000;0.4078;-1.5907;
970.8000;0.4143;-1.5583;
971.1000;0.4143;-1.5583;
971.4000;0.4151;-1.5583;
971.7000;0.4151;-1.5558;
972.0000;0.4151;-1.5509;
972.3000;0.4135;-1.5583;
972.6000;0.4143;-1.5583;
972.9000;0.4143;-1.5509;
973.2000;0.4151;-1.5558;
973.5000;0.4160;-1.5533;
973.8000;0.4143;-1.5533;
974.1000;0.4160;-1.5434;
974.4000;0.4160;-1.5459;
974.7000;0.4143;-1.5583;
975.0000;0.4135;-1.5633;
975.3000;0.4135;-1.5583;
975.6000;0.4135;-1.5633;
975.9000;0.4151;-1.5558;
976.2000;0.4160;-1.5484;
976.5000;0.4143;-1.5509;
976.8000;0.4143;-1.5459;
977.1000;0.4135;-1.5459;
977.4000;0.4135;-1.5459;
977.7000;0.4135;-1.5434;
978.0000;0.4143;-1.5384;
978.3000;0.4135;-1.5384;
978.6000;0.4160;-1.5409;
978.9000;0.4135;-1.5359;
979.2000;0.4127;-1.5334;
979.5000;0.4151;-1.5284;
979.8000;0.4135;-1.5434;
980.1000;0.4127;-1.5409;
980.4000;0.4135;-1.5434;
980.7000;0.4143;-1.5509;
981.0000;0.4151;-1.5509;
981.3000;0.4135;-1.5459;
981.6000;0.4168;-1.5259;
981.9000;0.4143;-1.5309;
982.2000;0.4160;-1.5409;
982.5000;0.4143;-1.5558;
982.8000;0.4143;-1.5583;
983.1000;0.4143;-1.5484;
983.4000;0.4127;-1.5459;
983.7000;0.4143;-1.5309;
984.0000;0.4143;-1.5284;
984.3000;0.4151;-1.5209;
984.6000;0.4168;-1.5234;
984.9000;0.4151;-1.5184;
985.2000;0.4103;-1.5309;
985.5000;0.4160;-1.5184;
985.8000;0.4086;-1.5334;
986.1000;0.4143;-1.5234;
986.4000;0.4143;-1.5284;
986.7000;0.4135;-1.5309;
987.0000;0.4143;-1.5259;
987.3000;0.4127;-1.5359;
987.6000;0.4127;-1.5384;
987.9000;0.4119;-1.5409;
988.2000;0.4135;-1.5234;
988.5000;0.4168;-1.5110;
988.8000;0.4111;-1.5159;
989.1000;0.4143;-1.5085;
989.4000;0.4127;-1.5159;
989.7000;0.4086;-1.5334;
990.0000;0.4119;-1.5409;
990.3000;0.4127;-1.5459;
990.6000;0.4143;-1.5484;
990.9000;0.4135;-1.5409;
991.2000;0.4135;-1.5384;
991.5000;0.4135;-1.5409;
991.8000;0.4143;-1.5384;
992.1000;0.4111;-1.5484;
992.4000;0.4143;-1.5409;
992.7000;0.4160;-1.5509;
993.0000;0.4192;-1.5484;
993.3000;0.4127;-1.5558;
993.6000;0.4127;-1.5509;
993.9000;0.4127;-1.5459;
994.2000;0.4127;-1.5533;
994.5000;0.4192;-1.5309;
994.8000;0.4151;-1.5484;
995.1000;0.4160;-1.5359;
995.4000;0.4151;-1.5359;
995.7000;0.4135;-1.5334;
996.0000;0.4143;-1.5309;
996.3000;0.4143;-1.5309;
996.6000;0.4151;-1.5284;
996.9000;0.4135;-1.5334;
997.2000;0.4168;-1.5234;
997.5000;0.4192;-1.5135;
997.8000;0.4135;-1.5334;
998.1000;0.4151;-1.5384;
998.4000;0.4143;-1.5459;
998.7000;0.4127;-1.5384;
999.0000;0.4111;-1.5384;
999.3000;0.4111;-1.5359;
999.6000;0.4135;-1.5359;
999.9000;0.4151;-1.5259;
1000.2000;0.4135;-1.5309;
1000.5000;0.4143;-1.5259;
1000.8000;0.4127;-1.5309;
1001.1000;0.4151;-1.5309;
1001.4000;0.4135;-1.5309;
1001.7000;0.4135;-1.5309;
1002.0000;0.4135;-1.5309;
1002.3000;0.4127;-1.5284;
1002.6000;0.4151;-1.5309;
1002.9000;0.4168;-1.5209;
1003.2000;0.4103;-1.5384;
1003.5000;0.4127;-1.5309;
1003.8000;0.4168;-1.5309;
1004.1000;0.4176;-1.5284;
1004.4000;0.4135;-1.5434;
1004.7000;0.4143;-1.5434;
1005.0000;0.4135;-1.5509;
1005.3000;0.4119;-1.5484;
1005.6000;0.4143;-1.5459;
1005.9000;0.4151;-1.5434;
1006.2000;0.4135;-1.5509;
1006.5000;0.4127;-1.5484;
1006.8000;0.4127;-1.5484;
1007.1000;0.4143;-1.5434;
1007.4000;0.4127;-1.5409;
1007.7000;0.4143;-1.5334;
1008.0000;0.4160;-1.5259;
1008.3000;0.4127;-1.5284;
1008.6000;0.4119;-1.5234;
1008.9000;0.4127;-1.5234;
1009.2000;0.4111;-1.5259;
1009.5000;0.4127;-1.5309;
1009.8000;0.4135;-1.5209;
1010.1000;0.4135;-1.5234;
1010.4000;0.4070;-1.5359;
1010.7000;0.4127;-1.5234;
1011.0000;0.4143;-1.5234;
1011.3000;0.4127;-1.5234;
1011.6000;0.4103;-1.5309;
1011.9000;0.4168;-1.5184;
1012.2000;0.4119;-1.5434;
1012.5000;0.4127;-1.5434;
1012.8000;0.4168;-1.5309;
1013.1000;0.4111;-1.5434;
1013.4000;0.4127;-1.5334;
1013.7000;0.4127;-1.5309;
1014.0000;0.4127;-1.5359;
1014.3000;0.4143;-1.5384;
1014.6000;0.4119;-1.5459;
1014.9000;0.4143;-1.5509;
1015.2000;0.4143;-1.5558;
1015.5000;0.4143;-1.5509;
1015.8000;0.4249;-1.5135;
1016.1000;0.4143;-1.5334;
1016.4000;0.4184;-1.5209;
1016.7000;0.4135;-1.5334;
1017.0000;0.4127;-1.5334;
1017.3000;0.4143;-1.5359;
1017.6000;0.4135;-1.5384;
1017.9000;0.4176;-1.5184;
1018.2000;0.4111;-1.5334;
1018.5000;0.4119;-1.5334;
1018.8000;0.4143;-1.5209;
1019.1000;0.4143;-1.5209;
1019.4000;0.4135;-1.5234;
1019.7000;0.4135;-1.5209;
1020.0000;0.4111;-1.5284;
1020.3000;0.4160;-1.5159;
1020.6000;0.4135;-1.5259;
1020.9000;0.4119;-1.5334;
1021.2000;0.4143;-1.5259;
1021.5000;0.4127;-1.5309;
1021.8000;0.4119;-1.5284;
1022.1000;0.4111;-1.5234;
1022.4000;0.4103;-1.5259;
1022.7000;0.4176;-1.5085;
1023.0000;0.4119;-1.5209;
1023.3000;0.4037;-1.5459;
1023.6000;0.4119;-1.5334;
1023.9000;0.4119;-1.5309;
1024.2000;0.4111;-1.5359;
1024.5000;0.4103;-1.5334;
1024.8000;0.4225;-1.5135;
1025.1000;0.4119;-1.5459;
1025.4000;0.4046;-1.5683;
1025.7000;0.4103;-1.5533;
1026.0000;0.4135;-1.5434;
1026.3000;0.4135;-1.5459;
1026.6000;0.4111;-1.5558;
1026.9000;0.4111;-1.5658;
1027.2000;0.4127;-1.5658;
1027.5000;0.4200;-1.5359;
1027.8000;0.4111;-1.5533;
1028.1000;0.4119;-1.5509;
1028.4000;0.4135;-1.5583;
1028.7000;0.4119;-1.5533;
1029.0000;0.4135;-1.5359;
1029.3000;0.4127;-1.5434;
1029.6000;0.4127;-1.5484;
1029.9000;0.4119;-1.5558;
1030.2000;0.4127;-1.5484;
1030.5000;0.4111;-1.5533;
1030.8000;0.4119;-1.5509;
1031.1000;0.4135;-1.5384;
1031.4000;0.4086;-1.5409;
1031.7000;0.4127;-1.5309;
1032.0000;0.4119;-1.5334;
1032.3000;0.4151;-1.5359;
1032.6000;0.4111;-1.5583;
1032.9000;0.4127;-1.5583;
1033.2000;0.4127;-1.5583;
1033.5000;0.4070;-1.5683;
1033.8000;0.4103;-1.5484;
1034.1000;0.4111;-1.5384;
1034.4000;0.4111;-1.5334;
1034.7000;0.4160;-1.5259;
1035.0000;0.4119;-1.5359;
1035.3000;0.4111;-1.5409;
1035.6000;0.4127;-1.5434;
1035.9000;0.4127;-1.5384;
1036.2000;0.4135;-1.5384;
1036.5000;0.4127;-1.5359;
1036.8000;0.4127;-1.5359;
1037.1000;0.4103;-1.5359;
1037.4000;0.4103;-1.5334;
1037.7000;0.4111;-1.5284;
1038.0000;0.4078;-1.5359;
1038.3000;0.4086;-1.5434;
1038.6000;0.4111;-1.5309;
1038.9000;0.4111;-1.5434;
1039.2000;0.4127;-1.5359;
1039.5000;0.4037;-1.5608;
1039.8000;0.4127;-1.5359;
1040.1000;0.4054;-1.5583;
1040.4000;0.4111;-1.5509;
1040.7000;0.4127;-1.5558;
1041.0000;0.4111;-1.5558;
1041.3000;0.4160;-1.5434;
1041.6000;0.4135;-1.5583;
1041.9000;0.4127;-1.5633;
1042.2000;0.4151;-1.5658;
1042.5000;0.4127;-1.5658;
1042.8000;0.4111;-1.5708;
1043.1000;0.4143;-1.5558;
1043.4000;0.4127;-1.5583;
1043.7000;0.4086;-1.5633;
1044.0000;0.4094;-1.5583;
1044.3000;0.4119;-1.5459;
1044.6000;0.4119;-1.5384;
1044.9000;0.4111;-1.5409;
1045.2000;0.4094;-1.5434;
1045.5000;0.4094;-1.5484;
1045.8000;0.4103;-1.5558;
1046.1000;0.4127;-1.5533;
1046.4000;0.4103;-1.5533;
1046.7000;0.4119;-1.5558;
1047.0000;0.4160;-1.5484;
1047.3000;0.4103;-1.5509;
1047.6000;0.4111;-1.5533;
1047.9000;0.4103;-1.5558;
1048.2000;0.4119;-1.5409;
1048.5000;0.4127;-1.5334;
1048.8000;0.4103;-1.5434;
1049.1000;0.4111;-1.5359;
1049.4000;0.4086;-1.5434;
1049.7000;0.4111;-1.5359;
1050.0000;0.4127;-1.5334;
1050.3000;0.4111;-1.5384;
1050.6000;0.4103;-1.5409;
1050.9000;0.4160;-1.5309;
1051.2000;0.4127;-1.5334;
1051.5000;0.4103;-1.5384;
1051.8000;0.4135;-1.5409;
1052.1000;0.4127;-1.5459;
1052.4000;0.4103;-1.5533;
1052.7000;0.4143;-1.5509;
1053.0000;0.4127;-1.5459;
1053.3000;0.4127;-1.5459;
1053.6000;0.4127;-1.5359;
1053.9000;0.4127;-1.5284;
1054.2000;0.4119;-1.5359;
1054.5000;0.4127;-1.5384;
1054.8000;0.4094;-1.5434;
1055.1000;0.4111;-1.5558;
1055.4000;0.4119;-1.5633;
1055.7000;0.4119;-1.5633;
1056.0000;0.4127;-1.5583;
1056.3000;0.4111;-1.5583;
1056.6000;0.4135;-1.5509;
1056.9000;0.4111;-1.5509;
1057.2000;0.4054;-1.5683;
1057.5000;0.4119;-1.5484;
1057.8000;0.4103;-1.5533;
1058.1000;0.4094;-1.5509;
1058.4000;0.4103;-1.5459;
1058.7000;0.4103;-1.5409;
1059.0000;0.4086;-1.5484;
1059.3000;0.4103;-1.5409;
1059.6000;0.4127;-1.5334;
1059.9000;0.4127;-1.5284;
1060.2000;0.4078;-1.5384;
1060.5000;0.4127;-1.5409;
1060.8000;0.4111;-1.5533;
1061.1000;0.4143;-1.5509;
1061.4000;0.4127;-1.5459;
1061.7000;0.4143;-1.5359;
1062.0000;0.4176;-1.5184;
1062.3000;0.4054;-1.5509;
1062.6000;0.4046;-1.5533;
1062.9000;0.4103;-1.5384;
1063.2000;0.4070;-1.5533;
1063.5000;0.4054;-1.5533;
1063.8000;0.4111;-1.5409;
1064.1000;0.4119;-1.5484;
1064.4000;0.4111;-1.5558;
1064.7000;0.4103;-1.5633;
1065.0000;0.4119;-1.5533;
1065.3000;0.4127;-1.5509;
1065.6000;0.4119;-1.5459;
1065.9000;0.4119;-1.5484;
1066.2000;0.4119;-1.5484;
1066.5000;0.4119;-1.5509;
1066.8000;0.4111;-1.5484;
1067.1000;0.4103;-1.5484;
1067.4000;0.4135;-1.5509;
1067.7000;0.4111;-1.5533;
1068.0000;0.4119;-1.5533;
1068.3000;0.4103;-1.5633;
1068.6000;0.4111;-1.5608;
1068.9000;0.4127;-1.5583;
1069.2000;0.4127;-1.5683;
1069.5000;0.4103;-1.5708;
1069.8000;0.4103;-1.5683;
1070.1000;0.4046;-1.5758;
1070.4000;0.4111;-1.5583;
1070.7000;0.4103;-1.5633;
1071.0000;0.4111;-1.5583;
1071.3000;0.4111;-1.5633;
1071.6000;0.4119;-1.5608;
1071.9000;0.4094;-1.5733;
1072.2000;0.4127;-1.5558;
1072.5000;0.4103;-1.5558;
1072.8000;0.4160;-1.5309;
1073.1000;0.4005;-1.5583;
1073.4000;0.4078;-1.5384;
1073.7000;0.4103;-1.5409;
1074.0000;0.4135;-1.5359;
1074.3000;0.4103;-1.5459;
1074.6000;0.4111;-1.5484;
1074.9000;0.4119;-1.5384;
1075.2000;0.4119;-1.5359;
1075.5000;0.4127;-1.5409;
1075.8000;0.4111;-1.5459;
1076.1000;0.4127;-1.5359;
1076.4000;0.4200;-1.5259;
1076.7000;0.4135;-1.5509;
1077.0000;0.4135;-1.5484;
1077.3000;0.4127;-1.5409;
1077.6000;0.4176;-1.5359;
1077.9000;0.4111;-1.5558;
1078.2000;0.4078;-1.5608;
1078.5000;0.4086;-1.5558;
1078.8000;0.4111;-1.5533;
1079.1000;0.4119;-1.5583;
1079.4000;0.4119;-1.5509;
1079.7000;0.4127;-1.5409;
1080.0000;0.4103;-1.5558;
1080.3000;0.4135;-1.5484;
1080.6000;0.4111;-1.5533;
1080.9000;0.4135;-1.5409;
1081.2000;0.4062;-1.5583;
1081.5000;0.4119;-1.5384;
1081.8000;0.4111;-1.5434;
1082.1000;0.4094;-1.5459;
1082.4000;0.4086;-1.5384;
1082.7000;0.4086;-1.5409;
1083.0000;0.4078;-1.5384;
1083.3000;0.4111;-1.5359;
1083.6000;0.4103;-1.5284;
1083.9000;0.4086;-1.5209;
1084.2000;0.4103;-1.5110;
1084.5000;0.4135;-1.5184;
1084.8000;0.4021;-1.5509;
1085.1000;0.4094;-1.5359;
1085.4000;0.4103;-1.5334;
1085.7000;0.4086;-1.5384;
1086.0000;0.4111;-1.5334;
1086.3000;0.4086;-1.5384;
1086.6000;0.4103;-1.5284;
1086.9000;0.4103;-1.5309;
1087.2000;0.4094;-1.5234;
1087.5000;0.4103;-1.5135;
1087.8000;0.4127;-1.5135;
1088.1000;0.4119;-1.5184;
1088.4000;0.4094;-1.5309;
1088.7000;0.4103;-1.5309;
1089.0000;0.4200;-1.5035;
1089.3000;0.4127;-1.5259;
1089.6000;0.4111;-1.5334;
1089.9000;0.4103;-1.5334;
1090.2000;0.4119;-1.5484;
1090.5000;0.4111;-1.5459;
1090.8000;0.4111;-1.5484;
1091.1000;0.4103;-1.5509;
1091.4000;0.4078;-1.5583;
1091.7000;0.4103;-1.5533;
1092.0000;0.4103;-1.5533;
1092.3000;0.4086;-1.5608;
1092.6000;0.4094;-1.5533;
1092.9000;0.4094;-1.5509;
1093.2000;0.4078;-1.5583;
1093.5000;0.4103;-1.5533;
1093.8000;0.4094;-1.5583;
1094.1000;0.4103;-1.5533;
1094.4000;0.4143;-1.5459;
1094.7000;0.4111;-1.5533;
1095.0000;0.4094;-1.5484;
1095.3000;0.4086;-1.5409;
1095.6000;0.4103;-1.5334;
1095.9000;0.4086;-1.5284;
1096.2000;0.4103;-1.5184;
1096.5000;0.4103;-1.5259;
1096.8000;0.4103;-1.5334;
1097.1000;0.4103;-1.5334;
1097.4000;0.4103;-1.5309;
1097.7000;0.4151;-1.5184;
1098.0000;0.4119;-1.5334;
1098.3000;0.4127;-1.5359;
1098.6000;0.4103;-1.5484;
1098.9000;0.4078;-1.5509;
1099.2000;0.4062;-1.5509;
1099.5000;0.4119;-1.5359;
1099.8000;0.4078;-1.5384;
1100.1000;0.4103;-1.5334;
1100.4000;0.4062;-1.5409;
1100.7000;0.4103;-1.5309;
1101.0000;0.4103;-1.5334;
1101.3000;0.4062;-1.5484;
1101.6000;0.4046;-1.5558;
1101.9000;0.4103;-1.5359;
1102.2000;0.4103;-1.5384;
1102.5000;0.4005;-1.5658;
1102.8000;0.4103;-1.5359;
1103.1000;0.4094;-1.5359;
1103.4000;0.4086;-1.5309;
1103.7000;0.4094;-1.5284;
1104.0000;0.4078;-1.5334;
1104.3000;0.4103;-1.5284;
1104.6000;0.4119;-1.5284;
1104.9000;0.4103;-1.5234;
1105.2000;0.4078;-1.5359;
1105.5000;0.4094;-1.5359;
1105.8000;0.4111;-1.5334;
1106.1000;0.4103;-1.5409;
1106.4000;0.4103;-1.5434;
1106.7000;0.4078;-1.5509;
1107.0000;0.4021;-1.5633;
1107.3000;0.4111;-1.5384;
1107.6000;0.4037;-1.5583;
1107.9000;0.4103;-1.5434;
1108.2000;0.4078;-1.5509;
1108.5000;0.4103;-1.5484;
1108.8000;0.4151;-1.5359;
1109.1000;0.4119;-1.5484;
1109.4000;0.4111;-1.5484;
1109.7000;0.4119;-1.5409;
1110.0000;0.4094;-1.5459;
1110.3000;0.4111;-1.5359;
1110.6000;0.4094;-1.5309;
1110.9000;0.4103;-1.5334;
1111.2000;0.4070;-1.5459;
1111.5000;0.4103;-1.5359;
1111.8000;0.4103;-1.5409;
1112.1000;0.4103;-1.5484;
1112.4000;0.4094;-1.5459;
1112.7000;0.4094;-1.5434;
1113.0000;0.4078;-1.5459;
1113.3000;0.4086;-1.5409;
1113.6000;0.4103;-1.5284;
1113.9000;0.4103;-1.5284;
1114.2000;0.4143;-1.5209;
1114.5000;0.4111;-1.5434;
1114.8000;0.4103;-1.5509;
1115.1000;0.4111;-1.5434;
1115.4000;0.4103;-1.5509;
1115.7000;0.4086;-1.5533;
1116.0000;0.4111;-1.5484;
1116.3000;0.4094;-1.5434;
1116.6000;0.4103;-1.5459;
1116.9000;0.4094;-1.5459;
1117.2000;0.4094;-1.5484;
1117.5000;0.4094;-1.5484;
1117.8000;0.4094;-1.5359;
1118.1000;0.4054;-1.5409;
1118.4000;0.4111;-1.5284;
1118.7000;0.4103;-1.5259;
1119.0000;0.4119;-1.5284;
1119.3000;0.4127;-1.5334;
1119.6000;0.4094;-1.5484;
1119.9000;0.4103;-1.5459;
1120.2000;0.4135;-1.5334;
1120.5000;0.4103;-1.5384;
1120.8000;0.4094;-1.5359;
1121.1000;0.4184;-1.5234;
1121.4000;0.4111;-1.5484;
1121.7000;0.4094;-1.5509;
1122.0000;0.4094;-1.5558;
1122.3000;0.4127;-1.5459;
1122.6000;0.4094;-1.5409;
1122.9000;0.4103;-1.5334;
1123.2000;0.4111;-1.5334;
1123.5000;0.4119;-1.5284;
1123.8000;0.4111;-1.5259;
1124.1000;0.4103;-1.5334;
1124.4000;0.4119;-1.5359;
1124.7000;0.4103;-1.5409;
1125.0000;0.4094;-1.5509;
1125.3000;0.4111;-1.5484;
1125.6000;0.4094;-1.5633;
1125.9000;0.4086;-1.5658;
1126.2000;0.4086;-1.5658;
1126.5000;0.4103;-1.5608;
1126.8000;0.4094;-1.5533;
1127.1000;0.4062;-1.5583;
1127.4000;0.4119;-1.5509;
1127.7000;0.4103;-1.5583;
1128.0000;0.4103;-1.5558;
1128.3000;0.4086;-1.5608;
1128.6000;0.4086;-1.5658;
1128.9000;0.4086;-1.5533;
1129.2000;0.4103;-1.5558;
1129.5000;0.4094;-1.5558;
1129.8000;0.4046;-1.5708;
1130.1000;0.4078;-1.5633;
1130.4000;0.4070;-1.5608;
1130.7000;0.4054;-1.5633;
1131.0000;0.3997;-1.5783;
1131.3000;0.4086;-1.5509;
1131.6000;0.4127;-1.5459;
1131.9000;0.4046;-1.5708;
1132.2000;0.4062;-1.5683;
1132.5000;0.4103;-1.5633;
1132.8000;0.4111;-1.5583;
1133.1000;0.4086;-1.5608;
1133.4000;0.4062;-1.5484;
1133.7000;0.4103;-1.5509;
1134.0000;0.4111;-1.5459;
1134.3000;0.4078;-1.5533;
1134.6000;0.4094;-1.5459;
1134.9000;0.4078;-1.5558;
1135.2000;0.4086;-1.5509;
1135.5000;0.4127;-1.5359;
1135.8000;0.4086;-1.5409;
1136.1000;0.4062;-1.5459;
1136.4000;0.4094;-1.5484;
1136.7000;0.4094;-1.5509;
1137.0000;0.4151;-1.5434;
1137.3000;0.4086;-1.5583;
1137.6000;0.4086;-1.5608;
1137.9000;0.4111;-1.5608;
1138.2000;0.4111;-1.5608;
1138.5000;0.4103;-1.5558;
1138.8000;0.4094;-1.5608;
1139.1000;0.4086;-1.5608;
1139.4000;0.4086;-1.5633;
1139.7000;0.4103;-1.5533;
1140.0000;0.4086;-1.5583;
1140.3000;0.4062;-1.5658;
1140.6000;0.4127;-1.5459;
1140.9000;0.4086;-1.5409;
1141.2000;0.4086;-1.5459;
1141.5000;0.4094;-1.5434;
1141.8000;0.4086;-1.5409;
1142.1000;0.4094;-1.5459;
1142.4000;0.4086;-1.5533;
1142.7000;0.4086;-1.5509;
1143.0000;0.4119;-1.5434;
1143.3000;0.4078;-1.5533;
1143.6000;0.4094;-1.5533;
1143.9000;0.4086;-1.5434;
1144.2000;0.4094;-1.5509;
1144.5000;0.4094;-1.5359;
1144.8000;0.4103;-1.5409;
1145.1000;0.4119;-1.5384;
1145.4000;0.4111;-1.5484;
1145.7000;0.4103;-1.5583;
1146.0000;0.4086;-1.5758;
1146.3000;0.4094;-1.5683;
1146.6000;0.4086;-1.5758;
1146.9000;0.4119;-1.5833;
1147.2000;0.4029;-1.5982;
1147.5000;0.4103;-1.5808;
1147.8000;0.4094;-1.5907;
1148.1000;0.4103;-1.5833;
1148.4000;0.4078;-1.5858;
1148.7000;0.4086;-1.5808;
1149.0000;0.4103;-1.5633;
1149.3000;0.4103;-1.5583;
1149.6000;0.4094;-1.5658;
1149.9000;0.4119;-1.5509;
1150.2000;0.4094;-1.5708;
1150.5000;0.4103;-1.5558;
1150.8000;0.4119;-1.5434;
1151.1000;0.4103;-1.5533;
1151.4000;0.4143;-1.5384;
1151.7000;0.4103;-1.5359;
1152.0000;0.4127;-1.5184;
1152.3000;0.4111;-1.5359;
1152.6000;0.4103;-1.5359;
1152.9000;0.4078;-1.5434;
1153.2000;0.4168;-1.5209;
1153.5000;0.4037;-1.5558;
1153.8000;0.4086;-1.5558;
1154.1000;0.4054;-1.5683;
1154.4000;0.4070;-1.5558;
1154.7000;0.4111;-1.5509;
1155.0000;0.4127;-1.5459;
1155.3000;0.4062;-1.5583;
1155.6000;0.4094;-1.5459;
1155.9000;0.4070;-1.5484;
1156.2000;0.4062;-1.5533;
1156.5000;0.4054;-1.5533;
1156.8000;0.4070;-1.5359;
1157.1000;0.4135;-1.5259;
1157.4000;0.4103;-1.5484;
1157.7000;0.3980;-1.5907;
1158.0000;0.4078;-1.5708;
1158.3000;0.4094;-1.5509;
1158.6000;0.4094;-1.5384;
1158.9000;0.4111;-1.5434;
1159.2000;0.4086;-1.5484;
1159.5000;0.4070;-1.5459;
1159.8000;0.4078;-1.5434;
1160.1000;0.4070;-1.5509;
1160.4000;0.4070;-1.5434;
1160.7000;0.4086;-1.5409;
1161.0000;0.4078;-1.5533;
1161.3000;0.4160;-1.5509;
1161.6000;0.4078;-1.5733;
1161.9000;0.4078;-1.5583;
1162.2000;0.4037;-1.5683;
1162.5000;0.4094;-1.5658;
1162.8000;0.4086;-1.5633;
1163.1000;0.4070;-1.5708;
1163.4000;0.4086;-1.5733;
1163.7000;0.4086;-1.5733;
1164.0000;0.4094;-1.5608;
1164.3000;0.4094;-1.5633;
1164.6000;0.4086;-1.5658;
1164.9000;0.4094;-1.5658;
1165.2000;0.4086;-1.5558;
1165.5000;0.4062;-1.5533;
1165.8000;0.4078;-1.5484;
1166.1000;0.4078;-1.5459;
1166.4000;0.4062;-1.5434;
1166.7000;0.4094;-1.5434;
1167.0000;0.4070;-1.5409;
1167.3000;0.4078;-1.5334;
1167.6000;0.4086;-1.5409;
1167.9000;0.4094;-1.5384;
1168.2000;0.4078;-1.5409;
1168.5000;0.4062;-1.5434;
1168.8000;0.4086;-1.5409;
1169.1000;0.4078;-1.5434;
1169.4000;0.4103;-1.5334;
1169.7000;0.4103;-1.5484;
1170.0000;0.4086;-1.5459;
1170.3000;0.4094;-1.5434;
1170.6000;0.4078;-1.5533;
1170.9000;0.4103;-1.5484;
1171.2000;0.4151;-1.5384;
1171.5000;0.4046;-1.5733;
1171.8000;0.4103;-1.5658;
1172.1000;0.4103;-1.5633;
1172.4000;0.4094;-1.5683;
1172.7000;0.4103;-1.5708;
1173.0000;0.4135;-1.5608;
1173.3000;0.4127;-1.5683;
1173.6000;0.4103;-1.5608;
1173.9000;0.4078;-1.5708;
1174.2000;0.4103;-1.5633;
1174.5000;0.4094;-1.5608;
1174.8000;0.4119;-1.5558;
1175.1000;0.4103;-1.5509;
1175.4000;0.4070;-1.5409;
1175.7000;0.4037;-1.5558;
1176.0000;0.4086;-1.5434;
1176.3000;0.4111;-1.5384;
1176.6000;0.4086;-1.5459;
1176.9000;0.4086;-1.5459;
1177.2000;0.4094;-1.5384;
1177.5000;0.4135;-1.5259;
1177.8000;0.4070;-1.5459;
1178.1000;0.4078;-1.5583;
1178.4000;0.4086;-1.5608;
1178.7000;0.4119;-1.5459;
1179.0000;0.4168;-1.5359;
1179.3000;0.4078;-1.5608;
1179.6000;0.4094;-1.5658;
1179.9000;0.4103;-1.5683;
1180.2000;0.4070;-1.5708;
1180.5000;0.4078;-1.5708;
1180.8000;0.4094;-1.5708;
1181.1000;0.4070;-1.5583;
1181.4000;0.4143;-1.5434;
1181.7000;0.4086;-1.5434;
1182.0000;0.4078;-1.5459;
1182.3000;0.4086;-1.5334;
1182.6000;0.4078;-1.5409;
1182.9000;0.4086;-1.5533;
1183.2000;0.4094;-1.5434;
1183.5000;0.4078;-1.5459;
1183.8000;0.4078;-1.5484;
1184.1000;0.4111;-1.5484;
1184.4000;0.4070;-1.5583;
1184.7000;0.4070;-1.5558;
1185.0000;0.4086;-1.5459;
1185.3000;0.4094;-1.5459;
1185.6000;0.4103;-1.5509;
1185.9000;0.4086;-1.5484;
1186.2000;0.4103;-1.5484;
1186.5000;0.4103;-1.5434;
1186.8000;0.4103;-1.5459;
1187.1000;0.4151;-1.5384;
1187.4000;0.4127;-1.5459;
1187.7000;0.4086;-1.5583;
1188.0000;0.4103;-1.5583;
1188.3000;0.4103;-1.5459;
1188.6000;0.4054;-1.5633;
1188.9000;0.4094;-1.5583;
1189.2000;0.4029;-1.5683;
1189.5000;0.4094;-1.5484;
1189.8000;0.4078;-1.5558;
1190.1000;0.4086;-1.5434;
1190.4000;0.4086;-1.5434;
1190.7000;0.4086;-1.5409;
1191.0000;0.4103;-1.5359;
1191.3000;0.4046;-1.5509;
1191.6000;0.4094;-1.5359;
1191.9000;0.4111;-1.5459;
1192.2000;0.4127;-1.5434;
1192.5000;0.4021;-1.5683;
1192.8000;0.4070;-1.5533;
1193.1000;0.4054;-1.5583;
1193.4000;0.4078;-1.5509;
1193.7000;0.4086;-1.5509;
1194.0000;0.4094;-1.5533;
1194.3000;0.4070;-1.5658;
1194.6000;0.4103;-1.5633;
1194.9000;0.4070;-1.5608;
1195.2000;0.4037;-1.5583;
1195.5000;0.4094;-1.5484;
1195.8000;0.4094;-1.5509;
1196.1000;0.4070;-1.5658;
1196.4000;0.4086;-1.5583;
1196.7000;0.4086;-1.5558;
1197.0000;0.4103;-1.5583;
1197.3000;0.4037;-1.5683;
1197.6000;0.4094;-1.5558;
1197.9000;0.4046;-1.5708;
1198.2000;0.4094;-1.5608;
1198.5000;0.4037;-1.5733;
1198.8000;0.4103;-1.5558;
1199.1000;0.4054;-1.5683;
1199.4000;0.4094;-1.5608;
1199.7000;0.4103;-1.5608;
1200.0000;0.4184;-1.5359;
1200.3000;0.4094;-1.5633;
1200.6000;0.4103;-1.5558;
1200.9000;0.4078;-1.5533;
1201.2000;0.4103;-1.5409;
1201.5000;0.4094;-1.5384;
1201.8000;0.4094;-1.5434;
1202.1000;0.4078;-1.5533;
1202.4000;0.4078;-1.5484;
1202.7000;0.4094;-1.5409;
1203.0000;0.4119;-1.5459;
1203.3000;0.4094;-1.5558;
1203.6000;0.4070;-1.5608;
1203.9000;0.4078;-1.5533;
1204.2000;0.4046;-1.5558;
1204.5000;0.4078;-1.5583;
1204.8000;0.4062;-1.5658;
1205.1000;0.4086;-1.5583;
1205.4000;0.4103;-1.5583;
1205.7000;0.4094;-1.5558;
1206.0000;0.4094;-1.5658;
1206.3000;0.4078;-1.5658;
1206.6000;0.4078;-1.5733;
1206.9000;0.4086;-1.5733;
1207.2000;0.4070;-1.5783;
1207.5000;0.4078;-1.5758;
1207.8000;0.4078;-1.5708;
1208.1000;0.4094;-1.5708;
1208.4000;0.4086;-1.5683;
1208.7000;0.4086;-1.5708;
1209.0000;0.4094;-1.5733;
1209.3000;0.4070;-1.5733;
1209.6000;0.4103;-1.5758;
1209.9000;0.4086;-1.5783;
1210.2000;0.4143;-1.5583;
1210.5000;0.4086;-1.5708;
1210.8000;0.4094;-1.5758;
1211.1000;0.4135;-1.5733;
1211.4000;0.4070;-1.5833;
1211.7000;0.4013;-1.5883;
1212.0000;0.4086;-1.5658;
1212.3000;0.4103;-1.5608;
1212.6000;0.4086;-1.5633;
1212.9000;0.4086;-1.5633;
1213.2000;0.4103;-1.5708;
1213.5000;0.4094;-1.5708;
1213.8000;0.4078;-1.5658;
1214.1000;0.4070;-1.5708;
1214.4000;0.4037;-1.5808;
1214.7000;0.4086;-1.5633;
1215.0000;0.4094;-1.5509;
1215.3000;0.4127;-1.5384;
1215.6000;0.4078;-1.5509;
1215.9000;0.4086;-1.5533;
1216.2000;0.4094;-1.5484;
1216.5000;0.4094;-1.5533;
1216.8000;0.4078;-1.5509;
1217.1000;0.4078;-1.5509;
1217.4000;0.4094;-1.5434;
1217.7000;0.4094;-1.5384;
1218.0000;0.4111;-1.5359;
1218.3000;0.4070;-1.5359;
1218.6000;0.4013;-1.5434;
1218.9000;0.4111;-1.5135;
1219.2000;0.4078;-1.5259;
1219.5000;0.4078;-1.5259;
1219.8000;0.4078;-1.5259;
1220.1000;0.4111;-1.5209;
1220.4000;0.4086;-1.5309;
1220.7000;0.4086;-1.5259;
1221.0000;0.4119;-1.5234;
1221.3000;0.4086;-1.5309;
1221.6000;0.4111;-1.5409;
1221.9000;0.4094;-1.5533;
1222.2000;0.4103;-1.5533;
1222.5000;0.4151;-1.5359;
1222.8000;0.4103;-1.5409;
1223.1000;0.4046;-1.5484;
1223.4000;0.4103;-1.5434;
1223.7000;0.4094;-1.5459;
1224.0000;0.4037;-1.5608;
1224.3000;0.4078;-1.5533;
1224.6000;0.4086;-1.5583;
1224.9000;0.4078;-1.5558;
1225.2000;0.4094;-1.5509;
1225.5000;0.4029;-1.5733;
1225.8000;0.4054;-1.5633;
1226.1000;0.4119;-1.5409;
1226.4000;0.4103;-1.5409;
1226.7000;0.4086;-1.5384;
1227.0000;0.4184;-1.5035;
1227.3000;0.4094;-1.5334;
1227.6000;0.4094;-1.5359;
1227.9000;0.4078;-1.5459;
1228.2000;0.4094;-1.5384;
1228.5000;0.4086;-1.5359;
1228.8000;0.4094;-1.5334;
1229.1000;0.4094;-1.5259;
1229.4000;0.4086;-1.5309;
1229.7000;0.4062;-1.5409;
1230.0000;0.4037;-1.5484;
1230.3000;0.4119;-1.5309;
1230.6000;0.4078;-1.5434;
1230.9000;0.4184;-1.5259;
1231.2000;0.4021;-1.5558;
1231.5000;0.4070;-1.5334;
1231.8000;0.4078;-1.5384;
1232.1000;0.4062;-1.5409;
1232.4000;0.4094;-1.5334;
1232.7000;0.4086;-1.5384;
1233.0000;0.4078;-1.5434;
1233.3000;0.4078;-1.5409;
1233.6000;0.4086;-1.5334;
1233.9000;0.4094;-1.5259;
1234.2000;0.4094;-1.5209;
1234.5000;0.4078;-1.5309;
1234.8000;0.4103;-1.5259;
1235.1000;0.4127;-1.5259;
1235.4000;0.4086;-1.5334;
1235.7000;0.4078;-1.5384;
1236.0000;0.4078;-1.5459;
1236.3000;0.4078;-1.5509;
1236.6000;0.4078;-1.5583;
1236.9000;0.4094;-1.5509;
1237.2000;0.4086;-1.5384;
1237.5000;0.4103;-1.5209;
1237.8000;0.4078;-1.5259;
1238.1000;0.4062;-1.5384;
1238.4000;0.4078;-1.5334;
1238.7000;0.4070;-1.5259;
1239.0000;0.4078;-1.5259;
1239.3000;0.4070;-1.5309;
1239.6000;0.4103;-1.5309;
1239.9000;0.4078;-1.5384;
1240.2000;0.4046;-1.5484;
1240.5000;0.4062;-1.5558;
1240.8000;0.4078;-1.5509;
1241.1000;0.4037;-1.5633;
1241.4000;0.4094;-1.5533;
1241.7000;0.4086;-1.5533;
1242.0000;0.4062;-1.5583;
1242.3000;0.4111;-1.5384;
1242.6000;0.4062;-1.5533;
1242.9000;0.4078;-1.5484;
1243.2000;0.4078;-1.5409;
1243.5000;0.4094;-1.5334;
1243.8000;0.4094;-1.5309;
1244.1000;0.4078;-1.5359;
1244.4000;0.4054;-1.5359;
1244.7000;0.4062;-1.5284;
1245.0000;0.4135;-1.5135;
1245.3000;0.4103;-1.5284;
1245.6000;0.4062;-1.5459;
1245.9000;0.4103;-1.5384;
1246.2000;0.4078;-1.5309;
1246.5000;0.4070;-1.5309;
1246.8000;0.4086;-1.5259;
1247.1000;0.4062;-1.5259;
1247.4000;0.4054;-1.5384;
1247.7000;0.4103;-1.5234;
1248.0000;0.4127;-1.5159;
1248.3000;0.4037;-1.5409;
1248.6000;0.4127;-1.5209;
1248.9000;0.4078;-1.5359;
1249.2000;0.4086;-1.5334;
1249.5000;0.4054;-1.5459;
1249.8000;0.4046;-1.5484;
1250.1000;0.4086;-1.5409;
1250.4000;0.4094;-1.5434;
1250.7000;0.4070;-1.5459;
1251.0000;0.4086;-1.5434;
1251.3000;0.4086;-1.5409;
1251.6000;0.4078;-1.5259;
1251.9000;0.4111;-1.5184;
1252.2000;0.4111;-1.5259;
1252.5000;0.4070;-1.5359;
1252.8000;0.4086;-1.5309;
1253.1000;0.4086;-1.5309;
1253.4000;0.4094;-1.5284;
1253.7000;0.4135;-1.5135;
1254.0000;0.4046;-1.5384;
1254.3000;0.4111;-1.5259;
1254.6000;0.4103;-1.5334;
1254.9000;0.4151;-1.5234;
1255.2000;0.4078;-1.5434;
1255.5000;0.4086;-1.5384;
1255.8000;0.4062;-1.5384;
1256.1000;0.4062;-1.5384;
1256.4000;0.4094;-1.5309;
1256.7000;0.4070;-1.5334;
1257.0000;0.4070;-1.5284;
1257.3000;0.4078;-1.5284;
1257.6000;0.4078;-1.5384;
1257.9000;0.4054;-1.5334;
1258.2000;0.4086;-1.5309;
1258.5000;0.4078;-1.5384;
1258.8000;0.4143;-1.5209;
1259.1000;0.4086;-1.5359;
1259.4000;0.4103;-1.5334;
1259.7000;0.4078;-1.5284;
1260.0000;0.4086;-1.5184;
1260.3000;0.4086;-1.5184;
1260.6000;0.4086;-1.5234;
1260.9000;0.4078;-1.5259;
1261.2000;0.4078;-1.5284;
1261.5000;0.4078;-1.5259;
1261.8000;0.4037;-1.5334;
1262.1000;0.4070;-1.5284;
1262.4000;0.4078;-1.5284;
1262.7000;0.4078;-1.5259;
1263.0000;0.4070;-1.5309;
1263.3000;0.4070;-1.5284;
1263.6000;0.4111;-1.5259;
1263.9000;0.4070;-1.5459;
1264.2000;0.4086;-1.5484;
1264.5000;0.4062;-1.5533;
1264.8000;0.4062;-1.5558;
1265.1000;0.4070;-1.5509;
1265.4000;0.4062;-1.5658;
1265.7000;0.4094;-1.5509;
1266.0000;0.4086;-1.5558;
1266.3000;0.4070;-1.5658;
1266.6000;0.4094;-1.5583;
1266.9000;0.4103;-1.5558;
1267.2000;0.4078;-1.5633;
1267.5000;0.4078;-1.5533;
1267.8000;0.4111;-1.5459;
1268.1000;0.4103;-1.5533;
1268.4000;0.4094;-1.5533;
1268.7000;0.4094;-1.5533;
1269.0000;0.4078;-1.5608;
1269.3000;0.4103;-1.5533;
1269.6000;0.4094;-1.5583;
1269.9000;0.4086;-1.5558;
1270.2000;0.4094;-1.5658;
1270.5000;0.4143;-1.5434;
1270.8000;0.4094;-1.5583;
1271.1000;0.4135;-1.5484;
1271.4000;0.4078;-1.5558;
1271.7000;0.4070;-1.5683;
1272.0000;0.4086;-1.5608;
1272.3000;0.4029;-1.5633;
1272.6000;0.4078;-1.5484;
1272.9000;0.4086;-1.5509;
1273.2000;0.3989;-1.5683;
1273.5000;0.4176;-1.5309;
1273.8000;0.4078;-1.5608;
1274.1000;0.4054;-1.5583;
1274.4000;0.4078;-1.5558;
1274.7000;0.4078;-1.5608;
1275.0000;0.4078;-1.5658;
1275.3000;0.4086;-1.5583;
1275.6000;0.4046;-1.5708;
1275.9000;0.4086;-1.5558;
1276.2000;0.4094;-1.5633;
1276.5000;0.4094;-1.5733;
1276.8000;0.4094;-1.5758;
1277.1000;0.4086;-1.5733;
1277.4000;0.4086;-1.5683;
1277.7000;0.4070;-1.5683;
1278.0000;0.4086;-1.5558;
1278.3000;0.4086;-1.5409;
1278.6000;0.4086;-1.5309;
1278.9000;0.4070;-1.5259;
1279.2000;0.4021;-1.5409;
1279.5000;0.4086;-1.5259;
1279.8000;0.4078;-1.5334;
1280.1000;0.4217;-1.5010;
1280.4000;0.4094;-1.5334;
1280.7000;0.4103;-1.5284;
1281.0000;0.4103;-1.5259;
1281.3000;0.4070;-1.5309;
1281.6000;0.4062;-1.5484;
1281.9000;0.4029;-1.5583;
1282.2000;0.4086;-1.5384;
1282.5000;0.4103;-1.5384;
1282.8000;0.4143;-1.5359;
1283.1000;0.4086;-1.5484;
1283.4000;0.4103;-1.5434;
1283.7000;0.4119;-1.5434;
1284.0000;0.4070;-1.5459;
1284.3000;0.4086;-1.5509;
1284.6000;0.4176;-1.5234;
1284.9000;0.4086;-1.5509;
1285.2000;0.4103;-1.5558;
1285.5000;0.4094;-1.5683;
1285.8000;0.4070;-1.5808;
1286.1000;0.4094;-1.5783;
1286.4000;0.4037;-1.5858;
1286.7000;0.4046;-1.5883;
1287.0000;0.4062;-1.5758;
1287.3000;0.4078;-1.5583;
1287.6000;0.4078;-1.5583;
1287.9000;0.4127;-1.5533;
1288.2000;0.4135;-1.5658;
1288.5000;0.4078;-1.5783;
1288.8000;0.4086;-1.5733;
1289.1000;0.4021;-1.5858;
1289.4000;0.4037;-1.5783;
1289.7000;0.4086;-1.5583;
1290.0000;0.4062;-1.5633;
1290.3000;0.4078;-1.5608;
1290.6000;0.4046;-1.5658;
1290.9000;0.3980;-1.5833;
1291.2000;0.4078;-1.5459;
1291.5000;0.4054;-1.5533;
1291.8000;0.4127;-1.5359;
1292.1000;0.4062;-1.5558;
1292.4000;0.4070;-1.5484;
1292.7000;0.4070;-1.5608;
1293.0000;0.4094;-1.5509;
1293.3000;0.4070;-1.5533;
1293.6000;0.4054;-1.5533;
1293.9000;0.4070;-1.5459;
1294.2000;0.4046;-1.5558;
1294.5000;0.4078;-1.5509;
1294.8000;0.4119;-1.5409;
1295.1000;0.4086;-1.5509;
1295.4000;0.4086;-1.5558;
1295.7000;0.4111;-1.5533;
1296.0000;0.4078;-1.5558;
1296.3000;0.4094;-1.5509;
1296.6000;0.4070;-1.5509;
1296.9000;0.4070;-1.5484;
1297.2000;0.4070;-1.5484;
1297.5000;0.4078;-1.5533;
1297.8000;0.4062;-1.5533;
1298.1000;0.4078;-1.5583;
1298.4000;0.4086;-1.5583;
1298.7000;0.4094;-1.5459;
1299.0000;0.4086;-1.5409;
1299.3000;0.4062;-1.5509;
1299.6000;0.4070;-1.5484;
1299.9000;0.4086;-1.5434;
1300.2000;0.4094;-1.5509;
1300.5000;0.4070;-1.5583;
1300.8000;0.4078;-1.5583;
1301.1000;0.4111;-1.5434;
1301.4000;0.4143;-1.5359;
1301.7000;0.4046;-1.5583;
1302.0000;0.4046;-1.5608;
1302.3000;0.4070;-1.5509;
1302.6000;0.4078;-1.5484;
1302.9000;0.4078;-1.5434;
1303.2000;0.4062;-1.5484;
1303.5000;0.4094;-1.5484;
1303.8000;0.4070;-1.5558;
1304.1000;0.4143;-1.5334;
1304.4000;0.4094;-1.5409;
1304.7000;0.4070;-1.5409;
1305.0000;0.4103;-1.5409;
1305.3000;0.4070;-1.5334;
1305.6000;0.4078;-1.5284;
1305.9000;0.4070;-1.5284;
1306.2000;0.4078;-1.5384;
1306.5000;0.4070;-1.5409;
1306.8000;0.4078;-1.5384;
1307.1000;0.4070;-1.5434;
1307.4000;0.4054;-1.5484;
1307.7000;0.4078;-1.5409;
1308.0000;0.4054;-1.5459;
1308.3000;0.4103;-1.5359;
1308.6000;0.4103;-1.5434;
1308.9000;0.4078;-1.5484;
1309.2000;0.4103;-1.5434;
1309.5000;0.4094;-1.5484;
1309.8000;0.4086;-1.5484;
1310.1000;0.4062;-1.5484;
1310.4000;0.4013;-1.5509;
1310.7000;0.4094;-1.5334;
1311.0000;0.4078;-1.5409;
1311.3000;0.4135;-1.5384;
1311.6000;0.4086;-1.5509;
1311.9000;0.4086;-1.5509;
1312.2000;0.4070;-1.5484;
1312.5000;0.4062;-1.5608;
1312.8000;0.4070;-1.5658;
1313.1000;0.4176;-1.5558;
1313.4000;0.4086;-1.5758;
1313.7000;0.4200;-1.5434;
1314.0000;0.4127;-1.5658;
1314.3000;0.4103;-1.5633;
1314.6000;0.4078;-1.5733;
1314.9000;0.4078;-1.5683;
1315.2000;0.4086;-1.5608;
1315.5000;0.4103;-1.5558;
1315.8000;0.4078;-1.5608;
1316.1000;0.4078;-1.5583;
1316.4000;0.4086;-1.5583;
1316.7000;0.4046;-1.5633;
1317.0000;0.4062;-1.5533;
1317.3000;0.4054;-1.5434;
1317.6000;0.4078;-1.5334;
1317.9000;0.4078;-1.5359;
1318.2000;0.4054;-1.5484;
1318.5000;0.4078;-1.5409;
1318.8000;0.4078;-1.5434;
1319.1000;0.4094;-1.5334;
1319.4000;0.4094;-1.5284;
1319.7000;0.4070;-1.5359;
1320.0000;0.4062;-1.5409;
1320.3000;0.4046;-1.5533;
1320.6000;0.4078;-1.5409;
1320.9000;0.4078;-1.5359;
1321.2000;0.4078;-1.5459;
1321.5000;0.4086;-1.5459;
1321.8000;0.4086;-1.5484;
1322.1000;0.4054;-1.5533;
1322.4000;0.4062;-1.5533;
1322.7000;0.4094;-1.5509;
1323.0000;0.4078;-1.5558;
1323.3000;0.4103;-1.5359;
1323.6000;0.4086;-1.5459;
1323.9000;0.4086;-1.5434;
1324.2000;0.4094;-1.5359;
1324.5000;0.4086;-1.5359;
1324.8000;0.4078;-1.5334;
1325.1000;0.4078;-1.5309;
1325.4000;0.4086;-1.5309;
1325.7000;0.4094;-1.5284;
1326.0000;0.4086;-1.5309;
1326.3000;0.4184;-1.5035;
1326.6000;0.4086;-1.5384;
1326.9000;0.4086;-1.5384;
1327.2000;0.4086;-1.5384;
1327.5000;0.4062;-1.5533;
1327.8000;0.4070;-1.5459;
1328.1000;0.4078;-1.5484;
1328.4000;0.4086;-1.5434;
1328.7000;0.4070;-1.5409;
1329.0000;0.4078;-1.5334;
1329.3000;0.4070;-1.5359;
1329.6000;0.4086;-1.5359;
1329.9000;0.4078;-1.5409;
1330.2000;0.4094;-1.5309;
1330.5000;0.4070;-1.5384;
1330.8000;0.4078;-1.5334;
1331.1000;0.4070;-1.5284;
1331.4000;0.4070;-1.5309;
1331.7000;0.4037;-1.5359;
1332.0000;0.4070;-1.5284;
1332.3000;0.4086;-1.5284;
1332.6000;0.4070;-1.5484;
1332.9000;0.4094;-1.5459;
1333.2000;0.4070;-1.5409;
1333.5000;0.4070;-1.5309;
1333.8000;0.4078;-1.5334;
1334.1000;0.4103;-1.5209;
1334.4000;0.4062;-1.5209;
1334.7000;0.4086;-1.5110;
1335.0000;0.4086;-1.5110;
1335.3000;0.4078;-1.5085;
1335.6000;0.4103;-1.4960;
1335.9000;0.4094;-1.4985;
1336.2000;0.4078;-1.5060;
1336.5000;0.4094;-1.5085;
1336.8000;0.4086;-1.5135;
1337.1000;0.4094;-1.5135;
1337.4000;0.4135;-1.5035;
1337.7000;0.4086;-1.5085;
1338.0000;0.4070;-1.5110;
1338.3000;0.4086;-1.5110;
1338.6000;0.4078;-1.5135;
1338.9000;0.4078;-1.5159;
1339.2000;0.4062;-1.5259;
1339.5000;0.4094;-1.5209;
1339.8000;0.4078;-1.5309;
1340.1000;0.4005;-1.5509;
1340.4000;0.4078;-1.5309;
1340.7000;0.4062;-1.5259;
1341.0000;0.4086;-1.5184;
1341.3000;0.4070;-1.5234;
1341.6000;0.4013;-1.5409;
1341.9000;0.4070;-1.5309;
1342.2000;0.4103;-1.5309;
1342.5000;0.4078;-1.5359;
1342.8000;0.4062;-1.5509;
1343.1000;0.4046;-1.5509;
1343.4000;0.4054;-1.5434;
1343.7000;0.4054;-1.5434;
1344.0000;0.4062;-1.5384;
1344.3000;0.4086;-1.5359;
1344.6000;0.4054;-1.5384;
1344.9000;0.4078;-1.5409;
1345.2000;0.4070;-1.5459;
1345.5000;0.4070;-1.5409;
1345.8000;0.4070;-1.5434;
1346.1000;0.4078;-1.5359;
1346.4000;0.4070;-1.5434;
1346.7000;0.4078;-1.5484;
1347.0000;0.4086;-1.5484;
1347.3000;0.4119;-1.5459;
1347.6000;0.4078;-1.5633;
1347.9000;0.4078;-1.5558;
1348.2000;0.4070;-1.5484;
1348.5000;0.4086;-1.5533;
1348.8000;0.4078;-1.5558;
1349.1000;0.4054;-1.5533;
1349.4000;0.4037;-1.5583;
1349.7000;0.3997;-1.5758;
1350.0000;0.4086;-1.5558;
1350.3000;0.4094;-1.5583;
1350.6000;0.4062;-1.5683;
1350.9000;0.4086;-1.5509;
1351.2000;0.4062;-1.5583;
1351.5000;0.4054;-1.5658;
1351.8000;0.4078;-1.5583;
1352.1000;0.4046;-1.5583;
1352.4000;0.4078;-1.5533;
1352.7000;0.4094;-1.5509;
1353.0000;0.4070;-1.5558;
1353.3000;0.4062;-1.5533;
1353.6000;0.4046;-1.5583;
1353.9000;0.4078;-1.5558;
1354.2000;0.4070;-1.5509;
1354.5000;0.4054;-1.5608;
1354.8000;0.4062;-1.5608;
1355.1000;0.4070;-1.5484;
1355.4000;0.4127;-1.5384;
1355.7000;0.4070;-1.5509;
1356.0000;0.4078;-1.5459;
1356.3000;0.4078;-1.5434;
1356.6000;0.4086;-1.5434;
1356.9000;0.4070;-1.5409;
1357.2000;0.4103;-1.5309;
1357.5000;0.4103;-1.5309;
1357.8000;0.4094;-1.5359;
1358.1000;0.4078;-1.5359;
1358.4000;0.4070;-1.5284;
1358.7000;0.4103;-1.5234;
1359.0000;0.4078;-1.5259;
1359.3000;0.4086;-1.5309;
1359.6000;0.4086;-1.5184;
1359.9000;0.4086;-1.5184;
1360.2000;0.4086;-1.5209;
1360.5000;0.4086;-1.5234;
1360.8000;0.4078;-1.5259;
1361.1000;0.4078;-1.5259;
1361.4000;0.4046;-1.5434;
1361.7000;0.4094;-1.5359;
1362.0000;0.4070;-1.5484;
1362.3000;0.4094;-1.5459;
1362.6000;0.4078;-1.5484;
1362.9000;0.4094;-1.5434;
1363.2000;0.4054;-1.5558;
1363.5000;0.4086;-1.5459;
1363.8000;0.4070;-1.5509;
1364.1000;0.3989;-1.5708;
1364.4000;0.4054;-1.5434;
1364.7000;0.4062;-1.5409;
1365.0000;0.4062;-1.5409;
1365.3000;0.4070;-1.5359;
1365.6000;0.4070;-1.5334;
1365.9000;0.4054;-1.5359;
1366.2000;0.4078;-1.5384;
1366.5000;0.4070;-1.5484;
1366.8000;0.4078;-1.5484;
1367.1000;0.4070;-1.5509;
1367.4000;0.4078;-1.5484;
1367.7000;0.4078;-1.5509;
1368.0000;0.4070;-1.5558;
1368.3000;0.4070;-1.5583;
1368.6000;0.4078;-1.5558;
1368.9000;0.4070;-1.5533;
1369.2000;0.4070;-1.5558;
1369.5000;0.4037;-1.5558;
1369.8000;0.4078;-1.5409;
1370.1000;0.4094;-1.5334;
1370.4000;0.4062;-1.5334;
1370.7000;0.4111;-1.5284;
1371.0000;0.4062;-1.5434;
1371.3000;0.4029;-1.5484;
1371.6000;0.4054;-1.5459;
1371.9000;0.4070;-1.5384;
1372.2000;0.4078;-1.5459;
1372.5000;0.4127;-1.5384;
1372.8000;0.4029;-1.5608;
1373.1000;0.4094;-1.5459;
1373.4000;0.4062;-1.5484;
1373.7000;0.4086;-1.5434;
1374.0000;0.4078;-1.5558;
1374.3000;0.4094;-1.5533;
1374.6000;0.4054;-1.5558;
1374.9000;0.4078;-1.5558;
1375.2000;0.4070;-1.5558;
1375.5000;0.4111;-1.5434;
1375.8000;0.4046;-1.5583;
1376.1000;0.4062;-1.5484;
1376.4000;0.4037;-1.5583;
1376.7000;0.4070;-1.5509;
1377.0000;0.4054;-1.5558;
1377.3000;0.4070;-1.5459;
1377.6000;0.4054;-1.5459;
1377.9000;0.4103;-1.5334;
1378.2000;0.4062;-1.5509;
1378.5000;0.4054;-1.5434;
1378.8000;0.4160;-1.5135;
1379.1000;0.4062;-1.5334;
1379.4000;0.4078;-1.5259;
1379.7000;0.3989;-1.5484;
1380.0000;0.4070;-1.5284;
1380.3000;0.4070;-1.5334;
1380.6000;0.4013;-1.5484;
1380.9000;0.4078;-1.5284;
1381.2000;0.4078;-1.5259;
1381.5000;0.4062;-1.5309;
1381.8000;0.4103;-1.5334;
1382.1000;0.4127;-1.5334;
1382.4000;0.4086;-1.5434;
1382.7000;0.4094;-1.5484;
1383.0000;0.4135;-1.5459;
1383.3000;0.4086;-1.5533;
1383.6000;0.4062;-1.5608;
1383.9000;0.4070;-1.5583;
1384.2000;0.4070;-1.5533;
1384.5000;0.4086;-1.5583;
1384.8000;0.4127;-1.5484;
1385.1000;0.4078;-1.5608;
1385.4000;0.4070;-1.5633;
1385.7000;0.4062;-1.5484;
1386.0000;0.4086;-1.5558;
1386.3000;0.4070;-1.5583;
1386.6000;0.4078;-1.5608;
1386.9000;0.4078;-1.5533;
1387.2000;0.4086;-1.5384;
1387.5000;0.4143;-1.5284;
1387.8000;0.4086;-1.5509;
1388.1000;0.4078;-1.5558;
1388.4000;0.4078;-1.5633;
1388.7000;0.4062;-1.5608;
1389.0000;0.4062;-1.5783;
1389.3000;0.4078;-1.5783;
1389.6000;0.4070;-1.5758;
1389.9000;0.4070;-1.5783;
1390.2000;0.4078;-1.5658;
1390.5000;0.4070;-1.5633;
1390.8000;0.4078;-1.5558;
1391.1000;0.4086;-1.5558;
1391.4000;0.4070;-1.5533;
1391.7000;0.4070;-1.5509;
1392.0000;0.4086;-1.5509;
1392.3000;0.4078;-1.5434;
1392.6000;0.4062;-1.5434;
1392.9000;0.4062;-1.5359;
1393.2000;0.4070;-1.5309;
1393.5000;0.4078;-1.5259;
1393.8000;0.4070;-1.5334;
1394.1000;0.4062;-1.5384;
1394.4000;0.4078;-1.5409;
1394.7000;0.4111;-1.5384;
1395.0000;0.4078;-1.5434;
1395.3000;0.4062;-1.5459;
1395.6000;0.4078;-1.5484;
1395.9000;0.4086;-1.5434;
1396.2000;0.4078;-1.5434;
1396.5000;0.4078;-1.5409;
1396.8000;0.4062;-1.5309;
1397.1000;0.4070;-1.5334;
1397.4000;0.4062;-1.5359;
1397.7000;0.4037;-1.5509;
1398.0000;0.4078;-1.5334;
1398.3000;0.4070;-1.5359;
1398.6000;0.4217;-1.5110;
1398.9000;0.4062;-1.5558;
1399.2000;0.4086;-1.5509;
1399.5000;0.4078;-1.5509;
1399.8000;0.4094;-1.5384;
