time/ms;Fluo/V;P700 deltaI/I x10³;
-199.8000;0.2646;0.7727;
-199.5000;0.2613;0.7678;
-199.2000;0.2629;0.7799;
-198.9000;0.2613;0.7775;
-198.6000;0.2637;0.7775;
-198.3000;0.2637;0.7751;
-198.0000;0.2637;0.7727;
-197.7000;0.2637;0.7654;
-197.4000;0.2613;0.7630;
-197.1000;0.2646;0.7678;
-196.8000;0.2637;0.7775;
-196.5000;0.2637;0.7727;
-196.2000;0.2751;0.8090;
-195.9000;0.2605;0.7775;
-195.6000;0.2629;0.7872;
-195.3000;0.2621;0.7848;
-195.0000;0.2646;0.7896;
-194.7000;0.2646;0.7921;
-194.4000;0.2629;0.7848;
-194.1000;0.2613;0.7799;
-193.8000;0.2646;0.7775;
-193.5000;0.2646;0.7751;
-193.2000;0.2637;0.7799;
-192.9000;0.2637;0.7824;
-192.6000;0.2637;0.7799;
-192.3000;0.2637;0.7775;
-192.0000;0.2637;0.7775;
-191.7000;0.2629;0.7872;
-191.4000;0.2605;0.7775;
-191.1000;0.2613;0.7751;
-190.8000;0.2613;0.7727;
-190.5000;0.2646;0.7727;
-190.2000;0.2621;0.7678;
-189.9000;0.2613;0.7703;
-189.6000;0.2629;0.7703;
-189.3000;0.2646;0.7606;
-189.0000;0.2654;0.7606;
-188.7000;0.2629;0.7606;
-188.4000;0.2629;0.7630;
-188.1000;0.2678;0.7824;
-187.8000;0.2637;0.7703;
-187.5000;0.2629;0.7703;
-187.2000;0.2621;0.7799;
-186.9000;0.2629;0.7799;
-186.6000;0.2637;0.7896;
-186.3000;0.2694;0.8042;
-186.0000;0.2646;0.7921;
-185.7000;0.2621;0.7872;
-185.4000;0.2629;0.7945;
-185.1000;0.2662;0.7993;
-184.8000;0.2605;0.7896;
-184.5000;0.2621;0.7921;
-184.2000;0.2621;0.7969;
-183.9000;0.2637;0.8017;
-183.6000;0.2646;0.7993;
-183.3000;0.2637;0.7993;
-183.0000;0.2637;0.7945;
-182.7000;0.2637;0.7896;
-182.4000;0.2621;0.7848;
-182.1000;0.2540;0.7533;
-181.8000;0.2637;0.7751;
-181.5000;0.2629;0.7703;
-181.2000;0.2637;0.7775;
-180.9000;0.2605;0.7606;
-180.6000;0.2621;0.7630;
-180.3000;0.2621;0.7630;
-180.0000;0.2613;0.7606;
-179.7000;0.2629;0.7606;
-179.4000;0.2613;0.7703;
-179.1000;0.2605;0.7678;
-178.8000;0.2629;0.7703;
-178.5000;0.2637;0.7799;
-178.2000;0.2637;0.7799;
-177.9000;0.2629;0.7848;
-177.6000;0.2637;0.7872;
-177.3000;0.2637;0.7896;
-177.0000;0.2637;0.7799;
-176.7000;0.2629;0.7799;
-176.4000;0.2637;0.7775;
-176.1000;0.2662;0.7872;
-175.8000;0.2621;0.7751;
-175.5000;0.2621;0.7678;
-175.2000;0.2621;0.7703;
-174.9000;0.2629;0.7630;
-174.6000;0.2613;0.7703;
-174.3000;0.2621;0.7654;
-174.0000;0.2637;0.7727;
-173.7000;0.2621;0.7751;
-173.4000;0.2637;0.7775;
-173.1000;0.2629;0.7751;
-172.8000;0.2654;0.7751;
-172.5000;0.2621;0.7727;
-172.2000;0.2629;0.7727;
-171.9000;0.2670;0.7824;
-171.6000;0.2719;0.7993;
-171.3000;0.2646;0.7824;
-171.0000;0.2637;0.7727;
-170.7000;0.2646;0.7678;
-170.4000;0.2719;0.7993;
-170.1000;0.2637;0.7775;
-169.8000;0.2589;0.7630;
-169.5000;0.2629;0.7848;
-169.2000;0.2621;0.7799;
-168.9000;0.2670;0.7872;
-168.6000;0.2646;0.7751;
-168.3000;0.2637;0.7678;
-168.0000;0.2711;0.7921;
-167.7000;0.2637;0.7703;
-167.4000;0.2621;0.7654;
-167.1000;0.2629;0.7703;
-166.8000;0.2654;0.7824;
-166.5000;0.2629;0.7799;
-166.2000;0.2646;0.7775;
-165.9000;0.2629;0.7775;
-165.6000;0.2613;0.7824;
-165.3000;0.2605;0.7775;
-165.0000;0.2646;0.7799;
-164.7000;0.2637;0.7751;
-164.4000;0.2637;0.7799;
-164.1000;0.2613;0.7799;
-163.8000;0.2621;0.7799;
-163.5000;0.2637;0.7872;
-163.2000;0.2621;0.7799;
-162.9000;0.2637;0.7751;
-162.6000;0.2637;0.7751;
-162.3000;0.2629;0.7703;
-162.0000;0.2670;0.7751;
-161.7000;0.2621;0.7606;
-161.4000;0.2629;0.7606;
-161.1000;0.2637;0.7678;
-160.8000;0.2621;0.7703;
-160.5000;0.2621;0.7678;
-160.2000;0.2670;0.7751;
-159.9000;0.2629;0.7654;
-159.6000;0.2621;0.7630;
-159.3000;0.2605;0.7581;
-159.0000;0.2613;0.7630;
-158.7000;0.2621;0.7703;
-158.4000;0.2637;0.7848;
-158.1000;0.2605;0.7799;
-157.8000;0.2629;0.7824;
-157.5000;0.2629;0.7848;
-157.2000;0.2646;0.7799;
-156.9000;0.2637;0.7703;
-156.6000;0.2548;0.7412;
-156.3000;0.2621;0.7630;
-156.0000;0.2637;0.7703;
-155.7000;0.2637;0.7606;
-155.4000;0.2637;0.7606;
-155.1000;0.2621;0.7581;
-154.8000;0.2654;0.7703;
-154.5000;0.2629;0.7606;
-154.2000;0.2629;0.7678;
-153.9000;0.2637;0.7751;
-153.6000;0.2637;0.7799;
-153.3000;0.2629;0.7751;
-153.0000;0.2629;0.7751;
-152.7000;0.2654;0.7678;
-152.4000;0.2613;0.7654;
-152.1000;0.2637;0.7751;
-151.8000;0.2613;0.7824;
-151.5000;0.2629;0.7872;
-151.2000;0.2621;0.7848;
-150.9000;0.2637;0.7896;
-150.6000;0.2629;0.7848;
-150.3000;0.2629;0.7799;
-150.0000;0.2637;0.7848;
-149.7000;0.2637;0.7848;
-149.4000;0.2629;0.7775;
-149.1000;0.2629;0.7775;
-148.8000;0.2670;0.7921;
-148.5000;0.2654;0.7824;
-148.2000;0.2637;0.7703;
-147.9000;0.2629;0.7678;
-147.6000;0.2580;0.7581;
-147.3000;0.2629;0.7799;
-147.0000;0.2637;0.7872;
-146.7000;0.2556;0.7703;
-146.4000;0.2670;0.7872;
-146.1000;0.2662;0.7824;
-145.8000;0.2621;0.7848;
-145.5000;0.2621;0.7896;
-145.2000;0.2621;0.7848;
-144.9000;0.2621;0.7751;
-144.6000;0.2646;0.7703;
-144.3000;0.2629;0.7727;
-144.0000;0.2621;0.7751;
-143.7000;0.2621;0.7799;
-143.4000;0.2646;0.7751;
-143.1000;0.2629;0.7678;
-142.8000;0.2629;0.7703;
-142.5000;0.2621;0.7703;
-142.2000;0.2654;0.7727;
-141.9000;0.2589;0.7509;
-141.6000;0.2654;0.7581;
-141.3000;0.2629;0.7485;
-141.0000;0.2605;0.7388;
-140.7000;0.2629;0.7509;
-140.4000;0.2613;0.7557;
-140.1000;0.2589;0.7485;
-139.8000;0.2637;0.7606;
-139.5000;0.2646;0.7654;
-139.2000;0.2637;0.7678;
-138.9000;0.2646;0.7727;
-138.6000;0.2613;0.7678;
-138.3000;0.2686;0.7775;
-138.0000;0.2605;0.7630;
-137.7000;0.2605;0.7654;
-137.4000;0.2613;0.7824;
-137.1000;0.2711;0.8042;
-136.8000;0.2621;0.7824;
-136.5000;0.2629;0.7703;
-136.2000;0.2621;0.7654;
-135.9000;0.2678;0.7824;
-135.6000;0.2637;0.7654;
-135.3000;0.2637;0.7654;
-135.0000;0.2637;0.7703;
-134.7000;0.2629;0.7727;
-134.4000;0.2646;0.7799;
-134.1000;0.2613;0.7775;
-133.8000;0.2629;0.7799;
-133.5000;0.2621;0.7799;
-133.2000;0.2637;0.7896;
-132.9000;0.2637;0.7921;
-132.6000;0.2597;0.7896;
-132.3000;0.2637;0.7921;
-132.0000;0.2629;0.7872;
-131.7000;0.2629;0.7921;
-131.4000;0.2621;0.7848;
-131.1000;0.2629;0.7848;
-130.8000;0.2621;0.7872;
-130.5000;0.2637;0.7872;
-130.2000;0.2637;0.7921;
-129.9000;0.2629;0.7848;
-129.6000;0.2629;0.7824;
-129.3000;0.2621;0.7799;
-129.0000;0.2646;0.7921;
-128.7000;0.2629;0.7848;
-128.4000;0.2589;0.7751;
-128.1000;0.2621;0.7848;
-127.8000;0.2621;0.7848;
-127.5000;0.2605;0.7727;
-127.2000;0.2621;0.7678;
-126.9000;0.2621;0.7630;
-126.6000;0.2629;0.7606;
-126.3000;0.2629;0.7654;
-126.0000;0.2646;0.7581;
-125.7000;0.2621;0.7654;
-125.4000;0.2629;0.7727;
-125.1000;0.2637;0.7799;
-124.8000;0.2629;0.7727;
-124.5000;0.2654;0.7799;
-124.2000;0.2646;0.7824;
-123.9000;0.2646;0.7824;
-123.6000;0.2621;0.7703;
-123.3000;0.2613;0.7654;
-123.0000;0.2629;0.7678;
-122.7000;0.2637;0.7581;
-122.4000;0.2694;0.7751;
-122.1000;0.2637;0.7630;
-121.8000;0.2621;0.7727;
-121.5000;0.2646;0.7824;
-121.2000;0.2621;0.7775;
-120.9000;0.2621;0.7824;
-120.6000;0.2605;0.7727;
-120.3000;0.2654;0.7799;
-120.0000;0.2637;0.7824;
-119.7000;0.2629;0.7848;
-119.4000;0.2621;0.7824;
-119.1000;0.2621;0.7848;
-118.8000;0.2686;0.7993;
-118.5000;0.2629;0.7896;
-118.2000;0.2646;0.7872;
-117.9000;0.2621;0.7824;
-117.6000;0.2629;0.7824;
-117.3000;0.2662;0.7945;
-117.0000;0.2637;0.7872;
-116.7000;0.2646;0.7848;
-116.4000;0.2613;0.7872;
-116.1000;0.2637;0.7872;
-115.8000;0.2523;0.7581;
-115.5000;0.2646;0.7775;
-115.2000;0.2637;0.7703;
-114.9000;0.2743;0.7993;
-114.6000;0.2629;0.7727;
-114.3000;0.2621;0.7630;
-114.0000;0.2654;0.7824;
-113.7000;0.2637;0.7775;
-113.4000;0.2621;0.7751;
-113.1000;0.2605;0.7654;
-112.8000;0.2589;0.7557;
-112.5000;0.2629;0.7654;
-112.2000;0.2621;0.7606;
-111.9000;0.2629;0.7654;
-111.6000;0.2629;0.7727;
-111.3000;0.2637;0.7630;
-111.0000;0.2637;0.7557;
-110.7000;0.2629;0.7533;
-110.4000;0.2613;0.7557;
-110.1000;0.2646;0.7630;
-109.8000;0.2637;0.7630;
-109.5000;0.2621;0.7606;
-109.2000;0.2613;0.7557;
-108.9000;0.2686;0.7727;
-108.6000;0.2629;0.7533;
-108.3000;0.2613;0.7509;
-108.0000;0.2621;0.7606;
-107.7000;0.2621;0.7606;
-107.4000;0.2735;0.7872;
-107.1000;0.2646;0.7654;
-106.8000;0.2646;0.7703;
-106.5000;0.2694;0.7896;
-106.2000;0.2646;0.7678;
-105.9000;0.2629;0.7703;
-105.6000;0.2654;0.7678;
-105.3000;0.2686;0.7799;
-105.0000;0.2613;0.7581;
-104.7000;0.2637;0.7654;
-104.4000;0.2686;0.7727;
-104.1000;0.2637;0.7678;
-103.8000;0.2646;0.7678;
-103.5000;0.2646;0.7654;
-103.2000;0.2637;0.7703;
-102.9000;0.2613;0.7678;
-102.6000;0.2621;0.7775;
-102.3000;0.2629;0.7848;
-102.0000;0.2613;0.7799;
-101.7000;0.2670;0.7896;
-101.4000;0.2629;0.7751;
-101.1000;0.2629;0.7775;
-100.8000;0.2564;0.7630;
-100.5000;0.2629;0.7848;
-100.2000;0.2637;0.7799;
-99.9000;0.2637;0.7896;
-99.6000;0.2613;0.7848;
-99.3000;0.2613;0.7824;
-99.0000;0.2670;0.7921;
-98.7000;0.2702;0.8066;
-98.4000;0.2637;0.7848;
-98.1000;0.2629;0.7945;
-97.8000;0.2605;0.7824;
-97.5000;0.2637;0.7824;
-97.2000;0.2629;0.7799;
-96.9000;0.2662;0.7848;
-96.6000;0.2686;0.7848;
-96.3000;0.2629;0.7703;
-96.0000;0.2637;0.7872;
-95.7000;0.2589;0.7703;
-95.4000;0.2629;0.7751;
-95.1000;0.2637;0.7896;
-94.8000;0.2678;0.8066;
-94.5000;0.2637;0.7993;
-94.2000;0.2654;0.7921;
-93.9000;0.2637;0.7872;
-93.6000;0.2629;0.7799;
-93.3000;0.2629;0.7848;
-93.0000;0.2678;0.7945;
-92.7000;0.2629;0.7775;
-92.4000;0.2629;0.7751;
-92.1000;0.2637;0.7751;
-91.8000;0.2629;0.7824;
-91.5000;0.2613;0.7896;
-91.2000;0.2621;0.7921;
-90.9000;0.2637;0.7993;
-90.6000;0.2637;0.7969;
-90.3000;0.2629;0.7921;
-90.0000;0.2597;0.7775;
-89.7000;0.2572;0.7654;
-89.4000;0.2629;0.7751;
-89.1000;0.2621;0.7727;
-88.8000;0.2613;0.7727;
-88.5000;0.2621;0.7799;
-88.2000;0.2556;0.7654;
-87.9000;0.2637;0.7872;
-87.6000;0.2613;0.7678;
-87.3000;0.2629;0.7751;
-87.0000;0.2637;0.7727;
-86.7000;0.2637;0.7678;
-86.4000;0.2654;0.7727;
-86.1000;0.2621;0.7533;
-85.8000;0.2646;0.7581;
-85.5000;0.2629;0.7557;
-85.2000;0.2613;0.7606;
-84.9000;0.2637;0.7703;
-84.6000;0.2621;0.7678;
-84.3000;0.2613;0.7654;
-84.0000;0.2629;0.7654;
-83.7000;0.2637;0.7727;
-83.4000;0.2686;0.7921;
-83.1000;0.2597;0.7703;
-82.8000;0.2621;0.7775;
-82.5000;0.2629;0.7703;
-82.2000;0.2629;0.7751;
-81.9000;0.2629;0.7703;
-81.6000;0.2621;0.7630;
-81.3000;0.2735;0.8017;
-81.0000;0.2629;0.7751;
-80.7000;0.2572;0.7630;
-80.4000;0.2637;0.7824;
-80.1000;0.2629;0.7727;
-79.8000;0.2637;0.7775;
-79.5000;0.2686;0.7896;
-79.2000;0.2646;0.7848;
-78.9000;0.2694;0.7921;
-78.6000;0.2629;0.7775;
-78.3000;0.2637;0.7824;
-78.0000;0.2646;0.7848;
-77.7000;0.2662;0.7921;
-77.4000;0.2670;0.7993;
-77.1000;0.2662;0.7969;
-76.8000;0.2686;0.8017;
-76.5000;0.2637;0.7848;
-76.2000;0.2637;0.7848;
-75.9000;0.2629;0.7848;
-75.6000;0.2711;0.7969;
-75.3000;0.2629;0.7751;
-75.0000;0.2613;0.7678;
-74.7000;0.2654;0.7727;
-74.4000;0.2637;0.7775;
-74.1000;0.2637;0.7799;
-73.8000;0.2613;0.7824;
-73.5000;0.2646;0.7872;
-73.2000;0.2637;0.7896;
-72.9000;0.2629;0.7872;
-72.6000;0.2621;0.7921;
-72.3000;0.2621;0.7896;
-72.0000;0.2637;0.7896;
-71.7000;0.2621;0.7945;
-71.4000;0.2646;0.8017;
-71.1000;0.2621;0.7969;
-70.8000;0.2621;0.7993;
-70.5000;0.2629;0.7921;
-70.2000;0.2629;0.7896;
-69.9000;0.2637;0.7921;
-69.6000;0.2621;0.7896;
-69.3000;0.2646;0.7969;
-69.0000;0.2605;0.7799;
-68.7000;0.2637;0.7799;
-68.4000;0.2605;0.7751;
-68.1000;0.2662;0.7775;
-67.8000;0.2678;0.7824;
-67.5000;0.2646;0.7751;
-67.2000;0.2621;0.7775;
-66.9000;0.2637;0.7872;
-66.6000;0.2646;0.7921;
-66.3000;0.2621;0.7848;
-66.0000;0.2629;0.7824;
-65.7000;0.2621;0.7751;
-65.4000;0.2621;0.7727;
-65.1000;0.2621;0.7751;
-64.8000;0.2613;0.7678;
-64.5000;0.2637;0.7678;
-64.2000;0.2646;0.7703;
-63.9000;0.2621;0.7630;
-63.6000;0.2556;0.7388;
-63.3000;0.2621;0.7581;
-63.0000;0.2646;0.7606;
-62.7000;0.2605;0.7533;
-62.4000;0.2613;0.7654;
-62.1000;0.2629;0.7751;
-61.8000;0.2637;0.7824;
-61.5000;0.2621;0.7799;
-61.2000;0.2646;0.7824;
-60.9000;0.2613;0.7775;
-60.6000;0.2662;0.7993;
-60.3000;0.2637;0.7896;
-60.0000;0.2662;0.7896;
-59.7000;0.2613;0.7848;
-59.4000;0.2637;0.7921;
-59.1000;0.2646;0.7872;
-58.8000;0.2613;0.7775;
-58.5000;0.2637;0.7775;
-58.2000;0.2621;0.7751;
-57.9000;0.2621;0.7751;
-57.6000;0.2629;0.7775;
-57.3000;0.2637;0.7775;
-57.0000;0.2646;0.7848;
-56.7000;0.2629;0.7678;
-56.4000;0.2646;0.7703;
-56.1000;0.2621;0.7727;
-55.8000;0.2597;0.7630;
-55.5000;0.2662;0.7848;
-55.2000;0.2629;0.7775;
-54.9000;0.2580;0.7654;
-54.6000;0.2597;0.7799;
-54.3000;0.2637;0.7969;
-54.0000;0.2646;0.7969;
-53.7000;0.2637;0.7872;
-53.4000;0.2605;0.7727;
-53.1000;0.2621;0.7775;
-52.8000;0.2621;0.7678;
-52.5000;0.2637;0.7654;
-52.2000;0.2646;0.7678;
-51.9000;0.2613;0.7581;
-51.6000;0.2621;0.7485;
-51.3000;0.2637;0.7533;
-51.0000;0.2646;0.7678;
-50.7000;0.2654;0.7727;
-50.4000;0.2637;0.7654;
-50.1000;0.2621;0.7654;
-49.8000;0.2654;0.7824;
-49.5000;0.2629;0.7775;
-49.2000;0.2646;0.7799;
-48.9000;0.2637;0.7799;
-48.6000;0.2646;0.7775;
-48.3000;0.2637;0.7775;
-48.0000;0.2621;0.7824;
-47.7000;0.2580;0.7703;
-47.4000;0.2654;0.7872;
-47.1000;0.2637;0.7775;
-46.8000;0.2629;0.7727;
-46.5000;0.2613;0.7799;
-46.2000;0.2646;0.7872;
-45.9000;0.2637;0.7775;
-45.6000;0.2613;0.7775;
-45.3000;0.2629;0.7751;
-45.0000;0.2637;0.7799;
-44.7000;0.2629;0.7872;
-44.4000;0.2629;0.7872;
-44.1000;0.2637;0.7848;
-43.8000;0.2637;0.7824;
-43.5000;0.2621;0.7848;
-43.2000;0.2629;0.7872;
-42.9000;0.2629;0.7872;
-42.6000;0.2646;0.7896;
-42.3000;0.2646;0.7799;
-42.0000;0.2629;0.7703;
-41.7000;0.2629;0.7703;
-41.4000;0.2629;0.7727;
-41.1000;0.2621;0.7751;
-40.8000;0.2629;0.7872;
-40.5000;0.2735;0.8284;
-40.2000;0.2621;0.7969;
-39.9000;0.2637;0.7896;
-39.6000;0.2629;0.7824;
-39.3000;0.2629;0.7848;
-39.0000;0.2629;0.7872;
-38.7000;0.2670;0.7921;
-38.4000;0.2637;0.7799;
-38.1000;0.2523;0.7509;
-37.8000;0.2637;0.7848;
-37.5000;0.2662;0.7945;
-37.2000;0.2621;0.7848;
-36.9000;0.2662;0.7824;
-36.6000;0.2654;0.7799;
-36.3000;0.2646;0.7703;
-36.0000;0.2621;0.7727;
-35.7000;0.2637;0.7775;
-35.4000;0.2621;0.7799;
-35.1000;0.2629;0.7848;
-34.8000;0.2637;0.7824;
-34.5000;0.2637;0.7799;
-34.2000;0.2621;0.7678;
-33.9000;0.2629;0.7703;
-33.6000;0.2654;0.7751;
-33.3000;0.2621;0.7751;
-33.0000;0.2646;0.7751;
-32.7000;0.2637;0.7727;
-32.4000;0.2621;0.7703;
-32.1000;0.2637;0.7678;
-31.8000;0.2629;0.7606;
-31.5000;0.2589;0.7509;
-31.2000;0.2580;0.7509;
-30.9000;0.2597;0.7460;
-30.6000;0.2613;0.7606;
-30.3000;0.2564;0.7485;
-30.0000;0.2621;0.7703;
-29.7000;0.2646;0.7896;
-29.4000;0.2629;0.7775;
-29.1000;0.2629;0.7727;
-28.8000;0.2629;0.7775;
-28.5000;0.2646;0.7727;
-28.2000;0.2654;0.7775;
-27.9000;0.2637;0.7703;
-27.6000;0.2629;0.7703;
-27.3000;0.2629;0.7703;
-27.0000;0.2654;0.7678;
-26.7000;0.2621;0.7703;
-26.4000;0.2629;0.7727;
-26.1000;0.2694;0.7945;
-25.8000;0.2613;0.7799;
-25.5000;0.2621;0.7799;
-25.2000;0.2629;0.7848;
-24.9000;0.2621;0.7945;
-24.6000;0.2637;0.7969;
-24.3000;0.2621;0.7872;
-24.0000;0.2629;0.7921;
-23.7000;0.2629;0.7848;
-23.4000;0.2629;0.7872;
-23.1000;0.2580;0.7751;
-22.8000;0.2629;0.7824;
-22.5000;0.2621;0.7848;
-22.2000;0.2548;0.7703;
-21.9000;0.2662;0.7993;
-21.6000;0.2629;0.7921;
-21.3000;0.2621;0.7921;
-21.0000;0.2621;0.7896;
-20.7000;0.2613;0.7848;
-20.4000;0.2621;0.7848;
-20.1000;0.2629;0.7921;
-19.8000;0.2646;0.7872;
-19.5000;0.2613;0.7775;
-19.2000;0.2621;0.7799;
-18.9000;0.2621;0.7727;
-18.6000;0.2629;0.7799;
-18.3000;0.2621;0.7799;
-18.0000;0.2621;0.7872;
-17.7000;0.2637;0.7945;
-17.4000;0.2637;0.7896;
-17.1000;0.2637;0.7824;
-16.8000;0.2637;0.7848;
-16.5000;0.2637;0.7848;
-16.2000;0.2629;0.7848;
-15.9000;0.2637;0.7824;
-15.6000;0.2613;0.7824;
-15.3000;0.2605;0.7775;
-15.0000;0.2637;0.7872;
-14.7000;0.2621;0.7799;
-14.4000;0.2629;0.7799;
-14.1000;0.2646;0.7872;
-13.8000;0.2629;0.7921;
-13.5000;0.2678;0.8066;
-13.2000;0.2629;0.8042;
-12.9000;0.2629;0.7993;
-12.6000;0.2637;0.7993;
-12.3000;0.2621;0.7896;
-12.0000;0.2621;0.7921;
-11.7000;0.2629;0.7993;
-11.4000;0.2743;0.8187;
-11.1000;0.2654;0.7848;
-10.8000;0.2621;0.7751;
-10.5000;0.2621;0.7872;
-10.2000;0.2629;0.7993;
-9.9000;0.2646;0.8042;
-9.6000;0.2629;0.7993;
-9.3000;0.2637;0.8042;
-9.0000;0.2637;0.7896;
-8.7000;0.2662;0.7993;
-8.4000;0.2629;0.7896;
-8.1000;0.2637;0.7848;
-7.8000;0.2621;0.7848;
-7.5000;0.2686;0.7969;
-7.2000;0.2621;0.7799;
-6.9000;0.2621;0.7824;
-6.6000;0.2637;0.7824;
-6.3000;0.2654;0.7775;
-6.0000;0.2637;0.7824;
-5.7000;0.2637;0.7799;
-5.4000;0.2637;0.7872;
-5.1000;0.2629;0.7945;
-4.8000;0.2629;0.7872;
-4.5000;0.2637;0.7872;
-4.2000;0.2621;0.7824;
-3.9000;0.2613;0.7775;
-3.6000;0.2613;0.7751;
-3.3000;0.2629;0.7799;
-3.0000;0.2580;0.7678;
-2.7000;0.2605;0.7775;
-2.4000;0.2646;0.7896;
-2.1000;0.2580;0.7703;
-1.8000;0.2621;0.7872;
-1.5000;0.2637;0.7945;
-1.2000;0.2637;0.7969;
-0.9000;0.2613;0.7775;
-0.6000;0.2613;0.7751;
-0.3000;0.2613;0.7775;
0.0000;0.2613;0.7775;
0.3000;0.2523;0.7460;
0.6000;0.2646;0.7945;
0.9000;0.2637;0.8042;
1.2000;0.2759;0.8599;
1.5000;0.2662;0.8550;
1.8000;0.2662;0.8720;
2.1000;0.2613;0.8768;
2.4000;0.2678;0.9010;
2.7000;0.2702;0.9277;
3.0000;0.2686;0.9277;
3.3000;0.2711;0.9374;
3.6000;0.2702;0.9495;
3.9000;0.2719;0.9592;
4.2000;0.2735;0.9713;
4.5000;0.2711;0.9689;
4.8000;0.2727;0.9761;
5.1000;0.2776;0.9931;
5.4000;0.2719;0.9761;
5.7000;0.2711;0.9834;
6.0000;0.2800;1.0076;
6.3000;0.2711;0.9907;
6.6000;0.2727;0.9979;
6.9000;0.2711;0.9931;
7.2000;0.2743;1.0028;
7.5000;0.2711;1.0028;
7.8000;0.2727;0.9979;
8.1000;0.2735;1.0076;
8.4000;0.2735;1.0076;
8.7000;0.2678;0.9955;
9.0000;0.2743;1.0125;
9.3000;0.2719;1.0004;
9.6000;0.2719;0.9955;
9.9000;0.2735;0.9931;
10.2000;0.2719;0.9931;
10.5000;0.2751;0.9955;
10.8000;0.2727;0.9907;
11.1000;0.2711;0.9858;
11.4000;0.2735;0.9858;
11.7000;0.2776;0.9931;
12.0000;0.2719;0.9810;
12.3000;0.2735;0.9834;
12.6000;0.2662;0.9664;
12.9000;0.2743;0.9979;
13.2000;0.2711;0.9907;
13.5000;0.2719;0.9858;
13.8000;0.2719;0.9882;
14.1000;0.2719;0.9737;
14.4000;0.2670;0.9592;
14.7000;0.2719;0.9737;
15.0000;0.2719;0.9761;
15.3000;0.2727;0.9834;
15.6000;0.2686;0.9810;
15.9000;0.2719;1.0004;
16.2000;0.2719;1.0028;
16.5000;0.2719;0.9955;
16.8000;0.2719;1.0004;
17.1000;0.2727;1.0004;
17.4000;0.2711;0.9979;
17.7000;0.2711;1.0004;
18.0000;0.2735;1.0100;
18.3000;0.2735;1.0076;
18.6000;0.2711;1.0100;
18.9000;0.2711;1.0125;
19.2000;0.2694;0.9979;
19.5000;0.2727;1.0173;
19.8000;0.2719;1.0246;
20.1000;0.2694;1.0246;
20.4000;0.2727;1.0318;
20.7000;0.2719;1.0294;
21.0000;0.2727;1.0294;
21.3000;0.2743;1.0294;
21.6000;0.2711;1.0270;
21.9000;0.2719;1.0270;
22.2000;0.2727;1.0391;
22.5000;0.2702;1.0246;
22.8000;0.2727;1.0197;
23.1000;0.2711;1.0222;
23.4000;0.2686;1.0149;
23.7000;0.2711;1.0173;
24.0000;0.2662;1.0052;
24.3000;0.2768;1.0294;
24.6000;0.2743;1.0173;
24.9000;0.2719;1.0100;
25.2000;0.2686;0.9979;
25.5000;0.2694;0.9979;
25.8000;0.2727;1.0052;
26.1000;0.2686;0.9882;
26.4000;0.2662;0.9858;
26.7000;0.2719;0.9931;
27.0000;0.2702;0.9907;
27.3000;0.2719;1.0004;
27.6000;0.2711;0.9979;
27.9000;0.2719;1.0004;
28.2000;0.2711;1.0004;
28.5000;0.2849;1.0343;
28.8000;0.2727;1.0028;
29.1000;0.2743;1.0052;
29.4000;0.2646;0.9664;
29.7000;0.2727;1.0004;
30.0000;0.2719;0.9955;
30.3000;0.2711;1.0004;
30.6000;0.2727;1.0004;
30.9000;0.2719;0.9979;
31.2000;0.2719;0.9979;
31.5000;0.2686;0.9931;
31.8000;0.2719;1.0100;
32.1000;0.2735;1.0100;
32.4000;0.2719;1.0100;
32.7000;0.2719;1.0100;
33.0000;0.2759;1.0246;
33.3000;0.2719;1.0076;
33.6000;0.2711;1.0100;
33.9000;0.2719;1.0125;
34.2000;0.2719;1.0149;
34.5000;0.2637;0.9834;
34.8000;0.2702;0.9931;
35.1000;0.2792;1.0149;
35.4000;0.2678;0.9834;
35.7000;0.2719;0.9979;
36.0000;0.2735;1.0076;
36.3000;0.2719;1.0004;
36.6000;0.2670;0.9907;
36.9000;0.2727;1.0028;
37.2000;0.2727;1.0004;
37.5000;0.2719;0.9979;
37.8000;0.2727;1.0100;
38.1000;0.2711;1.0004;
38.4000;0.2776;1.0222;
38.7000;0.2711;1.0125;
39.0000;0.2727;1.0125;
39.3000;0.2711;1.0100;
39.6000;0.2719;1.0100;
39.9000;0.2662;0.9907;
40.2000;0.2776;1.0125;
40.5000;0.2727;0.9907;
40.8000;0.2711;0.9858;
41.1000;0.2719;0.9834;
41.4000;0.2711;0.9834;
41.7000;0.2702;0.9858;
42.0000;0.2711;0.9858;
42.3000;0.2751;0.9931;
42.6000;0.2719;0.9907;
42.9000;0.2686;0.9834;
43.2000;0.2662;0.9737;
43.5000;0.2711;0.9810;
43.8000;0.2719;0.9810;
44.1000;0.2702;0.9907;
44.4000;0.2719;0.9931;
44.7000;0.2735;1.0028;
45.0000;0.2686;0.9931;
45.3000;0.2654;0.9858;
45.6000;0.2702;0.9907;
45.9000;0.2719;0.9955;
46.2000;0.2719;0.9979;
46.5000;0.2702;0.9907;
46.8000;0.2719;0.9979;
47.1000;0.2711;0.9979;
47.4000;0.2719;0.9907;
47.7000;0.2711;0.9882;
48.0000;0.2719;0.9907;
48.3000;0.2694;0.9858;
48.6000;0.2719;0.9834;
48.9000;0.2702;0.9761;
49.2000;0.2711;0.9907;
49.5000;0.2719;0.9955;
49.8000;0.2678;0.9834;
50.1000;0.2735;0.9858;
50.4000;0.2719;0.9882;
50.7000;0.2719;0.9931;
51.0000;0.2719;0.9882;
51.3000;0.2727;0.9907;
51.6000;0.2702;0.9931;
51.9000;0.2711;0.9979;
52.2000;0.2735;0.9955;
52.5000;0.2694;0.9955;
52.8000;0.2711;0.9931;
53.1000;0.2711;0.9907;
53.4000;0.2719;0.9955;
53.7000;0.2719;0.9882;
54.0000;0.2711;0.9786;
54.3000;0.2719;0.9761;
54.6000;0.2735;0.9737;
54.9000;0.2694;0.9713;
55.2000;0.2686;0.9664;
55.5000;0.2702;0.9761;
55.8000;0.2711;0.9810;
56.1000;0.2711;0.9907;
56.4000;0.2702;0.9834;
56.7000;0.2743;0.9858;
57.0000;0.2711;0.9737;
57.3000;0.2719;0.9761;
57.6000;0.2711;0.9786;
57.9000;0.2686;0.9761;
58.2000;0.2727;0.9858;
58.5000;0.2702;0.9834;
58.8000;0.2711;0.9858;
59.1000;0.2702;0.9907;
59.4000;0.2670;0.9834;
59.7000;0.2694;0.9882;
60.0000;0.2711;0.9931;
60.3000;0.2678;0.9810;
60.6000;0.2727;0.9882;
60.9000;0.2702;0.9882;
61.2000;0.2654;0.9689;
61.5000;0.2784;0.9979;
61.8000;0.2711;0.9786;
62.1000;0.2711;0.9834;
62.4000;0.2711;0.9786;
62.7000;0.2711;0.9761;
63.0000;0.2711;0.9834;
63.3000;0.2702;0.9786;
63.6000;0.2702;0.9810;
63.9000;0.2727;0.9810;
64.2000;0.2711;0.9713;
64.5000;0.2719;0.9761;
64.8000;0.2711;0.9737;
65.1000;0.2727;0.9761;
65.4000;0.2702;0.9689;
65.7000;0.2719;0.9713;
66.0000;0.2711;0.9761;
66.3000;0.2735;0.9882;
66.6000;0.2727;0.9834;
66.9000;0.2702;0.9713;
67.2000;0.2751;0.9810;
67.5000;0.2694;0.9737;
67.8000;0.2719;0.9810;
68.1000;0.2719;0.9810;
68.4000;0.2768;0.9907;
68.7000;0.2702;0.9761;
69.0000;0.2702;0.9689;
69.3000;0.2711;0.9664;
69.6000;0.2711;0.9664;
69.9000;0.2711;0.9713;
70.2000;0.2711;0.9713;
70.5000;0.2719;0.9761;
70.8000;0.2719;0.9737;
71.1000;0.2711;0.9761;
71.4000;0.2719;0.9737;
71.7000;0.2711;0.9737;
72.0000;0.2776;0.9907;
72.3000;0.2686;0.9689;
72.6000;0.2702;0.9786;
72.9000;0.2711;0.9737;
73.2000;0.2711;0.9640;
73.5000;0.2702;0.9616;
73.8000;0.2711;0.9640;
74.1000;0.2711;0.9616;
74.4000;0.2678;0.9616;
74.7000;0.2711;0.9592;
75.0000;0.2759;0.9761;
75.3000;0.2711;0.9616;
75.6000;0.2702;0.9640;
75.9000;0.2702;0.9616;
76.2000;0.2694;0.9640;
76.5000;0.2711;0.9713;
76.8000;0.2702;0.9640;
77.1000;0.2711;0.9640;
77.4000;0.2694;0.9616;
77.7000;0.2702;0.9689;
78.0000;0.2605;0.9471;
78.3000;0.2719;0.9810;
78.6000;0.2694;0.9786;
78.9000;0.2719;0.9882;
79.2000;0.2694;0.9737;
79.5000;0.2702;0.9761;
79.8000;0.2702;0.9761;
80.1000;0.2694;0.9786;
80.4000;0.2694;0.9834;
80.7000;0.2711;0.9858;
81.0000;0.2719;0.9786;
81.3000;0.2727;0.9786;
81.6000;0.2702;0.9737;
81.9000;0.2702;0.9713;
82.2000;0.2702;0.9616;
82.5000;0.2735;0.9737;
82.8000;0.2702;0.9713;
83.1000;0.2678;0.9737;
83.4000;0.2686;0.9786;
83.7000;0.2711;0.9907;
84.0000;0.2694;0.9834;
84.3000;0.2702;0.9882;
84.6000;0.2711;0.9737;
84.9000;0.2686;0.9664;
85.2000;0.2816;1.0028;
85.5000;0.2719;0.9761;
85.8000;0.2719;0.9810;
86.1000;0.2751;0.9882;
86.4000;0.2735;0.9810;
86.7000;0.2719;0.9834;
87.0000;0.2711;0.9737;
87.3000;0.2711;0.9664;
87.6000;0.2702;0.9568;
87.9000;0.2711;0.9616;
88.2000;0.2711;0.9713;
88.5000;0.2711;0.9689;
88.8000;0.2719;0.9664;
89.1000;0.2702;0.9543;
89.4000;0.2694;0.9592;
89.7000;0.2711;0.9737;
90.0000;0.2743;0.9834;
90.3000;0.2727;0.9786;
90.6000;0.2711;0.9689;
90.9000;0.2711;0.9689;
91.2000;0.2759;0.9858;
91.5000;0.2702;0.9737;
91.8000;0.2686;0.9616;
92.1000;0.2768;0.9834;
92.4000;0.2662;0.9592;
92.7000;0.2711;0.9664;
93.0000;0.2719;0.9737;
93.3000;0.2702;0.9737;
93.6000;0.2702;0.9713;
93.9000;0.2776;0.9907;
94.2000;0.2694;0.9713;
94.5000;0.2686;0.9761;
94.8000;0.2702;0.9810;
95.1000;0.2702;0.9834;
95.4000;0.2694;0.9810;
95.7000;0.2711;0.9810;
96.0000;0.2702;0.9858;
96.3000;0.2702;0.9810;
96.6000;0.2711;0.9931;
96.9000;0.2711;0.9907;
97.2000;0.2719;0.9907;
97.5000;0.2759;0.9979;
97.8000;0.2711;0.9858;
98.1000;0.2694;0.9858;
98.4000;0.2711;0.9858;
98.7000;0.2719;0.9882;
99.0000;0.2800;1.0173;
99.3000;0.2678;0.9786;
99.6000;0.2711;0.9786;
99.9000;0.2621;0.9422;
100.2000;0.2702;0.9592;
100.5000;0.2727;0.9689;
100.8000;0.2727;0.9519;
101.1000;0.2711;0.9568;
101.4000;0.2759;0.9689;
101.7000;0.2719;0.9543;
102.0000;0.2711;0.9592;
102.3000;0.2711;0.9616;
102.6000;0.2702;0.9616;
102.9000;0.2759;0.9737;
103.2000;0.2694;0.9761;
103.5000;0.2702;0.9786;
103.8000;0.2719;0.9737;
104.1000;0.2702;0.9713;
104.4000;0.2694;0.9834;
104.7000;0.2686;0.9737;
105.0000;0.2711;0.9858;
105.3000;0.2711;0.9834;
105.6000;0.2694;0.9810;
105.9000;0.2751;1.0052;
106.2000;0.2702;0.9931;
106.5000;0.2678;0.9907;
106.8000;0.2776;1.0125;
107.1000;0.2719;1.0004;
107.4000;0.2702;1.0028;
107.7000;0.2711;1.0028;
108.0000;0.2759;1.0100;
108.3000;0.2727;0.9979;
108.6000;0.2711;0.9882;
108.9000;0.2711;0.9858;
109.2000;0.2702;0.9834;
109.5000;0.2702;0.9810;
109.8000;0.2711;0.9834;
110.1000;0.2735;0.9931;
110.4000;0.2694;0.9737;
110.7000;0.2711;0.9810;
111.0000;0.2605;0.9543;
111.3000;0.2694;0.9761;
111.6000;0.2719;0.9834;
111.9000;0.2686;0.9810;
112.2000;0.2686;0.9786;
112.5000;0.2711;0.9761;
112.8000;0.2499;0.9180;
113.1000;0.2694;0.9737;
113.4000;0.2678;0.9689;
113.7000;0.2711;0.9786;
114.0000;0.2654;0.9689;
114.3000;0.2719;0.9761;
114.6000;0.2694;0.9786;
114.9000;0.2711;0.9882;
115.2000;0.2711;1.0004;
115.5000;0.2694;0.9979;
115.8000;0.2719;1.0076;
116.1000;0.2694;1.0004;
116.4000;0.2759;1.0125;
116.7000;0.2694;0.9931;
117.0000;0.2670;0.9858;
117.3000;0.2589;0.9640;
117.6000;0.2711;0.9979;
117.9000;0.2702;0.9955;
118.2000;0.2686;0.9931;
118.5000;0.2702;0.9882;
118.8000;0.2702;0.9834;
119.1000;0.2711;0.9858;
119.4000;0.2702;0.9810;
119.7000;0.2702;0.9931;
120.0000;0.2735;1.0028;
120.3000;0.2702;0.9955;
120.6000;0.2670;0.9907;
120.9000;0.2759;1.0125;
121.2000;0.2719;1.0004;
121.5000;0.2759;1.0125;
121.8000;0.2702;1.0004;
122.1000;0.2670;0.9955;
122.4000;0.2702;1.0052;
122.7000;0.2678;1.0004;
123.0000;0.2711;1.0076;
123.3000;0.2711;1.0052;
123.6000;0.2686;1.0149;
123.9000;0.2694;1.0173;
124.2000;0.2694;1.0222;
124.5000;0.2694;1.0197;
124.8000;0.2702;1.0222;
125.1000;0.2702;1.0149;
125.4000;0.2759;1.0343;
125.7000;0.2702;1.0173;
126.0000;0.2711;1.0052;
126.3000;0.2702;0.9955;
126.6000;0.2654;0.9858;
126.9000;0.2711;1.0125;
127.2000;0.2711;1.0100;
127.5000;0.2694;1.0076;
127.8000;0.2670;1.0004;
128.1000;0.2711;1.0100;
128.4000;0.2711;1.0052;
128.7000;0.2702;0.9979;
129.0000;0.2711;1.0052;
129.3000;0.2719;1.0076;
129.6000;0.2678;1.0052;
129.9000;0.2694;1.0052;
130.2000;0.2702;1.0076;
130.5000;0.2670;1.0004;
130.8000;0.2727;1.0125;
131.1000;0.2727;1.0052;
131.4000;0.2727;1.0028;
131.7000;0.2719;0.9979;
132.0000;0.2702;0.9907;
132.3000;0.2686;0.9955;
132.6000;0.2776;1.0246;
132.9000;0.2719;1.0197;
133.2000;0.2711;1.0125;
133.5000;0.2670;1.0100;
133.8000;0.2694;1.0125;
134.1000;0.2694;1.0100;
134.4000;0.2751;1.0149;
134.7000;0.2702;0.9955;
135.0000;0.2702;1.0028;
135.3000;0.2678;0.9979;
135.6000;0.2719;1.0028;
135.9000;0.2621;0.9689;
136.2000;0.2694;0.9931;
136.5000;0.2694;0.9882;
136.8000;0.2702;0.9882;
137.1000;0.2702;0.9834;
137.4000;0.2702;0.9882;
137.7000;0.2711;0.9979;
138.0000;0.2702;1.0149;
138.3000;0.2686;1.0100;
138.6000;0.2711;1.0149;
138.9000;0.2702;1.0197;
139.2000;0.2694;1.0197;
139.5000;0.2702;1.0100;
139.8000;0.2678;1.0052;
140.1000;0.2694;1.0149;
140.4000;0.2711;1.0173;
140.7000;0.2711;1.0197;
141.0000;0.2711;1.0149;
141.3000;0.2711;1.0149;
141.6000;0.2686;1.0173;
141.9000;0.2686;1.0125;
142.2000;0.2694;1.0100;
142.5000;0.2694;1.0028;
142.8000;0.2702;1.0125;
143.1000;0.2702;1.0149;
143.4000;0.2727;1.0173;
143.7000;0.2686;1.0100;
144.0000;0.2702;1.0100;
144.3000;0.2694;1.0076;
144.6000;0.2694;0.9955;
144.9000;0.2825;1.0246;
145.2000;0.2719;0.9955;
145.5000;0.2662;0.9834;
145.8000;0.2711;0.9931;
146.1000;0.2702;0.9907;
146.4000;0.2702;0.9955;
146.7000;0.2727;1.0028;
147.0000;0.2678;0.9931;
147.3000;0.2646;0.9858;
147.6000;0.2711;1.0004;
147.9000;0.2759;1.0197;
148.2000;0.2702;0.9979;
148.5000;0.2605;0.9713;
148.8000;0.2743;1.0125;
149.1000;0.2694;1.0028;
149.4000;0.2711;1.0125;
149.7000;0.2686;1.0100;
150.0000;0.2702;1.0149;
150.3000;0.2694;1.0173;
150.6000;0.2711;1.0125;
150.9000;0.2711;1.0076;
151.2000;0.2654;0.9979;
151.5000;0.2702;1.0076;
151.8000;0.2678;0.9907;
152.1000;0.2711;1.0076;
152.4000;0.2711;1.0173;
152.7000;0.2686;1.0076;
153.0000;0.2686;1.0125;
153.3000;0.2662;0.9979;
153.6000;0.2735;1.0197;
153.9000;0.2768;1.0246;
154.2000;0.2694;1.0052;
154.5000;0.2702;1.0052;
154.8000;0.2711;1.0222;
155.1000;0.2702;1.0173;
155.4000;0.2694;1.0222;
155.7000;0.2702;1.0222;
156.0000;0.2719;1.0173;
156.3000;0.2702;1.0100;
156.6000;0.2735;1.0173;
156.9000;0.2686;1.0028;
157.2000;0.2686;1.0100;
157.5000;0.2727;1.0149;
157.8000;0.2597;0.9834;
158.1000;0.2694;1.0028;
158.4000;0.2711;1.0028;
158.7000;0.2711;1.0004;
159.0000;0.2694;0.9931;
159.3000;0.2711;0.9931;
159.6000;0.2711;1.0052;
159.9000;0.2678;0.9979;
160.2000;0.2702;1.0028;
160.5000;0.2702;1.0004;
160.8000;0.2702;0.9907;
161.1000;0.2702;0.9931;
161.4000;0.2702;0.9979;
161.7000;0.2646;0.9858;
162.0000;0.2694;1.0004;
162.3000;0.2702;1.0004;
162.6000;0.2727;1.0004;
162.9000;0.2702;0.9955;
163.2000;0.2702;0.9931;
163.5000;0.2711;0.9907;
163.8000;0.2735;0.9931;
164.1000;0.2711;0.9834;
164.4000;0.2678;0.9786;
164.7000;0.2702;0.9931;
165.0000;0.2711;0.9931;
165.3000;0.2702;0.9979;
165.6000;0.2702;0.9931;
165.9000;0.2711;0.9979;
166.2000;0.2702;0.9858;
166.5000;0.2670;0.9858;
166.8000;0.2694;0.9882;
167.1000;0.2702;0.9955;
167.4000;0.2735;1.0052;
167.7000;0.2702;1.0052;
168.0000;0.2678;0.9931;
168.3000;0.2678;0.9907;
168.6000;0.2702;0.9931;
168.9000;0.2694;0.9907;
169.2000;0.2694;0.9931;
169.5000;0.2605;0.9616;
169.8000;0.2702;0.9882;
170.1000;0.2694;0.9882;
170.4000;0.2694;0.9907;
170.7000;0.2670;0.9810;
171.0000;0.2711;0.9810;
171.3000;0.2597;0.9519;
171.6000;0.2597;0.9519;
171.9000;0.2686;0.9737;
172.2000;0.2702;0.9761;
172.5000;0.2694;0.9761;
172.8000;0.2711;0.9810;
173.1000;0.2694;0.9761;
173.4000;0.2694;0.9737;
173.7000;0.2711;0.9834;
174.0000;0.2711;0.9761;
174.3000;0.2662;0.9664;
174.6000;0.2702;0.9810;
174.9000;0.2711;0.9737;
175.2000;0.2621;0.9543;
175.5000;0.2702;0.9761;
175.8000;0.2694;0.9834;
176.1000;0.2719;0.9810;
176.4000;0.2768;0.9979;
176.7000;0.2686;0.9761;
177.0000;0.2686;0.9761;
177.3000;0.2678;0.9834;
177.6000;0.2678;0.9786;
177.9000;0.2702;0.9882;
178.2000;0.2711;0.9955;
178.5000;0.2702;0.9882;
178.8000;0.2686;0.9810;
179.1000;0.2711;0.9810;
179.4000;0.2735;0.9882;
179.7000;0.2678;0.9737;
180.0000;0.2694;0.9761;
180.3000;0.2678;0.9616;
180.6000;0.2678;0.9592;
180.9000;0.2694;0.9689;
181.2000;0.2702;0.9786;
181.5000;0.2678;0.9713;
181.8000;0.2686;0.9786;
182.1000;0.2662;0.9761;
182.4000;0.2686;0.9761;
182.7000;0.2702;0.9810;
183.0000;0.2694;0.9664;
183.3000;0.2694;0.9713;
183.6000;0.2670;0.9689;
183.9000;0.2694;0.9737;
184.2000;0.2727;0.9810;
184.5000;0.2686;0.9834;
184.8000;0.2711;0.9931;
185.1000;0.2629;0.9640;
185.4000;0.2670;0.9713;
185.7000;0.2719;0.9761;
186.0000;0.2711;0.9761;
186.3000;0.2702;0.9810;
186.6000;0.2694;0.9931;
186.9000;0.2694;0.9882;
187.2000;0.2694;0.9810;
187.5000;0.2686;0.9786;
187.8000;0.2711;0.9761;
188.1000;0.2711;0.9616;
188.4000;0.2711;0.9640;
188.7000;0.2711;0.9664;
189.0000;0.2654;0.9519;
189.3000;0.2678;0.9543;
189.6000;0.2711;0.9689;
189.9000;0.2702;0.9761;
190.2000;0.2768;0.9931;
190.5000;0.2711;0.9761;
190.8000;0.2702;0.9858;
191.1000;0.2702;0.9907;
191.4000;0.2694;0.9858;
191.7000;0.2711;0.9882;
192.0000;0.2694;0.9858;
192.3000;0.2751;0.9979;
192.6000;0.2702;0.9810;
192.9000;0.2702;0.9810;
193.2000;0.2694;0.9761;
193.5000;0.2702;0.9713;
193.8000;0.2702;0.9592;
194.1000;0.2694;0.9640;
194.4000;0.2686;0.9616;
194.7000;0.2694;0.9640;
195.0000;0.2686;0.9616;
195.3000;0.2735;0.9689;
195.6000;0.2711;0.9664;
195.9000;0.2711;0.9689;
196.2000;0.2686;0.9689;
196.5000;0.2678;0.9713;
196.8000;0.2702;0.9786;
197.1000;0.2719;0.9834;
197.4000;0.2678;0.9786;
197.7000;0.2662;0.9786;
198.0000;0.2694;0.9834;
198.3000;0.2702;0.9810;
198.6000;0.2759;0.9955;
198.9000;0.2702;0.9761;
199.2000;0.2646;0.9664;
199.5000;0.2702;0.9737;
199.8000;0.2702;0.9713;
200.1000;0.2662;0.9616;
200.4000;0.2702;0.9786;
200.7000;0.2711;0.9810;
201.0000;0.2702;0.9858;
201.3000;0.2759;0.9979;
201.6000;0.2694;0.9858;
201.9000;0.2694;0.9761;
202.2000;0.2702;0.9761;
202.5000;0.2735;0.9834;
202.8000;0.2686;0.9689;
203.1000;0.2702;0.9689;
203.4000;0.2702;0.9689;
203.7000;0.2694;0.9689;
204.0000;0.2694;0.9786;
204.3000;0.2702;0.9834;
204.6000;0.2702;0.9907;
204.9000;0.2694;0.9858;
205.2000;0.2702;0.9834;
205.5000;0.2711;0.9834;
205.8000;0.2719;0.9810;
206.1000;0.2711;0.9786;
206.4000;0.2694;0.9834;
206.7000;0.2686;0.9858;
207.0000;0.2694;0.9882;
207.3000;0.2702;0.9882;
207.6000;0.2686;0.9786;
207.9000;0.2759;0.9907;
208.2000;0.2670;0.9689;
208.5000;0.2686;0.9761;
208.8000;0.2686;0.9689;
209.1000;0.2694;0.9640;
209.4000;0.2694;0.9664;
209.7000;0.2678;0.9737;
210.0000;0.2727;0.9931;
210.3000;0.2719;0.9907;
210.6000;0.2702;0.9858;
210.9000;0.2711;0.9882;
211.2000;0.2654;0.9616;
211.5000;0.2702;0.9761;
211.8000;0.2694;0.9713;
212.1000;0.2686;0.9664;
212.4000;0.2694;0.9664;
212.7000;0.2694;0.9713;
213.0000;0.2670;0.9689;
213.3000;0.2694;0.9713;
213.6000;0.2686;0.9713;
213.9000;0.2686;0.9592;
214.2000;0.2702;0.9592;
214.5000;0.2711;0.9616;
214.8000;0.2694;0.9543;
215.1000;0.2702;0.9664;
215.4000;0.2694;0.9689;
215.7000;0.2768;0.9858;
216.0000;0.2719;0.9834;
216.3000;0.2711;0.9882;
216.6000;0.2662;0.9786;
216.9000;0.2784;1.0100;
217.2000;0.2711;0.9810;
217.5000;0.2727;0.9907;
217.8000;0.2621;0.9640;
218.1000;0.2727;0.9858;
218.4000;0.2727;0.9931;
218.7000;0.2589;0.9640;
219.0000;0.2694;0.9931;
219.3000;0.2686;0.9810;
219.6000;0.2686;0.9786;
219.9000;0.2686;0.9834;
220.2000;0.2694;0.9786;
220.5000;0.2686;0.9713;
220.8000;0.2694;0.9713;
221.1000;0.2678;0.9713;
221.4000;0.2702;0.9786;
221.7000;0.2694;0.9858;
222.0000;0.2694;0.9858;
222.3000;0.2670;0.9907;
222.6000;0.2694;0.9955;
222.9000;0.2694;0.9979;
223.2000;0.2702;1.0004;
223.5000;0.2686;0.9907;
223.8000;0.2702;1.0028;
224.1000;0.2613;0.9737;
224.4000;0.2621;0.9761;
224.7000;0.2702;0.9979;
225.0000;0.2694;1.0028;
225.3000;0.2711;0.9931;
225.6000;0.2719;0.9955;
225.9000;0.2825;1.0149;
226.2000;0.2759;0.9979;
226.5000;0.2686;0.9882;
226.8000;0.2686;0.9907;
227.1000;0.2686;0.9931;
227.4000;0.2694;0.9931;
227.7000;0.2711;0.9931;
228.0000;0.2662;0.9907;
228.3000;0.2670;0.9931;
228.6000;0.2686;0.9955;
228.9000;0.2686;0.9955;
229.2000;0.2686;0.9955;
229.5000;0.2686;0.9979;
229.8000;0.2702;0.9931;
230.1000;0.2719;0.9979;
230.4000;0.2694;1.0028;
230.7000;0.2694;1.0052;
231.0000;0.2686;1.0076;
231.3000;0.2686;0.9979;
231.6000;0.2694;0.9955;
231.9000;0.2686;0.9882;
232.2000;0.2743;1.0125;
232.5000;0.2686;0.9882;
232.8000;0.2686;0.9858;
233.1000;0.2702;1.0004;
233.4000;0.2686;0.9907;
233.7000;0.2686;0.9858;
234.0000;0.2702;0.9858;
234.3000;0.2686;0.9858;
234.6000;0.2662;0.9664;
234.9000;0.2694;0.9786;
235.2000;0.2662;0.9786;
235.5000;0.2702;0.9858;
235.8000;0.2678;0.9689;
236.1000;0.2694;0.9689;
236.4000;0.2686;0.9616;
236.7000;0.2702;0.9640;
237.0000;0.2678;0.9664;
237.3000;0.2711;0.9810;
237.6000;0.2670;0.9689;
237.9000;0.2678;0.9713;
238.2000;0.2694;0.9786;
238.5000;0.2751;0.9955;
238.8000;0.2686;0.9786;
239.1000;0.2621;0.9616;
239.4000;0.2686;0.9810;
239.7000;0.2678;0.9810;
240.0000;0.2662;0.9761;
240.3000;0.2686;0.9713;
240.6000;0.2646;0.9689;
240.9000;0.2580;0.9616;
241.2000;0.2662;0.9955;
241.5000;0.2808;1.0270;
241.8000;0.2694;1.0076;
242.1000;0.2751;1.0100;
242.4000;0.2678;0.9882;
242.7000;0.2670;0.9834;
243.0000;0.2686;0.9834;
243.3000;0.2702;0.9834;
243.6000;0.2686;0.9810;
243.9000;0.2776;0.9931;
244.2000;0.2727;0.9786;
244.5000;0.2662;0.9616;
244.8000;0.2662;0.9519;
245.1000;0.2678;0.9592;
245.4000;0.2646;0.9592;
245.7000;0.2686;0.9664;
246.0000;0.2735;0.9689;
246.3000;0.2711;0.9689;
246.6000;0.2702;0.9664;
246.9000;0.2694;0.9616;
247.2000;0.2694;0.9640;
247.5000;0.2751;0.9737;
247.8000;0.2694;0.9640;
248.1000;0.2670;0.9640;
248.4000;0.2589;0.9471;
248.7000;0.2719;0.9907;
249.0000;0.2792;1.0197;
249.3000;0.2694;0.9931;
249.6000;0.2678;0.9882;
249.9000;0.2621;0.9640;
250.2000;0.2719;0.9882;
250.5000;0.2686;0.9737;
250.8000;0.2686;0.9713;
251.1000;0.2702;0.9761;
251.4000;0.2678;0.9737;
251.7000;0.2711;0.9761;
252.0000;0.2702;0.9834;
252.3000;0.2686;0.9761;
252.6000;0.2686;0.9761;
252.9000;0.2702;0.9713;
253.2000;0.2702;0.9761;
253.5000;0.2694;0.9713;
253.8000;0.2694;0.9664;
254.1000;0.2670;0.9568;
254.4000;0.2621;0.9446;
254.7000;0.2702;0.9713;
255.0000;0.2694;0.9737;
255.3000;0.2686;0.9664;
255.6000;0.2686;0.9664;
255.9000;0.2686;0.9689;
256.2000;0.2702;0.9713;
256.5000;0.2702;0.9640;
256.8000;0.2702;0.9664;
257.1000;0.2694;0.9689;
257.4000;0.2686;0.9664;
257.7000;0.2702;0.9713;
258.0000;0.2686;0.9713;
258.3000;0.2686;0.9737;
258.6000;0.2678;0.9713;
258.9000;0.2670;0.9616;
259.2000;0.2686;0.9616;
259.5000;0.2694;0.9640;
259.8000;0.2678;0.9640;
260.1000;0.2694;0.9761;
260.4000;0.2670;0.9737;
260.7000;0.2670;0.9713;
261.0000;0.2768;1.0004;
261.3000;0.2694;0.9761;
261.6000;0.2589;0.9471;
261.9000;0.2702;0.9689;
262.2000;0.2686;0.9713;
262.5000;0.2719;0.9713;
262.8000;0.2686;0.9689;
263.1000;0.2686;0.9689;
263.4000;0.2621;0.9495;
263.7000;0.2670;0.9640;
264.0000;0.2702;0.9761;
264.3000;0.2743;0.9882;
264.6000;0.2686;0.9737;
264.9000;0.2702;0.9858;
265.2000;0.2735;0.9882;
265.5000;0.2694;0.9786;
265.8000;0.2686;0.9761;
266.1000;0.2670;0.9664;
266.4000;0.2670;0.9689;
266.7000;0.2686;0.9689;
267.0000;0.2670;0.9640;
267.3000;0.2686;0.9616;
267.6000;0.2694;0.9592;
267.9000;0.2686;0.9495;
268.2000;0.2694;0.9495;
268.5000;0.2711;0.9616;
268.8000;0.2686;0.9568;
269.1000;0.2654;0.9471;
269.4000;0.2686;0.9568;
269.7000;0.2694;0.9543;
270.0000;0.2686;0.9543;
270.3000;0.2686;0.9616;
270.6000;0.2662;0.9568;
270.9000;0.2678;0.9664;
271.2000;0.2686;0.9616;
271.5000;0.2719;0.9664;
271.8000;0.2694;0.9592;
272.1000;0.2694;0.9640;
272.4000;0.2670;0.9616;
272.7000;0.2694;0.9713;
273.0000;0.2637;0.9568;
273.3000;0.2589;0.9398;
273.6000;0.2694;0.9640;
273.9000;0.2686;0.9640;
274.2000;0.2686;0.9568;
274.5000;0.2686;0.9616;
274.8000;0.2686;0.9616;
275.1000;0.2694;0.9713;
275.4000;0.2686;0.9713;
275.7000;0.2670;0.9761;
276.0000;0.2686;0.9761;
276.3000;0.2694;0.9737;
276.6000;0.2694;0.9737;
276.9000;0.2686;0.9737;
277.2000;0.2694;0.9737;
277.5000;0.2686;0.9737;
277.8000;0.2694;0.9737;
278.1000;0.2686;0.9761;
278.4000;0.2686;0.9713;
278.7000;0.2711;0.9761;
279.0000;0.2694;0.9713;
279.3000;0.2711;0.9810;
279.6000;0.2670;0.9737;
279.9000;0.2694;0.9810;
280.2000;0.2670;0.9786;
280.5000;0.2694;0.9786;
280.8000;0.2694;0.9761;
281.1000;0.2686;0.9737;
281.4000;0.2727;0.9882;
281.7000;0.2670;0.9810;
282.0000;0.2686;0.9834;
282.3000;0.2727;0.9882;
282.6000;0.2694;0.9786;
282.9000;0.2702;0.9810;
283.2000;0.2678;0.9761;
283.5000;0.2686;0.9882;
283.8000;0.2686;0.9834;
284.1000;0.2711;0.9882;
284.4000;0.2662;0.9882;
284.7000;0.2694;1.0004;
285.0000;0.2670;0.9858;
285.3000;0.2670;0.9786;
285.6000;0.2711;0.9761;
285.9000;0.2678;0.9737;
286.2000;0.2678;0.9737;
286.5000;0.2719;0.9786;
286.8000;0.2686;0.9713;
287.1000;0.2686;0.9689;
287.4000;0.2711;0.9786;
287.7000;0.2694;0.9664;
288.0000;0.2702;0.9761;
288.3000;0.2694;0.9616;
288.6000;0.2702;0.9616;
288.9000;0.2694;0.9616;
289.2000;0.2678;0.9737;
289.5000;0.2735;0.9882;
289.8000;0.2686;0.9882;
290.1000;0.2678;0.9907;
290.4000;0.2678;0.9786;
290.7000;0.2702;0.9882;
291.0000;0.2678;0.9955;
291.3000;0.2670;0.9882;
291.6000;0.2686;0.9810;
291.9000;0.2694;0.9858;
292.2000;0.2621;0.9568;
292.5000;0.2678;0.9786;
292.8000;0.2694;0.9858;
293.1000;0.2694;0.9834;
293.4000;0.2686;0.9737;
293.7000;0.2694;0.9810;
294.0000;0.2694;0.9907;
294.3000;0.2686;0.9834;
294.6000;0.2711;0.9834;
294.9000;0.2694;0.9955;
295.2000;0.2670;0.9907;
295.5000;0.2686;0.9955;
295.8000;0.2686;0.9834;
296.1000;0.2637;0.9737;
296.4000;0.2670;0.9834;
296.7000;0.2670;0.9882;
297.0000;0.2686;0.9907;
297.3000;0.2686;0.9713;
297.6000;0.2670;0.9689;
297.9000;0.2694;0.9761;
298.2000;0.2678;0.9737;
298.5000;0.2694;0.9737;
298.8000;0.2686;0.9713;
299.1000;0.2686;0.9737;
299.4000;0.2694;0.9689;
299.7000;0.2694;0.9689;
300.0000;0.2702;0.9737;
300.3000;0.2694;0.9689;
300.6000;0.2694;0.9616;
300.9000;0.2678;0.9519;
301.2000;0.2711;0.9592;
301.5000;0.2678;0.9568;
301.8000;0.2686;0.9592;
302.1000;0.2678;0.9664;
302.4000;0.2727;0.9907;
302.7000;0.2694;0.9786;
303.0000;0.2686;0.9786;
303.3000;0.2808;1.0076;
303.6000;0.2670;0.9640;
303.9000;0.2702;0.9786;
304.2000;0.2694;0.9737;
304.5000;0.2694;0.9737;
304.8000;0.2694;0.9810;
305.1000;0.2670;0.9713;
305.4000;0.2686;0.9713;
305.7000;0.2654;0.9689;
306.0000;0.2678;0.9737;
306.3000;0.2548;0.9471;
306.6000;0.2686;0.9907;
306.9000;0.2686;0.9834;
307.2000;0.2702;0.9786;
307.5000;0.2686;0.9713;
307.8000;0.2686;0.9664;
308.1000;0.2678;0.9689;
308.4000;0.2735;0.9834;
308.7000;0.2686;0.9689;
309.0000;0.2597;0.9471;
309.3000;0.2646;0.9616;
309.6000;0.2621;0.9592;
309.9000;0.2702;0.9713;
310.2000;0.2670;0.9640;
310.5000;0.2646;0.9568;
310.8000;0.2694;0.9664;
311.1000;0.2629;0.9495;
311.4000;0.2711;0.9689;
311.7000;0.2678;0.9664;
312.0000;0.2694;0.9737;
312.3000;0.2678;0.9786;
312.6000;0.2694;0.9713;
312.9000;0.2686;0.9761;
313.2000;0.2662;0.9664;
313.5000;0.2694;0.9713;
313.8000;0.2686;0.9640;
314.1000;0.2702;0.9689;
314.4000;0.2597;0.9471;
314.7000;0.2702;0.9713;
315.0000;0.2686;0.9689;
315.3000;0.2751;0.9882;
315.6000;0.2711;0.9810;
315.9000;0.2694;0.9858;
316.2000;0.2686;0.9882;
316.5000;0.2678;0.9858;
316.8000;0.2670;0.9786;
317.1000;0.2743;0.9931;
317.4000;0.2678;0.9858;
317.7000;0.2670;0.9810;
318.0000;0.2662;0.9786;
318.3000;0.2686;0.9858;
318.6000;0.2694;0.9858;
318.9000;0.2694;0.9834;
319.2000;0.2670;0.9761;
319.5000;0.2686;0.9858;
319.8000;0.2694;0.9882;
320.1000;0.2686;0.9907;
320.4000;0.2678;0.9834;
320.7000;0.2686;0.9834;
321.0000;0.2694;0.9907;
321.3000;0.2686;0.9931;
321.6000;0.2686;0.9907;
321.9000;0.2759;1.0076;
322.2000;0.2702;0.9931;
322.5000;0.2686;0.9882;
322.8000;0.2678;0.9955;
323.1000;0.2670;0.9907;
323.4000;0.2711;1.0004;
323.7000;0.2678;0.9907;
324.0000;0.2678;0.9907;
324.3000;0.2694;1.0028;
324.6000;0.2678;0.9931;
324.9000;0.2686;0.9882;
325.2000;0.2678;0.9858;
325.5000;0.2670;0.9955;
325.8000;0.2678;0.9979;
326.1000;0.2711;1.0052;
326.4000;0.2702;0.9907;
326.7000;0.2670;0.9786;
327.0000;0.2694;0.9931;
327.3000;0.2613;0.9761;
327.6000;0.2686;1.0028;
327.9000;0.2670;0.9931;
328.2000;0.2670;0.9786;
328.5000;0.2678;0.9882;
328.8000;0.2711;0.9858;
329.1000;0.2702;0.9713;
329.4000;0.2678;0.9689;
329.7000;0.2694;0.9737;
330.0000;0.2711;0.9810;
330.3000;0.2678;0.9664;
330.6000;0.2678;0.9737;
330.9000;0.2694;0.9810;
331.2000;0.2678;0.9761;
331.5000;0.2694;0.9737;
331.8000;0.2686;0.9761;
332.1000;0.2678;0.9761;
332.4000;0.2694;0.9834;
332.7000;0.2686;0.9810;
333.0000;0.2702;0.9858;
333.3000;0.2686;0.9955;
333.6000;0.2613;0.9761;
333.9000;0.2678;0.9907;
334.2000;0.2686;0.9907;
334.5000;0.2670;0.9786;
334.8000;0.2694;0.9810;
335.1000;0.2694;0.9907;
335.4000;0.2702;0.9931;
335.7000;0.2678;0.9955;
336.0000;0.2702;1.0028;
336.3000;0.2686;0.9979;
336.6000;0.2686;0.9955;
336.9000;0.2711;1.0076;
337.2000;0.2702;1.0028;
337.5000;0.2670;0.9979;
337.8000;0.2694;0.9931;
338.1000;0.2694;0.9882;
338.4000;0.2727;0.9955;
338.7000;0.2735;0.9955;
339.0000;0.2759;0.9979;
339.3000;0.2629;0.9568;
339.6000;0.2637;0.9568;
339.9000;0.2646;0.9616;
340.2000;0.2768;0.9882;
340.5000;0.2646;0.9664;
340.8000;0.2694;0.9810;
341.1000;0.2759;0.9979;
341.4000;0.2759;0.9955;
341.7000;0.2702;0.9640;
342.0000;0.2662;0.9568;
342.3000;0.2711;0.9689;
342.6000;0.2678;0.9810;
342.9000;0.2694;0.9931;
343.2000;0.2694;0.9858;
343.5000;0.2686;0.9810;
343.8000;0.2694;0.9882;
344.1000;0.2678;0.9834;
344.4000;0.2711;0.9858;
344.7000;0.2678;0.9786;
345.0000;0.2694;0.9858;
345.3000;0.2694;0.9882;
345.6000;0.2678;0.9858;
345.9000;0.2637;0.9737;
346.2000;0.2670;0.9882;
346.5000;0.2694;1.0028;
346.8000;0.2686;1.0052;
347.1000;0.2678;0.9931;
347.4000;0.2702;0.9979;
347.7000;0.2694;0.9858;
348.0000;0.2686;0.9907;
348.3000;0.2694;0.9955;
348.6000;0.2670;0.9882;
348.9000;0.2670;0.9834;
349.2000;0.2686;0.9882;
349.5000;0.2686;0.9858;
349.8000;0.2678;0.9858;
350.1000;0.2670;0.9858;
350.4000;0.2621;0.9761;
350.7000;0.2702;0.9979;
351.0000;0.2702;1.0052;
351.3000;0.2694;1.0052;
351.6000;0.2686;1.0028;
351.9000;0.2670;0.9834;
352.2000;0.2662;0.9882;
352.5000;0.2678;0.9882;
352.8000;0.2670;0.9858;
353.1000;0.2702;0.9907;
353.4000;0.2646;0.9858;
353.7000;0.2670;0.9931;
354.0000;0.2678;0.9907;
354.3000;0.2694;0.9810;
354.6000;0.2686;0.9786;
354.9000;0.2694;0.9858;
355.2000;0.2686;0.9834;
355.5000;0.2670;0.9907;
355.8000;0.2735;1.0100;
356.1000;0.2759;1.0197;
356.4000;0.2654;0.9955;
356.7000;0.2743;1.0149;
357.0000;0.2597;0.9858;
357.3000;0.2686;1.0052;
357.6000;0.2662;0.9907;
357.9000;0.2686;0.9858;
358.2000;0.2621;0.9592;
358.5000;0.2800;1.0125;
358.8000;0.2678;0.9882;
359.1000;0.2686;1.0004;
359.4000;0.2678;0.9907;
359.7000;0.2792;1.0270;
360.0000;0.2702;1.0028;
360.3000;0.2678;0.9882;
360.6000;0.2686;1.0004;
360.9000;0.2678;0.9955;
361.2000;0.2694;0.9979;
361.5000;0.2662;0.9882;
361.8000;0.2686;0.9882;
362.1000;0.2711;0.9979;
362.4000;0.2751;1.0076;
362.7000;0.2694;0.9810;
363.0000;0.2686;0.9761;
363.3000;0.2711;0.9882;
363.6000;0.2727;0.9882;
363.9000;0.2686;0.9761;
364.2000;0.2768;1.0004;
364.5000;0.2719;0.9834;
364.8000;0.2686;0.9761;
365.1000;0.2662;0.9713;
365.4000;0.2686;0.9689;
365.7000;0.2686;0.9664;
366.0000;0.2678;0.9689;
366.3000;0.2678;0.9713;
366.6000;0.2678;0.9834;
366.9000;0.2678;0.9786;
367.2000;0.2678;0.9882;
367.5000;0.2670;0.9834;
367.8000;0.2654;0.9858;
368.1000;0.2686;0.9931;
368.4000;0.2686;0.9907;
368.7000;0.2686;0.9955;
369.0000;0.2694;0.9955;
369.3000;0.2743;1.0076;
369.6000;0.2686;0.9955;
369.9000;0.2825;1.0343;
370.2000;0.2670;0.9931;
370.5000;0.2678;0.9955;
370.8000;0.2686;0.9955;
371.1000;0.2686;1.0100;
371.4000;0.2670;1.0004;
371.7000;0.2686;1.0052;
372.0000;0.2678;1.0052;
372.3000;0.2694;1.0149;
372.6000;0.2694;1.0100;
372.9000;0.2678;1.0004;
373.2000;0.2678;1.0076;
373.5000;0.2678;1.0004;
373.8000;0.2694;1.0100;
374.1000;0.2686;1.0149;
374.4000;0.2719;1.0222;
374.7000;0.2694;1.0028;
375.0000;0.2702;1.0100;
375.3000;0.2678;0.9979;
375.6000;0.2702;0.9979;
375.9000;0.2694;0.9979;
376.2000;0.2662;0.9907;
376.5000;0.2694;0.9834;
376.8000;0.2694;0.9761;
377.1000;0.2662;0.9761;
377.4000;0.2711;0.9955;
377.7000;0.2686;0.9931;
378.0000;0.2613;0.9761;
378.3000;0.2694;0.9931;
378.6000;0.2711;0.9955;
378.9000;0.2670;0.9907;
379.2000;0.2678;0.9907;
379.5000;0.2572;0.9664;
379.8000;0.2727;1.0149;
380.1000;0.2686;1.0004;
380.4000;0.2686;1.0028;
380.7000;0.2670;0.9955;
381.0000;0.2654;0.9834;
381.3000;0.2768;1.0100;
381.6000;0.2662;0.9834;
381.9000;0.2694;0.9931;
382.2000;0.2694;0.9931;
382.5000;0.2678;0.9979;
382.8000;0.2702;0.9882;
383.1000;0.2702;0.9882;
383.4000;0.2686;0.9786;
383.7000;0.2694;0.9810;
384.0000;0.2686;0.9786;
384.3000;0.2637;0.9713;
384.6000;0.2694;0.9931;
384.9000;0.2686;0.9882;
385.2000;0.2678;0.9834;
385.5000;0.2670;0.9882;
385.8000;0.2678;0.9931;
386.1000;0.2678;0.9882;
386.4000;0.2678;1.0076;
386.7000;0.2686;1.0100;
387.0000;0.2711;1.0149;
387.3000;0.2686;1.0100;
387.6000;0.2686;1.0125;
387.9000;0.2678;1.0004;
388.2000;0.2686;0.9931;
388.5000;0.2654;0.9858;
388.8000;0.2678;1.0004;
389.1000;0.2670;1.0052;
389.4000;0.2686;1.0052;
389.7000;0.2686;1.0100;
390.0000;0.2694;1.0028;
390.3000;0.2686;0.9955;
390.6000;0.2727;1.0028;
390.9000;0.2686;0.9858;
391.2000;0.2686;0.9882;
391.5000;0.2686;0.9882;
391.8000;0.2702;0.9955;
392.1000;0.2694;0.9931;
392.4000;0.2662;0.9882;
392.7000;0.2686;0.9931;
393.0000;0.2711;0.9955;
393.3000;0.2580;0.9568;
393.6000;0.2686;0.9882;
393.9000;0.2678;0.9907;
394.2000;0.2702;1.0028;
394.5000;0.2678;1.0028;
394.8000;0.2670;0.9931;
395.1000;0.2678;0.9955;
395.4000;0.2605;0.9761;
395.7000;0.2686;0.9882;
396.0000;0.2686;0.9955;
396.3000;0.2711;1.0004;
396.6000;0.2686;0.9931;
396.9000;0.2702;0.9858;
397.2000;0.2686;0.9882;
397.5000;0.2686;0.9834;
397.8000;0.2686;0.9858;
398.1000;0.2702;0.9858;
398.4000;0.2637;0.9664;
398.7000;0.2678;0.9786;
399.0000;0.2670;0.9834;
399.3000;0.2694;0.9907;
399.6000;0.2670;0.9786;
399.9000;0.2662;0.9664;
400.2000;0.2621;0.9640;
400.5000;0.2702;0.9834;
400.8000;0.2678;0.9786;
401.1000;0.2637;0.9616;
401.4000;0.2670;0.9737;
401.7000;0.2694;0.9786;
402.0000;0.2678;0.9786;
402.3000;0.2662;0.9786;
402.6000;0.2678;0.9810;
402.9000;0.2678;0.9737;
403.2000;0.2670;0.9689;
403.5000;0.2670;0.9713;
403.8000;0.2605;0.9568;
404.1000;0.2743;1.0004;
404.4000;0.2678;1.0004;
404.7000;0.2556;0.9713;
405.0000;0.2678;0.9979;
405.3000;0.2678;1.0028;
405.6000;0.2686;1.0004;
405.9000;0.2678;0.9979;
406.2000;0.2678;0.9979;
406.5000;0.2686;1.0076;
406.8000;0.2662;1.0052;
407.1000;0.2662;1.0028;
407.4000;0.2694;1.0076;
407.7000;0.2678;0.9979;
408.0000;0.2686;1.0052;
408.3000;0.2678;0.9931;
408.6000;0.2678;0.9955;
408.9000;0.2751;1.0149;
409.2000;0.2662;0.9907;
409.5000;0.2686;0.9979;
409.8000;0.2702;1.0028;
410.1000;0.2678;0.9979;
410.4000;0.2694;0.9907;
410.7000;0.2694;0.9979;
411.0000;0.2686;0.9907;
411.3000;0.2694;0.9907;
411.6000;0.2670;0.9907;
411.9000;0.2702;0.9979;
412.2000;0.2678;0.9955;
412.5000;0.2694;1.0100;
412.8000;0.2662;0.9931;
413.1000;0.2686;0.9931;
413.4000;0.2678;0.9955;
413.7000;0.2662;0.9955;
414.0000;0.2678;0.9955;
414.3000;0.2678;0.9907;
414.6000;0.2670;0.9882;
414.9000;0.2678;0.9882;
415.2000;0.2711;1.0004;
415.5000;0.2662;0.9858;
415.8000;0.2670;1.0004;
416.1000;0.2686;1.0028;
416.4000;0.2662;0.9882;
416.7000;0.2662;0.9882;
417.0000;0.2678;0.9907;
417.3000;0.2678;0.9955;
417.6000;0.2670;0.9858;
417.9000;0.2686;0.9931;
418.2000;0.2711;1.0004;
418.5000;0.2694;1.0028;
418.8000;0.2702;0.9979;
419.1000;0.2686;0.9955;
419.4000;0.2621;0.9737;
419.7000;0.2686;1.0004;
420.0000;0.2670;0.9907;
420.3000;0.2686;0.9907;
420.6000;0.2678;0.9907;
420.9000;0.2654;0.9834;
421.2000;0.2686;0.9882;
421.5000;0.2678;0.9858;
421.8000;0.2678;0.9834;
422.1000;0.2711;0.9907;
422.4000;0.2711;0.9979;
422.7000;0.2686;0.9931;
423.0000;0.2702;1.0052;
423.3000;0.2686;1.0052;
423.6000;0.2694;1.0125;
423.9000;0.2678;1.0052;
424.2000;0.2686;0.9931;
424.5000;0.2686;0.9931;
424.8000;0.2686;0.9907;
425.1000;0.2694;0.9858;
425.4000;0.2678;0.9858;
425.7000;0.2597;0.9713;
426.0000;0.2686;1.0052;
426.3000;0.2662;1.0028;
426.6000;0.2686;1.0149;
426.9000;0.2678;1.0149;
427.2000;0.2686;1.0197;
427.5000;0.2694;1.0197;
427.8000;0.2662;1.0197;
428.1000;0.2670;1.0125;
428.4000;0.2686;1.0125;
428.7000;0.2678;1.0222;
429.0000;0.2670;1.0173;
429.3000;0.2678;1.0246;
429.6000;0.2694;1.0222;
429.9000;0.2678;1.0076;
430.2000;0.2702;1.0173;
430.5000;0.2670;1.0052;
430.8000;0.2759;1.0294;
431.1000;0.2686;1.0100;
431.4000;0.2686;1.0028;
431.7000;0.2662;0.9955;
432.0000;0.2670;0.9931;
432.3000;0.2686;1.0004;
432.6000;0.2686;0.9931;
432.9000;0.2670;0.9907;
433.2000;0.2654;0.9834;
433.5000;0.2670;0.9931;
433.8000;0.2694;0.9834;
434.1000;0.2686;0.9810;
434.4000;0.2678;0.9882;
434.7000;0.2694;0.9882;
435.0000;0.2670;0.9907;
435.3000;0.2678;0.9907;
435.6000;0.2670;0.9858;
435.9000;0.2678;0.9882;
436.2000;0.2686;0.9955;
436.5000;0.2678;0.9979;
436.8000;0.2678;0.9955;
437.1000;0.2654;0.9955;
437.4000;0.2678;0.9907;
437.7000;0.2662;0.9834;
438.0000;0.2678;0.9834;
438.3000;0.2670;0.9858;
438.6000;0.2686;0.9858;
438.9000;0.2702;0.9858;
439.2000;0.2662;0.9786;
439.5000;0.2694;0.9834;
439.8000;0.2678;0.9786;
440.1000;0.2678;0.9786;
440.4000;0.2654;0.9761;
440.7000;0.2670;0.9882;
441.0000;0.2670;0.9858;
441.3000;0.2686;0.9931;
441.6000;0.2686;0.9979;
441.9000;0.2670;0.9979;
442.2000;0.2694;1.0173;
442.5000;0.2670;1.0197;
442.8000;0.2678;1.0173;
443.1000;0.2702;1.0222;
443.4000;0.2678;1.0076;
443.7000;0.2686;1.0149;
444.0000;0.2702;1.0197;
444.3000;0.2670;1.0173;
444.6000;0.2694;1.0197;
444.9000;0.2694;1.0149;
445.2000;0.2678;1.0197;
445.5000;0.2759;1.0367;
445.8000;0.2686;1.0149;
446.1000;0.2678;1.0197;
446.4000;0.2670;1.0125;
446.7000;0.2678;1.0125;
447.0000;0.2678;1.0100;
447.3000;0.2662;0.9955;
447.6000;0.2678;0.9882;
447.9000;0.2678;0.9931;
448.2000;0.2678;0.9931;
448.5000;0.2702;0.9882;
448.8000;0.2694;0.9786;
449.1000;0.2702;0.9786;
449.4000;0.2686;0.9761;
449.7000;0.2727;0.9834;
450.0000;0.2678;0.9737;
450.3000;0.2694;0.9810;
450.6000;0.2702;0.9858;
450.9000;0.2580;0.9568;
451.2000;0.2686;0.9858;
451.5000;0.2686;0.9907;
451.8000;0.2621;0.9737;
452.1000;0.2678;0.9907;
452.4000;0.2670;0.9907;
452.7000;0.2678;0.9858;
453.0000;0.2678;0.9858;
453.3000;0.2678;0.9858;
453.6000;0.2686;0.9834;
453.9000;0.2686;0.9810;
454.2000;0.2686;0.9858;
454.5000;0.2686;0.9907;
454.8000;0.2580;0.9592;
455.1000;0.2686;0.9834;
455.4000;0.2686;0.9737;
455.7000;0.2686;0.9737;
456.0000;0.2678;0.9689;
456.3000;0.2686;0.9761;
456.6000;0.2670;0.9786;
456.9000;0.2702;0.9834;
457.2000;0.2629;0.9761;
457.5000;0.2662;0.9810;
457.8000;0.2686;0.9882;
458.1000;0.2670;0.9810;
458.4000;0.2678;0.9761;
458.7000;0.2670;0.9761;
459.0000;0.2702;0.9858;
459.3000;0.2702;0.9907;
459.6000;0.2678;0.9907;
459.9000;0.2686;0.9882;
460.2000;0.2678;0.9834;
460.5000;0.2694;0.9907;
460.8000;0.2694;0.9931;
461.1000;0.2670;0.9931;
461.4000;0.2670;0.9979;
461.7000;0.2694;1.0028;
462.0000;0.2678;1.0004;
462.3000;0.2751;1.0149;
462.6000;0.2670;0.9979;
462.9000;0.2654;0.9955;
463.2000;0.2678;1.0004;
463.5000;0.2670;1.0028;
463.8000;0.2670;0.9955;
464.1000;0.2686;0.9979;
464.4000;0.2719;1.0100;
464.7000;0.2670;0.9907;
465.0000;0.2670;0.9931;
465.3000;0.2629;0.9858;
465.6000;0.2694;0.9931;
465.9000;0.2686;0.9955;
466.2000;0.2678;0.9858;
466.5000;0.2670;0.9834;
466.8000;0.2670;0.9882;
467.1000;0.2670;0.9882;
467.4000;0.2678;0.9882;
467.7000;0.2662;0.9931;
468.0000;0.2662;0.9931;
468.3000;0.2686;0.9882;
468.6000;0.2686;0.9907;
468.9000;0.2670;0.9834;
469.2000;0.2686;0.9907;
469.5000;0.2670;0.9858;
469.8000;0.2686;0.9882;
470.1000;0.2686;0.9810;
470.4000;0.2694;0.9786;
470.7000;0.2686;0.9786;
471.0000;0.2686;0.9737;
471.3000;0.2678;0.9737;
471.6000;0.2678;0.9858;
471.9000;0.2678;0.9834;
472.2000;0.2637;0.9737;
472.5000;0.2662;0.9810;
472.8000;0.2702;0.9955;
473.1000;0.2702;1.0028;
473.4000;0.2727;0.9979;
473.7000;0.2678;0.9834;
474.0000;0.2719;0.9931;
474.3000;0.2686;0.9761;
474.6000;0.2768;1.0125;
474.9000;0.2702;0.9882;
475.2000;0.2678;0.9834;
475.5000;0.2702;0.9931;
475.8000;0.2678;0.9810;
476.1000;0.2678;0.9786;
476.4000;0.2678;0.9761;
476.7000;0.2719;0.9834;
477.0000;0.2719;0.9858;
477.3000;0.2694;0.9810;
477.6000;0.2678;0.9834;
477.9000;0.2678;0.9810;
478.2000;0.2662;0.9786;
478.5000;0.2686;0.9931;
478.8000;0.2719;0.9979;
479.1000;0.2727;0.9858;
479.4000;0.2694;0.9786;
479.7000;0.2670;0.9761;
480.0000;0.2759;0.9979;
480.3000;0.2711;0.9810;
480.6000;0.2678;0.9713;
480.9000;0.2686;0.9737;
481.2000;0.2702;0.9858;
481.5000;0.2580;0.9519;
481.8000;0.2694;0.9834;
482.1000;0.2597;0.9664;
482.4000;0.2686;0.9955;
482.7000;0.2629;0.9761;
483.0000;0.2686;0.9882;
483.3000;0.2694;0.9955;
483.6000;0.2702;0.9979;
483.9000;0.2686;0.9931;
484.2000;0.2678;0.9955;
484.5000;0.2662;0.9979;
484.8000;0.2694;0.9955;
485.1000;0.2702;0.9931;
485.4000;0.2637;0.9761;
485.7000;0.2678;0.9834;
486.0000;0.2686;0.9834;
486.3000;0.2678;0.9882;
486.6000;0.2686;0.9979;
486.9000;0.2662;0.9882;
487.2000;0.2678;0.9931;
487.5000;0.2678;0.9907;
487.8000;0.2686;0.9955;
488.1000;0.2670;0.9907;
488.4000;0.2670;1.0028;
488.7000;0.2702;1.0028;
489.0000;0.2686;0.9931;
489.3000;0.2580;0.9689;
489.6000;0.2678;0.9955;
489.9000;0.2678;0.9979;
490.2000;0.2678;0.9907;
490.5000;0.2751;1.0076;
490.8000;0.2670;0.9907;
491.1000;0.2678;0.9955;
491.4000;0.2662;0.9979;
491.7000;0.2662;0.9979;
492.0000;0.2646;0.9907;
492.3000;0.2694;1.0052;
492.6000;0.2686;1.0052;
492.9000;0.2711;1.0100;
493.2000;0.2670;1.0004;
493.5000;0.2629;0.9834;
493.8000;0.2678;0.9955;
494.1000;0.2662;0.9882;
494.4000;0.2686;1.0004;
494.7000;0.2678;0.9979;
495.0000;0.2727;1.0076;
495.3000;0.2727;1.0125;
495.6000;0.2670;0.9834;
495.9000;0.2670;0.9810;
496.2000;0.2662;0.9786;
496.5000;0.2686;0.9907;
496.8000;0.2686;0.9882;
497.1000;0.2670;0.9834;
497.4000;0.2678;0.9858;
497.7000;0.2694;0.9931;
498.0000;0.2662;0.9834;
498.3000;0.2646;0.9640;
498.6000;0.2678;0.9640;
498.9000;0.2637;0.9471;
499.2000;0.2670;0.9471;
499.5000;0.2654;0.9446;
499.8000;0.2654;0.9446;
500.1000;0.2654;0.9519;
500.4000;0.2686;0.9543;
500.7000;0.2662;0.9543;
501.0000;0.2678;0.9543;
501.3000;0.2759;0.9882;
501.6000;0.2694;0.9592;
501.9000;0.2678;0.9519;
502.2000;0.2686;0.9640;
502.5000;0.2686;0.9786;
502.8000;0.2686;0.9786;
503.1000;0.2686;0.9761;
503.4000;0.2670;0.9737;
503.7000;0.2662;0.9713;
504.0000;0.2694;0.9810;
504.3000;0.2670;0.9713;
504.6000;0.2678;0.9737;
504.9000;0.2678;0.9689;
505.2000;0.2694;0.9858;
505.5000;0.2694;0.9834;
505.8000;0.2678;0.9786;
506.1000;0.2670;0.9786;
506.4000;0.2686;0.9737;
506.7000;0.2702;0.9737;
507.0000;0.2678;0.9664;
507.3000;0.2678;0.9713;
507.6000;0.2694;0.9689;
507.9000;0.2686;0.9689;
508.2000;0.2670;0.9664;
508.5000;0.2678;0.9713;
508.8000;0.2678;0.9713;
509.1000;0.2686;0.9761;
509.4000;0.2670;0.9737;
509.7000;0.2662;0.9713;
510.0000;0.2678;0.9689;
510.3000;0.2678;0.9640;
510.6000;0.2678;0.9713;
510.9000;0.2670;0.9713;
511.2000;0.2654;0.9737;
511.5000;0.2686;0.9786;
511.8000;0.2686;0.9786;
512.1000;0.2678;0.9689;
512.4000;0.2694;0.9882;
512.7000;0.2678;0.9786;
513.0000;0.2670;0.9713;
513.3000;0.2686;0.9737;
513.6000;0.2678;0.9664;
513.9000;0.2678;0.9761;
514.2000;0.2662;0.9858;
514.5000;0.2694;0.9907;
514.8000;0.2686;0.9810;
515.1000;0.2678;0.9810;
515.4000;0.2694;0.9858;
515.7000;0.2694;0.9834;
516.0000;0.2686;0.9761;
516.3000;0.2670;0.9664;
516.6000;0.2711;0.9834;
516.9000;0.2686;0.9834;
517.2000;0.2662;0.9713;
517.5000;0.2670;0.9664;
517.8000;0.2678;0.9689;
518.1000;0.2646;0.9495;
518.4000;0.2678;0.9568;
518.7000;0.2678;0.9592;
519.0000;0.2670;0.9616;
519.3000;0.2678;0.9616;
519.6000;0.2670;0.9592;
519.9000;0.2662;0.9592;
520.2000;0.2662;0.9616;
520.5000;0.2678;0.9689;
520.8000;0.2678;0.9689;
521.1000;0.2670;0.9616;
521.4000;0.2646;0.9495;
521.7000;0.2678;0.9568;
522.0000;0.2637;0.9471;
522.3000;0.2719;0.9737;
522.6000;0.2654;0.9616;
522.9000;0.2670;0.9689;
523.2000;0.2686;0.9689;
523.5000;0.2670;0.9664;
523.8000;0.2678;0.9737;
524.1000;0.2670;0.9810;
524.4000;0.2686;0.9834;
524.7000;0.2727;0.9907;
525.0000;0.2670;0.9810;
525.3000;0.2686;0.9810;
525.6000;0.2678;0.9834;
525.9000;0.2670;0.9834;
526.2000;0.2686;0.9834;
526.5000;0.2686;0.9858;
526.8000;0.2686;0.9882;
527.1000;0.2637;0.9761;
527.4000;0.2654;0.9810;
527.7000;0.2662;0.9761;
528.0000;0.2678;0.9907;
528.3000;0.2686;0.9882;
528.6000;0.2670;0.9810;
528.9000;0.2678;0.9786;
529.2000;0.2662;0.9761;
529.5000;0.2580;0.9495;
529.8000;0.2678;0.9786;
530.1000;0.2621;0.9664;
530.4000;0.2662;0.9761;
530.7000;0.2654;0.9689;
531.0000;0.2702;0.9737;
531.3000;0.2686;0.9786;
531.6000;0.2694;0.9858;
531.9000;0.2686;0.9907;
532.2000;0.2694;0.9955;
532.5000;0.2670;0.9858;
532.8000;0.2686;0.9858;
533.1000;0.2678;0.9858;
533.4000;0.2646;0.9737;
533.7000;0.2686;0.9786;
534.0000;0.2678;0.9713;
534.3000;0.2646;0.9543;
534.6000;0.2686;0.9616;
534.9000;0.2686;0.9640;
535.2000;0.2686;0.9664;
535.5000;0.2670;0.9689;
535.8000;0.2662;0.9664;
536.1000;0.2646;0.9446;
536.4000;0.2694;0.9640;
536.7000;0.2670;0.9543;
537.0000;0.2678;0.9592;
537.3000;0.2694;0.9689;
537.6000;0.2694;0.9640;
537.9000;0.2678;0.9640;
538.2000;0.2686;0.9664;
538.5000;0.2670;0.9568;
538.8000;0.2678;0.9664;
539.1000;0.2694;0.9689;
539.4000;0.2670;0.9664;
539.7000;0.2662;0.9568;
540.0000;0.2646;0.9616;
540.3000;0.2662;0.9640;
540.6000;0.2662;0.9664;
540.9000;0.2694;0.9689;
541.2000;0.2711;0.9761;
541.5000;0.2670;0.9616;
541.8000;0.2678;0.9689;
542.1000;0.2670;0.9664;
542.4000;0.2702;0.9713;
542.7000;0.2686;0.9616;
543.0000;0.2678;0.9543;
543.3000;0.2686;0.9592;
543.6000;0.2686;0.9664;
543.9000;0.2694;0.9810;
544.2000;0.2678;0.9810;
544.5000;0.2686;0.9858;
544.8000;0.2662;0.9858;
545.1000;0.2678;0.9882;
545.4000;0.2678;0.9907;
545.7000;0.2654;0.9882;
546.0000;0.2719;1.0100;
546.3000;0.2678;0.9858;
546.6000;0.2678;0.9858;
546.9000;0.2678;0.9882;
547.2000;0.2694;0.9955;
547.5000;0.2702;0.9955;
547.8000;0.2564;0.9592;
548.1000;0.2678;0.9882;
548.4000;0.2662;0.9786;
548.7000;0.2694;0.9834;
549.0000;0.2800;1.0149;
549.3000;0.2670;0.9907;
549.6000;0.2637;0.9786;
549.9000;0.2654;0.9834;
550.2000;0.2686;0.9931;
550.5000;0.2637;0.9761;
550.8000;0.2662;0.9761;
551.1000;0.2678;0.9810;
551.4000;0.2686;0.9882;
551.7000;0.2670;0.9907;
552.0000;0.2662;0.9834;
552.3000;0.2727;1.0004;
552.6000;0.2686;0.9761;
552.9000;0.2670;0.9737;
553.2000;0.2694;0.9713;
553.5000;0.2678;0.9713;
553.8000;0.2702;0.9810;
554.1000;0.2670;0.9761;
554.4000;0.2670;0.9664;
554.7000;0.2654;0.9616;
555.0000;0.2670;0.9640;
555.3000;0.2670;0.9737;
555.6000;0.2678;0.9664;
555.9000;0.2678;0.9640;
556.2000;0.2686;0.9689;
556.5000;0.2670;0.9664;
556.8000;0.2686;0.9713;
557.1000;0.2686;0.9640;
557.4000;0.2694;0.9568;
557.7000;0.2686;0.9543;
558.0000;0.2629;0.9446;
558.3000;0.2678;0.9543;
558.6000;0.2670;0.9495;
558.9000;0.2654;0.9471;
559.2000;0.2727;0.9761;
559.5000;0.2678;0.9689;
559.8000;0.2670;0.9664;
560.1000;0.2743;0.9786;
560.4000;0.2686;0.9616;
560.7000;0.2686;0.9616;
561.0000;0.2564;0.9374;
561.3000;0.2686;0.9616;
561.6000;0.2670;0.9568;
561.9000;0.2678;0.9664;
562.2000;0.2678;0.9737;
562.5000;0.2686;0.9786;
562.8000;0.2670;0.9761;
563.1000;0.2678;0.9761;
563.4000;0.2662;0.9713;
563.7000;0.2678;0.9786;
564.0000;0.2621;0.9616;
564.3000;0.2686;0.9737;
564.6000;0.2662;0.9689;
564.9000;0.2646;0.9689;
565.2000;0.2678;0.9713;
565.5000;0.2694;0.9737;
565.8000;0.2670;0.9568;
566.1000;0.2654;0.9519;
566.4000;0.2654;0.9543;
566.7000;0.2678;0.9640;
567.0000;0.2670;0.9664;
567.3000;0.2670;0.9616;
567.6000;0.2686;0.9713;
567.9000;0.2711;0.9834;
568.2000;0.2694;0.9786;
568.5000;0.2678;0.9810;
568.8000;0.2597;0.9592;
569.1000;0.2686;0.9858;
569.4000;0.2662;0.9858;
569.7000;0.2768;1.0052;
570.0000;0.2751;0.9979;
570.3000;0.2662;0.9664;
570.6000;0.2678;0.9640;
570.9000;0.2621;0.9495;
571.2000;0.2670;0.9664;
571.5000;0.2654;0.9592;
571.8000;0.2646;0.9568;
572.1000;0.2654;0.9592;
572.4000;0.2678;0.9689;
572.7000;0.2654;0.9640;
573.0000;0.2662;0.9616;
573.3000;0.2670;0.9543;
573.6000;0.2670;0.9568;
573.9000;0.2662;0.9640;
574.2000;0.2637;0.9568;
574.5000;0.2670;0.9737;
574.8000;0.2678;0.9640;
575.1000;0.2686;0.9616;
575.4000;0.2686;0.9640;
575.7000;0.2735;0.9786;
576.0000;0.2670;0.9664;
576.3000;0.2662;0.9568;
576.6000;0.2678;0.9640;
576.9000;0.2678;0.9689;
577.2000;0.2694;0.9640;
577.5000;0.2686;0.9640;
577.8000;0.2694;0.9689;
578.1000;0.2662;0.9616;
578.4000;0.2654;0.9592;
578.7000;0.2686;0.9592;
579.0000;0.2694;0.9495;
579.3000;0.2613;0.9277;
579.6000;0.2678;0.9446;
579.9000;0.2670;0.9495;
580.2000;0.2670;0.9568;
580.5000;0.2678;0.9568;
580.8000;0.2662;0.9568;
581.1000;0.2686;0.9592;
581.4000;0.2662;0.9495;
581.7000;0.2678;0.9543;
582.0000;0.2670;0.9422;
582.3000;0.2670;0.9471;
582.6000;0.2662;0.9471;
582.9000;0.2670;0.9519;
583.2000;0.2662;0.9543;
583.5000;0.2662;0.9640;
583.8000;0.2678;0.9592;
584.1000;0.2654;0.9640;
584.4000;0.2670;0.9568;
584.7000;0.2686;0.9616;
585.0000;0.2637;0.9519;
585.3000;0.2670;0.9664;
585.6000;0.2670;0.9640;
585.9000;0.2670;0.9664;
586.2000;0.2654;0.9568;
586.5000;0.2670;0.9640;
586.8000;0.2654;0.9737;
587.1000;0.2678;0.9689;
587.4000;0.2711;0.9737;
587.7000;0.2670;0.9713;
588.0000;0.2605;0.9616;
588.3000;0.2646;0.9761;
588.6000;0.2637;0.9713;
588.9000;0.2670;0.9761;
589.2000;0.2580;0.9422;
589.5000;0.2662;0.9616;
589.8000;0.2711;0.9737;
590.1000;0.2670;0.9568;
590.4000;0.2621;0.9422;
590.7000;0.2662;0.9568;
591.0000;0.2686;0.9689;
591.3000;0.2670;0.9616;
591.6000;0.2662;0.9616;
591.9000;0.2646;0.9689;
592.2000;0.2662;0.9592;
592.5000;0.2670;0.9592;
592.8000;0.2670;0.9592;
593.1000;0.2662;0.9568;
593.4000;0.2662;0.9568;
593.7000;0.2662;0.9592;
594.0000;0.2637;0.9519;
594.3000;0.2670;0.9616;
594.6000;0.2662;0.9592;
594.9000;0.2637;0.9446;
595.2000;0.2654;0.9568;
595.5000;0.2662;0.9689;
595.8000;0.2678;0.9786;
596.1000;0.2743;0.9907;
596.4000;0.2678;0.9761;
596.7000;0.2646;0.9858;
597.0000;0.2686;0.9858;
597.3000;0.2678;0.9834;
597.6000;0.2670;0.9858;
597.9000;0.2670;0.9810;
598.2000;0.2694;0.9858;
598.5000;0.2686;0.9761;
598.8000;0.2686;0.9737;
599.1000;0.2670;0.9689;
599.4000;0.2654;0.9713;
599.7000;0.2678;0.9689;
600.0000;0.2686;0.9737;
600.3000;0.2670;0.9737;
600.6000;0.2637;0.9592;
600.9000;0.2670;0.9495;
601.2000;0.2686;0.9374;
601.5000;0.2654;0.9228;
601.8000;0.2621;0.9059;
602.1000;0.2613;0.8938;
602.4000;0.2629;0.8889;
602.7000;0.2637;0.8889;
603.0000;0.2637;0.8841;
603.3000;0.2637;0.8720;
603.6000;0.2637;0.8623;
603.9000;0.2637;0.8671;
604.2000;0.2597;0.8502;
604.5000;0.2605;0.8381;
604.8000;0.2605;0.8357;
605.1000;0.2597;0.8211;
605.4000;0.2589;0.8090;
605.7000;0.2613;0.8139;
606.0000;0.2613;0.8211;
606.3000;0.2572;0.8090;
606.6000;0.2589;0.8066;
606.9000;0.2597;0.8114;
607.2000;0.2597;0.8139;
607.5000;0.2597;0.8163;
607.8000;0.2597;0.8235;
608.1000;0.2589;0.8235;
608.4000;0.2597;0.8114;
608.7000;0.2580;0.8139;
609.0000;0.2540;0.8090;
609.3000;0.2589;0.8211;
609.6000;0.2597;0.8139;
609.9000;0.2589;0.8066;
610.2000;0.2597;0.8042;
610.5000;0.2605;0.8042;
610.8000;0.2605;0.7921;
611.1000;0.2589;0.7703;
611.4000;0.2589;0.7799;
611.7000;0.2580;0.7824;
612.0000;0.2678;0.8066;
612.3000;0.2589;0.7872;
612.6000;0.2613;0.7969;
612.9000;0.2564;0.7824;
613.2000;0.2597;0.7751;
613.5000;0.2629;0.7775;
613.8000;0.2564;0.7751;
614.1000;0.2605;0.7945;
614.4000;0.2548;0.7848;
614.7000;0.2572;0.7896;
615.0000;0.2589;0.7872;
615.3000;0.2572;0.7848;
615.6000;0.2572;0.7896;
615.9000;0.2589;0.7848;
616.2000;0.2572;0.7848;
616.5000;0.2580;0.7896;
616.8000;0.2589;0.7945;
617.1000;0.2556;0.7872;
617.4000;0.2589;0.7775;
617.7000;0.2580;0.7775;
618.0000;0.2572;0.7727;
618.3000;0.2556;0.7799;
618.6000;0.2572;0.7824;
618.9000;0.2580;0.7751;
619.2000;0.2621;0.7872;
619.5000;0.2572;0.7727;
619.8000;0.2589;0.7775;
620.1000;0.2589;0.7824;
620.4000;0.2589;0.7824;
620.7000;0.2572;0.7751;
621.0000;0.2580;0.7824;
621.3000;0.2572;0.7824;
621.6000;0.2589;0.7848;
621.9000;0.2589;0.7799;
622.2000;0.2613;0.7824;
622.5000;0.2572;0.7727;
622.8000;0.2572;0.7799;
623.1000;0.2580;0.7727;
623.4000;0.2580;0.7751;
623.7000;0.2589;0.7654;
624.0000;0.2572;0.7630;
624.3000;0.2613;0.7654;
624.6000;0.2572;0.7581;
624.9000;0.2589;0.7581;
625.2000;0.2564;0.7581;
625.5000;0.2597;0.7654;
625.8000;0.2589;0.7630;
626.1000;0.2572;0.7678;
626.4000;0.2589;0.7775;
626.7000;0.2580;0.7727;
627.0000;0.2605;0.7727;
627.3000;0.2556;0.7533;
627.6000;0.2572;0.7581;
627.9000;0.2589;0.7509;
628.2000;0.2589;0.7557;
628.5000;0.2515;0.7436;
628.8000;0.2597;0.7581;
629.1000;0.2589;0.7557;
629.4000;0.2654;0.7727;
629.7000;0.2540;0.7509;
630.0000;0.2589;0.7630;
630.3000;0.2686;0.7921;
630.6000;0.2572;0.7606;
630.9000;0.2589;0.7654;
631.2000;0.2580;0.7581;
631.5000;0.2580;0.7630;
631.8000;0.2580;0.7678;
632.1000;0.2564;0.7630;
632.4000;0.2564;0.7581;
632.7000;0.2572;0.7630;
633.0000;0.2580;0.7654;
633.3000;0.2572;0.7630;
633.6000;0.2580;0.7703;
633.9000;0.2572;0.7654;
634.2000;0.2580;0.7606;
634.5000;0.2589;0.7557;
634.8000;0.2589;0.7485;
635.1000;0.2694;0.7799;
635.4000;0.2572;0.7436;
635.7000;0.2711;0.7799;
636.0000;0.2589;0.7388;
636.3000;0.2572;0.7291;
636.6000;0.2580;0.7339;
636.9000;0.2572;0.7267;
637.2000;0.2589;0.7267;
637.5000;0.2580;0.7412;
637.8000;0.2515;0.7291;
638.1000;0.2548;0.7460;
638.4000;0.2621;0.7703;
638.7000;0.2572;0.7581;
639.0000;0.2572;0.7581;
639.3000;0.2556;0.7581;
639.6000;0.2580;0.7557;
639.9000;0.2580;0.7581;
640.2000;0.2589;0.7606;
640.5000;0.2589;0.7606;
640.8000;0.2580;0.7606;
641.1000;0.2605;0.7703;
641.4000;0.2572;0.7581;
641.7000;0.2580;0.7703;
642.0000;0.2589;0.7654;
642.3000;0.2589;0.7727;
642.6000;0.2580;0.7727;
642.9000;0.2572;0.7703;
643.2000;0.2580;0.7654;
643.5000;0.2556;0.7581;
643.8000;0.2507;0.7412;
644.1000;0.2532;0.7460;
644.4000;0.2580;0.7557;
644.7000;0.2564;0.7581;
645.0000;0.2580;0.7630;
645.3000;0.2556;0.7533;
645.6000;0.2572;0.7654;
645.9000;0.2580;0.7654;
646.2000;0.2589;0.7775;
646.5000;0.2572;0.7799;
646.8000;0.2580;0.7751;
647.1000;0.2605;0.7921;
647.4000;0.2605;0.7921;
647.7000;0.2589;0.7848;
648.0000;0.2580;0.7799;
648.3000;0.2580;0.7872;
648.6000;0.2580;0.7824;
648.9000;0.2580;0.7921;
649.2000;0.2540;0.7945;
649.5000;0.2580;0.8017;
649.8000;0.2589;0.7993;
650.1000;0.2589;0.7993;
650.4000;0.2589;0.7945;
650.7000;0.2589;0.7896;
651.0000;0.2589;0.7896;
651.3000;0.2572;0.7896;
651.6000;0.2548;0.7775;
651.9000;0.2564;0.7824;
652.2000;0.2572;0.7872;
652.5000;0.2597;0.7824;
652.8000;0.2572;0.7727;
653.1000;0.2597;0.7727;
653.4000;0.2589;0.7775;
653.7000;0.2589;0.7703;
654.0000;0.2564;0.7606;
654.3000;0.2564;0.7654;
654.6000;0.2572;0.7606;
654.9000;0.2572;0.7557;
655.2000;0.2564;0.7630;
655.5000;0.2572;0.7630;
655.8000;0.2572;0.7678;
656.1000;0.2507;0.7557;
656.4000;0.2572;0.7775;
656.7000;0.2580;0.7775;
657.0000;0.2556;0.7703;
657.3000;0.2572;0.7703;
657.6000;0.2670;0.7872;
657.9000;0.2572;0.7630;
658.2000;0.2556;0.7630;
658.5000;0.2580;0.7581;
658.8000;0.2572;0.7533;
659.1000;0.2507;0.7388;
659.4000;0.2580;0.7581;
659.7000;0.2621;0.7533;
660.0000;0.2589;0.7485;
660.3000;0.2580;0.7509;
660.6000;0.2564;0.7533;
660.9000;0.2637;0.7775;
661.2000;0.2605;0.7654;
661.5000;0.2605;0.7678;
661.8000;0.2613;0.7775;
662.1000;0.2580;0.7703;
662.4000;0.2589;0.7727;
662.7000;0.2597;0.7751;
663.0000;0.2613;0.7775;
663.3000;0.2572;0.7557;
663.6000;0.2613;0.7606;
663.9000;0.2507;0.7436;
664.2000;0.2564;0.7557;
664.5000;0.2589;0.7606;
664.8000;0.2637;0.7751;
665.1000;0.2532;0.7606;
665.4000;0.2589;0.7703;
665.7000;0.2556;0.7678;
666.0000;0.2572;0.7727;
666.3000;0.2564;0.7775;
666.6000;0.2597;0.7775;
666.9000;0.2572;0.7751;
667.2000;0.2629;0.7969;
667.5000;0.2572;0.7775;
667.8000;0.2597;0.7824;
668.1000;0.2605;0.7751;
668.4000;0.2572;0.7703;
668.7000;0.2572;0.7678;
669.0000;0.2597;0.7727;
669.3000;0.2597;0.7775;
669.6000;0.2548;0.7751;
669.9000;0.2564;0.7848;
670.2000;0.2556;0.7799;
670.5000;0.2572;0.7848;
670.8000;0.2572;0.7751;
671.1000;0.2589;0.7848;
671.4000;0.2605;0.7969;
671.7000;0.2589;0.7921;
672.0000;0.2580;0.7921;
672.3000;0.2589;0.7945;
672.6000;0.2580;0.7896;
672.9000;0.2605;0.7993;
673.2000;0.2580;0.8042;
673.5000;0.2475;0.7751;
673.8000;0.2572;0.7872;
674.1000;0.2572;0.7824;
674.4000;0.2580;0.7848;
674.7000;0.2572;0.7775;
675.0000;0.2572;0.7751;
675.3000;0.2507;0.7630;
675.6000;0.2572;0.7799;
675.9000;0.2564;0.7848;
676.2000;0.2580;0.7921;
676.5000;0.2491;0.7678;
676.8000;0.2564;0.7799;
677.1000;0.2564;0.7703;
677.4000;0.2580;0.7727;
677.7000;0.2597;0.7848;
678.0000;0.2605;0.7848;
678.3000;0.2605;0.7751;
678.6000;0.2589;0.7751;
678.9000;0.2572;0.7678;
679.2000;0.2540;0.7606;
679.5000;0.2572;0.7557;
679.8000;0.2589;0.7533;
680.1000;0.2572;0.7509;
680.4000;0.2540;0.7436;
680.7000;0.2580;0.7509;
681.0000;0.2589;0.7630;
681.3000;0.2483;0.7339;
681.6000;0.2589;0.7630;
681.9000;0.2580;0.7630;
682.2000;0.2589;0.7533;
682.5000;0.2589;0.7630;
682.8000;0.2580;0.7654;
683.1000;0.2637;0.7824;
683.4000;0.2637;0.7775;
683.7000;0.2572;0.7557;
684.0000;0.2589;0.7654;
684.3000;0.2597;0.7654;
684.6000;0.2556;0.7606;
684.9000;0.2589;0.7751;
685.2000;0.2564;0.7703;
685.5000;0.2580;0.7799;
685.8000;0.2580;0.7727;
686.1000;0.2621;0.7848;
686.4000;0.2572;0.7775;
686.7000;0.2548;0.7727;
687.0000;0.2572;0.7751;
687.3000;0.2572;0.7727;
687.6000;0.2580;0.7654;
687.9000;0.2580;0.7703;
688.2000;0.2589;0.7678;
688.5000;0.2589;0.7703;
688.8000;0.2654;0.7872;
689.1000;0.2572;0.7630;
689.4000;0.2580;0.7606;
689.7000;0.2589;0.7630;
690.0000;0.2572;0.7654;
690.3000;0.2564;0.7703;
690.6000;0.2589;0.7751;
690.9000;0.2580;0.7727;
691.2000;0.2580;0.7751;
691.5000;0.2572;0.7678;
691.8000;0.2572;0.7751;
692.1000;0.2572;0.7727;
692.4000;0.2572;0.7799;
692.7000;0.2605;0.7969;
693.0000;0.2580;0.7896;
693.3000;0.2589;0.8017;
693.6000;0.2572;0.7969;
693.9000;0.2605;0.8017;
694.2000;0.2458;0.7630;
694.5000;0.2589;0.7993;
694.8000;0.2532;0.7775;
695.1000;0.2580;0.7896;
695.4000;0.2597;0.7921;
695.7000;0.2702;0.8090;
696.0000;0.2572;0.7727;
696.3000;0.2564;0.7751;
696.6000;0.2580;0.7896;
696.9000;0.2580;0.7872;
697.2000;0.2621;0.7921;
697.5000;0.2580;0.7799;
697.8000;0.2564;0.7799;
698.1000;0.2572;0.7848;
698.4000;0.2605;0.7751;
698.7000;0.2613;0.7751;
699.0000;0.2572;0.7606;
699.3000;0.2589;0.7727;
699.6000;0.2572;0.7678;
699.9000;0.2572;0.7703;
700.2000;0.2572;0.7654;
700.5000;0.2580;0.7703;
700.8000;0.2589;0.7727;
701.1000;0.2580;0.7775;
701.4000;0.2548;0.7630;
701.7000;0.2564;0.7606;
702.0000;0.2564;0.7581;
702.3000;0.2580;0.7606;
702.6000;0.2589;0.7630;
702.9000;0.2540;0.7606;
703.2000;0.2589;0.7703;
703.5000;0.2646;0.7848;
703.8000;0.2597;0.7678;
704.1000;0.2499;0.7412;
704.4000;0.2540;0.7509;
704.7000;0.2580;0.7606;
705.0000;0.2654;0.7872;
705.3000;0.2613;0.7896;
705.6000;0.2564;0.7727;
705.9000;0.2589;0.7872;
706.2000;0.2589;0.7848;
706.5000;0.2605;0.7945;
706.8000;0.2564;0.7921;
707.1000;0.2580;0.7921;
707.4000;0.2646;0.8114;
707.7000;0.2580;0.7921;
708.0000;0.2605;0.7993;
708.3000;0.2580;0.7921;
708.6000;0.2597;0.7872;
708.9000;0.2580;0.7799;
709.2000;0.2580;0.7775;
709.5000;0.2572;0.7630;
709.8000;0.2580;0.7606;
710.1000;0.2613;0.7751;
710.4000;0.2589;0.7727;
710.7000;0.2580;0.7703;
711.0000;0.2556;0.7751;
711.3000;0.2564;0.7775;
711.6000;0.2564;0.7751;
711.9000;0.2572;0.7775;
712.2000;0.2589;0.7775;
712.5000;0.2580;0.7775;
712.8000;0.2572;0.7775;
713.1000;0.2589;0.7751;
713.4000;0.2572;0.7654;
713.7000;0.2580;0.7703;
714.0000;0.2580;0.7703;
714.3000;0.2605;0.7727;
714.6000;0.2572;0.7727;
714.9000;0.2572;0.7775;
715.2000;0.2572;0.7751;
715.5000;0.2589;0.7799;
715.8000;0.2572;0.7727;
716.1000;0.2589;0.7775;
716.4000;0.2580;0.7799;
716.7000;0.2629;0.7896;
717.0000;0.2605;0.7799;
717.3000;0.2605;0.7799;
717.6000;0.2589;0.7799;
717.9000;0.2589;0.7799;
718.2000;0.2589;0.7799;
718.5000;0.2580;0.7775;
718.8000;0.2662;0.7921;
719.1000;0.2564;0.7727;
719.4000;0.2792;0.8332;
719.7000;0.2629;0.7872;
720.0000;0.2597;0.7751;
720.3000;0.2605;0.7775;
720.6000;0.2646;0.7848;
720.9000;0.2564;0.7606;
721.2000;0.2629;0.7727;
721.5000;0.2597;0.7703;
721.8000;0.2597;0.7775;
722.1000;0.2605;0.7848;
722.4000;0.2589;0.7799;
722.7000;0.2491;0.7581;
723.0000;0.2589;0.7751;
723.3000;0.2564;0.7654;
723.6000;0.2564;0.7678;
723.9000;0.2564;0.7630;
724.2000;0.2580;0.7606;
724.5000;0.2580;0.7630;
724.8000;0.2613;0.7703;
725.1000;0.2507;0.7485;
725.4000;0.2572;0.7606;
725.7000;0.2572;0.7606;
726.0000;0.2580;0.7654;
726.3000;0.2548;0.7581;
726.6000;0.2580;0.7606;
726.9000;0.2572;0.7606;
727.2000;0.2564;0.7581;
727.5000;0.2580;0.7606;
727.8000;0.2589;0.7606;
728.1000;0.2589;0.7703;
728.4000;0.2580;0.7581;
728.7000;0.2662;0.7775;
729.0000;0.2597;0.7557;
729.3000;0.2556;0.7533;
729.6000;0.2597;0.7654;
729.9000;0.2572;0.7630;
730.2000;0.2580;0.7751;
730.5000;0.2589;0.7824;
730.8000;0.2597;0.7848;
731.1000;0.2548;0.7799;
731.4000;0.2572;0.7824;
731.7000;0.2597;0.7848;
732.0000;0.2589;0.7824;
732.3000;0.2580;0.7775;
732.6000;0.2589;0.7751;
732.9000;0.2572;0.7727;
733.2000;0.2597;0.7703;
733.5000;0.2580;0.7630;
733.8000;0.2572;0.7581;
734.1000;0.2572;0.7581;
734.4000;0.2605;0.7630;
734.7000;0.2597;0.7678;
735.0000;0.2589;0.7678;
735.3000;0.2580;0.7775;
735.6000;0.2589;0.7872;
735.9000;0.2572;0.7921;
736.2000;0.2572;0.7848;
736.5000;0.2540;0.7751;
736.8000;0.2572;0.7799;
737.1000;0.2589;0.7824;
737.4000;0.2572;0.7896;
737.7000;0.2466;0.7630;
738.0000;0.2589;0.7921;
738.3000;0.2580;0.7896;
738.6000;0.2564;0.7848;
738.9000;0.2572;0.7872;
739.2000;0.2548;0.7848;
739.5000;0.2597;0.7896;
739.8000;0.2580;0.7848;
740.1000;0.2580;0.7896;
740.4000;0.2523;0.7678;
740.7000;0.2572;0.7751;
741.0000;0.2589;0.7824;
741.3000;0.2572;0.7727;
741.6000;0.2523;0.7581;
741.9000;0.2515;0.7485;
742.2000;0.2597;0.7727;
742.5000;0.2580;0.7751;
742.8000;0.2597;0.7703;
743.1000;0.2580;0.7727;
743.4000;0.2540;0.7654;
743.7000;0.2580;0.7799;
744.0000;0.2597;0.7896;
744.3000;0.2564;0.7872;
744.6000;0.2580;0.7896;
744.9000;0.2589;0.7896;
745.2000;0.2613;0.8017;
745.5000;0.2589;0.7896;
745.8000;0.2613;0.7969;
746.1000;0.2589;0.7921;
746.4000;0.2589;0.8017;
746.7000;0.2564;0.7945;
747.0000;0.2605;0.8066;
747.3000;0.2589;0.7993;
747.6000;0.2637;0.8139;
747.9000;0.2564;0.7921;
748.2000;0.2572;0.7993;
748.5000;0.2589;0.8163;
748.8000;0.2580;0.8139;
749.1000;0.2597;0.8017;
749.4000;0.2597;0.7896;
749.7000;0.2580;0.7969;
750.0000;0.2580;0.7872;
750.3000;0.2572;0.7824;
750.6000;0.2572;0.7848;
750.9000;0.2597;0.7896;
751.2000;0.2621;0.7969;
751.5000;0.2597;0.7872;
751.8000;0.2572;0.7824;
752.1000;0.2580;0.7824;
752.4000;0.2580;0.7751;
752.7000;0.2597;0.7799;
753.0000;0.2572;0.7848;
753.3000;0.2572;0.7824;
753.6000;0.2613;0.7945;
753.9000;0.2597;0.7872;
754.2000;0.2605;0.7896;
754.5000;0.2597;0.7848;
754.8000;0.2605;0.7921;
755.1000;0.2589;0.7969;
755.4000;0.2589;0.7993;
755.7000;0.2597;0.8017;
756.0000;0.2580;0.8042;
756.3000;0.2572;0.7993;
756.6000;0.2589;0.8042;
756.9000;0.2597;0.7945;
757.2000;0.2589;0.7945;
757.5000;0.2572;0.7945;
757.8000;0.2564;0.7969;
758.1000;0.2564;0.7993;
758.4000;0.2580;0.8042;
758.7000;0.2589;0.8139;
759.0000;0.2580;0.8066;
759.3000;0.2637;0.8284;
759.6000;0.2572;0.8066;
759.9000;0.2605;0.8066;
760.2000;0.2556;0.7896;
760.5000;0.2597;0.7993;
760.8000;0.2572;0.7969;
761.1000;0.2572;0.7993;
761.4000;0.2597;0.8017;
761.7000;0.2564;0.7921;
762.0000;0.2589;0.7969;
762.3000;0.2597;0.7896;
762.6000;0.2589;0.7824;
762.9000;0.2580;0.7727;
763.2000;0.2564;0.7727;
763.5000;0.2580;0.7751;
763.8000;0.2589;0.7799;
764.1000;0.2580;0.7824;
764.4000;0.2564;0.7751;
764.7000;0.2580;0.7751;
765.0000;0.2589;0.7799;
765.3000;0.2589;0.7775;
765.6000;0.2572;0.7703;
765.9000;0.2589;0.7678;
766.2000;0.2580;0.7727;
766.5000;0.2605;0.7678;
766.8000;0.2589;0.7678;
767.1000;0.2589;0.7727;
767.4000;0.2589;0.7703;
767.7000;0.2589;0.7751;
768.0000;0.2605;0.7775;
768.3000;0.2597;0.7727;
768.6000;0.2589;0.7799;
768.9000;0.2621;0.7824;
769.2000;0.2605;0.7751;
769.5000;0.2589;0.7678;
769.8000;0.2589;0.7727;
770.1000;0.2556;0.7606;
770.4000;0.2621;0.7775;
770.7000;0.2589;0.7654;
771.0000;0.2589;0.7727;
771.3000;0.2580;0.7727;
771.6000;0.2589;0.7799;
771.9000;0.2556;0.7630;
772.2000;0.2597;0.7727;
772.5000;0.2564;0.7727;
772.8000;0.2572;0.7727;
773.1000;0.2572;0.7751;
773.4000;0.2572;0.7678;
773.7000;0.2564;0.7678;
774.0000;0.2580;0.7654;
774.3000;0.2556;0.7557;
774.6000;0.2580;0.7606;
774.9000;0.2580;0.7654;
775.2000;0.2613;0.7751;
775.5000;0.2580;0.7630;
775.8000;0.2572;0.7630;
776.1000;0.2589;0.7606;
776.4000;0.2597;0.7606;
776.7000;0.2637;0.7654;
777.0000;0.2589;0.7509;
777.3000;0.2572;0.7533;
777.6000;0.2515;0.7412;
777.9000;0.2572;0.7557;
778.2000;0.2613;0.7727;
778.5000;0.2597;0.7654;
778.8000;0.2572;0.7727;
779.1000;0.2589;0.7799;
779.4000;0.2589;0.7799;
779.7000;0.2589;0.7799;
780.0000;0.2613;0.7848;
780.3000;0.2532;0.7727;
780.6000;0.2580;0.7872;
780.9000;0.2597;0.7896;
781.2000;0.2572;0.7799;
781.5000;0.2589;0.7824;
781.8000;0.2589;0.7799;
782.1000;0.2572;0.7775;
782.4000;0.2580;0.7824;
782.7000;0.2580;0.7872;
783.0000;0.2572;0.7799;
783.3000;0.2654;0.7945;
783.6000;0.2580;0.7775;
783.9000;0.2589;0.7751;
784.2000;0.2589;0.7824;
784.5000;0.2589;0.7799;
784.8000;0.2589;0.7848;
785.1000;0.2589;0.7775;
785.4000;0.2597;0.7775;
785.7000;0.2694;0.8042;
786.0000;0.2589;0.7799;
786.3000;0.2597;0.7872;
786.6000;0.2564;0.7799;
786.9000;0.2597;0.7848;
787.2000;0.2621;0.7969;
787.5000;0.2637;0.8066;
787.8000;0.2572;0.7848;
788.1000;0.2597;0.7896;
788.4000;0.2589;0.7775;
788.7000;0.2556;0.7703;
789.0000;0.2580;0.7799;
789.3000;0.2597;0.7751;
789.6000;0.2580;0.7775;
789.9000;0.2572;0.7775;
790.2000;0.2605;0.7872;
790.5000;0.2613;0.7969;
790.8000;0.2589;0.7993;
791.1000;0.2572;0.7824;
791.4000;0.2637;0.7993;
791.7000;0.2589;0.7848;
792.0000;0.2629;0.8066;
792.3000;0.2605;0.7945;
792.6000;0.2646;0.8042;
792.9000;0.2580;0.7824;
793.2000;0.2564;0.7678;
793.5000;0.2597;0.7678;
793.8000;0.2564;0.7703;
794.1000;0.2613;0.7824;
794.4000;0.2548;0.7606;
794.7000;0.2580;0.7678;
795.0000;0.2515;0.7460;
795.3000;0.2589;0.7630;
795.6000;0.2572;0.7630;
795.9000;0.2613;0.7799;
796.2000;0.2589;0.7654;
796.5000;0.2580;0.7630;
796.8000;0.2572;0.7678;
797.1000;0.2670;0.7993;
797.4000;0.2572;0.7799;
797.7000;0.2580;0.7799;
798.0000;0.2605;0.7824;
798.3000;0.2572;0.7848;
798.6000;0.2580;0.7896;
798.9000;0.2572;0.7896;
799.2000;0.2532;0.7824;
799.5000;0.2572;0.7945;
799.8000;0.2580;0.8066;
800.1000;0.2540;0.7872;
800.4000;0.2572;0.7921;
800.7000;0.2580;0.7921;
801.0000;0.2580;0.7921;
801.3000;0.2564;0.7775;
801.6000;0.2572;0.7703;
801.9000;0.2572;0.7775;
802.2000;0.2589;0.7799;
802.5000;0.2580;0.7848;
802.8000;0.2589;0.7872;
803.1000;0.2589;0.7896;
803.4000;0.2580;0.7751;
803.7000;0.2589;0.7703;
804.0000;0.2597;0.7751;
804.3000;0.2654;0.7921;
804.6000;0.2597;0.7775;
804.9000;0.2572;0.7727;
805.2000;0.2580;0.7775;
805.5000;0.2564;0.7799;
805.8000;0.2580;0.7848;
806.1000;0.2580;0.7896;
806.4000;0.2564;0.7775;
806.7000;0.2572;0.7703;
807.0000;0.2613;0.7848;
807.3000;0.2597;0.7872;
807.6000;0.2589;0.7751;
807.9000;0.2580;0.7654;
808.2000;0.2589;0.7654;
808.5000;0.2589;0.7727;
808.8000;0.2572;0.7654;
809.1000;0.2589;0.7703;
809.4000;0.2589;0.7703;
809.7000;0.2589;0.7775;
810.0000;0.2580;0.7751;
810.3000;0.2556;0.7872;
810.6000;0.2572;0.7896;
810.9000;0.2629;0.7969;
811.2000;0.2556;0.7824;
811.5000;0.2580;0.7799;
811.8000;0.2540;0.7606;
812.1000;0.2589;0.7799;
812.4000;0.2589;0.7775;
812.7000;0.2597;0.7848;
813.0000;0.2572;0.7824;
813.3000;0.2589;0.7896;
813.6000;0.2580;0.7848;
813.9000;0.2654;0.8017;
814.2000;0.2580;0.7751;
814.5000;0.2589;0.7799;
814.8000;0.2572;0.7751;
815.1000;0.2580;0.7751;
815.4000;0.2556;0.7654;
815.7000;0.2597;0.7703;
816.0000;0.2605;0.7727;
816.3000;0.2589;0.7751;
816.6000;0.2597;0.7824;
816.9000;0.2580;0.7751;
817.2000;0.2564;0.7703;
817.5000;0.2580;0.7727;
817.8000;0.2580;0.7703;
818.1000;0.2597;0.7654;
818.4000;0.2532;0.7533;
818.7000;0.2556;0.7654;
819.0000;0.2637;0.7921;
819.3000;0.2556;0.7703;
819.6000;0.2580;0.7799;
819.9000;0.2637;0.7945;
820.2000;0.2589;0.7727;
820.5000;0.2597;0.7775;
820.8000;0.2589;0.7703;
821.1000;0.2597;0.7727;
821.4000;0.2589;0.7751;
821.7000;0.2580;0.7727;
822.0000;0.2548;0.7678;
822.3000;0.2597;0.7775;
822.6000;0.2556;0.7630;
822.9000;0.2580;0.7606;
823.2000;0.2556;0.7630;
823.5000;0.2589;0.7775;
823.8000;0.2580;0.7799;
824.1000;0.2564;0.7896;
824.4000;0.2572;0.7896;
824.7000;0.2564;0.7848;
825.0000;0.2580;0.7872;
825.3000;0.2597;0.7945;
825.6000;0.2580;0.7969;
825.9000;0.2572;0.7921;
826.2000;0.2523;0.7799;
826.5000;0.2597;0.7945;
826.8000;0.2556;0.7921;
827.1000;0.2597;0.7993;
827.4000;0.2589;0.7921;
827.7000;0.2589;0.7969;
828.0000;0.2589;0.7896;
828.3000;0.2589;0.7824;
828.6000;0.2580;0.7848;
828.9000;0.2589;0.7775;
829.2000;0.2589;0.7799;
829.5000;0.2613;0.7921;
829.8000;0.2597;0.7945;
830.1000;0.2580;0.7799;
830.4000;0.2548;0.7727;
830.7000;0.2540;0.7751;
831.0000;0.2572;0.7872;
831.3000;0.2540;0.7824;
831.6000;0.2572;0.7896;
831.9000;0.2564;0.7921;
832.2000;0.2564;0.7921;
832.5000;0.2572;0.7921;
832.8000;0.2589;0.7896;
833.1000;0.2613;0.7896;
833.4000;0.2572;0.7703;
833.7000;0.2580;0.7678;
834.0000;0.2572;0.7751;
834.3000;0.2580;0.7727;
834.6000;0.2589;0.7630;
834.9000;0.2572;0.7606;
835.2000;0.2711;0.7945;
835.5000;0.2589;0.7557;
835.8000;0.2548;0.7460;
836.1000;0.2564;0.7485;
836.4000;0.2605;0.7581;
836.7000;0.2605;0.7630;
837.0000;0.2572;0.7460;
837.3000;0.2572;0.7436;
837.6000;0.2523;0.7460;
837.9000;0.2637;0.7824;
838.2000;0.2589;0.7630;
838.5000;0.2605;0.7630;
838.8000;0.2540;0.7388;
839.1000;0.2605;0.7460;
839.4000;0.2597;0.7388;
839.7000;0.2540;0.7218;
840.0000;0.2580;0.7363;
840.3000;0.2540;0.7267;
840.6000;0.2580;0.7388;
840.9000;0.2572;0.7412;
841.2000;0.2564;0.7363;
841.5000;0.2589;0.7509;
841.8000;0.2597;0.7533;
842.1000;0.2597;0.7606;
842.4000;0.2589;0.7630;
842.7000;0.2556;0.7581;
843.0000;0.2572;0.7581;
843.3000;0.2597;0.7678;
843.6000;0.2572;0.7630;
843.9000;0.2572;0.7630;
844.2000;0.2597;0.7606;
844.5000;0.2564;0.7581;
844.8000;0.2532;0.7533;
845.1000;0.2572;0.7799;
845.4000;0.2564;0.7799;
845.7000;0.2589;0.7848;
846.0000;0.2572;0.7921;
846.3000;0.2580;0.7945;
846.6000;0.2564;0.7945;
846.9000;0.2662;0.8163;
847.2000;0.2564;0.7921;
847.5000;0.2589;0.7896;
847.8000;0.2580;0.7751;
848.1000;0.2589;0.7799;
848.4000;0.2580;0.7799;
848.7000;0.2580;0.7751;
849.0000;0.2597;0.7775;
849.3000;0.2597;0.7751;
849.6000;0.2589;0.7678;
849.9000;0.2605;0.7727;
850.2000;0.2605;0.7727;
850.5000;0.2597;0.7678;
850.8000;0.2605;0.7703;
851.1000;0.2605;0.7727;
851.4000;0.2580;0.7654;
851.7000;0.2597;0.7727;
852.0000;0.2589;0.7678;
852.3000;0.2727;0.8042;
852.6000;0.2621;0.7775;
852.9000;0.2597;0.7751;
853.2000;0.2597;0.7751;
853.5000;0.2605;0.7921;
853.8000;0.2580;0.7848;
854.1000;0.2580;0.7872;
854.4000;0.2580;0.7896;
854.7000;0.2613;0.7896;
855.0000;0.2564;0.7775;
855.3000;0.2580;0.7824;
855.6000;0.2572;0.7824;
855.9000;0.2597;0.7872;
856.2000;0.2556;0.7799;
856.5000;0.2580;0.7872;
856.8000;0.2589;0.7896;
857.1000;0.2580;0.7824;
857.4000;0.2572;0.7824;
857.7000;0.2580;0.7799;
858.0000;0.2589;0.7824;
858.3000;0.2613;0.7872;
858.6000;0.2605;0.7824;
858.9000;0.2589;0.7775;
859.2000;0.2613;0.7775;
859.5000;0.2605;0.7727;
859.8000;0.2597;0.7751;
860.1000;0.2589;0.7751;
860.4000;0.2564;0.7727;
860.7000;0.2589;0.7848;
861.0000;0.2597;0.7921;
861.3000;0.2556;0.7824;
861.6000;0.2548;0.7799;
861.9000;0.2589;0.7993;
862.2000;0.2589;0.7969;
862.5000;0.2597;0.8066;
862.8000;0.2597;0.8090;
863.1000;0.2564;0.8042;
863.4000;0.2580;0.8139;
863.7000;0.2572;0.8066;
864.0000;0.2523;0.7824;
864.3000;0.2597;0.8017;
864.6000;0.2572;0.7993;
864.9000;0.2597;0.7969;
865.2000;0.2572;0.7921;
865.5000;0.2580;0.7993;
865.8000;0.2597;0.7993;
866.1000;0.2556;0.7969;
866.4000;0.2580;0.7993;
866.7000;0.2572;0.7969;
867.0000;0.2605;0.8017;
867.3000;0.2589;0.7993;
867.6000;0.2589;0.7945;
867.9000;0.2654;0.8163;
868.2000;0.2548;0.7921;
868.5000;0.2589;0.7945;
868.8000;0.2605;0.7921;
869.1000;0.2605;0.7993;
869.4000;0.2580;0.7921;
869.7000;0.2597;0.7945;
870.0000;0.2556;0.7799;
870.3000;0.2605;0.7945;
870.6000;0.2702;0.8260;
870.9000;0.2597;0.7945;
871.2000;0.2572;0.7775;
871.5000;0.2589;0.7703;
871.8000;0.2580;0.7727;
872.1000;0.2580;0.7751;
872.4000;0.2589;0.7848;
872.7000;0.2572;0.7848;
873.0000;0.2589;0.7848;
873.3000;0.2483;0.7557;
873.6000;0.2613;0.7848;
873.9000;0.2564;0.7775;
874.2000;0.2540;0.7727;
874.5000;0.2580;0.7921;
874.8000;0.2580;0.7896;
875.1000;0.2491;0.7678;
875.4000;0.2605;0.7945;
875.7000;0.2556;0.7896;
876.0000;0.2564;0.7848;
876.3000;0.2409;0.7339;
876.6000;0.2564;0.7824;
876.9000;0.2580;0.7848;
877.2000;0.2564;0.7799;
877.5000;0.2580;0.7896;
877.8000;0.2589;0.7848;
878.1000;0.2589;0.7824;
878.4000;0.2589;0.7824;
878.7000;0.2646;0.7945;
879.0000;0.2580;0.7872;
879.3000;0.2597;0.7799;
879.6000;0.2597;0.7824;
879.9000;0.2580;0.7848;
880.2000;0.2605;0.7969;
880.5000;0.2597;0.7921;
880.8000;0.2532;0.7727;
881.1000;0.2572;0.7872;
881.4000;0.2589;0.7969;
881.7000;0.2589;0.7945;
882.0000;0.2589;0.7945;
882.3000;0.2564;0.7848;
882.6000;0.2589;0.7848;
882.9000;0.2589;0.7824;
883.2000;0.2605;0.7896;
883.5000;0.2597;0.7896;
883.8000;0.2580;0.7921;
884.1000;0.2589;0.7921;
884.4000;0.2589;0.7921;
884.7000;0.2580;0.7872;
885.0000;0.2589;0.7848;
885.3000;0.2580;0.7775;
885.6000;0.2589;0.7799;
885.9000;0.2589;0.7872;
886.2000;0.2523;0.7654;
886.5000;0.2605;0.7896;
886.8000;0.2589;0.7824;
887.1000;0.2564;0.7848;
887.4000;0.2597;0.7824;
887.7000;0.2548;0.7678;
888.0000;0.2572;0.7824;
888.3000;0.2646;0.8066;
888.6000;0.2564;0.7848;
888.9000;0.2589;0.7969;
889.2000;0.2597;0.7969;
889.5000;0.2580;0.7993;
889.8000;0.2572;0.7993;
890.1000;0.2580;0.7896;
890.4000;0.2580;0.7921;
890.7000;0.2580;0.7993;
891.0000;0.2670;0.8163;
891.3000;0.2580;0.7896;
891.6000;0.2597;0.7872;
891.9000;0.2572;0.7799;
892.2000;0.2597;0.7896;
892.5000;0.2597;0.7921;
892.8000;0.2589;0.7824;
893.1000;0.2564;0.7727;
893.4000;0.2589;0.7799;
893.7000;0.2580;0.7848;
894.0000;0.2532;0.7727;
894.3000;0.2589;0.7993;
894.6000;0.2589;0.7896;
894.9000;0.2597;0.7775;
895.2000;0.2580;0.7824;
895.5000;0.2597;0.7896;
895.8000;0.2589;0.7945;
896.1000;0.2605;0.7872;
896.4000;0.2589;0.7872;
896.7000;0.2572;0.7703;
897.0000;0.2589;0.7703;
897.3000;0.2589;0.7824;
897.6000;0.2597;0.7872;
897.9000;0.2597;0.7872;
898.2000;0.2572;0.7751;
898.5000;0.2572;0.7751;
898.8000;0.2540;0.7727;
899.1000;0.2597;0.7775;
899.4000;0.2572;0.7799;
899.7000;0.2589;0.7872;
900.0000;0.2597;0.7848;
900.3000;0.2572;0.7848;
900.6000;0.2597;0.7945;
900.9000;0.2589;0.7945;
901.2000;0.2589;0.7945;
901.5000;0.2662;0.8163;
901.8000;0.2589;0.7945;
902.1000;0.2597;0.7848;
902.4000;0.2572;0.7799;
902.7000;0.2580;0.7775;
903.0000;0.2605;0.7799;
903.3000;0.2589;0.7751;
903.6000;0.2580;0.7751;
903.9000;0.2523;0.7654;
904.2000;0.2580;0.7824;
904.5000;0.2629;0.7921;
904.8000;0.2580;0.7775;
905.1000;0.2580;0.7872;
905.4000;0.2515;0.7630;
905.7000;0.2597;0.7824;
906.0000;0.2621;0.7921;
906.3000;0.2580;0.7824;
906.6000;0.2589;0.7775;
906.9000;0.2597;0.7727;
907.2000;0.2483;0.7436;
907.5000;0.2686;0.8017;
907.8000;0.2589;0.7848;
908.1000;0.2580;0.7824;
908.4000;0.2580;0.7824;
908.7000;0.2580;0.7824;
909.0000;0.2580;0.7751;
909.3000;0.2589;0.7799;
909.6000;0.2572;0.7751;
909.9000;0.2580;0.7799;
910.2000;0.2458;0.7509;
910.5000;0.2466;0.7485;
910.8000;0.2597;0.7775;
911.1000;0.2515;0.7557;
911.4000;0.2556;0.7751;
911.7000;0.2580;0.7775;
912.0000;0.2694;0.8114;
912.3000;0.2605;0.7872;
912.6000;0.2572;0.7727;
912.9000;0.2629;0.7824;
913.2000;0.2589;0.7799;
913.5000;0.2556;0.7703;
913.8000;0.2589;0.7727;
914.1000;0.2580;0.7727;
914.4000;0.2572;0.7678;
914.7000;0.2597;0.7678;
915.0000;0.2540;0.7581;
915.3000;0.2572;0.7727;
915.6000;0.2605;0.7751;
915.9000;0.2589;0.7775;
916.2000;0.2589;0.7751;
916.5000;0.2580;0.7703;
916.8000;0.2580;0.7654;
917.1000;0.2589;0.7630;
917.4000;0.2572;0.7630;
917.7000;0.2572;0.7630;
918.0000;0.2589;0.7654;
918.3000;0.2515;0.7533;
918.6000;0.2613;0.7824;
918.9000;0.2580;0.7775;
919.2000;0.2589;0.7848;
919.5000;0.2605;0.7799;
919.8000;0.2589;0.7775;
920.1000;0.2580;0.7703;
920.4000;0.2597;0.7703;
920.7000;0.2589;0.7703;
921.0000;0.2597;0.7751;
921.3000;0.2589;0.7775;
921.6000;0.2572;0.7727;
921.9000;0.2589;0.7824;
922.2000;0.2580;0.7751;
922.5000;0.2589;0.7799;
922.8000;0.2589;0.7751;
923.1000;0.2580;0.7727;
923.4000;0.2589;0.7775;
923.7000;0.2580;0.7824;
924.0000;0.2597;0.7824;
924.3000;0.2597;0.7848;
924.6000;0.2613;0.7775;
924.9000;0.2589;0.7703;
925.2000;0.2597;0.7751;
925.5000;0.2580;0.7799;
925.8000;0.2589;0.7751;
926.1000;0.2589;0.7848;
926.4000;0.2605;0.7896;
926.7000;0.2548;0.7799;
927.0000;0.2580;0.7848;
927.3000;0.2637;0.7945;
927.6000;0.2597;0.7872;
927.9000;0.2556;0.7799;
928.2000;0.2589;0.7775;
928.5000;0.2637;0.7945;
928.8000;0.2621;0.7969;
929.1000;0.2572;0.7824;
929.4000;0.2605;0.7896;
929.7000;0.2589;0.7824;
930.0000;0.2597;0.7824;
930.3000;0.2572;0.7775;
930.6000;0.2605;0.7872;
930.9000;0.2597;0.7921;
931.2000;0.2654;0.8042;
931.5000;0.2597;0.7921;
931.8000;0.2580;0.7848;
932.1000;0.2605;0.7896;
932.4000;0.2564;0.7848;
932.7000;0.2597;0.7993;
933.0000;0.2589;0.7969;
933.3000;0.2597;0.7969;
933.6000;0.2589;0.7775;
933.9000;0.2589;0.7727;
934.2000;0.2580;0.7727;
934.5000;0.2475;0.7557;
934.8000;0.2589;0.7872;
935.1000;0.2589;0.7824;
935.4000;0.2605;0.7824;
935.7000;0.2580;0.7678;
936.0000;0.2580;0.7581;
936.3000;0.2613;0.7606;
936.6000;0.2589;0.7581;
936.9000;0.2589;0.7654;
937.2000;0.2580;0.7703;
937.5000;0.2605;0.7824;
937.8000;0.2580;0.7848;
938.1000;0.2572;0.7848;
938.4000;0.2580;0.7848;
938.7000;0.2572;0.7799;
939.0000;0.2662;0.7969;
939.3000;0.2589;0.7703;
939.6000;0.2572;0.7606;
939.9000;0.2589;0.7654;
940.2000;0.2597;0.7727;
940.5000;0.2589;0.7775;
940.8000;0.2572;0.7727;
941.1000;0.2589;0.7824;
941.4000;0.2589;0.7896;
941.7000;0.2572;0.7799;
942.0000;0.2589;0.7824;
942.3000;0.2597;0.7799;
942.6000;0.2613;0.8017;
942.9000;0.2605;0.7993;
943.2000;0.2580;0.7945;
943.5000;0.2580;0.7896;
943.8000;0.2597;0.7872;
944.1000;0.2589;0.7775;
944.4000;0.2556;0.7678;
944.7000;0.2589;0.7727;
945.0000;0.2580;0.7703;
945.3000;0.2580;0.7678;
945.6000;0.2597;0.7775;
945.9000;0.2605;0.7799;
946.2000;0.2589;0.7848;
946.5000;0.2580;0.7896;
946.8000;0.2662;0.8042;
947.1000;0.2564;0.7775;
947.4000;0.2605;0.7799;
947.7000;0.2597;0.7751;
948.0000;0.2589;0.7824;
948.3000;0.2605;0.7872;
948.6000;0.2605;0.7896;
948.9000;0.2580;0.7775;
949.2000;0.2572;0.7703;
949.5000;0.2580;0.7727;
949.8000;0.2621;0.7775;
950.1000;0.2646;0.7848;
950.4000;0.2654;0.7945;
950.7000;0.2597;0.7751;
951.0000;0.2589;0.7751;
951.3000;0.2580;0.7848;
951.6000;0.2540;0.7678;
951.9000;0.2532;0.7630;
952.2000;0.2556;0.7654;
952.5000;0.2589;0.7775;
952.8000;0.2572;0.7678;
953.1000;0.2589;0.7872;
953.4000;0.2548;0.7703;
953.7000;0.2564;0.7727;
954.0000;0.2580;0.7824;
954.3000;0.2605;0.7872;
954.6000;0.2572;0.7848;
954.9000;0.2556;0.7848;
955.2000;0.2646;0.8114;
955.5000;0.2589;0.7993;
955.8000;0.2589;0.7969;
956.1000;0.2589;0.7848;
956.4000;0.2572;0.7848;
956.7000;0.2605;0.7896;
957.0000;0.2580;0.7872;
957.3000;0.2589;0.7799;
957.6000;0.2580;0.7775;
957.9000;0.2597;0.7799;
958.2000;0.2589;0.7751;
958.5000;0.2589;0.7703;
958.8000;0.2589;0.7727;
959.1000;0.2646;0.7896;
959.4000;0.2580;0.7630;
959.7000;0.2572;0.7654;
960.0000;0.2589;0.7654;
960.3000;0.2589;0.7678;
960.6000;0.2580;0.7654;
960.9000;0.2580;0.7678;
961.2000;0.2572;0.7654;
961.5000;0.2589;0.7654;
961.8000;0.2589;0.7727;
962.1000;0.2589;0.7727;
962.4000;0.2613;0.7799;
962.7000;0.2597;0.7848;
963.0000;0.2597;0.7896;
963.3000;0.2564;0.7799;
963.6000;0.2637;0.7969;
963.9000;0.2580;0.7824;
964.2000;0.2597;0.7848;
964.5000;0.2580;0.7775;
964.8000;0.2597;0.7824;
965.1000;0.2580;0.7775;
965.4000;0.2589;0.7727;
965.7000;0.2597;0.7751;
966.0000;0.2556;0.7703;
966.3000;0.2580;0.7727;
966.6000;0.2580;0.7824;
966.9000;0.2548;0.7824;
967.2000;0.2605;0.7824;
967.5000;0.2597;0.7703;
967.8000;0.2580;0.7703;
968.1000;0.2597;0.7727;
968.4000;0.2605;0.7751;
968.7000;0.2597;0.7727;
969.0000;0.2580;0.7630;
969.3000;0.2564;0.7557;
969.6000;0.2605;0.7606;
969.9000;0.2597;0.7630;
970.2000;0.2613;0.7654;
970.5000;0.2597;0.7606;
970.8000;0.2605;0.7727;
971.1000;0.2572;0.7581;
971.4000;0.2597;0.7606;
971.7000;0.2572;0.7606;
972.0000;0.2580;0.7630;
972.3000;0.2580;0.7727;
972.6000;0.2605;0.7678;
972.9000;0.2580;0.7654;
973.2000;0.2597;0.7703;
973.5000;0.2597;0.7557;
973.8000;0.2589;0.7533;
974.1000;0.2597;0.7533;
974.4000;0.2572;0.7485;
974.7000;0.2580;0.7581;
975.0000;0.2580;0.7606;
975.3000;0.2580;0.7727;
975.6000;0.2580;0.7727;
975.9000;0.2597;0.7727;
976.2000;0.2589;0.7775;
976.5000;0.2483;0.7436;
976.8000;0.2597;0.7775;
977.1000;0.2589;0.7727;
977.4000;0.2597;0.7751;
977.7000;0.2556;0.7751;
978.0000;0.2580;0.7799;
978.3000;0.2597;0.7848;
978.6000;0.2605;0.7824;
978.9000;0.2523;0.7678;
979.2000;0.2589;0.7896;
979.5000;0.2458;0.7654;
979.8000;0.2589;0.7921;
980.1000;0.2629;0.7969;
980.4000;0.2580;0.7775;
980.7000;0.2572;0.7799;
981.0000;0.2580;0.7775;
981.3000;0.2597;0.7824;
981.6000;0.2523;0.7703;
981.9000;0.2572;0.7775;
982.2000;0.2556;0.7703;
982.5000;0.2613;0.7848;
982.8000;0.2580;0.7775;
983.1000;0.2637;0.7945;
983.4000;0.2589;0.7848;
983.7000;0.2589;0.7824;
984.0000;0.2564;0.7751;
984.3000;0.2597;0.7896;
984.6000;0.2589;0.7945;
984.9000;0.2605;0.7896;
985.2000;0.2597;0.7799;
985.5000;0.2589;0.7775;
985.8000;0.2597;0.7775;
986.1000;0.2564;0.7727;
986.4000;0.2580;0.7775;
986.7000;0.2580;0.7848;
987.0000;0.2564;0.7896;
987.3000;0.2589;0.7969;
987.6000;0.2613;0.8066;
987.9000;0.2621;0.8114;
988.2000;0.2580;0.8017;
988.5000;0.2597;0.7993;
988.8000;0.2572;0.7848;
989.1000;0.2589;0.7848;
989.4000;0.2597;0.7848;
989.7000;0.2589;0.7703;
990.0000;0.2605;0.7799;
990.3000;0.2589;0.7751;
990.6000;0.2580;0.7751;
990.9000;0.2572;0.7751;
991.2000;0.2564;0.7654;
991.5000;0.2711;0.7969;
991.8000;0.2556;0.7557;
992.1000;0.2572;0.7630;
992.4000;0.2589;0.7751;
992.7000;0.2597;0.7799;
993.0000;0.2637;0.8017;
993.3000;0.2589;0.7921;
993.6000;0.2589;0.7896;
993.9000;0.2621;0.7993;
994.2000;0.2507;0.7654;
994.5000;0.2605;0.7969;
994.8000;0.2605;0.7872;
995.1000;0.2597;0.7799;
995.4000;0.2597;0.7848;
995.7000;0.2589;0.7751;
996.0000;0.2580;0.7775;
996.3000;0.2605;0.7896;
996.6000;0.2605;0.7969;
996.9000;0.2580;0.7872;
997.2000;0.2572;0.7799;
997.5000;0.2580;0.7848;
997.8000;0.2597;0.7848;
998.1000;0.2589;0.7848;
998.4000;0.2572;0.7775;
998.7000;0.2580;0.7824;
999.0000;0.2605;0.7824;
999.3000;0.2597;0.7775;
999.6000;0.2580;0.7654;
999.9000;0.2597;0.7678;
1000.2000;0.2572;0.7727;
1000.5000;0.2572;0.7751;
1000.8000;0.2564;0.7727;
1001.1000;0.2564;0.7581;
1001.4000;0.2580;0.7654;
1001.7000;0.2589;0.7703;
1002.0000;0.2597;0.7751;
1002.3000;0.2580;0.7751;
1002.6000;0.2580;0.7775;
1002.9000;0.2548;0.7703;
1003.2000;0.2580;0.7775;
1003.5000;0.2597;0.7848;
1003.8000;0.2597;0.7872;
1004.1000;0.2589;0.7727;
1004.4000;0.2589;0.7630;
1004.7000;0.2597;0.7654;
1005.0000;0.2589;0.7581;
1005.3000;0.2580;0.7606;
1005.6000;0.2589;0.7606;
1005.9000;0.2572;0.7557;
1006.2000;0.2572;0.7581;
1006.5000;0.2629;0.7775;
1006.8000;0.2564;0.7654;
1007.1000;0.2662;0.7969;
1007.4000;0.2515;0.7654;
1007.7000;0.2605;0.7848;
1008.0000;0.2564;0.7751;
1008.3000;0.2580;0.7848;
1008.6000;0.2466;0.7533;
1008.9000;0.2589;0.7751;
1009.2000;0.2580;0.7727;
1009.5000;0.2580;0.7703;
1009.8000;0.2580;0.7751;
1010.1000;0.2466;0.7460;
1010.4000;0.2572;0.7799;
1010.7000;0.2686;0.8114;
1011.0000;0.2597;0.7921;
1011.3000;0.2605;0.7896;
1011.6000;0.2580;0.7824;
1011.9000;0.2605;0.7848;
1012.2000;0.2589;0.7824;
1012.5000;0.2556;0.7630;
1012.8000;0.2572;0.7727;
1013.1000;0.2580;0.7678;
1013.4000;0.2597;0.7872;
1013.7000;0.2580;0.7872;
1014.0000;0.2580;0.7799;
1014.3000;0.2605;0.7799;
1014.6000;0.2605;0.7727;
1014.9000;0.2589;0.7654;
1015.2000;0.2597;0.7727;
1015.5000;0.2572;0.7678;
1015.8000;0.2597;0.7775;
1016.1000;0.2597;0.7775;
1016.4000;0.2580;0.7775;
1016.7000;0.2580;0.7848;
1017.0000;0.2629;0.8017;
1017.3000;0.2572;0.8017;
1017.6000;0.2580;0.7993;
1017.9000;0.2605;0.7969;
1018.2000;0.2572;0.7799;
1018.5000;0.2580;0.7751;
1018.8000;0.2548;0.7678;
1019.1000;0.2589;0.7872;
1019.4000;0.2597;0.7848;
1019.7000;0.2589;0.7896;
1020.0000;0.2580;0.7969;
1020.3000;0.2589;0.7969;
1020.6000;0.2613;0.8066;
1020.9000;0.2597;0.8017;
1021.2000;0.2548;0.7921;
1021.5000;0.2580;0.7896;
1021.8000;0.2605;0.7969;
1022.1000;0.2589;0.7921;
1022.4000;0.2613;0.7993;
1022.7000;0.2597;0.8017;
1023.0000;0.2589;0.8042;
1023.3000;0.2548;0.7872;
1023.6000;0.2605;0.8017;
1023.9000;0.2564;0.7872;
1024.2000;0.2654;0.8042;
1024.5000;0.2597;0.7799;
1024.8000;0.2637;0.7896;
1025.1000;0.2605;0.7799;
1025.4000;0.2589;0.7799;
1025.7000;0.2507;0.7678;
1026.0000;0.2580;0.7872;
1026.3000;0.2589;0.8017;
1026.6000;0.2605;0.8066;
1026.9000;0.2654;0.8235;
1027.2000;0.2629;0.8211;
1027.5000;0.2572;0.8090;
1027.8000;0.2540;0.7896;
1028.1000;0.2589;0.8042;
1028.4000;0.2589;0.8090;
1028.7000;0.2605;0.8066;
1029.0000;0.2589;0.7969;
1029.3000;0.2589;0.7921;
1029.6000;0.2532;0.7751;
1029.9000;0.2597;0.7969;
1030.2000;0.2597;0.8042;
1030.5000;0.2572;0.8017;
1030.8000;0.2580;0.7945;
1031.1000;0.2637;0.8090;
1031.4000;0.2580;0.7969;
1031.7000;0.2589;0.7896;
1032.0000;0.2580;0.7872;
1032.3000;0.2580;0.7799;
1032.6000;0.2572;0.7727;
1032.9000;0.2597;0.7799;
1033.2000;0.2580;0.7848;
1033.5000;0.2589;0.7921;
1033.8000;0.2605;0.7993;
1034.1000;0.2580;0.7872;
1034.4000;0.2589;0.7896;
1034.7000;0.2580;0.7921;
1035.0000;0.2564;0.7848;
1035.3000;0.2589;0.7799;
1035.6000;0.2572;0.7775;
1035.9000;0.2572;0.7775;
1036.2000;0.2572;0.7727;
1036.5000;0.2580;0.7751;
1036.8000;0.2686;0.8017;
1037.1000;0.2597;0.7775;
1037.4000;0.2589;0.7896;
1037.7000;0.2589;0.7969;
1038.0000;0.2572;0.7921;
1038.3000;0.2548;0.7945;
1038.6000;0.2694;0.8332;
1038.9000;0.2580;0.8017;
1039.2000;0.2580;0.8042;
1039.5000;0.2605;0.8090;
1039.8000;0.2589;0.8066;
1040.1000;0.2572;0.7945;
1040.4000;0.2572;0.7921;
1040.7000;0.2572;0.7921;
1041.0000;0.2637;0.8042;
1041.3000;0.2589;0.7896;
1041.6000;0.2572;0.7872;
1041.9000;0.2572;0.7848;
1042.2000;0.2515;0.7678;
1042.5000;0.2589;0.7896;
1042.8000;0.2580;0.7848;
1043.1000;0.2589;0.7848;
1043.4000;0.2580;0.7896;
1043.7000;0.2580;0.7872;
1044.0000;0.2564;0.7799;
1044.3000;0.2613;0.7993;
1044.6000;0.2589;0.7945;
1044.9000;0.2589;0.7945;
1045.2000;0.2548;0.7921;
1045.5000;0.2572;0.7945;
1045.8000;0.2572;0.7896;
1046.1000;0.2597;0.7945;
1046.4000;0.2564;0.7872;
1046.7000;0.2589;0.7896;
1047.0000;0.2564;0.7896;
1047.3000;0.2515;0.7751;
1047.6000;0.2589;0.7896;
1047.9000;0.2589;0.7848;
1048.2000;0.2589;0.7824;
1048.5000;0.2597;0.7848;
1048.8000;0.2589;0.7799;
1049.1000;0.2621;0.7799;
1049.4000;0.2589;0.7727;
1049.7000;0.2621;0.7872;
1050.0000;0.2629;0.7945;
1050.3000;0.2597;0.7848;
1050.6000;0.2597;0.7824;
1050.9000;0.2589;0.7848;
1051.2000;0.2572;0.7848;
1051.5000;0.2613;0.7872;
1051.8000;0.2589;0.7848;
1052.1000;0.2589;0.7799;
1052.4000;0.2572;0.7775;
1052.7000;0.2540;0.7727;
1053.0000;0.2702;0.8139;
1053.3000;0.2589;0.7799;
1053.6000;0.2564;0.7775;
1053.9000;0.2597;0.7993;
1054.2000;0.2572;0.7969;
1054.5000;0.2589;0.7969;
1054.8000;0.2564;0.7896;
1055.1000;0.2589;0.7896;
1055.4000;0.2613;0.7945;
1055.7000;0.2613;0.7921;
1056.0000;0.2605;0.7872;
1056.3000;0.2597;0.7848;
1056.6000;0.2613;0.7848;
1056.9000;0.2589;0.7848;
1057.2000;0.2589;0.7751;
1057.5000;0.2589;0.7775;
1057.8000;0.2589;0.7824;
1058.1000;0.2580;0.7775;
1058.4000;0.2589;0.7727;
1058.7000;0.2580;0.7703;
1059.0000;0.2589;0.7775;
1059.3000;0.2589;0.7751;
1059.6000;0.2580;0.7630;
1059.9000;0.2589;0.7630;
1060.2000;0.2686;0.7799;
1060.5000;0.2597;0.7630;
1060.8000;0.2621;0.7775;
1061.1000;0.2580;0.7848;
1061.4000;0.2597;0.7848;
1061.7000;0.2564;0.7872;
1062.0000;0.2589;0.7945;
1062.3000;0.2711;0.8114;
1062.6000;0.2580;0.7775;
1062.9000;0.2580;0.7799;
1063.2000;0.2605;0.7872;
1063.5000;0.2580;0.7799;
1063.8000;0.2580;0.7751;
1064.1000;0.2548;0.7581;
1064.4000;0.2580;0.7703;
1064.7000;0.2589;0.7654;
1065.0000;0.2597;0.7799;
1065.3000;0.2597;0.7872;
1065.6000;0.2589;0.7848;
1065.9000;0.2597;0.7799;
1066.2000;0.2515;0.7630;
1066.5000;0.2613;0.7921;
1066.8000;0.2589;0.7848;
1067.1000;0.2572;0.7848;
1067.4000;0.2580;0.7848;
1067.7000;0.2580;0.7799;
1068.0000;0.2597;0.7775;
1068.3000;0.2613;0.7921;
1068.6000;0.2589;0.7824;
1068.9000;0.2580;0.7872;
1069.2000;0.2597;0.7896;
1069.5000;0.2589;0.7896;
1069.8000;0.2556;0.7848;
1070.1000;0.2597;0.7921;
1070.4000;0.2580;0.7921;
1070.7000;0.2605;0.7993;
1071.0000;0.2589;0.8017;
1071.3000;0.2621;0.8066;
1071.6000;0.2597;0.8042;
1071.9000;0.2605;0.8042;
1072.2000;0.2572;0.7921;
1072.5000;0.2589;0.8017;
1072.8000;0.2572;0.7969;
1073.1000;0.2613;0.8042;
1073.4000;0.2613;0.7993;
1073.7000;0.2589;0.7993;
1074.0000;0.2597;0.7969;
1074.3000;0.2613;0.7969;
1074.6000;0.2597;0.8017;
1074.9000;0.2589;0.7969;
1075.2000;0.2548;0.7921;
1075.5000;0.2589;0.7969;
1075.8000;0.2580;0.7945;
1076.1000;0.2605;0.8042;
1076.4000;0.2589;0.7945;
1076.7000;0.2572;0.7824;
1077.0000;0.2564;0.7775;
1077.3000;0.2556;0.7654;
1077.6000;0.2540;0.7557;
1077.9000;0.2589;0.7606;
1078.2000;0.2678;0.7872;
1078.5000;0.2556;0.7581;
1078.8000;0.2589;0.7703;
1079.1000;0.2580;0.7703;
1079.4000;0.2589;0.7751;
1079.7000;0.2589;0.7799;
1080.0000;0.2580;0.7727;
1080.3000;0.2580;0.7775;
1080.6000;0.2613;0.7799;
1080.9000;0.2605;0.7848;
1081.2000;0.2613;0.7969;
1081.5000;0.2580;0.7969;
1081.8000;0.2589;0.7993;
1082.1000;0.2711;0.8235;
1082.4000;0.2613;0.7945;
1082.7000;0.2589;0.7896;
1083.0000;0.2572;0.7896;
1083.3000;0.2719;0.8235;
1083.6000;0.2629;0.7969;
1083.9000;0.2637;0.7945;
1084.2000;0.2564;0.7848;
1084.5000;0.2572;0.7848;
1084.8000;0.2507;0.7703;
1085.1000;0.2589;0.7945;
1085.4000;0.2589;0.7896;
1085.7000;0.2572;0.7921;
1086.0000;0.2580;0.7824;
1086.3000;0.2589;0.7775;
1086.6000;0.2580;0.7703;
1086.9000;0.2466;0.7412;
1087.2000;0.2597;0.7799;
1087.5000;0.2589;0.7824;
1087.8000;0.2597;0.7799;
1088.1000;0.2597;0.7799;
1088.4000;0.2597;0.7775;
1088.7000;0.2597;0.7727;
1089.0000;0.2589;0.7703;
1089.3000;0.2589;0.7799;
1089.6000;0.2589;0.7824;
1089.9000;0.2572;0.7775;
1090.2000;0.2580;0.7824;
1090.5000;0.2580;0.7848;
1090.8000;0.2605;0.7872;
1091.1000;0.2597;0.7824;
1091.4000;0.2597;0.7824;
1091.7000;0.2580;0.7799;
1092.0000;0.2580;0.7896;
1092.3000;0.2597;0.7945;
1092.6000;0.2597;0.8017;
1092.9000;0.2597;0.7945;
1093.2000;0.2589;0.7896;
1093.5000;0.2597;0.7921;
1093.8000;0.2605;0.7945;
1094.1000;0.2532;0.7775;
1094.4000;0.2621;0.8017;
1094.7000;0.2597;0.7945;
1095.0000;0.2605;0.7921;
1095.3000;0.2597;0.7921;
1095.6000;0.2589;0.7896;
1095.9000;0.2662;0.8090;
1096.2000;0.2589;0.7921;
1096.5000;0.2605;0.7945;
1096.8000;0.2589;0.7969;
1097.1000;0.2572;0.7969;
1097.4000;0.2580;0.7848;
1097.7000;0.2605;0.7799;
1098.0000;0.2589;0.7751;
1098.3000;0.2589;0.7775;
1098.6000;0.2556;0.7799;
1098.9000;0.2556;0.7799;
1099.2000;0.2613;0.7945;
1099.5000;0.2605;0.7993;
1099.8000;0.2580;0.8017;
1100.1000;0.2564;0.8042;
1100.4000;0.2597;0.8090;
1100.7000;0.2580;0.8042;
1101.0000;0.2475;0.7703;
1101.3000;0.2597;0.8042;
1101.6000;0.2597;0.8042;
1101.9000;0.2597;0.8017;
1102.2000;0.2646;0.8066;
1102.5000;0.2589;0.7945;
1102.8000;0.2589;0.7848;
1103.1000;0.2589;0.7896;
1103.4000;0.2589;0.7921;
1103.7000;0.2589;0.7848;
1104.0000;0.2580;0.7872;
1104.3000;0.2540;0.7727;
1104.6000;0.2597;0.7921;
1104.9000;0.2564;0.7872;
1105.2000;0.2589;0.7921;
1105.5000;0.2597;0.7896;
1105.8000;0.2580;0.7848;
1106.1000;0.2589;0.7848;
1106.4000;0.2589;0.7921;
1106.7000;0.2580;0.7872;
1107.0000;0.2580;0.7993;
1107.3000;0.2589;0.7921;
1107.6000;0.2580;0.7872;
1107.9000;0.2589;0.7896;
1108.2000;0.2589;0.7799;
1108.5000;0.2540;0.7678;
1108.8000;0.2589;0.7896;
1109.1000;0.2572;0.7921;
1109.4000;0.2589;0.7921;
1109.7000;0.2597;0.7896;
1110.0000;0.2580;0.7921;
1110.3000;0.2621;0.8017;
1110.6000;0.2597;0.7945;
1110.9000;0.2597;0.7945;
1111.2000;0.2580;0.7945;
1111.5000;0.2572;0.7921;
1111.8000;0.2507;0.7751;
1112.1000;0.2589;0.7945;
1112.4000;0.2572;0.7872;
1112.7000;0.2711;0.8211;
1113.0000;0.2580;0.7848;
1113.3000;0.2589;0.7872;
1113.6000;0.2589;0.7872;
1113.9000;0.2605;0.7872;
1114.2000;0.2597;0.7896;
1114.5000;0.2621;0.7775;
1114.8000;0.2597;0.7703;
1115.1000;0.2589;0.7751;
1115.4000;0.2589;0.7824;
1115.7000;0.2597;0.7799;
1116.0000;0.2597;0.7799;
1116.3000;0.2580;0.7799;
1116.6000;0.2589;0.7751;
1116.9000;0.2589;0.7654;
1117.2000;0.2597;0.7799;
1117.5000;0.2548;0.7678;
1117.8000;0.2597;0.7921;
1118.1000;0.2572;0.7848;
1118.4000;0.2589;0.7848;
1118.7000;0.2637;0.7921;
1119.0000;0.2499;0.7654;
1119.3000;0.2605;0.7824;
1119.6000;0.2597;0.7799;
1119.9000;0.2613;0.7799;
1120.2000;0.2564;0.7751;
1120.5000;0.2613;0.7824;
1120.8000;0.2589;0.7727;
1121.1000;0.2515;0.7533;
1121.4000;0.2580;0.7606;
1121.7000;0.2597;0.7703;
1122.0000;0.2589;0.7654;
1122.3000;0.2580;0.7751;
1122.6000;0.2629;0.7872;
1122.9000;0.2580;0.7921;
1123.2000;0.2597;0.7945;
1123.5000;0.2589;0.7848;
1123.8000;0.2580;0.7824;
1124.1000;0.2572;0.7799;
1124.4000;0.2589;0.7872;
1124.7000;0.2589;0.7945;
1125.0000;0.2572;0.7969;
1125.3000;0.2572;0.7896;
1125.6000;0.2589;0.7848;
1125.9000;0.2564;0.7799;
1126.2000;0.2694;0.8114;
1126.5000;0.2564;0.7799;
1126.8000;0.2580;0.7751;
1127.1000;0.2597;0.7848;
1127.4000;0.2572;0.7751;
1127.7000;0.2597;0.7824;
1128.0000;0.2589;0.7775;
1128.3000;0.2686;0.7993;
1128.6000;0.2605;0.7824;
1128.9000;0.2613;0.7896;
1129.2000;0.2548;0.7824;
1129.5000;0.2605;0.7896;
1129.8000;0.2597;0.7848;
1130.1000;0.2605;0.7824;
1130.4000;0.2605;0.7799;
1130.7000;0.2597;0.7824;
1131.0000;0.2646;0.7896;
1131.3000;0.2523;0.7533;
1131.6000;0.2605;0.7751;
1131.9000;0.2597;0.7775;
1132.2000;0.2589;0.7703;
1132.5000;0.2548;0.7630;
1132.8000;0.2556;0.7557;
1133.1000;0.2589;0.7630;
1133.4000;0.2580;0.7557;
1133.7000;0.2589;0.7557;
1134.0000;0.2564;0.7485;
1134.3000;0.2532;0.7436;
1134.6000;0.2613;0.7678;
1134.9000;0.2572;0.7630;
1135.2000;0.2597;0.7606;
1135.5000;0.2589;0.7606;
1135.8000;0.2597;0.7606;
1136.1000;0.2613;0.7654;
1136.4000;0.2572;0.7630;
1136.7000;0.2597;0.7606;
1137.0000;0.2589;0.7630;
1137.3000;0.2580;0.7557;
1137.6000;0.2572;0.7509;
1137.9000;0.2580;0.7581;
1138.2000;0.2613;0.7557;
1138.5000;0.2589;0.7509;
1138.8000;0.2597;0.7557;
1139.1000;0.2556;0.7412;
1139.4000;0.2589;0.7460;
1139.7000;0.2613;0.7485;
1140.0000;0.2597;0.7533;
1140.3000;0.2605;0.7485;
1140.6000;0.2572;0.7388;
1140.9000;0.2597;0.7460;
1141.2000;0.2597;0.7412;
1141.5000;0.2589;0.7388;
1141.8000;0.2589;0.7363;
1142.1000;0.2589;0.7388;
1142.4000;0.2589;0.7363;
1142.7000;0.2605;0.7363;
1143.0000;0.2597;0.7315;
1143.3000;0.2589;0.7194;
1143.6000;0.2589;0.7242;
1143.9000;0.2597;0.7291;
1144.2000;0.2589;0.7242;
1144.5000;0.2572;0.7267;
1144.8000;0.2580;0.7291;
1145.1000;0.2580;0.7388;
1145.4000;0.2572;0.7412;
1145.7000;0.2597;0.7581;
1146.0000;0.2589;0.7509;
1146.3000;0.2597;0.7509;
1146.6000;0.2580;0.7509;
1146.9000;0.2589;0.7557;
1147.2000;0.2564;0.7630;
1147.5000;0.2589;0.7654;
1147.8000;0.2580;0.7630;
1148.1000;0.2646;0.7751;
1148.4000;0.2580;0.7606;
1148.7000;0.2605;0.7630;
1149.0000;0.2597;0.7654;
1149.3000;0.2605;0.7606;
1149.6000;0.2605;0.7630;
1149.9000;0.2613;0.7630;
1150.2000;0.2597;0.7654;
1150.5000;0.2589;0.7703;
1150.8000;0.2572;0.7703;
1151.1000;0.2589;0.7703;
1151.4000;0.2597;0.7630;
1151.7000;0.2589;0.7557;
1152.0000;0.2572;0.7460;
1152.3000;0.2589;0.7436;
1152.6000;0.2597;0.7339;
1152.9000;0.2646;0.7460;
1153.2000;0.2646;0.7363;
1153.5000;0.2564;0.7145;
1153.8000;0.2589;0.7339;
1154.1000;0.2589;0.7460;
1154.4000;0.2580;0.7509;
1154.7000;0.2613;0.7630;
1155.0000;0.2458;0.7218;
1155.3000;0.2621;0.7678;
1155.6000;0.2589;0.7557;
1155.9000;0.2629;0.7678;
1156.2000;0.2694;0.7751;
1156.5000;0.2589;0.7509;
1156.8000;0.2548;0.7388;
1157.1000;0.2564;0.7436;
1157.4000;0.2572;0.7509;
1157.7000;0.2572;0.7485;
1158.0000;0.2564;0.7485;
1158.3000;0.2670;0.7606;
1158.6000;0.2572;0.7460;
1158.9000;0.2580;0.7485;
1159.2000;0.2580;0.7509;
1159.5000;0.2589;0.7533;
1159.8000;0.2589;0.7606;
1160.1000;0.2605;0.7751;
1160.4000;0.2580;0.7678;
1160.7000;0.2580;0.7703;
1161.0000;0.2589;0.7703;
1161.3000;0.2580;0.7606;
1161.6000;0.2589;0.7606;
1161.9000;0.2572;0.7533;
1162.2000;0.2572;0.7557;
1162.5000;0.2589;0.7581;
1162.8000;0.2572;0.7509;
1163.1000;0.2613;0.7533;
1163.4000;0.2580;0.7533;
1163.7000;0.2580;0.7533;
1164.0000;0.2589;0.7606;
1164.3000;0.2605;0.7654;
1164.6000;0.2597;0.7606;
1164.9000;0.2613;0.7678;
1165.2000;0.2597;0.7654;
1165.5000;0.2605;0.7703;
1165.8000;0.2597;0.7703;
1166.1000;0.2458;0.7388;
1166.4000;0.2580;0.7703;
1166.7000;0.2589;0.7703;
1167.0000;0.2507;0.7509;
1167.3000;0.2580;0.7654;
1167.6000;0.2589;0.7630;
1167.9000;0.2597;0.7630;
1168.2000;0.2589;0.7630;
1168.5000;0.2580;0.7654;
1168.8000;0.2605;0.7799;
1169.1000;0.2597;0.7896;
1169.4000;0.2580;0.7799;
1169.7000;0.2556;0.7630;
1170.0000;0.2580;0.7678;
1170.3000;0.2670;0.7848;
1170.6000;0.2589;0.7606;
1170.9000;0.2589;0.7581;
1171.2000;0.2597;0.7654;
1171.5000;0.2597;0.7727;
1171.8000;0.2589;0.7799;
1172.1000;0.2613;0.7896;
1172.4000;0.2564;0.7678;
1172.7000;0.2580;0.7751;
1173.0000;0.2572;0.7727;
1173.3000;0.2613;0.7872;
1173.6000;0.2589;0.7848;
1173.9000;0.2580;0.7799;
1174.2000;0.2597;0.7751;
1174.5000;0.2589;0.7775;
1174.8000;0.2580;0.7799;
1175.1000;0.2654;0.7921;
1175.4000;0.2629;0.7921;
1175.7000;0.2629;0.7993;
1176.0000;0.2597;0.7872;
1176.3000;0.2507;0.7581;
1176.6000;0.2597;0.7848;
1176.9000;0.2621;0.7921;
1177.2000;0.2540;0.7678;
1177.5000;0.2532;0.7678;
1177.8000;0.2597;0.7799;
1178.1000;0.2597;0.7848;
1178.4000;0.2580;0.7799;
1178.7000;0.2564;0.7848;
1179.0000;0.2589;0.7848;
1179.3000;0.2564;0.7799;
1179.6000;0.2589;0.7872;
1179.9000;0.2556;0.7799;
1180.2000;0.2572;0.7824;
1180.5000;0.2589;0.7848;
1180.8000;0.2548;0.7848;
1181.1000;0.2580;0.7896;
1181.4000;0.2605;0.7969;
1181.7000;0.2589;0.8017;
1182.0000;0.2564;0.7872;
1182.3000;0.2589;0.7872;
1182.6000;0.2580;0.7824;
1182.9000;0.2580;0.7848;
1183.2000;0.2613;0.7848;
1183.5000;0.2580;0.7727;
1183.8000;0.2572;0.7654;
1184.1000;0.2572;0.7703;
1184.4000;0.2572;0.7799;
1184.7000;0.2597;0.7921;
1185.0000;0.2589;0.7945;
1185.3000;0.2605;0.7969;
1185.6000;0.2580;0.7896;
1185.9000;0.2564;0.7921;
1186.2000;0.2589;0.7969;
1186.5000;0.2580;0.7921;
1186.8000;0.2589;0.7945;
1187.1000;0.2597;0.7945;
1187.4000;0.2580;0.7872;
1187.7000;0.2597;0.7848;
1188.0000;0.2613;0.7872;
1188.3000;0.2589;0.7896;
1188.6000;0.2580;0.7993;
1188.9000;0.2597;0.7993;
1189.2000;0.2589;0.8114;
1189.5000;0.2589;0.8042;
1189.8000;0.2605;0.8017;
1190.1000;0.2662;0.8066;
1190.4000;0.2589;0.7872;
1190.7000;0.2589;0.7945;
1191.0000;0.2605;0.7969;
1191.3000;0.2613;0.7945;
1191.6000;0.2597;0.7921;
1191.9000;0.2580;0.7872;
1192.2000;0.2589;0.7848;
1192.5000;0.2589;0.7751;
1192.8000;0.2580;0.7703;
1193.1000;0.2597;0.7751;
1193.4000;0.2670;0.7896;
1193.7000;0.2564;0.7703;
1194.0000;0.2580;0.7727;
1194.3000;0.2580;0.7703;
1194.6000;0.2589;0.7848;
1194.9000;0.2580;0.7945;
1195.2000;0.2580;0.7945;
1195.5000;0.2597;0.8017;
1195.8000;0.2589;0.7969;
1196.1000;0.2605;0.7993;
1196.4000;0.2589;0.7921;
1196.7000;0.2589;0.7872;
1197.0000;0.2572;0.7848;
1197.3000;0.2564;0.7799;
1197.6000;0.2597;0.7945;
1197.9000;0.2605;0.7993;
1198.2000;0.2646;0.8066;
1198.5000;0.2589;0.7872;
1198.8000;0.2589;0.7896;
1199.1000;0.2613;0.7945;
1199.4000;0.2589;0.7896;
1199.7000;0.2589;0.7969;
1200.0000;0.2621;0.8042;
1200.3000;0.2572;0.7969;
1200.6000;0.2597;0.8017;
1200.9000;0.2597;0.7993;
1201.2000;0.2597;0.8066;
1201.5000;0.2589;0.8042;
1201.8000;0.2564;0.7921;
1202.1000;0.2572;0.7872;
1202.4000;0.2605;0.7945;
1202.7000;0.2589;0.7896;
1203.0000;0.2580;0.7848;
1203.3000;0.2589;0.7896;
1203.6000;0.2556;0.7921;
1203.9000;0.2507;0.7751;
1204.2000;0.2580;0.7896;
1204.5000;0.2580;0.7872;
1204.8000;0.2580;0.7848;
1205.1000;0.2605;0.7799;
1205.4000;0.2605;0.7799;
1205.7000;0.2605;0.7775;
1206.0000;0.2580;0.7727;
1206.3000;0.2621;0.7775;
1206.6000;0.2589;0.7775;
1206.9000;0.2605;0.7678;
1207.2000;0.2580;0.7727;
1207.5000;0.2597;0.7775;
1207.8000;0.2605;0.7799;
1208.1000;0.2589;0.7727;
1208.4000;0.2589;0.7630;
1208.7000;0.2580;0.7654;
1209.0000;0.2580;0.7727;
1209.3000;0.2572;0.7678;
1209.6000;0.2613;0.7751;
1209.9000;0.2580;0.7678;
1210.2000;0.2597;0.7799;
1210.5000;0.2613;0.7848;
1210.8000;0.2580;0.7751;
1211.1000;0.2580;0.7751;
1211.4000;0.2564;0.7654;
1211.7000;0.2580;0.7751;
1212.0000;0.2515;0.7630;
1212.3000;0.2597;0.7872;
1212.6000;0.2589;0.7848;
1212.9000;0.2597;0.7848;
1213.2000;0.2605;0.7824;
1213.5000;0.2597;0.7824;
1213.8000;0.2589;0.7969;
1214.1000;0.2589;0.7945;
1214.4000;0.2580;0.7872;
1214.7000;0.2572;0.7896;
1215.0000;0.2629;0.7993;
1215.3000;0.2605;0.7921;
1215.6000;0.2589;0.7848;
1215.9000;0.2597;0.7969;
1216.2000;0.2556;0.7872;
1216.5000;0.2580;0.8017;
1216.8000;0.2589;0.7921;
1217.1000;0.2515;0.7703;
1217.4000;0.2589;0.7848;
1217.7000;0.2597;0.7945;
1218.0000;0.2597;0.7896;
1218.3000;0.2589;0.7945;
1218.6000;0.2597;0.7921;
1218.9000;0.2605;0.8042;
1219.2000;0.2580;0.8017;
1219.5000;0.2589;0.8017;
1219.8000;0.2589;0.8042;
1220.1000;0.2580;0.8017;
1220.4000;0.2580;0.8042;
1220.7000;0.2605;0.8114;
1221.0000;0.2597;0.8114;
1221.3000;0.2605;0.8066;
1221.6000;0.2613;0.8114;
1221.9000;0.2597;0.8066;
1222.2000;0.2597;0.8066;
1222.5000;0.2540;0.7896;
1222.8000;0.2589;0.8066;
1223.1000;0.2580;0.7993;
1223.4000;0.2605;0.7969;
1223.7000;0.2597;0.7945;
1224.0000;0.2556;0.7896;
1224.3000;0.2613;0.8017;
1224.6000;0.2621;0.7969;
1224.9000;0.2580;0.7872;
1225.2000;0.2597;0.7896;
1225.5000;0.2572;0.7921;
1225.8000;0.2605;0.8017;
1226.1000;0.2589;0.7969;
1226.4000;0.2580;0.7993;
1226.7000;0.2589;0.8066;
1227.0000;0.2597;0.8163;
1227.3000;0.2572;0.8114;
1227.6000;0.2637;0.8211;
1227.9000;0.2597;0.8066;
1228.2000;0.2589;0.8090;
1228.5000;0.2580;0.8042;
1228.8000;0.2580;0.8017;
1229.1000;0.2597;0.8042;
1229.4000;0.2597;0.7969;
1229.7000;0.2580;0.7969;
1230.0000;0.2694;0.8308;
1230.3000;0.2589;0.8017;
1230.6000;0.2589;0.8017;
1230.9000;0.2597;0.7969;
1231.2000;0.2605;0.7921;
1231.5000;0.2597;0.7896;
1231.8000;0.2613;0.7921;
1232.1000;0.2597;0.7872;
1232.4000;0.2580;0.7799;
1232.7000;0.2629;0.7921;
1233.0000;0.2613;0.7872;
1233.3000;0.2597;0.7799;
1233.6000;0.2589;0.7799;
1233.9000;0.2686;0.8139;
1234.2000;0.2621;0.7945;
1234.5000;0.2589;0.7799;
1234.8000;0.2670;0.8066;
1235.1000;0.2580;0.7872;
1235.4000;0.2589;0.7848;
1235.7000;0.2564;0.7727;
1236.0000;0.2605;0.7703;
1236.3000;0.2572;0.7630;
1236.6000;0.2621;0.7775;
1236.9000;0.2532;0.7630;
1237.2000;0.2637;0.7848;
1237.5000;0.2613;0.7775;
1237.8000;0.2589;0.7775;
1238.1000;0.2597;0.7848;
1238.4000;0.2597;0.7872;
1238.7000;0.2589;0.7799;
1239.0000;0.2580;0.7751;
1239.3000;0.2580;0.7775;
1239.6000;0.2597;0.7872;
1239.9000;0.2580;0.7775;
1240.2000;0.2605;0.7824;
1240.5000;0.2548;0.7654;
1240.8000;0.2580;0.7775;
1241.1000;0.2597;0.7848;
1241.4000;0.2580;0.7775;
1241.7000;0.2580;0.7848;
1242.0000;0.2605;0.7896;
1242.3000;0.2605;0.7799;
1242.6000;0.2572;0.7727;
1242.9000;0.2580;0.7727;
1243.2000;0.2589;0.7799;
1243.5000;0.2597;0.7848;
1243.8000;0.2597;0.7848;
1244.1000;0.2572;0.7727;
1244.4000;0.2564;0.7751;
1244.7000;0.2589;0.7751;
1245.0000;0.2589;0.7630;
1245.3000;0.2564;0.7581;
1245.6000;0.2580;0.7630;
1245.9000;0.2597;0.7581;
1246.2000;0.2572;0.7581;
1246.5000;0.2589;0.7654;
1246.8000;0.2580;0.7630;
1247.1000;0.2621;0.7751;
1247.4000;0.2694;0.7969;
1247.7000;0.2597;0.7703;
1248.0000;0.2613;0.7872;
1248.3000;0.2564;0.7727;
1248.6000;0.2597;0.7775;
1248.9000;0.2580;0.7775;
1249.2000;0.2523;0.7606;
1249.5000;0.2572;0.7678;
1249.8000;0.2589;0.7727;
1250.1000;0.2580;0.7678;
1250.4000;0.2580;0.7678;
1250.7000;0.2572;0.7654;
1251.0000;0.2589;0.7678;
1251.3000;0.2572;0.7678;
1251.6000;0.2580;0.7606;
1251.9000;0.2540;0.7436;
1252.2000;0.2589;0.7630;
1252.5000;0.2580;0.7606;
1252.8000;0.2580;0.7606;
1253.1000;0.2605;0.7775;
1253.4000;0.2589;0.7775;
1253.7000;0.2572;0.7678;
1254.0000;0.2637;0.7727;
1254.3000;0.2589;0.7557;
1254.6000;0.2613;0.7630;
1254.9000;0.2605;0.7509;
1255.2000;0.2589;0.7485;
1255.5000;0.2580;0.7533;
1255.8000;0.2654;0.7775;
1256.1000;0.2597;0.7678;
1256.4000;0.2589;0.7630;
1256.7000;0.2686;0.7993;
1257.0000;0.2580;0.7727;
1257.3000;0.2613;0.7678;
1257.6000;0.2597;0.7654;
1257.9000;0.2597;0.7654;
1258.2000;0.2605;0.7703;
1258.5000;0.2613;0.7751;
1258.8000;0.2597;0.7848;
1259.1000;0.2548;0.7606;
1259.4000;0.2605;0.7727;
1259.7000;0.2637;0.7824;
1260.0000;0.2580;0.7678;
1260.3000;0.2589;0.7630;
1260.6000;0.2589;0.7606;
1260.9000;0.2597;0.7630;
1261.2000;0.2564;0.7581;
1261.5000;0.2605;0.7654;
1261.8000;0.2589;0.7630;
1262.1000;0.2597;0.7654;
1262.4000;0.2589;0.7557;
1262.7000;0.2605;0.7630;
1263.0000;0.2597;0.7606;
1263.3000;0.2589;0.7606;
1263.6000;0.2580;0.7654;
1263.9000;0.2597;0.7751;
1264.2000;0.2589;0.7703;
1264.5000;0.2589;0.7824;
1264.8000;0.2589;0.7775;
1265.1000;0.2597;0.7727;
1265.4000;0.2572;0.7606;
1265.7000;0.2580;0.7654;
1266.0000;0.2572;0.7509;
1266.3000;0.2572;0.7485;
1266.6000;0.2572;0.7581;
1266.9000;0.2589;0.7727;
1267.2000;0.2589;0.7703;
1267.5000;0.2613;0.7751;
1267.8000;0.2597;0.7703;
1268.1000;0.2637;0.7896;
1268.4000;0.2613;0.7848;
1268.7000;0.2605;0.7896;
1269.0000;0.2589;0.7848;
1269.3000;0.2613;0.7896;
1269.6000;0.2589;0.7824;
1269.9000;0.2597;0.7896;
1270.2000;0.2580;0.7896;
1270.5000;0.2605;0.7993;
1270.8000;0.2580;0.7993;
1271.1000;0.2678;0.8187;
1271.4000;0.2515;0.7751;
1271.7000;0.2572;0.7848;
1272.0000;0.2654;0.8017;
1272.3000;0.2637;0.7921;
1272.6000;0.2580;0.7872;
1272.9000;0.2572;0.7848;
1273.2000;0.2572;0.7848;
1273.5000;0.2589;0.7848;
1273.8000;0.2580;0.7775;
1274.1000;0.2580;0.7751;
1274.4000;0.2597;0.7799;
1274.7000;0.2589;0.7824;
1275.0000;0.2589;0.7799;
1275.3000;0.2589;0.7872;
1275.6000;0.2605;0.8017;
1275.9000;0.2597;0.7872;
1276.2000;0.2580;0.7848;
1276.5000;0.2589;0.7799;
1276.8000;0.2621;0.7896;
1277.1000;0.2597;0.7848;
1277.4000;0.2589;0.7799;
1277.7000;0.2613;0.7848;
1278.0000;0.2589;0.7775;
1278.3000;0.2580;0.7678;
1278.6000;0.2572;0.7533;
1278.9000;0.2589;0.7606;
1279.2000;0.2597;0.7533;
1279.5000;0.2515;0.7291;
1279.8000;0.2589;0.7557;
1280.1000;0.2621;0.7654;
1280.4000;0.2589;0.7654;
1280.7000;0.2597;0.7678;
1281.0000;0.2564;0.7606;
1281.3000;0.2580;0.7654;
1281.6000;0.2605;0.7654;
1281.9000;0.2597;0.7630;
1282.2000;0.2597;0.7703;
1282.5000;0.2580;0.7678;
1282.8000;0.2597;0.7727;
1283.1000;0.2491;0.7315;
1283.4000;0.2613;0.7654;
1283.7000;0.2580;0.7533;
1284.0000;0.2589;0.7509;
1284.3000;0.2572;0.7436;
1284.6000;0.2580;0.7485;
1284.9000;0.2580;0.7509;
1285.2000;0.2597;0.7557;
1285.5000;0.2572;0.7581;
1285.8000;0.2589;0.7654;
1286.1000;0.2580;0.7678;
1286.4000;0.2589;0.7630;
1286.7000;0.2605;0.7799;
1287.0000;0.2605;0.7775;
1287.3000;0.2597;0.7848;
1287.6000;0.2572;0.7848;
1287.9000;0.2580;0.7824;
1288.2000;0.2711;0.8042;
1288.5000;0.2597;0.7751;
1288.8000;0.2613;0.7799;
1289.1000;0.2564;0.7678;
1289.4000;0.2605;0.7848;
1289.7000;0.2572;0.7872;
1290.0000;0.2580;0.7872;
1290.3000;0.2605;0.7848;
1290.6000;0.2605;0.7848;
1290.9000;0.2589;0.7799;
1291.2000;0.2597;0.7824;
1291.5000;0.2580;0.7824;
1291.8000;0.2589;0.7872;
1292.1000;0.2621;0.7945;
1292.4000;0.2572;0.7921;
1292.7000;0.2589;0.7969;
1293.0000;0.2597;0.7896;
1293.3000;0.2580;0.7775;
1293.6000;0.2654;0.7969;
1293.9000;0.2597;0.7799;
1294.2000;0.2597;0.7799;
1294.5000;0.2589;0.7727;
1294.8000;0.2637;0.7896;
1295.1000;0.2572;0.7727;
1295.4000;0.2589;0.7775;
1295.7000;0.2580;0.7775;
1296.0000;0.2564;0.7751;
1296.3000;0.2580;0.7727;
1296.6000;0.2580;0.7775;
1296.9000;0.2589;0.7848;
1297.2000;0.2589;0.7824;
1297.5000;0.2580;0.7824;
1297.8000;0.2597;0.7896;
1298.1000;0.2605;0.7896;
1298.4000;0.2629;0.7896;
1298.7000;0.2589;0.7896;
1299.0000;0.2572;0.7921;
1299.3000;0.2597;0.7921;
1299.6000;0.2613;0.7969;
1299.9000;0.2613;0.7993;
1300.2000;0.2605;0.7969;
1300.5000;0.2605;0.7896;
1300.8000;0.2589;0.7872;
1301.1000;0.2597;0.7872;
1301.4000;0.2605;0.7921;
1301.7000;0.2589;0.7872;
1302.0000;0.2532;0.7727;
1302.3000;0.2629;0.7945;
1302.6000;0.2580;0.7872;
1302.9000;0.2589;0.7848;
1303.2000;0.2621;0.7872;
1303.5000;0.2613;0.7775;
1303.8000;0.2589;0.7824;
1304.1000;0.2637;0.7872;
1304.4000;0.2613;0.7848;
1304.7000;0.2605;0.7824;
1305.0000;0.2597;0.7848;
1305.3000;0.2637;0.7921;
1305.6000;0.2613;0.7848;
1305.9000;0.2646;0.7969;
1306.2000;0.2589;0.7799;
1306.5000;0.2597;0.7751;
1306.8000;0.2613;0.7727;
1307.1000;0.2523;0.7557;
1307.4000;0.2564;0.7630;
1307.7000;0.2605;0.7824;
1308.0000;0.2532;0.7654;
1308.3000;0.2572;0.7824;
1308.6000;0.2597;0.7848;
1308.9000;0.2605;0.7896;
1309.2000;0.2466;0.7509;
1309.5000;0.2580;0.7775;
1309.8000;0.2605;0.7824;
1310.1000;0.2556;0.7848;
1310.4000;0.2589;0.7945;
1310.7000;0.2580;0.7969;
1311.0000;0.2589;0.7969;
1311.3000;0.2605;0.7969;
1311.6000;0.2580;0.7945;
1311.9000;0.2580;0.7896;
1312.2000;0.2589;0.7921;
1312.5000;0.2597;0.7921;
1312.8000;0.2605;0.7872;
1313.1000;0.2597;0.7848;
1313.4000;0.2589;0.7824;
1313.7000;0.2589;0.7799;
1314.0000;0.2605;0.7848;
1314.3000;0.2580;0.7751;
1314.6000;0.2613;0.7921;
1314.9000;0.2629;0.7896;
1315.2000;0.2597;0.7775;
1315.5000;0.2589;0.7751;
1315.8000;0.2605;0.7799;
1316.1000;0.2589;0.7751;
1316.4000;0.2597;0.7727;
1316.7000;0.2589;0.7678;
1317.0000;0.2580;0.7727;
1317.3000;0.2589;0.7824;
1317.6000;0.2597;0.7727;
1317.9000;0.2580;0.7630;
1318.2000;0.2572;0.7557;
1318.5000;0.2572;0.7654;
1318.8000;0.2548;0.7630;
1319.1000;0.2597;0.7678;
1319.4000;0.2580;0.7630;
1319.7000;0.2597;0.7630;
1320.0000;0.2686;0.7896;
1320.3000;0.2597;0.7581;
1320.6000;0.2589;0.7557;
1320.9000;0.2572;0.7533;
1321.2000;0.2564;0.7509;
1321.5000;0.2564;0.7533;
1321.8000;0.2580;0.7654;
1322.1000;0.2572;0.7678;
1322.4000;0.2540;0.7630;
1322.7000;0.2605;0.7727;
1323.0000;0.2597;0.7824;
1323.3000;0.2580;0.7799;
1323.6000;0.2597;0.7848;
1323.9000;0.2597;0.7896;
1324.2000;0.2597;0.7896;
1324.5000;0.2589;0.7848;
1324.8000;0.2597;0.7727;
1325.1000;0.2589;0.7799;
1325.4000;0.2605;0.7848;
1325.7000;0.2597;0.7848;
1326.0000;0.2556;0.7630;
1326.3000;0.2613;0.7848;
1326.6000;0.2572;0.7727;
1326.9000;0.2564;0.7654;
1327.2000;0.2605;0.7703;
1327.5000;0.2580;0.7678;
1327.8000;0.2580;0.7654;
1328.1000;0.2589;0.7630;
1328.4000;0.2580;0.7581;
1328.7000;0.2589;0.7581;
1329.0000;0.2466;0.7315;
1329.3000;0.2589;0.7678;
1329.6000;0.2580;0.7654;
1329.9000;0.2540;0.7485;
1330.2000;0.2589;0.7678;
1330.5000;0.2589;0.7606;
1330.8000;0.2597;0.7654;
1331.1000;0.2678;0.7872;
1331.4000;0.2540;0.7533;
1331.7000;0.2605;0.7751;
1332.0000;0.2678;0.7969;
1332.3000;0.2613;0.7824;
1332.6000;0.2564;0.7678;
1332.9000;0.2597;0.7775;
1333.2000;0.2548;0.7654;
1333.5000;0.2580;0.7727;
1333.8000;0.2597;0.7678;
1334.1000;0.2605;0.7727;
1334.4000;0.2613;0.7751;
1334.7000;0.2564;0.7654;
1335.0000;0.2589;0.7630;
1335.3000;0.2597;0.7654;
1335.6000;0.2597;0.7703;
1335.9000;0.2621;0.7727;
1336.2000;0.2605;0.7654;
1336.5000;0.2605;0.7630;
1336.8000;0.2621;0.7678;
1337.1000;0.2589;0.7606;
1337.4000;0.2613;0.7678;
1337.7000;0.2580;0.7581;
1338.0000;0.2621;0.7630;
1338.3000;0.2589;0.7654;
1338.6000;0.2605;0.7606;
1338.9000;0.2597;0.7630;
1339.2000;0.2589;0.7557;
1339.5000;0.2580;0.7581;
1339.8000;0.2597;0.7581;
1340.1000;0.2597;0.7460;
1340.4000;0.2605;0.7533;
1340.7000;0.2605;0.7485;
1341.0000;0.2540;0.7242;
1341.3000;0.2580;0.7436;
1341.6000;0.2605;0.7436;
1341.9000;0.2621;0.7606;
1342.2000;0.2572;0.7533;
1342.5000;0.2597;0.7630;
1342.8000;0.2580;0.7581;
1343.1000;0.2564;0.7460;
1343.4000;0.2572;0.7533;
1343.7000;0.2580;0.7606;
1344.0000;0.2589;0.7678;
1344.3000;0.2580;0.7678;
1344.6000;0.2564;0.7630;
1344.9000;0.2597;0.7751;
1345.2000;0.2597;0.7848;
1345.5000;0.2589;0.7824;
1345.8000;0.2605;0.7921;
1346.1000;0.2605;0.7945;
1346.4000;0.2589;0.7824;
1346.7000;0.2589;0.7872;
1347.0000;0.2589;0.7896;
1347.3000;0.2605;0.7921;
1347.6000;0.2637;0.8066;
1347.9000;0.2597;0.7945;
1348.2000;0.2589;0.7896;
1348.5000;0.2646;0.7993;
1348.8000;0.2523;0.7727;
1349.1000;0.2564;0.7848;
1349.4000;0.2556;0.7824;
1349.7000;0.2589;0.7896;
1350.0000;0.2629;0.8042;
1350.3000;0.2564;0.7872;
1350.6000;0.2556;0.7775;
1350.9000;0.2613;0.7848;
1351.2000;0.2572;0.7703;
1351.5000;0.2572;0.7703;
1351.8000;0.2564;0.7703;
1352.1000;0.2589;0.7872;
1352.4000;0.2507;0.7775;
1352.7000;0.2678;0.8187;
1353.0000;0.2548;0.7848;
1353.3000;0.2597;0.7872;
1353.6000;0.2597;0.7896;
1353.9000;0.2580;0.7848;
1354.2000;0.2580;0.7775;
1354.5000;0.2597;0.7775;
1354.8000;0.2597;0.7751;
1355.1000;0.2580;0.7727;
1355.4000;0.2589;0.7775;
1355.7000;0.2589;0.7775;
1356.0000;0.2621;0.7872;
1356.3000;0.2597;0.7872;
1356.6000;0.2589;0.7921;
1356.9000;0.2597;0.7921;
1357.2000;0.2597;0.7824;
1357.5000;0.2589;0.7824;
1357.8000;0.2589;0.7824;
1358.1000;0.2605;0.7921;
1358.4000;0.2572;0.7824;
1358.7000;0.2564;0.7799;
1359.0000;0.2580;0.7824;
1359.3000;0.2540;0.7703;
1359.6000;0.2629;0.7824;
1359.9000;0.2597;0.7775;
1360.2000;0.2605;0.7872;
1360.5000;0.2605;0.7945;
1360.8000;0.2605;0.7848;
1361.1000;0.2523;0.7654;
1361.4000;0.2605;0.7799;
1361.7000;0.2605;0.7848;
1362.0000;0.2589;0.7799;
1362.3000;0.2597;0.7848;
1362.6000;0.2637;0.8017;
1362.9000;0.2597;0.7945;
1363.2000;0.2621;0.8066;
1363.5000;0.2580;0.7921;
1363.8000;0.2556;0.7799;
1364.1000;0.2540;0.7751;
1364.4000;0.2564;0.7848;
1364.7000;0.2597;0.7969;
1365.0000;0.2597;0.8090;
1365.3000;0.2654;0.8187;
1365.6000;0.2564;0.7896;
1365.9000;0.2613;0.8042;
1366.2000;0.2605;0.7993;
1366.5000;0.2589;0.7945;
1366.8000;0.2646;0.8042;
1367.1000;0.2564;0.7872;
1367.4000;0.2597;0.7896;
1367.7000;0.2580;0.7872;
1368.0000;0.2597;0.7945;
1368.3000;0.2507;0.7751;
1368.6000;0.2540;0.7969;
1368.9000;0.2572;0.8017;
1369.2000;0.2523;0.7921;
1369.5000;0.2580;0.8090;
1369.8000;0.2589;0.8066;
1370.1000;0.2597;0.8139;
1370.4000;0.2605;0.8066;
1370.7000;0.2597;0.7993;
1371.0000;0.2613;0.7921;
1371.3000;0.2621;0.7896;
1371.6000;0.2654;0.8042;
1371.9000;0.2654;0.8090;
1372.2000;0.2532;0.7751;
1372.5000;0.2597;0.7775;
1372.8000;0.2580;0.7799;
1373.1000;0.2589;0.7799;
1373.4000;0.2597;0.7896;
1373.7000;0.2597;0.7945;
1374.0000;0.2597;0.7945;
1374.3000;0.2589;0.7993;
1374.6000;0.2613;0.8042;
1374.9000;0.2629;0.8090;
1375.2000;0.2662;0.8114;
1375.5000;0.2580;0.7945;
1375.8000;0.2605;0.8017;
1376.1000;0.2523;0.7751;
1376.4000;0.2613;0.7945;
1376.7000;0.2613;0.7921;
1377.0000;0.2572;0.7848;
1377.3000;0.2605;0.7969;
1377.6000;0.2589;0.7921;
1377.9000;0.2589;0.7896;
1378.2000;0.2580;0.7993;
1378.5000;0.2564;0.8066;
1378.8000;0.2556;0.7921;
1379.1000;0.2556;0.7945;
1379.4000;0.2580;0.7993;
1379.7000;0.2548;0.7969;
1380.0000;0.2580;0.7969;
1380.3000;0.2572;0.7921;
1380.6000;0.2613;0.7896;
1380.9000;0.2589;0.7727;
1381.2000;0.2572;0.7678;
1381.5000;0.2589;0.7775;
1381.8000;0.2678;0.8042;
1382.1000;0.2613;0.7872;
1382.4000;0.2589;0.7872;
1382.7000;0.2580;0.7824;
1383.0000;0.2597;0.7848;
1383.3000;0.2654;0.8090;
1383.6000;0.2580;0.7921;
1383.9000;0.2572;0.7824;
1384.2000;0.2589;0.7896;
1384.5000;0.2580;0.7896;
1384.8000;0.2589;0.7848;
1385.1000;0.2507;0.7581;
1385.4000;0.2605;0.7799;
1385.7000;0.2597;0.7848;
1386.0000;0.2589;0.7896;
1386.3000;0.2678;0.8114;
1386.6000;0.2589;0.7872;
1386.9000;0.2589;0.7896;
1387.2000;0.2597;0.7872;
1387.5000;0.2597;0.7848;
1387.8000;0.2589;0.7848;
1388.1000;0.2613;0.7848;
1388.4000;0.2605;0.7775;
1388.7000;0.2605;0.7775;
1389.0000;0.2589;0.7703;
1389.3000;0.2589;0.7703;
1389.6000;0.2580;0.7678;
1389.9000;0.2597;0.7654;
1390.2000;0.2605;0.7727;
1390.5000;0.2597;0.7703;
1390.8000;0.2597;0.7654;
1391.1000;0.2597;0.7727;
1391.4000;0.2613;0.7799;
1391.7000;0.2613;0.7824;
1392.0000;0.2597;0.7799;
1392.3000;0.2605;0.7872;
1392.6000;0.2589;0.7945;
1392.9000;0.2589;0.7969;
1393.2000;0.2597;0.8042;
1393.5000;0.2597;0.8066;
1393.8000;0.2580;0.7945;
1394.1000;0.2580;0.7896;
1394.4000;0.2597;0.7969;
1394.7000;0.2605;0.8017;
1395.0000;0.2605;0.7993;
1395.3000;0.2572;0.7848;
1395.6000;0.2629;0.7969;
1395.9000;0.2580;0.7945;
1396.2000;0.2597;0.7993;
1396.5000;0.2597;0.7969;
1396.8000;0.2613;0.7896;
1397.1000;0.2597;0.7921;
1397.4000;0.2580;0.7896;
1397.7000;0.2589;0.7921;
1398.0000;0.2605;0.7921;
1398.3000;0.2605;0.7848;
1398.6000;0.2605;0.7896;
1398.9000;0.2548;0.7727;
1399.2000;0.2613;0.7775;
1399.5000;0.2597;0.7824;
1399.8000;0.2589;0.7824;
