time/ms;Fluo/V;P700 deltaI/I x10³;
-199.8000;0.2483;0.5401;
-199.5000;0.2475;0.5329;
-199.2000;0.2458;0.5256;
-198.9000;0.2475;0.5280;
-198.6000;0.2458;0.5305;
-198.3000;0.2515;0.5547;
-198.0000;0.2466;0.5498;
-197.7000;0.2475;0.5523;
-197.4000;0.2483;0.5595;
-197.1000;0.2418;0.5401;
-196.8000;0.2515;0.5595;
-196.5000;0.2434;0.5353;
-196.2000;0.2458;0.5377;
-195.9000;0.2515;0.5353;
-195.6000;0.2426;0.5087;
-195.3000;0.2475;0.5305;
-195.0000;0.2483;0.5305;
-194.7000;0.2450;0.5159;
-194.4000;0.2491;0.5256;
-194.1000;0.2475;0.5280;
-193.8000;0.2466;0.5305;
-193.5000;0.2475;0.5353;
-193.2000;0.2483;0.5426;
-192.9000;0.2466;0.5305;
-192.6000;0.2475;0.5256;
-192.3000;0.2483;0.5329;
-192.0000;0.2466;0.5329;
-191.7000;0.2483;0.5377;
-191.4000;0.2466;0.5305;
-191.1000;0.2458;0.5256;
-190.8000;0.2466;0.5232;
-190.5000;0.2475;0.5305;
-190.2000;0.2450;0.5111;
-189.9000;0.2483;0.4990;
-189.6000;0.2385;0.4747;
-189.3000;0.2475;0.4941;
-189.0000;0.2458;0.4893;
-188.7000;0.2466;0.4893;
-188.4000;0.2523;0.5111;
-188.1000;0.2475;0.5014;
-187.8000;0.2475;0.5135;
-187.5000;0.2483;0.5208;
-187.2000;0.2499;0.5329;
-186.9000;0.2548;0.5426;
-186.6000;0.2507;0.5305;
-186.3000;0.2589;0.5450;
-186.0000;0.2532;0.5305;
-185.7000;0.2458;0.5135;
-185.4000;0.2458;0.5135;
-185.1000;0.2442;0.5135;
-184.8000;0.2475;0.5232;
-184.5000;0.2475;0.5208;
-184.2000;0.2458;0.5135;
-183.9000;0.2483;0.5183;
-183.6000;0.2385;0.4990;
-183.3000;0.2491;0.5183;
-183.0000;0.2491;0.5208;
-182.7000;0.2532;0.5256;
-182.4000;0.2491;0.5159;
-182.1000;0.2466;0.5087;
-181.8000;0.2491;0.5159;
-181.5000;0.2466;0.5159;
-181.2000;0.2458;0.5135;
-180.9000;0.2466;0.5256;
-180.6000;0.2483;0.5183;
-180.3000;0.2475;0.5111;
-180.0000;0.2475;0.5183;
-179.7000;0.2507;0.5401;
-179.4000;0.2442;0.5280;
-179.1000;0.2483;0.5474;
-178.8000;0.2483;0.5498;
-178.5000;0.2483;0.5474;
-178.2000;0.2466;0.5377;
-177.9000;0.2466;0.5426;
-177.6000;0.2491;0.5474;
-177.3000;0.2515;0.5426;
-177.0000;0.2515;0.5353;
-176.7000;0.2491;0.5256;
-176.4000;0.2434;0.5183;
-176.1000;0.2483;0.5305;
-175.8000;0.2466;0.5280;
-175.5000;0.2466;0.5280;
-175.2000;0.2475;0.5280;
-174.9000;0.2466;0.5232;
-174.6000;0.2540;0.5426;
-174.3000;0.2483;0.5232;
-174.0000;0.2466;0.5111;
-173.7000;0.2483;0.5208;
-173.4000;0.2491;0.5256;
-173.1000;0.2466;0.5232;
-172.8000;0.2483;0.5280;
-172.5000;0.2466;0.5256;
-172.2000;0.2475;0.5353;
-171.9000;0.2458;0.5353;
-171.6000;0.2442;0.5329;
-171.3000;0.2466;0.5329;
-171.0000;0.2540;0.5498;
-170.7000;0.2475;0.5208;
-170.4000;0.2523;0.5305;
-170.1000;0.2475;0.5135;
-169.8000;0.2499;0.5208;
-169.5000;0.2458;0.5159;
-169.2000;0.2418;0.5087;
-168.9000;0.2450;0.5183;
-168.6000;0.2377;0.5062;
-168.3000;0.2434;0.5111;
-168.0000;0.2483;0.5280;
-167.7000;0.2418;0.5183;
-167.4000;0.2426;0.5208;
-167.1000;0.2483;0.5329;
-166.8000;0.2466;0.5377;
-166.5000;0.2491;0.5450;
-166.2000;0.2532;0.5547;
-165.9000;0.2466;0.5377;
-165.6000;0.2401;0.5183;
-165.3000;0.2483;0.5377;
-165.0000;0.2475;0.5353;
-164.7000;0.2466;0.5377;
-164.4000;0.2466;0.5329;
-164.1000;0.2475;0.5329;
-163.8000;0.2466;0.5280;
-163.5000;0.2491;0.5329;
-163.2000;0.2458;0.5280;
-162.9000;0.2475;0.5401;
-162.6000;0.2458;0.5305;
-162.3000;0.2450;0.5256;
-162.0000;0.2483;0.5401;
-161.7000;0.2475;0.5450;
-161.4000;0.2434;0.5280;
-161.1000;0.2475;0.5426;
-160.8000;0.2466;0.5498;
-160.5000;0.2475;0.5498;
-160.2000;0.2491;0.5498;
-159.9000;0.2434;0.5280;
-159.6000;0.2442;0.5377;
-159.3000;0.2540;0.5619;
-159.0000;0.2466;0.5450;
-158.7000;0.2483;0.5401;
-158.4000;0.2491;0.5377;
-158.1000;0.2475;0.5353;
-157.8000;0.2483;0.5401;
-157.5000;0.2483;0.5450;
-157.2000;0.2466;0.5377;
-156.9000;0.2466;0.5305;
-156.6000;0.2532;0.5498;
-156.3000;0.2475;0.5377;
-156.0000;0.2450;0.5329;
-155.7000;0.2475;0.5329;
-155.4000;0.2458;0.5256;
-155.1000;0.2466;0.5329;
-154.8000;0.2540;0.5474;
-154.5000;0.2483;0.5353;
-154.2000;0.2450;0.5353;
-153.9000;0.2499;0.5426;
-153.6000;0.2450;0.5305;
-153.3000;0.2483;0.5426;
-153.0000;0.2466;0.5426;
-152.7000;0.2475;0.5450;
-152.4000;0.2434;0.5353;
-152.1000;0.2466;0.5401;
-151.8000;0.2475;0.5305;
-151.5000;0.2426;0.5208;
-151.2000;0.2466;0.5353;
-150.9000;0.2523;0.5523;
-150.6000;0.2475;0.5377;
-150.3000;0.2458;0.5305;
-150.0000;0.2458;0.5280;
-149.7000;0.2466;0.5305;
-149.4000;0.2475;0.5305;
-149.1000;0.2475;0.5305;
-148.8000;0.2466;0.5135;
-148.5000;0.2475;0.5087;
-148.2000;0.2475;0.5135;
-147.9000;0.2483;0.5087;
-147.6000;0.2491;0.5062;
-147.3000;0.2475;0.5159;
-147.0000;0.2475;0.5135;
-146.7000;0.2442;0.5038;
-146.4000;0.2475;0.5256;
-146.1000;0.2475;0.5232;
-145.8000;0.2475;0.5183;
-145.5000;0.2475;0.5183;
-145.2000;0.2466;0.5111;
-144.9000;0.2458;0.5135;
-144.6000;0.2475;0.5232;
-144.3000;0.2483;0.5208;
-144.0000;0.2458;0.5232;
-143.7000;0.2475;0.5329;
-143.4000;0.2475;0.5401;
-143.1000;0.2523;0.5474;
-142.8000;0.2466;0.5329;
-142.5000;0.2483;0.5353;
-142.2000;0.2532;0.5498;
-141.9000;0.2466;0.5305;
-141.6000;0.2450;0.5329;
-141.3000;0.2475;0.5474;
-141.0000;0.2466;0.5426;
-140.7000;0.2466;0.5450;
-140.4000;0.2483;0.5426;
-140.1000;0.2491;0.5474;
-139.8000;0.2466;0.5377;
-139.5000;0.2491;0.5426;
-139.2000;0.2458;0.5280;
-138.9000;0.2466;0.5329;
-138.6000;0.2483;0.5280;
-138.3000;0.2466;0.5256;
-138.0000;0.2458;0.5280;
-137.7000;0.2580;0.5619;
-137.4000;0.2475;0.5450;
-137.1000;0.2418;0.5329;
-136.8000;0.2548;0.5644;
-136.5000;0.2483;0.5426;
-136.2000;0.2507;0.5547;
-135.9000;0.2458;0.5401;
-135.6000;0.2369;0.5087;
-135.3000;0.2418;0.5208;
-135.0000;0.2483;0.5353;
-134.7000;0.2475;0.5305;
-134.4000;0.2466;0.5305;
-134.1000;0.2458;0.5280;
-133.8000;0.2450;0.5232;
-133.5000;0.2475;0.5305;
-133.2000;0.2483;0.5305;
-132.9000;0.2450;0.5232;
-132.6000;0.2458;0.5329;
-132.3000;0.2475;0.5401;
-132.0000;0.2483;0.5474;
-131.7000;0.2491;0.5523;
-131.4000;0.2466;0.5450;
-131.1000;0.2475;0.5450;
-130.8000;0.2426;0.5329;
-130.5000;0.2458;0.5426;
-130.2000;0.2450;0.5474;
-129.9000;0.2458;0.5474;
-129.6000;0.2466;0.5474;
-129.3000;0.2466;0.5474;
-129.0000;0.2458;0.5426;
-128.7000;0.2466;0.5498;
-128.4000;0.2475;0.5450;
-128.1000;0.2483;0.5450;
-127.8000;0.2458;0.5377;
-127.5000;0.2458;0.5305;
-127.2000;0.2458;0.5353;
-126.9000;0.2442;0.5280;
-126.6000;0.2475;0.5280;
-126.3000;0.2466;0.5305;
-126.0000;0.2466;0.5305;
-125.7000;0.2483;0.5305;
-125.4000;0.2483;0.5329;
-125.1000;0.2442;0.5183;
-124.8000;0.2466;0.5329;
-124.5000;0.2483;0.5377;
-124.2000;0.2556;0.5571;
-123.9000;0.2434;0.5232;
-123.6000;0.2466;0.5183;
-123.3000;0.2434;0.5135;
-123.0000;0.2523;0.5474;
-122.7000;0.2466;0.5329;
-122.4000;0.2442;0.5329;
-122.1000;0.2466;0.5474;
-121.8000;0.2483;0.5523;
-121.5000;0.2466;0.5498;
-121.2000;0.2450;0.5401;
-120.9000;0.2458;0.5329;
-120.6000;0.2475;0.5256;
-120.3000;0.2450;0.5183;
-120.0000;0.2450;0.5305;
-119.7000;0.2458;0.5377;
-119.4000;0.2458;0.5353;
-119.1000;0.2475;0.5377;
-118.8000;0.2499;0.5401;
-118.5000;0.2442;0.5159;
-118.2000;0.2532;0.5353;
-117.9000;0.2466;0.5135;
-117.6000;0.2475;0.5111;
-117.3000;0.2442;0.5014;
-117.0000;0.2466;0.5087;
-116.7000;0.2475;0.5087;
-116.4000;0.2475;0.5232;
-116.1000;0.2483;0.5135;
-115.8000;0.2458;0.5183;
-115.5000;0.2418;0.5159;
-115.2000;0.2475;0.5232;
-114.9000;0.2475;0.5280;
-114.6000;0.2491;0.5353;
-114.3000;0.2475;0.5280;
-114.0000;0.2491;0.5280;
-113.7000;0.2450;0.5232;
-113.4000;0.2458;0.5280;
-113.1000;0.2475;0.5353;
-112.8000;0.2466;0.5305;
-112.5000;0.2466;0.5208;
-112.2000;0.2475;0.5280;
-111.9000;0.2466;0.5280;
-111.6000;0.2491;0.5353;
-111.3000;0.2475;0.5208;
-111.0000;0.2434;0.5014;
-110.7000;0.2458;0.5135;
-110.4000;0.2475;0.5111;
-110.1000;0.2458;0.5014;
-109.8000;0.2458;0.4990;
-109.5000;0.2409;0.4893;
-109.2000;0.2483;0.5014;
-108.9000;0.2458;0.4965;
-108.6000;0.2442;0.5062;
-108.3000;0.2450;0.5135;
-108.0000;0.2483;0.5232;
-107.7000;0.2491;0.5232;
-107.4000;0.2475;0.5256;
-107.1000;0.2475;0.5256;
-106.8000;0.2475;0.5256;
-106.5000;0.2491;0.5256;
-106.2000;0.2507;0.5208;
-105.9000;0.2466;0.5183;
-105.6000;0.2499;0.5256;
-105.3000;0.2466;0.5111;
-105.0000;0.2507;0.5208;
-104.7000;0.2523;0.5305;
-104.4000;0.2548;0.5401;
-104.1000;0.2466;0.5208;
-103.8000;0.2475;0.5183;
-103.5000;0.2475;0.5232;
-103.2000;0.2458;0.5208;
-102.9000;0.2466;0.5208;
-102.6000;0.2475;0.5208;
-102.3000;0.2475;0.5183;
-102.0000;0.2475;0.5183;
-101.7000;0.2466;0.5280;
-101.4000;0.2475;0.5256;
-101.1000;0.2483;0.5280;
-100.8000;0.2466;0.5377;
-100.5000;0.2466;0.5353;
-100.2000;0.2418;0.5208;
-99.9000;0.2507;0.5450;
-99.6000;0.2458;0.5305;
-99.3000;0.2466;0.5280;
-99.0000;0.2466;0.5280;
-98.7000;0.2475;0.5256;
-98.4000;0.2483;0.5329;
-98.1000;0.2466;0.5329;
-97.8000;0.2466;0.5329;
-97.5000;0.2466;0.5280;
-97.2000;0.2450;0.5159;
-96.9000;0.2466;0.5208;
-96.6000;0.2466;0.5183;
-96.3000;0.2564;0.5474;
-96.0000;0.2491;0.5353;
-95.7000;0.2507;0.5450;
-95.4000;0.2475;0.5353;
-95.1000;0.2491;0.5377;
-94.8000;0.2458;0.5377;
-94.5000;0.2475;0.5329;
-94.2000;0.2475;0.5256;
-93.9000;0.2475;0.5183;
-93.6000;0.2475;0.5087;
-93.3000;0.2475;0.5062;
-93.0000;0.2466;0.5111;
-92.7000;0.2483;0.5135;
-92.4000;0.2499;0.5280;
-92.1000;0.2450;0.5256;
-91.8000;0.2458;0.5305;
-91.5000;0.2556;0.5498;
-91.2000;0.2483;0.5280;
-90.9000;0.2466;0.5256;
-90.6000;0.2458;0.5256;
-90.3000;0.2466;0.5305;
-90.0000;0.2475;0.5256;
-89.7000;0.2483;0.5183;
-89.4000;0.2483;0.5208;
-89.1000;0.2466;0.5208;
-88.8000;0.2458;0.5111;
-88.5000;0.2613;0.5377;
-88.2000;0.2442;0.4917;
-87.9000;0.2466;0.4990;
-87.6000;0.2483;0.5111;
-87.3000;0.2466;0.5062;
-87.0000;0.2466;0.5087;
-86.7000;0.2475;0.5159;
-86.4000;0.2450;0.5087;
-86.1000;0.2491;0.5159;
-85.8000;0.2483;0.5183;
-85.5000;0.2450;0.5208;
-85.2000;0.2483;0.5280;
-84.9000;0.2475;0.5305;
-84.6000;0.2499;0.5280;
-84.3000;0.2515;0.5305;
-84.0000;0.2475;0.5232;
-83.7000;0.2466;0.5256;
-83.4000;0.2532;0.5426;
-83.1000;0.2466;0.5280;
-82.8000;0.2450;0.5256;
-82.5000;0.2466;0.5280;
-82.2000;0.2475;0.5280;
-81.9000;0.2434;0.5111;
-81.6000;0.2458;0.5159;
-81.3000;0.2458;0.5208;
-81.0000;0.2483;0.5280;
-80.7000;0.2466;0.5232;
-80.4000;0.2458;0.5135;
-80.1000;0.2475;0.5159;
-79.8000;0.2466;0.5111;
-79.5000;0.2475;0.5232;
-79.2000;0.2475;0.5280;
-78.9000;0.2475;0.5305;
-78.6000;0.2466;0.5329;
-78.3000;0.2475;0.5280;
-78.0000;0.2450;0.5208;
-77.7000;0.2483;0.5305;
-77.4000;0.2499;0.5450;
-77.1000;0.2475;0.5426;
-76.8000;0.2483;0.5329;
-76.5000;0.2458;0.5208;
-76.2000;0.2499;0.5280;
-75.9000;0.2483;0.5232;
-75.6000;0.2491;0.5208;
-75.3000;0.2466;0.5135;
-75.0000;0.2475;0.5135;
-74.7000;0.2483;0.5232;
-74.4000;0.2483;0.5135;
-74.1000;0.2466;0.5087;
-73.8000;0.2458;0.5062;
-73.5000;0.2450;0.5135;
-73.2000;0.2475;0.5183;
-72.9000;0.2475;0.5135;
-72.6000;0.2466;0.5087;
-72.3000;0.2458;0.5111;
-72.0000;0.2483;0.5111;
-71.7000;0.2418;0.4965;
-71.4000;0.2466;0.5135;
-71.1000;0.2466;0.5159;
-70.8000;0.2475;0.5111;
-70.5000;0.2466;0.5062;
-70.2000;0.2458;0.5111;
-69.9000;0.2475;0.5062;
-69.6000;0.2475;0.5111;
-69.3000;0.2483;0.5159;
-69.0000;0.2466;0.5208;
-68.7000;0.2466;0.5135;
-68.4000;0.2491;0.5135;
-68.1000;0.2483;0.5038;
-67.8000;0.2450;0.4965;
-67.5000;0.2483;0.5038;
-67.2000;0.2466;0.4941;
-66.9000;0.2491;0.4917;
-66.6000;0.2450;0.4869;
-66.3000;0.2466;0.4941;
-66.0000;0.2483;0.5087;
-65.7000;0.2491;0.5038;
-65.4000;0.2475;0.5062;
-65.1000;0.2483;0.5208;
-64.8000;0.2450;0.5232;
-64.5000;0.2483;0.5280;
-64.2000;0.2483;0.5208;
-63.9000;0.2475;0.5159;
-63.6000;0.2466;0.5183;
-63.3000;0.2475;0.5135;
-63.0000;0.2475;0.5159;
-62.7000;0.2466;0.5232;
-62.4000;0.2458;0.5208;
-62.1000;0.2466;0.5305;
-61.8000;0.2483;0.5377;
-61.5000;0.2466;0.5377;
-61.2000;0.2475;0.5450;
-60.9000;0.2450;0.5401;
-60.6000;0.2491;0.5474;
-60.3000;0.2515;0.5523;
-60.0000;0.2491;0.5401;
-59.7000;0.2466;0.5377;
-59.4000;0.2466;0.5305;
-59.1000;0.2475;0.5329;
-58.8000;0.2466;0.5329;
-58.5000;0.2466;0.5232;
-58.2000;0.2450;0.5087;
-57.9000;0.2442;0.5087;
-57.6000;0.2475;0.5159;
-57.3000;0.2458;0.5111;
-57.0000;0.2475;0.5159;
-56.7000;0.2475;0.5159;
-56.4000;0.2483;0.5183;
-56.1000;0.2450;0.5014;
-55.8000;0.2483;0.5014;
-55.5000;0.2458;0.4990;
-55.2000;0.2466;0.5087;
-54.9000;0.2450;0.5038;
-54.6000;0.2483;0.5159;
-54.3000;0.2466;0.5183;
-54.0000;0.2450;0.5183;
-53.7000;0.2475;0.5256;
-53.4000;0.2491;0.5353;
-53.1000;0.2475;0.5256;
-52.8000;0.2475;0.5208;
-52.5000;0.2499;0.5159;
-52.2000;0.2507;0.5232;
-51.9000;0.2483;0.5183;
-51.6000;0.2483;0.5135;
-51.3000;0.2483;0.5135;
-51.0000;0.2475;0.5135;
-50.7000;0.2466;0.5135;
-50.4000;0.2466;0.5111;
-50.1000;0.2491;0.5087;
-49.8000;0.2466;0.5111;
-49.5000;0.2377;0.4941;
-49.2000;0.2483;0.5256;
-48.9000;0.2483;0.5232;
-48.6000;0.2475;0.5208;
-48.3000;0.2458;0.5159;
-48.0000;0.2442;0.5159;
-47.7000;0.2483;0.5305;
-47.4000;0.2475;0.5280;
-47.1000;0.2466;0.5159;
-46.8000;0.2401;0.4965;
-46.5000;0.2507;0.5232;
-46.2000;0.2597;0.5450;
-45.9000;0.2458;0.5159;
-45.6000;0.2475;0.5232;
-45.3000;0.2483;0.5256;
-45.0000;0.2483;0.5280;
-44.7000;0.2475;0.5208;
-44.4000;0.2483;0.5135;
-44.1000;0.2475;0.5087;
-43.8000;0.2491;0.5135;
-43.5000;0.2475;0.5135;
-43.2000;0.2475;0.5208;
-42.9000;0.2466;0.5232;
-42.6000;0.2475;0.5256;
-42.3000;0.2483;0.5280;
-42.0000;0.2475;0.5183;
-41.7000;0.2466;0.5232;
-41.4000;0.2483;0.5280;
-41.1000;0.2466;0.5280;
-40.8000;0.2483;0.5377;
-40.5000;0.2466;0.5353;
-40.2000;0.2475;0.5474;
-39.9000;0.2483;0.5401;
-39.6000;0.2385;0.5208;
-39.3000;0.2466;0.5474;
-39.0000;0.2523;0.5644;
-38.7000;0.2491;0.5547;
-38.4000;0.2475;0.5450;
-38.1000;0.2458;0.5305;
-37.8000;0.2499;0.5426;
-37.5000;0.2426;0.5256;
-37.2000;0.2450;0.5305;
-36.9000;0.2458;0.5426;
-36.6000;0.2450;0.5450;
-36.3000;0.2475;0.5401;
-36.0000;0.2483;0.5401;
-35.7000;0.2450;0.5450;
-35.4000;0.2491;0.5450;
-35.1000;0.2385;0.5111;
-34.8000;0.2507;0.5329;
-34.5000;0.2466;0.5329;
-34.2000;0.2491;0.5450;
-33.9000;0.2483;0.5377;
-33.6000;0.2475;0.5353;
-33.3000;0.2475;0.5353;
-33.0000;0.2475;0.5426;
-32.7000;0.2466;0.5450;
-32.4000;0.2483;0.5426;
-32.1000;0.2523;0.5498;
-31.8000;0.2450;0.5353;
-31.5000;0.2475;0.5305;
-31.2000;0.2475;0.5232;
-30.9000;0.2483;0.5183;
-30.6000;0.2458;0.5183;
-30.3000;0.2515;0.5353;
-30.0000;0.2458;0.5135;
-29.7000;0.2491;0.5280;
-29.4000;0.2434;0.5087;
-29.1000;0.2466;0.5256;
-28.8000;0.2491;0.5232;
-28.5000;0.2466;0.5256;
-28.2000;0.2491;0.5377;
-27.9000;0.2483;0.5159;
-27.6000;0.2458;0.5087;
-27.3000;0.2475;0.5183;
-27.0000;0.2483;0.5208;
-26.7000;0.2458;0.5159;
-26.4000;0.2442;0.5183;
-26.1000;0.2507;0.5377;
-25.8000;0.2466;0.5329;
-25.5000;0.2450;0.5329;
-25.2000;0.2475;0.5280;
-24.9000;0.2483;0.5280;
-24.6000;0.2450;0.5208;
-24.3000;0.2483;0.5159;
-24.0000;0.2466;0.5135;
-23.7000;0.2491;0.5208;
-23.4000;0.2475;0.5111;
-23.1000;0.2466;0.5159;
-22.8000;0.2466;0.5111;
-22.5000;0.2450;0.5087;
-22.2000;0.2491;0.5208;
-21.9000;0.2475;0.5135;
-21.6000;0.2466;0.5159;
-21.3000;0.2458;0.5208;
-21.0000;0.2491;0.5377;
-20.7000;0.2434;0.5183;
-20.4000;0.2434;0.5159;
-20.1000;0.2466;0.5232;
-19.8000;0.2458;0.5232;
-19.5000;0.2475;0.5280;
-19.2000;0.2475;0.5280;
-18.9000;0.2466;0.5280;
-18.6000;0.2458;0.5280;
-18.3000;0.2491;0.5305;
-18.0000;0.2483;0.5280;
-17.7000;0.2483;0.5256;
-17.4000;0.2475;0.5232;
-17.1000;0.2475;0.5329;
-16.8000;0.2475;0.5329;
-16.5000;0.2483;0.5256;
-16.2000;0.2483;0.5208;
-15.9000;0.2475;0.5256;
-15.6000;0.2466;0.5305;
-15.3000;0.2475;0.5329;
-15.0000;0.2458;0.5329;
-14.7000;0.2466;0.5305;
-14.4000;0.2483;0.5329;
-14.1000;0.2466;0.5280;
-13.8000;0.2434;0.5208;
-13.5000;0.2466;0.5401;
-13.2000;0.2483;0.5450;
-12.9000;0.2532;0.5595;
-12.6000;0.2458;0.5280;
-12.3000;0.2475;0.5280;
-12.0000;0.2466;0.5232;
-11.7000;0.2458;0.5208;
-11.4000;0.2466;0.5305;
-11.1000;0.2507;0.5329;
-10.8000;0.2450;0.5038;
-10.5000;0.2434;0.4990;
-10.2000;0.2458;0.5062;
-9.9000;0.2499;0.5159;
-9.6000;0.2475;0.5111;
-9.3000;0.2475;0.5111;
-9.0000;0.2442;0.5111;
-8.7000;0.2475;0.5232;
-8.4000;0.2466;0.5183;
-8.1000;0.2499;0.5232;
-7.8000;0.2466;0.5159;
-7.5000;0.2458;0.5159;
-7.2000;0.2442;0.5135;
-6.9000;0.2507;0.5329;
-6.6000;0.2483;0.5232;
-6.3000;0.2458;0.5135;
-6.0000;0.2458;0.5135;
-5.7000;0.2450;0.5111;
-5.4000;0.2426;0.4965;
-5.1000;0.2434;0.5014;
-4.8000;0.2491;0.5159;
-4.5000;0.2466;0.5062;
-4.2000;0.2605;0.5426;
-3.9000;0.2483;0.5159;
-3.6000;0.2458;0.5111;
-3.3000;0.2458;0.5183;
-3.0000;0.2475;0.5159;
-2.7000;0.2466;0.5183;
-2.4000;0.2475;0.5087;
-2.1000;0.2466;0.5038;
-1.8000;0.2475;0.5087;
-1.5000;0.2442;0.4941;
-1.2000;0.2475;0.4965;
-0.9000;0.2466;0.5014;
-0.6000;0.2483;0.5135;
-0.3000;0.2466;0.5232;
0.0000;0.2466;0.5232;
0.3000;0.2434;0.5305;
0.6000;0.2475;0.5426;
0.9000;0.2491;0.5523;
1.2000;0.2491;0.5498;
1.5000;0.2483;0.5523;
1.8000;0.2475;0.5571;
2.1000;0.2466;0.5716;
2.4000;0.2499;0.5886;
2.7000;0.2475;0.5886;
3.0000;0.2491;0.5910;
3.3000;0.2491;0.5910;
3.6000;0.2442;0.5813;
3.9000;0.2475;0.5934;
4.2000;0.2475;0.6031;
4.5000;0.2483;0.6104;
4.8000;0.2475;0.6128;
5.1000;0.2466;0.6177;
5.4000;0.2483;0.6322;
5.7000;0.2491;0.6298;
6.0000;0.2475;0.6298;
6.3000;0.2572;0.6637;
6.6000;0.2491;0.6322;
6.9000;0.2483;0.6225;
7.2000;0.2491;0.6249;
7.5000;0.2532;0.6491;
7.8000;0.2483;0.6370;
8.1000;0.2475;0.6346;
8.4000;0.2491;0.6443;
8.7000;0.2523;0.6516;
9.0000;0.2507;0.6516;
9.3000;0.2458;0.6395;
9.6000;0.2475;0.6370;
9.9000;0.2499;0.6346;
10.2000;0.2475;0.6370;
10.5000;0.2466;0.6370;
10.8000;0.2475;0.6322;
11.1000;0.2426;0.6128;
11.4000;0.2458;0.6152;
11.7000;0.2466;0.6225;
12.0000;0.2589;0.6637;
12.3000;0.2491;0.6322;
12.6000;0.2499;0.6322;
12.9000;0.2483;0.6322;
13.2000;0.2613;0.6613;
13.5000;0.2499;0.6370;
13.8000;0.2532;0.6491;
14.1000;0.2466;0.6370;
14.4000;0.2442;0.6346;
14.7000;0.2458;0.6370;
15.0000;0.2475;0.6395;
15.3000;0.2475;0.6370;
15.6000;0.2483;0.6322;
15.9000;0.2475;0.6322;
16.2000;0.2426;0.6249;
16.5000;0.2458;0.6298;
16.8000;0.2523;0.6516;
17.1000;0.2475;0.6419;
17.4000;0.2466;0.6443;
17.7000;0.2491;0.6540;
18.0000;0.2483;0.6637;
18.3000;0.2475;0.6564;
18.6000;0.2475;0.6540;
18.9000;0.2491;0.6467;
19.2000;0.2409;0.6298;
19.5000;0.2458;0.6443;
19.8000;0.2483;0.6564;
20.1000;0.2499;0.6516;
20.4000;0.2483;0.6516;
20.7000;0.2458;0.6516;
21.0000;0.2466;0.6540;
21.3000;0.2483;0.6588;
21.6000;0.2475;0.6540;
21.9000;0.2483;0.6491;
22.2000;0.2466;0.6491;
22.5000;0.2491;0.6588;
22.8000;0.2483;0.6564;
23.1000;0.2499;0.6564;
23.4000;0.2483;0.6516;
23.7000;0.2466;0.6491;
24.0000;0.2466;0.6491;
24.3000;0.2491;0.6637;
24.6000;0.2458;0.6588;
24.9000;0.2475;0.6637;
25.2000;0.2483;0.6516;
25.5000;0.2491;0.6516;
25.8000;0.2491;0.6467;
26.1000;0.2483;0.6613;
26.4000;0.2475;0.6637;
26.7000;0.2466;0.6637;
27.0000;0.2466;0.6637;
27.3000;0.2499;0.6661;
27.6000;0.2475;0.6588;
27.9000;0.2499;0.6516;
28.2000;0.2434;0.6395;
28.5000;0.2442;0.6395;
28.8000;0.2475;0.6516;
29.1000;0.2483;0.6540;
29.4000;0.2418;0.6419;
29.7000;0.2475;0.6491;
30.0000;0.2450;0.6443;
30.3000;0.2475;0.6491;
30.6000;0.2491;0.6540;
30.9000;0.2434;0.6395;
31.2000;0.2475;0.6443;
31.5000;0.2418;0.6249;
31.8000;0.2483;0.6443;
32.1000;0.2491;0.6516;
32.4000;0.2483;0.6419;
32.7000;0.2491;0.6443;
33.0000;0.2483;0.6395;
33.3000;0.2491;0.6467;
33.6000;0.2466;0.6467;
33.9000;0.2483;0.6443;
34.2000;0.2483;0.6370;
34.5000;0.2507;0.6370;
34.8000;0.2466;0.6298;
35.1000;0.2475;0.6395;
35.4000;0.2532;0.6540;
35.7000;0.2483;0.6467;
36.0000;0.2491;0.6491;
36.3000;0.2475;0.6467;
36.6000;0.2442;0.6419;
36.9000;0.2475;0.6491;
37.2000;0.2491;0.6491;
37.5000;0.2483;0.6491;
37.8000;0.2548;0.6613;
38.1000;0.2483;0.6467;
38.4000;0.2426;0.6395;
38.7000;0.2491;0.6613;
39.0000;0.2491;0.6637;
39.3000;0.2458;0.6516;
39.6000;0.2491;0.6540;
39.9000;0.2458;0.6419;
40.2000;0.2442;0.6346;
40.5000;0.2483;0.6467;
40.8000;0.2466;0.6540;
41.1000;0.2483;0.6491;
41.4000;0.2483;0.6613;
41.7000;0.2483;0.6613;
42.0000;0.2483;0.6588;
42.3000;0.2491;0.6516;
42.6000;0.2483;0.6467;
42.9000;0.2499;0.6564;
43.2000;0.2507;0.6540;
43.5000;0.2499;0.6564;
43.8000;0.2466;0.6491;
44.1000;0.2548;0.6613;
44.4000;0.2491;0.6443;
44.7000;0.2483;0.6467;
45.0000;0.2491;0.6491;
45.3000;0.2491;0.6443;
45.6000;0.2532;0.6540;
45.9000;0.2483;0.6419;
46.2000;0.2458;0.6419;
46.5000;0.2491;0.6540;
46.8000;0.2475;0.6491;
47.1000;0.2483;0.6588;
47.4000;0.2458;0.6637;
47.7000;0.2442;0.6637;
48.0000;0.2491;0.6782;
48.3000;0.2466;0.6855;
48.6000;0.2475;0.6806;
48.9000;0.2483;0.6758;
49.2000;0.2369;0.6443;
49.5000;0.2491;0.6758;
49.8000;0.2475;0.6637;
50.1000;0.2466;0.6564;
50.4000;0.2515;0.6758;
50.7000;0.2491;0.6709;
51.0000;0.2483;0.6613;
51.3000;0.2491;0.6588;
51.6000;0.2475;0.6540;
51.9000;0.2483;0.6588;
52.2000;0.2483;0.6467;
52.5000;0.2483;0.6491;
52.8000;0.2475;0.6564;
53.1000;0.2475;0.6491;
53.4000;0.2442;0.6395;
53.7000;0.2466;0.6467;
54.0000;0.2491;0.6540;
54.3000;0.2483;0.6467;
54.6000;0.2466;0.6467;
54.9000;0.2458;0.6395;
55.2000;0.2475;0.6298;
55.5000;0.2475;0.6322;
55.8000;0.2483;0.6370;
56.1000;0.2458;0.6346;
56.4000;0.2491;0.6491;
56.7000;0.2426;0.6370;
57.0000;0.2475;0.6467;
57.3000;0.2466;0.6395;
57.6000;0.2466;0.6467;
57.9000;0.2466;0.6443;
58.2000;0.2483;0.6613;
58.5000;0.2548;0.6831;
58.8000;0.2475;0.6613;
59.1000;0.2466;0.6613;
59.4000;0.2466;0.6613;
59.7000;0.2466;0.6588;
60.0000;0.2483;0.6661;
60.3000;0.2458;0.6564;
60.6000;0.2426;0.6516;
60.9000;0.2483;0.6613;
61.2000;0.2434;0.6588;
61.5000;0.2483;0.6685;
61.8000;0.2466;0.6637;
62.1000;0.2466;0.6516;
62.4000;0.2483;0.6588;
62.7000;0.2450;0.6540;
63.0000;0.2450;0.6540;
63.3000;0.2466;0.6661;
63.6000;0.2483;0.6637;
63.9000;0.2491;0.6661;
64.2000;0.2483;0.6661;
64.5000;0.2466;0.6637;
64.8000;0.2434;0.6540;
65.1000;0.2483;0.6637;
65.4000;0.2458;0.6491;
65.7000;0.2483;0.6467;
66.0000;0.2483;0.6540;
66.3000;0.2483;0.6588;
66.6000;0.2483;0.6661;
66.9000;0.2491;0.6685;
67.2000;0.2491;0.6637;
67.5000;0.2483;0.6613;
67.8000;0.2466;0.6564;
68.1000;0.2475;0.6540;
68.4000;0.2483;0.6637;
68.7000;0.2483;0.6685;
69.0000;0.2475;0.6661;
69.3000;0.2475;0.6661;
69.6000;0.2540;0.6855;
69.9000;0.2483;0.6613;
70.2000;0.2466;0.6564;
70.5000;0.2466;0.6637;
70.8000;0.2450;0.6637;
71.1000;0.2377;0.6443;
71.4000;0.2507;0.6782;
71.7000;0.2466;0.6637;
72.0000;0.2458;0.6613;
72.3000;0.2426;0.6443;
72.6000;0.2466;0.6588;
72.9000;0.2483;0.6661;
73.2000;0.2466;0.6613;
73.5000;0.2458;0.6564;
73.8000;0.2466;0.6637;
74.1000;0.2491;0.6637;
74.4000;0.2475;0.6685;
74.7000;0.2491;0.6685;
75.0000;0.2491;0.6588;
75.3000;0.2442;0.6467;
75.6000;0.2491;0.6540;
75.9000;0.2466;0.6516;
76.2000;0.2466;0.6540;
76.5000;0.2475;0.6370;
76.8000;0.2483;0.6395;
77.1000;0.2475;0.6395;
77.4000;0.2466;0.6395;
77.7000;0.2499;0.6516;
78.0000;0.2475;0.6467;
78.3000;0.2450;0.6516;
78.6000;0.2466;0.6564;
78.9000;0.2491;0.6661;
79.2000;0.2483;0.6613;
79.5000;0.2475;0.6491;
79.8000;0.2475;0.6516;
80.1000;0.2475;0.6564;
80.4000;0.2475;0.6588;
80.7000;0.2401;0.6419;
81.0000;0.2475;0.6637;
81.3000;0.2483;0.6661;
81.6000;0.2458;0.6540;
81.9000;0.2523;0.6782;
82.2000;0.2483;0.6516;
82.5000;0.2475;0.6540;
82.8000;0.2466;0.6419;
83.1000;0.2458;0.6346;
83.4000;0.2475;0.6346;
83.7000;0.2458;0.6395;
84.0000;0.2458;0.6467;
84.3000;0.2475;0.6540;
84.6000;0.2458;0.6588;
84.9000;0.2434;0.6491;
85.2000;0.2466;0.6588;
85.5000;0.2458;0.6540;
85.8000;0.2475;0.6613;
86.1000;0.2458;0.6588;
86.4000;0.2466;0.6685;
86.7000;0.2450;0.6588;
87.0000;0.2491;0.6661;
87.3000;0.2409;0.6395;
87.6000;0.2377;0.6249;
87.9000;0.2466;0.6516;
88.2000;0.2475;0.6637;
88.5000;0.2466;0.6588;
88.8000;0.2385;0.6467;
89.1000;0.2523;0.6927;
89.4000;0.2475;0.6806;
89.7000;0.2466;0.6806;
90.0000;0.2409;0.6685;
90.3000;0.2466;0.6806;
90.6000;0.2540;0.6952;
90.9000;0.2466;0.6734;
91.2000;0.2466;0.6734;
91.5000;0.2499;0.6782;
91.8000;0.2466;0.6685;
92.1000;0.2475;0.6685;
92.4000;0.2475;0.6661;
92.7000;0.2475;0.6709;
93.0000;0.2466;0.6637;
93.3000;0.2458;0.6540;
93.6000;0.2442;0.6516;
93.9000;0.2483;0.6588;
94.2000;0.2499;0.6661;
94.5000;0.2548;0.6855;
94.8000;0.2475;0.6661;
95.1000;0.2475;0.6734;
95.4000;0.2466;0.6613;
95.7000;0.2475;0.6661;
96.0000;0.2458;0.6734;
96.3000;0.2442;0.6661;
96.6000;0.2491;0.6709;
96.9000;0.2483;0.6661;
97.2000;0.2466;0.6637;
97.5000;0.2458;0.6613;
97.8000;0.2475;0.6637;
98.1000;0.2466;0.6685;
98.4000;0.2458;0.6685;
98.7000;0.2450;0.6734;
99.0000;0.2466;0.6758;
99.3000;0.2475;0.6806;
99.6000;0.2491;0.6806;
99.9000;0.2483;0.6734;
100.2000;0.2442;0.6661;
100.5000;0.2475;0.6709;
100.8000;0.2450;0.6637;
101.1000;0.2466;0.6540;
101.4000;0.2475;0.6613;
101.7000;0.2475;0.6613;
102.0000;0.2466;0.6564;
102.3000;0.2507;0.6516;
102.6000;0.2540;0.6637;
102.9000;0.2466;0.6443;
103.2000;0.2426;0.6225;
103.5000;0.2483;0.6395;
103.8000;0.2466;0.6322;
104.1000;0.2393;0.6055;
104.4000;0.2466;0.6322;
104.7000;0.2385;0.6152;
105.0000;0.2475;0.6419;
105.3000;0.2466;0.6370;
105.6000;0.2523;0.6419;
105.9000;0.2556;0.6443;
106.2000;0.2491;0.6225;
106.5000;0.2483;0.6225;
106.8000;0.2475;0.6201;
107.1000;0.2483;0.6225;
107.4000;0.2442;0.6152;
107.7000;0.2466;0.6249;
108.0000;0.2458;0.6298;
108.3000;0.2475;0.6322;
108.6000;0.2483;0.6346;
108.9000;0.2442;0.6249;
109.2000;0.2458;0.6443;
109.5000;0.2540;0.6782;
109.8000;0.2475;0.6709;
110.1000;0.2450;0.6661;
110.4000;0.2466;0.6637;
110.7000;0.2475;0.6661;
111.0000;0.2475;0.6564;
111.3000;0.2475;0.6564;
111.6000;0.2466;0.6588;
111.9000;0.2475;0.6661;
112.2000;0.2450;0.6540;
112.5000;0.2475;0.6588;
112.8000;0.2442;0.6491;
113.1000;0.2499;0.6637;
113.4000;0.2475;0.6491;
113.7000;0.2466;0.6516;
114.0000;0.2458;0.6491;
114.3000;0.2458;0.6516;
114.6000;0.2458;0.6419;
114.9000;0.2466;0.6467;
115.2000;0.2458;0.6516;
115.5000;0.2458;0.6467;
115.8000;0.2475;0.6419;
116.1000;0.2483;0.6516;
116.4000;0.2442;0.6370;
116.7000;0.2475;0.6395;
117.0000;0.2483;0.6419;
117.3000;0.2483;0.6491;
117.6000;0.2458;0.6491;
117.9000;0.2393;0.6395;
118.2000;0.2466;0.6588;
118.5000;0.2466;0.6564;
118.8000;0.2466;0.6491;
119.1000;0.2475;0.6540;
119.4000;0.2491;0.6588;
119.7000;0.2466;0.6613;
120.0000;0.2483;0.6637;
120.3000;0.2475;0.6685;
120.6000;0.2426;0.6491;
120.9000;0.2507;0.6685;
121.2000;0.2540;0.6952;
121.5000;0.2426;0.6637;
121.8000;0.2458;0.6734;
122.1000;0.2475;0.6831;
122.4000;0.2458;0.6782;
122.7000;0.2466;0.6879;
123.0000;0.2483;0.6879;
123.3000;0.2458;0.6927;
123.6000;0.2483;0.7049;
123.9000;0.2466;0.6976;
124.2000;0.2466;0.6855;
124.5000;0.2466;0.6855;
124.8000;0.2475;0.6831;
125.1000;0.2475;0.6855;
125.4000;0.2426;0.6782;
125.7000;0.2466;0.6879;
126.0000;0.2466;0.6831;
126.3000;0.2499;0.6952;
126.6000;0.2458;0.6806;
126.9000;0.2491;0.6806;
127.2000;0.2491;0.6782;
127.5000;0.2499;0.6806;
127.8000;0.2475;0.6637;
128.1000;0.2475;0.6613;
128.4000;0.2466;0.6588;
128.7000;0.2589;0.6879;
129.0000;0.2483;0.6637;
129.3000;0.2491;0.6588;
129.6000;0.2475;0.6613;
129.9000;0.2515;0.6855;
130.2000;0.2466;0.6709;
130.5000;0.2483;0.6685;
130.8000;0.2475;0.6637;
131.1000;0.2483;0.6637;
131.4000;0.2507;0.6758;
131.7000;0.2475;0.6637;
132.0000;0.2466;0.6661;
132.3000;0.2458;0.6782;
132.6000;0.2475;0.6782;
132.9000;0.2450;0.6806;
133.2000;0.2458;0.6709;
133.5000;0.2475;0.6758;
133.8000;0.2458;0.6588;
134.1000;0.2466;0.6613;
134.4000;0.2450;0.6588;
134.7000;0.2466;0.6637;
135.0000;0.2458;0.6588;
135.3000;0.2483;0.6613;
135.6000;0.2458;0.6564;
135.9000;0.2434;0.6516;
136.2000;0.2515;0.6637;
136.5000;0.2491;0.6540;
136.8000;0.2475;0.6491;
137.1000;0.2466;0.6346;
137.4000;0.2475;0.6346;
137.7000;0.2466;0.6395;
138.0000;0.2475;0.6564;
138.3000;0.2475;0.6613;
138.6000;0.2483;0.6661;
138.9000;0.2475;0.6491;
139.2000;0.2475;0.6540;
139.5000;0.2483;0.6613;
139.8000;0.2458;0.6564;
140.1000;0.2475;0.6588;
140.4000;0.2515;0.6637;
140.7000;0.2475;0.6467;
141.0000;0.2458;0.6370;
141.3000;0.2483;0.6467;
141.6000;0.2466;0.6419;
141.9000;0.2491;0.6443;
142.2000;0.2483;0.6491;
142.5000;0.2434;0.6443;
142.8000;0.2466;0.6564;
143.1000;0.2475;0.6443;
143.4000;0.2409;0.6273;
143.7000;0.2475;0.6491;
144.0000;0.2475;0.6491;
144.3000;0.2475;0.6516;
144.6000;0.2564;0.6709;
144.9000;0.2458;0.6491;
145.2000;0.2458;0.6491;
145.5000;0.2515;0.6661;
145.8000;0.2442;0.6516;
146.1000;0.2458;0.6540;
146.4000;0.2483;0.6613;
146.7000;0.2442;0.6588;
147.0000;0.2483;0.6661;
147.3000;0.2499;0.6758;
147.6000;0.2442;0.6685;
147.9000;0.2483;0.6782;
148.2000;0.2466;0.6782;
148.5000;0.2442;0.6709;
148.8000;0.2466;0.6661;
149.1000;0.2466;0.6661;
149.4000;0.2458;0.6588;
149.7000;0.2466;0.6637;
150.0000;0.2475;0.6661;
150.3000;0.2458;0.6613;
150.6000;0.2426;0.6588;
150.9000;0.2466;0.6661;
151.2000;0.2475;0.6613;
151.5000;0.2458;0.6661;
151.8000;0.2434;0.6613;
152.1000;0.2426;0.6540;
152.4000;0.2466;0.6685;
152.7000;0.2491;0.6758;
153.0000;0.2491;0.6734;
153.3000;0.2564;0.6831;
153.6000;0.2475;0.6758;
153.9000;0.2507;0.6903;
154.2000;0.2458;0.6831;
154.5000;0.2475;0.6806;
154.8000;0.2475;0.6782;
155.1000;0.2450;0.6709;
155.4000;0.2409;0.6613;
155.7000;0.2458;0.6637;
156.0000;0.2466;0.6613;
156.3000;0.2475;0.6637;
156.6000;0.2458;0.6637;
156.9000;0.2475;0.6540;
157.2000;0.2466;0.6467;
157.5000;0.2523;0.6613;
157.8000;0.2483;0.6588;
158.1000;0.2475;0.6588;
158.4000;0.2540;0.6782;
158.7000;0.2475;0.6661;
159.0000;0.2418;0.6516;
159.3000;0.2475;0.6588;
159.6000;0.2466;0.6588;
159.9000;0.2483;0.6685;
160.2000;0.2466;0.6685;
160.5000;0.2483;0.6685;
160.8000;0.2466;0.6588;
161.1000;0.2491;0.6685;
161.4000;0.2466;0.6685;
161.7000;0.2418;0.6588;
162.0000;0.2491;0.6782;
162.3000;0.2475;0.6734;
162.6000;0.2466;0.6637;
162.9000;0.2475;0.6637;
163.2000;0.2499;0.6782;
163.5000;0.2458;0.6637;
163.8000;0.2483;0.6709;
164.1000;0.2466;0.6637;
164.4000;0.2409;0.6370;
164.7000;0.2458;0.6588;
165.0000;0.2475;0.6637;
165.3000;0.2499;0.6734;
165.6000;0.2466;0.6613;
165.9000;0.2458;0.6564;
166.2000;0.2466;0.6588;
166.5000;0.2418;0.6443;
166.8000;0.2458;0.6637;
167.1000;0.2483;0.6661;
167.4000;0.2475;0.6588;
167.7000;0.2458;0.6613;
168.0000;0.2450;0.6564;
168.3000;0.2499;0.6685;
168.6000;0.2483;0.6613;
168.9000;0.2458;0.6516;
169.2000;0.2458;0.6516;
169.5000;0.2458;0.6540;
169.8000;0.2458;0.6564;
170.1000;0.2450;0.6685;
170.4000;0.2450;0.6685;
170.7000;0.2466;0.6661;
171.0000;0.2450;0.6661;
171.3000;0.2458;0.6734;
171.6000;0.2458;0.6709;
171.9000;0.2507;0.6734;
172.2000;0.2450;0.6637;
172.5000;0.2458;0.6661;
172.8000;0.2458;0.6613;
173.1000;0.2475;0.6637;
173.4000;0.2475;0.6613;
173.7000;0.2450;0.6540;
174.0000;0.2450;0.6564;
174.3000;0.2483;0.6540;
174.6000;0.2483;0.6467;
174.9000;0.2491;0.6516;
175.2000;0.2466;0.6467;
175.5000;0.2450;0.6491;
175.8000;0.2458;0.6540;
176.1000;0.2418;0.6467;
176.4000;0.2515;0.6806;
176.7000;0.2418;0.6540;
177.0000;0.2466;0.6734;
177.3000;0.2483;0.6685;
177.6000;0.2466;0.6564;
177.9000;0.2377;0.6346;
178.2000;0.2450;0.6540;
178.5000;0.2483;0.6613;
178.8000;0.2450;0.6516;
179.1000;0.2426;0.6322;
179.4000;0.2466;0.6443;
179.7000;0.2409;0.6346;
180.0000;0.2450;0.6395;
180.3000;0.2434;0.6298;
180.6000;0.2458;0.6273;
180.9000;0.2491;0.6419;
181.2000;0.2450;0.6346;
181.5000;0.2466;0.6273;
181.8000;0.2458;0.6346;
182.1000;0.2458;0.6443;
182.4000;0.2426;0.6298;
182.7000;0.2352;0.6007;
183.0000;0.2458;0.6298;
183.3000;0.2483;0.6298;
183.6000;0.2475;0.6370;
183.9000;0.2499;0.6298;
184.2000;0.2475;0.6298;
184.5000;0.2466;0.6322;
184.8000;0.2475;0.6419;
185.1000;0.2483;0.6467;
185.4000;0.2548;0.6661;
185.7000;0.2450;0.6370;
186.0000;0.2458;0.6346;
186.3000;0.2499;0.6419;
186.6000;0.2434;0.6273;
186.9000;0.2450;0.6273;
187.2000;0.2466;0.6346;
187.5000;0.2458;0.6395;
187.8000;0.2475;0.6491;
188.1000;0.2475;0.6613;
188.4000;0.2426;0.6540;
188.7000;0.2466;0.6661;
189.0000;0.2483;0.6685;
189.3000;0.2466;0.6661;
189.6000;0.2458;0.6661;
189.9000;0.2475;0.6782;
190.2000;0.2466;0.6734;
190.5000;0.2434;0.6613;
190.8000;0.2458;0.6661;
191.1000;0.2483;0.6661;
191.4000;0.2466;0.6661;
191.7000;0.2475;0.6709;
192.0000;0.2450;0.6661;
192.3000;0.2466;0.6709;
192.6000;0.2458;0.6685;
192.9000;0.2458;0.6613;
193.2000;0.2450;0.6491;
193.5000;0.2475;0.6564;
193.8000;0.2458;0.6443;
194.1000;0.2483;0.6613;
194.4000;0.2572;0.6952;
194.7000;0.2409;0.6516;
195.0000;0.2466;0.6661;
195.3000;0.2458;0.6661;
195.6000;0.2466;0.6661;
195.9000;0.2466;0.6637;
196.2000;0.2458;0.6613;
196.5000;0.2475;0.6637;
196.8000;0.2409;0.6467;
197.1000;0.2466;0.6564;
197.4000;0.2475;0.6588;
197.7000;0.2475;0.6564;
198.0000;0.2466;0.6467;
198.3000;0.2450;0.6491;
198.6000;0.2475;0.6661;
198.9000;0.2393;0.6370;
199.2000;0.2466;0.6709;
199.5000;0.2466;0.6709;
199.8000;0.2466;0.6879;
200.1000;0.2418;0.6661;
200.4000;0.2475;0.6734;
200.7000;0.2491;0.6709;
201.0000;0.2450;0.6637;
201.3000;0.2466;0.6709;
201.6000;0.2450;0.6782;
201.9000;0.2458;0.6758;
202.2000;0.2458;0.6806;
202.5000;0.2409;0.6734;
202.8000;0.2458;0.6758;
203.1000;0.2466;0.6879;
203.4000;0.2458;0.6806;
203.7000;0.2466;0.6709;
204.0000;0.2458;0.6709;
204.3000;0.2475;0.6734;
204.6000;0.2418;0.6491;
204.9000;0.2458;0.6637;
205.2000;0.2458;0.6613;
205.5000;0.2450;0.6613;
205.8000;0.2475;0.6709;
206.1000;0.2466;0.6734;
206.4000;0.2458;0.6734;
206.7000;0.2466;0.6782;
207.0000;0.2475;0.6903;
207.3000;0.2475;0.6879;
207.6000;0.2442;0.6831;
207.9000;0.2475;0.6782;
208.2000;0.2507;0.6855;
208.5000;0.2450;0.6758;
208.8000;0.2450;0.6709;
209.1000;0.2466;0.6637;
209.4000;0.2434;0.6588;
209.7000;0.2491;0.6734;
210.0000;0.2475;0.6661;
210.3000;0.2434;0.6588;
210.6000;0.2450;0.6588;
210.9000;0.2491;0.6637;
211.2000;0.2564;0.6952;
211.5000;0.2409;0.6516;
211.8000;0.2458;0.6588;
212.1000;0.2475;0.6613;
212.4000;0.2483;0.6637;
212.7000;0.2450;0.6613;
213.0000;0.2369;0.6467;
213.3000;0.2507;0.6734;
213.6000;0.2466;0.6588;
213.9000;0.2475;0.6564;
214.2000;0.2475;0.6516;
214.5000;0.2564;0.6855;
214.8000;0.2466;0.6661;
215.1000;0.2458;0.6709;
215.4000;0.2466;0.6758;
215.7000;0.2483;0.6855;
216.0000;0.2475;0.6709;
216.3000;0.2434;0.6637;
216.6000;0.2458;0.6734;
216.9000;0.2466;0.6806;
217.2000;0.2475;0.6927;
217.5000;0.2466;0.6927;
217.8000;0.2450;0.6855;
218.1000;0.2466;0.6879;
218.4000;0.2466;0.6782;
218.7000;0.2401;0.6685;
219.0000;0.2483;0.6831;
219.3000;0.2475;0.6758;
219.6000;0.2466;0.6782;
219.9000;0.2605;0.7121;
220.2000;0.2434;0.6637;
220.5000;0.2466;0.6685;
220.8000;0.2540;0.6806;
221.1000;0.2475;0.6709;
221.4000;0.2483;0.6831;
221.7000;0.2434;0.6661;
222.0000;0.2540;0.6976;
222.3000;0.2491;0.6879;
222.6000;0.2450;0.6831;
222.9000;0.2458;0.6709;
223.2000;0.2475;0.6685;
223.5000;0.2475;0.6709;
223.8000;0.2458;0.6637;
224.1000;0.2491;0.6734;
224.4000;0.2483;0.6637;
224.7000;0.2466;0.6540;
225.0000;0.2458;0.6540;
225.3000;0.2475;0.6685;
225.6000;0.2426;0.6467;
225.9000;0.2491;0.6516;
226.2000;0.2483;0.6467;
226.5000;0.2491;0.6516;
226.8000;0.2564;0.6758;
227.1000;0.2450;0.6491;
227.4000;0.2466;0.6467;
227.7000;0.2458;0.6443;
228.0000;0.2450;0.6491;
228.3000;0.2475;0.6564;
228.6000;0.2458;0.6516;
228.9000;0.2450;0.6419;
229.2000;0.2458;0.6491;
229.5000;0.2499;0.6588;
229.8000;0.2466;0.6516;
230.1000;0.2466;0.6540;
230.4000;0.2466;0.6588;
230.7000;0.2483;0.6685;
231.0000;0.2458;0.6637;
231.3000;0.2466;0.6709;
231.6000;0.2458;0.6661;
231.9000;0.2475;0.6685;
232.2000;0.2483;0.6661;
232.5000;0.2475;0.6564;
232.8000;0.2442;0.6491;
233.1000;0.2499;0.6637;
233.4000;0.2466;0.6491;
233.7000;0.2458;0.6443;
234.0000;0.2466;0.6395;
234.3000;0.2442;0.6322;
234.6000;0.2442;0.6346;
234.9000;0.2483;0.6516;
235.2000;0.2450;0.6491;
235.5000;0.2483;0.6491;
235.8000;0.2458;0.6467;
236.1000;0.2475;0.6661;
236.4000;0.2499;0.6806;
236.7000;0.2458;0.6661;
237.0000;0.2458;0.6734;
237.3000;0.2458;0.6734;
237.6000;0.2548;0.6952;
237.9000;0.2466;0.6709;
238.2000;0.2458;0.6613;
238.5000;0.2418;0.6637;
238.8000;0.2458;0.6709;
239.1000;0.2458;0.6661;
239.4000;0.2450;0.6613;
239.7000;0.2458;0.6491;
240.0000;0.2466;0.6443;
240.3000;0.2450;0.6467;
240.6000;0.2491;0.6564;
240.9000;0.2483;0.6491;
241.2000;0.2466;0.6443;
241.5000;0.2499;0.6491;
241.8000;0.2458;0.6516;
242.1000;0.2458;0.6540;
242.4000;0.2491;0.6758;
242.7000;0.2466;0.6661;
243.0000;0.2458;0.6588;
243.3000;0.2458;0.6540;
243.6000;0.2466;0.6564;
243.9000;0.2466;0.6564;
244.2000;0.2426;0.6419;
244.5000;0.2515;0.6637;
244.8000;0.2483;0.6467;
245.1000;0.2466;0.6419;
245.4000;0.2475;0.6346;
245.7000;0.2483;0.6443;
246.0000;0.2409;0.6346;
246.3000;0.2475;0.6588;
246.6000;0.2442;0.6564;
246.9000;0.2483;0.6709;
247.2000;0.2466;0.6709;
247.5000;0.2483;0.6734;
247.8000;0.2458;0.6709;
248.1000;0.2466;0.6782;
248.4000;0.2458;0.6685;
248.7000;0.2458;0.6709;
249.0000;0.2426;0.6661;
249.3000;0.2466;0.6758;
249.6000;0.2442;0.6685;
249.9000;0.2450;0.6685;
250.2000;0.2458;0.6758;
250.5000;0.2475;0.6758;
250.8000;0.2475;0.6734;
251.1000;0.2483;0.6734;
251.4000;0.2483;0.6709;
251.7000;0.2458;0.6685;
252.0000;0.2450;0.6637;
252.3000;0.2458;0.6685;
252.6000;0.2483;0.6734;
252.9000;0.2491;0.6734;
253.2000;0.2458;0.6637;
253.5000;0.2466;0.6613;
253.8000;0.2434;0.6516;
254.1000;0.2466;0.6637;
254.4000;0.2475;0.6637;
254.7000;0.2475;0.6661;
255.0000;0.2458;0.6661;
255.3000;0.2466;0.6831;
255.6000;0.2491;0.6952;
255.9000;0.2458;0.6903;
256.2000;0.2475;0.6976;
256.5000;0.2483;0.6855;
256.8000;0.2475;0.6806;
257.1000;0.2458;0.6806;
257.4000;0.2491;0.6879;
257.7000;0.2475;0.6734;
258.0000;0.2458;0.6734;
258.3000;0.2475;0.6806;
258.6000;0.2466;0.6758;
258.9000;0.2458;0.6685;
259.2000;0.2483;0.6758;
259.5000;0.2377;0.6467;
259.8000;0.2483;0.6709;
260.1000;0.2458;0.6637;
260.4000;0.2450;0.6637;
260.7000;0.2466;0.6734;
261.0000;0.2466;0.6782;
261.3000;0.2466;0.6758;
261.6000;0.2458;0.6758;
261.9000;0.2475;0.6831;
262.2000;0.2507;0.6879;
262.5000;0.2466;0.6782;
262.8000;0.2458;0.6782;
263.1000;0.2466;0.6782;
263.4000;0.2466;0.6831;
263.7000;0.2418;0.6782;
264.0000;0.2458;0.6831;
264.3000;0.2466;0.6855;
264.6000;0.2466;0.6855;
264.9000;0.2450;0.6734;
265.2000;0.2466;0.6661;
265.5000;0.2475;0.6637;
265.8000;0.2475;0.6613;
266.1000;0.2483;0.6709;
266.4000;0.2475;0.6709;
266.7000;0.2491;0.6903;
267.0000;0.2442;0.6734;
267.3000;0.2450;0.6709;
267.6000;0.2466;0.6661;
267.9000;0.2442;0.6613;
268.2000;0.2450;0.6734;
268.5000;0.2491;0.6758;
268.8000;0.2442;0.6709;
269.1000;0.2418;0.6685;
269.4000;0.2466;0.6782;
269.7000;0.2466;0.6806;
270.0000;0.2466;0.6734;
270.3000;0.2466;0.6709;
270.6000;0.2458;0.6637;
270.9000;0.2466;0.6734;
271.2000;0.2450;0.6758;
271.5000;0.2450;0.6734;
271.8000;0.2458;0.6685;
272.1000;0.2458;0.6709;
272.4000;0.2458;0.6806;
272.7000;0.2450;0.6831;
273.0000;0.2466;0.6758;
273.3000;0.2466;0.6831;
273.6000;0.2475;0.6879;
273.9000;0.2442;0.6685;
274.2000;0.2442;0.6661;
274.5000;0.2491;0.6685;
274.8000;0.2409;0.6491;
275.1000;0.2458;0.6637;
275.4000;0.2466;0.6661;
275.7000;0.2450;0.6637;
276.0000;0.2466;0.6758;
276.3000;0.2409;0.6564;
276.6000;0.2466;0.6734;
276.9000;0.2491;0.6734;
277.2000;0.2475;0.6782;
277.5000;0.2466;0.6782;
277.8000;0.2483;0.6734;
278.1000;0.2475;0.6734;
278.4000;0.2458;0.6758;
278.7000;0.2475;0.6879;
279.0000;0.2475;0.6831;
279.3000;0.2458;0.6734;
279.6000;0.2458;0.6734;
279.9000;0.2466;0.6709;
280.2000;0.2466;0.6685;
280.5000;0.2466;0.6637;
280.8000;0.2491;0.6661;
281.1000;0.2499;0.6685;
281.4000;0.2466;0.6685;
281.7000;0.2458;0.6661;
282.0000;0.2483;0.6855;
282.3000;0.2483;0.6855;
282.6000;0.2458;0.6758;
282.9000;0.2466;0.6685;
283.2000;0.2466;0.6758;
283.5000;0.2450;0.6734;
283.8000;0.2466;0.6758;
284.1000;0.2450;0.6661;
284.4000;0.2442;0.6637;
284.7000;0.2466;0.6782;
285.0000;0.2458;0.6806;
285.3000;0.2450;0.6831;
285.6000;0.2458;0.6831;
285.9000;0.2466;0.6782;
286.2000;0.2466;0.6806;
286.5000;0.2475;0.6734;
286.8000;0.2466;0.6637;
287.1000;0.2466;0.6637;
287.4000;0.2475;0.6588;
287.7000;0.2483;0.6637;
288.0000;0.2466;0.6613;
288.3000;0.2466;0.6637;
288.6000;0.2475;0.6613;
288.9000;0.2499;0.6734;
289.2000;0.2466;0.6734;
289.5000;0.2450;0.6734;
289.8000;0.2458;0.6685;
290.1000;0.2458;0.6734;
290.4000;0.2458;0.6709;
290.7000;0.2450;0.6661;
291.0000;0.2466;0.6685;
291.3000;0.2475;0.6637;
291.6000;0.2458;0.6613;
291.9000;0.2483;0.6782;
292.2000;0.2475;0.6709;
292.5000;0.2483;0.6734;
292.8000;0.2450;0.6685;
293.1000;0.2532;0.6927;
293.4000;0.2466;0.6758;
293.7000;0.2434;0.6661;
294.0000;0.2426;0.6588;
294.3000;0.2466;0.6685;
294.6000;0.2450;0.6613;
294.9000;0.2450;0.6564;
295.2000;0.2466;0.6564;
295.5000;0.2475;0.6637;
295.8000;0.2507;0.6758;
296.1000;0.2466;0.6637;
296.4000;0.2491;0.6734;
296.7000;0.2483;0.6637;
297.0000;0.2369;0.6395;
297.3000;0.2450;0.6637;
297.6000;0.2483;0.6758;
297.9000;0.2466;0.6685;
298.2000;0.2458;0.6613;
298.5000;0.2515;0.6758;
298.8000;0.2483;0.6588;
299.1000;0.2458;0.6516;
299.4000;0.2426;0.6491;
299.7000;0.2458;0.6588;
300.0000;0.2458;0.6540;
300.3000;0.2458;0.6564;
300.6000;0.2458;0.6588;
300.9000;0.2491;0.6637;
301.2000;0.2466;0.6661;
301.5000;0.2499;0.6758;
301.8000;0.2466;0.6758;
302.1000;0.2483;0.6831;
302.4000;0.2491;0.6709;
302.7000;0.2483;0.6758;
303.0000;0.2475;0.6734;
303.3000;0.2466;0.6709;
303.6000;0.2475;0.6806;
303.9000;0.2483;0.6879;
304.2000;0.2458;0.6758;
304.5000;0.2491;0.6855;
304.8000;0.2458;0.6709;
305.1000;0.2466;0.6709;
305.4000;0.2466;0.6685;
305.7000;0.2507;0.6879;
306.0000;0.2466;0.6782;
306.3000;0.2507;0.6855;
306.6000;0.2409;0.6443;
306.9000;0.2458;0.6491;
307.2000;0.2458;0.6588;
307.5000;0.2466;0.6661;
307.8000;0.2450;0.6637;
308.1000;0.2475;0.6661;
308.4000;0.2450;0.6709;
308.7000;0.2442;0.6685;
309.0000;0.2458;0.6782;
309.3000;0.2466;0.6855;
309.6000;0.2450;0.6831;
309.9000;0.2458;0.6831;
310.2000;0.2491;0.6806;
310.5000;0.2466;0.6806;
310.8000;0.2475;0.6734;
311.1000;0.2450;0.6709;
311.4000;0.2466;0.6709;
311.7000;0.2426;0.6613;
312.0000;0.2475;0.6831;
312.3000;0.2361;0.6540;
312.6000;0.2466;0.6734;
312.9000;0.2466;0.6734;
313.2000;0.2466;0.6685;
313.5000;0.2491;0.6661;
313.8000;0.2450;0.6540;
314.1000;0.2458;0.6637;
314.4000;0.2475;0.6685;
314.7000;0.2507;0.6855;
315.0000;0.2450;0.6758;
315.3000;0.2466;0.6831;
315.6000;0.2450;0.6782;
315.9000;0.2458;0.6685;
316.2000;0.2483;0.6758;
316.5000;0.2458;0.6661;
316.8000;0.2475;0.6637;
317.1000;0.2458;0.6661;
317.4000;0.2475;0.6734;
317.7000;0.2515;0.6855;
318.0000;0.2475;0.6661;
318.3000;0.2491;0.6637;
318.6000;0.2466;0.6540;
318.9000;0.2475;0.6588;
319.2000;0.2475;0.6613;
319.5000;0.2532;0.6709;
319.8000;0.2466;0.6516;
320.1000;0.2507;0.6637;
320.4000;0.2523;0.6637;
320.7000;0.2475;0.6540;
321.0000;0.2458;0.6613;
321.3000;0.2450;0.6661;
321.6000;0.2450;0.6637;
321.9000;0.2491;0.6661;
322.2000;0.2458;0.6467;
322.5000;0.2564;0.6709;
322.8000;0.2466;0.6467;
323.1000;0.2458;0.6491;
323.4000;0.2475;0.6491;
323.7000;0.2458;0.6443;
324.0000;0.2369;0.6249;
324.3000;0.2491;0.6637;
324.6000;0.2483;0.6564;
324.9000;0.2475;0.6540;
325.2000;0.2466;0.6613;
325.5000;0.2458;0.6588;
325.8000;0.2475;0.6564;
326.1000;0.2515;0.6685;
326.4000;0.2475;0.6685;
326.7000;0.2434;0.6540;
327.0000;0.2458;0.6613;
327.3000;0.2458;0.6613;
327.6000;0.2450;0.6661;
327.9000;0.2466;0.6734;
328.2000;0.2426;0.6637;
328.5000;0.2466;0.6734;
328.8000;0.2442;0.6685;
329.1000;0.2434;0.6661;
329.4000;0.2450;0.6613;
329.7000;0.2466;0.6564;
330.0000;0.2475;0.6564;
330.3000;0.2458;0.6661;
330.6000;0.2434;0.6613;
330.9000;0.2475;0.6709;
331.2000;0.2466;0.6782;
331.5000;0.2466;0.6734;
331.8000;0.2458;0.6758;
332.1000;0.2442;0.6806;
332.4000;0.2475;0.6879;
332.7000;0.2475;0.6879;
333.0000;0.2450;0.6685;
333.3000;0.2450;0.6661;
333.6000;0.2418;0.6516;
333.9000;0.2475;0.6685;
334.2000;0.2458;0.6637;
334.5000;0.2450;0.6637;
334.8000;0.2483;0.6758;
335.1000;0.2466;0.6709;
335.4000;0.2450;0.6661;
335.7000;0.2466;0.6734;
336.0000;0.2491;0.6903;
336.3000;0.2393;0.6685;
336.6000;0.2418;0.6734;
336.9000;0.2442;0.6782;
337.2000;0.2564;0.7121;
337.5000;0.2475;0.6855;
337.8000;0.2458;0.6685;
338.1000;0.2475;0.6709;
338.4000;0.2475;0.6758;
338.7000;0.2458;0.6806;
339.0000;0.2475;0.6927;
339.3000;0.2466;0.6952;
339.6000;0.2426;0.6903;
339.9000;0.2475;0.7049;
340.2000;0.2458;0.6976;
340.5000;0.2458;0.6831;
340.8000;0.2475;0.6879;
341.1000;0.2458;0.6831;
341.4000;0.2466;0.6855;
341.7000;0.2491;0.6879;
342.0000;0.2466;0.6855;
342.3000;0.2491;0.6952;
342.6000;0.2466;0.6855;
342.9000;0.2483;0.6903;
343.2000;0.2466;0.6952;
343.5000;0.2442;0.6927;
343.8000;0.2385;0.6758;
344.1000;0.2466;0.6927;
344.4000;0.2426;0.6734;
344.7000;0.2466;0.6855;
345.0000;0.2475;0.6927;
345.3000;0.2458;0.6976;
345.6000;0.2434;0.6927;
345.9000;0.2458;0.6952;
346.2000;0.2475;0.7024;
346.5000;0.2466;0.6952;
346.8000;0.2442;0.6709;
347.1000;0.2483;0.6879;
347.4000;0.2475;0.6831;
347.7000;0.2434;0.6685;
348.0000;0.2458;0.6661;
348.3000;0.2466;0.6734;
348.6000;0.2475;0.6734;
348.9000;0.2466;0.6661;
349.2000;0.2458;0.6661;
349.5000;0.2442;0.6661;
349.8000;0.2466;0.6758;
350.1000;0.2507;0.6855;
350.4000;0.2458;0.6685;
350.7000;0.2483;0.6782;
351.0000;0.2475;0.6831;
351.3000;0.2466;0.6831;
351.6000;0.2466;0.6734;
351.9000;0.2475;0.6782;
352.2000;0.2442;0.6758;
352.5000;0.2475;0.6855;
352.8000;0.2442;0.6734;
353.1000;0.2450;0.6831;
353.4000;0.2442;0.6758;
353.7000;0.2434;0.6637;
354.0000;0.2507;0.6927;
354.3000;0.2458;0.6855;
354.6000;0.2426;0.6734;
354.9000;0.2458;0.6831;
355.2000;0.2458;0.6709;
355.5000;0.2466;0.6685;
355.8000;0.2466;0.6637;
356.1000;0.2466;0.6734;
356.4000;0.2426;0.6637;
356.7000;0.2475;0.6709;
357.0000;0.2475;0.6709;
357.3000;0.2450;0.6709;
357.6000;0.2475;0.6879;
357.9000;0.2483;0.6758;
358.2000;0.2466;0.6709;
358.5000;0.2475;0.6734;
358.8000;0.2434;0.6709;
359.1000;0.2491;0.6927;
359.4000;0.2483;0.6903;
359.7000;0.2475;0.6903;
360.0000;0.2475;0.6831;
360.3000;0.2483;0.6758;
360.6000;0.2475;0.6685;
360.9000;0.2458;0.6734;
361.2000;0.2426;0.6661;
361.5000;0.2475;0.6806;
361.8000;0.2466;0.6734;
362.1000;0.2458;0.6661;
362.4000;0.2450;0.6661;
362.7000;0.2499;0.6758;
363.0000;0.2507;0.6855;
363.3000;0.2466;0.6709;
363.6000;0.2466;0.6661;
363.9000;0.2491;0.6685;
364.2000;0.2499;0.6734;
364.5000;0.2466;0.6516;
364.8000;0.2475;0.6516;
365.1000;0.2483;0.6564;
365.4000;0.2475;0.6661;
365.7000;0.2458;0.6661;
366.0000;0.2450;0.6661;
366.3000;0.2442;0.6685;
366.6000;0.2458;0.6661;
366.9000;0.2466;0.6685;
367.2000;0.2434;0.6613;
367.5000;0.2458;0.6613;
367.8000;0.2434;0.6564;
368.1000;0.2466;0.6637;
368.4000;0.2466;0.6637;
368.7000;0.2450;0.6637;
369.0000;0.2442;0.6588;
369.3000;0.2475;0.6709;
369.6000;0.2450;0.6709;
369.9000;0.2377;0.6370;
370.2000;0.2466;0.6613;
370.5000;0.2483;0.6758;
370.8000;0.2466;0.6782;
371.1000;0.2475;0.6734;
371.4000;0.2458;0.6709;
371.7000;0.2466;0.6709;
372.0000;0.2491;0.6734;
372.3000;0.2466;0.6661;
372.6000;0.2466;0.6806;
372.9000;0.2466;0.6879;
373.2000;0.2475;0.6806;
373.5000;0.2475;0.6806;
373.8000;0.2475;0.6709;
374.1000;0.2450;0.6637;
374.4000;0.2475;0.6661;
374.7000;0.2523;0.6831;
375.0000;0.2434;0.6661;
375.3000;0.2466;0.6782;
375.6000;0.2515;0.6927;
375.9000;0.2458;0.6806;
376.2000;0.2466;0.6758;
376.5000;0.2483;0.6782;
376.8000;0.2369;0.6491;
377.1000;0.2458;0.6806;
377.4000;0.2458;0.6806;
377.7000;0.2475;0.6855;
378.0000;0.2442;0.6806;
378.3000;0.2434;0.6709;
378.6000;0.2434;0.6661;
378.9000;0.2450;0.6709;
379.2000;0.2458;0.6734;
379.5000;0.2483;0.6709;
379.8000;0.2466;0.6709;
380.1000;0.2466;0.6831;
380.4000;0.2466;0.6952;
380.7000;0.2475;0.6831;
381.0000;0.2491;0.6806;
381.3000;0.2369;0.6395;
381.6000;0.2450;0.6564;
381.9000;0.2450;0.6637;
382.2000;0.2483;0.6564;
382.5000;0.2458;0.6491;
382.8000;0.2458;0.6443;
383.1000;0.2458;0.6467;
383.4000;0.2483;0.6613;
383.7000;0.2450;0.6540;
384.0000;0.2450;0.6516;
384.3000;0.2450;0.6588;
384.6000;0.2499;0.6685;
384.9000;0.2532;0.6734;
385.2000;0.2450;0.6613;
385.5000;0.2466;0.6685;
385.8000;0.2475;0.6758;
386.1000;0.2466;0.6758;
386.4000;0.2466;0.6734;
386.7000;0.2450;0.6685;
387.0000;0.2450;0.6709;
387.3000;0.2475;0.6685;
387.6000;0.2418;0.6588;
387.9000;0.2499;0.6831;
388.2000;0.2466;0.6734;
388.5000;0.2475;0.6709;
388.8000;0.2523;0.6758;
389.1000;0.2466;0.6637;
389.4000;0.2466;0.6613;
389.7000;0.2491;0.6637;
390.0000;0.2483;0.6685;
390.3000;0.2491;0.6685;
390.6000;0.2483;0.6758;
390.9000;0.2442;0.6709;
391.2000;0.2499;0.6831;
391.5000;0.2483;0.6806;
391.8000;0.2458;0.6806;
392.1000;0.2466;0.6831;
392.4000;0.2515;0.6976;
392.7000;0.2442;0.6952;
393.0000;0.2458;0.7000;
393.3000;0.2426;0.6927;
393.6000;0.2458;0.6927;
393.9000;0.2458;0.6855;
394.2000;0.2361;0.6613;
394.5000;0.2450;0.6855;
394.8000;0.2458;0.6855;
395.1000;0.2475;0.6831;
395.4000;0.2458;0.6709;
395.7000;0.2466;0.6661;
396.0000;0.2466;0.6613;
396.3000;0.2466;0.6709;
396.6000;0.2450;0.6734;
396.9000;0.2458;0.6758;
397.2000;0.2589;0.7170;
397.5000;0.2475;0.6782;
397.8000;0.2466;0.6758;
398.1000;0.2572;0.7073;
398.4000;0.2466;0.6903;
398.7000;0.2466;0.6806;
399.0000;0.2458;0.6758;
399.3000;0.2450;0.6734;
399.6000;0.2434;0.6782;
399.9000;0.2458;0.6782;
400.2000;0.2466;0.6758;
400.5000;0.2475;0.6855;
400.8000;0.2466;0.6831;
401.1000;0.2450;0.6758;
401.4000;0.2458;0.6709;
401.7000;0.2483;0.6879;
402.0000;0.2450;0.6903;
402.3000;0.2434;0.6903;
402.6000;0.2458;0.7073;
402.9000;0.2450;0.7049;
403.2000;0.2450;0.6952;
403.5000;0.2466;0.6879;
403.8000;0.2458;0.6879;
404.1000;0.2458;0.6734;
404.4000;0.2475;0.6855;
404.7000;0.2523;0.6855;
405.0000;0.2458;0.6661;
405.3000;0.2475;0.6709;
405.6000;0.2458;0.6661;
405.9000;0.2434;0.6685;
406.2000;0.2458;0.6758;
406.5000;0.2475;0.6855;
406.8000;0.2475;0.6782;
407.1000;0.2475;0.6782;
407.4000;0.2466;0.6855;
407.7000;0.2442;0.6734;
408.0000;0.2491;0.6855;
408.3000;0.2475;0.6903;
408.6000;0.2426;0.6758;
408.9000;0.2483;0.6976;
409.2000;0.2491;0.7000;
409.5000;0.2483;0.6952;
409.8000;0.2507;0.6976;
410.1000;0.2483;0.6806;
410.4000;0.2540;0.6952;
410.7000;0.2466;0.6637;
411.0000;0.2540;0.6734;
411.3000;0.2475;0.6564;
411.6000;0.2475;0.6637;
411.9000;0.2466;0.6613;
412.2000;0.2450;0.6588;
412.5000;0.2499;0.6734;
412.8000;0.2369;0.6395;
413.1000;0.2450;0.6540;
413.4000;0.2466;0.6637;
413.7000;0.2458;0.6564;
414.0000;0.2515;0.6758;
414.3000;0.2369;0.6419;
414.6000;0.2458;0.6540;
414.9000;0.2401;0.6346;
415.2000;0.2475;0.6588;
415.5000;0.2369;0.6322;
415.8000;0.2409;0.6395;
416.1000;0.2466;0.6564;
416.4000;0.2466;0.6540;
416.7000;0.2483;0.6540;
417.0000;0.2483;0.6419;
417.3000;0.2475;0.6395;
417.6000;0.2466;0.6491;
417.9000;0.2466;0.6419;
418.2000;0.2466;0.6370;
418.5000;0.2458;0.6419;
418.8000;0.2466;0.6322;
419.1000;0.2475;0.6370;
419.4000;0.2475;0.6322;
419.7000;0.2466;0.6273;
420.0000;0.2466;0.6249;
420.3000;0.2466;0.6298;
420.6000;0.2458;0.6298;
420.9000;0.2458;0.6322;
421.2000;0.2475;0.6322;
421.5000;0.2458;0.6322;
421.8000;0.2450;0.6298;
422.1000;0.2450;0.6322;
422.4000;0.2426;0.6273;
422.7000;0.2475;0.6322;
423.0000;0.2450;0.6273;
423.3000;0.2475;0.6346;
423.6000;0.2458;0.6273;
423.9000;0.2450;0.6370;
424.2000;0.2466;0.6322;
424.5000;0.2515;0.6443;
424.8000;0.2458;0.6225;
425.1000;0.2458;0.6249;
425.4000;0.2434;0.6177;
425.7000;0.2491;0.6346;
426.0000;0.2475;0.6395;
426.3000;0.2475;0.6370;
426.6000;0.2458;0.6467;
426.9000;0.2466;0.6516;
427.2000;0.2369;0.6249;
427.5000;0.2507;0.6588;
427.8000;0.2475;0.6491;
428.1000;0.2499;0.6588;
428.4000;0.2450;0.6540;
428.7000;0.2491;0.6709;
429.0000;0.2401;0.6467;
429.3000;0.2483;0.6637;
429.6000;0.2466;0.6588;
429.9000;0.2458;0.6516;
430.2000;0.2491;0.6588;
430.5000;0.2450;0.6588;
430.8000;0.2450;0.6637;
431.1000;0.2377;0.6370;
431.4000;0.2466;0.6540;
431.7000;0.2409;0.6443;
432.0000;0.2499;0.6661;
432.3000;0.2475;0.6540;
432.6000;0.2483;0.6588;
432.9000;0.2466;0.6467;
433.2000;0.2466;0.6491;
433.5000;0.2409;0.6298;
433.8000;0.2450;0.6419;
434.1000;0.2466;0.6443;
434.4000;0.2523;0.6564;
434.7000;0.2450;0.6346;
435.0000;0.2450;0.6298;
435.3000;0.2434;0.6225;
435.6000;0.2450;0.6346;
435.9000;0.2499;0.6467;
436.2000;0.2344;0.6080;
436.5000;0.2532;0.6588;
436.8000;0.2458;0.6395;
437.1000;0.2458;0.6443;
437.4000;0.2450;0.6419;
437.7000;0.2434;0.6249;
438.0000;0.2499;0.6443;
438.3000;0.2491;0.6443;
438.6000;0.2442;0.6346;
438.9000;0.2458;0.6443;
439.2000;0.2450;0.6467;
439.5000;0.2458;0.6613;
439.8000;0.2466;0.6734;
440.1000;0.2450;0.6661;
440.4000;0.2458;0.6734;
440.7000;0.2426;0.6758;
441.0000;0.2458;0.6831;
441.3000;0.2466;0.6879;
441.6000;0.2442;0.6758;
441.9000;0.2466;0.6758;
442.2000;0.2466;0.6758;
442.5000;0.2466;0.6685;
442.8000;0.2450;0.6613;
443.1000;0.2466;0.6637;
443.4000;0.2450;0.6588;
443.7000;0.2450;0.6588;
444.0000;0.2458;0.6613;
444.3000;0.2458;0.6540;
444.6000;0.2434;0.6491;
444.9000;0.2450;0.6540;
445.2000;0.2466;0.6613;
445.5000;0.2466;0.6661;
445.8000;0.2483;0.6661;
446.1000;0.2475;0.6613;
446.4000;0.2458;0.6491;
446.7000;0.2442;0.6443;
447.0000;0.2466;0.6588;
447.3000;0.2491;0.6613;
447.6000;0.2458;0.6491;
447.9000;0.2450;0.6467;
448.2000;0.2426;0.6370;
448.5000;0.2458;0.6419;
448.8000;0.2442;0.6467;
449.1000;0.2466;0.6467;
449.4000;0.2450;0.6516;
449.7000;0.2450;0.6588;
450.0000;0.2458;0.6564;
450.3000;0.2450;0.6709;
450.6000;0.2442;0.6782;
450.9000;0.2466;0.6782;
451.2000;0.2491;0.6831;
451.5000;0.2458;0.6734;
451.8000;0.2450;0.6685;
452.1000;0.2434;0.6588;
452.4000;0.2450;0.6661;
452.7000;0.2450;0.6637;
453.0000;0.2507;0.6831;
453.3000;0.2458;0.6685;
453.6000;0.2483;0.6734;
453.9000;0.2499;0.6782;
454.2000;0.2515;0.6782;
454.5000;0.2450;0.6613;
454.8000;0.2426;0.6588;
455.1000;0.2426;0.6540;
455.4000;0.2466;0.6685;
455.7000;0.2499;0.6734;
456.0000;0.2483;0.6564;
456.3000;0.2393;0.6249;
456.6000;0.2483;0.6491;
456.9000;0.2458;0.6419;
457.2000;0.2369;0.6177;
457.5000;0.2458;0.6467;
457.8000;0.2458;0.6516;
458.1000;0.2466;0.6540;
458.4000;0.2475;0.6588;
458.7000;0.2450;0.6564;
459.0000;0.2466;0.6613;
459.3000;0.2434;0.6540;
459.6000;0.2442;0.6637;
459.9000;0.2466;0.6758;
460.2000;0.2466;0.6734;
460.5000;0.2418;0.6588;
460.8000;0.2450;0.6588;
461.1000;0.2458;0.6588;
461.4000;0.2450;0.6637;
461.7000;0.2466;0.6661;
462.0000;0.2450;0.6613;
462.3000;0.2475;0.6637;
462.6000;0.2475;0.6564;
462.9000;0.2458;0.6588;
463.2000;0.2458;0.6588;
463.5000;0.2450;0.6637;
463.8000;0.2450;0.6588;
464.1000;0.2450;0.6613;
464.4000;0.2458;0.6613;
464.7000;0.2434;0.6588;
465.0000;0.2450;0.6637;
465.3000;0.2548;0.6879;
465.6000;0.2409;0.6637;
465.9000;0.2450;0.6782;
466.2000;0.2426;0.6685;
466.5000;0.2450;0.6758;
466.8000;0.2450;0.6758;
467.1000;0.2458;0.6782;
467.4000;0.2450;0.6734;
467.7000;0.2458;0.6637;
468.0000;0.2466;0.6709;
468.3000;0.2458;0.6637;
468.6000;0.2458;0.6637;
468.9000;0.2458;0.6661;
469.2000;0.2475;0.6709;
469.5000;0.2442;0.6637;
469.8000;0.2466;0.6734;
470.1000;0.2458;0.6758;
470.4000;0.2458;0.6782;
470.7000;0.2475;0.6758;
471.0000;0.2458;0.6758;
471.3000;0.2491;0.6879;
471.6000;0.2475;0.6758;
471.9000;0.2458;0.6685;
472.2000;0.2466;0.6758;
472.5000;0.2466;0.6709;
472.8000;0.2491;0.6782;
473.1000;0.2475;0.6806;
473.4000;0.2434;0.6758;
473.7000;0.2466;0.6782;
474.0000;0.2475;0.6734;
474.3000;0.2450;0.6637;
474.6000;0.2458;0.6613;
474.9000;0.2434;0.6516;
475.2000;0.2458;0.6540;
475.5000;0.2475;0.6588;
475.8000;0.2393;0.6491;
476.1000;0.2442;0.6734;
476.4000;0.2458;0.6734;
476.7000;0.2450;0.6637;
477.0000;0.2466;0.6613;
477.3000;0.2466;0.6637;
477.6000;0.2450;0.6564;
477.9000;0.2475;0.6613;
478.2000;0.2458;0.6613;
478.5000;0.2483;0.6685;
478.8000;0.2458;0.6613;
479.1000;0.2458;0.6734;
479.4000;0.2475;0.6855;
479.7000;0.2483;0.6927;
480.0000;0.2483;0.6879;
480.3000;0.2458;0.6758;
480.6000;0.2475;0.6758;
480.9000;0.2483;0.6806;
481.2000;0.2556;0.7097;
481.5000;0.2450;0.6855;
481.8000;0.2466;0.6879;
482.1000;0.2458;0.6952;
482.4000;0.2434;0.6831;
482.7000;0.2475;0.6831;
483.0000;0.2475;0.6831;
483.3000;0.2523;0.6976;
483.6000;0.2458;0.6758;
483.9000;0.2483;0.6758;
484.2000;0.2442;0.6637;
484.5000;0.2458;0.6588;
484.8000;0.2442;0.6588;
485.1000;0.2466;0.6734;
485.4000;0.2450;0.6734;
485.7000;0.2466;0.6855;
486.0000;0.2450;0.6806;
486.3000;0.2458;0.6685;
486.6000;0.2466;0.6709;
486.9000;0.2466;0.6758;
487.2000;0.2442;0.6709;
487.5000;0.2450;0.6782;
487.8000;0.2450;0.6758;
488.1000;0.2466;0.6734;
488.4000;0.2450;0.6685;
488.7000;0.2458;0.6661;
489.0000;0.2458;0.6709;
489.3000;0.2409;0.6685;
489.6000;0.2466;0.6758;
489.9000;0.2442;0.6709;
490.2000;0.2418;0.6734;
490.5000;0.2450;0.6831;
490.8000;0.2450;0.6734;
491.1000;0.2450;0.6685;
491.4000;0.2458;0.6758;
491.7000;0.2442;0.6709;
492.0000;0.2426;0.6734;
492.3000;0.2466;0.6855;
492.6000;0.2458;0.6855;
492.9000;0.2458;0.6831;
493.2000;0.2450;0.6734;
493.5000;0.2475;0.6709;
493.8000;0.2466;0.6637;
494.1000;0.2450;0.6685;
494.4000;0.2434;0.6661;
494.7000;0.2458;0.6637;
495.0000;0.2466;0.6564;
495.3000;0.2458;0.6613;
495.6000;0.2458;0.6661;
495.9000;0.2466;0.6782;
496.2000;0.2466;0.6758;
496.5000;0.2466;0.6782;
496.8000;0.2458;0.6782;
497.1000;0.2466;0.6709;
497.4000;0.2401;0.6540;
497.7000;0.2450;0.6734;
498.0000;0.2466;0.6734;
498.3000;0.2458;0.6685;
498.6000;0.2466;0.6734;
498.9000;0.2515;0.6879;
499.2000;0.2442;0.6685;
499.5000;0.2458;0.6709;
499.8000;0.2458;0.6613;
500.1000;0.2418;0.6564;
500.4000;0.2442;0.6540;
500.7000;0.2458;0.6637;
501.0000;0.2458;0.6709;
501.3000;0.2442;0.6685;
501.6000;0.2450;0.6782;
501.9000;0.2491;0.6806;
502.2000;0.2466;0.6685;
502.5000;0.2442;0.6637;
502.8000;0.2450;0.6734;
503.1000;0.2442;0.6661;
503.4000;0.2532;0.6927;
503.7000;0.2450;0.6734;
504.0000;0.2450;0.6734;
504.3000;0.2344;0.6491;
504.6000;0.2450;0.6758;
504.9000;0.2475;0.6734;
505.2000;0.2450;0.6709;
505.5000;0.2458;0.6685;
505.8000;0.2466;0.6613;
506.1000;0.2458;0.6637;
506.4000;0.2532;0.6831;
506.7000;0.2458;0.6540;
507.0000;0.2475;0.6467;
507.3000;0.2475;0.6419;
507.6000;0.2475;0.6467;
507.9000;0.2523;0.6613;
508.2000;0.2466;0.6467;
508.5000;0.2475;0.6516;
508.8000;0.2450;0.6564;
509.1000;0.2466;0.6637;
509.4000;0.2483;0.6685;
509.7000;0.2475;0.6685;
510.0000;0.2442;0.6516;
510.3000;0.2450;0.6564;
510.6000;0.2434;0.6516;
510.9000;0.2434;0.6516;
511.2000;0.2458;0.6564;
511.5000;0.2466;0.6564;
511.8000;0.2466;0.6564;
512.1000;0.2491;0.6661;
512.4000;0.2483;0.6564;
512.7000;0.2466;0.6516;
513.0000;0.2475;0.6588;
513.3000;0.2442;0.6540;
513.6000;0.2450;0.6443;
513.9000;0.2466;0.6564;
514.2000;0.2475;0.6661;
514.5000;0.2418;0.6564;
514.8000;0.2336;0.6467;
515.1000;0.2475;0.6782;
515.4000;0.2458;0.6782;
515.7000;0.2458;0.6806;
516.0000;0.2475;0.6855;
516.3000;0.2475;0.6855;
516.6000;0.2515;0.6952;
516.9000;0.2393;0.6564;
517.2000;0.2442;0.6661;
517.5000;0.2458;0.6734;
517.8000;0.2466;0.6806;
518.1000;0.2450;0.6758;
518.4000;0.2450;0.6758;
518.7000;0.2466;0.6879;
519.0000;0.2458;0.6879;
519.3000;0.2483;0.6952;
519.6000;0.2458;0.6879;
519.9000;0.2426;0.6782;
520.2000;0.2466;0.6806;
520.5000;0.2458;0.6782;
520.8000;0.2426;0.6709;
521.1000;0.2475;0.6927;
521.4000;0.2458;0.6758;
521.7000;0.2458;0.6734;
522.0000;0.2458;0.6637;
522.3000;0.2466;0.6661;
522.6000;0.2580;0.6976;
522.9000;0.2401;0.6467;
523.2000;0.2434;0.6613;
523.5000;0.2499;0.6782;
523.8000;0.2393;0.6443;
524.1000;0.2491;0.6685;
524.4000;0.2466;0.6613;
524.7000;0.2442;0.6540;
525.0000;0.2450;0.6564;
525.3000;0.2475;0.6637;
525.6000;0.2507;0.6758;
525.9000;0.2475;0.6685;
526.2000;0.2515;0.6758;
526.5000;0.2466;0.6564;
526.8000;0.2466;0.6491;
527.1000;0.2418;0.6370;
527.4000;0.2434;0.6516;
527.7000;0.2466;0.6564;
528.0000;0.2515;0.6758;
528.3000;0.2458;0.6540;
528.6000;0.2458;0.6491;
528.9000;0.2450;0.6491;
529.2000;0.2466;0.6564;
529.5000;0.2450;0.6564;
529.8000;0.2442;0.6564;
530.1000;0.2483;0.6661;
530.4000;0.2450;0.6613;
530.7000;0.2466;0.6637;
531.0000;0.2450;0.6637;
531.3000;0.2483;0.6709;
531.6000;0.2450;0.6661;
531.9000;0.2475;0.6685;
532.2000;0.2458;0.6661;
532.5000;0.2507;0.6831;
532.8000;0.2418;0.6613;
533.1000;0.2475;0.6709;
533.4000;0.2458;0.6637;
533.7000;0.2434;0.6613;
534.0000;0.2458;0.6685;
534.3000;0.2475;0.6758;
534.6000;0.2483;0.6831;
534.9000;0.2466;0.6758;
535.2000;0.2458;0.6758;
535.5000;0.2483;0.6903;
535.8000;0.2483;0.6903;
536.1000;0.2466;0.6782;
536.4000;0.2483;0.6758;
536.7000;0.2450;0.6637;
537.0000;0.2466;0.6758;
537.3000;0.2466;0.6806;
537.6000;0.2466;0.6806;
537.9000;0.2466;0.6855;
538.2000;0.2409;0.6709;
538.5000;0.2458;0.6806;
538.8000;0.2450;0.6685;
539.1000;0.2458;0.6661;
539.4000;0.2442;0.6685;
539.7000;0.2475;0.6637;
540.0000;0.2458;0.6637;
540.3000;0.2466;0.6758;
540.6000;0.2434;0.6709;
540.9000;0.2475;0.6782;
541.2000;0.2442;0.6709;
541.5000;0.2442;0.6661;
541.8000;0.2458;0.6734;
542.1000;0.2483;0.6879;
542.4000;0.2450;0.6782;
542.7000;0.2466;0.6782;
543.0000;0.2466;0.6734;
543.3000;0.2458;0.6734;
543.6000;0.2458;0.6709;
543.9000;0.2426;0.6613;
544.2000;0.2458;0.6709;
544.5000;0.2434;0.6758;
544.8000;0.2450;0.6734;
545.1000;0.2466;0.6734;
545.4000;0.2475;0.6734;
545.7000;0.2475;0.6855;
546.0000;0.2458;0.6734;
546.3000;0.2458;0.6734;
546.6000;0.2491;0.6782;
546.9000;0.2466;0.6782;
547.2000;0.2466;0.6734;
547.5000;0.2483;0.6806;
547.8000;0.2523;0.6927;
548.1000;0.2466;0.6782;
548.4000;0.2466;0.6734;
548.7000;0.2475;0.6661;
549.0000;0.2466;0.6661;
549.3000;0.2475;0.6661;
549.6000;0.2418;0.6491;
549.9000;0.2475;0.6637;
550.2000;0.2475;0.6709;
550.5000;0.2450;0.6637;
550.8000;0.2483;0.6709;
551.1000;0.2466;0.6613;
551.4000;0.2434;0.6516;
551.7000;0.2458;0.6637;
552.0000;0.2483;0.6709;
552.3000;0.2532;0.6903;
552.6000;0.2458;0.6806;
552.9000;0.2507;0.7000;
553.2000;0.2450;0.6806;
553.5000;0.2442;0.6685;
553.8000;0.2564;0.7049;
554.1000;0.2507;0.6806;
554.4000;0.2450;0.6613;
554.7000;0.2466;0.6661;
555.0000;0.2483;0.6782;
555.3000;0.2466;0.6903;
555.6000;0.2483;0.7000;
555.9000;0.2377;0.6661;
556.2000;0.2466;0.6903;
556.5000;0.2458;0.6758;
556.8000;0.2466;0.6758;
557.1000;0.2475;0.6637;
557.4000;0.2450;0.6661;
557.7000;0.2458;0.6588;
558.0000;0.2491;0.6588;
558.3000;0.2458;0.6467;
558.6000;0.2499;0.6588;
558.9000;0.2458;0.6467;
559.2000;0.2523;0.6564;
559.5000;0.2466;0.6322;
559.8000;0.2458;0.6322;
560.1000;0.2361;0.6055;
560.4000;0.2475;0.6419;
560.7000;0.2491;0.6443;
561.0000;0.2450;0.6419;
561.3000;0.2483;0.6613;
561.6000;0.2442;0.6661;
561.9000;0.2475;0.6734;
562.2000;0.2483;0.6734;
562.5000;0.2483;0.6831;
562.8000;0.2434;0.6709;
563.1000;0.2466;0.6831;
563.4000;0.2564;0.6976;
563.7000;0.2434;0.6613;
564.0000;0.2466;0.6758;
564.3000;0.2466;0.6734;
564.6000;0.2483;0.6734;
564.9000;0.2466;0.6709;
565.2000;0.2458;0.6734;
565.5000;0.2458;0.6685;
565.8000;0.2458;0.6613;
566.1000;0.2466;0.6734;
566.4000;0.2475;0.6734;
566.7000;0.2466;0.6734;
567.0000;0.2483;0.6855;
567.3000;0.2466;0.6855;
567.6000;0.2466;0.6879;
567.9000;0.2409;0.6734;
568.2000;0.2466;0.6734;
568.5000;0.2450;0.6709;
568.8000;0.2515;0.6952;
569.1000;0.2450;0.6806;
569.4000;0.2466;0.6903;
569.7000;0.2466;0.6879;
570.0000;0.2483;0.6903;
570.3000;0.2475;0.6903;
570.6000;0.2458;0.6831;
570.9000;0.2442;0.6782;
571.2000;0.2483;0.6903;
571.5000;0.2475;0.6903;
571.8000;0.2475;0.6879;
572.1000;0.2450;0.6855;
572.4000;0.2466;0.6903;
572.7000;0.2475;0.6855;
573.0000;0.2450;0.6855;
573.3000;0.2458;0.6855;
573.6000;0.2458;0.6879;
573.9000;0.2466;0.6782;
574.2000;0.2483;0.6734;
574.5000;0.2442;0.6588;
574.8000;0.2475;0.6661;
575.1000;0.2466;0.6685;
575.4000;0.2434;0.6613;
575.7000;0.2458;0.6637;
576.0000;0.2418;0.6588;
576.3000;0.2483;0.6758;
576.6000;0.2466;0.6685;
576.9000;0.2426;0.6540;
577.2000;0.2466;0.6613;
577.5000;0.2458;0.6685;
577.8000;0.2450;0.6637;
578.1000;0.2442;0.6661;
578.4000;0.2491;0.6831;
578.7000;0.2466;0.6661;
579.0000;0.2466;0.6685;
579.3000;0.2548;0.6903;
579.6000;0.2458;0.6661;
579.9000;0.2450;0.6685;
580.2000;0.2458;0.6758;
580.5000;0.2442;0.6734;
580.8000;0.2442;0.6782;
581.1000;0.2450;0.6758;
581.4000;0.2483;0.6806;
581.7000;0.2434;0.6685;
582.0000;0.2458;0.6613;
582.3000;0.2450;0.6564;
582.6000;0.2466;0.6588;
582.9000;0.2499;0.6637;
583.2000;0.2475;0.6564;
583.5000;0.2442;0.6419;
583.8000;0.2442;0.6516;
584.1000;0.2450;0.6588;
584.4000;0.2499;0.6831;
584.7000;0.2466;0.6661;
585.0000;0.2483;0.6685;
585.3000;0.2450;0.6564;
585.6000;0.2466;0.6564;
585.9000;0.2442;0.6588;
586.2000;0.2418;0.6467;
586.5000;0.2458;0.6613;
586.8000;0.2475;0.6734;
587.1000;0.2491;0.6806;
587.4000;0.2523;0.6879;
587.7000;0.2466;0.6782;
588.0000;0.2466;0.6855;
588.3000;0.2426;0.6806;
588.6000;0.2466;0.6903;
588.9000;0.2466;0.6952;
589.2000;0.2466;0.6903;
589.5000;0.2458;0.6903;
589.8000;0.2385;0.6637;
590.1000;0.2434;0.6758;
590.4000;0.2458;0.6855;
590.7000;0.2434;0.6806;
591.0000;0.2450;0.6734;
591.3000;0.2475;0.6709;
591.6000;0.2458;0.6734;
591.9000;0.2369;0.6491;
592.2000;0.2458;0.6734;
592.5000;0.2450;0.6685;
592.8000;0.2450;0.6782;
593.1000;0.2466;0.6927;
593.4000;0.2458;0.6903;
593.7000;0.2458;0.6831;
594.0000;0.2458;0.6831;
594.3000;0.2466;0.6855;
594.6000;0.2475;0.6855;
594.9000;0.2450;0.6806;
595.2000;0.2458;0.6709;
595.5000;0.2483;0.6734;
595.8000;0.2458;0.6758;
596.1000;0.2475;0.6685;
596.4000;0.2458;0.6758;
596.7000;0.2475;0.6855;
597.0000;0.2475;0.6831;
597.3000;0.2442;0.6685;
597.6000;0.2458;0.6806;
597.9000;0.2434;0.6685;
598.2000;0.2434;0.6734;
598.5000;0.2466;0.6855;
598.8000;0.2466;0.6855;
599.1000;0.2442;0.6806;
599.4000;0.2483;0.6879;
599.7000;0.2466;0.6734;
600.0000;0.2597;0.7145;
600.3000;0.2426;0.6637;
600.6000;0.2458;0.6685;
600.9000;0.2475;0.6613;
601.2000;0.2458;0.6467;
601.5000;0.2442;0.6322;
601.8000;0.2409;0.6152;
602.1000;0.2466;0.6177;
602.4000;0.2450;0.6007;
602.7000;0.2450;0.5837;
603.0000;0.2515;0.5886;
603.3000;0.2434;0.5595;
603.6000;0.2426;0.5474;
603.9000;0.2434;0.5426;
604.2000;0.2450;0.5305;
604.5000;0.2442;0.5329;
604.8000;0.2418;0.5256;
605.1000;0.2434;0.5353;
605.4000;0.2418;0.5232;
605.7000;0.2434;0.5256;
606.0000;0.2426;0.5111;
606.3000;0.2426;0.5038;
606.6000;0.2418;0.4965;
606.9000;0.2426;0.5038;
607.2000;0.2434;0.5111;
607.5000;0.2418;0.5062;
607.8000;0.2442;0.5087;
608.1000;0.2426;0.4990;
608.4000;0.2426;0.5062;
608.7000;0.2458;0.5159;
609.0000;0.2426;0.5062;
609.3000;0.2418;0.5111;
609.6000;0.2418;0.5087;
609.9000;0.2393;0.5062;
610.2000;0.2393;0.5062;
610.5000;0.2409;0.5038;
610.8000;0.2409;0.4941;
611.1000;0.2442;0.5038;
611.4000;0.2401;0.4965;
611.7000;0.2418;0.4917;
612.0000;0.2409;0.4917;
612.3000;0.2434;0.5014;
612.6000;0.2426;0.5087;
612.9000;0.2409;0.5087;
613.2000;0.2401;0.5111;
613.5000;0.2458;0.5329;
613.8000;0.2418;0.5183;
614.1000;0.2409;0.5111;
614.4000;0.2409;0.5087;
614.7000;0.2434;0.5135;
615.0000;0.2385;0.5038;
615.3000;0.2409;0.5135;
615.6000;0.2426;0.5135;
615.9000;0.2409;0.5062;
616.2000;0.2426;0.5111;
616.5000;0.2418;0.4990;
616.8000;0.2393;0.4869;
617.1000;0.2401;0.4820;
617.4000;0.2426;0.4893;
617.7000;0.2377;0.4869;
618.0000;0.2409;0.4917;
618.3000;0.2426;0.5014;
618.6000;0.2426;0.5087;
618.9000;0.2426;0.5183;
619.2000;0.2507;0.5426;
619.5000;0.2418;0.5159;
619.8000;0.2393;0.5038;
620.1000;0.2369;0.5038;
620.4000;0.2393;0.4990;
620.7000;0.2409;0.5062;
621.0000;0.2434;0.5183;
621.3000;0.2418;0.5232;
621.6000;0.2426;0.5183;
621.9000;0.2426;0.5232;
622.2000;0.2304;0.5014;
622.5000;0.2434;0.5353;
622.8000;0.2434;0.5353;
623.1000;0.2393;0.5305;
623.4000;0.2483;0.5474;
623.7000;0.2466;0.5426;
624.0000;0.2499;0.5498;
624.3000;0.2393;0.5256;
624.6000;0.2401;0.5305;
624.9000;0.2287;0.5038;
625.2000;0.2418;0.5305;
625.5000;0.2328;0.5038;
625.8000;0.2409;0.5232;
626.1000;0.2385;0.5183;
626.4000;0.2426;0.5256;
626.7000;0.2401;0.5256;
627.0000;0.2401;0.5232;
627.3000;0.2418;0.5353;
627.6000;0.2434;0.5377;
627.9000;0.2401;0.5256;
628.2000;0.2418;0.5280;
628.5000;0.2409;0.5232;
628.8000;0.2426;0.5159;
629.1000;0.2442;0.5159;
629.4000;0.2409;0.5087;
629.7000;0.2409;0.5087;
630.0000;0.2418;0.5087;
630.3000;0.2401;0.4990;
630.6000;0.2418;0.4990;
630.9000;0.2393;0.4965;
631.2000;0.2401;0.5087;
631.5000;0.2499;0.5305;
631.8000;0.2426;0.5087;
632.1000;0.2426;0.5111;
632.4000;0.2434;0.5111;
632.7000;0.2426;0.5062;
633.0000;0.2418;0.4941;
633.3000;0.2409;0.4917;
633.6000;0.2442;0.4917;
633.9000;0.2442;0.4917;
634.2000;0.2426;0.4893;
634.5000;0.2393;0.4772;
634.8000;0.2418;0.4893;
635.1000;0.2426;0.4893;
635.4000;0.2418;0.4990;
635.7000;0.2409;0.4893;
636.0000;0.2409;0.4869;
636.3000;0.2418;0.4941;
636.6000;0.2409;0.4941;
636.9000;0.2418;0.4917;
637.2000;0.2409;0.4917;
637.5000;0.2401;0.4965;
637.8000;0.2507;0.5256;
638.1000;0.2426;0.5014;
638.4000;0.2426;0.4965;
638.7000;0.2426;0.4965;
639.0000;0.2426;0.4893;
639.3000;0.2450;0.4965;
639.6000;0.2409;0.4941;
639.9000;0.2442;0.5062;
640.2000;0.2434;0.5014;
640.5000;0.2434;0.5062;
640.8000;0.2418;0.4990;
641.1000;0.2385;0.4941;
641.4000;0.2393;0.4917;
641.7000;0.2401;0.4965;
642.0000;0.2401;0.5014;
642.3000;0.2418;0.5014;
642.6000;0.2409;0.5014;
642.9000;0.2409;0.5062;
643.2000;0.2426;0.5087;
643.5000;0.2418;0.5062;
643.8000;0.2418;0.5062;
644.1000;0.2450;0.5111;
644.4000;0.2418;0.4990;
644.7000;0.2418;0.5014;
645.0000;0.2434;0.4990;
645.3000;0.2418;0.4990;
645.6000;0.2409;0.4941;
645.9000;0.2287;0.4602;
646.2000;0.2409;0.4941;
646.5000;0.2418;0.4965;
646.8000;0.2426;0.5062;
647.1000;0.2409;0.5062;
647.4000;0.2401;0.5014;
647.7000;0.2442;0.5135;
648.0000;0.2418;0.5062;
648.3000;0.2418;0.5111;
648.6000;0.2385;0.5038;
648.9000;0.2409;0.4990;
649.2000;0.2418;0.5062;
649.5000;0.2466;0.5135;
649.8000;0.2426;0.4990;
650.1000;0.2442;0.4990;
650.4000;0.2418;0.4844;
650.7000;0.2426;0.4820;
651.0000;0.2426;0.4869;
651.3000;0.2409;0.4893;
651.6000;0.2426;0.4941;
651.9000;0.2434;0.5038;
652.2000;0.2409;0.5087;
652.5000;0.2426;0.5135;
652.8000;0.2418;0.5159;
653.1000;0.2409;0.5087;
653.4000;0.2409;0.5111;
653.7000;0.2491;0.5305;
654.0000;0.2409;0.5062;
654.3000;0.2434;0.5111;
654.6000;0.2491;0.5353;
654.9000;0.2418;0.5208;
655.2000;0.2401;0.5183;
655.5000;0.2401;0.5208;
655.8000;0.2418;0.5183;
656.1000;0.2418;0.5159;
656.4000;0.2442;0.5135;
656.7000;0.2475;0.5232;
657.0000;0.2409;0.5111;
657.3000;0.2409;0.5135;
657.6000;0.2532;0.5523;
657.9000;0.2377;0.5111;
658.2000;0.2426;0.5183;
658.5000;0.2418;0.5256;
658.8000;0.2426;0.5208;
659.1000;0.2409;0.5087;
659.4000;0.2426;0.5062;
659.7000;0.2434;0.5014;
660.0000;0.2450;0.5062;
660.3000;0.2401;0.4917;
660.6000;0.2434;0.4990;
660.9000;0.2442;0.5014;
661.2000;0.2409;0.4917;
661.5000;0.2401;0.4869;
661.8000;0.2409;0.4917;
662.1000;0.2426;0.4917;
662.4000;0.2442;0.4965;
662.7000;0.2418;0.4869;
663.0000;0.2426;0.4869;
663.3000;0.2434;0.4820;
663.6000;0.2418;0.4772;
663.9000;0.2426;0.4844;
664.2000;0.2434;0.4941;
664.5000;0.2418;0.5038;
664.8000;0.2409;0.5087;
665.1000;0.2434;0.5087;
665.4000;0.2426;0.5087;
665.7000;0.2426;0.4990;
666.0000;0.2442;0.4917;
666.3000;0.2434;0.4941;
666.6000;0.2409;0.4917;
666.9000;0.2418;0.4965;
667.2000;0.2426;0.5038;
667.5000;0.2409;0.5062;
667.8000;0.2442;0.5087;
668.1000;0.2418;0.5111;
668.4000;0.2409;0.5087;
668.7000;0.2418;0.5111;
669.0000;0.2523;0.5329;
669.3000;0.2418;0.5038;
669.6000;0.2450;0.5208;
669.9000;0.2418;0.5135;
670.2000;0.2426;0.5111;
670.5000;0.2442;0.5208;
670.8000;0.2426;0.5159;
671.1000;0.2434;0.5135;
671.4000;0.2409;0.5038;
671.7000;0.2409;0.4965;
672.0000;0.2418;0.4941;
672.3000;0.2458;0.4941;
672.6000;0.2426;0.4796;
672.9000;0.2426;0.4796;
673.2000;0.2409;0.4772;
673.5000;0.2361;0.4505;
673.8000;0.2434;0.4723;
674.1000;0.2409;0.4772;
674.4000;0.2426;0.4941;
674.7000;0.2418;0.4941;
675.0000;0.2442;0.4965;
675.3000;0.2418;0.4990;
675.6000;0.2442;0.4990;
675.9000;0.2426;0.5014;
676.2000;0.2434;0.5062;
676.5000;0.2418;0.5062;
676.8000;0.2556;0.5498;
677.1000;0.2426;0.5135;
677.4000;0.2442;0.5232;
677.7000;0.2418;0.5087;
678.0000;0.2401;0.5038;
678.3000;0.2409;0.5038;
678.6000;0.2483;0.5208;
678.9000;0.2418;0.4941;
679.2000;0.2418;0.4893;
679.5000;0.2385;0.4796;
679.8000;0.2393;0.4820;
680.1000;0.2401;0.4772;
680.4000;0.2426;0.4917;
680.7000;0.2442;0.4990;
681.0000;0.2426;0.4941;
681.3000;0.2409;0.4990;
681.6000;0.2450;0.5038;
681.9000;0.2361;0.4820;
682.2000;0.2426;0.5038;
682.5000;0.2409;0.5087;
682.8000;0.2409;0.5038;
683.1000;0.2401;0.5159;
683.4000;0.2401;0.5038;
683.7000;0.2409;0.4990;
684.0000;0.2434;0.5111;
684.3000;0.2409;0.5111;
684.6000;0.2409;0.5087;
684.9000;0.2442;0.5208;
685.2000;0.2426;0.5208;
685.5000;0.2426;0.5208;
685.8000;0.2442;0.5232;
686.1000;0.2434;0.5329;
686.4000;0.2442;0.5329;
686.7000;0.2442;0.5305;
687.0000;0.2434;0.5208;
687.3000;0.2418;0.5135;
687.6000;0.2434;0.5038;
687.9000;0.2466;0.5062;
688.2000;0.2426;0.4941;
688.5000;0.2418;0.4869;
688.8000;0.2401;0.4917;
689.1000;0.2418;0.4869;
689.4000;0.2450;0.5014;
689.7000;0.2401;0.4869;
690.0000;0.2409;0.4844;
690.3000;0.2442;0.4893;
690.6000;0.2418;0.4893;
690.9000;0.2426;0.4869;
691.2000;0.2393;0.4723;
691.5000;0.2434;0.4917;
691.8000;0.2393;0.4869;
692.1000;0.2442;0.4941;
692.4000;0.2385;0.4893;
692.7000;0.2418;0.5014;
693.0000;0.2418;0.4990;
693.3000;0.2409;0.4990;
693.6000;0.2409;0.4869;
693.9000;0.2418;0.4917;
694.2000;0.2434;0.4965;
694.5000;0.2426;0.4990;
694.8000;0.2393;0.4820;
695.1000;0.2426;0.4941;
695.4000;0.2466;0.4990;
695.7000;0.2401;0.4941;
696.0000;0.2434;0.5111;
696.3000;0.2418;0.5111;
696.6000;0.2418;0.5183;
696.9000;0.2409;0.5111;
697.2000;0.2409;0.5111;
697.5000;0.2401;0.5038;
697.8000;0.2426;0.5038;
698.1000;0.2409;0.4917;
698.4000;0.2426;0.4941;
698.7000;0.2418;0.4917;
699.0000;0.2434;0.4965;
699.3000;0.2377;0.4893;
699.6000;0.2385;0.4965;
699.9000;0.2418;0.4965;
700.2000;0.2426;0.4965;
700.5000;0.2401;0.4965;
700.8000;0.2418;0.4990;
701.1000;0.2434;0.5014;
701.4000;0.2418;0.4965;
701.7000;0.2426;0.4990;
702.0000;0.2442;0.4917;
702.3000;0.2426;0.4990;
702.6000;0.2409;0.4917;
702.9000;0.2442;0.4941;
703.2000;0.2426;0.4941;
703.5000;0.2466;0.5062;
703.8000;0.2369;0.4844;
704.1000;0.2426;0.4990;
704.4000;0.2442;0.5087;
704.7000;0.2434;0.5111;
705.0000;0.2426;0.5232;
705.3000;0.2401;0.5232;
705.6000;0.2418;0.5159;
705.9000;0.2426;0.5208;
706.2000;0.2426;0.5135;
706.5000;0.2418;0.5159;
706.8000;0.2442;0.5305;
707.1000;0.2434;0.5305;
707.4000;0.2426;0.5280;
707.7000;0.2434;0.5305;
708.0000;0.2418;0.5353;
708.3000;0.2418;0.5329;
708.6000;0.2418;0.5353;
708.9000;0.2450;0.5426;
709.2000;0.2401;0.5232;
709.5000;0.2393;0.5183;
709.8000;0.2442;0.5208;
710.1000;0.2532;0.5474;
710.4000;0.2418;0.5280;
710.7000;0.2434;0.5377;
711.0000;0.2442;0.5401;
711.3000;0.2426;0.5208;
711.6000;0.2442;0.5256;
711.9000;0.2426;0.5280;
712.2000;0.2426;0.5208;
712.5000;0.2418;0.5280;
712.8000;0.2418;0.5305;
713.1000;0.2434;0.5377;
713.4000;0.2418;0.5256;
713.7000;0.2458;0.5280;
714.0000;0.2426;0.5159;
714.3000;0.2409;0.5111;
714.6000;0.2434;0.5135;
714.9000;0.2418;0.5183;
715.2000;0.2304;0.4917;
715.5000;0.2426;0.5232;
715.8000;0.2426;0.5305;
716.1000;0.2426;0.5280;
716.4000;0.2442;0.5256;
716.7000;0.2515;0.5498;
717.0000;0.2426;0.5280;
717.3000;0.2418;0.5208;
717.6000;0.2401;0.5159;
717.9000;0.2434;0.5305;
718.2000;0.2434;0.5353;
718.5000;0.2491;0.5498;
718.8000;0.2458;0.5450;
719.1000;0.2418;0.5353;
719.4000;0.2409;0.5280;
719.7000;0.2426;0.5280;
720.0000;0.2401;0.5208;
720.3000;0.2426;0.5232;
720.6000;0.2418;0.5232;
720.9000;0.2426;0.5111;
721.2000;0.2426;0.5087;
721.5000;0.2409;0.5038;
721.8000;0.2418;0.5062;
722.1000;0.2426;0.5087;
722.4000;0.2426;0.5038;
722.7000;0.2409;0.5111;
723.0000;0.2401;0.5014;
723.3000;0.2409;0.5062;
723.6000;0.2450;0.5111;
723.9000;0.2409;0.5062;
724.2000;0.2401;0.4990;
724.5000;0.2426;0.5038;
724.8000;0.2418;0.4990;
725.1000;0.2434;0.5014;
725.4000;0.2409;0.4917;
725.7000;0.2426;0.4941;
726.0000;0.2434;0.5014;
726.3000;0.2426;0.4990;
726.6000;0.2361;0.4844;
726.9000;0.2434;0.5062;
727.2000;0.2450;0.5062;
727.5000;0.2442;0.5087;
727.8000;0.2442;0.5014;
728.1000;0.2418;0.4917;
728.4000;0.2418;0.4941;
728.7000;0.2442;0.4965;
729.0000;0.2418;0.4941;
729.3000;0.2426;0.4990;
729.6000;0.2352;0.4893;
729.9000;0.2418;0.5038;
730.2000;0.2426;0.5014;
730.5000;0.2434;0.5087;
730.8000;0.2418;0.5014;
731.1000;0.2409;0.4990;
731.4000;0.2409;0.4965;
731.7000;0.2475;0.5135;
732.0000;0.2426;0.4990;
732.3000;0.2426;0.5087;
732.6000;0.2458;0.5159;
732.9000;0.2377;0.4990;
733.2000;0.2409;0.5087;
733.5000;0.2442;0.5087;
733.8000;0.2442;0.5087;
734.1000;0.2442;0.5038;
734.4000;0.2426;0.5087;
734.7000;0.2426;0.5159;
735.0000;0.2426;0.5183;
735.3000;0.2401;0.5135;
735.6000;0.2426;0.5159;
735.9000;0.2442;0.5135;
736.2000;0.2475;0.5208;
736.5000;0.2458;0.5111;
736.8000;0.2434;0.5111;
737.1000;0.2434;0.5111;
737.4000;0.2434;0.5111;
737.7000;0.2450;0.5087;
738.0000;0.2426;0.5038;
738.3000;0.2523;0.5256;
738.6000;0.2434;0.5014;
738.9000;0.2426;0.4990;
739.2000;0.2434;0.5038;
739.5000;0.2450;0.5183;
739.8000;0.2434;0.5062;
740.1000;0.2434;0.5135;
740.4000;0.2483;0.5208;
740.7000;0.2418;0.5111;
741.0000;0.2426;0.5087;
741.3000;0.2426;0.5062;
741.6000;0.2442;0.5111;
741.9000;0.2418;0.5087;
742.2000;0.2434;0.5183;
742.5000;0.2434;0.5232;
742.8000;0.2418;0.5135;
743.1000;0.2434;0.5111;
743.4000;0.2426;0.5135;
743.7000;0.2393;0.5038;
744.0000;0.2434;0.5208;
744.3000;0.2434;0.5159;
744.6000;0.2418;0.5159;
744.9000;0.2426;0.5159;
745.2000;0.2426;0.5280;
745.5000;0.2450;0.5353;
745.8000;0.2426;0.5353;
746.1000;0.2426;0.5329;
746.4000;0.2418;0.5329;
746.7000;0.2409;0.5232;
747.0000;0.2418;0.5159;
747.3000;0.2426;0.5038;
747.6000;0.2426;0.5014;
747.9000;0.2442;0.5183;
748.2000;0.2418;0.5135;
748.5000;0.2409;0.5111;
748.8000;0.2434;0.5208;
749.1000;0.2434;0.5280;
749.4000;0.2418;0.5208;
749.7000;0.2377;0.5038;
750.0000;0.2426;0.5159;
750.3000;0.2409;0.5159;
750.6000;0.2418;0.5111;
750.9000;0.2434;0.5087;
751.2000;0.2426;0.5087;
751.5000;0.2450;0.5183;
751.8000;0.2442;0.5135;
752.1000;0.2434;0.5183;
752.4000;0.2442;0.5256;
752.7000;0.2426;0.5280;
753.0000;0.2442;0.5305;
753.3000;0.2418;0.5256;
753.6000;0.2466;0.5353;
753.9000;0.2434;0.5232;
754.2000;0.2426;0.5256;
754.5000;0.2434;0.5208;
754.8000;0.2418;0.5135;
755.1000;0.2434;0.5159;
755.4000;0.2426;0.5183;
755.7000;0.2466;0.5183;
756.0000;0.2426;0.5183;
756.3000;0.2442;0.5183;
756.6000;0.2434;0.5280;
756.9000;0.2418;0.5159;
757.2000;0.2418;0.5159;
757.5000;0.2401;0.5159;
757.8000;0.2434;0.5159;
758.1000;0.2434;0.5111;
758.4000;0.2442;0.5111;
758.7000;0.2483;0.5305;
759.0000;0.2442;0.5208;
759.3000;0.2442;0.5232;
759.6000;0.2426;0.5256;
759.9000;0.2426;0.5183;
760.2000;0.2418;0.5256;
760.5000;0.2450;0.5305;
760.8000;0.2442;0.5183;
761.1000;0.2426;0.5135;
761.4000;0.2409;0.5111;
761.7000;0.2434;0.5183;
762.0000;0.2450;0.5232;
762.3000;0.2426;0.5232;
762.6000;0.2434;0.5256;
762.9000;0.2369;0.5014;
763.2000;0.2434;0.5183;
763.5000;0.2426;0.5256;
763.8000;0.2426;0.5232;
764.1000;0.2442;0.5208;
764.4000;0.2426;0.5232;
764.7000;0.2475;0.5280;
765.0000;0.2426;0.5135;
765.3000;0.2434;0.5087;
765.6000;0.2458;0.5135;
765.9000;0.2515;0.5208;
766.2000;0.2409;0.5014;
766.5000;0.2434;0.5087;
766.8000;0.2442;0.5038;
767.1000;0.2434;0.4990;
767.4000;0.2418;0.4941;
767.7000;0.2426;0.4844;
768.0000;0.2434;0.4844;
768.3000;0.2418;0.4796;
768.6000;0.2442;0.4893;
768.9000;0.2426;0.4917;
769.2000;0.2418;0.4869;
769.5000;0.2475;0.5087;
769.8000;0.2442;0.5111;
770.1000;0.2409;0.5087;
770.4000;0.2409;0.5111;
770.7000;0.2418;0.5038;
771.0000;0.2426;0.5062;
771.3000;0.2401;0.4990;
771.6000;0.2450;0.5062;
771.9000;0.2434;0.4941;
772.2000;0.2418;0.4941;
772.5000;0.2418;0.4990;
772.8000;0.2442;0.5014;
773.1000;0.2491;0.5159;
773.4000;0.2458;0.5062;
773.7000;0.2426;0.4965;
774.0000;0.2426;0.4917;
774.3000;0.2434;0.4917;
774.6000;0.2426;0.4917;
774.9000;0.2442;0.4941;
775.2000;0.2426;0.5014;
775.5000;0.2442;0.5111;
775.8000;0.2442;0.5111;
776.1000;0.2450;0.5062;
776.4000;0.2418;0.4869;
776.7000;0.2426;0.4844;
777.0000;0.2434;0.4965;
777.3000;0.2409;0.4990;
777.6000;0.2385;0.4917;
777.9000;0.2434;0.5038;
778.2000;0.2442;0.5014;
778.5000;0.2450;0.5038;
778.8000;0.2426;0.5062;
779.1000;0.2450;0.5183;
779.4000;0.2426;0.5087;
779.7000;0.2434;0.5183;
780.0000;0.2434;0.5256;
780.3000;0.2418;0.5208;
780.6000;0.2409;0.5232;
780.9000;0.2434;0.5208;
781.2000;0.2426;0.5135;
781.5000;0.2418;0.5135;
781.8000;0.2450;0.5232;
782.1000;0.2442;0.5111;
782.4000;0.2418;0.5062;
782.7000;0.2401;0.5038;
783.0000;0.2409;0.5038;
783.3000;0.2450;0.5135;
783.6000;0.2434;0.5111;
783.9000;0.2426;0.5256;
784.2000;0.2426;0.5256;
784.5000;0.2409;0.5305;
784.8000;0.2434;0.5377;
785.1000;0.2434;0.5329;
785.4000;0.2369;0.5159;
785.7000;0.2426;0.5305;
786.0000;0.2466;0.5377;
786.3000;0.2434;0.5183;
786.6000;0.2434;0.5159;
786.9000;0.2442;0.5280;
787.2000;0.2385;0.5111;
787.5000;0.2361;0.5038;
787.8000;0.2426;0.5135;
788.1000;0.2369;0.4990;
788.4000;0.2434;0.5183;
788.7000;0.2523;0.5401;
789.0000;0.2393;0.5038;
789.3000;0.2409;0.5038;
789.6000;0.2450;0.5135;
789.9000;0.2418;0.5087;
790.2000;0.2450;0.5135;
790.5000;0.2426;0.5038;
790.8000;0.2418;0.5087;
791.1000;0.2434;0.5183;
791.4000;0.2401;0.5159;
791.7000;0.2409;0.5111;
792.0000;0.2418;0.5111;
792.3000;0.2418;0.5183;
792.6000;0.2401;0.5135;
792.9000;0.2418;0.5062;
793.2000;0.2426;0.5111;
793.5000;0.2418;0.5038;
793.8000;0.2434;0.5038;
794.1000;0.2409;0.5014;
794.4000;0.2458;0.5208;
794.7000;0.2442;0.5135;
795.0000;0.2426;0.5135;
795.3000;0.2418;0.5135;
795.6000;0.2385;0.5062;
795.9000;0.2418;0.5159;
796.2000;0.2434;0.5159;
796.5000;0.2483;0.5329;
796.8000;0.2426;0.5232;
797.1000;0.2426;0.5208;
797.4000;0.2409;0.5159;
797.7000;0.2393;0.5135;
798.0000;0.2434;0.5208;
798.3000;0.2426;0.5062;
798.6000;0.2426;0.4990;
798.9000;0.2426;0.5087;
799.2000;0.2442;0.5183;
799.5000;0.2442;0.5111;
799.8000;0.2458;0.5087;
800.1000;0.2442;0.5038;
800.4000;0.2442;0.5014;
800.7000;0.2434;0.4990;
801.0000;0.2409;0.4941;
801.3000;0.2434;0.5062;
801.6000;0.2426;0.5111;
801.9000;0.2442;0.5159;
802.2000;0.2426;0.5135;
802.5000;0.2442;0.5232;
802.8000;0.2434;0.5280;
803.1000;0.2418;0.5329;
803.4000;0.2426;0.5256;
803.7000;0.2442;0.5353;
804.0000;0.2434;0.5305;
804.3000;0.2418;0.5256;
804.6000;0.2418;0.5280;
804.9000;0.2426;0.5256;
805.2000;0.2401;0.5232;
805.5000;0.2434;0.5256;
805.8000;0.2434;0.5256;
806.1000;0.2393;0.5111;
806.4000;0.2385;0.5111;
806.7000;0.2426;0.5111;
807.0000;0.2418;0.5135;
807.3000;0.2426;0.5062;
807.6000;0.2426;0.5062;
807.9000;0.2491;0.5280;
808.2000;0.2442;0.5087;
808.5000;0.2458;0.5087;
808.8000;0.2483;0.5135;
809.1000;0.2442;0.5087;
809.4000;0.2442;0.5183;
809.7000;0.2434;0.5208;
810.0000;0.2434;0.5183;
810.3000;0.2442;0.5208;
810.6000;0.2442;0.5256;
810.9000;0.2426;0.5159;
811.2000;0.2450;0.5135;
811.5000;0.2369;0.4747;
811.8000;0.2442;0.4917;
812.1000;0.2442;0.4917;
812.4000;0.2401;0.4917;
812.7000;0.2442;0.5087;
813.0000;0.2426;0.5038;
813.3000;0.2418;0.4990;
813.6000;0.2344;0.4844;
813.9000;0.2483;0.5159;
814.2000;0.2426;0.5014;
814.5000;0.2426;0.5038;
814.8000;0.2418;0.5038;
815.1000;0.2442;0.5135;
815.4000;0.2442;0.5256;
815.7000;0.2466;0.5280;
816.0000;0.2442;0.5232;
816.3000;0.2450;0.5232;
816.6000;0.2458;0.5183;
816.9000;0.2401;0.5062;
817.2000;0.2434;0.5159;
817.5000;0.2418;0.5062;
817.8000;0.2426;0.5087;
818.1000;0.2418;0.5111;
818.4000;0.2418;0.5038;
818.7000;0.2475;0.5159;
819.0000;0.2434;0.5135;
819.3000;0.2418;0.5111;
819.6000;0.2418;0.5135;
819.9000;0.2483;0.5329;
820.2000;0.2418;0.5232;
820.5000;0.2442;0.5256;
820.8000;0.2426;0.5135;
821.1000;0.2418;0.5038;
821.4000;0.2442;0.5038;
821.7000;0.2409;0.4990;
822.0000;0.2442;0.5087;
822.3000;0.2434;0.5062;
822.6000;0.2401;0.4941;
822.9000;0.2418;0.4941;
823.2000;0.2401;0.4917;
823.5000;0.2418;0.4965;
823.8000;0.2409;0.4990;
824.1000;0.2418;0.5038;
824.4000;0.2401;0.5014;
824.7000;0.2320;0.4796;
825.0000;0.2434;0.5111;
825.3000;0.2426;0.5062;
825.6000;0.2426;0.4990;
825.9000;0.2418;0.4941;
826.2000;0.2434;0.5014;
826.5000;0.2426;0.4990;
826.8000;0.2458;0.5038;
827.1000;0.2434;0.4990;
827.4000;0.2442;0.4990;
827.7000;0.2548;0.5256;
828.0000;0.2409;0.5014;
828.3000;0.2418;0.5087;
828.6000;0.2434;0.5183;
828.9000;0.2442;0.5183;
829.2000;0.2434;0.5232;
829.5000;0.2442;0.5208;
829.8000;0.2450;0.5208;
830.1000;0.2426;0.5135;
830.4000;0.2409;0.5135;
830.7000;0.2483;0.5280;
831.0000;0.2442;0.5087;
831.3000;0.2320;0.4844;
831.6000;0.2442;0.5183;
831.9000;0.2458;0.5305;
832.2000;0.2434;0.5280;
832.5000;0.2466;0.5426;
832.8000;0.2426;0.5280;
833.1000;0.2507;0.5450;
833.4000;0.2426;0.5208;
833.7000;0.2458;0.5256;
834.0000;0.2434;0.5183;
834.3000;0.2434;0.5208;
834.6000;0.2320;0.4917;
834.9000;0.2442;0.5208;
835.2000;0.2409;0.5159;
835.5000;0.2442;0.5256;
835.8000;0.2426;0.5232;
836.1000;0.2426;0.5159;
836.4000;0.2426;0.5183;
836.7000;0.2409;0.5183;
837.0000;0.2434;0.5280;
837.3000;0.2361;0.4990;
837.6000;0.2483;0.5401;
837.9000;0.2442;0.5329;
838.2000;0.2426;0.5305;
838.5000;0.2418;0.5256;
838.8000;0.2409;0.5256;
839.1000;0.2434;0.5208;
839.4000;0.2401;0.5208;
839.7000;0.2434;0.5329;
840.0000;0.2401;0.5280;
840.3000;0.2434;0.5256;
840.6000;0.2556;0.5498;
840.9000;0.2426;0.5183;
841.2000;0.2450;0.5256;
841.5000;0.2434;0.5159;
841.8000;0.2434;0.5280;
842.1000;0.2442;0.5232;
842.4000;0.2434;0.5183;
842.7000;0.2466;0.5159;
843.0000;0.2369;0.4893;
843.3000;0.2418;0.5014;
843.6000;0.2523;0.5256;
843.9000;0.2458;0.5062;
844.2000;0.2426;0.5062;
844.5000;0.2418;0.5062;
844.8000;0.2434;0.5135;
845.1000;0.2442;0.5111;
845.4000;0.2499;0.5280;
845.7000;0.2450;0.5183;
846.0000;0.2442;0.5111;
846.3000;0.2450;0.5038;
846.6000;0.2442;0.4965;
846.9000;0.2434;0.4820;
847.2000;0.2442;0.4796;
847.5000;0.2442;0.4869;
847.8000;0.2475;0.4844;
848.1000;0.2426;0.4772;
848.4000;0.2434;0.4772;
848.7000;0.2434;0.4747;
849.0000;0.2426;0.4699;
849.3000;0.2442;0.4723;
849.6000;0.2426;0.4747;
849.9000;0.2409;0.4772;
850.2000;0.2426;0.4844;
850.5000;0.2450;0.4796;
850.8000;0.2393;0.4602;
851.1000;0.2450;0.4747;
851.4000;0.2458;0.4747;
851.7000;0.2434;0.4675;
852.0000;0.2418;0.4699;
852.3000;0.2393;0.4602;
852.6000;0.2434;0.4723;
852.9000;0.2434;0.4723;
853.2000;0.2418;0.4723;
853.5000;0.2426;0.4747;
853.8000;0.2434;0.4772;
854.1000;0.2442;0.4747;
854.4000;0.2450;0.4747;
854.7000;0.2418;0.4626;
855.0000;0.2426;0.4675;
855.3000;0.2483;0.4747;
855.6000;0.2434;0.4699;
855.9000;0.2426;0.4626;
856.2000;0.2442;0.4747;
856.5000;0.2450;0.4772;
856.8000;0.2450;0.4772;
857.1000;0.2418;0.4699;
857.4000;0.2442;0.4747;
857.7000;0.2458;0.4796;
858.0000;0.2434;0.4723;
858.3000;0.2426;0.4723;
858.6000;0.2450;0.4699;
858.9000;0.2434;0.4747;
859.2000;0.2442;0.4820;
859.5000;0.2426;0.4723;
859.8000;0.2426;0.4796;
860.1000;0.2434;0.4796;
860.4000;0.2434;0.4844;
860.7000;0.2409;0.4844;
861.0000;0.2434;0.4844;
861.3000;0.2442;0.4893;
861.6000;0.2466;0.4941;
861.9000;0.2426;0.4869;
862.2000;0.2442;0.4893;
862.5000;0.2401;0.4723;
862.8000;0.2450;0.4820;
863.1000;0.2377;0.4675;
863.4000;0.2491;0.5014;
863.7000;0.2418;0.4893;
864.0000;0.2434;0.4965;
864.3000;0.2401;0.4941;
864.6000;0.2515;0.5159;
864.9000;0.2418;0.4990;
865.2000;0.2434;0.5062;
865.5000;0.2434;0.5062;
865.8000;0.2434;0.5014;
866.1000;0.2434;0.5014;
866.4000;0.2344;0.4772;
866.7000;0.2442;0.4990;
867.0000;0.2434;0.4965;
867.3000;0.2458;0.5062;
867.6000;0.2409;0.4941;
867.9000;0.2458;0.5014;
868.2000;0.2434;0.4965;
868.5000;0.2434;0.4990;
868.8000;0.2426;0.4965;
869.1000;0.2426;0.4965;
869.4000;0.2418;0.4869;
869.7000;0.2458;0.4869;
870.0000;0.2434;0.4747;
870.3000;0.2426;0.4747;
870.6000;0.2450;0.4893;
870.9000;0.2418;0.4796;
871.2000;0.2434;0.4893;
871.5000;0.2426;0.4965;
871.8000;0.2450;0.5062;
872.1000;0.2507;0.5159;
872.4000;0.2426;0.5038;
872.7000;0.2426;0.4990;
873.0000;0.2426;0.5014;
873.3000;0.2409;0.4965;
873.6000;0.2434;0.4917;
873.9000;0.2475;0.5038;
874.2000;0.2434;0.4965;
874.5000;0.2426;0.5111;
874.8000;0.2369;0.4917;
875.1000;0.2426;0.4965;
875.4000;0.2442;0.5014;
875.7000;0.2450;0.5014;
876.0000;0.2442;0.5038;
876.3000;0.2442;0.5087;
876.6000;0.2426;0.5014;
876.9000;0.2442;0.4990;
877.2000;0.2393;0.4917;
877.5000;0.2442;0.5087;
877.8000;0.2450;0.5135;
878.1000;0.2458;0.5159;
878.4000;0.2434;0.5038;
878.7000;0.2418;0.4965;
879.0000;0.2434;0.4941;
879.3000;0.2507;0.5183;
879.6000;0.2475;0.5159;
879.9000;0.2409;0.4990;
880.2000;0.2523;0.5280;
880.5000;0.2393;0.4965;
880.8000;0.2475;0.5159;
881.1000;0.2426;0.5038;
881.4000;0.2426;0.5062;
881.7000;0.2418;0.4965;
882.0000;0.2434;0.4965;
882.3000;0.2426;0.4965;
882.6000;0.2434;0.4844;
882.9000;0.2418;0.4893;
883.2000;0.2426;0.4941;
883.5000;0.2426;0.4893;
883.8000;0.2434;0.4917;
884.1000;0.2434;0.4844;
884.4000;0.2418;0.4869;
884.7000;0.2418;0.4844;
885.0000;0.2434;0.4820;
885.3000;0.2434;0.4772;
885.6000;0.2442;0.4747;
885.9000;0.2434;0.4723;
886.2000;0.2426;0.4772;
886.5000;0.2409;0.4772;
886.8000;0.2450;0.4893;
887.1000;0.2450;0.4917;
887.4000;0.2426;0.4941;
887.7000;0.2466;0.5014;
888.0000;0.2426;0.4941;
888.3000;0.2426;0.4820;
888.6000;0.2287;0.4287;
888.9000;0.2426;0.4505;
889.2000;0.2418;0.4457;
889.5000;0.2426;0.4384;
889.8000;0.2434;0.4384;
890.1000;0.2442;0.4481;
890.4000;0.2409;0.4505;
890.7000;0.2418;0.4554;
891.0000;0.2426;0.4602;
891.3000;0.2442;0.4626;
891.6000;0.2442;0.4699;
891.9000;0.2450;0.4747;
892.2000;0.2442;0.4820;
892.5000;0.2434;0.4820;
892.8000;0.2450;0.4869;
893.1000;0.2434;0.4893;
893.4000;0.2426;0.4772;
893.7000;0.2483;0.4941;
894.0000;0.2426;0.4772;
894.3000;0.2434;0.4820;
894.6000;0.2434;0.4820;
894.9000;0.2499;0.4990;
895.2000;0.2458;0.4869;
895.5000;0.2450;0.4844;
895.8000;0.2377;0.4675;
896.1000;0.2418;0.4820;
896.4000;0.2450;0.4869;
896.7000;0.2466;0.4941;
897.0000;0.2442;0.4869;
897.3000;0.2442;0.4869;
897.6000;0.2450;0.4869;
897.9000;0.2442;0.4844;
898.2000;0.2426;0.4844;
898.5000;0.2418;0.4772;
898.8000;0.2434;0.4820;
899.1000;0.2434;0.4917;
899.4000;0.2450;0.5014;
899.7000;0.2450;0.4917;
900.0000;0.2442;0.4941;
900.3000;0.2409;0.4820;
900.6000;0.2442;0.4869;
900.9000;0.2434;0.4869;
901.2000;0.2426;0.4844;
901.5000;0.2450;0.4917;
901.8000;0.2442;0.4893;
902.1000;0.2442;0.4893;
902.4000;0.2475;0.4990;
902.7000;0.2377;0.4820;
903.0000;0.2442;0.4941;
903.3000;0.2450;0.4893;
903.6000;0.2450;0.4917;
903.9000;0.2442;0.4820;
904.2000;0.2409;0.4675;
904.5000;0.2507;0.4941;
904.8000;0.2418;0.4796;
905.1000;0.2426;0.4869;
905.4000;0.2434;0.4796;
905.7000;0.2434;0.4820;
906.0000;0.2434;0.4844;
906.3000;0.2434;0.4893;
906.6000;0.2434;0.4869;
906.9000;0.2426;0.4917;
907.2000;0.2442;0.4917;
907.5000;0.2426;0.4820;
907.8000;0.2458;0.4820;
908.1000;0.2442;0.4723;
908.4000;0.2458;0.4820;
908.7000;0.2426;0.4723;
909.0000;0.2442;0.4747;
909.3000;0.2434;0.4699;
909.6000;0.2426;0.4675;
909.9000;0.2442;0.4723;
910.2000;0.2442;0.4869;
910.5000;0.2442;0.4844;
910.8000;0.2369;0.4602;
911.1000;0.2418;0.4772;
911.4000;0.2450;0.4796;
911.7000;0.2385;0.4675;
912.0000;0.2434;0.4893;
912.3000;0.2426;0.4869;
912.6000;0.2426;0.4965;
912.9000;0.2442;0.5111;
913.2000;0.2450;0.5159;
913.5000;0.2442;0.5062;
913.8000;0.2442;0.5014;
914.1000;0.2458;0.4990;
914.4000;0.2458;0.4990;
914.7000;0.2434;0.5014;
915.0000;0.2426;0.4965;
915.3000;0.2450;0.4965;
915.6000;0.2418;0.4893;
915.9000;0.2442;0.4917;
916.2000;0.2450;0.4893;
916.5000;0.2434;0.4917;
916.8000;0.2450;0.4796;
917.1000;0.2434;0.4844;
917.4000;0.2442;0.4820;
917.7000;0.2336;0.4602;
918.0000;0.2442;0.4869;
918.3000;0.2426;0.4893;
918.6000;0.2450;0.4893;
918.9000;0.2458;0.4893;
919.2000;0.2442;0.4772;
919.5000;0.2450;0.4869;
919.8000;0.2304;0.4481;
920.1000;0.2450;0.4869;
920.4000;0.2442;0.4893;
920.7000;0.2450;0.4941;
921.0000;0.2442;0.4869;
921.3000;0.2409;0.4772;
921.6000;0.2434;0.4772;
921.9000;0.2434;0.4699;
922.2000;0.2458;0.4747;
922.5000;0.2401;0.4675;
922.8000;0.2426;0.4699;
923.1000;0.2450;0.4820;
923.4000;0.2434;0.4820;
923.7000;0.2434;0.4869;
924.0000;0.2426;0.4941;
924.3000;0.2458;0.5062;
924.6000;0.2434;0.4965;
924.9000;0.2434;0.4917;
925.2000;0.2385;0.4820;
925.5000;0.2426;0.4820;
925.8000;0.2426;0.4869;
926.1000;0.2418;0.4869;
926.4000;0.2499;0.5062;
926.7000;0.2393;0.4796;
927.0000;0.2434;0.4941;
927.3000;0.2377;0.4844;
927.6000;0.2434;0.4990;
927.9000;0.2458;0.5014;
928.2000;0.2434;0.4990;
928.5000;0.2483;0.5208;
928.8000;0.2426;0.4965;
929.1000;0.2434;0.4965;
929.4000;0.2442;0.4965;
929.7000;0.2450;0.4917;
930.0000;0.2434;0.4844;
930.3000;0.2450;0.4917;
930.6000;0.2434;0.4941;
930.9000;0.2442;0.4869;
931.2000;0.2426;0.4747;
931.5000;0.2434;0.4772;
931.8000;0.2434;0.4651;
932.1000;0.2442;0.4699;
932.4000;0.2434;0.4626;
932.7000;0.2418;0.4651;
933.0000;0.2442;0.4675;
933.3000;0.2426;0.4675;
933.6000;0.2401;0.4626;
933.9000;0.2442;0.4651;
934.2000;0.2442;0.4675;
934.5000;0.2442;0.4772;
934.8000;0.2393;0.4747;
935.1000;0.2434;0.4893;
935.4000;0.2418;0.4844;
935.7000;0.2450;0.4917;
936.0000;0.2434;0.4893;
936.3000;0.2442;0.4869;
936.6000;0.2442;0.4844;
936.9000;0.2442;0.4869;
937.2000;0.2401;0.4893;
937.5000;0.2418;0.4990;
937.8000;0.2426;0.5014;
938.1000;0.2409;0.5038;
938.4000;0.2418;0.5062;
938.7000;0.2426;0.4990;
939.0000;0.2450;0.5014;
939.3000;0.2434;0.4941;
939.6000;0.2434;0.4893;
939.9000;0.2450;0.4869;
940.2000;0.2442;0.4869;
940.5000;0.2442;0.4820;
940.8000;0.2352;0.4529;
941.1000;0.2434;0.4796;
941.4000;0.2426;0.4772;
941.7000;0.2442;0.4869;
942.0000;0.2442;0.4723;
942.3000;0.2434;0.4651;
942.6000;0.2442;0.4626;
942.9000;0.2483;0.4772;
943.2000;0.2434;0.4651;
943.5000;0.2450;0.4675;
943.8000;0.2450;0.4699;
944.1000;0.2450;0.4626;
944.4000;0.2401;0.4554;
944.7000;0.2450;0.4699;
945.0000;0.2434;0.4602;
945.3000;0.2393;0.4554;
945.6000;0.2426;0.4699;
945.9000;0.2434;0.4747;
946.2000;0.2442;0.4820;
946.5000;0.2450;0.4820;
946.8000;0.2442;0.4844;
947.1000;0.2442;0.4844;
947.4000;0.2499;0.5038;
947.7000;0.2450;0.4796;
948.0000;0.2434;0.4772;
948.3000;0.2442;0.4869;
948.6000;0.2450;0.4893;
948.9000;0.2434;0.4917;
949.2000;0.2418;0.4965;
949.5000;0.2442;0.5062;
949.8000;0.2352;0.4772;
950.1000;0.2442;0.5087;
950.4000;0.2442;0.5038;
950.7000;0.2450;0.4990;
951.0000;0.2426;0.4893;
951.3000;0.2409;0.4772;
951.6000;0.2426;0.4747;
951.9000;0.2442;0.4747;
952.2000;0.2385;0.4578;
952.5000;0.2442;0.4651;
952.8000;0.2426;0.4626;
953.1000;0.2442;0.4626;
953.4000;0.2450;0.4651;
953.7000;0.2401;0.4578;
954.0000;0.2434;0.4820;
954.3000;0.2442;0.4820;
954.6000;0.2442;0.4675;
954.9000;0.2434;0.4699;
955.2000;0.2466;0.4796;
955.5000;0.2418;0.4723;
955.8000;0.2409;0.4723;
956.1000;0.2434;0.4820;
956.4000;0.2442;0.4893;
956.7000;0.2328;0.4578;
957.0000;0.2426;0.4844;
957.3000;0.2442;0.4917;
957.6000;0.2450;0.4917;
957.9000;0.2434;0.4941;
958.2000;0.2442;0.5014;
958.5000;0.2434;0.4990;
958.8000;0.2442;0.4941;
959.1000;0.2442;0.4965;
959.4000;0.2434;0.4941;
959.7000;0.2426;0.4917;
960.0000;0.2450;0.5062;
960.3000;0.2466;0.5183;
960.6000;0.2418;0.4990;
960.9000;0.2450;0.5038;
961.2000;0.2450;0.5038;
961.5000;0.2442;0.4990;
961.8000;0.2377;0.4844;
962.1000;0.2377;0.4844;
962.4000;0.2426;0.5062;
962.7000;0.2458;0.5087;
963.0000;0.2434;0.5038;
963.3000;0.2426;0.4965;
963.6000;0.2418;0.4893;
963.9000;0.2426;0.4820;
964.2000;0.2442;0.4917;
964.5000;0.2450;0.5014;
964.8000;0.2458;0.5135;
965.1000;0.2450;0.5135;
965.4000;0.2450;0.5111;
965.7000;0.2458;0.5159;
966.0000;0.2442;0.5135;
966.3000;0.2458;0.5159;
966.6000;0.2442;0.5135;
966.9000;0.2385;0.5038;
967.2000;0.2426;0.5135;
967.5000;0.2450;0.5183;
967.8000;0.2450;0.5111;
968.1000;0.2466;0.5062;
968.4000;0.2426;0.5014;
968.7000;0.2426;0.5087;
969.0000;0.2434;0.5111;
969.3000;0.2450;0.5159;
969.6000;0.2434;0.5159;
969.9000;0.2483;0.5280;
970.2000;0.2320;0.4844;
970.5000;0.2450;0.5183;
970.8000;0.2426;0.5159;
971.1000;0.2442;0.5135;
971.4000;0.2450;0.5062;
971.7000;0.2458;0.5062;
972.0000;0.2434;0.4990;
972.3000;0.2361;0.4772;
972.6000;0.2434;0.5014;
972.9000;0.2434;0.5087;
973.2000;0.2434;0.5038;
973.5000;0.2442;0.5135;
973.8000;0.2434;0.5087;
974.1000;0.2434;0.5111;
974.4000;0.2450;0.5087;
974.7000;0.2491;0.5159;
975.0000;0.2450;0.5135;
975.3000;0.2434;0.5062;
975.6000;0.2475;0.5135;
975.9000;0.2450;0.5038;
976.2000;0.2442;0.4965;
976.5000;0.2450;0.4965;
976.8000;0.2442;0.4893;
977.1000;0.2434;0.4941;
977.4000;0.2515;0.5038;
977.7000;0.2442;0.4941;
978.0000;0.2458;0.4917;
978.3000;0.2450;0.4941;
978.6000;0.2450;0.4869;
978.9000;0.2442;0.4820;
979.2000;0.2426;0.4796;
979.5000;0.2450;0.4844;
979.8000;0.2434;0.4796;
980.1000;0.2450;0.4747;
980.4000;0.2458;0.4869;
980.7000;0.2434;0.4699;
981.0000;0.2442;0.4723;
981.3000;0.2434;0.4796;
981.6000;0.2442;0.4917;
981.9000;0.2418;0.4723;
982.2000;0.2426;0.4772;
982.5000;0.2442;0.4796;
982.8000;0.2442;0.4820;
983.1000;0.2434;0.4796;
983.4000;0.2434;0.4844;
983.7000;0.2401;0.4723;
984.0000;0.2434;0.4796;
984.3000;0.2393;0.4699;
984.6000;0.2434;0.4869;
984.9000;0.2418;0.4941;
985.2000;0.2401;0.4869;
985.5000;0.2426;0.4893;
985.8000;0.2540;0.5135;
986.1000;0.2434;0.4723;
986.4000;0.2442;0.4796;
986.7000;0.2466;0.4844;
987.0000;0.2442;0.4869;
987.3000;0.2426;0.4772;
987.6000;0.2556;0.5159;
987.9000;0.2458;0.4917;
988.2000;0.2442;0.4893;
988.5000;0.2442;0.4893;
988.8000;0.2442;0.4941;
989.1000;0.2442;0.4917;
989.4000;0.2409;0.4869;
989.7000;0.2475;0.5062;
990.0000;0.2458;0.5111;
990.3000;0.2450;0.5062;
990.6000;0.2458;0.5111;
990.9000;0.2450;0.5014;
991.2000;0.2450;0.4965;
991.5000;0.2434;0.4941;
991.8000;0.2434;0.4990;
992.1000;0.2426;0.5014;
992.4000;0.2458;0.5062;
992.7000;0.2434;0.4869;
993.0000;0.2401;0.4651;
993.3000;0.2442;0.4844;
993.6000;0.2523;0.5062;
993.9000;0.2450;0.4844;
994.2000;0.2450;0.4869;
994.5000;0.2426;0.4869;
994.8000;0.2442;0.4893;
995.1000;0.2450;0.4965;
995.4000;0.2434;0.4965;
995.7000;0.2475;0.5087;
996.0000;0.2442;0.5062;
996.3000;0.2393;0.4869;
996.6000;0.2442;0.4965;
996.9000;0.2450;0.4917;
997.2000;0.2466;0.5062;
997.5000;0.2401;0.4917;
997.8000;0.2450;0.5038;
998.1000;0.2450;0.4965;
998.4000;0.2532;0.5183;
998.7000;0.2442;0.4965;
999.0000;0.2426;0.4990;
999.3000;0.2507;0.5135;
999.6000;0.2458;0.4990;
999.9000;0.2475;0.5087;
1000.2000;0.2458;0.4941;
1000.5000;0.2434;0.4844;
1000.8000;0.2434;0.4917;
1001.1000;0.2450;0.4917;
1001.4000;0.2426;0.4869;
1001.7000;0.2401;0.4747;
1002.0000;0.2532;0.5135;
1002.3000;0.2434;0.4844;
1002.6000;0.2418;0.4772;
1002.9000;0.2434;0.4844;
1003.2000;0.2418;0.4820;
1003.5000;0.2442;0.4820;
1003.8000;0.2475;0.4869;
1004.1000;0.2426;0.4626;
1004.4000;0.2442;0.4602;
1004.7000;0.2434;0.4626;
1005.0000;0.2418;0.4554;
1005.3000;0.2426;0.4554;
1005.6000;0.2442;0.4578;
1005.9000;0.2393;0.4481;
1006.2000;0.2556;0.4917;
1006.5000;0.2442;0.4675;
1006.8000;0.2442;0.4554;
1007.1000;0.2442;0.4626;
1007.4000;0.2442;0.4626;
1007.7000;0.2434;0.4699;
1008.0000;0.2434;0.4675;
1008.3000;0.2442;0.4626;
1008.6000;0.2450;0.4626;
1008.9000;0.2442;0.4602;
1009.2000;0.2434;0.4602;
1009.5000;0.2442;0.4651;
1009.8000;0.2442;0.4651;
1010.1000;0.2442;0.4651;
1010.4000;0.2434;0.4602;
1010.7000;0.2426;0.4675;
1011.0000;0.2409;0.4602;
1011.3000;0.2434;0.4602;
1011.6000;0.2442;0.4626;
1011.9000;0.2434;0.4602;
1012.2000;0.2466;0.4626;
1012.5000;0.2475;0.4626;
1012.8000;0.2442;0.4675;
1013.1000;0.2442;0.4723;
1013.4000;0.2442;0.4723;
1013.7000;0.2450;0.4699;
1014.0000;0.2458;0.4651;
1014.3000;0.2442;0.4675;
1014.6000;0.2458;0.4772;
1014.9000;0.2418;0.4796;
1015.2000;0.2564;0.5232;
1015.5000;0.2418;0.4747;
1015.8000;0.2418;0.4796;
1016.1000;0.2434;0.4893;
1016.4000;0.2442;0.4869;
1016.7000;0.2418;0.4723;
1017.0000;0.2434;0.4723;
1017.3000;0.2434;0.4699;
1017.6000;0.2434;0.4675;
1017.9000;0.2442;0.4651;
1018.2000;0.2409;0.4529;
1018.5000;0.2344;0.4433;
1018.8000;0.2442;0.4675;
1019.1000;0.2491;0.4820;
1019.4000;0.2352;0.4457;
1019.7000;0.2450;0.4772;
1020.0000;0.2442;0.4675;
1020.3000;0.2377;0.4505;
1020.6000;0.2450;0.4675;
1020.9000;0.2426;0.4747;
1021.2000;0.2434;0.4699;
1021.5000;0.2442;0.4772;
1021.8000;0.2434;0.4723;
1022.1000;0.2434;0.4699;
1022.4000;0.2434;0.4747;
1022.7000;0.2442;0.4796;
1023.0000;0.2442;0.4723;
1023.3000;0.2450;0.4869;
1023.6000;0.2426;0.4820;
1023.9000;0.2418;0.4723;
1024.2000;0.2434;0.4723;
1024.5000;0.2450;0.4747;
1024.8000;0.2426;0.4772;
1025.1000;0.2434;0.4844;
1025.4000;0.2418;0.4917;
1025.7000;0.2458;0.5038;
1026.0000;0.2426;0.4917;
1026.3000;0.2434;0.4965;
1026.6000;0.2409;0.4965;
1026.9000;0.2442;0.4965;
1027.2000;0.2458;0.5038;
1027.5000;0.2426;0.4965;
1027.8000;0.2458;0.5014;
1028.1000;0.2442;0.4990;
1028.4000;0.2442;0.4917;
1028.7000;0.2409;0.4651;
1029.0000;0.2434;0.4675;
1029.3000;0.2401;0.4602;
1029.6000;0.2442;0.4747;
1029.9000;0.2458;0.4820;
1030.2000;0.2418;0.4747;
1030.5000;0.2418;0.4869;
1030.8000;0.2426;0.4893;
1031.1000;0.2426;0.4869;
1031.4000;0.2434;0.4965;
1031.7000;0.2442;0.4990;
1032.0000;0.2442;0.4990;
1032.3000;0.2434;0.4917;
1032.6000;0.2434;0.4990;
1032.9000;0.2442;0.4990;
1033.2000;0.2409;0.4820;
1033.5000;0.2426;0.4820;
1033.8000;0.2442;0.4990;
1034.1000;0.2450;0.4990;
1034.4000;0.2450;0.5038;
1034.7000;0.2499;0.5183;
1035.0000;0.2434;0.4990;
1035.3000;0.2434;0.5038;
1035.6000;0.2409;0.4941;
1035.9000;0.2393;0.4844;
1036.2000;0.2434;0.4941;
1036.5000;0.2442;0.4941;
1036.8000;0.2483;0.5087;
1037.1000;0.2442;0.4965;
1037.4000;0.2434;0.4917;
1037.7000;0.2450;0.4941;
1038.0000;0.2442;0.5014;
1038.3000;0.2418;0.5014;
1038.6000;0.2466;0.5111;
1038.9000;0.2475;0.5111;
1039.2000;0.2450;0.4990;
1039.5000;0.2442;0.4893;
1039.8000;0.2434;0.4820;
1040.1000;0.2401;0.4747;
1040.4000;0.2426;0.4869;
1040.7000;0.2426;0.4869;
1041.0000;0.2442;0.4796;
1041.3000;0.2434;0.4820;
1041.6000;0.2442;0.4917;
1041.9000;0.2426;0.4893;
1042.2000;0.2442;0.4893;
1042.5000;0.2540;0.5183;
1042.8000;0.2450;0.4965;
1043.1000;0.2434;0.4965;
1043.4000;0.2442;0.4941;
1043.7000;0.2434;0.4869;
1044.0000;0.2458;0.4869;
1044.3000;0.2434;0.4699;
1044.6000;0.2515;0.4941;
1044.9000;0.2458;0.4844;
1045.2000;0.2458;0.4844;
1045.5000;0.2434;0.4893;
1045.8000;0.2458;0.4917;
1046.1000;0.2450;0.4965;
1046.4000;0.2450;0.4917;
1046.7000;0.2442;0.5014;
1047.0000;0.2442;0.5111;
1047.3000;0.2442;0.5087;
1047.6000;0.2458;0.5038;
1047.9000;0.2458;0.5038;
1048.2000;0.2434;0.4990;
1048.5000;0.2450;0.4990;
1048.8000;0.2426;0.4941;
1049.1000;0.2442;0.5038;
1049.4000;0.2442;0.5014;
1049.7000;0.2442;0.5014;
1050.0000;0.2352;0.4699;
1050.3000;0.2523;0.5062;
1050.6000;0.2426;0.4796;
1050.9000;0.2483;0.4869;
1051.2000;0.2450;0.4820;
1051.5000;0.2418;0.4820;
1051.8000;0.2442;0.4869;
1052.1000;0.2418;0.4723;
1052.4000;0.2418;0.4723;
1052.7000;0.2483;0.4917;
1053.0000;0.2426;0.4772;
1053.3000;0.2458;0.4917;
1053.6000;0.2279;0.4384;
1053.9000;0.2434;0.4796;
1054.2000;0.2442;0.4844;
1054.5000;0.2450;0.4772;
1054.8000;0.2450;0.4796;
1055.1000;0.2426;0.4651;
1055.4000;0.2426;0.4675;
1055.7000;0.2426;0.4626;
1056.0000;0.2458;0.4699;
1056.3000;0.2418;0.4651;
1056.6000;0.2458;0.4699;
1056.9000;0.2434;0.4675;
1057.2000;0.2442;0.4747;
1057.5000;0.2442;0.4747;
1057.8000;0.2442;0.4723;
1058.1000;0.2442;0.4772;
1058.4000;0.2458;0.4869;
1058.7000;0.2434;0.4844;
1059.0000;0.2434;0.4844;
1059.3000;0.2442;0.4869;
1059.6000;0.2393;0.4772;
1059.9000;0.2475;0.4941;
1060.2000;0.2442;0.4772;
1060.5000;0.2434;0.4723;
1060.8000;0.2434;0.4820;
1061.1000;0.2450;0.4844;
1061.4000;0.2450;0.4844;
1061.7000;0.2393;0.4723;
1062.0000;0.2426;0.4723;
1062.3000;0.2458;0.4723;
1062.6000;0.2434;0.4651;
1062.9000;0.2418;0.4481;
1063.2000;0.2426;0.4602;
1063.5000;0.2450;0.4675;
1063.8000;0.2450;0.4772;
1064.1000;0.2442;0.4675;
1064.4000;0.2409;0.4651;
1064.7000;0.2450;0.4869;
1065.0000;0.2336;0.4505;
1065.3000;0.2442;0.4723;
1065.6000;0.2442;0.4772;
1065.9000;0.2418;0.4747;
1066.2000;0.2426;0.4675;
1066.5000;0.2466;0.4796;
1066.8000;0.2450;0.4747;
1067.1000;0.2442;0.4626;
1067.4000;0.2434;0.4626;
1067.7000;0.2393;0.4554;
1068.0000;0.2434;0.4651;
1068.3000;0.2442;0.4651;
1068.6000;0.2442;0.4578;
1068.9000;0.2450;0.4723;
1069.2000;0.2450;0.4699;
1069.5000;0.2377;0.4554;
1069.8000;0.2442;0.4747;
1070.1000;0.2418;0.4626;
1070.4000;0.2434;0.4578;
1070.7000;0.2418;0.4651;
1071.0000;0.2442;0.4699;
1071.3000;0.2434;0.4675;
1071.6000;0.2458;0.4747;
1071.9000;0.2442;0.4723;
1072.2000;0.2434;0.4796;
1072.5000;0.2442;0.4869;
1072.8000;0.2458;0.4869;
1073.1000;0.2426;0.4723;
1073.4000;0.2450;0.4772;
1073.7000;0.2450;0.4796;
1074.0000;0.2434;0.4869;
1074.3000;0.2426;0.4820;
1074.6000;0.2426;0.4844;
1074.9000;0.2434;0.4772;
1075.2000;0.2450;0.4796;
1075.5000;0.2458;0.4675;
1075.8000;0.2466;0.4675;
1076.1000;0.2418;0.4554;
1076.4000;0.2450;0.4554;
1076.7000;0.2442;0.4602;
1077.0000;0.2442;0.4675;
1077.3000;0.2442;0.4675;
1077.6000;0.2450;0.4820;
1077.9000;0.2450;0.4869;
1078.2000;0.2458;0.4869;
1078.5000;0.2458;0.4941;
1078.8000;0.2442;0.4917;
1079.1000;0.2458;0.5038;
1079.4000;0.2426;0.4965;
1079.7000;0.2426;0.4941;
1080.0000;0.2466;0.4844;
1080.3000;0.2458;0.4772;
1080.6000;0.2466;0.4796;
1080.9000;0.2458;0.4796;
1081.2000;0.2434;0.4772;
1081.5000;0.2442;0.4796;
1081.8000;0.2450;0.4820;
1082.1000;0.2442;0.4796;
1082.4000;0.2426;0.4723;
1082.7000;0.2442;0.4723;
1083.0000;0.2426;0.4747;
1083.3000;0.2418;0.4747;
1083.6000;0.2450;0.4796;
1083.9000;0.2418;0.4723;
1084.2000;0.2442;0.4820;
1084.5000;0.2409;0.4869;
1084.8000;0.2409;0.4917;
1085.1000;0.2434;0.4965;
1085.4000;0.2442;0.5038;
1085.7000;0.2426;0.5062;
1086.0000;0.2434;0.5111;
1086.3000;0.2434;0.5135;
1086.6000;0.2475;0.5135;
1086.9000;0.2418;0.5111;
1087.2000;0.2434;0.5062;
1087.5000;0.2409;0.4965;
1087.8000;0.2458;0.5062;
1088.1000;0.2450;0.4941;
1088.4000;0.2442;0.4917;
1088.7000;0.2450;0.4869;
1089.0000;0.2475;0.4869;
1089.3000;0.2442;0.4869;
1089.6000;0.2426;0.4796;
1089.9000;0.2442;0.4772;
1090.2000;0.2442;0.4723;
1090.5000;0.2442;0.4772;
1090.8000;0.2450;0.4917;
1091.1000;0.2426;0.4772;
1091.4000;0.2442;0.4869;
1091.7000;0.2442;0.4917;
1092.0000;0.2426;0.4917;
1092.3000;0.2434;0.4990;
1092.6000;0.2507;0.5208;
1092.9000;0.2434;0.4990;
1093.2000;0.2442;0.5014;
1093.5000;0.2426;0.4990;
1093.8000;0.2466;0.5014;
1094.1000;0.2475;0.4990;
1094.4000;0.2450;0.4990;
1094.7000;0.2418;0.5062;
1095.0000;0.2442;0.5183;
1095.3000;0.2442;0.5208;
1095.6000;0.2450;0.5208;
1095.9000;0.2434;0.5111;
1096.2000;0.2434;0.5062;
1096.5000;0.2442;0.5014;
1096.8000;0.2605;0.5523;
1097.1000;0.2426;0.5087;
1097.4000;0.2442;0.5135;
1097.7000;0.2450;0.5062;
1098.0000;0.2434;0.5014;
1098.3000;0.2369;0.4869;
1098.6000;0.2377;0.4893;
1098.9000;0.2434;0.5087;
1099.2000;0.2442;0.5087;
1099.5000;0.2450;0.5111;
1099.8000;0.2475;0.5183;
1100.1000;0.2483;0.5208;
1100.4000;0.2458;0.5135;
1100.7000;0.2450;0.5087;
1101.0000;0.2450;0.5062;
1101.3000;0.2475;0.5111;
1101.6000;0.2450;0.5062;
1101.9000;0.2466;0.5087;
1102.2000;0.2426;0.4990;
1102.5000;0.2450;0.5038;
1102.8000;0.2442;0.4990;
1103.1000;0.2442;0.5014;
1103.4000;0.2409;0.4893;
1103.7000;0.2442;0.4869;
1104.0000;0.2401;0.4723;
1104.3000;0.2450;0.4893;
1104.6000;0.2556;0.5183;
1104.9000;0.2507;0.5062;
1105.2000;0.2442;0.4772;
1105.5000;0.2442;0.4796;
1105.8000;0.2442;0.4844;
1106.1000;0.2442;0.4893;
1106.4000;0.2442;0.4941;
1106.7000;0.2466;0.4965;
1107.0000;0.2442;0.4893;
1107.3000;0.2434;0.4820;
1107.6000;0.2328;0.4529;
1107.9000;0.2523;0.5062;
1108.2000;0.2426;0.4869;
1108.5000;0.2418;0.4893;
1108.8000;0.2393;0.4772;
1109.1000;0.2466;0.5014;
1109.4000;0.2475;0.5087;
1109.7000;0.2499;0.5208;
1110.0000;0.2418;0.4990;
1110.3000;0.2450;0.4990;
1110.6000;0.2458;0.4941;
1110.9000;0.2458;0.4990;
1111.2000;0.2475;0.4869;
1111.5000;0.2393;0.4723;
1111.8000;0.2450;0.4990;
1112.1000;0.2458;0.5062;
1112.4000;0.2450;0.5087;
1112.7000;0.2458;0.5087;
1113.0000;0.2434;0.5014;
1113.3000;0.2434;0.4941;
1113.6000;0.2442;0.4917;
1113.9000;0.2442;0.4917;
1114.2000;0.2426;0.4941;
1114.5000;0.2426;0.4990;
1114.8000;0.2442;0.5038;
1115.1000;0.2442;0.5014;
1115.4000;0.2450;0.5014;
1115.7000;0.2450;0.5014;
1116.0000;0.2450;0.4990;
1116.3000;0.2442;0.4965;
1116.6000;0.2434;0.4893;
1116.9000;0.2442;0.4869;
1117.2000;0.2418;0.4820;
1117.5000;0.2475;0.4965;
1117.8000;0.2450;0.4820;
1118.1000;0.2434;0.4820;
1118.4000;0.2426;0.4796;
1118.7000;0.2450;0.4893;
1119.0000;0.2426;0.4869;
1119.3000;0.2434;0.4965;
1119.6000;0.2450;0.5038;
1119.9000;0.2418;0.4869;
1120.2000;0.2426;0.4917;
1120.5000;0.2442;0.4917;
1120.8000;0.2450;0.4965;
1121.1000;0.2450;0.4990;
1121.4000;0.2458;0.5087;
1121.7000;0.2442;0.4990;
1122.0000;0.2409;0.4844;
1122.3000;0.2442;0.4965;
1122.6000;0.2442;0.5038;
1122.9000;0.2434;0.4941;
1123.2000;0.2434;0.4893;
1123.5000;0.2442;0.4917;
1123.8000;0.2434;0.4893;
1124.1000;0.2442;0.4869;
1124.4000;0.2426;0.4820;
1124.7000;0.2434;0.4820;
1125.0000;0.2426;0.4820;
1125.3000;0.2466;0.4990;
1125.6000;0.2442;0.4941;
1125.9000;0.2450;0.5014;
1126.2000;0.2442;0.5087;
1126.5000;0.2418;0.4990;
1126.8000;0.2458;0.5014;
1127.1000;0.2426;0.5014;
1127.4000;0.2434;0.4990;
1127.7000;0.2564;0.5377;
1128.0000;0.2434;0.4941;
1128.3000;0.2442;0.4965;
1128.6000;0.2442;0.4990;
1128.9000;0.2450;0.4965;
1129.2000;0.2572;0.5208;
1129.5000;0.2458;0.4941;
1129.8000;0.2434;0.4844;
1130.1000;0.2450;0.4965;
1130.4000;0.2466;0.5062;
1130.7000;0.2426;0.4941;
1131.0000;0.2434;0.4941;
1131.3000;0.2442;0.4941;
1131.6000;0.2442;0.4917;
1131.9000;0.2450;0.4869;
1132.2000;0.2434;0.4844;
1132.5000;0.2442;0.4844;
1132.8000;0.2434;0.4893;
1133.1000;0.2442;0.4941;
1133.4000;0.2475;0.4990;
1133.7000;0.2466;0.4990;
1134.0000;0.2442;0.4893;
1134.3000;0.2442;0.4893;
1134.6000;0.2450;0.4941;
1134.9000;0.2434;0.4965;
1135.2000;0.2499;0.5111;
1135.5000;0.2475;0.5014;
1135.8000;0.2450;0.4917;
1136.1000;0.2442;0.4941;
1136.4000;0.2466;0.5062;
1136.7000;0.2466;0.5159;
1137.0000;0.2442;0.4990;
1137.3000;0.2458;0.5014;
1137.6000;0.2450;0.4941;
1137.9000;0.2434;0.4917;
1138.2000;0.2442;0.4941;
1138.5000;0.2393;0.4796;
1138.8000;0.2442;0.4965;
1139.1000;0.2450;0.5087;
1139.4000;0.2418;0.4941;
1139.7000;0.2434;0.5111;
1140.0000;0.2450;0.5111;
1140.3000;0.2450;0.5111;
1140.6000;0.2458;0.5159;
1140.9000;0.2450;0.5014;
1141.2000;0.2458;0.5038;
1141.5000;0.2434;0.4941;
1141.8000;0.2483;0.5087;
1142.1000;0.2458;0.5087;
1142.4000;0.2450;0.5111;
1142.7000;0.2434;0.5111;
1143.0000;0.2442;0.5183;
1143.3000;0.2458;0.5183;
1143.6000;0.2418;0.5183;
1143.9000;0.2442;0.5280;
1144.2000;0.2434;0.5111;
1144.5000;0.2458;0.5087;
1144.8000;0.2507;0.5183;
1145.1000;0.2442;0.4990;
1145.4000;0.2466;0.4965;
1145.7000;0.2442;0.4917;
1146.0000;0.2434;0.4869;
1146.3000;0.2409;0.4723;
1146.6000;0.2450;0.4941;
1146.9000;0.2466;0.5014;
1147.2000;0.2434;0.4917;
1147.5000;0.2442;0.4965;
1147.8000;0.2418;0.4965;
1148.1000;0.2515;0.5232;
1148.4000;0.2458;0.5038;
1148.7000;0.2434;0.4990;
1149.0000;0.2442;0.5014;
1149.3000;0.2450;0.5038;
1149.6000;0.2458;0.5087;
1149.9000;0.2418;0.4990;
1150.2000;0.2450;0.4965;
1150.5000;0.2450;0.4965;
1150.8000;0.2442;0.4893;
1151.1000;0.2442;0.4893;
1151.4000;0.2426;0.4893;
1151.7000;0.2426;0.4893;
1152.0000;0.2442;0.4917;
1152.3000;0.2442;0.4965;
1152.6000;0.2475;0.5062;
1152.9000;0.2442;0.5014;
1153.2000;0.2426;0.4917;
1153.5000;0.2426;0.5014;
1153.8000;0.2434;0.4990;
1154.1000;0.2434;0.4990;
1154.4000;0.2426;0.4965;
1154.7000;0.2442;0.4917;
1155.0000;0.2450;0.4941;
1155.3000;0.2475;0.5135;
1155.6000;0.2450;0.5038;
1155.9000;0.2442;0.4990;
1156.2000;0.2458;0.4990;
1156.5000;0.2458;0.5038;
1156.8000;0.2458;0.4941;
1157.1000;0.2450;0.4869;
1157.4000;0.2434;0.4869;
1157.7000;0.2450;0.4869;
1158.0000;0.2491;0.5038;
1158.3000;0.2377;0.4747;
1158.6000;0.2523;0.5135;
1158.9000;0.2426;0.4941;
1159.2000;0.2450;0.4990;
1159.5000;0.2426;0.5014;
1159.8000;0.2450;0.5038;
1160.1000;0.2442;0.4965;
1160.4000;0.2442;0.4965;
1160.7000;0.2442;0.4965;
1161.0000;0.2466;0.4990;
1161.3000;0.2450;0.4893;
1161.6000;0.2450;0.4941;
1161.9000;0.2483;0.5111;
1162.2000;0.2466;0.5135;
1162.5000;0.2458;0.5087;
1162.8000;0.2442;0.5087;
1163.1000;0.2458;0.5135;
1163.4000;0.2442;0.5014;
1163.7000;0.2426;0.4941;
1164.0000;0.2434;0.4869;
1164.3000;0.2426;0.4917;
1164.6000;0.2442;0.4965;
1164.9000;0.2442;0.4893;
1165.2000;0.2442;0.4893;
1165.5000;0.2466;0.4820;
1165.8000;0.2450;0.4747;
1166.1000;0.2450;0.4699;
1166.4000;0.2458;0.4747;
1166.7000;0.2434;0.4699;
1167.0000;0.2450;0.4699;
1167.3000;0.2434;0.4699;
1167.6000;0.2458;0.4869;
1167.9000;0.2409;0.4723;
1168.2000;0.2418;0.4772;
1168.5000;0.2442;0.4772;
1168.8000;0.2426;0.4796;
1169.1000;0.2450;0.4820;
1169.4000;0.2442;0.4796;
1169.7000;0.2450;0.4796;
1170.0000;0.2442;0.4893;
1170.3000;0.2442;0.4917;
1170.6000;0.2418;0.4869;
1170.9000;0.2442;0.5014;
1171.2000;0.2458;0.5038;
1171.5000;0.2458;0.4990;
1171.8000;0.2450;0.4941;
1172.1000;0.2450;0.5014;
1172.4000;0.2466;0.5014;
1172.7000;0.2442;0.4917;
1173.0000;0.2499;0.5014;
1173.3000;0.2361;0.4723;
1173.6000;0.2442;0.4869;
1173.9000;0.2434;0.4869;
1174.2000;0.2442;0.4917;
1174.5000;0.2434;0.4820;
1174.8000;0.2442;0.4917;
1175.1000;0.2442;0.4893;
1175.4000;0.2336;0.4651;
1175.7000;0.2426;0.4844;
1176.0000;0.2442;0.4941;
1176.3000;0.2418;0.4820;
1176.6000;0.2409;0.4626;
1176.9000;0.2442;0.4723;
1177.2000;0.2442;0.4869;
1177.5000;0.2442;0.4917;
1177.8000;0.2409;0.4844;
1178.1000;0.2442;0.4917;
1178.4000;0.2491;0.5062;
1178.7000;0.2450;0.4965;
1179.0000;0.2466;0.4941;
1179.3000;0.2385;0.4675;
1179.6000;0.2434;0.4820;
1179.9000;0.2442;0.4893;
1180.2000;0.2442;0.4965;
1180.5000;0.2434;0.4893;
1180.8000;0.2426;0.4941;
1181.1000;0.2442;0.5014;
1181.4000;0.2442;0.5038;
1181.7000;0.2418;0.4990;
1182.0000;0.2442;0.5038;
1182.3000;0.2450;0.5062;
1182.6000;0.2458;0.5087;
1182.9000;0.2515;0.5329;
1183.2000;0.2450;0.5111;
1183.5000;0.2336;0.4893;
1183.8000;0.2377;0.4990;
1184.1000;0.2458;0.5208;
1184.4000;0.2434;0.5087;
1184.7000;0.2426;0.4990;
1185.0000;0.2361;0.4869;
1185.3000;0.2361;0.4893;
1185.6000;0.2458;0.5135;
1185.9000;0.2466;0.5135;
1186.2000;0.2450;0.5111;
1186.5000;0.2450;0.5111;
1186.8000;0.2458;0.5111;
1187.1000;0.2426;0.5014;
1187.4000;0.2458;0.5062;
1187.7000;0.2475;0.5014;
1188.0000;0.2442;0.4941;
1188.3000;0.2434;0.4917;
1188.6000;0.2434;0.4893;
1188.9000;0.2442;0.4869;
1189.2000;0.2442;0.4869;
1189.5000;0.2442;0.4796;
1189.8000;0.2458;0.4917;
1190.1000;0.2426;0.4917;
1190.4000;0.2466;0.5087;
1190.7000;0.2450;0.5014;
1191.0000;0.2450;0.4917;
1191.3000;0.2458;0.4869;
1191.6000;0.2450;0.4869;
1191.9000;0.2434;0.4820;
1192.2000;0.2442;0.4917;
1192.5000;0.2450;0.4941;
1192.8000;0.2434;0.4941;
1193.1000;0.2458;0.4990;
1193.4000;0.2434;0.4917;
1193.7000;0.2466;0.4965;
1194.0000;0.2466;0.5087;
1194.3000;0.2458;0.5087;
1194.6000;0.2418;0.4917;
1194.9000;0.2426;0.4990;
1195.2000;0.2442;0.4941;
1195.5000;0.2499;0.5038;
1195.8000;0.2434;0.4844;
1196.1000;0.2426;0.4893;
1196.4000;0.2442;0.4941;
1196.7000;0.2458;0.4941;
1197.0000;0.2466;0.4869;
1197.3000;0.2409;0.4747;
1197.6000;0.2458;0.4917;
1197.9000;0.2458;0.4869;
1198.2000;0.2450;0.4893;
1198.5000;0.2418;0.4869;
1198.8000;0.2442;0.4917;
1199.1000;0.2450;0.4893;
1199.4000;0.2458;0.4820;
1199.7000;0.2434;0.4869;
1200.0000;0.2466;0.4893;
1200.3000;0.2450;0.4869;
1200.6000;0.2450;0.4869;
1200.9000;0.2442;0.4941;
1201.2000;0.2434;0.4772;
1201.5000;0.2450;0.4723;
1201.8000;0.2442;0.4699;
1202.1000;0.2442;0.4723;
1202.4000;0.2434;0.4675;
1202.7000;0.2426;0.4626;
1203.0000;0.2466;0.4747;
1203.3000;0.2458;0.4772;
1203.6000;0.2442;0.4723;
1203.9000;0.2434;0.4675;
1204.2000;0.2434;0.4699;
1204.5000;0.2483;0.4844;
1204.8000;0.2458;0.4699;
1205.1000;0.2442;0.4747;
1205.4000;0.2434;0.4820;
1205.7000;0.2426;0.4747;
1206.0000;0.2409;0.4602;
1206.3000;0.2369;0.4602;
1206.6000;0.2434;0.4796;
1206.9000;0.2442;0.4820;
1207.2000;0.2442;0.4820;
1207.5000;0.2377;0.4602;
1207.8000;0.2328;0.4481;
1208.1000;0.2483;0.4869;
1208.4000;0.2442;0.4747;
1208.7000;0.2434;0.4699;
1209.0000;0.2450;0.4675;
1209.3000;0.2483;0.4820;
1209.6000;0.2458;0.4772;
1209.9000;0.2475;0.4772;
1210.2000;0.2434;0.4602;
1210.5000;0.2450;0.4602;
1210.8000;0.2450;0.4602;
1211.1000;0.2442;0.4675;
1211.4000;0.2450;0.4651;
1211.7000;0.2450;0.4675;
1212.0000;0.2450;0.4723;
1212.3000;0.2450;0.4796;
1212.6000;0.2458;0.4820;
1212.9000;0.2450;0.4844;
1213.2000;0.2434;0.4844;
1213.5000;0.2450;0.4893;
1213.8000;0.2450;0.4844;
1214.1000;0.2483;0.4990;
1214.4000;0.2450;0.4917;
1214.7000;0.2450;0.4941;
1215.0000;0.2450;0.4917;
1215.3000;0.2442;0.4869;
1215.6000;0.2442;0.4747;
1215.9000;0.2442;0.4796;
1216.2000;0.2442;0.4723;
1216.5000;0.2426;0.4651;
1216.8000;0.2458;0.4747;
1217.1000;0.2361;0.4433;
1217.4000;0.2442;0.4675;
1217.7000;0.2426;0.4723;
1218.0000;0.2426;0.4675;
1218.3000;0.2450;0.4772;
1218.6000;0.2434;0.4723;
1218.9000;0.2458;0.4747;
1219.2000;0.2426;0.4699;
1219.5000;0.2450;0.4820;
1219.8000;0.2344;0.4554;
1220.1000;0.2458;0.4844;
1220.4000;0.2426;0.4772;
1220.7000;0.2466;0.4844;
1221.0000;0.2466;0.4747;
1221.3000;0.2507;0.4893;
1221.6000;0.2442;0.4675;
1221.9000;0.2442;0.4723;
1222.2000;0.2434;0.4723;
1222.5000;0.2475;0.4820;
1222.8000;0.2466;0.4796;
1223.1000;0.2442;0.4844;
1223.4000;0.2475;0.4820;
1223.7000;0.2466;0.4747;
1224.0000;0.2475;0.4675;
1224.3000;0.2434;0.4602;
1224.6000;0.2458;0.4796;
1224.9000;0.2450;0.4699;
1225.2000;0.2483;0.4796;
1225.5000;0.2466;0.4675;
1225.8000;0.2450;0.4651;
1226.1000;0.2450;0.4747;
1226.4000;0.2580;0.5111;
1226.7000;0.2442;0.4844;
1227.0000;0.2450;0.4844;
1227.3000;0.2515;0.5062;
1227.6000;0.2450;0.4893;
1227.9000;0.2458;0.4893;
1228.2000;0.2532;0.5014;
1228.5000;0.2483;0.4893;
1228.8000;0.2434;0.4772;
1229.1000;0.2458;0.4844;
1229.4000;0.2450;0.4820;
1229.7000;0.2442;0.4893;
1230.0000;0.2442;0.4869;
1230.3000;0.2475;0.4965;
1230.6000;0.2450;0.4917;
1230.9000;0.2458;0.4917;
1231.2000;0.2458;0.4893;
1231.5000;0.2548;0.5159;
1231.8000;0.2409;0.4747;
1232.1000;0.2442;0.4844;
1232.4000;0.2507;0.4965;
1232.7000;0.2458;0.4723;
1233.0000;0.2426;0.4626;
1233.3000;0.2385;0.4626;
1233.6000;0.2458;0.4796;
1233.9000;0.2450;0.4747;
1234.2000;0.2442;0.4844;
1234.5000;0.2418;0.4869;
1234.8000;0.2466;0.5062;
1235.1000;0.2450;0.5062;
1235.4000;0.2450;0.5014;
1235.7000;0.2434;0.4844;
1236.0000;0.2450;0.4844;
1236.3000;0.2442;0.4796;
1236.6000;0.2450;0.4747;
1236.9000;0.2458;0.4747;
1237.2000;0.2434;0.4699;
1237.5000;0.2426;0.4602;
1237.8000;0.2458;0.4747;
1238.1000;0.2450;0.4772;
1238.4000;0.2434;0.4796;
1238.7000;0.2523;0.5087;
1239.0000;0.2458;0.4820;
1239.3000;0.2458;0.4917;
1239.6000;0.2442;0.4869;
1239.9000;0.2458;0.4796;
1240.2000;0.2458;0.4893;
1240.5000;0.2458;0.4844;
1240.8000;0.2426;0.4772;
1241.1000;0.2426;0.4844;
1241.4000;0.2458;0.4965;
1241.7000;0.2458;0.5062;
1242.0000;0.2434;0.4990;
1242.3000;0.2434;0.5014;
1242.6000;0.2450;0.4990;
1242.9000;0.2450;0.4990;
1243.2000;0.2450;0.5038;
1243.5000;0.2385;0.4869;
1243.8000;0.2458;0.5087;
1244.1000;0.2466;0.5135;
1244.4000;0.2564;0.5426;
1244.7000;0.2450;0.5183;
1245.0000;0.2450;0.5111;
1245.3000;0.2475;0.5135;
1245.6000;0.2442;0.5062;
1245.9000;0.2434;0.5111;
1246.2000;0.2426;0.5087;
1246.5000;0.2442;0.5038;
1246.8000;0.2434;0.4965;
1247.1000;0.2442;0.4917;
1247.4000;0.2361;0.4796;
1247.7000;0.2450;0.4990;
1248.0000;0.2450;0.5014;
1248.3000;0.2442;0.5038;
1248.6000;0.2434;0.5062;
1248.9000;0.2434;0.5014;
1249.2000;0.2450;0.5062;
1249.5000;0.2401;0.4917;
1249.8000;0.2434;0.4941;
1250.1000;0.2458;0.5014;
1250.4000;0.2409;0.4965;
1250.7000;0.2442;0.5014;
1251.0000;0.2450;0.4965;
1251.3000;0.2393;0.4820;
1251.6000;0.2458;0.4941;
1251.9000;0.2442;0.4941;
1252.2000;0.2393;0.4820;
1252.5000;0.2401;0.4796;
1252.8000;0.2450;0.4965;
1253.1000;0.2418;0.4965;
1253.4000;0.2442;0.5062;
1253.7000;0.2442;0.5014;
1254.0000;0.2442;0.4941;
1254.3000;0.2458;0.4965;
1254.6000;0.2442;0.4965;
1254.9000;0.2442;0.4917;
1255.2000;0.2442;0.4941;
1255.5000;0.2466;0.5038;
1255.8000;0.2450;0.5038;
1256.1000;0.2442;0.5038;
1256.4000;0.2434;0.4990;
1256.7000;0.2458;0.5038;
1257.0000;0.2466;0.5014;
1257.3000;0.2442;0.4917;
1257.6000;0.2450;0.4820;
1257.9000;0.2426;0.4772;
1258.2000;0.2450;0.4844;
1258.5000;0.2442;0.4796;
1258.8000;0.2434;0.4747;
1259.1000;0.2442;0.4844;
1259.4000;0.2434;0.4844;
1259.7000;0.2450;0.4869;
1260.0000;0.2499;0.4965;
1260.3000;0.2450;0.4869;
1260.6000;0.2393;0.4772;
1260.9000;0.2418;0.4893;
1261.2000;0.2442;0.5038;
1261.5000;0.2442;0.5038;
1261.8000;0.2434;0.5014;
1262.1000;0.2336;0.4723;
1262.4000;0.2450;0.5062;
1262.7000;0.2458;0.5087;
1263.0000;0.2458;0.5062;
1263.3000;0.2458;0.5038;
1263.6000;0.2442;0.4965;
1263.9000;0.2426;0.4965;
1264.2000;0.2442;0.4941;
1264.5000;0.2450;0.4941;
1264.8000;0.2450;0.4941;
1265.1000;0.2426;0.4917;
1265.4000;0.2450;0.5062;
1265.7000;0.2532;0.5208;
1266.0000;0.2393;0.4820;
1266.3000;0.2450;0.4965;
1266.6000;0.2450;0.4941;
1266.9000;0.2458;0.4965;
1267.2000;0.2442;0.4893;
1267.5000;0.2450;0.4844;
1267.8000;0.2442;0.4820;
1268.1000;0.2442;0.4869;
1268.4000;0.2450;0.4844;
1268.7000;0.2409;0.4772;
1269.0000;0.2434;0.4869;
1269.3000;0.2434;0.4941;
1269.6000;0.2450;0.4965;
1269.9000;0.2426;0.4893;
1270.2000;0.2450;0.4965;
1270.5000;0.2426;0.4869;
1270.8000;0.2458;0.5038;
1271.1000;0.2442;0.4917;
1271.4000;0.2442;0.4893;
1271.7000;0.2426;0.4965;
1272.0000;0.2458;0.5038;
1272.3000;0.2442;0.4990;
1272.6000;0.2434;0.4965;
1272.9000;0.2434;0.5014;
1273.2000;0.2450;0.5062;
1273.5000;0.2450;0.4990;
1273.8000;0.2458;0.4990;
1274.1000;0.2442;0.4990;
1274.4000;0.2409;0.4990;
1274.7000;0.2442;0.5038;
1275.0000;0.2458;0.5062;
1275.3000;0.2442;0.5014;
1275.6000;0.2466;0.5111;
1275.9000;0.2450;0.5159;
1276.2000;0.2450;0.5208;
1276.5000;0.2450;0.5183;
1276.8000;0.2458;0.5062;
1277.1000;0.2450;0.5062;
1277.4000;0.2434;0.4990;
1277.7000;0.2450;0.5062;
1278.0000;0.2442;0.5038;
1278.3000;0.2450;0.5111;
1278.6000;0.2344;0.4844;
1278.9000;0.2450;0.5135;
1279.2000;0.2434;0.5014;
1279.5000;0.2458;0.5087;
1279.8000;0.2458;0.5038;
1280.1000;0.2466;0.4965;
1280.4000;0.2442;0.4844;
1280.7000;0.2458;0.4917;
1281.0000;0.2458;0.4917;
1281.3000;0.2458;0.5014;
1281.6000;0.2434;0.4917;
1281.9000;0.2434;0.5014;
1282.2000;0.2466;0.5087;
1282.5000;0.2442;0.4965;
1282.8000;0.2442;0.4941;
1283.1000;0.2442;0.4917;
1283.4000;0.2450;0.4917;
1283.7000;0.2548;0.5256;
1284.0000;0.2434;0.4965;
1284.3000;0.2426;0.4917;
1284.6000;0.2458;0.5014;
1284.9000;0.2442;0.5014;
1285.2000;0.2450;0.4965;
1285.5000;0.2458;0.5014;
1285.8000;0.2434;0.4893;
1286.1000;0.2426;0.4893;
1286.4000;0.2475;0.4941;
1286.7000;0.2401;0.4844;
1287.0000;0.2450;0.4990;
1287.3000;0.2442;0.5038;
1287.6000;0.2450;0.5014;
1287.9000;0.2434;0.5014;
1288.2000;0.2442;0.5062;
1288.5000;0.2466;0.5038;
1288.8000;0.2475;0.4990;
1289.1000;0.2458;0.4893;
1289.4000;0.2442;0.4820;
1289.7000;0.2450;0.4941;
1290.0000;0.2442;0.4965;
1290.3000;0.2442;0.4990;
1290.6000;0.2458;0.5111;
1290.9000;0.2458;0.5159;
1291.2000;0.2458;0.5135;
1291.5000;0.2442;0.5062;
1291.8000;0.2458;0.5038;
1292.1000;0.2450;0.5038;
1292.4000;0.2409;0.5038;
1292.7000;0.2523;0.5377;
1293.0000;0.2434;0.5159;
1293.3000;0.2442;0.5135;
1293.6000;0.2491;0.5232;
1293.9000;0.2450;0.5087;
1294.2000;0.2426;0.5062;
1294.5000;0.2442;0.5208;
1294.8000;0.2426;0.5159;
1295.1000;0.2442;0.5159;
1295.4000;0.2458;0.5111;
1295.7000;0.2442;0.5014;
1296.0000;0.2434;0.5062;
1296.3000;0.2450;0.5135;
1296.6000;0.2450;0.5111;
1296.9000;0.2426;0.5183;
1297.2000;0.2450;0.5208;
1297.5000;0.2450;0.5159;
1297.8000;0.2442;0.5111;
1298.1000;0.2434;0.4941;
1298.4000;0.2369;0.4723;
1298.7000;0.2458;0.4917;
1299.0000;0.2450;0.4917;
1299.3000;0.2442;0.4869;
1299.6000;0.2418;0.4844;
1299.9000;0.2426;0.4820;
1300.2000;0.2442;0.4820;
1300.5000;0.2442;0.4844;
1300.8000;0.2442;0.4844;
1301.1000;0.2450;0.4917;
1301.4000;0.2450;0.4965;
1301.7000;0.2434;0.4869;
1302.0000;0.2450;0.4844;
1302.3000;0.2458;0.4893;
1302.6000;0.2450;0.4893;
1302.9000;0.2450;0.4917;
1303.2000;0.2442;0.4917;
1303.5000;0.2450;0.4965;
1303.8000;0.2458;0.4965;
1304.1000;0.2434;0.4917;
1304.4000;0.2426;0.4917;
1304.7000;0.2434;0.5038;
1305.0000;0.2442;0.5111;
1305.3000;0.2442;0.5062;
1305.6000;0.2458;0.5111;
1305.9000;0.2458;0.5062;
1306.2000;0.2442;0.4990;
1306.5000;0.2458;0.5087;
1306.8000;0.2426;0.5062;
1307.1000;0.2491;0.5256;
1307.4000;0.2442;0.5014;
1307.7000;0.2434;0.5014;
1308.0000;0.2442;0.4917;
1308.3000;0.2418;0.4844;
1308.6000;0.2434;0.4893;
1308.9000;0.2442;0.4893;
1309.2000;0.2434;0.4869;
1309.5000;0.2458;0.4941;
1309.8000;0.2434;0.4869;
1310.1000;0.2442;0.4869;
1310.4000;0.2450;0.4893;
1310.7000;0.2450;0.4869;
1311.0000;0.2434;0.4820;
1311.3000;0.2450;0.4869;
1311.6000;0.2450;0.4844;
1311.9000;0.2450;0.4893;
1312.2000;0.2450;0.4893;
1312.5000;0.2434;0.4844;
1312.8000;0.2458;0.4844;
1313.1000;0.2434;0.4893;
1313.4000;0.2434;0.4990;
1313.7000;0.2450;0.5038;
1314.0000;0.2450;0.5038;
1314.3000;0.2458;0.5111;
1314.6000;0.2450;0.5111;
1314.9000;0.2466;0.5208;
1315.2000;0.2442;0.5208;
1315.5000;0.2450;0.5135;
1315.8000;0.2491;0.5256;
1316.1000;0.2434;0.5062;
1316.4000;0.2450;0.5087;
1316.7000;0.2450;0.5038;
1317.0000;0.2450;0.5111;
1317.3000;0.2450;0.5087;
1317.6000;0.2426;0.4893;
1317.9000;0.2450;0.5062;
1318.2000;0.2475;0.5038;
1318.5000;0.2434;0.4917;
1318.8000;0.2483;0.4990;
1319.1000;0.2450;0.4893;
1319.4000;0.2409;0.4796;
1319.7000;0.2442;0.4844;
1320.0000;0.2434;0.4820;
1320.3000;0.2466;0.4965;
1320.6000;0.2434;0.4869;
1320.9000;0.2434;0.4772;
1321.2000;0.2507;0.5014;
1321.5000;0.2434;0.4796;
1321.8000;0.2450;0.4844;
1322.1000;0.2377;0.4675;
1322.4000;0.2458;0.4917;
1322.7000;0.2458;0.4965;
1323.0000;0.2450;0.4917;
1323.3000;0.2458;0.4917;
1323.6000;0.2450;0.4965;
1323.9000;0.2442;0.5038;
1324.2000;0.2458;0.5038;
1324.5000;0.2426;0.4917;
1324.8000;0.2442;0.4917;
1325.1000;0.2442;0.5014;
1325.4000;0.2442;0.5111;
1325.7000;0.2434;0.5014;
1326.0000;0.2434;0.5038;
1326.3000;0.2442;0.5087;
1326.6000;0.2442;0.5111;
1326.9000;0.2483;0.5256;
1327.2000;0.2475;0.5208;
1327.5000;0.2450;0.5183;
1327.8000;0.2442;0.5208;
1328.1000;0.2442;0.5208;
1328.4000;0.2450;0.5183;
1328.7000;0.2442;0.5111;
1329.0000;0.2442;0.5087;
1329.3000;0.2450;0.5062;
1329.6000;0.2466;0.5111;
1329.9000;0.2458;0.5111;
1330.2000;0.2409;0.5038;
1330.5000;0.2434;0.5159;
1330.8000;0.2515;0.5353;
1331.1000;0.2442;0.5135;
1331.4000;0.2434;0.5232;
1331.7000;0.2434;0.5232;
1332.0000;0.2450;0.5305;
1332.3000;0.2426;0.5256;
1332.6000;0.2401;0.5062;
1332.9000;0.2434;0.5087;
1333.2000;0.2483;0.5062;
1333.5000;0.2377;0.4820;
1333.8000;0.2409;0.4990;
1334.1000;0.2426;0.5087;
1334.4000;0.2434;0.5087;
1334.7000;0.2458;0.5183;
1335.0000;0.2450;0.5232;
1335.3000;0.2442;0.5232;
1335.6000;0.2450;0.5159;
1335.9000;0.2458;0.5135;
1336.2000;0.2475;0.5135;
1336.5000;0.2450;0.5062;
1336.8000;0.2434;0.5062;
1337.1000;0.2466;0.5062;
1337.4000;0.2450;0.5038;
1337.7000;0.2450;0.5087;
1338.0000;0.2450;0.5014;
1338.3000;0.2466;0.4990;
1338.6000;0.2458;0.5014;
1338.9000;0.2466;0.4965;
1339.2000;0.2442;0.4941;
1339.5000;0.2442;0.4965;
1339.8000;0.2442;0.4965;
1340.1000;0.2450;0.5014;
1340.4000;0.2426;0.5038;
1340.7000;0.2434;0.5038;
1341.0000;0.2450;0.5135;
1341.3000;0.2458;0.5062;
1341.6000;0.2442;0.5014;
1341.9000;0.2434;0.5014;
1342.2000;0.2548;0.5401;
1342.5000;0.2450;0.5038;
1342.8000;0.2450;0.5062;
1343.1000;0.2458;0.4990;
1343.4000;0.2466;0.5038;
1343.7000;0.2418;0.4965;
1344.0000;0.2466;0.5038;
1344.3000;0.2393;0.4893;
1344.6000;0.2450;0.4990;
1344.9000;0.2450;0.5014;
1345.2000;0.2442;0.5038;
1345.5000;0.2426;0.4941;
1345.8000;0.2442;0.4869;
1346.1000;0.2442;0.4965;
1346.4000;0.2466;0.5038;
1346.7000;0.2426;0.5014;
1347.0000;0.2450;0.5062;
1347.3000;0.2442;0.5014;
1347.6000;0.2434;0.4965;
1347.9000;0.2466;0.5038;
1348.2000;0.2475;0.5135;
1348.5000;0.2466;0.5038;
1348.8000;0.2442;0.4917;
1349.1000;0.2450;0.4990;
1349.4000;0.2442;0.5014;
1349.7000;0.2442;0.5038;
1350.0000;0.2442;0.5062;
1350.3000;0.2450;0.5014;
1350.6000;0.2442;0.4941;
1350.9000;0.2434;0.4917;
1351.2000;0.2458;0.4917;
1351.5000;0.2450;0.4965;
1351.8000;0.2434;0.4844;
1352.1000;0.2434;0.4893;
1352.4000;0.2458;0.4941;
1352.7000;0.2442;0.4917;
1353.0000;0.2450;0.4941;
1353.3000;0.2442;0.4917;
1353.6000;0.2466;0.4941;
1353.9000;0.2442;0.4917;
1354.2000;0.2450;0.4965;
1354.5000;0.2434;0.4990;
1354.8000;0.2434;0.4893;
1355.1000;0.2458;0.4965;
1355.4000;0.2434;0.4917;
1355.7000;0.2442;0.4965;
1356.0000;0.2442;0.5111;
1356.3000;0.2515;0.5353;
1356.6000;0.2515;0.5280;
1356.9000;0.2385;0.4941;
1357.2000;0.2442;0.5183;
1357.5000;0.2320;0.4747;
1357.8000;0.2442;0.5135;
1358.1000;0.2450;0.5159;
1358.4000;0.2442;0.5087;
1358.7000;0.2434;0.5014;
1359.0000;0.2450;0.5038;
1359.3000;0.2450;0.5135;
1359.6000;0.2450;0.5183;
1359.9000;0.2442;0.5087;
1360.2000;0.2442;0.5111;
1360.5000;0.2483;0.5305;
1360.8000;0.2418;0.5159;
1361.1000;0.2434;0.5232;
1361.4000;0.2434;0.5256;
1361.7000;0.2442;0.5232;
1362.0000;0.2442;0.5256;
1362.3000;0.2442;0.5256;
1362.6000;0.2532;0.5474;
1362.9000;0.2450;0.5305;
1363.2000;0.2458;0.5305;
1363.5000;0.2426;0.5232;
1363.8000;0.2426;0.5208;
1364.1000;0.2442;0.5256;
1364.4000;0.2458;0.5280;
1364.7000;0.2434;0.5232;
1365.0000;0.2442;0.5183;
1365.3000;0.2442;0.5159;
1365.6000;0.2401;0.5014;
1365.9000;0.2458;0.5183;
1366.2000;0.2385;0.4965;
1366.5000;0.2458;0.5183;
1366.8000;0.2442;0.5111;
1367.1000;0.2450;0.5135;
1367.4000;0.2434;0.5062;
1367.7000;0.2458;0.5087;
1368.0000;0.2442;0.5062;
1368.3000;0.2458;0.5062;
1368.6000;0.2483;0.5208;
1368.9000;0.2426;0.5087;
1369.2000;0.2458;0.5183;
1369.5000;0.2450;0.5280;
1369.8000;0.2442;0.5208;
1370.1000;0.2450;0.5280;
1370.4000;0.2442;0.5305;
1370.7000;0.2361;0.5062;
1371.0000;0.2442;0.5183;
1371.3000;0.2442;0.5159;
1371.6000;0.2458;0.5183;
1371.9000;0.2450;0.5183;
1372.2000;0.2450;0.5183;
1372.5000;0.2442;0.5135;
1372.8000;0.2491;0.5329;
1373.1000;0.2442;0.5135;
1373.4000;0.2442;0.5087;
1373.7000;0.2450;0.5062;
1374.0000;0.2418;0.4990;
1374.3000;0.2450;0.5014;
1374.6000;0.2450;0.5038;
1374.9000;0.2434;0.4965;
1375.2000;0.2442;0.4990;
1375.5000;0.2450;0.4990;
1375.8000;0.2450;0.5014;
1376.1000;0.2475;0.5014;
1376.4000;0.2442;0.4941;
1376.7000;0.2401;0.4893;
1377.0000;0.2442;0.4941;
1377.3000;0.2475;0.5062;
1377.6000;0.2426;0.5014;
1377.9000;0.2426;0.4893;
1378.2000;0.2426;0.4869;
1378.5000;0.2466;0.4941;
1378.8000;0.2393;0.4844;
1379.1000;0.2442;0.5062;
1379.4000;0.2458;0.5087;
1379.7000;0.2442;0.4965;
1380.0000;0.2442;0.4893;
1380.3000;0.2385;0.4723;
1380.6000;0.2450;0.4941;
1380.9000;0.2434;0.4893;
1381.2000;0.2369;0.4723;
1381.5000;0.2491;0.5062;
1381.8000;0.2442;0.5038;
1382.1000;0.2475;0.5135;
1382.4000;0.2466;0.5111;
1382.7000;0.2466;0.4990;
1383.0000;0.2458;0.4941;
1383.3000;0.2458;0.4869;
1383.6000;0.2442;0.4869;
1383.9000;0.2450;0.4965;
1384.2000;0.2442;0.4941;
1384.5000;0.2450;0.4893;
1384.8000;0.2450;0.4869;
1385.1000;0.2442;0.4844;
1385.4000;0.2515;0.5038;
1385.7000;0.2442;0.4869;
1386.0000;0.2450;0.4941;
1386.3000;0.2434;0.4869;
1386.6000;0.2434;0.4772;
1386.9000;0.2328;0.4529;
1387.2000;0.2466;0.4844;
1387.5000;0.2426;0.4869;
1387.8000;0.2532;0.5159;
1388.1000;0.2442;0.4965;
1388.4000;0.2426;0.4917;
1388.7000;0.2434;0.5014;
1389.0000;0.2450;0.5208;
1389.3000;0.2434;0.5135;
1389.6000;0.2450;0.5232;
1389.9000;0.2426;0.5087;
1390.2000;0.2450;0.5087;
1390.5000;0.2450;0.5159;
1390.8000;0.2458;0.5159;
1391.1000;0.2450;0.5111;
1391.4000;0.2434;0.5062;
1391.7000;0.2434;0.5087;
1392.0000;0.2450;0.5159;
1392.3000;0.2418;0.5062;
1392.6000;0.2426;0.4990;
1392.9000;0.2442;0.5014;
1393.2000;0.2442;0.5038;
1393.5000;0.2466;0.4990;
1393.8000;0.2466;0.4893;
1394.1000;0.2450;0.4844;
1394.4000;0.2450;0.4820;
1394.7000;0.2450;0.4869;
1395.0000;0.2466;0.4990;
1395.3000;0.2442;0.4941;
1395.6000;0.2442;0.4893;
1395.9000;0.2458;0.4990;
1396.2000;0.2442;0.4941;
1396.5000;0.2442;0.5062;
1396.8000;0.2442;0.5062;
1397.1000;0.2540;0.5377;
1397.4000;0.2434;0.5062;
1397.7000;0.2369;0.4844;
1398.0000;0.2434;0.4965;
1398.3000;0.2458;0.4990;
1398.6000;0.2401;0.4844;
1398.9000;0.2450;0.4965;
1399.2000;0.2450;0.4917;
1399.5000;0.2458;0.4893;
1399.8000;0.2434;0.4869;
