time/ms;Fluo/V;P700 deltaI/I x10³;
-199.8000;0.2613;0.7339;
-199.5000;0.2597;0.7194;
-199.2000;0.2605;0.7242;
-198.9000;0.2556;0.7170;
-198.6000;0.2580;0.7218;
-198.3000;0.2597;0.7218;
-198.0000;0.2613;0.7267;
-197.7000;0.2605;0.7218;
-197.4000;0.2597;0.7194;
-197.1000;0.2605;0.7194;
-196.8000;0.2621;0.7339;
-196.5000;0.2605;0.7315;
-196.2000;0.2589;0.7242;
-195.9000;0.2613;0.7267;
-195.6000;0.2597;0.7242;
-195.3000;0.2605;0.7339;
-195.0000;0.2670;0.7557;
-194.7000;0.2629;0.7436;
-194.4000;0.2597;0.7267;
-194.1000;0.2597;0.7242;
-193.8000;0.2597;0.7267;
-193.5000;0.2597;0.7267;
-193.2000;0.2572;0.7170;
-192.9000;0.2605;0.7194;
-192.6000;0.2605;0.7242;
-192.3000;0.2621;0.7267;
-192.0000;0.2605;0.7291;
-191.7000;0.2589;0.7363;
-191.4000;0.2597;0.7363;
-191.1000;0.2605;0.7291;
-190.8000;0.2580;0.7267;
-190.5000;0.2589;0.7291;
-190.2000;0.2613;0.7315;
-189.9000;0.2686;0.7557;
-189.6000;0.2597;0.7388;
-189.3000;0.2499;0.7000;
-189.0000;0.2589;0.7267;
-188.7000;0.2613;0.7363;
-188.4000;0.2580;0.7291;
-188.1000;0.2597;0.7412;
-187.8000;0.2597;0.7363;
-187.5000;0.2589;0.7267;
-187.2000;0.2629;0.7388;
-186.9000;0.2597;0.7339;
-186.6000;0.2605;0.7315;
-186.3000;0.2597;0.7267;
-186.0000;0.2589;0.7267;
-185.7000;0.2589;0.7218;
-185.4000;0.2597;0.7291;
-185.1000;0.2613;0.7339;
-184.8000;0.2597;0.7291;
-184.5000;0.2605;0.7436;
-184.2000;0.2589;0.7436;
-183.9000;0.2483;0.7194;
-183.6000;0.2613;0.7460;
-183.3000;0.2515;0.7242;
-183.0000;0.2605;0.7485;
-182.7000;0.2580;0.7436;
-182.4000;0.2605;0.7388;
-182.1000;0.2589;0.7363;
-181.8000;0.2589;0.7267;
-181.5000;0.2564;0.7218;
-181.2000;0.2580;0.7145;
-180.9000;0.2605;0.7194;
-180.6000;0.2597;0.7218;
-180.3000;0.2580;0.7291;
-180.0000;0.2621;0.7412;
-179.7000;0.2613;0.7339;
-179.4000;0.2597;0.7363;
-179.1000;0.2597;0.7363;
-178.8000;0.2605;0.7436;
-178.5000;0.2629;0.7581;
-178.2000;0.2589;0.7509;
-177.9000;0.2605;0.7460;
-177.6000;0.2589;0.7436;
-177.3000;0.2580;0.7412;
-177.0000;0.2605;0.7557;
-176.7000;0.2589;0.7485;
-176.4000;0.2580;0.7533;
-176.1000;0.2686;0.7872;
-175.8000;0.2670;0.7872;
-175.5000;0.2605;0.7654;
-175.2000;0.2589;0.7533;
-174.9000;0.2572;0.7460;
-174.6000;0.2499;0.7267;
-174.3000;0.2597;0.7581;
-174.0000;0.2670;0.7654;
-173.7000;0.2621;0.7533;
-173.4000;0.2605;0.7509;
-173.1000;0.2613;0.7509;
-172.8000;0.2597;0.7533;
-172.5000;0.2589;0.7581;
-172.2000;0.2597;0.7630;
-171.9000;0.2605;0.7581;
-171.6000;0.2589;0.7436;
-171.3000;0.2589;0.7339;
-171.0000;0.2613;0.7460;
-170.7000;0.2605;0.7533;
-170.4000;0.2613;0.7581;
-170.1000;0.2605;0.7630;
-169.8000;0.2499;0.7194;
-169.5000;0.2670;0.7703;
-169.2000;0.2605;0.7460;
-168.9000;0.2605;0.7533;
-168.6000;0.2597;0.7363;
-168.3000;0.2613;0.7436;
-168.0000;0.2580;0.7412;
-167.7000;0.2548;0.7339;
-167.4000;0.2589;0.7436;
-167.1000;0.2597;0.7436;
-166.8000;0.2589;0.7388;
-166.5000;0.2580;0.7291;
-166.2000;0.2589;0.7412;
-165.9000;0.2597;0.7436;
-165.6000;0.2605;0.7363;
-165.3000;0.2613;0.7485;
-165.0000;0.2515;0.7291;
-164.7000;0.2597;0.7509;
-164.4000;0.2605;0.7509;
-164.1000;0.2621;0.7485;
-163.8000;0.2597;0.7363;
-163.5000;0.2621;0.7460;
-163.2000;0.2605;0.7388;
-162.9000;0.2613;0.7436;
-162.6000;0.2589;0.7388;
-162.3000;0.2613;0.7388;
-162.0000;0.2605;0.7388;
-161.7000;0.2597;0.7412;
-161.4000;0.2597;0.7485;
-161.1000;0.2589;0.7460;
-160.8000;0.2605;0.7436;
-160.5000;0.2597;0.7485;
-160.2000;0.2597;0.7436;
-159.9000;0.2580;0.7460;
-159.6000;0.2597;0.7460;
-159.3000;0.2613;0.7436;
-159.0000;0.2589;0.7315;
-158.7000;0.2572;0.7291;
-158.4000;0.2597;0.7291;
-158.1000;0.2597;0.7218;
-157.8000;0.2589;0.7267;
-157.5000;0.2589;0.7339;
-157.2000;0.2597;0.7291;
-156.9000;0.2589;0.7242;
-156.6000;0.2589;0.7267;
-156.3000;0.2589;0.7170;
-156.0000;0.2556;0.7145;
-155.7000;0.2589;0.7218;
-155.4000;0.2597;0.7267;
-155.1000;0.2678;0.7485;
-154.8000;0.2613;0.7339;
-154.5000;0.2589;0.7315;
-154.2000;0.2629;0.7436;
-153.9000;0.2597;0.7485;
-153.6000;0.2572;0.7436;
-153.3000;0.2597;0.7509;
-153.0000;0.2629;0.7703;
-152.7000;0.2597;0.7678;
-152.4000;0.2613;0.7581;
-152.1000;0.2605;0.7581;
-151.8000;0.2589;0.7460;
-151.5000;0.2589;0.7533;
-151.2000;0.2597;0.7533;
-150.9000;0.2580;0.7509;
-150.6000;0.2589;0.7485;
-150.3000;0.2605;0.7436;
-150.0000;0.2597;0.7412;
-149.7000;0.2605;0.7436;
-149.4000;0.2605;0.7412;
-149.1000;0.2686;0.7678;
-148.8000;0.2589;0.7460;
-148.5000;0.2597;0.7436;
-148.2000;0.2605;0.7388;
-147.9000;0.2605;0.7339;
-147.6000;0.2605;0.7412;
-147.3000;0.2597;0.7436;
-147.0000;0.2589;0.7412;
-146.7000;0.2605;0.7388;
-146.4000;0.2589;0.7267;
-146.1000;0.2597;0.7315;
-145.8000;0.2597;0.7194;
-145.5000;0.2613;0.7267;
-145.2000;0.2605;0.7218;
-144.9000;0.2605;0.7145;
-144.6000;0.2597;0.7073;
-144.3000;0.2605;0.7121;
-144.0000;0.2475;0.6879;
-143.7000;0.2580;0.7242;
-143.4000;0.2597;0.7242;
-143.1000;0.2556;0.7170;
-142.8000;0.2613;0.7436;
-142.5000;0.2589;0.7460;
-142.2000;0.2580;0.7412;
-141.9000;0.2580;0.7412;
-141.6000;0.2507;0.7218;
-141.3000;0.2589;0.7533;
-141.0000;0.2572;0.7436;
-140.7000;0.2580;0.7557;
-140.4000;0.2475;0.7267;
-140.1000;0.2613;0.7509;
-139.8000;0.2556;0.7315;
-139.5000;0.2580;0.7315;
-139.2000;0.2580;0.7339;
-138.9000;0.2613;0.7363;
-138.6000;0.2580;0.7315;
-138.3000;0.2580;0.7388;
-138.0000;0.2621;0.7460;
-137.7000;0.2597;0.7460;
-137.4000;0.2580;0.7436;
-137.1000;0.2605;0.7485;
-136.8000;0.2589;0.7460;
-136.5000;0.2572;0.7339;
-136.2000;0.2605;0.7388;
-135.9000;0.2605;0.7388;
-135.6000;0.2597;0.7460;
-135.3000;0.2540;0.7242;
-135.0000;0.2597;0.7436;
-134.7000;0.2613;0.7509;
-134.4000;0.2589;0.7460;
-134.1000;0.2589;0.7436;
-133.8000;0.2605;0.7436;
-133.5000;0.2597;0.7412;
-133.2000;0.2597;0.7315;
-132.9000;0.2613;0.7291;
-132.6000;0.2605;0.7388;
-132.3000;0.2605;0.7388;
-132.0000;0.2589;0.7436;
-131.7000;0.2564;0.7388;
-131.4000;0.2605;0.7533;
-131.1000;0.2580;0.7460;
-130.8000;0.2589;0.7363;
-130.5000;0.2605;0.7533;
-130.2000;0.2613;0.7509;
-129.9000;0.2589;0.7485;
-129.6000;0.2580;0.7460;
-129.3000;0.2580;0.7388;
-129.0000;0.2580;0.7388;
-128.7000;0.2589;0.7388;
-128.4000;0.2589;0.7460;
-128.1000;0.2589;0.7533;
-127.8000;0.2589;0.7485;
-127.5000;0.2564;0.7509;
-127.2000;0.2597;0.7630;
-126.9000;0.2597;0.7654;
-126.6000;0.2597;0.7630;
-126.3000;0.2572;0.7436;
-126.0000;0.2589;0.7557;
-125.7000;0.2572;0.7485;
-125.4000;0.2572;0.7412;
-125.1000;0.2589;0.7412;
-124.8000;0.2597;0.7315;
-124.5000;0.2776;0.7799;
-124.2000;0.2532;0.7073;
-123.9000;0.2589;0.7170;
-123.6000;0.2589;0.7218;
-123.3000;0.2613;0.7363;
-123.0000;0.2694;0.7581;
-122.7000;0.2613;0.7291;
-122.4000;0.2613;0.7242;
-122.1000;0.2605;0.7170;
-121.8000;0.2605;0.7194;
-121.5000;0.2564;0.7121;
-121.2000;0.2580;0.7121;
-120.9000;0.2580;0.7049;
-120.6000;0.2580;0.7049;
-120.3000;0.2605;0.7049;
-120.0000;0.2654;0.7267;
-119.7000;0.2580;0.7170;
-119.4000;0.2621;0.7218;
-119.1000;0.2597;0.7073;
-118.8000;0.2605;0.7170;
-118.5000;0.2621;0.7242;
-118.2000;0.2605;0.7194;
-117.9000;0.2572;0.7145;
-117.6000;0.2515;0.6976;
-117.3000;0.2605;0.7242;
-117.0000;0.2548;0.7145;
-116.7000;0.2629;0.7412;
-116.4000;0.2564;0.7267;
-116.1000;0.2597;0.7291;
-115.8000;0.2605;0.7339;
-115.5000;0.2589;0.7267;
-115.2000;0.2580;0.7218;
-114.9000;0.2597;0.7242;
-114.6000;0.2605;0.7291;
-114.3000;0.2613;0.7363;
-114.0000;0.2589;0.7339;
-113.7000;0.2580;0.7339;
-113.4000;0.2605;0.7291;
-113.1000;0.2589;0.7315;
-112.8000;0.2613;0.7315;
-112.5000;0.2572;0.7170;
-112.2000;0.2613;0.7291;
-111.9000;0.2597;0.7194;
-111.6000;0.2613;0.7073;
-111.3000;0.2597;0.7145;
-111.0000;0.2605;0.7121;
-110.7000;0.2605;0.7170;
-110.4000;0.2597;0.7194;
-110.1000;0.2589;0.7194;
-109.8000;0.2580;0.7267;
-109.5000;0.2597;0.7267;
-109.2000;0.2548;0.7170;
-108.9000;0.2572;0.7145;
-108.6000;0.2597;0.7267;
-108.3000;0.2629;0.7363;
-108.0000;0.2605;0.7267;
-107.7000;0.2613;0.7170;
-107.4000;0.2589;0.7194;
-107.1000;0.2597;0.7267;
-106.8000;0.2613;0.7291;
-106.5000;0.2564;0.7218;
-106.2000;0.2605;0.7218;
-105.9000;0.2580;0.7291;
-105.6000;0.2629;0.7388;
-105.3000;0.2597;0.7363;
-105.0000;0.2597;0.7363;
-104.7000;0.2597;0.7436;
-104.4000;0.2589;0.7412;
-104.1000;0.2597;0.7388;
-103.8000;0.2597;0.7315;
-103.5000;0.2613;0.7436;
-103.2000;0.2613;0.7485;
-102.9000;0.2589;0.7485;
-102.6000;0.2646;0.7557;
-102.3000;0.2572;0.7291;
-102.0000;0.2564;0.7363;
-101.7000;0.2605;0.7412;
-101.4000;0.2597;0.7460;
-101.1000;0.2597;0.7388;
-100.8000;0.2572;0.7291;
-100.5000;0.2548;0.7194;
-100.2000;0.2629;0.7388;
-99.9000;0.2580;0.7267;
-99.6000;0.2613;0.7436;
-99.3000;0.2597;0.7436;
-99.0000;0.2613;0.7581;
-98.7000;0.2564;0.7436;
-98.4000;0.2580;0.7557;
-98.1000;0.2507;0.7436;
-97.8000;0.2589;0.7678;
-97.5000;0.2597;0.7581;
-97.2000;0.2613;0.7557;
-96.9000;0.2597;0.7533;
-96.6000;0.2597;0.7436;
-96.3000;0.2605;0.7509;
-96.0000;0.2572;0.7412;
-95.7000;0.2589;0.7485;
-95.4000;0.2613;0.7509;
-95.1000;0.2491;0.7170;
-94.8000;0.2605;0.7460;
-94.5000;0.2629;0.7533;
-94.2000;0.2605;0.7388;
-93.9000;0.2589;0.7363;
-93.6000;0.2654;0.7509;
-93.3000;0.2589;0.7388;
-93.0000;0.2597;0.7436;
-92.7000;0.2532;0.7145;
-92.4000;0.2597;0.7388;
-92.1000;0.2613;0.7460;
-91.8000;0.2613;0.7460;
-91.5000;0.2597;0.7533;
-91.2000;0.2589;0.7509;
-90.9000;0.2621;0.7509;
-90.6000;0.2580;0.7388;
-90.3000;0.2597;0.7412;
-90.0000;0.2597;0.7388;
-89.7000;0.2597;0.7363;
-89.4000;0.2597;0.7339;
-89.1000;0.2629;0.7363;
-88.8000;0.2589;0.7315;
-88.5000;0.2580;0.7291;
-88.2000;0.2597;0.7267;
-87.9000;0.2572;0.7194;
-87.6000;0.2597;0.7291;
-87.3000;0.2613;0.7363;
-87.0000;0.2605;0.7363;
-86.7000;0.2613;0.7436;
-86.4000;0.2621;0.7436;
-86.1000;0.2621;0.7436;
-85.8000;0.2629;0.7460;
-85.5000;0.2580;0.7315;
-85.2000;0.2629;0.7485;
-84.9000;0.2597;0.7436;
-84.6000;0.2580;0.7388;
-84.3000;0.2589;0.7363;
-84.0000;0.2605;0.7267;
-83.7000;0.2654;0.7436;
-83.4000;0.2589;0.7267;
-83.1000;0.2589;0.7267;
-82.8000;0.2597;0.7170;
-82.5000;0.2597;0.7170;
-82.2000;0.2589;0.7267;
-81.9000;0.2589;0.7267;
-81.6000;0.2564;0.7194;
-81.3000;0.2605;0.7363;
-81.0000;0.2605;0.7339;
-80.7000;0.2605;0.7315;
-80.4000;0.2646;0.7363;
-80.1000;0.2621;0.7242;
-79.8000;0.2621;0.7218;
-79.5000;0.2597;0.7170;
-79.2000;0.2589;0.7194;
-78.9000;0.2572;0.7194;
-78.6000;0.2597;0.7291;
-78.3000;0.2654;0.7460;
-78.0000;0.2637;0.7339;
-77.7000;0.2589;0.7170;
-77.4000;0.2613;0.7194;
-77.1000;0.2613;0.7170;
-76.8000;0.2613;0.7194;
-76.5000;0.2654;0.7315;
-76.2000;0.2605;0.7315;
-75.9000;0.2613;0.7315;
-75.6000;0.2613;0.7363;
-75.3000;0.2589;0.7242;
-75.0000;0.2613;0.7242;
-74.7000;0.2597;0.7242;
-74.4000;0.2605;0.7315;
-74.1000;0.2589;0.7315;
-73.8000;0.2597;0.7267;
-73.5000;0.2597;0.7267;
-73.2000;0.2597;0.7218;
-72.9000;0.2597;0.7097;
-72.6000;0.2597;0.7097;
-72.3000;0.2613;0.7242;
-72.0000;0.2597;0.7242;
-71.7000;0.2597;0.7363;
-71.4000;0.2605;0.7339;
-71.1000;0.2654;0.7460;
-70.8000;0.2589;0.7267;
-70.5000;0.2589;0.7339;
-70.2000;0.2597;0.7315;
-69.9000;0.2597;0.7363;
-69.6000;0.2605;0.7291;
-69.3000;0.2580;0.7121;
-69.0000;0.2597;0.7218;
-68.7000;0.2605;0.7315;
-68.4000;0.2589;0.7339;
-68.1000;0.2589;0.7388;
-67.8000;0.2580;0.7363;
-67.5000;0.2597;0.7363;
-67.2000;0.2597;0.7388;
-66.9000;0.2580;0.7436;
-66.6000;0.2613;0.7412;
-66.3000;0.2621;0.7460;
-66.0000;0.2621;0.7557;
-65.7000;0.2605;0.7485;
-65.4000;0.2589;0.7412;
-65.1000;0.2613;0.7363;
-64.8000;0.2589;0.7339;
-64.5000;0.2613;0.7388;
-64.2000;0.2597;0.7315;
-63.9000;0.2564;0.7194;
-63.6000;0.2605;0.7267;
-63.3000;0.2589;0.7267;
-63.0000;0.2613;0.7339;
-62.7000;0.2597;0.7339;
-62.4000;0.2589;0.7388;
-62.1000;0.2597;0.7388;
-61.8000;0.2597;0.7412;
-61.5000;0.2613;0.7412;
-61.2000;0.2597;0.7460;
-60.9000;0.2597;0.7485;
-60.6000;0.2589;0.7339;
-60.3000;0.2580;0.7388;
-60.0000;0.2597;0.7412;
-59.7000;0.2523;0.7170;
-59.4000;0.2515;0.7218;
-59.1000;0.2589;0.7485;
-58.8000;0.2556;0.7388;
-58.5000;0.2613;0.7533;
-58.2000;0.2589;0.7485;
-57.9000;0.2589;0.7485;
-57.6000;0.2572;0.7412;
-57.3000;0.2637;0.7581;
-57.0000;0.2613;0.7533;
-56.7000;0.2597;0.7436;
-56.4000;0.2597;0.7485;
-56.1000;0.2605;0.7509;
-55.8000;0.2605;0.7485;
-55.5000;0.2605;0.7606;
-55.2000;0.2597;0.7581;
-54.9000;0.2597;0.7533;
-54.6000;0.2621;0.7557;
-54.3000;0.2621;0.7485;
-54.0000;0.2605;0.7460;
-53.7000;0.2605;0.7412;
-53.4000;0.2597;0.7436;
-53.1000;0.2613;0.7581;
-52.8000;0.2548;0.7436;
-52.5000;0.2605;0.7557;
-52.2000;0.2605;0.7606;
-51.9000;0.2597;0.7533;
-51.6000;0.2613;0.7533;
-51.3000;0.2580;0.7485;
-51.0000;0.2589;0.7460;
-50.7000;0.2589;0.7533;
-50.4000;0.2597;0.7606;
-50.1000;0.2580;0.7533;
-49.8000;0.2572;0.7509;
-49.5000;0.2589;0.7557;
-49.2000;0.2589;0.7581;
-48.9000;0.2637;0.7678;
-48.6000;0.2523;0.7363;
-48.3000;0.2613;0.7485;
-48.0000;0.2629;0.7533;
-47.7000;0.2605;0.7460;
-47.4000;0.2572;0.7388;
-47.1000;0.2605;0.7388;
-46.8000;0.2646;0.7485;
-46.5000;0.2580;0.7291;
-46.2000;0.2580;0.7242;
-45.9000;0.2589;0.7363;
-45.6000;0.2597;0.7436;
-45.3000;0.2589;0.7460;
-45.0000;0.2613;0.7460;
-44.7000;0.2597;0.7363;
-44.4000;0.2629;0.7388;
-44.1000;0.2589;0.7339;
-43.8000;0.2597;0.7509;
-43.5000;0.2613;0.7533;
-43.2000;0.2605;0.7630;
-42.9000;0.2613;0.7606;
-42.6000;0.2580;0.7460;
-42.3000;0.2629;0.7509;
-42.0000;0.2597;0.7339;
-41.7000;0.2597;0.7388;
-41.4000;0.2597;0.7388;
-41.1000;0.2589;0.7267;
-40.8000;0.2556;0.7145;
-40.5000;0.2621;0.7388;
-40.2000;0.2678;0.7533;
-39.9000;0.2556;0.7242;
-39.6000;0.2597;0.7242;
-39.3000;0.2605;0.7339;
-39.0000;0.2572;0.7291;
-38.7000;0.2572;0.7412;
-38.4000;0.2589;0.7485;
-38.1000;0.2589;0.7509;
-37.8000;0.2605;0.7485;
-37.5000;0.2580;0.7533;
-37.2000;0.2580;0.7460;
-36.9000;0.2523;0.7291;
-36.6000;0.2597;0.7485;
-36.3000;0.2597;0.7485;
-36.0000;0.2605;0.7485;
-35.7000;0.2605;0.7460;
-35.4000;0.2613;0.7460;
-35.1000;0.2597;0.7460;
-34.8000;0.2621;0.7436;
-34.5000;0.2532;0.7218;
-34.2000;0.2589;0.7363;
-33.9000;0.2613;0.7388;
-33.6000;0.2589;0.7267;
-33.3000;0.2605;0.7339;
-33.0000;0.2589;0.7267;
-32.7000;0.2597;0.7339;
-32.4000;0.2589;0.7363;
-32.1000;0.2580;0.7339;
-31.8000;0.2580;0.7363;
-31.5000;0.2597;0.7363;
-31.2000;0.2613;0.7436;
-30.9000;0.2580;0.7436;
-30.6000;0.2589;0.7460;
-30.3000;0.2605;0.7436;
-30.0000;0.2564;0.7339;
-29.7000;0.2621;0.7363;
-29.4000;0.2613;0.7291;
-29.1000;0.2597;0.7267;
-28.8000;0.2629;0.7460;
-28.5000;0.2613;0.7412;
-28.2000;0.2589;0.7291;
-27.9000;0.2597;0.7412;
-27.6000;0.2589;0.7267;
-27.3000;0.2589;0.7315;
-27.0000;0.2670;0.7460;
-26.7000;0.2597;0.7218;
-26.4000;0.2727;0.7436;
-26.1000;0.2589;0.7097;
-25.8000;0.2580;0.7000;
-25.5000;0.2540;0.6952;
-25.2000;0.2597;0.7194;
-24.9000;0.2621;0.7339;
-24.6000;0.2605;0.7388;
-24.3000;0.2605;0.7412;
-24.0000;0.2597;0.7485;
-23.7000;0.2597;0.7533;
-23.4000;0.2605;0.7533;
-23.1000;0.2613;0.7460;
-22.8000;0.2556;0.7363;
-22.5000;0.2613;0.7436;
-22.2000;0.2597;0.7388;
-21.9000;0.2597;0.7363;
-21.6000;0.2621;0.7460;
-21.3000;0.2597;0.7485;
-21.0000;0.2589;0.7412;
-20.7000;0.2597;0.7412;
-20.4000;0.2597;0.7412;
-20.1000;0.2613;0.7460;
-19.8000;0.2605;0.7460;
-19.5000;0.2605;0.7460;
-19.2000;0.2605;0.7485;
-18.9000;0.2629;0.7509;
-18.6000;0.2605;0.7485;
-18.3000;0.2589;0.7485;
-18.0000;0.2589;0.7412;
-17.7000;0.2613;0.7509;
-17.4000;0.2613;0.7485;
-17.1000;0.2564;0.7363;
-16.8000;0.2589;0.7412;
-16.5000;0.2589;0.7436;
-16.2000;0.2597;0.7436;
-15.9000;0.2613;0.7509;
-15.6000;0.2597;0.7557;
-15.3000;0.2613;0.7654;
-15.0000;0.2580;0.7630;
-14.7000;0.2580;0.7654;
-14.4000;0.2597;0.7703;
-14.1000;0.2605;0.7727;
-13.8000;0.2605;0.7799;
-13.5000;0.2605;0.7727;
-13.2000;0.2621;0.7751;
-12.9000;0.2597;0.7606;
-12.6000;0.2605;0.7654;
-12.3000;0.2621;0.7630;
-12.0000;0.2621;0.7557;
-11.7000;0.2694;0.7703;
-11.4000;0.2532;0.7218;
-11.1000;0.2605;0.7485;
-10.8000;0.2589;0.7412;
-10.5000;0.2589;0.7412;
-10.2000;0.2597;0.7509;
-9.9000;0.2597;0.7533;
-9.6000;0.2613;0.7509;
-9.3000;0.2523;0.7339;
-9.0000;0.2621;0.7533;
-8.7000;0.2589;0.7485;
-8.4000;0.2564;0.7436;
-8.1000;0.2605;0.7533;
-7.8000;0.2621;0.7557;
-7.5000;0.2613;0.7509;
-7.2000;0.2662;0.7630;
-6.9000;0.2621;0.7581;
-6.6000;0.2597;0.7581;
-6.3000;0.2613;0.7654;
-6.0000;0.2597;0.7606;
-5.7000;0.2743;0.8066;
-5.4000;0.2605;0.7751;
-5.1000;0.2580;0.7703;
-4.8000;0.2589;0.7654;
-4.5000;0.2613;0.7606;
-4.2000;0.2483;0.7315;
-3.9000;0.2629;0.7703;
-3.6000;0.2589;0.7630;
-3.3000;0.2605;0.7581;
-3.0000;0.2613;0.7654;
-2.7000;0.2580;0.7533;
-2.4000;0.2605;0.7606;
-2.1000;0.2629;0.7630;
-1.8000;0.2646;0.7630;
-1.5000;0.2572;0.7485;
-1.2000;0.2572;0.7485;
-0.9000;0.2580;0.7557;
-0.6000;0.2540;0.7460;
-0.3000;0.2589;0.7630;
0.0000;0.2589;0.7630;
0.3000;0.2580;0.7533;
0.6000;0.2613;0.7751;
0.9000;0.2613;0.7993;
1.2000;0.2621;0.8260;
1.5000;0.2646;0.8575;
1.8000;0.2654;0.8817;
2.1000;0.2670;0.9035;
2.4000;0.2662;0.9083;
2.7000;0.2678;0.9228;
3.0000;0.2694;0.9325;
3.3000;0.2654;0.9277;
3.6000;0.2670;0.9325;
3.9000;0.2694;0.9495;
4.2000;0.2678;0.9543;
4.5000;0.2694;0.9592;
4.8000;0.2678;0.9592;
5.1000;0.2686;0.9519;
5.4000;0.2711;0.9592;
5.7000;0.2694;0.9543;
6.0000;0.2702;0.9592;
6.3000;0.2694;0.9568;
6.6000;0.2694;0.9592;
6.9000;0.2719;0.9640;
7.2000;0.2678;0.9664;
7.5000;0.2727;0.9761;
7.8000;0.2686;0.9761;
8.1000;0.2694;0.9786;
8.4000;0.2678;0.9737;
8.7000;0.2686;0.9761;
9.0000;0.2702;0.9834;
9.3000;0.2711;0.9834;
9.6000;0.2719;0.9858;
9.9000;0.2711;0.9882;
10.2000;0.2686;0.9810;
10.5000;0.2702;0.9955;
10.8000;0.2686;0.9834;
11.1000;0.2670;0.9858;
11.4000;0.2694;0.9931;
11.7000;0.2694;0.9955;
12.0000;0.2711;0.9979;
12.3000;0.2711;0.9979;
12.6000;0.2711;1.0076;
12.9000;0.2702;1.0028;
13.2000;0.2743;1.0076;
13.5000;0.2727;0.9955;
13.8000;0.2686;0.9955;
14.1000;0.2686;0.9931;
14.4000;0.2686;0.9834;
14.7000;0.2711;0.9858;
15.0000;0.2702;0.9786;
15.3000;0.2678;0.9786;
15.6000;0.2702;0.9810;
15.9000;0.2719;0.9834;
16.2000;0.2694;0.9810;
16.5000;0.2670;0.9713;
16.8000;0.2768;0.9955;
17.1000;0.2694;0.9810;
17.4000;0.2678;0.9907;
17.7000;0.2711;0.9979;
18.0000;0.2719;1.0004;
18.3000;0.2702;0.9955;
18.6000;0.2678;0.9955;
18.9000;0.2686;0.9955;
19.2000;0.2702;0.9931;
19.5000;0.2637;0.9858;
19.8000;0.2654;0.9931;
20.1000;0.2686;0.9979;
20.4000;0.2686;1.0004;
20.7000;0.2694;0.9955;
21.0000;0.2686;0.9931;
21.3000;0.2686;0.9955;
21.6000;0.2694;1.0052;
21.9000;0.2686;1.0076;
22.2000;0.2646;1.0076;
22.5000;0.2694;1.0173;
22.8000;0.2686;1.0028;
23.1000;0.2694;1.0052;
23.4000;0.2702;1.0076;
23.7000;0.2678;1.0028;
24.0000;0.2694;1.0076;
24.3000;0.2694;1.0052;
24.6000;0.2686;1.0052;
24.9000;0.2711;1.0076;
25.2000;0.2686;1.0028;
25.5000;0.2670;1.0028;
25.8000;0.2686;1.0028;
26.1000;0.2702;1.0076;
26.4000;0.2719;1.0125;
26.7000;0.2694;0.9931;
27.0000;0.2678;0.9907;
27.3000;0.2686;1.0004;
27.6000;0.2702;1.0028;
27.9000;0.2702;1.0100;
28.2000;0.2686;1.0076;
28.5000;0.2702;1.0149;
28.8000;0.2702;1.0076;
29.1000;0.2686;0.9979;
29.4000;0.2694;1.0028;
29.7000;0.2759;1.0197;
30.0000;0.2711;1.0028;
30.3000;0.2702;0.9979;
30.6000;0.2702;1.0052;
30.9000;0.2702;0.9979;
31.2000;0.2694;0.9907;
31.5000;0.2694;0.9955;
31.8000;0.2694;1.0004;
32.1000;0.2694;1.0076;
32.4000;0.2686;1.0052;
32.7000;0.2686;0.9979;
33.0000;0.2702;1.0004;
33.3000;0.2719;1.0100;
33.6000;0.2686;1.0004;
33.9000;0.2670;0.9931;
34.2000;0.2686;1.0028;
34.5000;0.2694;1.0125;
34.8000;0.2670;0.9979;
35.1000;0.2711;1.0004;
35.4000;0.2678;0.9955;
35.7000;0.2654;0.9834;
36.0000;0.2686;0.9882;
36.3000;0.2759;1.0149;
36.6000;0.2719;1.0100;
36.9000;0.2702;1.0076;
37.2000;0.2670;1.0004;
37.5000;0.2702;1.0125;
37.8000;0.2694;1.0173;
38.1000;0.2727;1.0125;
38.4000;0.2702;1.0052;
38.7000;0.2694;1.0052;
39.0000;0.2702;1.0028;
39.3000;0.2637;0.9834;
39.6000;0.2808;1.0294;
39.9000;0.2686;1.0028;
40.2000;0.2784;1.0270;
40.5000;0.2686;0.9979;
40.8000;0.2686;0.9979;
41.1000;0.2800;1.0367;
41.4000;0.2686;1.0052;
41.7000;0.2694;1.0028;
42.0000;0.2694;1.0100;
42.3000;0.2686;1.0125;
42.6000;0.2686;1.0173;
42.9000;0.2694;1.0197;
43.2000;0.2694;1.0197;
43.5000;0.2686;1.0100;
43.8000;0.2702;1.0173;
44.1000;0.2711;1.0222;
44.4000;0.2686;1.0149;
44.7000;0.2670;1.0149;
45.0000;0.2686;1.0197;
45.3000;0.2711;1.0149;
45.6000;0.2702;1.0125;
45.9000;0.2694;1.0149;
46.2000;0.2694;1.0173;
46.5000;0.2702;1.0222;
46.8000;0.2686;1.0149;
47.1000;0.2678;1.0052;
47.4000;0.2694;1.0125;
47.7000;0.2686;1.0100;
48.0000;0.2711;1.0222;
48.3000;0.2686;1.0270;
48.6000;0.2694;1.0294;
48.9000;0.2694;1.0173;
49.2000;0.2702;1.0197;
49.5000;0.2694;1.0197;
49.8000;0.2686;1.0149;
50.1000;0.2686;1.0076;
50.4000;0.2670;1.0076;
50.7000;0.2686;1.0028;
51.0000;0.2678;1.0052;
51.3000;0.2678;1.0028;
51.6000;0.2678;1.0076;
51.9000;0.2646;1.0004;
52.2000;0.2686;1.0173;
52.5000;0.2686;1.0125;
52.8000;0.2686;1.0076;
53.1000;0.2694;1.0076;
53.4000;0.2686;1.0100;
53.7000;0.2751;1.0343;
54.0000;0.2686;1.0222;
54.3000;0.2686;1.0197;
54.6000;0.2702;1.0173;
54.9000;0.2702;1.0173;
55.2000;0.2702;1.0173;
55.5000;0.2694;1.0173;
55.8000;0.2694;1.0149;
56.1000;0.2686;1.0100;
56.4000;0.2694;1.0197;
56.7000;0.2686;1.0100;
57.0000;0.2694;1.0149;
57.3000;0.2686;1.0173;
57.6000;0.2694;1.0173;
57.9000;0.2686;1.0197;
58.2000;0.2702;1.0149;
58.5000;0.2735;1.0246;
58.8000;0.2735;1.0294;
59.1000;0.2711;1.0197;
59.4000;0.2686;1.0149;
59.7000;0.2694;1.0149;
60.0000;0.2694;1.0222;
60.3000;0.2735;1.0294;
60.6000;0.2694;1.0222;
60.9000;0.2711;1.0246;
61.2000;0.2678;1.0149;
61.5000;0.2686;1.0076;
61.8000;0.2694;1.0076;
62.1000;0.2702;1.0076;
62.4000;0.2694;1.0052;
62.7000;0.2678;0.9979;
63.0000;0.2686;0.9955;
63.3000;0.2702;0.9882;
63.6000;0.2686;0.9810;
63.9000;0.2670;0.9882;
64.2000;0.2686;0.9955;
64.5000;0.2686;0.9979;
64.8000;0.2678;0.9907;
65.1000;0.2694;0.9931;
65.4000;0.2686;0.9858;
65.7000;0.2686;0.9834;
66.0000;0.2784;1.0149;
66.3000;0.2686;0.9882;
66.6000;0.2670;0.9786;
66.9000;0.2678;0.9786;
67.2000;0.2678;0.9834;
67.5000;0.2678;0.9858;
67.8000;0.2678;0.9907;
68.1000;0.2678;0.9931;
68.4000;0.2686;1.0028;
68.7000;0.2694;1.0004;
69.0000;0.2694;1.0028;
69.3000;0.2678;0.9955;
69.6000;0.2678;0.9931;
69.9000;0.2694;0.9931;
70.2000;0.2719;1.0100;
70.5000;0.2702;0.9931;
70.8000;0.2694;0.9931;
71.1000;0.2686;1.0028;
71.4000;0.2694;1.0028;
71.7000;0.2678;0.9955;
72.0000;0.2711;1.0076;
72.3000;0.2751;1.0100;
72.6000;0.2702;1.0052;
72.9000;0.2686;0.9955;
73.2000;0.2621;0.9689;
73.5000;0.2711;0.9955;
73.8000;0.2678;0.9882;
74.1000;0.2711;0.9931;
74.4000;0.2719;1.0052;
74.7000;0.2686;1.0076;
75.0000;0.2686;1.0173;
75.3000;0.2686;1.0125;
75.6000;0.2702;1.0100;
75.9000;0.2694;1.0100;
76.2000;0.2694;1.0100;
76.5000;0.2564;0.9786;
76.8000;0.2686;1.0052;
77.1000;0.2670;1.0076;
77.4000;0.2686;1.0004;
77.7000;0.2678;1.0004;
78.0000;0.2694;0.9955;
78.3000;0.2678;0.9907;
78.6000;0.2678;0.9882;
78.9000;0.2768;1.0028;
79.2000;0.2686;0.9931;
79.5000;0.2694;1.0028;
79.8000;0.2694;1.0076;
80.1000;0.2702;1.0076;
80.4000;0.2686;1.0004;
80.7000;0.2686;1.0004;
81.0000;0.2686;1.0004;
81.3000;0.2686;1.0004;
81.6000;0.2719;1.0125;
81.9000;0.2678;0.9931;
82.2000;0.2711;0.9979;
82.5000;0.2686;0.9931;
82.8000;0.2662;0.9882;
83.1000;0.2686;0.9907;
83.4000;0.2686;1.0028;
83.7000;0.2768;1.0318;
84.0000;0.2670;1.0028;
84.3000;0.2702;1.0197;
84.6000;0.2694;1.0197;
84.9000;0.2702;1.0246;
85.2000;0.2662;1.0222;
85.5000;0.2694;1.0294;
85.8000;0.2776;1.0488;
86.1000;0.2670;1.0222;
86.4000;0.2678;1.0125;
86.7000;0.2686;1.0173;
87.0000;0.2678;1.0125;
87.3000;0.2646;0.9931;
87.6000;0.2686;1.0076;
87.9000;0.2678;1.0028;
88.2000;0.2694;1.0125;
88.5000;0.2686;1.0125;
88.8000;0.2686;1.0149;
89.1000;0.2670;1.0052;
89.4000;0.2686;1.0125;
89.7000;0.2702;1.0125;
90.0000;0.2694;1.0100;
90.3000;0.2686;1.0052;
90.6000;0.2678;1.0076;
90.9000;0.2654;1.0004;
91.2000;0.2662;0.9907;
91.5000;0.2694;0.9955;
91.8000;0.2678;0.9882;
92.1000;0.2670;0.9882;
92.4000;0.2678;0.9955;
92.7000;0.2686;0.9858;
93.0000;0.2686;0.9810;
93.3000;0.2678;0.9834;
93.6000;0.2678;0.9931;
93.9000;0.2686;0.9979;
94.2000;0.2678;1.0076;
94.5000;0.2694;1.0125;
94.8000;0.2694;1.0173;
95.1000;0.2694;1.0222;
95.4000;0.2670;1.0149;
95.7000;0.2670;1.0149;
96.0000;0.2686;1.0173;
96.3000;0.2768;1.0343;
96.6000;0.2686;1.0100;
96.9000;0.2694;1.0100;
97.2000;0.2711;1.0125;
97.5000;0.2686;1.0149;
97.8000;0.2670;1.0100;
98.1000;0.2686;1.0125;
98.4000;0.2784;1.0367;
98.7000;0.2654;0.9882;
99.0000;0.2654;0.9858;
99.3000;0.2637;0.9786;
99.6000;0.2678;0.9931;
99.9000;0.2678;0.9955;
100.2000;0.2637;0.9761;
100.5000;0.2637;0.9737;
100.8000;0.2694;0.9882;
101.1000;0.2686;0.9931;
101.4000;0.2678;0.9858;
101.7000;0.2694;0.9955;
102.0000;0.2686;0.9931;
102.3000;0.2654;0.9882;
102.6000;0.2662;1.0004;
102.9000;0.2711;1.0076;
103.2000;0.2515;0.9592;
103.5000;0.2694;0.9979;
103.8000;0.2678;0.9882;
104.1000;0.2686;0.9907;
104.4000;0.2719;1.0004;
104.7000;0.2686;0.9955;
105.0000;0.2654;0.9858;
105.3000;0.2678;0.9931;
105.6000;0.2646;0.9858;
105.9000;0.2784;1.0222;
106.2000;0.2686;0.9955;
106.5000;0.2678;0.9955;
106.8000;0.2646;0.9907;
107.1000;0.2678;0.9907;
107.4000;0.2654;0.9737;
107.7000;0.2670;0.9786;
108.0000;0.2678;0.9834;
108.3000;0.2678;0.9907;
108.6000;0.2678;0.9882;
108.9000;0.2572;0.9592;
109.2000;0.2694;0.9882;
109.5000;0.2646;0.9737;
109.8000;0.2637;0.9713;
110.1000;0.2662;0.9834;
110.4000;0.2686;0.9858;
110.7000;0.2702;0.9882;
111.0000;0.2654;0.9786;
111.3000;0.2711;0.9955;
111.6000;0.2678;0.9882;
111.9000;0.2857;1.0367;
112.2000;0.2686;0.9882;
112.5000;0.2678;0.9882;
112.8000;0.2694;0.9882;
113.1000;0.2702;0.9931;
113.4000;0.2694;0.9858;
113.7000;0.2686;0.9882;
114.0000;0.2678;0.9882;
114.3000;0.2670;0.9931;
114.6000;0.2686;0.9979;
114.9000;0.2670;0.9979;
115.2000;0.2727;1.0125;
115.5000;0.2678;1.0004;
115.8000;0.2678;1.0028;
116.1000;0.2678;1.0076;
116.4000;0.2662;0.9979;
116.7000;0.2686;0.9979;
117.0000;0.2678;1.0004;
117.3000;0.2678;0.9955;
117.6000;0.2678;0.9955;
117.9000;0.2694;1.0028;
118.2000;0.2686;1.0004;
118.5000;0.2686;1.0028;
118.8000;0.2670;0.9955;
119.1000;0.2678;0.9979;
119.4000;0.2694;0.9931;
119.7000;0.2678;0.9907;
120.0000;0.2678;0.9882;
120.3000;0.2629;0.9834;
120.6000;0.2678;0.9931;
120.9000;0.2678;0.9882;
121.2000;0.2694;0.9907;
121.5000;0.2686;0.9907;
121.8000;0.2678;0.9955;
122.1000;0.2678;0.9955;
122.4000;0.2694;1.0004;
122.7000;0.2670;0.9955;
123.0000;0.2670;0.9858;
123.3000;0.2662;0.9882;
123.6000;0.2694;0.9907;
123.9000;0.2735;1.0052;
124.2000;0.2670;0.9907;
124.5000;0.2670;0.9882;
124.8000;0.2686;0.9858;
125.1000;0.2646;0.9713;
125.4000;0.2686;0.9761;
125.7000;0.2686;0.9737;
126.0000;0.2678;0.9713;
126.3000;0.2735;0.9931;
126.6000;0.2759;1.0028;
126.9000;0.2711;0.9882;
127.2000;0.2686;0.9858;
127.5000;0.2646;0.9810;
127.8000;0.2686;0.9882;
128.1000;0.2678;0.9931;
128.4000;0.2694;0.9955;
128.7000;0.2670;0.9979;
129.0000;0.2686;1.0028;
129.3000;0.2572;0.9786;
129.6000;0.2621;0.9858;
129.9000;0.2686;1.0052;
130.2000;0.2670;0.9955;
130.5000;0.2776;1.0318;
130.8000;0.2686;1.0076;
131.1000;0.2621;0.9979;
131.4000;0.2686;1.0197;
131.7000;0.2678;1.0100;
132.0000;0.2678;1.0028;
132.3000;0.2662;1.0052;
132.6000;0.2662;1.0028;
132.9000;0.2678;1.0052;
133.2000;0.2670;0.9979;
133.5000;0.2678;1.0004;
133.8000;0.2637;0.9931;
134.1000;0.2670;0.9955;
134.4000;0.2662;0.9931;
134.7000;0.2678;0.9955;
135.0000;0.2670;0.9955;
135.3000;0.2670;0.9931;
135.6000;0.2670;0.9979;
135.9000;0.2694;1.0076;
136.2000;0.2686;1.0076;
136.5000;0.2686;1.0149;
136.8000;0.2686;0.9979;
137.1000;0.2686;0.9979;
137.4000;0.2694;1.0028;
137.7000;0.2678;0.9955;
138.0000;0.2670;0.9955;
138.3000;0.2711;1.0052;
138.6000;0.2686;0.9979;
138.9000;0.2670;1.0004;
139.2000;0.2702;1.0125;
139.5000;0.2662;1.0052;
139.8000;0.2686;1.0076;
140.1000;0.2694;1.0100;
140.4000;0.2670;1.0004;
140.7000;0.2654;0.9979;
141.0000;0.2694;1.0052;
141.3000;0.2694;1.0052;
141.6000;0.2678;1.0076;
141.9000;0.2702;1.0125;
142.2000;0.2678;1.0125;
142.5000;0.2768;1.0367;
142.8000;0.2686;1.0173;
143.1000;0.2694;1.0270;
143.4000;0.2686;1.0173;
143.7000;0.2768;1.0318;
144.0000;0.2678;1.0125;
144.3000;0.2678;1.0100;
144.6000;0.2662;1.0125;
144.9000;0.2637;1.0052;
145.2000;0.2548;0.9834;
145.5000;0.2800;1.0488;
145.8000;0.2678;1.0076;
146.1000;0.2621;1.0028;
146.4000;0.2735;1.0197;
146.7000;0.2678;1.0100;
147.0000;0.2670;0.9955;
147.3000;0.2654;0.9955;
147.6000;0.2808;1.0464;
147.9000;0.2670;1.0028;
148.2000;0.2678;1.0100;
148.5000;0.2686;1.0076;
148.8000;0.2678;1.0052;
149.1000;0.2702;1.0076;
149.4000;0.2678;1.0028;
149.7000;0.2694;1.0125;
150.0000;0.2686;1.0149;
150.3000;0.2678;1.0125;
150.6000;0.2694;1.0052;
150.9000;0.2694;1.0052;
151.2000;0.2678;1.0028;
151.5000;0.2621;0.9834;
151.8000;0.2686;0.9955;
152.1000;0.2711;1.0028;
152.4000;0.2670;0.9907;
152.7000;0.2686;0.9955;
153.0000;0.2670;0.9882;
153.3000;0.2678;0.9931;
153.6000;0.2654;0.9907;
153.9000;0.2702;1.0100;
154.2000;0.2678;1.0076;
154.5000;0.2694;1.0149;
154.8000;0.2662;1.0076;
155.1000;0.2670;1.0028;
155.4000;0.2670;0.9955;
155.7000;0.2670;0.9979;
156.0000;0.2678;1.0028;
156.3000;0.2670;1.0028;
156.6000;0.2678;1.0028;
156.9000;0.2670;1.0028;
157.2000;0.2670;1.0028;
157.5000;0.2654;0.9979;
157.8000;0.2662;1.0052;
158.1000;0.2670;1.0052;
158.4000;0.2678;1.0125;
158.7000;0.2670;1.0004;
159.0000;0.2686;0.9979;
159.3000;0.2670;0.9955;
159.6000;0.2678;0.9955;
159.9000;0.2629;0.9810;
160.2000;0.2670;0.9834;
160.5000;0.2694;0.9834;
160.8000;0.2662;0.9737;
161.1000;0.2662;0.9858;
161.4000;0.2678;0.9955;
161.7000;0.2670;1.0004;
162.0000;0.2678;0.9955;
162.3000;0.2686;0.9979;
162.6000;0.2678;0.9955;
162.9000;0.2694;1.0028;
163.2000;0.2686;1.0052;
163.5000;0.2678;0.9979;
163.8000;0.2670;0.9931;
164.1000;0.2654;0.9931;
164.4000;0.2702;1.0028;
164.7000;0.2662;0.9931;
165.0000;0.2686;0.9955;
165.3000;0.2670;1.0028;
165.6000;0.2678;1.0076;
165.9000;0.2702;1.0149;
166.2000;0.2719;1.0197;
166.5000;0.2670;0.9979;
166.8000;0.2629;0.9907;
167.1000;0.2686;0.9858;
167.4000;0.2702;0.9907;
167.7000;0.2686;0.9907;
168.0000;0.2694;0.9931;
168.3000;0.2670;0.9882;
168.6000;0.2792;1.0270;
168.9000;0.2605;0.9834;
169.2000;0.2637;0.9955;
169.5000;0.2670;0.9979;
169.8000;0.2792;1.0318;
170.1000;0.2678;0.9955;
170.4000;0.2662;1.0028;
170.7000;0.2662;1.0052;
171.0000;0.2654;0.9979;
171.3000;0.2662;1.0052;
171.6000;0.2654;1.0052;
171.9000;0.2686;1.0100;
172.2000;0.2662;1.0100;
172.5000;0.2686;1.0100;
172.8000;0.2662;1.0100;
173.1000;0.2662;1.0100;
173.4000;0.2686;1.0149;
173.7000;0.2654;1.0100;
174.0000;0.2678;1.0100;
174.3000;0.2662;1.0100;
174.6000;0.2751;1.0415;
174.9000;0.2686;1.0197;
175.2000;0.2678;1.0270;
175.5000;0.2678;1.0173;
175.8000;0.2694;1.0149;
176.1000;0.2613;0.9955;
176.4000;0.2702;1.0222;
176.7000;0.2605;0.9979;
177.0000;0.2694;1.0100;
177.3000;0.2686;1.0100;
177.6000;0.2678;1.0028;
177.9000;0.2727;1.0076;
178.2000;0.2670;0.9955;
178.5000;0.2678;0.9882;
178.8000;0.2776;1.0125;
179.1000;0.2670;0.9858;
179.4000;0.2686;0.9979;
179.7000;0.2662;0.9955;
180.0000;0.2678;0.9979;
180.3000;0.2662;0.9955;
180.6000;0.2678;1.0028;
180.9000;0.2564;0.9689;
181.2000;0.2792;1.0125;
181.5000;0.2670;0.9761;
181.8000;0.2662;0.9882;
182.1000;0.2662;0.9931;
182.4000;0.2678;1.0004;
182.7000;0.2670;0.9979;
183.0000;0.2662;1.0004;
183.3000;0.2670;1.0076;
183.6000;0.2678;1.0076;
183.9000;0.2670;1.0028;
184.2000;0.2662;1.0076;
184.5000;0.2678;1.0052;
184.8000;0.2686;1.0076;
185.1000;0.2686;0.9931;
185.4000;0.2678;1.0028;
185.7000;0.2654;0.9931;
186.0000;0.2678;1.0028;
186.3000;0.2662;1.0076;
186.6000;0.2670;1.0052;
186.9000;0.2678;1.0100;
187.2000;0.2678;1.0076;
187.5000;0.2678;1.0149;
187.8000;0.2670;1.0100;
188.1000;0.2662;1.0052;
188.4000;0.2702;1.0197;
188.7000;0.2686;1.0222;
189.0000;0.2686;1.0222;
189.3000;0.2662;1.0149;
189.6000;0.2670;1.0246;
189.9000;0.2743;1.0391;
190.2000;0.2678;1.0173;
190.5000;0.2670;1.0052;
190.8000;0.2670;0.9979;
191.1000;0.2678;1.0004;
191.4000;0.2654;0.9931;
191.7000;0.2670;0.9882;
192.0000;0.2678;0.9931;
192.3000;0.2686;0.9882;
192.6000;0.2670;0.9834;
192.9000;0.2662;0.9761;
193.2000;0.2678;0.9786;
193.5000;0.2678;0.9810;
193.8000;0.2670;0.9810;
194.1000;0.2629;0.9664;
194.4000;0.2678;0.9834;
194.7000;0.2678;0.9810;
195.0000;0.2702;0.9979;
195.3000;0.2662;0.9882;
195.6000;0.2654;0.9907;
195.9000;0.2670;1.0028;
196.2000;0.2694;1.0028;
196.5000;0.2678;1.0076;
196.8000;0.2662;1.0052;
197.1000;0.2702;1.0173;
197.4000;0.2719;1.0173;
197.7000;0.2686;1.0028;
198.0000;0.2694;1.0028;
198.3000;0.2686;1.0052;
198.6000;0.2678;1.0052;
198.9000;0.2711;1.0197;
199.2000;0.2678;1.0222;
199.5000;0.2719;1.0367;
199.8000;0.2711;1.0343;
200.1000;0.2711;1.0294;
200.4000;0.2768;1.0464;
200.7000;0.2686;1.0270;
201.0000;0.2629;1.0076;
201.3000;0.2646;1.0028;
201.6000;0.2662;1.0100;
201.9000;0.2735;1.0246;
202.2000;0.2654;1.0052;
202.5000;0.2678;1.0125;
202.8000;0.2670;1.0100;
203.1000;0.2686;1.0173;
203.4000;0.2654;1.0052;
203.7000;0.2670;1.0125;
204.0000;0.2678;1.0222;
204.3000;0.2654;1.0125;
204.6000;0.2711;1.0246;
204.9000;0.2621;0.9979;
205.2000;0.2670;1.0100;
205.5000;0.2678;1.0076;
205.8000;0.2621;0.9955;
206.1000;0.2670;1.0052;
206.4000;0.2662;1.0076;
206.7000;0.2670;1.0222;
207.0000;0.2662;1.0173;
207.3000;0.2670;1.0149;
207.6000;0.2662;1.0125;
207.9000;0.2686;1.0197;
208.2000;0.2678;1.0100;
208.5000;0.2662;1.0076;
208.8000;0.2678;1.0052;
209.1000;0.2678;1.0100;
209.4000;0.2678;1.0076;
209.7000;0.2686;1.0149;
210.0000;0.2670;1.0100;
210.3000;0.2678;1.0125;
210.6000;0.2694;1.0149;
210.9000;0.2678;1.0149;
211.2000;0.2670;1.0149;
211.5000;0.2670;1.0125;
211.8000;0.2654;1.0149;
212.1000;0.2662;1.0100;
212.4000;0.2670;1.0100;
212.7000;0.2670;1.0052;
213.0000;0.2670;1.0076;
213.3000;0.2613;0.9931;
213.6000;0.2662;1.0052;
213.9000;0.2629;0.9931;
214.2000;0.2702;1.0076;
214.5000;0.2662;0.9955;
214.8000;0.2670;0.9907;
215.1000;0.2654;0.9931;
215.4000;0.2637;1.0004;
215.7000;0.2678;1.0125;
216.0000;0.2686;1.0100;
216.3000;0.2678;1.0100;
216.6000;0.2580;0.9882;
216.9000;0.2702;1.0222;
217.2000;0.2654;1.0149;
217.5000;0.2654;1.0100;
217.8000;0.2678;1.0076;
218.1000;0.2784;1.0343;
218.4000;0.2678;1.0100;
218.7000;0.2678;1.0125;
219.0000;0.2678;1.0149;
219.3000;0.2678;1.0197;
219.6000;0.2670;1.0222;
219.9000;0.2654;1.0100;
220.2000;0.2662;1.0149;
220.5000;0.2702;1.0197;
220.8000;0.2678;1.0149;
221.1000;0.2646;1.0173;
221.4000;0.2686;1.0318;
221.7000;0.2662;1.0222;
222.0000;0.2670;1.0197;
222.3000;0.2694;1.0197;
222.6000;0.2711;1.0222;
222.9000;0.2678;1.0197;
223.2000;0.2686;1.0173;
223.5000;0.2694;1.0246;
223.8000;0.2662;1.0222;
224.1000;0.2678;1.0222;
224.4000;0.2670;1.0149;
224.7000;0.2670;1.0149;
225.0000;0.2719;1.0197;
225.3000;0.2637;0.9979;
225.6000;0.2678;1.0052;
225.9000;0.2670;1.0004;
226.2000;0.2646;1.0100;
226.5000;0.2662;1.0173;
226.8000;0.2670;1.0125;
227.1000;0.2678;1.0125;
227.4000;0.2646;1.0028;
227.7000;0.2654;1.0052;
228.0000;0.2613;0.9907;
228.3000;0.2654;1.0052;
228.6000;0.2662;1.0052;
228.9000;0.2556;0.9737;
229.2000;0.2662;0.9955;
229.5000;0.2670;0.9955;
229.8000;0.2686;0.9979;
230.1000;0.2662;0.9834;
230.4000;0.2662;0.9882;
230.7000;0.2678;0.9979;
231.0000;0.2670;1.0052;
231.3000;0.2646;0.9955;
231.6000;0.2662;1.0028;
231.9000;0.2654;1.0076;
232.2000;0.2654;1.0052;
232.5000;0.2654;1.0100;
232.8000;0.2662;1.0076;
233.1000;0.2670;1.0028;
233.4000;0.2670;0.9882;
233.7000;0.2670;0.9858;
234.0000;0.2678;0.9858;
234.3000;0.2686;0.9882;
234.6000;0.2637;0.9761;
234.9000;0.2678;0.9882;
235.2000;0.2646;0.9907;
235.5000;0.2686;1.0028;
235.8000;0.2678;0.9979;
236.1000;0.2678;0.9979;
236.4000;0.2646;0.9882;
236.7000;0.2702;0.9931;
237.0000;0.2678;0.9979;
237.3000;0.2711;1.0197;
237.6000;0.2678;1.0052;
237.9000;0.2662;1.0149;
238.2000;0.2670;1.0197;
238.5000;0.2670;1.0246;
238.8000;0.2662;1.0173;
239.1000;0.2646;1.0173;
239.4000;0.2662;1.0173;
239.7000;0.2768;1.0367;
240.0000;0.2678;1.0173;
240.3000;0.2662;1.0173;
240.6000;0.2654;1.0173;
240.9000;0.2686;1.0149;
241.2000;0.2670;1.0149;
241.5000;0.2686;1.0125;
241.8000;0.2646;1.0125;
242.1000;0.2678;1.0125;
242.4000;0.2646;1.0125;
242.7000;0.2694;1.0149;
243.0000;0.2662;1.0076;
243.3000;0.2662;1.0100;
243.6000;0.2678;1.0125;
243.9000;0.2678;1.0076;
244.2000;0.2670;0.9979;
244.5000;0.2678;1.0052;
244.8000;0.2678;1.0028;
245.1000;0.2686;1.0028;
245.4000;0.2637;0.9834;
245.7000;0.2678;1.0004;
246.0000;0.2686;1.0004;
246.3000;0.2662;0.9955;
246.6000;0.2686;1.0052;
246.9000;0.2678;1.0076;
247.2000;0.2670;1.0076;
247.5000;0.2694;1.0028;
247.8000;0.2670;0.9907;
248.1000;0.2670;0.9979;
248.4000;0.2654;0.9955;
248.7000;0.2654;1.0004;
249.0000;0.2646;1.0004;
249.3000;0.2670;1.0028;
249.6000;0.2670;1.0028;
249.9000;0.2678;1.0076;
250.2000;0.2670;1.0028;
250.5000;0.2662;1.0004;
250.8000;0.2662;0.9955;
251.1000;0.2694;1.0149;
251.4000;0.2686;1.0173;
251.7000;0.2678;1.0197;
252.0000;0.2686;1.0246;
252.3000;0.2662;1.0197;
252.6000;0.2662;1.0197;
252.9000;0.2678;1.0149;
253.2000;0.2654;1.0076;
253.5000;0.2670;1.0125;
253.8000;0.2686;1.0149;
254.1000;0.2678;1.0149;
254.4000;0.2702;1.0149;
254.7000;0.2694;1.0173;
255.0000;0.2686;1.0100;
255.3000;0.2646;1.0052;
255.6000;0.2678;1.0052;
255.9000;0.2662;0.9955;
256.2000;0.2694;1.0028;
256.5000;0.2678;1.0004;
256.8000;0.2694;1.0052;
257.1000;0.2670;1.0004;
257.4000;0.2629;0.9979;
257.7000;0.2670;0.9979;
258.0000;0.2727;1.0149;
258.3000;0.2662;1.0076;
258.6000;0.2670;1.0100;
258.9000;0.2662;1.0052;
259.2000;0.2670;1.0149;
259.5000;0.2670;1.0100;
259.8000;0.2654;1.0028;
260.1000;0.2678;1.0125;
260.4000;0.2621;0.9979;
260.7000;0.2678;1.0100;
261.0000;0.2654;1.0052;
261.3000;0.2662;1.0125;
261.6000;0.2702;1.0197;
261.9000;0.2654;1.0052;
262.2000;0.2662;1.0052;
262.5000;0.2646;1.0028;
262.8000;0.2662;1.0076;
263.1000;0.2670;1.0028;
263.4000;0.2694;1.0100;
263.7000;0.2580;0.9858;
264.0000;0.2605;0.9858;
264.3000;0.2646;0.9979;
264.6000;0.2662;0.9931;
264.9000;0.2654;0.9786;
265.2000;0.2662;0.9810;
265.5000;0.2694;0.9955;
265.8000;0.2662;0.9858;
266.1000;0.2654;0.9931;
266.4000;0.2662;0.9955;
266.7000;0.2605;0.9810;
267.0000;0.2670;0.9931;
267.3000;0.2678;0.9931;
267.6000;0.2670;0.9882;
267.9000;0.2662;0.9858;
268.2000;0.2670;0.9931;
268.5000;0.2678;0.9931;
268.8000;0.2670;0.9907;
269.1000;0.2678;0.9907;
269.4000;0.2694;0.9955;
269.7000;0.2654;0.9786;
270.0000;0.2670;0.9882;
270.3000;0.2694;0.9979;
270.6000;0.2597;0.9689;
270.9000;0.2572;0.9737;
271.2000;0.2670;0.9955;
271.5000;0.2670;0.9931;
271.8000;0.2670;0.9931;
272.1000;0.2670;0.9882;
272.4000;0.2662;0.9907;
272.7000;0.2662;0.9907;
273.0000;0.2662;0.9931;
273.3000;0.2646;0.9858;
273.6000;0.2637;0.9786;
273.9000;0.2670;0.9882;
274.2000;0.2654;0.9955;
274.5000;0.2646;0.9955;
274.8000;0.2662;1.0052;
275.1000;0.2580;0.9786;
275.4000;0.2654;1.0028;
275.7000;0.2670;1.0076;
276.0000;0.2654;1.0100;
276.3000;0.2662;1.0125;
276.6000;0.2670;1.0173;
276.9000;0.2670;1.0100;
277.2000;0.2686;1.0125;
277.5000;0.2662;1.0100;
277.8000;0.2686;1.0173;
278.1000;0.2702;1.0246;
278.4000;0.2662;1.0125;
278.7000;0.2662;1.0173;
279.0000;0.2662;1.0149;
279.3000;0.2686;1.0270;
279.6000;0.2678;1.0294;
279.9000;0.2759;1.0488;
280.2000;0.2662;1.0149;
280.5000;0.2662;1.0149;
280.8000;0.2670;1.0149;
281.1000;0.2670;1.0125;
281.4000;0.2686;1.0173;
281.7000;0.2646;1.0052;
282.0000;0.2670;1.0100;
282.3000;0.2629;0.9955;
282.6000;0.2662;0.9979;
282.9000;0.2670;1.0004;
283.2000;0.2678;0.9979;
283.5000;0.2686;0.9931;
283.8000;0.2637;0.9858;
284.1000;0.2694;1.0100;
284.4000;0.2637;0.9931;
284.7000;0.2654;0.9955;
285.0000;0.2637;0.9931;
285.3000;0.2702;1.0125;
285.6000;0.2702;1.0173;
285.9000;0.2662;1.0100;
286.2000;0.2621;1.0100;
286.5000;0.2654;1.0149;
286.8000;0.2556;0.9907;
287.1000;0.2670;1.0222;
287.4000;0.2743;1.0488;
287.7000;0.2759;1.0440;
288.0000;0.2646;1.0100;
288.3000;0.2670;1.0028;
288.6000;0.2662;1.0004;
288.9000;0.2670;0.9955;
289.2000;0.2678;0.9955;
289.5000;0.2662;1.0076;
289.8000;0.2694;1.0173;
290.1000;0.2678;1.0246;
290.4000;0.2662;1.0246;
290.7000;0.2670;1.0246;
291.0000;0.2670;1.0197;
291.3000;0.2613;0.9979;
291.6000;0.2662;1.0100;
291.9000;0.2678;1.0173;
292.2000;0.2670;1.0149;
292.5000;0.2572;0.9931;
292.8000;0.2686;1.0318;
293.1000;0.2735;1.0512;
293.4000;0.2686;1.0391;
293.7000;0.2670;1.0318;
294.0000;0.2654;1.0222;
294.3000;0.2678;1.0270;
294.6000;0.2686;1.0197;
294.9000;0.2646;1.0100;
295.2000;0.2654;1.0004;
295.5000;0.2662;1.0028;
295.8000;0.2572;0.9882;
296.1000;0.2654;1.0125;
296.4000;0.2670;1.0125;
296.7000;0.2654;1.0100;
297.0000;0.2605;1.0028;
297.3000;0.2678;1.0173;
297.6000;0.2662;1.0270;
297.9000;0.2597;1.0100;
298.2000;0.2629;1.0197;
298.5000;0.2678;1.0246;
298.8000;0.2637;1.0028;
299.1000;0.2597;0.9907;
299.4000;0.2654;0.9955;
299.7000;0.2637;0.9907;
300.0000;0.2621;0.9810;
300.3000;0.2662;0.9858;
300.6000;0.2662;0.9882;
300.9000;0.2662;0.9931;
301.2000;0.2662;0.9931;
301.5000;0.2670;0.9931;
301.8000;0.2654;0.9955;
302.1000;0.2662;1.0076;
302.4000;0.2670;1.0149;
302.7000;0.2654;1.0149;
303.0000;0.2654;1.0052;
303.3000;0.2776;1.0367;
303.6000;0.2654;0.9979;
303.9000;0.2678;1.0100;
304.2000;0.2670;1.0100;
304.5000;0.2662;1.0052;
304.8000;0.2662;1.0052;
305.1000;0.2670;1.0052;
305.4000;0.2646;0.9882;
305.7000;0.2646;0.9834;
306.0000;0.2662;0.9907;
306.3000;0.2670;0.9907;
306.6000;0.2727;1.0004;
306.9000;0.2646;0.9931;
307.2000;0.2662;1.0052;
307.5000;0.2686;1.0100;
307.8000;0.2654;1.0052;
308.1000;0.2662;1.0076;
308.4000;0.2646;1.0052;
308.7000;0.2646;1.0028;
309.0000;0.2654;0.9979;
309.3000;0.2662;0.9979;
309.6000;0.2727;1.0076;
309.9000;0.2678;1.0028;
310.2000;0.2654;1.0004;
310.5000;0.2670;1.0004;
310.8000;0.2621;0.9834;
311.1000;0.2662;0.9931;
311.4000;0.2768;1.0222;
311.7000;0.2727;1.0149;
312.0000;0.2670;0.9931;
312.3000;0.2646;0.9955;
312.6000;0.2646;0.9931;
312.9000;0.2678;1.0052;
313.2000;0.2678;1.0052;
313.5000;0.2613;0.9931;
313.8000;0.2670;1.0028;
314.1000;0.2686;1.0149;
314.4000;0.2784;1.0415;
314.7000;0.2702;1.0197;
315.0000;0.2678;1.0076;
315.3000;0.2670;1.0004;
315.6000;0.2686;1.0100;
315.9000;0.2670;1.0028;
316.2000;0.2646;0.9955;
316.5000;0.2458;0.9471;
316.8000;0.2662;0.9907;
317.1000;0.2686;0.9882;
317.4000;0.2678;0.9858;
317.7000;0.2719;1.0028;
318.0000;0.2694;1.0052;
318.3000;0.2678;1.0052;
318.6000;0.2686;1.0076;
318.9000;0.2678;1.0052;
319.2000;0.2662;1.0100;
319.5000;0.2678;1.0197;
319.8000;0.2637;1.0004;
320.1000;0.2654;1.0100;
320.4000;0.2662;1.0125;
320.7000;0.2654;1.0100;
321.0000;0.2662;1.0076;
321.3000;0.2621;0.9955;
321.6000;0.2678;1.0052;
321.9000;0.2719;1.0125;
322.2000;0.2662;0.9931;
322.5000;0.2646;0.9786;
322.8000;0.2670;0.9882;
323.1000;0.2678;0.9955;
323.4000;0.2670;0.9907;
323.7000;0.2662;0.9979;
324.0000;0.2686;1.0028;
324.3000;0.2686;1.0004;
324.6000;0.2654;0.9858;
324.9000;0.2678;0.9907;
325.2000;0.2694;0.9907;
325.5000;0.2670;0.9810;
325.8000;0.2670;0.9882;
326.1000;0.2670;0.9955;
326.4000;0.2686;0.9955;
326.7000;0.2670;0.9907;
327.0000;0.2646;0.9858;
327.3000;0.2670;0.9955;
327.6000;0.2678;0.9955;
327.9000;0.2694;0.9931;
328.2000;0.2678;0.9979;
328.5000;0.2678;1.0028;
328.8000;0.2646;0.9979;
329.1000;0.2678;1.0076;
329.4000;0.2686;1.0076;
329.7000;0.2654;0.9955;
330.0000;0.2654;0.9907;
330.3000;0.2613;0.9786;
330.6000;0.2637;0.9858;
330.9000;0.2670;0.9931;
331.2000;0.2686;0.9882;
331.5000;0.2654;0.9858;
331.8000;0.2678;1.0028;
332.1000;0.2670;0.9955;
332.4000;0.2564;0.9640;
332.7000;0.2564;0.9689;
333.0000;0.2670;1.0052;
333.3000;0.2637;1.0100;
333.6000;0.2694;1.0173;
333.9000;0.2654;1.0100;
334.2000;0.2670;1.0052;
334.5000;0.2686;0.9931;
334.8000;0.2621;0.9689;
335.1000;0.2654;0.9786;
335.4000;0.2564;0.9592;
335.7000;0.2678;0.9810;
336.0000;0.2654;0.9786;
336.3000;0.2621;0.9761;
336.6000;0.2694;0.9955;
336.9000;0.2662;0.9931;
337.2000;0.2678;1.0004;
337.5000;0.2694;0.9955;
337.8000;0.2662;0.9786;
338.1000;0.2670;0.9737;
338.4000;0.2613;0.9543;
338.7000;0.2556;0.9422;
339.0000;0.2654;0.9786;
339.3000;0.2662;0.9810;
339.6000;0.2670;0.9882;
339.9000;0.2670;0.9858;
340.2000;0.2768;1.0076;
340.5000;0.2670;0.9810;
340.8000;0.2670;0.9834;
341.1000;0.2662;0.9858;
341.4000;0.2646;0.9786;
341.7000;0.2637;0.9810;
342.0000;0.2654;0.9858;
342.3000;0.2662;0.9858;
342.6000;0.2662;0.9858;
342.9000;0.2670;0.9955;
343.2000;0.2654;0.9979;
343.5000;0.2654;0.9979;
343.8000;0.2629;0.9907;
344.1000;0.2662;1.0004;
344.4000;0.2654;0.9882;
344.7000;0.2654;0.9882;
345.0000;0.2670;0.9907;
345.3000;0.2572;0.9640;
345.6000;0.2678;0.9955;
345.9000;0.2646;0.9979;
346.2000;0.2686;1.0052;
346.5000;0.2678;1.0052;
346.8000;0.2678;0.9931;
347.1000;0.2654;0.9882;
347.4000;0.2662;0.9882;
347.7000;0.2686;0.9858;
348.0000;0.2662;0.9834;
348.3000;0.2654;0.9882;
348.6000;0.2662;0.9931;
348.9000;0.2670;0.9882;
349.2000;0.2662;0.9737;
349.5000;0.2654;0.9761;
349.8000;0.2654;0.9786;
350.1000;0.2646;0.9858;
350.4000;0.2662;0.9907;
350.7000;0.2646;0.9858;
351.0000;0.2686;0.9931;
351.3000;0.2613;0.9858;
351.6000;0.2662;0.9907;
351.9000;0.2637;0.9882;
352.2000;0.2678;0.9931;
352.5000;0.2711;1.0004;
352.8000;0.2686;1.0004;
353.1000;0.2670;0.9955;
353.4000;0.2589;0.9761;
353.7000;0.2792;1.0270;
354.0000;0.2670;0.9979;
354.3000;0.2686;0.9955;
354.6000;0.2637;0.9761;
354.9000;0.2678;0.9810;
355.2000;0.2711;0.9907;
355.5000;0.2662;0.9882;
355.8000;0.2800;1.0367;
356.1000;0.2670;1.0028;
356.4000;0.2670;0.9931;
356.7000;0.2759;1.0125;
357.0000;0.2662;0.9761;
357.3000;0.2662;0.9786;
357.6000;0.2597;0.9713;
357.9000;0.2662;0.9979;
358.2000;0.2621;1.0028;
358.5000;0.2654;1.0028;
358.8000;0.2670;1.0100;
359.1000;0.2662;1.0052;
359.4000;0.2654;1.0052;
359.7000;0.2686;1.0125;
360.0000;0.2662;1.0028;
360.3000;0.2621;1.0004;
360.6000;0.2662;1.0052;
360.9000;0.2654;1.0028;
361.2000;0.2678;1.0076;
361.5000;0.2629;0.9955;
361.8000;0.2662;1.0149;
362.1000;0.2605;1.0028;
362.4000;0.2670;1.0197;
362.7000;0.2662;1.0125;
363.0000;0.2670;1.0076;
363.3000;0.2646;0.9979;
363.6000;0.2702;1.0149;
363.9000;0.2654;1.0028;
364.2000;0.2662;1.0100;
364.5000;0.2654;1.0052;
364.8000;0.2646;1.0028;
365.1000;0.2670;1.0100;
365.4000;0.2694;1.0173;
365.7000;0.2662;1.0149;
366.0000;0.2646;1.0100;
366.3000;0.2662;1.0149;
366.6000;0.2662;1.0052;
366.9000;0.2678;1.0100;
367.2000;0.2686;1.0100;
367.5000;0.2670;1.0004;
367.8000;0.2670;0.9907;
368.1000;0.2654;0.9786;
368.4000;0.2678;0.9907;
368.7000;0.2662;0.9907;
369.0000;0.2670;0.9955;
369.3000;0.2580;0.9713;
369.6000;0.2662;1.0052;
369.9000;0.2662;1.0028;
370.2000;0.2662;0.9955;
370.5000;0.2662;0.9955;
370.8000;0.2662;0.9931;
371.1000;0.2646;0.9907;
371.4000;0.2654;0.9979;
371.7000;0.2686;1.0004;
372.0000;0.2646;0.9979;
372.3000;0.2637;0.9979;
372.6000;0.2654;1.0052;
372.9000;0.2654;1.0028;
373.2000;0.2646;0.9955;
373.5000;0.2654;1.0028;
373.8000;0.2662;1.0076;
374.1000;0.2670;1.0004;
374.4000;0.2678;1.0052;
374.7000;0.2670;1.0004;
375.0000;0.2662;0.9979;
375.3000;0.2629;1.0004;
375.6000;0.2670;1.0100;
375.9000;0.2654;1.0004;
376.2000;0.2694;1.0052;
376.5000;0.2735;1.0149;
376.8000;0.2662;0.9955;
377.1000;0.2646;1.0052;
377.4000;0.2686;1.0028;
377.7000;0.2654;0.9955;
378.0000;0.2654;0.9955;
378.3000;0.2686;1.0076;
378.6000;0.2678;1.0100;
378.9000;0.2654;1.0100;
379.2000;0.2662;1.0100;
379.5000;0.2662;1.0149;
379.8000;0.2759;1.0343;
380.1000;0.2654;1.0052;
380.4000;0.2654;1.0100;
380.7000;0.2637;1.0052;
381.0000;0.2646;1.0052;
381.3000;0.2670;1.0076;
381.6000;0.2662;1.0100;
381.9000;0.2662;1.0076;
382.2000;0.2678;1.0125;
382.5000;0.2662;1.0100;
382.8000;0.2670;1.0197;
383.1000;0.2646;1.0149;
383.4000;0.2670;1.0125;
383.7000;0.2654;1.0100;
384.0000;0.2678;1.0125;
384.3000;0.2637;0.9931;
384.6000;0.2637;1.0004;
384.9000;0.2662;1.0052;
385.2000;0.2654;1.0052;
385.5000;0.2719;1.0246;
385.8000;0.2670;1.0125;
386.1000;0.2540;0.9761;
386.4000;0.2654;1.0004;
386.7000;0.2662;1.0076;
387.0000;0.2646;0.9955;
387.3000;0.2654;1.0004;
387.6000;0.2564;0.9786;
387.9000;0.2670;1.0052;
388.2000;0.2646;0.9931;
388.5000;0.2662;1.0004;
388.8000;0.2646;1.0028;
389.1000;0.2678;1.0246;
389.4000;0.2678;1.0173;
389.7000;0.2670;1.0222;
390.0000;0.2646;1.0149;
390.3000;0.2694;1.0149;
390.6000;0.2662;1.0028;
390.9000;0.2662;1.0004;
391.2000;0.2670;0.9979;
391.5000;0.2646;1.0004;
391.8000;0.2662;0.9931;
392.1000;0.2711;1.0100;
392.4000;0.2654;1.0028;
392.7000;0.2662;1.0173;
393.0000;0.2662;1.0246;
393.3000;0.2662;1.0270;
393.6000;0.2662;1.0222;
393.9000;0.2646;1.0100;
394.2000;0.2637;1.0076;
394.5000;0.2662;1.0028;
394.8000;0.2662;0.9979;
395.1000;0.2694;1.0028;
395.4000;0.2662;0.9979;
395.7000;0.2670;0.9955;
396.0000;0.2670;0.9955;
396.3000;0.2654;0.9979;
396.6000;0.2662;1.0004;
396.9000;0.2670;0.9955;
397.2000;0.2637;0.9907;
397.5000;0.2613;0.9858;
397.8000;0.2662;0.9979;
398.1000;0.2678;1.0052;
398.4000;0.2662;0.9979;
398.7000;0.2662;0.9955;
399.0000;0.2662;0.9931;
399.3000;0.2637;0.9834;
399.6000;0.2662;0.9858;
399.9000;0.2662;0.9955;
400.2000;0.2646;1.0028;
400.5000;0.2662;1.0149;
400.8000;0.2678;1.0222;
401.1000;0.2678;1.0270;
401.4000;0.2735;1.0391;
401.7000;0.2654;1.0222;
402.0000;0.2646;1.0246;
402.3000;0.2646;1.0222;
402.6000;0.2776;1.0536;
402.9000;0.2662;1.0149;
403.2000;0.2670;1.0197;
403.5000;0.2670;1.0197;
403.8000;0.2662;1.0197;
404.1000;0.2621;1.0125;
404.4000;0.2662;1.0197;
404.7000;0.2662;1.0197;
405.0000;0.2662;1.0173;
405.3000;0.2654;1.0173;
405.6000;0.2662;1.0222;
405.9000;0.2678;1.0270;
406.2000;0.2662;1.0294;
406.5000;0.2646;1.0222;
406.8000;0.2646;1.0246;
407.1000;0.2670;1.0270;
407.4000;0.2670;1.0318;
407.7000;0.2662;1.0343;
408.0000;0.2637;1.0270;
408.3000;0.2662;1.0270;
408.6000;0.2662;1.0149;
408.9000;0.2662;1.0125;
409.2000;0.2637;1.0052;
409.5000;0.2662;1.0125;
409.8000;0.2662;1.0100;
410.1000;0.2662;1.0100;
410.4000;0.2678;1.0100;
410.7000;0.2670;1.0004;
411.0000;0.2654;0.9907;
411.3000;0.2686;0.9955;
411.6000;0.2670;1.0052;
411.9000;0.2646;0.9907;
412.2000;0.2743;1.0173;
412.5000;0.2678;1.0004;
412.8000;0.2654;0.9907;
413.1000;0.2597;0.9858;
413.4000;0.2605;0.9786;
413.7000;0.2654;0.9810;
414.0000;0.2654;0.9882;
414.3000;0.2654;0.9882;
414.6000;0.2654;0.9955;
414.9000;0.2605;0.9786;
415.2000;0.2662;0.9955;
415.5000;0.2654;0.9907;
415.8000;0.2637;0.9858;
416.1000;0.2605;0.9786;
416.4000;0.2678;1.0004;
416.7000;0.2662;0.9979;
417.0000;0.2654;0.9907;
417.3000;0.2670;0.9858;
417.6000;0.2678;0.9858;
417.9000;0.2662;0.9907;
418.2000;0.2735;1.0149;
418.5000;0.2646;0.9858;
418.8000;0.2662;0.9882;
419.1000;0.2678;0.9907;
419.4000;0.2646;0.9810;
419.7000;0.2646;0.9907;
420.0000;0.2662;0.9907;
420.3000;0.2670;0.9979;
420.6000;0.2605;0.9858;
420.9000;0.2662;1.0004;
421.2000;0.2654;0.9979;
421.5000;0.2670;1.0028;
421.8000;0.2662;0.9979;
422.1000;0.2646;0.9931;
422.4000;0.2662;0.9882;
422.7000;0.2670;0.9834;
423.0000;0.2654;0.9858;
423.3000;0.2646;0.9907;
423.6000;0.2686;1.0149;
423.9000;0.2719;1.0318;
424.2000;0.2711;1.0270;
424.5000;0.2646;1.0149;
424.8000;0.2711;1.0318;
425.1000;0.2654;1.0197;
425.4000;0.2662;1.0125;
425.7000;0.2654;1.0076;
426.0000;0.2646;1.0100;
426.3000;0.2654;1.0173;
426.6000;0.2629;1.0076;
426.9000;0.2646;1.0125;
427.2000;0.2694;1.0197;
427.5000;0.2662;1.0149;
427.8000;0.2670;1.0197;
428.1000;0.2662;1.0197;
428.4000;0.2629;1.0149;
428.7000;0.2702;1.0294;
429.0000;0.2727;1.0391;
429.3000;0.2662;1.0222;
429.6000;0.2678;1.0270;
429.9000;0.2572;0.9979;
430.2000;0.2670;1.0149;
430.5000;0.2654;1.0076;
430.8000;0.2589;1.0004;
431.1000;0.2654;1.0149;
431.4000;0.2654;1.0197;
431.7000;0.2670;1.0100;
432.0000;0.2662;1.0149;
432.3000;0.2654;1.0222;
432.6000;0.2654;1.0197;
432.9000;0.2686;1.0294;
433.2000;0.2678;1.0222;
433.5000;0.2662;1.0125;
433.8000;0.2662;1.0100;
434.1000;0.2678;1.0076;
434.4000;0.2654;0.9979;
434.7000;0.2654;0.9955;
435.0000;0.2702;1.0149;
435.3000;0.2654;1.0076;
435.6000;0.2662;1.0125;
435.9000;0.2670;1.0076;
436.2000;0.2678;1.0100;
436.5000;0.2646;1.0004;
436.8000;0.2662;1.0028;
437.1000;0.2654;0.9931;
437.4000;0.2654;0.9931;
437.7000;0.2654;0.9979;
438.0000;0.2646;1.0028;
438.3000;0.2662;1.0028;
438.6000;0.2629;1.0004;
438.9000;0.2621;0.9979;
439.2000;0.2662;1.0052;
439.5000;0.2686;1.0100;
439.8000;0.2637;1.0028;
440.1000;0.2686;1.0197;
440.4000;0.2605;0.9882;
440.7000;0.2637;0.9882;
441.0000;0.2646;0.9955;
441.3000;0.2589;0.9858;
441.6000;0.2637;0.9955;
441.9000;0.2670;1.0076;
442.2000;0.2654;1.0173;
442.5000;0.2646;1.0149;
442.8000;0.2654;1.0222;
443.1000;0.2694;1.0343;
443.4000;0.2702;1.0270;
443.7000;0.2646;1.0125;
444.0000;0.2670;1.0149;
444.3000;0.2662;1.0028;
444.6000;0.2678;1.0100;
444.9000;0.2678;1.0052;
445.2000;0.2646;1.0028;
445.5000;0.2662;1.0028;
445.8000;0.2605;0.9882;
446.1000;0.2646;1.0076;
446.4000;0.2662;0.9979;
446.7000;0.2670;1.0076;
447.0000;0.2686;1.0100;
447.3000;0.2670;1.0052;
447.6000;0.2637;0.9907;
447.9000;0.2605;0.9907;
448.2000;0.2678;1.0052;
448.5000;0.2662;1.0076;
448.8000;0.2629;1.0004;
449.1000;0.2719;1.0100;
449.4000;0.2784;1.0100;
449.7000;0.2572;0.9543;
450.0000;0.2678;0.9761;
450.3000;0.2670;0.9640;
450.6000;0.2646;0.9568;
450.9000;0.2654;0.9664;
451.2000;0.2654;0.9689;
451.5000;0.2727;0.9907;
451.8000;0.2646;0.9640;
452.1000;0.2670;0.9737;
452.4000;0.2654;0.9713;
452.7000;0.2646;0.9713;
453.0000;0.2654;0.9640;
453.3000;0.2662;0.9786;
453.6000;0.2662;0.9737;
453.9000;0.2662;0.9858;
454.2000;0.2670;0.9955;
454.5000;0.2662;0.9979;
454.8000;0.2654;1.0004;
455.1000;0.2686;1.0197;
455.4000;0.2678;1.0100;
455.7000;0.2637;1.0004;
456.0000;0.2629;0.9979;
456.3000;0.2670;0.9979;
456.6000;0.2646;0.9931;
456.9000;0.2646;0.9907;
457.2000;0.2662;0.9907;
457.5000;0.2654;0.9979;
457.8000;0.2637;0.9907;
458.1000;0.2678;0.9931;
458.4000;0.2662;0.9858;
458.7000;0.2670;0.9882;
459.0000;0.2572;0.9713;
459.3000;0.2654;0.9979;
459.6000;0.2670;0.9931;
459.9000;0.2654;0.9931;
460.2000;0.2670;0.9955;
460.5000;0.2654;1.0052;
460.8000;0.2646;1.0125;
461.1000;0.2646;1.0125;
461.4000;0.2646;1.0100;
461.7000;0.2662;1.0125;
462.0000;0.2654;1.0076;
462.3000;0.2662;1.0149;
462.6000;0.2662;1.0100;
462.9000;0.2686;1.0149;
463.2000;0.2621;0.9979;
463.5000;0.2654;0.9955;
463.8000;0.2670;1.0004;
464.1000;0.2646;0.9931;
464.4000;0.2629;0.9858;
464.7000;0.2670;0.9931;
465.0000;0.2678;0.9907;
465.3000;0.2678;0.9907;
465.6000;0.2654;0.9882;
465.9000;0.2654;0.9858;
466.2000;0.2613;0.9834;
466.5000;0.2670;1.0004;
466.8000;0.2597;0.9761;
467.1000;0.2637;0.9858;
467.4000;0.2654;0.9907;
467.7000;0.2678;0.9931;
468.0000;0.2678;1.0004;
468.3000;0.2637;0.9907;
468.6000;0.2621;0.9810;
468.9000;0.2711;1.0028;
469.2000;0.2662;0.9882;
469.5000;0.2662;0.9907;
469.8000;0.2662;1.0052;
470.1000;0.2629;0.9931;
470.4000;0.2751;1.0149;
470.7000;0.2662;0.9931;
471.0000;0.2548;0.9689;
471.3000;0.2670;1.0028;
471.6000;0.2678;1.0028;
471.9000;0.2686;1.0052;
472.2000;0.2751;1.0270;
472.5000;0.2654;1.0076;
472.8000;0.2654;1.0052;
473.1000;0.2532;0.9713;
473.4000;0.2646;0.9979;
473.7000;0.2719;1.0149;
474.0000;0.2678;0.9955;
474.3000;0.2662;0.9955;
474.6000;0.2662;0.9882;
474.9000;0.2654;0.9882;
475.2000;0.2662;0.9858;
475.5000;0.2646;0.9834;
475.8000;0.2637;0.9761;
476.1000;0.2654;0.9713;
476.4000;0.2646;0.9761;
476.7000;0.2646;0.9713;
477.0000;0.2662;0.9713;
477.3000;0.2662;0.9810;
477.6000;0.2654;0.9810;
477.9000;0.2613;0.9737;
478.2000;0.2654;0.9810;
478.5000;0.2654;0.9834;
478.8000;0.2670;0.9907;
479.1000;0.2670;0.9931;
479.4000;0.2662;1.0004;
479.7000;0.2678;1.0004;
480.0000;0.2670;0.9931;
480.3000;0.2646;0.9882;
480.6000;0.2670;0.9979;
480.9000;0.2686;1.0052;
481.2000;0.2662;1.0028;
481.5000;0.2670;1.0052;
481.8000;0.2629;1.0004;
482.1000;0.2629;0.9931;
482.4000;0.2646;0.9955;
482.7000;0.2670;0.9955;
483.0000;0.2654;0.9931;
483.3000;0.2646;0.9931;
483.6000;0.2662;0.9979;
483.9000;0.2670;0.9931;
484.2000;0.2637;0.9834;
484.5000;0.2654;0.9737;
484.8000;0.2662;0.9737;
485.1000;0.2694;0.9931;
485.4000;0.2719;1.0004;
485.7000;0.2646;0.9858;
486.0000;0.2694;1.0028;
486.3000;0.2637;0.9858;
486.6000;0.2597;0.9761;
486.9000;0.2686;1.0100;
487.2000;0.2678;1.0197;
487.5000;0.2670;1.0270;
487.8000;0.2654;1.0197;
488.1000;0.2654;1.0294;
488.4000;0.2646;1.0149;
488.7000;0.2654;1.0076;
489.0000;0.2670;1.0173;
489.3000;0.2654;1.0100;
489.6000;0.2654;1.0100;
489.9000;0.2654;1.0100;
490.2000;0.2662;1.0197;
490.5000;0.2678;1.0270;
490.8000;0.2678;1.0197;
491.1000;0.2678;1.0222;
491.4000;0.2662;1.0246;
491.7000;0.2694;1.0343;
492.0000;0.2654;1.0270;
492.3000;0.2654;1.0246;
492.6000;0.2637;1.0222;
492.9000;0.2654;1.0246;
493.2000;0.2662;1.0246;
493.5000;0.2629;1.0052;
493.8000;0.2572;0.9858;
494.1000;0.2686;1.0270;
494.4000;0.2670;1.0125;
494.7000;0.2646;1.0052;
495.0000;0.2662;1.0149;
495.3000;0.2662;1.0028;
495.6000;0.2637;0.9882;
495.9000;0.2654;0.9979;
496.2000;0.2646;1.0052;
496.5000;0.2654;1.0076;
496.8000;0.2646;1.0028;
497.1000;0.2637;1.0052;
497.4000;0.2646;1.0004;
497.7000;0.2735;1.0270;
498.0000;0.2637;1.0028;
498.3000;0.2646;0.9955;
498.6000;0.2637;0.9955;
498.9000;0.2646;1.0028;
499.2000;0.2678;1.0125;
499.5000;0.2613;1.0125;
499.8000;0.2646;1.0197;
500.1000;0.2662;1.0197;
500.4000;0.2662;1.0173;
500.7000;0.2776;1.0512;
501.0000;0.2654;1.0052;
501.3000;0.2670;1.0052;
501.6000;0.2727;1.0270;
501.9000;0.2662;1.0149;
502.2000;0.2646;1.0125;
502.5000;0.2670;1.0197;
502.8000;0.2662;1.0149;
503.1000;0.2686;1.0173;
503.4000;0.2654;1.0076;
503.7000;0.2662;1.0052;
504.0000;0.2678;1.0076;
504.3000;0.2637;0.9931;
504.6000;0.2654;1.0028;
504.9000;0.2646;1.0028;
505.2000;0.2654;1.0052;
505.5000;0.2662;1.0076;
505.8000;0.2662;1.0076;
506.1000;0.2662;0.9979;
506.4000;0.2662;0.9979;
506.7000;0.2646;1.0004;
507.0000;0.2654;1.0052;
507.3000;0.2637;1.0028;
507.6000;0.2637;1.0076;
507.9000;0.2621;1.0100;
508.2000;0.2629;1.0100;
508.5000;0.2646;1.0004;
508.8000;0.2670;1.0149;
509.1000;0.2621;0.9979;
509.4000;0.2646;0.9979;
509.7000;0.2654;1.0004;
510.0000;0.2670;1.0004;
510.3000;0.2694;1.0052;
510.6000;0.2654;1.0052;
510.9000;0.2613;0.9931;
511.2000;0.2662;1.0149;
511.5000;0.2646;1.0076;
511.8000;0.2637;1.0004;
512.1000;0.2646;1.0076;
512.4000;0.2629;1.0004;
512.7000;0.2654;0.9955;
513.0000;0.2670;1.0100;
513.3000;0.2694;1.0125;
513.6000;0.2662;1.0125;
513.9000;0.2662;1.0100;
514.2000;0.2670;1.0052;
514.5000;0.2686;1.0076;
514.8000;0.2662;1.0028;
515.1000;0.2670;0.9979;
515.4000;0.2662;0.9979;
515.7000;0.2670;1.0052;
516.0000;0.2670;1.0076;
516.3000;0.2670;1.0125;
516.6000;0.2654;1.0052;
516.9000;0.2564;0.9882;
517.2000;0.2662;1.0222;
517.5000;0.2646;1.0125;
517.8000;0.2654;1.0149;
518.1000;0.2662;1.0125;
518.4000;0.2637;1.0149;
518.7000;0.2654;1.0197;
519.0000;0.2662;1.0246;
519.3000;0.2654;1.0173;
519.6000;0.2702;1.0246;
519.9000;0.2678;1.0100;
520.2000;0.2670;1.0100;
520.5000;0.2662;1.0100;
520.8000;0.2735;1.0270;
521.1000;0.2670;1.0149;
521.4000;0.2646;1.0028;
521.7000;0.2646;0.9955;
522.0000;0.2678;1.0052;
522.3000;0.2662;1.0028;
522.6000;0.2678;1.0100;
522.9000;0.2654;1.0076;
523.2000;0.2654;1.0100;
523.5000;0.2629;1.0052;
523.8000;0.2654;1.0100;
524.1000;0.2662;1.0125;
524.4000;0.2662;1.0197;
524.7000;0.2670;1.0173;
525.0000;0.2654;1.0222;
525.3000;0.2662;1.0270;
525.6000;0.2662;1.0222;
525.9000;0.2654;1.0173;
526.2000;0.2662;1.0173;
526.5000;0.2678;1.0125;
526.8000;0.2662;1.0052;
527.1000;0.2646;1.0028;
527.4000;0.2670;1.0100;
527.7000;0.2678;1.0100;
528.0000;0.2621;1.0004;
528.3000;0.2646;1.0028;
528.6000;0.2646;1.0052;
528.9000;0.2654;1.0125;
529.2000;0.2637;1.0076;
529.5000;0.2646;1.0149;
529.8000;0.2646;1.0197;
530.1000;0.2605;1.0052;
530.4000;0.2654;1.0125;
530.7000;0.2646;1.0173;
531.0000;0.2702;1.0222;
531.3000;0.2670;1.0125;
531.6000;0.2670;1.0100;
531.9000;0.2654;1.0149;
532.2000;0.2637;1.0125;
532.5000;0.2605;1.0076;
532.8000;0.2654;1.0246;
533.1000;0.2572;0.9979;
533.4000;0.2605;1.0052;
533.7000;0.2646;1.0173;
534.0000;0.2678;1.0318;
534.3000;0.2662;1.0343;
534.6000;0.2629;1.0246;
534.9000;0.2637;1.0222;
535.2000;0.2637;1.0270;
535.5000;0.2678;1.0391;
535.8000;0.2646;1.0246;
536.1000;0.2654;1.0222;
536.4000;0.2662;1.0222;
536.7000;0.2670;1.0100;
537.0000;0.2629;1.0076;
537.3000;0.2654;1.0125;
537.6000;0.2646;1.0004;
537.9000;0.2662;1.0125;
538.2000;0.2646;1.0100;
538.5000;0.2719;1.0343;
538.8000;0.2637;1.0149;
539.1000;0.2646;1.0004;
539.4000;0.2646;0.9979;
539.7000;0.2605;0.9907;
540.0000;0.2646;0.9979;
540.3000;0.2686;1.0222;
540.6000;0.2654;1.0100;
540.9000;0.2654;1.0149;
541.2000;0.2646;1.0149;
541.5000;0.2548;0.9858;
541.8000;0.2670;1.0173;
542.1000;0.2678;1.0149;
542.4000;0.2613;0.9979;
542.7000;0.2654;1.0004;
543.0000;0.2654;1.0052;
543.3000;0.2637;1.0028;
543.6000;0.2646;1.0004;
543.9000;0.2662;1.0028;
544.2000;0.2646;0.9931;
544.5000;0.2662;1.0028;
544.8000;0.2646;1.0028;
545.1000;0.2646;1.0052;
545.4000;0.2654;1.0125;
545.7000;0.2662;1.0173;
546.0000;0.2662;1.0149;
546.3000;0.2654;1.0076;
546.6000;0.2654;1.0125;
546.9000;0.2670;1.0149;
547.2000;0.2678;1.0125;
547.5000;0.2597;0.9931;
547.8000;0.2662;1.0149;
548.1000;0.2654;1.0125;
548.4000;0.2654;1.0052;
548.7000;0.2662;1.0076;
549.0000;0.2686;1.0222;
549.3000;0.2646;1.0149;
549.6000;0.2662;1.0197;
549.9000;0.2613;1.0028;
550.2000;0.2654;1.0028;
550.5000;0.2654;1.0076;
550.8000;0.2646;0.9979;
551.1000;0.2678;1.0028;
551.4000;0.2613;0.9931;
551.7000;0.2654;1.0125;
552.0000;0.2654;1.0149;
552.3000;0.2662;1.0149;
552.6000;0.2662;1.0125;
552.9000;0.2654;1.0100;
553.2000;0.2662;1.0173;
553.5000;0.2646;1.0100;
553.8000;0.2646;1.0100;
554.1000;0.2629;1.0125;
554.4000;0.2662;1.0294;
554.7000;0.2646;1.0222;
555.0000;0.2637;1.0173;
555.3000;0.2654;1.0149;
555.6000;0.2654;1.0125;
555.9000;0.2646;1.0149;
556.2000;0.2670;1.0197;
556.5000;0.2654;1.0076;
556.8000;0.2662;1.0076;
557.1000;0.2654;1.0028;
557.4000;0.2662;1.0076;
557.7000;0.2646;1.0100;
558.0000;0.2686;1.0173;
558.3000;0.2646;0.9979;
558.6000;0.2646;1.0052;
558.9000;0.2646;1.0004;
559.2000;0.2662;1.0052;
559.5000;0.2621;1.0004;
559.8000;0.2727;1.0246;
560.1000;0.2654;1.0028;
560.4000;0.2629;1.0004;
560.7000;0.2678;1.0125;
561.0000;0.2678;1.0100;
561.3000;0.2629;0.9907;
561.6000;0.2629;0.9882;
561.9000;0.2686;1.0149;
562.2000;0.2646;1.0076;
562.5000;0.2654;1.0197;
562.8000;0.2605;1.0004;
563.1000;0.2662;1.0149;
563.4000;0.2637;1.0149;
563.7000;0.2580;0.9979;
564.0000;0.2621;1.0052;
564.3000;0.2589;0.9931;
564.6000;0.2662;1.0125;
564.9000;0.2727;1.0318;
565.2000;0.2621;0.9955;
565.5000;0.2646;1.0076;
565.8000;0.2629;0.9979;
566.1000;0.2662;1.0100;
566.4000;0.2654;1.0100;
566.7000;0.2654;1.0100;
567.0000;0.2621;1.0052;
567.3000;0.2670;1.0197;
567.6000;0.2637;1.0100;
567.9000;0.2646;1.0149;
568.2000;0.2678;1.0100;
568.5000;0.2670;1.0125;
568.8000;0.2637;1.0076;
569.1000;0.2654;1.0052;
569.4000;0.2646;1.0052;
569.7000;0.2646;1.0076;
570.0000;0.2662;1.0149;
570.3000;0.2646;1.0149;
570.6000;0.2646;1.0149;
570.9000;0.2670;1.0100;
571.2000;0.2662;1.0052;
571.5000;0.2637;0.9955;
571.8000;0.2637;0.9979;
572.1000;0.2662;0.9979;
572.4000;0.2646;1.0028;
572.7000;0.2637;1.0052;
573.0000;0.2629;0.9931;
573.3000;0.2654;0.9955;
573.6000;0.2654;0.9907;
573.9000;0.2654;0.9931;
574.2000;0.2654;0.9979;
574.5000;0.2637;0.9858;
574.8000;0.2646;0.9882;
575.1000;0.2629;0.9858;
575.4000;0.2629;0.9858;
575.7000;0.2637;0.9882;
576.0000;0.2654;0.9955;
576.3000;0.2678;0.9955;
576.6000;0.2678;0.9882;
576.9000;0.2654;0.9834;
577.2000;0.2662;0.9834;
577.5000;0.2670;0.9907;
577.8000;0.2662;0.9882;
578.1000;0.2654;0.9786;
578.4000;0.2646;0.9786;
578.7000;0.2654;0.9931;
579.0000;0.2662;0.9955;
579.3000;0.2564;0.9737;
579.6000;0.2662;1.0004;
579.9000;0.2654;0.9955;
580.2000;0.2621;0.9858;
580.5000;0.2637;0.9834;
580.8000;0.2621;0.9761;
581.1000;0.2597;0.9713;
581.4000;0.2654;0.9907;
581.7000;0.2629;0.9882;
582.0000;0.2662;1.0076;
582.3000;0.2646;1.0076;
582.6000;0.2662;1.0149;
582.9000;0.2629;1.0173;
583.2000;0.2654;1.0173;
583.5000;0.2654;1.0197;
583.8000;0.2580;0.9907;
584.1000;0.2629;1.0052;
584.4000;0.2694;1.0076;
584.7000;0.2662;1.0052;
585.0000;0.2743;1.0294;
585.3000;0.2662;1.0125;
585.6000;0.2670;1.0052;
585.9000;0.2597;0.9955;
586.2000;0.2678;1.0149;
586.5000;0.2621;1.0028;
586.8000;0.2670;1.0149;
587.1000;0.2654;1.0100;
587.4000;0.2662;1.0173;
587.7000;0.2662;1.0125;
588.0000;0.2670;1.0197;
588.3000;0.2719;1.0318;
588.6000;0.2646;1.0149;
588.9000;0.2662;1.0149;
589.2000;0.2662;1.0125;
589.5000;0.2662;1.0149;
589.8000;0.2654;1.0149;
590.1000;0.2654;1.0149;
590.4000;0.2654;1.0197;
590.7000;0.2613;1.0004;
591.0000;0.2613;0.9979;
591.3000;0.2646;0.9931;
591.6000;0.2702;1.0076;
591.9000;0.2694;1.0076;
592.2000;0.2621;0.9979;
592.5000;0.2670;1.0052;
592.8000;0.2678;0.9931;
593.1000;0.2678;0.9907;
593.4000;0.2654;0.9786;
593.7000;0.2670;0.9810;
594.0000;0.2646;0.9761;
594.3000;0.2654;0.9713;
594.6000;0.2646;0.9640;
594.9000;0.2678;0.9664;
595.2000;0.2662;0.9737;
595.5000;0.2654;0.9810;
595.8000;0.2670;0.9907;
596.1000;0.2646;0.9761;
596.4000;0.2646;0.9737;
596.7000;0.2719;0.9882;
597.0000;0.2662;0.9834;
597.3000;0.2678;0.9834;
597.6000;0.2654;0.9858;
597.9000;0.2686;0.9931;
598.2000;0.2678;0.9858;
598.5000;0.2670;0.9882;
598.8000;0.2654;0.9858;
599.1000;0.2654;0.9858;
599.4000;0.2670;1.0004;
599.7000;0.2670;1.0052;
600.0000;0.2686;1.0052;
600.3000;0.2515;0.9568;
600.6000;0.2670;0.9858;
600.9000;0.2629;0.9664;
601.2000;0.2694;0.9761;
601.5000;0.2621;0.9495;
601.8000;0.2646;0.9374;
602.1000;0.2629;0.9156;
602.4000;0.2637;0.9010;
602.7000;0.2621;0.8817;
603.0000;0.2629;0.8696;
603.3000;0.2597;0.8526;
603.6000;0.2613;0.8429;
603.9000;0.2605;0.8381;
604.2000;0.2589;0.8284;
604.5000;0.2597;0.8163;
604.8000;0.2597;0.8163;
605.1000;0.2572;0.8042;
605.4000;0.2589;0.8066;
605.7000;0.2597;0.8042;
606.0000;0.2572;0.7921;
606.3000;0.2580;0.7799;
606.6000;0.2580;0.7775;
606.9000;0.2564;0.7751;
607.2000;0.2564;0.7751;
607.5000;0.2572;0.7654;
607.8000;0.2564;0.7654;
608.1000;0.2580;0.7678;
608.4000;0.2597;0.7727;
608.7000;0.2564;0.7581;
609.0000;0.2572;0.7509;
609.3000;0.2580;0.7557;
609.6000;0.2580;0.7557;
609.9000;0.2564;0.7509;
610.2000;0.2564;0.7460;
610.5000;0.2556;0.7485;
610.8000;0.2580;0.7533;
611.1000;0.2548;0.7509;
611.4000;0.2523;0.7460;
611.7000;0.2621;0.7751;
612.0000;0.2556;0.7485;
612.3000;0.2556;0.7485;
612.6000;0.2442;0.7073;
612.9000;0.2556;0.7339;
613.2000;0.2564;0.7412;
613.5000;0.2556;0.7363;
613.8000;0.2532;0.7267;
614.1000;0.2572;0.7460;
614.4000;0.2580;0.7509;
614.7000;0.2556;0.7460;
615.0000;0.2556;0.7485;
615.3000;0.2523;0.7388;
615.6000;0.2613;0.7557;
615.9000;0.2580;0.7485;
616.2000;0.2548;0.7460;
616.5000;0.2515;0.7291;
616.8000;0.2548;0.7363;
617.1000;0.2564;0.7363;
617.4000;0.2540;0.7315;
617.7000;0.2540;0.7291;
618.0000;0.2532;0.7291;
618.3000;0.2564;0.7291;
618.6000;0.2499;0.7121;
618.9000;0.2540;0.7145;
619.2000;0.2548;0.7194;
619.5000;0.2564;0.7388;
619.8000;0.2580;0.7412;
620.1000;0.2556;0.7363;
620.4000;0.2564;0.7460;
620.7000;0.2556;0.7533;
621.0000;0.2556;0.7436;
621.3000;0.2450;0.7121;
621.6000;0.2556;0.7388;
621.9000;0.2523;0.7388;
622.2000;0.2548;0.7388;
622.5000;0.2515;0.7315;
622.8000;0.2491;0.7363;
623.1000;0.2556;0.7557;
623.4000;0.2580;0.7557;
623.7000;0.2548;0.7533;
624.0000;0.2556;0.7557;
624.3000;0.2670;0.7921;
624.6000;0.2548;0.7581;
624.9000;0.2564;0.7606;
625.2000;0.2548;0.7557;
625.5000;0.2556;0.7606;
625.8000;0.2556;0.7557;
626.1000;0.2564;0.7509;
626.4000;0.2548;0.7315;
626.7000;0.2556;0.7291;
627.0000;0.2540;0.7145;
627.3000;0.2564;0.7291;
627.6000;0.2548;0.7218;
627.9000;0.2556;0.7194;
628.2000;0.2572;0.7267;
628.5000;0.2564;0.7242;
628.8000;0.2572;0.7242;
629.1000;0.2556;0.7218;
629.4000;0.2556;0.7339;
629.7000;0.2572;0.7436;
630.0000;0.2572;0.7533;
630.3000;0.2564;0.7557;
630.6000;0.2523;0.7436;
630.9000;0.2556;0.7533;
631.2000;0.2564;0.7557;
631.5000;0.2556;0.7557;
631.8000;0.2548;0.7412;
632.1000;0.2556;0.7339;
632.4000;0.2507;0.7145;
632.7000;0.2556;0.7315;
633.0000;0.2507;0.7242;
633.3000;0.2572;0.7436;
633.6000;0.2621;0.7533;
633.9000;0.2572;0.7436;
634.2000;0.2556;0.7436;
634.5000;0.2580;0.7460;
634.8000;0.2572;0.7412;
635.1000;0.2548;0.7339;
635.4000;0.2768;0.7872;
635.7000;0.2556;0.7242;
636.0000;0.2556;0.7218;
636.3000;0.2564;0.7242;
636.6000;0.2548;0.7194;
636.9000;0.2540;0.7194;
637.2000;0.2564;0.7242;
637.5000;0.2523;0.7242;
637.8000;0.2556;0.7388;
638.1000;0.2548;0.7412;
638.4000;0.2556;0.7315;
638.7000;0.2556;0.7315;
639.0000;0.2564;0.7267;
639.3000;0.2548;0.7218;
639.6000;0.2548;0.7170;
639.9000;0.2556;0.7267;
640.2000;0.2556;0.7315;
640.5000;0.2556;0.7363;
640.8000;0.2564;0.7436;
641.1000;0.2597;0.7581;
641.4000;0.2540;0.7412;
641.7000;0.2556;0.7412;
642.0000;0.2548;0.7363;
642.3000;0.2540;0.7363;
642.6000;0.2572;0.7460;
642.9000;0.2564;0.7509;
643.2000;0.2548;0.7485;
643.5000;0.2564;0.7557;
643.8000;0.2556;0.7630;
644.1000;0.2572;0.7654;
644.4000;0.2572;0.7703;
644.7000;0.2556;0.7751;
645.0000;0.2532;0.7654;
645.3000;0.2572;0.7751;
645.6000;0.2580;0.7848;
645.9000;0.2556;0.7799;
646.2000;0.2540;0.7775;
646.5000;0.2540;0.7775;
646.8000;0.2548;0.7727;
647.1000;0.2556;0.7775;
647.4000;0.2540;0.7751;
647.7000;0.2572;0.7848;
648.0000;0.2548;0.7678;
648.3000;0.2532;0.7557;
648.6000;0.2556;0.7533;
648.9000;0.2556;0.7557;
649.2000;0.2507;0.7436;
649.5000;0.2580;0.7581;
649.8000;0.2564;0.7460;
650.1000;0.2540;0.7388;
650.4000;0.2572;0.7412;
650.7000;0.2564;0.7460;
651.0000;0.2637;0.7581;
651.3000;0.2564;0.7509;
651.6000;0.2540;0.7509;
651.9000;0.2564;0.7533;
652.2000;0.2548;0.7509;
652.5000;0.2548;0.7436;
652.8000;0.2556;0.7412;
653.1000;0.2556;0.7436;
653.4000;0.2556;0.7339;
653.7000;0.2556;0.7436;
654.0000;0.2556;0.7436;
654.3000;0.2597;0.7654;
654.6000;0.2589;0.7703;
654.9000;0.2556;0.7630;
655.2000;0.2556;0.7606;
655.5000;0.2564;0.7606;
655.8000;0.2564;0.7533;
656.1000;0.2572;0.7630;
656.4000;0.2646;0.7824;
656.7000;0.2532;0.7581;
657.0000;0.2540;0.7678;
657.3000;0.2629;0.7993;
657.6000;0.2475;0.7557;
657.9000;0.2613;0.7921;
658.2000;0.2580;0.7751;
658.5000;0.2556;0.7654;
658.8000;0.2540;0.7581;
659.1000;0.2556;0.7533;
659.4000;0.2523;0.7412;
659.7000;0.2654;0.7703;
660.0000;0.2507;0.7315;
660.3000;0.2564;0.7557;
660.6000;0.2589;0.7581;
660.9000;0.2515;0.7388;
661.2000;0.2572;0.7557;
661.5000;0.2572;0.7557;
661.8000;0.2597;0.7606;
662.1000;0.2556;0.7581;
662.4000;0.2548;0.7581;
662.7000;0.2621;0.7727;
663.0000;0.2572;0.7606;
663.3000;0.2540;0.7557;
663.6000;0.2540;0.7557;
663.9000;0.2556;0.7436;
664.2000;0.2540;0.7485;
664.5000;0.2442;0.7218;
664.8000;0.2556;0.7412;
665.1000;0.2548;0.7339;
665.4000;0.2564;0.7388;
665.7000;0.2564;0.7436;
666.0000;0.2564;0.7436;
666.3000;0.2556;0.7436;
666.6000;0.2564;0.7436;
666.9000;0.2572;0.7485;
667.2000;0.2556;0.7460;
667.5000;0.2548;0.7509;
667.8000;0.2532;0.7485;
668.1000;0.2556;0.7436;
668.4000;0.2556;0.7460;
668.7000;0.2532;0.7485;
669.0000;0.2532;0.7509;
669.3000;0.2540;0.7485;
669.6000;0.2556;0.7581;
669.9000;0.2572;0.7630;
670.2000;0.2556;0.7606;
670.5000;0.2532;0.7581;
670.8000;0.2572;0.7630;
671.1000;0.2548;0.7606;
671.4000;0.2564;0.7654;
671.7000;0.2564;0.7678;
672.0000;0.2548;0.7824;
672.3000;0.2556;0.7799;
672.6000;0.2548;0.7727;
672.9000;0.2548;0.7678;
673.2000;0.2475;0.7533;
673.5000;0.2523;0.7727;
673.8000;0.2548;0.7775;
674.1000;0.2556;0.7848;
674.4000;0.2548;0.7824;
674.7000;0.2572;0.7824;
675.0000;0.2564;0.7799;
675.3000;0.2499;0.7557;
675.6000;0.2556;0.7654;
675.9000;0.2556;0.7533;
676.2000;0.2589;0.7703;
676.5000;0.2564;0.7654;
676.8000;0.2564;0.7606;
677.1000;0.2572;0.7606;
677.4000;0.2589;0.7678;
677.7000;0.2572;0.7703;
678.0000;0.2515;0.7533;
678.3000;0.2548;0.7678;
678.6000;0.2572;0.7751;
678.9000;0.2564;0.7678;
679.2000;0.2540;0.7630;
679.5000;0.2564;0.7727;
679.8000;0.2589;0.7896;
680.1000;0.2572;0.7872;
680.4000;0.2483;0.7630;
680.7000;0.2556;0.7799;
681.0000;0.2580;0.7824;
681.3000;0.2572;0.7799;
681.6000;0.2678;0.8066;
681.9000;0.2556;0.7775;
682.2000;0.2556;0.7654;
682.5000;0.2556;0.7775;
682.8000;0.2507;0.7630;
683.1000;0.2556;0.7703;
683.4000;0.2548;0.7703;
683.7000;0.2548;0.7581;
684.0000;0.2564;0.7581;
684.3000;0.2572;0.7606;
684.6000;0.2540;0.7509;
684.9000;0.2572;0.7485;
685.2000;0.2564;0.7436;
685.5000;0.2580;0.7533;
685.8000;0.2556;0.7509;
686.1000;0.2572;0.7678;
686.4000;0.2572;0.7606;
686.7000;0.2572;0.7630;
687.0000;0.2548;0.7606;
687.3000;0.2580;0.7727;
687.6000;0.2613;0.7799;
687.9000;0.2580;0.7727;
688.2000;0.2548;0.7630;
688.5000;0.2564;0.7654;
688.8000;0.2548;0.7606;
689.1000;0.2556;0.7581;
689.4000;0.2572;0.7557;
689.7000;0.2548;0.7533;
690.0000;0.2556;0.7557;
690.3000;0.2548;0.7485;
690.6000;0.2572;0.7581;
690.9000;0.2564;0.7557;
691.2000;0.2564;0.7581;
691.5000;0.2564;0.7703;
691.8000;0.2556;0.7630;
692.1000;0.2572;0.7703;
692.4000;0.2556;0.7703;
692.7000;0.2556;0.7727;
693.0000;0.2548;0.7678;
693.3000;0.2556;0.7654;
693.6000;0.2564;0.7751;
693.9000;0.2580;0.7775;
694.2000;0.2572;0.7751;
694.5000;0.2483;0.7509;
694.8000;0.2540;0.7606;
695.1000;0.2572;0.7678;
695.4000;0.2572;0.7703;
695.7000;0.2548;0.7630;
696.0000;0.2556;0.7630;
696.3000;0.2580;0.7727;
696.6000;0.2564;0.7678;
696.9000;0.2572;0.7678;
697.2000;0.2540;0.7630;
697.5000;0.2556;0.7678;
697.8000;0.2548;0.7727;
698.1000;0.2507;0.7654;
698.4000;0.2564;0.7751;
698.7000;0.2564;0.7775;
699.0000;0.2523;0.7581;
699.3000;0.2556;0.7678;
699.6000;0.2548;0.7630;
699.9000;0.2597;0.7630;
700.2000;0.2580;0.7630;
700.5000;0.2556;0.7630;
700.8000;0.2564;0.7606;
701.1000;0.2548;0.7630;
701.4000;0.2540;0.7751;
701.7000;0.2580;0.7799;
702.0000;0.2540;0.7678;
702.3000;0.2572;0.7751;
702.6000;0.2564;0.7727;
702.9000;0.2580;0.7751;
703.2000;0.2556;0.7703;
703.5000;0.2548;0.7678;
703.8000;0.2483;0.7460;
704.1000;0.2556;0.7703;
704.4000;0.2613;0.7775;
704.7000;0.2556;0.7630;
705.0000;0.2580;0.7703;
705.3000;0.2580;0.7557;
705.6000;0.2548;0.7509;
705.9000;0.2572;0.7557;
706.2000;0.2548;0.7581;
706.5000;0.2548;0.7654;
706.8000;0.2556;0.7678;
707.1000;0.2540;0.7581;
707.4000;0.2499;0.7388;
707.7000;0.2507;0.7388;
708.0000;0.2589;0.7703;
708.3000;0.2548;0.7557;
708.6000;0.2523;0.7557;
708.9000;0.2556;0.7703;
709.2000;0.2564;0.7727;
709.5000;0.2564;0.7654;
709.8000;0.2523;0.7557;
710.1000;0.2548;0.7533;
710.4000;0.2564;0.7557;
710.7000;0.2458;0.7363;
711.0000;0.2540;0.7533;
711.3000;0.2548;0.7630;
711.6000;0.2629;0.7872;
711.9000;0.2556;0.7678;
712.2000;0.2564;0.7703;
712.5000;0.2556;0.7581;
712.8000;0.2548;0.7581;
713.1000;0.2507;0.7388;
713.4000;0.2572;0.7436;
713.7000;0.2532;0.7363;
714.0000;0.2515;0.7363;
714.3000;0.2564;0.7533;
714.6000;0.2540;0.7557;
714.9000;0.2540;0.7533;
715.2000;0.2556;0.7606;
715.5000;0.2548;0.7606;
715.8000;0.2540;0.7581;
716.1000;0.2564;0.7630;
716.4000;0.2540;0.7557;
716.7000;0.2572;0.7581;
717.0000;0.2572;0.7485;
717.3000;0.2523;0.7388;
717.6000;0.2564;0.7533;
717.9000;0.2523;0.7412;
718.2000;0.2564;0.7557;
718.5000;0.2540;0.7533;
718.8000;0.2589;0.7678;
719.1000;0.2540;0.7460;
719.4000;0.2564;0.7533;
719.7000;0.2532;0.7436;
720.0000;0.2548;0.7557;
720.3000;0.2475;0.7339;
720.6000;0.2564;0.7606;
720.9000;0.2629;0.7824;
721.2000;0.2540;0.7606;
721.5000;0.2556;0.7630;
721.8000;0.2572;0.7581;
722.1000;0.2572;0.7678;
722.4000;0.2589;0.7703;
722.7000;0.2458;0.7388;
723.0000;0.2564;0.7606;
723.3000;0.2572;0.7654;
723.6000;0.2556;0.7678;
723.9000;0.2564;0.7678;
724.2000;0.2564;0.7751;
724.5000;0.2556;0.7799;
724.8000;0.2532;0.7654;
725.1000;0.2548;0.7654;
725.4000;0.2572;0.7654;
725.7000;0.2572;0.7775;
726.0000;0.2564;0.7654;
726.3000;0.2548;0.7654;
726.6000;0.2564;0.7703;
726.9000;0.2548;0.7751;
727.2000;0.2564;0.7727;
727.5000;0.2556;0.7703;
727.8000;0.2548;0.7703;
728.1000;0.2564;0.7824;
728.4000;0.2556;0.7799;
728.7000;0.2532;0.7654;
729.0000;0.2548;0.7630;
729.3000;0.2564;0.7630;
729.6000;0.2580;0.7703;
729.9000;0.2548;0.7581;
730.2000;0.2556;0.7654;
730.5000;0.2564;0.7727;
730.8000;0.2540;0.7727;
731.1000;0.2580;0.7751;
731.4000;0.2564;0.7581;
731.7000;0.2556;0.7581;
732.0000;0.2540;0.7606;
732.3000;0.2556;0.7606;
732.6000;0.2564;0.7630;
732.9000;0.2572;0.7630;
733.2000;0.2580;0.7654;
733.5000;0.2466;0.7363;
733.8000;0.2556;0.7606;
734.1000;0.2605;0.7751;
734.4000;0.2548;0.7678;
734.7000;0.2458;0.7436;
735.0000;0.2564;0.7654;
735.3000;0.2532;0.7436;
735.6000;0.2605;0.7630;
735.9000;0.2589;0.7630;
736.2000;0.2572;0.7727;
736.5000;0.2572;0.7799;
736.8000;0.2548;0.7775;
737.1000;0.2597;0.7799;
737.4000;0.2572;0.7654;
737.7000;0.2564;0.7703;
738.0000;0.2572;0.7775;
738.3000;0.2540;0.7727;
738.6000;0.2572;0.7775;
738.9000;0.2564;0.7678;
739.2000;0.2556;0.7654;
739.5000;0.2548;0.7606;
739.8000;0.2564;0.7581;
740.1000;0.2564;0.7606;
740.4000;0.2466;0.7436;
740.7000;0.2556;0.7678;
741.0000;0.2589;0.7678;
741.3000;0.2556;0.7557;
741.6000;0.2556;0.7485;
741.9000;0.2580;0.7678;
742.2000;0.2572;0.7606;
742.5000;0.2564;0.7654;
742.8000;0.2564;0.7654;
743.1000;0.2548;0.7533;
743.4000;0.2507;0.7363;
743.7000;0.2572;0.7485;
744.0000;0.2572;0.7412;
744.3000;0.2564;0.7388;
744.6000;0.2564;0.7363;
744.9000;0.2564;0.7315;
745.2000;0.2556;0.7339;
745.5000;0.2564;0.7363;
745.8000;0.2556;0.7315;
746.1000;0.2556;0.7436;
746.4000;0.2564;0.7436;
746.7000;0.2532;0.7460;
747.0000;0.2556;0.7485;
747.3000;0.2458;0.7242;
747.6000;0.2564;0.7606;
747.9000;0.2548;0.7630;
748.2000;0.2572;0.7654;
748.5000;0.2540;0.7654;
748.8000;0.2654;0.7848;
749.1000;0.2572;0.7630;
749.4000;0.2580;0.7703;
749.7000;0.2556;0.7581;
750.0000;0.2564;0.7630;
750.3000;0.2532;0.7485;
750.6000;0.2621;0.7703;
750.9000;0.2548;0.7581;
751.2000;0.2572;0.7606;
751.5000;0.2572;0.7727;
751.8000;0.2580;0.7678;
752.1000;0.2556;0.7581;
752.4000;0.2572;0.7654;
752.7000;0.2426;0.7267;
753.0000;0.2556;0.7678;
753.3000;0.2572;0.7630;
753.6000;0.2556;0.7630;
753.9000;0.2572;0.7727;
754.2000;0.2564;0.7703;
754.5000;0.2532;0.7630;
754.8000;0.2548;0.7630;
755.1000;0.2556;0.7533;
755.4000;0.2572;0.7533;
755.7000;0.2523;0.7460;
756.0000;0.2605;0.7630;
756.3000;0.2654;0.7654;
756.6000;0.2540;0.7339;
756.9000;0.2564;0.7460;
757.2000;0.2572;0.7533;
757.5000;0.2564;0.7606;
757.8000;0.2556;0.7606;
758.1000;0.2483;0.7315;
758.4000;0.2556;0.7509;
758.7000;0.2523;0.7436;
759.0000;0.2572;0.7557;
759.3000;0.2670;0.7799;
759.6000;0.2548;0.7460;
759.9000;0.2629;0.7751;
760.2000;0.2572;0.7654;
760.5000;0.2564;0.7678;
760.8000;0.2572;0.7678;
761.1000;0.2564;0.7581;
761.4000;0.2572;0.7678;
761.7000;0.2572;0.7703;
762.0000;0.2540;0.7727;
762.3000;0.2556;0.7799;
762.6000;0.2548;0.7799;
762.9000;0.2556;0.7896;
763.2000;0.2572;0.7775;
763.5000;0.2564;0.7751;
763.8000;0.2613;0.7848;
764.1000;0.2580;0.7703;
764.4000;0.2605;0.7727;
764.7000;0.2564;0.7654;
765.0000;0.2450;0.7533;
765.3000;0.2564;0.7872;
765.6000;0.2572;0.7824;
765.9000;0.2556;0.7799;
766.2000;0.2548;0.7751;
766.5000;0.2548;0.7751;
766.8000;0.2556;0.7654;
767.1000;0.2540;0.7654;
767.4000;0.2605;0.7775;
767.7000;0.2532;0.7557;
768.0000;0.2572;0.7775;
768.3000;0.2556;0.7751;
768.6000;0.2540;0.7703;
768.9000;0.2621;0.7872;
769.2000;0.2564;0.7727;
769.5000;0.2621;0.7921;
769.8000;0.2556;0.7775;
770.1000;0.2548;0.7775;
770.4000;0.2572;0.7824;
770.7000;0.2572;0.7799;
771.0000;0.2556;0.7775;
771.3000;0.2564;0.7727;
771.6000;0.2564;0.7824;
771.9000;0.2466;0.7533;
772.2000;0.2556;0.7799;
772.5000;0.2572;0.7848;
772.8000;0.2589;0.7824;
773.1000;0.2654;0.7969;
773.4000;0.2613;0.7848;
773.7000;0.2629;0.7824;
774.0000;0.2564;0.7678;
774.3000;0.2564;0.7630;
774.6000;0.2564;0.7581;
774.9000;0.2580;0.7485;
775.2000;0.2572;0.7533;
775.5000;0.2556;0.7581;
775.8000;0.2572;0.7581;
776.1000;0.2572;0.7581;
776.4000;0.2556;0.7557;
776.7000;0.2572;0.7630;
777.0000;0.2548;0.7630;
777.3000;0.2548;0.7654;
777.6000;0.2548;0.7678;
777.9000;0.2564;0.7654;
778.2000;0.2572;0.7678;
778.5000;0.2548;0.7557;
778.8000;0.2621;0.7606;
779.1000;0.2540;0.7485;
779.4000;0.2540;0.7533;
779.7000;0.2564;0.7678;
780.0000;0.2572;0.7727;
780.3000;0.2523;0.7581;
780.6000;0.2580;0.7703;
780.9000;0.2572;0.7703;
781.2000;0.2548;0.7727;
781.5000;0.2564;0.7678;
781.8000;0.2564;0.7654;
782.1000;0.2580;0.7654;
782.4000;0.2540;0.7581;
782.7000;0.2532;0.7557;
783.0000;0.2548;0.7630;
783.3000;0.2572;0.7727;
783.6000;0.2556;0.7848;
783.9000;0.2580;0.7848;
784.2000;0.2589;0.7872;
784.5000;0.2580;0.7775;
784.8000;0.2597;0.7848;
785.1000;0.2564;0.7775;
785.4000;0.2580;0.7824;
785.7000;0.2556;0.7751;
786.0000;0.2564;0.7775;
786.3000;0.2662;0.7993;
786.6000;0.2548;0.7727;
786.9000;0.2580;0.7848;
787.2000;0.2572;0.7727;
787.5000;0.2580;0.7799;
787.8000;0.2556;0.7775;
788.1000;0.2580;0.7848;
788.4000;0.2507;0.7630;
788.7000;0.2564;0.7727;
789.0000;0.2572;0.7799;
789.3000;0.2548;0.7703;
789.6000;0.2572;0.7678;
789.9000;0.2589;0.7581;
790.2000;0.2694;0.7945;
790.5000;0.2564;0.7557;
790.8000;0.2564;0.7630;
791.1000;0.2564;0.7606;
791.4000;0.2572;0.7703;
791.7000;0.2556;0.7630;
792.0000;0.2564;0.7751;
792.3000;0.2564;0.7630;
792.6000;0.2556;0.7654;
792.9000;0.2589;0.7703;
793.2000;0.2548;0.7557;
793.5000;0.2556;0.7606;
793.8000;0.2564;0.7606;
794.1000;0.2564;0.7630;
794.4000;0.2556;0.7581;
794.7000;0.2572;0.7606;
795.0000;0.2605;0.7581;
795.3000;0.2564;0.7485;
795.6000;0.2475;0.7412;
795.9000;0.2556;0.7678;
796.2000;0.2556;0.7727;
796.5000;0.2556;0.7727;
796.8000;0.2629;0.7872;
797.1000;0.2548;0.7630;
797.4000;0.2564;0.7751;
797.7000;0.2605;0.7848;
798.0000;0.2572;0.7703;
798.3000;0.2556;0.7630;
798.6000;0.2540;0.7533;
798.9000;0.2450;0.7339;
799.2000;0.2564;0.7581;
799.5000;0.2564;0.7557;
799.8000;0.2556;0.7581;
800.1000;0.2580;0.7630;
800.4000;0.2556;0.7581;
800.7000;0.2556;0.7581;
801.0000;0.2540;0.7581;
801.3000;0.2589;0.7703;
801.6000;0.2556;0.7727;
801.9000;0.2572;0.7606;
802.2000;0.2572;0.7581;
802.5000;0.2580;0.7606;
802.8000;0.2572;0.7630;
803.1000;0.2580;0.7630;
803.4000;0.2540;0.7581;
803.7000;0.2621;0.7824;
804.0000;0.2556;0.7703;
804.3000;0.2556;0.7775;
804.6000;0.2564;0.7751;
804.9000;0.2548;0.7751;
805.2000;0.2572;0.7799;
805.5000;0.2580;0.7799;
805.8000;0.2572;0.7727;
806.1000;0.2589;0.7751;
806.4000;0.2572;0.7678;
806.7000;0.2556;0.7606;
807.0000;0.2572;0.7654;
807.3000;0.2613;0.7751;
807.6000;0.2548;0.7557;
807.9000;0.2572;0.7581;
808.2000;0.2564;0.7557;
808.5000;0.2548;0.7581;
808.8000;0.2556;0.7581;
809.1000;0.2637;0.7727;
809.4000;0.2564;0.7581;
809.7000;0.2556;0.7533;
810.0000;0.2572;0.7557;
810.3000;0.2597;0.7678;
810.6000;0.2589;0.7678;
810.9000;0.2540;0.7630;
811.2000;0.2580;0.7727;
811.5000;0.2589;0.7727;
811.8000;0.2580;0.7606;
812.1000;0.2580;0.7557;
812.4000;0.2589;0.7533;
812.7000;0.2564;0.7533;
813.0000;0.2589;0.7557;
813.3000;0.2564;0.7509;
813.6000;0.2548;0.7581;
813.9000;0.2564;0.7533;
814.2000;0.2646;0.7678;
814.5000;0.2564;0.7509;
814.8000;0.2556;0.7460;
815.1000;0.2589;0.7581;
815.4000;0.2540;0.7388;
815.7000;0.2556;0.7388;
816.0000;0.2556;0.7388;
816.3000;0.2580;0.7436;
816.6000;0.2548;0.7315;
816.9000;0.2605;0.7509;
817.2000;0.2556;0.7436;
817.5000;0.2556;0.7412;
817.8000;0.2564;0.7460;
818.1000;0.2564;0.7509;
818.4000;0.2540;0.7412;
818.7000;0.2556;0.7485;
819.0000;0.2556;0.7533;
819.3000;0.2572;0.7533;
819.6000;0.2548;0.7460;
819.9000;0.2580;0.7363;
820.2000;0.2589;0.7315;
820.5000;0.2629;0.7436;
820.8000;0.2605;0.7339;
821.1000;0.2589;0.7242;
821.4000;0.2564;0.7291;
821.7000;0.2572;0.7460;
822.0000;0.2564;0.7460;
822.3000;0.2556;0.7460;
822.6000;0.2540;0.7460;
822.9000;0.2580;0.7606;
823.2000;0.2572;0.7557;
823.5000;0.2629;0.7678;
823.8000;0.2556;0.7485;
824.1000;0.2548;0.7460;
824.4000;0.2564;0.7509;
824.7000;0.2564;0.7606;
825.0000;0.2556;0.7654;
825.3000;0.2556;0.7703;
825.6000;0.2621;0.7824;
825.9000;0.2564;0.7630;
826.2000;0.2458;0.7315;
826.5000;0.2597;0.7751;
826.8000;0.2564;0.7703;
827.1000;0.2556;0.7799;
827.4000;0.2540;0.7751;
827.7000;0.2540;0.7703;
828.0000;0.2564;0.7751;
828.3000;0.2572;0.7751;
828.6000;0.2507;0.7727;
828.9000;0.2548;0.7799;
829.2000;0.2564;0.7799;
829.5000;0.2580;0.7799;
829.8000;0.2564;0.7727;
830.1000;0.2548;0.7606;
830.4000;0.2564;0.7606;
830.7000;0.2580;0.7703;
831.0000;0.2466;0.7460;
831.3000;0.2548;0.7678;
831.6000;0.2572;0.7727;
831.9000;0.2572;0.7751;
832.2000;0.2580;0.7678;
832.5000;0.2670;0.7872;
832.8000;0.2564;0.7581;
833.1000;0.2572;0.7606;
833.4000;0.2564;0.7581;
833.7000;0.2572;0.7654;
834.0000;0.2572;0.7727;
834.3000;0.2572;0.7703;
834.6000;0.2580;0.7654;
834.9000;0.2556;0.7727;
835.2000;0.2556;0.7751;
835.5000;0.2572;0.7703;
835.8000;0.2580;0.7703;
836.1000;0.2564;0.7678;
836.4000;0.2564;0.7581;
836.7000;0.2580;0.7654;
837.0000;0.2580;0.7654;
837.3000;0.2621;0.7775;
837.6000;0.2572;0.7533;
837.9000;0.2548;0.7412;
838.2000;0.2523;0.7339;
838.5000;0.2580;0.7509;
838.8000;0.2540;0.7460;
839.1000;0.2532;0.7460;
839.4000;0.2572;0.7606;
839.7000;0.2564;0.7485;
840.0000;0.2556;0.7509;
840.3000;0.2548;0.7363;
840.6000;0.2597;0.7509;
840.9000;0.2564;0.7533;
841.2000;0.2540;0.7412;
841.5000;0.2556;0.7460;
841.8000;0.2556;0.7509;
842.1000;0.2572;0.7630;
842.4000;0.2589;0.7703;
842.7000;0.2572;0.7606;
843.0000;0.2580;0.7630;
843.3000;0.2572;0.7581;
843.6000;0.2580;0.7606;
843.9000;0.2540;0.7581;
844.2000;0.2548;0.7509;
844.5000;0.2580;0.7581;
844.8000;0.2580;0.7606;
845.1000;0.2548;0.7557;
845.4000;0.2515;0.7412;
845.7000;0.2556;0.7557;
846.0000;0.2580;0.7703;
846.3000;0.2564;0.7581;
846.6000;0.2589;0.7678;
846.9000;0.2556;0.7630;
847.2000;0.2580;0.7727;
847.5000;0.2613;0.7872;
847.8000;0.2556;0.7751;
848.1000;0.2515;0.7678;
848.4000;0.2613;0.7896;
848.7000;0.2564;0.7751;
849.0000;0.2564;0.7678;
849.3000;0.2572;0.7727;
849.6000;0.2597;0.7751;
849.9000;0.2580;0.7630;
850.2000;0.2572;0.7581;
850.5000;0.2637;0.7727;
850.8000;0.2572;0.7630;
851.1000;0.2564;0.7678;
851.4000;0.2572;0.7824;
851.7000;0.2572;0.7824;
852.0000;0.2572;0.7824;
852.3000;0.2572;0.7751;
852.6000;0.2629;0.7848;
852.9000;0.2548;0.7727;
853.2000;0.2540;0.7751;
853.5000;0.2564;0.7751;
853.8000;0.2564;0.7775;
854.1000;0.2548;0.7678;
854.4000;0.2572;0.7775;
854.7000;0.2572;0.7775;
855.0000;0.2621;0.7848;
855.3000;0.2637;0.7848;
855.6000;0.2548;0.7581;
855.9000;0.2580;0.7703;
856.2000;0.2572;0.7727;
856.5000;0.2564;0.7799;
856.8000;0.2564;0.7799;
857.1000;0.2491;0.7606;
857.4000;0.2580;0.7799;
857.7000;0.2572;0.7799;
858.0000;0.2540;0.7703;
858.3000;0.2556;0.7654;
858.6000;0.2564;0.7678;
858.9000;0.2572;0.7703;
859.2000;0.2556;0.7654;
859.5000;0.2556;0.7654;
859.8000;0.2564;0.7654;
860.1000;0.2580;0.7703;
860.4000;0.2564;0.7678;
860.7000;0.2556;0.7557;
861.0000;0.2564;0.7654;
861.3000;0.2523;0.7485;
861.6000;0.2572;0.7581;
861.9000;0.2637;0.7824;
862.2000;0.2532;0.7606;
862.5000;0.2572;0.7654;
862.8000;0.2572;0.7654;
863.1000;0.2580;0.7678;
863.4000;0.2605;0.7799;
863.7000;0.2572;0.7751;
864.0000;0.2564;0.7799;
864.3000;0.2548;0.7654;
864.6000;0.2564;0.7751;
864.9000;0.2572;0.7848;
865.2000;0.2564;0.7751;
865.5000;0.2556;0.7727;
865.8000;0.2580;0.7751;
866.1000;0.2548;0.7727;
866.4000;0.2580;0.7751;
866.7000;0.2580;0.7678;
867.0000;0.2548;0.7606;
867.3000;0.2548;0.7654;
867.6000;0.2646;0.7921;
867.9000;0.2572;0.7727;
868.2000;0.2556;0.7703;
868.5000;0.2515;0.7654;
868.8000;0.2556;0.7654;
869.1000;0.2564;0.7654;
869.4000;0.2564;0.7678;
869.7000;0.2548;0.7581;
870.0000;0.2580;0.7678;
870.3000;0.2556;0.7630;
870.6000;0.2572;0.7703;
870.9000;0.2556;0.7606;
871.2000;0.2580;0.7509;
871.5000;0.2572;0.7460;
871.8000;0.2564;0.7509;
872.1000;0.2532;0.7436;
872.4000;0.2621;0.7630;
872.7000;0.2572;0.7460;
873.0000;0.2597;0.7509;
873.3000;0.2564;0.7533;
873.6000;0.2564;0.7509;
873.9000;0.2556;0.7485;
874.2000;0.2507;0.7436;
874.5000;0.2540;0.7485;
874.8000;0.2564;0.7485;
875.1000;0.2548;0.7460;
875.4000;0.2597;0.7533;
875.7000;0.2564;0.7412;
876.0000;0.2564;0.7436;
876.3000;0.2564;0.7533;
876.6000;0.2564;0.7557;
876.9000;0.2564;0.7581;
877.2000;0.2548;0.7581;
877.5000;0.2572;0.7557;
877.8000;0.2564;0.7557;
878.1000;0.2597;0.7751;
878.4000;0.2589;0.7654;
878.7000;0.2572;0.7606;
879.0000;0.2564;0.7581;
879.3000;0.2572;0.7581;
879.6000;0.2597;0.7727;
879.9000;0.2556;0.7557;
880.2000;0.2564;0.7606;
880.5000;0.2572;0.7606;
880.8000;0.2556;0.7581;
881.1000;0.2556;0.7581;
881.4000;0.2564;0.7485;
881.7000;0.2580;0.7533;
882.0000;0.2589;0.7630;
882.3000;0.2637;0.7799;
882.6000;0.2556;0.7533;
882.9000;0.2646;0.7921;
883.2000;0.2532;0.7606;
883.5000;0.2532;0.7606;
883.8000;0.2564;0.7606;
884.1000;0.2548;0.7509;
884.4000;0.2572;0.7557;
884.7000;0.2572;0.7557;
885.0000;0.2572;0.7557;
885.3000;0.2572;0.7533;
885.6000;0.2556;0.7533;
885.9000;0.2564;0.7509;
886.2000;0.2564;0.7436;
886.5000;0.2589;0.7557;
886.8000;0.2564;0.7485;
887.1000;0.2548;0.7509;
887.4000;0.2548;0.7485;
887.7000;0.2556;0.7509;
888.0000;0.2589;0.7630;
888.3000;0.2564;0.7581;
888.6000;0.2556;0.7509;
888.9000;0.2556;0.7485;
889.2000;0.2564;0.7460;
889.5000;0.2572;0.7460;
889.8000;0.2580;0.7412;
890.1000;0.2458;0.7049;
890.4000;0.2597;0.7412;
890.7000;0.2572;0.7339;
891.0000;0.2556;0.7339;
891.3000;0.2572;0.7339;
891.6000;0.2572;0.7291;
891.9000;0.2556;0.7291;
892.2000;0.2572;0.7339;
892.5000;0.2580;0.7388;
892.8000;0.2556;0.7291;
893.1000;0.2564;0.7436;
893.4000;0.2556;0.7436;
893.7000;0.2564;0.7460;
894.0000;0.2589;0.7485;
894.3000;0.2564;0.7388;
894.6000;0.2556;0.7363;
894.9000;0.2572;0.7388;
895.2000;0.2548;0.7339;
895.5000;0.2556;0.7436;
895.8000;0.2572;0.7436;
896.1000;0.2572;0.7485;
896.4000;0.2548;0.7388;
896.7000;0.2564;0.7460;
897.0000;0.2572;0.7388;
897.3000;0.2597;0.7339;
897.6000;0.2589;0.7339;
897.9000;0.2556;0.7242;
898.2000;0.2564;0.7267;
898.5000;0.2580;0.7315;
898.8000;0.2556;0.7315;
899.1000;0.2572;0.7242;
899.4000;0.2605;0.7291;
899.7000;0.2589;0.7170;
900.0000;0.2572;0.7121;
900.3000;0.2556;0.7097;
900.6000;0.2580;0.7073;
900.9000;0.2580;0.7145;
901.2000;0.2572;0.7170;
901.5000;0.2523;0.7049;
901.8000;0.2580;0.7242;
902.1000;0.2572;0.7194;
902.4000;0.2597;0.7218;
902.7000;0.2572;0.7121;
903.0000;0.2548;0.7145;
903.3000;0.2580;0.7145;
903.6000;0.2572;0.7145;
903.9000;0.2572;0.7097;
904.2000;0.2605;0.7218;
904.5000;0.2572;0.7291;
904.8000;0.2564;0.7242;
905.1000;0.2589;0.7315;
905.4000;0.2556;0.7218;
905.7000;0.2556;0.7194;
906.0000;0.2466;0.6976;
906.3000;0.2613;0.7339;
906.6000;0.2564;0.7242;
906.9000;0.2548;0.7242;
907.2000;0.2613;0.7412;
907.5000;0.2564;0.7291;
907.8000;0.2548;0.7339;
908.1000;0.2556;0.7388;
908.4000;0.2556;0.7315;
908.7000;0.2548;0.7242;
909.0000;0.2613;0.7388;
909.3000;0.2556;0.7242;
909.6000;0.2572;0.7267;
909.9000;0.2564;0.7291;
910.2000;0.2556;0.7242;
910.5000;0.2589;0.7339;
910.8000;0.2662;0.7533;
911.1000;0.2564;0.7339;
911.4000;0.2564;0.7291;
911.7000;0.2548;0.7315;
912.0000;0.2532;0.7242;
912.3000;0.2548;0.7291;
912.6000;0.2613;0.7388;
912.9000;0.2572;0.7315;
913.2000;0.2564;0.7291;
913.5000;0.2572;0.7242;
913.8000;0.2572;0.7291;
914.1000;0.2564;0.7291;
914.4000;0.2548;0.7218;
914.7000;0.2564;0.7170;
915.0000;0.2548;0.7145;
915.3000;0.2580;0.7194;
915.6000;0.2580;0.7218;
915.9000;0.2556;0.7097;
916.2000;0.2580;0.7170;
916.5000;0.2597;0.7242;
916.8000;0.2548;0.7242;
917.1000;0.2572;0.7291;
917.4000;0.2556;0.7388;
917.7000;0.2613;0.7485;
918.0000;0.2499;0.7242;
918.3000;0.2491;0.7073;
918.6000;0.2466;0.7024;
918.9000;0.2589;0.7291;
919.2000;0.2580;0.7339;
919.5000;0.2580;0.7339;
919.8000;0.2580;0.7363;
920.1000;0.2637;0.7557;
920.4000;0.2548;0.7339;
920.7000;0.2361;0.6879;
921.0000;0.2564;0.7436;
921.3000;0.2523;0.7315;
921.6000;0.2605;0.7606;
921.9000;0.2548;0.7485;
922.2000;0.2572;0.7606;
922.5000;0.2556;0.7460;
922.8000;0.2572;0.7485;
923.1000;0.2523;0.7339;
923.4000;0.2491;0.7242;
923.7000;0.2564;0.7388;
924.0000;0.2548;0.7388;
924.3000;0.2613;0.7436;
924.6000;0.2564;0.7194;
924.9000;0.2564;0.7339;
925.2000;0.2540;0.7315;
925.5000;0.2597;0.7388;
925.8000;0.2564;0.7315;
926.1000;0.2564;0.7436;
926.4000;0.2548;0.7436;
926.7000;0.2572;0.7460;
927.0000;0.2564;0.7485;
927.3000;0.2589;0.7557;
927.6000;0.2556;0.7412;
927.9000;0.2580;0.7363;
928.2000;0.2572;0.7242;
928.5000;0.2556;0.7170;
928.8000;0.2515;0.7145;
929.1000;0.2556;0.7242;
929.4000;0.2572;0.7291;
929.7000;0.2564;0.7436;
930.0000;0.2564;0.7509;
930.3000;0.2515;0.7412;
930.6000;0.2548;0.7509;
930.9000;0.2564;0.7509;
931.2000;0.2564;0.7581;
931.5000;0.2548;0.7557;
931.8000;0.2564;0.7509;
932.1000;0.2564;0.7436;
932.4000;0.2556;0.7388;
932.7000;0.2540;0.7267;
933.0000;0.2556;0.7363;
933.3000;0.2556;0.7339;
933.6000;0.2556;0.7363;
933.9000;0.2564;0.7412;
934.2000;0.2564;0.7363;
934.5000;0.2572;0.7412;
934.8000;0.2564;0.7388;
935.1000;0.2564;0.7363;
935.4000;0.2597;0.7412;
935.7000;0.2572;0.7460;
936.0000;0.2580;0.7412;
936.3000;0.2589;0.7436;
936.6000;0.2475;0.7121;
936.9000;0.2580;0.7363;
937.2000;0.2556;0.7267;
937.5000;0.2532;0.7291;
937.8000;0.2515;0.7218;
938.1000;0.2572;0.7485;
938.4000;0.2564;0.7557;
938.7000;0.2572;0.7460;
939.0000;0.2629;0.7557;
939.3000;0.2556;0.7339;
939.6000;0.2580;0.7412;
939.9000;0.2621;0.7509;
940.2000;0.2572;0.7412;
940.5000;0.2532;0.7363;
940.8000;0.2572;0.7363;
941.1000;0.2621;0.7485;
941.4000;0.2556;0.7291;
941.7000;0.2458;0.7073;
942.0000;0.2556;0.7267;
942.3000;0.2605;0.7363;
942.6000;0.2499;0.7194;
942.9000;0.2572;0.7436;
943.2000;0.2540;0.7388;
943.5000;0.2532;0.7363;
943.8000;0.2532;0.7291;
944.1000;0.2621;0.7533;
944.4000;0.2564;0.7412;
944.7000;0.2548;0.7436;
945.0000;0.2629;0.7654;
945.3000;0.2654;0.7727;
945.6000;0.2540;0.7412;
945.9000;0.2523;0.7363;
946.2000;0.2564;0.7436;
946.5000;0.2556;0.7460;
946.8000;0.2564;0.7533;
947.1000;0.2605;0.7606;
947.4000;0.2483;0.7291;
947.7000;0.2564;0.7509;
948.0000;0.2556;0.7533;
948.3000;0.2564;0.7606;
948.6000;0.2564;0.7581;
948.9000;0.2434;0.7145;
949.2000;0.2556;0.7557;
949.5000;0.2589;0.7606;
949.8000;0.2572;0.7485;
950.1000;0.2564;0.7460;
950.4000;0.2564;0.7509;
950.7000;0.2580;0.7581;
951.0000;0.2580;0.7557;
951.3000;0.2572;0.7557;
951.6000;0.2564;0.7557;
951.9000;0.2589;0.7533;
952.2000;0.2597;0.7533;
952.5000;0.2580;0.7436;
952.8000;0.2572;0.7485;
953.1000;0.2564;0.7460;
953.4000;0.2556;0.7412;
953.7000;0.2556;0.7363;
954.0000;0.2548;0.7218;
954.3000;0.2564;0.7218;
954.6000;0.2580;0.7267;
954.9000;0.2589;0.7267;
955.2000;0.2572;0.7121;
955.5000;0.2572;0.7170;
955.8000;0.2580;0.7242;
956.1000;0.2556;0.7242;
956.4000;0.2532;0.7170;
956.7000;0.2572;0.7339;
957.0000;0.2507;0.7145;
957.3000;0.2572;0.7242;
957.6000;0.2580;0.7315;
957.9000;0.2580;0.7291;
958.2000;0.2564;0.7218;
958.5000;0.2605;0.7267;
958.8000;0.2564;0.7121;
959.1000;0.2589;0.7170;
959.4000;0.2589;0.7194;
959.7000;0.2572;0.7267;
960.0000;0.2580;0.7218;
960.3000;0.2589;0.7291;
960.6000;0.2548;0.7194;
960.9000;0.2580;0.7145;
961.2000;0.2589;0.7194;
961.5000;0.2564;0.7170;
961.8000;0.2564;0.7194;
962.1000;0.2556;0.7145;
962.4000;0.2580;0.7194;
962.7000;0.2556;0.7242;
963.0000;0.2564;0.7267;
963.3000;0.2564;0.7291;
963.6000;0.2580;0.7388;
963.9000;0.2532;0.7242;
964.2000;0.2613;0.7557;
964.5000;0.2580;0.7412;
964.8000;0.2548;0.7388;
965.1000;0.2597;0.7460;
965.4000;0.2548;0.7315;
965.7000;0.2564;0.7339;
966.0000;0.2556;0.7412;
966.3000;0.2540;0.7363;
966.6000;0.2572;0.7436;
966.9000;0.2572;0.7485;
967.2000;0.2589;0.7485;
967.5000;0.2580;0.7460;
967.8000;0.2564;0.7388;
968.1000;0.2572;0.7460;
968.4000;0.2564;0.7412;
968.7000;0.2589;0.7388;
969.0000;0.2589;0.7339;
969.3000;0.2548;0.7315;
969.6000;0.2556;0.7363;
969.9000;0.2572;0.7339;
970.2000;0.2572;0.7412;
970.5000;0.2556;0.7267;
970.8000;0.2572;0.7363;
971.1000;0.2564;0.7291;
971.4000;0.2556;0.7315;
971.7000;0.2564;0.7339;
972.0000;0.2580;0.7291;
972.3000;0.2564;0.7267;
972.6000;0.2564;0.7363;
972.9000;0.2540;0.7242;
973.2000;0.2572;0.7291;
973.5000;0.2556;0.7242;
973.8000;0.2564;0.7242;
974.1000;0.2580;0.7242;
974.4000;0.2548;0.7267;
974.7000;0.2564;0.7412;
975.0000;0.2572;0.7460;
975.3000;0.2597;0.7436;
975.6000;0.2572;0.7315;
975.9000;0.2548;0.7242;
976.2000;0.2556;0.7267;
976.5000;0.2589;0.7412;
976.8000;0.2564;0.7412;
977.1000;0.2564;0.7388;
977.4000;0.2564;0.7291;
977.7000;0.2686;0.7630;
978.0000;0.2564;0.7291;
978.3000;0.2548;0.7194;
978.6000;0.2532;0.7170;
978.9000;0.2572;0.7097;
979.2000;0.2556;0.7049;
979.5000;0.2548;0.7049;
979.8000;0.2540;0.7000;
980.1000;0.2572;0.6976;
980.4000;0.2556;0.6903;
980.7000;0.2580;0.6927;
981.0000;0.2589;0.7024;
981.3000;0.2556;0.7049;
981.6000;0.2491;0.6903;
981.9000;0.2564;0.7073;
982.2000;0.2556;0.7218;
982.5000;0.2442;0.7024;
982.8000;0.2572;0.7315;
983.1000;0.2572;0.7267;
983.4000;0.2580;0.7242;
983.7000;0.2564;0.7170;
984.0000;0.2702;0.7509;
984.3000;0.2564;0.7267;
984.6000;0.2572;0.7218;
984.9000;0.2540;0.7242;
985.2000;0.2572;0.7267;
985.5000;0.2572;0.7291;
985.8000;0.2572;0.7291;
986.1000;0.2572;0.7315;
986.4000;0.2613;0.7509;
986.7000;0.2580;0.7509;
987.0000;0.2589;0.7485;
987.3000;0.2572;0.7533;
987.6000;0.2605;0.7654;
987.9000;0.2564;0.7509;
988.2000;0.2532;0.7267;
988.5000;0.2572;0.7363;
988.8000;0.2564;0.7363;
989.1000;0.2556;0.7412;
989.4000;0.2572;0.7412;
989.7000;0.2556;0.7412;
990.0000;0.2564;0.7412;
990.3000;0.2548;0.7412;
990.6000;0.2548;0.7388;
990.9000;0.2564;0.7363;
991.2000;0.2499;0.7218;
991.5000;0.2572;0.7412;
991.8000;0.2580;0.7412;
992.1000;0.2572;0.7485;
992.4000;0.2613;0.7557;
992.7000;0.2572;0.7363;
993.0000;0.2564;0.7315;
993.3000;0.2564;0.7339;
993.6000;0.2564;0.7315;
993.9000;0.2564;0.7267;
994.2000;0.2548;0.7267;
994.5000;0.2597;0.7363;
994.8000;0.2589;0.7363;
995.1000;0.2548;0.7242;
995.4000;0.2564;0.7339;
995.7000;0.2597;0.7509;
996.0000;0.2572;0.7485;
996.3000;0.2548;0.7388;
996.6000;0.2572;0.7460;
996.9000;0.2589;0.7509;
997.2000;0.2605;0.7678;
997.5000;0.2580;0.7533;
997.8000;0.2556;0.7509;
998.1000;0.2507;0.7363;
998.4000;0.2711;0.7824;
998.7000;0.2556;0.7388;
999.0000;0.2564;0.7339;
999.3000;0.2548;0.7412;
999.6000;0.2580;0.7581;
999.9000;0.2572;0.7606;
1000.2000;0.2564;0.7557;
1000.5000;0.2540;0.7388;
1000.8000;0.2572;0.7388;
1001.1000;0.2564;0.7242;
1001.4000;0.2532;0.7267;
1001.7000;0.2580;0.7412;
1002.0000;0.2572;0.7509;
1002.3000;0.2564;0.7339;
1002.6000;0.2499;0.7145;
1002.9000;0.2572;0.7339;
1003.2000;0.2556;0.7412;
1003.5000;0.2548;0.7460;
1003.8000;0.2564;0.7533;
1004.1000;0.2540;0.7460;
1004.4000;0.2646;0.7703;
1004.7000;0.2580;0.7485;
1005.0000;0.2548;0.7436;
1005.3000;0.2556;0.7388;
1005.6000;0.2646;0.7485;
1005.9000;0.2572;0.7242;
1006.2000;0.2572;0.7218;
1006.5000;0.2646;0.7436;
1006.8000;0.2556;0.7267;
1007.1000;0.2572;0.7291;
1007.4000;0.2589;0.7363;
1007.7000;0.2621;0.7460;
1008.0000;0.2564;0.7436;
1008.3000;0.2564;0.7436;
1008.6000;0.2589;0.7557;
1008.9000;0.2572;0.7460;
1009.2000;0.2564;0.7460;
1009.5000;0.2589;0.7412;
1009.8000;0.2597;0.7363;
1010.1000;0.2548;0.7194;
1010.4000;0.2556;0.7218;
1010.7000;0.2556;0.7315;
1011.0000;0.2564;0.7363;
1011.3000;0.2564;0.7267;
1011.6000;0.2556;0.7194;
1011.9000;0.2580;0.7242;
1012.2000;0.2572;0.7194;
1012.5000;0.2613;0.7291;
1012.8000;0.2564;0.7267;
1013.1000;0.2548;0.7194;
1013.4000;0.2564;0.7291;
1013.7000;0.2580;0.7291;
1014.0000;0.2564;0.7218;
1014.3000;0.2556;0.7267;
1014.6000;0.2540;0.7194;
1014.9000;0.2564;0.7218;
1015.2000;0.2694;0.7581;
1015.5000;0.2540;0.7170;
1015.8000;0.2523;0.7194;
1016.1000;0.2580;0.7436;
1016.4000;0.2572;0.7412;
1016.7000;0.2556;0.7412;
1017.0000;0.2580;0.7533;
1017.3000;0.2589;0.7485;
1017.6000;0.2580;0.7485;
1017.9000;0.2564;0.7388;
1018.2000;0.2605;0.7388;
1018.5000;0.2589;0.7315;
1018.8000;0.2589;0.7315;
1019.1000;0.2572;0.7218;
1019.4000;0.2564;0.7170;
1019.7000;0.2556;0.7145;
1020.0000;0.2572;0.7145;
1020.3000;0.2670;0.7412;
1020.6000;0.2564;0.7194;
1020.9000;0.2564;0.7242;
1021.2000;0.2556;0.7242;
1021.5000;0.2564;0.7291;
1021.8000;0.2564;0.7267;
1022.1000;0.2523;0.7194;
1022.4000;0.2564;0.7388;
1022.7000;0.2572;0.7485;
1023.0000;0.2556;0.7460;
1023.3000;0.2564;0.7460;
1023.6000;0.2564;0.7654;
1023.9000;0.2572;0.7654;
1024.2000;0.2556;0.7630;
1024.5000;0.2564;0.7581;
1024.8000;0.2523;0.7412;
1025.1000;0.2556;0.7436;
1025.4000;0.2556;0.7412;
1025.7000;0.2556;0.7412;
1026.0000;0.2564;0.7436;
1026.3000;0.2556;0.7460;
1026.6000;0.2532;0.7412;
1026.9000;0.2580;0.7557;
1027.2000;0.2564;0.7460;
1027.5000;0.2556;0.7485;
1027.8000;0.2556;0.7460;
1028.1000;0.2556;0.7436;
1028.4000;0.2556;0.7436;
1028.7000;0.2572;0.7460;
1029.0000;0.2556;0.7460;
1029.3000;0.2564;0.7533;
1029.6000;0.2572;0.7557;
1029.9000;0.2564;0.7509;
1030.2000;0.2589;0.7581;
1030.5000;0.2564;0.7485;
1030.8000;0.2572;0.7509;
1031.1000;0.2580;0.7581;
1031.4000;0.2613;0.7654;
1031.7000;0.2564;0.7436;
1032.0000;0.2597;0.7485;
1032.3000;0.2556;0.7436;
1032.6000;0.2597;0.7509;
1032.9000;0.2532;0.7315;
1033.2000;0.2548;0.7363;
1033.5000;0.2532;0.7339;
1033.8000;0.2597;0.7485;
1034.1000;0.2499;0.7242;
1034.4000;0.2597;0.7412;
1034.7000;0.2475;0.7097;
1035.0000;0.2605;0.7533;
1035.3000;0.2548;0.7460;
1035.6000;0.2564;0.7460;
1035.9000;0.2580;0.7460;
1036.2000;0.2646;0.7557;
1036.5000;0.2475;0.7000;
1036.8000;0.2580;0.7242;
1037.1000;0.2548;0.7267;
1037.4000;0.2532;0.7267;
1037.7000;0.2629;0.7509;
1038.0000;0.2564;0.7460;
1038.3000;0.2589;0.7485;
1038.6000;0.2572;0.7460;
1038.9000;0.2589;0.7509;
1039.2000;0.2629;0.7703;
1039.5000;0.2580;0.7485;
1039.8000;0.2548;0.7363;
1040.1000;0.2564;0.7436;
1040.4000;0.2589;0.7485;
1040.7000;0.2572;0.7412;
1041.0000;0.2556;0.7267;
1041.3000;0.2556;0.7267;
1041.6000;0.2548;0.7194;
1041.9000;0.2580;0.7267;
1042.2000;0.2572;0.7194;
1042.5000;0.2580;0.7218;
1042.8000;0.2580;0.7218;
1043.1000;0.2564;0.7194;
1043.4000;0.2548;0.7315;
1043.7000;0.2572;0.7363;
1044.0000;0.2589;0.7388;
1044.3000;0.2580;0.7363;
1044.6000;0.2564;0.7388;
1044.9000;0.2580;0.7436;
1045.2000;0.2564;0.7363;
1045.5000;0.2572;0.7509;
1045.8000;0.2572;0.7509;
1046.1000;0.2605;0.7533;
1046.4000;0.2556;0.7412;
1046.7000;0.2580;0.7509;
1047.0000;0.2580;0.7533;
1047.3000;0.2450;0.7145;
1047.6000;0.2580;0.7533;
1047.9000;0.2580;0.7557;
1048.2000;0.2572;0.7557;
1048.5000;0.2613;0.7606;
1048.8000;0.2572;0.7388;
1049.1000;0.2580;0.7291;
1049.4000;0.2589;0.7460;
1049.7000;0.2580;0.7436;
1050.0000;0.2548;0.7363;
1050.3000;0.2564;0.7339;
1050.6000;0.2613;0.7388;
1050.9000;0.2532;0.7242;
1051.2000;0.2548;0.7242;
1051.5000;0.2572;0.7363;
1051.8000;0.2572;0.7339;
1052.1000;0.2548;0.7242;
1052.4000;0.2572;0.7315;
1052.7000;0.2556;0.7267;
1053.0000;0.2597;0.7242;
1053.3000;0.2580;0.7170;
1053.6000;0.2572;0.7218;
1053.9000;0.2572;0.7097;
1054.2000;0.2572;0.7145;
1054.5000;0.2572;0.7242;
1054.8000;0.2580;0.7267;
1055.1000;0.2564;0.7267;
1055.4000;0.2564;0.7218;
1055.7000;0.2556;0.7267;
1056.0000;0.2597;0.7363;
1056.3000;0.2556;0.7339;
1056.6000;0.2548;0.7267;
1056.9000;0.2523;0.7194;
1057.2000;0.2597;0.7412;
1057.5000;0.2564;0.7267;
1057.8000;0.2556;0.7218;
1058.1000;0.2597;0.7315;
1058.4000;0.2556;0.7194;
1058.7000;0.2564;0.7121;
1059.0000;0.2572;0.7145;
1059.3000;0.2572;0.7097;
1059.6000;0.2597;0.7170;
1059.9000;0.2564;0.7097;
1060.2000;0.2589;0.7121;
1060.5000;0.2564;0.7073;
1060.8000;0.2572;0.7000;
1061.1000;0.2597;0.7049;
1061.4000;0.2556;0.6976;
1061.7000;0.2629;0.7121;
1062.0000;0.2572;0.6976;
1062.3000;0.2572;0.6976;
1062.6000;0.2580;0.7024;
1062.9000;0.2556;0.7024;
1063.2000;0.2572;0.7121;
1063.5000;0.2589;0.7170;
1063.8000;0.2572;0.7170;
1064.1000;0.2580;0.7218;
1064.4000;0.2572;0.7121;
1064.7000;0.2572;0.7121;
1065.0000;0.2589;0.7170;
1065.3000;0.2564;0.7194;
1065.6000;0.2597;0.7291;
1065.9000;0.2540;0.7145;
1066.2000;0.2556;0.7170;
1066.5000;0.2556;0.7121;
1066.8000;0.2564;0.7194;
1067.1000;0.2580;0.7218;
1067.4000;0.2572;0.7291;
1067.7000;0.2540;0.7218;
1068.0000;0.2564;0.7291;
1068.3000;0.2678;0.7460;
1068.6000;0.2564;0.7145;
1068.9000;0.2556;0.7097;
1069.2000;0.2580;0.7170;
1069.5000;0.2540;0.7073;
1069.8000;0.2572;0.7218;
1070.1000;0.2597;0.7218;
1070.4000;0.2564;0.7170;
1070.7000;0.2564;0.7315;
1071.0000;0.2564;0.7291;
1071.3000;0.2580;0.7363;
1071.6000;0.2532;0.7218;
1071.9000;0.2564;0.7315;
1072.2000;0.2572;0.7388;
1072.5000;0.2597;0.7291;
1072.8000;0.2572;0.7194;
1073.1000;0.2572;0.7194;
1073.4000;0.2580;0.7267;
1073.7000;0.2580;0.7267;
1074.0000;0.2580;0.7218;
1074.3000;0.2564;0.7121;
1074.6000;0.2654;0.7339;
1074.9000;0.2580;0.7194;
1075.2000;0.2572;0.7170;
1075.5000;0.2572;0.7121;
1075.8000;0.2589;0.7170;
1076.1000;0.2580;0.7170;
1076.4000;0.2564;0.7194;
1076.7000;0.2556;0.7194;
1077.0000;0.2532;0.7121;
1077.3000;0.2556;0.7170;
1077.6000;0.2564;0.7291;
1077.9000;0.2572;0.7218;
1078.2000;0.2556;0.7170;
1078.5000;0.2564;0.7170;
1078.8000;0.2613;0.7291;
1079.1000;0.2556;0.7145;
1079.4000;0.2564;0.7242;
1079.7000;0.2564;0.7267;
1080.0000;0.2629;0.7339;
1080.3000;0.2556;0.7194;
1080.6000;0.2564;0.7218;
1080.9000;0.2637;0.7363;
1081.2000;0.2589;0.7315;
1081.5000;0.2540;0.7145;
1081.8000;0.2556;0.7145;
1082.1000;0.2556;0.7097;
1082.4000;0.2580;0.7145;
1082.7000;0.2589;0.7242;
1083.0000;0.2589;0.7267;
1083.3000;0.2548;0.7170;
1083.6000;0.2589;0.7315;
1083.9000;0.2580;0.7315;
1084.2000;0.2564;0.7339;
1084.5000;0.2589;0.7412;
1084.8000;0.2580;0.7388;
1085.1000;0.2580;0.7339;
1085.4000;0.2572;0.7291;
1085.7000;0.2564;0.7291;
1086.0000;0.2580;0.7291;
1086.3000;0.2580;0.7267;
1086.6000;0.2580;0.7242;
1086.9000;0.2564;0.7218;
1087.2000;0.2458;0.6927;
1087.5000;0.2572;0.7145;
1087.8000;0.2572;0.7121;
1088.1000;0.2564;0.7170;
1088.4000;0.2580;0.7218;
1088.7000;0.2556;0.7145;
1089.0000;0.2580;0.7242;
1089.3000;0.2605;0.7363;
1089.6000;0.2564;0.7121;
1089.9000;0.2564;0.7121;
1090.2000;0.2564;0.7218;
1090.5000;0.2556;0.7242;
1090.8000;0.2589;0.7291;
1091.1000;0.2548;0.7194;
1091.4000;0.2564;0.7145;
1091.7000;0.2572;0.7145;
1092.0000;0.2580;0.7218;
1092.3000;0.2572;0.7267;
1092.6000;0.2580;0.7267;
1092.9000;0.2572;0.7194;
1093.2000;0.2556;0.7267;
1093.5000;0.2629;0.7339;
1093.8000;0.2548;0.7291;
1094.1000;0.2556;0.7363;
1094.4000;0.2572;0.7267;
1094.7000;0.2556;0.7267;
1095.0000;0.2564;0.7291;
1095.3000;0.2580;0.7291;
1095.6000;0.2589;0.7291;
1095.9000;0.2564;0.7242;
1096.2000;0.2556;0.7218;
1096.5000;0.2564;0.7145;
1096.8000;0.2572;0.7194;
1097.1000;0.2564;0.7267;
1097.4000;0.2580;0.7218;
1097.7000;0.2556;0.7121;
1098.0000;0.2572;0.7267;
1098.3000;0.2572;0.7242;
1098.6000;0.2597;0.7339;
1098.9000;0.2564;0.7291;
1099.2000;0.2556;0.7267;
1099.5000;0.2589;0.7315;
1099.8000;0.2564;0.7339;
1100.1000;0.2580;0.7339;
1100.4000;0.2580;0.7388;
1100.7000;0.2556;0.7291;
1101.0000;0.2556;0.7363;
1101.3000;0.2597;0.7412;
1101.6000;0.2564;0.7218;
1101.9000;0.2589;0.7267;
1102.2000;0.2548;0.7194;
1102.5000;0.2564;0.7291;
1102.8000;0.2572;0.7388;
1103.1000;0.2580;0.7339;
1103.4000;0.2580;0.7315;
1103.7000;0.2564;0.7363;
1104.0000;0.2572;0.7412;
1104.3000;0.2572;0.7436;
1104.6000;0.2580;0.7339;
1104.9000;0.2564;0.7315;
1105.2000;0.2572;0.7242;
1105.5000;0.2491;0.6976;
1105.8000;0.2564;0.7194;
1106.1000;0.2564;0.7170;
1106.4000;0.2515;0.7073;
1106.7000;0.2564;0.7242;
1107.0000;0.2556;0.7218;
1107.3000;0.2556;0.7194;
1107.6000;0.2637;0.7315;
1107.9000;0.2580;0.7073;
1108.2000;0.2580;0.7170;
1108.5000;0.2572;0.7170;
1108.8000;0.2564;0.7097;
1109.1000;0.2572;0.7024;
1109.4000;0.2572;0.7049;
1109.7000;0.2572;0.7097;
1110.0000;0.2572;0.7073;
1110.3000;0.2589;0.7145;
1110.6000;0.2597;0.7194;
1110.9000;0.2572;0.7170;
1111.2000;0.2589;0.7267;
1111.5000;0.2589;0.7291;
1111.8000;0.2564;0.7339;
1112.1000;0.2580;0.7388;
1112.4000;0.2564;0.7339;
1112.7000;0.2564;0.7315;
1113.0000;0.2580;0.7388;
1113.3000;0.2580;0.7436;
1113.6000;0.2572;0.7363;
1113.9000;0.2564;0.7291;
1114.2000;0.2564;0.7194;
1114.5000;0.2564;0.7121;
1114.8000;0.2580;0.7097;
1115.1000;0.2572;0.7145;
1115.4000;0.2572;0.7121;
1115.7000;0.2564;0.7121;
1116.0000;0.2597;0.7218;
1116.3000;0.2572;0.7097;
1116.6000;0.2564;0.7097;
1116.9000;0.2572;0.7218;
1117.2000;0.2572;0.7145;
1117.5000;0.2548;0.7097;
1117.8000;0.2556;0.7170;
1118.1000;0.2564;0.7170;
1118.4000;0.2572;0.7170;
1118.7000;0.2556;0.7170;
1119.0000;0.2548;0.7194;
1119.3000;0.2572;0.7218;
1119.6000;0.2580;0.7242;
1119.9000;0.2556;0.7315;
1120.2000;0.2540;0.7218;
1120.5000;0.2572;0.7339;
1120.8000;0.2540;0.7267;
1121.1000;0.2580;0.7412;
1121.4000;0.2572;0.7363;
1121.7000;0.2572;0.7388;
1122.0000;0.2540;0.7339;
1122.3000;0.2466;0.7073;
1122.6000;0.2572;0.7267;
1122.9000;0.2523;0.7073;
1123.2000;0.2580;0.7218;
1123.5000;0.2564;0.7170;
1123.8000;0.2580;0.7218;
1124.1000;0.2564;0.7218;
1124.4000;0.2532;0.7194;
1124.7000;0.2572;0.7291;
1125.0000;0.2466;0.7024;
1125.3000;0.2589;0.7388;
1125.6000;0.2548;0.7315;
1125.9000;0.2621;0.7509;
1126.2000;0.2589;0.7388;
1126.5000;0.2637;0.7581;
1126.8000;0.2589;0.7509;
1127.1000;0.2572;0.7460;
1127.4000;0.2556;0.7363;
1127.7000;0.2564;0.7291;
1128.0000;0.2483;0.7073;
1128.3000;0.2548;0.7291;
1128.6000;0.2564;0.7436;
1128.9000;0.2572;0.7509;
1129.2000;0.2532;0.7363;
1129.5000;0.2548;0.7412;
1129.8000;0.2532;0.7363;
1130.1000;0.2556;0.7412;
1130.4000;0.2564;0.7509;
1130.7000;0.2540;0.7509;
1131.0000;0.2548;0.7509;
1131.3000;0.2589;0.7606;
1131.6000;0.2572;0.7557;
1131.9000;0.2572;0.7557;
1132.2000;0.2589;0.7606;
1132.5000;0.2589;0.7509;
1132.8000;0.2564;0.7485;
1133.1000;0.2589;0.7509;
1133.4000;0.2564;0.7388;
1133.7000;0.2572;0.7339;
1134.0000;0.2572;0.7339;
1134.3000;0.2564;0.7315;
1134.6000;0.2548;0.7267;
1134.9000;0.2572;0.7315;
1135.2000;0.2572;0.7291;
1135.5000;0.2572;0.7315;
1135.8000;0.2564;0.7267;
1136.1000;0.2572;0.7363;
1136.4000;0.2637;0.7533;
1136.7000;0.2572;0.7339;
1137.0000;0.2580;0.7363;
1137.3000;0.2523;0.7194;
1137.6000;0.2580;0.7291;
1137.9000;0.2589;0.7363;
1138.2000;0.2556;0.7267;
1138.5000;0.2589;0.7339;
1138.8000;0.2564;0.7218;
1139.1000;0.2597;0.7412;
1139.4000;0.2564;0.7267;
1139.7000;0.2556;0.7291;
1140.0000;0.2556;0.7145;
1140.3000;0.2597;0.7170;
1140.6000;0.2556;0.7267;
1140.9000;0.2564;0.7218;
1141.2000;0.2589;0.7242;
1141.5000;0.2572;0.7242;
1141.8000;0.2564;0.7242;
1142.1000;0.2589;0.7363;
1142.4000;0.2580;0.7412;
1142.7000;0.2572;0.7388;
1143.0000;0.2572;0.7363;
1143.3000;0.2548;0.7388;
1143.6000;0.2548;0.7460;
1143.9000;0.2589;0.7509;
1144.2000;0.2564;0.7460;
1144.5000;0.2532;0.7388;
1144.8000;0.2532;0.7412;
1145.1000;0.2515;0.7339;
1145.4000;0.2572;0.7485;
1145.7000;0.2564;0.7485;
1146.0000;0.2572;0.7581;
1146.3000;0.2564;0.7678;
1146.6000;0.2564;0.7775;
1146.9000;0.2621;0.7896;
1147.2000;0.2572;0.7799;
1147.5000;0.2589;0.7775;
1147.8000;0.2564;0.7703;
1148.1000;0.2523;0.7606;
1148.4000;0.2572;0.7678;
1148.7000;0.2564;0.7630;
1149.0000;0.2540;0.7630;
1149.3000;0.2621;0.7775;
1149.6000;0.2580;0.7751;
1149.9000;0.2515;0.7581;
1150.2000;0.2475;0.7363;
1150.5000;0.2580;0.7630;
1150.8000;0.2475;0.7363;
1151.1000;0.2572;0.7678;
1151.4000;0.2556;0.7581;
1151.7000;0.2580;0.7485;
1152.0000;0.2572;0.7485;
1152.3000;0.2589;0.7533;
1152.6000;0.2572;0.7485;
1152.9000;0.2564;0.7509;
1153.2000;0.2466;0.7267;
1153.5000;0.2589;0.7630;
1153.8000;0.2532;0.7557;
1154.1000;0.2580;0.7630;
1154.4000;0.2564;0.7654;
1154.7000;0.2548;0.7533;
1155.0000;0.2564;0.7557;
1155.3000;0.2564;0.7606;
1155.6000;0.2572;0.7751;
1155.9000;0.2572;0.7775;
1156.2000;0.2564;0.7678;
1156.5000;0.2564;0.7630;
1156.8000;0.2597;0.7678;
1157.1000;0.2556;0.7581;
1157.4000;0.2572;0.7581;
1157.7000;0.2556;0.7581;
1158.0000;0.2589;0.7654;
1158.3000;0.2564;0.7630;
1158.6000;0.2564;0.7630;
1158.9000;0.2572;0.7581;
1159.2000;0.2572;0.7509;
1159.5000;0.2572;0.7509;
1159.8000;0.2564;0.7533;
1160.1000;0.2589;0.7581;
1160.4000;0.2564;0.7485;
1160.7000;0.2580;0.7412;
1161.0000;0.2580;0.7485;
1161.3000;0.2564;0.7509;
1161.6000;0.2605;0.7606;
1161.9000;0.2589;0.7581;
1162.2000;0.2580;0.7654;
1162.5000;0.2572;0.7509;
1162.8000;0.2564;0.7533;
1163.1000;0.2564;0.7412;
1163.4000;0.2629;0.7606;
1163.7000;0.2580;0.7436;
1164.0000;0.2564;0.7436;
1164.3000;0.2580;0.7509;
1164.6000;0.2580;0.7606;
1164.9000;0.2564;0.7509;
1165.2000;0.2523;0.7485;
1165.5000;0.2564;0.7533;
1165.8000;0.2580;0.7606;
1166.1000;0.2564;0.7581;
1166.4000;0.2572;0.7678;
1166.7000;0.2572;0.7630;
1167.0000;0.2564;0.7533;
1167.3000;0.2589;0.7509;
1167.6000;0.2572;0.7533;
1167.9000;0.2589;0.7509;
1168.2000;0.2580;0.7485;
1168.5000;0.2572;0.7557;
1168.8000;0.2572;0.7630;
1169.1000;0.2589;0.7630;
1169.4000;0.2621;0.7799;
1169.7000;0.2572;0.7581;
1170.0000;0.2499;0.7315;
1170.3000;0.2572;0.7606;
1170.6000;0.2572;0.7581;
1170.9000;0.2589;0.7581;
1171.2000;0.2589;0.7581;
1171.5000;0.2556;0.7485;
1171.8000;0.2540;0.7412;
1172.1000;0.2580;0.7436;
1172.4000;0.2597;0.7412;
1172.7000;0.2572;0.7388;
1173.0000;0.2605;0.7557;
1173.3000;0.2572;0.7509;
1173.6000;0.2580;0.7436;
1173.9000;0.2580;0.7436;
1174.2000;0.2613;0.7509;
1174.5000;0.2572;0.7436;
1174.8000;0.2556;0.7485;
1175.1000;0.2572;0.7557;
1175.4000;0.2564;0.7533;
1175.7000;0.2564;0.7606;
1176.0000;0.2556;0.7533;
1176.3000;0.2637;0.7703;
1176.6000;0.2564;0.7533;
1176.9000;0.2589;0.7630;
1177.2000;0.2564;0.7485;
1177.5000;0.2572;0.7485;
1177.8000;0.2564;0.7533;
1178.1000;0.2532;0.7436;
1178.4000;0.2548;0.7485;
1178.7000;0.2572;0.7485;
1179.0000;0.2572;0.7436;
1179.3000;0.2572;0.7412;
1179.6000;0.2580;0.7460;
1179.9000;0.2572;0.7509;
1180.2000;0.2572;0.7509;
1180.5000;0.2572;0.7533;
1180.8000;0.2556;0.7485;
1181.1000;0.2589;0.7509;
1181.4000;0.2572;0.7485;
1181.7000;0.2548;0.7460;
1182.0000;0.2589;0.7533;
1182.3000;0.2532;0.7412;
1182.6000;0.2564;0.7557;
1182.9000;0.2556;0.7460;
1183.2000;0.2572;0.7533;
1183.5000;0.2556;0.7436;
1183.8000;0.2589;0.7485;
1184.1000;0.2580;0.7363;
1184.4000;0.2458;0.7024;
1184.7000;0.2572;0.7339;
1185.0000;0.2572;0.7363;
1185.3000;0.2507;0.7267;
1185.6000;0.2580;0.7388;
1185.9000;0.2540;0.7267;
1186.2000;0.2556;0.7315;
1186.5000;0.2556;0.7315;
1186.8000;0.2564;0.7363;
1187.1000;0.2572;0.7509;
1187.4000;0.2556;0.7412;
1187.7000;0.2564;0.7388;
1188.0000;0.2572;0.7436;
1188.3000;0.2572;0.7509;
1188.6000;0.2572;0.7533;
1188.9000;0.2580;0.7557;
1189.2000;0.2572;0.7533;
1189.5000;0.2491;0.7339;
1189.8000;0.2572;0.7485;
1190.1000;0.2564;0.7436;
1190.4000;0.2564;0.7363;
1190.7000;0.2572;0.7412;
1191.0000;0.2564;0.7412;
1191.3000;0.2629;0.7557;
1191.6000;0.2580;0.7412;
1191.9000;0.2564;0.7412;
1192.2000;0.2572;0.7315;
1192.5000;0.2572;0.7315;
1192.8000;0.2589;0.7315;
1193.1000;0.2597;0.7339;
1193.4000;0.2564;0.7218;
1193.7000;0.2580;0.7145;
1194.0000;0.2613;0.7194;
1194.3000;0.2572;0.7145;
1194.6000;0.2580;0.7267;
1194.9000;0.2458;0.7073;
1195.2000;0.2629;0.7533;
1195.5000;0.2572;0.7291;
1195.8000;0.2605;0.7339;
1196.1000;0.2572;0.7242;
1196.4000;0.2580;0.7388;
1196.7000;0.2572;0.7436;
1197.0000;0.2564;0.7436;
1197.3000;0.2605;0.7533;
1197.6000;0.2572;0.7436;
1197.9000;0.2589;0.7460;
1198.2000;0.2507;0.7121;
1198.5000;0.2556;0.7291;
1198.8000;0.2548;0.7242;
1199.1000;0.2580;0.7291;
1199.4000;0.2564;0.7242;
1199.7000;0.2572;0.7218;
1200.0000;0.2564;0.7194;
1200.3000;0.2605;0.7339;
1200.6000;0.2564;0.7291;
1200.9000;0.2572;0.7242;
1201.2000;0.2662;0.7388;
1201.5000;0.2564;0.7218;
1201.8000;0.2580;0.7242;
1202.1000;0.2572;0.7194;
1202.4000;0.2572;0.7194;
1202.7000;0.2564;0.7121;
1203.0000;0.2507;0.6976;
1203.3000;0.2556;0.7170;
1203.6000;0.2564;0.7218;
1203.9000;0.2564;0.7170;
1204.2000;0.2589;0.7242;
1204.5000;0.2572;0.7218;
1204.8000;0.2580;0.7267;
1205.1000;0.2564;0.7194;
1205.4000;0.2564;0.7145;
1205.7000;0.2580;0.7291;
1206.0000;0.2580;0.7267;
1206.3000;0.2548;0.7170;
1206.6000;0.2564;0.7315;
1206.9000;0.2548;0.7315;
1207.2000;0.2589;0.7315;
1207.5000;0.2597;0.7315;
1207.8000;0.2564;0.7267;
1208.1000;0.2572;0.7242;
1208.4000;0.2580;0.7315;
1208.7000;0.2564;0.7339;
1209.0000;0.2564;0.7363;
1209.3000;0.2523;0.7218;
1209.6000;0.2572;0.7339;
1209.9000;0.2572;0.7388;
1210.2000;0.2580;0.7412;
1210.5000;0.2605;0.7388;
1210.8000;0.2564;0.7242;
1211.1000;0.2572;0.7242;
1211.4000;0.2548;0.7170;
1211.7000;0.2572;0.7267;
1212.0000;0.2564;0.7339;
1212.3000;0.2556;0.7267;
1212.6000;0.2548;0.7170;
1212.9000;0.2564;0.7242;
1213.2000;0.2556;0.7218;
1213.5000;0.2580;0.7242;
1213.8000;0.2564;0.7242;
1214.1000;0.2589;0.7363;
1214.4000;0.2540;0.7291;
1214.7000;0.2572;0.7339;
1215.0000;0.2556;0.7291;
1215.3000;0.2589;0.7339;
1215.6000;0.2564;0.7412;
1215.9000;0.2564;0.7363;
1216.2000;0.2564;0.7315;
1216.5000;0.2564;0.7363;
1216.8000;0.2580;0.7388;
1217.1000;0.2572;0.7388;
1217.4000;0.2572;0.7388;
1217.7000;0.2556;0.7339;
1218.0000;0.2556;0.7242;
1218.3000;0.2580;0.7267;
1218.6000;0.2548;0.7267;
1218.9000;0.2556;0.7267;
1219.2000;0.2572;0.7436;
1219.5000;0.2556;0.7363;
1219.8000;0.2597;0.7460;
1220.1000;0.2605;0.7509;
1220.4000;0.2564;0.7485;
1220.7000;0.2572;0.7606;
1221.0000;0.2564;0.7509;
1221.3000;0.2572;0.7436;
1221.6000;0.2564;0.7485;
1221.9000;0.2580;0.7436;
1222.2000;0.2572;0.7412;
1222.5000;0.2572;0.7460;
1222.8000;0.2564;0.7436;
1223.1000;0.2540;0.7388;
1223.4000;0.2556;0.7363;
1223.7000;0.2515;0.7267;
1224.0000;0.2466;0.7194;
1224.3000;0.2564;0.7485;
1224.6000;0.2564;0.7509;
1224.9000;0.2572;0.7460;
1225.2000;0.2580;0.7460;
1225.5000;0.2556;0.7388;
1225.8000;0.2678;0.7630;
1226.1000;0.2572;0.7436;
1226.4000;0.2572;0.7363;
1226.7000;0.2556;0.7339;
1227.0000;0.2564;0.7339;
1227.3000;0.2572;0.7388;
1227.6000;0.2580;0.7315;
1227.9000;0.2556;0.7242;
1228.2000;0.2556;0.7315;
1228.5000;0.2572;0.7339;
1228.8000;0.2580;0.7485;
1229.1000;0.2564;0.7509;
1229.4000;0.2564;0.7460;
1229.7000;0.2597;0.7509;
1230.0000;0.2589;0.7436;
1230.3000;0.2580;0.7388;
1230.6000;0.2572;0.7485;
1230.9000;0.2597;0.7485;
1231.2000;0.2597;0.7412;
1231.5000;0.2564;0.7363;
1231.8000;0.2580;0.7412;
1232.1000;0.2556;0.7485;
1232.4000;0.2572;0.7557;
1232.7000;0.2532;0.7388;
1233.0000;0.2564;0.7533;
1233.3000;0.2572;0.7533;
1233.6000;0.2466;0.7267;
1233.9000;0.2654;0.7678;
1234.2000;0.2564;0.7315;
1234.5000;0.2589;0.7315;
1234.8000;0.2589;0.7363;
1235.1000;0.2556;0.7363;
1235.4000;0.2572;0.7339;
1235.7000;0.2580;0.7412;
1236.0000;0.2580;0.7363;
1236.3000;0.2540;0.7218;
1236.6000;0.2564;0.7267;
1236.9000;0.2556;0.7170;
1237.2000;0.2564;0.7267;
1237.5000;0.2572;0.7315;
1237.8000;0.2532;0.7170;
1238.1000;0.2564;0.7267;
1238.4000;0.2458;0.7000;
1238.7000;0.2564;0.7242;
1239.0000;0.2613;0.7485;
1239.3000;0.2515;0.7218;
1239.6000;0.2572;0.7339;
1239.9000;0.2572;0.7363;
1240.2000;0.2580;0.7485;
1240.5000;0.2572;0.7509;
1240.8000;0.2572;0.7412;
1241.1000;0.2613;0.7533;
1241.4000;0.2556;0.7363;
1241.7000;0.2572;0.7412;
1242.0000;0.2564;0.7315;
1242.3000;0.2556;0.7339;
1242.6000;0.2629;0.7509;
1242.9000;0.2572;0.7412;
1243.2000;0.2564;0.7339;
1243.5000;0.2589;0.7339;
1243.8000;0.2580;0.7267;
1244.1000;0.2385;0.6613;
1244.4000;0.2589;0.7145;
1244.7000;0.2621;0.7315;
1245.0000;0.2548;0.7170;
1245.3000;0.2589;0.7315;
1245.6000;0.2629;0.7460;
1245.9000;0.2589;0.7436;
1246.2000;0.2694;0.7703;
1246.5000;0.2662;0.7557;
1246.8000;0.2564;0.7291;
1247.1000;0.2515;0.7218;
1247.4000;0.2556;0.7315;
1247.7000;0.2523;0.7242;
1248.0000;0.2564;0.7242;
1248.3000;0.2556;0.7242;
1248.6000;0.2540;0.7291;
1248.9000;0.2572;0.7339;
1249.2000;0.2572;0.7242;
1249.5000;0.2589;0.7267;
1249.8000;0.2564;0.7194;
1250.1000;0.2556;0.7170;
1250.4000;0.2556;0.7218;
1250.7000;0.2580;0.7267;
1251.0000;0.2540;0.7267;
1251.3000;0.2564;0.7218;
1251.6000;0.2605;0.7315;
1251.9000;0.2589;0.7194;
1252.2000;0.2580;0.7145;
1252.5000;0.2589;0.7194;
1252.8000;0.2605;0.7291;
1253.1000;0.2572;0.7097;
1253.4000;0.2556;0.7049;
1253.7000;0.2580;0.7145;
1254.0000;0.2572;0.7145;
1254.3000;0.2564;0.7121;
1254.6000;0.2532;0.7073;
1254.9000;0.2572;0.7194;
1255.2000;0.2564;0.7218;
1255.5000;0.2637;0.7388;
1255.8000;0.2556;0.7291;
1256.1000;0.2564;0.7339;
1256.4000;0.2580;0.7363;
1256.7000;0.2605;0.7460;
1257.0000;0.2572;0.7412;
1257.3000;0.2572;0.7412;
1257.6000;0.2686;0.7703;
1257.9000;0.2589;0.7509;
1258.2000;0.2572;0.7460;
1258.5000;0.2523;0.7339;
1258.8000;0.2564;0.7436;
1259.1000;0.2556;0.7412;
1259.4000;0.2589;0.7485;
1259.7000;0.2580;0.7363;
1260.0000;0.2556;0.7412;
1260.3000;0.2572;0.7509;
1260.6000;0.2556;0.7436;
1260.9000;0.2572;0.7436;
1261.2000;0.2532;0.7339;
1261.5000;0.2597;0.7557;
1261.8000;0.2589;0.7557;
1262.1000;0.2605;0.7533;
1262.4000;0.2580;0.7412;
1262.7000;0.2580;0.7436;
1263.0000;0.2580;0.7412;
1263.3000;0.2589;0.7485;
1263.6000;0.2564;0.7436;
1263.9000;0.2597;0.7460;
1264.2000;0.2605;0.7557;
1264.5000;0.2556;0.7485;
1264.8000;0.2580;0.7460;
1265.1000;0.2589;0.7557;
1265.4000;0.2597;0.7581;
1265.7000;0.2564;0.7460;
1266.0000;0.2572;0.7460;
1266.3000;0.2556;0.7339;
1266.6000;0.2580;0.7388;
1266.9000;0.2572;0.7388;
1267.2000;0.2580;0.7412;
1267.5000;0.2572;0.7363;
1267.8000;0.2597;0.7388;
1268.1000;0.2564;0.7388;
1268.4000;0.2662;0.7606;
1268.7000;0.2605;0.7412;
1269.0000;0.2597;0.7339;
1269.3000;0.2613;0.7412;
1269.6000;0.2556;0.7242;
1269.9000;0.2556;0.7194;
1270.2000;0.2515;0.7049;
1270.5000;0.2540;0.7073;
1270.8000;0.2580;0.7242;
1271.1000;0.2556;0.7170;
1271.4000;0.2580;0.7194;
1271.7000;0.2580;0.7194;
1272.0000;0.2572;0.7315;
1272.3000;0.2564;0.7315;
1272.6000;0.2564;0.7339;
1272.9000;0.2540;0.7315;
1273.2000;0.2589;0.7436;
1273.5000;0.2556;0.7339;
1273.8000;0.2580;0.7388;
1274.1000;0.2572;0.7267;
1274.4000;0.2572;0.7267;
1274.7000;0.2540;0.7242;
1275.0000;0.2556;0.7267;
1275.3000;0.2556;0.7267;
1275.6000;0.2589;0.7436;
1275.9000;0.2580;0.7485;
1276.2000;0.2564;0.7436;
1276.5000;0.2597;0.7460;
1276.8000;0.2580;0.7533;
1277.1000;0.2605;0.7485;
1277.4000;0.2556;0.7412;
1277.7000;0.2572;0.7388;
1278.0000;0.2589;0.7436;
1278.3000;0.2621;0.7509;
1278.6000;0.2572;0.7339;
1278.9000;0.2540;0.7315;
1279.2000;0.2589;0.7509;
1279.5000;0.2621;0.7557;
1279.8000;0.2556;0.7509;
1280.1000;0.2556;0.7485;
1280.4000;0.2548;0.7485;
1280.7000;0.2572;0.7533;
1281.0000;0.2466;0.7194;
1281.3000;0.2572;0.7485;
1281.6000;0.2434;0.7049;
1281.9000;0.2589;0.7533;
1282.2000;0.2597;0.7606;
1282.5000;0.2597;0.7606;
1282.8000;0.2621;0.7678;
1283.1000;0.2580;0.7557;
1283.4000;0.2580;0.7509;
1283.7000;0.2556;0.7412;
1284.0000;0.2540;0.7436;
1284.3000;0.2507;0.7315;
1284.6000;0.2548;0.7436;
1284.9000;0.2580;0.7557;
1285.2000;0.2580;0.7557;
1285.5000;0.2686;0.7824;
1285.8000;0.2589;0.7412;
1286.1000;0.2605;0.7485;
1286.4000;0.2572;0.7315;
1286.7000;0.2580;0.7242;
1287.0000;0.2589;0.7218;
1287.3000;0.2605;0.7218;
1287.6000;0.2540;0.7024;
1287.9000;0.2589;0.7170;
1288.2000;0.2572;0.7170;
1288.5000;0.2564;0.7073;
1288.8000;0.2572;0.7073;
1289.1000;0.2450;0.6782;
1289.4000;0.2580;0.7121;
1289.7000;0.2572;0.7073;
1290.0000;0.2572;0.7170;
1290.3000;0.2572;0.7170;
1290.6000;0.2564;0.7170;
1290.9000;0.2540;0.7097;
1291.2000;0.2572;0.7170;
1291.5000;0.2580;0.7194;
1291.8000;0.2597;0.7242;
1292.1000;0.2572;0.7194;
1292.4000;0.2532;0.7242;
1292.7000;0.2580;0.7388;
1293.0000;0.2621;0.7460;
1293.3000;0.2564;0.7412;
1293.6000;0.2580;0.7509;
1293.9000;0.2564;0.7533;
1294.2000;0.2629;0.7581;
1294.5000;0.2564;0.7460;
1294.8000;0.2564;0.7509;
1295.1000;0.2564;0.7460;
1295.4000;0.2532;0.7363;
1295.7000;0.2548;0.7412;
1296.0000;0.2572;0.7412;
1296.3000;0.2572;0.7436;
1296.6000;0.2564;0.7339;
1296.9000;0.2572;0.7412;
1297.2000;0.2580;0.7509;
1297.5000;0.2572;0.7485;
1297.8000;0.2572;0.7509;
1298.1000;0.2564;0.7412;
1298.4000;0.2564;0.7363;
1298.7000;0.2580;0.7388;
1299.0000;0.2572;0.7363;
1299.3000;0.2564;0.7315;
1299.6000;0.2572;0.7339;
1299.9000;0.2548;0.7291;
1300.2000;0.2572;0.7509;
1300.5000;0.2646;0.7581;
1300.8000;0.2572;0.7315;
1301.1000;0.2589;0.7339;
1301.4000;0.2564;0.7218;
1301.7000;0.2605;0.7267;
1302.0000;0.2572;0.7218;
1302.3000;0.2580;0.7170;
1302.6000;0.2572;0.7121;
1302.9000;0.2580;0.7024;
1303.2000;0.2564;0.7024;
1303.5000;0.2572;0.7049;
1303.8000;0.2580;0.7170;
1304.1000;0.2597;0.7267;
1304.4000;0.2548;0.7218;
1304.7000;0.2564;0.7267;
1305.0000;0.2556;0.7170;
1305.3000;0.2580;0.7242;
1305.6000;0.2556;0.7218;
1305.9000;0.2556;0.7242;
1306.2000;0.2572;0.7218;
1306.5000;0.2589;0.7218;
1306.8000;0.2564;0.7097;
1307.1000;0.2564;0.7170;
1307.4000;0.2556;0.7194;
1307.7000;0.2556;0.7315;
1308.0000;0.2572;0.7267;
1308.3000;0.2597;0.7339;
1308.6000;0.2678;0.7509;
1308.9000;0.2572;0.7291;
1309.2000;0.2572;0.7315;
1309.5000;0.2572;0.7242;
1309.8000;0.2580;0.7242;
1310.1000;0.2646;0.7460;
1310.4000;0.2580;0.7267;
1310.7000;0.2572;0.7194;
1311.0000;0.2515;0.7049;
1311.3000;0.2572;0.7121;
1311.6000;0.2580;0.7121;
1311.9000;0.2580;0.7145;
1312.2000;0.2580;0.7170;
1312.5000;0.2580;0.7170;
1312.8000;0.2580;0.7194;
1313.1000;0.2654;0.7363;
1313.4000;0.2523;0.7194;
1313.7000;0.2589;0.7388;
1314.0000;0.2580;0.7412;
1314.3000;0.2564;0.7412;
1314.6000;0.2564;0.7339;
1314.9000;0.2556;0.7267;
1315.2000;0.2564;0.7242;
1315.5000;0.2613;0.7436;
1315.8000;0.2580;0.7388;
1316.1000;0.2580;0.7363;
1316.4000;0.2662;0.7485;
1316.7000;0.2580;0.7315;
1317.0000;0.2597;0.7339;
1317.3000;0.2580;0.7315;
1317.6000;0.2589;0.7267;
1317.9000;0.2580;0.7315;
1318.2000;0.2589;0.7388;
1318.5000;0.2589;0.7315;
1318.8000;0.2597;0.7315;
1319.1000;0.2499;0.7073;
1319.4000;0.2597;0.7267;
1319.7000;0.2580;0.7170;
1320.0000;0.2556;0.7145;
1320.3000;0.2572;0.7218;
1320.6000;0.2580;0.7291;
1320.9000;0.2572;0.7267;
1321.2000;0.2572;0.7242;
1321.5000;0.2556;0.7145;
1321.8000;0.2564;0.7194;
1322.1000;0.2580;0.7267;
1322.4000;0.2580;0.7388;
1322.7000;0.2572;0.7388;
1323.0000;0.2597;0.7412;
1323.3000;0.2597;0.7388;
1323.6000;0.2556;0.7267;
1323.9000;0.2556;0.7291;
1324.2000;0.2597;0.7436;
1324.5000;0.2564;0.7242;
1324.8000;0.2572;0.7339;
1325.1000;0.2572;0.7267;
1325.4000;0.2572;0.7242;
1325.7000;0.2580;0.7170;
1326.0000;0.2572;0.7121;
1326.3000;0.2556;0.7073;
1326.6000;0.2564;0.7121;
1326.9000;0.2572;0.7170;
1327.2000;0.2572;0.7267;
1327.5000;0.2540;0.7145;
1327.8000;0.2572;0.7218;
1328.1000;0.2605;0.7315;
1328.4000;0.2589;0.7145;
1328.7000;0.2548;0.7024;
1329.0000;0.2580;0.7242;
1329.3000;0.2572;0.7291;
1329.6000;0.2564;0.7267;
1329.9000;0.2572;0.7291;
1330.2000;0.2532;0.7073;
1330.5000;0.2572;0.7145;
1330.8000;0.2572;0.7170;
1331.1000;0.2580;0.7218;
1331.4000;0.2564;0.7267;
1331.7000;0.2564;0.7218;
1332.0000;0.2589;0.7315;
1332.3000;0.2580;0.7291;
1332.6000;0.2589;0.7267;
1332.9000;0.2589;0.7194;
1333.2000;0.2589;0.7170;
1333.5000;0.2580;0.7242;
1333.8000;0.2540;0.7145;
1334.1000;0.2589;0.7242;
1334.4000;0.2605;0.7339;
1334.7000;0.2597;0.7339;
1335.0000;0.2686;0.7485;
1335.3000;0.2646;0.7436;
1335.6000;0.2572;0.7267;
1335.9000;0.2654;0.7485;
1336.2000;0.2507;0.7170;
1336.5000;0.2523;0.7097;
1336.8000;0.2597;0.7315;
1337.1000;0.2621;0.7436;
1337.4000;0.2597;0.7363;
1337.7000;0.2646;0.7557;
1338.0000;0.2580;0.7412;
1338.3000;0.2613;0.7485;
1338.6000;0.2654;0.7509;
1338.9000;0.2572;0.7242;
1339.2000;0.2580;0.7242;
1339.5000;0.2532;0.7097;
1339.8000;0.2580;0.7339;
1340.1000;0.2670;0.7557;
1340.4000;0.2572;0.7194;
1340.7000;0.2580;0.7242;
1341.0000;0.2589;0.7291;
1341.3000;0.2589;0.7267;
1341.6000;0.2572;0.7291;
1341.9000;0.2507;0.7121;
1342.2000;0.2572;0.7412;
1342.5000;0.2564;0.7388;
1342.8000;0.2580;0.7412;
1343.1000;0.2540;0.7315;
1343.4000;0.2646;0.7654;
1343.7000;0.2572;0.7509;
1344.0000;0.2540;0.7460;
1344.3000;0.2548;0.7485;
1344.6000;0.2572;0.7533;
1344.9000;0.2572;0.7460;
1345.2000;0.2556;0.7412;
1345.5000;0.2548;0.7388;
1345.8000;0.2572;0.7460;
1346.1000;0.2556;0.7412;
1346.4000;0.2564;0.7412;
1346.7000;0.2564;0.7315;
1347.0000;0.2572;0.7291;
1347.3000;0.2589;0.7339;
1347.6000;0.2597;0.7412;
1347.9000;0.2572;0.7267;
1348.2000;0.2564;0.7339;
1348.5000;0.2564;0.7388;
1348.8000;0.2686;0.7703;
1349.1000;0.2572;0.7436;
1349.4000;0.2572;0.7485;
1349.7000;0.2580;0.7460;
1350.0000;0.2564;0.7436;
1350.3000;0.2580;0.7388;
1350.6000;0.2580;0.7412;
1350.9000;0.2564;0.7412;
1351.2000;0.2597;0.7557;
1351.5000;0.2589;0.7388;
1351.8000;0.2564;0.7267;
1352.1000;0.2564;0.7339;
1352.4000;0.2580;0.7412;
1352.7000;0.2580;0.7460;
1353.0000;0.2572;0.7388;
1353.3000;0.2548;0.7436;
1353.6000;0.2580;0.7557;
1353.9000;0.2580;0.7509;
1354.2000;0.2572;0.7557;
1354.5000;0.2564;0.7485;
1354.8000;0.2589;0.7533;
1355.1000;0.2597;0.7485;
1355.4000;0.2589;0.7388;
1355.7000;0.2548;0.7363;
1356.0000;0.2548;0.7388;
1356.3000;0.2597;0.7533;
1356.6000;0.2564;0.7388;
1356.9000;0.2540;0.7339;
1357.2000;0.2564;0.7460;
1357.5000;0.2597;0.7460;
1357.8000;0.2597;0.7339;
1358.1000;0.2589;0.7315;
1358.4000;0.2597;0.7485;
1358.7000;0.2589;0.7509;
1359.0000;0.2556;0.7388;
1359.3000;0.2605;0.7460;
1359.6000;0.2597;0.7436;
1359.9000;0.2491;0.7170;
1360.2000;0.2540;0.7291;
1360.5000;0.2605;0.7460;
1360.8000;0.2580;0.7460;
1361.1000;0.2613;0.7460;
1361.4000;0.2532;0.7242;
1361.7000;0.2532;0.7218;
1362.0000;0.2572;0.7363;
1362.3000;0.2564;0.7315;
1362.6000;0.2548;0.7363;
1362.9000;0.2572;0.7412;
1363.2000;0.2564;0.7315;
1363.5000;0.2572;0.7315;
1363.8000;0.2686;0.7703;
1364.1000;0.2540;0.7218;
1364.4000;0.2564;0.7291;
1364.7000;0.2564;0.7412;
1365.0000;0.2637;0.7533;
1365.3000;0.2564;0.7339;
1365.6000;0.2580;0.7485;
1365.9000;0.2572;0.7460;
1366.2000;0.2580;0.7581;
1366.5000;0.2580;0.7557;
1366.8000;0.2580;0.7509;
1367.1000;0.2621;0.7557;
1367.4000;0.2572;0.7412;
1367.7000;0.2499;0.7121;
1368.0000;0.2580;0.7388;
1368.3000;0.2532;0.7267;
1368.6000;0.2589;0.7436;
1368.9000;0.2556;0.7339;
1369.2000;0.2564;0.7339;
1369.5000;0.2580;0.7412;
1369.8000;0.2589;0.7460;
1370.1000;0.2580;0.7460;
1370.4000;0.2580;0.7412;
1370.7000;0.2589;0.7412;
1371.0000;0.2556;0.7363;
1371.3000;0.2572;0.7460;
1371.6000;0.2597;0.7606;
1371.9000;0.2572;0.7509;
1372.2000;0.2556;0.7460;
1372.5000;0.2564;0.7509;
1372.8000;0.2572;0.7460;
1373.1000;0.2556;0.7363;
1373.4000;0.2556;0.7363;
1373.7000;0.2564;0.7315;
1374.0000;0.2572;0.7242;
1374.3000;0.2580;0.7267;
1374.6000;0.2548;0.7242;
1374.9000;0.2580;0.7291;
1375.2000;0.2597;0.7412;
1375.5000;0.2580;0.7339;
1375.8000;0.2556;0.7339;
1376.1000;0.2548;0.7388;
1376.4000;0.2580;0.7533;
1376.7000;0.2597;0.7533;
1377.0000;0.2580;0.7485;
1377.3000;0.2597;0.7533;
1377.6000;0.2613;0.7533;
1377.9000;0.2605;0.7509;
1378.2000;0.2597;0.7388;
1378.5000;0.2532;0.7242;
1378.8000;0.2564;0.7291;
1379.1000;0.2515;0.7145;
1379.4000;0.2523;0.7242;
1379.7000;0.2597;0.7460;
1380.0000;0.2637;0.7509;
1380.3000;0.2572;0.7388;
1380.6000;0.2589;0.7388;
1380.9000;0.2605;0.7363;
1381.2000;0.2597;0.7388;
1381.5000;0.2580;0.7291;
1381.8000;0.2589;0.7412;
1382.1000;0.2589;0.7363;
1382.4000;0.2572;0.7291;
1382.7000;0.2564;0.7315;
1383.0000;0.2540;0.7315;
1383.3000;0.2572;0.7509;
1383.6000;0.2548;0.7363;
1383.9000;0.2548;0.7388;
1384.2000;0.2556;0.7460;
1384.5000;0.2556;0.7436;
1384.8000;0.2589;0.7509;
1385.1000;0.2523;0.7388;
1385.4000;0.2564;0.7509;
1385.7000;0.2556;0.7533;
1386.0000;0.2597;0.7630;
1386.3000;0.2572;0.7557;
1386.6000;0.2572;0.7557;
1386.9000;0.2580;0.7533;
1387.2000;0.2580;0.7460;
1387.5000;0.2572;0.7509;
1387.8000;0.2564;0.7533;
1388.1000;0.2580;0.7509;
1388.4000;0.2589;0.7509;
1388.7000;0.2580;0.7485;
1389.0000;0.2589;0.7412;
1389.3000;0.2580;0.7388;
1389.6000;0.2580;0.7388;
1389.9000;0.2580;0.7388;
1390.2000;0.2548;0.7267;
1390.5000;0.2572;0.7267;
1390.8000;0.2580;0.7267;
1391.1000;0.2580;0.7267;
1391.4000;0.2580;0.7291;
1391.7000;0.2580;0.7291;
1392.0000;0.2564;0.7315;
1392.3000;0.2580;0.7388;
1392.6000;0.2523;0.7194;
1392.9000;0.2564;0.7242;
1393.2000;0.2580;0.7145;
1393.5000;0.2564;0.7170;
1393.8000;0.2580;0.7121;
1394.1000;0.2556;0.7024;
1394.4000;0.2589;0.7145;
1394.7000;0.2572;0.7267;
1395.0000;0.2580;0.7315;
1395.3000;0.2654;0.7581;
1395.6000;0.2589;0.7363;
1395.9000;0.2589;0.7460;
1396.2000;0.2580;0.7436;
1396.5000;0.2580;0.7363;
1396.8000;0.2605;0.7509;
1397.1000;0.2589;0.7339;
1397.4000;0.2580;0.7218;
1397.7000;0.2580;0.7267;
1398.0000;0.2564;0.7267;
1398.3000;0.2572;0.7315;
1398.6000;0.2556;0.7242;
1398.9000;0.2613;0.7485;
1399.2000;0.2564;0.7412;
1399.5000;0.2572;0.7363;
1399.8000;0.2507;0.7194;
