time/ms;Fluo/V;P700 deltaI/I x10³;
-199.8000;0.2491;0.5426;
-199.5000;0.2515;0.5377;
-199.2000;0.2515;0.5305;
-198.9000;0.2491;0.5208;
-198.6000;0.2483;0.5159;
-198.3000;0.2426;0.5038;
-198.0000;0.2499;0.5280;
-197.7000;0.2499;0.5256;
-197.4000;0.2499;0.5280;
-197.1000;0.2499;0.5353;
-196.8000;0.2572;0.5547;
-196.5000;0.2515;0.5377;
-196.2000;0.2532;0.5450;
-195.9000;0.2523;0.5547;
-195.6000;0.2499;0.5474;
-195.3000;0.2499;0.5474;
-195.0000;0.2507;0.5474;
-194.7000;0.2499;0.5450;
-194.4000;0.2483;0.5401;
-194.1000;0.2499;0.5498;
-193.8000;0.2491;0.5547;
-193.5000;0.2475;0.5571;
-193.2000;0.2515;0.5595;
-192.9000;0.2499;0.5571;
-192.6000;0.2515;0.5498;
-192.3000;0.2499;0.5450;
-192.0000;0.2499;0.5450;
-191.7000;0.2499;0.5474;
-191.4000;0.2499;0.5401;
-191.1000;0.2491;0.5377;
-190.8000;0.2515;0.5377;
-190.5000;0.2499;0.5401;
-190.2000;0.2507;0.5353;
-189.9000;0.2507;0.5305;
-189.6000;0.2491;0.5305;
-189.3000;0.2491;0.5280;
-189.0000;0.2491;0.5401;
-188.7000;0.2499;0.5401;
-188.4000;0.2491;0.5426;
-188.1000;0.2507;0.5523;
-187.8000;0.2499;0.5498;
-187.5000;0.2491;0.5523;
-187.2000;0.2475;0.5474;
-186.9000;0.2507;0.5474;
-186.6000;0.2491;0.5426;
-186.3000;0.2507;0.5474;
-186.0000;0.2556;0.5595;
-185.7000;0.2515;0.5377;
-185.4000;0.2499;0.5377;
-185.1000;0.2475;0.5280;
-184.8000;0.2466;0.5208;
-184.5000;0.2507;0.5329;
-184.2000;0.2499;0.5401;
-183.9000;0.2507;0.5426;
-183.6000;0.2491;0.5401;
-183.3000;0.2483;0.5377;
-183.0000;0.2507;0.5426;
-182.7000;0.2507;0.5498;
-182.4000;0.2491;0.5450;
-182.1000;0.2507;0.5474;
-181.8000;0.2499;0.5474;
-181.5000;0.2523;0.5547;
-181.2000;0.2523;0.5571;
-180.9000;0.2507;0.5595;
-180.6000;0.2499;0.5547;
-180.3000;0.2523;0.5547;
-180.0000;0.2499;0.5474;
-179.7000;0.2483;0.5523;
-179.4000;0.2499;0.5547;
-179.1000;0.2499;0.5498;
-178.8000;0.2475;0.5426;
-178.5000;0.2499;0.5377;
-178.2000;0.2515;0.5353;
-177.9000;0.2515;0.5353;
-177.6000;0.2507;0.5426;
-177.3000;0.2548;0.5595;
-177.0000;0.2507;0.5450;
-176.7000;0.2499;0.5426;
-176.4000;0.2499;0.5450;
-176.1000;0.2507;0.5474;
-175.8000;0.2499;0.5353;
-175.5000;0.2515;0.5377;
-175.2000;0.2515;0.5353;
-174.9000;0.2515;0.5280;
-174.6000;0.2507;0.5353;
-174.3000;0.2507;0.5401;
-174.0000;0.2458;0.5305;
-173.7000;0.2499;0.5353;
-173.4000;0.2499;0.5329;
-173.1000;0.2515;0.5353;
-172.8000;0.2491;0.5305;
-172.5000;0.2523;0.5353;
-172.2000;0.2532;0.5401;
-171.9000;0.2523;0.5426;
-171.6000;0.2507;0.5329;
-171.3000;0.2475;0.5280;
-171.0000;0.2515;0.5305;
-170.7000;0.2515;0.5353;
-170.4000;0.2426;0.5135;
-170.1000;0.2507;0.5377;
-169.8000;0.2507;0.5377;
-169.5000;0.2499;0.5426;
-169.2000;0.2491;0.5377;
-168.9000;0.2483;0.5353;
-168.6000;0.2483;0.5353;
-168.3000;0.2401;0.5087;
-168.0000;0.2507;0.5377;
-167.7000;0.2507;0.5401;
-167.4000;0.2458;0.5208;
-167.1000;0.2507;0.5353;
-166.8000;0.2507;0.5353;
-166.5000;0.2499;0.5353;
-166.2000;0.2515;0.5377;
-165.9000;0.2532;0.5377;
-165.6000;0.2499;0.5305;
-165.3000;0.2499;0.5256;
-165.0000;0.2499;0.5305;
-164.7000;0.2507;0.5426;
-164.4000;0.2507;0.5474;
-164.1000;0.2523;0.5474;
-163.8000;0.2515;0.5377;
-163.5000;0.2499;0.5377;
-163.2000;0.2499;0.5401;
-162.9000;0.2499;0.5329;
-162.6000;0.2523;0.5401;
-162.3000;0.2507;0.5450;
-162.0000;0.2499;0.5426;
-161.7000;0.2499;0.5450;
-161.4000;0.2556;0.5619;
-161.1000;0.2515;0.5450;
-160.8000;0.2499;0.5377;
-160.5000;0.2507;0.5474;
-160.2000;0.2507;0.5595;
-159.9000;0.2491;0.5498;
-159.6000;0.2475;0.5450;
-159.3000;0.2475;0.5426;
-159.0000;0.2475;0.5305;
-158.7000;0.2483;0.5329;
-158.4000;0.2507;0.5450;
-158.1000;0.2499;0.5498;
-157.8000;0.2442;0.5329;
-157.5000;0.2458;0.5377;
-157.2000;0.2499;0.5474;
-156.9000;0.2491;0.5498;
-156.6000;0.2491;0.5498;
-156.3000;0.2507;0.5692;
-156.0000;0.2450;0.5498;
-155.7000;0.2450;0.5450;
-155.4000;0.2507;0.5523;
-155.1000;0.2483;0.5474;
-154.8000;0.2523;0.5547;
-154.5000;0.2499;0.5426;
-154.2000;0.2540;0.5595;
-153.9000;0.2589;0.5547;
-153.6000;0.2499;0.5329;
-153.3000;0.2377;0.4990;
-153.0000;0.2507;0.5353;
-152.7000;0.2475;0.5305;
-152.4000;0.2515;0.5426;
-152.1000;0.2507;0.5401;
-151.8000;0.2499;0.5329;
-151.5000;0.2507;0.5353;
-151.2000;0.2515;0.5377;
-150.9000;0.2515;0.5377;
-150.6000;0.2507;0.5305;
-150.3000;0.2507;0.5426;
-150.0000;0.2507;0.5450;
-149.7000;0.2532;0.5523;
-149.4000;0.2499;0.5426;
-149.1000;0.2499;0.5474;
-148.8000;0.2523;0.5498;
-148.5000;0.2434;0.5159;
-148.2000;0.2491;0.5353;
-147.9000;0.2491;0.5377;
-147.6000;0.2499;0.5474;
-147.3000;0.2499;0.5474;
-147.0000;0.2507;0.5450;
-146.7000;0.2556;0.5523;
-146.4000;0.2442;0.5232;
-146.1000;0.2491;0.5498;
-145.8000;0.2499;0.5498;
-145.5000;0.2499;0.5450;
-145.2000;0.2499;0.5474;
-144.9000;0.2499;0.5450;
-144.6000;0.2507;0.5474;
-144.3000;0.2507;0.5498;
-144.0000;0.2515;0.5571;
-143.7000;0.2434;0.5329;
-143.4000;0.2499;0.5523;
-143.1000;0.2507;0.5401;
-142.8000;0.2499;0.5353;
-142.5000;0.2475;0.5377;
-142.2000;0.2499;0.5474;
-141.9000;0.2507;0.5523;
-141.6000;0.2434;0.5280;
-141.3000;0.2483;0.5450;
-141.0000;0.2515;0.5498;
-140.7000;0.2515;0.5426;
-140.4000;0.2540;0.5377;
-140.1000;0.2507;0.5377;
-139.8000;0.2613;0.5813;
-139.5000;0.2540;0.5547;
-139.2000;0.2491;0.5498;
-138.9000;0.2466;0.5547;
-138.6000;0.2540;0.5668;
-138.3000;0.2483;0.5547;
-138.0000;0.2426;0.5377;
-137.7000;0.2491;0.5474;
-137.4000;0.2499;0.5377;
-137.1000;0.2523;0.5426;
-136.8000;0.2507;0.5329;
-136.5000;0.2491;0.5401;
-136.2000;0.2450;0.5329;
-135.9000;0.2515;0.5498;
-135.6000;0.2483;0.5523;
-135.3000;0.2483;0.5498;
-135.0000;0.2466;0.5450;
-134.7000;0.2507;0.5498;
-134.4000;0.2491;0.5523;
-134.1000;0.2499;0.5547;
-133.8000;0.2491;0.5571;
-133.5000;0.2483;0.5571;
-133.2000;0.2499;0.5644;
-132.9000;0.2507;0.5619;
-132.6000;0.2499;0.5547;
-132.3000;0.2499;0.5474;
-132.0000;0.2491;0.5450;
-131.7000;0.2515;0.5450;
-131.4000;0.2499;0.5329;
-131.1000;0.2499;0.5280;
-130.8000;0.2483;0.5305;
-130.5000;0.2507;0.5426;
-130.2000;0.2515;0.5426;
-129.9000;0.2491;0.5450;
-129.6000;0.2515;0.5619;
-129.3000;0.2466;0.5547;
-129.0000;0.2483;0.5571;
-128.7000;0.2613;0.5910;
-128.4000;0.2499;0.5668;
-128.1000;0.2491;0.5619;
-127.8000;0.2507;0.5619;
-127.5000;0.2507;0.5547;
-127.2000;0.2499;0.5523;
-126.9000;0.2491;0.5498;
-126.6000;0.2491;0.5523;
-126.3000;0.2499;0.5571;
-126.0000;0.2499;0.5498;
-125.7000;0.2491;0.5523;
-125.4000;0.2507;0.5498;
-125.1000;0.2491;0.5523;
-124.8000;0.2491;0.5498;
-124.5000;0.2483;0.5523;
-124.2000;0.2499;0.5619;
-123.9000;0.2605;0.5934;
-123.6000;0.2491;0.5765;
-123.3000;0.2499;0.5837;
-123.0000;0.2491;0.5716;
-122.7000;0.2507;0.5644;
-122.4000;0.2491;0.5595;
-122.1000;0.2491;0.5619;
-121.8000;0.2475;0.5595;
-121.5000;0.2483;0.5498;
-121.2000;0.2507;0.5474;
-120.9000;0.2385;0.5111;
-120.6000;0.2507;0.5498;
-120.3000;0.2523;0.5571;
-120.0000;0.2483;0.5450;
-119.7000;0.2475;0.5450;
-119.4000;0.2491;0.5450;
-119.1000;0.2442;0.5305;
-118.8000;0.2491;0.5426;
-118.5000;0.2466;0.5329;
-118.2000;0.2483;0.5353;
-117.9000;0.2499;0.5450;
-117.6000;0.2491;0.5377;
-117.3000;0.2499;0.5353;
-117.0000;0.2499;0.5329;
-116.7000;0.2507;0.5353;
-116.4000;0.2523;0.5523;
-116.1000;0.2499;0.5450;
-115.8000;0.2540;0.5644;
-115.5000;0.2540;0.5619;
-115.2000;0.2507;0.5498;
-114.9000;0.2499;0.5450;
-114.6000;0.2483;0.5450;
-114.3000;0.2499;0.5571;
-114.0000;0.2507;0.5644;
-113.7000;0.2507;0.5668;
-113.4000;0.2450;0.5547;
-113.1000;0.2515;0.5692;
-112.8000;0.2483;0.5571;
-112.5000;0.2507;0.5547;
-112.2000;0.2499;0.5523;
-111.9000;0.2483;0.5547;
-111.6000;0.2499;0.5571;
-111.3000;0.2507;0.5547;
-111.0000;0.2507;0.5523;
-110.7000;0.2483;0.5426;
-110.4000;0.2491;0.5353;
-110.1000;0.2499;0.5401;
-109.8000;0.2532;0.5450;
-109.5000;0.2523;0.5377;
-109.2000;0.2483;0.5232;
-108.9000;0.2475;0.5329;
-108.6000;0.2491;0.5329;
-108.3000;0.2491;0.5329;
-108.0000;0.2499;0.5280;
-107.7000;0.2483;0.5232;
-107.4000;0.2491;0.5305;
-107.1000;0.2466;0.5232;
-106.8000;0.2450;0.5183;
-106.5000;0.2499;0.5401;
-106.2000;0.2491;0.5426;
-105.9000;0.2507;0.5401;
-105.6000;0.2491;0.5377;
-105.3000;0.2499;0.5426;
-105.0000;0.2515;0.5377;
-104.7000;0.2523;0.5401;
-104.4000;0.2507;0.5305;
-104.1000;0.2499;0.5280;
-103.8000;0.2523;0.5401;
-103.5000;0.2499;0.5474;
-103.2000;0.2507;0.5450;
-102.9000;0.2499;0.5450;
-102.6000;0.2499;0.5450;
-102.3000;0.2507;0.5498;
-102.0000;0.2523;0.5595;
-101.7000;0.2515;0.5571;
-101.4000;0.2515;0.5523;
-101.1000;0.2564;0.5571;
-100.8000;0.2523;0.5523;
-100.5000;0.2499;0.5426;
-100.2000;0.2499;0.5426;
-99.9000;0.2499;0.5377;
-99.6000;0.2507;0.5450;
-99.3000;0.2499;0.5523;
-99.0000;0.2483;0.5571;
-98.7000;0.2564;0.5765;
-98.4000;0.2507;0.5547;
-98.1000;0.2507;0.5547;
-97.8000;0.2507;0.5474;
-97.5000;0.2507;0.5474;
-97.2000;0.2499;0.5450;
-96.9000;0.2515;0.5498;
-96.6000;0.2475;0.5426;
-96.3000;0.2499;0.5498;
-96.0000;0.2515;0.5547;
-95.7000;0.2523;0.5523;
-95.4000;0.2466;0.5377;
-95.1000;0.2540;0.5644;
-94.8000;0.2499;0.5523;
-94.5000;0.2499;0.5571;
-94.2000;0.2507;0.5498;
-93.9000;0.2515;0.5523;
-93.6000;0.2556;0.5595;
-93.3000;0.2523;0.5498;
-93.0000;0.2507;0.5450;
-92.7000;0.2515;0.5450;
-92.4000;0.2458;0.5377;
-92.1000;0.2515;0.5523;
-91.8000;0.2507;0.5474;
-91.5000;0.2523;0.5571;
-91.2000;0.2507;0.5547;
-90.9000;0.2499;0.5474;
-90.6000;0.2499;0.5523;
-90.3000;0.2491;0.5498;
-90.0000;0.2499;0.5547;
-89.7000;0.2523;0.5547;
-89.4000;0.2499;0.5474;
-89.1000;0.2475;0.5450;
-88.8000;0.2572;0.5692;
-88.5000;0.2475;0.5450;
-88.2000;0.2507;0.5498;
-87.9000;0.2491;0.5498;
-87.6000;0.2491;0.5474;
-87.3000;0.2499;0.5377;
-87.0000;0.2483;0.5401;
-86.7000;0.2540;0.5547;
-86.4000;0.2491;0.5401;
-86.1000;0.2450;0.5280;
-85.8000;0.2491;0.5353;
-85.5000;0.2507;0.5401;
-85.2000;0.2361;0.5062;
-84.9000;0.2442;0.5353;
-84.6000;0.2475;0.5547;
-84.3000;0.2499;0.5595;
-84.0000;0.2491;0.5523;
-83.7000;0.2483;0.5474;
-83.4000;0.2515;0.5498;
-83.1000;0.2499;0.5450;
-82.8000;0.2507;0.5450;
-82.5000;0.2475;0.5305;
-82.2000;0.2499;0.5426;
-81.9000;0.2499;0.5426;
-81.6000;0.2523;0.5523;
-81.3000;0.2499;0.5401;
-81.0000;0.2499;0.5426;
-80.7000;0.2515;0.5523;
-80.4000;0.2499;0.5571;
-80.1000;0.2507;0.5571;
-79.8000;0.2507;0.5619;
-79.5000;0.2507;0.5547;
-79.2000;0.2556;0.5741;
-78.9000;0.2507;0.5668;
-78.6000;0.2491;0.5523;
-78.3000;0.2523;0.5644;
-78.0000;0.2458;0.5498;
-77.7000;0.2499;0.5523;
-77.4000;0.2499;0.5474;
-77.1000;0.2515;0.5426;
-76.8000;0.2507;0.5474;
-76.5000;0.2572;0.5741;
-76.2000;0.2491;0.5498;
-75.9000;0.2499;0.5547;
-75.6000;0.2499;0.5547;
-75.3000;0.2532;0.5716;
-75.0000;0.2491;0.5523;
-74.7000;0.2475;0.5547;
-74.4000;0.2483;0.5668;
-74.1000;0.2540;0.5813;
-73.8000;0.2507;0.5668;
-73.5000;0.2499;0.5571;
-73.2000;0.2507;0.5498;
-72.9000;0.2556;0.5668;
-72.6000;0.2515;0.5571;
-72.3000;0.2507;0.5741;
-72.0000;0.2507;0.5692;
-71.7000;0.2507;0.5765;
-71.4000;0.2507;0.5668;
-71.1000;0.2491;0.5668;
-70.8000;0.2499;0.5741;
-70.5000;0.2499;0.5716;
-70.2000;0.2507;0.5692;
-69.9000;0.2483;0.5716;
-69.6000;0.2515;0.5741;
-69.3000;0.2483;0.5716;
-69.0000;0.2507;0.5692;
-68.7000;0.2499;0.5595;
-68.4000;0.2507;0.5692;
-68.1000;0.2507;0.5571;
-67.8000;0.2499;0.5595;
-67.5000;0.2507;0.5644;
-67.2000;0.2523;0.5668;
-66.9000;0.2515;0.5716;
-66.6000;0.2499;0.5716;
-66.3000;0.2499;0.5619;
-66.0000;0.2499;0.5571;
-65.7000;0.2491;0.5498;
-65.4000;0.2491;0.5498;
-65.1000;0.2507;0.5571;
-64.8000;0.2475;0.5498;
-64.5000;0.2475;0.5523;
-64.2000;0.2483;0.5523;
-63.9000;0.2613;0.5862;
-63.6000;0.2491;0.5523;
-63.3000;0.2499;0.5523;
-63.0000;0.2532;0.5547;
-62.7000;0.2507;0.5426;
-62.4000;0.2483;0.5474;
-62.1000;0.2499;0.5426;
-61.8000;0.2515;0.5450;
-61.5000;0.2564;0.5619;
-61.2000;0.2507;0.5450;
-60.9000;0.2523;0.5523;
-60.6000;0.2499;0.5523;
-60.3000;0.2507;0.5547;
-60.0000;0.2483;0.5498;
-59.7000;0.2491;0.5474;
-59.4000;0.2466;0.5426;
-59.1000;0.2483;0.5401;
-58.8000;0.2499;0.5426;
-58.5000;0.2507;0.5523;
-58.2000;0.2499;0.5523;
-57.9000;0.2499;0.5474;
-57.6000;0.2507;0.5474;
-57.3000;0.2458;0.5329;
-57.0000;0.2491;0.5401;
-56.7000;0.2507;0.5450;
-56.4000;0.2532;0.5547;
-56.1000;0.2507;0.5474;
-55.8000;0.2515;0.5523;
-55.5000;0.2507;0.5523;
-55.2000;0.2523;0.5523;
-54.9000;0.2499;0.5498;
-54.6000;0.2483;0.5498;
-54.3000;0.2418;0.5353;
-54.0000;0.2499;0.5571;
-53.7000;0.2629;0.5886;
-53.4000;0.2499;0.5523;
-53.1000;0.2572;0.5692;
-52.8000;0.2523;0.5571;
-52.5000;0.2499;0.5547;
-52.2000;0.2475;0.5474;
-51.9000;0.2499;0.5547;
-51.6000;0.2507;0.5547;
-51.3000;0.2597;0.5765;
-51.0000;0.2532;0.5619;
-50.7000;0.2507;0.5547;
-50.4000;0.2450;0.5377;
-50.1000;0.2507;0.5450;
-49.8000;0.2483;0.5450;
-49.5000;0.2483;0.5523;
-49.2000;0.2483;0.5450;
-48.9000;0.2491;0.5547;
-48.6000;0.2507;0.5498;
-48.3000;0.2507;0.5401;
-48.0000;0.2499;0.5353;
-47.7000;0.2515;0.5401;
-47.4000;0.2466;0.5232;
-47.1000;0.2499;0.5401;
-46.8000;0.2499;0.5329;
-46.5000;0.2499;0.5474;
-46.2000;0.2491;0.5498;
-45.9000;0.2507;0.5571;
-45.6000;0.2580;0.5741;
-45.3000;0.2475;0.5547;
-45.0000;0.2507;0.5595;
-44.7000;0.2499;0.5571;
-44.4000;0.2523;0.5668;
-44.1000;0.2483;0.5595;
-43.8000;0.2491;0.5547;
-43.5000;0.2523;0.5547;
-43.2000;0.2507;0.5450;
-42.9000;0.2523;0.5547;
-42.6000;0.2507;0.5498;
-42.3000;0.2507;0.5498;
-42.0000;0.2540;0.5644;
-41.7000;0.2507;0.5547;
-41.4000;0.2507;0.5668;
-41.1000;0.2491;0.5571;
-40.8000;0.2507;0.5571;
-40.5000;0.2507;0.5571;
-40.2000;0.2499;0.5498;
-39.9000;0.2499;0.5523;
-39.6000;0.2507;0.5474;
-39.3000;0.2475;0.5401;
-39.0000;0.2369;0.5135;
-38.7000;0.2548;0.5547;
-38.4000;0.2483;0.5474;
-38.1000;0.2515;0.5523;
-37.8000;0.2499;0.5426;
-37.5000;0.2507;0.5401;
-37.2000;0.2507;0.5450;
-36.9000;0.2515;0.5498;
-36.6000;0.2515;0.5571;
-36.3000;0.2523;0.5619;
-36.0000;0.2515;0.5523;
-35.7000;0.2499;0.5498;
-35.4000;0.2491;0.5450;
-35.1000;0.2491;0.5547;
-34.8000;0.2515;0.5523;
-34.5000;0.2515;0.5523;
-34.2000;0.2483;0.5523;
-33.9000;0.2483;0.5377;
-33.6000;0.2507;0.5498;
-33.3000;0.2475;0.5474;
-33.0000;0.2507;0.5595;
-32.7000;0.2499;0.5571;
-32.4000;0.2491;0.5547;
-32.1000;0.2491;0.5498;
-31.8000;0.2491;0.5595;
-31.5000;0.2483;0.5619;
-31.2000;0.2507;0.5644;
-30.9000;0.2515;0.5668;
-30.6000;0.2540;0.5765;
-30.3000;0.2483;0.5644;
-30.0000;0.2523;0.5789;
-29.7000;0.2450;0.5644;
-29.4000;0.2507;0.5813;
-29.1000;0.2483;0.5692;
-28.8000;0.2491;0.5716;
-28.5000;0.2507;0.5741;
-28.2000;0.2475;0.5571;
-27.9000;0.2515;0.5668;
-27.6000;0.2483;0.5668;
-27.3000;0.2564;0.5813;
-27.0000;0.2450;0.5619;
-26.7000;0.2491;0.5716;
-26.4000;0.2540;0.5716;
-26.1000;0.2499;0.5644;
-25.8000;0.2499;0.5644;
-25.5000;0.2523;0.5716;
-25.2000;0.2499;0.5716;
-24.9000;0.2499;0.5741;
-24.6000;0.2491;0.5716;
-24.3000;0.2499;0.5765;
-24.0000;0.2499;0.5692;
-23.7000;0.2499;0.5716;
-23.4000;0.2385;0.5353;
-23.1000;0.2491;0.5595;
-22.8000;0.2499;0.5595;
-22.5000;0.2523;0.5644;
-22.2000;0.2499;0.5619;
-21.9000;0.2507;0.5668;
-21.6000;0.2507;0.5619;
-21.3000;0.2515;0.5619;
-21.0000;0.2491;0.5619;
-20.7000;0.2523;0.5716;
-20.4000;0.2499;0.5644;
-20.1000;0.2483;0.5595;
-19.8000;0.2499;0.5619;
-19.5000;0.2523;0.5619;
-19.2000;0.2515;0.5644;
-18.9000;0.2507;0.5498;
-18.6000;0.2499;0.5474;
-18.3000;0.2499;0.5377;
-18.0000;0.2507;0.5377;
-17.7000;0.2564;0.5450;
-17.4000;0.2507;0.5353;
-17.1000;0.2442;0.5329;
-16.8000;0.2499;0.5474;
-16.5000;0.2499;0.5523;
-16.2000;0.2499;0.5450;
-15.9000;0.2507;0.5450;
-15.6000;0.2515;0.5401;
-15.3000;0.2483;0.5377;
-15.0000;0.2499;0.5450;
-14.7000;0.2499;0.5523;
-14.4000;0.2507;0.5571;
-14.1000;0.2507;0.5547;
-13.8000;0.2499;0.5571;
-13.5000;0.2499;0.5523;
-13.2000;0.2491;0.5474;
-12.9000;0.2499;0.5474;
-12.6000;0.2499;0.5426;
-12.3000;0.2499;0.5450;
-12.0000;0.2515;0.5595;
-11.7000;0.2499;0.5547;
-11.4000;0.2491;0.5498;
-11.1000;0.2515;0.5426;
-10.8000;0.2491;0.5426;
-10.5000;0.2491;0.5498;
-10.2000;0.2499;0.5498;
-9.9000;0.2507;0.5619;
-9.6000;0.2466;0.5474;
-9.3000;0.2499;0.5595;
-9.0000;0.2532;0.5595;
-8.7000;0.2515;0.5547;
-8.4000;0.2483;0.5426;
-8.1000;0.2499;0.5426;
-7.8000;0.2499;0.5426;
-7.5000;0.2499;0.5426;
-7.2000;0.2507;0.5401;
-6.9000;0.2491;0.5377;
-6.6000;0.2491;0.5450;
-6.3000;0.2426;0.5353;
-6.0000;0.2499;0.5595;
-5.7000;0.2466;0.5474;
-5.4000;0.2515;0.5619;
-5.1000;0.2458;0.5377;
-4.8000;0.2515;0.5377;
-4.5000;0.2483;0.5280;
-4.2000;0.2483;0.5280;
-3.9000;0.2491;0.5329;
-3.6000;0.2548;0.5547;
-3.3000;0.2507;0.5547;
-3.0000;0.2564;0.5789;
-2.7000;0.2507;0.5692;
-2.4000;0.2507;0.5716;
-2.1000;0.2483;0.5619;
-1.8000;0.2499;0.5571;
-1.5000;0.2466;0.5401;
-1.2000;0.2515;0.5571;
-0.9000;0.2515;0.5498;
-0.6000;0.2499;0.5474;
-0.3000;0.2515;0.5523;
0.0000;0.2515;0.5523;
0.3000;0.2515;0.5498;
0.6000;0.2507;0.5571;
0.9000;0.2523;0.5765;
1.2000;0.2491;0.5789;
1.5000;0.2515;0.5983;
1.8000;0.2499;0.6104;
2.1000;0.2499;0.6152;
2.4000;0.2515;0.6273;
2.7000;0.2523;0.6467;
3.0000;0.2507;0.6443;
3.3000;0.2507;0.6467;
3.6000;0.2523;0.6613;
3.9000;0.2515;0.6734;
4.2000;0.2548;0.6806;
4.5000;0.2540;0.6782;
4.8000;0.2572;0.6952;
5.1000;0.2540;0.6879;
5.4000;0.2515;0.6879;
5.7000;0.2475;0.6782;
6.0000;0.2515;0.7000;
6.3000;0.2523;0.7000;
6.6000;0.2507;0.7000;
6.9000;0.2442;0.6709;
7.2000;0.2507;0.6927;
7.5000;0.2548;0.6976;
7.8000;0.2572;0.7097;
8.1000;0.2523;0.6952;
8.4000;0.2540;0.6952;
8.7000;0.2499;0.6806;
9.0000;0.2532;0.6952;
9.3000;0.2572;0.7145;
9.6000;0.2515;0.6976;
9.9000;0.2507;0.7000;
10.2000;0.2532;0.7000;
10.5000;0.2523;0.6952;
10.8000;0.2532;0.7024;
11.1000;0.2540;0.7097;
11.4000;0.2532;0.7097;
11.7000;0.2515;0.7049;
12.0000;0.2523;0.7073;
12.3000;0.2499;0.7000;
12.6000;0.2540;0.7073;
12.9000;0.2523;0.7049;
13.2000;0.2532;0.7024;
13.5000;0.2532;0.7097;
13.8000;0.2540;0.7073;
14.1000;0.2532;0.7073;
14.4000;0.2515;0.7073;
14.7000;0.2507;0.6976;
15.0000;0.2491;0.6879;
15.3000;0.2548;0.6927;
15.6000;0.2540;0.6879;
15.9000;0.2523;0.6879;
16.2000;0.2540;0.6903;
16.5000;0.2450;0.6613;
16.8000;0.2523;0.6855;
17.1000;0.2572;0.7000;
17.4000;0.2515;0.6831;
17.7000;0.2532;0.6879;
18.0000;0.2507;0.6782;
18.3000;0.2523;0.6879;
18.6000;0.2499;0.6855;
18.9000;0.2507;0.6855;
19.2000;0.2523;0.6879;
19.5000;0.2515;0.6806;
19.8000;0.2597;0.7024;
20.1000;0.2515;0.6734;
20.4000;0.2523;0.6855;
20.7000;0.2507;0.6927;
21.0000;0.2532;0.7024;
21.3000;0.2507;0.6927;
21.6000;0.2646;0.7315;
21.9000;0.2532;0.7024;
22.2000;0.2515;0.6976;
22.5000;0.2523;0.6927;
22.8000;0.2523;0.6903;
23.1000;0.2523;0.6927;
23.4000;0.2515;0.6976;
23.7000;0.2532;0.6879;
24.0000;0.2523;0.6806;
24.3000;0.2540;0.6806;
24.6000;0.2532;0.6831;
24.9000;0.2548;0.6855;
25.2000;0.2540;0.6855;
25.5000;0.2532;0.6903;
25.8000;0.2515;0.6927;
26.1000;0.2540;0.6927;
26.4000;0.2556;0.6976;
26.7000;0.2523;0.6927;
27.0000;0.2548;0.6952;
27.3000;0.2515;0.6855;
27.6000;0.2515;0.6831;
27.9000;0.2523;0.6806;
28.2000;0.2523;0.6782;
28.5000;0.2532;0.6855;
28.8000;0.2532;0.6952;
29.1000;0.2532;0.6927;
29.4000;0.2483;0.6734;
29.7000;0.2564;0.7121;
30.0000;0.2483;0.6952;
30.3000;0.2532;0.7097;
30.6000;0.2507;0.6952;
30.9000;0.2532;0.7049;
31.2000;0.2466;0.6903;
31.5000;0.2548;0.7121;
31.8000;0.2515;0.7121;
32.1000;0.2572;0.7291;
32.4000;0.2507;0.7145;
32.7000;0.2532;0.7145;
33.0000;0.2556;0.7170;
33.3000;0.2515;0.7024;
33.6000;0.2507;0.6903;
33.9000;0.2499;0.6976;
34.2000;0.2532;0.7073;
34.5000;0.2523;0.7024;
34.8000;0.2532;0.6976;
35.1000;0.2491;0.6831;
35.4000;0.2540;0.6976;
35.7000;0.2515;0.6976;
36.0000;0.2532;0.6927;
36.3000;0.2556;0.6952;
36.6000;0.2523;0.6952;
36.9000;0.2515;0.7000;
37.2000;0.2507;0.6903;
37.5000;0.2507;0.6952;
37.8000;0.2507;0.6976;
38.1000;0.2499;0.7049;
38.4000;0.2540;0.7097;
38.7000;0.2507;0.6976;
39.0000;0.2491;0.6952;
39.3000;0.2507;0.6952;
39.6000;0.2589;0.7145;
39.9000;0.2515;0.7000;
40.2000;0.2507;0.7024;
40.5000;0.2564;0.7170;
40.8000;0.2515;0.7049;
41.1000;0.2532;0.7073;
41.4000;0.2507;0.6952;
41.7000;0.2523;0.6952;
42.0000;0.2532;0.6952;
42.3000;0.2532;0.6976;
42.6000;0.2515;0.6976;
42.9000;0.2483;0.6782;
43.2000;0.2523;0.6879;
43.5000;0.2499;0.6879;
43.8000;0.2491;0.6855;
44.1000;0.2483;0.6831;
44.4000;0.2515;0.7000;
44.7000;0.2515;0.6927;
45.0000;0.2564;0.7000;
45.3000;0.2499;0.6927;
45.6000;0.2523;0.7024;
45.9000;0.2589;0.7170;
46.2000;0.2523;0.7000;
46.5000;0.2523;0.7073;
46.8000;0.2523;0.7000;
47.1000;0.2523;0.7073;
47.4000;0.2523;0.7049;
47.7000;0.2523;0.6952;
48.0000;0.2507;0.6927;
48.3000;0.2507;0.6927;
48.6000;0.2515;0.7000;
48.9000;0.2515;0.6976;
49.2000;0.2523;0.6927;
49.5000;0.2515;0.6903;
49.8000;0.2540;0.6806;
50.1000;0.2523;0.6831;
50.4000;0.2507;0.6855;
50.7000;0.2523;0.6855;
51.0000;0.2515;0.7024;
51.3000;0.2523;0.7097;
51.6000;0.2540;0.7073;
51.9000;0.2515;0.6952;
52.2000;0.2507;0.6879;
52.5000;0.2589;0.7121;
52.8000;0.2515;0.7049;
53.1000;0.2515;0.7024;
53.4000;0.2491;0.6927;
53.7000;0.2621;0.7412;
54.0000;0.2491;0.7121;
54.3000;0.2499;0.7121;
54.6000;0.2515;0.7073;
54.9000;0.2515;0.7073;
55.2000;0.2523;0.7073;
55.5000;0.2515;0.6952;
55.8000;0.2540;0.6927;
56.1000;0.2523;0.6879;
56.4000;0.2523;0.6806;
56.7000;0.2532;0.6952;
57.0000;0.2523;0.7073;
57.3000;0.2540;0.7049;
57.6000;0.2532;0.7024;
57.9000;0.2515;0.6879;
58.2000;0.2523;0.6927;
58.5000;0.2523;0.6831;
58.8000;0.2523;0.6855;
59.1000;0.2515;0.6709;
59.4000;0.2507;0.6734;
59.7000;0.2523;0.6855;
60.0000;0.2540;0.6879;
60.3000;0.2540;0.6952;
60.6000;0.2532;0.6952;
60.9000;0.2515;0.6927;
61.2000;0.2540;0.7049;
61.5000;0.2548;0.7073;
61.8000;0.2523;0.7049;
62.1000;0.2523;0.6927;
62.4000;0.2540;0.6952;
62.7000;0.2523;0.6806;
63.0000;0.2564;0.6879;
63.3000;0.2491;0.6806;
63.6000;0.2548;0.7097;
63.9000;0.2564;0.7121;
64.2000;0.2507;0.7049;
64.5000;0.2523;0.7145;
64.8000;0.2507;0.7049;
65.1000;0.2523;0.7073;
65.4000;0.2515;0.7097;
65.7000;0.2515;0.7000;
66.0000;0.2523;0.7024;
66.3000;0.2515;0.6952;
66.6000;0.2580;0.7049;
66.9000;0.2499;0.6758;
67.2000;0.2507;0.6855;
67.5000;0.2597;0.7049;
67.8000;0.2523;0.6903;
68.1000;0.2475;0.6879;
68.4000;0.2507;0.7024;
68.7000;0.2491;0.6952;
69.0000;0.2515;0.7024;
69.3000;0.2515;0.7121;
69.6000;0.2523;0.7073;
69.9000;0.2556;0.7170;
70.2000;0.2515;0.6976;
70.5000;0.2401;0.6637;
70.8000;0.2515;0.6879;
71.1000;0.2515;0.6831;
71.4000;0.2564;0.6903;
71.7000;0.2532;0.6782;
72.0000;0.2515;0.6709;
72.3000;0.2532;0.6734;
72.6000;0.2515;0.6685;
72.9000;0.2515;0.6734;
73.2000;0.2523;0.6734;
73.5000;0.2515;0.6831;
73.8000;0.2491;0.6758;
74.1000;0.2523;0.6806;
74.4000;0.2507;0.6758;
74.7000;0.2532;0.6734;
75.0000;0.2483;0.6588;
75.3000;0.2515;0.6734;
75.6000;0.2548;0.6879;
75.9000;0.2540;0.6903;
76.2000;0.2515;0.6855;
76.5000;0.2523;0.6806;
76.8000;0.2475;0.6709;
77.1000;0.2523;0.6927;
77.4000;0.2491;0.6806;
77.7000;0.2499;0.6758;
78.0000;0.2580;0.7000;
78.3000;0.2499;0.6806;
78.6000;0.2491;0.6782;
78.9000;0.2540;0.6879;
79.2000;0.2434;0.6588;
79.5000;0.2499;0.6758;
79.8000;0.2507;0.6831;
80.1000;0.2515;0.6855;
80.4000;0.2499;0.6758;
80.7000;0.2515;0.6782;
81.0000;0.2515;0.6685;
81.3000;0.2646;0.7024;
81.6000;0.2515;0.6782;
81.9000;0.2466;0.6661;
82.2000;0.2532;0.6903;
82.5000;0.2523;0.6879;
82.8000;0.2515;0.6879;
83.1000;0.2532;0.6927;
83.4000;0.2523;0.6927;
83.7000;0.2491;0.6831;
84.0000;0.2523;0.6879;
84.3000;0.2532;0.6927;
84.6000;0.2532;0.6903;
84.9000;0.2515;0.6855;
85.2000;0.2564;0.7049;
85.5000;0.2532;0.6976;
85.8000;0.2540;0.6927;
86.1000;0.2523;0.6806;
86.4000;0.2466;0.6709;
86.7000;0.2475;0.6831;
87.0000;0.2523;0.6903;
87.3000;0.2523;0.6952;
87.6000;0.2507;0.7024;
87.9000;0.2458;0.6976;
88.2000;0.2523;0.7218;
88.5000;0.2515;0.7194;
88.8000;0.2515;0.7121;
89.1000;0.2483;0.6952;
89.4000;0.2523;0.6976;
89.7000;0.2499;0.6976;
90.0000;0.2564;0.7170;
90.3000;0.2523;0.6976;
90.6000;0.2515;0.6952;
90.9000;0.2532;0.7024;
91.2000;0.2523;0.7000;
91.5000;0.2499;0.6976;
91.8000;0.2507;0.6976;
92.1000;0.2507;0.7000;
92.4000;0.2507;0.7000;
92.7000;0.2515;0.7000;
93.0000;0.2548;0.7073;
93.3000;0.2532;0.7097;
93.6000;0.2515;0.7049;
93.9000;0.2499;0.7024;
94.2000;0.2507;0.7024;
94.5000;0.2507;0.7024;
94.8000;0.2532;0.7024;
95.1000;0.2515;0.7024;
95.4000;0.2483;0.7024;
95.7000;0.2515;0.7024;
96.0000;0.2532;0.7000;
96.3000;0.2515;0.6927;
96.6000;0.2532;0.6855;
96.9000;0.2548;0.6855;
97.2000;0.2523;0.6782;
97.5000;0.2507;0.6734;
97.8000;0.2556;0.6855;
98.1000;0.2523;0.6903;
98.4000;0.2532;0.6903;
98.7000;0.2532;0.6831;
99.0000;0.2523;0.6758;
99.3000;0.2532;0.6758;
99.6000;0.2507;0.6685;
99.9000;0.2507;0.6734;
100.2000;0.2515;0.6879;
100.5000;0.2499;0.7024;
100.8000;0.2483;0.6976;
101.1000;0.2515;0.7049;
101.4000;0.2507;0.7049;
101.7000;0.2507;0.7097;
102.0000;0.2515;0.7000;
102.3000;0.2491;0.6952;
102.6000;0.2523;0.6952;
102.9000;0.2532;0.6927;
103.2000;0.2540;0.6855;
103.5000;0.2515;0.6806;
103.8000;0.2507;0.6782;
104.1000;0.2499;0.6927;
104.4000;0.2532;0.6903;
104.7000;0.2523;0.6927;
105.0000;0.2515;0.6879;
105.3000;0.2491;0.6831;
105.6000;0.2491;0.6685;
105.9000;0.2523;0.6806;
106.2000;0.2572;0.6903;
106.5000;0.2499;0.6806;
106.8000;0.2523;0.6952;
107.1000;0.2491;0.6831;
107.4000;0.2523;0.6855;
107.7000;0.2507;0.6758;
108.0000;0.2515;0.6782;
108.3000;0.2515;0.6806;
108.6000;0.2515;0.6831;
108.9000;0.2507;0.6758;
109.2000;0.2515;0.6782;
109.5000;0.2507;0.6709;
109.8000;0.2515;0.6661;
110.1000;0.2515;0.6734;
110.4000;0.2523;0.6903;
110.7000;0.2523;0.6831;
111.0000;0.2515;0.6806;
111.3000;0.2532;0.6927;
111.6000;0.2515;0.6976;
111.9000;0.2499;0.6976;
112.2000;0.2507;0.6952;
112.5000;0.2507;0.6976;
112.8000;0.2450;0.6831;
113.1000;0.2523;0.7049;
113.4000;0.2491;0.6976;
113.7000;0.2523;0.7073;
114.0000;0.2523;0.7121;
114.3000;0.2507;0.7049;
114.6000;0.2499;0.7024;
114.9000;0.2515;0.7024;
115.2000;0.2507;0.6976;
115.5000;0.2499;0.6976;
115.8000;0.2483;0.6927;
116.1000;0.2499;0.6976;
116.4000;0.2564;0.7073;
116.7000;0.2507;0.6976;
117.0000;0.2491;0.7000;
117.3000;0.2515;0.6952;
117.6000;0.2515;0.6879;
117.9000;0.2572;0.7024;
118.2000;0.2523;0.6903;
118.5000;0.2475;0.6831;
118.8000;0.2532;0.7000;
119.1000;0.2515;0.6952;
119.4000;0.2515;0.6879;
119.7000;0.2523;0.6831;
120.0000;0.2499;0.6685;
120.3000;0.2491;0.6685;
120.6000;0.2515;0.6734;
120.9000;0.2515;0.6661;
121.2000;0.2507;0.6685;
121.5000;0.2532;0.6782;
121.8000;0.2532;0.6734;
122.1000;0.2507;0.6661;
122.4000;0.2507;0.6734;
122.7000;0.2515;0.6758;
123.0000;0.2523;0.6758;
123.3000;0.2523;0.6831;
123.6000;0.2523;0.6903;
123.9000;0.2523;0.6976;
124.2000;0.2515;0.7024;
124.5000;0.2507;0.7000;
124.8000;0.2507;0.7049;
125.1000;0.2507;0.6952;
125.4000;0.2523;0.6976;
125.7000;0.2564;0.7073;
126.0000;0.2523;0.6855;
126.3000;0.2523;0.6903;
126.6000;0.2532;0.6903;
126.9000;0.2515;0.6879;
127.2000;0.2507;0.6806;
127.5000;0.2515;0.6855;
127.8000;0.2507;0.6709;
128.1000;0.2507;0.6637;
128.4000;0.2515;0.6782;
128.7000;0.2515;0.6806;
129.0000;0.2507;0.6903;
129.3000;0.2564;0.7073;
129.6000;0.2515;0.6903;
129.9000;0.2532;0.6976;
130.2000;0.2523;0.6855;
130.5000;0.2532;0.6855;
130.8000;0.2523;0.6855;
131.1000;0.2458;0.6613;
131.4000;0.2507;0.6709;
131.7000;0.2515;0.6758;
132.0000;0.2491;0.6806;
132.3000;0.2491;0.6734;
132.6000;0.2515;0.6758;
132.9000;0.2499;0.6758;
133.2000;0.2499;0.6758;
133.5000;0.2540;0.6831;
133.8000;0.2499;0.6709;
134.1000;0.2523;0.6855;
134.4000;0.2523;0.6952;
134.7000;0.2515;0.7000;
135.0000;0.2556;0.7218;
135.3000;0.2401;0.6758;
135.6000;0.2523;0.7049;
135.9000;0.2515;0.7049;
136.2000;0.2491;0.6927;
136.5000;0.2532;0.6952;
136.8000;0.2515;0.6903;
137.1000;0.2466;0.6806;
137.4000;0.2515;0.6879;
137.7000;0.2507;0.6831;
138.0000;0.2393;0.6637;
138.3000;0.2499;0.7049;
138.6000;0.2515;0.7049;
138.9000;0.2466;0.6879;
139.2000;0.2499;0.6952;
139.5000;0.2515;0.7097;
139.8000;0.2499;0.7145;
140.1000;0.2540;0.7218;
140.4000;0.2523;0.7073;
140.7000;0.2499;0.6952;
141.0000;0.2515;0.6976;
141.3000;0.2499;0.6879;
141.6000;0.2491;0.6903;
141.9000;0.2507;0.6855;
142.2000;0.2515;0.6855;
142.5000;0.2483;0.6734;
142.8000;0.2507;0.6831;
143.1000;0.2499;0.6855;
143.4000;0.2507;0.6879;
143.7000;0.2507;0.6855;
144.0000;0.2515;0.6831;
144.3000;0.2532;0.6952;
144.6000;0.2515;0.6903;
144.9000;0.2507;0.6806;
145.2000;0.2515;0.6831;
145.5000;0.2515;0.6806;
145.8000;0.2507;0.6879;
146.1000;0.2515;0.6976;
146.4000;0.2507;0.6976;
146.7000;0.2515;0.7049;
147.0000;0.2507;0.7194;
147.3000;0.2507;0.7194;
147.6000;0.2483;0.7073;
147.9000;0.2507;0.7024;
148.2000;0.2523;0.7000;
148.5000;0.2515;0.7049;
148.8000;0.2540;0.7073;
149.1000;0.2532;0.7000;
149.4000;0.2499;0.6903;
149.7000;0.2499;0.6879;
150.0000;0.2523;0.6879;
150.3000;0.2515;0.6806;
150.6000;0.2523;0.6831;
150.9000;0.2475;0.6831;
151.2000;0.2523;0.6927;
151.5000;0.2499;0.6855;
151.8000;0.2523;0.6855;
152.1000;0.2515;0.6903;
152.4000;0.2515;0.6782;
152.7000;0.2499;0.6782;
153.0000;0.2532;0.6782;
153.3000;0.2507;0.6709;
153.6000;0.2515;0.6709;
153.9000;0.2491;0.6685;
154.2000;0.2499;0.6709;
154.5000;0.2532;0.6831;
154.8000;0.2426;0.6564;
155.1000;0.2466;0.6661;
155.4000;0.2540;0.6782;
155.7000;0.2491;0.6685;
156.0000;0.2507;0.6685;
156.3000;0.2515;0.6782;
156.6000;0.2499;0.6831;
156.9000;0.2523;0.6976;
157.2000;0.2507;0.6976;
157.5000;0.2540;0.7073;
157.8000;0.2450;0.6709;
158.1000;0.2507;0.6879;
158.4000;0.2540;0.6855;
158.7000;0.2507;0.6806;
159.0000;0.2515;0.6806;
159.3000;0.2491;0.6782;
159.6000;0.2515;0.6855;
159.9000;0.2523;0.6855;
160.2000;0.2499;0.6782;
160.5000;0.2507;0.6782;
160.8000;0.2515;0.6855;
161.1000;0.2572;0.7049;
161.4000;0.2491;0.6855;
161.7000;0.2507;0.6927;
162.0000;0.2515;0.6952;
162.3000;0.2523;0.6855;
162.6000;0.2507;0.6831;
162.9000;0.2507;0.6831;
163.2000;0.2491;0.6831;
163.5000;0.2475;0.6758;
163.8000;0.2523;0.6927;
164.1000;0.2621;0.7194;
164.4000;0.2515;0.6927;
164.7000;0.2523;0.6903;
165.0000;0.2540;0.6855;
165.3000;0.2507;0.6758;
165.6000;0.2499;0.6855;
165.9000;0.2507;0.6903;
166.2000;0.2507;0.6831;
166.5000;0.2499;0.6782;
166.8000;0.2507;0.6782;
167.1000;0.2515;0.6879;
167.4000;0.2532;0.6976;
167.7000;0.2523;0.7049;
168.0000;0.2515;0.7073;
168.3000;0.2499;0.7000;
168.6000;0.2515;0.7073;
168.9000;0.2532;0.7097;
169.2000;0.2499;0.6976;
169.5000;0.2499;0.6952;
169.8000;0.2507;0.6952;
170.1000;0.2532;0.6927;
170.4000;0.2499;0.6806;
170.7000;0.2515;0.6927;
171.0000;0.2556;0.7121;
171.3000;0.2499;0.7024;
171.6000;0.2507;0.7000;
171.9000;0.2572;0.7145;
172.2000;0.2515;0.6976;
172.5000;0.2499;0.6855;
172.8000;0.2532;0.6903;
173.1000;0.2491;0.6903;
173.4000;0.2426;0.6685;
173.7000;0.2491;0.6879;
174.0000;0.2507;0.6952;
174.3000;0.2475;0.6879;
174.6000;0.2515;0.7000;
174.9000;0.2523;0.6976;
175.2000;0.2532;0.6903;
175.5000;0.2532;0.6782;
175.8000;0.2523;0.6709;
176.1000;0.2466;0.6685;
176.4000;0.2540;0.6927;
176.7000;0.2507;0.6952;
177.0000;0.2515;0.6976;
177.3000;0.2515;0.6952;
177.6000;0.2523;0.6927;
177.9000;0.2515;0.6831;
178.2000;0.2442;0.6564;
178.5000;0.2483;0.6637;
178.8000;0.2515;0.6685;
179.1000;0.2475;0.6709;
179.4000;0.2507;0.6782;
179.7000;0.2507;0.6782;
180.0000;0.2499;0.6927;
180.3000;0.2491;0.6831;
180.6000;0.2499;0.6903;
180.9000;0.2507;0.6855;
181.2000;0.2450;0.6685;
181.5000;0.2466;0.6661;
181.8000;0.2515;0.6782;
182.1000;0.2507;0.6709;
182.4000;0.2499;0.6685;
182.7000;0.2499;0.6564;
183.0000;0.2515;0.6637;
183.3000;0.2483;0.6443;
183.6000;0.2491;0.6564;
183.9000;0.2434;0.6443;
184.2000;0.2523;0.6782;
184.5000;0.2491;0.6564;
184.8000;0.2499;0.6661;
185.1000;0.2450;0.6491;
185.4000;0.2458;0.6516;
185.7000;0.2515;0.6588;
186.0000;0.2580;0.6782;
186.3000;0.2466;0.6491;
186.6000;0.2515;0.6613;
186.9000;0.2418;0.6395;
187.2000;0.2491;0.6564;
187.5000;0.2523;0.6588;
187.8000;0.2507;0.6540;
188.1000;0.2507;0.6540;
188.4000;0.2515;0.6516;
188.7000;0.2515;0.6467;
189.0000;0.2523;0.6564;
189.3000;0.2523;0.6588;
189.6000;0.2515;0.6491;
189.9000;0.2499;0.6491;
190.2000;0.2523;0.6613;
190.5000;0.2523;0.6661;
190.8000;0.2515;0.6637;
191.1000;0.2515;0.6588;
191.4000;0.2523;0.6516;
191.7000;0.2515;0.6467;
192.0000;0.2507;0.6516;
192.3000;0.2556;0.6709;
192.6000;0.2515;0.6540;
192.9000;0.2532;0.6613;
193.2000;0.2515;0.6661;
193.5000;0.2483;0.6637;
193.8000;0.2507;0.6637;
194.1000;0.2515;0.6661;
194.4000;0.2491;0.6613;
194.7000;0.2507;0.6685;
195.0000;0.2483;0.6588;
195.3000;0.2475;0.6709;
195.6000;0.2532;0.6855;
195.9000;0.2507;0.6782;
196.2000;0.2499;0.6758;
196.5000;0.2523;0.6831;
196.8000;0.2523;0.6758;
197.1000;0.2523;0.6734;
197.4000;0.2532;0.6709;
197.7000;0.2515;0.6685;
198.0000;0.2507;0.6709;
198.3000;0.2507;0.6734;
198.6000;0.2507;0.6709;
198.9000;0.2515;0.6709;
199.2000;0.2515;0.6709;
199.5000;0.2499;0.6637;
199.8000;0.2515;0.6709;
200.1000;0.2507;0.6685;
200.4000;0.2491;0.6709;
200.7000;0.2507;0.6879;
201.0000;0.2523;0.6903;
201.3000;0.2515;0.6806;
201.6000;0.2523;0.6903;
201.9000;0.2507;0.6855;
202.2000;0.2523;0.6903;
202.5000;0.2523;0.6903;
202.8000;0.2466;0.6806;
203.1000;0.2475;0.6806;
203.4000;0.2540;0.7024;
203.7000;0.2499;0.6879;
204.0000;0.2507;0.6855;
204.3000;0.2572;0.7024;
204.6000;0.2515;0.6927;
204.9000;0.2442;0.6709;
205.2000;0.2515;0.6806;
205.5000;0.2515;0.6685;
205.8000;0.2523;0.6734;
206.1000;0.2499;0.6637;
206.4000;0.2515;0.6661;
206.7000;0.2499;0.6685;
207.0000;0.2507;0.6661;
207.3000;0.2418;0.6613;
207.6000;0.2507;0.6831;
207.9000;0.2523;0.6927;
208.2000;0.2507;0.6903;
208.5000;0.2507;0.6831;
208.8000;0.2491;0.6758;
209.1000;0.2589;0.7024;
209.4000;0.2475;0.6661;
209.7000;0.2515;0.6734;
210.0000;0.2475;0.6588;
210.3000;0.2515;0.6758;
210.6000;0.2515;0.6734;
210.9000;0.2499;0.6734;
211.2000;0.2499;0.6637;
211.5000;0.2580;0.6879;
211.8000;0.2507;0.6709;
212.1000;0.2532;0.6782;
212.4000;0.2515;0.6927;
212.7000;0.2491;0.6758;
213.0000;0.2523;0.6855;
213.3000;0.2507;0.6831;
213.6000;0.2515;0.6879;
213.9000;0.2507;0.6952;
214.2000;0.2499;0.6927;
214.5000;0.2499;0.6927;
214.8000;0.2523;0.6976;
215.1000;0.2515;0.7049;
215.4000;0.2499;0.7024;
215.7000;0.2540;0.7145;
216.0000;0.2491;0.7024;
216.3000;0.2507;0.7121;
216.6000;0.2515;0.6952;
216.9000;0.2523;0.6831;
217.2000;0.2523;0.6855;
217.5000;0.2507;0.6831;
217.8000;0.2532;0.6927;
218.1000;0.2475;0.6831;
218.4000;0.2532;0.7024;
218.7000;0.2532;0.7073;
219.0000;0.2523;0.7145;
219.3000;0.2523;0.7145;
219.6000;0.2507;0.7000;
219.9000;0.2499;0.6927;
220.2000;0.2434;0.6685;
220.5000;0.2507;0.6734;
220.8000;0.2523;0.6782;
221.1000;0.2532;0.6758;
221.4000;0.2532;0.6734;
221.7000;0.2507;0.6661;
222.0000;0.2540;0.6758;
222.3000;0.2523;0.6709;
222.6000;0.2515;0.6831;
222.9000;0.2499;0.6782;
223.2000;0.2507;0.6806;
223.5000;0.2499;0.6758;
223.8000;0.2515;0.6661;
224.1000;0.2523;0.6734;
224.4000;0.2499;0.6734;
224.7000;0.2499;0.6831;
225.0000;0.2532;0.6976;
225.3000;0.2605;0.7194;
225.6000;0.2499;0.6879;
225.9000;0.2507;0.6903;
226.2000;0.2499;0.6903;
226.5000;0.2564;0.7024;
226.8000;0.2507;0.6806;
227.1000;0.2507;0.6806;
227.4000;0.2507;0.6782;
227.7000;0.2564;0.6976;
228.0000;0.2499;0.6831;
228.3000;0.2491;0.6903;
228.6000;0.2515;0.6879;
228.9000;0.2532;0.6952;
229.2000;0.2515;0.6782;
229.5000;0.2491;0.6734;
229.8000;0.2613;0.7049;
230.1000;0.2491;0.6685;
230.4000;0.2466;0.6637;
230.7000;0.2499;0.6709;
231.0000;0.2491;0.6758;
231.3000;0.2483;0.6637;
231.6000;0.2507;0.6709;
231.9000;0.2491;0.6734;
232.2000;0.2515;0.6782;
232.5000;0.2523;0.6831;
232.8000;0.2532;0.6879;
233.1000;0.2466;0.6734;
233.4000;0.2507;0.6806;
233.7000;0.2507;0.6782;
234.0000;0.2515;0.6952;
234.3000;0.2491;0.6879;
234.6000;0.2499;0.6831;
234.9000;0.2499;0.6903;
235.2000;0.2499;0.6879;
235.5000;0.2515;0.6927;
235.8000;0.2491;0.6976;
236.1000;0.2483;0.6927;
236.4000;0.2523;0.6927;
236.7000;0.2507;0.6903;
237.0000;0.2499;0.6879;
237.3000;0.2532;0.6927;
237.6000;0.2515;0.6879;
237.9000;0.2532;0.6976;
238.2000;0.2523;0.6952;
238.5000;0.2515;0.6855;
238.8000;0.2532;0.6855;
239.1000;0.2515;0.6855;
239.4000;0.2515;0.6879;
239.7000;0.2491;0.6782;
240.0000;0.2523;0.6855;
240.3000;0.2515;0.6806;
240.6000;0.2491;0.6806;
240.9000;0.2507;0.6855;
241.2000;0.2507;0.6927;
241.5000;0.2523;0.6927;
241.8000;0.2515;0.6831;
242.1000;0.2491;0.6758;
242.4000;0.2499;0.6806;
242.7000;0.2507;0.6782;
243.0000;0.2499;0.6782;
243.3000;0.2491;0.6782;
243.6000;0.2499;0.6831;
243.9000;0.2499;0.6782;
244.2000;0.2499;0.6952;
244.5000;0.2532;0.7121;
244.8000;0.2483;0.6976;
245.1000;0.2507;0.7024;
245.4000;0.2507;0.6976;
245.7000;0.2523;0.7024;
246.0000;0.2507;0.7024;
246.3000;0.2523;0.7073;
246.6000;0.2532;0.7121;
246.9000;0.2523;0.7145;
247.2000;0.2491;0.7145;
247.5000;0.2507;0.7170;
247.8000;0.2523;0.7267;
248.1000;0.2401;0.6831;
248.4000;0.2548;0.7267;
248.7000;0.2515;0.7073;
249.0000;0.2499;0.7024;
249.3000;0.2393;0.6855;
249.6000;0.2556;0.7194;
249.9000;0.2491;0.7097;
250.2000;0.2499;0.7097;
250.5000;0.2556;0.7170;
250.8000;0.2491;0.7049;
251.1000;0.2499;0.7000;
251.4000;0.2491;0.6952;
251.7000;0.2540;0.7073;
252.0000;0.2491;0.6855;
252.3000;0.2499;0.6927;
252.6000;0.2507;0.6952;
252.9000;0.2637;0.7363;
253.2000;0.2507;0.7000;
253.5000;0.2499;0.7000;
253.8000;0.2499;0.7097;
254.1000;0.2507;0.7194;
254.4000;0.2556;0.7291;
254.7000;0.2499;0.7121;
255.0000;0.2515;0.7073;
255.3000;0.2499;0.7121;
255.6000;0.2523;0.7097;
255.9000;0.2466;0.6855;
256.2000;0.2507;0.7097;
256.5000;0.2523;0.7218;
256.8000;0.2515;0.7170;
257.1000;0.2678;0.7581;
257.4000;0.2507;0.7145;
257.7000;0.2507;0.7218;
258.0000;0.2523;0.7291;
258.3000;0.2515;0.7315;
258.6000;0.2515;0.7315;
258.9000;0.2523;0.7170;
259.2000;0.2556;0.7315;
259.5000;0.2507;0.7218;
259.8000;0.2507;0.7194;
260.1000;0.2515;0.7170;
260.4000;0.2523;0.7194;
260.7000;0.2515;0.7145;
261.0000;0.2515;0.7097;
261.3000;0.2475;0.7049;
261.6000;0.2507;0.7145;
261.9000;0.2523;0.7145;
262.2000;0.2532;0.7073;
262.5000;0.2515;0.7024;
262.8000;0.2507;0.7024;
263.1000;0.2515;0.7049;
263.4000;0.2491;0.7024;
263.7000;0.2491;0.7024;
264.0000;0.2499;0.7073;
264.3000;0.2499;0.7049;
264.6000;0.2491;0.6976;
264.9000;0.2507;0.7049;
265.2000;0.2475;0.7000;
265.5000;0.2507;0.7049;
265.8000;0.2605;0.7291;
266.1000;0.2499;0.7073;
266.4000;0.2499;0.7121;
266.7000;0.2491;0.7049;
267.0000;0.2515;0.7049;
267.3000;0.2515;0.7049;
267.6000;0.2532;0.7073;
267.9000;0.2499;0.7000;
268.2000;0.2515;0.7097;
268.5000;0.2507;0.7145;
268.8000;0.2507;0.7218;
269.1000;0.2507;0.7218;
269.4000;0.2499;0.7194;
269.7000;0.2515;0.7315;
270.0000;0.2515;0.7267;
270.3000;0.2507;0.7218;
270.6000;0.2483;0.7267;
270.9000;0.2515;0.7267;
271.2000;0.2483;0.7218;
271.5000;0.2483;0.7194;
271.8000;0.2507;0.7291;
272.1000;0.2515;0.7194;
272.4000;0.2499;0.7024;
272.7000;0.2458;0.6879;
273.0000;0.2483;0.7000;
273.3000;0.2515;0.7000;
273.6000;0.2466;0.6927;
273.9000;0.2499;0.7024;
274.2000;0.2515;0.7145;
274.5000;0.2466;0.7049;
274.8000;0.2507;0.7145;
275.1000;0.2491;0.7145;
275.4000;0.2450;0.7049;
275.7000;0.2507;0.7242;
276.0000;0.2507;0.7291;
276.3000;0.2499;0.7242;
276.6000;0.2491;0.7218;
276.9000;0.2475;0.7194;
277.2000;0.2491;0.7267;
277.5000;0.2548;0.7339;
277.8000;0.2483;0.7121;
278.1000;0.2507;0.7097;
278.4000;0.2532;0.7218;
278.7000;0.2499;0.7218;
279.0000;0.2523;0.7339;
279.3000;0.2418;0.6976;
279.6000;0.2515;0.7145;
279.9000;0.2507;0.7218;
280.2000;0.2523;0.7267;
280.5000;0.2523;0.7267;
280.8000;0.2499;0.7073;
281.1000;0.2523;0.7145;
281.4000;0.2580;0.7315;
281.7000;0.2515;0.7194;
282.0000;0.2491;0.7121;
282.3000;0.2515;0.7145;
282.6000;0.2532;0.7291;
282.9000;0.2499;0.7194;
283.2000;0.2515;0.7267;
283.5000;0.2491;0.7242;
283.8000;0.2491;0.7315;
284.1000;0.2499;0.7315;
284.4000;0.2466;0.7218;
284.7000;0.2475;0.7267;
285.0000;0.2523;0.7339;
285.3000;0.2523;0.7291;
285.6000;0.2491;0.7145;
285.9000;0.2532;0.7145;
286.2000;0.2507;0.7073;
286.5000;0.2499;0.7049;
286.8000;0.2499;0.7024;
287.1000;0.2483;0.6976;
287.4000;0.2507;0.7024;
287.7000;0.2491;0.7049;
288.0000;0.2515;0.7121;
288.3000;0.2523;0.7194;
288.6000;0.2499;0.7170;
288.9000;0.2483;0.7049;
289.2000;0.2499;0.7073;
289.5000;0.2499;0.6903;
289.8000;0.2515;0.7000;
290.1000;0.2466;0.6806;
290.4000;0.2540;0.7097;
290.7000;0.2442;0.6879;
291.0000;0.2499;0.7145;
291.3000;0.2507;0.7194;
291.6000;0.2507;0.7194;
291.9000;0.2499;0.7097;
292.2000;0.2515;0.7145;
292.5000;0.2564;0.7218;
292.8000;0.2491;0.7024;
293.1000;0.2507;0.7049;
293.4000;0.2507;0.7097;
293.7000;0.2499;0.7073;
294.0000;0.2507;0.7121;
294.3000;0.2532;0.7145;
294.6000;0.2507;0.7073;
294.9000;0.2515;0.6952;
295.2000;0.2515;0.7024;
295.5000;0.2507;0.7121;
295.8000;0.2491;0.7218;
296.1000;0.2507;0.7242;
296.4000;0.2499;0.7194;
296.7000;0.2499;0.7121;
297.0000;0.2507;0.7194;
297.3000;0.2475;0.7024;
297.6000;0.2499;0.7000;
297.9000;0.2523;0.7049;
298.2000;0.2523;0.7024;
298.5000;0.2499;0.6903;
298.8000;0.2491;0.6952;
299.1000;0.2523;0.7000;
299.4000;0.2515;0.7145;
299.7000;0.2507;0.7145;
300.0000;0.2409;0.6879;
300.3000;0.2629;0.7412;
300.6000;0.2532;0.7097;
300.9000;0.2621;0.7388;
301.2000;0.2556;0.7218;
301.5000;0.2548;0.7170;
301.8000;0.2523;0.7145;
302.1000;0.2523;0.7145;
302.4000;0.2426;0.6806;
302.7000;0.2499;0.7024;
303.0000;0.2515;0.7097;
303.3000;0.2507;0.7097;
303.6000;0.2499;0.6976;
303.9000;0.2507;0.6976;
304.2000;0.2507;0.6976;
304.5000;0.2507;0.6952;
304.8000;0.2507;0.6831;
305.1000;0.2507;0.6782;
305.4000;0.2523;0.6903;
305.7000;0.2532;0.6879;
306.0000;0.2499;0.6831;
306.3000;0.2475;0.6734;
306.6000;0.2483;0.6758;
306.9000;0.2491;0.6831;
307.2000;0.2483;0.6782;
307.5000;0.2483;0.6685;
307.8000;0.2491;0.6661;
308.1000;0.2499;0.6637;
308.4000;0.2507;0.6782;
308.7000;0.2491;0.6782;
309.0000;0.2491;0.6831;
309.3000;0.2507;0.6879;
309.6000;0.2515;0.6903;
309.9000;0.2515;0.6927;
310.2000;0.2540;0.6952;
310.5000;0.2507;0.6806;
310.8000;0.2515;0.6879;
311.1000;0.2483;0.6758;
311.4000;0.2499;0.6758;
311.7000;0.2483;0.6758;
312.0000;0.2499;0.6879;
312.3000;0.2491;0.6806;
312.6000;0.2515;0.6903;
312.9000;0.2483;0.6855;
313.2000;0.2491;0.6927;
313.5000;0.2491;0.6855;
313.8000;0.2491;0.6758;
314.1000;0.2515;0.6758;
314.4000;0.2483;0.6782;
314.7000;0.2515;0.6806;
315.0000;0.2466;0.6734;
315.3000;0.2507;0.6831;
315.6000;0.2507;0.6879;
315.9000;0.2507;0.6927;
316.2000;0.2523;0.6976;
316.5000;0.2499;0.6879;
316.8000;0.2507;0.7000;
317.1000;0.2507;0.7073;
317.4000;0.2540;0.7170;
317.7000;0.2483;0.7000;
318.0000;0.2491;0.7049;
318.3000;0.2515;0.7073;
318.6000;0.2499;0.7000;
318.9000;0.2499;0.6927;
319.2000;0.2499;0.6903;
319.5000;0.2515;0.7073;
319.8000;0.2507;0.7049;
320.1000;0.2499;0.7024;
320.4000;0.2507;0.7097;
320.7000;0.2515;0.7194;
321.0000;0.2540;0.7315;
321.3000;0.2580;0.7485;
321.6000;0.2507;0.7267;
321.9000;0.2523;0.7315;
322.2000;0.2507;0.7242;
322.5000;0.2499;0.7024;
322.8000;0.2491;0.7073;
323.1000;0.2475;0.6952;
323.4000;0.2507;0.7024;
323.7000;0.2499;0.7000;
324.0000;0.2483;0.6952;
324.3000;0.2491;0.7073;
324.6000;0.2483;0.7097;
324.9000;0.2507;0.7170;
325.2000;0.2515;0.7121;
325.5000;0.2483;0.7073;
325.8000;0.2499;0.7049;
326.1000;0.2483;0.7145;
326.4000;0.2450;0.7073;
326.7000;0.2507;0.7097;
327.0000;0.2499;0.7073;
327.3000;0.2499;0.7097;
327.6000;0.2483;0.7097;
327.9000;0.2491;0.7097;
328.2000;0.2491;0.7097;
328.5000;0.2491;0.7049;
328.8000;0.2507;0.7073;
329.1000;0.2491;0.7049;
329.4000;0.2499;0.7121;
329.7000;0.2499;0.7121;
330.0000;0.2491;0.7097;
330.3000;0.2515;0.7097;
330.6000;0.2515;0.7049;
330.9000;0.2491;0.6879;
331.2000;0.2564;0.7073;
331.5000;0.2499;0.6927;
331.8000;0.2515;0.6976;
332.1000;0.2499;0.6927;
332.4000;0.2515;0.7000;
332.7000;0.2426;0.6831;
333.0000;0.2491;0.7145;
333.3000;0.2523;0.7194;
333.6000;0.2515;0.7194;
333.9000;0.2564;0.7315;
334.2000;0.2523;0.7145;
334.5000;0.2507;0.7097;
334.8000;0.2515;0.7073;
335.1000;0.2515;0.7097;
335.4000;0.2507;0.7000;
335.7000;0.2499;0.7049;
336.0000;0.2540;0.7194;
336.3000;0.2515;0.7121;
336.6000;0.2499;0.7049;
336.9000;0.2523;0.7145;
337.2000;0.2572;0.7339;
337.5000;0.2483;0.6976;
337.8000;0.2515;0.7049;
338.1000;0.2507;0.7024;
338.4000;0.2499;0.6952;
338.7000;0.2507;0.6976;
339.0000;0.2499;0.6976;
339.3000;0.2491;0.7000;
339.6000;0.2507;0.7000;
339.9000;0.2499;0.7024;
340.2000;0.2515;0.6976;
340.5000;0.2564;0.7170;
340.8000;0.2491;0.6976;
341.1000;0.2515;0.7049;
341.4000;0.2491;0.6976;
341.7000;0.2507;0.6952;
342.0000;0.2515;0.6952;
342.3000;0.2556;0.7121;
342.6000;0.2515;0.7097;
342.9000;0.2523;0.7145;
343.2000;0.2507;0.7194;
343.5000;0.2540;0.7218;
343.8000;0.2507;0.7073;
344.1000;0.2507;0.7121;
344.4000;0.2491;0.7024;
344.7000;0.2475;0.7000;
345.0000;0.2523;0.7097;
345.3000;0.2450;0.6952;
345.6000;0.2507;0.7145;
345.9000;0.2523;0.7170;
346.2000;0.2515;0.7024;
346.5000;0.2523;0.7024;
346.8000;0.2507;0.7049;
347.1000;0.2515;0.7073;
347.4000;0.2466;0.7049;
347.7000;0.2515;0.7097;
348.0000;0.2507;0.7024;
348.3000;0.2515;0.7121;
348.6000;0.2483;0.7049;
348.9000;0.2507;0.7024;
349.2000;0.2418;0.6758;
349.5000;0.2491;0.7049;
349.8000;0.2507;0.7121;
350.1000;0.2515;0.7145;
350.4000;0.2499;0.6976;
350.7000;0.2507;0.6976;
351.0000;0.2523;0.7049;
351.3000;0.2515;0.6927;
351.6000;0.2475;0.6831;
351.9000;0.2515;0.6976;
352.2000;0.2515;0.6903;
352.5000;0.2507;0.6927;
352.8000;0.2523;0.6879;
353.1000;0.2491;0.7000;
353.4000;0.2515;0.7121;
353.7000;0.2466;0.7024;
354.0000;0.2507;0.7097;
354.3000;0.2491;0.7049;
354.6000;0.2499;0.7073;
354.9000;0.2491;0.6927;
355.2000;0.2556;0.7170;
355.5000;0.2515;0.7073;
355.8000;0.2442;0.6952;
356.1000;0.2507;0.7097;
356.4000;0.2507;0.7097;
356.7000;0.2605;0.7460;
357.0000;0.2483;0.7218;
357.3000;0.2499;0.7242;
357.6000;0.2499;0.7242;
357.9000;0.2507;0.7218;
358.2000;0.2523;0.7218;
358.5000;0.2499;0.7194;
358.8000;0.2491;0.7121;
359.1000;0.2499;0.7170;
359.4000;0.2499;0.7121;
359.7000;0.2532;0.7194;
360.0000;0.2483;0.7049;
360.3000;0.2515;0.7218;
360.6000;0.2523;0.7218;
360.9000;0.2499;0.7145;
361.2000;0.2499;0.7121;
361.5000;0.2515;0.7097;
361.8000;0.2499;0.7121;
362.1000;0.2507;0.7145;
362.4000;0.2515;0.7145;
362.7000;0.2515;0.7194;
363.0000;0.2515;0.7097;
363.3000;0.2523;0.7121;
363.6000;0.2523;0.7097;
363.9000;0.2499;0.7000;
364.2000;0.2515;0.7049;
364.5000;0.2491;0.7073;
364.8000;0.2507;0.7097;
365.1000;0.2499;0.7049;
365.4000;0.2507;0.7049;
365.7000;0.2548;0.7145;
366.0000;0.2515;0.7000;
366.3000;0.2572;0.7097;
366.6000;0.2499;0.6976;
366.9000;0.2483;0.6903;
367.2000;0.2515;0.6976;
367.5000;0.2483;0.6927;
367.8000;0.2515;0.6952;
368.1000;0.2515;0.6976;
368.4000;0.2458;0.6806;
368.7000;0.2556;0.7121;
369.0000;0.2458;0.6927;
369.3000;0.2507;0.7097;
369.6000;0.2515;0.7121;
369.9000;0.2499;0.7145;
370.2000;0.2499;0.7194;
370.5000;0.2507;0.7121;
370.8000;0.2507;0.7073;
371.1000;0.2523;0.7000;
371.4000;0.2450;0.6782;
371.7000;0.2532;0.7049;
372.0000;0.2507;0.6927;
372.3000;0.2507;0.6879;
372.6000;0.2499;0.6806;
372.9000;0.2507;0.6879;
373.2000;0.2523;0.6855;
373.5000;0.2507;0.6855;
373.8000;0.2507;0.6855;
374.1000;0.2499;0.6855;
374.4000;0.2580;0.7097;
374.7000;0.2491;0.6831;
375.0000;0.2491;0.6734;
375.3000;0.2466;0.6782;
375.6000;0.2475;0.6758;
375.9000;0.2491;0.6903;
376.2000;0.2507;0.6927;
376.5000;0.2515;0.6976;
376.8000;0.2499;0.6879;
377.1000;0.2548;0.7049;
377.4000;0.2515;0.7073;
377.7000;0.2499;0.6976;
378.0000;0.2564;0.7121;
378.3000;0.2523;0.7000;
378.6000;0.2515;0.6927;
378.9000;0.2515;0.6927;
379.2000;0.2523;0.7000;
379.5000;0.2523;0.7024;
379.8000;0.2523;0.7073;
380.1000;0.2629;0.7460;
380.4000;0.2499;0.7170;
380.7000;0.2499;0.7194;
381.0000;0.2483;0.7097;
381.3000;0.2499;0.7170;
381.6000;0.2515;0.7121;
381.9000;0.2507;0.7024;
382.2000;0.2523;0.7097;
382.5000;0.2507;0.7049;
382.8000;0.2499;0.7097;
383.1000;0.2507;0.7073;
383.4000;0.2507;0.7073;
383.7000;0.2515;0.7073;
384.0000;0.2499;0.7097;
384.3000;0.2499;0.7000;
384.6000;0.2499;0.7049;
384.9000;0.2499;0.7097;
385.2000;0.2491;0.7073;
385.5000;0.2491;0.7097;
385.8000;0.2491;0.7073;
386.1000;0.2507;0.7170;
386.4000;0.2491;0.7121;
386.7000;0.2515;0.7145;
387.0000;0.2499;0.7073;
387.3000;0.2507;0.7000;
387.6000;0.2507;0.7000;
387.9000;0.2523;0.7000;
388.2000;0.2515;0.6976;
388.5000;0.2523;0.6976;
388.8000;0.2507;0.7000;
389.1000;0.2491;0.6927;
389.4000;0.2629;0.7267;
389.7000;0.2515;0.6903;
390.0000;0.2515;0.6903;
390.3000;0.2515;0.6855;
390.6000;0.2507;0.6734;
390.9000;0.2556;0.6903;
391.2000;0.2523;0.6831;
391.5000;0.2507;0.6782;
391.8000;0.2523;0.6879;
392.1000;0.2507;0.6903;
392.4000;0.2523;0.6952;
392.7000;0.2515;0.6879;
393.0000;0.2507;0.6734;
393.3000;0.2507;0.6709;
393.6000;0.2564;0.6806;
393.9000;0.2507;0.6758;
394.2000;0.2507;0.6685;
394.5000;0.2475;0.6540;
394.8000;0.2491;0.6613;
395.1000;0.2499;0.6685;
395.4000;0.2523;0.6831;
395.7000;0.2491;0.6758;
396.0000;0.2523;0.6806;
396.3000;0.2507;0.6734;
396.6000;0.2532;0.6734;
396.9000;0.2523;0.6782;
397.2000;0.2507;0.6734;
397.5000;0.2491;0.6734;
397.8000;0.2507;0.6709;
398.1000;0.2507;0.6685;
398.4000;0.2507;0.6685;
398.7000;0.2507;0.6637;
399.0000;0.2523;0.6758;
399.3000;0.2499;0.6709;
399.6000;0.2507;0.6709;
399.9000;0.2507;0.6661;
400.2000;0.2515;0.6734;
400.5000;0.2507;0.6806;
400.8000;0.2507;0.6709;
401.1000;0.2515;0.6709;
401.4000;0.2491;0.6685;
401.7000;0.2523;0.6734;
402.0000;0.2491;0.6709;
402.3000;0.2499;0.6709;
402.6000;0.2491;0.6709;
402.9000;0.2515;0.6782;
403.2000;0.2458;0.6588;
403.5000;0.2491;0.6685;
403.8000;0.2507;0.6734;
404.1000;0.2499;0.6661;
404.4000;0.2507;0.6661;
404.7000;0.2499;0.6637;
405.0000;0.2507;0.6806;
405.3000;0.2499;0.6903;
405.6000;0.2483;0.7000;
405.9000;0.2499;0.7073;
406.2000;0.2499;0.6976;
406.5000;0.2507;0.6855;
406.8000;0.2499;0.6879;
407.1000;0.2483;0.6758;
407.4000;0.2491;0.6831;
407.7000;0.2499;0.6903;
408.0000;0.2499;0.6903;
408.3000;0.2515;0.6952;
408.6000;0.2499;0.6952;
408.9000;0.2515;0.6952;
409.2000;0.2532;0.6952;
409.5000;0.2507;0.6927;
409.8000;0.2507;0.7000;
410.1000;0.2491;0.7024;
410.4000;0.2564;0.7218;
410.7000;0.2507;0.7097;
411.0000;0.2483;0.7049;
411.3000;0.2491;0.7024;
411.6000;0.2499;0.7000;
411.9000;0.2507;0.7049;
412.2000;0.2475;0.6952;
412.5000;0.2466;0.6903;
412.8000;0.2523;0.7000;
413.1000;0.2564;0.7170;
413.4000;0.2532;0.7097;
413.7000;0.2491;0.7000;
414.0000;0.2548;0.7121;
414.3000;0.2507;0.7024;
414.6000;0.2491;0.7073;
414.9000;0.2491;0.7049;
415.2000;0.2507;0.7024;
415.5000;0.2393;0.6855;
415.8000;0.2507;0.7242;
416.1000;0.2499;0.7267;
416.4000;0.2491;0.7242;
416.7000;0.2507;0.7218;
417.0000;0.2523;0.7194;
417.3000;0.2499;0.7170;
417.6000;0.2442;0.6927;
417.9000;0.2515;0.7097;
418.2000;0.2499;0.7073;
418.5000;0.2507;0.7097;
418.8000;0.2507;0.7097;
419.1000;0.2515;0.7097;
419.4000;0.2483;0.6976;
419.7000;0.2515;0.7097;
420.0000;0.2507;0.7170;
420.3000;0.2499;0.7121;
420.6000;0.2466;0.7097;
420.9000;0.2507;0.7170;
421.2000;0.2491;0.7194;
421.5000;0.2475;0.7121;
421.8000;0.2507;0.7145;
422.1000;0.2499;0.7170;
422.4000;0.2523;0.7145;
422.7000;0.2491;0.7121;
423.0000;0.2507;0.7121;
423.3000;0.2515;0.7073;
423.6000;0.2499;0.7121;
423.9000;0.2491;0.7170;
424.2000;0.2515;0.7194;
424.5000;0.2523;0.7145;
424.8000;0.2499;0.7097;
425.1000;0.2491;0.7097;
425.4000;0.2507;0.7170;
425.7000;0.2491;0.7121;
426.0000;0.2507;0.7194;
426.3000;0.2483;0.7121;
426.6000;0.2483;0.7024;
426.9000;0.2475;0.7073;
427.2000;0.2442;0.7000;
427.5000;0.2491;0.7145;
427.8000;0.2507;0.7170;
428.1000;0.2409;0.6903;
428.4000;0.2499;0.7170;
428.7000;0.2507;0.7242;
429.0000;0.2491;0.7267;
429.3000;0.2466;0.7194;
429.6000;0.2499;0.7218;
429.9000;0.2515;0.7242;
430.2000;0.2491;0.7145;
430.5000;0.2507;0.7049;
430.8000;0.2483;0.7024;
431.1000;0.2483;0.7000;
431.4000;0.2523;0.7145;
431.7000;0.2499;0.7121;
432.0000;0.2515;0.7145;
432.3000;0.2515;0.7121;
432.6000;0.2491;0.7024;
432.9000;0.2507;0.7024;
433.2000;0.2523;0.7121;
433.5000;0.2499;0.7170;
433.8000;0.2499;0.7242;
434.1000;0.2507;0.7242;
434.4000;0.2507;0.7339;
434.7000;0.2499;0.7363;
435.0000;0.2564;0.7460;
435.3000;0.2532;0.7460;
435.6000;0.2499;0.7388;
435.9000;0.2491;0.7339;
436.2000;0.2491;0.7242;
436.5000;0.2499;0.7218;
436.8000;0.2458;0.7097;
437.1000;0.2434;0.7073;
437.4000;0.2483;0.7291;
437.7000;0.2507;0.7315;
438.0000;0.2499;0.7218;
438.3000;0.2507;0.7218;
438.6000;0.2515;0.7242;
438.9000;0.2466;0.7145;
439.2000;0.2483;0.7097;
439.5000;0.2523;0.7145;
439.8000;0.2475;0.7024;
440.1000;0.2499;0.7145;
440.4000;0.2491;0.7073;
440.7000;0.2507;0.7121;
441.0000;0.2491;0.7000;
441.3000;0.2483;0.7000;
441.6000;0.2499;0.7073;
441.9000;0.2483;0.7121;
442.2000;0.2491;0.7145;
442.5000;0.2450;0.6952;
442.8000;0.2491;0.7170;
443.1000;0.2491;0.7170;
443.4000;0.2442;0.7097;
443.7000;0.2499;0.7267;
444.0000;0.2466;0.7121;
444.3000;0.2491;0.7121;
444.6000;0.2507;0.7049;
444.9000;0.2515;0.7097;
445.2000;0.2507;0.7073;
445.5000;0.2515;0.7145;
445.8000;0.2499;0.7000;
446.1000;0.2499;0.7024;
446.4000;0.2532;0.7049;
446.7000;0.2515;0.6976;
447.0000;0.2491;0.7024;
447.3000;0.2499;0.7049;
447.6000;0.2515;0.7049;
447.9000;0.2515;0.7000;
448.2000;0.2515;0.6976;
448.5000;0.2507;0.6976;
448.8000;0.2507;0.6927;
449.1000;0.2515;0.6903;
449.4000;0.2475;0.6879;
449.7000;0.2507;0.6903;
450.0000;0.2499;0.6855;
450.3000;0.2540;0.6927;
450.6000;0.2523;0.6927;
450.9000;0.2475;0.6831;
451.2000;0.2515;0.7000;
451.5000;0.2507;0.7024;
451.8000;0.2483;0.6976;
452.1000;0.2499;0.7121;
452.4000;0.2491;0.7145;
452.7000;0.2475;0.7121;
453.0000;0.2491;0.7097;
453.3000;0.2483;0.7073;
453.6000;0.2491;0.7073;
453.9000;0.2499;0.7121;
454.2000;0.2523;0.7049;
454.5000;0.2507;0.7000;
454.8000;0.2507;0.6976;
455.1000;0.2613;0.7218;
455.4000;0.2629;0.7291;
455.7000;0.2515;0.7049;
456.0000;0.2515;0.7000;
456.3000;0.2515;0.6976;
456.6000;0.2507;0.7024;
456.9000;0.2507;0.6952;
457.2000;0.2499;0.6952;
457.5000;0.2589;0.7194;
457.8000;0.2515;0.7024;
458.1000;0.2426;0.6758;
458.4000;0.2466;0.6831;
458.7000;0.2491;0.7049;
459.0000;0.2507;0.7097;
459.3000;0.2572;0.7242;
459.6000;0.2507;0.7121;
459.9000;0.2532;0.7291;
460.2000;0.2515;0.7242;
460.5000;0.2491;0.7121;
460.8000;0.2499;0.7145;
461.1000;0.2483;0.7170;
461.4000;0.2483;0.7121;
461.7000;0.2491;0.7024;
462.0000;0.2491;0.7000;
462.3000;0.2466;0.6879;
462.6000;0.2499;0.7000;
462.9000;0.2491;0.7000;
463.2000;0.2491;0.7000;
463.5000;0.2483;0.6927;
463.8000;0.2491;0.6952;
464.1000;0.2491;0.6952;
464.4000;0.2515;0.6976;
464.7000;0.2507;0.6927;
465.0000;0.2499;0.6952;
465.3000;0.2491;0.6879;
465.6000;0.2515;0.6952;
465.9000;0.2499;0.7000;
466.2000;0.2515;0.6952;
466.5000;0.2507;0.7049;
466.8000;0.2523;0.7121;
467.1000;0.2507;0.7145;
467.4000;0.2499;0.7170;
467.7000;0.2507;0.7121;
468.0000;0.2507;0.7194;
468.3000;0.2532;0.7218;
468.6000;0.2483;0.7049;
468.9000;0.2483;0.7049;
469.2000;0.2507;0.7170;
469.5000;0.2499;0.7194;
469.8000;0.2499;0.7145;
470.1000;0.2483;0.7170;
470.4000;0.2548;0.7291;
470.7000;0.2515;0.7121;
471.0000;0.2499;0.7097;
471.3000;0.2515;0.7073;
471.6000;0.2507;0.7073;
471.9000;0.2589;0.7291;
472.2000;0.2434;0.6903;
472.5000;0.2499;0.7170;
472.8000;0.2499;0.7145;
473.1000;0.2491;0.7194;
473.4000;0.2483;0.7170;
473.7000;0.2523;0.7291;
474.0000;0.2491;0.7121;
474.3000;0.2532;0.7121;
474.6000;0.2499;0.7049;
474.9000;0.2507;0.7073;
475.2000;0.2491;0.7049;
475.5000;0.2499;0.7097;
475.8000;0.2507;0.7073;
476.1000;0.2499;0.7097;
476.4000;0.2515;0.7097;
476.7000;0.2499;0.7073;
477.0000;0.2572;0.7267;
477.3000;0.2515;0.7097;
477.6000;0.2515;0.7073;
477.9000;0.2499;0.6952;
478.2000;0.2499;0.6976;
478.5000;0.2442;0.6758;
478.8000;0.2499;0.6976;
479.1000;0.2499;0.7000;
479.4000;0.2515;0.7073;
479.7000;0.2499;0.7097;
480.0000;0.2491;0.7024;
480.3000;0.2515;0.7145;
480.6000;0.2523;0.7194;
480.9000;0.2499;0.7097;
481.2000;0.2515;0.7097;
481.5000;0.2483;0.6903;
481.8000;0.2483;0.6976;
482.1000;0.2507;0.6952;
482.4000;0.2499;0.6952;
482.7000;0.2499;0.7024;
483.0000;0.2556;0.7218;
483.3000;0.2540;0.7170;
483.6000;0.2499;0.7145;
483.9000;0.2491;0.7170;
484.2000;0.2491;0.7194;
484.5000;0.2515;0.7242;
484.8000;0.2507;0.7170;
485.1000;0.2475;0.7145;
485.4000;0.2491;0.7194;
485.7000;0.2499;0.7170;
486.0000;0.2450;0.7000;
486.3000;0.2499;0.7024;
486.6000;0.2491;0.6976;
486.9000;0.2499;0.6952;
487.2000;0.2491;0.7024;
487.5000;0.2507;0.7049;
487.8000;0.2507;0.6952;
488.1000;0.2507;0.6831;
488.4000;0.2507;0.6903;
488.7000;0.2532;0.7049;
489.0000;0.2540;0.7097;
489.3000;0.2507;0.7000;
489.6000;0.2532;0.7024;
489.9000;0.2507;0.6855;
490.2000;0.2515;0.6855;
490.5000;0.2507;0.6855;
490.8000;0.2507;0.6903;
491.1000;0.2523;0.6976;
491.4000;0.2515;0.6952;
491.7000;0.2499;0.6903;
492.0000;0.2515;0.6855;
492.3000;0.2523;0.6831;
492.6000;0.2499;0.6806;
492.9000;0.2507;0.6806;
493.2000;0.2532;0.6806;
493.5000;0.2515;0.6782;
493.8000;0.2491;0.6758;
494.1000;0.2507;0.6782;
494.4000;0.2450;0.6588;
494.7000;0.2466;0.6637;
495.0000;0.2491;0.6806;
495.3000;0.2499;0.6855;
495.6000;0.2507;0.6927;
495.9000;0.2515;0.6952;
496.2000;0.2589;0.7145;
496.5000;0.2483;0.6903;
496.8000;0.2507;0.6952;
497.1000;0.2499;0.7049;
497.4000;0.2507;0.7024;
497.7000;0.2483;0.6903;
498.0000;0.2507;0.6952;
498.3000;0.2499;0.6976;
498.6000;0.2499;0.6952;
498.9000;0.2540;0.7049;
499.2000;0.2458;0.6903;
499.5000;0.2491;0.6976;
499.8000;0.2507;0.7024;
500.1000;0.2499;0.6952;
500.4000;0.2499;0.6855;
500.7000;0.2483;0.6734;
501.0000;0.2499;0.6903;
501.3000;0.2540;0.6976;
501.6000;0.2499;0.6952;
501.9000;0.2475;0.6927;
502.2000;0.2515;0.7073;
502.5000;0.2418;0.6831;
502.8000;0.2515;0.7145;
503.1000;0.2515;0.7145;
503.4000;0.2475;0.7121;
503.7000;0.2532;0.7194;
504.0000;0.2491;0.7121;
504.3000;0.2401;0.6855;
504.6000;0.2491;0.7170;
504.9000;0.2499;0.7194;
505.2000;0.2523;0.7218;
505.5000;0.2491;0.7145;
505.8000;0.2466;0.7024;
506.1000;0.2499;0.7024;
506.4000;0.2491;0.7049;
506.7000;0.2507;0.7097;
507.0000;0.2442;0.6903;
507.3000;0.2434;0.6782;
507.6000;0.2491;0.7049;
507.9000;0.2499;0.7170;
508.2000;0.2499;0.7121;
508.5000;0.2507;0.7073;
508.8000;0.2515;0.7049;
509.1000;0.2507;0.6927;
509.4000;0.2475;0.6831;
509.7000;0.2507;0.6927;
510.0000;0.2475;0.6879;
510.3000;0.2515;0.7145;
510.6000;0.2499;0.7121;
510.9000;0.2426;0.6782;
511.2000;0.2507;0.7049;
511.5000;0.2515;0.7121;
511.8000;0.2507;0.7049;
512.1000;0.2483;0.6976;
512.4000;0.2507;0.7049;
512.7000;0.2507;0.7000;
513.0000;0.2515;0.7073;
513.3000;0.2507;0.7024;
513.6000;0.2458;0.6855;
513.9000;0.2515;0.6903;
514.2000;0.2507;0.6879;
514.5000;0.2483;0.6831;
514.8000;0.2491;0.6903;
515.1000;0.2523;0.6879;
515.4000;0.2507;0.6734;
515.7000;0.2483;0.6734;
516.0000;0.2491;0.6734;
516.3000;0.2629;0.7145;
516.6000;0.2515;0.6879;
516.9000;0.2491;0.6806;
517.2000;0.2540;0.6879;
517.5000;0.2507;0.6782;
517.8000;0.2499;0.6879;
518.1000;0.2491;0.6952;
518.4000;0.2458;0.6903;
518.7000;0.2475;0.6903;
519.0000;0.2515;0.7000;
519.3000;0.2499;0.6952;
519.6000;0.2499;0.6952;
519.9000;0.2466;0.6927;
520.2000;0.2491;0.6879;
520.5000;0.2507;0.6879;
520.8000;0.2491;0.6806;
521.1000;0.2499;0.6927;
521.4000;0.2523;0.6927;
521.7000;0.2507;0.6952;
522.0000;0.2499;0.7000;
522.3000;0.2499;0.7049;
522.6000;0.2499;0.7049;
522.9000;0.2450;0.6879;
523.2000;0.2540;0.7145;
523.5000;0.2515;0.7000;
523.8000;0.2499;0.6976;
524.1000;0.2507;0.7024;
524.4000;0.2499;0.6976;
524.7000;0.2483;0.6831;
525.0000;0.2499;0.6903;
525.3000;0.2507;0.6976;
525.6000;0.2499;0.6976;
525.9000;0.2499;0.6976;
526.2000;0.2499;0.6927;
526.5000;0.2580;0.7024;
526.8000;0.2515;0.6806;
527.1000;0.2540;0.6806;
527.4000;0.2499;0.6734;
527.7000;0.2450;0.6709;
528.0000;0.2515;0.6927;
528.3000;0.2458;0.6782;
528.6000;0.2515;0.6976;
528.9000;0.2475;0.6879;
529.2000;0.2507;0.7121;
529.5000;0.2491;0.6976;
529.8000;0.2491;0.7000;
530.1000;0.2491;0.6976;
530.4000;0.2515;0.7000;
530.7000;0.2499;0.6903;
531.0000;0.2491;0.6927;
531.3000;0.2572;0.7170;
531.6000;0.2499;0.7049;
531.9000;0.2409;0.6831;
532.2000;0.2515;0.7121;
532.5000;0.2523;0.7049;
532.8000;0.2548;0.7145;
533.1000;0.2483;0.6976;
533.4000;0.2499;0.7000;
533.7000;0.2507;0.6903;
534.0000;0.2532;0.6903;
534.3000;0.2523;0.6855;
534.6000;0.2515;0.6831;
534.9000;0.2499;0.6758;
535.2000;0.2475;0.6782;
535.5000;0.2515;0.6927;
535.8000;0.2515;0.6903;
536.1000;0.2483;0.6806;
536.4000;0.2507;0.6952;
536.7000;0.2507;0.6952;
537.0000;0.2499;0.6806;
537.3000;0.2499;0.6831;
537.6000;0.2499;0.6782;
537.9000;0.2499;0.6831;
538.2000;0.2532;0.6903;
538.5000;0.2532;0.6976;
538.8000;0.2491;0.6903;
539.1000;0.2450;0.6709;
539.4000;0.2475;0.6806;
539.7000;0.2523;0.6831;
540.0000;0.2475;0.6661;
540.3000;0.2515;0.6709;
540.6000;0.2523;0.6709;
540.9000;0.2499;0.6709;
541.2000;0.2475;0.6685;
541.5000;0.2499;0.6709;
541.8000;0.2507;0.6685;
542.1000;0.2491;0.6734;
542.4000;0.2491;0.6782;
542.7000;0.2499;0.6879;
543.0000;0.2499;0.6927;
543.3000;0.2507;0.7049;
543.6000;0.2499;0.6952;
543.9000;0.2442;0.6734;
544.2000;0.2499;0.6855;
544.5000;0.2507;0.6903;
544.8000;0.2434;0.6709;
545.1000;0.2491;0.7000;
545.4000;0.2483;0.6976;
545.7000;0.2499;0.6903;
546.0000;0.2507;0.6927;
546.3000;0.2515;0.7024;
546.6000;0.2523;0.7073;
546.9000;0.2491;0.7000;
547.2000;0.2491;0.7000;
547.5000;0.2499;0.7024;
547.8000;0.2499;0.7097;
548.1000;0.2507;0.7049;
548.4000;0.2523;0.7049;
548.7000;0.2507;0.7000;
549.0000;0.2515;0.7024;
549.3000;0.2499;0.7097;
549.6000;0.2515;0.7049;
549.9000;0.2515;0.7073;
550.2000;0.2483;0.7073;
550.5000;0.2507;0.7170;
550.8000;0.2540;0.7194;
551.1000;0.2515;0.7097;
551.4000;0.2499;0.7000;
551.7000;0.2491;0.6976;
552.0000;0.2540;0.7024;
552.3000;0.2548;0.7121;
552.6000;0.2499;0.7024;
552.9000;0.2564;0.7218;
553.2000;0.2475;0.6976;
553.5000;0.2515;0.7049;
553.8000;0.2515;0.7073;
554.1000;0.2491;0.6976;
554.4000;0.2499;0.6976;
554.7000;0.2483;0.6976;
555.0000;0.2475;0.7024;
555.3000;0.2499;0.7121;
555.6000;0.2475;0.7073;
555.9000;0.2499;0.7073;
556.2000;0.2540;0.7218;
556.5000;0.2499;0.7145;
556.8000;0.2491;0.7145;
557.1000;0.2434;0.6927;
557.4000;0.2515;0.7145;
557.7000;0.2499;0.7024;
558.0000;0.2499;0.6952;
558.3000;0.2491;0.6927;
558.6000;0.2507;0.6976;
558.9000;0.2515;0.7000;
559.2000;0.2499;0.7097;
559.5000;0.2499;0.7097;
559.8000;0.2491;0.7073;
560.1000;0.2507;0.7097;
560.4000;0.2499;0.7073;
560.7000;0.2532;0.7097;
561.0000;0.2499;0.7024;
561.3000;0.2458;0.6903;
561.6000;0.2483;0.7000;
561.9000;0.2491;0.7024;
562.2000;0.2466;0.6952;
562.5000;0.2499;0.7073;
562.8000;0.2507;0.7049;
563.1000;0.2483;0.7024;
563.4000;0.2507;0.7121;
563.7000;0.2532;0.7194;
564.0000;0.2499;0.7145;
564.3000;0.2483;0.7049;
564.6000;0.2499;0.7024;
564.9000;0.2499;0.7049;
565.2000;0.2483;0.7024;
565.5000;0.2483;0.7097;
565.8000;0.2670;0.7581;
566.1000;0.2491;0.7194;
566.4000;0.2507;0.7291;
566.7000;0.2483;0.7194;
567.0000;0.2499;0.7170;
567.3000;0.2523;0.7170;
567.6000;0.2507;0.7121;
567.9000;0.2515;0.7049;
568.2000;0.2507;0.7073;
568.5000;0.2499;0.6952;
568.8000;0.2515;0.7024;
569.1000;0.2523;0.7049;
569.4000;0.2491;0.7024;
569.7000;0.2507;0.7024;
570.0000;0.2491;0.6903;
570.3000;0.2499;0.6855;
570.6000;0.2507;0.6952;
570.9000;0.2507;0.6903;
571.2000;0.2499;0.6879;
571.5000;0.2491;0.6879;
571.8000;0.2499;0.6976;
572.1000;0.2523;0.7000;
572.4000;0.2491;0.6952;
572.7000;0.2532;0.7073;
573.0000;0.2548;0.7121;
573.3000;0.2491;0.7000;
573.6000;0.2499;0.7024;
573.9000;0.2507;0.7049;
574.2000;0.2532;0.7000;
574.5000;0.2532;0.7049;
574.8000;0.2507;0.6952;
575.1000;0.2499;0.7024;
575.4000;0.2515;0.7170;
575.7000;0.2507;0.7049;
576.0000;0.2532;0.7121;
576.3000;0.2491;0.7000;
576.6000;0.2499;0.7000;
576.9000;0.2515;0.7170;
577.2000;0.2499;0.7073;
577.5000;0.2483;0.7073;
577.8000;0.2483;0.7049;
578.1000;0.2491;0.7170;
578.4000;0.2515;0.7218;
578.7000;0.2491;0.7267;
579.0000;0.2483;0.7194;
579.3000;0.2499;0.7145;
579.6000;0.2499;0.7073;
579.9000;0.2483;0.7073;
580.2000;0.2523;0.7218;
580.5000;0.2491;0.7145;
580.8000;0.2507;0.7073;
581.1000;0.2507;0.7097;
581.4000;0.2499;0.7049;
581.7000;0.2515;0.7049;
582.0000;0.2499;0.7049;
582.3000;0.2507;0.7121;
582.6000;0.2491;0.7121;
582.9000;0.2548;0.7339;
583.2000;0.2515;0.7170;
583.5000;0.2499;0.7097;
583.8000;0.2499;0.7097;
584.1000;0.2515;0.7145;
584.4000;0.2507;0.7049;
584.7000;0.2499;0.7097;
585.0000;0.2483;0.7049;
585.3000;0.2523;0.7073;
585.6000;0.2515;0.7097;
585.9000;0.2515;0.7194;
586.2000;0.2507;0.7145;
586.5000;0.2515;0.7121;
586.8000;0.2483;0.7073;
587.1000;0.2491;0.7073;
587.4000;0.2515;0.7097;
587.7000;0.2483;0.6927;
588.0000;0.2515;0.6976;
588.3000;0.2499;0.6952;
588.6000;0.2491;0.7000;
588.9000;0.2491;0.7073;
589.2000;0.2507;0.7145;
589.5000;0.2515;0.7218;
589.8000;0.2499;0.7194;
590.1000;0.2491;0.7194;
590.4000;0.2499;0.7121;
590.7000;0.2507;0.7170;
591.0000;0.2515;0.7170;
591.3000;0.2499;0.7145;
591.6000;0.2515;0.7218;
591.9000;0.2507;0.7242;
592.2000;0.2515;0.7315;
592.5000;0.2515;0.7267;
592.8000;0.2515;0.7170;
593.1000;0.2507;0.7073;
593.4000;0.2491;0.7145;
593.7000;0.2499;0.7194;
594.0000;0.2515;0.7170;
594.3000;0.2491;0.7145;
594.6000;0.2499;0.7170;
594.9000;0.2499;0.7170;
595.2000;0.2507;0.7218;
595.5000;0.2515;0.7218;
595.8000;0.2499;0.7170;
596.1000;0.2523;0.7121;
596.4000;0.2491;0.7049;
596.7000;0.2499;0.7024;
597.0000;0.2507;0.7024;
597.3000;0.2507;0.7073;
597.6000;0.2540;0.7145;
597.9000;0.2491;0.6927;
598.2000;0.2409;0.6782;
598.5000;0.2499;0.7024;
598.8000;0.2507;0.6976;
599.1000;0.2507;0.6927;
599.4000;0.2523;0.7073;
599.7000;0.2523;0.7194;
600.0000;0.2499;0.7145;
600.3000;0.2491;0.7024;
600.6000;0.2507;0.6903;
600.9000;0.2548;0.6903;
601.2000;0.2499;0.6685;
601.5000;0.2499;0.6588;
601.8000;0.2499;0.6395;
602.1000;0.2491;0.6298;
602.4000;0.2515;0.6273;
602.7000;0.2466;0.6128;
603.0000;0.2491;0.6201;
603.3000;0.2483;0.5983;
603.6000;0.2475;0.6007;
603.9000;0.2450;0.5934;
604.2000;0.2442;0.5789;
604.5000;0.2540;0.5983;
604.8000;0.2458;0.5765;
605.1000;0.2458;0.5668;
605.4000;0.2442;0.5619;
605.7000;0.2483;0.5765;
606.0000;0.2523;0.5934;
606.3000;0.2442;0.5668;
606.6000;0.2434;0.5668;
606.9000;0.2450;0.5716;
607.2000;0.2442;0.5644;
607.5000;0.2499;0.5741;
607.8000;0.2450;0.5595;
608.1000;0.2418;0.5401;
608.4000;0.2466;0.5523;
608.7000;0.2466;0.5523;
609.0000;0.2556;0.5716;
609.3000;0.2466;0.5571;
609.6000;0.2450;0.5571;
609.9000;0.2450;0.5523;
610.2000;0.2515;0.5716;
610.5000;0.2442;0.5523;
610.8000;0.2450;0.5571;
611.1000;0.2507;0.5644;
611.4000;0.2458;0.5329;
611.7000;0.2426;0.5232;
612.0000;0.2434;0.5232;
612.3000;0.2466;0.5426;
612.6000;0.2458;0.5426;
612.9000;0.2434;0.5401;
613.2000;0.2434;0.5426;
613.5000;0.2458;0.5547;
613.8000;0.2458;0.5523;
614.1000;0.2426;0.5377;
614.4000;0.2442;0.5547;
614.7000;0.2458;0.5547;
615.0000;0.2458;0.5474;
615.3000;0.2442;0.5450;
615.6000;0.2450;0.5401;
615.9000;0.2450;0.5377;
616.2000;0.2442;0.5377;
616.5000;0.2418;0.5329;
616.8000;0.2450;0.5305;
617.1000;0.2442;0.5329;
617.4000;0.2442;0.5305;
617.7000;0.2442;0.5232;
618.0000;0.2450;0.5329;
618.3000;0.2409;0.5159;
618.6000;0.2450;0.5232;
618.9000;0.2442;0.5208;
619.2000;0.2434;0.5183;
619.5000;0.2393;0.5159;
619.8000;0.2450;0.5329;
620.1000;0.2450;0.5329;
620.4000;0.2409;0.5183;
620.7000;0.2450;0.5305;
621.0000;0.2475;0.5353;
621.3000;0.2475;0.5401;
621.6000;0.2442;0.5353;
621.9000;0.2442;0.5353;
622.2000;0.2426;0.5232;
622.5000;0.2434;0.5183;
622.8000;0.2466;0.5256;
623.1000;0.2450;0.5256;
623.4000;0.2442;0.5256;
623.7000;0.2515;0.5353;
624.0000;0.2458;0.5135;
624.3000;0.2442;0.5183;
624.6000;0.2426;0.5135;
624.9000;0.2418;0.5232;
625.2000;0.2442;0.5256;
625.5000;0.2442;0.5329;
625.8000;0.2418;0.5208;
626.1000;0.2434;0.5280;
626.4000;0.2458;0.5280;
626.7000;0.2475;0.5280;
627.0000;0.2458;0.5305;
627.3000;0.2385;0.5135;
627.6000;0.2450;0.5353;
627.9000;0.2450;0.5329;
628.2000;0.2434;0.5353;
628.5000;0.2458;0.5401;
628.8000;0.2442;0.5401;
629.1000;0.2442;0.5329;
629.4000;0.2426;0.5353;
629.7000;0.2458;0.5353;
630.0000;0.2466;0.5305;
630.3000;0.2434;0.5159;
630.6000;0.2409;0.5135;
630.9000;0.2458;0.5208;
631.2000;0.2450;0.5183;
631.5000;0.2475;0.5208;
631.8000;0.2466;0.5183;
632.1000;0.2450;0.5183;
632.4000;0.2466;0.5159;
632.7000;0.2442;0.5135;
633.0000;0.2458;0.5111;
633.3000;0.2450;0.5111;
633.6000;0.2434;0.5062;
633.9000;0.2442;0.5087;
634.2000;0.2442;0.5135;
634.5000;0.2418;0.5135;
634.8000;0.2466;0.5280;
635.1000;0.2442;0.5280;
635.4000;0.2442;0.5256;
635.7000;0.2450;0.5305;
636.0000;0.2418;0.5159;
636.3000;0.2442;0.5087;
636.6000;0.2450;0.5159;
636.9000;0.2466;0.5208;
637.2000;0.2458;0.5208;
637.5000;0.2426;0.5135;
637.8000;0.2450;0.5159;
638.1000;0.2507;0.5256;
638.4000;0.2466;0.5111;
638.7000;0.2434;0.5014;
639.0000;0.2442;0.5111;
639.3000;0.2475;0.5183;
639.6000;0.2442;0.5135;
639.9000;0.2458;0.5159;
640.2000;0.2442;0.5062;
640.5000;0.2458;0.5087;
640.8000;0.2450;0.4990;
641.1000;0.2450;0.4990;
641.4000;0.2458;0.4990;
641.7000;0.2361;0.4869;
642.0000;0.2393;0.5111;
642.3000;0.2336;0.4869;
642.6000;0.2442;0.5135;
642.9000;0.2426;0.5159;
643.2000;0.2442;0.5305;
643.5000;0.2491;0.5426;
643.8000;0.2426;0.5256;
644.1000;0.2450;0.5305;
644.4000;0.2426;0.5183;
644.7000;0.2540;0.5450;
645.0000;0.2442;0.5135;
645.3000;0.2450;0.5183;
645.6000;0.2458;0.5087;
645.9000;0.2450;0.5062;
646.2000;0.2450;0.5111;
646.5000;0.2442;0.5062;
646.8000;0.2450;0.5111;
647.1000;0.2475;0.5208;
647.4000;0.2442;0.5183;
647.7000;0.2450;0.5280;
648.0000;0.2442;0.5280;
648.3000;0.2458;0.5329;
648.6000;0.2458;0.5256;
648.9000;0.2442;0.5159;
649.2000;0.2442;0.5232;
649.5000;0.2466;0.5280;
649.8000;0.2458;0.5256;
650.1000;0.2442;0.5208;
650.4000;0.2458;0.5256;
650.7000;0.2475;0.5450;
651.0000;0.2426;0.5305;
651.3000;0.2450;0.5280;
651.6000;0.2450;0.5329;
651.9000;0.2466;0.5353;
652.2000;0.2434;0.5256;
652.5000;0.2442;0.5329;
652.8000;0.2458;0.5377;
653.1000;0.2434;0.5353;
653.4000;0.2450;0.5450;
653.7000;0.2434;0.5353;
654.0000;0.2475;0.5353;
654.3000;0.2418;0.5280;
654.6000;0.2426;0.5280;
654.9000;0.2426;0.5256;
655.2000;0.2434;0.5280;
655.5000;0.2434;0.5377;
655.8000;0.2434;0.5401;
656.1000;0.2442;0.5353;
656.4000;0.2434;0.5426;
656.7000;0.2458;0.5377;
657.0000;0.2426;0.5329;
657.3000;0.2466;0.5498;
657.6000;0.2450;0.5401;
657.9000;0.2393;0.5208;
658.2000;0.2540;0.5619;
658.5000;0.2458;0.5474;
658.8000;0.2458;0.5426;
659.1000;0.2466;0.5353;
659.4000;0.2450;0.5305;
659.7000;0.2458;0.5135;
660.0000;0.2450;0.5135;
660.3000;0.2532;0.5377;
660.6000;0.2442;0.5111;
660.9000;0.2393;0.4990;
661.2000;0.2426;0.5159;
661.5000;0.2442;0.5135;
661.8000;0.2434;0.5135;
662.1000;0.2377;0.5014;
662.4000;0.2458;0.5159;
662.7000;0.2466;0.5256;
663.0000;0.2466;0.5305;
663.3000;0.2426;0.5183;
663.6000;0.2434;0.5256;
663.9000;0.2450;0.5280;
664.2000;0.2458;0.5305;
664.5000;0.2564;0.5644;
664.8000;0.2450;0.5329;
665.1000;0.2418;0.5280;
665.4000;0.2442;0.5426;
665.7000;0.2426;0.5329;
666.0000;0.2401;0.5256;
666.3000;0.2434;0.5256;
666.6000;0.2450;0.5232;
666.9000;0.2450;0.5280;
667.2000;0.2442;0.5232;
667.5000;0.2580;0.5619;
667.8000;0.2442;0.5280;
668.1000;0.2442;0.5377;
668.4000;0.2442;0.5426;
668.7000;0.2475;0.5401;
669.0000;0.2466;0.5377;
669.3000;0.2442;0.5426;
669.6000;0.2442;0.5401;
669.9000;0.2442;0.5426;
670.2000;0.2450;0.5498;
670.5000;0.2442;0.5450;
670.8000;0.2426;0.5426;
671.1000;0.2450;0.5498;
671.4000;0.2442;0.5498;
671.7000;0.2442;0.5523;
672.0000;0.2369;0.5329;
672.3000;0.2458;0.5474;
672.6000;0.2442;0.5474;
672.9000;0.2458;0.5450;
673.2000;0.2418;0.5305;
673.5000;0.2458;0.5377;
673.8000;0.2458;0.5377;
674.1000;0.2466;0.5523;
674.4000;0.2442;0.5474;
674.7000;0.2434;0.5353;
675.0000;0.2442;0.5353;
675.3000;0.2450;0.5305;
675.6000;0.2442;0.5256;
675.9000;0.2434;0.5353;
676.2000;0.2442;0.5377;
676.5000;0.2442;0.5377;
676.8000;0.2458;0.5329;
677.1000;0.2466;0.5353;
677.4000;0.2450;0.5329;
677.7000;0.2418;0.5256;
678.0000;0.2450;0.5305;
678.3000;0.2450;0.5256;
678.6000;0.2466;0.5329;
678.9000;0.2442;0.5256;
679.2000;0.2491;0.5256;
679.5000;0.2442;0.5183;
679.8000;0.2434;0.5232;
680.1000;0.2442;0.5329;
680.4000;0.2442;0.5353;
680.7000;0.2491;0.5426;
681.0000;0.2466;0.5353;
681.3000;0.2434;0.5256;
681.6000;0.2450;0.5329;
681.9000;0.2458;0.5450;
682.2000;0.2458;0.5401;
682.5000;0.2458;0.5377;
682.8000;0.2475;0.5547;
683.1000;0.2409;0.5305;
683.4000;0.2466;0.5450;
683.7000;0.2393;0.5208;
684.0000;0.2458;0.5305;
684.3000;0.2458;0.5329;
684.6000;0.2466;0.5329;
684.9000;0.2556;0.5619;
685.2000;0.2523;0.5571;
685.5000;0.2458;0.5377;
685.8000;0.2442;0.5426;
686.1000;0.2442;0.5450;
686.4000;0.2434;0.5401;
686.7000;0.2458;0.5401;
687.0000;0.2458;0.5256;
687.3000;0.2442;0.5111;
687.6000;0.2466;0.5159;
687.9000;0.2458;0.5183;
688.2000;0.2450;0.5183;
688.5000;0.2475;0.5232;
688.8000;0.2450;0.5159;
689.1000;0.2450;0.5087;
689.4000;0.2401;0.4965;
689.7000;0.2458;0.5183;
690.0000;0.2466;0.5280;
690.3000;0.2442;0.5280;
690.6000;0.2515;0.5498;
690.9000;0.2442;0.5232;
691.2000;0.2450;0.5232;
691.5000;0.2540;0.5498;
691.8000;0.2450;0.5280;
692.1000;0.2377;0.5135;
692.4000;0.2434;0.5208;
692.7000;0.2442;0.5232;
693.0000;0.2637;0.5741;
693.3000;0.2466;0.5280;
693.6000;0.2458;0.5183;
693.9000;0.2442;0.5183;
694.2000;0.2466;0.5232;
694.5000;0.2450;0.5256;
694.8000;0.2458;0.5280;
695.1000;0.2442;0.5232;
695.4000;0.2491;0.5305;
695.7000;0.2458;0.5111;
696.0000;0.2442;0.5087;
696.3000;0.2409;0.5038;
696.6000;0.2532;0.5474;
696.9000;0.2450;0.5305;
697.2000;0.2426;0.5232;
697.5000;0.2418;0.5280;
697.8000;0.2458;0.5450;
698.1000;0.2515;0.5644;
698.4000;0.2344;0.5111;
698.7000;0.2442;0.5377;
699.0000;0.2491;0.5571;
699.3000;0.2458;0.5401;
699.6000;0.2475;0.5401;
699.9000;0.2466;0.5329;
700.2000;0.2450;0.5401;
700.5000;0.2450;0.5401;
700.8000;0.2434;0.5401;
701.1000;0.2450;0.5377;
701.4000;0.2475;0.5353;
701.7000;0.2450;0.5256;
702.0000;0.2466;0.5401;
702.3000;0.2458;0.5256;
702.6000;0.2466;0.5329;
702.9000;0.2450;0.5256;
703.2000;0.2434;0.5353;
703.5000;0.2434;0.5450;
703.8000;0.2466;0.5547;
704.1000;0.2466;0.5619;
704.4000;0.2515;0.5741;
704.7000;0.2466;0.5571;
705.0000;0.2450;0.5474;
705.3000;0.2450;0.5474;
705.6000;0.2458;0.5474;
705.9000;0.2458;0.5474;
706.2000;0.2377;0.5280;
706.5000;0.2450;0.5280;
706.8000;0.2450;0.5353;
707.1000;0.2426;0.5305;
707.4000;0.2434;0.5377;
707.7000;0.2507;0.5498;
708.0000;0.2450;0.5208;
708.3000;0.2466;0.5183;
708.6000;0.2458;0.5280;
708.9000;0.2523;0.5474;
709.2000;0.2499;0.5401;
709.5000;0.2458;0.5353;
709.8000;0.2491;0.5474;
710.1000;0.2409;0.5280;
710.4000;0.2450;0.5329;
710.7000;0.2450;0.5329;
711.0000;0.2442;0.5401;
711.3000;0.2450;0.5329;
711.6000;0.2426;0.5305;
711.9000;0.2466;0.5377;
712.2000;0.2442;0.5305;
712.5000;0.2434;0.5208;
712.8000;0.2458;0.5256;
713.1000;0.2442;0.5305;
713.4000;0.2458;0.5305;
713.7000;0.2466;0.5305;
714.0000;0.2442;0.5208;
714.3000;0.2458;0.5329;
714.6000;0.2466;0.5256;
714.9000;0.2564;0.5450;
715.2000;0.2450;0.5111;
715.5000;0.2426;0.4990;
715.8000;0.2475;0.5135;
716.1000;0.2466;0.5159;
716.4000;0.2466;0.5111;
716.7000;0.2458;0.5183;
717.0000;0.2458;0.5159;
717.3000;0.2458;0.5232;
717.6000;0.2466;0.5159;
717.9000;0.2466;0.5087;
718.2000;0.2475;0.5111;
718.5000;0.2442;0.4965;
718.8000;0.2458;0.5014;
719.1000;0.2458;0.4965;
719.4000;0.2450;0.4941;
719.7000;0.2475;0.5038;
720.0000;0.2450;0.4965;
720.3000;0.2426;0.5062;
720.6000;0.2475;0.5159;
720.9000;0.2434;0.4990;
721.2000;0.2450;0.4941;
721.5000;0.2401;0.4844;
721.8000;0.2466;0.5087;
722.1000;0.2393;0.4990;
722.4000;0.2442;0.5111;
722.7000;0.2458;0.5159;
723.0000;0.2450;0.5232;
723.3000;0.2458;0.5280;
723.6000;0.2426;0.5329;
723.9000;0.2442;0.5401;
724.2000;0.2442;0.5426;
724.5000;0.2442;0.5426;
724.8000;0.2466;0.5450;
725.1000;0.2466;0.5401;
725.4000;0.2466;0.5353;
725.7000;0.2458;0.5280;
726.0000;0.2466;0.5353;
726.3000;0.2458;0.5377;
726.6000;0.2450;0.5280;
726.9000;0.2426;0.5232;
727.2000;0.2450;0.5329;
727.5000;0.2450;0.5256;
727.8000;0.2466;0.5305;
728.1000;0.2450;0.5256;
728.4000;0.2442;0.5159;
728.7000;0.2442;0.5329;
729.0000;0.2450;0.5377;
729.3000;0.2450;0.5426;
729.6000;0.2442;0.5208;
729.9000;0.2458;0.5135;
730.2000;0.2426;0.5135;
730.5000;0.2475;0.5135;
730.8000;0.2483;0.5111;
731.1000;0.2466;0.5111;
731.4000;0.2458;0.5159;
731.7000;0.2450;0.5111;
732.0000;0.2442;0.5135;
732.3000;0.2450;0.5256;
732.6000;0.2450;0.5280;
732.9000;0.2466;0.5208;
733.2000;0.2466;0.5280;
733.5000;0.2466;0.5353;
733.8000;0.2499;0.5377;
734.1000;0.2466;0.5256;
734.4000;0.2393;0.5183;
734.7000;0.2434;0.5208;
735.0000;0.2458;0.5305;
735.3000;0.2483;0.5329;
735.6000;0.2475;0.5329;
735.9000;0.2458;0.5329;
736.2000;0.2458;0.5353;
736.5000;0.2344;0.5087;
736.8000;0.2564;0.5595;
737.1000;0.2450;0.5208;
737.4000;0.2377;0.5135;
737.7000;0.2458;0.5280;
738.0000;0.2450;0.5232;
738.3000;0.2442;0.5280;
738.6000;0.2515;0.5401;
738.9000;0.2458;0.5232;
739.2000;0.2450;0.5208;
739.5000;0.2499;0.5329;
739.8000;0.2466;0.5183;
740.1000;0.2450;0.5159;
740.4000;0.2458;0.5208;
740.7000;0.2458;0.5256;
741.0000;0.2450;0.5256;
741.3000;0.2450;0.5183;
741.6000;0.2475;0.5305;
741.9000;0.2450;0.5280;
742.2000;0.2458;0.5280;
742.5000;0.2458;0.5280;
742.8000;0.2369;0.5087;
743.1000;0.2426;0.5183;
743.4000;0.2442;0.5256;
743.7000;0.2458;0.5280;
744.0000;0.2515;0.5426;
744.3000;0.2466;0.5329;
744.6000;0.2458;0.5329;
744.9000;0.2434;0.5305;
745.2000;0.2418;0.5280;
745.5000;0.2475;0.5474;
745.8000;0.2458;0.5547;
746.1000;0.2442;0.5547;
746.4000;0.2450;0.5571;
746.7000;0.2450;0.5595;
747.0000;0.2458;0.5571;
747.3000;0.2442;0.5498;
747.6000;0.2426;0.5329;
747.9000;0.2458;0.5353;
748.2000;0.2434;0.5305;
748.5000;0.2442;0.5329;
748.8000;0.2450;0.5280;
749.1000;0.2483;0.5280;
749.4000;0.2475;0.5305;
749.7000;0.2458;0.5159;
750.0000;0.2450;0.5159;
750.3000;0.2442;0.5183;
750.6000;0.2475;0.5353;
750.9000;0.2466;0.5353;
751.2000;0.2458;0.5401;
751.5000;0.2450;0.5401;
751.8000;0.2458;0.5305;
752.1000;0.2466;0.5305;
752.4000;0.2458;0.5256;
752.7000;0.2442;0.5280;
753.0000;0.2458;0.5353;
753.3000;0.2434;0.5329;
753.6000;0.2450;0.5353;
753.9000;0.2507;0.5547;
754.2000;0.2515;0.5571;
754.5000;0.2458;0.5401;
754.8000;0.2450;0.5353;
755.1000;0.2458;0.5329;
755.4000;0.2466;0.5377;
755.7000;0.2580;0.5619;
756.0000;0.2491;0.5426;
756.3000;0.2450;0.5305;
756.6000;0.2434;0.5280;
756.9000;0.2450;0.5329;
757.2000;0.2442;0.5256;
757.5000;0.2434;0.5208;
757.8000;0.2442;0.5256;
758.1000;0.2450;0.5305;
758.4000;0.2458;0.5377;
758.7000;0.2401;0.5232;
759.0000;0.2434;0.5353;
759.3000;0.2450;0.5401;
759.6000;0.2523;0.5498;
759.9000;0.2450;0.5280;
760.2000;0.2450;0.5232;
760.5000;0.2458;0.5183;
760.8000;0.2450;0.5135;
761.1000;0.2442;0.5135;
761.4000;0.2499;0.5401;
761.7000;0.2532;0.5426;
762.0000;0.2466;0.5232;
762.3000;0.2499;0.5280;
762.6000;0.2442;0.5038;
762.9000;0.2458;0.5135;
763.2000;0.2458;0.5208;
763.5000;0.2466;0.5208;
763.8000;0.2458;0.5353;
764.1000;0.2442;0.5280;
764.4000;0.2458;0.5280;
764.7000;0.2458;0.5208;
765.0000;0.2499;0.5305;
765.3000;0.2491;0.5305;
765.6000;0.2450;0.5280;
765.9000;0.2450;0.5256;
766.2000;0.2499;0.5353;
766.5000;0.2458;0.5305;
766.8000;0.2458;0.5305;
767.1000;0.2458;0.5280;
767.4000;0.2458;0.5426;
767.7000;0.2442;0.5377;
768.0000;0.2458;0.5353;
768.3000;0.2458;0.5329;
768.6000;0.2475;0.5450;
768.9000;0.2442;0.5353;
769.2000;0.2491;0.5498;
769.5000;0.2466;0.5474;
769.8000;0.2475;0.5450;
770.1000;0.2564;0.5716;
770.4000;0.2466;0.5474;
770.7000;0.2466;0.5474;
771.0000;0.2475;0.5426;
771.3000;0.2458;0.5280;
771.6000;0.2450;0.5305;
771.9000;0.2458;0.5256;
772.2000;0.2466;0.5305;
772.5000;0.2466;0.5305;
772.8000;0.2483;0.5305;
773.1000;0.2450;0.5305;
773.4000;0.2442;0.5353;
773.7000;0.2483;0.5450;
774.0000;0.2434;0.5280;
774.3000;0.2393;0.5232;
774.6000;0.2450;0.5426;
774.9000;0.2466;0.5401;
775.2000;0.2450;0.5377;
775.5000;0.2450;0.5305;
775.8000;0.2466;0.5329;
776.1000;0.2458;0.5329;
776.4000;0.2532;0.5498;
776.7000;0.2442;0.5280;
777.0000;0.2442;0.5280;
777.3000;0.2548;0.5498;
777.6000;0.2458;0.5280;
777.9000;0.2418;0.5280;
778.2000;0.2507;0.5450;
778.5000;0.2442;0.5280;
778.8000;0.2434;0.5305;
779.1000;0.2466;0.5305;
779.4000;0.2450;0.5280;
779.7000;0.2475;0.5305;
780.0000;0.2475;0.5305;
780.3000;0.2450;0.5353;
780.6000;0.2458;0.5305;
780.9000;0.2466;0.5377;
781.2000;0.2450;0.5377;
781.5000;0.2556;0.5619;
781.8000;0.2450;0.5232;
782.1000;0.2483;0.5329;
782.4000;0.2458;0.5232;
782.7000;0.2458;0.5062;
783.0000;0.2458;0.5062;
783.3000;0.2475;0.5208;
783.6000;0.2450;0.5159;
783.9000;0.2458;0.5256;
784.2000;0.2466;0.5280;
784.5000;0.2450;0.5232;
784.8000;0.2475;0.5232;
785.1000;0.2475;0.5256;
785.4000;0.2458;0.5183;
785.7000;0.2483;0.5280;
786.0000;0.2458;0.5183;
786.3000;0.2458;0.5208;
786.6000;0.2475;0.5280;
786.9000;0.2450;0.5256;
787.2000;0.2458;0.5232;
787.5000;0.2450;0.5208;
787.8000;0.2458;0.5256;
788.1000;0.2458;0.5208;
788.4000;0.2442;0.5232;
788.7000;0.2450;0.5256;
789.0000;0.2450;0.5305;
789.3000;0.2434;0.5280;
789.6000;0.2450;0.5377;
789.9000;0.2466;0.5498;
790.2000;0.2483;0.5523;
790.5000;0.2475;0.5571;
790.8000;0.2450;0.5498;
791.1000;0.2466;0.5450;
791.4000;0.2458;0.5426;
791.7000;0.2458;0.5401;
792.0000;0.2450;0.5353;
792.3000;0.2450;0.5401;
792.6000;0.2466;0.5426;
792.9000;0.2450;0.5353;
793.2000;0.2450;0.5256;
793.5000;0.2466;0.5232;
793.8000;0.2475;0.5232;
794.1000;0.2466;0.5256;
794.4000;0.2466;0.5280;
794.7000;0.2450;0.5280;
795.0000;0.2458;0.5280;
795.3000;0.2352;0.4965;
795.6000;0.2466;0.5280;
795.9000;0.2458;0.5232;
796.2000;0.2450;0.5232;
796.5000;0.2458;0.5305;
796.8000;0.2475;0.5377;
797.1000;0.2458;0.5256;
797.4000;0.2491;0.5305;
797.7000;0.2466;0.5208;
798.0000;0.2466;0.5280;
798.3000;0.2426;0.5232;
798.6000;0.2458;0.5377;
798.9000;0.2450;0.5353;
799.2000;0.2450;0.5377;
799.5000;0.2458;0.5401;
799.8000;0.2483;0.5401;
800.1000;0.2499;0.5498;
800.4000;0.2458;0.5450;
800.7000;0.2458;0.5377;
801.0000;0.2442;0.5280;
801.3000;0.2466;0.5329;
801.6000;0.2450;0.5280;
801.9000;0.2507;0.5329;
802.2000;0.2450;0.5208;
802.5000;0.2450;0.5232;
802.8000;0.2466;0.5280;
803.1000;0.2361;0.5038;
803.4000;0.2475;0.5329;
803.7000;0.2458;0.5208;
804.0000;0.2458;0.5208;
804.3000;0.2466;0.5183;
804.6000;0.2442;0.5062;
804.9000;0.2434;0.5159;
805.2000;0.2418;0.5111;
805.5000;0.2483;0.5256;
805.8000;0.2466;0.5232;
806.1000;0.2466;0.5256;
806.4000;0.2458;0.5305;
806.7000;0.2466;0.5329;
807.0000;0.2475;0.5329;
807.3000;0.2458;0.5256;
807.6000;0.2458;0.5280;
807.9000;0.2466;0.5305;
808.2000;0.2475;0.5329;
808.5000;0.2458;0.5280;
808.8000;0.2442;0.5353;
809.1000;0.2458;0.5377;
809.4000;0.2458;0.5474;
809.7000;0.2466;0.5474;
810.0000;0.2434;0.5401;
810.3000;0.2466;0.5401;
810.6000;0.2466;0.5353;
810.9000;0.2450;0.5377;
811.2000;0.2466;0.5280;
811.5000;0.2450;0.5183;
811.8000;0.2458;0.5135;
812.1000;0.2491;0.5183;
812.4000;0.2442;0.5038;
812.7000;0.2442;0.5038;
813.0000;0.2466;0.5062;
813.3000;0.2466;0.5014;
813.6000;0.2466;0.5159;
813.9000;0.2532;0.5353;
814.2000;0.2450;0.5183;
814.5000;0.2466;0.5183;
814.8000;0.2458;0.5159;
815.1000;0.2450;0.5183;
815.4000;0.2458;0.5159;
815.7000;0.2450;0.5062;
816.0000;0.2458;0.4990;
816.3000;0.2450;0.4941;
816.6000;0.2466;0.4941;
816.9000;0.2515;0.5062;
817.2000;0.2458;0.4990;
817.5000;0.2434;0.4941;
817.8000;0.2458;0.4990;
818.1000;0.2450;0.4917;
818.4000;0.2466;0.4965;
818.7000;0.2475;0.4990;
819.0000;0.2475;0.4941;
819.3000;0.2458;0.4869;
819.6000;0.2466;0.4893;
819.9000;0.2483;0.5014;
820.2000;0.2418;0.4844;
820.5000;0.2458;0.4990;
820.8000;0.2450;0.4917;
821.1000;0.2466;0.4941;
821.4000;0.2434;0.4941;
821.7000;0.2466;0.5038;
822.0000;0.2434;0.4941;
822.3000;0.2466;0.5038;
822.6000;0.2466;0.5135;
822.9000;0.2475;0.5208;
823.2000;0.2475;0.5232;
823.5000;0.2458;0.5159;
823.8000;0.2458;0.4990;
824.1000;0.2450;0.4990;
824.4000;0.2418;0.4893;
824.7000;0.2548;0.5305;
825.0000;0.2458;0.5014;
825.3000;0.2434;0.4965;
825.6000;0.2450;0.5087;
825.9000;0.2466;0.5038;
826.2000;0.2466;0.5014;
826.5000;0.2466;0.4990;
826.8000;0.2442;0.4965;
827.1000;0.2450;0.5111;
827.4000;0.2458;0.5135;
827.7000;0.2458;0.5159;
828.0000;0.2450;0.5183;
828.3000;0.2418;0.5111;
828.6000;0.2515;0.5305;
828.9000;0.2458;0.5208;
829.2000;0.2458;0.5183;
829.5000;0.2434;0.5183;
829.8000;0.2458;0.5135;
830.1000;0.2458;0.5159;
830.4000;0.2377;0.4965;
830.7000;0.2564;0.5450;
831.0000;0.2450;0.5159;
831.3000;0.2426;0.5038;
831.6000;0.2458;0.5087;
831.9000;0.2491;0.5135;
832.2000;0.2450;0.5087;
832.5000;0.2458;0.5111;
832.8000;0.2466;0.5062;
833.1000;0.2483;0.5062;
833.4000;0.2466;0.5014;
833.7000;0.2466;0.5111;
834.0000;0.2426;0.5038;
834.3000;0.2475;0.5087;
834.6000;0.2466;0.5038;
834.9000;0.2466;0.5014;
835.2000;0.2475;0.5135;
835.5000;0.2352;0.4869;
835.8000;0.2458;0.5014;
836.1000;0.2418;0.4965;
836.4000;0.2458;0.5014;
836.7000;0.2442;0.5038;
837.0000;0.2442;0.5087;
837.3000;0.2458;0.5183;
837.6000;0.2458;0.5183;
837.9000;0.2426;0.5038;
838.2000;0.2475;0.5183;
838.5000;0.2475;0.5208;
838.8000;0.2466;0.5159;
839.1000;0.2458;0.5208;
839.4000;0.2434;0.5159;
839.7000;0.2466;0.5208;
840.0000;0.2442;0.5111;
840.3000;0.2466;0.5135;
840.6000;0.2450;0.5038;
840.9000;0.2442;0.5062;
841.2000;0.2483;0.5183;
841.5000;0.2475;0.5135;
841.8000;0.2450;0.5111;
842.1000;0.2483;0.5183;
842.4000;0.2377;0.4941;
842.7000;0.2442;0.5159;
843.0000;0.2458;0.5135;
843.3000;0.2507;0.5256;
843.6000;0.2475;0.5159;
843.9000;0.2466;0.5111;
844.2000;0.2483;0.5208;
844.5000;0.2458;0.5087;
844.8000;0.2458;0.5135;
845.1000;0.2409;0.5038;
845.4000;0.2483;0.5280;
845.7000;0.2409;0.5014;
846.0000;0.2442;0.5135;
846.3000;0.2458;0.5232;
846.6000;0.2442;0.5183;
846.9000;0.2466;0.5256;
847.2000;0.2475;0.5280;
847.5000;0.2466;0.5256;
847.8000;0.2458;0.5208;
848.1000;0.2466;0.5280;
848.4000;0.2450;0.5232;
848.7000;0.2458;0.5280;
849.0000;0.2491;0.5401;
849.3000;0.2450;0.5305;
849.6000;0.2458;0.5353;
849.9000;0.2442;0.5280;
850.2000;0.2450;0.5208;
850.5000;0.2458;0.5208;
850.8000;0.2450;0.5159;
851.1000;0.2450;0.5111;
851.4000;0.2344;0.4772;
851.7000;0.2442;0.5087;
852.0000;0.2442;0.5111;
852.3000;0.2483;0.5135;
852.6000;0.2466;0.5038;
852.9000;0.2458;0.4965;
853.2000;0.2466;0.5014;
853.5000;0.2312;0.4675;
853.8000;0.2442;0.4965;
854.1000;0.2475;0.5038;
854.4000;0.2556;0.5208;
854.7000;0.2442;0.5014;
855.0000;0.2466;0.5062;
855.3000;0.2491;0.5135;
855.6000;0.2458;0.5038;
855.9000;0.2458;0.5087;
856.2000;0.2458;0.4965;
856.5000;0.2475;0.5038;
856.8000;0.2475;0.5111;
857.1000;0.2458;0.5038;
857.4000;0.2450;0.4990;
857.7000;0.2450;0.5014;
858.0000;0.2540;0.5159;
858.3000;0.2458;0.5014;
858.6000;0.2442;0.5014;
858.9000;0.2499;0.5183;
859.2000;0.2442;0.5159;
859.5000;0.2499;0.5232;
859.8000;0.2475;0.5087;
860.1000;0.2458;0.5038;
860.4000;0.2466;0.5111;
860.7000;0.2475;0.5111;
861.0000;0.2442;0.5014;
861.3000;0.2458;0.5014;
861.6000;0.2466;0.5087;
861.9000;0.2450;0.5062;
862.2000;0.2450;0.5062;
862.5000;0.2442;0.5038;
862.8000;0.2458;0.5111;
863.1000;0.2483;0.5111;
863.4000;0.2458;0.5135;
863.7000;0.2450;0.5159;
864.0000;0.2466;0.5135;
864.3000;0.2442;0.5135;
864.6000;0.2466;0.5183;
864.9000;0.2450;0.5111;
865.2000;0.2523;0.5256;
865.5000;0.2442;0.5087;
865.8000;0.2458;0.5159;
866.1000;0.2434;0.5232;
866.4000;0.2450;0.5353;
866.7000;0.2466;0.5377;
867.0000;0.2458;0.5329;
867.3000;0.2466;0.5377;
867.6000;0.2458;0.5305;
867.9000;0.2515;0.5353;
868.2000;0.2466;0.5111;
868.5000;0.2426;0.4990;
868.8000;0.2458;0.5014;
869.1000;0.2458;0.4990;
869.4000;0.2393;0.4723;
869.7000;0.2450;0.4941;
870.0000;0.2475;0.4941;
870.3000;0.2491;0.4965;
870.6000;0.2466;0.4941;
870.9000;0.2450;0.4965;
871.2000;0.2475;0.5038;
871.5000;0.2442;0.4893;
871.8000;0.2401;0.4796;
872.1000;0.2450;0.5014;
872.4000;0.2458;0.5159;
872.7000;0.2475;0.5135;
873.0000;0.2475;0.5208;
873.3000;0.2458;0.5256;
873.6000;0.2442;0.5208;
873.9000;0.2466;0.5377;
874.2000;0.2450;0.5256;
874.5000;0.2466;0.5208;
874.8000;0.2409;0.5014;
875.1000;0.2458;0.5087;
875.4000;0.2458;0.5135;
875.7000;0.2466;0.5159;
876.0000;0.2458;0.5111;
876.3000;0.2466;0.5062;
876.6000;0.2434;0.5062;
876.9000;0.2475;0.5135;
877.2000;0.2466;0.5183;
877.5000;0.2475;0.5159;
877.8000;0.2475;0.5038;
878.1000;0.2466;0.5038;
878.4000;0.2466;0.5111;
878.7000;0.2466;0.5183;
879.0000;0.2450;0.5183;
879.3000;0.2466;0.5232;
879.6000;0.2466;0.5208;
879.9000;0.2523;0.5305;
880.2000;0.2466;0.5159;
880.5000;0.2483;0.5208;
880.8000;0.2466;0.5256;
881.1000;0.2491;0.5353;
881.4000;0.2450;0.5256;
881.7000;0.2450;0.5183;
882.0000;0.2458;0.5183;
882.3000;0.2450;0.5135;
882.6000;0.2442;0.5087;
882.9000;0.2434;0.5087;
883.2000;0.2442;0.5087;
883.5000;0.2466;0.5135;
883.8000;0.2458;0.5232;
884.1000;0.2450;0.5305;
884.4000;0.2466;0.5353;
884.7000;0.2466;0.5256;
885.0000;0.2475;0.5183;
885.3000;0.2418;0.5087;
885.6000;0.2458;0.5111;
885.9000;0.2458;0.5135;
886.2000;0.2466;0.5208;
886.5000;0.2475;0.5256;
886.8000;0.2458;0.5111;
887.1000;0.2515;0.5256;
887.4000;0.2458;0.4965;
887.7000;0.2450;0.4941;
888.0000;0.2450;0.4941;
888.3000;0.2434;0.4941;
888.6000;0.2475;0.5062;
888.9000;0.2466;0.4917;
889.2000;0.2458;0.4917;
889.5000;0.2450;0.4917;
889.8000;0.2475;0.4917;
890.1000;0.2458;0.4917;
890.4000;0.2418;0.4869;
890.7000;0.2458;0.5014;
891.0000;0.2466;0.5087;
891.3000;0.2442;0.5062;
891.6000;0.2458;0.5087;
891.9000;0.2450;0.5014;
892.2000;0.2458;0.4990;
892.5000;0.2442;0.4941;
892.8000;0.2434;0.4990;
893.1000;0.2466;0.5038;
893.4000;0.2450;0.5087;
893.7000;0.2466;0.5135;
894.0000;0.2466;0.5208;
894.3000;0.2442;0.5111;
894.6000;0.2483;0.5159;
894.9000;0.2458;0.5159;
895.2000;0.2466;0.5159;
895.5000;0.2458;0.5111;
895.8000;0.2466;0.5135;
896.1000;0.2450;0.5062;
896.4000;0.2475;0.5135;
896.7000;0.2458;0.5062;
897.0000;0.2466;0.4990;
897.3000;0.2458;0.4941;
897.6000;0.2442;0.4893;
897.9000;0.2556;0.5183;
898.2000;0.2483;0.4990;
898.5000;0.2450;0.4869;
898.8000;0.2466;0.4941;
899.1000;0.2426;0.4869;
899.4000;0.2458;0.4965;
899.7000;0.2450;0.5038;
900.0000;0.2466;0.5159;
900.3000;0.2458;0.5135;
900.6000;0.2466;0.5208;
900.9000;0.2450;0.5135;
901.2000;0.2466;0.5183;
901.5000;0.2483;0.5232;
901.8000;0.2466;0.5111;
902.1000;0.2491;0.5208;
902.4000;0.2409;0.5135;
902.7000;0.2475;0.5232;
903.0000;0.2458;0.5208;
903.3000;0.2466;0.5183;
903.6000;0.2458;0.5159;
903.9000;0.2483;0.5208;
904.2000;0.2450;0.5183;
904.5000;0.2483;0.5135;
904.8000;0.2434;0.5111;
905.1000;0.2499;0.5329;
905.4000;0.2450;0.5256;
905.7000;0.2483;0.5329;
906.0000;0.2458;0.5280;
906.3000;0.2572;0.5571;
906.6000;0.2450;0.5232;
906.9000;0.2458;0.5135;
907.2000;0.2418;0.5014;
907.5000;0.2458;0.5062;
907.8000;0.2434;0.4990;
908.1000;0.2434;0.4965;
908.4000;0.2458;0.4990;
908.7000;0.2442;0.4941;
909.0000;0.2418;0.4869;
909.3000;0.2466;0.4965;
909.6000;0.2442;0.4917;
909.9000;0.2450;0.4965;
910.2000;0.2426;0.4941;
910.5000;0.2458;0.5087;
910.8000;0.2458;0.5159;
911.1000;0.2450;0.5135;
911.4000;0.2475;0.5087;
911.7000;0.2458;0.5135;
912.0000;0.2450;0.5062;
912.3000;0.2466;0.5087;
912.6000;0.2458;0.4990;
912.9000;0.2458;0.4917;
913.2000;0.2426;0.4893;
913.5000;0.2458;0.4941;
913.8000;0.2442;0.4990;
914.1000;0.2475;0.5038;
914.4000;0.2466;0.4941;
914.7000;0.2466;0.4941;
915.0000;0.2475;0.4941;
915.3000;0.2475;0.4893;
915.6000;0.2458;0.4844;
915.9000;0.2466;0.4917;
916.2000;0.2401;0.4772;
916.5000;0.2450;0.4893;
916.8000;0.2466;0.4893;
917.1000;0.2491;0.5038;
917.4000;0.2466;0.4893;
917.7000;0.2475;0.4917;
918.0000;0.2458;0.4917;
918.3000;0.2450;0.4869;
918.6000;0.2450;0.4844;
918.9000;0.2466;0.4772;
919.2000;0.2458;0.4820;
919.5000;0.2458;0.4796;
919.8000;0.2466;0.4772;
920.1000;0.2442;0.4772;
920.4000;0.2483;0.4869;
920.7000;0.2466;0.4965;
921.0000;0.2466;0.4941;
921.3000;0.2466;0.4941;
921.6000;0.2418;0.4844;
921.9000;0.2475;0.4917;
922.2000;0.2426;0.4844;
922.5000;0.2450;0.4941;
922.8000;0.2442;0.4869;
923.1000;0.2442;0.4941;
923.4000;0.2450;0.4965;
923.7000;0.2458;0.4941;
924.0000;0.2434;0.4796;
924.3000;0.2548;0.5135;
924.6000;0.2475;0.4893;
924.9000;0.2450;0.4869;
925.2000;0.2466;0.4917;
925.5000;0.2475;0.4941;
925.8000;0.2475;0.4917;
926.1000;0.2442;0.4893;
926.4000;0.2442;0.4917;
926.7000;0.2466;0.4965;
927.0000;0.2466;0.5062;
927.3000;0.2352;0.4772;
927.6000;0.2458;0.4965;
927.9000;0.2466;0.5014;
928.2000;0.2442;0.4869;
928.5000;0.2466;0.4820;
928.8000;0.2466;0.4844;
929.1000;0.2491;0.4941;
929.4000;0.2426;0.4626;
929.7000;0.2475;0.4723;
930.0000;0.2572;0.4990;
930.3000;0.2401;0.4578;
930.6000;0.2466;0.4723;
930.9000;0.2466;0.4796;
931.2000;0.2466;0.4796;
931.5000;0.2450;0.4747;
931.8000;0.2442;0.4772;
932.1000;0.2458;0.4869;
932.4000;0.2466;0.4990;
932.7000;0.2466;0.5087;
933.0000;0.2458;0.5062;
933.3000;0.2466;0.5038;
933.6000;0.2458;0.5014;
933.9000;0.2532;0.5183;
934.2000;0.2458;0.4941;
934.5000;0.2466;0.4893;
934.8000;0.2466;0.4869;
935.1000;0.2442;0.4723;
935.4000;0.2442;0.4675;
935.7000;0.2344;0.4433;
936.0000;0.2450;0.4699;
936.3000;0.2450;0.4699;
936.6000;0.2426;0.4675;
936.9000;0.2450;0.4723;
937.2000;0.2466;0.4747;
937.5000;0.2458;0.4723;
937.8000;0.2450;0.4699;
938.1000;0.2458;0.4699;
938.4000;0.2466;0.4747;
938.7000;0.2458;0.4844;
939.0000;0.2450;0.4796;
939.3000;0.2450;0.4796;
939.6000;0.2466;0.4772;
939.9000;0.2458;0.4796;
940.2000;0.2466;0.4747;
940.5000;0.2458;0.4796;
940.8000;0.2450;0.4699;
941.1000;0.2466;0.4772;
941.4000;0.2450;0.4675;
941.7000;0.2458;0.4675;
942.0000;0.2483;0.4723;
942.3000;0.2483;0.4699;
942.6000;0.2466;0.4699;
942.9000;0.2450;0.4723;
943.2000;0.2564;0.5014;
943.5000;0.2466;0.4772;
943.8000;0.2532;0.5014;
944.1000;0.2458;0.4917;
944.4000;0.2434;0.4917;
944.7000;0.2442;0.4990;
945.0000;0.2466;0.5014;
945.3000;0.2499;0.5111;
945.6000;0.2426;0.4917;
945.9000;0.2458;0.5062;
946.2000;0.2466;0.5062;
946.5000;0.2377;0.4869;
946.8000;0.2450;0.5038;
947.1000;0.2434;0.4990;
947.4000;0.2466;0.5038;
947.7000;0.2499;0.5159;
948.0000;0.2450;0.4941;
948.3000;0.2483;0.5062;
948.6000;0.2580;0.5353;
948.9000;0.2466;0.5038;
949.2000;0.2442;0.5014;
949.5000;0.2458;0.5038;
949.8000;0.2466;0.5038;
950.1000;0.2475;0.5062;
950.4000;0.2442;0.4965;
950.7000;0.2393;0.4820;
951.0000;0.2483;0.4990;
951.3000;0.2426;0.4747;
951.6000;0.2466;0.4796;
951.9000;0.2450;0.4699;
952.2000;0.2450;0.4626;
952.5000;0.2442;0.4554;
952.8000;0.2450;0.4626;
953.1000;0.2466;0.4723;
953.4000;0.2450;0.4651;
953.7000;0.2458;0.4675;
954.0000;0.2475;0.4772;
954.3000;0.2450;0.4651;
954.6000;0.2466;0.4699;
954.9000;0.2475;0.4772;
955.2000;0.2491;0.4820;
955.5000;0.2450;0.4772;
955.8000;0.2475;0.4772;
956.1000;0.2442;0.4699;
956.4000;0.2475;0.4869;
956.7000;0.2491;0.4941;
957.0000;0.2426;0.4844;
957.3000;0.2442;0.4917;
957.6000;0.2458;0.4917;
957.9000;0.2466;0.4965;
958.2000;0.2466;0.4917;
958.5000;0.2434;0.4796;
958.8000;0.2475;0.4820;
959.1000;0.2466;0.4844;
959.4000;0.2442;0.4772;
959.7000;0.2450;0.4869;
960.0000;0.2450;0.4941;
960.3000;0.2466;0.4917;
960.6000;0.2466;0.5038;
960.9000;0.2458;0.4941;
961.2000;0.2458;0.4893;
961.5000;0.2483;0.4941;
961.8000;0.2483;0.4990;
962.1000;0.2491;0.4990;
962.4000;0.2393;0.4723;
962.7000;0.2458;0.4869;
963.0000;0.2458;0.4844;
963.3000;0.2499;0.4917;
963.6000;0.2450;0.4772;
963.9000;0.2466;0.4869;
964.2000;0.2401;0.4723;
964.5000;0.2458;0.4893;
964.8000;0.2450;0.4844;
965.1000;0.2515;0.5038;
965.4000;0.2426;0.4723;
965.7000;0.2458;0.4796;
966.0000;0.2466;0.4772;
966.3000;0.2483;0.4796;
966.6000;0.2491;0.4869;
966.9000;0.2475;0.4844;
967.2000;0.2426;0.4651;
967.5000;0.2466;0.4796;
967.8000;0.2483;0.4820;
968.1000;0.2466;0.4820;
968.4000;0.2450;0.4796;
968.7000;0.2466;0.4772;
969.0000;0.2458;0.4869;
969.3000;0.2507;0.4941;
969.6000;0.2418;0.4651;
969.9000;0.2442;0.4869;
970.2000;0.2475;0.4965;
970.5000;0.2466;0.4941;
970.8000;0.2434;0.4917;
971.1000;0.2458;0.4917;
971.4000;0.2466;0.4917;
971.7000;0.2385;0.4723;
972.0000;0.2458;0.4893;
972.3000;0.2475;0.4893;
972.6000;0.2458;0.4820;
972.9000;0.2483;0.4893;
973.2000;0.2475;0.4869;
973.5000;0.2442;0.4893;
973.8000;0.2491;0.4917;
974.1000;0.2475;0.4941;
974.4000;0.2483;0.4941;
974.7000;0.2458;0.4917;
975.0000;0.2466;0.4990;
975.3000;0.2458;0.5062;
975.6000;0.2466;0.5135;
975.9000;0.2475;0.5111;
976.2000;0.2491;0.5111;
976.5000;0.2442;0.5062;
976.8000;0.2466;0.5062;
977.1000;0.2475;0.5038;
977.4000;0.2450;0.5062;
977.7000;0.2475;0.5038;
978.0000;0.2466;0.4990;
978.3000;0.2466;0.5038;
978.6000;0.2491;0.5062;
978.9000;0.2466;0.5038;
979.2000;0.2475;0.5014;
979.5000;0.2491;0.4990;
979.8000;0.2458;0.4941;
980.1000;0.2483;0.4965;
980.4000;0.2434;0.4796;
980.7000;0.2475;0.4820;
981.0000;0.2369;0.4481;
981.3000;0.2442;0.4602;
981.6000;0.2458;0.4699;
981.9000;0.2458;0.4844;
982.2000;0.2409;0.4796;
982.5000;0.2491;0.4965;
982.8000;0.2466;0.4941;
983.1000;0.2491;0.4941;
983.4000;0.2475;0.4965;
983.7000;0.2458;0.4869;
984.0000;0.2458;0.4869;
984.3000;0.2475;0.4893;
984.6000;0.2483;0.4893;
984.9000;0.2475;0.4772;
985.2000;0.2483;0.4747;
985.5000;0.2475;0.4869;
985.8000;0.2458;0.4844;
986.1000;0.2409;0.4723;
986.4000;0.2426;0.4820;
986.7000;0.2458;0.4941;
987.0000;0.2458;0.4893;
987.3000;0.2466;0.4965;
987.6000;0.2475;0.5111;
987.9000;0.2466;0.5111;
988.2000;0.2458;0.5111;
988.5000;0.2499;0.5159;
988.8000;0.2483;0.5135;
989.1000;0.2466;0.5087;
989.4000;0.2491;0.5135;
989.7000;0.2458;0.5087;
990.0000;0.2483;0.5208;
990.3000;0.2458;0.5159;
990.6000;0.2466;0.5135;
990.9000;0.2450;0.5014;
991.2000;0.2442;0.4990;
991.5000;0.2466;0.5038;
991.8000;0.2466;0.4965;
992.1000;0.2475;0.4941;
992.4000;0.2466;0.4917;
992.7000;0.2475;0.4917;
993.0000;0.2475;0.5014;
993.3000;0.2475;0.5038;
993.6000;0.2409;0.4917;
993.9000;0.2401;0.4893;
994.2000;0.2475;0.5087;
994.5000;0.2450;0.4990;
994.8000;0.2475;0.5014;
995.1000;0.2466;0.4965;
995.4000;0.2466;0.5087;
995.7000;0.2418;0.4965;
996.0000;0.2475;0.5183;
996.3000;0.2475;0.5087;
996.6000;0.2458;0.5062;
996.9000;0.2483;0.5062;
997.2000;0.2507;0.5111;
997.5000;0.2458;0.4965;
997.8000;0.2466;0.4941;
998.1000;0.2466;0.4941;
998.4000;0.2466;0.4965;
998.7000;0.2483;0.4917;
999.0000;0.2475;0.4917;
999.3000;0.2458;0.4869;
999.6000;0.2483;0.4869;
999.9000;0.2450;0.4796;
1000.2000;0.2507;0.4941;
1000.5000;0.2466;0.4917;
1000.8000;0.2475;0.4990;
1001.1000;0.2418;0.4820;
1001.4000;0.2466;0.4941;
1001.7000;0.2466;0.4820;
1002.0000;0.2466;0.4917;
1002.3000;0.2434;0.4747;
1002.6000;0.2483;0.4917;
1002.9000;0.2450;0.4893;
1003.2000;0.2515;0.5062;
1003.5000;0.2475;0.4917;
1003.8000;0.2450;0.4917;
1004.1000;0.2458;0.4941;
1004.4000;0.2450;0.4917;
1004.7000;0.2450;0.4941;
1005.0000;0.2475;0.4917;
1005.3000;0.2458;0.4869;
1005.6000;0.2466;0.4965;
1005.9000;0.2475;0.5062;
1006.2000;0.2499;0.5256;
1006.5000;0.2515;0.5353;
1006.8000;0.2475;0.5208;
1007.1000;0.2475;0.5208;
1007.4000;0.2475;0.5183;
1007.7000;0.2466;0.5135;
1008.0000;0.2466;0.5159;
1008.3000;0.2475;0.5232;
1008.6000;0.2475;0.5183;
1008.9000;0.2483;0.5183;
1009.2000;0.2572;0.5232;
1009.5000;0.2450;0.5038;
1009.8000;0.2434;0.4965;
1010.1000;0.2475;0.5183;
1010.4000;0.2466;0.5062;
1010.7000;0.2466;0.5087;
1011.0000;0.2475;0.5159;
1011.3000;0.2466;0.5159;
1011.6000;0.2515;0.5377;
1011.9000;0.2369;0.4941;
1012.2000;0.2450;0.5135;
1012.5000;0.2475;0.5208;
1012.8000;0.2466;0.5256;
1013.1000;0.2483;0.5305;
1013.4000;0.2466;0.5159;
1013.7000;0.2458;0.5087;
1014.0000;0.2475;0.5087;
1014.3000;0.2450;0.5038;
1014.6000;0.2458;0.4965;
1014.9000;0.2458;0.4965;
1015.2000;0.2483;0.4990;
1015.5000;0.2483;0.5062;
1015.8000;0.2475;0.5038;
1016.1000;0.2450;0.4965;
1016.4000;0.2483;0.5087;
1016.7000;0.2450;0.5062;
1017.0000;0.2458;0.5038;
1017.3000;0.2450;0.5062;
1017.6000;0.2466;0.4965;
1017.9000;0.2466;0.5062;
1018.2000;0.2475;0.4965;
1018.5000;0.2466;0.4869;
1018.8000;0.2393;0.4675;
1019.1000;0.2475;0.4796;
1019.4000;0.2466;0.4772;
1019.7000;0.2442;0.4820;
1020.0000;0.2475;0.4820;
1020.3000;0.2466;0.4869;
1020.6000;0.2458;0.4917;
1020.9000;0.2458;0.4990;
1021.2000;0.2466;0.4990;
1021.5000;0.2466;0.4990;
1021.8000;0.2475;0.4941;
1022.1000;0.2483;0.4941;
1022.4000;0.2458;0.4820;
1022.7000;0.2475;0.4820;
1023.0000;0.2475;0.4917;
1023.3000;0.2475;0.4941;
1023.6000;0.2466;0.4869;
1023.9000;0.2450;0.4820;
1024.2000;0.2442;0.4747;
1024.5000;0.2475;0.4869;
1024.8000;0.2458;0.4917;
1025.1000;0.2458;0.4917;
1025.4000;0.2466;0.4844;
1025.7000;0.2466;0.4796;
1026.0000;0.2483;0.4723;
1026.3000;0.2466;0.4723;
1026.6000;0.2475;0.4820;
1026.9000;0.2458;0.4747;
1027.2000;0.2466;0.4869;
1027.5000;0.2450;0.4941;
1027.8000;0.2466;0.5014;
1028.1000;0.2458;0.5014;
1028.4000;0.2385;0.4844;
1028.7000;0.2458;0.5062;
1029.0000;0.2466;0.5062;
1029.3000;0.2483;0.5038;
1029.6000;0.2458;0.4917;
1029.9000;0.2475;0.4941;
1030.2000;0.2483;0.4965;
1030.5000;0.2466;0.4917;
1030.8000;0.2499;0.4965;
1031.1000;0.2466;0.4941;
1031.4000;0.2458;0.4965;
1031.7000;0.2450;0.4941;
1032.0000;0.2556;0.5232;
1032.3000;0.2458;0.4893;
1032.6000;0.2491;0.4917;
1032.9000;0.2475;0.4869;
1033.2000;0.2475;0.4893;
1033.5000;0.2483;0.4844;
1033.8000;0.2466;0.4844;
1034.1000;0.2491;0.4941;
1034.4000;0.2466;0.4917;
1034.7000;0.2483;0.4941;
1035.0000;0.2385;0.4723;
1035.3000;0.2466;0.4965;
1035.6000;0.2458;0.4965;
1035.9000;0.2475;0.4990;
1036.2000;0.2450;0.4893;
1036.5000;0.2475;0.5038;
1036.8000;0.2401;0.4796;
1037.1000;0.2466;0.4917;
1037.4000;0.2483;0.4941;
1037.7000;0.2450;0.4844;
1038.0000;0.2483;0.4965;
1038.3000;0.2483;0.4965;
1038.6000;0.2483;0.5038;
1038.9000;0.2466;0.5038;
1039.2000;0.2483;0.5111;
1039.5000;0.2426;0.4965;
1039.8000;0.2466;0.5087;
1040.1000;0.2475;0.5087;
1040.4000;0.2458;0.5014;
1040.7000;0.2466;0.5062;
1041.0000;0.2458;0.4965;
1041.3000;0.2532;0.5159;
1041.6000;0.2426;0.4917;
1041.9000;0.2466;0.4965;
1042.2000;0.2450;0.4820;
1042.5000;0.2466;0.4796;
1042.8000;0.2450;0.4772;
1043.1000;0.2458;0.4917;
1043.4000;0.2409;0.4820;
1043.7000;0.2466;0.5062;
1044.0000;0.2475;0.5038;
1044.3000;0.2458;0.4941;
1044.6000;0.2475;0.4990;
1044.9000;0.2483;0.4965;
1045.2000;0.2458;0.4893;
1045.5000;0.2475;0.4917;
1045.8000;0.2556;0.5183;
1046.1000;0.2483;0.4965;
1046.4000;0.2475;0.4893;
1046.7000;0.2466;0.4869;
1047.0000;0.2483;0.4941;
1047.3000;0.2466;0.4869;
1047.6000;0.2475;0.4917;
1047.9000;0.2466;0.4941;
1048.2000;0.2458;0.4917;
1048.5000;0.2458;0.4965;
1048.8000;0.2475;0.5038;
1049.1000;0.2466;0.5087;
1049.4000;0.2466;0.5111;
1049.7000;0.2458;0.5038;
1050.0000;0.2466;0.5062;
1050.3000;0.2475;0.5111;
1050.6000;0.2475;0.5111;
1050.9000;0.2458;0.5159;
1051.2000;0.2466;0.5208;
1051.5000;0.2450;0.5111;
1051.8000;0.2475;0.5135;
1052.1000;0.2466;0.5159;
1052.4000;0.2466;0.5208;
1052.7000;0.2475;0.5256;
1053.0000;0.2458;0.5135;
1053.3000;0.2442;0.5014;
1053.6000;0.2564;0.5329;
1053.9000;0.2466;0.5111;
1054.2000;0.2418;0.4941;
1054.5000;0.2458;0.5111;
1054.8000;0.2450;0.5087;
1055.1000;0.2369;0.4990;
1055.4000;0.2458;0.5208;
1055.7000;0.2507;0.5280;
1056.0000;0.2475;0.5232;
1056.3000;0.2507;0.5232;
1056.6000;0.2515;0.5135;
1056.9000;0.2458;0.4990;
1057.2000;0.2418;0.4844;
1057.5000;0.2475;0.5014;
1057.8000;0.2499;0.5062;
1058.1000;0.2450;0.4965;
1058.4000;0.2466;0.4990;
1058.7000;0.2475;0.5014;
1059.0000;0.2466;0.5038;
1059.3000;0.2483;0.5062;
1059.6000;0.2393;0.4869;
1059.9000;0.2483;0.5135;
1060.2000;0.2483;0.5087;
1060.5000;0.2458;0.5159;
1060.8000;0.2475;0.5111;
1061.1000;0.2475;0.5087;
1061.4000;0.2475;0.5062;
1061.7000;0.2466;0.4990;
1062.0000;0.2475;0.4917;
1062.3000;0.2426;0.4723;
1062.6000;0.2458;0.4844;
1062.9000;0.2458;0.4820;
1063.2000;0.2458;0.4772;
1063.5000;0.2466;0.4844;
1063.8000;0.2434;0.4893;
1064.1000;0.2475;0.5014;
1064.4000;0.2442;0.4965;
1064.7000;0.2475;0.5014;
1065.0000;0.2466;0.4990;
1065.3000;0.2532;0.5159;
1065.6000;0.2450;0.4941;
1065.9000;0.2475;0.4965;
1066.2000;0.2475;0.5038;
1066.5000;0.2466;0.4990;
1066.8000;0.2466;0.4990;
1067.1000;0.2491;0.4990;
1067.4000;0.2466;0.4893;
1067.7000;0.2458;0.4893;
1068.0000;0.2491;0.4965;
1068.3000;0.2450;0.4941;
1068.6000;0.2483;0.4990;
1068.9000;0.2466;0.4941;
1069.2000;0.2475;0.4965;
1069.5000;0.2483;0.5038;
1069.8000;0.2458;0.4965;
1070.1000;0.2458;0.4990;
1070.4000;0.2475;0.4965;
1070.7000;0.2483;0.5014;
1071.0000;0.2483;0.5062;
1071.3000;0.2466;0.4965;
1071.6000;0.2442;0.5014;
1071.9000;0.2475;0.5014;
1072.2000;0.2466;0.5062;
1072.5000;0.2466;0.5062;
1072.8000;0.2466;0.5111;
1073.1000;0.2475;0.5159;
1073.4000;0.2466;0.5062;
1073.7000;0.2458;0.5087;
1074.0000;0.2466;0.5111;
1074.3000;0.2458;0.5038;
1074.6000;0.2466;0.5087;
1074.9000;0.2426;0.4941;
1075.2000;0.2450;0.4893;
1075.5000;0.2475;0.5038;
1075.8000;0.2483;0.5014;
1076.1000;0.2491;0.5038;
1076.4000;0.2426;0.4917;
1076.7000;0.2458;0.5062;
1077.0000;0.2458;0.5111;
1077.3000;0.2556;0.5426;
1077.6000;0.2434;0.5087;
1077.9000;0.2483;0.5232;
1078.2000;0.2450;0.5208;
1078.5000;0.2475;0.5208;
1078.8000;0.2450;0.5135;
1079.1000;0.2466;0.5208;
1079.4000;0.2491;0.5232;
1079.7000;0.2450;0.5087;
1080.0000;0.2466;0.5087;
1080.3000;0.2475;0.5159;
1080.6000;0.2491;0.5159;
1080.9000;0.2483;0.5111;
1081.2000;0.2483;0.5111;
1081.5000;0.2483;0.5208;
1081.8000;0.2483;0.5111;
1082.1000;0.2475;0.5135;
1082.4000;0.2450;0.5038;
1082.7000;0.2369;0.4844;
1083.0000;0.2475;0.5087;
1083.3000;0.2532;0.5208;
1083.6000;0.2458;0.5014;
1083.9000;0.2458;0.5014;
1084.2000;0.2466;0.5062;
1084.5000;0.2409;0.4893;
1084.8000;0.2466;0.4965;
1085.1000;0.2483;0.5111;
1085.4000;0.2475;0.5038;
1085.7000;0.2466;0.5038;
1086.0000;0.2369;0.4820;
1086.3000;0.2458;0.5038;
1086.6000;0.2442;0.5014;
1086.9000;0.2466;0.5111;
1087.2000;0.2515;0.5353;
1087.5000;0.2499;0.5256;
1087.8000;0.2466;0.4990;
1088.1000;0.2458;0.4917;
1088.4000;0.2475;0.4965;
1088.7000;0.2466;0.4893;
1089.0000;0.2475;0.4990;
1089.3000;0.2483;0.5038;
1089.6000;0.2458;0.5014;
1089.9000;0.2450;0.5014;
1090.2000;0.2475;0.5111;
1090.5000;0.2466;0.5135;
1090.8000;0.2515;0.5232;
1091.1000;0.2426;0.4990;
1091.4000;0.2491;0.5038;
1091.7000;0.2442;0.4893;
1092.0000;0.2483;0.4990;
1092.3000;0.2409;0.4820;
1092.6000;0.2458;0.4941;
1092.9000;0.2466;0.4965;
1093.2000;0.2515;0.5087;
1093.5000;0.2483;0.4917;
1093.8000;0.2458;0.4941;
1094.1000;0.2491;0.5038;
1094.4000;0.2442;0.4917;
1094.7000;0.2475;0.5038;
1095.0000;0.2458;0.4965;
1095.3000;0.2442;0.4869;
1095.6000;0.2466;0.4965;
1095.9000;0.2475;0.4990;
1096.2000;0.2458;0.4965;
1096.5000;0.2475;0.5038;
1096.8000;0.2450;0.5014;
1097.1000;0.2556;0.5208;
1097.4000;0.2475;0.5062;
1097.7000;0.2458;0.4990;
1098.0000;0.2442;0.4965;
1098.3000;0.2499;0.5014;
1098.6000;0.2458;0.4941;
1098.9000;0.2434;0.4820;
1099.2000;0.2458;0.4893;
1099.5000;0.2442;0.4820;
1099.8000;0.2458;0.4820;
1100.1000;0.2450;0.4796;
1100.4000;0.2466;0.4723;
1100.7000;0.2466;0.4844;
1101.0000;0.2466;0.4747;
1101.3000;0.2442;0.4723;
1101.6000;0.2450;0.4747;
1101.9000;0.2458;0.4772;
1102.2000;0.2466;0.4869;
1102.5000;0.2483;0.4844;
1102.8000;0.2466;0.4869;
1103.1000;0.2458;0.4869;
1103.4000;0.2450;0.4965;
1103.7000;0.2483;0.5087;
1104.0000;0.2450;0.5087;
1104.3000;0.2434;0.4917;
1104.6000;0.2401;0.4844;
1104.9000;0.2466;0.4965;
1105.2000;0.2450;0.4893;
1105.5000;0.2475;0.4965;
1105.8000;0.2515;0.5135;
1106.1000;0.2466;0.5014;
1106.4000;0.2458;0.4941;
1106.7000;0.2458;0.4893;
1107.0000;0.2475;0.4893;
1107.3000;0.2458;0.4893;
1107.6000;0.2401;0.4699;
1107.9000;0.2475;0.4844;
1108.2000;0.2458;0.4844;
1108.5000;0.2466;0.4869;
1108.8000;0.2458;0.4820;
1109.1000;0.2556;0.5111;
1109.4000;0.2450;0.4869;
1109.7000;0.2466;0.4965;
1110.0000;0.2458;0.4941;
1110.3000;0.2458;0.4796;
1110.6000;0.2466;0.4723;
1110.9000;0.2499;0.4820;
1111.2000;0.2466;0.4747;
1111.5000;0.2450;0.4820;
1111.8000;0.2458;0.4772;
1112.1000;0.2458;0.4796;
1112.4000;0.2466;0.4747;
1112.7000;0.2401;0.4554;
1113.0000;0.2466;0.4699;
1113.3000;0.2458;0.4626;
1113.6000;0.2499;0.4772;
1113.9000;0.2483;0.4772;
1114.2000;0.2491;0.4820;
1114.5000;0.2458;0.4796;
1114.8000;0.2475;0.4869;
1115.1000;0.2475;0.4941;
1115.4000;0.2483;0.4869;
1115.7000;0.2450;0.4723;
1116.0000;0.2466;0.4699;
1116.3000;0.2458;0.4626;
1116.6000;0.2458;0.4675;
1116.9000;0.2466;0.4772;
1117.2000;0.2418;0.4699;
1117.5000;0.2475;0.4844;
1117.8000;0.2475;0.4869;
1118.1000;0.2540;0.4965;
1118.4000;0.2458;0.4747;
1118.7000;0.2475;0.4869;
1119.0000;0.2442;0.4820;
1119.3000;0.2458;0.4796;
1119.6000;0.2450;0.4747;
1119.9000;0.2475;0.4820;
1120.2000;0.2458;0.4893;
1120.5000;0.2466;0.4820;
1120.8000;0.2466;0.4941;
1121.1000;0.2458;0.4941;
1121.4000;0.2458;0.4893;
1121.7000;0.2458;0.4844;
1122.0000;0.2458;0.4844;
1122.3000;0.2458;0.4796;
1122.6000;0.2434;0.4651;
1122.9000;0.2466;0.4723;
1123.2000;0.2475;0.4723;
1123.5000;0.2466;0.4699;
1123.8000;0.2483;0.4723;
1124.1000;0.2475;0.4699;
1124.4000;0.2458;0.4747;
1124.7000;0.2466;0.4869;
1125.0000;0.2515;0.5014;
1125.3000;0.2483;0.4941;
1125.6000;0.2483;0.4844;
1125.9000;0.2442;0.4699;
1126.2000;0.2466;0.4844;
1126.5000;0.2377;0.4554;
1126.8000;0.2466;0.4747;
1127.1000;0.2475;0.4723;
1127.4000;0.2442;0.4699;
1127.7000;0.2466;0.4796;
1128.0000;0.2483;0.4917;
1128.3000;0.2483;0.4844;
1128.6000;0.2483;0.4965;
1128.9000;0.2385;0.4699;
1129.2000;0.2475;0.4990;
1129.5000;0.2458;0.4941;
1129.8000;0.2483;0.4965;
1130.1000;0.2466;0.4965;
1130.4000;0.2466;0.4941;
1130.7000;0.2434;0.4917;
1131.0000;0.2458;0.4941;
1131.3000;0.2450;0.4820;
1131.6000;0.2466;0.4844;
1131.9000;0.2458;0.4941;
1132.2000;0.2450;0.4941;
1132.5000;0.2507;0.5038;
1132.8000;0.2475;0.4965;
1133.1000;0.2475;0.4990;
1133.4000;0.2466;0.4941;
1133.7000;0.2458;0.4965;
1134.0000;0.2369;0.4699;
1134.3000;0.2483;0.4917;
1134.6000;0.2475;0.4917;
1134.9000;0.2466;0.4917;
1135.2000;0.2507;0.5014;
1135.5000;0.2466;0.4893;
1135.8000;0.2466;0.4941;
1136.1000;0.2450;0.4917;
1136.4000;0.2466;0.4844;
1136.7000;0.2466;0.4844;
1137.0000;0.2458;0.4869;
1137.3000;0.2466;0.4772;
1137.6000;0.2466;0.4844;
1137.9000;0.2483;0.4820;
1138.2000;0.2442;0.4796;
1138.5000;0.2466;0.4772;
1138.8000;0.2466;0.4772;
1139.1000;0.2491;0.4796;
1139.4000;0.2458;0.4820;
1139.7000;0.2483;0.4893;
1140.0000;0.2450;0.4772;
1140.3000;0.2499;0.4820;
1140.6000;0.2458;0.4651;
1140.9000;0.2466;0.4699;
1141.2000;0.2475;0.4796;
1141.5000;0.2442;0.4772;
1141.8000;0.2458;0.4772;
1142.1000;0.2442;0.4699;
1142.4000;0.2466;0.4747;
1142.7000;0.2475;0.4844;
1143.0000;0.2466;0.4844;
1143.3000;0.2466;0.4917;
1143.6000;0.2475;0.4893;
1143.9000;0.2466;0.4893;
1144.2000;0.2466;0.4965;
1144.5000;0.2491;0.5014;
1144.8000;0.2475;0.4917;
1145.1000;0.2475;0.4917;
1145.4000;0.2458;0.4820;
1145.7000;0.2458;0.4796;
1146.0000;0.2475;0.4917;
1146.3000;0.2450;0.4917;
1146.6000;0.2507;0.5135;
1146.9000;0.2466;0.5014;
1147.2000;0.2466;0.5014;
1147.5000;0.2466;0.4941;
1147.8000;0.2466;0.4917;
1148.1000;0.2475;0.4941;
1148.4000;0.2418;0.4723;
1148.7000;0.2499;0.4965;
1149.0000;0.2466;0.4917;
1149.3000;0.2475;0.4844;
1149.6000;0.2532;0.4990;
1149.9000;0.2466;0.4844;
1150.2000;0.2458;0.4844;
1150.5000;0.2483;0.4941;
1150.8000;0.2466;0.4941;
1151.1000;0.2466;0.4965;
1151.4000;0.2475;0.4990;
1151.7000;0.2458;0.5038;
1152.0000;0.2475;0.5014;
1152.3000;0.2475;0.5014;
1152.6000;0.2450;0.5038;
1152.9000;0.2393;0.4869;
1153.2000;0.2466;0.5087;
1153.5000;0.2491;0.5135;
1153.8000;0.2458;0.5111;
1154.1000;0.2450;0.5038;
1154.4000;0.2475;0.5038;
1154.7000;0.2483;0.5062;
1155.0000;0.2377;0.4699;
1155.3000;0.2458;0.4941;
1155.6000;0.2475;0.4990;
1155.9000;0.2450;0.4990;
1156.2000;0.2466;0.5038;
1156.5000;0.2458;0.5062;
1156.8000;0.2458;0.4965;
1157.1000;0.2475;0.5038;
1157.4000;0.2466;0.5014;
1157.7000;0.2458;0.4990;
1158.0000;0.2442;0.4844;
1158.3000;0.2475;0.4917;
1158.6000;0.2475;0.4893;
1158.9000;0.2450;0.4844;
1159.2000;0.2499;0.4990;
1159.5000;0.2450;0.4869;
1159.8000;0.2475;0.4917;
1160.1000;0.2458;0.4893;
1160.4000;0.2458;0.4917;
1160.7000;0.2491;0.4917;
1161.0000;0.2515;0.4941;
1161.3000;0.2458;0.4675;
1161.6000;0.2458;0.4747;
1161.9000;0.2458;0.4747;
1162.2000;0.2515;0.4893;
1162.5000;0.2483;0.4917;
1162.8000;0.2434;0.4869;
1163.1000;0.2458;0.4893;
1163.4000;0.2483;0.4990;
1163.7000;0.2466;0.4893;
1164.0000;0.2450;0.4869;
1164.3000;0.2466;0.4941;
1164.6000;0.2466;0.4965;
1164.9000;0.2418;0.4844;
1165.2000;0.2466;0.5014;
1165.5000;0.2556;0.5208;
1165.8000;0.2466;0.4844;
1166.1000;0.2466;0.4796;
1166.4000;0.2458;0.4723;
1166.7000;0.2466;0.4772;
1167.0000;0.2450;0.4723;
1167.3000;0.2475;0.4723;
1167.6000;0.2458;0.4626;
1167.9000;0.2458;0.4651;
1168.2000;0.2475;0.4675;
1168.5000;0.2458;0.4651;
1168.8000;0.2507;0.4844;
1169.1000;0.2466;0.4651;
1169.4000;0.2499;0.4723;
1169.7000;0.2589;0.4965;
1170.0000;0.2475;0.4651;
1170.3000;0.2466;0.4747;
1170.6000;0.2475;0.4844;
1170.9000;0.2475;0.4941;
1171.2000;0.2466;0.4893;
1171.5000;0.2483;0.4990;
1171.8000;0.2466;0.4990;
1172.1000;0.2458;0.4990;
1172.4000;0.2344;0.4626;
1172.7000;0.2458;0.5014;
1173.0000;0.2450;0.4941;
1173.3000;0.2458;0.4917;
1173.6000;0.2466;0.4941;
1173.9000;0.2475;0.4893;
1174.2000;0.2434;0.4747;
1174.5000;0.2475;0.4869;
1174.8000;0.2466;0.4893;
1175.1000;0.2466;0.4990;
1175.4000;0.2556;0.5183;
1175.7000;0.2483;0.4917;
1176.0000;0.2450;0.4844;
1176.3000;0.2475;0.4869;
1176.6000;0.2475;0.4893;
1176.9000;0.2466;0.4869;
1177.2000;0.2450;0.4820;
1177.5000;0.2442;0.4820;
1177.8000;0.2483;0.4893;
1178.1000;0.2466;0.4869;
1178.4000;0.2475;0.4772;
1178.7000;0.2466;0.4675;
1179.0000;0.2458;0.4675;
1179.3000;0.2483;0.4675;
1179.6000;0.2466;0.4675;
1179.9000;0.2458;0.4651;
1180.2000;0.2418;0.4457;
1180.5000;0.2458;0.4602;
1180.8000;0.2458;0.4626;
1181.1000;0.2434;0.4796;
1181.4000;0.2466;0.4869;
1181.7000;0.2418;0.4747;
1182.0000;0.2475;0.4941;
1182.3000;0.2450;0.4965;
1182.6000;0.2475;0.5038;
1182.9000;0.2466;0.5038;
1183.2000;0.2540;0.5111;
1183.5000;0.2475;0.4941;
1183.8000;0.2483;0.4917;
1184.1000;0.2483;0.4941;
1184.4000;0.2483;0.4893;
1184.7000;0.2499;0.5062;
1185.0000;0.2507;0.5062;
1185.3000;0.2458;0.5038;
1185.6000;0.2491;0.5159;
1185.9000;0.2491;0.5135;
1186.2000;0.2401;0.4844;
1186.5000;0.2466;0.5111;
1186.8000;0.2475;0.5111;
1187.1000;0.2466;0.5014;
1187.4000;0.2466;0.5014;
1187.7000;0.2475;0.5038;
1188.0000;0.2483;0.5014;
1188.3000;0.2450;0.4965;
1188.6000;0.2450;0.4965;
1188.9000;0.2499;0.5062;
1189.2000;0.2475;0.4965;
1189.5000;0.2483;0.4917;
1189.8000;0.2466;0.4917;
1190.1000;0.2466;0.4869;
1190.4000;0.2483;0.4917;
1190.7000;0.2483;0.4990;
1191.0000;0.2483;0.4990;
1191.3000;0.2336;0.4626;
1191.6000;0.2475;0.5014;
1191.9000;0.2466;0.4941;
1192.2000;0.2426;0.4941;
1192.5000;0.2483;0.5062;
1192.8000;0.2507;0.5135;
1193.1000;0.2475;0.4965;
1193.4000;0.2515;0.5014;
1193.7000;0.2466;0.4917;
1194.0000;0.2466;0.4941;
1194.3000;0.2466;0.4941;
1194.6000;0.2475;0.4917;
1194.9000;0.2483;0.4844;
1195.2000;0.2475;0.4869;
1195.5000;0.2491;0.4941;
1195.8000;0.2475;0.4965;
1196.1000;0.2475;0.4965;
1196.4000;0.2491;0.4965;
1196.7000;0.2483;0.5087;
1197.0000;0.2475;0.5087;
1197.3000;0.2483;0.5135;
1197.6000;0.2483;0.5062;
1197.9000;0.2442;0.4917;
1198.2000;0.2466;0.5014;
1198.5000;0.2475;0.4990;
1198.8000;0.2458;0.4941;
1199.1000;0.2458;0.4844;
1199.4000;0.2409;0.4602;
1199.7000;0.2515;0.4893;
1200.0000;0.2458;0.4747;
1200.3000;0.2466;0.4723;
1200.6000;0.2580;0.5111;
1200.9000;0.2418;0.4723;
1201.2000;0.2466;0.4772;
1201.5000;0.2475;0.4796;
1201.8000;0.2475;0.4844;
1202.1000;0.2466;0.4820;
1202.4000;0.2466;0.4796;
1202.7000;0.2450;0.4699;
1203.0000;0.2475;0.4723;
1203.3000;0.2475;0.4772;
1203.6000;0.2442;0.4651;
1203.9000;0.2475;0.4747;
1204.2000;0.2434;0.4626;
1204.5000;0.2475;0.4772;
1204.8000;0.2458;0.4796;
1205.1000;0.2532;0.5014;
1205.4000;0.2450;0.4772;
1205.7000;0.2507;0.4869;
1206.0000;0.2483;0.4772;
1206.3000;0.2466;0.4747;
1206.6000;0.2475;0.4723;
1206.9000;0.2458;0.4675;
1207.2000;0.2450;0.4651;
1207.5000;0.2483;0.4772;
1207.8000;0.2475;0.4869;
1208.1000;0.2434;0.4723;
1208.4000;0.2450;0.4796;
1208.7000;0.2475;0.4844;
1209.0000;0.2466;0.4820;
1209.3000;0.2499;0.4941;
1209.6000;0.2483;0.4893;
1209.9000;0.2475;0.4893;
1210.2000;0.2466;0.4869;
1210.5000;0.2466;0.4965;
1210.8000;0.2483;0.4917;
1211.1000;0.2483;0.4893;
1211.4000;0.2466;0.4844;
1211.7000;0.2434;0.4796;
1212.0000;0.2466;0.4893;
1212.3000;0.2523;0.5038;
1212.6000;0.2450;0.4893;
1212.9000;0.2572;0.5208;
1213.2000;0.2458;0.4917;
1213.5000;0.2483;0.4990;
1213.8000;0.2466;0.5038;
1214.1000;0.2466;0.5062;
1214.4000;0.2458;0.4965;
1214.7000;0.2483;0.5038;
1215.0000;0.2466;0.5062;
1215.3000;0.2450;0.5183;
1215.6000;0.2475;0.5135;
1215.9000;0.2507;0.5111;
1216.2000;0.2491;0.5014;
1216.5000;0.2491;0.4990;
1216.8000;0.2475;0.4893;
1217.1000;0.2466;0.4893;
1217.4000;0.2491;0.4917;
1217.7000;0.2491;0.4893;
1218.0000;0.2458;0.4796;
1218.3000;0.2466;0.4869;
1218.6000;0.2491;0.4869;
1218.9000;0.2475;0.4844;
1219.2000;0.2458;0.4796;
1219.5000;0.2458;0.4675;
1219.8000;0.2466;0.4651;
1220.1000;0.2466;0.4723;
1220.4000;0.2507;0.4772;
1220.7000;0.2491;0.4675;
1221.0000;0.2475;0.4578;
1221.3000;0.2483;0.4529;
1221.6000;0.2491;0.4602;
1221.9000;0.2483;0.4675;
1222.2000;0.2483;0.4626;
1222.5000;0.2483;0.4554;
1222.8000;0.2450;0.4554;
1223.1000;0.2458;0.4626;
1223.4000;0.2475;0.4602;
1223.7000;0.2475;0.4602;
1224.0000;0.2450;0.4602;
1224.3000;0.2466;0.4723;
1224.6000;0.2507;0.4941;
1224.9000;0.2466;0.4965;
1225.2000;0.2466;0.5038;
1225.5000;0.2458;0.5087;
1225.8000;0.2434;0.4990;
1226.1000;0.2491;0.5159;
1226.4000;0.2483;0.5111;
1226.7000;0.2466;0.5062;
1227.0000;0.2466;0.5087;
1227.3000;0.2483;0.5135;
1227.6000;0.2466;0.5159;
1227.9000;0.2475;0.5135;
1228.2000;0.2442;0.4965;
1228.5000;0.2458;0.4990;
1228.8000;0.2466;0.4990;
1229.1000;0.2475;0.5014;
1229.4000;0.2491;0.5062;
1229.7000;0.2442;0.4941;
1230.0000;0.2466;0.4990;
1230.3000;0.2466;0.5014;
1230.6000;0.2466;0.4917;
1230.9000;0.2483;0.4941;
1231.2000;0.2491;0.5014;
1231.5000;0.2483;0.4990;
1231.8000;0.2475;0.4893;
1232.1000;0.2466;0.4844;
1232.4000;0.2499;0.4990;
1232.7000;0.2483;0.4941;
1233.0000;0.2491;0.4965;
1233.3000;0.2385;0.4723;
1233.6000;0.2466;0.4893;
1233.9000;0.2499;0.4990;
1234.2000;0.2475;0.4917;
1234.5000;0.2458;0.4893;
1234.8000;0.2418;0.4772;
1235.1000;0.2466;0.4844;
1235.4000;0.2499;0.4893;
1235.7000;0.2450;0.4772;
1236.0000;0.2556;0.5038;
1236.3000;0.2475;0.4844;
1236.6000;0.2491;0.4941;
1236.9000;0.2466;0.4844;
1237.2000;0.2475;0.4820;
1237.5000;0.2475;0.4844;
1237.8000;0.2475;0.4772;
1238.1000;0.2483;0.4869;
1238.4000;0.2458;0.4772;
1238.7000;0.2483;0.4796;
1239.0000;0.2466;0.4844;
1239.3000;0.2418;0.4675;
1239.6000;0.2466;0.4772;
1239.9000;0.2475;0.4796;
1240.2000;0.2466;0.4917;
1240.5000;0.2458;0.4941;
1240.8000;0.2475;0.4990;
1241.1000;0.2483;0.4917;
1241.4000;0.2458;0.4820;
1241.7000;0.2499;0.4893;
1242.0000;0.2393;0.4578;
1242.3000;0.2466;0.4844;
1242.6000;0.2401;0.4626;
1242.9000;0.2491;0.4796;
1243.2000;0.2540;0.4941;
1243.5000;0.2507;0.4820;
1243.8000;0.2450;0.4699;
1244.1000;0.2466;0.4796;
1244.4000;0.2499;0.4820;
1244.7000;0.2466;0.4699;
1245.0000;0.2475;0.4747;
1245.3000;0.2491;0.4820;
1245.6000;0.2458;0.4723;
1245.9000;0.2483;0.4820;
1246.2000;0.2483;0.4844;
1246.5000;0.2475;0.4796;
1246.8000;0.2491;0.4869;
1247.1000;0.2507;0.4990;
1247.4000;0.2466;0.4844;
1247.7000;0.2483;0.4869;
1248.0000;0.2475;0.4820;
1248.3000;0.2491;0.4893;
1248.6000;0.2466;0.4941;
1248.9000;0.2409;0.4651;
1249.2000;0.2491;0.4941;
1249.5000;0.2548;0.5014;
1249.8000;0.2450;0.4723;
1250.1000;0.2450;0.4651;
1250.4000;0.2458;0.4651;
1250.7000;0.2475;0.4675;
1251.0000;0.2483;0.4772;
1251.3000;0.2450;0.4723;
1251.6000;0.2458;0.4844;
1251.9000;0.2458;0.4941;
1252.2000;0.2458;0.5014;
1252.5000;0.2450;0.5087;
1252.8000;0.2466;0.5111;
1253.1000;0.2466;0.5038;
1253.4000;0.2483;0.5014;
1253.7000;0.2458;0.5038;
1254.0000;0.2475;0.5038;
1254.3000;0.2483;0.5014;
1254.6000;0.2458;0.4917;
1254.9000;0.2450;0.4917;
1255.2000;0.2483;0.4893;
1255.5000;0.2466;0.4820;
1255.8000;0.2458;0.4844;
1256.1000;0.2475;0.4893;
1256.4000;0.2475;0.4917;
1256.7000;0.2434;0.4820;
1257.0000;0.2442;0.4869;
1257.3000;0.2426;0.4844;
1257.6000;0.2475;0.5038;
1257.9000;0.2507;0.5111;
1258.2000;0.2475;0.5038;
1258.5000;0.2466;0.4990;
1258.8000;0.2483;0.4941;
1259.1000;0.2475;0.4893;
1259.4000;0.2450;0.4796;
1259.7000;0.2483;0.4941;
1260.0000;0.2442;0.4869;
1260.3000;0.2418;0.4893;
1260.6000;0.2466;0.4990;
1260.9000;0.2475;0.4893;
1261.2000;0.2466;0.4796;
1261.5000;0.2458;0.4893;
1261.8000;0.2475;0.5087;
1262.1000;0.2483;0.5111;
1262.4000;0.2532;0.5183;
1262.7000;0.2483;0.5062;
1263.0000;0.2483;0.5087;
1263.3000;0.2466;0.5135;
1263.6000;0.2466;0.5135;
1263.9000;0.2483;0.5111;
1264.2000;0.2589;0.5498;
1264.5000;0.2466;0.5087;
1264.8000;0.2483;0.5087;
1265.1000;0.2442;0.4965;
1265.4000;0.2458;0.5087;
1265.7000;0.2475;0.5111;
1266.0000;0.2475;0.5038;
1266.3000;0.2450;0.4965;
1266.6000;0.2466;0.5014;
1266.9000;0.2475;0.4941;
1267.2000;0.2523;0.5038;
1267.5000;0.2475;0.4941;
1267.8000;0.2434;0.4844;
1268.1000;0.2466;0.4941;
1268.4000;0.2475;0.4917;
1268.7000;0.2466;0.4965;
1269.0000;0.2466;0.4965;
1269.3000;0.2466;0.4941;
1269.6000;0.2458;0.4990;
1269.9000;0.2483;0.5038;
1270.2000;0.2475;0.4893;
1270.5000;0.2466;0.4917;
1270.8000;0.2466;0.4844;
1271.1000;0.2466;0.4869;
1271.4000;0.2466;0.4965;
1271.7000;0.2483;0.4965;
1272.0000;0.2507;0.4990;
1272.3000;0.2458;0.4941;
1272.6000;0.2491;0.4893;
1272.9000;0.2475;0.4723;
1273.2000;0.2475;0.4699;
1273.5000;0.2491;0.4723;
1273.8000;0.2475;0.4626;
1274.1000;0.2466;0.4651;
1274.4000;0.2458;0.4723;
1274.7000;0.2491;0.4917;
1275.0000;0.2491;0.4893;
1275.3000;0.2475;0.4820;
1275.6000;0.2434;0.4651;
1275.9000;0.2458;0.4723;
1276.2000;0.2458;0.4747;
1276.5000;0.2466;0.4820;
1276.8000;0.2450;0.4772;
1277.1000;0.2466;0.4844;
1277.4000;0.2442;0.4869;
1277.7000;0.2475;0.5014;
1278.0000;0.2458;0.5087;
1278.3000;0.2466;0.5038;
1278.6000;0.2466;0.5062;
1278.9000;0.2483;0.5062;
1279.2000;0.2475;0.5087;
1279.5000;0.2466;0.4965;
1279.8000;0.2475;0.4941;
1280.1000;0.2475;0.4990;
1280.4000;0.2418;0.4917;
1280.7000;0.2466;0.5111;
1281.0000;0.2466;0.5087;
1281.3000;0.2466;0.5062;
1281.6000;0.2466;0.5111;
1281.9000;0.2475;0.5062;
1282.2000;0.2458;0.4990;
1282.5000;0.2466;0.4917;
1282.8000;0.2466;0.4917;
1283.1000;0.2466;0.4893;
1283.4000;0.2475;0.4965;
1283.7000;0.2393;0.4796;
1284.0000;0.2450;0.5014;
1284.3000;0.2458;0.4941;
1284.6000;0.2475;0.5038;
1284.9000;0.2466;0.5038;
1285.2000;0.2442;0.4917;
1285.5000;0.2499;0.5038;
1285.8000;0.2442;0.4917;
1286.1000;0.2466;0.4965;
1286.4000;0.2507;0.5038;
1286.7000;0.2515;0.5087;
1287.0000;0.2491;0.5014;
1287.3000;0.2491;0.5062;
1287.6000;0.2483;0.4990;
1287.9000;0.2401;0.4796;
1288.2000;0.2507;0.5135;
1288.5000;0.2475;0.5038;
1288.8000;0.2450;0.5087;
1289.1000;0.2466;0.5014;
1289.4000;0.2515;0.5062;
1289.7000;0.2352;0.4651;
1290.0000;0.2499;0.4990;
1290.3000;0.2458;0.4820;
1290.6000;0.2475;0.4844;
1290.9000;0.2475;0.4893;
1291.2000;0.2458;0.4747;
1291.5000;0.2434;0.4675;
1291.8000;0.2475;0.4796;
1292.1000;0.2499;0.4844;
1292.4000;0.2466;0.4772;
1292.7000;0.2458;0.4869;
1293.0000;0.2483;0.4844;
1293.3000;0.2450;0.4844;
1293.6000;0.2523;0.5014;
1293.9000;0.2523;0.5014;
1294.2000;0.2466;0.4893;
1294.5000;0.2475;0.4965;
1294.8000;0.2475;0.5014;
1295.1000;0.2458;0.4941;
1295.4000;0.2450;0.4772;
1295.7000;0.2475;0.4941;
1296.0000;0.2475;0.4965;
1296.3000;0.2466;0.5014;
1296.6000;0.2458;0.5135;
1296.9000;0.2475;0.5135;
1297.2000;0.2523;0.5208;
1297.5000;0.2475;0.4990;
1297.8000;0.2475;0.4941;
1298.1000;0.2483;0.4965;
1298.4000;0.2507;0.5087;
1298.7000;0.2499;0.5135;
1299.0000;0.2466;0.4965;
1299.3000;0.2491;0.4965;
1299.6000;0.2458;0.4917;
1299.9000;0.2442;0.4893;
1300.2000;0.2466;0.5014;
1300.5000;0.2450;0.4893;
1300.8000;0.2475;0.4965;
1301.1000;0.2475;0.4990;
1301.4000;0.2483;0.4941;
1301.7000;0.2466;0.4990;
1302.0000;0.2466;0.5014;
1302.3000;0.2426;0.4869;
1302.6000;0.2483;0.5087;
1302.9000;0.2515;0.5135;
1303.2000;0.2483;0.4965;
1303.5000;0.2458;0.4869;
1303.8000;0.2458;0.4844;
1304.1000;0.2426;0.4699;
1304.4000;0.2458;0.4820;
1304.7000;0.2475;0.4917;
1305.0000;0.2483;0.5014;
1305.3000;0.2491;0.5014;
1305.6000;0.2483;0.4990;
1305.9000;0.2466;0.4917;
1306.2000;0.2450;0.4917;
1306.5000;0.2458;0.4941;
1306.8000;0.2466;0.4941;
1307.1000;0.2409;0.4796;
1307.4000;0.2450;0.4965;
1307.7000;0.2450;0.4990;
1308.0000;0.2475;0.5038;
1308.3000;0.2499;0.5062;
1308.6000;0.2466;0.4965;
1308.9000;0.2499;0.4965;
1309.2000;0.2483;0.4990;
1309.5000;0.2475;0.5014;
1309.8000;0.2426;0.4893;
1310.1000;0.2466;0.4941;
1310.4000;0.2401;0.4772;
1310.7000;0.2540;0.5256;
1311.0000;0.2475;0.5087;
1311.3000;0.2491;0.5111;
1311.6000;0.2483;0.5183;
1311.9000;0.2361;0.4772;
1312.2000;0.2434;0.5062;
1312.5000;0.2466;0.5135;
1312.8000;0.2434;0.5062;
1313.1000;0.2483;0.5232;
1313.4000;0.2458;0.5159;
1313.7000;0.2458;0.5087;
1314.0000;0.2458;0.4965;
1314.3000;0.2458;0.5038;
1314.6000;0.2475;0.5087;
1314.9000;0.2361;0.4869;
1315.2000;0.2458;0.5159;
1315.5000;0.2458;0.5159;
1315.8000;0.2442;0.5111;
1316.1000;0.2426;0.5135;
1316.4000;0.2450;0.5208;
1316.7000;0.2466;0.5183;
1317.0000;0.2499;0.5232;
1317.3000;0.2475;0.5208;
1317.6000;0.2458;0.5183;
1317.9000;0.2483;0.5183;
1318.2000;0.2475;0.5111;
1318.5000;0.2491;0.5087;
1318.8000;0.2442;0.5038;
1319.1000;0.2475;0.5014;
1319.4000;0.2499;0.5038;
1319.7000;0.2556;0.5183;
1320.0000;0.2466;0.4965;
1320.3000;0.2450;0.4844;
1320.6000;0.2450;0.4844;
1320.9000;0.2466;0.4941;
1321.2000;0.2466;0.4917;
1321.5000;0.2466;0.4893;
1321.8000;0.2434;0.4820;
1322.1000;0.2483;0.4893;
1322.4000;0.2475;0.4917;
1322.7000;0.2466;0.4941;
1323.0000;0.2466;0.4941;
1323.3000;0.2466;0.4820;
1323.6000;0.2466;0.4820;
1323.9000;0.2458;0.4844;
1324.2000;0.2434;0.4820;
1324.5000;0.2442;0.4869;
1324.8000;0.2450;0.4869;
1325.1000;0.2475;0.4844;
1325.4000;0.2483;0.4844;
1325.7000;0.2483;0.4893;
1326.0000;0.2483;0.4965;
1326.3000;0.2532;0.5087;
1326.6000;0.2466;0.4917;
1326.9000;0.2466;0.4844;
1327.2000;0.2458;0.4820;
1327.5000;0.2491;0.4869;
1327.8000;0.2466;0.4893;
1328.1000;0.2507;0.4965;
1328.4000;0.2466;0.4869;
1328.7000;0.2491;0.4893;
1329.0000;0.2458;0.4869;
1329.3000;0.2475;0.4844;
1329.6000;0.2475;0.4917;
1329.9000;0.2475;0.4965;
1330.2000;0.2466;0.4990;
1330.5000;0.2466;0.4917;
1330.8000;0.2483;0.4941;
1331.1000;0.2540;0.5038;
1331.4000;0.2483;0.4869;
1331.7000;0.2483;0.4917;
1332.0000;0.2401;0.4796;
1332.3000;0.2450;0.4965;
1332.6000;0.2466;0.4990;
1332.9000;0.2450;0.5014;
1333.2000;0.2458;0.5062;
1333.5000;0.2475;0.5038;
1333.8000;0.2475;0.4893;
1334.1000;0.2466;0.4820;
1334.4000;0.2466;0.4796;
1334.7000;0.2458;0.4844;
1335.0000;0.2475;0.4893;
1335.3000;0.2442;0.4844;
1335.6000;0.2491;0.4965;
1335.9000;0.2491;0.4917;
1336.2000;0.2491;0.4869;
1336.5000;0.2491;0.4893;
1336.8000;0.2466;0.4869;
1337.1000;0.2450;0.4772;
1337.4000;0.2458;0.4844;
1337.7000;0.2483;0.4893;
1338.0000;0.2475;0.4844;
1338.3000;0.2458;0.4844;
1338.6000;0.2458;0.4820;
1338.9000;0.2589;0.5087;
1339.2000;0.2466;0.4796;
1339.5000;0.2507;0.4917;
1339.8000;0.2466;0.4820;
1340.1000;0.2466;0.4917;
1340.4000;0.2475;0.4941;
1340.7000;0.2426;0.4747;
1341.0000;0.2483;0.4893;
1341.3000;0.2507;0.4869;
1341.6000;0.2409;0.4529;
1341.9000;0.2450;0.4699;
1342.2000;0.2450;0.4723;
1342.5000;0.2466;0.4772;
1342.8000;0.2475;0.4844;
1343.1000;0.2475;0.4844;
1343.4000;0.2458;0.4820;
1343.7000;0.2613;0.5232;
1344.0000;0.2385;0.4747;
1344.3000;0.2475;0.4941;
1344.6000;0.2507;0.4990;
1344.9000;0.2491;0.4965;
1345.2000;0.2491;0.5014;
1345.5000;0.2475;0.5062;
1345.8000;0.2475;0.4990;
1346.1000;0.2466;0.4820;
1346.4000;0.2483;0.4844;
1346.7000;0.2466;0.4820;
1347.0000;0.2466;0.4723;
1347.3000;0.2450;0.4772;
1347.6000;0.2475;0.4893;
1347.9000;0.2466;0.4820;
1348.2000;0.2466;0.4747;
1348.5000;0.2483;0.4869;
1348.8000;0.2426;0.4699;
1349.1000;0.2515;0.4893;
1349.4000;0.2483;0.4796;
1349.7000;0.2483;0.4844;
1350.0000;0.2491;0.4893;
1350.3000;0.2466;0.4941;
1350.6000;0.2475;0.4917;
1350.9000;0.2475;0.4917;
1351.2000;0.2475;0.4844;
1351.5000;0.2475;0.4796;
1351.8000;0.2475;0.4772;
1352.1000;0.2450;0.4626;
1352.4000;0.2466;0.4699;
1352.7000;0.2466;0.4820;
1353.0000;0.2466;0.4869;
1353.3000;0.2491;0.4844;
1353.6000;0.2466;0.4747;
1353.9000;0.2475;0.4820;
1354.2000;0.2466;0.4844;
1354.5000;0.2556;0.5014;
1354.8000;0.2475;0.4820;
1355.1000;0.2475;0.4844;
1355.4000;0.2466;0.4941;
1355.7000;0.2475;0.4990;
1356.0000;0.2458;0.4965;
1356.3000;0.2475;0.5111;
1356.6000;0.2466;0.5062;
1356.9000;0.2458;0.5038;
1357.2000;0.2450;0.4990;
1357.5000;0.2475;0.5087;
1357.8000;0.2475;0.5111;
1358.1000;0.2450;0.4965;
1358.4000;0.2491;0.5038;
1358.7000;0.2466;0.5014;
1359.0000;0.2483;0.5038;
1359.3000;0.2442;0.4869;
1359.6000;0.2401;0.4844;
1359.9000;0.2540;0.5111;
1360.2000;0.2466;0.4941;
1360.5000;0.2426;0.4893;
1360.8000;0.2483;0.5038;
1361.1000;0.2475;0.4990;
1361.4000;0.2466;0.4917;
1361.7000;0.2597;0.5208;
1362.0000;0.2475;0.4820;
1362.3000;0.2450;0.4747;
1362.6000;0.2483;0.4990;
1362.9000;0.2475;0.5014;
1363.2000;0.2450;0.4869;
1363.5000;0.2466;0.4941;
1363.8000;0.2475;0.4941;
1364.1000;0.2515;0.5159;
1364.4000;0.2466;0.4990;
1364.7000;0.2352;0.4723;
1365.0000;0.2507;0.5111;
1365.3000;0.2458;0.4917;
1365.6000;0.2434;0.4820;
1365.9000;0.2475;0.5014;
1366.2000;0.2458;0.5014;
1366.5000;0.2556;0.5305;
1366.8000;0.2483;0.5062;
1367.1000;0.2483;0.5062;
1367.4000;0.2499;0.5111;
1367.7000;0.2499;0.5159;
1368.0000;0.2475;0.5208;
1368.3000;0.2491;0.5377;
1368.6000;0.2458;0.5256;
1368.9000;0.2377;0.4990;
1369.2000;0.2475;0.5280;
1369.5000;0.2475;0.5256;
1369.8000;0.2458;0.5159;
1370.1000;0.2466;0.5135;
1370.4000;0.2466;0.5183;
1370.7000;0.2475;0.5183;
1371.0000;0.2540;0.5377;
1371.3000;0.2475;0.5159;
1371.6000;0.2475;0.5111;
1371.9000;0.2564;0.5280;
1372.2000;0.2491;0.5135;
1372.5000;0.2475;0.5159;
1372.8000;0.2491;0.5111;
1373.1000;0.2491;0.5038;
1373.4000;0.2458;0.5038;
1373.7000;0.2466;0.4990;
1374.0000;0.2442;0.5014;
1374.3000;0.2426;0.4990;
1374.6000;0.2466;0.5062;
1374.9000;0.2523;0.5232;
1375.2000;0.2475;0.5087;
1375.5000;0.2556;0.5183;
1375.8000;0.2475;0.5038;
1376.1000;0.2475;0.5038;
1376.4000;0.2458;0.4941;
1376.7000;0.2458;0.5014;
1377.0000;0.2458;0.5111;
1377.3000;0.2499;0.5208;
1377.6000;0.2458;0.5087;
1377.9000;0.2466;0.5135;
1378.2000;0.2450;0.5087;
1378.5000;0.2507;0.5111;
1378.8000;0.2458;0.5038;
1379.1000;0.2458;0.5087;
1379.4000;0.2450;0.5038;
1379.7000;0.2442;0.5014;
1380.0000;0.2491;0.5087;
1380.3000;0.2385;0.4796;
1380.6000;0.2548;0.5159;
1380.9000;0.2434;0.4893;
1381.2000;0.2540;0.5135;
1381.5000;0.2491;0.5062;
1381.8000;0.2475;0.4990;
1382.1000;0.2458;0.4965;
1382.4000;0.2483;0.5062;
1382.7000;0.2450;0.4917;
1383.0000;0.2458;0.4941;
1383.3000;0.2483;0.4965;
1383.6000;0.2466;0.4941;
1383.9000;0.2556;0.5183;
1384.2000;0.2458;0.4869;
1384.5000;0.2466;0.4893;
1384.8000;0.2426;0.4796;
1385.1000;0.2458;0.4917;
1385.4000;0.2475;0.5062;
1385.7000;0.2515;0.5232;
1386.0000;0.2475;0.5087;
1386.3000;0.2475;0.5111;
1386.6000;0.2466;0.5159;
1386.9000;0.2385;0.5014;
1387.2000;0.2483;0.5183;
1387.5000;0.2450;0.5135;
1387.8000;0.2450;0.4990;
1388.1000;0.2466;0.5062;
1388.4000;0.2458;0.5062;
1388.7000;0.2491;0.5111;
1389.0000;0.2466;0.5038;
1389.3000;0.2426;0.4917;
1389.6000;0.2418;0.4869;
1389.9000;0.2483;0.5111;
1390.2000;0.2442;0.4965;
1390.5000;0.2466;0.5062;
1390.8000;0.2450;0.5038;
1391.1000;0.2458;0.5038;
1391.4000;0.2450;0.4893;
1391.7000;0.2475;0.4893;
1392.0000;0.2466;0.4772;
1392.3000;0.2450;0.4820;
1392.6000;0.2475;0.4844;
1392.9000;0.2483;0.4844;
1393.2000;0.2491;0.4844;
1393.5000;0.2491;0.4796;
1393.8000;0.2442;0.4699;
1394.1000;0.2458;0.4820;
1394.4000;0.2466;0.4820;
1394.7000;0.2475;0.4869;
1395.0000;0.2466;0.4844;
1395.3000;0.2475;0.4893;
1395.6000;0.2458;0.4820;
1395.9000;0.2450;0.4820;
1396.2000;0.2466;0.4917;
1396.5000;0.2491;0.4990;
1396.8000;0.2491;0.4893;
1397.1000;0.2458;0.4844;
1397.4000;0.2499;0.4965;
1397.7000;0.2491;0.4941;
1398.0000;0.2491;0.4893;
1398.3000;0.2515;0.4990;
1398.6000;0.2483;0.4844;
1398.9000;0.2442;0.4651;
1399.2000;0.2483;0.4844;
1399.5000;0.2458;0.4844;
1399.8000;0.2475;0.4893;
