time/ms;Fluo/V;P700 deltaI/I x10³;
-199.8000;0.2515;0.5959;
-199.5000;0.2515;0.5934;
-199.2000;0.2540;0.6007;
-198.9000;0.2523;0.6080;
-198.6000;0.2532;0.6104;
-198.3000;0.2597;0.6298;
-198.0000;0.2532;0.6225;
-197.7000;0.2515;0.6177;
-197.4000;0.2523;0.6152;
-197.1000;0.2507;0.5983;
-196.8000;0.2532;0.5983;
-196.5000;0.2523;0.5934;
-196.2000;0.2540;0.5983;
-195.9000;0.2532;0.5934;
-195.6000;0.2540;0.6007;
-195.3000;0.2540;0.5934;
-195.0000;0.2540;0.5959;
-194.7000;0.2523;0.5910;
-194.4000;0.2564;0.6055;
-194.1000;0.2556;0.6080;
-193.8000;0.2507;0.6007;
-193.5000;0.2507;0.6055;
-193.2000;0.2532;0.6128;
-192.9000;0.2548;0.6128;
-192.6000;0.2532;0.6152;
-192.3000;0.2540;0.6177;
-192.0000;0.2507;0.6080;
-191.7000;0.2523;0.6080;
-191.4000;0.2483;0.6007;
-191.1000;0.2515;0.6031;
-190.8000;0.2499;0.6031;
-190.5000;0.2515;0.6055;
-190.2000;0.2523;0.6080;
-189.9000;0.2499;0.6031;
-189.6000;0.2532;0.5983;
-189.3000;0.2515;0.5983;
-189.0000;0.2532;0.5983;
-188.7000;0.2523;0.5983;
-188.4000;0.2532;0.6031;
-188.1000;0.2523;0.6007;
-187.8000;0.2523;0.5983;
-187.5000;0.2409;0.5619;
-187.2000;0.2523;0.5789;
-186.9000;0.2532;0.5692;
-186.6000;0.2523;0.5741;
-186.3000;0.2540;0.5789;
-186.0000;0.2515;0.5813;
-185.7000;0.2523;0.5862;
-185.4000;0.2540;0.5813;
-185.1000;0.2532;0.5813;
-184.8000;0.2540;0.5813;
-184.5000;0.2523;0.5837;
-184.2000;0.2532;0.5910;
-183.9000;0.2523;0.5934;
-183.6000;0.2458;0.5910;
-183.3000;0.2540;0.6080;
-183.0000;0.2523;0.6031;
-182.7000;0.2556;0.6104;
-182.4000;0.2540;0.6055;
-182.1000;0.2532;0.5910;
-181.8000;0.2532;0.5837;
-181.5000;0.2499;0.5765;
-181.2000;0.2540;0.5862;
-180.9000;0.2523;0.5789;
-180.6000;0.2548;0.5837;
-180.3000;0.2523;0.5765;
-180.0000;0.2532;0.5716;
-179.7000;0.2515;0.5692;
-179.4000;0.2515;0.5765;
-179.1000;0.2532;0.5862;
-178.8000;0.2548;0.5910;
-178.5000;0.2589;0.6007;
-178.2000;0.2532;0.5934;
-177.9000;0.2532;0.5983;
-177.6000;0.2499;0.5886;
-177.3000;0.2523;0.5862;
-177.0000;0.2532;0.5886;
-176.7000;0.2515;0.5910;
-176.4000;0.2515;0.6007;
-176.1000;0.2458;0.5789;
-175.8000;0.2515;0.5862;
-175.5000;0.2532;0.5910;
-175.2000;0.2507;0.5886;
-174.9000;0.2532;0.5837;
-174.6000;0.2523;0.5934;
-174.3000;0.2507;0.5934;
-174.0000;0.2540;0.5959;
-173.7000;0.2532;0.5934;
-173.4000;0.2532;0.5862;
-173.1000;0.2523;0.5910;
-172.8000;0.2523;0.5886;
-172.5000;0.2507;0.5886;
-172.2000;0.2523;0.5983;
-171.9000;0.2523;0.5959;
-171.6000;0.2499;0.5837;
-171.3000;0.2515;0.5862;
-171.0000;0.2507;0.5886;
-170.7000;0.2532;0.5959;
-170.4000;0.2507;0.5934;
-170.1000;0.2507;0.5886;
-169.8000;0.2523;0.5910;
-169.5000;0.2515;0.5959;
-169.2000;0.2499;0.6031;
-168.9000;0.2523;0.6080;
-168.6000;0.2515;0.6080;
-168.3000;0.2523;0.6201;
-168.0000;0.2523;0.6152;
-167.7000;0.2515;0.6128;
-167.4000;0.2515;0.6177;
-167.1000;0.2532;0.6225;
-166.8000;0.2523;0.6104;
-166.5000;0.2523;0.6007;
-166.2000;0.2515;0.5959;
-165.9000;0.2532;0.5910;
-165.6000;0.2491;0.5813;
-165.3000;0.2499;0.5741;
-165.0000;0.2507;0.5692;
-164.7000;0.2540;0.5716;
-164.4000;0.2491;0.5595;
-164.1000;0.2548;0.5619;
-163.8000;0.2515;0.5644;
-163.5000;0.2523;0.5644;
-163.2000;0.2540;0.5644;
-162.9000;0.2540;0.5595;
-162.6000;0.2532;0.5668;
-162.3000;0.2564;0.5813;
-162.0000;0.2532;0.5862;
-161.7000;0.2515;0.5813;
-161.4000;0.2507;0.5789;
-161.1000;0.2491;0.5741;
-160.8000;0.2637;0.6031;
-160.5000;0.2523;0.5765;
-160.2000;0.2491;0.5741;
-159.9000;0.2523;0.5813;
-159.6000;0.2426;0.5595;
-159.3000;0.2507;0.5886;
-159.0000;0.2532;0.5983;
-158.7000;0.2515;0.6007;
-158.4000;0.2532;0.6007;
-158.1000;0.2523;0.6080;
-157.8000;0.2523;0.5983;
-157.5000;0.2515;0.5959;
-157.2000;0.2523;0.6031;
-156.9000;0.2523;0.6055;
-156.6000;0.2523;0.6080;
-156.3000;0.2523;0.6080;
-156.0000;0.2515;0.5983;
-155.7000;0.2515;0.6007;
-155.4000;0.2523;0.6080;
-155.1000;0.2523;0.5983;
-154.8000;0.2523;0.6007;
-154.5000;0.2499;0.5983;
-154.2000;0.2532;0.5983;
-153.9000;0.2556;0.6031;
-153.6000;0.2466;0.5910;
-153.3000;0.2507;0.6031;
-153.0000;0.2515;0.6055;
-152.7000;0.2475;0.5934;
-152.4000;0.2532;0.6177;
-152.1000;0.2532;0.6104;
-151.8000;0.2532;0.6128;
-151.5000;0.2515;0.6007;
-151.2000;0.2515;0.5934;
-150.9000;0.2523;0.5934;
-150.6000;0.2523;0.5886;
-150.3000;0.2686;0.6322;
-150.0000;0.2499;0.5837;
-149.7000;0.2532;0.5910;
-149.4000;0.2515;0.5789;
-149.1000;0.2523;0.5959;
-148.8000;0.2515;0.5983;
-148.5000;0.2515;0.6007;
-148.2000;0.2597;0.6225;
-147.9000;0.2523;0.6104;
-147.6000;0.2532;0.6152;
-147.3000;0.2532;0.6152;
-147.0000;0.2515;0.6177;
-146.7000;0.2540;0.6177;
-146.4000;0.2523;0.6104;
-146.1000;0.2532;0.6128;
-145.8000;0.2540;0.6080;
-145.5000;0.2540;0.6104;
-145.2000;0.2540;0.6177;
-144.9000;0.2515;0.6152;
-144.6000;0.2507;0.6080;
-144.3000;0.2532;0.6104;
-144.0000;0.2548;0.6152;
-143.7000;0.2515;0.6104;
-143.4000;0.2466;0.5910;
-143.1000;0.2532;0.6031;
-142.8000;0.2523;0.5983;
-142.5000;0.2523;0.6007;
-142.2000;0.2532;0.6055;
-141.9000;0.2523;0.6152;
-141.6000;0.2532;0.6177;
-141.3000;0.2523;0.6031;
-141.0000;0.2548;0.6031;
-140.7000;0.2548;0.6007;
-140.4000;0.2523;0.5959;
-140.1000;0.2532;0.5934;
-139.8000;0.2540;0.5983;
-139.5000;0.2523;0.5934;
-139.2000;0.2523;0.5983;
-138.9000;0.2572;0.6152;
-138.6000;0.2540;0.6031;
-138.3000;0.2483;0.5934;
-138.0000;0.2540;0.5910;
-137.7000;0.2532;0.5862;
-137.4000;0.2532;0.5983;
-137.1000;0.2548;0.6031;
-136.8000;0.2556;0.6055;
-136.5000;0.2540;0.6007;
-136.2000;0.2540;0.5983;
-135.9000;0.2523;0.6007;
-135.6000;0.2523;0.5983;
-135.3000;0.2499;0.5959;
-135.0000;0.2515;0.6055;
-134.7000;0.2523;0.6031;
-134.4000;0.2515;0.6055;
-134.1000;0.2523;0.6128;
-133.8000;0.2507;0.6080;
-133.5000;0.2515;0.6031;
-133.2000;0.2515;0.5959;
-132.9000;0.2515;0.6007;
-132.6000;0.2532;0.6007;
-132.3000;0.2507;0.5959;
-132.0000;0.2515;0.5934;
-131.7000;0.2515;0.5934;
-131.4000;0.2532;0.5910;
-131.1000;0.2605;0.6055;
-130.8000;0.2491;0.5813;
-130.5000;0.2540;0.5934;
-130.2000;0.2523;0.5886;
-129.9000;0.2548;0.5910;
-129.6000;0.2507;0.5813;
-129.3000;0.2515;0.5813;
-129.0000;0.2564;0.5934;
-128.7000;0.2515;0.5813;
-128.4000;0.2515;0.5862;
-128.1000;0.2515;0.5886;
-127.8000;0.2515;0.5886;
-127.5000;0.2515;0.5983;
-127.2000;0.2475;0.5741;
-126.9000;0.2483;0.5837;
-126.6000;0.2515;0.5886;
-126.3000;0.2613;0.6080;
-126.0000;0.2532;0.5862;
-125.7000;0.2515;0.5862;
-125.4000;0.2523;0.5959;
-125.1000;0.2540;0.5983;
-124.8000;0.2515;0.5983;
-124.5000;0.2507;0.5983;
-124.2000;0.2515;0.5983;
-123.9000;0.2523;0.6031;
-123.6000;0.2507;0.6007;
-123.3000;0.2507;0.6007;
-123.0000;0.2499;0.6007;
-122.7000;0.2532;0.6007;
-122.4000;0.2491;0.5837;
-122.1000;0.2515;0.5959;
-121.8000;0.2507;0.6031;
-121.5000;0.2532;0.6055;
-121.2000;0.2540;0.6104;
-120.9000;0.2548;0.6031;
-120.6000;0.2515;0.6031;
-120.3000;0.2523;0.6055;
-120.0000;0.2515;0.6080;
-119.7000;0.2507;0.6007;
-119.4000;0.2507;0.5959;
-119.1000;0.2532;0.6007;
-118.8000;0.2523;0.6080;
-118.5000;0.2434;0.5886;
-118.2000;0.2515;0.6031;
-117.9000;0.2507;0.5959;
-117.6000;0.2523;0.5959;
-117.3000;0.2507;0.5862;
-117.0000;0.2507;0.5862;
-116.7000;0.2515;0.5862;
-116.4000;0.2515;0.5862;
-116.1000;0.2507;0.5765;
-115.8000;0.2491;0.5741;
-115.5000;0.2515;0.5789;
-115.2000;0.2532;0.5862;
-114.9000;0.2540;0.5934;
-114.6000;0.2523;0.5910;
-114.3000;0.2532;0.6055;
-114.0000;0.2532;0.6031;
-113.7000;0.2523;0.6031;
-113.4000;0.2548;0.6152;
-113.1000;0.2532;0.6152;
-112.8000;0.2532;0.6128;
-112.5000;0.2548;0.6177;
-112.2000;0.2499;0.6055;
-111.9000;0.2532;0.6080;
-111.6000;0.2507;0.6031;
-111.3000;0.2507;0.6128;
-111.0000;0.2523;0.6152;
-110.7000;0.2515;0.5983;
-110.4000;0.2523;0.5959;
-110.1000;0.2523;0.5837;
-109.8000;0.2515;0.5886;
-109.5000;0.2532;0.5886;
-109.2000;0.2548;0.5934;
-108.9000;0.2507;0.5959;
-108.6000;0.2548;0.6031;
-108.3000;0.2499;0.5959;
-108.0000;0.2572;0.6128;
-107.7000;0.2515;0.5983;
-107.4000;0.2515;0.5934;
-107.1000;0.2580;0.6055;
-106.8000;0.2466;0.5765;
-106.5000;0.2540;0.5910;
-106.2000;0.2532;0.5959;
-105.9000;0.2540;0.5959;
-105.6000;0.2515;0.5862;
-105.3000;0.2450;0.5741;
-105.0000;0.2523;0.6031;
-104.7000;0.2580;0.6152;
-104.4000;0.2458;0.5862;
-104.1000;0.2523;0.5959;
-103.8000;0.2523;0.5934;
-103.5000;0.2523;0.5862;
-103.2000;0.2515;0.5886;
-102.9000;0.2523;0.6055;
-102.6000;0.2523;0.6031;
-102.3000;0.2523;0.6080;
-102.0000;0.2532;0.5934;
-101.7000;0.2532;0.5910;
-101.4000;0.2491;0.5813;
-101.1000;0.2515;0.5886;
-100.8000;0.2466;0.5741;
-100.5000;0.2523;0.5837;
-100.2000;0.2540;0.5837;
-99.9000;0.2475;0.5595;
-99.6000;0.2523;0.5644;
-99.3000;0.2466;0.5644;
-99.0000;0.2515;0.5765;
-98.7000;0.2540;0.5886;
-98.4000;0.2523;0.5934;
-98.1000;0.2515;0.5959;
-97.8000;0.2466;0.5862;
-97.5000;0.2540;0.6104;
-97.2000;0.2515;0.5983;
-96.9000;0.2540;0.6031;
-96.6000;0.2532;0.6055;
-96.3000;0.2523;0.6055;
-96.0000;0.2532;0.6152;
-95.7000;0.2629;0.6395;
-95.4000;0.2499;0.6080;
-95.1000;0.2523;0.6177;
-94.8000;0.2532;0.6104;
-94.5000;0.2523;0.6104;
-94.2000;0.2523;0.6128;
-93.9000;0.2532;0.6152;
-93.6000;0.2507;0.6007;
-93.3000;0.2580;0.6249;
-93.0000;0.2532;0.6225;
-92.7000;0.2580;0.6443;
-92.4000;0.2523;0.6249;
-92.1000;0.2418;0.5959;
-91.8000;0.2548;0.6249;
-91.5000;0.2523;0.6055;
-91.2000;0.2401;0.5716;
-90.9000;0.2523;0.6104;
-90.6000;0.2629;0.6370;
-90.3000;0.2523;0.6128;
-90.0000;0.2507;0.6128;
-89.7000;0.2507;0.6080;
-89.4000;0.2532;0.6080;
-89.1000;0.2515;0.6007;
-88.8000;0.2515;0.6007;
-88.5000;0.2523;0.6055;
-88.2000;0.2507;0.6031;
-87.9000;0.2507;0.6031;
-87.6000;0.2507;0.6031;
-87.3000;0.2507;0.6007;
-87.0000;0.2499;0.6031;
-86.7000;0.2515;0.5983;
-86.4000;0.2523;0.5934;
-86.1000;0.2548;0.6031;
-85.8000;0.2507;0.5959;
-85.5000;0.2523;0.5959;
-85.2000;0.2523;0.5934;
-84.9000;0.2548;0.5983;
-84.6000;0.2507;0.5959;
-84.3000;0.2515;0.6031;
-84.0000;0.2564;0.6225;
-83.7000;0.2499;0.6128;
-83.4000;0.2532;0.6080;
-83.1000;0.2515;0.5983;
-82.8000;0.2515;0.5983;
-82.5000;0.2515;0.6031;
-82.2000;0.2499;0.6031;
-81.9000;0.2507;0.5983;
-81.6000;0.2540;0.6055;
-81.3000;0.2491;0.5910;
-81.0000;0.2515;0.5959;
-80.7000;0.2515;0.5959;
-80.4000;0.2523;0.6080;
-80.1000;0.2515;0.6007;
-79.8000;0.2556;0.6080;
-79.5000;0.2523;0.6007;
-79.2000;0.2523;0.6055;
-78.9000;0.2523;0.5983;
-78.6000;0.2515;0.6055;
-78.3000;0.2507;0.6055;
-78.0000;0.2491;0.5983;
-77.7000;0.2515;0.6080;
-77.4000;0.2532;0.6080;
-77.1000;0.2515;0.6104;
-76.8000;0.2532;0.6080;
-76.5000;0.2532;0.6152;
-76.2000;0.2523;0.6177;
-75.9000;0.2507;0.6104;
-75.6000;0.2523;0.6104;
-75.3000;0.2523;0.6128;
-75.0000;0.2540;0.6104;
-74.7000;0.2532;0.6055;
-74.4000;0.2532;0.5910;
-74.1000;0.2532;0.5959;
-73.8000;0.2523;0.6007;
-73.5000;0.2523;0.5983;
-73.2000;0.2507;0.5910;
-72.9000;0.2589;0.6080;
-72.6000;0.2499;0.5886;
-72.3000;0.2450;0.5789;
-72.0000;0.2499;0.5910;
-71.7000;0.2515;0.5837;
-71.4000;0.2523;0.5910;
-71.1000;0.2532;0.5886;
-70.8000;0.2515;0.5910;
-70.5000;0.2483;0.5741;
-70.2000;0.2556;0.5934;
-69.9000;0.2515;0.5837;
-69.6000;0.2523;0.5862;
-69.3000;0.2556;0.5934;
-69.0000;0.2515;0.5837;
-68.7000;0.2523;0.5837;
-68.4000;0.2540;0.5837;
-68.1000;0.2515;0.5765;
-67.8000;0.2515;0.5716;
-67.5000;0.2540;0.5813;
-67.2000;0.2523;0.5789;
-66.9000;0.2515;0.5765;
-66.6000;0.2523;0.5789;
-66.3000;0.2523;0.5789;
-66.0000;0.2597;0.5983;
-65.7000;0.2523;0.5837;
-65.4000;0.2532;0.5910;
-65.1000;0.2548;0.5934;
-64.8000;0.2515;0.5862;
-64.5000;0.2523;0.5813;
-64.2000;0.2548;0.5934;
-63.9000;0.2540;0.5862;
-63.6000;0.2621;0.6152;
-63.3000;0.2523;0.5910;
-63.0000;0.2532;0.5934;
-62.7000;0.2532;0.5886;
-62.4000;0.2532;0.5934;
-62.1000;0.2532;0.5959;
-61.8000;0.2605;0.6201;
-61.5000;0.2499;0.5934;
-61.2000;0.2532;0.5959;
-60.9000;0.2523;0.5959;
-60.6000;0.2548;0.6031;
-60.3000;0.2507;0.5910;
-60.0000;0.2540;0.5910;
-59.7000;0.2499;0.5886;
-59.4000;0.2515;0.5910;
-59.1000;0.2507;0.5910;
-58.8000;0.2515;0.5934;
-58.5000;0.2540;0.5983;
-58.2000;0.2523;0.5934;
-57.9000;0.2515;0.5983;
-57.6000;0.2515;0.6055;
-57.3000;0.2629;0.6273;
-57.0000;0.2589;0.6201;
-56.7000;0.2499;0.6007;
-56.4000;0.2523;0.6177;
-56.1000;0.2507;0.6055;
-55.8000;0.2540;0.6104;
-55.5000;0.2499;0.6104;
-55.2000;0.2499;0.6080;
-54.9000;0.2515;0.6152;
-54.6000;0.2515;0.6177;
-54.3000;0.2442;0.6031;
-54.0000;0.2540;0.6201;
-53.7000;0.2515;0.6201;
-53.4000;0.2515;0.6177;
-53.1000;0.2548;0.6249;
-52.8000;0.2458;0.6031;
-52.5000;0.2523;0.6177;
-52.2000;0.2548;0.6201;
-51.9000;0.2523;0.6152;
-51.6000;0.2491;0.6007;
-51.3000;0.2523;0.6031;
-51.0000;0.2532;0.6031;
-50.7000;0.2515;0.6031;
-50.4000;0.2507;0.6007;
-50.1000;0.2507;0.5983;
-49.8000;0.2507;0.6080;
-49.5000;0.2540;0.6177;
-49.2000;0.2556;0.6128;
-48.9000;0.2532;0.6031;
-48.6000;0.2515;0.5934;
-48.3000;0.2523;0.5983;
-48.0000;0.2532;0.5934;
-47.7000;0.2532;0.5910;
-47.4000;0.2515;0.5910;
-47.1000;0.2434;0.5837;
-46.8000;0.2523;0.6031;
-46.5000;0.2532;0.6007;
-46.2000;0.2499;0.5983;
-45.9000;0.2532;0.6055;
-45.6000;0.2532;0.6031;
-45.3000;0.2540;0.6128;
-45.0000;0.2515;0.6031;
-44.7000;0.2515;0.6055;
-44.4000;0.2556;0.6104;
-44.1000;0.2532;0.6031;
-43.8000;0.2507;0.5886;
-43.5000;0.2532;0.5862;
-43.2000;0.2507;0.5813;
-42.9000;0.2515;0.5910;
-42.6000;0.2507;0.5934;
-42.3000;0.2532;0.5910;
-42.0000;0.2491;0.5837;
-41.7000;0.2523;0.5886;
-41.4000;0.2523;0.5934;
-41.1000;0.2515;0.6007;
-40.8000;0.2532;0.6055;
-40.5000;0.2523;0.6080;
-40.2000;0.2532;0.6031;
-39.9000;0.2450;0.5837;
-39.6000;0.2515;0.5983;
-39.3000;0.2523;0.5910;
-39.0000;0.2523;0.5910;
-38.7000;0.2532;0.6031;
-38.4000;0.2515;0.6031;
-38.1000;0.2532;0.6080;
-37.8000;0.2515;0.6055;
-37.5000;0.2507;0.6031;
-37.2000;0.2532;0.6080;
-36.9000;0.2515;0.6007;
-36.6000;0.2523;0.5983;
-36.3000;0.2507;0.6007;
-36.0000;0.2548;0.6128;
-35.7000;0.2540;0.6177;
-35.4000;0.2556;0.6249;
-35.1000;0.2515;0.6225;
-34.8000;0.2589;0.6370;
-34.5000;0.2532;0.6225;
-34.2000;0.2507;0.6031;
-33.9000;0.2523;0.5959;
-33.6000;0.2523;0.5959;
-33.3000;0.2515;0.6031;
-33.0000;0.2523;0.5983;
-32.7000;0.2532;0.5934;
-32.4000;0.2532;0.5910;
-32.1000;0.2556;0.5910;
-31.8000;0.2532;0.5813;
-31.5000;0.2523;0.5765;
-31.2000;0.2499;0.5837;
-30.9000;0.2523;0.5934;
-30.6000;0.2532;0.6007;
-30.3000;0.2507;0.5934;
-30.0000;0.2515;0.5910;
-29.7000;0.2523;0.5886;
-29.4000;0.2515;0.5910;
-29.1000;0.2532;0.5862;
-28.8000;0.2515;0.5789;
-28.5000;0.2523;0.5716;
-28.2000;0.2515;0.5692;
-27.9000;0.2523;0.5765;
-27.6000;0.2483;0.5741;
-27.3000;0.2580;0.6104;
-27.0000;0.2523;0.5983;
-26.7000;0.2523;0.5959;
-26.4000;0.2515;0.5983;
-26.1000;0.2515;0.5910;
-25.8000;0.2523;0.5983;
-25.5000;0.2507;0.5837;
-25.2000;0.2507;0.5765;
-24.9000;0.2499;0.5741;
-24.6000;0.2515;0.5716;
-24.3000;0.2523;0.5789;
-24.0000;0.2523;0.5789;
-23.7000;0.2523;0.5837;
-23.4000;0.2548;0.5934;
-23.1000;0.2523;0.5765;
-22.8000;0.2523;0.5716;
-22.5000;0.2523;0.5741;
-22.2000;0.2515;0.5692;
-21.9000;0.2515;0.5668;
-21.6000;0.2515;0.5765;
-21.3000;0.2515;0.5813;
-21.0000;0.2507;0.5741;
-20.7000;0.2491;0.5716;
-20.4000;0.2532;0.5837;
-20.1000;0.2515;0.5813;
-19.8000;0.2556;0.5959;
-19.5000;0.2564;0.5959;
-19.2000;0.2491;0.5813;
-18.9000;0.2532;0.5837;
-18.6000;0.2523;0.5934;
-18.3000;0.2532;0.5959;
-18.0000;0.2499;0.5934;
-17.7000;0.2515;0.5983;
-17.4000;0.2515;0.5934;
-17.1000;0.2532;0.5886;
-16.8000;0.2515;0.5837;
-16.5000;0.2532;0.5862;
-16.2000;0.2523;0.5837;
-15.9000;0.2540;0.5813;
-15.6000;0.2515;0.5716;
-15.3000;0.2589;0.5910;
-15.0000;0.2515;0.5789;
-14.7000;0.2515;0.5692;
-14.4000;0.2548;0.5741;
-14.1000;0.2532;0.5765;
-13.8000;0.2572;0.5886;
-13.5000;0.2523;0.5837;
-13.2000;0.2523;0.5862;
-12.9000;0.2532;0.5934;
-12.6000;0.2548;0.6031;
-12.3000;0.2475;0.5813;
-12.0000;0.2515;0.5886;
-11.7000;0.2523;0.5910;
-11.4000;0.2540;0.5959;
-11.1000;0.2523;0.5910;
-10.8000;0.2523;0.5910;
-10.5000;0.2515;0.5934;
-10.2000;0.2540;0.5862;
-9.9000;0.2523;0.5741;
-9.6000;0.2532;0.5789;
-9.3000;0.2483;0.5619;
-9.0000;0.2532;0.5644;
-8.7000;0.2523;0.5644;
-8.4000;0.2475;0.5474;
-8.1000;0.2523;0.5644;
-7.8000;0.2540;0.5741;
-7.5000;0.2540;0.5813;
-7.2000;0.2540;0.5813;
-6.9000;0.2507;0.5813;
-6.6000;0.2540;0.5837;
-6.3000;0.2515;0.5813;
-6.0000;0.2572;0.5983;
-5.7000;0.2540;0.6031;
-5.4000;0.2507;0.5910;
-5.1000;0.2532;0.5934;
-4.8000;0.2548;0.5959;
-4.5000;0.2515;0.5886;
-4.2000;0.2532;0.5934;
-3.9000;0.2564;0.6104;
-3.6000;0.2523;0.5934;
-3.3000;0.2466;0.5692;
-3.0000;0.2532;0.5886;
-2.7000;0.2532;0.5910;
-2.4000;0.2491;0.5837;
-2.1000;0.2507;0.6031;
-1.8000;0.2507;0.6055;
-1.5000;0.2580;0.6273;
-1.2000;0.2515;0.6152;
-0.9000;0.2515;0.6104;
-0.6000;0.2507;0.6031;
-0.3000;0.2515;0.6031;
0.0000;0.2515;0.6031;
0.3000;0.2499;0.5862;
0.6000;0.2523;0.6031;
0.9000;0.2540;0.6201;
1.2000;0.2515;0.6322;
1.5000;0.2556;0.6588;
1.8000;0.2434;0.6273;
2.1000;0.2548;0.6734;
2.4000;0.2556;0.6879;
2.7000;0.2580;0.6976;
3.0000;0.2556;0.7024;
3.3000;0.2564;0.7170;
3.6000;0.2548;0.7170;
3.9000;0.2572;0.7218;
4.2000;0.2580;0.7363;
4.5000;0.2572;0.7436;
4.8000;0.2572;0.7460;
5.1000;0.2548;0.7436;
5.4000;0.2564;0.7557;
5.7000;0.2564;0.7678;
6.0000;0.2548;0.7581;
6.3000;0.2564;0.7630;
6.6000;0.2597;0.7678;
6.9000;0.2564;0.7630;
7.2000;0.2556;0.7509;
7.5000;0.2572;0.7581;
7.8000;0.2597;0.7606;
8.1000;0.2580;0.7509;
8.4000;0.2564;0.7606;
8.7000;0.2548;0.7606;
9.0000;0.2589;0.7630;
9.3000;0.2589;0.7630;
9.6000;0.2556;0.7606;
9.9000;0.2556;0.7581;
10.2000;0.2572;0.7557;
10.5000;0.2572;0.7630;
10.8000;0.2564;0.7581;
11.1000;0.2572;0.7703;
11.4000;0.2580;0.7630;
11.7000;0.2572;0.7533;
12.0000;0.2548;0.7485;
12.3000;0.2556;0.7533;
12.6000;0.2572;0.7509;
12.9000;0.2572;0.7509;
13.2000;0.2556;0.7485;
13.5000;0.2605;0.7727;
13.8000;0.2540;0.7412;
14.1000;0.2572;0.7460;
14.4000;0.2580;0.7485;
14.7000;0.2466;0.7194;
15.0000;0.2580;0.7436;
15.3000;0.2564;0.7533;
15.6000;0.2548;0.7557;
15.9000;0.2572;0.7630;
16.2000;0.2556;0.7557;
16.5000;0.2548;0.7533;
16.8000;0.2540;0.7533;
17.1000;0.2556;0.7606;
17.4000;0.2556;0.7606;
17.7000;0.2564;0.7557;
18.0000;0.2580;0.7509;
18.3000;0.2580;0.7533;
18.6000;0.2572;0.7557;
18.9000;0.2580;0.7557;
19.2000;0.2564;0.7654;
19.5000;0.2564;0.7606;
19.8000;0.2597;0.7727;
20.1000;0.2548;0.7533;
20.4000;0.2589;0.7654;
20.7000;0.2572;0.7703;
21.0000;0.2556;0.7654;
21.3000;0.2564;0.7606;
21.6000;0.2548;0.7460;
21.9000;0.2572;0.7460;
22.2000;0.2572;0.7460;
22.5000;0.2548;0.7485;
22.8000;0.2507;0.7315;
23.1000;0.2523;0.7460;
23.4000;0.2556;0.7581;
23.7000;0.2548;0.7581;
24.0000;0.2556;0.7606;
24.3000;0.2572;0.7678;
24.6000;0.2564;0.7654;
24.9000;0.2621;0.7848;
25.2000;0.2556;0.7654;
25.5000;0.2548;0.7727;
25.8000;0.2572;0.7824;
26.1000;0.2540;0.7799;
26.4000;0.2548;0.7727;
26.7000;0.2572;0.7727;
27.0000;0.2572;0.7678;
27.3000;0.2572;0.7654;
27.6000;0.2572;0.7678;
27.9000;0.2564;0.7678;
28.2000;0.2515;0.7533;
28.5000;0.2580;0.7751;
28.8000;0.2564;0.7630;
29.1000;0.2572;0.7533;
29.4000;0.2548;0.7533;
29.7000;0.2564;0.7606;
30.0000;0.2572;0.7606;
30.3000;0.2597;0.7654;
30.6000;0.2564;0.7606;
30.9000;0.2564;0.7557;
31.2000;0.2523;0.7460;
31.5000;0.2540;0.7460;
31.8000;0.2572;0.7606;
32.1000;0.2572;0.7581;
32.4000;0.2572;0.7630;
32.7000;0.2589;0.7630;
33.0000;0.2556;0.7460;
33.3000;0.2589;0.7485;
33.6000;0.2556;0.7412;
33.9000;0.2548;0.7388;
34.2000;0.2580;0.7581;
34.5000;0.2442;0.7218;
34.8000;0.2572;0.7581;
35.1000;0.2556;0.7606;
35.4000;0.2548;0.7581;
35.7000;0.2613;0.7703;
36.0000;0.2564;0.7654;
36.3000;0.2556;0.7678;
36.6000;0.2556;0.7654;
36.9000;0.2548;0.7606;
37.2000;0.2548;0.7509;
37.5000;0.2572;0.7533;
37.8000;0.2540;0.7436;
38.1000;0.2556;0.7509;
38.4000;0.2564;0.7485;
38.7000;0.2564;0.7509;
39.0000;0.2613;0.7606;
39.3000;0.2564;0.7485;
39.6000;0.2564;0.7412;
39.9000;0.2572;0.7485;
40.2000;0.2572;0.7581;
40.5000;0.2548;0.7581;
40.8000;0.2572;0.7678;
41.1000;0.2678;0.7993;
41.4000;0.2564;0.7606;
41.7000;0.2564;0.7581;
42.0000;0.2564;0.7606;
42.3000;0.2564;0.7703;
42.6000;0.2572;0.7751;
42.9000;0.2532;0.7751;
43.2000;0.2613;0.7848;
43.5000;0.2556;0.7727;
43.8000;0.2540;0.7509;
44.1000;0.2532;0.7460;
44.4000;0.2540;0.7485;
44.7000;0.2556;0.7485;
45.0000;0.2629;0.7678;
45.3000;0.2540;0.7509;
45.6000;0.2523;0.7533;
45.9000;0.2499;0.7533;
46.2000;0.2532;0.7606;
46.5000;0.2556;0.7630;
46.8000;0.2426;0.7339;
47.1000;0.2548;0.7606;
47.4000;0.2556;0.7581;
47.7000;0.2532;0.7485;
48.0000;0.2515;0.7412;
48.3000;0.2556;0.7509;
48.6000;0.2580;0.7581;
48.9000;0.2564;0.7654;
49.2000;0.2540;0.7678;
49.5000;0.2572;0.7848;
49.8000;0.2589;0.7872;
50.1000;0.2556;0.7727;
50.4000;0.2572;0.7824;
50.7000;0.2548;0.7775;
51.0000;0.2556;0.7654;
51.3000;0.2572;0.7678;
51.6000;0.2572;0.7703;
51.9000;0.2548;0.7630;
52.2000;0.2556;0.7654;
52.5000;0.2523;0.7606;
52.8000;0.2556;0.7557;
53.1000;0.2523;0.7460;
53.4000;0.2564;0.7557;
53.7000;0.2564;0.7581;
54.0000;0.2580;0.7606;
54.3000;0.2548;0.7630;
54.6000;0.2572;0.7630;
54.9000;0.2572;0.7654;
55.2000;0.2564;0.7606;
55.5000;0.2556;0.7533;
55.8000;0.2572;0.7606;
56.1000;0.2556;0.7630;
56.4000;0.2564;0.7654;
56.7000;0.2532;0.7557;
57.0000;0.2556;0.7654;
57.3000;0.2532;0.7606;
57.6000;0.2532;0.7630;
57.9000;0.2556;0.7678;
58.2000;0.2532;0.7557;
58.5000;0.2540;0.7460;
58.8000;0.2564;0.7485;
59.1000;0.2556;0.7460;
59.4000;0.2556;0.7460;
59.7000;0.2597;0.7606;
60.0000;0.2540;0.7485;
60.3000;0.2499;0.7315;
60.6000;0.2556;0.7557;
60.9000;0.2637;0.7654;
61.2000;0.2556;0.7460;
61.5000;0.2564;0.7485;
61.8000;0.2589;0.7630;
62.1000;0.2556;0.7581;
62.4000;0.2556;0.7581;
62.7000;0.2564;0.7557;
63.0000;0.2556;0.7509;
63.3000;0.2589;0.7533;
63.6000;0.2556;0.7436;
63.9000;0.2580;0.7509;
64.2000;0.2572;0.7533;
64.5000;0.2572;0.7557;
64.8000;0.2556;0.7509;
65.1000;0.2540;0.7533;
65.4000;0.2580;0.7727;
65.7000;0.2572;0.7678;
66.0000;0.2564;0.7654;
66.3000;0.2572;0.7654;
66.6000;0.2597;0.7678;
66.9000;0.2564;0.7606;
67.2000;0.2556;0.7509;
67.5000;0.2572;0.7509;
67.8000;0.2564;0.7581;
68.1000;0.2564;0.7581;
68.4000;0.2532;0.7557;
68.7000;0.2572;0.7630;
69.0000;0.2589;0.7678;
69.3000;0.2564;0.7581;
69.6000;0.2556;0.7606;
69.9000;0.2548;0.7606;
70.2000;0.2605;0.7799;
70.5000;0.2556;0.7727;
70.8000;0.2548;0.7799;
71.1000;0.2540;0.7727;
71.4000;0.2515;0.7678;
71.7000;0.2540;0.7654;
72.0000;0.2580;0.7654;
72.3000;0.2548;0.7557;
72.6000;0.2523;0.7460;
72.9000;0.2556;0.7509;
73.2000;0.2540;0.7436;
73.5000;0.2548;0.7509;
73.8000;0.2556;0.7412;
74.1000;0.2564;0.7436;
74.4000;0.2564;0.7412;
74.7000;0.2556;0.7436;
75.0000;0.2564;0.7485;
75.3000;0.2556;0.7557;
75.6000;0.2589;0.7727;
75.9000;0.2572;0.7654;
76.2000;0.2556;0.7606;
76.5000;0.2572;0.7654;
76.8000;0.2572;0.7630;
77.1000;0.2548;0.7606;
77.4000;0.2556;0.7654;
77.7000;0.2556;0.7630;
78.0000;0.2523;0.7533;
78.3000;0.2556;0.7630;
78.6000;0.2556;0.7654;
78.9000;0.2548;0.7678;
79.2000;0.2556;0.7775;
79.5000;0.2564;0.7824;
79.8000;0.2548;0.7727;
80.1000;0.2548;0.7727;
80.4000;0.2548;0.7703;
80.7000;0.2548;0.7678;
81.0000;0.2491;0.7557;
81.3000;0.2564;0.7630;
81.6000;0.2556;0.7533;
81.9000;0.2548;0.7533;
82.2000;0.2556;0.7581;
82.5000;0.2597;0.7678;
82.8000;0.2556;0.7533;
83.1000;0.2434;0.7267;
83.4000;0.2540;0.7485;
83.7000;0.2613;0.7751;
84.0000;0.2548;0.7581;
84.3000;0.2491;0.7533;
84.6000;0.2540;0.7654;
84.9000;0.2572;0.7703;
85.2000;0.2548;0.7654;
85.5000;0.2564;0.7654;
85.8000;0.2507;0.7533;
86.1000;0.2580;0.7654;
86.4000;0.2564;0.7606;
86.7000;0.2580;0.7581;
87.0000;0.2548;0.7606;
87.3000;0.2556;0.7630;
87.6000;0.2564;0.7703;
87.9000;0.2532;0.7606;
88.2000;0.2564;0.7630;
88.5000;0.2564;0.7557;
88.8000;0.2564;0.7533;
89.1000;0.2556;0.7581;
89.4000;0.2572;0.7581;
89.7000;0.2556;0.7533;
90.0000;0.2532;0.7509;
90.3000;0.2572;0.7581;
90.6000;0.2556;0.7606;
90.9000;0.2556;0.7533;
91.2000;0.2564;0.7606;
91.5000;0.2548;0.7557;
91.8000;0.2548;0.7509;
92.1000;0.2515;0.7436;
92.4000;0.2580;0.7703;
92.7000;0.2564;0.7678;
93.0000;0.2548;0.7557;
93.3000;0.2548;0.7533;
93.6000;0.2507;0.7460;
93.9000;0.2556;0.7581;
94.2000;0.2491;0.7460;
94.5000;0.2564;0.7606;
94.8000;0.2548;0.7557;
95.1000;0.2540;0.7509;
95.4000;0.2548;0.7412;
95.7000;0.2572;0.7460;
96.0000;0.2548;0.7533;
96.3000;0.2572;0.7557;
96.6000;0.2556;0.7557;
96.9000;0.2613;0.7751;
97.2000;0.2564;0.7630;
97.5000;0.2540;0.7606;
97.8000;0.2564;0.7678;
98.1000;0.2540;0.7581;
98.4000;0.2556;0.7630;
98.7000;0.2564;0.7533;
99.0000;0.2564;0.7509;
99.3000;0.2580;0.7581;
99.6000;0.2564;0.7533;
99.9000;0.2572;0.7606;
100.2000;0.2564;0.7606;
100.5000;0.2564;0.7630;
100.8000;0.2556;0.7678;
101.1000;0.2572;0.7654;
101.4000;0.2637;0.7799;
101.7000;0.2540;0.7533;
102.0000;0.2564;0.7533;
102.3000;0.2654;0.7775;
102.6000;0.2556;0.7557;
102.9000;0.2548;0.7557;
103.2000;0.2466;0.7388;
103.5000;0.2613;0.7799;
103.8000;0.2564;0.7630;
104.1000;0.2556;0.7654;
104.4000;0.2556;0.7727;
104.7000;0.2540;0.7678;
105.0000;0.2662;0.8114;
105.3000;0.2540;0.7775;
105.6000;0.2556;0.7751;
105.9000;0.2540;0.7485;
106.2000;0.2532;0.7533;
106.5000;0.2540;0.7606;
106.8000;0.2564;0.7751;
107.1000;0.2548;0.7606;
107.4000;0.2548;0.7654;
107.7000;0.2556;0.7703;
108.0000;0.2580;0.7799;
108.3000;0.2572;0.7751;
108.6000;0.2540;0.7703;
108.9000;0.2548;0.7678;
109.2000;0.2548;0.7654;
109.5000;0.2532;0.7533;
109.8000;0.2572;0.7581;
110.1000;0.2572;0.7606;
110.4000;0.2548;0.7630;
110.7000;0.2572;0.7630;
111.0000;0.2564;0.7581;
111.3000;0.2572;0.7557;
111.6000;0.2556;0.7533;
111.9000;0.2564;0.7485;
112.2000;0.2556;0.7363;
112.5000;0.2556;0.7315;
112.8000;0.2523;0.7315;
113.1000;0.2564;0.7557;
113.4000;0.2540;0.7557;
113.7000;0.2597;0.7678;
114.0000;0.2556;0.7606;
114.3000;0.2548;0.7557;
114.6000;0.2532;0.7460;
114.9000;0.2556;0.7606;
115.2000;0.2564;0.7581;
115.5000;0.2475;0.7436;
115.8000;0.2613;0.7896;
116.1000;0.2572;0.7775;
116.4000;0.2556;0.7751;
116.7000;0.2499;0.7557;
117.0000;0.2548;0.7775;
117.3000;0.2564;0.7751;
117.6000;0.2580;0.7799;
117.9000;0.2621;0.7896;
118.2000;0.2532;0.7727;
118.5000;0.2556;0.7678;
118.8000;0.2540;0.7678;
119.1000;0.2556;0.7606;
119.4000;0.2564;0.7678;
119.7000;0.2532;0.7775;
120.0000;0.2540;0.7703;
120.3000;0.2556;0.7727;
120.6000;0.2548;0.7703;
120.9000;0.2540;0.7751;
121.2000;0.2564;0.7775;
121.5000;0.2556;0.7678;
121.8000;0.2548;0.7630;
122.1000;0.2548;0.7606;
122.4000;0.2564;0.7678;
122.7000;0.2548;0.7654;
123.0000;0.2564;0.7678;
123.3000;0.2556;0.7630;
123.6000;0.2540;0.7509;
123.9000;0.2564;0.7557;
124.2000;0.2491;0.7485;
124.5000;0.2556;0.7630;
124.8000;0.2548;0.7606;
125.1000;0.2515;0.7533;
125.4000;0.2637;0.7872;
125.7000;0.2532;0.7581;
126.0000;0.2556;0.7606;
126.3000;0.2613;0.7751;
126.6000;0.2613;0.7703;
126.9000;0.2564;0.7581;
127.2000;0.2621;0.7678;
127.5000;0.2540;0.7485;
127.8000;0.2548;0.7654;
128.1000;0.2564;0.7581;
128.4000;0.2621;0.7727;
128.7000;0.2540;0.7581;
129.0000;0.2532;0.7581;
129.3000;0.2540;0.7581;
129.6000;0.2540;0.7557;
129.9000;0.2532;0.7533;
130.2000;0.2564;0.7606;
130.5000;0.2532;0.7557;
130.8000;0.2548;0.7581;
131.1000;0.2532;0.7509;
131.4000;0.2548;0.7581;
131.7000;0.2515;0.7533;
132.0000;0.2572;0.7751;
132.3000;0.2556;0.7727;
132.6000;0.2548;0.7703;
132.9000;0.2442;0.7339;
133.2000;0.2491;0.7388;
133.5000;0.2532;0.7557;
133.8000;0.2548;0.7606;
134.1000;0.2540;0.7678;
134.4000;0.2556;0.7751;
134.7000;0.2556;0.7751;
135.0000;0.2523;0.7630;
135.3000;0.2556;0.7703;
135.6000;0.2540;0.7727;
135.9000;0.2548;0.7727;
136.2000;0.2532;0.7630;
136.5000;0.2540;0.7606;
136.8000;0.2523;0.7703;
137.1000;0.2564;0.7872;
137.4000;0.2532;0.7896;
137.7000;0.2646;0.8163;
138.0000;0.2556;0.7872;
138.3000;0.2556;0.7824;
138.6000;0.2556;0.7751;
138.9000;0.2483;0.7485;
139.2000;0.2556;0.7703;
139.5000;0.2507;0.7606;
139.8000;0.2491;0.7533;
140.1000;0.2523;0.7678;
140.4000;0.2540;0.7703;
140.7000;0.2564;0.7824;
141.0000;0.2556;0.7799;
141.3000;0.2556;0.7703;
141.6000;0.2548;0.7606;
141.9000;0.2507;0.7533;
142.2000;0.2556;0.7703;
142.5000;0.2548;0.7751;
142.8000;0.2523;0.7799;
143.1000;0.2556;0.7824;
143.4000;0.2548;0.7775;
143.7000;0.2564;0.7824;
144.0000;0.2548;0.7775;
144.3000;0.2548;0.7727;
144.6000;0.2556;0.7775;
144.9000;0.2540;0.7678;
145.2000;0.2532;0.7606;
145.5000;0.2523;0.7630;
145.8000;0.2548;0.7654;
146.1000;0.2548;0.7654;
146.4000;0.2564;0.7727;
146.7000;0.2556;0.7727;
147.0000;0.2540;0.7703;
147.3000;0.2564;0.7751;
147.6000;0.2564;0.7775;
147.9000;0.2540;0.7703;
148.2000;0.2523;0.7630;
148.5000;0.2556;0.7654;
148.8000;0.2548;0.7654;
149.1000;0.2556;0.7751;
149.4000;0.2483;0.7533;
149.7000;0.2540;0.7678;
150.0000;0.2523;0.7606;
150.3000;0.2556;0.7654;
150.6000;0.2548;0.7751;
150.9000;0.2548;0.7799;
151.2000;0.2548;0.7872;
151.5000;0.2572;0.7872;
151.8000;0.2540;0.7678;
152.1000;0.2475;0.7533;
152.4000;0.2507;0.7533;
152.7000;0.2564;0.7751;
153.0000;0.2564;0.7799;
153.3000;0.2572;0.7848;
153.6000;0.2613;0.7872;
153.9000;0.2540;0.7775;
154.2000;0.2556;0.7848;
154.5000;0.2540;0.7751;
154.8000;0.2523;0.7509;
155.1000;0.2597;0.7727;
155.4000;0.2572;0.7654;
155.7000;0.2670;0.7872;
156.0000;0.2556;0.7557;
156.3000;0.2548;0.7581;
156.6000;0.2540;0.7533;
156.9000;0.2548;0.7509;
157.2000;0.2572;0.7436;
157.5000;0.2548;0.7533;
157.8000;0.2564;0.7581;
158.1000;0.2564;0.7557;
158.4000;0.2540;0.7581;
158.7000;0.2564;0.7727;
159.0000;0.2548;0.7654;
159.3000;0.2572;0.7727;
159.6000;0.2556;0.7703;
159.9000;0.2572;0.7727;
160.2000;0.2564;0.7799;
160.5000;0.2540;0.7727;
160.8000;0.2540;0.7630;
161.1000;0.2548;0.7727;
161.4000;0.2548;0.7678;
161.7000;0.2532;0.7606;
162.0000;0.2540;0.7654;
162.3000;0.2556;0.7727;
162.6000;0.2515;0.7509;
162.9000;0.2548;0.7630;
163.2000;0.2556;0.7557;
163.5000;0.2613;0.7824;
163.8000;0.2556;0.7727;
164.1000;0.2540;0.7727;
164.4000;0.2556;0.7678;
164.7000;0.2532;0.7581;
165.0000;0.2556;0.7630;
165.3000;0.2540;0.7509;
165.6000;0.2548;0.7533;
165.9000;0.2548;0.7581;
166.2000;0.2540;0.7509;
166.5000;0.2548;0.7581;
166.8000;0.2556;0.7654;
167.1000;0.2540;0.7654;
167.4000;0.2532;0.7703;
167.7000;0.2548;0.7606;
168.0000;0.2564;0.7727;
168.3000;0.2556;0.7654;
168.6000;0.2548;0.7606;
168.9000;0.2572;0.7533;
169.2000;0.2548;0.7533;
169.5000;0.2548;0.7533;
169.8000;0.2564;0.7557;
170.1000;0.2556;0.7509;
170.4000;0.2572;0.7606;
170.7000;0.2548;0.7557;
171.0000;0.2532;0.7557;
171.3000;0.2556;0.7703;
171.6000;0.2540;0.7678;
171.9000;0.2564;0.7654;
172.2000;0.2532;0.7606;
172.5000;0.2523;0.7533;
172.8000;0.2580;0.7678;
173.1000;0.2597;0.7678;
173.4000;0.2540;0.7581;
173.7000;0.2556;0.7606;
174.0000;0.2540;0.7630;
174.3000;0.2572;0.7751;
174.6000;0.2466;0.7485;
174.9000;0.2532;0.7727;
175.2000;0.2523;0.7703;
175.5000;0.2418;0.7339;
175.8000;0.2532;0.7630;
176.1000;0.2532;0.7606;
176.4000;0.2532;0.7606;
176.7000;0.2540;0.7727;
177.0000;0.2532;0.7799;
177.3000;0.2670;0.8235;
177.6000;0.2564;0.7945;
177.9000;0.2540;0.7921;
178.2000;0.2564;0.7969;
178.5000;0.2523;0.7872;
178.8000;0.2556;0.7848;
179.1000;0.2515;0.7751;
179.4000;0.2548;0.7799;
179.7000;0.2564;0.7848;
180.0000;0.2556;0.7945;
180.3000;0.2556;0.7969;
180.6000;0.2548;0.7945;
180.9000;0.2556;0.7993;
181.2000;0.2540;0.7969;
181.5000;0.2548;0.7993;
181.8000;0.2548;0.7872;
182.1000;0.2532;0.7824;
182.4000;0.2540;0.7896;
182.7000;0.2556;0.7945;
183.0000;0.2540;0.7872;
183.3000;0.2548;0.7799;
183.6000;0.2548;0.7896;
183.9000;0.2564;0.7848;
184.2000;0.2548;0.7872;
184.5000;0.2540;0.7945;
184.8000;0.2532;0.7872;
185.1000;0.2540;0.7896;
185.4000;0.2548;0.7848;
185.7000;0.2548;0.7872;
186.0000;0.2523;0.7824;
186.3000;0.2540;0.7896;
186.6000;0.2548;0.7896;
186.9000;0.2556;0.7848;
187.2000;0.2540;0.7824;
187.5000;0.2532;0.7848;
187.8000;0.2532;0.7921;
188.1000;0.2540;0.7921;
188.4000;0.2540;0.7921;
188.7000;0.2540;0.7969;
189.0000;0.2540;0.7896;
189.3000;0.2548;0.7921;
189.6000;0.2499;0.7775;
189.9000;0.2532;0.7872;
190.2000;0.2548;0.7824;
190.5000;0.2540;0.7848;
190.8000;0.2548;0.7872;
191.1000;0.2548;0.7848;
191.4000;0.2540;0.7969;
191.7000;0.2548;0.7945;
192.0000;0.2580;0.8090;
192.3000;0.2548;0.8090;
192.6000;0.2515;0.7993;
192.9000;0.2548;0.7945;
193.2000;0.2572;0.7969;
193.5000;0.2564;0.7896;
193.8000;0.2548;0.7872;
194.1000;0.2556;0.7896;
194.4000;0.2556;0.7969;
194.7000;0.2556;0.7921;
195.0000;0.2548;0.7993;
195.3000;0.2548;0.7993;
195.6000;0.2532;0.7969;
195.9000;0.2540;0.8017;
196.2000;0.2540;0.8042;
196.5000;0.2540;0.8017;
196.8000;0.2532;0.7945;
197.1000;0.2548;0.7969;
197.4000;0.2548;0.7896;
197.7000;0.2499;0.7606;
198.0000;0.2629;0.7945;
198.3000;0.2523;0.7606;
198.6000;0.2556;0.7654;
198.9000;0.2548;0.7630;
199.2000;0.2507;0.7654;
199.5000;0.2532;0.7654;
199.8000;0.2556;0.7751;
200.1000;0.2548;0.7678;
200.4000;0.2548;0.7678;
200.7000;0.2556;0.7678;
201.0000;0.2629;0.7848;
201.3000;0.2548;0.7630;
201.6000;0.2564;0.7654;
201.9000;0.2548;0.7654;
202.2000;0.2556;0.7557;
202.5000;0.2589;0.7606;
202.8000;0.2523;0.7460;
203.1000;0.2637;0.7678;
203.4000;0.2548;0.7363;
203.7000;0.2564;0.7412;
204.0000;0.2548;0.7436;
204.3000;0.2556;0.7533;
204.6000;0.2540;0.7509;
204.9000;0.2548;0.7581;
205.2000;0.2556;0.7606;
205.5000;0.2532;0.7485;
205.8000;0.2556;0.7557;
206.1000;0.2515;0.7388;
206.4000;0.2556;0.7460;
206.7000;0.2548;0.7485;
207.0000;0.2532;0.7485;
207.3000;0.2556;0.7581;
207.6000;0.2548;0.7606;
207.9000;0.2540;0.7581;
208.2000;0.2548;0.7630;
208.5000;0.2532;0.7606;
208.8000;0.2507;0.7509;
209.1000;0.2548;0.7581;
209.4000;0.2523;0.7630;
209.7000;0.2523;0.7703;
210.0000;0.2483;0.7581;
210.3000;0.2540;0.7727;
210.6000;0.2466;0.7581;
210.9000;0.2580;0.7799;
211.2000;0.2532;0.7678;
211.5000;0.2540;0.7581;
211.8000;0.2532;0.7533;
212.1000;0.2523;0.7509;
212.4000;0.2548;0.7485;
212.7000;0.2548;0.7460;
213.0000;0.2540;0.7460;
213.3000;0.2564;0.7509;
213.6000;0.2548;0.7557;
213.9000;0.2532;0.7581;
214.2000;0.2548;0.7630;
214.5000;0.2548;0.7630;
214.8000;0.2572;0.7678;
215.1000;0.2548;0.7654;
215.4000;0.2556;0.7606;
215.7000;0.2532;0.7630;
216.0000;0.2564;0.7678;
216.3000;0.2548;0.7606;
216.6000;0.2540;0.7727;
216.9000;0.2540;0.7727;
217.2000;0.2499;0.7630;
217.5000;0.2540;0.7727;
217.8000;0.2540;0.7775;
218.1000;0.2556;0.7824;
218.4000;0.2580;0.7921;
218.7000;0.2540;0.7872;
219.0000;0.2564;0.7896;
219.3000;0.2499;0.7703;
219.6000;0.2548;0.7824;
219.9000;0.2548;0.7872;
220.2000;0.2556;0.7896;
220.5000;0.2548;0.7872;
220.8000;0.2556;0.7824;
221.1000;0.2540;0.7751;
221.4000;0.2580;0.7799;
221.7000;0.2507;0.7630;
222.0000;0.2548;0.7727;
222.3000;0.2523;0.7799;
222.6000;0.2523;0.7751;
222.9000;0.2540;0.7775;
223.2000;0.2540;0.7703;
223.5000;0.2548;0.7751;
223.8000;0.2564;0.7751;
224.1000;0.2564;0.7751;
224.4000;0.2548;0.7727;
224.7000;0.2548;0.7581;
225.0000;0.2540;0.7485;
225.3000;0.2564;0.7533;
225.6000;0.2540;0.7460;
225.9000;0.2548;0.7436;
226.2000;0.2548;0.7460;
226.5000;0.2564;0.7412;
226.8000;0.2564;0.7388;
227.1000;0.2556;0.7363;
227.4000;0.2548;0.7436;
227.7000;0.2564;0.7412;
228.0000;0.2621;0.7533;
228.3000;0.2556;0.7363;
228.6000;0.2548;0.7339;
228.9000;0.2556;0.7267;
229.2000;0.2556;0.7194;
229.5000;0.2540;0.7218;
229.8000;0.2572;0.7412;
230.1000;0.2491;0.7242;
230.4000;0.2532;0.7436;
230.7000;0.2499;0.7412;
231.0000;0.2572;0.7581;
231.3000;0.2556;0.7606;
231.6000;0.2556;0.7606;
231.9000;0.2572;0.7727;
232.2000;0.2540;0.7630;
232.5000;0.2523;0.7557;
232.8000;0.2564;0.7678;
233.1000;0.2540;0.7557;
233.4000;0.2540;0.7581;
233.7000;0.2613;0.7727;
234.0000;0.2483;0.7291;
234.3000;0.2540;0.7460;
234.6000;0.2556;0.7630;
234.9000;0.2556;0.7606;
235.2000;0.2532;0.7654;
235.5000;0.2597;0.7872;
235.8000;0.2540;0.7654;
236.1000;0.2548;0.7630;
236.4000;0.2548;0.7630;
236.7000;0.2556;0.7678;
237.0000;0.2540;0.7581;
237.3000;0.2548;0.7581;
237.6000;0.2532;0.7533;
237.9000;0.2548;0.7557;
238.2000;0.2540;0.7557;
238.5000;0.2548;0.7630;
238.8000;0.2572;0.7703;
239.1000;0.2540;0.7630;
239.4000;0.2564;0.7775;
239.7000;0.2540;0.7703;
240.0000;0.2556;0.7751;
240.3000;0.2556;0.7654;
240.6000;0.2515;0.7557;
240.9000;0.2556;0.7775;
241.2000;0.2515;0.7606;
241.5000;0.2548;0.7678;
241.8000;0.2540;0.7678;
242.1000;0.2556;0.7630;
242.4000;0.2532;0.7606;
242.7000;0.2523;0.7557;
243.0000;0.2540;0.7557;
243.3000;0.2564;0.7606;
243.6000;0.2540;0.7606;
243.9000;0.2548;0.7581;
244.2000;0.2556;0.7581;
244.5000;0.2670;0.8017;
244.8000;0.2556;0.7775;
245.1000;0.2548;0.7751;
245.4000;0.2515;0.7557;
245.7000;0.2540;0.7678;
246.0000;0.2556;0.7678;
246.3000;0.2548;0.7654;
246.6000;0.2540;0.7606;
246.9000;0.2572;0.7678;
247.2000;0.2532;0.7581;
247.5000;0.2556;0.7630;
247.8000;0.2523;0.7678;
248.1000;0.2556;0.7703;
248.4000;0.2548;0.7703;
248.7000;0.2556;0.7509;
249.0000;0.2475;0.7218;
249.3000;0.2572;0.7533;
249.6000;0.2523;0.7533;
249.9000;0.2548;0.7630;
250.2000;0.2450;0.7436;
250.5000;0.2548;0.7703;
250.8000;0.2540;0.7703;
251.1000;0.2540;0.7581;
251.4000;0.2564;0.7509;
251.7000;0.2556;0.7460;
252.0000;0.2654;0.7799;
252.3000;0.2556;0.7557;
252.6000;0.2548;0.7460;
252.9000;0.2548;0.7460;
253.2000;0.2532;0.7412;
253.5000;0.2548;0.7606;
253.8000;0.2572;0.7654;
254.1000;0.2540;0.7654;
254.4000;0.2540;0.7630;
254.7000;0.2532;0.7654;
255.0000;0.2532;0.7654;
255.3000;0.2540;0.7606;
255.6000;0.2532;0.7557;
255.9000;0.2564;0.7703;
256.2000;0.2540;0.7581;
256.5000;0.2613;0.7799;
256.8000;0.2589;0.7727;
257.1000;0.2646;0.7848;
257.4000;0.2548;0.7581;
257.7000;0.2572;0.7703;
258.0000;0.2532;0.7581;
258.3000;0.2532;0.7581;
258.6000;0.2556;0.7606;
258.9000;0.2540;0.7630;
259.2000;0.2532;0.7630;
259.5000;0.2548;0.7630;
259.8000;0.2548;0.7630;
260.1000;0.2548;0.7703;
260.4000;0.2532;0.7703;
260.7000;0.2556;0.7775;
261.0000;0.2564;0.7630;
261.3000;0.2532;0.7557;
261.6000;0.2540;0.7606;
261.9000;0.2540;0.7654;
262.2000;0.2540;0.7557;
262.5000;0.2548;0.7509;
262.8000;0.2548;0.7557;
263.1000;0.2540;0.7630;
263.4000;0.2548;0.7678;
263.7000;0.2564;0.7727;
264.0000;0.2548;0.7703;
264.3000;0.2556;0.7630;
264.6000;0.2532;0.7606;
264.9000;0.2548;0.7630;
265.2000;0.2564;0.7703;
265.5000;0.2556;0.7654;
265.8000;0.2540;0.7606;
266.1000;0.2540;0.7654;
266.4000;0.2556;0.7727;
266.7000;0.2556;0.7775;
267.0000;0.2540;0.7727;
267.3000;0.2548;0.7703;
267.6000;0.2532;0.7678;
267.9000;0.2540;0.7654;
268.2000;0.2548;0.7678;
268.5000;0.2540;0.7654;
268.8000;0.2556;0.7775;
269.1000;0.2540;0.7727;
269.4000;0.2523;0.7630;
269.7000;0.2629;0.7775;
270.0000;0.2540;0.7509;
270.3000;0.2548;0.7460;
270.6000;0.2540;0.7388;
270.9000;0.2556;0.7509;
271.2000;0.2507;0.7363;
271.5000;0.2540;0.7436;
271.8000;0.2483;0.7242;
272.1000;0.2629;0.7606;
272.4000;0.2540;0.7388;
272.7000;0.2491;0.7339;
273.0000;0.2548;0.7412;
273.3000;0.2597;0.7533;
273.6000;0.2532;0.7315;
273.9000;0.2548;0.7339;
274.2000;0.2597;0.7436;
274.5000;0.2532;0.7339;
274.8000;0.2532;0.7363;
275.1000;0.2548;0.7460;
275.4000;0.2564;0.7436;
275.7000;0.2572;0.7485;
276.0000;0.2548;0.7388;
276.3000;0.2548;0.7388;
276.6000;0.2515;0.7315;
276.9000;0.2556;0.7412;
277.2000;0.2540;0.7363;
277.5000;0.2629;0.7630;
277.8000;0.2556;0.7485;
278.1000;0.2564;0.7509;
278.4000;0.2556;0.7509;
278.7000;0.2564;0.7557;
279.0000;0.2572;0.7557;
279.3000;0.2523;0.7436;
279.6000;0.2548;0.7485;
279.9000;0.2548;0.7412;
280.2000;0.2540;0.7436;
280.5000;0.2491;0.7315;
280.8000;0.2564;0.7436;
281.1000;0.2548;0.7388;
281.4000;0.2556;0.7485;
281.7000;0.2564;0.7509;
282.0000;0.2548;0.7460;
282.3000;0.2548;0.7509;
282.6000;0.2556;0.7606;
282.9000;0.2548;0.7581;
283.2000;0.2466;0.7267;
283.5000;0.2556;0.7436;
283.8000;0.2556;0.7388;
284.1000;0.2515;0.7315;
284.4000;0.2540;0.7363;
284.7000;0.2523;0.7315;
285.0000;0.2548;0.7388;
285.3000;0.2523;0.7363;
285.6000;0.2548;0.7412;
285.9000;0.2532;0.7460;
286.2000;0.2548;0.7509;
286.5000;0.2548;0.7533;
286.8000;0.2548;0.7460;
287.1000;0.2548;0.7460;
287.4000;0.2564;0.7460;
287.7000;0.2564;0.7485;
288.0000;0.2556;0.7509;
288.3000;0.2540;0.7363;
288.6000;0.2564;0.7388;
288.9000;0.2548;0.7363;
289.2000;0.2540;0.7363;
289.5000;0.2466;0.7267;
289.8000;0.2532;0.7533;
290.1000;0.2580;0.7606;
290.4000;0.2540;0.7557;
290.7000;0.2466;0.7339;
291.0000;0.2580;0.7654;
291.3000;0.2532;0.7533;
291.6000;0.2580;0.7727;
291.9000;0.2548;0.7606;
292.2000;0.2540;0.7533;
292.5000;0.2523;0.7509;
292.8000;0.2548;0.7557;
293.1000;0.2556;0.7581;
293.4000;0.2540;0.7581;
293.7000;0.2540;0.7557;
294.0000;0.2548;0.7485;
294.3000;0.2548;0.7485;
294.6000;0.2540;0.7533;
294.9000;0.2532;0.7436;
295.2000;0.2523;0.7485;
295.5000;0.2556;0.7533;
295.8000;0.2540;0.7606;
296.1000;0.2556;0.7703;
296.4000;0.2540;0.7654;
296.7000;0.2556;0.7606;
297.0000;0.2532;0.7533;
297.3000;0.2556;0.7654;
297.6000;0.2515;0.7533;
297.9000;0.2572;0.7703;
298.2000;0.2556;0.7654;
298.5000;0.2523;0.7557;
298.8000;0.2540;0.7581;
299.1000;0.2564;0.7703;
299.4000;0.2556;0.7654;
299.7000;0.2564;0.7630;
300.0000;0.2556;0.7581;
300.3000;0.2540;0.7654;
300.6000;0.2556;0.7751;
300.9000;0.2532;0.7654;
301.2000;0.2532;0.7606;
301.5000;0.2532;0.7654;
301.8000;0.2548;0.7703;
302.1000;0.2572;0.7727;
302.4000;0.2556;0.7557;
302.7000;0.2532;0.7557;
303.0000;0.2564;0.7606;
303.3000;0.2532;0.7581;
303.6000;0.2548;0.7630;
303.9000;0.2532;0.7654;
304.2000;0.2548;0.7654;
304.5000;0.2548;0.7654;
304.8000;0.2523;0.7557;
305.1000;0.2523;0.7485;
305.4000;0.2532;0.7436;
305.7000;0.2540;0.7388;
306.0000;0.2458;0.7194;
306.3000;0.2548;0.7388;
306.6000;0.2548;0.7485;
306.9000;0.2523;0.7436;
307.2000;0.2540;0.7509;
307.5000;0.2556;0.7606;
307.8000;0.2548;0.7678;
308.1000;0.2564;0.7727;
308.4000;0.2556;0.7751;
308.7000;0.2532;0.7678;
309.0000;0.2548;0.7727;
309.3000;0.2548;0.7678;
309.6000;0.2548;0.7678;
309.9000;0.2475;0.7533;
310.2000;0.2483;0.7581;
310.5000;0.2556;0.7703;
310.8000;0.2564;0.7703;
311.1000;0.2548;0.7630;
311.4000;0.2556;0.7703;
311.7000;0.2540;0.7606;
312.0000;0.2540;0.7606;
312.3000;0.2548;0.7727;
312.6000;0.2540;0.7678;
312.9000;0.2548;0.7606;
313.2000;0.2540;0.7678;
313.5000;0.2548;0.7703;
313.8000;0.2548;0.7678;
314.1000;0.2532;0.7678;
314.4000;0.2540;0.7678;
314.7000;0.2499;0.7581;
315.0000;0.2532;0.7775;
315.3000;0.2532;0.7775;
315.6000;0.2540;0.7751;
315.9000;0.2523;0.7727;
316.2000;0.2572;0.7848;
316.5000;0.2556;0.7872;
316.8000;0.2540;0.7799;
317.1000;0.2605;0.7872;
317.4000;0.2540;0.7751;
317.7000;0.2515;0.7654;
318.0000;0.2556;0.7799;
318.3000;0.2540;0.7799;
318.6000;0.2548;0.7872;
318.9000;0.2556;0.7824;
319.2000;0.2548;0.7727;
319.5000;0.2532;0.7557;
319.8000;0.2548;0.7654;
320.1000;0.2540;0.7654;
320.4000;0.2556;0.7630;
320.7000;0.2597;0.7727;
321.0000;0.2532;0.7630;
321.3000;0.2540;0.7703;
321.6000;0.2540;0.7703;
321.9000;0.2532;0.7727;
322.2000;0.2564;0.7872;
322.5000;0.2564;0.7872;
322.8000;0.2572;0.7848;
323.1000;0.2540;0.7727;
323.4000;0.2548;0.7751;
323.7000;0.2564;0.7799;
324.0000;0.2540;0.7727;
324.3000;0.2548;0.7727;
324.6000;0.2540;0.7678;
324.9000;0.2548;0.7751;
325.2000;0.2540;0.7775;
325.5000;0.2515;0.7678;
325.8000;0.2515;0.7703;
326.1000;0.2548;0.7727;
326.4000;0.2540;0.7630;
326.7000;0.2540;0.7630;
327.0000;0.2532;0.7654;
327.3000;0.2523;0.7678;
327.6000;0.2637;0.7921;
327.9000;0.2532;0.7606;
328.2000;0.2523;0.7557;
328.5000;0.2532;0.7581;
328.8000;0.2540;0.7606;
329.1000;0.2532;0.7654;
329.4000;0.2540;0.7703;
329.7000;0.2564;0.7703;
330.0000;0.2532;0.7606;
330.3000;0.2613;0.7727;
330.6000;0.2532;0.7606;
330.9000;0.2556;0.7775;
331.2000;0.2532;0.7703;
331.5000;0.2540;0.7751;
331.8000;0.2540;0.7678;
332.1000;0.2589;0.7727;
332.4000;0.2532;0.7606;
332.7000;0.2556;0.7654;
333.0000;0.2580;0.7630;
333.3000;0.2548;0.7557;
333.6000;0.2564;0.7581;
333.9000;0.2646;0.7678;
334.2000;0.2629;0.7630;
334.5000;0.2548;0.7460;
334.8000;0.2556;0.7533;
335.1000;0.2572;0.7557;
335.4000;0.2548;0.7460;
335.7000;0.2548;0.7436;
336.0000;0.2548;0.7509;
336.3000;0.2523;0.7485;
336.6000;0.2540;0.7557;
336.9000;0.2556;0.7485;
337.2000;0.2523;0.7485;
337.5000;0.2499;0.7363;
337.8000;0.2548;0.7436;
338.1000;0.2548;0.7436;
338.4000;0.2532;0.7339;
338.7000;0.2540;0.7339;
339.0000;0.2540;0.7388;
339.3000;0.2548;0.7509;
339.6000;0.2564;0.7509;
339.9000;0.2548;0.7581;
340.2000;0.2540;0.7485;
340.5000;0.2532;0.7460;
340.8000;0.2540;0.7581;
341.1000;0.2458;0.7388;
341.4000;0.2540;0.7581;
341.7000;0.2564;0.7727;
342.0000;0.2556;0.7751;
342.3000;0.2540;0.7678;
342.6000;0.2540;0.7630;
342.9000;0.2532;0.7581;
343.2000;0.2580;0.7654;
343.5000;0.2515;0.7606;
343.8000;0.2637;0.7848;
344.1000;0.2556;0.7678;
344.4000;0.2548;0.7654;
344.7000;0.2548;0.7630;
345.0000;0.2523;0.7654;
345.3000;0.2532;0.7606;
345.6000;0.2548;0.7581;
345.9000;0.2540;0.7485;
346.2000;0.2540;0.7412;
346.5000;0.2556;0.7363;
346.8000;0.2532;0.7242;
347.1000;0.2572;0.7315;
347.4000;0.2475;0.7049;
347.7000;0.2540;0.7242;
348.0000;0.2523;0.7170;
348.3000;0.2532;0.7267;
348.6000;0.2540;0.7363;
348.9000;0.2548;0.7388;
349.2000;0.2548;0.7412;
349.5000;0.2548;0.7412;
349.8000;0.2540;0.7291;
350.1000;0.2548;0.7267;
350.4000;0.2654;0.7509;
350.7000;0.2523;0.7073;
351.0000;0.2532;0.7073;
351.3000;0.2532;0.7049;
351.6000;0.2556;0.7170;
351.9000;0.2540;0.7170;
352.2000;0.2515;0.7121;
352.5000;0.2548;0.7218;
352.8000;0.2548;0.7170;
353.1000;0.2540;0.7170;
353.4000;0.2564;0.7218;
353.7000;0.2556;0.7267;
354.0000;0.2548;0.7339;
354.3000;0.2580;0.7412;
354.6000;0.2556;0.7339;
354.9000;0.2548;0.7315;
355.2000;0.2532;0.7315;
355.5000;0.2564;0.7339;
355.8000;0.2548;0.7315;
356.1000;0.2548;0.7267;
356.4000;0.2564;0.7339;
356.7000;0.2548;0.7315;
357.0000;0.2548;0.7315;
357.3000;0.2515;0.7339;
357.6000;0.2548;0.7412;
357.9000;0.2548;0.7509;
358.2000;0.2507;0.7460;
358.5000;0.2540;0.7581;
358.8000;0.2540;0.7630;
359.1000;0.2540;0.7703;
359.4000;0.2548;0.7775;
359.7000;0.2540;0.7727;
360.0000;0.2556;0.7678;
360.3000;0.2548;0.7654;
360.6000;0.2523;0.7606;
360.9000;0.2548;0.7654;
361.2000;0.2548;0.7654;
361.5000;0.2507;0.7581;
361.8000;0.2564;0.7775;
362.1000;0.2515;0.7703;
362.4000;0.2540;0.7703;
362.7000;0.2548;0.7727;
363.0000;0.2532;0.7775;
363.3000;0.2507;0.7654;
363.6000;0.2589;0.7848;
363.9000;0.2580;0.7751;
364.2000;0.2483;0.7557;
364.5000;0.2548;0.7751;
364.8000;0.2621;0.7775;
365.1000;0.2613;0.7727;
365.4000;0.2556;0.7557;
365.7000;0.2548;0.7557;
366.0000;0.2589;0.7678;
366.3000;0.2548;0.7606;
366.6000;0.2540;0.7630;
366.9000;0.2548;0.7654;
367.2000;0.2483;0.7533;
367.5000;0.2540;0.7581;
367.8000;0.2540;0.7557;
368.1000;0.2532;0.7436;
368.4000;0.2540;0.7412;
368.7000;0.2572;0.7509;
369.0000;0.2540;0.7485;
369.3000;0.2548;0.7581;
369.6000;0.2507;0.7509;
369.9000;0.2556;0.7557;
370.2000;0.2556;0.7581;
370.5000;0.2532;0.7533;
370.8000;0.2556;0.7485;
371.1000;0.2564;0.7509;
371.4000;0.2556;0.7436;
371.7000;0.2548;0.7339;
372.0000;0.2564;0.7315;
372.3000;0.2548;0.7267;
372.6000;0.2523;0.7218;
372.9000;0.2532;0.7291;
373.2000;0.2548;0.7363;
373.5000;0.2548;0.7436;
373.8000;0.2556;0.7509;
374.1000;0.2548;0.7485;
374.4000;0.2532;0.7533;
374.7000;0.2548;0.7509;
375.0000;0.2556;0.7460;
375.3000;0.2548;0.7509;
375.6000;0.2532;0.7412;
375.9000;0.2548;0.7363;
376.2000;0.2532;0.7339;
376.5000;0.2540;0.7363;
376.8000;0.2540;0.7388;
377.1000;0.2548;0.7363;
377.4000;0.2540;0.7388;
377.7000;0.2532;0.7388;
378.0000;0.2450;0.7145;
378.3000;0.2532;0.7388;
378.6000;0.2540;0.7412;
378.9000;0.2540;0.7412;
379.2000;0.2597;0.7533;
379.5000;0.2532;0.7412;
379.8000;0.2540;0.7436;
380.1000;0.2548;0.7436;
380.4000;0.2499;0.7339;
380.7000;0.2548;0.7485;
381.0000;0.2580;0.7630;
381.3000;0.2646;0.7848;
381.6000;0.2540;0.7533;
381.9000;0.2540;0.7581;
382.2000;0.2475;0.7363;
382.5000;0.2621;0.7727;
382.8000;0.2540;0.7460;
383.1000;0.2556;0.7485;
383.4000;0.2564;0.7533;
383.7000;0.2540;0.7412;
384.0000;0.2532;0.7436;
384.3000;0.2597;0.7654;
384.6000;0.2532;0.7557;
384.9000;0.2507;0.7412;
385.2000;0.2540;0.7412;
385.5000;0.2540;0.7388;
385.8000;0.2532;0.7388;
386.1000;0.2540;0.7315;
386.4000;0.2548;0.7339;
386.7000;0.2491;0.7242;
387.0000;0.2540;0.7412;
387.3000;0.2540;0.7363;
387.6000;0.2540;0.7412;
387.9000;0.2523;0.7363;
388.2000;0.2515;0.7485;
388.5000;0.2515;0.7388;
388.8000;0.2515;0.7363;
389.1000;0.2540;0.7412;
389.4000;0.2629;0.7654;
389.7000;0.2548;0.7436;
390.0000;0.2540;0.7436;
390.3000;0.2556;0.7460;
390.6000;0.2532;0.7436;
390.9000;0.2523;0.7509;
391.2000;0.2540;0.7533;
391.5000;0.2523;0.7533;
391.8000;0.2515;0.7485;
392.1000;0.2564;0.7606;
392.4000;0.2548;0.7630;
392.7000;0.2564;0.7678;
393.0000;0.2564;0.7727;
393.3000;0.2532;0.7557;
393.6000;0.2548;0.7606;
393.9000;0.2540;0.7557;
394.2000;0.2532;0.7557;
394.5000;0.2572;0.7606;
394.8000;0.2523;0.7485;
395.1000;0.2548;0.7509;
395.4000;0.2548;0.7509;
395.7000;0.2556;0.7581;
396.0000;0.2548;0.7630;
396.3000;0.2548;0.7606;
396.6000;0.2515;0.7533;
396.9000;0.2532;0.7581;
397.2000;0.2532;0.7581;
397.5000;0.2548;0.7678;
397.8000;0.2532;0.7630;
398.1000;0.2532;0.7557;
398.4000;0.2532;0.7485;
398.7000;0.2548;0.7460;
399.0000;0.2556;0.7412;
399.3000;0.2540;0.7533;
399.6000;0.2556;0.7654;
399.9000;0.2556;0.7606;
400.2000;0.2491;0.7436;
400.5000;0.2548;0.7678;
400.8000;0.2556;0.7727;
401.1000;0.2548;0.7727;
401.4000;0.2515;0.7557;
401.7000;0.2564;0.7557;
402.0000;0.2572;0.7557;
402.3000;0.2532;0.7485;
402.6000;0.2523;0.7485;
402.9000;0.2548;0.7557;
403.2000;0.2442;0.7436;
403.5000;0.2523;0.7678;
403.8000;0.2548;0.7727;
404.1000;0.2605;0.7872;
404.4000;0.2556;0.7799;
404.7000;0.2662;0.8139;
405.0000;0.2540;0.7703;
405.3000;0.2548;0.7703;
405.6000;0.2532;0.7557;
405.9000;0.2556;0.7678;
406.2000;0.2548;0.7630;
406.5000;0.2515;0.7581;
406.8000;0.2564;0.7678;
407.1000;0.2540;0.7533;
407.4000;0.2556;0.7606;
407.7000;0.2418;0.7291;
408.0000;0.2540;0.7581;
408.3000;0.2540;0.7654;
408.6000;0.2523;0.7557;
408.9000;0.2532;0.7509;
409.2000;0.2523;0.7460;
409.5000;0.2483;0.7363;
409.8000;0.2499;0.7291;
410.1000;0.2540;0.7460;
410.4000;0.2532;0.7509;
410.7000;0.2540;0.7606;
411.0000;0.2532;0.7581;
411.3000;0.2523;0.7606;
411.6000;0.2515;0.7630;
411.9000;0.2523;0.7751;
412.2000;0.2532;0.7751;
412.5000;0.2491;0.7630;
412.8000;0.2572;0.7848;
413.1000;0.2540;0.7751;
413.4000;0.2523;0.7678;
413.7000;0.2515;0.7703;
414.0000;0.2523;0.7606;
414.3000;0.2540;0.7557;
414.6000;0.2548;0.7581;
414.9000;0.2540;0.7557;
415.2000;0.2556;0.7606;
415.5000;0.2532;0.7606;
415.8000;0.2556;0.7630;
416.1000;0.2556;0.7581;
416.4000;0.2515;0.7460;
416.7000;0.2548;0.7533;
417.0000;0.2532;0.7509;
417.3000;0.2532;0.7485;
417.6000;0.2548;0.7630;
417.9000;0.2548;0.7581;
418.2000;0.2548;0.7606;
418.5000;0.2483;0.7436;
418.8000;0.2540;0.7678;
419.1000;0.2548;0.7630;
419.4000;0.2532;0.7678;
419.7000;0.2548;0.7727;
420.0000;0.2523;0.7751;
420.3000;0.2540;0.7848;
420.6000;0.2532;0.7751;
420.9000;0.2523;0.7703;
421.2000;0.2556;0.7751;
421.5000;0.2491;0.7606;
421.8000;0.2540;0.7678;
422.1000;0.2540;0.7703;
422.4000;0.2532;0.7509;
422.7000;0.2523;0.7533;
423.0000;0.2548;0.7581;
423.3000;0.2548;0.7654;
423.6000;0.2532;0.7727;
423.9000;0.2540;0.7775;
424.2000;0.2523;0.7727;
424.5000;0.2532;0.7799;
424.8000;0.2548;0.7775;
425.1000;0.2515;0.7703;
425.4000;0.2523;0.7654;
425.7000;0.2483;0.7412;
426.0000;0.2613;0.7703;
426.3000;0.2556;0.7630;
426.6000;0.2548;0.7727;
426.9000;0.2540;0.7654;
427.2000;0.2580;0.7799;
427.5000;0.2540;0.7727;
427.8000;0.2540;0.7606;
428.1000;0.2532;0.7654;
428.4000;0.2548;0.7775;
428.7000;0.2556;0.7775;
429.0000;0.2532;0.7654;
429.3000;0.2540;0.7630;
429.6000;0.2515;0.7654;
429.9000;0.2515;0.7606;
430.2000;0.2556;0.7727;
430.5000;0.2540;0.7557;
430.8000;0.2532;0.7557;
431.1000;0.2540;0.7678;
431.4000;0.2548;0.7751;
431.7000;0.2548;0.7751;
432.0000;0.2540;0.7751;
432.3000;0.2532;0.7799;
432.6000;0.2540;0.7824;
432.9000;0.2540;0.7799;
433.2000;0.2532;0.7848;
433.5000;0.2556;0.7872;
433.8000;0.2556;0.7824;
434.1000;0.2556;0.7799;
434.4000;0.2523;0.7703;
434.7000;0.2532;0.7703;
435.0000;0.2556;0.7751;
435.3000;0.2540;0.7703;
435.6000;0.2540;0.7703;
435.9000;0.2540;0.7630;
436.2000;0.2532;0.7678;
436.5000;0.2548;0.7727;
436.8000;0.2540;0.7799;
437.1000;0.2621;0.7993;
437.4000;0.2540;0.7775;
437.7000;0.2564;0.7751;
438.0000;0.2556;0.7727;
438.3000;0.2540;0.7751;
438.6000;0.2548;0.7703;
438.9000;0.2532;0.7630;
439.2000;0.2540;0.7557;
439.5000;0.2532;0.7606;
439.8000;0.2532;0.7581;
440.1000;0.2540;0.7533;
440.4000;0.2540;0.7509;
440.7000;0.2523;0.7509;
441.0000;0.2523;0.7436;
441.3000;0.2556;0.7509;
441.6000;0.2507;0.7363;
441.9000;0.2540;0.7436;
442.2000;0.2523;0.7485;
442.5000;0.2548;0.7581;
442.8000;0.2532;0.7630;
443.1000;0.2556;0.7654;
443.4000;0.2540;0.7606;
443.7000;0.2548;0.7630;
444.0000;0.2548;0.7606;
444.3000;0.2548;0.7485;
444.6000;0.2540;0.7436;
444.9000;0.2556;0.7460;
445.2000;0.2556;0.7412;
445.5000;0.2548;0.7388;
445.8000;0.2532;0.7436;
446.1000;0.2548;0.7533;
446.4000;0.2523;0.7460;
446.7000;0.2532;0.7460;
447.0000;0.2564;0.7460;
447.3000;0.2523;0.7509;
447.6000;0.2556;0.7630;
447.9000;0.2556;0.7727;
448.2000;0.2564;0.7678;
448.5000;0.2523;0.7606;
448.8000;0.2523;0.7606;
449.1000;0.2540;0.7751;
449.4000;0.2548;0.7751;
449.7000;0.2532;0.7751;
450.0000;0.2515;0.7606;
450.3000;0.2475;0.7533;
450.6000;0.2532;0.7678;
450.9000;0.2597;0.7799;
451.2000;0.2597;0.7775;
451.5000;0.2515;0.7581;
451.8000;0.2523;0.7581;
452.1000;0.2548;0.7678;
452.4000;0.2556;0.7703;
452.7000;0.2532;0.7630;
453.0000;0.2426;0.7339;
453.3000;0.2556;0.7678;
453.6000;0.2556;0.7703;
453.9000;0.2556;0.7678;
454.2000;0.2548;0.7654;
454.5000;0.2540;0.7654;
454.8000;0.2532;0.7630;
455.1000;0.2499;0.7485;
455.4000;0.2532;0.7509;
455.7000;0.2475;0.7436;
456.0000;0.2572;0.7581;
456.3000;0.2466;0.7315;
456.6000;0.2572;0.7581;
456.9000;0.2532;0.7509;
457.2000;0.2548;0.7509;
457.5000;0.2556;0.7485;
457.8000;0.2499;0.7339;
458.1000;0.2540;0.7412;
458.4000;0.2540;0.7436;
458.7000;0.2548;0.7509;
459.0000;0.2507;0.7485;
459.3000;0.2654;0.7751;
459.6000;0.2548;0.7388;
459.9000;0.2556;0.7412;
460.2000;0.2540;0.7363;
460.5000;0.2556;0.7436;
460.8000;0.2523;0.7460;
461.1000;0.2548;0.7509;
461.4000;0.2532;0.7557;
461.7000;0.2483;0.7436;
462.0000;0.2442;0.7218;
462.3000;0.2532;0.7533;
462.6000;0.2540;0.7460;
462.9000;0.2540;0.7581;
463.2000;0.2515;0.7485;
463.5000;0.2548;0.7654;
463.8000;0.2548;0.7606;
464.1000;0.2548;0.7654;
464.4000;0.2475;0.7436;
464.7000;0.2532;0.7581;
465.0000;0.2532;0.7703;
465.3000;0.2523;0.7678;
465.6000;0.2572;0.7727;
465.9000;0.2540;0.7630;
466.2000;0.2523;0.7606;
466.5000;0.2532;0.7581;
466.8000;0.2556;0.7606;
467.1000;0.2540;0.7581;
467.4000;0.2548;0.7630;
467.7000;0.2532;0.7630;
468.0000;0.2523;0.7581;
468.3000;0.2548;0.7727;
468.6000;0.2523;0.7678;
468.9000;0.2507;0.7630;
469.2000;0.2548;0.7703;
469.5000;0.2532;0.7703;
469.8000;0.2548;0.7703;
470.1000;0.2532;0.7581;
470.4000;0.2580;0.7654;
470.7000;0.2548;0.7654;
471.0000;0.2523;0.7703;
471.3000;0.2548;0.7654;
471.6000;0.2540;0.7557;
471.9000;0.2523;0.7581;
472.2000;0.2548;0.7703;
472.5000;0.2540;0.7654;
472.8000;0.2540;0.7654;
473.1000;0.2556;0.7751;
473.4000;0.2589;0.7945;
473.7000;0.2556;0.7799;
474.0000;0.2548;0.7775;
474.3000;0.2499;0.7630;
474.6000;0.2548;0.7727;
474.9000;0.2523;0.7606;
475.2000;0.2523;0.7606;
475.5000;0.2507;0.7509;
475.8000;0.2532;0.7509;
476.1000;0.2556;0.7581;
476.4000;0.2532;0.7606;
476.7000;0.2605;0.7751;
477.0000;0.2515;0.7485;
477.3000;0.2564;0.7654;
477.6000;0.2548;0.7654;
477.9000;0.2548;0.7557;
478.2000;0.2540;0.7460;
478.5000;0.2523;0.7412;
478.8000;0.2540;0.7412;
479.1000;0.2702;0.7945;
479.4000;0.2548;0.7606;
479.7000;0.2499;0.7509;
480.0000;0.2564;0.7630;
480.3000;0.2523;0.7509;
480.6000;0.2540;0.7581;
480.9000;0.2589;0.7678;
481.2000;0.2548;0.7581;
481.5000;0.2523;0.7606;
481.8000;0.2483;0.7436;
482.1000;0.2548;0.7654;
482.4000;0.2540;0.7727;
482.7000;0.2523;0.7751;
483.0000;0.2515;0.7654;
483.3000;0.2597;0.7969;
483.6000;0.2564;0.7848;
483.9000;0.2556;0.7848;
484.2000;0.2515;0.7751;
484.5000;0.2548;0.7872;
484.8000;0.2540;0.7872;
485.1000;0.2532;0.7775;
485.4000;0.2556;0.7799;
485.7000;0.2548;0.7848;
486.0000;0.2540;0.7824;
486.3000;0.2540;0.7799;
486.6000;0.2532;0.7751;
486.9000;0.2556;0.7727;
487.2000;0.2548;0.7703;
487.5000;0.2532;0.7751;
487.8000;0.2589;0.7872;
488.1000;0.2532;0.7654;
488.4000;0.2507;0.7509;
488.7000;0.2507;0.7630;
489.0000;0.2532;0.7799;
489.3000;0.2532;0.7678;
489.6000;0.2532;0.7775;
489.9000;0.2540;0.7824;
490.2000;0.2540;0.7848;
490.5000;0.2532;0.7921;
490.8000;0.2532;0.7896;
491.1000;0.2523;0.7799;
491.4000;0.2540;0.7799;
491.7000;0.2515;0.7678;
492.0000;0.2523;0.7678;
492.3000;0.2523;0.7703;
492.6000;0.2556;0.7872;
492.9000;0.2532;0.7824;
493.2000;0.2532;0.7775;
493.5000;0.2572;0.7848;
493.8000;0.2532;0.7775;
494.1000;0.2515;0.7751;
494.4000;0.2613;0.7945;
494.7000;0.2523;0.7703;
495.0000;0.2540;0.7703;
495.3000;0.2540;0.7703;
495.6000;0.2532;0.7630;
495.9000;0.2548;0.7630;
496.2000;0.2483;0.7460;
496.5000;0.2540;0.7606;
496.8000;0.2523;0.7533;
497.1000;0.2523;0.7557;
497.4000;0.2532;0.7557;
497.7000;0.2556;0.7606;
498.0000;0.2491;0.7485;
498.3000;0.2532;0.7654;
498.6000;0.2523;0.7533;
498.9000;0.2523;0.7557;
499.2000;0.2540;0.7557;
499.5000;0.2564;0.7654;
499.8000;0.2532;0.7485;
500.1000;0.2532;0.7485;
500.4000;0.2532;0.7509;
500.7000;0.2532;0.7557;
501.0000;0.2548;0.7533;
501.3000;0.2532;0.7606;
501.6000;0.2507;0.7703;
501.9000;0.2556;0.7799;
502.2000;0.2523;0.7751;
502.5000;0.2523;0.7703;
502.8000;0.2580;0.7775;
503.1000;0.2515;0.7678;
503.4000;0.2548;0.7727;
503.7000;0.2589;0.7799;
504.0000;0.2540;0.7727;
504.3000;0.2540;0.7654;
504.6000;0.2532;0.7654;
504.9000;0.2515;0.7581;
505.2000;0.2540;0.7557;
505.5000;0.2548;0.7557;
505.8000;0.2507;0.7436;
506.1000;0.2540;0.7606;
506.4000;0.2548;0.7606;
506.7000;0.2491;0.7460;
507.0000;0.2532;0.7606;
507.3000;0.2540;0.7533;
507.6000;0.2532;0.7436;
507.9000;0.2523;0.7460;
508.2000;0.2556;0.7533;
508.5000;0.2556;0.7533;
508.8000;0.2540;0.7509;
509.1000;0.2548;0.7485;
509.4000;0.2548;0.7485;
509.7000;0.2548;0.7606;
510.0000;0.2540;0.7509;
510.3000;0.2548;0.7606;
510.6000;0.2556;0.7654;
510.9000;0.2589;0.7654;
511.2000;0.2548;0.7557;
511.5000;0.2556;0.7485;
511.8000;0.2548;0.7533;
512.1000;0.2523;0.7436;
512.4000;0.2548;0.7533;
512.7000;0.2597;0.7581;
513.0000;0.2548;0.7460;
513.3000;0.2540;0.7606;
513.6000;0.2515;0.7557;
513.9000;0.2523;0.7533;
514.2000;0.2548;0.7581;
514.5000;0.2556;0.7630;
514.8000;0.2523;0.7509;
515.1000;0.2540;0.7485;
515.4000;0.2540;0.7460;
515.7000;0.2548;0.7388;
516.0000;0.2540;0.7412;
516.3000;0.2532;0.7436;
516.6000;0.2540;0.7509;
516.9000;0.2548;0.7509;
517.2000;0.2540;0.7557;
517.5000;0.2532;0.7485;
517.8000;0.2548;0.7460;
518.1000;0.2483;0.7412;
518.4000;0.2499;0.7436;
518.7000;0.2532;0.7533;
519.0000;0.2532;0.7509;
519.3000;0.2621;0.7751;
519.6000;0.2515;0.7533;
519.9000;0.2532;0.7460;
520.2000;0.2532;0.7436;
520.5000;0.2548;0.7533;
520.8000;0.2556;0.7581;
521.1000;0.2580;0.7775;
521.4000;0.2548;0.7751;
521.7000;0.2540;0.7727;
522.0000;0.2556;0.7751;
522.3000;0.2532;0.7581;
522.6000;0.2532;0.7557;
522.9000;0.2523;0.7460;
523.2000;0.2540;0.7509;
523.5000;0.2540;0.7533;
523.8000;0.2556;0.7630;
524.1000;0.2532;0.7630;
524.4000;0.2564;0.7751;
524.7000;0.2532;0.7654;
525.0000;0.2548;0.7630;
525.3000;0.2523;0.7630;
525.6000;0.2564;0.7703;
525.9000;0.2540;0.7654;
526.2000;0.2532;0.7581;
526.5000;0.2523;0.7630;
526.8000;0.2458;0.7460;
527.1000;0.2548;0.7606;
527.4000;0.2556;0.7678;
527.7000;0.2515;0.7630;
528.0000;0.2540;0.7654;
528.3000;0.2532;0.7557;
528.6000;0.2540;0.7533;
528.9000;0.2515;0.7485;
529.2000;0.2532;0.7485;
529.5000;0.2540;0.7509;
529.8000;0.2523;0.7485;
530.1000;0.2540;0.7509;
530.4000;0.2540;0.7485;
530.7000;0.2556;0.7412;
531.0000;0.2540;0.7412;
531.3000;0.2532;0.7412;
531.6000;0.2532;0.7485;
531.9000;0.2540;0.7509;
532.2000;0.2556;0.7509;
532.5000;0.2532;0.7460;
532.8000;0.2540;0.7436;
533.1000;0.2523;0.7460;
533.4000;0.2507;0.7460;
533.7000;0.2483;0.7363;
534.0000;0.2515;0.7460;
534.3000;0.2532;0.7533;
534.6000;0.2580;0.7606;
534.9000;0.2540;0.7557;
535.2000;0.2523;0.7581;
535.5000;0.2515;0.7581;
535.8000;0.2491;0.7509;
536.1000;0.2523;0.7606;
536.4000;0.2540;0.7630;
536.7000;0.2564;0.7581;
537.0000;0.2540;0.7509;
537.3000;0.2540;0.7606;
537.6000;0.2532;0.7654;
537.9000;0.2532;0.7581;
538.2000;0.2532;0.7630;
538.5000;0.2548;0.7630;
538.8000;0.2532;0.7533;
539.1000;0.2532;0.7606;
539.4000;0.2507;0.7630;
539.7000;0.2532;0.7606;
540.0000;0.2540;0.7678;
540.3000;0.2556;0.7678;
540.6000;0.2515;0.7606;
540.9000;0.2532;0.7703;
541.2000;0.2621;0.7969;
541.5000;0.2548;0.7751;
541.8000;0.2523;0.7678;
542.1000;0.2532;0.7775;
542.4000;0.2532;0.7848;
542.7000;0.2523;0.7799;
543.0000;0.2540;0.7824;
543.3000;0.2532;0.7824;
543.6000;0.2548;0.7824;
543.9000;0.2548;0.7775;
544.2000;0.2532;0.7751;
544.5000;0.2532;0.7775;
544.8000;0.2564;0.7775;
545.1000;0.2540;0.7751;
545.4000;0.2540;0.7751;
545.7000;0.2605;0.7848;
546.0000;0.2548;0.7630;
546.3000;0.2556;0.7654;
546.6000;0.2515;0.7557;
546.9000;0.2605;0.7872;
547.2000;0.2548;0.7703;
547.5000;0.2523;0.7654;
547.8000;0.2564;0.7824;
548.1000;0.2540;0.7654;
548.4000;0.2523;0.7557;
548.7000;0.2523;0.7533;
549.0000;0.2523;0.7485;
549.3000;0.2548;0.7581;
549.6000;0.2523;0.7436;
549.9000;0.2540;0.7412;
550.2000;0.2548;0.7436;
550.5000;0.2548;0.7509;
550.8000;0.2540;0.7557;
551.1000;0.2613;0.7703;
551.4000;0.2556;0.7581;
551.7000;0.2556;0.7606;
552.0000;0.2515;0.7581;
552.3000;0.2540;0.7703;
552.6000;0.2540;0.7775;
552.9000;0.2532;0.7727;
553.2000;0.2540;0.7727;
553.5000;0.2523;0.7678;
553.8000;0.2532;0.7678;
554.1000;0.2523;0.7606;
554.4000;0.2523;0.7606;
554.7000;0.2540;0.7654;
555.0000;0.2507;0.7630;
555.3000;0.2532;0.7727;
555.6000;0.2523;0.7775;
555.9000;0.2564;0.7824;
556.2000;0.2540;0.7703;
556.5000;0.2540;0.7751;
556.8000;0.2548;0.7751;
557.1000;0.2532;0.7606;
557.4000;0.2515;0.7606;
557.7000;0.2556;0.7703;
558.0000;0.2556;0.7751;
558.3000;0.2548;0.7654;
558.6000;0.2540;0.7703;
558.9000;0.2556;0.7727;
559.2000;0.2556;0.7703;
559.5000;0.2499;0.7557;
559.8000;0.2532;0.7751;
560.1000;0.2548;0.7751;
560.4000;0.2548;0.7775;
560.7000;0.2532;0.7751;
561.0000;0.2540;0.7678;
561.3000;0.2523;0.7654;
561.6000;0.2475;0.7436;
561.9000;0.2556;0.7630;
562.2000;0.2540;0.7581;
562.5000;0.2515;0.7606;
562.8000;0.2548;0.7606;
563.1000;0.2548;0.7606;
563.4000;0.2564;0.7654;
563.7000;0.2548;0.7533;
564.0000;0.2548;0.7533;
564.3000;0.2483;0.7388;
564.6000;0.2556;0.7654;
564.9000;0.2532;0.7509;
565.2000;0.2540;0.7509;
565.5000;0.2532;0.7581;
565.8000;0.2532;0.7581;
566.1000;0.2515;0.7460;
566.4000;0.2540;0.7485;
566.7000;0.2532;0.7460;
567.0000;0.2556;0.7509;
567.3000;0.2507;0.7460;
567.6000;0.2532;0.7436;
567.9000;0.2523;0.7485;
568.2000;0.2548;0.7509;
568.5000;0.2540;0.7533;
568.8000;0.2540;0.7606;
569.1000;0.2540;0.7630;
569.4000;0.2442;0.7267;
569.7000;0.2523;0.7509;
570.0000;0.2532;0.7533;
570.3000;0.2540;0.7581;
570.6000;0.2507;0.7581;
570.9000;0.2532;0.7606;
571.2000;0.2491;0.7412;
571.5000;0.2540;0.7485;
571.8000;0.2540;0.7509;
572.1000;0.2605;0.7630;
572.4000;0.2540;0.7412;
572.7000;0.2548;0.7412;
573.0000;0.2540;0.7485;
573.3000;0.2523;0.7388;
573.6000;0.2515;0.7412;
573.9000;0.2532;0.7485;
574.2000;0.2532;0.7533;
574.5000;0.2515;0.7557;
574.8000;0.2523;0.7630;
575.1000;0.2515;0.7678;
575.4000;0.2515;0.7581;
575.7000;0.2556;0.7703;
576.0000;0.2540;0.7727;
576.3000;0.2515;0.7654;
576.6000;0.2523;0.7678;
576.9000;0.2572;0.7775;
577.2000;0.2572;0.7848;
577.5000;0.2548;0.7824;
577.8000;0.2507;0.7751;
578.1000;0.2540;0.7775;
578.4000;0.2548;0.7824;
578.7000;0.2507;0.7678;
579.0000;0.2556;0.7727;
579.3000;0.2540;0.7606;
579.6000;0.2556;0.7654;
579.9000;0.2540;0.7630;
580.2000;0.2540;0.7581;
580.5000;0.2548;0.7654;
580.8000;0.2548;0.7654;
581.1000;0.2532;0.7581;
581.4000;0.2540;0.7630;
581.7000;0.2548;0.7581;
582.0000;0.2540;0.7509;
582.3000;0.2532;0.7509;
582.6000;0.2532;0.7533;
582.9000;0.2540;0.7581;
583.2000;0.2540;0.7727;
583.5000;0.2556;0.7654;
583.8000;0.2532;0.7557;
584.1000;0.2532;0.7509;
584.4000;0.2564;0.7654;
584.7000;0.2532;0.7606;
585.0000;0.2540;0.7703;
585.3000;0.2540;0.7751;
585.6000;0.2532;0.7678;
585.9000;0.2532;0.7654;
586.2000;0.2540;0.7654;
586.5000;0.2548;0.7630;
586.8000;0.2548;0.7557;
587.1000;0.2580;0.7727;
587.4000;0.2532;0.7606;
587.7000;0.2532;0.7630;
588.0000;0.2523;0.7581;
588.3000;0.2540;0.7654;
588.6000;0.2589;0.7775;
588.9000;0.2523;0.7630;
589.2000;0.2589;0.7848;
589.5000;0.2532;0.7654;
589.8000;0.2532;0.7630;
590.1000;0.2466;0.7460;
590.4000;0.2540;0.7654;
590.7000;0.2523;0.7606;
591.0000;0.2629;0.7969;
591.3000;0.2540;0.7775;
591.6000;0.2515;0.7751;
591.9000;0.2515;0.7751;
592.2000;0.2523;0.7581;
592.5000;0.2548;0.7775;
592.8000;0.2532;0.7751;
593.1000;0.2564;0.7872;
593.4000;0.2662;0.8042;
593.7000;0.2564;0.7799;
594.0000;0.2523;0.7678;
594.3000;0.2548;0.7727;
594.6000;0.2442;0.7412;
594.9000;0.2540;0.7630;
595.2000;0.2515;0.7630;
595.5000;0.2572;0.7775;
595.8000;0.2605;0.7799;
596.1000;0.2556;0.7654;
596.4000;0.2532;0.7606;
596.7000;0.2523;0.7630;
597.0000;0.2466;0.7436;
597.3000;0.2523;0.7606;
597.6000;0.2483;0.7412;
597.9000;0.2515;0.7557;
598.2000;0.2523;0.7654;
598.5000;0.2540;0.7678;
598.8000;0.2409;0.7339;
599.1000;0.2540;0.7630;
599.4000;0.2540;0.7557;
599.7000;0.2540;0.7557;
600.0000;0.2540;0.7557;
600.3000;0.2515;0.7485;
600.6000;0.2580;0.7606;
600.9000;0.2515;0.7339;
601.2000;0.2523;0.7339;
601.5000;0.2507;0.7145;
601.8000;0.2515;0.7000;
602.1000;0.2532;0.6879;
602.4000;0.2515;0.6661;
602.7000;0.2532;0.6540;
603.0000;0.2507;0.6395;
603.3000;0.2507;0.6370;
603.6000;0.2507;0.6273;
603.9000;0.2515;0.6273;
604.2000;0.2499;0.6201;
604.5000;0.2491;0.6225;
604.8000;0.2466;0.6128;
605.1000;0.2507;0.6201;
605.4000;0.2491;0.6104;
605.7000;0.2483;0.6031;
606.0000;0.2442;0.5959;
606.3000;0.2491;0.6007;
606.6000;0.2483;0.6031;
606.9000;0.2532;0.6128;
607.2000;0.2483;0.5910;
607.5000;0.2491;0.5837;
607.8000;0.2458;0.5741;
608.1000;0.2483;0.5765;
608.4000;0.2507;0.5862;
608.7000;0.2475;0.5862;
609.0000;0.2385;0.5523;
609.3000;0.2475;0.5813;
609.6000;0.2483;0.5741;
609.9000;0.2450;0.5668;
610.2000;0.2532;0.5959;
610.5000;0.2475;0.5741;
610.8000;0.2483;0.5886;
611.1000;0.2491;0.5837;
611.4000;0.2458;0.5668;
611.7000;0.2483;0.5741;
612.0000;0.2466;0.5668;
612.3000;0.2434;0.5571;
612.6000;0.2483;0.5716;
612.9000;0.2475;0.5716;
613.2000;0.2475;0.5716;
613.5000;0.2483;0.5741;
613.8000;0.2507;0.5741;
614.1000;0.2409;0.5571;
614.4000;0.2499;0.5741;
614.7000;0.2442;0.5595;
615.0000;0.2483;0.5619;
615.3000;0.2475;0.5547;
615.6000;0.2466;0.5547;
615.9000;0.2475;0.5668;
616.2000;0.2475;0.5668;
616.5000;0.2540;0.5789;
616.8000;0.2475;0.5595;
617.1000;0.2426;0.5450;
617.4000;0.2458;0.5426;
617.7000;0.2475;0.5474;
618.0000;0.2483;0.5450;
618.3000;0.2466;0.5498;
618.6000;0.2515;0.5595;
618.9000;0.2580;0.5862;
619.2000;0.2466;0.5498;
619.5000;0.2483;0.5498;
619.8000;0.2458;0.5474;
620.1000;0.2466;0.5498;
620.4000;0.2483;0.5547;
620.7000;0.2475;0.5571;
621.0000;0.2466;0.5644;
621.3000;0.2450;0.5595;
621.6000;0.2434;0.5547;
621.9000;0.2475;0.5668;
622.2000;0.2483;0.5692;
622.5000;0.2475;0.5644;
622.8000;0.2564;0.5983;
623.1000;0.2507;0.5837;
623.4000;0.2491;0.5837;
623.7000;0.2475;0.5910;
624.0000;0.2466;0.5886;
624.3000;0.2499;0.5910;
624.6000;0.2491;0.5959;
624.9000;0.2466;0.5959;
625.2000;0.2483;0.5862;
625.5000;0.2491;0.5813;
625.8000;0.2426;0.5619;
626.1000;0.2515;0.5934;
626.4000;0.2491;0.5886;
626.7000;0.2466;0.5886;
627.0000;0.2491;0.5910;
627.3000;0.2475;0.5813;
627.6000;0.2515;0.5910;
627.9000;0.2377;0.5547;
628.2000;0.2483;0.5765;
628.5000;0.2466;0.5716;
628.8000;0.2466;0.5741;
629.1000;0.2475;0.5765;
629.4000;0.2507;0.5837;
629.7000;0.2466;0.5741;
630.0000;0.2483;0.5765;
630.3000;0.2466;0.5765;
630.6000;0.2418;0.5668;
630.9000;0.2450;0.5813;
631.2000;0.2475;0.5837;
631.5000;0.2450;0.5789;
631.8000;0.2393;0.5619;
632.1000;0.2491;0.5959;
632.4000;0.2458;0.5837;
632.7000;0.2458;0.5862;
633.0000;0.2466;0.5910;
633.3000;0.2458;0.5862;
633.6000;0.2466;0.5886;
633.9000;0.2466;0.5837;
634.2000;0.2466;0.5837;
634.5000;0.2483;0.5789;
634.8000;0.2458;0.5692;
635.1000;0.2475;0.5668;
635.4000;0.2466;0.5644;
635.7000;0.2483;0.5716;
636.0000;0.2458;0.5765;
636.3000;0.2418;0.5644;
636.6000;0.2458;0.5765;
636.9000;0.2458;0.5789;
637.2000;0.2466;0.5813;
637.5000;0.2466;0.5741;
637.8000;0.2458;0.5765;
638.1000;0.2532;0.5910;
638.4000;0.2458;0.5765;
638.7000;0.2491;0.5813;
639.0000;0.2458;0.5716;
639.3000;0.2475;0.5765;
639.6000;0.2466;0.5692;
639.9000;0.2426;0.5595;
640.2000;0.2458;0.5741;
640.5000;0.2466;0.5813;
640.8000;0.2466;0.5813;
641.1000;0.2458;0.5837;
641.4000;0.2466;0.5862;
641.7000;0.2458;0.5862;
642.0000;0.2458;0.5741;
642.3000;0.2475;0.5789;
642.6000;0.2499;0.5886;
642.9000;0.2491;0.5837;
643.2000;0.2483;0.5862;
643.5000;0.2466;0.5813;
643.8000;0.2466;0.5789;
644.1000;0.2466;0.5862;
644.4000;0.2475;0.5886;
644.7000;0.2475;0.5862;
645.0000;0.2507;0.5910;
645.3000;0.2483;0.5934;
645.6000;0.2483;0.5934;
645.9000;0.2475;0.5862;
646.2000;0.2499;0.5813;
646.5000;0.2475;0.5789;
646.8000;0.2483;0.5862;
647.1000;0.2475;0.5765;
647.4000;0.2475;0.5716;
647.7000;0.2475;0.5716;
648.0000;0.2491;0.5571;
648.3000;0.2458;0.5498;
648.6000;0.2475;0.5498;
648.9000;0.2475;0.5450;
649.2000;0.2483;0.5401;
649.5000;0.2458;0.5450;
649.8000;0.2466;0.5498;
650.1000;0.2466;0.5450;
650.4000;0.2458;0.5426;
650.7000;0.2475;0.5547;
651.0000;0.2475;0.5619;
651.3000;0.2483;0.5692;
651.6000;0.2580;0.5934;
651.9000;0.2483;0.5692;
652.2000;0.2475;0.5692;
652.5000;0.2475;0.5595;
652.8000;0.2483;0.5619;
653.1000;0.2507;0.5668;
653.4000;0.2475;0.5547;
653.7000;0.2475;0.5498;
654.0000;0.2401;0.5353;
654.3000;0.2466;0.5619;
654.6000;0.2466;0.5668;
654.9000;0.2458;0.5595;
655.2000;0.2475;0.5619;
655.5000;0.2475;0.5644;
655.8000;0.2491;0.5668;
656.1000;0.2466;0.5595;
656.4000;0.2483;0.5619;
656.7000;0.2483;0.5644;
657.0000;0.2507;0.5716;
657.3000;0.2491;0.5741;
657.6000;0.2483;0.5813;
657.9000;0.2515;0.5862;
658.2000;0.2352;0.5474;
658.5000;0.2499;0.5910;
658.8000;0.2491;0.5813;
659.1000;0.2499;0.5910;
659.4000;0.2442;0.5765;
659.7000;0.2475;0.5837;
660.0000;0.2409;0.5619;
660.3000;0.2483;0.5837;
660.6000;0.2450;0.5789;
660.9000;0.2466;0.5862;
661.2000;0.2385;0.5692;
661.5000;0.2491;0.5959;
661.8000;0.2483;0.5789;
662.1000;0.2475;0.5692;
662.4000;0.2475;0.5765;
662.7000;0.2475;0.5789;
663.0000;0.2483;0.5692;
663.3000;0.2475;0.5716;
663.6000;0.2475;0.5837;
663.9000;0.2483;0.5789;
664.2000;0.2475;0.5741;
664.5000;0.2491;0.5789;
664.8000;0.2475;0.5789;
665.1000;0.2369;0.5547;
665.4000;0.2491;0.5789;
665.7000;0.2466;0.5716;
666.0000;0.2483;0.5813;
666.3000;0.2483;0.5886;
666.6000;0.2475;0.5837;
666.9000;0.2491;0.5886;
667.2000;0.2475;0.5910;
667.5000;0.2483;0.5959;
667.8000;0.2466;0.5886;
668.1000;0.2466;0.5837;
668.4000;0.2466;0.5741;
668.7000;0.2475;0.5741;
669.0000;0.2483;0.5692;
669.3000;0.2491;0.5692;
669.6000;0.2475;0.5644;
669.9000;0.2450;0.5692;
670.2000;0.2475;0.5716;
670.5000;0.2466;0.5692;
670.8000;0.2580;0.5983;
671.1000;0.2466;0.5765;
671.4000;0.2499;0.5741;
671.7000;0.2483;0.5668;
672.0000;0.2409;0.5474;
672.3000;0.2515;0.5765;
672.6000;0.2466;0.5644;
672.9000;0.2483;0.5644;
673.2000;0.2483;0.5644;
673.5000;0.2466;0.5595;
673.8000;0.2466;0.5547;
674.1000;0.2377;0.5329;
674.4000;0.2491;0.5498;
674.7000;0.2475;0.5401;
675.0000;0.2458;0.5401;
675.3000;0.2564;0.5571;
675.6000;0.2523;0.5450;
675.9000;0.2475;0.5353;
676.2000;0.2458;0.5353;
676.5000;0.2491;0.5426;
676.8000;0.2491;0.5426;
677.1000;0.2475;0.5353;
677.4000;0.2458;0.5353;
677.7000;0.2466;0.5474;
678.0000;0.2475;0.5547;
678.3000;0.2483;0.5595;
678.6000;0.2458;0.5523;
678.9000;0.2475;0.5547;
679.2000;0.2475;0.5523;
679.5000;0.2475;0.5595;
679.8000;0.2499;0.5644;
680.1000;0.2491;0.5716;
680.4000;0.2458;0.5571;
680.7000;0.2483;0.5547;
681.0000;0.2491;0.5668;
681.3000;0.2499;0.5789;
681.6000;0.2491;0.5741;
681.9000;0.2491;0.5741;
682.2000;0.2605;0.6080;
682.5000;0.2475;0.5692;
682.8000;0.2466;0.5644;
683.1000;0.2491;0.5741;
683.4000;0.2475;0.5644;
683.7000;0.2483;0.5716;
684.0000;0.2466;0.5644;
684.3000;0.2499;0.5644;
684.6000;0.2466;0.5644;
684.9000;0.2442;0.5644;
685.2000;0.2458;0.5668;
685.5000;0.2491;0.5741;
685.8000;0.2491;0.5619;
686.1000;0.2491;0.5547;
686.4000;0.2466;0.5547;
686.7000;0.2613;0.5862;
687.0000;0.2466;0.5498;
687.3000;0.2491;0.5523;
687.6000;0.2507;0.5547;
687.9000;0.2401;0.5280;
688.2000;0.2466;0.5474;
688.5000;0.2483;0.5474;
688.8000;0.2483;0.5474;
689.1000;0.2466;0.5426;
689.4000;0.2491;0.5498;
689.7000;0.2483;0.5426;
690.0000;0.2483;0.5450;
690.3000;0.2458;0.5426;
690.6000;0.2483;0.5450;
690.9000;0.2483;0.5353;
691.2000;0.2483;0.5401;
691.5000;0.2458;0.5426;
691.8000;0.2475;0.5450;
692.1000;0.2491;0.5523;
692.4000;0.2475;0.5426;
692.7000;0.2483;0.5450;
693.0000;0.2442;0.5377;
693.3000;0.2491;0.5426;
693.6000;0.2466;0.5450;
693.9000;0.2458;0.5377;
694.2000;0.2466;0.5450;
694.5000;0.2475;0.5523;
694.8000;0.2442;0.5401;
695.1000;0.2499;0.5474;
695.4000;0.2483;0.5377;
695.7000;0.2483;0.5498;
696.0000;0.2483;0.5474;
696.3000;0.2499;0.5547;
696.6000;0.2507;0.5595;
696.9000;0.2491;0.5571;
697.2000;0.2483;0.5547;
697.5000;0.2483;0.5595;
697.8000;0.2491;0.5619;
698.1000;0.2499;0.5644;
698.4000;0.2466;0.5571;
698.7000;0.2605;0.5910;
699.0000;0.2475;0.5571;
699.3000;0.2532;0.5692;
699.6000;0.2483;0.5619;
699.9000;0.2523;0.5692;
700.2000;0.2369;0.5280;
700.5000;0.2475;0.5619;
700.8000;0.2491;0.5644;
701.1000;0.2483;0.5644;
701.4000;0.2491;0.5789;
701.7000;0.2483;0.5789;
702.0000;0.2491;0.5813;
702.3000;0.2483;0.5765;
702.6000;0.2475;0.5765;
702.9000;0.2466;0.5741;
703.2000;0.2434;0.5619;
703.5000;0.2515;0.5765;
703.8000;0.2475;0.5668;
704.1000;0.2483;0.5644;
704.4000;0.2515;0.5716;
704.7000;0.2466;0.5619;
705.0000;0.2475;0.5668;
705.3000;0.2483;0.5765;
705.6000;0.2483;0.5644;
705.9000;0.2507;0.5644;
706.2000;0.2556;0.5813;
706.5000;0.2491;0.5595;
706.8000;0.2499;0.5619;
707.1000;0.2466;0.5571;
707.4000;0.2523;0.5862;
707.7000;0.2475;0.5692;
708.0000;0.2475;0.5668;
708.3000;0.2483;0.5644;
708.6000;0.2483;0.5619;
708.9000;0.2491;0.5644;
709.2000;0.2483;0.5571;
709.5000;0.2418;0.5353;
709.8000;0.2466;0.5595;
710.1000;0.2483;0.5595;
710.4000;0.2483;0.5692;
710.7000;0.2466;0.5668;
711.0000;0.2466;0.5619;
711.3000;0.2466;0.5668;
711.6000;0.2426;0.5426;
711.9000;0.2483;0.5644;
712.2000;0.2491;0.5619;
712.5000;0.2466;0.5523;
712.8000;0.2466;0.5571;
713.1000;0.2475;0.5668;
713.4000;0.2450;0.5619;
713.7000;0.2483;0.5644;
714.0000;0.2466;0.5571;
714.3000;0.2466;0.5595;
714.6000;0.2523;0.5741;
714.9000;0.2483;0.5668;
715.2000;0.2483;0.5571;
715.5000;0.2483;0.5547;
715.8000;0.2466;0.5498;
716.1000;0.2458;0.5498;
716.4000;0.2475;0.5523;
716.7000;0.2483;0.5523;
717.0000;0.2466;0.5547;
717.3000;0.2466;0.5498;
717.6000;0.2466;0.5619;
717.9000;0.2475;0.5668;
718.2000;0.2483;0.5644;
718.5000;0.2475;0.5595;
718.8000;0.2483;0.5619;
719.1000;0.2499;0.5668;
719.4000;0.2475;0.5523;
719.7000;0.2483;0.5571;
720.0000;0.2475;0.5547;
720.3000;0.2475;0.5547;
720.6000;0.2483;0.5571;
720.9000;0.2475;0.5498;
721.2000;0.2450;0.5498;
721.5000;0.2458;0.5474;
721.8000;0.2466;0.5523;
722.1000;0.2393;0.5450;
722.4000;0.2532;0.5813;
722.7000;0.2483;0.5716;
723.0000;0.2556;0.5934;
723.3000;0.2483;0.5692;
723.6000;0.2491;0.5644;
723.9000;0.2475;0.5547;
724.2000;0.2499;0.5595;
724.5000;0.2483;0.5498;
724.8000;0.2475;0.5547;
725.1000;0.2434;0.5401;
725.4000;0.2475;0.5692;
725.7000;0.2507;0.5789;
726.0000;0.2434;0.5571;
726.3000;0.2466;0.5668;
726.6000;0.2491;0.5716;
726.9000;0.2491;0.5619;
727.2000;0.2507;0.5716;
727.5000;0.2475;0.5571;
727.8000;0.2532;0.5716;
728.1000;0.2426;0.5377;
728.4000;0.2507;0.5741;
728.7000;0.2491;0.5716;
729.0000;0.2466;0.5692;
729.3000;0.2458;0.5595;
729.6000;0.2491;0.5668;
729.9000;0.2466;0.5619;
730.2000;0.2499;0.5692;
730.5000;0.2491;0.5644;
730.8000;0.2377;0.5353;
731.1000;0.2483;0.5619;
731.4000;0.2466;0.5668;
731.7000;0.2507;0.5692;
732.0000;0.2475;0.5619;
732.3000;0.2483;0.5644;
732.6000;0.2483;0.5644;
732.9000;0.2450;0.5619;
733.2000;0.2450;0.5619;
733.5000;0.2483;0.5716;
733.8000;0.2483;0.5692;
734.1000;0.2491;0.5789;
734.4000;0.2483;0.5644;
734.7000;0.2475;0.5619;
735.0000;0.2475;0.5619;
735.3000;0.2491;0.5692;
735.6000;0.2466;0.5741;
735.9000;0.2475;0.5765;
736.2000;0.2475;0.5765;
736.5000;0.2475;0.5789;
736.8000;0.2540;0.5813;
737.1000;0.2475;0.5765;
737.4000;0.2466;0.5716;
737.7000;0.2499;0.5716;
738.0000;0.2507;0.5668;
738.3000;0.2499;0.5619;
738.6000;0.2458;0.5547;
738.9000;0.2475;0.5571;
739.2000;0.2458;0.5595;
739.5000;0.2483;0.5741;
739.8000;0.2475;0.5716;
740.1000;0.2458;0.5668;
740.4000;0.2483;0.5619;
740.7000;0.2483;0.5595;
741.0000;0.2475;0.5644;
741.3000;0.2483;0.5644;
741.6000;0.2483;0.5644;
741.9000;0.2475;0.5668;
742.2000;0.2499;0.5837;
742.5000;0.2466;0.5765;
742.8000;0.2466;0.5789;
743.1000;0.2458;0.5716;
743.4000;0.2458;0.5619;
743.7000;0.2483;0.5692;
744.0000;0.2483;0.5571;
744.3000;0.2491;0.5716;
744.6000;0.2483;0.5716;
744.9000;0.2491;0.5741;
745.2000;0.2483;0.5619;
745.5000;0.2491;0.5668;
745.8000;0.2507;0.5644;
746.1000;0.2637;0.5983;
746.4000;0.2450;0.5498;
746.7000;0.2491;0.5644;
747.0000;0.2475;0.5644;
747.3000;0.2491;0.5619;
747.6000;0.2475;0.5595;
747.9000;0.2499;0.5741;
748.2000;0.2507;0.5789;
748.5000;0.2483;0.5765;
748.8000;0.2515;0.5886;
749.1000;0.2475;0.5886;
749.4000;0.2491;0.5837;
749.7000;0.2483;0.5789;
750.0000;0.2458;0.5668;
750.3000;0.2483;0.5692;
750.6000;0.2491;0.5765;
750.9000;0.2491;0.5886;
751.2000;0.2475;0.5862;
751.5000;0.2491;0.5910;
751.8000;0.2548;0.6152;
752.1000;0.2491;0.5910;
752.4000;0.2491;0.5886;
752.7000;0.2466;0.5692;
753.0000;0.2466;0.5789;
753.3000;0.2507;0.5862;
753.6000;0.2491;0.5837;
753.9000;0.2442;0.5668;
754.2000;0.2483;0.5765;
754.5000;0.2491;0.5765;
754.8000;0.2491;0.5837;
755.1000;0.2475;0.5741;
755.4000;0.2458;0.5668;
755.7000;0.2483;0.5668;
756.0000;0.2491;0.5716;
756.3000;0.2483;0.5644;
756.6000;0.2483;0.5668;
756.9000;0.2483;0.5644;
757.2000;0.2475;0.5619;
757.5000;0.2499;0.5716;
757.8000;0.2466;0.5571;
758.1000;0.2475;0.5619;
758.4000;0.2491;0.5668;
758.7000;0.2483;0.5619;
759.0000;0.2491;0.5644;
759.3000;0.2491;0.5523;
759.6000;0.2507;0.5571;
759.9000;0.2466;0.5523;
760.2000;0.2483;0.5595;
760.5000;0.2475;0.5644;
760.8000;0.2466;0.5692;
761.1000;0.2466;0.5716;
761.4000;0.2491;0.5837;
761.7000;0.2466;0.5837;
762.0000;0.2458;0.5837;
762.3000;0.2483;0.5862;
762.6000;0.2499;0.5837;
762.9000;0.2418;0.5571;
763.2000;0.2475;0.5716;
763.5000;0.2475;0.5668;
763.8000;0.2475;0.5644;
764.1000;0.2491;0.5692;
764.4000;0.2475;0.5595;
764.7000;0.2483;0.5547;
765.0000;0.2483;0.5498;
765.3000;0.2483;0.5498;
765.6000;0.2483;0.5426;
765.9000;0.2450;0.5353;
766.2000;0.2597;0.5765;
766.5000;0.2466;0.5474;
766.8000;0.2475;0.5498;
767.1000;0.2401;0.5329;
767.4000;0.2483;0.5498;
767.7000;0.2483;0.5571;
768.0000;0.2491;0.5595;
768.3000;0.2491;0.5619;
768.6000;0.2483;0.5668;
768.9000;0.2483;0.5668;
769.2000;0.2466;0.5644;
769.5000;0.2475;0.5668;
769.8000;0.2475;0.5692;
770.1000;0.2466;0.5644;
770.4000;0.2442;0.5523;
770.7000;0.2466;0.5595;
771.0000;0.2475;0.5668;
771.3000;0.2466;0.5692;
771.6000;0.2507;0.5813;
771.9000;0.2475;0.5813;
772.2000;0.2475;0.5813;
772.5000;0.2475;0.5813;
772.8000;0.2499;0.5862;
773.1000;0.2515;0.5886;
773.4000;0.2499;0.5813;
773.7000;0.2507;0.5716;
774.0000;0.2475;0.5595;
774.3000;0.2499;0.5644;
774.6000;0.2491;0.5547;
774.9000;0.2475;0.5571;
775.2000;0.2491;0.5595;
775.5000;0.2475;0.5595;
775.8000;0.2458;0.5571;
776.1000;0.2483;0.5474;
776.4000;0.2491;0.5498;
776.7000;0.2523;0.5571;
777.0000;0.2434;0.5377;
777.3000;0.2483;0.5474;
777.6000;0.2475;0.5450;
777.9000;0.2499;0.5523;
778.2000;0.2483;0.5474;
778.5000;0.2475;0.5474;
778.8000;0.2466;0.5450;
779.1000;0.2466;0.5401;
779.4000;0.2499;0.5523;
779.7000;0.2466;0.5498;
780.0000;0.2483;0.5595;
780.3000;0.2491;0.5595;
780.6000;0.2483;0.5595;
780.9000;0.2475;0.5474;
781.2000;0.2483;0.5571;
781.5000;0.2491;0.5595;
781.8000;0.2475;0.5571;
782.1000;0.2458;0.5523;
782.4000;0.2483;0.5668;
782.7000;0.2466;0.5474;
783.0000;0.2466;0.5498;
783.3000;0.2499;0.5547;
783.6000;0.2475;0.5595;
783.9000;0.2491;0.5595;
784.2000;0.2507;0.5668;
784.5000;0.2475;0.5619;
784.8000;0.2475;0.5547;
785.1000;0.2507;0.5619;
785.4000;0.2491;0.5644;
785.7000;0.2458;0.5595;
786.0000;0.2475;0.5644;
786.3000;0.2491;0.5644;
786.6000;0.2475;0.5644;
786.9000;0.2475;0.5571;
787.2000;0.2483;0.5571;
787.5000;0.2466;0.5523;
787.8000;0.2475;0.5523;
788.1000;0.2499;0.5595;
788.4000;0.2466;0.5523;
788.7000;0.2466;0.5474;
789.0000;0.2475;0.5523;
789.3000;0.2491;0.5547;
789.6000;0.2458;0.5450;
789.9000;0.2466;0.5523;
790.2000;0.2491;0.5619;
790.5000;0.2491;0.5547;
790.8000;0.2483;0.5474;
791.1000;0.2426;0.5353;
791.4000;0.2515;0.5619;
791.7000;0.2483;0.5595;
792.0000;0.2491;0.5595;
792.3000;0.2475;0.5498;
792.6000;0.2466;0.5498;
792.9000;0.2483;0.5523;
793.2000;0.2483;0.5571;
793.5000;0.2458;0.5571;
793.8000;0.2442;0.5498;
794.1000;0.2475;0.5595;
794.4000;0.2483;0.5547;
794.7000;0.2475;0.5595;
795.0000;0.2499;0.5668;
795.3000;0.2507;0.5595;
795.6000;0.2483;0.5474;
795.9000;0.2499;0.5474;
796.2000;0.2483;0.5547;
796.5000;0.2483;0.5523;
796.8000;0.2475;0.5498;
797.1000;0.2507;0.5595;
797.4000;0.2475;0.5547;
797.7000;0.2483;0.5523;
798.0000;0.2491;0.5547;
798.3000;0.2475;0.5523;
798.6000;0.2483;0.5523;
798.9000;0.2540;0.5644;
799.2000;0.2491;0.5474;
799.5000;0.2499;0.5474;
799.8000;0.2499;0.5474;
800.1000;0.2361;0.5159;
800.4000;0.2491;0.5426;
800.7000;0.2483;0.5474;
801.0000;0.2491;0.5474;
801.3000;0.2483;0.5523;
801.6000;0.2466;0.5474;
801.9000;0.2507;0.5547;
802.2000;0.2491;0.5450;
802.5000;0.2458;0.5377;
802.8000;0.2475;0.5353;
803.1000;0.2466;0.5353;
803.4000;0.2499;0.5474;
803.7000;0.2491;0.5377;
804.0000;0.2466;0.5232;
804.3000;0.2483;0.5353;
804.6000;0.2499;0.5377;
804.9000;0.2499;0.5450;
805.2000;0.2572;0.5668;
805.5000;0.2466;0.5474;
805.8000;0.2466;0.5523;
806.1000;0.2491;0.5498;
806.4000;0.2499;0.5426;
806.7000;0.2483;0.5377;
807.0000;0.2483;0.5305;
807.3000;0.2466;0.5329;
807.6000;0.2475;0.5377;
807.9000;0.2458;0.5377;
808.2000;0.2491;0.5450;
808.5000;0.2491;0.5426;
808.8000;0.2450;0.5377;
809.1000;0.2458;0.5450;
809.4000;0.2475;0.5523;
809.7000;0.2491;0.5474;
810.0000;0.2491;0.5450;
810.3000;0.2475;0.5401;
810.6000;0.2483;0.5474;
810.9000;0.2499;0.5523;
811.2000;0.2483;0.5474;
811.5000;0.2475;0.5450;
811.8000;0.2458;0.5426;
812.1000;0.2491;0.5498;
812.4000;0.2466;0.5474;
812.7000;0.2491;0.5523;
813.0000;0.2466;0.5474;
813.3000;0.2491;0.5523;
813.6000;0.2475;0.5498;
813.9000;0.2483;0.5450;
814.2000;0.2475;0.5523;
814.5000;0.2475;0.5523;
814.8000;0.2483;0.5547;
815.1000;0.2475;0.5547;
815.4000;0.2475;0.5474;
815.7000;0.2475;0.5523;
816.0000;0.2507;0.5595;
816.3000;0.2491;0.5474;
816.6000;0.2499;0.5474;
816.9000;0.2466;0.5426;
817.2000;0.2475;0.5571;
817.5000;0.2483;0.5668;
817.8000;0.2458;0.5595;
818.1000;0.2434;0.5474;
818.4000;0.2450;0.5498;
818.7000;0.2491;0.5595;
819.0000;0.2442;0.5450;
819.3000;0.2483;0.5547;
819.6000;0.2458;0.5523;
819.9000;0.2458;0.5450;
820.2000;0.2466;0.5498;
820.5000;0.2499;0.5692;
820.8000;0.2475;0.5789;
821.1000;0.2483;0.5716;
821.4000;0.2540;0.5813;
821.7000;0.2466;0.5619;
822.0000;0.2507;0.5716;
822.3000;0.2483;0.5668;
822.6000;0.2475;0.5716;
822.9000;0.2491;0.5765;
823.2000;0.2393;0.5523;
823.5000;0.2483;0.5741;
823.8000;0.2491;0.5789;
824.1000;0.2499;0.5789;
824.4000;0.2483;0.5692;
824.7000;0.2499;0.5619;
825.0000;0.2556;0.5765;
825.3000;0.2475;0.5498;
825.6000;0.2499;0.5571;
825.9000;0.2491;0.5547;
826.2000;0.2491;0.5595;
826.5000;0.2466;0.5571;
826.8000;0.2499;0.5619;
827.1000;0.2483;0.5547;
827.4000;0.2483;0.5571;
827.7000;0.2483;0.5547;
828.0000;0.2483;0.5474;
828.3000;0.2466;0.5401;
828.6000;0.2458;0.5377;
828.9000;0.2491;0.5450;
829.2000;0.2483;0.5353;
829.5000;0.2491;0.5329;
829.8000;0.2466;0.5401;
830.1000;0.2491;0.5450;
830.4000;0.2491;0.5523;
830.7000;0.2450;0.5426;
831.0000;0.2409;0.5353;
831.3000;0.2499;0.5619;
831.6000;0.2548;0.5765;
831.9000;0.2491;0.5523;
832.2000;0.2475;0.5450;
832.5000;0.2458;0.5401;
832.8000;0.2475;0.5547;
833.1000;0.2491;0.5571;
833.4000;0.2499;0.5595;
833.7000;0.2475;0.5426;
834.0000;0.2499;0.5450;
834.3000;0.2491;0.5353;
834.6000;0.2499;0.5426;
834.9000;0.2466;0.5450;
835.2000;0.2548;0.5668;
835.5000;0.2499;0.5619;
835.8000;0.2491;0.5571;
836.1000;0.2442;0.5426;
836.4000;0.2499;0.5547;
836.7000;0.2483;0.5498;
837.0000;0.2507;0.5523;
837.3000;0.2483;0.5426;
837.6000;0.2458;0.5377;
837.9000;0.2483;0.5450;
838.2000;0.2483;0.5450;
838.5000;0.2483;0.5498;
838.8000;0.2458;0.5401;
839.1000;0.2548;0.5595;
839.4000;0.2369;0.5208;
839.7000;0.2475;0.5450;
840.0000;0.2466;0.5498;
840.3000;0.2491;0.5474;
840.6000;0.2458;0.5474;
840.9000;0.2507;0.5644;
841.2000;0.2507;0.5692;
841.5000;0.2491;0.5571;
841.8000;0.2507;0.5595;
842.1000;0.2499;0.5571;
842.4000;0.2434;0.5401;
842.7000;0.2483;0.5595;
843.0000;0.2507;0.5619;
843.3000;0.2515;0.5619;
843.6000;0.2450;0.5426;
843.9000;0.2491;0.5474;
844.2000;0.2434;0.5377;
844.5000;0.2499;0.5571;
844.8000;0.2483;0.5571;
845.1000;0.2483;0.5571;
845.4000;0.2499;0.5547;
845.7000;0.2491;0.5426;
846.0000;0.2491;0.5474;
846.3000;0.2499;0.5498;
846.6000;0.2556;0.5595;
846.9000;0.2523;0.5426;
847.2000;0.2466;0.5353;
847.5000;0.2491;0.5450;
847.8000;0.2475;0.5474;
848.1000;0.2458;0.5498;
848.4000;0.2475;0.5450;
848.7000;0.2458;0.5426;
849.0000;0.2491;0.5547;
849.3000;0.2483;0.5619;
849.6000;0.2491;0.5668;
849.9000;0.2475;0.5741;
850.2000;0.2483;0.5765;
850.5000;0.2499;0.5668;
850.8000;0.2475;0.5619;
851.1000;0.2515;0.5595;
851.4000;0.2483;0.5523;
851.7000;0.2475;0.5668;
852.0000;0.2515;0.5789;
852.3000;0.2499;0.5837;
852.6000;0.2491;0.5813;
852.9000;0.2458;0.5716;
853.2000;0.2491;0.5741;
853.5000;0.2499;0.5644;
853.8000;0.2377;0.5329;
854.1000;0.2466;0.5619;
854.4000;0.2483;0.5741;
854.7000;0.2499;0.5813;
855.0000;0.2507;0.5837;
855.3000;0.2475;0.5741;
855.6000;0.2499;0.5741;
855.9000;0.2393;0.5377;
856.2000;0.2499;0.5741;
856.5000;0.2491;0.5619;
856.8000;0.2483;0.5595;
857.1000;0.2491;0.5716;
857.4000;0.2507;0.5741;
857.7000;0.2483;0.5789;
858.0000;0.2442;0.5741;
858.3000;0.2491;0.5741;
858.6000;0.2491;0.5619;
858.9000;0.2483;0.5547;
859.2000;0.2515;0.5692;
859.5000;0.2458;0.5547;
859.8000;0.2491;0.5644;
860.1000;0.2515;0.5716;
860.4000;0.2475;0.5595;
860.7000;0.2491;0.5644;
861.0000;0.2491;0.5644;
861.3000;0.2491;0.5644;
861.6000;0.2434;0.5474;
861.9000;0.2491;0.5595;
862.2000;0.2491;0.5523;
862.5000;0.2483;0.5523;
862.8000;0.2466;0.5547;
863.1000;0.2540;0.5692;
863.4000;0.2442;0.5426;
863.7000;0.2483;0.5498;
864.0000;0.2475;0.5474;
864.3000;0.2491;0.5523;
864.6000;0.2401;0.5305;
864.9000;0.2466;0.5450;
865.2000;0.2466;0.5450;
865.5000;0.2466;0.5377;
865.8000;0.2491;0.5498;
866.1000;0.2483;0.5474;
866.4000;0.2475;0.5523;
866.7000;0.2491;0.5498;
867.0000;0.2491;0.5498;
867.3000;0.2483;0.5595;
867.6000;0.2499;0.5523;
867.9000;0.2475;0.5450;
868.2000;0.2475;0.5450;
868.5000;0.2491;0.5498;
868.8000;0.2483;0.5547;
869.1000;0.2483;0.5571;
869.4000;0.2475;0.5498;
869.7000;0.2466;0.5450;
870.0000;0.2499;0.5426;
870.3000;0.2475;0.5305;
870.6000;0.2466;0.5232;
870.9000;0.2491;0.5280;
871.2000;0.2491;0.5329;
871.5000;0.2499;0.5426;
871.8000;0.2466;0.5401;
872.1000;0.2499;0.5498;
872.4000;0.2483;0.5426;
872.7000;0.2499;0.5474;
873.0000;0.2475;0.5377;
873.3000;0.2475;0.5377;
873.6000;0.2483;0.5498;
873.9000;0.2491;0.5547;
874.2000;0.2475;0.5571;
874.5000;0.2458;0.5498;
874.8000;0.2483;0.5595;
875.1000;0.2491;0.5619;
875.4000;0.2466;0.5619;
875.7000;0.2678;0.6225;
876.0000;0.2548;0.5813;
876.3000;0.2532;0.5741;
876.6000;0.2483;0.5668;
876.9000;0.2491;0.5668;
877.2000;0.2499;0.5668;
877.5000;0.2507;0.5692;
877.8000;0.2442;0.5547;
878.1000;0.2507;0.5644;
878.4000;0.2507;0.5619;
878.7000;0.2507;0.5644;
879.0000;0.2483;0.5547;
879.3000;0.2491;0.5547;
879.6000;0.2475;0.5450;
879.9000;0.2499;0.5450;
880.2000;0.2483;0.5450;
880.5000;0.2352;0.5183;
880.8000;0.2458;0.5450;
881.1000;0.2491;0.5571;
881.4000;0.2499;0.5595;
881.7000;0.2491;0.5571;
882.0000;0.2491;0.5644;
882.3000;0.2458;0.5619;
882.6000;0.2515;0.5692;
882.9000;0.2540;0.5668;
883.2000;0.2491;0.5571;
883.5000;0.2499;0.5571;
883.8000;0.2466;0.5547;
884.1000;0.2483;0.5595;
884.4000;0.2483;0.5571;
884.7000;0.2483;0.5668;
885.0000;0.2491;0.5692;
885.3000;0.2499;0.5716;
885.6000;0.2450;0.5498;
885.9000;0.2450;0.5498;
886.2000;0.2483;0.5571;
886.5000;0.2540;0.5789;
886.8000;0.2499;0.5716;
887.1000;0.2491;0.5741;
887.4000;0.2450;0.5644;
887.7000;0.2434;0.5498;
888.0000;0.2491;0.5692;
888.3000;0.2475;0.5523;
888.6000;0.2491;0.5523;
888.9000;0.2499;0.5571;
889.2000;0.2475;0.5498;
889.5000;0.2540;0.5692;
889.8000;0.2491;0.5498;
890.1000;0.2483;0.5450;
890.4000;0.2491;0.5426;
890.7000;0.2483;0.5401;
891.0000;0.2483;0.5377;
891.3000;0.2491;0.5377;
891.6000;0.2499;0.5377;
891.9000;0.2483;0.5474;
892.2000;0.2475;0.5474;
892.5000;0.2523;0.5595;
892.8000;0.2507;0.5547;
893.1000;0.2458;0.5450;
893.4000;0.2499;0.5547;
893.7000;0.2491;0.5474;
894.0000;0.2507;0.5595;
894.3000;0.2507;0.5668;
894.6000;0.2499;0.5644;
894.9000;0.2507;0.5692;
895.2000;0.2491;0.5668;
895.5000;0.2475;0.5619;
895.8000;0.2515;0.5789;
896.1000;0.2483;0.5692;
896.4000;0.2475;0.5644;
896.7000;0.2491;0.5619;
897.0000;0.2556;0.5789;
897.3000;0.2483;0.5595;
897.6000;0.2491;0.5668;
897.9000;0.2491;0.5716;
898.2000;0.2491;0.5668;
898.5000;0.2483;0.5644;
898.8000;0.2515;0.5692;
899.1000;0.2491;0.5595;
899.4000;0.2499;0.5595;
899.7000;0.2523;0.5741;
900.0000;0.2434;0.5523;
900.3000;0.2483;0.5595;
900.6000;0.2466;0.5547;
900.9000;0.2507;0.5619;
901.2000;0.2491;0.5547;
901.5000;0.2491;0.5595;
901.8000;0.2548;0.5765;
902.1000;0.2475;0.5595;
902.4000;0.2475;0.5595;
902.7000;0.2507;0.5716;
903.0000;0.2499;0.5595;
903.3000;0.2475;0.5474;
903.6000;0.2483;0.5474;
903.9000;0.2491;0.5547;
904.2000;0.2499;0.5498;
904.5000;0.2483;0.5474;
904.8000;0.2483;0.5547;
905.1000;0.2491;0.5547;
905.4000;0.2450;0.5474;
905.7000;0.2499;0.5571;
906.0000;0.2491;0.5595;
906.3000;0.2605;0.5886;
906.6000;0.2475;0.5547;
906.9000;0.2483;0.5523;
907.2000;0.2442;0.5377;
907.5000;0.2491;0.5498;
907.8000;0.2491;0.5474;
908.1000;0.2483;0.5498;
908.4000;0.2491;0.5547;
908.7000;0.2491;0.5474;
909.0000;0.2458;0.5353;
909.3000;0.2507;0.5571;
909.6000;0.2466;0.5474;
909.9000;0.2466;0.5547;
910.2000;0.2475;0.5547;
910.5000;0.2483;0.5595;
910.8000;0.2475;0.5523;
911.1000;0.2466;0.5547;
911.4000;0.2532;0.5716;
911.7000;0.2483;0.5644;
912.0000;0.2499;0.5644;
912.3000;0.2532;0.5692;
912.6000;0.2491;0.5523;
912.9000;0.2483;0.5547;
913.2000;0.2491;0.5595;
913.5000;0.2499;0.5668;
913.8000;0.2466;0.5571;
914.1000;0.2475;0.5644;
914.4000;0.2483;0.5716;
914.7000;0.2475;0.5692;
915.0000;0.2499;0.5741;
915.3000;0.2475;0.5716;
915.6000;0.2491;0.5644;
915.9000;0.2483;0.5619;
916.2000;0.2450;0.5450;
916.5000;0.2466;0.5619;
916.8000;0.2418;0.5474;
917.1000;0.2515;0.5692;
917.4000;0.2491;0.5716;
917.7000;0.2458;0.5571;
918.0000;0.2499;0.5619;
918.3000;0.2507;0.5644;
918.6000;0.2491;0.5595;
918.9000;0.2499;0.5619;
919.2000;0.2475;0.5523;
919.5000;0.2483;0.5498;
919.8000;0.2466;0.5474;
920.1000;0.2483;0.5450;
920.4000;0.2466;0.5547;
920.7000;0.2532;0.5668;
921.0000;0.2483;0.5619;
921.3000;0.2483;0.5571;
921.6000;0.2377;0.5280;
921.9000;0.2458;0.5474;
922.2000;0.2475;0.5450;
922.5000;0.2483;0.5377;
922.8000;0.2556;0.5789;
923.1000;0.2475;0.5644;
923.4000;0.2491;0.5716;
923.7000;0.2491;0.5716;
924.0000;0.2491;0.5765;
924.3000;0.2483;0.5741;
924.6000;0.2491;0.5741;
924.9000;0.2507;0.5813;
925.2000;0.2499;0.5765;
925.5000;0.2499;0.5741;
925.8000;0.2580;0.5837;
926.1000;0.2499;0.5668;
926.4000;0.2483;0.5765;
926.7000;0.2466;0.5692;
927.0000;0.2491;0.5716;
927.3000;0.2491;0.5765;
927.6000;0.2491;0.5692;
927.9000;0.2483;0.5595;
928.2000;0.2466;0.5619;
928.5000;0.2515;0.5837;
928.8000;0.2491;0.5813;
929.1000;0.2491;0.5716;
929.4000;0.2507;0.5692;
929.7000;0.2458;0.5644;
930.0000;0.2499;0.5644;
930.3000;0.2499;0.5668;
930.6000;0.2442;0.5498;
930.9000;0.2475;0.5547;
931.2000;0.2507;0.5571;
931.5000;0.2483;0.5523;
931.8000;0.2483;0.5498;
932.1000;0.2491;0.5523;
932.4000;0.2499;0.5523;
932.7000;0.2507;0.5571;
933.0000;0.2483;0.5595;
933.3000;0.2564;0.5716;
933.6000;0.2483;0.5450;
933.9000;0.2483;0.5474;
934.2000;0.2491;0.5523;
934.5000;0.2499;0.5523;
934.8000;0.2491;0.5498;
935.1000;0.2483;0.5450;
935.4000;0.2548;0.5644;
935.7000;0.2466;0.5547;
936.0000;0.2483;0.5523;
936.3000;0.2450;0.5450;
936.6000;0.2483;0.5595;
936.9000;0.2556;0.5862;
937.2000;0.2483;0.5571;
937.5000;0.2499;0.5523;
937.8000;0.2475;0.5450;
938.1000;0.2475;0.5426;
938.4000;0.2483;0.5474;
938.7000;0.2564;0.5716;
939.0000;0.2466;0.5498;
939.3000;0.2515;0.5571;
939.6000;0.2491;0.5523;
939.9000;0.2491;0.5668;
940.2000;0.2418;0.5571;
940.5000;0.2613;0.6031;
940.8000;0.2499;0.5692;
941.1000;0.2507;0.5741;
941.4000;0.2507;0.5692;
941.7000;0.2450;0.5619;
942.0000;0.2491;0.5668;
942.3000;0.2458;0.5644;
942.6000;0.2466;0.5668;
942.9000;0.2491;0.5692;
943.2000;0.2466;0.5668;
943.5000;0.2499;0.5668;
943.8000;0.2515;0.5765;
944.1000;0.2483;0.5595;
944.4000;0.2466;0.5571;
944.7000;0.2377;0.5232;
945.0000;0.2548;0.5668;
945.3000;0.2475;0.5474;
945.6000;0.2483;0.5474;
945.9000;0.2409;0.5329;
946.2000;0.2491;0.5595;
946.5000;0.2483;0.5692;
946.8000;0.2507;0.5692;
947.1000;0.2466;0.5619;
947.4000;0.2466;0.5644;
947.7000;0.2491;0.5692;
948.0000;0.2475;0.5716;
948.3000;0.2475;0.5668;
948.6000;0.2483;0.5595;
948.9000;0.2515;0.5595;
949.2000;0.2499;0.5547;
949.5000;0.2466;0.5498;
949.8000;0.2491;0.5474;
950.1000;0.2491;0.5450;
950.4000;0.2499;0.5474;
950.7000;0.2507;0.5498;
951.0000;0.2491;0.5377;
951.3000;0.2491;0.5377;
951.6000;0.2572;0.5668;
951.9000;0.2491;0.5474;
952.2000;0.2515;0.5644;
952.5000;0.2491;0.5474;
952.8000;0.2483;0.5474;
953.1000;0.2475;0.5571;
953.4000;0.2475;0.5595;
953.7000;0.2499;0.5595;
954.0000;0.2548;0.5716;
954.3000;0.2515;0.5571;
954.6000;0.2507;0.5644;
954.9000;0.2483;0.5595;
955.2000;0.2556;0.5741;
955.5000;0.2458;0.5547;
955.8000;0.2540;0.5741;
956.1000;0.2499;0.5595;
956.4000;0.2540;0.5668;
956.7000;0.2499;0.5571;
957.0000;0.2507;0.5571;
957.3000;0.2450;0.5377;
957.6000;0.2491;0.5523;
957.9000;0.2507;0.5571;
958.2000;0.2491;0.5547;
958.5000;0.2442;0.5450;
958.8000;0.2475;0.5498;
959.1000;0.2483;0.5498;
959.4000;0.2458;0.5426;
959.7000;0.2483;0.5547;
960.0000;0.2491;0.5571;
960.3000;0.2475;0.5547;
960.6000;0.2483;0.5595;
960.9000;0.2466;0.5571;
961.2000;0.2483;0.5523;
961.5000;0.2491;0.5571;
961.8000;0.2499;0.5571;
962.1000;0.2483;0.5571;
962.4000;0.2499;0.5595;
962.7000;0.2475;0.5474;
963.0000;0.2475;0.5474;
963.3000;0.2564;0.5644;
963.6000;0.2450;0.5426;
963.9000;0.2507;0.5523;
964.2000;0.2393;0.5280;
964.5000;0.2499;0.5644;
964.8000;0.2491;0.5595;
965.1000;0.2491;0.5571;
965.4000;0.2515;0.5644;
965.7000;0.2491;0.5498;
966.0000;0.2507;0.5498;
966.3000;0.2507;0.5547;
966.6000;0.2491;0.5474;
966.9000;0.2491;0.5426;
967.2000;0.2499;0.5498;
967.5000;0.2475;0.5401;
967.8000;0.2491;0.5401;
968.1000;0.2475;0.5329;
968.4000;0.2458;0.5280;
968.7000;0.2483;0.5280;
969.0000;0.2491;0.5426;
969.3000;0.2483;0.5401;
969.6000;0.2475;0.5377;
969.9000;0.2491;0.5426;
970.2000;0.2491;0.5305;
970.5000;0.2491;0.5208;
970.8000;0.2532;0.5426;
971.1000;0.2491;0.5474;
971.4000;0.2491;0.5474;
971.7000;0.2483;0.5498;
972.0000;0.2491;0.5523;
972.3000;0.2442;0.5474;
972.6000;0.2483;0.5595;
972.9000;0.2466;0.5498;
973.2000;0.2483;0.5474;
973.5000;0.2499;0.5498;
973.8000;0.2507;0.5571;
974.1000;0.2483;0.5571;
974.4000;0.2483;0.5571;
974.7000;0.2507;0.5523;
975.0000;0.2483;0.5498;
975.3000;0.2475;0.5498;
975.6000;0.2507;0.5523;
975.9000;0.2483;0.5498;
976.2000;0.2475;0.5498;
976.5000;0.2450;0.5498;
976.8000;0.2499;0.5595;
977.1000;0.2499;0.5595;
977.4000;0.2548;0.5668;
977.7000;0.2466;0.5571;
978.0000;0.2491;0.5595;
978.3000;0.2499;0.5668;
978.6000;0.2475;0.5619;
978.9000;0.2442;0.5450;
979.2000;0.2532;0.5644;
979.5000;0.2401;0.5280;
979.8000;0.2515;0.5571;
980.1000;0.2491;0.5595;
980.4000;0.2475;0.5547;
980.7000;0.2466;0.5619;
981.0000;0.2491;0.5644;
981.3000;0.2507;0.5741;
981.6000;0.2483;0.5716;
981.9000;0.2442;0.5547;
982.2000;0.2491;0.5668;
982.5000;0.2483;0.5692;
982.8000;0.2491;0.5765;
983.1000;0.2491;0.5862;
983.4000;0.2483;0.5813;
983.7000;0.2515;0.5886;
984.0000;0.2499;0.5813;
984.3000;0.2483;0.5619;
984.6000;0.2491;0.5692;
984.9000;0.2507;0.5692;
985.2000;0.2499;0.5765;
985.5000;0.2491;0.5813;
985.8000;0.2548;0.5886;
986.1000;0.2491;0.5789;
986.4000;0.2491;0.5813;
986.7000;0.2491;0.5886;
987.0000;0.2491;0.5837;
987.3000;0.2499;0.5862;
987.6000;0.2483;0.5886;
987.9000;0.2458;0.5789;
988.2000;0.2491;0.5765;
988.5000;0.2499;0.5813;
988.8000;0.2491;0.5765;
989.1000;0.2483;0.5668;
989.4000;0.2507;0.5741;
989.7000;0.2483;0.5571;
990.0000;0.2499;0.5547;
990.3000;0.2507;0.5547;
990.6000;0.2483;0.5571;
990.9000;0.2491;0.5547;
991.2000;0.2507;0.5547;
991.5000;0.2483;0.5547;
991.8000;0.2418;0.5401;
992.1000;0.2483;0.5571;
992.4000;0.2475;0.5619;
992.7000;0.2483;0.5692;
993.0000;0.2491;0.5741;
993.3000;0.2507;0.5765;
993.6000;0.2491;0.5668;
993.9000;0.2458;0.5426;
994.2000;0.2483;0.5547;
994.5000;0.2507;0.5547;
994.8000;0.2483;0.5474;
995.1000;0.2491;0.5523;
995.4000;0.2475;0.5474;
995.7000;0.2475;0.5498;
996.0000;0.2499;0.5595;
996.3000;0.2499;0.5547;
996.6000;0.2491;0.5547;
996.9000;0.2491;0.5474;
997.2000;0.2458;0.5523;
997.5000;0.2499;0.5668;
997.8000;0.2499;0.5668;
998.1000;0.2621;0.6031;
998.4000;0.2483;0.5644;
998.7000;0.2491;0.5571;
999.0000;0.2491;0.5571;
999.3000;0.2507;0.5547;
999.6000;0.2491;0.5547;
999.9000;0.2475;0.5595;
1000.2000;0.2507;0.5716;
1000.5000;0.2369;0.5305;
1000.8000;0.2458;0.5474;
1001.1000;0.2491;0.5498;
1001.4000;0.2507;0.5474;
1001.7000;0.2483;0.5426;
1002.0000;0.2475;0.5474;
1002.3000;0.2564;0.5716;
1002.6000;0.2499;0.5547;
1002.9000;0.2483;0.5498;
1003.2000;0.2499;0.5498;
1003.5000;0.2507;0.5523;
1003.8000;0.2475;0.5450;
1004.1000;0.2483;0.5571;
1004.4000;0.2483;0.5571;
1004.7000;0.2475;0.5595;
1005.0000;0.2507;0.5668;
1005.3000;0.2499;0.5595;
1005.6000;0.2491;0.5644;
1005.9000;0.2483;0.5644;
1006.2000;0.2458;0.5595;
1006.5000;0.2499;0.5644;
1006.8000;0.2532;0.5668;
1007.1000;0.2475;0.5498;
1007.4000;0.2483;0.5523;
1007.7000;0.2483;0.5716;
1008.0000;0.2499;0.5765;
1008.3000;0.2475;0.5692;
1008.6000;0.2483;0.5644;
1008.9000;0.2483;0.5692;
1009.2000;0.2556;0.5910;
1009.5000;0.2491;0.5716;
1009.8000;0.2483;0.5716;
1010.1000;0.2483;0.5668;
1010.4000;0.2442;0.5450;
1010.7000;0.2507;0.5498;
1011.0000;0.2491;0.5450;
1011.3000;0.2491;0.5474;
1011.6000;0.2499;0.5571;
1011.9000;0.2483;0.5450;
1012.2000;0.2491;0.5498;
1012.5000;0.2483;0.5450;
1012.8000;0.2401;0.5183;
1013.1000;0.2499;0.5401;
1013.4000;0.2491;0.5329;
1013.7000;0.2499;0.5377;
1014.0000;0.2572;0.5619;
1014.3000;0.2491;0.5450;
1014.6000;0.2499;0.5426;
1014.9000;0.2426;0.5256;
1015.2000;0.2491;0.5377;
1015.5000;0.2507;0.5450;
1015.8000;0.2458;0.5329;
1016.1000;0.2475;0.5353;
1016.4000;0.2507;0.5474;
1016.7000;0.2507;0.5547;
1017.0000;0.2491;0.5571;
1017.3000;0.2499;0.5547;
1017.6000;0.2556;0.5668;
1017.9000;0.2491;0.5523;
1018.2000;0.2483;0.5474;
1018.5000;0.2491;0.5401;
1018.8000;0.2491;0.5474;
1019.1000;0.2491;0.5571;
1019.4000;0.2507;0.5571;
1019.7000;0.2491;0.5547;
1020.0000;0.2475;0.5474;
1020.3000;0.2491;0.5450;
1020.6000;0.2491;0.5401;
1020.9000;0.2507;0.5450;
1021.2000;0.2491;0.5329;
1021.5000;0.2475;0.5329;
1021.8000;0.2483;0.5474;
1022.1000;0.2499;0.5523;
1022.4000;0.2483;0.5547;
1022.7000;0.2491;0.5595;
1023.0000;0.2499;0.5619;
1023.3000;0.2507;0.5619;
1023.6000;0.2483;0.5619;
1023.9000;0.2499;0.5619;
1024.2000;0.2466;0.5523;
1024.5000;0.2491;0.5547;
1024.8000;0.2564;0.5668;
1025.1000;0.2426;0.5353;
1025.4000;0.2475;0.5401;
1025.7000;0.2499;0.5474;
1026.0000;0.2499;0.5523;
1026.3000;0.2515;0.5595;
1026.6000;0.2483;0.5498;
1026.9000;0.2491;0.5619;
1027.2000;0.2515;0.5692;
1027.5000;0.2466;0.5523;
1027.8000;0.2499;0.5595;
1028.1000;0.2483;0.5619;
1028.4000;0.2499;0.5619;
1028.7000;0.2393;0.5305;
1029.0000;0.2523;0.5668;
1029.3000;0.2466;0.5523;
1029.6000;0.2499;0.5619;
1029.9000;0.2491;0.5644;
1030.2000;0.2589;0.5959;
1030.5000;0.2499;0.5692;
1030.8000;0.2466;0.5692;
1031.1000;0.2483;0.5668;
1031.4000;0.2483;0.5619;
1031.7000;0.2491;0.5595;
1032.0000;0.2491;0.5547;
1032.3000;0.2523;0.5571;
1032.6000;0.2507;0.5474;
1032.9000;0.2466;0.5426;
1033.2000;0.2466;0.5450;
1033.5000;0.2491;0.5498;
1033.8000;0.2491;0.5619;
1034.1000;0.2483;0.5595;
1034.4000;0.2499;0.5474;
1034.7000;0.2548;0.5692;
1035.0000;0.2499;0.5595;
1035.3000;0.2450;0.5523;
1035.6000;0.2409;0.5377;
1035.9000;0.2442;0.5523;
1036.2000;0.2458;0.5547;
1036.5000;0.2369;0.5353;
1036.8000;0.2466;0.5595;
1037.1000;0.2491;0.5789;
1037.4000;0.2491;0.5741;
1037.7000;0.2507;0.5741;
1038.0000;0.2426;0.5547;
1038.3000;0.2499;0.5813;
1038.6000;0.2483;0.5692;
1038.9000;0.2491;0.5571;
1039.2000;0.2442;0.5426;
1039.5000;0.2483;0.5523;
1039.8000;0.2491;0.5450;
1040.1000;0.2361;0.5038;
1040.4000;0.2418;0.5135;
1040.7000;0.2466;0.5353;
1041.0000;0.2458;0.5353;
1041.3000;0.2475;0.5426;
1041.6000;0.2491;0.5474;
1041.9000;0.2491;0.5523;
1042.2000;0.2491;0.5595;
1042.5000;0.2499;0.5523;
1042.8000;0.2483;0.5450;
1043.1000;0.2483;0.5450;
1043.4000;0.2499;0.5523;
1043.7000;0.2483;0.5523;
1044.0000;0.2507;0.5547;
1044.3000;0.2458;0.5401;
1044.6000;0.2466;0.5401;
1044.9000;0.2499;0.5523;
1045.2000;0.2491;0.5547;
1045.5000;0.2483;0.5547;
1045.8000;0.2483;0.5595;
1046.1000;0.2450;0.5498;
1046.4000;0.2499;0.5644;
1046.7000;0.2491;0.5692;
1047.0000;0.2483;0.5741;
1047.3000;0.2629;0.6128;
1047.6000;0.2491;0.5692;
1047.9000;0.2483;0.5619;
1048.2000;0.2409;0.5426;
1048.5000;0.2483;0.5668;
1048.8000;0.2491;0.5668;
1049.1000;0.2475;0.5595;
1049.4000;0.2499;0.5644;
1049.7000;0.2515;0.5644;
1050.0000;0.2450;0.5498;
1050.3000;0.2475;0.5619;
1050.6000;0.2483;0.5692;
1050.9000;0.2466;0.5692;
1051.2000;0.2491;0.5765;
1051.5000;0.2483;0.5789;
1051.8000;0.2466;0.5668;
1052.1000;0.2466;0.5644;
1052.4000;0.2466;0.5668;
1052.7000;0.2491;0.5765;
1053.0000;0.2507;0.5789;
1053.3000;0.2556;0.5789;
1053.6000;0.2491;0.5644;
1053.9000;0.2523;0.5571;
1054.2000;0.2507;0.5474;
1054.5000;0.2450;0.5377;
1054.8000;0.2483;0.5523;
1055.1000;0.2499;0.5498;
1055.4000;0.2507;0.5619;
1055.7000;0.2466;0.5523;
1056.0000;0.2491;0.5595;
1056.3000;0.2491;0.5668;
1056.6000;0.2483;0.5765;
1056.9000;0.2499;0.5789;
1057.2000;0.2475;0.5741;
1057.5000;0.2491;0.5716;
1057.8000;0.2540;0.5959;
1058.1000;0.2491;0.5741;
1058.4000;0.2483;0.5813;
1058.7000;0.2483;0.5813;
1059.0000;0.2499;0.5837;
1059.3000;0.2507;0.5910;
1059.6000;0.2499;0.5910;
1059.9000;0.2499;0.5886;
1060.2000;0.2483;0.5837;
1060.5000;0.2507;0.5910;
1060.8000;0.2491;0.5886;
1061.1000;0.2483;0.5886;
1061.4000;0.2491;0.5886;
1061.7000;0.2613;0.6128;
1062.0000;0.2491;0.5837;
1062.3000;0.2475;0.5862;
1062.6000;0.2507;0.5886;
1062.9000;0.2499;0.5837;
1063.2000;0.2442;0.5692;
1063.5000;0.2499;0.5813;
1063.8000;0.2409;0.5619;
1064.1000;0.2491;0.5886;
1064.4000;0.2507;0.5813;
1064.7000;0.2491;0.5765;
1065.0000;0.2499;0.5716;
1065.3000;0.2499;0.5692;
1065.6000;0.2507;0.5619;
1065.9000;0.2475;0.5644;
1066.2000;0.2475;0.5741;
1066.5000;0.2483;0.5692;
1066.8000;0.2499;0.5692;
1067.1000;0.2507;0.5741;
1067.4000;0.2483;0.5741;
1067.7000;0.2434;0.5619;
1068.0000;0.2499;0.5813;
1068.3000;0.2499;0.5765;
1068.6000;0.2491;0.5668;
1068.9000;0.2483;0.5547;
1069.2000;0.2507;0.5595;
1069.5000;0.2507;0.5547;
1069.8000;0.2491;0.5547;
1070.1000;0.2426;0.5401;
1070.4000;0.2483;0.5547;
1070.7000;0.2515;0.5571;
1071.0000;0.2499;0.5619;
1071.3000;0.2418;0.5450;
1071.6000;0.2450;0.5474;
1071.9000;0.2556;0.5789;
1072.2000;0.2491;0.5619;
1072.5000;0.2483;0.5619;
1072.8000;0.2491;0.5668;
1073.1000;0.2466;0.5595;
1073.4000;0.2442;0.5353;
1073.7000;0.2483;0.5474;
1074.0000;0.2499;0.5547;
1074.3000;0.2589;0.5741;
1074.6000;0.2491;0.5474;
1074.9000;0.2466;0.5498;
1075.2000;0.2491;0.5619;
1075.5000;0.2507;0.5668;
1075.8000;0.2507;0.5692;
1076.1000;0.2466;0.5523;
1076.4000;0.2532;0.5716;
1076.7000;0.2491;0.5547;
1077.0000;0.2499;0.5571;
1077.3000;0.2515;0.5668;
1077.6000;0.2491;0.5547;
1077.9000;0.2483;0.5547;
1078.2000;0.2475;0.5474;
1078.5000;0.2491;0.5498;
1078.8000;0.2499;0.5474;
1079.1000;0.2491;0.5474;
1079.4000;0.2491;0.5523;
1079.7000;0.2515;0.5571;
1080.0000;0.2507;0.5571;
1080.3000;0.2475;0.5523;
1080.6000;0.2483;0.5498;
1080.9000;0.2499;0.5547;
1081.2000;0.2450;0.5450;
1081.5000;0.2483;0.5547;
1081.8000;0.2483;0.5523;
1082.1000;0.2499;0.5498;
1082.4000;0.2491;0.5498;
1082.7000;0.2483;0.5498;
1083.0000;0.2450;0.5426;
1083.3000;0.2491;0.5498;
1083.6000;0.2491;0.5450;
1083.9000;0.2450;0.5377;
1084.2000;0.2515;0.5619;
1084.5000;0.2499;0.5571;
1084.8000;0.2499;0.5619;
1085.1000;0.2483;0.5571;
1085.4000;0.2483;0.5571;
1085.7000;0.2499;0.5644;
1086.0000;0.2475;0.5692;
1086.3000;0.2491;0.5692;
1086.6000;0.2483;0.5644;
1086.9000;0.2491;0.5644;
1087.2000;0.2499;0.5644;
1087.5000;0.2483;0.5547;
1087.8000;0.2499;0.5547;
1088.1000;0.2475;0.5498;
1088.4000;0.2499;0.5595;
1088.7000;0.2523;0.5668;
1089.0000;0.2466;0.5523;
1089.3000;0.2458;0.5474;
1089.6000;0.2507;0.5571;
1089.9000;0.2483;0.5595;
1090.2000;0.2507;0.5571;
1090.5000;0.2491;0.5595;
1090.8000;0.2491;0.5523;
1091.1000;0.2507;0.5450;
1091.4000;0.2483;0.5426;
1091.7000;0.2499;0.5426;
1092.0000;0.2491;0.5377;
1092.3000;0.2475;0.5280;
1092.6000;0.2483;0.5280;
1092.9000;0.2499;0.5329;
1093.2000;0.2515;0.5401;
1093.5000;0.2499;0.5426;
1093.8000;0.2475;0.5280;
1094.1000;0.2466;0.5208;
1094.4000;0.2483;0.5232;
1094.7000;0.2483;0.5280;
1095.0000;0.2475;0.5256;
1095.3000;0.2483;0.5232;
1095.6000;0.2483;0.5183;
1095.9000;0.2515;0.5305;
1096.2000;0.2491;0.5159;
1096.5000;0.2434;0.5014;
1096.8000;0.2483;0.5256;
1097.1000;0.2532;0.5329;
1097.4000;0.2499;0.5208;
1097.7000;0.2499;0.5135;
1098.0000;0.2483;0.5087;
1098.3000;0.2491;0.5111;
1098.6000;0.2483;0.5038;
1098.9000;0.2515;0.5183;
1099.2000;0.2499;0.5159;
1099.5000;0.2540;0.5353;
1099.8000;0.2499;0.5256;
1100.1000;0.2491;0.5159;
1100.4000;0.2532;0.5280;
1100.7000;0.2466;0.5135;
1101.0000;0.2507;0.5256;
1101.3000;0.2507;0.5280;
1101.6000;0.2540;0.5329;
1101.9000;0.2475;0.5159;
1102.2000;0.2499;0.5183;
1102.5000;0.2491;0.5159;
1102.8000;0.2515;0.5135;
1103.1000;0.2466;0.5135;
1103.4000;0.2458;0.5159;
1103.7000;0.2418;0.4965;
1104.0000;0.2507;0.5159;
1104.3000;0.2499;0.5111;
1104.6000;0.2483;0.5183;
1104.9000;0.2499;0.5111;
1105.2000;0.2499;0.5135;
1105.5000;0.2507;0.5159;
1105.8000;0.2507;0.5208;
1106.1000;0.2491;0.5111;
1106.4000;0.2466;0.5087;
1106.7000;0.2475;0.5135;
1107.0000;0.2499;0.5159;
1107.3000;0.2507;0.5208;
1107.6000;0.2499;0.5256;
1107.9000;0.2515;0.5329;
1108.2000;0.2483;0.5305;
1108.5000;0.2483;0.5426;
1108.8000;0.2499;0.5523;
1109.1000;0.2499;0.5498;
1109.4000;0.2475;0.5474;
1109.7000;0.2483;0.5498;
1110.0000;0.2491;0.5498;
1110.3000;0.2499;0.5474;
1110.6000;0.2491;0.5571;
1110.9000;0.2589;0.5741;
1111.2000;0.2515;0.5523;
1111.5000;0.2491;0.5377;
1111.8000;0.2483;0.5280;
1112.1000;0.2499;0.5353;
1112.4000;0.2491;0.5377;
1112.7000;0.2475;0.5401;
1113.0000;0.2352;0.5087;
1113.3000;0.2491;0.5426;
1113.6000;0.2507;0.5450;
1113.9000;0.2507;0.5329;
1114.2000;0.2540;0.5353;
1114.5000;0.2499;0.5329;
1114.8000;0.2483;0.5353;
1115.1000;0.2491;0.5523;
1115.4000;0.2499;0.5571;
1115.7000;0.2499;0.5498;
1116.0000;0.2483;0.5401;
1116.3000;0.2418;0.5159;
1116.6000;0.2507;0.5498;
1116.9000;0.2523;0.5523;
1117.2000;0.2491;0.5353;
1117.5000;0.2515;0.5450;
1117.8000;0.2475;0.5377;
1118.1000;0.2491;0.5474;
1118.4000;0.2483;0.5474;
1118.7000;0.2499;0.5498;
1119.0000;0.2491;0.5619;
1119.3000;0.2507;0.5595;
1119.6000;0.2515;0.5523;
1119.9000;0.2475;0.5450;
1120.2000;0.2507;0.5547;
1120.5000;0.2515;0.5595;
1120.8000;0.2483;0.5474;
1121.1000;0.2475;0.5377;
1121.4000;0.2466;0.5329;
1121.7000;0.2621;0.5716;
1122.0000;0.2499;0.5450;
1122.3000;0.2580;0.5644;
1122.6000;0.2466;0.5377;
1122.9000;0.2483;0.5401;
1123.2000;0.2515;0.5450;
1123.5000;0.2434;0.5208;
1123.8000;0.2442;0.5305;
1124.1000;0.2491;0.5474;
1124.4000;0.2540;0.5644;
1124.7000;0.2483;0.5547;
1125.0000;0.2483;0.5498;
1125.3000;0.2523;0.5571;
1125.6000;0.2507;0.5523;
1125.9000;0.2499;0.5498;
1126.2000;0.2434;0.5353;
1126.5000;0.2369;0.5135;
1126.8000;0.2507;0.5595;
1127.1000;0.2483;0.5547;
1127.4000;0.2491;0.5547;
1127.7000;0.2450;0.5474;
1128.0000;0.2483;0.5474;
1128.3000;0.2483;0.5401;
1128.6000;0.2483;0.5450;
1128.9000;0.2491;0.5450;
1129.2000;0.2491;0.5474;
1129.5000;0.2491;0.5450;
1129.8000;0.2507;0.5474;
1130.1000;0.2491;0.5474;
1130.4000;0.2475;0.5377;
1130.7000;0.2483;0.5474;
1131.0000;0.2483;0.5523;
1131.3000;0.2483;0.5547;
1131.6000;0.2507;0.5595;
1131.9000;0.2483;0.5547;
1132.2000;0.2483;0.5595;
1132.5000;0.2483;0.5571;
1132.8000;0.2483;0.5547;
1133.1000;0.2507;0.5571;
1133.4000;0.2475;0.5619;
1133.7000;0.2483;0.5644;
1134.0000;0.2434;0.5547;
1134.3000;0.2499;0.5741;
1134.6000;0.2499;0.5741;
1134.9000;0.2491;0.5741;
1135.2000;0.2491;0.5668;
1135.5000;0.2491;0.5595;
1135.8000;0.2515;0.5571;
1136.1000;0.2499;0.5523;
1136.4000;0.2499;0.5571;
1136.7000;0.2483;0.5523;
1137.0000;0.2491;0.5523;
1137.3000;0.2499;0.5450;
1137.6000;0.2507;0.5523;
1137.9000;0.2499;0.5474;
1138.2000;0.2507;0.5450;
1138.5000;0.2458;0.5329;
1138.8000;0.2385;0.5183;
1139.1000;0.2361;0.5111;
1139.4000;0.2483;0.5401;
1139.7000;0.2499;0.5426;
1140.0000;0.2499;0.5377;
1140.3000;0.2475;0.5329;
1140.6000;0.2491;0.5353;
1140.9000;0.2515;0.5377;
1141.2000;0.2491;0.5426;
1141.5000;0.2466;0.5426;
1141.8000;0.2491;0.5523;
1142.1000;0.2523;0.5644;
1142.4000;0.2483;0.5523;
1142.7000;0.2499;0.5595;
1143.0000;0.2499;0.5547;
1143.3000;0.2499;0.5595;
1143.6000;0.2499;0.5547;
1143.9000;0.2491;0.5498;
1144.2000;0.2475;0.5547;
1144.5000;0.2507;0.5571;
1144.8000;0.2491;0.5571;
1145.1000;0.2507;0.5668;
1145.4000;0.2499;0.5668;
1145.7000;0.2507;0.5595;
1146.0000;0.2515;0.5619;
1146.3000;0.2556;0.5741;
1146.6000;0.2491;0.5547;
1146.9000;0.2499;0.5474;
1147.2000;0.2540;0.5644;
1147.5000;0.2523;0.5571;
1147.8000;0.2483;0.5426;
1148.1000;0.2491;0.5450;
1148.4000;0.2499;0.5426;
1148.7000;0.2499;0.5401;
1149.0000;0.2491;0.5426;
1149.3000;0.2523;0.5474;
1149.6000;0.2523;0.5401;
1149.9000;0.2491;0.5329;
1150.2000;0.2491;0.5377;
1150.5000;0.2483;0.5329;
1150.8000;0.2491;0.5353;
1151.1000;0.2499;0.5426;
1151.4000;0.2499;0.5426;
1151.7000;0.2491;0.5474;
1152.0000;0.2483;0.5474;
1152.3000;0.2475;0.5474;
1152.6000;0.2491;0.5498;
1152.9000;0.2499;0.5547;
1153.2000;0.2483;0.5474;
1153.5000;0.2491;0.5498;
1153.8000;0.2466;0.5401;
1154.1000;0.2483;0.5426;
1154.4000;0.2491;0.5426;
1154.7000;0.2491;0.5426;
1155.0000;0.2491;0.5426;
1155.3000;0.2475;0.5280;
1155.6000;0.2483;0.5280;
1155.9000;0.2580;0.5498;
1156.2000;0.2401;0.5014;
1156.5000;0.2491;0.5232;
1156.8000;0.2491;0.5305;
1157.1000;0.2483;0.5426;
1157.4000;0.2507;0.5619;
1157.7000;0.2491;0.5619;
1158.0000;0.2475;0.5595;
1158.3000;0.2499;0.5547;
1158.6000;0.2532;0.5523;
1158.9000;0.2475;0.5305;
1159.2000;0.2491;0.5401;
1159.5000;0.2483;0.5426;
1159.8000;0.2475;0.5401;
1160.1000;0.2499;0.5498;
1160.4000;0.2491;0.5450;
1160.7000;0.2466;0.5450;
1161.0000;0.2515;0.5595;
1161.3000;0.2523;0.5523;
1161.6000;0.2491;0.5450;
1161.9000;0.2507;0.5523;
1162.2000;0.2426;0.5353;
1162.5000;0.2515;0.5571;
1162.8000;0.2499;0.5498;
1163.1000;0.2515;0.5498;
1163.4000;0.2491;0.5426;
1163.7000;0.2507;0.5377;
1164.0000;0.2491;0.5305;
1164.3000;0.2532;0.5450;
1164.6000;0.2499;0.5377;
1164.9000;0.2483;0.5329;
1165.2000;0.2515;0.5498;
1165.5000;0.2621;0.5886;
1165.8000;0.2499;0.5523;
1166.1000;0.2466;0.5426;
1166.4000;0.2491;0.5401;
1166.7000;0.2466;0.5353;
1167.0000;0.2491;0.5426;
1167.3000;0.2572;0.5692;
1167.6000;0.2483;0.5401;
1167.9000;0.2507;0.5426;
1168.2000;0.2499;0.5498;
1168.5000;0.2491;0.5523;
1168.8000;0.2507;0.5547;
1169.1000;0.2475;0.5450;
1169.4000;0.2507;0.5547;
1169.7000;0.2491;0.5377;
1170.0000;0.2475;0.5256;
1170.3000;0.2491;0.5329;
1170.6000;0.2532;0.5523;
1170.9000;0.2491;0.5450;
1171.2000;0.2564;0.5619;
1171.5000;0.2499;0.5523;
1171.8000;0.2483;0.5523;
1172.1000;0.2491;0.5523;
1172.4000;0.2499;0.5571;
1172.7000;0.2491;0.5571;
1173.0000;0.2483;0.5523;
1173.3000;0.2475;0.5474;
1173.6000;0.2483;0.5474;
1173.9000;0.2499;0.5523;
1174.2000;0.2491;0.5474;
1174.5000;0.2507;0.5498;
1174.8000;0.2475;0.5377;
1175.1000;0.2466;0.5280;
1175.4000;0.2499;0.5329;
1175.7000;0.2507;0.5426;
1176.0000;0.2483;0.5353;
1176.3000;0.2499;0.5353;
1176.6000;0.2507;0.5474;
1176.9000;0.2515;0.5547;
1177.2000;0.2507;0.5571;
1177.5000;0.2483;0.5523;
1177.8000;0.2532;0.5741;
1178.1000;0.2532;0.5716;
1178.4000;0.2507;0.5692;
1178.7000;0.2483;0.5668;
1179.0000;0.2401;0.5426;
1179.3000;0.2499;0.5644;
1179.6000;0.2499;0.5644;
1179.9000;0.2401;0.5353;
1180.2000;0.2483;0.5450;
1180.5000;0.2589;0.5619;
1180.8000;0.2466;0.5377;
1181.1000;0.2491;0.5571;
1181.4000;0.2466;0.5644;
1181.7000;0.2483;0.5692;
1182.0000;0.2483;0.5619;
1182.3000;0.2491;0.5595;
1182.6000;0.2475;0.5523;
1182.9000;0.2475;0.5619;
1183.2000;0.2475;0.5595;
1183.5000;0.2491;0.5644;
1183.8000;0.2377;0.5426;
1184.1000;0.2515;0.5716;
1184.4000;0.2466;0.5547;
1184.7000;0.2499;0.5644;
1185.0000;0.2409;0.5329;
1185.3000;0.2499;0.5523;
1185.6000;0.2450;0.5401;
1185.9000;0.2515;0.5571;
1186.2000;0.2499;0.5498;
1186.5000;0.2499;0.5571;
1186.8000;0.2499;0.5571;
1187.1000;0.2507;0.5571;
1187.4000;0.2475;0.5426;
1187.7000;0.2491;0.5547;
1188.0000;0.2450;0.5474;
1188.3000;0.2499;0.5741;
1188.6000;0.2466;0.5668;
1188.9000;0.2475;0.5692;
1189.2000;0.2483;0.5668;
1189.5000;0.2491;0.5619;
1189.8000;0.2556;0.5886;
1190.1000;0.2483;0.5668;
1190.4000;0.2483;0.5619;
1190.7000;0.2507;0.5692;
1191.0000;0.2483;0.5619;
1191.3000;0.2483;0.5619;
1191.6000;0.2483;0.5595;
1191.9000;0.2515;0.5595;
1192.2000;0.2499;0.5595;
1192.5000;0.2499;0.5571;
1192.8000;0.2491;0.5571;
1193.1000;0.2515;0.5668;
1193.4000;0.2491;0.5571;
1193.7000;0.2491;0.5571;
1194.0000;0.2491;0.5523;
1194.3000;0.2507;0.5523;
1194.6000;0.2491;0.5498;
1194.9000;0.2499;0.5498;
1195.2000;0.2532;0.5571;
1195.5000;0.2491;0.5498;
1195.8000;0.2507;0.5523;
1196.1000;0.2515;0.5498;
1196.4000;0.2458;0.5401;
1196.7000;0.2466;0.5450;
1197.0000;0.2515;0.5547;
1197.3000;0.2401;0.5305;
1197.6000;0.2507;0.5619;
1197.9000;0.2499;0.5619;
1198.2000;0.2507;0.5741;
1198.5000;0.2515;0.5765;
1198.8000;0.2523;0.5789;
1199.1000;0.2499;0.5813;
1199.4000;0.2499;0.5765;
1199.7000;0.2515;0.5813;
1200.0000;0.2499;0.5837;
1200.3000;0.2475;0.5741;
1200.6000;0.2475;0.5716;
1200.9000;0.2499;0.5789;
1201.2000;0.2466;0.5692;
1201.5000;0.2499;0.5765;
1201.8000;0.2475;0.5595;
1202.1000;0.2499;0.5741;
1202.4000;0.2507;0.5813;
1202.7000;0.2507;0.5668;
1203.0000;0.2385;0.5426;
1203.3000;0.2499;0.5716;
1203.6000;0.2483;0.5716;
1203.9000;0.2572;0.5934;
1204.2000;0.2499;0.5741;
1204.5000;0.2499;0.5716;
1204.8000;0.2523;0.5741;
1205.1000;0.2491;0.5668;
1205.4000;0.2475;0.5547;
1205.7000;0.2475;0.5523;
1206.0000;0.2491;0.5571;
1206.3000;0.2491;0.5595;
1206.6000;0.2507;0.5692;
1206.9000;0.2499;0.5644;
1207.2000;0.2491;0.5619;
1207.5000;0.2491;0.5571;
1207.8000;0.2499;0.5619;
1208.1000;0.2548;0.5716;
1208.4000;0.2499;0.5595;
1208.7000;0.2483;0.5595;
1209.0000;0.2483;0.5619;
1209.3000;0.2483;0.5547;
1209.6000;0.2507;0.5547;
1209.9000;0.2499;0.5523;
1210.2000;0.2507;0.5498;
1210.5000;0.2475;0.5498;
1210.8000;0.2483;0.5523;
1211.1000;0.2515;0.5571;
1211.4000;0.2466;0.5474;
1211.7000;0.2491;0.5547;
1212.0000;0.2491;0.5474;
1212.3000;0.2475;0.5401;
1212.6000;0.2491;0.5353;
1212.9000;0.2507;0.5401;
1213.2000;0.2499;0.5426;
1213.5000;0.2483;0.5498;
1213.8000;0.2507;0.5523;
1214.1000;0.2499;0.5571;
1214.4000;0.2491;0.5571;
1214.7000;0.2483;0.5450;
1215.0000;0.2499;0.5523;
1215.3000;0.2491;0.5547;
1215.6000;0.2483;0.5571;
1215.9000;0.2483;0.5498;
1216.2000;0.2507;0.5644;
1216.5000;0.2507;0.5644;
1216.8000;0.2499;0.5450;
1217.1000;0.2483;0.5426;
1217.4000;0.2515;0.5426;
1217.7000;0.2475;0.5353;
1218.0000;0.2491;0.5450;
1218.3000;0.2450;0.5377;
1218.6000;0.2483;0.5523;
1218.9000;0.2466;0.5523;
1219.2000;0.2475;0.5571;
1219.5000;0.2491;0.5571;
1219.8000;0.2483;0.5571;
1220.1000;0.2507;0.5741;
1220.4000;0.2491;0.5741;
1220.7000;0.2483;0.5789;
1221.0000;0.2483;0.5716;
1221.3000;0.2556;0.5862;
1221.6000;0.2466;0.5595;
1221.9000;0.2515;0.5668;
1222.2000;0.2507;0.5619;
1222.5000;0.2483;0.5474;
1222.8000;0.2483;0.5523;
1223.1000;0.2483;0.5523;
1223.4000;0.2491;0.5571;
1223.7000;0.2499;0.5619;
1224.0000;0.2499;0.5668;
1224.3000;0.2491;0.5644;
1224.6000;0.2491;0.5644;
1224.9000;0.2491;0.5595;
1225.2000;0.2491;0.5498;
1225.5000;0.2499;0.5595;
1225.8000;0.2548;0.5644;
1226.1000;0.2540;0.5644;
1226.4000;0.2483;0.5547;
1226.7000;0.2483;0.5571;
1227.0000;0.2507;0.5571;
1227.3000;0.2499;0.5571;
1227.6000;0.2491;0.5571;
1227.9000;0.2532;0.5668;
1228.2000;0.2491;0.5571;
1228.5000;0.2483;0.5595;
1228.8000;0.2548;0.5644;
1229.1000;0.2499;0.5595;
1229.4000;0.2499;0.5595;
1229.7000;0.2491;0.5571;
1230.0000;0.2499;0.5571;
1230.3000;0.2507;0.5644;
1230.6000;0.2548;0.5716;
1230.9000;0.2556;0.5741;
1231.2000;0.2475;0.5523;
1231.5000;0.2515;0.5523;
1231.8000;0.2499;0.5523;
1232.1000;0.2499;0.5474;
1232.4000;0.2507;0.5474;
1232.7000;0.2483;0.5498;
1233.0000;0.2507;0.5668;
1233.3000;0.2483;0.5595;
1233.6000;0.2450;0.5450;
1233.9000;0.2491;0.5571;
1234.2000;0.2589;0.5789;
1234.5000;0.2499;0.5547;
1234.8000;0.2515;0.5595;
1235.1000;0.2499;0.5547;
1235.4000;0.2491;0.5450;
1235.7000;0.2499;0.5450;
1236.0000;0.2483;0.5450;
1236.3000;0.2491;0.5450;
1236.6000;0.2507;0.5426;
1236.9000;0.2589;0.5644;
1237.2000;0.2499;0.5474;
1237.5000;0.2475;0.5450;
1237.8000;0.2491;0.5498;
1238.1000;0.2491;0.5523;
1238.4000;0.2507;0.5595;
1238.7000;0.2475;0.5644;
1239.0000;0.2466;0.5595;
1239.3000;0.2507;0.5619;
1239.6000;0.2499;0.5595;
1239.9000;0.2499;0.5571;
1240.2000;0.2442;0.5426;
1240.5000;0.2377;0.5232;
1240.8000;0.2491;0.5595;
1241.1000;0.2491;0.5547;
1241.4000;0.2491;0.5450;
1241.7000;0.2466;0.5329;
1242.0000;0.2483;0.5401;
1242.3000;0.2564;0.5595;
1242.6000;0.2499;0.5353;
1242.9000;0.2483;0.5450;
1243.2000;0.2491;0.5329;
1243.5000;0.2483;0.5256;
1243.8000;0.2499;0.5232;
1244.1000;0.2483;0.5208;
1244.4000;0.2450;0.5159;
1244.7000;0.2491;0.5280;
1245.0000;0.2483;0.5305;
1245.3000;0.2475;0.5232;
1245.6000;0.2483;0.5183;
1245.9000;0.2491;0.5135;
1246.2000;0.2475;0.5111;
1246.5000;0.2475;0.5038;
1246.8000;0.2466;0.4990;
1247.1000;0.2466;0.5111;
1247.4000;0.2475;0.5183;
1247.7000;0.2475;0.5183;
1248.0000;0.2540;0.5377;
1248.3000;0.2491;0.5232;
1248.6000;0.2483;0.5280;
1248.9000;0.2483;0.5305;
1249.2000;0.2491;0.5280;
1249.5000;0.2499;0.5329;
1249.8000;0.2475;0.5353;
1250.1000;0.2401;0.5159;
1250.4000;0.2483;0.5377;
1250.7000;0.2556;0.5692;
1251.0000;0.2499;0.5595;
1251.3000;0.2491;0.5523;
1251.6000;0.2499;0.5498;
1251.9000;0.2491;0.5595;
1252.2000;0.2499;0.5571;
1252.5000;0.2426;0.5377;
1252.8000;0.2491;0.5571;
1253.1000;0.2499;0.5523;
1253.4000;0.2499;0.5523;
1253.7000;0.2483;0.5450;
1254.0000;0.2499;0.5595;
1254.3000;0.2475;0.5498;
1254.6000;0.2507;0.5668;
1254.9000;0.2499;0.5692;
1255.2000;0.2483;0.5692;
1255.5000;0.2499;0.5716;
1255.8000;0.2515;0.5668;
1256.1000;0.2637;0.6007;
1256.4000;0.2491;0.5571;
1256.7000;0.2499;0.5668;
1257.0000;0.2491;0.5668;
1257.3000;0.2580;0.5862;
1257.6000;0.2532;0.5741;
1257.9000;0.2450;0.5523;
1258.2000;0.2556;0.5741;
1258.5000;0.2499;0.5619;
1258.8000;0.2491;0.5595;
1259.1000;0.2491;0.5571;
1259.4000;0.2466;0.5498;
1259.7000;0.2491;0.5547;
1260.0000;0.2532;0.5668;
1260.3000;0.2499;0.5619;
1260.6000;0.2507;0.5619;
1260.9000;0.2515;0.5571;
1261.2000;0.2507;0.5595;
1261.5000;0.2572;0.5765;
1261.8000;0.2491;0.5377;
1262.1000;0.2491;0.5450;
1262.4000;0.2540;0.5595;
1262.7000;0.2556;0.5619;
1263.0000;0.2507;0.5450;
1263.3000;0.2450;0.5280;
1263.6000;0.2466;0.5329;
1263.9000;0.2466;0.5377;
1264.2000;0.2418;0.5232;
1264.5000;0.2491;0.5450;
1264.8000;0.2507;0.5474;
1265.1000;0.2499;0.5523;
1265.4000;0.2499;0.5498;
1265.7000;0.2491;0.5498;
1266.0000;0.2507;0.5474;
1266.3000;0.2507;0.5450;
1266.6000;0.2605;0.5765;
1266.9000;0.2507;0.5426;
1267.2000;0.2483;0.5256;
1267.5000;0.2499;0.5305;
1267.8000;0.2491;0.5426;
1268.1000;0.2491;0.5401;
1268.4000;0.2491;0.5450;
1268.7000;0.2450;0.5353;
1269.0000;0.2491;0.5474;
1269.3000;0.2499;0.5547;
1269.6000;0.2475;0.5523;
1269.9000;0.2483;0.5498;
1270.2000;0.2507;0.5571;
1270.5000;0.2466;0.5450;
1270.8000;0.2507;0.5523;
1271.1000;0.2507;0.5595;
1271.4000;0.2483;0.5547;
1271.7000;0.2491;0.5595;
1272.0000;0.2491;0.5619;
1272.3000;0.2491;0.5619;
1272.6000;0.2499;0.5644;
1272.9000;0.2491;0.5547;
1273.2000;0.2499;0.5644;
1273.5000;0.2475;0.5595;
1273.8000;0.2491;0.5571;
1274.1000;0.2507;0.5668;
1274.4000;0.2475;0.5571;
1274.7000;0.2458;0.5547;
1275.0000;0.2491;0.5644;
1275.3000;0.2475;0.5619;
1275.6000;0.2507;0.5716;
1275.9000;0.2483;0.5692;
1276.2000;0.2499;0.5765;
1276.5000;0.2507;0.5644;
1276.8000;0.2483;0.5644;
1277.1000;0.2515;0.5692;
1277.4000;0.2458;0.5547;
1277.7000;0.2466;0.5571;
1278.0000;0.2466;0.5595;
1278.3000;0.2475;0.5547;
1278.6000;0.2483;0.5595;
1278.9000;0.2458;0.5619;
1279.2000;0.2523;0.5716;
1279.5000;0.2442;0.5498;
1279.8000;0.2475;0.5644;
1280.1000;0.2328;0.5208;
1280.4000;0.2515;0.5644;
1280.7000;0.2352;0.5232;
1281.0000;0.2507;0.5668;
1281.3000;0.2450;0.5498;
1281.6000;0.2499;0.5692;
1281.9000;0.2466;0.5571;
1282.2000;0.2475;0.5571;
1282.5000;0.2499;0.5692;
1282.8000;0.2483;0.5619;
1283.1000;0.2442;0.5450;
1283.4000;0.2540;0.5741;
1283.7000;0.2483;0.5498;
1284.0000;0.2458;0.5498;
1284.3000;0.2426;0.5498;
1284.6000;0.2450;0.5547;
1284.9000;0.2483;0.5595;
1285.2000;0.2499;0.5668;
1285.5000;0.2475;0.5523;
1285.8000;0.2475;0.5498;
1286.1000;0.2491;0.5401;
1286.4000;0.2483;0.5305;
1286.7000;0.2499;0.5426;
1287.0000;0.2491;0.5426;
1287.3000;0.2499;0.5426;
1287.6000;0.2507;0.5523;
1287.9000;0.2483;0.5644;
1288.2000;0.2507;0.5619;
1288.5000;0.2499;0.5692;
1288.8000;0.2491;0.5619;
1289.1000;0.2491;0.5595;
1289.4000;0.2491;0.5619;
1289.7000;0.2499;0.5765;
1290.0000;0.2491;0.5692;
1290.3000;0.2499;0.5619;
1290.6000;0.2499;0.5644;
1290.9000;0.2483;0.5619;
1291.2000;0.2483;0.5547;
1291.5000;0.2491;0.5523;
1291.8000;0.2507;0.5547;
1292.1000;0.2499;0.5571;
1292.4000;0.2491;0.5523;
1292.7000;0.2491;0.5474;
1293.0000;0.2515;0.5571;
1293.3000;0.2507;0.5571;
1293.6000;0.2483;0.5547;
1293.9000;0.2499;0.5619;
1294.2000;0.2507;0.5644;
1294.5000;0.2491;0.5595;
1294.8000;0.2507;0.5571;
1295.1000;0.2475;0.5474;
1295.4000;0.2491;0.5523;
1295.7000;0.2507;0.5523;
1296.0000;0.2580;0.5716;
1296.3000;0.2491;0.5498;
1296.6000;0.2523;0.5644;
1296.9000;0.2458;0.5523;
1297.2000;0.2507;0.5595;
1297.5000;0.2483;0.5571;
1297.8000;0.2434;0.5401;
1298.1000;0.2499;0.5498;
1298.4000;0.2491;0.5401;
1298.7000;0.2483;0.5450;
1299.0000;0.2564;0.5716;
1299.3000;0.2491;0.5571;
1299.6000;0.2491;0.5571;
1299.9000;0.2499;0.5571;
1300.2000;0.2491;0.5498;
1300.5000;0.2491;0.5474;
1300.8000;0.2483;0.5377;
1301.1000;0.2507;0.5377;
1301.4000;0.2499;0.5426;
1301.7000;0.2475;0.5426;
1302.0000;0.2499;0.5523;
1302.3000;0.2515;0.5523;
1302.6000;0.2597;0.5716;
1302.9000;0.2499;0.5523;
1303.2000;0.2491;0.5547;
1303.5000;0.2515;0.5668;
1303.8000;0.2499;0.5595;
1304.1000;0.2458;0.5523;
1304.4000;0.2523;0.5619;
1304.7000;0.2491;0.5595;
1305.0000;0.2491;0.5523;
1305.3000;0.2491;0.5498;
1305.6000;0.2499;0.5595;
1305.9000;0.2483;0.5644;
1306.2000;0.2507;0.5668;
1306.5000;0.2385;0.5353;
1306.8000;0.2499;0.5547;
1307.1000;0.2483;0.5450;
1307.4000;0.2483;0.5426;
1307.7000;0.2475;0.5426;
1308.0000;0.2515;0.5571;
1308.3000;0.2507;0.5571;
1308.6000;0.2491;0.5498;
1308.9000;0.2499;0.5523;
1309.2000;0.2475;0.5547;
1309.5000;0.2491;0.5547;
1309.8000;0.2442;0.5377;
1310.1000;0.2483;0.5474;
1310.4000;0.2507;0.5547;
1310.7000;0.2499;0.5474;
1311.0000;0.2515;0.5523;
1311.3000;0.2483;0.5377;
1311.6000;0.2499;0.5401;
1311.9000;0.2385;0.5111;
1312.2000;0.2483;0.5353;
1312.5000;0.2499;0.5401;
1312.8000;0.2475;0.5280;
1313.1000;0.2466;0.5280;
1313.4000;0.2491;0.5280;
1313.7000;0.2507;0.5305;
1314.0000;0.2475;0.5232;
1314.3000;0.2483;0.5305;
1314.6000;0.2483;0.5377;
1314.9000;0.2499;0.5450;
1315.2000;0.2483;0.5353;
1315.5000;0.2507;0.5450;
1315.8000;0.2523;0.5547;
1316.1000;0.2515;0.5547;
1316.4000;0.2491;0.5498;
1316.7000;0.2458;0.5426;
1317.0000;0.2491;0.5547;
1317.3000;0.2499;0.5595;
1317.6000;0.2483;0.5619;
1317.9000;0.2491;0.5547;
1318.2000;0.2532;0.5644;
1318.5000;0.2523;0.5523;
1318.8000;0.2466;0.5377;
1319.1000;0.2515;0.5450;
1319.4000;0.2483;0.5353;
1319.7000;0.2491;0.5305;
1320.0000;0.2499;0.5305;
1320.3000;0.2483;0.5256;
1320.6000;0.2507;0.5474;
1320.9000;0.2483;0.5401;
1321.2000;0.2393;0.5280;
1321.5000;0.2507;0.5523;
1321.8000;0.2499;0.5595;
1322.1000;0.2507;0.5523;
1322.4000;0.2507;0.5571;
1322.7000;0.2515;0.5523;
1323.0000;0.2483;0.5401;
1323.3000;0.2491;0.5353;
1323.6000;0.2483;0.5305;
1323.9000;0.2515;0.5377;
1324.2000;0.2499;0.5305;
1324.5000;0.2483;0.5305;
1324.8000;0.2393;0.5159;
1325.1000;0.2499;0.5426;
1325.4000;0.2466;0.5329;
1325.7000;0.2491;0.5305;
1326.0000;0.2507;0.5305;
1326.3000;0.2532;0.5450;
1326.6000;0.2507;0.5353;
1326.9000;0.2507;0.5305;
1327.2000;0.2475;0.5280;
1327.5000;0.2499;0.5305;
1327.8000;0.2499;0.5305;
1328.1000;0.2507;0.5329;
1328.4000;0.2499;0.5377;
1328.7000;0.2507;0.5450;
1329.0000;0.2515;0.5474;
1329.3000;0.2621;0.5886;
1329.6000;0.2466;0.5474;
1329.9000;0.2491;0.5450;
1330.2000;0.2475;0.5426;
1330.5000;0.2499;0.5450;
1330.8000;0.2499;0.5353;
1331.1000;0.2491;0.5280;
1331.4000;0.2499;0.5353;
1331.7000;0.2458;0.5329;
1332.0000;0.2491;0.5353;
1332.3000;0.2564;0.5547;
1332.6000;0.2491;0.5450;
1332.9000;0.2491;0.5523;
1333.2000;0.2475;0.5450;
1333.5000;0.2483;0.5523;
1333.8000;0.2499;0.5595;
1334.1000;0.2507;0.5692;
1334.4000;0.2499;0.5741;
1334.7000;0.2361;0.5377;
1335.0000;0.2499;0.5765;
1335.3000;0.2377;0.5305;
1335.6000;0.2499;0.5595;
1335.9000;0.2458;0.5426;
1336.2000;0.2556;0.5716;
1336.5000;0.2458;0.5547;
1336.8000;0.2499;0.5644;
1337.1000;0.2475;0.5571;
1337.4000;0.2475;0.5523;
1337.7000;0.2491;0.5595;
1338.0000;0.2507;0.5644;
1338.3000;0.2499;0.5644;
1338.6000;0.2491;0.5692;
1338.9000;0.2491;0.5619;
1339.2000;0.2491;0.5595;
1339.5000;0.2499;0.5595;
1339.8000;0.2499;0.5619;
1340.1000;0.2491;0.5644;
1340.4000;0.2499;0.5644;
1340.7000;0.2491;0.5619;
1341.0000;0.2491;0.5547;
1341.3000;0.2491;0.5547;
1341.6000;0.2499;0.5547;
1341.9000;0.2466;0.5474;
1342.2000;0.2466;0.5523;
1342.5000;0.2475;0.5523;
1342.8000;0.2483;0.5547;
1343.1000;0.2499;0.5595;
1343.4000;0.2466;0.5450;
1343.7000;0.2491;0.5523;
1344.0000;0.2491;0.5523;
1344.3000;0.2507;0.5692;
1344.6000;0.2523;0.5765;
1344.9000;0.2507;0.5668;
1345.2000;0.2483;0.5547;
1345.5000;0.2483;0.5547;
1345.8000;0.2466;0.5619;
1346.1000;0.2507;0.5644;
1346.4000;0.2499;0.5523;
1346.7000;0.2491;0.5498;
1347.0000;0.2499;0.5571;
1347.3000;0.2491;0.5547;
1347.6000;0.2418;0.5377;
1347.9000;0.2491;0.5498;
1348.2000;0.2491;0.5523;
1348.5000;0.2491;0.5523;
1348.8000;0.2523;0.5619;
1349.1000;0.2499;0.5595;
1349.4000;0.2523;0.5644;
1349.7000;0.2499;0.5692;
1350.0000;0.2499;0.5741;
1350.3000;0.2556;0.5862;
1350.6000;0.2499;0.5619;
1350.9000;0.2515;0.5547;
1351.2000;0.2483;0.5474;
1351.5000;0.2507;0.5523;
1351.8000;0.2491;0.5474;
1352.1000;0.2491;0.5401;
1352.4000;0.2507;0.5450;
1352.7000;0.2483;0.5329;
1353.0000;0.2491;0.5401;
1353.3000;0.2499;0.5353;
1353.6000;0.2458;0.5183;
1353.9000;0.2483;0.5280;
1354.2000;0.2507;0.5450;
1354.5000;0.2507;0.5498;
1354.8000;0.2466;0.5498;
1355.1000;0.2499;0.5571;
1355.4000;0.2540;0.5644;
1355.7000;0.2466;0.5280;
1356.0000;0.2499;0.5377;
1356.3000;0.2483;0.5280;
1356.6000;0.2475;0.5280;
1356.9000;0.2475;0.5353;
1357.2000;0.2507;0.5426;
1357.5000;0.2515;0.5474;
1357.8000;0.2483;0.5401;
1358.1000;0.2483;0.5426;
1358.4000;0.2572;0.5668;
1358.7000;0.2434;0.5305;
1359.0000;0.2499;0.5450;
1359.3000;0.2523;0.5523;
1359.6000;0.2483;0.5498;
1359.9000;0.2499;0.5474;
1360.2000;0.2483;0.5377;
1360.5000;0.2507;0.5377;
1360.8000;0.2458;0.5256;
1361.1000;0.2491;0.5377;
1361.4000;0.2564;0.5571;
1361.7000;0.2580;0.5644;
1362.0000;0.2491;0.5426;
1362.3000;0.2499;0.5401;
1362.6000;0.2475;0.5280;
1362.9000;0.2466;0.5208;
1363.2000;0.2507;0.5353;
1363.5000;0.2491;0.5329;
1363.8000;0.2483;0.5377;
1364.1000;0.2507;0.5401;
1364.4000;0.2507;0.5426;
1364.7000;0.2491;0.5329;
1365.0000;0.2499;0.5305;
1365.3000;0.2483;0.5305;
1365.6000;0.2491;0.5353;
1365.9000;0.2572;0.5571;
1366.2000;0.2491;0.5377;
1366.5000;0.2491;0.5329;
1366.8000;0.2499;0.5329;
1367.1000;0.2556;0.5377;
1367.4000;0.2515;0.5256;
1367.7000;0.2409;0.4917;
1368.0000;0.2507;0.5208;
1368.3000;0.2475;0.5280;
1368.6000;0.2515;0.5377;
1368.9000;0.2548;0.5547;
1369.2000;0.2597;0.5789;
1369.5000;0.2507;0.5644;
1369.8000;0.2491;0.5668;
1370.1000;0.2515;0.5668;
1370.4000;0.2499;0.5644;
1370.7000;0.2491;0.5498;
1371.0000;0.2507;0.5619;
1371.3000;0.2483;0.5498;
1371.6000;0.2475;0.5450;
1371.9000;0.2491;0.5619;
1372.2000;0.2450;0.5474;
1372.5000;0.2491;0.5644;
1372.8000;0.2499;0.5668;
1373.1000;0.2466;0.5619;
1373.4000;0.2483;0.5619;
1373.7000;0.2491;0.5619;
1374.0000;0.2499;0.5619;
1374.3000;0.2621;0.5983;
1374.6000;0.2483;0.5595;
1374.9000;0.2491;0.5571;
1375.2000;0.2491;0.5498;
1375.5000;0.2499;0.5474;
1375.8000;0.2491;0.5498;
1376.1000;0.2499;0.5547;
1376.4000;0.2499;0.5547;
1376.7000;0.2483;0.5523;
1377.0000;0.2475;0.5426;
1377.3000;0.2499;0.5547;
1377.6000;0.2483;0.5474;
1377.9000;0.2475;0.5401;
1378.2000;0.2458;0.5401;
1378.5000;0.2475;0.5547;
1378.8000;0.2507;0.5619;
1379.1000;0.2466;0.5547;
1379.4000;0.2450;0.5523;
1379.7000;0.2393;0.5401;
1380.0000;0.2515;0.5741;
1380.3000;0.2483;0.5668;
1380.6000;0.2475;0.5644;
1380.9000;0.2466;0.5668;
1381.2000;0.2499;0.5668;
1381.5000;0.2507;0.5668;
1381.8000;0.2475;0.5523;
1382.1000;0.2475;0.5547;
1382.4000;0.2532;0.5619;
1382.7000;0.2564;0.5619;
1383.0000;0.2548;0.5741;
1383.3000;0.2483;0.5668;
1383.6000;0.2483;0.5595;
1383.9000;0.2499;0.5547;
1384.2000;0.2499;0.5571;
1384.5000;0.2499;0.5619;
1384.8000;0.2499;0.5571;
1385.1000;0.2491;0.5619;
1385.4000;0.2499;0.5692;
1385.7000;0.2491;0.5644;
1386.0000;0.2499;0.5571;
1386.3000;0.2491;0.5595;
1386.6000;0.2499;0.5692;
1386.9000;0.2499;0.5716;
1387.2000;0.2491;0.5644;
1387.5000;0.2466;0.5474;
1387.8000;0.2491;0.5474;
1388.1000;0.2499;0.5523;
1388.4000;0.2483;0.5571;
1388.7000;0.2499;0.5644;
1389.0000;0.2515;0.5741;
1389.3000;0.2499;0.5644;
1389.6000;0.2475;0.5619;
1389.9000;0.2499;0.5644;
1390.2000;0.2499;0.5668;
1390.5000;0.2483;0.5741;
1390.8000;0.2523;0.5813;
1391.1000;0.2491;0.5716;
1391.4000;0.2499;0.5741;
1391.7000;0.2483;0.5644;
1392.0000;0.2572;0.5886;
1392.3000;0.2483;0.5668;
1392.6000;0.2507;0.5668;
1392.9000;0.2507;0.5595;
1393.2000;0.2483;0.5474;
1393.5000;0.2499;0.5571;
1393.8000;0.2483;0.5523;
1394.1000;0.2499;0.5523;
1394.4000;0.2499;0.5474;
1394.7000;0.2491;0.5377;
1395.0000;0.2499;0.5401;
1395.3000;0.2507;0.5353;
1395.6000;0.2515;0.5401;
1395.9000;0.2491;0.5377;
1396.2000;0.2507;0.5426;
1396.5000;0.2466;0.5353;
1396.8000;0.2491;0.5426;
1397.1000;0.2491;0.5450;
1397.4000;0.2483;0.5571;
1397.7000;0.2499;0.5692;
1398.0000;0.2507;0.5765;
1398.3000;0.2507;0.5741;
1398.6000;0.2515;0.5765;
1398.9000;0.2499;0.5741;
1399.2000;0.2483;0.5668;
1399.5000;0.2507;0.5692;
1399.8000;0.2491;0.5595;
