time/ms;Fluo/V;P700 deltaI/I x10³;
-199.8000;0.2475;0.5426;
-199.5000;0.2483;0.5377;
-199.2000;0.2556;0.5595;
-198.9000;0.2499;0.5474;
-198.6000;0.2475;0.5474;
-198.3000;0.2491;0.5547;
-198.0000;0.2507;0.5547;
-197.7000;0.2475;0.5595;
-197.4000;0.2491;0.5619;
-197.1000;0.2499;0.5595;
-196.8000;0.2475;0.5523;
-196.5000;0.2483;0.5523;
-196.2000;0.2466;0.5523;
-195.9000;0.2507;0.5619;
-195.6000;0.2507;0.5571;
-195.3000;0.2483;0.5547;
-195.0000;0.2475;0.5377;
-194.7000;0.2475;0.5426;
-194.4000;0.2491;0.5426;
-194.1000;0.2499;0.5426;
-193.8000;0.2507;0.5426;
-193.5000;0.2556;0.5571;
-193.2000;0.2499;0.5523;
-192.9000;0.2589;0.5813;
-192.6000;0.2507;0.5692;
-192.3000;0.2548;0.5837;
-192.0000;0.2442;0.5619;
-191.7000;0.2491;0.5741;
-191.4000;0.2499;0.5668;
-191.1000;0.2466;0.5619;
-190.8000;0.2491;0.5523;
-190.5000;0.2499;0.5571;
-190.2000;0.2491;0.5619;
-189.9000;0.2499;0.5595;
-189.6000;0.2507;0.5547;
-189.3000;0.2499;0.5523;
-189.0000;0.2507;0.5498;
-188.7000;0.2515;0.5595;
-188.4000;0.2483;0.5426;
-188.1000;0.2491;0.5426;
-187.8000;0.2491;0.5498;
-187.5000;0.2483;0.5450;
-187.2000;0.2523;0.5523;
-186.9000;0.2515;0.5498;
-186.6000;0.2499;0.5450;
-186.3000;0.2483;0.5474;
-186.0000;0.2393;0.5208;
-185.7000;0.2483;0.5474;
-185.4000;0.2483;0.5474;
-185.1000;0.2450;0.5426;
-184.8000;0.2466;0.5523;
-184.5000;0.2491;0.5523;
-184.2000;0.2515;0.5450;
-183.9000;0.2483;0.5401;
-183.6000;0.2475;0.5329;
-183.3000;0.2507;0.5353;
-183.0000;0.2393;0.5183;
-182.7000;0.2556;0.5547;
-182.4000;0.2499;0.5450;
-182.1000;0.2483;0.5523;
-181.8000;0.2499;0.5523;
-181.5000;0.2499;0.5426;
-181.2000;0.2475;0.5401;
-180.9000;0.2475;0.5426;
-180.6000;0.2466;0.5401;
-180.3000;0.2499;0.5523;
-180.0000;0.2499;0.5619;
-179.7000;0.2483;0.5619;
-179.4000;0.2491;0.5692;
-179.1000;0.2499;0.5789;
-178.8000;0.2515;0.5644;
-178.5000;0.2507;0.5595;
-178.2000;0.2475;0.5595;
-177.9000;0.2499;0.5668;
-177.6000;0.2540;0.5789;
-177.3000;0.2499;0.5619;
-177.0000;0.2450;0.5523;
-176.7000;0.2475;0.5571;
-176.4000;0.2507;0.5644;
-176.1000;0.2491;0.5571;
-175.8000;0.2491;0.5547;
-175.5000;0.2491;0.5547;
-175.2000;0.2450;0.5305;
-174.9000;0.2532;0.5523;
-174.6000;0.2491;0.5305;
-174.3000;0.2499;0.5305;
-174.0000;0.2507;0.5305;
-173.7000;0.2491;0.5377;
-173.4000;0.2442;0.5256;
-173.1000;0.2483;0.5305;
-172.8000;0.2491;0.5280;
-172.5000;0.2507;0.5353;
-172.2000;0.2491;0.5426;
-171.9000;0.2507;0.5571;
-171.6000;0.2450;0.5377;
-171.3000;0.2475;0.5401;
-171.0000;0.2491;0.5401;
-170.7000;0.2491;0.5329;
-170.4000;0.2532;0.5377;
-170.1000;0.2409;0.5014;
-169.8000;0.2491;0.5353;
-169.5000;0.2458;0.5280;
-169.2000;0.2483;0.5450;
-168.9000;0.2475;0.5498;
-168.6000;0.2491;0.5498;
-168.3000;0.2507;0.5523;
-168.0000;0.2483;0.5401;
-167.7000;0.2483;0.5377;
-167.4000;0.2491;0.5450;
-167.1000;0.2548;0.5571;
-166.8000;0.2499;0.5353;
-166.5000;0.2491;0.5426;
-166.2000;0.2507;0.5450;
-165.9000;0.2515;0.5547;
-165.6000;0.2450;0.5426;
-165.3000;0.2491;0.5498;
-165.0000;0.2475;0.5450;
-164.7000;0.2475;0.5474;
-164.4000;0.2499;0.5474;
-164.1000;0.2491;0.5523;
-163.8000;0.2491;0.5547;
-163.5000;0.2499;0.5547;
-163.2000;0.2499;0.5401;
-162.9000;0.2483;0.5401;
-162.6000;0.2507;0.5450;
-162.3000;0.2507;0.5401;
-162.0000;0.2515;0.5305;
-161.7000;0.2475;0.5256;
-161.4000;0.2499;0.5305;
-161.1000;0.2491;0.5232;
-160.8000;0.2499;0.5208;
-160.5000;0.2466;0.5183;
-160.2000;0.2483;0.5183;
-159.9000;0.2499;0.5232;
-159.6000;0.2499;0.5256;
-159.3000;0.2491;0.5280;
-159.0000;0.2434;0.5111;
-158.7000;0.2507;0.5256;
-158.4000;0.2491;0.5183;
-158.1000;0.2483;0.5232;
-157.8000;0.2507;0.5305;
-157.5000;0.2483;0.5305;
-157.2000;0.2499;0.5280;
-156.9000;0.2491;0.5280;
-156.6000;0.2483;0.5256;
-156.3000;0.2491;0.5329;
-156.0000;0.2499;0.5401;
-155.7000;0.2491;0.5450;
-155.4000;0.2401;0.5183;
-155.1000;0.2491;0.5547;
-154.8000;0.2507;0.5547;
-154.5000;0.2605;0.5789;
-154.2000;0.2450;0.5353;
-153.9000;0.2475;0.5426;
-153.6000;0.2483;0.5450;
-153.3000;0.2491;0.5426;
-153.0000;0.2483;0.5401;
-152.7000;0.2491;0.5426;
-152.4000;0.2499;0.5426;
-152.1000;0.2491;0.5426;
-151.8000;0.2499;0.5426;
-151.5000;0.2466;0.5426;
-151.2000;0.2483;0.5498;
-150.9000;0.2523;0.5619;
-150.6000;0.2458;0.5426;
-150.3000;0.2483;0.5523;
-150.0000;0.2483;0.5450;
-149.7000;0.2483;0.5450;
-149.4000;0.2458;0.5353;
-149.1000;0.2475;0.5426;
-148.8000;0.2491;0.5353;
-148.5000;0.2491;0.5329;
-148.2000;0.2483;0.5353;
-147.9000;0.2475;0.5353;
-147.6000;0.2483;0.5377;
-147.3000;0.2458;0.5329;
-147.0000;0.2499;0.5401;
-146.7000;0.2475;0.5426;
-146.4000;0.2564;0.5644;
-146.1000;0.2491;0.5401;
-145.8000;0.2491;0.5329;
-145.5000;0.2475;0.5329;
-145.2000;0.2499;0.5280;
-144.9000;0.2466;0.5208;
-144.6000;0.2499;0.5329;
-144.3000;0.2426;0.5135;
-144.0000;0.2483;0.5305;
-143.7000;0.2475;0.5353;
-143.4000;0.2483;0.5377;
-143.1000;0.2491;0.5353;
-142.8000;0.2507;0.5426;
-142.5000;0.2483;0.5401;
-142.2000;0.2499;0.5450;
-141.9000;0.2515;0.5523;
-141.6000;0.2499;0.5547;
-141.3000;0.2499;0.5619;
-141.0000;0.2499;0.5619;
-140.7000;0.2499;0.5668;
-140.4000;0.2491;0.5692;
-140.1000;0.2450;0.5547;
-139.8000;0.2475;0.5595;
-139.5000;0.2491;0.5668;
-139.2000;0.2499;0.5619;
-138.9000;0.2564;0.5741;
-138.6000;0.2507;0.5595;
-138.3000;0.2499;0.5547;
-138.0000;0.2475;0.5474;
-137.7000;0.2515;0.5644;
-137.4000;0.2499;0.5571;
-137.1000;0.2532;0.5668;
-136.8000;0.2491;0.5523;
-136.5000;0.2499;0.5498;
-136.2000;0.2491;0.5498;
-135.9000;0.2491;0.5571;
-135.6000;0.2426;0.5353;
-135.3000;0.2523;0.5595;
-135.0000;0.2499;0.5498;
-134.7000;0.2499;0.5474;
-134.4000;0.2483;0.5305;
-134.1000;0.2491;0.5401;
-133.8000;0.2483;0.5305;
-133.5000;0.2491;0.5305;
-133.2000;0.2450;0.5208;
-132.9000;0.2499;0.5401;
-132.6000;0.2483;0.5401;
-132.3000;0.2532;0.5474;
-132.0000;0.2483;0.5329;
-131.7000;0.2491;0.5329;
-131.4000;0.2418;0.5232;
-131.1000;0.2475;0.5426;
-130.8000;0.2466;0.5353;
-130.5000;0.2507;0.5426;
-130.2000;0.2458;0.5377;
-129.9000;0.2475;0.5474;
-129.6000;0.2458;0.5474;
-129.3000;0.2466;0.5474;
-129.0000;0.2475;0.5401;
-128.7000;0.2483;0.5450;
-128.4000;0.2475;0.5401;
-128.1000;0.2507;0.5498;
-127.8000;0.2572;0.5692;
-127.5000;0.2483;0.5426;
-127.2000;0.2483;0.5426;
-126.9000;0.2426;0.5232;
-126.6000;0.2499;0.5474;
-126.3000;0.2491;0.5547;
-126.0000;0.2491;0.5571;
-125.7000;0.2475;0.5595;
-125.4000;0.2483;0.5619;
-125.1000;0.2499;0.5741;
-124.8000;0.2499;0.5619;
-124.5000;0.2450;0.5450;
-124.2000;0.2466;0.5450;
-123.9000;0.2475;0.5474;
-123.6000;0.2475;0.5474;
-123.3000;0.2409;0.5353;
-123.0000;0.2385;0.5256;
-122.7000;0.2491;0.5498;
-122.4000;0.2466;0.5450;
-122.1000;0.2499;0.5450;
-121.8000;0.2507;0.5426;
-121.5000;0.2483;0.5401;
-121.2000;0.2475;0.5377;
-120.9000;0.2483;0.5523;
-120.6000;0.2491;0.5547;
-120.3000;0.2475;0.5523;
-120.0000;0.2499;0.5692;
-119.7000;0.2434;0.5547;
-119.4000;0.2475;0.5644;
-119.1000;0.2491;0.5692;
-118.8000;0.2589;0.5862;
-118.5000;0.2483;0.5644;
-118.2000;0.2466;0.5619;
-117.9000;0.2377;0.5329;
-117.6000;0.2466;0.5547;
-117.3000;0.2475;0.5523;
-117.0000;0.2491;0.5644;
-116.7000;0.2491;0.5619;
-116.4000;0.2499;0.5619;
-116.1000;0.2491;0.5523;
-115.8000;0.2564;0.5668;
-115.5000;0.2475;0.5353;
-115.2000;0.2499;0.5474;
-114.9000;0.2483;0.5353;
-114.6000;0.2483;0.5377;
-114.3000;0.2491;0.5305;
-114.0000;0.2499;0.5426;
-113.7000;0.2507;0.5426;
-113.4000;0.2499;0.5353;
-113.1000;0.2475;0.5280;
-112.8000;0.2499;0.5280;
-112.5000;0.2483;0.5329;
-112.2000;0.2507;0.5450;
-111.9000;0.2466;0.5401;
-111.6000;0.2507;0.5523;
-111.3000;0.2491;0.5498;
-111.0000;0.2483;0.5474;
-110.7000;0.2548;0.5644;
-110.4000;0.2499;0.5571;
-110.1000;0.2475;0.5523;
-109.8000;0.2483;0.5595;
-109.5000;0.2475;0.5571;
-109.2000;0.2532;0.5644;
-108.9000;0.2491;0.5595;
-108.6000;0.2507;0.5523;
-108.3000;0.2377;0.5159;
-108.0000;0.2466;0.5377;
-107.7000;0.2483;0.5353;
-107.4000;0.2442;0.5183;
-107.1000;0.2483;0.5377;
-106.8000;0.2499;0.5401;
-106.5000;0.2475;0.5401;
-106.2000;0.2434;0.5329;
-105.9000;0.2491;0.5426;
-105.6000;0.2466;0.5450;
-105.3000;0.2491;0.5377;
-105.0000;0.2499;0.5329;
-104.7000;0.2491;0.5305;
-104.4000;0.2491;0.5280;
-104.1000;0.2491;0.5305;
-103.8000;0.2491;0.5329;
-103.5000;0.2515;0.5377;
-103.2000;0.2491;0.5353;
-102.9000;0.2499;0.5256;
-102.6000;0.2491;0.5256;
-102.3000;0.2499;0.5353;
-102.0000;0.2507;0.5377;
-101.7000;0.2507;0.5329;
-101.4000;0.2442;0.5159;
-101.1000;0.2466;0.5159;
-100.8000;0.2507;0.5111;
-100.5000;0.2499;0.5038;
-100.2000;0.2491;0.5087;
-99.9000;0.2515;0.5256;
-99.6000;0.2499;0.5329;
-99.3000;0.2515;0.5353;
-99.0000;0.2597;0.5644;
-98.7000;0.2483;0.5353;
-98.4000;0.2475;0.5401;
-98.1000;0.2564;0.5619;
-97.8000;0.2483;0.5426;
-97.5000;0.2499;0.5547;
-97.2000;0.2393;0.5256;
-96.9000;0.2483;0.5426;
-96.6000;0.2491;0.5474;
-96.3000;0.2491;0.5426;
-96.0000;0.2475;0.5426;
-95.7000;0.2491;0.5401;
-95.4000;0.2483;0.5329;
-95.1000;0.2507;0.5450;
-94.8000;0.2499;0.5426;
-94.5000;0.2483;0.5353;
-94.2000;0.2499;0.5474;
-93.9000;0.2475;0.5474;
-93.6000;0.2491;0.5474;
-93.3000;0.2475;0.5426;
-93.0000;0.2491;0.5401;
-92.7000;0.2483;0.5353;
-92.4000;0.2491;0.5498;
-92.1000;0.2483;0.5474;
-91.8000;0.2491;0.5450;
-91.5000;0.2483;0.5353;
-91.2000;0.2491;0.5377;
-90.9000;0.2491;0.5426;
-90.6000;0.2499;0.5547;
-90.3000;0.2483;0.5547;
-90.0000;0.2483;0.5523;
-89.7000;0.2491;0.5547;
-89.4000;0.2483;0.5571;
-89.1000;0.2483;0.5619;
-88.8000;0.2483;0.5668;
-88.5000;0.2450;0.5571;
-88.2000;0.2475;0.5668;
-87.9000;0.2491;0.5716;
-87.6000;0.2483;0.5716;
-87.3000;0.2499;0.5716;
-87.0000;0.2475;0.5619;
-86.7000;0.2475;0.5595;
-86.4000;0.2491;0.5595;
-86.1000;0.2483;0.5474;
-85.8000;0.2499;0.5523;
-85.5000;0.2491;0.5474;
-85.2000;0.2483;0.5474;
-84.9000;0.2499;0.5523;
-84.6000;0.2499;0.5595;
-84.3000;0.2564;0.5789;
-84.0000;0.2499;0.5547;
-83.7000;0.2475;0.5426;
-83.4000;0.2499;0.5401;
-83.1000;0.2499;0.5474;
-82.8000;0.2499;0.5523;
-82.5000;0.2483;0.5450;
-82.2000;0.2499;0.5523;
-81.9000;0.2483;0.5474;
-81.6000;0.2499;0.5547;
-81.3000;0.2483;0.5571;
-81.0000;0.2450;0.5571;
-80.7000;0.2458;0.5523;
-80.4000;0.2491;0.5571;
-80.1000;0.2450;0.5426;
-79.8000;0.2491;0.5450;
-79.5000;0.2515;0.5401;
-79.2000;0.2491;0.5377;
-78.9000;0.2450;0.5232;
-78.6000;0.2409;0.5111;
-78.3000;0.2532;0.5426;
-78.0000;0.2483;0.5305;
-77.7000;0.2499;0.5377;
-77.4000;0.2491;0.5401;
-77.1000;0.2483;0.5426;
-76.8000;0.2483;0.5329;
-76.5000;0.2507;0.5329;
-76.2000;0.2491;0.5256;
-75.9000;0.2499;0.5353;
-75.6000;0.2515;0.5426;
-75.3000;0.2426;0.5208;
-75.0000;0.2466;0.5305;
-74.7000;0.2491;0.5426;
-74.4000;0.2483;0.5280;
-74.1000;0.2532;0.5377;
-73.8000;0.2499;0.5329;
-73.5000;0.2483;0.5426;
-73.2000;0.2499;0.5474;
-72.9000;0.2475;0.5474;
-72.6000;0.2475;0.5450;
-72.3000;0.2483;0.5426;
-72.0000;0.2450;0.5353;
-71.7000;0.2491;0.5401;
-71.4000;0.2499;0.5377;
-71.1000;0.2475;0.5329;
-70.8000;0.2475;0.5305;
-70.5000;0.2483;0.5401;
-70.2000;0.2475;0.5377;
-69.9000;0.2418;0.5087;
-69.6000;0.2491;0.5280;
-69.3000;0.2475;0.5232;
-69.0000;0.2507;0.5232;
-68.7000;0.2475;0.5208;
-68.4000;0.2491;0.5232;
-68.1000;0.2507;0.5329;
-67.8000;0.2523;0.5523;
-67.5000;0.2491;0.5450;
-67.2000;0.2499;0.5426;
-66.9000;0.2475;0.5305;
-66.6000;0.2499;0.5353;
-66.3000;0.2499;0.5377;
-66.0000;0.2483;0.5353;
-65.7000;0.2491;0.5426;
-65.4000;0.2564;0.5619;
-65.1000;0.2483;0.5401;
-64.8000;0.2491;0.5353;
-64.5000;0.2491;0.5401;
-64.2000;0.2499;0.5401;
-63.9000;0.2483;0.5377;
-63.6000;0.2499;0.5474;
-63.3000;0.2409;0.5232;
-63.0000;0.2475;0.5450;
-62.7000;0.2499;0.5426;
-62.4000;0.2450;0.5401;
-62.1000;0.2483;0.5474;
-61.8000;0.2475;0.5426;
-61.5000;0.2499;0.5523;
-61.2000;0.2377;0.5208;
-60.9000;0.2458;0.5426;
-60.6000;0.2466;0.5450;
-60.3000;0.2483;0.5474;
-60.0000;0.2491;0.5401;
-59.7000;0.2491;0.5450;
-59.4000;0.2556;0.5523;
-59.1000;0.2458;0.5377;
-58.8000;0.2491;0.5498;
-58.5000;0.2499;0.5450;
-58.2000;0.2540;0.5547;
-57.9000;0.2629;0.5813;
-57.6000;0.2499;0.5523;
-57.3000;0.2491;0.5523;
-57.0000;0.2483;0.5547;
-56.7000;0.2499;0.5571;
-56.4000;0.2515;0.5547;
-56.1000;0.2564;0.5644;
-55.8000;0.2491;0.5426;
-55.5000;0.2393;0.5111;
-55.2000;0.2475;0.5232;
-54.9000;0.2491;0.5256;
-54.6000;0.2507;0.5353;
-54.3000;0.2515;0.5353;
-54.0000;0.2491;0.5305;
-53.7000;0.2499;0.5450;
-53.4000;0.2499;0.5474;
-53.1000;0.2499;0.5498;
-52.8000;0.2466;0.5426;
-52.5000;0.2507;0.5474;
-52.2000;0.2540;0.5474;
-51.9000;0.2499;0.5401;
-51.6000;0.2491;0.5305;
-51.3000;0.2475;0.5256;
-51.0000;0.2491;0.5280;
-50.7000;0.2458;0.5377;
-50.4000;0.2483;0.5474;
-50.1000;0.2499;0.5547;
-49.8000;0.2491;0.5571;
-49.5000;0.2491;0.5595;
-49.2000;0.2491;0.5644;
-48.9000;0.2475;0.5523;
-48.6000;0.2491;0.5498;
-48.3000;0.2499;0.5474;
-48.0000;0.2483;0.5450;
-47.7000;0.2483;0.5450;
-47.4000;0.2515;0.5547;
-47.1000;0.2483;0.5474;
-46.8000;0.2483;0.5426;
-46.5000;0.2507;0.5498;
-46.2000;0.2499;0.5474;
-45.9000;0.2613;0.5765;
-45.6000;0.2491;0.5474;
-45.3000;0.2515;0.5450;
-45.0000;0.2369;0.5183;
-44.7000;0.2450;0.5353;
-44.4000;0.2475;0.5426;
-44.1000;0.2491;0.5498;
-43.8000;0.2499;0.5595;
-43.5000;0.2515;0.5571;
-43.2000;0.2483;0.5498;
-42.9000;0.2491;0.5523;
-42.6000;0.2491;0.5401;
-42.3000;0.2515;0.5523;
-42.0000;0.2491;0.5426;
-41.7000;0.2491;0.5426;
-41.4000;0.2466;0.5377;
-41.1000;0.2556;0.5619;
-40.8000;0.2499;0.5377;
-40.5000;0.2475;0.5256;
-40.2000;0.2483;0.5232;
-39.9000;0.2499;0.5256;
-39.6000;0.2491;0.5329;
-39.3000;0.2540;0.5474;
-39.0000;0.2483;0.5305;
-38.7000;0.2483;0.5305;
-38.4000;0.2418;0.5062;
-38.1000;0.2532;0.5523;
-37.8000;0.2475;0.5498;
-37.5000;0.2483;0.5547;
-37.2000;0.2491;0.5571;
-36.9000;0.2458;0.5571;
-36.6000;0.2499;0.5668;
-36.3000;0.2491;0.5692;
-36.0000;0.2483;0.5813;
-35.7000;0.2483;0.5668;
-35.4000;0.2393;0.5426;
-35.1000;0.2499;0.5595;
-34.8000;0.2475;0.5547;
-34.5000;0.2507;0.5571;
-34.2000;0.2491;0.5474;
-33.9000;0.2491;0.5426;
-33.6000;0.2475;0.5450;
-33.3000;0.2426;0.5208;
-33.0000;0.2491;0.5401;
-32.7000;0.2475;0.5401;
-32.4000;0.2475;0.5401;
-32.1000;0.2475;0.5329;
-31.8000;0.2507;0.5450;
-31.5000;0.2507;0.5523;
-31.2000;0.2499;0.5426;
-30.9000;0.2475;0.5305;
-30.6000;0.2523;0.5474;
-30.3000;0.2523;0.5474;
-30.0000;0.2507;0.5305;
-29.7000;0.2483;0.5329;
-29.4000;0.2491;0.5305;
-29.1000;0.2483;0.5256;
-28.8000;0.2532;0.5377;
-28.5000;0.2499;0.5329;
-28.2000;0.2499;0.5305;
-27.9000;0.2499;0.5280;
-27.6000;0.2491;0.5329;
-27.3000;0.2483;0.5280;
-27.0000;0.2523;0.5401;
-26.7000;0.2507;0.5401;
-26.4000;0.2483;0.5353;
-26.1000;0.2491;0.5280;
-25.8000;0.2499;0.5377;
-25.5000;0.2499;0.5329;
-25.2000;0.2491;0.5329;
-24.9000;0.2483;0.5353;
-24.6000;0.2475;0.5329;
-24.3000;0.2499;0.5353;
-24.0000;0.2499;0.5353;
-23.7000;0.2491;0.5280;
-23.4000;0.2475;0.5183;
-23.1000;0.2515;0.5329;
-22.8000;0.2564;0.5498;
-22.5000;0.2507;0.5426;
-22.2000;0.2499;0.5329;
-21.9000;0.2475;0.5329;
-21.6000;0.2475;0.5305;
-21.3000;0.2483;0.5353;
-21.0000;0.2483;0.5426;
-20.7000;0.2442;0.5305;
-20.4000;0.2483;0.5426;
-20.1000;0.2491;0.5426;
-19.8000;0.2483;0.5353;
-19.5000;0.2532;0.5547;
-19.2000;0.2507;0.5401;
-18.9000;0.2499;0.5353;
-18.6000;0.2418;0.5232;
-18.3000;0.2540;0.5498;
-18.0000;0.2475;0.5256;
-17.7000;0.2475;0.5232;
-17.4000;0.2499;0.5280;
-17.1000;0.2540;0.5401;
-16.8000;0.2491;0.5305;
-16.5000;0.2515;0.5426;
-16.2000;0.2515;0.5401;
-15.9000;0.2483;0.5353;
-15.6000;0.2483;0.5377;
-15.3000;0.2450;0.5232;
-15.0000;0.2572;0.5498;
-14.7000;0.2475;0.5329;
-14.4000;0.2450;0.5353;
-14.1000;0.2483;0.5426;
-13.8000;0.2475;0.5377;
-13.5000;0.2483;0.5377;
-13.2000;0.2409;0.5208;
-12.9000;0.2491;0.5377;
-12.6000;0.2491;0.5305;
-12.3000;0.2491;0.5377;
-12.0000;0.2483;0.5450;
-11.7000;0.2475;0.5401;
-11.4000;0.2483;0.5353;
-11.1000;0.2499;0.5426;
-10.8000;0.2507;0.5426;
-10.5000;0.2499;0.5329;
-10.2000;0.2483;0.5329;
-9.9000;0.2466;0.5377;
-9.6000;0.2466;0.5426;
-9.3000;0.2475;0.5353;
-9.0000;0.2458;0.5353;
-8.7000;0.2466;0.5401;
-8.4000;0.2483;0.5377;
-8.1000;0.2483;0.5426;
-7.8000;0.2483;0.5426;
-7.5000;0.2515;0.5474;
-7.2000;0.2442;0.5280;
-6.9000;0.2491;0.5426;
-6.6000;0.2491;0.5450;
-6.3000;0.2483;0.5450;
-6.0000;0.2475;0.5426;
-5.7000;0.2483;0.5353;
-5.4000;0.2491;0.5450;
-5.1000;0.2377;0.5135;
-4.8000;0.2466;0.5329;
-4.5000;0.2491;0.5353;
-4.2000;0.2475;0.5401;
-3.9000;0.2475;0.5353;
-3.6000;0.2491;0.5353;
-3.3000;0.2499;0.5329;
-3.0000;0.2475;0.5305;
-2.7000;0.2483;0.5426;
-2.4000;0.2491;0.5474;
-2.1000;0.2475;0.5498;
-1.8000;0.2475;0.5450;
-1.5000;0.2491;0.5523;
-1.2000;0.2491;0.5571;
-0.9000;0.2491;0.5474;
-0.6000;0.2491;0.5450;
-0.3000;0.2491;0.5523;
0.0000;0.2491;0.5523;
0.3000;0.2499;0.5668;
0.6000;0.2507;0.5862;
0.9000;0.2491;0.5886;
1.2000;0.2515;0.6104;
1.5000;0.2580;0.6346;
1.8000;0.2499;0.6201;
2.1000;0.2475;0.6128;
2.4000;0.2515;0.6249;
2.7000;0.2499;0.6346;
3.0000;0.2499;0.6370;
3.3000;0.2499;0.6443;
3.6000;0.2532;0.6613;
3.9000;0.2515;0.6564;
4.2000;0.2466;0.6467;
4.5000;0.2507;0.6613;
4.8000;0.2499;0.6588;
5.1000;0.2507;0.6637;
5.4000;0.2572;0.6806;
5.7000;0.2540;0.6709;
6.0000;0.2483;0.6516;
6.3000;0.2507;0.6685;
6.6000;0.2523;0.6734;
6.9000;0.2515;0.6709;
7.2000;0.2491;0.6588;
7.5000;0.2491;0.6637;
7.8000;0.2515;0.6685;
8.1000;0.2507;0.6685;
8.4000;0.2532;0.6734;
8.7000;0.2556;0.6855;
9.0000;0.2523;0.6782;
9.3000;0.2507;0.6758;
9.6000;0.2532;0.6806;
9.9000;0.2515;0.6709;
10.2000;0.2515;0.6709;
10.5000;0.2499;0.6831;
10.8000;0.2483;0.6734;
11.1000;0.2532;0.6734;
11.4000;0.2507;0.6806;
11.7000;0.2507;0.6831;
12.0000;0.2491;0.6782;
12.3000;0.2515;0.6831;
12.6000;0.2499;0.6758;
12.9000;0.2475;0.6709;
13.2000;0.2507;0.6758;
13.5000;0.2507;0.6782;
13.8000;0.2499;0.6806;
14.1000;0.2515;0.6976;
14.4000;0.2491;0.6831;
14.7000;0.2507;0.6806;
15.0000;0.2499;0.6709;
15.3000;0.2515;0.6758;
15.6000;0.2507;0.6685;
15.9000;0.2523;0.6758;
16.2000;0.2458;0.6491;
16.5000;0.2491;0.6588;
16.8000;0.2491;0.6613;
17.1000;0.2507;0.6564;
17.4000;0.2515;0.6516;
17.7000;0.2491;0.6540;
18.0000;0.2507;0.6564;
18.3000;0.2499;0.6419;
18.6000;0.2499;0.6419;
18.9000;0.2499;0.6395;
19.2000;0.2507;0.6467;
19.5000;0.2515;0.6395;
19.8000;0.2523;0.6491;
20.1000;0.2556;0.6685;
20.4000;0.2499;0.6709;
20.7000;0.2515;0.6685;
21.0000;0.2499;0.6564;
21.3000;0.2499;0.6685;
21.6000;0.2499;0.6637;
21.9000;0.2491;0.6564;
22.2000;0.2491;0.6588;
22.5000;0.2483;0.6661;
22.8000;0.2458;0.6637;
23.1000;0.2507;0.6782;
23.4000;0.2491;0.6831;
23.7000;0.2507;0.6903;
24.0000;0.2523;0.6903;
24.3000;0.2499;0.6903;
24.6000;0.2515;0.6855;
24.9000;0.2499;0.6831;
25.2000;0.2499;0.6782;
25.5000;0.2507;0.6806;
25.8000;0.2507;0.6637;
26.1000;0.2515;0.6637;
26.4000;0.2483;0.6588;
26.7000;0.2515;0.6613;
27.0000;0.2491;0.6491;
27.3000;0.2515;0.6564;
27.6000;0.2491;0.6637;
27.9000;0.2507;0.6685;
28.2000;0.2515;0.6782;
28.5000;0.2572;0.6879;
28.8000;0.2450;0.6613;
29.1000;0.2507;0.6831;
29.4000;0.2564;0.7000;
29.7000;0.2515;0.6855;
30.0000;0.2499;0.6903;
30.3000;0.2491;0.6758;
30.6000;0.2523;0.6758;
30.9000;0.2507;0.6734;
31.2000;0.2499;0.6685;
31.5000;0.2483;0.6588;
31.8000;0.2507;0.6734;
32.1000;0.2475;0.6734;
32.4000;0.2491;0.6709;
32.7000;0.2491;0.6661;
33.0000;0.2515;0.6831;
33.3000;0.2499;0.6927;
33.6000;0.2466;0.6903;
33.9000;0.2483;0.7024;
34.2000;0.2466;0.6952;
34.5000;0.2483;0.7145;
34.8000;0.2475;0.7024;
35.1000;0.2507;0.7049;
35.4000;0.2507;0.7024;
35.7000;0.2499;0.6903;
36.0000;0.2507;0.6879;
36.3000;0.2499;0.6927;
36.6000;0.2589;0.7121;
36.9000;0.2515;0.6976;
37.2000;0.2548;0.7000;
37.5000;0.2442;0.6637;
37.8000;0.2515;0.6879;
38.1000;0.2499;0.6855;
38.4000;0.2507;0.6831;
38.7000;0.2491;0.6782;
39.0000;0.2499;0.6879;
39.3000;0.2507;0.6952;
39.6000;0.2605;0.7218;
39.9000;0.2418;0.6637;
40.2000;0.2499;0.6782;
40.5000;0.2532;0.6927;
40.8000;0.2515;0.6903;
41.1000;0.2491;0.6782;
41.4000;0.2491;0.6782;
41.7000;0.2458;0.6637;
42.0000;0.2409;0.6467;
42.3000;0.2499;0.6734;
42.6000;0.2515;0.6758;
42.9000;0.2483;0.6685;
43.2000;0.2499;0.6734;
43.5000;0.2491;0.6709;
43.8000;0.2540;0.6782;
44.1000;0.2491;0.6637;
44.4000;0.2499;0.6637;
44.7000;0.2515;0.6685;
45.0000;0.2499;0.6637;
45.3000;0.2515;0.6709;
45.6000;0.2499;0.6637;
45.9000;0.2507;0.6782;
46.2000;0.2450;0.6588;
46.5000;0.2483;0.6661;
46.8000;0.2491;0.6709;
47.1000;0.2491;0.6831;
47.4000;0.2515;0.6855;
47.7000;0.2483;0.6661;
48.0000;0.2499;0.6709;
48.3000;0.2507;0.6758;
48.6000;0.2483;0.6782;
48.9000;0.2442;0.6709;
49.2000;0.2491;0.6879;
49.5000;0.2499;0.6903;
49.8000;0.2491;0.6734;
50.1000;0.2613;0.7024;
50.4000;0.2515;0.6709;
50.7000;0.2499;0.6709;
51.0000;0.2442;0.6564;
51.3000;0.2466;0.6516;
51.6000;0.2450;0.6443;
51.9000;0.2361;0.6225;
52.2000;0.2499;0.6516;
52.5000;0.2466;0.6491;
52.8000;0.2499;0.6613;
53.1000;0.2466;0.6613;
53.4000;0.2499;0.6806;
53.7000;0.2532;0.6855;
54.0000;0.2515;0.6855;
54.3000;0.2450;0.6637;
54.6000;0.2499;0.6782;
54.9000;0.2499;0.6879;
55.2000;0.2523;0.6758;
55.5000;0.2499;0.6758;
55.8000;0.2507;0.6879;
56.1000;0.2564;0.6952;
56.4000;0.2499;0.6806;
56.7000;0.2499;0.6734;
57.0000;0.2491;0.6758;
57.3000;0.2597;0.7145;
57.6000;0.2491;0.6855;
57.9000;0.2499;0.6831;
58.2000;0.2483;0.6709;
58.5000;0.2458;0.6709;
58.8000;0.2532;0.6879;
59.1000;0.2475;0.6734;
59.4000;0.2515;0.6879;
59.7000;0.2491;0.6831;
60.0000;0.2466;0.6709;
60.3000;0.2491;0.6709;
60.6000;0.2458;0.6637;
60.9000;0.2491;0.6855;
61.2000;0.2491;0.6855;
61.5000;0.2532;0.6903;
61.8000;0.2499;0.6734;
62.1000;0.2507;0.6806;
62.4000;0.2507;0.6903;
62.7000;0.2532;0.6903;
63.0000;0.2466;0.6782;
63.3000;0.2499;0.6927;
63.6000;0.2483;0.6903;
63.9000;0.2499;0.6903;
64.2000;0.2466;0.6806;
64.5000;0.2491;0.6879;
64.8000;0.2523;0.6903;
65.1000;0.2507;0.6806;
65.4000;0.2499;0.6855;
65.7000;0.2483;0.6855;
66.0000;0.2491;0.6758;
66.3000;0.2483;0.6879;
66.6000;0.2483;0.6782;
66.9000;0.2515;0.6903;
67.2000;0.2507;0.6831;
67.5000;0.2499;0.6806;
67.8000;0.2466;0.6806;
68.1000;0.2491;0.6855;
68.4000;0.2499;0.7000;
68.7000;0.2499;0.6903;
69.0000;0.2483;0.6758;
69.3000;0.2499;0.6855;
69.6000;0.2499;0.6952;
69.9000;0.2466;0.6806;
70.2000;0.2523;0.6879;
70.5000;0.2523;0.6879;
70.8000;0.2499;0.6879;
71.1000;0.2491;0.6831;
71.4000;0.2507;0.6879;
71.7000;0.2491;0.6782;
72.0000;0.2507;0.6952;
72.3000;0.2491;0.6927;
72.6000;0.2507;0.6903;
72.9000;0.2548;0.6927;
73.2000;0.2499;0.6734;
73.5000;0.2483;0.6685;
73.8000;0.2507;0.6758;
74.1000;0.2483;0.6709;
74.4000;0.2418;0.6540;
74.7000;0.2491;0.6831;
75.0000;0.2523;0.6952;
75.3000;0.2532;0.6927;
75.6000;0.2491;0.6806;
75.9000;0.2475;0.6806;
76.2000;0.2597;0.7097;
76.5000;0.2507;0.6903;
76.8000;0.2515;0.6903;
77.1000;0.2548;0.6903;
77.4000;0.2499;0.6782;
77.7000;0.2556;0.6903;
78.0000;0.2491;0.6734;
78.3000;0.2507;0.6831;
78.6000;0.2483;0.6903;
78.9000;0.2491;0.7049;
79.2000;0.2458;0.6952;
79.5000;0.2532;0.7073;
79.8000;0.2491;0.7000;
80.1000;0.2515;0.7024;
80.4000;0.2483;0.6879;
80.7000;0.2491;0.6831;
81.0000;0.2393;0.6540;
81.3000;0.2515;0.6903;
81.6000;0.2523;0.6927;
81.9000;0.2507;0.6903;
82.2000;0.2491;0.6879;
82.5000;0.2499;0.6952;
82.8000;0.2499;0.6952;
83.1000;0.2499;0.6879;
83.4000;0.2515;0.7000;
83.7000;0.2523;0.7024;
84.0000;0.2499;0.7000;
84.3000;0.2491;0.6976;
84.6000;0.2507;0.6903;
84.9000;0.2499;0.6806;
85.2000;0.2466;0.6734;
85.5000;0.2507;0.6879;
85.8000;0.2491;0.6903;
86.1000;0.2499;0.6927;
86.4000;0.2507;0.6903;
86.7000;0.2556;0.7121;
87.0000;0.2499;0.6903;
87.3000;0.2483;0.6903;
87.6000;0.2491;0.6903;
87.9000;0.2483;0.6903;
88.2000;0.2507;0.6879;
88.5000;0.2458;0.6831;
88.8000;0.2483;0.6927;
89.1000;0.2475;0.6855;
89.4000;0.2499;0.6976;
89.7000;0.2361;0.6588;
90.0000;0.2507;0.6879;
90.3000;0.2466;0.6831;
90.6000;0.2483;0.6831;
90.9000;0.2491;0.6709;
91.2000;0.2515;0.6709;
91.5000;0.2483;0.6734;
91.8000;0.2507;0.6806;
92.1000;0.2523;0.6855;
92.4000;0.2515;0.6782;
92.7000;0.2499;0.6734;
93.0000;0.2483;0.6782;
93.3000;0.2507;0.6976;
93.6000;0.2491;0.6831;
93.9000;0.2499;0.6758;
94.2000;0.2491;0.6734;
94.5000;0.2475;0.6661;
94.8000;0.2507;0.6685;
95.1000;0.2499;0.6734;
95.4000;0.2507;0.6855;
95.7000;0.2507;0.6685;
96.0000;0.2499;0.6588;
96.3000;0.2637;0.7049;
96.6000;0.2483;0.6661;
96.9000;0.2499;0.6685;
97.2000;0.2507;0.6734;
97.5000;0.2475;0.6685;
97.8000;0.2491;0.6758;
98.1000;0.2515;0.6782;
98.4000;0.2491;0.6709;
98.7000;0.2491;0.6806;
99.0000;0.2491;0.6758;
99.3000;0.2507;0.6903;
99.6000;0.2515;0.6952;
99.9000;0.2507;0.6879;
100.2000;0.2491;0.6879;
100.5000;0.2466;0.6806;
100.8000;0.2523;0.6927;
101.1000;0.2409;0.6564;
101.4000;0.2499;0.6855;
101.7000;0.2483;0.6879;
102.0000;0.2621;0.7242;
102.3000;0.2491;0.6927;
102.6000;0.2499;0.7000;
102.9000;0.2499;0.6879;
103.2000;0.2483;0.6758;
103.5000;0.2515;0.6927;
103.8000;0.2475;0.6782;
104.1000;0.2491;0.6782;
104.4000;0.2491;0.6806;
104.7000;0.2491;0.6782;
105.0000;0.2491;0.6831;
105.3000;0.2499;0.6806;
105.6000;0.2499;0.6831;
105.9000;0.2507;0.6879;
106.2000;0.2491;0.6879;
106.5000;0.2507;0.6927;
106.8000;0.2499;0.6927;
107.1000;0.2499;0.7000;
107.4000;0.2499;0.6952;
107.7000;0.2507;0.6976;
108.0000;0.2483;0.6879;
108.3000;0.2491;0.6806;
108.6000;0.2499;0.6806;
108.9000;0.2491;0.6782;
109.2000;0.2507;0.6734;
109.5000;0.2507;0.6734;
109.8000;0.2540;0.6806;
110.1000;0.2515;0.6806;
110.4000;0.2491;0.6782;
110.7000;0.2466;0.6782;
111.0000;0.2507;0.6782;
111.3000;0.2499;0.6758;
111.6000;0.2507;0.6734;
111.9000;0.2532;0.6806;
112.2000;0.2532;0.6734;
112.5000;0.2515;0.6758;
112.8000;0.2491;0.6709;
113.1000;0.2491;0.6734;
113.4000;0.2491;0.6637;
113.7000;0.2507;0.6661;
114.0000;0.2507;0.6734;
114.3000;0.2507;0.6709;
114.6000;0.2491;0.6685;
114.9000;0.2499;0.6734;
115.2000;0.2515;0.6661;
115.5000;0.2499;0.6588;
115.8000;0.2491;0.6613;
116.1000;0.2483;0.6685;
116.4000;0.2475;0.6758;
116.7000;0.2491;0.6855;
117.0000;0.2483;0.6806;
117.3000;0.2523;0.6927;
117.6000;0.2499;0.6734;
117.9000;0.2499;0.6709;
118.2000;0.2491;0.6685;
118.5000;0.2564;0.6976;
118.8000;0.2507;0.6782;
119.1000;0.2475;0.6758;
119.4000;0.2442;0.6613;
119.7000;0.2491;0.6758;
120.0000;0.2483;0.6831;
120.3000;0.2475;0.6758;
120.6000;0.2491;0.6855;
120.9000;0.2483;0.6758;
121.2000;0.2491;0.6709;
121.5000;0.2483;0.6661;
121.8000;0.2499;0.6782;
122.1000;0.2499;0.6758;
122.4000;0.2491;0.6758;
122.7000;0.2499;0.6806;
123.0000;0.2499;0.6903;
123.3000;0.2507;0.7024;
123.6000;0.2507;0.6952;
123.9000;0.2499;0.6879;
124.2000;0.2483;0.6758;
124.5000;0.2483;0.6782;
124.8000;0.2483;0.6806;
125.1000;0.2499;0.6855;
125.4000;0.2491;0.6879;
125.7000;0.2499;0.6976;
126.0000;0.2491;0.6927;
126.3000;0.2532;0.6952;
126.6000;0.2499;0.6831;
126.9000;0.2507;0.6831;
127.2000;0.2532;0.6976;
127.5000;0.2515;0.6831;
127.8000;0.2507;0.6855;
128.1000;0.2499;0.6952;
128.4000;0.2507;0.6976;
128.7000;0.2466;0.6855;
129.0000;0.2507;0.6976;
129.3000;0.2499;0.6903;
129.6000;0.2491;0.6855;
129.9000;0.2491;0.6855;
130.2000;0.2483;0.6879;
130.5000;0.2491;0.6831;
130.8000;0.2475;0.6709;
131.1000;0.2499;0.6758;
131.4000;0.2499;0.6831;
131.7000;0.2483;0.6709;
132.0000;0.2515;0.6806;
132.3000;0.2475;0.6661;
132.6000;0.2499;0.6661;
132.9000;0.2466;0.6588;
133.2000;0.2491;0.6661;
133.5000;0.2475;0.6661;
133.8000;0.2418;0.6540;
134.1000;0.2483;0.6806;
134.4000;0.2483;0.6661;
134.7000;0.2418;0.6516;
135.0000;0.2491;0.6661;
135.3000;0.2491;0.6758;
135.6000;0.2507;0.6782;
135.9000;0.2475;0.6734;
136.2000;0.2483;0.6758;
136.5000;0.2491;0.6709;
136.8000;0.2507;0.6709;
137.1000;0.2499;0.6782;
137.4000;0.2491;0.6685;
137.7000;0.2499;0.6782;
138.0000;0.2564;0.7049;
138.3000;0.2499;0.6952;
138.6000;0.2515;0.7000;
138.9000;0.2385;0.6709;
139.2000;0.2483;0.7024;
139.5000;0.2499;0.7024;
139.8000;0.2499;0.7049;
140.1000;0.2515;0.7049;
140.4000;0.2499;0.7000;
140.7000;0.2499;0.7000;
141.0000;0.2515;0.7024;
141.3000;0.2491;0.7024;
141.6000;0.2499;0.7145;
141.9000;0.2499;0.7145;
142.2000;0.2499;0.7073;
142.5000;0.2507;0.7024;
142.8000;0.2483;0.6976;
143.1000;0.2499;0.6903;
143.4000;0.2499;0.6758;
143.7000;0.2491;0.6734;
144.0000;0.2491;0.6734;
144.3000;0.2564;0.6879;
144.6000;0.2499;0.6758;
144.9000;0.2483;0.6806;
145.2000;0.2515;0.6855;
145.5000;0.2507;0.6879;
145.8000;0.2597;0.7121;
146.1000;0.2532;0.6831;
146.4000;0.2426;0.6613;
146.7000;0.2515;0.6903;
147.0000;0.2491;0.6855;
147.3000;0.2458;0.6758;
147.6000;0.2491;0.6806;
147.9000;0.2491;0.6879;
148.2000;0.2499;0.6879;
148.5000;0.2499;0.6855;
148.8000;0.2507;0.6879;
149.1000;0.2475;0.6782;
149.4000;0.2507;0.6855;
149.7000;0.2572;0.7073;
150.0000;0.2515;0.6903;
150.3000;0.2491;0.6855;
150.6000;0.2499;0.6952;
150.9000;0.2491;0.6976;
151.2000;0.2442;0.6855;
151.5000;0.2499;0.6903;
151.8000;0.2507;0.6903;
152.1000;0.2434;0.6782;
152.4000;0.2507;0.6952;
152.7000;0.2499;0.6855;
153.0000;0.2523;0.6976;
153.3000;0.2499;0.6903;
153.6000;0.2507;0.6903;
153.9000;0.2499;0.6879;
154.2000;0.2540;0.7049;
154.5000;0.2515;0.6976;
154.8000;0.2491;0.6952;
155.1000;0.2507;0.6952;
155.4000;0.2434;0.6806;
155.7000;0.2466;0.6855;
156.0000;0.2605;0.7291;
156.3000;0.2483;0.6976;
156.6000;0.2491;0.7049;
156.9000;0.2475;0.6976;
157.2000;0.2491;0.6952;
157.5000;0.2556;0.7097;
157.8000;0.2515;0.6976;
158.1000;0.2491;0.6855;
158.4000;0.2515;0.6952;
158.7000;0.2523;0.6976;
159.0000;0.2507;0.6952;
159.3000;0.2483;0.6806;
159.6000;0.2499;0.6879;
159.9000;0.2499;0.6927;
160.2000;0.2483;0.6855;
160.5000;0.2499;0.6927;
160.8000;0.2483;0.7024;
161.1000;0.2499;0.7145;
161.4000;0.2499;0.7194;
161.7000;0.2491;0.7194;
162.0000;0.2475;0.7049;
162.3000;0.2499;0.7170;
162.6000;0.2450;0.7049;
162.9000;0.2483;0.7097;
163.2000;0.2466;0.7097;
163.5000;0.2507;0.7194;
163.8000;0.2515;0.7194;
164.1000;0.2491;0.7194;
164.4000;0.2491;0.7121;
164.7000;0.2523;0.7194;
165.0000;0.2499;0.7024;
165.3000;0.2499;0.6976;
165.6000;0.2491;0.7024;
165.9000;0.2491;0.6879;
166.2000;0.2491;0.6831;
166.5000;0.2499;0.6927;
166.8000;0.2393;0.6709;
167.1000;0.2475;0.6952;
167.4000;0.2532;0.7145;
167.7000;0.2475;0.7024;
168.0000;0.2466;0.7024;
168.3000;0.2491;0.7073;
168.6000;0.2475;0.7049;
168.9000;0.2548;0.7145;
169.2000;0.2483;0.6952;
169.5000;0.2491;0.6952;
169.8000;0.2483;0.6879;
170.1000;0.2507;0.6927;
170.4000;0.2491;0.6927;
170.7000;0.2483;0.6758;
171.0000;0.2466;0.6709;
171.3000;0.2507;0.6903;
171.6000;0.2491;0.6855;
171.9000;0.2499;0.6903;
172.2000;0.2450;0.6806;
172.5000;0.2499;0.6927;
172.8000;0.2523;0.6927;
173.1000;0.2491;0.6903;
173.4000;0.2491;0.6879;
173.7000;0.2450;0.6709;
174.0000;0.2548;0.7024;
174.3000;0.2491;0.6879;
174.6000;0.2499;0.6879;
174.9000;0.2483;0.6831;
175.2000;0.2515;0.6879;
175.5000;0.2491;0.6903;
175.8000;0.2450;0.6782;
176.1000;0.2483;0.6903;
176.4000;0.2491;0.6952;
176.7000;0.2491;0.7024;
177.0000;0.2385;0.6758;
177.3000;0.2466;0.6831;
177.6000;0.2491;0.6879;
177.9000;0.2507;0.6879;
178.2000;0.2507;0.6927;
178.5000;0.2491;0.6855;
178.8000;0.2483;0.6806;
179.1000;0.2515;0.6903;
179.4000;0.2475;0.6806;
179.7000;0.2499;0.6903;
180.0000;0.2556;0.7000;
180.3000;0.2515;0.6879;
180.6000;0.2450;0.6661;
180.9000;0.2483;0.6782;
181.2000;0.2483;0.6806;
181.5000;0.2491;0.6879;
181.8000;0.2507;0.6952;
182.1000;0.2507;0.6927;
182.4000;0.2483;0.6927;
182.7000;0.2491;0.6976;
183.0000;0.2499;0.7000;
183.3000;0.2523;0.7024;
183.6000;0.2507;0.7049;
183.9000;0.2499;0.6976;
184.2000;0.2499;0.6879;
184.5000;0.2515;0.7000;
184.8000;0.2483;0.6927;
185.1000;0.2491;0.6879;
185.4000;0.2515;0.6903;
185.7000;0.2523;0.6952;
186.0000;0.2499;0.6879;
186.3000;0.2499;0.7000;
186.6000;0.2532;0.7145;
186.9000;0.2483;0.7000;
187.2000;0.2515;0.7024;
187.5000;0.2491;0.7073;
187.8000;0.2491;0.6976;
188.1000;0.2491;0.6952;
188.4000;0.2548;0.7097;
188.7000;0.2483;0.6879;
189.0000;0.2499;0.6806;
189.3000;0.2426;0.6734;
189.6000;0.2507;0.6952;
189.9000;0.2491;0.6831;
190.2000;0.2499;0.6927;
190.5000;0.2515;0.6976;
190.8000;0.2475;0.6879;
191.1000;0.2491;0.6927;
191.4000;0.2637;0.7291;
191.7000;0.2491;0.6782;
192.0000;0.2499;0.6806;
192.3000;0.2491;0.6782;
192.6000;0.2442;0.6613;
192.9000;0.2466;0.6661;
193.2000;0.2491;0.6685;
193.5000;0.2466;0.6564;
193.8000;0.2475;0.6685;
194.1000;0.2499;0.6758;
194.4000;0.2483;0.6782;
194.7000;0.2499;0.6709;
195.0000;0.2491;0.6661;
195.3000;0.2589;0.7024;
195.6000;0.2491;0.6758;
195.9000;0.2499;0.6734;
196.2000;0.2491;0.6661;
196.5000;0.2507;0.6806;
196.8000;0.2426;0.6588;
197.1000;0.2491;0.6734;
197.4000;0.2483;0.6758;
197.7000;0.2475;0.6685;
198.0000;0.2483;0.6709;
198.3000;0.2548;0.7024;
198.6000;0.2475;0.6782;
198.9000;0.2475;0.6758;
199.2000;0.2499;0.6758;
199.5000;0.2499;0.6903;
199.8000;0.2483;0.6903;
200.1000;0.2483;0.6903;
200.4000;0.2491;0.6855;
200.7000;0.2507;0.6903;
201.0000;0.2507;0.6903;
201.3000;0.2491;0.6758;
201.6000;0.2475;0.6782;
201.9000;0.2483;0.6879;
202.2000;0.2572;0.7073;
202.5000;0.2491;0.6903;
202.8000;0.2483;0.6952;
203.1000;0.2491;0.6927;
203.4000;0.2507;0.7049;
203.7000;0.2475;0.7000;
204.0000;0.2475;0.6952;
204.3000;0.2491;0.7000;
204.6000;0.2499;0.6976;
204.9000;0.2507;0.6903;
205.2000;0.2507;0.6952;
205.5000;0.2426;0.6734;
205.8000;0.2499;0.6927;
206.1000;0.2499;0.6976;
206.4000;0.2475;0.6976;
206.7000;0.2491;0.7000;
207.0000;0.2499;0.7000;
207.3000;0.2475;0.6806;
207.6000;0.2507;0.6855;
207.9000;0.2475;0.6831;
208.2000;0.2491;0.6831;
208.5000;0.2491;0.6831;
208.8000;0.2483;0.6855;
209.1000;0.2483;0.6927;
209.4000;0.2483;0.6903;
209.7000;0.2491;0.6879;
210.0000;0.2483;0.6831;
210.3000;0.2475;0.6831;
210.6000;0.2499;0.6855;
210.9000;0.2499;0.6855;
211.2000;0.2507;0.6903;
211.5000;0.2507;0.6831;
211.8000;0.2499;0.6661;
212.1000;0.2507;0.6709;
212.4000;0.2483;0.6709;
212.7000;0.2483;0.6709;
213.0000;0.2483;0.6734;
213.3000;0.2466;0.6661;
213.6000;0.2491;0.6734;
213.9000;0.2491;0.6782;
214.2000;0.2491;0.6782;
214.5000;0.2507;0.6831;
214.8000;0.2499;0.6758;
215.1000;0.2499;0.6685;
215.4000;0.2499;0.6709;
215.7000;0.2483;0.6685;
216.0000;0.2499;0.6685;
216.3000;0.2483;0.6709;
216.6000;0.2483;0.6782;
216.9000;0.2483;0.6831;
217.2000;0.2483;0.6879;
217.5000;0.2475;0.6952;
217.8000;0.2466;0.6952;
218.1000;0.2491;0.7024;
218.4000;0.2466;0.6903;
218.7000;0.2564;0.7170;
219.0000;0.2475;0.7000;
219.3000;0.2483;0.6976;
219.6000;0.2483;0.6879;
219.9000;0.2491;0.6879;
220.2000;0.2515;0.6952;
220.5000;0.2499;0.6927;
220.8000;0.2499;0.6879;
221.1000;0.2466;0.6734;
221.4000;0.2499;0.6831;
221.7000;0.2515;0.6903;
222.0000;0.2442;0.6734;
222.3000;0.2507;0.6879;
222.6000;0.2499;0.6855;
222.9000;0.2499;0.6758;
223.2000;0.2556;0.6952;
223.5000;0.2475;0.6782;
223.8000;0.2491;0.6734;
224.1000;0.2507;0.6782;
224.4000;0.2475;0.6685;
224.7000;0.2507;0.6831;
225.0000;0.2507;0.6806;
225.3000;0.2491;0.6903;
225.6000;0.2499;0.6903;
225.9000;0.2409;0.6613;
226.2000;0.2491;0.6903;
226.5000;0.2475;0.6903;
226.8000;0.2499;0.6976;
227.1000;0.2499;0.7024;
227.4000;0.2556;0.7194;
227.7000;0.2483;0.7024;
228.0000;0.2499;0.6976;
228.3000;0.2483;0.6927;
228.6000;0.2483;0.6879;
228.9000;0.2491;0.6855;
229.2000;0.2507;0.6927;
229.5000;0.2491;0.6903;
229.8000;0.2483;0.6927;
230.1000;0.2491;0.7000;
230.4000;0.2393;0.6613;
230.7000;0.2491;0.6952;
231.0000;0.2499;0.7024;
231.3000;0.2491;0.7024;
231.6000;0.2499;0.7024;
231.9000;0.2466;0.7073;
232.2000;0.2499;0.7049;
232.5000;0.2499;0.7000;
232.8000;0.2564;0.7218;
233.1000;0.2475;0.7024;
233.4000;0.2483;0.6976;
233.7000;0.2466;0.6879;
234.0000;0.2491;0.6952;
234.3000;0.2491;0.6927;
234.6000;0.2401;0.6661;
234.9000;0.2475;0.6903;
235.2000;0.2475;0.6879;
235.5000;0.2499;0.7024;
235.8000;0.2523;0.7097;
236.1000;0.2483;0.6976;
236.4000;0.2564;0.7073;
236.7000;0.2507;0.6952;
237.0000;0.2475;0.6855;
237.3000;0.2523;0.6903;
237.6000;0.2483;0.6806;
237.9000;0.2483;0.6782;
238.2000;0.2499;0.6831;
238.5000;0.2491;0.6855;
238.8000;0.2483;0.6879;
239.1000;0.2491;0.6952;
239.4000;0.2401;0.6661;
239.7000;0.2491;0.6903;
240.0000;0.2475;0.6879;
240.3000;0.2491;0.6976;
240.6000;0.2515;0.7097;
240.9000;0.2483;0.6976;
241.2000;0.2442;0.6806;
241.5000;0.2499;0.6903;
241.8000;0.2499;0.6976;
242.1000;0.2466;0.6806;
242.4000;0.2499;0.6855;
242.7000;0.2491;0.6782;
243.0000;0.2491;0.6855;
243.3000;0.2491;0.6831;
243.6000;0.2377;0.6637;
243.9000;0.2475;0.6927;
244.2000;0.2491;0.7024;
244.5000;0.2483;0.7049;
244.8000;0.2475;0.7000;
245.1000;0.2540;0.7073;
245.4000;0.2515;0.7024;
245.7000;0.2491;0.6976;
246.0000;0.2458;0.6806;
246.3000;0.2507;0.6903;
246.6000;0.2499;0.6782;
246.9000;0.2548;0.6879;
247.2000;0.2499;0.6831;
247.5000;0.2483;0.6758;
247.8000;0.2491;0.6831;
248.1000;0.2507;0.6855;
248.4000;0.2499;0.6952;
248.7000;0.2475;0.6903;
249.0000;0.2491;0.6879;
249.3000;0.2475;0.6758;
249.6000;0.2499;0.6758;
249.9000;0.2483;0.6613;
250.2000;0.2532;0.6782;
250.5000;0.2499;0.6709;
250.8000;0.2491;0.6782;
251.1000;0.2442;0.6613;
251.4000;0.2466;0.6734;
251.7000;0.2491;0.6734;
252.0000;0.2475;0.6661;
252.3000;0.2483;0.6685;
252.6000;0.2491;0.6709;
252.9000;0.2499;0.6685;
253.2000;0.2483;0.6564;
253.5000;0.2523;0.6685;
253.8000;0.2483;0.6588;
254.1000;0.2491;0.6709;
254.4000;0.2507;0.6758;
254.7000;0.2507;0.6806;
255.0000;0.2491;0.6806;
255.3000;0.2491;0.6855;
255.6000;0.2491;0.6806;
255.9000;0.2564;0.7000;
256.2000;0.2491;0.6855;
256.5000;0.2491;0.6806;
256.8000;0.2491;0.6782;
257.1000;0.2475;0.6709;
257.4000;0.2507;0.6879;
257.7000;0.2483;0.6831;
258.0000;0.2507;0.6782;
258.3000;0.2499;0.6734;
258.6000;0.2483;0.6709;
258.9000;0.2466;0.6709;
259.2000;0.2499;0.6855;
259.5000;0.2483;0.7000;
259.8000;0.2532;0.7121;
260.1000;0.2475;0.7145;
260.4000;0.2499;0.7194;
260.7000;0.2483;0.7049;
261.0000;0.2499;0.7049;
261.3000;0.2491;0.7000;
261.6000;0.2491;0.6952;
261.9000;0.2491;0.6855;
262.2000;0.2442;0.6685;
262.5000;0.2491;0.6855;
262.8000;0.2483;0.6879;
263.1000;0.2507;0.6927;
263.4000;0.2499;0.6855;
263.7000;0.2361;0.6491;
264.0000;0.2466;0.6782;
264.3000;0.2426;0.6685;
264.6000;0.2352;0.6419;
264.9000;0.2491;0.6855;
265.2000;0.2466;0.6709;
265.5000;0.2491;0.6709;
265.8000;0.2556;0.6855;
266.1000;0.2409;0.6516;
266.4000;0.2491;0.6782;
266.7000;0.2491;0.6806;
267.0000;0.2507;0.6831;
267.3000;0.2507;0.6758;
267.6000;0.2499;0.6831;
267.9000;0.2499;0.6734;
268.2000;0.2515;0.6831;
268.5000;0.2491;0.6782;
268.8000;0.2491;0.6709;
269.1000;0.2475;0.6685;
269.4000;0.2491;0.6709;
269.7000;0.2515;0.6782;
270.0000;0.2507;0.6831;
270.3000;0.2507;0.6734;
270.6000;0.2491;0.6637;
270.9000;0.2491;0.6661;
271.2000;0.2499;0.6613;
271.5000;0.2483;0.6613;
271.8000;0.2466;0.6637;
272.1000;0.2491;0.6758;
272.4000;0.2442;0.6613;
272.7000;0.2491;0.6734;
273.0000;0.2475;0.6734;
273.3000;0.2499;0.6709;
273.6000;0.2499;0.6709;
273.9000;0.2458;0.6709;
274.2000;0.2475;0.6831;
274.5000;0.2483;0.6782;
274.8000;0.2336;0.6443;
275.1000;0.2491;0.6782;
275.4000;0.2458;0.6661;
275.7000;0.2483;0.6806;
276.0000;0.2507;0.6952;
276.3000;0.2499;0.6952;
276.6000;0.2466;0.6806;
276.9000;0.2491;0.6806;
277.2000;0.2483;0.6758;
277.5000;0.2483;0.6734;
277.8000;0.2466;0.6831;
278.1000;0.2491;0.6927;
278.4000;0.2499;0.6879;
278.7000;0.2491;0.6831;
279.0000;0.2646;0.7242;
279.3000;0.2475;0.6685;
279.6000;0.2475;0.6661;
279.9000;0.2483;0.6613;
280.2000;0.2475;0.6637;
280.5000;0.2475;0.6734;
280.8000;0.2483;0.6758;
281.1000;0.2491;0.6685;
281.4000;0.2507;0.6734;
281.7000;0.2491;0.6685;
282.0000;0.2491;0.6709;
282.3000;0.2499;0.6709;
282.6000;0.2540;0.6758;
282.9000;0.2499;0.6613;
283.2000;0.2491;0.6540;
283.5000;0.2483;0.6564;
283.8000;0.2507;0.6758;
284.1000;0.2491;0.6758;
284.4000;0.2499;0.6831;
284.7000;0.2491;0.6855;
285.0000;0.2491;0.6927;
285.3000;0.2532;0.7121;
285.6000;0.2540;0.7121;
285.9000;0.2499;0.6952;
286.2000;0.2475;0.6927;
286.5000;0.2466;0.6903;
286.8000;0.2483;0.6952;
287.1000;0.2523;0.7000;
287.4000;0.2475;0.6806;
287.7000;0.2499;0.6758;
288.0000;0.2442;0.6758;
288.3000;0.2475;0.6782;
288.6000;0.2483;0.6855;
288.9000;0.2483;0.6758;
289.2000;0.2418;0.6685;
289.5000;0.2491;0.6903;
289.8000;0.2466;0.6831;
290.1000;0.2450;0.6685;
290.4000;0.2483;0.6758;
290.7000;0.2483;0.6758;
291.0000;0.2434;0.6516;
291.3000;0.2499;0.6661;
291.6000;0.2483;0.6637;
291.9000;0.2499;0.6637;
292.2000;0.2483;0.6637;
292.5000;0.2491;0.6709;
292.8000;0.2483;0.6661;
293.1000;0.2499;0.6661;
293.4000;0.2483;0.6564;
293.7000;0.2475;0.6564;
294.0000;0.2499;0.6685;
294.3000;0.2491;0.6661;
294.6000;0.2483;0.6734;
294.9000;0.2483;0.6734;
295.2000;0.2491;0.6685;
295.5000;0.2483;0.6661;
295.8000;0.2475;0.6588;
296.1000;0.2499;0.6613;
296.4000;0.2499;0.6709;
296.7000;0.2515;0.6806;
297.0000;0.2523;0.6903;
297.3000;0.2507;0.6903;
297.6000;0.2507;0.6952;
297.9000;0.2483;0.6879;
298.2000;0.2499;0.6976;
298.5000;0.2507;0.7049;
298.8000;0.2450;0.6927;
299.1000;0.2515;0.7049;
299.4000;0.2491;0.6952;
299.7000;0.2491;0.6976;
300.0000;0.2491;0.6952;
300.3000;0.2499;0.6927;
300.6000;0.2564;0.7121;
300.9000;0.2491;0.6831;
301.2000;0.2483;0.6685;
301.5000;0.2466;0.6613;
301.8000;0.2507;0.6685;
302.1000;0.2499;0.6637;
302.4000;0.2483;0.6661;
302.7000;0.2491;0.6709;
303.0000;0.2475;0.6782;
303.3000;0.2418;0.6588;
303.6000;0.2491;0.6855;
303.9000;0.2483;0.6903;
304.2000;0.2556;0.7097;
304.5000;0.2377;0.6758;
304.8000;0.2491;0.7024;
305.1000;0.2540;0.7218;
305.4000;0.2434;0.7000;
305.7000;0.2499;0.7242;
306.0000;0.2564;0.7315;
306.3000;0.2499;0.7145;
306.6000;0.2491;0.7073;
306.9000;0.2499;0.7145;
307.2000;0.2532;0.7218;
307.5000;0.2475;0.7049;
307.8000;0.2458;0.6952;
308.1000;0.2483;0.7000;
308.4000;0.2483;0.6952;
308.7000;0.2499;0.6952;
309.0000;0.2499;0.7024;
309.3000;0.2499;0.7024;
309.6000;0.2499;0.7024;
309.9000;0.2499;0.7000;
310.2000;0.2491;0.6855;
310.5000;0.2491;0.6927;
310.8000;0.2499;0.6952;
311.1000;0.2483;0.6952;
311.4000;0.2458;0.7000;
311.7000;0.2499;0.7121;
312.0000;0.2483;0.7024;
312.3000;0.2434;0.6806;
312.6000;0.2483;0.6879;
312.9000;0.2491;0.6903;
313.2000;0.2409;0.6709;
313.5000;0.2450;0.6976;
313.8000;0.2475;0.6903;
314.1000;0.2491;0.6976;
314.4000;0.2491;0.7000;
314.7000;0.2507;0.7024;
315.0000;0.2466;0.6952;
315.3000;0.2475;0.6903;
315.6000;0.2491;0.7049;
315.9000;0.2491;0.7121;
316.2000;0.2475;0.7049;
316.5000;0.2483;0.7000;
316.8000;0.2491;0.6976;
317.1000;0.2491;0.6879;
317.4000;0.2491;0.6806;
317.7000;0.2491;0.6734;
318.0000;0.2475;0.6758;
318.3000;0.2491;0.6806;
318.6000;0.2466;0.6758;
318.9000;0.2491;0.6758;
319.2000;0.2458;0.6806;
319.5000;0.2483;0.6879;
319.8000;0.2491;0.6927;
320.1000;0.2491;0.6976;
320.4000;0.2515;0.7073;
320.7000;0.2466;0.6831;
321.0000;0.2515;0.6831;
321.3000;0.2466;0.6758;
321.6000;0.2442;0.6709;
321.9000;0.2491;0.7000;
322.2000;0.2499;0.7000;
322.5000;0.2475;0.6976;
322.8000;0.2499;0.6952;
323.1000;0.2491;0.6976;
323.4000;0.2507;0.7000;
323.7000;0.2466;0.6879;
324.0000;0.2491;0.6879;
324.3000;0.2483;0.6734;
324.6000;0.2499;0.6806;
324.9000;0.2499;0.6806;
325.2000;0.2483;0.6855;
325.5000;0.2475;0.6855;
325.8000;0.2450;0.6855;
326.1000;0.2450;0.6831;
326.4000;0.2450;0.6927;
326.7000;0.2475;0.6952;
327.0000;0.2458;0.6831;
327.3000;0.2523;0.6879;
327.6000;0.2491;0.6758;
327.9000;0.2483;0.6709;
328.2000;0.2466;0.6734;
328.5000;0.2491;0.6758;
328.8000;0.2483;0.6734;
329.1000;0.2491;0.6709;
329.4000;0.2515;0.6758;
329.7000;0.2507;0.6637;
330.0000;0.2540;0.6782;
330.3000;0.2483;0.6685;
330.6000;0.2491;0.6637;
330.9000;0.2466;0.6564;
331.2000;0.2499;0.6685;
331.5000;0.2564;0.6903;
331.8000;0.2483;0.6709;
332.1000;0.2491;0.6734;
332.4000;0.2532;0.6831;
332.7000;0.2507;0.6831;
333.0000;0.2475;0.6806;
333.3000;0.2540;0.6976;
333.6000;0.2475;0.6879;
333.9000;0.2483;0.6976;
334.2000;0.2483;0.7000;
334.5000;0.2385;0.6709;
334.8000;0.2475;0.6903;
335.1000;0.2450;0.6855;
335.4000;0.2491;0.7000;
335.7000;0.2466;0.6976;
336.0000;0.2434;0.6782;
336.3000;0.2491;0.6976;
336.6000;0.2475;0.6952;
336.9000;0.2556;0.7194;
337.2000;0.2491;0.6976;
337.5000;0.2491;0.6952;
337.8000;0.2491;0.6952;
338.1000;0.2450;0.6903;
338.4000;0.2491;0.7049;
338.7000;0.2491;0.7024;
339.0000;0.2507;0.7024;
339.3000;0.2483;0.6976;
339.6000;0.2491;0.7024;
339.9000;0.2475;0.6952;
340.2000;0.2491;0.7024;
340.5000;0.2499;0.6927;
340.8000;0.2499;0.6855;
341.1000;0.2475;0.6782;
341.4000;0.2475;0.6782;
341.7000;0.2515;0.7024;
342.0000;0.2458;0.6927;
342.3000;0.2483;0.7000;
342.6000;0.2523;0.7049;
342.9000;0.2499;0.6903;
343.2000;0.2491;0.6952;
343.5000;0.2426;0.6782;
343.8000;0.2483;0.7000;
344.1000;0.2483;0.6952;
344.4000;0.2499;0.6927;
344.7000;0.2491;0.6782;
345.0000;0.2491;0.6758;
345.3000;0.2515;0.6903;
345.6000;0.2393;0.6540;
345.9000;0.2491;0.6782;
346.2000;0.2483;0.6709;
346.5000;0.2475;0.6758;
346.8000;0.2507;0.6831;
347.1000;0.2507;0.6831;
347.4000;0.2491;0.6927;
347.7000;0.2466;0.6734;
348.0000;0.2483;0.6734;
348.3000;0.2491;0.6782;
348.6000;0.2483;0.6758;
348.9000;0.2466;0.6685;
349.2000;0.2466;0.6758;
349.5000;0.2475;0.6782;
349.8000;0.2458;0.6806;
350.1000;0.2483;0.6903;
350.4000;0.2491;0.6831;
350.7000;0.2483;0.6758;
351.0000;0.2491;0.6806;
351.3000;0.2483;0.6806;
351.6000;0.2483;0.6903;
351.9000;0.2491;0.6806;
352.2000;0.2499;0.6831;
352.5000;0.2475;0.6806;
352.8000;0.2483;0.6831;
353.1000;0.2499;0.6927;
353.4000;0.2475;0.6903;
353.7000;0.2458;0.6831;
354.0000;0.2458;0.6661;
354.3000;0.2483;0.6661;
354.6000;0.2499;0.6709;
354.9000;0.2499;0.6709;
355.2000;0.2491;0.6758;
355.5000;0.2475;0.6734;
355.8000;0.2491;0.6831;
356.1000;0.2483;0.6709;
356.4000;0.2475;0.6661;
356.7000;0.2491;0.6734;
357.0000;0.2483;0.6685;
357.3000;0.2442;0.6564;
357.6000;0.2475;0.6709;
357.9000;0.2466;0.6685;
358.2000;0.2499;0.6806;
358.5000;0.2475;0.6685;
358.8000;0.2450;0.6613;
359.1000;0.2475;0.6734;
359.4000;0.2450;0.6782;
359.7000;0.2491;0.6879;
360.0000;0.2483;0.6903;
360.3000;0.2385;0.6637;
360.6000;0.2507;0.6903;
360.9000;0.2483;0.6831;
361.2000;0.2369;0.6588;
361.5000;0.2466;0.6831;
361.8000;0.2548;0.6976;
362.1000;0.2507;0.6831;
362.4000;0.2475;0.6782;
362.7000;0.2491;0.6903;
363.0000;0.2499;0.6855;
363.3000;0.2458;0.6855;
363.6000;0.2499;0.7000;
363.9000;0.2491;0.6976;
364.2000;0.2499;0.6952;
364.5000;0.2491;0.6927;
364.8000;0.2499;0.7000;
365.1000;0.2458;0.6927;
365.4000;0.2466;0.7000;
365.7000;0.2491;0.7049;
366.0000;0.2491;0.7024;
366.3000;0.2475;0.6976;
366.6000;0.2556;0.7170;
366.9000;0.2515;0.6927;
367.2000;0.2466;0.6855;
367.5000;0.2475;0.6855;
367.8000;0.2458;0.6806;
368.1000;0.2475;0.6806;
368.4000;0.2475;0.6831;
368.7000;0.2475;0.7024;
369.0000;0.2483;0.7145;
369.3000;0.2491;0.7049;
369.6000;0.2466;0.6976;
369.9000;0.2434;0.6806;
370.2000;0.2458;0.6855;
370.5000;0.2466;0.6903;
370.8000;0.2475;0.6855;
371.1000;0.2507;0.6952;
371.4000;0.2483;0.6952;
371.7000;0.2483;0.6952;
372.0000;0.2491;0.7024;
372.3000;0.2499;0.7024;
372.6000;0.2483;0.6952;
372.9000;0.2523;0.7000;
373.2000;0.2499;0.6976;
373.5000;0.2507;0.6927;
373.8000;0.2580;0.7242;
374.1000;0.2483;0.7073;
374.4000;0.2491;0.7024;
374.7000;0.2491;0.6952;
375.0000;0.2491;0.6903;
375.3000;0.2466;0.6927;
375.6000;0.2466;0.6927;
375.9000;0.2507;0.6927;
376.2000;0.2475;0.6903;
376.5000;0.2475;0.6879;
376.8000;0.2475;0.6879;
377.1000;0.2483;0.6927;
377.4000;0.2589;0.7315;
377.7000;0.2532;0.7267;
378.0000;0.2466;0.7145;
378.3000;0.2483;0.7121;
378.6000;0.2499;0.7145;
378.9000;0.2483;0.7049;
379.2000;0.2475;0.6976;
379.5000;0.2475;0.6952;
379.8000;0.2515;0.7024;
380.1000;0.2491;0.6903;
380.4000;0.2483;0.6831;
380.7000;0.2418;0.6588;
381.0000;0.2499;0.6831;
381.3000;0.2499;0.6855;
381.6000;0.2458;0.6734;
381.9000;0.2475;0.6806;
382.2000;0.2491;0.6831;
382.5000;0.2507;0.6831;
382.8000;0.2605;0.7170;
383.1000;0.2483;0.6758;
383.4000;0.2499;0.6782;
383.7000;0.2507;0.6709;
384.0000;0.2491;0.6685;
384.3000;0.2580;0.7097;
384.6000;0.2475;0.6831;
384.9000;0.2523;0.7049;
385.2000;0.2450;0.6758;
385.5000;0.2475;0.6976;
385.8000;0.2483;0.6903;
386.1000;0.2483;0.6976;
386.4000;0.2507;0.6927;
386.7000;0.2418;0.6613;
387.0000;0.2466;0.6782;
387.3000;0.2491;0.6831;
387.6000;0.2491;0.6806;
387.9000;0.2466;0.6782;
388.2000;0.2483;0.6831;
388.5000;0.2475;0.6855;
388.8000;0.2475;0.6879;
389.1000;0.2483;0.6831;
389.4000;0.2491;0.6831;
389.7000;0.2491;0.6855;
390.0000;0.2458;0.6855;
390.3000;0.2491;0.6952;
390.6000;0.2491;0.6927;
390.9000;0.2475;0.6903;
391.2000;0.2483;0.6927;
391.5000;0.2442;0.6782;
391.8000;0.2483;0.6879;
392.1000;0.2491;0.6903;
392.4000;0.2499;0.6927;
392.7000;0.2491;0.6879;
393.0000;0.2523;0.6879;
393.3000;0.2475;0.6709;
393.6000;0.2483;0.6782;
393.9000;0.2580;0.7121;
394.2000;0.2491;0.6831;
394.5000;0.2466;0.6734;
394.8000;0.2466;0.6782;
395.1000;0.2475;0.6831;
395.4000;0.2499;0.6879;
395.7000;0.2483;0.6903;
396.0000;0.2491;0.6976;
396.3000;0.2499;0.7000;
396.6000;0.2523;0.7024;
396.9000;0.2491;0.7049;
397.2000;0.2499;0.7000;
397.5000;0.2499;0.7049;
397.8000;0.2491;0.7000;
398.1000;0.2475;0.6952;
398.4000;0.2466;0.7000;
398.7000;0.2483;0.7097;
399.0000;0.2491;0.7073;
399.3000;0.2523;0.7073;
399.6000;0.2507;0.6976;
399.9000;0.2491;0.6903;
400.2000;0.2475;0.6758;
400.5000;0.2466;0.6782;
400.8000;0.2491;0.6855;
401.1000;0.2523;0.6976;
401.4000;0.2515;0.6952;
401.7000;0.2515;0.6855;
402.0000;0.2491;0.6903;
402.3000;0.2483;0.6927;
402.6000;0.2483;0.6976;
402.9000;0.2491;0.6976;
403.2000;0.2442;0.6734;
403.5000;0.2564;0.6976;
403.8000;0.2499;0.6879;
404.1000;0.2499;0.6903;
404.4000;0.2466;0.6806;
404.7000;0.2434;0.6734;
405.0000;0.2499;0.6879;
405.3000;0.2499;0.6855;
405.6000;0.2491;0.6903;
405.9000;0.2483;0.6782;
406.2000;0.2515;0.6903;
406.5000;0.2491;0.6831;
406.8000;0.2532;0.6903;
407.1000;0.2491;0.6734;
407.4000;0.2491;0.6758;
407.7000;0.2458;0.6637;
408.0000;0.2499;0.6734;
408.3000;0.2507;0.6782;
408.6000;0.2483;0.6661;
408.9000;0.2475;0.6661;
409.2000;0.2499;0.6782;
409.5000;0.2483;0.6782;
409.8000;0.2483;0.6709;
410.1000;0.2483;0.6879;
410.4000;0.2483;0.6831;
410.7000;0.2491;0.6806;
411.0000;0.2458;0.6709;
411.3000;0.2475;0.6806;
411.6000;0.2434;0.6806;
411.9000;0.2532;0.7000;
412.2000;0.2483;0.6831;
412.5000;0.2499;0.6903;
412.8000;0.2507;0.6806;
413.1000;0.2507;0.6903;
413.4000;0.2442;0.6734;
413.7000;0.2385;0.6588;
414.0000;0.2532;0.6952;
414.3000;0.2507;0.6831;
414.6000;0.2475;0.6758;
414.9000;0.2629;0.7121;
415.2000;0.2458;0.6709;
415.5000;0.2466;0.6782;
415.8000;0.2499;0.6758;
416.1000;0.2475;0.6806;
416.4000;0.2475;0.6782;
416.7000;0.2499;0.6903;
417.0000;0.2507;0.6903;
417.3000;0.2515;0.6927;
417.6000;0.2491;0.6734;
417.9000;0.2491;0.6782;
418.2000;0.2499;0.6855;
418.5000;0.2499;0.6879;
418.8000;0.2475;0.6831;
419.1000;0.2499;0.6782;
419.4000;0.2483;0.6855;
419.7000;0.2507;0.6903;
420.0000;0.2369;0.6491;
420.3000;0.2483;0.6879;
420.6000;0.2483;0.6903;
420.9000;0.2499;0.7000;
421.2000;0.2499;0.7000;
421.5000;0.2483;0.6952;
421.8000;0.2483;0.6782;
422.1000;0.2466;0.6758;
422.4000;0.2483;0.6782;
422.7000;0.2458;0.6709;
423.0000;0.2491;0.6855;
423.3000;0.2499;0.6903;
423.6000;0.2499;0.7000;
423.9000;0.2491;0.6927;
424.2000;0.2442;0.6806;
424.5000;0.2556;0.7073;
424.8000;0.2491;0.6927;
425.1000;0.2491;0.6903;
425.4000;0.2426;0.6734;
425.7000;0.2491;0.6952;
426.0000;0.2466;0.6831;
426.3000;0.2466;0.6806;
426.6000;0.2466;0.6879;
426.9000;0.2458;0.6952;
427.2000;0.2491;0.7049;
427.5000;0.2483;0.6976;
427.8000;0.2483;0.7121;
428.1000;0.2483;0.7097;
428.4000;0.2507;0.7097;
428.7000;0.2532;0.7145;
429.0000;0.2523;0.7218;
429.3000;0.2564;0.7388;
429.6000;0.2475;0.7170;
429.9000;0.2491;0.7145;
430.2000;0.2483;0.7024;
430.5000;0.2483;0.6976;
430.8000;0.2564;0.7121;
431.1000;0.2491;0.6903;
431.4000;0.2499;0.6855;
431.7000;0.2466;0.6758;
432.0000;0.2507;0.6976;
432.3000;0.2507;0.6976;
432.6000;0.2475;0.6903;
432.9000;0.2475;0.6952;
433.2000;0.2491;0.7000;
433.5000;0.2475;0.6976;
433.8000;0.2507;0.7024;
434.1000;0.2491;0.6952;
434.4000;0.2532;0.7049;
434.7000;0.2540;0.7073;
435.0000;0.2475;0.6903;
435.3000;0.2475;0.6806;
435.6000;0.2475;0.6782;
435.9000;0.2483;0.6758;
436.2000;0.2491;0.6806;
436.5000;0.2540;0.7000;
436.8000;0.2491;0.6831;
437.1000;0.2499;0.6879;
437.4000;0.2507;0.6927;
437.7000;0.2507;0.7024;
438.0000;0.2491;0.6976;
438.3000;0.2483;0.6903;
438.6000;0.2491;0.6831;
438.9000;0.2499;0.6927;
439.2000;0.2499;0.7024;
439.5000;0.2458;0.6903;
439.8000;0.2491;0.7000;
440.1000;0.2483;0.7024;
440.4000;0.2507;0.7073;
440.7000;0.2475;0.7024;
441.0000;0.2483;0.6976;
441.3000;0.2491;0.7024;
441.6000;0.2515;0.6952;
441.9000;0.2483;0.6855;
442.2000;0.2483;0.6903;
442.5000;0.2499;0.6927;
442.8000;0.2515;0.6976;
443.1000;0.2507;0.7000;
443.4000;0.2491;0.7000;
443.7000;0.2507;0.7049;
444.0000;0.2491;0.7049;
444.3000;0.2475;0.7000;
444.6000;0.2491;0.7024;
444.9000;0.2499;0.6976;
445.2000;0.2491;0.7049;
445.5000;0.2499;0.7121;
445.8000;0.2483;0.6952;
446.1000;0.2466;0.7000;
446.4000;0.2507;0.7121;
446.7000;0.2491;0.6903;
447.0000;0.2515;0.6927;
447.3000;0.2475;0.6734;
447.6000;0.2589;0.7097;
447.9000;0.2491;0.6855;
448.2000;0.2483;0.6831;
448.5000;0.2483;0.6806;
448.8000;0.2483;0.6855;
449.1000;0.2491;0.6927;
449.4000;0.2597;0.7242;
449.7000;0.2475;0.7024;
450.0000;0.2507;0.7218;
450.3000;0.2434;0.7000;
450.6000;0.2548;0.7242;
450.9000;0.2491;0.7049;
451.2000;0.2475;0.6927;
451.5000;0.2442;0.6806;
451.8000;0.2442;0.6903;
452.1000;0.2401;0.6879;
452.4000;0.2499;0.7097;
452.7000;0.2499;0.7049;
453.0000;0.2491;0.7024;
453.3000;0.2483;0.6976;
453.6000;0.2580;0.7194;
453.9000;0.2499;0.6855;
454.2000;0.2483;0.6758;
454.5000;0.2491;0.6734;
454.8000;0.2401;0.6564;
455.1000;0.2499;0.6855;
455.4000;0.2491;0.6952;
455.7000;0.2377;0.6661;
456.0000;0.2507;0.6976;
456.3000;0.2491;0.6952;
456.6000;0.2491;0.7049;
456.9000;0.2466;0.7073;
457.2000;0.2507;0.7097;
457.5000;0.2507;0.7097;
457.8000;0.2491;0.7097;
458.1000;0.2491;0.7024;
458.4000;0.2499;0.7000;
458.7000;0.2532;0.7073;
459.0000;0.2499;0.6976;
459.3000;0.2466;0.6831;
459.6000;0.2499;0.6927;
459.9000;0.2466;0.6855;
460.2000;0.2491;0.6927;
460.5000;0.2548;0.7073;
460.8000;0.2475;0.6927;
461.1000;0.2466;0.6879;
461.4000;0.2385;0.6637;
461.7000;0.2507;0.7024;
462.0000;0.2491;0.6976;
462.3000;0.2515;0.7121;
462.6000;0.2466;0.7000;
462.9000;0.2499;0.7024;
463.2000;0.2491;0.6855;
463.5000;0.2426;0.6661;
463.8000;0.2483;0.6831;
464.1000;0.2475;0.6903;
464.4000;0.2475;0.6903;
464.7000;0.2483;0.6927;
465.0000;0.2540;0.6952;
465.3000;0.2499;0.6903;
465.6000;0.2475;0.6806;
465.9000;0.2491;0.6855;
466.2000;0.2442;0.6734;
466.5000;0.2434;0.6637;
466.8000;0.2491;0.6734;
467.1000;0.2483;0.6613;
467.4000;0.2499;0.6637;
467.7000;0.2491;0.6637;
468.0000;0.2499;0.6637;
468.3000;0.2483;0.6588;
468.6000;0.2475;0.6734;
468.9000;0.2426;0.6709;
469.2000;0.2580;0.7194;
469.5000;0.2491;0.7000;
469.8000;0.2499;0.6927;
470.1000;0.2442;0.6855;
470.4000;0.2491;0.6952;
470.7000;0.2491;0.7000;
471.0000;0.2483;0.7073;
471.3000;0.2442;0.7024;
471.6000;0.2572;0.7339;
471.9000;0.2458;0.7000;
472.2000;0.2483;0.6976;
472.5000;0.2466;0.6927;
472.8000;0.2466;0.6952;
473.1000;0.2450;0.6903;
473.4000;0.2491;0.6976;
473.7000;0.2532;0.7000;
474.0000;0.2475;0.6831;
474.3000;0.2466;0.6806;
474.6000;0.2499;0.6903;
474.9000;0.2475;0.6976;
475.2000;0.2466;0.6903;
475.5000;0.2475;0.6879;
475.8000;0.2483;0.6879;
476.1000;0.2483;0.6927;
476.4000;0.2499;0.6976;
476.7000;0.2466;0.6952;
477.0000;0.2475;0.7073;
477.3000;0.2507;0.7194;
477.6000;0.2475;0.7049;
477.9000;0.2483;0.7049;
478.2000;0.2450;0.6952;
478.5000;0.2483;0.7024;
478.8000;0.2491;0.7049;
479.1000;0.2564;0.7242;
479.4000;0.2466;0.6976;
479.7000;0.2499;0.7049;
480.0000;0.2491;0.7049;
480.3000;0.2475;0.6952;
480.6000;0.2475;0.6952;
480.9000;0.2499;0.7000;
481.2000;0.2475;0.6927;
481.5000;0.2491;0.6952;
481.8000;0.2491;0.6976;
482.1000;0.2483;0.6927;
482.4000;0.2483;0.6927;
482.7000;0.2483;0.6831;
483.0000;0.2475;0.6855;
483.3000;0.2483;0.6879;
483.6000;0.2466;0.6879;
483.9000;0.2483;0.6976;
484.2000;0.2466;0.6879;
484.5000;0.2483;0.7024;
484.8000;0.2483;0.6952;
485.1000;0.2483;0.6976;
485.4000;0.2491;0.7049;
485.7000;0.2450;0.6976;
486.0000;0.2499;0.7194;
486.3000;0.2491;0.7194;
486.6000;0.2475;0.7145;
486.9000;0.2483;0.7121;
487.2000;0.2475;0.7097;
487.5000;0.2466;0.7049;
487.8000;0.2507;0.7145;
488.1000;0.2475;0.7000;
488.4000;0.2491;0.7097;
488.7000;0.2491;0.7097;
489.0000;0.2483;0.7097;
489.3000;0.2491;0.6976;
489.6000;0.2491;0.6952;
489.9000;0.2507;0.6879;
490.2000;0.2426;0.6540;
490.5000;0.2458;0.6709;
490.8000;0.2572;0.6952;
491.1000;0.2499;0.6806;
491.4000;0.2507;0.6855;
491.7000;0.2491;0.6831;
492.0000;0.2483;0.6758;
492.3000;0.2466;0.6685;
492.6000;0.2466;0.6806;
492.9000;0.2499;0.6879;
493.2000;0.2483;0.6855;
493.5000;0.2491;0.6831;
493.8000;0.2491;0.6855;
494.1000;0.2466;0.6903;
494.4000;0.2466;0.6952;
494.7000;0.2483;0.6952;
495.0000;0.2507;0.6927;
495.3000;0.2369;0.6516;
495.6000;0.2466;0.6758;
495.9000;0.2475;0.6709;
496.2000;0.2589;0.7024;
496.5000;0.2483;0.6734;
496.8000;0.2475;0.6661;
497.1000;0.2466;0.6661;
497.4000;0.2466;0.6637;
497.7000;0.2393;0.6540;
498.0000;0.2532;0.6831;
498.3000;0.2434;0.6516;
498.6000;0.2491;0.6661;
498.9000;0.2393;0.6491;
499.2000;0.2483;0.6806;
499.5000;0.2499;0.6758;
499.8000;0.2483;0.6734;
500.1000;0.2466;0.6782;
500.4000;0.2507;0.6806;
500.7000;0.2507;0.6782;
501.0000;0.2499;0.6855;
501.3000;0.2507;0.6903;
501.6000;0.2483;0.6855;
501.9000;0.2499;0.6976;
502.2000;0.2499;0.6976;
502.5000;0.2483;0.6952;
502.8000;0.2491;0.6976;
503.1000;0.2491;0.6976;
503.4000;0.2475;0.7000;
503.7000;0.2483;0.7049;
504.0000;0.2483;0.7000;
504.3000;0.2499;0.7000;
504.6000;0.2475;0.6952;
504.9000;0.2483;0.7000;
505.2000;0.2491;0.6976;
505.5000;0.2499;0.6952;
505.8000;0.2499;0.6855;
506.1000;0.2475;0.6879;
506.4000;0.2491;0.7000;
506.7000;0.2491;0.6903;
507.0000;0.2475;0.6855;
507.3000;0.2475;0.6855;
507.6000;0.2491;0.6855;
507.9000;0.2483;0.6806;
508.2000;0.2466;0.6806;
508.5000;0.2450;0.6782;
508.8000;0.2499;0.6927;
509.1000;0.2483;0.6879;
509.4000;0.2475;0.6952;
509.7000;0.2475;0.7000;
510.0000;0.2475;0.6927;
510.3000;0.2499;0.7097;
510.6000;0.2483;0.7024;
510.9000;0.2491;0.7000;
511.2000;0.2483;0.6976;
511.5000;0.2483;0.6927;
511.8000;0.2385;0.6588;
512.1000;0.2491;0.6806;
512.4000;0.2483;0.6758;
512.7000;0.2499;0.6927;
513.0000;0.2515;0.7049;
513.3000;0.2466;0.6709;
513.6000;0.2466;0.6806;
513.9000;0.2475;0.6903;
514.2000;0.2418;0.6758;
514.5000;0.2548;0.7097;
514.8000;0.2499;0.6976;
515.1000;0.2499;0.6976;
515.4000;0.2532;0.7121;
515.7000;0.2466;0.6952;
516.0000;0.2580;0.7218;
516.3000;0.2466;0.6903;
516.6000;0.2466;0.6806;
516.9000;0.2499;0.6831;
517.2000;0.2491;0.6855;
517.5000;0.2548;0.7024;
517.8000;0.2450;0.6782;
518.1000;0.2507;0.7024;
518.4000;0.2466;0.6927;
518.7000;0.2483;0.7000;
519.0000;0.2491;0.6976;
519.3000;0.2491;0.6952;
519.6000;0.2466;0.6927;
519.9000;0.2499;0.7000;
520.2000;0.2491;0.7000;
520.5000;0.2483;0.7024;
520.8000;0.2532;0.7145;
521.1000;0.2483;0.7049;
521.4000;0.2483;0.7000;
521.7000;0.2385;0.6782;
522.0000;0.2483;0.7024;
522.3000;0.2483;0.6976;
522.6000;0.2466;0.6903;
522.9000;0.2450;0.6758;
523.2000;0.2491;0.6709;
523.5000;0.2466;0.6685;
523.8000;0.2475;0.6782;
524.1000;0.2483;0.6903;
524.4000;0.2491;0.6879;
524.7000;0.2491;0.6903;
525.0000;0.2483;0.6879;
525.3000;0.2475;0.6831;
525.6000;0.2442;0.6758;
525.9000;0.2483;0.6831;
526.2000;0.2475;0.6758;
526.5000;0.2491;0.6879;
526.8000;0.2483;0.6952;
527.1000;0.2483;0.7073;
527.4000;0.2475;0.7145;
527.7000;0.2499;0.7145;
528.0000;0.2491;0.7073;
528.3000;0.2491;0.7000;
528.6000;0.2475;0.6903;
528.9000;0.2515;0.7024;
529.2000;0.2491;0.7024;
529.5000;0.2564;0.7242;
529.8000;0.2483;0.7073;
530.1000;0.2483;0.7024;
530.4000;0.2450;0.7024;
530.7000;0.2483;0.7073;
531.0000;0.2450;0.7024;
531.3000;0.2475;0.7049;
531.6000;0.2426;0.6806;
531.9000;0.2515;0.6927;
532.2000;0.2475;0.6758;
532.5000;0.2466;0.6806;
532.8000;0.2458;0.6855;
533.1000;0.2475;0.6831;
533.4000;0.2475;0.6734;
533.7000;0.2491;0.6806;
534.0000;0.2458;0.6637;
534.3000;0.2483;0.6734;
534.6000;0.2483;0.6782;
534.9000;0.2564;0.6976;
535.2000;0.2491;0.6782;
535.5000;0.2483;0.6758;
535.8000;0.2491;0.6734;
536.1000;0.2499;0.6709;
536.4000;0.2499;0.6661;
536.7000;0.2499;0.6685;
537.0000;0.2499;0.6709;
537.3000;0.2491;0.6661;
537.6000;0.2475;0.6806;
537.9000;0.2475;0.6952;
538.2000;0.2483;0.6927;
538.5000;0.2499;0.7000;
538.8000;0.2491;0.6952;
539.1000;0.2475;0.6903;
539.4000;0.2507;0.7049;
539.7000;0.2483;0.6927;
540.0000;0.2483;0.6879;
540.3000;0.2442;0.6806;
540.6000;0.2483;0.7024;
540.9000;0.2491;0.7049;
541.2000;0.2458;0.7000;
541.5000;0.2466;0.7049;
541.8000;0.2556;0.7170;
542.1000;0.2483;0.6952;
542.4000;0.2507;0.7000;
542.7000;0.2515;0.7024;
543.0000;0.2475;0.6952;
543.3000;0.2450;0.6952;
543.6000;0.2532;0.7073;
543.9000;0.2450;0.6879;
544.2000;0.2466;0.6831;
544.5000;0.2475;0.6855;
544.8000;0.2434;0.6879;
545.1000;0.2523;0.7194;
545.4000;0.2491;0.7024;
545.7000;0.2491;0.6927;
546.0000;0.2475;0.6903;
546.3000;0.2466;0.6782;
546.6000;0.2475;0.6831;
546.9000;0.2450;0.6734;
547.2000;0.2426;0.6685;
547.5000;0.2507;0.6976;
547.8000;0.2483;0.6903;
548.1000;0.2613;0.7267;
548.4000;0.2491;0.7049;
548.7000;0.2499;0.7097;
549.0000;0.2483;0.7049;
549.3000;0.2491;0.7000;
549.6000;0.2491;0.6976;
549.9000;0.2483;0.6903;
550.2000;0.2507;0.6879;
550.5000;0.2466;0.6855;
550.8000;0.2507;0.7000;
551.1000;0.2499;0.7000;
551.4000;0.2483;0.6952;
551.7000;0.2483;0.6855;
552.0000;0.2515;0.6903;
552.3000;0.2491;0.6927;
552.6000;0.2499;0.6927;
552.9000;0.2499;0.6952;
553.2000;0.2483;0.6903;
553.5000;0.2499;0.7000;
553.8000;0.2475;0.6952;
554.1000;0.2483;0.6927;
554.4000;0.2491;0.6903;
554.7000;0.2450;0.6613;
555.0000;0.2491;0.6661;
555.3000;0.2491;0.6709;
555.6000;0.2458;0.6709;
555.9000;0.2507;0.6806;
556.2000;0.2475;0.6588;
556.5000;0.2466;0.6588;
556.8000;0.2491;0.6709;
557.1000;0.2491;0.6758;
557.4000;0.2491;0.6661;
557.7000;0.2499;0.6661;
558.0000;0.2483;0.6709;
558.3000;0.2483;0.6782;
558.6000;0.2483;0.6782;
558.9000;0.2499;0.6806;
559.2000;0.2507;0.6855;
559.5000;0.2475;0.6734;
559.8000;0.2475;0.6709;
560.1000;0.2475;0.6806;
560.4000;0.2475;0.6903;
560.7000;0.2507;0.6952;
561.0000;0.2491;0.6709;
561.3000;0.2483;0.6734;
561.6000;0.2491;0.6758;
561.9000;0.2523;0.6855;
562.2000;0.2466;0.6831;
562.5000;0.2499;0.6976;
562.8000;0.2483;0.7024;
563.1000;0.2483;0.6976;
563.4000;0.2491;0.7049;
563.7000;0.2483;0.7049;
564.0000;0.2499;0.7121;
564.3000;0.2507;0.7145;
564.6000;0.2475;0.7121;
564.9000;0.2475;0.7145;
565.2000;0.2475;0.7097;
565.5000;0.2466;0.7121;
565.8000;0.2483;0.7145;
566.1000;0.2426;0.7024;
566.4000;0.2475;0.7073;
566.7000;0.2450;0.7000;
567.0000;0.2475;0.6927;
567.3000;0.2475;0.6976;
567.6000;0.2483;0.7024;
567.9000;0.2466;0.7000;
568.2000;0.2426;0.6927;
568.5000;0.2475;0.7097;
568.8000;0.2491;0.7145;
569.1000;0.2483;0.7170;
569.4000;0.2491;0.7218;
569.7000;0.2475;0.7097;
570.0000;0.2475;0.7049;
570.3000;0.2515;0.7121;
570.6000;0.2483;0.6976;
570.9000;0.2466;0.7000;
571.2000;0.2393;0.6661;
571.5000;0.2483;0.6831;
571.8000;0.2483;0.6903;
572.1000;0.2491;0.6903;
572.4000;0.2499;0.6782;
572.7000;0.2491;0.6806;
573.0000;0.2483;0.6831;
573.3000;0.2483;0.6806;
573.6000;0.2507;0.6831;
573.9000;0.2491;0.6709;
574.2000;0.2475;0.6661;
574.5000;0.2483;0.6709;
574.8000;0.2483;0.6734;
575.1000;0.2483;0.6758;
575.4000;0.2523;0.6855;
575.7000;0.2483;0.6661;
576.0000;0.2491;0.6588;
576.3000;0.2483;0.6613;
576.6000;0.2491;0.6637;
576.9000;0.2491;0.6661;
577.2000;0.2475;0.6613;
577.5000;0.2475;0.6637;
577.8000;0.2483;0.6685;
578.1000;0.2491;0.6758;
578.4000;0.2540;0.6952;
578.7000;0.2475;0.6806;
579.0000;0.2475;0.6782;
579.3000;0.2491;0.6831;
579.6000;0.2491;0.6806;
579.9000;0.2475;0.6831;
580.2000;0.2483;0.6831;
580.5000;0.2483;0.6855;
580.8000;0.2515;0.6855;
581.1000;0.2475;0.6782;
581.4000;0.2475;0.6709;
581.7000;0.2475;0.6709;
582.0000;0.2450;0.6613;
582.3000;0.2475;0.6709;
582.6000;0.2491;0.6806;
582.9000;0.2475;0.6855;
583.2000;0.2499;0.6879;
583.5000;0.2483;0.6903;
583.8000;0.2491;0.6831;
584.1000;0.2515;0.6879;
584.4000;0.2499;0.6782;
584.7000;0.2491;0.6831;
585.0000;0.2491;0.6879;
585.3000;0.2483;0.6879;
585.6000;0.2491;0.6952;
585.9000;0.2499;0.6976;
586.2000;0.2491;0.6952;
586.5000;0.2466;0.6758;
586.8000;0.2483;0.6734;
587.1000;0.2483;0.6782;
587.4000;0.2491;0.6855;
587.7000;0.2475;0.6855;
588.0000;0.2466;0.6782;
588.3000;0.2483;0.6879;
588.6000;0.2678;0.7436;
588.9000;0.2475;0.6903;
589.2000;0.2434;0.6758;
589.5000;0.2491;0.6927;
589.8000;0.2483;0.6927;
590.1000;0.2458;0.6903;
590.4000;0.2483;0.6976;
590.7000;0.2483;0.6976;
591.0000;0.2483;0.6927;
591.3000;0.2458;0.6831;
591.6000;0.2466;0.6855;
591.9000;0.2475;0.6927;
592.2000;0.2483;0.7024;
592.5000;0.2483;0.7000;
592.8000;0.2475;0.6927;
593.1000;0.2483;0.6879;
593.4000;0.2499;0.6952;
593.7000;0.2491;0.6976;
594.0000;0.2491;0.6879;
594.3000;0.2450;0.6806;
594.6000;0.2483;0.6927;
594.9000;0.2483;0.6879;
595.2000;0.2434;0.6661;
595.5000;0.2491;0.6879;
595.8000;0.2597;0.7194;
596.1000;0.2483;0.6806;
596.4000;0.2483;0.6855;
596.7000;0.2491;0.6879;
597.0000;0.2483;0.6806;
597.3000;0.2499;0.6903;
597.6000;0.2507;0.6976;
597.9000;0.2507;0.6927;
598.2000;0.2491;0.6831;
598.5000;0.2466;0.6782;
598.8000;0.2442;0.6685;
599.1000;0.2499;0.6806;
599.4000;0.2483;0.6758;
599.7000;0.2483;0.6855;
600.0000;0.2475;0.6831;
600.3000;0.2475;0.6709;
600.6000;0.2409;0.6467;
600.9000;0.2491;0.6637;
601.2000;0.2475;0.6516;
601.5000;0.2483;0.6491;
601.8000;0.2466;0.6419;
602.1000;0.2426;0.6225;
602.4000;0.2483;0.6177;
602.7000;0.2564;0.6298;
603.0000;0.2401;0.5741;
603.3000;0.2458;0.5813;
603.6000;0.2458;0.5789;
603.9000;0.2466;0.5741;
604.2000;0.2458;0.5668;
604.5000;0.2426;0.5498;
604.8000;0.2450;0.5547;
605.1000;0.2458;0.5571;
605.4000;0.2475;0.5668;
605.7000;0.2442;0.5619;
606.0000;0.2393;0.5450;
606.3000;0.2458;0.5426;
606.6000;0.2450;0.5377;
606.9000;0.2483;0.5426;
607.2000;0.2450;0.5353;
607.5000;0.2450;0.5232;
607.8000;0.2442;0.5135;
608.1000;0.2458;0.5280;
608.4000;0.2434;0.5135;
608.7000;0.2507;0.5401;
609.0000;0.2426;0.5111;
609.3000;0.2442;0.5183;
609.6000;0.2426;0.5135;
609.9000;0.2442;0.5135;
610.2000;0.2442;0.5087;
610.5000;0.2401;0.4990;
610.8000;0.2434;0.5014;
611.1000;0.2434;0.5014;
611.4000;0.2434;0.4965;
611.7000;0.2426;0.4893;
612.0000;0.2426;0.4917;
612.3000;0.2434;0.4844;
612.6000;0.2507;0.5014;
612.9000;0.2442;0.4844;
613.2000;0.2491;0.4965;
613.5000;0.2442;0.4965;
613.8000;0.2442;0.4965;
614.1000;0.2434;0.4965;
614.4000;0.2434;0.5014;
614.7000;0.2418;0.4941;
615.0000;0.2442;0.4917;
615.3000;0.2434;0.4844;
615.6000;0.2426;0.4820;
615.9000;0.2393;0.4747;
616.2000;0.2418;0.4869;
616.5000;0.2442;0.4869;
616.8000;0.2426;0.4747;
617.1000;0.2426;0.4893;
617.4000;0.2434;0.4941;
617.7000;0.2393;0.4893;
618.0000;0.2442;0.5062;
618.3000;0.2426;0.5062;
618.6000;0.2442;0.4917;
618.9000;0.2434;0.4893;
619.2000;0.2442;0.4990;
619.5000;0.2450;0.4990;
619.8000;0.2393;0.4941;
620.1000;0.2442;0.5159;
620.4000;0.2442;0.5159;
620.7000;0.2426;0.5135;
621.0000;0.2426;0.5135;
621.3000;0.2434;0.5062;
621.6000;0.2434;0.5087;
621.9000;0.2442;0.5135;
622.2000;0.2434;0.5111;
622.5000;0.2434;0.5135;
622.8000;0.2434;0.5087;
623.1000;0.2442;0.5111;
623.4000;0.2434;0.5062;
623.7000;0.2442;0.5135;
624.0000;0.2458;0.5256;
624.3000;0.2434;0.5208;
624.6000;0.2434;0.5111;
624.9000;0.2442;0.5135;
625.2000;0.2426;0.5111;
625.5000;0.2312;0.4844;
625.8000;0.2434;0.5183;
626.1000;0.2418;0.5159;
626.4000;0.2426;0.5159;
626.7000;0.2418;0.5159;
627.0000;0.2426;0.5014;
627.3000;0.2418;0.4869;
627.6000;0.2442;0.4844;
627.9000;0.2426;0.4772;
628.2000;0.2426;0.4893;
628.5000;0.2418;0.4893;
628.8000;0.2442;0.4941;
629.1000;0.2475;0.5014;
629.4000;0.2426;0.4820;
629.7000;0.2442;0.4820;
630.0000;0.2377;0.4651;
630.3000;0.2442;0.4893;
630.6000;0.2442;0.4893;
630.9000;0.2466;0.4869;
631.2000;0.2450;0.4820;
631.5000;0.2442;0.4723;
631.8000;0.2450;0.4747;
632.1000;0.2442;0.4869;
632.4000;0.2450;0.4893;
632.7000;0.2450;0.4869;
633.0000;0.2409;0.4747;
633.3000;0.2361;0.4651;
633.6000;0.2426;0.4844;
633.9000;0.2426;0.4869;
634.2000;0.2556;0.5208;
634.5000;0.2377;0.4699;
634.8000;0.2475;0.4990;
635.1000;0.2393;0.4772;
635.4000;0.2409;0.4820;
635.7000;0.2418;0.4893;
636.0000;0.2434;0.4917;
636.3000;0.2377;0.4723;
636.6000;0.2442;0.4796;
636.9000;0.2450;0.4917;
637.2000;0.2426;0.4990;
637.5000;0.2409;0.4965;
637.8000;0.2393;0.4965;
638.1000;0.2409;0.4917;
638.4000;0.2426;0.5087;
638.7000;0.2401;0.4965;
639.0000;0.2434;0.5014;
639.3000;0.2442;0.4965;
639.6000;0.2450;0.4965;
639.9000;0.2475;0.5038;
640.2000;0.2442;0.4965;
640.5000;0.2426;0.4965;
640.8000;0.2434;0.4941;
641.1000;0.2401;0.4820;
641.4000;0.2442;0.4917;
641.7000;0.2434;0.4941;
642.0000;0.2442;0.4965;
642.3000;0.2426;0.4893;
642.6000;0.2409;0.4820;
642.9000;0.2434;0.4941;
643.2000;0.2377;0.4820;
643.5000;0.2434;0.5087;
643.8000;0.2426;0.5014;
644.1000;0.2434;0.4990;
644.4000;0.2434;0.5014;
644.7000;0.2442;0.5038;
645.0000;0.2434;0.4990;
645.3000;0.2426;0.5111;
645.6000;0.2450;0.5111;
645.9000;0.2434;0.5111;
646.2000;0.2442;0.5014;
646.5000;0.2418;0.5014;
646.8000;0.2450;0.5111;
647.1000;0.2442;0.5087;
647.4000;0.2442;0.5087;
647.7000;0.2450;0.5087;
648.0000;0.2401;0.4965;
648.3000;0.2434;0.5087;
648.6000;0.2450;0.5111;
648.9000;0.2442;0.5038;
649.2000;0.2409;0.4990;
649.5000;0.2491;0.5183;
649.8000;0.2426;0.5062;
650.1000;0.2418;0.4990;
650.4000;0.2426;0.4990;
650.7000;0.2418;0.4990;
651.0000;0.2466;0.5111;
651.3000;0.2442;0.5062;
651.6000;0.2434;0.4990;
651.9000;0.2458;0.5014;
652.2000;0.2434;0.4893;
652.5000;0.2434;0.4965;
652.8000;0.2409;0.4990;
653.1000;0.2385;0.4893;
653.4000;0.2434;0.5014;
653.7000;0.2426;0.4893;
654.0000;0.2442;0.4893;
654.3000;0.2434;0.4990;
654.6000;0.2450;0.4990;
654.9000;0.2450;0.5014;
655.2000;0.2393;0.4820;
655.5000;0.2434;0.4820;
655.8000;0.2442;0.4869;
656.1000;0.2442;0.4844;
656.4000;0.2409;0.4675;
656.7000;0.2409;0.4723;
657.0000;0.2442;0.4747;
657.3000;0.2450;0.4796;
657.6000;0.2434;0.4747;
657.9000;0.2442;0.4723;
658.2000;0.2466;0.4844;
658.5000;0.2515;0.4965;
658.8000;0.2442;0.4723;
659.1000;0.2304;0.4384;
659.4000;0.2401;0.4699;
659.7000;0.2401;0.4723;
660.0000;0.2418;0.4796;
660.3000;0.2409;0.4869;
660.6000;0.2458;0.4917;
660.9000;0.2426;0.4844;
661.2000;0.2434;0.4820;
661.5000;0.2450;0.4820;
661.8000;0.2426;0.4675;
662.1000;0.2426;0.4747;
662.4000;0.2442;0.4796;
662.7000;0.2426;0.4844;
663.0000;0.2450;0.4965;
663.3000;0.2466;0.4990;
663.6000;0.2409;0.4844;
663.9000;0.2426;0.4820;
664.2000;0.2450;0.4844;
664.5000;0.2426;0.4917;
664.8000;0.2426;0.4893;
665.1000;0.2442;0.4917;
665.4000;0.2434;0.4917;
665.7000;0.2450;0.4869;
666.0000;0.2418;0.4723;
666.3000;0.2483;0.4990;
666.6000;0.2450;0.4990;
666.9000;0.2450;0.5014;
667.2000;0.2418;0.4917;
667.5000;0.2434;0.4941;
667.8000;0.2426;0.4893;
668.1000;0.2426;0.4869;
668.4000;0.2409;0.4772;
668.7000;0.2418;0.4796;
669.0000;0.2442;0.4869;
669.3000;0.2442;0.4893;
669.6000;0.2409;0.4699;
669.9000;0.2434;0.4699;
670.2000;0.2426;0.4699;
670.5000;0.2442;0.4772;
670.8000;0.2442;0.4772;
671.1000;0.2450;0.4869;
671.4000;0.2466;0.4941;
671.7000;0.2458;0.4990;
672.0000;0.2409;0.4990;
672.3000;0.2450;0.5135;
672.6000;0.2442;0.5014;
672.9000;0.2409;0.4869;
673.2000;0.2442;0.4869;
673.5000;0.2409;0.4820;
673.8000;0.2434;0.4917;
674.1000;0.2442;0.4869;
674.4000;0.2426;0.4869;
674.7000;0.2442;0.4820;
675.0000;0.2320;0.4602;
675.3000;0.2426;0.4844;
675.6000;0.2442;0.4869;
675.9000;0.2434;0.4820;
676.2000;0.2442;0.4869;
676.5000;0.2426;0.4869;
676.8000;0.2458;0.4941;
677.1000;0.2434;0.4893;
677.4000;0.2434;0.4917;
677.7000;0.2450;0.4941;
678.0000;0.2442;0.4990;
678.3000;0.2418;0.4917;
678.6000;0.2442;0.4893;
678.9000;0.2426;0.4796;
679.2000;0.2401;0.4772;
679.5000;0.2450;0.4844;
679.8000;0.2426;0.4796;
680.1000;0.2434;0.4772;
680.4000;0.2450;0.4820;
680.7000;0.2434;0.4723;
681.0000;0.2548;0.5038;
681.3000;0.2442;0.4893;
681.6000;0.2483;0.4965;
681.9000;0.2426;0.4869;
682.2000;0.2450;0.4965;
682.5000;0.2418;0.4844;
682.8000;0.2458;0.4941;
683.1000;0.2442;0.4893;
683.4000;0.2450;0.4893;
683.7000;0.2458;0.4893;
684.0000;0.2442;0.4893;
684.3000;0.2352;0.4651;
684.6000;0.2442;0.4844;
684.9000;0.2418;0.4844;
685.2000;0.2393;0.4796;
685.5000;0.2458;0.4941;
685.8000;0.2442;0.4990;
686.1000;0.2426;0.5014;
686.4000;0.2418;0.5014;
686.7000;0.2418;0.4965;
687.0000;0.2450;0.4990;
687.3000;0.2418;0.4917;
687.6000;0.2450;0.5038;
687.9000;0.2450;0.5038;
688.2000;0.2442;0.5087;
688.5000;0.2458;0.5111;
688.8000;0.2442;0.5183;
689.1000;0.2426;0.5062;
689.4000;0.2442;0.5038;
689.7000;0.2385;0.4917;
690.0000;0.2434;0.5038;
690.3000;0.2450;0.5014;
690.6000;0.2458;0.5062;
690.9000;0.2442;0.5014;
691.2000;0.2418;0.4965;
691.5000;0.2466;0.5062;
691.8000;0.2466;0.5135;
692.1000;0.2434;0.5062;
692.4000;0.2475;0.5256;
692.7000;0.2442;0.5159;
693.0000;0.2442;0.5087;
693.3000;0.2466;0.5062;
693.6000;0.2450;0.5014;
693.9000;0.2426;0.5038;
694.2000;0.2458;0.5111;
694.5000;0.2442;0.5135;
694.8000;0.2434;0.5111;
695.1000;0.2418;0.5111;
695.4000;0.2418;0.5087;
695.7000;0.2450;0.5208;
696.0000;0.2491;0.5305;
696.3000;0.2418;0.5159;
696.6000;0.2483;0.5401;
696.9000;0.2442;0.5256;
697.2000;0.2442;0.5305;
697.5000;0.2434;0.5256;
697.8000;0.2442;0.5208;
698.1000;0.2418;0.5087;
698.4000;0.2442;0.5111;
698.7000;0.2450;0.5111;
699.0000;0.2385;0.4893;
699.3000;0.2434;0.4990;
699.6000;0.2434;0.5038;
699.9000;0.2450;0.5038;
700.2000;0.2450;0.5014;
700.5000;0.2442;0.5038;
700.8000;0.2442;0.5038;
701.1000;0.2434;0.5062;
701.4000;0.2450;0.5062;
701.7000;0.2442;0.4990;
702.0000;0.2418;0.4965;
702.3000;0.2466;0.5135;
702.6000;0.2442;0.5087;
702.9000;0.2442;0.4990;
703.2000;0.2442;0.5038;
703.5000;0.2499;0.5159;
703.8000;0.2442;0.5038;
704.1000;0.2426;0.5038;
704.4000;0.2442;0.5062;
704.7000;0.2434;0.5062;
705.0000;0.2434;0.5014;
705.3000;0.2434;0.5038;
705.6000;0.2458;0.5135;
705.9000;0.2434;0.5111;
706.2000;0.2450;0.5159;
706.5000;0.2442;0.5135;
706.8000;0.2475;0.5256;
707.1000;0.2442;0.5087;
707.4000;0.2466;0.5111;
707.7000;0.2466;0.5159;
708.0000;0.2442;0.5062;
708.3000;0.2450;0.5087;
708.6000;0.2434;0.5038;
708.9000;0.2434;0.5062;
709.2000;0.2426;0.5014;
709.5000;0.2426;0.4990;
709.8000;0.2418;0.4965;
710.1000;0.2377;0.4844;
710.4000;0.2409;0.4941;
710.7000;0.2434;0.4917;
711.0000;0.2418;0.4893;
711.3000;0.2434;0.4893;
711.6000;0.2434;0.4941;
711.9000;0.2434;0.4941;
712.2000;0.2450;0.4965;
712.5000;0.2466;0.5038;
712.8000;0.2450;0.5014;
713.1000;0.2442;0.4965;
713.4000;0.2442;0.4990;
713.7000;0.2434;0.5014;
714.0000;0.2434;0.5062;
714.3000;0.2442;0.5111;
714.6000;0.2466;0.5208;
714.9000;0.2466;0.5232;
715.2000;0.2458;0.5183;
715.5000;0.2450;0.5183;
715.8000;0.2434;0.5111;
716.1000;0.2434;0.5111;
716.4000;0.2458;0.5087;
716.7000;0.2434;0.5062;
717.0000;0.2458;0.5111;
717.3000;0.2442;0.5135;
717.6000;0.2450;0.5038;
717.9000;0.2442;0.5014;
718.2000;0.2434;0.5014;
718.5000;0.2450;0.5038;
718.8000;0.2442;0.4990;
719.1000;0.2426;0.4917;
719.4000;0.2458;0.4990;
719.7000;0.2442;0.4941;
720.0000;0.2442;0.4965;
720.3000;0.2442;0.4990;
720.6000;0.2426;0.4917;
720.9000;0.2434;0.4941;
721.2000;0.2442;0.4965;
721.5000;0.2442;0.5038;
721.8000;0.2458;0.5135;
722.1000;0.2409;0.5038;
722.4000;0.2434;0.5111;
722.7000;0.2483;0.5280;
723.0000;0.2483;0.5280;
723.3000;0.2434;0.5183;
723.6000;0.2442;0.5232;
723.9000;0.2458;0.5305;
724.2000;0.2361;0.5159;
724.5000;0.2434;0.5305;
724.8000;0.2336;0.5159;
725.1000;0.2393;0.5280;
725.4000;0.2377;0.5183;
725.7000;0.2426;0.5280;
726.0000;0.2466;0.5329;
726.3000;0.2442;0.5232;
726.6000;0.2442;0.5232;
726.9000;0.2418;0.5208;
727.2000;0.2475;0.5256;
727.5000;0.2442;0.5232;
727.8000;0.2450;0.5208;
728.1000;0.2434;0.5038;
728.4000;0.2401;0.4941;
728.7000;0.2458;0.5111;
729.0000;0.2442;0.5038;
729.3000;0.2507;0.5135;
729.6000;0.2442;0.4990;
729.9000;0.2466;0.4917;
730.2000;0.2442;0.4941;
730.5000;0.2401;0.4941;
730.8000;0.2442;0.4990;
731.1000;0.2450;0.5038;
731.4000;0.2426;0.5014;
731.7000;0.2409;0.5014;
732.0000;0.2442;0.5111;
732.3000;0.2450;0.5014;
732.6000;0.2450;0.5062;
732.9000;0.2442;0.5159;
733.2000;0.2450;0.5208;
733.5000;0.2450;0.5208;
733.8000;0.2434;0.5111;
734.1000;0.2434;0.5111;
734.4000;0.2458;0.5135;
734.7000;0.2458;0.5111;
735.0000;0.2450;0.5159;
735.3000;0.2442;0.5159;
735.6000;0.2450;0.5159;
735.9000;0.2418;0.5111;
736.2000;0.2434;0.5062;
736.5000;0.2426;0.5087;
736.8000;0.2442;0.5062;
737.1000;0.2458;0.5062;
737.4000;0.2450;0.5038;
737.7000;0.2434;0.5038;
738.0000;0.2458;0.5014;
738.3000;0.2458;0.4941;
738.6000;0.2458;0.4990;
738.9000;0.2466;0.5062;
739.2000;0.2475;0.5135;
739.5000;0.2466;0.5208;
739.8000;0.2458;0.5135;
740.1000;0.2458;0.5135;
740.4000;0.2434;0.5062;
740.7000;0.2450;0.5087;
741.0000;0.2434;0.5038;
741.3000;0.2434;0.5014;
741.6000;0.2450;0.5135;
741.9000;0.2532;0.5377;
742.2000;0.2450;0.5087;
742.5000;0.2458;0.5159;
742.8000;0.2450;0.5208;
743.1000;0.2442;0.5232;
743.4000;0.2434;0.5256;
743.7000;0.2401;0.5183;
744.0000;0.2426;0.5305;
744.3000;0.2450;0.5401;
744.6000;0.2409;0.5305;
744.9000;0.2426;0.5305;
745.2000;0.2442;0.5256;
745.5000;0.2450;0.5183;
745.8000;0.2442;0.5111;
746.1000;0.2426;0.5014;
746.4000;0.2426;0.5014;
746.7000;0.2466;0.5208;
747.0000;0.2450;0.5111;
747.3000;0.2458;0.5135;
747.6000;0.2442;0.5087;
747.9000;0.2450;0.5087;
748.2000;0.2426;0.4941;
748.5000;0.2450;0.4965;
748.8000;0.2450;0.4965;
749.1000;0.2442;0.5038;
749.4000;0.2434;0.4917;
749.7000;0.2450;0.5014;
750.0000;0.2426;0.5014;
750.3000;0.2426;0.4990;
750.6000;0.2434;0.4965;
750.9000;0.2426;0.5014;
751.2000;0.2442;0.5014;
751.5000;0.2442;0.5038;
751.8000;0.2434;0.5014;
752.1000;0.2450;0.5111;
752.4000;0.2458;0.5111;
752.7000;0.2434;0.4990;
753.0000;0.2450;0.5087;
753.3000;0.2466;0.5087;
753.6000;0.2458;0.5062;
753.9000;0.2458;0.5062;
754.2000;0.2450;0.5014;
754.5000;0.2466;0.5087;
754.8000;0.2589;0.5353;
755.1000;0.2434;0.4893;
755.4000;0.2458;0.4941;
755.7000;0.2426;0.4844;
756.0000;0.2466;0.4990;
756.3000;0.2426;0.4869;
756.6000;0.2426;0.4893;
756.9000;0.2458;0.4965;
757.2000;0.2409;0.4772;
757.5000;0.2458;0.4869;
757.8000;0.2401;0.4747;
758.1000;0.2458;0.4990;
758.4000;0.2458;0.4917;
758.7000;0.2434;0.4965;
759.0000;0.2418;0.4941;
759.3000;0.2434;0.5038;
759.6000;0.2442;0.5087;
759.9000;0.2475;0.5159;
760.2000;0.2466;0.5135;
760.5000;0.2458;0.5062;
760.8000;0.2450;0.4990;
761.1000;0.2434;0.4917;
761.4000;0.2418;0.4893;
761.7000;0.2418;0.4796;
762.0000;0.2434;0.4844;
762.3000;0.2434;0.4772;
762.6000;0.2458;0.4772;
762.9000;0.2418;0.4675;
763.2000;0.2450;0.4747;
763.5000;0.2458;0.4747;
763.8000;0.2442;0.4723;
764.1000;0.2434;0.4772;
764.4000;0.2442;0.4820;
764.7000;0.2442;0.4796;
765.0000;0.2393;0.4626;
765.3000;0.2458;0.4796;
765.6000;0.2442;0.4747;
765.9000;0.2426;0.4796;
766.2000;0.2466;0.4869;
766.5000;0.2442;0.4820;
766.8000;0.2434;0.4796;
767.1000;0.2434;0.4747;
767.4000;0.2450;0.4747;
767.7000;0.2458;0.4796;
768.0000;0.2450;0.4772;
768.3000;0.2458;0.4772;
768.6000;0.2458;0.4820;
768.9000;0.2458;0.4747;
769.2000;0.2458;0.4699;
769.5000;0.2458;0.4651;
769.8000;0.2442;0.4626;
770.1000;0.2466;0.4699;
770.4000;0.2458;0.4675;
770.7000;0.2450;0.4723;
771.0000;0.2442;0.4699;
771.3000;0.2442;0.4723;
771.6000;0.2458;0.4772;
771.9000;0.2458;0.4893;
772.2000;0.2442;0.4772;
772.5000;0.2442;0.4772;
772.8000;0.2442;0.4699;
773.1000;0.2442;0.4747;
773.4000;0.2442;0.4747;
773.7000;0.2458;0.4820;
774.0000;0.2434;0.4723;
774.3000;0.2450;0.4796;
774.6000;0.2434;0.4772;
774.9000;0.2442;0.4893;
775.2000;0.2450;0.4893;
775.5000;0.2409;0.4820;
775.8000;0.2450;0.4893;
776.1000;0.2442;0.4844;
776.4000;0.2450;0.4844;
776.7000;0.2434;0.4893;
777.0000;0.2442;0.4941;
777.3000;0.2434;0.4844;
777.6000;0.2442;0.4820;
777.9000;0.2434;0.4796;
778.2000;0.2442;0.4844;
778.5000;0.2442;0.4844;
778.8000;0.2385;0.4772;
779.1000;0.2475;0.4965;
779.4000;0.2442;0.4917;
779.7000;0.2426;0.4869;
780.0000;0.2458;0.4917;
780.3000;0.2523;0.5111;
780.6000;0.2442;0.4869;
780.9000;0.2450;0.4965;
781.2000;0.2434;0.4917;
781.5000;0.2450;0.4965;
781.8000;0.2442;0.4917;
782.1000;0.2409;0.4917;
782.4000;0.2442;0.4917;
782.7000;0.2450;0.4965;
783.0000;0.2434;0.4820;
783.3000;0.2434;0.4699;
783.6000;0.2426;0.4723;
783.9000;0.2515;0.4917;
784.2000;0.2450;0.4675;
784.5000;0.2434;0.4651;
784.8000;0.2458;0.4651;
785.1000;0.2442;0.4626;
785.4000;0.2418;0.4578;
785.7000;0.2450;0.4651;
786.0000;0.2507;0.4820;
786.3000;0.2442;0.4796;
786.6000;0.2434;0.4869;
786.9000;0.2426;0.4917;
787.2000;0.2426;0.4796;
787.5000;0.2426;0.4796;
787.8000;0.2458;0.4820;
788.1000;0.2442;0.4820;
788.4000;0.2434;0.4820;
788.7000;0.2442;0.4844;
789.0000;0.2434;0.4893;
789.3000;0.2458;0.4965;
789.6000;0.2442;0.4965;
789.9000;0.2450;0.4965;
790.2000;0.2450;0.5087;
790.5000;0.2385;0.4893;
790.8000;0.2450;0.4941;
791.1000;0.2450;0.4990;
791.4000;0.2450;0.5014;
791.7000;0.2458;0.5038;
792.0000;0.2442;0.5014;
792.3000;0.2434;0.5014;
792.6000;0.2466;0.5183;
792.9000;0.2466;0.5256;
793.2000;0.2426;0.5159;
793.5000;0.2336;0.4844;
793.8000;0.2434;0.5014;
794.1000;0.2418;0.4941;
794.4000;0.2450;0.4965;
794.7000;0.2442;0.4941;
795.0000;0.2442;0.4941;
795.3000;0.2458;0.4941;
795.6000;0.2458;0.4893;
795.9000;0.2483;0.4917;
796.2000;0.2458;0.4869;
796.5000;0.2442;0.4820;
796.8000;0.2458;0.4869;
797.1000;0.2450;0.4917;
797.4000;0.2434;0.4917;
797.7000;0.2450;0.4893;
798.0000;0.2442;0.4917;
798.3000;0.2442;0.4844;
798.6000;0.2450;0.4844;
798.9000;0.2466;0.4941;
799.2000;0.2458;0.5038;
799.5000;0.2450;0.5087;
799.8000;0.2450;0.5087;
800.1000;0.2475;0.5087;
800.4000;0.2458;0.4990;
800.7000;0.2458;0.4965;
801.0000;0.2458;0.4893;
801.3000;0.2450;0.4893;
801.6000;0.2450;0.5014;
801.9000;0.2458;0.4990;
802.2000;0.2499;0.5087;
802.5000;0.2450;0.4990;
802.8000;0.2442;0.4965;
803.1000;0.2458;0.5038;
803.4000;0.2458;0.4941;
803.7000;0.2442;0.4941;
804.0000;0.2442;0.4917;
804.3000;0.2442;0.4917;
804.6000;0.2450;0.4941;
804.9000;0.2450;0.5038;
805.2000;0.2434;0.5038;
805.5000;0.2458;0.5111;
805.8000;0.2466;0.5038;
806.1000;0.2442;0.4917;
806.4000;0.2450;0.4941;
806.7000;0.2442;0.4941;
807.0000;0.2466;0.4990;
807.3000;0.2434;0.4893;
807.6000;0.2409;0.4820;
807.9000;0.2450;0.4941;
808.2000;0.2458;0.4917;
808.5000;0.2450;0.4941;
808.8000;0.2442;0.4893;
809.1000;0.2450;0.4990;
809.4000;0.2458;0.5062;
809.7000;0.2450;0.5087;
810.0000;0.2434;0.5087;
810.3000;0.2434;0.5062;
810.6000;0.2418;0.5062;
810.9000;0.2466;0.5111;
811.2000;0.2458;0.5135;
811.5000;0.2418;0.4990;
811.8000;0.2450;0.5111;
812.1000;0.2450;0.5111;
812.4000;0.2336;0.4820;
812.7000;0.2442;0.5062;
813.0000;0.2442;0.5038;
813.3000;0.2442;0.5038;
813.6000;0.2458;0.5087;
813.9000;0.2442;0.5062;
814.2000;0.2458;0.5038;
814.5000;0.2450;0.5087;
814.8000;0.2426;0.4965;
815.1000;0.2450;0.5038;
815.4000;0.2450;0.4965;
815.7000;0.2466;0.4990;
816.0000;0.2426;0.4893;
816.3000;0.2475;0.4941;
816.6000;0.2450;0.4869;
816.9000;0.2458;0.4820;
817.2000;0.2466;0.4917;
817.5000;0.2442;0.4796;
817.8000;0.2442;0.4869;
818.1000;0.2401;0.4869;
818.4000;0.2442;0.4965;
818.7000;0.2434;0.4893;
819.0000;0.2442;0.4893;
819.3000;0.2434;0.4893;
819.6000;0.2418;0.4893;
819.9000;0.2434;0.4917;
820.2000;0.2442;0.4990;
820.5000;0.2426;0.4965;
820.8000;0.2442;0.4869;
821.1000;0.2450;0.4844;
821.4000;0.2442;0.4820;
821.7000;0.2434;0.4820;
822.0000;0.2450;0.4917;
822.3000;0.2442;0.4893;
822.6000;0.2450;0.5038;
822.9000;0.2434;0.5014;
823.2000;0.2377;0.4796;
823.5000;0.2442;0.4917;
823.8000;0.2434;0.4893;
824.1000;0.2442;0.4917;
824.4000;0.2442;0.4941;
824.7000;0.2434;0.4990;
825.0000;0.2450;0.4990;
825.3000;0.2450;0.5038;
825.6000;0.2442;0.5062;
825.9000;0.2442;0.5038;
826.2000;0.2458;0.5087;
826.5000;0.2442;0.4990;
826.8000;0.2442;0.5038;
827.1000;0.2475;0.5159;
827.4000;0.2466;0.5159;
827.7000;0.2458;0.5087;
828.0000;0.2442;0.4990;
828.3000;0.2442;0.5014;
828.6000;0.2450;0.4965;
828.9000;0.2458;0.4941;
829.2000;0.2450;0.4917;
829.5000;0.2442;0.4941;
829.8000;0.2450;0.5087;
830.1000;0.2442;0.5087;
830.4000;0.2450;0.5062;
830.7000;0.2466;0.5038;
831.0000;0.2450;0.4990;
831.3000;0.2442;0.4965;
831.6000;0.2499;0.5087;
831.9000;0.2491;0.5087;
832.2000;0.2442;0.5087;
832.5000;0.2458;0.5159;
832.8000;0.2442;0.5159;
833.1000;0.2426;0.5208;
833.4000;0.2466;0.5305;
833.7000;0.2458;0.5232;
834.0000;0.2442;0.5183;
834.3000;0.2426;0.5135;
834.6000;0.2499;0.5208;
834.9000;0.2458;0.5038;
835.2000;0.2442;0.5038;
835.5000;0.2458;0.5087;
835.8000;0.2515;0.5208;
836.1000;0.2450;0.5014;
836.4000;0.2450;0.4917;
836.7000;0.2475;0.4869;
837.0000;0.2450;0.4772;
837.3000;0.2475;0.4820;
837.6000;0.2426;0.4772;
837.9000;0.2450;0.4844;
838.2000;0.2466;0.4893;
838.5000;0.2458;0.4965;
838.8000;0.2434;0.4965;
839.1000;0.2442;0.4965;
839.4000;0.2426;0.4917;
839.7000;0.2442;0.4844;
840.0000;0.2442;0.4796;
840.3000;0.2466;0.4747;
840.6000;0.2491;0.4893;
840.9000;0.2450;0.4747;
841.2000;0.2466;0.4844;
841.5000;0.2483;0.4990;
841.8000;0.2336;0.4626;
842.1000;0.2466;0.5014;
842.4000;0.2458;0.5014;
842.7000;0.2458;0.4965;
843.0000;0.2450;0.4844;
843.3000;0.2442;0.4869;
843.6000;0.2328;0.4529;
843.9000;0.2515;0.5038;
844.2000;0.2450;0.4820;
844.5000;0.2426;0.4796;
844.8000;0.2450;0.4796;
845.1000;0.2442;0.4796;
845.4000;0.2458;0.4820;
845.7000;0.2434;0.4796;
846.0000;0.2450;0.4820;
846.3000;0.2450;0.4844;
846.6000;0.2458;0.4869;
846.9000;0.2450;0.4917;
847.2000;0.2475;0.4941;
847.5000;0.2442;0.4869;
847.8000;0.2458;0.4965;
848.1000;0.2450;0.4844;
848.4000;0.2450;0.4844;
848.7000;0.2450;0.4893;
849.0000;0.2401;0.4747;
849.3000;0.2458;0.4893;
849.6000;0.2434;0.4820;
849.9000;0.2442;0.4844;
850.2000;0.2434;0.4965;
850.5000;0.2458;0.5087;
850.8000;0.2434;0.4990;
851.1000;0.2450;0.4965;
851.4000;0.2442;0.4917;
851.7000;0.2458;0.4965;
852.0000;0.2475;0.4990;
852.3000;0.2458;0.4965;
852.6000;0.2458;0.5038;
852.9000;0.2548;0.5232;
853.2000;0.2458;0.5014;
853.5000;0.2450;0.4965;
853.8000;0.2450;0.4965;
854.1000;0.2466;0.5062;
854.4000;0.2426;0.4917;
854.7000;0.2418;0.4941;
855.0000;0.2450;0.5038;
855.3000;0.2450;0.5014;
855.6000;0.2442;0.5038;
855.9000;0.2483;0.5135;
856.2000;0.2466;0.5038;
856.5000;0.2515;0.5159;
856.8000;0.2466;0.5111;
857.1000;0.2418;0.5014;
857.4000;0.2434;0.5135;
857.7000;0.2442;0.5183;
858.0000;0.2442;0.5183;
858.3000;0.2450;0.5232;
858.6000;0.2450;0.5111;
858.9000;0.2483;0.5159;
859.2000;0.2450;0.5062;
859.5000;0.2458;0.5159;
859.8000;0.2466;0.5208;
860.1000;0.2442;0.5135;
860.4000;0.2507;0.5232;
860.7000;0.2409;0.5062;
861.0000;0.2434;0.4990;
861.3000;0.2442;0.4990;
861.6000;0.2442;0.4893;
861.9000;0.2450;0.4820;
862.2000;0.2434;0.4844;
862.5000;0.2475;0.4965;
862.8000;0.2466;0.4917;
863.1000;0.2442;0.4869;
863.4000;0.2442;0.4917;
863.7000;0.2475;0.4965;
864.0000;0.2442;0.4893;
864.3000;0.2385;0.4772;
864.6000;0.2466;0.4965;
864.9000;0.2450;0.4990;
865.2000;0.2442;0.5014;
865.5000;0.2458;0.5038;
865.8000;0.2466;0.5062;
866.1000;0.2458;0.5111;
866.4000;0.2450;0.5062;
866.7000;0.2458;0.5087;
867.0000;0.2450;0.5062;
867.3000;0.2418;0.4965;
867.6000;0.2458;0.4965;
867.9000;0.2466;0.4990;
868.2000;0.2434;0.4869;
868.5000;0.2458;0.4869;
868.8000;0.2434;0.4869;
869.1000;0.2458;0.4965;
869.4000;0.2458;0.4990;
869.7000;0.2466;0.5014;
870.0000;0.2442;0.4941;
870.3000;0.2442;0.4869;
870.6000;0.2450;0.4941;
870.9000;0.2466;0.4917;
871.2000;0.2483;0.4917;
871.5000;0.2450;0.4893;
871.8000;0.2426;0.4869;
872.1000;0.2450;0.4917;
872.4000;0.2458;0.4917;
872.7000;0.2458;0.4917;
873.0000;0.2523;0.5135;
873.3000;0.2418;0.4893;
873.6000;0.2458;0.5014;
873.9000;0.2458;0.4990;
874.2000;0.2450;0.4917;
874.5000;0.2450;0.4893;
874.8000;0.2499;0.5087;
875.1000;0.2450;0.4917;
875.4000;0.2442;0.4844;
875.7000;0.2434;0.4869;
876.0000;0.2458;0.4990;
876.3000;0.2442;0.4844;
876.6000;0.2458;0.4869;
876.9000;0.2475;0.4990;
877.2000;0.2458;0.5135;
877.5000;0.2418;0.5087;
877.8000;0.2450;0.4965;
878.1000;0.2466;0.5014;
878.4000;0.2426;0.4820;
878.7000;0.2475;0.4893;
879.0000;0.2434;0.4844;
879.3000;0.2458;0.4893;
879.6000;0.2532;0.5135;
879.9000;0.2458;0.4917;
880.2000;0.2458;0.4941;
880.5000;0.2450;0.4917;
880.8000;0.2442;0.4965;
881.1000;0.2483;0.5062;
881.4000;0.2532;0.5135;
881.7000;0.2434;0.4844;
882.0000;0.2434;0.4893;
882.3000;0.2458;0.4844;
882.6000;0.2328;0.4554;
882.9000;0.2450;0.4941;
883.2000;0.2442;0.4869;
883.5000;0.2450;0.4941;
883.8000;0.2450;0.4990;
884.1000;0.2450;0.4990;
884.4000;0.2434;0.4990;
884.7000;0.2450;0.5038;
885.0000;0.2450;0.5038;
885.3000;0.2442;0.5087;
885.6000;0.2442;0.5038;
885.9000;0.2458;0.5038;
886.2000;0.2385;0.4869;
886.5000;0.2450;0.5087;
886.8000;0.2450;0.5159;
887.1000;0.2434;0.5087;
887.4000;0.2458;0.5183;
887.7000;0.2475;0.5135;
888.0000;0.2401;0.4917;
888.3000;0.2442;0.4990;
888.6000;0.2466;0.4917;
888.9000;0.2458;0.4893;
889.2000;0.2361;0.4505;
889.5000;0.2450;0.4796;
889.8000;0.2458;0.4772;
890.1000;0.2450;0.4869;
890.4000;0.2450;0.4893;
890.7000;0.2434;0.4917;
891.0000;0.2450;0.4869;
891.3000;0.2458;0.4917;
891.6000;0.2434;0.4820;
891.9000;0.2450;0.4820;
892.2000;0.2442;0.4772;
892.5000;0.2458;0.4869;
892.8000;0.2450;0.4820;
893.1000;0.2442;0.4796;
893.4000;0.2450;0.4844;
893.7000;0.2450;0.4820;
894.0000;0.2466;0.4820;
894.3000;0.2556;0.5038;
894.6000;0.2475;0.4747;
894.9000;0.2442;0.4651;
895.2000;0.2442;0.4747;
895.5000;0.2466;0.4869;
895.8000;0.2458;0.4990;
896.1000;0.2401;0.4844;
896.4000;0.2442;0.4917;
896.7000;0.2426;0.4869;
897.0000;0.2426;0.4893;
897.3000;0.2548;0.5208;
897.6000;0.2458;0.4941;
897.9000;0.2466;0.4941;
898.2000;0.2458;0.4941;
898.5000;0.2466;0.4990;
898.8000;0.2475;0.4941;
899.1000;0.2475;0.4869;
899.4000;0.2450;0.4869;
899.7000;0.2426;0.4796;
900.0000;0.2466;0.4844;
900.3000;0.2450;0.4869;
900.6000;0.2483;0.4893;
900.9000;0.2450;0.4844;
901.2000;0.2442;0.4844;
901.5000;0.2458;0.4893;
901.8000;0.2409;0.4796;
902.1000;0.2442;0.4869;
902.4000;0.2409;0.4893;
902.7000;0.2458;0.5014;
903.0000;0.2442;0.4990;
903.3000;0.2458;0.5038;
903.6000;0.2475;0.5111;
903.9000;0.2409;0.4941;
904.2000;0.2442;0.5087;
904.5000;0.2475;0.5159;
904.8000;0.2450;0.5111;
905.1000;0.2442;0.5135;
905.4000;0.2450;0.5111;
905.7000;0.2450;0.5111;
906.0000;0.2434;0.5062;
906.3000;0.2458;0.5014;
906.6000;0.2352;0.4796;
906.9000;0.2450;0.4941;
907.2000;0.2426;0.4917;
907.5000;0.2401;0.4820;
907.8000;0.2450;0.4990;
908.1000;0.2450;0.4893;
908.4000;0.2434;0.4965;
908.7000;0.2450;0.5038;
909.0000;0.2434;0.5087;
909.3000;0.2515;0.5353;
909.6000;0.2442;0.5159;
909.9000;0.2442;0.5183;
910.2000;0.2369;0.4917;
910.5000;0.2458;0.5159;
910.8000;0.2450;0.5111;
911.1000;0.2466;0.5232;
911.4000;0.2442;0.5159;
911.7000;0.2409;0.4965;
912.0000;0.2458;0.5111;
912.3000;0.2434;0.4990;
912.6000;0.2458;0.5014;
912.9000;0.2442;0.5111;
913.2000;0.2532;0.5256;
913.5000;0.2458;0.5062;
913.8000;0.2466;0.4965;
914.1000;0.2434;0.4965;
914.4000;0.2450;0.4917;
914.7000;0.2442;0.4917;
915.0000;0.2450;0.5038;
915.3000;0.2442;0.5062;
915.6000;0.2450;0.5014;
915.9000;0.2458;0.4990;
916.2000;0.2458;0.4893;
916.5000;0.2442;0.4917;
916.8000;0.2426;0.4893;
917.1000;0.2450;0.4917;
917.4000;0.2458;0.4941;
917.7000;0.2442;0.4917;
918.0000;0.2450;0.4917;
918.3000;0.2458;0.4965;
918.6000;0.2450;0.4965;
918.9000;0.2466;0.5014;
919.2000;0.2450;0.5087;
919.5000;0.2450;0.5087;
919.8000;0.2434;0.5038;
920.1000;0.2409;0.4965;
920.4000;0.2426;0.5014;
920.7000;0.2450;0.5087;
921.0000;0.2450;0.5135;
921.3000;0.2442;0.5062;
921.6000;0.2450;0.5111;
921.9000;0.2458;0.5087;
922.2000;0.2434;0.5062;
922.5000;0.2426;0.5087;
922.8000;0.2475;0.5087;
923.1000;0.2434;0.4941;
923.4000;0.2450;0.4990;
923.7000;0.2458;0.4965;
924.0000;0.2466;0.4990;
924.3000;0.2442;0.5062;
924.6000;0.2442;0.5062;
924.9000;0.2361;0.4965;
925.2000;0.2442;0.5135;
925.5000;0.2466;0.5208;
925.8000;0.2475;0.5329;
926.1000;0.2458;0.5232;
926.4000;0.2442;0.5183;
926.7000;0.2450;0.5280;
927.0000;0.2475;0.5305;
927.3000;0.2442;0.5159;
927.6000;0.2434;0.5087;
927.9000;0.2491;0.5208;
928.2000;0.2458;0.5135;
928.5000;0.2450;0.5135;
928.8000;0.2377;0.4965;
929.1000;0.2442;0.5135;
929.4000;0.2466;0.5208;
929.7000;0.2442;0.5111;
930.0000;0.2475;0.5111;
930.3000;0.2418;0.5087;
930.6000;0.2483;0.5280;
930.9000;0.2442;0.5159;
931.2000;0.2442;0.5159;
931.5000;0.2450;0.5159;
931.8000;0.2442;0.5159;
932.1000;0.2450;0.5183;
932.4000;0.2475;0.5256;
932.7000;0.2515;0.5353;
933.0000;0.2442;0.5159;
933.3000;0.2442;0.5087;
933.6000;0.2418;0.4990;
933.9000;0.2458;0.5062;
934.2000;0.2409;0.4869;
934.5000;0.2450;0.4941;
934.8000;0.2442;0.4893;
935.1000;0.2450;0.4869;
935.4000;0.2458;0.4869;
935.7000;0.2458;0.4869;
936.0000;0.2458;0.4917;
936.3000;0.2466;0.4869;
936.6000;0.2458;0.4844;
936.9000;0.2466;0.4893;
937.2000;0.2475;0.5014;
937.5000;0.2483;0.5087;
937.8000;0.2442;0.4941;
938.1000;0.2466;0.4990;
938.4000;0.2426;0.4917;
938.7000;0.2475;0.5087;
939.0000;0.2450;0.5038;
939.3000;0.2442;0.4990;
939.6000;0.2434;0.4941;
939.9000;0.2499;0.5087;
940.2000;0.2458;0.4941;
940.5000;0.2475;0.4965;
940.8000;0.2556;0.5280;
941.1000;0.2450;0.4917;
941.4000;0.2458;0.4965;
941.7000;0.2442;0.4917;
942.0000;0.2458;0.5014;
942.3000;0.2458;0.5038;
942.6000;0.2580;0.5353;
942.9000;0.2442;0.5038;
943.2000;0.2450;0.5014;
943.5000;0.2450;0.4869;
943.8000;0.2450;0.4893;
944.1000;0.2426;0.4893;
944.4000;0.2450;0.4917;
944.7000;0.2442;0.4869;
945.0000;0.2450;0.4844;
945.3000;0.2458;0.4747;
945.6000;0.2499;0.4796;
945.9000;0.2393;0.4554;
946.2000;0.2466;0.4772;
946.5000;0.2475;0.4844;
946.8000;0.2458;0.4844;
947.1000;0.2434;0.4796;
947.4000;0.2450;0.4893;
947.7000;0.2458;0.4990;
948.0000;0.2466;0.4869;
948.3000;0.2466;0.4820;
948.6000;0.2475;0.4869;
948.9000;0.2442;0.4796;
949.2000;0.2450;0.4917;
949.5000;0.2450;0.4893;
949.8000;0.2442;0.4917;
950.1000;0.2336;0.4723;
950.4000;0.2458;0.5014;
950.7000;0.2458;0.4990;
951.0000;0.2393;0.4941;
951.3000;0.2450;0.5111;
951.6000;0.2466;0.5062;
951.9000;0.2442;0.5087;
952.2000;0.2466;0.5014;
952.5000;0.2466;0.5014;
952.8000;0.2458;0.4990;
953.1000;0.2450;0.4869;
953.4000;0.2442;0.4893;
953.7000;0.2458;0.4965;
954.0000;0.2450;0.4965;
954.3000;0.2466;0.4869;
954.6000;0.2466;0.4941;
954.9000;0.2491;0.5038;
955.2000;0.2458;0.4941;
955.5000;0.2466;0.4990;
955.8000;0.2466;0.4990;
956.1000;0.2377;0.4796;
956.4000;0.2450;0.5087;
956.7000;0.2409;0.5062;
957.0000;0.2409;0.5111;
957.3000;0.2442;0.5135;
957.6000;0.2507;0.5256;
957.9000;0.2458;0.5111;
958.2000;0.2426;0.4990;
958.5000;0.2450;0.4941;
958.8000;0.2450;0.4941;
959.1000;0.2458;0.4990;
959.4000;0.2450;0.4917;
959.7000;0.2328;0.4578;
960.0000;0.2483;0.4941;
960.3000;0.2450;0.4893;
960.6000;0.2450;0.4844;
960.9000;0.2442;0.4844;
961.2000;0.2450;0.4869;
961.5000;0.2466;0.4941;
961.8000;0.2466;0.4990;
962.1000;0.2466;0.5014;
962.4000;0.2458;0.4941;
962.7000;0.2458;0.4965;
963.0000;0.2450;0.4990;
963.3000;0.2466;0.5038;
963.6000;0.2450;0.5014;
963.9000;0.2475;0.5062;
964.2000;0.2450;0.5062;
964.5000;0.2385;0.4869;
964.8000;0.2426;0.5014;
965.1000;0.2450;0.5087;
965.4000;0.2450;0.5038;
965.7000;0.2434;0.4965;
966.0000;0.2466;0.5062;
966.3000;0.2475;0.5183;
966.6000;0.2475;0.5159;
966.9000;0.2475;0.5208;
967.2000;0.2344;0.4893;
967.5000;0.2450;0.5208;
967.8000;0.2458;0.5159;
968.1000;0.2442;0.5038;
968.4000;0.2475;0.5111;
968.7000;0.2515;0.5183;
969.0000;0.2434;0.4917;
969.3000;0.2458;0.4941;
969.6000;0.2475;0.5014;
969.9000;0.2434;0.4893;
970.2000;0.2434;0.4917;
970.5000;0.2442;0.4965;
970.8000;0.2442;0.4990;
971.1000;0.2442;0.4917;
971.4000;0.2442;0.4965;
971.7000;0.2434;0.5038;
972.0000;0.2499;0.5208;
972.3000;0.2458;0.5111;
972.6000;0.2466;0.5111;
972.9000;0.2458;0.5038;
973.2000;0.2450;0.5038;
973.5000;0.2450;0.5038;
973.8000;0.2442;0.5014;
974.1000;0.2450;0.4941;
974.4000;0.2458;0.4893;
974.7000;0.2499;0.5038;
975.0000;0.2450;0.4869;
975.3000;0.2466;0.4893;
975.6000;0.2466;0.4747;
975.9000;0.2515;0.4990;
976.2000;0.2466;0.4820;
976.5000;0.2515;0.4941;
976.8000;0.2466;0.4869;
977.1000;0.2466;0.4869;
977.4000;0.2458;0.4820;
977.7000;0.2458;0.4869;
978.0000;0.2466;0.4990;
978.3000;0.2450;0.4941;
978.6000;0.2450;0.4917;
978.9000;0.2418;0.4869;
979.2000;0.2434;0.4965;
979.5000;0.2450;0.4917;
979.8000;0.2458;0.4990;
980.1000;0.2466;0.4917;
980.4000;0.2442;0.4893;
980.7000;0.2491;0.5014;
981.0000;0.2458;0.4869;
981.3000;0.2442;0.4844;
981.6000;0.2409;0.4699;
981.9000;0.2466;0.4844;
982.2000;0.2385;0.4602;
982.5000;0.2458;0.4820;
982.8000;0.2434;0.4820;
983.1000;0.2450;0.4965;
983.4000;0.2458;0.5014;
983.7000;0.2507;0.5087;
984.0000;0.2442;0.5014;
984.3000;0.2442;0.4869;
984.6000;0.2450;0.4820;
984.9000;0.2458;0.4941;
985.2000;0.2466;0.4869;
985.5000;0.2442;0.4869;
985.8000;0.2466;0.4869;
986.1000;0.2466;0.4869;
986.4000;0.2442;0.4917;
986.7000;0.2458;0.4990;
987.0000;0.2442;0.4917;
987.3000;0.2466;0.4917;
987.6000;0.2458;0.4941;
987.9000;0.2442;0.4917;
988.2000;0.2515;0.5014;
988.5000;0.2450;0.4820;
988.8000;0.2532;0.5062;
989.1000;0.2466;0.4917;
989.4000;0.2442;0.4796;
989.7000;0.2466;0.4893;
990.0000;0.2458;0.4917;
990.3000;0.2499;0.4965;
990.6000;0.2426;0.4796;
990.9000;0.2466;0.4917;
991.2000;0.2450;0.4869;
991.5000;0.2466;0.4965;
991.8000;0.2466;0.5014;
992.1000;0.2450;0.5038;
992.4000;0.2466;0.5038;
992.7000;0.2458;0.5062;
993.0000;0.2458;0.5038;
993.3000;0.2458;0.4965;
993.6000;0.2475;0.4990;
993.9000;0.2475;0.5038;
994.2000;0.2434;0.4990;
994.5000;0.2450;0.4990;
994.8000;0.2442;0.4796;
995.1000;0.2434;0.4747;
995.4000;0.2442;0.4747;
995.7000;0.2466;0.4772;
996.0000;0.2466;0.4772;
996.3000;0.2483;0.4820;
996.6000;0.2426;0.4626;
996.9000;0.2450;0.4675;
997.2000;0.2466;0.4772;
997.5000;0.2450;0.4723;
997.8000;0.2458;0.4772;
998.1000;0.2458;0.4869;
998.4000;0.2450;0.4917;
998.7000;0.2466;0.5087;
999.0000;0.2466;0.5014;
999.3000;0.2434;0.4990;
999.6000;0.2458;0.4965;
999.9000;0.2466;0.4965;
1000.2000;0.2450;0.5014;
1000.5000;0.2458;0.5038;
1000.8000;0.2466;0.5135;
1001.1000;0.2483;0.5135;
1001.4000;0.2442;0.4990;
1001.7000;0.2466;0.4990;
1002.0000;0.2458;0.5062;
1002.3000;0.2450;0.5062;
1002.6000;0.2361;0.4796;
1002.9000;0.2426;0.5014;
1003.2000;0.2450;0.5159;
1003.5000;0.2442;0.5111;
1003.8000;0.2458;0.5159;
1004.1000;0.2466;0.5183;
1004.4000;0.2418;0.5014;
1004.7000;0.2442;0.4893;
1005.0000;0.2450;0.4893;
1005.3000;0.2458;0.5014;
1005.6000;0.2450;0.5038;
1005.9000;0.2450;0.5159;
1006.2000;0.2507;0.5256;
1006.5000;0.2450;0.5135;
1006.8000;0.2442;0.5135;
1007.1000;0.2450;0.5135;
1007.4000;0.2450;0.5111;
1007.7000;0.2450;0.5111;
1008.0000;0.2450;0.5111;
1008.3000;0.2458;0.5087;
1008.6000;0.2434;0.5087;
1008.9000;0.2458;0.5111;
1009.2000;0.2475;0.5135;
1009.5000;0.2466;0.5087;
1009.8000;0.2458;0.5014;
1010.1000;0.2458;0.4990;
1010.4000;0.2450;0.4893;
1010.7000;0.2450;0.4893;
1011.0000;0.2507;0.5014;
1011.3000;0.2442;0.4796;
1011.6000;0.2458;0.4820;
1011.9000;0.2450;0.4820;
1012.2000;0.2434;0.4869;
1012.5000;0.2458;0.5014;
1012.8000;0.2475;0.5087;
1013.1000;0.2442;0.5135;
1013.4000;0.2458;0.5183;
1013.7000;0.2426;0.5183;
1014.0000;0.2409;0.5087;
1014.3000;0.2499;0.5305;
1014.6000;0.2450;0.5159;
1014.9000;0.2442;0.5135;
1015.2000;0.2458;0.5135;
1015.5000;0.2458;0.5111;
1015.8000;0.2450;0.5087;
1016.1000;0.2450;0.5135;
1016.4000;0.2458;0.5135;
1016.7000;0.2450;0.5111;
1017.0000;0.2434;0.5062;
1017.3000;0.2442;0.5087;
1017.6000;0.2450;0.5038;
1017.9000;0.2450;0.5014;
1018.2000;0.2450;0.5014;
1018.5000;0.2458;0.5014;
1018.8000;0.2458;0.4941;
1019.1000;0.2442;0.4917;
1019.4000;0.2466;0.5014;
1019.7000;0.2475;0.4941;
1020.0000;0.2483;0.4941;
1020.3000;0.2466;0.4796;
1020.6000;0.2458;0.4699;
1020.9000;0.2466;0.4723;
1021.2000;0.2466;0.4772;
1021.5000;0.2458;0.4723;
1021.8000;0.2450;0.4675;
1022.1000;0.2442;0.4675;
1022.4000;0.2434;0.4675;
1022.7000;0.2434;0.4699;
1023.0000;0.2393;0.4651;
1023.3000;0.2466;0.4893;
1023.6000;0.2491;0.4990;
1023.9000;0.2466;0.4893;
1024.2000;0.2458;0.4844;
1024.5000;0.2409;0.4723;
1024.8000;0.2442;0.4869;
1025.1000;0.2458;0.4965;
1025.4000;0.2564;0.5208;
1025.7000;0.2450;0.4869;
1026.0000;0.2442;0.4869;
1026.3000;0.2442;0.4965;
1026.6000;0.2434;0.5038;
1026.9000;0.2466;0.5111;
1027.2000;0.2458;0.5038;
1027.5000;0.2434;0.5014;
1027.8000;0.2450;0.5014;
1028.1000;0.2434;0.4941;
1028.4000;0.2393;0.4893;
1028.7000;0.2450;0.5087;
1029.0000;0.2466;0.5087;
1029.3000;0.2458;0.5038;
1029.6000;0.2483;0.5111;
1029.9000;0.2450;0.4990;
1030.2000;0.2466;0.5014;
1030.5000;0.2499;0.5208;
1030.8000;0.2458;0.5135;
1031.1000;0.2499;0.5208;
1031.4000;0.2418;0.4965;
1031.7000;0.2450;0.5087;
1032.0000;0.2450;0.5087;
1032.3000;0.2458;0.5159;
1032.6000;0.2450;0.5111;
1032.9000;0.2556;0.5232;
1033.2000;0.2475;0.5014;
1033.5000;0.2483;0.4990;
1033.8000;0.2409;0.4723;
1034.1000;0.2450;0.4893;
1034.4000;0.2409;0.4747;
1034.7000;0.2466;0.4917;
1035.0000;0.2450;0.4869;
1035.3000;0.2450;0.4917;
1035.6000;0.2450;0.4965;
1035.9000;0.2483;0.5038;
1036.2000;0.2458;0.4965;
1036.5000;0.2434;0.4844;
1036.8000;0.2450;0.4965;
1037.1000;0.2466;0.5014;
1037.4000;0.2450;0.4917;
1037.7000;0.2426;0.4796;
1038.0000;0.2442;0.4917;
1038.3000;0.2458;0.4917;
1038.6000;0.2458;0.4965;
1038.9000;0.2393;0.4747;
1039.2000;0.2458;0.4893;
1039.5000;0.2450;0.4869;
1039.8000;0.2564;0.5159;
1040.1000;0.2450;0.4893;
1040.4000;0.2344;0.4554;
1040.7000;0.2450;0.4941;
1041.0000;0.2483;0.4990;
1041.3000;0.2466;0.4917;
1041.6000;0.2458;0.4941;
1041.9000;0.2499;0.5038;
1042.2000;0.2458;0.4844;
1042.5000;0.2458;0.4869;
1042.8000;0.2442;0.4965;
1043.1000;0.2442;0.5038;
1043.4000;0.2450;0.5087;
1043.7000;0.2466;0.5062;
1044.0000;0.2491;0.5183;
1044.3000;0.2442;0.5014;
1044.6000;0.2499;0.5159;
1044.9000;0.2466;0.5062;
1045.2000;0.2458;0.5159;
1045.5000;0.2466;0.5111;
1045.8000;0.2426;0.5014;
1046.1000;0.2450;0.5062;
1046.4000;0.2442;0.5159;
1046.7000;0.2466;0.5111;
1047.0000;0.2466;0.5062;
1047.3000;0.2442;0.4965;
1047.6000;0.2466;0.4917;
1047.9000;0.2466;0.4917;
1048.2000;0.2475;0.4941;
1048.5000;0.2491;0.4965;
1048.8000;0.2466;0.4893;
1049.1000;0.2442;0.4869;
1049.4000;0.2450;0.4820;
1049.7000;0.2458;0.4820;
1050.0000;0.2450;0.4820;
1050.3000;0.2450;0.4820;
1050.6000;0.2458;0.4990;
1050.9000;0.2442;0.4941;
1051.2000;0.2515;0.5111;
1051.5000;0.2450;0.4893;
1051.8000;0.2442;0.4917;
1052.1000;0.2523;0.5183;
1052.4000;0.2458;0.4990;
1052.7000;0.2458;0.4941;
1053.0000;0.2483;0.4917;
1053.3000;0.2458;0.4796;
1053.6000;0.2466;0.4820;
1053.9000;0.2458;0.4844;
1054.2000;0.2458;0.4869;
1054.5000;0.2475;0.4941;
1054.8000;0.2426;0.4869;
1055.1000;0.2458;0.4917;
1055.4000;0.2442;0.4869;
1055.7000;0.2442;0.4917;
1056.0000;0.2499;0.4965;
1056.3000;0.2450;0.4917;
1056.6000;0.2442;0.4941;
1056.9000;0.2458;0.4965;
1057.2000;0.2450;0.4917;
1057.5000;0.2442;0.4990;
1057.8000;0.2483;0.5135;
1058.1000;0.2458;0.5014;
1058.4000;0.2434;0.5038;
1058.7000;0.2499;0.5183;
1059.0000;0.2450;0.5038;
1059.3000;0.2458;0.4965;
1059.6000;0.2466;0.5038;
1059.9000;0.2540;0.5329;
1060.2000;0.2466;0.5087;
1060.5000;0.2458;0.4941;
1060.8000;0.2393;0.4699;
1061.1000;0.2466;0.4917;
1061.4000;0.2466;0.4869;
1061.7000;0.2483;0.4844;
1062.0000;0.2434;0.4772;
1062.3000;0.2442;0.4772;
1062.6000;0.2458;0.4869;
1062.9000;0.2450;0.4796;
1063.2000;0.2458;0.4844;
1063.5000;0.2434;0.4820;
1063.8000;0.2466;0.4844;
1064.1000;0.2458;0.4723;
1064.4000;0.2442;0.4723;
1064.7000;0.2450;0.4844;
1065.0000;0.2515;0.5062;
1065.3000;0.2475;0.4893;
1065.6000;0.2458;0.4844;
1065.9000;0.2458;0.4820;
1066.2000;0.2450;0.4820;
1066.5000;0.2466;0.4990;
1066.8000;0.2409;0.4844;
1067.1000;0.2450;0.4893;
1067.4000;0.2475;0.4965;
1067.7000;0.2450;0.4893;
1068.0000;0.2434;0.4917;
1068.3000;0.2426;0.4893;
1068.6000;0.2434;0.4869;
1068.9000;0.2442;0.4893;
1069.2000;0.2450;0.4917;
1069.5000;0.2450;0.4941;
1069.8000;0.2475;0.4893;
1070.1000;0.2466;0.4917;
1070.4000;0.2475;0.4965;
1070.7000;0.2450;0.4941;
1071.0000;0.2450;0.4965;
1071.3000;0.2450;0.4941;
1071.6000;0.2426;0.4917;
1071.9000;0.2466;0.5038;
1072.2000;0.2458;0.5014;
1072.5000;0.2450;0.4990;
1072.8000;0.2458;0.5014;
1073.1000;0.2458;0.4965;
1073.4000;0.2442;0.4893;
1073.7000;0.2475;0.5062;
1074.0000;0.2466;0.4990;
1074.3000;0.2458;0.5014;
1074.6000;0.2466;0.5087;
1074.9000;0.2491;0.5038;
1075.2000;0.2344;0.4675;
1075.5000;0.2466;0.4965;
1075.8000;0.2466;0.5014;
1076.1000;0.2442;0.4990;
1076.4000;0.2458;0.4941;
1076.7000;0.2418;0.4772;
1077.0000;0.2450;0.4869;
1077.3000;0.2458;0.4893;
1077.6000;0.2523;0.5111;
1077.9000;0.2458;0.4917;
1078.2000;0.2450;0.4990;
1078.5000;0.2564;0.5232;
1078.8000;0.2458;0.4941;
1079.1000;0.2450;0.4893;
1079.4000;0.2458;0.4941;
1079.7000;0.2344;0.4578;
1080.0000;0.2458;0.4990;
1080.3000;0.2475;0.5038;
1080.6000;0.2466;0.5087;
1080.9000;0.2458;0.5087;
1081.2000;0.2377;0.4869;
1081.5000;0.2442;0.5038;
1081.8000;0.2450;0.4965;
1082.1000;0.2499;0.4965;
1082.4000;0.2434;0.4820;
1082.7000;0.2434;0.4844;
1083.0000;0.2499;0.4941;
1083.3000;0.2491;0.4990;
1083.6000;0.2442;0.4917;
1083.9000;0.2450;0.4965;
1084.2000;0.2450;0.5038;
1084.5000;0.2434;0.4965;
1084.8000;0.2369;0.4941;
1085.1000;0.2466;0.5111;
1085.4000;0.2450;0.5087;
1085.7000;0.2450;0.5087;
1086.0000;0.2458;0.5087;
1086.3000;0.2458;0.5062;
1086.6000;0.2458;0.5062;
1086.9000;0.2475;0.5087;
1087.2000;0.2475;0.5038;
1087.5000;0.2458;0.5062;
1087.8000;0.2401;0.4869;
1088.1000;0.2532;0.5183;
1088.4000;0.2458;0.4941;
1088.7000;0.2426;0.4869;
1089.0000;0.2458;0.4941;
1089.3000;0.2458;0.5062;
1089.6000;0.2450;0.4990;
1089.9000;0.2418;0.4869;
1090.2000;0.2442;0.4917;
1090.5000;0.2475;0.4941;
1090.8000;0.2475;0.4965;
1091.1000;0.2450;0.4844;
1091.4000;0.2426;0.4917;
1091.7000;0.2434;0.4941;
1092.0000;0.2450;0.4965;
1092.3000;0.2450;0.4917;
1092.6000;0.2466;0.4917;
1092.9000;0.2434;0.4844;
1093.2000;0.2458;0.5014;
1093.5000;0.2458;0.5062;
1093.8000;0.2458;0.5038;
1094.1000;0.2475;0.5014;
1094.4000;0.2450;0.4917;
1094.7000;0.2475;0.5014;
1095.0000;0.2475;0.4965;
1095.3000;0.2466;0.4869;
1095.6000;0.2458;0.4820;
1095.9000;0.2458;0.4772;
1096.2000;0.2466;0.4772;
1096.5000;0.2458;0.4747;
1096.8000;0.2475;0.4844;
1097.1000;0.2450;0.4796;
1097.4000;0.2515;0.4965;
1097.7000;0.2434;0.4772;
1098.0000;0.2450;0.4747;
1098.3000;0.2450;0.4820;
1098.6000;0.2450;0.4893;
1098.9000;0.2450;0.4990;
1099.2000;0.2450;0.4990;
1099.5000;0.2466;0.4990;
1099.8000;0.2458;0.5014;
1100.1000;0.2475;0.4990;
1100.4000;0.2475;0.4917;
1100.7000;0.2466;0.4917;
1101.0000;0.2475;0.4893;
1101.3000;0.2434;0.4844;
1101.6000;0.2450;0.4941;
1101.9000;0.2466;0.4965;
1102.2000;0.2466;0.4990;
1102.5000;0.2466;0.4965;
1102.8000;0.2458;0.4941;
1103.1000;0.2450;0.4917;
1103.4000;0.2450;0.4965;
1103.7000;0.2409;0.4820;
1104.0000;0.2475;0.4990;
1104.3000;0.2458;0.4893;
1104.6000;0.2475;0.4844;
1104.9000;0.2385;0.4699;
1105.2000;0.2401;0.4699;
1105.5000;0.2434;0.4772;
1105.8000;0.2532;0.4917;
1106.1000;0.2475;0.4893;
1106.4000;0.2466;0.4917;
1106.7000;0.2434;0.4844;
1107.0000;0.2466;0.4917;
1107.3000;0.2458;0.4893;
1107.6000;0.2475;0.4893;
1107.9000;0.2458;0.4917;
1108.2000;0.2434;0.4917;
1108.5000;0.2466;0.4941;
1108.8000;0.2466;0.5014;
1109.1000;0.2458;0.4965;
1109.4000;0.2442;0.4917;
1109.7000;0.2458;0.4869;
1110.0000;0.2499;0.5014;
1110.3000;0.2450;0.4796;
1110.6000;0.2450;0.4699;
1110.9000;0.2434;0.4651;
1111.2000;0.2483;0.4869;
1111.5000;0.2458;0.4820;
1111.8000;0.2434;0.4844;
1112.1000;0.2426;0.4747;
1112.4000;0.2450;0.4796;
1112.7000;0.2458;0.4844;
1113.0000;0.2450;0.4869;
1113.3000;0.2450;0.4917;
1113.6000;0.2458;0.4820;
1113.9000;0.2458;0.4772;
1114.2000;0.2458;0.4723;
1114.5000;0.2450;0.4699;
1114.8000;0.2466;0.4772;
1115.1000;0.2548;0.5087;
1115.4000;0.2458;0.4869;
1115.7000;0.2450;0.4869;
1116.0000;0.2450;0.4893;
1116.3000;0.2442;0.4869;
1116.6000;0.2466;0.4917;
1116.9000;0.2458;0.4893;
1117.2000;0.2475;0.4941;
1117.5000;0.2475;0.4941;
1117.8000;0.2466;0.4893;
1118.1000;0.2466;0.4772;
1118.4000;0.2458;0.4869;
1118.7000;0.2450;0.4869;
1119.0000;0.2466;0.4917;
1119.3000;0.2507;0.5038;
1119.6000;0.2466;0.4990;
1119.9000;0.2434;0.4917;
1120.2000;0.2523;0.5159;
1120.5000;0.2442;0.4965;
1120.8000;0.2466;0.5038;
1121.1000;0.2361;0.4869;
1121.4000;0.2409;0.4941;
1121.7000;0.2458;0.4990;
1122.0000;0.2401;0.4869;
1122.3000;0.2426;0.4869;
1122.6000;0.2540;0.5280;
1122.9000;0.2450;0.5111;
1123.2000;0.2466;0.5183;
1123.5000;0.2466;0.5111;
1123.8000;0.2434;0.5062;
1124.1000;0.2466;0.5038;
1124.4000;0.2466;0.5087;
1124.7000;0.2466;0.5159;
1125.0000;0.2466;0.5256;
1125.3000;0.2483;0.5280;
1125.6000;0.2434;0.5183;
1125.9000;0.2450;0.5232;
1126.2000;0.2458;0.5135;
1126.5000;0.2466;0.5062;
1126.8000;0.2450;0.4917;
1127.1000;0.2483;0.4917;
1127.4000;0.2385;0.4747;
1127.7000;0.2483;0.4965;
1128.0000;0.2409;0.4723;
1128.3000;0.2466;0.4941;
1128.6000;0.2442;0.4917;
1128.9000;0.2450;0.4917;
1129.2000;0.2442;0.4941;
1129.5000;0.2458;0.4941;
1129.8000;0.2393;0.4699;
1130.1000;0.2442;0.4893;
1130.4000;0.2442;0.4893;
1130.7000;0.2466;0.4941;
1131.0000;0.2475;0.4917;
1131.3000;0.2442;0.4820;
1131.6000;0.2434;0.4747;
1131.9000;0.2475;0.4893;
1132.2000;0.2442;0.4869;
1132.5000;0.2466;0.4941;
1132.8000;0.2442;0.4893;
1133.1000;0.2466;0.4917;
1133.4000;0.2450;0.4869;
1133.7000;0.2434;0.4893;
1134.0000;0.2475;0.5014;
1134.3000;0.2466;0.4917;
1134.6000;0.2450;0.4820;
1134.9000;0.2450;0.4747;
1135.2000;0.2466;0.4820;
1135.5000;0.2450;0.4796;
1135.8000;0.2475;0.4869;
1136.1000;0.2450;0.4869;
1136.4000;0.2466;0.4917;
1136.7000;0.2532;0.5183;
1137.0000;0.2475;0.4990;
1137.3000;0.2434;0.4772;
1137.6000;0.2450;0.4723;
1137.9000;0.2475;0.4917;
1138.2000;0.2458;0.4941;
1138.5000;0.2434;0.4869;
1138.8000;0.2450;0.4869;
1139.1000;0.2491;0.4965;
1139.4000;0.2450;0.4796;
1139.7000;0.2475;0.4820;
1140.0000;0.2458;0.4772;
1140.3000;0.2458;0.4772;
1140.6000;0.2458;0.4796;
1140.9000;0.2458;0.4844;
1141.2000;0.2418;0.4723;
1141.5000;0.2458;0.4772;
1141.8000;0.2458;0.4747;
1142.1000;0.2475;0.4675;
1142.4000;0.2450;0.4578;
1142.7000;0.2458;0.4626;
1143.0000;0.2466;0.4675;
1143.3000;0.2450;0.4651;
1143.6000;0.2499;0.4651;
1143.9000;0.2426;0.4481;
1144.2000;0.2352;0.4263;
1144.5000;0.2450;0.4554;
1144.8000;0.2466;0.4626;
1145.1000;0.2442;0.4481;
1145.4000;0.2450;0.4578;
1145.7000;0.2458;0.4602;
1146.0000;0.2475;0.4723;
1146.3000;0.2450;0.4747;
1146.6000;0.2418;0.4675;
1146.9000;0.2458;0.4820;
1147.2000;0.2483;0.4893;
1147.5000;0.2442;0.4772;
1147.8000;0.2466;0.4796;
1148.1000;0.2458;0.4772;
1148.4000;0.2466;0.4723;
1148.7000;0.2475;0.4772;
1149.0000;0.2450;0.4796;
1149.3000;0.2442;0.4796;
1149.6000;0.2466;0.4917;
1149.9000;0.2442;0.4869;
1150.2000;0.2458;0.4844;
1150.5000;0.2475;0.4869;
1150.8000;0.2450;0.4772;
1151.1000;0.2450;0.4820;
1151.4000;0.2393;0.4602;
1151.7000;0.2450;0.4675;
1152.0000;0.2450;0.4602;
1152.3000;0.2483;0.4626;
1152.6000;0.2450;0.4505;
1152.9000;0.2434;0.4433;
1153.2000;0.2491;0.4723;
1153.5000;0.2458;0.4747;
1153.8000;0.2442;0.4747;
1154.1000;0.2434;0.4699;
1154.4000;0.2450;0.4772;
1154.7000;0.2466;0.4772;
1155.0000;0.2491;0.4917;
1155.3000;0.2475;0.4893;
1155.6000;0.2434;0.4796;
1155.9000;0.2466;0.5014;
1156.2000;0.2458;0.4990;
1156.5000;0.2475;0.5014;
1156.8000;0.2442;0.4965;
1157.1000;0.2450;0.4990;
1157.4000;0.2483;0.5038;
1157.7000;0.2409;0.4893;
1158.0000;0.2434;0.4965;
1158.3000;0.2458;0.5062;
1158.6000;0.2458;0.5038;
1158.9000;0.2442;0.4965;
1159.2000;0.2450;0.4869;
1159.5000;0.2466;0.4917;
1159.8000;0.2450;0.4893;
1160.1000;0.2450;0.4893;
1160.4000;0.2458;0.4844;
1160.7000;0.2434;0.4844;
1161.0000;0.2450;0.4893;
1161.3000;0.2466;0.4917;
1161.6000;0.2458;0.4917;
1161.9000;0.2515;0.5087;
1162.2000;0.2458;0.4941;
1162.5000;0.2450;0.4941;
1162.8000;0.2475;0.4869;
1163.1000;0.2458;0.4844;
1163.4000;0.2458;0.4747;
1163.7000;0.2475;0.4772;
1164.0000;0.2458;0.4723;
1164.3000;0.2475;0.4820;
1164.6000;0.2418;0.4699;
1164.9000;0.2450;0.4796;
1165.2000;0.2475;0.4820;
1165.5000;0.2442;0.4796;
1165.8000;0.2434;0.4747;
1166.1000;0.2450;0.4820;
1166.4000;0.2361;0.4578;
1166.7000;0.2434;0.4747;
1167.0000;0.2458;0.4723;
1167.3000;0.2466;0.4747;
1167.6000;0.2466;0.4869;
1167.9000;0.2418;0.4869;
1168.2000;0.2458;0.4965;
1168.5000;0.2466;0.4990;
1168.8000;0.2442;0.4893;
1169.1000;0.2450;0.4844;
1169.4000;0.2458;0.4893;
1169.7000;0.2450;0.4941;
1170.0000;0.2483;0.5062;
1170.3000;0.2458;0.5062;
1170.6000;0.2450;0.5062;
1170.9000;0.2450;0.4990;
1171.2000;0.2450;0.5014;
1171.5000;0.2458;0.5014;
1171.8000;0.2458;0.4941;
1172.1000;0.2458;0.5014;
1172.4000;0.2426;0.4965;
1172.7000;0.2507;0.5232;
1173.0000;0.2458;0.5111;
1173.3000;0.2450;0.5087;
1173.6000;0.2466;0.5111;
1173.9000;0.2458;0.5087;
1174.2000;0.2458;0.5038;
1174.5000;0.2458;0.5087;
1174.8000;0.2458;0.5062;
1175.1000;0.2475;0.5014;
1175.4000;0.2475;0.5111;
1175.7000;0.2442;0.5014;
1176.0000;0.2466;0.5159;
1176.3000;0.2466;0.5038;
1176.6000;0.2450;0.5014;
1176.9000;0.2458;0.5111;
1177.2000;0.2475;0.5135;
1177.5000;0.2499;0.5135;
1177.8000;0.2466;0.5062;
1178.1000;0.2458;0.5038;
1178.4000;0.2466;0.4990;
1178.7000;0.2475;0.4990;
1179.0000;0.2491;0.5135;
1179.3000;0.2466;0.4965;
1179.6000;0.2450;0.4893;
1179.9000;0.2450;0.4965;
1180.2000;0.2377;0.4844;
1180.5000;0.2475;0.5062;
1180.8000;0.2434;0.4990;
1181.1000;0.2426;0.4869;
1181.4000;0.2466;0.4990;
1181.7000;0.2450;0.4941;
1182.0000;0.2458;0.5014;
1182.3000;0.2458;0.5014;
1182.6000;0.2483;0.5232;
1182.9000;0.2475;0.5232;
1183.2000;0.2466;0.5280;
1183.5000;0.2442;0.5232;
1183.8000;0.2466;0.5256;
1184.1000;0.2458;0.5208;
1184.4000;0.2466;0.5183;
1184.7000;0.2450;0.5183;
1185.0000;0.2507;0.5280;
1185.3000;0.2458;0.5111;
1185.6000;0.2458;0.5087;
1185.9000;0.2450;0.5159;
1186.2000;0.2442;0.5111;
1186.5000;0.2450;0.5159;
1186.8000;0.2434;0.5087;
1187.1000;0.2442;0.5087;
1187.4000;0.2475;0.5111;
1187.7000;0.2458;0.5062;
1188.0000;0.2466;0.5111;
1188.3000;0.2466;0.5014;
1188.6000;0.2475;0.4917;
1188.9000;0.2466;0.4893;
1189.2000;0.2466;0.4893;
1189.5000;0.2458;0.4893;
1189.8000;0.2532;0.5038;
1190.1000;0.2458;0.4917;
1190.4000;0.2458;0.4893;
1190.7000;0.2466;0.4844;
1191.0000;0.2458;0.4893;
1191.3000;0.2426;0.4844;
1191.6000;0.2442;0.4869;
1191.9000;0.2434;0.4820;
1192.2000;0.2515;0.5087;
1192.5000;0.2475;0.4965;
1192.8000;0.2466;0.4965;
1193.1000;0.2475;0.4917;
1193.4000;0.2475;0.4893;
1193.7000;0.2458;0.4893;
1194.0000;0.2434;0.4869;
1194.3000;0.2466;0.4893;
1194.6000;0.2475;0.4893;
1194.9000;0.2377;0.4651;
1195.2000;0.2458;0.4699;
1195.5000;0.2442;0.4699;
1195.8000;0.2507;0.4917;
1196.1000;0.2442;0.4820;
1196.4000;0.2442;0.4772;
1196.7000;0.2475;0.4869;
1197.0000;0.2466;0.4941;
1197.3000;0.2450;0.4965;
1197.6000;0.2450;0.4990;
1197.9000;0.2458;0.4965;
1198.2000;0.2466;0.4965;
1198.5000;0.2475;0.5014;
1198.8000;0.2458;0.4941;
1199.1000;0.2466;0.4941;
1199.4000;0.2458;0.4917;
1199.7000;0.2466;0.4893;
1200.0000;0.2442;0.4917;
1200.3000;0.2450;0.4941;
1200.6000;0.2499;0.5135;
1200.9000;0.2458;0.4990;
1201.2000;0.2466;0.4917;
1201.5000;0.2426;0.4820;
1201.8000;0.2466;0.4941;
1202.1000;0.2450;0.4893;
1202.4000;0.2458;0.4869;
1202.7000;0.2458;0.4893;
1203.0000;0.2409;0.4796;
1203.3000;0.2458;0.4869;
1203.6000;0.2466;0.4869;
1203.9000;0.2450;0.4893;
1204.2000;0.2442;0.4844;
1204.5000;0.2450;0.4820;
1204.8000;0.2434;0.4772;
1205.1000;0.2523;0.5062;
1205.4000;0.2458;0.4941;
1205.7000;0.2458;0.4965;
1206.0000;0.2458;0.4990;
1206.3000;0.2458;0.4990;
1206.6000;0.2450;0.5014;
1206.9000;0.2458;0.4941;
1207.2000;0.2426;0.4893;
1207.5000;0.2466;0.4941;
1207.8000;0.2458;0.5014;
1208.1000;0.2450;0.4820;
1208.4000;0.2458;0.4869;
1208.7000;0.2458;0.4869;
1209.0000;0.2450;0.4917;
1209.3000;0.2458;0.4941;
1209.6000;0.2458;0.4990;
1209.9000;0.2475;0.4990;
1210.2000;0.2458;0.4869;
1210.5000;0.2450;0.4869;
1210.8000;0.2450;0.4844;
1211.1000;0.2450;0.4869;
1211.4000;0.2458;0.4893;
1211.7000;0.2434;0.4917;
1212.0000;0.2450;0.4941;
1212.3000;0.2466;0.4941;
1212.6000;0.2458;0.4965;
1212.9000;0.2442;0.4820;
1213.2000;0.2393;0.4747;
1213.5000;0.2466;0.5014;
1213.8000;0.2532;0.5159;
1214.1000;0.2515;0.5087;
1214.4000;0.2532;0.5111;
1214.7000;0.2466;0.4965;
1215.0000;0.2499;0.5014;
1215.3000;0.2491;0.4941;
1215.6000;0.2475;0.4965;
1215.9000;0.2466;0.4893;
1216.2000;0.2507;0.5062;
1216.5000;0.2515;0.5159;
1216.8000;0.2450;0.5014;
1217.1000;0.2458;0.5062;
1217.4000;0.2466;0.5062;
1217.7000;0.2458;0.4941;
1218.0000;0.2442;0.5014;
1218.3000;0.2458;0.5038;
1218.6000;0.2450;0.5062;
1218.9000;0.2458;0.5062;
1219.2000;0.2483;0.5062;
1219.5000;0.2442;0.4941;
1219.8000;0.2434;0.4893;
1220.1000;0.2466;0.4990;
1220.4000;0.2466;0.4941;
1220.7000;0.2361;0.4675;
1221.0000;0.2458;0.4941;
1221.3000;0.2475;0.4893;
1221.6000;0.2458;0.4820;
1221.9000;0.2442;0.4941;
1222.2000;0.2450;0.4990;
1222.5000;0.2458;0.5087;
1222.8000;0.2450;0.5014;
1223.1000;0.2450;0.5087;
1223.4000;0.2475;0.5159;
1223.7000;0.2450;0.5014;
1224.0000;0.2450;0.5087;
1224.3000;0.2466;0.5135;
1224.6000;0.2466;0.5062;
1224.9000;0.2466;0.5062;
1225.2000;0.2483;0.5062;
1225.5000;0.2458;0.4965;
1225.8000;0.2515;0.4990;
1226.1000;0.2483;0.4893;
1226.4000;0.2483;0.4917;
1226.7000;0.2483;0.4796;
1227.0000;0.2458;0.4723;
1227.3000;0.2523;0.4844;
1227.6000;0.2466;0.4820;
1227.9000;0.2352;0.4529;
1228.2000;0.2483;0.4893;
1228.5000;0.2434;0.4844;
1228.8000;0.2450;0.4917;
1229.1000;0.2434;0.4844;
1229.4000;0.2458;0.4917;
1229.7000;0.2426;0.4772;
1230.0000;0.2442;0.4869;
1230.3000;0.2523;0.5135;
1230.6000;0.2458;0.4941;
1230.9000;0.2466;0.4990;
1231.2000;0.2442;0.4917;
1231.5000;0.2426;0.4820;
1231.8000;0.2458;0.4917;
1232.1000;0.2450;0.4893;
1232.4000;0.2458;0.4965;
1232.7000;0.2442;0.4941;
1233.0000;0.2458;0.5014;
1233.3000;0.2458;0.5038;
1233.6000;0.2466;0.5111;
1233.9000;0.2450;0.5062;
1234.2000;0.2401;0.4965;
1234.5000;0.2450;0.4941;
1234.8000;0.2466;0.4965;
1235.1000;0.2466;0.4869;
1235.4000;0.2499;0.4941;
1235.7000;0.2515;0.5014;
1236.0000;0.2458;0.4941;
1236.3000;0.2466;0.4917;
1236.6000;0.2458;0.4844;
1236.9000;0.2475;0.4820;
1237.2000;0.2418;0.4651;
1237.5000;0.2426;0.4747;
1237.8000;0.2450;0.4723;
1238.1000;0.2458;0.4820;
1238.4000;0.2458;0.4941;
1238.7000;0.2442;0.4965;
1239.0000;0.2466;0.4990;
1239.3000;0.2523;0.5087;
1239.6000;0.2466;0.4893;
1239.9000;0.2450;0.4844;
1240.2000;0.2483;0.4965;
1240.5000;0.2491;0.4917;
1240.8000;0.2401;0.4723;
1241.1000;0.2442;0.4893;
1241.4000;0.2458;0.5014;
1241.7000;0.2475;0.4990;
1242.0000;0.2483;0.5014;
1242.3000;0.2466;0.4869;
1242.6000;0.2450;0.4820;
1242.9000;0.2426;0.4723;
1243.2000;0.2450;0.4820;
1243.5000;0.2483;0.4796;
1243.8000;0.2458;0.4723;
1244.1000;0.2466;0.4820;
1244.4000;0.2466;0.4820;
1244.7000;0.2475;0.4796;
1245.0000;0.2466;0.4796;
1245.3000;0.2466;0.4796;
1245.6000;0.2491;0.4869;
1245.9000;0.2450;0.4772;
1246.2000;0.2450;0.4917;
1246.5000;0.2466;0.4965;
1246.8000;0.2458;0.4965;
1247.1000;0.2475;0.4965;
1247.4000;0.2442;0.4893;
1247.7000;0.2466;0.5038;
1248.0000;0.2475;0.5038;
1248.3000;0.2458;0.5014;
1248.6000;0.2466;0.4965;
1248.9000;0.2458;0.4917;
1249.2000;0.2450;0.4893;
1249.5000;0.2483;0.4990;
1249.8000;0.2475;0.5062;
1250.1000;0.2499;0.5062;
1250.4000;0.2458;0.5038;
1250.7000;0.2466;0.5135;
1251.0000;0.2483;0.5159;
1251.3000;0.2458;0.5062;
1251.6000;0.2442;0.5014;
1251.9000;0.2483;0.5062;
1252.2000;0.2434;0.5014;
1252.5000;0.2426;0.5014;
1252.8000;0.2434;0.5087;
1253.1000;0.2385;0.4917;
1253.4000;0.2450;0.5062;
1253.7000;0.2442;0.5062;
1254.0000;0.2458;0.5135;
1254.3000;0.2466;0.5183;
1254.6000;0.2580;0.5498;
1254.9000;0.2475;0.5159;
1255.2000;0.2483;0.5111;
1255.5000;0.2475;0.5062;
1255.8000;0.2483;0.5111;
1256.1000;0.2466;0.5062;
1256.4000;0.2458;0.5014;
1256.7000;0.2466;0.5014;
1257.0000;0.2450;0.5014;
1257.3000;0.2450;0.5062;
1257.6000;0.2450;0.5038;
1257.9000;0.2450;0.4941;
1258.2000;0.2418;0.4893;
1258.5000;0.2466;0.5062;
1258.8000;0.2450;0.5014;
1259.1000;0.2466;0.5062;
1259.4000;0.2458;0.4990;
1259.7000;0.2475;0.5038;
1260.0000;0.2450;0.4990;
1260.3000;0.2458;0.4990;
1260.6000;0.2475;0.5038;
1260.9000;0.2556;0.5401;
1261.2000;0.2475;0.5232;
1261.5000;0.2450;0.5183;
1261.8000;0.2458;0.5135;
1262.1000;0.2458;0.5087;
1262.4000;0.2442;0.4990;
1262.7000;0.2507;0.5087;
1263.0000;0.2458;0.4990;
1263.3000;0.2450;0.4965;
1263.6000;0.2458;0.4917;
1263.9000;0.2434;0.4893;
1264.2000;0.2442;0.4965;
1264.5000;0.2466;0.5038;
1264.8000;0.2442;0.5014;
1265.1000;0.2466;0.5062;
1265.4000;0.2466;0.5135;
1265.7000;0.2475;0.5135;
1266.0000;0.2442;0.4941;
1266.3000;0.2466;0.4990;
1266.6000;0.2458;0.4917;
1266.9000;0.2458;0.4990;
1267.2000;0.2458;0.4965;
1267.5000;0.2458;0.5038;
1267.8000;0.2418;0.4965;
1268.1000;0.2450;0.5135;
1268.4000;0.2450;0.5135;
1268.7000;0.2466;0.5183;
1269.0000;0.2401;0.4965;
1269.3000;0.2450;0.5087;
1269.6000;0.2450;0.5014;
1269.9000;0.2426;0.4917;
1270.2000;0.2475;0.5062;
1270.5000;0.2442;0.5038;
1270.8000;0.2466;0.5111;
1271.1000;0.2475;0.5111;
1271.4000;0.2475;0.5038;
1271.7000;0.2475;0.4990;
1272.0000;0.2466;0.4965;
1272.3000;0.2458;0.4917;
1272.6000;0.2458;0.4893;
1272.9000;0.2475;0.4917;
1273.2000;0.2466;0.5038;
1273.5000;0.2458;0.5014;
1273.8000;0.2458;0.4893;
1274.1000;0.2434;0.4917;
1274.4000;0.2466;0.4965;
1274.7000;0.2458;0.4917;
1275.0000;0.2458;0.4941;
1275.3000;0.2458;0.4917;
1275.6000;0.2426;0.4844;
1275.9000;0.2532;0.5183;
1276.2000;0.2466;0.5038;
1276.5000;0.2458;0.5014;
1276.8000;0.2475;0.5038;
1277.1000;0.2442;0.4796;
1277.4000;0.2458;0.4869;
1277.7000;0.2475;0.4844;
1278.0000;0.2418;0.4772;
1278.3000;0.2450;0.4844;
1278.6000;0.2450;0.4893;
1278.9000;0.2483;0.4965;
1279.2000;0.2466;0.4965;
1279.5000;0.2466;0.4941;
1279.8000;0.2458;0.4917;
1280.1000;0.2458;0.4941;
1280.4000;0.2483;0.4990;
1280.7000;0.2475;0.4941;
1281.0000;0.2458;0.4965;
1281.3000;0.2442;0.4965;
1281.6000;0.2491;0.5208;
1281.9000;0.2466;0.5208;
1282.2000;0.2475;0.5183;
1282.5000;0.2475;0.5159;
1282.8000;0.2475;0.5111;
1283.1000;0.2458;0.5135;
1283.4000;0.2442;0.5183;
1283.7000;0.2458;0.5159;
1284.0000;0.2466;0.5183;
1284.3000;0.2418;0.4965;
1284.6000;0.2466;0.5159;
1284.9000;0.2344;0.4844;
1285.2000;0.2466;0.5159;
1285.5000;0.2458;0.5087;
1285.8000;0.2442;0.5062;
1286.1000;0.2450;0.5038;
1286.4000;0.2466;0.5111;
1286.7000;0.2556;0.5256;
1287.0000;0.2458;0.4917;
1287.3000;0.2450;0.4893;
1287.6000;0.2475;0.4820;
1287.9000;0.2458;0.4893;
1288.2000;0.2466;0.4869;
1288.5000;0.2466;0.5038;
1288.8000;0.2458;0.5062;
1289.1000;0.2458;0.5087;
1289.4000;0.2450;0.5111;
1289.7000;0.2450;0.5111;
1290.0000;0.2434;0.5062;
1290.3000;0.2458;0.5183;
1290.6000;0.2442;0.5135;
1290.9000;0.2442;0.5087;
1291.2000;0.2458;0.5111;
1291.5000;0.2466;0.5208;
1291.8000;0.2442;0.5087;
1292.1000;0.2458;0.5111;
1292.4000;0.2450;0.5135;
1292.7000;0.2466;0.5111;
1293.0000;0.2466;0.5087;
1293.3000;0.2466;0.4965;
1293.6000;0.2466;0.5014;
1293.9000;0.2450;0.4990;
1294.2000;0.2483;0.5087;
1294.5000;0.2442;0.5038;
1294.8000;0.2434;0.4990;
1295.1000;0.2450;0.5062;
1295.4000;0.2458;0.4990;
1295.7000;0.2475;0.5062;
1296.0000;0.2466;0.5087;
1296.3000;0.2458;0.5111;
1296.6000;0.2466;0.5135;
1296.9000;0.2475;0.5159;
1297.2000;0.2475;0.5183;
1297.5000;0.2450;0.5183;
1297.8000;0.2450;0.5208;
1298.1000;0.2499;0.5377;
1298.4000;0.2466;0.5208;
1298.7000;0.2466;0.5111;
1299.0000;0.2450;0.5062;
1299.3000;0.2426;0.5062;
1299.6000;0.2450;0.5087;
1299.9000;0.2466;0.5014;
1300.2000;0.2458;0.4917;
1300.5000;0.2450;0.4990;
1300.8000;0.2475;0.5087;
1301.1000;0.2466;0.5062;
1301.4000;0.2466;0.5038;
1301.7000;0.2491;0.5087;
1302.0000;0.2450;0.4941;
1302.3000;0.2442;0.4990;
1302.6000;0.2466;0.4990;
1302.9000;0.2491;0.5062;
1303.2000;0.2458;0.4990;
1303.5000;0.2491;0.5135;
1303.8000;0.2475;0.5062;
1304.1000;0.2458;0.5087;
1304.4000;0.2466;0.5135;
1304.7000;0.2491;0.5183;
1305.0000;0.2458;0.5087;
1305.3000;0.2442;0.5062;
1305.6000;0.2426;0.5014;
1305.9000;0.2450;0.5135;
1306.2000;0.2499;0.5208;
1306.5000;0.2450;0.5159;
1306.8000;0.2458;0.5208;
1307.1000;0.2466;0.5183;
1307.4000;0.2442;0.5038;
1307.7000;0.2434;0.5038;
1308.0000;0.2475;0.5135;
1308.3000;0.2475;0.5062;
1308.6000;0.2458;0.5014;
1308.9000;0.2450;0.5014;
1309.2000;0.2442;0.4844;
1309.5000;0.2442;0.5014;
1309.8000;0.2442;0.5111;
1310.1000;0.2450;0.5038;
1310.4000;0.2434;0.4917;
1310.7000;0.2450;0.4941;
1311.0000;0.2523;0.5087;
1311.3000;0.2450;0.4965;
1311.6000;0.2548;0.5135;
1311.9000;0.2458;0.4893;
1312.2000;0.2466;0.4820;
1312.5000;0.2466;0.4893;
1312.8000;0.2483;0.4941;
1313.1000;0.2483;0.4917;
1313.4000;0.2483;0.4965;
1313.7000;0.2491;0.5014;
1314.0000;0.2409;0.4699;
1314.3000;0.2475;0.4844;
1314.6000;0.2458;0.4723;
1314.9000;0.2475;0.4796;
1315.2000;0.2458;0.4869;
1315.5000;0.2475;0.4869;
1315.8000;0.2450;0.4844;
1316.1000;0.2466;0.4869;
1316.4000;0.2442;0.4893;
1316.7000;0.2450;0.4941;
1317.0000;0.2532;0.5135;
1317.3000;0.2466;0.5038;
1317.6000;0.2475;0.5038;
1317.9000;0.2434;0.4869;
1318.2000;0.2450;0.4917;
1318.5000;0.2466;0.4917;
1318.8000;0.2466;0.4965;
1319.1000;0.2458;0.5014;
1319.4000;0.2523;0.5232;
1319.7000;0.2442;0.5014;
1320.0000;0.2458;0.5159;
1320.3000;0.2466;0.5183;
1320.6000;0.2466;0.5159;
1320.9000;0.2458;0.5111;
1321.2000;0.2426;0.4965;
1321.5000;0.2450;0.5062;
1321.8000;0.2450;0.5062;
1322.1000;0.2491;0.5087;
1322.4000;0.2450;0.4990;
1322.7000;0.2466;0.5111;
1323.0000;0.2466;0.5111;
1323.3000;0.2450;0.5111;
1323.6000;0.2483;0.5183;
1323.9000;0.2466;0.5208;
1324.2000;0.2458;0.5256;
1324.5000;0.2458;0.5256;
1324.8000;0.2475;0.5377;
1325.1000;0.2466;0.5280;
1325.4000;0.2466;0.5208;
1325.7000;0.2458;0.5159;
1326.0000;0.2450;0.5038;
1326.3000;0.2458;0.5062;
1326.6000;0.2458;0.5087;
1326.9000;0.2442;0.5159;
1327.2000;0.2458;0.5135;
1327.5000;0.2450;0.5111;
1327.8000;0.2458;0.5183;
1328.1000;0.2442;0.5135;
1328.4000;0.2426;0.4917;
1328.7000;0.2475;0.5062;
1329.0000;0.2393;0.4917;
1329.3000;0.2466;0.5159;
1329.6000;0.2475;0.5159;
1329.9000;0.2434;0.5208;
1330.2000;0.2426;0.5159;
1330.5000;0.2458;0.5135;
1330.8000;0.2434;0.5087;
1331.1000;0.2458;0.5111;
1331.4000;0.2426;0.5087;
1331.7000;0.2466;0.5111;
1332.0000;0.2475;0.5183;
1332.3000;0.2466;0.5183;
1332.6000;0.2450;0.5183;
1332.9000;0.2450;0.5135;
1333.2000;0.2418;0.5038;
1333.5000;0.2499;0.5208;
1333.8000;0.2450;0.5014;
1334.1000;0.2458;0.5038;
1334.4000;0.2434;0.5014;
1334.7000;0.2458;0.4941;
1335.0000;0.2434;0.4869;
1335.3000;0.2458;0.4893;
1335.6000;0.2450;0.4893;
1335.9000;0.2434;0.4796;
1336.2000;0.2458;0.4796;
1336.5000;0.2450;0.4844;
1336.8000;0.2466;0.4965;
1337.1000;0.2450;0.4965;
1337.4000;0.2458;0.4941;
1337.7000;0.2475;0.4917;
1338.0000;0.2409;0.4772;
1338.3000;0.2466;0.4844;
1338.6000;0.2466;0.4869;
1338.9000;0.2434;0.4772;
1339.2000;0.2491;0.4917;
1339.5000;0.2466;0.4893;
1339.8000;0.2450;0.4893;
1340.1000;0.2466;0.5014;
1340.4000;0.2458;0.4941;
1340.7000;0.2475;0.4965;
1341.0000;0.2458;0.4941;
1341.3000;0.2466;0.4965;
1341.6000;0.2483;0.4990;
1341.9000;0.2458;0.4820;
1342.2000;0.2418;0.4772;
1342.5000;0.2458;0.4820;
1342.8000;0.2483;0.4869;
1343.1000;0.2475;0.4941;
1343.4000;0.2483;0.4941;
1343.7000;0.2458;0.4820;
1344.0000;0.2458;0.4893;
1344.3000;0.2466;0.4941;
1344.6000;0.2475;0.4941;
1344.9000;0.2466;0.4917;
1345.2000;0.2499;0.4990;
1345.5000;0.2458;0.4941;
1345.8000;0.2466;0.4917;
1346.1000;0.2466;0.5014;
1346.4000;0.2450;0.5014;
1346.7000;0.2466;0.4990;
1347.0000;0.2385;0.4747;
1347.3000;0.2450;0.4990;
1347.6000;0.2458;0.4917;
1347.9000;0.2466;0.4893;
1348.2000;0.2466;0.4941;
1348.5000;0.2499;0.5111;
1348.8000;0.2458;0.4990;
1349.1000;0.2434;0.4869;
1349.4000;0.2475;0.5038;
1349.7000;0.2466;0.5014;
1350.0000;0.2458;0.5038;
1350.3000;0.2483;0.5087;
1350.6000;0.2475;0.5087;
1350.9000;0.2523;0.5183;
1351.2000;0.2458;0.4990;
1351.5000;0.2466;0.5111;
1351.8000;0.2483;0.5087;
1352.1000;0.2450;0.4941;
1352.4000;0.2466;0.5014;
1352.7000;0.2466;0.4965;
1353.0000;0.2434;0.4990;
1353.3000;0.2369;0.4772;
1353.6000;0.2458;0.5062;
1353.9000;0.2450;0.4990;
1354.2000;0.2475;0.4990;
1354.5000;0.2475;0.4990;
1354.8000;0.2475;0.5062;
1355.1000;0.2442;0.5038;
1355.4000;0.2475;0.5062;
1355.7000;0.2548;0.5256;
1356.0000;0.2458;0.5038;
1356.3000;0.2442;0.4965;
1356.6000;0.2475;0.5038;
1356.9000;0.2458;0.5038;
1357.2000;0.2458;0.5135;
1357.5000;0.2434;0.5087;
1357.8000;0.2450;0.5087;
1358.1000;0.2458;0.5062;
1358.4000;0.2475;0.5111;
1358.7000;0.2450;0.5062;
1359.0000;0.2458;0.5038;
1359.3000;0.2466;0.5111;
1359.6000;0.2483;0.5135;
1359.9000;0.2466;0.5014;
1360.2000;0.2458;0.4941;
1360.5000;0.2466;0.4893;
1360.8000;0.2466;0.4990;
1361.1000;0.2458;0.5014;
1361.4000;0.2442;0.4893;
1361.7000;0.2458;0.4844;
1362.0000;0.2483;0.4820;
1362.3000;0.2466;0.4675;
1362.6000;0.2466;0.4723;
1362.9000;0.2491;0.4844;
1363.2000;0.2475;0.4869;
1363.5000;0.2458;0.4893;
1363.8000;0.2491;0.4941;
1364.1000;0.2458;0.4941;
1364.4000;0.2466;0.5014;
1364.7000;0.2483;0.4990;
1365.0000;0.2475;0.4965;
1365.3000;0.2458;0.4893;
1365.6000;0.2475;0.4917;
1365.9000;0.2450;0.4893;
1366.2000;0.2458;0.4917;
1366.5000;0.2458;0.4893;
1366.8000;0.2483;0.5038;
1367.1000;0.2458;0.4941;
1367.4000;0.2450;0.4941;
1367.7000;0.2458;0.4965;
1368.0000;0.2507;0.5087;
1368.3000;0.2458;0.4965;
1368.6000;0.2458;0.4941;
1368.9000;0.2523;0.5111;
1369.2000;0.2361;0.4772;
1369.5000;0.2466;0.4893;
1369.8000;0.2475;0.4965;
1370.1000;0.2458;0.4965;
1370.4000;0.2466;0.4941;
1370.7000;0.2491;0.4990;
1371.0000;0.2450;0.4893;
1371.3000;0.2475;0.4965;
1371.6000;0.2475;0.4965;
1371.9000;0.2475;0.4990;
1372.2000;0.2450;0.4844;
1372.5000;0.2466;0.4941;
1372.8000;0.2466;0.4965;
1373.1000;0.2434;0.4820;
1373.4000;0.2475;0.4941;
1373.7000;0.2458;0.4796;
1374.0000;0.2491;0.4844;
1374.3000;0.2475;0.4869;
1374.6000;0.2483;0.4844;
1374.9000;0.2491;0.5014;
1375.2000;0.2483;0.4990;
1375.5000;0.2450;0.5038;
1375.8000;0.2475;0.5087;
1376.1000;0.2475;0.5038;
1376.4000;0.2466;0.5087;
1376.7000;0.2450;0.5038;
1377.0000;0.2442;0.4941;
1377.3000;0.2458;0.4990;
1377.6000;0.2450;0.4990;
1377.9000;0.2458;0.5062;
1378.2000;0.2450;0.5087;
1378.5000;0.2442;0.5038;
1378.8000;0.2466;0.5159;
1379.1000;0.2466;0.5087;
1379.4000;0.2450;0.5038;
1379.7000;0.2475;0.5038;
1380.0000;0.2475;0.5135;
1380.3000;0.2475;0.5062;
1380.6000;0.2458;0.5038;
1380.9000;0.2458;0.4990;
1381.2000;0.2475;0.4965;
1381.5000;0.2450;0.4917;
1381.8000;0.2466;0.4917;
1382.1000;0.2466;0.4917;
1382.4000;0.2475;0.4965;
1382.7000;0.2458;0.4917;
1383.0000;0.2450;0.4917;
1383.3000;0.2466;0.4941;
1383.6000;0.2466;0.4917;
1383.9000;0.2475;0.4917;
1384.2000;0.2466;0.4941;
1384.5000;0.2466;0.4990;
1384.8000;0.2377;0.4723;
1385.1000;0.2466;0.4869;
1385.4000;0.2458;0.4941;
1385.7000;0.2458;0.5014;
1386.0000;0.2344;0.4602;
1386.3000;0.2475;0.4941;
1386.6000;0.2450;0.4844;
1386.9000;0.2450;0.4796;
1387.2000;0.2556;0.5062;
1387.5000;0.2458;0.4844;
1387.8000;0.2458;0.4965;
1388.1000;0.2466;0.5014;
1388.4000;0.2442;0.4965;
1388.7000;0.2450;0.4965;
1389.0000;0.2458;0.4990;
1389.3000;0.2475;0.5062;
1389.6000;0.2450;0.5062;
1389.9000;0.2458;0.5135;
1390.2000;0.2458;0.5135;
1390.5000;0.2483;0.5087;
1390.8000;0.2466;0.4990;
1391.1000;0.2352;0.4772;
1391.4000;0.2523;0.5208;
1391.7000;0.2458;0.5087;
1392.0000;0.2466;0.5062;
1392.3000;0.2507;0.5135;
1392.6000;0.2458;0.5014;
1392.9000;0.2466;0.4941;
1393.2000;0.2458;0.4893;
1393.5000;0.2466;0.4893;
1393.8000;0.2401;0.4699;
1394.1000;0.2442;0.4747;
1394.4000;0.2466;0.4844;
1394.7000;0.2499;0.5014;
1395.0000;0.2458;0.4941;
1395.3000;0.2450;0.4941;
1395.6000;0.2458;0.4990;
1395.9000;0.2475;0.5014;
1396.2000;0.2466;0.5014;
1396.5000;0.2475;0.5087;
1396.8000;0.2450;0.5014;
1397.1000;0.2458;0.5111;
1397.4000;0.2499;0.5280;
1397.7000;0.2466;0.5159;
1398.0000;0.2458;0.5183;
1398.3000;0.2450;0.5159;
1398.6000;0.2483;0.5208;
1398.9000;0.2458;0.5208;
1399.2000;0.2466;0.5232;
1399.5000;0.2507;0.5401;
1399.8000;0.2466;0.5329;
