time/ms;Fluo/V;P700 deltaI/I x10³;
-199.8000;0.2466;0.5547;
-199.5000;0.2499;0.5716;
-199.2000;0.2540;0.5934;
-198.9000;0.2515;0.5910;
-198.6000;0.2532;0.5959;
-198.3000;0.2532;0.5983;
-198.0000;0.2426;0.5765;
-197.7000;0.2523;0.6152;
-197.4000;0.2532;0.6104;
-197.1000;0.2458;0.5910;
-196.8000;0.2418;0.5716;
-196.5000;0.2572;0.6104;
-196.2000;0.2523;0.6031;
-195.9000;0.2540;0.6104;
-195.6000;0.2532;0.6080;
-195.3000;0.2605;0.6201;
-195.0000;0.2548;0.6007;
-194.7000;0.2466;0.5741;
-194.4000;0.2621;0.6298;
-194.1000;0.2564;0.6201;
-193.8000;0.2540;0.6177;
-193.5000;0.2540;0.6298;
-193.2000;0.2532;0.6273;
-192.9000;0.2548;0.6225;
-192.6000;0.2548;0.6128;
-192.3000;0.2540;0.6225;
-192.0000;0.2507;0.6152;
-191.7000;0.2532;0.6177;
-191.4000;0.2532;0.6177;
-191.1000;0.2532;0.6177;
-190.8000;0.2540;0.6346;
-190.5000;0.2548;0.6346;
-190.2000;0.2515;0.6225;
-189.9000;0.2597;0.6346;
-189.6000;0.2515;0.6152;
-189.3000;0.2532;0.6177;
-189.0000;0.2564;0.6201;
-188.7000;0.2507;0.6055;
-188.4000;0.2540;0.6201;
-188.1000;0.2532;0.6152;
-187.8000;0.2507;0.6080;
-187.5000;0.2548;0.6055;
-187.2000;0.2507;0.6007;
-186.9000;0.2523;0.6007;
-186.6000;0.2523;0.5983;
-186.3000;0.2540;0.5983;
-186.0000;0.2548;0.6031;
-185.7000;0.2540;0.6031;
-185.4000;0.2523;0.6031;
-185.1000;0.2540;0.6007;
-184.8000;0.2548;0.5934;
-184.5000;0.2548;0.5959;
-184.2000;0.2499;0.5837;
-183.9000;0.2548;0.5959;
-183.6000;0.2532;0.5837;
-183.3000;0.2540;0.5813;
-183.0000;0.2515;0.5813;
-182.7000;0.2515;0.5813;
-182.4000;0.2532;0.5934;
-182.1000;0.2540;0.5959;
-181.8000;0.2523;0.5910;
-181.5000;0.2589;0.6080;
-181.2000;0.2564;0.5983;
-180.9000;0.2540;0.5837;
-180.6000;0.2532;0.5813;
-180.3000;0.2426;0.5571;
-180.0000;0.2523;0.5837;
-179.7000;0.2540;0.5886;
-179.4000;0.2499;0.5813;
-179.1000;0.2532;0.5886;
-178.8000;0.2572;0.5862;
-178.5000;0.2540;0.5837;
-178.2000;0.2499;0.5716;
-177.9000;0.2523;0.5837;
-177.6000;0.2523;0.5910;
-177.3000;0.2499;0.5813;
-177.0000;0.2532;0.5862;
-176.7000;0.2515;0.5910;
-176.4000;0.2523;0.5886;
-176.1000;0.2458;0.5716;
-175.8000;0.2572;0.6031;
-175.5000;0.2532;0.5934;
-175.2000;0.2515;0.6007;
-174.9000;0.2507;0.5959;
-174.6000;0.2532;0.6055;
-174.3000;0.2523;0.6055;
-174.0000;0.2613;0.6249;
-173.7000;0.2540;0.6031;
-173.4000;0.2556;0.6055;
-173.1000;0.2450;0.5668;
-172.8000;0.2556;0.5983;
-172.5000;0.2548;0.6007;
-172.2000;0.2540;0.6055;
-171.9000;0.2523;0.6031;
-171.6000;0.2515;0.6080;
-171.3000;0.2532;0.6128;
-171.0000;0.2540;0.6152;
-170.7000;0.2483;0.5983;
-170.4000;0.2523;0.5910;
-170.1000;0.2540;0.5959;
-169.8000;0.2556;0.6007;
-169.5000;0.2548;0.6104;
-169.2000;0.2532;0.6080;
-168.9000;0.2564;0.6080;
-168.6000;0.2532;0.5934;
-168.3000;0.2532;0.6007;
-168.0000;0.2532;0.5910;
-167.7000;0.2523;0.5862;
-167.4000;0.2540;0.5934;
-167.1000;0.2491;0.5813;
-166.8000;0.2515;0.5862;
-166.5000;0.2523;0.5813;
-166.2000;0.2523;0.5813;
-165.9000;0.2523;0.5741;
-165.6000;0.2556;0.5765;
-165.3000;0.2523;0.5692;
-165.0000;0.2532;0.5692;
-164.7000;0.2548;0.5765;
-164.4000;0.2515;0.5741;
-164.1000;0.2540;0.5837;
-163.8000;0.2523;0.5862;
-163.5000;0.2540;0.6031;
-163.2000;0.2548;0.6128;
-162.9000;0.2540;0.6080;
-162.6000;0.2540;0.6007;
-162.3000;0.2515;0.5983;
-162.0000;0.2515;0.6007;
-161.7000;0.2532;0.6031;
-161.4000;0.2548;0.6128;
-161.1000;0.2523;0.6104;
-160.8000;0.2540;0.6080;
-160.5000;0.2523;0.5983;
-160.2000;0.2507;0.5983;
-159.9000;0.2540;0.6055;
-159.6000;0.2580;0.6225;
-159.3000;0.2548;0.6177;
-159.0000;0.2532;0.6177;
-158.7000;0.2532;0.6177;
-158.4000;0.2523;0.6201;
-158.1000;0.2540;0.6080;
-157.8000;0.2548;0.6080;
-157.5000;0.2556;0.6152;
-157.2000;0.2564;0.6128;
-156.9000;0.2532;0.6055;
-156.6000;0.2499;0.5959;
-156.3000;0.2540;0.6104;
-156.0000;0.2532;0.6007;
-155.7000;0.2532;0.6031;
-155.4000;0.2515;0.6007;
-155.1000;0.2523;0.5983;
-154.8000;0.2532;0.6007;
-154.5000;0.2532;0.6080;
-154.2000;0.2483;0.5934;
-153.9000;0.2532;0.5983;
-153.6000;0.2556;0.6007;
-153.3000;0.2523;0.5934;
-153.0000;0.2540;0.5983;
-152.7000;0.2507;0.5959;
-152.4000;0.2515;0.5983;
-152.1000;0.2523;0.5959;
-151.8000;0.2507;0.5886;
-151.5000;0.2532;0.5959;
-151.2000;0.2540;0.6007;
-150.9000;0.2515;0.6031;
-150.6000;0.2507;0.5983;
-150.3000;0.2515;0.5910;
-150.0000;0.2548;0.5934;
-149.7000;0.2523;0.5934;
-149.4000;0.2532;0.6007;
-149.1000;0.2580;0.6128;
-148.8000;0.2556;0.6055;
-148.5000;0.2523;0.5934;
-148.2000;0.2523;0.6055;
-147.9000;0.2475;0.5886;
-147.6000;0.2523;0.6007;
-147.3000;0.2540;0.6007;
-147.0000;0.2540;0.5983;
-146.7000;0.2540;0.5983;
-146.4000;0.2540;0.6031;
-146.1000;0.2483;0.5862;
-145.8000;0.2515;0.5910;
-145.5000;0.2532;0.5910;
-145.2000;0.2540;0.5862;
-144.9000;0.2564;0.5983;
-144.6000;0.2523;0.5959;
-144.3000;0.2540;0.6007;
-144.0000;0.2540;0.5934;
-143.7000;0.2532;0.6031;
-143.4000;0.2532;0.6104;
-143.1000;0.2523;0.6128;
-142.8000;0.2532;0.6177;
-142.5000;0.2507;0.6055;
-142.2000;0.2613;0.6443;
-141.9000;0.2540;0.6225;
-141.6000;0.2418;0.5837;
-141.3000;0.2523;0.6080;
-141.0000;0.2483;0.5886;
-140.7000;0.2523;0.6080;
-140.4000;0.2532;0.6055;
-140.1000;0.2540;0.6055;
-139.8000;0.2580;0.6128;
-139.5000;0.2540;0.5983;
-139.2000;0.2515;0.5910;
-138.9000;0.2499;0.5934;
-138.6000;0.2548;0.6104;
-138.3000;0.2548;0.6055;
-138.0000;0.2499;0.5934;
-137.7000;0.2507;0.6031;
-137.4000;0.2532;0.6031;
-137.1000;0.2523;0.6007;
-136.8000;0.2532;0.6031;
-136.5000;0.2523;0.5983;
-136.2000;0.2515;0.5959;
-135.9000;0.2556;0.6152;
-135.6000;0.2540;0.6055;
-135.3000;0.2589;0.6177;
-135.0000;0.2523;0.5910;
-134.7000;0.2532;0.5862;
-134.4000;0.2523;0.5837;
-134.1000;0.2564;0.5983;
-133.8000;0.2532;0.5862;
-133.5000;0.2556;0.5910;
-133.2000;0.2523;0.5862;
-132.9000;0.2523;0.5983;
-132.6000;0.2678;0.6346;
-132.3000;0.2540;0.6031;
-132.0000;0.2515;0.5934;
-131.7000;0.2515;0.5959;
-131.4000;0.2523;0.6080;
-131.1000;0.2532;0.6031;
-130.8000;0.2515;0.6055;
-130.5000;0.2507;0.6031;
-130.2000;0.2532;0.6055;
-129.9000;0.2515;0.5959;
-129.6000;0.2523;0.6007;
-129.3000;0.2572;0.6128;
-129.0000;0.2507;0.6055;
-128.7000;0.2532;0.6104;
-128.4000;0.2540;0.6031;
-128.1000;0.2507;0.5910;
-127.8000;0.2540;0.6007;
-127.5000;0.2540;0.6007;
-127.2000;0.2523;0.5983;
-126.9000;0.2515;0.5959;
-126.6000;0.2532;0.5934;
-126.3000;0.2523;0.5886;
-126.0000;0.2532;0.5886;
-125.7000;0.2589;0.6007;
-125.4000;0.2523;0.5862;
-125.1000;0.2523;0.5813;
-124.8000;0.2540;0.5934;
-124.5000;0.2507;0.5959;
-124.2000;0.2532;0.5983;
-123.9000;0.2515;0.5934;
-123.6000;0.2523;0.6031;
-123.3000;0.2515;0.5959;
-123.0000;0.2523;0.5910;
-122.7000;0.2523;0.5934;
-122.4000;0.2580;0.6080;
-122.1000;0.2564;0.5959;
-121.8000;0.2499;0.5789;
-121.5000;0.2605;0.6128;
-121.2000;0.2556;0.6031;
-120.9000;0.2523;0.5910;
-120.6000;0.2523;0.6007;
-120.3000;0.2532;0.5959;
-120.0000;0.2458;0.5789;
-119.7000;0.2523;0.5959;
-119.4000;0.2532;0.5910;
-119.1000;0.2548;0.5910;
-118.8000;0.2564;0.5959;
-118.5000;0.2548;0.5910;
-118.2000;0.2540;0.5886;
-117.9000;0.2540;0.5886;
-117.6000;0.2532;0.5886;
-117.3000;0.2548;0.5886;
-117.0000;0.2442;0.5668;
-116.7000;0.2507;0.5959;
-116.4000;0.2523;0.6031;
-116.1000;0.2532;0.6104;
-115.8000;0.2580;0.6177;
-115.5000;0.2523;0.6104;
-115.2000;0.2532;0.6128;
-114.9000;0.2540;0.6152;
-114.6000;0.2499;0.5837;
-114.3000;0.2532;0.5862;
-114.0000;0.2532;0.5959;
-113.7000;0.2507;0.5983;
-113.4000;0.2515;0.5886;
-113.1000;0.2515;0.5934;
-112.8000;0.2540;0.6104;
-112.5000;0.2523;0.6080;
-112.2000;0.2418;0.5813;
-111.9000;0.2523;0.6080;
-111.6000;0.2532;0.5983;
-111.3000;0.2572;0.6080;
-111.0000;0.2523;0.5934;
-110.7000;0.2532;0.6031;
-110.4000;0.2540;0.5983;
-110.1000;0.2515;0.5934;
-109.8000;0.2532;0.6031;
-109.5000;0.2540;0.6152;
-109.2000;0.2548;0.6273;
-108.9000;0.2483;0.6128;
-108.6000;0.2523;0.6201;
-108.3000;0.2532;0.6273;
-108.0000;0.2548;0.6395;
-107.7000;0.2564;0.6467;
-107.4000;0.2548;0.6322;
-107.1000;0.2540;0.6322;
-106.8000;0.2523;0.6177;
-106.5000;0.2458;0.5983;
-106.2000;0.2532;0.6128;
-105.9000;0.2523;0.6152;
-105.6000;0.2540;0.6177;
-105.3000;0.2589;0.6346;
-105.0000;0.2491;0.6177;
-104.7000;0.2523;0.6201;
-104.4000;0.2540;0.6249;
-104.1000;0.2532;0.6128;
-103.8000;0.2540;0.6080;
-103.5000;0.2540;0.6152;
-103.2000;0.2483;0.6031;
-102.9000;0.2556;0.6128;
-102.6000;0.2523;0.6007;
-102.3000;0.2540;0.6080;
-102.0000;0.2515;0.5983;
-101.7000;0.2515;0.6055;
-101.4000;0.2540;0.6152;
-101.1000;0.2540;0.6177;
-100.8000;0.2540;0.6298;
-100.5000;0.2548;0.6273;
-100.2000;0.2540;0.6395;
-99.9000;0.2523;0.6395;
-99.6000;0.2572;0.6467;
-99.3000;0.2540;0.6322;
-99.0000;0.2564;0.6346;
-98.7000;0.2532;0.6249;
-98.4000;0.2483;0.6152;
-98.1000;0.2548;0.6370;
-97.8000;0.2580;0.6467;
-97.5000;0.2507;0.6225;
-97.2000;0.2499;0.6080;
-96.9000;0.2580;0.6322;
-96.6000;0.2556;0.6225;
-96.3000;0.2515;0.6152;
-96.0000;0.2515;0.6201;
-95.7000;0.2556;0.6298;
-95.4000;0.2515;0.6201;
-95.1000;0.2540;0.6201;
-94.8000;0.2515;0.6128;
-94.5000;0.2572;0.6298;
-94.2000;0.2523;0.6201;
-93.9000;0.2515;0.6128;
-93.6000;0.2515;0.6177;
-93.3000;0.2523;0.6201;
-93.0000;0.2540;0.6201;
-92.7000;0.2515;0.6055;
-92.4000;0.2507;0.5934;
-92.1000;0.2515;0.5934;
-91.8000;0.2523;0.6007;
-91.5000;0.2548;0.6128;
-91.2000;0.2532;0.6080;
-90.9000;0.2523;0.6055;
-90.6000;0.2548;0.6031;
-90.3000;0.2523;0.6031;
-90.0000;0.2523;0.6128;
-89.7000;0.2540;0.6152;
-89.4000;0.2507;0.6080;
-89.1000;0.2523;0.6080;
-88.8000;0.2540;0.6080;
-88.5000;0.2548;0.6201;
-88.2000;0.2580;0.6273;
-87.9000;0.2564;0.6273;
-87.6000;0.2523;0.6080;
-87.3000;0.2540;0.6055;
-87.0000;0.2564;0.6080;
-86.7000;0.2532;0.5983;
-86.4000;0.2605;0.6177;
-86.1000;0.2515;0.5983;
-85.8000;0.2515;0.6007;
-85.5000;0.2523;0.6031;
-85.2000;0.2507;0.6031;
-84.9000;0.2532;0.6080;
-84.6000;0.2523;0.5934;
-84.3000;0.2532;0.5886;
-84.0000;0.2532;0.5910;
-83.7000;0.2515;0.5886;
-83.4000;0.2523;0.6007;
-83.1000;0.2507;0.6055;
-82.8000;0.2556;0.6104;
-82.5000;0.2515;0.5959;
-82.2000;0.2515;0.5910;
-81.9000;0.2540;0.6007;
-81.6000;0.2540;0.5934;
-81.3000;0.2466;0.5862;
-81.0000;0.2532;0.5983;
-80.7000;0.2523;0.5886;
-80.4000;0.2548;0.5910;
-80.1000;0.2548;0.5959;
-79.8000;0.2507;0.5837;
-79.5000;0.2532;0.5789;
-79.2000;0.2515;0.5813;
-78.9000;0.2523;0.5886;
-78.6000;0.2613;0.6104;
-78.3000;0.2515;0.5934;
-78.0000;0.2548;0.6055;
-77.7000;0.2523;0.5934;
-77.4000;0.2532;0.5910;
-77.1000;0.2499;0.5837;
-76.8000;0.2532;0.5934;
-76.5000;0.2548;0.5959;
-76.2000;0.2523;0.5910;
-75.9000;0.2548;0.5886;
-75.6000;0.2515;0.5813;
-75.3000;0.2532;0.5837;
-75.0000;0.2532;0.5813;
-74.7000;0.2572;0.5886;
-74.4000;0.2523;0.5692;
-74.1000;0.2434;0.5474;
-73.8000;0.2532;0.5862;
-73.5000;0.2532;0.5983;
-73.2000;0.2475;0.5765;
-72.9000;0.2532;0.5862;
-72.6000;0.2515;0.5837;
-72.3000;0.2515;0.5862;
-72.0000;0.2548;0.5934;
-71.7000;0.2483;0.5813;
-71.4000;0.2523;0.5837;
-71.1000;0.2532;0.5837;
-70.8000;0.2540;0.5862;
-70.5000;0.2483;0.5741;
-70.2000;0.2556;0.5983;
-69.9000;0.2409;0.5571;
-69.6000;0.2523;0.5837;
-69.3000;0.2532;0.5813;
-69.0000;0.2515;0.5716;
-68.7000;0.2523;0.5716;
-68.4000;0.2548;0.5692;
-68.1000;0.2532;0.5668;
-67.8000;0.2532;0.5813;
-67.5000;0.2523;0.5862;
-67.2000;0.2532;0.5910;
-66.9000;0.2507;0.5813;
-66.6000;0.2548;0.5934;
-66.3000;0.2499;0.5813;
-66.0000;0.2548;0.5959;
-65.7000;0.2556;0.6007;
-65.4000;0.2532;0.5983;
-65.1000;0.2507;0.5934;
-64.8000;0.2564;0.6007;
-64.5000;0.2589;0.6007;
-64.2000;0.2523;0.5837;
-63.9000;0.2532;0.5813;
-63.6000;0.2515;0.5886;
-63.3000;0.2532;0.5910;
-63.0000;0.2540;0.5959;
-62.7000;0.2523;0.5813;
-62.4000;0.2523;0.5837;
-62.1000;0.2540;0.5862;
-61.8000;0.2540;0.5934;
-61.5000;0.2532;0.5934;
-61.2000;0.2540;0.5886;
-60.9000;0.2540;0.5813;
-60.6000;0.2548;0.5886;
-60.3000;0.2540;0.5886;
-60.0000;0.2540;0.5934;
-59.7000;0.2540;0.5886;
-59.4000;0.2548;0.5959;
-59.1000;0.2548;0.6007;
-58.8000;0.2532;0.5886;
-58.5000;0.2532;0.5886;
-58.2000;0.2483;0.5813;
-57.9000;0.2507;0.5862;
-57.6000;0.2523;0.5983;
-57.3000;0.2532;0.6007;
-57.0000;0.2515;0.5934;
-56.7000;0.2523;0.5959;
-56.4000;0.2540;0.5959;
-56.1000;0.2523;0.5910;
-55.8000;0.2523;0.5886;
-55.5000;0.2556;0.5959;
-55.2000;0.2532;0.5983;
-54.9000;0.2548;0.5983;
-54.6000;0.2540;0.5959;
-54.3000;0.2532;0.6007;
-54.0000;0.2532;0.5934;
-53.7000;0.2450;0.5741;
-53.4000;0.2532;0.5934;
-53.1000;0.2523;0.5910;
-52.8000;0.2499;0.5837;
-52.5000;0.2540;0.5862;
-52.2000;0.2540;0.5813;
-51.9000;0.2556;0.5813;
-51.6000;0.2499;0.5692;
-51.3000;0.2523;0.5765;
-51.0000;0.2548;0.5813;
-50.7000;0.2532;0.5789;
-50.4000;0.2532;0.5837;
-50.1000;0.2499;0.5789;
-49.8000;0.2523;0.5837;
-49.5000;0.2540;0.5934;
-49.2000;0.2491;0.5716;
-48.9000;0.2523;0.5813;
-48.6000;0.2532;0.5862;
-48.3000;0.2507;0.5934;
-48.0000;0.2523;0.5910;
-47.7000;0.2523;0.5886;
-47.4000;0.2507;0.5862;
-47.1000;0.2523;0.5934;
-46.8000;0.2532;0.5983;
-46.5000;0.2466;0.5837;
-46.2000;0.2499;0.5886;
-45.9000;0.2646;0.6225;
-45.6000;0.2540;0.5934;
-45.3000;0.2548;0.5934;
-45.0000;0.2515;0.5813;
-44.7000;0.2515;0.5862;
-44.4000;0.2523;0.5862;
-44.1000;0.2556;0.5983;
-43.8000;0.2515;0.5886;
-43.5000;0.2523;0.5910;
-43.2000;0.2507;0.5910;
-42.9000;0.2564;0.6080;
-42.6000;0.2507;0.5983;
-42.3000;0.2540;0.6080;
-42.0000;0.2540;0.6177;
-41.7000;0.2523;0.6080;
-41.4000;0.2540;0.6080;
-41.1000;0.2523;0.6031;
-40.8000;0.2556;0.6080;
-40.5000;0.2532;0.5862;
-40.2000;0.2523;0.5886;
-39.9000;0.2523;0.5862;
-39.6000;0.2499;0.5789;
-39.3000;0.2556;0.6031;
-39.0000;0.2507;0.6031;
-38.7000;0.2515;0.6031;
-38.4000;0.2654;0.6395;
-38.1000;0.2564;0.6031;
-37.8000;0.2523;0.5983;
-37.5000;0.2507;0.5862;
-37.2000;0.2532;0.5789;
-36.9000;0.2532;0.5789;
-36.6000;0.2540;0.5813;
-36.3000;0.2540;0.5813;
-36.0000;0.2523;0.5837;
-35.7000;0.2532;0.5886;
-35.4000;0.2548;0.5862;
-35.1000;0.2523;0.5910;
-34.8000;0.2548;0.6007;
-34.5000;0.2523;0.5959;
-34.2000;0.2540;0.6007;
-33.9000;0.2523;0.5959;
-33.6000;0.2532;0.5983;
-33.3000;0.2523;0.5910;
-33.0000;0.2556;0.5886;
-32.7000;0.2523;0.5983;
-32.4000;0.2564;0.5983;
-32.1000;0.2515;0.5886;
-31.8000;0.2499;0.5862;
-31.5000;0.2523;0.6007;
-31.2000;0.2540;0.6080;
-30.9000;0.2523;0.6031;
-30.6000;0.2523;0.5959;
-30.3000;0.2540;0.5934;
-30.0000;0.2523;0.5910;
-29.7000;0.2540;0.6031;
-29.4000;0.2548;0.5959;
-29.1000;0.2515;0.5983;
-28.8000;0.2532;0.6080;
-28.5000;0.2499;0.6031;
-28.2000;0.2515;0.6031;
-27.9000;0.2523;0.6104;
-27.6000;0.2621;0.6273;
-27.3000;0.2515;0.6007;
-27.0000;0.2483;0.5934;
-26.7000;0.2548;0.6055;
-26.4000;0.2540;0.5910;
-26.1000;0.2597;0.5959;
-25.8000;0.2499;0.5692;
-25.5000;0.2523;0.5692;
-25.2000;0.2491;0.5741;
-24.9000;0.2540;0.5910;
-24.6000;0.2515;0.5862;
-24.3000;0.2523;0.5934;
-24.0000;0.2540;0.5934;
-23.7000;0.2540;0.5959;
-23.4000;0.2532;0.6031;
-23.1000;0.2548;0.6080;
-22.8000;0.2532;0.6128;
-22.5000;0.2523;0.6031;
-22.2000;0.2523;0.6031;
-21.9000;0.2515;0.5983;
-21.6000;0.2532;0.6055;
-21.3000;0.2564;0.6152;
-21.0000;0.2532;0.6152;
-20.7000;0.2523;0.6031;
-20.4000;0.2605;0.6152;
-20.1000;0.2548;0.6031;
-19.8000;0.2540;0.6031;
-19.5000;0.2540;0.6031;
-19.2000;0.2523;0.5959;
-18.9000;0.2523;0.5959;
-18.6000;0.2540;0.5934;
-18.3000;0.2532;0.5983;
-18.0000;0.2507;0.5910;
-17.7000;0.2507;0.5862;
-17.4000;0.2475;0.5741;
-17.1000;0.2564;0.5910;
-16.8000;0.2532;0.5837;
-16.5000;0.2507;0.5837;
-16.2000;0.2523;0.5813;
-15.9000;0.2499;0.5716;
-15.6000;0.2523;0.5789;
-15.3000;0.2532;0.5813;
-15.0000;0.2532;0.5886;
-14.7000;0.2409;0.5547;
-14.4000;0.2564;0.5862;
-14.1000;0.2409;0.5474;
-13.8000;0.2540;0.5837;
-13.5000;0.2515;0.5837;
-13.2000;0.2548;0.5934;
-12.9000;0.2540;0.5886;
-12.6000;0.2523;0.5910;
-12.3000;0.2523;0.6007;
-12.0000;0.2523;0.5983;
-11.7000;0.2523;0.5934;
-11.4000;0.2523;0.5789;
-11.1000;0.2450;0.5523;
-10.8000;0.2532;0.5789;
-10.5000;0.2515;0.5741;
-10.2000;0.2523;0.5789;
-9.9000;0.2540;0.5765;
-9.6000;0.2564;0.5789;
-9.3000;0.2532;0.5668;
-9.0000;0.2556;0.5741;
-8.7000;0.2540;0.5789;
-8.4000;0.2572;0.5934;
-8.1000;0.2523;0.5837;
-7.8000;0.2507;0.5716;
-7.5000;0.2532;0.5765;
-7.2000;0.2523;0.5741;
-6.9000;0.2483;0.5523;
-6.6000;0.2564;0.5741;
-6.3000;0.2523;0.5716;
-6.0000;0.2523;0.5668;
-5.7000;0.2515;0.5813;
-5.4000;0.2523;0.5837;
-5.1000;0.2540;0.5837;
-4.8000;0.2515;0.5789;
-4.5000;0.2597;0.6031;
-4.2000;0.2556;0.5934;
-3.9000;0.2450;0.5523;
-3.6000;0.2540;0.5692;
-3.3000;0.2523;0.5644;
-3.0000;0.2491;0.5571;
-2.7000;0.2540;0.5692;
-2.4000;0.2523;0.5716;
-2.1000;0.2548;0.5837;
-1.8000;0.2523;0.5741;
-1.5000;0.2523;0.5789;
-1.2000;0.2523;0.5813;
-0.9000;0.2532;0.5765;
-0.6000;0.2540;0.5813;
-0.3000;0.2515;0.5813;
0.0000;0.2515;0.5813;
0.3000;0.2540;0.5765;
0.6000;0.2540;0.6007;
0.9000;0.2540;0.6177;
1.2000;0.2532;0.6225;
1.5000;0.2621;0.6588;
1.8000;0.2564;0.6564;
2.1000;0.2564;0.6782;
2.4000;0.2580;0.6903;
2.7000;0.2564;0.6976;
3.0000;0.2580;0.7073;
3.3000;0.2580;0.7097;
3.6000;0.2572;0.7145;
3.9000;0.2572;0.7242;
4.2000;0.2589;0.7363;
4.5000;0.2711;0.7678;
4.8000;0.2564;0.7339;
5.1000;0.2589;0.7460;
5.4000;0.2564;0.7436;
5.7000;0.2580;0.7363;
6.0000;0.2589;0.7363;
6.3000;0.2605;0.7436;
6.6000;0.2711;0.7727;
6.9000;0.2597;0.7388;
7.2000;0.2597;0.7436;
7.5000;0.2605;0.7533;
7.8000;0.2564;0.7606;
8.1000;0.2589;0.7678;
8.4000;0.2605;0.7703;
8.7000;0.2572;0.7654;
9.0000;0.2597;0.7654;
9.3000;0.2580;0.7654;
9.6000;0.2597;0.7654;
9.9000;0.2597;0.7606;
10.2000;0.2654;0.7703;
10.5000;0.2589;0.7581;
10.8000;0.2637;0.7727;
11.1000;0.2572;0.7533;
11.4000;0.2564;0.7557;
11.7000;0.2589;0.7509;
12.0000;0.2580;0.7533;
12.3000;0.2629;0.7654;
12.6000;0.2572;0.7412;
12.9000;0.2548;0.7363;
13.2000;0.2580;0.7581;
13.5000;0.2597;0.7581;
13.8000;0.2572;0.7557;
14.1000;0.2572;0.7533;
14.4000;0.2580;0.7581;
14.7000;0.2597;0.7509;
15.0000;0.2589;0.7460;
15.3000;0.2580;0.7485;
15.6000;0.2580;0.7533;
15.9000;0.2580;0.7509;
16.2000;0.2637;0.7678;
16.5000;0.2605;0.7678;
16.8000;0.2564;0.7460;
17.1000;0.2580;0.7485;
17.4000;0.2589;0.7509;
17.7000;0.2637;0.7678;
18.0000;0.2589;0.7557;
18.3000;0.2597;0.7630;
18.6000;0.2556;0.7606;
18.9000;0.2589;0.7654;
19.2000;0.2548;0.7485;
19.5000;0.2589;0.7678;
19.8000;0.2523;0.7557;
20.1000;0.2621;0.7921;
20.4000;0.2572;0.7727;
20.7000;0.2605;0.7751;
21.0000;0.2556;0.7557;
21.3000;0.2629;0.7678;
21.6000;0.2589;0.7581;
21.9000;0.2572;0.7581;
22.2000;0.2597;0.7654;
22.5000;0.2540;0.7533;
22.8000;0.2580;0.7654;
23.1000;0.2589;0.7727;
23.4000;0.2589;0.7703;
23.7000;0.2564;0.7509;
24.0000;0.2564;0.7436;
24.3000;0.2572;0.7412;
24.6000;0.2589;0.7436;
24.9000;0.2580;0.7436;
25.2000;0.2564;0.7388;
25.5000;0.2580;0.7388;
25.8000;0.2572;0.7339;
26.1000;0.2580;0.7388;
26.4000;0.2629;0.7485;
26.7000;0.2589;0.7291;
27.0000;0.2556;0.7315;
27.3000;0.2580;0.7460;
27.6000;0.2629;0.7703;
27.9000;0.2556;0.7533;
28.2000;0.2572;0.7630;
28.5000;0.2548;0.7581;
28.8000;0.2572;0.7703;
29.1000;0.2572;0.7703;
29.4000;0.2605;0.7654;
29.7000;0.2670;0.7775;
30.0000;0.2572;0.7654;
30.3000;0.2572;0.7630;
30.6000;0.2556;0.7654;
30.9000;0.2580;0.7703;
31.2000;0.2580;0.7703;
31.5000;0.2605;0.7678;
31.8000;0.2556;0.7533;
32.1000;0.2564;0.7533;
32.4000;0.2589;0.7533;
32.7000;0.2580;0.7630;
33.0000;0.2629;0.7727;
33.3000;0.2564;0.7557;
33.6000;0.2532;0.7606;
33.9000;0.2556;0.7751;
34.2000;0.2572;0.7751;
34.5000;0.2589;0.7727;
34.8000;0.2613;0.7799;
35.1000;0.2572;0.7654;
35.4000;0.2597;0.7727;
35.7000;0.2605;0.7775;
36.0000;0.2572;0.7678;
36.3000;0.2589;0.7824;
36.6000;0.2580;0.7775;
36.9000;0.2556;0.7678;
37.2000;0.2499;0.7654;
37.5000;0.2580;0.7921;
37.8000;0.2597;0.7896;
38.1000;0.2580;0.7799;
38.4000;0.2572;0.7824;
38.7000;0.2597;0.7872;
39.0000;0.2597;0.7921;
39.3000;0.2564;0.7775;
39.6000;0.2589;0.7727;
39.9000;0.2589;0.7727;
40.2000;0.2532;0.7581;
40.5000;0.2556;0.7606;
40.8000;0.2548;0.7703;
41.1000;0.2564;0.7775;
41.4000;0.2564;0.7751;
41.7000;0.2572;0.7799;
42.0000;0.2597;0.7703;
42.3000;0.2491;0.7412;
42.6000;0.2589;0.7678;
42.9000;0.2589;0.7703;
43.2000;0.2589;0.7727;
43.5000;0.2564;0.7630;
43.8000;0.2523;0.7485;
44.1000;0.2580;0.7630;
44.4000;0.2580;0.7630;
44.7000;0.2548;0.7460;
45.0000;0.2564;0.7557;
45.3000;0.2580;0.7654;
45.6000;0.2621;0.7824;
45.9000;0.2548;0.7751;
46.2000;0.2556;0.7727;
46.5000;0.2564;0.7727;
46.8000;0.2564;0.7727;
47.1000;0.2686;0.8017;
47.4000;0.2589;0.7654;
47.7000;0.2589;0.7606;
48.0000;0.2507;0.7509;
48.3000;0.2564;0.7678;
48.6000;0.2572;0.7775;
48.9000;0.2605;0.7848;
49.2000;0.2580;0.7896;
49.5000;0.2564;0.7896;
49.8000;0.2589;0.7969;
50.1000;0.2580;0.7993;
50.4000;0.2605;0.7993;
50.7000;0.2580;0.7896;
51.0000;0.2580;0.7872;
51.3000;0.2589;0.7824;
51.6000;0.2605;0.7921;
51.9000;0.2580;0.7896;
52.2000;0.2589;0.7969;
52.5000;0.2556;0.7824;
52.8000;0.2548;0.7727;
53.1000;0.2589;0.7775;
53.4000;0.2580;0.7751;
53.7000;0.2597;0.7775;
54.0000;0.2589;0.7703;
54.3000;0.2597;0.7824;
54.6000;0.2564;0.7824;
54.9000;0.2580;0.7848;
55.2000;0.2589;0.7921;
55.5000;0.2556;0.7896;
55.8000;0.2556;0.7848;
56.1000;0.2556;0.7751;
56.4000;0.2556;0.7848;
56.7000;0.2629;0.8017;
57.0000;0.2556;0.7848;
57.3000;0.2654;0.8139;
57.6000;0.2572;0.7824;
57.9000;0.2572;0.7751;
58.2000;0.2580;0.7848;
58.5000;0.2589;0.7896;
58.8000;0.2483;0.7533;
59.1000;0.2597;0.7775;
59.4000;0.2572;0.7775;
59.7000;0.2589;0.7799;
60.0000;0.2572;0.7703;
60.3000;0.2572;0.7654;
60.6000;0.2580;0.7654;
60.9000;0.2572;0.7630;
61.2000;0.2564;0.7606;
61.5000;0.2572;0.7678;
61.8000;0.2589;0.7727;
62.1000;0.2589;0.7727;
62.4000;0.2572;0.7751;
62.7000;0.2605;0.7799;
63.0000;0.2597;0.7824;
63.3000;0.2589;0.7775;
63.6000;0.2589;0.7751;
63.9000;0.2564;0.7751;
64.2000;0.2540;0.7606;
64.5000;0.2613;0.7775;
64.8000;0.2589;0.7678;
65.1000;0.2564;0.7727;
65.4000;0.2580;0.7751;
65.7000;0.2564;0.7751;
66.0000;0.2605;0.7775;
66.3000;0.2613;0.7872;
66.6000;0.2564;0.7775;
66.9000;0.2523;0.7703;
67.2000;0.2564;0.7848;
67.5000;0.2515;0.7703;
67.8000;0.2580;0.7872;
68.1000;0.2572;0.7872;
68.4000;0.2686;0.8090;
68.7000;0.2572;0.7775;
69.0000;0.2621;0.7848;
69.3000;0.2597;0.7654;
69.6000;0.2532;0.7509;
69.9000;0.2580;0.7581;
70.2000;0.2580;0.7703;
70.5000;0.2572;0.7703;
70.8000;0.2589;0.7727;
71.1000;0.2597;0.7727;
71.4000;0.2564;0.7654;
71.7000;0.2572;0.7678;
72.0000;0.2564;0.7751;
72.3000;0.2564;0.7848;
72.6000;0.2572;0.7799;
72.9000;0.2556;0.7799;
73.2000;0.2580;0.7848;
73.5000;0.2572;0.7896;
73.8000;0.2597;0.7993;
74.1000;0.2572;0.7921;
74.4000;0.2564;0.7896;
74.7000;0.2556;0.7824;
75.0000;0.2556;0.7799;
75.3000;0.2556;0.7751;
75.6000;0.2564;0.7751;
75.9000;0.2572;0.7824;
76.2000;0.2572;0.7848;
76.5000;0.2556;0.7775;
76.8000;0.2532;0.7703;
77.1000;0.2580;0.7848;
77.4000;0.2589;0.7872;
77.7000;0.2556;0.7775;
78.0000;0.2556;0.7848;
78.3000;0.2580;0.7848;
78.6000;0.2589;0.7872;
78.9000;0.2580;0.7751;
79.2000;0.2572;0.7678;
79.5000;0.2589;0.7703;
79.8000;0.2556;0.7630;
80.1000;0.2564;0.7727;
80.4000;0.2564;0.7678;
80.7000;0.2597;0.7751;
81.0000;0.2564;0.7703;
81.3000;0.2572;0.7678;
81.6000;0.2564;0.7678;
81.9000;0.2564;0.7678;
82.2000;0.2589;0.7775;
82.5000;0.2589;0.7775;
82.8000;0.2589;0.7775;
83.1000;0.2564;0.7678;
83.4000;0.2572;0.7678;
83.7000;0.2637;0.7872;
84.0000;0.2572;0.7727;
84.3000;0.2572;0.7727;
84.6000;0.2597;0.7824;
84.9000;0.2572;0.7824;
85.2000;0.2515;0.7606;
85.5000;0.2564;0.7751;
85.8000;0.2564;0.7824;
86.1000;0.2589;0.7799;
86.4000;0.2605;0.7872;
86.7000;0.2556;0.7703;
87.0000;0.2556;0.7678;
87.3000;0.2589;0.7799;
87.6000;0.2507;0.7557;
87.9000;0.2540;0.7606;
88.2000;0.2580;0.7678;
88.5000;0.2572;0.7630;
88.8000;0.2621;0.7678;
89.1000;0.2556;0.7581;
89.4000;0.2564;0.7630;
89.7000;0.2564;0.7678;
90.0000;0.2548;0.7678;
90.3000;0.2572;0.7824;
90.6000;0.2572;0.7848;
90.9000;0.2572;0.7824;
91.2000;0.2564;0.7872;
91.5000;0.2702;0.8211;
91.8000;0.2589;0.7896;
92.1000;0.2564;0.7799;
92.4000;0.2532;0.7775;
92.7000;0.2564;0.7896;
93.0000;0.2572;0.7896;
93.3000;0.2572;0.7848;
93.6000;0.2580;0.7799;
93.9000;0.2572;0.7824;
94.2000;0.2564;0.7824;
94.5000;0.2572;0.7848;
94.8000;0.2572;0.7872;
95.1000;0.2564;0.7799;
95.4000;0.2580;0.7848;
95.7000;0.2564;0.7775;
96.0000;0.2580;0.7751;
96.3000;0.2556;0.7727;
96.6000;0.2580;0.7751;
96.9000;0.2572;0.7751;
97.2000;0.2572;0.7799;
97.5000;0.2564;0.7751;
97.8000;0.2580;0.7921;
98.1000;0.2670;0.8235;
98.4000;0.2572;0.8042;
98.7000;0.2597;0.8066;
99.0000;0.2572;0.7945;
99.3000;0.2564;0.7969;
99.6000;0.2597;0.7993;
99.9000;0.2564;0.7921;
100.2000;0.2589;0.7921;
100.5000;0.2580;0.7848;
100.8000;0.2548;0.7848;
101.1000;0.2654;0.8187;
101.4000;0.2564;0.7993;
101.7000;0.2572;0.7945;
102.0000;0.2564;0.7921;
102.3000;0.2564;0.7921;
102.6000;0.2572;0.7921;
102.9000;0.2589;0.7945;
103.2000;0.2548;0.7848;
103.5000;0.2564;0.7799;
103.8000;0.2654;0.7993;
104.1000;0.2564;0.7799;
104.4000;0.2564;0.7872;
104.7000;0.2572;0.7921;
105.0000;0.2556;0.7872;
105.3000;0.2629;0.8042;
105.6000;0.2572;0.7945;
105.9000;0.2564;0.7993;
106.2000;0.2572;0.8042;
106.5000;0.2564;0.7993;
106.8000;0.2589;0.8017;
107.1000;0.2564;0.7872;
107.4000;0.2564;0.7896;
107.7000;0.2532;0.7824;
108.0000;0.2572;0.7921;
108.3000;0.2580;0.7921;
108.6000;0.2564;0.7993;
108.9000;0.2589;0.7993;
109.2000;0.2589;0.8066;
109.5000;0.2572;0.7993;
109.8000;0.2548;0.7824;
110.1000;0.2597;0.7945;
110.4000;0.2589;0.7848;
110.7000;0.2580;0.7824;
111.0000;0.2589;0.7921;
111.3000;0.2572;0.7896;
111.6000;0.2621;0.8114;
111.9000;0.2564;0.7993;
112.2000;0.2589;0.7993;
112.5000;0.2580;0.7993;
112.8000;0.2572;0.7945;
113.1000;0.2589;0.8017;
113.4000;0.2580;0.7945;
113.7000;0.2572;0.7969;
114.0000;0.2483;0.7678;
114.3000;0.2523;0.7775;
114.6000;0.2572;0.7945;
114.9000;0.2564;0.7969;
115.2000;0.2572;0.7896;
115.5000;0.2629;0.8066;
115.8000;0.2572;0.7896;
116.1000;0.2564;0.7848;
116.4000;0.2572;0.7872;
116.7000;0.2572;0.7848;
117.0000;0.2564;0.7775;
117.3000;0.2564;0.7775;
117.6000;0.2629;0.7993;
117.9000;0.2564;0.7775;
118.2000;0.2572;0.7848;
118.5000;0.2564;0.7824;
118.8000;0.2556;0.7824;
119.1000;0.2572;0.7824;
119.4000;0.2556;0.7775;
119.7000;0.2556;0.7799;
120.0000;0.2548;0.7824;
120.3000;0.2580;0.7896;
120.6000;0.2580;0.7921;
120.9000;0.2646;0.8090;
121.2000;0.2572;0.7921;
121.5000;0.2548;0.7872;
121.8000;0.2564;0.7921;
122.1000;0.2580;0.7872;
122.4000;0.2621;0.7969;
122.7000;0.2662;0.8066;
123.0000;0.2572;0.7824;
123.3000;0.2580;0.7896;
123.6000;0.2637;0.7993;
123.9000;0.2556;0.7848;
124.2000;0.2548;0.7824;
124.5000;0.2589;0.7896;
124.8000;0.2564;0.7824;
125.1000;0.2597;0.7896;
125.4000;0.2580;0.7824;
125.7000;0.2589;0.7824;
126.0000;0.2621;0.7848;
126.3000;0.2564;0.7727;
126.6000;0.2580;0.7751;
126.9000;0.2580;0.7727;
127.2000;0.2589;0.7727;
127.5000;0.2572;0.7678;
127.8000;0.2589;0.7678;
128.1000;0.2556;0.7630;
128.4000;0.2572;0.7751;
128.7000;0.2629;0.7775;
129.0000;0.2605;0.7751;
129.3000;0.2556;0.7630;
129.6000;0.2589;0.7703;
129.9000;0.2580;0.7678;
130.2000;0.2580;0.7799;
130.5000;0.2597;0.7799;
130.8000;0.2654;0.7945;
131.1000;0.2564;0.7775;
131.4000;0.2572;0.7775;
131.7000;0.2572;0.7775;
132.0000;0.2532;0.7727;
132.3000;0.2540;0.7678;
132.6000;0.2597;0.7824;
132.9000;0.2605;0.7872;
133.2000;0.2564;0.7727;
133.5000;0.2564;0.7824;
133.8000;0.2597;0.7775;
134.1000;0.2483;0.7460;
134.4000;0.2613;0.7799;
134.7000;0.2580;0.7703;
135.0000;0.2572;0.7775;
135.3000;0.2621;0.7969;
135.6000;0.2556;0.7872;
135.9000;0.2589;0.8017;
136.2000;0.2523;0.7872;
136.5000;0.2564;0.7969;
136.8000;0.2572;0.8017;
137.1000;0.2564;0.7993;
137.4000;0.2564;0.7896;
137.7000;0.2466;0.7703;
138.0000;0.2556;0.7945;
138.3000;0.2564;0.7921;
138.6000;0.2580;0.7872;
138.9000;0.2556;0.7824;
139.2000;0.2548;0.7775;
139.5000;0.2564;0.7824;
139.8000;0.2548;0.7775;
140.1000;0.2564;0.7799;
140.4000;0.2580;0.7799;
140.7000;0.2548;0.7775;
141.0000;0.2597;0.7945;
141.3000;0.2621;0.7969;
141.6000;0.2548;0.7751;
141.9000;0.2556;0.7703;
142.2000;0.2589;0.7799;
142.5000;0.2523;0.7703;
142.8000;0.2694;0.8114;
143.1000;0.2580;0.7799;
143.4000;0.2556;0.7751;
143.7000;0.2605;0.7848;
144.0000;0.2564;0.7775;
144.3000;0.2548;0.7606;
144.6000;0.2540;0.7533;
144.9000;0.2556;0.7654;
145.2000;0.2572;0.7581;
145.5000;0.2540;0.7557;
145.8000;0.2548;0.7678;
146.1000;0.2580;0.7751;
146.4000;0.2572;0.7703;
146.7000;0.2589;0.7703;
147.0000;0.2572;0.7727;
147.3000;0.2564;0.7751;
147.6000;0.2572;0.7727;
147.9000;0.2572;0.7775;
148.2000;0.2580;0.7848;
148.5000;0.2548;0.7751;
148.8000;0.2540;0.7751;
149.1000;0.2621;0.7993;
149.4000;0.2597;0.7824;
149.7000;0.2564;0.7775;
150.0000;0.2572;0.7751;
150.3000;0.2548;0.7678;
150.6000;0.2572;0.7751;
150.9000;0.2540;0.7606;
151.2000;0.2580;0.7703;
151.5000;0.2580;0.7751;
151.8000;0.2523;0.7581;
152.1000;0.2556;0.7727;
152.4000;0.2564;0.7703;
152.7000;0.2589;0.7799;
153.0000;0.2572;0.7824;
153.3000;0.2621;0.7945;
153.6000;0.2572;0.7799;
153.9000;0.2556;0.7799;
154.2000;0.2613;0.7969;
154.5000;0.2564;0.7848;
154.8000;0.2540;0.7727;
155.1000;0.2548;0.7703;
155.4000;0.2548;0.7751;
155.7000;0.2564;0.7678;
156.0000;0.2556;0.7678;
156.3000;0.2637;0.7945;
156.6000;0.2572;0.7799;
156.9000;0.2564;0.7921;
157.2000;0.2678;0.8139;
157.5000;0.2564;0.7921;
157.8000;0.2580;0.7993;
158.1000;0.2564;0.8017;
158.4000;0.2662;0.8260;
158.7000;0.2572;0.8042;
159.0000;0.2523;0.7896;
159.3000;0.2523;0.7896;
159.6000;0.2548;0.7993;
159.9000;0.2637;0.8211;
160.2000;0.2572;0.8114;
160.5000;0.2580;0.8090;
160.8000;0.2564;0.7993;
161.1000;0.2564;0.7896;
161.4000;0.2483;0.7654;
161.7000;0.2564;0.7896;
162.0000;0.2580;0.7969;
162.3000;0.2580;0.7993;
162.6000;0.2548;0.8017;
162.9000;0.2515;0.7921;
163.2000;0.2572;0.8114;
163.5000;0.2556;0.8090;
163.8000;0.2548;0.8066;
164.1000;0.2564;0.8042;
164.4000;0.2556;0.8114;
164.7000;0.2556;0.8114;
165.0000;0.2556;0.8163;
165.3000;0.2572;0.8114;
165.6000;0.2548;0.8042;
165.9000;0.2686;0.8332;
166.2000;0.2564;0.7969;
166.5000;0.2572;0.7921;
166.8000;0.2572;0.7945;
167.1000;0.2589;0.7945;
167.4000;0.2523;0.7775;
167.7000;0.2556;0.7872;
168.0000;0.2564;0.7921;
168.3000;0.2589;0.7945;
168.6000;0.2605;0.8042;
168.9000;0.2572;0.7896;
169.2000;0.2589;0.7969;
169.5000;0.2580;0.7993;
169.8000;0.2556;0.7921;
170.1000;0.2589;0.7921;
170.4000;0.2564;0.7848;
170.7000;0.2564;0.7727;
171.0000;0.2548;0.7751;
171.3000;0.2572;0.7751;
171.6000;0.2556;0.7727;
171.9000;0.2572;0.7727;
172.2000;0.2556;0.7751;
172.5000;0.2572;0.7703;
172.8000;0.2556;0.7630;
173.1000;0.2548;0.7654;
173.4000;0.2556;0.7824;
173.7000;0.2589;0.7969;
174.0000;0.2548;0.7824;
174.3000;0.2556;0.7848;
174.6000;0.2556;0.7921;
174.9000;0.2564;0.7945;
175.2000;0.2556;0.7945;
175.5000;0.2572;0.7969;
175.8000;0.2564;0.7993;
176.1000;0.2564;0.7921;
176.4000;0.2572;0.7872;
176.7000;0.2556;0.7848;
177.0000;0.2580;0.7945;
177.3000;0.2572;0.8017;
177.6000;0.2564;0.7945;
177.9000;0.2589;0.8042;
178.2000;0.2662;0.8187;
178.5000;0.2580;0.7848;
178.8000;0.2572;0.7872;
179.1000;0.2564;0.7848;
179.4000;0.2564;0.7872;
179.7000;0.2597;0.7993;
180.0000;0.2523;0.7703;
180.3000;0.2499;0.7581;
180.6000;0.2572;0.7848;
180.9000;0.2556;0.7848;
181.2000;0.2556;0.7945;
181.5000;0.2572;0.7921;
181.8000;0.2580;0.7945;
182.1000;0.2572;0.7896;
182.4000;0.2564;0.7896;
182.7000;0.2621;0.8066;
183.0000;0.2475;0.7654;
183.3000;0.2532;0.7872;
183.6000;0.2491;0.7799;
183.9000;0.2475;0.7775;
184.2000;0.2540;0.7896;
184.5000;0.2540;0.7921;
184.8000;0.2450;0.7678;
185.1000;0.2572;0.7993;
185.4000;0.2589;0.7896;
185.7000;0.2564;0.7775;
186.0000;0.2572;0.7896;
186.3000;0.2499;0.7703;
186.6000;0.2572;0.7945;
186.9000;0.2556;0.7921;
187.2000;0.2580;0.7921;
187.5000;0.2597;0.7993;
187.8000;0.2572;0.7896;
188.1000;0.2589;0.7969;
188.4000;0.2589;0.7993;
188.7000;0.2613;0.8066;
189.0000;0.2580;0.7969;
189.3000;0.2515;0.7775;
189.6000;0.2564;0.7921;
189.9000;0.2580;0.7993;
190.2000;0.2572;0.7896;
190.5000;0.2564;0.7848;
190.8000;0.2564;0.7872;
191.1000;0.2580;0.7945;
191.4000;0.2564;0.7921;
191.7000;0.2572;0.7921;
192.0000;0.2572;0.7848;
192.3000;0.2580;0.7872;
192.6000;0.2580;0.7824;
192.9000;0.2556;0.7824;
193.2000;0.2564;0.7824;
193.5000;0.2580;0.7872;
193.8000;0.2613;0.7945;
194.1000;0.2556;0.7775;
194.4000;0.2556;0.7824;
194.7000;0.2556;0.7751;
195.0000;0.2540;0.7775;
195.3000;0.2564;0.7775;
195.6000;0.2556;0.7630;
195.9000;0.2532;0.7509;
196.2000;0.2564;0.7703;
196.5000;0.2564;0.7727;
196.8000;0.2548;0.7799;
197.1000;0.2564;0.7824;
197.4000;0.2589;0.7824;
197.7000;0.2564;0.7751;
198.0000;0.2564;0.7703;
198.3000;0.2572;0.7775;
198.6000;0.2572;0.7824;
198.9000;0.2556;0.7799;
199.2000;0.2548;0.7751;
199.5000;0.2556;0.7824;
199.8000;0.2523;0.7654;
200.1000;0.2572;0.7799;
200.4000;0.2556;0.7848;
200.7000;0.2564;0.7872;
201.0000;0.2572;0.7872;
201.3000;0.2589;0.7969;
201.6000;0.2572;0.7896;
201.9000;0.2621;0.7896;
202.2000;0.2605;0.7896;
202.5000;0.2564;0.7775;
202.8000;0.2564;0.7703;
203.1000;0.2564;0.7727;
203.4000;0.2540;0.7727;
203.7000;0.2564;0.7751;
204.0000;0.2556;0.7751;
204.3000;0.2507;0.7678;
204.6000;0.2556;0.7775;
204.9000;0.2564;0.7872;
205.2000;0.2564;0.7945;
205.5000;0.2556;0.7896;
205.8000;0.2548;0.7896;
206.1000;0.2564;0.7969;
206.4000;0.2556;0.8042;
206.7000;0.2686;0.8357;
207.0000;0.2564;0.8017;
207.3000;0.2572;0.8066;
207.6000;0.2605;0.8114;
207.9000;0.2572;0.7993;
208.2000;0.2572;0.8017;
208.5000;0.2548;0.7921;
208.8000;0.2523;0.7824;
209.1000;0.2572;0.7921;
209.4000;0.2564;0.7945;
209.7000;0.2605;0.8114;
210.0000;0.2564;0.7921;
210.3000;0.2556;0.7872;
210.6000;0.2572;0.7799;
210.9000;0.2556;0.7799;
211.2000;0.2548;0.7824;
211.5000;0.2556;0.7824;
211.8000;0.2564;0.7824;
212.1000;0.2564;0.7848;
212.4000;0.2548;0.7848;
212.7000;0.2572;0.7945;
213.0000;0.2564;0.7993;
213.3000;0.2540;0.7969;
213.6000;0.2564;0.7993;
213.9000;0.2589;0.8017;
214.2000;0.2572;0.7945;
214.5000;0.2580;0.7945;
214.8000;0.2637;0.8042;
215.1000;0.2580;0.7921;
215.4000;0.2564;0.7872;
215.7000;0.2580;0.8042;
216.0000;0.2564;0.7993;
216.3000;0.2564;0.8017;
216.6000;0.2556;0.7945;
216.9000;0.2532;0.7896;
217.2000;0.2564;0.7921;
217.5000;0.2564;0.7872;
217.8000;0.2564;0.7848;
218.1000;0.2629;0.8066;
218.4000;0.2564;0.7775;
218.7000;0.2556;0.7799;
219.0000;0.2564;0.7824;
219.3000;0.2556;0.7872;
219.6000;0.2564;0.7848;
219.9000;0.2540;0.7872;
220.2000;0.2589;0.8017;
220.5000;0.2572;0.7993;
220.8000;0.2580;0.8042;
221.1000;0.2556;0.8042;
221.4000;0.2564;0.7969;
221.7000;0.2564;0.7969;
222.0000;0.2572;0.7921;
222.3000;0.2540;0.7824;
222.6000;0.2540;0.7775;
222.9000;0.2450;0.7533;
223.2000;0.2572;0.7848;
223.5000;0.2572;0.7824;
223.8000;0.2564;0.7848;
224.1000;0.2564;0.7872;
224.4000;0.2572;0.7872;
224.7000;0.2564;0.7872;
225.0000;0.2548;0.7751;
225.3000;0.2548;0.7751;
225.6000;0.2572;0.7775;
225.9000;0.2572;0.7824;
226.2000;0.2548;0.7751;
226.5000;0.2564;0.7703;
226.8000;0.2572;0.7678;
227.1000;0.2580;0.7727;
227.4000;0.2572;0.7654;
227.7000;0.2548;0.7678;
228.0000;0.2572;0.7751;
228.3000;0.2589;0.7848;
228.6000;0.2507;0.7678;
228.9000;0.2564;0.7727;
229.2000;0.2572;0.7775;
229.5000;0.2580;0.7678;
229.8000;0.2564;0.7703;
230.1000;0.2564;0.7751;
230.4000;0.2572;0.7824;
230.7000;0.2572;0.7848;
231.0000;0.2564;0.7824;
231.3000;0.2548;0.7727;
231.6000;0.2548;0.7703;
231.9000;0.2540;0.7606;
232.2000;0.2515;0.7581;
232.5000;0.2540;0.7678;
232.8000;0.2532;0.7630;
233.1000;0.2564;0.7727;
233.4000;0.2523;0.7703;
233.7000;0.2540;0.7824;
234.0000;0.2556;0.7896;
234.3000;0.2556;0.7896;
234.6000;0.2572;0.7945;
234.9000;0.2580;0.7799;
235.2000;0.2556;0.7727;
235.5000;0.2540;0.7727;
235.8000;0.2572;0.7751;
236.1000;0.2572;0.7703;
236.4000;0.2662;0.7896;
236.7000;0.2564;0.7751;
237.0000;0.2572;0.7775;
237.3000;0.2589;0.7896;
237.6000;0.2556;0.7824;
237.9000;0.2580;0.7824;
238.2000;0.2572;0.7799;
238.5000;0.2466;0.7606;
238.8000;0.2475;0.7630;
239.1000;0.2580;0.7824;
239.4000;0.2711;0.8187;
239.7000;0.2589;0.7945;
240.0000;0.2572;0.7848;
240.3000;0.2491;0.7606;
240.6000;0.2507;0.7703;
240.9000;0.2564;0.7703;
241.2000;0.2580;0.7751;
241.5000;0.2589;0.7824;
241.8000;0.2499;0.7630;
242.1000;0.2572;0.7824;
242.4000;0.2564;0.7775;
242.7000;0.2564;0.7727;
243.0000;0.2564;0.7678;
243.3000;0.2564;0.7654;
243.6000;0.2564;0.7654;
243.9000;0.2572;0.7678;
244.2000;0.2556;0.7606;
244.5000;0.2564;0.7606;
244.8000;0.2564;0.7630;
245.1000;0.2548;0.7606;
245.4000;0.2572;0.7703;
245.7000;0.2540;0.7630;
246.0000;0.2613;0.7824;
246.3000;0.2532;0.7703;
246.6000;0.2548;0.7678;
246.9000;0.2572;0.7751;
247.2000;0.2548;0.7654;
247.5000;0.2556;0.7630;
247.8000;0.2548;0.7581;
248.1000;0.2564;0.7606;
248.4000;0.2540;0.7581;
248.7000;0.2556;0.7727;
249.0000;0.2556;0.7703;
249.3000;0.2637;0.7872;
249.6000;0.2564;0.7703;
249.9000;0.2532;0.7509;
250.2000;0.2564;0.7606;
250.5000;0.2564;0.7557;
250.8000;0.2540;0.7581;
251.1000;0.2580;0.7799;
251.4000;0.2523;0.7630;
251.7000;0.2646;0.7969;
252.0000;0.2556;0.7824;
252.3000;0.2564;0.7896;
252.6000;0.2580;0.8042;
252.9000;0.2556;0.7969;
253.2000;0.2556;0.8042;
253.5000;0.2556;0.8017;
253.8000;0.2597;0.8017;
254.1000;0.2556;0.7799;
254.4000;0.2654;0.8042;
254.7000;0.2564;0.7824;
255.0000;0.2450;0.7436;
255.3000;0.2580;0.7799;
255.6000;0.2564;0.7727;
255.9000;0.2548;0.7799;
256.2000;0.2564;0.7824;
256.5000;0.2507;0.7557;
256.8000;0.2572;0.7751;
257.1000;0.2556;0.7727;
257.4000;0.2556;0.7654;
257.7000;0.2548;0.7581;
258.0000;0.2589;0.7703;
258.3000;0.2564;0.7630;
258.6000;0.2548;0.7581;
258.9000;0.2564;0.7606;
259.2000;0.2564;0.7678;
259.5000;0.2532;0.7606;
259.8000;0.2556;0.7654;
260.1000;0.2556;0.7606;
260.4000;0.2564;0.7678;
260.7000;0.2629;0.7799;
261.0000;0.2572;0.7654;
261.3000;0.2548;0.7606;
261.6000;0.2564;0.7751;
261.9000;0.2548;0.7678;
262.2000;0.2556;0.7727;
262.5000;0.2532;0.7678;
262.8000;0.2654;0.7969;
263.1000;0.2572;0.7848;
263.4000;0.2540;0.7799;
263.7000;0.2564;0.7945;
264.0000;0.2556;0.7969;
264.3000;0.2523;0.7872;
264.6000;0.2572;0.7969;
264.9000;0.2564;0.7945;
265.2000;0.2556;0.7969;
265.5000;0.2540;0.7848;
265.8000;0.2580;0.7872;
266.1000;0.2572;0.7799;
266.4000;0.2580;0.7872;
266.7000;0.2564;0.7872;
267.0000;0.2556;0.7896;
267.3000;0.2580;0.7921;
267.6000;0.2572;0.7945;
267.9000;0.2564;0.7945;
268.2000;0.2556;0.8042;
268.5000;0.2564;0.7945;
268.8000;0.2548;0.7848;
269.1000;0.2564;0.7824;
269.4000;0.2532;0.7824;
269.7000;0.2556;0.7824;
270.0000;0.2532;0.7799;
270.3000;0.2572;0.7921;
270.6000;0.2580;0.7969;
270.9000;0.2572;0.7896;
271.2000;0.2572;0.7848;
271.5000;0.2589;0.7799;
271.8000;0.2556;0.7799;
272.1000;0.2572;0.7945;
272.4000;0.2556;0.7896;
272.7000;0.2564;0.7945;
273.0000;0.2564;0.7945;
273.3000;0.2605;0.7969;
273.6000;0.2548;0.7896;
273.9000;0.2564;0.7993;
274.2000;0.2580;0.7921;
274.5000;0.2589;0.7921;
274.8000;0.2556;0.7872;
275.1000;0.2556;0.7969;
275.4000;0.2540;0.8017;
275.7000;0.2572;0.8163;
276.0000;0.2564;0.7993;
276.3000;0.2670;0.8187;
276.6000;0.2548;0.7799;
276.9000;0.2589;0.7799;
277.2000;0.2556;0.7678;
277.5000;0.2556;0.7654;
277.8000;0.2491;0.7460;
278.1000;0.2572;0.7630;
278.4000;0.2572;0.7727;
278.7000;0.2515;0.7557;
279.0000;0.2548;0.7678;
279.3000;0.2548;0.7751;
279.6000;0.2548;0.7824;
279.9000;0.2556;0.7799;
280.2000;0.2540;0.7799;
280.5000;0.2564;0.7824;
280.8000;0.2556;0.7799;
281.1000;0.2556;0.7921;
281.4000;0.2564;0.7872;
281.7000;0.2580;0.7969;
282.0000;0.2580;0.7848;
282.3000;0.2580;0.7824;
282.6000;0.2499;0.7678;
282.9000;0.2564;0.7848;
283.2000;0.2564;0.7799;
283.5000;0.2564;0.7872;
283.8000;0.2556;0.7872;
284.1000;0.2572;0.7872;
284.4000;0.2556;0.7775;
284.7000;0.2580;0.7727;
285.0000;0.2540;0.7606;
285.3000;0.2564;0.7703;
285.6000;0.2548;0.7678;
285.9000;0.2572;0.7751;
286.2000;0.2532;0.7678;
286.5000;0.2548;0.7775;
286.8000;0.2580;0.7921;
287.1000;0.2548;0.7993;
287.4000;0.2548;0.7921;
287.7000;0.2540;0.7945;
288.0000;0.2548;0.7993;
288.3000;0.2572;0.7993;
288.6000;0.2572;0.7921;
288.9000;0.2564;0.7921;
289.2000;0.2556;0.7993;
289.5000;0.2532;0.7872;
289.8000;0.2548;0.7872;
290.1000;0.2556;0.7848;
290.4000;0.2556;0.7799;
290.7000;0.2556;0.7824;
291.0000;0.2580;0.7872;
291.3000;0.2564;0.7824;
291.6000;0.2556;0.7848;
291.9000;0.2515;0.7799;
292.2000;0.2548;0.7921;
292.5000;0.2564;0.7848;
292.8000;0.2572;0.7799;
293.1000;0.2629;0.7993;
293.4000;0.2589;0.7921;
293.7000;0.2564;0.7945;
294.0000;0.2556;0.7945;
294.3000;0.2548;0.7896;
294.6000;0.2564;0.7872;
294.9000;0.2556;0.7775;
295.2000;0.2564;0.7775;
295.5000;0.2556;0.7751;
295.8000;0.2572;0.7799;
296.1000;0.2548;0.7775;
296.4000;0.2540;0.7848;
296.7000;0.2540;0.7872;
297.0000;0.2572;0.7896;
297.3000;0.2499;0.7654;
297.6000;0.2548;0.7775;
297.9000;0.2540;0.7751;
298.2000;0.2515;0.7703;
298.5000;0.2580;0.7921;
298.8000;0.2621;0.8017;
299.1000;0.2556;0.7848;
299.4000;0.2499;0.7678;
299.7000;0.2572;0.7848;
300.0000;0.2572;0.7799;
300.3000;0.2523;0.7775;
300.6000;0.2589;0.7921;
300.9000;0.2548;0.7945;
301.2000;0.2532;0.7945;
301.5000;0.2564;0.7993;
301.8000;0.2556;0.7848;
302.1000;0.2564;0.7848;
302.4000;0.2580;0.7945;
302.7000;0.2564;0.7945;
303.0000;0.2556;0.7896;
303.3000;0.2507;0.7678;
303.6000;0.2572;0.7872;
303.9000;0.2556;0.7751;
304.2000;0.2540;0.7775;
304.5000;0.2564;0.7799;
304.8000;0.2613;0.8042;
305.1000;0.2564;0.7945;
305.4000;0.2523;0.7921;
305.7000;0.2540;0.7945;
306.0000;0.2540;0.7993;
306.3000;0.2589;0.8042;
306.6000;0.2556;0.7896;
306.9000;0.2580;0.7824;
307.2000;0.2572;0.7872;
307.5000;0.2580;0.7824;
307.8000;0.2564;0.7727;
308.1000;0.2564;0.7727;
308.4000;0.2564;0.7654;
308.7000;0.2589;0.7751;
309.0000;0.2556;0.7751;
309.3000;0.2564;0.7775;
309.6000;0.2556;0.7799;
309.9000;0.2564;0.7751;
310.2000;0.2670;0.8017;
310.5000;0.2556;0.7751;
310.8000;0.2540;0.7606;
311.1000;0.2564;0.7654;
311.4000;0.2556;0.7751;
311.7000;0.2532;0.7703;
312.0000;0.2532;0.7703;
312.3000;0.2540;0.7751;
312.6000;0.2556;0.7751;
312.9000;0.2564;0.7775;
313.2000;0.2548;0.7678;
313.5000;0.2564;0.7751;
313.8000;0.2572;0.7799;
314.1000;0.2548;0.7799;
314.4000;0.2556;0.7775;
314.7000;0.2523;0.7630;
315.0000;0.2564;0.7775;
315.3000;0.2556;0.7727;
315.6000;0.2523;0.7678;
315.9000;0.2532;0.7703;
316.2000;0.2564;0.7775;
316.5000;0.2556;0.7727;
316.8000;0.2556;0.7751;
317.1000;0.2556;0.7751;
317.4000;0.2564;0.7727;
317.7000;0.2629;0.7921;
318.0000;0.2564;0.7751;
318.3000;0.2580;0.7824;
318.6000;0.2556;0.7751;
318.9000;0.2572;0.7799;
319.2000;0.2556;0.7703;
319.5000;0.2556;0.7654;
319.8000;0.2556;0.7630;
320.1000;0.2556;0.7654;
320.4000;0.2572;0.7727;
320.7000;0.2564;0.7678;
321.0000;0.2548;0.7678;
321.3000;0.2580;0.7727;
321.6000;0.2580;0.7751;
321.9000;0.2564;0.7678;
322.2000;0.2548;0.7654;
322.5000;0.2523;0.7654;
322.8000;0.2548;0.7751;
323.1000;0.2564;0.7775;
323.4000;0.2556;0.7775;
323.7000;0.2597;0.7921;
324.0000;0.2564;0.7872;
324.3000;0.2556;0.7775;
324.6000;0.2548;0.7799;
324.9000;0.2556;0.7824;
325.2000;0.2548;0.7654;
325.5000;0.2556;0.7606;
325.8000;0.2548;0.7581;
326.1000;0.2540;0.7581;
326.4000;0.2540;0.7630;
326.7000;0.2556;0.7751;
327.0000;0.2564;0.7727;
327.3000;0.2605;0.7896;
327.6000;0.2564;0.7775;
327.9000;0.2597;0.7799;
328.2000;0.2572;0.7824;
328.5000;0.2556;0.7703;
328.8000;0.2572;0.7678;
329.1000;0.2580;0.7678;
329.4000;0.2572;0.7678;
329.7000;0.2572;0.7751;
330.0000;0.2556;0.7775;
330.3000;0.2532;0.7775;
330.6000;0.2515;0.7751;
330.9000;0.2564;0.7824;
331.2000;0.2548;0.7872;
331.5000;0.2580;0.7872;
331.8000;0.2646;0.7945;
332.1000;0.2564;0.7775;
332.4000;0.2556;0.7703;
332.7000;0.2548;0.7630;
333.0000;0.2564;0.7678;
333.3000;0.2548;0.7678;
333.6000;0.2491;0.7606;
333.9000;0.2540;0.7799;
334.2000;0.2540;0.7896;
334.5000;0.2564;0.7993;
334.8000;0.2548;0.7945;
335.1000;0.2556;0.7921;
335.4000;0.2515;0.7799;
335.7000;0.2564;0.7921;
336.0000;0.2556;0.7775;
336.3000;0.2532;0.7727;
336.6000;0.2548;0.7751;
336.9000;0.2605;0.7799;
337.2000;0.2556;0.7751;
337.5000;0.2556;0.7848;
337.8000;0.2540;0.7848;
338.1000;0.2572;0.7872;
338.4000;0.2572;0.7872;
338.7000;0.2540;0.7751;
339.0000;0.2572;0.7872;
339.3000;0.2572;0.7921;
339.6000;0.2564;0.7921;
339.9000;0.2556;0.7848;
340.2000;0.2556;0.7921;
340.5000;0.2564;0.7872;
340.8000;0.2556;0.7775;
341.1000;0.2572;0.7775;
341.4000;0.2564;0.7678;
341.7000;0.2572;0.7727;
342.0000;0.2556;0.7799;
342.3000;0.2515;0.7727;
342.6000;0.2572;0.7848;
342.9000;0.2548;0.7751;
343.2000;0.2572;0.7799;
343.5000;0.2572;0.7848;
343.8000;0.2548;0.7896;
344.1000;0.2556;0.8017;
344.4000;0.2548;0.8066;
344.7000;0.2580;0.8042;
345.0000;0.2556;0.8017;
345.3000;0.2556;0.7921;
345.6000;0.2556;0.7775;
345.9000;0.2532;0.7799;
346.2000;0.2556;0.7824;
346.5000;0.2556;0.7799;
346.8000;0.2540;0.7775;
347.1000;0.2548;0.7896;
347.4000;0.2548;0.7848;
347.7000;0.2532;0.7872;
348.0000;0.2564;0.7896;
348.3000;0.2597;0.7945;
348.6000;0.2564;0.7848;
348.9000;0.2556;0.7824;
349.2000;0.2556;0.7848;
349.5000;0.2515;0.7799;
349.8000;0.2532;0.7824;
350.1000;0.2556;0.7848;
350.4000;0.2540;0.7799;
350.7000;0.2540;0.7727;
351.0000;0.2564;0.7751;
351.3000;0.2540;0.7775;
351.6000;0.2532;0.7824;
351.9000;0.2556;0.7896;
352.2000;0.2556;0.7921;
352.5000;0.2556;0.7969;
352.8000;0.2491;0.7751;
353.1000;0.2532;0.7945;
353.4000;0.2548;0.7848;
353.7000;0.2564;0.7799;
354.0000;0.2556;0.7775;
354.3000;0.2556;0.7775;
354.6000;0.2491;0.7654;
354.9000;0.2572;0.7799;
355.2000;0.2556;0.7799;
355.5000;0.2556;0.7848;
355.8000;0.2556;0.7824;
356.1000;0.2572;0.7848;
356.4000;0.2564;0.7945;
356.7000;0.2556;0.7848;
357.0000;0.2548;0.7896;
357.3000;0.2572;0.7969;
357.6000;0.2515;0.7824;
357.9000;0.2556;0.8090;
358.2000;0.2564;0.8017;
358.5000;0.2556;0.7993;
358.8000;0.2548;0.7969;
359.1000;0.2556;0.7896;
359.4000;0.2556;0.7848;
359.7000;0.2572;0.7775;
360.0000;0.2556;0.7799;
360.3000;0.2580;0.7872;
360.6000;0.2572;0.7799;
360.9000;0.2580;0.7799;
361.2000;0.2597;0.7824;
361.5000;0.2564;0.7678;
361.8000;0.2540;0.7509;
362.1000;0.2548;0.7509;
362.4000;0.2613;0.7775;
362.7000;0.2556;0.7557;
363.0000;0.2572;0.7630;
363.3000;0.2548;0.7606;
363.6000;0.2613;0.7896;
363.9000;0.2564;0.7751;
364.2000;0.2548;0.7703;
364.5000;0.2548;0.7630;
364.8000;0.2523;0.7630;
365.1000;0.2556;0.7727;
365.4000;0.2556;0.7654;
365.7000;0.2540;0.7703;
366.0000;0.2564;0.7848;
366.3000;0.2621;0.8114;
366.6000;0.2572;0.7872;
366.9000;0.2548;0.7727;
367.2000;0.2426;0.7412;
367.5000;0.2548;0.7678;
367.8000;0.2564;0.7678;
368.1000;0.2589;0.7751;
368.4000;0.2540;0.7557;
368.7000;0.2556;0.7581;
369.0000;0.2564;0.7606;
369.3000;0.2564;0.7678;
369.6000;0.2548;0.7678;
369.9000;0.2564;0.7654;
370.2000;0.2540;0.7654;
370.5000;0.2564;0.7848;
370.8000;0.2589;0.7896;
371.1000;0.2564;0.7824;
371.4000;0.2548;0.7751;
371.7000;0.2556;0.7751;
372.0000;0.2556;0.7824;
372.3000;0.2564;0.7921;
372.6000;0.2556;0.7945;
372.9000;0.2548;0.7993;
373.2000;0.2548;0.7896;
373.5000;0.2548;0.7872;
373.8000;0.2556;0.7969;
374.1000;0.2572;0.8017;
374.4000;0.2564;0.8042;
374.7000;0.2532;0.8017;
375.0000;0.2540;0.8017;
375.3000;0.2556;0.8139;
375.6000;0.2515;0.7896;
375.9000;0.2556;0.7969;
376.2000;0.2556;0.7993;
376.5000;0.2548;0.7969;
376.8000;0.2580;0.7993;
377.1000;0.2507;0.7872;
377.4000;0.2564;0.7921;
377.7000;0.2532;0.7848;
378.0000;0.2564;0.7945;
378.3000;0.2564;0.7921;
378.6000;0.2556;0.7945;
378.9000;0.2532;0.7751;
379.2000;0.2532;0.7775;
379.5000;0.2572;0.7921;
379.8000;0.2556;0.7993;
380.1000;0.2564;0.8042;
380.4000;0.2548;0.7993;
380.7000;0.2564;0.7993;
381.0000;0.2556;0.7969;
381.3000;0.2564;0.8017;
381.6000;0.2523;0.7872;
381.9000;0.2556;0.7993;
382.2000;0.2523;0.7896;
382.5000;0.2548;0.7921;
382.8000;0.2540;0.7799;
383.1000;0.2556;0.7775;
383.4000;0.2532;0.7775;
383.7000;0.2556;0.7775;
384.0000;0.2556;0.7775;
384.3000;0.2572;0.7993;
384.6000;0.2548;0.7993;
384.9000;0.2556;0.8017;
385.2000;0.2556;0.7969;
385.5000;0.2556;0.7921;
385.8000;0.2564;0.7945;
386.1000;0.2532;0.7896;
386.4000;0.2515;0.7872;
386.7000;0.2556;0.7945;
387.0000;0.2548;0.7872;
387.3000;0.2532;0.7799;
387.6000;0.2532;0.7775;
387.9000;0.2564;0.7848;
388.2000;0.2548;0.7799;
388.5000;0.2556;0.7727;
388.8000;0.2556;0.7727;
389.1000;0.2523;0.7654;
389.4000;0.2475;0.7557;
389.7000;0.2540;0.7775;
390.0000;0.2548;0.7799;
390.3000;0.2580;0.7896;
390.6000;0.2572;0.7872;
390.9000;0.2572;0.7872;
391.2000;0.2540;0.7751;
391.5000;0.2548;0.7654;
391.8000;0.2556;0.7678;
392.1000;0.2556;0.7703;
392.4000;0.2580;0.7751;
392.7000;0.2589;0.7775;
393.0000;0.2556;0.7703;
393.3000;0.2564;0.7799;
393.6000;0.2564;0.7799;
393.9000;0.2580;0.7872;
394.2000;0.2548;0.7751;
394.5000;0.2589;0.7751;
394.8000;0.2556;0.7751;
395.1000;0.2548;0.7606;
395.4000;0.2532;0.7557;
395.7000;0.2580;0.7751;
396.0000;0.2572;0.7727;
396.3000;0.2556;0.7654;
396.6000;0.2572;0.7654;
396.9000;0.2556;0.7557;
397.2000;0.2572;0.7727;
397.5000;0.2483;0.7485;
397.8000;0.2589;0.7751;
398.1000;0.2540;0.7678;
398.4000;0.2556;0.7775;
398.7000;0.2572;0.7872;
399.0000;0.2499;0.7703;
399.3000;0.2589;0.7824;
399.6000;0.2572;0.7824;
399.9000;0.2564;0.7751;
400.2000;0.2540;0.7654;
400.5000;0.2556;0.7703;
400.8000;0.2507;0.7581;
401.1000;0.2556;0.7630;
401.4000;0.2564;0.7630;
401.7000;0.2572;0.7703;
402.0000;0.2548;0.7727;
402.3000;0.2556;0.7751;
402.6000;0.2540;0.7678;
402.9000;0.2556;0.7775;
403.2000;0.2564;0.7896;
403.5000;0.2580;0.7969;
403.8000;0.2548;0.7945;
404.1000;0.2556;0.7945;
404.4000;0.2556;0.7921;
404.7000;0.2572;0.7921;
405.0000;0.2572;0.7896;
405.3000;0.2548;0.7872;
405.6000;0.2475;0.7654;
405.9000;0.2507;0.7678;
406.2000;0.2564;0.7872;
406.5000;0.2532;0.7678;
406.8000;0.2507;0.7751;
407.1000;0.2564;0.7945;
407.4000;0.2564;0.7848;
407.7000;0.2548;0.7727;
408.0000;0.2556;0.7799;
408.3000;0.2556;0.7848;
408.6000;0.2548;0.7872;
408.9000;0.2589;0.7921;
409.2000;0.2580;0.7848;
409.5000;0.2589;0.7872;
409.8000;0.2572;0.7799;
410.1000;0.2556;0.7799;
410.4000;0.2572;0.7848;
410.7000;0.2548;0.7848;
411.0000;0.2572;0.7848;
411.3000;0.2580;0.7872;
411.6000;0.2548;0.7775;
411.9000;0.2548;0.7824;
412.2000;0.2580;0.7896;
412.5000;0.2564;0.7872;
412.8000;0.2556;0.7921;
413.1000;0.2466;0.7678;
413.4000;0.2580;0.7945;
413.7000;0.2548;0.7921;
414.0000;0.2556;0.7896;
414.3000;0.2491;0.7799;
414.6000;0.2532;0.7848;
414.9000;0.2556;0.7872;
415.2000;0.2548;0.7872;
415.5000;0.2580;0.7921;
415.8000;0.2564;0.7872;
416.1000;0.2564;0.7945;
416.4000;0.2564;0.7921;
416.7000;0.2564;0.7824;
417.0000;0.2556;0.7848;
417.3000;0.2556;0.7945;
417.6000;0.2572;0.8090;
417.9000;0.2637;0.8187;
418.2000;0.2556;0.7896;
418.5000;0.2556;0.7848;
418.8000;0.2572;0.7921;
419.1000;0.2548;0.7872;
419.4000;0.2548;0.7799;
419.7000;0.2532;0.7775;
420.0000;0.2564;0.7727;
420.3000;0.2580;0.7775;
420.6000;0.2564;0.7775;
420.9000;0.2564;0.7751;
421.2000;0.2572;0.7751;
421.5000;0.2597;0.7751;
421.8000;0.2548;0.7606;
422.1000;0.2572;0.7678;
422.4000;0.2556;0.7630;
422.7000;0.2499;0.7485;
423.0000;0.2548;0.7654;
423.3000;0.2523;0.7606;
423.6000;0.2564;0.7678;
423.9000;0.2556;0.7727;
424.2000;0.2548;0.7654;
424.5000;0.2572;0.7630;
424.8000;0.2556;0.7581;
425.1000;0.2564;0.7678;
425.4000;0.2548;0.7678;
425.7000;0.2556;0.7703;
426.0000;0.2548;0.7654;
426.3000;0.2564;0.7703;
426.6000;0.2580;0.7727;
426.9000;0.2548;0.7678;
427.2000;0.2564;0.7824;
427.5000;0.2556;0.7872;
427.8000;0.2556;0.7896;
428.1000;0.2548;0.7775;
428.4000;0.2491;0.7557;
428.7000;0.2556;0.7678;
429.0000;0.2564;0.7727;
429.3000;0.2572;0.7775;
429.6000;0.2507;0.7557;
429.9000;0.2548;0.7654;
430.2000;0.2556;0.7654;
430.5000;0.2572;0.7751;
430.8000;0.2556;0.7654;
431.1000;0.2556;0.7606;
431.4000;0.2540;0.7678;
431.7000;0.2499;0.7581;
432.0000;0.2556;0.7727;
432.3000;0.2580;0.7751;
432.6000;0.2507;0.7581;
432.9000;0.2572;0.7751;
433.2000;0.2572;0.7775;
433.5000;0.2564;0.7751;
433.8000;0.2556;0.7751;
434.1000;0.2548;0.7727;
434.4000;0.2580;0.7799;
434.7000;0.2564;0.7654;
435.0000;0.2507;0.7533;
435.3000;0.2613;0.7799;
435.6000;0.2572;0.7703;
435.9000;0.2564;0.7654;
436.2000;0.2540;0.7751;
436.5000;0.2556;0.7824;
436.8000;0.2572;0.7896;
437.1000;0.2572;0.7969;
437.4000;0.2564;0.7945;
437.7000;0.2532;0.7896;
438.0000;0.2564;0.7969;
438.3000;0.2515;0.7799;
438.6000;0.2548;0.7872;
438.9000;0.2572;0.7872;
439.2000;0.2540;0.7799;
439.5000;0.2564;0.7848;
439.8000;0.2564;0.7872;
440.1000;0.2564;0.7848;
440.4000;0.2556;0.7921;
440.7000;0.2637;0.8163;
441.0000;0.2540;0.7921;
441.3000;0.2556;0.7993;
441.6000;0.2556;0.7993;
441.9000;0.2564;0.7921;
442.2000;0.2556;0.7921;
442.5000;0.2572;0.7896;
442.8000;0.2548;0.7824;
443.1000;0.2564;0.7921;
443.4000;0.2548;0.7921;
443.7000;0.2499;0.7703;
444.0000;0.2564;0.7727;
444.3000;0.2483;0.7485;
444.6000;0.2548;0.7630;
444.9000;0.2548;0.7703;
445.2000;0.2548;0.7727;
445.5000;0.2556;0.7654;
445.8000;0.2572;0.7678;
446.1000;0.2540;0.7606;
446.4000;0.2556;0.7630;
446.7000;0.2556;0.7727;
447.0000;0.2564;0.7775;
447.3000;0.2564;0.7775;
447.6000;0.2434;0.7533;
447.9000;0.2507;0.7799;
448.2000;0.2540;0.7921;
448.5000;0.2548;0.7945;
448.8000;0.2548;0.7896;
449.1000;0.2540;0.7921;
449.4000;0.2564;0.7921;
449.7000;0.2556;0.7896;
450.0000;0.2548;0.7921;
450.3000;0.2556;0.7993;
450.6000;0.2572;0.8042;
450.9000;0.2589;0.8066;
451.2000;0.2564;0.8042;
451.5000;0.2523;0.7969;
451.8000;0.2556;0.8017;
452.1000;0.2564;0.8017;
452.4000;0.2548;0.7993;
452.7000;0.2548;0.8017;
453.0000;0.2556;0.7921;
453.3000;0.2532;0.7751;
453.6000;0.2548;0.7848;
453.9000;0.2548;0.7945;
454.2000;0.2540;0.7969;
454.5000;0.2580;0.8066;
454.8000;0.2540;0.7945;
455.1000;0.2548;0.7824;
455.4000;0.2540;0.7799;
455.7000;0.2540;0.7727;
456.0000;0.2548;0.7727;
456.3000;0.2532;0.7703;
456.6000;0.2507;0.7630;
456.9000;0.2515;0.7654;
457.2000;0.2556;0.7751;
457.5000;0.2589;0.7799;
457.8000;0.2556;0.7751;
458.1000;0.2548;0.7751;
458.4000;0.2572;0.7703;
458.7000;0.2564;0.7533;
459.0000;0.2548;0.7485;
459.3000;0.2556;0.7533;
459.6000;0.2548;0.7436;
459.9000;0.2564;0.7485;
460.2000;0.2572;0.7533;
460.5000;0.2580;0.7581;
460.8000;0.2556;0.7581;
461.1000;0.2556;0.7630;
461.4000;0.2540;0.7630;
461.7000;0.2507;0.7557;
462.0000;0.2556;0.7678;
462.3000;0.2646;0.7896;
462.6000;0.2564;0.7775;
462.9000;0.2523;0.7654;
463.2000;0.2556;0.7775;
463.5000;0.2613;0.7872;
463.8000;0.2564;0.7775;
464.1000;0.2532;0.7654;
464.4000;0.2564;0.7630;
464.7000;0.2548;0.7557;
465.0000;0.2548;0.7581;
465.3000;0.2613;0.7775;
465.6000;0.2499;0.7509;
465.9000;0.2548;0.7654;
466.2000;0.2548;0.7703;
466.5000;0.2540;0.7654;
466.8000;0.2564;0.7654;
467.1000;0.2540;0.7678;
467.4000;0.2540;0.7751;
467.7000;0.2572;0.7751;
468.0000;0.2572;0.7654;
468.3000;0.2548;0.7557;
468.6000;0.2532;0.7412;
468.9000;0.2491;0.7363;
469.2000;0.2564;0.7606;
469.5000;0.2548;0.7678;
469.8000;0.2556;0.7678;
470.1000;0.2564;0.7727;
470.4000;0.2540;0.7751;
470.7000;0.2548;0.7775;
471.0000;0.2523;0.7727;
471.3000;0.2564;0.7848;
471.6000;0.2556;0.7824;
471.9000;0.2548;0.7848;
472.2000;0.2564;0.7872;
472.5000;0.2548;0.7824;
472.8000;0.2564;0.7799;
473.1000;0.2523;0.7703;
473.4000;0.2548;0.7824;
473.7000;0.2572;0.7799;
474.0000;0.2548;0.7727;
474.3000;0.2556;0.7727;
474.6000;0.2540;0.7654;
474.9000;0.2532;0.7654;
475.2000;0.2532;0.7703;
475.5000;0.2564;0.7703;
475.8000;0.2532;0.7678;
476.1000;0.2556;0.7727;
476.4000;0.2580;0.7775;
476.7000;0.2483;0.7460;
477.0000;0.2548;0.7606;
477.3000;0.2523;0.7557;
477.6000;0.2556;0.7654;
477.9000;0.2540;0.7630;
478.2000;0.2564;0.7727;
478.5000;0.2466;0.7557;
478.8000;0.2483;0.7606;
479.1000;0.2564;0.7775;
479.4000;0.2515;0.7630;
479.7000;0.2621;0.7896;
480.0000;0.2540;0.7678;
480.3000;0.2548;0.7703;
480.6000;0.2556;0.7799;
480.9000;0.2532;0.7751;
481.2000;0.2629;0.7896;
481.5000;0.2540;0.7606;
481.8000;0.2540;0.7557;
482.1000;0.2548;0.7581;
482.4000;0.2589;0.7630;
482.7000;0.2548;0.7533;
483.0000;0.2572;0.7630;
483.3000;0.2564;0.7630;
483.6000;0.2548;0.7460;
483.9000;0.2564;0.7460;
484.2000;0.2662;0.7872;
484.5000;0.2662;0.7896;
484.8000;0.2548;0.7630;
485.1000;0.2556;0.7654;
485.4000;0.2572;0.7751;
485.7000;0.2564;0.7703;
486.0000;0.2548;0.7630;
486.3000;0.2523;0.7533;
486.6000;0.2548;0.7678;
486.9000;0.2556;0.7751;
487.2000;0.2556;0.7848;
487.5000;0.2548;0.7824;
487.8000;0.2556;0.7799;
488.1000;0.2548;0.7799;
488.4000;0.2556;0.7775;
488.7000;0.2556;0.7775;
489.0000;0.2572;0.7824;
489.3000;0.2507;0.7678;
489.6000;0.2556;0.7799;
489.9000;0.2572;0.7775;
490.2000;0.2572;0.7678;
490.5000;0.2564;0.7678;
490.8000;0.2556;0.7775;
491.1000;0.2548;0.7824;
491.4000;0.2580;0.7945;
491.7000;0.2564;0.7799;
492.0000;0.2556;0.7727;
492.3000;0.2556;0.7654;
492.6000;0.2556;0.7703;
492.9000;0.2564;0.7775;
493.2000;0.2564;0.7775;
493.5000;0.2532;0.7775;
493.8000;0.2548;0.7824;
494.1000;0.2564;0.7775;
494.4000;0.2548;0.7824;
494.7000;0.2540;0.7751;
495.0000;0.2556;0.7799;
495.3000;0.2572;0.7799;
495.6000;0.2548;0.7654;
495.9000;0.2564;0.7727;
496.2000;0.2548;0.7654;
496.5000;0.2548;0.7654;
496.8000;0.2540;0.7606;
497.1000;0.2540;0.7654;
497.4000;0.2556;0.7751;
497.7000;0.2515;0.7630;
498.0000;0.2564;0.7727;
498.3000;0.2556;0.7703;
498.6000;0.2515;0.7630;
498.9000;0.2556;0.7727;
499.2000;0.2564;0.7824;
499.5000;0.2572;0.7896;
499.8000;0.2507;0.7606;
500.1000;0.2564;0.7775;
500.4000;0.2556;0.7751;
500.7000;0.2556;0.7703;
501.0000;0.2540;0.7606;
501.3000;0.2532;0.7581;
501.6000;0.2580;0.7606;
501.9000;0.2507;0.7388;
502.2000;0.2540;0.7460;
502.5000;0.2564;0.7581;
502.8000;0.2532;0.7460;
503.1000;0.2564;0.7509;
503.4000;0.2548;0.7533;
503.7000;0.2597;0.7581;
504.0000;0.2556;0.7533;
504.3000;0.2589;0.7606;
504.6000;0.2556;0.7533;
504.9000;0.2523;0.7460;
505.2000;0.2540;0.7581;
505.5000;0.2572;0.7678;
505.8000;0.2450;0.7315;
506.1000;0.2564;0.7703;
506.4000;0.2621;0.7896;
506.7000;0.2589;0.7824;
507.0000;0.2564;0.7848;
507.3000;0.2556;0.7848;
507.6000;0.2466;0.7630;
507.9000;0.2540;0.7751;
508.2000;0.2621;0.7969;
508.5000;0.2507;0.7557;
508.8000;0.2532;0.7654;
509.1000;0.2548;0.7678;
509.4000;0.2523;0.7678;
509.7000;0.2580;0.7799;
510.0000;0.2556;0.7775;
510.3000;0.2572;0.7872;
510.6000;0.2548;0.7799;
510.9000;0.2548;0.7921;
511.2000;0.2564;0.8017;
511.5000;0.2613;0.8187;
511.8000;0.2548;0.8017;
512.1000;0.2548;0.7969;
512.4000;0.2564;0.7993;
512.7000;0.2548;0.7945;
513.0000;0.2540;0.7921;
513.3000;0.2564;0.7969;
513.6000;0.2556;0.7969;
513.9000;0.2548;0.7896;
514.2000;0.2572;0.7993;
514.5000;0.2548;0.7993;
514.8000;0.2580;0.8042;
515.1000;0.2556;0.8017;
515.4000;0.2548;0.8017;
515.7000;0.2556;0.8066;
516.0000;0.2548;0.7993;
516.3000;0.2556;0.8042;
516.6000;0.2597;0.8211;
516.9000;0.2532;0.8114;
517.2000;0.2540;0.8163;
517.5000;0.2556;0.8139;
517.8000;0.2564;0.8066;
518.1000;0.2556;0.8066;
518.4000;0.2556;0.8114;
518.7000;0.2548;0.8042;
519.0000;0.2572;0.8090;
519.3000;0.2564;0.8090;
519.6000;0.2572;0.8114;
519.9000;0.2564;0.8090;
520.2000;0.2572;0.8163;
520.5000;0.2572;0.8139;
520.8000;0.2556;0.8090;
521.1000;0.2548;0.7993;
521.4000;0.2564;0.8066;
521.7000;0.2540;0.7993;
522.0000;0.2540;0.8017;
522.3000;0.2589;0.8139;
522.6000;0.2499;0.7993;
522.9000;0.2491;0.7945;
523.2000;0.2548;0.7993;
523.5000;0.2540;0.7921;
523.8000;0.2589;0.8042;
524.1000;0.2556;0.7945;
524.4000;0.2605;0.8090;
524.7000;0.2466;0.7654;
525.0000;0.2548;0.7896;
525.3000;0.2564;0.7921;
525.6000;0.2564;0.7993;
525.9000;0.2548;0.7896;
526.2000;0.2564;0.7921;
526.5000;0.2564;0.7872;
526.8000;0.2629;0.8042;
527.1000;0.2556;0.7824;
527.4000;0.2556;0.7921;
527.7000;0.2548;0.7921;
528.0000;0.2556;0.7921;
528.3000;0.2556;0.7921;
528.6000;0.2564;0.7921;
528.9000;0.2564;0.8017;
529.2000;0.2556;0.7969;
529.5000;0.2564;0.7969;
529.8000;0.2556;0.7896;
530.1000;0.2580;0.7993;
530.4000;0.2556;0.7969;
530.7000;0.2532;0.7896;
531.0000;0.2621;0.8163;
531.3000;0.2556;0.7993;
531.6000;0.2605;0.8042;
531.9000;0.2548;0.7848;
532.2000;0.2532;0.7775;
532.5000;0.2564;0.7921;
532.8000;0.2548;0.7945;
533.1000;0.2556;0.8042;
533.4000;0.2564;0.8066;
533.7000;0.2532;0.8066;
534.0000;0.2556;0.8090;
534.3000;0.2572;0.8139;
534.6000;0.2556;0.8139;
534.9000;0.2540;0.8139;
535.2000;0.2556;0.8187;
535.5000;0.2580;0.8211;
535.8000;0.2548;0.8017;
536.1000;0.2589;0.8042;
536.4000;0.2556;0.7969;
536.7000;0.2564;0.8042;
537.0000;0.2556;0.8066;
537.3000;0.2564;0.8090;
537.6000;0.2564;0.8090;
537.9000;0.2621;0.8284;
538.2000;0.2532;0.7993;
538.5000;0.2540;0.8066;
538.8000;0.2564;0.8114;
539.1000;0.2564;0.8090;
539.4000;0.2556;0.8042;
539.7000;0.2564;0.8017;
540.0000;0.2540;0.7993;
540.3000;0.2564;0.7993;
540.6000;0.2548;0.7969;
540.9000;0.2540;0.7969;
541.2000;0.2548;0.8017;
541.5000;0.2556;0.8017;
541.8000;0.2556;0.8042;
542.1000;0.2548;0.8017;
542.4000;0.2564;0.8114;
542.7000;0.2556;0.8114;
543.0000;0.2548;0.8114;
543.3000;0.2515;0.8017;
543.6000;0.2532;0.8114;
543.9000;0.2548;0.8066;
544.2000;0.2564;0.8066;
544.5000;0.2580;0.8066;
544.8000;0.2548;0.7945;
545.1000;0.2564;0.7993;
545.4000;0.2572;0.8066;
545.7000;0.2564;0.8114;
546.0000;0.2548;0.8114;
546.3000;0.2564;0.8114;
546.6000;0.2532;0.7969;
546.9000;0.2580;0.7993;
547.2000;0.2564;0.7969;
547.5000;0.2548;0.7872;
547.8000;0.2548;0.7824;
548.1000;0.2556;0.7824;
548.4000;0.2466;0.7606;
548.7000;0.2548;0.7799;
549.0000;0.2564;0.7799;
549.3000;0.2556;0.7775;
549.6000;0.2597;0.7921;
549.9000;0.2548;0.7824;
550.2000;0.2540;0.7799;
550.5000;0.2613;0.7945;
550.8000;0.2540;0.7969;
551.1000;0.2556;0.8017;
551.4000;0.2532;0.7993;
551.7000;0.2556;0.8017;
552.0000;0.2556;0.7969;
552.3000;0.2564;0.8066;
552.6000;0.2532;0.8017;
552.9000;0.2515;0.7993;
553.2000;0.2646;0.8284;
553.5000;0.2556;0.8042;
553.8000;0.2564;0.8017;
554.1000;0.2548;0.7969;
554.4000;0.2548;0.7872;
554.7000;0.2556;0.7848;
555.0000;0.2548;0.7824;
555.3000;0.2564;0.7799;
555.6000;0.2548;0.7848;
555.9000;0.2556;0.7727;
556.2000;0.2556;0.7678;
556.5000;0.2540;0.7678;
556.8000;0.2670;0.7969;
557.1000;0.2556;0.7727;
557.4000;0.2556;0.7775;
557.7000;0.2556;0.7872;
558.0000;0.2556;0.7872;
558.3000;0.2556;0.7872;
558.6000;0.2564;0.7824;
558.9000;0.2556;0.7775;
559.2000;0.2540;0.7824;
559.5000;0.2564;0.7921;
559.8000;0.2564;0.7993;
560.1000;0.2548;0.7921;
560.4000;0.2548;0.7848;
560.7000;0.2556;0.7945;
561.0000;0.2499;0.7799;
561.3000;0.2556;0.7945;
561.6000;0.2564;0.7945;
561.9000;0.2556;0.7945;
562.2000;0.2564;0.7993;
562.5000;0.2515;0.7945;
562.8000;0.2572;0.8114;
563.1000;0.2532;0.8017;
563.4000;0.2580;0.8114;
563.7000;0.2580;0.8114;
564.0000;0.2556;0.8042;
564.3000;0.2556;0.8090;
564.6000;0.2523;0.7969;
564.9000;0.2548;0.8163;
565.2000;0.2548;0.8017;
565.5000;0.2548;0.7945;
565.8000;0.2580;0.7921;
566.1000;0.2532;0.7848;
566.4000;0.2556;0.7993;
566.7000;0.2556;0.7969;
567.0000;0.2556;0.7969;
567.3000;0.2572;0.7969;
567.6000;0.2572;0.7993;
567.9000;0.2564;0.8042;
568.2000;0.2556;0.8042;
568.5000;0.2548;0.7993;
568.8000;0.2556;0.8017;
569.1000;0.2556;0.8017;
569.4000;0.2564;0.8017;
569.7000;0.2556;0.7969;
570.0000;0.2597;0.8017;
570.3000;0.2532;0.7848;
570.6000;0.2540;0.7896;
570.9000;0.2556;0.7945;
571.2000;0.2556;0.7896;
571.5000;0.2523;0.7703;
571.8000;0.2540;0.7751;
572.1000;0.2564;0.7896;
572.4000;0.2597;0.8017;
572.7000;0.2556;0.7921;
573.0000;0.2548;0.7921;
573.3000;0.2589;0.8042;
573.6000;0.2548;0.7969;
573.9000;0.2605;0.8260;
574.2000;0.2548;0.8260;
574.5000;0.2548;0.8260;
574.8000;0.2548;0.8187;
575.1000;0.2548;0.8114;
575.4000;0.2556;0.7993;
575.7000;0.2556;0.7921;
576.0000;0.2572;0.7945;
576.3000;0.2548;0.7799;
576.6000;0.2548;0.7775;
576.9000;0.2556;0.7824;
577.2000;0.2556;0.7896;
577.5000;0.2548;0.7945;
577.8000;0.2483;0.7678;
578.1000;0.2572;0.7872;
578.4000;0.2686;0.8114;
578.7000;0.2621;0.7969;
579.0000;0.2556;0.7872;
579.3000;0.2532;0.7824;
579.6000;0.2475;0.7678;
579.9000;0.2548;0.7872;
580.2000;0.2540;0.7848;
580.5000;0.2589;0.7896;
580.8000;0.2548;0.7654;
581.1000;0.2572;0.7703;
581.4000;0.2572;0.7799;
581.7000;0.2548;0.7751;
582.0000;0.2548;0.7824;
582.3000;0.2564;0.7872;
582.6000;0.2556;0.7896;
582.9000;0.2532;0.7751;
583.2000;0.2548;0.7896;
583.5000;0.2548;0.7896;
583.8000;0.2605;0.8114;
584.1000;0.2540;0.7969;
584.4000;0.2556;0.7896;
584.7000;0.2564;0.7993;
585.0000;0.2564;0.7969;
585.3000;0.2572;0.7969;
585.6000;0.2556;0.7896;
585.9000;0.2564;0.7921;
586.2000;0.2564;0.7969;
586.5000;0.2572;0.8017;
586.8000;0.2556;0.7993;
587.1000;0.2548;0.7945;
587.4000;0.2580;0.7969;
587.7000;0.2572;0.7969;
588.0000;0.2572;0.7921;
588.3000;0.2564;0.7896;
588.6000;0.2548;0.7824;
588.9000;0.2572;0.7921;
589.2000;0.2540;0.7896;
589.5000;0.2548;0.7945;
589.8000;0.2662;0.8139;
590.1000;0.2483;0.7678;
590.4000;0.2556;0.7896;
590.7000;0.2523;0.7727;
591.0000;0.2491;0.7606;
591.3000;0.2556;0.7727;
591.6000;0.2532;0.7775;
591.9000;0.2548;0.7751;
592.2000;0.2556;0.7751;
592.5000;0.2580;0.7799;
592.8000;0.2556;0.7703;
593.1000;0.2564;0.7751;
593.4000;0.2540;0.7848;
593.7000;0.2532;0.7848;
594.0000;0.2556;0.7969;
594.3000;0.2548;0.7896;
594.6000;0.2556;0.7969;
594.9000;0.2475;0.7751;
595.2000;0.2564;0.8042;
595.5000;0.2515;0.7969;
595.8000;0.2540;0.8042;
596.1000;0.2556;0.8017;
596.4000;0.2572;0.8066;
596.7000;0.2654;0.8357;
597.0000;0.2556;0.8187;
597.3000;0.2572;0.8114;
597.6000;0.2686;0.8405;
597.9000;0.2548;0.7969;
598.2000;0.2523;0.7824;
598.5000;0.2564;0.8090;
598.8000;0.2564;0.8017;
599.1000;0.2572;0.7969;
599.4000;0.2629;0.8114;
599.7000;0.2532;0.7872;
600.0000;0.2523;0.7848;
600.3000;0.2483;0.7727;
600.6000;0.2540;0.7775;
600.9000;0.2548;0.7678;
601.2000;0.2540;0.7630;
601.5000;0.2548;0.7557;
601.8000;0.2564;0.7509;
602.1000;0.2540;0.7315;
602.4000;0.2556;0.7315;
602.7000;0.2475;0.6976;
603.0000;0.2475;0.6952;
603.3000;0.2523;0.6927;
603.6000;0.2507;0.6806;
603.9000;0.2605;0.7024;
604.2000;0.2491;0.6588;
604.5000;0.2597;0.6758;
604.8000;0.2507;0.6516;
605.1000;0.2491;0.6443;
605.4000;0.2523;0.6540;
605.7000;0.2507;0.6540;
606.0000;0.2507;0.6540;
606.3000;0.2499;0.6540;
606.6000;0.2491;0.6467;
606.9000;0.2507;0.6491;
607.2000;0.2499;0.6419;
607.5000;0.2466;0.6322;
607.8000;0.2491;0.6249;
608.1000;0.2499;0.6273;
608.4000;0.2499;0.6298;
608.7000;0.2499;0.6298;
609.0000;0.2483;0.6225;
609.3000;0.2491;0.6201;
609.6000;0.2475;0.6152;
609.9000;0.2499;0.6201;
610.2000;0.2483;0.6104;
610.5000;0.2466;0.6007;
610.8000;0.2491;0.5983;
611.1000;0.2483;0.6007;
611.4000;0.2483;0.6007;
611.7000;0.2483;0.5983;
612.0000;0.2491;0.5934;
612.3000;0.2475;0.5886;
612.6000;0.2491;0.5959;
612.9000;0.2515;0.5983;
613.2000;0.2523;0.6031;
613.5000;0.2483;0.5959;
613.8000;0.2483;0.5959;
614.1000;0.2483;0.5983;
614.4000;0.2491;0.6055;
614.7000;0.2466;0.6031;
615.0000;0.2475;0.5959;
615.3000;0.2491;0.6007;
615.6000;0.2483;0.5862;
615.9000;0.2507;0.5959;
616.2000;0.2483;0.5862;
616.5000;0.2475;0.5959;
616.8000;0.2491;0.5983;
617.1000;0.2458;0.5934;
617.4000;0.2466;0.6104;
617.7000;0.2475;0.6104;
618.0000;0.2466;0.6055;
618.3000;0.2499;0.6104;
618.6000;0.2483;0.6080;
618.9000;0.2475;0.6031;
619.2000;0.2475;0.6080;
619.5000;0.2466;0.5983;
619.8000;0.2483;0.6080;
620.1000;0.2369;0.5692;
620.4000;0.2499;0.6007;
620.7000;0.2450;0.6007;
621.0000;0.2458;0.6104;
621.3000;0.2507;0.6225;
621.6000;0.2491;0.6152;
621.9000;0.2491;0.6104;
622.2000;0.2483;0.6104;
622.5000;0.2483;0.6104;
622.8000;0.2491;0.6104;
623.1000;0.2409;0.5886;
623.4000;0.2483;0.6080;
623.7000;0.2483;0.6080;
624.0000;0.2475;0.6007;
624.3000;0.2458;0.5983;
624.6000;0.2491;0.6080;
624.9000;0.2491;0.6031;
625.2000;0.2491;0.5934;
625.5000;0.2483;0.5934;
625.8000;0.2483;0.5886;
626.1000;0.2475;0.5862;
626.4000;0.2491;0.5910;
626.7000;0.2483;0.5837;
627.0000;0.2385;0.5619;
627.3000;0.2483;0.5934;
627.6000;0.2491;0.6007;
627.9000;0.2483;0.5983;
628.2000;0.2491;0.6104;
628.5000;0.2491;0.6177;
628.8000;0.2458;0.6055;
629.1000;0.2344;0.5837;
629.4000;0.2466;0.6152;
629.7000;0.2458;0.6128;
630.0000;0.2491;0.6249;
630.3000;0.2507;0.6298;
630.6000;0.2483;0.6249;
630.9000;0.2483;0.6201;
631.2000;0.2491;0.6201;
631.5000;0.2458;0.6128;
631.8000;0.2507;0.6298;
632.1000;0.2475;0.6152;
632.4000;0.2515;0.6128;
632.7000;0.2491;0.6080;
633.0000;0.2491;0.6007;
633.3000;0.2499;0.6055;
633.6000;0.2491;0.6007;
633.9000;0.2515;0.6080;
634.2000;0.2483;0.6152;
634.5000;0.2475;0.6104;
634.8000;0.2499;0.6128;
635.1000;0.2499;0.6055;
635.4000;0.2475;0.6055;
635.7000;0.2475;0.5983;
636.0000;0.2483;0.6007;
636.3000;0.2491;0.6080;
636.6000;0.2483;0.6104;
636.9000;0.2475;0.6080;
637.2000;0.2483;0.6104;
637.5000;0.2483;0.6080;
637.8000;0.2475;0.6104;
638.1000;0.2483;0.6031;
638.4000;0.2434;0.5837;
638.7000;0.2491;0.5934;
639.0000;0.2491;0.5959;
639.3000;0.2483;0.6031;
639.6000;0.2434;0.5837;
639.9000;0.2450;0.5789;
640.2000;0.2483;0.5886;
640.5000;0.2450;0.5765;
640.8000;0.2434;0.5741;
641.1000;0.2475;0.5837;
641.4000;0.2491;0.5813;
641.7000;0.2458;0.5789;
642.0000;0.2466;0.5837;
642.3000;0.2475;0.5813;
642.6000;0.2507;0.5789;
642.9000;0.2523;0.5789;
643.2000;0.2466;0.5789;
643.5000;0.2483;0.5765;
643.8000;0.2564;0.6007;
644.1000;0.2499;0.5862;
644.4000;0.2491;0.5862;
644.7000;0.2475;0.5862;
645.0000;0.2499;0.5862;
645.3000;0.2499;0.5934;
645.6000;0.2556;0.6177;
645.9000;0.2491;0.6104;
646.2000;0.2499;0.6080;
646.5000;0.2491;0.5983;
646.8000;0.2491;0.6007;
647.1000;0.2483;0.5934;
647.4000;0.2450;0.5910;
647.7000;0.2475;0.5934;
648.0000;0.2483;0.5886;
648.3000;0.2499;0.6007;
648.6000;0.2589;0.6249;
648.9000;0.2483;0.5910;
649.2000;0.2491;0.5910;
649.5000;0.2499;0.5789;
649.8000;0.2483;0.5692;
650.1000;0.2483;0.5765;
650.4000;0.2483;0.5813;
650.7000;0.2540;0.5983;
651.0000;0.2483;0.5910;
651.3000;0.2483;0.5934;
651.6000;0.2491;0.6007;
651.9000;0.2499;0.6007;
652.2000;0.2483;0.6031;
652.5000;0.2491;0.6031;
652.8000;0.2483;0.6007;
653.1000;0.2491;0.6007;
653.4000;0.2491;0.5934;
653.7000;0.2548;0.6104;
654.0000;0.2507;0.5934;
654.3000;0.2515;0.5934;
654.6000;0.2483;0.5837;
654.9000;0.2466;0.5886;
655.2000;0.2499;0.5910;
655.5000;0.2499;0.5862;
655.8000;0.2475;0.5837;
656.1000;0.2458;0.5765;
656.4000;0.2491;0.5789;
656.7000;0.2475;0.5741;
657.0000;0.2483;0.5765;
657.3000;0.2483;0.5813;
657.6000;0.2475;0.5813;
657.9000;0.2507;0.5886;
658.2000;0.2491;0.5862;
658.5000;0.2475;0.5837;
658.8000;0.2540;0.6007;
659.1000;0.2491;0.5886;
659.4000;0.2475;0.5959;
659.7000;0.2491;0.5910;
660.0000;0.2483;0.5910;
660.3000;0.2442;0.5668;
660.6000;0.2499;0.5813;
660.9000;0.2491;0.5813;
661.2000;0.2483;0.5789;
661.5000;0.2499;0.5789;
661.8000;0.2507;0.5886;
662.1000;0.2483;0.5765;
662.4000;0.2483;0.5741;
662.7000;0.2450;0.5741;
663.0000;0.2442;0.5789;
663.3000;0.2483;0.5886;
663.6000;0.2475;0.5862;
663.9000;0.2483;0.5837;
664.2000;0.2483;0.5789;
664.5000;0.2409;0.5547;
664.8000;0.2491;0.5741;
665.1000;0.2475;0.5692;
665.4000;0.2523;0.5886;
665.7000;0.2515;0.5837;
666.0000;0.2499;0.5813;
666.3000;0.2499;0.5813;
666.6000;0.2515;0.5765;
666.9000;0.2499;0.5644;
667.2000;0.2491;0.5595;
667.5000;0.2491;0.5547;
667.8000;0.2483;0.5668;
668.1000;0.2475;0.5741;
668.4000;0.2499;0.5789;
668.7000;0.2466;0.5716;
669.0000;0.2466;0.5619;
669.3000;0.2483;0.5716;
669.6000;0.2483;0.5765;
669.9000;0.2532;0.5862;
670.2000;0.2491;0.5765;
670.5000;0.2475;0.5789;
670.8000;0.2491;0.5862;
671.1000;0.2483;0.5765;
671.4000;0.2491;0.5741;
671.7000;0.2499;0.5813;
672.0000;0.2540;0.5983;
672.3000;0.2483;0.5837;
672.6000;0.2515;0.5910;
672.9000;0.2515;0.5983;
673.2000;0.2491;0.5886;
673.5000;0.2458;0.5862;
673.8000;0.2499;0.5886;
674.1000;0.2499;0.5886;
674.4000;0.2483;0.5837;
674.7000;0.2556;0.5983;
675.0000;0.2515;0.5934;
675.3000;0.2491;0.5765;
675.6000;0.2507;0.5910;
675.9000;0.2491;0.5910;
676.2000;0.2483;0.5910;
676.5000;0.2483;0.5959;
676.8000;0.2483;0.5983;
677.1000;0.2491;0.6080;
677.4000;0.2483;0.6104;
677.7000;0.2475;0.6177;
678.0000;0.2483;0.6177;
678.3000;0.2475;0.6201;
678.6000;0.2491;0.6128;
678.9000;0.2483;0.5934;
679.2000;0.2483;0.5862;
679.5000;0.2483;0.5813;
679.8000;0.2450;0.5619;
680.1000;0.2491;0.5716;
680.4000;0.2491;0.5789;
680.7000;0.2483;0.5789;
681.0000;0.2491;0.5837;
681.3000;0.2483;0.5837;
681.6000;0.2466;0.5837;
681.9000;0.2401;0.5668;
682.2000;0.2483;0.5862;
682.5000;0.2466;0.5813;
682.8000;0.2466;0.5741;
683.1000;0.2434;0.5668;
683.4000;0.2458;0.5644;
683.7000;0.2483;0.5716;
684.0000;0.2466;0.5668;
684.3000;0.2466;0.5741;
684.6000;0.2483;0.5837;
684.9000;0.2499;0.5862;
685.2000;0.2466;0.5837;
685.5000;0.2499;0.5837;
685.8000;0.2491;0.5741;
686.1000;0.2483;0.5789;
686.4000;0.2483;0.5765;
686.7000;0.2483;0.5837;
687.0000;0.2466;0.5741;
687.3000;0.2483;0.5813;
687.6000;0.2483;0.5837;
687.9000;0.2483;0.5813;
688.2000;0.2491;0.5813;
688.5000;0.2491;0.5789;
688.8000;0.2475;0.5741;
689.1000;0.2466;0.5741;
689.4000;0.2483;0.5789;
689.7000;0.2483;0.5741;
690.0000;0.2515;0.5837;
690.3000;0.2483;0.5765;
690.6000;0.2483;0.5765;
690.9000;0.2491;0.5813;
691.2000;0.2515;0.5910;
691.5000;0.2507;0.5765;
691.8000;0.2483;0.5716;
692.1000;0.2507;0.5765;
692.4000;0.2523;0.5813;
692.7000;0.2483;0.5644;
693.0000;0.2475;0.5716;
693.3000;0.2556;0.5837;
693.6000;0.2483;0.5595;
693.9000;0.2491;0.5595;
694.2000;0.2491;0.5644;
694.5000;0.2483;0.5644;
694.8000;0.2572;0.5934;
695.1000;0.2483;0.5716;
695.4000;0.2499;0.5765;
695.7000;0.2499;0.5813;
696.0000;0.2483;0.5837;
696.3000;0.2466;0.5862;
696.6000;0.2499;0.5813;
696.9000;0.2475;0.5644;
697.2000;0.2475;0.5644;
697.5000;0.2507;0.5716;
697.8000;0.2572;0.5910;
698.1000;0.2491;0.5668;
698.4000;0.2458;0.5547;
698.7000;0.2483;0.5668;
699.0000;0.2499;0.5765;
699.3000;0.2491;0.5692;
699.6000;0.2515;0.5668;
699.9000;0.2491;0.5668;
700.2000;0.2483;0.5668;
700.5000;0.2499;0.5765;
700.8000;0.2499;0.5813;
701.1000;0.2483;0.5813;
701.4000;0.2483;0.5813;
701.7000;0.2499;0.5765;
702.0000;0.2499;0.5716;
702.3000;0.2491;0.5765;
702.6000;0.2499;0.5813;
702.9000;0.2499;0.5741;
703.2000;0.2483;0.5668;
703.5000;0.2475;0.5668;
703.8000;0.2475;0.5716;
704.1000;0.2499;0.5716;
704.4000;0.2483;0.5668;
704.7000;0.2491;0.5692;
705.0000;0.2450;0.5692;
705.3000;0.2483;0.5813;
705.6000;0.2466;0.5813;
705.9000;0.2491;0.5862;
706.2000;0.2483;0.5886;
706.5000;0.2450;0.5837;
706.8000;0.2491;0.5910;
707.1000;0.2483;0.5813;
707.4000;0.2540;0.5862;
707.7000;0.2491;0.5619;
708.0000;0.2483;0.5595;
708.3000;0.2466;0.5619;
708.6000;0.2491;0.5716;
708.9000;0.2466;0.5644;
709.2000;0.2434;0.5498;
709.5000;0.2475;0.5571;
709.8000;0.2466;0.5595;
710.1000;0.2466;0.5668;
710.4000;0.2426;0.5450;
710.7000;0.2491;0.5619;
711.0000;0.2556;0.5789;
711.3000;0.2491;0.5619;
711.6000;0.2491;0.5619;
711.9000;0.2499;0.5595;
712.2000;0.2507;0.5547;
712.5000;0.2499;0.5474;
712.8000;0.2491;0.5498;
713.1000;0.2475;0.5450;
713.4000;0.2458;0.5329;
713.7000;0.2515;0.5595;
714.0000;0.2491;0.5523;
714.3000;0.2507;0.5571;
714.6000;0.2499;0.5523;
714.9000;0.2491;0.5523;
715.2000;0.2523;0.5644;
715.5000;0.2499;0.5571;
715.8000;0.2499;0.5619;
716.1000;0.2475;0.5450;
716.4000;0.2483;0.5498;
716.7000;0.2458;0.5450;
717.0000;0.2491;0.5474;
717.3000;0.2507;0.5426;
717.6000;0.2491;0.5498;
717.9000;0.2483;0.5523;
718.2000;0.2540;0.5716;
718.5000;0.2458;0.5401;
718.8000;0.2532;0.5571;
719.1000;0.2475;0.5450;
719.4000;0.2556;0.5644;
719.7000;0.2328;0.5135;
720.0000;0.2491;0.5547;
720.3000;0.2475;0.5523;
720.6000;0.2499;0.5523;
720.9000;0.2458;0.5450;
721.2000;0.2483;0.5498;
721.5000;0.2491;0.5547;
721.8000;0.2483;0.5498;
722.1000;0.2491;0.5547;
722.4000;0.2499;0.5523;
722.7000;0.2475;0.5547;
723.0000;0.2491;0.5547;
723.3000;0.2491;0.5547;
723.6000;0.2491;0.5547;
723.9000;0.2523;0.5571;
724.2000;0.2491;0.5523;
724.5000;0.2507;0.5571;
724.8000;0.2483;0.5498;
725.1000;0.2483;0.5547;
725.4000;0.2491;0.5498;
725.7000;0.2491;0.5523;
726.0000;0.2507;0.5523;
726.3000;0.2540;0.5644;
726.6000;0.2475;0.5426;
726.9000;0.2483;0.5523;
727.2000;0.2491;0.5498;
727.5000;0.2483;0.5426;
727.8000;0.2491;0.5305;
728.1000;0.2507;0.5280;
728.4000;0.2507;0.5353;
728.7000;0.2475;0.5353;
729.0000;0.2483;0.5474;
729.3000;0.2475;0.5547;
729.6000;0.2483;0.5571;
729.9000;0.2491;0.5619;
730.2000;0.2483;0.5571;
730.5000;0.2434;0.5377;
730.8000;0.2499;0.5595;
731.1000;0.2483;0.5547;
731.4000;0.2491;0.5571;
731.7000;0.2483;0.5498;
732.0000;0.2491;0.5498;
732.3000;0.2475;0.5401;
732.6000;0.2491;0.5523;
732.9000;0.2491;0.5523;
733.2000;0.2466;0.5547;
733.5000;0.2507;0.5619;
733.8000;0.2491;0.5692;
734.1000;0.2434;0.5523;
734.4000;0.2613;0.5934;
734.7000;0.2475;0.5571;
735.0000;0.2515;0.5595;
735.3000;0.2483;0.5547;
735.6000;0.2442;0.5426;
735.9000;0.2483;0.5595;
736.2000;0.2483;0.5619;
736.5000;0.2499;0.5644;
736.8000;0.2483;0.5716;
737.1000;0.2499;0.5765;
737.4000;0.2507;0.5716;
737.7000;0.2483;0.5619;
738.0000;0.2507;0.5619;
738.3000;0.2442;0.5547;
738.6000;0.2491;0.5644;
738.9000;0.2491;0.5595;
739.2000;0.2499;0.5644;
739.5000;0.2499;0.5644;
739.8000;0.2507;0.5595;
740.1000;0.2483;0.5498;
740.4000;0.2475;0.5426;
740.7000;0.2418;0.5256;
741.0000;0.2483;0.5353;
741.3000;0.2483;0.5280;
741.6000;0.2556;0.5474;
741.9000;0.2499;0.5426;
742.2000;0.2507;0.5426;
742.5000;0.2483;0.5329;
742.8000;0.2483;0.5256;
743.1000;0.2491;0.5256;
743.4000;0.2499;0.5305;
743.7000;0.2572;0.5523;
744.0000;0.2491;0.5232;
744.3000;0.2499;0.5232;
744.6000;0.2475;0.5159;
744.9000;0.2491;0.5256;
745.2000;0.2483;0.5208;
745.5000;0.2483;0.5232;
745.8000;0.2491;0.5159;
746.1000;0.2491;0.5208;
746.4000;0.2483;0.5232;
746.7000;0.2475;0.5305;
747.0000;0.2418;0.5256;
747.3000;0.2523;0.5571;
747.6000;0.2434;0.5353;
747.9000;0.2483;0.5474;
748.2000;0.2483;0.5523;
748.5000;0.2499;0.5571;
748.8000;0.2491;0.5571;
749.1000;0.2499;0.5668;
749.4000;0.2491;0.5619;
749.7000;0.2483;0.5595;
750.0000;0.2491;0.5595;
750.3000;0.2499;0.5619;
750.6000;0.2458;0.5450;
750.9000;0.2499;0.5498;
751.2000;0.2499;0.5523;
751.5000;0.2483;0.5523;
751.8000;0.2491;0.5571;
752.1000;0.2434;0.5450;
752.4000;0.2499;0.5571;
752.7000;0.2434;0.5401;
753.0000;0.2466;0.5401;
753.3000;0.2442;0.5377;
753.6000;0.2434;0.5353;
753.9000;0.2507;0.5595;
754.2000;0.2483;0.5619;
754.5000;0.2491;0.5716;
754.8000;0.2458;0.5668;
755.1000;0.2475;0.5692;
755.4000;0.2491;0.5741;
755.7000;0.2507;0.5741;
756.0000;0.2466;0.5619;
756.3000;0.2499;0.5619;
756.6000;0.2483;0.5595;
756.9000;0.2491;0.5571;
757.2000;0.2483;0.5571;
757.5000;0.2475;0.5498;
757.8000;0.2491;0.5547;
758.1000;0.2507;0.5595;
758.4000;0.2475;0.5619;
758.7000;0.2491;0.5716;
759.0000;0.2475;0.5692;
759.3000;0.2499;0.5789;
759.6000;0.2475;0.5789;
759.9000;0.2466;0.5837;
760.2000;0.2475;0.5862;
760.5000;0.2499;0.5862;
760.8000;0.2483;0.5716;
761.1000;0.2483;0.5716;
761.4000;0.2442;0.5595;
761.7000;0.2401;0.5426;
762.0000;0.2499;0.5692;
762.3000;0.2491;0.5692;
762.6000;0.2499;0.5619;
762.9000;0.2499;0.5595;
763.2000;0.2507;0.5692;
763.5000;0.2491;0.5741;
763.8000;0.2491;0.5789;
764.1000;0.2491;0.5765;
764.4000;0.2483;0.5668;
764.7000;0.2483;0.5595;
765.0000;0.2475;0.5619;
765.3000;0.2491;0.5692;
765.6000;0.2483;0.5619;
765.9000;0.2491;0.5692;
766.2000;0.2483;0.5619;
766.5000;0.2475;0.5523;
766.8000;0.2491;0.5523;
767.1000;0.2483;0.5523;
767.4000;0.2499;0.5547;
767.7000;0.2483;0.5571;
768.0000;0.2483;0.5547;
768.3000;0.2507;0.5692;
768.6000;0.2475;0.5644;
768.9000;0.2507;0.5765;
769.2000;0.2515;0.5813;
769.5000;0.2499;0.5765;
769.8000;0.2507;0.5741;
770.1000;0.2507;0.5765;
770.4000;0.2507;0.5765;
770.7000;0.2507;0.5741;
771.0000;0.2491;0.5668;
771.3000;0.2499;0.5741;
771.6000;0.2499;0.5765;
771.9000;0.2466;0.5741;
772.2000;0.2532;0.5886;
772.5000;0.2507;0.5789;
772.8000;0.2491;0.5789;
773.1000;0.2507;0.5741;
773.4000;0.2491;0.5692;
773.7000;0.2475;0.5644;
774.0000;0.2499;0.5644;
774.3000;0.2499;0.5692;
774.6000;0.2548;0.5813;
774.9000;0.2475;0.5668;
775.2000;0.2475;0.5692;
775.5000;0.2409;0.5498;
775.8000;0.2483;0.5668;
776.1000;0.2475;0.5741;
776.4000;0.2450;0.5668;
776.7000;0.2369;0.5377;
777.0000;0.2523;0.5765;
777.3000;0.2499;0.5692;
777.6000;0.2499;0.5741;
777.9000;0.2507;0.5765;
778.2000;0.2499;0.5741;
778.5000;0.2434;0.5595;
778.8000;0.2491;0.5668;
779.1000;0.2515;0.5644;
779.4000;0.2458;0.5498;
779.7000;0.2515;0.5619;
780.0000;0.2491;0.5595;
780.3000;0.2523;0.5692;
780.6000;0.2515;0.5692;
780.9000;0.2491;0.5692;
781.2000;0.2458;0.5571;
781.5000;0.2491;0.5595;
781.8000;0.2483;0.5595;
782.1000;0.2507;0.5619;
782.4000;0.2491;0.5619;
782.7000;0.2499;0.5595;
783.0000;0.2401;0.5401;
783.3000;0.2499;0.5644;
783.6000;0.2475;0.5547;
783.9000;0.2491;0.5619;
784.2000;0.2450;0.5498;
784.5000;0.2475;0.5644;
784.8000;0.2491;0.5668;
785.1000;0.2507;0.5668;
785.4000;0.2491;0.5644;
785.7000;0.2491;0.5547;
786.0000;0.2491;0.5547;
786.3000;0.2491;0.5595;
786.6000;0.2458;0.5474;
786.9000;0.2483;0.5619;
787.2000;0.2377;0.5329;
787.5000;0.2523;0.5741;
787.8000;0.2507;0.5789;
788.1000;0.2507;0.5837;
788.4000;0.2491;0.5886;
788.7000;0.2507;0.5813;
789.0000;0.2499;0.5741;
789.3000;0.2507;0.5765;
789.6000;0.2515;0.5837;
789.9000;0.2499;0.5789;
790.2000;0.2483;0.5789;
790.5000;0.2499;0.5813;
790.8000;0.2491;0.5741;
791.1000;0.2499;0.5765;
791.4000;0.2507;0.5716;
791.7000;0.2483;0.5692;
792.0000;0.2499;0.5668;
792.3000;0.2499;0.5692;
792.6000;0.2483;0.5668;
792.9000;0.2483;0.5644;
793.2000;0.2491;0.5692;
793.5000;0.2507;0.5741;
793.8000;0.2499;0.5692;
794.1000;0.2499;0.5692;
794.4000;0.2491;0.5716;
794.7000;0.2507;0.5668;
795.0000;0.2507;0.5595;
795.3000;0.2507;0.5644;
795.6000;0.2515;0.5619;
795.9000;0.2515;0.5619;
796.2000;0.2499;0.5595;
796.5000;0.2475;0.5523;
796.8000;0.2475;0.5523;
797.1000;0.2475;0.5474;
797.4000;0.2499;0.5547;
797.7000;0.2507;0.5571;
798.0000;0.2499;0.5619;
798.3000;0.2532;0.5668;
798.6000;0.2475;0.5547;
798.9000;0.2499;0.5523;
799.2000;0.2483;0.5498;
799.5000;0.2409;0.5353;
799.8000;0.2499;0.5644;
800.1000;0.2491;0.5595;
800.4000;0.2515;0.5668;
800.7000;0.2483;0.5571;
801.0000;0.2466;0.5474;
801.3000;0.2515;0.5571;
801.6000;0.2507;0.5547;
801.9000;0.2466;0.5450;
802.2000;0.2466;0.5474;
802.5000;0.2572;0.5765;
802.8000;0.2499;0.5571;
803.1000;0.2491;0.5571;
803.4000;0.2523;0.5644;
803.7000;0.2491;0.5595;
804.0000;0.2507;0.5668;
804.3000;0.2515;0.5668;
804.6000;0.2515;0.5692;
804.9000;0.2483;0.5547;
805.2000;0.2515;0.5668;
805.5000;0.2556;0.5813;
805.8000;0.2491;0.5668;
806.1000;0.2466;0.5668;
806.4000;0.2475;0.5692;
806.7000;0.2507;0.5765;
807.0000;0.2483;0.5668;
807.3000;0.2564;0.5886;
807.6000;0.2507;0.5716;
807.9000;0.2491;0.5716;
808.2000;0.2483;0.5741;
808.5000;0.2491;0.5644;
808.8000;0.2523;0.5716;
809.1000;0.2515;0.5692;
809.4000;0.2548;0.5741;
809.7000;0.2499;0.5644;
810.0000;0.2483;0.5716;
810.3000;0.2475;0.5595;
810.6000;0.2483;0.5595;
810.9000;0.2466;0.5595;
811.2000;0.2491;0.5668;
811.5000;0.2580;0.5886;
811.8000;0.2499;0.5668;
812.1000;0.2475;0.5547;
812.4000;0.2499;0.5571;
812.7000;0.2466;0.5498;
813.0000;0.2507;0.5571;
813.3000;0.2450;0.5498;
813.6000;0.2475;0.5547;
813.9000;0.2515;0.5716;
814.2000;0.2507;0.5692;
814.5000;0.2475;0.5547;
814.8000;0.2523;0.5692;
815.1000;0.2491;0.5644;
815.4000;0.2507;0.5571;
815.7000;0.2491;0.5547;
816.0000;0.2548;0.5619;
816.3000;0.2499;0.5523;
816.6000;0.2507;0.5619;
816.9000;0.2523;0.5716;
817.2000;0.2483;0.5619;
817.5000;0.2491;0.5644;
817.8000;0.2483;0.5619;
818.1000;0.2458;0.5595;
818.4000;0.2483;0.5692;
818.7000;0.2491;0.5668;
819.0000;0.2491;0.5716;
819.3000;0.2491;0.5692;
819.6000;0.2483;0.5692;
819.9000;0.2491;0.5716;
820.2000;0.2507;0.5765;
820.5000;0.2483;0.5644;
820.8000;0.2483;0.5523;
821.1000;0.2483;0.5523;
821.4000;0.2491;0.5426;
821.7000;0.2475;0.5377;
822.0000;0.2507;0.5474;
822.3000;0.2475;0.5450;
822.6000;0.2499;0.5619;
822.9000;0.2450;0.5547;
823.2000;0.2499;0.5619;
823.5000;0.2450;0.5547;
823.8000;0.2466;0.5668;
824.1000;0.2491;0.5765;
824.4000;0.2499;0.5910;
824.7000;0.2491;0.5716;
825.0000;0.2475;0.5644;
825.3000;0.2475;0.5595;
825.6000;0.2507;0.5692;
825.9000;0.2507;0.5741;
826.2000;0.2499;0.5692;
826.5000;0.2572;0.5959;
826.8000;0.2491;0.5813;
827.1000;0.2483;0.5837;
827.4000;0.2483;0.5837;
827.7000;0.2466;0.5837;
828.0000;0.2483;0.5934;
828.3000;0.2499;0.5837;
828.6000;0.2483;0.5765;
828.9000;0.2491;0.5741;
829.2000;0.2507;0.5716;
829.5000;0.2507;0.5789;
829.8000;0.2475;0.5741;
830.1000;0.2466;0.5741;
830.4000;0.2523;0.5910;
830.7000;0.2523;0.5934;
831.0000;0.2507;0.5886;
831.3000;0.2507;0.5789;
831.6000;0.2499;0.5837;
831.9000;0.2491;0.5837;
832.2000;0.2507;0.5862;
832.5000;0.2515;0.5934;
832.8000;0.2475;0.5862;
833.1000;0.2491;0.5862;
833.4000;0.2564;0.5983;
833.7000;0.2491;0.5668;
834.0000;0.2458;0.5547;
834.3000;0.2548;0.5789;
834.6000;0.2540;0.5741;
834.9000;0.2499;0.5619;
835.2000;0.2491;0.5547;
835.5000;0.2507;0.5644;
835.8000;0.2499;0.5692;
836.1000;0.2499;0.5692;
836.4000;0.2499;0.5765;
836.7000;0.2466;0.5619;
837.0000;0.2499;0.5741;
837.3000;0.2475;0.5716;
837.6000;0.2507;0.5813;
837.9000;0.2475;0.5765;
838.2000;0.2499;0.5837;
838.5000;0.2458;0.5668;
838.8000;0.2475;0.5716;
839.1000;0.2532;0.5934;
839.4000;0.2475;0.5813;
839.7000;0.2507;0.5837;
840.0000;0.2507;0.5789;
840.3000;0.2507;0.5934;
840.6000;0.2540;0.6104;
840.9000;0.2475;0.5934;
841.2000;0.2491;0.6007;
841.5000;0.2499;0.5910;
841.8000;0.2499;0.5934;
842.1000;0.2507;0.5910;
842.4000;0.2499;0.5910;
842.7000;0.2507;0.5886;
843.0000;0.2491;0.5886;
843.3000;0.2434;0.5716;
843.6000;0.2523;0.5934;
843.9000;0.2491;0.5886;
844.2000;0.2523;0.5934;
844.5000;0.2499;0.5910;
844.8000;0.2499;0.5934;
845.1000;0.2491;0.5910;
845.4000;0.2499;0.5934;
845.7000;0.2458;0.5813;
846.0000;0.2523;0.6007;
846.3000;0.2548;0.6104;
846.6000;0.2458;0.5837;
846.9000;0.2434;0.5789;
847.2000;0.2491;0.5862;
847.5000;0.2475;0.5813;
847.8000;0.2475;0.5862;
848.1000;0.2491;0.5886;
848.4000;0.2491;0.5934;
848.7000;0.2491;0.5983;
849.0000;0.2475;0.5934;
849.3000;0.2491;0.5886;
849.6000;0.2483;0.5910;
849.9000;0.2491;0.5983;
850.2000;0.2507;0.6031;
850.5000;0.2475;0.6007;
850.8000;0.2483;0.5959;
851.1000;0.2499;0.5983;
851.4000;0.2523;0.6007;
851.7000;0.2491;0.5886;
852.0000;0.2499;0.5983;
852.3000;0.2523;0.5934;
852.6000;0.2515;0.5934;
852.9000;0.2515;0.5886;
853.2000;0.2499;0.5886;
853.5000;0.2499;0.5886;
853.8000;0.2605;0.6080;
854.1000;0.2491;0.5765;
854.4000;0.2507;0.5765;
854.7000;0.2499;0.5692;
855.0000;0.2499;0.5692;
855.3000;0.2450;0.5547;
855.6000;0.2499;0.5741;
855.9000;0.2483;0.5789;
856.2000;0.2483;0.5765;
856.5000;0.2483;0.5837;
856.8000;0.2515;0.5910;
857.1000;0.2483;0.5862;
857.4000;0.2499;0.5983;
857.7000;0.2475;0.5983;
858.0000;0.2401;0.5741;
858.3000;0.2491;0.6007;
858.6000;0.2532;0.6080;
858.9000;0.2540;0.5983;
859.2000;0.2491;0.5813;
859.5000;0.2466;0.5789;
859.8000;0.2499;0.5789;
860.1000;0.2499;0.5813;
860.4000;0.2507;0.5837;
860.7000;0.2515;0.5837;
861.0000;0.2483;0.5837;
861.3000;0.2499;0.5862;
861.6000;0.2507;0.5813;
861.9000;0.2507;0.5765;
862.2000;0.2491;0.5765;
862.5000;0.2499;0.5886;
862.8000;0.2483;0.5886;
863.1000;0.2491;0.5886;
863.4000;0.2466;0.5886;
863.7000;0.2483;0.5862;
864.0000;0.2491;0.6031;
864.3000;0.2466;0.5983;
864.6000;0.2458;0.5886;
864.9000;0.2499;0.6080;
865.2000;0.2515;0.6031;
865.5000;0.2507;0.5934;
865.8000;0.2491;0.5934;
866.1000;0.2483;0.5910;
866.4000;0.2515;0.5983;
866.7000;0.2483;0.5837;
867.0000;0.2499;0.5886;
867.3000;0.2426;0.5692;
867.6000;0.2515;0.5934;
867.9000;0.2491;0.5910;
868.2000;0.2491;0.5910;
868.5000;0.2483;0.5886;
868.8000;0.2499;0.5983;
869.1000;0.2483;0.5959;
869.4000;0.2475;0.6080;
869.7000;0.2418;0.5837;
870.0000;0.2434;0.5910;
870.3000;0.2572;0.6225;
870.6000;0.2491;0.6080;
870.9000;0.2491;0.6104;
871.2000;0.2499;0.6031;
871.5000;0.2491;0.6031;
871.8000;0.2507;0.6031;
872.1000;0.2507;0.6007;
872.4000;0.2540;0.6152;
872.7000;0.2491;0.6007;
873.0000;0.2483;0.5934;
873.3000;0.2483;0.6007;
873.6000;0.2483;0.5959;
873.9000;0.2499;0.5862;
874.2000;0.2507;0.5837;
874.5000;0.2491;0.5886;
874.8000;0.2475;0.5813;
875.1000;0.2507;0.5886;
875.4000;0.2523;0.5862;
875.7000;0.2507;0.5910;
876.0000;0.2491;0.5813;
876.3000;0.2499;0.5934;
876.6000;0.2515;0.6055;
876.9000;0.2523;0.6104;
877.2000;0.2540;0.6128;
877.5000;0.2483;0.6007;
877.8000;0.2523;0.6080;
878.1000;0.2515;0.6104;
878.4000;0.2491;0.6007;
878.7000;0.2507;0.6007;
879.0000;0.2475;0.5934;
879.3000;0.2507;0.5959;
879.6000;0.2499;0.6007;
879.9000;0.2556;0.6225;
880.2000;0.2483;0.6055;
880.5000;0.2507;0.6055;
880.8000;0.2483;0.6128;
881.1000;0.2491;0.6225;
881.4000;0.2475;0.6152;
881.7000;0.2491;0.6104;
882.0000;0.2491;0.6031;
882.3000;0.2499;0.5983;
882.6000;0.2393;0.5668;
882.9000;0.2491;0.5983;
883.2000;0.2507;0.5934;
883.5000;0.2532;0.6055;
883.8000;0.2450;0.5813;
884.1000;0.2548;0.6031;
884.4000;0.2483;0.5934;
884.7000;0.2483;0.5886;
885.0000;0.2475;0.5837;
885.3000;0.2515;0.5886;
885.6000;0.2580;0.6055;
885.9000;0.2499;0.5934;
886.2000;0.2483;0.5959;
886.5000;0.2475;0.5959;
886.8000;0.2507;0.6007;
887.1000;0.2450;0.5837;
887.4000;0.2475;0.5813;
887.7000;0.2507;0.5862;
888.0000;0.2499;0.5813;
888.3000;0.2491;0.5813;
888.6000;0.2483;0.5862;
888.9000;0.2483;0.5886;
889.2000;0.2491;0.5910;
889.5000;0.2499;0.5983;
889.8000;0.2475;0.6007;
890.1000;0.2499;0.5910;
890.4000;0.2491;0.5837;
890.7000;0.2507;0.5886;
891.0000;0.2483;0.5862;
891.3000;0.2466;0.5813;
891.6000;0.2564;0.6031;
891.9000;0.2491;0.5789;
892.2000;0.2515;0.5813;
892.5000;0.2491;0.5741;
892.8000;0.2491;0.5813;
893.1000;0.2418;0.5644;
893.4000;0.2556;0.6031;
893.7000;0.2483;0.5910;
894.0000;0.2515;0.5886;
894.3000;0.2507;0.5741;
894.6000;0.2507;0.5692;
894.9000;0.2450;0.5571;
895.2000;0.2499;0.5765;
895.5000;0.2458;0.5692;
895.8000;0.2466;0.5692;
896.1000;0.2499;0.5862;
896.4000;0.2556;0.6031;
896.7000;0.2572;0.6080;
897.0000;0.2507;0.5910;
897.3000;0.2499;0.5813;
897.6000;0.2483;0.5765;
897.9000;0.2499;0.5716;
898.2000;0.2515;0.5765;
898.5000;0.2507;0.5813;
898.8000;0.2548;0.5934;
899.1000;0.2491;0.5862;
899.4000;0.2491;0.5886;
899.7000;0.2507;0.5886;
900.0000;0.2491;0.5959;
900.3000;0.2483;0.5959;
900.6000;0.2499;0.6007;
900.9000;0.2475;0.6007;
901.2000;0.2434;0.5765;
901.5000;0.2418;0.5692;
901.8000;0.2466;0.5765;
902.1000;0.2499;0.5813;
902.4000;0.2515;0.5862;
902.7000;0.2507;0.5862;
903.0000;0.2491;0.5886;
903.3000;0.2499;0.5837;
903.6000;0.2491;0.5789;
903.9000;0.2507;0.5934;
904.2000;0.2442;0.5741;
904.5000;0.2491;0.5837;
904.8000;0.2491;0.5789;
905.1000;0.2499;0.5886;
905.4000;0.2507;0.5910;
905.7000;0.2499;0.5837;
906.0000;0.2621;0.6225;
906.3000;0.2515;0.6007;
906.6000;0.2483;0.5910;
906.9000;0.2499;0.5983;
907.2000;0.2491;0.6031;
907.5000;0.2450;0.5837;
907.8000;0.2499;0.6007;
908.1000;0.2499;0.5983;
908.4000;0.2483;0.6007;
908.7000;0.2491;0.5983;
909.0000;0.2491;0.5959;
909.3000;0.2475;0.5983;
909.6000;0.2507;0.5959;
909.9000;0.2515;0.6007;
910.2000;0.2507;0.6080;
910.5000;0.2499;0.6007;
910.8000;0.2369;0.5668;
911.1000;0.2483;0.6128;
911.4000;0.2491;0.6104;
911.7000;0.2499;0.6055;
912.0000;0.2491;0.6031;
912.3000;0.2483;0.6007;
912.6000;0.2466;0.5983;
912.9000;0.2491;0.5983;
913.2000;0.2491;0.6104;
913.5000;0.2475;0.5983;
913.8000;0.2483;0.6031;
914.1000;0.2597;0.6298;
914.4000;0.2475;0.6128;
914.7000;0.2499;0.6177;
915.0000;0.2507;0.6152;
915.3000;0.2491;0.6128;
915.6000;0.2483;0.6080;
915.9000;0.2475;0.6031;
916.2000;0.2483;0.6007;
916.5000;0.2556;0.6128;
916.8000;0.2499;0.6055;
917.1000;0.2491;0.6007;
917.4000;0.2499;0.5983;
917.7000;0.2483;0.6031;
918.0000;0.2499;0.6055;
918.3000;0.2369;0.5741;
918.6000;0.2450;0.5959;
918.9000;0.2499;0.5934;
919.2000;0.2499;0.5934;
919.5000;0.2507;0.6055;
919.8000;0.2491;0.6055;
920.1000;0.2483;0.6055;
920.4000;0.2580;0.6298;
920.7000;0.2523;0.6055;
921.0000;0.2491;0.5959;
921.3000;0.2499;0.6055;
921.6000;0.2483;0.6031;
921.9000;0.2442;0.5910;
922.2000;0.2515;0.6031;
922.5000;0.2523;0.6104;
922.8000;0.2499;0.6031;
923.1000;0.2507;0.6177;
923.4000;0.2491;0.6128;
923.7000;0.2483;0.6080;
924.0000;0.2540;0.6152;
924.3000;0.2475;0.6007;
924.6000;0.2491;0.6128;
924.9000;0.2491;0.6128;
925.2000;0.2548;0.6273;
925.5000;0.2515;0.6225;
925.8000;0.2483;0.6128;
926.1000;0.2491;0.6080;
926.4000;0.2507;0.6249;
926.7000;0.2483;0.6273;
927.0000;0.2507;0.6298;
927.3000;0.2515;0.6322;
927.6000;0.2442;0.6007;
927.9000;0.2499;0.6080;
928.2000;0.2532;0.6080;
928.5000;0.2499;0.6080;
928.8000;0.2499;0.6152;
929.1000;0.2507;0.6177;
929.4000;0.2499;0.6225;
929.7000;0.2499;0.6055;
930.0000;0.2491;0.6031;
930.3000;0.2515;0.6104;
930.6000;0.2515;0.6152;
930.9000;0.2507;0.6080;
931.2000;0.2499;0.6080;
931.5000;0.2483;0.6152;
931.8000;0.2483;0.6177;
932.1000;0.2499;0.6128;
932.4000;0.2499;0.6128;
932.7000;0.2499;0.6080;
933.0000;0.2515;0.6152;
933.3000;0.2507;0.6177;
933.6000;0.2483;0.6128;
933.9000;0.2499;0.6152;
934.2000;0.2499;0.6128;
934.5000;0.2507;0.6249;
934.8000;0.2499;0.6249;
935.1000;0.2507;0.6177;
935.4000;0.2515;0.6225;
935.7000;0.2483;0.6128;
936.0000;0.2475;0.6128;
936.3000;0.2499;0.6128;
936.6000;0.2475;0.6080;
936.9000;0.2507;0.6152;
937.2000;0.2466;0.6080;
937.5000;0.2515;0.6080;
937.8000;0.2499;0.6080;
938.1000;0.2523;0.6177;
938.4000;0.2499;0.6128;
938.7000;0.2475;0.6007;
939.0000;0.2507;0.6104;
939.3000;0.2475;0.6055;
939.6000;0.2483;0.6080;
939.9000;0.2491;0.6055;
940.2000;0.2499;0.6031;
940.5000;0.2507;0.6080;
940.8000;0.2499;0.6031;
941.1000;0.2507;0.6055;
941.4000;0.2491;0.6080;
941.7000;0.2499;0.6104;
942.0000;0.2483;0.6104;
942.3000;0.2499;0.6104;
942.6000;0.2458;0.6031;
942.9000;0.2499;0.6007;
943.2000;0.2499;0.6007;
943.5000;0.2475;0.5910;
943.8000;0.2483;0.5886;
944.1000;0.2483;0.5862;
944.4000;0.2483;0.5886;
944.7000;0.2572;0.6104;
945.0000;0.2499;0.5983;
945.3000;0.2507;0.5959;
945.6000;0.2507;0.5934;
945.9000;0.2475;0.5910;
946.2000;0.2507;0.5983;
946.5000;0.2483;0.5934;
946.8000;0.2483;0.5910;
947.1000;0.2483;0.5983;
947.4000;0.2491;0.6104;
947.7000;0.2483;0.6104;
948.0000;0.2483;0.6080;
948.3000;0.2499;0.6104;
948.6000;0.2507;0.6055;
948.9000;0.2483;0.5886;
949.2000;0.2450;0.5837;
949.5000;0.2491;0.6055;
949.8000;0.2491;0.6128;
950.1000;0.2491;0.6031;
950.4000;0.2523;0.6031;
950.7000;0.2491;0.5934;
951.0000;0.2507;0.5910;
951.3000;0.2491;0.5910;
951.6000;0.2556;0.6104;
951.9000;0.2483;0.5910;
952.2000;0.2515;0.5934;
952.5000;0.2499;0.5789;
952.8000;0.2491;0.5716;
953.1000;0.2491;0.5837;
953.4000;0.2507;0.5886;
953.7000;0.2466;0.5741;
954.0000;0.2483;0.5862;
954.3000;0.2499;0.5862;
954.6000;0.2507;0.6055;
954.9000;0.2483;0.5959;
955.2000;0.2483;0.5886;
955.5000;0.2475;0.5862;
955.8000;0.2515;0.5983;
956.1000;0.2507;0.5983;
956.4000;0.2499;0.5934;
956.7000;0.2507;0.5910;
957.0000;0.2491;0.5862;
957.3000;0.2523;0.5886;
957.6000;0.2499;0.5862;
957.9000;0.2483;0.5862;
958.2000;0.2523;0.5789;
958.5000;0.2507;0.5837;
958.8000;0.2540;0.5959;
959.1000;0.2532;0.5886;
959.4000;0.2491;0.5862;
959.7000;0.2499;0.5862;
960.0000;0.2540;0.5983;
960.3000;0.2507;0.5837;
960.6000;0.2515;0.5862;
960.9000;0.2491;0.5813;
961.2000;0.2556;0.5886;
961.5000;0.2507;0.5765;
961.8000;0.2499;0.5692;
962.1000;0.2499;0.5789;
962.4000;0.2466;0.5692;
962.7000;0.2385;0.5498;
963.0000;0.2507;0.5765;
963.3000;0.2475;0.5765;
963.6000;0.2491;0.5813;
963.9000;0.2532;0.5910;
964.2000;0.2450;0.5765;
964.5000;0.2507;0.5886;
964.8000;0.2475;0.5813;
965.1000;0.2483;0.5813;
965.4000;0.2515;0.5886;
965.7000;0.2507;0.5910;
966.0000;0.2507;0.6055;
966.3000;0.2499;0.5983;
966.6000;0.2532;0.6055;
966.9000;0.2450;0.5837;
967.2000;0.2491;0.5959;
967.5000;0.2499;0.5862;
967.8000;0.2523;0.5910;
968.1000;0.2483;0.5765;
968.4000;0.2475;0.5668;
968.7000;0.2491;0.5789;
969.0000;0.2515;0.5789;
969.3000;0.2540;0.5813;
969.6000;0.2572;0.5886;
969.9000;0.2491;0.5716;
970.2000;0.2507;0.5692;
970.5000;0.2483;0.5692;
970.8000;0.2507;0.5789;
971.1000;0.2483;0.5765;
971.4000;0.2523;0.5837;
971.7000;0.2507;0.5813;
972.0000;0.2507;0.5862;
972.3000;0.2507;0.5741;
972.6000;0.2507;0.5692;
972.9000;0.2507;0.5668;
973.2000;0.2491;0.5595;
973.5000;0.2507;0.5619;
973.8000;0.2499;0.5571;
974.1000;0.2491;0.5547;
974.4000;0.2491;0.5644;
974.7000;0.2507;0.5619;
975.0000;0.2475;0.5595;
975.3000;0.2507;0.5692;
975.6000;0.2515;0.5813;
975.9000;0.2548;0.5886;
976.2000;0.2515;0.5789;
976.5000;0.2491;0.5837;
976.8000;0.2499;0.5813;
977.1000;0.2499;0.5789;
977.4000;0.2515;0.5741;
977.7000;0.2499;0.5619;
978.0000;0.2491;0.5498;
978.3000;0.2499;0.5523;
978.6000;0.2475;0.5498;
978.9000;0.2426;0.5426;
979.2000;0.2507;0.5547;
979.5000;0.2507;0.5547;
979.8000;0.2483;0.5595;
980.1000;0.2483;0.5619;
980.4000;0.2483;0.5668;
980.7000;0.2499;0.5595;
981.0000;0.2605;0.5837;
981.3000;0.2499;0.5571;
981.6000;0.2499;0.5644;
981.9000;0.2572;0.5741;
982.2000;0.2466;0.5523;
982.5000;0.2491;0.5498;
982.8000;0.2515;0.5523;
983.1000;0.2515;0.5595;
983.4000;0.2499;0.5523;
983.7000;0.2458;0.5426;
984.0000;0.2523;0.5523;
984.3000;0.2507;0.5571;
984.6000;0.2507;0.5523;
984.9000;0.2483;0.5474;
985.2000;0.2507;0.5571;
985.5000;0.2507;0.5644;
985.8000;0.2507;0.5668;
986.1000;0.2499;0.5644;
986.4000;0.2483;0.5619;
986.7000;0.2499;0.5595;
987.0000;0.2580;0.5789;
987.3000;0.2491;0.5547;
987.6000;0.2499;0.5523;
987.9000;0.2491;0.5498;
988.2000;0.2499;0.5523;
988.5000;0.2491;0.5523;
988.8000;0.2491;0.5498;
989.1000;0.2499;0.5547;
989.4000;0.2507;0.5523;
989.7000;0.2499;0.5474;
990.0000;0.2515;0.5450;
990.3000;0.2499;0.5523;
990.6000;0.2507;0.5668;
990.9000;0.2499;0.5668;
991.2000;0.2515;0.5668;
991.5000;0.2499;0.5595;
991.8000;0.2466;0.5547;
992.1000;0.2483;0.5716;
992.4000;0.2507;0.5789;
992.7000;0.2491;0.5668;
993.0000;0.2491;0.5644;
993.3000;0.2483;0.5644;
993.6000;0.2523;0.5741;
993.9000;0.2507;0.5668;
994.2000;0.2491;0.5595;
994.5000;0.2499;0.5692;
994.8000;0.2483;0.5741;
995.1000;0.2523;0.5886;
995.4000;0.2515;0.5837;
995.7000;0.2507;0.5862;
996.0000;0.2507;0.5837;
996.3000;0.2523;0.5813;
996.6000;0.2589;0.5959;
996.9000;0.2499;0.5668;
997.2000;0.2572;0.5837;
997.5000;0.2580;0.5813;
997.8000;0.2499;0.5547;
998.1000;0.2523;0.5595;
998.4000;0.2491;0.5523;
998.7000;0.2475;0.5523;
999.0000;0.2515;0.5523;
999.3000;0.2483;0.5547;
999.6000;0.2442;0.5474;
999.9000;0.2507;0.5619;
1000.2000;0.2483;0.5619;
1000.5000;0.2507;0.5668;
1000.8000;0.2475;0.5692;
1001.1000;0.2515;0.5741;
1001.4000;0.2499;0.5692;
1001.7000;0.2450;0.5644;
1002.0000;0.2499;0.5789;
1002.3000;0.2499;0.5741;
1002.6000;0.2499;0.5862;
1002.9000;0.2491;0.5789;
1003.2000;0.2507;0.5789;
1003.5000;0.2499;0.5813;
1003.8000;0.2507;0.5789;
1004.1000;0.2491;0.5692;
1004.4000;0.2491;0.5692;
1004.7000;0.2499;0.5668;
1005.0000;0.2450;0.5523;
1005.3000;0.2507;0.5668;
1005.6000;0.2507;0.5571;
1005.9000;0.2515;0.5595;
1006.2000;0.2466;0.5450;
1006.5000;0.2499;0.5547;
1006.8000;0.2499;0.5547;
1007.1000;0.2548;0.5692;
1007.4000;0.2507;0.5547;
1007.7000;0.2499;0.5571;
1008.0000;0.2466;0.5450;
1008.3000;0.2491;0.5474;
1008.6000;0.2491;0.5450;
1008.9000;0.2491;0.5498;
1009.2000;0.2483;0.5547;
1009.5000;0.2369;0.5353;
1009.8000;0.2507;0.5668;
1010.1000;0.2442;0.5547;
1010.4000;0.2499;0.5668;
1010.7000;0.2483;0.5523;
1011.0000;0.2483;0.5498;
1011.3000;0.2491;0.5523;
1011.6000;0.2515;0.5668;
1011.9000;0.2491;0.5595;
1012.2000;0.2515;0.5595;
1012.5000;0.2629;0.5934;
1012.8000;0.2491;0.5523;
1013.1000;0.2466;0.5450;
1013.4000;0.2491;0.5571;
1013.7000;0.2499;0.5668;
1014.0000;0.2483;0.5644;
1014.3000;0.2483;0.5716;
1014.6000;0.2499;0.5765;
1014.9000;0.2499;0.5741;
1015.2000;0.2499;0.5644;
1015.5000;0.2572;0.5837;
1015.8000;0.2491;0.5644;
1016.1000;0.2450;0.5474;
1016.4000;0.2499;0.5619;
1016.7000;0.2499;0.5619;
1017.0000;0.2515;0.5619;
1017.3000;0.2507;0.5595;
1017.6000;0.2499;0.5595;
1017.9000;0.2499;0.5571;
1018.2000;0.2483;0.5474;
1018.5000;0.2532;0.5547;
1018.8000;0.2491;0.5523;
1019.1000;0.2483;0.5450;
1019.4000;0.2491;0.5450;
1019.7000;0.2564;0.5644;
1020.0000;0.2515;0.5498;
1020.3000;0.2507;0.5498;
1020.6000;0.2491;0.5401;
1020.9000;0.2499;0.5377;
1021.2000;0.2507;0.5498;
1021.5000;0.2507;0.5595;
1021.8000;0.2491;0.5571;
1022.1000;0.2507;0.5644;
1022.4000;0.2499;0.5668;
1022.7000;0.2507;0.5644;
1023.0000;0.2475;0.5523;
1023.3000;0.2491;0.5644;
1023.6000;0.2507;0.5692;
1023.9000;0.2483;0.5668;
1024.2000;0.2483;0.5692;
1024.5000;0.2491;0.5716;
1024.8000;0.2507;0.5741;
1025.1000;0.2475;0.5619;
1025.4000;0.2434;0.5523;
1025.7000;0.2491;0.5644;
1026.0000;0.2499;0.5619;
1026.3000;0.2507;0.5668;
1026.6000;0.2491;0.5595;
1026.9000;0.2426;0.5426;
1027.2000;0.2491;0.5450;
1027.5000;0.2483;0.5450;
1027.8000;0.2418;0.5232;
1028.1000;0.2515;0.5547;
1028.4000;0.2491;0.5474;
1028.7000;0.2499;0.5547;
1029.0000;0.2507;0.5474;
1029.3000;0.2450;0.5329;
1029.6000;0.2466;0.5401;
1029.9000;0.2499;0.5523;
1030.2000;0.2466;0.5353;
1030.5000;0.2515;0.5426;
1030.8000;0.2491;0.5377;
1031.1000;0.2499;0.5305;
1031.4000;0.2523;0.5329;
1031.7000;0.2523;0.5280;
1032.0000;0.2507;0.5305;
1032.3000;0.2483;0.5401;
1032.6000;0.2507;0.5377;
1032.9000;0.2499;0.5450;
1033.2000;0.2491;0.5377;
1033.5000;0.2450;0.5232;
1033.8000;0.2458;0.5329;
1034.1000;0.2491;0.5353;
1034.4000;0.2532;0.5426;
1034.7000;0.2475;0.5377;
1035.0000;0.2491;0.5353;
1035.3000;0.2507;0.5450;
1035.6000;0.2499;0.5450;
1035.9000;0.2491;0.5498;
1036.2000;0.2507;0.5619;
1036.5000;0.2507;0.5644;
1036.8000;0.2499;0.5619;
1037.1000;0.2507;0.5595;
1037.4000;0.2475;0.5523;
1037.7000;0.2540;0.5595;
1038.0000;0.2515;0.5523;
1038.3000;0.2499;0.5547;
1038.6000;0.2483;0.5450;
1038.9000;0.2523;0.5498;
1039.2000;0.2507;0.5474;
1039.5000;0.2499;0.5474;
1039.8000;0.2483;0.5474;
1040.1000;0.2499;0.5450;
1040.4000;0.2499;0.5426;
1040.7000;0.2491;0.5401;
1041.0000;0.2515;0.5353;
1041.3000;0.2499;0.5401;
1041.6000;0.2507;0.5401;
1041.9000;0.2491;0.5377;
1042.2000;0.2491;0.5329;
1042.5000;0.2499;0.5426;
1042.8000;0.2507;0.5474;
1043.1000;0.2483;0.5450;
1043.4000;0.2507;0.5523;
1043.7000;0.2499;0.5619;
1044.0000;0.2499;0.5547;
1044.3000;0.2499;0.5571;
1044.6000;0.2475;0.5474;
1044.9000;0.2491;0.5426;
1045.2000;0.2458;0.5329;
1045.5000;0.2507;0.5523;
1045.8000;0.2499;0.5498;
1046.1000;0.2491;0.5523;
1046.4000;0.2515;0.5523;
1046.7000;0.2548;0.5523;
1047.0000;0.2532;0.5474;
1047.3000;0.2491;0.5401;
1047.6000;0.2499;0.5353;
1047.9000;0.2523;0.5450;
1048.2000;0.2499;0.5377;
1048.5000;0.2499;0.5474;
1048.8000;0.2475;0.5498;
1049.1000;0.2507;0.5595;
1049.4000;0.2491;0.5474;
1049.7000;0.2483;0.5450;
1050.0000;0.2475;0.5426;
1050.3000;0.2483;0.5426;
1050.6000;0.2491;0.5450;
1050.9000;0.2515;0.5547;
1051.2000;0.2458;0.5474;
1051.5000;0.2491;0.5498;
1051.8000;0.2475;0.5426;
1052.1000;0.2597;0.5789;
1052.4000;0.2491;0.5474;
1052.7000;0.2548;0.5619;
1053.0000;0.2515;0.5595;
1053.3000;0.2507;0.5571;
1053.6000;0.2507;0.5595;
1053.9000;0.2499;0.5547;
1054.2000;0.2393;0.5256;
1054.5000;0.2515;0.5595;
1054.8000;0.2491;0.5571;
1055.1000;0.2426;0.5426;
1055.4000;0.2515;0.5644;
1055.7000;0.2491;0.5498;
1056.0000;0.2491;0.5523;
1056.3000;0.2507;0.5547;
1056.6000;0.2475;0.5426;
1056.9000;0.2515;0.5595;
1057.2000;0.2507;0.5619;
1057.5000;0.2475;0.5571;
1057.8000;0.2499;0.5595;
1058.1000;0.2507;0.5619;
1058.4000;0.2540;0.5668;
1058.7000;0.2515;0.5571;
1059.0000;0.2491;0.5498;
1059.3000;0.2491;0.5498;
1059.6000;0.2499;0.5547;
1059.9000;0.2507;0.5595;
1060.2000;0.2515;0.5619;
1060.5000;0.2475;0.5498;
1060.8000;0.2491;0.5571;
1061.1000;0.2499;0.5595;
1061.4000;0.2572;0.5837;
1061.7000;0.2491;0.5547;
1062.0000;0.2597;0.5765;
1062.3000;0.2515;0.5450;
1062.6000;0.2532;0.5450;
1062.9000;0.2507;0.5401;
1063.2000;0.2507;0.5329;
1063.5000;0.2523;0.5401;
1063.8000;0.2507;0.5353;
1064.1000;0.2491;0.5353;
1064.4000;0.2491;0.5353;
1064.7000;0.2491;0.5353;
1065.0000;0.2515;0.5377;
1065.3000;0.2499;0.5353;
1065.6000;0.2483;0.5329;
1065.9000;0.2491;0.5353;
1066.2000;0.2515;0.5426;
1066.5000;0.2491;0.5377;
1066.8000;0.2475;0.5329;
1067.1000;0.2483;0.5401;
1067.4000;0.2491;0.5474;
1067.7000;0.2499;0.5474;
1068.0000;0.2499;0.5523;
1068.3000;0.2491;0.5595;
1068.6000;0.2499;0.5644;
1068.9000;0.2507;0.5619;
1069.2000;0.2434;0.5401;
1069.5000;0.2523;0.5571;
1069.8000;0.2523;0.5668;
1070.1000;0.2507;0.5644;
1070.4000;0.2499;0.5547;
1070.7000;0.2499;0.5426;
1071.0000;0.2499;0.5498;
1071.3000;0.2499;0.5523;
1071.6000;0.2507;0.5571;
1071.9000;0.2499;0.5595;
1072.2000;0.2483;0.5571;
1072.5000;0.2475;0.5498;
1072.8000;0.2491;0.5450;
1073.1000;0.2483;0.5353;
1073.4000;0.2556;0.5450;
1073.7000;0.2515;0.5353;
1074.0000;0.2499;0.5305;
1074.3000;0.2475;0.5280;
1074.6000;0.2507;0.5329;
1074.9000;0.2491;0.5280;
1075.2000;0.2540;0.5280;
1075.5000;0.2475;0.5159;
1075.8000;0.2556;0.5426;
1076.1000;0.2556;0.5377;
1076.4000;0.2499;0.5256;
1076.7000;0.2499;0.5256;
1077.0000;0.2515;0.5280;
1077.3000;0.2613;0.5498;
1077.6000;0.2515;0.5232;
1077.9000;0.2483;0.5183;
1078.2000;0.2515;0.5256;
1078.5000;0.2499;0.5256;
1078.8000;0.2580;0.5474;
1079.1000;0.2491;0.5208;
1079.4000;0.2556;0.5426;
1079.7000;0.2483;0.5208;
1080.0000;0.2434;0.5135;
1080.3000;0.2507;0.5305;
1080.6000;0.2491;0.5280;
1080.9000;0.2507;0.5208;
1081.2000;0.2507;0.5329;
1081.5000;0.2507;0.5305;
1081.8000;0.2507;0.5280;
1082.1000;0.2507;0.5256;
1082.4000;0.2548;0.5426;
1082.7000;0.2523;0.5401;
1083.0000;0.2564;0.5547;
1083.3000;0.2499;0.5426;
1083.6000;0.2507;0.5353;
1083.9000;0.2475;0.5232;
1084.2000;0.2507;0.5280;
1084.5000;0.2556;0.5426;
1084.8000;0.2499;0.5329;
1085.1000;0.2499;0.5401;
1085.4000;0.2507;0.5474;
1085.7000;0.2499;0.5474;
1086.0000;0.2450;0.5377;
1086.3000;0.2507;0.5498;
1086.6000;0.2499;0.5426;
1086.9000;0.2491;0.5474;
1087.2000;0.2515;0.5523;
1087.5000;0.2507;0.5498;
1087.8000;0.2540;0.5595;
1088.1000;0.2507;0.5547;
1088.4000;0.2491;0.5474;
1088.7000;0.2523;0.5595;
1089.0000;0.2491;0.5498;
1089.3000;0.2507;0.5595;
1089.6000;0.2426;0.5329;
1089.9000;0.2507;0.5547;
1090.2000;0.2532;0.5619;
1090.5000;0.2523;0.5571;
1090.8000;0.2483;0.5547;
1091.1000;0.2499;0.5547;
1091.4000;0.2532;0.5571;
1091.7000;0.2466;0.5353;
1092.0000;0.2515;0.5523;
1092.3000;0.2564;0.5692;
1092.6000;0.2475;0.5401;
1092.9000;0.2466;0.5401;
1093.2000;0.2548;0.5668;
1093.5000;0.2523;0.5644;
1093.8000;0.2499;0.5644;
1094.1000;0.2507;0.5789;
1094.4000;0.2532;0.5765;
1094.7000;0.2483;0.5692;
1095.0000;0.2532;0.5692;
1095.3000;0.2515;0.5619;
1095.6000;0.2491;0.5668;
1095.9000;0.2507;0.5716;
1096.2000;0.2491;0.5644;
1096.5000;0.2499;0.5668;
1096.8000;0.2507;0.5741;
1097.1000;0.2499;0.5668;
1097.4000;0.2499;0.5619;
1097.7000;0.2515;0.5668;
1098.0000;0.2499;0.5571;
1098.3000;0.2499;0.5619;
1098.6000;0.2515;0.5571;
1098.9000;0.2458;0.5474;
1099.2000;0.2499;0.5571;
1099.5000;0.2507;0.5668;
1099.8000;0.2540;0.5837;
1100.1000;0.2458;0.5644;
1100.4000;0.2523;0.5862;
1100.7000;0.2434;0.5668;
1101.0000;0.2466;0.5644;
1101.3000;0.2515;0.5716;
1101.6000;0.2507;0.5644;
1101.9000;0.2507;0.5619;
1102.2000;0.2385;0.5256;
1102.5000;0.2491;0.5571;
1102.8000;0.2515;0.5619;
1103.1000;0.2507;0.5668;
1103.4000;0.2491;0.5716;
1103.7000;0.2426;0.5474;
1104.0000;0.2507;0.5716;
1104.3000;0.2369;0.5377;
1104.6000;0.2499;0.5765;
1104.9000;0.2499;0.5741;
1105.2000;0.2483;0.5765;
1105.5000;0.2515;0.5789;
1105.8000;0.2621;0.6031;
1106.1000;0.2483;0.5692;
1106.4000;0.2564;0.5813;
1106.7000;0.2491;0.5644;
1107.0000;0.2507;0.5619;
1107.3000;0.2491;0.5547;
1107.6000;0.2491;0.5619;
1107.9000;0.2466;0.5498;
1108.2000;0.2475;0.5523;
1108.5000;0.2483;0.5523;
1108.8000;0.2483;0.5523;
1109.1000;0.2466;0.5450;
1109.4000;0.2556;0.5765;
1109.7000;0.2499;0.5571;
1110.0000;0.2466;0.5523;
1110.3000;0.2483;0.5523;
1110.6000;0.2507;0.5595;
1110.9000;0.2540;0.5789;
1111.2000;0.2491;0.5523;
1111.5000;0.2499;0.5571;
1111.8000;0.2507;0.5644;
1112.1000;0.2515;0.5668;
1112.4000;0.2491;0.5741;
1112.7000;0.2458;0.5716;
1113.0000;0.2475;0.5644;
1113.3000;0.2507;0.5716;
1113.6000;0.2499;0.5716;
1113.9000;0.2442;0.5571;
1114.2000;0.2515;0.5716;
1114.5000;0.2532;0.5789;
1114.8000;0.2515;0.5862;
1115.1000;0.2491;0.5837;
1115.4000;0.2499;0.5886;
1115.7000;0.2466;0.5765;
1116.0000;0.2515;0.5837;
1116.3000;0.2491;0.5716;
1116.6000;0.2491;0.5644;
1116.9000;0.2483;0.5692;
1117.2000;0.2523;0.5837;
1117.5000;0.2426;0.5523;
1117.8000;0.2491;0.5668;
1118.1000;0.2507;0.5716;
1118.4000;0.2499;0.5692;
1118.7000;0.2475;0.5595;
1119.0000;0.2483;0.5595;
1119.3000;0.2483;0.5523;
1119.6000;0.2507;0.5619;
1119.9000;0.2499;0.5692;
1120.2000;0.2491;0.5716;
1120.5000;0.2483;0.5644;
1120.8000;0.2450;0.5474;
1121.1000;0.2491;0.5571;
1121.4000;0.2507;0.5571;
1121.7000;0.2491;0.5523;
1122.0000;0.2491;0.5523;
1122.3000;0.2507;0.5716;
1122.6000;0.2572;0.5910;
1122.9000;0.2507;0.5668;
1123.2000;0.2499;0.5668;
1123.5000;0.2515;0.5741;
1123.8000;0.2507;0.5692;
1124.1000;0.2515;0.5741;
1124.4000;0.2483;0.5692;
1124.7000;0.2507;0.5668;
1125.0000;0.2442;0.5523;
1125.3000;0.2532;0.5813;
1125.6000;0.2540;0.5765;
1125.9000;0.2523;0.5741;
1126.2000;0.2548;0.5789;
1126.5000;0.2515;0.5716;
1126.8000;0.2491;0.5595;
1127.1000;0.2491;0.5595;
1127.4000;0.2450;0.5401;
1127.7000;0.2483;0.5426;
1128.0000;0.2515;0.5547;
1128.3000;0.2491;0.5547;
1128.6000;0.2515;0.5668;
1128.9000;0.2532;0.5765;
1129.2000;0.2491;0.5668;
1129.5000;0.2466;0.5619;
1129.8000;0.2499;0.5716;
1130.1000;0.2499;0.5692;
1130.4000;0.2442;0.5523;
1130.7000;0.2491;0.5644;
1131.0000;0.2507;0.5595;
1131.3000;0.2507;0.5595;
1131.6000;0.2499;0.5571;
1131.9000;0.2491;0.5547;
1132.2000;0.2507;0.5668;
1132.5000;0.2499;0.5595;
1132.8000;0.2483;0.5474;
1133.1000;0.2491;0.5498;
1133.4000;0.2499;0.5523;
1133.7000;0.2540;0.5692;
1134.0000;0.2466;0.5498;
1134.3000;0.2499;0.5474;
1134.6000;0.2499;0.5523;
1134.9000;0.2523;0.5474;
1135.2000;0.2515;0.5498;
1135.5000;0.2499;0.5474;
1135.8000;0.2491;0.5498;
1136.1000;0.2491;0.5498;
1136.4000;0.2540;0.5547;
1136.7000;0.2572;0.5668;
1137.0000;0.2507;0.5498;
1137.3000;0.2507;0.5595;
1137.6000;0.2491;0.5571;
1137.9000;0.2499;0.5571;
1138.2000;0.2507;0.5474;
1138.5000;0.2483;0.5523;
1138.8000;0.2507;0.5716;
1139.1000;0.2515;0.5716;
1139.4000;0.2499;0.5765;
1139.7000;0.2458;0.5644;
1140.0000;0.2499;0.5741;
1140.3000;0.2507;0.5813;
1140.6000;0.2499;0.5862;
1140.9000;0.2499;0.5959;
1141.2000;0.2507;0.5886;
1141.5000;0.2515;0.5934;
1141.8000;0.2442;0.5765;
1142.1000;0.2483;0.5886;
1142.4000;0.2499;0.5862;
1142.7000;0.2483;0.5789;
1143.0000;0.2515;0.5765;
1143.3000;0.2499;0.5692;
1143.6000;0.2491;0.5813;
1143.9000;0.2491;0.5765;
1144.2000;0.2499;0.5716;
1144.5000;0.2491;0.5813;
1144.8000;0.2499;0.5837;
1145.1000;0.2515;0.5813;
1145.4000;0.2507;0.5716;
1145.7000;0.2507;0.5741;
1146.0000;0.2483;0.5741;
1146.3000;0.2507;0.5765;
1146.6000;0.2499;0.5692;
1146.9000;0.2507;0.5741;
1147.2000;0.2491;0.5668;
1147.5000;0.2499;0.5668;
1147.8000;0.2458;0.5547;
1148.1000;0.2499;0.5692;
1148.4000;0.2507;0.5716;
1148.7000;0.2491;0.5619;
1149.0000;0.2507;0.5619;
1149.3000;0.2491;0.5668;
1149.6000;0.2507;0.5668;
1149.9000;0.2507;0.5765;
1150.2000;0.2458;0.5619;
1150.5000;0.2515;0.5741;
1150.8000;0.2491;0.5668;
1151.1000;0.2515;0.5789;
1151.4000;0.2475;0.5716;
1151.7000;0.2491;0.5716;
1152.0000;0.2572;0.5910;
1152.3000;0.2491;0.5571;
1152.6000;0.2523;0.5668;
1152.9000;0.2483;0.5571;
1153.2000;0.2499;0.5619;
1153.5000;0.2475;0.5619;
1153.8000;0.2483;0.5692;
1154.1000;0.2491;0.5741;
1154.4000;0.2450;0.5644;
1154.7000;0.2499;0.5716;
1155.0000;0.2507;0.5741;
1155.3000;0.2491;0.5668;
1155.6000;0.2515;0.5692;
1155.9000;0.2515;0.5741;
1156.2000;0.2507;0.5741;
1156.5000;0.2491;0.5619;
1156.8000;0.2483;0.5571;
1157.1000;0.2515;0.5619;
1157.4000;0.2499;0.5595;
1157.7000;0.2515;0.5547;
1158.0000;0.2515;0.5595;
1158.3000;0.2523;0.5692;
1158.6000;0.2491;0.5716;
1158.9000;0.2483;0.5692;
1159.2000;0.2515;0.5765;
1159.5000;0.2507;0.5668;
1159.8000;0.2515;0.5716;
1160.1000;0.2515;0.5692;
1160.4000;0.2515;0.5692;
1160.7000;0.2532;0.5765;
1161.0000;0.2491;0.5644;
1161.3000;0.2515;0.5692;
1161.6000;0.2401;0.5353;
1161.9000;0.2507;0.5547;
1162.2000;0.2458;0.5450;
1162.5000;0.2499;0.5619;
1162.8000;0.2475;0.5595;
1163.1000;0.2499;0.5668;
1163.4000;0.2515;0.5716;
1163.7000;0.2499;0.5692;
1164.0000;0.2499;0.5741;
1164.3000;0.2491;0.5765;
1164.6000;0.2475;0.5716;
1164.9000;0.2499;0.5765;
1165.2000;0.2475;0.5668;
1165.5000;0.2491;0.5741;
1165.8000;0.2458;0.5619;
1166.1000;0.2499;0.5619;
1166.4000;0.2491;0.5571;
1166.7000;0.2491;0.5571;
1167.0000;0.2515;0.5619;
1167.3000;0.2523;0.5716;
1167.6000;0.2475;0.5571;
1167.9000;0.2491;0.5619;
1168.2000;0.2572;0.5716;
1168.5000;0.2499;0.5547;
1168.8000;0.2475;0.5474;
1169.1000;0.2507;0.5547;
1169.4000;0.2515;0.5619;
1169.7000;0.2499;0.5668;
1170.0000;0.2434;0.5450;
1170.3000;0.2499;0.5668;
1170.6000;0.2491;0.5716;
1170.9000;0.2499;0.5789;
1171.2000;0.2515;0.5837;
1171.5000;0.2548;0.5789;
1171.8000;0.2507;0.5668;
1172.1000;0.2548;0.5765;
1172.4000;0.2532;0.5789;
1172.7000;0.2507;0.5547;
1173.0000;0.2523;0.5595;
1173.3000;0.2499;0.5644;
1173.6000;0.2491;0.5668;
1173.9000;0.2499;0.5619;
1174.2000;0.2499;0.5668;
1174.5000;0.2491;0.5741;
1174.8000;0.2523;0.5837;
1175.1000;0.2491;0.5837;
1175.4000;0.2491;0.5959;
1175.7000;0.2507;0.5910;
1176.0000;0.2491;0.5934;
1176.3000;0.2491;0.5983;
1176.6000;0.2458;0.5910;
1176.9000;0.2491;0.6031;
1177.2000;0.2507;0.5910;
1177.5000;0.2491;0.5862;
1177.8000;0.2507;0.5959;
1178.1000;0.2426;0.5716;
1178.4000;0.2491;0.5886;
1178.7000;0.2523;0.6031;
1179.0000;0.2548;0.6104;
1179.3000;0.2507;0.5983;
1179.6000;0.2515;0.6007;
1179.9000;0.2507;0.6007;
1180.2000;0.2499;0.5910;
1180.5000;0.2483;0.5813;
1180.8000;0.2499;0.5789;
1181.1000;0.2532;0.5934;
1181.4000;0.2442;0.5644;
1181.7000;0.2523;0.5837;
1182.0000;0.2483;0.5765;
1182.3000;0.2507;0.5837;
1182.6000;0.2515;0.5813;
1182.9000;0.2507;0.5813;
1183.2000;0.2491;0.5765;
1183.5000;0.2523;0.5813;
1183.8000;0.2483;0.5862;
1184.1000;0.2507;0.5862;
1184.4000;0.2532;0.5886;
1184.7000;0.2499;0.5837;
1185.0000;0.2507;0.5789;
1185.3000;0.2499;0.5789;
1185.6000;0.2532;0.5983;
1185.9000;0.2491;0.5741;
1186.2000;0.2442;0.5595;
1186.5000;0.2507;0.5789;
1186.8000;0.2483;0.5668;
1187.1000;0.2483;0.5716;
1187.4000;0.2507;0.5716;
1187.7000;0.2499;0.5692;
1188.0000;0.2507;0.5716;
1188.3000;0.2499;0.5716;
1188.6000;0.2499;0.5692;
1188.9000;0.2499;0.5716;
1189.2000;0.2507;0.5716;
1189.5000;0.2491;0.5644;
1189.8000;0.2499;0.5668;
1190.1000;0.2532;0.5692;
1190.4000;0.2507;0.5644;
1190.7000;0.2491;0.5595;
1191.0000;0.2515;0.5692;
1191.3000;0.2540;0.5765;
1191.6000;0.2523;0.5668;
1191.9000;0.2491;0.5668;
1192.2000;0.2458;0.5571;
1192.5000;0.2507;0.5644;
1192.8000;0.2491;0.5644;
1193.1000;0.2483;0.5668;
1193.4000;0.2507;0.5668;
1193.7000;0.2523;0.5716;
1194.0000;0.2475;0.5547;
1194.3000;0.2458;0.5595;
1194.6000;0.2491;0.5716;
1194.9000;0.2491;0.5692;
1195.2000;0.2548;0.5765;
1195.5000;0.2540;0.5644;
1195.8000;0.2483;0.5450;
1196.1000;0.2475;0.5474;
1196.4000;0.2458;0.5401;
1196.7000;0.2491;0.5426;
1197.0000;0.2483;0.5426;
1197.3000;0.2491;0.5474;
1197.6000;0.2507;0.5547;
1197.9000;0.2523;0.5619;
1198.2000;0.2515;0.5619;
1198.5000;0.2483;0.5644;
1198.8000;0.2491;0.5644;
1199.1000;0.2548;0.5813;
1199.4000;0.2491;0.5716;
1199.7000;0.2491;0.5692;
1200.0000;0.2499;0.5741;
1200.3000;0.2532;0.5668;
1200.6000;0.2523;0.5668;
1200.9000;0.2499;0.5547;
1201.2000;0.2507;0.5571;
1201.5000;0.2442;0.5426;
1201.8000;0.2523;0.5644;
1202.1000;0.2499;0.5595;
1202.4000;0.2507;0.5595;
1202.7000;0.2499;0.5619;
1203.0000;0.2507;0.5644;
1203.3000;0.2499;0.5644;
1203.6000;0.2499;0.5668;
1203.9000;0.2507;0.5741;
1204.2000;0.2523;0.5813;
1204.5000;0.2515;0.5765;
1204.8000;0.2418;0.5426;
1205.1000;0.2515;0.5619;
1205.4000;0.2523;0.5619;
1205.7000;0.2629;0.5910;
1206.0000;0.2499;0.5571;
1206.3000;0.2499;0.5595;
1206.6000;0.2523;0.5547;
1206.9000;0.2458;0.5426;
1207.2000;0.2515;0.5595;
1207.5000;0.2499;0.5547;
1207.8000;0.2491;0.5547;
1208.1000;0.2499;0.5571;
1208.4000;0.2523;0.5692;
1208.7000;0.2499;0.5619;
1209.0000;0.2523;0.5619;
1209.3000;0.2499;0.5547;
1209.6000;0.2523;0.5595;
1209.9000;0.2491;0.5474;
1210.2000;0.2507;0.5523;
1210.5000;0.2499;0.5523;
1210.8000;0.2491;0.5619;
1211.1000;0.2466;0.5547;
1211.4000;0.2532;0.5692;
1211.7000;0.2450;0.5498;
1212.0000;0.2491;0.5644;
1212.3000;0.2483;0.5619;
1212.6000;0.2499;0.5692;
1212.9000;0.2515;0.5644;
1213.2000;0.2507;0.5595;
1213.5000;0.2483;0.5547;
1213.8000;0.2483;0.5571;
1214.1000;0.2507;0.5547;
1214.4000;0.2523;0.5595;
1214.7000;0.2450;0.5498;
1215.0000;0.2491;0.5619;
1215.3000;0.2507;0.5619;
1215.6000;0.2499;0.5644;
1215.9000;0.2507;0.5741;
1216.2000;0.2499;0.5741;
1216.5000;0.2499;0.5716;
1216.8000;0.2507;0.5692;
1217.1000;0.2515;0.5668;
1217.4000;0.2523;0.5668;
1217.7000;0.2507;0.5595;
1218.0000;0.2515;0.5523;
1218.3000;0.2475;0.5353;
1218.6000;0.2515;0.5426;
1218.9000;0.2491;0.5426;
1219.2000;0.2532;0.5571;
1219.5000;0.2523;0.5474;
1219.8000;0.2499;0.5498;
1220.1000;0.2507;0.5595;
1220.4000;0.2491;0.5523;
1220.7000;0.2515;0.5595;
1221.0000;0.2491;0.5595;
1221.3000;0.2499;0.5619;
1221.6000;0.2499;0.5571;
1221.9000;0.2564;0.5789;
1222.2000;0.2499;0.5547;
1222.5000;0.2507;0.5619;
1222.8000;0.2475;0.5595;
1223.1000;0.2458;0.5619;
1223.4000;0.2532;0.5741;
1223.7000;0.2450;0.5474;
1224.0000;0.2515;0.5571;
1224.3000;0.2532;0.5498;
1224.6000;0.2532;0.5498;
1224.9000;0.2475;0.5426;
1225.2000;0.2483;0.5571;
1225.5000;0.2418;0.5329;
1225.8000;0.2507;0.5474;
1226.1000;0.2483;0.5426;
1226.4000;0.2507;0.5377;
1226.7000;0.2491;0.5401;
1227.0000;0.2491;0.5377;
1227.3000;0.2507;0.5426;
1227.6000;0.2483;0.5401;
1227.9000;0.2483;0.5498;
1228.2000;0.2523;0.5523;
1228.5000;0.2507;0.5571;
1228.8000;0.2523;0.5668;
1229.1000;0.2523;0.5668;
1229.4000;0.2532;0.5571;
1229.7000;0.2532;0.5571;
1230.0000;0.2515;0.5498;
1230.3000;0.2491;0.5474;
1230.6000;0.2499;0.5474;
1230.9000;0.2499;0.5474;
1231.2000;0.2507;0.5523;
1231.5000;0.2466;0.5498;
1231.8000;0.2532;0.5619;
1232.1000;0.2491;0.5450;
1232.4000;0.2507;0.5498;
1232.7000;0.2507;0.5547;
1233.0000;0.2491;0.5474;
1233.3000;0.2597;0.5741;
1233.6000;0.2523;0.5547;
1233.9000;0.2491;0.5595;
1234.2000;0.2499;0.5595;
1234.5000;0.2499;0.5595;
1234.8000;0.2499;0.5644;
1235.1000;0.2499;0.5644;
1235.4000;0.2483;0.5619;
1235.7000;0.2507;0.5692;
1236.0000;0.2507;0.5716;
1236.3000;0.2532;0.5789;
1236.6000;0.2499;0.5692;
1236.9000;0.2515;0.5765;
1237.2000;0.2507;0.5813;
1237.5000;0.2491;0.5813;
1237.8000;0.2515;0.5765;
1238.1000;0.2491;0.5765;
1238.4000;0.2515;0.5741;
1238.7000;0.2499;0.5716;
1239.0000;0.2532;0.5692;
1239.3000;0.2515;0.5619;
1239.6000;0.2556;0.5741;
1239.9000;0.2507;0.5668;
1240.2000;0.2507;0.5692;
1240.5000;0.2507;0.5571;
1240.8000;0.2475;0.5547;
1241.1000;0.2515;0.5668;
1241.4000;0.2458;0.5547;
1241.7000;0.2499;0.5619;
1242.0000;0.2507;0.5668;
1242.3000;0.2418;0.5401;
1242.6000;0.2418;0.5523;
1242.9000;0.2483;0.5692;
1243.2000;0.2499;0.5765;
1243.5000;0.2540;0.5886;
1243.8000;0.2572;0.5983;
1244.1000;0.2515;0.5886;
1244.4000;0.2532;0.5813;
1244.7000;0.2507;0.5765;
1245.0000;0.2426;0.5474;
1245.3000;0.2532;0.5741;
1245.6000;0.2499;0.5716;
1245.9000;0.2426;0.5595;
1246.2000;0.2499;0.5716;
1246.5000;0.2499;0.5668;
1246.8000;0.2385;0.5280;
1247.1000;0.2491;0.5571;
1247.4000;0.2385;0.5353;
1247.7000;0.2507;0.5595;
1248.0000;0.2483;0.5498;
1248.3000;0.2483;0.5571;
1248.6000;0.2507;0.5571;
1248.9000;0.2491;0.5547;
1249.2000;0.2499;0.5595;
1249.5000;0.2491;0.5547;
1249.8000;0.2515;0.5619;
1250.1000;0.2515;0.5619;
1250.4000;0.2507;0.5571;
1250.7000;0.2515;0.5644;
1251.0000;0.2523;0.5668;
1251.3000;0.2507;0.5668;
1251.6000;0.2515;0.5644;
1251.9000;0.2523;0.5595;
1252.2000;0.2507;0.5571;
1252.5000;0.2515;0.5571;
1252.8000;0.2507;0.5498;
1253.1000;0.2491;0.5498;
1253.4000;0.2548;0.5571;
1253.7000;0.2507;0.5498;
1254.0000;0.2523;0.5547;
1254.3000;0.2515;0.5547;
1254.6000;0.2507;0.5547;
1254.9000;0.2475;0.5426;
1255.2000;0.2499;0.5474;
1255.5000;0.2532;0.5571;
1255.8000;0.2507;0.5523;
1256.1000;0.2515;0.5523;
1256.4000;0.2499;0.5450;
1256.7000;0.2499;0.5547;
1257.0000;0.2491;0.5498;
1257.3000;0.2556;0.5668;
1257.6000;0.2499;0.5619;
1257.9000;0.2499;0.5692;
1258.2000;0.2499;0.5789;
1258.5000;0.2540;0.5910;
1258.8000;0.2475;0.5741;
1259.1000;0.2507;0.5837;
1259.4000;0.2499;0.5837;
1259.7000;0.2499;0.5765;
1260.0000;0.2499;0.5765;
1260.3000;0.2515;0.5741;
1260.6000;0.2654;0.6152;
1260.9000;0.2507;0.5813;
1261.2000;0.2507;0.5741;
1261.5000;0.2499;0.5789;
1261.8000;0.2540;0.5765;
1262.1000;0.2507;0.5668;
1262.4000;0.2499;0.5644;
1262.7000;0.2515;0.5644;
1263.0000;0.2450;0.5474;
1263.3000;0.2442;0.5353;
1263.6000;0.2515;0.5474;
1263.9000;0.2548;0.5523;
1264.2000;0.2458;0.5232;
1264.5000;0.2475;0.5353;
1264.8000;0.2572;0.5523;
1265.1000;0.2523;0.5353;
1265.4000;0.2442;0.5305;
1265.7000;0.2475;0.5401;
1266.0000;0.2589;0.5765;
1266.3000;0.2532;0.5619;
1266.6000;0.2499;0.5571;
1266.9000;0.2507;0.5571;
1267.2000;0.2483;0.5547;
1267.5000;0.2556;0.5886;
1267.8000;0.2572;0.5862;
1268.1000;0.2466;0.5523;
1268.4000;0.2499;0.5644;
1268.7000;0.2491;0.5571;
1269.0000;0.2499;0.5547;
1269.3000;0.2499;0.5547;
1269.6000;0.2491;0.5571;
1269.9000;0.2548;0.5741;
1270.2000;0.2499;0.5547;
1270.5000;0.2499;0.5595;
1270.8000;0.2507;0.5547;
1271.1000;0.2483;0.5668;
1271.4000;0.2491;0.5644;
1271.7000;0.2483;0.5668;
1272.0000;0.2523;0.5741;
1272.3000;0.2491;0.5644;
1272.6000;0.2491;0.5619;
1272.9000;0.2491;0.5619;
1273.2000;0.2507;0.5619;
1273.5000;0.2475;0.5523;
1273.8000;0.2483;0.5474;
1274.1000;0.2491;0.5474;
1274.4000;0.2499;0.5450;
1274.7000;0.2515;0.5498;
1275.0000;0.2507;0.5498;
1275.3000;0.2491;0.5401;
1275.6000;0.2515;0.5450;
1275.9000;0.2491;0.5474;
1276.2000;0.2507;0.5571;
1276.5000;0.2499;0.5571;
1276.8000;0.2515;0.5619;
1277.1000;0.2499;0.5547;
1277.4000;0.2499;0.5498;
1277.7000;0.2491;0.5498;
1278.0000;0.2491;0.5523;
1278.3000;0.2499;0.5547;
1278.6000;0.2483;0.5619;
1278.9000;0.2507;0.5644;
1279.2000;0.2491;0.5547;
1279.5000;0.2515;0.5547;
1279.8000;0.2523;0.5571;
1280.1000;0.2515;0.5595;
1280.4000;0.2499;0.5571;
1280.7000;0.2491;0.5547;
1281.0000;0.2515;0.5619;
1281.3000;0.2523;0.5644;
1281.6000;0.2499;0.5619;
1281.9000;0.2499;0.5547;
1282.2000;0.2499;0.5523;
1282.5000;0.2491;0.5498;
1282.8000;0.2491;0.5450;
1283.1000;0.2523;0.5523;
1283.4000;0.2507;0.5474;
1283.7000;0.2475;0.5353;
1284.0000;0.2483;0.5377;
1284.3000;0.2515;0.5474;
1284.6000;0.2540;0.5547;
1284.9000;0.2540;0.5595;
1285.2000;0.2499;0.5401;
1285.5000;0.2523;0.5523;
1285.8000;0.2532;0.5595;
1286.1000;0.2475;0.5474;
1286.4000;0.2532;0.5547;
1286.7000;0.2515;0.5547;
1287.0000;0.2483;0.5450;
1287.3000;0.2499;0.5450;
1287.6000;0.2499;0.5353;
1287.9000;0.2515;0.5305;
1288.2000;0.2580;0.5426;
1288.5000;0.2491;0.5208;
1288.8000;0.2499;0.5329;
1289.1000;0.2499;0.5401;
1289.4000;0.2491;0.5401;
1289.7000;0.2507;0.5523;
1290.0000;0.2507;0.5547;
1290.3000;0.2515;0.5595;
1290.6000;0.2507;0.5571;
1290.9000;0.2597;0.5765;
1291.2000;0.2515;0.5474;
1291.5000;0.2532;0.5571;
1291.8000;0.2515;0.5450;
1292.1000;0.2507;0.5450;
1292.4000;0.2507;0.5498;
1292.7000;0.2491;0.5377;
1293.0000;0.2548;0.5498;
1293.3000;0.2564;0.5523;
1293.6000;0.2515;0.5401;
1293.9000;0.2499;0.5305;
1294.2000;0.2499;0.5305;
1294.5000;0.2499;0.5280;
1294.8000;0.2507;0.5256;
1295.1000;0.2507;0.5305;
1295.4000;0.2507;0.5159;
1295.7000;0.2507;0.5183;
1296.0000;0.2507;0.5183;
1296.3000;0.2499;0.5183;
1296.6000;0.2515;0.5232;
1296.9000;0.2499;0.5329;
1297.2000;0.2523;0.5426;
1297.5000;0.2434;0.5280;
1297.8000;0.2499;0.5426;
1298.1000;0.2523;0.5547;
1298.4000;0.2507;0.5450;
1298.7000;0.2515;0.5401;
1299.0000;0.2507;0.5280;
1299.3000;0.2458;0.5183;
1299.6000;0.2507;0.5232;
1299.9000;0.2507;0.5232;
1300.2000;0.2532;0.5329;
1300.5000;0.2507;0.5305;
1300.8000;0.2499;0.5401;
1301.1000;0.2532;0.5474;
1301.4000;0.2483;0.5426;
1301.7000;0.2572;0.5644;
1302.0000;0.2507;0.5474;
1302.3000;0.2483;0.5377;
1302.6000;0.2523;0.5498;
1302.9000;0.2491;0.5450;
1303.2000;0.2507;0.5401;
1303.5000;0.2515;0.5498;
1303.8000;0.2483;0.5426;
1304.1000;0.2499;0.5450;
1304.4000;0.2483;0.5474;
1304.7000;0.2483;0.5450;
1305.0000;0.2483;0.5523;
1305.3000;0.2499;0.5523;
1305.6000;0.2499;0.5498;
1305.9000;0.2499;0.5474;
1306.2000;0.2466;0.5401;
1306.5000;0.2507;0.5450;
1306.8000;0.2491;0.5450;
1307.1000;0.2499;0.5474;
1307.4000;0.2532;0.5523;
1307.7000;0.2523;0.5595;
1308.0000;0.2507;0.5595;
1308.3000;0.2507;0.5571;
1308.6000;0.2499;0.5450;
1308.9000;0.2523;0.5644;
1309.2000;0.2523;0.5595;
1309.5000;0.2515;0.5523;
1309.8000;0.2507;0.5474;
1310.1000;0.2499;0.5474;
1310.4000;0.2499;0.5498;
1310.7000;0.2507;0.5571;
1311.0000;0.2507;0.5523;
1311.3000;0.2564;0.5668;
1311.6000;0.2507;0.5595;
1311.9000;0.2515;0.5619;
1312.2000;0.2499;0.5523;
1312.5000;0.2515;0.5523;
1312.8000;0.2515;0.5571;
1313.1000;0.2491;0.5523;
1313.4000;0.2499;0.5547;
1313.7000;0.2507;0.5619;
1314.0000;0.2507;0.5644;
1314.3000;0.2491;0.5644;
1314.6000;0.2491;0.5498;
1314.9000;0.2491;0.5523;
1315.2000;0.2499;0.5523;
1315.5000;0.2491;0.5426;
1315.8000;0.2483;0.5450;
1316.1000;0.2499;0.5474;
1316.4000;0.2499;0.5474;
1316.7000;0.2507;0.5401;
1317.0000;0.2507;0.5377;
1317.3000;0.2491;0.5329;
1317.6000;0.2483;0.5401;
1317.9000;0.2507;0.5547;
1318.2000;0.2499;0.5498;
1318.5000;0.2507;0.5450;
1318.8000;0.2491;0.5377;
1319.1000;0.2491;0.5329;
1319.4000;0.2499;0.5329;
1319.7000;0.2491;0.5232;
1320.0000;0.2499;0.5280;
1320.3000;0.2499;0.5353;
1320.6000;0.2507;0.5401;
1320.9000;0.2499;0.5426;
1321.2000;0.2507;0.5498;
1321.5000;0.2507;0.5426;
1321.8000;0.2515;0.5426;
1322.1000;0.2483;0.5329;
1322.4000;0.2499;0.5305;
1322.7000;0.2499;0.5256;
1323.0000;0.2532;0.5329;
1323.3000;0.2548;0.5305;
1323.6000;0.2523;0.5256;
1323.9000;0.2523;0.5353;
1324.2000;0.2491;0.5208;
1324.5000;0.2523;0.5305;
1324.8000;0.2499;0.5183;
1325.1000;0.2515;0.5087;
1325.4000;0.2385;0.4747;
1325.7000;0.2450;0.4965;
1326.0000;0.2515;0.5159;
1326.3000;0.2475;0.5135;
1326.6000;0.2515;0.5280;
1326.9000;0.2491;0.5280;
1327.2000;0.2532;0.5426;
1327.5000;0.2499;0.5401;
1327.8000;0.2515;0.5401;
1328.1000;0.2483;0.5377;
1328.4000;0.2507;0.5498;
1328.7000;0.2491;0.5474;
1329.0000;0.2507;0.5474;
1329.3000;0.2499;0.5450;
1329.6000;0.2507;0.5450;
1329.9000;0.2507;0.5498;
1330.2000;0.2499;0.5426;
1330.5000;0.2499;0.5305;
1330.8000;0.2507;0.5208;
1331.1000;0.2523;0.5232;
1331.4000;0.2507;0.5232;
1331.7000;0.2499;0.5305;
1332.0000;0.2458;0.5183;
1332.3000;0.2499;0.5159;
1332.6000;0.2507;0.5232;
1332.9000;0.2475;0.5183;
1333.2000;0.2523;0.5280;
1333.5000;0.2515;0.5280;
1333.8000;0.2515;0.5305;
1334.1000;0.2515;0.5305;
1334.4000;0.2499;0.5232;
1334.7000;0.2532;0.5329;
1335.0000;0.2499;0.5280;
1335.3000;0.2483;0.5305;
1335.6000;0.2491;0.5401;
1335.9000;0.2507;0.5450;
1336.2000;0.2507;0.5498;
1336.5000;0.2466;0.5474;
1336.8000;0.2507;0.5450;
1337.1000;0.2483;0.5329;
1337.4000;0.2475;0.5353;
1337.7000;0.2507;0.5426;
1338.0000;0.2507;0.5377;
1338.3000;0.2580;0.5571;
1338.6000;0.2515;0.5377;
1338.9000;0.2507;0.5426;
1339.2000;0.2475;0.5329;
1339.5000;0.2515;0.5426;
1339.8000;0.2499;0.5353;
1340.1000;0.2507;0.5377;
1340.4000;0.2434;0.5280;
1340.7000;0.2483;0.5571;
1341.0000;0.2458;0.5547;
1341.3000;0.2507;0.5619;
1341.6000;0.2523;0.5547;
1341.9000;0.2532;0.5474;
1342.2000;0.2507;0.5329;
1342.5000;0.2499;0.5329;
1342.8000;0.2507;0.5426;
1343.1000;0.2507;0.5450;
1343.4000;0.2515;0.5450;
1343.7000;0.2548;0.5498;
1344.0000;0.2491;0.5353;
1344.3000;0.2491;0.5377;
1344.6000;0.2507;0.5426;
1344.9000;0.2523;0.5474;
1345.2000;0.2499;0.5474;
1345.5000;0.2499;0.5474;
1345.8000;0.2466;0.5426;
1346.1000;0.2507;0.5547;
1346.4000;0.2507;0.5571;
1346.7000;0.2491;0.5523;
1347.0000;0.2499;0.5547;
1347.3000;0.2491;0.5498;
1347.6000;0.2499;0.5474;
1347.9000;0.2507;0.5426;
1348.2000;0.2458;0.5353;
1348.5000;0.2507;0.5426;
1348.8000;0.2507;0.5474;
1349.1000;0.2491;0.5426;
1349.4000;0.2466;0.5377;
1349.7000;0.2507;0.5498;
1350.0000;0.2507;0.5571;
1350.3000;0.2507;0.5571;
1350.6000;0.2491;0.5595;
1350.9000;0.2548;0.5741;
1351.2000;0.2499;0.5523;
1351.5000;0.2507;0.5571;
1351.8000;0.2491;0.5595;
1352.1000;0.2507;0.5595;
1352.4000;0.2499;0.5498;
1352.7000;0.2507;0.5426;
1353.0000;0.2491;0.5353;
1353.3000;0.2507;0.5426;
1353.6000;0.2532;0.5523;
1353.9000;0.2523;0.5547;
1354.2000;0.2523;0.5474;
1354.5000;0.2499;0.5474;
1354.8000;0.2580;0.5692;
1355.1000;0.2499;0.5474;
1355.4000;0.2499;0.5474;
1355.7000;0.2523;0.5644;
1356.0000;0.2483;0.5571;
1356.3000;0.2491;0.5547;
1356.6000;0.2589;0.5765;
1356.9000;0.2540;0.5595;
1357.2000;0.2507;0.5450;
1357.5000;0.2507;0.5426;
1357.8000;0.2499;0.5426;
1358.1000;0.2426;0.5135;
1358.4000;0.2621;0.5595;
1358.7000;0.2613;0.5474;
1359.0000;0.2515;0.5305;
1359.3000;0.2507;0.5401;
1359.6000;0.2507;0.5401;
1359.9000;0.2475;0.5426;
1360.2000;0.2507;0.5547;
1360.5000;0.2523;0.5595;
1360.8000;0.2507;0.5523;
1361.1000;0.2426;0.5305;
1361.4000;0.2499;0.5619;
1361.7000;0.2491;0.5523;
1362.0000;0.2507;0.5547;
1362.3000;0.2605;0.5789;
1362.6000;0.2507;0.5498;
1362.9000;0.2507;0.5474;
1363.2000;0.2515;0.5474;
1363.5000;0.2507;0.5426;
1363.8000;0.2507;0.5401;
1364.1000;0.2507;0.5426;
1364.4000;0.2523;0.5474;
1364.7000;0.2499;0.5474;
1365.0000;0.2515;0.5474;
1365.3000;0.2507;0.5450;
1365.6000;0.2564;0.5692;
1365.9000;0.2499;0.5474;
1366.2000;0.2483;0.5450;
1366.5000;0.2499;0.5474;
1366.8000;0.2499;0.5450;
1367.1000;0.2491;0.5401;
1367.4000;0.2483;0.5401;
1367.7000;0.2483;0.5329;
1368.0000;0.2499;0.5401;
1368.3000;0.2499;0.5280;
1368.6000;0.2507;0.5377;
1368.9000;0.2491;0.5401;
1369.2000;0.2523;0.5450;
1369.5000;0.2499;0.5377;
1369.8000;0.2499;0.5353;
1370.1000;0.2499;0.5329;
1370.4000;0.2507;0.5353;
1370.7000;0.2458;0.5232;
1371.0000;0.2499;0.5329;
1371.3000;0.2491;0.5305;
1371.6000;0.2491;0.5353;
1371.9000;0.2515;0.5498;
1372.2000;0.2491;0.5474;
1372.5000;0.2475;0.5450;
1372.8000;0.2499;0.5498;
1373.1000;0.2532;0.5498;
1373.4000;0.2515;0.5498;
1373.7000;0.2458;0.5401;
1374.0000;0.2499;0.5450;
1374.3000;0.2507;0.5450;
1374.6000;0.2458;0.5329;
1374.9000;0.2499;0.5474;
1375.2000;0.2523;0.5547;
1375.5000;0.2499;0.5498;
1375.8000;0.2580;0.5619;
1376.1000;0.2507;0.5401;
1376.4000;0.2507;0.5401;
1376.7000;0.2507;0.5426;
1377.0000;0.2475;0.5353;
1377.3000;0.2499;0.5474;
1377.6000;0.2499;0.5474;
1377.9000;0.2515;0.5571;
1378.2000;0.2491;0.5523;
1378.5000;0.2515;0.5595;
1378.8000;0.2385;0.5377;
1379.1000;0.2548;0.5692;
1379.4000;0.2515;0.5571;
1379.7000;0.2515;0.5547;
1380.0000;0.2548;0.5571;
1380.3000;0.2507;0.5450;
1380.6000;0.2507;0.5426;
1380.9000;0.2507;0.5426;
1381.2000;0.2499;0.5426;
1381.5000;0.2548;0.5450;
1381.8000;0.2483;0.5232;
1382.1000;0.2507;0.5377;
1382.4000;0.2507;0.5450;
1382.7000;0.2499;0.5474;
1383.0000;0.2507;0.5450;
1383.3000;0.2507;0.5450;
1383.6000;0.2507;0.5329;
1383.9000;0.2499;0.5353;
1384.2000;0.2515;0.5426;
1384.5000;0.2491;0.5353;
1384.8000;0.2515;0.5401;
1385.1000;0.2507;0.5377;
1385.4000;0.2515;0.5353;
1385.7000;0.2507;0.5256;
1386.0000;0.2507;0.5280;
1386.3000;0.2499;0.5329;
1386.6000;0.2499;0.5401;
1386.9000;0.2499;0.5401;
1387.2000;0.2491;0.5353;
1387.5000;0.2491;0.5353;
1387.8000;0.2483;0.5305;
1388.1000;0.2515;0.5280;
1388.4000;0.2515;0.5329;
1388.7000;0.2507;0.5401;
1389.0000;0.2499;0.5401;
1389.3000;0.2515;0.5426;
1389.6000;0.2523;0.5450;
1389.9000;0.2475;0.5329;
1390.2000;0.2515;0.5474;
1390.5000;0.2491;0.5305;
1390.8000;0.2507;0.5280;
1391.1000;0.2507;0.5305;
1391.4000;0.2483;0.5256;
1391.7000;0.2515;0.5183;
1392.0000;0.2515;0.5087;
1392.3000;0.2532;0.5111;
1392.6000;0.2515;0.5159;
1392.9000;0.2523;0.5208;
1393.2000;0.2523;0.5256;
1393.5000;0.2507;0.5280;
1393.8000;0.2499;0.5208;
1394.1000;0.2491;0.5305;
1394.4000;0.2499;0.5377;
1394.7000;0.2499;0.5377;
1395.0000;0.2515;0.5353;
1395.3000;0.2499;0.5305;
1395.6000;0.2532;0.5329;
1395.9000;0.2491;0.5280;
1396.2000;0.2540;0.5377;
1396.5000;0.2466;0.5353;
1396.8000;0.2475;0.5377;
1397.1000;0.2499;0.5426;
1397.4000;0.2621;0.5741;
1397.7000;0.2499;0.5450;
1398.0000;0.2499;0.5474;
1398.3000;0.2499;0.5450;
1398.6000;0.2507;0.5353;
1398.9000;0.2507;0.5329;
1399.2000;0.2507;0.5305;
1399.5000;0.2475;0.5280;
1399.8000;0.2507;0.5426;
