time/ms;Fluo/V;P700 deltaI/I x10³;
-199.8000;0.2515;0.5934;
-199.5000;0.2589;0.6152;
-199.2000;0.2540;0.6007;
-198.9000;0.2499;0.5862;
-198.6000;0.2548;0.5983;
-198.3000;0.2523;0.6055;
-198.0000;0.2532;0.6104;
-197.7000;0.2540;0.6007;
-197.4000;0.2613;0.6249;
-197.1000;0.2532;0.6080;
-196.8000;0.2523;0.6055;
-196.5000;0.2523;0.6031;
-196.2000;0.2532;0.6055;
-195.9000;0.2515;0.5934;
-195.6000;0.2540;0.5983;
-195.3000;0.2540;0.6031;
-195.0000;0.2548;0.6031;
-194.7000;0.2540;0.6055;
-194.4000;0.2572;0.6128;
-194.1000;0.2523;0.6080;
-193.8000;0.2548;0.6152;
-193.5000;0.2556;0.6055;
-193.2000;0.2515;0.5983;
-192.9000;0.2523;0.6055;
-192.6000;0.2540;0.5959;
-192.3000;0.2532;0.5983;
-192.0000;0.2540;0.6031;
-191.7000;0.2532;0.6055;
-191.4000;0.2532;0.6055;
-191.1000;0.2540;0.6104;
-190.8000;0.2515;0.6007;
-190.5000;0.2556;0.6080;
-190.2000;0.2515;0.5959;
-189.9000;0.2548;0.6152;
-189.6000;0.2523;0.6055;
-189.3000;0.2540;0.6055;
-189.0000;0.2540;0.6080;
-188.7000;0.2564;0.6128;
-188.4000;0.2523;0.6055;
-188.1000;0.2532;0.6152;
-187.8000;0.2540;0.6152;
-187.5000;0.2540;0.6080;
-187.2000;0.2548;0.6128;
-186.9000;0.2540;0.6104;
-186.6000;0.2564;0.6201;
-186.3000;0.2556;0.6152;
-186.0000;0.2556;0.6152;
-185.7000;0.2548;0.6201;
-185.4000;0.2507;0.6055;
-185.1000;0.2572;0.6273;
-184.8000;0.2540;0.6177;
-184.5000;0.2540;0.6298;
-184.2000;0.2548;0.6322;
-183.9000;0.2523;0.6298;
-183.6000;0.2556;0.6419;
-183.3000;0.2556;0.6443;
-183.0000;0.2540;0.6395;
-182.7000;0.2532;0.6298;
-182.4000;0.2556;0.6298;
-182.1000;0.2540;0.6201;
-181.8000;0.2540;0.6177;
-181.5000;0.2540;0.6152;
-181.2000;0.2556;0.6225;
-180.9000;0.2556;0.6298;
-180.6000;0.2540;0.6225;
-180.3000;0.2532;0.6128;
-180.0000;0.2540;0.6104;
-179.7000;0.2499;0.5959;
-179.4000;0.2556;0.6201;
-179.1000;0.2540;0.6225;
-178.8000;0.2532;0.6152;
-178.5000;0.2580;0.6322;
-178.2000;0.2540;0.6249;
-177.9000;0.2540;0.6273;
-177.6000;0.2532;0.6201;
-177.3000;0.2540;0.6201;
-177.0000;0.2548;0.6225;
-176.7000;0.2564;0.6249;
-176.4000;0.2597;0.6273;
-176.1000;0.2540;0.6080;
-175.8000;0.2540;0.6031;
-175.5000;0.2523;0.5886;
-175.2000;0.2523;0.5934;
-174.9000;0.2540;0.5910;
-174.6000;0.2523;0.5983;
-174.3000;0.2491;0.5910;
-174.0000;0.2515;0.6055;
-173.7000;0.2515;0.6055;
-173.4000;0.2629;0.6395;
-173.1000;0.2556;0.6225;
-172.8000;0.2548;0.6152;
-172.5000;0.2523;0.6177;
-172.2000;0.2532;0.6152;
-171.9000;0.2540;0.6225;
-171.6000;0.2646;0.6419;
-171.3000;0.2532;0.6080;
-171.0000;0.2548;0.6177;
-170.7000;0.2556;0.6225;
-170.4000;0.2605;0.6395;
-170.1000;0.2532;0.6225;
-169.8000;0.2540;0.6128;
-169.5000;0.2507;0.6055;
-169.2000;0.2556;0.6201;
-168.9000;0.2532;0.6249;
-168.6000;0.2540;0.6225;
-168.3000;0.2523;0.6177;
-168.0000;0.2548;0.6225;
-167.7000;0.2556;0.6225;
-167.4000;0.2540;0.6128;
-167.1000;0.2532;0.6152;
-166.8000;0.2532;0.6080;
-166.5000;0.2540;0.6055;
-166.2000;0.2540;0.5983;
-165.9000;0.2548;0.5886;
-165.6000;0.2540;0.5983;
-165.3000;0.2515;0.5862;
-165.0000;0.2548;0.5910;
-164.7000;0.2532;0.5910;
-164.4000;0.2564;0.6080;
-164.1000;0.2548;0.6055;
-163.8000;0.2540;0.6080;
-163.5000;0.2515;0.6007;
-163.2000;0.2548;0.6152;
-162.9000;0.2540;0.6177;
-162.6000;0.2548;0.6249;
-162.3000;0.2450;0.5910;
-162.0000;0.2483;0.6031;
-161.7000;0.2556;0.6177;
-161.4000;0.2483;0.5959;
-161.1000;0.2540;0.6007;
-160.8000;0.2548;0.5983;
-160.5000;0.2556;0.6055;
-160.2000;0.2532;0.6007;
-159.9000;0.2548;0.6104;
-159.6000;0.2532;0.6055;
-159.3000;0.2540;0.6031;
-159.0000;0.2532;0.6031;
-158.7000;0.2523;0.5886;
-158.4000;0.2540;0.5959;
-158.1000;0.2548;0.6055;
-157.8000;0.2556;0.6104;
-157.5000;0.2540;0.6080;
-157.2000;0.2523;0.6031;
-156.9000;0.2540;0.6128;
-156.6000;0.2556;0.6128;
-156.3000;0.2540;0.6055;
-156.0000;0.2540;0.6055;
-155.7000;0.2564;0.6031;
-155.4000;0.2548;0.6007;
-155.1000;0.2532;0.6080;
-154.8000;0.2523;0.6080;
-154.5000;0.2532;0.6031;
-154.2000;0.2532;0.6007;
-153.9000;0.2556;0.6031;
-153.6000;0.2548;0.6007;
-153.3000;0.2556;0.5983;
-153.0000;0.2532;0.5983;
-152.7000;0.2556;0.6104;
-152.4000;0.2564;0.6128;
-152.1000;0.2556;0.6104;
-151.8000;0.2523;0.6080;
-151.5000;0.2548;0.6177;
-151.2000;0.2556;0.6273;
-150.9000;0.2532;0.6273;
-150.6000;0.2540;0.6322;
-150.3000;0.2564;0.6322;
-150.0000;0.2532;0.6225;
-149.7000;0.2540;0.6177;
-149.4000;0.2475;0.6007;
-149.1000;0.2540;0.6273;
-148.8000;0.2548;0.6273;
-148.5000;0.2548;0.6322;
-148.2000;0.2515;0.6177;
-147.9000;0.2548;0.6298;
-147.6000;0.2483;0.6031;
-147.3000;0.2540;0.6152;
-147.0000;0.2556;0.6104;
-146.7000;0.2523;0.5983;
-146.4000;0.2491;0.5886;
-146.1000;0.2540;0.6080;
-145.8000;0.2540;0.6055;
-145.5000;0.2540;0.6031;
-145.2000;0.2548;0.6080;
-144.9000;0.2475;0.5837;
-144.6000;0.2532;0.6055;
-144.3000;0.2548;0.5983;
-144.0000;0.2532;0.5959;
-143.7000;0.2532;0.6007;
-143.4000;0.2532;0.6031;
-143.1000;0.2450;0.5765;
-142.8000;0.2540;0.5886;
-142.5000;0.2523;0.5837;
-142.2000;0.2523;0.5741;
-141.9000;0.2507;0.5619;
-141.6000;0.2532;0.5716;
-141.3000;0.2572;0.5813;
-141.0000;0.2540;0.5741;
-140.7000;0.2532;0.5789;
-140.4000;0.2548;0.5862;
-140.1000;0.2548;0.5910;
-139.8000;0.2532;0.5934;
-139.5000;0.2540;0.6007;
-139.2000;0.2597;0.6249;
-138.9000;0.2532;0.6055;
-138.6000;0.2523;0.6104;
-138.3000;0.2564;0.6177;
-138.0000;0.2515;0.6007;
-137.7000;0.2540;0.6055;
-137.4000;0.2556;0.6201;
-137.1000;0.2532;0.6128;
-136.8000;0.2589;0.6322;
-136.5000;0.2540;0.6201;
-136.2000;0.2670;0.6516;
-135.9000;0.2556;0.6225;
-135.6000;0.2515;0.6177;
-135.3000;0.2523;0.6201;
-135.0000;0.2540;0.6249;
-134.7000;0.2548;0.6249;
-134.4000;0.2540;0.6298;
-134.1000;0.2532;0.6177;
-133.8000;0.2540;0.6152;
-133.5000;0.2523;0.6104;
-133.2000;0.2548;0.6104;
-132.9000;0.2466;0.5886;
-132.6000;0.2597;0.6177;
-132.3000;0.2548;0.6055;
-132.0000;0.2515;0.6104;
-131.7000;0.2409;0.5934;
-131.4000;0.2540;0.6322;
-131.1000;0.2548;0.6273;
-130.8000;0.2556;0.6201;
-130.5000;0.2613;0.6273;
-130.2000;0.2540;0.6055;
-129.9000;0.2507;0.6007;
-129.6000;0.2548;0.6201;
-129.3000;0.2556;0.6225;
-129.0000;0.2540;0.6201;
-128.7000;0.2523;0.6201;
-128.4000;0.2556;0.6201;
-128.1000;0.2556;0.6346;
-127.8000;0.2540;0.6322;
-127.5000;0.2532;0.6273;
-127.2000;0.2580;0.6370;
-126.9000;0.2540;0.6249;
-126.6000;0.2483;0.5983;
-126.3000;0.2523;0.6031;
-126.0000;0.2491;0.5910;
-125.7000;0.2564;0.6080;
-125.4000;0.2564;0.6055;
-125.1000;0.2556;0.6031;
-124.8000;0.2540;0.5959;
-124.5000;0.2556;0.6055;
-124.2000;0.2515;0.6007;
-123.9000;0.2442;0.5934;
-123.6000;0.2532;0.6177;
-123.3000;0.2523;0.6152;
-123.0000;0.2450;0.6007;
-122.7000;0.2540;0.6249;
-122.4000;0.2532;0.6201;
-122.1000;0.2532;0.6249;
-121.8000;0.2548;0.6249;
-121.5000;0.2548;0.6201;
-121.2000;0.2556;0.6249;
-120.9000;0.2532;0.6201;
-120.6000;0.2532;0.6177;
-120.3000;0.2548;0.6152;
-120.0000;0.2532;0.6055;
-119.7000;0.2556;0.6152;
-119.4000;0.2548;0.6080;
-119.1000;0.2540;0.6007;
-118.8000;0.2532;0.5959;
-118.5000;0.2580;0.6031;
-118.2000;0.2540;0.6007;
-117.9000;0.2540;0.6080;
-117.6000;0.2515;0.6152;
-117.3000;0.2507;0.6201;
-117.0000;0.2540;0.6298;
-116.7000;0.2532;0.6322;
-116.4000;0.2548;0.6419;
-116.1000;0.2548;0.6370;
-115.8000;0.2556;0.6370;
-115.5000;0.2548;0.6322;
-115.2000;0.2483;0.6104;
-114.9000;0.2572;0.6298;
-114.6000;0.2564;0.6370;
-114.3000;0.2621;0.6491;
-114.0000;0.2540;0.6249;
-113.7000;0.2532;0.6201;
-113.4000;0.2556;0.6128;
-113.1000;0.2540;0.6031;
-112.8000;0.2523;0.6080;
-112.5000;0.2523;0.6055;
-112.2000;0.2540;0.6104;
-111.9000;0.2548;0.6128;
-111.6000;0.2540;0.6128;
-111.3000;0.2540;0.6177;
-111.0000;0.2523;0.6225;
-110.7000;0.2540;0.6201;
-110.4000;0.2564;0.6273;
-110.1000;0.2556;0.6177;
-109.8000;0.2532;0.6055;
-109.5000;0.2564;0.6128;
-109.2000;0.2540;0.6128;
-108.9000;0.2556;0.6298;
-108.6000;0.2515;0.6298;
-108.3000;0.2540;0.6370;
-108.0000;0.2564;0.6419;
-107.7000;0.2556;0.6370;
-107.4000;0.2548;0.6249;
-107.1000;0.2507;0.6128;
-106.8000;0.2540;0.6201;
-106.5000;0.2580;0.6273;
-106.2000;0.2532;0.6104;
-105.9000;0.2532;0.6152;
-105.6000;0.2532;0.6152;
-105.3000;0.2548;0.6273;
-105.0000;0.2523;0.6273;
-104.7000;0.2515;0.6201;
-104.4000;0.2580;0.6443;
-104.1000;0.2532;0.6273;
-103.8000;0.2540;0.6370;
-103.5000;0.2532;0.6249;
-103.2000;0.2540;0.6225;
-102.9000;0.2629;0.6516;
-102.6000;0.2523;0.6249;
-102.3000;0.2532;0.6273;
-102.0000;0.2532;0.6298;
-101.7000;0.2556;0.6249;
-101.4000;0.2548;0.6201;
-101.1000;0.2548;0.6152;
-100.8000;0.2458;0.5983;
-100.5000;0.2523;0.6273;
-100.2000;0.2548;0.6298;
-99.9000;0.2548;0.6298;
-99.6000;0.2540;0.6249;
-99.3000;0.2523;0.6201;
-99.0000;0.2515;0.6128;
-98.7000;0.2540;0.6201;
-98.4000;0.2523;0.6152;
-98.1000;0.2548;0.6249;
-97.8000;0.2523;0.6152;
-97.5000;0.2548;0.6177;
-97.2000;0.2548;0.6177;
-96.9000;0.2523;0.6152;
-96.6000;0.2548;0.6177;
-96.3000;0.2556;0.6322;
-96.0000;0.2523;0.6177;
-95.7000;0.2499;0.6128;
-95.4000;0.2556;0.6273;
-95.1000;0.2540;0.6298;
-94.8000;0.2572;0.6322;
-94.5000;0.2515;0.6104;
-94.2000;0.2523;0.6152;
-93.9000;0.2532;0.6177;
-93.6000;0.2548;0.6201;
-93.3000;0.2548;0.6225;
-93.0000;0.2540;0.6249;
-92.7000;0.2540;0.6225;
-92.4000;0.2532;0.6080;
-92.1000;0.2572;0.6201;
-91.8000;0.2540;0.6031;
-91.5000;0.2532;0.6007;
-91.2000;0.2532;0.6007;
-90.9000;0.2629;0.6249;
-90.6000;0.2523;0.5837;
-90.3000;0.2540;0.5886;
-90.0000;0.2532;0.5813;
-89.7000;0.2556;0.5934;
-89.4000;0.2548;0.5837;
-89.1000;0.2523;0.5813;
-88.8000;0.2466;0.5644;
-88.5000;0.2532;0.5837;
-88.2000;0.2515;0.5813;
-87.9000;0.2556;0.5862;
-87.6000;0.2499;0.5741;
-87.3000;0.2556;0.5837;
-87.0000;0.2564;0.5886;
-86.7000;0.2540;0.5837;
-86.4000;0.2548;0.5862;
-86.1000;0.2540;0.5837;
-85.8000;0.2540;0.5862;
-85.5000;0.2540;0.5886;
-85.2000;0.2556;0.6031;
-84.9000;0.2540;0.6080;
-84.6000;0.2572;0.6177;
-84.3000;0.2523;0.6055;
-84.0000;0.2523;0.6080;
-83.7000;0.2564;0.6128;
-83.4000;0.2605;0.6201;
-83.1000;0.2556;0.6104;
-82.8000;0.2532;0.6031;
-82.5000;0.2466;0.5910;
-82.2000;0.2523;0.6055;
-81.9000;0.2499;0.6031;
-81.6000;0.2548;0.6055;
-81.3000;0.2548;0.6104;
-81.0000;0.2532;0.6031;
-80.7000;0.2556;0.6128;
-80.4000;0.2523;0.6080;
-80.1000;0.2548;0.6201;
-79.8000;0.2597;0.6273;
-79.5000;0.2556;0.6177;
-79.2000;0.2548;0.6201;
-78.9000;0.2556;0.6225;
-78.6000;0.2556;0.6177;
-78.3000;0.2556;0.6201;
-78.0000;0.2564;0.6273;
-77.7000;0.2580;0.6322;
-77.4000;0.2475;0.5983;
-77.1000;0.2564;0.6249;
-76.8000;0.2532;0.6128;
-76.5000;0.2532;0.6104;
-76.2000;0.2532;0.6128;
-75.9000;0.2556;0.6104;
-75.6000;0.2434;0.5765;
-75.3000;0.2548;0.6080;
-75.0000;0.2499;0.5910;
-74.7000;0.2540;0.6031;
-74.4000;0.2548;0.6104;
-74.1000;0.2548;0.6201;
-73.8000;0.2556;0.6249;
-73.5000;0.2548;0.6249;
-73.2000;0.2540;0.6249;
-72.9000;0.2507;0.6177;
-72.6000;0.2564;0.6298;
-72.3000;0.2532;0.6225;
-72.0000;0.2564;0.6273;
-71.7000;0.2556;0.6249;
-71.4000;0.2532;0.6128;
-71.1000;0.2572;0.6225;
-70.8000;0.2483;0.6055;
-70.5000;0.2523;0.6225;
-70.2000;0.2450;0.5910;
-69.9000;0.2540;0.6177;
-69.6000;0.2556;0.6177;
-69.3000;0.2556;0.6128;
-69.0000;0.2523;0.6080;
-68.7000;0.2556;0.6201;
-68.4000;0.2548;0.6177;
-68.1000;0.2613;0.6395;
-67.8000;0.2523;0.6055;
-67.5000;0.2523;0.6104;
-67.2000;0.2548;0.6249;
-66.9000;0.2532;0.6201;
-66.6000;0.2564;0.6322;
-66.3000;0.2548;0.6249;
-66.0000;0.2532;0.6249;
-65.7000;0.2532;0.6177;
-65.4000;0.2548;0.6080;
-65.1000;0.2540;0.6055;
-64.8000;0.2572;0.6104;
-64.5000;0.2548;0.6080;
-64.2000;0.2572;0.6031;
-63.9000;0.2548;0.6007;
-63.6000;0.2515;0.5886;
-63.3000;0.2540;0.6007;
-63.0000;0.2540;0.6055;
-62.7000;0.2532;0.6128;
-62.4000;0.2515;0.6104;
-62.1000;0.2532;0.6152;
-61.8000;0.2540;0.6249;
-61.5000;0.2491;0.6128;
-61.2000;0.2540;0.6201;
-60.9000;0.2548;0.6249;
-60.6000;0.2548;0.6346;
-60.3000;0.2548;0.6419;
-60.0000;0.2548;0.6322;
-59.7000;0.2540;0.6346;
-59.4000;0.2548;0.6225;
-59.1000;0.2540;0.6225;
-58.8000;0.2540;0.6177;
-58.5000;0.2540;0.6128;
-58.2000;0.2540;0.6104;
-57.9000;0.2548;0.6201;
-57.6000;0.2532;0.6128;
-57.3000;0.2532;0.6104;
-57.0000;0.2532;0.6055;
-56.7000;0.2523;0.6055;
-56.4000;0.2532;0.6152;
-56.1000;0.2523;0.6201;
-55.8000;0.2564;0.6322;
-55.5000;0.2507;0.6080;
-55.2000;0.2450;0.5837;
-54.9000;0.2499;0.5983;
-54.6000;0.2540;0.6128;
-54.3000;0.2556;0.6273;
-54.0000;0.2540;0.6298;
-53.7000;0.2548;0.6322;
-53.4000;0.2548;0.6273;
-53.1000;0.2548;0.6370;
-52.8000;0.2580;0.6491;
-52.5000;0.2507;0.6225;
-52.2000;0.2540;0.6322;
-51.9000;0.2548;0.6370;
-51.6000;0.2556;0.6370;
-51.3000;0.2540;0.6298;
-51.0000;0.2523;0.6298;
-50.7000;0.2572;0.6346;
-50.4000;0.2515;0.6273;
-50.1000;0.2670;0.6709;
-49.8000;0.2507;0.6322;
-49.5000;0.2564;0.6370;
-49.2000;0.2548;0.6298;
-48.9000;0.2548;0.6298;
-48.6000;0.2515;0.6249;
-48.3000;0.2564;0.6370;
-48.0000;0.2556;0.6273;
-47.7000;0.2597;0.6322;
-47.4000;0.2532;0.6031;
-47.1000;0.2523;0.6031;
-46.8000;0.2532;0.6031;
-46.5000;0.2532;0.6055;
-46.2000;0.2532;0.6128;
-45.9000;0.2507;0.6104;
-45.6000;0.2556;0.6128;
-45.3000;0.2540;0.6104;
-45.0000;0.2572;0.6128;
-44.7000;0.2540;0.6007;
-44.4000;0.2532;0.5934;
-44.1000;0.2540;0.5886;
-43.8000;0.2548;0.5789;
-43.5000;0.2523;0.5789;
-43.2000;0.2532;0.5837;
-42.9000;0.2548;0.5910;
-42.6000;0.2515;0.5837;
-42.3000;0.2540;0.5983;
-42.0000;0.2540;0.6031;
-41.7000;0.2572;0.6128;
-41.4000;0.2540;0.6128;
-41.1000;0.2532;0.6177;
-40.8000;0.2540;0.6104;
-40.5000;0.2540;0.6177;
-40.2000;0.2556;0.6201;
-39.9000;0.2532;0.6080;
-39.6000;0.2548;0.6152;
-39.3000;0.2548;0.6031;
-39.0000;0.2556;0.6055;
-38.7000;0.2564;0.6225;
-38.4000;0.2572;0.6201;
-38.1000;0.2532;0.6128;
-37.8000;0.2548;0.6128;
-37.5000;0.2540;0.6055;
-37.2000;0.2532;0.6031;
-36.9000;0.2532;0.6080;
-36.6000;0.2483;0.5934;
-36.3000;0.2556;0.6080;
-36.0000;0.2564;0.6104;
-35.7000;0.2532;0.6007;
-35.4000;0.2548;0.6055;
-35.1000;0.2556;0.5959;
-34.8000;0.2532;0.5862;
-34.5000;0.2540;0.5862;
-34.2000;0.2532;0.5837;
-33.9000;0.2540;0.5934;
-33.6000;0.2556;0.6031;
-33.3000;0.2556;0.6007;
-33.0000;0.2548;0.5910;
-32.7000;0.2548;0.5959;
-32.4000;0.2532;0.5983;
-32.1000;0.2556;0.6152;
-31.8000;0.2540;0.6104;
-31.5000;0.2515;0.6104;
-31.2000;0.2532;0.6152;
-30.9000;0.2580;0.6152;
-30.6000;0.2523;0.6031;
-30.3000;0.2548;0.6152;
-30.0000;0.2507;0.6080;
-29.7000;0.2540;0.6128;
-29.4000;0.2556;0.6104;
-29.1000;0.2548;0.6080;
-28.8000;0.2556;0.6177;
-28.5000;0.2556;0.6128;
-28.2000;0.2564;0.6152;
-27.9000;0.2523;0.5983;
-27.6000;0.2564;0.5983;
-27.3000;0.2564;0.5983;
-27.0000;0.2466;0.5692;
-26.7000;0.2548;0.5934;
-26.4000;0.2548;0.5983;
-26.1000;0.2548;0.6007;
-25.8000;0.2523;0.5886;
-25.5000;0.2662;0.6273;
-25.2000;0.2548;0.6007;
-24.9000;0.2556;0.6031;
-24.6000;0.2548;0.6055;
-24.3000;0.2532;0.6055;
-24.0000;0.2523;0.6055;
-23.7000;0.2548;0.6128;
-23.4000;0.2572;0.6080;
-23.1000;0.2540;0.5983;
-22.8000;0.2532;0.5910;
-22.5000;0.2540;0.5910;
-22.2000;0.2532;0.5813;
-21.9000;0.2540;0.5789;
-21.6000;0.2532;0.5716;
-21.3000;0.2540;0.5692;
-21.0000;0.2564;0.5765;
-20.7000;0.2532;0.5619;
-20.4000;0.2580;0.5789;
-20.1000;0.2540;0.5692;
-19.8000;0.2556;0.5837;
-19.5000;0.2523;0.5716;
-19.2000;0.2548;0.5813;
-18.9000;0.2556;0.5837;
-18.6000;0.2540;0.5765;
-18.3000;0.2556;0.5716;
-18.0000;0.2572;0.5741;
-17.7000;0.2515;0.5644;
-17.4000;0.2523;0.5668;
-17.1000;0.2548;0.5765;
-16.8000;0.2540;0.5813;
-16.5000;0.2540;0.5910;
-16.2000;0.2548;0.6007;
-15.9000;0.2556;0.6055;
-15.6000;0.2523;0.5959;
-15.3000;0.2532;0.6007;
-15.0000;0.2532;0.5934;
-14.7000;0.2540;0.5934;
-14.4000;0.2532;0.5959;
-14.1000;0.2532;0.6007;
-13.8000;0.2548;0.6031;
-13.5000;0.2540;0.6055;
-13.2000;0.2540;0.6055;
-12.9000;0.2540;0.6080;
-12.6000;0.2515;0.6031;
-12.3000;0.2564;0.6104;
-12.0000;0.2556;0.6031;
-11.7000;0.2564;0.6031;
-11.4000;0.2556;0.6007;
-11.1000;0.2532;0.5934;
-10.8000;0.2548;0.5910;
-10.5000;0.2540;0.6031;
-10.2000;0.2523;0.5983;
-9.9000;0.2523;0.5934;
-9.6000;0.2540;0.5983;
-9.3000;0.2523;0.6031;
-9.0000;0.2532;0.6031;
-8.7000;0.2532;0.5959;
-8.4000;0.2532;0.5959;
-8.1000;0.2548;0.6055;
-7.8000;0.2548;0.6104;
-7.5000;0.2540;0.6128;
-7.2000;0.2556;0.6225;
-6.9000;0.2621;0.6395;
-6.6000;0.2532;0.6128;
-6.3000;0.2556;0.6152;
-6.0000;0.2556;0.6201;
-5.7000;0.2564;0.6201;
-5.4000;0.2548;0.6128;
-5.1000;0.2507;0.6007;
-4.8000;0.2564;0.6152;
-4.5000;0.2540;0.6080;
-4.2000;0.2556;0.6080;
-3.9000;0.2548;0.6080;
-3.6000;0.2556;0.6055;
-3.3000;0.2556;0.6104;
-3.0000;0.2532;0.6152;
-2.7000;0.2523;0.6080;
-2.4000;0.2548;0.6104;
-2.1000;0.2548;0.6080;
-1.8000;0.2556;0.6080;
-1.5000;0.2532;0.6031;
-1.2000;0.2540;0.5959;
-0.9000;0.2540;0.5886;
-0.6000;0.2532;0.5789;
-0.3000;0.2515;0.5741;
0.0000;0.2515;0.5741;
0.3000;0.2523;0.5619;
0.6000;0.2540;0.5886;
0.9000;0.2580;0.6273;
1.2000;0.2654;0.6613;
1.5000;0.2548;0.6564;
1.8000;0.2580;0.6782;
2.1000;0.2580;0.7049;
2.4000;0.2572;0.7073;
2.7000;0.2597;0.7145;
3.0000;0.2605;0.7242;
3.3000;0.2483;0.7000;
3.6000;0.2605;0.7363;
3.9000;0.2597;0.7460;
4.2000;0.2589;0.7509;
4.5000;0.2597;0.7630;
4.8000;0.2597;0.7775;
5.1000;0.2589;0.7872;
5.4000;0.2605;0.7896;
5.7000;0.2597;0.7872;
6.0000;0.2597;0.7824;
6.3000;0.2572;0.7775;
6.6000;0.2605;0.7824;
6.9000;0.2605;0.7872;
7.2000;0.2605;0.7872;
7.5000;0.2613;0.7969;
7.8000;0.2564;0.7872;
8.1000;0.2613;0.7993;
8.4000;0.2637;0.8017;
8.7000;0.2589;0.7921;
9.0000;0.2613;0.7945;
9.3000;0.2572;0.7775;
9.6000;0.2605;0.7848;
9.9000;0.2613;0.7799;
10.2000;0.2605;0.7775;
10.5000;0.2711;0.8066;
10.8000;0.2605;0.7799;
11.1000;0.2605;0.7896;
11.4000;0.2540;0.7654;
11.7000;0.2646;0.7993;
12.0000;0.2621;0.7872;
12.3000;0.2580;0.7824;
12.6000;0.2589;0.7848;
12.9000;0.2589;0.7896;
13.2000;0.2589;0.7872;
13.5000;0.2564;0.7678;
13.8000;0.2597;0.7799;
14.1000;0.2589;0.7775;
14.4000;0.2589;0.7824;
14.7000;0.2621;0.7896;
15.0000;0.2564;0.7727;
15.3000;0.2580;0.7799;
15.6000;0.2580;0.7872;
15.9000;0.2605;0.7993;
16.2000;0.2597;0.8066;
16.5000;0.2597;0.8139;
16.8000;0.2589;0.8090;
17.1000;0.2580;0.8017;
17.4000;0.2613;0.8090;
17.7000;0.2572;0.7993;
18.0000;0.2605;0.8090;
18.3000;0.2597;0.7993;
18.6000;0.2621;0.7969;
18.9000;0.2613;0.7896;
19.2000;0.2507;0.7630;
19.5000;0.2597;0.7945;
19.8000;0.2621;0.7945;
20.1000;0.2613;0.7921;
20.4000;0.2613;0.7896;
20.7000;0.2605;0.7993;
21.0000;0.2613;0.8090;
21.3000;0.2621;0.8211;
21.6000;0.2597;0.8139;
21.9000;0.2621;0.8114;
22.2000;0.2646;0.8235;
22.5000;0.2597;0.8042;
22.8000;0.2605;0.8017;
23.1000;0.2597;0.7969;
23.4000;0.2613;0.7969;
23.7000;0.2613;0.7921;
24.0000;0.2458;0.7485;
24.3000;0.2605;0.7872;
24.6000;0.2613;0.7921;
24.9000;0.2613;0.7969;
25.2000;0.2711;0.8260;
25.5000;0.2613;0.7969;
25.8000;0.2499;0.7678;
26.1000;0.2629;0.8017;
26.4000;0.2613;0.7945;
26.7000;0.2580;0.7945;
27.0000;0.2662;0.8187;
27.3000;0.2589;0.7993;
27.6000;0.2613;0.8042;
27.9000;0.2532;0.7848;
28.2000;0.2605;0.8042;
28.5000;0.2637;0.8139;
28.8000;0.2621;0.8139;
29.1000;0.2629;0.8139;
29.4000;0.2613;0.8042;
29.7000;0.2621;0.8090;
30.0000;0.2605;0.8042;
30.3000;0.2654;0.8260;
30.6000;0.2589;0.8114;
30.9000;0.2605;0.8090;
31.2000;0.2597;0.8066;
31.5000;0.2613;0.8066;
31.8000;0.2605;0.8042;
32.1000;0.2597;0.8017;
32.4000;0.2613;0.8042;
32.7000;0.2597;0.8139;
33.0000;0.2597;0.8163;
33.3000;0.2605;0.8090;
33.6000;0.2621;0.8066;
33.9000;0.2621;0.8114;
34.2000;0.2621;0.8114;
34.5000;0.2589;0.8017;
34.8000;0.2613;0.7969;
35.1000;0.2597;0.7921;
35.4000;0.2605;0.7969;
35.7000;0.2589;0.7993;
36.0000;0.2605;0.8017;
36.3000;0.2580;0.7969;
36.6000;0.2548;0.7848;
36.9000;0.2580;0.7945;
37.2000;0.2621;0.8090;
37.5000;0.2589;0.8017;
37.8000;0.2572;0.8042;
38.1000;0.2515;0.7799;
38.4000;0.2507;0.7751;
38.7000;0.2597;0.8017;
39.0000;0.2605;0.8017;
39.3000;0.2597;0.7993;
39.6000;0.2621;0.8042;
39.9000;0.2580;0.8017;
40.2000;0.2621;0.8090;
40.5000;0.2572;0.8042;
40.8000;0.2613;0.8163;
41.1000;0.2621;0.8235;
41.4000;0.2597;0.8114;
41.7000;0.2613;0.8163;
42.0000;0.2621;0.8187;
42.3000;0.2597;0.8211;
42.6000;0.2572;0.8187;
42.9000;0.2605;0.8235;
43.2000;0.2637;0.8260;
43.5000;0.2613;0.8187;
43.8000;0.2597;0.8163;
44.1000;0.2597;0.8139;
44.4000;0.2613;0.8139;
44.7000;0.2605;0.8017;
45.0000;0.2613;0.8042;
45.3000;0.2662;0.8090;
45.6000;0.2605;0.7993;
45.9000;0.2597;0.7921;
46.2000;0.2597;0.7872;
46.5000;0.2613;0.7872;
46.8000;0.2597;0.7921;
47.1000;0.2597;0.7969;
47.4000;0.2589;0.8042;
47.7000;0.2589;0.8066;
48.0000;0.2621;0.8139;
48.3000;0.2597;0.8114;
48.6000;0.2589;0.8090;
48.9000;0.2597;0.8139;
49.2000;0.2613;0.8187;
49.5000;0.2597;0.8187;
49.8000;0.2662;0.8381;
50.1000;0.2613;0.8211;
50.4000;0.2613;0.8163;
50.7000;0.2621;0.8187;
51.0000;0.2621;0.8211;
51.3000;0.2597;0.8114;
51.6000;0.2580;0.8139;
51.9000;0.2613;0.8114;
52.2000;0.2580;0.8042;
52.5000;0.2621;0.8139;
52.8000;0.2613;0.7993;
53.1000;0.2621;0.8042;
53.4000;0.2597;0.7993;
53.7000;0.2605;0.8017;
54.0000;0.2637;0.8066;
54.3000;0.2605;0.8090;
54.6000;0.2613;0.8090;
54.9000;0.2621;0.8139;
55.2000;0.2605;0.8066;
55.5000;0.2629;0.8090;
55.8000;0.2605;0.8090;
56.1000;0.2597;0.8114;
56.4000;0.2605;0.8139;
56.7000;0.2580;0.8042;
57.0000;0.2580;0.7945;
57.3000;0.2597;0.7921;
57.6000;0.2597;0.8066;
57.9000;0.2589;0.8042;
58.2000;0.2597;0.8066;
58.5000;0.2605;0.8090;
58.8000;0.2597;0.8114;
59.1000;0.2589;0.8066;
59.4000;0.2613;0.8066;
59.7000;0.2605;0.8066;
60.0000;0.2605;0.8090;
60.3000;0.2597;0.8139;
60.6000;0.2621;0.8042;
60.9000;0.2621;0.7945;
61.2000;0.2621;0.8042;
61.5000;0.2580;0.7969;
61.8000;0.2597;0.7945;
62.1000;0.2613;0.7921;
62.4000;0.2662;0.8163;
62.7000;0.2597;0.8042;
63.0000;0.2613;0.8042;
63.3000;0.2629;0.8139;
63.6000;0.2589;0.8066;
63.9000;0.2613;0.8017;
64.2000;0.2605;0.7945;
64.5000;0.2564;0.7824;
64.8000;0.2597;0.7945;
65.1000;0.2605;0.7969;
65.4000;0.2597;0.8017;
65.7000;0.2613;0.8066;
66.0000;0.2613;0.8017;
66.3000;0.2589;0.7993;
66.6000;0.2605;0.7969;
66.9000;0.2621;0.8017;
67.2000;0.2605;0.7969;
67.5000;0.2605;0.8017;
67.8000;0.2589;0.8017;
68.1000;0.2621;0.7969;
68.4000;0.2613;0.7993;
68.7000;0.2580;0.7969;
69.0000;0.2548;0.7872;
69.3000;0.2523;0.7872;
69.6000;0.2597;0.8042;
69.9000;0.2597;0.8017;
70.2000;0.2597;0.7969;
70.5000;0.2589;0.7969;
70.8000;0.2589;0.7921;
71.1000;0.2589;0.7896;
71.4000;0.2572;0.7824;
71.7000;0.2540;0.7727;
72.0000;0.2589;0.7921;
72.3000;0.2589;0.7945;
72.6000;0.2572;0.7872;
72.9000;0.2580;0.7824;
73.2000;0.2580;0.7896;
73.5000;0.2589;0.7945;
73.8000;0.2589;0.7945;
74.1000;0.2580;0.7921;
74.4000;0.2605;0.8017;
74.7000;0.2597;0.8066;
75.0000;0.2589;0.8042;
75.3000;0.2605;0.8042;
75.6000;0.2597;0.7993;
75.9000;0.2597;0.8042;
76.2000;0.2605;0.8042;
76.5000;0.2597;0.8042;
76.8000;0.2597;0.8042;
77.1000;0.2613;0.7993;
77.4000;0.2654;0.8042;
77.7000;0.2589;0.7945;
78.0000;0.2597;0.7945;
78.3000;0.2589;0.7872;
78.6000;0.2589;0.7969;
78.9000;0.2589;0.7921;
79.2000;0.2589;0.7921;
79.5000;0.2662;0.8017;
79.8000;0.2589;0.7872;
80.1000;0.2605;0.7921;
80.4000;0.2727;0.8260;
80.7000;0.2605;0.7896;
81.0000;0.2597;0.7848;
81.3000;0.2597;0.7896;
81.6000;0.2580;0.7896;
81.9000;0.2589;0.7848;
82.2000;0.2605;0.7872;
82.5000;0.2589;0.7872;
82.8000;0.2580;0.7824;
83.1000;0.2597;0.7799;
83.4000;0.2605;0.7848;
83.7000;0.2613;0.7799;
84.0000;0.2597;0.7799;
84.3000;0.2589;0.7775;
84.6000;0.2572;0.7848;
84.9000;0.2597;0.7921;
85.2000;0.2605;0.7921;
85.5000;0.2670;0.8090;
85.8000;0.2597;0.7824;
86.1000;0.2629;0.7824;
86.4000;0.2605;0.7872;
86.7000;0.2597;0.7848;
87.0000;0.2678;0.7945;
87.3000;0.2597;0.7703;
87.6000;0.2613;0.7775;
87.9000;0.2613;0.7775;
88.2000;0.2654;0.7969;
88.5000;0.2597;0.7921;
88.8000;0.2605;0.7993;
89.1000;0.2589;0.7969;
89.4000;0.2589;0.7896;
89.7000;0.2589;0.7921;
90.0000;0.2605;0.7969;
90.3000;0.2597;0.7848;
90.6000;0.2597;0.7872;
90.9000;0.2597;0.7872;
91.2000;0.2605;0.7969;
91.5000;0.2597;0.7945;
91.8000;0.2597;0.7872;
92.1000;0.2589;0.7872;
92.4000;0.2589;0.7945;
92.7000;0.2597;0.7993;
93.0000;0.2605;0.7993;
93.3000;0.2597;0.7969;
93.6000;0.2589;0.7969;
93.9000;0.2564;0.7969;
94.2000;0.2548;0.7969;
94.5000;0.2572;0.8090;
94.8000;0.2572;0.8114;
95.1000;0.2670;0.8332;
95.4000;0.2589;0.8211;
95.7000;0.2589;0.8260;
96.0000;0.2580;0.8260;
96.3000;0.2597;0.8211;
96.6000;0.2597;0.8187;
96.9000;0.2686;0.8429;
97.2000;0.2605;0.8187;
97.5000;0.2589;0.8211;
97.8000;0.2597;0.8187;
98.1000;0.2589;0.8114;
98.4000;0.2580;0.8163;
98.7000;0.2589;0.8211;
99.0000;0.2597;0.8211;
99.3000;0.2589;0.8211;
99.6000;0.2466;0.8017;
99.9000;0.2589;0.8308;
100.2000;0.2572;0.8260;
100.5000;0.2621;0.8332;
100.8000;0.2597;0.8211;
101.1000;0.2597;0.8163;
101.4000;0.2589;0.8017;
101.7000;0.2629;0.8114;
102.0000;0.2621;0.8017;
102.3000;0.2597;0.7945;
102.6000;0.2613;0.8042;
102.9000;0.2629;0.8090;
103.2000;0.2589;0.8017;
103.5000;0.2580;0.7896;
103.8000;0.2597;0.7921;
104.1000;0.2589;0.7872;
104.4000;0.2589;0.7824;
104.7000;0.2637;0.7993;
105.0000;0.2597;0.7921;
105.3000;0.2605;0.7969;
105.6000;0.2515;0.7751;
105.9000;0.2580;0.7921;
106.2000;0.2589;0.7921;
106.5000;0.2613;0.7896;
106.8000;0.2646;0.7969;
107.1000;0.2589;0.7751;
107.4000;0.2580;0.7872;
107.7000;0.2572;0.7824;
108.0000;0.2621;0.8017;
108.3000;0.2564;0.7896;
108.6000;0.2589;0.7969;
108.9000;0.2629;0.8066;
109.2000;0.2532;0.7848;
109.5000;0.2589;0.7872;
109.8000;0.2580;0.7824;
110.1000;0.2605;0.7872;
110.4000;0.2621;0.7969;
110.7000;0.2637;0.8066;
111.0000;0.2580;0.8042;
111.3000;0.2613;0.8139;
111.6000;0.2556;0.8017;
111.9000;0.2605;0.8114;
112.2000;0.2613;0.8163;
112.5000;0.2580;0.8066;
112.8000;0.2605;0.8017;
113.1000;0.2613;0.8090;
113.4000;0.2580;0.8066;
113.7000;0.2572;0.8017;
114.0000;0.2564;0.8017;
114.3000;0.2589;0.8017;
114.6000;0.2589;0.8042;
114.9000;0.2597;0.7993;
115.2000;0.2580;0.7969;
115.5000;0.2589;0.8017;
115.8000;0.2605;0.8066;
116.1000;0.2654;0.8163;
116.4000;0.2540;0.7872;
116.7000;0.2597;0.7969;
117.0000;0.2605;0.8042;
117.3000;0.2662;0.8139;
117.6000;0.2589;0.7921;
117.9000;0.2589;0.7969;
118.2000;0.2572;0.7896;
118.5000;0.2589;0.7993;
118.8000;0.2589;0.8042;
119.1000;0.2597;0.7969;
119.4000;0.2532;0.7799;
119.7000;0.2637;0.8066;
120.0000;0.2572;0.7921;
120.3000;0.2580;0.7945;
120.6000;0.2597;0.7945;
120.9000;0.2589;0.7993;
121.2000;0.2597;0.8017;
121.5000;0.2589;0.7921;
121.8000;0.2597;0.7945;
122.1000;0.2613;0.8090;
122.4000;0.2589;0.8090;
122.7000;0.2589;0.8042;
123.0000;0.2613;0.8139;
123.3000;0.2597;0.8187;
123.6000;0.2589;0.8114;
123.9000;0.2646;0.8332;
124.2000;0.2564;0.8139;
124.5000;0.2597;0.8260;
124.8000;0.2605;0.8211;
125.1000;0.2548;0.8042;
125.4000;0.2580;0.8066;
125.7000;0.2629;0.8139;
126.0000;0.2589;0.7969;
126.3000;0.2629;0.8139;
126.6000;0.2589;0.8090;
126.9000;0.2507;0.7848;
127.2000;0.2572;0.8017;
127.5000;0.2629;0.8139;
127.8000;0.2597;0.8114;
128.1000;0.2613;0.8211;
128.4000;0.2629;0.8163;
128.7000;0.2540;0.7872;
129.0000;0.2548;0.7872;
129.3000;0.2556;0.7993;
129.6000;0.2572;0.7993;
129.9000;0.2597;0.8066;
130.2000;0.2564;0.8017;
130.5000;0.2589;0.8066;
130.8000;0.2597;0.8090;
131.1000;0.2580;0.8090;
131.4000;0.2654;0.8211;
131.7000;0.2597;0.8042;
132.0000;0.2580;0.8066;
132.3000;0.2589;0.8090;
132.6000;0.2597;0.8066;
132.9000;0.2589;0.7969;
133.2000;0.2662;0.8090;
133.5000;0.2621;0.8017;
133.8000;0.2605;0.8017;
134.1000;0.2580;0.7993;
134.4000;0.2580;0.7969;
134.7000;0.2572;0.7921;
135.0000;0.2589;0.8017;
135.3000;0.2646;0.8187;
135.6000;0.2556;0.7921;
135.9000;0.2556;0.7921;
136.2000;0.2580;0.7969;
136.5000;0.2613;0.8017;
136.8000;0.2597;0.7993;
137.1000;0.2589;0.7969;
137.4000;0.2572;0.7921;
137.7000;0.2621;0.8066;
138.0000;0.2621;0.8114;
138.3000;0.2613;0.8066;
138.6000;0.2597;0.8042;
138.9000;0.2589;0.8042;
139.2000;0.2613;0.8163;
139.5000;0.2580;0.8187;
139.8000;0.2580;0.8163;
140.1000;0.2589;0.8235;
140.4000;0.2597;0.8211;
140.7000;0.2589;0.8260;
141.0000;0.2597;0.8308;
141.3000;0.2556;0.8211;
141.6000;0.2564;0.8187;
141.9000;0.2605;0.8211;
142.2000;0.2580;0.8163;
142.5000;0.2580;0.8187;
142.8000;0.2637;0.8308;
143.1000;0.2589;0.8187;
143.4000;0.2589;0.8211;
143.7000;0.2597;0.8235;
144.0000;0.2597;0.8187;
144.3000;0.2580;0.8114;
144.6000;0.2597;0.8090;
144.9000;0.2589;0.8066;
145.2000;0.2597;0.8066;
145.5000;0.2629;0.8090;
145.8000;0.2589;0.8042;
146.1000;0.2589;0.8066;
146.4000;0.2580;0.8017;
146.7000;0.2662;0.8163;
147.0000;0.2589;0.8042;
147.3000;0.2572;0.8042;
147.6000;0.2605;0.8187;
147.9000;0.2589;0.8187;
148.2000;0.2597;0.8163;
148.5000;0.2580;0.8139;
148.8000;0.2572;0.8211;
149.1000;0.2589;0.8284;
149.4000;0.2597;0.8187;
149.7000;0.2613;0.8114;
150.0000;0.2523;0.7848;
150.3000;0.2605;0.8042;
150.6000;0.2605;0.7945;
150.9000;0.2589;0.7896;
151.2000;0.2597;0.7896;
151.5000;0.2621;0.7993;
151.8000;0.2597;0.7848;
152.1000;0.2589;0.7824;
152.4000;0.2580;0.7921;
152.7000;0.2597;0.7921;
153.0000;0.2597;0.8017;
153.3000;0.2589;0.7993;
153.6000;0.2572;0.7945;
153.9000;0.2540;0.7799;
154.2000;0.2580;0.7969;
154.5000;0.2654;0.8090;
154.8000;0.2572;0.7896;
155.1000;0.2589;0.7896;
155.4000;0.2572;0.7993;
155.7000;0.2580;0.8042;
156.0000;0.2589;0.8017;
156.3000;0.2637;0.8187;
156.6000;0.2621;0.8163;
156.9000;0.2589;0.8114;
157.2000;0.2613;0.8090;
157.5000;0.2613;0.8066;
157.8000;0.2597;0.8211;
158.1000;0.2597;0.8114;
158.4000;0.2580;0.8114;
158.7000;0.2572;0.8066;
159.0000;0.2580;0.8042;
159.3000;0.2646;0.8163;
159.6000;0.2613;0.8066;
159.9000;0.2589;0.8090;
160.2000;0.2589;0.8114;
160.5000;0.2597;0.8090;
160.8000;0.2597;0.8090;
161.1000;0.2605;0.8139;
161.4000;0.2580;0.8139;
161.7000;0.2564;0.8066;
162.0000;0.2589;0.8066;
162.3000;0.2515;0.7945;
162.6000;0.2605;0.8163;
162.9000;0.2597;0.8163;
163.2000;0.2605;0.8211;
163.5000;0.2605;0.8114;
163.8000;0.2605;0.8187;
164.1000;0.2613;0.8260;
164.4000;0.2597;0.8211;
164.7000;0.2605;0.8163;
165.0000;0.2580;0.8090;
165.3000;0.2605;0.8163;
165.6000;0.2597;0.8139;
165.9000;0.2589;0.8211;
166.2000;0.2597;0.8284;
166.5000;0.2572;0.8260;
166.8000;0.2605;0.8284;
167.1000;0.2589;0.8235;
167.4000;0.2605;0.8260;
167.7000;0.2589;0.8163;
168.0000;0.2613;0.8211;
168.3000;0.2580;0.8114;
168.6000;0.2589;0.8211;
168.9000;0.2589;0.8235;
169.2000;0.2605;0.8235;
169.5000;0.2605;0.8163;
169.8000;0.2597;0.8017;
170.1000;0.2580;0.7993;
170.4000;0.2597;0.8017;
170.7000;0.2589;0.8090;
171.0000;0.2589;0.8114;
171.3000;0.2564;0.8090;
171.6000;0.2597;0.8260;
171.9000;0.2580;0.8260;
172.2000;0.2589;0.8235;
172.5000;0.2654;0.8332;
172.8000;0.2589;0.8066;
173.1000;0.2589;0.8066;
173.4000;0.2532;0.7921;
173.7000;0.2597;0.8114;
174.0000;0.2572;0.8139;
174.3000;0.2580;0.8139;
174.6000;0.2589;0.8187;
174.9000;0.2597;0.8235;
175.2000;0.2564;0.8139;
175.5000;0.2580;0.8163;
175.8000;0.2580;0.8163;
176.1000;0.2564;0.8139;
176.4000;0.2532;0.8066;
176.7000;0.2589;0.8139;
177.0000;0.2580;0.8066;
177.3000;0.2589;0.8090;
177.6000;0.2629;0.8187;
177.9000;0.2589;0.8114;
178.2000;0.2646;0.8284;
178.5000;0.2597;0.8235;
178.8000;0.2589;0.8260;
179.1000;0.2589;0.8284;
179.4000;0.2532;0.8211;
179.7000;0.2597;0.8429;
180.0000;0.2580;0.8381;
180.3000;0.2564;0.8235;
180.6000;0.2613;0.8308;
180.9000;0.2589;0.8211;
181.2000;0.2637;0.8235;
181.5000;0.2597;0.7993;
181.8000;0.2597;0.7993;
182.1000;0.2589;0.7945;
182.4000;0.2572;0.7945;
182.7000;0.2564;0.7945;
183.0000;0.2572;0.8066;
183.3000;0.2629;0.8163;
183.6000;0.2597;0.7993;
183.9000;0.2540;0.7896;
184.2000;0.2621;0.8066;
184.5000;0.2580;0.7969;
184.8000;0.2589;0.8066;
185.1000;0.2597;0.8017;
185.4000;0.2597;0.8042;
185.7000;0.2597;0.8017;
186.0000;0.2589;0.8066;
186.3000;0.2589;0.8139;
186.6000;0.2580;0.8163;
186.9000;0.2597;0.8211;
187.2000;0.2580;0.8139;
187.5000;0.2580;0.8114;
187.8000;0.2556;0.8017;
188.1000;0.2589;0.8114;
188.4000;0.2589;0.8163;
188.7000;0.2589;0.8163;
189.0000;0.2589;0.8139;
189.3000;0.2580;0.8114;
189.6000;0.2589;0.8163;
189.9000;0.2580;0.8163;
190.2000;0.2597;0.8139;
190.5000;0.2597;0.8163;
190.8000;0.2580;0.8163;
191.1000;0.2572;0.8187;
191.4000;0.2613;0.8163;
191.7000;0.2605;0.8114;
192.0000;0.2572;0.8090;
192.3000;0.2556;0.8017;
192.6000;0.2597;0.8066;
192.9000;0.2580;0.8114;
193.2000;0.2589;0.8139;
193.5000;0.2605;0.8211;
193.8000;0.2580;0.8090;
194.1000;0.2589;0.8090;
194.4000;0.2580;0.8066;
194.7000;0.2580;0.8139;
195.0000;0.2605;0.8284;
195.3000;0.2589;0.8284;
195.6000;0.2580;0.8308;
195.9000;0.2597;0.8308;
196.2000;0.2589;0.8308;
196.5000;0.2589;0.8332;
196.8000;0.2564;0.8235;
197.1000;0.2589;0.8235;
197.4000;0.2572;0.8163;
197.7000;0.2580;0.8163;
198.0000;0.2589;0.8187;
198.3000;0.2556;0.8114;
198.6000;0.2572;0.8066;
198.9000;0.2580;0.8090;
199.2000;0.2597;0.8163;
199.5000;0.2597;0.8163;
199.8000;0.2605;0.8139;
200.1000;0.2621;0.8163;
200.4000;0.2580;0.8066;
200.7000;0.2589;0.8187;
201.0000;0.2605;0.8187;
201.3000;0.2646;0.8332;
201.6000;0.2589;0.8187;
201.9000;0.2597;0.8163;
202.2000;0.2580;0.8090;
202.5000;0.2572;0.8017;
202.8000;0.2589;0.8066;
203.1000;0.2572;0.8042;
203.4000;0.2589;0.8017;
203.7000;0.2589;0.7993;
204.0000;0.2589;0.8042;
204.3000;0.2532;0.7945;
204.6000;0.2589;0.8090;
204.9000;0.2589;0.8090;
205.2000;0.2564;0.8042;
205.5000;0.2589;0.8139;
205.8000;0.2605;0.8114;
206.1000;0.2580;0.8042;
206.4000;0.2589;0.8211;
206.7000;0.2589;0.8163;
207.0000;0.2589;0.8163;
207.3000;0.2629;0.8381;
207.6000;0.2580;0.8187;
207.9000;0.2580;0.8211;
208.2000;0.2580;0.8211;
208.5000;0.2564;0.8187;
208.8000;0.2580;0.8211;
209.1000;0.2589;0.8235;
209.4000;0.2637;0.8260;
209.7000;0.2572;0.8114;
210.0000;0.2605;0.8090;
210.3000;0.2597;0.8042;
210.6000;0.2613;0.8090;
210.9000;0.2507;0.7824;
211.2000;0.2597;0.8114;
211.5000;0.2613;0.8042;
211.8000;0.2597;0.8017;
212.1000;0.2580;0.7969;
212.4000;0.2580;0.8017;
212.7000;0.2589;0.8139;
213.0000;0.2589;0.8163;
213.3000;0.2597;0.8090;
213.6000;0.2572;0.8017;
213.9000;0.2580;0.7993;
214.2000;0.2580;0.7896;
214.5000;0.2589;0.7921;
214.8000;0.2589;0.7969;
215.1000;0.2564;0.7969;
215.4000;0.2662;0.8235;
215.7000;0.2589;0.8090;
216.0000;0.2605;0.8187;
216.3000;0.2580;0.8017;
216.6000;0.2523;0.7678;
216.9000;0.2523;0.7630;
217.2000;0.2572;0.7775;
217.5000;0.2580;0.7824;
217.8000;0.2589;0.7896;
218.1000;0.2580;0.7969;
218.4000;0.2556;0.7921;
218.7000;0.2580;0.8066;
219.0000;0.2597;0.8163;
219.3000;0.2605;0.8187;
219.6000;0.2589;0.8163;
219.9000;0.2507;0.7969;
220.2000;0.2589;0.8163;
220.5000;0.2589;0.8163;
220.8000;0.2580;0.8187;
221.1000;0.2572;0.8114;
221.4000;0.2597;0.8066;
221.7000;0.2589;0.8017;
222.0000;0.2605;0.8042;
222.3000;0.2589;0.7969;
222.6000;0.2572;0.8017;
222.9000;0.2572;0.8066;
223.2000;0.2613;0.8187;
223.5000;0.2646;0.8284;
223.8000;0.2580;0.8042;
224.1000;0.2589;0.7945;
224.4000;0.2597;0.7969;
224.7000;0.2597;0.7969;
225.0000;0.2597;0.8017;
225.3000;0.2589;0.7969;
225.6000;0.2605;0.8017;
225.9000;0.2580;0.8042;
226.2000;0.2589;0.8042;
226.5000;0.2589;0.8066;
226.8000;0.2605;0.8090;
227.1000;0.2580;0.8017;
227.4000;0.2662;0.8187;
227.7000;0.2580;0.8042;
228.0000;0.2589;0.8066;
228.3000;0.2580;0.8066;
228.6000;0.2572;0.8114;
228.9000;0.2523;0.7921;
229.2000;0.2572;0.8042;
229.5000;0.2572;0.7921;
229.8000;0.2580;0.7945;
230.1000;0.2580;0.7969;
230.4000;0.2629;0.8163;
230.7000;0.2589;0.8114;
231.0000;0.2589;0.8114;
231.3000;0.2572;0.8066;
231.6000;0.2572;0.8042;
231.9000;0.2613;0.8139;
232.2000;0.2646;0.8163;
232.5000;0.2597;0.7993;
232.8000;0.2629;0.8017;
233.1000;0.2564;0.7799;
233.4000;0.2580;0.8042;
233.7000;0.2564;0.8017;
234.0000;0.2580;0.8139;
234.3000;0.2458;0.7751;
234.6000;0.2580;0.8187;
234.9000;0.2580;0.8139;
235.2000;0.2572;0.8187;
235.5000;0.2580;0.8114;
235.8000;0.2589;0.8090;
236.1000;0.2605;0.8163;
236.4000;0.2580;0.8090;
236.7000;0.2572;0.8114;
237.0000;0.2572;0.8187;
237.3000;0.2605;0.8260;
237.6000;0.2580;0.8235;
237.9000;0.2597;0.8211;
238.2000;0.2564;0.8090;
238.5000;0.2572;0.8163;
238.8000;0.2580;0.8235;
239.1000;0.2572;0.8187;
239.4000;0.2589;0.8260;
239.7000;0.2580;0.8235;
240.0000;0.2605;0.8260;
240.3000;0.2589;0.8187;
240.6000;0.2597;0.8308;
240.9000;0.2678;0.8623;
241.2000;0.2572;0.8357;
241.5000;0.2572;0.8308;
241.8000;0.2621;0.8332;
242.1000;0.2580;0.8235;
242.4000;0.2597;0.8260;
242.7000;0.2589;0.8332;
243.0000;0.2589;0.8211;
243.3000;0.2654;0.8405;
243.6000;0.2597;0.8235;
243.9000;0.2548;0.8017;
244.2000;0.2589;0.8163;
244.5000;0.2556;0.8163;
244.8000;0.2572;0.8163;
245.1000;0.2564;0.8163;
245.4000;0.2589;0.8211;
245.7000;0.2580;0.8211;
246.0000;0.2580;0.8163;
246.3000;0.2572;0.8090;
246.6000;0.2605;0.8090;
246.9000;0.2580;0.8017;
247.2000;0.2589;0.8114;
247.5000;0.2589;0.8187;
247.8000;0.2580;0.8139;
248.1000;0.2507;0.7872;
248.4000;0.2597;0.8163;
248.7000;0.2589;0.8090;
249.0000;0.2678;0.8405;
249.3000;0.2564;0.8139;
249.6000;0.2491;0.7896;
249.9000;0.2532;0.7921;
250.2000;0.2580;0.8042;
250.5000;0.2702;0.8357;
250.8000;0.2580;0.8066;
251.1000;0.2548;0.7945;
251.4000;0.2597;0.8139;
251.7000;0.2589;0.8042;
252.0000;0.2580;0.8017;
252.3000;0.2589;0.8090;
252.6000;0.2597;0.8163;
252.9000;0.2589;0.8187;
253.2000;0.2597;0.8187;
253.5000;0.2597;0.8163;
253.8000;0.2605;0.8139;
254.1000;0.2597;0.8211;
254.4000;0.2572;0.8187;
254.7000;0.2597;0.8260;
255.0000;0.2605;0.8332;
255.3000;0.2605;0.8332;
255.6000;0.2597;0.8260;
255.9000;0.2629;0.8284;
256.2000;0.2548;0.7993;
256.5000;0.2597;0.8066;
256.8000;0.2589;0.7969;
257.1000;0.2597;0.7993;
257.4000;0.2483;0.7581;
257.7000;0.2589;0.7824;
258.0000;0.2605;0.7896;
258.3000;0.2589;0.7896;
258.6000;0.2605;0.7921;
258.9000;0.2556;0.7799;
259.2000;0.2589;0.7824;
259.5000;0.2613;0.7945;
259.8000;0.2580;0.7848;
260.1000;0.2564;0.7799;
260.4000;0.2580;0.7824;
260.7000;0.2515;0.7751;
261.0000;0.2564;0.7945;
261.3000;0.2580;0.7993;
261.6000;0.2589;0.8017;
261.9000;0.2589;0.8017;
262.2000;0.2589;0.8042;
262.5000;0.2580;0.7993;
262.8000;0.2589;0.8042;
263.1000;0.2580;0.7969;
263.4000;0.2572;0.7824;
263.7000;0.2572;0.7824;
264.0000;0.2564;0.7896;
264.3000;0.2580;0.7993;
264.6000;0.2605;0.8042;
264.9000;0.2589;0.8042;
265.2000;0.2589;0.8066;
265.5000;0.2532;0.7872;
265.8000;0.2540;0.7848;
266.1000;0.2556;0.7872;
266.4000;0.2572;0.7921;
266.7000;0.2572;0.7969;
267.0000;0.2466;0.7703;
267.3000;0.2589;0.8090;
267.6000;0.2580;0.8066;
267.9000;0.2589;0.8114;
268.2000;0.2605;0.8139;
268.5000;0.2580;0.8042;
268.8000;0.2580;0.8066;
269.1000;0.2589;0.8090;
269.4000;0.2564;0.8066;
269.7000;0.2580;0.8066;
270.0000;0.2572;0.8042;
270.3000;0.2572;0.7945;
270.6000;0.2589;0.7945;
270.9000;0.2580;0.7945;
271.2000;0.2589;0.7993;
271.5000;0.2589;0.7969;
271.8000;0.2589;0.7993;
272.1000;0.2621;0.8163;
272.4000;0.2646;0.8235;
272.7000;0.2572;0.7993;
273.0000;0.2589;0.8042;
273.3000;0.2532;0.7945;
273.6000;0.2589;0.8139;
273.9000;0.2572;0.8139;
274.2000;0.2589;0.8235;
274.5000;0.2605;0.8284;
274.8000;0.2572;0.8284;
275.1000;0.2572;0.8235;
275.4000;0.2540;0.8139;
275.7000;0.2597;0.8284;
276.0000;0.2589;0.8211;
276.3000;0.2580;0.8114;
276.6000;0.2597;0.8139;
276.9000;0.2589;0.8066;
277.2000;0.2589;0.8090;
277.5000;0.2572;0.7993;
277.8000;0.2572;0.7945;
278.1000;0.2589;0.8042;
278.4000;0.2597;0.8090;
278.7000;0.2580;0.7993;
279.0000;0.2580;0.8042;
279.3000;0.2597;0.8066;
279.6000;0.2580;0.8042;
279.9000;0.2589;0.8042;
280.2000;0.2572;0.7969;
280.5000;0.2589;0.7969;
280.8000;0.2580;0.8017;
281.1000;0.2605;0.8090;
281.4000;0.2580;0.8042;
281.7000;0.2580;0.8042;
282.0000;0.2597;0.8017;
282.3000;0.2589;0.7945;
282.6000;0.2597;0.7969;
282.9000;0.2572;0.7896;
283.2000;0.2589;0.8042;
283.5000;0.2572;0.7969;
283.8000;0.2572;0.7824;
284.1000;0.2589;0.7848;
284.4000;0.2580;0.7872;
284.7000;0.2572;0.7848;
285.0000;0.2597;0.7848;
285.3000;0.2540;0.7703;
285.6000;0.2572;0.7799;
285.9000;0.2556;0.7824;
286.2000;0.2572;0.7896;
286.5000;0.2613;0.7969;
286.8000;0.2572;0.7896;
287.1000;0.2580;0.7969;
287.4000;0.2572;0.7969;
287.7000;0.2694;0.8284;
288.0000;0.2580;0.7969;
288.3000;0.2491;0.7775;
288.6000;0.2589;0.8042;
288.9000;0.2572;0.7969;
289.2000;0.2605;0.7969;
289.5000;0.2548;0.7848;
289.8000;0.2580;0.7872;
290.1000;0.2589;0.7896;
290.4000;0.2540;0.7824;
290.7000;0.2580;0.7872;
291.0000;0.2572;0.7896;
291.3000;0.2483;0.7678;
291.6000;0.2548;0.7848;
291.9000;0.2564;0.7848;
292.2000;0.2589;0.7969;
292.5000;0.2572;0.7945;
292.8000;0.2564;0.7824;
293.1000;0.2564;0.7775;
293.4000;0.2580;0.7872;
293.7000;0.2580;0.7921;
294.0000;0.2597;0.7945;
294.3000;0.2532;0.7751;
294.6000;0.2564;0.7872;
294.9000;0.2589;0.8017;
295.2000;0.2589;0.7969;
295.5000;0.2556;0.7872;
295.8000;0.2580;0.7872;
296.1000;0.2532;0.7751;
296.4000;0.2548;0.7751;
296.7000;0.2548;0.7751;
297.0000;0.2580;0.7824;
297.3000;0.2589;0.7824;
297.6000;0.2556;0.7824;
297.9000;0.2572;0.7993;
298.2000;0.2589;0.8042;
298.5000;0.2597;0.8114;
298.8000;0.2589;0.8066;
299.1000;0.2572;0.7993;
299.4000;0.2589;0.8017;
299.7000;0.2580;0.7945;
300.0000;0.2605;0.8042;
300.3000;0.2589;0.7969;
300.6000;0.2654;0.8066;
300.9000;0.2580;0.7896;
301.2000;0.2572;0.7872;
301.5000;0.2556;0.7799;
301.8000;0.2580;0.7872;
302.1000;0.2580;0.7824;
302.4000;0.2702;0.8211;
302.7000;0.2589;0.7848;
303.0000;0.2572;0.7799;
303.3000;0.2589;0.7824;
303.6000;0.2589;0.7678;
303.9000;0.2589;0.7775;
304.2000;0.2613;0.7921;
304.5000;0.2589;0.7848;
304.8000;0.2589;0.7799;
305.1000;0.2572;0.7751;
305.4000;0.2580;0.7824;
305.7000;0.2597;0.7921;
306.0000;0.2564;0.7799;
306.3000;0.2589;0.7921;
306.6000;0.2589;0.7872;
306.9000;0.2556;0.7799;
307.2000;0.2532;0.7654;
307.5000;0.2572;0.7727;
307.8000;0.2589;0.7727;
308.1000;0.2605;0.7727;
308.4000;0.2532;0.7630;
308.7000;0.2589;0.7751;
309.0000;0.2589;0.7751;
309.3000;0.2507;0.7460;
309.6000;0.2572;0.7654;
309.9000;0.2580;0.7703;
310.2000;0.2580;0.7678;
310.5000;0.2580;0.7654;
310.8000;0.2564;0.7557;
311.1000;0.2548;0.7557;
311.4000;0.2556;0.7630;
311.7000;0.2580;0.7678;
312.0000;0.2572;0.7727;
312.3000;0.2548;0.7727;
312.6000;0.2605;0.7945;
312.9000;0.2589;0.7993;
313.2000;0.2556;0.7872;
313.5000;0.2580;0.7824;
313.8000;0.2589;0.7799;
314.1000;0.2564;0.7775;
314.4000;0.2580;0.7799;
314.7000;0.2564;0.7727;
315.0000;0.2589;0.7799;
315.3000;0.2589;0.7848;
315.6000;0.2572;0.7872;
315.9000;0.2572;0.7921;
316.2000;0.2572;0.7872;
316.5000;0.2572;0.7848;
316.8000;0.2589;0.7751;
317.1000;0.2523;0.7606;
317.4000;0.2572;0.7775;
317.7000;0.2580;0.7848;
318.0000;0.2589;0.7848;
318.3000;0.2589;0.7848;
318.6000;0.2589;0.7751;
318.9000;0.2589;0.7678;
319.2000;0.2605;0.7775;
319.5000;0.2613;0.7799;
319.8000;0.2589;0.7654;
320.1000;0.2597;0.7654;
320.4000;0.2605;0.7751;
320.7000;0.2564;0.7581;
321.0000;0.2589;0.7703;
321.3000;0.2564;0.7678;
321.6000;0.2580;0.7751;
321.9000;0.2458;0.7363;
322.2000;0.2580;0.7654;
322.5000;0.2572;0.7654;
322.8000;0.2572;0.7703;
323.1000;0.2589;0.7824;
323.4000;0.2580;0.7848;
323.7000;0.2589;0.7775;
324.0000;0.2564;0.7703;
324.3000;0.2556;0.7630;
324.6000;0.2589;0.7751;
324.9000;0.2572;0.7678;
325.2000;0.2580;0.7775;
325.5000;0.2556;0.7727;
325.8000;0.2580;0.7848;
326.1000;0.2589;0.7896;
326.4000;0.2589;0.7896;
326.7000;0.2589;0.7945;
327.0000;0.2580;0.7921;
327.3000;0.2621;0.7993;
327.6000;0.2572;0.7848;
327.9000;0.2597;0.7824;
328.2000;0.2646;0.7872;
328.5000;0.2597;0.7824;
328.8000;0.2613;0.7751;
329.1000;0.2589;0.7678;
329.4000;0.2597;0.7678;
329.7000;0.2580;0.7630;
330.0000;0.2589;0.7654;
330.3000;0.2580;0.7606;
330.6000;0.2580;0.7654;
330.9000;0.2605;0.7727;
331.2000;0.2694;0.7969;
331.5000;0.2589;0.7678;
331.8000;0.2580;0.7727;
332.1000;0.2572;0.7703;
332.4000;0.2564;0.7727;
332.7000;0.2540;0.7678;
333.0000;0.2483;0.7533;
333.3000;0.2597;0.7896;
333.6000;0.2572;0.7896;
333.9000;0.2572;0.7872;
334.2000;0.2589;0.7872;
334.5000;0.2589;0.7945;
334.8000;0.2572;0.7993;
335.1000;0.2589;0.8017;
335.4000;0.2589;0.8017;
335.7000;0.2589;0.7993;
336.0000;0.2589;0.8017;
336.3000;0.2580;0.7969;
336.6000;0.2589;0.7993;
336.9000;0.2564;0.7969;
337.2000;0.2589;0.8042;
337.5000;0.2564;0.8017;
337.8000;0.2572;0.7945;
338.1000;0.2564;0.7921;
338.4000;0.2589;0.7993;
338.7000;0.2572;0.7993;
339.0000;0.2589;0.8090;
339.3000;0.2564;0.8042;
339.6000;0.2580;0.8090;
339.9000;0.2580;0.8042;
340.2000;0.2580;0.8017;
340.5000;0.2654;0.8211;
340.8000;0.2589;0.7921;
341.1000;0.2597;0.8017;
341.4000;0.2589;0.8090;
341.7000;0.2540;0.7969;
342.0000;0.2605;0.8090;
342.3000;0.2613;0.8114;
342.6000;0.2466;0.7751;
342.9000;0.2572;0.8090;
343.2000;0.2564;0.7969;
343.5000;0.2621;0.8066;
343.8000;0.2589;0.7993;
344.1000;0.2589;0.8042;
344.4000;0.2580;0.8017;
344.7000;0.2572;0.8042;
345.0000;0.2580;0.8066;
345.3000;0.2572;0.8090;
345.6000;0.2564;0.8090;
345.9000;0.2597;0.8139;
346.2000;0.2572;0.8017;
346.5000;0.2564;0.8017;
346.8000;0.2556;0.8017;
347.1000;0.2491;0.7921;
347.4000;0.2572;0.8139;
347.7000;0.2548;0.8042;
348.0000;0.2589;0.8090;
348.3000;0.2605;0.8066;
348.6000;0.2580;0.7993;
348.9000;0.2572;0.7921;
349.2000;0.2540;0.7751;
349.5000;0.2589;0.7969;
349.8000;0.2605;0.8017;
350.1000;0.2572;0.7921;
350.4000;0.2646;0.8042;
350.7000;0.2597;0.7896;
351.0000;0.2580;0.7921;
351.3000;0.2564;0.7945;
351.6000;0.2572;0.7969;
351.9000;0.2540;0.7824;
352.2000;0.2589;0.8017;
352.5000;0.2572;0.7993;
352.8000;0.2580;0.7969;
353.1000;0.2572;0.7945;
353.4000;0.2613;0.8066;
353.7000;0.2572;0.7993;
354.0000;0.2572;0.7993;
354.3000;0.2580;0.8066;
354.6000;0.2572;0.8114;
354.9000;0.2572;0.8139;
355.2000;0.2597;0.8211;
355.5000;0.2580;0.8163;
355.8000;0.2580;0.8235;
356.1000;0.2613;0.8308;
356.4000;0.2589;0.8163;
356.7000;0.2540;0.7993;
357.0000;0.2605;0.8139;
357.3000;0.2597;0.8017;
357.6000;0.2589;0.7872;
357.9000;0.2572;0.7945;
358.2000;0.2621;0.8017;
358.5000;0.2556;0.7824;
358.8000;0.2621;0.8066;
359.1000;0.2564;0.7969;
359.4000;0.2548;0.7969;
359.7000;0.2662;0.8284;
360.0000;0.2580;0.8066;
360.3000;0.2589;0.8042;
360.6000;0.2572;0.8017;
360.9000;0.2580;0.7969;
361.2000;0.2580;0.7969;
361.5000;0.2605;0.8114;
361.8000;0.2589;0.8090;
362.1000;0.2589;0.8114;
362.4000;0.2597;0.8187;
362.7000;0.2589;0.8114;
363.0000;0.2548;0.7993;
363.3000;0.2580;0.8042;
363.6000;0.2580;0.8042;
363.9000;0.2556;0.7896;
364.2000;0.2572;0.7969;
364.5000;0.2556;0.7872;
364.8000;0.2589;0.7993;
365.1000;0.2605;0.8066;
365.4000;0.2597;0.8042;
365.7000;0.2580;0.8066;
366.0000;0.2670;0.8235;
366.3000;0.2572;0.7993;
366.6000;0.2572;0.8017;
366.9000;0.2564;0.7921;
367.2000;0.2686;0.8260;
367.5000;0.2532;0.7775;
367.8000;0.2580;0.7896;
368.1000;0.2540;0.7824;
368.4000;0.2564;0.7872;
368.7000;0.2580;0.7945;
369.0000;0.2580;0.7945;
369.3000;0.2589;0.7969;
369.6000;0.2580;0.8017;
369.9000;0.2556;0.8017;
370.2000;0.2589;0.8017;
370.5000;0.2646;0.8066;
370.8000;0.2564;0.7945;
371.1000;0.2597;0.8042;
371.4000;0.2589;0.8017;
371.7000;0.2580;0.8017;
372.0000;0.2580;0.8114;
372.3000;0.2654;0.8187;
372.6000;0.2580;0.8066;
372.9000;0.2605;0.8090;
373.2000;0.2572;0.8042;
373.5000;0.2564;0.7993;
373.8000;0.2589;0.7993;
374.1000;0.2589;0.7969;
374.4000;0.2572;0.7872;
374.7000;0.2580;0.7945;
375.0000;0.2572;0.7945;
375.3000;0.2580;0.7969;
375.6000;0.2580;0.8017;
375.9000;0.2580;0.8042;
376.2000;0.2572;0.8042;
376.5000;0.2589;0.8090;
376.8000;0.2580;0.7969;
377.1000;0.2564;0.7921;
377.4000;0.2580;0.7921;
377.7000;0.2556;0.7751;
378.0000;0.2589;0.7921;
378.3000;0.2532;0.7824;
378.6000;0.2556;0.7824;
378.9000;0.2589;0.7969;
379.2000;0.2597;0.7872;
379.5000;0.2580;0.7896;
379.8000;0.2564;0.7921;
380.1000;0.2605;0.8042;
380.4000;0.2589;0.8066;
380.7000;0.2532;0.7945;
381.0000;0.2564;0.7969;
381.3000;0.2621;0.8114;
381.6000;0.2613;0.8114;
381.9000;0.2564;0.7945;
382.2000;0.2572;0.8066;
382.5000;0.2580;0.8042;
382.8000;0.2580;0.8090;
383.1000;0.2564;0.8066;
383.4000;0.2597;0.8235;
383.7000;0.2556;0.8114;
384.0000;0.2564;0.8235;
384.3000;0.2572;0.8187;
384.6000;0.2580;0.8211;
384.9000;0.2564;0.8139;
385.2000;0.2572;0.8042;
385.5000;0.2597;0.8042;
385.8000;0.2580;0.7969;
386.1000;0.2580;0.7945;
386.4000;0.2637;0.8090;
386.7000;0.2580;0.8017;
387.0000;0.2580;0.8042;
387.3000;0.2564;0.7993;
387.6000;0.2580;0.7921;
387.9000;0.2589;0.7945;
388.2000;0.2532;0.7896;
388.5000;0.2491;0.7775;
388.8000;0.2580;0.7993;
389.1000;0.2670;0.8308;
389.4000;0.2572;0.8114;
389.7000;0.2564;0.7993;
390.0000;0.2589;0.7945;
390.3000;0.2556;0.7945;
390.6000;0.2564;0.8042;
390.9000;0.2540;0.7969;
391.2000;0.2572;0.8066;
391.5000;0.2637;0.8187;
391.8000;0.2556;0.8042;
392.1000;0.2589;0.8042;
392.4000;0.2597;0.8066;
392.7000;0.2564;0.7969;
393.0000;0.2548;0.7896;
393.3000;0.2572;0.7969;
393.6000;0.2580;0.8066;
393.9000;0.2564;0.7921;
394.2000;0.2572;0.7896;
394.5000;0.2580;0.7799;
394.8000;0.2589;0.7872;
395.1000;0.2572;0.7848;
395.4000;0.2548;0.7799;
395.7000;0.2580;0.7921;
396.0000;0.2605;0.8042;
396.3000;0.2532;0.8017;
396.6000;0.2589;0.8066;
396.9000;0.2572;0.8042;
397.2000;0.2597;0.8114;
397.5000;0.2580;0.8066;
397.8000;0.2580;0.8042;
398.1000;0.2580;0.7993;
398.4000;0.2597;0.8090;
398.7000;0.2556;0.7969;
399.0000;0.2564;0.7969;
399.3000;0.2499;0.7848;
399.6000;0.2589;0.8017;
399.9000;0.2597;0.8066;
400.2000;0.2580;0.8042;
400.5000;0.2605;0.8066;
400.8000;0.2572;0.7993;
401.1000;0.2572;0.7896;
401.4000;0.2523;0.7824;
401.7000;0.2580;0.7921;
402.0000;0.2597;0.7921;
402.3000;0.2540;0.7751;
402.6000;0.2589;0.7945;
402.9000;0.2564;0.7921;
403.2000;0.2580;0.7969;
403.5000;0.2523;0.7799;
403.8000;0.2589;0.7872;
404.1000;0.2597;0.8017;
404.4000;0.2646;0.8163;
404.7000;0.2532;0.7799;
405.0000;0.2548;0.7799;
405.3000;0.2597;0.7921;
405.6000;0.2572;0.7921;
405.9000;0.2597;0.7945;
406.2000;0.2678;0.8114;
406.5000;0.2556;0.7799;
406.8000;0.2580;0.7824;
407.1000;0.2580;0.7945;
407.4000;0.2580;0.8066;
407.7000;0.2580;0.8187;
408.0000;0.2589;0.8211;
408.3000;0.2580;0.8235;
408.6000;0.2597;0.8284;
408.9000;0.2589;0.8357;
409.2000;0.2572;0.8405;
409.5000;0.2589;0.8429;
409.8000;0.2589;0.8381;
410.1000;0.2572;0.8260;
410.4000;0.2572;0.8284;
410.7000;0.2548;0.8163;
411.0000;0.2564;0.8163;
411.3000;0.2589;0.8066;
411.6000;0.2572;0.8017;
411.9000;0.2580;0.8042;
412.2000;0.2580;0.7993;
412.5000;0.2589;0.8090;
412.8000;0.2589;0.8017;
413.1000;0.2564;0.7993;
413.4000;0.2564;0.8066;
413.7000;0.2580;0.8114;
414.0000;0.2572;0.8090;
414.3000;0.2556;0.7993;
414.6000;0.2564;0.8066;
414.9000;0.2580;0.8017;
415.2000;0.2629;0.8308;
415.5000;0.2580;0.8139;
415.8000;0.2572;0.8139;
416.1000;0.2572;0.8163;
416.4000;0.2589;0.8139;
416.7000;0.2580;0.8066;
417.0000;0.2580;0.8114;
417.3000;0.2605;0.8114;
417.6000;0.2580;0.8090;
417.9000;0.2580;0.8114;
418.2000;0.2532;0.7921;
418.5000;0.2597;0.8090;
418.8000;0.2589;0.8066;
419.1000;0.2580;0.8090;
419.4000;0.2564;0.8090;
419.7000;0.2572;0.8090;
420.0000;0.2572;0.8066;
420.3000;0.2613;0.8139;
420.6000;0.2597;0.8017;
420.9000;0.2572;0.7945;
421.2000;0.2564;0.7896;
421.5000;0.2580;0.7799;
421.8000;0.2572;0.7872;
422.1000;0.2589;0.7945;
422.4000;0.2597;0.7993;
422.7000;0.2580;0.7969;
423.0000;0.2564;0.7921;
423.3000;0.2662;0.8066;
423.6000;0.2564;0.7727;
423.9000;0.2515;0.7630;
424.2000;0.2597;0.7775;
424.5000;0.2564;0.7678;
424.8000;0.2589;0.7751;
425.1000;0.2572;0.7727;
425.4000;0.2580;0.7727;
425.7000;0.2564;0.7654;
426.0000;0.2662;0.7872;
426.3000;0.2564;0.7606;
426.6000;0.2589;0.7751;
426.9000;0.2572;0.7799;
427.2000;0.2556;0.7727;
427.5000;0.2491;0.7654;
427.8000;0.2589;0.7872;
428.1000;0.2580;0.7799;
428.4000;0.2580;0.7848;
428.7000;0.2572;0.7848;
429.0000;0.2564;0.7751;
429.3000;0.2597;0.7848;
429.6000;0.2572;0.7848;
429.9000;0.2564;0.7872;
430.2000;0.2580;0.7896;
430.5000;0.2572;0.7848;
430.8000;0.2532;0.7824;
431.1000;0.2483;0.7703;
431.4000;0.2548;0.7945;
431.7000;0.2589;0.8090;
432.0000;0.2580;0.8017;
432.3000;0.2580;0.7969;
432.6000;0.2589;0.7969;
432.9000;0.2589;0.8017;
433.2000;0.2564;0.7872;
433.5000;0.2556;0.7872;
433.8000;0.2589;0.7896;
434.1000;0.2589;0.7945;
434.4000;0.2597;0.7969;
434.7000;0.2564;0.7896;
435.0000;0.2572;0.8114;
435.3000;0.2589;0.8187;
435.6000;0.2580;0.8187;
435.9000;0.2556;0.8163;
436.2000;0.2556;0.8139;
436.5000;0.2589;0.8235;
436.8000;0.2589;0.8211;
437.1000;0.2580;0.8187;
437.4000;0.2556;0.8114;
437.7000;0.2572;0.8163;
438.0000;0.2580;0.8066;
438.3000;0.2564;0.8042;
438.6000;0.2572;0.7921;
438.9000;0.2589;0.7896;
439.2000;0.2507;0.7751;
439.5000;0.2564;0.7921;
439.8000;0.2589;0.7969;
440.1000;0.2580;0.7945;
440.4000;0.2564;0.7921;
440.7000;0.2572;0.7848;
441.0000;0.2548;0.7824;
441.3000;0.2589;0.7945;
441.6000;0.2580;0.7969;
441.9000;0.2572;0.7993;
442.2000;0.2564;0.8090;
442.5000;0.2589;0.8066;
442.8000;0.2589;0.8042;
443.1000;0.2580;0.7945;
443.4000;0.2580;0.8042;
443.7000;0.2589;0.8017;
444.0000;0.2580;0.8042;
444.3000;0.2572;0.8017;
444.6000;0.2580;0.8017;
444.9000;0.2646;0.8235;
445.2000;0.2540;0.7993;
445.5000;0.2564;0.8042;
445.8000;0.2572;0.8066;
446.1000;0.2572;0.8139;
446.4000;0.2548;0.8163;
446.7000;0.2564;0.8211;
447.0000;0.2572;0.8284;
447.3000;0.2572;0.8211;
447.6000;0.2589;0.8332;
447.9000;0.2580;0.8308;
448.2000;0.2580;0.8357;
448.5000;0.2589;0.8284;
448.8000;0.2597;0.8260;
449.1000;0.2589;0.8260;
449.4000;0.2564;0.8284;
449.7000;0.2580;0.8187;
450.0000;0.2572;0.8163;
450.3000;0.2564;0.8163;
450.6000;0.2499;0.7945;
450.9000;0.2572;0.8090;
451.2000;0.2597;0.8090;
451.5000;0.2572;0.7993;
451.8000;0.2491;0.7775;
452.1000;0.2580;0.8042;
452.4000;0.2613;0.8114;
452.7000;0.2580;0.8017;
453.0000;0.2654;0.8260;
453.3000;0.2580;0.8017;
453.6000;0.2597;0.8066;
453.9000;0.2589;0.8163;
454.2000;0.2597;0.8187;
454.5000;0.2572;0.8042;
454.8000;0.2589;0.8090;
455.1000;0.2589;0.7993;
455.4000;0.2605;0.8066;
455.7000;0.2580;0.8042;
456.0000;0.2556;0.8042;
456.3000;0.2540;0.8042;
456.6000;0.2580;0.8114;
456.9000;0.2515;0.7945;
457.2000;0.2613;0.8284;
457.5000;0.2702;0.8502;
457.8000;0.2572;0.8187;
458.1000;0.2491;0.7921;
458.4000;0.2515;0.8042;
458.7000;0.2572;0.8090;
459.0000;0.2556;0.8017;
459.3000;0.2548;0.8042;
459.6000;0.2580;0.8090;
459.9000;0.2662;0.8260;
460.2000;0.2580;0.8114;
460.5000;0.2572;0.8114;
460.8000;0.2572;0.8187;
461.1000;0.2564;0.8163;
461.4000;0.2580;0.8187;
461.7000;0.2580;0.8187;
462.0000;0.2597;0.8187;
462.3000;0.2597;0.8163;
462.6000;0.2572;0.8114;
462.9000;0.2540;0.8017;
463.2000;0.2572;0.8042;
463.5000;0.2580;0.7993;
463.8000;0.2589;0.8017;
464.1000;0.2564;0.7969;
464.4000;0.2548;0.7969;
464.7000;0.2597;0.8114;
465.0000;0.2605;0.8163;
465.3000;0.2621;0.8235;
465.6000;0.2580;0.8042;
465.9000;0.2572;0.8042;
466.2000;0.2580;0.8090;
466.5000;0.2564;0.8066;
466.8000;0.2572;0.8066;
467.1000;0.2572;0.8114;
467.4000;0.2564;0.7993;
467.7000;0.2580;0.7969;
468.0000;0.2597;0.7945;
468.3000;0.2564;0.7921;
468.6000;0.2589;0.8017;
468.9000;0.2572;0.7921;
469.2000;0.2589;0.7896;
469.5000;0.2540;0.7872;
469.8000;0.2483;0.7678;
470.1000;0.2572;0.7921;
470.4000;0.2564;0.7969;
470.7000;0.2532;0.7848;
471.0000;0.2564;0.7945;
471.3000;0.2613;0.8114;
471.6000;0.2572;0.7969;
471.9000;0.2580;0.7969;
472.2000;0.2564;0.7969;
472.5000;0.2564;0.8042;
472.8000;0.2589;0.8163;
473.1000;0.2580;0.8042;
473.4000;0.2605;0.8139;
473.7000;0.2580;0.8042;
474.0000;0.2564;0.8066;
474.3000;0.2580;0.8139;
474.6000;0.2580;0.8066;
474.9000;0.2589;0.8042;
475.2000;0.2564;0.7993;
475.5000;0.2629;0.8066;
475.8000;0.2572;0.8017;
476.1000;0.2572;0.7969;
476.4000;0.2580;0.7993;
476.7000;0.2548;0.7896;
477.0000;0.2605;0.8042;
477.3000;0.2580;0.7921;
477.6000;0.2589;0.7945;
477.9000;0.2556;0.7921;
478.2000;0.2580;0.8017;
478.5000;0.2572;0.7993;
478.8000;0.2637;0.8211;
479.1000;0.2580;0.8042;
479.4000;0.2564;0.7921;
479.7000;0.2580;0.7993;
480.0000;0.2654;0.8187;
480.3000;0.2605;0.8042;
480.6000;0.2540;0.7921;
480.9000;0.2589;0.8017;
481.2000;0.2564;0.8017;
481.5000;0.2621;0.8139;
481.8000;0.2556;0.8042;
482.1000;0.2523;0.7896;
482.4000;0.2523;0.7896;
482.7000;0.2564;0.7993;
483.0000;0.2589;0.8042;
483.3000;0.2572;0.7969;
483.6000;0.2564;0.7945;
483.9000;0.2686;0.8260;
484.2000;0.2589;0.8017;
484.5000;0.2548;0.7824;
484.8000;0.2572;0.7872;
485.1000;0.2597;0.7945;
485.4000;0.2580;0.7824;
485.7000;0.2580;0.7872;
486.0000;0.2580;0.7896;
486.3000;0.2548;0.7848;
486.6000;0.2564;0.7799;
486.9000;0.2556;0.7799;
487.2000;0.2564;0.7921;
487.5000;0.2548;0.7872;
487.8000;0.2589;0.7945;
488.1000;0.2564;0.7945;
488.4000;0.2580;0.7969;
488.7000;0.2556;0.7872;
489.0000;0.2572;0.7896;
489.3000;0.2572;0.7921;
489.6000;0.2564;0.7921;
489.9000;0.2564;0.7945;
490.2000;0.2637;0.8090;
490.5000;0.2580;0.7945;
490.8000;0.2580;0.7969;
491.1000;0.2580;0.7872;
491.4000;0.2564;0.7824;
491.7000;0.2589;0.7945;
492.0000;0.2564;0.7945;
492.3000;0.2572;0.7945;
492.6000;0.2580;0.7969;
492.9000;0.2556;0.7921;
493.2000;0.2556;0.7921;
493.5000;0.2580;0.7993;
493.8000;0.2564;0.7945;
494.1000;0.2572;0.7896;
494.4000;0.2580;0.7921;
494.7000;0.2597;0.7969;
495.0000;0.2564;0.7896;
495.3000;0.2637;0.8066;
495.6000;0.2637;0.8066;
495.9000;0.2572;0.7896;
496.2000;0.2483;0.7630;
496.5000;0.2523;0.7727;
496.8000;0.2597;0.7945;
497.1000;0.2556;0.7848;
497.4000;0.2646;0.8187;
497.7000;0.2621;0.8114;
498.0000;0.2523;0.7872;
498.3000;0.2466;0.7727;
498.6000;0.2637;0.8187;
498.9000;0.2629;0.8066;
499.2000;0.2564;0.7848;
499.5000;0.2564;0.7896;
499.8000;0.2580;0.7921;
500.1000;0.2548;0.7896;
500.4000;0.2572;0.7993;
500.7000;0.2605;0.8066;
501.0000;0.2540;0.7945;
501.3000;0.2556;0.7945;
501.6000;0.2548;0.7945;
501.9000;0.2532;0.7824;
502.2000;0.2589;0.7896;
502.5000;0.2572;0.7896;
502.8000;0.2572;0.7824;
503.1000;0.2589;0.7921;
503.4000;0.2580;0.7872;
503.7000;0.2580;0.7872;
504.0000;0.2589;0.7848;
504.3000;0.2572;0.7824;
504.6000;0.2572;0.7799;
504.9000;0.2580;0.7896;
505.2000;0.2572;0.7824;
505.5000;0.2572;0.7799;
505.8000;0.2572;0.7848;
506.1000;0.2556;0.7848;
506.4000;0.2572;0.7824;
506.7000;0.2564;0.7824;
507.0000;0.2589;0.7872;
507.3000;0.2580;0.7848;
507.6000;0.2580;0.7751;
507.9000;0.2515;0.7533;
508.2000;0.2580;0.7727;
508.5000;0.2580;0.7799;
508.8000;0.2572;0.7703;
509.1000;0.2556;0.7703;
509.4000;0.2564;0.7824;
509.7000;0.2564;0.7775;
510.0000;0.2556;0.7775;
510.3000;0.2564;0.7872;
510.6000;0.2589;0.7969;
510.9000;0.2564;0.7945;
511.2000;0.2597;0.7993;
511.5000;0.2572;0.8042;
511.8000;0.2589;0.8017;
512.1000;0.2580;0.8017;
512.4000;0.2580;0.8017;
512.7000;0.2580;0.7945;
513.0000;0.2572;0.7848;
513.3000;0.2654;0.8017;
513.6000;0.2564;0.7824;
513.9000;0.2556;0.7751;
514.2000;0.2466;0.7509;
514.5000;0.2580;0.7824;
514.8000;0.2564;0.7799;
515.1000;0.2580;0.7775;
515.4000;0.2637;0.7993;
515.7000;0.2572;0.7799;
516.0000;0.2580;0.7921;
516.3000;0.2572;0.7872;
516.6000;0.2572;0.7848;
516.9000;0.2556;0.7848;
517.2000;0.2580;0.7824;
517.5000;0.2597;0.7872;
517.8000;0.2580;0.7921;
518.1000;0.2580;0.7945;
518.4000;0.2646;0.8090;
518.7000;0.2580;0.7896;
519.0000;0.2580;0.7824;
519.3000;0.2589;0.7727;
519.6000;0.2572;0.7703;
519.9000;0.2572;0.7654;
520.2000;0.2580;0.7703;
520.5000;0.2483;0.7460;
520.8000;0.2572;0.7799;
521.1000;0.2580;0.7848;
521.4000;0.2580;0.7969;
521.7000;0.2597;0.7945;
522.0000;0.2580;0.7993;
522.3000;0.2605;0.8163;
522.6000;0.2629;0.8211;
522.9000;0.2580;0.8114;
523.2000;0.2580;0.8114;
523.5000;0.2597;0.8139;
523.8000;0.2589;0.8139;
524.1000;0.2589;0.8187;
524.4000;0.2572;0.8211;
524.7000;0.2580;0.8260;
525.0000;0.2564;0.8235;
525.3000;0.2589;0.8284;
525.6000;0.2564;0.8235;
525.9000;0.2564;0.8235;
526.2000;0.2548;0.8211;
526.5000;0.2572;0.8211;
526.8000;0.2548;0.8090;
527.1000;0.2564;0.8139;
527.4000;0.2580;0.8187;
527.7000;0.2589;0.8211;
528.0000;0.2572;0.8114;
528.3000;0.2564;0.7993;
528.6000;0.2572;0.8017;
528.9000;0.2523;0.7872;
529.2000;0.2580;0.8017;
529.5000;0.2556;0.7993;
529.8000;0.2605;0.8090;
530.1000;0.2580;0.8017;
530.4000;0.2572;0.8042;
530.7000;0.2572;0.8017;
531.0000;0.2564;0.7969;
531.3000;0.2572;0.7993;
531.6000;0.2572;0.7945;
531.9000;0.2572;0.7872;
532.2000;0.2572;0.7848;
532.5000;0.2613;0.7969;
532.8000;0.2572;0.7848;
533.1000;0.2572;0.7775;
533.4000;0.2572;0.7799;
533.7000;0.2580;0.7872;
534.0000;0.2572;0.7945;
534.3000;0.2580;0.8017;
534.6000;0.2580;0.7872;
534.9000;0.2580;0.7799;
535.2000;0.2572;0.7703;
535.5000;0.2572;0.7678;
535.8000;0.2564;0.7727;
536.1000;0.2589;0.7775;
536.4000;0.2466;0.7606;
536.7000;0.2589;0.8042;
537.0000;0.2572;0.7993;
537.3000;0.2580;0.7969;
537.6000;0.2580;0.7993;
537.9000;0.2572;0.7969;
538.2000;0.2580;0.7969;
538.5000;0.2572;0.8066;
538.8000;0.2572;0.8114;
539.1000;0.2572;0.8139;
539.4000;0.2515;0.7993;
539.7000;0.2572;0.8114;
540.0000;0.2597;0.8163;
540.3000;0.2597;0.8211;
540.6000;0.2580;0.8235;
540.9000;0.2572;0.8260;
541.2000;0.2580;0.8332;
541.5000;0.2564;0.8284;
541.8000;0.2580;0.8357;
542.1000;0.2572;0.8284;
542.4000;0.2556;0.8114;
542.7000;0.2580;0.8211;
543.0000;0.2580;0.8187;
543.3000;0.2564;0.8163;
543.6000;0.2572;0.8114;
543.9000;0.2580;0.8114;
544.2000;0.2589;0.8114;
544.5000;0.2589;0.8090;
544.8000;0.2580;0.8114;
545.1000;0.2572;0.8042;
545.4000;0.2572;0.8017;
545.7000;0.2564;0.8090;
546.0000;0.2564;0.8090;
546.3000;0.2556;0.8017;
546.6000;0.2564;0.8066;
546.9000;0.2540;0.8017;
547.2000;0.2572;0.8114;
547.5000;0.2523;0.8017;
547.8000;0.2621;0.8260;
548.1000;0.2589;0.8090;
548.4000;0.2564;0.8017;
548.7000;0.2580;0.8090;
549.0000;0.2572;0.8017;
549.3000;0.2572;0.7993;
549.6000;0.2580;0.7993;
549.9000;0.2646;0.8284;
550.2000;0.2572;0.8090;
550.5000;0.2515;0.8066;
550.8000;0.2564;0.8211;
551.1000;0.2564;0.8187;
551.4000;0.2556;0.8139;
551.7000;0.2548;0.8211;
552.0000;0.2564;0.8187;
552.3000;0.2499;0.7969;
552.6000;0.2564;0.8042;
552.9000;0.2556;0.8187;
553.2000;0.2589;0.8211;
553.5000;0.2483;0.7993;
553.8000;0.2540;0.8090;
554.1000;0.2572;0.8090;
554.4000;0.2564;0.8017;
554.7000;0.2572;0.8017;
555.0000;0.2564;0.8066;
555.3000;0.2450;0.7824;
555.6000;0.2580;0.8139;
555.9000;0.2580;0.8187;
556.2000;0.2540;0.8163;
556.5000;0.2564;0.8211;
556.8000;0.2589;0.8260;
557.1000;0.2580;0.8235;
557.4000;0.2564;0.8211;
557.7000;0.2564;0.8163;
558.0000;0.2564;0.8139;
558.3000;0.2580;0.8187;
558.6000;0.2589;0.8187;
558.9000;0.2580;0.8163;
559.2000;0.2572;0.8163;
559.5000;0.2564;0.8042;
559.8000;0.2564;0.7993;
560.1000;0.2572;0.7993;
560.4000;0.2564;0.7969;
560.7000;0.2564;0.8066;
561.0000;0.2580;0.8211;
561.3000;0.2523;0.8066;
561.6000;0.2564;0.8163;
561.9000;0.2564;0.8163;
562.2000;0.2572;0.8187;
562.5000;0.2580;0.8332;
562.8000;0.2572;0.8332;
563.1000;0.2532;0.8066;
563.4000;0.2540;0.8066;
563.7000;0.2556;0.8139;
564.0000;0.2621;0.8429;
564.3000;0.2564;0.8308;
564.6000;0.2589;0.8357;
564.9000;0.2556;0.8211;
565.2000;0.2564;0.8235;
565.5000;0.2515;0.8017;
565.8000;0.2580;0.8187;
566.1000;0.2572;0.8139;
566.4000;0.2572;0.8139;
566.7000;0.2580;0.8114;
567.0000;0.2564;0.8090;
567.3000;0.2580;0.8114;
567.6000;0.2572;0.8017;
567.9000;0.2580;0.8090;
568.2000;0.2572;0.8042;
568.5000;0.2670;0.8163;
568.8000;0.2580;0.7921;
569.1000;0.2572;0.7993;
569.4000;0.2556;0.8066;
569.7000;0.2580;0.8139;
570.0000;0.2580;0.8042;
570.3000;0.2564;0.8017;
570.6000;0.2564;0.8114;
570.9000;0.2458;0.7921;
571.2000;0.2597;0.8235;
571.5000;0.2646;0.8332;
571.8000;0.2556;0.8042;
572.1000;0.2572;0.8114;
572.4000;0.2572;0.8139;
572.7000;0.2572;0.8114;
573.0000;0.2564;0.8139;
573.3000;0.2686;0.8526;
573.6000;0.2572;0.8211;
573.9000;0.2580;0.8211;
574.2000;0.2572;0.8260;
574.5000;0.2572;0.8260;
574.8000;0.2556;0.8211;
575.1000;0.2580;0.8284;
575.4000;0.2572;0.8187;
575.7000;0.2523;0.7921;
576.0000;0.2580;0.8114;
576.3000;0.2589;0.8066;
576.6000;0.2580;0.8090;
576.9000;0.2580;0.8090;
577.2000;0.2572;0.8090;
577.5000;0.2572;0.8187;
577.8000;0.2580;0.8187;
578.1000;0.2572;0.8163;
578.4000;0.2580;0.8235;
578.7000;0.2597;0.8235;
579.0000;0.2572;0.8235;
579.3000;0.2589;0.8260;
579.6000;0.2572;0.8163;
579.9000;0.2580;0.8163;
580.2000;0.2572;0.8139;
580.5000;0.2540;0.8017;
580.8000;0.2532;0.7993;
581.1000;0.2572;0.8139;
581.4000;0.2491;0.7945;
581.7000;0.2556;0.8163;
582.0000;0.2556;0.8066;
582.3000;0.2540;0.7993;
582.6000;0.2523;0.7921;
582.9000;0.2589;0.8114;
583.2000;0.2580;0.8235;
583.5000;0.2597;0.8235;
583.8000;0.2572;0.8187;
584.1000;0.2572;0.8139;
584.4000;0.2580;0.8139;
584.7000;0.2564;0.8017;
585.0000;0.2580;0.7969;
585.3000;0.2605;0.8090;
585.6000;0.2637;0.8211;
585.9000;0.2572;0.7969;
586.2000;0.2540;0.7824;
586.5000;0.2572;0.7848;
586.8000;0.2572;0.7872;
587.1000;0.2580;0.7848;
587.4000;0.2580;0.7921;
587.7000;0.2589;0.7896;
588.0000;0.2515;0.7703;
588.3000;0.2491;0.7606;
588.6000;0.2572;0.7751;
588.9000;0.2572;0.7799;
589.2000;0.2507;0.7630;
589.5000;0.2580;0.7824;
589.8000;0.2564;0.7848;
590.1000;0.2572;0.7872;
590.4000;0.2613;0.8066;
590.7000;0.2564;0.7969;
591.0000;0.2556;0.7969;
591.3000;0.2532;0.7921;
591.6000;0.2580;0.7993;
591.9000;0.2564;0.7921;
592.2000;0.2564;0.7945;
592.5000;0.2589;0.7969;
592.8000;0.2621;0.8066;
593.1000;0.2572;0.7896;
593.4000;0.2548;0.7872;
593.7000;0.2580;0.8017;
594.0000;0.2572;0.8042;
594.3000;0.2580;0.8017;
594.6000;0.2572;0.7993;
594.9000;0.2572;0.7969;
595.2000;0.2556;0.7896;
595.5000;0.2580;0.7969;
595.8000;0.2548;0.7872;
596.1000;0.2540;0.7872;
596.4000;0.2589;0.7896;
596.7000;0.2564;0.7848;
597.0000;0.2621;0.8066;
597.3000;0.2580;0.7969;
597.6000;0.2564;0.7921;
597.9000;0.2556;0.7945;
598.2000;0.2597;0.8066;
598.5000;0.2580;0.8042;
598.8000;0.2572;0.7993;
599.1000;0.2613;0.8090;
599.4000;0.2556;0.7993;
599.7000;0.2564;0.8042;
600.0000;0.2572;0.8017;
600.3000;0.2556;0.7896;
600.6000;0.2556;0.7824;
600.9000;0.2523;0.7606;
601.2000;0.2548;0.7485;
601.5000;0.2540;0.7388;
601.8000;0.2556;0.7291;
602.1000;0.2548;0.7242;
602.4000;0.2540;0.7073;
602.7000;0.2548;0.6952;
603.0000;0.2548;0.6976;
603.3000;0.2589;0.6976;
603.6000;0.2580;0.6879;
603.9000;0.2540;0.6709;
604.2000;0.2540;0.6709;
604.5000;0.2589;0.6806;
604.8000;0.2515;0.6613;
605.1000;0.2523;0.6516;
605.4000;0.2523;0.6395;
605.7000;0.2515;0.6370;
606.0000;0.2523;0.6370;
606.3000;0.2532;0.6298;
606.6000;0.2491;0.6201;
606.9000;0.2597;0.6467;
607.2000;0.2483;0.6201;
607.5000;0.2515;0.6346;
607.8000;0.2556;0.6516;
608.1000;0.2507;0.6419;
608.4000;0.2483;0.6322;
608.7000;0.2515;0.6370;
609.0000;0.2466;0.6201;
609.3000;0.2532;0.6346;
609.6000;0.2515;0.6298;
609.9000;0.2483;0.6273;
610.2000;0.2499;0.6273;
610.5000;0.2499;0.6201;
610.8000;0.2523;0.6225;
611.1000;0.2532;0.6225;
611.4000;0.2556;0.6443;
611.7000;0.2507;0.6225;
612.0000;0.2523;0.6225;
612.3000;0.2515;0.6177;
612.6000;0.2507;0.6080;
612.9000;0.2515;0.6128;
613.2000;0.2556;0.6201;
613.5000;0.2572;0.6346;
613.8000;0.2483;0.6080;
614.1000;0.2523;0.6152;
614.4000;0.2523;0.6152;
614.7000;0.2491;0.6080;
615.0000;0.2418;0.5837;
615.3000;0.2483;0.6104;
615.6000;0.2499;0.6152;
615.9000;0.2523;0.6249;
616.2000;0.2540;0.6298;
616.5000;0.2491;0.6201;
616.8000;0.2532;0.6249;
617.1000;0.2499;0.6152;
617.4000;0.2491;0.6152;
617.7000;0.2507;0.6152;
618.0000;0.2491;0.6104;
618.3000;0.2491;0.6055;
618.6000;0.2499;0.6031;
618.9000;0.2475;0.6055;
619.2000;0.2491;0.6031;
619.5000;0.2515;0.5983;
619.8000;0.2442;0.5765;
620.1000;0.2491;0.5910;
620.4000;0.2491;0.5910;
620.7000;0.2523;0.6031;
621.0000;0.2491;0.6007;
621.3000;0.2466;0.5934;
621.6000;0.2491;0.5983;
621.9000;0.2507;0.5983;
622.2000;0.2499;0.5983;
622.5000;0.2491;0.5983;
622.8000;0.2499;0.5959;
623.1000;0.2450;0.5862;
623.4000;0.2499;0.6055;
623.7000;0.2475;0.6031;
624.0000;0.2491;0.6055;
624.3000;0.2499;0.6128;
624.6000;0.2499;0.6273;
624.9000;0.2491;0.6249;
625.2000;0.2515;0.6201;
625.5000;0.2499;0.6128;
625.8000;0.2499;0.6007;
626.1000;0.2507;0.5983;
626.4000;0.2499;0.5934;
626.7000;0.2507;0.5886;
627.0000;0.2466;0.5765;
627.3000;0.2507;0.5837;
627.6000;0.2483;0.5692;
627.9000;0.2483;0.5692;
628.2000;0.2515;0.5813;
628.5000;0.2532;0.5959;
628.8000;0.2483;0.5837;
629.1000;0.2532;0.5910;
629.4000;0.2499;0.5910;
629.7000;0.2507;0.5983;
630.0000;0.2491;0.5959;
630.3000;0.2507;0.5910;
630.6000;0.2580;0.6055;
630.9000;0.2499;0.5862;
631.2000;0.2507;0.5862;
631.5000;0.2499;0.5983;
631.8000;0.2507;0.6007;
632.1000;0.2458;0.5886;
632.4000;0.2491;0.6055;
632.7000;0.2507;0.6007;
633.0000;0.2507;0.6007;
633.3000;0.2499;0.6007;
633.6000;0.2507;0.6031;
633.9000;0.2466;0.5910;
634.2000;0.2515;0.6031;
634.5000;0.2483;0.5862;
634.8000;0.2515;0.5862;
635.1000;0.2507;0.5789;
635.4000;0.2507;0.5789;
635.7000;0.2475;0.5668;
636.0000;0.2507;0.5741;
636.3000;0.2507;0.5765;
636.6000;0.2499;0.5765;
636.9000;0.2507;0.5886;
637.2000;0.2499;0.5910;
637.5000;0.2475;0.5910;
637.8000;0.2466;0.5934;
638.1000;0.2450;0.5886;
638.4000;0.2491;0.5886;
638.7000;0.2483;0.5959;
639.0000;0.2418;0.5716;
639.3000;0.2499;0.6007;
639.6000;0.2499;0.6031;
639.9000;0.2507;0.6080;
640.2000;0.2507;0.6031;
640.5000;0.2507;0.6055;
640.8000;0.2507;0.5934;
641.1000;0.2491;0.5765;
641.4000;0.2491;0.5789;
641.7000;0.2523;0.5910;
642.0000;0.2491;0.5886;
642.3000;0.2523;0.5813;
642.6000;0.2499;0.5765;
642.9000;0.2499;0.5813;
643.2000;0.2507;0.5789;
643.5000;0.2491;0.5765;
643.8000;0.2499;0.5765;
644.1000;0.2450;0.5644;
644.4000;0.2491;0.5741;
644.7000;0.2507;0.5765;
645.0000;0.2523;0.5862;
645.3000;0.2507;0.5862;
645.6000;0.2499;0.5789;
645.9000;0.2499;0.5741;
646.2000;0.2491;0.5765;
646.5000;0.2515;0.5837;
646.8000;0.2515;0.5716;
647.1000;0.2605;0.5959;
647.4000;0.2499;0.5716;
647.7000;0.2515;0.5716;
648.0000;0.2515;0.5716;
648.3000;0.2507;0.5765;
648.6000;0.2499;0.5765;
648.9000;0.2507;0.5789;
649.2000;0.2491;0.5837;
649.5000;0.2466;0.5692;
649.8000;0.2491;0.5692;
650.1000;0.2515;0.5789;
650.4000;0.2507;0.5813;
650.7000;0.2499;0.5813;
651.0000;0.2475;0.5789;
651.3000;0.2507;0.5837;
651.6000;0.2515;0.5813;
651.9000;0.2507;0.5813;
652.2000;0.2491;0.5862;
652.5000;0.2499;0.5934;
652.8000;0.2442;0.5934;
653.1000;0.2499;0.6031;
653.4000;0.2475;0.5934;
653.7000;0.2499;0.5886;
654.0000;0.2499;0.5862;
654.3000;0.2556;0.5934;
654.6000;0.2491;0.5644;
654.9000;0.2491;0.5644;
655.2000;0.2483;0.5644;
655.5000;0.2475;0.5668;
655.8000;0.2491;0.5644;
656.1000;0.2556;0.5765;
656.4000;0.2475;0.5644;
656.7000;0.2499;0.5668;
657.0000;0.2491;0.5765;
657.3000;0.2499;0.5765;
657.6000;0.2499;0.5813;
657.9000;0.2483;0.5789;
658.2000;0.2466;0.5765;
658.5000;0.2475;0.5813;
658.8000;0.2483;0.5910;
659.1000;0.2499;0.5886;
659.4000;0.2499;0.5862;
659.7000;0.2491;0.5910;
660.0000;0.2499;0.5886;
660.3000;0.2483;0.5862;
660.6000;0.2507;0.5813;
660.9000;0.2515;0.5741;
661.2000;0.2515;0.5765;
661.5000;0.2515;0.5644;
661.8000;0.2532;0.5741;
662.1000;0.2507;0.5716;
662.4000;0.2523;0.5813;
662.7000;0.2466;0.5741;
663.0000;0.2507;0.5837;
663.3000;0.2507;0.5813;
663.6000;0.2491;0.5765;
663.9000;0.2515;0.5934;
664.2000;0.2515;0.6031;
664.5000;0.2483;0.6055;
664.8000;0.2507;0.6031;
665.1000;0.2499;0.5910;
665.4000;0.2515;0.5934;
665.7000;0.2507;0.5886;
666.0000;0.2491;0.5813;
666.3000;0.2491;0.5765;
666.6000;0.2507;0.5741;
666.9000;0.2499;0.5765;
667.2000;0.2499;0.5644;
667.5000;0.2491;0.5595;
667.8000;0.2507;0.5571;
668.1000;0.2523;0.5668;
668.4000;0.2483;0.5571;
668.7000;0.2499;0.5692;
669.0000;0.2491;0.5595;
669.3000;0.2499;0.5644;
669.6000;0.2507;0.5692;
669.9000;0.2491;0.5668;
670.2000;0.2523;0.5789;
670.5000;0.2499;0.5789;
670.8000;0.2515;0.5886;
671.1000;0.2499;0.5862;
671.4000;0.2491;0.5862;
671.7000;0.2507;0.5886;
672.0000;0.2523;0.5934;
672.3000;0.2540;0.5959;
672.6000;0.2483;0.5837;
672.9000;0.2515;0.5886;
673.2000;0.2483;0.5837;
673.5000;0.2507;0.5886;
673.8000;0.2499;0.5789;
674.1000;0.2499;0.5789;
674.4000;0.2605;0.6104;
674.7000;0.2507;0.5886;
675.0000;0.2499;0.5813;
675.3000;0.2515;0.5813;
675.6000;0.2613;0.6080;
675.9000;0.2499;0.5862;
676.2000;0.2499;0.5862;
676.5000;0.2515;0.5910;
676.8000;0.2491;0.5886;
677.1000;0.2491;0.5910;
677.4000;0.2475;0.5837;
677.7000;0.2499;0.5837;
678.0000;0.2523;0.5934;
678.3000;0.2507;0.5789;
678.6000;0.2515;0.5789;
678.9000;0.2466;0.5741;
679.2000;0.2458;0.5668;
679.5000;0.2507;0.5789;
679.8000;0.2499;0.5862;
680.1000;0.2507;0.5934;
680.4000;0.2507;0.5886;
680.7000;0.2507;0.5886;
681.0000;0.2580;0.6104;
681.3000;0.2483;0.5765;
681.6000;0.2515;0.5765;
681.9000;0.2523;0.5862;
682.2000;0.2523;0.5813;
682.5000;0.2466;0.5692;
682.8000;0.2491;0.5741;
683.1000;0.2483;0.5716;
683.4000;0.2507;0.5789;
683.7000;0.2475;0.5765;
684.0000;0.2515;0.5837;
684.3000;0.2475;0.5765;
684.6000;0.2532;0.5886;
684.9000;0.2515;0.5910;
685.2000;0.2532;0.5910;
685.5000;0.2483;0.5837;
685.8000;0.2491;0.6031;
686.1000;0.2483;0.5959;
686.4000;0.2507;0.6031;
686.7000;0.2491;0.5959;
687.0000;0.2540;0.6080;
687.3000;0.2507;0.5983;
687.6000;0.2499;0.6007;
687.9000;0.2564;0.6177;
688.2000;0.2466;0.5910;
688.5000;0.2515;0.6031;
688.8000;0.2499;0.5910;
689.1000;0.2499;0.5934;
689.4000;0.2491;0.5837;
689.7000;0.2499;0.5934;
690.0000;0.2532;0.6007;
690.3000;0.2475;0.5862;
690.6000;0.2491;0.5789;
690.9000;0.2507;0.5789;
691.2000;0.2507;0.5837;
691.5000;0.2515;0.5837;
691.8000;0.2499;0.5813;
692.1000;0.2491;0.5862;
692.4000;0.2507;0.5862;
692.7000;0.2515;0.5910;
693.0000;0.2507;0.5813;
693.3000;0.2507;0.5837;
693.6000;0.2507;0.5837;
693.9000;0.2483;0.5789;
694.2000;0.2507;0.5959;
694.5000;0.2466;0.5910;
694.8000;0.2483;0.5959;
695.1000;0.2507;0.6128;
695.4000;0.2507;0.6249;
695.7000;0.2475;0.6273;
696.0000;0.2499;0.6152;
696.3000;0.2507;0.6080;
696.6000;0.2507;0.6152;
696.9000;0.2499;0.6128;
697.2000;0.2442;0.6080;
697.5000;0.2491;0.6201;
697.8000;0.2515;0.6201;
698.1000;0.2515;0.6201;
698.4000;0.2409;0.5837;
698.7000;0.2491;0.6007;
699.0000;0.2507;0.5983;
699.3000;0.2515;0.5910;
699.6000;0.2475;0.5910;
699.9000;0.2385;0.5716;
700.2000;0.2499;0.5959;
700.5000;0.2434;0.5789;
700.8000;0.2491;0.6031;
701.1000;0.2499;0.6080;
701.4000;0.2605;0.6298;
701.7000;0.2499;0.5983;
702.0000;0.2483;0.5837;
702.3000;0.2491;0.5934;
702.6000;0.2499;0.5934;
702.9000;0.2523;0.6007;
703.2000;0.2523;0.5910;
703.5000;0.2491;0.5886;
703.8000;0.2499;0.5910;
704.1000;0.2458;0.5886;
704.4000;0.2532;0.6104;
704.7000;0.2507;0.6031;
705.0000;0.2548;0.6177;
705.3000;0.2475;0.6080;
705.6000;0.2507;0.6104;
705.9000;0.2564;0.6225;
706.2000;0.2515;0.6031;
706.5000;0.2515;0.6055;
706.8000;0.2499;0.5983;
707.1000;0.2483;0.5910;
707.4000;0.2499;0.5983;
707.7000;0.2491;0.5959;
708.0000;0.2507;0.6007;
708.3000;0.2646;0.6370;
708.6000;0.2499;0.6031;
708.9000;0.2515;0.6055;
709.2000;0.2515;0.5983;
709.5000;0.2483;0.5886;
709.8000;0.2491;0.5959;
710.1000;0.2491;0.5910;
710.4000;0.2515;0.5983;
710.7000;0.2621;0.6298;
711.0000;0.2483;0.6055;
711.3000;0.2499;0.6104;
711.6000;0.2507;0.6104;
711.9000;0.2491;0.6080;
712.2000;0.2475;0.6055;
712.5000;0.2499;0.6128;
712.8000;0.2458;0.5959;
713.1000;0.2483;0.5983;
713.4000;0.2515;0.6031;
713.7000;0.2507;0.6007;
714.0000;0.2507;0.5983;
714.3000;0.2499;0.5983;
714.6000;0.2491;0.5983;
714.9000;0.2532;0.6177;
715.2000;0.2523;0.6104;
715.5000;0.2507;0.6104;
715.8000;0.2491;0.6080;
716.1000;0.2483;0.5983;
716.4000;0.2499;0.6177;
716.7000;0.2491;0.6177;
717.0000;0.2515;0.6249;
717.3000;0.2491;0.6104;
717.6000;0.2499;0.6055;
717.9000;0.2507;0.6007;
718.2000;0.2515;0.6055;
718.5000;0.2515;0.5959;
718.8000;0.2491;0.5983;
719.1000;0.2507;0.6031;
719.4000;0.2515;0.6104;
719.7000;0.2458;0.5983;
720.0000;0.2507;0.6055;
720.3000;0.2507;0.5959;
720.6000;0.2442;0.5886;
720.9000;0.2540;0.6104;
721.2000;0.2621;0.6443;
721.5000;0.2491;0.6031;
721.8000;0.2499;0.5934;
722.1000;0.2532;0.6104;
722.4000;0.2499;0.6055;
722.7000;0.2499;0.6128;
723.0000;0.2491;0.6104;
723.3000;0.2483;0.6031;
723.6000;0.2515;0.6249;
723.9000;0.2507;0.6225;
724.2000;0.2499;0.6152;
724.5000;0.2475;0.5959;
724.8000;0.2499;0.6104;
725.1000;0.2491;0.6007;
725.4000;0.2499;0.5959;
725.7000;0.2499;0.5886;
726.0000;0.2621;0.6201;
726.3000;0.2507;0.5862;
726.6000;0.2499;0.5837;
726.9000;0.2499;0.5837;
727.2000;0.2491;0.5862;
727.5000;0.2605;0.6080;
727.8000;0.2507;0.5862;
728.1000;0.2572;0.6007;
728.4000;0.2483;0.5862;
728.7000;0.2499;0.5983;
729.0000;0.2507;0.6104;
729.3000;0.2475;0.6055;
729.6000;0.2515;0.6152;
729.9000;0.2515;0.6128;
730.2000;0.2499;0.6055;
730.5000;0.2523;0.6104;
730.8000;0.2507;0.6055;
731.1000;0.2466;0.5934;
731.4000;0.2491;0.5959;
731.7000;0.2483;0.5910;
732.0000;0.2613;0.6249;
732.3000;0.2580;0.6152;
732.6000;0.2507;0.5837;
732.9000;0.2499;0.5886;
733.2000;0.2491;0.6007;
733.5000;0.2515;0.6031;
733.8000;0.2523;0.6031;
734.1000;0.2507;0.6080;
734.4000;0.2491;0.6055;
734.7000;0.2515;0.6128;
735.0000;0.2507;0.6104;
735.3000;0.2515;0.6177;
735.6000;0.2507;0.6152;
735.9000;0.2507;0.6128;
736.2000;0.2507;0.6104;
736.5000;0.2499;0.6031;
736.8000;0.2499;0.6055;
737.1000;0.2434;0.5765;
737.4000;0.2507;0.6031;
737.7000;0.2507;0.6104;
738.0000;0.2507;0.5983;
738.3000;0.2532;0.6104;
738.6000;0.2507;0.5959;
738.9000;0.2483;0.5959;
739.2000;0.2515;0.6055;
739.5000;0.2532;0.6128;
739.8000;0.2515;0.6055;
740.1000;0.2532;0.6055;
740.4000;0.2507;0.6031;
740.7000;0.2507;0.5910;
741.0000;0.2515;0.5983;
741.3000;0.2499;0.5910;
741.6000;0.2499;0.5983;
741.9000;0.2507;0.5983;
742.2000;0.2523;0.6055;
742.5000;0.2515;0.5959;
742.8000;0.2515;0.5934;
743.1000;0.2507;0.6007;
743.4000;0.2507;0.5959;
743.7000;0.2523;0.5959;
744.0000;0.2515;0.5983;
744.3000;0.2515;0.5934;
744.6000;0.2605;0.6201;
744.9000;0.2499;0.5910;
745.2000;0.2532;0.5886;
745.5000;0.2515;0.5886;
745.8000;0.2499;0.5789;
746.1000;0.2515;0.5813;
746.4000;0.2507;0.5886;
746.7000;0.2507;0.5910;
747.0000;0.2466;0.5789;
747.3000;0.2499;0.5886;
747.6000;0.2515;0.5959;
747.9000;0.2499;0.5959;
748.2000;0.2499;0.6007;
748.5000;0.2491;0.5983;
748.8000;0.2499;0.5983;
749.1000;0.2564;0.6080;
749.4000;0.2491;0.6031;
749.7000;0.2515;0.6152;
750.0000;0.2507;0.6152;
750.3000;0.2491;0.6177;
750.6000;0.2499;0.6152;
750.9000;0.2499;0.6055;
751.2000;0.2483;0.5959;
751.5000;0.2507;0.6031;
751.8000;0.2507;0.6104;
752.1000;0.2434;0.5934;
752.4000;0.2515;0.6177;
752.7000;0.2515;0.6177;
753.0000;0.2523;0.6201;
753.3000;0.2507;0.6201;
753.6000;0.2499;0.6177;
753.9000;0.2515;0.6249;
754.2000;0.2515;0.6225;
754.5000;0.2507;0.6128;
754.8000;0.2295;0.5450;
755.1000;0.2523;0.5983;
755.4000;0.2507;0.6007;
755.7000;0.2507;0.5983;
756.0000;0.2515;0.6007;
756.3000;0.2507;0.5959;
756.6000;0.2507;0.5862;
756.9000;0.2499;0.5934;
757.2000;0.2499;0.5910;
757.5000;0.2491;0.5983;
757.8000;0.2491;0.6055;
758.1000;0.2491;0.6031;
758.4000;0.2523;0.6104;
758.7000;0.2491;0.6007;
759.0000;0.2450;0.5886;
759.3000;0.2499;0.6031;
759.6000;0.2426;0.5910;
759.9000;0.2499;0.6080;
760.2000;0.2491;0.5983;
760.5000;0.2507;0.6055;
760.8000;0.2491;0.6007;
761.1000;0.2499;0.6007;
761.4000;0.2507;0.5983;
761.7000;0.2458;0.5765;
762.0000;0.2483;0.5862;
762.3000;0.2491;0.5910;
762.6000;0.2499;0.5959;
762.9000;0.2523;0.5959;
763.2000;0.2507;0.6007;
763.5000;0.2491;0.5934;
763.8000;0.2499;0.5983;
764.1000;0.2515;0.5934;
764.4000;0.2515;0.5959;
764.7000;0.2507;0.6031;
765.0000;0.2515;0.5983;
765.3000;0.2515;0.6080;
765.6000;0.2507;0.6007;
765.9000;0.2507;0.6031;
766.2000;0.2491;0.5959;
766.5000;0.2499;0.5983;
766.8000;0.2499;0.5983;
767.1000;0.2515;0.6007;
767.4000;0.2483;0.5959;
767.7000;0.2491;0.6031;
768.0000;0.2499;0.5910;
768.3000;0.2507;0.5959;
768.6000;0.2532;0.6031;
768.9000;0.2507;0.5959;
769.2000;0.2499;0.6031;
769.5000;0.2491;0.6031;
769.8000;0.2515;0.6055;
770.1000;0.2483;0.6007;
770.4000;0.2548;0.6152;
770.7000;0.2499;0.6055;
771.0000;0.2507;0.6031;
771.3000;0.2507;0.6031;
771.6000;0.2409;0.5789;
771.9000;0.2540;0.6225;
772.2000;0.2499;0.6104;
772.5000;0.2499;0.6104;
772.8000;0.2507;0.6128;
773.1000;0.2499;0.6080;
773.4000;0.2499;0.6152;
773.7000;0.2491;0.6104;
774.0000;0.2483;0.6007;
774.3000;0.2499;0.6177;
774.6000;0.2499;0.6152;
774.9000;0.2515;0.6201;
775.2000;0.2499;0.6152;
775.5000;0.2507;0.6273;
775.8000;0.2532;0.6249;
776.1000;0.2523;0.6201;
776.4000;0.2507;0.6152;
776.7000;0.2507;0.6104;
777.0000;0.2483;0.6031;
777.3000;0.2499;0.6104;
777.6000;0.2523;0.6104;
777.9000;0.2523;0.6177;
778.2000;0.2499;0.6080;
778.5000;0.2507;0.6128;
778.8000;0.2475;0.6031;
779.1000;0.2523;0.6152;
779.4000;0.2483;0.6128;
779.7000;0.2515;0.6104;
780.0000;0.2589;0.6201;
780.3000;0.2507;0.6104;
780.6000;0.2499;0.6104;
780.9000;0.2458;0.5983;
781.2000;0.2483;0.6031;
781.5000;0.2515;0.6055;
781.8000;0.2385;0.5765;
782.1000;0.2515;0.6031;
782.4000;0.2491;0.6080;
782.7000;0.2483;0.6080;
783.0000;0.2499;0.6225;
783.3000;0.2515;0.6273;
783.6000;0.2507;0.6346;
783.9000;0.2507;0.6322;
784.2000;0.2580;0.6467;
784.5000;0.2491;0.6225;
784.8000;0.2499;0.6128;
785.1000;0.2515;0.6201;
785.4000;0.2507;0.6128;
785.7000;0.2491;0.6104;
786.0000;0.2523;0.6007;
786.3000;0.2491;0.5910;
786.6000;0.2507;0.5910;
786.9000;0.2515;0.5862;
787.2000;0.2523;0.5886;
787.5000;0.2499;0.5862;
787.8000;0.2507;0.5934;
788.1000;0.2491;0.5934;
788.4000;0.2515;0.6055;
788.7000;0.2507;0.6031;
789.0000;0.2499;0.6080;
789.3000;0.2540;0.6152;
789.6000;0.2483;0.5910;
789.9000;0.2499;0.5886;
790.2000;0.2507;0.5959;
790.5000;0.2580;0.6055;
790.8000;0.2499;0.5862;
791.1000;0.2507;0.5886;
791.4000;0.2507;0.5910;
791.7000;0.2532;0.6007;
792.0000;0.2499;0.5934;
792.3000;0.2483;0.5934;
792.6000;0.2507;0.6055;
792.9000;0.2507;0.5959;
793.2000;0.2499;0.6007;
793.5000;0.2515;0.6128;
793.8000;0.2499;0.6128;
794.1000;0.2523;0.6201;
794.4000;0.2499;0.6104;
794.7000;0.2499;0.6152;
795.0000;0.2385;0.5862;
795.3000;0.2523;0.6249;
795.6000;0.2605;0.6419;
795.9000;0.2613;0.6540;
796.2000;0.2507;0.6298;
796.5000;0.2499;0.6273;
796.8000;0.2507;0.6104;
797.1000;0.2491;0.6055;
797.4000;0.2556;0.6152;
797.7000;0.2515;0.6007;
798.0000;0.2556;0.6080;
798.3000;0.2556;0.6152;
798.6000;0.2499;0.5959;
798.9000;0.2499;0.6007;
799.2000;0.2507;0.5983;
799.5000;0.2507;0.6007;
799.8000;0.2515;0.6080;
800.1000;0.2499;0.5959;
800.4000;0.2580;0.6152;
800.7000;0.2499;0.5910;
801.0000;0.2515;0.6031;
801.3000;0.2426;0.5862;
801.6000;0.2491;0.6031;
801.9000;0.2556;0.6104;
802.2000;0.2507;0.5934;
802.5000;0.2491;0.5983;
802.8000;0.2507;0.6031;
803.1000;0.2434;0.5837;
803.4000;0.2564;0.6152;
803.7000;0.2499;0.5910;
804.0000;0.2483;0.5886;
804.3000;0.2523;0.5983;
804.6000;0.2499;0.5983;
804.9000;0.2515;0.6007;
805.2000;0.2507;0.5862;
805.5000;0.2523;0.5837;
805.8000;0.2434;0.5741;
806.1000;0.2466;0.5837;
806.4000;0.2507;0.5983;
806.7000;0.2515;0.6007;
807.0000;0.2491;0.5886;
807.3000;0.2515;0.5959;
807.6000;0.2589;0.6080;
807.9000;0.2475;0.5813;
808.2000;0.2523;0.5934;
808.5000;0.2515;0.6007;
808.8000;0.2507;0.5959;
809.1000;0.2499;0.5983;
809.4000;0.2483;0.5983;
809.7000;0.2491;0.6055;
810.0000;0.2515;0.6128;
810.3000;0.2491;0.5934;
810.6000;0.2515;0.6031;
810.9000;0.2507;0.6031;
811.2000;0.2507;0.6080;
811.5000;0.2515;0.6104;
811.8000;0.2548;0.6225;
812.1000;0.2507;0.6128;
812.4000;0.2523;0.6128;
812.7000;0.2515;0.6055;
813.0000;0.2523;0.5983;
813.3000;0.2540;0.6007;
813.6000;0.2515;0.5934;
813.9000;0.2491;0.5910;
814.2000;0.2532;0.6128;
814.5000;0.2507;0.6031;
814.8000;0.2515;0.6007;
815.1000;0.2491;0.5837;
815.4000;0.2491;0.5862;
815.7000;0.2499;0.5862;
816.0000;0.2491;0.5837;
816.3000;0.2605;0.6104;
816.6000;0.2605;0.5959;
816.9000;0.2532;0.5716;
817.2000;0.2491;0.5692;
817.5000;0.2499;0.5716;
817.8000;0.2499;0.5789;
818.1000;0.2540;0.5862;
818.4000;0.2499;0.5862;
818.7000;0.2499;0.5741;
819.0000;0.2515;0.5886;
819.3000;0.2540;0.5862;
819.6000;0.2515;0.5837;
819.9000;0.2491;0.5789;
820.2000;0.2515;0.5910;
820.5000;0.2499;0.5959;
820.8000;0.2491;0.5983;
821.1000;0.2515;0.5934;
821.4000;0.2523;0.5959;
821.7000;0.2548;0.6055;
822.0000;0.2515;0.5959;
822.3000;0.2458;0.5886;
822.6000;0.2499;0.5959;
822.9000;0.2507;0.5934;
823.2000;0.2515;0.5910;
823.5000;0.2499;0.5813;
823.8000;0.2532;0.5886;
824.1000;0.2507;0.5959;
824.4000;0.2466;0.5886;
824.7000;0.2507;0.6007;
825.0000;0.2507;0.6080;
825.3000;0.2483;0.5959;
825.6000;0.2499;0.5959;
825.9000;0.2507;0.5983;
826.2000;0.2515;0.5983;
826.5000;0.2515;0.5959;
826.8000;0.2515;0.5983;
827.1000;0.2507;0.5983;
827.4000;0.2515;0.6007;
827.7000;0.2507;0.5934;
828.0000;0.2515;0.5934;
828.3000;0.2507;0.5886;
828.6000;0.2475;0.5765;
828.9000;0.2483;0.5862;
829.2000;0.2507;0.6007;
829.5000;0.2515;0.6055;
829.8000;0.2491;0.5959;
830.1000;0.2499;0.5886;
830.4000;0.2507;0.5934;
830.7000;0.2523;0.5910;
831.0000;0.2548;0.5959;
831.3000;0.2515;0.5886;
831.6000;0.2515;0.5862;
831.9000;0.2499;0.5886;
832.2000;0.2523;0.6007;
832.5000;0.2491;0.6031;
832.8000;0.2491;0.5959;
833.1000;0.2523;0.6055;
833.4000;0.2507;0.5959;
833.7000;0.2515;0.6031;
834.0000;0.2499;0.5983;
834.3000;0.2523;0.6104;
834.6000;0.2499;0.6055;
834.9000;0.2499;0.5983;
835.2000;0.2507;0.6007;
835.5000;0.2499;0.5959;
835.8000;0.2523;0.6055;
836.1000;0.2523;0.6007;
836.4000;0.2556;0.6104;
836.7000;0.2491;0.5910;
837.0000;0.2507;0.6031;
837.3000;0.2507;0.6007;
837.6000;0.2507;0.6031;
837.9000;0.2466;0.5910;
838.2000;0.2466;0.5983;
838.5000;0.2523;0.6080;
838.8000;0.2515;0.6055;
839.1000;0.2491;0.6007;
839.4000;0.2499;0.6104;
839.7000;0.2466;0.6055;
840.0000;0.2507;0.6055;
840.3000;0.2507;0.6031;
840.6000;0.2442;0.5813;
840.9000;0.2466;0.5862;
841.2000;0.2491;0.5886;
841.5000;0.2507;0.5983;
841.8000;0.2499;0.6007;
842.1000;0.2515;0.6128;
842.4000;0.2499;0.6031;
842.7000;0.2507;0.5983;
843.0000;0.2580;0.6177;
843.3000;0.2556;0.6225;
843.6000;0.2515;0.6177;
843.9000;0.2515;0.6177;
844.2000;0.2393;0.5862;
844.5000;0.2507;0.6177;
844.8000;0.2515;0.6249;
845.1000;0.2523;0.6225;
845.4000;0.2483;0.6080;
845.7000;0.2475;0.6007;
846.0000;0.2523;0.6177;
846.3000;0.2523;0.6201;
846.6000;0.2580;0.6370;
846.9000;0.2491;0.6031;
847.2000;0.2507;0.5959;
847.5000;0.2532;0.5886;
847.8000;0.2523;0.5862;
848.1000;0.2491;0.5862;
848.4000;0.2523;0.5886;
848.7000;0.2515;0.5910;
849.0000;0.2515;0.5934;
849.3000;0.2491;0.5910;
849.6000;0.2523;0.5983;
849.9000;0.2491;0.5837;
850.2000;0.2523;0.5886;
850.5000;0.2507;0.5910;
850.8000;0.2507;0.5886;
851.1000;0.2434;0.5692;
851.4000;0.2523;0.5837;
851.7000;0.2507;0.5813;
852.0000;0.2515;0.5813;
852.3000;0.2532;0.5910;
852.6000;0.2507;0.5886;
852.9000;0.2499;0.5862;
853.2000;0.2572;0.5959;
853.5000;0.2548;0.5910;
853.8000;0.2507;0.5886;
854.1000;0.2491;0.5934;
854.4000;0.2499;0.6007;
854.7000;0.2491;0.6031;
855.0000;0.2507;0.6031;
855.3000;0.2507;0.5910;
855.6000;0.2507;0.5862;
855.9000;0.2507;0.5886;
856.2000;0.2450;0.5741;
856.5000;0.2532;0.6031;
856.8000;0.2515;0.5959;
857.1000;0.2507;0.5959;
857.4000;0.2507;0.6055;
857.7000;0.2491;0.6007;
858.0000;0.2499;0.6007;
858.3000;0.2483;0.5983;
858.6000;0.2507;0.5983;
858.9000;0.2507;0.6031;
859.2000;0.2458;0.5910;
859.5000;0.2515;0.5959;
859.8000;0.2507;0.5959;
860.1000;0.2507;0.5934;
860.4000;0.2540;0.6031;
860.7000;0.2515;0.6007;
861.0000;0.2499;0.5934;
861.3000;0.2556;0.6055;
861.6000;0.2523;0.6055;
861.9000;0.2523;0.6055;
862.2000;0.2515;0.6055;
862.5000;0.2507;0.6007;
862.8000;0.2523;0.6055;
863.1000;0.2499;0.6031;
863.4000;0.2523;0.6104;
863.7000;0.2515;0.6080;
864.0000;0.2523;0.6055;
864.3000;0.2580;0.6128;
864.6000;0.2515;0.5886;
864.9000;0.2572;0.6080;
865.2000;0.2515;0.5934;
865.5000;0.2515;0.6055;
865.8000;0.2491;0.6104;
866.1000;0.2401;0.5910;
866.4000;0.2515;0.6152;
866.7000;0.2523;0.6177;
867.0000;0.2515;0.6031;
867.3000;0.2507;0.5959;
867.6000;0.2515;0.6007;
867.9000;0.2507;0.6055;
868.2000;0.2418;0.5886;
868.5000;0.2507;0.6152;
868.8000;0.2523;0.6225;
869.1000;0.2499;0.6152;
869.4000;0.2507;0.6104;
869.7000;0.2507;0.6104;
870.0000;0.2515;0.6104;
870.3000;0.2507;0.6080;
870.6000;0.2499;0.6152;
870.9000;0.2483;0.6128;
871.2000;0.2483;0.6080;
871.5000;0.2515;0.6201;
871.8000;0.2523;0.6249;
872.1000;0.2507;0.6225;
872.4000;0.2483;0.6080;
872.7000;0.2491;0.6128;
873.0000;0.2523;0.6104;
873.3000;0.2507;0.6152;
873.6000;0.2499;0.6201;
873.9000;0.2523;0.6104;
874.2000;0.2523;0.6104;
874.5000;0.2532;0.6055;
874.8000;0.2507;0.6080;
875.1000;0.2515;0.6201;
875.4000;0.2491;0.6080;
875.7000;0.2507;0.6152;
876.0000;0.2499;0.6273;
876.3000;0.2564;0.6443;
876.6000;0.2442;0.6104;
876.9000;0.2507;0.6225;
877.2000;0.2491;0.6273;
877.5000;0.2507;0.6346;
877.8000;0.2515;0.6322;
878.1000;0.2515;0.6201;
878.4000;0.2515;0.6080;
878.7000;0.2507;0.5959;
879.0000;0.2523;0.5910;
879.3000;0.2523;0.5910;
879.6000;0.2523;0.5886;
879.9000;0.2548;0.5983;
880.2000;0.2515;0.6007;
880.5000;0.2515;0.6152;
880.8000;0.2507;0.6055;
881.1000;0.2507;0.6080;
881.4000;0.2523;0.6201;
881.7000;0.2507;0.6177;
882.0000;0.2515;0.6177;
882.3000;0.2507;0.6225;
882.6000;0.2515;0.6273;
882.9000;0.2515;0.6298;
883.2000;0.2515;0.6273;
883.5000;0.2499;0.6152;
883.8000;0.2499;0.6177;
884.1000;0.2499;0.6152;
884.4000;0.2515;0.6225;
884.7000;0.2515;0.6152;
885.0000;0.2507;0.6128;
885.3000;0.2507;0.6177;
885.6000;0.2515;0.6177;
885.9000;0.2499;0.6104;
886.2000;0.2507;0.6031;
886.5000;0.2499;0.5959;
886.8000;0.2548;0.6007;
887.1000;0.2499;0.5959;
887.4000;0.2507;0.5910;
887.7000;0.2515;0.5862;
888.0000;0.2515;0.5910;
888.3000;0.2523;0.5934;
888.6000;0.2507;0.5983;
888.9000;0.2515;0.6031;
889.2000;0.2499;0.6080;
889.5000;0.2523;0.6225;
889.8000;0.2499;0.6128;
890.1000;0.2515;0.6104;
890.4000;0.2491;0.5983;
890.7000;0.2515;0.6080;
891.0000;0.2491;0.6128;
891.3000;0.2483;0.6152;
891.6000;0.2507;0.6104;
891.9000;0.2507;0.6080;
892.2000;0.2409;0.5789;
892.5000;0.2507;0.6104;
892.8000;0.2507;0.6128;
893.1000;0.2507;0.6152;
893.4000;0.2483;0.6104;
893.7000;0.2515;0.6201;
894.0000;0.2507;0.6201;
894.3000;0.2499;0.6128;
894.6000;0.2393;0.5813;
894.9000;0.2499;0.6128;
895.2000;0.2507;0.6201;
895.5000;0.2580;0.6346;
895.8000;0.2564;0.6419;
896.1000;0.2483;0.6273;
896.4000;0.2491;0.6273;
896.7000;0.2507;0.6298;
897.0000;0.2499;0.6298;
897.3000;0.2466;0.6152;
897.6000;0.2507;0.6201;
897.9000;0.2475;0.6152;
898.2000;0.2540;0.6273;
898.5000;0.2507;0.6298;
898.8000;0.2515;0.6249;
899.1000;0.2523;0.6322;
899.4000;0.2523;0.6249;
899.7000;0.2515;0.6298;
900.0000;0.2532;0.6370;
900.3000;0.2515;0.6201;
900.6000;0.2507;0.6225;
900.9000;0.2523;0.6249;
901.2000;0.2507;0.6225;
901.5000;0.2499;0.6177;
901.8000;0.2499;0.6225;
902.1000;0.2532;0.6273;
902.4000;0.2507;0.6225;
902.7000;0.2483;0.6177;
903.0000;0.2491;0.6177;
903.3000;0.2499;0.6128;
903.6000;0.2507;0.6152;
903.9000;0.2515;0.6201;
904.2000;0.2483;0.6128;
904.5000;0.2507;0.6152;
904.8000;0.2507;0.6080;
905.1000;0.2491;0.6104;
905.4000;0.2532;0.6152;
905.7000;0.2507;0.6104;
906.0000;0.2515;0.6201;
906.3000;0.2515;0.6152;
906.6000;0.2515;0.6201;
906.9000;0.2499;0.6249;
907.2000;0.2515;0.6370;
907.5000;0.2507;0.6346;
907.8000;0.2507;0.6322;
908.1000;0.2483;0.6419;
908.4000;0.2540;0.6516;
908.7000;0.2523;0.6395;
909.0000;0.2515;0.6467;
909.3000;0.2483;0.6419;
909.6000;0.2507;0.6467;
909.9000;0.2532;0.6419;
910.2000;0.2532;0.6346;
910.5000;0.2523;0.6273;
910.8000;0.2507;0.6201;
911.1000;0.2523;0.6225;
911.4000;0.2475;0.6104;
911.7000;0.2507;0.6273;
912.0000;0.2572;0.6419;
912.3000;0.2515;0.6298;
912.6000;0.2507;0.6249;
912.9000;0.2515;0.6152;
913.2000;0.2548;0.6104;
913.5000;0.2515;0.6055;
913.8000;0.2507;0.5959;
914.1000;0.2515;0.6031;
914.4000;0.2491;0.5983;
914.7000;0.2507;0.6080;
915.0000;0.2499;0.6007;
915.3000;0.2499;0.6007;
915.6000;0.2499;0.5983;
915.9000;0.2532;0.6080;
916.2000;0.2466;0.6080;
916.5000;0.2523;0.6273;
916.8000;0.2515;0.6249;
917.1000;0.2499;0.6104;
917.4000;0.2507;0.6080;
917.7000;0.2499;0.6007;
918.0000;0.2507;0.6007;
918.3000;0.2483;0.5983;
918.6000;0.2515;0.6055;
918.9000;0.2515;0.6080;
919.2000;0.2523;0.6128;
919.5000;0.2532;0.6104;
919.8000;0.2515;0.6104;
920.1000;0.2491;0.6055;
920.4000;0.2507;0.6080;
920.7000;0.2540;0.6152;
921.0000;0.2507;0.6177;
921.3000;0.2523;0.6225;
921.6000;0.2523;0.6177;
921.9000;0.2483;0.6104;
922.2000;0.2466;0.5959;
922.5000;0.2491;0.5983;
922.8000;0.2483;0.6031;
923.1000;0.2491;0.5983;
923.4000;0.2499;0.6031;
923.7000;0.2507;0.6031;
924.0000;0.2499;0.5910;
924.3000;0.2540;0.5983;
924.6000;0.2515;0.5983;
924.9000;0.2499;0.5983;
925.2000;0.2507;0.6104;
925.5000;0.2507;0.6080;
925.8000;0.2515;0.6055;
926.1000;0.2499;0.5959;
926.4000;0.2499;0.6007;
926.7000;0.2491;0.5959;
927.0000;0.2515;0.5983;
927.3000;0.2572;0.6152;
927.6000;0.2507;0.6080;
927.9000;0.2564;0.6177;
928.2000;0.2507;0.6007;
928.5000;0.2499;0.5983;
928.8000;0.2491;0.5959;
929.1000;0.2523;0.6055;
929.4000;0.2515;0.6031;
929.7000;0.2483;0.5959;
930.0000;0.2507;0.6128;
930.3000;0.2507;0.6055;
930.6000;0.2515;0.5983;
930.9000;0.2515;0.5910;
931.2000;0.2540;0.6104;
931.5000;0.2507;0.6080;
931.8000;0.2637;0.6419;
932.1000;0.2507;0.6128;
932.4000;0.2523;0.6201;
932.7000;0.2548;0.6273;
933.0000;0.2507;0.6177;
933.3000;0.2548;0.6225;
933.6000;0.2507;0.6152;
933.9000;0.2629;0.6516;
934.2000;0.2523;0.6225;
934.5000;0.2507;0.6298;
934.8000;0.2523;0.6346;
935.1000;0.2507;0.6298;
935.4000;0.2499;0.6225;
935.7000;0.2499;0.6152;
936.0000;0.2515;0.6152;
936.3000;0.2523;0.6177;
936.6000;0.2540;0.6152;
936.9000;0.2637;0.6346;
937.2000;0.2540;0.6055;
937.5000;0.2491;0.5983;
937.8000;0.2580;0.6128;
938.1000;0.2499;0.5837;
938.4000;0.2507;0.5886;
938.7000;0.2515;0.5934;
939.0000;0.2507;0.6031;
939.3000;0.2507;0.6055;
939.6000;0.2499;0.6031;
939.9000;0.2475;0.6031;
940.2000;0.2507;0.6225;
940.5000;0.2507;0.6152;
940.8000;0.2499;0.6104;
941.1000;0.2507;0.6055;
941.4000;0.2491;0.6007;
941.7000;0.2523;0.6055;
942.0000;0.2491;0.6128;
942.3000;0.2507;0.6128;
942.6000;0.2491;0.6080;
942.9000;0.2515;0.6128;
943.2000;0.2507;0.6080;
943.5000;0.2507;0.6128;
943.8000;0.2515;0.6152;
944.1000;0.2532;0.6273;
944.4000;0.2466;0.6031;
944.7000;0.2499;0.6055;
945.0000;0.2507;0.6055;
945.3000;0.2507;0.6128;
945.6000;0.2532;0.6225;
945.9000;0.2515;0.6225;
946.2000;0.2540;0.6249;
946.5000;0.2393;0.5813;
946.8000;0.2515;0.6104;
947.1000;0.2532;0.6128;
947.4000;0.2418;0.5886;
947.7000;0.2532;0.6104;
948.0000;0.2507;0.6104;
948.3000;0.2540;0.6201;
948.6000;0.2515;0.6080;
948.9000;0.2523;0.6152;
949.2000;0.2515;0.6152;
949.5000;0.2515;0.6128;
949.8000;0.2515;0.6080;
950.1000;0.2515;0.6031;
950.4000;0.2515;0.6055;
950.7000;0.2515;0.5959;
951.0000;0.2507;0.6007;
951.3000;0.2515;0.5983;
951.6000;0.2515;0.6055;
951.9000;0.2499;0.6031;
952.2000;0.2523;0.6104;
952.5000;0.2491;0.6007;
952.8000;0.2523;0.6080;
953.1000;0.2515;0.5959;
953.4000;0.2426;0.5668;
953.7000;0.2491;0.5789;
954.0000;0.2491;0.5813;
954.3000;0.2548;0.5934;
954.6000;0.2515;0.5983;
954.9000;0.2532;0.5983;
955.2000;0.2483;0.5813;
955.5000;0.2532;0.5886;
955.8000;0.2556;0.5934;
956.1000;0.2532;0.5862;
956.4000;0.2466;0.5741;
956.7000;0.2466;0.5668;
957.0000;0.2523;0.5862;
957.3000;0.2507;0.5862;
957.6000;0.2483;0.5741;
957.9000;0.2532;0.5837;
958.2000;0.2515;0.5765;
958.5000;0.2507;0.5692;
958.8000;0.2507;0.5741;
959.1000;0.2483;0.5741;
959.4000;0.2491;0.5837;
959.7000;0.2491;0.5862;
960.0000;0.2515;0.5983;
960.3000;0.2499;0.5934;
960.6000;0.2515;0.6007;
960.9000;0.2515;0.6055;
961.2000;0.2491;0.6007;
961.5000;0.2523;0.6104;
961.8000;0.2523;0.6128;
962.1000;0.2450;0.5934;
962.4000;0.2523;0.6177;
962.7000;0.2491;0.6080;
963.0000;0.2507;0.6031;
963.3000;0.2523;0.6128;
963.6000;0.2515;0.6055;
963.9000;0.2515;0.6055;
964.2000;0.2507;0.6007;
964.5000;0.2507;0.5934;
964.8000;0.2532;0.5983;
965.1000;0.2491;0.5934;
965.4000;0.2515;0.5983;
965.7000;0.2499;0.6055;
966.0000;0.2515;0.6104;
966.3000;0.2515;0.6177;
966.6000;0.2548;0.6128;
966.9000;0.2532;0.6177;
967.2000;0.2532;0.6201;
967.5000;0.2515;0.6104;
967.8000;0.2507;0.6104;
968.1000;0.2540;0.6128;
968.4000;0.2532;0.6104;
968.7000;0.2507;0.6104;
969.0000;0.2532;0.6177;
969.3000;0.2483;0.6055;
969.6000;0.2507;0.6007;
969.9000;0.2515;0.6031;
970.2000;0.2572;0.6273;
970.5000;0.2564;0.6201;
970.8000;0.2393;0.5716;
971.1000;0.2491;0.5886;
971.4000;0.2515;0.5934;
971.7000;0.2532;0.5934;
972.0000;0.2515;0.5934;
972.3000;0.2401;0.5595;
972.6000;0.2515;0.5910;
972.9000;0.2540;0.6007;
973.2000;0.2499;0.5862;
973.5000;0.2483;0.5910;
973.8000;0.2499;0.5959;
974.1000;0.2515;0.6031;
974.4000;0.2515;0.5959;
974.7000;0.2515;0.5910;
975.0000;0.2491;0.5837;
975.3000;0.2507;0.5959;
975.6000;0.2491;0.5910;
975.9000;0.2515;0.5934;
976.2000;0.2507;0.5886;
976.5000;0.2507;0.5789;
976.8000;0.2515;0.5789;
977.1000;0.2515;0.5837;
977.4000;0.2499;0.5837;
977.7000;0.2515;0.5934;
978.0000;0.2507;0.5886;
978.3000;0.2499;0.5813;
978.6000;0.2466;0.5765;
978.9000;0.2564;0.6055;
979.2000;0.2507;0.5789;
979.5000;0.2507;0.5716;
979.8000;0.2507;0.5765;
980.1000;0.2532;0.5934;
980.4000;0.2523;0.5910;
980.7000;0.2507;0.5837;
981.0000;0.2499;0.5862;
981.3000;0.2507;0.5959;
981.6000;0.2523;0.6007;
981.9000;0.2442;0.5813;
982.2000;0.2532;0.6080;
982.5000;0.2515;0.6055;
982.8000;0.2523;0.6080;
983.1000;0.2564;0.6177;
983.4000;0.2507;0.6080;
983.7000;0.2499;0.6055;
984.0000;0.2491;0.6031;
984.3000;0.2507;0.6104;
984.6000;0.2507;0.6104;
984.9000;0.2702;0.6516;
985.2000;0.2499;0.5886;
985.5000;0.2515;0.5934;
985.8000;0.2434;0.5692;
986.1000;0.2499;0.5959;
986.4000;0.2507;0.6007;
986.7000;0.2532;0.6055;
987.0000;0.2507;0.6080;
987.3000;0.2540;0.6128;
987.6000;0.2523;0.6055;
987.9000;0.2523;0.6104;
988.2000;0.2523;0.6104;
988.5000;0.2475;0.5983;
988.8000;0.2483;0.6007;
989.1000;0.2515;0.6104;
989.4000;0.2499;0.6104;
989.7000;0.2515;0.6080;
990.0000;0.2523;0.6055;
990.3000;0.2475;0.5886;
990.6000;0.2523;0.5983;
990.9000;0.2523;0.5983;
991.2000;0.2515;0.5959;
991.5000;0.2475;0.5910;
991.8000;0.2515;0.6031;
992.1000;0.2507;0.5983;
992.4000;0.2507;0.5934;
992.7000;0.2499;0.5959;
993.0000;0.2523;0.5934;
993.3000;0.2515;0.5886;
993.6000;0.2523;0.5959;
993.9000;0.2499;0.5934;
994.2000;0.2491;0.5886;
994.5000;0.2393;0.5595;
994.8000;0.2483;0.5934;
995.1000;0.2523;0.6031;
995.4000;0.2499;0.6031;
995.7000;0.2515;0.6031;
996.0000;0.2507;0.5959;
996.3000;0.2377;0.5619;
996.6000;0.2515;0.5983;
996.9000;0.2523;0.6031;
997.2000;0.2515;0.6080;
997.5000;0.2564;0.6177;
997.8000;0.2499;0.6104;
998.1000;0.2532;0.6152;
998.4000;0.2523;0.6128;
998.7000;0.2515;0.6177;
999.0000;0.2499;0.6080;
999.3000;0.2515;0.6104;
999.6000;0.2507;0.6080;
999.9000;0.2409;0.5668;
1000.2000;0.2507;0.5983;
1000.5000;0.2507;0.5862;
1000.8000;0.2515;0.5934;
1001.1000;0.2515;0.5934;
1001.4000;0.2499;0.5837;
1001.7000;0.2507;0.5813;
1002.0000;0.2515;0.5910;
1002.3000;0.2499;0.5910;
1002.6000;0.2507;0.5862;
1002.9000;0.2523;0.5983;
1003.2000;0.2499;0.5934;
1003.5000;0.2475;0.5862;
1003.8000;0.2499;0.6007;
1004.1000;0.2483;0.5910;
1004.4000;0.2515;0.6007;
1004.7000;0.2515;0.6007;
1005.0000;0.2491;0.6007;
1005.3000;0.2491;0.5983;
1005.6000;0.2499;0.6007;
1005.9000;0.2540;0.6080;
1006.2000;0.2491;0.5886;
1006.5000;0.2491;0.5789;
1006.8000;0.2499;0.5837;
1007.1000;0.2507;0.5934;
1007.4000;0.2507;0.5837;
1007.7000;0.2507;0.5886;
1008.0000;0.2442;0.5595;
1008.3000;0.2515;0.5813;
1008.6000;0.2532;0.5765;
1008.9000;0.2523;0.5837;
1009.2000;0.2564;0.5959;
1009.5000;0.2515;0.5934;
1009.8000;0.2499;0.5934;
1010.1000;0.2466;0.5862;
1010.4000;0.2475;0.5862;
1010.7000;0.2523;0.6007;
1011.0000;0.2515;0.6031;
1011.3000;0.2499;0.5886;
1011.6000;0.2491;0.5813;
1011.9000;0.2499;0.5910;
1012.2000;0.2523;0.6007;
1012.5000;0.2532;0.6128;
1012.8000;0.2515;0.6104;
1013.1000;0.2507;0.6104;
1013.4000;0.2458;0.5959;
1013.7000;0.2523;0.6104;
1014.0000;0.2548;0.6201;
1014.3000;0.2507;0.6128;
1014.6000;0.2523;0.6201;
1014.9000;0.2507;0.6104;
1015.2000;0.2515;0.6104;
1015.5000;0.2507;0.6104;
1015.8000;0.2515;0.6055;
1016.1000;0.2515;0.6007;
1016.4000;0.2532;0.6177;
1016.7000;0.2507;0.6152;
1017.0000;0.2499;0.6201;
1017.3000;0.2548;0.6298;
1017.6000;0.2499;0.6152;
1017.9000;0.2515;0.6177;
1018.2000;0.2523;0.6128;
1018.5000;0.2621;0.6395;
1018.8000;0.2491;0.6031;
1019.1000;0.2491;0.6055;
1019.4000;0.2523;0.6177;
1019.7000;0.2507;0.6128;
1020.0000;0.2507;0.6128;
1020.3000;0.2491;0.6128;
1020.6000;0.2515;0.6298;
1020.9000;0.2507;0.6273;
1021.2000;0.2515;0.6298;
1021.5000;0.2515;0.6201;
1021.8000;0.2499;0.6201;
1022.1000;0.2499;0.6249;
1022.4000;0.2507;0.6298;
1022.7000;0.2523;0.6273;
1023.0000;0.2491;0.6177;
1023.3000;0.2613;0.6443;
1023.6000;0.2491;0.6055;
1023.9000;0.2515;0.6031;
1024.2000;0.2629;0.6346;
1024.5000;0.2483;0.5910;
1024.8000;0.2515;0.6055;
1025.1000;0.2532;0.6104;
1025.4000;0.2475;0.6031;
1025.7000;0.2523;0.6177;
1026.0000;0.2499;0.6177;
1026.3000;0.2556;0.6322;
1026.6000;0.2556;0.6201;
1026.9000;0.2426;0.5959;
1027.2000;0.2491;0.6055;
1027.5000;0.2491;0.5934;
1027.8000;0.2507;0.5983;
1028.1000;0.2515;0.6104;
1028.4000;0.2507;0.6055;
1028.7000;0.2523;0.6080;
1029.0000;0.2483;0.6080;
1029.3000;0.2515;0.6177;
1029.6000;0.2515;0.6104;
1029.9000;0.2523;0.6128;
1030.2000;0.2580;0.6225;
1030.5000;0.2515;0.6177;
1030.8000;0.2499;0.6201;
1031.1000;0.2507;0.6225;
1031.4000;0.2523;0.6225;
1031.7000;0.2491;0.6128;
1032.0000;0.2523;0.6177;
1032.3000;0.2515;0.6128;
1032.6000;0.2515;0.6055;
1032.9000;0.2515;0.6031;
1033.2000;0.2532;0.6080;
1033.5000;0.2507;0.6055;
1033.8000;0.2515;0.6152;
1034.1000;0.2621;0.6370;
1034.4000;0.2523;0.6055;
1034.7000;0.2515;0.6104;
1035.0000;0.2523;0.6031;
1035.3000;0.2523;0.6104;
1035.6000;0.2515;0.6080;
1035.9000;0.2491;0.5934;
1036.2000;0.2491;0.6007;
1036.5000;0.2523;0.6177;
1036.8000;0.2499;0.6152;
1037.1000;0.2507;0.6128;
1037.4000;0.2507;0.6055;
1037.7000;0.2515;0.6104;
1038.0000;0.2589;0.6298;
1038.3000;0.2515;0.6007;
1038.6000;0.2507;0.6055;
1038.9000;0.2515;0.6128;
1039.2000;0.2515;0.6152;
1039.5000;0.2507;0.6128;
1039.8000;0.2515;0.6152;
1040.1000;0.2540;0.6225;
1040.4000;0.2466;0.6080;
1040.7000;0.2507;0.6201;
1041.0000;0.2515;0.6273;
1041.3000;0.2507;0.6225;
1041.6000;0.2523;0.6249;
1041.9000;0.2540;0.6177;
1042.2000;0.2532;0.6128;
1042.5000;0.2515;0.6055;
1042.8000;0.2507;0.6104;
1043.1000;0.2540;0.6177;
1043.4000;0.2491;0.6080;
1043.7000;0.2491;0.5934;
1044.0000;0.2523;0.6080;
1044.3000;0.2523;0.6080;
1044.6000;0.2515;0.6055;
1044.9000;0.2466;0.5983;
1045.2000;0.2507;0.6152;
1045.5000;0.2483;0.6055;
1045.8000;0.2532;0.6104;
1046.1000;0.2507;0.6104;
1046.4000;0.2499;0.6055;
1046.7000;0.2532;0.6104;
1047.0000;0.2515;0.6055;
1047.3000;0.2499;0.6031;
1047.6000;0.2507;0.6031;
1047.9000;0.2523;0.6055;
1048.2000;0.2613;0.6298;
1048.5000;0.2499;0.5983;
1048.8000;0.2377;0.5765;
1049.1000;0.2515;0.6273;
1049.4000;0.2450;0.6152;
1049.7000;0.2507;0.6273;
1050.0000;0.2507;0.6201;
1050.3000;0.2418;0.5934;
1050.6000;0.2589;0.6443;
1050.9000;0.2523;0.6273;
1051.2000;0.2466;0.6177;
1051.5000;0.2483;0.6225;
1051.8000;0.2491;0.6322;
1052.1000;0.2507;0.6298;
1052.4000;0.2515;0.6298;
1052.7000;0.2450;0.6128;
1053.0000;0.2499;0.6249;
1053.3000;0.2507;0.6225;
1053.6000;0.2515;0.6177;
1053.9000;0.2458;0.6080;
1054.2000;0.2548;0.6443;
1054.5000;0.2515;0.6395;
1054.8000;0.2515;0.6395;
1055.1000;0.2515;0.6273;
1055.4000;0.2491;0.6201;
1055.7000;0.2507;0.6370;
1056.0000;0.2515;0.6443;
1056.3000;0.2507;0.6322;
1056.6000;0.2515;0.6346;
1056.9000;0.2515;0.6419;
1057.2000;0.2491;0.6298;
1057.5000;0.2499;0.6249;
1057.8000;0.2507;0.6225;
1058.1000;0.2507;0.6249;
1058.4000;0.2515;0.6273;
1058.7000;0.2483;0.6177;
1059.0000;0.2515;0.6225;
1059.3000;0.2523;0.6298;
1059.6000;0.2523;0.6249;
1059.9000;0.2515;0.6201;
1060.2000;0.2507;0.6104;
1060.5000;0.2523;0.6177;
1060.8000;0.2515;0.6128;
1061.1000;0.2556;0.6225;
1061.4000;0.2507;0.6128;
1061.7000;0.2515;0.6152;
1062.0000;0.2499;0.6152;
1062.3000;0.2499;0.6128;
1062.6000;0.2507;0.6128;
1062.9000;0.2499;0.6128;
1063.2000;0.2499;0.6177;
1063.5000;0.2507;0.6249;
1063.8000;0.2515;0.6322;
1064.1000;0.2377;0.5983;
1064.4000;0.2507;0.6298;
1064.7000;0.2523;0.6370;
1065.0000;0.2523;0.6346;
1065.3000;0.2491;0.6322;
1065.6000;0.2507;0.6322;
1065.9000;0.2515;0.6273;
1066.2000;0.2637;0.6588;
1066.5000;0.2499;0.6201;
1066.8000;0.2491;0.6152;
1067.1000;0.2499;0.6104;
1067.4000;0.2523;0.6104;
1067.7000;0.2491;0.6055;
1068.0000;0.2499;0.6201;
1068.3000;0.2507;0.6201;
1068.6000;0.2532;0.6249;
1068.9000;0.2548;0.6225;
1069.2000;0.2515;0.6152;
1069.5000;0.2499;0.6055;
1069.8000;0.2507;0.6055;
1070.1000;0.2532;0.6104;
1070.4000;0.2580;0.6273;
1070.7000;0.2515;0.6225;
1071.0000;0.2507;0.6273;
1071.3000;0.2515;0.6201;
1071.6000;0.2515;0.6080;
1071.9000;0.2475;0.5959;
1072.2000;0.2532;0.6128;
1072.5000;0.2507;0.6128;
1072.8000;0.2483;0.6031;
1073.1000;0.2515;0.6152;
1073.4000;0.2491;0.6104;
1073.7000;0.2507;0.6225;
1074.0000;0.2605;0.6540;
1074.3000;0.2499;0.6201;
1074.6000;0.2507;0.6152;
1074.9000;0.2507;0.6104;
1075.2000;0.2499;0.6225;
1075.5000;0.2499;0.6249;
1075.8000;0.2515;0.6298;
1076.1000;0.2532;0.6201;
1076.4000;0.2523;0.6249;
1076.7000;0.2507;0.6201;
1077.0000;0.2491;0.6055;
1077.3000;0.2523;0.6152;
1077.6000;0.2507;0.6177;
1077.9000;0.2515;0.6201;
1078.2000;0.2426;0.5959;
1078.5000;0.2515;0.6152;
1078.8000;0.2532;0.6080;
1079.1000;0.2523;0.6104;
1079.4000;0.2515;0.6007;
1079.7000;0.2532;0.5959;
1080.0000;0.2515;0.5983;
1080.3000;0.2499;0.5983;
1080.6000;0.2515;0.6080;
1080.9000;0.2523;0.6104;
1081.2000;0.2564;0.6152;
1081.5000;0.2515;0.6152;
1081.8000;0.2515;0.6031;
1082.1000;0.2499;0.6031;
1082.4000;0.2507;0.6055;
1082.7000;0.2523;0.6128;
1083.0000;0.2483;0.5934;
1083.3000;0.2515;0.6128;
1083.6000;0.2523;0.6128;
1083.9000;0.2515;0.6104;
1084.2000;0.2540;0.6201;
1084.5000;0.2532;0.6225;
1084.8000;0.2491;0.6177;
1085.1000;0.2540;0.6298;
1085.4000;0.2540;0.6249;
1085.7000;0.2532;0.6370;
1086.0000;0.2523;0.6273;
1086.3000;0.2523;0.6249;
1086.6000;0.2532;0.6273;
1086.9000;0.2507;0.6128;
1087.2000;0.2580;0.6249;
1087.5000;0.2507;0.6080;
1087.8000;0.2532;0.6225;
1088.1000;0.2507;0.6128;
1088.4000;0.2515;0.6104;
1088.7000;0.2507;0.6055;
1089.0000;0.2523;0.6055;
1089.3000;0.2466;0.5910;
1089.6000;0.2507;0.6007;
1089.9000;0.2556;0.6128;
1090.2000;0.2532;0.6055;
1090.5000;0.2523;0.6007;
1090.8000;0.2548;0.6080;
1091.1000;0.2532;0.6128;
1091.4000;0.2515;0.6031;
1091.7000;0.2532;0.6104;
1092.0000;0.2523;0.6128;
1092.3000;0.2523;0.6055;
1092.6000;0.2564;0.6080;
1092.9000;0.2507;0.5934;
1093.2000;0.2515;0.5934;
1093.5000;0.2499;0.6055;
1093.8000;0.2499;0.6007;
1094.1000;0.2523;0.6055;
1094.4000;0.2499;0.6055;
1094.7000;0.2450;0.5862;
1095.0000;0.2556;0.6080;
1095.3000;0.2548;0.6055;
1095.6000;0.2507;0.6031;
1095.9000;0.2540;0.6152;
1096.2000;0.2507;0.6055;
1096.5000;0.2507;0.6177;
1096.8000;0.2515;0.6128;
1097.1000;0.2507;0.6128;
1097.4000;0.2532;0.6152;
1097.7000;0.2646;0.6564;
1098.0000;0.2507;0.6177;
1098.3000;0.2515;0.6152;
1098.6000;0.2499;0.6080;
1098.9000;0.2458;0.5910;
1099.2000;0.2532;0.6055;
1099.5000;0.2556;0.6128;
1099.8000;0.2507;0.5959;
1100.1000;0.2589;0.6152;
1100.4000;0.2507;0.6031;
1100.7000;0.2507;0.6007;
1101.0000;0.2540;0.6031;
1101.3000;0.2499;0.5934;
1101.6000;0.2515;0.5934;
1101.9000;0.2523;0.5910;
1102.2000;0.2499;0.5862;
1102.5000;0.2515;0.5934;
1102.8000;0.2523;0.6031;
1103.1000;0.2507;0.5983;
1103.4000;0.2507;0.5910;
1103.7000;0.2385;0.5595;
1104.0000;0.2483;0.5789;
1104.3000;0.2499;0.5789;
1104.6000;0.2515;0.5862;
1104.9000;0.2515;0.5837;
1105.2000;0.2499;0.5789;
1105.5000;0.2507;0.5813;
1105.8000;0.2499;0.5789;
1106.1000;0.2540;0.5959;
1106.4000;0.2507;0.5983;
1106.7000;0.2515;0.6031;
1107.0000;0.2515;0.6080;
1107.3000;0.2515;0.6104;
1107.6000;0.2507;0.6104;
1107.9000;0.2532;0.6055;
1108.2000;0.2548;0.6152;
1108.5000;0.2507;0.6031;
1108.8000;0.2515;0.5959;
1109.1000;0.2515;0.5934;
1109.4000;0.2442;0.5789;
1109.7000;0.2507;0.5959;
1110.0000;0.2523;0.6007;
1110.3000;0.2515;0.6031;
1110.6000;0.2515;0.6031;
1110.9000;0.2515;0.6055;
1111.2000;0.2515;0.6080;
1111.5000;0.2491;0.6055;
1111.8000;0.2580;0.6346;
1112.1000;0.2491;0.6055;
1112.4000;0.2515;0.6104;
1112.7000;0.2507;0.6007;
1113.0000;0.2523;0.6055;
1113.3000;0.2515;0.6055;
1113.6000;0.2515;0.6055;
1113.9000;0.2499;0.5959;
1114.2000;0.2499;0.5886;
1114.5000;0.2515;0.5983;
1114.8000;0.2540;0.6055;
1115.1000;0.2499;0.5934;
1115.4000;0.2515;0.6007;
1115.7000;0.2532;0.6080;
1116.0000;0.2523;0.6128;
1116.3000;0.2515;0.6152;
1116.6000;0.2532;0.6104;
1116.9000;0.2515;0.6031;
1117.2000;0.2548;0.6080;
1117.5000;0.2507;0.5959;
1117.8000;0.2523;0.5934;
1118.1000;0.2515;0.5910;
1118.4000;0.2523;0.5959;
1118.7000;0.2523;0.5983;
1119.0000;0.2491;0.5959;
1119.3000;0.2507;0.6007;
1119.6000;0.2491;0.5983;
1119.9000;0.2523;0.6104;
1120.2000;0.2523;0.6104;
1120.5000;0.2580;0.6273;
1120.8000;0.2515;0.6031;
1121.1000;0.2548;0.6080;
1121.4000;0.2483;0.5934;
1121.7000;0.2499;0.5886;
1122.0000;0.2532;0.5886;
1122.3000;0.2515;0.5910;
1122.6000;0.2548;0.6055;
1122.9000;0.2499;0.5910;
1123.2000;0.2499;0.5837;
1123.5000;0.2499;0.5837;
1123.8000;0.2515;0.5886;
1124.1000;0.2507;0.5862;
1124.4000;0.2491;0.5886;
1124.7000;0.2491;0.5886;
1125.0000;0.2515;0.5959;
1125.3000;0.2507;0.6080;
1125.6000;0.2507;0.6104;
1125.9000;0.2499;0.6055;
1126.2000;0.2523;0.6104;
1126.5000;0.2507;0.6055;
1126.8000;0.2507;0.6055;
1127.1000;0.2515;0.6055;
1127.4000;0.2523;0.6080;
1127.7000;0.2515;0.5934;
1128.0000;0.2507;0.5813;
1128.3000;0.2523;0.5837;
1128.6000;0.2507;0.5813;
1128.9000;0.2499;0.5910;
1129.2000;0.2523;0.5886;
1129.5000;0.2515;0.5837;
1129.8000;0.2499;0.5813;
1130.1000;0.2523;0.5862;
1130.4000;0.2475;0.5789;
1130.7000;0.2507;0.5886;
1131.0000;0.2499;0.5910;
1131.3000;0.2532;0.5934;
1131.6000;0.2499;0.5789;
1131.9000;0.2523;0.5862;
1132.2000;0.2532;0.5983;
1132.5000;0.2548;0.6055;
1132.8000;0.2613;0.6177;
1133.1000;0.2507;0.5910;
1133.4000;0.2450;0.5765;
1133.7000;0.2507;0.6031;
1134.0000;0.2507;0.6007;
1134.3000;0.2523;0.5983;
1134.6000;0.2499;0.5910;
1134.9000;0.2523;0.5959;
1135.2000;0.2499;0.5934;
1135.5000;0.2491;0.5910;
1135.8000;0.2466;0.5862;
1136.1000;0.2499;0.5934;
1136.4000;0.2523;0.5983;
1136.7000;0.2507;0.5983;
1137.0000;0.2491;0.5910;
1137.3000;0.2499;0.5910;
1137.6000;0.2515;0.5959;
1137.9000;0.2515;0.5959;
1138.2000;0.2540;0.5959;
1138.5000;0.2523;0.5862;
1138.8000;0.2458;0.5692;
1139.1000;0.2515;0.5886;
1139.4000;0.2523;0.5837;
1139.7000;0.2515;0.5959;
1140.0000;0.2507;0.5983;
1140.3000;0.2540;0.6055;
1140.6000;0.2491;0.5886;
1140.9000;0.2499;0.5813;
1141.2000;0.2466;0.5668;
1141.5000;0.2499;0.5765;
1141.8000;0.2523;0.5765;
1142.1000;0.2523;0.5692;
1142.4000;0.2556;0.5862;
1142.7000;0.2483;0.5789;
1143.0000;0.2540;0.5886;
1143.3000;0.2483;0.5837;
1143.6000;0.2523;0.5959;
1143.9000;0.2491;0.5813;
1144.2000;0.2507;0.5886;
1144.5000;0.2523;0.5934;
1144.8000;0.2483;0.5837;
1145.1000;0.2523;0.5837;
1145.4000;0.2523;0.5910;
1145.7000;0.2540;0.5983;
1146.0000;0.2613;0.6104;
1146.3000;0.2532;0.5983;
1146.6000;0.2515;0.5886;
1146.9000;0.2532;0.6031;
1147.2000;0.2515;0.6031;
1147.5000;0.2540;0.6055;
1147.8000;0.2532;0.6055;
1148.1000;0.2418;0.5644;
1148.4000;0.2523;0.5862;
1148.7000;0.2507;0.5716;
1149.0000;0.2499;0.5644;
1149.3000;0.2515;0.5813;
1149.6000;0.2499;0.5789;
1149.9000;0.2515;0.5886;
1150.2000;0.2515;0.5983;
1150.5000;0.2523;0.5959;
1150.8000;0.2523;0.6007;
1151.1000;0.2523;0.6007;
1151.4000;0.2515;0.5983;
1151.7000;0.2507;0.5983;
1152.0000;0.2523;0.6031;
1152.3000;0.2507;0.6055;
1152.6000;0.2523;0.6128;
1152.9000;0.2523;0.6225;
1153.2000;0.2523;0.6273;
1153.5000;0.2507;0.6273;
1153.8000;0.2515;0.6249;
1154.1000;0.2515;0.6177;
1154.4000;0.2515;0.6225;
1154.7000;0.2523;0.6201;
1155.0000;0.2499;0.6128;
1155.3000;0.2499;0.6104;
1155.6000;0.2507;0.6128;
1155.9000;0.2540;0.6395;
1156.2000;0.2515;0.6298;
1156.5000;0.2548;0.6322;
1156.8000;0.2515;0.6298;
1157.1000;0.2523;0.6249;
1157.4000;0.2507;0.6177;
1157.7000;0.2523;0.6249;
1158.0000;0.2532;0.6152;
1158.3000;0.2532;0.6128;
1158.6000;0.2515;0.6128;
1158.9000;0.2507;0.6152;
1159.2000;0.2613;0.6419;
1159.5000;0.2515;0.6104;
1159.8000;0.2515;0.6104;
1160.1000;0.2515;0.6128;
1160.4000;0.2532;0.6177;
1160.7000;0.2523;0.6152;
1161.0000;0.2491;0.6128;
1161.3000;0.2515;0.6152;
1161.6000;0.2532;0.6055;
1161.9000;0.2532;0.6031;
1162.2000;0.2540;0.6007;
1162.5000;0.2507;0.6007;
1162.8000;0.2426;0.5837;
1163.1000;0.2483;0.6007;
1163.4000;0.2507;0.5983;
1163.7000;0.2515;0.5959;
1164.0000;0.2507;0.5934;
1164.3000;0.2564;0.6225;
1164.6000;0.2515;0.6080;
1164.9000;0.2515;0.6031;
1165.2000;0.2499;0.6031;
1165.5000;0.2515;0.6031;
1165.8000;0.2515;0.6055;
1166.1000;0.2523;0.6152;
1166.4000;0.2540;0.6201;
1166.7000;0.2523;0.6152;
1167.0000;0.2507;0.6080;
1167.3000;0.2523;0.6080;
1167.6000;0.2515;0.5910;
1167.9000;0.2507;0.5934;
1168.2000;0.2515;0.6031;
1168.5000;0.2523;0.6104;
1168.8000;0.2532;0.6152;
1169.1000;0.2491;0.6031;
1169.4000;0.2523;0.6080;
1169.7000;0.2491;0.6007;
1170.0000;0.2515;0.6225;
1170.3000;0.2507;0.6152;
1170.6000;0.2532;0.6177;
1170.9000;0.2507;0.6055;
1171.2000;0.2507;0.6031;
1171.5000;0.2385;0.5692;
1171.8000;0.2523;0.5983;
1172.1000;0.2523;0.6080;
1172.4000;0.2507;0.6055;
1172.7000;0.2507;0.6080;
1173.0000;0.2515;0.6177;
1173.3000;0.2523;0.6177;
1173.6000;0.2532;0.6104;
1173.9000;0.2507;0.6128;
1174.2000;0.2532;0.6128;
1174.5000;0.2548;0.6104;
1174.8000;0.2629;0.6273;
1175.1000;0.2556;0.6055;
1175.4000;0.2589;0.6055;
1175.7000;0.2491;0.5837;
1176.0000;0.2532;0.5959;
1176.3000;0.2523;0.5910;
1176.6000;0.2515;0.5886;
1176.9000;0.2515;0.5910;
1177.2000;0.2572;0.5983;
1177.5000;0.2532;0.5813;
1177.8000;0.2523;0.5886;
1178.1000;0.2475;0.5765;
1178.4000;0.2523;0.5862;
1178.7000;0.2540;0.5910;
1179.0000;0.2515;0.5959;
1179.3000;0.2532;0.6080;
1179.6000;0.2532;0.6152;
1179.9000;0.2532;0.6225;
1180.2000;0.2515;0.6201;
1180.5000;0.2491;0.6080;
1180.8000;0.2532;0.6273;
1181.1000;0.2507;0.6177;
1181.4000;0.2499;0.6104;
1181.7000;0.2515;0.6104;
1182.0000;0.2499;0.5983;
1182.3000;0.2597;0.6273;
1182.6000;0.2507;0.6128;
1182.9000;0.2515;0.6201;
1183.2000;0.2475;0.6177;
1183.5000;0.2515;0.6201;
1183.8000;0.2523;0.6298;
1184.1000;0.2523;0.6370;
1184.4000;0.2523;0.6346;
1184.7000;0.2507;0.6249;
1185.0000;0.2507;0.6273;
1185.3000;0.2540;0.6298;
1185.6000;0.2532;0.6225;
1185.9000;0.2515;0.6177;
1186.2000;0.2507;0.6055;
1186.5000;0.2515;0.6031;
1186.8000;0.2572;0.6201;
1187.1000;0.2507;0.6007;
1187.4000;0.2515;0.5959;
1187.7000;0.2515;0.5934;
1188.0000;0.2515;0.5910;
1188.3000;0.2515;0.5983;
1188.6000;0.2523;0.6080;
1188.9000;0.2523;0.6152;
1189.2000;0.2499;0.6104;
1189.5000;0.2515;0.6104;
1189.8000;0.2515;0.6055;
1190.1000;0.2507;0.5983;
1190.4000;0.2515;0.6031;
1190.7000;0.2507;0.6031;
1191.0000;0.2523;0.6104;
1191.3000;0.2515;0.5983;
1191.6000;0.2483;0.5837;
1191.9000;0.2507;0.5934;
1192.2000;0.2499;0.6007;
1192.5000;0.2523;0.6177;
1192.8000;0.2507;0.6104;
1193.1000;0.2548;0.6225;
1193.4000;0.2499;0.6225;
1193.7000;0.2515;0.6152;
1194.0000;0.2515;0.6104;
1194.3000;0.2515;0.6128;
1194.6000;0.2507;0.6128;
1194.9000;0.2540;0.6080;
1195.2000;0.2532;0.6031;
1195.5000;0.2515;0.6007;
1195.8000;0.2499;0.5886;
1196.1000;0.2532;0.6007;
1196.4000;0.2515;0.5910;
1196.7000;0.2515;0.5813;
1197.0000;0.2475;0.5741;
1197.3000;0.2523;0.5813;
1197.6000;0.2515;0.5813;
1197.9000;0.2515;0.5837;
1198.2000;0.2499;0.5789;
1198.5000;0.2515;0.5959;
1198.8000;0.2515;0.6031;
1199.1000;0.2597;0.6370;
1199.4000;0.2523;0.6201;
1199.7000;0.2523;0.6201;
1200.0000;0.2523;0.6273;
1200.3000;0.2483;0.6128;
1200.6000;0.2515;0.6249;
1200.9000;0.2491;0.6152;
1201.2000;0.2475;0.6007;
1201.5000;0.2507;0.6031;
1201.8000;0.2515;0.6031;
1202.1000;0.2540;0.6104;
1202.4000;0.2515;0.6055;
1202.7000;0.2532;0.6080;
1203.0000;0.2523;0.6152;
1203.3000;0.2499;0.6104;
1203.6000;0.2507;0.6128;
1203.9000;0.2483;0.6007;
1204.2000;0.2499;0.6055;
1204.5000;0.2507;0.6104;
1204.8000;0.2572;0.6298;
1205.1000;0.2515;0.6249;
1205.4000;0.2515;0.6249;
1205.7000;0.2507;0.6225;
1206.0000;0.2507;0.6249;
1206.3000;0.2491;0.6225;
1206.6000;0.2507;0.6177;
1206.9000;0.2564;0.6249;
1207.2000;0.2450;0.5983;
1207.5000;0.2507;0.6055;
1207.8000;0.2515;0.6104;
1208.1000;0.2532;0.6152;
1208.4000;0.2507;0.6055;
1208.7000;0.2507;0.6128;
1209.0000;0.2515;0.6080;
1209.3000;0.2515;0.5983;
1209.6000;0.2523;0.5959;
1209.9000;0.2532;0.5959;
1210.2000;0.2523;0.5983;
1210.5000;0.2548;0.6007;
1210.8000;0.2532;0.6031;
1211.1000;0.2515;0.5983;
1211.4000;0.2507;0.5959;
1211.7000;0.2523;0.6007;
1212.0000;0.2540;0.6007;
1212.3000;0.2523;0.6128;
1212.6000;0.2515;0.6104;
1212.9000;0.2515;0.6225;
1213.2000;0.2515;0.6225;
1213.5000;0.2483;0.6104;
1213.8000;0.2507;0.6249;
1214.1000;0.2507;0.6273;
1214.4000;0.2523;0.6419;
1214.7000;0.2523;0.6273;
1215.0000;0.2532;0.6322;
1215.3000;0.2540;0.6419;
1215.6000;0.2523;0.6322;
1215.9000;0.2450;0.6104;
1216.2000;0.2515;0.6273;
1216.5000;0.2515;0.6201;
1216.8000;0.2523;0.6201;
1217.1000;0.2556;0.6322;
1217.4000;0.2523;0.6128;
1217.7000;0.2507;0.6055;
1218.0000;0.2532;0.6080;
1218.3000;0.2532;0.6055;
1218.6000;0.2523;0.6031;
1218.9000;0.2515;0.6104;
1219.2000;0.2523;0.6152;
1219.5000;0.2532;0.6177;
1219.8000;0.2637;0.6516;
1220.1000;0.2515;0.6201;
1220.4000;0.2523;0.6249;
1220.7000;0.2613;0.6540;
1221.0000;0.2532;0.6273;
1221.3000;0.2515;0.6225;
1221.6000;0.2523;0.6152;
1221.9000;0.2532;0.6225;
1222.2000;0.2540;0.6201;
1222.5000;0.2466;0.6007;
1222.8000;0.2515;0.6104;
1223.1000;0.2499;0.6007;
1223.4000;0.2515;0.6080;
1223.7000;0.2499;0.6080;
1224.0000;0.2499;0.6055;
1224.3000;0.2515;0.6177;
1224.6000;0.2523;0.6201;
1224.9000;0.2523;0.6225;
1225.2000;0.2507;0.6152;
1225.5000;0.2507;0.6201;
1225.8000;0.2532;0.6201;
1226.1000;0.2515;0.6225;
1226.4000;0.2515;0.6201;
1226.7000;0.2515;0.6346;
1227.0000;0.2532;0.6395;
1227.3000;0.2458;0.6177;
1227.6000;0.2532;0.6322;
1227.9000;0.2491;0.6152;
1228.2000;0.2540;0.6273;
1228.5000;0.2523;0.6128;
1228.8000;0.2475;0.6031;
1229.1000;0.2515;0.6249;
1229.4000;0.2564;0.6322;
1229.7000;0.2450;0.6031;
1230.0000;0.2491;0.6128;
1230.3000;0.2499;0.6152;
1230.6000;0.2564;0.6273;
1230.9000;0.2515;0.6152;
1231.2000;0.2515;0.6104;
1231.5000;0.2515;0.6104;
1231.8000;0.2426;0.5910;
1232.1000;0.2515;0.6249;
1232.4000;0.2523;0.6273;
1232.7000;0.2507;0.6298;
1233.0000;0.2507;0.6249;
1233.3000;0.2523;0.6298;
1233.6000;0.2532;0.6249;
1233.9000;0.2523;0.6201;
1234.2000;0.2515;0.6177;
1234.5000;0.2523;0.6225;
1234.8000;0.2499;0.6128;
1235.1000;0.2515;0.6201;
1235.4000;0.2515;0.6177;
1235.7000;0.2515;0.6201;
1236.0000;0.2548;0.6273;
1236.3000;0.2523;0.6273;
1236.6000;0.2548;0.6467;
1236.9000;0.2556;0.6395;
1237.2000;0.2532;0.6370;
1237.5000;0.2556;0.6467;
1237.8000;0.2515;0.6225;
1238.1000;0.2507;0.6128;
1238.4000;0.2491;0.6080;
1238.7000;0.2597;0.6419;
1239.0000;0.2523;0.6225;
1239.3000;0.2515;0.6128;
1239.6000;0.2507;0.6225;
1239.9000;0.2515;0.6128;
1240.2000;0.2523;0.6152;
1240.5000;0.2507;0.6080;
1240.8000;0.2491;0.6055;
1241.1000;0.2572;0.6201;
1241.4000;0.2540;0.6055;
1241.7000;0.2523;0.6055;
1242.0000;0.2507;0.6055;
1242.3000;0.2515;0.6104;
1242.6000;0.2540;0.6273;
1242.9000;0.2458;0.6055;
1243.2000;0.2523;0.6128;
1243.5000;0.2491;0.6104;
1243.8000;0.2515;0.6225;
1244.1000;0.2515;0.6152;
1244.4000;0.2515;0.6177;
1244.7000;0.2491;0.6152;
1245.0000;0.2475;0.6031;
1245.3000;0.2523;0.6152;
1245.6000;0.2507;0.6128;
1245.9000;0.2515;0.6201;
1246.2000;0.2515;0.6273;
1246.5000;0.2532;0.6298;
1246.8000;0.2532;0.6346;
1247.1000;0.2475;0.6152;
1247.4000;0.2515;0.6152;
1247.7000;0.2507;0.6177;
1248.0000;0.2515;0.6177;
1248.3000;0.2515;0.6249;
1248.6000;0.2507;0.6201;
1248.9000;0.2532;0.6370;
1249.2000;0.2507;0.6467;
1249.5000;0.2523;0.6370;
1249.8000;0.2515;0.6249;
1250.1000;0.2532;0.6249;
1250.4000;0.2507;0.6225;
1250.7000;0.2523;0.6249;
1251.0000;0.2483;0.6104;
1251.3000;0.2475;0.6007;
1251.6000;0.2540;0.6201;
1251.9000;0.2515;0.6055;
1252.2000;0.2507;0.6177;
1252.5000;0.2523;0.6225;
1252.8000;0.2548;0.6249;
1253.1000;0.2507;0.6031;
1253.4000;0.2507;0.6031;
1253.7000;0.2507;0.6007;
1254.0000;0.2499;0.5910;
1254.3000;0.2507;0.5886;
1254.6000;0.2556;0.6031;
1254.9000;0.2548;0.6031;
1255.2000;0.2523;0.6007;
1255.5000;0.2523;0.6007;
1255.8000;0.2499;0.6007;
1256.1000;0.2523;0.6104;
1256.4000;0.2523;0.6031;
1256.7000;0.2523;0.6055;
1257.0000;0.2515;0.6055;
1257.3000;0.2523;0.6007;
1257.6000;0.2564;0.6201;
1257.9000;0.2523;0.6152;
1258.2000;0.2532;0.6152;
1258.5000;0.2540;0.6177;
1258.8000;0.2515;0.6104;
1259.1000;0.2540;0.6152;
1259.4000;0.2507;0.6249;
1259.7000;0.2499;0.6249;
1260.0000;0.2540;0.6395;
1260.3000;0.2515;0.6273;
1260.6000;0.2515;0.6346;
1260.9000;0.2507;0.6249;
1261.2000;0.2507;0.6298;
1261.5000;0.2523;0.6322;
1261.8000;0.2540;0.6225;
1262.1000;0.2637;0.6588;
1262.4000;0.2523;0.6225;
1262.7000;0.2605;0.6491;
1263.0000;0.2523;0.6201;
1263.3000;0.2515;0.6128;
1263.6000;0.2507;0.6128;
1263.9000;0.2499;0.6152;
1264.2000;0.2515;0.6128;
1264.5000;0.2515;0.6152;
1264.8000;0.2491;0.6080;
1265.1000;0.2507;0.6225;
1265.4000;0.2515;0.6249;
1265.7000;0.2515;0.6273;
1266.0000;0.2523;0.6249;
1266.3000;0.2515;0.6249;
1266.6000;0.2507;0.6225;
1266.9000;0.2515;0.6177;
1267.2000;0.2483;0.6128;
1267.5000;0.2515;0.6249;
1267.8000;0.2532;0.6249;
1268.1000;0.2515;0.6273;
1268.4000;0.2515;0.6322;
1268.7000;0.2515;0.6298;
1269.0000;0.2515;0.6201;
1269.3000;0.2515;0.6201;
1269.6000;0.2523;0.6225;
1269.9000;0.2507;0.6152;
1270.2000;0.2515;0.6201;
1270.5000;0.2499;0.6201;
1270.8000;0.2515;0.6298;
1271.1000;0.2523;0.6322;
1271.4000;0.2523;0.6298;
1271.7000;0.2515;0.6322;
1272.0000;0.2540;0.6395;
1272.3000;0.2491;0.6249;
1272.6000;0.2523;0.6249;
1272.9000;0.2532;0.6249;
1273.2000;0.2532;0.6177;
1273.5000;0.2515;0.6104;
1273.8000;0.2507;0.6055;
1274.1000;0.2523;0.6031;
1274.4000;0.2523;0.6007;
1274.7000;0.2532;0.5910;
1275.0000;0.2450;0.5765;
1275.3000;0.2507;0.5862;
1275.6000;0.2515;0.5934;
1275.9000;0.2507;0.6007;
1276.2000;0.2491;0.5934;
1276.5000;0.2507;0.5959;
1276.8000;0.2532;0.6031;
1277.1000;0.2523;0.6031;
1277.4000;0.2532;0.6031;
1277.7000;0.2523;0.6031;
1278.0000;0.2540;0.6152;
1278.3000;0.2523;0.6128;
1278.6000;0.2532;0.6128;
1278.9000;0.2532;0.6080;
1279.2000;0.2515;0.6055;
1279.5000;0.2523;0.6152;
1279.8000;0.2523;0.6201;
1280.1000;0.2532;0.6128;
1280.4000;0.2515;0.6104;
1280.7000;0.2515;0.6152;
1281.0000;0.2515;0.6104;
1281.3000;0.2532;0.6055;
1281.6000;0.2515;0.5934;
1281.9000;0.2507;0.5959;
1282.2000;0.2540;0.6128;
1282.5000;0.2515;0.6007;
1282.8000;0.2442;0.5765;
1283.1000;0.2507;0.6031;
1283.4000;0.2523;0.6055;
1283.7000;0.2532;0.6055;
1284.0000;0.2515;0.6080;
1284.3000;0.2507;0.6128;
1284.6000;0.2523;0.6177;
1284.9000;0.2523;0.6104;
1285.2000;0.2491;0.5983;
1285.5000;0.2523;0.6055;
1285.8000;0.2515;0.6007;
1286.1000;0.2548;0.6128;
1286.4000;0.2523;0.6055;
1286.7000;0.2515;0.6152;
1287.0000;0.2507;0.6177;
1287.3000;0.2515;0.6225;
1287.6000;0.2515;0.6249;
1287.9000;0.2507;0.6225;
1288.2000;0.2507;0.6177;
1288.5000;0.2515;0.6128;
1288.8000;0.2523;0.6225;
1289.1000;0.2523;0.6273;
1289.4000;0.2515;0.6322;
1289.7000;0.2491;0.6370;
1290.0000;0.2515;0.6370;
1290.3000;0.2523;0.6322;
1290.6000;0.2499;0.6273;
1290.9000;0.2409;0.5934;
1291.2000;0.2507;0.6128;
1291.5000;0.2515;0.6152;
1291.8000;0.2515;0.6201;
1292.1000;0.2532;0.6298;
1292.4000;0.2523;0.6249;
1292.7000;0.2515;0.6273;
1293.0000;0.2515;0.6225;
1293.3000;0.2515;0.6177;
1293.6000;0.2532;0.6201;
1293.9000;0.2523;0.6273;
1294.2000;0.2507;0.6201;
1294.5000;0.2507;0.6225;
1294.8000;0.2507;0.6177;
1295.1000;0.2515;0.6201;
1295.4000;0.2507;0.6201;
1295.7000;0.2515;0.6249;
1296.0000;0.2507;0.6322;
1296.3000;0.2515;0.6346;
1296.6000;0.2515;0.6346;
1296.9000;0.2507;0.6298;
1297.2000;0.2515;0.6273;
1297.5000;0.2515;0.6225;
1297.8000;0.2523;0.6225;
1298.1000;0.2515;0.6201;
1298.4000;0.2523;0.6249;
1298.7000;0.2532;0.6201;
1299.0000;0.2523;0.6104;
1299.3000;0.2515;0.6201;
1299.6000;0.2515;0.6298;
1299.9000;0.2523;0.6322;
1300.2000;0.2491;0.6273;
1300.5000;0.2515;0.6395;
1300.8000;0.2507;0.6322;
1301.1000;0.2523;0.6370;
1301.4000;0.2523;0.6395;
1301.7000;0.2507;0.6322;
1302.0000;0.2507;0.6201;
1302.3000;0.2409;0.5862;
1302.6000;0.2523;0.6201;
1302.9000;0.2523;0.6104;
1303.2000;0.2540;0.6177;
1303.5000;0.2523;0.6128;
1303.8000;0.2523;0.6104;
1304.1000;0.2532;0.6104;
1304.4000;0.2515;0.6128;
1304.7000;0.2515;0.6128;
1305.0000;0.2515;0.6128;
1305.3000;0.2523;0.6128;
1305.6000;0.2523;0.6007;
1305.9000;0.2515;0.5959;
1306.2000;0.2515;0.6055;
1306.5000;0.2532;0.6177;
1306.8000;0.2548;0.6322;
1307.1000;0.2507;0.6201;
1307.4000;0.2409;0.6007;
1307.7000;0.2515;0.6298;
1308.0000;0.2515;0.6273;
1308.3000;0.2442;0.6031;
1308.6000;0.2515;0.6177;
1308.9000;0.2515;0.6201;
1309.2000;0.2507;0.6177;
1309.5000;0.2515;0.6201;
1309.8000;0.2532;0.6201;
1310.1000;0.2507;0.6298;
1310.4000;0.2426;0.6007;
1310.7000;0.2507;0.6346;
1311.0000;0.2523;0.6298;
1311.3000;0.2540;0.6346;
1311.6000;0.2532;0.6370;
1311.9000;0.2532;0.6395;
1312.2000;0.2475;0.6225;
1312.5000;0.2507;0.6249;
1312.8000;0.2507;0.6249;
1313.1000;0.2377;0.5934;
1313.4000;0.2597;0.6443;
1313.7000;0.2564;0.6346;
1314.0000;0.2580;0.6346;
1314.3000;0.2515;0.6152;
1314.6000;0.2580;0.6419;
1314.9000;0.2523;0.6249;
1315.2000;0.2523;0.6225;
1315.5000;0.2572;0.6370;
1315.8000;0.2523;0.6201;
1316.1000;0.2499;0.6177;
1316.4000;0.2515;0.6201;
1316.7000;0.2548;0.6249;
1317.0000;0.2523;0.6177;
1317.3000;0.2540;0.6201;
1317.6000;0.2523;0.6104;
1317.9000;0.2523;0.6055;
1318.2000;0.2540;0.6104;
1318.5000;0.2523;0.6104;
1318.8000;0.2564;0.6177;
1319.1000;0.2523;0.6080;
1319.4000;0.2532;0.6007;
1319.7000;0.2523;0.6031;
1320.0000;0.2515;0.5983;
1320.3000;0.2442;0.5862;
1320.6000;0.2515;0.6055;
1320.9000;0.2507;0.6031;
1321.2000;0.2483;0.6031;
1321.5000;0.2491;0.6007;
1321.8000;0.2507;0.6031;
1322.1000;0.2507;0.5983;
1322.4000;0.2515;0.6031;
1322.7000;0.2426;0.5813;
1323.0000;0.2564;0.6177;
1323.3000;0.2507;0.6055;
1323.6000;0.2515;0.5959;
1323.9000;0.2507;0.5910;
1324.2000;0.2515;0.5886;
1324.5000;0.2507;0.5862;
1324.8000;0.2532;0.5910;
1325.1000;0.2507;0.5862;
1325.4000;0.2507;0.5813;
1325.7000;0.2515;0.5983;
1326.0000;0.2523;0.6055;
1326.3000;0.2515;0.6080;
1326.6000;0.2532;0.6104;
1326.9000;0.2369;0.5716;
1327.2000;0.2507;0.6031;
1327.5000;0.2507;0.6104;
1327.8000;0.2515;0.6128;
1328.1000;0.2515;0.6080;
1328.4000;0.2532;0.6055;
1328.7000;0.2556;0.6177;
1329.0000;0.2515;0.6128;
1329.3000;0.2507;0.6152;
1329.6000;0.2523;0.6177;
1329.9000;0.2556;0.6249;
1330.2000;0.2507;0.6104;
1330.5000;0.2564;0.6298;
1330.8000;0.2507;0.6104;
1331.1000;0.2491;0.6128;
1331.4000;0.2507;0.6201;
1331.7000;0.2515;0.6201;
1332.0000;0.2523;0.6152;
1332.3000;0.2523;0.6152;
1332.6000;0.2629;0.6491;
1332.9000;0.2548;0.6346;
1333.2000;0.2523;0.6273;
1333.5000;0.2523;0.6273;
1333.8000;0.2523;0.6298;
1334.1000;0.2466;0.6177;
1334.4000;0.2499;0.6298;
1334.7000;0.2523;0.6273;
1335.0000;0.2515;0.6177;
1335.3000;0.2523;0.6201;
1335.6000;0.2515;0.6201;
1335.9000;0.2523;0.6225;
1336.2000;0.2483;0.6128;
1336.5000;0.2515;0.6152;
1336.8000;0.2507;0.6225;
1337.1000;0.2523;0.6249;
1337.4000;0.2507;0.6225;
1337.7000;0.2515;0.6249;
1338.0000;0.2523;0.6201;
1338.3000;0.2564;0.6225;
1338.6000;0.2515;0.6128;
1338.9000;0.2515;0.6104;
1339.2000;0.2540;0.6152;
1339.5000;0.2515;0.6080;
1339.8000;0.2548;0.6031;
1340.1000;0.2515;0.5959;
1340.4000;0.2532;0.5910;
1340.7000;0.2532;0.5959;
1341.0000;0.2548;0.6128;
1341.3000;0.2523;0.6055;
1341.6000;0.2458;0.5813;
1341.9000;0.2483;0.5837;
1342.2000;0.2515;0.5934;
1342.5000;0.2629;0.6273;
1342.8000;0.2507;0.5959;
1343.1000;0.2499;0.5862;
1343.4000;0.2523;0.5934;
1343.7000;0.2515;0.5837;
1344.0000;0.2523;0.5886;
1344.3000;0.2507;0.5862;
1344.6000;0.2499;0.5886;
1344.9000;0.2532;0.5959;
1345.2000;0.2515;0.5886;
1345.5000;0.2540;0.5862;
1345.8000;0.2670;0.6201;
1346.1000;0.2458;0.5547;
1346.4000;0.2532;0.5668;
1346.7000;0.2523;0.5619;
1347.0000;0.2515;0.5692;
1347.3000;0.2507;0.5741;
1347.6000;0.2515;0.5813;
1347.9000;0.2515;0.5813;
1348.2000;0.2515;0.5813;
1348.5000;0.2507;0.5813;
1348.8000;0.2523;0.5886;
1349.1000;0.2515;0.5862;
1349.4000;0.2507;0.5837;
1349.7000;0.2499;0.5886;
1350.0000;0.2523;0.6031;
1350.3000;0.2597;0.6225;
1350.6000;0.2507;0.5910;
1350.9000;0.2548;0.6080;
1351.2000;0.2515;0.5910;
1351.5000;0.2507;0.5934;
1351.8000;0.2515;0.5910;
1352.1000;0.2523;0.5910;
1352.4000;0.2515;0.5959;
1352.7000;0.2515;0.6007;
1353.0000;0.2442;0.5886;
1353.3000;0.2483;0.5959;
1353.6000;0.2434;0.5813;
1353.9000;0.2426;0.5765;
1354.2000;0.2523;0.6080;
1354.5000;0.2491;0.6055;
1354.8000;0.2540;0.6177;
1355.1000;0.2515;0.6152;
1355.4000;0.2540;0.6273;
1355.7000;0.2548;0.6273;
1356.0000;0.2475;0.6080;
1356.3000;0.2515;0.6152;
1356.6000;0.2515;0.6201;
1356.9000;0.2499;0.6177;
1357.2000;0.2556;0.6273;
1357.5000;0.2499;0.6152;
1357.8000;0.2507;0.6152;
1358.1000;0.2532;0.6152;
1358.4000;0.2499;0.6031;
1358.7000;0.2507;0.6007;
1359.0000;0.2507;0.6055;
1359.3000;0.2507;0.6055;
1359.6000;0.2515;0.6128;
1359.9000;0.2515;0.6080;
1360.2000;0.2532;0.6104;
1360.5000;0.2515;0.6080;
1360.8000;0.2540;0.6177;
1361.1000;0.2515;0.6225;
1361.4000;0.2515;0.6055;
1361.7000;0.2548;0.6104;
1362.0000;0.2532;0.6201;
1362.3000;0.2523;0.6152;
1362.6000;0.2523;0.6152;
1362.9000;0.2515;0.6225;
1363.2000;0.2507;0.6249;
1363.5000;0.2523;0.6298;
1363.8000;0.2507;0.6225;
1364.1000;0.2458;0.6031;
1364.4000;0.2523;0.6201;
1364.7000;0.2491;0.6152;
1365.0000;0.2532;0.6225;
1365.3000;0.2532;0.6152;
1365.6000;0.2523;0.6055;
1365.9000;0.2523;0.6007;
1366.2000;0.2589;0.6177;
1366.5000;0.2499;0.5983;
1366.8000;0.2523;0.6128;
1367.1000;0.2491;0.6128;
1367.4000;0.2515;0.6177;
1367.7000;0.2515;0.6055;
1368.0000;0.2613;0.6273;
1368.3000;0.2507;0.5959;
1368.6000;0.2507;0.6007;
1368.9000;0.2523;0.6031;
1369.2000;0.2507;0.5959;
1369.5000;0.2523;0.5983;
1369.8000;0.2491;0.5862;
1370.1000;0.2507;0.5959;
1370.4000;0.2540;0.5983;
1370.7000;0.2556;0.5983;
1371.0000;0.2491;0.5716;
1371.3000;0.2523;0.5837;
1371.6000;0.2515;0.5789;
1371.9000;0.2515;0.5813;
1372.2000;0.2491;0.5741;
1372.5000;0.2515;0.5862;
1372.8000;0.2556;0.5910;
1373.1000;0.2475;0.5741;
1373.4000;0.2523;0.6007;
1373.7000;0.2548;0.6055;
1374.0000;0.2483;0.5934;
1374.3000;0.2540;0.6128;
1374.6000;0.2523;0.6177;
1374.9000;0.2523;0.6128;
1375.2000;0.2540;0.6152;
1375.5000;0.2532;0.6104;
1375.8000;0.2540;0.6104;
1376.1000;0.2532;0.6055;
1376.4000;0.2515;0.6055;
1376.7000;0.2466;0.5983;
1377.0000;0.2523;0.6128;
1377.3000;0.2507;0.6128;
1377.6000;0.2491;0.6080;
1377.9000;0.2515;0.6201;
1378.2000;0.2499;0.6249;
1378.5000;0.2629;0.6516;
1378.8000;0.2507;0.6273;
1379.1000;0.2580;0.6419;
1379.4000;0.2523;0.6080;
1379.7000;0.2507;0.5862;
1380.0000;0.2507;0.5837;
1380.3000;0.2483;0.5692;
1380.6000;0.2523;0.5741;
1380.9000;0.2540;0.5716;
1381.2000;0.2499;0.5668;
1381.5000;0.2515;0.5692;
1381.8000;0.2507;0.5619;
1382.1000;0.2532;0.5862;
1382.4000;0.2523;0.5862;
1382.7000;0.2507;0.5837;
1383.0000;0.2515;0.5934;
1383.3000;0.2418;0.5668;
1383.6000;0.2540;0.5983;
1383.9000;0.2450;0.5644;
1384.2000;0.2564;0.5959;
1384.5000;0.2507;0.5765;
1384.8000;0.2523;0.5813;
1385.1000;0.2442;0.5571;
1385.4000;0.2515;0.5741;
1385.7000;0.2507;0.5765;
1386.0000;0.2523;0.5765;
1386.3000;0.2532;0.5862;
1386.6000;0.2507;0.5862;
1386.9000;0.2523;0.5934;
1387.2000;0.2515;0.5886;
1387.5000;0.2515;0.5862;
1387.8000;0.2507;0.5862;
1388.1000;0.2532;0.5837;
1388.4000;0.2532;0.5813;
1388.7000;0.2515;0.5837;
1389.0000;0.2572;0.5983;
1389.3000;0.2491;0.5789;
1389.6000;0.2532;0.5910;
1389.9000;0.2523;0.5934;
1390.2000;0.2572;0.6080;
1390.5000;0.2523;0.5910;
1390.8000;0.2532;0.5886;
1391.1000;0.2532;0.5959;
1391.4000;0.2515;0.5862;
1391.7000;0.2523;0.5959;
1392.0000;0.2523;0.5983;
1392.3000;0.2532;0.5959;
1392.6000;0.2523;0.5910;
1392.9000;0.2507;0.5716;
1393.2000;0.2507;0.5741;
1393.5000;0.2499;0.5716;
1393.8000;0.2515;0.5741;
1394.1000;0.2507;0.5716;
1394.4000;0.2515;0.5862;
1394.7000;0.2515;0.5813;
1395.0000;0.2507;0.5716;
1395.3000;0.2507;0.5741;
1395.6000;0.2540;0.5741;
1395.9000;0.2507;0.5716;
1396.2000;0.2515;0.5765;
1396.5000;0.2540;0.5837;
1396.8000;0.2491;0.5765;
1397.1000;0.2515;0.5862;
1397.4000;0.2523;0.5910;
1397.7000;0.2499;0.5862;
1398.0000;0.2523;0.5862;
1398.3000;0.2507;0.5765;
1398.6000;0.2515;0.5813;
1398.9000;0.2523;0.5813;
1399.2000;0.2515;0.5886;
1399.5000;0.2499;0.5862;
1399.8000;0.2515;0.5934;
