time/ms;Fluo/V;P700 deltaI/I x10³;
-199.8000;0.0773;-1.0362;
-199.5000;0.0749;-1.0340;
-199.2000;0.0757;-1.0362;
-198.9000;0.0781;-1.0385;
-198.6000;0.0790;-1.0408;
-198.3000;0.0757;-1.0475;
-198.0000;0.0765;-1.0498;
-197.7000;0.0830;-1.0362;
-197.4000;0.0765;-1.0453;
-197.1000;0.0798;-1.0385;
-196.8000;0.0659;-1.0724;
-196.5000;0.0741;-1.0430;
-196.2000;0.0757;-1.0430;
-195.9000;0.0790;-1.0408;
-195.6000;0.0798;-1.0385;
-195.3000;0.0757;-1.0430;
-195.0000;0.0757;-1.0408;
-194.7000;0.0781;-1.0430;
-194.4000;0.0790;-1.0340;
-194.1000;0.0749;-1.0385;
-193.8000;0.0798;-1.0317;
-193.5000;0.0773;-1.0294;
-193.2000;0.0757;-1.0317;
-192.9000;0.0757;-1.0340;
-192.6000;0.0798;-1.0227;
-192.3000;0.0781;-1.0249;
-192.0000;0.0790;-1.0294;
-191.7000;0.0806;-1.0249;
-191.4000;0.0684;-1.0611;
-191.1000;0.0741;-1.0498;
-190.8000;0.0684;-1.0634;
-190.5000;0.0790;-1.0408;
-190.2000;0.0757;-1.0453;
-189.9000;0.0781;-1.0362;
-189.6000;0.0765;-1.0340;
-189.3000;0.0749;-1.0430;
-189.0000;0.0765;-1.0430;
-188.7000;0.0781;-1.0430;
-188.4000;0.0749;-1.0521;
-188.1000;0.0773;-1.0430;
-187.8000;0.0806;-1.0317;
-187.5000;0.0806;-1.0408;
-187.2000;0.0773;-1.0475;
-186.9000;0.0863;-1.0317;
-186.6000;0.0781;-1.0521;
-186.3000;0.0773;-1.0566;
-186.0000;0.0773;-1.0589;
-185.7000;0.0781;-1.0566;
-185.4000;0.0790;-1.0521;
-185.1000;0.0757;-1.0521;
-184.8000;0.0765;-1.0521;
-184.5000;0.0773;-1.0589;
-184.2000;0.0773;-1.0566;
-183.9000;0.0790;-1.0543;
-183.6000;0.0741;-1.0634;
-183.3000;0.0749;-1.0589;
-183.0000;0.0773;-1.0498;
-182.7000;0.0781;-1.0408;
-182.4000;0.0765;-1.0475;
-182.1000;0.0749;-1.0543;
-181.8000;0.0830;-1.0362;
-181.5000;0.0749;-1.0521;
-181.2000;0.0757;-1.0430;
-180.9000;0.0757;-1.0430;
-180.6000;0.0781;-1.0408;
-180.3000;0.0781;-1.0430;
-180.0000;0.0847;-1.0227;
-179.7000;0.0749;-1.0453;
-179.4000;0.0790;-1.0362;
-179.1000;0.0781;-1.0430;
-178.8000;0.0790;-1.0340;
-178.5000;0.0757;-1.0453;
-178.2000;0.0773;-1.0408;
-177.9000;0.0781;-1.0408;
-177.6000;0.0773;-1.0385;
-177.3000;0.0773;-1.0408;
-177.0000;0.0790;-1.0408;
-176.7000;0.0765;-1.0543;
-176.4000;0.0773;-1.0475;
-176.1000;0.0781;-1.0453;
-175.8000;0.0838;-1.0317;
-175.5000;0.0741;-1.0589;
-175.2000;0.0781;-1.0475;
-174.9000;0.0790;-1.0521;
-174.6000;0.0757;-1.0543;
-174.3000;0.0773;-1.0543;
-174.0000;0.0773;-1.0589;
-173.7000;0.0790;-1.0566;
-173.4000;0.0773;-1.0589;
-173.1000;0.0773;-1.0656;
-172.8000;0.0765;-1.0634;
-172.5000;0.0773;-1.0634;
-172.2000;0.0757;-1.0724;
-171.9000;0.0749;-1.0815;
-171.6000;0.0790;-1.0702;
-171.3000;0.0773;-1.0747;
-171.0000;0.0765;-1.0837;
-170.7000;0.0765;-1.0724;
-170.4000;0.0790;-1.0589;
-170.1000;0.0790;-1.0589;
-169.8000;0.0757;-1.0656;
-169.5000;0.0773;-1.0724;
-169.2000;0.0773;-1.0679;
-168.9000;0.0790;-1.0566;
-168.6000;0.0757;-1.0589;
-168.3000;0.0757;-1.0543;
-168.0000;0.0765;-1.0589;
-167.7000;0.0806;-1.0521;
-167.4000;0.0749;-1.0543;
-167.1000;0.0765;-1.0475;
-166.8000;0.0781;-1.0453;
-166.5000;0.0765;-1.0408;
-166.2000;0.0781;-1.0408;
-165.9000;0.0757;-1.0475;
-165.6000;0.0773;-1.0430;
-165.3000;0.0887;-1.0091;
-165.0000;0.0765;-1.0453;
-164.7000;0.0781;-1.0430;
-164.4000;0.0790;-1.0340;
-164.1000;0.0741;-1.0453;
-163.8000;0.0773;-1.0408;
-163.5000;0.0757;-1.0521;
-163.2000;0.0749;-1.0453;
-162.9000;0.0773;-1.0453;
-162.6000;0.0781;-1.0385;
-162.3000;0.0765;-1.0475;
-162.0000;0.0781;-1.0453;
-161.7000;0.0773;-1.0521;
-161.4000;0.0773;-1.0521;
-161.1000;0.0798;-1.0521;
-160.8000;0.0814;-1.0385;
-160.5000;0.0765;-1.0475;
-160.2000;0.0798;-1.0430;
-159.9000;0.0765;-1.0430;
-159.6000;0.0790;-1.0521;
-159.3000;0.0790;-1.0430;
-159.0000;0.0790;-1.0430;
-158.7000;0.0773;-1.0453;
-158.4000;0.0765;-1.0453;
-158.1000;0.0790;-1.0385;
-157.8000;0.0765;-1.0453;
-157.5000;0.0773;-1.0385;
-157.2000;0.0765;-1.0317;
-156.9000;0.0798;-1.0294;
-156.6000;0.0757;-1.0362;
-156.3000;0.0781;-1.0317;
-156.0000;0.0798;-1.0294;
-155.7000;0.0741;-1.0294;
-155.4000;0.0773;-1.0249;
-155.1000;0.0741;-1.0362;
-154.8000;0.0790;-1.0294;
-154.5000;0.0749;-1.0453;
-154.2000;0.0708;-1.0634;
-153.9000;0.0765;-1.0475;
-153.6000;0.0773;-1.0453;
-153.3000;0.0773;-1.0430;
-153.0000;0.0757;-1.0453;
-152.7000;0.0781;-1.0453;
-152.4000;0.0765;-1.0498;
-152.1000;0.0765;-1.0430;
-151.8000;0.0773;-1.0408;
-151.5000;0.0765;-1.0453;
-151.2000;0.0814;-1.0385;
-150.9000;0.0814;-1.0317;
-150.6000;0.0773;-1.0453;
-150.3000;0.0773;-1.0498;
-150.0000;0.0765;-1.0408;
-149.7000;0.0757;-1.0453;
-149.4000;0.0781;-1.0475;
-149.1000;0.0757;-1.0498;
-148.8000;0.0765;-1.0408;
-148.5000;0.0773;-1.0408;
-148.2000;0.0879;-1.0113;
-147.9000;0.0757;-1.0385;
-147.6000;0.0765;-1.0340;
-147.3000;0.0806;-1.0294;
-147.0000;0.0741;-1.0408;
-146.7000;0.0741;-1.0430;
-146.4000;0.0773;-1.0317;
-146.1000;0.0798;-1.0249;
-145.8000;0.0773;-1.0340;
-145.5000;0.0757;-1.0362;
-145.2000;0.0733;-1.0340;
-144.9000;0.0741;-1.0317;
-144.6000;0.0765;-1.0204;
-144.3000;0.0790;-1.0113;
-144.0000;0.0765;-1.0227;
-143.7000;0.0733;-1.0340;
-143.4000;0.0757;-1.0294;
-143.1000;0.0773;-1.0294;
-142.8000;0.0790;-1.0340;
-142.5000;0.0790;-1.0340;
-142.2000;0.0773;-1.0340;
-141.9000;0.0773;-1.0294;
-141.6000;0.0781;-1.0294;
-141.3000;0.0773;-1.0362;
-141.0000;0.0781;-1.0385;
-140.7000;0.0765;-1.0453;
-140.4000;0.0765;-1.0475;
-140.1000;0.0847;-1.0204;
-139.8000;0.0741;-1.0453;
-139.5000;0.0781;-1.0317;
-139.2000;0.0765;-1.0385;
-138.9000;0.0773;-1.0408;
-138.6000;0.0692;-1.0724;
-138.3000;0.0676;-1.0724;
-138.0000;0.0781;-1.0521;
-137.7000;0.0773;-1.0543;
-137.4000;0.0765;-1.0521;
-137.1000;0.0781;-1.0430;
-136.8000;0.0895;-1.0227;
-136.5000;0.0773;-1.0430;
-136.2000;0.0773;-1.0385;
-135.9000;0.0814;-1.0272;
-135.6000;0.0781;-1.0294;
-135.3000;0.0781;-1.0249;
-135.0000;0.0781;-1.0362;
-134.7000;0.0781;-1.0340;
-134.4000;0.0781;-1.0362;
-134.1000;0.0781;-1.0340;
-133.8000;0.0773;-1.0362;
-133.5000;0.0790;-1.0272;
-133.2000;0.0773;-1.0362;
-132.9000;0.0798;-1.0272;
-132.6000;0.0790;-1.0317;
-132.3000;0.0830;-1.0249;
-132.0000;0.0806;-1.0294;
-131.7000;0.0781;-1.0340;
-131.4000;0.0798;-1.0340;
-131.1000;0.0790;-1.0317;
-130.8000;0.0822;-1.0204;
-130.5000;0.0700;-1.0634;
-130.2000;0.0765;-1.0543;
-129.9000;0.0757;-1.0475;
-129.6000;0.0838;-1.0272;
-129.3000;0.0651;-1.0724;
-129.0000;0.0781;-1.0521;
-128.7000;0.0765;-1.0498;
-128.4000;0.0879;-1.0249;
-128.1000;0.0773;-1.0543;
-127.8000;0.0757;-1.0566;
-127.5000;0.0781;-1.0430;
-127.2000;0.0749;-1.0475;
-126.9000;0.0733;-1.0521;
-126.6000;0.0781;-1.0362;
-126.3000;0.0741;-1.0475;
-126.0000;0.0708;-1.0453;
-125.7000;0.0806;-1.0249;
-125.4000;0.0781;-1.0317;
-125.1000;0.0773;-1.0317;
-124.8000;0.0798;-1.0362;
-124.5000;0.0773;-1.0408;
-124.2000;0.0773;-1.0362;
-123.9000;0.0749;-1.0521;
-123.6000;0.0773;-1.0453;
-123.3000;0.0798;-1.0408;
-123.0000;0.0781;-1.0453;
-122.7000;0.0765;-1.0453;
-122.4000;0.0773;-1.0453;
-122.1000;0.0790;-1.0453;
-121.8000;0.0765;-1.0543;
-121.5000;0.0773;-1.0521;
-121.2000;0.0765;-1.0498;
-120.9000;0.0790;-1.0385;
-120.6000;0.0790;-1.0408;
-120.3000;0.0814;-1.0317;
-120.0000;0.0765;-1.0430;
-119.7000;0.0741;-1.0453;
-119.4000;0.0765;-1.0362;
-119.1000;0.0814;-1.0362;
-118.8000;0.0781;-1.0453;
-118.5000;0.0781;-1.0408;
-118.2000;0.0765;-1.0385;
-117.9000;0.0773;-1.0408;
-117.6000;0.0790;-1.0430;
-117.3000;0.0733;-1.0543;
-117.0000;0.0741;-1.0543;
-116.7000;0.0790;-1.0408;
-116.4000;0.0773;-1.0408;
-116.1000;0.0757;-1.0498;
-115.8000;0.0790;-1.0430;
-115.5000;0.0781;-1.0362;
-115.2000;0.0765;-1.0408;
-114.9000;0.0757;-1.0430;
-114.6000;0.0773;-1.0453;
-114.3000;0.0798;-1.0362;
-114.0000;0.0781;-1.0385;
-113.7000;0.0798;-1.0340;
-113.4000;0.0765;-1.0385;
-113.1000;0.0781;-1.0340;
-112.8000;0.0798;-1.0362;
-112.5000;0.0765;-1.0430;
-112.2000;0.0733;-1.0521;
-111.9000;0.0741;-1.0521;
-111.6000;0.0781;-1.0475;
-111.3000;0.0773;-1.0498;
-111.0000;0.0781;-1.0521;
-110.7000;0.0814;-1.0453;
-110.4000;0.0781;-1.0475;
-110.1000;0.0773;-1.0475;
-109.8000;0.0733;-1.0475;
-109.5000;0.0871;-1.0181;
-109.2000;0.0798;-1.0362;
-108.9000;0.0773;-1.0498;
-108.6000;0.0773;-1.0453;
-108.3000;0.0790;-1.0408;
-108.0000;0.0798;-1.0408;
-107.7000;0.0773;-1.0498;
-107.4000;0.0773;-1.0453;
-107.1000;0.0781;-1.0430;
-106.8000;0.0749;-1.0611;
-106.5000;0.0733;-1.0656;
-106.2000;0.0773;-1.0498;
-105.9000;0.0773;-1.0408;
-105.6000;0.0781;-1.0430;
-105.3000;0.0855;-1.0294;
-105.0000;0.0765;-1.0521;
-104.7000;0.0676;-1.0837;
-104.4000;0.0757;-1.0611;
-104.1000;0.0724;-1.0747;
-103.8000;0.0830;-1.0385;
-103.5000;0.0757;-1.0543;
-103.2000;0.0757;-1.0634;
-102.9000;0.0741;-1.0770;
-102.6000;0.0659;-1.1064;
-102.3000;0.0749;-1.0883;
-102.0000;0.0765;-1.0815;
-101.7000;0.0749;-1.0792;
-101.4000;0.0806;-1.0589;
-101.1000;0.0790;-1.0566;
-100.8000;0.0790;-1.0566;
-100.5000;0.0773;-1.0634;
-100.2000;0.0757;-1.0634;
-99.9000;0.0757;-1.0611;
-99.6000;0.0773;-1.0521;
-99.3000;0.0773;-1.0521;
-99.0000;0.0790;-1.0498;
-98.7000;0.0749;-1.0498;
-98.4000;0.0741;-1.0453;
-98.1000;0.0765;-1.0385;
-97.8000;0.0781;-1.0430;
-97.5000;0.0757;-1.0408;
-97.2000;0.0822;-1.0385;
-96.9000;0.0765;-1.0340;
-96.6000;0.0781;-1.0362;
-96.3000;0.0781;-1.0430;
-96.0000;0.0765;-1.0430;
-95.7000;0.0822;-1.0204;
-95.4000;0.0765;-1.0408;
-95.1000;0.0773;-1.0385;
-94.8000;0.0749;-1.0430;
-94.5000;0.0765;-1.0317;
-94.2000;0.0806;-1.0294;
-93.9000;0.0773;-1.0385;
-93.6000;0.0773;-1.0408;
-93.3000;0.0830;-1.0204;
-93.0000;0.0765;-1.0385;
-92.7000;0.0757;-1.0453;
-92.4000;0.0822;-1.0227;
-92.1000;0.0733;-1.0453;
-91.8000;0.0781;-1.0385;
-91.5000;0.0838;-1.0249;
-91.2000;0.0757;-1.0475;
-90.9000;0.0765;-1.0453;
-90.6000;0.0781;-1.0453;
-90.3000;0.0830;-1.0272;
-90.0000;0.0790;-1.0272;
-89.7000;0.0757;-1.0272;
-89.4000;0.0806;-1.0091;
-89.1000;0.0781;-1.0136;
-88.8000;0.0757;-1.0294;
-88.5000;0.0765;-1.0362;
-88.2000;0.0781;-1.0408;
-87.9000;0.0806;-1.0362;
-87.6000;0.0781;-1.0385;
-87.3000;0.0798;-1.0317;
-87.0000;0.0773;-1.0408;
-86.7000;0.0749;-1.0498;
-86.4000;0.0781;-1.0453;
-86.1000;0.0765;-1.0611;
-85.8000;0.0757;-1.0589;
-85.5000;0.0765;-1.0521;
-85.2000;0.0798;-1.0362;
-84.9000;0.0806;-1.0430;
-84.6000;0.0765;-1.0521;
-84.3000;0.0733;-1.0543;
-84.0000;0.0765;-1.0498;
-83.7000;0.0814;-1.0453;
-83.4000;0.0863;-1.0340;
-83.1000;0.0781;-1.0475;
-82.8000;0.0757;-1.0430;
-82.5000;0.0830;-1.0430;
-82.2000;0.0773;-1.0566;
-81.9000;0.0773;-1.0543;
-81.6000;0.0676;-1.0724;
-81.3000;0.0692;-1.0724;
-81.0000;0.0765;-1.0498;
-80.7000;0.0757;-1.0566;
-80.4000;0.0790;-1.0453;
-80.1000;0.0741;-1.0543;
-79.8000;0.0757;-1.0475;
-79.5000;0.0773;-1.0430;
-79.2000;0.0749;-1.0543;
-78.9000;0.0757;-1.0498;
-78.6000;0.0773;-1.0430;
-78.3000;0.0822;-1.0227;
-78.0000;0.0765;-1.0475;
-77.7000;0.0863;-1.0227;
-77.4000;0.0781;-1.0340;
-77.1000;0.0855;-1.0068;
-76.8000;0.0781;-1.0294;
-76.5000;0.0798;-1.0204;
-76.2000;0.0716;-1.0430;
-75.9000;0.0790;-1.0272;
-75.6000;0.0708;-1.0566;
-75.3000;0.0790;-1.0362;
-75.0000;0.0781;-1.0408;
-74.7000;0.0790;-1.0453;
-74.4000;0.0765;-1.0543;
-74.1000;0.0757;-1.0521;
-73.8000;0.0765;-1.0453;
-73.5000;0.0790;-1.0385;
-73.2000;0.0692;-1.0747;
-72.9000;0.0741;-1.0611;
-72.6000;0.0773;-1.0498;
-72.3000;0.0798;-1.0453;
-72.0000;0.0716;-1.0656;
-71.7000;0.0757;-1.0498;
-71.4000;0.0790;-1.0475;
-71.1000;0.0765;-1.0475;
-70.8000;0.0773;-1.0498;
-70.5000;0.0790;-1.0430;
-70.2000;0.0765;-1.0475;
-69.9000;0.0765;-1.0453;
-69.6000;0.0781;-1.0408;
-69.3000;0.0749;-1.0543;
-69.0000;0.0773;-1.0430;
-68.7000;0.0765;-1.0430;
-68.4000;0.0765;-1.0430;
-68.1000;0.0733;-1.0498;
-67.8000;0.0733;-1.0521;
-67.5000;0.0765;-1.0453;
-67.2000;0.0781;-1.0362;
-66.9000;0.0781;-1.0317;
-66.6000;0.0781;-1.0249;
-66.3000;0.0798;-1.0249;
-66.0000;0.0781;-1.0249;
-65.7000;0.0741;-1.0317;
-65.4000;0.0765;-1.0294;
-65.1000;0.0781;-1.0272;
-64.8000;0.0790;-1.0227;
-64.5000;0.0781;-1.0294;
-64.2000;0.0741;-1.0498;
-63.9000;0.0871;-1.0317;
-63.6000;0.0790;-1.0543;
-63.3000;0.0781;-1.0589;
-63.0000;0.0757;-1.0656;
-62.7000;0.0757;-1.0679;
-62.4000;0.0765;-1.0656;
-62.1000;0.0749;-1.0634;
-61.8000;0.0781;-1.0521;
-61.5000;0.0773;-1.0566;
-61.2000;0.0749;-1.0566;
-60.9000;0.0643;-1.0792;
-60.6000;0.0781;-1.0453;
-60.3000;0.0822;-1.0362;
-60.0000;0.0790;-1.0475;
-59.7000;0.0798;-1.0498;
-59.4000;0.0765;-1.0634;
-59.1000;0.0781;-1.0543;
-58.8000;0.0790;-1.0475;
-58.5000;0.0773;-1.0521;
-58.2000;0.0781;-1.0430;
-57.9000;0.0765;-1.0498;
-57.6000;0.0765;-1.0453;
-57.3000;0.0781;-1.0453;
-57.0000;0.0757;-1.0589;
-56.7000;0.0773;-1.0475;
-56.4000;0.0773;-1.0475;
-56.1000;0.0790;-1.0385;
-55.8000;0.0781;-1.0317;
-55.5000;0.0781;-1.0362;
-55.2000;0.0790;-1.0294;
-54.9000;0.0773;-1.0362;
-54.6000;0.0822;-1.0294;
-54.3000;0.0708;-1.0521;
-54.0000;0.0773;-1.0453;
-53.7000;0.0757;-1.0430;
-53.4000;0.0773;-1.0385;
-53.1000;0.0708;-1.0521;
-52.8000;0.0765;-1.0408;
-52.5000;0.0781;-1.0362;
-52.2000;0.0749;-1.0521;
-51.9000;0.0773;-1.0453;
-51.6000;0.0741;-1.0634;
-51.3000;0.0765;-1.0589;
-51.0000;0.0765;-1.0475;
-50.7000;0.0765;-1.0362;
-50.4000;0.0692;-1.0566;
-50.1000;0.0773;-1.0385;
-49.8000;0.0773;-1.0317;
-49.5000;0.0781;-1.0272;
-49.2000;0.0773;-1.0272;
-48.9000;0.0773;-1.0340;
-48.6000;0.0757;-1.0430;
-48.3000;0.0757;-1.0430;
-48.0000;0.0749;-1.0475;
-47.7000;0.0790;-1.0430;
-47.4000;0.0692;-1.0702;
-47.1000;0.0781;-1.0453;
-46.8000;0.0798;-1.0408;
-46.5000;0.0773;-1.0475;
-46.2000;0.0757;-1.0521;
-45.9000;0.0765;-1.0543;
-45.6000;0.0741;-1.0589;
-45.3000;0.0765;-1.0566;
-45.0000;0.0757;-1.0634;
-44.7000;0.0749;-1.0566;
-44.4000;0.0757;-1.0543;
-44.1000;0.0790;-1.0543;
-43.8000;0.0781;-1.0453;
-43.5000;0.0741;-1.0656;
-43.2000;0.0757;-1.0589;
-42.9000;0.0676;-1.0792;
-42.6000;0.0773;-1.0385;
-42.3000;0.0757;-1.0385;
-42.0000;0.0830;-1.0181;
-41.7000;0.0790;-1.0227;
-41.4000;0.0790;-1.0362;
-41.1000;0.0765;-1.0430;
-40.8000;0.0781;-1.0385;
-40.5000;0.0773;-1.0362;
-40.2000;0.0741;-1.0521;
-39.9000;0.0741;-1.0430;
-39.6000;0.0790;-1.0362;
-39.3000;0.0749;-1.0362;
-39.0000;0.0838;-1.0159;
-38.7000;0.0765;-1.0408;
-38.4000;0.0749;-1.0453;
-38.1000;0.0773;-1.0521;
-37.8000;0.0814;-1.0453;
-37.5000;0.0781;-1.0498;
-37.2000;0.0749;-1.0543;
-36.9000;0.0814;-1.0453;
-36.6000;0.0773;-1.0430;
-36.3000;0.0765;-1.0453;
-36.0000;0.0798;-1.0475;
-35.7000;0.0773;-1.0543;
-35.4000;0.0806;-1.0362;
-35.1000;0.0757;-1.0430;
-34.8000;0.0790;-1.0340;
-34.5000;0.0773;-1.0453;
-34.2000;0.0781;-1.0385;
-33.9000;0.0781;-1.0453;
-33.6000;0.0700;-1.0589;
-33.3000;0.0822;-1.0362;
-33.0000;0.0757;-1.0498;
-32.7000;0.0765;-1.0498;
-32.4000;0.0757;-1.0521;
-32.1000;0.0814;-1.0430;
-31.8000;0.0659;-1.0837;
-31.5000;0.0773;-1.0521;
-31.2000;0.0757;-1.0589;
-30.9000;0.0847;-1.0408;
-30.6000;0.0790;-1.0566;
-30.3000;0.0798;-1.0475;
-30.0000;0.0781;-1.0498;
-29.7000;0.0724;-1.0611;
-29.4000;0.0773;-1.0430;
-29.1000;0.0781;-1.0453;
-28.8000;0.0806;-1.0475;
-28.5000;0.0781;-1.0475;
-28.2000;0.0790;-1.0475;
-27.9000;0.0781;-1.0498;
-27.6000;0.0798;-1.0566;
-27.3000;0.0765;-1.0679;
-27.0000;0.0757;-1.0724;
-26.7000;0.0773;-1.0656;
-26.4000;0.0773;-1.0611;
-26.1000;0.0781;-1.0566;
-25.8000;0.0757;-1.0679;
-25.5000;0.0773;-1.0634;
-25.2000;0.0757;-1.0543;
-24.9000;0.0781;-1.0408;
-24.6000;0.0757;-1.0521;
-24.3000;0.0798;-1.0453;
-24.0000;0.0781;-1.0498;
-23.7000;0.0749;-1.0702;
-23.4000;0.0733;-1.0883;
-23.1000;0.0757;-1.0860;
-22.8000;0.0806;-1.0792;
-22.5000;0.0757;-1.0996;
-22.2000;0.0765;-1.0928;
-21.9000;0.0765;-1.0951;
-21.6000;0.0781;-1.0815;
-21.3000;0.0781;-1.0860;
-21.0000;0.0798;-1.0770;
-20.7000;0.0798;-1.0702;
-20.4000;0.0790;-1.0656;
-20.1000;0.0773;-1.0656;
-19.8000;0.0830;-1.0475;
-19.5000;0.0749;-1.0724;
-19.2000;0.0781;-1.0634;
-18.9000;0.0814;-1.0611;
-18.6000;0.0781;-1.0611;
-18.3000;0.0773;-1.0679;
-18.0000;0.0773;-1.0747;
-17.7000;0.0790;-1.0702;
-17.4000;0.0765;-1.0679;
-17.1000;0.0806;-1.0634;
-16.8000;0.0822;-1.0589;
-16.5000;0.0822;-1.0475;
-16.2000;0.0798;-1.0589;
-15.9000;0.0790;-1.0634;
-15.6000;0.0781;-1.0589;
-15.3000;0.0822;-1.0453;
-15.0000;0.0781;-1.0475;
-14.7000;0.0798;-1.0475;
-14.4000;0.0798;-1.0611;
-14.1000;0.0781;-1.0656;
-13.8000;0.0757;-1.0724;
-13.5000;0.0643;-1.0996;
-13.2000;0.0765;-1.0724;
-12.9000;0.0814;-1.0611;
-12.6000;0.0871;-1.0362;
-12.3000;0.0798;-1.0453;
-12.0000;0.0790;-1.0498;
-11.7000;0.0781;-1.0521;
-11.4000;0.0822;-1.0408;
-11.1000;0.0765;-1.0498;
-10.8000;0.0692;-1.0634;
-10.5000;0.0773;-1.0453;
-10.2000;0.0773;-1.0430;
-9.9000;0.0781;-1.0521;
-9.6000;0.0790;-1.0566;
-9.3000;0.0757;-1.0679;
-9.0000;0.0765;-1.0634;
-8.7000;0.0781;-1.0475;
-8.4000;0.0773;-1.0498;
-8.1000;0.0765;-1.0543;
-7.8000;0.0790;-1.0498;
-7.5000;0.0765;-1.0543;
-7.2000;0.0798;-1.0453;
-6.9000;0.0822;-1.0408;
-6.6000;0.0822;-1.0408;
-6.3000;0.0781;-1.0475;
-6.0000;0.0806;-1.0385;
-5.7000;0.0765;-1.0408;
-5.4000;0.0765;-1.0430;
-5.1000;0.0790;-1.0408;
-4.8000;0.0765;-1.0453;
-4.5000;0.0790;-1.0362;
-4.2000;0.0806;-1.0385;
-3.9000;0.0757;-1.0475;
-3.6000;0.0781;-1.0385;
-3.3000;0.0798;-1.0272;
-3.0000;0.0773;-1.0408;
-2.7000;0.0781;-1.0408;
-2.4000;0.0798;-1.0521;
-2.1000;0.0822;-1.0521;
-1.8000;0.0781;-1.0566;
-1.5000;0.0757;-1.0566;
-1.2000;0.0863;-1.0317;
-0.9000;0.0741;-1.0679;
-0.6000;0.0773;-1.0679;
-0.3000;0.0781;-1.0656;
0.0000;0.0781;-1.0656;
0.3000;0.0781;-1.0770;
0.6000;0.0790;-1.0634;
0.9000;0.0806;-1.0408;
1.2000;0.0806;-1.0362;
1.5000;0.0871;-1.0136;
1.8000;0.0871;-1.0136;
2.1000;0.0912;-0.9955;
2.4000;0.0871;-0.9978;
2.7000;0.0847;-0.9978;
3.0000;0.0863;-0.9932;
3.3000;0.0944;-0.9638;
3.6000;0.0879;-0.9774;
3.9000;0.0895;-0.9593;
4.2000;0.0871;-0.9638;
4.5000;0.0879;-0.9661;
4.8000;0.0912;-0.9570;
5.1000;0.0928;-0.9503;
5.4000;0.0912;-0.9548;
5.7000;0.0895;-0.9548;
6.0000;0.0912;-0.9548;
6.3000;0.0928;-0.9435;
6.6000;0.0920;-0.9435;
6.9000;0.0904;-0.9525;
7.2000;0.0895;-0.9435;
7.5000;0.0928;-0.9276;
7.8000;0.0912;-0.9344;
8.1000;0.0912;-0.9389;
8.4000;0.0904;-0.9412;
8.7000;0.0847;-0.9593;
9.0000;0.0936;-0.9412;
9.3000;0.0904;-0.9525;
9.6000;0.0895;-0.9548;
9.9000;0.0936;-0.9435;
10.2000;0.0920;-0.9525;
10.5000;0.0912;-0.9593;
10.8000;0.0863;-0.9729;
11.1000;0.0912;-0.9638;
11.4000;0.0912;-0.9593;
11.7000;0.0895;-0.9525;
12.0000;0.0904;-0.9570;
12.3000;0.0904;-0.9616;
12.6000;0.0879;-0.9616;
12.9000;0.0920;-0.9525;
13.2000;0.0920;-0.9548;
13.5000;0.0887;-0.9503;
13.8000;0.0904;-0.9525;
14.1000;0.0936;-0.9457;
14.4000;0.0887;-0.9616;
14.7000;0.0928;-0.9616;
15.0000;0.0936;-0.9593;
15.3000;0.0928;-0.9661;
15.6000;0.0895;-0.9661;
15.9000;0.0977;-0.9525;
16.2000;0.0871;-0.9751;
16.5000;0.0920;-0.9593;
16.8000;0.0920;-0.9638;
17.1000;0.0993;-0.9344;
17.4000;0.0944;-0.9480;
17.7000;0.0904;-0.9480;
18.0000;0.0912;-0.9570;
18.3000;0.0936;-0.9570;
18.6000;0.0920;-0.9684;
18.9000;0.0895;-0.9706;
19.2000;0.0879;-0.9751;
19.5000;0.0895;-0.9638;
19.8000;0.0871;-0.9729;
20.1000;0.0936;-0.9616;
20.4000;0.0928;-0.9638;
20.7000;0.0920;-0.9638;
21.0000;0.0912;-0.9593;
21.3000;0.0912;-0.9684;
21.6000;0.0863;-0.9819;
21.9000;0.0977;-0.9457;
22.2000;0.0904;-0.9729;
22.5000;0.0822;-0.9887;
22.8000;0.0895;-0.9729;
23.1000;0.0944;-0.9729;
23.4000;0.0912;-0.9910;
23.7000;0.0912;-0.9774;
24.0000;0.0863;-0.9842;
24.3000;0.0912;-0.9661;
24.6000;0.0912;-0.9616;
24.9000;0.0912;-0.9616;
25.2000;0.0904;-0.9684;
25.5000;0.0879;-0.9842;
25.8000;0.0879;-0.9865;
26.1000;0.0969;-0.9661;
26.4000;0.0912;-0.9842;
26.7000;0.0928;-0.9932;
27.0000;0.0936;-0.9865;
27.3000;0.0895;-0.9887;
27.6000;0.0920;-0.9865;
27.9000;0.0904;-0.9865;
28.2000;0.0985;-0.9706;
28.5000;0.0887;-0.9887;
28.8000;0.0928;-0.9865;
29.1000;0.0920;-0.9955;
29.4000;0.0928;-0.9932;
29.7000;0.0912;-0.9910;
30.0000;0.0928;-0.9819;
30.3000;0.0904;-0.9865;
30.6000;0.0952;-0.9865;
30.9000;0.0936;-0.9955;
31.2000;0.0904;-1.0023;
31.5000;0.0961;-0.9819;
31.8000;0.0985;-0.9729;
32.1000;0.0895;-0.9932;
32.4000;0.0920;-0.9887;
32.7000;0.0912;-0.9910;
33.0000;0.0904;-0.9842;
33.3000;0.0887;-0.9819;
33.6000;0.0952;-0.9706;
33.9000;0.0904;-0.9887;
34.2000;0.0920;-0.9910;
34.5000;0.0895;-0.9932;
34.8000;0.0961;-0.9706;
35.1000;0.0912;-0.9842;
35.4000;0.0887;-0.9955;
35.7000;0.0863;-0.9955;
36.0000;0.0944;-0.9751;
36.3000;0.0944;-0.9797;
36.6000;0.0936;-0.9819;
36.9000;0.0847;-0.9865;
37.2000;0.0969;-0.9616;
37.5000;0.0912;-0.9819;
37.8000;0.0936;-0.9593;
38.1000;0.0936;-0.9593;
38.4000;0.0952;-0.9503;
38.7000;0.0798;-0.9887;
39.0000;0.0879;-0.9684;
39.3000;0.0928;-0.9548;
39.6000;0.0936;-0.9548;
39.9000;0.0944;-0.9570;
40.2000;0.0944;-0.9570;
40.5000;0.0920;-0.9661;
40.8000;0.0944;-0.9593;
41.1000;0.0912;-0.9706;
41.4000;0.0920;-0.9706;
41.7000;0.0895;-0.9819;
42.0000;0.0961;-0.9638;
42.3000;0.0977;-0.9593;
42.6000;0.0952;-0.9774;
42.9000;0.0936;-0.9865;
43.2000;0.0952;-0.9887;
43.5000;0.0920;-1.0023;
43.8000;0.0920;-1.0068;
44.1000;0.0952;-1.0023;
44.4000;0.0936;-1.0046;
44.7000;0.0952;-0.9819;
45.0000;0.0936;-0.9865;
45.3000;0.0936;-0.9842;
45.6000;0.0969;-0.9842;
45.9000;0.0904;-1.0046;
46.2000;0.0928;-1.0000;
46.5000;0.0920;-0.9932;
46.8000;0.0895;-1.0000;
47.1000;0.0936;-0.9819;
47.4000;0.0920;-0.9797;
47.7000;0.0920;-0.9729;
48.0000;0.0895;-0.9887;
48.3000;0.0936;-0.9842;
48.6000;0.0863;-1.0068;
48.9000;0.0920;-0.9865;
49.2000;0.0904;-0.9887;
49.5000;0.0936;-0.9887;
49.8000;0.0952;-0.9842;
50.1000;0.0969;-0.9706;
50.4000;0.0920;-0.9797;
50.7000;0.0904;-0.9978;
51.0000;0.0936;-0.9932;
51.3000;0.0895;-1.0000;
51.6000;0.0928;-0.9932;
51.9000;0.0936;-0.9865;
52.2000;0.0928;-0.9797;
52.5000;0.0936;-0.9774;
52.8000;0.0936;-0.9774;
53.1000;0.0928;-0.9797;
53.4000;0.0961;-0.9774;
53.7000;0.0944;-0.9774;
54.0000;0.0912;-0.9842;
54.3000;0.0952;-0.9797;
54.6000;0.0944;-0.9819;
54.9000;0.0920;-0.9865;
55.2000;0.0936;-0.9774;
55.5000;0.0952;-0.9729;
55.8000;0.0920;-0.9842;
56.1000;0.0944;-0.9842;
56.4000;0.0928;-0.9865;
56.7000;0.0855;-1.0091;
57.0000;0.0928;-0.9932;
57.3000;0.0928;-0.9887;
57.6000;0.0961;-0.9797;
57.9000;0.0912;-0.9932;
58.2000;0.0822;-1.0204;
58.5000;0.0936;-0.9955;
58.8000;0.0871;-1.0023;
59.1000;0.0912;-0.9910;
59.4000;0.0936;-0.9955;
59.7000;0.0928;-0.9910;
60.0000;0.0904;-1.0023;
60.3000;0.0920;-1.0068;
60.6000;0.0920;-1.0068;
60.9000;0.0936;-1.0000;
61.2000;0.0928;-1.0068;
61.5000;0.0944;-1.0068;
61.8000;0.0912;-1.0046;
62.1000;0.1001;-0.9842;
62.4000;0.0928;-0.9910;
62.7000;0.0944;-0.9842;
63.0000;0.0928;-0.9932;
63.3000;0.0936;-0.9910;
63.6000;0.0936;-0.9842;
63.9000;0.0944;-0.9797;
64.2000;0.0928;-0.9774;
64.5000;0.0936;-0.9842;
64.8000;0.0920;-0.9865;
65.1000;0.0961;-0.9684;
65.4000;0.0961;-0.9729;
65.7000;0.0920;-0.9932;
66.0000;0.0952;-0.9932;
66.3000;0.0944;-1.0091;
66.6000;0.0912;-1.0249;
66.9000;0.0928;-1.0227;
67.2000;0.0936;-1.0159;
67.5000;0.0871;-1.0204;
67.8000;0.0936;-0.9910;
68.1000;0.0944;-0.9978;
68.4000;0.0944;-0.9932;
68.7000;0.0936;-1.0046;
69.0000;0.0920;-1.0113;
69.3000;0.0944;-1.0023;
69.6000;0.0936;-0.9978;
69.9000;0.0977;-0.9865;
70.2000;0.0944;-0.9910;
70.5000;0.0895;-0.9910;
70.8000;0.0936;-0.9797;
71.1000;0.0944;-0.9774;
71.4000;0.0961;-0.9706;
71.7000;0.0920;-0.9774;
72.0000;0.0912;-0.9842;
72.3000;0.0936;-0.9910;
72.6000;0.0920;-0.9910;
72.9000;0.0936;-0.9865;
73.2000;0.0944;-0.9932;
73.5000;0.0936;-0.9910;
73.8000;0.0904;-1.0000;
74.1000;0.0944;-0.9955;
74.4000;0.0936;-1.0046;
74.7000;0.0928;-1.0068;
75.0000;0.0928;-1.0000;
75.3000;0.0920;-0.9978;
75.6000;0.0912;-1.0000;
75.9000;0.0936;-0.9955;
76.2000;0.0952;-0.9932;
76.5000;0.0928;-0.9932;
76.8000;0.0928;-0.9910;
77.1000;0.0887;-1.0023;
77.4000;0.0928;-0.9955;
77.7000;0.0952;-0.9932;
78.0000;0.0936;-0.9978;
78.3000;0.0920;-0.9955;
78.6000;0.0961;-0.9865;
78.9000;0.0944;-0.9910;
79.2000;0.0920;-1.0000;
79.5000;0.0936;-0.9932;
79.8000;0.0952;-0.9932;
80.1000;0.0904;-1.0046;
80.4000;0.0920;-1.0023;
80.7000;0.0952;-0.9819;
81.0000;0.0928;-0.9865;
81.3000;0.0936;-0.9797;
81.6000;0.0936;-0.9729;
81.9000;0.0944;-0.9751;
82.2000;0.0904;-0.9797;
82.5000;0.0944;-0.9774;
82.8000;0.0936;-0.9819;
83.1000;0.0969;-0.9842;
83.4000;0.0928;-1.0068;
83.7000;0.0952;-0.9955;
84.0000;0.0952;-0.9932;
84.3000;0.0936;-0.9955;
84.6000;0.0936;-0.9978;
84.9000;0.0944;-0.9932;
85.2000;0.0944;-0.9910;
85.5000;0.0928;-0.9887;
85.8000;0.1018;-0.9593;
86.1000;0.0936;-0.9797;
86.4000;0.0912;-0.9819;
86.7000;0.0920;-0.9797;
87.0000;0.0952;-0.9684;
87.3000;0.0928;-0.9751;
87.6000;0.0928;-0.9774;
87.9000;0.0928;-0.9932;
88.2000;0.0936;-0.9932;
88.5000;0.0912;-0.9955;
88.8000;0.0936;-0.9910;
89.1000;0.0961;-0.9797;
89.4000;0.0936;-0.9887;
89.7000;0.0928;-0.9955;
90.0000;0.0912;-0.9932;
90.3000;0.0944;-0.9751;
90.6000;0.0912;-0.9842;
90.9000;0.0952;-0.9751;
91.2000;0.0936;-0.9729;
91.5000;0.1026;-0.9435;
91.8000;0.0944;-0.9570;
92.1000;0.0920;-0.9684;
92.4000;0.0895;-0.9684;
92.7000;0.0961;-0.9638;
93.0000;0.0936;-0.9661;
93.3000;0.0944;-0.9729;
93.6000;0.0969;-0.9638;
93.9000;0.0904;-0.9865;
94.2000;0.0952;-0.9774;
94.5000;0.0928;-0.9819;
94.8000;0.0920;-0.9842;
95.1000;0.0936;-0.9797;
95.4000;0.0920;-0.9887;
95.7000;0.0920;-0.9865;
96.0000;0.0985;-0.9616;
96.3000;0.0928;-0.9819;
96.6000;0.0944;-0.9729;
96.9000;0.0944;-0.9684;
97.2000;0.0936;-0.9638;
97.5000;0.0928;-0.9729;
97.8000;0.0920;-0.9774;
98.1000;0.0944;-0.9774;
98.4000;0.0920;-0.9819;
98.7000;0.0952;-0.9729;
99.0000;0.0936;-0.9797;
99.3000;0.0944;-0.9774;
99.6000;0.0936;-0.9706;
99.9000;0.0936;-0.9706;
100.2000;0.0936;-0.9684;
100.5000;0.0936;-0.9751;
100.8000;0.0969;-0.9751;
101.1000;0.0936;-0.9819;
101.4000;0.0936;-0.9865;
101.7000;0.0920;-0.9910;
102.0000;0.0936;-0.9819;
102.3000;0.1066;-0.9503;
102.6000;0.0944;-0.9819;
102.9000;0.0928;-0.9910;
103.2000;0.0936;-0.9910;
103.5000;0.0944;-0.9910;
103.8000;0.1009;-0.9751;
104.1000;0.0928;-1.0000;
104.4000;0.0944;-0.9932;
104.7000;0.0928;-0.9910;
105.0000;0.0944;-0.9932;
105.3000;0.0944;-0.9955;
105.6000;0.0944;-0.9932;
105.9000;0.0936;-1.0000;
106.2000;0.0944;-0.9955;
106.5000;0.0952;-0.9955;
106.8000;0.0952;-0.9932;
107.1000;0.0977;-0.9932;
107.4000;0.0952;-1.0046;
107.7000;0.0969;-1.0000;
108.0000;0.0944;-1.0068;
108.3000;0.0944;-1.0091;
108.6000;0.0944;-1.0113;
108.9000;0.0936;-1.0091;
109.2000;0.0863;-1.0272;
109.5000;0.0944;-1.0159;
109.8000;0.0928;-1.0181;
110.1000;0.0904;-1.0272;
110.4000;0.0952;-1.0227;
110.7000;0.0928;-1.0340;
111.0000;0.0936;-1.0317;
111.3000;0.0928;-1.0294;
111.6000;0.0944;-1.0204;
111.9000;0.0944;-1.0181;
112.2000;0.0944;-1.0091;
112.5000;0.0936;-1.0113;
112.8000;0.0928;-1.0136;
113.1000;0.0920;-1.0204;
113.4000;0.0944;-1.0113;
113.7000;0.0895;-1.0227;
114.0000;0.0944;-1.0068;
114.3000;0.0936;-1.0000;
114.6000;0.0952;-0.9932;
114.9000;0.0936;-1.0000;
115.2000;0.0920;-0.9932;
115.5000;0.1050;-0.9661;
115.8000;0.0936;-0.9887;
116.1000;0.0969;-0.9887;
116.4000;0.0928;-1.0091;
116.7000;0.0936;-1.0046;
117.0000;0.0952;-1.0023;
117.3000;0.0952;-1.0000;
117.6000;0.0887;-1.0136;
117.9000;0.0961;-0.9932;
118.2000;0.0969;-0.9955;
118.5000;0.0952;-1.0000;
118.8000;0.0936;-1.0023;
119.1000;0.0920;-1.0068;
119.4000;0.0952;-1.0068;
119.7000;0.0977;-0.9955;
120.0000;0.0904;-1.0136;
120.3000;0.0879;-1.0227;
120.6000;0.0928;-1.0227;
120.9000;0.0952;-1.0249;
121.2000;0.0993;-1.0091;
121.5000;0.0944;-1.0159;
121.8000;0.0952;-1.0159;
122.1000;0.0944;-1.0136;
122.4000;0.0928;-1.0136;
122.7000;0.0952;-1.0046;
123.0000;0.0961;-1.0046;
123.3000;0.0944;-1.0091;
123.6000;0.1001;-1.0046;
123.9000;0.1026;-0.9887;
124.2000;0.0952;-1.0091;
124.5000;0.0952;-1.0068;
124.8000;0.1009;-0.9932;
125.1000;0.0920;-1.0159;
125.4000;0.0928;-1.0227;
125.7000;0.0985;-1.0159;
126.0000;0.0952;-1.0136;
126.3000;0.0944;-1.0136;
126.6000;0.0912;-1.0136;
126.9000;0.0952;-1.0023;
127.2000;0.0936;-1.0068;
127.5000;0.0936;-1.0159;
127.8000;0.0993;-0.9955;
128.1000;0.0952;-1.0000;
128.4000;0.0904;-1.0046;
128.7000;0.0952;-0.9932;
129.0000;0.0969;-0.9978;
129.3000;0.0912;-1.0000;
129.6000;0.1083;-0.9638;
129.9000;0.0936;-0.9932;
130.2000;0.0904;-1.0023;
130.5000;0.0936;-1.0000;
130.8000;0.1001;-0.9819;
131.1000;0.0961;-1.0000;
131.4000;0.0977;-0.9887;
131.7000;0.0920;-0.9932;
132.0000;0.0944;-0.9955;
132.3000;0.0887;-1.0091;
132.6000;0.0944;-0.9955;
132.9000;0.0920;-0.9932;
133.2000;0.0904;-0.9955;
133.5000;0.0936;-0.9910;
133.8000;0.0936;-0.9797;
134.1000;0.0961;-0.9819;
134.4000;0.0944;-0.9865;
134.7000;0.0977;-0.9684;
135.0000;0.0961;-0.9751;
135.3000;0.0952;-0.9819;
135.6000;0.0944;-0.9887;
135.9000;0.0944;-0.9910;
136.2000;0.0936;-0.9887;
136.5000;0.0936;-0.9932;
136.8000;0.0912;-0.9978;
137.1000;0.0944;-0.9932;
137.4000;0.0961;-0.9910;
137.7000;0.1099;-0.9570;
138.0000;0.0928;-1.0023;
138.3000;0.0985;-0.9910;
138.6000;0.0920;-1.0113;
138.9000;0.0969;-1.0023;
139.2000;0.0961;-1.0000;
139.5000;0.1018;-0.9887;
139.8000;0.0969;-0.9978;
140.1000;0.0936;-1.0023;
140.4000;0.0961;-1.0046;
140.7000;0.0887;-1.0204;
141.0000;0.1009;-0.9932;
141.3000;0.0928;-1.0181;
141.6000;0.0944;-1.0159;
141.9000;0.1083;-0.9819;
142.2000;0.0952;-1.0159;
142.5000;0.0944;-1.0204;
142.8000;0.0936;-1.0227;
143.1000;0.0944;-1.0227;
143.4000;0.0928;-1.0227;
143.7000;0.0928;-1.0159;
144.0000;0.0944;-1.0113;
144.3000;0.0920;-1.0113;
144.6000;0.0961;-0.9978;
144.9000;0.0952;-1.0000;
145.2000;0.0977;-0.9955;
145.5000;0.1009;-0.9932;
145.8000;0.0936;-1.0046;
146.1000;0.0952;-0.9955;
146.4000;0.0961;-0.9955;
146.7000;0.0928;-1.0000;
147.0000;0.0944;-1.0000;
147.3000;0.0977;-0.9865;
147.6000;0.0952;-0.9978;
147.9000;0.0961;-1.0046;
148.2000;0.0961;-1.0091;
148.5000;0.0952;-1.0046;
148.8000;0.0944;-1.0091;
149.1000;0.0944;-1.0204;
149.4000;0.0961;-1.0227;
149.7000;0.0977;-1.0181;
150.0000;0.0977;-1.0091;
150.3000;0.0985;-0.9955;
150.6000;0.0952;-0.9955;
150.9000;0.0944;-0.9955;
151.2000;0.0944;-1.0000;
151.5000;0.0944;-1.0091;
151.8000;0.0936;-1.0181;
152.1000;0.0936;-1.0204;
152.4000;0.0912;-1.0204;
152.7000;0.0887;-1.0272;
153.0000;0.0944;-1.0159;
153.3000;0.0895;-1.0317;
153.6000;0.0969;-1.0068;
153.9000;0.0887;-1.0340;
154.2000;0.0895;-1.0340;
154.5000;0.0936;-1.0204;
154.8000;0.1050;-0.9865;
155.1000;0.0863;-1.0408;
155.4000;0.0838;-1.0430;
155.7000;0.0895;-1.0340;
156.0000;0.0895;-1.0340;
156.3000;0.0961;-1.0136;
156.6000;0.0928;-1.0159;
156.9000;0.0879;-1.0362;
157.2000;0.0928;-1.0227;
157.5000;0.0952;-1.0136;
157.8000;0.0961;-1.0068;
158.1000;0.0961;-1.0113;
158.4000;0.0969;-1.0091;
158.7000;0.0944;-1.0068;
159.0000;0.0944;-1.0023;
159.3000;0.0977;-0.9978;
159.6000;0.0944;-1.0068;
159.9000;0.0928;-1.0068;
160.2000;0.0961;-0.9955;
160.5000;0.0969;-0.9932;
160.8000;0.0920;-1.0113;
161.1000;0.0944;-1.0023;
161.4000;0.0944;-1.0159;
161.7000;0.0952;-1.0159;
162.0000;0.0912;-1.0249;
162.3000;0.0944;-1.0113;
162.6000;0.0952;-1.0204;
162.9000;0.0904;-1.0362;
163.2000;0.0936;-1.0340;
163.5000;0.0961;-1.0272;
163.8000;0.0912;-1.0362;
164.1000;0.0969;-1.0272;
164.4000;0.0952;-1.0294;
164.7000;0.1026;-1.0159;
165.0000;0.0977;-1.0340;
165.3000;0.0952;-1.0408;
165.6000;0.0961;-1.0385;
165.9000;0.0952;-1.0408;
166.2000;0.0961;-1.0294;
166.5000;0.0961;-1.0136;
166.8000;0.0969;-1.0068;
167.1000;0.0969;-1.0023;
167.4000;0.0944;-1.0113;
167.7000;0.0969;-1.0159;
168.0000;0.0952;-1.0227;
168.3000;0.1123;-0.9797;
168.6000;0.0944;-1.0317;
168.9000;0.0944;-1.0340;
169.2000;0.0985;-1.0272;
169.5000;0.0985;-1.0272;
169.8000;0.0944;-1.0385;
170.1000;0.0952;-1.0408;
170.4000;0.0912;-1.0475;
170.7000;0.0969;-1.0249;
171.0000;0.0985;-1.0181;
171.3000;0.0936;-1.0249;
171.6000;0.0977;-1.0204;
171.9000;0.0944;-1.0294;
172.2000;0.0936;-1.0204;
172.5000;0.0961;-1.0136;
172.8000;0.0936;-1.0159;
173.1000;0.0928;-1.0181;
173.4000;0.0944;-1.0136;
173.7000;0.0944;-1.0113;
174.0000;0.0952;-1.0181;
174.3000;0.0961;-1.0068;
174.6000;0.0838;-1.0272;
174.9000;0.0920;-1.0181;
175.2000;0.0928;-1.0091;
175.5000;0.0969;-1.0068;
175.8000;0.0944;-1.0113;
176.1000;0.0969;-1.0046;
176.4000;0.1009;-1.0023;
176.7000;0.0961;-1.0091;
177.0000;0.0985;-0.9978;
177.3000;0.0944;-1.0068;
177.6000;0.0944;-1.0000;
177.9000;0.0952;-0.9887;
178.2000;0.1009;-0.9774;
178.5000;0.0961;-1.0023;
178.8000;0.0944;-1.0068;
179.1000;0.0952;-0.9955;
179.4000;0.0952;-0.9910;
179.7000;0.0969;-0.9932;
180.0000;0.0904;-1.0113;
180.3000;0.0977;-0.9865;
180.6000;0.0969;-0.9887;
180.9000;0.0952;-0.9865;
181.2000;0.0952;-0.9865;
181.5000;0.0961;-0.9955;
181.8000;0.0993;-0.9887;
182.1000;0.1042;-0.9842;
182.4000;0.0936;-1.0068;
182.7000;0.0977;-0.9955;
183.0000;0.0871;-1.0046;
183.3000;0.0977;-0.9819;
183.6000;0.0928;-0.9910;
183.9000;0.0944;-0.9887;
184.2000;0.0944;-0.9955;
184.5000;0.0952;-0.9910;
184.8000;0.0936;-0.9910;
185.1000;0.0928;-1.0046;
185.4000;0.0977;-0.9978;
185.7000;0.0944;-0.9978;
186.0000;0.0952;-0.9955;
186.3000;0.0944;-0.9978;
186.6000;0.0952;-1.0023;
186.9000;0.0985;-0.9932;
187.2000;0.0936;-1.0023;
187.5000;0.0993;-0.9865;
187.8000;0.0977;-0.9978;
188.1000;0.0928;-1.0068;
188.4000;0.0952;-1.0023;
188.7000;0.0879;-1.0113;
189.0000;0.0936;-1.0000;
189.3000;0.0969;-1.0000;
189.6000;0.0961;-1.0046;
189.9000;0.0944;-1.0068;
190.2000;0.0928;-1.0068;
190.5000;0.0920;-1.0136;
190.8000;0.0936;-1.0113;
191.1000;0.0863;-1.0317;
191.4000;0.0928;-1.0091;
191.7000;0.0961;-0.9955;
192.0000;0.0944;-0.9955;
192.3000;0.0863;-1.0181;
192.6000;0.0928;-0.9955;
192.9000;0.0985;-0.9865;
193.2000;0.0944;-1.0000;
193.5000;0.0952;-0.9978;
193.8000;0.0952;-0.9978;
194.1000;0.0871;-1.0249;
194.4000;0.0936;-1.0046;
194.7000;0.0928;-1.0113;
195.0000;0.0969;-1.0068;
195.3000;0.0912;-1.0159;
195.6000;0.0928;-1.0159;
195.9000;0.0952;-1.0091;
196.2000;0.0944;-1.0159;
196.5000;0.0952;-1.0113;
196.8000;0.0944;-1.0113;
197.1000;0.0977;-1.0000;
197.4000;0.0920;-1.0000;
197.7000;0.0863;-1.0272;
198.0000;0.0961;-1.0023;
198.3000;0.0936;-1.0046;
198.6000;0.0952;-1.0046;
198.9000;0.0952;-1.0068;
199.2000;0.0952;-1.0068;
199.5000;0.0961;-1.0023;
199.8000;0.1026;-0.9797;
200.1000;0.0912;-1.0046;
200.4000;0.0961;-0.9978;
200.7000;0.1009;-0.9865;
201.0000;0.0944;-0.9842;
201.3000;0.0961;-0.9774;
201.6000;0.0936;-0.9819;
201.9000;0.0936;-0.9797;
202.2000;0.0961;-0.9774;
202.5000;0.0961;-0.9729;
202.8000;0.1009;-0.9638;
203.1000;0.0944;-0.9887;
203.4000;0.0952;-0.9819;
203.7000;0.0952;-0.9797;
204.0000;0.0944;-0.9842;
204.3000;0.0928;-0.9887;
204.6000;0.0969;-0.9819;
204.9000;0.0952;-0.9797;
205.2000;0.0944;-0.9842;
205.5000;0.0961;-0.9910;
205.8000;0.0977;-1.0000;
206.1000;0.0895;-1.0272;
206.4000;0.0952;-1.0136;
206.7000;0.0944;-1.0136;
207.0000;0.0961;-1.0046;
207.3000;0.0944;-1.0046;
207.6000;0.0871;-1.0249;
207.9000;0.0961;-1.0023;
208.2000;0.0961;-1.0023;
208.5000;0.0961;-1.0000;
208.8000;0.0944;-1.0000;
209.1000;0.0920;-1.0046;
209.4000;0.0952;-1.0046;
209.7000;0.1001;-0.9819;
210.0000;0.0944;-1.0068;
210.3000;0.0952;-1.0068;
210.6000;0.0952;-1.0136;
210.9000;0.0985;-0.9955;
211.2000;0.0928;-1.0136;
211.5000;0.0961;-1.0136;
211.8000;0.0961;-1.0113;
212.1000;0.0936;-1.0181;
212.4000;0.0952;-1.0159;
212.7000;0.0863;-1.0385;
213.0000;0.0993;-1.0159;
213.3000;0.0936;-1.0249;
213.6000;0.0928;-1.0272;
213.9000;0.0952;-1.0272;
214.2000;0.0936;-1.0294;
214.5000;0.0952;-1.0249;
214.8000;0.0977;-1.0249;
215.1000;0.0928;-1.0249;
215.4000;0.0944;-1.0181;
215.7000;0.0969;-1.0068;
216.0000;0.0936;-1.0181;
216.3000;0.0879;-1.0294;
216.6000;0.0944;-1.0136;
216.9000;0.0944;-1.0136;
217.2000;0.0977;-1.0068;
217.5000;0.0920;-1.0181;
217.8000;0.0985;-1.0000;
218.1000;0.1042;-0.9842;
218.4000;0.0961;-1.0023;
218.7000;0.0961;-1.0046;
219.0000;0.0961;-1.0000;
219.3000;0.0952;-1.0023;
219.6000;0.0961;-0.9978;
219.9000;0.0952;-0.9978;
220.2000;0.0936;-1.0136;
220.5000;0.0969;-0.9978;
220.8000;0.0952;-1.0023;
221.1000;0.0944;-1.0046;
221.4000;0.0969;-1.0046;
221.7000;0.0936;-1.0091;
222.0000;0.0952;-1.0046;
222.3000;0.0920;-1.0091;
222.6000;0.0961;-1.0046;
222.9000;0.0928;-1.0046;
223.2000;0.0952;-1.0068;
223.5000;0.0961;-1.0000;
223.8000;0.0961;-1.0000;
224.1000;0.0977;-0.9955;
224.4000;0.0952;-1.0000;
224.7000;0.0920;-1.0046;
225.0000;0.0961;-1.0000;
225.3000;0.0904;-1.0113;
225.6000;0.0977;-0.9797;
225.9000;0.0944;-0.9865;
226.2000;0.1009;-0.9751;
226.5000;0.0936;-0.9842;
226.8000;0.0936;-0.9910;
227.1000;0.0912;-0.9932;
227.4000;0.0928;-0.9955;
227.7000;0.0952;-0.9865;
228.0000;0.0969;-0.9774;
228.3000;0.0961;-0.9887;
228.6000;0.0961;-0.9887;
228.9000;0.0936;-0.9932;
229.2000;0.0920;-0.9932;
229.5000;0.0920;-0.9978;
229.8000;0.0936;-0.9910;
230.1000;0.0928;-0.9955;
230.4000;0.0961;-0.9955;
230.7000;0.0977;-0.9932;
231.0000;0.0936;-1.0000;
231.3000;0.0936;-0.9932;
231.6000;0.0920;-0.9932;
231.9000;0.0969;-0.9932;
232.2000;0.0936;-1.0091;
232.5000;0.0993;-0.9955;
232.8000;0.0895;-1.0272;
233.1000;0.0961;-1.0294;
233.4000;0.0969;-1.0340;
233.7000;0.0961;-1.0385;
234.0000;0.0961;-1.0362;
234.3000;0.0936;-1.0453;
234.6000;0.1001;-1.0272;
234.9000;0.0952;-1.0385;
235.2000;0.0912;-1.0521;
235.5000;0.0961;-1.0385;
235.8000;0.0952;-1.0340;
236.1000;0.0936;-1.0340;
236.4000;0.0936;-1.0249;
236.7000;0.1018;-0.9978;
237.0000;0.0969;-1.0046;
237.3000;0.0977;-1.0046;
237.6000;0.0961;-1.0159;
237.9000;0.0985;-1.0227;
238.2000;0.0985;-1.0204;
238.5000;0.0969;-1.0272;
238.8000;0.0961;-1.0340;
239.1000;0.0871;-1.0543;
239.4000;0.0969;-1.0385;
239.7000;0.0936;-1.0430;
240.0000;0.0969;-1.0385;
240.3000;0.0830;-1.0589;
240.6000;0.0952;-1.0227;
240.9000;0.0969;-1.0204;
241.2000;0.0936;-1.0181;
241.5000;0.0969;-1.0091;
241.8000;0.0936;-1.0204;
242.1000;0.0944;-1.0227;
242.4000;0.0952;-1.0204;
242.7000;0.0936;-1.0272;
243.0000;0.0961;-1.0159;
243.3000;0.0936;-1.0227;
243.6000;0.1115;-0.9751;
243.9000;0.0944;-1.0204;
244.2000;0.0961;-1.0159;
244.5000;0.0977;-1.0046;
244.8000;0.0961;-1.0023;
245.1000;0.0904;-1.0181;
245.4000;0.0952;-1.0091;
245.7000;0.0887;-1.0181;
246.0000;0.0961;-1.0091;
246.3000;0.1009;-1.0046;
246.6000;0.0969;-1.0204;
246.9000;0.1083;-0.9865;
247.2000;0.0961;-1.0204;
247.5000;0.0952;-1.0159;
247.8000;0.1026;-0.9887;
248.1000;0.0952;-1.0068;
248.4000;0.1034;-0.9797;
248.7000;0.0952;-1.0000;
249.0000;0.0928;-1.0046;
249.3000;0.0993;-0.9887;
249.6000;0.0936;-1.0023;
249.9000;0.0977;-0.9978;
250.2000;0.0912;-1.0068;
250.5000;0.0952;-0.9955;
250.8000;0.0944;-0.9887;
251.1000;0.0879;-1.0113;
251.4000;0.0961;-0.9910;
251.7000;0.0969;-0.9910;
252.0000;0.1026;-0.9910;
252.3000;0.0985;-1.0023;
252.6000;0.0920;-1.0159;
252.9000;0.0993;-0.9978;
253.2000;0.0952;-1.0046;
253.5000;0.0936;-1.0091;
253.8000;0.0952;-1.0091;
254.1000;0.0969;-1.0000;
254.4000;0.0969;-1.0000;
254.7000;0.0961;-1.0023;
255.0000;0.0952;-0.9978;
255.3000;0.0985;-1.0023;
255.6000;0.1058;-0.9842;
255.9000;0.0961;-1.0046;
256.2000;0.0936;-1.0091;
256.5000;0.1026;-0.9797;
256.8000;0.0952;-1.0046;
257.1000;0.0928;-1.0113;
257.4000;0.0952;-1.0113;
257.7000;0.1026;-0.9955;
258.0000;0.0904;-1.0227;
258.3000;0.0952;-1.0181;
258.6000;0.0961;-1.0136;
258.9000;0.0961;-1.0159;
259.2000;0.0969;-1.0181;
259.5000;0.0961;-1.0113;
259.8000;0.0969;-0.9978;
260.1000;0.0961;-0.9978;
260.4000;0.0944;-1.0000;
260.7000;0.1026;-0.9887;
261.0000;0.0961;-1.0113;
261.3000;0.0952;-1.0113;
261.6000;0.0977;-1.0046;
261.9000;0.0977;-1.0046;
262.2000;0.0952;-1.0068;
262.5000;0.0969;-1.0046;
262.8000;0.0985;-1.0113;
263.1000;0.0961;-1.0249;
263.4000;0.0977;-1.0181;
263.7000;0.0961;-1.0294;
264.0000;0.1034;-1.0091;
264.3000;0.1058;-1.0068;
264.6000;0.0969;-1.0159;
264.9000;0.0847;-1.0430;
265.2000;0.0944;-1.0091;
265.5000;0.0961;-1.0000;
265.8000;0.0936;-1.0136;
266.1000;0.0985;-1.0000;
266.4000;0.0944;-1.0113;
266.7000;0.0952;-1.0204;
267.0000;0.0952;-1.0204;
267.3000;0.1042;-0.9955;
267.6000;0.0985;-1.0068;
267.9000;0.0944;-1.0136;
268.2000;0.0928;-1.0159;
268.5000;0.0969;-1.0046;
268.8000;0.0944;-1.0136;
269.1000;0.0904;-1.0340;
269.4000;0.0969;-1.0159;
269.7000;0.1074;-0.9887;
270.0000;0.0961;-1.0227;
270.3000;0.0952;-1.0159;
270.6000;0.1034;-0.9978;
270.9000;0.0961;-1.0181;
271.2000;0.0969;-1.0159;
271.5000;0.0952;-1.0204;
271.8000;0.0936;-1.0227;
272.1000;0.0969;-1.0181;
272.4000;0.0936;-1.0317;
272.7000;0.0952;-1.0249;
273.0000;0.0944;-1.0227;
273.3000;0.0952;-1.0113;
273.6000;0.0952;-1.0159;
273.9000;0.0887;-1.0294;
274.2000;0.0944;-1.0227;
274.5000;0.0952;-1.0204;
274.8000;0.0928;-1.0272;
275.1000;0.0969;-1.0113;
275.4000;0.0944;-1.0159;
275.7000;0.0961;-1.0000;
276.0000;0.0969;-0.9955;
276.3000;0.0936;-1.0046;
276.6000;0.0952;-1.0000;
276.9000;0.0936;-0.9955;
277.2000;0.0944;-0.9932;
277.5000;0.0961;-0.9887;
277.8000;0.0961;-0.9887;
278.1000;0.0961;-0.9887;
278.4000;0.0952;-0.9955;
278.7000;0.0863;-1.0204;
279.0000;0.0969;-1.0068;
279.3000;0.0952;-1.0046;
279.6000;0.0969;-0.9955;
279.9000;0.0952;-1.0000;
280.2000;0.0936;-1.0046;
280.5000;0.0969;-0.9978;
280.8000;0.0838;-1.0227;
281.1000;0.0871;-1.0227;
281.4000;0.0944;-1.0068;
281.7000;0.0944;-1.0181;
282.0000;0.0952;-1.0181;
282.3000;0.0985;-1.0159;
282.6000;0.0952;-1.0136;
282.9000;0.0904;-1.0181;
283.2000;0.0961;-1.0023;
283.5000;0.0952;-1.0023;
283.8000;0.0977;-0.9978;
284.1000;0.0904;-1.0181;
284.4000;0.0952;-1.0091;
284.7000;0.0952;-1.0113;
285.0000;0.0944;-1.0136;
285.3000;0.0961;-1.0113;
285.6000;0.0952;-1.0227;
285.9000;0.0969;-1.0159;
286.2000;0.0928;-1.0272;
286.5000;0.0969;-1.0227;
286.8000;0.0944;-1.0272;
287.1000;0.1001;-1.0136;
287.4000;0.1026;-1.0000;
287.7000;0.0944;-1.0204;
288.0000;0.0961;-1.0068;
288.3000;0.0993;-0.9955;
288.6000;0.1009;-0.9819;
288.9000;0.0977;-0.9887;
289.2000;0.0879;-1.0227;
289.5000;0.1018;-0.9932;
289.8000;0.0952;-1.0159;
290.1000;0.0961;-1.0159;
290.4000;0.0969;-1.0227;
290.7000;0.1123;-0.9819;
291.0000;0.0969;-1.0317;
291.3000;0.0985;-1.0272;
291.6000;0.0977;-1.0227;
291.9000;0.0936;-1.0272;
292.2000;0.0944;-1.0340;
292.5000;0.0985;-1.0272;
292.8000;0.0961;-1.0340;
293.1000;0.0993;-1.0294;
293.4000;0.0952;-1.0294;
293.7000;0.1001;-1.0113;
294.0000;0.0928;-1.0317;
294.3000;0.0969;-1.0249;
294.6000;0.0936;-1.0227;
294.9000;0.1001;-1.0159;
295.2000;0.0969;-1.0181;
295.5000;0.0961;-1.0181;
295.8000;0.0977;-1.0113;
296.1000;0.0961;-1.0204;
296.4000;0.0969;-1.0181;
296.7000;0.0969;-1.0181;
297.0000;0.0952;-1.0159;
297.3000;0.0961;-1.0091;
297.6000;0.0961;-1.0091;
297.9000;0.0952;-1.0023;
298.2000;0.0952;-1.0023;
298.5000;0.0961;-1.0023;
298.8000;0.0985;-0.9910;
299.1000;0.1009;-0.9819;
299.4000;0.0944;-1.0068;
299.7000;0.0977;-1.0000;
300.0000;0.0904;-1.0181;
300.3000;0.0969;-1.0000;
300.6000;0.0952;-1.0113;
300.9000;0.0936;-1.0113;
301.2000;0.0944;-1.0068;
301.5000;0.0977;-1.0000;
301.8000;0.0969;-1.0023;
302.1000;0.0936;-1.0091;
302.4000;0.0961;-1.0046;
302.7000;0.0912;-1.0136;
303.0000;0.0985;-0.9955;
303.3000;0.0961;-1.0000;
303.6000;0.0944;-1.0000;
303.9000;0.0936;-1.0046;
304.2000;0.0952;-1.0000;
304.5000;0.0944;-1.0023;
304.8000;0.0977;-1.0000;
305.1000;0.0863;-1.0204;
305.4000;0.0961;-0.9932;
305.7000;0.0977;-0.9865;
306.0000;0.0952;-0.9865;
306.3000;0.0969;-0.9751;
306.6000;0.0920;-0.9887;
306.9000;0.0944;-0.9774;
307.2000;0.0993;-0.9729;
307.5000;0.0985;-0.9797;
307.8000;0.0944;-0.9932;
308.1000;0.0944;-0.9932;
308.4000;0.0944;-0.9978;
308.7000;0.0936;-1.0000;
309.0000;0.0961;-0.9978;
309.3000;0.0961;-0.9887;
309.6000;0.0944;-0.9955;
309.9000;0.0928;-1.0000;
310.2000;0.0969;-0.9865;
310.5000;0.0961;-0.9910;
310.8000;0.0961;-0.9955;
311.1000;0.0985;-0.9865;
311.4000;0.0944;-0.9887;
311.7000;0.0961;-0.9865;
312.0000;0.0961;-0.9819;
312.3000;0.1001;-0.9774;
312.6000;0.0879;-1.0136;
312.9000;0.0969;-0.9910;
313.2000;0.0944;-0.9955;
313.5000;0.0985;-0.9910;
313.8000;0.0985;-0.9910;
314.1000;0.0977;-1.0023;
314.4000;0.0961;-1.0068;
314.7000;0.0952;-1.0068;
315.0000;0.0961;-1.0023;
315.3000;0.0985;-1.0000;
315.6000;0.0961;-1.0068;
315.9000;0.0952;-1.0091;
316.2000;0.0952;-1.0023;
316.5000;0.0936;-1.0113;
316.8000;0.1001;-0.9910;
317.1000;0.0977;-1.0046;
317.4000;0.1034;-0.9978;
317.7000;0.0936;-1.0181;
318.0000;0.0977;-1.0136;
318.3000;0.0961;-1.0113;
318.6000;0.0952;-1.0068;
318.9000;0.0920;-1.0227;
319.2000;0.0969;-1.0159;
319.5000;0.0952;-1.0181;
319.8000;0.0961;-1.0181;
320.1000;0.0944;-1.0249;
320.4000;0.0969;-1.0159;
320.7000;0.0952;-1.0136;
321.0000;0.0863;-1.0340;
321.3000;0.1009;-1.0068;
321.6000;0.0944;-1.0249;
321.9000;0.0952;-1.0227;
322.2000;0.0977;-1.0204;
322.5000;0.0928;-1.0362;
322.8000;0.0952;-1.0385;
323.1000;0.0952;-1.0362;
323.4000;0.0961;-1.0385;
323.7000;0.0961;-1.0362;
324.0000;0.0952;-1.0430;
324.3000;0.0977;-1.0430;
324.6000;0.0961;-1.0408;
324.9000;0.0928;-1.0430;
325.2000;0.0944;-1.0249;
325.5000;0.0977;-1.0204;
325.8000;0.0920;-1.0227;
326.1000;0.0944;-1.0113;
326.4000;0.0961;-1.0068;
326.7000;0.1026;-0.9887;
327.0000;0.0944;-1.0046;
327.3000;0.0952;-1.0023;
327.6000;0.0952;-1.0091;
327.9000;0.0944;-1.0136;
328.2000;0.0952;-1.0204;
328.5000;0.0952;-1.0227;
328.8000;0.0936;-1.0249;
329.1000;0.0944;-1.0181;
329.4000;0.0961;-1.0181;
329.7000;0.0944;-1.0249;
330.0000;0.0944;-1.0272;
330.3000;0.0961;-1.0227;
330.6000;0.0985;-1.0113;
330.9000;0.0961;-1.0159;
331.2000;0.0952;-1.0113;
331.5000;0.0912;-1.0159;
331.8000;0.0969;-1.0068;
332.1000;0.0993;-1.0023;
332.4000;0.0944;-1.0181;
332.7000;0.0977;-1.0136;
333.0000;0.1009;-1.0091;
333.3000;0.1034;-1.0046;
333.6000;0.0961;-1.0159;
333.9000;0.0928;-1.0249;
334.2000;0.0952;-1.0204;
334.5000;0.0961;-1.0227;
334.8000;0.0952;-1.0136;
335.1000;0.0944;-1.0046;
335.4000;0.0936;-1.0068;
335.7000;0.0952;-1.0023;
336.0000;0.0985;-0.9978;
336.3000;0.0952;-1.0113;
336.6000;0.0977;-1.0046;
336.9000;0.1009;-0.9932;
337.2000;0.0952;-1.0068;
337.5000;0.0936;-1.0204;
337.8000;0.0977;-1.0113;
338.1000;0.0977;-1.0091;
338.4000;0.0936;-1.0159;
338.7000;0.0912;-1.0181;
339.0000;0.0887;-1.0249;
339.3000;0.1001;-1.0023;
339.6000;0.0969;-1.0136;
339.9000;0.0895;-1.0340;
340.2000;0.0871;-1.0430;
340.5000;0.0969;-1.0159;
340.8000;0.0952;-1.0181;
341.1000;0.0993;-1.0136;
341.4000;0.0920;-1.0272;
341.7000;0.0912;-1.0340;
342.0000;0.0952;-1.0249;
342.3000;0.0806;-1.0611;
342.6000;0.0936;-1.0317;
342.9000;0.0814;-1.0475;
343.2000;0.0912;-1.0159;
343.5000;0.0969;-1.0046;
343.8000;0.0944;-1.0136;
344.1000;0.1115;-0.9729;
344.4000;0.0961;-1.0113;
344.7000;0.1026;-0.9932;
345.0000;0.0977;-1.0113;
345.3000;0.0895;-1.0249;
345.6000;0.0977;-0.9978;
345.9000;0.0961;-0.9932;
346.2000;0.0977;-0.9932;
346.5000;0.0977;-0.9910;
346.8000;0.0977;-0.9797;
347.1000;0.0969;-0.9729;
347.4000;0.0952;-0.9865;
347.7000;0.0952;-0.9910;
348.0000;0.1099;-0.9593;
348.3000;0.0969;-0.9842;
348.6000;0.1001;-0.9842;
348.9000;0.0969;-0.9910;
349.2000;0.0977;-0.9910;
349.5000;0.0985;-0.9910;
349.8000;0.0985;-0.9865;
350.1000;0.0895;-1.0046;
350.4000;0.0969;-0.9955;
350.7000;0.0887;-1.0181;
351.0000;0.0961;-0.9978;
351.3000;0.0985;-0.9910;
351.6000;0.0961;-0.9978;
351.9000;0.0887;-1.0113;
352.2000;0.0944;-1.0000;
352.5000;0.0952;-0.9978;
352.8000;0.0961;-1.0000;
353.1000;0.0969;-0.9910;
353.4000;0.0928;-1.0091;
353.7000;0.0961;-1.0046;
354.0000;0.0977;-0.9932;
354.3000;0.0944;-1.0068;
354.6000;0.0977;-0.9932;
354.9000;0.0944;-1.0023;
355.2000;0.0944;-0.9932;
355.5000;0.0961;-0.9978;
355.8000;0.0993;-0.9932;
356.1000;0.0977;-1.0023;
356.4000;0.1009;-0.9932;
356.7000;0.0928;-1.0091;
357.0000;0.0993;-0.9819;
357.3000;0.0961;-0.9955;
357.6000;0.0952;-0.9978;
357.9000;0.0952;-1.0046;
358.2000;0.0952;-1.0068;
358.5000;0.0944;-1.0046;
358.8000;0.0985;-1.0023;
359.1000;0.0961;-1.0136;
359.4000;0.0969;-1.0136;
359.7000;0.0985;-1.0091;
360.0000;0.0952;-1.0204;
360.3000;0.0904;-1.0272;
360.6000;0.0952;-1.0204;
360.9000;0.0961;-1.0159;
361.2000;0.0985;-1.0136;
361.5000;0.0944;-1.0204;
361.8000;0.0985;-1.0068;
362.1000;0.1026;-0.9932;
362.4000;0.0920;-1.0136;
362.7000;0.0798;-1.0362;
363.0000;0.0952;-0.9978;
363.3000;0.1001;-0.9819;
363.6000;0.0936;-0.9978;
363.9000;0.0871;-1.0091;
364.2000;0.0895;-1.0068;
364.5000;0.0961;-0.9910;
364.8000;0.0944;-0.9910;
365.1000;0.0952;-0.9932;
365.4000;0.0904;-1.0113;
365.7000;0.0936;-1.0136;
366.0000;0.0969;-1.0000;
366.3000;0.0912;-1.0204;
366.6000;0.0952;-1.0046;
366.9000;0.1018;-0.9819;
367.2000;0.1001;-0.9842;
367.5000;0.0969;-0.9887;
367.8000;0.0993;-0.9842;
368.1000;0.0944;-1.0046;
368.4000;0.0969;-1.0000;
368.7000;0.0985;-1.0000;
369.0000;0.1001;-0.9887;
369.3000;0.0961;-1.0023;
369.6000;0.0944;-1.0113;
369.9000;0.0977;-1.0136;
370.2000;0.0928;-1.0227;
370.5000;0.0969;-1.0136;
370.8000;0.0936;-1.0181;
371.1000;0.0969;-1.0136;
371.4000;0.0969;-1.0113;
371.7000;0.0969;-1.0068;
372.0000;0.0961;-1.0091;
372.3000;0.0969;-1.0136;
372.6000;0.0985;-1.0091;
372.9000;0.0969;-1.0091;
373.2000;0.0952;-1.0204;
373.5000;0.0961;-1.0204;
373.8000;0.0952;-1.0340;
374.1000;0.0969;-1.0317;
374.4000;0.0961;-1.0340;
374.7000;0.0952;-1.0340;
375.0000;0.0969;-1.0249;
375.3000;0.0993;-1.0136;
375.6000;0.0977;-1.0136;
375.9000;0.0952;-1.0204;
376.2000;0.0928;-1.0294;
376.5000;0.0961;-1.0227;
376.8000;0.0993;-1.0091;
377.1000;0.0961;-1.0204;
377.4000;0.0928;-1.0249;
377.7000;0.0944;-1.0227;
378.0000;0.0952;-1.0204;
378.3000;0.0952;-1.0181;
378.6000;0.0969;-1.0113;
378.9000;0.0920;-1.0249;
379.2000;0.0879;-1.0294;
379.5000;0.0936;-1.0113;
379.8000;0.0969;-1.0023;
380.1000;0.0879;-1.0227;
380.4000;0.0977;-0.9978;
380.7000;0.0969;-1.0000;
381.0000;0.0969;-1.0023;
381.3000;0.0969;-1.0000;
381.6000;0.0977;-1.0091;
381.9000;0.1018;-1.0068;
382.2000;0.1050;-0.9978;
382.5000;0.0952;-1.0181;
382.8000;0.0969;-1.0204;
383.1000;0.0985;-1.0136;
383.4000;0.0969;-1.0113;
383.7000;0.0977;-1.0204;
384.0000;0.0961;-1.0249;
384.3000;0.0944;-1.0249;
384.6000;0.0977;-1.0181;
384.9000;0.0993;-1.0227;
385.2000;0.0895;-1.0498;
385.5000;0.0969;-1.0272;
385.8000;0.0961;-1.0181;
386.1000;0.0952;-1.0294;
386.4000;0.0961;-1.0272;
386.7000;0.1042;-1.0023;
387.0000;0.0928;-1.0340;
387.3000;0.0928;-1.0294;
387.6000;0.0936;-1.0227;
387.9000;0.0969;-1.0113;
388.2000;0.0944;-1.0181;
388.5000;0.0969;-1.0272;
388.8000;0.0952;-1.0227;
389.1000;0.0961;-1.0249;
389.4000;0.0961;-1.0272;
389.7000;0.0920;-1.0294;
390.0000;0.0855;-1.0543;
390.3000;0.0985;-1.0159;
390.6000;0.0961;-1.0294;
390.9000;0.0961;-1.0204;
391.2000;0.0961;-1.0136;
391.5000;0.0936;-1.0204;
391.8000;0.0977;-1.0046;
392.1000;0.0912;-1.0249;
392.4000;0.0904;-1.0227;
392.7000;0.0969;-1.0136;
393.0000;0.0985;-1.0159;
393.3000;0.0969;-1.0181;
393.6000;0.0928;-1.0227;
393.9000;0.0977;-1.0113;
394.2000;0.0887;-1.0362;
394.5000;0.0985;-1.0023;
394.8000;0.0944;-1.0181;
395.1000;0.0977;-1.0181;
395.4000;0.0993;-1.0181;
395.7000;0.0985;-1.0294;
396.0000;0.0969;-1.0294;
396.3000;0.0952;-1.0317;
396.6000;0.0961;-1.0294;
396.9000;0.0952;-1.0227;
397.2000;0.0977;-1.0204;
397.5000;0.0830;-1.0566;
397.8000;0.0977;-1.0227;
398.1000;0.0814;-1.0611;
398.4000;0.0977;-1.0204;
398.7000;0.0936;-1.0294;
399.0000;0.0985;-1.0272;
399.3000;0.0944;-1.0362;
399.6000;0.0952;-1.0362;
399.9000;0.0944;-1.0317;
400.2000;0.0952;-1.0385;
400.5000;0.0969;-1.0272;
400.8000;0.0944;-1.0340;
401.1000;0.0952;-1.0227;
401.4000;0.0936;-1.0136;
401.7000;0.0952;-1.0136;
402.0000;0.0936;-1.0204;
402.3000;0.0928;-1.0272;
402.6000;0.0977;-1.0181;
402.9000;0.0928;-1.0362;
403.2000;0.0920;-1.0317;
403.5000;0.0904;-1.0453;
403.8000;0.0944;-1.0294;
404.1000;0.0993;-1.0159;
404.4000;0.1091;-0.9932;
404.7000;0.0969;-1.0249;
405.0000;0.0969;-1.0249;
405.3000;0.0936;-1.0227;
405.6000;0.0993;-1.0091;
405.9000;0.0977;-1.0159;
406.2000;0.1001;-1.0046;
406.5000;0.0961;-1.0091;
406.8000;0.0969;-1.0113;
407.1000;0.0993;-1.0068;
407.4000;0.0952;-1.0159;
407.7000;0.0944;-1.0159;
408.0000;0.0985;-1.0091;
408.3000;0.0961;-1.0136;
408.6000;0.0952;-1.0113;
408.9000;0.0944;-1.0091;
409.2000;0.0969;-1.0046;
409.5000;0.0952;-1.0068;
409.8000;0.0961;-1.0023;
410.1000;0.1042;-0.9819;
410.4000;0.0961;-1.0068;
410.7000;0.0993;-1.0023;
411.0000;0.0952;-1.0113;
411.3000;0.0969;-1.0091;
411.6000;0.0969;-1.0113;
411.9000;0.0985;-1.0091;
412.2000;0.0936;-1.0136;
412.5000;0.0952;-1.0091;
412.8000;0.0977;-1.0023;
413.1000;0.0985;-0.9978;
413.4000;0.1001;-0.9978;
413.7000;0.0952;-1.0091;
414.0000;0.0961;-1.0068;
414.3000;0.0961;-1.0159;
414.6000;0.0961;-1.0272;
414.9000;0.0961;-1.0272;
415.2000;0.0952;-1.0249;
415.5000;0.0969;-1.0317;
415.8000;0.0961;-1.0249;
416.1000;0.0969;-1.0317;
416.4000;0.0961;-1.0385;
416.7000;0.0985;-1.0294;
417.0000;0.0985;-1.0317;
417.3000;0.0961;-1.0317;
417.6000;0.0944;-1.0317;
417.9000;0.0944;-1.0249;
418.2000;0.0952;-1.0249;
418.5000;0.1001;-1.0023;
418.8000;0.0936;-1.0091;
419.1000;0.0969;-1.0046;
419.4000;0.0944;-1.0136;
419.7000;0.0961;-1.0136;
420.0000;0.1018;-0.9955;
420.3000;0.0969;-1.0113;
420.6000;0.0969;-1.0091;
420.9000;0.0961;-1.0136;
421.2000;0.0961;-1.0091;
421.5000;0.1050;-0.9910;
421.8000;0.1009;-1.0000;
422.1000;0.0944;-1.0113;
422.4000;0.0944;-1.0046;
422.7000;0.0985;-1.0023;
423.0000;0.0920;-1.0181;
423.3000;0.0985;-0.9978;
423.6000;0.0961;-1.0091;
423.9000;0.0952;-1.0113;
424.2000;0.0961;-1.0046;
424.5000;0.0952;-1.0046;
424.8000;0.0952;-1.0046;
425.1000;0.0961;-1.0023;
425.4000;0.0961;-1.0068;
425.7000;0.0936;-1.0159;
426.0000;0.1034;-0.9955;
426.3000;0.1009;-1.0023;
426.6000;0.0952;-1.0046;
426.9000;0.0952;-1.0023;
427.2000;0.0952;-1.0023;
427.5000;0.0912;-1.0249;
427.8000;0.0952;-1.0113;
428.1000;0.0912;-1.0159;
428.4000;0.0961;-1.0046;
428.7000;0.0961;-1.0023;
429.0000;0.0936;-1.0023;
429.3000;0.0993;-0.9842;
429.6000;0.0961;-1.0000;
429.9000;0.0961;-1.0046;
430.2000;0.0944;-1.0046;
430.5000;0.0969;-1.0000;
430.8000;0.0977;-1.0000;
431.1000;0.1018;-0.9910;
431.4000;0.0969;-1.0000;
431.7000;0.0977;-1.0023;
432.0000;0.0952;-0.9978;
432.3000;0.0977;-0.9932;
432.6000;0.0969;-0.9978;
432.9000;0.0961;-1.0000;
433.2000;0.0977;-0.9932;
433.5000;0.0961;-0.9932;
433.8000;0.0944;-0.9910;
434.1000;0.0952;-1.0046;
434.4000;0.0944;-1.0113;
434.7000;0.0977;-1.0091;
435.0000;0.0944;-1.0091;
435.3000;0.0961;-1.0046;
435.6000;0.0961;-1.0091;
435.9000;0.0936;-1.0113;
436.2000;0.0985;-0.9978;
436.5000;0.0928;-1.0113;
436.8000;0.0952;-1.0068;
437.1000;0.0969;-1.0068;
437.4000;0.0952;-1.0068;
437.7000;0.0969;-1.0046;
438.0000;0.0961;-1.0068;
438.3000;0.0936;-1.0136;
438.6000;0.0961;-1.0113;
438.9000;0.0944;-1.0159;
439.2000;0.0952;-1.0181;
439.5000;0.0961;-1.0136;
439.8000;0.0969;-1.0000;
440.1000;0.0993;-0.9978;
440.4000;0.0952;-1.0091;
440.7000;0.0944;-1.0113;
441.0000;0.0879;-1.0385;
441.3000;0.0928;-1.0272;
441.6000;0.0961;-1.0249;
441.9000;0.0952;-1.0249;
442.2000;0.0961;-1.0249;
442.5000;0.0928;-1.0294;
442.8000;0.0952;-1.0227;
443.1000;0.0952;-1.0227;
443.4000;0.0952;-1.0113;
443.7000;0.0895;-1.0227;
444.0000;0.0928;-1.0023;
444.3000;0.0969;-0.9978;
444.6000;0.0969;-0.9978;
444.9000;0.0985;-1.0023;
445.2000;0.0969;-1.0091;
445.5000;0.0969;-1.0159;
445.8000;0.0969;-1.0159;
446.1000;0.1058;-0.9910;
446.4000;0.0961;-1.0091;
446.7000;0.0912;-1.0068;
447.0000;0.0895;-1.0159;
447.3000;0.0961;-1.0091;
447.6000;0.0977;-1.0113;
447.9000;0.0944;-1.0113;
448.2000;0.0961;-1.0023;
448.5000;0.0961;-1.0113;
448.8000;0.0977;-1.0136;
449.1000;0.0952;-1.0204;
449.4000;0.0944;-1.0272;
449.7000;0.0977;-1.0249;
450.0000;0.0985;-1.0227;
450.3000;0.0969;-1.0227;
450.6000;0.0969;-1.0204;
450.9000;0.1001;-1.0091;
451.2000;0.0977;-1.0159;
451.5000;0.0985;-1.0181;
451.8000;0.1001;-1.0136;
452.1000;0.0952;-1.0272;
452.4000;0.0969;-1.0204;
452.7000;0.0798;-1.0634;
453.0000;0.1009;-1.0113;
453.3000;0.1042;-0.9978;
453.6000;0.0952;-1.0204;
453.9000;0.0830;-1.0521;
454.2000;0.0952;-1.0204;
454.5000;0.0961;-1.0227;
454.8000;0.0912;-1.0430;
455.1000;0.1001;-1.0159;
455.4000;0.0952;-1.0249;
455.7000;0.0863;-1.0521;
456.0000;0.0944;-1.0340;
456.3000;0.0961;-1.0340;
456.6000;0.0952;-1.0340;
456.9000;0.0952;-1.0340;
457.2000;0.1001;-1.0227;
457.5000;0.0944;-1.0340;
457.8000;0.1026;-1.0091;
458.1000;0.0952;-1.0249;
458.4000;0.0936;-1.0317;
458.7000;0.0952;-1.0317;
459.0000;0.0952;-1.0294;
459.3000;0.0961;-1.0204;
459.6000;0.0961;-1.0249;
459.9000;0.1018;-1.0068;
460.2000;0.0952;-1.0317;
460.5000;0.0944;-1.0294;
460.8000;0.0952;-1.0249;
461.1000;0.0887;-1.0340;
461.4000;0.1001;-1.0046;
461.7000;0.0952;-1.0046;
462.0000;0.0961;-1.0068;
462.3000;0.0952;-1.0068;
462.6000;0.0961;-1.0000;
462.9000;0.0969;-1.0068;
463.2000;0.0969;-1.0136;
463.5000;0.0969;-1.0113;
463.8000;0.0952;-1.0204;
464.1000;0.0961;-1.0136;
464.4000;0.0952;-1.0136;
464.7000;0.0952;-1.0136;
465.0000;0.1018;-1.0000;
465.3000;0.0969;-1.0113;
465.6000;0.0887;-1.0272;
465.9000;0.0961;-1.0068;
466.2000;0.0993;-0.9955;
466.5000;0.0969;-1.0023;
466.8000;0.0936;-1.0113;
467.1000;0.0944;-1.0113;
467.4000;0.0838;-1.0430;
467.7000;0.0944;-1.0113;
468.0000;0.0952;-1.0113;
468.3000;0.0936;-1.0136;
468.6000;0.0920;-1.0159;
468.9000;0.0936;-1.0091;
469.2000;0.0961;-1.0068;
469.5000;0.0944;-1.0023;
469.8000;0.0944;-1.0023;
470.1000;0.0977;-1.0000;
470.4000;0.0961;-1.0068;
470.7000;0.0961;-1.0113;
471.0000;0.0969;-1.0113;
471.3000;0.0944;-1.0181;
471.6000;0.0993;-1.0023;
471.9000;0.0985;-0.9978;
472.2000;0.0944;-1.0136;
472.5000;0.0952;-1.0091;
472.8000;0.0952;-1.0181;
473.1000;0.0977;-1.0181;
473.4000;0.0936;-1.0204;
473.7000;0.0928;-1.0181;
474.0000;0.0977;-1.0046;
474.3000;0.1034;-0.9842;
474.6000;0.0944;-1.0068;
474.9000;0.0952;-1.0000;
475.2000;0.1018;-0.9797;
475.5000;0.1018;-0.9865;
475.8000;0.0944;-1.0068;
476.1000;0.0969;-0.9955;
476.4000;0.0887;-1.0068;
476.7000;0.0961;-0.9910;
477.0000;0.0920;-0.9978;
477.3000;0.0985;-0.9887;
477.6000;0.0944;-0.9932;
477.9000;0.1026;-0.9729;
478.2000;0.0969;-0.9955;
478.5000;0.0969;-0.9955;
478.8000;0.0993;-0.9887;
479.1000;0.0961;-0.9978;
479.4000;0.0952;-1.0046;
479.7000;0.0904;-1.0091;
480.0000;0.0952;-1.0000;
480.3000;0.0944;-1.0091;
480.6000;0.0952;-1.0113;
480.9000;0.0985;-1.0000;
481.2000;0.0936;-1.0159;
481.5000;0.0928;-1.0113;
481.8000;0.0969;-1.0068;
482.1000;0.0944;-1.0113;
482.4000;0.0944;-1.0159;
482.7000;0.0961;-1.0091;
483.0000;0.1018;-0.9819;
483.3000;0.0977;-0.9910;
483.6000;0.0928;-1.0000;
483.9000;0.0928;-1.0068;
484.2000;0.0952;-1.0091;
484.5000;0.0952;-1.0204;
484.8000;0.0961;-1.0204;
485.1000;0.0952;-1.0227;
485.4000;0.0969;-1.0136;
485.7000;0.0977;-1.0091;
486.0000;0.0969;-1.0023;
486.3000;0.0920;-1.0113;
486.6000;0.0969;-1.0000;
486.9000;0.0887;-1.0204;
487.2000;0.1001;-0.9910;
487.5000;0.0952;-1.0136;
487.8000;0.0985;-1.0091;
488.1000;0.0977;-1.0091;
488.4000;0.0936;-1.0068;
488.7000;0.1066;-0.9774;
489.0000;0.0993;-0.9955;
489.3000;0.0952;-1.0046;
489.6000;0.0961;-0.9978;
489.9000;0.0969;-0.9955;
490.2000;0.0961;-0.9978;
490.5000;0.0977;-1.0000;
490.8000;0.0969;-1.0068;
491.1000;0.1099;-0.9819;
491.4000;0.0969;-1.0159;
491.7000;0.0936;-1.0227;
492.0000;0.0936;-1.0272;
492.3000;0.0952;-1.0249;
492.6000;0.0936;-1.0294;
492.9000;0.0952;-1.0227;
493.2000;0.1009;-0.9978;
493.5000;0.0969;-1.0181;
493.8000;0.0920;-1.0294;
494.1000;0.0961;-1.0204;
494.4000;0.0944;-1.0272;
494.7000;0.0977;-1.0204;
495.0000;0.0993;-1.0249;
495.3000;0.0920;-1.0385;
495.6000;0.0961;-1.0227;
495.9000;0.0952;-1.0227;
496.2000;0.1074;-0.9887;
496.5000;0.0961;-1.0204;
496.8000;0.0977;-1.0113;
497.1000;0.0944;-1.0204;
497.4000;0.0961;-1.0068;
497.7000;0.0912;-1.0159;
498.0000;0.1009;-0.9932;
498.3000;0.0871;-1.0227;
498.6000;0.0977;-1.0046;
498.9000;0.1074;-0.9751;
499.2000;0.0928;-1.0181;
499.5000;0.0961;-1.0113;
499.8000;0.0952;-1.0204;
500.1000;0.0952;-1.0159;
500.4000;0.0952;-1.0091;
500.7000;0.0969;-1.0068;
501.0000;0.0928;-1.0136;
501.3000;0.0952;-1.0204;
501.6000;0.1009;-1.0068;
501.9000;0.0977;-1.0227;
502.2000;0.0985;-1.0159;
502.5000;0.0952;-1.0227;
502.8000;0.0887;-1.0385;
503.1000;0.0961;-1.0159;
503.4000;0.0969;-1.0046;
503.7000;0.0904;-1.0249;
504.0000;0.0993;-1.0136;
504.3000;0.0952;-1.0227;
504.6000;0.0912;-1.0317;
504.9000;0.0928;-1.0204;
505.2000;0.0944;-1.0204;
505.5000;0.0944;-1.0227;
505.8000;0.0969;-1.0159;
506.1000;0.1018;-1.0046;
506.4000;0.0944;-1.0227;
506.7000;0.0952;-1.0249;
507.0000;0.0961;-1.0340;
507.3000;0.0969;-1.0430;
507.6000;0.0928;-1.0475;
507.9000;0.0977;-1.0340;
508.2000;0.0985;-1.0204;
508.5000;0.0977;-1.0091;
508.8000;0.0952;-1.0091;
509.1000;0.0952;-1.0023;
509.4000;0.0961;-0.9932;
509.7000;0.0952;-1.0023;
510.0000;0.0920;-1.0159;
510.3000;0.0977;-1.0023;
510.6000;0.0961;-1.0023;
510.9000;0.0928;-1.0113;
511.2000;0.0904;-1.0317;
511.5000;0.0985;-1.0181;
511.8000;0.0936;-1.0227;
512.1000;0.1058;-0.9932;
512.4000;0.0961;-1.0272;
512.7000;0.0936;-1.0317;
513.0000;0.0961;-1.0385;
513.3000;0.0985;-1.0272;
513.6000;0.0879;-1.0589;
513.9000;0.0944;-1.0408;
514.2000;0.0985;-1.0362;
514.5000;0.0985;-1.0408;
514.8000;0.0961;-1.0475;
515.1000;0.0961;-1.0430;
515.4000;0.0969;-1.0294;
515.7000;0.0944;-1.0272;
516.0000;0.0961;-1.0272;
516.3000;0.0961;-1.0340;
516.6000;0.0961;-1.0317;
516.9000;0.0944;-1.0317;
517.2000;0.1074;-0.9978;
517.5000;0.0977;-1.0272;
517.8000;0.0977;-1.0204;
518.1000;0.0928;-1.0227;
518.4000;0.1050;-0.9887;
518.7000;0.0969;-1.0204;
519.0000;0.0928;-1.0249;
519.3000;0.0952;-1.0204;
519.6000;0.0977;-1.0181;
519.9000;0.0855;-1.0475;
520.2000;0.0969;-1.0113;
520.5000;0.1009;-1.0136;
520.8000;0.1009;-1.0068;
521.1000;0.1083;-0.9887;
521.4000;0.1001;-1.0204;
521.7000;0.0936;-1.0317;
522.0000;0.0961;-1.0249;
522.3000;0.1042;-1.0046;
522.6000;0.0952;-1.0227;
522.9000;0.0961;-1.0227;
523.2000;0.0912;-1.0317;
523.5000;0.0952;-1.0272;
523.8000;0.0969;-1.0227;
524.1000;0.0969;-1.0294;
524.4000;0.0928;-1.0408;
524.7000;0.0822;-1.0656;
525.0000;0.0944;-1.0385;
525.3000;0.0961;-1.0385;
525.6000;0.0961;-1.0430;
525.9000;0.0969;-1.0385;
526.2000;0.0952;-1.0430;
526.5000;0.0961;-1.0340;
526.8000;0.0961;-1.0317;
527.1000;0.0969;-1.0272;
527.4000;0.0944;-1.0385;
527.7000;0.0993;-1.0249;
528.0000;0.0944;-1.0294;
528.3000;0.0936;-1.0249;
528.6000;0.0952;-1.0181;
528.9000;0.0961;-1.0294;
529.2000;0.0944;-1.0385;
529.5000;0.0936;-1.0272;
529.8000;0.1001;-1.0136;
530.1000;0.0928;-1.0362;
530.4000;0.0961;-1.0340;
530.7000;0.0961;-1.0317;
531.0000;0.0969;-1.0204;
531.3000;0.0993;-1.0091;
531.6000;0.0961;-1.0113;
531.9000;0.1034;-0.9955;
532.2000;0.0977;-1.0136;
532.5000;0.0969;-1.0181;
532.8000;0.0969;-1.0181;
533.1000;0.0952;-1.0136;
533.4000;0.0944;-1.0113;
533.7000;0.0944;-1.0159;
534.0000;0.0961;-1.0181;
534.3000;0.1066;-1.0000;
534.6000;0.0969;-1.0181;
534.9000;0.0895;-1.0430;
535.2000;0.1018;-1.0249;
535.5000;0.0952;-1.0430;
535.8000;0.0969;-1.0362;
536.1000;0.0944;-1.0362;
536.4000;0.0961;-1.0385;
536.7000;0.0952;-1.0430;
537.0000;0.0952;-1.0385;
537.3000;0.0961;-1.0430;
537.6000;0.0993;-1.0272;
537.9000;0.0969;-1.0317;
538.2000;0.0961;-1.0453;
538.5000;0.0879;-1.0702;
538.8000;0.0936;-1.0453;
539.1000;0.0895;-1.0475;
539.4000;0.0977;-1.0294;
539.7000;0.0952;-1.0385;
540.0000;0.0952;-1.0475;
540.3000;0.0952;-1.0543;
540.6000;0.0985;-1.0430;
540.9000;0.0969;-1.0475;
541.2000;0.0928;-1.0566;
541.5000;0.0944;-1.0453;
541.8000;0.0952;-1.0362;
542.1000;0.0969;-1.0362;
542.4000;0.0952;-1.0340;
542.7000;0.0985;-1.0204;
543.0000;0.1058;-1.0091;
543.3000;0.0952;-1.0521;
543.6000;0.0944;-1.0543;
543.9000;0.0961;-1.0543;
544.2000;0.0961;-1.0521;
544.5000;0.0977;-1.0498;
544.8000;0.0822;-1.0860;
545.1000;0.0961;-1.0475;
545.4000;0.0969;-1.0475;
545.7000;0.0977;-1.0453;
546.0000;0.0944;-1.0543;
546.3000;0.0969;-1.0430;
546.6000;0.0936;-1.0385;
546.9000;0.0944;-1.0362;
547.2000;0.0969;-1.0204;
547.5000;0.0985;-1.0227;
547.8000;0.0952;-1.0249;
548.1000;0.0961;-1.0294;
548.4000;0.0961;-1.0227;
548.7000;0.0928;-1.0362;
549.0000;0.0985;-1.0272;
549.3000;0.0928;-1.0385;
549.6000;0.0952;-1.0362;
549.9000;0.0977;-1.0317;
550.2000;0.0952;-1.0430;
550.5000;0.0985;-1.0294;
550.8000;0.1009;-1.0204;
551.1000;0.0936;-1.0272;
551.4000;0.0985;-1.0159;
551.7000;0.0969;-1.0227;
552.0000;0.0969;-1.0181;
552.3000;0.0977;-1.0294;
552.6000;0.0952;-1.0408;
552.9000;0.0969;-1.0385;
553.2000;0.0961;-1.0430;
553.5000;0.0936;-1.0408;
553.8000;0.0952;-1.0385;
554.1000;0.0961;-1.0385;
554.4000;0.0961;-1.0362;
554.7000;0.0944;-1.0340;
555.0000;0.0895;-1.0408;
555.3000;0.0936;-1.0294;
555.6000;0.0977;-1.0294;
555.9000;0.0969;-1.0317;
556.2000;0.0961;-1.0340;
556.5000;0.0977;-1.0317;
556.8000;0.0993;-1.0272;
557.1000;0.0961;-1.0430;
557.4000;0.0961;-1.0362;
557.7000;0.0944;-1.0385;
558.0000;0.0969;-1.0430;
558.3000;0.0969;-1.0475;
558.6000;0.0936;-1.0589;
558.9000;0.0961;-1.0543;
559.2000;0.0944;-1.0453;
559.5000;0.0904;-1.0589;
559.8000;0.0936;-1.0385;
560.1000;0.0961;-1.0385;
560.4000;0.1026;-1.0181;
560.7000;0.0961;-1.0317;
561.0000;0.0952;-1.0340;
561.3000;0.0863;-1.0634;
561.6000;0.0952;-1.0475;
561.9000;0.0985;-1.0317;
562.2000;0.0928;-1.0430;
562.5000;0.0952;-1.0317;
562.8000;0.0936;-1.0340;
563.1000;0.0961;-1.0317;
563.4000;0.0936;-1.0340;
563.7000;0.0969;-1.0362;
564.0000;0.0952;-1.0430;
564.3000;0.0985;-1.0362;
564.6000;0.0969;-1.0317;
564.9000;0.0969;-1.0294;
565.2000;0.0952;-1.0430;
565.5000;0.0952;-1.0453;
565.8000;0.0961;-1.0408;
566.1000;0.0936;-1.0475;
566.4000;0.0887;-1.0589;
566.7000;0.0969;-1.0362;
567.0000;0.1001;-1.0249;
567.3000;0.0952;-1.0317;
567.6000;0.0952;-1.0362;
567.9000;0.0944;-1.0340;
568.2000;0.0977;-1.0272;
568.5000;0.0944;-1.0204;
568.8000;0.0936;-1.0227;
569.1000;0.0838;-1.0566;
569.4000;0.0993;-1.0272;
569.7000;0.0969;-1.0294;
570.0000;0.0961;-1.0362;
570.3000;0.0871;-1.0566;
570.6000;0.0952;-1.0362;
570.9000;0.0928;-1.0294;
571.2000;0.0961;-1.0272;
571.5000;0.0952;-1.0272;
571.8000;0.0985;-1.0181;
572.1000;0.0961;-1.0294;
572.4000;0.0969;-1.0249;
572.7000;0.0952;-1.0317;
573.0000;0.0936;-1.0385;
573.3000;0.0993;-1.0227;
573.6000;0.0904;-1.0385;
573.9000;0.0855;-1.0498;
574.2000;0.0944;-1.0272;
574.5000;0.0928;-1.0294;
574.8000;0.0952;-1.0249;
575.1000;0.0863;-1.0408;
575.4000;0.0969;-1.0181;
575.7000;0.1009;-1.0159;
576.0000;0.1009;-1.0136;
576.3000;0.0936;-1.0385;
576.6000;0.0944;-1.0362;
576.9000;0.0969;-1.0249;
577.2000;0.0961;-1.0362;
577.5000;0.0961;-1.0272;
577.8000;0.0961;-1.0294;
578.1000;0.0969;-1.0317;
578.4000;0.0952;-1.0317;
578.7000;0.0969;-1.0362;
579.0000;0.0961;-1.0385;
579.3000;0.0969;-1.0272;
579.6000;0.0928;-1.0340;
579.9000;0.0952;-1.0249;
580.2000;0.0936;-1.0294;
580.5000;0.0961;-1.0340;
580.8000;0.0936;-1.0249;
581.1000;0.0944;-1.0181;
581.4000;0.0969;-1.0091;
581.7000;0.0936;-1.0204;
582.0000;0.0936;-1.0136;
582.3000;0.1009;-1.0023;
582.6000;0.0944;-1.0204;
582.9000;0.0977;-1.0181;
583.2000;0.0952;-1.0272;
583.5000;0.0944;-1.0227;
583.8000;0.0993;-1.0113;
584.1000;0.0977;-1.0272;
584.4000;0.0961;-1.0362;
584.7000;0.1018;-1.0317;
585.0000;0.0936;-1.0453;
585.3000;0.0952;-1.0385;
585.6000;0.0936;-1.0430;
585.9000;0.0928;-1.0498;
586.2000;0.0928;-1.0566;
586.5000;0.0952;-1.0498;
586.8000;0.0936;-1.0430;
587.1000;0.0977;-1.0272;
587.4000;0.1009;-1.0046;
587.7000;0.0961;-1.0159;
588.0000;0.0936;-1.0204;
588.3000;0.0952;-1.0227;
588.6000;0.0952;-1.0204;
588.9000;0.0977;-1.0159;
589.2000;0.0895;-1.0272;
589.5000;0.0961;-1.0181;
589.8000;0.1009;-1.0113;
590.1000;0.0977;-1.0227;
590.4000;0.0985;-1.0204;
590.7000;0.0985;-1.0294;
591.0000;0.0952;-1.0362;
591.3000;0.0969;-1.0272;
591.6000;0.0961;-1.0340;
591.9000;0.0961;-1.0249;
592.2000;0.1026;-1.0046;
592.5000;0.1018;-1.0091;
592.8000;0.0944;-1.0249;
593.1000;0.0879;-1.0521;
593.4000;0.0952;-1.0317;
593.7000;0.0944;-1.0362;
594.0000;0.0969;-1.0294;
594.3000;0.0936;-1.0340;
594.6000;0.0895;-1.0362;
594.9000;0.0936;-1.0294;
595.2000;0.0944;-1.0227;
595.5000;0.0977;-1.0227;
595.8000;0.0993;-1.0068;
596.1000;0.0977;-1.0091;
596.4000;0.0944;-1.0159;
596.7000;0.0961;-1.0272;
597.0000;0.0936;-1.0272;
597.3000;0.0863;-1.0430;
597.6000;0.0961;-1.0249;
597.9000;0.0936;-1.0317;
598.2000;0.0944;-1.0272;
598.5000;0.0961;-1.0249;
598.8000;0.0879;-1.0453;
599.1000;0.0961;-1.0272;
599.4000;0.0952;-1.0249;
599.7000;0.0928;-1.0317;
600.0000;0.0961;-1.0181;
600.3000;0.0969;-1.0317;
600.6000;0.0952;-1.0362;
600.9000;0.0895;-1.0475;
601.2000;0.0961;-1.0294;
601.5000;0.0944;-1.0340;
601.8000;0.0944;-1.0498;
602.1000;0.0936;-1.0475;
602.4000;0.0928;-1.0679;
602.7000;0.0944;-1.0747;
603.0000;0.0936;-1.0860;
603.3000;0.0952;-1.0770;
603.6000;0.0936;-1.0815;
603.9000;0.0936;-1.0951;
604.2000;0.0944;-1.0996;
604.5000;0.0936;-1.0928;
604.8000;0.0912;-1.0951;
605.1000;0.0952;-1.0973;
605.4000;0.0912;-1.1109;
605.7000;0.0904;-1.1154;
606.0000;0.0952;-1.1109;
606.3000;0.0977;-1.1109;
606.6000;0.1042;-1.0860;
606.9000;0.0920;-1.1154;
607.2000;0.0936;-1.1064;
607.5000;0.0936;-1.1018;
607.8000;0.0912;-1.1064;
608.1000;0.0944;-1.0928;
608.4000;0.1026;-1.0815;
608.7000;0.0790;-1.1539;
609.0000;0.0920;-1.1267;
609.3000;0.0871;-1.1290;
609.6000;0.0912;-1.1132;
609.9000;0.0904;-1.1199;
610.2000;0.0887;-1.1267;
610.5000;0.0895;-1.1267;
610.8000;0.0904;-1.1267;
611.1000;0.0928;-1.1177;
611.4000;0.0912;-1.1154;
611.7000;0.0912;-1.1109;
612.0000;0.0928;-1.1064;
612.3000;0.0855;-1.1177;
612.6000;0.0904;-1.1086;
612.9000;0.0863;-1.1064;
613.2000;0.0912;-1.0996;
613.5000;0.0887;-1.1018;
613.8000;0.0887;-1.1018;
614.1000;0.0928;-1.0815;
614.4000;0.0887;-1.0951;
614.7000;0.0985;-1.0770;
615.0000;0.0920;-1.0905;
615.3000;0.0912;-1.0951;
615.6000;0.0904;-1.1018;
615.9000;0.0871;-1.1154;
616.2000;0.0879;-1.1132;
616.5000;0.0993;-1.0747;
616.8000;0.0895;-1.0996;
617.1000;0.0895;-1.1018;
617.4000;0.0895;-1.1109;
617.7000;0.0904;-1.1064;
618.0000;0.0887;-1.1064;
618.3000;0.0912;-1.1064;
618.6000;0.0863;-1.1132;
618.9000;0.0912;-1.1064;
619.2000;0.0920;-1.0996;
619.5000;0.0863;-1.1154;
619.8000;0.0871;-1.1109;
620.1000;0.0855;-1.1109;
620.4000;0.0879;-1.0996;
620.7000;0.0904;-1.0905;
621.0000;0.0879;-1.0996;
621.3000;0.0895;-1.0996;
621.6000;0.0895;-1.1018;
621.9000;0.0887;-1.1064;
622.2000;0.0904;-1.1109;
622.5000;0.0879;-1.1199;
622.8000;0.0879;-1.1267;
623.1000;0.0887;-1.1313;
623.4000;0.0904;-1.1335;
623.7000;0.0895;-1.1380;
624.0000;0.0895;-1.1313;
624.3000;0.0904;-1.1245;
624.6000;0.0895;-1.1380;
624.9000;0.0871;-1.1448;
625.2000;0.0879;-1.1448;
625.5000;0.0887;-1.1403;
625.8000;0.0895;-1.1426;
626.1000;0.0887;-1.1380;
626.4000;0.0904;-1.1403;
626.7000;0.0879;-1.1380;
627.0000;0.0806;-1.1561;
627.3000;0.0895;-1.1177;
627.6000;0.0879;-1.1109;
627.9000;0.0879;-1.1132;
628.2000;0.0887;-1.1041;
628.5000;0.0863;-1.1018;
628.8000;0.0879;-1.1064;
629.1000;0.0855;-1.1132;
629.4000;0.0871;-1.1086;
629.7000;0.0920;-1.0928;
630.0000;0.0814;-1.1154;
630.3000;0.0855;-1.1109;
630.6000;0.0936;-1.0815;
630.9000;0.0969;-1.0815;
631.2000;0.0928;-1.0996;
631.5000;0.0879;-1.1154;
631.8000;0.0904;-1.0973;
632.1000;0.0863;-1.1132;
632.4000;0.0847;-1.1199;
632.7000;0.0733;-1.1426;
633.0000;0.0961;-1.0928;
633.3000;0.0871;-1.1199;
633.6000;0.0912;-1.1132;
633.9000;0.0879;-1.1199;
634.2000;0.0855;-1.1109;
634.5000;0.0863;-1.1132;
634.8000;0.0985;-1.0860;
635.1000;0.0895;-1.1177;
635.4000;0.0887;-1.1199;
635.7000;0.0855;-1.1267;
636.0000;0.0871;-1.1358;
636.3000;0.0871;-1.1426;
636.6000;0.0887;-1.1448;
636.9000;0.0912;-1.1426;
637.2000;0.0847;-1.1426;
637.5000;0.0863;-1.1380;
637.8000;0.0863;-1.1358;
638.1000;0.0887;-1.1380;
638.4000;0.0830;-1.1494;
638.7000;0.0855;-1.1403;
639.0000;0.0863;-1.1335;
639.3000;0.0838;-1.1448;
639.6000;0.0904;-1.1245;
639.9000;0.0879;-1.1290;
640.2000;0.0863;-1.1313;
640.5000;0.0912;-1.1199;
640.8000;0.0928;-1.1132;
641.1000;0.0863;-1.1335;
641.4000;0.0871;-1.1313;
641.7000;0.0879;-1.1290;
642.0000;0.0887;-1.1335;
642.3000;0.0838;-1.1426;
642.6000;0.0879;-1.1335;
642.9000;0.0847;-1.1358;
643.2000;0.0895;-1.1290;
643.5000;0.0855;-1.1358;
643.8000;0.0855;-1.1358;
644.1000;0.0863;-1.1245;
644.4000;0.0895;-1.1154;
644.7000;0.0863;-1.1245;
645.0000;0.0879;-1.1245;
645.3000;0.0879;-1.1154;
645.6000;0.0879;-1.1199;
645.9000;0.0879;-1.1267;
646.2000;0.0871;-1.1380;
646.5000;0.0879;-1.1335;
646.8000;0.0879;-1.1313;
647.1000;0.0895;-1.1335;
647.4000;0.0847;-1.1494;
647.7000;0.0838;-1.1494;
648.0000;0.0895;-1.1448;
648.3000;0.0879;-1.1426;
648.6000;0.0863;-1.1471;
648.9000;0.0855;-1.1403;
649.2000;0.0838;-1.1380;
649.5000;0.0887;-1.1177;
649.8000;0.0863;-1.1267;
650.1000;0.0855;-1.1380;
650.4000;0.0863;-1.1222;
650.7000;0.0863;-1.1222;
651.0000;0.0814;-1.1313;
651.3000;0.0863;-1.1245;
651.6000;0.0871;-1.1335;
651.9000;0.0863;-1.1335;
652.2000;0.0920;-1.1064;
652.5000;0.0830;-1.1290;
652.8000;0.0863;-1.1154;
653.1000;0.0863;-1.1109;
653.4000;0.0879;-1.1109;
653.7000;0.0855;-1.1199;
654.0000;0.0855;-1.1109;
654.3000;0.0871;-1.0996;
654.6000;0.0863;-1.1041;
654.9000;0.0830;-1.1132;
655.2000;0.0847;-1.1086;
655.5000;0.0798;-1.1222;
655.8000;0.0749;-1.1380;
656.1000;0.0879;-1.1064;
656.4000;0.0790;-1.1358;
656.7000;0.0838;-1.1154;
657.0000;0.0790;-1.1267;
657.3000;0.0961;-1.0815;
657.6000;0.0863;-1.1018;
657.9000;0.0765;-1.1245;
658.2000;0.0887;-1.0905;
658.5000;0.0936;-1.0770;
658.8000;0.0879;-1.0996;
659.1000;0.0887;-1.1018;
659.4000;0.0855;-1.1132;
659.7000;0.0879;-1.1154;
660.0000;0.0912;-1.1154;
660.3000;0.0904;-1.1154;
660.6000;0.0871;-1.1199;
660.9000;0.0838;-1.1313;
661.2000;0.0887;-1.1177;
661.5000;0.0879;-1.1177;
661.8000;0.0936;-1.1064;
662.1000;0.0879;-1.1199;
662.4000;0.0863;-1.1199;
662.7000;0.0855;-1.1267;
663.0000;0.0830;-1.1290;
663.3000;0.0863;-1.1380;
663.6000;0.0847;-1.1471;
663.9000;0.0855;-1.1403;
664.2000;0.0855;-1.1380;
664.5000;0.0822;-1.1426;
664.8000;0.0798;-1.1448;
665.1000;0.0936;-1.1177;
665.4000;0.0855;-1.1313;
665.7000;0.0773;-1.1561;
666.0000;0.0855;-1.1380;
666.3000;0.0871;-1.1358;
666.6000;0.0724;-1.1675;
666.9000;0.0871;-1.1335;
667.2000;0.0887;-1.1313;
667.5000;0.0879;-1.1380;
667.8000;0.0806;-1.1471;
668.1000;0.0871;-1.1448;
668.4000;0.0887;-1.1471;
668.7000;0.0863;-1.1516;
669.0000;0.0871;-1.1516;
669.3000;0.0847;-1.1494;
669.6000;0.0863;-1.1448;
669.9000;0.0887;-1.1403;
670.2000;0.0847;-1.1471;
670.5000;0.0863;-1.1448;
670.8000;0.0847;-1.1494;
671.1000;0.0863;-1.1448;
671.4000;0.0928;-1.1222;
671.7000;0.0863;-1.1471;
672.0000;0.0855;-1.1539;
672.3000;0.0863;-1.1539;
672.6000;0.0863;-1.1584;
672.9000;0.0961;-1.1335;
673.2000;0.0847;-1.1539;
673.5000;0.0871;-1.1494;
673.8000;0.0847;-1.1516;
674.1000;0.0863;-1.1426;
674.4000;0.0863;-1.1539;
674.7000;0.0863;-1.1516;
675.0000;0.0879;-1.1358;
675.3000;0.0871;-1.1426;
675.6000;0.0855;-1.1403;
675.9000;0.0847;-1.1448;
676.2000;0.0863;-1.1471;
676.5000;0.0863;-1.1448;
676.8000;0.0847;-1.1426;
677.1000;0.0814;-1.1561;
677.4000;0.0912;-1.1335;
677.7000;0.0904;-1.1245;
678.0000;0.0806;-1.1426;
678.3000;0.0847;-1.1358;
678.6000;0.0855;-1.1290;
678.9000;0.0879;-1.1222;
679.2000;0.0781;-1.1403;
679.5000;0.0855;-1.1245;
679.8000;0.0847;-1.1267;
680.1000;0.0798;-1.1358;
680.4000;0.0838;-1.1267;
680.7000;0.0871;-1.1199;
681.0000;0.0871;-1.1199;
681.3000;0.0741;-1.1516;
681.6000;0.0822;-1.1380;
681.9000;0.0961;-1.1086;
682.2000;0.0806;-1.1539;
682.5000;0.0895;-1.1358;
682.8000;0.0830;-1.1494;
683.1000;0.0692;-1.1765;
683.4000;0.0855;-1.1358;
683.7000;0.0871;-1.1222;
684.0000;0.0847;-1.1154;
684.3000;0.0790;-1.1177;
684.6000;0.0863;-1.1064;
684.9000;0.0871;-1.1086;
685.2000;0.0871;-1.1064;
685.5000;0.0847;-1.1177;
685.8000;0.0838;-1.1222;
686.1000;0.0773;-1.1448;
686.4000;0.0830;-1.1290;
686.7000;0.0871;-1.1245;
687.0000;0.0855;-1.1245;
687.3000;0.0814;-1.1313;
687.6000;0.0830;-1.1199;
687.9000;0.0904;-1.0996;
688.2000;0.0863;-1.1086;
688.5000;0.0798;-1.1313;
688.8000;0.0838;-1.1245;
689.1000;0.0895;-1.1132;
689.4000;0.0863;-1.1154;
689.7000;0.0887;-1.1086;
690.0000;0.0838;-1.1222;
690.3000;0.0855;-1.1222;
690.6000;0.0838;-1.1222;
690.9000;0.0847;-1.1199;
691.2000;0.0855;-1.1154;
691.5000;0.0895;-1.1154;
691.8000;0.0944;-1.0996;
692.1000;0.0863;-1.1290;
692.4000;0.0855;-1.1222;
692.7000;0.0863;-1.1290;
693.0000;0.0847;-1.1335;
693.3000;0.0830;-1.1335;
693.6000;0.0822;-1.1335;
693.9000;0.0847;-1.1290;
694.2000;0.0838;-1.1335;
694.5000;0.0806;-1.1426;
694.8000;0.0847;-1.1403;
695.1000;0.0830;-1.1448;
695.4000;0.0871;-1.1380;
695.7000;0.0863;-1.1426;
696.0000;0.0855;-1.1471;
696.3000;0.0855;-1.1426;
696.6000;0.0847;-1.1516;
696.9000;0.0855;-1.1471;
697.2000;0.0855;-1.1471;
697.5000;0.0830;-1.1539;
697.8000;0.0838;-1.1426;
698.1000;0.0847;-1.1290;
698.4000;0.0798;-1.1426;
698.7000;0.0830;-1.1403;
699.0000;0.0830;-1.1426;
699.3000;0.0765;-1.1584;
699.6000;0.0920;-1.1245;
699.9000;0.0838;-1.1448;
700.2000;0.0855;-1.1471;
700.5000;0.0855;-1.1358;
700.8000;0.0912;-1.1222;
701.1000;0.0773;-1.1584;
701.4000;0.0814;-1.1426;
701.7000;0.0871;-1.1335;
702.0000;0.0838;-1.1403;
702.3000;0.0855;-1.1448;
702.6000;0.0847;-1.1448;
702.9000;0.0855;-1.1358;
703.2000;0.0847;-1.1335;
703.5000;0.0781;-1.1539;
703.8000;0.0830;-1.1313;
704.1000;0.0781;-1.1448;
704.4000;0.0838;-1.1290;
704.7000;0.0822;-1.1380;
705.0000;0.0838;-1.1403;
705.3000;0.0838;-1.1426;
705.6000;0.0855;-1.1403;
705.9000;0.0847;-1.1539;
706.2000;0.0830;-1.1629;
706.5000;0.0847;-1.1675;
706.8000;0.0887;-1.1539;
707.1000;0.0863;-1.1539;
707.4000;0.0855;-1.1561;
707.7000;0.0838;-1.1607;
708.0000;0.0863;-1.1494;
708.3000;0.0855;-1.1380;
708.6000;0.0838;-1.1380;
708.9000;0.0822;-1.1290;
709.2000;0.0798;-1.1358;
709.5000;0.0871;-1.1267;
709.8000;0.0871;-1.1245;
710.1000;0.0830;-1.1290;
710.4000;0.0847;-1.1245;
710.7000;0.0830;-1.1222;
711.0000;0.0814;-1.1267;
711.3000;0.0822;-1.1403;
711.6000;0.0814;-1.1448;
711.9000;0.0838;-1.1426;
712.2000;0.0830;-1.1380;
712.5000;0.0863;-1.1290;
712.8000;0.0847;-1.1335;
713.1000;0.0838;-1.1313;
713.4000;0.0847;-1.1267;
713.7000;0.0822;-1.1335;
714.0000;0.0887;-1.1245;
714.3000;0.0847;-1.1380;
714.6000;0.0847;-1.1335;
714.9000;0.0855;-1.1267;
715.2000;0.0847;-1.1290;
715.5000;0.0733;-1.1629;
715.8000;0.0863;-1.1222;
716.1000;0.0814;-1.1335;
716.4000;0.0838;-1.1267;
716.7000;0.0871;-1.1199;
717.0000;0.0863;-1.1245;
717.3000;0.0855;-1.1267;
717.6000;0.0830;-1.1290;
717.9000;0.0847;-1.1267;
718.2000;0.0895;-1.1199;
718.5000;0.0863;-1.1335;
718.8000;0.0830;-1.1403;
719.1000;0.0830;-1.1494;
719.4000;0.0838;-1.1358;
719.7000;0.0838;-1.1313;
720.0000;0.0855;-1.1199;
720.3000;0.0830;-1.1313;
720.6000;0.0855;-1.1313;
720.9000;0.0838;-1.1358;
721.2000;0.0830;-1.1358;
721.5000;0.0863;-1.1358;
721.8000;0.0863;-1.1313;
722.1000;0.0871;-1.1313;
722.4000;0.0847;-1.1403;
722.7000;0.0920;-1.1222;
723.0000;0.0855;-1.1380;
723.3000;0.0871;-1.1335;
723.6000;0.0879;-1.1313;
723.9000;0.0757;-1.1652;
724.2000;0.0822;-1.1494;
724.5000;0.0814;-1.1516;
724.8000;0.0847;-1.1471;
725.1000;0.0847;-1.1471;
725.4000;0.0822;-1.1539;
725.7000;0.0855;-1.1448;
726.0000;0.0838;-1.1448;
726.3000;0.0830;-1.1448;
726.6000;0.0847;-1.1403;
726.9000;0.0855;-1.1335;
727.2000;0.0830;-1.1313;
727.5000;0.0838;-1.1313;
727.8000;0.0847;-1.1358;
728.1000;0.0871;-1.1313;
728.4000;0.0863;-1.1358;
728.7000;0.0887;-1.1267;
729.0000;0.0822;-1.1335;
729.3000;0.0855;-1.1245;
729.6000;0.0838;-1.1313;
729.9000;0.0838;-1.1335;
730.2000;0.0863;-1.1199;
730.5000;0.0838;-1.1313;
730.8000;0.0855;-1.1380;
731.1000;0.0847;-1.1358;
731.4000;0.0830;-1.1335;
731.7000;0.0830;-1.1335;
732.0000;0.0847;-1.1335;
732.3000;0.0847;-1.1267;
732.6000;0.0863;-1.1267;
732.9000;0.0847;-1.1290;
733.2000;0.0871;-1.1199;
733.5000;0.0847;-1.1358;
733.8000;0.0806;-1.1516;
734.1000;0.0814;-1.1539;
734.4000;0.0830;-1.1426;
734.7000;0.0798;-1.1561;
735.0000;0.0838;-1.1539;
735.3000;0.0863;-1.1539;
735.6000;0.0830;-1.1494;
735.9000;0.0863;-1.1426;
736.2000;0.0863;-1.1448;
736.5000;0.0871;-1.1448;
736.8000;0.0830;-1.1448;
737.1000;0.0863;-1.1494;
737.4000;0.0920;-1.1245;
737.7000;0.0847;-1.1313;
738.0000;0.0847;-1.1448;
738.3000;0.0830;-1.1516;
738.6000;0.0855;-1.1471;
738.9000;0.0822;-1.1607;
739.2000;0.0790;-1.1539;
739.5000;0.0847;-1.1380;
739.8000;0.0847;-1.1426;
740.1000;0.0838;-1.1448;
740.4000;0.0847;-1.1561;
740.7000;0.0847;-1.1584;
741.0000;0.0855;-1.1584;
741.3000;0.0855;-1.1584;
741.6000;0.0847;-1.1561;
741.9000;0.0855;-1.1471;
742.2000;0.0863;-1.1516;
742.5000;0.0855;-1.1448;
742.8000;0.0814;-1.1471;
743.1000;0.0830;-1.1471;
743.4000;0.0847;-1.1380;
743.7000;0.0830;-1.1426;
744.0000;0.0830;-1.1380;
744.3000;0.0838;-1.1335;
744.6000;0.0912;-1.1199;
744.9000;0.0855;-1.1380;
745.2000;0.0871;-1.1290;
745.5000;0.0879;-1.1335;
745.8000;0.0847;-1.1448;
746.1000;0.0838;-1.1403;
746.4000;0.0847;-1.1403;
746.7000;0.0847;-1.1426;
747.0000;0.0814;-1.1494;
747.3000;0.0838;-1.1380;
747.6000;0.0855;-1.1403;
747.9000;0.0912;-1.1267;
748.2000;0.0838;-1.1380;
748.5000;0.0855;-1.1380;
748.8000;0.0863;-1.1335;
749.1000;0.0838;-1.1358;
749.4000;0.0863;-1.1313;
749.7000;0.0830;-1.1335;
750.0000;0.0847;-1.1358;
750.3000;0.0838;-1.1358;
750.6000;0.0830;-1.1358;
750.9000;0.0855;-1.1313;
751.2000;0.0838;-1.1426;
751.5000;0.0961;-1.1222;
751.8000;0.0855;-1.1448;
752.1000;0.0887;-1.1448;
752.4000;0.0855;-1.1584;
752.7000;0.0847;-1.1584;
753.0000;0.0838;-1.1516;
753.3000;0.0733;-1.1810;
753.6000;0.0838;-1.1561;
753.9000;0.0847;-1.1448;
754.2000;0.0781;-1.1652;
754.5000;0.1026;-1.1041;
754.8000;0.0847;-1.1403;
755.1000;0.0855;-1.1426;
755.4000;0.0847;-1.1403;
755.7000;0.0863;-1.1358;
756.0000;0.0838;-1.1426;
756.3000;0.0838;-1.1494;
756.6000;0.0855;-1.1471;
756.9000;0.0716;-1.1742;
757.2000;0.0830;-1.1448;
757.5000;0.0822;-1.1516;
757.8000;0.0855;-1.1290;
758.1000;0.0830;-1.1358;
758.4000;0.0830;-1.1403;
758.7000;0.0847;-1.1380;
759.0000;0.0863;-1.1380;
759.3000;0.0895;-1.1245;
759.6000;0.0855;-1.1448;
759.9000;0.0855;-1.1335;
760.2000;0.0830;-1.1335;
760.5000;0.0855;-1.1313;
760.8000;0.0838;-1.1380;
761.1000;0.0838;-1.1426;
761.4000;0.0830;-1.1516;
761.7000;0.0822;-1.1607;
762.0000;0.0871;-1.1584;
762.3000;0.0855;-1.1448;
762.6000;0.0855;-1.1403;
762.9000;0.0830;-1.1516;
763.2000;0.0708;-1.1765;
763.5000;0.0847;-1.1380;
763.8000;0.0822;-1.1380;
764.1000;0.0871;-1.1290;
764.4000;0.0895;-1.1199;
764.7000;0.0847;-1.1380;
765.0000;0.0855;-1.1335;
765.3000;0.0830;-1.1403;
765.6000;0.0847;-1.1471;
765.9000;0.0847;-1.1494;
766.2000;0.0895;-1.1358;
766.5000;0.0847;-1.1539;
766.8000;0.0847;-1.1561;
767.1000;0.0855;-1.1426;
767.4000;0.0822;-1.1494;
767.7000;0.0855;-1.1403;
768.0000;0.0879;-1.1335;
768.3000;0.0847;-1.1358;
768.6000;0.0904;-1.1290;
768.9000;0.0961;-1.1086;
769.2000;0.0838;-1.1380;
769.5000;0.0863;-1.1358;
769.8000;0.0765;-1.1584;
770.1000;0.0830;-1.1426;
770.4000;0.0733;-1.1584;
770.7000;0.0838;-1.1358;
771.0000;0.0741;-1.1539;
771.3000;0.0773;-1.1516;
771.6000;0.0847;-1.1313;
771.9000;0.0847;-1.1245;
772.2000;0.0830;-1.1267;
772.5000;0.0879;-1.1154;
772.8000;0.0863;-1.1222;
773.1000;0.0822;-1.1267;
773.4000;0.0781;-1.1380;
773.7000;0.0830;-1.1199;
774.0000;0.0855;-1.1177;
774.3000;0.0847;-1.1109;
774.6000;0.0847;-1.1154;
774.9000;0.0838;-1.1245;
775.2000;0.0822;-1.1290;
775.5000;0.0830;-1.1245;
775.8000;0.0814;-1.1290;
776.1000;0.0814;-1.1358;
776.4000;0.0863;-1.1313;
776.7000;0.0847;-1.1313;
777.0000;0.0806;-1.1539;
777.3000;0.0871;-1.1358;
777.6000;0.0847;-1.1335;
777.9000;0.0773;-1.1607;
778.2000;0.0838;-1.1494;
778.5000;0.0830;-1.1516;
778.8000;0.0838;-1.1448;
779.1000;0.0806;-1.1607;
779.4000;0.0684;-1.2059;
779.7000;0.0822;-1.1629;
780.0000;0.0847;-1.1494;
780.3000;0.0724;-1.1788;
780.6000;0.0830;-1.1403;
780.9000;0.0830;-1.1267;
781.2000;0.1001;-1.0837;
781.5000;0.0822;-1.1290;
781.8000;0.0838;-1.1177;
782.1000;0.0847;-1.1109;
782.4000;0.0830;-1.1132;
782.7000;0.0847;-1.1086;
783.0000;0.0928;-1.0928;
783.3000;0.0838;-1.1132;
783.6000;0.0830;-1.1177;
783.9000;0.0847;-1.1245;
784.2000;0.0863;-1.1267;
784.5000;0.0814;-1.1358;
784.8000;0.0798;-1.1380;
785.1000;0.0830;-1.1245;
785.4000;0.0830;-1.1313;
785.7000;0.0847;-1.1245;
786.0000;0.0985;-1.0860;
786.3000;0.0781;-1.1313;
786.6000;0.0838;-1.1177;
786.9000;0.0863;-1.1177;
787.2000;0.0863;-1.1086;
787.5000;0.0855;-1.1086;
787.8000;0.0855;-1.1154;
788.1000;0.0928;-1.0973;
788.4000;0.0887;-1.1041;
788.7000;0.0847;-1.1109;
789.0000;0.0863;-1.1109;
789.3000;0.0814;-1.1177;
789.6000;0.0765;-1.1222;
789.9000;0.0741;-1.1313;
790.2000;0.0855;-1.1109;
790.5000;0.0838;-1.1132;
790.8000;0.0855;-1.1177;
791.1000;0.0847;-1.1222;
791.4000;0.0855;-1.1267;
791.7000;0.0838;-1.1245;
792.0000;0.0912;-1.1132;
792.3000;0.0855;-1.1222;
792.6000;0.0790;-1.1403;
792.9000;0.0920;-1.1041;
793.2000;0.0838;-1.1290;
793.5000;0.0838;-1.1267;
793.8000;0.0822;-1.1267;
794.1000;0.0863;-1.1109;
794.4000;0.0871;-1.1041;
794.7000;0.0847;-1.1064;
795.0000;0.0863;-1.1018;
795.3000;0.0838;-1.1041;
795.6000;0.0838;-1.1041;
795.9000;0.0863;-1.1109;
796.2000;0.0855;-1.1064;
796.5000;0.0790;-1.1267;
796.8000;0.0863;-1.1177;
797.1000;0.0838;-1.1290;
797.4000;0.0863;-1.1199;
797.7000;0.0830;-1.1290;
798.0000;0.0830;-1.1199;
798.3000;0.0838;-1.1154;
798.6000;0.0855;-1.1086;
798.9000;0.0749;-1.1403;
799.2000;0.0822;-1.1199;
799.5000;0.0814;-1.1267;
799.8000;0.0863;-1.1154;
800.1000;0.0830;-1.1177;
800.4000;0.0847;-1.1222;
800.7000;0.0838;-1.1290;
801.0000;0.0822;-1.1313;
801.3000;0.0814;-1.1290;
801.6000;0.0806;-1.1290;
801.9000;0.0847;-1.1267;
802.2000;0.0838;-1.1290;
802.5000;0.0838;-1.1267;
802.8000;0.0838;-1.1199;
803.1000;0.0822;-1.1199;
803.4000;0.0822;-1.1177;
803.7000;0.0838;-1.1086;
804.0000;0.0838;-1.1154;
804.3000;0.0806;-1.1245;
804.6000;0.0838;-1.1199;
804.9000;0.0790;-1.1245;
805.2000;0.0822;-1.1154;
805.5000;0.0798;-1.1177;
805.8000;0.0912;-1.0905;
806.1000;0.0871;-1.1041;
806.4000;0.0838;-1.1177;
806.7000;0.0790;-1.1245;
807.0000;0.0790;-1.1290;
807.3000;0.0855;-1.1132;
807.6000;0.0838;-1.1154;
807.9000;0.0847;-1.1109;
808.2000;0.0765;-1.1358;
808.5000;0.0830;-1.1199;
808.8000;0.0879;-1.1041;
809.1000;0.0830;-1.1109;
809.4000;0.0830;-1.1041;
809.7000;0.0822;-1.0905;
810.0000;0.0871;-1.0928;
810.3000;0.0806;-1.1154;
810.6000;0.0822;-1.1086;
810.9000;0.0830;-1.1109;
811.2000;0.0847;-1.1064;
811.5000;0.0822;-1.1132;
811.8000;0.0798;-1.1222;
812.1000;0.0773;-1.1199;
812.4000;0.0830;-1.1064;
812.7000;0.0838;-1.0996;
813.0000;0.0847;-1.1064;
813.3000;0.0814;-1.1132;
813.6000;0.0847;-1.1041;
813.9000;0.0822;-1.1064;
814.2000;0.0798;-1.1154;
814.5000;0.0798;-1.1132;
814.8000;0.0814;-1.1154;
815.1000;0.0838;-1.1018;
815.4000;0.0847;-1.0996;
815.7000;0.0822;-1.1132;
816.0000;0.0838;-1.1199;
816.3000;0.0765;-1.1426;
816.6000;0.0781;-1.1335;
816.9000;0.0822;-1.1245;
817.2000;0.0855;-1.1086;
817.5000;0.0830;-1.1199;
817.8000;0.0806;-1.1245;
818.1000;0.0855;-1.1199;
818.4000;0.0855;-1.1132;
818.7000;0.0814;-1.1380;
819.0000;0.0936;-1.1086;
819.3000;0.0798;-1.1448;
819.6000;0.0781;-1.1448;
819.9000;0.0838;-1.1267;
820.2000;0.0822;-1.1267;
820.5000;0.0806;-1.1290;
820.8000;0.0814;-1.1313;
821.1000;0.0847;-1.1245;
821.4000;0.0773;-1.1380;
821.7000;0.0814;-1.1177;
822.0000;0.0830;-1.1177;
822.3000;0.0830;-1.1154;
822.6000;0.0863;-1.1109;
822.9000;0.0798;-1.1132;
823.2000;0.0838;-1.1064;
823.5000;0.0806;-1.1018;
823.8000;0.0838;-1.0928;
824.1000;0.0847;-1.0860;
824.4000;0.0781;-1.1064;
824.7000;0.0822;-1.1018;
825.0000;0.0863;-1.0905;
825.3000;0.0838;-1.0951;
825.6000;0.0830;-1.1154;
825.9000;0.0822;-1.1222;
826.2000;0.0814;-1.1222;
826.5000;0.0904;-1.1132;
826.8000;0.0814;-1.1290;
827.1000;0.0838;-1.1290;
827.4000;0.0830;-1.1267;
827.7000;0.0830;-1.1199;
828.0000;0.0806;-1.1177;
828.3000;0.0847;-1.1177;
828.6000;0.0847;-1.1177;
828.9000;0.0863;-1.1018;
829.2000;0.0838;-1.1064;
829.5000;0.0838;-1.1086;
829.8000;0.0855;-1.0973;
830.1000;0.0790;-1.1086;
830.4000;0.0814;-1.1041;
830.7000;0.0822;-1.1018;
831.0000;0.0847;-1.1018;
831.3000;0.0741;-1.1426;
831.6000;0.0847;-1.1109;
831.9000;0.0781;-1.1222;
832.2000;0.0830;-1.1086;
832.5000;0.0847;-1.1086;
832.8000;0.0757;-1.1313;
833.1000;0.0928;-1.0747;
833.4000;0.0822;-1.1132;
833.7000;0.0814;-1.1086;
834.0000;0.0814;-1.1109;
834.3000;0.0822;-1.1154;
834.6000;0.0830;-1.1177;
834.9000;0.0684;-1.1494;
835.2000;0.0830;-1.1222;
835.5000;0.0822;-1.1290;
835.8000;0.0798;-1.1335;
836.1000;0.0814;-1.1267;
836.4000;0.0830;-1.1245;
836.7000;0.0814;-1.1290;
837.0000;0.0838;-1.1290;
837.3000;0.0838;-1.1335;
837.6000;0.0822;-1.1358;
837.9000;0.0863;-1.1290;
838.2000;0.0830;-1.1358;
838.5000;0.0822;-1.1358;
838.8000;0.0798;-1.1358;
839.1000;0.0871;-1.1267;
839.4000;0.0912;-1.1132;
839.7000;0.0806;-1.1313;
840.0000;0.0904;-1.1086;
840.3000;0.0814;-1.1335;
840.6000;0.0838;-1.1267;
840.9000;0.0822;-1.1290;
841.2000;0.0830;-1.1222;
841.5000;0.0847;-1.1222;
841.8000;0.0879;-1.1245;
842.1000;0.0798;-1.1426;
842.4000;0.0806;-1.1335;
842.7000;0.0830;-1.1222;
843.0000;0.0838;-1.1132;
843.3000;0.0806;-1.1222;
843.6000;0.0822;-1.1154;
843.9000;0.0904;-1.0905;
844.2000;0.0822;-1.1064;
844.5000;0.0838;-1.1064;
844.8000;0.0830;-1.1109;
845.1000;0.0847;-1.1154;
845.4000;0.0847;-1.1109;
845.7000;0.0830;-1.1132;
846.0000;0.0733;-1.1358;
846.3000;0.0814;-1.1177;
846.6000;0.0838;-1.1154;
846.9000;0.0838;-1.1109;
847.2000;0.0838;-1.1086;
847.5000;0.0814;-1.1132;
847.8000;0.0798;-1.1245;
848.1000;0.0822;-1.1154;
848.4000;0.0806;-1.1335;
848.7000;0.0838;-1.1222;
849.0000;0.0830;-1.1222;
849.3000;0.0830;-1.1132;
849.6000;0.0822;-1.1132;
849.9000;0.0822;-1.1154;
850.2000;0.0814;-1.1199;
850.5000;0.0863;-1.1199;
850.8000;0.0814;-1.1335;
851.1000;0.0822;-1.1199;
851.4000;0.0847;-1.1132;
851.7000;0.0855;-1.1154;
852.0000;0.0838;-1.1132;
852.3000;0.0822;-1.1177;
852.6000;0.0871;-1.1132;
852.9000;0.0847;-1.1154;
853.2000;0.0838;-1.1132;
853.5000;0.0822;-1.1132;
853.8000;0.0830;-1.1064;
854.1000;0.0798;-1.1177;
854.4000;0.0830;-1.0996;
854.7000;0.0814;-1.0973;
855.0000;0.0806;-1.1132;
855.3000;0.0822;-1.1177;
855.6000;0.0830;-1.1064;
855.9000;0.0879;-1.0905;
856.2000;0.0863;-1.1018;
856.5000;0.0814;-1.1109;
856.8000;0.0676;-1.1426;
857.1000;0.0781;-1.1267;
857.4000;0.0806;-1.1177;
857.7000;0.0830;-1.1109;
858.0000;0.0814;-1.1290;
858.3000;0.0838;-1.1290;
858.6000;0.0838;-1.1245;
858.9000;0.0838;-1.1245;
859.2000;0.0830;-1.1177;
859.5000;0.0855;-1.1132;
859.8000;0.0814;-1.1222;
860.1000;0.0838;-1.1154;
860.4000;0.0806;-1.1222;
860.7000;0.0806;-1.1222;
861.0000;0.0822;-1.1222;
861.3000;0.0822;-1.1245;
861.6000;0.0741;-1.1426;
861.9000;0.0814;-1.1245;
862.2000;0.0855;-1.1132;
862.5000;0.0847;-1.1177;
862.8000;0.0830;-1.1222;
863.1000;0.0822;-1.1290;
863.4000;0.0830;-1.1177;
863.7000;0.0814;-1.1154;
864.0000;0.0790;-1.1245;
864.3000;0.0838;-1.1177;
864.6000;0.0798;-1.1222;
864.9000;0.0814;-1.1154;
865.2000;0.0700;-1.1516;
865.5000;0.0798;-1.1245;
865.8000;0.0830;-1.1154;
866.1000;0.0822;-1.1132;
866.4000;0.0757;-1.1290;
866.7000;0.0855;-1.1018;
867.0000;0.0830;-1.1064;
867.3000;0.0855;-1.1018;
867.6000;0.0838;-1.0996;
867.9000;0.0838;-1.0996;
868.2000;0.0855;-1.1018;
868.5000;0.0798;-1.1064;
868.8000;0.0920;-1.0837;
869.1000;0.0806;-1.1154;
869.4000;0.0822;-1.1154;
869.7000;0.0847;-1.1086;
870.0000;0.0822;-1.1154;
870.3000;0.0822;-1.1199;
870.6000;0.0765;-1.1380;
870.9000;0.0830;-1.1222;
871.2000;0.0830;-1.1222;
871.5000;0.0830;-1.1177;
871.8000;0.0830;-1.1290;
872.1000;0.0855;-1.1313;
872.4000;0.0806;-1.1380;
872.7000;0.0838;-1.1290;
873.0000;0.0838;-1.1267;
873.3000;0.0855;-1.1290;
873.6000;0.0830;-1.1426;
873.9000;0.0838;-1.1335;
874.2000;0.0806;-1.1380;
874.5000;0.0814;-1.1290;
874.8000;0.0716;-1.1539;
875.1000;0.0806;-1.1267;
875.4000;0.0847;-1.1154;
875.7000;0.0806;-1.1290;
876.0000;0.0871;-1.1222;
876.3000;0.0952;-1.0905;
876.6000;0.0814;-1.1313;
876.9000;0.0928;-1.0996;
877.2000;0.0814;-1.1267;
877.5000;0.0847;-1.1222;
877.8000;0.0830;-1.1245;
878.1000;0.0781;-1.1222;
878.4000;0.0822;-1.1109;
878.7000;0.0879;-1.0996;
879.0000;0.0904;-1.0905;
879.3000;0.0781;-1.1199;
879.6000;0.0920;-1.0860;
879.9000;0.0830;-1.0996;
880.2000;0.0855;-1.0905;
880.5000;0.0871;-1.0860;
880.8000;0.0806;-1.1086;
881.1000;0.0847;-1.1064;
881.4000;0.0814;-1.1086;
881.7000;0.0830;-1.0973;
882.0000;0.0887;-1.0905;
882.3000;0.0781;-1.1154;
882.6000;0.0838;-1.1064;
882.9000;0.0904;-1.0928;
883.2000;0.0830;-1.1064;
883.5000;0.0814;-1.1064;
883.8000;0.0830;-1.0996;
884.1000;0.0822;-1.1086;
884.4000;0.0830;-1.1018;
884.7000;0.0855;-1.0996;
885.0000;0.0830;-1.0951;
885.3000;0.0814;-1.0951;
885.6000;0.0643;-1.1335;
885.9000;0.0847;-1.0905;
886.2000;0.0887;-1.0928;
886.5000;0.0798;-1.1222;
886.8000;0.0830;-1.1199;
887.1000;0.0838;-1.1267;
887.4000;0.0830;-1.1245;
887.7000;0.0847;-1.1222;
888.0000;0.0806;-1.1313;
888.3000;0.0830;-1.1358;
888.6000;0.0838;-1.1290;
888.9000;0.0790;-1.1267;
889.2000;0.0708;-1.1380;
889.5000;0.0822;-1.1109;
889.8000;0.0912;-1.0905;
890.1000;0.0806;-1.1199;
890.4000;0.0781;-1.1313;
890.7000;0.0814;-1.1177;
891.0000;0.0822;-1.1109;
891.3000;0.0838;-1.1132;
891.6000;0.0822;-1.1064;
891.9000;0.0716;-1.1358;
892.2000;0.0806;-1.1064;
892.5000;0.0798;-1.1086;
892.8000;0.0838;-1.1041;
893.1000;0.0822;-1.0951;
893.4000;0.0781;-1.1041;
893.7000;0.0912;-1.0792;
894.0000;0.0798;-1.1086;
894.3000;0.0773;-1.1109;
894.6000;0.0749;-1.1154;
894.9000;0.0847;-1.0860;
895.2000;0.0822;-1.0905;
895.5000;0.0733;-1.1245;
895.8000;0.0733;-1.1290;
896.1000;0.0847;-1.0996;
896.4000;0.0830;-1.1041;
896.7000;0.0806;-1.0905;
897.0000;0.0798;-1.0883;
897.3000;0.0781;-1.1018;
897.6000;0.0830;-1.0928;
897.9000;0.0830;-1.1041;
898.2000;0.0806;-1.1132;
898.5000;0.0822;-1.1086;
898.8000;0.0838;-1.1109;
899.1000;0.0806;-1.1199;
899.4000;0.0847;-1.1245;
899.7000;0.0830;-1.1290;
900.0000;0.0830;-1.1313;
900.3000;0.0822;-1.1290;
900.6000;0.0814;-1.1313;
900.9000;0.0806;-1.1222;
901.2000;0.0806;-1.1222;
901.5000;0.0847;-1.1177;
901.8000;0.0830;-1.1245;
902.1000;0.0822;-1.1290;
902.4000;0.0830;-1.1267;
902.7000;0.0920;-1.0996;
903.0000;0.0814;-1.1245;
903.3000;0.0838;-1.1267;
903.6000;0.0871;-1.1199;
903.9000;0.0838;-1.1245;
904.2000;0.0814;-1.1380;
904.5000;0.0855;-1.1335;
904.8000;0.0830;-1.1380;
905.1000;0.0814;-1.1335;
905.4000;0.0790;-1.1471;
905.7000;0.0814;-1.1358;
906.0000;0.0838;-1.1245;
906.3000;0.0814;-1.1245;
906.6000;0.0822;-1.1199;
906.9000;0.0814;-1.1222;
907.2000;0.0855;-1.1154;
907.5000;0.0847;-1.1132;
907.8000;0.0847;-1.1109;
908.1000;0.0838;-1.1132;
908.4000;0.0700;-1.1380;
908.7000;0.0838;-1.1132;
909.0000;0.0822;-1.1109;
909.3000;0.0814;-1.1109;
909.6000;0.0830;-1.1132;
909.9000;0.0830;-1.0996;
910.2000;0.0936;-1.0747;
910.5000;0.0798;-1.1086;
910.8000;0.0790;-1.1177;
911.1000;0.0887;-1.0996;
911.4000;0.0822;-1.1267;
911.7000;0.0822;-1.1132;
912.0000;0.0838;-1.1132;
912.3000;0.0676;-1.1675;
912.6000;0.0871;-1.1177;
912.9000;0.0822;-1.1177;
913.2000;0.0806;-1.1154;
913.5000;0.0806;-1.1177;
913.8000;0.0765;-1.1313;
914.1000;0.0838;-1.1177;
914.4000;0.0822;-1.1154;
914.7000;0.0781;-1.1199;
915.0000;0.0814;-1.1132;
915.3000;0.0871;-1.1018;
915.6000;0.0814;-1.1109;
915.9000;0.0822;-1.0996;
916.2000;0.0822;-1.1041;
916.5000;0.0871;-1.1041;
916.8000;0.0822;-1.1132;
917.1000;0.0830;-1.1109;
917.4000;0.0830;-1.1086;
917.7000;0.0806;-1.1199;
918.0000;0.0855;-1.1132;
918.3000;0.0838;-1.1222;
918.6000;0.0822;-1.1267;
918.9000;0.0830;-1.1245;
919.2000;0.0822;-1.1335;
919.5000;0.0830;-1.1267;
919.8000;0.0781;-1.1358;
920.1000;0.0822;-1.1313;
920.4000;0.0912;-1.1109;
920.7000;0.0830;-1.1290;
921.0000;0.0798;-1.1313;
921.3000;0.0822;-1.1313;
921.6000;0.0806;-1.1380;
921.9000;0.0814;-1.1222;
922.2000;0.0814;-1.1267;
922.5000;0.0814;-1.1335;
922.8000;0.0863;-1.1199;
923.1000;0.0847;-1.1177;
923.4000;0.0830;-1.1290;
923.7000;0.0838;-1.1154;
924.0000;0.0822;-1.1177;
924.3000;0.0814;-1.1177;
924.6000;0.0806;-1.1109;
924.9000;0.0969;-1.0702;
925.2000;0.0838;-1.1018;
925.5000;0.0830;-1.0973;
925.8000;0.0855;-1.0837;
926.1000;0.0806;-1.0928;
926.4000;0.0830;-1.0860;
926.7000;0.0830;-1.0973;
927.0000;0.0887;-1.0883;
927.3000;0.0847;-1.1064;
927.6000;0.0798;-1.1199;
927.9000;0.0822;-1.1132;
928.2000;0.0822;-1.1222;
928.5000;0.0830;-1.1245;
928.8000;0.0863;-1.1086;
929.1000;0.0944;-1.0860;
929.4000;0.0814;-1.1177;
929.7000;0.0830;-1.1086;
930.0000;0.0798;-1.1109;
930.3000;0.0814;-1.1199;
930.6000;0.0838;-1.1064;
930.9000;0.0847;-1.1018;
931.2000;0.0798;-1.1109;
931.5000;0.0798;-1.1109;
931.8000;0.0847;-1.0996;
932.1000;0.0855;-1.1041;
932.4000;0.0830;-1.1154;
932.7000;0.0838;-1.1199;
933.0000;0.0838;-1.1290;
933.3000;0.0830;-1.1313;
933.6000;0.0871;-1.1154;
933.9000;0.0847;-1.1199;
934.2000;0.0912;-1.0973;
934.5000;0.0814;-1.1290;
934.8000;0.0814;-1.1290;
935.1000;0.0912;-1.1154;
935.4000;0.0822;-1.1358;
935.7000;0.0798;-1.1358;
936.0000;0.0814;-1.1313;
936.3000;0.0822;-1.1290;
936.6000;0.0798;-1.1290;
936.9000;0.0822;-1.1222;
937.2000;0.0757;-1.1426;
937.5000;0.0814;-1.1290;
937.8000;0.0790;-1.1313;
938.1000;0.0838;-1.1154;
938.4000;0.0814;-1.1199;
938.7000;0.0830;-1.1132;
939.0000;0.0830;-1.1177;
939.3000;0.0830;-1.1132;
939.6000;0.0830;-1.1086;
939.9000;0.0830;-1.1041;
940.2000;0.0814;-1.1086;
940.5000;0.0814;-1.1109;
940.8000;0.0838;-1.0996;
941.1000;0.0838;-1.0928;
941.4000;0.0798;-1.0996;
941.7000;0.0838;-1.0905;
942.0000;0.0790;-1.1041;
942.3000;0.0838;-1.1041;
942.6000;0.0830;-1.1154;
942.9000;0.0822;-1.1177;
943.2000;0.0847;-1.1199;
943.5000;0.0847;-1.1154;
943.8000;0.0790;-1.1199;
944.1000;0.0798;-1.1177;
944.4000;0.0838;-1.1064;
944.7000;0.0838;-1.1086;
945.0000;0.0814;-1.1154;
945.3000;0.0822;-1.1154;
945.6000;0.0822;-1.1132;
945.9000;0.0806;-1.1177;
946.2000;0.0822;-1.1199;
946.5000;0.0838;-1.1245;
946.8000;0.0806;-1.1245;
947.1000;0.0830;-1.1154;
947.4000;0.0790;-1.1335;
947.7000;0.0814;-1.1313;
948.0000;0.0863;-1.1109;
948.3000;0.0814;-1.1177;
948.6000;0.0798;-1.1199;
948.9000;0.0798;-1.1245;
949.2000;0.0838;-1.1132;
949.5000;0.0814;-1.1177;
949.8000;0.0822;-1.1199;
950.1000;0.0920;-1.1018;
950.4000;0.0798;-1.1335;
950.7000;0.0814;-1.1313;
951.0000;0.0757;-1.1403;
951.3000;0.0806;-1.1290;
951.6000;0.0822;-1.1267;
951.9000;0.0838;-1.1177;
952.2000;0.0806;-1.1245;
952.5000;0.0838;-1.1132;
952.8000;0.0822;-1.1267;
953.1000;0.0773;-1.1335;
953.4000;0.0830;-1.1154;
953.7000;0.0830;-1.1177;
954.0000;0.0830;-1.1199;
954.3000;0.0798;-1.1267;
954.6000;0.0863;-1.1018;
954.9000;0.0814;-1.1177;
955.2000;0.0838;-1.1064;
955.5000;0.0822;-1.1086;
955.8000;0.0830;-1.1064;
956.1000;0.0814;-1.1132;
956.4000;0.0757;-1.1403;
956.7000;0.0781;-1.1290;
957.0000;0.0822;-1.1154;
957.3000;0.0855;-1.1064;
957.6000;0.0830;-1.1086;
957.9000;0.0806;-1.1086;
958.2000;0.0855;-1.1064;
958.5000;0.0863;-1.1109;
958.8000;0.0847;-1.1132;
959.1000;0.0838;-1.1041;
959.4000;0.0822;-1.1018;
959.7000;0.0887;-1.0883;
960.0000;0.0806;-1.1177;
960.3000;0.0773;-1.1358;
960.6000;0.0822;-1.1199;
960.9000;0.0806;-1.1177;
961.2000;0.0863;-1.1018;
961.5000;0.0822;-1.1132;
961.8000;0.0822;-1.1154;
962.1000;0.0863;-1.1132;
962.4000;0.0790;-1.1380;
962.7000;0.0806;-1.1380;
963.0000;0.0806;-1.1403;
963.3000;0.0847;-1.1267;
963.6000;0.0847;-1.1290;
963.9000;0.0822;-1.1313;
964.2000;0.0814;-1.1245;
964.5000;0.0879;-1.1064;
964.8000;0.0814;-1.1290;
965.1000;0.0830;-1.1358;
965.4000;0.0806;-1.1494;
965.7000;0.0847;-1.1426;
966.0000;0.0830;-1.1313;
966.3000;0.0814;-1.1335;
966.6000;0.0814;-1.1426;
966.9000;0.0806;-1.1380;
967.2000;0.0855;-1.1267;
967.5000;0.0855;-1.1222;
967.8000;0.0806;-1.1335;
968.1000;0.0798;-1.1380;
968.4000;0.0741;-1.1516;
968.7000;0.0879;-1.1199;
969.0000;0.0806;-1.1313;
969.3000;0.0830;-1.1199;
969.6000;0.0790;-1.1267;
969.9000;0.0806;-1.1267;
970.2000;0.0838;-1.1132;
970.5000;0.0830;-1.1132;
970.8000;0.0806;-1.1199;
971.1000;0.0790;-1.1245;
971.4000;0.0798;-1.1199;
971.7000;0.0798;-1.1222;
972.0000;0.0830;-1.1177;
972.3000;0.0822;-1.1154;
972.6000;0.0798;-1.1177;
972.9000;0.0830;-1.1109;
973.2000;0.0790;-1.1290;
973.5000;0.0830;-1.1177;
973.8000;0.0806;-1.1154;
974.1000;0.0806;-1.1177;
974.4000;0.0822;-1.1086;
974.7000;0.0830;-1.1154;
975.0000;0.0806;-1.1199;
975.3000;0.0822;-1.1154;
975.6000;0.0798;-1.1267;
975.9000;0.0806;-1.1222;
976.2000;0.0798;-1.1290;
976.5000;0.0790;-1.1290;
976.8000;0.0798;-1.1199;
977.1000;0.0749;-1.1335;
977.4000;0.0855;-1.1177;
977.7000;0.0814;-1.1267;
978.0000;0.0830;-1.1109;
978.3000;0.0871;-1.0973;
978.6000;0.0814;-1.1018;
978.9000;0.0814;-1.0996;
979.2000;0.0838;-1.0996;
979.5000;0.0855;-1.1018;
979.8000;0.0798;-1.1086;
980.1000;0.0822;-1.1086;
980.4000;0.0822;-1.1132;
980.7000;0.0822;-1.1132;
981.0000;0.0822;-1.1132;
981.3000;0.0822;-1.1154;
981.6000;0.0822;-1.1109;
981.9000;0.0806;-1.1177;
982.2000;0.0838;-1.1177;
982.5000;0.0830;-1.1154;
982.8000;0.0822;-1.1154;
983.1000;0.0814;-1.1154;
983.4000;0.0798;-1.1177;
983.7000;0.0838;-1.1041;
984.0000;0.0838;-1.1132;
984.3000;0.0838;-1.1177;
984.6000;0.0830;-1.1177;
984.9000;0.0847;-1.1177;
985.2000;0.0757;-1.1335;
985.5000;0.0790;-1.1245;
985.8000;0.0806;-1.1267;
986.1000;0.0855;-1.1154;
986.4000;0.0814;-1.1267;
986.7000;0.0822;-1.1222;
987.0000;0.0855;-1.1041;
987.3000;0.0806;-1.1177;
987.6000;0.0847;-1.1154;
987.9000;0.0814;-1.1222;
988.2000;0.0830;-1.1086;
988.5000;0.0806;-1.1086;
988.8000;0.0830;-1.1064;
989.1000;0.0822;-1.1086;
989.4000;0.0798;-1.1199;
989.7000;0.0855;-1.0996;
990.0000;0.0838;-1.1041;
990.3000;0.0765;-1.1245;
990.6000;0.0838;-1.1132;
990.9000;0.0814;-1.1109;
991.2000;0.0814;-1.1041;
991.5000;0.0838;-1.0996;
991.8000;0.0814;-1.1154;
992.1000;0.0790;-1.1222;
992.4000;0.0798;-1.1177;
992.7000;0.0838;-1.1041;
993.0000;0.0790;-1.1199;
993.3000;0.0830;-1.1109;
993.6000;0.0838;-1.1086;
993.9000;0.0708;-1.1426;
994.2000;0.0847;-1.1041;
994.5000;0.0830;-1.1132;
994.8000;0.0790;-1.1222;
995.1000;0.0749;-1.1313;
995.4000;0.0822;-1.1064;
995.7000;0.0830;-1.1041;
996.0000;0.0895;-1.0928;
996.3000;0.0806;-1.1199;
996.6000;0.0806;-1.1086;
996.9000;0.0781;-1.1177;
997.2000;0.0790;-1.1199;
997.5000;0.0790;-1.1177;
997.8000;0.0798;-1.1064;
998.1000;0.0790;-1.1132;
998.4000;0.0822;-1.1041;
998.7000;0.0855;-1.0951;
999.0000;0.0814;-1.1018;
999.3000;0.0814;-1.0996;
999.6000;0.0798;-1.1041;
999.9000;0.0847;-1.0928;
1000.2000;0.0806;-1.1018;
1000.5000;0.0830;-1.1064;
1000.8000;0.0830;-1.1199;
1001.1000;0.0871;-1.1154;
1001.4000;0.0806;-1.1358;
1001.7000;0.0814;-1.1358;
1002.0000;0.0814;-1.1313;
1002.3000;0.0781;-1.1313;
1002.6000;0.0814;-1.1177;
1002.9000;0.0855;-1.1132;
1003.2000;0.0806;-1.1132;
1003.5000;0.0814;-1.1154;
1003.8000;0.0830;-1.1018;
1004.1000;0.0822;-1.1154;
1004.4000;0.0847;-1.1132;
1004.7000;0.0887;-1.1041;
1005.0000;0.0830;-1.1177;
1005.3000;0.0814;-1.1267;
1005.6000;0.0855;-1.1199;
1005.9000;0.0830;-1.1109;
1006.2000;0.0798;-1.1222;
1006.5000;0.0822;-1.1132;
1006.8000;0.0822;-1.1018;
1007.1000;0.0790;-1.1041;
1007.4000;0.0879;-1.0905;
1007.7000;0.0814;-1.1064;
1008.0000;0.0838;-1.1041;
1008.3000;0.0822;-1.0973;
1008.6000;0.0814;-1.1041;
1008.9000;0.0798;-1.1018;
1009.2000;0.0749;-1.1086;
1009.5000;0.0830;-1.0770;
1009.8000;0.0838;-1.0724;
1010.1000;0.0781;-1.0973;
1010.4000;0.0822;-1.1041;
1010.7000;0.0814;-1.1177;
1011.0000;0.0871;-1.0996;
1011.3000;0.0871;-1.1064;
1011.6000;0.0798;-1.1267;
1011.9000;0.0838;-1.1199;
1012.2000;0.0798;-1.1290;
1012.5000;0.0830;-1.1199;
1012.8000;0.0806;-1.1199;
1013.1000;0.0814;-1.1177;
1013.4000;0.0806;-1.1199;
1013.7000;0.0814;-1.1267;
1014.0000;0.0838;-1.1177;
1014.3000;0.0790;-1.1290;
1014.6000;0.0814;-1.1109;
1014.9000;0.0806;-1.1132;
1015.2000;0.0806;-1.1109;
1015.5000;0.0838;-1.0996;
1015.8000;0.0790;-1.1086;
1016.1000;0.0806;-1.1132;
1016.4000;0.0822;-1.1109;
1016.7000;0.0830;-1.1064;
1017.0000;0.0830;-1.1018;
1017.3000;0.0830;-1.0996;
1017.6000;0.0822;-1.1041;
1017.9000;0.0814;-1.1154;
1018.2000;0.0741;-1.1448;
1018.5000;0.0838;-1.1245;
1018.8000;0.0830;-1.1199;
1019.1000;0.0798;-1.1313;
1019.4000;0.0855;-1.1109;
1019.7000;0.0838;-1.1041;
1020.0000;0.0798;-1.1018;
1020.3000;0.0814;-1.0996;
1020.6000;0.0830;-1.1064;
1020.9000;0.0830;-1.1086;
1021.2000;0.0879;-1.0860;
1021.5000;0.0773;-1.1132;
1021.8000;0.0871;-1.0928;
1022.1000;0.0822;-1.1018;
1022.4000;0.0806;-1.1086;
1022.7000;0.0814;-1.1086;
1023.0000;0.0806;-1.1109;
1023.3000;0.0814;-1.1041;
1023.6000;0.0806;-1.1086;
1023.9000;0.0814;-1.1109;
1024.2000;0.0830;-1.1199;
1024.5000;0.0814;-1.1245;
1024.8000;0.0790;-1.1335;
1025.1000;0.0855;-1.1132;
1025.4000;0.0781;-1.1313;
1025.7000;0.0912;-1.0996;
1026.0000;0.0806;-1.1245;
1026.3000;0.0830;-1.1222;
1026.6000;0.0798;-1.1177;
1026.9000;0.0822;-1.1132;
1027.2000;0.0700;-1.1380;
1027.5000;0.0781;-1.1154;
1027.8000;0.0806;-1.1064;
1028.1000;0.0700;-1.1222;
1028.4000;0.0814;-1.0951;
1028.7000;0.0806;-1.0951;
1029.0000;0.0790;-1.1064;
1029.3000;0.0765;-1.1177;
1029.6000;0.0822;-1.1132;
1029.9000;0.0838;-1.1064;
1030.2000;0.0838;-1.1086;
1030.5000;0.0830;-1.1064;
1030.8000;0.0806;-1.1199;
1031.1000;0.0806;-1.1222;
1031.4000;0.0798;-1.1222;
1031.7000;0.0765;-1.1380;
1032.0000;0.0806;-1.1267;
1032.3000;0.0814;-1.1245;
1032.6000;0.0855;-1.1267;
1032.9000;0.0847;-1.1222;
1033.2000;0.0871;-1.1154;
1033.5000;0.0830;-1.1245;
1033.8000;0.0855;-1.1177;
1034.1000;0.0814;-1.1199;
1034.4000;0.0822;-1.1222;
1034.7000;0.0830;-1.1177;
1035.0000;0.0822;-1.1199;
1035.3000;0.0773;-1.1313;
1035.6000;0.0822;-1.1267;
1035.9000;0.0822;-1.1335;
1036.2000;0.0806;-1.1426;
1036.5000;0.0806;-1.1516;
1036.8000;0.0798;-1.1471;
1037.1000;0.0838;-1.1358;
1037.4000;0.0822;-1.1290;
1037.7000;0.0806;-1.1358;
1038.0000;0.0822;-1.1290;
1038.3000;0.0806;-1.1335;
1038.6000;0.0838;-1.1132;
1038.9000;0.0814;-1.1245;
1039.2000;0.0814;-1.1199;
1039.5000;0.0847;-1.1154;
1039.8000;0.0806;-1.1267;
1040.1000;0.0773;-1.1199;
1040.4000;0.0806;-1.1064;
1040.7000;0.0798;-1.0951;
1041.0000;0.0838;-1.0951;
1041.3000;0.0781;-1.1109;
1041.6000;0.0887;-1.0928;
1041.9000;0.0806;-1.1199;
1042.2000;0.0749;-1.1313;
1042.5000;0.0822;-1.1177;
1042.8000;0.0814;-1.1222;
1043.1000;0.0741;-1.1426;
1043.4000;0.0814;-1.1199;
1043.7000;0.0790;-1.1177;
1044.0000;0.0822;-1.1154;
1044.3000;0.0790;-1.1132;
1044.6000;0.0838;-1.1018;
1044.9000;0.0798;-1.1132;
1045.2000;0.0741;-1.1358;
1045.5000;0.0814;-1.1064;
1045.8000;0.0806;-1.1109;
1046.1000;0.0838;-1.1064;
1046.4000;0.0830;-1.1018;
1046.7000;0.0790;-1.1177;
1047.0000;0.0814;-1.1132;
1047.3000;0.0806;-1.1109;
1047.6000;0.0814;-1.1132;
1047.9000;0.0838;-1.1086;
1048.2000;0.0912;-1.0860;
1048.5000;0.0838;-1.1109;
1048.8000;0.0855;-1.1086;
1049.1000;0.0838;-1.1177;
1049.4000;0.0814;-1.1245;
1049.7000;0.0838;-1.1290;
1050.0000;0.0847;-1.1177;
1050.3000;0.0871;-1.1132;
1050.6000;0.0790;-1.1313;
1050.9000;0.0790;-1.1245;
1051.2000;0.0773;-1.1245;
1051.5000;0.0798;-1.1222;
1051.8000;0.0798;-1.1199;
1052.1000;0.0749;-1.1199;
1052.4000;0.0855;-1.1018;
1052.7000;0.0790;-1.1177;
1053.0000;0.0838;-1.1132;
1053.3000;0.0847;-1.1132;
1053.6000;0.0830;-1.1177;
1053.9000;0.0806;-1.1267;
1054.2000;0.0822;-1.1132;
1054.5000;0.0863;-1.1041;
1054.8000;0.0847;-1.0996;
1055.1000;0.0830;-1.1132;
1055.4000;0.0830;-1.1177;
1055.7000;0.0790;-1.1245;
1056.0000;0.0806;-1.1177;
1056.3000;0.0814;-1.1245;
1056.6000;0.0838;-1.1199;
1056.9000;0.0822;-1.1154;
1057.2000;0.0838;-1.1018;
1057.5000;0.0798;-1.1222;
1057.8000;0.0790;-1.1290;
1058.1000;0.0830;-1.1245;
1058.4000;0.0781;-1.1403;
1058.7000;0.0838;-1.1199;
1059.0000;0.0830;-1.1313;
1059.3000;0.0790;-1.1380;
1059.6000;0.0781;-1.1426;
1059.9000;0.0822;-1.1335;
1060.2000;0.0781;-1.1539;
1060.5000;0.0806;-1.1516;
1060.8000;0.0733;-1.1584;
1061.1000;0.0806;-1.1380;
1061.4000;0.0822;-1.1358;
1061.7000;0.0798;-1.1313;
1062.0000;0.0773;-1.1335;
1062.3000;0.0781;-1.1267;
1062.6000;0.0822;-1.1222;
1062.9000;0.0814;-1.1267;
1063.2000;0.0830;-1.1222;
1063.5000;0.0806;-1.1267;
1063.8000;0.0838;-1.1267;
1064.1000;0.0912;-1.1018;
1064.4000;0.0798;-1.1290;
1064.7000;0.0977;-1.0815;
1065.0000;0.0838;-1.1132;
1065.3000;0.0790;-1.1177;
1065.6000;0.0781;-1.1222;
1065.9000;0.0757;-1.1290;
1066.2000;0.0838;-1.1154;
1066.5000;0.0830;-1.1132;
1066.8000;0.0798;-1.1222;
1067.1000;0.0887;-1.0951;
1067.4000;0.0814;-1.1154;
1067.7000;0.0830;-1.1222;
1068.0000;0.0822;-1.1313;
1068.3000;0.0798;-1.1335;
1068.6000;0.0806;-1.1358;
1068.9000;0.0855;-1.1245;
1069.2000;0.0863;-1.1177;
1069.5000;0.0790;-1.1313;
1069.8000;0.0847;-1.1313;
1070.1000;0.0814;-1.1471;
1070.4000;0.0830;-1.1335;
1070.7000;0.0798;-1.1358;
1071.0000;0.0822;-1.1154;
1071.3000;0.0814;-1.1313;
1071.6000;0.0790;-1.1380;
1071.9000;0.0798;-1.1335;
1072.2000;0.0790;-1.1313;
1072.5000;0.0814;-1.1154;
1072.8000;0.0838;-1.1041;
1073.1000;0.0798;-1.1177;
1073.4000;0.0798;-1.1290;
1073.7000;0.0814;-1.1245;
1074.0000;0.0822;-1.1222;
1074.3000;0.0879;-1.1086;
1074.6000;0.0830;-1.1222;
1074.9000;0.0790;-1.1267;
1075.2000;0.0830;-1.1177;
1075.5000;0.0814;-1.1267;
1075.8000;0.0822;-1.1267;
1076.1000;0.0790;-1.1267;
1076.4000;0.0806;-1.1199;
1076.7000;0.0814;-1.1335;
1077.0000;0.0806;-1.1313;
1077.3000;0.0822;-1.1290;
1077.6000;0.0871;-1.1177;
1077.9000;0.0814;-1.1290;
1078.2000;0.0822;-1.1290;
1078.5000;0.0830;-1.1245;
1078.8000;0.0790;-1.1335;
1079.1000;0.0838;-1.1154;
1079.4000;0.0781;-1.1290;
1079.7000;0.0806;-1.1222;
1080.0000;0.0838;-1.1041;
1080.3000;0.0814;-1.1064;
1080.6000;0.0806;-1.1086;
1080.9000;0.0822;-1.1041;
1081.2000;0.0798;-1.1064;
1081.5000;0.0822;-1.0996;
1081.8000;0.0790;-1.1109;
1082.1000;0.0806;-1.1109;
1082.4000;0.0806;-1.1154;
1082.7000;0.0814;-1.1086;
1083.0000;0.0830;-1.1041;
1083.3000;0.0847;-1.1064;
1083.6000;0.0814;-1.1109;
1083.9000;0.0814;-1.1086;
1084.2000;0.0814;-1.1109;
1084.5000;0.0798;-1.1380;
1084.8000;0.0814;-1.1335;
1085.1000;0.0806;-1.1313;
1085.4000;0.0855;-1.1177;
1085.7000;0.0814;-1.1335;
1086.0000;0.0806;-1.1448;
1086.3000;0.0798;-1.1403;
1086.6000;0.0806;-1.1358;
1086.9000;0.0790;-1.1380;
1087.2000;0.0879;-1.1177;
1087.5000;0.0781;-1.1403;
1087.8000;0.0790;-1.1380;
1088.1000;0.0838;-1.1177;
1088.4000;0.0830;-1.1267;
1088.7000;0.0920;-1.1041;
1089.0000;0.0830;-1.1199;
1089.3000;0.0830;-1.1154;
1089.6000;0.0733;-1.1335;
1089.9000;0.0847;-1.0973;
1090.2000;0.0684;-1.1426;
1090.5000;0.0863;-1.1018;
1090.8000;0.0798;-1.1132;
1091.1000;0.0790;-1.1154;
1091.4000;0.0822;-1.1132;
1091.7000;0.0741;-1.1403;
1092.0000;0.0830;-1.1177;
1092.3000;0.0781;-1.1335;
1092.6000;0.0806;-1.1222;
1092.9000;0.0741;-1.1358;
1093.2000;0.0814;-1.1154;
1093.5000;0.0814;-1.1109;
1093.8000;0.0838;-1.1086;
1094.1000;0.0814;-1.1064;
1094.4000;0.0863;-1.1041;
1094.7000;0.0814;-1.1154;
1095.0000;0.0790;-1.1222;
1095.3000;0.0757;-1.1290;
1095.6000;0.0830;-1.1154;
1095.9000;0.0814;-1.1154;
1096.2000;0.0904;-1.0905;
1096.5000;0.0822;-1.1177;
1096.8000;0.0798;-1.1267;
1097.1000;0.0781;-1.1290;
1097.4000;0.0790;-1.1290;
1097.7000;0.0781;-1.1267;
1098.0000;0.0790;-1.1267;
1098.3000;0.0814;-1.1222;
1098.6000;0.0806;-1.1267;
1098.9000;0.0847;-1.1177;
1099.2000;0.0806;-1.1290;
1099.5000;0.0806;-1.1335;
1099.8000;0.0838;-1.1222;
1100.1000;0.0847;-1.1132;
1100.4000;0.0781;-1.1290;
1100.7000;0.0806;-1.1177;
1101.0000;0.0822;-1.1132;
1101.3000;0.0871;-1.1041;
1101.6000;0.0822;-1.1245;
1101.9000;0.0806;-1.1335;
1102.2000;0.0798;-1.1335;
1102.5000;0.0781;-1.1380;
1102.8000;0.0798;-1.1380;
1103.1000;0.0790;-1.1448;
1103.4000;0.0855;-1.1313;
1103.7000;0.0781;-1.1426;
1104.0000;0.0806;-1.1380;
1104.3000;0.0741;-1.1448;
1104.6000;0.0847;-1.1177;
1104.9000;0.0822;-1.1154;
1105.2000;0.0814;-1.1177;
1105.5000;0.0822;-1.1154;
1105.8000;0.0798;-1.1199;
1106.1000;0.0822;-1.1086;
1106.4000;0.0798;-1.1086;
1106.7000;0.0822;-1.1041;
1107.0000;0.0806;-1.1064;
1107.3000;0.0798;-1.1132;
1107.6000;0.0814;-1.1086;
1107.9000;0.0806;-1.1109;
1108.2000;0.0822;-1.1041;
1108.5000;0.0798;-1.1041;
1108.8000;0.0773;-1.1064;
1109.1000;0.0806;-1.1041;
1109.4000;0.0806;-1.1064;
1109.7000;0.0822;-1.1018;
1110.0000;0.0830;-1.0973;
1110.3000;0.0806;-1.1086;
1110.6000;0.0790;-1.1064;
1110.9000;0.0814;-1.1018;
1111.2000;0.0887;-1.0905;
1111.5000;0.0806;-1.1199;
1111.8000;0.0814;-1.1245;
1112.1000;0.0814;-1.1267;
1112.4000;0.0798;-1.1403;
1112.7000;0.0790;-1.1380;
1113.0000;0.0830;-1.1290;
1113.3000;0.0822;-1.1313;
1113.6000;0.0814;-1.1245;
1113.9000;0.0790;-1.1199;
1114.2000;0.0798;-1.1177;
1114.5000;0.0806;-1.1064;
1114.8000;0.0781;-1.1086;
1115.1000;0.0765;-1.1109;
1115.4000;0.0822;-1.0996;
1115.7000;0.0790;-1.1132;
1116.0000;0.0814;-1.1132;
1116.3000;0.0781;-1.1199;
1116.6000;0.0806;-1.1132;
1116.9000;0.0879;-1.1041;
1117.2000;0.0806;-1.1290;
1117.5000;0.0790;-1.1335;
1117.8000;0.0790;-1.1290;
1118.1000;0.0822;-1.1177;
1118.4000;0.0814;-1.1222;
1118.7000;0.0822;-1.1222;
1119.0000;0.0773;-1.1358;
1119.3000;0.0822;-1.1154;
1119.6000;0.0798;-1.1154;
1119.9000;0.0806;-1.1109;
1120.2000;0.0781;-1.1177;
1120.5000;0.0781;-1.1154;
1120.8000;0.0822;-1.1109;
1121.1000;0.0814;-1.1154;
1121.4000;0.0822;-1.1177;
1121.7000;0.0741;-1.1471;
1122.0000;0.0847;-1.1222;
1122.3000;0.0822;-1.1358;
1122.6000;0.0822;-1.1448;
1122.9000;0.0830;-1.1448;
1123.2000;0.0790;-1.1448;
1123.5000;0.0798;-1.1448;
1123.8000;0.0912;-1.1132;
1124.1000;0.0790;-1.1335;
1124.4000;0.0830;-1.1335;
1124.7000;0.0822;-1.1313;
1125.0000;0.0814;-1.1313;
1125.3000;0.0814;-1.1267;
1125.6000;0.0757;-1.1358;
1125.9000;0.0790;-1.1245;
1126.2000;0.0814;-1.1267;
1126.5000;0.0765;-1.1403;
1126.8000;0.0879;-1.1064;
1127.1000;0.0806;-1.1222;
1127.4000;0.0822;-1.1154;
1127.7000;0.0822;-1.1064;
1128.0000;0.0814;-1.1109;
1128.3000;0.0871;-1.0928;
1128.6000;0.0838;-1.1086;
1128.9000;0.0790;-1.1154;
1129.2000;0.0806;-1.1041;
1129.5000;0.0814;-1.1064;
1129.8000;0.0855;-1.0815;
1130.1000;0.0830;-1.0860;
1130.4000;0.0855;-1.0905;
1130.7000;0.0830;-1.1064;
1131.0000;0.0806;-1.1064;
1131.3000;0.0814;-1.1064;
1131.6000;0.0814;-1.1041;
1131.9000;0.0814;-1.1086;
1132.2000;0.0798;-1.1245;
1132.5000;0.0822;-1.1199;
1132.8000;0.0830;-1.1154;
1133.1000;0.0814;-1.1177;
1133.4000;0.0822;-1.1132;
1133.7000;0.0822;-1.1154;
1134.0000;0.0806;-1.1177;
1134.3000;0.0830;-1.1154;
1134.6000;0.0806;-1.1199;
1134.9000;0.0887;-1.0996;
1135.2000;0.0912;-1.0973;
1135.5000;0.0822;-1.1199;
1135.8000;0.0830;-1.1109;
1136.1000;0.0757;-1.1358;
1136.4000;0.0806;-1.1313;
1136.7000;0.0806;-1.1403;
1137.0000;0.0798;-1.1448;
1137.3000;0.0814;-1.1426;
1137.6000;0.0806;-1.1335;
1137.9000;0.0806;-1.1313;
1138.2000;0.0847;-1.1290;
1138.5000;0.0830;-1.1380;
1138.8000;0.0700;-1.1742;
1139.1000;0.0830;-1.1380;
1139.4000;0.0855;-1.1222;
1139.7000;0.0798;-1.1358;
1140.0000;0.0838;-1.1222;
1140.3000;0.0806;-1.1267;
1140.6000;0.0806;-1.1290;
1140.9000;0.0781;-1.1290;
1141.2000;0.0814;-1.1267;
1141.5000;0.0847;-1.1177;
1141.8000;0.0716;-1.1426;
1142.1000;0.0790;-1.1199;
1142.4000;0.0822;-1.1154;
1142.7000;0.0822;-1.1199;
1143.0000;0.0838;-1.1132;
1143.3000;0.0814;-1.1154;
1143.6000;0.0822;-1.1222;
1143.9000;0.0822;-1.1267;
1144.2000;0.0863;-1.1132;
1144.5000;0.0806;-1.1222;
1144.8000;0.0814;-1.1109;
1145.1000;0.0838;-1.0928;
1145.4000;0.0806;-1.1018;
1145.7000;0.0822;-1.0973;
1146.0000;0.0806;-1.1109;
1146.3000;0.0790;-1.1222;
1146.6000;0.0798;-1.1177;
1146.9000;0.0822;-1.1177;
1147.2000;0.0814;-1.1154;
1147.5000;0.0781;-1.1267;
1147.8000;0.0838;-1.1267;
1148.1000;0.0806;-1.1403;
1148.4000;0.0814;-1.1403;
1148.7000;0.0838;-1.1267;
1149.0000;0.0847;-1.1290;
1149.3000;0.0790;-1.1403;
1149.6000;0.0822;-1.1222;
1149.9000;0.0847;-1.1222;
1150.2000;0.0887;-1.1086;
1150.5000;0.0814;-1.1199;
1150.8000;0.0887;-1.0973;
1151.1000;0.0806;-1.1199;
1151.4000;0.0806;-1.1132;
1151.7000;0.0733;-1.1335;
1152.0000;0.0814;-1.1154;
1152.3000;0.0790;-1.1154;
1152.6000;0.0806;-1.1018;
1152.9000;0.0838;-1.1018;
1153.2000;0.0806;-1.1132;
1153.5000;0.0806;-1.1154;
1153.8000;0.0830;-1.1109;
1154.1000;0.0830;-1.1154;
1154.4000;0.0879;-1.1064;
1154.7000;0.0806;-1.1245;
1155.0000;0.0806;-1.1267;
1155.3000;0.0814;-1.1222;
1155.6000;0.0806;-1.1177;
1155.9000;0.0830;-1.1064;
1156.2000;0.0790;-1.1086;
1156.5000;0.0790;-1.1132;
1156.8000;0.0684;-1.1403;
1157.1000;0.0814;-1.1086;
1157.4000;0.0765;-1.1109;
1157.7000;0.0790;-1.1132;
1158.0000;0.0838;-1.1109;
1158.3000;0.0838;-1.1086;
1158.6000;0.0814;-1.1086;
1158.9000;0.0887;-1.0860;
1159.2000;0.0781;-1.1132;
1159.5000;0.0814;-1.1154;
1159.8000;0.0790;-1.1154;
1160.1000;0.0749;-1.1267;
1160.4000;0.0790;-1.1086;
1160.7000;0.0741;-1.1267;
1161.0000;0.0790;-1.1154;
1161.3000;0.0781;-1.1132;
1161.6000;0.0822;-1.0928;
1161.9000;0.0822;-1.0883;
1162.2000;0.0814;-1.1086;
1162.5000;0.0692;-1.1426;
1162.8000;0.0822;-1.1132;
1163.1000;0.0814;-1.1132;
1163.4000;0.0806;-1.1154;
1163.7000;0.0806;-1.1222;
1164.0000;0.0830;-1.1109;
1164.3000;0.0814;-1.1086;
1164.6000;0.0912;-1.0747;
1164.9000;0.0773;-1.1086;
1165.2000;0.0830;-1.0860;
1165.5000;0.0798;-1.0905;
1165.8000;0.0749;-1.0928;
1166.1000;0.0798;-1.0792;
1166.4000;0.0920;-1.0543;
1166.7000;0.0847;-1.0860;
1167.0000;0.0814;-1.0928;
1167.3000;0.0765;-1.1109;
1167.6000;0.0814;-1.0905;
1167.9000;0.0659;-1.1313;
1168.2000;0.0741;-1.1086;
1168.5000;0.0822;-1.0905;
1168.8000;0.0790;-1.1064;
1169.1000;0.0798;-1.1154;
1169.4000;0.0814;-1.1064;
1169.7000;0.0798;-1.1086;
1170.0000;0.0814;-1.1064;
1170.3000;0.0822;-1.1086;
1170.6000;0.0798;-1.1086;
1170.9000;0.0830;-1.1109;
1171.2000;0.0822;-1.1086;
1171.5000;0.0806;-1.1154;
1171.8000;0.0781;-1.1245;
1172.1000;0.0798;-1.1245;
1172.4000;0.0806;-1.1222;
1172.7000;0.0814;-1.1222;
1173.0000;0.0814;-1.1245;
1173.3000;0.0790;-1.1335;
1173.6000;0.0814;-1.1313;
1173.9000;0.0830;-1.1245;
1174.2000;0.0781;-1.1267;
1174.5000;0.0822;-1.1086;
1174.8000;0.0781;-1.1086;
1175.1000;0.0781;-1.1064;
1175.4000;0.0781;-1.1132;
1175.7000;0.0814;-1.1041;
1176.0000;0.0863;-1.0860;
1176.3000;0.0822;-1.0996;
1176.6000;0.0773;-1.1109;
1176.9000;0.0684;-1.1335;
1177.2000;0.0798;-1.1064;
1177.5000;0.0830;-1.0996;
1177.8000;0.0814;-1.1154;
1178.1000;0.0847;-1.1064;
1178.4000;0.0798;-1.1041;
1178.7000;0.0806;-1.1041;
1179.0000;0.0806;-1.1064;
1179.3000;0.0822;-1.0996;
1179.6000;0.0806;-1.1041;
1179.9000;0.0830;-1.0973;
1180.2000;0.0781;-1.1086;
1180.5000;0.0741;-1.1199;
1180.8000;0.0798;-1.1222;
1181.1000;0.0741;-1.1426;
1181.4000;0.0806;-1.1199;
1181.7000;0.0814;-1.1177;
1182.0000;0.0830;-1.1018;
1182.3000;0.0838;-1.1109;
1182.6000;0.0798;-1.1177;
1182.9000;0.0879;-1.1018;
1183.2000;0.0863;-1.0928;
1183.5000;0.0814;-1.0996;
1183.8000;0.0822;-1.0973;
1184.1000;0.0985;-1.0566;
1184.4000;0.0863;-1.0928;
1184.7000;0.0822;-1.1041;
1185.0000;0.0814;-1.1064;
1185.3000;0.0798;-1.1018;
1185.6000;0.0806;-1.0996;
1185.9000;0.0741;-1.1177;
1186.2000;0.0806;-1.1064;
1186.5000;0.0798;-1.1132;
1186.8000;0.0830;-1.1041;
1187.1000;0.0806;-1.1064;
1187.4000;0.0806;-1.1064;
1187.7000;0.0790;-1.1064;
1188.0000;0.0781;-1.1064;
1188.3000;0.0855;-1.0905;
1188.6000;0.0798;-1.1064;
1188.9000;0.0806;-1.1109;
1189.2000;0.0798;-1.1154;
1189.5000;0.0830;-1.1109;
1189.8000;0.0822;-1.1132;
1190.1000;0.0806;-1.1199;
1190.4000;0.0814;-1.1154;
1190.7000;0.0806;-1.1132;
1191.0000;0.0806;-1.1132;
1191.3000;0.0790;-1.1222;
1191.6000;0.0806;-1.1154;
1191.9000;0.0781;-1.1132;
1192.2000;0.0806;-1.1132;
1192.5000;0.0790;-1.1109;
1192.8000;0.0741;-1.1267;
1193.1000;0.0814;-1.1132;
1193.4000;0.0838;-1.1064;
1193.7000;0.0814;-1.1154;
1194.0000;0.0798;-1.1245;
1194.3000;0.0806;-1.1313;
1194.6000;0.0814;-1.1245;
1194.9000;0.0814;-1.1245;
1195.2000;0.0822;-1.1154;
1195.5000;0.0790;-1.1199;
1195.8000;0.0806;-1.1222;
1196.1000;0.0822;-1.1154;
1196.4000;0.0830;-1.1154;
1196.7000;0.0830;-1.1177;
1197.0000;0.0838;-1.1154;
1197.3000;0.0790;-1.1245;
1197.6000;0.0806;-1.1199;
1197.9000;0.0814;-1.1109;
1198.2000;0.0790;-1.1267;
1198.5000;0.0724;-1.1403;
1198.8000;0.0586;-1.1629;
1199.1000;0.0757;-1.1132;
1199.4000;0.0733;-1.1222;
1199.7000;0.0798;-1.1132;
1200.0000;0.0838;-1.1064;
1200.3000;0.0855;-1.1109;
1200.6000;0.0798;-1.1132;
1200.9000;0.0822;-1.1109;
1201.2000;0.0806;-1.1086;
1201.5000;0.0667;-1.1494;
1201.8000;0.0806;-1.1132;
1202.1000;0.0798;-1.1109;
1202.4000;0.0798;-1.1154;
1202.7000;0.0790;-1.1177;
1203.0000;0.0798;-1.1177;
1203.3000;0.0879;-1.0973;
1203.6000;0.0814;-1.1109;
1203.9000;0.0830;-1.1018;
1204.2000;0.0847;-1.0996;
1204.5000;0.0798;-1.1109;
1204.8000;0.0798;-1.1064;
1205.1000;0.0790;-1.1086;
1205.4000;0.0806;-1.1177;
1205.7000;0.0773;-1.1267;
1206.0000;0.0806;-1.1177;
1206.3000;0.0822;-1.1086;
1206.6000;0.0790;-1.1154;
1206.9000;0.0822;-1.1086;
1207.2000;0.0765;-1.1245;
1207.5000;0.0830;-1.1086;
1207.8000;0.0822;-1.1064;
1208.1000;0.0814;-1.1064;
1208.4000;0.0830;-1.0996;
1208.7000;0.0822;-1.0996;
1209.0000;0.0741;-1.1222;
1209.3000;0.0830;-1.0973;
1209.6000;0.0822;-1.1154;
1209.9000;0.0838;-1.1177;
1210.2000;0.0822;-1.1222;
1210.5000;0.0798;-1.1313;
1210.8000;0.0822;-1.1267;
1211.1000;0.0798;-1.1267;
1211.4000;0.0806;-1.1199;
1211.7000;0.0806;-1.1222;
1212.0000;0.0806;-1.1267;
1212.3000;0.0904;-1.0973;
1212.6000;0.0773;-1.1267;
1212.9000;0.0814;-1.1018;
1213.2000;0.0765;-1.1086;
1213.5000;0.0781;-1.1018;
1213.8000;0.0838;-1.0905;
1214.1000;0.0806;-1.0996;
1214.4000;0.0806;-1.1018;
1214.7000;0.0798;-1.1041;
1215.0000;0.0822;-1.0973;
1215.3000;0.0871;-1.0837;
1215.6000;0.0814;-1.1018;
1215.9000;0.0773;-1.1199;
1216.2000;0.0814;-1.1132;
1216.5000;0.0806;-1.1132;
1216.8000;0.0781;-1.1109;
1217.1000;0.0790;-1.1018;
1217.4000;0.0814;-1.0973;
1217.7000;0.0822;-1.0951;
1218.0000;0.0814;-1.0973;
1218.3000;0.0790;-1.1041;
1218.6000;0.0806;-1.0996;
1218.9000;0.0895;-1.0792;
1219.2000;0.0741;-1.1109;
1219.5000;0.0814;-1.0951;
1219.8000;0.0847;-1.0951;
1220.1000;0.0814;-1.1109;
1220.4000;0.0790;-1.1177;
1220.7000;0.0790;-1.1177;
1221.0000;0.0838;-1.0928;
1221.3000;0.0790;-1.1018;
1221.6000;0.0895;-1.0770;
1221.9000;0.0879;-1.0815;
1222.2000;0.0692;-1.1245;
1222.5000;0.0741;-1.1109;
1222.8000;0.0887;-1.0770;
1223.1000;0.0741;-1.1132;
1223.4000;0.0806;-1.0951;
1223.7000;0.0806;-1.0951;
1224.0000;0.0724;-1.1132;
1224.3000;0.0830;-1.0837;
1224.6000;0.0806;-1.0883;
1224.9000;0.0806;-1.0973;
1225.2000;0.0806;-1.0928;
1225.5000;0.0790;-1.0973;
1225.8000;0.0790;-1.0951;
1226.1000;0.0822;-1.0928;
1226.4000;0.0781;-1.1109;
1226.7000;0.0822;-1.1109;
1227.0000;0.0814;-1.1064;
1227.3000;0.0814;-1.1154;
1227.6000;0.0806;-1.1154;
1227.9000;0.0806;-1.1199;
1228.2000;0.0814;-1.1109;
1228.5000;0.0798;-1.1109;
1228.8000;0.0822;-1.1018;
1229.1000;0.0830;-1.0951;
1229.4000;0.0781;-1.1199;
1229.7000;0.0838;-1.1109;
1230.0000;0.0806;-1.1132;
1230.3000;0.0847;-1.0973;
1230.6000;0.0806;-1.1132;
1230.9000;0.0781;-1.1245;
1231.2000;0.0741;-1.1380;
1231.5000;0.0879;-1.1177;
1231.8000;0.0749;-1.1539;
1232.1000;0.0757;-1.1448;
1232.4000;0.0798;-1.1313;
1232.7000;0.0822;-1.1335;
1233.0000;0.0806;-1.1290;
1233.3000;0.0781;-1.1313;
1233.6000;0.0790;-1.1290;
1233.9000;0.0806;-1.1245;
1234.2000;0.0830;-1.1177;
1234.5000;0.0806;-1.1245;
1234.8000;0.0814;-1.1222;
1235.1000;0.0830;-1.1199;
1235.4000;0.0790;-1.1290;
1235.7000;0.0822;-1.1267;
1236.0000;0.0798;-1.1313;
1236.3000;0.0814;-1.1222;
1236.6000;0.0814;-1.1245;
1236.9000;0.0814;-1.1358;
1237.2000;0.0781;-1.1494;
1237.5000;0.0806;-1.1380;
1237.8000;0.0814;-1.1290;
1238.1000;0.0790;-1.1358;
1238.4000;0.0806;-1.1313;
1238.7000;0.0798;-1.1313;
1239.0000;0.0814;-1.1222;
1239.3000;0.0806;-1.1222;
1239.6000;0.0847;-1.1064;
1239.9000;0.0773;-1.1199;
1240.2000;0.0814;-1.1132;
1240.5000;0.0806;-1.1109;
1240.8000;0.0806;-1.1154;
1241.1000;0.0790;-1.1222;
1241.4000;0.0879;-1.1041;
1241.7000;0.0814;-1.1154;
1242.0000;0.0798;-1.1199;
1242.3000;0.0806;-1.1222;
1242.6000;0.0790;-1.1177;
1242.9000;0.0822;-1.1154;
1243.2000;0.0847;-1.1109;
1243.5000;0.0733;-1.1448;
1243.8000;0.0847;-1.1132;
1244.1000;0.0830;-1.1154;
1244.4000;0.0790;-1.1177;
1244.7000;0.0773;-1.1222;
1245.0000;0.0757;-1.1313;
1245.3000;0.0790;-1.1222;
1245.6000;0.0806;-1.1267;
1245.9000;0.0757;-1.1358;
1246.2000;0.0708;-1.1358;
1246.5000;0.0790;-1.1177;
1246.8000;0.0814;-1.1109;
1247.1000;0.0798;-1.1041;
1247.4000;0.0773;-1.1154;
1247.7000;0.0806;-1.1109;
1248.0000;0.0879;-1.0973;
1248.3000;0.0773;-1.1132;
1248.6000;0.0814;-1.1041;
1248.9000;0.0814;-1.1041;
1249.2000;0.0887;-1.0883;
1249.5000;0.0838;-1.0996;
1249.8000;0.0806;-1.1177;
1250.1000;0.0814;-1.1109;
1250.4000;0.0798;-1.1154;
1250.7000;0.0814;-1.1199;
1251.0000;0.0814;-1.1154;
1251.3000;0.0773;-1.1290;
1251.6000;0.0765;-1.1313;
1251.9000;0.0676;-1.1652;
1252.2000;0.0757;-1.1403;
1252.5000;0.0822;-1.1313;
1252.8000;0.0798;-1.1313;
1253.1000;0.0806;-1.1290;
1253.4000;0.0781;-1.1403;
1253.7000;0.0806;-1.1313;
1254.0000;0.0773;-1.1313;
1254.3000;0.0822;-1.1132;
1254.6000;0.0798;-1.1222;
1254.9000;0.0952;-1.0837;
1255.2000;0.0814;-1.1177;
1255.5000;0.0798;-1.1132;
1255.8000;0.0798;-1.1041;
1256.1000;0.0814;-1.0996;
1256.4000;0.0822;-1.1018;
1256.7000;0.0790;-1.1132;
1257.0000;0.0757;-1.1199;
1257.3000;0.0814;-1.1109;
1257.6000;0.0806;-1.1109;
1257.9000;0.0830;-1.1018;
1258.2000;0.0757;-1.1154;
1258.5000;0.0822;-1.1018;
1258.8000;0.0790;-1.1086;
1259.1000;0.0790;-1.1041;
1259.4000;0.0863;-1.0928;
1259.7000;0.0814;-1.1064;
1260.0000;0.0790;-1.1222;
1260.3000;0.0855;-1.1018;
1260.6000;0.0952;-1.0860;
1260.9000;0.0814;-1.1222;
1261.2000;0.0806;-1.1267;
1261.5000;0.0757;-1.1358;
1261.8000;0.0790;-1.1199;
1262.1000;0.0790;-1.1177;
1262.4000;0.0830;-1.1109;
1262.7000;0.0798;-1.1154;
1263.0000;0.0790;-1.1154;
1263.3000;0.0798;-1.1109;
1263.6000;0.0798;-1.1109;
1263.9000;0.0806;-1.1064;
1264.2000;0.0822;-1.1132;
1264.5000;0.0806;-1.1222;
1264.8000;0.0830;-1.1245;
1265.1000;0.0781;-1.1403;
1265.4000;0.0806;-1.1380;
1265.7000;0.0847;-1.1267;
1266.0000;0.0822;-1.1199;
1266.3000;0.0806;-1.1199;
1266.6000;0.0806;-1.1177;
1266.9000;0.0806;-1.1177;
1267.2000;0.0871;-1.1064;
1267.5000;0.0855;-1.1064;
1267.8000;0.0847;-1.1086;
1268.1000;0.0806;-1.1086;
1268.4000;0.0806;-1.1064;
1268.7000;0.0773;-1.1109;
1269.0000;0.0806;-1.1018;
1269.3000;0.0952;-1.0724;
1269.6000;0.0806;-1.1109;
1269.9000;0.0684;-1.1426;
1270.2000;0.0716;-1.1426;
1270.5000;0.0806;-1.1177;
1270.8000;0.0847;-1.1041;
1271.1000;0.0806;-1.1132;
1271.4000;0.0822;-1.1109;
1271.7000;0.0830;-1.1041;
1272.0000;0.0798;-1.1018;
1272.3000;0.0838;-1.0905;
1272.6000;0.0822;-1.0973;
1272.9000;0.0700;-1.1245;
1273.2000;0.0749;-1.1041;
1273.5000;0.0806;-1.0883;
1273.8000;0.0798;-1.0860;
1274.1000;0.0773;-1.0928;
1274.4000;0.0798;-1.0973;
1274.7000;0.0790;-1.1086;
1275.0000;0.0847;-1.0996;
1275.3000;0.0847;-1.1041;
1275.6000;0.0814;-1.1086;
1275.9000;0.0830;-1.0951;
1276.2000;0.0838;-1.0860;
1276.5000;0.0798;-1.0973;
1276.8000;0.0798;-1.0928;
1277.1000;0.0822;-1.0928;
1277.4000;0.0790;-1.0996;
1277.7000;0.0765;-1.1086;
1278.0000;0.0798;-1.0973;
1278.3000;0.0773;-1.0860;
1278.6000;0.0716;-1.1041;
1278.9000;0.0855;-1.0747;
1279.2000;0.0757;-1.1109;
1279.5000;0.0798;-1.1086;
1279.8000;0.0790;-1.1064;
1280.1000;0.0814;-1.0996;
1280.4000;0.0822;-1.1154;
1280.7000;0.0806;-1.1177;
1281.0000;0.0790;-1.1154;
1281.3000;0.0798;-1.1177;
1281.6000;0.0806;-1.1086;
1281.9000;0.0822;-1.1041;
1282.2000;0.0830;-1.1086;
1282.5000;0.0798;-1.1245;
1282.8000;0.0757;-1.1403;
1283.1000;0.0814;-1.1313;
1283.4000;0.0806;-1.1245;
1283.7000;0.0830;-1.1177;
1284.0000;0.0806;-1.1154;
1284.3000;0.0798;-1.1064;
1284.6000;0.0790;-1.1064;
1284.9000;0.0798;-1.1109;
1285.2000;0.0798;-1.1109;
1285.5000;0.0814;-1.1018;
1285.8000;0.0822;-1.1018;
1286.1000;0.0814;-1.1177;
1286.4000;0.0806;-1.1267;
1286.7000;0.0781;-1.1335;
1287.0000;0.0798;-1.1313;
1287.3000;0.0838;-1.1267;
1287.6000;0.0895;-1.1154;
1287.9000;0.0814;-1.1380;
1288.2000;0.0806;-1.1380;
1288.5000;0.0798;-1.1403;
1288.8000;0.0708;-1.1561;
1289.1000;0.0806;-1.1335;
1289.4000;0.0863;-1.1177;
1289.7000;0.0676;-1.1471;
1290.0000;0.0830;-1.1041;
1290.3000;0.0790;-1.1132;
1290.6000;0.0781;-1.1109;
1290.9000;0.0847;-1.1018;
1291.2000;0.0757;-1.1222;
1291.5000;0.0928;-1.0837;
1291.8000;0.0928;-1.0905;
1292.1000;0.0781;-1.1313;
1292.4000;0.0790;-1.1245;
1292.7000;0.0838;-1.1109;
1293.0000;0.0871;-1.0928;
1293.3000;0.0733;-1.1245;
1293.6000;0.0806;-1.0996;
1293.9000;0.0936;-1.0656;
1294.2000;0.0936;-1.0770;
1294.5000;0.0936;-1.0747;
1294.8000;0.0806;-1.1041;
1295.1000;0.0798;-1.1109;
1295.4000;0.0806;-1.1064;
1295.7000;0.0781;-1.0996;
1296.0000;0.0847;-1.0837;
1296.3000;0.0781;-1.1041;
1296.6000;0.0863;-1.0792;
1296.9000;0.0879;-1.0747;
1297.2000;0.0798;-1.0996;
1297.5000;0.0814;-1.0951;
1297.8000;0.0798;-1.0883;
1298.1000;0.0790;-1.0996;
1298.4000;0.0798;-1.0973;
1298.7000;0.0855;-1.0860;
1299.0000;0.0855;-1.0905;
1299.3000;0.0847;-1.0883;
1299.6000;0.0838;-1.0951;
1299.9000;0.0757;-1.1132;
1300.2000;0.0798;-1.0996;
1300.5000;0.0757;-1.1064;
1300.8000;0.0798;-1.0883;
1301.1000;0.0798;-1.0905;
1301.4000;0.0847;-1.0792;
1301.7000;0.0798;-1.0973;
1302.0000;0.0781;-1.1041;
1302.3000;0.0814;-1.0973;
1302.6000;0.0912;-1.0679;
1302.9000;0.0822;-1.0883;
1303.2000;0.0806;-1.0905;
1303.5000;0.0806;-1.0883;
1303.8000;0.0781;-1.1041;
1304.1000;0.0830;-1.0928;
1304.4000;0.0822;-1.0973;
1304.7000;0.0822;-1.1109;
1305.0000;0.0814;-1.1041;
1305.3000;0.0814;-1.0928;
1305.6000;0.0790;-1.0860;
1305.9000;0.0781;-1.0905;
1306.2000;0.0798;-1.0815;
1306.5000;0.0806;-1.0837;
1306.8000;0.0790;-1.0928;
1307.1000;0.0806;-1.0928;
1307.4000;0.0798;-1.0951;
1307.7000;0.0806;-1.0928;
1308.0000;0.0806;-1.0928;
1308.3000;0.0733;-1.1222;
1308.6000;0.0814;-1.0951;
1308.9000;0.0814;-1.0973;
1309.2000;0.0814;-1.1064;
1309.5000;0.0790;-1.1109;
1309.8000;0.0822;-1.1064;
1310.1000;0.0806;-1.1086;
1310.4000;0.0838;-1.0905;
1310.7000;0.0806;-1.0951;
1311.0000;0.0781;-1.1064;
1311.3000;0.0830;-1.1041;
1311.6000;0.0814;-1.0996;
1311.9000;0.0830;-1.0905;
1312.2000;0.0798;-1.0996;
1312.5000;0.0790;-1.1018;
1312.8000;0.0822;-1.0951;
1313.1000;0.0855;-1.0860;
1313.4000;0.0806;-1.1064;
1313.7000;0.0798;-1.1041;
1314.0000;0.0863;-1.0928;
1314.3000;0.0904;-1.0860;
1314.6000;0.0806;-1.1086;
1314.9000;0.0879;-1.0883;
1315.2000;0.0806;-1.1086;
1315.5000;0.0814;-1.1109;
1315.8000;0.0724;-1.1313;
1316.1000;0.0781;-1.1132;
1316.4000;0.0741;-1.1132;
1316.7000;0.0814;-1.1018;
1317.0000;0.0855;-1.0883;
1317.3000;0.0806;-1.0951;
1317.6000;0.0798;-1.0928;
1317.9000;0.0855;-1.0792;
1318.2000;0.0863;-1.0815;
1318.5000;0.0847;-1.0883;
1318.8000;0.0822;-1.0951;
1319.1000;0.0814;-1.0996;
1319.4000;0.0814;-1.1064;
1319.7000;0.0814;-1.0973;
1320.0000;0.0781;-1.1109;
1320.3000;0.0863;-1.0928;
1320.6000;0.0838;-1.1018;
1320.9000;0.0887;-1.0815;
1321.2000;0.0781;-1.0996;
1321.5000;0.0806;-1.0905;
1321.8000;0.0806;-1.0860;
1322.1000;0.0806;-1.0815;
1322.4000;0.0798;-1.0883;
1322.7000;0.0773;-1.1018;
1323.0000;0.0814;-1.0928;
1323.3000;0.0798;-1.1064;
1323.6000;0.0806;-1.1041;
1323.9000;0.0790;-1.1064;
1324.2000;0.0790;-1.1086;
1324.5000;0.0830;-1.0996;
1324.8000;0.0773;-1.1109;
1325.1000;0.0798;-1.1041;
1325.4000;0.0822;-1.0996;
1325.7000;0.0830;-1.0973;
1326.0000;0.0790;-1.0996;
1326.3000;0.0798;-1.0973;
1326.6000;0.0757;-1.1064;
1326.9000;0.0814;-1.0973;
1327.2000;0.0814;-1.1154;
1327.5000;0.0798;-1.1222;
1327.8000;0.0838;-1.1086;
1328.1000;0.0838;-1.1064;
1328.4000;0.0749;-1.1199;
1328.7000;0.0798;-1.1132;
1329.0000;0.0790;-1.1154;
1329.3000;0.0749;-1.1222;
1329.6000;0.0798;-1.1245;
1329.9000;0.0790;-1.1199;
1330.2000;0.0798;-1.1154;
1330.5000;0.0798;-1.1199;
1330.8000;0.0773;-1.1109;
1331.1000;0.0830;-1.0951;
1331.4000;0.0887;-1.0792;
1331.7000;0.0814;-1.1086;
1332.0000;0.0806;-1.1018;
1332.3000;0.0733;-1.1290;
1332.6000;0.0798;-1.1199;
1332.9000;0.0822;-1.1132;
1333.2000;0.0830;-1.1109;
1333.5000;0.0773;-1.1154;
1333.8000;0.0806;-1.1086;
1334.1000;0.0781;-1.1064;
1334.4000;0.0798;-1.1018;
1334.7000;0.0871;-1.0837;
1335.0000;0.0741;-1.1177;
1335.3000;0.0798;-1.1154;
1335.6000;0.0781;-1.1222;
1335.9000;0.0847;-1.1154;
1336.2000;0.0781;-1.1267;
1336.5000;0.0773;-1.1222;
1336.8000;0.0790;-1.1086;
1337.1000;0.0798;-1.0996;
1337.4000;0.0806;-1.1018;
1337.7000;0.0806;-1.0973;
1338.0000;0.0724;-1.1199;
1338.3000;0.0790;-1.1086;
1338.6000;0.0814;-1.1018;
1338.9000;0.0749;-1.1199;
1339.2000;0.0806;-1.1109;
1339.5000;0.0855;-1.0928;
1339.8000;0.0855;-1.0883;
1340.1000;0.0773;-1.1109;
1340.4000;0.0798;-1.1041;
1340.7000;0.0790;-1.1018;
1341.0000;0.0830;-1.0860;
1341.3000;0.0798;-1.0837;
1341.6000;0.0667;-1.1199;
1341.9000;0.0830;-1.0770;
1342.2000;0.0790;-1.0996;
1342.5000;0.0806;-1.1064;
1342.8000;0.0790;-1.1177;
1343.1000;0.0822;-1.1154;
1343.4000;0.0830;-1.1086;
1343.7000;0.0814;-1.1132;
1344.0000;0.0790;-1.1177;
1344.3000;0.0765;-1.1245;
1344.6000;0.0830;-1.1041;
1344.9000;0.0814;-1.1086;
1345.2000;0.0781;-1.1064;
1345.5000;0.0814;-1.1041;
1345.8000;0.0822;-1.1064;
1346.1000;0.0822;-1.1109;
1346.4000;0.0741;-1.1245;
1346.7000;0.0773;-1.1109;
1347.0000;0.0790;-1.1064;
1347.3000;0.0716;-1.1245;
1347.6000;0.0814;-1.0905;
1347.9000;0.0822;-1.0951;
1348.2000;0.0733;-1.1132;
1348.5000;0.0773;-1.1064;
1348.8000;0.0830;-1.0905;
1349.1000;0.0806;-1.0996;
1349.4000;0.0749;-1.1132;
1349.7000;0.0790;-1.1086;
1350.0000;0.0822;-1.0996;
1350.3000;0.0798;-1.0973;
1350.6000;0.0806;-1.0996;
1350.9000;0.0806;-1.0951;
1351.2000;0.0814;-1.0951;
1351.5000;0.0830;-1.0973;
1351.8000;0.0847;-1.0883;
1352.1000;0.0798;-1.0996;
1352.4000;0.0749;-1.1154;
1352.7000;0.0806;-1.0973;
1353.0000;0.0822;-1.0996;
1353.3000;0.0814;-1.0996;
1353.6000;0.0798;-1.1041;
1353.9000;0.0814;-1.0973;
1354.2000;0.0855;-1.0883;
1354.5000;0.0798;-1.1086;
1354.8000;0.0798;-1.1041;
1355.1000;0.0798;-1.1064;
1355.4000;0.0781;-1.1041;
1355.7000;0.0798;-1.0928;
1356.0000;0.0790;-1.1018;
1356.3000;0.0814;-1.1041;
1356.6000;0.0814;-1.0996;
1356.9000;0.0790;-1.1018;
1357.2000;0.0724;-1.1086;
1357.5000;0.0814;-1.0996;
1357.8000;0.0773;-1.1018;
1358.1000;0.0806;-1.0996;
1358.4000;0.0830;-1.0973;
1358.7000;0.0806;-1.0996;
1359.0000;0.0798;-1.1018;
1359.3000;0.0806;-1.1154;
1359.6000;0.0879;-1.0996;
1359.9000;0.0814;-1.1154;
1360.2000;0.0790;-1.1177;
1360.5000;0.0806;-1.1041;
1360.8000;0.0757;-1.1041;
1361.1000;0.0822;-1.0883;
1361.4000;0.0806;-1.0951;
1361.7000;0.0814;-1.1018;
1362.0000;0.0790;-1.1018;
1362.3000;0.0781;-1.0973;
1362.6000;0.0806;-1.1018;
1362.9000;0.0733;-1.1132;
1363.2000;0.0790;-1.1086;
1363.5000;0.0814;-1.0996;
1363.8000;0.0773;-1.1018;
1364.1000;0.0757;-1.0951;
1364.4000;0.0667;-1.1177;
1364.7000;0.0814;-1.0905;
1365.0000;0.0814;-1.0837;
1365.3000;0.0863;-1.0566;
1365.6000;0.0790;-1.0679;
1365.9000;0.0798;-1.0724;
1366.2000;0.0806;-1.0679;
1366.5000;0.0806;-1.0724;
1366.8000;0.0814;-1.0770;
1367.1000;0.0855;-1.0792;
1367.4000;0.0822;-1.0837;
1367.7000;0.0806;-1.0973;
1368.0000;0.0822;-1.0905;
1368.3000;0.0806;-1.0951;
1368.6000;0.0806;-1.0973;
1368.9000;0.0814;-1.1041;
1369.2000;0.0733;-1.1177;
1369.5000;0.0790;-1.0996;
1369.8000;0.0814;-1.0905;
1370.1000;0.0773;-1.0996;
1370.4000;0.0814;-1.0815;
1370.7000;0.0790;-1.0883;
1371.0000;0.0830;-1.0792;
1371.3000;0.0741;-1.1064;
1371.6000;0.0798;-1.0973;
1371.9000;0.0676;-1.1245;
1372.2000;0.0765;-1.1018;
1372.5000;0.0814;-1.0951;
1372.8000;0.0790;-1.0996;
1373.1000;0.0830;-1.0928;
1373.4000;0.0798;-1.1018;
1373.7000;0.0806;-1.0973;
1374.0000;0.0838;-1.0928;
1374.3000;0.0741;-1.1177;
1374.6000;0.0733;-1.1313;
1374.9000;0.0806;-1.1154;
1375.2000;0.0822;-1.1132;
1375.5000;0.0814;-1.1041;
1375.8000;0.0814;-1.1018;
1376.1000;0.0814;-1.0996;
1376.4000;0.0790;-1.0996;
1376.7000;0.0814;-1.0883;
1377.0000;0.0798;-1.0973;
1377.3000;0.0822;-1.0951;
1377.6000;0.0822;-1.0905;
1377.9000;0.0765;-1.1018;
1378.2000;0.0806;-1.0883;
1378.5000;0.0814;-1.0724;
1378.8000;0.0814;-1.0679;
1379.1000;0.0814;-1.0634;
1379.4000;0.0847;-1.0566;
1379.7000;0.0733;-1.0860;
1380.0000;0.0790;-1.0770;
1380.3000;0.0806;-1.0634;
1380.6000;0.0806;-1.0589;
1380.9000;0.0749;-1.0747;
1381.2000;0.0749;-1.0792;
1381.5000;0.0676;-1.0996;
1381.8000;0.0798;-1.0792;
1382.1000;0.0790;-1.0815;
1382.4000;0.0790;-1.0724;
1382.7000;0.0790;-1.0679;
1383.0000;0.0814;-1.0679;
1383.3000;0.0798;-1.0747;
1383.6000;0.0814;-1.0815;
1383.9000;0.0798;-1.0928;
1384.2000;0.0790;-1.0883;
1384.5000;0.0830;-1.0815;
1384.8000;0.0790;-1.0860;
1385.1000;0.0798;-1.0815;
1385.4000;0.0814;-1.0815;
1385.7000;0.0724;-1.1041;
1386.0000;0.0798;-1.0792;
1386.3000;0.0765;-1.0883;
1386.6000;0.0741;-1.0815;
1386.9000;0.0724;-1.0928;
1387.2000;0.0773;-1.0837;
1387.5000;0.0806;-1.0951;
1387.8000;0.0847;-1.0905;
1388.1000;0.0749;-1.1222;
1388.4000;0.0814;-1.1041;
1388.7000;0.0724;-1.1358;
1389.0000;0.0798;-1.1222;
1389.3000;0.0822;-1.1154;
1389.6000;0.0790;-1.1199;
1389.9000;0.0814;-1.1064;
1390.2000;0.0838;-1.0905;
1390.5000;0.0814;-1.0973;
1390.8000;0.0781;-1.0928;
1391.1000;0.0781;-1.0973;
1391.4000;0.0765;-1.1064;
1391.7000;0.0806;-1.0996;
1392.0000;0.0830;-1.1018;
1392.3000;0.0806;-1.1064;
1392.6000;0.0781;-1.1154;
1392.9000;0.0790;-1.1177;
1393.2000;0.0806;-1.1154;
1393.5000;0.0814;-1.1109;
1393.8000;0.0798;-1.1177;
1394.1000;0.0871;-1.0951;
1394.4000;0.0838;-1.1109;
1394.7000;0.0806;-1.1064;
1395.0000;0.0814;-1.1041;
1395.3000;0.0838;-1.1018;
1395.6000;0.0806;-1.1109;
1395.9000;0.0798;-1.1109;
1396.2000;0.0757;-1.1177;
1396.5000;0.0822;-1.1086;
1396.8000;0.0830;-1.1018;
1397.1000;0.0822;-1.1154;
1397.4000;0.0822;-1.1177;
1397.7000;0.0798;-1.1245;
1398.0000;0.0781;-1.1290;
1398.3000;0.0790;-1.1222;
1398.6000;0.0781;-1.1177;
1398.9000;0.0822;-1.1086;
1399.2000;0.0790;-1.1154;
1399.5000;0.0806;-1.1086;
1399.8000;0.0790;-1.1132;
