time/ms;Fluo/V;P700 deltaI/I x10³;
-199.8000;1.0704;-5.2838;
-199.5000;1.0720;-5.2864;
-199.2000;1.0729;-5.2891;
-198.9000;1.0720;-5.2812;
-198.6000;1.0720;-5.2838;
-198.3000;1.0729;-5.2812;
-198.0000;1.0729;-5.2812;
-197.7000;1.0729;-5.2785;
-197.4000;1.0720;-5.2785;
-197.1000;1.0729;-5.2759;
-196.8000;1.0729;-5.2785;
-196.5000;1.0737;-5.2732;
-196.2000;1.0745;-5.2785;
-195.9000;1.0729;-5.2812;
-195.6000;1.0729;-5.2785;
-195.3000;1.0720;-5.2891;
-195.0000;1.0737;-5.2864;
-194.7000;1.0712;-5.2891;
-194.4000;1.0720;-5.2785;
-194.1000;1.0720;-5.2812;
-193.8000;1.0712;-5.2891;
-193.5000;1.0737;-5.2759;
-193.2000;1.0737;-5.2785;
-192.9000;1.0745;-5.2838;
-192.6000;1.0737;-5.2864;
-192.3000;1.0729;-5.2838;
-192.0000;1.0729;-5.2864;
-191.7000;1.0720;-5.2785;
-191.4000;1.0729;-5.2706;
-191.1000;1.0737;-5.2759;
-190.8000;1.0680;-5.2812;
-190.5000;1.0729;-5.2759;
-190.2000;1.0737;-5.2759;
-189.9000;1.0737;-5.2785;
-189.6000;1.0696;-5.2864;
-189.3000;1.0745;-5.2732;
-189.0000;1.0745;-5.2759;
-188.7000;1.0753;-5.2785;
-188.4000;1.0729;-5.2785;
-188.1000;1.0720;-5.2812;
-187.8000;1.0786;-5.2653;
-187.5000;1.0737;-5.2680;
-187.2000;1.0737;-5.2759;
-186.9000;1.0696;-5.2891;
-186.6000;1.0729;-5.2838;
-186.3000;1.0745;-5.2785;
-186.0000;1.0729;-5.2812;
-185.7000;1.0712;-5.2891;
-185.4000;1.0712;-5.2970;
-185.1000;1.0720;-5.2970;
-184.8000;1.0737;-5.2891;
-184.5000;1.0729;-5.2970;
-184.2000;1.0712;-5.3076;
-183.9000;1.0737;-5.2996;
-183.6000;1.0729;-5.2970;
-183.3000;1.0720;-5.2996;
-183.0000;1.0729;-5.3049;
-182.7000;1.0737;-5.3102;
-182.4000;1.0753;-5.3049;
-182.1000;1.0720;-5.3129;
-181.8000;1.0729;-5.3155;
-181.5000;1.0729;-5.3129;
-181.2000;1.0753;-5.2970;
-180.9000;1.0745;-5.2970;
-180.6000;1.0753;-5.2944;
-180.3000;1.0737;-5.2917;
-180.0000;1.0745;-5.2917;
-179.7000;1.0737;-5.2917;
-179.4000;1.0712;-5.2891;
-179.1000;1.0680;-5.2917;
-178.8000;1.0737;-5.2732;
-178.5000;1.0729;-5.2706;
-178.2000;1.0712;-5.2680;
-177.9000;1.0720;-5.2653;
-177.6000;1.0753;-5.2627;
-177.3000;1.0712;-5.2706;
-177.0000;1.0745;-5.2627;
-176.7000;1.0720;-5.2680;
-176.4000;1.0712;-5.2732;
-176.1000;1.0720;-5.2759;
-175.8000;1.0737;-5.2759;
-175.5000;1.0704;-5.2838;
-175.2000;1.0729;-5.2785;
-174.9000;1.0737;-5.2812;
-174.6000;1.0753;-5.2812;
-174.3000;1.0769;-5.2812;
-174.0000;1.0761;-5.2891;
-173.7000;1.0729;-5.2917;
-173.4000;1.0729;-5.2970;
-173.1000;1.0704;-5.2970;
-172.8000;1.0729;-5.2864;
-172.5000;1.0672;-5.2970;
-172.2000;1.0753;-5.2680;
-171.9000;1.0745;-5.2653;
-171.6000;1.0753;-5.2759;
-171.3000;1.0737;-5.2759;
-171.0000;1.0712;-5.2785;
-170.7000;1.0745;-5.2785;
-170.4000;1.0720;-5.2812;
-170.1000;1.0729;-5.2812;
-169.8000;1.0720;-5.2785;
-169.5000;1.0769;-5.2732;
-169.2000;1.0753;-5.2785;
-168.9000;1.0720;-5.2917;
-168.6000;1.0753;-5.2838;
-168.3000;1.0729;-5.2812;
-168.0000;1.0737;-5.2864;
-167.7000;1.0737;-5.2970;
-167.4000;1.0729;-5.2970;
-167.1000;1.0729;-5.2917;
-166.8000;1.0712;-5.2864;
-166.5000;1.0720;-5.2812;
-166.2000;1.0712;-5.2759;
-165.9000;1.0720;-5.2732;
-165.6000;1.0737;-5.2627;
-165.3000;1.0737;-5.2706;
-165.0000;1.0720;-5.2759;
-164.7000;1.0720;-5.2759;
-164.4000;1.0680;-5.2891;
-164.1000;1.0720;-5.2706;
-163.8000;1.0704;-5.2759;
-163.5000;1.0696;-5.2864;
-163.2000;1.0729;-5.2759;
-162.9000;1.0712;-5.2838;
-162.6000;1.0729;-5.2864;
-162.3000;1.0712;-5.2970;
-162.0000;1.0737;-5.2917;
-161.7000;1.0720;-5.2970;
-161.4000;1.0704;-5.2917;
-161.1000;1.0720;-5.2838;
-160.8000;1.0729;-5.2917;
-160.5000;1.0712;-5.2944;
-160.2000;1.0712;-5.2891;
-159.9000;1.0729;-5.2891;
-159.6000;1.0712;-5.2891;
-159.3000;1.0729;-5.2864;
-159.0000;1.0720;-5.2917;
-158.7000;1.0729;-5.2944;
-158.4000;1.0720;-5.2891;
-158.1000;1.0737;-5.2864;
-157.8000;1.0729;-5.2864;
-157.5000;1.0729;-5.2812;
-157.2000;1.0737;-5.2812;
-156.9000;1.0737;-5.2864;
-156.6000;1.0720;-5.2917;
-156.3000;1.0663;-5.2970;
-156.0000;1.0712;-5.2838;
-155.7000;1.0720;-5.2838;
-155.4000;1.0729;-5.2891;
-155.1000;1.0655;-5.3076;
-154.8000;1.0745;-5.2891;
-154.5000;1.0720;-5.2917;
-154.2000;1.0737;-5.2917;
-153.9000;1.0729;-5.2970;
-153.6000;1.0720;-5.2917;
-153.3000;1.0737;-5.2838;
-153.0000;1.0753;-5.2785;
-152.7000;1.0729;-5.2812;
-152.4000;1.0729;-5.2864;
-152.1000;1.0720;-5.2944;
-151.8000;1.0712;-5.2970;
-151.5000;1.0712;-5.2917;
-151.2000;1.0712;-5.2917;
-150.9000;1.0704;-5.2917;
-150.6000;1.0720;-5.2917;
-150.3000;1.0737;-5.2917;
-150.0000;1.0720;-5.2917;
-149.7000;1.0737;-5.2944;
-149.4000;1.0729;-5.2970;
-149.1000;1.0729;-5.2944;
-148.8000;1.0737;-5.2944;
-148.5000;1.0737;-5.2944;
-148.2000;1.0663;-5.2970;
-147.9000;1.0737;-5.2838;
-147.6000;1.0737;-5.2785;
-147.3000;1.0720;-5.2759;
-147.0000;1.0704;-5.2732;
-146.7000;1.0745;-5.2680;
-146.4000;1.0720;-5.2759;
-146.1000;1.0753;-5.2838;
-145.8000;1.0737;-5.2864;
-145.5000;1.0737;-5.2891;
-145.2000;1.0737;-5.2891;
-144.9000;1.0745;-5.2812;
-144.6000;1.0720;-5.2864;
-144.3000;1.0737;-5.2917;
-144.0000;1.0729;-5.2944;
-143.7000;1.0737;-5.3049;
-143.4000;1.0704;-5.3076;
-143.1000;1.0737;-5.3023;
-142.8000;1.0745;-5.2970;
-142.5000;1.0720;-5.2970;
-142.2000;1.0737;-5.2864;
-141.9000;1.0720;-5.2864;
-141.6000;1.0712;-5.2838;
-141.3000;1.0672;-5.2944;
-141.0000;1.0720;-5.2838;
-140.7000;1.0712;-5.2785;
-140.4000;1.0729;-5.2759;
-140.1000;1.0704;-5.2812;
-139.8000;1.0720;-5.2785;
-139.5000;1.0720;-5.2812;
-139.2000;1.0720;-5.2864;
-138.9000;1.0720;-5.2864;
-138.6000;1.0680;-5.2970;
-138.3000;1.0745;-5.2812;
-138.0000;1.0688;-5.2996;
-137.7000;1.0712;-5.2917;
-137.4000;1.0737;-5.2864;
-137.1000;1.0737;-5.2864;
-136.8000;1.0729;-5.2812;
-136.5000;1.0761;-5.2732;
-136.2000;1.0777;-5.2732;
-135.9000;1.0745;-5.2759;
-135.6000;1.0745;-5.2838;
-135.3000;1.0712;-5.2944;
-135.0000;1.0745;-5.2891;
-134.7000;1.0745;-5.2812;
-134.4000;1.0737;-5.2759;
-134.1000;1.0729;-5.2759;
-133.8000;1.0745;-5.2732;
-133.5000;1.0737;-5.2759;
-133.2000;1.0737;-5.2864;
-132.9000;1.0712;-5.2944;
-132.6000;1.0737;-5.2917;
-132.3000;1.0712;-5.2917;
-132.0000;1.0720;-5.2838;
-131.7000;1.0720;-5.2812;
-131.4000;1.0704;-5.2812;
-131.1000;1.0737;-5.2759;
-130.8000;1.0720;-5.2759;
-130.5000;1.0729;-5.2706;
-130.2000;1.0729;-5.2706;
-129.9000;1.0729;-5.2732;
-129.6000;1.0761;-5.2706;
-129.3000;1.0712;-5.2759;
-129.0000;1.0712;-5.2706;
-128.7000;1.0704;-5.2838;
-128.4000;1.0729;-5.2785;
-128.1000;1.0720;-5.2812;
-127.8000;1.0704;-5.2917;
-127.5000;1.0729;-5.2944;
-127.2000;1.0753;-5.2864;
-126.9000;1.0720;-5.2812;
-126.6000;1.0729;-5.2785;
-126.3000;1.0712;-5.2917;
-126.0000;1.0745;-5.2917;
-125.7000;1.0720;-5.2891;
-125.4000;1.0737;-5.2864;
-125.1000;1.0696;-5.2917;
-124.8000;1.0704;-5.2838;
-124.5000;1.0729;-5.2706;
-124.2000;1.0737;-5.2732;
-123.9000;1.0737;-5.2759;
-123.6000;1.0737;-5.2732;
-123.3000;1.0753;-5.2759;
-123.0000;1.0737;-5.2759;
-122.7000;1.0720;-5.2706;
-122.4000;1.0745;-5.2706;
-122.1000;1.0712;-5.2838;
-121.8000;1.0729;-5.2812;
-121.5000;1.0745;-5.2706;
-121.2000;1.0737;-5.2785;
-120.9000;1.0729;-5.2864;
-120.6000;1.0745;-5.2864;
-120.3000;1.0720;-5.2812;
-120.0000;1.0745;-5.2759;
-119.7000;1.0753;-5.2785;
-119.4000;1.0729;-5.2759;
-119.1000;1.0745;-5.2653;
-118.8000;1.0729;-5.2759;
-118.5000;1.0729;-5.2838;
-118.2000;1.0729;-5.2891;
-117.9000;1.0712;-5.2970;
-117.6000;1.0639;-5.3208;
-117.3000;1.0745;-5.2891;
-117.0000;1.0680;-5.3049;
-116.7000;1.0729;-5.2891;
-116.4000;1.0582;-5.3102;
-116.1000;1.0720;-5.2785;
-115.8000;1.0737;-5.2732;
-115.5000;1.0737;-5.2785;
-115.2000;1.0720;-5.2785;
-114.9000;1.0720;-5.2785;
-114.6000;1.0688;-5.2838;
-114.3000;1.0720;-5.2838;
-114.0000;1.0720;-5.2838;
-113.7000;1.0704;-5.2812;
-113.4000;1.0720;-5.2732;
-113.1000;1.0720;-5.2732;
-112.8000;1.0712;-5.2732;
-112.5000;1.0729;-5.2680;
-112.2000;1.0720;-5.2706;
-111.9000;1.0720;-5.2574;
-111.6000;1.0720;-5.2600;
-111.3000;1.0704;-5.2627;
-111.0000;1.0729;-5.2627;
-110.7000;1.0729;-5.2574;
-110.4000;1.0729;-5.2680;
-110.1000;1.0720;-5.2732;
-109.8000;1.0680;-5.2838;
-109.5000;1.0720;-5.2759;
-109.2000;1.0729;-5.2812;
-108.9000;1.0720;-5.2917;
-108.6000;1.0745;-5.2759;
-108.3000;1.0712;-5.2812;
-108.0000;1.0712;-5.2812;
-107.7000;1.0712;-5.2759;
-107.4000;1.0720;-5.2759;
-107.1000;1.0712;-5.2785;
-106.8000;1.0639;-5.2838;
-106.5000;1.0712;-5.2680;
-106.2000;1.0712;-5.2785;
-105.9000;1.0720;-5.2706;
-105.6000;1.0745;-5.2653;
-105.3000;1.0720;-5.2706;
-105.0000;1.0729;-5.2706;
-104.7000;1.0729;-5.2732;
-104.4000;1.0737;-5.2680;
-104.1000;1.0729;-5.2812;
-103.8000;1.0720;-5.2838;
-103.5000;1.0753;-5.2812;
-103.2000;1.0737;-5.2759;
-102.9000;1.0753;-5.2759;
-102.6000;1.0737;-5.2812;
-102.3000;1.0729;-5.2838;
-102.0000;1.0729;-5.2785;
-101.7000;1.0729;-5.2785;
-101.4000;1.0761;-5.2680;
-101.1000;1.0745;-5.2732;
-100.8000;1.0745;-5.2706;
-100.5000;1.0745;-5.2706;
-100.2000;1.0720;-5.2785;
-99.9000;1.0729;-5.2759;
-99.6000;1.0729;-5.2759;
-99.3000;1.0737;-5.2732;
-99.0000;1.0688;-5.2838;
-98.7000;1.0729;-5.2732;
-98.4000;1.0720;-5.2732;
-98.1000;1.0745;-5.2732;
-97.8000;1.0737;-5.2732;
-97.5000;1.0753;-5.2680;
-97.2000;1.0696;-5.2864;
-96.9000;1.0753;-5.2812;
-96.6000;1.0761;-5.2785;
-96.3000;1.0688;-5.2944;
-96.0000;1.0720;-5.2864;
-95.7000;1.0672;-5.3049;
-95.4000;1.0769;-5.2759;
-95.1000;1.0769;-5.2706;
-94.8000;1.0729;-5.2838;
-94.5000;1.0737;-5.2917;
-94.2000;1.0720;-5.2944;
-93.9000;1.0753;-5.2944;
-93.6000;1.0712;-5.3023;
-93.3000;1.0729;-5.2996;
-93.0000;1.0623;-5.3287;
-92.7000;1.0737;-5.3023;
-92.4000;1.0737;-5.2970;
-92.1000;1.0794;-5.2838;
-91.8000;1.0729;-5.3023;
-91.5000;1.0737;-5.2944;
-91.2000;1.0712;-5.2970;
-90.9000;1.0712;-5.2891;
-90.6000;1.0720;-5.2838;
-90.3000;1.0720;-5.2838;
-90.0000;1.0729;-5.2785;
-89.7000;1.0720;-5.2838;
-89.4000;1.0712;-5.2838;
-89.1000;1.0729;-5.2864;
-88.8000;1.0737;-5.2812;
-88.5000;1.0753;-5.2812;
-88.2000;1.0729;-5.2812;
-87.9000;1.0720;-5.2785;
-87.6000;1.0720;-5.2785;
-87.3000;1.0737;-5.2785;
-87.0000;1.0712;-5.2838;
-86.7000;1.0745;-5.2917;
-86.4000;1.0729;-5.2917;
-86.1000;1.0729;-5.2891;
-85.8000;1.0720;-5.2891;
-85.5000;1.0712;-5.2891;
-85.2000;1.0737;-5.2864;
-84.9000;1.0720;-5.2838;
-84.6000;1.0712;-5.2891;
-84.3000;1.0712;-5.2917;
-84.0000;1.0720;-5.2838;
-83.7000;1.0729;-5.2732;
-83.4000;1.0712;-5.2838;
-83.1000;1.0704;-5.2917;
-82.8000;1.0745;-5.2785;
-82.5000;1.0753;-5.2785;
-82.2000;1.0729;-5.2812;
-81.9000;1.0737;-5.2812;
-81.6000;1.0729;-5.2759;
-81.3000;1.0745;-5.2706;
-81.0000;1.0720;-5.2759;
-80.7000;1.0704;-5.2785;
-80.4000;1.0720;-5.2785;
-80.1000;1.0720;-5.2812;
-79.8000;1.0737;-5.2785;
-79.5000;1.0745;-5.2680;
-79.2000;1.0729;-5.2680;
-78.9000;1.0745;-5.2706;
-78.6000;1.0712;-5.2759;
-78.3000;1.0753;-5.2680;
-78.0000;1.0737;-5.2759;
-77.7000;1.0753;-5.2653;
-77.4000;1.0737;-5.2653;
-77.1000;1.0753;-5.2653;
-76.8000;1.0720;-5.2653;
-76.5000;1.0761;-5.2548;
-76.2000;1.0737;-5.2653;
-75.9000;1.0761;-5.2627;
-75.6000;1.0729;-5.2732;
-75.3000;1.0720;-5.2785;
-75.0000;1.0720;-5.2785;
-74.7000;1.0737;-5.2785;
-74.4000;1.0769;-5.2627;
-74.1000;1.0729;-5.2812;
-73.8000;1.0737;-5.2759;
-73.5000;1.0737;-5.2759;
-73.2000;1.0745;-5.2732;
-72.9000;1.0729;-5.2785;
-72.6000;1.0737;-5.2838;
-72.3000;1.0712;-5.2970;
-72.0000;1.0737;-5.2944;
-71.7000;1.0737;-5.2891;
-71.4000;1.0737;-5.2864;
-71.1000;1.0761;-5.2838;
-70.8000;1.0720;-5.2970;
-70.5000;1.0720;-5.2970;
-70.2000;1.0720;-5.2970;
-69.9000;1.0720;-5.3076;
-69.6000;1.0753;-5.3023;
-69.3000;1.0688;-5.3181;
-69.0000;1.0720;-5.3076;
-68.7000;1.0729;-5.2996;
-68.4000;1.0729;-5.2864;
-68.1000;1.0704;-5.2864;
-67.8000;1.0737;-5.2838;
-67.5000;1.0704;-5.2891;
-67.2000;1.0737;-5.2838;
-66.9000;1.0729;-5.2864;
-66.6000;1.0745;-5.2785;
-66.3000;1.0704;-5.2812;
-66.0000;1.0712;-5.2864;
-65.7000;1.0745;-5.2838;
-65.4000;1.0720;-5.2944;
-65.1000;1.0720;-5.2970;
-64.8000;1.0712;-5.2917;
-64.5000;1.0737;-5.2838;
-64.2000;1.0680;-5.2944;
-63.9000;1.0720;-5.2812;
-63.6000;1.0720;-5.2838;
-63.3000;1.0647;-5.2996;
-63.0000;1.0720;-5.2838;
-62.7000;1.0737;-5.2812;
-62.4000;1.0729;-5.2812;
-62.1000;1.0729;-5.2732;
-61.8000;1.0729;-5.2680;
-61.5000;1.0745;-5.2653;
-61.2000;1.0712;-5.2680;
-60.9000;1.0729;-5.2600;
-60.6000;1.0753;-5.2521;
-60.3000;1.0720;-5.2548;
-60.0000;1.0729;-5.2574;
-59.7000;1.0729;-5.2653;
-59.4000;1.0729;-5.2732;
-59.1000;1.0720;-5.2706;
-58.8000;1.0704;-5.2759;
-58.5000;1.0720;-5.2680;
-58.2000;1.0729;-5.2653;
-57.9000;1.0737;-5.2680;
-57.6000;1.0712;-5.2706;
-57.3000;1.0745;-5.2653;
-57.0000;1.0737;-5.2759;
-56.7000;1.0737;-5.2785;
-56.4000;1.0753;-5.2706;
-56.1000;1.0704;-5.2864;
-55.8000;1.0720;-5.2759;
-55.5000;1.0672;-5.2891;
-55.2000;1.0712;-5.2838;
-54.9000;1.0737;-5.2917;
-54.6000;1.0720;-5.2970;
-54.3000;1.0729;-5.2970;
-54.0000;1.0729;-5.3049;
-53.7000;1.0729;-5.3102;
-53.4000;1.0737;-5.3155;
-53.1000;1.0753;-5.3023;
-52.8000;1.0842;-5.2812;
-52.5000;1.0712;-5.3076;
-52.2000;1.0720;-5.3102;
-51.9000;1.0737;-5.2917;
-51.6000;1.0753;-5.2917;
-51.3000;1.0737;-5.2944;
-51.0000;1.0729;-5.2996;
-50.7000;1.0737;-5.2996;
-50.4000;1.0712;-5.2970;
-50.1000;1.0737;-5.3049;
-49.8000;1.0720;-5.3023;
-49.5000;1.0729;-5.3023;
-49.2000;1.0720;-5.2970;
-48.9000;1.0720;-5.2944;
-48.6000;1.0769;-5.2812;
-48.3000;1.0720;-5.2996;
-48.0000;1.0720;-5.2970;
-47.7000;1.0712;-5.3049;
-47.4000;1.0712;-5.3076;
-47.1000;1.0712;-5.2996;
-46.8000;1.0720;-5.2838;
-46.5000;1.0729;-5.2785;
-46.2000;1.0720;-5.2785;
-45.9000;1.0720;-5.2864;
-45.6000;1.0737;-5.2785;
-45.3000;1.0737;-5.2732;
-45.0000;1.0729;-5.2759;
-44.7000;1.0737;-5.2759;
-44.4000;1.0712;-5.2864;
-44.1000;1.0729;-5.2812;
-43.8000;1.0729;-5.2864;
-43.5000;1.0729;-5.2944;
-43.2000;1.0729;-5.3023;
-42.9000;1.0753;-5.2970;
-42.6000;1.0745;-5.2838;
-42.3000;1.0729;-5.2838;
-42.0000;1.0655;-5.2917;
-41.7000;1.0729;-5.2653;
-41.4000;1.0745;-5.2732;
-41.1000;1.0720;-5.2785;
-40.8000;1.0737;-5.2864;
-40.5000;1.0737;-5.2864;
-40.2000;1.0737;-5.2864;
-39.9000;1.0720;-5.2838;
-39.6000;1.0712;-5.2891;
-39.3000;1.0696;-5.2944;
-39.0000;1.0729;-5.2838;
-38.7000;1.0696;-5.2838;
-38.4000;1.0720;-5.2759;
-38.1000;1.0720;-5.2759;
-37.8000;1.0720;-5.2706;
-37.5000;1.0753;-5.2680;
-37.2000;1.0720;-5.2732;
-36.9000;1.0720;-5.2838;
-36.6000;1.0737;-5.2944;
-36.3000;1.0745;-5.2944;
-36.0000;1.0729;-5.2891;
-35.7000;1.0720;-5.2917;
-35.4000;1.0729;-5.2891;
-35.1000;1.0737;-5.2944;
-34.8000;1.0729;-5.3049;
-34.5000;1.0712;-5.3076;
-34.2000;1.0729;-5.3076;
-33.9000;1.0737;-5.3023;
-33.6000;1.0720;-5.2944;
-33.3000;1.0737;-5.2891;
-33.0000;1.0712;-5.2838;
-32.7000;1.0720;-5.2917;
-32.4000;1.0720;-5.2864;
-32.1000;1.0729;-5.2891;
-31.8000;1.0720;-5.2996;
-31.5000;1.0729;-5.2944;
-31.2000;1.0737;-5.2891;
-30.9000;1.0712;-5.2917;
-30.6000;1.0720;-5.2891;
-30.3000;1.0680;-5.3049;
-30.0000;1.0745;-5.2891;
-29.7000;1.0745;-5.2864;
-29.4000;1.0720;-5.2838;
-29.1000;1.0704;-5.2785;
-28.8000;1.0720;-5.2838;
-28.5000;1.0729;-5.2864;
-28.2000;1.0720;-5.2838;
-27.9000;1.0729;-5.2864;
-27.6000;1.0729;-5.2891;
-27.3000;1.0745;-5.2838;
-27.0000;1.0729;-5.2864;
-26.7000;1.0720;-5.2785;
-26.4000;1.0729;-5.2812;
-26.1000;1.0729;-5.2732;
-25.8000;1.0729;-5.2706;
-25.5000;1.0761;-5.2680;
-25.2000;1.0769;-5.2627;
-24.9000;1.0720;-5.2706;
-24.6000;1.0696;-5.2759;
-24.3000;1.0720;-5.2785;
-24.0000;1.0729;-5.2759;
-23.7000;1.0712;-5.2785;
-23.4000;1.0737;-5.2732;
-23.1000;1.0729;-5.2732;
-22.8000;1.0696;-5.2812;
-22.5000;1.0729;-5.2732;
-22.2000;1.0688;-5.2759;
-21.9000;1.0720;-5.2627;
-21.6000;1.0720;-5.2627;
-21.3000;1.0737;-5.2548;
-21.0000;1.0737;-5.2548;
-20.7000;1.0729;-5.2600;
-20.4000;1.0729;-5.2680;
-20.1000;1.0737;-5.2627;
-19.8000;1.0729;-5.2680;
-19.5000;1.0729;-5.2785;
-19.2000;1.0688;-5.2864;
-18.9000;1.0737;-5.2759;
-18.6000;1.0729;-5.2706;
-18.3000;1.0712;-5.2732;
-18.0000;1.0729;-5.2732;
-17.7000;1.0704;-5.2759;
-17.4000;1.0720;-5.2732;
-17.1000;1.0761;-5.2600;
-16.8000;1.0712;-5.2706;
-16.5000;1.0720;-5.2785;
-16.2000;1.0688;-5.2917;
-15.9000;1.0729;-5.2680;
-15.6000;1.0720;-5.2732;
-15.3000;1.0712;-5.2706;
-15.0000;1.0729;-5.2627;
-14.7000;1.0720;-5.2600;
-14.4000;1.0729;-5.2680;
-14.1000;1.0729;-5.2600;
-13.8000;1.0745;-5.2574;
-13.5000;1.0712;-5.2732;
-13.2000;1.0729;-5.2680;
-12.9000;1.0729;-5.2732;
-12.6000;1.0720;-5.2732;
-12.3000;1.0729;-5.2706;
-12.0000;1.0720;-5.2759;
-11.7000;1.0745;-5.2680;
-11.4000;1.0704;-5.2838;
-11.1000;1.0737;-5.2680;
-10.8000;1.0745;-5.2653;
-10.5000;1.0729;-5.2653;
-10.2000;1.0737;-5.2706;
-9.9000;1.0720;-5.2838;
-9.6000;1.0737;-5.2680;
-9.3000;1.0745;-5.2627;
-9.0000;1.0712;-5.2653;
-8.7000;1.0720;-5.2732;
-8.4000;1.0720;-5.2706;
-8.1000;1.0729;-5.2732;
-7.8000;1.0753;-5.2785;
-7.5000;1.0818;-5.2600;
-7.2000;1.0745;-5.2759;
-6.9000;1.0745;-5.2759;
-6.6000;1.0696;-5.2812;
-6.3000;1.0688;-5.2917;
-6.0000;1.0729;-5.2838;
-5.7000;1.0720;-5.2838;
-5.4000;1.0712;-5.2812;
-5.1000;1.0729;-5.2706;
-4.8000;1.0720;-5.2732;
-4.5000;1.0729;-5.2706;
-4.2000;1.0712;-5.2785;
-3.9000;1.0737;-5.2785;
-3.6000;1.0720;-5.2812;
-3.3000;1.0753;-5.2759;
-3.0000;1.0737;-5.2785;
-2.7000;1.0737;-5.2785;
-2.4000;1.0712;-5.2891;
-2.1000;1.0753;-5.2732;
-1.8000;1.0737;-5.2759;
-1.5000;1.0737;-5.2759;
-1.2000;1.0647;-5.2944;
-0.9000;1.0720;-5.2680;
-0.6000;1.0745;-5.2680;
-0.3000;1.0745;-5.2759;
0.0000;1.0745;-5.2759;
0.3000;1.0924;-5.2759;
0.6000;1.1201;-5.2151;
0.9000;1.1404;-5.1703;
1.2000;1.1575;-5.1227;
1.5000;1.1713;-5.0858;
1.8000;1.1787;-5.0567;
2.1000;1.1917;-5.0277;
2.4000;1.1998;-5.0224;
2.7000;1.2072;-5.0039;
3.0000;1.2137;-4.9828;
3.3000;1.2129;-4.9907;
3.6000;1.2218;-4.9696;
3.9000;1.2251;-4.9537;
4.2000;1.2291;-4.9405;
4.5000;1.2348;-4.9247;
4.8000;1.2365;-4.9273;
5.1000;1.2389;-4.9273;
5.4000;1.2397;-4.9273;
5.7000;1.2446;-4.9194;
6.0000;1.2479;-4.9168;
6.3000;1.2503;-4.9141;
6.6000;1.2527;-4.9141;
6.9000;1.2519;-4.9194;
7.2000;1.2601;-4.9009;
7.5000;1.2601;-4.8956;
7.8000;1.2617;-4.8930;
8.1000;1.2641;-4.8983;
8.4000;1.2650;-4.9115;
8.7000;1.2674;-4.9088;
9.0000;1.2674;-4.9141;
9.3000;1.2682;-4.9168;
9.6000;1.2666;-4.9432;
9.9000;1.2739;-4.9352;
10.2000;1.2755;-4.9379;
10.5000;1.2747;-4.9379;
10.8000;1.2788;-4.9326;
11.1000;1.2821;-4.9300;
11.4000;1.2804;-4.9352;
11.7000;1.2821;-4.9379;
12.0000;1.2829;-4.9379;
12.3000;1.2869;-4.9247;
12.6000;1.2869;-4.9273;
12.9000;1.2934;-4.9141;
13.2000;1.2861;-4.9379;
13.5000;1.2894;-4.9326;
13.8000;1.2902;-4.9220;
14.1000;1.2918;-4.9115;
14.4000;1.2910;-4.9194;
14.7000;1.2918;-4.9220;
15.0000;1.2943;-4.9194;
15.3000;1.2951;-4.9168;
15.6000;1.2959;-4.9115;
15.9000;1.2959;-4.9247;
16.2000;1.2959;-4.9273;
16.5000;1.2991;-4.9168;
16.8000;1.3016;-4.9168;
17.1000;1.2991;-4.9247;
17.4000;1.2991;-4.9273;
17.7000;1.3081;-4.9062;
18.0000;1.3000;-4.9247;
18.3000;1.3000;-4.9220;
18.6000;1.3032;-4.9141;
18.9000;1.3032;-4.9141;
19.2000;1.3024;-4.9088;
19.5000;1.3024;-4.9141;
19.8000;1.3065;-4.9062;
20.1000;1.3073;-4.9009;
20.4000;1.3016;-4.9062;
20.7000;1.3048;-4.8983;
21.0000;1.3081;-4.9036;
21.3000;1.3057;-4.9115;
21.6000;1.3073;-4.9141;
21.9000;1.3065;-4.9168;
22.2000;1.3073;-4.9194;
22.5000;1.3073;-4.9115;
22.8000;1.3081;-4.9036;
23.1000;1.3081;-4.9062;
23.4000;1.3081;-4.9115;
23.7000;1.3089;-4.9062;
24.0000;1.3105;-4.9062;
24.3000;1.3097;-4.9088;
24.6000;1.3097;-4.9141;
24.9000;1.3105;-4.9168;
25.2000;1.3130;-4.9062;
25.5000;1.3122;-4.9168;
25.8000;1.3122;-4.9062;
26.1000;1.3146;-4.9088;
26.4000;1.3154;-4.9062;
26.7000;1.3130;-4.9141;
27.0000;1.3154;-4.9141;
27.3000;1.3138;-4.9168;
27.6000;1.3138;-4.9194;
27.9000;1.3154;-4.9168;
28.2000;1.3154;-4.9168;
28.5000;1.3146;-4.9115;
28.8000;1.3138;-4.9141;
29.1000;1.3154;-4.9036;
29.4000;1.3154;-4.9009;
29.7000;1.3138;-4.9036;
30.0000;1.3171;-4.8956;
30.3000;1.3171;-4.8904;
30.6000;1.3162;-4.8983;
30.9000;1.3171;-4.9141;
31.2000;1.3179;-4.9194;
31.5000;1.3187;-4.9088;
31.8000;1.3162;-4.9194;
32.1000;1.3138;-4.9300;
32.4000;1.3179;-4.9247;
32.7000;1.3179;-4.9273;
33.0000;1.3179;-4.9300;
33.3000;1.3162;-4.9379;
33.6000;1.3268;-4.9062;
33.9000;1.3097;-4.9432;
34.2000;1.3171;-4.9220;
34.5000;1.3162;-4.9194;
34.8000;1.3154;-4.9326;
35.1000;1.3187;-4.9220;
35.4000;1.3195;-4.9273;
35.7000;1.3228;-4.9247;
36.0000;1.3154;-4.9432;
36.3000;1.3211;-4.9300;
36.6000;1.3211;-4.9194;
36.9000;1.3236;-4.9168;
37.2000;1.3203;-4.9141;
37.5000;1.3211;-4.9168;
37.8000;1.3195;-4.9194;
38.1000;1.3228;-4.9115;
38.4000;1.3228;-4.9062;
38.7000;1.3195;-4.9115;
39.0000;1.3187;-4.9168;
39.3000;1.3203;-4.9115;
39.6000;1.3219;-4.9062;
39.9000;1.3219;-4.9036;
40.2000;1.3211;-4.9036;
40.5000;1.3228;-4.8956;
40.8000;1.3203;-4.9062;
41.1000;1.3211;-4.9062;
41.4000;1.3211;-4.9115;
41.7000;1.3211;-4.9141;
42.0000;1.3187;-4.9194;
42.3000;1.3187;-4.9220;
42.6000;1.3203;-4.9194;
42.9000;1.3203;-4.9273;
43.2000;1.3293;-4.9062;
43.5000;1.3195;-4.9326;
43.8000;1.3211;-4.9194;
44.1000;1.3219;-4.9115;
44.4000;1.3219;-4.9115;
44.7000;1.3219;-4.9141;
45.0000;1.3228;-4.9115;
45.3000;1.3228;-4.9194;
45.6000;1.3195;-4.9273;
45.9000;1.3236;-4.9141;
46.2000;1.3211;-4.9141;
46.5000;1.3228;-4.9194;
46.8000;1.3228;-4.9168;
47.1000;1.3228;-4.9088;
47.4000;1.3228;-4.9088;
47.7000;1.3228;-4.9088;
48.0000;1.3244;-4.9062;
48.3000;1.3236;-4.8983;
48.6000;1.3219;-4.9062;
48.9000;1.3244;-4.9009;
49.2000;1.3236;-4.9088;
49.5000;1.3244;-4.9141;
49.8000;1.3195;-4.9115;
50.1000;1.3219;-4.9115;
50.4000;1.3228;-4.9062;
50.7000;1.3244;-4.8956;
51.0000;1.3260;-4.8983;
51.3000;1.3236;-4.9115;
51.6000;1.3236;-4.9062;
51.9000;1.3228;-4.9036;
52.2000;1.3236;-4.8983;
52.5000;1.3203;-4.9141;
52.8000;1.3146;-4.9352;
53.1000;1.3228;-4.9141;
53.4000;1.3236;-4.9088;
53.7000;1.3219;-4.9194;
54.0000;1.3244;-4.9168;
54.3000;1.3236;-4.9194;
54.6000;1.3252;-4.9115;
54.9000;1.3236;-4.9168;
55.2000;1.3228;-4.9194;
55.5000;1.3244;-4.9220;
55.8000;1.3252;-4.9141;
56.1000;1.3252;-4.9194;
56.4000;1.3252;-4.9141;
56.7000;1.3252;-4.9141;
57.0000;1.3252;-4.9115;
57.3000;1.3244;-4.9168;
57.6000;1.3236;-4.9088;
57.9000;1.3228;-4.9115;
58.2000;1.3252;-4.9088;
58.5000;1.3244;-4.9115;
58.8000;1.3252;-4.9115;
59.1000;1.3228;-4.9141;
59.4000;1.3244;-4.9036;
59.7000;1.3276;-4.8956;
60.0000;1.3244;-4.9088;
60.3000;1.3236;-4.9141;
60.6000;1.3236;-4.9194;
60.9000;1.3244;-4.9036;
61.2000;1.3244;-4.8983;
61.5000;1.3228;-4.9009;
61.8000;1.3228;-4.9036;
62.1000;1.3244;-4.8930;
62.4000;1.3236;-4.8956;
62.7000;1.3236;-4.8956;
63.0000;1.3244;-4.8930;
63.3000;1.3244;-4.8904;
63.6000;1.3252;-4.8877;
63.9000;1.3228;-4.8930;
64.2000;1.3244;-4.8956;
64.5000;1.3236;-4.9009;
64.8000;1.3252;-4.8983;
65.1000;1.3260;-4.9062;
65.4000;1.3162;-4.9247;
65.7000;1.3236;-4.9141;
66.0000;1.3236;-4.9115;
66.3000;1.3252;-4.9088;
66.6000;1.3244;-4.9115;
66.9000;1.3244;-4.9141;
67.2000;1.3252;-4.9115;
67.5000;1.3244;-4.9141;
67.8000;1.3236;-4.9036;
68.1000;1.3244;-4.9009;
68.4000;1.3252;-4.9088;
68.7000;1.3187;-4.9273;
69.0000;1.3236;-4.9141;
69.3000;1.3252;-4.9141;
69.6000;1.3276;-4.9141;
69.9000;1.3252;-4.9194;
70.2000;1.3260;-4.9194;
70.5000;1.3244;-4.9273;
70.8000;1.3252;-4.9247;
71.1000;1.3268;-4.9220;
71.4000;1.3268;-4.9168;
71.7000;1.3236;-4.9247;
72.0000;1.3244;-4.9220;
72.3000;1.3244;-4.9141;
72.6000;1.3260;-4.9115;
72.9000;1.3244;-4.9168;
73.2000;1.3244;-4.9168;
73.5000;1.3252;-4.9141;
73.8000;1.3252;-4.9194;
74.1000;1.3260;-4.9220;
74.4000;1.3244;-4.9194;
74.7000;1.3252;-4.9247;
75.0000;1.3203;-4.9300;
75.3000;1.3244;-4.9194;
75.6000;1.3260;-4.9168;
75.9000;1.3350;-4.9036;
76.2000;1.3244;-4.9141;
76.5000;1.3268;-4.8983;
76.8000;1.3187;-4.9273;
77.1000;1.3236;-4.9088;
77.4000;1.3268;-4.8983;
77.7000;1.3252;-4.8983;
78.0000;1.3260;-4.8904;
78.3000;1.3236;-4.8983;
78.6000;1.3260;-4.9009;
78.9000;1.3236;-4.9115;
79.2000;1.3260;-4.9036;
79.5000;1.3244;-4.9036;
79.8000;1.3244;-4.9141;
80.1000;1.3260;-4.9009;
80.4000;1.3244;-4.9062;
80.7000;1.3244;-4.9088;
81.0000;1.3276;-4.9009;
81.3000;1.3268;-4.8983;
81.6000;1.3268;-4.9036;
81.9000;1.3236;-4.9115;
82.2000;1.3211;-4.9115;
82.5000;1.3244;-4.9088;
82.8000;1.3252;-4.9141;
83.1000;1.3252;-4.9220;
83.4000;1.3252;-4.9115;
83.7000;1.3260;-4.9168;
84.0000;1.3268;-4.9168;
84.3000;1.3276;-4.9247;
84.6000;1.3260;-4.9300;
84.9000;1.3260;-4.9194;
85.2000;1.3276;-4.9194;
85.5000;1.3284;-4.9062;
85.8000;1.3268;-4.9141;
86.1000;1.3260;-4.9036;
86.4000;1.3195;-4.9168;
86.7000;1.3244;-4.8983;
87.0000;1.3244;-4.8983;
87.3000;1.3228;-4.9036;
87.6000;1.3236;-4.9062;
87.9000;1.3244;-4.9036;
88.2000;1.3268;-4.9036;
88.5000;1.3187;-4.9300;
88.8000;1.3236;-4.9352;
89.1000;1.3284;-4.9247;
89.4000;1.3260;-4.9300;
89.7000;1.3244;-4.9220;
90.0000;1.3268;-4.9194;
90.3000;1.3309;-4.9168;
90.6000;1.3276;-4.9273;
90.9000;1.3268;-4.9352;
91.2000;1.3203;-4.9458;
91.5000;1.3252;-4.9300;
91.8000;1.3244;-4.9273;
92.1000;1.3252;-4.9247;
92.4000;1.3252;-4.9273;
92.7000;1.3252;-4.9247;
93.0000;1.3260;-4.9141;
93.3000;1.3252;-4.9141;
93.6000;1.3284;-4.9062;
93.9000;1.3252;-4.9141;
94.2000;1.3260;-4.9220;
94.5000;1.3252;-4.9247;
94.8000;1.3252;-4.9273;
95.1000;1.3244;-4.9194;
95.4000;1.3260;-4.9194;
95.7000;1.3260;-4.9220;
96.0000;1.3244;-4.9194;
96.3000;1.3268;-4.9141;
96.6000;1.3260;-4.9115;
96.9000;1.3203;-4.9273;
97.2000;1.3244;-4.9115;
97.5000;1.3252;-4.9141;
97.8000;1.3252;-4.9088;
98.1000;1.3284;-4.9036;
98.4000;1.3276;-4.9115;
98.7000;1.3252;-4.9220;
99.0000;1.3252;-4.9247;
99.3000;1.3252;-4.9194;
99.6000;1.3260;-4.9088;
99.9000;1.3236;-4.9141;
100.2000;1.3268;-4.9088;
100.5000;1.3252;-4.8956;
100.8000;1.3268;-4.8956;
101.1000;1.3252;-4.8956;
101.4000;1.3260;-4.9009;
101.7000;1.3244;-4.8956;
102.0000;1.3301;-4.8798;
102.3000;1.3236;-4.8930;
102.6000;1.3260;-4.8956;
102.9000;1.3244;-4.9036;
103.2000;1.3244;-4.9088;
103.5000;1.3244;-4.9168;
103.8000;1.3244;-4.9115;
104.1000;1.3236;-4.9088;
104.4000;1.3211;-4.9247;
104.7000;1.3252;-4.9141;
105.0000;1.3276;-4.9088;
105.3000;1.3252;-4.9062;
105.6000;1.3260;-4.9115;
105.9000;1.3260;-4.9141;
106.2000;1.3244;-4.9088;
106.5000;1.3252;-4.9062;
106.8000;1.3260;-4.9036;
107.1000;1.3244;-4.9115;
107.4000;1.3252;-4.9194;
107.7000;1.3268;-4.9194;
108.0000;1.3211;-4.9326;
108.3000;1.3252;-4.9326;
108.6000;1.3228;-4.9405;
108.9000;1.3252;-4.9405;
109.2000;1.3252;-4.9379;
109.5000;1.3317;-4.9247;
109.8000;1.3260;-4.9273;
110.1000;1.3252;-4.9300;
110.4000;1.3228;-4.9273;
110.7000;1.3268;-4.9168;
111.0000;1.3260;-4.9141;
111.3000;1.3252;-4.9088;
111.6000;1.3260;-4.9009;
111.9000;1.3236;-4.9115;
112.2000;1.3244;-4.9062;
112.5000;1.3260;-4.9088;
112.8000;1.3252;-4.9220;
113.1000;1.3252;-4.9247;
113.4000;1.3284;-4.9168;
113.7000;1.3268;-4.9168;
114.0000;1.3244;-4.9247;
114.3000;1.3309;-4.9141;
114.6000;1.3293;-4.9247;
114.9000;1.3260;-4.9247;
115.2000;1.3268;-4.9247;
115.5000;1.3276;-4.9220;
115.8000;1.3268;-4.9194;
116.1000;1.3276;-4.9088;
116.4000;1.3219;-4.9168;
116.7000;1.3252;-4.9088;
117.0000;1.3268;-4.9115;
117.3000;1.3284;-4.9088;
117.6000;1.3268;-4.9194;
117.9000;1.3276;-4.9115;
118.2000;1.3260;-4.9115;
118.5000;1.3268;-4.9062;
118.8000;1.3268;-4.9088;
119.1000;1.3260;-4.9062;
119.4000;1.3260;-4.9036;
119.7000;1.3260;-4.8983;
120.0000;1.3236;-4.9141;
120.3000;1.3252;-4.9141;
120.6000;1.3244;-4.9141;
120.9000;1.3244;-4.9220;
121.2000;1.3252;-4.9194;
121.5000;1.3268;-4.9168;
121.8000;1.3244;-4.9300;
122.1000;1.3260;-4.9168;
122.4000;1.3236;-4.9115;
122.7000;1.3244;-4.9062;
123.0000;1.3244;-4.9115;
123.3000;1.3244;-4.9194;
123.6000;1.3276;-4.9115;
123.9000;1.3293;-4.9062;
124.2000;1.3252;-4.9141;
124.5000;1.3236;-4.9141;
124.8000;1.3244;-4.9141;
125.1000;1.3244;-4.9141;
125.4000;1.3187;-4.9326;
125.7000;1.3236;-4.9115;
126.0000;1.3228;-4.9036;
126.3000;1.3244;-4.9036;
126.6000;1.3244;-4.9062;
126.9000;1.3244;-4.9088;
127.2000;1.3252;-4.9168;
127.5000;1.3228;-4.9194;
127.8000;1.3268;-4.9088;
128.1000;1.3252;-4.9247;
128.4000;1.3260;-4.9247;
128.7000;1.3301;-4.9141;
129.0000;1.3252;-4.9194;
129.3000;1.3236;-4.9168;
129.6000;1.3244;-4.9141;
129.9000;1.3236;-4.9062;
130.2000;1.3260;-4.9009;
130.5000;1.3252;-4.8851;
130.8000;1.3211;-4.8851;
131.1000;1.3252;-4.8798;
131.4000;1.3260;-4.8824;
131.7000;1.3252;-4.8798;
132.0000;1.3325;-4.8560;
132.3000;1.3228;-4.8772;
132.6000;1.3284;-4.8798;
132.9000;1.3244;-4.8877;
133.2000;1.3244;-4.8930;
133.5000;1.3211;-4.9036;
133.8000;1.3252;-4.8956;
134.1000;1.3244;-4.8956;
134.4000;1.3309;-4.8851;
134.7000;1.3252;-4.8956;
135.0000;1.3252;-4.8824;
135.3000;1.3268;-4.8798;
135.6000;1.3252;-4.8745;
135.9000;1.3260;-4.8798;
136.2000;1.3252;-4.8666;
136.5000;1.3268;-4.8613;
136.8000;1.3260;-4.8745;
137.1000;1.3244;-4.8745;
137.4000;1.3252;-4.8745;
137.7000;1.3260;-4.8719;
138.0000;1.3244;-4.8719;
138.3000;1.3252;-4.8745;
138.6000;1.3236;-4.8798;
138.9000;1.3252;-4.8851;
139.2000;1.3252;-4.8798;
139.5000;1.3252;-4.8719;
139.8000;1.3293;-4.8560;
140.1000;1.3244;-4.8719;
140.4000;1.3252;-4.8798;
140.7000;1.3228;-4.8904;
141.0000;1.3219;-4.9036;
141.3000;1.3244;-4.8956;
141.6000;1.3244;-4.9009;
141.9000;1.3236;-4.9062;
142.2000;1.3236;-4.8983;
142.5000;1.3236;-4.8983;
142.8000;1.3244;-4.9009;
143.1000;1.3252;-4.9088;
143.4000;1.3236;-4.9062;
143.7000;1.3236;-4.8983;
144.0000;1.3244;-4.8983;
144.3000;1.3244;-4.8983;
144.6000;1.3236;-4.8930;
144.9000;1.3252;-4.8956;
145.2000;1.3236;-4.8983;
145.5000;1.3228;-4.9036;
145.8000;1.3244;-4.8956;
146.1000;1.3219;-4.9036;
146.4000;1.3244;-4.9036;
146.7000;1.3252;-4.9115;
147.0000;1.3252;-4.9115;
147.3000;1.3244;-4.9141;
147.6000;1.3276;-4.9115;
147.9000;1.3252;-4.9115;
148.2000;1.3236;-4.9141;
148.5000;1.3244;-4.9036;
148.8000;1.3252;-4.8956;
149.1000;1.3244;-4.8956;
149.4000;1.3252;-4.8877;
149.7000;1.3236;-4.8745;
150.0000;1.3244;-4.8719;
150.3000;1.3252;-4.8745;
150.6000;1.3236;-4.8824;
150.9000;1.3260;-4.8824;
151.2000;1.3236;-4.8851;
151.5000;1.3236;-4.8904;
151.8000;1.3260;-4.8930;
152.1000;1.3244;-4.8956;
152.4000;1.3252;-4.8930;
152.7000;1.3244;-4.8930;
153.0000;1.3244;-4.8956;
153.3000;1.3252;-4.8956;
153.6000;1.3260;-4.8983;
153.9000;1.3244;-4.9062;
154.2000;1.3252;-4.9141;
154.5000;1.3252;-4.9168;
154.8000;1.3203;-4.9247;
155.1000;1.3236;-4.9168;
155.4000;1.3236;-4.9115;
155.7000;1.3244;-4.9168;
156.0000;1.3293;-4.9009;
156.3000;1.3244;-4.9220;
156.6000;1.3244;-4.9220;
156.9000;1.3252;-4.9247;
157.2000;1.3252;-4.9141;
157.5000;1.3293;-4.8983;
157.8000;1.3268;-4.9115;
158.1000;1.3236;-4.9115;
158.4000;1.3260;-4.9009;
158.7000;1.3228;-4.9088;
159.0000;1.3211;-4.9141;
159.3000;1.3244;-4.9062;
159.6000;1.3284;-4.8956;
159.9000;1.3244;-4.9062;
160.2000;1.3236;-4.9062;
160.5000;1.3228;-4.9168;
160.8000;1.3244;-4.9115;
161.1000;1.3252;-4.9088;
161.4000;1.3244;-4.9115;
161.7000;1.3244;-4.9115;
162.0000;1.3244;-4.8983;
162.3000;1.3236;-4.8956;
162.6000;1.3179;-4.9115;
162.9000;1.3236;-4.8956;
163.2000;1.3244;-4.8877;
163.5000;1.3244;-4.8824;
163.8000;1.3244;-4.8877;
164.1000;1.3211;-4.8956;
164.4000;1.3228;-4.8851;
164.7000;1.3252;-4.8798;
165.0000;1.3236;-4.8851;
165.3000;1.3236;-4.8904;
165.6000;1.3301;-4.8824;
165.9000;1.3236;-4.9036;
166.2000;1.3252;-4.8983;
166.5000;1.3236;-4.8983;
166.8000;1.3228;-4.8877;
167.1000;1.3284;-4.8666;
167.4000;1.3244;-4.8824;
167.7000;1.3252;-4.8851;
168.0000;1.3252;-4.8877;
168.3000;1.3244;-4.8930;
168.6000;1.3219;-4.8956;
168.9000;1.3293;-4.8851;
169.2000;1.3219;-4.8983;
169.5000;1.3236;-4.9088;
169.8000;1.3260;-4.9062;
170.1000;1.3219;-4.9088;
170.4000;1.3244;-4.8956;
170.7000;1.3203;-4.8983;
171.0000;1.3244;-4.9009;
171.3000;1.3236;-4.9088;
171.6000;1.3195;-4.9141;
171.9000;1.3244;-4.8956;
172.2000;1.3244;-4.9009;
172.5000;1.3268;-4.8904;
172.8000;1.3260;-4.8956;
173.1000;1.3252;-4.8904;
173.4000;1.3252;-4.8956;
173.7000;1.3293;-4.8824;
174.0000;1.3252;-4.8930;
174.3000;1.3236;-4.8983;
174.6000;1.3236;-4.8930;
174.9000;1.3228;-4.8956;
175.2000;1.3236;-4.8983;
175.5000;1.3228;-4.8983;
175.8000;1.3236;-4.8956;
176.1000;1.3236;-4.8930;
176.4000;1.3236;-4.8904;
176.7000;1.3236;-4.8904;
177.0000;1.3236;-4.8983;
177.3000;1.3219;-4.9009;
177.6000;1.3236;-4.8930;
177.9000;1.3228;-4.9036;
178.2000;1.3219;-4.9062;
178.5000;1.3236;-4.9062;
178.8000;1.3236;-4.9088;
179.1000;1.3236;-4.9062;
179.4000;1.3219;-4.9088;
179.7000;1.3228;-4.9036;
180.0000;1.3244;-4.9009;
180.3000;1.3228;-4.9009;
180.6000;1.3236;-4.9036;
180.9000;1.3228;-4.9036;
181.2000;1.3228;-4.9009;
181.5000;1.3317;-4.8772;
181.8000;1.3228;-4.9036;
182.1000;1.3236;-4.9036;
182.4000;1.3260;-4.9036;
182.7000;1.3260;-4.9009;
183.0000;1.3236;-4.8983;
183.3000;1.3236;-4.8930;
183.6000;1.3268;-4.8877;
183.9000;1.3236;-4.8930;
184.2000;1.3236;-4.9009;
184.5000;1.3236;-4.9036;
184.8000;1.3211;-4.9036;
185.1000;1.3244;-4.8983;
185.4000;1.3236;-4.9088;
185.7000;1.3260;-4.9062;
186.0000;1.3236;-4.9168;
186.3000;1.3228;-4.9168;
186.6000;1.3301;-4.8930;
186.9000;1.3219;-4.9168;
187.2000;1.3244;-4.9115;
187.5000;1.3252;-4.9168;
187.8000;1.3236;-4.9220;
188.1000;1.3252;-4.9115;
188.4000;1.3236;-4.9115;
188.7000;1.3268;-4.9036;
189.0000;1.3236;-4.9062;
189.3000;1.3244;-4.9036;
189.6000;1.3236;-4.9062;
189.9000;1.3236;-4.9009;
190.2000;1.3244;-4.8983;
190.5000;1.3236;-4.9036;
190.8000;1.3293;-4.8877;
191.1000;1.3228;-4.9062;
191.4000;1.3211;-4.9168;
191.7000;1.3244;-4.9088;
192.0000;1.3236;-4.9115;
192.3000;1.3244;-4.9115;
192.6000;1.3244;-4.9062;
192.9000;1.3236;-4.9036;
193.2000;1.3187;-4.9168;
193.5000;1.3244;-4.9036;
193.8000;1.3236;-4.9115;
194.1000;1.3293;-4.9036;
194.4000;1.3219;-4.9326;
194.7000;1.3211;-4.9273;
195.0000;1.3211;-4.9300;
195.3000;1.3228;-4.9220;
195.6000;1.3228;-4.9273;
195.9000;1.3219;-4.9194;
196.2000;1.3219;-4.9300;
196.5000;1.3219;-4.9194;
196.8000;1.3236;-4.9220;
197.1000;1.3236;-4.9115;
197.4000;1.3219;-4.9168;
197.7000;1.3228;-4.9168;
198.0000;1.3244;-4.9036;
198.3000;1.3260;-4.8930;
198.6000;1.3268;-4.9062;
198.9000;1.3219;-4.9220;
199.2000;1.3244;-4.9194;
199.5000;1.3236;-4.9141;
199.8000;1.3228;-4.9115;
200.1000;1.3228;-4.9115;
200.4000;1.3244;-4.9168;
200.7000;1.3211;-4.9352;
201.0000;1.3236;-4.9326;
201.3000;1.3293;-4.9247;
201.6000;1.3211;-4.9405;
201.9000;1.3228;-4.9352;
202.2000;1.3252;-4.9352;
202.5000;1.3203;-4.9511;
202.8000;1.3228;-4.9485;
203.1000;1.3244;-4.9485;
203.4000;1.3252;-4.9485;
203.7000;1.3219;-4.9590;
204.0000;1.3228;-4.9537;
204.3000;1.3244;-4.9511;
204.6000;1.3219;-4.9590;
204.9000;1.3228;-4.9669;
205.2000;1.3219;-4.9669;
205.5000;1.3317;-4.9458;
205.8000;1.3236;-4.9511;
206.1000;1.3228;-4.9511;
206.4000;1.3171;-4.9537;
206.7000;1.3228;-4.9326;
207.0000;1.3219;-4.9300;
207.3000;1.3228;-4.9352;
207.6000;1.3252;-4.9194;
207.9000;1.3252;-4.9168;
208.2000;1.3244;-4.9194;
208.5000;1.3244;-4.9141;
208.8000;1.3276;-4.9009;
209.1000;1.3244;-4.9088;
209.4000;1.3252;-4.9009;
209.7000;1.3252;-4.9062;
210.0000;1.3219;-4.9115;
210.3000;1.3228;-4.9115;
210.6000;1.3252;-4.9062;
210.9000;1.3244;-4.9168;
211.2000;1.3244;-4.9088;
211.5000;1.3260;-4.9088;
211.8000;1.3219;-4.9115;
212.1000;1.3244;-4.8983;
212.4000;1.3236;-4.9009;
212.7000;1.3211;-4.9036;
213.0000;1.3228;-4.9062;
213.3000;1.3260;-4.8930;
213.6000;1.3211;-4.9088;
213.9000;1.3228;-4.9141;
214.2000;1.3219;-4.9247;
214.5000;1.3228;-4.9220;
214.8000;1.3236;-4.9168;
215.1000;1.3228;-4.9141;
215.4000;1.3203;-4.9220;
215.7000;1.3228;-4.9115;
216.0000;1.3228;-4.9141;
216.3000;1.3236;-4.9141;
216.6000;1.3236;-4.9115;
216.9000;1.3171;-4.9247;
217.2000;1.3228;-4.9062;
217.5000;1.3260;-4.9062;
217.8000;1.3219;-4.9141;
218.1000;1.3219;-4.9168;
218.4000;1.3244;-4.9115;
218.7000;1.3236;-4.9062;
219.0000;1.3236;-4.9141;
219.3000;1.3244;-4.9036;
219.6000;1.3244;-4.8983;
219.9000;1.3244;-4.8930;
220.2000;1.3228;-4.8983;
220.5000;1.3236;-4.9036;
220.8000;1.3244;-4.9062;
221.1000;1.3260;-4.8930;
221.4000;1.3228;-4.9036;
221.7000;1.3236;-4.9088;
222.0000;1.3219;-4.9168;
222.3000;1.3236;-4.9036;
222.6000;1.3236;-4.9036;
222.9000;1.3325;-4.8772;
223.2000;1.3236;-4.8877;
223.5000;1.3228;-4.8930;
223.8000;1.3260;-4.8930;
224.1000;1.3228;-4.8930;
224.4000;1.3236;-4.8877;
224.7000;1.3236;-4.8877;
225.0000;1.3154;-4.9088;
225.3000;1.3236;-4.8956;
225.6000;1.3219;-4.9115;
225.9000;1.3228;-4.9036;
226.2000;1.3211;-4.9062;
226.5000;1.3236;-4.9036;
226.8000;1.3228;-4.8983;
227.1000;1.3228;-4.9062;
227.4000;1.3276;-4.9036;
227.7000;1.3228;-4.9115;
228.0000;1.3219;-4.9036;
228.3000;1.3171;-4.9062;
228.6000;1.3219;-4.8956;
228.9000;1.3228;-4.8956;
229.2000;1.3228;-4.9036;
229.5000;1.3236;-4.9036;
229.8000;1.3244;-4.9088;
230.1000;1.3244;-4.9009;
230.4000;1.3252;-4.8956;
230.7000;1.3203;-4.9115;
231.0000;1.3236;-4.9088;
231.3000;1.3244;-4.9115;
231.6000;1.3228;-4.9115;
231.9000;1.3228;-4.9088;
232.2000;1.3195;-4.9088;
232.5000;1.3219;-4.9115;
232.8000;1.3211;-4.9115;
233.1000;1.3203;-4.9168;
233.4000;1.3211;-4.9168;
233.7000;1.3162;-4.9300;
234.0000;1.3211;-4.9115;
234.3000;1.3228;-4.9036;
234.6000;1.3211;-4.8956;
234.9000;1.3219;-4.8956;
235.2000;1.3219;-4.8930;
235.5000;1.3236;-4.8798;
235.8000;1.3228;-4.8851;
236.1000;1.3236;-4.8851;
236.4000;1.3260;-4.8824;
236.7000;1.3228;-4.8904;
237.0000;1.3236;-4.8956;
237.3000;1.3211;-4.9036;
237.6000;1.3219;-4.9036;
237.9000;1.3203;-4.9009;
238.2000;1.3171;-4.9062;
238.5000;1.3203;-4.8877;
238.8000;1.3211;-4.8904;
239.1000;1.3219;-4.8930;
239.4000;1.3211;-4.8904;
239.7000;1.3236;-4.8772;
240.0000;1.3179;-4.8983;
240.3000;1.3211;-4.9009;
240.6000;1.3236;-4.9009;
240.9000;1.3228;-4.9115;
241.2000;1.3228;-4.9141;
241.5000;1.3187;-4.9247;
241.8000;1.3195;-4.9141;
242.1000;1.3179;-4.9141;
242.4000;1.3219;-4.9036;
242.7000;1.3211;-4.9036;
243.0000;1.3236;-4.8930;
243.3000;1.3228;-4.8983;
243.6000;1.3211;-4.8983;
243.9000;1.3211;-4.8956;
244.2000;1.3228;-4.8956;
244.5000;1.3203;-4.9009;
244.8000;1.3228;-4.8956;
245.1000;1.3228;-4.8956;
245.4000;1.3236;-4.8930;
245.7000;1.3228;-4.8930;
246.0000;1.3228;-4.9062;
246.3000;1.3219;-4.9115;
246.6000;1.3219;-4.9168;
246.9000;1.3219;-4.9088;
247.2000;1.3211;-4.9062;
247.5000;1.3219;-4.9062;
247.8000;1.3219;-4.9115;
248.1000;1.3236;-4.9062;
248.4000;1.3211;-4.9088;
248.7000;1.3228;-4.8983;
249.0000;1.3260;-4.8930;
249.3000;1.3236;-4.9036;
249.6000;1.3236;-4.9062;
249.9000;1.3219;-4.9009;
250.2000;1.3228;-4.9062;
250.5000;1.3236;-4.9036;
250.8000;1.3236;-4.8930;
251.1000;1.3219;-4.9009;
251.4000;1.3228;-4.9036;
251.7000;1.3244;-4.8983;
252.0000;1.3228;-4.9036;
252.3000;1.3236;-4.8983;
252.6000;1.3228;-4.9062;
252.9000;1.3236;-4.9141;
253.2000;1.3228;-4.9194;
253.5000;1.3228;-4.9194;
253.8000;1.3179;-4.9379;
254.1000;1.3236;-4.9273;
254.4000;1.3228;-4.9247;
254.7000;1.3236;-4.9300;
255.0000;1.3228;-4.9300;
255.3000;1.3219;-4.9220;
255.6000;1.3236;-4.9062;
255.9000;1.3219;-4.9009;
256.2000;1.3236;-4.9009;
256.5000;1.3236;-4.9009;
256.8000;1.3236;-4.9009;
257.1000;1.3228;-4.9009;
257.4000;1.3252;-4.8930;
257.7000;1.3228;-4.8983;
258.0000;1.3236;-4.9009;
258.3000;1.3301;-4.8824;
258.6000;1.3228;-4.8956;
258.9000;1.3203;-4.9088;
259.2000;1.3187;-4.9141;
259.5000;1.3236;-4.9062;
259.8000;1.3236;-4.9062;
260.1000;1.3219;-4.9141;
260.4000;1.3219;-4.9141;
260.7000;1.3179;-4.9326;
261.0000;1.3228;-4.9273;
261.3000;1.3236;-4.9247;
261.6000;1.3219;-4.9194;
261.9000;1.3219;-4.9247;
262.2000;1.3154;-4.9379;
262.5000;1.3195;-4.9168;
262.8000;1.3203;-4.9088;
263.1000;1.3219;-4.9062;
263.4000;1.3187;-4.9220;
263.7000;1.3211;-4.9115;
264.0000;1.3211;-4.9141;
264.3000;1.3228;-4.9088;
264.6000;1.3236;-4.9062;
264.9000;1.3236;-4.9009;
265.2000;1.3203;-4.9194;
265.5000;1.3228;-4.9115;
265.8000;1.3228;-4.9168;
266.1000;1.3236;-4.9220;
266.4000;1.3195;-4.9194;
266.7000;1.3203;-4.9168;
267.0000;1.3211;-4.9247;
267.3000;1.3219;-4.9247;
267.6000;1.3244;-4.9194;
267.9000;1.3228;-4.9273;
268.2000;1.3211;-4.9247;
268.5000;1.3219;-4.9141;
268.8000;1.3211;-4.9220;
269.1000;1.3211;-4.9300;
269.4000;1.3211;-4.9273;
269.7000;1.3203;-4.9220;
270.0000;1.3219;-4.9168;
270.3000;1.3244;-4.9115;
270.6000;1.3236;-4.9062;
270.9000;1.3228;-4.8983;
271.2000;1.3219;-4.8956;
271.5000;1.3236;-4.8956;
271.8000;1.3228;-4.9062;
272.1000;1.3228;-4.9088;
272.4000;1.3228;-4.9009;
272.7000;1.3211;-4.9009;
273.0000;1.3171;-4.9062;
273.3000;1.3195;-4.9009;
273.6000;1.3195;-4.8983;
273.9000;1.3219;-4.8983;
274.2000;1.3179;-4.8983;
274.5000;1.3187;-4.9009;
274.8000;1.3211;-4.9009;
275.1000;1.3203;-4.8956;
275.4000;1.3203;-4.8983;
275.7000;1.3187;-4.9009;
276.0000;1.3211;-4.9088;
276.3000;1.3228;-4.9062;
276.6000;1.3219;-4.8983;
276.9000;1.3219;-4.8983;
277.2000;1.3211;-4.8930;
277.5000;1.3236;-4.8904;
277.8000;1.3219;-4.8956;
278.1000;1.3211;-4.8956;
278.4000;1.3211;-4.9036;
278.7000;1.3203;-4.8983;
279.0000;1.3252;-4.8877;
279.3000;1.3219;-4.8930;
279.6000;1.3211;-4.8904;
279.9000;1.3219;-4.8772;
280.2000;1.3203;-4.8877;
280.5000;1.3211;-4.8904;
280.8000;1.3211;-4.8930;
281.1000;1.3219;-4.8983;
281.4000;1.3236;-4.9009;
281.7000;1.3219;-4.9062;
282.0000;1.3203;-4.8930;
282.3000;1.3228;-4.8930;
282.6000;1.3236;-4.8798;
282.9000;1.3211;-4.8877;
283.2000;1.3211;-4.8824;
283.5000;1.3219;-4.8798;
283.8000;1.3228;-4.8877;
284.1000;1.3203;-4.8877;
284.4000;1.3211;-4.8877;
284.7000;1.3162;-4.9009;
285.0000;1.3236;-4.8930;
285.3000;1.3211;-4.8904;
285.6000;1.3211;-4.8956;
285.9000;1.3219;-4.8983;
286.2000;1.3219;-4.9009;
286.5000;1.3228;-4.9036;
286.8000;1.3228;-4.9036;
287.1000;1.3203;-4.9168;
287.4000;1.3187;-4.9220;
287.7000;1.3211;-4.9009;
288.0000;1.3219;-4.9036;
288.3000;1.3203;-4.9009;
288.6000;1.3228;-4.8877;
288.9000;1.3228;-4.8930;
289.2000;1.3195;-4.9088;
289.5000;1.3219;-4.9088;
289.8000;1.3219;-4.9062;
290.1000;1.3203;-4.9115;
290.4000;1.3219;-4.9168;
290.7000;1.3211;-4.9115;
291.0000;1.3195;-4.9141;
291.3000;1.3211;-4.9115;
291.6000;1.3228;-4.9168;
291.9000;1.3219;-4.9220;
292.2000;1.3211;-4.9247;
292.5000;1.3228;-4.9194;
292.8000;1.3219;-4.9168;
293.1000;1.3228;-4.9115;
293.4000;1.3219;-4.9088;
293.7000;1.3236;-4.9115;
294.0000;1.3211;-4.9247;
294.3000;1.3203;-4.9326;
294.6000;1.3276;-4.9115;
294.9000;1.3195;-4.9326;
295.2000;1.3195;-4.9300;
295.5000;1.3203;-4.9273;
295.8000;1.3195;-4.9300;
296.1000;1.3203;-4.9405;
296.4000;1.3203;-4.9379;
296.7000;1.3211;-4.9352;
297.0000;1.3203;-4.9326;
297.3000;1.3195;-4.9379;
297.6000;1.3130;-4.9352;
297.9000;1.3236;-4.9115;
298.2000;1.3219;-4.9088;
298.5000;1.3203;-4.9141;
298.8000;1.3219;-4.9220;
299.1000;1.3219;-4.9115;
299.4000;1.3219;-4.9062;
299.7000;1.3260;-4.8956;
300.0000;1.3211;-4.9088;
300.3000;1.3219;-4.9062;
300.6000;1.3211;-4.9036;
300.9000;1.3244;-4.9009;
301.2000;1.3171;-4.9062;
301.5000;1.3219;-4.8904;
301.8000;1.3244;-4.8851;
302.1000;1.3219;-4.9088;
302.4000;1.3211;-4.9115;
302.7000;1.3187;-4.9168;
303.0000;1.3219;-4.9088;
303.3000;1.3211;-4.9088;
303.6000;1.3203;-4.9168;
303.9000;1.3203;-4.9141;
304.2000;1.3228;-4.9036;
304.5000;1.3228;-4.8956;
304.8000;1.3211;-4.9036;
305.1000;1.3211;-4.9062;
305.4000;1.3219;-4.9115;
305.7000;1.3228;-4.8956;
306.0000;1.3228;-4.8930;
306.3000;1.3219;-4.9036;
306.6000;1.3195;-4.9062;
306.9000;1.3211;-4.9062;
307.2000;1.3211;-4.9115;
307.5000;1.3195;-4.9141;
307.8000;1.3203;-4.9115;
308.1000;1.3211;-4.9088;
308.4000;1.3203;-4.9088;
308.7000;1.3195;-4.9062;
309.0000;1.3195;-4.9088;
309.3000;1.3203;-4.9009;
309.6000;1.3260;-4.8930;
309.9000;1.3195;-4.9062;
310.2000;1.3195;-4.9115;
310.5000;1.3219;-4.9115;
310.8000;1.3211;-4.9141;
311.1000;1.3203;-4.9168;
311.4000;1.3211;-4.9141;
311.7000;1.3195;-4.9168;
312.0000;1.3219;-4.9115;
312.3000;1.3211;-4.9062;
312.6000;1.3203;-4.9009;
312.9000;1.3219;-4.8983;
313.2000;1.3203;-4.9036;
313.5000;1.3219;-4.8983;
313.8000;1.3211;-4.8983;
314.1000;1.3154;-4.9115;
314.4000;1.3219;-4.9141;
314.7000;1.3211;-4.9115;
315.0000;1.3211;-4.9115;
315.3000;1.3219;-4.9036;
315.6000;1.3252;-4.8851;
315.9000;1.3211;-4.9009;
316.2000;1.3211;-4.9009;
316.5000;1.3179;-4.9088;
316.8000;1.3203;-4.9088;
317.1000;1.3211;-4.9062;
317.4000;1.3171;-4.9220;
317.7000;1.3252;-4.9009;
318.0000;1.3195;-4.9141;
318.3000;1.3211;-4.9115;
318.6000;1.3195;-4.9168;
318.9000;1.3228;-4.9141;
319.2000;1.3219;-4.9194;
319.5000;1.3195;-4.9194;
319.8000;1.3228;-4.9088;
320.1000;1.3211;-4.9062;
320.4000;1.3195;-4.9088;
320.7000;1.3195;-4.9036;
321.0000;1.3195;-4.9009;
321.3000;1.3195;-4.9062;
321.6000;1.3187;-4.9088;
321.9000;1.3195;-4.9115;
322.2000;1.3211;-4.9088;
322.5000;1.3211;-4.9036;
322.8000;1.3195;-4.9141;
323.1000;1.3203;-4.9168;
323.4000;1.3228;-4.9273;
323.7000;1.3252;-4.9115;
324.0000;1.3154;-4.9352;
324.3000;1.3211;-4.9247;
324.6000;1.3228;-4.9220;
324.9000;1.3171;-4.9326;
325.2000;1.3219;-4.9194;
325.5000;1.3211;-4.9194;
325.8000;1.3154;-4.9326;
326.1000;1.3219;-4.9088;
326.4000;1.3219;-4.9141;
326.7000;1.3260;-4.9036;
327.0000;1.3187;-4.9247;
327.3000;1.3211;-4.9220;
327.6000;1.3203;-4.9220;
327.9000;1.3195;-4.9220;
328.2000;1.3219;-4.9194;
328.5000;1.3211;-4.9247;
328.8000;1.3219;-4.9220;
329.1000;1.3219;-4.9220;
329.4000;1.3203;-4.9247;
329.7000;1.3203;-4.9273;
330.0000;1.3195;-4.9273;
330.3000;1.3154;-4.9326;
330.6000;1.3187;-4.9273;
330.9000;1.3228;-4.9141;
331.2000;1.3203;-4.9194;
331.5000;1.3195;-4.9115;
331.8000;1.3187;-4.9088;
332.1000;1.3195;-4.9141;
332.4000;1.3195;-4.9115;
332.7000;1.3203;-4.9168;
333.0000;1.3211;-4.9141;
333.3000;1.3195;-4.9273;
333.6000;1.3219;-4.9247;
333.9000;1.3219;-4.9168;
334.2000;1.3219;-4.9115;
334.5000;1.3244;-4.9036;
334.8000;1.3195;-4.9168;
335.1000;1.3219;-4.9088;
335.4000;1.3228;-4.9062;
335.7000;1.3211;-4.9088;
336.0000;1.3211;-4.9115;
336.3000;1.3211;-4.9062;
336.6000;1.3228;-4.8930;
336.9000;1.3195;-4.9088;
337.2000;1.3179;-4.9115;
337.5000;1.3195;-4.9088;
337.8000;1.3195;-4.9115;
338.1000;1.3211;-4.9141;
338.4000;1.3284;-4.8930;
338.7000;1.3228;-4.9115;
339.0000;1.3211;-4.9088;
339.3000;1.3211;-4.9115;
339.6000;1.3162;-4.9194;
339.9000;1.3203;-4.9088;
340.2000;1.3211;-4.9088;
340.5000;1.3179;-4.9247;
340.8000;1.3203;-4.9168;
341.1000;1.3195;-4.9141;
341.4000;1.3219;-4.9036;
341.7000;1.3211;-4.9062;
342.0000;1.3228;-4.9062;
342.3000;1.3219;-4.9088;
342.6000;1.3203;-4.9062;
342.9000;1.3203;-4.8983;
343.2000;1.3211;-4.9009;
343.5000;1.3195;-4.9168;
343.8000;1.3211;-4.9088;
344.1000;1.3203;-4.9141;
344.4000;1.3219;-4.9088;
344.7000;1.3203;-4.9062;
345.0000;1.3203;-4.9009;
345.3000;1.3219;-4.8983;
345.6000;1.3211;-4.8956;
345.9000;1.3211;-4.9062;
346.2000;1.3203;-4.9115;
346.5000;1.3195;-4.9062;
346.8000;1.3236;-4.9062;
347.1000;1.3228;-4.9168;
347.4000;1.3203;-4.9300;
347.7000;1.3179;-4.9247;
348.0000;1.3195;-4.9326;
348.3000;1.3187;-4.9379;
348.6000;1.3195;-4.9405;
348.9000;1.3195;-4.9326;
349.2000;1.3211;-4.9220;
349.5000;1.3211;-4.9247;
349.8000;1.3195;-4.9247;
350.1000;1.3203;-4.9115;
350.4000;1.3219;-4.9115;
350.7000;1.3244;-4.9115;
351.0000;1.3268;-4.9036;
351.3000;1.3203;-4.9141;
351.6000;1.3211;-4.9220;
351.9000;1.3211;-4.9326;
352.2000;1.3195;-4.9326;
352.5000;1.3195;-4.9300;
352.8000;1.3179;-4.9352;
353.1000;1.3211;-4.9300;
353.4000;1.3203;-4.9220;
353.7000;1.3203;-4.9247;
354.0000;1.3187;-4.9273;
354.3000;1.3203;-4.9247;
354.6000;1.3187;-4.9300;
354.9000;1.3228;-4.9273;
355.2000;1.3228;-4.9247;
355.5000;1.3211;-4.9220;
355.8000;1.3162;-4.9352;
356.1000;1.3219;-4.9168;
356.4000;1.3211;-4.9168;
356.7000;1.3244;-4.8983;
357.0000;1.3195;-4.9088;
357.3000;1.3203;-4.9088;
357.6000;1.3244;-4.9009;
357.9000;1.3195;-4.9088;
358.2000;1.3130;-4.9326;
358.5000;1.3203;-4.9115;
358.8000;1.3203;-4.9168;
359.1000;1.3203;-4.9220;
359.4000;1.3211;-4.9220;
359.7000;1.3187;-4.9168;
360.0000;1.3203;-4.9115;
360.3000;1.3211;-4.9220;
360.6000;1.3219;-4.9168;
360.9000;1.3203;-4.9300;
361.2000;1.3187;-4.9379;
361.5000;1.3195;-4.9300;
361.8000;1.3211;-4.9273;
362.1000;1.3203;-4.9247;
362.4000;1.3211;-4.9247;
362.7000;1.3211;-4.9220;
363.0000;1.3203;-4.9220;
363.3000;1.3203;-4.9194;
363.6000;1.3203;-4.9194;
363.9000;1.3195;-4.9168;
364.2000;1.3211;-4.9273;
364.5000;1.3211;-4.9273;
364.8000;1.3195;-4.9273;
365.1000;1.3195;-4.9379;
365.4000;1.3195;-4.9352;
365.7000;1.3195;-4.9220;
366.0000;1.3203;-4.9168;
366.3000;1.3203;-4.9194;
366.6000;1.3203;-4.9115;
366.9000;1.3195;-4.9088;
367.2000;1.3211;-4.9088;
367.5000;1.3211;-4.9273;
367.8000;1.3228;-4.9220;
368.1000;1.3179;-4.9326;
368.4000;1.3203;-4.9168;
368.7000;1.3187;-4.9088;
369.0000;1.3195;-4.9062;
369.3000;1.3203;-4.8983;
369.6000;1.3211;-4.9036;
369.9000;1.3203;-4.8983;
370.2000;1.3211;-4.8930;
370.5000;1.3203;-4.8930;
370.8000;1.3195;-4.8983;
371.1000;1.3203;-4.9009;
371.4000;1.3195;-4.9115;
371.7000;1.3219;-4.9194;
372.0000;1.3219;-4.9194;
372.3000;1.3211;-4.9194;
372.6000;1.3211;-4.9141;
372.9000;1.3203;-4.9062;
373.2000;1.3195;-4.9009;
373.5000;1.3203;-4.9036;
373.8000;1.3219;-4.9088;
374.1000;1.3187;-4.9141;
374.4000;1.3179;-4.9115;
374.7000;1.3195;-4.9062;
375.0000;1.3203;-4.8877;
375.3000;1.3203;-4.8877;
375.6000;1.3187;-4.8956;
375.9000;1.3171;-4.9036;
376.2000;1.3179;-4.8956;
376.5000;1.3203;-4.8930;
376.8000;1.3228;-4.8851;
377.1000;1.3211;-4.8877;
377.4000;1.3203;-4.8956;
377.7000;1.3203;-4.9036;
378.0000;1.3187;-4.9062;
378.3000;1.3219;-4.9036;
378.6000;1.3203;-4.9115;
378.9000;1.3219;-4.9036;
379.2000;1.3211;-4.9115;
379.5000;1.3179;-4.9036;
379.8000;1.3195;-4.9009;
380.1000;1.3179;-4.9141;
380.4000;1.3195;-4.9115;
380.7000;1.3187;-4.9088;
381.0000;1.3187;-4.9062;
381.3000;1.3203;-4.9062;
381.6000;1.3203;-4.9062;
381.9000;1.3195;-4.9141;
382.2000;1.3203;-4.9009;
382.5000;1.3211;-4.8956;
382.8000;1.3211;-4.8983;
383.1000;1.3195;-4.8983;
383.4000;1.3211;-4.8956;
383.7000;1.3211;-4.8983;
384.0000;1.3187;-4.8930;
384.3000;1.3187;-4.8956;
384.6000;1.3171;-4.8930;
384.9000;1.3187;-4.8956;
385.2000;1.3187;-4.8983;
385.5000;1.3195;-4.9036;
385.8000;1.3203;-4.9062;
386.1000;1.3195;-4.9088;
386.4000;1.3211;-4.9088;
386.7000;1.3195;-4.9115;
387.0000;1.3211;-4.9115;
387.3000;1.3195;-4.9141;
387.6000;1.3203;-4.9168;
387.9000;1.3219;-4.9088;
388.2000;1.3187;-4.9194;
388.5000;1.3195;-4.9141;
388.8000;1.3179;-4.9247;
389.1000;1.3211;-4.9168;
389.4000;1.3195;-4.9194;
389.7000;1.3211;-4.9168;
390.0000;1.3195;-4.9194;
390.3000;1.3171;-4.9247;
390.6000;1.3179;-4.9247;
390.9000;1.3187;-4.9194;
391.2000;1.3187;-4.9115;
391.5000;1.3195;-4.9088;
391.8000;1.3171;-4.9168;
392.1000;1.3195;-4.9168;
392.4000;1.3195;-4.9141;
392.7000;1.3228;-4.9062;
393.0000;1.3203;-4.9062;
393.3000;1.3211;-4.9062;
393.6000;1.3195;-4.9088;
393.9000;1.3219;-4.9115;
394.2000;1.3203;-4.9168;
394.5000;1.3187;-4.9141;
394.8000;1.3260;-4.8956;
395.1000;1.3195;-4.8983;
395.4000;1.3203;-4.9009;
395.7000;1.3187;-4.9115;
396.0000;1.3203;-4.9088;
396.3000;1.3171;-4.9115;
396.6000;1.3195;-4.8983;
396.9000;1.3236;-4.8798;
397.2000;1.3195;-4.8904;
397.5000;1.3203;-4.8956;
397.8000;1.3154;-4.9036;
398.1000;1.3179;-4.9036;
398.4000;1.3195;-4.9009;
398.7000;1.3179;-4.9062;
399.0000;1.3203;-4.8983;
399.3000;1.3195;-4.8956;
399.6000;1.3187;-4.8904;
399.9000;1.3187;-4.8851;
400.2000;1.3211;-4.8719;
400.5000;1.3203;-4.8824;
400.8000;1.3187;-4.8904;
401.1000;1.3154;-4.9036;
401.4000;1.3187;-4.8877;
401.7000;1.3195;-4.8851;
402.0000;1.3195;-4.8956;
402.3000;1.3203;-4.9009;
402.6000;1.3171;-4.9141;
402.9000;1.3179;-4.9168;
403.2000;1.3211;-4.9168;
403.5000;1.3211;-4.9273;
403.8000;1.3195;-4.9300;
404.1000;1.3187;-4.9247;
404.4000;1.3187;-4.9220;
404.7000;1.3187;-4.9194;
405.0000;1.3187;-4.9194;
405.3000;1.3187;-4.9220;
405.6000;1.3195;-4.9194;
405.9000;1.3203;-4.9168;
406.2000;1.3187;-4.9194;
406.5000;1.3187;-4.9273;
406.8000;1.3219;-4.9141;
407.1000;1.3203;-4.9115;
407.4000;1.3187;-4.9141;
407.7000;1.3171;-4.9194;
408.0000;1.3203;-4.9141;
408.3000;1.3195;-4.9194;
408.6000;1.3260;-4.8956;
408.9000;1.3187;-4.9088;
409.2000;1.3195;-4.9168;
409.5000;1.3187;-4.9141;
409.8000;1.3195;-4.9220;
410.1000;1.3195;-4.9273;
410.4000;1.3195;-4.9194;
410.7000;1.3203;-4.9168;
411.0000;1.3203;-4.9168;
411.3000;1.3187;-4.9300;
411.6000;1.3187;-4.9300;
411.9000;1.3203;-4.9194;
412.2000;1.3162;-4.9273;
412.5000;1.3203;-4.9168;
412.8000;1.3171;-4.9168;
413.1000;1.3195;-4.9141;
413.4000;1.3211;-4.9088;
413.7000;1.3203;-4.9009;
414.0000;1.3179;-4.9141;
414.3000;1.3211;-4.9141;
414.6000;1.3154;-4.9168;
414.9000;1.3179;-4.9168;
415.2000;1.3203;-4.9115;
415.5000;1.3211;-4.9036;
415.8000;1.3203;-4.9036;
416.1000;1.3179;-4.9088;
416.4000;1.3171;-4.9088;
416.7000;1.3171;-4.9009;
417.0000;1.3195;-4.8904;
417.3000;1.3179;-4.8983;
417.6000;1.3195;-4.8983;
417.9000;1.3219;-4.8904;
418.2000;1.3228;-4.8956;
418.5000;1.3171;-4.9062;
418.8000;1.3162;-4.9036;
419.1000;1.3244;-4.8798;
419.4000;1.3211;-4.8877;
419.7000;1.3260;-4.8851;
420.0000;1.3203;-4.9009;
420.3000;1.3195;-4.9036;
420.6000;1.3187;-4.9062;
420.9000;1.3203;-4.9009;
421.2000;1.3187;-4.8956;
421.5000;1.3179;-4.9088;
421.8000;1.3236;-4.8956;
422.1000;1.3130;-4.9141;
422.4000;1.3203;-4.8983;
422.7000;1.3179;-4.9036;
423.0000;1.3171;-4.8983;
423.3000;1.3187;-4.8877;
423.6000;1.3171;-4.8877;
423.9000;1.3203;-4.8983;
424.2000;1.3195;-4.8956;
424.5000;1.3187;-4.8983;
424.8000;1.3187;-4.9088;
425.1000;1.3187;-4.9194;
425.4000;1.3179;-4.9194;
425.7000;1.3179;-4.9141;
426.0000;1.3114;-4.9326;
426.3000;1.3187;-4.9141;
426.6000;1.3179;-4.9168;
426.9000;1.3195;-4.9088;
427.2000;1.3171;-4.9115;
427.5000;1.3179;-4.9088;
427.8000;1.3187;-4.9009;
428.1000;1.3179;-4.8983;
428.4000;1.3195;-4.8956;
428.7000;1.3179;-4.9009;
429.0000;1.3179;-4.9088;
429.3000;1.3171;-4.9009;
429.6000;1.3179;-4.9062;
429.9000;1.3179;-4.9088;
430.2000;1.3195;-4.9168;
430.5000;1.3154;-4.9141;
430.8000;1.3195;-4.9062;
431.1000;1.3187;-4.9088;
431.4000;1.3179;-4.9194;
431.7000;1.3195;-4.9088;
432.0000;1.3203;-4.9009;
432.3000;1.3187;-4.9009;
432.6000;1.3211;-4.8877;
432.9000;1.3187;-4.8930;
433.2000;1.3195;-4.8904;
433.5000;1.3179;-4.8983;
433.8000;1.3211;-4.8956;
434.1000;1.3162;-4.9088;
434.4000;1.3195;-4.8930;
434.7000;1.3195;-4.8930;
435.0000;1.3187;-4.8983;
435.3000;1.3179;-4.9088;
435.6000;1.3179;-4.9062;
435.9000;1.3179;-4.9115;
436.2000;1.3187;-4.9141;
436.5000;1.3179;-4.9141;
436.8000;1.3219;-4.9009;
437.1000;1.3179;-4.9062;
437.4000;1.3179;-4.8930;
437.7000;1.3162;-4.8956;
438.0000;1.3162;-4.9062;
438.3000;1.3195;-4.9062;
438.6000;1.3187;-4.9062;
438.9000;1.3195;-4.9088;
439.2000;1.3203;-4.8983;
439.5000;1.3187;-4.8983;
439.8000;1.3122;-4.9115;
440.1000;1.3203;-4.8956;
440.4000;1.3219;-4.8983;
440.7000;1.3244;-4.8930;
441.0000;1.3195;-4.8983;
441.3000;1.3187;-4.8983;
441.6000;1.3171;-4.8956;
441.9000;1.3171;-4.8956;
442.2000;1.3179;-4.8930;
442.5000;1.3154;-4.9062;
442.8000;1.3187;-4.9036;
443.1000;1.3187;-4.9036;
443.4000;1.3179;-4.9115;
443.7000;1.3203;-4.9141;
444.0000;1.3179;-4.9168;
444.3000;1.3187;-4.9115;
444.6000;1.3187;-4.8956;
444.9000;1.3179;-4.9009;
445.2000;1.3171;-4.9141;
445.5000;1.3219;-4.9009;
445.8000;1.3187;-4.9088;
446.1000;1.3130;-4.9247;
446.4000;1.3187;-4.9036;
446.7000;1.3195;-4.9062;
447.0000;1.3187;-4.9115;
447.3000;1.3179;-4.9036;
447.6000;1.3195;-4.8983;
447.9000;1.3203;-4.8956;
448.2000;1.3179;-4.9009;
448.5000;1.3171;-4.8983;
448.8000;1.3179;-4.8956;
449.1000;1.3187;-4.8930;
449.4000;1.3138;-4.9009;
449.7000;1.3195;-4.8824;
450.0000;1.3203;-4.8930;
450.3000;1.3195;-4.8930;
450.6000;1.3203;-4.8983;
450.9000;1.3203;-4.9062;
451.2000;1.3187;-4.9141;
451.5000;1.3203;-4.9168;
451.8000;1.3187;-4.9141;
452.1000;1.3179;-4.9141;
452.4000;1.3179;-4.9220;
452.7000;1.3187;-4.9247;
453.0000;1.3195;-4.9168;
453.3000;1.3171;-4.9194;
453.6000;1.3171;-4.9326;
453.9000;1.3187;-4.9220;
454.2000;1.3179;-4.9194;
454.5000;1.3171;-4.9352;
454.8000;1.3171;-4.9273;
455.1000;1.3187;-4.9194;
455.4000;1.3203;-4.9088;
455.7000;1.3211;-4.8956;
456.0000;1.3187;-4.9036;
456.3000;1.3187;-4.9062;
456.6000;1.3187;-4.9036;
456.9000;1.3195;-4.9036;
457.2000;1.3179;-4.9009;
457.5000;1.3179;-4.9062;
457.8000;1.3195;-4.9088;
458.1000;1.3179;-4.9141;
458.4000;1.3171;-4.9141;
458.7000;1.3187;-4.9088;
459.0000;1.3187;-4.9009;
459.3000;1.3211;-4.9009;
459.6000;1.3195;-4.9062;
459.9000;1.3171;-4.9088;
460.2000;1.3187;-4.8983;
460.5000;1.3187;-4.9088;
460.8000;1.3187;-4.9115;
461.1000;1.3195;-4.9062;
461.4000;1.3162;-4.9062;
461.7000;1.3154;-4.9141;
462.0000;1.3195;-4.9009;
462.3000;1.3187;-4.9115;
462.6000;1.3187;-4.9062;
462.9000;1.3146;-4.9088;
463.2000;1.3195;-4.9062;
463.5000;1.3260;-4.8904;
463.8000;1.3195;-4.9062;
464.1000;1.3203;-4.8983;
464.4000;1.3187;-4.8983;
464.7000;1.3187;-4.9062;
465.0000;1.3219;-4.8877;
465.3000;1.3187;-4.8983;
465.6000;1.3195;-4.9115;
465.9000;1.3203;-4.9194;
466.2000;1.3179;-4.9168;
466.5000;1.3179;-4.9115;
466.8000;1.3179;-4.9168;
467.1000;1.3203;-4.9168;
467.4000;1.3171;-4.9168;
467.7000;1.3179;-4.9220;
468.0000;1.3179;-4.9194;
468.3000;1.3195;-4.9141;
468.6000;1.3187;-4.9273;
468.9000;1.3179;-4.9379;
469.2000;1.3187;-4.9300;
469.5000;1.3171;-4.9220;
469.8000;1.3179;-4.9115;
470.1000;1.3187;-4.9062;
470.4000;1.3211;-4.8983;
470.7000;1.3219;-4.8930;
471.0000;1.3179;-4.9088;
471.3000;1.3171;-4.9141;
471.6000;1.3162;-4.9141;
471.9000;1.3211;-4.9036;
472.2000;1.3105;-4.9300;
472.5000;1.3195;-4.9009;
472.8000;1.3236;-4.8983;
473.1000;1.3187;-4.9009;
473.4000;1.3187;-4.9036;
473.7000;1.3179;-4.9088;
474.0000;1.3171;-4.9062;
474.3000;1.3171;-4.9036;
474.6000;1.3179;-4.9062;
474.9000;1.3171;-4.9088;
475.2000;1.3187;-4.8983;
475.5000;1.3138;-4.9088;
475.8000;1.3195;-4.8930;
476.1000;1.3187;-4.9009;
476.4000;1.3162;-4.9088;
476.7000;1.3171;-4.9088;
477.0000;1.3171;-4.9088;
477.3000;1.3171;-4.9062;
477.6000;1.3179;-4.9062;
477.9000;1.3162;-4.9115;
478.2000;1.3154;-4.9168;
478.5000;1.3154;-4.9247;
478.8000;1.3179;-4.9141;
479.1000;1.3171;-4.9194;
479.4000;1.3179;-4.9168;
479.7000;1.3187;-4.9115;
480.0000;1.3138;-4.9168;
480.3000;1.3187;-4.9062;
480.6000;1.3114;-4.9247;
480.9000;1.3162;-4.9194;
481.2000;1.3203;-4.9115;
481.5000;1.3187;-4.9194;
481.8000;1.3162;-4.9115;
482.1000;1.3171;-4.8983;
482.4000;1.3171;-4.9036;
482.7000;1.3154;-4.9115;
483.0000;1.3171;-4.9088;
483.3000;1.3171;-4.9194;
483.6000;1.3171;-4.9141;
483.9000;1.3171;-4.9141;
484.2000;1.3162;-4.9168;
484.5000;1.3171;-4.9009;
484.8000;1.3179;-4.9036;
485.1000;1.3187;-4.9088;
485.4000;1.3187;-4.9088;
485.7000;1.3211;-4.9115;
486.0000;1.3187;-4.9088;
486.3000;1.3195;-4.9036;
486.6000;1.3179;-4.9062;
486.9000;1.3171;-4.9141;
487.2000;1.3179;-4.9141;
487.5000;1.3219;-4.9062;
487.8000;1.3195;-4.9141;
488.1000;1.3195;-4.9141;
488.4000;1.3195;-4.9141;
488.7000;1.3154;-4.9300;
489.0000;1.3195;-4.9141;
489.3000;1.3187;-4.9141;
489.6000;1.3138;-4.9247;
489.9000;1.3154;-4.9168;
490.2000;1.3187;-4.9036;
490.5000;1.3171;-4.9088;
490.8000;1.3171;-4.9194;
491.1000;1.3211;-4.9115;
491.4000;1.3187;-4.9141;
491.7000;1.3187;-4.9088;
492.0000;1.3187;-4.9036;
492.3000;1.3154;-4.9062;
492.6000;1.3179;-4.9062;
492.9000;1.3187;-4.9115;
493.2000;1.3179;-4.9273;
493.5000;1.3179;-4.9300;
493.8000;1.3179;-4.9220;
494.1000;1.3162;-4.9220;
494.4000;1.3154;-4.9194;
494.7000;1.3154;-4.9115;
495.0000;1.3187;-4.8983;
495.3000;1.3154;-4.9036;
495.6000;1.3179;-4.8851;
495.9000;1.3154;-4.8904;
496.2000;1.3162;-4.8877;
496.5000;1.3187;-4.8851;
496.8000;1.3171;-4.8798;
497.1000;1.3195;-4.8745;
497.4000;1.3162;-4.8772;
497.7000;1.3187;-4.8719;
498.0000;1.3179;-4.8798;
498.3000;1.3171;-4.8824;
498.6000;1.3162;-4.8772;
498.9000;1.3171;-4.8745;
499.2000;1.3097;-4.8930;
499.5000;1.3179;-4.8745;
499.8000;1.3179;-4.8824;
500.1000;1.3195;-4.8745;
500.4000;1.3162;-4.8824;
500.7000;1.3171;-4.8851;
501.0000;1.3171;-4.8824;
501.3000;1.3179;-4.8851;
501.6000;1.3203;-4.8904;
501.9000;1.3179;-4.8956;
502.2000;1.3195;-4.8956;
502.5000;1.3171;-4.9009;
502.8000;1.3179;-4.9062;
503.1000;1.3228;-4.9009;
503.4000;1.3179;-4.9115;
503.7000;1.3171;-4.9141;
504.0000;1.3179;-4.9036;
504.3000;1.3179;-4.9009;
504.6000;1.3171;-4.8983;
504.9000;1.3195;-4.8956;
505.2000;1.3187;-4.8956;
505.5000;1.3260;-4.8745;
505.8000;1.3179;-4.8956;
506.1000;1.3179;-4.8877;
506.4000;1.3179;-4.8824;
506.7000;1.3179;-4.8851;
507.0000;1.3187;-4.8824;
507.3000;1.3195;-4.8772;
507.6000;1.3154;-4.8798;
507.9000;1.3195;-4.8745;
508.2000;1.3179;-4.8824;
508.5000;1.3154;-4.8824;
508.8000;1.3203;-4.8745;
509.1000;1.3154;-4.8877;
509.4000;1.3187;-4.8798;
509.7000;1.3171;-4.8824;
510.0000;1.3179;-4.8745;
510.3000;1.3122;-4.8824;
510.6000;1.3187;-4.8640;
510.9000;1.3122;-4.8851;
511.2000;1.3162;-4.8824;
511.5000;1.3203;-4.8719;
511.8000;1.3105;-4.9036;
512.1000;1.3179;-4.8824;
512.4000;1.3138;-4.8983;
512.7000;1.3179;-4.8983;
513.0000;1.3179;-4.8930;
513.3000;1.3195;-4.8798;
513.6000;1.3171;-4.8904;
513.9000;1.3114;-4.9036;
514.2000;1.3187;-4.8851;
514.5000;1.3171;-4.8798;
514.8000;1.3162;-4.8851;
515.1000;1.3195;-4.8851;
515.4000;1.3187;-4.8798;
515.7000;1.3187;-4.8772;
516.0000;1.3219;-4.8640;
516.3000;1.3203;-4.8666;
516.6000;1.3162;-4.8772;
516.9000;1.3187;-4.8745;
517.2000;1.3179;-4.8772;
517.5000;1.3162;-4.8745;
517.8000;1.3187;-4.8613;
518.1000;1.3171;-4.8613;
518.4000;1.3171;-4.8666;
518.7000;1.3162;-4.8719;
519.0000;1.3154;-4.8798;
519.3000;1.3162;-4.8745;
519.6000;1.3171;-4.8719;
519.9000;1.3162;-4.8772;
520.2000;1.3146;-4.8772;
520.5000;1.3162;-4.8745;
520.8000;1.3171;-4.8824;
521.1000;1.3171;-4.8745;
521.4000;1.3171;-4.8745;
521.7000;1.3162;-4.8824;
522.0000;1.3162;-4.8772;
522.3000;1.3171;-4.8745;
522.6000;1.3179;-4.8666;
522.9000;1.3179;-4.8719;
523.2000;1.3122;-4.8877;
523.5000;1.3162;-4.8851;
523.8000;1.3162;-4.8930;
524.1000;1.3162;-4.8904;
524.4000;1.3105;-4.9062;
524.7000;1.3187;-4.8851;
525.0000;1.3162;-4.8904;
525.3000;1.3171;-4.8930;
525.6000;1.3154;-4.9009;
525.9000;1.3171;-4.8956;
526.2000;1.3171;-4.9009;
526.5000;1.3179;-4.8956;
526.8000;1.3171;-4.9009;
527.1000;1.3179;-4.8956;
527.4000;1.3179;-4.8956;
527.7000;1.3146;-4.9062;
528.0000;1.3171;-4.9062;
528.3000;1.3179;-4.9036;
528.6000;1.3179;-4.9115;
528.9000;1.3179;-4.9115;
529.2000;1.3171;-4.9062;
529.5000;1.3154;-4.9009;
529.8000;1.3179;-4.8956;
530.1000;1.3171;-4.9009;
530.4000;1.3162;-4.9036;
530.7000;1.3171;-4.9115;
531.0000;1.3179;-4.9036;
531.3000;1.3171;-4.8983;
531.6000;1.3146;-4.9036;
531.9000;1.3162;-4.8983;
532.2000;1.3179;-4.8930;
532.5000;1.3138;-4.8983;
532.8000;1.3179;-4.8956;
533.1000;1.3179;-4.8983;
533.4000;1.3179;-4.8956;
533.7000;1.3187;-4.8930;
534.0000;1.3187;-4.8877;
534.3000;1.3195;-4.8851;
534.6000;1.3154;-4.8983;
534.9000;1.3187;-4.8851;
535.2000;1.3171;-4.8851;
535.5000;1.3195;-4.8692;
535.8000;1.3179;-4.8719;
536.1000;1.3187;-4.8692;
536.4000;1.3162;-4.8719;
536.7000;1.3162;-4.8719;
537.0000;1.3171;-4.8719;
537.3000;1.3146;-4.8719;
537.6000;1.3162;-4.8772;
537.9000;1.3171;-4.8745;
538.2000;1.3179;-4.8745;
538.5000;1.3179;-4.8772;
538.8000;1.3187;-4.8772;
539.1000;1.3187;-4.8745;
539.4000;1.3179;-4.8745;
539.7000;1.3154;-4.8930;
540.0000;1.3179;-4.8824;
540.3000;1.3162;-4.8904;
540.6000;1.3162;-4.8904;
540.9000;1.3162;-4.9009;
541.2000;1.3162;-4.8956;
541.5000;1.3138;-4.9009;
541.8000;1.3171;-4.8851;
542.1000;1.3171;-4.8930;
542.4000;1.3179;-4.8930;
542.7000;1.3171;-4.8956;
543.0000;1.3154;-4.8824;
543.3000;1.3179;-4.8692;
543.6000;1.3146;-4.8824;
543.9000;1.3162;-4.8798;
544.2000;1.3171;-4.8824;
544.5000;1.3146;-4.9009;
544.8000;1.3162;-4.8983;
545.1000;1.3203;-4.8877;
545.4000;1.3171;-4.8930;
545.7000;1.3162;-4.9009;
546.0000;1.3171;-4.8956;
546.3000;1.3211;-4.8904;
546.6000;1.3187;-4.9062;
546.9000;1.3171;-4.9115;
547.2000;1.3244;-4.9009;
547.5000;1.3146;-4.9300;
547.8000;1.3195;-4.9115;
548.1000;1.3179;-4.9036;
548.4000;1.3187;-4.9036;
548.7000;1.3211;-4.8983;
549.0000;1.3195;-4.9036;
549.3000;1.3187;-4.9036;
549.6000;1.3179;-4.9036;
549.9000;1.3195;-4.9062;
550.2000;1.3187;-4.9141;
550.5000;1.3187;-4.9220;
550.8000;1.3171;-4.9220;
551.1000;1.3146;-4.9273;
551.4000;1.3154;-4.9273;
551.7000;1.3162;-4.9273;
552.0000;1.3146;-4.9247;
552.3000;1.3130;-4.9300;
552.6000;1.3154;-4.9168;
552.9000;1.3154;-4.9115;
553.2000;1.3179;-4.9141;
553.5000;1.3146;-4.9168;
553.8000;1.3171;-4.9115;
554.1000;1.3179;-4.9009;
554.4000;1.3171;-4.8983;
554.7000;1.3171;-4.8983;
555.0000;1.3146;-4.9036;
555.3000;1.3162;-4.9036;
555.6000;1.3179;-4.9088;
555.9000;1.3171;-4.9036;
556.2000;1.3171;-4.9062;
556.5000;1.3171;-4.9115;
556.8000;1.3162;-4.9141;
557.1000;1.3154;-4.9168;
557.4000;1.3179;-4.9115;
557.7000;1.3171;-4.9141;
558.0000;1.3146;-4.9220;
558.3000;1.3179;-4.9115;
558.6000;1.3187;-4.9168;
558.9000;1.3195;-4.9141;
559.2000;1.3187;-4.9115;
559.5000;1.3171;-4.9141;
559.8000;1.3171;-4.9168;
560.1000;1.3171;-4.9115;
560.4000;1.3187;-4.9062;
560.7000;1.3171;-4.9088;
561.0000;1.3179;-4.9115;
561.3000;1.3171;-4.9088;
561.6000;1.3236;-4.8930;
561.9000;1.3179;-4.9062;
562.2000;1.3171;-4.9168;
562.5000;1.3154;-4.9247;
562.8000;1.3187;-4.9141;
563.1000;1.3187;-4.9141;
563.4000;1.3187;-4.9194;
563.7000;1.3122;-4.9273;
564.0000;1.3195;-4.9088;
564.3000;1.3171;-4.9141;
564.6000;1.3171;-4.9141;
564.9000;1.3154;-4.9115;
565.2000;1.3154;-4.9062;
565.5000;1.3138;-4.9088;
565.8000;1.3203;-4.8851;
566.1000;1.3203;-4.8798;
566.4000;1.3187;-4.8877;
566.7000;1.3187;-4.9036;
567.0000;1.3154;-4.9168;
567.3000;1.3187;-4.9141;
567.6000;1.3187;-4.9141;
567.9000;1.3122;-4.9300;
568.2000;1.3162;-4.9141;
568.5000;1.3179;-4.9088;
568.8000;1.3236;-4.8904;
569.1000;1.3236;-4.8877;
569.4000;1.3187;-4.8930;
569.7000;1.3187;-4.8956;
570.0000;1.3171;-4.9062;
570.3000;1.3179;-4.9036;
570.6000;1.3179;-4.9009;
570.9000;1.3154;-4.9036;
571.2000;1.3171;-4.9009;
571.5000;1.3219;-4.8956;
571.8000;1.3179;-4.9062;
572.1000;1.3162;-4.9036;
572.4000;1.3162;-4.9062;
572.7000;1.3138;-4.9115;
573.0000;1.3187;-4.8983;
573.3000;1.3171;-4.8956;
573.6000;1.3162;-4.9009;
573.9000;1.3162;-4.8904;
574.2000;1.3154;-4.8983;
574.5000;1.3179;-4.8930;
574.8000;1.3154;-4.9115;
575.1000;1.3162;-4.9115;
575.4000;1.3154;-4.9194;
575.7000;1.3154;-4.9194;
576.0000;1.3154;-4.9220;
576.3000;1.3154;-4.9273;
576.6000;1.3154;-4.9326;
576.9000;1.3154;-4.9352;
577.2000;1.3122;-4.9326;
577.5000;1.3138;-4.9220;
577.8000;1.3162;-4.9194;
578.1000;1.3138;-4.9168;
578.4000;1.3162;-4.9141;
578.7000;1.3154;-4.9115;
579.0000;1.3154;-4.9062;
579.3000;1.3171;-4.9036;
579.6000;1.3146;-4.9168;
579.9000;1.3162;-4.9036;
580.2000;1.3162;-4.9009;
580.5000;1.3154;-4.9036;
580.8000;1.3154;-4.9115;
581.1000;1.3179;-4.9141;
581.4000;1.3138;-4.9168;
581.7000;1.3154;-4.9141;
582.0000;1.3162;-4.9088;
582.3000;1.3138;-4.9168;
582.6000;1.3154;-4.9168;
582.9000;1.3171;-4.9141;
583.2000;1.3154;-4.9220;
583.5000;1.3162;-4.9168;
583.8000;1.3179;-4.9141;
584.1000;1.3195;-4.9088;
584.4000;1.3171;-4.9141;
584.7000;1.3203;-4.9088;
585.0000;1.3171;-4.9141;
585.3000;1.3114;-4.9247;
585.6000;1.3146;-4.9088;
585.9000;1.3195;-4.9009;
586.2000;1.3162;-4.9062;
586.5000;1.3162;-4.9088;
586.8000;1.3162;-4.9115;
587.1000;1.3154;-4.9220;
587.4000;1.3179;-4.9247;
587.7000;1.3179;-4.9194;
588.0000;1.3154;-4.9168;
588.3000;1.3146;-4.9220;
588.6000;1.3154;-4.9168;
588.9000;1.3162;-4.9009;
589.2000;1.3154;-4.8930;
589.5000;1.3154;-4.8772;
589.8000;1.3203;-4.8692;
590.1000;1.3187;-4.8772;
590.4000;1.3154;-4.8851;
590.7000;1.3154;-4.8983;
591.0000;1.3154;-4.8877;
591.3000;1.3154;-4.8930;
591.6000;1.3162;-4.8956;
591.9000;1.3179;-4.8956;
592.2000;1.3073;-4.9141;
592.5000;1.3179;-4.8877;
592.8000;1.3171;-4.8851;
593.1000;1.3154;-4.8824;
593.4000;1.3154;-4.8851;
593.7000;1.3171;-4.8798;
594.0000;1.3179;-4.8798;
594.3000;1.3162;-4.8930;
594.6000;1.3171;-4.8983;
594.9000;1.3171;-4.8983;
595.2000;1.3187;-4.8983;
595.5000;1.3162;-4.9036;
595.8000;1.3171;-4.9168;
596.1000;1.3130;-4.9168;
596.4000;1.3162;-4.9036;
596.7000;1.3162;-4.8956;
597.0000;1.3154;-4.8956;
597.3000;1.3187;-4.8851;
597.6000;1.3171;-4.8956;
597.9000;1.3171;-4.9009;
598.2000;1.3114;-4.9036;
598.5000;1.3154;-4.8904;
598.8000;1.3171;-4.8930;
599.1000;1.3162;-4.8956;
599.4000;1.3146;-4.8983;
599.7000;1.3146;-4.8983;
600.0000;1.3138;-4.8983;
600.3000;1.3171;-4.9009;
600.6000;1.3162;-4.9194;
600.9000;1.3089;-4.9458;
601.2000;1.2991;-4.9775;
601.5000;1.2918;-4.9854;
601.8000;1.2821;-5.0092;
602.1000;1.2674;-5.0488;
602.4000;1.2560;-5.0752;
602.7000;1.2487;-5.0910;
603.0000;1.2348;-5.1148;
603.3000;1.2267;-5.1307;
603.6000;1.2169;-5.1465;
603.9000;1.2080;-5.1597;
604.2000;1.1998;-5.1650;
604.5000;1.1933;-5.1703;
604.8000;1.1827;-5.1887;
605.1000;1.1762;-5.1993;
605.4000;1.1640;-5.2204;
605.7000;1.1608;-5.2257;
606.0000;1.1543;-5.2363;
606.3000;1.1477;-5.2442;
606.6000;1.1420;-5.2495;
606.9000;1.1331;-5.2680;
607.2000;1.1258;-5.2785;
607.5000;1.1217;-5.2864;
607.8000;1.1160;-5.2891;
608.1000;1.1038;-5.3076;
608.4000;1.1054;-5.2917;
608.7000;1.0989;-5.2944;
609.0000;1.0948;-5.2944;
609.3000;1.0908;-5.3023;
609.6000;1.0842;-5.3234;
609.9000;1.0794;-5.3366;
610.2000;1.0753;-5.3340;
610.5000;1.0696;-5.3287;
610.8000;1.0655;-5.3340;
611.1000;1.0582;-5.3340;
611.4000;1.0566;-5.3366;
611.7000;1.0525;-5.3419;
612.0000;1.0452;-5.3525;
612.3000;1.0444;-5.3525;
612.6000;1.0395;-5.3525;
612.9000;1.0330;-5.3551;
613.2000;1.0305;-5.3525;
613.5000;1.0248;-5.3657;
613.8000;1.0208;-5.3630;
614.1000;1.0175;-5.3736;
614.4000;1.0118;-5.3709;
614.7000;1.0069;-5.3736;
615.0000;1.0037;-5.3709;
615.3000;1.0004;-5.3815;
615.6000;0.9947;-5.3841;
615.9000;0.9931;-5.3815;
616.2000;0.9906;-5.3789;
616.5000;0.9866;-5.3894;
616.8000;0.9841;-5.3947;
617.1000;0.9833;-5.3947;
617.4000;0.9760;-5.4053;
617.7000;0.9727;-5.4106;
618.0000;0.9703;-5.4106;
618.3000;0.9654;-5.4132;
618.6000;0.9638;-5.4106;
618.9000;0.9597;-5.4106;
619.2000;0.9565;-5.4132;
619.5000;0.9540;-5.4106;
619.8000;0.9491;-5.4185;
620.1000;0.9467;-5.4158;
620.4000;0.9459;-5.4158;
620.7000;0.9418;-5.4211;
621.0000;0.9483;-5.4106;
621.3000;0.9353;-5.4396;
621.6000;0.9353;-5.4211;
621.9000;0.9280;-5.4370;
622.2000;0.9263;-5.4290;
622.5000;0.9239;-5.4343;
622.8000;0.9223;-5.4264;
623.1000;0.9206;-5.4211;
623.4000;0.9158;-5.4185;
623.7000;0.9133;-5.4185;
624.0000;0.9044;-5.4264;
624.3000;0.9068;-5.4238;
624.6000;0.9027;-5.4396;
624.9000;0.9035;-5.4422;
625.2000;0.9011;-5.4343;
625.5000;0.8978;-5.4475;
625.8000;0.8970;-5.4422;
626.1000;0.8938;-5.4422;
626.4000;0.8946;-5.4396;
626.7000;0.8946;-5.4343;
627.0000;0.8889;-5.4528;
627.3000;0.8848;-5.4607;
627.6000;0.8840;-5.4581;
627.9000;0.8799;-5.4554;
628.2000;0.8726;-5.4634;
628.5000;0.8775;-5.4502;
628.8000;0.8759;-5.4475;
629.1000;0.8742;-5.4422;
629.4000;0.8759;-5.4422;
629.7000;0.8702;-5.4554;
630.0000;0.8685;-5.4660;
630.3000;0.8653;-5.4713;
630.6000;0.8669;-5.4660;
630.9000;0.8653;-5.4713;
631.2000;0.8637;-5.4660;
631.5000;0.8604;-5.4766;
631.8000;0.8580;-5.4845;
632.1000;0.8547;-5.4845;
632.4000;0.8563;-5.4766;
632.7000;0.8531;-5.4845;
633.0000;0.8506;-5.4871;
633.3000;0.8514;-5.4871;
633.6000;0.8482;-5.4898;
633.9000;0.8474;-5.4898;
634.2000;0.8417;-5.4951;
634.5000;0.8433;-5.4898;
634.8000;0.8425;-5.4924;
635.1000;0.8433;-5.4766;
635.4000;0.8384;-5.4818;
635.7000;0.8352;-5.4871;
636.0000;0.8360;-5.4818;
636.3000;0.8352;-5.4898;
636.6000;0.8352;-5.4951;
636.9000;0.8311;-5.5003;
637.2000;0.8287;-5.5109;
637.5000;0.8287;-5.5030;
637.8000;0.8270;-5.4924;
638.1000;0.8270;-5.4951;
638.4000;0.8319;-5.4739;
638.7000;0.8238;-5.4871;
639.0000;0.8270;-5.4792;
639.3000;0.8213;-5.4977;
639.6000;0.8230;-5.4924;
639.9000;0.8140;-5.5056;
640.2000;0.8181;-5.4951;
640.5000;0.8156;-5.4977;
640.8000;0.8156;-5.4951;
641.1000;0.8124;-5.5056;
641.4000;0.8132;-5.4977;
641.7000;0.8116;-5.4924;
642.0000;0.8091;-5.4977;
642.3000;0.8083;-5.5056;
642.6000;0.8091;-5.5030;
642.9000;0.8091;-5.4898;
643.2000;0.8050;-5.4951;
643.5000;0.8059;-5.4924;
643.8000;0.8042;-5.4898;
644.1000;0.8034;-5.4951;
644.4000;0.8026;-5.4977;
644.7000;0.7961;-5.5056;
645.0000;0.8075;-5.4818;
645.3000;0.7977;-5.5083;
645.6000;0.7977;-5.5056;
645.9000;0.7945;-5.4977;
646.2000;0.7961;-5.4924;
646.5000;0.7937;-5.4977;
646.8000;0.7904;-5.5003;
647.1000;0.7888;-5.4898;
647.4000;0.7904;-5.4792;
647.7000;0.7912;-5.4713;
648.0000;0.7912;-5.4686;
648.3000;0.7871;-5.4792;
648.6000;0.7863;-5.4845;
648.9000;0.7847;-5.4845;
649.2000;0.7839;-5.4871;
649.5000;0.7831;-5.4898;
649.8000;0.7839;-5.4845;
650.1000;0.7814;-5.4845;
650.4000;0.7823;-5.4845;
650.7000;0.7782;-5.4924;
651.0000;0.7766;-5.5056;
651.3000;0.7790;-5.5003;
651.6000;0.7766;-5.5109;
651.9000;0.7725;-5.5135;
652.2000;0.7774;-5.4977;
652.5000;0.7766;-5.4977;
652.8000;0.7757;-5.5003;
653.1000;0.7757;-5.4977;
653.4000;0.7741;-5.5030;
653.7000;0.7733;-5.5083;
654.0000;0.7741;-5.4951;
654.3000;0.7709;-5.4924;
654.6000;0.7700;-5.4871;
654.9000;0.7684;-5.4951;
655.2000;0.7676;-5.4898;
655.5000;0.7692;-5.4871;
655.8000;0.7684;-5.5056;
656.1000;0.7717;-5.4977;
656.4000;0.7660;-5.5030;
656.7000;0.7652;-5.5003;
657.0000;0.7660;-5.5030;
657.3000;0.7652;-5.5056;
657.6000;0.7635;-5.5056;
657.9000;0.7635;-5.5188;
658.2000;0.7627;-5.5030;
658.5000;0.7611;-5.5030;
658.8000;0.7603;-5.4977;
659.1000;0.7603;-5.4977;
659.4000;0.7578;-5.5056;
659.7000;0.7586;-5.5030;
660.0000;0.7562;-5.5030;
660.3000;0.7586;-5.4977;
660.6000;0.7578;-5.4898;
660.9000;0.7562;-5.4924;
661.2000;0.7530;-5.5083;
661.5000;0.7570;-5.4977;
661.8000;0.7554;-5.5003;
662.1000;0.7570;-5.5056;
662.4000;0.7546;-5.5162;
662.7000;0.7530;-5.5135;
663.0000;0.7521;-5.5056;
663.3000;0.7505;-5.5083;
663.6000;0.7513;-5.5030;
663.9000;0.7513;-5.4977;
664.2000;0.7464;-5.5030;
664.5000;0.7489;-5.5030;
664.8000;0.7473;-5.5109;
665.1000;0.7456;-5.5083;
665.4000;0.7473;-5.4977;
665.7000;0.7473;-5.5030;
666.0000;0.7464;-5.5135;
666.3000;0.7440;-5.5135;
666.6000;0.7456;-5.5056;
666.9000;0.7424;-5.5083;
667.2000;0.7448;-5.5030;
667.5000;0.7416;-5.5109;
667.8000;0.7424;-5.5056;
668.1000;0.7416;-5.5056;
668.4000;0.7407;-5.5135;
668.7000;0.7407;-5.5056;
669.0000;0.7416;-5.5056;
669.3000;0.7399;-5.5135;
669.6000;0.7383;-5.5188;
669.9000;0.7375;-5.5135;
670.2000;0.7383;-5.5109;
670.5000;0.7375;-5.5003;
670.8000;0.7391;-5.4951;
671.1000;0.7367;-5.5083;
671.4000;0.7359;-5.5056;
671.7000;0.7383;-5.5030;
672.0000;0.7359;-5.5056;
672.3000;0.7350;-5.5135;
672.6000;0.7342;-5.5267;
672.9000;0.7318;-5.5267;
673.2000;0.7334;-5.5188;
673.5000;0.7326;-5.5083;
673.8000;0.7310;-5.5162;
674.1000;0.7285;-5.5241;
674.4000;0.7310;-5.5188;
674.7000;0.7302;-5.5215;
675.0000;0.7302;-5.5241;
675.3000;0.7293;-5.5267;
675.6000;0.7318;-5.5030;
675.9000;0.7293;-5.5056;
676.2000;0.7285;-5.5003;
676.5000;0.7285;-5.5109;
676.8000;0.7269;-5.5162;
677.1000;0.7277;-5.5162;
677.4000;0.7318;-5.5003;
677.7000;0.7228;-5.5294;
678.0000;0.7253;-5.5109;
678.3000;0.7277;-5.5056;
678.6000;0.7269;-5.5083;
678.9000;0.7245;-5.5135;
679.2000;0.7245;-5.5135;
679.5000;0.7220;-5.5267;
679.8000;0.7236;-5.5267;
680.1000;0.7245;-5.5162;
680.4000;0.7220;-5.5267;
680.7000;0.7228;-5.5162;
681.0000;0.7220;-5.5083;
681.3000;0.7212;-5.5215;
681.6000;0.7188;-5.5320;
681.9000;0.7220;-5.5267;
682.2000;0.7196;-5.5294;
682.5000;0.7179;-5.5267;
682.8000;0.7220;-5.5241;
683.1000;0.7236;-5.5162;
683.4000;0.7196;-5.5241;
683.7000;0.7204;-5.5215;
684.0000;0.7188;-5.5188;
684.3000;0.7179;-5.5188;
684.6000;0.7179;-5.5135;
684.9000;0.7155;-5.5162;
685.2000;0.7171;-5.5188;
685.5000;0.7171;-5.5188;
685.8000;0.7163;-5.5162;
686.1000;0.7114;-5.5241;
686.4000;0.7131;-5.5215;
686.7000;0.7131;-5.5215;
687.0000;0.7098;-5.5294;
687.3000;0.7123;-5.5215;
687.6000;0.7123;-5.5188;
687.9000;0.7155;-5.5083;
688.2000;0.7131;-5.5162;
688.5000;0.7131;-5.5162;
688.8000;0.7123;-5.5241;
689.1000;0.7123;-5.5162;
689.4000;0.7106;-5.5162;
689.7000;0.7090;-5.5188;
690.0000;0.7123;-5.5162;
690.3000;0.7098;-5.5188;
690.6000;0.7106;-5.5267;
690.9000;0.7114;-5.5241;
691.2000;0.7098;-5.5294;
691.5000;0.7106;-5.5320;
691.8000;0.7082;-5.5399;
692.1000;0.7082;-5.5373;
692.4000;0.7082;-5.5294;
692.7000;0.7074;-5.5347;
693.0000;0.7057;-5.5373;
693.3000;0.7106;-5.5267;
693.6000;0.7082;-5.5294;
693.9000;0.7074;-5.5294;
694.2000;0.7082;-5.5241;
694.5000;0.7057;-5.5215;
694.8000;0.7057;-5.5188;
695.1000;0.7057;-5.5188;
695.4000;0.7057;-5.5135;
695.7000;0.7057;-5.5030;
696.0000;0.7041;-5.5135;
696.3000;0.7066;-5.5109;
696.6000;0.7017;-5.5241;
696.9000;0.7009;-5.5294;
697.2000;0.7025;-5.5241;
697.5000;0.7025;-5.5294;
697.8000;0.7033;-5.5267;
698.1000;0.7025;-5.5320;
698.4000;0.6968;-5.5505;
698.7000;0.7033;-5.5267;
699.0000;0.7025;-5.5320;
699.3000;0.7033;-5.5267;
699.6000;0.7017;-5.5320;
699.9000;0.7009;-5.5241;
700.2000;0.7017;-5.5188;
700.5000;0.7017;-5.5215;
700.8000;0.6976;-5.5320;
701.1000;0.6992;-5.5241;
701.4000;0.7009;-5.5188;
701.7000;0.6984;-5.5162;
702.0000;0.6976;-5.5162;
702.3000;0.7000;-5.5162;
702.6000;0.6992;-5.5215;
702.9000;0.6984;-5.5294;
703.2000;0.6984;-5.5267;
703.5000;0.6984;-5.5320;
703.8000;0.6984;-5.5294;
704.1000;0.6976;-5.5294;
704.4000;0.6960;-5.5347;
704.7000;0.6976;-5.5294;
705.0000;0.6968;-5.5294;
705.3000;0.6984;-5.5294;
705.6000;0.6960;-5.5267;
705.9000;0.6943;-5.5294;
706.2000;0.6968;-5.5215;
706.5000;0.6952;-5.5241;
706.8000;0.6952;-5.5294;
707.1000;0.7000;-5.5215;
707.4000;0.6927;-5.5347;
707.7000;0.6943;-5.5215;
708.0000;0.6935;-5.5162;
708.3000;0.7025;-5.4951;
708.6000;0.6927;-5.5215;
708.9000;0.6952;-5.5188;
709.2000;0.6903;-5.5399;
709.5000;0.6943;-5.5267;
709.8000;0.6935;-5.5347;
710.1000;0.6935;-5.5320;
710.4000;0.6935;-5.5294;
710.7000;0.6976;-5.5188;
711.0000;0.6927;-5.5241;
711.3000;0.6919;-5.5188;
711.6000;0.6919;-5.5135;
711.9000;0.6903;-5.5135;
712.2000;0.6911;-5.5135;
712.5000;0.6895;-5.5267;
712.8000;0.6903;-5.5215;
713.1000;0.6895;-5.5215;
713.4000;0.6903;-5.5215;
713.7000;0.6878;-5.5162;
714.0000;0.6886;-5.5162;
714.3000;0.6895;-5.5188;
714.6000;0.6886;-5.5215;
714.9000;0.6878;-5.5241;
715.2000;0.6862;-5.5135;
715.5000;0.6886;-5.5083;
715.8000;0.6870;-5.5162;
716.1000;0.6870;-5.5135;
716.4000;0.6870;-5.5188;
716.7000;0.6878;-5.5188;
717.0000;0.6854;-5.5267;
717.3000;0.6854;-5.5241;
717.6000;0.6838;-5.5241;
717.9000;0.6797;-5.5241;
718.2000;0.6854;-5.5109;
718.5000;0.6846;-5.5135;
718.8000;0.6886;-5.5003;
719.1000;0.6846;-5.5135;
719.4000;0.6862;-5.5083;
719.7000;0.6870;-5.5109;
720.0000;0.6838;-5.5320;
720.3000;0.6878;-5.5188;
720.6000;0.6846;-5.5267;
720.9000;0.6854;-5.5294;
721.2000;0.6829;-5.5294;
721.5000;0.6821;-5.5347;
721.8000;0.6846;-5.5347;
722.1000;0.6862;-5.5294;
722.4000;0.6846;-5.5347;
722.7000;0.6813;-5.5479;
723.0000;0.6789;-5.5399;
723.3000;0.6805;-5.5347;
723.6000;0.6805;-5.5320;
723.9000;0.6854;-5.5135;
724.2000;0.6821;-5.5188;
724.5000;0.6838;-5.5188;
724.8000;0.6919;-5.4924;
725.1000;0.6805;-5.5188;
725.4000;0.6838;-5.5109;
725.7000;0.6829;-5.5109;
726.0000;0.6829;-5.5083;
726.3000;0.6821;-5.5135;
726.6000;0.6805;-5.5294;
726.9000;0.6838;-5.5188;
727.2000;0.6781;-5.5267;
727.5000;0.6789;-5.5320;
727.8000;0.6797;-5.5294;
728.1000;0.6789;-5.5426;
728.4000;0.6781;-5.5347;
728.7000;0.6781;-5.5373;
729.0000;0.6764;-5.5399;
729.3000;0.6781;-5.5320;
729.6000;0.6772;-5.5294;
729.9000;0.6772;-5.5320;
730.2000;0.6740;-5.5399;
730.5000;0.6781;-5.5320;
730.8000;0.6756;-5.5399;
731.1000;0.6764;-5.5399;
731.4000;0.6756;-5.5373;
731.7000;0.6764;-5.5320;
732.0000;0.6781;-5.5320;
732.3000;0.6797;-5.5399;
732.6000;0.6724;-5.5531;
732.9000;0.6707;-5.5531;
733.2000;0.6756;-5.5373;
733.5000;0.6772;-5.5320;
733.8000;0.6764;-5.5294;
734.1000;0.6764;-5.5294;
734.4000;0.6748;-5.5347;
734.7000;0.6772;-5.5294;
735.0000;0.6748;-5.5452;
735.3000;0.6756;-5.5347;
735.6000;0.6772;-5.5267;
735.9000;0.6748;-5.5347;
736.2000;0.6748;-5.5373;
736.5000;0.6756;-5.5294;
736.8000;0.6707;-5.5399;
737.1000;0.6789;-5.5135;
737.4000;0.6756;-5.5083;
737.7000;0.6756;-5.5109;
738.0000;0.6756;-5.5056;
738.3000;0.6732;-5.5109;
738.6000;0.6772;-5.4924;
738.9000;0.6748;-5.5030;
739.2000;0.6732;-5.5030;
739.5000;0.6732;-5.5083;
739.8000;0.6781;-5.5056;
740.1000;0.6748;-5.5109;
740.4000;0.6724;-5.5135;
740.7000;0.6740;-5.5188;
741.0000;0.6724;-5.5241;
741.3000;0.6707;-5.5188;
741.6000;0.6732;-5.5215;
741.9000;0.6724;-5.5162;
742.2000;0.6724;-5.5215;
742.5000;0.6724;-5.5267;
742.8000;0.6707;-5.5399;
743.1000;0.6716;-5.5241;
743.4000;0.6716;-5.5188;
743.7000;0.6724;-5.5162;
744.0000;0.6699;-5.5135;
744.3000;0.6699;-5.5215;
744.6000;0.6740;-5.5083;
744.9000;0.6716;-5.5083;
745.2000;0.6716;-5.5135;
745.5000;0.6659;-5.5188;
745.8000;0.6724;-5.5162;
746.1000;0.6724;-5.5188;
746.4000;0.6724;-5.5241;
746.7000;0.6716;-5.5267;
747.0000;0.6699;-5.5320;
747.3000;0.6716;-5.5294;
747.6000;0.6707;-5.5215;
747.9000;0.6699;-5.5215;
748.2000;0.6691;-5.5320;
748.5000;0.6691;-5.5373;
748.8000;0.6707;-5.5399;
749.1000;0.6683;-5.5505;
749.4000;0.6642;-5.5558;
749.7000;0.6699;-5.5320;
750.0000;0.6707;-5.5215;
750.3000;0.6683;-5.5267;
750.6000;0.6650;-5.5320;
750.9000;0.6683;-5.5215;
751.2000;0.6683;-5.5267;
751.5000;0.6691;-5.5294;
751.8000;0.6667;-5.5294;
752.1000;0.6659;-5.5320;
752.4000;0.6642;-5.5320;
752.7000;0.6675;-5.5267;
753.0000;0.6667;-5.5294;
753.3000;0.6667;-5.5241;
753.6000;0.6650;-5.5347;
753.9000;0.6691;-5.5188;
754.2000;0.6659;-5.5241;
754.5000;0.6650;-5.5241;
754.8000;0.6650;-5.5294;
755.1000;0.6650;-5.5347;
755.4000;0.6675;-5.5347;
755.7000;0.6642;-5.5452;
756.0000;0.6650;-5.5452;
756.3000;0.6675;-5.5399;
756.6000;0.6618;-5.5479;
756.9000;0.6667;-5.5241;
757.2000;0.6642;-5.5294;
757.5000;0.6650;-5.5241;
757.8000;0.6675;-5.5083;
758.1000;0.6659;-5.5003;
758.4000;0.6642;-5.5083;
758.7000;0.6659;-5.5109;
759.0000;0.6650;-5.5162;
759.3000;0.6642;-5.5188;
759.6000;0.6634;-5.5188;
759.9000;0.6602;-5.5241;
760.2000;0.6650;-5.5188;
760.5000;0.6650;-5.5215;
760.8000;0.6626;-5.5215;
761.1000;0.6659;-5.5188;
761.4000;0.6642;-5.5267;
761.7000;0.6642;-5.5241;
762.0000;0.6634;-5.5267;
762.3000;0.6642;-5.5241;
762.6000;0.6642;-5.5241;
762.9000;0.6634;-5.5162;
763.2000;0.6642;-5.5135;
763.5000;0.6626;-5.5215;
763.8000;0.6634;-5.5241;
764.1000;0.6634;-5.5267;
764.4000;0.6642;-5.5162;
764.7000;0.6634;-5.5135;
765.0000;0.6610;-5.5215;
765.3000;0.6618;-5.5135;
765.6000;0.6626;-5.5083;
765.9000;0.6699;-5.4845;
766.2000;0.6626;-5.4951;
766.5000;0.6610;-5.5003;
766.8000;0.6626;-5.5003;
767.1000;0.6626;-5.4951;
767.4000;0.6618;-5.5003;
767.7000;0.6602;-5.4977;
768.0000;0.6618;-5.4951;
768.3000;0.6610;-5.5056;
768.6000;0.6602;-5.5109;
768.9000;0.6634;-5.5056;
769.2000;0.6610;-5.5135;
769.5000;0.6650;-5.5056;
769.8000;0.6618;-5.5056;
770.1000;0.6610;-5.5083;
770.4000;0.6610;-5.5109;
770.7000;0.6626;-5.4977;
771.0000;0.6602;-5.4977;
771.3000;0.6602;-5.4951;
771.6000;0.6618;-5.4924;
771.9000;0.6593;-5.4898;
772.2000;0.6602;-5.4792;
772.5000;0.6618;-5.4818;
772.8000;0.6610;-5.4792;
773.1000;0.6618;-5.4739;
773.4000;0.6593;-5.4845;
773.7000;0.6610;-5.4845;
774.0000;0.6642;-5.4766;
774.3000;0.6602;-5.4871;
774.6000;0.6593;-5.4818;
774.9000;0.6593;-5.4818;
775.2000;0.6602;-5.4845;
775.5000;0.6585;-5.4818;
775.8000;0.6585;-5.4871;
776.1000;0.6659;-5.4660;
776.4000;0.6585;-5.4898;
776.7000;0.6593;-5.4871;
777.0000;0.6610;-5.4871;
777.3000;0.6585;-5.5003;
777.6000;0.6585;-5.4977;
777.9000;0.6585;-5.4924;
778.2000;0.6536;-5.5109;
778.5000;0.6610;-5.4818;
778.8000;0.6577;-5.4792;
779.1000;0.6585;-5.4871;
779.4000;0.6561;-5.4951;
779.7000;0.6626;-5.4792;
780.0000;0.6561;-5.4951;
780.3000;0.6561;-5.4977;
780.6000;0.6577;-5.4898;
780.9000;0.6577;-5.4951;
781.2000;0.6569;-5.5003;
781.5000;0.6569;-5.5003;
781.8000;0.6577;-5.4898;
782.1000;0.6585;-5.4924;
782.4000;0.6577;-5.4951;
782.7000;0.6553;-5.5003;
783.0000;0.6569;-5.4977;
783.3000;0.6569;-5.4951;
783.6000;0.6585;-5.5003;
783.9000;0.6561;-5.5109;
784.2000;0.6545;-5.5135;
784.5000;0.6585;-5.5083;
784.8000;0.6561;-5.5056;
785.1000;0.6561;-5.5056;
785.4000;0.6561;-5.5109;
785.7000;0.6585;-5.5162;
786.0000;0.6561;-5.5030;
786.3000;0.6569;-5.5003;
786.6000;0.6528;-5.5030;
786.9000;0.6545;-5.5003;
787.2000;0.6569;-5.4951;
787.5000;0.6545;-5.5003;
787.8000;0.6520;-5.5162;
788.1000;0.6553;-5.5030;
788.4000;0.6553;-5.4977;
788.7000;0.6545;-5.5003;
789.0000;0.6455;-5.5320;
789.3000;0.6536;-5.5083;
789.6000;0.6553;-5.5083;
789.9000;0.6553;-5.5083;
790.2000;0.6553;-5.5083;
790.5000;0.6577;-5.5083;
790.8000;0.6488;-5.5294;
791.1000;0.6545;-5.5215;
791.4000;0.6488;-5.5399;
791.7000;0.6634;-5.4898;
792.0000;0.6561;-5.5109;
792.3000;0.6520;-5.5162;
792.6000;0.6536;-5.5135;
792.9000;0.6561;-5.5056;
793.2000;0.6536;-5.5083;
793.5000;0.6496;-5.5109;
793.8000;0.6455;-5.5215;
794.1000;0.6536;-5.5030;
794.4000;0.6545;-5.5030;
794.7000;0.6536;-5.5083;
795.0000;0.6545;-5.5135;
795.3000;0.6520;-5.5056;
795.6000;0.6545;-5.4924;
795.9000;0.6553;-5.4951;
796.2000;0.6553;-5.5030;
796.5000;0.6536;-5.5135;
796.8000;0.6536;-5.5083;
797.1000;0.6536;-5.5083;
797.4000;0.6577;-5.4898;
797.7000;0.6528;-5.4924;
798.0000;0.6528;-5.4845;
798.3000;0.6512;-5.4898;
798.6000;0.6553;-5.4898;
798.9000;0.6545;-5.4898;
799.2000;0.6536;-5.4898;
799.5000;0.6528;-5.4951;
799.8000;0.6536;-5.4898;
800.1000;0.6561;-5.4871;
800.4000;0.6520;-5.4951;
800.7000;0.6512;-5.4951;
801.0000;0.6520;-5.4924;
801.3000;0.6528;-5.4871;
801.6000;0.6463;-5.5030;
801.9000;0.6479;-5.5083;
802.2000;0.6536;-5.4845;
802.5000;0.6512;-5.4898;
802.8000;0.6536;-5.4739;
803.1000;0.6520;-5.4818;
803.4000;0.6528;-5.4845;
803.7000;0.6536;-5.4739;
804.0000;0.6520;-5.4845;
804.3000;0.6496;-5.4898;
804.6000;0.6520;-5.4766;
804.9000;0.6504;-5.4845;
805.2000;0.6520;-5.4845;
805.5000;0.6528;-5.4951;
805.8000;0.6512;-5.5003;
806.1000;0.6496;-5.4977;
806.4000;0.6512;-5.5003;
806.7000;0.6455;-5.5188;
807.0000;0.6520;-5.5056;
807.3000;0.6520;-5.5056;
807.6000;0.6512;-5.5030;
807.9000;0.6512;-5.4977;
808.2000;0.6504;-5.4924;
808.5000;0.6504;-5.4951;
808.8000;0.6561;-5.4898;
809.1000;0.6488;-5.5109;
809.4000;0.6520;-5.4951;
809.7000;0.6618;-5.4739;
810.0000;0.6504;-5.5056;
810.3000;0.6512;-5.5109;
810.6000;0.6504;-5.5135;
810.9000;0.6488;-5.5056;
811.2000;0.6488;-5.5003;
811.5000;0.6488;-5.5030;
811.8000;0.6447;-5.5188;
812.1000;0.6479;-5.5003;
812.4000;0.6479;-5.4924;
812.7000;0.6471;-5.4898;
813.0000;0.6504;-5.4845;
813.3000;0.6488;-5.4739;
813.6000;0.6479;-5.4766;
813.9000;0.6512;-5.4739;
814.2000;0.6504;-5.4686;
814.5000;0.6496;-5.4739;
814.8000;0.6561;-5.4581;
815.1000;0.6488;-5.4766;
815.4000;0.6561;-5.4660;
815.7000;0.6504;-5.4792;
816.0000;0.6488;-5.4818;
816.3000;0.6496;-5.4845;
816.6000;0.6504;-5.4924;
816.9000;0.6512;-5.4898;
817.2000;0.6479;-5.4898;
817.5000;0.6488;-5.4951;
817.8000;0.6504;-5.4977;
818.1000;0.6504;-5.4924;
818.4000;0.6504;-5.4871;
818.7000;0.6488;-5.4818;
819.0000;0.6496;-5.4766;
819.3000;0.6488;-5.4845;
819.6000;0.6471;-5.4818;
819.9000;0.6471;-5.4871;
820.2000;0.6488;-5.4845;
820.5000;0.6463;-5.4951;
820.8000;0.6455;-5.5056;
821.1000;0.6479;-5.5056;
821.4000;0.6479;-5.5030;
821.7000;0.6455;-5.5056;
822.0000;0.6471;-5.5109;
822.3000;0.6488;-5.5109;
822.6000;0.6471;-5.5109;
822.9000;0.6471;-5.5056;
823.2000;0.6504;-5.5003;
823.5000;0.6431;-5.5162;
823.8000;0.6439;-5.5188;
824.1000;0.6455;-5.5188;
824.4000;0.6463;-5.5109;
824.7000;0.6447;-5.5083;
825.0000;0.6471;-5.5056;
825.3000;0.6479;-5.5056;
825.6000;0.6463;-5.5083;
825.9000;0.6471;-5.5056;
826.2000;0.6463;-5.5083;
826.5000;0.6463;-5.4951;
826.8000;0.6463;-5.5056;
827.1000;0.6455;-5.5030;
827.4000;0.6455;-5.5056;
827.7000;0.6471;-5.5030;
828.0000;0.6479;-5.4977;
828.3000;0.6479;-5.4951;
828.6000;0.6471;-5.5003;
828.9000;0.6463;-5.4924;
829.2000;0.6431;-5.4951;
829.5000;0.6471;-5.4871;
829.8000;0.6488;-5.4871;
830.1000;0.6471;-5.4898;
830.4000;0.6455;-5.4924;
830.7000;0.6463;-5.4951;
831.0000;0.6455;-5.5030;
831.3000;0.6455;-5.4924;
831.6000;0.6455;-5.4924;
831.9000;0.6455;-5.5056;
832.2000;0.6455;-5.5030;
832.5000;0.6455;-5.4898;
832.8000;0.6463;-5.4924;
833.1000;0.6488;-5.4871;
833.4000;0.6463;-5.4871;
833.7000;0.6488;-5.4792;
834.0000;0.6455;-5.4845;
834.3000;0.6447;-5.4898;
834.6000;0.6447;-5.4898;
834.9000;0.6447;-5.4898;
835.2000;0.6455;-5.4898;
835.5000;0.6463;-5.4871;
835.8000;0.6463;-5.4898;
836.1000;0.6471;-5.4845;
836.4000;0.6439;-5.4951;
836.7000;0.6431;-5.5003;
837.0000;0.6439;-5.4951;
837.3000;0.6431;-5.4924;
837.6000;0.6439;-5.4871;
837.9000;0.6439;-5.4818;
838.2000;0.6431;-5.4818;
838.5000;0.6439;-5.4818;
838.8000;0.6439;-5.4739;
839.1000;0.6431;-5.4660;
839.4000;0.6431;-5.4581;
839.7000;0.6439;-5.4581;
840.0000;0.6447;-5.4581;
840.3000;0.6455;-5.4634;
840.6000;0.6447;-5.4634;
840.9000;0.6463;-5.4607;
841.2000;0.6455;-5.4607;
841.5000;0.6422;-5.4686;
841.8000;0.6439;-5.4739;
842.1000;0.6455;-5.4792;
842.4000;0.6439;-5.5003;
842.7000;0.6431;-5.5030;
843.0000;0.6414;-5.5056;
843.3000;0.6439;-5.5030;
843.6000;0.6455;-5.4951;
843.9000;0.6431;-5.5030;
844.2000;0.6431;-5.5109;
844.5000;0.6431;-5.5083;
844.8000;0.6439;-5.5083;
845.1000;0.6439;-5.5162;
845.4000;0.6439;-5.5162;
845.7000;0.6398;-5.5188;
846.0000;0.6439;-5.5056;
846.3000;0.6447;-5.5030;
846.6000;0.6422;-5.5003;
846.9000;0.6431;-5.4871;
847.2000;0.6431;-5.4818;
847.5000;0.6414;-5.4898;
847.8000;0.6414;-5.4766;
848.1000;0.6398;-5.4766;
848.4000;0.6365;-5.4818;
848.7000;0.6431;-5.4634;
849.0000;0.6414;-5.4660;
849.3000;0.6406;-5.4686;
849.6000;0.6422;-5.4660;
849.9000;0.6471;-5.4607;
850.2000;0.6422;-5.4634;
850.5000;0.6414;-5.4739;
850.8000;0.6439;-5.4634;
851.1000;0.6431;-5.4713;
851.4000;0.6439;-5.4634;
851.7000;0.6471;-5.4528;
852.0000;0.6422;-5.4660;
852.3000;0.6431;-5.4713;
852.6000;0.6447;-5.4686;
852.9000;0.6422;-5.4766;
853.2000;0.6488;-5.4607;
853.5000;0.6414;-5.4766;
853.8000;0.6414;-5.4739;
854.1000;0.6398;-5.4766;
854.4000;0.6414;-5.4713;
854.7000;0.6422;-5.4634;
855.0000;0.6422;-5.4581;
855.3000;0.6406;-5.4607;
855.6000;0.6406;-5.4660;
855.9000;0.6422;-5.4581;
856.2000;0.6414;-5.4581;
856.5000;0.6431;-5.4554;
856.8000;0.6414;-5.4607;
857.1000;0.6431;-5.4581;
857.4000;0.6406;-5.4581;
857.7000;0.6431;-5.4422;
858.0000;0.6414;-5.4607;
858.3000;0.6406;-5.4686;
858.6000;0.6431;-5.4686;
858.9000;0.6447;-5.4528;
859.2000;0.6398;-5.4528;
859.5000;0.6488;-5.4343;
859.8000;0.6414;-5.4502;
860.1000;0.6422;-5.4528;
860.4000;0.6422;-5.4502;
860.7000;0.6422;-5.4581;
861.0000;0.6406;-5.4607;
861.3000;0.6431;-5.4581;
861.6000;0.6406;-5.4554;
861.9000;0.6431;-5.4422;
862.2000;0.6398;-5.4607;
862.5000;0.6414;-5.4660;
862.8000;0.6414;-5.4607;
863.1000;0.6398;-5.4660;
863.4000;0.6406;-5.4686;
863.7000;0.6414;-5.4686;
864.0000;0.6414;-5.4713;
864.3000;0.6398;-5.4686;
864.6000;0.6414;-5.4713;
864.9000;0.6406;-5.4739;
865.2000;0.6431;-5.4686;
865.5000;0.6414;-5.4686;
865.8000;0.6398;-5.4660;
866.1000;0.6406;-5.4634;
866.4000;0.6431;-5.4554;
866.7000;0.6406;-5.4554;
867.0000;0.6414;-5.4581;
867.3000;0.6414;-5.4660;
867.6000;0.6406;-5.4634;
867.9000;0.6414;-5.4554;
868.2000;0.6398;-5.4686;
868.5000;0.6390;-5.4713;
868.8000;0.6382;-5.4713;
869.1000;0.6496;-5.4581;
869.4000;0.6390;-5.4766;
869.7000;0.6406;-5.4739;
870.0000;0.6398;-5.4686;
870.3000;0.6398;-5.4660;
870.6000;0.6406;-5.4660;
870.9000;0.6390;-5.4818;
871.2000;0.6390;-5.4818;
871.5000;0.6414;-5.4739;
871.8000;0.6398;-5.4766;
872.1000;0.6390;-5.4898;
872.4000;0.6349;-5.4977;
872.7000;0.6406;-5.4871;
873.0000;0.6406;-5.4818;
873.3000;0.6398;-5.4898;
873.6000;0.6382;-5.5030;
873.9000;0.6455;-5.4898;
874.2000;0.6374;-5.5056;
874.5000;0.6365;-5.5083;
874.8000;0.6382;-5.4977;
875.1000;0.6382;-5.4845;
875.4000;0.6390;-5.4739;
875.7000;0.6414;-5.4713;
876.0000;0.6414;-5.4660;
876.3000;0.6398;-5.4686;
876.6000;0.6406;-5.4686;
876.9000;0.6390;-5.4660;
877.2000;0.6390;-5.4739;
877.5000;0.6398;-5.4713;
877.8000;0.6398;-5.4660;
878.1000;0.6365;-5.4739;
878.4000;0.6398;-5.4766;
878.7000;0.6374;-5.4766;
879.0000;0.6390;-5.4686;
879.3000;0.6398;-5.4634;
879.6000;0.6398;-5.4660;
879.9000;0.6382;-5.4686;
880.2000;0.6382;-5.4686;
880.5000;0.6382;-5.4713;
880.8000;0.6414;-5.4607;
881.1000;0.6382;-5.4686;
881.4000;0.6374;-5.4739;
881.7000;0.6390;-5.4660;
882.0000;0.6398;-5.4581;
882.3000;0.6390;-5.4660;
882.6000;0.6382;-5.4634;
882.9000;0.6422;-5.4502;
883.2000;0.6390;-5.4554;
883.5000;0.6414;-5.4554;
883.8000;0.6374;-5.4686;
884.1000;0.6374;-5.4686;
884.4000;0.6365;-5.4713;
884.7000;0.6382;-5.4634;
885.0000;0.6382;-5.4528;
885.3000;0.6398;-5.4475;
885.6000;0.6439;-5.4343;
885.9000;0.6447;-5.4475;
886.2000;0.6382;-5.4634;
886.5000;0.6390;-5.4581;
886.8000;0.6382;-5.4528;
887.1000;0.6390;-5.4528;
887.4000;0.6390;-5.4528;
887.7000;0.6374;-5.4634;
888.0000;0.6374;-5.4713;
888.3000;0.6390;-5.4660;
888.6000;0.6390;-5.4634;
888.9000;0.6390;-5.4607;
889.2000;0.6374;-5.4634;
889.5000;0.6382;-5.4739;
889.8000;0.6390;-5.4713;
890.1000;0.6349;-5.4686;
890.4000;0.6382;-5.4554;
890.7000;0.6374;-5.4660;
891.0000;0.6390;-5.4634;
891.3000;0.6365;-5.4634;
891.6000;0.6374;-5.4634;
891.9000;0.6390;-5.4502;
892.2000;0.6439;-5.4422;
892.5000;0.6382;-5.4634;
892.8000;0.6382;-5.4634;
893.1000;0.6382;-5.4634;
893.4000;0.6382;-5.4660;
893.7000;0.6382;-5.4686;
894.0000;0.6374;-5.4713;
894.3000;0.6406;-5.4634;
894.6000;0.6398;-5.4660;
894.9000;0.6365;-5.4739;
895.2000;0.6431;-5.4554;
895.5000;0.6390;-5.4766;
895.8000;0.6365;-5.4871;
896.1000;0.6390;-5.4845;
896.4000;0.6357;-5.4898;
896.7000;0.6365;-5.4871;
897.0000;0.6374;-5.4739;
897.3000;0.6390;-5.4686;
897.6000;0.6374;-5.4739;
897.9000;0.6365;-5.4713;
898.2000;0.6357;-5.4713;
898.5000;0.6365;-5.4686;
898.8000;0.6341;-5.4660;
899.1000;0.6365;-5.4607;
899.4000;0.6374;-5.4581;
899.7000;0.6382;-5.4581;
900.0000;0.6357;-5.4713;
900.3000;0.6365;-5.4739;
900.6000;0.6341;-5.4739;
900.9000;0.6341;-5.4739;
901.2000;0.6374;-5.4660;
901.5000;0.6374;-5.4739;
901.8000;0.6365;-5.4686;
902.1000;0.6341;-5.4792;
902.4000;0.6365;-5.4686;
902.7000;0.6406;-5.4634;
903.0000;0.6357;-5.4845;
903.3000;0.6365;-5.4818;
903.6000;0.6382;-5.4818;
903.9000;0.6349;-5.4792;
904.2000;0.6349;-5.4739;
904.5000;0.6333;-5.4766;
904.8000;0.6300;-5.4871;
905.1000;0.6349;-5.4739;
905.4000;0.6341;-5.4766;
905.7000;0.6333;-5.4634;
906.0000;0.6292;-5.4792;
906.3000;0.6349;-5.4607;
906.6000;0.6365;-5.4713;
906.9000;0.6341;-5.4818;
907.2000;0.6365;-5.4818;
907.5000;0.6333;-5.4951;
907.8000;0.6431;-5.4739;
908.1000;0.6382;-5.4898;
908.4000;0.6365;-5.5003;
908.7000;0.6357;-5.4951;
909.0000;0.6341;-5.5030;
909.3000;0.6349;-5.4977;
909.6000;0.6390;-5.4871;
909.9000;0.6349;-5.4871;
910.2000;0.6374;-5.4766;
910.5000;0.6349;-5.4818;
910.8000;0.6333;-5.4898;
911.1000;0.6357;-5.4792;
911.4000;0.6357;-5.4845;
911.7000;0.6357;-5.4898;
912.0000;0.6365;-5.4818;
912.3000;0.6349;-5.4818;
912.6000;0.6365;-5.4792;
912.9000;0.6365;-5.4871;
913.2000;0.6357;-5.4898;
913.5000;0.6349;-5.4898;
913.8000;0.6365;-5.4871;
914.1000;0.6333;-5.4951;
914.4000;0.6374;-5.4871;
914.7000;0.6341;-5.4951;
915.0000;0.6317;-5.4951;
915.3000;0.6341;-5.4818;
915.6000;0.6349;-5.4634;
915.9000;0.6390;-5.4475;
916.2000;0.6365;-5.4528;
916.5000;0.6341;-5.4581;
916.8000;0.6341;-5.4581;
917.1000;0.6357;-5.4581;
917.4000;0.6341;-5.4528;
917.7000;0.6341;-5.4581;
918.0000;0.6349;-5.4528;
918.3000;0.6317;-5.4660;
918.6000;0.6333;-5.4607;
918.9000;0.6365;-5.4554;
919.2000;0.6414;-5.4475;
919.5000;0.6341;-5.4713;
919.8000;0.6341;-5.4713;
920.1000;0.6349;-5.4660;
920.4000;0.6333;-5.4660;
920.7000;0.6357;-5.4660;
921.0000;0.6349;-5.4660;
921.3000;0.6349;-5.4660;
921.6000;0.6333;-5.4739;
921.9000;0.6357;-5.4792;
922.2000;0.6365;-5.4713;
922.5000;0.6309;-5.4845;
922.8000;0.6439;-5.4554;
923.1000;0.6357;-5.4686;
923.4000;0.6333;-5.4739;
923.7000;0.6349;-5.4739;
924.0000;0.6374;-5.4713;
924.3000;0.6357;-5.4739;
924.6000;0.6341;-5.4766;
924.9000;0.6349;-5.4660;
925.2000;0.6357;-5.4581;
925.5000;0.6341;-5.4581;
925.8000;0.6365;-5.4528;
926.1000;0.6341;-5.4766;
926.4000;0.6325;-5.4766;
926.7000;0.6325;-5.4686;
927.0000;0.6357;-5.4686;
927.3000;0.6349;-5.4686;
927.6000;0.6341;-5.4660;
927.9000;0.6333;-5.4634;
928.2000;0.6333;-5.4634;
928.5000;0.6365;-5.4554;
928.8000;0.6349;-5.4528;
929.1000;0.6341;-5.4607;
929.4000;0.6333;-5.4660;
929.7000;0.6325;-5.4660;
930.0000;0.6333;-5.4607;
930.3000;0.6333;-5.4634;
930.6000;0.6325;-5.4686;
930.9000;0.6325;-5.4766;
931.2000;0.6309;-5.4871;
931.5000;0.6325;-5.4924;
931.8000;0.6365;-5.4845;
932.1000;0.6357;-5.4845;
932.4000;0.6333;-5.4792;
932.7000;0.6325;-5.4818;
933.0000;0.6317;-5.4792;
933.3000;0.6276;-5.4898;
933.6000;0.6333;-5.4739;
933.9000;0.6357;-5.4713;
934.2000;0.6349;-5.4713;
934.5000;0.6325;-5.4739;
934.8000;0.6349;-5.4713;
935.1000;0.6349;-5.4660;
935.4000;0.6349;-5.4660;
935.7000;0.6349;-5.4554;
936.0000;0.6349;-5.4528;
936.3000;0.6317;-5.4660;
936.6000;0.6341;-5.4634;
936.9000;0.6333;-5.4607;
937.2000;0.6325;-5.4581;
937.5000;0.6349;-5.4554;
937.8000;0.6325;-5.4686;
938.1000;0.6341;-5.4739;
938.4000;0.6349;-5.4713;
938.7000;0.6333;-5.4713;
939.0000;0.6325;-5.4686;
939.3000;0.6333;-5.4634;
939.6000;0.6341;-5.4581;
939.9000;0.6333;-5.4475;
940.2000;0.6309;-5.4581;
940.5000;0.6309;-5.4475;
940.8000;0.6317;-5.4449;
941.1000;0.6227;-5.4713;
941.4000;0.6325;-5.4581;
941.7000;0.6317;-5.4554;
942.0000;0.6317;-5.4528;
942.3000;0.6325;-5.4607;
942.6000;0.6284;-5.4686;
942.9000;0.6333;-5.4607;
943.2000;0.6365;-5.4528;
943.5000;0.6243;-5.4818;
943.8000;0.6317;-5.4634;
944.1000;0.6317;-5.4581;
944.4000;0.6325;-5.4581;
944.7000;0.6341;-5.4581;
945.0000;0.6284;-5.4686;
945.3000;0.6325;-5.4607;
945.6000;0.6365;-5.4528;
945.9000;0.6325;-5.4634;
946.2000;0.6292;-5.4634;
946.5000;0.6309;-5.4607;
946.8000;0.6317;-5.4634;
947.1000;0.6341;-5.4607;
947.4000;0.6325;-5.4634;
947.7000;0.6341;-5.4660;
948.0000;0.6317;-5.4766;
948.3000;0.6317;-5.4766;
948.6000;0.6325;-5.4686;
948.9000;0.6357;-5.4634;
949.2000;0.6325;-5.4686;
949.5000;0.6349;-5.4660;
949.8000;0.6325;-5.4686;
950.1000;0.6341;-5.4607;
950.4000;0.6325;-5.4660;
950.7000;0.6317;-5.4686;
951.0000;0.6325;-5.4634;
951.3000;0.6333;-5.4660;
951.6000;0.6317;-5.4686;
951.9000;0.6317;-5.4686;
952.2000;0.6325;-5.4686;
952.5000;0.6349;-5.4581;
952.8000;0.6300;-5.4713;
953.1000;0.6317;-5.4634;
953.4000;0.6292;-5.4686;
953.7000;0.6317;-5.4634;
954.0000;0.6341;-5.4554;
954.3000;0.6333;-5.4607;
954.6000;0.6317;-5.4528;
954.9000;0.6333;-5.4581;
955.2000;0.6309;-5.4581;
955.5000;0.6317;-5.4554;
955.8000;0.6333;-5.4528;
956.1000;0.6300;-5.4581;
956.4000;0.6317;-5.4581;
956.7000;0.6309;-5.4528;
957.0000;0.6341;-5.4502;
957.3000;0.6276;-5.4581;
957.6000;0.6325;-5.4422;
957.9000;0.6309;-5.4475;
958.2000;0.6333;-5.4554;
958.5000;0.6325;-5.4581;
958.8000;0.6325;-5.4634;
959.1000;0.6325;-5.4554;
959.4000;0.6309;-5.4581;
959.7000;0.6325;-5.4554;
960.0000;0.6325;-5.4581;
960.3000;0.6325;-5.4554;
960.6000;0.6333;-5.4475;
960.9000;0.6276;-5.4607;
961.2000;0.6317;-5.4554;
961.5000;0.6292;-5.4660;
961.8000;0.6317;-5.4660;
962.1000;0.6300;-5.4739;
962.4000;0.6317;-5.4660;
962.7000;0.6309;-5.4739;
963.0000;0.6300;-5.4713;
963.3000;0.6309;-5.4660;
963.6000;0.6365;-5.4422;
963.9000;0.6300;-5.4607;
964.2000;0.6317;-5.4528;
964.5000;0.6317;-5.4475;
964.8000;0.6300;-5.4449;
965.1000;0.6284;-5.4422;
965.4000;0.6325;-5.4343;
965.7000;0.6309;-5.4449;
966.0000;0.6300;-5.4528;
966.3000;0.6292;-5.4607;
966.6000;0.6284;-5.4713;
966.9000;0.6309;-5.4660;
967.2000;0.6333;-5.4607;
967.5000;0.6260;-5.4818;
967.8000;0.6325;-5.4634;
968.1000;0.6317;-5.4554;
968.4000;0.6292;-5.4634;
968.7000;0.6309;-5.4686;
969.0000;0.6471;-5.4317;
969.3000;0.6325;-5.4660;
969.6000;0.6317;-5.4713;
969.9000;0.6227;-5.4951;
970.2000;0.6325;-5.4554;
970.5000;0.6325;-5.4502;
970.8000;0.6325;-5.4528;
971.1000;0.6349;-5.4396;
971.4000;0.6317;-5.4449;
971.7000;0.6309;-5.4528;
972.0000;0.6325;-5.4449;
972.3000;0.6300;-5.4449;
972.6000;0.6300;-5.4422;
972.9000;0.6341;-5.4396;
973.2000;0.6317;-5.4528;
973.5000;0.6300;-5.4528;
973.8000;0.6300;-5.4528;
974.1000;0.6317;-5.4502;
974.4000;0.6317;-5.4475;
974.7000;0.6292;-5.4475;
975.0000;0.6292;-5.4502;
975.3000;0.6300;-5.4396;
975.6000;0.6292;-5.4422;
975.9000;0.6341;-5.4370;
976.2000;0.6317;-5.4422;
976.5000;0.6300;-5.4449;
976.8000;0.6300;-5.4475;
977.1000;0.6300;-5.4528;
977.4000;0.6292;-5.4581;
977.7000;0.6252;-5.4686;
978.0000;0.6300;-5.4475;
978.3000;0.6268;-5.4686;
978.6000;0.6276;-5.4660;
978.9000;0.6252;-5.4739;
979.2000;0.6284;-5.4607;
979.5000;0.6309;-5.4449;
979.8000;0.6276;-5.4422;
980.1000;0.6300;-5.4422;
980.4000;0.6309;-5.4343;
980.7000;0.6309;-5.4370;
981.0000;0.6309;-5.4396;
981.3000;0.6284;-5.4502;
981.6000;0.6300;-5.4422;
981.9000;0.6317;-5.4370;
982.2000;0.6300;-5.4449;
982.5000;0.6276;-5.4502;
982.8000;0.6309;-5.4422;
983.1000;0.6333;-5.4422;
983.4000;0.6292;-5.4554;
983.7000;0.6276;-5.4607;
984.0000;0.6325;-5.4475;
984.3000;0.6292;-5.4554;
984.6000;0.6276;-5.4502;
984.9000;0.6300;-5.4449;
985.2000;0.6300;-5.4422;
985.5000;0.6292;-5.4475;
985.8000;0.6317;-5.4475;
986.1000;0.6292;-5.4528;
986.4000;0.6268;-5.4581;
986.7000;0.6292;-5.4502;
987.0000;0.6300;-5.4370;
987.3000;0.6292;-5.4475;
987.6000;0.6292;-5.4370;
987.9000;0.6276;-5.4475;
988.2000;0.6284;-5.4554;
988.5000;0.6252;-5.4686;
988.8000;0.6292;-5.4634;
989.1000;0.6300;-5.4581;
989.4000;0.6292;-5.4660;
989.7000;0.6268;-5.4686;
990.0000;0.6276;-5.4686;
990.3000;0.6284;-5.4713;
990.6000;0.6325;-5.4607;
990.9000;0.6325;-5.4528;
991.2000;0.6292;-5.4528;
991.5000;0.6284;-5.4554;
991.8000;0.6300;-5.4475;
992.1000;0.6300;-5.4475;
992.4000;0.6300;-5.4449;
992.7000;0.6300;-5.4422;
993.0000;0.6268;-5.4554;
993.3000;0.6300;-5.4528;
993.6000;0.6276;-5.4554;
993.9000;0.6284;-5.4607;
994.2000;0.6284;-5.4713;
994.5000;0.6276;-5.4792;
994.8000;0.6333;-5.4686;
995.1000;0.6284;-5.4713;
995.4000;0.6252;-5.4792;
995.7000;0.6276;-5.4660;
996.0000;0.6276;-5.4739;
996.3000;0.6284;-5.4818;
996.6000;0.6276;-5.4766;
996.9000;0.6309;-5.4686;
997.2000;0.6276;-5.4739;
997.5000;0.6276;-5.4739;
997.8000;0.6276;-5.4845;
998.1000;0.6276;-5.4792;
998.4000;0.6309;-5.4686;
998.7000;0.6284;-5.4686;
999.0000;0.6276;-5.4739;
999.3000;0.6284;-5.4739;
999.6000;0.6276;-5.4739;
999.9000;0.6284;-5.4739;
1000.2000;0.6276;-5.4766;
1000.5000;0.6292;-5.4713;
1000.8000;0.6268;-5.4739;
1001.1000;0.6341;-5.4475;
1001.4000;0.6276;-5.4634;
1001.7000;0.6235;-5.4634;
1002.0000;0.6276;-5.4554;
1002.3000;0.6284;-5.4475;
1002.6000;0.6300;-5.4554;
1002.9000;0.6268;-5.4686;
1003.2000;0.6276;-5.4634;
1003.5000;0.6300;-5.4607;
1003.8000;0.6284;-5.4528;
1004.1000;0.6268;-5.4554;
1004.4000;0.6300;-5.4528;
1004.7000;0.6284;-5.4554;
1005.0000;0.6284;-5.4581;
1005.3000;0.6276;-5.4449;
1005.6000;0.6260;-5.4528;
1005.9000;0.6268;-5.4502;
1006.2000;0.6284;-5.4449;
1006.5000;0.6284;-5.4528;
1006.8000;0.6333;-5.4528;
1007.1000;0.6235;-5.4845;
1007.4000;0.6292;-5.4660;
1007.7000;0.6284;-5.4713;
1008.0000;0.6292;-5.4660;
1008.3000;0.6292;-5.4528;
1008.6000;0.6292;-5.4502;
1008.9000;0.6260;-5.4554;
1009.2000;0.6260;-5.4554;
1009.5000;0.6276;-5.4475;
1009.8000;0.6284;-5.4502;
1010.1000;0.6276;-5.4502;
1010.4000;0.6268;-5.4449;
1010.7000;0.6252;-5.4581;
1011.0000;0.6284;-5.4475;
1011.3000;0.6260;-5.4686;
1011.6000;0.6284;-5.4554;
1011.9000;0.6276;-5.4554;
1012.2000;0.6276;-5.4528;
1012.5000;0.6252;-5.4554;
1012.8000;0.6268;-5.4554;
1013.1000;0.6260;-5.4607;
1013.4000;0.6276;-5.4634;
1013.7000;0.6276;-5.4581;
1014.0000;0.6300;-5.4502;
1014.3000;0.6276;-5.4528;
1014.6000;0.6268;-5.4581;
1014.9000;0.6284;-5.4528;
1015.2000;0.6284;-5.4449;
1015.5000;0.6260;-5.4528;
1015.8000;0.6268;-5.4502;
1016.1000;0.6276;-5.4475;
1016.4000;0.6276;-5.4581;
1016.7000;0.6292;-5.4581;
1017.0000;0.6276;-5.4660;
1017.3000;0.6276;-5.4660;
1017.6000;0.6325;-5.4449;
1017.9000;0.6292;-5.4475;
1018.2000;0.6284;-5.4475;
1018.5000;0.6276;-5.4607;
1018.8000;0.6260;-5.4634;
1019.1000;0.6268;-5.4554;
1019.4000;0.6284;-5.4475;
1019.7000;0.6260;-5.4449;
1020.0000;0.6260;-5.4528;
1020.3000;0.6243;-5.4634;
1020.6000;0.6260;-5.4660;
1020.9000;0.6284;-5.4686;
1021.2000;0.6276;-5.4766;
1021.5000;0.6268;-5.4766;
1021.8000;0.6309;-5.4686;
1022.1000;0.6260;-5.4792;
1022.4000;0.6252;-5.4739;
1022.7000;0.6268;-5.4607;
1023.0000;0.6284;-5.4581;
1023.3000;0.6260;-5.4607;
1023.6000;0.6252;-5.4634;
1023.9000;0.6260;-5.4502;
1024.2000;0.6284;-5.4396;
1024.5000;0.6268;-5.4475;
1024.8000;0.6276;-5.4528;
1025.1000;0.6276;-5.4554;
1025.4000;0.6284;-5.4475;
1025.7000;0.6284;-5.4422;
1026.0000;0.6268;-5.4422;
1026.3000;0.6268;-5.4502;
1026.6000;0.6276;-5.4502;
1026.9000;0.6268;-5.4581;
1027.2000;0.6268;-5.4581;
1027.5000;0.6276;-5.4607;
1027.8000;0.6268;-5.4634;
1028.1000;0.6235;-5.4686;
1028.4000;0.6276;-5.4581;
1028.7000;0.6268;-5.4581;
1029.0000;0.6268;-5.4607;
1029.3000;0.6268;-5.4475;
1029.6000;0.6260;-5.4502;
1029.9000;0.6235;-5.4634;
1030.2000;0.6284;-5.4528;
1030.5000;0.6284;-5.4634;
1030.8000;0.6268;-5.4686;
1031.1000;0.6268;-5.4660;
1031.4000;0.6276;-5.4528;
1031.7000;0.6260;-5.4422;
1032.0000;0.6260;-5.4396;
1032.3000;0.6260;-5.4370;
1032.6000;0.6292;-5.4238;
1032.9000;0.6276;-5.4290;
1033.2000;0.6252;-5.4317;
1033.5000;0.6235;-5.4264;
1033.8000;0.6252;-5.4317;
1034.1000;0.6252;-5.4264;
1034.4000;0.6252;-5.4264;
1034.7000;0.6252;-5.4290;
1035.0000;0.6252;-5.4290;
1035.3000;0.6252;-5.4343;
1035.6000;0.6252;-5.4317;
1035.9000;0.6243;-5.4317;
1036.2000;0.6268;-5.4370;
1036.5000;0.6260;-5.4290;
1036.8000;0.6268;-5.4158;
1037.1000;0.6252;-5.4238;
1037.4000;0.6252;-5.4264;
1037.7000;0.6252;-5.4290;
1038.0000;0.6341;-5.4132;
1038.3000;0.6284;-5.4396;
1038.6000;0.6284;-5.4370;
1038.9000;0.6219;-5.4554;
1039.2000;0.6203;-5.4528;
1039.5000;0.6317;-5.4185;
1039.8000;0.6268;-5.4370;
1040.1000;0.6284;-5.4264;
1040.4000;0.6243;-5.4317;
1040.7000;0.6260;-5.4317;
1041.0000;0.6243;-5.4370;
1041.3000;0.6260;-5.4317;
1041.6000;0.6195;-5.4528;
1041.9000;0.6268;-5.4317;
1042.2000;0.6260;-5.4370;
1042.5000;0.6235;-5.4343;
1042.8000;0.6260;-5.4264;
1043.1000;0.6243;-5.4317;
1043.4000;0.6276;-5.4343;
1043.7000;0.6243;-5.4449;
1044.0000;0.6243;-5.4449;
1044.3000;0.6235;-5.4449;
1044.6000;0.6260;-5.4370;
1044.9000;0.6252;-5.4396;
1045.2000;0.6260;-5.4396;
1045.5000;0.6268;-5.4396;
1045.8000;0.6252;-5.4317;
1046.1000;0.6162;-5.4449;
1046.4000;0.6243;-5.4238;
1046.7000;0.6243;-5.4211;
1047.0000;0.6260;-5.4185;
1047.3000;0.6243;-5.4238;
1047.6000;0.6243;-5.4343;
1047.9000;0.6252;-5.4317;
1048.2000;0.6276;-5.4290;
1048.5000;0.6317;-5.4264;
1048.8000;0.6260;-5.4422;
1049.1000;0.6268;-5.4396;
1049.4000;0.6252;-5.4343;
1049.7000;0.6260;-5.4343;
1050.0000;0.6268;-5.4396;
1050.3000;0.6260;-5.4449;
1050.6000;0.6268;-5.4422;
1050.9000;0.6260;-5.4422;
1051.2000;0.6268;-5.4264;
1051.5000;0.6243;-5.4264;
1051.8000;0.6284;-5.4158;
1052.1000;0.6276;-5.4185;
1052.4000;0.6276;-5.4238;
1052.7000;0.6268;-5.4317;
1053.0000;0.6268;-5.4317;
1053.3000;0.6260;-5.4317;
1053.6000;0.6243;-5.4370;
1053.9000;0.6317;-5.4290;
1054.2000;0.6276;-5.4370;
1054.5000;0.6268;-5.4370;
1054.8000;0.6260;-5.4317;
1055.1000;0.6252;-5.4343;
1055.4000;0.6243;-5.4370;
1055.7000;0.6260;-5.4264;
1056.0000;0.6252;-5.4211;
1056.3000;0.6252;-5.4132;
1056.6000;0.6211;-5.4211;
1056.9000;0.6219;-5.4290;
1057.2000;0.6235;-5.4238;
1057.5000;0.6252;-5.4158;
1057.8000;0.6243;-5.4106;
1058.1000;0.6243;-5.4106;
1058.4000;0.6252;-5.4079;
1058.7000;0.6243;-5.4132;
1059.0000;0.6292;-5.4079;
1059.3000;0.6268;-5.4185;
1059.6000;0.6260;-5.4132;
1059.9000;0.6260;-5.4132;
1060.2000;0.6341;-5.3973;
1060.5000;0.6235;-5.4211;
1060.8000;0.6252;-5.4185;
1061.1000;0.6260;-5.4264;
1061.4000;0.6268;-5.4343;
1061.7000;0.6243;-5.4396;
1062.0000;0.6252;-5.4449;
1062.3000;0.6243;-5.4502;
1062.6000;0.6243;-5.4475;
1062.9000;0.6260;-5.4475;
1063.2000;0.6292;-5.4370;
1063.5000;0.6243;-5.4396;
1063.8000;0.6260;-5.4343;
1064.1000;0.6260;-5.4396;
1064.4000;0.6260;-5.4396;
1064.7000;0.6252;-5.4502;
1065.0000;0.6219;-5.4528;
1065.3000;0.6260;-5.4449;
1065.6000;0.6243;-5.4475;
1065.9000;0.6243;-5.4422;
1066.2000;0.6235;-5.4343;
1066.5000;0.6235;-5.4370;
1066.8000;0.6243;-5.4370;
1067.1000;0.6243;-5.4396;
1067.4000;0.6252;-5.4396;
1067.7000;0.6235;-5.4317;
1068.0000;0.6227;-5.4264;
1068.3000;0.6243;-5.4211;
1068.6000;0.6219;-5.4211;
1068.9000;0.6252;-5.4079;
1069.2000;0.6243;-5.4106;
1069.5000;0.6235;-5.4211;
1069.8000;0.6260;-5.4106;
1070.1000;0.6268;-5.4132;
1070.4000;0.6260;-5.4185;
1070.7000;0.6260;-5.4158;
1071.0000;0.6260;-5.4211;
1071.3000;0.6203;-5.4343;
1071.6000;0.6260;-5.4158;
1071.9000;0.6178;-5.4422;
1072.2000;0.6243;-5.4264;
1072.5000;0.6235;-5.4343;
1072.8000;0.6260;-5.4396;
1073.1000;0.6243;-5.4475;
1073.4000;0.6252;-5.4475;
1073.7000;0.6252;-5.4528;
1074.0000;0.6276;-5.4422;
1074.3000;0.6243;-5.4475;
1074.6000;0.6252;-5.4502;
1074.9000;0.6243;-5.4528;
1075.2000;0.6268;-5.4502;
1075.5000;0.6268;-5.4528;
1075.8000;0.6252;-5.4554;
1076.1000;0.6260;-5.4502;
1076.4000;0.6252;-5.4581;
1076.7000;0.6268;-5.4502;
1077.0000;0.6252;-5.4634;
1077.3000;0.6268;-5.4581;
1077.6000;0.6252;-5.4554;
1077.9000;0.6203;-5.4607;
1078.2000;0.6211;-5.4607;
1078.5000;0.6227;-5.4634;
1078.8000;0.6235;-5.4581;
1079.1000;0.6260;-5.4581;
1079.4000;0.6276;-5.4528;
1079.7000;0.6252;-5.4581;
1080.0000;0.6252;-5.4607;
1080.3000;0.6252;-5.4502;
1080.6000;0.6227;-5.4581;
1080.9000;0.6243;-5.4554;
1081.2000;0.6243;-5.4528;
1081.5000;0.6260;-5.4449;
1081.8000;0.6243;-5.4422;
1082.1000;0.6227;-5.4475;
1082.4000;0.6219;-5.4607;
1082.7000;0.6235;-5.4528;
1083.0000;0.6252;-5.4502;
1083.3000;0.6243;-5.4502;
1083.6000;0.6227;-5.4502;
1083.9000;0.6235;-5.4422;
1084.2000;0.6235;-5.4396;
1084.5000;0.6243;-5.4343;
1084.8000;0.6243;-5.4290;
1085.1000;0.6211;-5.4370;
1085.4000;0.6252;-5.4264;
1085.7000;0.6260;-5.4264;
1086.0000;0.6260;-5.4343;
1086.3000;0.6252;-5.4317;
1086.6000;0.6243;-5.4290;
1086.9000;0.6252;-5.4343;
1087.2000;0.6260;-5.4370;
1087.5000;0.6243;-5.4422;
1087.8000;0.6243;-5.4396;
1088.1000;0.6243;-5.4396;
1088.4000;0.6235;-5.4422;
1088.7000;0.6243;-5.4422;
1089.0000;0.6243;-5.4317;
1089.3000;0.6252;-5.4370;
1089.6000;0.6252;-5.4264;
1089.9000;0.6227;-5.4343;
1090.2000;0.6243;-5.4317;
1090.5000;0.6260;-5.4317;
1090.8000;0.6227;-5.4449;
1091.1000;0.6243;-5.4422;
1091.4000;0.6203;-5.4475;
1091.7000;0.6195;-5.4475;
1092.0000;0.6219;-5.4396;
1092.3000;0.6235;-5.4370;
1092.6000;0.6203;-5.4528;
1092.9000;0.6227;-5.4554;
1093.2000;0.6235;-5.4502;
1093.5000;0.6227;-5.4475;
1093.8000;0.6211;-5.4475;
1094.1000;0.6243;-5.4422;
1094.4000;0.6284;-5.4211;
1094.7000;0.6243;-5.4317;
1095.0000;0.6276;-5.4317;
1095.3000;0.6235;-5.4370;
1095.6000;0.6260;-5.4238;
1095.9000;0.6243;-5.4264;
1096.2000;0.6243;-5.4317;
1096.5000;0.6243;-5.4422;
1096.8000;0.6252;-5.4422;
1097.1000;0.6170;-5.4634;
1097.4000;0.6243;-5.4370;
1097.7000;0.6227;-5.4396;
1098.0000;0.6235;-5.4370;
1098.3000;0.6235;-5.4370;
1098.6000;0.6235;-5.4422;
1098.9000;0.6276;-5.4370;
1099.2000;0.6235;-5.4422;
1099.5000;0.6243;-5.4422;
1099.8000;0.6227;-5.4475;
1100.1000;0.6243;-5.4422;
1100.4000;0.6243;-5.4370;
1100.7000;0.6170;-5.4528;
1101.0000;0.6227;-5.4290;
1101.3000;0.6235;-5.4185;
1101.6000;0.6219;-5.4238;
1101.9000;0.6243;-5.4317;
1102.2000;0.6309;-5.4106;
1102.5000;0.6243;-5.4238;
1102.8000;0.6252;-5.4264;
1103.1000;0.6252;-5.4211;
1103.4000;0.6252;-5.4238;
1103.7000;0.6243;-5.4290;
1104.0000;0.6227;-5.4343;
1104.3000;0.6243;-5.4264;
1104.6000;0.6243;-5.4264;
1104.9000;0.6195;-5.4422;
1105.2000;0.6243;-5.4370;
1105.5000;0.6227;-5.4422;
1105.8000;0.6227;-5.4422;
1106.1000;0.6235;-5.4317;
1106.4000;0.6243;-5.4211;
1106.7000;0.6243;-5.4211;
1107.0000;0.6235;-5.4238;
1107.3000;0.6235;-5.4211;
1107.6000;0.6227;-5.4317;
1107.9000;0.6243;-5.4290;
1108.2000;0.6219;-5.4290;
1108.5000;0.6243;-5.4211;
1108.8000;0.6260;-5.4185;
1109.1000;0.6235;-5.4211;
1109.4000;0.6227;-5.4264;
1109.7000;0.6235;-5.4238;
1110.0000;0.6235;-5.4317;
1110.3000;0.6243;-5.4370;
1110.6000;0.6260;-5.4343;
1110.9000;0.6252;-5.4343;
1111.2000;0.6252;-5.4264;
1111.5000;0.6227;-5.4238;
1111.8000;0.6243;-5.4132;
1112.1000;0.6235;-5.4079;
1112.4000;0.6227;-5.4106;
1112.7000;0.6227;-5.4185;
1113.0000;0.6203;-5.4343;
1113.3000;0.6211;-5.4396;
1113.6000;0.6243;-5.4264;
1113.9000;0.6211;-5.4343;
1114.2000;0.6219;-5.4264;
1114.5000;0.6268;-5.4132;
1114.8000;0.6195;-5.4264;
1115.1000;0.6219;-5.4264;
1115.4000;0.6260;-5.4132;
1115.7000;0.6219;-5.4158;
1116.0000;0.6235;-5.4158;
1116.3000;0.6227;-5.4185;
1116.6000;0.6219;-5.4158;
1116.9000;0.6235;-5.4158;
1117.2000;0.6243;-5.4185;
1117.5000;0.6235;-5.4238;
1117.8000;0.6235;-5.4211;
1118.1000;0.6227;-5.4211;
1118.4000;0.6227;-5.4211;
1118.7000;0.6211;-5.4106;
1119.0000;0.6219;-5.4000;
1119.3000;0.6235;-5.3947;
1119.6000;0.6235;-5.3973;
1119.9000;0.6243;-5.3973;
1120.2000;0.6219;-5.4000;
1120.5000;0.6235;-5.4079;
1120.8000;0.6243;-5.4106;
1121.1000;0.6178;-5.4238;
1121.4000;0.6243;-5.4106;
1121.7000;0.6235;-5.4158;
1122.0000;0.6227;-5.4264;
1122.3000;0.6252;-5.4238;
1122.6000;0.6178;-5.4396;
1122.9000;0.6227;-5.4238;
1123.2000;0.6203;-5.4290;
1123.5000;0.6243;-5.4211;
1123.8000;0.6211;-5.4238;
1124.1000;0.6235;-5.4211;
1124.4000;0.6211;-5.4211;
1124.7000;0.6268;-5.4106;
1125.0000;0.6227;-5.4238;
1125.3000;0.6211;-5.4264;
1125.6000;0.6268;-5.4290;
1125.9000;0.6211;-5.4449;
1126.2000;0.6227;-5.4422;
1126.5000;0.6227;-5.4317;
1126.8000;0.6227;-5.4290;
1127.1000;0.6211;-5.4264;
1127.4000;0.6227;-5.4132;
1127.7000;0.6219;-5.4106;
1128.0000;0.6211;-5.4106;
1128.3000;0.6211;-5.4132;
1128.6000;0.6154;-5.4317;
1128.9000;0.6211;-5.4079;
1129.2000;0.6211;-5.4185;
1129.5000;0.6203;-5.4238;
1129.8000;0.6219;-5.4211;
1130.1000;0.6211;-5.4211;
1130.4000;0.6284;-5.3973;
1130.7000;0.6219;-5.4238;
1131.0000;0.6211;-5.4343;
1131.3000;0.6219;-5.4290;
1131.6000;0.6170;-5.4396;
1131.9000;0.6235;-5.4185;
1132.2000;0.6227;-5.4185;
1132.5000;0.6203;-5.4264;
1132.8000;0.6227;-5.4185;
1133.1000;0.6235;-5.4158;
1133.4000;0.6219;-5.4132;
1133.7000;0.6195;-5.4238;
1134.0000;0.6227;-5.4158;
1134.3000;0.6219;-5.4238;
1134.6000;0.6203;-5.4343;
1134.9000;0.6186;-5.4422;
1135.2000;0.6219;-5.4211;
1135.5000;0.6260;-5.4132;
1135.8000;0.6235;-5.4158;
1136.1000;0.6227;-5.4211;
1136.4000;0.6252;-5.4106;
1136.7000;0.6186;-5.4264;
1137.0000;0.6235;-5.4211;
1137.3000;0.6211;-5.4264;
1137.6000;0.6227;-5.4264;
1137.9000;0.6219;-5.4211;
1138.2000;0.6227;-5.4185;
1138.5000;0.6243;-5.4132;
1138.8000;0.6227;-5.4132;
1139.1000;0.6186;-5.4264;
1139.4000;0.6219;-5.4185;
1139.7000;0.6219;-5.4185;
1140.0000;0.6219;-5.4264;
1140.3000;0.6243;-5.4185;
1140.6000;0.6235;-5.4211;
1140.9000;0.6235;-5.4211;
1141.2000;0.6252;-5.4211;
1141.5000;0.6203;-5.4317;
1141.8000;0.6341;-5.3921;
1142.1000;0.6260;-5.4158;
1142.4000;0.6219;-5.4185;
1142.7000;0.6211;-5.4317;
1143.0000;0.6235;-5.4238;
1143.3000;0.6219;-5.4317;
1143.6000;0.6227;-5.4238;
1143.9000;0.6154;-5.4554;
1144.2000;0.6186;-5.4422;
1144.5000;0.6243;-5.4264;
1144.8000;0.6219;-5.4238;
1145.1000;0.6186;-5.4343;
1145.4000;0.6211;-5.4185;
1145.7000;0.6243;-5.4132;
1146.0000;0.6227;-5.4264;
1146.3000;0.6227;-5.4343;
1146.6000;0.6227;-5.4264;
1146.9000;0.6235;-5.4370;
1147.2000;0.6219;-5.4449;
1147.5000;0.6243;-5.4370;
1147.8000;0.6235;-5.4343;
1148.1000;0.6243;-5.4290;
1148.4000;0.6227;-5.4317;
1148.7000;0.6227;-5.4317;
1149.0000;0.6203;-5.4370;
1149.3000;0.6203;-5.4370;
1149.6000;0.6227;-5.4396;
1149.9000;0.6219;-5.4475;
1150.2000;0.6227;-5.4396;
1150.5000;0.6211;-5.4475;
1150.8000;0.6195;-5.4422;
1151.1000;0.6227;-5.4422;
1151.4000;0.6243;-5.4396;
1151.7000;0.6211;-5.4449;
1152.0000;0.6219;-5.4449;
1152.3000;0.6211;-5.4528;
1152.6000;0.6243;-5.4554;
1152.9000;0.6195;-5.4739;
1153.2000;0.6211;-5.4686;
1153.5000;0.6211;-5.4554;
1153.8000;0.6219;-5.4554;
1154.1000;0.6219;-5.4502;
1154.4000;0.6227;-5.4502;
1154.7000;0.6186;-5.4528;
1155.0000;0.6243;-5.4290;
1155.3000;0.6227;-5.4264;
1155.6000;0.6292;-5.4053;
1155.9000;0.6219;-5.4158;
1156.2000;0.6227;-5.4158;
1156.5000;0.6219;-5.4158;
1156.8000;0.6211;-5.4185;
1157.1000;0.6219;-5.4132;
1157.4000;0.6211;-5.4185;
1157.7000;0.6186;-5.4211;
1158.0000;0.6203;-5.4185;
1158.3000;0.6203;-5.4238;
1158.6000;0.6219;-5.4264;
1158.9000;0.6219;-5.4317;
1159.2000;0.6211;-5.4370;
1159.5000;0.6219;-5.4317;
1159.8000;0.6219;-5.4422;
1160.1000;0.6203;-5.4528;
1160.4000;0.6211;-5.4528;
1160.7000;0.6219;-5.4475;
1161.0000;0.6195;-5.4449;
1161.3000;0.6203;-5.4422;
1161.6000;0.6227;-5.4396;
1161.9000;0.6195;-5.4449;
1162.2000;0.6227;-5.4422;
1162.5000;0.6195;-5.4502;
1162.8000;0.6227;-5.4502;
1163.1000;0.6195;-5.4396;
1163.4000;0.6162;-5.4502;
1163.7000;0.6227;-5.4396;
1164.0000;0.6219;-5.4370;
1164.3000;0.6252;-5.4343;
1164.6000;0.6219;-5.4475;
1164.9000;0.6219;-5.4449;
1165.2000;0.6195;-5.4554;
1165.5000;0.6252;-5.4475;
1165.8000;0.6211;-5.4528;
1166.1000;0.6219;-5.4581;
1166.4000;0.6203;-5.4528;
1166.7000;0.6211;-5.4528;
1167.0000;0.6195;-5.4554;
1167.3000;0.6211;-5.4528;
1167.6000;0.6211;-5.4581;
1167.9000;0.6252;-5.4449;
1168.2000;0.6243;-5.4370;
1168.5000;0.6243;-5.4396;
1168.8000;0.6227;-5.4370;
1169.1000;0.6170;-5.4502;
1169.4000;0.6219;-5.4343;
1169.7000;0.6227;-5.4317;
1170.0000;0.6195;-5.4370;
1170.3000;0.6129;-5.4554;
1170.6000;0.6195;-5.4449;
1170.9000;0.6219;-5.4528;
1171.2000;0.6219;-5.4554;
1171.5000;0.6243;-5.4449;
1171.8000;0.6203;-5.4554;
1172.1000;0.6186;-5.4554;
1172.4000;0.6235;-5.4422;
1172.7000;0.6211;-5.4449;
1173.0000;0.6227;-5.4422;
1173.3000;0.6195;-5.4449;
1173.6000;0.6243;-5.4317;
1173.9000;0.6219;-5.4343;
1174.2000;0.6211;-5.4343;
1174.5000;0.6211;-5.4343;
1174.8000;0.6211;-5.4343;
1175.1000;0.6235;-5.4317;
1175.4000;0.6227;-5.4370;
1175.7000;0.6211;-5.4317;
1176.0000;0.6203;-5.4370;
1176.3000;0.6219;-5.4370;
1176.6000;0.6211;-5.4449;
1176.9000;0.6211;-5.4449;
1177.2000;0.6203;-5.4422;
1177.5000;0.6211;-5.4317;
1177.8000;0.6211;-5.4317;
1178.1000;0.6211;-5.4290;
1178.4000;0.6203;-5.4343;
1178.7000;0.6195;-5.4396;
1179.0000;0.6260;-5.4317;
1179.3000;0.6227;-5.4475;
1179.6000;0.6227;-5.4475;
1179.9000;0.6113;-5.4766;
1180.2000;0.6227;-5.4449;
1180.5000;0.6203;-5.4422;
1180.8000;0.6203;-5.4449;
1181.1000;0.6195;-5.4475;
1181.4000;0.6203;-5.4422;
1181.7000;0.6203;-5.4343;
1182.0000;0.6227;-5.4317;
1182.3000;0.6227;-5.4317;
1182.6000;0.6219;-5.4317;
1182.9000;0.6211;-5.4343;
1183.2000;0.6203;-5.4343;
1183.5000;0.6195;-5.4290;
1183.8000;0.6211;-5.4343;
1184.1000;0.6235;-5.4264;
1184.4000;0.6203;-5.4238;
1184.7000;0.6211;-5.4185;
1185.0000;0.6203;-5.4185;
1185.3000;0.6211;-5.4132;
1185.6000;0.6178;-5.4132;
1185.9000;0.6203;-5.4185;
1186.2000;0.6227;-5.4106;
1186.5000;0.6195;-5.4211;
1186.8000;0.6211;-5.4185;
1187.1000;0.6203;-5.4238;
1187.4000;0.6203;-5.4317;
1187.7000;0.6219;-5.4290;
1188.0000;0.6219;-5.4158;
1188.3000;0.6211;-5.4185;
1188.6000;0.6195;-5.4185;
1188.9000;0.6219;-5.4158;
1189.2000;0.6203;-5.4158;
1189.5000;0.6186;-5.4264;
1189.8000;0.6211;-5.4238;
1190.1000;0.6211;-5.4185;
1190.4000;0.6219;-5.4132;
1190.7000;0.6219;-5.4132;
1191.0000;0.6219;-5.4106;
1191.3000;0.6203;-5.4106;
1191.6000;0.6211;-5.4132;
1191.9000;0.6203;-5.4106;
1192.2000;0.6178;-5.4158;
1192.5000;0.6203;-5.4132;
1192.8000;0.6211;-5.4053;
1193.1000;0.6243;-5.4053;
1193.4000;0.6203;-5.4053;
1193.7000;0.6203;-5.4132;
1194.0000;0.6219;-5.4158;
1194.3000;0.6211;-5.4106;
1194.6000;0.6243;-5.4000;
1194.9000;0.6195;-5.4106;
1195.2000;0.6203;-5.4106;
1195.5000;0.6211;-5.4079;
1195.8000;0.6154;-5.4264;
1196.1000;0.6195;-5.4185;
1196.4000;0.6195;-5.4185;
1196.7000;0.6211;-5.4158;
1197.0000;0.6211;-5.4132;
1197.3000;0.6203;-5.4185;
1197.6000;0.6243;-5.4185;
1197.9000;0.6211;-5.4264;
1198.2000;0.6203;-5.4264;
1198.5000;0.6211;-5.4317;
1198.8000;0.6162;-5.4502;
1199.1000;0.6211;-5.4449;
1199.4000;0.6243;-5.4343;
1199.7000;0.6235;-5.4370;
1200.0000;0.6227;-5.4396;
1200.3000;0.6195;-5.4396;
1200.6000;0.6219;-5.4343;
1200.9000;0.6219;-5.4264;
1201.2000;0.6211;-5.4343;
1201.5000;0.6203;-5.4343;
1201.8000;0.6186;-5.4264;
1202.1000;0.6211;-5.4238;
1202.4000;0.6211;-5.4211;
1202.7000;0.6219;-5.4185;
1203.0000;0.6211;-5.4211;
1203.3000;0.6211;-5.4158;
1203.6000;0.6203;-5.4264;
1203.9000;0.6203;-5.4158;
1204.2000;0.6211;-5.4079;
1204.5000;0.6211;-5.4185;
1204.8000;0.6252;-5.4026;
1205.1000;0.6219;-5.4106;
1205.4000;0.6203;-5.4211;
1205.7000;0.6211;-5.4132;
1206.0000;0.6203;-5.4158;
1206.3000;0.6219;-5.4158;
1206.6000;0.6195;-5.4238;
1206.9000;0.6203;-5.4343;
1207.2000;0.6211;-5.4290;
1207.5000;0.6186;-5.4422;
1207.8000;0.6211;-5.4396;
1208.1000;0.6203;-5.4422;
1208.4000;0.6203;-5.4396;
1208.7000;0.6195;-5.4502;
1209.0000;0.6203;-5.4449;
1209.3000;0.6211;-5.4343;
1209.6000;0.6219;-5.4264;
1209.9000;0.6203;-5.4264;
1210.2000;0.6186;-5.4264;
1210.5000;0.6186;-5.4264;
1210.8000;0.6195;-5.4264;
1211.1000;0.6178;-5.4238;
1211.4000;0.6203;-5.4238;
1211.7000;0.6178;-5.4238;
1212.0000;0.6268;-5.4053;
1212.3000;0.6203;-5.4185;
1212.6000;0.6203;-5.4158;
1212.9000;0.6178;-5.4158;
1213.2000;0.6235;-5.4026;
1213.5000;0.6203;-5.4211;
1213.8000;0.6219;-5.4132;
1214.1000;0.6211;-5.4132;
1214.4000;0.6203;-5.4185;
1214.7000;0.6211;-5.4106;
1215.0000;0.6203;-5.4106;
1215.3000;0.6203;-5.4106;
1215.6000;0.6170;-5.4238;
1215.9000;0.6211;-5.4185;
1216.2000;0.6178;-5.4238;
1216.5000;0.6211;-5.4132;
1216.8000;0.6195;-5.4238;
1217.1000;0.6203;-5.4158;
1217.4000;0.6195;-5.4211;
1217.7000;0.6203;-5.4132;
1218.0000;0.6211;-5.4106;
1218.3000;0.6203;-5.4158;
1218.6000;0.6195;-5.4211;
1218.9000;0.6195;-5.4238;
1219.2000;0.6203;-5.4317;
1219.5000;0.6211;-5.4264;
1219.8000;0.6211;-5.4211;
1220.1000;0.6211;-5.4238;
1220.4000;0.6211;-5.4158;
1220.7000;0.6203;-5.4158;
1221.0000;0.6203;-5.4158;
1221.3000;0.6211;-5.4185;
1221.6000;0.6235;-5.4158;
1221.9000;0.6195;-5.4211;
1222.2000;0.6211;-5.4185;
1222.5000;0.6186;-5.4211;
1222.8000;0.6211;-5.4185;
1223.1000;0.6203;-5.4264;
1223.4000;0.6195;-5.4290;
1223.7000;0.6203;-5.4317;
1224.0000;0.6195;-5.4290;
1224.3000;0.6195;-5.4343;
1224.6000;0.6203;-5.4238;
1224.9000;0.6195;-5.4238;
1225.2000;0.6203;-5.4211;
1225.5000;0.6162;-5.4264;
1225.8000;0.6211;-5.4185;
1226.1000;0.6211;-5.4317;
1226.4000;0.6195;-5.4343;
1226.7000;0.6211;-5.4290;
1227.0000;0.6186;-5.4396;
1227.3000;0.6203;-5.4396;
1227.6000;0.6211;-5.4370;
1227.9000;0.6227;-5.4317;
1228.2000;0.6203;-5.4317;
1228.5000;0.6211;-5.4264;
1228.8000;0.6186;-5.4370;
1229.1000;0.6211;-5.4370;
1229.4000;0.6203;-5.4370;
1229.7000;0.6227;-5.4370;
1230.0000;0.6235;-5.4396;
1230.3000;0.6227;-5.4317;
1230.6000;0.6211;-5.4343;
1230.9000;0.6227;-5.4264;
1231.2000;0.6203;-5.4264;
1231.5000;0.6203;-5.4238;
1231.8000;0.6195;-5.4396;
1232.1000;0.6203;-5.4422;
1232.4000;0.6195;-5.4370;
1232.7000;0.6195;-5.4290;
1233.0000;0.6178;-5.4422;
1233.3000;0.6186;-5.4396;
1233.6000;0.6186;-5.4449;
1233.9000;0.6162;-5.4370;
1234.2000;0.6203;-5.4238;
1234.5000;0.6178;-5.4317;
1234.8000;0.6170;-5.4343;
1235.1000;0.6211;-5.4185;
1235.4000;0.6219;-5.4238;
1235.7000;0.6203;-5.4238;
1236.0000;0.6203;-5.4238;
1236.3000;0.6219;-5.4290;
1236.6000;0.6211;-5.4264;
1236.9000;0.6219;-5.4317;
1237.2000;0.6203;-5.4264;
1237.5000;0.6219;-5.4290;
1237.8000;0.6219;-5.4264;
1238.1000;0.6219;-5.4290;
1238.4000;0.6195;-5.4396;
1238.7000;0.6195;-5.4396;
1239.0000;0.6195;-5.4317;
1239.3000;0.6227;-5.4185;
1239.6000;0.6195;-5.4264;
1239.9000;0.6203;-5.4185;
1240.2000;0.6211;-5.4053;
1240.5000;0.6219;-5.4053;
1240.8000;0.6211;-5.4079;
1241.1000;0.6211;-5.4053;
1241.4000;0.6268;-5.3789;
1241.7000;0.6211;-5.3868;
1242.0000;0.6203;-5.3947;
1242.3000;0.6186;-5.4026;
1242.6000;0.6186;-5.3973;
1242.9000;0.6186;-5.4106;
1243.2000;0.6195;-5.4106;
1243.5000;0.6162;-5.4238;
1243.8000;0.6203;-5.4132;
1244.1000;0.6195;-5.4106;
1244.4000;0.6162;-5.4158;
1244.7000;0.6162;-5.4211;
1245.0000;0.6178;-5.4185;
1245.3000;0.6203;-5.4079;
1245.6000;0.6203;-5.4053;
1245.9000;0.6195;-5.4106;
1246.2000;0.6195;-5.4211;
1246.5000;0.6113;-5.4449;
1246.8000;0.6260;-5.4026;
1247.1000;0.6154;-5.4211;
1247.4000;0.6195;-5.4132;
1247.7000;0.6195;-5.4211;
1248.0000;0.6252;-5.4079;
1248.3000;0.6195;-5.4185;
1248.6000;0.6195;-5.4238;
1248.9000;0.6211;-5.4132;
1249.2000;0.6178;-5.4185;
1249.5000;0.6146;-5.4238;
1249.8000;0.6162;-5.4238;
1250.1000;0.6203;-5.4211;
1250.4000;0.6203;-5.4158;
1250.7000;0.6195;-5.4185;
1251.0000;0.6195;-5.4158;
1251.3000;0.6211;-5.4211;
1251.6000;0.6178;-5.4317;
1251.9000;0.6211;-5.4317;
1252.2000;0.6203;-5.4370;
1252.5000;0.6186;-5.4343;
1252.8000;0.6203;-5.4238;
1253.1000;0.6186;-5.4264;
1253.4000;0.6203;-5.4264;
1253.7000;0.6178;-5.4343;
1254.0000;0.6170;-5.4264;
1254.3000;0.6178;-5.4185;
1254.6000;0.6195;-5.4185;
1254.9000;0.6178;-5.4158;
1255.2000;0.6195;-5.4106;
1255.5000;0.6186;-5.4211;
1255.8000;0.6243;-5.4132;
1256.1000;0.6178;-5.4264;
1256.4000;0.6186;-5.4238;
1256.7000;0.6195;-5.4211;
1257.0000;0.6203;-5.4158;
1257.3000;0.6178;-5.4106;
1257.6000;0.6186;-5.4079;
1257.9000;0.6186;-5.4158;
1258.2000;0.6203;-5.4158;
1258.5000;0.6203;-5.4132;
1258.8000;0.6203;-5.4211;
1259.1000;0.6203;-5.4185;
1259.4000;0.6195;-5.4211;
1259.7000;0.6211;-5.4264;
1260.0000;0.6178;-5.4343;
1260.3000;0.6203;-5.4264;
1260.6000;0.6203;-5.4158;
1260.9000;0.6195;-5.4211;
1261.2000;0.6203;-5.4211;
1261.5000;0.6186;-5.4158;
1261.8000;0.6211;-5.4132;
1262.1000;0.6203;-5.4158;
1262.4000;0.6186;-5.4343;
1262.7000;0.6195;-5.4396;
1263.0000;0.6195;-5.4370;
1263.3000;0.6178;-5.4475;
1263.6000;0.6203;-5.4317;
1263.9000;0.6203;-5.4422;
1264.2000;0.6203;-5.4422;
1264.5000;0.6211;-5.4502;
1264.8000;0.6195;-5.4607;
1265.1000;0.6195;-5.4686;
1265.4000;0.6211;-5.4607;
1265.7000;0.6154;-5.4660;
1266.0000;0.6178;-5.4502;
1266.3000;0.6203;-5.4396;
1266.6000;0.6178;-5.4396;
1266.9000;0.6178;-5.4396;
1267.2000;0.6227;-5.4264;
1267.5000;0.6170;-5.4370;
1267.8000;0.6186;-5.4290;
1268.1000;0.6154;-5.4475;
1268.4000;0.6203;-5.4449;
1268.7000;0.6178;-5.4475;
1269.0000;0.6211;-5.4422;
1269.3000;0.6186;-5.4396;
1269.6000;0.6195;-5.4370;
1269.9000;0.6154;-5.4475;
1270.2000;0.6178;-5.4290;
1270.5000;0.6178;-5.4264;
1270.8000;0.6146;-5.4317;
1271.1000;0.6195;-5.4238;
1271.4000;0.6195;-5.4264;
1271.7000;0.6178;-5.4396;
1272.0000;0.6219;-5.4290;
1272.3000;0.6203;-5.4343;
1272.6000;0.6219;-5.4343;
1272.9000;0.6154;-5.4554;
1273.2000;0.6243;-5.4343;
1273.5000;0.6195;-5.4449;
1273.8000;0.6154;-5.4607;
1274.1000;0.6178;-5.4528;
1274.4000;0.6186;-5.4475;
1274.7000;0.6186;-5.4475;
1275.0000;0.6195;-5.4422;
1275.3000;0.6195;-5.4528;
1275.6000;0.6203;-5.4502;
1275.9000;0.6195;-5.4554;
1276.2000;0.6203;-5.4475;
1276.5000;0.6211;-5.4422;
1276.8000;0.6203;-5.4475;
1277.1000;0.6186;-5.4449;
1277.4000;0.6195;-5.4449;
1277.7000;0.6203;-5.4422;
1278.0000;0.6211;-5.4370;
1278.3000;0.6186;-5.4343;
1278.6000;0.6195;-5.4290;
1278.9000;0.6195;-5.4264;
1279.2000;0.6186;-5.4317;
1279.5000;0.6203;-5.4370;
1279.8000;0.6178;-5.4422;
1280.1000;0.6203;-5.4343;
1280.4000;0.6178;-5.4396;
1280.7000;0.6195;-5.4317;
1281.0000;0.6186;-5.4238;
1281.3000;0.6186;-5.4211;
1281.6000;0.6178;-5.4264;
1281.9000;0.6170;-5.4211;
1282.2000;0.6170;-5.4158;
1282.5000;0.6195;-5.4158;
1282.8000;0.6195;-5.4211;
1283.1000;0.6219;-5.4317;
1283.4000;0.6195;-5.4449;
1283.7000;0.6195;-5.4370;
1284.0000;0.6195;-5.4396;
1284.3000;0.6162;-5.4502;
1284.6000;0.6195;-5.4396;
1284.9000;0.6243;-5.4317;
1285.2000;0.6227;-5.4290;
1285.5000;0.6203;-5.4290;
1285.8000;0.6186;-5.4370;
1286.1000;0.6129;-5.4713;
1286.4000;0.6219;-5.4475;
1286.7000;0.6203;-5.4528;
1287.0000;0.6186;-5.4660;
1287.3000;0.6195;-5.4581;
1287.6000;0.6203;-5.4554;
1287.9000;0.6195;-5.4581;
1288.2000;0.6211;-5.4528;
1288.5000;0.6227;-5.4502;
1288.8000;0.6195;-5.4502;
1289.1000;0.6203;-5.4475;
1289.4000;0.6219;-5.4449;
1289.7000;0.6219;-5.4396;
1290.0000;0.6162;-5.4475;
1290.3000;0.6195;-5.4290;
1290.6000;0.6203;-5.4264;
1290.9000;0.6195;-5.4317;
1291.2000;0.6113;-5.4528;
1291.5000;0.6203;-5.4211;
1291.8000;0.6203;-5.4185;
1292.1000;0.6203;-5.4264;
1292.4000;0.6186;-5.4317;
1292.7000;0.6178;-5.4422;
1293.0000;0.6203;-5.4317;
1293.3000;0.6186;-5.4370;
1293.6000;0.6195;-5.4422;
1293.9000;0.6195;-5.4370;
1294.2000;0.6178;-5.4396;
1294.5000;0.6154;-5.4422;
1294.8000;0.6219;-5.4211;
1295.1000;0.6170;-5.4264;
1295.4000;0.6195;-5.4264;
1295.7000;0.6195;-5.4264;
1296.0000;0.6178;-5.4238;
1296.3000;0.6186;-5.4211;
1296.6000;0.6195;-5.4185;
1296.9000;0.6195;-5.4264;
1297.2000;0.6186;-5.4264;
1297.5000;0.6186;-5.4211;
1297.8000;0.6186;-5.4185;
1298.1000;0.6203;-5.4185;
1298.4000;0.6195;-5.4185;
1298.7000;0.6186;-5.4132;
1299.0000;0.6203;-5.4106;
1299.3000;0.6195;-5.4211;
1299.6000;0.6203;-5.4185;
1299.9000;0.6195;-5.4132;
1300.2000;0.6203;-5.4211;
1300.5000;0.6195;-5.4211;
1300.8000;0.6203;-5.4185;
1301.1000;0.6195;-5.4211;
1301.4000;0.6203;-5.4238;
1301.7000;0.6203;-5.4211;
1302.0000;0.6203;-5.4264;
1302.3000;0.6195;-5.4343;
1302.6000;0.6203;-5.4370;
1302.9000;0.6211;-5.4422;
1303.2000;0.6203;-5.4449;
1303.5000;0.6243;-5.4290;
1303.8000;0.6170;-5.4396;
1304.1000;0.6195;-5.4211;
1304.4000;0.6252;-5.4053;
1304.7000;0.6195;-5.4211;
1305.0000;0.6186;-5.4290;
1305.3000;0.6170;-5.4396;
1305.6000;0.6186;-5.4396;
1305.9000;0.6178;-5.4422;
1306.2000;0.6178;-5.4422;
1306.5000;0.6203;-5.4449;
1306.8000;0.6186;-5.4502;
1307.1000;0.6195;-5.4475;
1307.4000;0.6186;-5.4396;
1307.7000;0.6203;-5.4475;
1308.0000;0.6195;-5.4422;
1308.3000;0.6195;-5.4396;
1308.6000;0.6186;-5.4317;
1308.9000;0.6195;-5.4343;
1309.2000;0.6186;-5.4396;
1309.5000;0.6195;-5.4370;
1309.8000;0.6186;-5.4449;
1310.1000;0.6146;-5.4581;
1310.4000;0.6178;-5.4554;
1310.7000;0.6186;-5.4581;
1311.0000;0.6203;-5.4581;
1311.3000;0.6178;-5.4528;
1311.6000;0.6178;-5.4502;
1311.9000;0.6178;-5.4449;
1312.2000;0.6195;-5.4370;
1312.5000;0.6195;-5.4290;
1312.8000;0.6121;-5.4528;
1313.1000;0.6203;-5.4370;
1313.4000;0.6203;-5.4396;
1313.7000;0.6170;-5.4449;
1314.0000;0.6195;-5.4422;
1314.3000;0.6186;-5.4422;
1314.6000;0.6195;-5.4317;
1314.9000;0.6162;-5.4396;
1315.2000;0.6186;-5.4449;
1315.5000;0.6195;-5.4449;
1315.8000;0.6195;-5.4370;
1316.1000;0.6195;-5.4396;
1316.4000;0.6186;-5.4422;
1316.7000;0.6186;-5.4396;
1317.0000;0.6203;-5.4317;
1317.3000;0.6186;-5.4317;
1317.6000;0.6162;-5.4290;
1317.9000;0.6178;-5.4211;
1318.2000;0.6178;-5.4158;
1318.5000;0.6186;-5.4158;
1318.8000;0.6195;-5.4106;
1319.1000;0.6186;-5.4238;
1319.4000;0.6170;-5.4211;
1319.7000;0.6186;-5.4238;
1320.0000;0.6186;-5.4317;
1320.3000;0.6195;-5.4238;
1320.6000;0.6195;-5.4158;
1320.9000;0.6178;-5.4211;
1321.2000;0.6186;-5.4211;
1321.5000;0.6178;-5.4238;
1321.8000;0.6203;-5.4238;
1322.1000;0.6195;-5.4264;
1322.4000;0.6195;-5.4343;
1322.7000;0.6170;-5.4396;
1323.0000;0.6186;-5.4370;
1323.3000;0.6186;-5.4422;
1323.6000;0.6203;-5.4422;
1323.9000;0.6178;-5.4581;
1324.2000;0.6195;-5.4554;
1324.5000;0.6195;-5.4422;
1324.8000;0.6178;-5.4449;
1325.1000;0.6186;-5.4317;
1325.4000;0.6178;-5.4290;
1325.7000;0.6178;-5.4264;
1326.0000;0.6178;-5.4158;
1326.3000;0.6162;-5.4185;
1326.6000;0.6178;-5.4132;
1326.9000;0.6170;-5.4185;
1327.2000;0.6178;-5.4211;
1327.5000;0.6178;-5.4158;
1327.8000;0.6178;-5.4158;
1328.1000;0.6178;-5.4238;
1328.4000;0.6178;-5.4158;
1328.7000;0.6186;-5.4290;
1329.0000;0.6186;-5.4422;
1329.3000;0.6186;-5.4449;
1329.6000;0.6211;-5.4370;
1329.9000;0.6203;-5.4422;
1330.2000;0.6219;-5.4370;
1330.5000;0.6195;-5.4449;
1330.8000;0.6211;-5.4475;
1331.1000;0.6219;-5.4422;
1331.4000;0.6219;-5.4396;
1331.7000;0.6227;-5.4343;
1332.0000;0.6170;-5.4449;
1332.3000;0.6178;-5.4422;
1332.6000;0.6195;-5.4343;
1332.9000;0.6186;-5.4396;
1333.2000;0.6195;-5.4370;
1333.5000;0.6138;-5.4422;
1333.8000;0.6186;-5.4317;
1334.1000;0.6195;-5.4264;
1334.4000;0.6211;-5.4185;
1334.7000;0.6178;-5.4290;
1335.0000;0.6195;-5.4238;
1335.3000;0.6178;-5.4370;
1335.6000;0.6178;-5.4343;
1335.9000;0.6113;-5.4502;
1336.2000;0.6186;-5.4396;
1336.5000;0.6186;-5.4343;
1336.8000;0.6178;-5.4396;
1337.1000;0.6178;-5.4422;
1337.4000;0.6186;-5.4264;
1337.7000;0.6178;-5.4290;
1338.0000;0.6186;-5.4343;
1338.3000;0.6195;-5.4370;
1338.6000;0.6178;-5.4422;
1338.9000;0.6178;-5.4370;
1339.2000;0.6186;-5.4370;
1339.5000;0.6162;-5.4370;
1339.8000;0.6178;-5.4290;
1340.1000;0.6178;-5.4370;
1340.4000;0.6186;-5.4396;
1340.7000;0.6195;-5.4370;
1341.0000;0.6186;-5.4475;
1341.3000;0.6186;-5.4422;
1341.6000;0.6186;-5.4422;
1341.9000;0.6154;-5.4475;
1342.2000;0.6178;-5.4475;
1342.5000;0.6195;-5.4475;
1342.8000;0.6170;-5.4422;
1343.1000;0.6178;-5.4422;
1343.4000;0.6178;-5.4370;
1343.7000;0.6195;-5.4422;
1344.0000;0.6211;-5.4396;
1344.3000;0.6195;-5.4449;
1344.6000;0.6178;-5.4502;
1344.9000;0.6186;-5.4422;
1345.2000;0.6219;-5.4370;
1345.5000;0.6203;-5.4396;
1345.8000;0.6178;-5.4422;
1346.1000;0.6195;-5.4422;
1346.4000;0.6186;-5.4343;
1346.7000;0.6195;-5.4422;
1347.0000;0.6113;-5.4581;
1347.3000;0.6170;-5.4396;
1347.6000;0.6186;-5.4343;
1347.9000;0.6170;-5.4370;
1348.2000;0.6162;-5.4422;
1348.5000;0.6178;-5.4449;
1348.8000;0.6154;-5.4581;
1349.1000;0.6252;-5.4317;
1349.4000;0.6178;-5.4422;
1349.7000;0.6170;-5.4449;
1350.0000;0.6178;-5.4370;
1350.3000;0.6138;-5.4422;
1350.6000;0.6203;-5.4290;
1350.9000;0.6186;-5.4370;
1351.2000;0.6170;-5.4422;
1351.5000;0.6178;-5.4396;
1351.8000;0.6178;-5.4422;
1352.1000;0.6178;-5.4422;
1352.4000;0.6178;-5.4343;
1352.7000;0.6178;-5.4422;
1353.0000;0.6178;-5.4370;
1353.3000;0.6227;-5.4290;
1353.6000;0.6186;-5.4370;
1353.9000;0.6186;-5.4290;
1354.2000;0.6178;-5.4317;
1354.5000;0.6162;-5.4370;
1354.8000;0.6211;-5.4238;
1355.1000;0.6162;-5.4290;
1355.4000;0.6178;-5.4290;
1355.7000;0.6195;-5.4264;
1356.0000;0.6195;-5.4317;
1356.3000;0.6178;-5.4370;
1356.6000;0.6178;-5.4396;
1356.9000;0.6203;-5.4317;
1357.2000;0.6195;-5.4290;
1357.5000;0.6243;-5.4185;
1357.8000;0.6186;-5.4290;
1358.1000;0.6170;-5.4343;
1358.4000;0.6195;-5.4264;
1358.7000;0.6195;-5.4290;
1359.0000;0.6178;-5.4317;
1359.3000;0.6195;-5.4422;
1359.6000;0.6227;-5.4396;
1359.9000;0.6178;-5.4475;
1360.2000;0.6186;-5.4528;
1360.5000;0.6227;-5.4290;
1360.8000;0.6178;-5.4396;
1361.1000;0.6121;-5.4581;
1361.4000;0.6186;-5.4317;
1361.7000;0.6186;-5.4264;
1362.0000;0.6195;-5.4132;
1362.3000;0.6195;-5.4132;
1362.6000;0.6186;-5.4185;
1362.9000;0.6170;-5.4211;
1363.2000;0.6186;-5.4158;
1363.5000;0.6178;-5.4211;
1363.8000;0.6178;-5.4238;
1364.1000;0.6186;-5.4185;
1364.4000;0.6170;-5.4185;
1364.7000;0.6170;-5.4106;
1365.0000;0.6154;-5.4132;
1365.3000;0.6170;-5.4053;
1365.6000;0.6186;-5.4185;
1365.9000;0.6186;-5.4238;
1366.2000;0.6186;-5.4264;
1366.5000;0.6178;-5.4370;
1366.8000;0.6178;-5.4317;
1367.1000;0.6162;-5.4264;
1367.4000;0.6195;-5.4211;
1367.7000;0.6170;-5.4264;
1368.0000;0.6186;-5.4317;
1368.3000;0.6186;-5.4370;
1368.6000;0.6178;-5.4396;
1368.9000;0.6162;-5.4475;
1369.2000;0.6162;-5.4449;
1369.5000;0.6170;-5.4396;
1369.8000;0.6178;-5.4475;
1370.1000;0.6186;-5.4396;
1370.4000;0.6178;-5.4422;
1370.7000;0.6162;-5.4396;
1371.0000;0.6170;-5.4290;
1371.3000;0.6170;-5.4317;
1371.6000;0.6178;-5.4264;
1371.9000;0.6170;-5.4290;
1372.2000;0.6186;-5.4211;
1372.5000;0.6203;-5.4185;
1372.8000;0.6170;-5.4211;
1373.1000;0.6162;-5.4211;
1373.4000;0.6178;-5.4132;
1373.7000;0.6178;-5.4132;
1374.0000;0.6186;-5.4211;
1374.3000;0.6162;-5.4185;
1374.6000;0.6146;-5.4106;
1374.9000;0.6154;-5.4053;
1375.2000;0.6178;-5.4026;
1375.5000;0.6170;-5.4053;
1375.8000;0.6162;-5.4158;
1376.1000;0.6203;-5.4026;
1376.4000;0.6162;-5.4158;
1376.7000;0.6186;-5.4238;
1377.0000;0.6195;-5.4158;
1377.3000;0.6195;-5.4211;
1377.6000;0.6186;-5.4211;
1377.9000;0.6170;-5.4158;
1378.2000;0.6170;-5.4317;
1378.5000;0.6203;-5.4238;
1378.8000;0.6195;-5.4158;
1379.1000;0.6178;-5.4158;
1379.4000;0.6186;-5.4132;
1379.7000;0.6178;-5.4158;
1380.0000;0.6138;-5.4290;
1380.3000;0.6243;-5.4053;
1380.6000;0.6178;-5.4264;
1380.9000;0.6178;-5.4290;
1381.2000;0.6195;-5.4132;
1381.5000;0.6186;-5.4211;
1381.8000;0.6195;-5.4158;
1382.1000;0.6178;-5.4132;
1382.4000;0.6195;-5.4132;
1382.7000;0.6170;-5.4264;
1383.0000;0.6178;-5.4264;
1383.3000;0.6162;-5.4290;
1383.6000;0.6235;-5.4106;
1383.9000;0.6186;-5.4211;
1384.2000;0.6170;-5.4290;
1384.5000;0.6186;-5.4264;
1384.8000;0.6235;-5.4079;
1385.1000;0.6178;-5.4211;
1385.4000;0.6178;-5.4211;
1385.7000;0.6162;-5.4343;
1386.0000;0.6178;-5.4422;
1386.3000;0.6186;-5.4396;
1386.6000;0.6203;-5.4317;
1386.9000;0.6203;-5.4290;
1387.2000;0.6186;-5.4264;
1387.5000;0.6203;-5.4238;
1387.8000;0.6146;-5.4317;
1388.1000;0.6195;-5.4158;
1388.4000;0.6186;-5.4211;
1388.7000;0.6162;-5.4264;
1389.0000;0.6178;-5.4211;
1389.3000;0.6170;-5.4264;
1389.6000;0.6170;-5.4185;
1389.9000;0.6178;-5.4132;
1390.2000;0.6186;-5.4053;
1390.5000;0.6186;-5.4053;
1390.8000;0.6170;-5.4000;
1391.1000;0.6186;-5.3947;
1391.4000;0.6178;-5.3947;
1391.7000;0.6146;-5.4026;
1392.0000;0.6178;-5.4000;
1392.3000;0.6219;-5.4000;
1392.6000;0.6186;-5.4079;
1392.9000;0.6178;-5.4026;
1393.2000;0.6170;-5.4053;
1393.5000;0.6162;-5.4132;
1393.8000;0.6203;-5.4079;
1394.1000;0.6186;-5.4158;
1394.4000;0.6170;-5.4185;
1394.7000;0.6162;-5.4238;
1395.0000;0.6178;-5.4158;
1395.3000;0.6178;-5.4211;
1395.6000;0.6195;-5.4238;
1395.9000;0.6178;-5.4264;
1396.2000;0.6186;-5.4211;
1396.5000;0.6178;-5.4185;
1396.8000;0.6195;-5.4158;
1397.1000;0.6195;-5.4106;
1397.4000;0.6186;-5.4158;
1397.7000;0.6195;-5.4106;
1398.0000;0.6170;-5.4238;
1398.3000;0.6195;-5.4132;
1398.6000;0.6186;-5.4211;
1398.9000;0.6170;-5.4211;
1399.2000;0.6178;-5.4185;
1399.5000;0.6186;-5.4132;
1399.8000;0.6186;-5.4079;
