time/ms;Fluo/V;P700 deltaI/I x10³;
-199.8000;0.5576;-5.5796;
-199.5000;0.5592;-5.5796;
-199.2000;0.5576;-5.5796;
-198.9000;0.5592;-5.5822;
-198.6000;0.5576;-5.5954;
-198.3000;0.5584;-5.6007;
-198.0000;0.5592;-5.5954;
-197.7000;0.5568;-5.6033;
-197.4000;0.5576;-5.5901;
-197.1000;0.5617;-5.5822;
-196.8000;0.5592;-5.5954;
-196.5000;0.5568;-5.5980;
-196.2000;0.5641;-5.5822;
-195.9000;0.5600;-5.5875;
-195.6000;0.5608;-5.5875;
-195.3000;0.5584;-5.5848;
-195.0000;0.5608;-5.5690;
-194.7000;0.5608;-5.5637;
-194.4000;0.5600;-5.5663;
-194.1000;0.5592;-5.5743;
-193.8000;0.5608;-5.5769;
-193.5000;0.5592;-5.5875;
-193.2000;0.5600;-5.5875;
-192.9000;0.5600;-5.5796;
-192.6000;0.5617;-5.5796;
-192.3000;0.5600;-5.5848;
-192.0000;0.5560;-5.5954;
-191.7000;0.5600;-5.5954;
-191.4000;0.5641;-5.5875;
-191.1000;0.5608;-5.5875;
-190.8000;0.5633;-5.5822;
-190.5000;0.5625;-5.5848;
-190.2000;0.5617;-5.5954;
-189.9000;0.5608;-5.5980;
-189.6000;0.5682;-5.5769;
-189.3000;0.5625;-5.5954;
-189.0000;0.5617;-5.6007;
-188.7000;0.5608;-5.5954;
-188.4000;0.5617;-5.5928;
-188.1000;0.5608;-5.5980;
-187.8000;0.5633;-5.5901;
-187.5000;0.5617;-5.5928;
-187.2000;0.5608;-5.5980;
-186.9000;0.5625;-5.6007;
-186.6000;0.5657;-5.5901;
-186.3000;0.5625;-5.5875;
-186.0000;0.5600;-5.5796;
-185.7000;0.5633;-5.5769;
-185.4000;0.5641;-5.5796;
-185.1000;0.5617;-5.5928;
-184.8000;0.5625;-5.5954;
-184.5000;0.5625;-5.5928;
-184.2000;0.5633;-5.5928;
-183.9000;0.5608;-5.5980;
-183.6000;0.5625;-5.6060;
-183.3000;0.5625;-5.5954;
-183.0000;0.5633;-5.5954;
-182.7000;0.5625;-5.5980;
-182.4000;0.5625;-5.6033;
-182.1000;0.5698;-5.5796;
-181.8000;0.5641;-5.5954;
-181.5000;0.5633;-5.5901;
-181.2000;0.5641;-5.5796;
-180.9000;0.5641;-5.5796;
-180.6000;0.5690;-5.5769;
-180.3000;0.5665;-5.5848;
-180.0000;0.5641;-5.5901;
-179.7000;0.5657;-5.5928;
-179.4000;0.5641;-5.6033;
-179.1000;0.5649;-5.5980;
-178.8000;0.5657;-5.5928;
-178.5000;0.5641;-5.6060;
-178.2000;0.5641;-5.6086;
-177.9000;0.5657;-5.6033;
-177.6000;0.5649;-5.6086;
-177.3000;0.5649;-5.6060;
-177.0000;0.5641;-5.5980;
-176.7000;0.5665;-5.5980;
-176.4000;0.5682;-5.5928;
-176.1000;0.5657;-5.5980;
-175.8000;0.5665;-5.6007;
-175.5000;0.5682;-5.5980;
-175.2000;0.5657;-5.6060;
-174.9000;0.5674;-5.6060;
-174.6000;0.5674;-5.6033;
-174.3000;0.5657;-5.5980;
-174.0000;0.5665;-5.5980;
-173.7000;0.5641;-5.6033;
-173.4000;0.5665;-5.6007;
-173.1000;0.5674;-5.6086;
-172.8000;0.5682;-5.5980;
-172.5000;0.5674;-5.6033;
-172.2000;0.5674;-5.6060;
-171.9000;0.5682;-5.6007;
-171.6000;0.5682;-5.5980;
-171.3000;0.5682;-5.5928;
-171.0000;0.5649;-5.5954;
-170.7000;0.5706;-5.5901;
-170.4000;0.5690;-5.5980;
-170.1000;0.5674;-5.6033;
-169.8000;0.5698;-5.5980;
-169.5000;0.5682;-5.6060;
-169.2000;0.5674;-5.6033;
-168.9000;0.5690;-5.6060;
-168.6000;0.5739;-5.5928;
-168.3000;0.5722;-5.5954;
-168.0000;0.5690;-5.5980;
-167.7000;0.5722;-5.5954;
-167.4000;0.5698;-5.5928;
-167.1000;0.5698;-5.5928;
-166.8000;0.5690;-5.5954;
-166.5000;0.5690;-5.5980;
-166.2000;0.5698;-5.6033;
-165.9000;0.5690;-5.6060;
-165.6000;0.5641;-5.6297;
-165.3000;0.5633;-5.6271;
-165.0000;0.5731;-5.6060;
-164.7000;0.5714;-5.6165;
-164.4000;0.5763;-5.5980;
-164.1000;0.5714;-5.6060;
-163.8000;0.5731;-5.5980;
-163.5000;0.5731;-5.5954;
-163.2000;0.5714;-5.5980;
-162.9000;0.5706;-5.6007;
-162.6000;0.5706;-5.5980;
-162.3000;0.5731;-5.5980;
-162.0000;0.5747;-5.6060;
-161.7000;0.5731;-5.6086;
-161.4000;0.5706;-5.6112;
-161.1000;0.5714;-5.6218;
-160.8000;0.5722;-5.6112;
-160.5000;0.5706;-5.6139;
-160.2000;0.5722;-5.6033;
-159.9000;0.5739;-5.5980;
-159.6000;0.5731;-5.5954;
-159.3000;0.5739;-5.5980;
-159.0000;0.5722;-5.6007;
-158.7000;0.5739;-5.5901;
-158.4000;0.5731;-5.5980;
-158.1000;0.5739;-5.5980;
-157.8000;0.5706;-5.6007;
-157.5000;0.5747;-5.5980;
-157.2000;0.5739;-5.5980;
-156.9000;0.5665;-5.6139;
-156.6000;0.5788;-5.5769;
-156.3000;0.5731;-5.6033;
-156.0000;0.5739;-5.6033;
-155.7000;0.5747;-5.6060;
-155.4000;0.5739;-5.6112;
-155.1000;0.5755;-5.6139;
-154.8000;0.5747;-5.6086;
-154.5000;0.5755;-5.6060;
-154.2000;0.5755;-5.6007;
-153.9000;0.5755;-5.6007;
-153.6000;0.5788;-5.5928;
-153.3000;0.5763;-5.6007;
-153.0000;0.5747;-5.6060;
-152.7000;0.5788;-5.5980;
-152.4000;0.5763;-5.6033;
-152.1000;0.5763;-5.6033;
-151.8000;0.5747;-5.6086;
-151.5000;0.5755;-5.6033;
-151.2000;0.5763;-5.6033;
-150.9000;0.5771;-5.6033;
-150.6000;0.5771;-5.6033;
-150.3000;0.5755;-5.5980;
-150.0000;0.5739;-5.6033;
-149.7000;0.5796;-5.5954;
-149.4000;0.5771;-5.5980;
-149.1000;0.5804;-5.5954;
-148.8000;0.5755;-5.6007;
-148.5000;0.5771;-5.6033;
-148.2000;0.5796;-5.6033;
-147.9000;0.5779;-5.6060;
-147.6000;0.5796;-5.6060;
-147.3000;0.5796;-5.6165;
-147.0000;0.5788;-5.6139;
-146.7000;0.5804;-5.6086;
-146.4000;0.5804;-5.6165;
-146.1000;0.5779;-5.6165;
-145.8000;0.5796;-5.6086;
-145.5000;0.5812;-5.6060;
-145.2000;0.5804;-5.6165;
-144.9000;0.5812;-5.6086;
-144.6000;0.5820;-5.6033;
-144.3000;0.5812;-5.6139;
-144.0000;0.5804;-5.6086;
-143.7000;0.5820;-5.6033;
-143.4000;0.5812;-5.5980;
-143.1000;0.5812;-5.5954;
-142.8000;0.5796;-5.6033;
-142.5000;0.5828;-5.6007;
-142.2000;0.5828;-5.6033;
-141.9000;0.5836;-5.6112;
-141.6000;0.5828;-5.6139;
-141.3000;0.5828;-5.6244;
-141.0000;0.5836;-5.6139;
-140.7000;0.5836;-5.6165;
-140.4000;0.5796;-5.6218;
-140.1000;0.5828;-5.6165;
-139.8000;0.5820;-5.6192;
-139.5000;0.5893;-5.6007;
-139.2000;0.5828;-5.6086;
-138.9000;0.5836;-5.6060;
-138.6000;0.5828;-5.6139;
-138.3000;0.5869;-5.6165;
-138.0000;0.5877;-5.6086;
-137.7000;0.5861;-5.6165;
-137.4000;0.5853;-5.6218;
-137.1000;0.5869;-5.6192;
-136.8000;0.5869;-5.6192;
-136.5000;0.5861;-5.6112;
-136.2000;0.5861;-5.6218;
-135.9000;0.5861;-5.6244;
-135.6000;0.5853;-5.6271;
-135.3000;0.5910;-5.6192;
-135.0000;0.5869;-5.6244;
-134.7000;0.5885;-5.6271;
-134.4000;0.5885;-5.6350;
-134.1000;0.5893;-5.6324;
-133.8000;0.5877;-5.6297;
-133.5000;0.5893;-5.6271;
-133.2000;0.5869;-5.6297;
-132.9000;0.5877;-5.6165;
-132.6000;0.5885;-5.6165;
-132.3000;0.5885;-5.6112;
-132.0000;0.5885;-5.6112;
-131.7000;0.5893;-5.6165;
-131.4000;0.5885;-5.6244;
-131.1000;0.5902;-5.6297;
-130.8000;0.5893;-5.6376;
-130.5000;0.5918;-5.6429;
-130.2000;0.5902;-5.6403;
-129.9000;0.5902;-5.6456;
-129.6000;0.5893;-5.6403;
-129.3000;0.5910;-5.6218;
-129.0000;0.5902;-5.6218;
-128.7000;0.5910;-5.6244;
-128.4000;0.5926;-5.6244;
-128.1000;0.5926;-5.6271;
-127.8000;0.5934;-5.6376;
-127.5000;0.5958;-5.6403;
-127.2000;0.5942;-5.6350;
-126.9000;0.5942;-5.6376;
-126.6000;0.5910;-5.6403;
-126.3000;0.5950;-5.6376;
-126.0000;0.6007;-5.6165;
-125.7000;0.5950;-5.6244;
-125.4000;0.5958;-5.6297;
-125.1000;0.5942;-5.6350;
-124.8000;0.5950;-5.6350;
-124.5000;0.5967;-5.6324;
-124.2000;0.6024;-5.6192;
-123.9000;0.5950;-5.6350;
-123.6000;0.5967;-5.6456;
-123.3000;0.5975;-5.6482;
-123.0000;0.5950;-5.6482;
-122.7000;0.5983;-5.6376;
-122.4000;0.5983;-5.6376;
-122.1000;0.5942;-5.6535;
-121.8000;0.6024;-5.6350;
-121.5000;0.5975;-5.6508;
-121.2000;0.5999;-5.6456;
-120.9000;0.5999;-5.6482;
-120.6000;0.5991;-5.6508;
-120.3000;0.5983;-5.6456;
-120.0000;0.6040;-5.6350;
-119.7000;0.5967;-5.6561;
-119.4000;0.5934;-5.6588;
-119.1000;0.5991;-5.6403;
-118.8000;0.6015;-5.6403;
-118.5000;0.5999;-5.6456;
-118.2000;0.5950;-5.6561;
-117.9000;0.6015;-5.6403;
-117.6000;0.6024;-5.6403;
-117.3000;0.6064;-5.6429;
-117.0000;0.6015;-5.6640;
-116.7000;0.6024;-5.6640;
-116.4000;0.6040;-5.6561;
-116.1000;0.6097;-5.6403;
-115.8000;0.6024;-5.6640;
-115.5000;0.6032;-5.6614;
-115.2000;0.6024;-5.6667;
-114.9000;0.5999;-5.6667;
-114.6000;0.6048;-5.6456;
-114.3000;0.6048;-5.6429;
-114.0000;0.5991;-5.6588;
-113.7000;0.6056;-5.6403;
-113.4000;0.6024;-5.6456;
-113.1000;0.6048;-5.6403;
-112.8000;0.6072;-5.6350;
-112.5000;0.6081;-5.6403;
-112.2000;0.6081;-5.6376;
-111.9000;0.6081;-5.6403;
-111.6000;0.6072;-5.6482;
-111.3000;0.6024;-5.6561;
-111.0000;0.6105;-5.6429;
-110.7000;0.6089;-5.6508;
-110.4000;0.6089;-5.6561;
-110.1000;0.6121;-5.6482;
-109.8000;0.6113;-5.6535;
-109.5000;0.6105;-5.6588;
-109.2000;0.6105;-5.6614;
-108.9000;0.6105;-5.6588;
-108.6000;0.6105;-5.6535;
-108.3000;0.6121;-5.6508;
-108.0000;0.6113;-5.6561;
-107.7000;0.6121;-5.6508;
-107.4000;0.6138;-5.6429;
-107.1000;0.6146;-5.6508;
-106.8000;0.6138;-5.6508;
-106.5000;0.6138;-5.6614;
-106.2000;0.6146;-5.6640;
-105.9000;0.6146;-5.6588;
-105.6000;0.6138;-5.6667;
-105.3000;0.6146;-5.6640;
-105.0000;0.6162;-5.6561;
-104.7000;0.6162;-5.6561;
-104.4000;0.6154;-5.6561;
-104.1000;0.6154;-5.6588;
-103.8000;0.6162;-5.6614;
-103.5000;0.6170;-5.6535;
-103.2000;0.6186;-5.6508;
-102.9000;0.6178;-5.6614;
-102.6000;0.6186;-5.6588;
-102.3000;0.6195;-5.6535;
-102.0000;0.6195;-5.6535;
-101.7000;0.6195;-5.6561;
-101.4000;0.6211;-5.6508;
-101.1000;0.6211;-5.6456;
-100.8000;0.6203;-5.6403;
-100.5000;0.6203;-5.6403;
-100.2000;0.6219;-5.6482;
-99.9000;0.6203;-5.6508;
-99.6000;0.6235;-5.6508;
-99.3000;0.6227;-5.6640;
-99.0000;0.6211;-5.6588;
-98.7000;0.6227;-5.6482;
-98.4000;0.6235;-5.6482;
-98.1000;0.6235;-5.6588;
-97.8000;0.6227;-5.6640;
-97.5000;0.6260;-5.6614;
-97.2000;0.6252;-5.6561;
-96.9000;0.6276;-5.6561;
-96.6000;0.6276;-5.6614;
-96.3000;0.6260;-5.6693;
-96.0000;0.6252;-5.6720;
-95.7000;0.6276;-5.6640;
-95.4000;0.6243;-5.6746;
-95.1000;0.6276;-5.6588;
-94.8000;0.6284;-5.6535;
-94.5000;0.6317;-5.6482;
-94.2000;0.6276;-5.6535;
-93.9000;0.6276;-5.6535;
-93.6000;0.6292;-5.6614;
-93.3000;0.6300;-5.6508;
-93.0000;0.6317;-5.6456;
-92.7000;0.6268;-5.6614;
-92.4000;0.6325;-5.6429;
-92.1000;0.6341;-5.6403;
-91.8000;0.6325;-5.6508;
-91.5000;0.6349;-5.6482;
-91.2000;0.6357;-5.6456;
-90.9000;0.6349;-5.6482;
-90.6000;0.6414;-5.6403;
-90.3000;0.6357;-5.6588;
-90.0000;0.6357;-5.6614;
-89.7000;0.6284;-5.6746;
-89.4000;0.6406;-5.6429;
-89.1000;0.6382;-5.6376;
-88.8000;0.6365;-5.6376;
-88.5000;0.6374;-5.6482;
-88.2000;0.6374;-5.6482;
-87.9000;0.6382;-5.6482;
-87.6000;0.6382;-5.6535;
-87.3000;0.6398;-5.6508;
-87.0000;0.6406;-5.6561;
-86.7000;0.6390;-5.6614;
-86.4000;0.6390;-5.6535;
-86.1000;0.6398;-5.6588;
-85.8000;0.6406;-5.6561;
-85.5000;0.6431;-5.6535;
-85.2000;0.6431;-5.6482;
-84.9000;0.6414;-5.6588;
-84.6000;0.6414;-5.6588;
-84.3000;0.6431;-5.6588;
-84.0000;0.6439;-5.6667;
-83.7000;0.6431;-5.6720;
-83.4000;0.6431;-5.6746;
-83.1000;0.6439;-5.6693;
-82.8000;0.6439;-5.6720;
-82.5000;0.6455;-5.6693;
-82.2000;0.6463;-5.6640;
-81.9000;0.6447;-5.6693;
-81.6000;0.6447;-5.6693;
-81.3000;0.6471;-5.6561;
-81.0000;0.6431;-5.6667;
-80.7000;0.6463;-5.6588;
-80.4000;0.6496;-5.6456;
-80.1000;0.6471;-5.6376;
-79.8000;0.6496;-5.6429;
-79.5000;0.6504;-5.6561;
-79.2000;0.6520;-5.6482;
-78.9000;0.6512;-5.6588;
-78.6000;0.6528;-5.6561;
-78.3000;0.6520;-5.6588;
-78.0000;0.6520;-5.6561;
-77.7000;0.6520;-5.6535;
-77.4000;0.6536;-5.6508;
-77.1000;0.6561;-5.6508;
-76.8000;0.6536;-5.6588;
-76.5000;0.6553;-5.6588;
-76.2000;0.6561;-5.6588;
-75.9000;0.6569;-5.6535;
-75.6000;0.6569;-5.6508;
-75.3000;0.6561;-5.6482;
-75.0000;0.6585;-5.6456;
-74.7000;0.6585;-5.6561;
-74.4000;0.6569;-5.6561;
-74.1000;0.6585;-5.6535;
-73.8000;0.6569;-5.6588;
-73.5000;0.6626;-5.6403;
-73.2000;0.6602;-5.6429;
-72.9000;0.6610;-5.6456;
-72.6000;0.6618;-5.6456;
-72.3000;0.6585;-5.6588;
-72.0000;0.6626;-5.6456;
-71.7000;0.6626;-5.6535;
-71.4000;0.6634;-5.6535;
-71.1000;0.6650;-5.6640;
-70.8000;0.6650;-5.6667;
-70.5000;0.6642;-5.6667;
-70.2000;0.6659;-5.6640;
-69.9000;0.6659;-5.6614;
-69.6000;0.6667;-5.6482;
-69.3000;0.6659;-5.6456;
-69.0000;0.6650;-5.6508;
-68.7000;0.6675;-5.6456;
-68.4000;0.6691;-5.6456;
-68.1000;0.6691;-5.6508;
-67.8000;0.6691;-5.6588;
-67.5000;0.6716;-5.6561;
-67.2000;0.6691;-5.6588;
-66.9000;0.6707;-5.6588;
-66.6000;0.6724;-5.6508;
-66.3000;0.6740;-5.6456;
-66.0000;0.6716;-5.6561;
-65.7000;0.6724;-5.6588;
-65.4000;0.6724;-5.6561;
-65.1000;0.6748;-5.6535;
-64.8000;0.6724;-5.6614;
-64.5000;0.6732;-5.6693;
-64.2000;0.6748;-5.6667;
-63.9000;0.6813;-5.6456;
-63.6000;0.6764;-5.6640;
-63.3000;0.6748;-5.6667;
-63.0000;0.6772;-5.6667;
-62.7000;0.6772;-5.6667;
-62.4000;0.6764;-5.6667;
-62.1000;0.6764;-5.6693;
-61.8000;0.6772;-5.6667;
-61.5000;0.6805;-5.6693;
-61.2000;0.6813;-5.6720;
-60.9000;0.6829;-5.6746;
-60.6000;0.6813;-5.6799;
-60.3000;0.6813;-5.6720;
-60.0000;0.6821;-5.6693;
-59.7000;0.6862;-5.6667;
-59.4000;0.6846;-5.6746;
-59.1000;0.6821;-5.6799;
-58.8000;0.6862;-5.6799;
-58.5000;0.6821;-5.6852;
-58.2000;0.6838;-5.6799;
-57.9000;0.6829;-5.6931;
-57.6000;0.6838;-5.6878;
-57.3000;0.6878;-5.6799;
-57.0000;0.6862;-5.6825;
-56.7000;0.6878;-5.6746;
-56.4000;0.6886;-5.6773;
-56.1000;0.6895;-5.6773;
-55.8000;0.6829;-5.6931;
-55.5000;0.6886;-5.6720;
-55.2000;0.6846;-5.6852;
-54.9000;0.6903;-5.6720;
-54.6000;0.6911;-5.6746;
-54.3000;0.6903;-5.6746;
-54.0000;0.6992;-5.6508;
-53.7000;0.6919;-5.6720;
-53.4000;0.6927;-5.6614;
-53.1000;0.6935;-5.6667;
-52.8000;0.6919;-5.6667;
-52.5000;0.6927;-5.6693;
-52.2000;0.6943;-5.6640;
-51.9000;0.6984;-5.6588;
-51.6000;0.6911;-5.6746;
-51.3000;0.6992;-5.6667;
-51.0000;0.6968;-5.6773;
-50.7000;0.6984;-5.6773;
-50.4000;0.6984;-5.6852;
-50.1000;0.6992;-5.6878;
-49.8000;0.6992;-5.6825;
-49.5000;0.7025;-5.6773;
-49.2000;0.6984;-5.6825;
-48.9000;0.6992;-5.6825;
-48.6000;0.7009;-5.6746;
-48.3000;0.7017;-5.6693;
-48.0000;0.7017;-5.6640;
-47.7000;0.7049;-5.6693;
-47.4000;0.7025;-5.6746;
-47.1000;0.6976;-5.6931;
-46.8000;0.7041;-5.6773;
-46.5000;0.6992;-5.6905;
-46.2000;0.7049;-5.6773;
-45.9000;0.7049;-5.6746;
-45.6000;0.7066;-5.6667;
-45.3000;0.7066;-5.6667;
-45.0000;0.7033;-5.6773;
-44.7000;0.7090;-5.6614;
-44.4000;0.7098;-5.6693;
-44.1000;0.7098;-5.6640;
-43.8000;0.7106;-5.6614;
-43.5000;0.7131;-5.6508;
-43.2000;0.7114;-5.6614;
-42.9000;0.7123;-5.6693;
-42.6000;0.7114;-5.6693;
-42.3000;0.7098;-5.6667;
-42.0000;0.7163;-5.6535;
-41.7000;0.7139;-5.6640;
-41.4000;0.7188;-5.6561;
-41.1000;0.7139;-5.6720;
-40.8000;0.7155;-5.6693;
-40.5000;0.7147;-5.6773;
-40.2000;0.7155;-5.6720;
-39.9000;0.7155;-5.6720;
-39.6000;0.7171;-5.6667;
-39.3000;0.7171;-5.6588;
-39.0000;0.7179;-5.6588;
-38.7000;0.7196;-5.6561;
-38.4000;0.7188;-5.6588;
-38.1000;0.7212;-5.6588;
-37.8000;0.7204;-5.6561;
-37.5000;0.7212;-5.6535;
-37.2000;0.7236;-5.6508;
-36.9000;0.7245;-5.6508;
-36.6000;0.7220;-5.6588;
-36.3000;0.7228;-5.6640;
-36.0000;0.7196;-5.6693;
-35.7000;0.7261;-5.6667;
-35.4000;0.7236;-5.6588;
-35.1000;0.7245;-5.6614;
-34.8000;0.7277;-5.6614;
-34.5000;0.7269;-5.6588;
-34.2000;0.7277;-5.6561;
-33.9000;0.7302;-5.6535;
-33.6000;0.7277;-5.6588;
-33.3000;0.7310;-5.6588;
-33.0000;0.7302;-5.6640;
-32.7000;0.7310;-5.6693;
-32.4000;0.7285;-5.6773;
-32.1000;0.7326;-5.6746;
-31.8000;0.7310;-5.6773;
-31.5000;0.7285;-5.6825;
-31.2000;0.7318;-5.6852;
-30.9000;0.7318;-5.6852;
-30.6000;0.7326;-5.6825;
-30.3000;0.7326;-5.6773;
-30.0000;0.7342;-5.6720;
-29.7000;0.7334;-5.6825;
-29.4000;0.7350;-5.6931;
-29.1000;0.7367;-5.6984;
-28.8000;0.7359;-5.7010;
-28.5000;0.7342;-5.7037;
-28.2000;0.7375;-5.6931;
-27.9000;0.7359;-5.6984;
-27.6000;0.7383;-5.6931;
-27.3000;0.7326;-5.7037;
-27.0000;0.7383;-5.6905;
-26.7000;0.7383;-5.6957;
-26.4000;0.7375;-5.6984;
-26.1000;0.7391;-5.7063;
-25.8000;0.7416;-5.7037;
-25.5000;0.7424;-5.7010;
-25.2000;0.7424;-5.6957;
-24.9000;0.7448;-5.6878;
-24.6000;0.7432;-5.6852;
-24.3000;0.7407;-5.6905;
-24.0000;0.7473;-5.6773;
-23.7000;0.7464;-5.6825;
-23.4000;0.7538;-5.6667;
-23.1000;0.7432;-5.6957;
-22.8000;0.7456;-5.6825;
-22.5000;0.7456;-5.6799;
-22.2000;0.7473;-5.6720;
-21.9000;0.7489;-5.6799;
-21.6000;0.7497;-5.6825;
-21.3000;0.7481;-5.6878;
-21.0000;0.7497;-5.6878;
-20.7000;0.7489;-5.6878;
-20.4000;0.7505;-5.6878;
-20.1000;0.7521;-5.6878;
-19.8000;0.7513;-5.6878;
-19.5000;0.7448;-5.7010;
-19.2000;0.7513;-5.6825;
-18.9000;0.7546;-5.6773;
-18.6000;0.7546;-5.6799;
-18.3000;0.7562;-5.6773;
-18.0000;0.7554;-5.6852;
-17.7000;0.7554;-5.6905;
-17.4000;0.7473;-5.7116;
-17.1000;0.7554;-5.7037;
-16.8000;0.7554;-5.7063;
-16.5000;0.7611;-5.6957;
-16.2000;0.7570;-5.6931;
-15.9000;0.7578;-5.6878;
-15.6000;0.7562;-5.6957;
-15.3000;0.7595;-5.6984;
-15.0000;0.7595;-5.7010;
-14.7000;0.7611;-5.7010;
-14.4000;0.7603;-5.7063;
-14.1000;0.7603;-5.7089;
-13.8000;0.7627;-5.7116;
-13.5000;0.7595;-5.7195;
-13.2000;0.7627;-5.7089;
-12.9000;0.7619;-5.7116;
-12.6000;0.7652;-5.7169;
-12.3000;0.7635;-5.7248;
-12.0000;0.7652;-5.7221;
-11.7000;0.7643;-5.7248;
-11.4000;0.7668;-5.7195;
-11.1000;0.7660;-5.7221;
-10.8000;0.7652;-5.7195;
-10.5000;0.7660;-5.7248;
-10.2000;0.7676;-5.7221;
-9.9000;0.7692;-5.7169;
-9.6000;0.7717;-5.7063;
-9.3000;0.7692;-5.7142;
-9.0000;0.7692;-5.7142;
-8.7000;0.7717;-5.7037;
-8.4000;0.7700;-5.7063;
-8.1000;0.7709;-5.7063;
-7.8000;0.7717;-5.7116;
-7.5000;0.7717;-5.7089;
-7.2000;0.7733;-5.7089;
-6.9000;0.7717;-5.7169;
-6.6000;0.7741;-5.7142;
-6.3000;0.7733;-5.7221;
-6.0000;0.7700;-5.7301;
-5.7000;0.7741;-5.7169;
-5.4000;0.7749;-5.7169;
-5.1000;0.7774;-5.7116;
-4.8000;0.7774;-5.7142;
-4.5000;0.7766;-5.7116;
-4.2000;0.7863;-5.6931;
-3.9000;0.7790;-5.7089;
-3.6000;0.7741;-5.7195;
-3.3000;0.7806;-5.7010;
-3.0000;0.7806;-5.7037;
-2.7000;0.7798;-5.7089;
-2.4000;0.7790;-5.7089;
-2.1000;0.7814;-5.7037;
-1.8000;0.7806;-5.7063;
-1.5000;0.7823;-5.7089;
-1.2000;0.7855;-5.7037;
-0.9000;0.7814;-5.7169;
-0.6000;0.7814;-5.7116;
-0.3000;0.7839;-5.7116;
0.0000;0.7839;-5.7116;
0.3000;0.8189;-5.7037;
0.6000;0.8954;-5.6244;
0.9000;0.9621;-5.5426;
1.2000;1.0012;-5.5215;
1.5000;1.0387;-5.4792;
1.8000;1.0729;-5.4290;
2.1000;1.0940;-5.3947;
2.4000;1.1152;-5.3577;
2.7000;1.1282;-5.3551;
3.0000;1.1534;-5.3155;
3.3000;1.1591;-5.3208;
3.6000;1.1730;-5.2944;
3.9000;1.1795;-5.3023;
4.2000;1.1901;-5.2917;
4.5000;1.1966;-5.2917;
4.8000;1.2047;-5.2917;
5.1000;1.2120;-5.2812;
5.4000;1.2177;-5.2759;
5.7000;1.2234;-5.2706;
6.0000;1.2275;-5.2732;
6.3000;1.2340;-5.2680;
6.6000;1.2389;-5.2706;
6.9000;1.2438;-5.2706;
7.2000;1.2479;-5.2732;
7.5000;1.2544;-5.2785;
7.8000;1.2576;-5.2785;
8.1000;1.2641;-5.2732;
8.4000;1.2666;-5.2759;
8.7000;1.2698;-5.2812;
9.0000;1.2764;-5.2732;
9.3000;1.2796;-5.2706;
9.6000;1.2837;-5.2680;
9.9000;1.2837;-5.2759;
10.2000;1.2894;-5.2785;
10.5000;1.2926;-5.2785;
10.8000;1.2943;-5.2812;
11.1000;1.2991;-5.2759;
11.4000;1.2983;-5.2891;
11.7000;1.3065;-5.2812;
12.0000;1.3089;-5.2864;
12.3000;1.3114;-5.2917;
12.6000;1.3138;-5.2891;
12.9000;1.3171;-5.2785;
13.2000;1.3195;-5.2785;
13.5000;1.3179;-5.2891;
13.8000;1.3260;-5.2759;
14.1000;1.3301;-5.2812;
14.4000;1.3333;-5.2812;
14.7000;1.3358;-5.2759;
15.0000;1.3423;-5.2653;
15.3000;1.3390;-5.2785;
15.6000;1.3423;-5.2732;
15.9000;1.3439;-5.2812;
16.2000;1.3488;-5.2759;
16.5000;1.3496;-5.2785;
16.8000;1.3529;-5.2864;
17.1000;1.3529;-5.2917;
17.4000;1.3553;-5.2996;
17.7000;1.3553;-5.3049;
18.0000;1.3569;-5.3076;
18.3000;1.3667;-5.2838;
18.6000;1.3635;-5.2996;
18.9000;1.3635;-5.3102;
19.2000;1.3691;-5.2996;
19.5000;1.3740;-5.2996;
19.8000;1.3708;-5.3129;
20.1000;1.3708;-5.3208;
20.4000;1.3683;-5.3366;
20.7000;1.3748;-5.3287;
21.0000;1.3781;-5.3287;
21.3000;1.3781;-5.3261;
21.6000;1.3789;-5.3287;
21.9000;1.3814;-5.3234;
22.2000;1.3846;-5.3102;
22.5000;1.3830;-5.3155;
22.8000;1.3879;-5.3076;
23.1000;1.3871;-5.3129;
23.4000;1.3895;-5.3076;
23.7000;1.3895;-5.3049;
24.0000;1.3919;-5.3023;
24.3000;1.3952;-5.2944;
24.6000;1.3960;-5.2996;
24.9000;1.3944;-5.3023;
25.2000;1.3968;-5.3049;
25.5000;1.3968;-5.3155;
25.8000;1.3993;-5.3155;
26.1000;1.3985;-5.3234;
26.4000;1.3993;-5.3181;
26.7000;1.4001;-5.3129;
27.0000;1.4082;-5.2996;
27.3000;1.4025;-5.3102;
27.6000;1.4050;-5.2970;
27.9000;1.4074;-5.2996;
28.2000;1.4082;-5.3049;
28.5000;1.4082;-5.3102;
28.8000;1.4082;-5.3234;
29.1000;1.4082;-5.3419;
29.4000;1.4107;-5.3313;
29.7000;1.4131;-5.3419;
30.0000;1.4139;-5.3445;
30.3000;1.4123;-5.3498;
30.6000;1.4155;-5.3551;
30.9000;1.4147;-5.3498;
31.2000;1.4172;-5.3419;
31.5000;1.4147;-5.3472;
31.8000;1.4180;-5.3472;
32.1000;1.4196;-5.3472;
32.4000;1.4204;-5.3551;
32.7000;1.4212;-5.3577;
33.0000;1.4204;-5.3630;
33.3000;1.4237;-5.3604;
33.6000;1.4229;-5.3604;
33.9000;1.4237;-5.3630;
34.2000;1.4253;-5.3604;
34.5000;1.4229;-5.3657;
34.8000;1.4212;-5.3789;
35.1000;1.4269;-5.3815;
35.4000;1.4212;-5.4026;
35.7000;1.4269;-5.4000;
36.0000;1.4302;-5.3894;
36.3000;1.4294;-5.3841;
36.6000;1.4278;-5.3894;
36.9000;1.4286;-5.3894;
37.2000;1.4318;-5.3762;
37.5000;1.4310;-5.3789;
37.8000;1.4326;-5.3762;
38.1000;1.4326;-5.3709;
38.4000;1.4326;-5.3630;
38.7000;1.4343;-5.3709;
39.0000;1.4351;-5.3683;
39.3000;1.4318;-5.3789;
39.6000;1.4335;-5.3815;
39.9000;1.4375;-5.3815;
40.2000;1.4359;-5.3736;
40.5000;1.4367;-5.3789;
40.8000;1.4367;-5.3815;
41.1000;1.4392;-5.3709;
41.4000;1.4392;-5.3736;
41.7000;1.4351;-5.3841;
42.0000;1.4367;-5.3921;
42.3000;1.4408;-5.3894;
42.6000;1.4424;-5.3841;
42.9000;1.4416;-5.3947;
43.2000;1.4416;-5.3973;
43.5000;1.4392;-5.4026;
43.8000;1.4432;-5.3894;
44.1000;1.4432;-5.3921;
44.4000;1.4408;-5.3947;
44.7000;1.4449;-5.3947;
45.0000;1.4457;-5.3973;
45.3000;1.4481;-5.4000;
45.6000;1.4449;-5.4026;
45.9000;1.4465;-5.3973;
46.2000;1.4481;-5.3947;
46.5000;1.4465;-5.3947;
46.8000;1.4473;-5.3947;
47.1000;1.4497;-5.3947;
47.4000;1.4481;-5.3973;
47.7000;1.4489;-5.4000;
48.0000;1.4505;-5.3947;
48.3000;1.4489;-5.3973;
48.6000;1.4505;-5.4000;
48.9000;1.4530;-5.4026;
49.2000;1.4530;-5.4026;
49.5000;1.4489;-5.4053;
49.8000;1.4538;-5.4053;
50.1000;1.4538;-5.4026;
50.4000;1.4546;-5.4026;
50.7000;1.4530;-5.4079;
51.0000;1.4546;-5.4053;
51.3000;1.4546;-5.4079;
51.6000;1.4538;-5.4106;
51.9000;1.4554;-5.4132;
52.2000;1.4505;-5.4264;
52.5000;1.4546;-5.4132;
52.8000;1.4562;-5.4079;
53.1000;1.4554;-5.4106;
53.4000;1.4562;-5.4132;
53.7000;1.4562;-5.4264;
54.0000;1.4522;-5.4317;
54.3000;1.4571;-5.4238;
54.6000;1.4571;-5.4238;
54.9000;1.4587;-5.4211;
55.2000;1.4668;-5.4079;
55.5000;1.4603;-5.4238;
55.8000;1.4587;-5.4238;
56.1000;1.4603;-5.4238;
56.4000;1.4611;-5.4158;
56.7000;1.4619;-5.4132;
57.0000;1.4611;-5.4211;
57.3000;1.4611;-5.4317;
57.6000;1.4611;-5.4317;
57.9000;1.4619;-5.4317;
58.2000;1.4546;-5.4370;
58.5000;1.4619;-5.4264;
58.8000;1.4668;-5.4079;
59.1000;1.4644;-5.4132;
59.4000;1.4603;-5.4132;
59.7000;1.4644;-5.4079;
60.0000;1.4579;-5.4396;
60.3000;1.4636;-5.4238;
60.6000;1.4660;-5.4185;
60.9000;1.4652;-5.4211;
61.2000;1.4660;-5.4238;
61.5000;1.4693;-5.4158;
61.8000;1.4676;-5.4211;
62.1000;1.4660;-5.4290;
62.4000;1.4644;-5.4211;
62.7000;1.4644;-5.4264;
63.0000;1.4685;-5.4238;
63.3000;1.4717;-5.4211;
63.6000;1.4660;-5.4422;
63.9000;1.4676;-5.4422;
64.2000;1.4676;-5.4475;
64.5000;1.4668;-5.4528;
64.8000;1.4660;-5.4554;
65.1000;1.4668;-5.4502;
65.4000;1.4660;-5.4528;
65.7000;1.4676;-5.4396;
66.0000;1.4693;-5.4343;
66.3000;1.4685;-5.4370;
66.6000;1.4644;-5.4343;
66.9000;1.4693;-5.4370;
67.2000;1.4717;-5.4290;
67.5000;1.4709;-5.4370;
67.8000;1.4668;-5.4502;
68.1000;1.4717;-5.4396;
68.4000;1.4725;-5.4422;
68.7000;1.4717;-5.4422;
69.0000;1.4725;-5.4475;
69.3000;1.4717;-5.4581;
69.6000;1.4742;-5.4422;
69.9000;1.4725;-5.4502;
70.2000;1.4725;-5.4528;
70.5000;1.4733;-5.4554;
70.8000;1.4742;-5.4449;
71.1000;1.4725;-5.4449;
71.4000;1.4733;-5.4449;
71.7000;1.4733;-5.4449;
72.0000;1.4750;-5.4422;
72.3000;1.4742;-5.4396;
72.6000;1.4766;-5.4396;
72.9000;1.4750;-5.4422;
73.2000;1.4742;-5.4528;
73.5000;1.4774;-5.4422;
73.8000;1.4766;-5.4449;
74.1000;1.4733;-5.4502;
74.4000;1.4758;-5.4475;
74.7000;1.4758;-5.4475;
75.0000;1.4799;-5.4343;
75.3000;1.4774;-5.4449;
75.6000;1.4823;-5.4422;
75.9000;1.4790;-5.4422;
76.2000;1.4782;-5.4449;
76.5000;1.4766;-5.4581;
76.8000;1.4782;-5.4502;
77.1000;1.4856;-5.4290;
77.4000;1.4799;-5.4422;
77.7000;1.4782;-5.4449;
78.0000;1.4750;-5.4554;
78.3000;1.4790;-5.4528;
78.6000;1.4799;-5.4528;
78.9000;1.4790;-5.4660;
79.2000;1.4799;-5.4554;
79.5000;1.4774;-5.4686;
79.8000;1.4774;-5.4607;
80.1000;1.4807;-5.4581;
80.4000;1.4839;-5.4528;
80.7000;1.4807;-5.4686;
81.0000;1.4823;-5.4766;
81.3000;1.4823;-5.4686;
81.6000;1.4823;-5.4660;
81.9000;1.4823;-5.4634;
82.2000;1.4831;-5.4554;
82.5000;1.4823;-5.4449;
82.8000;1.4799;-5.4502;
83.1000;1.4799;-5.4554;
83.4000;1.4815;-5.4528;
83.7000;1.4831;-5.4554;
84.0000;1.4831;-5.4660;
84.3000;1.4823;-5.4634;
84.6000;1.4839;-5.4554;
84.9000;1.4847;-5.4502;
85.2000;1.4823;-5.4581;
85.5000;1.4839;-5.4634;
85.8000;1.4839;-5.4713;
86.1000;1.4864;-5.4634;
86.4000;1.4839;-5.4686;
86.7000;1.4847;-5.4766;
87.0000;1.4823;-5.4818;
87.3000;1.4847;-5.4739;
87.6000;1.4856;-5.4766;
87.9000;1.4856;-5.4739;
88.2000;1.4823;-5.4792;
88.5000;1.4856;-5.4766;
88.8000;1.4847;-5.4792;
89.1000;1.4831;-5.4845;
89.4000;1.4823;-5.4924;
89.7000;1.4864;-5.4792;
90.0000;1.4856;-5.4792;
90.3000;1.4872;-5.4818;
90.6000;1.4815;-5.4951;
90.9000;1.4864;-5.4792;
91.2000;1.4880;-5.4792;
91.5000;1.4815;-5.4977;
91.8000;1.4888;-5.4792;
92.1000;1.4872;-5.4845;
92.4000;1.4880;-5.4845;
92.7000;1.4929;-5.4792;
93.0000;1.4839;-5.5056;
93.3000;1.4896;-5.4951;
93.6000;1.4912;-5.4951;
93.9000;1.4856;-5.4951;
94.2000;1.4872;-5.4898;
94.5000;1.4888;-5.4977;
94.8000;1.4880;-5.4898;
95.1000;1.4880;-5.4898;
95.4000;1.4880;-5.4871;
95.7000;1.4847;-5.5030;
96.0000;1.4880;-5.4924;
96.3000;1.4888;-5.4924;
96.6000;1.4904;-5.4924;
96.9000;1.4896;-5.4871;
97.2000;1.4856;-5.4871;
97.5000;1.4921;-5.4739;
97.8000;1.4872;-5.4924;
98.1000;1.4904;-5.4871;
98.4000;1.4888;-5.4977;
98.7000;1.4880;-5.5083;
99.0000;1.4912;-5.5135;
99.3000;1.4904;-5.5135;
99.6000;1.4880;-5.5241;
99.9000;1.4904;-5.5188;
100.2000;1.4896;-5.5241;
100.5000;1.4896;-5.5267;
100.8000;1.4904;-5.5188;
101.1000;1.4904;-5.5188;
101.4000;1.4912;-5.5215;
101.7000;1.4921;-5.5215;
102.0000;1.4929;-5.5241;
102.3000;1.4921;-5.5241;
102.6000;1.4929;-5.5188;
102.9000;1.4929;-5.5188;
103.2000;1.4912;-5.5188;
103.5000;1.4921;-5.5135;
103.8000;1.4929;-5.5135;
104.1000;1.4929;-5.5215;
104.4000;1.4921;-5.5267;
104.7000;1.4937;-5.5215;
105.0000;1.4961;-5.5188;
105.3000;1.4904;-5.5347;
105.6000;1.4937;-5.5215;
105.9000;1.4937;-5.5241;
106.2000;1.4921;-5.5135;
106.5000;1.4969;-5.5030;
106.8000;1.4937;-5.5056;
107.1000;1.4953;-5.4977;
107.4000;1.4961;-5.4924;
107.7000;1.4945;-5.4898;
108.0000;1.4912;-5.4951;
108.3000;1.4945;-5.4898;
108.6000;1.4929;-5.4924;
108.9000;1.4937;-5.4977;
109.2000;1.4945;-5.5003;
109.5000;1.4937;-5.4977;
109.8000;1.4945;-5.4977;
110.1000;1.4945;-5.5030;
110.4000;1.4953;-5.5003;
110.7000;1.4937;-5.5056;
111.0000;1.4945;-5.5003;
111.3000;1.4945;-5.5056;
111.6000;1.4961;-5.5003;
111.9000;1.4961;-5.4898;
112.2000;1.4961;-5.5030;
112.5000;1.4969;-5.5030;
112.8000;1.4978;-5.5083;
113.1000;1.4969;-5.5083;
113.4000;1.4961;-5.5135;
113.7000;1.4961;-5.5188;
114.0000;1.4953;-5.5215;
114.3000;1.4953;-5.5241;
114.6000;1.4961;-5.5162;
114.9000;1.4961;-5.5083;
115.2000;1.4978;-5.5003;
115.5000;1.5026;-5.4977;
115.8000;1.4978;-5.5188;
116.1000;1.4969;-5.5215;
116.4000;1.4969;-5.5241;
116.7000;1.4978;-5.5215;
117.0000;1.4994;-5.5135;
117.3000;1.4978;-5.5267;
117.6000;1.4953;-5.5347;
117.9000;1.4953;-5.5294;
118.2000;1.4961;-5.5241;
118.5000;1.4986;-5.5215;
118.8000;1.4978;-5.5188;
119.1000;1.4929;-5.5267;
119.4000;1.4986;-5.5241;
119.7000;1.4978;-5.5347;
120.0000;1.4978;-5.5399;
120.3000;1.4986;-5.5399;
120.6000;1.4978;-5.5373;
120.9000;1.4969;-5.5347;
121.2000;1.4953;-5.5267;
121.5000;1.4961;-5.5162;
121.8000;1.4986;-5.5162;
122.1000;1.4978;-5.5215;
122.4000;1.4986;-5.5294;
122.7000;1.4978;-5.5267;
123.0000;1.4986;-5.5162;
123.3000;1.4994;-5.5083;
123.6000;1.4986;-5.5056;
123.9000;1.4986;-5.5056;
124.2000;1.4986;-5.5109;
124.5000;1.4978;-5.5162;
124.8000;1.4986;-5.5215;
125.1000;1.4978;-5.5215;
125.4000;1.4994;-5.5162;
125.7000;1.4978;-5.5162;
126.0000;1.4978;-5.5188;
126.3000;1.4978;-5.5109;
126.6000;1.4994;-5.5188;
126.9000;1.5018;-5.5083;
127.2000;1.5018;-5.5083;
127.5000;1.5002;-5.5083;
127.8000;1.4994;-5.5135;
128.1000;1.5018;-5.5188;
128.4000;1.5002;-5.5188;
128.7000;1.5010;-5.5215;
129.0000;1.5010;-5.5294;
129.3000;1.4945;-5.5373;
129.6000;1.5010;-5.5215;
129.9000;1.4994;-5.5188;
130.2000;1.5002;-5.5215;
130.5000;1.4929;-5.5373;
130.8000;1.5002;-5.5241;
131.1000;1.5002;-5.5215;
131.4000;1.4994;-5.5294;
131.7000;1.4994;-5.5241;
132.0000;1.5051;-5.5135;
132.3000;1.5018;-5.5109;
132.6000;1.5002;-5.5215;
132.9000;1.4994;-5.5241;
133.2000;1.5002;-5.5162;
133.5000;1.5018;-5.5135;
133.8000;1.5002;-5.5135;
134.1000;1.5002;-5.5109;
134.4000;1.5043;-5.5030;
134.7000;1.5018;-5.5109;
135.0000;1.5010;-5.5241;
135.3000;1.5002;-5.5241;
135.6000;1.5083;-5.5056;
135.9000;1.5018;-5.5215;
136.2000;1.5018;-5.5162;
136.5000;1.4986;-5.5215;
136.8000;1.5010;-5.5188;
137.1000;1.5018;-5.5135;
137.4000;1.5026;-5.5083;
137.7000;1.4978;-5.5135;
138.0000;1.5010;-5.5003;
138.3000;1.5026;-5.5003;
138.6000;1.5051;-5.5003;
138.9000;1.5018;-5.5083;
139.2000;1.5026;-5.5135;
139.5000;1.5018;-5.5135;
139.8000;1.5035;-5.5188;
140.1000;1.5018;-5.5241;
140.4000;1.5018;-5.5215;
140.7000;1.5018;-5.5267;
141.0000;1.5035;-5.5215;
141.3000;1.5026;-5.5215;
141.6000;1.5002;-5.5294;
141.9000;1.5010;-5.5294;
142.2000;1.5026;-5.5162;
142.5000;1.5051;-5.5135;
142.8000;1.5043;-5.5135;
143.1000;1.5035;-5.5083;
143.4000;1.5051;-5.5083;
143.7000;1.5026;-5.5056;
144.0000;1.5035;-5.5109;
144.3000;1.5010;-5.5109;
144.6000;1.5026;-5.5135;
144.9000;1.5043;-5.5056;
145.2000;1.5051;-5.4977;
145.5000;1.5010;-5.5188;
145.8000;1.5026;-5.5162;
146.1000;1.5026;-5.5267;
146.4000;1.5026;-5.5347;
146.7000;1.5035;-5.5294;
147.0000;1.5035;-5.5294;
147.3000;1.5043;-5.5215;
147.6000;1.5043;-5.5215;
147.9000;1.5026;-5.5241;
148.2000;1.5043;-5.5241;
148.5000;1.5043;-5.5241;
148.8000;1.5051;-5.5162;
149.1000;1.5035;-5.5241;
149.4000;1.5051;-5.5135;
149.7000;1.5035;-5.5162;
150.0000;1.5035;-5.5215;
150.3000;1.5059;-5.5135;
150.6000;1.5051;-5.5188;
150.9000;1.5059;-5.5162;
151.2000;1.5026;-5.5188;
151.5000;1.5043;-5.5135;
151.8000;1.4969;-5.5294;
152.1000;1.5018;-5.5215;
152.4000;1.5043;-5.5162;
152.7000;1.5035;-5.5162;
153.0000;1.5026;-5.5188;
153.3000;1.5075;-5.5162;
153.6000;1.5043;-5.5320;
153.9000;1.5083;-5.5241;
154.2000;1.5035;-5.5347;
154.5000;1.5051;-5.5267;
154.8000;1.5018;-5.5320;
155.1000;1.5051;-5.5267;
155.4000;1.5035;-5.5241;
155.7000;1.5035;-5.5215;
156.0000;1.5043;-5.5215;
156.3000;1.5059;-5.5162;
156.6000;1.5051;-5.5135;
156.9000;1.5051;-5.5267;
157.2000;1.5043;-5.5294;
157.5000;1.5035;-5.5241;
157.8000;1.5059;-5.5241;
158.1000;1.5043;-5.5373;
158.4000;1.5051;-5.5320;
158.7000;1.5051;-5.5347;
159.0000;1.5051;-5.5267;
159.3000;1.5059;-5.5215;
159.6000;1.5035;-5.5294;
159.9000;1.5059;-5.5267;
160.2000;1.5043;-5.5267;
160.5000;1.5051;-5.5241;
160.8000;1.5026;-5.5241;
161.1000;1.5043;-5.5215;
161.4000;1.5051;-5.5188;
161.7000;1.5051;-5.5267;
162.0000;1.5059;-5.5267;
162.3000;1.5059;-5.5294;
162.6000;1.5051;-5.5267;
162.9000;1.5067;-5.5215;
163.2000;1.5075;-5.5241;
163.5000;1.5051;-5.5320;
163.8000;1.5059;-5.5320;
164.1000;1.5051;-5.5373;
164.4000;1.5051;-5.5426;
164.7000;1.5051;-5.5452;
165.0000;1.5043;-5.5452;
165.3000;1.5043;-5.5373;
165.6000;1.5043;-5.5347;
165.9000;1.5035;-5.5347;
166.2000;1.5043;-5.5452;
166.5000;1.5059;-5.5426;
166.8000;1.5059;-5.5479;
167.1000;1.5059;-5.5452;
167.4000;1.5026;-5.5531;
167.7000;1.5043;-5.5531;
168.0000;1.5059;-5.5505;
168.3000;1.5067;-5.5426;
168.6000;1.5059;-5.5505;
168.9000;1.5059;-5.5426;
169.2000;1.5075;-5.5452;
169.5000;1.5051;-5.5452;
169.8000;1.5067;-5.5399;
170.1000;1.5035;-5.5399;
170.4000;1.5051;-5.5294;
170.7000;1.5067;-5.5267;
171.0000;1.5051;-5.5320;
171.3000;1.5018;-5.5452;
171.6000;1.5051;-5.5452;
171.9000;1.5067;-5.5399;
172.2000;1.5043;-5.5399;
172.5000;1.5043;-5.5399;
172.8000;1.5035;-5.5452;
173.1000;1.5059;-5.5373;
173.4000;1.5059;-5.5399;
173.7000;1.5059;-5.5399;
174.0000;1.5067;-5.5320;
174.3000;1.5075;-5.5347;
174.6000;1.5059;-5.5399;
174.9000;1.5092;-5.5426;
175.2000;1.5059;-5.5505;
175.5000;1.5051;-5.5558;
175.8000;1.5067;-5.5505;
176.1000;1.5051;-5.5558;
176.4000;1.5043;-5.5531;
176.7000;1.5051;-5.5531;
177.0000;1.5002;-5.5663;
177.3000;1.5043;-5.5558;
177.6000;1.5043;-5.5531;
177.9000;1.5043;-5.5505;
178.2000;1.5035;-5.5479;
178.5000;1.5100;-5.5320;
178.8000;1.5026;-5.5558;
179.1000;1.5051;-5.5452;
179.4000;1.5067;-5.5399;
179.7000;1.5067;-5.5294;
180.0000;1.5059;-5.5320;
180.3000;1.5075;-5.5373;
180.6000;1.5067;-5.5320;
180.9000;1.5075;-5.5267;
181.2000;1.5075;-5.5320;
181.5000;1.5067;-5.5426;
181.8000;1.5067;-5.5452;
182.1000;1.5059;-5.5399;
182.4000;1.5051;-5.5479;
182.7000;1.5083;-5.5373;
183.0000;1.5043;-5.5505;
183.3000;1.5051;-5.5505;
183.6000;1.5059;-5.5452;
183.9000;1.5059;-5.5505;
184.2000;1.5059;-5.5558;
184.5000;1.5067;-5.5452;
184.8000;1.5067;-5.5373;
185.1000;1.5067;-5.5320;
185.4000;1.5002;-5.5505;
185.7000;1.5075;-5.5320;
186.0000;1.5059;-5.5347;
186.3000;1.5035;-5.5505;
186.6000;1.5051;-5.5452;
186.9000;1.5051;-5.5452;
187.2000;1.5067;-5.5399;
187.5000;1.5059;-5.5426;
187.8000;1.5059;-5.5399;
188.1000;1.5051;-5.5479;
188.4000;1.5100;-5.5399;
188.7000;1.5075;-5.5373;
189.0000;1.5043;-5.5452;
189.3000;1.5059;-5.5373;
189.6000;1.5051;-5.5399;
189.9000;1.5067;-5.5399;
190.2000;1.5075;-5.5399;
190.5000;1.5051;-5.5505;
190.8000;1.5035;-5.5505;
191.1000;1.5059;-5.5452;
191.4000;1.5018;-5.5479;
191.7000;1.5043;-5.5373;
192.0000;1.5026;-5.5426;
192.3000;1.5059;-5.5294;
192.6000;1.5051;-5.5320;
192.9000;1.5051;-5.5426;
193.2000;1.5059;-5.5347;
193.5000;1.5043;-5.5294;
193.8000;1.5059;-5.5267;
194.1000;1.5043;-5.5399;
194.4000;1.5059;-5.5373;
194.7000;1.5067;-5.5373;
195.0000;1.5067;-5.5347;
195.3000;1.5067;-5.5373;
195.6000;1.5059;-5.5426;
195.9000;1.5067;-5.5347;
196.2000;1.5067;-5.5347;
196.5000;1.5051;-5.5426;
196.8000;1.5051;-5.5452;
197.1000;1.5051;-5.5479;
197.4000;1.5051;-5.5479;
197.7000;1.5067;-5.5531;
198.0000;1.5059;-5.5505;
198.3000;1.5051;-5.5479;
198.6000;1.5051;-5.5399;
198.9000;1.5059;-5.5426;
199.2000;1.5051;-5.5479;
199.5000;1.5149;-5.5215;
199.8000;1.5059;-5.5399;
200.1000;1.5051;-5.5426;
200.4000;1.5067;-5.5399;
200.7000;1.5059;-5.5426;
201.0000;1.5067;-5.5426;
201.3000;1.5067;-5.5452;
201.6000;1.5051;-5.5531;
201.9000;1.5059;-5.5558;
202.2000;1.5051;-5.5531;
202.5000;1.5067;-5.5505;
202.8000;1.5067;-5.5399;
203.1000;1.5043;-5.5373;
203.4000;1.5051;-5.5347;
203.7000;1.5067;-5.5320;
204.0000;1.5075;-5.5294;
204.3000;1.5035;-5.5399;
204.6000;1.5075;-5.5241;
204.9000;1.5067;-5.5294;
205.2000;1.5067;-5.5320;
205.5000;1.5067;-5.5347;
205.8000;1.5067;-5.5320;
206.1000;1.5059;-5.5426;
206.4000;1.5051;-5.5373;
206.7000;1.5075;-5.5241;
207.0000;1.5018;-5.5373;
207.3000;1.5051;-5.5241;
207.6000;1.5149;-5.5003;
207.9000;1.5092;-5.5135;
208.2000;1.5051;-5.5267;
208.5000;1.5059;-5.5347;
208.8000;1.5051;-5.5294;
209.1000;1.5092;-5.5241;
209.4000;1.5059;-5.5347;
209.7000;1.5092;-5.5320;
210.0000;1.5059;-5.5347;
210.3000;1.5043;-5.5373;
210.6000;1.5059;-5.5294;
210.9000;1.5051;-5.5373;
211.2000;1.5035;-5.5320;
211.5000;1.5043;-5.5294;
211.8000;1.5059;-5.5241;
212.1000;1.5035;-5.5267;
212.4000;1.5059;-5.5241;
212.7000;1.5067;-5.5294;
213.0000;1.5051;-5.5320;
213.3000;1.5010;-5.5399;
213.6000;1.5051;-5.5267;
213.9000;1.5043;-5.5320;
214.2000;1.5059;-5.5373;
214.5000;1.5059;-5.5320;
214.8000;1.5051;-5.5320;
215.1000;1.5083;-5.5241;
215.4000;1.5075;-5.5241;
215.7000;1.5067;-5.5294;
216.0000;1.5059;-5.5241;
216.3000;1.5059;-5.5267;
216.6000;1.5035;-5.5373;
216.9000;1.5059;-5.5399;
217.2000;1.5059;-5.5320;
217.5000;1.5059;-5.5267;
217.8000;1.5075;-5.5215;
218.1000;1.5059;-5.5215;
218.4000;1.5067;-5.5135;
218.7000;1.5075;-5.5241;
219.0000;1.5067;-5.5241;
219.3000;1.5100;-5.5215;
219.6000;1.5051;-5.5347;
219.9000;1.5067;-5.5320;
220.2000;1.5035;-5.5294;
220.5000;1.5051;-5.5294;
220.8000;1.5059;-5.5215;
221.1000;1.4994;-5.5347;
221.4000;1.5067;-5.5135;
221.7000;1.5051;-5.5188;
222.0000;1.5075;-5.5135;
222.3000;1.5051;-5.5162;
222.6000;1.5059;-5.5267;
222.9000;1.5059;-5.5294;
223.2000;1.5043;-5.5294;
223.5000;1.5051;-5.5320;
223.8000;1.4994;-5.5399;
224.1000;1.5043;-5.5347;
224.4000;1.5051;-5.5215;
224.7000;1.5051;-5.5188;
225.0000;1.5035;-5.5188;
225.3000;1.5043;-5.5188;
225.6000;1.5059;-5.5162;
225.9000;1.5059;-5.5162;
226.2000;1.5067;-5.5135;
226.5000;1.5026;-5.5188;
226.8000;1.5059;-5.5162;
227.1000;1.4994;-5.5373;
227.4000;1.5075;-5.5241;
227.7000;1.5010;-5.5452;
228.0000;1.5059;-5.5347;
228.3000;1.5051;-5.5320;
228.6000;1.5051;-5.5373;
228.9000;1.5059;-5.5399;
229.2000;1.5092;-5.5267;
229.5000;1.5067;-5.5452;
229.8000;1.5026;-5.5584;
230.1000;1.5002;-5.5716;
230.4000;1.5002;-5.5637;
230.7000;1.5067;-5.5399;
231.0000;1.5051;-5.5294;
231.3000;1.5035;-5.5347;
231.6000;1.5059;-5.5320;
231.9000;1.5043;-5.5399;
232.2000;1.5075;-5.5347;
232.5000;1.5043;-5.5320;
232.8000;1.5043;-5.5320;
233.1000;1.5051;-5.5294;
233.4000;1.5059;-5.5267;
233.7000;1.5075;-5.5294;
234.0000;1.5067;-5.5241;
234.3000;1.5043;-5.5347;
234.6000;1.5059;-5.5320;
234.9000;1.5059;-5.5294;
235.2000;1.5059;-5.5320;
235.5000;1.5051;-5.5373;
235.8000;1.5051;-5.5426;
236.1000;1.5043;-5.5347;
236.4000;1.5051;-5.5373;
236.7000;1.5043;-5.5505;
237.0000;1.5002;-5.5663;
237.3000;1.5067;-5.5531;
237.6000;1.5059;-5.5531;
237.9000;1.5067;-5.5531;
238.2000;1.5010;-5.5558;
238.5000;1.5043;-5.5584;
238.8000;1.5067;-5.5584;
239.1000;1.5051;-5.5716;
239.4000;1.5051;-5.5690;
239.7000;1.5043;-5.5663;
240.0000;1.5051;-5.5584;
240.3000;1.5059;-5.5531;
240.6000;1.5043;-5.5505;
240.9000;1.5043;-5.5452;
241.2000;1.4969;-5.5505;
241.5000;1.5051;-5.5347;
241.8000;1.5051;-5.5373;
242.1000;1.5067;-5.5320;
242.4000;1.5067;-5.5347;
242.7000;1.5059;-5.5347;
243.0000;1.5043;-5.5320;
243.3000;1.5018;-5.5399;
243.6000;1.5059;-5.5294;
243.9000;1.5108;-5.5294;
244.2000;1.5051;-5.5267;
244.5000;1.5026;-5.5373;
244.8000;1.5043;-5.5347;
245.1000;1.5035;-5.5267;
245.4000;1.5026;-5.5320;
245.7000;1.5035;-5.5188;
246.0000;1.5043;-5.5109;
246.3000;1.5043;-5.5162;
246.6000;1.5043;-5.5135;
246.9000;1.4978;-5.5241;
247.2000;1.5035;-5.5109;
247.5000;1.5043;-5.5162;
247.8000;1.5051;-5.5135;
248.1000;1.5010;-5.5320;
248.4000;1.5059;-5.5347;
248.7000;1.5043;-5.5294;
249.0000;1.5043;-5.5347;
249.3000;1.5043;-5.5320;
249.6000;1.5051;-5.5267;
249.9000;1.5002;-5.5241;
250.2000;1.5059;-5.5083;
250.5000;1.5043;-5.5162;
250.8000;1.5018;-5.5135;
251.1000;1.5067;-5.5083;
251.4000;1.5059;-5.5135;
251.7000;1.5051;-5.5162;
252.0000;1.5043;-5.5162;
252.3000;1.5035;-5.5162;
252.6000;1.4986;-5.5320;
252.9000;1.5051;-5.5241;
253.2000;1.5051;-5.5215;
253.5000;1.5035;-5.5215;
253.8000;1.5018;-5.5241;
254.1000;1.5035;-5.5215;
254.4000;1.5051;-5.5241;
254.7000;1.5043;-5.5267;
255.0000;1.5035;-5.5294;
255.3000;1.5051;-5.5267;
255.6000;1.5035;-5.5267;
255.9000;1.5026;-5.5267;
256.2000;1.5026;-5.5215;
256.5000;1.5035;-5.5135;
256.8000;1.5051;-5.5135;
257.1000;1.5035;-5.5215;
257.4000;1.5018;-5.5241;
257.7000;1.5043;-5.5162;
258.0000;1.5043;-5.5215;
258.3000;1.5035;-5.5267;
258.6000;1.5043;-5.5215;
258.9000;1.5067;-5.5162;
259.2000;1.5043;-5.5241;
259.5000;1.5051;-5.5215;
259.8000;1.5051;-5.5215;
260.1000;1.5043;-5.5188;
260.4000;1.5043;-5.5267;
260.7000;1.5059;-5.5294;
261.0000;1.5116;-5.5162;
261.3000;1.5010;-5.5373;
261.6000;1.5051;-5.5188;
261.9000;1.5059;-5.5135;
262.2000;1.5051;-5.5135;
262.5000;1.5043;-5.5109;
262.8000;1.5051;-5.5162;
263.1000;1.5035;-5.5162;
263.4000;1.5026;-5.5109;
263.7000;1.5043;-5.5135;
264.0000;1.5035;-5.5188;
264.3000;1.5043;-5.5188;
264.6000;1.5026;-5.5188;
264.9000;1.5026;-5.5135;
265.2000;1.5010;-5.5109;
265.5000;1.5051;-5.4951;
265.8000;1.5026;-5.4845;
266.1000;1.5035;-5.4818;
266.4000;1.5051;-5.4766;
266.7000;1.5035;-5.4818;
267.0000;1.5026;-5.4739;
267.3000;1.5059;-5.4739;
267.6000;1.5083;-5.4713;
267.9000;1.5059;-5.4924;
268.2000;1.5051;-5.5030;
268.5000;1.5035;-5.5083;
268.8000;1.5035;-5.5030;
269.1000;1.5035;-5.4951;
269.4000;1.5035;-5.5030;
269.7000;1.5043;-5.5030;
270.0000;1.5100;-5.4713;
270.3000;1.5043;-5.4871;
270.6000;1.5026;-5.4924;
270.9000;1.5018;-5.5003;
271.2000;1.5018;-5.4977;
271.5000;1.5051;-5.5030;
271.8000;1.5026;-5.5003;
272.1000;1.5010;-5.5135;
272.4000;1.5026;-5.5135;
272.7000;1.4994;-5.5267;
273.0000;1.5043;-5.5188;
273.3000;1.5026;-5.5215;
273.6000;1.5002;-5.5320;
273.9000;1.5018;-5.5267;
274.2000;1.5043;-5.5241;
274.5000;1.5035;-5.5267;
274.8000;1.5010;-5.5188;
275.1000;1.5018;-5.5241;
275.4000;1.5035;-5.5188;
275.7000;1.5035;-5.5162;
276.0000;1.5018;-5.5109;
276.3000;1.5002;-5.5109;
276.6000;1.4994;-5.5215;
276.9000;1.5018;-5.5162;
277.2000;1.5018;-5.5215;
277.5000;1.5035;-5.5215;
277.8000;1.4961;-5.5373;
278.1000;1.5002;-5.5135;
278.4000;1.5043;-5.5030;
278.7000;1.5018;-5.5030;
279.0000;1.5010;-5.4977;
279.3000;1.5026;-5.4951;
279.6000;1.5018;-5.4977;
279.9000;1.5002;-5.5030;
280.2000;1.5026;-5.5003;
280.5000;1.5026;-5.5003;
280.8000;1.5035;-5.5056;
281.1000;1.5018;-5.5083;
281.4000;1.5002;-5.5083;
281.7000;1.5026;-5.5083;
282.0000;1.5035;-5.5109;
282.3000;1.5018;-5.5109;
282.6000;1.5002;-5.5162;
282.9000;1.4994;-5.5347;
283.2000;1.5002;-5.5373;
283.5000;1.5010;-5.5267;
283.8000;1.5010;-5.5294;
284.1000;1.5010;-5.5347;
284.4000;1.5018;-5.5267;
284.7000;1.5018;-5.5241;
285.0000;1.5026;-5.5162;
285.3000;1.5026;-5.5215;
285.6000;1.5026;-5.5135;
285.9000;1.5018;-5.5188;
286.2000;1.5026;-5.5215;
286.5000;1.5010;-5.5267;
286.8000;1.5018;-5.5215;
287.1000;1.5051;-5.5109;
287.4000;1.5010;-5.5188;
287.7000;1.5035;-5.5162;
288.0000;1.5002;-5.5215;
288.3000;1.5018;-5.5215;
288.6000;1.5018;-5.5215;
288.9000;1.5002;-5.5267;
289.2000;1.5051;-5.5135;
289.5000;1.5026;-5.5135;
289.8000;1.5010;-5.5056;
290.1000;1.5035;-5.5030;
290.4000;1.5018;-5.5056;
290.7000;1.4969;-5.5188;
291.0000;1.5035;-5.5003;
291.3000;1.5018;-5.5083;
291.6000;1.4986;-5.5135;
291.9000;1.5002;-5.5030;
292.2000;1.5051;-5.4977;
292.5000;1.5018;-5.5056;
292.8000;1.5010;-5.5056;
293.1000;1.4994;-5.5162;
293.4000;1.5018;-5.5162;
293.7000;1.5010;-5.5241;
294.0000;1.4978;-5.5215;
294.3000;1.5010;-5.5135;
294.6000;1.5018;-5.5083;
294.9000;1.4945;-5.5241;
295.2000;1.5002;-5.5056;
295.5000;1.5018;-5.5135;
295.8000;1.5018;-5.5241;
296.1000;1.5018;-5.5241;
296.4000;1.5010;-5.5241;
296.7000;1.4969;-5.5347;
297.0000;1.4994;-5.5267;
297.3000;1.5010;-5.5188;
297.6000;1.4986;-5.5267;
297.9000;1.4994;-5.5241;
298.2000;1.4969;-5.5267;
298.5000;1.4994;-5.5188;
298.8000;1.4994;-5.5267;
299.1000;1.5026;-5.5215;
299.4000;1.4953;-5.5347;
299.7000;1.5018;-5.5162;
300.0000;1.4994;-5.5215;
300.3000;1.5059;-5.5109;
300.6000;1.5002;-5.5267;
300.9000;1.5010;-5.5162;
301.2000;1.5026;-5.5056;
301.5000;1.4961;-5.5109;
301.8000;1.4994;-5.4977;
302.1000;1.5002;-5.4977;
302.4000;1.4994;-5.5003;
302.7000;1.4994;-5.5003;
303.0000;1.4904;-5.5267;
303.3000;1.4994;-5.5083;
303.6000;1.4978;-5.5109;
303.9000;1.4994;-5.5083;
304.2000;1.5002;-5.5109;
304.5000;1.4994;-5.5083;
304.8000;1.5002;-5.5056;
305.1000;1.4969;-5.5003;
305.4000;1.5002;-5.4898;
305.7000;1.5002;-5.4818;
306.0000;1.5010;-5.4766;
306.3000;1.4969;-5.4924;
306.6000;1.5010;-5.4845;
306.9000;1.4994;-5.4977;
307.2000;1.4937;-5.5109;
307.5000;1.5002;-5.4951;
307.8000;1.5010;-5.4977;
308.1000;1.4994;-5.5003;
308.4000;1.4961;-5.5056;
308.7000;1.4994;-5.5030;
309.0000;1.5026;-5.4977;
309.3000;1.5026;-5.4951;
309.6000;1.5002;-5.4924;
309.9000;1.5010;-5.4951;
310.2000;1.5002;-5.5083;
310.5000;1.5010;-5.5109;
310.8000;1.5002;-5.5056;
311.1000;1.5002;-5.5162;
311.4000;1.5002;-5.5188;
311.7000;1.5002;-5.5135;
312.0000;1.4986;-5.5188;
312.3000;1.4978;-5.5135;
312.6000;1.4994;-5.5162;
312.9000;1.4994;-5.5188;
313.2000;1.4994;-5.5162;
313.5000;1.5002;-5.5030;
313.8000;1.4986;-5.5109;
314.1000;1.5002;-5.5109;
314.4000;1.4994;-5.5083;
314.7000;1.5010;-5.4951;
315.0000;1.4994;-5.5003;
315.3000;1.5010;-5.4951;
315.6000;1.4986;-5.4951;
315.9000;1.4978;-5.5109;
316.2000;1.5002;-5.5056;
316.5000;1.5092;-5.4818;
316.8000;1.5002;-5.4977;
317.1000;1.4953;-5.5109;
317.4000;1.4945;-5.5135;
317.7000;1.4994;-5.5030;
318.0000;1.4986;-5.5056;
318.3000;1.4978;-5.5135;
318.6000;1.4994;-5.5056;
318.9000;1.4994;-5.5083;
319.2000;1.4994;-5.5109;
319.5000;1.5010;-5.5056;
319.8000;1.4994;-5.5135;
320.1000;1.4978;-5.5083;
320.4000;1.4945;-5.5109;
320.7000;1.5002;-5.5003;
321.0000;1.4994;-5.4977;
321.3000;1.5010;-5.5056;
321.6000;1.5067;-5.4951;
321.9000;1.5018;-5.5030;
322.2000;1.4978;-5.4977;
322.5000;1.5002;-5.4792;
322.8000;1.4986;-5.4871;
323.1000;1.5002;-5.4898;
323.4000;1.4912;-5.5109;
323.7000;1.4961;-5.5056;
324.0000;1.4986;-5.5003;
324.3000;1.4986;-5.4924;
324.6000;1.4978;-5.5030;
324.9000;1.4986;-5.5003;
325.2000;1.4986;-5.5003;
325.5000;1.5002;-5.4977;
325.8000;1.4994;-5.4951;
326.1000;1.4986;-5.4951;
326.4000;1.4986;-5.4977;
326.7000;1.4994;-5.4951;
327.0000;1.5010;-5.4818;
327.3000;1.4986;-5.4818;
327.6000;1.4986;-5.4818;
327.9000;1.4945;-5.4977;
328.2000;1.5002;-5.4845;
328.5000;1.4978;-5.5083;
328.8000;1.4969;-5.5215;
329.1000;1.4978;-5.5135;
329.4000;1.4986;-5.5162;
329.7000;1.4986;-5.5135;
330.0000;1.4978;-5.5135;
330.3000;1.4945;-5.5294;
330.6000;1.4978;-5.5294;
330.9000;1.4978;-5.5373;
331.2000;1.5059;-5.5162;
331.5000;1.5002;-5.5294;
331.8000;1.4994;-5.5241;
332.1000;1.4945;-5.5320;
332.4000;1.4978;-5.5188;
332.7000;1.4986;-5.5056;
333.0000;1.4986;-5.5003;
333.3000;1.4978;-5.5083;
333.6000;1.4978;-5.5003;
333.9000;1.4921;-5.5083;
334.2000;1.4969;-5.4898;
334.5000;1.4961;-5.4871;
334.8000;1.4986;-5.4845;
335.1000;1.5002;-5.4713;
335.4000;1.4961;-5.4792;
335.7000;1.4986;-5.4660;
336.0000;1.4986;-5.4818;
336.3000;1.5002;-5.4766;
336.6000;1.4986;-5.4792;
336.9000;1.4904;-5.5030;
337.2000;1.4969;-5.4898;
337.5000;1.5010;-5.4845;
337.8000;1.4978;-5.4924;
338.1000;1.4986;-5.4977;
338.4000;1.4978;-5.4977;
338.7000;1.4969;-5.4977;
339.0000;1.4978;-5.5003;
339.3000;1.4961;-5.5083;
339.6000;1.4969;-5.5003;
339.9000;1.5051;-5.4871;
340.2000;1.4986;-5.4898;
340.5000;1.4994;-5.4898;
340.8000;1.4978;-5.5003;
341.1000;1.4978;-5.5056;
341.4000;1.4986;-5.5083;
341.7000;1.4921;-5.5135;
342.0000;1.5051;-5.4818;
342.3000;1.5059;-5.4818;
342.6000;1.4953;-5.5030;
342.9000;1.4994;-5.4977;
343.2000;1.4994;-5.4898;
343.5000;1.5002;-5.4871;
343.8000;1.4994;-5.4898;
344.1000;1.4969;-5.4951;
344.4000;1.4994;-5.4871;
344.7000;1.4969;-5.4924;
345.0000;1.4978;-5.4818;
345.3000;1.4961;-5.4898;
345.6000;1.4961;-5.4845;
345.9000;1.4978;-5.4871;
346.2000;1.4986;-5.4845;
346.5000;1.4961;-5.4898;
346.8000;1.4945;-5.4951;
347.1000;1.5002;-5.4766;
347.4000;1.4986;-5.4898;
347.7000;1.4961;-5.4898;
348.0000;1.4978;-5.4766;
348.3000;1.4953;-5.4845;
348.6000;1.4961;-5.4924;
348.9000;1.4961;-5.4951;
349.2000;1.4953;-5.5003;
349.5000;1.4961;-5.5030;
349.8000;1.4969;-5.5003;
350.1000;1.4978;-5.5003;
350.4000;1.4953;-5.5030;
350.7000;1.4961;-5.5003;
351.0000;1.4961;-5.5056;
351.3000;1.4961;-5.4977;
351.6000;1.4969;-5.4951;
351.9000;1.4969;-5.4898;
352.2000;1.4978;-5.4977;
352.5000;1.4986;-5.5030;
352.8000;1.4969;-5.5056;
353.1000;1.4953;-5.5056;
353.4000;1.4961;-5.5056;
353.7000;1.4961;-5.5030;
354.0000;1.4953;-5.4977;
354.3000;1.4994;-5.4871;
354.6000;1.4945;-5.5083;
354.9000;1.4969;-5.5003;
355.2000;1.4961;-5.5030;
355.5000;1.4978;-5.4977;
355.8000;1.4953;-5.5030;
356.1000;1.4945;-5.5056;
356.4000;1.4978;-5.5003;
356.7000;1.4945;-5.4977;
357.0000;1.4945;-5.4898;
357.3000;1.4969;-5.4818;
357.6000;1.4978;-5.4845;
357.9000;1.4961;-5.4871;
358.2000;1.5018;-5.4739;
358.5000;1.4929;-5.4898;
358.8000;1.4953;-5.4845;
359.1000;1.4937;-5.4845;
359.4000;1.4945;-5.4951;
359.7000;1.4896;-5.5215;
360.0000;1.4929;-5.5109;
360.3000;1.4953;-5.5003;
360.6000;1.4969;-5.4924;
360.9000;1.4904;-5.5003;
361.2000;1.4978;-5.4898;
361.5000;1.4978;-5.4924;
361.8000;1.4969;-5.4977;
362.1000;1.4961;-5.5056;
362.4000;1.4969;-5.5083;
362.7000;1.4969;-5.5030;
363.0000;1.4945;-5.5030;
363.3000;1.4937;-5.5003;
363.6000;1.4945;-5.5030;
363.9000;1.4969;-5.4977;
364.2000;1.4945;-5.4951;
364.5000;1.4953;-5.4951;
364.8000;1.4945;-5.4951;
365.1000;1.4978;-5.4871;
365.4000;1.4986;-5.4845;
365.7000;1.4953;-5.4977;
366.0000;1.4953;-5.4977;
366.3000;1.4953;-5.4898;
366.6000;1.4961;-5.4871;
366.9000;1.4961;-5.4898;
367.2000;1.4978;-5.4845;
367.5000;1.4969;-5.4898;
367.8000;1.4978;-5.4977;
368.1000;1.4953;-5.5003;
368.4000;1.4945;-5.4924;
368.7000;1.4921;-5.5003;
369.0000;1.4969;-5.4871;
369.3000;1.4969;-5.4818;
369.6000;1.4953;-5.4818;
369.9000;1.4961;-5.4845;
370.2000;1.4969;-5.4845;
370.5000;1.4961;-5.4898;
370.8000;1.4961;-5.4766;
371.1000;1.4953;-5.4845;
371.4000;1.4961;-5.4792;
371.7000;1.4945;-5.4739;
372.0000;1.4953;-5.4713;
372.3000;1.4945;-5.4792;
372.6000;1.4945;-5.4818;
372.9000;1.4969;-5.4792;
373.2000;1.4953;-5.4898;
373.5000;1.4953;-5.4845;
373.8000;1.4937;-5.4898;
374.1000;1.4921;-5.4898;
374.4000;1.4961;-5.4792;
374.7000;1.4953;-5.4818;
375.0000;1.4937;-5.4951;
375.3000;1.4904;-5.4977;
375.6000;1.4945;-5.4951;
375.9000;1.4953;-5.4898;
376.2000;1.4929;-5.5056;
376.5000;1.4953;-5.4977;
376.8000;1.4953;-5.4898;
377.1000;1.4953;-5.4924;
377.4000;1.4953;-5.4977;
377.7000;1.4945;-5.4951;
378.0000;1.4945;-5.4951;
378.3000;1.4945;-5.4898;
378.6000;1.4937;-5.4845;
378.9000;1.4937;-5.4898;
379.2000;1.4961;-5.4924;
379.5000;1.4953;-5.4977;
379.8000;1.4945;-5.4898;
380.1000;1.4921;-5.4924;
380.4000;1.4953;-5.4845;
380.7000;1.4945;-5.4818;
381.0000;1.4945;-5.4818;
381.3000;1.4912;-5.4898;
381.6000;1.4945;-5.4845;
381.9000;1.4921;-5.4924;
382.2000;1.4937;-5.4766;
382.5000;1.5035;-5.4581;
382.8000;1.4937;-5.4792;
383.1000;1.4969;-5.4739;
383.4000;1.4969;-5.4766;
383.7000;1.4864;-5.5030;
384.0000;1.4986;-5.4766;
384.3000;1.4945;-5.4818;
384.6000;1.4945;-5.4871;
384.9000;1.4961;-5.4951;
385.2000;1.4945;-5.4871;
385.5000;1.4896;-5.4951;
385.8000;1.4953;-5.4871;
386.1000;1.4953;-5.4792;
386.4000;1.4937;-5.4792;
386.7000;1.4945;-5.4739;
387.0000;1.4896;-5.4924;
387.3000;1.4945;-5.4766;
387.6000;1.4945;-5.4739;
387.9000;1.4986;-5.4713;
388.2000;1.4945;-5.4818;
388.5000;1.4953;-5.4818;
388.8000;1.4904;-5.4871;
389.1000;1.4945;-5.4818;
389.4000;1.4937;-5.4871;
389.7000;1.4953;-5.4871;
390.0000;1.4945;-5.4898;
390.3000;1.4937;-5.4766;
390.6000;1.4953;-5.4766;
390.9000;1.4953;-5.4818;
391.2000;1.4945;-5.4845;
391.5000;1.4929;-5.4845;
391.8000;1.4961;-5.4818;
392.1000;1.4961;-5.4898;
392.4000;1.4945;-5.4924;
392.7000;1.4945;-5.4977;
393.0000;1.4921;-5.5030;
393.3000;1.4929;-5.4951;
393.6000;1.4961;-5.4818;
393.9000;1.4978;-5.4818;
394.2000;1.4921;-5.4898;
394.5000;1.4953;-5.4818;
394.8000;1.4945;-5.4924;
395.1000;1.4937;-5.4977;
395.4000;1.4953;-5.4951;
395.7000;1.4945;-5.5083;
396.0000;1.4969;-5.5030;
396.3000;1.4937;-5.5109;
396.6000;1.4929;-5.5241;
396.9000;1.4929;-5.5241;
397.2000;1.4937;-5.5294;
397.5000;1.4921;-5.5320;
397.8000;1.4937;-5.5294;
398.1000;1.4904;-5.5399;
398.4000;1.4978;-5.5162;
398.7000;1.4953;-5.5241;
399.0000;1.4929;-5.5241;
399.3000;1.4929;-5.5241;
399.6000;1.4937;-5.5215;
399.9000;1.4945;-5.5215;
400.2000;1.4896;-5.5188;
400.5000;1.4929;-5.5135;
400.8000;1.4929;-5.5056;
401.1000;1.4945;-5.5056;
401.4000;1.4945;-5.5109;
401.7000;1.4945;-5.5109;
402.0000;1.4921;-5.5162;
402.3000;1.4945;-5.5083;
402.6000;1.4921;-5.5135;
402.9000;1.4929;-5.5135;
403.2000;1.4921;-5.5109;
403.5000;1.4937;-5.5083;
403.8000;1.4937;-5.5083;
404.1000;1.4937;-5.5109;
404.4000;1.4921;-5.5003;
404.7000;1.4937;-5.4951;
405.0000;1.4921;-5.4871;
405.3000;1.4921;-5.4871;
405.6000;1.4921;-5.4951;
405.9000;1.4921;-5.4898;
406.2000;1.4921;-5.4871;
406.5000;1.4929;-5.4871;
406.8000;1.4921;-5.4924;
407.1000;1.4945;-5.4766;
407.4000;1.4921;-5.4713;
407.7000;1.4921;-5.4713;
408.0000;1.4937;-5.4739;
408.3000;1.4912;-5.4845;
408.6000;1.4969;-5.4634;
408.9000;1.4921;-5.4713;
409.2000;1.4929;-5.4739;
409.5000;1.4986;-5.4607;
409.8000;1.4937;-5.4713;
410.1000;1.4945;-5.4713;
410.4000;1.4937;-5.4766;
410.7000;1.4921;-5.4766;
411.0000;1.4953;-5.4686;
411.3000;1.4921;-5.4766;
411.6000;1.4945;-5.4739;
411.9000;1.4937;-5.4845;
412.2000;1.4921;-5.4898;
412.5000;1.4937;-5.4845;
412.8000;1.4929;-5.4898;
413.1000;1.4904;-5.4871;
413.4000;1.4888;-5.4898;
413.7000;1.4904;-5.4898;
414.0000;1.4856;-5.5030;
414.3000;1.4921;-5.4898;
414.6000;1.4872;-5.5109;
414.9000;1.4921;-5.4924;
415.2000;1.4921;-5.4871;
415.5000;1.4945;-5.4713;
415.8000;1.4921;-5.4792;
416.1000;1.4921;-5.4898;
416.4000;1.4847;-5.5083;
416.7000;1.4904;-5.4924;
417.0000;1.4929;-5.4818;
417.3000;1.4912;-5.4818;
417.6000;1.5010;-5.4528;
417.9000;1.4904;-5.4792;
418.2000;1.4921;-5.4766;
418.5000;1.4929;-5.4766;
418.8000;1.4929;-5.4818;
419.1000;1.4929;-5.4845;
419.4000;1.4929;-5.4766;
419.7000;1.4921;-5.4898;
420.0000;1.4929;-5.4871;
420.3000;1.4904;-5.4924;
420.6000;1.4929;-5.4792;
420.9000;1.4945;-5.4766;
421.2000;1.4921;-5.4766;
421.5000;1.4937;-5.4739;
421.8000;1.4921;-5.4898;
422.1000;1.4921;-5.4845;
422.4000;1.4912;-5.4845;
422.7000;1.4929;-5.4792;
423.0000;1.4904;-5.4792;
423.3000;1.4912;-5.4792;
423.6000;1.4904;-5.4792;
423.9000;1.4921;-5.4713;
424.2000;1.4921;-5.4660;
424.5000;1.4896;-5.4739;
424.8000;1.4888;-5.4739;
425.1000;1.4888;-5.4713;
425.4000;1.4937;-5.4634;
425.7000;1.4953;-5.4660;
426.0000;1.4929;-5.4634;
426.3000;1.4921;-5.4634;
426.6000;1.4904;-5.4713;
426.9000;1.4912;-5.4766;
427.2000;1.4904;-5.4792;
427.5000;1.4904;-5.4713;
427.8000;1.4921;-5.4686;
428.1000;1.4912;-5.4792;
428.4000;1.4912;-5.4845;
428.7000;1.4912;-5.4766;
429.0000;1.4912;-5.4766;
429.3000;1.4929;-5.4713;
429.6000;1.4904;-5.4792;
429.9000;1.4921;-5.4739;
430.2000;1.4961;-5.4554;
430.5000;1.4896;-5.4660;
430.8000;1.4937;-5.4581;
431.1000;1.4904;-5.4607;
431.4000;1.4929;-5.4581;
431.7000;1.4880;-5.4792;
432.0000;1.4937;-5.4739;
432.3000;1.4912;-5.4818;
432.6000;1.4912;-5.4845;
432.9000;1.4921;-5.4739;
433.2000;1.4961;-5.4634;
433.5000;1.4864;-5.4845;
433.8000;1.4912;-5.4686;
434.1000;1.4896;-5.4660;
434.4000;1.4904;-5.4554;
434.7000;1.4912;-5.4607;
435.0000;1.4856;-5.4792;
435.3000;1.4896;-5.4713;
435.6000;1.4912;-5.4660;
435.9000;1.4896;-5.4607;
436.2000;1.4921;-5.4528;
436.5000;1.4904;-5.4581;
436.8000;1.4904;-5.4502;
437.1000;1.4921;-5.4528;
437.4000;1.4896;-5.4581;
437.7000;1.4912;-5.4581;
438.0000;1.4896;-5.4475;
438.3000;1.4904;-5.4502;
438.6000;1.4856;-5.4581;
438.9000;1.4912;-5.4502;
439.2000;1.4904;-5.4528;
439.5000;1.4888;-5.4554;
439.8000;1.4896;-5.4502;
440.1000;1.4880;-5.4554;
440.4000;1.4961;-5.4370;
440.7000;1.4888;-5.4449;
441.0000;1.4921;-5.4370;
441.3000;1.4896;-5.4422;
441.6000;1.4904;-5.4449;
441.9000;1.4912;-5.4475;
442.2000;1.4921;-5.4422;
442.5000;1.4929;-5.4475;
442.8000;1.4896;-5.4581;
443.1000;1.4921;-5.4607;
443.4000;1.4921;-5.4660;
443.7000;1.4921;-5.4686;
444.0000;1.4904;-5.4818;
444.3000;1.4937;-5.4686;
444.6000;1.4912;-5.4739;
444.9000;1.4921;-5.4739;
445.2000;1.4912;-5.4818;
445.5000;1.4929;-5.4766;
445.8000;1.4921;-5.4739;
446.1000;1.4912;-5.4792;
446.4000;1.4896;-5.4871;
446.7000;1.4921;-5.4818;
447.0000;1.4912;-5.4871;
447.3000;1.4864;-5.4951;
447.6000;1.4912;-5.4898;
447.9000;1.4912;-5.4898;
448.2000;1.4904;-5.4845;
448.5000;1.4912;-5.4951;
448.8000;1.4921;-5.4924;
449.1000;1.4880;-5.4871;
449.4000;1.4880;-5.4924;
449.7000;1.4904;-5.4924;
450.0000;1.4896;-5.4871;
450.3000;1.4888;-5.4977;
450.6000;1.4904;-5.4951;
450.9000;1.4904;-5.4924;
451.2000;1.4937;-5.4845;
451.5000;1.4888;-5.4977;
451.8000;1.4896;-5.4898;
452.1000;1.4896;-5.4871;
452.4000;1.4961;-5.4713;
452.7000;1.4880;-5.4766;
453.0000;1.4896;-5.4713;
453.3000;1.4872;-5.4766;
453.6000;1.4888;-5.4713;
453.9000;1.4880;-5.4792;
454.2000;1.4888;-5.4766;
454.5000;1.4856;-5.4924;
454.8000;1.4912;-5.4713;
455.1000;1.4896;-5.4686;
455.4000;1.4978;-5.4528;
455.7000;1.4904;-5.4818;
456.0000;1.4921;-5.4845;
456.3000;1.4912;-5.4818;
456.6000;1.4945;-5.4713;
456.9000;1.4904;-5.4766;
457.2000;1.4904;-5.4845;
457.5000;1.4880;-5.4898;
457.8000;1.4880;-5.4898;
458.1000;1.4896;-5.4818;
458.4000;1.4880;-5.4766;
458.7000;1.4864;-5.4898;
459.0000;1.4872;-5.4871;
459.3000;1.4880;-5.4845;
459.6000;1.4880;-5.4871;
459.9000;1.4872;-5.4898;
460.2000;1.4888;-5.4898;
460.5000;1.4872;-5.4845;
460.8000;1.4904;-5.4818;
461.1000;1.4888;-5.4845;
461.4000;1.4888;-5.4845;
461.7000;1.4872;-5.4871;
462.0000;1.4896;-5.4766;
462.3000;1.4880;-5.4766;
462.6000;1.4888;-5.4766;
462.9000;1.4896;-5.4713;
463.2000;1.4888;-5.4713;
463.5000;1.4896;-5.4686;
463.8000;1.4888;-5.4686;
464.1000;1.4888;-5.4660;
464.4000;1.4896;-5.4634;
464.7000;1.4888;-5.4660;
465.0000;1.4880;-5.4660;
465.3000;1.4904;-5.4607;
465.6000;1.4880;-5.4607;
465.9000;1.4896;-5.4634;
466.2000;1.4896;-5.4660;
466.5000;1.4888;-5.4660;
466.8000;1.4872;-5.4581;
467.1000;1.4872;-5.4554;
467.4000;1.4912;-5.4422;
467.7000;1.4888;-5.4502;
468.0000;1.4888;-5.4554;
468.3000;1.4953;-5.4475;
468.6000;1.4888;-5.4581;
468.9000;1.4880;-5.4766;
469.2000;1.4912;-5.4686;
469.5000;1.4864;-5.4792;
469.8000;1.4823;-5.4924;
470.1000;1.4864;-5.4845;
470.4000;1.4880;-5.4898;
470.7000;1.4896;-5.4871;
471.0000;1.4872;-5.4898;
471.3000;1.4945;-5.4792;
471.6000;1.4904;-5.4951;
471.9000;1.4864;-5.5003;
472.2000;1.4872;-5.4845;
472.5000;1.4880;-5.4845;
472.8000;1.4880;-5.4845;
473.1000;1.4880;-5.4766;
473.4000;1.4864;-5.4898;
473.7000;1.4880;-5.4660;
474.0000;1.4888;-5.4660;
474.3000;1.4896;-5.4634;
474.6000;1.4880;-5.4792;
474.9000;1.4872;-5.4924;
475.2000;1.4880;-5.4924;
475.5000;1.4937;-5.4818;
475.8000;1.4888;-5.4977;
476.1000;1.4896;-5.4951;
476.4000;1.4896;-5.4898;
476.7000;1.4904;-5.4845;
477.0000;1.4896;-5.4766;
477.3000;1.4880;-5.4686;
477.6000;1.4831;-5.4792;
477.9000;1.4945;-5.4475;
478.2000;1.4872;-5.4713;
478.5000;1.4929;-5.4581;
478.8000;1.4847;-5.4818;
479.1000;1.4904;-5.4713;
479.4000;1.4896;-5.4634;
479.7000;1.4880;-5.4660;
480.0000;1.4864;-5.4686;
480.3000;1.4896;-5.4607;
480.6000;1.4896;-5.4634;
480.9000;1.4839;-5.4792;
481.2000;1.4856;-5.4713;
481.5000;1.4880;-5.4739;
481.8000;1.4896;-5.4686;
482.1000;1.4896;-5.4686;
482.4000;1.4872;-5.4766;
482.7000;1.4864;-5.4792;
483.0000;1.4904;-5.4739;
483.3000;1.4888;-5.4739;
483.6000;1.4847;-5.4818;
483.9000;1.4888;-5.4607;
484.2000;1.4864;-5.4554;
484.5000;1.4888;-5.4502;
484.8000;1.4937;-5.4317;
485.1000;1.4888;-5.4449;
485.4000;1.4872;-5.4475;
485.7000;1.4912;-5.4422;
486.0000;1.4896;-5.4528;
486.3000;1.4904;-5.4528;
486.6000;1.4912;-5.4502;
486.9000;1.4847;-5.4686;
487.2000;1.4880;-5.4634;
487.5000;1.4880;-5.4607;
487.8000;1.4872;-5.4634;
488.1000;1.4872;-5.4660;
488.4000;1.4880;-5.4660;
488.7000;1.4864;-5.4660;
489.0000;1.4872;-5.4607;
489.3000;1.4872;-5.4554;
489.6000;1.4880;-5.4554;
489.9000;1.4937;-5.4502;
490.2000;1.4839;-5.4818;
490.5000;1.4872;-5.4607;
490.8000;1.4880;-5.4660;
491.1000;1.4888;-5.4686;
491.4000;1.4872;-5.4739;
491.7000;1.4880;-5.4713;
492.0000;1.4872;-5.4660;
492.3000;1.4896;-5.4502;
492.6000;1.4864;-5.4528;
492.9000;1.4872;-5.4581;
493.2000;1.4839;-5.4660;
493.5000;1.4888;-5.4581;
493.8000;1.4872;-5.4660;
494.1000;1.4872;-5.4660;
494.4000;1.4880;-5.4634;
494.7000;1.4864;-5.4713;
495.0000;1.4856;-5.4792;
495.3000;1.4872;-5.4713;
495.6000;1.4864;-5.4686;
495.9000;1.4864;-5.4686;
496.2000;1.4864;-5.4739;
496.5000;1.4847;-5.4792;
496.8000;1.4872;-5.4739;
497.1000;1.4880;-5.4792;
497.4000;1.4872;-5.4713;
497.7000;1.4864;-5.4739;
498.0000;1.4872;-5.4660;
498.3000;1.4872;-5.4581;
498.6000;1.4888;-5.4581;
498.9000;1.4872;-5.4686;
499.2000;1.4896;-5.4713;
499.5000;1.4880;-5.4766;
499.8000;1.4880;-5.4686;
500.1000;1.4896;-5.4660;
500.4000;1.4872;-5.4660;
500.7000;1.4880;-5.4634;
501.0000;1.4880;-5.4660;
501.3000;1.4888;-5.4554;
501.6000;1.4872;-5.4607;
501.9000;1.4864;-5.4581;
502.2000;1.4872;-5.4528;
502.5000;1.4880;-5.4502;
502.8000;1.4807;-5.4634;
503.1000;1.4856;-5.4475;
503.4000;1.4872;-5.4422;
503.7000;1.4880;-5.4449;
504.0000;1.4880;-5.4502;
504.3000;1.4831;-5.4581;
504.6000;1.4872;-5.4475;
504.9000;1.4880;-5.4528;
505.2000;1.4864;-5.4528;
505.5000;1.4872;-5.4528;
505.8000;1.4872;-5.4528;
506.1000;1.4864;-5.4607;
506.4000;1.4872;-5.4686;
506.7000;1.4856;-5.4634;
507.0000;1.4872;-5.4607;
507.3000;1.4872;-5.4660;
507.6000;1.4815;-5.4634;
507.9000;1.4856;-5.4554;
508.2000;1.4856;-5.4660;
508.5000;1.4864;-5.4686;
508.8000;1.4872;-5.4581;
509.1000;1.4872;-5.4554;
509.4000;1.4872;-5.4554;
509.7000;1.4856;-5.4634;
510.0000;1.4839;-5.4634;
510.3000;1.4864;-5.4502;
510.6000;1.4864;-5.4607;
510.9000;1.4856;-5.4660;
511.2000;1.4864;-5.4686;
511.5000;1.4864;-5.4634;
511.8000;1.4864;-5.4581;
512.1000;1.4872;-5.4634;
512.4000;1.4872;-5.4660;
512.7000;1.4872;-5.4607;
513.0000;1.4864;-5.4634;
513.3000;1.4880;-5.4581;
513.6000;1.4888;-5.4607;
513.9000;1.4872;-5.4581;
514.2000;1.4888;-5.4502;
514.5000;1.4856;-5.4528;
514.8000;1.4864;-5.4528;
515.1000;1.4856;-5.4475;
515.4000;1.4856;-5.4422;
515.7000;1.4864;-5.4449;
516.0000;1.4847;-5.4422;
516.3000;1.4823;-5.4502;
516.6000;1.4872;-5.4396;
516.9000;1.4799;-5.4581;
517.2000;1.4847;-5.4422;
517.5000;1.4888;-5.4343;
517.8000;1.4839;-5.4422;
518.1000;1.4872;-5.4370;
518.4000;1.4856;-5.4396;
518.7000;1.4864;-5.4317;
519.0000;1.4856;-5.4370;
519.3000;1.4872;-5.4290;
519.6000;1.4872;-5.4343;
519.9000;1.4864;-5.4396;
520.2000;1.4872;-5.4370;
520.5000;1.4864;-5.4475;
520.8000;1.4847;-5.4502;
521.1000;1.4815;-5.4686;
521.4000;1.4847;-5.4607;
521.7000;1.4856;-5.4554;
522.0000;1.4847;-5.4528;
522.3000;1.4856;-5.4396;
522.6000;1.4904;-5.4264;
522.9000;1.4839;-5.4422;
523.2000;1.4847;-5.4290;
523.5000;1.4856;-5.4343;
523.8000;1.4856;-5.4343;
524.1000;1.4896;-5.4185;
524.4000;1.4864;-5.4290;
524.7000;1.4823;-5.4422;
525.0000;1.4823;-5.4422;
525.3000;1.4864;-5.4290;
525.6000;1.4864;-5.4264;
525.9000;1.4864;-5.4290;
526.2000;1.4864;-5.4343;
526.5000;1.4856;-5.4396;
526.8000;1.4856;-5.4343;
527.1000;1.4921;-5.4238;
527.4000;1.4856;-5.4370;
527.7000;1.4847;-5.4449;
528.0000;1.4864;-5.4396;
528.3000;1.4856;-5.4396;
528.6000;1.4815;-5.4502;
528.9000;1.4856;-5.4396;
529.2000;1.4896;-5.4317;
529.5000;1.4856;-5.4396;
529.8000;1.4847;-5.4449;
530.1000;1.4847;-5.4370;
530.4000;1.4864;-5.4238;
530.7000;1.4856;-5.4158;
531.0000;1.4839;-5.4238;
531.3000;1.4847;-5.4185;
531.6000;1.4839;-5.4185;
531.9000;1.4847;-5.4264;
532.2000;1.4847;-5.4290;
532.5000;1.4815;-5.4290;
532.8000;1.4831;-5.4264;
533.1000;1.4872;-5.4158;
533.4000;1.4847;-5.4211;
533.7000;1.4847;-5.4158;
534.0000;1.4847;-5.4238;
534.3000;1.4880;-5.4158;
534.6000;1.4872;-5.4158;
534.9000;1.4847;-5.4211;
535.2000;1.4856;-5.4238;
535.5000;1.4847;-5.4211;
535.8000;1.4856;-5.4185;
536.1000;1.4839;-5.4185;
536.4000;1.4847;-5.4158;
536.7000;1.4856;-5.4158;
537.0000;1.4856;-5.4185;
537.3000;1.4856;-5.4185;
537.6000;1.4831;-5.4264;
537.9000;1.4847;-5.4158;
538.2000;1.4872;-5.4079;
538.5000;1.4847;-5.4132;
538.8000;1.4847;-5.4079;
539.1000;1.4823;-5.4132;
539.4000;1.4872;-5.3921;
539.7000;1.4847;-5.3973;
540.0000;1.4929;-5.3815;
540.3000;1.4904;-5.4000;
540.6000;1.4831;-5.4158;
540.9000;1.4864;-5.4053;
541.2000;1.4807;-5.4158;
541.5000;1.4831;-5.4053;
541.8000;1.4856;-5.4079;
542.1000;1.4856;-5.4026;
542.4000;1.4856;-5.4053;
542.7000;1.4839;-5.4079;
543.0000;1.4839;-5.4079;
543.3000;1.4839;-5.4158;
543.6000;1.4847;-5.4106;
543.9000;1.4815;-5.4158;
544.2000;1.4847;-5.4053;
544.5000;1.4847;-5.3973;
544.8000;1.4847;-5.3973;
545.1000;1.4856;-5.4026;
545.4000;1.4880;-5.3973;
545.7000;1.4856;-5.4026;
546.0000;1.4856;-5.4026;
546.3000;1.4847;-5.4026;
546.6000;1.4872;-5.4000;
546.9000;1.4880;-5.4053;
547.2000;1.4872;-5.4079;
547.5000;1.4847;-5.4106;
547.8000;1.4839;-5.4000;
548.1000;1.4856;-5.4000;
548.4000;1.4831;-5.4000;
548.7000;1.4912;-5.3815;
549.0000;1.4815;-5.4026;
549.3000;1.4847;-5.3894;
549.6000;1.4864;-5.3868;
549.9000;1.4864;-5.3868;
550.2000;1.4847;-5.3921;
550.5000;1.4847;-5.4026;
550.8000;1.4847;-5.4026;
551.1000;1.4847;-5.4106;
551.4000;1.4856;-5.4053;
551.7000;1.4823;-5.4132;
552.0000;1.4831;-5.4132;
552.3000;1.4839;-5.4158;
552.6000;1.4856;-5.4132;
552.9000;1.4847;-5.4106;
553.2000;1.4864;-5.4079;
553.5000;1.4864;-5.4185;
553.8000;1.4839;-5.4264;
554.1000;1.4847;-5.4185;
554.4000;1.4847;-5.4158;
554.7000;1.4782;-5.4238;
555.0000;1.4831;-5.4079;
555.3000;1.4831;-5.4079;
555.6000;1.4839;-5.4079;
555.9000;1.4839;-5.4026;
556.2000;1.4847;-5.4053;
556.5000;1.4831;-5.4132;
556.8000;1.4839;-5.4132;
557.1000;1.4847;-5.4132;
557.4000;1.4864;-5.4053;
557.7000;1.4864;-5.4000;
558.0000;1.4839;-5.3947;
558.3000;1.4839;-5.3973;
558.6000;1.4847;-5.3973;
558.9000;1.4839;-5.4026;
559.2000;1.4839;-5.3973;
559.5000;1.4823;-5.3947;
559.8000;1.4856;-5.3868;
560.1000;1.4856;-5.3762;
560.4000;1.4856;-5.3789;
560.7000;1.4839;-5.3921;
561.0000;1.4831;-5.3894;
561.3000;1.4774;-5.4026;
561.6000;1.4831;-5.3973;
561.9000;1.4847;-5.3921;
562.2000;1.4872;-5.3841;
562.5000;1.4839;-5.3973;
562.8000;1.4839;-5.3973;
563.1000;1.4823;-5.3921;
563.4000;1.4847;-5.3868;
563.7000;1.4839;-5.3921;
564.0000;1.4880;-5.3841;
564.3000;1.4799;-5.4079;
564.6000;1.4847;-5.4053;
564.9000;1.4839;-5.4026;
565.2000;1.4847;-5.4053;
565.5000;1.4847;-5.3973;
565.8000;1.4831;-5.3921;
566.1000;1.4872;-5.3789;
566.4000;1.4839;-5.3947;
566.7000;1.4823;-5.4026;
567.0000;1.4823;-5.3947;
567.3000;1.4823;-5.4053;
567.6000;1.4839;-5.4053;
567.9000;1.4831;-5.4026;
568.2000;1.4823;-5.4079;
568.5000;1.4782;-5.4185;
568.8000;1.4847;-5.4106;
569.1000;1.4831;-5.4158;
569.4000;1.4847;-5.4106;
569.7000;1.4839;-5.4079;
570.0000;1.4839;-5.4053;
570.3000;1.4831;-5.4079;
570.6000;1.4839;-5.4053;
570.9000;1.4847;-5.4106;
571.2000;1.4856;-5.4079;
571.5000;1.4929;-5.3841;
571.8000;1.4937;-5.3921;
572.1000;1.4807;-5.4158;
572.4000;1.4904;-5.3921;
572.7000;1.4937;-5.3894;
573.0000;1.4856;-5.4079;
573.3000;1.4839;-5.4079;
573.6000;1.4856;-5.4026;
573.9000;1.4799;-5.4158;
574.2000;1.4864;-5.3973;
574.5000;1.4831;-5.4026;
574.8000;1.4831;-5.4106;
575.1000;1.4823;-5.4158;
575.4000;1.4839;-5.4158;
575.7000;1.4912;-5.3921;
576.0000;1.4831;-5.4053;
576.3000;1.4831;-5.4000;
576.6000;1.4839;-5.3973;
576.9000;1.4831;-5.4000;
577.2000;1.4839;-5.4079;
577.5000;1.4839;-5.4053;
577.8000;1.4839;-5.4000;
578.1000;1.4839;-5.4026;
578.4000;1.4823;-5.4000;
578.7000;1.4831;-5.3921;
579.0000;1.4847;-5.3921;
579.3000;1.4847;-5.3947;
579.6000;1.4839;-5.4053;
579.9000;1.4831;-5.4211;
580.2000;1.4823;-5.4185;
580.5000;1.4839;-5.4132;
580.8000;1.4847;-5.4158;
581.1000;1.4831;-5.4106;
581.4000;1.4847;-5.4053;
581.7000;1.4847;-5.4132;
582.0000;1.4823;-5.4132;
582.3000;1.4839;-5.4079;
582.6000;1.4823;-5.4079;
582.9000;1.4823;-5.4106;
583.2000;1.4807;-5.4158;
583.5000;1.4823;-5.4158;
583.8000;1.4831;-5.4211;
584.1000;1.4815;-5.4264;
584.4000;1.4839;-5.4211;
584.7000;1.4815;-5.4185;
585.0000;1.4831;-5.4158;
585.3000;1.4823;-5.4132;
585.6000;1.4864;-5.4026;
585.9000;1.4847;-5.4079;
586.2000;1.4766;-5.4264;
586.5000;1.4807;-5.4053;
586.8000;1.4839;-5.3973;
587.1000;1.4839;-5.4000;
587.4000;1.4831;-5.4000;
587.7000;1.4823;-5.4132;
588.0000;1.4839;-5.4132;
588.3000;1.4856;-5.4000;
588.6000;1.4847;-5.4079;
588.9000;1.4823;-5.4106;
589.2000;1.4815;-5.4106;
589.5000;1.4831;-5.4079;
589.8000;1.4831;-5.4079;
590.1000;1.4823;-5.4053;
590.4000;1.4831;-5.4053;
590.7000;1.4823;-5.4079;
591.0000;1.4831;-5.4079;
591.3000;1.4823;-5.4158;
591.6000;1.4831;-5.4079;
591.9000;1.4856;-5.4000;
592.2000;1.4847;-5.4079;
592.5000;1.4839;-5.4106;
592.8000;1.4831;-5.4000;
593.1000;1.4839;-5.3947;
593.4000;1.4839;-5.4026;
593.7000;1.4823;-5.4053;
594.0000;1.4815;-5.4079;
594.3000;1.4847;-5.3973;
594.6000;1.4896;-5.3815;
594.9000;1.4864;-5.4000;
595.2000;1.4856;-5.4053;
595.5000;1.4847;-5.4158;
595.8000;1.4815;-5.4158;
596.1000;1.4847;-5.4053;
596.4000;1.4839;-5.4026;
596.7000;1.4831;-5.4026;
597.0000;1.4839;-5.3973;
597.3000;1.4839;-5.3947;
597.6000;1.4839;-5.3921;
597.9000;1.4823;-5.3947;
598.2000;1.4823;-5.4000;
598.5000;1.4839;-5.4026;
598.8000;1.4864;-5.4026;
599.1000;1.4831;-5.4000;
599.4000;1.4831;-5.4000;
599.7000;1.4831;-5.3973;
600.0000;1.4799;-5.4053;
600.3000;1.4823;-5.4158;
600.6000;1.4766;-5.4502;
600.9000;1.4693;-5.4686;
601.2000;1.4652;-5.4766;
601.5000;1.4489;-5.5109;
601.8000;1.4367;-5.5373;
602.1000;1.4261;-5.5479;
602.4000;1.4115;-5.5637;
602.7000;1.4017;-5.5822;
603.0000;1.3895;-5.5954;
603.3000;1.3789;-5.6060;
603.6000;1.3675;-5.6139;
603.9000;1.3578;-5.6244;
604.2000;1.3398;-5.6482;
604.5000;1.3390;-5.6350;
604.8000;1.3293;-5.6376;
605.1000;1.3219;-5.6429;
605.4000;1.3138;-5.6561;
605.7000;1.3065;-5.6640;
606.0000;1.2983;-5.6720;
606.3000;1.2934;-5.6799;
606.6000;1.2845;-5.6825;
606.9000;1.2780;-5.6931;
607.2000;1.2690;-5.7089;
607.5000;1.2674;-5.7037;
607.8000;1.2617;-5.6984;
608.1000;1.2527;-5.7037;
608.4000;1.2462;-5.7010;
608.7000;1.2446;-5.6905;
609.0000;1.2357;-5.6984;
609.3000;1.2324;-5.6957;
609.6000;1.2251;-5.7037;
609.9000;1.2243;-5.6905;
610.2000;1.2145;-5.7010;
610.5000;1.2137;-5.6878;
610.8000;1.2096;-5.6957;
611.1000;1.2055;-5.7010;
611.4000;1.2023;-5.7037;
611.7000;1.1990;-5.7037;
612.0000;1.1958;-5.7010;
612.3000;1.1917;-5.7010;
612.6000;1.1901;-5.6931;
612.9000;1.1860;-5.6905;
613.2000;1.1803;-5.6852;
613.5000;1.1779;-5.6957;
613.8000;1.1738;-5.7010;
614.1000;1.1746;-5.6984;
614.4000;1.1689;-5.7037;
614.7000;1.1656;-5.7116;
615.0000;1.1624;-5.7037;
615.3000;1.1616;-5.7063;
615.6000;1.1567;-5.7116;
615.9000;1.1534;-5.7063;
616.2000;1.1518;-5.7089;
616.5000;1.1494;-5.7116;
616.8000;1.1445;-5.7169;
617.1000;1.1453;-5.7063;
617.4000;1.1453;-5.6957;
617.7000;1.1388;-5.7116;
618.0000;1.1396;-5.7116;
618.3000;1.1323;-5.7116;
618.6000;1.1306;-5.7089;
618.9000;1.1290;-5.7037;
619.2000;1.1266;-5.7063;
619.5000;1.1241;-5.7063;
619.8000;1.1225;-5.7142;
620.1000;1.1209;-5.7195;
620.4000;1.1168;-5.7248;
620.7000;1.1160;-5.7248;
621.0000;1.1144;-5.7353;
621.3000;1.1103;-5.7327;
621.6000;1.1103;-5.7221;
621.9000;1.1095;-5.7142;
622.2000;1.1038;-5.7142;
622.5000;1.1054;-5.7063;
622.8000;1.1062;-5.6931;
623.1000;1.1022;-5.7037;
623.4000;1.0989;-5.7010;
623.7000;1.0956;-5.7089;
624.0000;1.0965;-5.7063;
624.3000;1.0940;-5.7089;
624.6000;1.0924;-5.7195;
624.9000;1.0891;-5.7195;
625.2000;1.0891;-5.7142;
625.5000;1.0859;-5.7169;
625.8000;1.0883;-5.7116;
626.1000;1.0834;-5.7274;
626.4000;1.0826;-5.7274;
626.7000;1.0818;-5.7195;
627.0000;1.0786;-5.7169;
627.3000;1.0786;-5.7169;
627.6000;1.0786;-5.7037;
627.9000;1.0753;-5.6984;
628.2000;1.0745;-5.7116;
628.5000;1.0729;-5.7116;
628.8000;1.0696;-5.7063;
629.1000;1.0696;-5.6984;
629.4000;1.0688;-5.6878;
629.7000;1.0672;-5.7010;
630.0000;1.0647;-5.7037;
630.3000;1.0647;-5.7089;
630.6000;1.0623;-5.7169;
630.9000;1.0606;-5.7169;
631.2000;1.0590;-5.7195;
631.5000;1.0582;-5.7116;
631.8000;1.0558;-5.7169;
632.1000;1.0541;-5.7063;
632.4000;1.0525;-5.7089;
632.7000;1.0501;-5.7010;
633.0000;1.0476;-5.7063;
633.3000;1.0501;-5.6984;
633.6000;1.0476;-5.7037;
633.9000;1.0468;-5.7010;
634.2000;1.0468;-5.6957;
634.5000;1.0460;-5.6931;
634.8000;1.0444;-5.7010;
635.1000;1.0419;-5.7063;
635.4000;1.0411;-5.7063;
635.7000;1.0403;-5.7037;
636.0000;1.0419;-5.6957;
636.3000;1.0338;-5.7116;
636.6000;1.0387;-5.7089;
636.9000;1.0362;-5.7142;
637.2000;1.0346;-5.7116;
637.5000;1.0313;-5.7195;
637.8000;1.0330;-5.7116;
638.1000;1.0313;-5.7063;
638.4000;1.0297;-5.7063;
638.7000;1.0273;-5.7089;
639.0000;1.0256;-5.7116;
639.3000;1.0232;-5.7301;
639.6000;1.0265;-5.7116;
639.9000;1.0224;-5.7221;
640.2000;1.0224;-5.7116;
640.5000;1.0175;-5.7142;
640.8000;1.0216;-5.7037;
641.1000;1.0208;-5.7063;
641.4000;1.0208;-5.7063;
641.7000;1.0191;-5.7037;
642.0000;1.0167;-5.7116;
642.3000;1.0175;-5.7116;
642.6000;1.0167;-5.7169;
642.9000;1.0167;-5.7169;
643.2000;1.0126;-5.7195;
643.5000;1.0118;-5.7195;
643.8000;1.0102;-5.7169;
644.1000;1.0110;-5.7089;
644.4000;1.0094;-5.7142;
644.7000;1.0077;-5.7063;
645.0000;1.0085;-5.7010;
645.3000;1.0061;-5.7010;
645.6000;1.0028;-5.7037;
645.9000;1.0069;-5.7010;
646.2000;0.9963;-5.7195;
646.5000;1.0045;-5.7037;
646.8000;1.0102;-5.6931;
647.1000;1.0020;-5.7142;
647.4000;1.0020;-5.7169;
647.7000;0.9955;-5.7221;
648.0000;0.9963;-5.7063;
648.3000;0.9988;-5.7010;
648.6000;0.9947;-5.7063;
648.9000;0.9947;-5.7037;
649.2000;0.9931;-5.7089;
649.5000;0.9947;-5.7037;
649.8000;0.9931;-5.7063;
650.1000;0.9915;-5.7089;
650.4000;0.9915;-5.7169;
650.7000;0.9906;-5.7221;
651.0000;0.9890;-5.7116;
651.3000;0.9874;-5.7221;
651.6000;0.9898;-5.7221;
651.9000;0.9874;-5.7221;
652.2000;0.9809;-5.7353;
652.5000;0.9801;-5.7221;
652.8000;0.9825;-5.7063;
653.1000;0.9825;-5.7010;
653.4000;0.9833;-5.6957;
653.7000;0.9825;-5.7010;
654.0000;0.9809;-5.7063;
654.3000;0.9817;-5.6931;
654.6000;0.9752;-5.7116;
654.9000;0.9817;-5.6957;
655.2000;0.9784;-5.6984;
655.5000;0.9711;-5.7169;
655.8000;0.9760;-5.6984;
656.1000;0.9735;-5.7089;
656.4000;0.9744;-5.7037;
656.7000;0.9727;-5.7116;
657.0000;0.9711;-5.7221;
657.3000;0.9711;-5.7195;
657.6000;0.9727;-5.7142;
657.9000;0.9711;-5.7169;
658.2000;0.9670;-5.7221;
658.5000;0.9678;-5.7221;
658.8000;0.9678;-5.7169;
659.1000;0.9670;-5.7169;
659.4000;0.9670;-5.7169;
659.7000;0.9654;-5.7142;
660.0000;0.9654;-5.7116;
660.3000;0.9678;-5.7142;
660.6000;0.9613;-5.7301;
660.9000;0.9646;-5.7195;
661.2000;0.9621;-5.7221;
661.5000;0.9605;-5.7169;
661.8000;0.9573;-5.7274;
662.1000;0.9597;-5.7169;
662.4000;0.9548;-5.7274;
662.7000;0.9565;-5.7221;
663.0000;0.9540;-5.7274;
663.3000;0.9540;-5.7353;
663.6000;0.9573;-5.7142;
663.9000;0.9589;-5.7089;
664.2000;0.9540;-5.7169;
664.5000;0.9491;-5.7221;
664.8000;0.9524;-5.7116;
665.1000;0.9508;-5.7142;
665.4000;0.9540;-5.7063;
665.7000;0.9483;-5.7221;
666.0000;0.9508;-5.7248;
666.3000;0.9491;-5.7353;
666.6000;0.9491;-5.7274;
666.9000;0.9491;-5.7274;
667.2000;0.9483;-5.7301;
667.5000;0.9475;-5.7248;
667.8000;0.9475;-5.7169;
668.1000;0.9451;-5.7142;
668.4000;0.9451;-5.7116;
668.7000;0.9459;-5.7063;
669.0000;0.9410;-5.7221;
669.3000;0.9434;-5.7142;
669.6000;0.9434;-5.7089;
669.9000;0.9426;-5.7010;
670.2000;0.9402;-5.7010;
670.5000;0.9410;-5.6905;
670.8000;0.9402;-5.6957;
671.1000;0.9328;-5.7116;
671.4000;0.9353;-5.7037;
671.7000;0.9385;-5.6931;
672.0000;0.9377;-5.6905;
672.3000;0.9385;-5.6957;
672.6000;0.9353;-5.7037;
672.9000;0.9369;-5.6984;
673.2000;0.9345;-5.7116;
673.5000;0.9320;-5.7248;
673.8000;0.9353;-5.7169;
674.1000;0.9328;-5.7142;
674.4000;0.9320;-5.7142;
674.7000;0.9312;-5.7142;
675.0000;0.9304;-5.7195;
675.3000;0.9296;-5.7274;
675.6000;0.9288;-5.7248;
675.9000;0.9288;-5.7169;
676.2000;0.9280;-5.7169;
676.5000;0.9280;-5.7037;
676.8000;0.9271;-5.6984;
677.1000;0.9263;-5.7010;
677.4000;0.9263;-5.6984;
677.7000;0.9247;-5.7010;
678.0000;0.9255;-5.6984;
678.3000;0.9190;-5.7195;
678.6000;0.9214;-5.7063;
678.9000;0.9214;-5.7142;
679.2000;0.9223;-5.7116;
679.5000;0.9198;-5.7195;
679.8000;0.9214;-5.7195;
680.1000;0.9206;-5.7195;
680.4000;0.9206;-5.7195;
680.7000;0.9198;-5.7301;
681.0000;0.9174;-5.7248;
681.3000;0.9174;-5.7169;
681.6000;0.9174;-5.7169;
681.9000;0.9141;-5.7195;
682.2000;0.9109;-5.7221;
682.5000;0.9133;-5.7169;
682.8000;0.9174;-5.7063;
683.1000;0.9149;-5.7169;
683.4000;0.9117;-5.7089;
683.7000;0.9133;-5.7089;
684.0000;0.9141;-5.7089;
684.3000;0.9125;-5.7089;
684.6000;0.9174;-5.7037;
684.9000;0.9125;-5.7221;
685.2000;0.9117;-5.7169;
685.5000;0.9141;-5.7142;
685.8000;0.9149;-5.6957;
686.1000;0.9092;-5.7010;
686.4000;0.9092;-5.6984;
686.7000;0.9101;-5.6931;
687.0000;0.9141;-5.6825;
687.3000;0.9035;-5.7063;
687.6000;0.9084;-5.7010;
687.9000;0.9092;-5.7063;
688.2000;0.9052;-5.7142;
688.5000;0.9068;-5.7169;
688.8000;0.9052;-5.7116;
689.1000;0.9068;-5.7116;
689.4000;0.9068;-5.7116;
689.7000;0.9044;-5.7089;
690.0000;0.9011;-5.7169;
690.3000;0.9035;-5.7142;
690.6000;0.9019;-5.7142;
690.9000;0.9027;-5.7116;
691.2000;0.9011;-5.7037;
691.5000;0.9019;-5.6984;
691.8000;0.9035;-5.6957;
692.1000;0.9003;-5.6984;
692.4000;0.9011;-5.6878;
692.7000;0.9044;-5.6799;
693.0000;0.8987;-5.6931;
693.3000;0.8995;-5.6957;
693.6000;0.8970;-5.7010;
693.9000;0.8970;-5.7010;
694.2000;0.8954;-5.7063;
694.5000;0.8970;-5.7116;
694.8000;0.8970;-5.7116;
695.1000;0.8987;-5.7010;
695.4000;0.8954;-5.7037;
695.7000;0.8962;-5.6878;
696.0000;0.8946;-5.6957;
696.3000;0.8930;-5.7037;
696.6000;0.8913;-5.7116;
696.9000;0.8954;-5.6957;
697.2000;0.8913;-5.7037;
697.5000;0.8930;-5.7063;
697.8000;0.8913;-5.7010;
698.1000;0.8897;-5.7089;
698.4000;0.8921;-5.7063;
698.7000;0.8897;-5.7169;
699.0000;0.8921;-5.7116;
699.3000;0.8856;-5.7169;
699.6000;0.8897;-5.7063;
699.9000;0.8881;-5.7116;
700.2000;0.8889;-5.7116;
700.5000;0.8897;-5.7142;
700.8000;0.8881;-5.7142;
701.1000;0.8873;-5.7142;
701.4000;0.8897;-5.7010;
701.7000;0.8856;-5.7169;
702.0000;0.8864;-5.7142;
702.3000;0.8856;-5.7169;
702.6000;0.8864;-5.7063;
702.9000;0.8824;-5.7116;
703.2000;0.8856;-5.7063;
703.5000;0.8881;-5.7010;
703.8000;0.8840;-5.7142;
704.1000;0.8816;-5.7169;
704.4000;0.8816;-5.7142;
704.7000;0.8807;-5.7142;
705.0000;0.8807;-5.7142;
705.3000;0.8799;-5.7169;
705.6000;0.8873;-5.6984;
705.9000;0.8816;-5.7116;
706.2000;0.8775;-5.7195;
706.5000;0.8791;-5.7089;
706.8000;0.8791;-5.6957;
707.1000;0.8791;-5.7010;
707.4000;0.8775;-5.7037;
707.7000;0.8791;-5.7063;
708.0000;0.8775;-5.7089;
708.3000;0.8767;-5.7063;
708.6000;0.8742;-5.7169;
708.9000;0.8791;-5.6984;
709.2000;0.8742;-5.7037;
709.5000;0.8734;-5.7037;
709.8000;0.8767;-5.7010;
710.1000;0.8742;-5.7010;
710.4000;0.8742;-5.7089;
710.7000;0.8742;-5.7063;
711.0000;0.8726;-5.7089;
711.3000;0.8751;-5.7037;
711.6000;0.8726;-5.7116;
711.9000;0.8710;-5.7142;
712.2000;0.8710;-5.7142;
712.5000;0.8718;-5.7169;
712.8000;0.8702;-5.7248;
713.1000;0.8702;-5.7221;
713.4000;0.8710;-5.7169;
713.7000;0.8685;-5.7169;
714.0000;0.8694;-5.7142;
714.3000;0.8661;-5.7195;
714.6000;0.8645;-5.7248;
714.9000;0.8669;-5.7116;
715.2000;0.8685;-5.7010;
715.5000;0.8669;-5.7037;
715.8000;0.8694;-5.6984;
716.1000;0.8645;-5.7195;
716.4000;0.8661;-5.7089;
716.7000;0.8669;-5.7116;
717.0000;0.8653;-5.7089;
717.3000;0.8685;-5.6984;
717.6000;0.8661;-5.7010;
717.9000;0.8661;-5.6931;
718.2000;0.8645;-5.7010;
718.5000;0.8637;-5.7010;
718.8000;0.8653;-5.7010;
719.1000;0.8645;-5.7037;
719.4000;0.8620;-5.7142;
719.7000;0.8645;-5.7169;
720.0000;0.8628;-5.7221;
720.3000;0.8612;-5.7142;
720.6000;0.8612;-5.7063;
720.9000;0.8563;-5.7169;
721.2000;0.8604;-5.7089;
721.5000;0.8620;-5.7037;
721.8000;0.8547;-5.7221;
722.1000;0.8596;-5.7142;
722.4000;0.8506;-5.7301;
722.7000;0.8612;-5.7063;
723.0000;0.8588;-5.7142;
723.3000;0.8620;-5.7089;
723.6000;0.8563;-5.7142;
723.9000;0.8588;-5.7089;
724.2000;0.8580;-5.7142;
724.5000;0.8555;-5.7195;
724.8000;0.8580;-5.7116;
725.1000;0.8563;-5.7116;
725.4000;0.8604;-5.6905;
725.7000;0.8571;-5.6905;
726.0000;0.8555;-5.6957;
726.3000;0.8571;-5.6931;
726.6000;0.8580;-5.6905;
726.9000;0.8547;-5.6984;
727.2000;0.8539;-5.6957;
727.5000;0.8547;-5.7037;
727.8000;0.8547;-5.7037;
728.1000;0.8523;-5.7089;
728.4000;0.8539;-5.7063;
728.7000;0.8523;-5.7142;
729.0000;0.8523;-5.7089;
729.3000;0.8506;-5.7010;
729.6000;0.8506;-5.7063;
729.9000;0.8514;-5.7037;
730.2000;0.8514;-5.7037;
730.5000;0.8466;-5.7089;
730.8000;0.8506;-5.6957;
731.1000;0.8506;-5.7010;
731.4000;0.8506;-5.7037;
731.7000;0.8506;-5.7010;
732.0000;0.8474;-5.7089;
732.3000;0.8490;-5.7116;
732.6000;0.8490;-5.7063;
732.9000;0.8457;-5.7116;
733.2000;0.8482;-5.6957;
733.5000;0.8466;-5.7089;
733.8000;0.8490;-5.7037;
734.1000;0.8474;-5.7116;
734.4000;0.8482;-5.7195;
734.7000;0.8466;-5.7221;
735.0000;0.8466;-5.7248;
735.3000;0.8466;-5.7169;
735.6000;0.8441;-5.7221;
735.9000;0.8392;-5.7353;
736.2000;0.8425;-5.7195;
736.5000;0.8441;-5.7063;
736.8000;0.8457;-5.6957;
737.1000;0.8425;-5.7010;
737.4000;0.8433;-5.6984;
737.7000;0.8441;-5.6931;
738.0000;0.8441;-5.6931;
738.3000;0.8441;-5.6984;
738.6000;0.8425;-5.6957;
738.9000;0.8425;-5.6984;
739.2000;0.8490;-5.6799;
739.5000;0.8433;-5.6984;
739.8000;0.8417;-5.7010;
740.1000;0.8392;-5.6984;
740.4000;0.8409;-5.6905;
740.7000;0.8417;-5.6852;
741.0000;0.8400;-5.6905;
741.3000;0.8400;-5.6825;
741.6000;0.8409;-5.6852;
741.9000;0.8392;-5.6825;
742.2000;0.8433;-5.6799;
742.5000;0.8392;-5.6852;
742.8000;0.8409;-5.6825;
743.1000;0.8409;-5.6773;
743.4000;0.8400;-5.6746;
743.7000;0.8400;-5.6693;
744.0000;0.8384;-5.6667;
744.3000;0.8392;-5.6720;
744.6000;0.8384;-5.6746;
744.9000;0.8368;-5.6720;
745.2000;0.8384;-5.6720;
745.5000;0.8360;-5.6799;
745.8000;0.8360;-5.6720;
746.1000;0.8409;-5.6667;
746.4000;0.8392;-5.6746;
746.7000;0.8376;-5.6825;
747.0000;0.8425;-5.6720;
747.3000;0.8344;-5.6852;
747.6000;0.8368;-5.6693;
747.9000;0.8360;-5.6773;
748.2000;0.8360;-5.6720;
748.5000;0.8352;-5.6693;
748.8000;0.8335;-5.6746;
749.1000;0.8352;-5.6746;
749.4000;0.8352;-5.6693;
749.7000;0.8352;-5.6773;
750.0000;0.8303;-5.6878;
750.3000;0.8335;-5.6878;
750.6000;0.8352;-5.6931;
750.9000;0.8327;-5.6905;
751.2000;0.8327;-5.6825;
751.5000;0.8327;-5.6799;
751.8000;0.8311;-5.6799;
752.1000;0.8311;-5.6852;
752.4000;0.8311;-5.6878;
752.7000;0.8311;-5.6852;
753.0000;0.8303;-5.6852;
753.3000;0.8311;-5.6852;
753.6000;0.8311;-5.6905;
753.9000;0.8303;-5.6905;
754.2000;0.8311;-5.6852;
754.5000;0.8311;-5.6799;
754.8000;0.8303;-5.6825;
755.1000;0.8303;-5.6799;
755.4000;0.8278;-5.6825;
755.7000;0.8295;-5.6773;
756.0000;0.8262;-5.6905;
756.3000;0.8327;-5.6746;
756.6000;0.8278;-5.6878;
756.9000;0.8270;-5.6905;
757.2000;0.8295;-5.6878;
757.5000;0.8319;-5.6799;
757.8000;0.8254;-5.6957;
758.1000;0.8295;-5.6773;
758.4000;0.8278;-5.6825;
758.7000;0.8238;-5.6905;
759.0000;0.8262;-5.6931;
759.3000;0.8254;-5.6984;
759.6000;0.8270;-5.6905;
759.9000;0.8246;-5.6852;
760.2000;0.8262;-5.6931;
760.5000;0.8230;-5.6957;
760.8000;0.8254;-5.6984;
761.1000;0.8246;-5.6984;
761.4000;0.8246;-5.7010;
761.7000;0.8246;-5.7063;
762.0000;0.8246;-5.6984;
762.3000;0.8270;-5.6931;
762.6000;0.8221;-5.7037;
762.9000;0.8230;-5.7010;
763.2000;0.8238;-5.6931;
763.5000;0.8230;-5.6957;
763.8000;0.8238;-5.7010;
764.1000;0.8246;-5.7037;
764.4000;0.8238;-5.7010;
764.7000;0.8221;-5.7089;
765.0000;0.8213;-5.7010;
765.3000;0.8197;-5.7063;
765.6000;0.8230;-5.6931;
765.9000;0.8230;-5.6852;
766.2000;0.8197;-5.6852;
766.5000;0.8205;-5.6825;
766.8000;0.8213;-5.6799;
767.1000;0.8205;-5.6878;
767.4000;0.8221;-5.6852;
767.7000;0.8213;-5.6878;
768.0000;0.8173;-5.6984;
768.3000;0.8189;-5.6905;
768.6000;0.8205;-5.6720;
768.9000;0.8205;-5.6667;
769.2000;0.8197;-5.6693;
769.5000;0.8189;-5.6667;
769.8000;0.8181;-5.6667;
770.1000;0.8164;-5.6693;
770.4000;0.8107;-5.6905;
770.7000;0.8173;-5.6773;
771.0000;0.8181;-5.6773;
771.3000;0.8164;-5.6852;
771.6000;0.8205;-5.6825;
771.9000;0.8181;-5.6931;
772.2000;0.8156;-5.7010;
772.5000;0.8246;-5.6773;
772.8000;0.8164;-5.6984;
773.1000;0.8148;-5.7037;
773.4000;0.8164;-5.6984;
773.7000;0.8156;-5.6931;
774.0000;0.8173;-5.6905;
774.3000;0.8148;-5.6878;
774.6000;0.8148;-5.6825;
774.9000;0.8140;-5.6905;
775.2000;0.8164;-5.6773;
775.5000;0.8148;-5.6746;
775.8000;0.8132;-5.6799;
776.1000;0.8148;-5.6852;
776.4000;0.8107;-5.6957;
776.7000;0.8148;-5.6905;
777.0000;0.8132;-5.6905;
777.3000;0.8124;-5.6905;
777.6000;0.8124;-5.6931;
777.9000;0.8132;-5.6957;
778.2000;0.8116;-5.6957;
778.5000;0.8140;-5.6984;
778.8000;0.8132;-5.6984;
779.1000;0.8116;-5.7010;
779.4000;0.8099;-5.6931;
779.7000;0.8116;-5.6825;
780.0000;0.8124;-5.6825;
780.3000;0.8132;-5.6720;
780.6000;0.8116;-5.6799;
780.9000;0.8132;-5.6799;
781.2000;0.8116;-5.6773;
781.5000;0.8132;-5.6746;
781.8000;0.8116;-5.6693;
782.1000;0.8091;-5.6720;
782.4000;0.8091;-5.6773;
782.7000;0.8099;-5.6693;
783.0000;0.8107;-5.6746;
783.3000;0.8116;-5.6720;
783.6000;0.8083;-5.6773;
783.9000;0.8091;-5.6825;
784.2000;0.8091;-5.6799;
784.5000;0.8075;-5.6905;
784.8000;0.8116;-5.6825;
785.1000;0.8099;-5.6852;
785.4000;0.8083;-5.6825;
785.7000;0.8042;-5.6905;
786.0000;0.8075;-5.6773;
786.3000;0.8075;-5.6905;
786.6000;0.8107;-5.6825;
786.9000;0.8067;-5.6931;
787.2000;0.8075;-5.6957;
787.5000;0.8067;-5.6957;
787.8000;0.8075;-5.6905;
788.1000;0.8091;-5.6799;
788.4000;0.8075;-5.6878;
788.7000;0.8091;-5.6799;
789.0000;0.8075;-5.6746;
789.3000;0.8059;-5.6773;
789.6000;0.8067;-5.6667;
789.9000;0.8059;-5.6720;
790.2000;0.8067;-5.6693;
790.5000;0.8083;-5.6640;
790.8000;0.8050;-5.6614;
791.1000;0.8034;-5.6667;
791.4000;0.8018;-5.6561;
791.7000;0.8050;-5.6482;
792.0000;0.8050;-5.6508;
792.3000;0.8083;-5.6482;
792.6000;0.8067;-5.6508;
792.9000;0.8018;-5.6640;
793.2000;0.8034;-5.6667;
793.5000;0.8075;-5.6614;
793.8000;0.8042;-5.6693;
794.1000;0.8026;-5.6720;
794.4000;0.8059;-5.6614;
794.7000;0.8042;-5.6773;
795.0000;0.8034;-5.6746;
795.3000;0.7953;-5.7037;
795.6000;0.8034;-5.6878;
795.9000;0.8034;-5.6878;
796.2000;0.8018;-5.6825;
796.5000;0.8026;-5.6852;
796.8000;0.8042;-5.6773;
797.1000;0.8026;-5.6773;
797.4000;0.8083;-5.6693;
797.7000;0.8018;-5.6799;
798.0000;0.8010;-5.6746;
798.3000;0.7993;-5.6746;
798.6000;0.8050;-5.6667;
798.9000;0.7993;-5.6799;
799.2000;0.8010;-5.6720;
799.5000;0.8002;-5.6693;
799.8000;0.8010;-5.6773;
800.1000;0.7985;-5.6799;
800.4000;0.7985;-5.6799;
800.7000;0.7993;-5.6852;
801.0000;0.8002;-5.6746;
801.3000;0.8010;-5.6667;
801.6000;0.7993;-5.6667;
801.9000;0.8002;-5.6614;
802.2000;0.7977;-5.6614;
802.5000;0.7993;-5.6667;
802.8000;0.7993;-5.6799;
803.1000;0.7993;-5.6773;
803.4000;0.7985;-5.6720;
803.7000;0.7993;-5.6640;
804.0000;0.7977;-5.6773;
804.3000;0.7953;-5.6773;
804.6000;0.7977;-5.6746;
804.9000;0.7969;-5.6746;
805.2000;0.7961;-5.6720;
805.5000;0.7953;-5.6667;
805.8000;0.7969;-5.6693;
806.1000;0.7969;-5.6693;
806.4000;0.7985;-5.6746;
806.7000;0.7969;-5.6693;
807.0000;0.7953;-5.6693;
807.3000;0.7961;-5.6746;
807.6000;0.7969;-5.6746;
807.9000;0.7953;-5.6746;
808.2000;0.7953;-5.6667;
808.5000;0.7953;-5.6588;
808.8000;0.7969;-5.6561;
809.1000;0.7937;-5.6720;
809.4000;0.7961;-5.6561;
809.7000;0.7969;-5.6588;
810.0000;0.7953;-5.6667;
810.3000;0.7945;-5.6746;
810.6000;0.7945;-5.6773;
810.9000;0.7953;-5.6720;
811.2000;0.7904;-5.6825;
811.5000;0.7945;-5.6746;
811.8000;0.7953;-5.6693;
812.1000;0.7928;-5.6720;
812.4000;0.7937;-5.6667;
812.7000;0.7920;-5.6614;
813.0000;0.7920;-5.6640;
813.3000;0.7937;-5.6640;
813.6000;0.7945;-5.6561;
813.9000;0.7969;-5.6508;
814.2000;0.7920;-5.6561;
814.5000;0.7953;-5.6482;
814.8000;0.7928;-5.6482;
815.1000;0.7937;-5.6508;
815.4000;0.8050;-5.6297;
815.7000;0.7928;-5.6561;
816.0000;0.7953;-5.6482;
816.3000;0.7961;-5.6429;
816.6000;0.7953;-5.6482;
816.9000;0.7969;-5.6482;
817.2000;0.7945;-5.6588;
817.5000;0.7937;-5.6640;
817.8000;0.7937;-5.6614;
818.1000;0.7896;-5.6588;
818.4000;0.7863;-5.6640;
818.7000;0.7904;-5.6561;
819.0000;0.7896;-5.6535;
819.3000;0.7896;-5.6456;
819.6000;0.7896;-5.6588;
819.9000;0.7953;-5.6508;
820.2000;0.7888;-5.6614;
820.5000;0.7912;-5.6614;
820.8000;0.7888;-5.6720;
821.1000;0.7863;-5.6746;
821.4000;0.7896;-5.6614;
821.7000;0.7920;-5.6456;
822.0000;0.7904;-5.6588;
822.3000;0.7912;-5.6561;
822.6000;0.7937;-5.6456;
822.9000;0.7904;-5.6508;
823.2000;0.7888;-5.6561;
823.5000;0.7888;-5.6456;
823.8000;0.7888;-5.6482;
824.1000;0.7896;-5.6535;
824.4000;0.7912;-5.6614;
824.7000;0.7880;-5.6614;
825.0000;0.7888;-5.6561;
825.3000;0.7863;-5.6614;
825.6000;0.7880;-5.6614;
825.9000;0.7871;-5.6561;
826.2000;0.7888;-5.6456;
826.5000;0.7896;-5.6403;
826.8000;0.7880;-5.6403;
827.1000;0.7880;-5.6429;
827.4000;0.7871;-5.6508;
827.7000;0.7880;-5.6508;
828.0000;0.7880;-5.6456;
828.3000;0.7863;-5.6482;
828.6000;0.7847;-5.6508;
828.9000;0.7863;-5.6508;
829.2000;0.7855;-5.6588;
829.5000;0.7888;-5.6456;
829.8000;0.7888;-5.6456;
830.1000;0.7855;-5.6456;
830.4000;0.7880;-5.6482;
830.7000;0.7855;-5.6561;
831.0000;0.7855;-5.6561;
831.3000;0.7863;-5.6614;
831.6000;0.7888;-5.6429;
831.9000;0.7871;-5.6535;
832.2000;0.7806;-5.6667;
832.5000;0.7831;-5.6588;
832.8000;0.7847;-5.6456;
833.1000;0.7847;-5.6535;
833.4000;0.7839;-5.6614;
833.7000;0.7839;-5.6667;
834.0000;0.7855;-5.6588;
834.3000;0.7839;-5.6640;
834.6000;0.7888;-5.6667;
834.9000;0.7839;-5.6825;
835.2000;0.7798;-5.6825;
835.5000;0.7839;-5.6640;
835.8000;0.7839;-5.6667;
836.1000;0.7823;-5.6720;
836.4000;0.7823;-5.6693;
836.7000;0.7839;-5.6693;
837.0000;0.7839;-5.6825;
837.3000;0.7847;-5.6720;
837.6000;0.7831;-5.6720;
837.9000;0.7839;-5.6640;
838.2000;0.7839;-5.6535;
838.5000;0.7831;-5.6482;
838.8000;0.7823;-5.6456;
839.1000;0.7814;-5.6535;
839.4000;0.7831;-5.6482;
839.7000;0.7823;-5.6482;
840.0000;0.7863;-5.6350;
840.3000;0.7814;-5.6561;
840.6000;0.7831;-5.6561;
840.9000;0.7823;-5.6508;
841.2000;0.7806;-5.6535;
841.5000;0.7814;-5.6535;
841.8000;0.7806;-5.6482;
842.1000;0.7806;-5.6456;
842.4000;0.7814;-5.6429;
842.7000;0.7806;-5.6456;
843.0000;0.7806;-5.6456;
843.3000;0.7806;-5.6456;
843.6000;0.7774;-5.6456;
843.9000;0.7798;-5.6324;
844.2000;0.7790;-5.6297;
844.5000;0.7798;-5.6324;
844.8000;0.7782;-5.6403;
845.1000;0.7782;-5.6456;
845.4000;0.7782;-5.6482;
845.7000;0.7790;-5.6456;
846.0000;0.7790;-5.6456;
846.3000;0.7749;-5.6535;
846.6000;0.7782;-5.6350;
846.9000;0.7798;-5.6403;
847.2000;0.7782;-5.6403;
847.5000;0.7790;-5.6403;
847.8000;0.7798;-5.6482;
848.1000;0.7790;-5.6456;
848.4000;0.7782;-5.6456;
848.7000;0.7782;-5.6508;
849.0000;0.7774;-5.6508;
849.3000;0.7790;-5.6456;
849.6000;0.7774;-5.6456;
849.9000;0.7774;-5.6482;
850.2000;0.7790;-5.6456;
850.5000;0.7798;-5.6535;
850.8000;0.7766;-5.6535;
851.1000;0.7782;-5.6482;
851.4000;0.7766;-5.6350;
851.7000;0.7782;-5.6324;
852.0000;0.7782;-5.6350;
852.3000;0.7798;-5.6403;
852.6000;0.7774;-5.6561;
852.9000;0.7774;-5.6561;
853.2000;0.7774;-5.6640;
853.5000;0.7766;-5.6561;
853.8000;0.7757;-5.6561;
854.1000;0.7741;-5.6561;
854.4000;0.7766;-5.6456;
854.7000;0.7757;-5.6376;
855.0000;0.7782;-5.6376;
855.3000;0.7782;-5.6456;
855.6000;0.7749;-5.6535;
855.9000;0.7774;-5.6535;
856.2000;0.7766;-5.6508;
856.5000;0.7749;-5.6588;
856.8000;0.7741;-5.6614;
857.1000;0.7757;-5.6508;
857.4000;0.7757;-5.6429;
857.7000;0.7749;-5.6376;
858.0000;0.7757;-5.6324;
858.3000;0.7814;-5.6192;
858.6000;0.7749;-5.6271;
858.9000;0.7709;-5.6429;
859.2000;0.7733;-5.6376;
859.5000;0.7757;-5.6324;
859.8000;0.7741;-5.6429;
860.1000;0.7741;-5.6508;
860.4000;0.7741;-5.6561;
860.7000;0.7709;-5.6667;
861.0000;0.7741;-5.6640;
861.3000;0.7741;-5.6588;
861.6000;0.7725;-5.6640;
861.9000;0.7733;-5.6614;
862.2000;0.7741;-5.6508;
862.5000;0.7806;-5.6403;
862.8000;0.7733;-5.6640;
863.1000;0.7749;-5.6535;
863.4000;0.7692;-5.6667;
863.7000;0.7766;-5.6508;
864.0000;0.7766;-5.6508;
864.3000;0.7749;-5.6561;
864.6000;0.7725;-5.6588;
864.9000;0.7725;-5.6561;
865.2000;0.7741;-5.6588;
865.5000;0.7725;-5.6588;
865.8000;0.7749;-5.6482;
866.1000;0.7725;-5.6588;
866.4000;0.7725;-5.6588;
866.7000;0.7717;-5.6614;
867.0000;0.7717;-5.6561;
867.3000;0.7709;-5.6640;
867.6000;0.7717;-5.6614;
867.9000;0.7700;-5.6561;
868.2000;0.7709;-5.6535;
868.5000;0.7725;-5.6403;
868.8000;0.7709;-5.6456;
869.1000;0.7692;-5.6535;
869.4000;0.7692;-5.6508;
869.7000;0.7700;-5.6429;
870.0000;0.7709;-5.6429;
870.3000;0.7717;-5.6429;
870.6000;0.7643;-5.6588;
870.9000;0.7717;-5.6429;
871.2000;0.7700;-5.6429;
871.5000;0.7709;-5.6429;
871.8000;0.7684;-5.6324;
872.1000;0.7684;-5.6403;
872.4000;0.7692;-5.6403;
872.7000;0.7749;-5.6324;
873.0000;0.7692;-5.6508;
873.3000;0.7700;-5.6535;
873.6000;0.7700;-5.6456;
873.9000;0.7700;-5.6376;
874.2000;0.7709;-5.6350;
874.5000;0.7692;-5.6482;
874.8000;0.7692;-5.6429;
875.1000;0.7611;-5.6588;
875.4000;0.7700;-5.6350;
875.7000;0.7700;-5.6350;
876.0000;0.7668;-5.6429;
876.3000;0.7692;-5.6350;
876.6000;0.7692;-5.6350;
876.9000;0.7700;-5.6324;
877.2000;0.7692;-5.6403;
877.5000;0.7692;-5.6376;
877.8000;0.7717;-5.6324;
878.1000;0.7635;-5.6482;
878.4000;0.7676;-5.6403;
878.7000;0.7676;-5.6429;
879.0000;0.7692;-5.6297;
879.3000;0.7709;-5.6165;
879.6000;0.7668;-5.6271;
879.9000;0.7676;-5.6165;
880.2000;0.7668;-5.6139;
880.5000;0.7676;-5.6165;
880.8000;0.7668;-5.6165;
881.1000;0.7717;-5.6086;
881.4000;0.7684;-5.6112;
881.7000;0.7684;-5.6165;
882.0000;0.7684;-5.6192;
882.3000;0.7660;-5.6218;
882.6000;0.7668;-5.6139;
882.9000;0.7660;-5.6139;
883.2000;0.7660;-5.6007;
883.5000;0.7676;-5.5954;
883.8000;0.7660;-5.6007;
884.1000;0.7619;-5.6112;
884.4000;0.7643;-5.6112;
884.7000;0.7709;-5.6007;
885.0000;0.7668;-5.6086;
885.3000;0.7676;-5.6007;
885.6000;0.7652;-5.6033;
885.9000;0.7668;-5.5980;
886.2000;0.7660;-5.6112;
886.5000;0.7660;-5.6165;
886.8000;0.7668;-5.6218;
887.1000;0.7660;-5.6218;
887.4000;0.7660;-5.6271;
887.7000;0.7652;-5.6297;
888.0000;0.7652;-5.6244;
888.3000;0.7627;-5.6350;
888.6000;0.7652;-5.6324;
888.9000;0.7660;-5.6429;
889.2000;0.7676;-5.6456;
889.5000;0.7627;-5.6508;
889.8000;0.7635;-5.6456;
890.1000;0.7643;-5.6456;
890.4000;0.7627;-5.6456;
890.7000;0.7643;-5.6456;
891.0000;0.7635;-5.6429;
891.3000;0.7627;-5.6588;
891.6000;0.7668;-5.6535;
891.9000;0.7635;-5.6561;
892.2000;0.7627;-5.6482;
892.5000;0.7586;-5.6482;
892.8000;0.7635;-5.6350;
893.1000;0.7660;-5.6324;
893.4000;0.7619;-5.6403;
893.7000;0.7603;-5.6403;
894.0000;0.7627;-5.6350;
894.3000;0.7627;-5.6376;
894.6000;0.7684;-5.6244;
894.9000;0.7635;-5.6429;
895.2000;0.7611;-5.6561;
895.5000;0.7611;-5.6482;
895.8000;0.7611;-5.6508;
896.1000;0.7595;-5.6561;
896.4000;0.7643;-5.6429;
896.7000;0.7627;-5.6456;
897.0000;0.7611;-5.6508;
897.3000;0.7627;-5.6482;
897.6000;0.7611;-5.6508;
897.9000;0.7627;-5.6376;
898.2000;0.7619;-5.6429;
898.5000;0.7627;-5.6456;
898.8000;0.7619;-5.6482;
899.1000;0.7635;-5.6456;
899.4000;0.7627;-5.6535;
899.7000;0.7627;-5.6456;
900.0000;0.7611;-5.6561;
900.3000;0.7619;-5.6508;
900.6000;0.7652;-5.6429;
900.9000;0.7643;-5.6508;
901.2000;0.7619;-5.6482;
901.5000;0.7611;-5.6535;
901.8000;0.7603;-5.6482;
902.1000;0.7619;-5.6429;
902.4000;0.7603;-5.6482;
902.7000;0.7603;-5.6482;
903.0000;0.7586;-5.6508;
903.3000;0.7595;-5.6561;
903.6000;0.7554;-5.6693;
903.9000;0.7603;-5.6614;
904.2000;0.7652;-5.6403;
904.5000;0.7643;-5.6403;
904.8000;0.7578;-5.6614;
905.1000;0.7595;-5.6403;
905.4000;0.7586;-5.6376;
905.7000;0.7603;-5.6376;
906.0000;0.7586;-5.6403;
906.3000;0.7595;-5.6429;
906.6000;0.7562;-5.6429;
906.9000;0.7586;-5.6376;
907.2000;0.7603;-5.6350;
907.5000;0.7627;-5.6324;
907.8000;0.7586;-5.6456;
908.1000;0.7578;-5.6271;
908.4000;0.7546;-5.6192;
908.7000;0.7586;-5.6165;
909.0000;0.7578;-5.6324;
909.3000;0.7578;-5.6324;
909.6000;0.7652;-5.6112;
909.9000;0.7611;-5.6244;
910.2000;0.7595;-5.6324;
910.5000;0.7562;-5.6350;
910.8000;0.7570;-5.6297;
911.1000;0.7578;-5.6324;
911.4000;0.7578;-5.6403;
911.7000;0.7586;-5.6456;
912.0000;0.7586;-5.6456;
912.3000;0.7578;-5.6429;
912.6000;0.7595;-5.6403;
912.9000;0.7554;-5.6508;
913.2000;0.7586;-5.6429;
913.5000;0.7611;-5.6244;
913.8000;0.7570;-5.6297;
914.1000;0.7578;-5.6244;
914.4000;0.7562;-5.6297;
914.7000;0.7578;-5.6271;
915.0000;0.7570;-5.6350;
915.3000;0.7570;-5.6324;
915.6000;0.7530;-5.6482;
915.9000;0.7570;-5.6429;
916.2000;0.7562;-5.6403;
916.5000;0.7562;-5.6429;
916.8000;0.7554;-5.6456;
917.1000;0.7570;-5.6403;
917.4000;0.7562;-5.6376;
917.7000;0.7554;-5.6429;
918.0000;0.7530;-5.6508;
918.3000;0.7554;-5.6403;
918.6000;0.7554;-5.6350;
918.9000;0.7554;-5.6244;
919.2000;0.7546;-5.6297;
919.5000;0.7562;-5.6350;
919.8000;0.7578;-5.6271;
920.1000;0.7578;-5.6350;
920.4000;0.7570;-5.6376;
920.7000;0.7546;-5.6482;
921.0000;0.7554;-5.6482;
921.3000;0.7570;-5.6376;
921.6000;0.7554;-5.6403;
921.9000;0.7554;-5.6429;
922.2000;0.7595;-5.6350;
922.5000;0.7554;-5.6508;
922.8000;0.7554;-5.6376;
923.1000;0.7538;-5.6376;
923.4000;0.7554;-5.6297;
923.7000;0.7546;-5.6297;
924.0000;0.7554;-5.6244;
924.3000;0.7505;-5.6429;
924.6000;0.7513;-5.6429;
924.9000;0.7546;-5.6324;
925.2000;0.7538;-5.6324;
925.5000;0.7554;-5.6271;
925.8000;0.7538;-5.6271;
926.1000;0.7554;-5.6324;
926.4000;0.7530;-5.6376;
926.7000;0.7562;-5.6376;
927.0000;0.7530;-5.6561;
927.3000;0.7464;-5.6746;
927.6000;0.7546;-5.6456;
927.9000;0.7538;-5.6482;
928.2000;0.7538;-5.6456;
928.5000;0.7521;-5.6482;
928.8000;0.7521;-5.6350;
929.1000;0.7489;-5.6376;
929.4000;0.7513;-5.6218;
929.7000;0.7538;-5.6192;
930.0000;0.7530;-5.6060;
930.3000;0.7554;-5.6033;
930.6000;0.7513;-5.6139;
930.9000;0.7530;-5.6060;
931.2000;0.7538;-5.6033;
931.5000;0.7554;-5.6112;
931.8000;0.7530;-5.6218;
932.1000;0.7513;-5.6244;
932.4000;0.7538;-5.6271;
932.7000;0.7538;-5.6244;
933.0000;0.7521;-5.6271;
933.3000;0.7530;-5.6324;
933.6000;0.7513;-5.6350;
933.9000;0.7521;-5.6403;
934.2000;0.7505;-5.6456;
934.5000;0.7497;-5.6482;
934.8000;0.7521;-5.6376;
935.1000;0.7521;-5.6350;
935.4000;0.7578;-5.6086;
935.7000;0.7530;-5.6271;
936.0000;0.7481;-5.6350;
936.3000;0.7513;-5.6297;
936.6000;0.7521;-5.6297;
936.9000;0.7513;-5.6324;
937.2000;0.7513;-5.6350;
937.5000;0.7530;-5.6350;
937.8000;0.7481;-5.6456;
938.1000;0.7513;-5.6350;
938.4000;0.7505;-5.6350;
938.7000;0.7497;-5.6350;
939.0000;0.7505;-5.6324;
939.3000;0.7505;-5.6376;
939.6000;0.7505;-5.6508;
939.9000;0.7497;-5.6588;
940.2000;0.7505;-5.6429;
940.5000;0.7473;-5.6429;
940.8000;0.7505;-5.6297;
941.1000;0.7481;-5.6297;
941.4000;0.7513;-5.6244;
941.7000;0.7505;-5.6297;
942.0000;0.7481;-5.6244;
942.3000;0.7497;-5.6218;
942.6000;0.7521;-5.6218;
942.9000;0.7505;-5.6218;
943.2000;0.7505;-5.6218;
943.5000;0.7505;-5.6297;
943.8000;0.7497;-5.6271;
944.1000;0.7513;-5.6297;
944.4000;0.7497;-5.6324;
944.7000;0.7481;-5.6376;
945.0000;0.7513;-5.6324;
945.3000;0.7497;-5.6324;
945.6000;0.7505;-5.6350;
945.9000;0.7505;-5.6350;
946.2000;0.7464;-5.6350;
946.5000;0.7489;-5.6324;
946.8000;0.7505;-5.6244;
947.1000;0.7530;-5.6218;
947.4000;0.7497;-5.6324;
947.7000;0.7521;-5.6297;
948.0000;0.7521;-5.6429;
948.3000;0.7554;-5.6350;
948.6000;0.7530;-5.6350;
948.9000;0.7489;-5.6403;
949.2000;0.7473;-5.6376;
949.5000;0.7489;-5.6297;
949.8000;0.7538;-5.6244;
950.1000;0.7489;-5.6376;
950.4000;0.7489;-5.6482;
950.7000;0.7481;-5.6403;
951.0000;0.7473;-5.6403;
951.3000;0.7473;-5.6297;
951.6000;0.7473;-5.6218;
951.9000;0.7464;-5.6218;
952.2000;0.7489;-5.6271;
952.5000;0.7489;-5.6350;
952.8000;0.7489;-5.6429;
953.1000;0.7513;-5.6403;
953.4000;0.7481;-5.6456;
953.7000;0.7481;-5.6403;
954.0000;0.7473;-5.6376;
954.3000;0.7473;-5.6376;
954.6000;0.7505;-5.6376;
954.9000;0.7521;-5.6350;
955.2000;0.7481;-5.6350;
955.5000;0.7473;-5.6376;
955.8000;0.7473;-5.6324;
956.1000;0.7481;-5.6165;
956.4000;0.7481;-5.6192;
956.7000;0.7489;-5.6192;
957.0000;0.7464;-5.6271;
957.3000;0.7489;-5.6244;
957.6000;0.7489;-5.6271;
957.9000;0.7473;-5.6350;
958.2000;0.7497;-5.6376;
958.5000;0.7464;-5.6297;
958.8000;0.7464;-5.6271;
959.1000;0.7448;-5.6297;
959.4000;0.7473;-5.6218;
959.7000;0.7473;-5.6218;
960.0000;0.7448;-5.6297;
960.3000;0.7456;-5.6324;
960.6000;0.7448;-5.6376;
960.9000;0.7464;-5.6429;
961.2000;0.7473;-5.6403;
961.5000;0.7473;-5.6324;
961.8000;0.7456;-5.6350;
962.1000;0.7456;-5.6376;
962.4000;0.7464;-5.6376;
962.7000;0.7440;-5.6482;
963.0000;0.7448;-5.6482;
963.3000;0.7440;-5.6508;
963.6000;0.7473;-5.6324;
963.9000;0.7440;-5.6297;
964.2000;0.7432;-5.6376;
964.5000;0.7456;-5.6297;
964.8000;0.7432;-5.6324;
965.1000;0.7432;-5.6376;
965.4000;0.7440;-5.6324;
965.7000;0.7448;-5.6271;
966.0000;0.7448;-5.6192;
966.3000;0.7440;-5.6165;
966.6000;0.7464;-5.6297;
966.9000;0.7440;-5.6376;
967.2000;0.7424;-5.6456;
967.5000;0.7448;-5.6350;
967.8000;0.7456;-5.6350;
968.1000;0.7440;-5.6271;
968.4000;0.7481;-5.6086;
968.7000;0.7448;-5.6165;
969.0000;0.7440;-5.6192;
969.3000;0.7448;-5.6271;
969.6000;0.7456;-5.6297;
969.9000;0.7440;-5.6297;
970.2000;0.7432;-5.6192;
970.5000;0.7432;-5.6165;
970.8000;0.7440;-5.6165;
971.1000;0.7448;-5.6244;
971.4000;0.7456;-5.6112;
971.7000;0.7399;-5.6271;
972.0000;0.7432;-5.6139;
972.3000;0.7399;-5.6244;
972.6000;0.7440;-5.6060;
972.9000;0.7448;-5.6007;
973.2000;0.7497;-5.5875;
973.5000;0.7440;-5.6007;
973.8000;0.7440;-5.5980;
974.1000;0.7432;-5.5980;
974.4000;0.7432;-5.5980;
974.7000;0.7432;-5.5980;
975.0000;0.7424;-5.6060;
975.3000;0.7440;-5.6060;
975.6000;0.7416;-5.6086;
975.9000;0.7424;-5.6139;
976.2000;0.7416;-5.6192;
976.5000;0.7432;-5.6192;
976.8000;0.7456;-5.6112;
977.1000;0.7432;-5.6112;
977.4000;0.7432;-5.6086;
977.7000;0.7432;-5.6112;
978.0000;0.7416;-5.6244;
978.3000;0.7440;-5.6139;
978.6000;0.7424;-5.6165;
978.9000;0.7424;-5.6192;
979.2000;0.7432;-5.6165;
979.5000;0.7432;-5.6192;
979.8000;0.7432;-5.6244;
980.1000;0.7383;-5.6403;
980.4000;0.7416;-5.6403;
980.7000;0.7407;-5.6482;
981.0000;0.7424;-5.6508;
981.3000;0.7424;-5.6429;
981.6000;0.7432;-5.6403;
981.9000;0.7416;-5.6350;
982.2000;0.7424;-5.6244;
982.5000;0.7416;-5.6271;
982.8000;0.7407;-5.6165;
983.1000;0.7399;-5.6112;
983.4000;0.7424;-5.5980;
983.7000;0.7464;-5.5822;
984.0000;0.7424;-5.6007;
984.3000;0.7407;-5.6060;
984.6000;0.7391;-5.6112;
984.9000;0.7407;-5.6139;
985.2000;0.7416;-5.6060;
985.5000;0.7391;-5.6192;
985.8000;0.7391;-5.6244;
986.1000;0.7391;-5.6165;
986.4000;0.7399;-5.6112;
986.7000;0.7432;-5.6086;
987.0000;0.7407;-5.6192;
987.3000;0.7407;-5.6218;
987.6000;0.7416;-5.6244;
987.9000;0.7407;-5.6324;
988.2000;0.7416;-5.6139;
988.5000;0.7391;-5.6165;
988.8000;0.7407;-5.6139;
989.1000;0.7424;-5.6112;
989.4000;0.7432;-5.6165;
989.7000;0.7407;-5.6165;
990.0000;0.7424;-5.6112;
990.3000;0.7416;-5.6139;
990.6000;0.7399;-5.6244;
990.9000;0.7407;-5.6139;
991.2000;0.7383;-5.6244;
991.5000;0.7416;-5.6297;
991.8000;0.7391;-5.6324;
992.1000;0.7407;-5.6192;
992.4000;0.7399;-5.6165;
992.7000;0.7391;-5.6271;
993.0000;0.7399;-5.6192;
993.3000;0.7383;-5.6218;
993.6000;0.7391;-5.6192;
993.9000;0.7391;-5.6192;
994.2000;0.7399;-5.6244;
994.5000;0.7383;-5.6376;
994.8000;0.7399;-5.6376;
995.1000;0.7383;-5.6403;
995.4000;0.7391;-5.6482;
995.7000;0.7391;-5.6508;
996.0000;0.7391;-5.6456;
996.3000;0.7416;-5.6350;
996.6000;0.7407;-5.6376;
996.9000;0.7383;-5.6271;
997.2000;0.7334;-5.6376;
997.5000;0.7326;-5.6297;
997.8000;0.7350;-5.6244;
998.1000;0.7367;-5.6218;
998.4000;0.7375;-5.6192;
998.7000;0.7383;-5.6218;
999.0000;0.7407;-5.6139;
999.3000;0.7367;-5.6139;
999.6000;0.7416;-5.6086;
999.9000;0.7367;-5.6218;
1000.2000;0.7399;-5.6218;
1000.5000;0.7383;-5.6192;
1000.8000;0.7383;-5.6165;
1001.1000;0.7359;-5.6192;
1001.4000;0.7391;-5.6007;
1001.7000;0.7383;-5.6033;
1002.0000;0.7383;-5.6033;
1002.3000;0.7407;-5.6007;
1002.6000;0.7383;-5.6086;
1002.9000;0.7391;-5.6060;
1003.2000;0.7424;-5.5954;
1003.5000;0.7391;-5.6007;
1003.8000;0.7383;-5.5980;
1004.1000;0.7407;-5.5954;
1004.4000;0.7334;-5.6192;
1004.7000;0.7383;-5.6086;
1005.0000;0.7391;-5.6086;
1005.3000;0.7350;-5.6112;
1005.6000;0.7359;-5.6033;
1005.9000;0.7399;-5.6007;
1006.2000;0.7383;-5.6033;
1006.5000;0.7367;-5.6112;
1006.8000;0.7367;-5.6060;
1007.1000;0.7375;-5.6060;
1007.4000;0.7391;-5.6060;
1007.7000;0.7383;-5.6007;
1008.0000;0.7399;-5.5954;
1008.3000;0.7383;-5.6033;
1008.6000;0.7383;-5.6060;
1008.9000;0.7359;-5.6139;
1009.2000;0.7350;-5.6192;
1009.5000;0.7350;-5.6192;
1009.8000;0.7375;-5.6139;
1010.1000;0.7399;-5.6060;
1010.4000;0.7367;-5.6139;
1010.7000;0.7375;-5.6033;
1011.0000;0.7359;-5.6007;
1011.3000;0.7350;-5.6060;
1011.6000;0.7359;-5.6060;
1011.9000;0.7375;-5.6007;
1012.2000;0.7383;-5.5980;
1012.5000;0.7432;-5.5822;
1012.8000;0.7375;-5.5980;
1013.1000;0.7359;-5.5954;
1013.4000;0.7367;-5.5901;
1013.7000;0.7375;-5.5954;
1014.0000;0.7367;-5.6033;
1014.3000;0.7375;-5.6139;
1014.6000;0.7359;-5.6165;
1014.9000;0.7359;-5.6086;
1015.2000;0.7383;-5.5954;
1015.5000;0.7359;-5.6060;
1015.8000;0.7359;-5.6086;
1016.1000;0.7359;-5.6112;
1016.4000;0.7375;-5.6086;
1016.7000;0.7342;-5.6112;
1017.0000;0.7367;-5.5980;
1017.3000;0.7359;-5.5954;
1017.6000;0.7342;-5.6086;
1017.9000;0.7359;-5.6060;
1018.2000;0.7350;-5.6060;
1018.5000;0.7334;-5.6112;
1018.8000;0.7383;-5.5980;
1019.1000;0.7350;-5.6033;
1019.4000;0.7269;-5.6244;
1019.7000;0.7350;-5.5980;
1020.0000;0.7342;-5.6007;
1020.3000;0.7342;-5.6086;
1020.6000;0.7342;-5.6139;
1020.9000;0.7342;-5.6139;
1021.2000;0.7334;-5.6086;
1021.5000;0.7302;-5.6218;
1021.8000;0.7350;-5.6112;
1022.1000;0.7350;-5.6112;
1022.4000;0.7342;-5.6112;
1022.7000;0.7342;-5.6112;
1023.0000;0.7342;-5.6033;
1023.3000;0.7334;-5.6165;
1023.6000;0.7359;-5.6112;
1023.9000;0.7342;-5.6060;
1024.2000;0.7350;-5.6060;
1024.5000;0.7359;-5.6033;
1024.8000;0.7350;-5.6086;
1025.1000;0.7342;-5.6086;
1025.4000;0.7350;-5.6139;
1025.7000;0.7334;-5.6033;
1026.0000;0.7342;-5.6086;
1026.3000;0.7334;-5.6033;
1026.6000;0.7293;-5.6033;
1026.9000;0.7334;-5.5954;
1027.2000;0.7285;-5.6060;
1027.5000;0.7359;-5.5980;
1027.8000;0.7326;-5.6060;
1028.1000;0.7350;-5.6112;
1028.4000;0.7342;-5.6218;
1028.7000;0.7342;-5.6165;
1029.0000;0.7342;-5.6086;
1029.3000;0.7342;-5.6112;
1029.6000;0.7367;-5.6086;
1029.9000;0.7334;-5.6192;
1030.2000;0.7350;-5.6139;
1030.5000;0.7334;-5.6139;
1030.8000;0.7334;-5.6165;
1031.1000;0.7310;-5.6060;
1031.4000;0.7334;-5.6033;
1031.7000;0.7293;-5.6165;
1032.0000;0.7310;-5.6112;
1032.3000;0.7326;-5.6060;
1032.6000;0.7269;-5.6218;
1032.9000;0.7318;-5.6060;
1033.2000;0.7334;-5.5954;
1033.5000;0.7326;-5.5980;
1033.8000;0.7342;-5.5901;
1034.1000;0.7326;-5.6007;
1034.4000;0.7326;-5.6060;
1034.7000;0.7302;-5.6165;
1035.0000;0.7318;-5.6218;
1035.3000;0.7350;-5.6033;
1035.6000;0.7334;-5.6086;
1035.9000;0.7326;-5.6139;
1036.2000;0.7318;-5.6165;
1036.5000;0.7318;-5.6112;
1036.8000;0.7326;-5.6060;
1037.1000;0.7350;-5.6007;
1037.4000;0.7326;-5.5980;
1037.7000;0.7326;-5.6007;
1038.0000;0.7334;-5.6033;
1038.3000;0.7342;-5.5980;
1038.6000;0.7293;-5.6033;
1038.9000;0.7326;-5.5954;
1039.2000;0.7359;-5.5796;
1039.5000;0.7318;-5.5954;
1039.8000;0.7277;-5.6060;
1040.1000;0.7359;-5.5901;
1040.4000;0.7318;-5.5928;
1040.7000;0.7342;-5.5848;
1041.0000;0.7326;-5.5928;
1041.3000;0.7285;-5.5980;
1041.6000;0.7318;-5.5928;
1041.9000;0.7310;-5.5901;
1042.2000;0.7269;-5.6060;
1042.5000;0.7318;-5.5928;
1042.8000;0.7253;-5.6060;
1043.1000;0.7302;-5.5901;
1043.4000;0.7302;-5.5901;
1043.7000;0.7310;-5.5954;
1044.0000;0.7326;-5.6007;
1044.3000;0.7293;-5.6060;
1044.6000;0.7302;-5.6033;
1044.9000;0.7302;-5.6007;
1045.2000;0.7334;-5.5928;
1045.5000;0.7293;-5.6007;
1045.8000;0.7326;-5.5928;
1046.1000;0.7318;-5.5901;
1046.4000;0.7318;-5.5928;
1046.7000;0.7302;-5.5928;
1047.0000;0.7302;-5.5848;
1047.3000;0.7318;-5.5822;
1047.6000;0.7293;-5.5875;
1047.9000;0.7310;-5.5875;
1048.2000;0.7302;-5.5928;
1048.5000;0.7302;-5.5980;
1048.8000;0.7293;-5.6060;
1049.1000;0.7293;-5.6086;
1049.4000;0.7302;-5.6086;
1049.7000;0.7293;-5.6139;
1050.0000;0.7302;-5.6165;
1050.3000;0.7302;-5.6165;
1050.6000;0.7285;-5.6244;
1050.9000;0.7310;-5.6033;
1051.2000;0.7293;-5.5980;
1051.5000;0.7310;-5.5928;
1051.8000;0.7318;-5.5822;
1052.1000;0.7293;-5.5848;
1052.4000;0.7285;-5.5928;
1052.7000;0.7285;-5.5928;
1053.0000;0.7302;-5.5954;
1053.3000;0.7285;-5.5928;
1053.6000;0.7302;-5.5875;
1053.9000;0.7293;-5.5822;
1054.2000;0.7302;-5.5796;
1054.5000;0.7277;-5.5875;
1054.8000;0.7277;-5.5954;
1055.1000;0.7293;-5.5980;
1055.4000;0.7277;-5.6033;
1055.7000;0.7310;-5.5980;
1056.0000;0.7293;-5.5928;
1056.3000;0.7302;-5.5928;
1056.6000;0.7310;-5.5980;
1056.9000;0.7293;-5.6033;
1057.2000;0.7277;-5.6112;
1057.5000;0.7277;-5.6112;
1057.8000;0.7293;-5.6007;
1058.1000;0.7326;-5.5875;
1058.4000;0.7285;-5.6033;
1058.7000;0.7277;-5.6060;
1059.0000;0.7277;-5.6007;
1059.3000;0.7302;-5.5954;
1059.6000;0.7285;-5.6007;
1059.9000;0.7277;-5.5980;
1060.2000;0.7350;-5.5796;
1060.5000;0.7293;-5.5928;
1060.8000;0.7318;-5.5822;
1061.1000;0.7220;-5.6165;
1061.4000;0.7261;-5.6007;
1061.7000;0.7253;-5.6086;
1062.0000;0.7302;-5.6033;
1062.3000;0.7293;-5.6086;
1062.6000;0.7318;-5.6007;
1062.9000;0.7285;-5.5980;
1063.2000;0.7293;-5.5980;
1063.5000;0.7277;-5.6060;
1063.8000;0.7310;-5.5980;
1064.1000;0.7261;-5.6112;
1064.4000;0.7342;-5.5928;
1064.7000;0.7253;-5.6086;
1065.0000;0.7269;-5.6060;
1065.3000;0.7220;-5.6165;
1065.6000;0.7285;-5.6060;
1065.9000;0.7285;-5.6112;
1066.2000;0.7277;-5.6139;
1066.5000;0.7277;-5.6139;
1066.8000;0.7302;-5.6033;
1067.1000;0.7302;-5.6033;
1067.4000;0.7293;-5.6086;
1067.7000;0.7285;-5.6086;
1068.0000;0.7277;-5.6033;
1068.3000;0.7285;-5.6007;
1068.6000;0.7285;-5.5928;
1068.9000;0.7285;-5.5875;
1069.2000;0.7285;-5.5901;
1069.5000;0.7285;-5.5875;
1069.8000;0.7285;-5.5796;
1070.1000;0.7285;-5.5796;
1070.4000;0.7269;-5.5848;
1070.7000;0.7261;-5.5901;
1071.0000;0.7277;-5.5954;
1071.3000;0.7293;-5.6033;
1071.6000;0.7269;-5.5954;
1071.9000;0.7253;-5.5928;
1072.2000;0.7269;-5.5875;
1072.5000;0.7253;-5.5848;
1072.8000;0.7261;-5.5901;
1073.1000;0.7269;-5.5954;
1073.4000;0.7293;-5.5901;
1073.7000;0.7277;-5.6060;
1074.0000;0.7261;-5.6086;
1074.3000;0.7269;-5.6086;
1074.6000;0.7293;-5.6007;
1074.9000;0.7302;-5.5980;
1075.2000;0.7269;-5.6060;
1075.5000;0.7253;-5.6165;
1075.8000;0.7245;-5.6192;
1076.1000;0.7269;-5.6139;
1076.4000;0.7245;-5.6165;
1076.7000;0.7236;-5.5954;
1077.0000;0.7253;-5.5954;
1077.3000;0.7245;-5.6007;
1077.6000;0.7269;-5.5980;
1077.9000;0.7245;-5.6192;
1078.2000;0.7245;-5.6165;
1078.5000;0.7261;-5.6112;
1078.8000;0.7253;-5.6033;
1079.1000;0.7261;-5.5980;
1079.4000;0.7253;-5.6033;
1079.7000;0.7228;-5.6192;
1080.0000;0.7253;-5.6086;
1080.3000;0.7245;-5.6112;
1080.6000;0.7245;-5.6165;
1080.9000;0.7261;-5.6139;
1081.2000;0.7253;-5.6139;
1081.5000;0.7277;-5.5980;
1081.8000;0.7253;-5.5954;
1082.1000;0.7236;-5.6060;
1082.4000;0.7261;-5.6086;
1082.7000;0.7253;-5.6139;
1083.0000;0.7277;-5.6007;
1083.3000;0.7261;-5.6033;
1083.6000;0.7277;-5.5980;
1083.9000;0.7269;-5.5928;
1084.2000;0.7269;-5.5901;
1084.5000;0.7236;-5.6060;
1084.8000;0.7253;-5.6060;
1085.1000;0.7261;-5.6007;
1085.4000;0.7253;-5.6007;
1085.7000;0.7245;-5.6060;
1086.0000;0.7245;-5.6007;
1086.3000;0.7253;-5.5980;
1086.6000;0.7245;-5.6033;
1086.9000;0.7228;-5.6007;
1087.2000;0.7228;-5.6007;
1087.5000;0.7228;-5.6033;
1087.8000;0.7261;-5.6060;
1088.1000;0.7253;-5.6007;
1088.4000;0.7253;-5.6007;
1088.7000;0.7236;-5.6112;
1089.0000;0.7253;-5.6007;
1089.3000;0.7204;-5.6033;
1089.6000;0.7179;-5.6060;
1089.9000;0.7228;-5.5875;
1090.2000;0.7236;-5.5875;
1090.5000;0.7245;-5.5769;
1090.8000;0.7236;-5.5796;
1091.1000;0.7228;-5.5848;
1091.4000;0.7236;-5.5848;
1091.7000;0.7253;-5.5875;
1092.0000;0.7245;-5.5822;
1092.3000;0.7245;-5.5848;
1092.6000;0.7245;-5.5796;
1092.9000;0.7253;-5.5822;
1093.2000;0.7236;-5.5796;
1093.5000;0.7236;-5.5796;
1093.8000;0.7220;-5.5796;
1094.1000;0.7253;-5.5796;
1094.4000;0.7245;-5.5796;
1094.7000;0.7253;-5.5796;
1095.0000;0.7253;-5.5848;
1095.3000;0.7212;-5.6033;
1095.6000;0.7212;-5.6007;
1095.9000;0.7228;-5.6060;
1096.2000;0.7196;-5.6165;
1096.5000;0.7236;-5.6007;
1096.8000;0.7228;-5.6007;
1097.1000;0.7236;-5.6060;
1097.4000;0.7277;-5.5901;
1097.7000;0.7245;-5.5901;
1098.0000;0.7236;-5.5901;
1098.3000;0.7228;-5.5954;
1098.6000;0.7228;-5.5954;
1098.9000;0.7236;-5.5980;
1099.2000;0.7253;-5.5954;
1099.5000;0.7228;-5.5954;
1099.8000;0.7236;-5.5980;
1100.1000;0.7228;-5.6086;
1100.4000;0.7220;-5.6165;
1100.7000;0.7228;-5.6086;
1101.0000;0.7204;-5.6165;
1101.3000;0.7220;-5.6086;
1101.6000;0.7204;-5.6060;
1101.9000;0.7236;-5.6086;
1102.2000;0.7236;-5.6007;
1102.5000;0.7236;-5.5901;
1102.8000;0.7277;-5.5848;
1103.1000;0.7236;-5.5901;
1103.4000;0.7236;-5.5875;
1103.7000;0.7228;-5.5901;
1104.0000;0.7245;-5.5954;
1104.3000;0.7236;-5.5901;
1104.6000;0.7236;-5.5848;
1104.9000;0.7220;-5.5954;
1105.2000;0.7236;-5.5822;
1105.5000;0.7171;-5.6007;
1105.8000;0.7228;-5.5848;
1106.1000;0.7228;-5.5875;
1106.4000;0.7212;-5.5928;
1106.7000;0.7220;-5.5980;
1107.0000;0.7212;-5.5980;
1107.3000;0.7204;-5.6060;
1107.6000;0.7228;-5.6086;
1107.9000;0.7139;-5.6350;
1108.2000;0.7204;-5.6112;
1108.5000;0.7220;-5.6139;
1108.8000;0.7228;-5.6218;
1109.1000;0.7236;-5.6218;
1109.4000;0.7228;-5.6297;
1109.7000;0.7253;-5.6165;
1110.0000;0.7220;-5.6244;
1110.3000;0.7220;-5.6244;
1110.6000;0.7228;-5.6165;
1110.9000;0.7220;-5.6192;
1111.2000;0.7236;-5.6165;
1111.5000;0.7212;-5.6271;
1111.8000;0.7212;-5.6192;
1112.1000;0.7204;-5.6218;
1112.4000;0.7212;-5.6165;
1112.7000;0.7212;-5.6139;
1113.0000;0.7220;-5.6086;
1113.3000;0.7220;-5.6033;
1113.6000;0.7212;-5.5980;
1113.9000;0.7196;-5.5901;
1114.2000;0.7196;-5.5928;
1114.5000;0.7228;-5.5875;
1114.8000;0.7220;-5.6060;
1115.1000;0.7220;-5.6007;
1115.4000;0.7204;-5.5954;
1115.7000;0.7220;-5.6007;
1116.0000;0.7228;-5.6033;
1116.3000;0.7204;-5.6033;
1116.6000;0.7204;-5.6060;
1116.9000;0.7212;-5.6086;
1117.2000;0.7212;-5.6086;
1117.5000;0.7204;-5.6112;
1117.8000;0.7212;-5.6086;
1118.1000;0.7220;-5.6086;
1118.4000;0.7253;-5.6060;
1118.7000;0.7236;-5.6112;
1119.0000;0.7204;-5.6060;
1119.3000;0.7212;-5.6033;
1119.6000;0.7204;-5.5928;
1119.9000;0.7212;-5.5848;
1120.2000;0.7253;-5.5743;
1120.5000;0.7188;-5.5901;
1120.8000;0.7204;-5.5980;
1121.1000;0.7228;-5.5901;
1121.4000;0.7245;-5.5875;
1121.7000;0.7196;-5.5954;
1122.0000;0.7204;-5.5928;
1122.3000;0.7188;-5.5954;
1122.6000;0.7204;-5.5901;
1122.9000;0.7196;-5.5848;
1123.2000;0.7204;-5.5848;
1123.5000;0.7236;-5.5875;
1123.8000;0.7204;-5.5954;
1124.1000;0.7204;-5.6033;
1124.4000;0.7188;-5.6086;
1124.7000;0.7196;-5.6033;
1125.0000;0.7220;-5.6060;
1125.3000;0.7196;-5.6192;
1125.6000;0.7196;-5.6244;
1125.9000;0.7188;-5.6165;
1126.2000;0.7204;-5.5954;
1126.5000;0.7212;-5.5980;
1126.8000;0.7204;-5.6086;
1127.1000;0.7212;-5.6060;
1127.4000;0.7220;-5.6060;
1127.7000;0.7220;-5.6192;
1128.0000;0.7188;-5.6192;
1128.3000;0.7212;-5.6033;
1128.6000;0.7188;-5.6086;
1128.9000;0.7204;-5.5928;
1129.2000;0.7204;-5.5928;
1129.5000;0.7163;-5.6139;
1129.8000;0.7212;-5.6139;
1130.1000;0.7277;-5.5980;
1130.4000;0.7196;-5.6060;
1130.7000;0.7171;-5.6007;
1131.0000;0.7212;-5.5954;
1131.3000;0.7196;-5.5875;
1131.6000;0.7171;-5.5928;
1131.9000;0.7188;-5.5848;
1132.2000;0.7212;-5.5769;
1132.5000;0.7220;-5.5769;
1132.8000;0.7228;-5.5901;
1133.1000;0.7204;-5.5928;
1133.4000;0.7196;-5.5928;
1133.7000;0.7196;-5.5928;
1134.0000;0.7196;-5.5928;
1134.3000;0.7163;-5.6007;
1134.6000;0.7188;-5.5901;
1134.9000;0.7179;-5.5928;
1135.2000;0.7196;-5.5980;
1135.5000;0.7131;-5.6060;
1135.8000;0.7212;-5.5954;
1136.1000;0.7204;-5.6086;
1136.4000;0.7236;-5.5954;
1136.7000;0.7188;-5.6033;
1137.0000;0.7204;-5.5980;
1137.3000;0.7163;-5.6060;
1137.6000;0.7253;-5.5848;
1137.9000;0.7196;-5.5901;
1138.2000;0.7171;-5.5954;
1138.5000;0.7147;-5.6060;
1138.8000;0.7188;-5.5822;
1139.1000;0.7196;-5.5875;
1139.4000;0.7179;-5.5928;
1139.7000;0.7171;-5.5928;
1140.0000;0.7196;-5.5928;
1140.3000;0.7188;-5.5875;
1140.6000;0.7179;-5.5954;
1140.9000;0.7179;-5.5954;
1141.2000;0.7179;-5.5980;
1141.5000;0.7188;-5.5954;
1141.8000;0.7196;-5.5980;
1142.1000;0.7188;-5.6033;
1142.4000;0.7188;-5.6033;
1142.7000;0.7179;-5.6033;
1143.0000;0.7163;-5.6086;
1143.3000;0.7171;-5.6086;
1143.6000;0.7179;-5.6139;
1143.9000;0.7171;-5.6033;
1144.2000;0.7196;-5.5954;
1144.5000;0.7179;-5.6060;
1144.8000;0.7179;-5.6112;
1145.1000;0.7171;-5.6033;
1145.4000;0.7188;-5.6033;
1145.7000;0.7188;-5.6060;
1146.0000;0.7139;-5.6165;
1146.3000;0.7188;-5.6033;
1146.6000;0.7171;-5.6060;
1146.9000;0.7196;-5.5954;
1147.2000;0.7179;-5.5901;
1147.5000;0.7171;-5.5928;
1147.8000;0.7171;-5.5901;
1148.1000;0.7163;-5.5928;
1148.4000;0.7147;-5.5928;
1148.7000;0.7171;-5.5769;
1149.0000;0.7179;-5.5743;
1149.3000;0.7196;-5.5743;
1149.6000;0.7188;-5.5769;
1149.9000;0.7179;-5.5796;
1150.2000;0.7179;-5.5769;
1150.5000;0.7179;-5.5901;
1150.8000;0.7179;-5.5954;
1151.1000;0.7171;-5.5901;
1151.4000;0.7171;-5.5848;
1151.7000;0.7179;-5.5928;
1152.0000;0.7163;-5.5848;
1152.3000;0.7155;-5.5743;
1152.6000;0.7171;-5.5743;
1152.9000;0.7171;-5.5769;
1153.2000;0.7171;-5.5769;
1153.5000;0.7204;-5.5663;
1153.8000;0.7171;-5.5796;
1154.1000;0.7204;-5.5769;
1154.4000;0.7179;-5.5769;
1154.7000;0.7196;-5.5743;
1155.0000;0.7163;-5.5822;
1155.3000;0.7131;-5.5928;
1155.6000;0.7204;-5.5769;
1155.9000;0.7188;-5.5822;
1156.2000;0.7196;-5.5822;
1156.5000;0.7179;-5.5875;
1156.8000;0.7228;-5.5822;
1157.1000;0.7188;-5.5928;
1157.4000;0.7179;-5.5901;
1157.7000;0.7139;-5.6033;
1158.0000;0.7171;-5.5928;
1158.3000;0.7147;-5.5928;
1158.6000;0.7106;-5.5980;
1158.9000;0.7139;-5.5928;
1159.2000;0.7155;-5.5875;
1159.5000;0.7179;-5.5769;
1159.8000;0.7163;-5.5769;
1160.1000;0.7171;-5.5716;
1160.4000;0.7179;-5.5716;
1160.7000;0.7179;-5.5690;
1161.0000;0.7236;-5.5584;
1161.3000;0.7163;-5.5796;
1161.6000;0.7171;-5.5743;
1161.9000;0.7188;-5.5716;
1162.2000;0.7171;-5.5769;
1162.5000;0.7163;-5.5769;
1162.8000;0.7171;-5.5848;
1163.1000;0.7147;-5.5769;
1163.4000;0.7171;-5.5690;
1163.7000;0.7147;-5.5822;
1164.0000;0.7163;-5.5796;
1164.3000;0.7171;-5.5875;
1164.6000;0.7147;-5.5875;
1164.9000;0.7179;-5.5743;
1165.2000;0.7171;-5.5690;
1165.5000;0.7163;-5.5716;
1165.8000;0.7179;-5.5690;
1166.1000;0.7163;-5.5769;
1166.4000;0.7147;-5.5848;
1166.7000;0.7171;-5.5848;
1167.0000;0.7171;-5.5822;
1167.3000;0.7171;-5.5901;
1167.6000;0.7155;-5.6007;
1167.9000;0.7155;-5.6086;
1168.2000;0.7147;-5.6060;
1168.5000;0.7171;-5.6007;
1168.8000;0.7171;-5.6060;
1169.1000;0.7163;-5.6033;
1169.4000;0.7139;-5.6139;
1169.7000;0.7155;-5.6112;
1170.0000;0.7188;-5.5980;
1170.3000;0.7155;-5.6007;
1170.6000;0.7155;-5.6033;
1170.9000;0.7171;-5.6086;
1171.2000;0.7163;-5.5928;
1171.5000;0.7204;-5.5822;
1171.8000;0.7171;-5.5848;
1172.1000;0.7163;-5.5796;
1172.4000;0.7155;-5.5901;
1172.7000;0.7163;-5.5875;
1173.0000;0.7147;-5.5928;
1173.3000;0.7155;-5.5848;
1173.6000;0.7163;-5.5848;
1173.9000;0.7131;-5.5901;
1174.2000;0.7147;-5.5875;
1174.5000;0.7179;-5.5875;
1174.8000;0.7163;-5.5822;
1175.1000;0.7155;-5.5769;
1175.4000;0.7131;-5.5875;
1175.7000;0.7131;-5.5980;
1176.0000;0.7163;-5.5928;
1176.3000;0.7155;-5.5822;
1176.6000;0.7155;-5.5769;
1176.9000;0.7155;-5.5796;
1177.2000;0.7155;-5.5822;
1177.5000;0.7196;-5.5663;
1177.8000;0.7171;-5.5716;
1178.1000;0.7155;-5.5743;
1178.4000;0.7090;-5.5954;
1178.7000;0.7163;-5.5743;
1179.0000;0.7163;-5.5796;
1179.3000;0.7123;-5.6007;
1179.6000;0.7163;-5.5928;
1179.9000;0.7155;-5.6007;
1180.2000;0.7179;-5.5954;
1180.5000;0.7171;-5.5954;
1180.8000;0.7155;-5.6033;
1181.1000;0.7196;-5.5848;
1181.4000;0.7171;-5.5928;
1181.7000;0.7106;-5.6060;
1182.0000;0.7155;-5.5901;
1182.3000;0.7123;-5.5954;
1182.6000;0.7188;-5.5901;
1182.9000;0.7155;-5.6033;
1183.2000;0.7155;-5.6007;
1183.5000;0.7131;-5.6086;
1183.8000;0.7163;-5.6112;
1184.1000;0.7155;-5.6033;
1184.4000;0.7147;-5.5980;
1184.7000;0.7131;-5.6033;
1185.0000;0.7147;-5.6060;
1185.3000;0.7090;-5.6218;
1185.6000;0.7147;-5.6007;
1185.9000;0.7131;-5.6033;
1186.2000;0.7147;-5.5954;
1186.5000;0.7163;-5.5901;
1186.8000;0.7131;-5.5901;
1187.1000;0.7147;-5.5822;
1187.4000;0.7106;-5.5928;
1187.7000;0.7155;-5.5875;
1188.0000;0.7163;-5.5875;
1188.3000;0.7155;-5.5822;
1188.6000;0.7147;-5.5901;
1188.9000;0.7147;-5.5901;
1189.2000;0.7131;-5.6007;
1189.5000;0.7131;-5.6060;
1189.8000;0.7147;-5.5980;
1190.1000;0.7163;-5.5901;
1190.4000;0.7163;-5.5796;
1190.7000;0.7147;-5.5901;
1191.0000;0.7155;-5.5928;
1191.3000;0.7163;-5.5848;
1191.6000;0.7163;-5.5822;
1191.9000;0.7147;-5.5822;
1192.2000;0.7139;-5.5928;
1192.5000;0.7147;-5.5875;
1192.8000;0.7147;-5.5928;
1193.1000;0.7147;-5.6033;
1193.4000;0.7155;-5.5954;
1193.7000;0.7131;-5.6007;
1194.0000;0.7147;-5.5980;
1194.3000;0.7123;-5.5928;
1194.6000;0.7155;-5.5901;
1194.9000;0.7131;-5.5954;
1195.2000;0.7139;-5.5928;
1195.5000;0.7114;-5.5954;
1195.8000;0.7147;-5.5822;
1196.1000;0.7131;-5.5848;
1196.4000;0.7098;-5.5875;
1196.7000;0.7147;-5.5822;
1197.0000;0.7139;-5.5716;
1197.3000;0.7139;-5.5716;
1197.6000;0.7147;-5.5690;
1197.9000;0.7147;-5.5690;
1198.2000;0.7131;-5.5769;
1198.5000;0.7131;-5.5743;
1198.8000;0.7139;-5.5769;
1199.1000;0.7131;-5.5796;
1199.4000;0.7131;-5.5875;
1199.7000;0.7123;-5.5901;
1200.0000;0.7155;-5.5769;
1200.3000;0.7139;-5.5848;
1200.6000;0.7123;-5.5848;
1200.9000;0.7139;-5.5769;
1201.2000;0.7123;-5.5743;
1201.5000;0.7163;-5.5690;
1201.8000;0.7163;-5.5663;
1202.1000;0.7155;-5.5584;
1202.4000;0.7098;-5.5743;
1202.7000;0.7131;-5.5663;
1203.0000;0.7155;-5.5611;
1203.3000;0.7163;-5.5637;
1203.6000;0.7163;-5.5637;
1203.9000;0.7139;-5.5716;
1204.2000;0.7147;-5.5769;
1204.5000;0.7139;-5.5822;
1204.8000;0.7139;-5.5769;
1205.1000;0.7147;-5.5743;
1205.4000;0.7147;-5.5716;
1205.7000;0.7114;-5.5716;
1206.0000;0.7139;-5.5663;
1206.3000;0.7131;-5.5584;
1206.6000;0.7131;-5.5637;
1206.9000;0.7147;-5.5743;
1207.2000;0.7123;-5.5690;
1207.5000;0.7106;-5.5716;
1207.8000;0.7123;-5.5584;
1208.1000;0.7123;-5.5479;
1208.4000;0.7106;-5.5531;
1208.7000;0.7114;-5.5505;
1209.0000;0.7114;-5.5531;
1209.3000;0.7131;-5.5505;
1209.6000;0.7139;-5.5531;
1209.9000;0.7131;-5.5663;
1210.2000;0.7131;-5.5558;
1210.5000;0.7074;-5.5769;
1210.8000;0.7123;-5.5558;
1211.1000;0.7123;-5.5584;
1211.4000;0.7098;-5.5611;
1211.7000;0.7123;-5.5663;
1212.0000;0.7131;-5.5611;
1212.3000;0.7114;-5.5611;
1212.6000;0.7114;-5.5637;
1212.9000;0.7131;-5.5611;
1213.2000;0.7123;-5.5663;
1213.5000;0.7147;-5.5584;
1213.8000;0.7114;-5.5584;
1214.1000;0.7123;-5.5479;
1214.4000;0.7106;-5.5505;
1214.7000;0.7123;-5.5505;
1215.0000;0.7114;-5.5505;
1215.3000;0.7123;-5.5558;
1215.6000;0.7114;-5.5452;
1215.9000;0.7123;-5.5531;
1216.2000;0.7114;-5.5531;
1216.5000;0.7131;-5.5558;
1216.8000;0.7114;-5.5637;
1217.1000;0.7131;-5.5611;
1217.4000;0.7147;-5.5531;
1217.7000;0.7131;-5.5531;
1218.0000;0.7131;-5.5584;
1218.3000;0.7114;-5.5690;
1218.6000;0.7131;-5.5637;
1218.9000;0.7114;-5.5690;
1219.2000;0.7123;-5.5663;
1219.5000;0.7098;-5.5822;
1219.8000;0.7123;-5.5743;
1220.1000;0.7114;-5.5822;
1220.4000;0.7098;-5.5796;
1220.7000;0.7123;-5.5690;
1221.0000;0.7106;-5.5690;
1221.3000;0.7147;-5.5663;
1221.6000;0.7098;-5.5743;
1221.9000;0.7106;-5.5716;
1222.2000;0.7098;-5.5796;
1222.5000;0.7106;-5.5743;
1222.8000;0.7123;-5.5637;
1223.1000;0.7106;-5.5558;
1223.4000;0.7106;-5.5584;
1223.7000;0.7123;-5.5584;
1224.0000;0.7090;-5.5690;
1224.3000;0.7098;-5.5690;
1224.6000;0.7123;-5.5663;
1224.9000;0.7106;-5.5690;
1225.2000;0.7082;-5.5848;
1225.5000;0.7106;-5.5822;
1225.8000;0.7106;-5.5743;
1226.1000;0.7106;-5.5769;
1226.4000;0.7098;-5.5796;
1226.7000;0.7074;-5.5822;
1227.0000;0.7179;-5.5637;
1227.3000;0.7131;-5.5716;
1227.6000;0.7123;-5.5663;
1227.9000;0.7123;-5.5637;
1228.2000;0.7139;-5.5637;
1228.5000;0.7074;-5.5822;
1228.8000;0.7139;-5.5690;
1229.1000;0.7098;-5.5743;
1229.4000;0.7098;-5.5769;
1229.7000;0.7082;-5.5796;
1230.0000;0.7114;-5.5690;
1230.3000;0.7171;-5.5505;
1230.6000;0.7114;-5.5611;
1230.9000;0.7106;-5.5637;
1231.2000;0.7114;-5.5690;
1231.5000;0.7090;-5.5769;
1231.8000;0.7090;-5.5875;
1232.1000;0.7139;-5.5796;
1232.4000;0.7114;-5.5796;
1232.7000;0.7106;-5.5848;
1233.0000;0.7090;-5.5848;
1233.3000;0.7123;-5.5690;
1233.6000;0.7098;-5.5743;
1233.9000;0.7114;-5.5769;
1234.2000;0.7114;-5.5848;
1234.5000;0.7139;-5.5796;
1234.8000;0.7114;-5.5796;
1235.1000;0.7106;-5.5822;
1235.4000;0.7098;-5.5875;
1235.7000;0.7106;-5.5901;
1236.0000;0.7106;-5.5901;
1236.3000;0.7098;-5.5954;
1236.6000;0.7106;-5.5954;
1236.9000;0.7106;-5.6033;
1237.2000;0.7114;-5.6007;
1237.5000;0.7114;-5.5875;
1237.8000;0.7074;-5.5928;
1238.1000;0.7114;-5.5796;
1238.4000;0.7098;-5.5822;
1238.7000;0.7098;-5.5769;
1239.0000;0.7114;-5.5769;
1239.3000;0.7106;-5.5743;
1239.6000;0.7106;-5.5796;
1239.9000;0.7114;-5.5769;
1240.2000;0.7098;-5.5822;
1240.5000;0.7082;-5.5928;
1240.8000;0.7114;-5.5954;
1241.1000;0.7041;-5.6139;
1241.4000;0.7098;-5.5954;
1241.7000;0.7082;-5.5928;
1242.0000;0.7098;-5.5954;
1242.3000;0.7082;-5.5980;
1242.6000;0.7171;-5.5716;
1242.9000;0.7090;-5.5848;
1243.2000;0.7090;-5.6007;
1243.5000;0.7155;-5.5848;
1243.8000;0.7123;-5.5980;
1244.1000;0.7106;-5.6033;
1244.4000;0.7074;-5.6112;
1244.7000;0.7114;-5.5928;
1245.0000;0.7098;-5.5980;
1245.3000;0.7082;-5.5928;
1245.6000;0.7123;-5.5769;
1245.9000;0.7090;-5.5954;
1246.2000;0.7098;-5.5980;
1246.5000;0.7098;-5.5928;
1246.8000;0.7017;-5.6139;
1247.1000;0.7082;-5.5954;
1247.4000;0.7057;-5.5980;
1247.7000;0.7106;-5.5980;
1248.0000;0.7017;-5.6165;
1248.3000;0.7082;-5.6007;
1248.6000;0.7106;-5.5928;
1248.9000;0.7106;-5.5848;
1249.2000;0.7098;-5.5716;
1249.5000;0.7098;-5.5716;
1249.8000;0.7114;-5.5769;
1250.1000;0.7098;-5.5848;
1250.4000;0.7114;-5.5822;
1250.7000;0.7123;-5.5769;
1251.0000;0.7074;-5.5875;
1251.3000;0.7082;-5.6007;
1251.6000;0.7106;-5.5928;
1251.9000;0.7066;-5.5901;
1252.2000;0.7066;-5.5875;
1252.5000;0.7090;-5.5875;
1252.8000;0.7155;-5.5769;
1253.1000;0.7090;-5.5822;
1253.4000;0.7090;-5.5822;
1253.7000;0.7082;-5.5796;
1254.0000;0.7123;-5.5663;
1254.3000;0.7106;-5.5796;
1254.6000;0.7098;-5.5848;
1254.9000;0.7098;-5.5848;
1255.2000;0.7090;-5.5954;
1255.5000;0.7114;-5.5822;
1255.8000;0.7106;-5.5848;
1256.1000;0.7114;-5.5848;
1256.4000;0.7106;-5.5875;
1256.7000;0.7082;-5.5875;
1257.0000;0.7090;-5.5716;
1257.3000;0.7098;-5.5716;
1257.6000;0.7057;-5.5822;
1257.9000;0.7098;-5.5743;
1258.2000;0.7090;-5.5743;
1258.5000;0.7066;-5.5769;
1258.8000;0.7041;-5.5796;
1259.1000;0.7098;-5.5690;
1259.4000;0.7098;-5.5690;
1259.7000;0.7098;-5.5663;
1260.0000;0.7090;-5.5663;
1260.3000;0.7098;-5.5584;
1260.6000;0.7098;-5.5558;
1260.9000;0.7090;-5.5637;
1261.2000;0.7074;-5.5663;
1261.5000;0.7066;-5.5690;
1261.8000;0.7090;-5.5690;
1262.1000;0.7090;-5.5690;
1262.4000;0.7090;-5.5769;
1262.7000;0.7090;-5.5769;
1263.0000;0.7090;-5.5690;
1263.3000;0.7098;-5.5716;
1263.6000;0.7066;-5.5875;
1263.9000;0.7098;-5.5822;
1264.2000;0.7098;-5.5901;
1264.5000;0.7098;-5.5901;
1264.8000;0.7098;-5.5928;
1265.1000;0.7090;-5.5954;
1265.4000;0.7082;-5.5980;
1265.7000;0.7123;-5.5848;
1266.0000;0.7082;-5.6007;
1266.3000;0.7090;-5.6033;
1266.6000;0.7049;-5.6112;
1266.9000;0.7074;-5.5928;
1267.2000;0.7049;-5.6007;
1267.5000;0.7049;-5.6086;
1267.8000;0.7066;-5.5954;
1268.1000;0.7074;-5.6033;
1268.4000;0.7066;-5.6033;
1268.7000;0.7074;-5.6086;
1269.0000;0.7090;-5.5954;
1269.3000;0.7057;-5.6033;
1269.6000;0.7082;-5.5901;
1269.9000;0.7017;-5.6139;
1270.2000;0.7098;-5.6007;
1270.5000;0.7082;-5.6033;
1270.8000;0.7057;-5.6060;
1271.1000;0.7041;-5.6165;
1271.4000;0.7082;-5.6086;
1271.7000;0.7090;-5.6033;
1272.0000;0.7041;-5.6060;
1272.3000;0.7090;-5.5928;
1272.6000;0.7066;-5.5980;
1272.9000;0.7049;-5.6060;
1273.2000;0.7098;-5.6007;
1273.5000;0.7074;-5.6007;
1273.8000;0.7074;-5.5980;
1274.1000;0.7074;-5.5980;
1274.4000;0.7057;-5.6033;
1274.7000;0.7074;-5.6033;
1275.0000;0.7090;-5.6007;
1275.3000;0.7074;-5.5980;
1275.6000;0.7098;-5.5980;
1275.9000;0.7082;-5.5980;
1276.2000;0.7066;-5.6060;
1276.5000;0.7082;-5.6086;
1276.8000;0.7082;-5.6086;
1277.1000;0.7057;-5.6165;
1277.4000;0.7025;-5.6271;
1277.7000;0.7074;-5.6165;
1278.0000;0.7066;-5.6086;
1278.3000;0.7074;-5.6086;
1278.6000;0.7066;-5.6086;
1278.9000;0.7033;-5.6218;
1279.2000;0.7074;-5.5980;
1279.5000;0.7106;-5.5822;
1279.8000;0.7074;-5.5901;
1280.1000;0.7090;-5.5901;
1280.4000;0.7066;-5.5954;
1280.7000;0.7090;-5.5875;
1281.0000;0.7082;-5.5901;
1281.3000;0.7082;-5.5848;
1281.6000;0.7123;-5.5743;
1281.9000;0.7066;-5.5875;
1282.2000;0.7074;-5.5848;
1282.5000;0.7082;-5.5769;
1282.8000;0.7066;-5.5769;
1283.1000;0.7074;-5.5716;
1283.4000;0.7074;-5.5796;
1283.7000;0.7090;-5.5796;
1284.0000;0.7090;-5.5769;
1284.3000;0.7074;-5.5716;
1284.6000;0.7057;-5.5716;
1284.9000;0.7082;-5.5690;
1285.2000;0.7090;-5.5690;
1285.5000;0.7131;-5.5479;
1285.8000;0.7090;-5.5663;
1286.1000;0.7082;-5.5663;
1286.4000;0.7082;-5.5716;
1286.7000;0.7074;-5.5769;
1287.0000;0.7066;-5.5901;
1287.3000;0.7074;-5.5822;
1287.6000;0.7082;-5.5743;
1287.9000;0.7057;-5.5743;
1288.2000;0.7066;-5.5716;
1288.5000;0.7098;-5.5637;
1288.8000;0.7082;-5.5769;
1289.1000;0.7082;-5.5637;
1289.4000;0.7066;-5.5584;
1289.7000;0.7066;-5.5479;
1290.0000;0.7074;-5.5558;
1290.3000;0.7098;-5.5584;
1290.6000;0.7074;-5.5611;
1290.9000;0.7057;-5.5584;
1291.2000;0.7066;-5.5663;
1291.5000;0.7057;-5.5690;
1291.8000;0.7082;-5.5663;
1292.1000;0.7066;-5.5716;
1292.4000;0.7074;-5.5769;
1292.7000;0.7082;-5.5822;
1293.0000;0.7057;-5.5848;
1293.3000;0.7082;-5.5901;
1293.6000;0.7066;-5.5928;
1293.9000;0.7000;-5.6192;
1294.2000;0.7090;-5.5980;
1294.5000;0.7074;-5.6007;
1294.8000;0.7049;-5.6033;
1295.1000;0.7057;-5.5954;
1295.4000;0.7074;-5.5928;
1295.7000;0.7057;-5.6007;
1296.0000;0.7066;-5.5901;
1296.3000;0.7074;-5.5875;
1296.6000;0.7082;-5.5928;
1296.9000;0.7082;-5.5822;
1297.2000;0.7066;-5.5796;
1297.5000;0.7074;-5.5716;
1297.8000;0.7074;-5.5663;
1298.1000;0.7066;-5.5690;
1298.4000;0.7106;-5.5637;
1298.7000;0.7082;-5.5716;
1299.0000;0.7090;-5.5769;
1299.3000;0.7057;-5.5875;
1299.6000;0.7066;-5.5928;
1299.9000;0.7082;-5.5822;
1300.2000;0.7074;-5.5769;
1300.5000;0.7090;-5.5637;
1300.8000;0.7057;-5.5743;
1301.1000;0.7057;-5.5743;
1301.4000;0.7049;-5.5769;
1301.7000;0.7066;-5.5769;
1302.0000;0.7057;-5.5822;
1302.3000;0.7057;-5.5769;
1302.6000;0.7082;-5.5663;
1302.9000;0.7074;-5.5637;
1303.2000;0.7082;-5.5663;
1303.5000;0.7074;-5.5716;
1303.8000;0.7041;-5.5743;
1304.1000;0.7057;-5.5716;
1304.4000;0.7033;-5.5716;
1304.7000;0.7049;-5.5611;
1305.0000;0.7049;-5.5716;
1305.3000;0.7057;-5.5716;
1305.6000;0.7090;-5.5584;
1305.9000;0.7074;-5.5663;
1306.2000;0.7090;-5.5637;
1306.5000;0.7033;-5.5822;
1306.8000;0.7074;-5.5822;
1307.1000;0.7074;-5.5928;
1307.4000;0.7082;-5.5875;
1307.7000;0.7123;-5.5743;
1308.0000;0.7082;-5.5980;
1308.3000;0.7082;-5.5980;
1308.6000;0.7082;-5.6007;
1308.9000;0.7057;-5.6007;
1309.2000;0.7074;-5.5848;
1309.5000;0.7090;-5.5743;
1309.8000;0.7049;-5.5796;
1310.1000;0.7057;-5.5875;
1310.4000;0.7057;-5.5743;
1310.7000;0.7074;-5.5611;
1311.0000;0.7082;-5.5558;
1311.3000;0.7041;-5.5637;
1311.6000;0.7066;-5.5505;
1311.9000;0.7074;-5.5505;
1312.2000;0.7066;-5.5479;
1312.5000;0.7009;-5.5637;
1312.8000;0.7082;-5.5479;
1313.1000;0.7057;-5.5558;
1313.4000;0.7057;-5.5505;
1313.7000;0.7033;-5.5611;
1314.0000;0.7041;-5.5584;
1314.3000;0.7074;-5.5558;
1314.6000;0.7074;-5.5637;
1314.9000;0.7049;-5.5637;
1315.2000;0.7074;-5.5663;
1315.5000;0.7074;-5.5716;
1315.8000;0.7066;-5.5769;
1316.1000;0.7057;-5.5769;
1316.4000;0.7049;-5.5848;
1316.7000;0.7074;-5.5769;
1317.0000;0.7009;-5.5875;
1317.3000;0.7082;-5.5663;
1317.6000;0.7082;-5.5690;
1317.9000;0.7066;-5.5690;
1318.2000;0.7074;-5.5584;
1318.5000;0.7057;-5.5637;
1318.8000;0.7049;-5.5690;
1319.1000;0.7163;-5.5373;
1319.4000;0.7066;-5.5558;
1319.7000;0.7098;-5.5373;
1320.0000;0.7057;-5.5479;
1320.3000;0.7057;-5.5452;
1320.6000;0.7057;-5.5505;
1320.9000;0.7057;-5.5558;
1321.2000;0.7057;-5.5558;
1321.5000;0.7066;-5.5558;
1321.8000;0.7082;-5.5611;
1322.1000;0.7074;-5.5637;
1322.4000;0.7066;-5.5637;
1322.7000;0.7049;-5.5637;
1323.0000;0.7049;-5.5505;
1323.3000;0.7057;-5.5505;
1323.6000;0.7066;-5.5531;
1323.9000;0.7025;-5.5663;
1324.2000;0.7057;-5.5637;
1324.5000;0.7033;-5.5611;
1324.8000;0.7057;-5.5584;
1325.1000;0.7049;-5.5531;
1325.4000;0.7049;-5.5531;
1325.7000;0.7041;-5.5531;
1326.0000;0.7049;-5.5479;
1326.3000;0.7041;-5.5505;
1326.6000;0.7041;-5.5584;
1326.9000;0.7041;-5.5558;
1327.2000;0.7074;-5.5505;
1327.5000;0.7066;-5.5479;
1327.8000;0.7049;-5.5479;
1328.1000;0.7057;-5.5531;
1328.4000;0.7000;-5.5663;
1328.7000;0.7074;-5.5452;
1329.0000;0.7057;-5.5479;
1329.3000;0.7049;-5.5558;
1329.6000;0.7106;-5.5452;
1329.9000;0.7057;-5.5531;
1330.2000;0.7049;-5.5558;
1330.5000;0.7057;-5.5611;
1330.8000;0.7041;-5.5611;
1331.1000;0.7041;-5.5822;
1331.4000;0.7049;-5.5769;
1331.7000;0.7057;-5.5822;
1332.0000;0.7057;-5.5954;
1332.3000;0.7049;-5.5928;
1332.6000;0.7057;-5.5822;
1332.9000;0.7025;-5.5875;
1333.2000;0.7057;-5.5848;
1333.5000;0.7049;-5.5928;
1333.8000;0.7074;-5.5980;
1334.1000;0.7049;-5.5954;
1334.4000;0.7082;-5.5875;
1334.7000;0.7017;-5.5954;
1335.0000;0.7000;-5.6033;
1335.3000;0.7049;-5.5954;
1335.6000;0.7041;-5.5954;
1335.9000;0.7049;-5.5954;
1336.2000;0.7049;-5.5901;
1336.5000;0.6968;-5.6033;
1336.8000;0.7049;-5.5928;
1337.1000;0.7057;-5.5901;
1337.4000;0.7066;-5.5901;
1337.7000;0.7074;-5.5769;
1338.0000;0.7057;-5.5796;
1338.3000;0.7033;-5.5822;
1338.6000;0.7049;-5.5716;
1338.9000;0.7057;-5.5769;
1339.2000;0.7009;-5.5901;
1339.5000;0.7049;-5.5848;
1339.8000;0.7057;-5.5796;
1340.1000;0.7057;-5.5796;
1340.4000;0.7033;-5.5848;
1340.7000;0.7049;-5.5875;
1341.0000;0.7033;-5.5743;
1341.3000;0.7049;-5.5663;
1341.6000;0.7057;-5.5611;
1341.9000;0.7041;-5.5637;
1342.2000;0.7114;-5.5452;
1342.5000;0.7025;-5.5743;
1342.8000;0.7041;-5.5690;
1343.1000;0.7041;-5.5663;
1343.4000;0.7041;-5.5637;
1343.7000;0.7049;-5.5663;
1344.0000;0.7057;-5.5663;
1344.3000;0.7090;-5.5531;
1344.6000;0.7041;-5.5716;
1344.9000;0.7057;-5.5558;
1345.2000;0.7066;-5.5479;
1345.5000;0.7025;-5.5505;
1345.8000;0.7033;-5.5558;
1346.1000;0.7033;-5.5505;
1346.4000;0.7041;-5.5452;
1346.7000;0.7033;-5.5505;
1347.0000;0.7000;-5.5611;
1347.3000;0.7033;-5.5558;
1347.6000;0.7049;-5.5611;
1347.9000;0.7049;-5.5663;
1348.2000;0.7049;-5.5663;
1348.5000;0.7033;-5.5637;
1348.8000;0.7033;-5.5611;
1349.1000;0.7057;-5.5611;
1349.4000;0.7033;-5.5663;
1349.7000;0.7033;-5.5637;
1350.0000;0.7057;-5.5584;
1350.3000;0.7033;-5.5584;
1350.6000;0.7041;-5.5611;
1350.9000;0.7033;-5.5531;
1351.2000;0.7033;-5.5584;
1351.5000;0.7033;-5.5716;
1351.8000;0.7049;-5.5663;
1352.1000;0.7049;-5.5637;
1352.4000;0.7049;-5.5611;
1352.7000;0.7057;-5.5663;
1353.0000;0.7049;-5.5690;
1353.3000;0.7049;-5.5716;
1353.6000;0.7000;-5.5875;
1353.9000;0.7041;-5.5663;
1354.2000;0.7057;-5.5637;
1354.5000;0.7033;-5.5690;
1354.8000;0.7025;-5.5743;
1355.1000;0.7041;-5.5663;
1355.4000;0.7033;-5.5611;
1355.7000;0.7049;-5.5637;
1356.0000;0.7025;-5.5637;
1356.3000;0.7033;-5.5611;
1356.6000;0.7041;-5.5584;
1356.9000;0.7033;-5.5584;
1357.2000;0.7033;-5.5531;
1357.5000;0.7057;-5.5531;
1357.8000;0.7017;-5.5558;
1358.1000;0.7049;-5.5452;
1358.4000;0.7106;-5.5320;
1358.7000;0.7000;-5.5637;
1359.0000;0.7049;-5.5531;
1359.3000;0.7049;-5.5558;
1359.6000;0.7041;-5.5611;
1359.9000;0.7033;-5.5637;
1360.2000;0.7082;-5.5584;
1360.5000;0.7049;-5.5611;
1360.8000;0.7033;-5.5743;
1361.1000;0.7041;-5.5716;
1361.4000;0.7033;-5.5743;
1361.7000;0.7066;-5.5690;
1362.0000;0.7041;-5.5769;
1362.3000;0.7041;-5.5875;
1362.6000;0.7041;-5.5848;
1362.9000;0.7057;-5.5848;
1363.2000;0.7049;-5.5875;
1363.5000;0.7082;-5.5716;
1363.8000;0.7041;-5.5822;
1364.1000;0.6960;-5.6033;
1364.4000;0.7057;-5.5769;
1364.7000;0.7057;-5.5743;
1365.0000;0.7049;-5.5716;
1365.3000;0.7041;-5.5716;
1365.6000;0.7033;-5.5848;
1365.9000;0.7025;-5.5743;
1366.2000;0.7017;-5.5796;
1366.5000;0.7000;-5.5822;
1366.8000;0.7025;-5.5690;
1367.1000;0.7025;-5.5769;
1367.4000;0.7017;-5.5690;
1367.7000;0.7025;-5.5663;
1368.0000;0.7033;-5.5690;
1368.3000;0.7025;-5.5716;
1368.6000;0.7025;-5.5769;
1368.9000;0.7041;-5.5663;
1369.2000;0.7049;-5.5611;
1369.5000;0.7123;-5.5452;
1369.8000;0.7049;-5.5690;
1370.1000;0.7033;-5.5769;
1370.4000;0.7057;-5.5743;
1370.7000;0.7049;-5.5716;
1371.0000;0.7033;-5.5690;
1371.3000;0.7057;-5.5611;
1371.6000;0.7025;-5.5663;
1371.9000;0.7033;-5.5611;
1372.2000;0.7017;-5.5637;
1372.5000;0.7033;-5.5558;
1372.8000;0.7033;-5.5505;
1373.1000;0.7033;-5.5479;
1373.4000;0.7041;-5.5479;
1373.7000;0.7017;-5.5505;
1374.0000;0.7025;-5.5558;
1374.3000;0.7033;-5.5584;
1374.6000;0.7025;-5.5531;
1374.9000;0.7106;-5.5373;
1375.2000;0.7025;-5.5663;
1375.5000;0.7033;-5.5716;
1375.8000;0.7049;-5.5743;
1376.1000;0.7057;-5.5690;
1376.4000;0.7049;-5.5716;
1376.7000;0.7041;-5.5796;
1377.0000;0.7009;-5.5875;
1377.3000;0.7049;-5.5822;
1377.6000;0.7033;-5.5743;
1377.9000;0.7033;-5.5690;
1378.2000;0.7033;-5.5611;
1378.5000;0.7041;-5.5505;
1378.8000;0.7098;-5.5373;
1379.1000;0.7033;-5.5479;
1379.4000;0.7057;-5.5531;
1379.7000;0.7049;-5.5531;
1380.0000;0.7057;-5.5479;
1380.3000;0.7017;-5.5531;
1380.6000;0.7049;-5.5479;
1380.9000;0.7057;-5.5399;
1381.2000;0.7009;-5.5611;
1381.5000;0.7017;-5.5584;
1381.8000;0.7114;-5.5320;
1382.1000;0.7025;-5.5558;
1382.4000;0.7025;-5.5611;
1382.7000;0.7066;-5.5611;
1383.0000;0.7033;-5.5690;
1383.3000;0.7033;-5.5690;
1383.6000;0.7049;-5.5558;
1383.9000;0.7033;-5.5611;
1384.2000;0.7041;-5.5611;
1384.5000;0.7033;-5.5637;
1384.8000;0.7025;-5.5637;
1385.1000;0.7057;-5.5584;
1385.4000;0.7049;-5.5611;
1385.7000;0.7033;-5.5611;
1386.0000;0.7057;-5.5663;
1386.3000;0.7041;-5.5769;
1386.6000;0.7025;-5.5743;
1386.9000;0.7033;-5.5796;
1387.2000;0.7025;-5.5875;
1387.5000;0.7041;-5.5875;
1387.8000;0.7025;-5.5901;
1388.1000;0.7017;-5.5848;
1388.4000;0.7017;-5.5901;
1388.7000;0.7000;-5.5875;
1389.0000;0.7033;-5.5769;
1389.3000;0.7033;-5.5769;
1389.6000;0.7041;-5.5769;
1389.9000;0.7041;-5.5690;
1390.2000;0.7025;-5.5716;
1390.5000;0.7017;-5.5716;
1390.8000;0.7041;-5.5716;
1391.1000;0.7033;-5.5690;
1391.4000;0.7033;-5.5611;
1391.7000;0.7033;-5.5611;
1392.0000;0.7025;-5.5663;
1392.3000;0.7009;-5.5796;
1392.6000;0.7041;-5.5690;
1392.9000;0.7033;-5.5769;
1393.2000;0.7049;-5.5690;
1393.5000;0.7049;-5.5769;
1393.8000;0.7057;-5.5822;
1394.1000;0.7041;-5.5848;
1394.4000;0.7041;-5.5796;
1394.7000;0.7057;-5.5743;
1395.0000;0.7041;-5.5822;
1395.3000;0.7074;-5.5769;
1395.6000;0.7033;-5.5875;
1395.9000;0.7041;-5.5796;
1396.2000;0.7049;-5.5769;
1396.5000;0.7041;-5.5716;
1396.8000;0.7041;-5.5663;
1397.1000;0.7033;-5.5690;
1397.4000;0.7025;-5.5769;
1397.7000;0.7049;-5.5716;
1398.0000;0.7033;-5.5796;
1398.3000;0.7017;-5.5822;
1398.6000;0.7025;-5.5796;
1398.9000;0.7025;-5.5769;
1399.2000;0.7049;-5.5690;
1399.5000;0.7074;-5.5531;
1399.8000;0.7017;-5.5611;
