time/ms;Fluo/V;P700 deltaI/I x10³;
-199.8000;0.0936;1.0836;
-199.5000;0.0944;1.0836;
-199.2000;0.0936;1.0812;
-198.9000;0.0952;1.0812;
-198.6000;0.0936;1.0766;
-198.3000;0.0920;1.0625;
-198.0000;0.0887;1.0485;
-197.7000;0.1026;1.0906;
-197.4000;0.0952;1.0789;
-197.1000;0.0944;1.0742;
-196.8000;0.0920;1.0625;
-196.5000;0.0944;1.0766;
-196.2000;0.0944;1.0719;
-195.9000;0.0887;1.0462;
-195.6000;0.0936;1.0625;
-195.3000;0.0936;1.0555;
-195.0000;0.0944;1.0555;
-194.7000;0.0936;1.0602;
-194.4000;0.0936;1.0672;
-194.1000;0.0944;1.0766;
-193.8000;0.0969;1.0906;
-193.5000;0.0936;1.0742;
-193.2000;0.0928;1.0695;
-192.9000;0.0928;1.0719;
-192.6000;0.0952;1.0719;
-192.3000;0.0936;1.0719;
-192.0000;0.0969;1.0859;
-191.7000;0.0904;1.0742;
-191.4000;0.0961;1.0859;
-191.1000;0.0952;1.0859;
-190.8000;0.0952;1.0742;
-190.5000;0.0944;1.0766;
-190.2000;0.0952;1.0789;
-189.9000;0.0863;1.0509;
-189.6000;0.0936;1.0695;
-189.3000;0.0920;1.0649;
-189.0000;0.0961;1.0766;
-188.7000;0.0944;1.0789;
-188.4000;0.0936;1.0789;
-188.1000;0.0920;1.0766;
-187.8000;0.0952;1.0882;
-187.5000;0.0952;1.0766;
-187.2000;0.0928;1.0672;
-186.9000;0.0961;1.0789;
-186.6000;0.0944;1.0812;
-186.3000;0.0961;1.0859;
-186.0000;0.0936;1.0836;
-185.7000;0.0952;1.0742;
-185.4000;0.0895;1.0532;
-185.1000;0.0904;1.0625;
-184.8000;0.0985;1.0719;
-184.5000;0.0944;1.0649;
-184.2000;0.0838;1.0485;
-183.9000;0.0895;1.0695;
-183.6000;0.0952;1.0836;
-183.3000;0.0993;1.0976;
-183.0000;0.0863;1.0555;
-182.7000;0.0895;1.0649;
-182.4000;0.0944;1.0812;
-182.1000;0.0904;1.0602;
-181.8000;0.0936;1.0649;
-181.5000;0.0879;1.0439;
-181.2000;0.0969;1.0695;
-180.9000;0.0920;1.0625;
-180.6000;0.1066;1.1022;
-180.3000;0.0830;1.0462;
-180.0000;0.0961;1.0906;
-179.7000;0.0936;1.0836;
-179.4000;0.0952;1.0836;
-179.1000;0.0887;1.0649;
-178.8000;0.0936;1.0695;
-178.5000;0.0944;1.0742;
-178.2000;0.0944;1.0719;
-177.9000;0.0920;1.0742;
-177.6000;0.0944;1.0836;
-177.3000;0.0952;1.0789;
-177.0000;0.0944;1.0766;
-176.7000;0.0993;1.0999;
-176.4000;0.0928;1.0906;
-176.1000;0.0936;1.0906;
-175.8000;0.0895;1.0719;
-175.5000;0.0944;1.0859;
-175.2000;0.0928;1.0859;
-174.9000;0.0904;1.0742;
-174.6000;0.0961;1.0859;
-174.3000;0.0944;1.0836;
-174.0000;0.0936;1.0836;
-173.7000;0.0961;1.0882;
-173.4000;0.0977;1.0859;
-173.1000;0.0944;1.0812;
-172.8000;0.0944;1.0882;
-172.5000;0.0920;1.0742;
-172.2000;0.0944;1.0742;
-171.9000;0.0936;1.0766;
-171.6000;0.0944;1.0766;
-171.3000;0.0928;1.0695;
-171.0000;0.0944;1.0672;
-170.7000;0.0920;1.0695;
-170.4000;0.0936;1.0766;
-170.1000;0.0936;1.0742;
-169.8000;0.0936;1.0695;
-169.5000;0.0952;1.0742;
-169.2000;0.0936;1.0766;
-168.9000;0.0969;1.0882;
-168.6000;0.0961;1.0859;
-168.3000;0.0952;1.0719;
-168.0000;0.0952;1.0742;
-167.7000;0.0904;1.0485;
-167.4000;0.0952;1.0602;
-167.1000;0.0944;1.0602;
-166.8000;0.0895;1.0579;
-166.5000;0.0928;1.0812;
-166.2000;0.0977;1.0836;
-165.9000;0.0936;1.0789;
-165.6000;0.0904;1.0672;
-165.3000;0.1001;1.1022;
-165.0000;0.0952;1.0976;
-164.7000;0.0912;1.0859;
-164.4000;0.0879;1.0602;
-164.1000;0.0895;1.0649;
-163.8000;0.0944;1.0719;
-163.5000;0.0936;1.0742;
-163.2000;0.0961;1.0766;
-162.9000;0.0952;1.0766;
-162.6000;0.0944;1.0742;
-162.3000;0.0977;1.0906;
-162.0000;0.0952;1.0836;
-161.7000;0.0944;1.0882;
-161.4000;0.0936;1.0859;
-161.1000;0.0920;1.0812;
-160.8000;0.0920;1.0836;
-160.5000;0.0944;1.0836;
-160.2000;0.0895;1.0719;
-159.9000;0.0952;1.0836;
-159.6000;0.1026;1.0999;
-159.3000;0.0936;1.0812;
-159.0000;0.0928;1.0882;
-158.7000;0.0904;1.0812;
-158.4000;0.0952;1.0952;
-158.1000;0.0961;1.0976;
-157.8000;0.0952;1.0882;
-157.5000;0.0944;1.0859;
-157.2000;0.0920;1.0742;
-156.9000;0.0936;1.0719;
-156.6000;0.0936;1.0719;
-156.3000;0.0879;1.0579;
-156.0000;0.0944;1.0742;
-155.7000;0.0936;1.0672;
-155.4000;0.0944;1.0742;
-155.1000;0.0904;1.0625;
-154.8000;0.0904;1.0602;
-154.5000;0.0936;1.0625;
-154.2000;0.0920;1.0532;
-153.9000;0.0928;1.0462;
-153.6000;0.0912;1.0439;
-153.3000;0.0944;1.0555;
-153.0000;0.0952;1.0649;
-152.7000;0.0952;1.0625;
-152.4000;0.0936;1.0532;
-152.1000;0.0961;1.0532;
-151.8000;0.0944;1.0509;
-151.5000;0.0993;1.0602;
-151.2000;0.0920;1.0462;
-150.9000;0.0936;1.0579;
-150.6000;0.0961;1.0672;
-150.3000;0.0944;1.0695;
-150.0000;0.0944;1.0789;
-149.7000;0.0895;1.0649;
-149.4000;0.1009;1.0906;
-149.1000;0.0936;1.0742;
-148.8000;0.0912;1.0649;
-148.5000;0.0961;1.0719;
-148.2000;0.0961;1.0789;
-147.9000;0.0969;1.0742;
-147.6000;0.0961;1.0649;
-147.3000;0.0912;1.0439;
-147.0000;0.0969;1.0462;
-146.7000;0.0969;1.0415;
-146.4000;0.0887;1.0275;
-146.1000;0.0936;1.0509;
-145.8000;0.0969;1.0766;
-145.5000;0.0969;1.0836;
-145.2000;0.0912;1.0742;
-144.9000;0.0920;1.0719;
-144.6000;0.0944;1.0719;
-144.3000;0.1001;1.0836;
-144.0000;0.0936;1.0672;
-143.7000;0.0961;1.0695;
-143.4000;0.0977;1.0672;
-143.1000;0.0944;1.0625;
-142.8000;0.0920;1.0625;
-142.5000;0.0936;1.0672;
-142.2000;0.0928;1.0672;
-141.9000;0.0985;1.0812;
-141.6000;0.0928;1.0695;
-141.3000;0.0952;1.0695;
-141.0000;0.0936;1.0695;
-140.7000;0.0920;1.0649;
-140.4000;0.0944;1.0719;
-140.1000;0.0944;1.0695;
-139.8000;0.0952;1.0766;
-139.5000;0.0944;1.0766;
-139.2000;0.0961;1.0812;
-138.9000;0.0952;1.0766;
-138.6000;0.0936;1.0719;
-138.3000;0.0952;1.0695;
-138.0000;0.0952;1.0695;
-137.7000;0.0936;1.0789;
-137.4000;0.0936;1.0812;
-137.1000;0.0912;1.0649;
-136.8000;0.0944;1.0695;
-136.5000;0.0952;1.0719;
-136.2000;0.0944;1.0672;
-135.9000;0.0944;1.0695;
-135.6000;0.0936;1.0719;
-135.3000;0.0936;1.0742;
-135.0000;0.0944;1.0742;
-134.7000;0.0936;1.0719;
-134.4000;0.0944;1.0719;
-134.1000;0.0928;1.0649;
-133.8000;0.0952;1.0695;
-133.5000;0.0969;1.0719;
-133.2000;0.0952;1.0742;
-132.9000;0.0961;1.0766;
-132.6000;0.0936;1.0579;
-132.3000;0.0952;1.0672;
-132.0000;0.0985;1.0672;
-131.7000;0.0912;1.0602;
-131.4000;0.0961;1.0742;
-131.1000;0.0952;1.0766;
-130.8000;0.0928;1.0742;
-130.5000;0.0961;1.0766;
-130.2000;0.0977;1.0789;
-129.9000;0.0936;1.0719;
-129.6000;0.0936;1.0719;
-129.3000;0.0952;1.0859;
-129.0000;0.0952;1.0882;
-128.7000;0.0920;1.0789;
-128.4000;0.0928;1.0789;
-128.1000;0.0952;1.0836;
-127.8000;0.1009;1.0999;
-127.5000;0.0944;1.0789;
-127.2000;0.0952;1.0719;
-126.9000;0.0944;1.0625;
-126.6000;0.0969;1.0579;
-126.3000;0.0961;1.0649;
-126.0000;0.0961;1.0695;
-125.7000;0.0944;1.0649;
-125.4000;0.0969;1.0649;
-125.1000;0.0952;1.0602;
-124.8000;0.0912;1.0532;
-124.5000;0.0944;1.0602;
-124.2000;0.0961;1.0625;
-123.9000;0.0936;1.0579;
-123.6000;0.0920;1.0602;
-123.3000;0.0952;1.0672;
-123.0000;0.0944;1.0672;
-122.7000;0.0952;1.0579;
-122.4000;0.1009;1.0836;
-122.1000;0.0928;1.0649;
-121.8000;0.0936;1.0719;
-121.5000;0.0920;1.0719;
-121.2000;0.0952;1.0789;
-120.9000;0.0969;1.0836;
-120.6000;0.0936;1.0766;
-120.3000;0.0944;1.0789;
-120.0000;0.1018;1.0976;
-119.7000;0.0944;1.0882;
-119.4000;0.0928;1.0882;
-119.1000;0.0936;1.0836;
-118.8000;0.0920;1.0695;
-118.5000;0.0936;1.0695;
-118.2000;0.0944;1.0649;
-117.9000;0.0944;1.0719;
-117.6000;0.0895;1.0649;
-117.3000;0.0928;1.0695;
-117.0000;0.0944;1.0695;
-116.7000;0.0944;1.0625;
-116.4000;0.0969;1.0625;
-116.1000;0.0961;1.0555;
-115.8000;0.0977;1.0602;
-115.5000;0.0952;1.0625;
-115.2000;0.0952;1.0672;
-114.9000;0.0985;1.0719;
-114.6000;0.0936;1.0532;
-114.3000;0.0936;1.0532;
-114.0000;0.0928;1.0532;
-113.7000;0.0952;1.0532;
-113.4000;0.0952;1.0532;
-113.1000;0.0952;1.0602;
-112.8000;0.0928;1.0579;
-112.5000;0.0952;1.0602;
-112.2000;0.0944;1.0579;
-111.9000;0.0928;1.0625;
-111.6000;0.0944;1.0742;
-111.3000;0.0928;1.0719;
-111.0000;0.0928;1.0742;
-110.7000;0.0936;1.0812;
-110.4000;0.0798;1.0369;
-110.1000;0.0961;1.0766;
-109.8000;0.0993;1.0766;
-109.5000;0.0920;1.0532;
-109.2000;0.1026;1.0882;
-108.9000;0.0920;1.0532;
-108.6000;0.0944;1.0602;
-108.3000;0.0961;1.0625;
-108.0000;0.0912;1.0462;
-107.7000;0.0936;1.0485;
-107.4000;0.0936;1.0509;
-107.1000;0.0952;1.0509;
-106.8000;0.0936;1.0462;
-106.5000;0.0920;1.0415;
-106.2000;0.0952;1.0439;
-105.9000;0.0952;1.0485;
-105.6000;0.0920;1.0439;
-105.3000;0.0928;1.0415;
-105.0000;0.0944;1.0345;
-104.7000;0.0944;1.0345;
-104.4000;0.0961;1.0392;
-104.1000;0.0944;1.0392;
-103.8000;0.0961;1.0392;
-103.5000;0.0952;1.0369;
-103.2000;0.0944;1.0322;
-102.9000;0.0944;1.0345;
-102.6000;0.1018;1.0555;
-102.3000;0.0936;1.0299;
-102.0000;0.0952;1.0228;
-101.7000;0.0952;1.0275;
-101.4000;0.0944;1.0299;
-101.1000;0.0952;1.0322;
-100.8000;0.0985;1.0369;
-100.5000;0.0879;1.0088;
-100.2000;0.0936;1.0252;
-99.9000;0.0879;1.0135;
-99.6000;0.0952;1.0299;
-99.3000;0.0871;1.0135;
-99.0000;0.0928;1.0252;
-98.7000;0.0952;1.0299;
-98.4000;0.0912;1.0228;
-98.1000;0.1009;1.0509;
-97.8000;0.0969;1.0462;
-97.5000;0.0952;1.0555;
-97.2000;0.0952;1.0579;
-96.9000;0.0952;1.0555;
-96.6000;0.0952;1.0579;
-96.3000;0.0936;1.0579;
-96.0000;0.0944;1.0625;
-95.7000;0.0855;1.0322;
-95.4000;0.0936;1.0579;
-95.1000;0.0969;1.0742;
-94.8000;0.0887;1.0602;
-94.5000;0.1066;1.1069;
-94.2000;0.0969;1.0742;
-93.9000;0.0944;1.0555;
-93.6000;0.0936;1.0485;
-93.3000;0.0936;1.0485;
-93.0000;0.0961;1.0509;
-92.7000;0.0936;1.0439;
-92.4000;0.0993;1.0555;
-92.1000;0.0985;1.0672;
-91.8000;0.0944;1.0602;
-91.5000;0.0936;1.0602;
-91.2000;0.0977;1.0602;
-90.9000;0.1066;1.0929;
-90.6000;0.0944;1.0649;
-90.3000;0.0944;1.0672;
-90.0000;0.0944;1.0672;
-89.7000;0.0969;1.0719;
-89.4000;0.0993;1.0719;
-89.1000;0.0944;1.0625;
-88.8000;0.0920;1.0602;
-88.5000;0.0928;1.0625;
-88.2000;0.0944;1.0672;
-87.9000;0.0961;1.0695;
-87.6000;0.0952;1.0742;
-87.3000;0.0944;1.0719;
-87.0000;0.0920;1.0672;
-86.7000;0.0952;1.0742;
-86.4000;0.0904;1.0649;
-86.1000;0.0952;1.0695;
-85.8000;0.0961;1.0719;
-85.5000;0.0912;1.0555;
-85.2000;0.0887;1.0509;
-84.9000;0.0961;1.0742;
-84.6000;0.0952;1.0742;
-84.3000;0.0952;1.0812;
-84.0000;0.0985;1.0789;
-83.7000;0.0969;1.0812;
-83.4000;0.0944;1.0742;
-83.1000;0.0920;1.0742;
-82.8000;0.0969;1.0859;
-82.5000;0.0936;1.0766;
-82.2000;0.0904;1.0672;
-81.9000;0.0944;1.0625;
-81.6000;0.0936;1.0649;
-81.3000;0.0944;1.0719;
-81.0000;0.0961;1.0789;
-80.7000;0.0952;1.0766;
-80.4000;0.0944;1.0789;
-80.1000;0.0904;1.0742;
-79.8000;0.0952;1.0812;
-79.5000;0.0920;1.0649;
-79.2000;0.0936;1.0602;
-78.9000;0.0920;1.0509;
-78.6000;0.0920;1.0555;
-78.3000;0.0912;1.0485;
-78.0000;0.0904;1.0439;
-77.7000;0.0920;1.0509;
-77.4000;0.0952;1.0602;
-77.1000;0.0952;1.0555;
-76.8000;0.0969;1.0602;
-76.5000;0.0936;1.0555;
-76.2000;0.0936;1.0532;
-75.9000;0.0912;1.0462;
-75.6000;0.0944;1.0625;
-75.3000;0.0944;1.0625;
-75.0000;0.0961;1.0579;
-74.7000;0.0863;1.0345;
-74.4000;0.0952;1.0602;
-74.1000;0.1042;1.0882;
-73.8000;0.0944;1.0695;
-73.5000;0.0936;1.0649;
-73.2000;0.0936;1.0672;
-72.9000;0.0928;1.0649;
-72.6000;0.0928;1.0649;
-72.3000;0.0904;1.0625;
-72.0000;0.0838;1.0485;
-71.7000;0.0969;1.0742;
-71.4000;0.0944;1.0672;
-71.1000;0.0977;1.0766;
-70.8000;0.0969;1.0672;
-70.5000;0.0936;1.0555;
-70.2000;0.0985;1.0649;
-69.9000;0.0944;1.0532;
-69.6000;0.0936;1.0532;
-69.3000;0.0920;1.0485;
-69.0000;0.0977;1.0649;
-68.7000;0.0961;1.0672;
-68.4000;0.0912;1.0602;
-68.1000;0.0895;1.0555;
-67.8000;0.0904;1.0579;
-67.5000;0.0961;1.0672;
-67.2000;0.0944;1.0602;
-66.9000;0.0944;1.0695;
-66.6000;0.0912;1.0719;
-66.3000;0.0944;1.0789;
-66.0000;0.0936;1.0836;
-65.7000;0.0944;1.0882;
-65.4000;0.0936;1.0836;
-65.1000;0.0977;1.0906;
-64.8000;0.0855;1.0579;
-64.5000;0.0936;1.0859;
-64.2000;0.0969;1.0999;
-63.9000;0.0961;1.0952;
-63.6000;0.0944;1.0906;
-63.3000;0.0969;1.0882;
-63.0000;0.0928;1.0789;
-62.7000;0.0944;1.0836;
-62.4000;0.0952;1.0976;
-62.1000;0.0969;1.1046;
-61.8000;0.0895;1.0836;
-61.5000;0.0961;1.0929;
-61.2000;0.0969;1.0789;
-60.9000;0.0863;1.0602;
-60.6000;0.0944;1.0836;
-60.3000;0.1058;1.1069;
-60.0000;0.0871;1.0602;
-59.7000;0.0944;1.0812;
-59.4000;0.0944;1.0742;
-59.1000;0.0952;1.0906;
-58.8000;0.0928;1.0812;
-58.5000;0.0969;1.0859;
-58.2000;0.0944;1.0836;
-57.9000;0.0936;1.0789;
-57.6000;0.0936;1.0836;
-57.3000;0.0936;1.0812;
-57.0000;0.0969;1.0929;
-56.7000;0.0904;1.0625;
-56.4000;0.0928;1.0672;
-56.1000;0.0969;1.0766;
-55.8000;0.0928;1.0742;
-55.5000;0.0936;1.0719;
-55.2000;0.0961;1.0789;
-54.9000;0.0961;1.0672;
-54.6000;0.0944;1.0532;
-54.3000;0.0944;1.0555;
-54.0000;0.0961;1.0555;
-53.7000;0.0928;1.0555;
-53.4000;0.0928;1.0555;
-53.1000;0.0961;1.0602;
-52.8000;0.0961;1.0742;
-52.5000;0.1099;1.1069;
-52.2000;0.0928;1.0579;
-51.9000;0.0871;1.0392;
-51.6000;0.0977;1.0625;
-51.3000;0.0928;1.0555;
-51.0000;0.0961;1.0649;
-50.7000;0.0912;1.0602;
-50.4000;0.0936;1.0579;
-50.1000;0.0912;1.0532;
-49.8000;0.0936;1.0602;
-49.5000;0.0936;1.0695;
-49.2000;0.0879;1.0532;
-48.9000;0.0969;1.0789;
-48.6000;0.0944;1.0625;
-48.3000;0.0952;1.0625;
-48.0000;0.0928;1.0555;
-47.7000;0.0904;1.0509;
-47.4000;0.0961;1.0649;
-47.1000;0.0944;1.0579;
-46.8000;0.0952;1.0532;
-46.5000;0.0944;1.0509;
-46.2000;0.0952;1.0579;
-45.9000;0.0936;1.0555;
-45.6000;0.0944;1.0695;
-45.3000;0.0969;1.0672;
-45.0000;0.0993;1.0742;
-44.7000;0.0887;1.0439;
-44.4000;0.0895;1.0485;
-44.1000;0.0920;1.0602;
-43.8000;0.0904;1.0485;
-43.5000;0.0920;1.0509;
-43.2000;0.0887;1.0462;
-42.9000;0.0969;1.0649;
-42.6000;0.0961;1.0719;
-42.3000;0.0944;1.0695;
-42.0000;0.0936;1.0695;
-41.7000;0.0969;1.0602;
-41.4000;0.0961;1.0695;
-41.1000;0.0895;1.0509;
-40.8000;0.0863;1.0369;
-40.5000;0.0928;1.0485;
-40.2000;0.0961;1.0579;
-39.9000;0.0928;1.0509;
-39.6000;0.0920;1.0532;
-39.3000;0.1026;1.0789;
-39.0000;0.0920;1.0485;
-38.7000;0.0961;1.0579;
-38.4000;0.0952;1.0509;
-38.1000;0.0977;1.0672;
-37.8000;0.0944;1.0625;
-37.5000;0.0936;1.0602;
-37.2000;0.0928;1.0602;
-36.9000;0.0936;1.0555;
-36.6000;0.0961;1.0602;
-36.3000;0.0952;1.0532;
-36.0000;0.0952;1.0532;
-35.7000;0.0952;1.0532;
-35.4000;0.0977;1.0485;
-35.1000;0.0985;1.0532;
-34.8000;0.0936;1.0345;
-34.5000;0.0952;1.0439;
-34.2000;0.0936;1.0392;
-33.9000;0.0936;1.0555;
-33.6000;0.0961;1.0625;
-33.3000;0.0969;1.0672;
-33.0000;0.0895;1.0439;
-32.7000;0.0920;1.0509;
-32.4000;0.0944;1.0649;
-32.1000;0.0936;1.0625;
-31.8000;0.0936;1.0579;
-31.5000;0.0944;1.0695;
-31.2000;0.0944;1.0695;
-30.9000;0.0969;1.0766;
-30.6000;0.0928;1.0602;
-30.3000;0.0952;1.0532;
-30.0000;0.0944;1.0509;
-29.7000;0.0961;1.0555;
-29.4000;0.0961;1.0485;
-29.1000;0.0952;1.0462;
-28.8000;0.0961;1.0579;
-28.5000;0.0985;1.0695;
-28.2000;0.0936;1.0532;
-27.9000;0.0944;1.0555;
-27.6000;0.0920;1.0509;
-27.3000;0.1001;1.0719;
-27.0000;0.0944;1.0532;
-26.7000;0.0961;1.0485;
-26.4000;0.0944;1.0392;
-26.1000;0.0944;1.0532;
-25.8000;0.0977;1.0649;
-25.5000;0.0977;1.0742;
-25.2000;0.0977;1.0836;
-24.9000;0.0952;1.0766;
-24.6000;0.0944;1.0625;
-24.3000;0.0952;1.0625;
-24.0000;0.0952;1.0649;
-23.7000;0.0952;1.0649;
-23.4000;0.0944;1.0649;
-23.1000;0.0952;1.0625;
-22.8000;0.0969;1.0625;
-22.5000;0.0952;1.0602;
-22.2000;0.0928;1.0532;
-21.9000;0.0944;1.0485;
-21.6000;0.0961;1.0579;
-21.3000;0.0977;1.0695;
-21.0000;0.0977;1.0625;
-20.7000;0.0936;1.0485;
-20.4000;0.0944;1.0555;
-20.1000;0.0944;1.0649;
-19.8000;0.0936;1.0719;
-19.5000;0.0920;1.0672;
-19.2000;0.0936;1.0695;
-18.9000;0.0977;1.0766;
-18.6000;0.0944;1.0719;
-18.3000;0.0936;1.0719;
-18.0000;0.0952;1.0766;
-17.7000;0.0928;1.0695;
-17.4000;0.0920;1.0695;
-17.1000;0.1042;1.0929;
-16.8000;0.0952;1.0719;
-16.5000;0.0928;1.0695;
-16.2000;0.0944;1.0766;
-15.9000;0.0871;1.0462;
-15.6000;0.0952;1.0695;
-15.3000;0.0977;1.0789;
-15.0000;0.0936;1.0649;
-14.7000;0.0936;1.0625;
-14.4000;0.0952;1.0719;
-14.1000;0.0969;1.0766;
-13.8000;0.0936;1.0719;
-13.5000;0.0920;1.0625;
-13.2000;0.0944;1.0625;
-12.9000;0.0952;1.0579;
-12.6000;0.0961;1.0625;
-12.3000;0.0904;1.0509;
-12.0000;0.0830;1.0345;
-11.7000;0.0952;1.0672;
-11.4000;0.0944;1.0602;
-11.1000;0.1050;1.0836;
-10.8000;0.0969;1.0789;
-10.5000;0.0952;1.0625;
-10.2000;0.0952;1.0625;
-9.9000;0.0920;1.0555;
-9.6000;0.0944;1.0695;
-9.3000;0.0952;1.0672;
-9.0000;0.0936;1.0672;
-8.7000;0.0936;1.0649;
-8.4000;0.0904;1.0625;
-8.1000;0.0912;1.0695;
-7.8000;0.0961;1.0789;
-7.5000;0.0944;1.0695;
-7.2000;0.0928;1.0649;
-6.9000;0.0936;1.0672;
-6.6000;0.0928;1.0602;
-6.3000;0.0952;1.0579;
-6.0000;0.0961;1.0579;
-5.7000;0.0952;1.0602;
-5.4000;0.0944;1.0579;
-5.1000;0.0944;1.0579;
-4.8000;0.0936;1.0625;
-4.5000;0.0952;1.0695;
-4.2000;0.0952;1.0695;
-3.9000;0.0928;1.0695;
-3.6000;0.0928;1.0695;
-3.3000;0.0928;1.0602;
-3.0000;0.0969;1.0742;
-2.7000;0.0961;1.0695;
-2.4000;0.0936;1.0625;
-2.1000;0.0887;1.0555;
-1.8000;0.0952;1.0695;
-1.5000;0.0952;1.0766;
-1.2000;0.0944;1.0812;
-0.9000;0.0952;1.0766;
-0.6000;0.0952;1.0766;
-0.3000;0.0952;1.0789;
0.0000;0.0952;1.0789;
0.3000;0.0944;1.0579;
0.6000;0.0944;1.0602;
0.9000;0.0936;1.0555;
1.2000;0.1009;1.0812;
1.5000;0.1018;1.0836;
1.8000;0.0985;1.0906;
2.1000;0.1058;1.1186;
2.4000;0.1107;1.1349;
2.7000;0.1058;1.1116;
3.0000;0.1107;1.1209;
3.3000;0.1074;1.1092;
3.6000;0.1115;1.1209;
3.9000;0.1066;1.1116;
4.2000;0.1091;1.1209;
4.5000;0.1050;1.1233;
4.8000;0.1091;1.1373;
5.1000;0.1091;1.1326;
5.4000;0.1099;1.1303;
5.7000;0.1074;1.1326;
6.0000;0.1148;1.1536;
6.3000;0.1107;1.1466;
6.6000;0.1107;1.1489;
6.9000;0.1074;1.1419;
7.2000;0.1115;1.1419;
7.5000;0.1107;1.1373;
7.8000;0.1099;1.1419;
8.1000;0.1091;1.1466;
8.4000;0.1229;1.1886;
8.7000;0.1099;1.1536;
9.0000;0.1115;1.1513;
9.3000;0.1099;1.1560;
9.6000;0.1107;1.1560;
9.9000;0.1107;1.1513;
10.2000;0.1115;1.1466;
10.5000;0.1026;1.1256;
10.8000;0.1115;1.1489;
11.1000;0.1123;1.1466;
11.4000;0.1115;1.1443;
11.7000;0.1099;1.1396;
12.0000;0.1099;1.1373;
12.3000;0.1091;1.1373;
12.6000;0.1107;1.1419;
12.9000;0.1099;1.1396;
13.2000;0.1115;1.1349;
13.5000;0.1131;1.1326;
13.8000;0.1026;1.1092;
14.1000;0.1115;1.1373;
14.4000;0.1107;1.1326;
14.7000;0.1115;1.1419;
15.0000;0.1050;1.1256;
15.3000;0.1131;1.1443;
15.6000;0.1115;1.1466;
15.9000;0.1034;1.1233;
16.2000;0.1131;1.1560;
16.5000;0.1115;1.1513;
16.8000;0.1205;1.1746;
17.1000;0.1115;1.1489;
17.4000;0.1156;1.1536;
17.7000;0.1140;1.1606;
18.0000;0.1107;1.1443;
18.3000;0.1115;1.1513;
18.6000;0.1156;1.1630;
18.9000;0.1131;1.1560;
19.2000;0.1140;1.1489;
19.5000;0.1140;1.1489;
19.8000;0.1131;1.1443;
20.1000;0.1148;1.1466;
20.4000;0.1131;1.1396;
20.7000;0.1107;1.1419;
21.0000;0.1156;1.1536;
21.3000;0.1148;1.1419;
21.6000;0.1123;1.1256;
21.9000;0.1140;1.1349;
22.2000;0.1099;1.1233;
22.5000;0.1131;1.1373;
22.8000;0.1229;1.1676;
23.1000;0.1107;1.1326;
23.4000;0.1115;1.1303;
23.7000;0.1131;1.1303;
24.0000;0.1131;1.1326;
24.3000;0.1123;1.1233;
24.6000;0.1188;1.1396;
24.9000;0.1131;1.1279;
25.2000;0.1148;1.1303;
25.5000;0.1205;1.1513;
25.8000;0.1205;1.1513;
26.1000;0.1156;1.1349;
26.4000;0.1131;1.1303;
26.7000;0.1188;1.1396;
27.0000;0.1115;1.1186;
27.3000;0.1148;1.1373;
27.6000;0.1197;1.1443;
27.9000;0.1148;1.1396;
28.2000;0.1140;1.1373;
28.5000;0.1140;1.1209;
28.8000;0.1156;1.1209;
29.1000;0.1140;1.1116;
29.4000;0.1123;1.1139;
29.7000;0.1156;1.1209;
30.0000;0.1091;1.0999;
30.3000;0.1140;1.1139;
30.6000;0.1148;1.1163;
30.9000;0.1140;1.1163;
31.2000;0.1140;1.1163;
31.5000;0.1140;1.1163;
31.8000;0.1123;1.1092;
32.1000;0.1148;1.1163;
32.4000;0.1123;1.1139;
32.7000;0.1156;1.1233;
33.0000;0.1026;1.0906;
33.3000;0.1140;1.1209;
33.6000;0.1099;1.1046;
33.9000;0.1115;1.1116;
34.2000;0.1156;1.1256;
34.5000;0.1156;1.1256;
34.8000;0.1140;1.1303;
35.1000;0.1156;1.1373;
35.4000;0.1148;1.1443;
35.7000;0.1140;1.1443;
36.0000;0.1262;1.1700;
36.3000;0.1172;1.1466;
36.6000;0.1156;1.1396;
36.9000;0.1148;1.1396;
37.2000;0.1140;1.1396;
37.5000;0.1131;1.1419;
37.8000;0.1107;1.1373;
38.1000;0.1123;1.1349;
38.4000;0.1164;1.1349;
38.7000;0.1140;1.1349;
39.0000;0.1091;1.1233;
39.3000;0.1180;1.1443;
39.6000;0.1148;1.1349;
39.9000;0.1180;1.1443;
40.2000;0.1172;1.1349;
40.5000;0.1213;1.1560;
40.8000;0.1018;1.1046;
41.1000;0.1123;1.1373;
41.4000;0.1131;1.1419;
41.7000;0.1164;1.1536;
42.0000;0.1131;1.1443;
42.3000;0.1107;1.1373;
42.6000;0.1123;1.1373;
42.9000;0.1164;1.1419;
43.2000;0.1172;1.1536;
43.5000;0.1148;1.1443;
43.8000;0.1099;1.1349;
44.1000;0.1156;1.1443;
44.4000;0.1131;1.1349;
44.7000;0.1099;1.1256;
45.0000;0.1156;1.1466;
45.3000;0.1156;1.1349;
45.6000;0.1140;1.1349;
45.9000;0.1237;1.1560;
46.2000;0.1123;1.1279;
46.5000;0.1140;1.1396;
46.8000;0.1131;1.1326;
47.1000;0.1156;1.1349;
47.4000;0.1131;1.1373;
47.7000;0.1148;1.1326;
48.0000;0.1188;1.1536;
48.3000;0.1131;1.1419;
48.6000;0.1131;1.1419;
48.9000;0.1140;1.1419;
49.2000;0.1156;1.1489;
49.5000;0.1140;1.1443;
49.8000;0.1131;1.1443;
50.1000;0.1180;1.1560;
50.4000;0.1164;1.1513;
50.7000;0.1262;1.1723;
51.0000;0.1107;1.1209;
51.3000;0.1099;1.1116;
51.6000;0.1107;1.1116;
51.9000;0.1311;1.1676;
52.2000;0.1286;1.1583;
52.5000;0.1156;1.1303;
52.8000;0.1156;1.1419;
53.1000;0.1164;1.1396;
53.4000;0.1066;1.1116;
53.7000;0.1164;1.1326;
54.0000;0.1131;1.1303;
54.3000;0.1140;1.1233;
54.6000;0.1074;1.1116;
54.9000;0.1131;1.1233;
55.2000;0.1148;1.1303;
55.5000;0.1164;1.1279;
55.8000;0.1148;1.1326;
56.1000;0.1156;1.1396;
56.4000;0.1131;1.1373;
56.7000;0.1156;1.1466;
57.0000;0.1188;1.1536;
57.3000;0.1156;1.1466;
57.6000;0.1140;1.1396;
57.9000;0.1148;1.1256;
58.2000;0.1123;1.1186;
58.5000;0.1140;1.1279;
58.8000;0.1148;1.1233;
59.1000;0.1140;1.1209;
59.4000;0.1140;1.1209;
59.7000;0.1140;1.1233;
60.0000;0.1164;1.1326;
60.3000;0.1180;1.1349;
60.6000;0.1107;1.1163;
60.9000;0.1180;1.1396;
61.2000;0.1172;1.1326;
61.5000;0.1172;1.1279;
61.8000;0.1180;1.1326;
62.1000;0.1180;1.1419;
62.4000;0.1148;1.1373;
62.7000;0.1172;1.1443;
63.0000;0.1148;1.1373;
63.3000;0.1156;1.1373;
63.6000;0.1180;1.1443;
63.9000;0.1180;1.1349;
64.2000;0.1156;1.1233;
64.5000;0.1131;1.1233;
64.8000;0.1180;1.1373;
65.1000;0.1140;1.1233;
65.4000;0.1188;1.1349;
65.7000;0.1205;1.1326;
66.0000;0.1180;1.1233;
66.3000;0.1213;1.1279;
66.6000;0.1156;1.1092;
66.9000;0.1148;1.1139;
67.2000;0.1245;1.1326;
67.5000;0.1140;1.1139;
67.8000;0.1156;1.1163;
68.1000;0.1172;1.1233;
68.4000;0.1164;1.1233;
68.7000;0.1188;1.1303;
69.0000;0.1140;1.1209;
69.3000;0.1229;1.1396;
69.6000;0.1123;1.1069;
69.9000;0.1140;1.1069;
70.2000;0.1140;1.1116;
70.5000;0.1156;1.1186;
70.8000;0.1156;1.1279;
71.1000;0.1172;1.1396;
71.4000;0.1180;1.1349;
71.7000;0.1156;1.1139;
72.0000;0.1172;1.1092;
72.3000;0.1188;1.1233;
72.6000;0.1148;1.1209;
72.9000;0.1131;1.1186;
73.2000;0.1172;1.1396;
73.5000;0.1156;1.1373;
73.8000;0.1148;1.1279;
74.1000;0.1148;1.1233;
74.4000;0.1148;1.1186;
74.7000;0.1229;1.1443;
75.0000;0.1164;1.1326;
75.3000;0.1180;1.1373;
75.6000;0.1172;1.1186;
75.9000;0.1115;1.0999;
76.2000;0.1188;1.1279;
76.5000;0.1213;1.1373;
76.8000;0.1221;1.1279;
77.1000;0.1180;1.1186;
77.4000;0.1131;1.1022;
77.7000;0.1164;1.1139;
78.0000;0.1156;1.1186;
78.3000;0.1164;1.1209;
78.6000;0.1172;1.1256;
78.9000;0.1237;1.1373;
79.2000;0.1188;1.1326;
79.5000;0.1156;1.1279;
79.8000;0.1148;1.1279;
80.1000;0.1164;1.1279;
80.4000;0.1172;1.1396;
80.7000;0.1164;1.1373;
81.0000;0.1205;1.1443;
81.3000;0.1197;1.1326;
81.6000;0.1172;1.1373;
81.9000;0.1172;1.1349;
82.2000;0.1180;1.1326;
82.5000;0.1188;1.1279;
82.8000;0.1180;1.1256;
83.1000;0.1164;1.1233;
83.4000;0.1180;1.1279;
83.7000;0.1164;1.1326;
84.0000;0.1172;1.1326;
84.3000;0.1156;1.1326;
84.6000;0.1107;1.1186;
84.9000;0.1164;1.1256;
85.2000;0.1205;1.1396;
85.5000;0.1180;1.1326;
85.8000;0.1164;1.1256;
86.1000;0.1164;1.1326;
86.4000;0.1156;1.1303;
86.7000;0.1164;1.1349;
87.0000;0.1180;1.1326;
87.3000;0.1140;1.1233;
87.6000;0.1197;1.1373;
87.9000;0.1164;1.1349;
88.2000;0.1213;1.1396;
88.5000;0.1188;1.1279;
88.8000;0.1172;1.1233;
89.1000;0.1156;1.1303;
89.4000;0.1164;1.1349;
89.7000;0.1148;1.1326;
90.0000;0.1188;1.1396;
90.3000;0.1197;1.1489;
90.6000;0.1091;1.1163;
90.9000;0.1164;1.1419;
91.2000;0.1164;1.1373;
91.5000;0.1180;1.1419;
91.8000;0.1164;1.1326;
92.1000;0.1213;1.1373;
92.4000;0.1164;1.1233;
92.7000;0.1172;1.1303;
93.0000;0.1188;1.1326;
93.3000;0.1148;1.1209;
93.6000;0.1197;1.1373;
93.9000;0.1148;1.1256;
94.2000;0.1164;1.1373;
94.5000;0.1164;1.1396;
94.8000;0.1140;1.1326;
95.1000;0.1172;1.1396;
95.4000;0.1188;1.1349;
95.7000;0.1156;1.1256;
96.0000;0.1156;1.1233;
96.3000;0.1164;1.1209;
96.6000;0.1164;1.1139;
96.9000;0.1197;1.1092;
97.2000;0.1164;1.1046;
97.5000;0.1172;1.1069;
97.8000;0.1188;1.1022;
98.1000;0.1156;1.1022;
98.4000;0.1172;1.0976;
98.7000;0.1172;1.0952;
99.0000;0.1172;1.1022;
99.3000;0.1164;1.0999;
99.6000;0.1131;1.0929;
99.9000;0.1164;1.0999;
100.2000;0.1172;1.1069;
100.5000;0.1164;1.1092;
100.8000;0.1156;1.0999;
101.1000;0.1140;1.1022;
101.4000;0.1140;1.1092;
101.7000;0.1180;1.1163;
102.0000;0.1156;1.1116;
102.3000;0.1180;1.1139;
102.6000;0.1156;1.1022;
102.9000;0.1164;1.1139;
103.2000;0.1140;1.1186;
103.5000;0.1172;1.1279;
103.8000;0.1172;1.1256;
104.1000;0.1188;1.1326;
104.4000;0.1123;1.1046;
104.7000;0.1148;1.1163;
105.0000;0.1172;1.1233;
105.3000;0.1172;1.1256;
105.6000;0.1180;1.1186;
105.9000;0.1197;1.1186;
106.2000;0.1180;1.1163;
106.5000;0.1172;1.1139;
106.8000;0.1172;1.1069;
107.1000;0.1164;1.0999;
107.4000;0.1164;1.1069;
107.7000;0.1180;1.1046;
108.0000;0.1180;1.1116;
108.3000;0.1172;1.1022;
108.6000;0.1205;1.1092;
108.9000;0.1197;1.1139;
109.2000;0.1172;1.1069;
109.5000;0.1156;1.1069;
109.8000;0.1164;1.1092;
110.1000;0.1180;1.1092;
110.4000;0.1172;1.1116;
110.7000;0.1197;1.1233;
111.0000;0.1188;1.1163;
111.3000;0.1156;1.1092;
111.6000;0.1188;1.1186;
111.9000;0.1172;1.1139;
112.2000;0.1180;1.1256;
112.5000;0.1074;1.1092;
112.8000;0.1164;1.1303;
113.1000;0.1172;1.1279;
113.4000;0.1131;1.1209;
113.7000;0.1172;1.1186;
114.0000;0.1245;1.1326;
114.3000;0.1164;1.1116;
114.6000;0.1188;1.1116;
114.9000;0.1156;1.1092;
115.2000;0.1188;1.1209;
115.5000;0.1172;1.1233;
115.8000;0.1164;1.1209;
116.1000;0.1180;1.1209;
116.4000;0.1188;1.1163;
116.7000;0.1180;1.1186;
117.0000;0.1188;1.1233;
117.3000;0.1172;1.1233;
117.6000;0.1188;1.1279;
117.9000;0.1156;1.1233;
118.2000;0.1164;1.1303;
118.5000;0.1172;1.1303;
118.8000;0.1156;1.1209;
119.1000;0.1156;1.1233;
119.4000;0.1172;1.1326;
119.7000;0.1164;1.1279;
120.0000;0.1164;1.1279;
120.3000;0.1172;1.1279;
120.6000;0.1164;1.1186;
120.9000;0.1172;1.1209;
121.2000;0.1164;1.1139;
121.5000;0.1172;1.1092;
121.8000;0.1205;1.1209;
122.1000;0.1180;1.1209;
122.4000;0.1188;1.1303;
122.7000;0.1197;1.1326;
123.0000;0.1164;1.1279;
123.3000;0.1172;1.1326;
123.6000;0.1164;1.1303;
123.9000;0.1164;1.1326;
124.2000;0.1164;1.1279;
124.5000;0.1180;1.1256;
124.8000;0.1188;1.1279;
125.1000;0.1156;1.1209;
125.4000;0.1164;1.1186;
125.7000;0.1197;1.1256;
126.0000;0.1172;1.1139;
126.3000;0.1237;1.1326;
126.6000;0.1180;1.1139;
126.9000;0.1172;1.1139;
127.2000;0.1180;1.1116;
127.5000;0.1172;1.1163;
127.8000;0.1172;1.1069;
128.1000;0.1172;1.1022;
128.4000;0.1180;1.1092;
128.7000;0.1164;1.1139;
129.0000;0.1188;1.1116;
129.3000;0.1205;1.1186;
129.6000;0.1164;1.1163;
129.9000;0.1172;1.1139;
130.2000;0.1172;1.1256;
130.5000;0.1180;1.1209;
130.8000;0.1188;1.1256;
131.1000;0.1188;1.1256;
131.4000;0.1229;1.1373;
131.7000;0.1172;1.1209;
132.0000;0.1188;1.1186;
132.3000;0.1107;1.1046;
132.6000;0.1188;1.1279;
132.9000;0.1172;1.1303;
133.2000;0.1172;1.1279;
133.5000;0.1156;1.1303;
133.8000;0.1164;1.1373;
134.1000;0.1180;1.1373;
134.4000;0.1164;1.1443;
134.7000;0.1172;1.1443;
135.0000;0.1229;1.1606;
135.3000;0.1164;1.1326;
135.6000;0.1172;1.1209;
135.9000;0.1131;1.1139;
136.2000;0.1180;1.1279;
136.5000;0.1188;1.1279;
136.8000;0.1172;1.1256;
137.1000;0.1164;1.1209;
137.4000;0.1172;1.1139;
137.7000;0.1180;1.1022;
138.0000;0.1050;1.0742;
138.3000;0.1172;1.1209;
138.6000;0.1197;1.1279;
138.9000;0.1172;1.1303;
139.2000;0.1172;1.1326;
139.5000;0.1197;1.1396;
139.8000;0.1140;1.1186;
140.1000;0.1156;1.1256;
140.4000;0.1172;1.1396;
140.7000;0.1213;1.1536;
141.0000;0.1180;1.1443;
141.3000;0.1156;1.1373;
141.6000;0.1229;1.1536;
141.9000;0.1164;1.1279;
142.2000;0.1172;1.1349;
142.5000;0.1172;1.1303;
142.8000;0.1188;1.1256;
143.1000;0.1172;1.1256;
143.4000;0.1188;1.1256;
143.7000;0.1042;1.0929;
144.0000;0.1164;1.1139;
144.3000;0.1172;1.1069;
144.6000;0.1172;1.1116;
144.9000;0.1254;1.1349;
145.2000;0.1172;1.1209;
145.5000;0.1156;1.1209;
145.8000;0.1205;1.1326;
146.1000;0.1148;1.1139;
146.4000;0.1197;1.1279;
146.7000;0.1180;1.1186;
147.0000;0.1180;1.1092;
147.3000;0.1172;1.1046;
147.6000;0.1172;1.1069;
147.9000;0.1172;1.1022;
148.2000;0.1180;1.1046;
148.5000;0.1156;1.0999;
148.8000;0.1197;1.1069;
149.1000;0.1172;1.0976;
149.4000;0.1172;1.0976;
149.7000;0.1180;1.0976;
150.0000;0.1156;1.0929;
150.3000;0.1164;1.0906;
150.6000;0.1164;1.0812;
150.9000;0.1172;1.0836;
151.2000;0.1140;1.0812;
151.5000;0.1180;1.0976;
151.8000;0.1188;1.0906;
152.1000;0.1294;1.1139;
152.4000;0.1188;1.0952;
152.7000;0.1180;1.0952;
153.0000;0.1083;1.0719;
153.3000;0.1188;1.1046;
153.6000;0.1213;1.1069;
153.9000;0.1188;1.1092;
154.2000;0.1197;1.1163;
154.5000;0.1172;1.1069;
154.8000;0.1172;1.1069;
155.1000;0.1205;1.1116;
155.4000;0.1180;1.0976;
155.7000;0.1188;1.0976;
156.0000;0.1188;1.0976;
156.3000;0.1140;1.0906;
156.6000;0.1180;1.1022;
156.9000;0.1099;1.0812;
157.2000;0.1115;1.0906;
157.5000;0.1180;1.1092;
157.8000;0.1188;1.1139;
158.1000;0.1205;1.1186;
158.4000;0.1188;1.1163;
158.7000;0.1188;1.1139;
159.0000;0.1197;1.1163;
159.3000;0.1156;1.0999;
159.6000;0.1180;1.1092;
159.9000;0.1180;1.1116;
160.2000;0.1180;1.1139;
160.5000;0.1197;1.1069;
160.8000;0.1188;1.0952;
161.1000;0.1180;1.0906;
161.4000;0.1254;1.1022;
161.7000;0.1164;1.0789;
162.0000;0.1164;1.0906;
162.3000;0.1221;1.1022;
162.6000;0.1197;1.0976;
162.9000;0.1156;1.0789;
163.2000;0.1188;1.0906;
163.5000;0.1180;1.0906;
163.8000;0.1156;1.0789;
164.1000;0.1188;1.0859;
164.4000;0.1180;1.0882;
164.7000;0.1197;1.0929;
165.0000;0.1172;1.0812;
165.3000;0.1197;1.0882;
165.6000;0.1197;1.0906;
165.9000;0.1180;1.0882;
166.2000;0.1131;1.0789;
166.5000;0.1180;1.0859;
166.8000;0.1213;1.0906;
167.1000;0.1115;1.0672;
167.4000;0.1197;1.0999;
167.7000;0.1205;1.1046;
168.0000;0.1140;1.0859;
168.3000;0.1156;1.0859;
168.6000;0.1172;1.0906;
168.9000;0.1115;1.0812;
169.2000;0.1188;1.0976;
169.5000;0.1188;1.0952;
169.8000;0.1164;1.0952;
170.1000;0.1197;1.1022;
170.4000;0.1188;1.1046;
170.7000;0.1188;1.1069;
171.0000;0.1172;1.0999;
171.3000;0.1188;1.0999;
171.6000;0.1188;1.1069;
171.9000;0.1197;1.1069;
172.2000;0.1188;1.0999;
172.5000;0.1197;1.1022;
172.8000;0.1164;1.0976;
173.1000;0.1140;1.0929;
173.4000;0.1205;1.1139;
173.7000;0.1140;1.0999;
174.0000;0.1180;1.1022;
174.3000;0.1213;1.1046;
174.6000;0.1156;1.0906;
174.9000;0.1164;1.0836;
175.2000;0.1237;1.1046;
175.5000;0.1205;1.0976;
175.8000;0.1180;1.1022;
176.1000;0.1188;1.1116;
176.4000;0.1148;1.0859;
176.7000;0.1180;1.0812;
177.0000;0.1188;1.0789;
177.3000;0.1172;1.0695;
177.6000;0.1156;1.0672;
177.9000;0.1172;1.0719;
178.2000;0.1205;1.0812;
178.5000;0.1197;1.0836;
178.8000;0.1164;1.0766;
179.1000;0.1262;1.0999;
179.4000;0.1180;1.0906;
179.7000;0.1123;1.0812;
180.0000;0.1197;1.0952;
180.3000;0.1188;1.0906;
180.6000;0.1180;1.0906;
180.9000;0.1164;1.0742;
181.2000;0.1074;1.0602;
181.5000;0.1197;1.0882;
181.8000;0.1172;1.0812;
182.1000;0.1197;1.0882;
182.4000;0.1156;1.0836;
182.7000;0.1131;1.0695;
183.0000;0.1188;1.0859;
183.3000;0.1237;1.0929;
183.6000;0.1083;1.0579;
183.9000;0.1188;1.0952;
184.2000;0.1197;1.0906;
184.5000;0.1205;1.0976;
184.8000;0.1172;1.0952;
185.1000;0.1148;1.0882;
185.4000;0.1180;1.0929;
185.7000;0.1188;1.0976;
186.0000;0.1205;1.1069;
186.3000;0.1156;1.0952;
186.6000;0.1164;1.0976;
186.9000;0.1180;1.0882;
187.2000;0.1107;1.0719;
187.5000;0.1172;1.0929;
187.8000;0.1205;1.0999;
188.1000;0.1278;1.1209;
188.4000;0.1205;1.0976;
188.7000;0.1197;1.1022;
189.0000;0.1197;1.0999;
189.3000;0.1205;1.0999;
189.6000;0.1188;1.0999;
189.9000;0.1188;1.1022;
190.2000;0.1197;1.0952;
190.5000;0.1172;1.0929;
190.8000;0.1221;1.0952;
191.1000;0.1188;1.0836;
191.4000;0.1180;1.0882;
191.7000;0.1197;1.0952;
192.0000;0.1180;1.0929;
192.3000;0.1197;1.0952;
192.6000;0.1188;1.0999;
192.9000;0.1164;1.0976;
193.2000;0.1172;1.1046;
193.5000;0.1188;1.1069;
193.8000;0.1213;1.1069;
194.1000;0.1148;1.0836;
194.4000;0.1197;1.0929;
194.7000;0.1148;1.0952;
195.0000;0.1180;1.0929;
195.3000;0.1197;1.0859;
195.6000;0.1123;1.0766;
195.9000;0.1180;1.0906;
196.2000;0.1197;1.0952;
196.5000;0.1164;1.0929;
196.8000;0.1180;1.0976;
197.1000;0.1205;1.1022;
197.4000;0.1180;1.1022;
197.7000;0.1164;1.0882;
198.0000;0.1197;1.0952;
198.3000;0.1180;1.0929;
198.6000;0.1229;1.1046;
198.9000;0.1286;1.1116;
199.2000;0.1180;1.0695;
199.5000;0.1164;1.0695;
199.8000;0.1123;1.0602;
200.1000;0.1197;1.0742;
200.4000;0.1172;1.0719;
200.7000;0.1197;1.0859;
201.0000;0.1164;1.0836;
201.3000;0.1164;1.0882;
201.6000;0.1180;1.0929;
201.9000;0.1213;1.1046;
202.2000;0.1172;1.0929;
202.5000;0.1172;1.0999;
202.8000;0.1156;1.0999;
203.1000;0.1213;1.1163;
203.4000;0.1188;1.1069;
203.7000;0.1180;1.0999;
204.0000;0.1164;1.0836;
204.3000;0.1180;1.0836;
204.6000;0.1180;1.0812;
204.9000;0.1164;1.0812;
205.2000;0.1197;1.0906;
205.5000;0.1164;1.0789;
205.8000;0.1172;1.0836;
206.1000;0.1180;1.0836;
206.4000;0.1172;1.0789;
206.7000;0.1164;1.0742;
207.0000;0.1213;1.0906;
207.3000;0.1205;1.0929;
207.6000;0.1237;1.1046;
207.9000;0.1180;1.0999;
208.2000;0.1172;1.0999;
208.5000;0.1221;1.0999;
208.8000;0.1213;1.0929;
209.1000;0.1197;1.0906;
209.4000;0.1180;1.0859;
209.7000;0.1172;1.0789;
210.0000;0.1188;1.0882;
210.3000;0.1213;1.0976;
210.6000;0.1172;1.0882;
210.9000;0.1172;1.0836;
211.2000;0.1164;1.0789;
211.5000;0.1188;1.0836;
211.8000;0.1131;1.0719;
212.1000;0.1188;1.0859;
212.4000;0.1180;1.0836;
212.7000;0.1213;1.0906;
213.0000;0.1164;1.0789;
213.3000;0.1172;1.0789;
213.6000;0.1197;1.0929;
213.9000;0.1172;1.0929;
214.2000;0.1188;1.0952;
214.5000;0.1205;1.0882;
214.8000;0.1164;1.0836;
215.1000;0.1205;1.0952;
215.4000;0.1180;1.0812;
215.7000;0.1197;1.0859;
216.0000;0.1180;1.0789;
216.3000;0.1180;1.0742;
216.6000;0.1180;1.0672;
216.9000;0.1188;1.0766;
217.2000;0.1205;1.0859;
217.5000;0.1188;1.0836;
217.8000;0.1270;1.1092;
218.1000;0.1180;1.0836;
218.4000;0.1172;1.0812;
218.7000;0.1180;1.0812;
219.0000;0.1180;1.0812;
219.3000;0.1164;1.0695;
219.6000;0.1180;1.0766;
219.9000;0.1245;1.1046;
220.2000;0.1180;1.0859;
220.5000;0.1180;1.0976;
220.8000;0.1172;1.0906;
221.1000;0.1197;1.0906;
221.4000;0.1172;1.0859;
221.7000;0.1205;1.0976;
222.0000;0.1156;1.0789;
222.3000;0.1172;1.0812;
222.6000;0.1197;1.0859;
222.9000;0.1180;1.0766;
223.2000;0.1172;1.0742;
223.5000;0.1156;1.0719;
223.8000;0.1205;1.0789;
224.1000;0.1180;1.0695;
224.4000;0.1180;1.0649;
224.7000;0.1164;1.0625;
225.0000;0.1180;1.0649;
225.3000;0.1180;1.0625;
225.6000;0.1148;1.0462;
225.9000;0.1205;1.0649;
226.2000;0.1197;1.0532;
226.5000;0.1197;1.0555;
226.8000;0.1188;1.0532;
227.1000;0.1172;1.0625;
227.4000;0.1188;1.0649;
227.7000;0.1188;1.0695;
228.0000;0.1221;1.0859;
228.3000;0.1180;1.0742;
228.6000;0.1164;1.0672;
228.9000;0.1188;1.0695;
229.2000;0.1197;1.0766;
229.5000;0.1188;1.0719;
229.8000;0.1115;1.0532;
230.1000;0.1172;1.0625;
230.4000;0.1188;1.0672;
230.7000;0.1188;1.0719;
231.0000;0.1172;1.0625;
231.3000;0.1115;1.0415;
231.6000;0.1172;1.0602;
231.9000;0.1148;1.0462;
232.2000;0.1180;1.0532;
232.5000;0.1172;1.0509;
232.8000;0.1197;1.0579;
233.1000;0.1197;1.0649;
233.4000;0.1180;1.0672;
233.7000;0.1197;1.0695;
234.0000;0.1188;1.0695;
234.3000;0.1180;1.0789;
234.6000;0.1164;1.0649;
234.9000;0.1172;1.0649;
235.2000;0.1172;1.0719;
235.5000;0.1197;1.0695;
235.8000;0.1229;1.0789;
236.1000;0.1180;1.0719;
236.4000;0.1180;1.0812;
236.7000;0.1197;1.0812;
237.0000;0.1188;1.0719;
237.3000;0.1156;1.0719;
237.6000;0.1205;1.0766;
237.9000;0.1221;1.0812;
238.2000;0.1197;1.0812;
238.5000;0.1188;1.0742;
238.8000;0.1205;1.0695;
239.1000;0.1188;1.0766;
239.4000;0.1172;1.0719;
239.7000;0.1213;1.0789;
240.0000;0.1180;1.0602;
240.3000;0.1180;1.0625;
240.6000;0.1188;1.0742;
240.9000;0.1156;1.0695;
241.2000;0.1180;1.0742;
241.5000;0.1188;1.0766;
241.8000;0.1083;1.0462;
242.1000;0.1205;1.0789;
242.4000;0.1172;1.0742;
242.7000;0.1164;1.0695;
243.0000;0.1172;1.0719;
243.3000;0.1286;1.0999;
243.6000;0.1188;1.0649;
243.9000;0.1188;1.0649;
244.2000;0.1205;1.0649;
244.5000;0.1262;1.0789;
244.8000;0.1188;1.0602;
245.1000;0.1180;1.0579;
245.4000;0.1115;1.0485;
245.7000;0.1188;1.0625;
246.0000;0.1188;1.0719;
246.3000;0.1180;1.0719;
246.6000;0.1172;1.0719;
246.9000;0.1148;1.0672;
247.2000;0.1205;1.0719;
247.5000;0.1164;1.0742;
247.8000;0.1172;1.0766;
248.1000;0.1180;1.0766;
248.4000;0.1237;1.0976;
248.7000;0.1188;1.0836;
249.0000;0.1172;1.0742;
249.3000;0.1164;1.0742;
249.6000;0.1197;1.0882;
249.9000;0.1319;1.1116;
250.2000;0.1188;1.0859;
250.5000;0.1180;1.0836;
250.8000;0.1148;1.0695;
251.1000;0.1197;1.0836;
251.4000;0.1180;1.0836;
251.7000;0.1099;1.0672;
252.0000;0.1205;1.0882;
252.3000;0.1213;1.0859;
252.6000;0.1188;1.0742;
252.9000;0.1245;1.0952;
253.2000;0.1180;1.0859;
253.5000;0.1180;1.0952;
253.8000;0.1197;1.0976;
254.1000;0.1197;1.1022;
254.4000;0.1140;1.0906;
254.7000;0.1197;1.0999;
255.0000;0.1197;1.0999;
255.3000;0.1319;1.1256;
255.6000;0.1188;1.0882;
255.9000;0.1131;1.0789;
256.2000;0.1172;1.0929;
256.5000;0.1205;1.0952;
256.8000;0.1286;1.1186;
257.1000;0.1237;1.1069;
257.4000;0.1172;1.0882;
257.7000;0.1156;1.0812;
258.0000;0.1197;1.0766;
258.3000;0.1180;1.0789;
258.6000;0.1188;1.0789;
258.9000;0.1172;1.0649;
259.2000;0.1140;1.0509;
259.5000;0.1180;1.0672;
259.8000;0.1245;1.0812;
260.1000;0.1188;1.0555;
260.4000;0.1205;1.0555;
260.7000;0.1091;1.0275;
261.0000;0.1188;1.0509;
261.3000;0.1197;1.0532;
261.6000;0.1148;1.0415;
261.9000;0.1188;1.0532;
262.2000;0.1188;1.0509;
262.5000;0.1172;1.0485;
262.8000;0.1164;1.0439;
263.1000;0.1172;1.0485;
263.4000;0.1188;1.0555;
263.7000;0.1205;1.0509;
264.0000;0.1213;1.0579;
264.3000;0.1205;1.0602;
264.6000;0.1205;1.0602;
264.9000;0.1197;1.0625;
265.2000;0.1188;1.0625;
265.5000;0.1205;1.0672;
265.8000;0.1188;1.0625;
266.1000;0.1197;1.0695;
266.4000;0.1188;1.0602;
266.7000;0.1172;1.0555;
267.0000;0.1197;1.0579;
267.3000;0.1123;1.0392;
267.6000;0.1205;1.0602;
267.9000;0.1172;1.0509;
268.2000;0.1123;1.0392;
268.5000;0.1172;1.0415;
268.8000;0.1197;1.0532;
269.1000;0.1188;1.0532;
269.4000;0.1270;1.0695;
269.7000;0.1205;1.0485;
270.0000;0.1180;1.0322;
270.3000;0.1156;1.0228;
270.6000;0.1164;1.0345;
270.9000;0.1213;1.0532;
271.2000;0.1205;1.0509;
271.5000;0.1172;1.0439;
271.8000;0.1197;1.0555;
272.1000;0.1172;1.0649;
272.4000;0.1221;1.0695;
272.7000;0.1197;1.0672;
273.0000;0.1156;1.0672;
273.3000;0.1229;1.0836;
273.6000;0.1213;1.0789;
273.9000;0.1205;1.0812;
274.2000;0.1197;1.0766;
274.5000;0.1197;1.0719;
274.8000;0.1188;1.0789;
275.1000;0.1205;1.0859;
275.4000;0.1164;1.0742;
275.7000;0.1197;1.0766;
276.0000;0.1221;1.0789;
276.3000;0.1148;1.0532;
276.6000;0.1172;1.0579;
276.9000;0.1188;1.0602;
277.2000;0.1099;1.0415;
277.5000;0.1197;1.0742;
277.8000;0.1197;1.0789;
278.1000;0.1270;1.1022;
278.4000;0.1164;1.0719;
278.7000;0.1205;1.0789;
279.0000;0.1270;1.0882;
279.3000;0.1115;1.0509;
279.6000;0.1197;1.0695;
279.9000;0.1164;1.0649;
280.2000;0.1188;1.0742;
280.5000;0.1156;1.0579;
280.8000;0.1229;1.0695;
281.1000;0.1123;1.0345;
281.4000;0.1180;1.0415;
281.7000;0.1172;1.0415;
282.0000;0.1205;1.0532;
282.3000;0.1156;1.0392;
282.6000;0.1197;1.0532;
282.9000;0.1205;1.0509;
283.2000;0.1188;1.0485;
283.5000;0.1197;1.0509;
283.8000;0.1245;1.0602;
284.1000;0.1197;1.0509;
284.4000;0.1164;1.0462;
284.7000;0.1197;1.0579;
285.0000;0.1205;1.0766;
285.3000;0.1197;1.0672;
285.6000;0.1197;1.0672;
285.9000;0.1205;1.0719;
286.2000;0.1205;1.0695;
286.5000;0.1188;1.0625;
286.8000;0.1188;1.0625;
287.1000;0.1245;1.0859;
287.4000;0.1197;1.0672;
287.7000;0.1180;1.0625;
288.0000;0.1237;1.0695;
288.3000;0.1188;1.0509;
288.6000;0.1205;1.0462;
288.9000;0.1229;1.0532;
289.2000;0.1229;1.0509;
289.5000;0.1197;1.0439;
289.8000;0.1205;1.0532;
290.1000;0.1188;1.0532;
290.4000;0.1197;1.0555;
290.7000;0.1180;1.0462;
291.0000;0.1237;1.0672;
291.3000;0.1197;1.0695;
291.6000;0.1172;1.0579;
291.9000;0.1188;1.0532;
292.2000;0.1172;1.0462;
292.5000;0.1188;1.0392;
292.8000;0.1188;1.0415;
293.1000;0.1123;1.0205;
293.4000;0.1213;1.0439;
293.7000;0.1213;1.0439;
294.0000;0.1205;1.0509;
294.3000;0.1107;1.0275;
294.6000;0.1188;1.0509;
294.9000;0.1180;1.0485;
295.2000;0.1197;1.0509;
295.5000;0.1188;1.0415;
295.8000;0.1197;1.0485;
296.1000;0.1172;1.0369;
296.4000;0.1197;1.0439;
296.7000;0.1164;1.0299;
297.0000;0.1180;1.0369;
297.3000;0.1213;1.0415;
297.6000;0.1180;1.0322;
297.9000;0.1180;1.0345;
298.2000;0.1213;1.0415;
298.5000;0.1172;1.0345;
298.8000;0.1213;1.0509;
299.1000;0.1221;1.0579;
299.4000;0.1237;1.0625;
299.7000;0.1294;1.0812;
300.0000;0.1205;1.0555;
300.3000;0.1188;1.0462;
300.6000;0.1140;1.0392;
300.9000;0.1294;1.0695;
301.2000;0.1213;1.0555;
301.5000;0.1188;1.0579;
301.8000;0.1205;1.0602;
302.1000;0.1188;1.0649;
302.4000;0.1180;1.0649;
302.7000;0.1148;1.0579;
303.0000;0.1180;1.0625;
303.3000;0.1172;1.0625;
303.6000;0.1188;1.0672;
303.9000;0.1197;1.0719;
304.2000;0.1180;1.0672;
304.5000;0.1172;1.0672;
304.8000;0.1180;1.0649;
305.1000;0.1237;1.0766;
305.4000;0.1197;1.0742;
305.7000;0.1164;1.0625;
306.0000;0.1205;1.0789;
306.3000;0.1205;1.0766;
306.6000;0.1197;1.0695;
306.9000;0.1188;1.0579;
307.2000;0.1148;1.0462;
307.5000;0.1197;1.0579;
307.8000;0.1172;1.0439;
308.1000;0.1302;1.0719;
308.4000;0.1237;1.0509;
308.7000;0.1164;1.0322;
309.0000;0.1197;1.0439;
309.3000;0.1197;1.0392;
309.6000;0.1197;1.0439;
309.9000;0.1213;1.0509;
310.2000;0.1188;1.0555;
310.5000;0.1205;1.0625;
310.8000;0.1205;1.0602;
311.1000;0.1164;1.0485;
311.4000;0.1205;1.0532;
311.7000;0.1254;1.0649;
312.0000;0.1164;1.0392;
312.3000;0.1205;1.0555;
312.6000;0.1164;1.0462;
312.9000;0.1188;1.0485;
313.2000;0.1188;1.0555;
313.5000;0.1172;1.0555;
313.8000;0.1188;1.0649;
314.1000;0.1164;1.0695;
314.4000;0.1197;1.0812;
314.7000;0.1245;1.0882;
315.0000;0.1172;1.0625;
315.3000;0.1188;1.0649;
315.6000;0.1180;1.0509;
315.9000;0.1197;1.0602;
316.2000;0.1156;1.0532;
316.5000;0.1172;1.0625;
316.8000;0.1188;1.0672;
317.1000;0.1213;1.0719;
317.4000;0.1188;1.0672;
317.7000;0.1172;1.0649;
318.0000;0.1180;1.0672;
318.3000;0.1180;1.0742;
318.6000;0.1148;1.0672;
318.9000;0.1180;1.0789;
319.2000;0.1164;1.0719;
319.5000;0.1254;1.0859;
319.8000;0.1172;1.0532;
320.1000;0.1164;1.0485;
320.4000;0.1188;1.0532;
320.7000;0.1188;1.0485;
321.0000;0.1197;1.0555;
321.3000;0.1164;1.0345;
321.6000;0.1180;1.0392;
321.9000;0.1188;1.0392;
322.2000;0.1172;1.0322;
322.5000;0.1180;1.0415;
322.8000;0.1319;1.0789;
323.1000;0.1188;1.0439;
323.4000;0.1188;1.0462;
323.7000;0.1123;1.0322;
324.0000;0.1172;1.0415;
324.3000;0.1180;1.0439;
324.6000;0.1180;1.0415;
324.9000;0.1188;1.0392;
325.2000;0.1197;1.0392;
325.5000;0.1197;1.0322;
325.8000;0.1221;1.0345;
326.1000;0.1205;1.0299;
326.4000;0.1197;1.0228;
326.7000;0.1164;1.0135;
327.0000;0.1164;1.0205;
327.3000;0.1188;1.0275;
327.6000;0.1197;1.0228;
327.9000;0.1188;1.0182;
328.2000;0.1205;1.0275;
328.5000;0.1180;1.0228;
328.8000;0.1172;1.0228;
329.1000;0.1221;1.0439;
329.4000;0.1205;1.0532;
329.7000;0.1213;1.0579;
330.0000;0.1197;1.0555;
330.3000;0.1197;1.0532;
330.6000;0.1188;1.0462;
330.9000;0.1188;1.0462;
331.2000;0.1197;1.0532;
331.5000;0.1205;1.0579;
331.8000;0.1188;1.0532;
332.1000;0.1197;1.0532;
332.4000;0.1197;1.0509;
332.7000;0.1164;1.0439;
333.0000;0.1188;1.0509;
333.3000;0.1205;1.0532;
333.6000;0.1197;1.0462;
333.9000;0.1172;1.0322;
334.2000;0.1180;1.0392;
334.5000;0.1197;1.0485;
334.8000;0.1221;1.0625;
335.1000;0.1172;1.0555;
335.4000;0.1197;1.0579;
335.7000;0.1180;1.0579;
336.0000;0.1213;1.0649;
336.3000;0.1197;1.0649;
336.6000;0.1172;1.0672;
336.9000;0.1180;1.0719;
337.2000;0.1205;1.0859;
337.5000;0.1188;1.0742;
337.8000;0.1197;1.0766;
338.1000;0.1180;1.0766;
338.4000;0.1229;1.0859;
338.7000;0.1197;1.0695;
339.0000;0.1197;1.0672;
339.3000;0.1188;1.0625;
339.6000;0.1213;1.0555;
339.9000;0.1188;1.0462;
340.2000;0.1188;1.0485;
340.5000;0.1197;1.0509;
340.8000;0.1213;1.0509;
341.1000;0.1213;1.0555;
341.4000;0.1205;1.0602;
341.7000;0.1180;1.0579;
342.0000;0.1180;1.0532;
342.3000;0.1180;1.0532;
342.6000;0.1172;1.0462;
342.9000;0.1172;1.0532;
343.2000;0.1188;1.0509;
343.5000;0.1180;1.0485;
343.8000;0.1188;1.0509;
344.1000;0.1188;1.0532;
344.4000;0.1180;1.0509;
344.7000;0.1205;1.0579;
345.0000;0.1197;1.0555;
345.3000;0.1188;1.0532;
345.6000;0.1172;1.0462;
345.9000;0.1205;1.0555;
346.2000;0.1286;1.0742;
346.5000;0.1197;1.0532;
346.8000;0.1180;1.0532;
347.1000;0.1172;1.0555;
347.4000;0.1188;1.0579;
347.7000;0.1131;1.0532;
348.0000;0.1180;1.0672;
348.3000;0.1172;1.0649;
348.6000;0.1188;1.0579;
348.9000;0.1221;1.0532;
349.2000;0.1197;1.0555;
349.5000;0.1188;1.0602;
349.8000;0.1205;1.0625;
350.1000;0.1188;1.0625;
350.4000;0.1188;1.0602;
350.7000;0.1205;1.0625;
351.0000;0.1197;1.0649;
351.3000;0.1197;1.0719;
351.6000;0.1205;1.0719;
351.9000;0.1180;1.0649;
352.2000;0.1148;1.0462;
352.5000;0.1156;1.0462;
352.8000;0.1229;1.0649;
353.1000;0.1188;1.0485;
353.4000;0.1197;1.0532;
353.7000;0.1197;1.0532;
354.0000;0.1188;1.0485;
354.3000;0.1229;1.0485;
354.6000;0.1188;1.0369;
354.9000;0.1197;1.0532;
355.2000;0.1197;1.0462;
355.5000;0.1164;1.0345;
355.8000;0.1172;1.0252;
356.1000;0.1188;1.0369;
356.4000;0.1213;1.0485;
356.7000;0.1205;1.0579;
357.0000;0.1180;1.0555;
357.3000;0.1188;1.0532;
357.6000;0.1213;1.0649;
357.9000;0.1197;1.0602;
358.2000;0.1205;1.0649;
358.5000;0.1302;1.0859;
358.8000;0.1197;1.0602;
359.1000;0.1205;1.0532;
359.4000;0.1180;1.0462;
359.7000;0.1164;1.0415;
360.0000;0.1197;1.0509;
360.3000;0.1115;1.0392;
360.6000;0.1156;1.0579;
360.9000;0.1091;1.0275;
361.2000;0.1245;1.0695;
361.5000;0.1221;1.0649;
361.8000;0.1197;1.0602;
362.1000;0.1302;1.0906;
362.4000;0.1197;1.0766;
362.7000;0.1188;1.0812;
363.0000;0.1197;1.0812;
363.3000;0.1188;1.0766;
363.6000;0.1180;1.0742;
363.9000;0.1205;1.0789;
364.2000;0.1213;1.0812;
364.5000;0.1188;1.0742;
364.8000;0.1213;1.0836;
365.1000;0.1221;1.0882;
365.4000;0.1180;1.0812;
365.7000;0.1197;1.0882;
366.0000;0.1197;1.0882;
366.3000;0.1197;1.0836;
366.6000;0.1172;1.0812;
366.9000;0.1197;1.0929;
367.2000;0.1188;1.0789;
367.5000;0.1074;1.0439;
367.8000;0.1188;1.0625;
368.1000;0.1205;1.0625;
368.4000;0.1140;1.0579;
368.7000;0.1148;1.0579;
369.0000;0.1180;1.0672;
369.3000;0.1156;1.0625;
369.6000;0.1197;1.0672;
369.9000;0.1099;1.0392;
370.2000;0.1197;1.0579;
370.5000;0.1205;1.0602;
370.8000;0.1188;1.0532;
371.1000;0.1066;1.0252;
371.4000;0.1180;1.0579;
371.7000;0.1197;1.0625;
372.0000;0.1205;1.0602;
372.3000;0.1205;1.0602;
372.6000;0.1221;1.0672;
372.9000;0.1237;1.0742;
373.2000;0.1180;1.0602;
373.5000;0.1221;1.0672;
373.8000;0.1197;1.0602;
374.1000;0.1115;1.0392;
374.4000;0.1156;1.0462;
374.7000;0.1172;1.0485;
375.0000;0.1172;1.0439;
375.3000;0.1197;1.0485;
375.6000;0.1091;1.0322;
375.9000;0.1188;1.0602;
376.2000;0.1197;1.0649;
376.5000;0.1197;1.0602;
376.8000;0.1205;1.0602;
377.1000;0.1197;1.0509;
377.4000;0.1205;1.0555;
377.7000;0.1172;1.0532;
378.0000;0.1009;1.0158;
378.3000;0.1180;1.0602;
378.6000;0.1188;1.0625;
378.9000;0.1172;1.0625;
379.2000;0.1197;1.0789;
379.5000;0.1188;1.0789;
379.8000;0.1213;1.0836;
380.1000;0.1213;1.0859;
380.4000;0.1180;1.0812;
380.7000;0.1197;1.0906;
381.0000;0.1213;1.0929;
381.3000;0.1221;1.0836;
381.6000;0.1197;1.0742;
381.9000;0.1213;1.0672;
382.2000;0.1197;1.0602;
382.5000;0.1188;1.0579;
382.8000;0.1197;1.0555;
383.1000;0.1221;1.0602;
383.4000;0.1156;1.0415;
383.7000;0.1205;1.0602;
384.0000;0.1213;1.0555;
384.3000;0.1197;1.0602;
384.6000;0.1180;1.0555;
384.9000;0.1197;1.0649;
385.2000;0.1188;1.0555;
385.5000;0.1197;1.0555;
385.8000;0.1221;1.0649;
386.1000;0.1188;1.0602;
386.4000;0.1213;1.0789;
386.7000;0.1205;1.0695;
387.0000;0.1237;1.0766;
387.3000;0.1213;1.0742;
387.6000;0.1188;1.0766;
387.9000;0.1213;1.0695;
388.2000;0.1148;1.0485;
388.5000;0.1197;1.0555;
388.8000;0.1172;1.0485;
389.1000;0.1188;1.0555;
389.4000;0.1131;1.0439;
389.7000;0.1221;1.0625;
390.0000;0.1172;1.0532;
390.3000;0.1221;1.0579;
390.6000;0.1254;1.0719;
390.9000;0.1197;1.0602;
391.2000;0.1229;1.0555;
391.5000;0.1172;1.0392;
391.8000;0.1245;1.0625;
392.1000;0.1213;1.0532;
392.4000;0.1156;1.0439;
392.7000;0.1172;1.0369;
393.0000;0.1286;1.0649;
393.3000;0.1172;1.0369;
393.6000;0.1164;1.0369;
393.9000;0.1148;1.0345;
394.2000;0.1213;1.0579;
394.5000;0.1213;1.0602;
394.8000;0.1140;1.0392;
395.1000;0.1286;1.0836;
395.4000;0.1254;1.0766;
395.7000;0.1197;1.0602;
396.0000;0.1229;1.0672;
396.3000;0.1221;1.0555;
396.6000;0.1197;1.0485;
396.9000;0.1131;1.0369;
397.2000;0.1237;1.0695;
397.5000;0.1180;1.0462;
397.8000;0.1205;1.0555;
398.1000;0.1221;1.0602;
398.4000;0.1172;1.0579;
398.7000;0.1197;1.0649;
399.0000;0.1188;1.0695;
399.3000;0.1156;1.0602;
399.6000;0.1172;1.0695;
399.9000;0.1180;1.0719;
400.2000;0.1188;1.0719;
400.5000;0.1156;1.0625;
400.8000;0.1245;1.0789;
401.1000;0.1107;1.0439;
401.4000;0.1164;1.0555;
401.7000;0.1221;1.0742;
402.0000;0.1091;1.0369;
402.3000;0.1197;1.0742;
402.6000;0.1156;1.0625;
402.9000;0.1123;1.0532;
403.2000;0.1180;1.0695;
403.5000;0.1172;1.0625;
403.8000;0.1180;1.0579;
404.1000;0.1156;1.0462;
404.4000;0.1188;1.0485;
404.7000;0.1205;1.0602;
405.0000;0.1205;1.0649;
405.3000;0.1205;1.0672;
405.6000;0.1205;1.0672;
405.9000;0.1197;1.0742;
406.2000;0.1188;1.0672;
406.5000;0.1221;1.0719;
406.8000;0.1188;1.0672;
407.1000;0.1237;1.0859;
407.4000;0.1197;1.0742;
407.7000;0.1197;1.0766;
408.0000;0.1205;1.0789;
408.3000;0.1180;1.0649;
408.6000;0.1091;1.0369;
408.9000;0.1237;1.0742;
409.2000;0.1188;1.0789;
409.5000;0.1180;1.0719;
409.8000;0.1188;1.0719;
410.1000;0.1164;1.0649;
410.4000;0.1180;1.0579;
410.7000;0.1148;1.0462;
411.0000;0.1254;1.0812;
411.3000;0.1213;1.0695;
411.6000;0.1164;1.0532;
411.9000;0.1123;1.0392;
412.2000;0.1188;1.0625;
412.5000;0.1156;1.0602;
412.8000;0.1188;1.0766;
413.1000;0.1164;1.0719;
413.4000;0.1164;1.0695;
413.7000;0.1197;1.0836;
414.0000;0.1180;1.0766;
414.3000;0.1180;1.0625;
414.6000;0.1172;1.0602;
414.9000;0.1197;1.0672;
415.2000;0.1205;1.0766;
415.5000;0.1148;1.0625;
415.8000;0.1237;1.0812;
416.1000;0.1254;1.0812;
416.4000;0.1229;1.0695;
416.7000;0.1205;1.0532;
417.0000;0.1197;1.0509;
417.3000;0.1229;1.0555;
417.6000;0.1229;1.0579;
417.9000;0.1197;1.0602;
418.2000;0.1188;1.0555;
418.5000;0.1107;1.0345;
418.8000;0.1294;1.0836;
419.1000;0.1237;1.0836;
419.4000;0.1213;1.0766;
419.7000;0.1172;1.0579;
420.0000;0.1229;1.0649;
420.3000;0.1140;1.0299;
420.6000;0.1156;1.0369;
420.9000;0.1180;1.0439;
421.2000;0.1278;1.0695;
421.5000;0.1197;1.0485;
421.8000;0.1213;1.0532;
422.1000;0.1164;1.0439;
422.4000;0.1221;1.0649;
422.7000;0.1188;1.0509;
423.0000;0.1164;1.0462;
423.3000;0.1164;1.0509;
423.6000;0.1180;1.0579;
423.9000;0.1172;1.0579;
424.2000;0.1156;1.0439;
424.5000;0.1188;1.0509;
424.8000;0.1205;1.0485;
425.1000;0.1180;1.0462;
425.4000;0.1164;1.0369;
425.7000;0.1188;1.0462;
426.0000;0.1188;1.0485;
426.3000;0.1180;1.0415;
426.6000;0.1197;1.0509;
426.9000;0.1197;1.0485;
427.2000;0.1172;1.0415;
427.5000;0.1172;1.0415;
427.8000;0.1180;1.0392;
428.1000;0.1172;1.0369;
428.4000;0.1172;1.0415;
428.7000;0.1164;1.0462;
429.0000;0.1172;1.0392;
429.3000;0.1197;1.0439;
429.6000;0.1197;1.0439;
429.9000;0.1213;1.0485;
430.2000;0.1205;1.0392;
430.5000;0.1188;1.0462;
430.8000;0.1188;1.0462;
431.1000;0.1237;1.0672;
431.4000;0.1213;1.0579;
431.7000;0.1188;1.0555;
432.0000;0.1205;1.0579;
432.3000;0.1140;1.0439;
432.6000;0.1213;1.0625;
432.9000;0.1188;1.0485;
433.2000;0.1197;1.0415;
433.5000;0.1180;1.0392;
433.8000;0.1164;1.0322;
434.1000;0.1197;1.0345;
434.4000;0.1188;1.0345;
434.7000;0.1311;1.0602;
435.0000;0.1172;1.0252;
435.3000;0.1172;1.0345;
435.6000;0.1197;1.0462;
435.9000;0.1156;1.0439;
436.2000;0.1180;1.0579;
436.5000;0.1213;1.0602;
436.8000;0.1172;1.0555;
437.1000;0.1172;1.0509;
437.4000;0.1172;1.0439;
437.7000;0.1197;1.0532;
438.0000;0.1164;1.0509;
438.3000;0.1164;1.0509;
438.6000;0.1188;1.0532;
438.9000;0.1188;1.0532;
439.2000;0.1213;1.0602;
439.5000;0.1205;1.0602;
439.8000;0.1172;1.0509;
440.1000;0.1213;1.0625;
440.4000;0.1188;1.0602;
440.7000;0.1254;1.0742;
441.0000;0.1197;1.0672;
441.3000;0.1188;1.0672;
441.6000;0.1197;1.0649;
441.9000;0.1164;1.0555;
442.2000;0.1172;1.0579;
442.5000;0.1254;1.0812;
442.8000;0.1156;1.0532;
443.1000;0.1180;1.0555;
443.4000;0.1188;1.0579;
443.7000;0.1148;1.0392;
444.0000;0.1164;1.0439;
444.3000;0.1180;1.0555;
444.6000;0.1197;1.0625;
444.9000;0.1213;1.0695;
445.2000;0.1172;1.0672;
445.5000;0.1188;1.0719;
445.8000;0.1197;1.0766;
446.1000;0.1172;1.0579;
446.4000;0.1188;1.0532;
446.7000;0.1172;1.0485;
447.0000;0.1197;1.0532;
447.3000;0.1197;1.0462;
447.6000;0.1229;1.0649;
447.9000;0.1172;1.0579;
448.2000;0.1205;1.0649;
448.5000;0.1180;1.0555;
448.8000;0.1205;1.0602;
449.1000;0.1188;1.0579;
449.4000;0.1188;1.0602;
449.7000;0.1156;1.0532;
450.0000;0.1180;1.0672;
450.3000;0.1197;1.0625;
450.6000;0.1197;1.0625;
450.9000;0.1213;1.0579;
451.2000;0.1164;1.0485;
451.5000;0.1221;1.0509;
451.8000;0.1213;1.0532;
452.1000;0.1221;1.0649;
452.4000;0.1188;1.0672;
452.7000;0.1188;1.0742;
453.0000;0.1197;1.0719;
453.3000;0.1205;1.0649;
453.6000;0.1188;1.0649;
453.9000;0.1180;1.0579;
454.2000;0.1188;1.0649;
454.5000;0.1197;1.0695;
454.8000;0.1197;1.0695;
455.1000;0.1180;1.0695;
455.4000;0.1188;1.0672;
455.7000;0.1205;1.0649;
456.0000;0.1197;1.0579;
456.3000;0.1205;1.0532;
456.6000;0.1180;1.0532;
456.9000;0.1213;1.0649;
457.2000;0.1172;1.0602;
457.5000;0.1197;1.0672;
457.8000;0.1245;1.0812;
458.1000;0.1205;1.0719;
458.4000;0.1140;1.0532;
458.7000;0.1205;1.0695;
459.0000;0.1188;1.0695;
459.3000;0.1197;1.0672;
459.6000;0.1213;1.0649;
459.9000;0.1188;1.0579;
460.2000;0.1188;1.0625;
460.5000;0.1213;1.0625;
460.8000;0.1188;1.0649;
461.1000;0.1197;1.0625;
461.4000;0.1172;1.0485;
461.7000;0.1123;1.0322;
462.0000;0.1205;1.0532;
462.3000;0.1188;1.0509;
462.6000;0.1197;1.0509;
462.9000;0.1302;1.0672;
463.2000;0.1197;1.0415;
463.5000;0.1172;1.0369;
463.8000;0.1213;1.0555;
464.1000;0.1180;1.0462;
464.4000;0.1197;1.0462;
464.7000;0.1197;1.0509;
465.0000;0.1172;1.0485;
465.3000;0.1188;1.0439;
465.6000;0.1172;1.0485;
465.9000;0.1188;1.0579;
466.2000;0.1164;1.0485;
466.5000;0.1197;1.0625;
466.8000;0.1180;1.0462;
467.1000;0.1188;1.0532;
467.4000;0.1197;1.0555;
467.7000;0.1188;1.0462;
468.0000;0.1197;1.0415;
468.3000;0.1188;1.0439;
468.6000;0.1205;1.0532;
468.9000;0.1180;1.0462;
469.2000;0.1180;1.0485;
469.5000;0.1172;1.0485;
469.8000;0.1245;1.0672;
470.1000;0.1188;1.0602;
470.4000;0.1180;1.0579;
470.7000;0.1213;1.0555;
471.0000;0.1188;1.0485;
471.3000;0.1188;1.0555;
471.6000;0.1205;1.0579;
471.9000;0.1205;1.0579;
472.2000;0.1213;1.0672;
472.5000;0.1197;1.0579;
472.8000;0.1188;1.0555;
473.1000;0.1180;1.0509;
473.4000;0.1197;1.0602;
473.7000;0.1205;1.0532;
474.0000;0.1205;1.0579;
474.3000;0.1205;1.0532;
474.6000;0.1180;1.0485;
474.9000;0.1172;1.0485;
475.2000;0.1197;1.0509;
475.5000;0.1172;1.0555;
475.8000;0.1188;1.0602;
476.1000;0.1197;1.0649;
476.4000;0.1229;1.0742;
476.7000;0.1221;1.0742;
477.0000;0.1099;1.0345;
477.3000;0.1205;1.0649;
477.6000;0.1197;1.0649;
477.9000;0.1099;1.0509;
478.2000;0.1197;1.0649;
478.5000;0.1197;1.0742;
478.8000;0.1180;1.0695;
479.1000;0.1180;1.0695;
479.4000;0.1180;1.0579;
479.7000;0.1221;1.0672;
480.0000;0.1205;1.0695;
480.3000;0.1188;1.0672;
480.6000;0.1197;1.0695;
480.9000;0.1180;1.0672;
481.2000;0.1197;1.0672;
481.5000;0.1197;1.0649;
481.8000;0.1188;1.0579;
482.1000;0.1180;1.0509;
482.4000;0.1140;1.0392;
482.7000;0.1197;1.0625;
483.0000;0.1205;1.0579;
483.3000;0.1099;1.0369;
483.6000;0.1262;1.0719;
483.9000;0.1188;1.0625;
484.2000;0.1188;1.0695;
484.5000;0.1115;1.0602;
484.8000;0.1140;1.0625;
485.1000;0.1188;1.0742;
485.4000;0.1188;1.0789;
485.7000;0.1188;1.0719;
486.0000;0.1188;1.0672;
486.3000;0.1205;1.0719;
486.6000;0.1205;1.0742;
486.9000;0.1245;1.0836;
487.2000;0.1197;1.0695;
487.5000;0.1180;1.0672;
487.8000;0.1156;1.0509;
488.1000;0.1188;1.0579;
488.4000;0.1188;1.0532;
488.7000;0.1188;1.0509;
489.0000;0.1205;1.0485;
489.3000;0.1278;1.0695;
489.6000;0.1156;1.0345;
489.9000;0.1213;1.0485;
490.2000;0.1294;1.0719;
490.5000;0.1172;1.0485;
490.8000;0.1083;1.0345;
491.1000;0.1197;1.0602;
491.4000;0.1188;1.0625;
491.7000;0.1180;1.0532;
492.0000;0.1115;1.0322;
492.3000;0.1188;1.0649;
492.6000;0.1213;1.0625;
492.9000;0.1221;1.0719;
493.2000;0.1213;1.0695;
493.5000;0.1188;1.0625;
493.8000;0.1205;1.0649;
494.1000;0.1205;1.0649;
494.4000;0.1286;1.0906;
494.7000;0.1156;1.0602;
495.0000;0.1188;1.0602;
495.3000;0.1197;1.0532;
495.6000;0.1180;1.0485;
495.9000;0.1286;1.0766;
496.2000;0.1172;1.0625;
496.5000;0.1188;1.0649;
496.8000;0.1188;1.0602;
497.1000;0.1180;1.0649;
497.4000;0.1188;1.0672;
497.7000;0.1180;1.0649;
498.0000;0.1197;1.0625;
498.3000;0.1197;1.0625;
498.6000;0.1188;1.0695;
498.9000;0.1156;1.0579;
499.2000;0.1197;1.0719;
499.5000;0.1180;1.0579;
499.8000;0.1148;1.0415;
500.1000;0.1213;1.0602;
500.4000;0.1197;1.0555;
500.7000;0.1156;1.0509;
501.0000;0.1107;1.0392;
501.3000;0.1221;1.0766;
501.6000;0.1205;1.0625;
501.9000;0.1148;1.0485;
502.2000;0.1197;1.0509;
502.5000;0.1213;1.0602;
502.8000;0.1188;1.0509;
503.1000;0.1123;1.0369;
503.4000;0.1213;1.0672;
503.7000;0.1188;1.0602;
504.0000;0.1074;1.0345;
504.3000;0.1237;1.0695;
504.6000;0.1229;1.0649;
504.9000;0.1180;1.0555;
505.2000;0.1197;1.0555;
505.5000;0.1180;1.0602;
505.8000;0.1164;1.0579;
506.1000;0.1164;1.0509;
506.4000;0.1164;1.0509;
506.7000;0.1172;1.0509;
507.0000;0.1229;1.0695;
507.3000;0.1172;1.0532;
507.6000;0.1180;1.0579;
507.9000;0.1172;1.0485;
508.2000;0.1188;1.0532;
508.5000;0.1172;1.0439;
508.8000;0.1254;1.0625;
509.1000;0.1205;1.0509;
509.4000;0.1270;1.0742;
509.7000;0.1188;1.0462;
510.0000;0.1221;1.0532;
510.3000;0.1188;1.0439;
510.6000;0.1188;1.0532;
510.9000;0.1213;1.0579;
511.2000;0.1188;1.0532;
511.5000;0.1205;1.0625;
511.8000;0.1205;1.0579;
512.1000;0.1180;1.0532;
512.4000;0.1164;1.0485;
512.7000;0.1197;1.0602;
513.0000;0.1213;1.0672;
513.3000;0.1115;1.0392;
513.6000;0.1180;1.0649;
513.9000;0.1180;1.0695;
514.2000;0.1156;1.0579;
514.5000;0.1197;1.0649;
514.8000;0.1254;1.0766;
515.1000;0.1197;1.0555;
515.4000;0.1229;1.0579;
515.7000;0.1164;1.0462;
516.0000;0.1205;1.0602;
516.3000;0.1205;1.0485;
516.6000;0.1213;1.0509;
516.9000;0.1180;1.0462;
517.2000;0.1188;1.0509;
517.5000;0.1205;1.0532;
517.8000;0.1205;1.0579;
518.1000;0.1148;1.0509;
518.4000;0.1221;1.0672;
518.7000;0.1188;1.0625;
519.0000;0.1188;1.0695;
519.3000;0.1188;1.0766;
519.6000;0.1180;1.0742;
519.9000;0.1221;1.0836;
520.2000;0.1180;1.0742;
520.5000;0.1221;1.0882;
520.8000;0.1221;1.0789;
521.1000;0.1197;1.0719;
521.4000;0.1172;1.0672;
521.7000;0.1188;1.0672;
522.0000;0.1188;1.0695;
522.3000;0.1213;1.0789;
522.6000;0.1213;1.0766;
522.9000;0.1188;1.0649;
523.2000;0.1229;1.0695;
523.5000;0.1180;1.0555;
523.8000;0.1188;1.0509;
524.1000;0.1205;1.0625;
524.4000;0.1197;1.0649;
524.7000;0.1131;1.0485;
525.0000;0.1245;1.0812;
525.3000;0.1188;1.0672;
525.6000;0.1205;1.0695;
525.9000;0.1213;1.0766;
526.2000;0.1188;1.0649;
526.5000;0.1188;1.0789;
526.8000;0.1197;1.0859;
527.1000;0.1188;1.0882;
527.4000;0.1164;1.0812;
527.7000;0.1197;1.0859;
528.0000;0.1140;1.0695;
528.3000;0.1148;1.0742;
528.6000;0.1197;1.0812;
528.9000;0.1123;1.0625;
529.2000;0.1197;1.0836;
529.5000;0.1205;1.0812;
529.8000;0.1205;1.0882;
530.1000;0.1172;1.0766;
530.4000;0.1164;1.0766;
530.7000;0.1172;1.0789;
531.0000;0.1172;1.0766;
531.3000;0.1188;1.0812;
531.6000;0.1172;1.0766;
531.9000;0.1221;1.0929;
532.2000;0.1205;1.0859;
532.5000;0.1164;1.0672;
532.8000;0.1188;1.0836;
533.1000;0.1188;1.0812;
533.4000;0.1140;1.0695;
533.7000;0.1197;1.0882;
534.0000;0.1197;1.0766;
534.3000;0.1197;1.0742;
534.6000;0.1156;1.0649;
534.9000;0.1164;1.0625;
535.2000;0.1180;1.0625;
535.5000;0.1091;1.0322;
535.8000;0.1205;1.0649;
536.1000;0.1197;1.0672;
536.4000;0.1188;1.0649;
536.7000;0.1205;1.0719;
537.0000;0.1221;1.0742;
537.3000;0.1197;1.0719;
537.6000;0.1213;1.0672;
537.9000;0.1188;1.0555;
538.2000;0.1213;1.0695;
538.5000;0.1164;1.0672;
538.8000;0.1221;1.0789;
539.1000;0.1172;1.0695;
539.4000;0.1188;1.0719;
539.7000;0.1205;1.0766;
540.0000;0.1188;1.0766;
540.3000;0.1180;1.0695;
540.6000;0.1164;1.0672;
540.9000;0.1205;1.0695;
541.2000;0.1229;1.0742;
541.5000;0.1164;1.0602;
541.8000;0.1180;1.0672;
542.1000;0.1229;1.0812;
542.4000;0.1197;1.0719;
542.7000;0.1172;1.0625;
543.0000;0.1245;1.0742;
543.3000;0.1172;1.0579;
543.6000;0.1205;1.0579;
543.9000;0.1197;1.0649;
544.2000;0.1197;1.0602;
544.5000;0.1213;1.0602;
544.8000;0.1180;1.0579;
545.1000;0.1213;1.0695;
545.4000;0.1131;1.0555;
545.7000;0.1180;1.0602;
546.0000;0.1205;1.0602;
546.3000;0.1197;1.0649;
546.6000;0.1188;1.0672;
546.9000;0.1140;1.0532;
547.2000;0.1172;1.0625;
547.5000;0.1229;1.0719;
547.8000;0.1197;1.0742;
548.1000;0.1156;1.0649;
548.4000;0.1197;1.0742;
548.7000;0.1221;1.0766;
549.0000;0.1172;1.0766;
549.3000;0.1180;1.0742;
549.6000;0.1188;1.0695;
549.9000;0.1278;1.0766;
550.2000;0.1205;1.0719;
550.5000;0.1188;1.0649;
550.8000;0.1197;1.0695;
551.1000;0.1294;1.0999;
551.4000;0.1180;1.0719;
551.7000;0.1188;1.0695;
552.0000;0.1172;1.0649;
552.3000;0.1188;1.0695;
552.6000;0.1197;1.0719;
552.9000;0.1197;1.0602;
553.2000;0.1197;1.0602;
553.5000;0.1188;1.0579;
553.8000;0.1213;1.0649;
554.1000;0.1188;1.0695;
554.4000;0.1197;1.0695;
554.7000;0.1123;1.0509;
555.0000;0.1188;1.0719;
555.3000;0.1188;1.0789;
555.6000;0.1172;1.0789;
555.9000;0.1172;1.0812;
556.2000;0.1197;1.0836;
556.5000;0.1205;1.0859;
556.8000;0.1164;1.0742;
557.1000;0.1188;1.0789;
557.4000;0.1180;1.0766;
557.7000;0.1213;1.0882;
558.0000;0.1188;1.0812;
558.3000;0.1180;1.0742;
558.6000;0.1180;1.0719;
558.9000;0.1197;1.0812;
559.2000;0.1205;1.0742;
559.5000;0.1237;1.0859;
559.8000;0.1188;1.0812;
560.1000;0.1213;1.0812;
560.4000;0.1188;1.0742;
560.7000;0.1213;1.0836;
561.0000;0.1205;1.0742;
561.3000;0.1180;1.0695;
561.6000;0.1180;1.0742;
561.9000;0.1197;1.0789;
562.2000;0.1197;1.0836;
562.5000;0.1188;1.0766;
562.8000;0.1188;1.0766;
563.1000;0.1172;1.0602;
563.4000;0.1188;1.0579;
563.7000;0.1213;1.0602;
564.0000;0.1197;1.0602;
564.3000;0.1188;1.0625;
564.6000;0.1123;1.0485;
564.9000;0.1188;1.0649;
565.2000;0.1221;1.0719;
565.5000;0.1180;1.0649;
565.8000;0.1188;1.0719;
566.1000;0.1213;1.0789;
566.4000;0.1188;1.0766;
566.7000;0.1197;1.0812;
567.0000;0.1172;1.0812;
567.3000;0.1180;1.0836;
567.6000;0.1213;1.0906;
567.9000;0.1180;1.0789;
568.2000;0.1197;1.0719;
568.5000;0.1197;1.0719;
568.8000;0.1237;1.0859;
569.1000;0.1205;1.0789;
569.4000;0.1188;1.0766;
569.7000;0.1205;1.0836;
570.0000;0.1197;1.0836;
570.3000;0.1197;1.0766;
570.6000;0.1205;1.0789;
570.9000;0.1172;1.0719;
571.2000;0.1188;1.0742;
571.5000;0.1213;1.0719;
571.8000;0.1131;1.0485;
572.1000;0.1221;1.0742;
572.4000;0.1188;1.0579;
572.7000;0.1213;1.0672;
573.0000;0.1205;1.0649;
573.3000;0.1205;1.0742;
573.6000;0.1213;1.0789;
573.9000;0.1205;1.0766;
574.2000;0.1205;1.0742;
574.5000;0.1221;1.0766;
574.8000;0.1083;1.0415;
575.1000;0.1188;1.0672;
575.4000;0.1197;1.0649;
575.7000;0.1311;1.0906;
576.0000;0.1188;1.0485;
576.3000;0.1180;1.0532;
576.6000;0.1180;1.0509;
576.9000;0.1148;1.0415;
577.2000;0.1188;1.0602;
577.5000;0.1164;1.0579;
577.8000;0.1148;1.0579;
578.1000;0.1197;1.0719;
578.4000;0.1205;1.0719;
578.7000;0.1197;1.0742;
579.0000;0.1180;1.0649;
579.3000;0.1197;1.0742;
579.6000;0.1205;1.0742;
579.9000;0.1237;1.0812;
580.2000;0.1131;1.0532;
580.5000;0.1213;1.0719;
580.8000;0.1213;1.0719;
581.1000;0.1123;1.0579;
581.4000;0.1245;1.0836;
581.7000;0.1213;1.0742;
582.0000;0.1197;1.0719;
582.3000;0.1213;1.0719;
582.6000;0.1180;1.0579;
582.9000;0.1172;1.0555;
583.2000;0.1197;1.0625;
583.5000;0.1205;1.0602;
583.8000;0.1197;1.0509;
584.1000;0.1197;1.0485;
584.4000;0.1205;1.0485;
584.7000;0.1213;1.0485;
585.0000;0.1172;1.0462;
585.3000;0.1188;1.0509;
585.6000;0.1180;1.0509;
585.9000;0.1197;1.0509;
586.2000;0.1180;1.0532;
586.5000;0.1172;1.0485;
586.8000;0.1172;1.0462;
587.1000;0.1188;1.0439;
587.4000;0.1205;1.0485;
587.7000;0.1188;1.0462;
588.0000;0.1180;1.0509;
588.3000;0.1140;1.0392;
588.6000;0.1156;1.0439;
588.9000;0.1172;1.0462;
589.2000;0.1237;1.0625;
589.5000;0.1213;1.0509;
589.8000;0.1188;1.0485;
590.1000;0.1205;1.0555;
590.4000;0.1229;1.0579;
590.7000;0.1213;1.0672;
591.0000;0.1197;1.0555;
591.3000;0.1197;1.0485;
591.6000;0.1213;1.0672;
591.9000;0.1115;1.0532;
592.2000;0.1197;1.0742;
592.5000;0.1197;1.0649;
592.8000;0.1180;1.0602;
593.1000;0.1188;1.0695;
593.4000;0.1188;1.0719;
593.7000;0.1213;1.0836;
594.0000;0.1107;1.0462;
594.3000;0.1221;1.0789;
594.6000;0.1115;1.0509;
594.9000;0.1180;1.0579;
595.2000;0.1172;1.0579;
595.5000;0.1213;1.0719;
595.8000;0.1164;1.0649;
596.1000;0.1213;1.0742;
596.4000;0.1188;1.0672;
596.7000;0.1188;1.0719;
597.0000;0.1172;1.0719;
597.3000;0.1188;1.0695;
597.6000;0.1164;1.0672;
597.9000;0.1213;1.0766;
598.2000;0.1197;1.0625;
598.5000;0.1148;1.0579;
598.8000;0.1188;1.0625;
599.1000;0.1197;1.0602;
599.4000;0.1270;1.0766;
599.7000;0.1131;1.0439;
600.0000;0.1172;1.0532;
600.3000;0.1180;1.0555;
600.6000;0.1205;1.0532;
600.9000;0.1131;1.0392;
601.2000;0.1180;1.0439;
601.5000;0.1197;1.0392;
601.8000;0.1180;1.0322;
602.1000;0.1164;1.0252;
602.4000;0.1156;1.0158;
602.7000;0.1148;1.0088;
603.0000;0.1164;1.0088;
603.3000;0.1172;1.0088;
603.6000;0.1164;1.0018;
603.9000;0.1156;0.9902;
604.2000;0.1148;0.9878;
604.5000;0.1123;0.9761;
604.8000;0.1262;0.9995;
605.1000;0.1115;0.9551;
605.4000;0.1140;0.9575;
605.7000;0.1123;0.9528;
606.0000;0.1294;0.9995;
606.3000;0.1091;0.9458;
606.6000;0.1123;0.9505;
606.9000;0.1221;0.9808;
607.2000;0.1140;0.9621;
607.5000;0.1123;0.9481;
607.8000;0.1164;0.9551;
608.1000;0.1107;0.9481;
608.4000;0.1115;0.9458;
608.7000;0.1115;0.9411;
609.0000;0.1131;0.9458;
609.3000;0.1074;0.9318;
609.6000;0.1148;0.9551;
609.9000;0.1140;0.9528;
610.2000;0.1042;0.9271;
610.5000;0.1066;0.9271;
610.8000;0.1107;0.9364;
611.1000;0.1058;0.9271;
611.4000;0.1107;0.9434;
611.7000;0.1221;0.9645;
612.0000;0.1099;0.9341;
612.3000;0.1115;0.9411;
612.6000;0.1123;0.9411;
612.9000;0.1099;0.9341;
613.2000;0.1026;0.9108;
613.5000;0.1107;0.9411;
613.8000;0.1148;0.9505;
614.1000;0.1205;0.9575;
614.4000;0.1058;0.9318;
614.7000;0.1164;0.9645;
615.0000;0.1001;0.9248;
615.3000;0.1131;0.9621;
615.6000;0.1107;0.9645;
615.9000;0.1107;0.9645;
616.2000;0.1091;0.9598;
616.5000;0.1115;0.9715;
616.8000;0.1123;0.9621;
617.1000;0.1107;0.9528;
617.4000;0.1099;0.9481;
617.7000;0.1091;0.9388;
618.0000;0.1115;0.9364;
618.3000;0.1140;0.9481;
618.6000;0.1172;0.9621;
618.9000;0.1148;0.9598;
619.2000;0.1001;0.9201;
619.5000;0.1066;0.9411;
619.8000;0.1123;0.9598;
620.1000;0.1009;0.9388;
620.4000;0.1115;0.9645;
620.7000;0.1123;0.9621;
621.0000;0.1083;0.9481;
621.3000;0.1091;0.9434;
621.6000;0.1066;0.9364;
621.9000;0.1107;0.9434;
622.2000;0.1066;0.9318;
622.5000;0.1091;0.9388;
622.8000;0.1066;0.9411;
623.1000;0.1083;0.9434;
623.4000;0.1213;0.9831;
623.7000;0.1099;0.9505;
624.0000;0.1115;0.9505;
624.3000;0.1156;0.9715;
624.6000;0.1050;0.9458;
624.9000;0.1115;0.9598;
625.2000;0.1091;0.9598;
625.5000;0.1091;0.9505;
625.8000;0.1123;0.9598;
626.1000;0.1083;0.9481;
626.4000;0.1091;0.9505;
626.7000;0.1099;0.9551;
627.0000;0.1099;0.9505;
627.3000;0.1066;0.9481;
627.6000;0.1083;0.9481;
627.9000;0.1009;0.9271;
628.2000;0.1099;0.9458;
628.5000;0.1091;0.9458;
628.8000;0.1099;0.9458;
629.1000;0.1107;0.9458;
629.4000;0.1107;0.9481;
629.7000;0.1099;0.9528;
630.0000;0.1099;0.9551;
630.3000;0.1140;0.9691;
630.6000;0.1091;0.9598;
630.9000;0.1140;0.9808;
631.2000;0.1083;0.9621;
631.5000;0.1074;0.9621;
631.8000;0.1058;0.9621;
632.1000;0.1066;0.9621;
632.4000;0.1050;0.9528;
632.7000;0.1099;0.9645;
633.0000;0.1026;0.9411;
633.3000;0.1066;0.9458;
633.6000;0.1026;0.9411;
633.9000;0.1115;0.9621;
634.2000;0.1140;0.9645;
634.5000;0.1083;0.9505;
634.8000;0.1066;0.9458;
635.1000;0.1091;0.9528;
635.4000;0.1123;0.9528;
635.7000;0.1074;0.9364;
636.0000;0.0993;0.9248;
636.3000;0.1107;0.9575;
636.6000;0.1074;0.9481;
636.9000;0.1123;0.9691;
637.2000;0.1148;0.9738;
637.5000;0.1083;0.9528;
637.8000;0.1123;0.9668;
638.1000;0.1074;0.9505;
638.4000;0.1066;0.9598;
638.7000;0.1091;0.9621;
639.0000;0.1058;0.9575;
639.3000;0.1066;0.9621;
639.6000;0.1066;0.9621;
639.9000;0.1123;0.9831;
640.2000;0.1091;0.9808;
640.5000;0.1066;0.9761;
640.8000;0.1091;0.9808;
641.1000;0.1074;0.9785;
641.4000;0.1058;0.9691;
641.7000;0.1074;0.9738;
642.0000;0.1058;0.9575;
642.3000;0.1042;0.9528;
642.6000;0.1074;0.9575;
642.9000;0.1066;0.9575;
643.2000;0.0993;0.9458;
643.5000;0.1058;0.9645;
643.8000;0.1074;0.9668;
644.1000;0.1131;0.9715;
644.4000;0.1091;0.9575;
644.7000;0.1083;0.9575;
645.0000;0.1083;0.9668;
645.3000;0.1074;0.9598;
645.6000;0.1066;0.9528;
645.9000;0.1042;0.9481;
646.2000;0.1042;0.9528;
646.5000;0.1115;0.9645;
646.8000;0.1058;0.9575;
647.1000;0.1058;0.9551;
647.4000;0.1034;0.9551;
647.7000;0.1050;0.9551;
648.0000;0.1058;0.9505;
648.3000;0.1074;0.9528;
648.6000;0.1026;0.9341;
648.9000;0.1074;0.9434;
649.2000;0.1066;0.9505;
649.5000;0.1058;0.9458;
649.8000;0.1058;0.9598;
650.1000;0.1050;0.9598;
650.4000;0.1066;0.9621;
650.7000;0.1058;0.9668;
651.0000;0.1091;0.9738;
651.3000;0.1050;0.9715;
651.6000;0.1083;0.9738;
651.9000;0.1091;0.9738;
652.2000;0.1058;0.9691;
652.5000;0.1074;0.9668;
652.8000;0.1058;0.9668;
653.1000;0.1050;0.9575;
653.4000;0.1042;0.9505;
653.7000;0.1050;0.9575;
654.0000;0.1074;0.9481;
654.3000;0.1074;0.9505;
654.6000;0.1083;0.9528;
654.9000;0.1091;0.9598;
655.2000;0.1058;0.9621;
655.5000;0.1034;0.9481;
655.8000;0.1066;0.9505;
656.1000;0.1042;0.9434;
656.4000;0.1066;0.9481;
656.7000;0.1066;0.9528;
657.0000;0.1074;0.9551;
657.3000;0.1042;0.9481;
657.6000;0.1050;0.9551;
657.9000;0.1058;0.9575;
658.2000;0.1066;0.9621;
658.5000;0.1083;0.9621;
658.8000;0.1050;0.9528;
659.1000;0.1066;0.9575;
659.4000;0.1091;0.9668;
659.7000;0.1058;0.9645;
660.0000;0.1034;0.9551;
660.3000;0.1083;0.9668;
660.6000;0.1018;0.9598;
660.9000;0.1058;0.9668;
661.2000;0.1050;0.9621;
661.5000;0.1058;0.9621;
661.8000;0.1001;0.9458;
662.1000;0.1066;0.9645;
662.4000;0.1058;0.9645;
662.7000;0.1042;0.9528;
663.0000;0.1066;0.9575;
663.3000;0.1083;0.9668;
663.6000;0.1050;0.9621;
663.9000;0.1034;0.9668;
664.2000;0.1066;0.9738;
664.5000;0.1066;0.9761;
664.8000;0.1066;0.9761;
665.1000;0.1009;0.9598;
665.4000;0.1083;0.9761;
665.7000;0.1066;0.9621;
666.0000;0.1074;0.9598;
666.3000;0.1058;0.9645;
666.6000;0.1066;0.9575;
666.9000;0.1083;0.9598;
667.2000;0.1009;0.9505;
667.5000;0.1050;0.9645;
667.8000;0.1042;0.9598;
668.1000;0.1042;0.9528;
668.4000;0.1066;0.9575;
668.7000;0.1205;0.9972;
669.0000;0.1034;0.9575;
669.3000;0.1058;0.9575;
669.6000;0.1115;0.9691;
669.9000;0.1058;0.9551;
670.2000;0.1074;0.9645;
670.5000;0.1091;0.9738;
670.8000;0.1074;0.9645;
671.1000;0.1058;0.9598;
671.4000;0.1066;0.9645;
671.7000;0.0993;0.9388;
672.0000;0.1058;0.9598;
672.3000;0.1050;0.9668;
672.6000;0.1083;0.9831;
672.9000;0.1083;0.9761;
673.2000;0.1058;0.9645;
673.5000;0.1042;0.9598;
673.8000;0.1050;0.9645;
674.1000;0.1066;0.9691;
674.4000;0.1066;0.9621;
674.7000;0.1188;0.9902;
675.0000;0.1042;0.9645;
675.3000;0.1066;0.9598;
675.6000;0.1123;0.9808;
675.9000;0.1058;0.9668;
676.2000;0.1042;0.9715;
676.5000;0.1131;0.9878;
676.8000;0.1034;0.9668;
677.1000;0.1050;0.9668;
677.4000;0.1083;0.9785;
677.7000;0.1026;0.9645;
678.0000;0.1042;0.9738;
678.3000;0.1050;0.9645;
678.6000;0.1050;0.9668;
678.9000;0.1042;0.9691;
679.2000;0.1034;0.9621;
679.5000;0.1050;0.9715;
679.8000;0.1066;0.9855;
680.1000;0.1058;0.9785;
680.4000;0.1058;0.9761;
680.7000;0.1058;0.9831;
681.0000;0.1066;0.9785;
681.3000;0.1083;0.9761;
681.6000;0.1066;0.9715;
681.9000;0.1050;0.9621;
682.2000;0.1042;0.9575;
682.5000;0.1042;0.9528;
682.8000;0.1058;0.9528;
683.1000;0.1042;0.9551;
683.4000;0.1042;0.9528;
683.7000;0.1229;0.9972;
684.0000;0.1050;0.9528;
684.3000;0.1050;0.9575;
684.6000;0.1026;0.9598;
684.9000;0.1050;0.9645;
685.2000;0.1058;0.9621;
685.5000;0.1026;0.9621;
685.8000;0.1058;0.9715;
686.1000;0.0993;0.9551;
686.4000;0.1058;0.9668;
686.7000;0.1034;0.9598;
687.0000;0.1042;0.9575;
687.3000;0.1050;0.9575;
687.6000;0.1042;0.9575;
687.9000;0.1042;0.9621;
688.2000;0.1050;0.9598;
688.5000;0.1074;0.9668;
688.8000;0.1042;0.9668;
689.1000;0.1074;0.9715;
689.4000;0.1058;0.9808;
689.7000;0.1026;0.9738;
690.0000;0.1066;0.9808;
690.3000;0.1058;0.9761;
690.6000;0.1058;0.9715;
690.9000;0.1107;0.9878;
691.2000;0.1050;0.9621;
691.5000;0.1058;0.9738;
691.8000;0.0961;0.9481;
692.1000;0.1042;0.9621;
692.4000;0.1026;0.9575;
692.7000;0.1140;0.9761;
693.0000;0.1050;0.9575;
693.3000;0.1042;0.9505;
693.6000;0.1074;0.9575;
693.9000;0.1083;0.9575;
694.2000;0.1018;0.9411;
694.5000;0.1018;0.9528;
694.8000;0.1026;0.9481;
695.1000;0.1050;0.9505;
695.4000;0.1018;0.9434;
695.7000;0.1034;0.9434;
696.0000;0.1042;0.9341;
696.3000;0.1042;0.9364;
696.6000;0.1050;0.9505;
696.9000;0.1050;0.9458;
697.2000;0.1034;0.9458;
697.5000;0.1026;0.9458;
697.8000;0.1050;0.9411;
698.1000;0.1042;0.9364;
698.4000;0.1034;0.9411;
698.7000;0.1058;0.9528;
699.0000;0.1050;0.9575;
699.3000;0.1042;0.9668;
699.6000;0.1042;0.9645;
699.9000;0.1042;0.9528;
700.2000;0.1042;0.9551;
700.5000;0.1050;0.9551;
700.8000;0.1066;0.9621;
701.1000;0.1099;0.9645;
701.4000;0.1042;0.9505;
701.7000;0.1131;0.9808;
702.0000;0.1042;0.9621;
702.3000;0.1058;0.9621;
702.6000;0.1050;0.9668;
702.9000;0.1058;0.9645;
703.2000;0.1026;0.9598;
703.5000;0.1042;0.9668;
703.8000;0.1042;0.9645;
704.1000;0.1050;0.9645;
704.4000;0.1050;0.9528;
704.7000;0.1050;0.9505;
705.0000;0.1050;0.9481;
705.3000;0.1042;0.9458;
705.6000;0.1066;0.9388;
705.9000;0.0977;0.9271;
706.2000;0.1034;0.9505;
706.5000;0.1066;0.9575;
706.8000;0.1058;0.9481;
707.1000;0.1188;0.9878;
707.4000;0.1042;0.9458;
707.7000;0.1058;0.9481;
708.0000;0.1042;0.9411;
708.3000;0.1066;0.9575;
708.6000;0.1050;0.9481;
708.9000;0.1050;0.9505;
709.2000;0.1066;0.9575;
709.5000;0.1050;0.9575;
709.8000;0.1018;0.9598;
710.1000;0.1034;0.9621;
710.4000;0.0912;0.9318;
710.7000;0.1001;0.9505;
711.0000;0.1009;0.9598;
711.3000;0.1026;0.9551;
711.6000;0.0969;0.9411;
711.9000;0.1140;0.9972;
712.2000;0.1034;0.9715;
712.5000;0.1009;0.9645;
712.8000;0.1026;0.9668;
713.1000;0.1026;0.9691;
713.4000;0.1034;0.9645;
713.7000;0.1042;0.9715;
714.0000;0.1042;0.9621;
714.3000;0.1034;0.9551;
714.6000;0.1066;0.9668;
714.9000;0.1009;0.9551;
715.2000;0.1050;0.9621;
715.5000;0.1091;0.9738;
715.8000;0.1091;0.9808;
716.1000;0.1050;0.9691;
716.4000;0.1107;0.9855;
716.7000;0.1026;0.9645;
717.0000;0.1050;0.9738;
717.3000;0.0985;0.9528;
717.6000;0.1018;0.9738;
717.9000;0.1009;0.9691;
718.2000;0.1058;0.9855;
718.5000;0.0912;0.9505;
718.8000;0.1001;0.9738;
719.1000;0.1034;0.9808;
719.4000;0.1009;0.9645;
719.7000;0.1042;0.9645;
720.0000;0.1156;0.9878;
720.3000;0.1050;0.9621;
720.6000;0.1018;0.9528;
720.9000;0.1018;0.9434;
721.2000;0.1034;0.9528;
721.5000;0.1026;0.9505;
721.8000;0.1034;0.9551;
722.1000;0.1018;0.9551;
722.4000;0.1042;0.9528;
722.7000;0.0977;0.9388;
723.0000;0.1034;0.9645;
723.3000;0.0944;0.9388;
723.6000;0.1026;0.9551;
723.9000;0.1140;0.9902;
724.2000;0.1034;0.9551;
724.5000;0.1034;0.9481;
724.8000;0.1018;0.9505;
725.1000;0.1018;0.9458;
725.4000;0.0944;0.9318;
725.7000;0.1050;0.9528;
726.0000;0.1034;0.9364;
726.3000;0.1026;0.9364;
726.6000;0.0993;0.9271;
726.9000;0.1001;0.9271;
727.2000;0.1050;0.9364;
727.5000;0.1018;0.9388;
727.8000;0.1050;0.9434;
728.1000;0.1042;0.9411;
728.4000;0.1026;0.9364;
728.7000;0.1042;0.9505;
729.0000;0.0985;0.9434;
729.3000;0.1009;0.9528;
729.6000;0.1034;0.9598;
729.9000;0.1026;0.9621;
730.2000;0.0928;0.9434;
730.5000;0.1009;0.9598;
730.8000;0.1050;0.9645;
731.1000;0.1050;0.9598;
731.4000;0.1058;0.9598;
731.7000;0.1042;0.9551;
732.0000;0.1042;0.9551;
732.3000;0.1074;0.9528;
732.6000;0.1042;0.9481;
732.9000;0.1034;0.9411;
733.2000;0.1050;0.9481;
733.5000;0.1026;0.9364;
733.8000;0.1018;0.9388;
734.1000;0.1009;0.9458;
734.4000;0.1066;0.9621;
734.7000;0.1042;0.9551;
735.0000;0.1066;0.9668;
735.3000;0.0969;0.9388;
735.6000;0.1058;0.9621;
735.9000;0.1026;0.9551;
736.2000;0.1026;0.9645;
736.5000;0.1001;0.9528;
736.8000;0.1042;0.9645;
737.1000;0.1034;0.9575;
737.4000;0.1018;0.9505;
737.7000;0.1026;0.9551;
738.0000;0.1009;0.9551;
738.3000;0.1034;0.9528;
738.6000;0.1042;0.9551;
738.9000;0.1058;0.9528;
739.2000;0.0985;0.9481;
739.5000;0.0936;0.9411;
739.8000;0.1050;0.9621;
740.1000;0.1050;0.9668;
740.4000;0.1018;0.9551;
740.7000;0.1026;0.9598;
741.0000;0.1018;0.9505;
741.3000;0.1058;0.9528;
741.6000;0.1009;0.9388;
741.9000;0.1042;0.9434;
742.2000;0.1050;0.9434;
742.5000;0.1042;0.9528;
742.8000;0.1058;0.9668;
743.1000;0.1018;0.9598;
743.4000;0.1042;0.9761;
743.7000;0.1026;0.9715;
744.0000;0.0952;0.9528;
744.3000;0.1026;0.9668;
744.6000;0.1018;0.9621;
744.9000;0.1009;0.9598;
745.2000;0.1018;0.9575;
745.5000;0.1058;0.9691;
745.8000;0.1026;0.9738;
746.1000;0.1066;0.9808;
746.4000;0.1018;0.9598;
746.7000;0.1009;0.9551;
747.0000;0.1058;0.9621;
747.3000;0.1091;0.9691;
747.6000;0.1009;0.9505;
747.9000;0.1034;0.9481;
748.2000;0.1018;0.9411;
748.5000;0.0977;0.9294;
748.8000;0.1083;0.9434;
749.1000;0.1042;0.9388;
749.4000;0.1026;0.9341;
749.7000;0.1026;0.9411;
750.0000;0.1042;0.9528;
750.3000;0.1026;0.9458;
750.6000;0.1009;0.9364;
750.9000;0.1026;0.9411;
751.2000;0.1083;0.9575;
751.5000;0.1042;0.9575;
751.8000;0.1050;0.9645;
752.1000;0.1058;0.9645;
752.4000;0.1042;0.9598;
752.7000;0.1058;0.9621;
753.0000;0.1001;0.9364;
753.3000;0.1026;0.9318;
753.6000;0.1034;0.9388;
753.9000;0.1001;0.9411;
754.2000;0.0977;0.9364;
754.5000;0.1034;0.9388;
754.8000;0.1001;0.9318;
755.1000;0.1026;0.9364;
755.4000;0.1058;0.9458;
755.7000;0.1091;0.9551;
756.0000;0.1026;0.9294;
756.3000;0.1058;0.9318;
756.6000;0.1050;0.9341;
756.9000;0.1026;0.9318;
757.2000;0.1050;0.9481;
757.5000;0.1050;0.9505;
757.8000;0.1050;0.9458;
758.1000;0.0977;0.9224;
758.4000;0.0985;0.9154;
758.7000;0.1050;0.9364;
759.0000;0.1050;0.9434;
759.3000;0.1018;0.9248;
759.6000;0.1034;0.9341;
759.9000;0.1009;0.9364;
760.2000;0.1009;0.9364;
760.5000;0.1034;0.9341;
760.8000;0.1001;0.9248;
761.1000;0.1001;0.9248;
761.4000;0.1034;0.9294;
761.7000;0.1066;0.9318;
762.0000;0.1009;0.9201;
762.3000;0.1050;0.9388;
762.6000;0.1026;0.9364;
762.9000;0.1042;0.9411;
763.2000;0.0977;0.9294;
763.5000;0.1034;0.9458;
763.8000;0.1058;0.9551;
764.1000;0.1115;0.9715;
764.4000;0.1018;0.9458;
764.7000;0.1058;0.9575;
765.0000;0.1026;0.9575;
765.3000;0.1034;0.9575;
765.6000;0.1042;0.9575;
765.9000;0.1042;0.9528;
766.2000;0.1050;0.9621;
766.5000;0.1034;0.9645;
766.8000;0.1050;0.9738;
767.1000;0.1009;0.9645;
767.4000;0.1026;0.9715;
767.7000;0.1050;0.9785;
768.0000;0.1026;0.9691;
768.3000;0.0993;0.9575;
768.6000;0.1001;0.9575;
768.9000;0.1018;0.9551;
769.2000;0.1042;0.9575;
769.5000;0.0977;0.9458;
769.8000;0.1050;0.9621;
770.1000;0.1042;0.9668;
770.4000;0.1026;0.9715;
770.7000;0.1074;0.9668;
771.0000;0.1034;0.9505;
771.3000;0.1074;0.9621;
771.6000;0.1050;0.9575;
771.9000;0.1066;0.9505;
772.2000;0.1066;0.9528;
772.5000;0.1009;0.9411;
772.8000;0.1034;0.9528;
773.1000;0.1018;0.9551;
773.4000;0.1026;0.9505;
773.7000;0.1026;0.9458;
774.0000;0.1058;0.9458;
774.3000;0.0993;0.9294;
774.6000;0.1001;0.9318;
774.9000;0.1009;0.9341;
775.2000;0.1034;0.9341;
775.5000;0.1058;0.9388;
775.8000;0.1018;0.9364;
776.1000;0.1026;0.9411;
776.4000;0.1050;0.9481;
776.7000;0.1009;0.9341;
777.0000;0.1042;0.9434;
777.3000;0.1026;0.9411;
777.6000;0.1018;0.9411;
777.9000;0.1018;0.9364;
778.2000;0.1018;0.9318;
778.5000;0.1042;0.9341;
778.8000;0.1107;0.9575;
779.1000;0.1050;0.9364;
779.4000;0.1042;0.9434;
779.7000;0.1009;0.9388;
780.0000;0.1042;0.9458;
780.3000;0.1018;0.9434;
780.6000;0.1001;0.9341;
780.9000;0.1042;0.9551;
781.2000;0.1034;0.9575;
781.5000;0.0993;0.9364;
781.8000;0.1042;0.9458;
782.1000;0.1026;0.9341;
782.4000;0.1042;0.9318;
782.7000;0.1050;0.9411;
783.0000;0.1058;0.9481;
783.3000;0.1058;0.9551;
783.6000;0.1034;0.9481;
783.9000;0.1009;0.9434;
784.2000;0.1018;0.9458;
784.5000;0.1074;0.9621;
784.8000;0.0993;0.9434;
785.1000;0.1001;0.9505;
785.4000;0.1018;0.9505;
785.7000;0.1115;0.9738;
786.0000;0.1009;0.9481;
786.3000;0.1026;0.9551;
786.6000;0.1018;0.9505;
786.9000;0.1026;0.9458;
787.2000;0.1018;0.9458;
787.5000;0.1026;0.9551;
787.8000;0.1034;0.9528;
788.1000;0.1034;0.9528;
788.4000;0.1034;0.9434;
788.7000;0.1026;0.9481;
789.0000;0.1034;0.9505;
789.3000;0.1018;0.9481;
789.6000;0.1018;0.9481;
789.9000;0.1009;0.9505;
790.2000;0.1034;0.9481;
790.5000;0.1034;0.9411;
790.8000;0.1042;0.9434;
791.1000;0.0993;0.9318;
791.4000;0.1018;0.9294;
791.7000;0.0993;0.9248;
792.0000;0.1026;0.9341;
792.3000;0.1018;0.9388;
792.6000;0.1001;0.9341;
792.9000;0.1026;0.9434;
793.2000;0.1034;0.9505;
793.5000;0.1034;0.9528;
793.8000;0.1026;0.9481;
794.1000;0.1009;0.9458;
794.4000;0.1018;0.9505;
794.7000;0.1018;0.9505;
795.0000;0.1034;0.9481;
795.3000;0.1009;0.9434;
795.6000;0.1026;0.9528;
795.9000;0.1026;0.9575;
796.2000;0.1009;0.9481;
796.5000;0.1018;0.9458;
796.8000;0.1018;0.9434;
797.1000;0.1042;0.9481;
797.4000;0.1066;0.9505;
797.7000;0.1050;0.9481;
798.0000;0.1026;0.9434;
798.3000;0.1034;0.9505;
798.6000;0.1034;0.9645;
798.9000;0.1001;0.9575;
799.2000;0.1034;0.9668;
799.5000;0.1018;0.9621;
799.8000;0.1018;0.9575;
800.1000;0.1001;0.9551;
800.4000;0.1018;0.9481;
800.7000;0.1018;0.9458;
801.0000;0.1034;0.9575;
801.3000;0.1026;0.9621;
801.6000;0.1050;0.9715;
801.9000;0.1018;0.9645;
802.2000;0.1026;0.9668;
802.5000;0.1018;0.9621;
802.8000;0.1018;0.9575;
803.1000;0.1018;0.9505;
803.4000;0.1026;0.9481;
803.7000;0.1018;0.9411;
804.0000;0.1018;0.9411;
804.3000;0.1018;0.9528;
804.6000;0.1018;0.9528;
804.9000;0.1083;0.9668;
805.2000;0.1050;0.9645;
805.5000;0.1091;0.9785;
805.8000;0.0985;0.9621;
806.1000;0.1018;0.9808;
806.4000;0.1018;0.9691;
806.7000;0.0977;0.9458;
807.0000;0.1018;0.9528;
807.3000;0.1107;0.9808;
807.6000;0.1074;0.9668;
807.9000;0.1018;0.9575;
808.2000;0.1026;0.9481;
808.5000;0.0969;0.9341;
808.8000;0.1034;0.9411;
809.1000;0.1009;0.9411;
809.4000;0.1018;0.9528;
809.7000;0.1091;0.9668;
810.0000;0.1026;0.9481;
810.3000;0.0985;0.9481;
810.6000;0.1018;0.9621;
810.9000;0.1042;0.9645;
811.2000;0.1018;0.9621;
811.5000;0.1001;0.9528;
811.8000;0.1009;0.9528;
812.1000;0.1026;0.9598;
812.4000;0.1018;0.9575;
812.7000;0.1026;0.9621;
813.0000;0.1018;0.9575;
813.3000;0.1034;0.9575;
813.6000;0.1018;0.9621;
813.9000;0.1009;0.9598;
814.2000;0.1026;0.9621;
814.5000;0.1034;0.9621;
814.8000;0.1001;0.9528;
815.1000;0.1018;0.9505;
815.4000;0.1026;0.9528;
815.7000;0.1083;0.9738;
816.0000;0.1018;0.9575;
816.3000;0.1018;0.9668;
816.6000;0.1026;0.9645;
816.9000;0.1026;0.9528;
817.2000;0.1009;0.9575;
817.5000;0.1042;0.9715;
817.8000;0.1034;0.9785;
818.1000;0.1034;0.9715;
818.4000;0.1018;0.9645;
818.7000;0.1034;0.9691;
819.0000;0.1026;0.9668;
819.3000;0.1026;0.9598;
819.6000;0.1001;0.9575;
819.9000;0.1009;0.9528;
820.2000;0.1018;0.9598;
820.5000;0.1009;0.9621;
820.8000;0.0961;0.9551;
821.1000;0.1009;0.9715;
821.4000;0.1034;0.9691;
821.7000;0.1026;0.9785;
822.0000;0.1018;0.9738;
822.3000;0.1050;0.9831;
822.6000;0.1018;0.9715;
822.9000;0.1018;0.9598;
823.2000;0.1018;0.9551;
823.5000;0.1066;0.9691;
823.8000;0.1026;0.9575;
824.1000;0.0952;0.9411;
824.4000;0.1018;0.9528;
824.7000;0.1156;0.9925;
825.0000;0.1026;0.9551;
825.3000;0.1026;0.9481;
825.6000;0.0969;0.9341;
825.9000;0.1018;0.9481;
826.2000;0.1009;0.9481;
826.5000;0.1018;0.9434;
826.8000;0.0790;0.8781;
827.1000;0.1009;0.9411;
827.4000;0.1026;0.9481;
827.7000;0.1050;0.9575;
828.0000;0.1026;0.9528;
828.3000;0.1009;0.9481;
828.6000;0.1034;0.9458;
828.9000;0.1026;0.9458;
829.2000;0.1042;0.9481;
829.5000;0.1026;0.9505;
829.8000;0.1009;0.9341;
830.1000;0.1009;0.9388;
830.4000;0.1034;0.9481;
830.7000;0.1026;0.9598;
831.0000;0.1034;0.9691;
831.3000;0.1009;0.9575;
831.6000;0.1042;0.9621;
831.9000;0.1018;0.9528;
832.2000;0.1042;0.9528;
832.5000;0.1058;0.9645;
832.8000;0.1009;0.9551;
833.1000;0.1091;0.9715;
833.4000;0.1107;0.9761;
833.7000;0.1001;0.9481;
834.0000;0.0912;0.9271;
834.3000;0.1001;0.9411;
834.6000;0.0961;0.9434;
834.9000;0.1164;0.9972;
835.2000;0.1001;0.9528;
835.5000;0.0912;0.9271;
835.8000;0.0977;0.9458;
836.1000;0.1018;0.9645;
836.4000;0.1026;0.9691;
836.7000;0.0993;0.9738;
837.0000;0.1018;0.9785;
837.3000;0.0887;0.9341;
837.6000;0.1026;0.9621;
837.9000;0.1058;0.9668;
838.2000;0.1009;0.9505;
838.5000;0.1066;0.9645;
838.8000;0.1034;0.9551;
839.1000;0.1066;0.9715;
839.4000;0.1018;0.9528;
839.7000;0.1091;0.9738;
840.0000;0.1026;0.9645;
840.3000;0.0936;0.9341;
840.6000;0.1018;0.9505;
840.9000;0.1009;0.9505;
841.2000;0.1018;0.9434;
841.5000;0.1050;0.9598;
841.8000;0.1018;0.9621;
842.1000;0.1034;0.9715;
842.4000;0.1018;0.9598;
842.7000;0.1009;0.9575;
843.0000;0.1034;0.9645;
843.3000;0.1018;0.9645;
843.6000;0.0985;0.9551;
843.9000;0.1018;0.9715;
844.2000;0.0961;0.9575;
844.5000;0.1034;0.9621;
844.8000;0.1026;0.9645;
845.1000;0.0952;0.9575;
845.4000;0.0993;0.9645;
845.7000;0.1042;0.9785;
846.0000;0.1018;0.9738;
846.3000;0.0969;0.9668;
846.6000;0.1026;0.9738;
846.9000;0.1009;0.9738;
847.2000;0.0977;0.9621;
847.5000;0.0993;0.9621;
847.8000;0.0993;0.9575;
848.1000;0.1058;0.9738;
848.4000;0.1009;0.9528;
848.7000;0.0993;0.9481;
849.0000;0.1115;0.9925;
849.3000;0.1050;0.9761;
849.6000;0.1009;0.9598;
849.9000;0.1018;0.9621;
850.2000;0.1018;0.9691;
850.5000;0.1009;0.9668;
850.8000;0.1001;0.9621;
851.1000;0.1026;0.9621;
851.4000;0.0985;0.9528;
851.7000;0.1026;0.9621;
852.0000;0.1009;0.9505;
852.3000;0.1018;0.9551;
852.6000;0.1009;0.9575;
852.9000;0.1001;0.9575;
853.2000;0.1018;0.9575;
853.5000;0.1099;0.9761;
853.8000;0.0985;0.9458;
854.1000;0.1009;0.9434;
854.4000;0.0993;0.9318;
854.7000;0.1018;0.9411;
855.0000;0.1026;0.9458;
855.3000;0.1042;0.9505;
855.6000;0.1058;0.9528;
855.9000;0.1042;0.9505;
856.2000;0.1026;0.9481;
856.5000;0.1001;0.9551;
856.8000;0.0879;0.9248;
857.1000;0.1018;0.9645;
857.4000;0.0993;0.9505;
857.7000;0.1009;0.9505;
858.0000;0.0952;0.9341;
858.3000;0.1034;0.9551;
858.6000;0.1009;0.9411;
858.9000;0.1034;0.9528;
859.2000;0.1034;0.9575;
859.5000;0.1099;0.9831;
859.8000;0.1018;0.9598;
860.1000;0.1018;0.9621;
860.4000;0.1009;0.9575;
860.7000;0.1001;0.9528;
861.0000;0.1026;0.9575;
861.3000;0.1026;0.9528;
861.6000;0.0993;0.9388;
861.9000;0.0985;0.9411;
862.2000;0.1018;0.9528;
862.5000;0.1042;0.9481;
862.8000;0.1009;0.9341;
863.1000;0.1018;0.9411;
863.4000;0.1001;0.9388;
863.7000;0.1009;0.9341;
864.0000;0.1018;0.9271;
864.3000;0.0985;0.9201;
864.6000;0.1009;0.9341;
864.9000;0.1050;0.9528;
865.2000;0.1001;0.9411;
865.5000;0.1034;0.9505;
865.8000;0.0993;0.9575;
866.1000;0.1034;0.9621;
866.4000;0.1001;0.9575;
866.7000;0.1042;0.9715;
867.0000;0.1066;0.9855;
867.3000;0.0977;0.9645;
867.6000;0.1009;0.9691;
867.9000;0.1018;0.9761;
868.2000;0.1018;0.9715;
868.5000;0.1034;0.9761;
868.8000;0.1009;0.9808;
869.1000;0.1009;0.9715;
869.4000;0.1026;0.9691;
869.7000;0.1042;0.9691;
870.0000;0.1042;0.9691;
870.3000;0.1034;0.9738;
870.6000;0.0961;0.9528;
870.9000;0.1001;0.9738;
871.2000;0.1009;0.9738;
871.5000;0.0985;0.9645;
871.8000;0.0936;0.9505;
872.1000;0.1001;0.9738;
872.4000;0.1018;0.9738;
872.7000;0.0993;0.9668;
873.0000;0.1034;0.9761;
873.3000;0.1009;0.9691;
873.6000;0.1018;0.9645;
873.9000;0.1018;0.9691;
874.2000;0.0977;0.9481;
874.5000;0.1034;0.9621;
874.8000;0.1026;0.9645;
875.1000;0.1009;0.9575;
875.4000;0.1001;0.9645;
875.7000;0.1034;0.9808;
876.0000;0.1018;0.9738;
876.3000;0.1009;0.9761;
876.6000;0.1050;0.9785;
876.9000;0.1018;0.9621;
877.2000;0.1001;0.9551;
877.5000;0.1009;0.9645;
877.8000;0.1001;0.9738;
878.1000;0.1026;0.9785;
878.4000;0.1001;0.9668;
878.7000;0.1107;0.9948;
879.0000;0.1026;0.9668;
879.3000;0.1026;0.9621;
879.6000;0.1001;0.9691;
879.9000;0.1009;0.9715;
880.2000;0.0985;0.9668;
880.5000;0.0993;0.9645;
880.8000;0.0993;0.9598;
881.1000;0.1018;0.9621;
881.4000;0.1042;0.9598;
881.7000;0.1018;0.9528;
882.0000;0.1001;0.9551;
882.3000;0.1009;0.9575;
882.6000;0.0993;0.9505;
882.9000;0.0993;0.9551;
883.2000;0.1018;0.9621;
883.5000;0.1018;0.9551;
883.8000;0.1034;0.9528;
884.1000;0.1034;0.9528;
884.4000;0.0977;0.9318;
884.7000;0.1001;0.9388;
885.0000;0.1026;0.9575;
885.3000;0.1009;0.9528;
885.6000;0.1050;0.9551;
885.9000;0.1026;0.9458;
886.2000;0.1009;0.9458;
886.5000;0.0985;0.9411;
886.8000;0.0993;0.9528;
887.1000;0.1001;0.9621;
887.4000;0.1001;0.9598;
887.7000;0.1018;0.9645;
888.0000;0.0985;0.9621;
888.3000;0.1001;0.9691;
888.6000;0.0977;0.9645;
888.9000;0.1009;0.9691;
889.2000;0.1018;0.9575;
889.5000;0.1034;0.9645;
889.8000;0.0912;0.9271;
890.1000;0.1026;0.9598;
890.4000;0.1001;0.9645;
890.7000;0.0993;0.9621;
891.0000;0.1018;0.9691;
891.3000;0.1034;0.9738;
891.6000;0.0993;0.9598;
891.9000;0.0985;0.9551;
892.2000;0.1009;0.9645;
892.5000;0.1026;0.9715;
892.8000;0.1009;0.9645;
893.1000;0.1034;0.9691;
893.4000;0.1099;0.9878;
893.7000;0.1026;0.9761;
894.0000;0.1034;0.9668;
894.3000;0.1009;0.9621;
894.6000;0.1042;0.9738;
894.9000;0.1026;0.9761;
895.2000;0.1018;0.9715;
895.5000;0.0985;0.9528;
895.8000;0.1001;0.9575;
896.1000;0.0993;0.9528;
896.4000;0.1018;0.9621;
896.7000;0.1018;0.9645;
897.0000;0.1034;0.9715;
897.3000;0.0993;0.9551;
897.6000;0.1001;0.9575;
897.9000;0.1026;0.9598;
898.2000;0.1018;0.9528;
898.5000;0.1018;0.9645;
898.8000;0.1018;0.9645;
899.1000;0.1009;0.9645;
899.4000;0.0985;0.9598;
899.7000;0.1018;0.9621;
900.0000;0.1009;0.9575;
900.3000;0.1009;0.9621;
900.6000;0.1018;0.9598;
900.9000;0.0993;0.9575;
901.2000;0.1009;0.9551;
901.5000;0.1001;0.9575;
901.8000;0.1058;0.9715;
902.1000;0.1018;0.9598;
902.4000;0.1164;0.9995;
902.7000;0.1018;0.9645;
903.0000;0.1026;0.9598;
903.3000;0.1018;0.9505;
903.6000;0.1018;0.9528;
903.9000;0.1001;0.9528;
904.2000;0.1026;0.9551;
904.5000;0.1034;0.9598;
904.8000;0.1001;0.9505;
905.1000;0.1026;0.9621;
905.4000;0.1026;0.9621;
905.7000;0.1034;0.9645;
906.0000;0.1018;0.9505;
906.3000;0.1018;0.9598;
906.6000;0.1034;0.9645;
906.9000;0.0993;0.9598;
907.2000;0.1001;0.9621;
907.5000;0.1001;0.9645;
907.8000;0.1018;0.9738;
908.1000;0.1009;0.9715;
908.4000;0.1148;1.0042;
908.7000;0.1009;0.9645;
909.0000;0.1050;0.9691;
909.3000;0.1009;0.9691;
909.6000;0.0977;0.9621;
909.9000;0.1018;0.9668;
910.2000;0.1018;0.9645;
910.5000;0.1026;0.9645;
910.8000;0.1034;0.9621;
911.1000;0.1001;0.9505;
911.4000;0.1026;0.9645;
911.7000;0.1001;0.9575;
912.0000;0.1018;0.9645;
912.3000;0.0993;0.9715;
912.6000;0.1018;0.9808;
912.9000;0.1034;0.9738;
913.2000;0.1018;0.9691;
913.5000;0.0887;0.9434;
913.8000;0.1001;0.9691;
914.1000;0.1018;0.9668;
914.4000;0.1034;0.9621;
914.7000;0.1026;0.9621;
915.0000;0.1009;0.9621;
915.3000;0.1026;0.9598;
915.6000;0.1026;0.9621;
915.9000;0.1018;0.9598;
916.2000;0.1001;0.9645;
916.5000;0.1009;0.9668;
916.8000;0.1018;0.9575;
917.1000;0.1018;0.9645;
917.4000;0.1034;0.9761;
917.7000;0.1009;0.9668;
918.0000;0.1026;0.9598;
918.3000;0.1009;0.9575;
918.6000;0.1018;0.9505;
918.9000;0.1074;0.9668;
919.2000;0.1018;0.9505;
919.5000;0.1034;0.9505;
919.8000;0.1018;0.9505;
920.1000;0.0993;0.9551;
920.4000;0.1001;0.9551;
920.7000;0.1018;0.9551;
921.0000;0.0993;0.9458;
921.3000;0.1001;0.9598;
921.6000;0.1018;0.9621;
921.9000;0.0993;0.9575;
922.2000;0.1050;0.9575;
922.5000;0.1026;0.9621;
922.8000;0.1001;0.9551;
923.1000;0.1001;0.9551;
923.4000;0.0961;0.9434;
923.7000;0.1018;0.9551;
924.0000;0.1018;0.9598;
924.3000;0.1058;0.9738;
924.6000;0.1009;0.9645;
924.9000;0.1034;0.9715;
925.2000;0.1009;0.9621;
925.5000;0.1001;0.9598;
925.8000;0.1018;0.9551;
926.1000;0.0985;0.9505;
926.4000;0.1001;0.9551;
926.7000;0.0952;0.9341;
927.0000;0.1034;0.9551;
927.3000;0.1009;0.9458;
927.6000;0.1018;0.9411;
927.9000;0.0944;0.9201;
928.2000;0.0920;0.9131;
928.5000;0.1018;0.9434;
928.8000;0.1009;0.9411;
929.1000;0.1026;0.9458;
929.4000;0.1042;0.9551;
929.7000;0.1001;0.9505;
930.0000;0.1026;0.9575;
930.3000;0.1066;0.9668;
930.6000;0.1001;0.9621;
930.9000;0.0993;0.9691;
931.2000;0.1042;0.9668;
931.5000;0.0904;0.9364;
931.8000;0.1018;0.9668;
932.1000;0.0895;0.9341;
932.4000;0.1018;0.9668;
932.7000;0.1001;0.9645;
933.0000;0.0993;0.9668;
933.3000;0.0993;0.9598;
933.6000;0.1001;0.9575;
933.9000;0.1009;0.9668;
934.2000;0.1018;0.9645;
934.5000;0.1001;0.9575;
934.8000;0.1026;0.9691;
935.1000;0.1009;0.9715;
935.4000;0.1009;0.9808;
935.7000;0.1001;0.9715;
936.0000;0.1001;0.9621;
936.3000;0.1140;0.9995;
936.6000;0.0993;0.9621;
936.9000;0.0993;0.9668;
937.2000;0.0993;0.9668;
937.5000;0.0961;0.9481;
937.8000;0.1001;0.9645;
938.1000;0.1066;0.9808;
938.4000;0.1009;0.9645;
938.7000;0.1026;0.9715;
939.0000;0.1001;0.9598;
939.3000;0.0928;0.9388;
939.6000;0.1026;0.9691;
939.9000;0.1034;0.9738;
940.2000;0.1066;0.9808;
940.5000;0.1018;0.9621;
940.8000;0.0969;0.9505;
941.1000;0.1018;0.9528;
941.4000;0.1018;0.9528;
941.7000;0.1001;0.9481;
942.0000;0.0985;0.9411;
942.3000;0.1018;0.9411;
942.6000;0.1026;0.9481;
942.9000;0.0993;0.9434;
943.2000;0.0977;0.9271;
943.5000;0.1001;0.9364;
943.8000;0.1026;0.9434;
944.1000;0.1026;0.9434;
944.4000;0.1009;0.9458;
944.7000;0.0993;0.9434;
945.0000;0.1018;0.9528;
945.3000;0.0969;0.9318;
945.6000;0.1009;0.9551;
945.9000;0.1042;0.9598;
946.2000;0.1018;0.9551;
946.5000;0.0936;0.9411;
946.8000;0.0985;0.9528;
947.1000;0.0985;0.9528;
947.4000;0.0952;0.9481;
947.7000;0.1009;0.9645;
948.0000;0.1001;0.9575;
948.3000;0.0969;0.9598;
948.6000;0.1050;0.9761;
948.9000;0.1156;0.9995;
949.2000;0.1066;0.9855;
949.5000;0.1009;0.9715;
949.8000;0.1074;0.9831;
950.1000;0.1026;0.9785;
950.4000;0.1140;1.0088;
950.7000;0.1066;0.9878;
951.0000;0.0912;0.9505;
951.3000;0.1009;0.9808;
951.6000;0.0936;0.9575;
951.9000;0.0977;0.9668;
952.2000;0.1001;0.9831;
952.5000;0.1107;1.0112;
952.8000;0.0936;0.9621;
953.1000;0.1009;0.9785;
953.4000;0.1001;0.9761;
953.7000;0.0961;0.9645;
954.0000;0.0977;0.9668;
954.3000;0.0944;0.9551;
954.6000;0.1026;0.9691;
954.9000;0.0920;0.9458;
955.2000;0.1001;0.9551;
955.5000;0.1009;0.9598;
955.8000;0.1009;0.9575;
956.1000;0.0912;0.9341;
956.4000;0.1026;0.9528;
956.7000;0.1018;0.9575;
957.0000;0.1034;0.9621;
957.3000;0.0993;0.9528;
957.6000;0.1026;0.9621;
957.9000;0.1026;0.9575;
958.2000;0.1009;0.9575;
958.5000;0.1018;0.9621;
958.8000;0.1026;0.9575;
959.1000;0.0920;0.9388;
959.4000;0.0928;0.9294;
959.7000;0.1009;0.9481;
960.0000;0.1026;0.9481;
960.3000;0.1001;0.9341;
960.6000;0.1148;0.9808;
960.9000;0.1009;0.9434;
961.2000;0.0993;0.9434;
961.5000;0.1009;0.9458;
961.8000;0.0993;0.9364;
962.1000;0.1018;0.9458;
962.4000;0.0985;0.9411;
962.7000;0.1009;0.9388;
963.0000;0.1001;0.9388;
963.3000;0.1009;0.9364;
963.6000;0.1018;0.9271;
963.9000;0.1018;0.9341;
964.2000;0.0952;0.9248;
964.5000;0.0993;0.9364;
964.8000;0.1009;0.9388;
965.1000;0.0961;0.9224;
965.4000;0.1026;0.9341;
965.7000;0.1009;0.9364;
966.0000;0.1009;0.9341;
966.3000;0.1026;0.9364;
966.6000;0.0993;0.9271;
966.9000;0.1001;0.9294;
967.2000;0.1009;0.9318;
967.5000;0.0969;0.9341;
967.8000;0.0985;0.9434;
968.1000;0.1018;0.9551;
968.4000;0.0952;0.9434;
968.7000;0.1001;0.9598;
969.0000;0.1026;0.9621;
969.3000;0.1026;0.9645;
969.6000;0.1018;0.9668;
969.9000;0.1001;0.9551;
970.2000;0.1018;0.9575;
970.5000;0.1066;0.9761;
970.8000;0.0944;0.9505;
971.1000;0.1009;0.9621;
971.4000;0.0944;0.9505;
971.7000;0.0993;0.9691;
972.0000;0.1042;0.9738;
972.3000;0.0969;0.9528;
972.6000;0.1034;0.9645;
972.9000;0.1034;0.9575;
973.2000;0.1018;0.9551;
973.5000;0.1009;0.9528;
973.8000;0.1001;0.9575;
974.1000;0.0985;0.9575;
974.4000;0.0952;0.9528;
974.7000;0.1018;0.9738;
975.0000;0.1026;0.9738;
975.3000;0.1018;0.9715;
975.6000;0.0961;0.9551;
975.9000;0.0977;0.9551;
976.2000;0.0985;0.9505;
976.5000;0.0928;0.9364;
976.8000;0.1001;0.9621;
977.1000;0.1001;0.9621;
977.4000;0.0985;0.9645;
977.7000;0.1001;0.9715;
978.0000;0.1034;0.9761;
978.3000;0.1009;0.9691;
978.6000;0.1050;0.9831;
978.9000;0.1034;0.9808;
979.2000;0.0993;0.9668;
979.5000;0.1018;0.9715;
979.8000;0.1009;0.9691;
980.1000;0.1034;0.9785;
980.4000;0.1050;0.9808;
980.7000;0.1042;0.9715;
981.0000;0.0993;0.9598;
981.3000;0.1001;0.9505;
981.6000;0.1009;0.9528;
981.9000;0.1009;0.9528;
982.2000;0.1018;0.9621;
982.5000;0.1001;0.9621;
982.8000;0.1042;0.9691;
983.1000;0.1001;0.9668;
983.4000;0.1034;0.9738;
983.7000;0.0985;0.9575;
984.0000;0.1001;0.9645;
984.3000;0.1058;0.9785;
984.6000;0.0985;0.9621;
984.9000;0.0993;0.9645;
985.2000;0.0977;0.9481;
985.5000;0.1058;0.9785;
985.8000;0.1018;0.9715;
986.1000;0.1001;0.9575;
986.4000;0.1001;0.9481;
986.7000;0.1001;0.9481;
987.0000;0.1026;0.9598;
987.3000;0.1001;0.9551;
987.6000;0.0969;0.9481;
987.9000;0.1009;0.9575;
988.2000;0.0985;0.9505;
988.5000;0.0993;0.9388;
988.8000;0.1001;0.9458;
989.1000;0.0969;0.9388;
989.4000;0.1009;0.9481;
989.7000;0.1026;0.9551;
990.0000;0.1009;0.9598;
990.3000;0.1026;0.9738;
990.6000;0.1001;0.9738;
990.9000;0.1001;0.9738;
991.2000;0.0969;0.9598;
991.5000;0.0993;0.9668;
991.8000;0.1009;0.9668;
992.1000;0.1009;0.9738;
992.4000;0.0985;0.9621;
992.7000;0.1058;0.9738;
993.0000;0.1018;0.9575;
993.3000;0.1026;0.9551;
993.6000;0.1001;0.9481;
993.9000;0.0985;0.9434;
994.2000;0.1001;0.9434;
994.5000;0.1018;0.9551;
994.8000;0.0993;0.9458;
995.1000;0.1026;0.9505;
995.4000;0.1018;0.9481;
995.7000;0.1018;0.9481;
996.0000;0.1034;0.9575;
996.3000;0.1009;0.9645;
996.6000;0.0993;0.9575;
996.9000;0.0993;0.9621;
997.2000;0.1009;0.9645;
997.5000;0.1001;0.9691;
997.8000;0.1026;0.9738;
998.1000;0.1001;0.9668;
998.4000;0.1009;0.9691;
998.7000;0.0993;0.9621;
999.0000;0.0993;0.9621;
999.3000;0.1009;0.9668;
999.6000;0.1009;0.9645;
999.9000;0.1034;0.9855;
1000.2000;0.1026;0.9715;
1000.5000;0.1018;0.9668;
1000.8000;0.1009;0.9645;
1001.1000;0.1001;0.9691;
1001.4000;0.0977;0.9645;
1001.7000;0.0985;0.9575;
1002.0000;0.0993;0.9528;
1002.3000;0.1018;0.9621;
1002.6000;0.0985;0.9505;
1002.9000;0.0985;0.9505;
1003.2000;0.1034;0.9621;
1003.5000;0.1018;0.9458;
1003.8000;0.0977;0.9388;
1004.1000;0.1001;0.9575;
1004.4000;0.0993;0.9645;
1004.7000;0.1034;0.9738;
1005.0000;0.1018;0.9621;
1005.3000;0.1050;0.9738;
1005.6000;0.1066;0.9831;
1005.9000;0.1107;0.9948;
1006.2000;0.1009;0.9691;
1006.5000;0.1001;0.9668;
1006.8000;0.0977;0.9621;
1007.1000;0.1009;0.9691;
1007.4000;0.0977;0.9505;
1007.7000;0.1001;0.9458;
1008.0000;0.0993;0.9505;
1008.3000;0.1009;0.9575;
1008.6000;0.0952;0.9341;
1008.9000;0.1009;0.9551;
1009.2000;0.1001;0.9621;
1009.5000;0.0961;0.9598;
1009.8000;0.1034;0.9785;
1010.1000;0.1034;0.9715;
1010.4000;0.1001;0.9738;
1010.7000;0.1001;0.9761;
1011.0000;0.0969;0.9668;
1011.3000;0.1018;0.9691;
1011.6000;0.1009;0.9668;
1011.9000;0.0985;0.9621;
1012.2000;0.1018;0.9621;
1012.5000;0.0985;0.9481;
1012.8000;0.1001;0.9505;
1013.1000;0.1009;0.9458;
1013.4000;0.1034;0.9528;
1013.7000;0.1009;0.9528;
1014.0000;0.1001;0.9528;
1014.3000;0.0985;0.9505;
1014.6000;0.0993;0.9551;
1014.9000;0.1001;0.9668;
1015.2000;0.1018;0.9761;
1015.5000;0.1001;0.9715;
1015.8000;0.1001;0.9645;
1016.1000;0.0961;0.9458;
1016.4000;0.1001;0.9481;
1016.7000;0.1018;0.9434;
1017.0000;0.0993;0.9411;
1017.3000;0.1001;0.9481;
1017.6000;0.0993;0.9434;
1017.9000;0.0993;0.9458;
1018.2000;0.0993;0.9551;
1018.5000;0.0993;0.9645;
1018.8000;0.0985;0.9645;
1019.1000;0.0993;0.9621;
1019.4000;0.0993;0.9598;
1019.7000;0.0993;0.9645;
1020.0000;0.1009;0.9691;
1020.3000;0.1001;0.9691;
1020.6000;0.1009;0.9668;
1020.9000;0.0985;0.9715;
1021.2000;0.0993;0.9715;
1021.5000;0.1009;0.9761;
1021.8000;0.1042;0.9785;
1022.1000;0.1009;0.9621;
1022.4000;0.1009;0.9645;
1022.7000;0.1009;0.9738;
1023.0000;0.0961;0.9528;
1023.3000;0.0961;0.9551;
1023.6000;0.1001;0.9621;
1023.9000;0.1001;0.9598;
1024.2000;0.1001;0.9551;
1024.5000;0.1001;0.9551;
1024.8000;0.1001;0.9551;
1025.1000;0.1026;0.9645;
1025.4000;0.1001;0.9621;
1025.7000;0.1074;0.9738;
1026.0000;0.1001;0.9645;
1026.3000;0.1001;0.9551;
1026.6000;0.1001;0.9551;
1026.9000;0.1018;0.9575;
1027.2000;0.1034;0.9668;
1027.5000;0.1001;0.9598;
1027.8000;0.0993;0.9575;
1028.1000;0.0993;0.9481;
1028.4000;0.1009;0.9505;
1028.7000;0.1034;0.9738;
1029.0000;0.1009;0.9691;
1029.3000;0.1001;0.9645;
1029.6000;0.1034;0.9668;
1029.9000;0.1001;0.9621;
1030.2000;0.0969;0.9528;
1030.5000;0.1001;0.9645;
1030.8000;0.1042;0.9808;
1031.1000;0.0969;0.9551;
1031.4000;0.0993;0.9668;
1031.7000;0.0993;0.9645;
1032.0000;0.1009;0.9645;
1032.3000;0.0993;0.9668;
1032.6000;0.1026;0.9715;
1032.9000;0.0993;0.9645;
1033.2000;0.0993;0.9668;
1033.5000;0.0977;0.9598;
1033.8000;0.1009;0.9738;
1034.1000;0.0985;0.9645;
1034.4000;0.1018;0.9715;
1034.7000;0.0969;0.9691;
1035.0000;0.1001;0.9808;
1035.3000;0.1009;0.9831;
1035.6000;0.0985;0.9808;
1035.9000;0.1001;0.9902;
1036.2000;0.0985;0.9925;
1036.5000;0.1001;1.0018;
1036.8000;0.1009;0.9902;
1037.1000;0.1001;0.9831;
1037.4000;0.0993;0.9831;
1037.7000;0.1001;0.9808;
1038.0000;0.0993;0.9808;
1038.3000;0.1001;0.9855;
1038.6000;0.0985;0.9878;
1038.9000;0.1009;0.9855;
1039.2000;0.1018;0.9785;
1039.5000;0.1018;0.9925;
1039.8000;0.0977;0.9785;
1040.1000;0.1026;0.9902;
1040.4000;0.1009;0.9878;
1040.7000;0.1009;0.9878;
1041.0000;0.1001;0.9948;
1041.3000;0.0985;0.9925;
1041.6000;0.1026;1.0042;
1041.9000;0.0993;0.9972;
1042.2000;0.0993;0.9925;
1042.5000;0.0993;0.9902;
1042.8000;0.1018;0.9902;
1043.1000;0.1001;0.9808;
1043.4000;0.1026;0.9808;
1043.7000;0.0993;0.9738;
1044.0000;0.0985;0.9785;
1044.3000;0.0920;0.9505;
1044.6000;0.0985;0.9855;
1044.9000;0.0969;0.9831;
1045.2000;0.0993;0.9902;
1045.5000;0.1026;1.0018;
1045.8000;0.1050;1.0088;
1046.1000;0.1001;0.9948;
1046.4000;0.1001;0.9808;
1046.7000;0.1001;0.9761;
1047.0000;0.1018;0.9785;
1047.3000;0.0912;0.9458;
1047.6000;0.1009;0.9668;
1047.9000;0.1009;0.9761;
1048.2000;0.1050;0.9855;
1048.5000;0.1001;0.9785;
1048.8000;0.1001;0.9878;
1049.1000;0.1001;0.9902;
1049.4000;0.1009;0.9831;
1049.7000;0.1001;0.9785;
1050.0000;0.1026;0.9785;
1050.3000;0.0993;0.9785;
1050.6000;0.1001;0.9785;
1050.9000;0.1026;0.9808;
1051.2000;0.1009;0.9785;
1051.5000;0.1009;0.9785;
1051.8000;0.1018;0.9668;
1052.1000;0.1026;0.9668;
1052.4000;0.1001;0.9621;
1052.7000;0.1001;0.9621;
1053.0000;0.0977;0.9598;
1053.3000;0.1034;0.9808;
1053.6000;0.0993;0.9715;
1053.9000;0.0977;0.9575;
1054.2000;0.1009;0.9621;
1054.5000;0.1009;0.9575;
1054.8000;0.0969;0.9505;
1055.1000;0.1001;0.9645;
1055.4000;0.0985;0.9598;
1055.7000;0.0985;0.9668;
1056.0000;0.1009;0.9715;
1056.3000;0.1001;0.9715;
1056.6000;0.1009;0.9715;
1056.9000;0.1009;0.9738;
1057.2000;0.1074;0.9902;
1057.5000;0.0993;0.9621;
1057.8000;0.0985;0.9598;
1058.1000;0.0993;0.9645;
1058.4000;0.1009;0.9691;
1058.7000;0.0993;0.9715;
1059.0000;0.1001;0.9761;
1059.3000;0.1009;0.9738;
1059.6000;0.1009;0.9761;
1059.9000;0.1009;0.9715;
1060.2000;0.0993;0.9645;
1060.5000;0.1001;0.9598;
1060.8000;0.1042;0.9691;
1061.1000;0.1009;0.9621;
1061.4000;0.1001;0.9575;
1061.7000;0.1009;0.9621;
1062.0000;0.1026;0.9621;
1062.3000;0.0985;0.9575;
1062.6000;0.1018;0.9551;
1062.9000;0.0985;0.9528;
1063.2000;0.1018;0.9645;
1063.5000;0.1009;0.9691;
1063.8000;0.1058;0.9878;
1064.1000;0.1001;0.9738;
1064.4000;0.1034;0.9855;
1064.7000;0.0912;0.9551;
1065.0000;0.0985;0.9715;
1065.3000;0.0993;0.9761;
1065.6000;0.1009;0.9808;
1065.9000;0.0993;0.9785;
1066.2000;0.0993;0.9878;
1066.5000;0.1001;0.9855;
1066.8000;0.0977;0.9761;
1067.1000;0.1009;0.9808;
1067.4000;0.0977;0.9738;
1067.7000;0.0985;0.9738;
1068.0000;0.0961;0.9668;
1068.3000;0.1009;0.9831;
1068.6000;0.1058;0.9808;
1068.9000;0.1018;0.9738;
1069.2000;0.1009;0.9715;
1069.5000;0.0993;0.9715;
1069.8000;0.1018;0.9738;
1070.1000;0.1074;0.9995;
1070.4000;0.0993;0.9808;
1070.7000;0.1009;0.9785;
1071.0000;0.1001;0.9831;
1071.3000;0.0993;0.9715;
1071.6000;0.1009;0.9831;
1071.9000;0.1026;0.9925;
1072.2000;0.0993;0.9831;
1072.5000;0.1042;0.9948;
1072.8000;0.1018;0.9831;
1073.1000;0.1001;0.9831;
1073.4000;0.0993;0.9785;
1073.7000;0.1009;0.9878;
1074.0000;0.1018;0.9855;
1074.3000;0.1018;0.9878;
1074.6000;0.0985;0.9855;
1074.9000;0.0944;0.9621;
1075.2000;0.1001;0.9668;
1075.5000;0.0904;0.9481;
1075.8000;0.0993;0.9668;
1076.1000;0.1001;0.9738;
1076.4000;0.0765;0.9178;
1076.7000;0.1018;0.9715;
1077.0000;0.1009;0.9621;
1077.3000;0.1018;0.9668;
1077.6000;0.1001;0.9668;
1077.9000;0.0985;0.9575;
1078.2000;0.0993;0.9598;
1078.5000;0.0985;0.9598;
1078.8000;0.0993;0.9691;
1079.1000;0.0985;0.9691;
1079.4000;0.1018;0.9785;
1079.7000;0.0993;0.9715;
1080.0000;0.1009;0.9715;
1080.3000;0.1009;0.9691;
1080.6000;0.0993;0.9738;
1080.9000;0.1009;0.9785;
1081.2000;0.1009;0.9738;
1081.5000;0.1018;0.9738;
1081.8000;0.0993;0.9621;
1082.1000;0.0985;0.9668;
1082.4000;0.1001;0.9668;
1082.7000;0.1001;0.9715;
1083.0000;0.0977;0.9738;
1083.3000;0.1001;0.9761;
1083.6000;0.0993;0.9808;
1083.9000;0.1001;0.9878;
1084.2000;0.1009;0.9831;
1084.5000;0.0993;0.9785;
1084.8000;0.1018;0.9808;
1085.1000;0.0977;0.9645;
1085.4000;0.1034;0.9855;
1085.7000;0.0977;0.9691;
1086.0000;0.1001;0.9761;
1086.3000;0.1026;0.9715;
1086.6000;0.1018;0.9645;
1086.9000;0.0961;0.9575;
1087.2000;0.1009;0.9785;
1087.5000;0.1001;0.9785;
1087.8000;0.1131;1.0228;
1088.1000;0.0944;0.9761;
1088.4000;0.0961;0.9738;
1088.7000;0.1066;1.0018;
1089.0000;0.1074;1.0042;
1089.3000;0.1009;0.9785;
1089.6000;0.0993;0.9738;
1089.9000;0.0952;0.9668;
1090.2000;0.0985;0.9761;
1090.5000;0.1026;0.9831;
1090.8000;0.1001;0.9645;
1091.1000;0.0993;0.9551;
1091.4000;0.1001;0.9575;
1091.7000;0.0993;0.9621;
1092.0000;0.0993;0.9598;
1092.3000;0.1026;0.9621;
1092.6000;0.0969;0.9505;
1092.9000;0.1009;0.9621;
1093.2000;0.0993;0.9551;
1093.5000;0.1018;0.9761;
1093.8000;0.0985;0.9691;
1094.1000;0.0936;0.9691;
1094.4000;0.1009;0.9785;
1094.7000;0.0977;0.9691;
1095.0000;0.0985;0.9645;
1095.3000;0.0993;0.9621;
1095.6000;0.0985;0.9598;
1095.9000;0.1001;0.9645;
1096.2000;0.1026;0.9691;
1096.5000;0.1034;0.9785;
1096.8000;0.1018;0.9738;
1097.1000;0.0993;0.9668;
1097.4000;0.1009;0.9645;
1097.7000;0.1001;0.9715;
1098.0000;0.1018;0.9808;
1098.3000;0.0977;0.9691;
1098.6000;0.0961;0.9621;
1098.9000;0.1001;0.9715;
1099.2000;0.1034;0.9831;
1099.5000;0.0944;0.9668;
1099.8000;0.0977;0.9645;
1100.1000;0.1001;0.9645;
1100.4000;0.1050;0.9855;
1100.7000;0.1001;0.9785;
1101.0000;0.0961;0.9808;
1101.3000;0.0936;0.9715;
1101.6000;0.0993;0.9855;
1101.9000;0.0969;0.9738;
1102.2000;0.0977;0.9738;
1102.5000;0.1001;0.9761;
1102.8000;0.1009;0.9715;
1103.1000;0.0969;0.9621;
1103.4000;0.1018;0.9668;
1103.7000;0.0977;0.9551;
1104.0000;0.1001;0.9715;
1104.3000;0.0977;0.9668;
1104.6000;0.1009;0.9691;
1104.9000;0.1115;0.9925;
1105.2000;0.0985;0.9551;
1105.5000;0.1001;0.9668;
1105.8000;0.0993;0.9668;
1106.1000;0.1066;0.9855;
1106.4000;0.0993;0.9691;
1106.7000;0.1001;0.9808;
1107.0000;0.1018;0.9855;
1107.3000;0.1001;0.9855;
1107.6000;0.1001;0.9831;
1107.9000;0.1001;0.9855;
1108.2000;0.1001;0.9785;
1108.5000;0.1001;0.9831;
1108.8000;0.0993;0.9785;
1109.1000;0.0977;0.9738;
1109.4000;0.0993;0.9761;
1109.7000;0.0977;0.9691;
1110.0000;0.1001;0.9761;
1110.3000;0.0985;0.9761;
1110.6000;0.1042;0.9878;
1110.9000;0.1042;0.9831;
1111.2000;0.1042;0.9902;
1111.5000;0.1034;0.9972;
1111.8000;0.0977;0.9831;
1112.1000;0.1050;0.9995;
1112.4000;0.0977;0.9855;
1112.7000;0.1009;0.9925;
1113.0000;0.1099;1.0135;
1113.3000;0.0985;0.9808;
1113.6000;0.0985;0.9808;
1113.9000;0.0985;0.9761;
1114.2000;0.0969;0.9761;
1114.5000;0.1026;0.9855;
1114.8000;0.1058;0.9902;
1115.1000;0.0961;0.9691;
1115.4000;0.1018;0.9785;
1115.7000;0.0985;0.9598;
1116.0000;0.1001;0.9738;
1116.3000;0.0993;0.9715;
1116.6000;0.0993;0.9621;
1116.9000;0.0993;0.9645;
1117.2000;0.1001;0.9645;
1117.5000;0.0985;0.9598;
1117.8000;0.0985;0.9598;
1118.1000;0.1009;0.9645;
1118.4000;0.0993;0.9575;
1118.7000;0.1009;0.9621;
1119.0000;0.0993;0.9668;
1119.3000;0.0985;0.9691;
1119.6000;0.1001;0.9785;
1119.9000;0.0985;0.9785;
1120.2000;0.1009;0.9761;
1120.5000;0.0993;0.9598;
1120.8000;0.1026;0.9668;
1121.1000;0.0969;0.9551;
1121.4000;0.0993;0.9598;
1121.7000;0.0985;0.9668;
1122.0000;0.1009;0.9691;
1122.3000;0.1001;0.9528;
1122.6000;0.1009;0.9598;
1122.9000;0.0895;0.9248;
1123.2000;0.1001;0.9598;
1123.5000;0.1009;0.9645;
1123.8000;0.0944;0.9505;
1124.1000;0.0993;0.9621;
1124.4000;0.0985;0.9575;
1124.7000;0.1018;0.9598;
1125.0000;0.1018;0.9645;
1125.3000;0.0985;0.9575;
1125.6000;0.1009;0.9645;
1125.9000;0.0977;0.9621;
1126.2000;0.1001;0.9645;
1126.5000;0.1009;0.9691;
1126.8000;0.0985;0.9575;
1127.1000;0.0977;0.9528;
1127.4000;0.0985;0.9551;
1127.7000;0.0993;0.9528;
1128.0000;0.0838;0.9224;
1128.3000;0.1001;0.9668;
1128.6000;0.0993;0.9598;
1128.9000;0.1018;0.9668;
1129.2000;0.1123;0.9878;
1129.5000;0.0895;0.9364;
1129.8000;0.0993;0.9481;
1130.1000;0.0904;0.9224;
1130.4000;0.0985;0.9458;
1130.7000;0.1001;0.9388;
1131.0000;0.0977;0.9271;
1131.3000;0.1009;0.9364;
1131.6000;0.1009;0.9364;
1131.9000;0.0969;0.9318;
1132.2000;0.1001;0.9481;
1132.5000;0.0993;0.9481;
1132.8000;0.1018;0.9458;
1133.1000;0.0993;0.9458;
1133.4000;0.0993;0.9458;
1133.7000;0.0863;0.9224;
1134.0000;0.0977;0.9458;
1134.3000;0.0961;0.9388;
1134.6000;0.0993;0.9458;
1134.9000;0.0993;0.9411;
1135.2000;0.0993;0.9505;
1135.5000;0.0985;0.9645;
1135.8000;0.0985;0.9668;
1136.1000;0.0944;0.9528;
1136.4000;0.0985;0.9668;
1136.7000;0.1001;0.9738;
1137.0000;0.1009;0.9691;
1137.3000;0.0985;0.9668;
1137.6000;0.1001;0.9738;
1137.9000;0.0985;0.9738;
1138.2000;0.1042;0.9785;
1138.5000;0.0993;0.9691;
1138.8000;0.0985;0.9738;
1139.1000;0.0985;0.9691;
1139.4000;0.0969;0.9598;
1139.7000;0.0969;0.9645;
1140.0000;0.0961;0.9528;
1140.3000;0.0912;0.9388;
1140.6000;0.0993;0.9621;
1140.9000;0.0969;0.9645;
1141.2000;0.0993;0.9645;
1141.5000;0.0985;0.9691;
1141.8000;0.0993;0.9691;
1142.1000;0.0887;0.9411;
1142.4000;0.1001;0.9621;
1142.7000;0.0969;0.9528;
1143.0000;0.1009;0.9691;
1143.3000;0.0928;0.9481;
1143.6000;0.0993;0.9598;
1143.9000;0.0985;0.9621;
1144.2000;0.1009;0.9715;
1144.5000;0.0977;0.9621;
1144.8000;0.0985;0.9691;
1145.1000;0.1001;0.9715;
1145.4000;0.0977;0.9645;
1145.7000;0.0977;0.9621;
1146.0000;0.0993;0.9668;
1146.3000;0.0993;0.9761;
1146.6000;0.0985;0.9715;
1146.9000;0.0985;0.9738;
1147.2000;0.0985;0.9855;
1147.5000;0.0993;0.9855;
1147.8000;0.1066;1.0065;
1148.1000;0.0985;0.9878;
1148.4000;0.1001;0.9902;
1148.7000;0.0969;0.9925;
1149.0000;0.0969;0.9925;
1149.3000;0.0993;0.9972;
1149.6000;0.0993;1.0018;
1149.9000;0.0993;1.0088;
1150.2000;0.1050;1.0182;
1150.5000;0.0985;0.9948;
1150.8000;0.0969;0.9948;
1151.1000;0.0912;0.9715;
1151.4000;0.1001;0.9902;
1151.7000;0.1001;0.9878;
1152.0000;0.0993;0.9902;
1152.3000;0.0985;0.9831;
1152.6000;0.1001;0.9878;
1152.9000;0.0985;0.9878;
1153.2000;0.0993;0.9902;
1153.5000;0.1001;0.9925;
1153.8000;0.1001;0.9855;
1154.1000;0.1099;1.0042;
1154.4000;0.0977;0.9761;
1154.7000;0.0977;0.9738;
1155.0000;0.0985;0.9785;
1155.3000;0.0993;0.9668;
1155.6000;0.0985;0.9528;
1155.9000;0.0977;0.9481;
1156.2000;0.0993;0.9551;
1156.5000;0.1001;0.9551;
1156.8000;0.0977;0.9505;
1157.1000;0.0944;0.9528;
1157.4000;0.1001;0.9715;
1157.7000;0.1001;0.9715;
1158.0000;0.0977;0.9668;
1158.3000;0.1018;0.9761;
1158.6000;0.1001;0.9785;
1158.9000;0.1001;0.9785;
1159.2000;0.0969;0.9785;
1159.5000;0.0993;0.9831;
1159.8000;0.0985;0.9831;
1160.1000;0.0985;0.9831;
1160.4000;0.0985;0.9761;
1160.7000;0.0977;0.9621;
1161.0000;0.0977;0.9645;
1161.3000;0.0993;0.9668;
1161.6000;0.0985;0.9668;
1161.9000;0.0944;0.9598;
1162.2000;0.0952;0.9668;
1162.5000;0.0993;0.9785;
1162.8000;0.1074;0.9925;
1163.1000;0.0993;0.9761;
1163.4000;0.0977;0.9761;
1163.7000;0.0993;0.9761;
1164.0000;0.1018;0.9785;
1164.3000;0.0928;0.9458;
1164.6000;0.0985;0.9598;
1164.9000;0.0977;0.9668;
1165.2000;0.0985;0.9785;
1165.5000;0.0985;0.9808;
1165.8000;0.1026;0.9738;
1166.1000;0.0993;0.9598;
1166.4000;0.0985;0.9668;
1166.7000;0.0969;0.9645;
1167.0000;0.0985;0.9715;
1167.3000;0.0879;0.9598;
1167.6000;0.0993;0.9761;
1167.9000;0.1026;0.9878;
1168.2000;0.0993;0.9855;
1168.5000;0.0993;0.9808;
1168.8000;0.0977;0.9808;
1169.1000;0.0993;0.9691;
1169.4000;0.0977;0.9668;
1169.7000;0.0961;0.9575;
1170.0000;0.0993;0.9621;
1170.3000;0.1001;0.9668;
1170.6000;0.1009;0.9831;
1170.9000;0.0969;0.9761;
1171.2000;0.1001;0.9808;
1171.5000;0.0985;0.9808;
1171.8000;0.0985;0.9785;
1172.1000;0.0985;0.9902;
1172.4000;0.1091;1.0158;
1172.7000;0.0993;0.9878;
1173.0000;0.1018;0.9925;
1173.3000;0.0993;0.9785;
1173.6000;0.0961;0.9668;
1173.9000;0.0993;0.9785;
1174.2000;0.1001;0.9715;
1174.5000;0.1058;0.9878;
1174.8000;0.1001;0.9715;
1175.1000;0.1018;0.9668;
1175.4000;0.0985;0.9551;
1175.7000;0.0993;0.9598;
1176.0000;0.0977;0.9458;
1176.3000;0.1034;0.9621;
1176.6000;0.0985;0.9575;
1176.9000;0.1001;0.9761;
1177.2000;0.1001;0.9878;
1177.5000;0.0993;0.9902;
1177.8000;0.1009;0.9925;
1178.1000;0.1001;0.9831;
1178.4000;0.0977;0.9715;
1178.7000;0.0977;0.9715;
1179.0000;0.1009;0.9761;
1179.3000;0.0961;0.9575;
1179.6000;0.0977;0.9668;
1179.9000;0.1009;0.9761;
1180.2000;0.0920;0.9645;
1180.5000;0.0904;0.9598;
1180.8000;0.0993;0.9715;
1181.1000;0.0977;0.9761;
1181.4000;0.0969;0.9668;
1181.7000;0.1009;0.9738;
1182.0000;0.0969;0.9645;
1182.3000;0.0985;0.9738;
1182.6000;0.1042;0.9831;
1182.9000;0.1018;0.9831;
1183.2000;0.1034;0.9925;
1183.5000;0.0895;0.9621;
1183.8000;0.0952;0.9785;
1184.1000;0.1009;0.9831;
1184.4000;0.0993;0.9785;
1184.7000;0.0969;0.9785;
1185.0000;0.0977;0.9761;
1185.3000;0.1001;0.9808;
1185.6000;0.0993;0.9715;
1185.9000;0.0977;0.9761;
1186.2000;0.0985;0.9761;
1186.5000;0.0993;0.9855;
1186.8000;0.0985;0.9878;
1187.1000;0.0993;0.9831;
1187.4000;0.1083;0.9925;
1187.7000;0.0993;0.9738;
1188.0000;0.0969;0.9691;
1188.3000;0.1058;0.9855;
1188.6000;0.1001;0.9785;
1188.9000;0.0985;0.9761;
1189.2000;0.0912;0.9551;
1189.5000;0.1034;0.9855;
1189.8000;0.1009;0.9878;
1190.1000;0.0961;0.9715;
1190.4000;0.0985;0.9808;
1190.7000;0.0993;0.9855;
1191.0000;0.0993;0.9925;
1191.3000;0.1001;0.9902;
1191.6000;0.0977;0.9855;
1191.9000;0.0993;0.9878;
1192.2000;0.0977;0.9738;
1192.5000;0.0985;0.9738;
1192.8000;0.0904;0.9528;
1193.1000;0.0993;0.9761;
1193.4000;0.1009;0.9761;
1193.7000;0.1083;1.0042;
1194.0000;0.0887;0.9505;
1194.3000;0.1050;0.9831;
1194.6000;0.0993;0.9668;
1194.9000;0.0985;0.9598;
1195.2000;0.1042;0.9668;
1195.5000;0.0977;0.9528;
1195.8000;0.1009;0.9528;
1196.1000;0.0977;0.9458;
1196.4000;0.1009;0.9645;
1196.7000;0.0977;0.9668;
1197.0000;0.1026;0.9808;
1197.3000;0.1050;0.9972;
1197.6000;0.0993;0.9808;
1197.9000;0.0871;0.9481;
1198.2000;0.1018;0.9902;
1198.5000;0.1009;0.9878;
1198.8000;0.0969;0.9761;
1199.1000;0.0993;0.9761;
1199.4000;0.1018;0.9738;
1199.7000;0.1009;0.9691;
1200.0000;0.0985;0.9621;
1200.3000;0.0969;0.9598;
1200.6000;0.0993;0.9551;
1200.9000;0.0985;0.9528;
1201.2000;0.1066;0.9785;
1201.5000;0.0977;0.9598;
1201.8000;0.1099;0.9902;
1202.1000;0.0961;0.9668;
1202.4000;0.0993;0.9715;
1202.7000;0.1018;0.9878;
1203.0000;0.0993;0.9808;
1203.3000;0.0985;0.9785;
1203.6000;0.1034;0.9738;
1203.9000;0.1009;0.9691;
1204.2000;0.0936;0.9434;
1204.5000;0.0993;0.9528;
1204.8000;0.0985;0.9458;
1205.1000;0.1001;0.9598;
1205.4000;0.0977;0.9645;
1205.7000;0.0977;0.9621;
1206.0000;0.0961;0.9598;
1206.3000;0.0969;0.9645;
1206.6000;0.0928;0.9551;
1206.9000;0.0969;0.9645;
1207.2000;0.0993;0.9738;
1207.5000;0.1001;0.9715;
1207.8000;0.0961;0.9691;
1208.1000;0.1009;0.9785;
1208.4000;0.1001;0.9738;
1208.7000;0.1001;0.9715;
1209.0000;0.1009;0.9715;
1209.3000;0.0977;0.9621;
1209.6000;0.0993;0.9645;
1209.9000;0.0993;0.9551;
1210.2000;0.1001;0.9598;
1210.5000;0.1009;0.9505;
1210.8000;0.0985;0.9598;
1211.1000;0.1018;0.9878;
1211.4000;0.0928;0.9668;
1211.7000;0.0969;0.9831;
1212.0000;0.1001;0.9925;
1212.3000;0.1009;0.9902;
1212.6000;0.0985;0.9808;
1212.9000;0.0993;0.9715;
1213.2000;0.0977;0.9621;
1213.5000;0.0993;0.9621;
1213.8000;0.0985;0.9645;
1214.1000;0.0977;0.9645;
1214.4000;0.1009;0.9691;
1214.7000;0.1009;0.9691;
1215.0000;0.1074;0.9808;
1215.3000;0.0977;0.9598;
1215.6000;0.1001;0.9715;
1215.9000;0.0969;0.9598;
1216.2000;0.1001;0.9738;
1216.5000;0.1001;0.9715;
1216.8000;0.1009;0.9668;
1217.1000;0.0952;0.9505;
1217.4000;0.1009;0.9621;
1217.7000;0.0985;0.9598;
1218.0000;0.0969;0.9481;
1218.3000;0.0993;0.9481;
1218.6000;0.1018;0.9598;
1218.9000;0.0928;0.9318;
1219.2000;0.0985;0.9528;
1219.5000;0.0936;0.9434;
1219.8000;0.1001;0.9715;
1220.1000;0.1001;0.9715;
1220.4000;0.0993;0.9691;
1220.7000;0.0961;0.9621;
1221.0000;0.0969;0.9505;
1221.3000;0.1026;0.9598;
1221.6000;0.0985;0.9528;
1221.9000;0.0993;0.9575;
1222.2000;0.0977;0.9575;
1222.5000;0.0887;0.9294;
1222.8000;0.0969;0.9598;
1223.1000;0.0969;0.9575;
1223.4000;0.1009;0.9691;
1223.7000;0.0985;0.9645;
1224.0000;0.0993;0.9691;
1224.3000;0.0993;0.9878;
1224.6000;0.0977;0.9855;
1224.9000;0.0993;0.9808;
1225.2000;0.0993;0.9808;
1225.5000;0.1001;0.9808;
1225.8000;0.0985;0.9738;
1226.1000;0.0961;0.9668;
1226.4000;0.0969;0.9668;
1226.7000;0.0985;0.9691;
1227.0000;0.1001;0.9668;
1227.3000;0.1009;0.9738;
1227.6000;0.1074;0.9902;
1227.9000;0.0993;0.9668;
1228.2000;0.1001;0.9691;
1228.5000;0.0985;0.9621;
1228.8000;0.0977;0.9598;
1229.1000;0.0985;0.9738;
1229.4000;0.0961;0.9645;
1229.7000;0.0920;0.9598;
1230.0000;0.1009;0.9831;
1230.3000;0.1009;0.9808;
1230.6000;0.0993;0.9831;
1230.9000;0.1018;0.9902;
1231.2000;0.0985;0.9855;
1231.5000;0.1009;0.9925;
1231.8000;0.0985;0.9878;
1232.1000;0.1018;1.0018;
1232.4000;0.0993;0.9948;
1232.7000;0.0993;0.9902;
1233.0000;0.1034;0.9925;
1233.3000;0.1009;0.9902;
1233.6000;0.1026;0.9995;
1233.9000;0.0944;0.9738;
1234.2000;0.1001;0.9902;
1234.5000;0.0993;0.9878;
1234.8000;0.1009;0.9902;
1235.1000;0.0904;0.9598;
1235.4000;0.0969;0.9761;
1235.7000;0.0985;0.9761;
1236.0000;0.1026;0.9902;
1236.3000;0.0977;0.9785;
1236.6000;0.0977;0.9621;
1236.9000;0.1066;0.9831;
1237.2000;0.1018;0.9621;
1237.5000;0.1026;0.9645;
1237.8000;0.0961;0.9551;
1238.1000;0.0961;0.9575;
1238.4000;0.0993;0.9645;
1238.7000;0.0977;0.9621;
1239.0000;0.0993;0.9715;
1239.3000;0.1001;0.9761;
1239.6000;0.0993;0.9761;
1239.9000;0.1001;0.9808;
1240.2000;0.0977;0.9715;
1240.5000;0.0944;0.9621;
1240.8000;0.0920;0.9645;
1241.1000;0.0977;0.9738;
1241.4000;0.1009;0.9761;
1241.7000;0.1009;0.9785;
1242.0000;0.0977;0.9645;
1242.3000;0.0993;0.9645;
1242.6000;0.0977;0.9528;
1242.9000;0.1131;0.9808;
1243.2000;0.0993;0.9481;
1243.5000;0.1050;0.9621;
1243.8000;0.1009;0.9434;
1244.1000;0.0985;0.9411;
1244.4000;0.0936;0.9318;
1244.7000;0.0977;0.9505;
1245.0000;0.0977;0.9645;
1245.3000;0.0993;0.9691;
1245.6000;0.0977;0.9598;
1245.9000;0.1026;0.9691;
1246.2000;0.0920;0.9458;
1246.5000;0.0993;0.9645;
1246.8000;0.0969;0.9691;
1247.1000;0.0993;0.9691;
1247.4000;0.0952;0.9528;
1247.7000;0.0977;0.9691;
1248.0000;0.1066;0.9925;
1248.3000;0.1001;0.9738;
1248.6000;0.0969;0.9715;
1248.9000;0.0977;0.9621;
1249.2000;0.0977;0.9621;
1249.5000;0.0961;0.9598;
1249.8000;0.0977;0.9598;
1250.1000;0.0985;0.9528;
1250.4000;0.0993;0.9575;
1250.7000;0.1009;0.9575;
1251.0000;0.0977;0.9575;
1251.3000;0.0985;0.9598;
1251.6000;0.0985;0.9528;
1251.9000;0.0993;0.9621;
1252.2000;0.0985;0.9575;
1252.5000;0.0985;0.9575;
1252.8000;0.1083;0.9831;
1253.1000;0.0993;0.9621;
1253.4000;0.1034;0.9621;
1253.7000;0.0993;0.9621;
1254.0000;0.0977;0.9575;
1254.3000;0.0993;0.9761;
1254.6000;0.1009;0.9761;
1254.9000;0.0969;0.9575;
1255.2000;0.0936;0.9481;
1255.5000;0.0993;0.9715;
1255.8000;0.0993;0.9808;
1256.1000;0.0961;0.9715;
1256.4000;0.0961;0.9785;
1256.7000;0.0977;0.9808;
1257.0000;0.0944;0.9668;
1257.3000;0.0985;0.9715;
1257.6000;0.0993;0.9691;
1257.9000;0.0928;0.9575;
1258.2000;0.0985;0.9668;
1258.5000;0.1009;0.9738;
1258.8000;0.0977;0.9738;
1259.1000;0.0977;0.9785;
1259.4000;0.1001;0.9902;
1259.7000;0.0977;0.9785;
1260.0000;0.0895;0.9551;
1260.3000;0.1009;0.9855;
1260.6000;0.0969;0.9878;
1260.9000;0.1001;0.9972;
1261.2000;0.0993;0.9925;
1261.5000;0.0944;0.9855;
1261.8000;0.0969;0.9855;
1262.1000;0.0993;0.9972;
1262.4000;0.0993;1.0042;
1262.7000;0.0912;0.9785;
1263.0000;0.1001;0.9948;
1263.3000;0.1009;0.9902;
1263.6000;0.0993;0.9808;
1263.9000;0.0985;0.9785;
1264.2000;0.1001;0.9785;
1264.5000;0.1009;0.9761;
1264.8000;0.0961;0.9621;
1265.1000;0.1034;0.9761;
1265.4000;0.0985;0.9621;
1265.7000;0.0969;0.9575;
1266.0000;0.0961;0.9575;
1266.3000;0.0993;0.9668;
1266.6000;0.0977;0.9551;
1266.9000;0.1001;0.9575;
1267.2000;0.0985;0.9528;
1267.5000;0.0977;0.9528;
1267.8000;0.0985;0.9505;
1268.1000;0.0961;0.9481;
1268.4000;0.1018;0.9621;
1268.7000;0.0969;0.9505;
1269.0000;0.1009;0.9621;
1269.3000;0.0985;0.9434;
1269.6000;0.0952;0.9341;
1269.9000;0.0985;0.9388;
1270.2000;0.0977;0.9388;
1270.5000;0.0993;0.9411;
1270.8000;0.0993;0.9434;
1271.1000;0.0961;0.9411;
1271.4000;0.0904;0.9294;
1271.7000;0.0985;0.9434;
1272.0000;0.1009;0.9458;
1272.3000;0.0871;0.9178;
1272.6000;0.1009;0.9598;
1272.9000;0.0985;0.9551;
1273.2000;0.0969;0.9551;
1273.5000;0.0993;0.9691;
1273.8000;0.0985;0.9645;
1274.1000;0.1001;0.9691;
1274.4000;0.0952;0.9551;
1274.7000;0.0944;0.9598;
1275.0000;0.1001;0.9785;
1275.3000;0.1018;0.9831;
1275.6000;0.0920;0.9551;
1275.9000;0.0993;0.9691;
1276.2000;0.0985;0.9668;
1276.5000;0.0985;0.9621;
1276.8000;0.0985;0.9575;
1277.1000;0.0895;0.9341;
1277.4000;0.1001;0.9551;
1277.7000;0.1026;0.9691;
1278.0000;0.0928;0.9551;
1278.3000;0.0985;0.9715;
1278.6000;0.0969;0.9761;
1278.9000;0.0985;0.9761;
1279.2000;0.0985;0.9761;
1279.5000;0.1001;0.9691;
1279.8000;0.0985;0.9645;
1280.1000;0.0936;0.9528;
1280.4000;0.0993;0.9691;
1280.7000;0.0993;0.9691;
1281.0000;0.0969;0.9761;
1281.3000;0.0952;0.9738;
1281.6000;0.1034;0.9948;
1281.9000;0.0985;0.9878;
1282.2000;0.0985;0.9902;
1282.5000;0.0944;0.9808;
1282.8000;0.1009;0.9948;
1283.1000;0.1083;1.0158;
1283.4000;0.0912;0.9715;
1283.7000;0.1009;0.9972;
1284.0000;0.1034;1.0042;
1284.3000;0.0993;0.9878;
1284.6000;0.0985;0.9925;
1284.9000;0.0977;0.9761;
1285.2000;0.0895;0.9598;
1285.5000;0.0961;0.9738;
1285.8000;0.0944;0.9598;
1286.1000;0.1140;1.0112;
1286.4000;0.1001;0.9738;
1286.7000;0.0985;0.9645;
1287.0000;0.1018;0.9785;
1287.3000;0.1001;0.9645;
1287.6000;0.0985;0.9645;
1287.9000;0.0985;0.9575;
1288.2000;0.0977;0.9621;
1288.5000;0.0993;0.9738;
1288.8000;0.0993;0.9738;
1289.1000;0.0977;0.9621;
1289.4000;0.1001;0.9691;
1289.7000;0.1009;0.9645;
1290.0000;0.1091;0.9738;
1290.3000;0.0944;0.9458;
1290.6000;0.0961;0.9598;
1290.9000;0.0985;0.9668;
1291.2000;0.1009;0.9738;
1291.5000;0.0855;0.9341;
1291.8000;0.0985;0.9691;
1292.1000;0.0969;0.9761;
1292.4000;0.0977;0.9715;
1292.7000;0.0977;0.9691;
1293.0000;0.0969;0.9528;
1293.3000;0.0993;0.9598;
1293.6000;0.0993;0.9551;
1293.9000;0.1001;0.9598;
1294.2000;0.1001;0.9668;
1294.5000;0.0993;0.9621;
1294.8000;0.1001;0.9598;
1295.1000;0.0977;0.9598;
1295.4000;0.0985;0.9738;
1295.7000;0.0977;0.9785;
1296.0000;0.0977;0.9785;
1296.3000;0.0977;0.9738;
1296.6000;0.1001;0.9691;
1296.9000;0.0985;0.9598;
1297.2000;0.0944;0.9528;
1297.5000;0.1009;0.9738;
1297.8000;0.1001;0.9715;
1298.1000;0.0961;0.9621;
1298.4000;0.0993;0.9691;
1298.7000;0.0993;0.9575;
1299.0000;0.1009;0.9645;
1299.3000;0.0993;0.9575;
1299.6000;0.0969;0.9388;
1299.9000;0.0993;0.9434;
1300.2000;0.1009;0.9458;
1300.5000;0.0977;0.9388;
1300.8000;0.1083;0.9621;
1301.1000;0.0977;0.9318;
1301.4000;0.1001;0.9341;
1301.7000;0.1050;0.9434;
1302.0000;0.1058;0.9481;
1302.3000;0.0961;0.9434;
1302.6000;0.0993;0.9458;
1302.9000;0.1026;0.9481;
1303.2000;0.0977;0.9411;
1303.5000;0.1001;0.9458;
1303.8000;0.1018;0.9505;
1304.1000;0.0952;0.9434;
1304.4000;0.1140;0.9902;
1304.7000;0.1009;0.9528;
1305.0000;0.0977;0.9434;
1305.3000;0.0977;0.9411;
1305.6000;0.0977;0.9411;
1305.9000;0.1001;0.9505;
1306.2000;0.0920;0.9294;
1306.5000;0.0985;0.9364;
1306.8000;0.0985;0.9388;
1307.1000;0.0993;0.9294;
1307.4000;0.0920;0.9108;
1307.7000;0.1001;0.9318;
1308.0000;0.0961;0.9178;
1308.3000;0.0985;0.9271;
1308.6000;0.0993;0.9248;
1308.9000;0.0977;0.9154;
1309.2000;0.0993;0.9154;
1309.5000;0.0985;0.9154;
1309.8000;0.0969;0.9131;
1310.1000;0.0969;0.9061;
1310.4000;0.0961;0.9037;
1310.7000;0.1009;0.9131;
1311.0000;0.0985;0.9061;
1311.3000;0.0993;0.9084;
1311.6000;0.0969;0.9014;
1311.9000;0.0969;0.9108;
1312.2000;0.0977;0.9178;
1312.5000;0.0895;0.8967;
1312.8000;0.0952;0.9178;
1313.1000;0.1001;0.9411;
1313.4000;0.1058;0.9621;
1313.7000;0.0993;0.9458;
1314.0000;0.0977;0.9458;
1314.3000;0.1066;0.9715;
1314.6000;0.1009;0.9575;
1314.9000;0.0993;0.9645;
1315.2000;0.0961;0.9621;
1315.5000;0.1026;0.9855;
1315.8000;0.0977;0.9691;
1316.1000;0.1001;0.9715;
1316.4000;0.0977;0.9645;
1316.7000;0.0977;0.9738;
1317.0000;0.0977;0.9668;
1317.3000;0.0961;0.9551;
1317.6000;0.0961;0.9528;
1317.9000;0.0961;0.9575;
1318.2000;0.0961;0.9645;
1318.5000;0.0985;0.9691;
1318.8000;0.0977;0.9691;
1319.1000;0.1001;0.9738;
1319.4000;0.0993;0.9761;
1319.7000;0.0977;0.9715;
1320.0000;0.0952;0.9621;
1320.3000;0.0969;0.9691;
1320.6000;0.0993;0.9668;
1320.9000;0.0961;0.9621;
1321.2000;0.1001;0.9645;
1321.5000;0.0977;0.9598;
1321.8000;0.0977;0.9621;
1322.1000;0.0985;0.9598;
1322.4000;0.0993;0.9621;
1322.7000;0.0855;0.9294;
1323.0000;0.0977;0.9598;
1323.3000;0.0928;0.9481;
1323.6000;0.0993;0.9645;
1323.9000;0.0969;0.9691;
1324.2000;0.1009;0.9808;
1324.5000;0.0985;0.9785;
1324.8000;0.0985;0.9761;
1325.1000;0.0961;0.9761;
1325.4000;0.0985;0.9761;
1325.7000;0.0993;0.9761;
1326.0000;0.0936;0.9668;
1326.3000;0.0977;0.9808;
1326.6000;0.0952;0.9691;
1326.9000;0.0993;0.9668;
1327.2000;0.1001;0.9621;
1327.5000;0.0969;0.9575;
1327.8000;0.0977;0.9715;
1328.1000;0.0993;0.9855;
1328.4000;0.1131;1.0228;
1328.7000;0.0977;0.9738;
1329.0000;0.0985;0.9668;
1329.3000;0.0993;0.9715;
1329.6000;0.1009;0.9691;
1329.9000;0.1131;0.9972;
1330.2000;0.1042;0.9738;
1330.5000;0.1009;0.9761;
1330.8000;0.1009;0.9761;
1331.1000;0.1001;0.9738;
1331.4000;0.0985;0.9738;
1331.7000;0.0985;0.9715;
1332.0000;0.0985;0.9715;
1332.3000;0.0985;0.9645;
1332.6000;0.0969;0.9668;
1332.9000;0.1066;0.9902;
1333.2000;0.1018;0.9668;
1333.5000;0.0993;0.9668;
1333.8000;0.0977;0.9645;
1334.1000;0.0985;0.9715;
1334.4000;0.0977;0.9738;
1334.7000;0.1009;0.9902;
1335.0000;0.1001;0.9785;
1335.3000;0.0985;0.9691;
1335.6000;0.0985;0.9645;
1335.9000;0.1050;0.9808;
1336.2000;0.0993;0.9645;
1336.5000;0.1026;0.9761;
1336.8000;0.0993;0.9621;
1337.1000;0.0895;0.9411;
1337.4000;0.1083;0.9878;
1337.7000;0.0961;0.9621;
1338.0000;0.0977;0.9621;
1338.3000;0.1066;0.9715;
1338.6000;0.0961;0.9505;
1338.9000;0.0920;0.9318;
1339.2000;0.0944;0.9364;
1339.5000;0.0985;0.9434;
1339.8000;0.0969;0.9411;
1340.1000;0.0993;0.9551;
1340.4000;0.0977;0.9481;
1340.7000;0.0985;0.9528;
1341.0000;0.1009;0.9505;
1341.3000;0.1074;0.9691;
1341.6000;0.0977;0.9434;
1341.9000;0.0985;0.9528;
1342.2000;0.0904;0.9341;
1342.5000;0.0985;0.9668;
1342.8000;0.0977;0.9645;
1343.1000;0.0977;0.9668;
1343.4000;0.0985;0.9738;
1343.7000;0.1009;0.9808;
1344.0000;0.0985;0.9761;
1344.3000;0.1001;0.9855;
1344.6000;0.1009;0.9925;
1344.9000;0.0985;0.9855;
1345.2000;0.1009;0.9831;
1345.5000;0.0993;0.9831;
1345.8000;0.1001;0.9831;
1346.1000;0.1001;0.9761;
1346.4000;0.0993;0.9691;
1346.7000;0.0985;0.9761;
1347.0000;0.1042;0.9948;
1347.3000;0.1009;0.9855;
1347.6000;0.0977;0.9785;
1347.9000;0.0977;0.9738;
1348.2000;0.0977;0.9761;
1348.5000;0.1001;0.9855;
1348.8000;0.0961;0.9785;
1349.1000;0.0952;0.9715;
1349.4000;0.0993;0.9785;
1349.7000;0.1091;0.9972;
1350.0000;0.1001;0.9738;
1350.3000;0.1001;0.9738;
1350.6000;0.1018;0.9738;
1350.9000;0.0961;0.9575;
1351.2000;0.0985;0.9598;
1351.5000;0.0895;0.9364;
1351.8000;0.0969;0.9738;
1352.1000;0.0969;0.9808;
1352.4000;0.0920;0.9645;
1352.7000;0.0977;0.9785;
1353.0000;0.0993;0.9761;
1353.3000;0.0985;0.9785;
1353.6000;0.0985;0.9715;
1353.9000;0.1026;0.9761;
1354.2000;0.1026;0.9715;
1354.5000;0.1091;0.9902;
1354.8000;0.0993;0.9761;
1355.1000;0.0977;0.9738;
1355.4000;0.0977;0.9668;
1355.7000;0.1066;0.9902;
1356.0000;0.0985;0.9761;
1356.3000;0.0985;0.9738;
1356.6000;0.0993;0.9808;
1356.9000;0.0920;0.9621;
1357.2000;0.0977;0.9831;
1357.5000;0.1001;0.9902;
1357.8000;0.1001;0.9972;
1358.1000;0.0977;0.9925;
1358.4000;0.1107;1.0182;
1358.7000;0.0961;0.9761;
1359.0000;0.0952;0.9668;
1359.3000;0.1050;0.9855;
1359.6000;0.0993;0.9808;
1359.9000;0.0952;0.9668;
1360.2000;0.1001;0.9808;
1360.5000;0.0912;0.9575;
1360.8000;0.1001;0.9785;
1361.1000;0.0904;0.9668;
1361.4000;0.0952;0.9785;
1361.7000;0.1001;0.9925;
1362.0000;0.0985;0.9855;
1362.3000;0.0993;0.9808;
1362.6000;0.0993;0.9855;
1362.9000;0.1009;0.9925;
1363.2000;0.0961;0.9878;
1363.5000;0.0920;0.9715;
1363.8000;0.0977;0.9878;
1364.1000;0.0961;0.9808;
1364.4000;0.0977;0.9878;
1364.7000;0.0985;0.9761;
1365.0000;0.0969;0.9691;
1365.3000;0.1026;0.9831;
1365.6000;0.1001;0.9831;
1365.9000;0.0993;0.9855;
1366.2000;0.0969;0.9925;
1366.5000;0.1018;1.0112;
1366.8000;0.0969;0.9995;
1367.1000;0.0977;1.0018;
1367.4000;0.0969;1.0018;
1367.7000;0.0977;1.0088;
1368.0000;0.0969;0.9995;
1368.3000;0.0977;1.0018;
1368.6000;0.0977;1.0065;
1368.9000;0.0961;1.0088;
1369.2000;0.0961;1.0088;
1369.5000;0.0993;1.0065;
1369.8000;0.1034;1.0135;
1370.1000;0.1001;1.0088;
1370.4000;0.1018;1.0228;
1370.7000;0.0977;1.0158;
1371.0000;0.1107;1.0485;
1371.3000;0.0977;1.0182;
1371.6000;0.1018;1.0228;
1371.9000;0.0985;1.0112;
1372.2000;0.0977;1.0112;
1372.5000;0.0969;1.0065;
1372.8000;0.0985;1.0088;
1373.1000;0.0993;1.0018;
1373.4000;0.0969;0.9972;
1373.7000;0.0944;0.9855;
1374.0000;0.0977;0.9902;
1374.3000;0.0977;0.9902;
1374.6000;0.1050;1.0065;
1374.9000;0.0936;0.9808;
1375.2000;0.0969;1.0018;
1375.5000;0.0977;1.0042;
1375.8000;0.0993;1.0088;
1376.1000;0.0985;1.0112;
1376.4000;0.1034;1.0228;
1376.7000;0.0993;1.0135;
1377.0000;0.0969;0.9972;
1377.3000;0.0969;0.9972;
1377.6000;0.1050;1.0182;
1377.9000;0.0920;0.9902;
1378.2000;0.0952;0.9995;
1378.5000;0.0985;1.0018;
1378.8000;0.0961;0.9972;
1379.1000;0.0961;0.9948;
1379.4000;0.0985;1.0018;
1379.7000;0.0993;1.0088;
1380.0000;0.1050;1.0275;
1380.3000;0.0969;1.0112;
1380.6000;0.0977;1.0182;
1380.9000;0.1074;1.0415;
1381.2000;0.0969;1.0112;
1381.5000;0.1009;1.0135;
1381.8000;0.0985;1.0065;
1382.1000;0.0969;1.0042;
1382.4000;0.0952;0.9902;
1382.7000;0.0961;0.9995;
1383.0000;0.1026;1.0018;
1383.3000;0.0985;0.9972;
1383.6000;0.0977;0.9902;
1383.9000;0.0952;0.9831;
1384.2000;0.0977;0.9995;
1384.5000;0.0961;0.9948;
1384.8000;0.0977;1.0018;
1385.1000;0.0985;1.0065;
1385.4000;0.0952;0.9995;
1385.7000;0.1001;1.0088;
1386.0000;0.0985;0.9995;
1386.3000;0.0985;0.9995;
1386.6000;0.0969;0.9948;
1386.9000;0.0969;0.9902;
1387.2000;0.0977;0.9902;
1387.5000;0.0969;0.9925;
1387.8000;0.0985;0.9948;
1388.1000;0.1009;1.0042;
1388.4000;0.0985;0.9972;
1388.7000;0.0977;0.9925;
1389.0000;0.1001;0.9972;
1389.3000;0.0977;0.9925;
1389.6000;0.0985;1.0018;
1389.9000;0.0936;1.0018;
1390.2000;0.1001;1.0135;
1390.5000;0.0985;1.0182;
1390.8000;0.0952;1.0042;
1391.1000;0.1001;1.0205;
1391.4000;0.0985;1.0228;
1391.7000;0.1107;1.0462;
1392.0000;0.0928;0.9995;
1392.3000;0.0985;1.0228;
1392.6000;0.1001;1.0205;
1392.9000;0.0952;1.0088;
1393.2000;0.1026;1.0205;
1393.5000;0.1034;1.0205;
1393.8000;0.0985;1.0182;
1394.1000;0.1009;1.0275;
1394.4000;0.0993;1.0275;
1394.7000;0.0985;1.0112;
1395.0000;0.0961;1.0088;
1395.3000;0.0977;1.0158;
1395.6000;0.0985;1.0228;
1395.9000;0.1123;1.0649;
1396.2000;0.0944;1.0088;
1396.5000;0.0961;1.0042;
1396.8000;0.0985;0.9925;
1397.1000;0.0895;0.9691;
1397.4000;0.0977;0.9902;
1397.7000;0.0961;0.9808;
1398.0000;0.0969;0.9831;
1398.3000;0.0977;0.9902;
1398.6000;0.1050;1.0042;
1398.9000;0.1001;0.9878;
1399.2000;0.0985;0.9855;
1399.5000;0.0985;0.9761;
1399.8000;0.0985;0.9785;
