time/ms;Fluo/V;P700 deltaI/I x10³;
-199.8000;0.7106;0.9827;
-199.5000;0.7098;0.9875;
-199.2000;0.7098;0.9875;
-198.9000;0.7098;0.9898;
-198.6000;0.7106;0.9946;
-198.3000;0.7057;0.9827;
-198.0000;0.7147;0.9946;
-197.7000;0.7082;0.9851;
-197.4000;0.6968;0.9520;
-197.1000;0.7155;0.9946;
-196.8000;0.7098;0.9851;
-196.5000;0.7098;0.9827;
-196.2000;0.7106;0.9946;
-195.9000;0.7131;0.9946;
-195.6000;0.7106;0.9733;
-195.3000;0.7098;0.9804;
-195.0000;0.7114;0.9875;
-194.7000;0.7123;0.9875;
-194.4000;0.7098;0.9875;
-194.1000;0.7098;0.9733;
-193.8000;0.7106;0.9686;
-193.5000;0.7114;0.9662;
-193.2000;0.7131;0.9686;
-192.9000;0.7074;0.9497;
-192.6000;0.7082;0.9497;
-192.3000;0.7114;0.9615;
-192.0000;0.7106;0.9686;
-191.7000;0.7098;0.9638;
-191.4000;0.7106;0.9662;
-191.1000;0.7090;0.9709;
-190.8000;0.7106;0.9757;
-190.5000;0.7090;0.9757;
-190.2000;0.7106;0.9709;
-189.9000;0.7074;0.9638;
-189.6000;0.7114;0.9757;
-189.3000;0.7082;0.9780;
-189.0000;0.7106;0.9804;
-188.7000;0.7114;0.9757;
-188.4000;0.7106;0.9709;
-188.1000;0.7106;0.9804;
-187.8000;0.7106;0.9898;
-187.5000;0.7098;0.9875;
-187.2000;0.7098;0.9946;
-186.9000;0.7098;0.9993;
-186.6000;0.7090;0.9922;
-186.3000;0.7090;0.9898;
-186.0000;0.7171;1.0087;
-185.7000;0.7106;0.9922;
-185.4000;0.7123;0.9993;
-185.1000;0.7106;0.9993;
-184.8000;0.7098;1.0040;
-184.5000;0.7114;1.0040;
-184.2000;0.7196;1.0253;
-183.9000;0.7147;1.0064;
-183.6000;0.7090;0.9898;
-183.3000;0.7090;0.9875;
-183.0000;0.7090;0.9875;
-182.7000;0.7106;0.9922;
-182.4000;0.7057;0.9875;
-182.1000;0.7114;0.9993;
-181.8000;0.7106;0.9969;
-181.5000;0.7106;1.0016;
-181.2000;0.7123;0.9993;
-180.9000;0.7114;0.9922;
-180.6000;0.7098;0.9898;
-180.3000;0.7114;0.9851;
-180.0000;0.7090;0.9757;
-179.7000;0.7090;0.9780;
-179.4000;0.7098;0.9780;
-179.1000;0.7106;0.9804;
-178.8000;0.7123;0.9780;
-178.5000;0.7074;0.9733;
-178.2000;0.7090;0.9780;
-177.9000;0.7090;0.9875;
-177.6000;0.7106;0.9898;
-177.3000;0.7082;0.9780;
-177.0000;0.7098;0.9827;
-176.7000;0.7090;0.9804;
-176.4000;0.7090;0.9898;
-176.1000;0.7025;0.9804;
-175.8000;0.7114;1.0016;
-175.5000;0.7123;1.0064;
-175.2000;0.7114;1.0040;
-174.9000;0.7106;0.9898;
-174.6000;0.7114;0.9922;
-174.3000;0.7090;0.9922;
-174.0000;0.7066;0.9875;
-173.7000;0.7106;0.9922;
-173.4000;0.7098;0.9898;
-173.1000;0.7098;0.9875;
-172.8000;0.7106;0.9969;
-172.5000;0.7090;0.9922;
-172.2000;0.7171;1.0064;
-171.9000;0.7204;1.0111;
-171.6000;0.7114;0.9969;
-171.3000;0.7114;0.9898;
-171.0000;0.7098;0.9827;
-170.7000;0.7106;0.9851;
-170.4000;0.7131;0.9898;
-170.1000;0.7090;0.9875;
-169.8000;0.7098;0.9898;
-169.5000;0.7106;0.9922;
-169.2000;0.7106;0.9898;
-168.9000;0.7139;1.0064;
-168.6000;0.7090;1.0064;
-168.3000;0.7082;1.0087;
-168.0000;0.7196;1.0371;
-167.7000;0.7090;1.0135;
-167.4000;0.7074;0.9969;
-167.1000;0.7147;1.0040;
-166.8000;0.7114;0.9993;
-166.5000;0.7114;0.9922;
-166.2000;0.7033;0.9733;
-165.9000;0.7090;0.9875;
-165.6000;0.7098;0.9827;
-165.3000;0.7082;0.9780;
-165.0000;0.7114;0.9946;
-164.7000;0.7114;0.9993;
-164.4000;0.7123;1.0064;
-164.1000;0.7123;0.9993;
-163.8000;0.7090;0.9898;
-163.5000;0.7106;1.0016;
-163.2000;0.7057;0.9898;
-162.9000;0.7106;1.0064;
-162.6000;0.7090;0.9993;
-162.3000;0.7106;0.9993;
-162.0000;0.7057;0.9898;
-161.7000;0.7106;0.9898;
-161.4000;0.7098;0.9898;
-161.1000;0.7123;0.9969;
-160.8000;0.7106;0.9946;
-160.5000;0.7114;1.0016;
-160.2000;0.7106;0.9969;
-159.9000;0.7123;1.0064;
-159.6000;0.7106;1.0016;
-159.3000;0.7106;1.0016;
-159.0000;0.7106;1.0111;
-158.7000;0.7074;1.0040;
-158.4000;0.7090;1.0064;
-158.1000;0.7082;0.9922;
-157.8000;0.7098;0.9946;
-157.5000;0.7098;0.9875;
-157.2000;0.7098;0.9946;
-156.9000;0.7106;0.9922;
-156.6000;0.7106;0.9946;
-156.3000;0.7106;0.9993;
-156.0000;0.7139;1.0087;
-155.7000;0.7106;1.0040;
-155.4000;0.7123;1.0111;
-155.1000;0.7114;1.0135;
-154.8000;0.7114;1.0064;
-154.5000;0.7114;1.0040;
-154.2000;0.7114;1.0016;
-153.9000;0.7106;0.9946;
-153.6000;0.7131;0.9946;
-153.3000;0.7114;0.9804;
-153.0000;0.7106;0.9780;
-152.7000;0.7131;0.9780;
-152.4000;0.7057;0.9804;
-152.1000;0.7131;0.9946;
-151.8000;0.7098;0.9922;
-151.5000;0.7114;0.9969;
-151.2000;0.7114;0.9993;
-150.9000;0.7131;0.9993;
-150.6000;0.7123;0.9922;
-150.3000;0.7114;0.9898;
-150.0000;0.7114;0.9922;
-149.7000;0.7106;0.9946;
-149.4000;0.7090;0.9969;
-149.1000;0.7106;0.9946;
-148.8000;0.7228;1.0229;
-148.5000;0.7082;0.9851;
-148.2000;0.7106;0.9922;
-147.9000;0.7114;0.9898;
-147.6000;0.7131;0.9922;
-147.3000;0.7212;1.0158;
-147.0000;0.7106;0.9946;
-146.7000;0.7098;0.9993;
-146.4000;0.7163;1.0087;
-146.1000;0.7057;0.9780;
-145.8000;0.7106;0.9922;
-145.5000;0.7066;0.9827;
-145.2000;0.7098;0.9851;
-144.9000;0.7114;0.9922;
-144.6000;0.7114;0.9851;
-144.3000;0.7106;0.9851;
-144.0000;0.7123;0.9757;
-143.7000;0.7106;0.9709;
-143.4000;0.7106;0.9780;
-143.1000;0.7114;0.9875;
-142.8000;0.7196;1.0064;
-142.5000;0.7106;0.9827;
-142.2000;0.7090;0.9733;
-141.9000;0.7098;0.9780;
-141.6000;0.7106;0.9780;
-141.3000;0.7131;0.9827;
-141.0000;0.7123;0.9827;
-140.7000;0.7098;0.9827;
-140.4000;0.7098;0.9804;
-140.1000;0.7106;0.9851;
-139.8000;0.7106;0.9780;
-139.5000;0.7123;0.9757;
-139.2000;0.7147;0.9946;
-138.9000;0.7114;0.9875;
-138.6000;0.7155;0.9969;
-138.3000;0.7114;0.9898;
-138.0000;0.7123;0.9969;
-137.7000;0.7082;0.9969;
-137.4000;0.7082;0.9922;
-137.1000;0.7131;0.9898;
-136.8000;0.7106;0.9827;
-136.5000;0.7106;0.9898;
-136.2000;0.7098;0.9851;
-135.9000;0.7106;0.9875;
-135.6000;0.7098;0.9827;
-135.3000;0.7090;0.9875;
-135.0000;0.7082;0.9780;
-134.7000;0.7123;0.9827;
-134.4000;0.7106;0.9757;
-134.1000;0.7098;0.9733;
-133.8000;0.7106;0.9757;
-133.5000;0.7082;0.9686;
-133.2000;0.7212;1.0040;
-132.9000;0.7098;0.9780;
-132.6000;0.7106;0.9898;
-132.3000;0.7074;0.9898;
-132.0000;0.7098;0.9946;
-131.7000;0.7106;0.9969;
-131.4000;0.7147;1.0016;
-131.1000;0.7090;0.9827;
-130.8000;0.7098;0.9875;
-130.5000;0.7114;0.9898;
-130.2000;0.7074;0.9851;
-129.9000;0.7106;0.9922;
-129.6000;0.7114;0.9875;
-129.3000;0.7106;0.9851;
-129.0000;0.7131;0.9898;
-128.7000;0.7106;0.9733;
-128.4000;0.7082;0.9757;
-128.1000;0.7123;0.9827;
-127.8000;0.7139;0.9922;
-127.5000;0.7098;0.9804;
-127.2000;0.7123;0.9827;
-126.9000;0.7106;0.9827;
-126.6000;0.7131;0.9946;
-126.3000;0.7098;0.9922;
-126.0000;0.7082;0.9851;
-125.7000;0.7098;0.9898;
-125.4000;0.7155;1.0040;
-125.1000;0.7074;0.9827;
-124.8000;0.7139;0.9969;
-124.5000;0.7074;0.9827;
-124.2000;0.7114;0.9969;
-123.9000;0.7090;0.9969;
-123.6000;0.7090;0.9993;
-123.3000;0.7139;1.0064;
-123.0000;0.7114;0.9898;
-122.7000;0.7098;0.9851;
-122.4000;0.7114;0.9851;
-122.1000;0.7066;0.9780;
-121.8000;0.7106;0.9969;
-121.5000;0.7114;0.9969;
-121.2000;0.7098;0.9946;
-120.9000;0.7090;0.9946;
-120.6000;0.7114;1.0064;
-120.3000;0.7098;0.9875;
-120.0000;0.7098;0.9827;
-119.7000;0.7114;0.9851;
-119.4000;0.7114;0.9922;
-119.1000;0.7098;0.9946;
-118.8000;0.7090;0.9827;
-118.5000;0.7090;0.9898;
-118.2000;0.7131;1.0040;
-117.9000;0.7114;0.9946;
-117.6000;0.7098;0.9898;
-117.3000;0.7098;0.9827;
-117.0000;0.7106;0.9851;
-116.7000;0.7106;0.9898;
-116.4000;0.7106;0.9922;
-116.1000;0.7098;0.9922;
-115.8000;0.7098;0.9827;
-115.5000;0.7131;0.9875;
-115.2000;0.7123;0.9851;
-114.9000;0.7114;0.9875;
-114.6000;0.7098;0.9757;
-114.3000;0.7123;0.9709;
-114.0000;0.7106;0.9686;
-113.7000;0.7106;0.9615;
-113.4000;0.7057;0.9544;
-113.1000;0.7114;0.9733;
-112.8000;0.7106;0.9709;
-112.5000;0.7090;0.9709;
-112.2000;0.7066;0.9733;
-111.9000;0.7074;0.9757;
-111.6000;0.7098;0.9804;
-111.3000;0.7139;0.9946;
-111.0000;0.7098;0.9851;
-110.7000;0.7090;0.9827;
-110.4000;0.7098;0.9922;
-110.1000;0.7090;0.9969;
-109.8000;0.7082;0.9946;
-109.5000;0.7082;0.9898;
-109.2000;0.7114;1.0064;
-108.9000;0.7147;1.0205;
-108.6000;0.7090;1.0040;
-108.3000;0.7098;1.0040;
-108.0000;0.7114;1.0016;
-107.7000;0.7114;1.0040;
-107.4000;0.7098;0.9993;
-107.1000;0.7106;1.0016;
-106.8000;0.7114;1.0016;
-106.5000;0.7106;1.0111;
-106.2000;0.7098;1.0040;
-105.9000;0.7147;1.0111;
-105.6000;0.7106;0.9898;
-105.3000;0.7090;0.9875;
-105.0000;0.7123;0.9827;
-104.7000;0.7090;0.9757;
-104.4000;0.7114;0.9757;
-104.1000;0.7114;0.9757;
-103.8000;0.7106;0.9827;
-103.5000;0.7090;0.9851;
-103.2000;0.7098;0.9922;
-102.9000;0.7106;0.9969;
-102.6000;0.7123;0.9969;
-102.3000;0.7106;0.9969;
-102.0000;0.7106;0.9946;
-101.7000;0.7114;0.9898;
-101.4000;0.7114;0.9922;
-101.1000;0.7114;0.9875;
-100.8000;0.7098;0.9757;
-100.5000;0.7114;0.9780;
-100.2000;0.7114;0.9686;
-99.9000;0.7082;0.9615;
-99.6000;0.7098;0.9544;
-99.3000;0.7074;0.9544;
-99.0000;0.7098;0.9568;
-98.7000;0.7106;0.9709;
-98.4000;0.7090;0.9733;
-98.1000;0.7098;0.9780;
-97.8000;0.7098;0.9875;
-97.5000;0.7090;0.9922;
-97.2000;0.7098;0.9922;
-96.9000;0.7106;0.9780;
-96.6000;0.7114;0.9757;
-96.3000;0.7114;0.9757;
-96.0000;0.7098;0.9804;
-95.7000;0.7106;0.9780;
-95.4000;0.7106;0.9780;
-95.1000;0.7082;0.9638;
-94.8000;0.7090;0.9638;
-94.5000;0.7106;0.9733;
-94.2000;0.7090;0.9709;
-93.9000;0.7106;0.9804;
-93.6000;0.7098;0.9875;
-93.3000;0.7090;0.9851;
-93.0000;0.7098;0.9875;
-92.7000;0.7106;0.9827;
-92.4000;0.7123;0.9804;
-92.1000;0.7106;0.9875;
-91.8000;0.7106;0.9922;
-91.5000;0.7106;0.9969;
-91.2000;0.7155;1.0040;
-90.9000;0.7090;0.9851;
-90.6000;0.7106;0.9946;
-90.3000;0.7139;1.0016;
-90.0000;0.7106;0.9922;
-89.7000;0.7106;0.9922;
-89.4000;0.7155;0.9969;
-89.1000;0.7147;0.9969;
-88.8000;0.7106;0.9851;
-88.5000;0.7098;0.9780;
-88.2000;0.7114;0.9733;
-87.9000;0.7106;0.9733;
-87.6000;0.7131;0.9757;
-87.3000;0.7147;0.9709;
-87.0000;0.7131;0.9662;
-86.7000;0.7098;0.9686;
-86.4000;0.7090;0.9686;
-86.1000;0.7123;0.9827;
-85.8000;0.7098;0.9733;
-85.5000;0.7082;0.9804;
-85.2000;0.7082;0.9757;
-84.9000;0.7066;0.9662;
-84.6000;0.7123;0.9780;
-84.3000;0.7139;0.9804;
-84.0000;0.7114;0.9733;
-83.7000;0.7090;0.9709;
-83.4000;0.7106;0.9733;
-83.1000;0.7106;0.9757;
-82.8000;0.7098;0.9827;
-82.5000;0.7114;0.9875;
-82.2000;0.7090;0.9827;
-81.9000;0.7114;0.9827;
-81.6000;0.7123;0.9851;
-81.3000;0.7147;0.9875;
-81.0000;0.7139;0.9827;
-80.7000;0.7147;0.9827;
-80.4000;0.7123;0.9686;
-80.1000;0.7123;0.9662;
-79.8000;0.7123;0.9568;
-79.5000;0.7123;0.9591;
-79.2000;0.7123;0.9686;
-78.9000;0.7098;0.9615;
-78.6000;0.7131;0.9709;
-78.3000;0.7106;0.9638;
-78.0000;0.7098;0.9615;
-77.7000;0.7049;0.9568;
-77.4000;0.7114;0.9780;
-77.1000;0.7114;0.9733;
-76.8000;0.7098;0.9733;
-76.5000;0.7114;0.9804;
-76.2000;0.7082;0.9733;
-75.9000;0.7098;0.9780;
-75.6000;0.7106;0.9780;
-75.3000;0.7098;0.9780;
-75.0000;0.7041;0.9662;
-74.7000;0.7106;0.9875;
-74.4000;0.7106;0.9875;
-74.1000;0.7082;0.9875;
-73.8000;0.7090;0.9875;
-73.5000;0.7106;0.9922;
-73.2000;0.7106;0.9875;
-72.9000;0.7066;0.9709;
-72.6000;0.7114;0.9851;
-72.3000;0.7098;0.9780;
-72.0000;0.7114;0.9827;
-71.7000;0.7098;0.9780;
-71.4000;0.7114;0.9875;
-71.1000;0.7114;0.9922;
-70.8000;0.7131;0.9946;
-70.5000;0.7090;0.9804;
-70.2000;0.7082;0.9757;
-69.9000;0.7106;0.9780;
-69.6000;0.7123;0.9898;
-69.3000;0.7074;0.9733;
-69.0000;0.7090;0.9804;
-68.7000;0.7106;0.9898;
-68.4000;0.7082;0.9875;
-68.1000;0.7033;0.9686;
-67.8000;0.7123;0.9851;
-67.5000;0.7090;0.9851;
-67.2000;0.7123;0.9898;
-66.9000;0.7106;0.9804;
-66.6000;0.7114;0.9851;
-66.3000;0.7123;0.9875;
-66.0000;0.7123;0.9875;
-65.7000;0.7106;0.9804;
-65.4000;0.7123;0.9922;
-65.1000;0.7106;0.9851;
-64.8000;0.7106;0.9804;
-64.5000;0.7123;0.9733;
-64.2000;0.7106;0.9662;
-63.9000;0.7114;0.9615;
-63.6000;0.7114;0.9591;
-63.3000;0.7066;0.9449;
-63.0000;0.7082;0.9520;
-62.7000;0.7098;0.9568;
-62.4000;0.7098;0.9615;
-62.1000;0.7090;0.9662;
-61.8000;0.7123;0.9780;
-61.5000;0.7098;0.9827;
-61.2000;0.7082;0.9780;
-60.9000;0.7090;0.9757;
-60.6000;0.7106;0.9733;
-60.3000;0.7098;0.9591;
-60.0000;0.7074;0.9662;
-59.7000;0.7098;0.9757;
-59.4000;0.7163;1.0016;
-59.1000;0.7066;0.9757;
-58.8000;0.7098;0.9804;
-58.5000;0.7090;0.9780;
-58.2000;0.7090;0.9827;
-57.9000;0.7123;0.9827;
-57.6000;0.7090;0.9757;
-57.3000;0.7098;0.9757;
-57.0000;0.7114;0.9875;
-56.7000;0.7114;0.9804;
-56.4000;0.7098;0.9733;
-56.1000;0.7123;0.9780;
-55.8000;0.7155;0.9875;
-55.5000;0.7114;0.9757;
-55.2000;0.7082;0.9662;
-54.9000;0.7098;0.9662;
-54.6000;0.7098;0.9780;
-54.3000;0.7098;0.9780;
-54.0000;0.7090;0.9827;
-53.7000;0.7114;0.9780;
-53.4000;0.7098;0.9709;
-53.1000;0.7106;0.9686;
-52.8000;0.7114;0.9733;
-52.5000;0.7090;0.9709;
-52.2000;0.7106;0.9757;
-51.9000;0.7041;0.9591;
-51.6000;0.7114;0.9733;
-51.3000;0.7025;0.9497;
-51.0000;0.7082;0.9757;
-50.7000;0.7123;0.9851;
-50.4000;0.7123;0.9898;
-50.1000;0.7163;1.0016;
-49.8000;0.7114;0.9851;
-49.5000;0.7123;0.9851;
-49.2000;0.7041;0.9662;
-48.9000;0.7098;0.9757;
-48.6000;0.7123;0.9757;
-48.3000;0.7082;0.9804;
-48.0000;0.7131;0.9993;
-47.7000;0.7114;0.9922;
-47.4000;0.7106;0.9851;
-47.1000;0.7106;0.9898;
-46.8000;0.7114;0.9827;
-46.5000;0.7123;0.9898;
-46.2000;0.7098;0.9898;
-45.9000;0.7082;0.9898;
-45.6000;0.7082;0.9922;
-45.3000;0.7123;1.0016;
-45.0000;0.7106;0.9969;
-44.7000;0.7098;0.9898;
-44.4000;0.7106;0.9922;
-44.1000;0.7082;0.9851;
-43.8000;0.7098;0.9780;
-43.5000;0.7139;0.9922;
-43.2000;0.7106;0.9827;
-42.9000;0.7106;0.9898;
-42.6000;0.7106;0.9993;
-42.3000;0.7098;0.9946;
-42.0000;0.7098;1.0016;
-41.7000;0.7114;1.0040;
-41.4000;0.7098;0.9969;
-41.1000;0.7114;0.9875;
-40.8000;0.7106;0.9804;
-40.5000;0.7098;0.9898;
-40.2000;0.7114;0.9946;
-39.9000;0.7090;0.9804;
-39.6000;0.7090;0.9804;
-39.3000;0.7147;0.9946;
-39.0000;0.7131;0.9946;
-38.7000;0.7106;0.9946;
-38.4000;0.7139;0.9969;
-38.1000;0.7066;0.9780;
-37.8000;0.7114;0.9875;
-37.5000;0.7106;0.9851;
-37.2000;0.7082;0.9780;
-36.9000;0.7090;0.9898;
-36.6000;0.7106;0.9969;
-36.3000;0.7098;0.9969;
-36.0000;0.7114;0.9946;
-35.7000;0.7106;0.9946;
-35.4000;0.7098;0.9946;
-35.1000;0.7131;0.9969;
-34.8000;0.7114;0.9875;
-34.5000;0.7074;0.9733;
-34.2000;0.7090;0.9780;
-33.9000;0.7106;0.9804;
-33.6000;0.7090;0.9851;
-33.3000;0.7106;0.9898;
-33.0000;0.7114;0.9922;
-32.7000;0.7114;0.9898;
-32.4000;0.7090;0.9851;
-32.1000;0.7106;0.9898;
-31.8000;0.7106;0.9922;
-31.5000;0.7066;0.9780;
-31.2000;0.7106;0.9875;
-30.9000;0.7066;0.9875;
-30.6000;0.7106;1.0064;
-30.3000;0.7131;1.0135;
-30.0000;0.7123;1.0016;
-29.7000;0.7106;1.0016;
-29.4000;0.7106;1.0040;
-29.1000;0.7114;1.0016;
-28.8000;0.7114;0.9969;
-28.5000;0.7090;0.9827;
-28.2000;0.7098;0.9946;
-27.9000;0.7098;0.9969;
-27.6000;0.7098;0.9969;
-27.3000;0.7106;0.9993;
-27.0000;0.7082;0.9993;
-26.7000;0.7082;0.9993;
-26.4000;0.7106;0.9993;
-26.1000;0.7090;0.9969;
-25.8000;0.7049;0.9804;
-25.5000;0.7106;0.9898;
-25.2000;0.7090;0.9851;
-24.9000;0.7131;0.9851;
-24.6000;0.7114;0.9780;
-24.3000;0.7114;0.9686;
-24.0000;0.7106;0.9757;
-23.7000;0.7074;0.9662;
-23.4000;0.7098;0.9757;
-23.1000;0.7090;0.9780;
-22.8000;0.7098;0.9757;
-22.5000;0.7106;0.9780;
-22.2000;0.7106;0.9851;
-21.9000;0.7114;0.9827;
-21.6000;0.7123;0.9804;
-21.3000;0.7106;0.9827;
-21.0000;0.7106;0.9851;
-20.7000;0.7049;0.9733;
-20.4000;0.7106;0.9827;
-20.1000;0.7106;0.9898;
-19.8000;0.7106;0.9969;
-19.5000;0.7098;0.9993;
-19.2000;0.7106;1.0016;
-18.9000;0.7114;0.9898;
-18.6000;0.7114;0.9827;
-18.3000;0.7123;0.9780;
-18.0000;0.7106;0.9757;
-17.7000;0.7098;0.9757;
-17.4000;0.7114;0.9780;
-17.1000;0.7114;0.9827;
-16.8000;0.7114;0.9827;
-16.5000;0.7114;0.9757;
-16.2000;0.7131;0.9875;
-15.9000;0.7106;0.9875;
-15.6000;0.7074;0.9851;
-15.3000;0.7188;1.0064;
-15.0000;0.7106;0.9827;
-14.7000;0.7106;0.9875;
-14.4000;0.7098;0.9851;
-14.1000;0.7131;0.9946;
-13.8000;0.7123;0.9922;
-13.5000;0.7098;0.9875;
-13.2000;0.7066;0.9757;
-12.9000;0.7123;0.9827;
-12.6000;0.7114;0.9780;
-12.3000;0.7098;0.9780;
-12.0000;0.7114;0.9922;
-11.7000;0.7106;0.9875;
-11.4000;0.7033;0.9709;
-11.1000;0.7090;0.9851;
-10.8000;0.7123;0.9851;
-10.5000;0.7114;0.9780;
-10.2000;0.7123;0.9780;
-9.9000;0.7098;0.9638;
-9.6000;0.7114;0.9662;
-9.3000;0.7123;0.9757;
-9.0000;0.7090;0.9804;
-8.7000;0.7114;0.9922;
-8.4000;0.7114;0.9851;
-8.1000;0.7098;0.9733;
-7.8000;0.7090;0.9709;
-7.5000;0.7114;0.9851;
-7.2000;0.7106;0.9922;
-6.9000;0.7147;1.0016;
-6.6000;0.7131;0.9922;
-6.3000;0.7147;0.9969;
-6.0000;0.7123;0.9969;
-5.7000;0.7123;0.9993;
-5.4000;0.7114;0.9993;
-5.1000;0.7123;0.9922;
-4.8000;0.7098;0.9946;
-4.5000;0.7098;0.9898;
-4.2000;0.7090;0.9898;
-3.9000;0.7098;0.9969;
-3.6000;0.7114;0.9922;
-3.3000;0.7082;0.9898;
-3.0000;0.7098;0.9898;
-2.7000;0.7090;0.9898;
-2.4000;0.7106;0.9875;
-2.1000;0.7114;0.9922;
-1.8000;0.7123;0.9993;
-1.5000;0.7106;1.0016;
-1.2000;0.7049;0.9922;
-0.9000;0.7114;1.0064;
-0.6000;0.7123;1.0064;
-0.3000;0.7131;1.0064;
0.0000;0.7131;1.0064;
0.3000;0.7261;1.0229;
0.6000;0.7595;1.0678;
0.9000;0.7823;1.1150;
1.2000;0.7993;1.1623;
1.5000;0.8140;1.2048;
1.8000;0.8238;1.2213;
2.1000;0.8335;1.2426;
2.4000;0.8400;1.2709;
2.7000;0.8506;1.2828;
3.0000;0.8539;1.2851;
3.3000;0.8604;1.2922;
3.6000;0.8596;1.2946;
3.9000;0.8685;1.3111;
4.2000;0.8718;1.3182;
4.5000;0.8742;1.3182;
4.8000;0.8791;1.3182;
5.1000;0.8807;1.3158;
5.4000;0.8832;1.3253;
5.7000;0.8856;1.3347;
6.0000;0.8889;1.3395;
6.3000;0.8913;1.3418;
6.6000;0.8938;1.3442;
6.9000;0.8921;1.3442;
7.2000;0.8995;1.3560;
7.5000;0.8970;1.3607;
7.8000;0.9003;1.3560;
8.1000;0.9044;1.3631;
8.4000;0.9068;1.3607;
8.7000;0.9109;1.3631;
9.0000;0.9092;1.3560;
9.3000;0.9117;1.3607;
9.6000;0.9149;1.3560;
9.9000;0.9133;1.3584;
10.2000;0.9166;1.3607;
10.5000;0.9182;1.3560;
10.8000;0.9190;1.3442;
11.1000;0.9182;1.3418;
11.4000;0.9198;1.3465;
11.7000;0.9223;1.3418;
12.0000;0.9223;1.3442;
12.3000;0.9247;1.3418;
12.6000;0.9255;1.3371;
12.9000;0.9271;1.3395;
13.2000;0.9288;1.3465;
13.5000;0.9296;1.3513;
13.8000;0.9320;1.3513;
14.1000;0.9337;1.3536;
14.4000;0.9345;1.3560;
14.7000;0.9345;1.3536;
15.0000;0.9353;1.3465;
15.3000;0.9328;1.3371;
15.6000;0.9361;1.3465;
15.9000;0.9394;1.3513;
16.2000;0.9459;1.3702;
16.5000;0.9402;1.3584;
16.8000;0.9410;1.3418;
17.1000;0.9442;1.3489;
17.4000;0.9442;1.3418;
17.7000;0.9426;1.3395;
18.0000;0.9451;1.3395;
18.3000;0.9410;1.3229;
18.6000;0.9467;1.3395;
18.9000;0.9483;1.3489;
19.2000;0.9467;1.3489;
19.5000;0.9483;1.3489;
19.8000;0.9532;1.3607;
20.1000;0.9475;1.3513;
20.4000;0.9459;1.3442;
20.7000;0.9483;1.3465;
21.0000;0.9491;1.3513;
21.3000;0.9516;1.3631;
21.6000;0.9524;1.3607;
21.9000;0.9516;1.3584;
22.2000;0.9524;1.3536;
22.5000;0.9532;1.3489;
22.8000;0.9556;1.3418;
23.1000;0.9540;1.3371;
23.4000;0.9573;1.3418;
23.7000;0.9556;1.3395;
24.0000;0.9540;1.3324;
24.3000;0.9499;1.3229;
24.6000;0.9589;1.3489;
24.9000;0.9573;1.3418;
25.2000;0.9581;1.3418;
25.5000;0.9581;1.3418;
25.8000;0.9573;1.3489;
26.1000;0.9613;1.3536;
26.4000;0.9613;1.3607;
26.7000;0.9589;1.3584;
27.0000;0.9581;1.3465;
27.3000;0.9548;1.3347;
27.6000;0.9589;1.3513;
27.9000;0.9597;1.3513;
28.2000;0.9638;1.3725;
28.5000;0.9589;1.3513;
28.8000;0.9605;1.3536;
29.1000;0.9613;1.3560;
29.4000;0.9613;1.3536;
29.7000;0.9621;1.3513;
30.0000;0.9638;1.3607;
30.3000;0.9605;1.3560;
30.6000;0.9638;1.3678;
30.9000;0.9630;1.3631;
31.2000;0.9646;1.3631;
31.5000;0.9646;1.3678;
31.8000;0.9621;1.3631;
32.1000;0.9630;1.3560;
32.4000;0.9646;1.3536;
32.7000;0.9597;1.3442;
33.0000;0.9646;1.3560;
33.3000;0.9654;1.3584;
33.6000;0.9613;1.3607;
33.9000;0.9654;1.3678;
34.2000;0.9662;1.3654;
34.5000;0.9662;1.3702;
34.8000;0.9654;1.3702;
35.1000;0.9646;1.3702;
35.4000;0.9646;1.3749;
35.7000;0.9662;1.3725;
36.0000;0.9662;1.3678;
36.3000;0.9654;1.3560;
36.6000;0.9670;1.3513;
36.9000;0.9670;1.3536;
37.2000;0.9670;1.3607;
37.5000;0.9687;1.3607;
37.8000;0.9678;1.3513;
38.1000;0.9719;1.3631;
38.4000;0.9711;1.3678;
38.7000;0.9654;1.3678;
39.0000;0.9678;1.3796;
39.3000;0.9719;1.3985;
39.6000;0.9662;1.3867;
39.9000;0.9621;1.3654;
40.2000;0.9719;1.3820;
40.5000;0.9695;1.3843;
40.8000;0.9662;1.3749;
41.1000;0.9678;1.3773;
41.4000;0.9687;1.3843;
41.7000;0.9678;1.3773;
42.0000;0.9695;1.3749;
42.3000;0.9711;1.3820;
42.6000;0.9678;1.3820;
42.9000;0.9719;1.3867;
43.2000;0.9687;1.3796;
43.5000;0.9695;1.3725;
43.8000;0.9703;1.3796;
44.1000;0.9719;1.3796;
44.4000;0.9687;1.3820;
44.7000;0.9695;1.3702;
45.0000;0.9768;1.3891;
45.3000;0.9695;1.3702;
45.6000;0.9703;1.3654;
45.9000;0.9703;1.3654;
46.2000;0.9695;1.3607;
46.5000;0.9711;1.3584;
46.8000;0.9801;1.3820;
47.1000;0.9719;1.3631;
47.4000;0.9719;1.3631;
47.7000;0.9727;1.3607;
48.0000;0.9727;1.3560;
48.3000;0.9719;1.3607;
48.6000;0.9711;1.3631;
48.9000;0.9719;1.3749;
49.2000;0.9719;1.3725;
49.5000;0.9719;1.3702;
49.8000;0.9719;1.3702;
50.1000;0.9711;1.3678;
50.4000;0.9695;1.3678;
50.7000;0.9719;1.3725;
51.0000;0.9727;1.3749;
51.3000;0.9744;1.3749;
51.6000;0.9735;1.3702;
51.9000;0.9760;1.3820;
52.2000;0.9654;1.3584;
52.5000;0.9735;1.3725;
52.8000;0.9727;1.3702;
53.1000;0.9719;1.3749;
53.4000;0.9727;1.3654;
53.7000;0.9695;1.3584;
54.0000;0.9760;1.3654;
54.3000;0.9727;1.3536;
54.6000;0.9719;1.3465;
54.9000;0.9703;1.3489;
55.2000;0.9711;1.3513;
55.5000;0.9719;1.3560;
55.8000;0.9711;1.3536;
56.1000;0.9801;1.3749;
56.4000;0.9744;1.3513;
56.7000;0.9752;1.3513;
57.0000;0.9719;1.3513;
57.3000;0.9735;1.3489;
57.6000;0.9744;1.3465;
57.9000;0.9703;1.3442;
58.2000;0.9760;1.3536;
58.5000;0.9727;1.3513;
58.8000;0.9735;1.3560;
59.1000;0.9735;1.3513;
59.4000;0.9776;1.3654;
59.7000;0.9784;1.3678;
60.0000;0.9744;1.3536;
60.3000;0.9727;1.3536;
60.6000;0.9703;1.3489;
60.9000;0.9735;1.3584;
61.2000;0.9760;1.3607;
61.5000;0.9678;1.3347;
61.8000;0.9752;1.3513;
62.1000;0.9776;1.3489;
62.4000;0.9735;1.3395;
62.7000;0.9735;1.3371;
63.0000;0.9752;1.3371;
63.3000;0.9735;1.3347;
63.6000;0.9752;1.3371;
63.9000;0.9638;1.3253;
64.2000;0.9727;1.3418;
64.5000;0.9752;1.3489;
64.8000;0.9687;1.3371;
65.1000;0.9727;1.3489;
65.4000;0.9727;1.3418;
65.7000;0.9735;1.3418;
66.0000;0.9744;1.3371;
66.3000;0.9744;1.3347;
66.6000;0.9752;1.3395;
66.9000;0.9939;1.3843;
67.2000;0.9744;1.3371;
67.5000;0.9752;1.3418;
67.8000;0.9703;1.3347;
68.1000;0.9727;1.3489;
68.4000;0.9744;1.3489;
68.7000;0.9752;1.3489;
69.0000;0.9866;1.3796;
69.3000;0.9752;1.3465;
69.6000;0.9727;1.3371;
69.9000;0.9735;1.3395;
70.2000;0.9752;1.3442;
70.5000;0.9744;1.3395;
70.8000;0.9760;1.3418;
71.1000;0.9719;1.3442;
71.4000;0.9719;1.3513;
71.7000;0.9744;1.3513;
72.0000;0.9768;1.3584;
72.3000;0.9760;1.3560;
72.6000;0.9768;1.3536;
72.9000;0.9760;1.3536;
73.2000;0.9776;1.3584;
73.5000;0.9735;1.3513;
73.8000;0.9760;1.3560;
74.1000;0.9776;1.3560;
74.4000;0.9760;1.3513;
74.7000;0.9752;1.3536;
75.0000;0.9768;1.3607;
75.3000;0.9768;1.3654;
75.6000;0.9760;1.3678;
75.9000;0.9760;1.3631;
76.2000;0.9825;1.3749;
76.5000;0.9752;1.3442;
76.8000;0.9735;1.3418;
77.1000;0.9735;1.3442;
77.4000;0.9752;1.3442;
77.7000;0.9735;1.3465;
78.0000;0.9727;1.3465;
78.3000;0.9752;1.3536;
78.6000;0.9727;1.3442;
78.9000;0.9744;1.3418;
79.2000;0.9849;1.3678;
79.5000;0.9727;1.3347;
79.8000;0.9768;1.3418;
80.1000;0.9752;1.3324;
80.4000;0.9768;1.3418;
80.7000;0.9744;1.3371;
81.0000;0.9727;1.3371;
81.3000;0.9752;1.3395;
81.6000;0.9735;1.3371;
81.9000;0.9768;1.3489;
82.2000;0.9719;1.3347;
82.5000;0.9752;1.3489;
82.8000;0.9760;1.3465;
83.1000;0.9768;1.3442;
83.4000;0.9784;1.3489;
83.7000;0.9752;1.3395;
84.0000;0.9768;1.3489;
84.3000;0.9752;1.3347;
84.6000;0.9744;1.3300;
84.9000;0.9776;1.3442;
85.2000;0.9776;1.3418;
85.5000;0.9735;1.3300;
85.8000;0.9817;1.3489;
86.1000;0.9760;1.3442;
86.4000;0.9752;1.3513;
86.7000;0.9809;1.3702;
87.0000;0.9792;1.3725;
87.3000;0.9768;1.3725;
87.6000;0.9784;1.3631;
87.9000;0.9784;1.3631;
88.2000;0.9760;1.3560;
88.5000;0.9735;1.3465;
88.8000;0.9768;1.3442;
89.1000;0.9760;1.3418;
89.4000;0.9760;1.3395;
89.7000;0.9760;1.3442;
90.0000;0.9752;1.3442;
90.3000;0.9744;1.3489;
90.6000;0.9744;1.3560;
90.9000;0.9768;1.3584;
91.2000;0.9768;1.3584;
91.5000;0.9776;1.3607;
91.8000;0.9776;1.3536;
92.1000;0.9744;1.3536;
92.4000;0.9768;1.3536;
92.7000;0.9768;1.3536;
93.0000;0.9817;1.3654;
93.3000;0.9727;1.3489;
93.6000;0.9768;1.3584;
93.9000;0.9744;1.3631;
94.2000;0.9776;1.3631;
94.5000;0.9768;1.3702;
94.8000;0.9801;1.3773;
95.1000;0.9768;1.3725;
95.4000;0.9744;1.3654;
95.7000;0.9760;1.3654;
96.0000;0.9792;1.3678;
96.3000;0.9792;1.3584;
96.6000;0.9760;1.3465;
96.9000;0.9752;1.3395;
97.2000;0.9776;1.3489;
97.5000;0.9703;1.3276;
97.8000;0.9768;1.3489;
98.1000;0.9752;1.3465;
98.4000;0.9792;1.3536;
98.7000;0.9776;1.3489;
99.0000;0.9792;1.3678;
99.3000;0.9784;1.3820;
99.6000;0.9784;1.3820;
99.9000;0.9727;1.3678;
100.2000;0.9776;1.3820;
100.5000;0.9784;1.3796;
100.8000;0.9760;1.3678;
101.1000;0.9858;1.3867;
101.4000;0.9760;1.3749;
101.7000;0.9760;1.3820;
102.0000;0.9744;1.3796;
102.3000;0.9784;1.3820;
102.6000;0.9752;1.3749;
102.9000;0.9768;1.3749;
103.2000;0.9768;1.3725;
103.5000;0.9760;1.3773;
103.8000;0.9687;1.3702;
104.1000;0.9760;1.3773;
104.4000;0.9768;1.3725;
104.7000;0.9752;1.3725;
105.0000;0.9752;1.3749;
105.3000;0.9809;1.3843;
105.6000;0.9760;1.3725;
105.9000;0.9760;1.3654;
106.2000;0.9768;1.3631;
106.5000;0.9768;1.3631;
106.8000;0.9776;1.3560;
107.1000;0.9768;1.3489;
107.4000;0.9776;1.3631;
107.7000;0.9768;1.3654;
108.0000;0.9768;1.3584;
108.3000;0.9760;1.3513;
108.6000;0.9768;1.3442;
108.9000;0.9776;1.3395;
109.2000;0.9833;1.3560;
109.5000;0.9784;1.3465;
109.8000;0.9768;1.3418;
110.1000;0.9768;1.3489;
110.4000;0.9776;1.3489;
110.7000;0.9784;1.3654;
111.0000;0.9752;1.3513;
111.3000;0.9776;1.3560;
111.6000;0.9784;1.3536;
111.9000;0.9768;1.3560;
112.2000;0.9768;1.3584;
112.5000;0.9760;1.3631;
112.8000;0.9735;1.3513;
113.1000;0.9784;1.3654;
113.4000;0.9760;1.3584;
113.7000;0.9768;1.3607;
114.0000;0.9825;1.3796;
114.3000;0.9784;1.3725;
114.6000;0.9784;1.3678;
114.9000;0.9792;1.3607;
115.2000;0.9760;1.3584;
115.5000;0.9768;1.3607;
115.8000;0.9776;1.3584;
116.1000;0.9776;1.3607;
116.4000;0.9768;1.3584;
116.7000;0.9776;1.3536;
117.0000;0.9760;1.3513;
117.3000;0.9768;1.3513;
117.6000;0.9768;1.3536;
117.9000;0.9768;1.3607;
118.2000;0.9776;1.3678;
118.5000;0.9776;1.3654;
118.8000;0.9776;1.3654;
119.1000;0.9752;1.3465;
119.4000;0.9792;1.3631;
119.7000;0.9760;1.3560;
120.0000;0.9768;1.3584;
120.3000;0.9727;1.3489;
120.6000;0.9744;1.3489;
120.9000;0.9744;1.3395;
121.2000;0.9768;1.3371;
121.5000;0.9752;1.3371;
121.8000;0.9760;1.3418;
122.1000;0.9752;1.3465;
122.4000;0.9768;1.3536;
122.7000;0.9744;1.3465;
123.0000;0.9744;1.3489;
123.3000;0.9752;1.3489;
123.6000;0.9784;1.3513;
123.9000;0.9752;1.3513;
124.2000;0.9744;1.3418;
124.5000;0.9776;1.3465;
124.8000;0.9833;1.3607;
125.1000;0.9760;1.3442;
125.4000;0.9768;1.3513;
125.7000;0.9752;1.3513;
126.0000;0.9776;1.3607;
126.3000;0.9719;1.3584;
126.6000;0.9752;1.3654;
126.9000;0.9744;1.3607;
127.2000;0.9768;1.3607;
127.5000;0.9768;1.3584;
127.8000;0.9760;1.3536;
128.1000;0.9687;1.3347;
128.4000;0.9760;1.3465;
128.7000;0.9752;1.3513;
129.0000;0.9752;1.3584;
129.3000;0.9752;1.3631;
129.6000;0.9760;1.3584;
129.9000;0.9760;1.3560;
130.2000;0.9752;1.3536;
130.5000;0.9744;1.3513;
130.8000;0.9752;1.3584;
131.1000;0.9760;1.3584;
131.4000;0.9744;1.3513;
131.7000;0.9744;1.3513;
132.0000;0.9752;1.3513;
132.3000;0.9776;1.3631;
132.6000;0.9776;1.3678;
132.9000;0.9744;1.3560;
133.2000;0.9760;1.3607;
133.5000;0.9776;1.3725;
133.8000;0.9760;1.3702;
134.1000;0.9735;1.3607;
134.4000;0.9776;1.3678;
134.7000;0.9776;1.3654;
135.0000;0.9768;1.3631;
135.3000;0.9776;1.3607;
135.6000;0.9768;1.3607;
135.9000;0.9760;1.3536;
136.2000;0.9752;1.3584;
136.5000;0.9776;1.3654;
136.8000;0.9760;1.3607;
137.1000;0.9752;1.3489;
137.4000;0.9784;1.3442;
137.7000;0.9760;1.3513;
138.0000;0.9841;1.3654;
138.3000;0.9776;1.3489;
138.6000;0.9784;1.3536;
138.9000;0.9784;1.3418;
139.2000;0.9735;1.3300;
139.5000;0.9776;1.3395;
139.8000;0.9760;1.3395;
140.1000;0.9776;1.3465;
140.4000;0.9760;1.3442;
140.7000;0.9768;1.3395;
141.0000;0.9768;1.3418;
141.3000;0.9801;1.3489;
141.6000;0.9768;1.3371;
141.9000;0.9760;1.3324;
142.2000;0.9760;1.3324;
142.5000;0.9768;1.3371;
142.8000;0.9760;1.3371;
143.1000;0.9784;1.3442;
143.4000;0.9760;1.3442;
143.7000;0.9760;1.3513;
144.0000;0.9784;1.3631;
144.3000;0.9809;1.3654;
144.6000;0.9768;1.3560;
144.9000;0.9768;1.3536;
145.2000;0.9768;1.3560;
145.5000;0.9727;1.3418;
145.8000;0.9768;1.3465;
146.1000;0.9727;1.3395;
146.4000;0.9768;1.3442;
146.7000;0.9768;1.3371;
147.0000;0.9752;1.3395;
147.3000;0.9768;1.3395;
147.6000;0.9760;1.3465;
147.9000;0.9760;1.3536;
148.2000;0.9760;1.3536;
148.5000;0.9760;1.3513;
148.8000;0.9776;1.3536;
149.1000;0.9784;1.3584;
149.4000;0.9776;1.3442;
149.7000;0.9776;1.3465;
150.0000;0.9776;1.3584;
150.3000;0.9768;1.3631;
150.6000;0.9760;1.3702;
150.9000;0.9744;1.3584;
151.2000;0.9817;1.3725;
151.5000;0.9792;1.3678;
151.8000;0.9768;1.3654;
152.1000;0.9768;1.3654;
152.4000;0.9760;1.3584;
152.7000;0.9752;1.3584;
153.0000;0.9768;1.3631;
153.3000;0.9760;1.3584;
153.6000;0.9760;1.3560;
153.9000;0.9760;1.3489;
154.2000;0.9801;1.3584;
154.5000;0.9760;1.3513;
154.8000;0.9752;1.3465;
155.1000;0.9768;1.3442;
155.4000;0.9776;1.3489;
155.7000;0.9760;1.3536;
156.0000;0.9768;1.3536;
156.3000;0.9752;1.3536;
156.6000;0.9776;1.3513;
156.9000;0.9776;1.3465;
157.2000;0.9752;1.3418;
157.5000;0.9776;1.3489;
157.8000;0.9752;1.3442;
158.1000;0.9768;1.3465;
158.4000;0.9760;1.3442;
158.7000;0.9719;1.3371;
159.0000;0.9744;1.3371;
159.3000;0.9776;1.3418;
159.6000;0.9752;1.3371;
159.9000;0.9760;1.3371;
160.2000;0.9768;1.3371;
160.5000;0.9784;1.3371;
160.8000;0.9776;1.3395;
161.1000;0.9760;1.3347;
161.4000;0.9768;1.3347;
161.7000;0.9752;1.3324;
162.0000;0.9752;1.3229;
162.3000;0.9768;1.3324;
162.6000;0.9841;1.3465;
162.9000;0.9768;1.3229;
163.2000;0.9768;1.3229;
163.5000;0.9760;1.3276;
163.8000;0.9768;1.3418;
164.1000;0.9776;1.3395;
164.4000;0.9809;1.3418;
164.7000;0.9776;1.3324;
165.0000;0.9760;1.3253;
165.3000;0.9784;1.3300;
165.6000;0.9776;1.3395;
165.9000;0.9768;1.3347;
166.2000;0.9776;1.3371;
166.5000;0.9768;1.3253;
166.8000;0.9760;1.3300;
167.1000;0.9776;1.3347;
167.4000;0.9752;1.3371;
167.7000;0.9776;1.3395;
168.0000;0.9768;1.3442;
168.3000;0.9784;1.3536;
168.6000;0.9752;1.3395;
168.9000;0.9752;1.3371;
169.2000;0.9727;1.3300;
169.5000;0.9768;1.3465;
169.8000;0.9760;1.3442;
170.1000;0.9768;1.3465;
170.4000;0.9752;1.3347;
170.7000;0.9776;1.3371;
171.0000;0.9760;1.3300;
171.3000;0.9752;1.3300;
171.6000;0.9809;1.3465;
171.9000;0.9760;1.3395;
172.2000;0.9727;1.3395;
172.5000;0.9752;1.3465;
172.8000;0.9760;1.3465;
173.1000;0.9735;1.3489;
173.4000;0.9768;1.3560;
173.7000;0.9695;1.3371;
174.0000;0.9760;1.3584;
174.3000;0.9784;1.3631;
174.6000;0.9801;1.3607;
174.9000;0.9792;1.3513;
175.2000;0.9784;1.3442;
175.5000;0.9776;1.3442;
175.8000;0.9776;1.3418;
176.1000;0.9776;1.3395;
176.4000;0.9768;1.3395;
176.7000;0.9768;1.3418;
177.0000;0.9776;1.3395;
177.3000;0.9768;1.3418;
177.6000;0.9776;1.3442;
177.9000;0.9776;1.3442;
178.2000;0.9858;1.3678;
178.5000;0.9784;1.3489;
178.8000;0.9776;1.3465;
179.1000;0.9768;1.3513;
179.4000;0.9760;1.3489;
179.7000;0.9776;1.3584;
180.0000;0.9792;1.3584;
180.3000;0.9768;1.3513;
180.6000;0.9784;1.3560;
180.9000;0.9792;1.3536;
181.2000;0.9768;1.3442;
181.5000;0.9768;1.3442;
181.8000;0.9760;1.3371;
182.1000;0.9768;1.3418;
182.4000;0.9776;1.3560;
182.7000;0.9768;1.3607;
183.0000;0.9752;1.3536;
183.3000;0.9768;1.3560;
183.6000;0.9776;1.3584;
183.9000;0.9752;1.3536;
184.2000;0.9744;1.3442;
184.5000;0.9776;1.3371;
184.8000;0.9760;1.3371;
185.1000;0.9776;1.3418;
185.4000;0.9760;1.3418;
185.7000;0.9752;1.3418;
186.0000;0.9776;1.3347;
186.3000;0.9752;1.3276;
186.6000;0.9752;1.3229;
186.9000;0.9727;1.3276;
187.2000;0.9752;1.3347;
187.5000;0.9752;1.3276;
187.8000;0.9776;1.3300;
188.1000;0.9735;1.3300;
188.4000;0.9744;1.3300;
188.7000;0.9760;1.3465;
189.0000;0.9768;1.3654;
189.3000;0.9735;1.3607;
189.6000;0.9752;1.3631;
189.9000;0.9735;1.3536;
190.2000;0.9776;1.3513;
190.5000;0.9768;1.3536;
190.8000;0.9768;1.3536;
191.1000;0.9776;1.3442;
191.4000;0.9768;1.3418;
191.7000;0.9752;1.3513;
192.0000;0.9776;1.3489;
192.3000;0.9817;1.3560;
192.6000;0.9776;1.3442;
192.9000;0.9760;1.3347;
193.2000;0.9719;1.3276;
193.5000;0.9719;1.3276;
193.8000;0.9776;1.3489;
194.1000;0.9735;1.3300;
194.4000;0.9744;1.3324;
194.7000;0.9735;1.3324;
195.0000;0.9752;1.3489;
195.3000;0.9752;1.3489;
195.6000;0.9744;1.3465;
195.9000;0.9703;1.3324;
196.2000;0.9752;1.3465;
196.5000;0.9760;1.3465;
196.8000;0.9768;1.3536;
197.1000;0.9817;1.3631;
197.4000;0.9744;1.3418;
197.7000;0.9735;1.3395;
198.0000;0.9760;1.3371;
198.3000;0.9735;1.3371;
198.6000;0.9744;1.3347;
198.9000;0.9760;1.3324;
199.2000;0.9752;1.3442;
199.5000;0.9776;1.3442;
199.8000;0.9752;1.3347;
200.1000;0.9760;1.3418;
200.4000;0.9760;1.3442;
200.7000;0.9735;1.3442;
201.0000;0.9768;1.3395;
201.3000;0.9768;1.3442;
201.6000;0.9735;1.3489;
201.9000;0.9776;1.3631;
202.2000;0.9760;1.3607;
202.5000;0.9752;1.3678;
202.8000;0.9760;1.3749;
203.1000;0.9760;1.3749;
203.4000;0.9711;1.3654;
203.7000;0.9768;1.3678;
204.0000;0.9760;1.3584;
204.3000;0.9776;1.3513;
204.6000;0.9760;1.3489;
204.9000;0.9784;1.3536;
205.2000;0.9760;1.3560;
205.5000;0.9776;1.3513;
205.8000;0.9776;1.3465;
206.1000;0.9776;1.3513;
206.4000;0.9760;1.3513;
206.7000;0.9735;1.3442;
207.0000;0.9768;1.3465;
207.3000;0.9760;1.3442;
207.6000;0.9768;1.3489;
207.9000;0.9768;1.3465;
208.2000;0.9760;1.3489;
208.5000;0.9768;1.3489;
208.8000;0.9752;1.3371;
209.1000;0.9801;1.3513;
209.4000;0.9735;1.3489;
209.7000;0.9752;1.3465;
210.0000;0.9760;1.3513;
210.3000;0.9768;1.3560;
210.6000;0.9776;1.3631;
210.9000;0.9752;1.3560;
211.2000;0.9752;1.3654;
211.5000;0.9719;1.3631;
211.8000;0.9744;1.3702;
212.1000;0.9752;1.3749;
212.4000;0.9711;1.3702;
212.7000;0.9727;1.3725;
213.0000;0.9744;1.3702;
213.3000;0.9703;1.3489;
213.6000;0.9744;1.3536;
213.9000;0.9768;1.3513;
214.2000;0.9760;1.3536;
214.5000;0.9760;1.3442;
214.8000;0.9752;1.3489;
215.1000;0.9744;1.3418;
215.4000;0.9744;1.3395;
215.7000;0.9801;1.3489;
216.0000;0.9744;1.3395;
216.3000;0.9817;1.3560;
216.6000;0.9760;1.3395;
216.9000;0.9776;1.3442;
217.2000;0.9727;1.3300;
217.5000;0.9654;1.3087;
217.8000;0.9776;1.3324;
218.1000;0.9809;1.3489;
218.4000;0.9760;1.3418;
218.7000;0.9760;1.3442;
219.0000;0.9776;1.3418;
219.3000;0.9752;1.3395;
219.6000;0.9744;1.3300;
219.9000;0.9760;1.3395;
220.2000;0.9752;1.3489;
220.5000;0.9760;1.3489;
220.8000;0.9768;1.3536;
221.1000;0.9719;1.3371;
221.4000;0.9768;1.3536;
221.7000;0.9760;1.3584;
222.0000;0.9752;1.3536;
222.3000;0.9735;1.3442;
222.6000;0.9792;1.3560;
222.9000;0.9760;1.3513;
223.2000;0.9744;1.3442;
223.5000;0.9760;1.3465;
223.8000;0.9752;1.3489;
224.1000;0.9744;1.3560;
224.4000;0.9752;1.3536;
224.7000;0.9744;1.3536;
225.0000;0.9735;1.3418;
225.3000;0.9752;1.3513;
225.6000;0.9768;1.3442;
225.9000;0.9744;1.3300;
226.2000;0.9752;1.3371;
226.5000;0.9760;1.3489;
226.8000;0.9776;1.3584;
227.1000;0.9768;1.3607;
227.4000;0.9768;1.3584;
227.7000;0.9768;1.3607;
228.0000;0.9752;1.3607;
228.3000;0.9760;1.3607;
228.6000;0.9744;1.3560;
228.9000;0.9760;1.3584;
229.2000;0.9760;1.3560;
229.5000;0.9817;1.3702;
229.8000;0.9744;1.3513;
230.1000;0.9768;1.3489;
230.4000;0.9752;1.3418;
230.7000;0.9760;1.3418;
231.0000;0.9760;1.3347;
231.3000;0.9727;1.3276;
231.6000;0.9752;1.3347;
231.9000;0.9760;1.3300;
232.2000;0.9744;1.3347;
232.5000;0.9784;1.3347;
232.8000;0.9735;1.3276;
233.1000;0.9752;1.3300;
233.4000;0.9744;1.3276;
233.7000;0.9752;1.3347;
234.0000;0.9768;1.3324;
234.3000;0.9752;1.3276;
234.6000;0.9744;1.3229;
234.9000;0.9646;1.3017;
235.2000;0.9776;1.3395;
235.5000;0.9760;1.3418;
235.8000;0.9760;1.3465;
236.1000;0.9719;1.3395;
236.4000;0.9719;1.3371;
236.7000;0.9768;1.3489;
237.0000;0.9744;1.3442;
237.3000;0.9768;1.3489;
237.6000;0.9760;1.3442;
237.9000;0.9760;1.3395;
238.2000;0.9752;1.3347;
238.5000;0.9768;1.3371;
238.8000;0.9760;1.3300;
239.1000;0.9752;1.3276;
239.4000;0.9817;1.3347;
239.7000;0.9858;1.3465;
240.0000;0.9735;1.3229;
240.3000;0.9760;1.3347;
240.6000;0.9744;1.3324;
240.9000;0.9784;1.3371;
241.2000;0.9760;1.3253;
241.5000;0.9727;1.3158;
241.8000;0.9744;1.3347;
242.1000;0.9735;1.3324;
242.4000;0.9760;1.3465;
242.7000;0.9752;1.3418;
243.0000;0.9776;1.3465;
243.3000;0.9858;1.3702;
243.6000;0.9678;1.3300;
243.9000;0.9760;1.3347;
244.2000;0.9776;1.3395;
244.5000;0.9752;1.3276;
244.8000;0.9784;1.3276;
245.1000;0.9719;1.3111;
245.4000;0.9784;1.3300;
245.7000;0.9760;1.3347;
246.0000;0.9768;1.3395;
246.3000;0.9760;1.3347;
246.6000;0.9760;1.3371;
246.9000;0.9752;1.3442;
247.2000;0.9752;1.3465;
247.5000;0.9768;1.3442;
247.8000;0.9760;1.3418;
248.1000;0.9760;1.3395;
248.4000;0.9752;1.3465;
248.7000;0.9760;1.3465;
249.0000;0.9760;1.3418;
249.3000;0.9744;1.3465;
249.6000;0.9711;1.3418;
249.9000;0.9760;1.3560;
250.2000;0.9744;1.3536;
250.5000;0.9784;1.3536;
250.8000;0.9768;1.3513;
251.1000;0.9727;1.3513;
251.4000;0.9760;1.3536;
251.7000;0.9752;1.3536;
252.0000;0.9744;1.3536;
252.3000;0.9760;1.3513;
252.6000;0.9768;1.3489;
252.9000;0.9768;1.3489;
253.2000;0.9752;1.3465;
253.5000;0.9776;1.3560;
253.8000;0.9776;1.3654;
254.1000;0.9752;1.3560;
254.4000;0.9744;1.3607;
254.7000;0.9784;1.3654;
255.0000;0.9760;1.3654;
255.3000;0.9744;1.3584;
255.6000;0.9752;1.3584;
255.9000;0.9744;1.3584;
256.2000;0.9744;1.3584;
256.5000;0.9760;1.3560;
256.8000;0.9735;1.3631;
257.1000;0.9752;1.3560;
257.4000;0.9792;1.3631;
257.7000;0.9760;1.3536;
258.0000;0.9760;1.3489;
258.3000;0.9752;1.3536;
258.6000;0.9735;1.3584;
258.9000;0.9719;1.3536;
259.2000;0.9760;1.3536;
259.5000;0.9744;1.3513;
259.8000;0.9760;1.3465;
260.1000;0.9752;1.3418;
260.4000;0.9760;1.3442;
260.7000;0.9760;1.3465;
261.0000;0.9760;1.3442;
261.3000;0.9744;1.3371;
261.6000;0.9760;1.3418;
261.9000;0.9776;1.3442;
262.2000;0.9711;1.3253;
262.5000;0.9752;1.3276;
262.8000;0.9760;1.3276;
263.1000;0.9752;1.3182;
263.4000;0.9752;1.3300;
263.7000;0.9776;1.3395;
264.0000;0.9760;1.3371;
264.3000;0.9784;1.3465;
264.6000;0.9744;1.3347;
264.9000;0.9752;1.3465;
265.2000;0.9768;1.3513;
265.5000;0.9727;1.3395;
265.8000;0.9727;1.3465;
266.1000;0.9703;1.3395;
266.4000;0.9752;1.3560;
266.7000;0.9752;1.3560;
267.0000;0.9752;1.3560;
267.3000;0.9735;1.3584;
267.6000;0.9670;1.3489;
267.9000;0.9760;1.3654;
268.2000;0.9744;1.3678;
268.5000;0.9752;1.3631;
268.8000;0.9801;1.3749;
269.1000;0.9898;1.4009;
269.4000;0.9760;1.3631;
269.7000;0.9768;1.3631;
270.0000;0.9752;1.3631;
270.3000;0.9768;1.3678;
270.6000;0.9760;1.3725;
270.9000;0.9735;1.3654;
271.2000;0.9735;1.3678;
271.5000;0.9727;1.3631;
271.8000;0.9768;1.3631;
272.1000;0.9727;1.3560;
272.4000;0.9849;1.3749;
272.7000;0.9752;1.3536;
273.0000;0.9760;1.3607;
273.3000;0.9752;1.3631;
273.6000;0.9744;1.3654;
273.9000;0.9768;1.3654;
274.2000;0.9825;1.3796;
274.5000;0.9784;1.3725;
274.8000;0.9752;1.3654;
275.1000;0.9760;1.3607;
275.4000;0.9752;1.3631;
275.7000;0.9760;1.3631;
276.0000;0.9752;1.3607;
276.3000;0.9760;1.3678;
276.6000;0.9735;1.3607;
276.9000;0.9752;1.3560;
277.2000;0.9760;1.3560;
277.5000;0.9752;1.3536;
277.8000;0.9752;1.3607;
278.1000;0.9752;1.3584;
278.4000;0.9727;1.3465;
278.7000;0.9727;1.3465;
279.0000;0.9760;1.3560;
279.3000;0.9752;1.3584;
279.6000;0.9752;1.3607;
279.9000;0.9735;1.3631;
280.2000;0.9744;1.3560;
280.5000;0.9744;1.3584;
280.8000;0.9760;1.3654;
281.1000;0.9833;1.3914;
281.4000;0.9735;1.3702;
281.7000;0.9744;1.3631;
282.0000;0.9744;1.3607;
282.3000;0.9760;1.3678;
282.6000;0.9776;1.3678;
282.9000;0.9703;1.3513;
283.2000;0.9752;1.3584;
283.5000;0.9752;1.3584;
283.8000;0.9744;1.3418;
284.1000;0.9760;1.3513;
284.4000;0.9768;1.3395;
284.7000;0.9719;1.3347;
285.0000;0.9719;1.3418;
285.3000;0.9703;1.3371;
285.6000;0.9727;1.3465;
285.9000;0.9801;1.3678;
286.2000;0.9792;1.3702;
286.5000;0.9744;1.3536;
286.8000;0.9744;1.3489;
287.1000;0.9752;1.3560;
287.4000;0.9744;1.3465;
287.7000;0.9792;1.3631;
288.0000;0.9735;1.3489;
288.3000;0.9874;1.3796;
288.6000;0.9784;1.3560;
288.9000;0.9744;1.3513;
289.2000;0.9735;1.3442;
289.5000;0.9776;1.3584;
289.8000;0.9784;1.3489;
290.1000;0.9809;1.3536;
290.4000;0.9760;1.3418;
290.7000;0.9752;1.3418;
291.0000;0.9744;1.3442;
291.3000;0.9752;1.3536;
291.6000;0.9711;1.3465;
291.9000;0.9760;1.3465;
292.2000;0.9760;1.3395;
292.5000;0.9744;1.3395;
292.8000;0.9744;1.3418;
293.1000;0.9760;1.3489;
293.4000;0.9727;1.3418;
293.7000;0.9752;1.3513;
294.0000;0.9760;1.3371;
294.3000;0.9784;1.3442;
294.6000;0.9776;1.3489;
294.9000;0.9760;1.3560;
295.2000;0.9752;1.3560;
295.5000;0.9760;1.3536;
295.8000;0.9768;1.3489;
296.1000;0.9760;1.3489;
296.4000;0.9752;1.3395;
296.7000;0.9752;1.3442;
297.0000;0.9744;1.3442;
297.3000;0.9768;1.3442;
297.6000;0.9719;1.3300;
297.9000;0.9784;1.3465;
298.2000;0.9752;1.3418;
298.5000;0.9768;1.3536;
298.8000;0.9744;1.3536;
299.1000;0.9760;1.3489;
299.4000;0.9744;1.3418;
299.7000;0.9776;1.3395;
300.0000;0.9752;1.3371;
300.3000;0.9752;1.3418;
300.6000;0.9801;1.3465;
300.9000;0.9727;1.3371;
301.2000;0.9744;1.3465;
301.5000;0.9744;1.3489;
301.8000;0.9727;1.3465;
302.1000;0.9760;1.3395;
302.4000;0.9760;1.3465;
302.7000;0.9735;1.3418;
303.0000;0.9727;1.3395;
303.3000;0.9752;1.3513;
303.6000;0.9735;1.3489;
303.9000;0.9744;1.3560;
304.2000;0.9752;1.3536;
304.5000;0.9760;1.3418;
304.8000;0.9760;1.3418;
305.1000;0.9695;1.3395;
305.4000;0.9719;1.3489;
305.7000;0.9735;1.3513;
306.0000;0.9760;1.3442;
306.3000;0.9744;1.3418;
306.6000;0.9744;1.3418;
306.9000;0.9744;1.3465;
307.2000;0.9768;1.3513;
307.5000;0.9768;1.3536;
307.8000;0.9752;1.3584;
308.1000;0.9727;1.3560;
308.4000;0.9744;1.3607;
308.7000;0.9760;1.3584;
309.0000;0.9760;1.3536;
309.3000;0.9744;1.3536;
309.6000;0.9727;1.3560;
309.9000;0.9752;1.3560;
310.2000;0.9760;1.3513;
310.5000;0.9752;1.3513;
310.8000;0.9744;1.3654;
311.1000;0.9768;1.3631;
311.4000;0.9752;1.3513;
311.7000;0.9752;1.3560;
312.0000;0.9727;1.3442;
312.3000;0.9752;1.3560;
312.6000;0.9744;1.3465;
312.9000;0.9744;1.3465;
313.2000;0.9719;1.3418;
313.5000;0.9735;1.3536;
313.8000;0.9735;1.3584;
314.1000;0.9744;1.3536;
314.4000;0.9760;1.3489;
314.7000;0.9703;1.3395;
315.0000;0.9727;1.3489;
315.3000;0.9752;1.3513;
315.6000;0.9735;1.3442;
315.9000;0.9703;1.3229;
316.2000;0.9735;1.3300;
316.5000;0.9719;1.3276;
316.8000;0.9711;1.3300;
317.1000;0.9727;1.3347;
317.4000;0.9727;1.3418;
317.7000;0.9719;1.3489;
318.0000;0.9711;1.3395;
318.3000;0.9727;1.3395;
318.6000;0.9744;1.3395;
318.9000;0.9719;1.3324;
319.2000;0.9752;1.3418;
319.5000;0.9752;1.3371;
319.8000;0.9735;1.3371;
320.1000;0.9752;1.3465;
320.4000;0.9760;1.3465;
320.7000;0.9752;1.3489;
321.0000;0.9703;1.3371;
321.3000;0.9719;1.3465;
321.6000;0.9735;1.3536;
321.9000;0.9735;1.3489;
322.2000;0.9735;1.3442;
322.5000;0.9744;1.3465;
322.8000;0.9703;1.3324;
323.1000;0.9735;1.3465;
323.4000;0.9744;1.3442;
323.7000;0.9735;1.3418;
324.0000;0.9809;1.3560;
324.3000;0.9719;1.3300;
324.6000;0.9744;1.3347;
324.9000;0.9744;1.3300;
325.2000;0.9784;1.3465;
325.5000;0.9768;1.3442;
325.8000;0.9801;1.3560;
326.1000;0.9703;1.3324;
326.4000;0.9752;1.3489;
326.7000;0.9768;1.3465;
327.0000;0.9727;1.3371;
327.3000;0.9719;1.3395;
327.6000;0.9744;1.3489;
327.9000;0.9752;1.3513;
328.2000;0.9678;1.3300;
328.5000;0.9760;1.3465;
328.8000;0.9752;1.3324;
329.1000;0.9654;1.3087;
329.4000;0.9654;1.3087;
329.7000;0.9744;1.3253;
330.0000;0.9744;1.3347;
330.3000;0.9744;1.3395;
330.6000;0.9727;1.3371;
330.9000;0.9703;1.3276;
331.2000;0.9768;1.3536;
331.5000;0.9744;1.3465;
331.8000;0.9752;1.3371;
332.1000;0.9752;1.3371;
332.4000;0.9735;1.3300;
332.7000;0.9752;1.3371;
333.0000;0.9744;1.3371;
333.3000;0.9744;1.3371;
333.6000;0.9735;1.3442;
333.9000;0.9744;1.3418;
334.2000;0.9752;1.3513;
334.5000;0.9735;1.3465;
334.8000;0.9760;1.3489;
335.1000;0.9752;1.3513;
335.4000;0.9752;1.3489;
335.7000;0.9752;1.3560;
336.0000;0.9752;1.3442;
336.3000;0.9744;1.3418;
336.6000;0.9752;1.3513;
336.9000;0.9744;1.3489;
337.2000;0.9752;1.3442;
337.5000;0.9752;1.3489;
337.8000;0.9735;1.3465;
338.1000;0.9735;1.3418;
338.4000;0.9727;1.3442;
338.7000;0.9719;1.3489;
339.0000;0.9752;1.3489;
339.3000;0.9744;1.3489;
339.6000;0.9744;1.3395;
339.9000;0.9744;1.3418;
340.2000;0.9752;1.3465;
340.5000;0.9776;1.3560;
340.8000;0.9752;1.3442;
341.1000;0.9752;1.3395;
341.4000;0.9752;1.3347;
341.7000;0.9752;1.3395;
342.0000;0.9744;1.3442;
342.3000;0.9744;1.3395;
342.6000;0.9695;1.3371;
342.9000;0.9727;1.3489;
343.2000;0.9752;1.3536;
343.5000;0.9735;1.3536;
343.8000;0.9744;1.3560;
344.1000;0.9744;1.3607;
344.4000;0.9776;1.3749;
344.7000;0.9744;1.3607;
345.0000;0.9752;1.3607;
345.3000;0.9744;1.3489;
345.6000;0.9760;1.3465;
345.9000;0.9760;1.3489;
346.2000;0.9752;1.3418;
346.5000;0.9768;1.3513;
346.8000;0.9735;1.3489;
347.1000;0.9752;1.3513;
347.4000;0.9744;1.3536;
347.7000;0.9727;1.3442;
348.0000;0.9727;1.3418;
348.3000;0.9744;1.3371;
348.6000;0.9735;1.3276;
348.9000;0.9735;1.3371;
349.2000;0.9703;1.3300;
349.5000;0.9727;1.3418;
349.8000;0.9744;1.3395;
350.1000;0.9703;1.3324;
350.4000;0.9719;1.3395;
350.7000;0.9719;1.3418;
351.0000;0.9735;1.3536;
351.3000;0.9776;1.3631;
351.6000;0.9727;1.3489;
351.9000;0.9727;1.3395;
352.2000;0.9744;1.3465;
352.5000;0.9711;1.3395;
352.8000;0.9727;1.3465;
353.1000;0.9654;1.3324;
353.4000;0.9703;1.3513;
353.7000;0.9752;1.3607;
354.0000;0.9735;1.3584;
354.3000;0.9752;1.3631;
354.6000;0.9752;1.3607;
354.9000;0.9735;1.3584;
355.2000;0.9752;1.3654;
355.5000;0.9735;1.3607;
355.8000;0.9744;1.3584;
356.1000;0.9760;1.3654;
356.4000;0.9809;1.3749;
356.7000;0.9744;1.3489;
357.0000;0.9833;1.3702;
357.3000;0.9792;1.3631;
357.6000;0.9744;1.3513;
357.9000;0.9727;1.3489;
358.2000;0.9727;1.3489;
358.5000;0.9817;1.3654;
358.8000;0.9695;1.3371;
359.1000;0.9752;1.3536;
359.4000;0.9752;1.3513;
359.7000;0.9735;1.3513;
360.0000;0.9711;1.3395;
360.3000;0.9752;1.3489;
360.6000;0.9744;1.3489;
360.9000;0.9744;1.3513;
361.2000;0.9744;1.3465;
361.5000;0.9735;1.3395;
361.8000;0.9727;1.3442;
362.1000;0.9703;1.3371;
362.4000;0.9735;1.3418;
362.7000;0.9662;1.3253;
363.0000;0.9735;1.3442;
363.3000;0.9735;1.3489;
363.6000;0.9735;1.3395;
363.9000;0.9744;1.3465;
364.2000;0.9768;1.3513;
364.5000;0.9719;1.3465;
364.8000;0.9760;1.3536;
365.1000;0.9760;1.3631;
365.4000;0.9735;1.3536;
365.7000;0.9735;1.3560;
366.0000;0.9744;1.3536;
366.3000;0.9760;1.3465;
366.6000;0.9735;1.3442;
366.9000;0.9752;1.3442;
367.2000;0.9752;1.3442;
367.5000;0.9744;1.3442;
367.8000;0.9752;1.3442;
368.1000;0.9727;1.3465;
368.4000;0.9744;1.3489;
368.7000;0.9744;1.3465;
369.0000;0.9760;1.3560;
369.3000;0.9760;1.3560;
369.6000;0.9833;1.3796;
369.9000;0.9752;1.3560;
370.2000;0.9744;1.3560;
370.5000;0.9735;1.3560;
370.8000;0.9735;1.3513;
371.1000;0.9752;1.3536;
371.4000;0.9744;1.3584;
371.7000;0.9735;1.3513;
372.0000;0.9719;1.3442;
372.3000;0.9735;1.3442;
372.6000;0.9719;1.3395;
372.9000;0.9719;1.3347;
373.2000;0.9727;1.3300;
373.5000;0.9735;1.3324;
373.8000;0.9719;1.3300;
374.1000;0.9711;1.3324;
374.4000;0.9727;1.3395;
374.7000;0.9678;1.3158;
375.0000;0.9776;1.3324;
375.3000;0.9760;1.3371;
375.6000;0.9727;1.3253;
375.9000;0.9727;1.3276;
376.2000;0.9760;1.3371;
376.5000;0.9744;1.3253;
376.8000;0.9744;1.3300;
377.1000;0.9744;1.3347;
377.4000;0.9719;1.3324;
377.7000;0.9735;1.3347;
378.0000;0.9744;1.3276;
378.3000;0.9752;1.3300;
378.6000;0.9752;1.3324;
378.9000;0.9727;1.3229;
379.2000;0.9727;1.3229;
379.5000;0.9833;1.3489;
379.8000;0.9735;1.3158;
380.1000;0.9735;1.3182;
380.4000;0.9760;1.3324;
380.7000;0.9703;1.3229;
381.0000;0.9744;1.3300;
381.3000;0.9735;1.3276;
381.6000;0.9744;1.3347;
381.9000;0.9744;1.3300;
382.2000;0.9735;1.3276;
382.5000;0.9744;1.3371;
382.8000;0.9744;1.3395;
383.1000;0.9727;1.3418;
383.4000;0.9719;1.3371;
383.7000;0.9687;1.3395;
384.0000;0.9784;1.3513;
384.3000;0.9744;1.3371;
384.6000;0.9784;1.3513;
384.9000;0.9735;1.3300;
385.2000;0.9744;1.3371;
385.5000;0.9719;1.3347;
385.8000;0.9735;1.3465;
386.1000;0.9695;1.3489;
386.4000;0.9719;1.3513;
386.7000;0.9678;1.3395;
387.0000;0.9735;1.3560;
387.3000;0.9752;1.3584;
387.6000;0.9760;1.3607;
387.9000;0.9744;1.3584;
388.2000;0.9727;1.3584;
388.5000;0.9752;1.3702;
388.8000;0.9727;1.3607;
389.1000;0.9752;1.3584;
389.4000;0.9752;1.3584;
389.7000;0.9735;1.3489;
390.0000;0.9719;1.3395;
390.3000;0.9801;1.3584;
390.6000;0.9744;1.3465;
390.9000;0.9727;1.3465;
391.2000;0.9727;1.3489;
391.5000;0.9711;1.3465;
391.8000;0.9776;1.3607;
392.1000;0.9752;1.3513;
392.4000;0.9678;1.3442;
392.7000;0.9752;1.3654;
393.0000;0.9744;1.3678;
393.3000;0.9744;1.3702;
393.6000;0.9752;1.3654;
393.9000;0.9727;1.3536;
394.2000;0.9719;1.3536;
394.5000;0.9768;1.3513;
394.8000;0.9719;1.3395;
395.1000;0.9711;1.3371;
395.4000;0.9744;1.3442;
395.7000;0.9735;1.3465;
396.0000;0.9735;1.3513;
396.3000;0.9727;1.3465;
396.6000;0.9727;1.3465;
396.9000;0.9744;1.3465;
397.2000;0.9727;1.3418;
397.5000;0.9760;1.3560;
397.8000;0.9744;1.3536;
398.1000;0.9744;1.3465;
398.4000;0.9719;1.3395;
398.7000;0.9719;1.3465;
399.0000;0.9703;1.3418;
399.3000;0.9744;1.3489;
399.6000;0.9727;1.3465;
399.9000;0.9695;1.3300;
400.2000;0.9735;1.3442;
400.5000;0.9744;1.3560;
400.8000;0.9727;1.3607;
401.1000;0.9744;1.3584;
401.4000;0.9735;1.3607;
401.7000;0.9776;1.3773;
402.0000;0.9776;1.3749;
402.3000;0.9735;1.3607;
402.6000;0.9735;1.3654;
402.9000;0.9735;1.3607;
403.2000;0.9744;1.3584;
403.5000;0.9760;1.3584;
403.8000;0.9744;1.3584;
404.1000;0.9735;1.3584;
404.4000;0.9833;1.3843;
404.7000;0.9744;1.3631;
405.0000;0.9735;1.3654;
405.3000;0.9719;1.3678;
405.6000;0.9735;1.3702;
405.9000;0.9727;1.3654;
406.2000;0.9727;1.3584;
406.5000;0.9727;1.3536;
406.8000;0.9768;1.3702;
407.1000;0.9752;1.3725;
407.4000;0.9744;1.3654;
407.7000;0.9621;1.3418;
408.0000;0.9695;1.3584;
408.3000;0.9752;1.3702;
408.6000;0.9735;1.3607;
408.9000;0.9727;1.3584;
409.2000;0.9760;1.3725;
409.5000;0.9727;1.3607;
409.8000;0.9735;1.3560;
410.1000;0.9719;1.3584;
410.4000;0.9711;1.3607;
410.7000;0.9825;1.3867;
411.0000;0.9727;1.3678;
411.3000;0.9735;1.3678;
411.6000;0.9719;1.3584;
411.9000;0.9727;1.3584;
412.2000;0.9727;1.3654;
412.5000;0.9727;1.3702;
412.8000;0.9768;1.3773;
413.1000;0.9744;1.3702;
413.4000;0.9719;1.3678;
413.7000;0.9752;1.3725;
414.0000;0.9719;1.3702;
414.3000;0.9752;1.3725;
414.6000;0.9792;1.3843;
414.9000;0.9744;1.3749;
415.2000;0.9727;1.3725;
415.5000;0.9735;1.3702;
415.8000;0.9760;1.3749;
416.1000;0.9735;1.3702;
416.4000;0.9735;1.3678;
416.7000;0.9727;1.3678;
417.0000;0.9727;1.3631;
417.3000;0.9744;1.3584;
417.6000;0.9727;1.3631;
417.9000;0.9638;1.3442;
418.2000;0.9735;1.3773;
418.5000;0.9735;1.3725;
418.8000;0.9727;1.3702;
419.1000;0.9735;1.3702;
419.4000;0.9719;1.3678;
419.7000;0.9752;1.3796;
420.0000;0.9735;1.3773;
420.3000;0.9744;1.3749;
420.6000;0.9727;1.3749;
420.9000;0.9727;1.3702;
421.2000;0.9727;1.3678;
421.5000;0.9744;1.3654;
421.8000;0.9735;1.3702;
422.1000;0.9670;1.3560;
422.4000;0.9735;1.3725;
422.7000;0.9735;1.3678;
423.0000;0.9727;1.3702;
423.3000;0.9735;1.3796;
423.6000;0.9735;1.3796;
423.9000;0.9727;1.3843;
424.2000;0.9833;1.4080;
424.5000;0.9776;1.3843;
424.8000;0.9744;1.3725;
425.1000;0.9719;1.3607;
425.4000;0.9711;1.3654;
425.7000;0.9711;1.3584;
426.0000;0.9735;1.3654;
426.3000;0.9670;1.3489;
426.6000;0.9695;1.3489;
426.9000;0.9703;1.3489;
427.2000;0.9719;1.3560;
427.5000;0.9776;1.3725;
427.8000;0.9735;1.3584;
428.1000;0.9727;1.3654;
428.4000;0.9735;1.3796;
428.7000;0.9727;1.3773;
429.0000;0.9744;1.3796;
429.3000;0.9727;1.3607;
429.6000;0.9792;1.3702;
429.9000;0.9727;1.3489;
430.2000;0.9735;1.3513;
430.5000;0.9735;1.3442;
430.8000;0.9727;1.3418;
431.1000;0.9727;1.3465;
431.4000;0.9727;1.3513;
431.7000;0.9695;1.3465;
432.0000;0.9727;1.3465;
432.3000;0.9654;1.3276;
432.6000;0.9752;1.3607;
432.9000;0.9752;1.3607;
433.2000;0.9719;1.3560;
433.5000;0.9727;1.3560;
433.8000;0.9735;1.3584;
434.1000;0.9744;1.3678;
434.4000;0.9727;1.3584;
434.7000;0.9768;1.3678;
435.0000;0.9744;1.3560;
435.3000;0.9735;1.3536;
435.6000;0.9735;1.3489;
435.9000;0.9760;1.3536;
436.2000;0.9735;1.3513;
436.5000;0.9752;1.3465;
436.8000;0.9719;1.3347;
437.1000;0.9735;1.3324;
437.4000;0.9719;1.3253;
437.7000;0.9735;1.3347;
438.0000;0.9727;1.3371;
438.3000;0.9727;1.3347;
438.6000;0.9727;1.3324;
438.9000;0.9768;1.3465;
439.2000;0.9711;1.3442;
439.5000;0.9735;1.3513;
439.8000;0.9727;1.3489;
440.1000;0.9727;1.3536;
440.4000;0.9735;1.3584;
440.7000;0.9792;1.3678;
441.0000;0.9703;1.3465;
441.3000;0.9711;1.3324;
441.6000;0.9735;1.3300;
441.9000;0.9727;1.3229;
442.2000;0.9719;1.3135;
442.5000;0.9711;1.3158;
442.8000;0.9744;1.3158;
443.1000;0.9727;1.3064;
443.4000;0.9727;1.3040;
443.7000;0.9727;1.3040;
444.0000;0.9744;1.3158;
444.3000;0.9735;1.3206;
444.6000;0.9711;1.3111;
444.9000;0.9727;1.3158;
445.2000;0.9735;1.3229;
445.5000;0.9752;1.3371;
445.8000;0.9703;1.3395;
446.1000;0.9719;1.3442;
446.4000;0.9735;1.3513;
446.7000;0.9792;1.3725;
447.0000;0.9670;1.3324;
447.3000;0.9678;1.3395;
447.6000;0.9735;1.3489;
447.9000;0.9719;1.3418;
448.2000;0.9776;1.3465;
448.5000;0.9727;1.3347;
448.8000;0.9727;1.3324;
449.1000;0.9735;1.3395;
449.4000;0.9711;1.3371;
449.7000;0.9711;1.3465;
450.0000;0.9744;1.3513;
450.3000;0.9719;1.3465;
450.6000;0.9735;1.3489;
450.9000;0.9809;1.3678;
451.2000;0.9719;1.3395;
451.5000;0.9784;1.3536;
451.8000;0.9744;1.3371;
452.1000;0.9719;1.3300;
452.4000;0.9727;1.3395;
452.7000;0.9719;1.3465;
453.0000;0.9654;1.3300;
453.3000;0.9719;1.3442;
453.6000;0.9711;1.3324;
453.9000;0.9662;1.3182;
454.2000;0.9711;1.3324;
454.5000;0.9719;1.3418;
454.8000;0.9735;1.3395;
455.1000;0.9711;1.3371;
455.4000;0.9727;1.3465;
455.7000;0.9735;1.3465;
456.0000;0.9727;1.3442;
456.3000;0.9735;1.3442;
456.6000;0.9646;1.3206;
456.9000;0.9719;1.3465;
457.2000;0.9727;1.3513;
457.5000;0.9727;1.3465;
457.8000;0.9727;1.3418;
458.1000;0.9744;1.3465;
458.4000;0.9760;1.3465;
458.7000;0.9711;1.3300;
459.0000;0.9727;1.3442;
459.3000;0.9719;1.3442;
459.6000;0.9760;1.3513;
459.9000;0.9703;1.3465;
460.2000;0.9711;1.3536;
460.5000;0.9768;1.3725;
460.8000;0.9727;1.3631;
461.1000;0.9735;1.3631;
461.4000;0.9711;1.3678;
461.7000;0.9719;1.3749;
462.0000;0.9735;1.3773;
462.3000;0.9719;1.3749;
462.6000;0.9719;1.3773;
462.9000;0.9727;1.3820;
463.2000;0.9735;1.3773;
463.5000;0.9703;1.3678;
463.8000;0.9711;1.3560;
464.1000;0.9727;1.3631;
464.4000;0.9727;1.3654;
464.7000;0.9735;1.3607;
465.0000;0.9735;1.3631;
465.3000;0.9735;1.3678;
465.6000;0.9711;1.3607;
465.9000;0.9727;1.3678;
466.2000;0.9687;1.3536;
466.5000;0.9719;1.3607;
466.8000;0.9744;1.3607;
467.1000;0.9727;1.3560;
467.4000;0.9719;1.3465;
467.7000;0.9735;1.3465;
468.0000;0.9768;1.3536;
468.3000;0.9727;1.3584;
468.6000;0.9727;1.3678;
468.9000;0.9727;1.3725;
469.2000;0.9703;1.3702;
469.5000;0.9735;1.3749;
469.8000;0.9744;1.3891;
470.1000;0.9727;1.3796;
470.4000;0.9727;1.3749;
470.7000;0.9719;1.3725;
471.0000;0.9760;1.3773;
471.3000;0.9719;1.3631;
471.6000;0.9719;1.3489;
471.9000;0.9719;1.3465;
472.2000;0.9711;1.3442;
472.5000;0.9719;1.3513;
472.8000;0.9744;1.3513;
473.1000;0.9719;1.3418;
473.4000;0.9711;1.3465;
473.7000;0.9687;1.3465;
474.0000;0.9719;1.3560;
474.3000;0.9719;1.3584;
474.6000;0.9727;1.3584;
474.9000;0.9711;1.3489;
475.2000;0.9695;1.3465;
475.5000;0.9687;1.3418;
475.8000;0.9752;1.3631;
476.1000;0.9727;1.3584;
476.4000;0.9727;1.3536;
476.7000;0.9687;1.3418;
477.0000;0.9719;1.3442;
477.3000;0.9719;1.3465;
477.6000;0.9711;1.3513;
477.9000;0.9727;1.3560;
478.2000;0.9646;1.3206;
478.5000;0.9735;1.3418;
478.8000;0.9744;1.3395;
479.1000;0.9727;1.3371;
479.4000;0.9711;1.3371;
479.7000;0.9727;1.3395;
480.0000;0.9744;1.3465;
480.3000;0.9744;1.3465;
480.6000;0.9727;1.3418;
480.9000;0.9727;1.3347;
481.2000;0.9735;1.3324;
481.5000;0.9752;1.3395;
481.8000;0.9744;1.3347;
482.1000;0.9727;1.3206;
482.4000;0.9711;1.3206;
482.7000;0.9719;1.3324;
483.0000;0.9727;1.3371;
483.3000;0.9727;1.3418;
483.6000;0.9744;1.3442;
483.9000;0.9735;1.3418;
484.2000;0.9695;1.3371;
484.5000;0.9752;1.3465;
484.8000;0.9719;1.3418;
485.1000;0.9695;1.3418;
485.4000;0.9687;1.3395;
485.7000;0.9719;1.3418;
486.0000;0.9719;1.3489;
486.3000;0.9744;1.3560;
486.6000;0.9678;1.3395;
486.9000;0.9727;1.3465;
487.2000;0.9735;1.3513;
487.5000;0.9727;1.3395;
487.8000;0.9735;1.3465;
488.1000;0.9711;1.3395;
488.4000;0.9727;1.3418;
488.7000;0.9719;1.3300;
489.0000;0.9727;1.3324;
489.3000;0.9744;1.3324;
489.6000;0.9719;1.3347;
489.9000;0.9727;1.3347;
490.2000;0.9735;1.3347;
490.5000;0.9703;1.3371;
490.8000;0.9719;1.3395;
491.1000;0.9719;1.3465;
491.4000;0.9711;1.3489;
491.7000;0.9735;1.3536;
492.0000;0.9727;1.3465;
492.3000;0.9727;1.3489;
492.6000;0.9744;1.3489;
492.9000;0.9727;1.3442;
493.2000;0.9711;1.3465;
493.5000;0.9711;1.3465;
493.8000;0.9703;1.3465;
494.1000;0.9792;1.3678;
494.4000;0.9711;1.3489;
494.7000;0.9711;1.3442;
495.0000;0.9735;1.3513;
495.3000;0.9711;1.3442;
495.6000;0.9703;1.3347;
495.9000;0.9719;1.3347;
496.2000;0.9727;1.3395;
496.5000;0.9670;1.3347;
496.8000;0.9727;1.3607;
497.1000;0.9703;1.3607;
497.4000;0.9719;1.3584;
497.7000;0.9784;1.3702;
498.0000;0.9727;1.3536;
498.3000;0.9776;1.3560;
498.6000;0.9719;1.3465;
498.9000;0.9727;1.3465;
499.2000;0.9711;1.3371;
499.5000;0.9711;1.3395;
499.8000;0.9719;1.3465;
500.1000;0.9752;1.3607;
500.4000;0.9727;1.3536;
500.7000;0.9719;1.3536;
501.0000;0.9760;1.3631;
501.3000;0.9735;1.3560;
501.6000;0.9703;1.3513;
501.9000;0.9735;1.3513;
502.2000;0.9719;1.3442;
502.5000;0.9776;1.3513;
502.8000;0.9719;1.3465;
503.1000;0.9719;1.3442;
503.4000;0.9719;1.3442;
503.7000;0.9719;1.3395;
504.0000;0.9719;1.3418;
504.3000;0.9711;1.3489;
504.6000;0.9703;1.3536;
504.9000;0.9727;1.3560;
505.2000;0.9719;1.3489;
505.5000;0.9727;1.3536;
505.8000;0.9719;1.3536;
506.1000;0.9735;1.3536;
506.4000;0.9703;1.3371;
506.7000;0.9727;1.3536;
507.0000;0.9735;1.3513;
507.3000;0.9744;1.3560;
507.6000;0.9727;1.3631;
507.9000;0.9776;1.3796;
508.2000;0.9719;1.3702;
508.5000;0.9719;1.3607;
508.8000;0.9727;1.3513;
509.1000;0.9719;1.3654;
509.4000;0.9735;1.3678;
509.7000;0.9654;1.3489;
510.0000;0.9719;1.3702;
510.3000;0.9703;1.3654;
510.6000;0.9727;1.3749;
510.9000;0.9711;1.3749;
511.2000;0.9711;1.3867;
511.5000;0.9695;1.3867;
511.8000;0.9719;1.3796;
512.1000;0.9727;1.3725;
512.4000;0.9703;1.3560;
512.7000;0.9703;1.3442;
513.0000;0.9727;1.3489;
513.3000;0.9719;1.3536;
513.6000;0.9711;1.3442;
513.9000;0.9711;1.3395;
514.2000;0.9744;1.3465;
514.5000;0.9703;1.3324;
514.8000;0.9719;1.3347;
515.1000;0.9719;1.3324;
515.4000;0.9735;1.3418;
515.7000;0.9719;1.3347;
516.0000;0.9703;1.3300;
516.3000;0.9735;1.3395;
516.6000;0.9719;1.3347;
516.9000;0.9752;1.3442;
517.2000;0.9735;1.3395;
517.5000;0.9727;1.3442;
517.8000;0.9719;1.3489;
518.1000;0.9719;1.3465;
518.4000;0.9727;1.3442;
518.7000;0.9719;1.3442;
519.0000;0.9744;1.3536;
519.3000;0.9711;1.3442;
519.6000;0.9687;1.3418;
519.9000;0.9727;1.3513;
520.2000;0.9752;1.3513;
520.5000;0.9727;1.3536;
520.8000;0.9735;1.3489;
521.1000;0.9744;1.3584;
521.4000;0.9703;1.3489;
521.7000;0.9687;1.3395;
522.0000;0.9727;1.3513;
522.3000;0.9752;1.3607;
522.6000;0.9695;1.3465;
522.9000;0.9670;1.3395;
523.2000;0.9719;1.3536;
523.5000;0.9711;1.3654;
523.8000;0.9703;1.3654;
524.1000;0.9727;1.3702;
524.4000;0.9711;1.3678;
524.7000;0.9719;1.3654;
525.0000;0.9727;1.3654;
525.3000;0.9719;1.3702;
525.6000;0.9719;1.3654;
525.9000;0.9719;1.3654;
526.2000;0.9719;1.3631;
526.5000;0.9719;1.3631;
526.8000;0.9719;1.3702;
527.1000;0.9703;1.3607;
527.4000;0.9719;1.3678;
527.7000;0.9703;1.3702;
528.0000;0.9711;1.3773;
528.3000;0.9711;1.3843;
528.6000;0.9711;1.3843;
528.9000;0.9711;1.3749;
529.2000;0.9695;1.3702;
529.5000;0.9703;1.3702;
529.8000;0.9670;1.3631;
530.1000;0.9703;1.3725;
530.4000;0.9654;1.3607;
530.7000;0.9727;1.3891;
531.0000;0.9719;1.3796;
531.3000;0.9719;1.3796;
531.6000;0.9744;1.3843;
531.9000;0.9719;1.3702;
532.2000;0.9719;1.3631;
532.5000;0.9735;1.3702;
532.8000;0.9711;1.3702;
533.1000;0.9711;1.3702;
533.4000;0.9727;1.3725;
533.7000;0.9719;1.3678;
534.0000;0.9719;1.3631;
534.3000;0.9711;1.3678;
534.6000;0.9695;1.3631;
534.9000;0.9703;1.3654;
535.2000;0.9719;1.3631;
535.5000;0.9695;1.3584;
535.8000;0.9735;1.3584;
536.1000;0.9719;1.3560;
536.4000;0.9711;1.3607;
536.7000;0.9711;1.3678;
537.0000;0.9719;1.3702;
537.3000;0.9719;1.3702;
537.6000;0.9735;1.3725;
537.9000;0.9719;1.3654;
538.2000;0.9719;1.3631;
538.5000;0.9711;1.3702;
538.8000;0.9744;1.3725;
539.1000;0.9727;1.3678;
539.4000;0.9687;1.3631;
539.7000;0.9719;1.3654;
540.0000;0.9662;1.3465;
540.3000;0.9678;1.3584;
540.6000;0.9703;1.3678;
540.9000;0.9670;1.3631;
541.2000;0.9703;1.3749;
541.5000;0.9678;1.3678;
541.8000;0.9719;1.3702;
542.1000;0.9695;1.3631;
542.4000;0.9711;1.3678;
542.7000;0.9719;1.3749;
543.0000;0.9630;1.3536;
543.3000;0.9695;1.3773;
543.6000;0.9711;1.3749;
543.9000;0.9719;1.3773;
544.2000;0.9719;1.3749;
544.5000;0.9711;1.3749;
544.8000;0.9703;1.3725;
545.1000;0.9711;1.3725;
545.4000;0.9760;1.3843;
545.7000;0.9703;1.3678;
546.0000;0.9711;1.3654;
546.3000;0.9678;1.3560;
546.6000;0.9711;1.3631;
546.9000;0.9703;1.3560;
547.2000;0.9760;1.3631;
547.5000;0.9727;1.3560;
547.8000;0.9735;1.3631;
548.1000;0.9711;1.3607;
548.4000;0.9711;1.3654;
548.7000;0.9719;1.3631;
549.0000;0.9719;1.3560;
549.3000;0.9719;1.3560;
549.6000;0.9662;1.3418;
549.9000;0.9711;1.3607;
550.2000;0.9719;1.3773;
550.5000;0.9719;1.3843;
550.8000;0.9727;1.3843;
551.1000;0.9719;1.3796;
551.4000;0.9711;1.3796;
551.7000;0.9727;1.3749;
552.0000;0.9719;1.3725;
552.3000;0.9703;1.3678;
552.6000;0.9735;1.3678;
552.9000;0.9744;1.3678;
553.2000;0.9703;1.3631;
553.5000;0.9735;1.3654;
553.8000;0.9735;1.3678;
554.1000;0.9719;1.3631;
554.4000;0.9727;1.3702;
554.7000;0.9719;1.3702;
555.0000;0.9711;1.3749;
555.3000;0.9703;1.3725;
555.6000;0.9687;1.3725;
555.9000;0.9703;1.3725;
556.2000;0.9711;1.3725;
556.5000;0.9703;1.3654;
556.8000;0.9695;1.3536;
557.1000;0.9792;1.3725;
557.4000;0.9711;1.3513;
557.7000;0.9711;1.3560;
558.0000;0.9760;1.3631;
558.3000;0.9711;1.3536;
558.6000;0.9695;1.3513;
558.9000;0.9695;1.3536;
559.2000;0.9727;1.3607;
559.5000;0.9711;1.3536;
559.8000;0.9735;1.3584;
560.1000;0.9703;1.3465;
560.4000;0.9735;1.3489;
560.7000;0.9695;1.3442;
561.0000;0.9687;1.3418;
561.3000;0.9727;1.3560;
561.6000;0.9711;1.3584;
561.9000;0.9695;1.3536;
562.2000;0.9703;1.3560;
562.5000;0.9703;1.3584;
562.8000;0.9670;1.3465;
563.1000;0.9719;1.3584;
563.4000;0.9719;1.3560;
563.7000;0.9678;1.3442;
564.0000;0.9687;1.3489;
564.3000;0.9678;1.3442;
564.6000;0.9711;1.3536;
564.9000;0.9662;1.3324;
565.2000;0.9711;1.3442;
565.5000;0.9719;1.3442;
565.8000;0.9711;1.3442;
566.1000;0.9703;1.3465;
566.4000;0.9687;1.3418;
566.7000;0.9711;1.3442;
567.0000;0.9727;1.3442;
567.3000;0.9719;1.3395;
567.6000;0.9711;1.3418;
567.9000;0.9719;1.3513;
568.2000;0.9695;1.3513;
568.5000;0.9719;1.3536;
568.8000;0.9703;1.3465;
569.1000;0.9719;1.3442;
569.4000;0.9703;1.3536;
569.7000;0.9687;1.3489;
570.0000;0.9703;1.3536;
570.3000;0.9727;1.3607;
570.6000;0.9703;1.3442;
570.9000;0.9695;1.3489;
571.2000;0.9687;1.3442;
571.5000;0.9695;1.3513;
571.8000;0.9719;1.3607;
572.1000;0.9711;1.3560;
572.4000;0.9719;1.3607;
572.7000;0.9719;1.3631;
573.0000;0.9711;1.3678;
573.3000;0.9719;1.3773;
573.6000;0.9719;1.3678;
573.9000;0.9735;1.3607;
574.2000;0.9768;1.3725;
574.5000;0.9711;1.3607;
574.8000;0.9678;1.3513;
575.1000;0.9711;1.3631;
575.4000;0.9687;1.3654;
575.7000;0.9711;1.3678;
576.0000;0.9784;1.3796;
576.3000;0.9711;1.3607;
576.6000;0.9719;1.3536;
576.9000;0.9735;1.3607;
577.2000;0.9727;1.3560;
577.5000;0.9744;1.3584;
577.8000;0.9703;1.3513;
578.1000;0.9654;1.3371;
578.4000;0.9727;1.3560;
578.7000;0.9711;1.3465;
579.0000;0.9727;1.3465;
579.3000;0.9703;1.3418;
579.6000;0.9662;1.3442;
579.9000;0.9687;1.3513;
580.2000;0.9719;1.3489;
580.5000;0.9613;1.3276;
580.8000;0.9711;1.3513;
581.1000;0.9703;1.3465;
581.4000;0.9703;1.3395;
581.7000;0.9687;1.3395;
582.0000;0.9711;1.3418;
582.3000;0.9719;1.3442;
582.6000;0.9735;1.3489;
582.9000;0.9695;1.3442;
583.2000;0.9695;1.3513;
583.5000;0.9711;1.3465;
583.8000;0.9703;1.3513;
584.1000;0.9744;1.3654;
584.4000;0.9735;1.3654;
584.7000;0.9703;1.3584;
585.0000;0.9711;1.3631;
585.3000;0.9711;1.3536;
585.6000;0.9711;1.3465;
585.9000;0.9719;1.3442;
586.2000;0.9719;1.3347;
586.5000;0.9711;1.3276;
586.8000;0.9727;1.3347;
587.1000;0.9687;1.3465;
587.4000;0.9695;1.3465;
587.7000;0.9678;1.3489;
588.0000;0.9695;1.3678;
588.3000;0.9703;1.3678;
588.6000;0.9719;1.3749;
588.9000;0.9727;1.3678;
589.2000;0.9670;1.3489;
589.5000;0.9719;1.3654;
589.8000;0.9719;1.3584;
590.1000;0.9711;1.3631;
590.4000;0.9687;1.3560;
590.7000;0.9678;1.3513;
591.0000;0.9744;1.3560;
591.3000;0.9703;1.3465;
591.6000;0.9760;1.3654;
591.9000;0.9695;1.3513;
592.2000;0.9719;1.3631;
592.5000;0.9695;1.3607;
592.8000;0.9703;1.3560;
593.1000;0.9695;1.3513;
593.4000;0.9703;1.3560;
593.7000;0.9703;1.3607;
594.0000;0.9711;1.3631;
594.3000;0.9687;1.3536;
594.6000;0.9703;1.3513;
594.9000;0.9662;1.3489;
595.2000;0.9687;1.3725;
595.5000;0.9719;1.3820;
595.8000;0.9687;1.3843;
596.1000;0.9711;1.3891;
596.4000;0.9719;1.3773;
596.7000;0.9687;1.3702;
597.0000;0.9695;1.3725;
597.3000;0.9703;1.3749;
597.6000;0.9719;1.3796;
597.9000;0.9752;1.3938;
598.2000;0.9703;1.3796;
598.5000;0.9703;1.3796;
598.8000;0.9719;1.3725;
599.1000;0.9727;1.3654;
599.4000;0.9695;1.3513;
599.7000;0.9711;1.3536;
600.0000;0.9776;1.3773;
600.3000;0.9703;1.3654;
600.6000;0.9719;1.3465;
600.9000;0.9711;1.3300;
601.2000;0.9646;1.3087;
601.5000;0.9597;1.2828;
601.8000;0.9516;1.2615;
602.1000;0.9451;1.2450;
602.4000;0.9385;1.2284;
602.7000;0.9320;1.2119;
603.0000;0.9206;1.1835;
603.3000;0.9198;1.1741;
603.6000;0.9117;1.1576;
603.9000;0.9076;1.1481;
604.2000;0.9011;1.1292;
604.5000;0.8962;1.1245;
604.8000;0.8897;1.1079;
605.1000;0.8864;1.1009;
605.4000;0.8807;1.1009;
605.7000;0.8751;1.0914;
606.0000;0.8702;1.0749;
606.3000;0.8653;1.0654;
606.6000;0.8620;1.0654;
606.9000;0.8580;1.0607;
607.2000;0.8539;1.0489;
607.5000;0.8506;1.0418;
607.8000;0.8441;1.0418;
608.1000;0.8360;1.0182;
608.4000;0.8376;1.0182;
608.7000;0.8352;1.0158;
609.0000;0.8335;1.0111;
609.3000;0.8303;0.9969;
609.6000;0.8246;0.9827;
609.9000;0.8205;0.9757;
610.2000;0.8164;0.9757;
610.5000;0.8140;0.9780;
610.8000;0.8099;0.9733;
611.1000;0.8050;0.9686;
611.4000;0.8034;0.9757;
611.7000;0.8002;0.9709;
612.0000;0.7993;0.9804;
612.3000;0.7928;0.9638;
612.6000;0.7920;0.9591;
612.9000;0.7904;0.9638;
613.2000;0.7855;0.9544;
613.5000;0.7831;0.9568;
613.8000;0.7798;0.9568;
614.1000;0.7766;0.9568;
614.4000;0.7757;0.9568;
614.7000;0.7709;0.9520;
615.0000;0.7684;0.9544;
615.3000;0.7700;0.9520;
615.6000;0.7635;0.9402;
615.9000;0.7611;0.9355;
616.2000;0.7530;0.9142;
616.5000;0.7578;0.9284;
616.8000;0.7562;0.9284;
617.1000;0.7440;0.9166;
617.4000;0.7497;0.9237;
617.7000;0.7489;0.9166;
618.0000;0.7456;0.9048;
618.3000;0.7399;0.8953;
618.6000;0.7424;0.8977;
618.9000;0.7399;0.9024;
619.2000;0.7367;0.9095;
619.5000;0.7359;0.9142;
619.8000;0.7334;0.9048;
620.1000;0.7334;0.9024;
620.4000;0.7310;0.8977;
620.7000;0.7245;0.8882;
621.0000;0.7261;0.9001;
621.3000;0.7236;0.8953;
621.6000;0.7245;0.8953;
621.9000;0.7220;0.8953;
622.2000;0.7196;0.8953;
622.5000;0.7171;0.8953;
622.8000;0.7163;0.8930;
623.1000;0.7147;0.8812;
623.4000;0.7123;0.8764;
623.7000;0.7123;0.8812;
624.0000;0.7098;0.8717;
624.3000;0.7074;0.8693;
624.6000;0.7082;0.8670;
624.9000;0.7074;0.8812;
625.2000;0.7025;0.8788;
625.5000;0.6984;0.8741;
625.8000;0.7009;0.8764;
626.1000;0.6976;0.8741;
626.4000;0.6960;0.8717;
626.7000;0.6952;0.8741;
627.0000;0.6927;0.8764;
627.3000;0.6927;0.8693;
627.6000;0.6895;0.8646;
627.9000;0.6886;0.8670;
628.2000;0.6854;0.8599;
628.5000;0.6870;0.8670;
628.8000;0.6854;0.8599;
629.1000;0.6838;0.8504;
629.4000;0.6854;0.8599;
629.7000;0.6813;0.8623;
630.0000;0.6838;0.8717;
630.3000;0.6797;0.8623;
630.6000;0.6732;0.8434;
630.9000;0.6829;0.8741;
631.2000;0.6740;0.8481;
631.5000;0.6756;0.8552;
631.8000;0.6764;0.8623;
632.1000;0.6748;0.8623;
632.4000;0.6707;0.8528;
632.7000;0.6716;0.8528;
633.0000;0.6707;0.8552;
633.3000;0.6707;0.8457;
633.6000;0.6683;0.8504;
633.9000;0.6667;0.8434;
634.2000;0.6610;0.8268;
634.5000;0.6659;0.8410;
634.8000;0.6577;0.8197;
635.1000;0.6618;0.8339;
635.4000;0.6618;0.8434;
635.7000;0.6545;0.8292;
636.0000;0.6618;0.8528;
636.3000;0.6650;0.8717;
636.6000;0.6585;0.8552;
636.9000;0.6610;0.8575;
637.2000;0.6536;0.8457;
637.5000;0.6536;0.8504;
637.8000;0.6545;0.8457;
638.1000;0.6561;0.8504;
638.4000;0.6536;0.8504;
638.7000;0.6520;0.8528;
639.0000;0.6512;0.8434;
639.3000;0.6512;0.8434;
639.6000;0.6471;0.8363;
639.9000;0.6536;0.8457;
640.2000;0.6471;0.8245;
640.5000;0.6471;0.8221;
640.8000;0.6398;0.8032;
641.1000;0.6463;0.8197;
641.4000;0.6455;0.8197;
641.7000;0.6455;0.8292;
642.0000;0.6422;0.8268;
642.3000;0.6479;0.8504;
642.6000;0.6406;0.8410;
642.9000;0.6390;0.8339;
643.2000;0.6406;0.8457;
643.5000;0.6398;0.8434;
643.8000;0.6390;0.8410;
644.1000;0.6382;0.8386;
644.4000;0.6390;0.8434;
644.7000;0.6382;0.8481;
645.0000;0.6422;0.8528;
645.3000;0.6374;0.8552;
645.6000;0.6349;0.8457;
645.9000;0.6382;0.8504;
646.2000;0.6357;0.8457;
646.5000;0.6341;0.8434;
646.8000;0.6333;0.8457;
647.1000;0.6333;0.8410;
647.4000;0.6300;0.8292;
647.7000;0.6292;0.8245;
648.0000;0.6357;0.8410;
648.3000;0.6300;0.8315;
648.6000;0.6268;0.8292;
648.9000;0.6309;0.8363;
649.2000;0.6300;0.8410;
649.5000;0.6276;0.8386;
649.8000;0.6276;0.8457;
650.1000;0.6268;0.8552;
650.4000;0.6260;0.8504;
650.7000;0.6260;0.8410;
651.0000;0.6268;0.8552;
651.3000;0.6235;0.8481;
651.6000;0.6243;0.8434;
651.9000;0.6211;0.8339;
652.2000;0.6219;0.8434;
652.5000;0.6186;0.8386;
652.8000;0.6195;0.8457;
653.1000;0.6186;0.8363;
653.4000;0.6195;0.8386;
653.7000;0.6195;0.8386;
654.0000;0.6154;0.8268;
654.3000;0.6178;0.8386;
654.6000;0.6170;0.8268;
654.9000;0.6203;0.8386;
655.2000;0.6154;0.8315;
655.5000;0.6195;0.8410;
655.8000;0.6203;0.8457;
656.1000;0.6178;0.8504;
656.4000;0.6146;0.8363;
656.7000;0.6138;0.8434;
657.0000;0.6097;0.8363;
657.3000;0.6227;0.8670;
657.6000;0.6138;0.8481;
657.9000;0.6129;0.8457;
658.2000;0.6162;0.8575;
658.5000;0.6154;0.8504;
658.8000;0.6113;0.8481;
659.1000;0.6121;0.8434;
659.4000;0.6178;0.8575;
659.7000;0.6178;0.8575;
660.0000;0.6113;0.8339;
660.3000;0.6195;0.8552;
660.6000;0.6089;0.8268;
660.9000;0.6129;0.8434;
661.2000;0.6154;0.8528;
661.5000;0.6097;0.8339;
661.8000;0.6081;0.8315;
662.1000;0.6056;0.8339;
662.4000;0.6081;0.8386;
662.7000;0.6064;0.8363;
663.0000;0.6089;0.8292;
663.3000;0.6048;0.8315;
663.6000;0.6056;0.8339;
663.9000;0.6097;0.8245;
664.2000;0.6056;0.8268;
664.5000;0.6056;0.8339;
664.8000;0.5983;0.8197;
665.1000;0.6048;0.8315;
665.4000;0.6040;0.8268;
665.7000;0.6056;0.8339;
666.0000;0.6072;0.8434;
666.3000;0.6024;0.8363;
666.6000;0.6015;0.8434;
666.9000;0.6032;0.8504;
667.2000;0.6015;0.8504;
667.5000;0.6015;0.8434;
667.8000;0.6015;0.8386;
668.1000;0.6015;0.8386;
668.4000;0.5975;0.8268;
668.7000;0.5999;0.8339;
669.0000;0.5999;0.8315;
669.3000;0.5983;0.8363;
669.6000;0.5991;0.8386;
669.9000;0.5942;0.8268;
670.2000;0.5983;0.8386;
670.5000;0.5983;0.8363;
670.8000;0.5991;0.8434;
671.1000;0.5975;0.8386;
671.4000;0.5999;0.8528;
671.7000;0.5975;0.8457;
672.0000;0.5975;0.8457;
672.3000;0.5950;0.8292;
672.6000;0.5999;0.8363;
672.9000;0.5967;0.8268;
673.2000;0.5975;0.8363;
673.5000;0.5902;0.8292;
673.8000;0.6024;0.8599;
674.1000;0.5950;0.8363;
674.4000;0.5967;0.8434;
674.7000;0.5934;0.8410;
675.0000;0.5910;0.8410;
675.3000;0.5934;0.8410;
675.6000;0.5950;0.8363;
675.9000;0.5950;0.8434;
676.2000;0.5934;0.8434;
676.5000;0.5950;0.8552;
676.8000;0.5902;0.8504;
677.1000;0.5918;0.8575;
677.4000;0.5893;0.8504;
677.7000;0.5918;0.8623;
678.0000;0.5934;0.8623;
678.3000;0.5893;0.8552;
678.6000;0.5910;0.8504;
678.9000;0.5910;0.8457;
679.2000;0.5902;0.8386;
679.5000;0.5918;0.8363;
679.8000;0.5902;0.8292;
680.1000;0.5869;0.8268;
680.4000;0.5869;0.8339;
680.7000;0.5902;0.8434;
681.0000;0.5918;0.8434;
681.3000;0.5934;0.8575;
681.6000;0.5918;0.8599;
681.9000;0.5893;0.8528;
682.2000;0.5902;0.8481;
682.5000;0.5885;0.8386;
682.8000;0.5869;0.8339;
683.1000;0.5877;0.8386;
683.4000;0.5869;0.8315;
683.7000;0.5861;0.8315;
684.0000;0.5869;0.8386;
684.3000;0.5885;0.8434;
684.6000;0.5828;0.8268;
684.9000;0.5861;0.8339;
685.2000;0.5861;0.8339;
685.5000;0.5869;0.8339;
685.8000;0.5869;0.8410;
686.1000;0.5918;0.8646;
686.4000;0.5845;0.8504;
686.7000;0.5853;0.8457;
687.0000;0.5804;0.8481;
687.3000;0.5869;0.8599;
687.6000;0.5836;0.8457;
687.9000;0.5853;0.8457;
688.2000;0.5804;0.8434;
688.5000;0.5836;0.8552;
688.8000;0.5820;0.8599;
689.1000;0.5836;0.8670;
689.4000;0.5836;0.8623;
689.7000;0.5836;0.8575;
690.0000;0.5836;0.8599;
690.3000;0.5828;0.8552;
690.6000;0.5836;0.8599;
690.9000;0.5812;0.8575;
691.2000;0.5893;0.8717;
691.5000;0.5828;0.8528;
691.8000;0.5918;0.8812;
692.1000;0.5820;0.8646;
692.4000;0.5820;0.8552;
692.7000;0.5812;0.8623;
693.0000;0.5812;0.8599;
693.3000;0.5804;0.8623;
693.6000;0.5796;0.8717;
693.9000;0.5788;0.8812;
694.2000;0.5763;0.8693;
694.5000;0.5804;0.8670;
694.8000;0.5796;0.8623;
695.1000;0.5779;0.8575;
695.4000;0.5796;0.8599;
695.7000;0.5779;0.8599;
696.0000;0.5796;0.8575;
696.3000;0.5771;0.8552;
696.6000;0.5771;0.8552;
696.9000;0.5796;0.8623;
697.2000;0.5788;0.8623;
697.5000;0.5779;0.8575;
697.8000;0.5788;0.8575;
698.1000;0.5763;0.8552;
698.4000;0.5779;0.8575;
698.7000;0.5788;0.8646;
699.0000;0.5779;0.8623;
699.3000;0.5755;0.8623;
699.6000;0.5763;0.8623;
699.9000;0.5763;0.8599;
700.2000;0.5788;0.8670;
700.5000;0.5722;0.8528;
700.8000;0.5836;0.8764;
701.1000;0.5788;0.8693;
701.4000;0.5771;0.8623;
701.7000;0.5771;0.8670;
702.0000;0.5755;0.8599;
702.3000;0.5788;0.8670;
702.6000;0.5779;0.8717;
702.9000;0.5763;0.8623;
703.2000;0.5739;0.8434;
703.5000;0.5739;0.8386;
703.8000;0.5747;0.8410;
704.1000;0.5665;0.8197;
704.4000;0.5731;0.8339;
704.7000;0.5747;0.8292;
705.0000;0.5731;0.8292;
705.3000;0.5739;0.8410;
705.6000;0.5763;0.8481;
705.9000;0.5747;0.8481;
706.2000;0.5731;0.8481;
706.5000;0.5755;0.8599;
706.8000;0.5722;0.8552;
707.1000;0.5714;0.8552;
707.4000;0.5722;0.8599;
707.7000;0.5747;0.8670;
708.0000;0.5722;0.8741;
708.3000;0.5714;0.8788;
708.6000;0.5804;0.9071;
708.9000;0.5731;0.8835;
709.2000;0.5674;0.8646;
709.5000;0.5706;0.8599;
709.8000;0.5714;0.8599;
710.1000;0.5722;0.8552;
710.4000;0.5722;0.8623;
710.7000;0.5714;0.8623;
711.0000;0.5714;0.8788;
711.3000;0.5714;0.8812;
711.6000;0.5763;0.8882;
711.9000;0.5690;0.8788;
712.2000;0.5722;0.8953;
712.5000;0.5706;0.8930;
712.8000;0.5714;0.8930;
713.1000;0.5698;0.8906;
713.4000;0.5682;0.8835;
713.7000;0.5706;0.8835;
714.0000;0.5690;0.8788;
714.3000;0.5682;0.8764;
714.6000;0.5682;0.8835;
714.9000;0.5690;0.8835;
715.2000;0.5706;0.8930;
715.5000;0.5706;0.8906;
715.8000;0.5698;0.8882;
716.1000;0.5739;0.9071;
716.4000;0.5714;0.9071;
716.7000;0.5706;0.8953;
717.0000;0.5763;0.9095;
717.3000;0.5698;0.8930;
717.6000;0.5714;0.8953;
717.9000;0.5747;0.8906;
718.2000;0.5698;0.8812;
718.5000;0.5722;0.8906;
718.8000;0.5690;0.8859;
719.1000;0.5698;0.8859;
719.4000;0.5682;0.8859;
719.7000;0.5690;0.8930;
720.0000;0.5682;0.8930;
720.3000;0.5682;0.9001;
720.6000;0.5674;0.8953;
720.9000;0.5674;0.8953;
721.2000;0.5674;0.8953;
721.5000;0.5674;0.9001;
721.8000;0.5722;0.9024;
722.1000;0.5690;0.8882;
722.4000;0.5674;0.8906;
722.7000;0.5682;0.8930;
723.0000;0.5633;0.8764;
723.3000;0.5682;0.8953;
723.6000;0.5657;0.8930;
723.9000;0.5674;0.8882;
724.2000;0.5633;0.8859;
724.5000;0.5665;0.8788;
724.8000;0.5665;0.8788;
725.1000;0.5665;0.8882;
725.4000;0.5665;0.8882;
725.7000;0.5682;0.8859;
726.0000;0.5657;0.8717;
726.3000;0.5649;0.8717;
726.6000;0.5690;0.8859;
726.9000;0.5641;0.8835;
727.2000;0.5657;0.8882;
727.5000;0.5633;0.8764;
727.8000;0.5722;0.8930;
728.1000;0.5665;0.8812;
728.4000;0.5649;0.8741;
728.7000;0.5576;0.8457;
729.0000;0.5682;0.8764;
729.3000;0.5641;0.8670;
729.6000;0.5641;0.8693;
729.9000;0.5649;0.8788;
730.2000;0.5608;0.8764;
730.5000;0.5649;0.8859;
730.8000;0.5617;0.8859;
731.1000;0.5625;0.8906;
731.4000;0.5625;0.8906;
731.7000;0.5633;0.8930;
732.0000;0.5641;0.8859;
732.3000;0.5641;0.8906;
732.6000;0.5649;0.8930;
732.9000;0.5633;0.8835;
733.2000;0.5649;0.8764;
733.5000;0.5641;0.8717;
733.8000;0.5641;0.8717;
734.1000;0.5641;0.8717;
734.4000;0.5625;0.8741;
734.7000;0.5641;0.8717;
735.0000;0.5649;0.8717;
735.3000;0.5633;0.8788;
735.6000;0.5641;0.8835;
735.9000;0.5633;0.8812;
736.2000;0.5682;0.8906;
736.5000;0.5641;0.8859;
736.8000;0.5633;0.8930;
737.1000;0.5633;0.8953;
737.4000;0.5633;0.8882;
737.7000;0.5674;0.8835;
738.0000;0.5617;0.8693;
738.3000;0.5625;0.8788;
738.6000;0.5682;0.8906;
738.9000;0.5625;0.8741;
739.2000;0.5633;0.8646;
739.5000;0.5617;0.8646;
739.8000;0.5617;0.8623;
740.1000;0.5608;0.8670;
740.4000;0.5617;0.8646;
740.7000;0.5617;0.8646;
741.0000;0.5600;0.8693;
741.3000;0.5608;0.8693;
741.6000;0.5584;0.8646;
741.9000;0.5617;0.8859;
742.2000;0.5608;0.8812;
742.5000;0.5608;0.8717;
742.8000;0.5584;0.8693;
743.1000;0.5633;0.8717;
743.4000;0.5682;0.8812;
743.7000;0.5608;0.8575;
744.0000;0.5576;0.8481;
744.3000;0.5592;0.8670;
744.6000;0.5706;0.9001;
744.9000;0.5617;0.8788;
745.2000;0.5584;0.8812;
745.5000;0.5617;0.8835;
745.8000;0.5633;0.8859;
746.1000;0.5617;0.8859;
746.4000;0.5617;0.8835;
746.7000;0.5608;0.8764;
747.0000;0.5617;0.8788;
747.3000;0.5641;0.8835;
747.6000;0.5608;0.8812;
747.9000;0.5617;0.8953;
748.2000;0.5600;0.9001;
748.5000;0.5641;0.9095;
748.8000;0.5600;0.8930;
749.1000;0.5608;0.8859;
749.4000;0.5568;0.8717;
749.7000;0.5600;0.8788;
750.0000;0.5592;0.8764;
750.3000;0.5608;0.8788;
750.6000;0.5600;0.8812;
750.9000;0.5527;0.8646;
751.2000;0.5641;0.8859;
751.5000;0.5625;0.8788;
751.8000;0.5584;0.8717;
752.1000;0.5592;0.8764;
752.4000;0.5617;0.8812;
752.7000;0.5625;0.8788;
753.0000;0.5600;0.8741;
753.3000;0.5617;0.8835;
753.6000;0.5592;0.8812;
753.9000;0.5600;0.8882;
754.2000;0.5576;0.8930;
754.5000;0.5584;0.8859;
754.8000;0.5592;0.8859;
755.1000;0.5568;0.8693;
755.4000;0.5584;0.8717;
755.7000;0.5592;0.8859;
756.0000;0.5584;0.8906;
756.3000;0.5576;0.8882;
756.6000;0.5592;0.9001;
756.9000;0.5576;0.8859;
757.2000;0.5600;0.8788;
757.5000;0.5584;0.8693;
757.8000;0.5576;0.8646;
758.1000;0.5592;0.8693;
758.4000;0.5592;0.8693;
758.7000;0.5584;0.8764;
759.0000;0.5592;0.8788;
759.3000;0.5584;0.8812;
759.6000;0.5568;0.8812;
759.9000;0.5641;0.9024;
760.2000;0.5568;0.8788;
760.5000;0.5576;0.8906;
760.8000;0.5511;0.8717;
761.1000;0.5568;0.8835;
761.4000;0.5576;0.8764;
761.7000;0.5568;0.8646;
762.0000;0.5584;0.8693;
762.3000;0.5592;0.8717;
762.6000;0.5576;0.8670;
762.9000;0.5584;0.8717;
763.2000;0.5592;0.8812;
763.5000;0.5584;0.8788;
763.8000;0.5576;0.8812;
764.1000;0.5511;0.8741;
764.4000;0.5568;0.8882;
764.7000;0.5560;0.8812;
765.0000;0.5551;0.8788;
765.3000;0.5560;0.8764;
765.6000;0.5576;0.8812;
765.9000;0.5495;0.8693;
766.2000;0.5568;0.8835;
766.5000;0.5568;0.8812;
766.8000;0.5576;0.8764;
767.1000;0.5560;0.8741;
767.4000;0.5560;0.8859;
767.7000;0.5519;0.8717;
768.0000;0.5576;0.8812;
768.3000;0.5543;0.8764;
768.6000;0.5584;0.8835;
768.9000;0.5568;0.8788;
769.2000;0.5592;0.8859;
769.5000;0.5543;0.8741;
769.8000;0.5519;0.8599;
770.1000;0.5568;0.8670;
770.4000;0.5568;0.8575;
770.7000;0.5576;0.8599;
771.0000;0.5543;0.8623;
771.3000;0.5576;0.8764;
771.6000;0.5543;0.8788;
771.9000;0.5543;0.8788;
772.2000;0.5584;0.8835;
772.5000;0.5560;0.8835;
772.8000;0.5551;0.8835;
773.1000;0.5551;0.8812;
773.4000;0.5503;0.8812;
773.7000;0.5568;0.8906;
774.0000;0.5568;0.8859;
774.3000;0.5551;0.8882;
774.6000;0.5543;0.8859;
774.9000;0.5511;0.8693;
775.2000;0.5608;0.8788;
775.5000;0.5551;0.8670;
775.8000;0.5568;0.8741;
776.1000;0.5551;0.8670;
776.4000;0.5535;0.8717;
776.7000;0.5543;0.8788;
777.0000;0.5543;0.8812;
777.3000;0.5503;0.8670;
777.6000;0.5560;0.8812;
777.9000;0.5551;0.8835;
778.2000;0.5551;0.8906;
778.5000;0.5462;0.8693;
778.8000;0.5543;0.8882;
779.1000;0.5560;0.8930;
779.4000;0.5543;0.9024;
779.7000;0.5543;0.9048;
780.0000;0.5535;0.9001;
780.3000;0.5560;0.9001;
780.6000;0.5543;0.8906;
780.9000;0.5551;0.8835;
781.2000;0.5503;0.8764;
781.5000;0.5535;0.8882;
781.8000;0.5600;0.9001;
782.1000;0.5511;0.8764;
782.4000;0.5535;0.8812;
782.7000;0.5568;0.8835;
783.0000;0.5560;0.8812;
783.3000;0.5519;0.8835;
783.6000;0.5527;0.8930;
783.9000;0.5543;0.8953;
784.2000;0.5568;0.8859;
784.5000;0.5535;0.8835;
784.8000;0.5503;0.8741;
785.1000;0.5535;0.8788;
785.4000;0.5543;0.8835;
785.7000;0.5543;0.8788;
786.0000;0.5535;0.8670;
786.3000;0.5535;0.8646;
786.6000;0.5543;0.8646;
786.9000;0.5551;0.8646;
787.2000;0.5535;0.8764;
787.5000;0.5503;0.8717;
787.8000;0.5535;0.8835;
788.1000;0.5543;0.8741;
788.4000;0.5527;0.8670;
788.7000;0.5535;0.8812;
789.0000;0.5535;0.8835;
789.3000;0.5543;0.8882;
789.6000;0.5543;0.8906;
789.9000;0.5600;0.9048;
790.2000;0.5543;0.8906;
790.5000;0.5535;0.8882;
790.8000;0.5543;0.8930;
791.1000;0.5543;0.8859;
791.4000;0.5535;0.8906;
791.7000;0.5519;0.8859;
792.0000;0.5511;0.8930;
792.3000;0.5519;0.8953;
792.6000;0.5568;0.9024;
792.9000;0.5535;0.8882;
793.2000;0.5543;0.8906;
793.5000;0.5527;0.8835;
793.8000;0.5511;0.8812;
794.1000;0.5543;0.8859;
794.4000;0.5543;0.8812;
794.7000;0.5527;0.8812;
795.0000;0.5519;0.8788;
795.3000;0.5503;0.8693;
795.6000;0.5519;0.8741;
795.9000;0.5527;0.8741;
796.2000;0.5527;0.8741;
796.5000;0.5519;0.8788;
796.8000;0.5543;0.8764;
797.1000;0.5543;0.8741;
797.4000;0.5527;0.8670;
797.7000;0.5519;0.8599;
798.0000;0.5576;0.8764;
798.3000;0.5535;0.8552;
798.6000;0.5519;0.8504;
798.9000;0.5519;0.8528;
799.2000;0.5535;0.8599;
799.5000;0.5535;0.8599;
799.8000;0.5584;0.8788;
800.1000;0.5543;0.8599;
800.4000;0.5511;0.8646;
800.7000;0.5535;0.8693;
801.0000;0.5527;0.8693;
801.3000;0.5495;0.8599;
801.6000;0.5519;0.8670;
801.9000;0.5503;0.8741;
802.2000;0.5511;0.8717;
802.5000;0.5519;0.8693;
802.8000;0.5551;0.8788;
803.1000;0.5511;0.8693;
803.4000;0.5535;0.8835;
803.7000;0.5519;0.8906;
804.0000;0.5527;0.8953;
804.3000;0.5535;0.9071;
804.6000;0.5543;0.9001;
804.9000;0.5527;0.8953;
805.2000;0.5576;0.9119;
805.5000;0.5527;0.8977;
805.8000;0.5527;0.8930;
806.1000;0.5511;0.8835;
806.4000;0.5519;0.8906;
806.7000;0.5527;0.8930;
807.0000;0.5535;0.8835;
807.3000;0.5503;0.8764;
807.6000;0.5511;0.8882;
807.9000;0.5495;0.8882;
808.2000;0.5511;0.8882;
808.5000;0.5527;0.8977;
808.8000;0.5527;0.8977;
809.1000;0.5519;0.8930;
809.4000;0.5568;0.9024;
809.7000;0.5527;0.9001;
810.0000;0.5511;0.9001;
810.3000;0.5511;0.8977;
810.6000;0.5495;0.8953;
810.9000;0.5503;0.8882;
811.2000;0.5519;0.8859;
811.5000;0.5519;0.8882;
811.8000;0.5486;0.8835;
812.1000;0.5503;0.8835;
812.4000;0.5495;0.8812;
812.7000;0.5527;0.8953;
813.0000;0.5495;0.8859;
813.3000;0.5511;0.8930;
813.6000;0.5478;0.8764;
813.9000;0.5511;0.8859;
814.2000;0.5486;0.8859;
814.5000;0.5503;0.8906;
814.8000;0.5519;0.8953;
815.1000;0.5495;0.9024;
815.4000;0.5495;0.9001;
815.7000;0.5495;0.8953;
816.0000;0.5511;0.8953;
816.3000;0.5519;0.8977;
816.6000;0.5470;0.8882;
816.9000;0.5503;0.8953;
817.2000;0.5519;0.9024;
817.5000;0.5503;0.9024;
817.8000;0.5511;0.9071;
818.1000;0.5511;0.9001;
818.4000;0.5511;0.8977;
818.7000;0.5503;0.8977;
819.0000;0.5486;0.8882;
819.3000;0.5503;0.9001;
819.6000;0.5495;0.8953;
819.9000;0.5519;0.9024;
820.2000;0.5503;0.9001;
820.5000;0.5527;0.9048;
820.8000;0.5495;0.8859;
821.1000;0.5560;0.8977;
821.4000;0.5543;0.8859;
821.7000;0.5511;0.8882;
822.0000;0.5495;0.8835;
822.3000;0.5503;0.8906;
822.6000;0.5511;0.8882;
822.9000;0.5503;0.8930;
823.2000;0.5486;0.8953;
823.5000;0.5503;0.9095;
823.8000;0.5511;0.9048;
824.1000;0.5503;0.8953;
824.4000;0.5478;0.8835;
824.7000;0.5495;0.8859;
825.0000;0.5592;0.9095;
825.3000;0.5511;0.8835;
825.6000;0.5503;0.8859;
825.9000;0.5543;0.9048;
826.2000;0.5600;0.9213;
826.5000;0.5486;0.8930;
826.8000;0.5495;0.8859;
827.1000;0.5462;0.8788;
827.4000;0.5495;0.8953;
827.7000;0.5503;0.8882;
828.0000;0.5495;0.8812;
828.3000;0.5478;0.8741;
828.6000;0.5495;0.8930;
828.9000;0.5503;0.9024;
829.2000;0.5511;0.9024;
829.5000;0.5486;0.9048;
829.8000;0.5519;0.9190;
830.1000;0.5511;0.9190;
830.4000;0.5470;0.9095;
830.7000;0.5495;0.9142;
831.0000;0.5503;0.9048;
831.3000;0.5511;0.9001;
831.6000;0.5478;0.8977;
831.9000;0.5486;0.8977;
832.2000;0.5478;0.9024;
832.5000;0.5486;0.9024;
832.8000;0.5495;0.9001;
833.1000;0.5478;0.8859;
833.4000;0.5478;0.8906;
833.7000;0.5486;0.9024;
834.0000;0.5503;0.9024;
834.3000;0.5511;0.9048;
834.6000;0.5511;0.9095;
834.9000;0.5486;0.9071;
835.2000;0.5495;0.9071;
835.5000;0.5568;0.9331;
835.8000;0.5486;0.9213;
836.1000;0.5535;0.9190;
836.4000;0.5503;0.9071;
836.7000;0.5486;0.9071;
837.0000;0.5462;0.9024;
837.3000;0.5478;0.9119;
837.6000;0.5462;0.9048;
837.9000;0.5478;0.9024;
838.2000;0.5495;0.9095;
838.5000;0.5462;0.8953;
838.8000;0.5478;0.9001;
839.1000;0.5486;0.8882;
839.4000;0.5486;0.8764;
839.7000;0.5478;0.8693;
840.0000;0.5486;0.8741;
840.3000;0.5486;0.8812;
840.6000;0.5478;0.8788;
840.9000;0.5495;0.8788;
841.2000;0.5551;0.9024;
841.5000;0.5486;0.8835;
841.8000;0.5478;0.8906;
842.1000;0.5478;0.8882;
842.4000;0.5486;0.8788;
842.7000;0.5478;0.8859;
843.0000;0.5454;0.8812;
843.3000;0.5478;0.8812;
843.6000;0.5478;0.8835;
843.9000;0.5486;0.8859;
844.2000;0.5405;0.8741;
844.5000;0.5486;0.8930;
844.8000;0.5495;0.8882;
845.1000;0.5503;0.8882;
845.4000;0.5503;0.8835;
845.7000;0.5495;0.8812;
846.0000;0.5503;0.8882;
846.3000;0.5470;0.8812;
846.6000;0.5519;0.8906;
846.9000;0.5495;0.8906;
847.2000;0.5470;0.8812;
847.5000;0.5486;0.8812;
847.8000;0.5486;0.8859;
848.1000;0.5470;0.8882;
848.4000;0.5470;0.8953;
848.7000;0.5478;0.8977;
849.0000;0.5511;0.9024;
849.3000;0.5486;0.8930;
849.6000;0.5478;0.8977;
849.9000;0.5495;0.9024;
850.2000;0.5486;0.8953;
850.5000;0.5503;0.9001;
850.8000;0.5495;0.8906;
851.1000;0.5470;0.8906;
851.4000;0.5486;0.9024;
851.7000;0.5495;0.9071;
852.0000;0.5495;0.9119;
852.3000;0.5462;0.9071;
852.6000;0.5470;0.8953;
852.9000;0.5462;0.8882;
853.2000;0.5470;0.8930;
853.5000;0.5429;0.8930;
853.8000;0.5486;0.8977;
854.1000;0.5495;0.9001;
854.4000;0.5470;0.8977;
854.7000;0.5495;0.8977;
855.0000;0.5462;0.8953;
855.3000;0.5470;0.8977;
855.6000;0.5495;0.8977;
855.9000;0.5470;0.8930;
856.2000;0.5470;0.8882;
856.5000;0.5462;0.8906;
856.8000;0.5511;0.8835;
857.1000;0.5495;0.8788;
857.4000;0.5495;0.8835;
857.7000;0.5486;0.8788;
858.0000;0.5486;0.8693;
858.3000;0.5478;0.8693;
858.6000;0.5486;0.8717;
858.9000;0.5372;0.8434;
859.2000;0.5470;0.8717;
859.5000;0.5470;0.8741;
859.8000;0.5470;0.8717;
860.1000;0.5478;0.8812;
860.4000;0.5600;0.9166;
860.7000;0.5413;0.8764;
861.0000;0.5462;0.8977;
861.3000;0.5462;0.9024;
861.6000;0.5478;0.9095;
861.9000;0.5478;0.9024;
862.2000;0.5511;0.9001;
862.5000;0.5470;0.8977;
862.8000;0.5470;0.8977;
863.1000;0.5486;0.9001;
863.4000;0.5462;0.8953;
863.7000;0.5446;0.8930;
864.0000;0.5470;0.9048;
864.3000;0.5470;0.9048;
864.6000;0.5511;0.9190;
864.9000;0.5478;0.9071;
865.2000;0.5495;0.9119;
865.5000;0.5478;0.9166;
865.8000;0.5454;0.9048;
866.1000;0.5470;0.9048;
866.4000;0.5519;0.9142;
866.7000;0.5478;0.8953;
867.0000;0.5486;0.8906;
867.3000;0.5486;0.9001;
867.6000;0.5478;0.8977;
867.9000;0.5470;0.9001;
868.2000;0.5454;0.8930;
868.5000;0.5462;0.8906;
868.8000;0.5446;0.8859;
869.1000;0.5462;0.8953;
869.4000;0.5462;0.9001;
869.7000;0.5462;0.8930;
870.0000;0.5470;0.8859;
870.3000;0.5462;0.8764;
870.6000;0.5478;0.8788;
870.9000;0.5478;0.8835;
871.2000;0.5470;0.8930;
871.5000;0.5462;0.8977;
871.8000;0.5462;0.9024;
872.1000;0.5470;0.9024;
872.4000;0.5478;0.9095;
872.7000;0.5470;0.9071;
873.0000;0.5462;0.8977;
873.3000;0.5470;0.8953;
873.6000;0.5454;0.8953;
873.9000;0.5462;0.8764;
874.2000;0.5470;0.8788;
874.5000;0.5454;0.8882;
874.8000;0.5503;0.9048;
875.1000;0.5495;0.9001;
875.4000;0.5470;0.8930;
875.7000;0.5470;0.8930;
876.0000;0.5454;0.8953;
876.3000;0.5478;0.9001;
876.6000;0.5454;0.8953;
876.9000;0.5454;0.9024;
877.2000;0.5470;0.9001;
877.5000;0.5446;0.8953;
877.8000;0.5462;0.9001;
878.1000;0.5478;0.9119;
878.4000;0.5454;0.9119;
878.7000;0.5462;0.9071;
879.0000;0.5462;0.9071;
879.3000;0.5454;0.9001;
879.6000;0.5454;0.8882;
879.9000;0.5405;0.8835;
880.2000;0.5478;0.9119;
880.5000;0.5486;0.9142;
880.8000;0.5478;0.9095;
881.1000;0.5446;0.9024;
881.4000;0.5454;0.9048;
881.7000;0.5470;0.9001;
882.0000;0.5446;0.9001;
882.3000;0.5462;0.9024;
882.6000;0.5429;0.8882;
882.9000;0.5462;0.9001;
883.2000;0.5454;0.8953;
883.5000;0.5592;0.9379;
883.8000;0.5470;0.9142;
884.1000;0.5462;0.9095;
884.4000;0.5535;0.9331;
884.7000;0.5503;0.9237;
885.0000;0.5462;0.9237;
885.3000;0.5462;0.9331;
885.6000;0.5486;0.9331;
885.9000;0.5462;0.9284;
886.2000;0.5454;0.9237;
886.5000;0.5470;0.9213;
886.8000;0.5454;0.9119;
887.1000;0.5446;0.9119;
887.4000;0.5462;0.9119;
887.7000;0.5495;0.9213;
888.0000;0.5413;0.8882;
888.3000;0.5470;0.9024;
888.6000;0.5495;0.9119;
888.9000;0.5454;0.9024;
889.2000;0.5462;0.9071;
889.5000;0.5454;0.9142;
889.8000;0.5446;0.9048;
890.1000;0.5462;0.9048;
890.4000;0.5462;0.9048;
890.7000;0.5470;0.9071;
891.0000;0.5446;0.9048;
891.3000;0.5454;0.9048;
891.6000;0.5470;0.9071;
891.9000;0.5470;0.9119;
892.2000;0.5454;0.9142;
892.5000;0.5462;0.9119;
892.8000;0.5454;0.9001;
893.1000;0.5454;0.9001;
893.4000;0.5470;0.9048;
893.7000;0.5470;0.9024;
894.0000;0.5478;0.9071;
894.3000;0.5503;0.9095;
894.6000;0.5462;0.8953;
894.9000;0.5470;0.8953;
895.2000;0.5486;0.9071;
895.5000;0.5462;0.8977;
895.8000;0.5454;0.8953;
896.1000;0.5438;0.8977;
896.4000;0.5478;0.9048;
896.7000;0.5462;0.9001;
897.0000;0.5454;0.9024;
897.3000;0.5478;0.9048;
897.6000;0.5446;0.9048;
897.9000;0.5429;0.9095;
898.2000;0.5454;0.9213;
898.5000;0.5454;0.9190;
898.8000;0.5454;0.9166;
899.1000;0.5429;0.9095;
899.4000;0.5454;0.9095;
899.7000;0.5421;0.8977;
900.0000;0.5446;0.8953;
900.3000;0.5446;0.8977;
900.6000;0.5446;0.8930;
900.9000;0.5446;0.8953;
901.2000;0.5429;0.8977;
901.5000;0.5511;0.9095;
901.8000;0.5454;0.9071;
902.1000;0.5462;0.9071;
902.4000;0.5478;0.9119;
902.7000;0.5462;0.9048;
903.0000;0.5478;0.9166;
903.3000;0.5478;0.9190;
903.6000;0.5405;0.9071;
903.9000;0.5454;0.9119;
904.2000;0.5470;0.9190;
904.5000;0.5446;0.9142;
904.8000;0.5446;0.9142;
905.1000;0.5438;0.9071;
905.4000;0.5454;0.9071;
905.7000;0.5446;0.9071;
906.0000;0.5429;0.9071;
906.3000;0.5462;0.9260;
906.6000;0.5454;0.9237;
906.9000;0.5486;0.9331;
907.2000;0.5429;0.9237;
907.5000;0.5429;0.9190;
907.8000;0.5454;0.9237;
908.1000;0.5470;0.9308;
908.4000;0.5446;0.9284;
908.7000;0.5462;0.9331;
909.0000;0.5470;0.9331;
909.3000;0.5462;0.9284;
909.6000;0.5446;0.9213;
909.9000;0.5438;0.9284;
910.2000;0.5429;0.9379;
910.5000;0.5438;0.9426;
910.8000;0.5454;0.9520;
911.1000;0.5462;0.9426;
911.4000;0.5446;0.9355;
911.7000;0.5470;0.9331;
912.0000;0.5470;0.9308;
912.3000;0.5446;0.9260;
912.6000;0.5446;0.9190;
912.9000;0.5429;0.9095;
913.2000;0.5470;0.9237;
913.5000;0.5421;0.9071;
913.8000;0.5446;0.9095;
914.1000;0.5438;0.9048;
914.4000;0.5454;0.9071;
914.7000;0.5462;0.9071;
915.0000;0.5405;0.9001;
915.3000;0.5446;0.9001;
915.6000;0.5446;0.9095;
915.9000;0.5438;0.8977;
916.2000;0.5470;0.8977;
916.5000;0.5438;0.9119;
916.8000;0.5389;0.8977;
917.1000;0.5446;0.9190;
917.4000;0.5446;0.9237;
917.7000;0.5462;0.9142;
918.0000;0.5446;0.9095;
918.3000;0.5470;0.9119;
918.6000;0.5462;0.9095;
918.9000;0.5462;0.9095;
919.2000;0.5454;0.9024;
919.5000;0.5454;0.9119;
919.8000;0.5421;0.9119;
920.1000;0.5462;0.9260;
920.4000;0.5438;0.9237;
920.7000;0.5421;0.9095;
921.0000;0.5421;0.9166;
921.3000;0.5495;0.9355;
921.6000;0.5470;0.9213;
921.9000;0.5421;0.9213;
922.2000;0.5446;0.9213;
922.5000;0.5438;0.9190;
922.8000;0.5446;0.9119;
923.1000;0.5446;0.9119;
923.4000;0.5462;0.9119;
923.7000;0.5478;0.9142;
924.0000;0.5454;0.9048;
924.3000;0.5462;0.8977;
924.6000;0.5454;0.8953;
924.9000;0.5446;0.8953;
925.2000;0.5454;0.9001;
925.5000;0.5438;0.8953;
925.8000;0.5446;0.9001;
926.1000;0.5438;0.9001;
926.4000;0.5413;0.8930;
926.7000;0.5429;0.9024;
927.0000;0.5421;0.9095;
927.3000;0.5446;0.9213;
927.6000;0.5454;0.9237;
927.9000;0.5454;0.9237;
928.2000;0.5446;0.9071;
928.5000;0.5446;0.9024;
928.8000;0.5446;0.8953;
929.1000;0.5421;0.8835;
929.4000;0.5462;0.8977;
929.7000;0.5478;0.9071;
930.0000;0.5438;0.9024;
930.3000;0.5446;0.9071;
930.6000;0.5446;0.9095;
930.9000;0.5421;0.8953;
931.2000;0.5470;0.8953;
931.5000;0.5446;0.8812;
931.8000;0.5438;0.8717;
932.1000;0.5446;0.8812;
932.4000;0.5446;0.8859;
932.7000;0.5446;0.8906;
933.0000;0.5454;0.8977;
933.3000;0.5462;0.8977;
933.6000;0.5454;0.9024;
933.9000;0.5429;0.8977;
934.2000;0.5438;0.9001;
934.5000;0.5429;0.9024;
934.8000;0.5454;0.9048;
935.1000;0.5462;0.9048;
935.4000;0.5438;0.9024;
935.7000;0.5438;0.9048;
936.0000;0.5389;0.8953;
936.3000;0.5446;0.9048;
936.6000;0.5446;0.9048;
936.9000;0.5438;0.8977;
937.2000;0.5446;0.8953;
937.5000;0.5446;0.8977;
937.8000;0.5462;0.9001;
938.1000;0.5446;0.9048;
938.4000;0.5446;0.9048;
938.7000;0.5446;0.9071;
939.0000;0.5454;0.9048;
939.3000;0.5454;0.8953;
939.6000;0.5429;0.9001;
939.9000;0.5462;0.9048;
940.2000;0.5446;0.9048;
940.5000;0.5470;0.9095;
940.8000;0.5364;0.8812;
941.1000;0.5462;0.8977;
941.4000;0.5446;0.8953;
941.7000;0.5438;0.9001;
942.0000;0.5478;0.9071;
942.3000;0.5462;0.9071;
942.6000;0.5429;0.9048;
942.9000;0.5454;0.9190;
943.2000;0.5446;0.9142;
943.5000;0.5446;0.9213;
943.8000;0.5413;0.9190;
944.1000;0.5438;0.9237;
944.4000;0.5446;0.9213;
944.7000;0.5446;0.9190;
945.0000;0.5503;0.9449;
945.3000;0.5446;0.9166;
945.6000;0.5429;0.9142;
945.9000;0.5446;0.9048;
946.2000;0.5421;0.9024;
946.5000;0.5429;0.9119;
946.8000;0.5429;0.9142;
947.1000;0.5429;0.9142;
947.4000;0.5413;0.9001;
947.7000;0.5438;0.9071;
948.0000;0.5429;0.9142;
948.3000;0.5438;0.9095;
948.6000;0.5446;0.9001;
948.9000;0.5438;0.9048;
949.2000;0.5454;0.9095;
949.5000;0.5429;0.9071;
949.8000;0.5429;0.9024;
950.1000;0.5381;0.8859;
950.4000;0.5429;0.9048;
950.7000;0.5438;0.9048;
951.0000;0.5429;0.9001;
951.3000;0.5421;0.8977;
951.6000;0.5438;0.9001;
951.9000;0.5438;0.9024;
952.2000;0.5438;0.8882;
952.5000;0.5438;0.8882;
952.8000;0.5438;0.8835;
953.1000;0.5495;0.9001;
953.4000;0.5454;0.9001;
953.7000;0.5413;0.8930;
954.0000;0.5462;0.9024;
954.3000;0.5454;0.8953;
954.6000;0.5413;0.8835;
954.9000;0.5413;0.8930;
955.2000;0.5429;0.8953;
955.5000;0.5438;0.8953;
955.8000;0.5454;0.8977;
956.1000;0.5421;0.8906;
956.4000;0.5438;0.8930;
956.7000;0.5446;0.8953;
957.0000;0.5486;0.9001;
957.3000;0.5470;0.9024;
957.6000;0.5446;0.9095;
957.9000;0.5429;0.9095;
958.2000;0.5446;0.9166;
958.5000;0.5438;0.9142;
958.8000;0.5438;0.9119;
959.1000;0.5421;0.9119;
959.4000;0.5446;0.9142;
959.7000;0.5429;0.9048;
960.0000;0.5438;0.9001;
960.3000;0.5421;0.9001;
960.6000;0.5438;0.8930;
960.9000;0.5446;0.9024;
961.2000;0.5413;0.9071;
961.5000;0.5438;0.9166;
961.8000;0.5421;0.9260;
962.1000;0.5429;0.9190;
962.4000;0.5429;0.9213;
962.7000;0.5405;0.9142;
963.0000;0.5397;0.9142;
963.3000;0.5438;0.9213;
963.6000;0.5438;0.9142;
963.9000;0.5462;0.9213;
964.2000;0.5446;0.9095;
964.5000;0.5438;0.9048;
964.8000;0.5413;0.8953;
965.1000;0.5421;0.9048;
965.4000;0.5454;0.9119;
965.7000;0.5454;0.9142;
966.0000;0.5446;0.9142;
966.3000;0.5438;0.9071;
966.6000;0.5429;0.9166;
966.9000;0.5438;0.9166;
967.2000;0.5429;0.9095;
967.5000;0.5372;0.8906;
967.8000;0.5446;0.9095;
968.1000;0.5438;0.9166;
968.4000;0.5446;0.9260;
968.7000;0.5446;0.9260;
969.0000;0.5462;0.9308;
969.3000;0.5438;0.9308;
969.6000;0.5421;0.9331;
969.9000;0.5429;0.9355;
970.2000;0.5421;0.9308;
970.5000;0.5421;0.9237;
970.8000;0.5421;0.9308;
971.1000;0.5438;0.9237;
971.4000;0.5413;0.9166;
971.7000;0.5421;0.9166;
972.0000;0.5429;0.9237;
972.3000;0.5429;0.9166;
972.6000;0.5413;0.9213;
972.9000;0.5381;0.9190;
973.2000;0.5429;0.9308;
973.5000;0.5438;0.9260;
973.8000;0.5429;0.9190;
974.1000;0.5413;0.9142;
974.4000;0.5446;0.9308;
974.7000;0.5389;0.9071;
975.0000;0.5421;0.9048;
975.3000;0.5446;0.9024;
975.6000;0.5397;0.8859;
975.9000;0.5429;0.8906;
976.2000;0.5446;0.8859;
976.5000;0.5462;0.8930;
976.8000;0.5421;0.8882;
977.1000;0.5462;0.8977;
977.4000;0.5429;0.8882;
977.7000;0.5421;0.8906;
978.0000;0.5397;0.8882;
978.3000;0.5421;0.8930;
978.6000;0.5421;0.8977;
978.9000;0.5397;0.8977;
979.2000;0.5438;0.9024;
979.5000;0.5421;0.9024;
979.8000;0.5446;0.8953;
980.1000;0.5429;0.8953;
980.4000;0.5438;0.9048;
980.7000;0.5446;0.9119;
981.0000;0.5429;0.9071;
981.3000;0.5446;0.9048;
981.6000;0.5503;0.9190;
981.9000;0.5421;0.8953;
982.2000;0.5421;0.9001;
982.5000;0.5413;0.8906;
982.8000;0.5421;0.8906;
983.1000;0.5438;0.8882;
983.4000;0.5413;0.8882;
983.7000;0.5405;0.8764;
984.0000;0.5429;0.8930;
984.3000;0.5413;0.8953;
984.6000;0.5462;0.9048;
984.9000;0.5446;0.9001;
985.2000;0.5421;0.8930;
985.5000;0.5413;0.9001;
985.8000;0.5429;0.8977;
986.1000;0.5511;0.9308;
986.4000;0.5429;0.9048;
986.7000;0.5397;0.8930;
987.0000;0.5446;0.9024;
987.3000;0.5413;0.8953;
987.6000;0.5446;0.8882;
987.9000;0.5421;0.8882;
988.2000;0.5405;0.8953;
988.5000;0.5438;0.9024;
988.8000;0.5413;0.9001;
989.1000;0.5429;0.9001;
989.4000;0.5429;0.9001;
989.7000;0.5446;0.9071;
990.0000;0.5413;0.9071;
990.3000;0.5405;0.9048;
990.6000;0.5429;0.9048;
990.9000;0.5413;0.9048;
991.2000;0.5421;0.9095;
991.5000;0.5421;0.9119;
991.8000;0.5446;0.9119;
992.1000;0.5340;0.8906;
992.4000;0.5446;0.9119;
992.7000;0.5413;0.9048;
993.0000;0.5421;0.9024;
993.3000;0.5438;0.9071;
993.6000;0.5454;0.9166;
993.9000;0.5429;0.9024;
994.2000;0.5405;0.9024;
994.5000;0.5421;0.9095;
994.8000;0.5495;0.9237;
995.1000;0.5462;0.9166;
995.4000;0.5413;0.9142;
995.7000;0.5438;0.9190;
996.0000;0.5438;0.9119;
996.3000;0.5413;0.9071;
996.6000;0.5446;0.9142;
996.9000;0.5421;0.9048;
997.2000;0.5438;0.9095;
997.5000;0.5438;0.9048;
997.8000;0.5421;0.8930;
998.1000;0.5364;0.8764;
998.4000;0.5429;0.8906;
998.7000;0.5462;0.9024;
999.0000;0.5429;0.8953;
999.3000;0.5438;0.8930;
999.6000;0.5438;0.9024;
999.9000;0.5421;0.9071;
1000.2000;0.5438;0.9119;
1000.5000;0.5429;0.9095;
1000.8000;0.5438;0.9095;
1001.1000;0.5438;0.9048;
1001.4000;0.5438;0.9142;
1001.7000;0.5413;0.9001;
1002.0000;0.5421;0.9071;
1002.3000;0.5413;0.9024;
1002.6000;0.5438;0.9142;
1002.9000;0.5405;0.8953;
1003.2000;0.5421;0.8930;
1003.5000;0.5421;0.9001;
1003.8000;0.5438;0.9048;
1004.1000;0.5421;0.9095;
1004.4000;0.5429;0.9142;
1004.7000;0.5438;0.9166;
1005.0000;0.5413;0.9071;
1005.3000;0.5429;0.9213;
1005.6000;0.5446;0.9142;
1005.9000;0.5413;0.9071;
1006.2000;0.5429;0.9095;
1006.5000;0.5429;0.9166;
1006.8000;0.5372;0.9048;
1007.1000;0.5413;0.9119;
1007.4000;0.5405;0.9071;
1007.7000;0.5405;0.9048;
1008.0000;0.5429;0.9071;
1008.3000;0.5421;0.9119;
1008.6000;0.5413;0.9095;
1008.9000;0.5438;0.9095;
1009.2000;0.5421;0.9095;
1009.5000;0.5413;0.9119;
1009.8000;0.5405;0.9142;
1010.1000;0.5446;0.9308;
1010.4000;0.5429;0.9308;
1010.7000;0.5421;0.9284;
1011.0000;0.5421;0.9213;
1011.3000;0.5421;0.9190;
1011.6000;0.5438;0.9213;
1011.9000;0.5429;0.9166;
1012.2000;0.5421;0.9213;
1012.5000;0.5421;0.9190;
1012.8000;0.5446;0.9213;
1013.1000;0.5470;0.9331;
1013.4000;0.5421;0.9308;
1013.7000;0.5421;0.9331;
1014.0000;0.5446;0.9379;
1014.3000;0.5397;0.9190;
1014.6000;0.5429;0.9260;
1014.9000;0.5421;0.9237;
1015.2000;0.5454;0.9308;
1015.5000;0.5438;0.9308;
1015.8000;0.5397;0.9284;
1016.1000;0.5421;0.9308;
1016.4000;0.5429;0.9379;
1016.7000;0.5446;0.9355;
1017.0000;0.5421;0.9379;
1017.3000;0.5405;0.9331;
1017.6000;0.5397;0.9237;
1017.9000;0.5429;0.9237;
1018.2000;0.5421;0.9331;
1018.5000;0.5421;0.9355;
1018.8000;0.5478;0.9355;
1019.1000;0.5438;0.9190;
1019.4000;0.5421;0.9190;
1019.7000;0.5421;0.9190;
1020.0000;0.5462;0.9284;
1020.3000;0.5429;0.9237;
1020.6000;0.5454;0.9260;
1020.9000;0.5429;0.9166;
1021.2000;0.5429;0.9142;
1021.5000;0.5421;0.9237;
1021.8000;0.5413;0.9166;
1022.1000;0.5413;0.9095;
1022.4000;0.5405;0.9071;
1022.7000;0.5364;0.8906;
1023.0000;0.5421;0.8977;
1023.3000;0.5421;0.8953;
1023.6000;0.5421;0.9048;
1023.9000;0.5438;0.9142;
1024.2000;0.5421;0.9213;
1024.5000;0.5446;0.9308;
1024.8000;0.5421;0.9119;
1025.1000;0.5413;0.9071;
1025.4000;0.5405;0.9071;
1025.7000;0.5421;0.9024;
1026.0000;0.5462;0.9095;
1026.3000;0.5421;0.9048;
1026.6000;0.5421;0.9048;
1026.9000;0.5446;0.9001;
1027.2000;0.5429;0.8977;
1027.5000;0.5421;0.9024;
1027.8000;0.5429;0.9001;
1028.1000;0.5438;0.9001;
1028.4000;0.5429;0.8953;
1028.7000;0.5421;0.8977;
1029.0000;0.5446;0.9024;
1029.3000;0.5462;0.9071;
1029.6000;0.5421;0.8977;
1029.9000;0.5421;0.9001;
1030.2000;0.5413;0.9048;
1030.5000;0.5421;0.9071;
1030.8000;0.5413;0.9071;
1031.1000;0.5421;0.9071;
1031.4000;0.5397;0.9048;
1031.7000;0.5446;0.9213;
1032.0000;0.5397;0.9237;
1032.3000;0.5421;0.9379;
1032.6000;0.5438;0.9284;
1032.9000;0.5421;0.9119;
1033.2000;0.5438;0.9119;
1033.5000;0.5446;0.9095;
1033.8000;0.5429;0.9095;
1034.1000;0.5405;0.9024;
1034.4000;0.5421;0.9071;
1034.7000;0.5429;0.9119;
1035.0000;0.5413;0.9001;
1035.3000;0.5421;0.8977;
1035.6000;0.5462;0.9024;
1035.9000;0.5429;0.8930;
1036.2000;0.5421;0.8906;
1036.5000;0.5421;0.8882;
1036.8000;0.5429;0.8859;
1037.1000;0.5429;0.8906;
1037.4000;0.5438;0.8953;
1037.7000;0.5413;0.8930;
1038.0000;0.5429;0.9071;
1038.3000;0.5413;0.9142;
1038.6000;0.5413;0.9095;
1038.9000;0.5470;0.9237;
1039.2000;0.5413;0.8953;
1039.5000;0.5421;0.9001;
1039.8000;0.5413;0.8977;
1040.1000;0.5421;0.9024;
1040.4000;0.5413;0.9048;
1040.7000;0.5421;0.9071;
1041.0000;0.5429;0.9190;
1041.3000;0.5421;0.9071;
1041.6000;0.5413;0.8977;
1041.9000;0.5405;0.8977;
1042.2000;0.5438;0.9024;
1042.5000;0.5421;0.9048;
1042.8000;0.5413;0.9001;
1043.1000;0.5397;0.8977;
1043.4000;0.5413;0.8953;
1043.7000;0.5421;0.8930;
1044.0000;0.5397;0.8953;
1044.3000;0.5405;0.9001;
1044.6000;0.5421;0.9024;
1044.9000;0.5421;0.9048;
1045.2000;0.5421;0.9142;
1045.5000;0.5429;0.9190;
1045.8000;0.5421;0.9213;
1046.1000;0.5438;0.9190;
1046.4000;0.5421;0.9190;
1046.7000;0.5429;0.9166;
1047.0000;0.5421;0.9190;
1047.3000;0.5421;0.9190;
1047.6000;0.5413;0.9166;
1047.9000;0.5503;0.9308;
1048.2000;0.5421;0.9142;
1048.5000;0.5397;0.9071;
1048.8000;0.5413;0.9095;
1049.1000;0.5429;0.9095;
1049.4000;0.5446;0.9260;
1049.7000;0.5413;0.9308;
1050.0000;0.5413;0.9331;
1050.3000;0.5413;0.9308;
1050.6000;0.5446;0.9426;
1050.9000;0.5421;0.9379;
1051.2000;0.5372;0.9331;
1051.5000;0.5413;0.9426;
1051.8000;0.5405;0.9402;
1052.1000;0.5397;0.9379;
1052.4000;0.5421;0.9426;
1052.7000;0.5405;0.9379;
1053.0000;0.5454;0.9355;
1053.3000;0.5356;0.9095;
1053.6000;0.5421;0.9260;
1053.9000;0.5421;0.9284;
1054.2000;0.5413;0.9190;
1054.5000;0.5405;0.9190;
1054.8000;0.5421;0.9190;
1055.1000;0.5462;0.9284;
1055.4000;0.5413;0.9213;
1055.7000;0.5405;0.9308;
1056.0000;0.5413;0.9331;
1056.3000;0.5429;0.9355;
1056.6000;0.5413;0.9284;
1056.9000;0.5429;0.9331;
1057.2000;0.5429;0.9284;
1057.5000;0.5421;0.9284;
1057.8000;0.5429;0.9355;
1058.1000;0.5421;0.9284;
1058.4000;0.5413;0.9260;
1058.7000;0.5421;0.9237;
1059.0000;0.5429;0.9260;
1059.3000;0.5421;0.9284;
1059.6000;0.5372;0.9308;
1059.9000;0.5421;0.9379;
1060.2000;0.5421;0.9426;
1060.5000;0.5389;0.9379;
1060.8000;0.5372;0.9284;
1061.1000;0.5413;0.9379;
1061.4000;0.5421;0.9355;
1061.7000;0.5429;0.9355;
1062.0000;0.5413;0.9260;
1062.3000;0.5429;0.9284;
1062.6000;0.5421;0.9213;
1062.9000;0.5421;0.9119;
1063.2000;0.5421;0.9095;
1063.5000;0.5413;0.9071;
1063.8000;0.5421;0.9095;
1064.1000;0.5429;0.9213;
1064.4000;0.5421;0.9166;
1064.7000;0.5429;0.9190;
1065.0000;0.5421;0.9213;
1065.3000;0.5413;0.9237;
1065.6000;0.5421;0.9213;
1065.9000;0.5397;0.9237;
1066.2000;0.5421;0.9260;
1066.5000;0.5429;0.9284;
1066.8000;0.5413;0.9213;
1067.1000;0.5421;0.9379;
1067.4000;0.5405;0.9379;
1067.7000;0.5429;0.9331;
1068.0000;0.5478;0.9426;
1068.3000;0.5421;0.9260;
1068.6000;0.5429;0.9237;
1068.9000;0.5478;0.9331;
1069.2000;0.5421;0.9237;
1069.5000;0.5413;0.9260;
1069.8000;0.5413;0.9331;
1070.1000;0.5429;0.9402;
1070.4000;0.5413;0.9379;
1070.7000;0.5421;0.9308;
1071.0000;0.5429;0.9308;
1071.3000;0.5421;0.9284;
1071.6000;0.5405;0.9331;
1071.9000;0.5413;0.9308;
1072.2000;0.5429;0.9379;
1072.5000;0.5413;0.9355;
1072.8000;0.5405;0.9284;
1073.1000;0.5446;0.9426;
1073.4000;0.5405;0.9355;
1073.7000;0.5421;0.9331;
1074.0000;0.5429;0.9308;
1074.3000;0.5421;0.9402;
1074.6000;0.5405;0.9331;
1074.9000;0.5397;0.9284;
1075.2000;0.5405;0.9308;
1075.5000;0.5405;0.9284;
1075.8000;0.5405;0.9284;
1076.1000;0.5413;0.9166;
1076.4000;0.5413;0.9166;
1076.7000;0.5405;0.9142;
1077.0000;0.5413;0.9213;
1077.3000;0.5421;0.9284;
1077.6000;0.5413;0.9237;
1077.9000;0.5421;0.9308;
1078.2000;0.5413;0.9426;
1078.5000;0.5446;0.9591;
1078.8000;0.5397;0.9473;
1079.1000;0.5413;0.9473;
1079.4000;0.5413;0.9449;
1079.7000;0.5389;0.9379;
1080.0000;0.5413;0.9402;
1080.3000;0.5413;0.9426;
1080.6000;0.5429;0.9426;
1080.9000;0.5421;0.9331;
1081.2000;0.5413;0.9355;
1081.5000;0.5421;0.9402;
1081.8000;0.5413;0.9402;
1082.1000;0.5421;0.9544;
1082.4000;0.5413;0.9497;
1082.7000;0.5421;0.9544;
1083.0000;0.5429;0.9568;
1083.3000;0.5413;0.9568;
1083.6000;0.5364;0.9497;
1083.9000;0.5405;0.9473;
1084.2000;0.5421;0.9520;
1084.5000;0.5421;0.9473;
1084.8000;0.5454;0.9520;
1085.1000;0.5429;0.9497;
1085.4000;0.5421;0.9426;
1085.7000;0.5389;0.9402;
1086.0000;0.5405;0.9331;
1086.3000;0.5389;0.9213;
1086.6000;0.5405;0.9190;
1086.9000;0.5438;0.9190;
1087.2000;0.5429;0.9260;
1087.5000;0.5421;0.9260;
1087.8000;0.5421;0.9308;
1088.1000;0.5405;0.9166;
1088.4000;0.5421;0.9166;
1088.7000;0.5421;0.9166;
1089.0000;0.5429;0.9095;
1089.3000;0.5413;0.9001;
1089.6000;0.5405;0.9024;
1089.9000;0.5364;0.8906;
1090.2000;0.5405;0.9024;
1090.5000;0.5405;0.9048;
1090.8000;0.5429;0.9142;
1091.1000;0.5405;0.9142;
1091.4000;0.5397;0.9166;
1091.7000;0.5397;0.9308;
1092.0000;0.5438;0.9331;
1092.3000;0.5413;0.9308;
1092.6000;0.5405;0.9331;
1092.9000;0.5389;0.9355;
1093.2000;0.5413;0.9449;
1093.5000;0.5462;0.9497;
1093.8000;0.5405;0.9379;
1094.1000;0.5389;0.9331;
1094.4000;0.5413;0.9379;
1094.7000;0.5421;0.9379;
1095.0000;0.5389;0.9355;
1095.3000;0.5421;0.9379;
1095.6000;0.5413;0.9284;
1095.9000;0.5446;0.9379;
1096.2000;0.5413;0.9284;
1096.5000;0.5413;0.9308;
1096.8000;0.5372;0.9142;
1097.1000;0.5421;0.9190;
1097.4000;0.5405;0.9071;
1097.7000;0.5397;0.9024;
1098.0000;0.5405;0.9119;
1098.3000;0.5405;0.9260;
1098.6000;0.5429;0.9308;
1098.9000;0.5413;0.9331;
1099.2000;0.5381;0.9331;
1099.5000;0.5397;0.9308;
1099.8000;0.5438;0.9355;
1100.1000;0.5413;0.9355;
1100.4000;0.5348;0.9119;
1100.7000;0.5446;0.9213;
1101.0000;0.5421;0.9095;
1101.3000;0.5405;0.9142;
1101.6000;0.5429;0.9190;
1101.9000;0.5405;0.9190;
1102.2000;0.5413;0.9190;
1102.5000;0.5413;0.9213;
1102.8000;0.5413;0.9119;
1103.1000;0.5381;0.8977;
1103.4000;0.5405;0.9071;
1103.7000;0.5405;0.9095;
1104.0000;0.5421;0.9119;
1104.3000;0.5438;0.9095;
1104.6000;0.5429;0.9095;
1104.9000;0.5421;0.9119;
1105.2000;0.5405;0.9071;
1105.5000;0.5413;0.9071;
1105.8000;0.5413;0.9048;
1106.1000;0.5446;0.9071;
1106.4000;0.5421;0.8953;
1106.7000;0.5421;0.9001;
1107.0000;0.5397;0.8977;
1107.3000;0.5421;0.9001;
1107.6000;0.5421;0.9001;
1107.9000;0.5397;0.9001;
1108.2000;0.5438;0.9071;
1108.5000;0.5421;0.9048;
1108.8000;0.5421;0.8953;
1109.1000;0.5454;0.9001;
1109.4000;0.5405;0.8930;
1109.7000;0.5429;0.8977;
1110.0000;0.5405;0.9001;
1110.3000;0.5405;0.9001;
1110.6000;0.5389;0.9001;
1110.9000;0.5405;0.9071;
1111.2000;0.5454;0.9190;
1111.5000;0.5405;0.9190;
1111.8000;0.5389;0.9142;
1112.1000;0.5389;0.9142;
1112.4000;0.5413;0.9095;
1112.7000;0.5389;0.9071;
1113.0000;0.5405;0.9024;
1113.3000;0.5405;0.9071;
1113.6000;0.5332;0.8882;
1113.9000;0.5421;0.9119;
1114.2000;0.5413;0.9119;
1114.5000;0.5405;0.9142;
1114.8000;0.5462;0.9260;
1115.1000;0.5421;0.9166;
1115.4000;0.5413;0.9048;
1115.7000;0.5405;0.9142;
1116.0000;0.5397;0.9119;
1116.3000;0.5405;0.9166;
1116.6000;0.5413;0.9119;
1116.9000;0.5405;0.9048;
1117.2000;0.5405;0.9095;
1117.5000;0.5421;0.9095;
1117.8000;0.5381;0.9001;
1118.1000;0.5421;0.9024;
1118.4000;0.5421;0.9048;
1118.7000;0.5438;0.9119;
1119.0000;0.5405;0.9119;
1119.3000;0.5397;0.9166;
1119.6000;0.5397;0.9166;
1119.9000;0.5413;0.9237;
1120.2000;0.5405;0.9237;
1120.5000;0.5413;0.9308;
1120.8000;0.5429;0.9379;
1121.1000;0.5413;0.9355;
1121.4000;0.5413;0.9355;
1121.7000;0.5413;0.9355;
1122.0000;0.5413;0.9402;
1122.3000;0.5405;0.9379;
1122.6000;0.5421;0.9355;
1122.9000;0.5397;0.9260;
1123.2000;0.5495;0.9449;
1123.5000;0.5405;0.9166;
1123.8000;0.5405;0.9284;
1124.1000;0.5438;0.9331;
1124.4000;0.5405;0.9213;
1124.7000;0.5413;0.9213;
1125.0000;0.5413;0.9213;
1125.3000;0.5421;0.9213;
1125.6000;0.5381;0.9142;
1125.9000;0.5405;0.9237;
1126.2000;0.5405;0.9308;
1126.5000;0.5397;0.9308;
1126.8000;0.5429;0.9473;
1127.1000;0.5454;0.9497;
1127.4000;0.5397;0.9355;
1127.7000;0.5413;0.9426;
1128.0000;0.5421;0.9379;
1128.3000;0.5389;0.9308;
1128.6000;0.5405;0.9308;
1128.9000;0.5438;0.9308;
1129.2000;0.5413;0.9331;
1129.5000;0.5413;0.9284;
1129.8000;0.5389;0.9190;
1130.1000;0.5438;0.9308;
1130.4000;0.5421;0.9284;
1130.7000;0.5405;0.9190;
1131.0000;0.5372;0.9095;
1131.3000;0.5421;0.9213;
1131.6000;0.5413;0.9213;
1131.9000;0.5405;0.9190;
1132.2000;0.5405;0.9190;
1132.5000;0.5389;0.9142;
1132.8000;0.5413;0.9213;
1133.1000;0.5446;0.9237;
1133.4000;0.5405;0.9142;
1133.7000;0.5405;0.9166;
1134.0000;0.5389;0.9142;
1134.3000;0.5413;0.9260;
1134.6000;0.5413;0.9166;
1134.9000;0.5372;0.9119;
1135.2000;0.5421;0.9284;
1135.5000;0.5421;0.9284;
1135.8000;0.5413;0.9284;
1136.1000;0.5397;0.9260;
1136.4000;0.5397;0.9119;
1136.7000;0.5389;0.9142;
1137.0000;0.5429;0.9190;
1137.3000;0.5389;0.9119;
1137.6000;0.5389;0.9213;
1137.9000;0.5397;0.9190;
1138.2000;0.5429;0.9237;
1138.5000;0.5405;0.9213;
1138.8000;0.5405;0.9190;
1139.1000;0.5413;0.9237;
1139.4000;0.5413;0.9260;
1139.7000;0.5405;0.9260;
1140.0000;0.5405;0.9190;
1140.3000;0.5429;0.9260;
1140.6000;0.5372;0.9166;
1140.9000;0.5405;0.9331;
1141.2000;0.5397;0.9308;
1141.5000;0.5413;0.9355;
1141.8000;0.5405;0.9331;
1142.1000;0.5421;0.9308;
1142.4000;0.5372;0.9237;
1142.7000;0.5405;0.9355;
1143.0000;0.5495;0.9615;
1143.3000;0.5397;0.9331;
1143.6000;0.5397;0.9308;
1143.9000;0.5421;0.9402;
1144.2000;0.5364;0.9402;
1144.5000;0.5405;0.9568;
1144.8000;0.5405;0.9568;
1145.1000;0.5421;0.9568;
1145.4000;0.5397;0.9615;
1145.7000;0.5429;0.9615;
1146.0000;0.5446;0.9615;
1146.3000;0.5405;0.9449;
1146.6000;0.5356;0.9308;
1146.9000;0.5397;0.9331;
1147.2000;0.5405;0.9260;
1147.5000;0.5405;0.9237;
1147.8000;0.5413;0.9284;
1148.1000;0.5413;0.9308;
1148.4000;0.5413;0.9308;
1148.7000;0.5421;0.9308;
1149.0000;0.5405;0.9284;
1149.3000;0.5429;0.9355;
1149.6000;0.5413;0.9308;
1149.9000;0.5397;0.9331;
1150.2000;0.5405;0.9379;
1150.5000;0.5413;0.9449;
1150.8000;0.5421;0.9426;
1151.1000;0.5421;0.9426;
1151.4000;0.5429;0.9426;
1151.7000;0.5397;0.9402;
1152.0000;0.5446;0.9544;
1152.3000;0.5413;0.9426;
1152.6000;0.5413;0.9402;
1152.9000;0.5389;0.9284;
1153.2000;0.5405;0.9331;
1153.5000;0.5405;0.9355;
1153.8000;0.5438;0.9379;
1154.1000;0.5389;0.9213;
1154.4000;0.5397;0.9308;
1154.7000;0.5405;0.9355;
1155.0000;0.5429;0.9402;
1155.3000;0.5421;0.9284;
1155.6000;0.5421;0.9284;
1155.9000;0.5527;0.9591;
1156.2000;0.5438;0.9402;
1156.5000;0.5381;0.9355;
1156.8000;0.5454;0.9544;
1157.1000;0.5389;0.9449;
1157.4000;0.5389;0.9402;
1157.7000;0.5413;0.9379;
1158.0000;0.5389;0.9379;
1158.3000;0.5389;0.9379;
1158.6000;0.5421;0.9449;
1158.9000;0.5397;0.9473;
1159.2000;0.5405;0.9449;
1159.5000;0.5470;0.9638;
1159.8000;0.5397;0.9473;
1160.1000;0.5421;0.9426;
1160.4000;0.5381;0.9402;
1160.7000;0.5397;0.9449;
1161.0000;0.5413;0.9473;
1161.3000;0.5413;0.9379;
1161.6000;0.5405;0.9355;
1161.9000;0.5421;0.9331;
1162.2000;0.5389;0.9284;
1162.5000;0.5413;0.9331;
1162.8000;0.5381;0.9260;
1163.1000;0.5397;0.9308;
1163.4000;0.5405;0.9355;
1163.7000;0.5389;0.9260;
1164.0000;0.5413;0.9237;
1164.3000;0.5405;0.9213;
1164.6000;0.5462;0.9355;
1164.9000;0.5405;0.9095;
1165.2000;0.5405;0.9071;
1165.5000;0.5405;0.9071;
1165.8000;0.5397;0.9142;
1166.1000;0.5413;0.9142;
1166.4000;0.5421;0.9071;
1166.7000;0.5405;0.9048;
1167.0000;0.5397;0.9095;
1167.3000;0.5389;0.9142;
1167.6000;0.5405;0.9284;
1167.9000;0.5397;0.9260;
1168.2000;0.5429;0.9284;
1168.5000;0.5397;0.9260;
1168.8000;0.5389;0.9331;
1169.1000;0.5389;0.9426;
1169.4000;0.5405;0.9379;
1169.7000;0.5405;0.9497;
1170.0000;0.5397;0.9473;
1170.3000;0.5405;0.9402;
1170.6000;0.5405;0.9331;
1170.9000;0.5421;0.9426;
1171.2000;0.5405;0.9379;
1171.5000;0.5421;0.9426;
1171.8000;0.5413;0.9449;
1172.1000;0.5413;0.9449;
1172.4000;0.5413;0.9497;
1172.7000;0.5397;0.9426;
1173.0000;0.5405;0.9426;
1173.3000;0.5372;0.9308;
1173.6000;0.5397;0.9426;
1173.9000;0.5413;0.9520;
1174.2000;0.5405;0.9449;
1174.5000;0.5405;0.9426;
1174.8000;0.5397;0.9497;
1175.1000;0.5413;0.9568;
1175.4000;0.5413;0.9591;
1175.7000;0.5405;0.9591;
1176.0000;0.5381;0.9449;
1176.3000;0.5413;0.9449;
1176.6000;0.5421;0.9473;
1176.9000;0.5332;0.9260;
1177.2000;0.5397;0.9402;
1177.5000;0.5421;0.9355;
1177.8000;0.5397;0.9355;
1178.1000;0.5397;0.9284;
1178.4000;0.5405;0.9331;
1178.7000;0.5413;0.9402;
1179.0000;0.5389;0.9402;
1179.3000;0.5405;0.9473;
1179.6000;0.5389;0.9426;
1179.9000;0.5389;0.9402;
1180.2000;0.5405;0.9449;
1180.5000;0.5389;0.9449;
1180.8000;0.5397;0.9402;
1181.1000;0.5397;0.9473;
1181.4000;0.5413;0.9520;
1181.7000;0.5405;0.9473;
1182.0000;0.5413;0.9473;
1182.3000;0.5413;0.9426;
1182.6000;0.5429;0.9544;
1182.9000;0.5389;0.9402;
1183.2000;0.5397;0.9379;
1183.5000;0.5389;0.9449;
1183.8000;0.5397;0.9473;
1184.1000;0.5397;0.9544;
1184.4000;0.5405;0.9544;
1184.7000;0.5405;0.9544;
1185.0000;0.5397;0.9568;
1185.3000;0.5397;0.9497;
1185.6000;0.5389;0.9473;
1185.9000;0.5405;0.9497;
1186.2000;0.5397;0.9473;
1186.5000;0.5454;0.9568;
1186.8000;0.5397;0.9473;
1187.1000;0.5389;0.9449;
1187.4000;0.5381;0.9331;
1187.7000;0.5405;0.9426;
1188.0000;0.5397;0.9379;
1188.3000;0.5405;0.9355;
1188.6000;0.5381;0.9308;
1188.9000;0.5397;0.9402;
1189.2000;0.5405;0.9426;
1189.5000;0.5421;0.9473;
1189.8000;0.5389;0.9426;
1190.1000;0.5405;0.9449;
1190.4000;0.5397;0.9355;
1190.7000;0.5413;0.9402;
1191.0000;0.5413;0.9308;
1191.3000;0.5413;0.9379;
1191.6000;0.5413;0.9473;
1191.9000;0.5429;0.9520;
1192.2000;0.5421;0.9544;
1192.5000;0.5389;0.9497;
1192.8000;0.5356;0.9402;
1193.1000;0.5389;0.9497;
1193.4000;0.5397;0.9449;
1193.7000;0.5397;0.9497;
1194.0000;0.5397;0.9426;
1194.3000;0.5413;0.9402;
1194.6000;0.5462;0.9638;
1194.9000;0.5397;0.9473;
1195.2000;0.5389;0.9497;
1195.5000;0.5405;0.9402;
1195.8000;0.5413;0.9497;
1196.1000;0.5397;0.9520;
1196.4000;0.5397;0.9449;
1196.7000;0.5413;0.9355;
1197.0000;0.5413;0.9331;
1197.3000;0.5405;0.9260;
1197.6000;0.5389;0.9213;
1197.9000;0.5372;0.9213;
1198.2000;0.5397;0.9355;
1198.5000;0.5405;0.9284;
1198.8000;0.5405;0.9284;
1199.1000;0.5381;0.9237;
1199.4000;0.5397;0.9308;
1199.7000;0.5405;0.9331;
1200.0000;0.5364;0.9142;
1200.3000;0.5413;0.9237;
1200.6000;0.5397;0.9284;
1200.9000;0.5348;0.9142;
1201.2000;0.5397;0.9284;
1201.5000;0.5405;0.9308;
1201.8000;0.5405;0.9308;
1202.1000;0.5421;0.9237;
1202.4000;0.5405;0.9166;
1202.7000;0.5405;0.9095;
1203.0000;0.5429;0.9095;
1203.3000;0.5405;0.9190;
1203.6000;0.5405;0.9190;
1203.9000;0.5381;0.9166;
1204.2000;0.5397;0.9260;
1204.5000;0.5405;0.9284;
1204.8000;0.5397;0.9260;
1205.1000;0.5429;0.9284;
1205.4000;0.5405;0.9190;
1205.7000;0.5364;0.9095;
1206.0000;0.5405;0.9284;
1206.3000;0.5405;0.9308;
1206.6000;0.5405;0.9284;
1206.9000;0.5405;0.9260;
1207.2000;0.5405;0.9237;
1207.5000;0.5405;0.9284;
1207.8000;0.5397;0.9260;
1208.1000;0.5397;0.9190;
1208.4000;0.5397;0.9166;
1208.7000;0.5389;0.9166;
1209.0000;0.5372;0.9142;
1209.3000;0.5421;0.9190;
1209.6000;0.5405;0.9142;
1209.9000;0.5413;0.9166;
1210.2000;0.5413;0.9166;
1210.5000;0.5397;0.9142;
1210.8000;0.5413;0.9237;
1211.1000;0.5405;0.9142;
1211.4000;0.5478;0.9284;
1211.7000;0.5397;0.9095;
1212.0000;0.5389;0.9071;
1212.3000;0.5381;0.9024;
1212.6000;0.5413;0.9071;
1212.9000;0.5405;0.9095;
1213.2000;0.5397;0.9001;
1213.5000;0.5405;0.8953;
1213.8000;0.5397;0.8977;
1214.1000;0.5405;0.8906;
1214.4000;0.5421;0.8930;
1214.7000;0.5405;0.8859;
1215.0000;0.5413;0.8906;
1215.3000;0.5389;0.8859;
1215.6000;0.5389;0.8930;
1215.9000;0.5421;0.9024;
1216.2000;0.5429;0.9048;
1216.5000;0.5405;0.9001;
1216.8000;0.5438;0.9213;
1217.1000;0.5397;0.9048;
1217.4000;0.5413;0.9190;
1217.7000;0.5446;0.9308;
1218.0000;0.5397;0.9119;
1218.3000;0.5413;0.9190;
1218.6000;0.5405;0.9142;
1218.9000;0.5421;0.9190;
1219.2000;0.5389;0.9095;
1219.5000;0.5381;0.9142;
1219.8000;0.5413;0.9190;
1220.1000;0.5389;0.9095;
1220.4000;0.5397;0.9166;
1220.7000;0.5405;0.9213;
1221.0000;0.5405;0.9379;
1221.3000;0.5397;0.9379;
1221.6000;0.5397;0.9379;
1221.9000;0.5405;0.9331;
1222.2000;0.5397;0.9284;
1222.5000;0.5413;0.9284;
1222.8000;0.5405;0.9260;
1223.1000;0.5397;0.9166;
1223.4000;0.5405;0.9095;
1223.7000;0.5413;0.9119;
1224.0000;0.5389;0.9024;
1224.3000;0.5405;0.9095;
1224.6000;0.5405;0.9166;
1224.9000;0.5413;0.9166;
1225.2000;0.5389;0.9213;
1225.5000;0.5413;0.9213;
1225.8000;0.5397;0.9190;
1226.1000;0.5421;0.9237;
1226.4000;0.5421;0.9166;
1226.7000;0.5405;0.9166;
1227.0000;0.5421;0.9260;
1227.3000;0.5421;0.9331;
1227.6000;0.5413;0.9379;
1227.9000;0.5397;0.9260;
1228.2000;0.5389;0.9331;
1228.5000;0.5413;0.9355;
1228.8000;0.5405;0.9379;
1229.1000;0.5413;0.9379;
1229.4000;0.5397;0.9284;
1229.7000;0.5381;0.9284;
1230.0000;0.5389;0.9308;
1230.3000;0.5372;0.9331;
1230.6000;0.5405;0.9402;
1230.9000;0.5389;0.9355;
1231.2000;0.5389;0.9402;
1231.5000;0.5372;0.9426;
1231.8000;0.5405;0.9402;
1232.1000;0.5381;0.9331;
1232.4000;0.5389;0.9308;
1232.7000;0.5454;0.9520;
1233.0000;0.5405;0.9355;
1233.3000;0.5381;0.9379;
1233.6000;0.5389;0.9331;
1233.9000;0.5397;0.9355;
1234.2000;0.5413;0.9426;
1234.5000;0.5397;0.9331;
1234.8000;0.5299;0.9142;
1235.1000;0.5389;0.9355;
1235.4000;0.5324;0.9190;
1235.7000;0.5421;0.9355;
1236.0000;0.5397;0.9379;
1236.3000;0.5389;0.9449;
1236.6000;0.5421;0.9449;
1236.9000;0.5397;0.9331;
1237.2000;0.5421;0.9402;
1237.5000;0.5397;0.9379;
1237.8000;0.5372;0.9331;
1238.1000;0.5413;0.9402;
1238.4000;0.5389;0.9331;
1238.7000;0.5389;0.9284;
1239.0000;0.5405;0.9284;
1239.3000;0.5405;0.9284;
1239.6000;0.5397;0.9402;
1239.9000;0.5397;0.9402;
1240.2000;0.5421;0.9473;
1240.5000;0.5421;0.9426;
1240.8000;0.5405;0.9355;
1241.1000;0.5470;0.9473;
1241.4000;0.5413;0.9190;
1241.7000;0.5405;0.9142;
1242.0000;0.5413;0.9071;
1242.3000;0.5397;0.9024;
1242.6000;0.5413;0.9024;
1242.9000;0.5397;0.9071;
1243.2000;0.5397;0.9048;
1243.5000;0.5324;0.8741;
1243.8000;0.5413;0.8977;
1244.1000;0.5405;0.8953;
1244.4000;0.5364;0.8953;
1244.7000;0.5413;0.9024;
1245.0000;0.5397;0.9048;
1245.3000;0.5397;0.9001;
1245.6000;0.5397;0.8977;
1245.9000;0.5397;0.9001;
1246.2000;0.5405;0.9001;
1246.5000;0.5405;0.9024;
1246.8000;0.5397;0.9048;
1247.1000;0.5405;0.9048;
1247.4000;0.5438;0.9260;
1247.7000;0.5421;0.9284;
1248.0000;0.5405;0.9190;
1248.3000;0.5405;0.9190;
1248.6000;0.5397;0.9190;
1248.9000;0.5421;0.9308;
1249.2000;0.5397;0.9260;
1249.5000;0.5389;0.9142;
1249.8000;0.5389;0.9095;
1250.1000;0.5405;0.9142;
1250.4000;0.5405;0.9142;
1250.7000;0.5397;0.9095;
1251.0000;0.5397;0.9024;
1251.3000;0.5413;0.9048;
1251.6000;0.5413;0.9095;
1251.9000;0.5421;0.9095;
1252.2000;0.5405;0.9119;
1252.5000;0.5405;0.9213;
1252.8000;0.5381;0.9213;
1253.1000;0.5397;0.9284;
1253.4000;0.5389;0.9355;
1253.7000;0.5389;0.9260;
1254.0000;0.5413;0.9331;
1254.3000;0.5470;0.9544;
1254.6000;0.5397;0.9260;
1254.9000;0.5397;0.9213;
1255.2000;0.5421;0.9284;
1255.5000;0.5397;0.9237;
1255.8000;0.5405;0.9213;
1256.1000;0.5413;0.9237;
1256.4000;0.5413;0.9190;
1256.7000;0.5429;0.9213;
1257.0000;0.5397;0.9190;
1257.3000;0.5405;0.9213;
1257.6000;0.5389;0.9166;
1257.9000;0.5372;0.9071;
1258.2000;0.5381;0.9119;
1258.5000;0.5405;0.9237;
1258.8000;0.5438;0.9379;
1259.1000;0.5405;0.9331;
1259.4000;0.5421;0.9284;
1259.7000;0.5397;0.9331;
1260.0000;0.5405;0.9331;
1260.3000;0.5397;0.9213;
1260.6000;0.5438;0.9308;
1260.9000;0.5397;0.9260;
1261.2000;0.5446;0.9308;
1261.5000;0.5462;0.9379;
1261.8000;0.5397;0.9190;
1262.1000;0.5348;0.9048;
1262.4000;0.5405;0.9308;
1262.7000;0.5372;0.9237;
1263.0000;0.5405;0.9308;
1263.3000;0.5429;0.9331;
1263.6000;0.5413;0.9284;
1263.9000;0.5413;0.9213;
1264.2000;0.5348;0.9095;
1264.5000;0.5405;0.9308;
1264.8000;0.5438;0.9379;
1265.1000;0.5397;0.9402;
1265.4000;0.5429;0.9473;
1265.7000;0.5397;0.9379;
1266.0000;0.5381;0.9331;
1266.3000;0.5397;0.9473;
1266.6000;0.5397;0.9520;
1266.9000;0.5429;0.9615;
1267.2000;0.5356;0.9402;
1267.5000;0.5356;0.9473;
1267.8000;0.5389;0.9497;
1268.1000;0.5397;0.9449;
1268.4000;0.5421;0.9497;
1268.7000;0.5397;0.9331;
1269.0000;0.5372;0.9213;
1269.3000;0.5405;0.9355;
1269.6000;0.5397;0.9355;
1269.9000;0.5397;0.9308;
1270.2000;0.5397;0.9308;
1270.5000;0.5381;0.9260;
1270.8000;0.5397;0.9237;
1271.1000;0.5397;0.9166;
1271.4000;0.5397;0.9190;
1271.7000;0.5397;0.9237;
1272.0000;0.5356;0.9071;
1272.3000;0.5405;0.9213;
1272.6000;0.5413;0.9308;
1272.9000;0.5397;0.9260;
1273.2000;0.5389;0.9260;
1273.5000;0.5421;0.9379;
1273.8000;0.5389;0.9213;
1274.1000;0.5315;0.9024;
1274.4000;0.5397;0.9260;
1274.7000;0.5413;0.9284;
1275.0000;0.5405;0.9237;
1275.3000;0.5364;0.9237;
1275.6000;0.5405;0.9308;
1275.9000;0.5389;0.9190;
1276.2000;0.5470;0.9284;
1276.5000;0.5389;0.9119;
1276.8000;0.5470;0.9379;
1277.1000;0.5413;0.9260;
1277.4000;0.5389;0.9190;
1277.7000;0.5397;0.9119;
1278.0000;0.5438;0.9190;
1278.3000;0.5389;0.9142;
1278.6000;0.5397;0.9213;
1278.9000;0.5356;0.9024;
1279.2000;0.5405;0.9071;
1279.5000;0.5413;0.9024;
1279.8000;0.5405;0.8953;
1280.1000;0.5381;0.8977;
1280.4000;0.5413;0.9119;
1280.7000;0.5397;0.9142;
1281.0000;0.5429;0.9237;
1281.3000;0.5462;0.9426;
1281.6000;0.5389;0.9284;
1281.9000;0.5397;0.9284;
1282.2000;0.5405;0.9331;
1282.5000;0.5397;0.9379;
1282.8000;0.5413;0.9402;
1283.1000;0.5486;0.9615;
1283.4000;0.5421;0.9473;
1283.7000;0.5405;0.9426;
1284.0000;0.5421;0.9426;
1284.3000;0.5397;0.9355;
1284.6000;0.5405;0.9355;
1284.9000;0.5405;0.9331;
1285.2000;0.5405;0.9331;
1285.5000;0.5397;0.9331;
1285.8000;0.5397;0.9284;
1286.1000;0.5405;0.9237;
1286.4000;0.5405;0.9213;
1286.7000;0.5429;0.9355;
1287.0000;0.5372;0.9166;
1287.3000;0.5397;0.9284;
1287.6000;0.5397;0.9331;
1287.9000;0.5397;0.9379;
1288.2000;0.5364;0.9237;
1288.5000;0.5389;0.9213;
1288.8000;0.5364;0.9237;
1289.1000;0.5389;0.9308;
1289.4000;0.5381;0.9308;
1289.7000;0.5397;0.9284;
1290.0000;0.5372;0.9260;
1290.3000;0.5397;0.9237;
1290.6000;0.5381;0.9119;
1290.9000;0.5389;0.9213;
1291.2000;0.5381;0.9142;
1291.5000;0.5381;0.9190;
1291.8000;0.5364;0.9142;
1292.1000;0.5389;0.9142;
1292.4000;0.5405;0.9190;
1292.7000;0.5389;0.9166;
1293.0000;0.5405;0.9142;
1293.3000;0.5405;0.9119;
1293.6000;0.5397;0.9095;
1293.9000;0.5348;0.8930;
1294.2000;0.5405;0.9071;
1294.5000;0.5413;0.9071;
1294.8000;0.5372;0.8977;
1295.1000;0.5413;0.9048;
1295.4000;0.5405;0.9095;
1295.7000;0.5372;0.9119;
1296.0000;0.5413;0.9213;
1296.3000;0.5405;0.9260;
1296.6000;0.5405;0.9331;
1296.9000;0.5381;0.9190;
1297.2000;0.5389;0.9308;
1297.5000;0.5397;0.9331;
1297.8000;0.5389;0.9237;
1298.1000;0.5405;0.9331;
1298.4000;0.5381;0.9260;
1298.7000;0.5389;0.9308;
1299.0000;0.5429;0.9379;
1299.3000;0.5429;0.9473;
1299.6000;0.5397;0.9355;
1299.9000;0.5429;0.9379;
1300.2000;0.5421;0.9355;
1300.5000;0.5405;0.9331;
1300.8000;0.5405;0.9284;
1301.1000;0.5413;0.9237;
1301.4000;0.5405;0.9166;
1301.7000;0.5397;0.9166;
1302.0000;0.5389;0.9024;
1302.3000;0.5381;0.8977;
1302.6000;0.5389;0.9048;
1302.9000;0.5389;0.9001;
1303.2000;0.5389;0.8882;
1303.5000;0.5381;0.8930;
1303.8000;0.5389;0.9071;
1304.1000;0.5397;0.9119;
1304.4000;0.5397;0.9190;
1304.7000;0.5413;0.9260;
1305.0000;0.5397;0.9213;
1305.3000;0.5413;0.9355;
1305.6000;0.5315;0.9119;
1305.9000;0.5421;0.9331;
1306.2000;0.5397;0.9260;
1306.5000;0.5446;0.9402;
1306.8000;0.5413;0.9284;
1307.1000;0.5389;0.9308;
1307.4000;0.5405;0.9355;
1307.7000;0.5397;0.9379;
1308.0000;0.5397;0.9331;
1308.3000;0.5397;0.9237;
1308.6000;0.5356;0.9166;
1308.9000;0.5389;0.9379;
1309.2000;0.5413;0.9520;
1309.5000;0.5397;0.9520;
1309.8000;0.5364;0.9379;
1310.1000;0.5413;0.9426;
1310.4000;0.5421;0.9426;
1310.7000;0.5462;0.9520;
1311.0000;0.5405;0.9402;
1311.3000;0.5332;0.9260;
1311.6000;0.5389;0.9402;
1311.9000;0.5405;0.9355;
1312.2000;0.5405;0.9355;
1312.5000;0.5372;0.9308;
1312.8000;0.5446;0.9473;
1313.1000;0.5413;0.9402;
1313.4000;0.5397;0.9379;
1313.7000;0.5397;0.9331;
1314.0000;0.5421;0.9379;
1314.3000;0.5405;0.9355;
1314.6000;0.5405;0.9355;
1314.9000;0.5397;0.9355;
1315.2000;0.5405;0.9402;
1315.5000;0.5413;0.9449;
1315.8000;0.5429;0.9497;
1316.1000;0.5397;0.9426;
1316.4000;0.5381;0.9426;
1316.7000;0.5397;0.9497;
1317.0000;0.5389;0.9473;
1317.3000;0.5372;0.9402;
1317.6000;0.5389;0.9402;
1317.9000;0.5421;0.9544;
1318.2000;0.5405;0.9497;
1318.5000;0.5397;0.9449;
1318.8000;0.5397;0.9449;
1319.1000;0.5413;0.9449;
1319.4000;0.5429;0.9473;
1319.7000;0.5438;0.9473;
1320.0000;0.5405;0.9355;
1320.3000;0.5397;0.9331;
1320.6000;0.5397;0.9473;
1320.9000;0.5413;0.9520;
1321.2000;0.5397;0.9568;
1321.5000;0.5405;0.9544;
1321.8000;0.5397;0.9520;
1322.1000;0.5364;0.9402;
1322.4000;0.5397;0.9426;
1322.7000;0.5405;0.9426;
1323.0000;0.5389;0.9355;
1323.3000;0.5413;0.9402;
1323.6000;0.5397;0.9355;
1323.9000;0.5389;0.9308;
1324.2000;0.5405;0.9426;
1324.5000;0.5405;0.9473;
1324.8000;0.5397;0.9379;
1325.1000;0.5405;0.9379;
1325.4000;0.5413;0.9355;
1325.7000;0.5389;0.9260;
1326.0000;0.5340;0.9142;
1326.3000;0.5397;0.9355;
1326.6000;0.5381;0.9284;
1326.9000;0.5397;0.9355;
1327.2000;0.5413;0.9402;
1327.5000;0.5389;0.9402;
1327.8000;0.5389;0.9449;
1328.1000;0.5381;0.9449;
1328.4000;0.5405;0.9497;
1328.7000;0.5405;0.9544;
1329.0000;0.5389;0.9449;
1329.3000;0.5389;0.9379;
1329.6000;0.5389;0.9355;
1329.9000;0.5429;0.9308;
1330.2000;0.5364;0.9142;
1330.5000;0.5397;0.9166;
1330.8000;0.5421;0.9284;
1331.1000;0.5405;0.9426;
1331.4000;0.5381;0.9473;
1331.7000;0.5348;0.9379;
1332.0000;0.5421;0.9497;
1332.3000;0.5397;0.9379;
1332.6000;0.5381;0.9331;
1332.9000;0.5389;0.9308;
1333.2000;0.5372;0.9308;
1333.5000;0.5389;0.9308;
1333.8000;0.5389;0.9260;
1334.1000;0.5421;0.9355;
1334.4000;0.5397;0.9260;
1334.7000;0.5389;0.9260;
1335.0000;0.5397;0.9260;
1335.3000;0.5389;0.9284;
1335.6000;0.5405;0.9308;
1335.9000;0.5405;0.9308;
1336.2000;0.5405;0.9379;
1336.5000;0.5405;0.9379;
1336.8000;0.5405;0.9331;
1337.1000;0.5397;0.9213;
1337.4000;0.5405;0.9213;
1337.7000;0.5397;0.9213;
1338.0000;0.5381;0.9213;
1338.3000;0.5405;0.9237;
1338.6000;0.5381;0.9260;
1338.9000;0.5389;0.9308;
1339.2000;0.5454;0.9379;
1339.5000;0.5405;0.9284;
1339.8000;0.5405;0.9260;
1340.1000;0.5421;0.9237;
1340.4000;0.5389;0.9190;
1340.7000;0.5413;0.9237;
1341.0000;0.5413;0.9284;
1341.3000;0.5413;0.9284;
1341.6000;0.5429;0.9308;
1341.9000;0.5397;0.9237;
1342.2000;0.5389;0.9237;
1342.5000;0.5413;0.9355;
1342.8000;0.5397;0.9260;
1343.1000;0.5397;0.9260;
1343.4000;0.5421;0.9308;
1343.7000;0.5413;0.9355;
1344.0000;0.5405;0.9355;
1344.3000;0.5405;0.9402;
1344.6000;0.5413;0.9379;
1344.9000;0.5405;0.9402;
1345.2000;0.5405;0.9426;
1345.5000;0.5389;0.9473;
1345.8000;0.5389;0.9379;
1346.1000;0.5429;0.9497;
1346.4000;0.5405;0.9426;
1346.7000;0.5413;0.9379;
1347.0000;0.5462;0.9520;
1347.3000;0.5397;0.9379;
1347.6000;0.5381;0.9379;
1347.9000;0.5389;0.9473;
1348.2000;0.5364;0.9426;
1348.5000;0.5389;0.9520;
1348.8000;0.5389;0.9449;
1349.1000;0.5397;0.9449;
1349.4000;0.5397;0.9473;
1349.7000;0.5364;0.9402;
1350.0000;0.5421;0.9473;
1350.3000;0.5397;0.9473;
1350.6000;0.5381;0.9497;
1350.9000;0.5429;0.9662;
1351.2000;0.5462;0.9662;
1351.5000;0.5397;0.9473;
1351.8000;0.5405;0.9449;
1352.1000;0.5397;0.9426;
1352.4000;0.5413;0.9426;
1352.7000;0.5495;0.9615;
1353.0000;0.5405;0.9355;
1353.3000;0.5397;0.9379;
1353.6000;0.5381;0.9237;
1353.9000;0.5405;0.9331;
1354.2000;0.5413;0.9355;
1354.5000;0.5413;0.9331;
1354.8000;0.5413;0.9331;
1355.1000;0.5413;0.9260;
1355.4000;0.5413;0.9284;
1355.7000;0.5413;0.9331;
1356.0000;0.5478;0.9615;
1356.3000;0.5332;0.9237;
1356.6000;0.5421;0.9497;
1356.9000;0.5348;0.9355;
1357.2000;0.5486;0.9662;
1357.5000;0.5397;0.9379;
1357.8000;0.5413;0.9449;
1358.1000;0.5454;0.9544;
1358.4000;0.5381;0.9355;
1358.7000;0.5381;0.9308;
1359.0000;0.5381;0.9379;
1359.3000;0.5381;0.9331;
1359.6000;0.5413;0.9402;
1359.9000;0.5389;0.9284;
1360.2000;0.5397;0.9379;
1360.5000;0.5413;0.9355;
1360.8000;0.5389;0.9213;
1361.1000;0.5389;0.9308;
1361.4000;0.5397;0.9355;
1361.7000;0.5413;0.9284;
1362.0000;0.5421;0.9284;
1362.3000;0.5397;0.9213;
1362.6000;0.5389;0.9237;
1362.9000;0.5389;0.9260;
1363.2000;0.5397;0.9237;
1363.5000;0.5381;0.9213;
1363.8000;0.5397;0.9213;
1364.1000;0.5389;0.9284;
1364.4000;0.5389;0.9355;
1364.7000;0.5405;0.9473;
1365.0000;0.5397;0.9449;
1365.3000;0.5397;0.9379;
1365.6000;0.5397;0.9331;
1365.9000;0.5470;0.9591;
1366.2000;0.5389;0.9402;
1366.5000;0.5405;0.9473;
1366.8000;0.5405;0.9426;
1367.1000;0.5389;0.9308;
1367.4000;0.5397;0.9379;
1367.7000;0.5389;0.9355;
1368.0000;0.5405;0.9449;
1368.3000;0.5389;0.9402;
1368.6000;0.5397;0.9473;
1368.9000;0.5381;0.9497;
1369.2000;0.5372;0.9331;
1369.5000;0.5397;0.9355;
1369.8000;0.5405;0.9379;
1370.1000;0.5397;0.9284;
1370.4000;0.5413;0.9355;
1370.7000;0.5413;0.9331;
1371.0000;0.5405;0.9473;
1371.3000;0.5372;0.9402;
1371.6000;0.5389;0.9402;
1371.9000;0.5405;0.9426;
1372.2000;0.5405;0.9449;
1372.5000;0.5389;0.9379;
1372.8000;0.5389;0.9355;
1373.1000;0.5438;0.9544;
1373.4000;0.5397;0.9355;
1373.7000;0.5332;0.9142;
1374.0000;0.5381;0.9308;
1374.3000;0.5381;0.9379;
1374.6000;0.5389;0.9497;
1374.9000;0.5429;0.9591;
1375.2000;0.5389;0.9544;
1375.5000;0.5405;0.9615;
1375.8000;0.5405;0.9591;
1376.1000;0.5421;0.9638;
1376.4000;0.5381;0.9591;
1376.7000;0.5405;0.9591;
1377.0000;0.5389;0.9591;
1377.3000;0.5381;0.9615;
1377.6000;0.5381;0.9497;
1377.9000;0.5397;0.9520;
1378.2000;0.5356;0.9379;
1378.5000;0.5405;0.9473;
1378.8000;0.5405;0.9449;
1379.1000;0.5389;0.9379;
1379.4000;0.5413;0.9426;
1379.7000;0.5389;0.9379;
1380.0000;0.5389;0.9402;
1380.3000;0.5381;0.9355;
1380.6000;0.5381;0.9402;
1380.9000;0.5405;0.9544;
1381.2000;0.5405;0.9544;
1381.5000;0.5389;0.9497;
1381.8000;0.5389;0.9520;
1382.1000;0.5405;0.9591;
1382.4000;0.5397;0.9497;
1382.7000;0.5381;0.9402;
1383.0000;0.5397;0.9379;
1383.3000;0.5405;0.9355;
1383.6000;0.5397;0.9331;
1383.9000;0.5389;0.9331;
1384.2000;0.5462;0.9473;
1384.5000;0.5405;0.9213;
1384.8000;0.5397;0.9213;
1385.1000;0.5381;0.9095;
1385.4000;0.5397;0.9119;
1385.7000;0.5397;0.9190;
1386.0000;0.5397;0.9284;
1386.3000;0.5405;0.9355;
1386.6000;0.5389;0.9379;
1386.9000;0.5405;0.9355;
1387.2000;0.5429;0.9426;
1387.5000;0.5405;0.9355;
1387.8000;0.5381;0.9308;
1388.1000;0.5381;0.9284;
1388.4000;0.5397;0.9379;
1388.7000;0.5421;0.9426;
1389.0000;0.5397;0.9355;
1389.3000;0.5381;0.9331;
1389.6000;0.5389;0.9260;
1389.9000;0.5397;0.9260;
1390.2000;0.5389;0.9237;
1390.5000;0.5405;0.9308;
1390.8000;0.5381;0.9355;
1391.1000;0.5397;0.9379;
1391.4000;0.5389;0.9379;
1391.7000;0.5397;0.9449;
1392.0000;0.5397;0.9497;
1392.3000;0.5381;0.9426;
1392.6000;0.5405;0.9473;
1392.9000;0.5397;0.9426;
1393.2000;0.5389;0.9379;
1393.5000;0.5405;0.9355;
1393.8000;0.5397;0.9308;
1394.1000;0.5397;0.9308;
1394.4000;0.5397;0.9379;
1394.7000;0.5364;0.9402;
1395.0000;0.5381;0.9497;
1395.3000;0.5364;0.9449;
1395.6000;0.5397;0.9473;
1395.9000;0.5389;0.9426;
1396.2000;0.5348;0.9426;
1396.5000;0.5389;0.9497;
1396.8000;0.5397;0.9449;
1397.1000;0.5405;0.9331;
1397.4000;0.5381;0.9308;
1397.7000;0.5389;0.9331;
1398.0000;0.5381;0.9331;
1398.3000;0.5307;0.9142;
1398.6000;0.5413;0.9331;
1398.9000;0.5397;0.9284;
1399.2000;0.5372;0.9284;
1399.5000;0.5397;0.9308;
1399.8000;0.5381;0.9355;
