time/ms;Fluo/V;P700 deltaI/I x10³;
-199.8000;0.8246;1.1221;
-199.5000;0.8230;1.1198;
-199.2000;0.8230;1.1268;
-198.9000;0.8213;1.1221;
-198.6000;0.8238;1.1316;
-198.3000;0.8230;1.1221;
-198.0000;0.8238;1.1198;
-197.7000;0.8230;1.1127;
-197.4000;0.8221;1.1079;
-197.1000;0.8221;1.1103;
-196.8000;0.8230;1.1150;
-196.5000;0.8230;1.1127;
-196.2000;0.8205;1.1221;
-195.9000;0.8221;1.1174;
-195.6000;0.8213;1.1198;
-195.3000;0.8213;1.1174;
-195.0000;0.8230;1.1245;
-194.7000;0.8254;1.1363;
-194.4000;0.8221;1.1268;
-194.1000;0.8230;1.1292;
-193.8000;0.8262;1.1316;
-193.5000;0.8246;1.1292;
-193.2000;0.8148;1.1103;
-192.9000;0.8230;1.1268;
-192.6000;0.8230;1.1316;
-192.3000;0.8238;1.1316;
-192.0000;0.8213;1.1316;
-191.7000;0.8238;1.1410;
-191.4000;0.8221;1.1316;
-191.1000;0.8221;1.1292;
-190.8000;0.8230;1.1387;
-190.5000;0.8238;1.1457;
-190.2000;0.8221;1.1481;
-189.9000;0.8221;1.1457;
-189.6000;0.8221;1.1599;
-189.3000;0.8221;1.1599;
-189.0000;0.8221;1.1623;
-188.7000;0.8230;1.1646;
-188.4000;0.8230;1.1623;
-188.1000;0.8230;1.1576;
-187.8000;0.8230;1.1576;
-187.5000;0.8213;1.1481;
-187.2000;0.8230;1.1505;
-186.9000;0.8230;1.1434;
-186.6000;0.8230;1.1410;
-186.3000;0.8230;1.1410;
-186.0000;0.8230;1.1387;
-185.7000;0.8205;1.1339;
-185.4000;0.8221;1.1316;
-185.1000;0.8205;1.1198;
-184.8000;0.8295;1.1410;
-184.5000;0.8262;1.1316;
-184.2000;0.8246;1.1292;
-183.9000;0.8221;1.1245;
-183.6000;0.8238;1.1339;
-183.3000;0.8230;1.1410;
-183.0000;0.8221;1.1339;
-182.7000;0.8164;1.1198;
-182.4000;0.8213;1.1387;
-182.1000;0.8221;1.1410;
-181.8000;0.8205;1.1410;
-181.5000;0.8230;1.1339;
-181.2000;0.8230;1.1292;
-180.9000;0.8230;1.1339;
-180.6000;0.8213;1.1339;
-180.3000;0.8205;1.1292;
-180.0000;0.8213;1.1339;
-179.7000;0.8221;1.1434;
-179.4000;0.8238;1.1505;
-179.1000;0.8238;1.1434;
-178.8000;0.8230;1.1410;
-178.5000;0.8230;1.1434;
-178.2000;0.8278;1.1505;
-177.9000;0.8254;1.1410;
-177.6000;0.8230;1.1292;
-177.3000;0.8230;1.1198;
-177.0000;0.8238;1.1245;
-176.7000;0.8238;1.1245;
-176.4000;0.8221;1.1268;
-176.1000;0.8221;1.1245;
-175.8000;0.8246;1.1363;
-175.5000;0.8238;1.1387;
-175.2000;0.8238;1.1434;
-174.9000;0.8238;1.1434;
-174.6000;0.8238;1.1481;
-174.3000;0.8246;1.1576;
-174.0000;0.8221;1.1528;
-173.7000;0.8205;1.1434;
-173.4000;0.8213;1.1552;
-173.1000;0.8238;1.1599;
-172.8000;0.8246;1.1505;
-172.5000;0.8221;1.1528;
-172.2000;0.8238;1.1599;
-171.9000;0.8221;1.1623;
-171.6000;0.8221;1.1646;
-171.3000;0.8230;1.1623;
-171.0000;0.8197;1.1552;
-170.7000;0.8205;1.1552;
-170.4000;0.8230;1.1528;
-170.1000;0.8230;1.1576;
-169.8000;0.8148;1.1363;
-169.5000;0.8213;1.1599;
-169.2000;0.8230;1.1670;
-168.9000;0.8221;1.1741;
-168.6000;0.8230;1.1788;
-168.3000;0.8221;1.1765;
-168.0000;0.8238;1.1646;
-167.7000;0.8238;1.1599;
-167.4000;0.8295;1.1741;
-167.1000;0.8221;1.1599;
-166.8000;0.8230;1.1599;
-166.5000;0.8230;1.1623;
-166.2000;0.8221;1.1623;
-165.9000;0.8221;1.1623;
-165.6000;0.8230;1.1670;
-165.3000;0.8221;1.1694;
-165.0000;0.8262;1.1765;
-164.7000;0.8221;1.1694;
-164.4000;0.8213;1.1670;
-164.1000;0.8230;1.1670;
-163.8000;0.8189;1.1528;
-163.5000;0.8213;1.1623;
-163.2000;0.8221;1.1552;
-162.9000;0.8230;1.1505;
-162.6000;0.8221;1.1528;
-162.3000;0.8221;1.1552;
-162.0000;0.8213;1.1457;
-161.7000;0.8181;1.1387;
-161.4000;0.8221;1.1410;
-161.1000;0.8156;1.1245;
-160.8000;0.8230;1.1481;
-160.5000;0.8270;1.1528;
-160.2000;0.8230;1.1457;
-159.9000;0.8221;1.1457;
-159.6000;0.8197;1.1457;
-159.3000;0.8205;1.1481;
-159.0000;0.8230;1.1505;
-158.7000;0.8230;1.1505;
-158.4000;0.8230;1.1434;
-158.1000;0.8230;1.1387;
-157.8000;0.8278;1.1410;
-157.5000;0.8230;1.1316;
-157.2000;0.8213;1.1292;
-156.9000;0.8205;1.1268;
-156.6000;0.8230;1.1363;
-156.3000;0.8213;1.1316;
-156.0000;0.8221;1.1316;
-155.7000;0.8230;1.1292;
-155.4000;0.8238;1.1316;
-155.1000;0.8213;1.1245;
-154.8000;0.8221;1.1316;
-154.5000;0.8213;1.1268;
-154.2000;0.8246;1.1339;
-153.9000;0.8230;1.1316;
-153.6000;0.8213;1.1221;
-153.3000;0.8238;1.1221;
-153.0000;0.8221;1.1174;
-152.7000;0.8230;1.1221;
-152.4000;0.8230;1.1316;
-152.1000;0.8230;1.1316;
-151.8000;0.8205;1.1316;
-151.5000;0.8230;1.1387;
-151.2000;0.8221;1.1410;
-150.9000;0.8205;1.1387;
-150.6000;0.8221;1.1387;
-150.3000;0.8278;1.1552;
-150.0000;0.8213;1.1457;
-149.7000;0.8213;1.1434;
-149.4000;0.8230;1.1505;
-149.1000;0.8205;1.1434;
-148.8000;0.8213;1.1410;
-148.5000;0.8230;1.1410;
-148.2000;0.8221;1.1339;
-147.9000;0.8197;1.1268;
-147.6000;0.8270;1.1528;
-147.3000;0.8246;1.1457;
-147.0000;0.8246;1.1505;
-146.7000;0.8262;1.1623;
-146.4000;0.8230;1.1457;
-146.1000;0.8238;1.1434;
-145.8000;0.8221;1.1387;
-145.5000;0.8238;1.1505;
-145.2000;0.8262;1.1599;
-144.9000;0.8230;1.1505;
-144.6000;0.8230;1.1646;
-144.3000;0.8205;1.1599;
-144.0000;0.8189;1.1410;
-143.7000;0.8238;1.1528;
-143.4000;0.8230;1.1528;
-143.1000;0.8246;1.1434;
-142.8000;0.8221;1.1434;
-142.5000;0.8230;1.1410;
-142.2000;0.8164;1.1268;
-141.9000;0.8221;1.1387;
-141.6000;0.8213;1.1339;
-141.3000;0.8230;1.1292;
-141.0000;0.8238;1.1292;
-140.7000;0.8205;1.1268;
-140.4000;0.8238;1.1410;
-140.1000;0.8270;1.1457;
-139.8000;0.8238;1.1363;
-139.5000;0.8197;1.1268;
-139.2000;0.8221;1.1410;
-138.9000;0.8230;1.1387;
-138.6000;0.8197;1.1387;
-138.3000;0.8213;1.1552;
-138.0000;0.8254;1.1599;
-137.7000;0.8221;1.1552;
-137.4000;0.8164;1.1387;
-137.1000;0.8278;1.1694;
-136.8000;0.8287;1.1670;
-136.5000;0.8197;1.1410;
-136.2000;0.8238;1.1434;
-135.9000;0.8230;1.1363;
-135.6000;0.8221;1.1410;
-135.3000;0.8230;1.1434;
-135.0000;0.8230;1.1434;
-134.7000;0.8230;1.1410;
-134.4000;0.8230;1.1410;
-134.1000;0.8221;1.1410;
-133.8000;0.8230;1.1387;
-133.5000;0.8230;1.1434;
-133.2000;0.8221;1.1434;
-132.9000;0.8230;1.1457;
-132.6000;0.8246;1.1528;
-132.3000;0.8238;1.1505;
-132.0000;0.8238;1.1528;
-131.7000;0.8246;1.1457;
-131.4000;0.8238;1.1245;
-131.1000;0.8181;1.1150;
-130.8000;0.8238;1.1292;
-130.5000;0.8230;1.1268;
-130.2000;0.8230;1.1127;
-129.9000;0.8197;1.1079;
-129.6000;0.8230;1.1245;
-129.3000;0.8246;1.1292;
-129.0000;0.8230;1.1292;
-128.7000;0.8213;1.1292;
-128.4000;0.8213;1.1339;
-128.1000;0.8221;1.1339;
-127.8000;0.8246;1.1410;
-127.5000;0.8221;1.1316;
-127.2000;0.8221;1.1363;
-126.9000;0.8221;1.1363;
-126.6000;0.8230;1.1387;
-126.3000;0.8230;1.1387;
-126.0000;0.8230;1.1363;
-125.7000;0.8221;1.1363;
-125.4000;0.8221;1.1339;
-125.1000;0.8303;1.1457;
-124.8000;0.8189;1.1268;
-124.5000;0.8230;1.1363;
-124.2000;0.8230;1.1268;
-123.9000;0.8230;1.1316;
-123.6000;0.8238;1.1292;
-123.3000;0.8221;1.1292;
-123.0000;0.8213;1.1292;
-122.7000;0.8205;1.1292;
-122.4000;0.8205;1.1316;
-122.1000;0.8205;1.1339;
-121.8000;0.8213;1.1339;
-121.5000;0.8230;1.1339;
-121.2000;0.8213;1.1316;
-120.9000;0.8205;1.1245;
-120.6000;0.8230;1.1268;
-120.3000;0.8238;1.1316;
-120.0000;0.8213;1.1268;
-119.7000;0.8181;1.1198;
-119.4000;0.8230;1.1316;
-119.1000;0.8254;1.1387;
-118.8000;0.8181;1.1245;
-118.5000;0.8238;1.1268;
-118.2000;0.8246;1.1292;
-117.9000;0.8164;1.1150;
-117.6000;0.8197;1.1268;
-117.3000;0.8197;1.1292;
-117.0000;0.8230;1.1410;
-116.7000;0.8238;1.1410;
-116.4000;0.8238;1.1457;
-116.1000;0.8238;1.1481;
-115.8000;0.8205;1.1339;
-115.5000;0.8254;1.1505;
-115.2000;0.8213;1.1457;
-114.9000;0.8246;1.1457;
-114.6000;0.8197;1.1292;
-114.3000;0.8221;1.1316;
-114.0000;0.8213;1.1221;
-113.7000;0.8254;1.1221;
-113.4000;0.8230;1.1174;
-113.1000;0.8221;1.1127;
-112.8000;0.8238;1.1268;
-112.5000;0.8230;1.1268;
-112.2000;0.8230;1.1245;
-111.9000;0.8246;1.1245;
-111.6000;0.8213;1.1221;
-111.3000;0.8230;1.1245;
-111.0000;0.8230;1.1198;
-110.7000;0.8221;1.1221;
-110.4000;0.8221;1.1363;
-110.1000;0.8246;1.1339;
-109.8000;0.8230;1.1292;
-109.5000;0.8230;1.1268;
-109.2000;0.8189;1.1150;
-108.9000;0.8230;1.1245;
-108.6000;0.8205;1.1174;
-108.3000;0.8254;1.1245;
-108.0000;0.8238;1.1150;
-107.7000;0.8221;1.1198;
-107.4000;0.8221;1.1150;
-107.1000;0.8230;1.1245;
-106.8000;0.8230;1.1245;
-106.5000;0.8213;1.1198;
-106.2000;0.8230;1.1221;
-105.9000;0.8230;1.1174;
-105.6000;0.8238;1.1198;
-105.3000;0.8238;1.1174;
-105.0000;0.8221;1.1127;
-104.7000;0.8230;1.1127;
-104.4000;0.8205;1.1127;
-104.1000;0.8230;1.1127;
-103.8000;0.8254;1.1221;
-103.5000;0.8230;1.1174;
-103.2000;0.8238;1.1174;
-102.9000;0.8230;1.1150;
-102.6000;0.8238;1.1150;
-102.3000;0.8230;1.1127;
-102.0000;0.8246;1.1174;
-101.7000;0.8246;1.1292;
-101.4000;0.8246;1.1268;
-101.1000;0.8246;1.1221;
-100.8000;0.8140;1.0985;
-100.5000;0.8205;1.1127;
-100.2000;0.8230;1.1174;
-99.9000;0.8238;1.1198;
-99.6000;0.8221;1.1174;
-99.3000;0.8221;1.1103;
-99.0000;0.8238;1.1198;
-98.7000;0.8189;1.1174;
-98.4000;0.8238;1.1221;
-98.1000;0.8238;1.1150;
-97.8000;0.8246;1.1198;
-97.5000;0.8221;1.1127;
-97.2000;0.8238;1.1174;
-96.9000;0.8238;1.1174;
-96.6000;0.8181;1.1103;
-96.3000;0.8230;1.1198;
-96.0000;0.8270;1.1316;
-95.7000;0.8230;1.1245;
-95.4000;0.8230;1.1292;
-95.1000;0.8213;1.1221;
-94.8000;0.8221;1.1268;
-94.5000;0.8205;1.1245;
-94.2000;0.8213;1.1245;
-93.9000;0.8221;1.1221;
-93.6000;0.8238;1.1268;
-93.3000;0.8230;1.1174;
-93.0000;0.8221;1.1174;
-92.7000;0.8246;1.1174;
-92.4000;0.8238;1.1174;
-92.1000;0.8246;1.1221;
-91.8000;0.8246;1.1174;
-91.5000;0.8230;1.1150;
-91.2000;0.8230;1.1150;
-90.9000;0.8254;1.1245;
-90.6000;0.8246;1.1292;
-90.3000;0.8238;1.1268;
-90.0000;0.8230;1.1198;
-89.7000;0.8213;1.1221;
-89.4000;0.8238;1.1245;
-89.1000;0.8132;1.1056;
-88.8000;0.8238;1.1292;
-88.5000;0.8246;1.1221;
-88.2000;0.8230;1.1198;
-87.9000;0.8205;1.1127;
-87.6000;0.8254;1.1245;
-87.3000;0.8221;1.1198;
-87.0000;0.8230;1.1198;
-86.7000;0.8213;1.1174;
-86.4000;0.8246;1.1198;
-86.1000;0.8230;1.1174;
-85.8000;0.8205;1.1103;
-85.5000;0.8230;1.1103;
-85.2000;0.8230;1.1150;
-84.9000;0.8213;1.1150;
-84.6000;0.8221;1.1221;
-84.3000;0.8197;1.1079;
-84.0000;0.8197;1.1150;
-83.7000;0.8246;1.1174;
-83.4000;0.8230;1.1127;
-83.1000;0.8262;1.1221;
-82.8000;0.8221;1.1245;
-82.5000;0.8221;1.1221;
-82.2000;0.8238;1.1245;
-81.9000;0.8238;1.1268;
-81.6000;0.8238;1.1245;
-81.3000;0.8238;1.1245;
-81.0000;0.8238;1.1292;
-80.7000;0.8205;1.1150;
-80.4000;0.8238;1.1198;
-80.1000;0.8230;1.1174;
-79.8000;0.8230;1.1127;
-79.5000;0.8189;1.1079;
-79.2000;0.8246;1.1245;
-78.9000;0.8221;1.1221;
-78.6000;0.8189;1.1221;
-78.3000;0.8221;1.1316;
-78.0000;0.8238;1.1221;
-77.7000;0.8221;1.1127;
-77.4000;0.8278;1.1316;
-77.1000;0.8238;1.1221;
-76.8000;0.8221;1.1174;
-76.5000;0.8270;1.1292;
-76.2000;0.8221;1.1198;
-75.9000;0.8238;1.1292;
-75.6000;0.8238;1.1339;
-75.3000;0.8319;1.1528;
-75.0000;0.8238;1.1292;
-74.7000;0.8246;1.1292;
-74.4000;0.8246;1.1339;
-74.1000;0.8221;1.1268;
-73.8000;0.8221;1.1316;
-73.5000;0.8230;1.1245;
-73.2000;0.8246;1.1221;
-72.9000;0.8238;1.1103;
-72.6000;0.8238;1.1079;
-72.3000;0.8238;1.1127;
-72.0000;0.8230;1.1079;
-71.7000;0.8230;1.1221;
-71.4000;0.8238;1.1268;
-71.1000;0.8238;1.1268;
-70.8000;0.8238;1.1316;
-70.5000;0.8230;1.1339;
-70.2000;0.8230;1.1292;
-69.9000;0.8221;1.1292;
-69.6000;0.8238;1.1363;
-69.3000;0.8238;1.1410;
-69.0000;0.8270;1.1387;
-68.7000;0.8230;1.1221;
-68.4000;0.8221;1.1127;
-68.1000;0.8238;1.1174;
-67.8000;0.8213;1.1150;
-67.5000;0.8230;1.1198;
-67.2000;0.8246;1.1221;
-66.9000;0.8213;1.1292;
-66.6000;0.8221;1.1339;
-66.3000;0.8238;1.1339;
-66.0000;0.8262;1.1245;
-65.7000;0.8238;1.1150;
-65.4000;0.8238;1.1056;
-65.1000;0.8221;1.1103;
-64.8000;0.8213;1.1150;
-64.5000;0.8238;1.1127;
-64.2000;0.8230;1.1174;
-63.9000;0.8230;1.1150;
-63.6000;0.8221;1.1198;
-63.3000;0.8262;1.1316;
-63.0000;0.8278;1.1434;
-62.7000;0.8213;1.1221;
-62.4000;0.8213;1.1245;
-62.1000;0.8221;1.1221;
-61.8000;0.8254;1.1292;
-61.5000;0.8221;1.1245;
-61.2000;0.8246;1.1387;
-60.9000;0.8230;1.1387;
-60.6000;0.8205;1.1363;
-60.3000;0.8246;1.1434;
-60.0000;0.8197;1.1316;
-59.7000;0.8221;1.1268;
-59.4000;0.8230;1.1292;
-59.1000;0.8230;1.1316;
-58.8000;0.8197;1.1268;
-58.5000;0.8205;1.1245;
-58.2000;0.8221;1.1316;
-57.9000;0.8221;1.1387;
-57.6000;0.8238;1.1410;
-57.3000;0.8295;1.1457;
-57.0000;0.8221;1.1316;
-56.7000;0.8221;1.1221;
-56.4000;0.8230;1.1174;
-56.1000;0.8230;1.1103;
-55.8000;0.8238;1.1221;
-55.5000;0.8173;1.1009;
-55.2000;0.8230;1.1103;
-54.9000;0.8221;1.1056;
-54.6000;0.8230;1.1056;
-54.3000;0.8278;1.1245;
-54.0000;0.8213;1.1150;
-53.7000;0.8230;1.1221;
-53.4000;0.8221;1.1127;
-53.1000;0.8230;1.1127;
-52.8000;0.8246;1.1103;
-52.5000;0.8221;1.1174;
-52.2000;0.8246;1.1150;
-51.9000;0.8230;1.1032;
-51.6000;0.8230;1.1127;
-51.3000;0.8213;1.1127;
-51.0000;0.8246;1.1127;
-50.7000;0.8246;1.1103;
-50.4000;0.8238;1.1174;
-50.1000;0.8221;1.1174;
-49.8000;0.8230;1.1245;
-49.5000;0.8254;1.1363;
-49.2000;0.8205;1.1268;
-48.9000;0.8230;1.1292;
-48.6000;0.8230;1.1268;
-48.3000;0.8213;1.1174;
-48.0000;0.8230;1.1245;
-47.7000;0.8230;1.1245;
-47.4000;0.8230;1.1198;
-47.1000;0.8230;1.1127;
-46.8000;0.8213;1.1127;
-46.5000;0.8230;1.1198;
-46.2000;0.8230;1.1150;
-45.9000;0.8221;1.1174;
-45.6000;0.8230;1.1221;
-45.3000;0.8238;1.1221;
-45.0000;0.8221;1.1079;
-44.7000;0.8213;1.1174;
-44.4000;0.8238;1.1221;
-44.1000;0.8221;1.1198;
-43.8000;0.8238;1.1174;
-43.5000;0.8221;1.1056;
-43.2000;0.8221;1.1127;
-42.9000;0.8221;1.1103;
-42.6000;0.8230;1.1103;
-42.3000;0.8213;1.1079;
-42.0000;0.8230;1.1009;
-41.7000;0.8262;1.1079;
-41.4000;0.8213;1.0938;
-41.1000;0.8213;1.0938;
-40.8000;0.8254;1.1009;
-40.5000;0.8230;1.0985;
-40.2000;0.8230;1.1056;
-39.9000;0.8221;1.1198;
-39.6000;0.8213;1.1221;
-39.3000;0.8205;1.1150;
-39.0000;0.8230;1.1245;
-38.7000;0.8287;1.1363;
-38.4000;0.8221;1.1174;
-38.1000;0.8221;1.1221;
-37.8000;0.8246;1.1339;
-37.5000;0.8238;1.1339;
-37.2000;0.8238;1.1316;
-36.9000;0.8230;1.1316;
-36.6000;0.8230;1.1292;
-36.3000;0.8238;1.1292;
-36.0000;0.8221;1.1245;
-35.7000;0.8230;1.1268;
-35.4000;0.8238;1.1339;
-35.1000;0.8278;1.1505;
-34.8000;0.8238;1.1481;
-34.5000;0.8221;1.1410;
-34.2000;0.8278;1.1552;
-33.9000;0.8246;1.1505;
-33.6000;0.8230;1.1481;
-33.3000;0.8221;1.1387;
-33.0000;0.8230;1.1363;
-32.7000;0.8213;1.1363;
-32.4000;0.8221;1.1387;
-32.1000;0.8213;1.1363;
-31.8000;0.8230;1.1292;
-31.5000;0.8230;1.1245;
-31.2000;0.8238;1.1268;
-30.9000;0.8254;1.1268;
-30.6000;0.8221;1.1316;
-30.3000;0.8238;1.1363;
-30.0000;0.8246;1.1410;
-29.7000;0.8197;1.1292;
-29.4000;0.8238;1.1387;
-29.1000;0.8262;1.1363;
-28.8000;0.8238;1.1339;
-28.5000;0.8311;1.1434;
-28.2000;0.8213;1.1150;
-27.9000;0.8213;1.1198;
-27.6000;0.8238;1.1150;
-27.3000;0.8238;1.1150;
-27.0000;0.8230;1.1150;
-26.7000;0.8221;1.1268;
-26.4000;0.8230;1.1363;
-26.1000;0.8303;1.1599;
-25.8000;0.8278;1.1599;
-25.5000;0.8213;1.1434;
-25.2000;0.8221;1.1410;
-24.9000;0.8213;1.1316;
-24.6000;0.8140;1.1150;
-24.3000;0.8213;1.1339;
-24.0000;0.8148;1.1174;
-23.7000;0.8230;1.1410;
-23.4000;0.8221;1.1410;
-23.1000;0.8213;1.1434;
-22.8000;0.8213;1.1434;
-22.5000;0.8197;1.1316;
-22.2000;0.8230;1.1434;
-21.9000;0.8213;1.1434;
-21.6000;0.8197;1.1481;
-21.3000;0.8197;1.1434;
-21.0000;0.8213;1.1457;
-20.7000;0.8221;1.1528;
-20.4000;0.8205;1.1481;
-20.1000;0.8189;1.1387;
-19.8000;0.8238;1.1457;
-19.5000;0.8213;1.1339;
-19.2000;0.8230;1.1198;
-18.9000;0.8238;1.1316;
-18.6000;0.8230;1.1245;
-18.3000;0.8230;1.1316;
-18.0000;0.8238;1.1339;
-17.7000;0.8246;1.1292;
-17.4000;0.8254;1.1387;
-17.1000;0.8238;1.1457;
-16.8000;0.8156;1.1292;
-16.5000;0.8230;1.1387;
-16.2000;0.8238;1.1410;
-15.9000;0.8238;1.1434;
-15.6000;0.8238;1.1481;
-15.3000;0.8221;1.1457;
-15.0000;0.8238;1.1528;
-14.7000;0.8254;1.1481;
-14.4000;0.8230;1.1316;
-14.1000;0.8238;1.1268;
-13.8000;0.8230;1.1292;
-13.5000;0.8238;1.1363;
-13.2000;0.8238;1.1363;
-12.9000;0.8238;1.1316;
-12.6000;0.8205;1.1363;
-12.3000;0.8230;1.1434;
-12.0000;0.8238;1.1434;
-11.7000;0.8230;1.1434;
-11.4000;0.8221;1.1434;
-11.1000;0.8230;1.1457;
-10.8000;0.8238;1.1481;
-10.5000;0.8221;1.1505;
-10.2000;0.8213;1.1481;
-9.9000;0.8238;1.1481;
-9.6000;0.8213;1.1528;
-9.3000;0.8246;1.1599;
-9.0000;0.8221;1.1528;
-8.7000;0.8197;1.1316;
-8.4000;0.8213;1.1316;
-8.1000;0.8230;1.1410;
-7.8000;0.8205;1.1410;
-7.5000;0.8213;1.1457;
-7.2000;0.8221;1.1434;
-6.9000;0.8221;1.1339;
-6.6000;0.8270;1.1481;
-6.3000;0.8246;1.1481;
-6.0000;0.8221;1.1363;
-5.7000;0.8278;1.1505;
-5.4000;0.8173;1.1245;
-5.1000;0.8221;1.1339;
-4.8000;0.8221;1.1363;
-4.5000;0.8246;1.1457;
-4.2000;0.8230;1.1387;
-3.9000;0.8213;1.1363;
-3.6000;0.8213;1.1387;
-3.3000;0.8254;1.1387;
-3.0000;0.8238;1.1339;
-2.7000;0.8238;1.1268;
-2.4000;0.8230;1.1245;
-2.1000;0.8189;1.1079;
-1.8000;0.8246;1.1245;
-1.5000;0.8238;1.1268;
-1.2000;0.8205;1.1174;
-0.9000;0.8205;1.1198;
-0.6000;0.8238;1.1245;
-0.3000;0.8230;1.1198;
0.0000;0.8230;1.1198;
0.3000;0.8319;1.1079;
0.6000;0.8441;1.1552;
0.9000;0.8498;1.1859;
1.2000;0.8588;1.2379;
1.5000;0.8637;1.2639;
1.8000;0.8702;1.2946;
2.1000;0.8742;1.3087;
2.4000;0.8759;1.3182;
2.7000;0.8791;1.3395;
3.0000;0.8807;1.3489;
3.3000;0.8824;1.3678;
3.6000;0.8832;1.3678;
3.9000;0.8856;1.3654;
4.2000;0.8873;1.3702;
4.5000;0.8905;1.3796;
4.8000;0.8897;1.3914;
5.1000;0.8913;1.3962;
5.4000;0.8946;1.4056;
5.7000;0.8946;1.4056;
6.0000;0.8962;1.4080;
6.3000;0.8978;1.3985;
6.6000;0.8978;1.3914;
6.9000;0.8995;1.3962;
7.2000;0.9003;1.3985;
7.5000;0.9003;1.3985;
7.8000;0.9044;1.4103;
8.1000;0.9027;1.4032;
8.4000;0.9044;1.3962;
8.7000;0.9044;1.3867;
9.0000;0.9035;1.3891;
9.3000;0.9035;1.3891;
9.6000;0.9060;1.3985;
9.9000;0.9068;1.4009;
10.2000;0.9068;1.4080;
10.5000;0.9076;1.4080;
10.8000;0.9092;1.4198;
11.1000;0.9149;1.4316;
11.4000;0.9149;1.4269;
11.7000;0.9109;1.4221;
12.0000;0.9109;1.4127;
12.3000;0.9109;1.4032;
12.6000;0.9117;1.3985;
12.9000;0.9174;1.4127;
13.2000;0.9109;1.3962;
13.5000;0.9133;1.4009;
13.8000;0.9133;1.4080;
14.1000;0.9125;1.4032;
14.4000;0.9141;1.4080;
14.7000;0.9149;1.4198;
15.0000;0.9125;1.4127;
15.3000;0.9133;1.4032;
15.6000;0.9214;1.4221;
15.9000;0.9166;1.4080;
16.2000;0.9158;1.4103;
16.5000;0.9239;1.4127;
16.8000;0.9166;1.3985;
17.1000;0.9182;1.4032;
17.4000;0.9174;1.4056;
17.7000;0.9158;1.4080;
18.0000;0.9158;1.4032;
18.3000;0.9158;1.4009;
18.6000;0.9158;1.4009;
18.9000;0.9198;1.4127;
19.2000;0.9198;1.4174;
19.5000;0.9198;1.4245;
19.8000;0.9223;1.4269;
20.1000;0.9223;1.4198;
20.4000;0.9206;1.4151;
20.7000;0.9182;1.4032;
21.0000;0.9166;1.4103;
21.3000;0.9223;1.4174;
21.6000;0.9239;1.4127;
21.9000;0.9198;1.4103;
22.2000;0.9223;1.4174;
22.5000;0.9223;1.4198;
22.8000;0.9223;1.4221;
23.1000;0.9223;1.4127;
23.4000;0.9247;1.4080;
23.7000;0.9223;1.4127;
24.0000;0.9223;1.4103;
24.3000;0.9214;1.4127;
24.6000;0.9231;1.4198;
24.9000;0.9239;1.4269;
25.2000;0.9263;1.4245;
25.5000;0.9239;1.4221;
25.8000;0.9231;1.4174;
26.1000;0.9239;1.4174;
26.4000;0.9263;1.4221;
26.7000;0.9255;1.4198;
27.0000;0.9247;1.4151;
27.3000;0.9247;1.4174;
27.6000;0.9247;1.4269;
27.9000;0.9247;1.4387;
28.2000;0.9198;1.4151;
28.5000;0.9231;1.4174;
28.8000;0.9255;1.4127;
29.1000;0.9223;1.4009;
29.4000;0.9247;1.3962;
29.7000;0.9247;1.3985;
30.0000;0.9255;1.4032;
30.3000;0.9280;1.4103;
30.6000;0.9271;1.4056;
30.9000;0.9280;1.4080;
31.2000;0.9214;1.4009;
31.5000;0.9263;1.4198;
31.8000;0.9263;1.4221;
32.1000;0.9263;1.4174;
32.4000;0.9263;1.4221;
32.7000;0.9214;1.4103;
33.0000;0.9255;1.4269;
33.3000;0.9263;1.4316;
33.6000;0.9353;1.4505;
33.9000;0.9304;1.4340;
34.2000;0.9206;1.4151;
34.5000;0.9263;1.4221;
34.8000;0.9247;1.4221;
35.1000;0.9255;1.4269;
35.4000;0.9312;1.4363;
35.7000;0.9304;1.4269;
36.0000;0.9263;1.4221;
36.3000;0.9320;1.4363;
36.6000;0.9296;1.4316;
36.9000;0.9271;1.4340;
37.2000;0.9271;1.4292;
37.5000;0.9271;1.4269;
37.8000;0.9280;1.4363;
38.1000;0.9280;1.4269;
38.4000;0.9271;1.4245;
38.7000;0.9296;1.4292;
39.0000;0.9296;1.4340;
39.3000;0.9280;1.4316;
39.6000;0.9280;1.4363;
39.9000;0.9280;1.4387;
40.2000;0.9296;1.4458;
40.5000;0.9255;1.4316;
40.8000;0.9280;1.4363;
41.1000;0.9280;1.4316;
41.4000;0.9288;1.4340;
41.7000;0.9296;1.4481;
42.0000;0.9280;1.4481;
42.3000;0.9328;1.4505;
42.6000;0.9288;1.4410;
42.9000;0.9304;1.4363;
43.2000;0.9280;1.4269;
43.5000;0.9263;1.4174;
43.8000;0.9280;1.4292;
44.1000;0.9280;1.4292;
44.4000;0.9271;1.4292;
44.7000;0.9271;1.4292;
45.0000;0.9296;1.4363;
45.3000;0.9288;1.4316;
45.6000;0.9280;1.4292;
45.9000;0.9288;1.4292;
46.2000;0.9320;1.4316;
46.5000;0.9288;1.4316;
46.8000;0.9304;1.4292;
47.1000;0.9296;1.4292;
47.4000;0.9296;1.4245;
47.7000;0.9280;1.4221;
48.0000;0.9296;1.4245;
48.3000;0.9288;1.4151;
48.6000;0.9288;1.4221;
48.9000;0.9280;1.4292;
49.2000;0.9320;1.4316;
49.5000;0.9296;1.4245;
49.8000;0.9296;1.4221;
50.1000;0.9280;1.4174;
50.4000;0.9304;1.4292;
50.7000;0.9304;1.4269;
51.0000;0.9296;1.4316;
51.3000;0.9296;1.4174;
51.6000;0.9312;1.4174;
51.9000;0.9304;1.4174;
52.2000;0.9328;1.4292;
52.5000;0.9320;1.4363;
52.8000;0.9304;1.4340;
53.1000;0.9320;1.4316;
53.4000;0.9263;1.4151;
53.7000;0.9288;1.4245;
54.0000;0.9280;1.4221;
54.3000;0.9312;1.4387;
54.6000;0.9337;1.4410;
54.9000;0.9288;1.4245;
55.2000;0.9288;1.4363;
55.5000;0.9280;1.4316;
55.8000;0.9296;1.4340;
56.1000;0.9280;1.4363;
56.4000;0.9296;1.4387;
56.7000;0.9304;1.4481;
57.0000;0.9312;1.4481;
57.3000;0.9288;1.4458;
57.6000;0.9304;1.4458;
57.9000;0.9263;1.4292;
58.2000;0.9223;1.4245;
58.5000;0.9280;1.4245;
58.8000;0.9280;1.4198;
59.1000;0.9304;1.4292;
59.4000;0.9353;1.4363;
59.7000;0.9296;1.4221;
60.0000;0.9288;1.4245;
60.3000;0.9304;1.4340;
60.6000;0.9296;1.4316;
60.9000;0.9296;1.4269;
61.2000;0.9345;1.4410;
61.5000;0.9280;1.4292;
61.8000;0.9296;1.4340;
62.1000;0.9304;1.4292;
62.4000;0.9304;1.4245;
62.7000;0.9263;1.4127;
63.0000;0.9312;1.4269;
63.3000;0.9312;1.4292;
63.6000;0.9312;1.4316;
63.9000;0.9304;1.4434;
64.2000;0.9288;1.4410;
64.5000;0.9304;1.4363;
64.8000;0.9304;1.4340;
65.1000;0.9312;1.4481;
65.4000;0.9312;1.4505;
65.7000;0.9280;1.4410;
66.0000;0.9312;1.4505;
66.3000;0.9296;1.4458;
66.6000;0.9304;1.4434;
66.9000;0.9328;1.4410;
67.2000;0.9296;1.4363;
67.5000;0.9288;1.4410;
67.8000;0.9288;1.4363;
68.1000;0.9288;1.4387;
68.4000;0.9296;1.4434;
68.7000;0.9296;1.4410;
69.0000;0.9288;1.4316;
69.3000;0.9296;1.4316;
69.6000;0.9304;1.4340;
69.9000;0.9280;1.4269;
70.2000;0.9296;1.4292;
70.5000;0.9312;1.4269;
70.8000;0.9304;1.4245;
71.1000;0.9296;1.4198;
71.4000;0.9304;1.4221;
71.7000;0.9288;1.4221;
72.0000;0.9288;1.4221;
72.3000;0.9296;1.4292;
72.6000;0.9288;1.4292;
72.9000;0.9271;1.4174;
73.2000;0.9263;1.4056;
73.5000;0.9320;1.4174;
73.8000;0.9296;1.4103;
74.1000;0.9402;1.4316;
74.4000;0.9280;1.4056;
74.7000;0.9312;1.4127;
75.0000;0.9337;1.4151;
75.3000;0.9296;1.4103;
75.6000;0.9320;1.4151;
75.9000;0.9312;1.4127;
76.2000;0.9320;1.4174;
76.5000;0.9263;1.4056;
76.8000;0.9288;1.4174;
77.1000;0.9288;1.4151;
77.4000;0.9296;1.4151;
77.7000;0.9296;1.4103;
78.0000;0.9296;1.4032;
78.3000;0.9296;1.4032;
78.6000;0.9320;1.4056;
78.9000;0.9312;1.4056;
79.2000;0.9312;1.4103;
79.5000;0.9304;1.4103;
79.8000;0.9304;1.4127;
80.1000;0.9320;1.4221;
80.4000;0.9263;1.4103;
80.7000;0.9296;1.4198;
81.0000;0.9271;1.4151;
81.3000;0.9304;1.4245;
81.6000;0.9296;1.4198;
81.9000;0.9296;1.4269;
82.2000;0.9280;1.4221;
82.5000;0.9312;1.4292;
82.8000;0.9304;1.4363;
83.1000;0.9304;1.4363;
83.4000;0.9304;1.4292;
83.7000;0.9304;1.4245;
84.0000;0.9304;1.4221;
84.3000;0.9296;1.4174;
84.6000;0.9312;1.4151;
84.9000;0.9296;1.4151;
85.2000;0.9312;1.4221;
85.5000;0.9296;1.4316;
85.8000;0.9312;1.4269;
86.1000;0.9312;1.4245;
86.4000;0.9320;1.4292;
86.7000;0.9304;1.4316;
87.0000;0.9328;1.4269;
87.3000;0.9320;1.4174;
87.6000;0.9255;1.4151;
87.9000;0.9296;1.4316;
88.2000;0.9328;1.4363;
88.5000;0.9353;1.4458;
88.8000;0.9328;1.4387;
89.1000;0.9312;1.4363;
89.4000;0.9402;1.4576;
89.7000;0.9288;1.4316;
90.0000;0.9320;1.4410;
90.3000;0.9328;1.4434;
90.6000;0.9271;1.4269;
90.9000;0.9280;1.4316;
91.2000;0.9304;1.4387;
91.5000;0.9337;1.4481;
91.8000;0.9320;1.4387;
92.1000;0.9288;1.4221;
92.4000;0.9280;1.4151;
92.7000;0.9296;1.4221;
93.0000;0.9337;1.4410;
93.3000;0.9271;1.4221;
93.6000;0.9288;1.4198;
93.9000;0.9255;1.4174;
94.2000;0.9296;1.4363;
94.5000;0.9288;1.4363;
94.8000;0.9288;1.4387;
95.1000;0.9320;1.4458;
95.4000;0.9288;1.4410;
95.7000;0.9296;1.4269;
96.0000;0.9288;1.4245;
96.3000;0.9328;1.4174;
96.6000;0.9320;1.4127;
96.9000;0.9296;1.4080;
97.2000;0.9402;1.4340;
97.5000;0.9304;1.4103;
97.8000;0.9304;1.4127;
98.1000;0.9312;1.4174;
98.4000;0.9288;1.4151;
98.7000;0.9304;1.4151;
99.0000;0.9304;1.4174;
99.3000;0.9304;1.4245;
99.6000;0.9304;1.4127;
99.9000;0.9288;1.4080;
100.2000;0.9304;1.4127;
100.5000;0.9280;1.4151;
100.8000;0.9288;1.4151;
101.1000;0.9288;1.4127;
101.4000;0.9304;1.4103;
101.7000;0.9296;1.4032;
102.0000;0.9288;1.4103;
102.3000;0.9280;1.4103;
102.6000;0.9296;1.4174;
102.9000;0.9304;1.4151;
103.2000;0.9296;1.4127;
103.5000;0.9296;1.4080;
103.8000;0.9304;1.4151;
104.1000;0.9304;1.4151;
104.4000;0.9280;1.4080;
104.7000;0.9288;1.4080;
105.0000;0.9288;1.4032;
105.3000;0.9296;1.4056;
105.6000;0.9296;1.4103;
105.9000;0.9288;1.4103;
106.2000;0.9304;1.4198;
106.5000;0.9312;1.4221;
106.8000;0.9304;1.4269;
107.1000;0.9304;1.4221;
107.4000;0.9312;1.4340;
107.7000;0.9304;1.4245;
108.0000;0.9320;1.4245;
108.3000;0.9288;1.4151;
108.6000;0.9296;1.4198;
108.9000;0.9320;1.4221;
109.2000;0.9304;1.4174;
109.5000;0.9337;1.4198;
109.8000;0.9320;1.4245;
110.1000;0.9361;1.4340;
110.4000;0.9304;1.4221;
110.7000;0.9280;1.4174;
111.0000;0.9304;1.4198;
111.3000;0.9296;1.4221;
111.6000;0.9304;1.4292;
111.9000;0.9304;1.4174;
112.2000;0.9296;1.4127;
112.5000;0.9296;1.4080;
112.8000;0.9271;1.4080;
113.1000;0.9271;1.4127;
113.4000;0.9377;1.4340;
113.7000;0.9296;1.4198;
114.0000;0.9312;1.4292;
114.3000;0.9288;1.4221;
114.6000;0.9296;1.4245;
114.9000;0.9296;1.4245;
115.2000;0.9304;1.4198;
115.5000;0.9263;1.4174;
115.8000;0.9288;1.4198;
116.1000;0.9288;1.4127;
116.4000;0.9288;1.4198;
116.7000;0.9304;1.4198;
117.0000;0.9296;1.4103;
117.3000;0.9304;1.4127;
117.6000;0.9288;1.4103;
117.9000;0.9312;1.4245;
118.2000;0.9296;1.4221;
118.5000;0.9312;1.4221;
118.8000;0.9296;1.4174;
119.1000;0.9304;1.4127;
119.4000;0.9296;1.4127;
119.7000;0.9280;1.4103;
120.0000;0.9304;1.4221;
120.3000;0.9288;1.4245;
120.6000;0.9296;1.4198;
120.9000;0.9263;1.4103;
121.2000;0.9280;1.4080;
121.5000;0.9288;1.4151;
121.8000;0.9288;1.4127;
122.1000;0.9312;1.4198;
122.4000;0.9280;1.4056;
122.7000;0.9288;1.4032;
123.0000;0.9296;1.3962;
123.3000;0.9304;1.3962;
123.6000;0.9312;1.4009;
123.9000;0.9296;1.3938;
124.2000;0.9247;1.3820;
124.5000;0.9312;1.4009;
124.8000;0.9337;1.4080;
125.1000;0.9296;1.4032;
125.4000;0.9182;1.3702;
125.7000;0.9312;1.4127;
126.0000;0.9296;1.4009;
126.3000;0.9280;1.3891;
126.6000;0.9247;1.3820;
126.9000;0.9288;1.3914;
127.2000;0.9312;1.4056;
127.5000;0.9337;1.4056;
127.8000;0.9288;1.3938;
128.1000;0.9271;1.3867;
128.4000;0.9385;1.4151;
128.7000;0.9288;1.4009;
129.0000;0.9296;1.3938;
129.3000;0.9280;1.3891;
129.6000;0.9304;1.3985;
129.9000;0.9296;1.4032;
130.2000;0.9304;1.4080;
130.5000;0.9320;1.4032;
130.8000;0.9296;1.4056;
131.1000;0.9312;1.4103;
131.4000;0.9231;1.3985;
131.7000;0.9280;1.4174;
132.0000;0.9288;1.4245;
132.3000;0.9296;1.4292;
132.6000;0.9296;1.4221;
132.9000;0.9288;1.4269;
133.2000;0.9328;1.4340;
133.5000;0.9296;1.4221;
133.8000;0.9271;1.4245;
134.1000;0.9280;1.4292;
134.4000;0.9280;1.4410;
134.7000;0.9296;1.4363;
135.0000;0.9337;1.4316;
135.3000;0.9280;1.4221;
135.6000;0.9296;1.4198;
135.9000;0.9288;1.4103;
136.2000;0.9296;1.4151;
136.5000;0.9288;1.4009;
136.8000;0.9280;1.4056;
137.1000;0.9288;1.4056;
137.4000;0.9271;1.4032;
137.7000;0.9296;1.4080;
138.0000;0.9296;1.4032;
138.3000;0.9280;1.4080;
138.6000;0.9288;1.4127;
138.9000;0.9288;1.4151;
139.2000;0.9271;1.4174;
139.5000;0.9288;1.4151;
139.8000;0.9288;1.4080;
140.1000;0.9296;1.4056;
140.4000;0.9296;1.4103;
140.7000;0.9288;1.4151;
141.0000;0.9296;1.4198;
141.3000;0.9312;1.4198;
141.6000;0.9296;1.4174;
141.9000;0.9288;1.4221;
142.2000;0.9337;1.4292;
142.5000;0.9296;1.4221;
142.8000;0.9296;1.4198;
143.1000;0.9288;1.4174;
143.4000;0.9280;1.4221;
143.7000;0.9312;1.4245;
144.0000;0.9304;1.4269;
144.3000;0.9296;1.4269;
144.6000;0.9280;1.4198;
144.9000;0.9263;1.4032;
145.2000;0.9304;1.4009;
145.5000;0.9280;1.4032;
145.8000;0.9288;1.4103;
146.1000;0.9231;1.4032;
146.4000;0.9328;1.4174;
146.7000;0.9304;1.4174;
147.0000;0.9288;1.4103;
147.3000;0.9247;1.4080;
147.6000;0.9296;1.4198;
147.9000;0.9247;1.4009;
148.2000;0.9288;1.4103;
148.5000;0.9271;1.4127;
148.8000;0.9239;1.4056;
149.1000;0.9206;1.3891;
149.4000;0.9239;1.3938;
149.7000;0.9280;1.3914;
150.0000;0.9361;1.4127;
150.3000;0.9296;1.4032;
150.6000;0.9271;1.4032;
150.9000;0.9288;1.4056;
151.2000;0.9296;1.4127;
151.5000;0.9361;1.4340;
151.8000;0.9280;1.4174;
152.1000;0.9280;1.4151;
152.4000;0.9296;1.4151;
152.7000;0.9304;1.4103;
153.0000;0.9288;1.4151;
153.3000;0.9304;1.4198;
153.6000;0.9296;1.4103;
153.9000;0.9280;1.4009;
154.2000;0.9296;1.4174;
154.5000;0.9304;1.4198;
154.8000;0.9288;1.4080;
155.1000;0.9280;1.3985;
155.4000;0.9304;1.4032;
155.7000;0.9304;1.4032;
156.0000;0.9288;1.3985;
156.3000;0.9296;1.4080;
156.6000;0.9288;1.4127;
156.9000;0.9296;1.4080;
157.2000;0.9288;1.4056;
157.5000;0.9288;1.4151;
157.8000;0.9296;1.4174;
158.1000;0.9304;1.4127;
158.4000;0.9296;1.4151;
158.7000;0.9280;1.4103;
159.0000;0.9304;1.4174;
159.3000;0.9288;1.4103;
159.6000;0.9271;1.4032;
159.9000;0.9263;1.4032;
160.2000;0.9280;1.4032;
160.5000;0.9288;1.4032;
160.8000;0.9296;1.4151;
161.1000;0.9280;1.4245;
161.4000;0.9288;1.4245;
161.7000;0.9280;1.4127;
162.0000;0.9288;1.4174;
162.3000;0.9288;1.4221;
162.6000;0.9280;1.4174;
162.9000;0.9280;1.4198;
163.2000;0.9288;1.4127;
163.5000;0.9263;1.4080;
163.8000;0.9288;1.4080;
164.1000;0.9304;1.4103;
164.4000;0.9280;1.4032;
164.7000;0.9280;1.4127;
165.0000;0.9288;1.4151;
165.3000;0.9271;1.4080;
165.6000;0.9280;1.4103;
165.9000;0.9296;1.4198;
166.2000;0.9353;1.4292;
166.5000;0.9280;1.4151;
166.8000;0.9296;1.4245;
167.1000;0.9296;1.4269;
167.4000;0.9304;1.4245;
167.7000;0.9288;1.4174;
168.0000;0.9231;1.4032;
168.3000;0.9296;1.4174;
168.6000;0.9296;1.4127;
168.9000;0.9271;1.4103;
169.2000;0.9280;1.4174;
169.5000;0.9280;1.4103;
169.8000;0.9280;1.4056;
170.1000;0.9296;1.4103;
170.4000;0.9296;1.4056;
170.7000;0.9304;1.4009;
171.0000;0.9288;1.3938;
171.3000;0.9271;1.3796;
171.6000;0.9288;1.3773;
171.9000;0.9280;1.3773;
172.2000;0.9328;1.3891;
172.5000;0.9312;1.3962;
172.8000;0.9320;1.4032;
173.1000;0.9312;1.4056;
173.4000;0.9247;1.3938;
173.7000;0.9288;1.3985;
174.0000;0.9271;1.4032;
174.3000;0.9280;1.4080;
174.6000;0.9345;1.4245;
174.9000;0.9271;1.4080;
175.2000;0.9328;1.4151;
175.5000;0.9312;1.4103;
175.8000;0.9247;1.4032;
176.1000;0.9288;1.4151;
176.4000;0.9288;1.4198;
176.7000;0.9304;1.4245;
177.0000;0.9296;1.4221;
177.3000;0.9296;1.4151;
177.6000;0.9296;1.4127;
177.9000;0.9271;1.4127;
178.2000;0.9304;1.4103;
178.5000;0.9280;1.4103;
178.8000;0.9288;1.4056;
179.1000;0.9280;1.4080;
179.4000;0.9280;1.4080;
179.7000;0.9280;1.4127;
180.0000;0.9304;1.4174;
180.3000;0.9263;1.4080;
180.6000;0.9280;1.4174;
180.9000;0.9288;1.4174;
181.2000;0.9304;1.4174;
181.5000;0.9288;1.4151;
181.8000;0.9263;1.4056;
182.1000;0.9296;1.4080;
182.4000;0.9296;1.4151;
182.7000;0.9271;1.4151;
183.0000;0.9239;1.4009;
183.3000;0.9247;1.4080;
183.6000;0.9280;1.4174;
183.9000;0.9280;1.4198;
184.2000;0.9263;1.4174;
184.5000;0.9280;1.4198;
184.8000;0.9280;1.4221;
185.1000;0.9271;1.4221;
185.4000;0.9271;1.4151;
185.7000;0.9296;1.4127;
186.0000;0.9288;1.4127;
186.3000;0.9280;1.4127;
186.6000;0.9271;1.4080;
186.9000;0.9296;1.4103;
187.2000;0.9247;1.3985;
187.5000;0.9280;1.4032;
187.8000;0.9280;1.4056;
188.1000;0.9288;1.4056;
188.4000;0.9280;1.4056;
188.7000;0.9271;1.4080;
189.0000;0.9280;1.4174;
189.3000;0.9239;1.4127;
189.6000;0.9255;1.4174;
189.9000;0.9280;1.4198;
190.2000;0.9296;1.4174;
190.5000;0.9296;1.4198;
190.8000;0.9271;1.4198;
191.1000;0.9304;1.4245;
191.4000;0.9280;1.4080;
191.7000;0.9288;1.4056;
192.0000;0.9280;1.4080;
192.3000;0.9288;1.4032;
192.6000;0.9263;1.3985;
192.9000;0.9280;1.4080;
193.2000;0.9271;1.4151;
193.5000;0.9247;1.4080;
193.8000;0.9255;1.4174;
194.1000;0.9271;1.4221;
194.4000;0.9255;1.4174;
194.7000;0.9271;1.4198;
195.0000;0.9271;1.4174;
195.3000;0.9263;1.4245;
195.6000;0.9263;1.4245;
195.9000;0.9288;1.4292;
196.2000;0.9280;1.4269;
196.5000;0.9247;1.4245;
196.8000;0.9280;1.4316;
197.1000;0.9296;1.4292;
197.4000;0.9263;1.4174;
197.7000;0.9288;1.4174;
198.0000;0.9263;1.4056;
198.3000;0.9288;1.4174;
198.6000;0.9280;1.4151;
198.9000;0.9280;1.4221;
199.2000;0.9353;1.4458;
199.5000;0.9280;1.4245;
199.8000;0.9263;1.4174;
200.1000;0.9271;1.4198;
200.4000;0.9263;1.4245;
200.7000;0.9271;1.4292;
201.0000;0.9223;1.4198;
201.3000;0.9296;1.4292;
201.6000;0.9296;1.4221;
201.9000;0.9263;1.4221;
202.2000;0.9280;1.4151;
202.5000;0.9434;1.4528;
202.8000;0.9280;1.4151;
203.1000;0.9271;1.4174;
203.4000;0.9271;1.4174;
203.7000;0.9280;1.4174;
204.0000;0.9223;1.4103;
204.3000;0.9312;1.4434;
204.6000;0.9271;1.4245;
204.9000;0.9263;1.4198;
205.2000;0.9288;1.4245;
205.5000;0.9312;1.4340;
205.8000;0.9280;1.4221;
206.1000;0.9280;1.4127;
206.4000;0.9280;1.4080;
206.7000;0.9271;1.4103;
207.0000;0.9271;1.4032;
207.3000;0.9231;1.3938;
207.6000;0.9247;1.3962;
207.9000;0.9288;1.4056;
208.2000;0.9255;1.3985;
208.5000;0.9271;1.4080;
208.8000;0.9288;1.4103;
209.1000;0.9280;1.4103;
209.4000;0.9280;1.4080;
209.7000;0.9296;1.4080;
210.0000;0.9271;1.4009;
210.3000;0.9288;1.3962;
210.6000;0.9296;1.3985;
210.9000;0.9288;1.3938;
211.2000;0.9288;1.3938;
211.5000;0.9288;1.4009;
211.8000;0.9288;1.3985;
212.1000;0.9239;1.3891;
212.4000;0.9280;1.3985;
212.7000;0.9288;1.4056;
213.0000;0.9288;1.3985;
213.3000;0.9271;1.3985;
213.6000;0.9288;1.3938;
213.9000;0.9271;1.3891;
214.2000;0.9280;1.3867;
214.5000;0.9271;1.3867;
214.8000;0.9271;1.3773;
215.1000;0.9361;1.3962;
215.4000;0.9280;1.3891;
215.7000;0.9271;1.3985;
216.0000;0.9271;1.3985;
216.3000;0.9280;1.4151;
216.6000;0.9263;1.4151;
216.9000;0.9280;1.4174;
217.2000;0.9280;1.4080;
217.5000;0.9280;1.4032;
217.8000;0.9288;1.4080;
218.1000;0.9345;1.4316;
218.4000;0.9288;1.4245;
218.7000;0.9280;1.4174;
219.0000;0.9288;1.4198;
219.3000;0.9271;1.4174;
219.6000;0.9263;1.4221;
219.9000;0.9377;1.4434;
220.2000;0.9312;1.4269;
220.5000;0.9271;1.4151;
220.8000;0.9231;1.4009;
221.1000;0.9271;1.4103;
221.4000;0.9214;1.3985;
221.7000;0.9182;1.3914;
222.0000;0.9280;1.4151;
222.3000;0.9255;1.4127;
222.6000;0.9337;1.4434;
222.9000;0.9280;1.4316;
223.2000;0.9223;1.4127;
223.5000;0.9280;1.4245;
223.8000;0.9280;1.4221;
224.1000;0.9271;1.4292;
224.4000;0.9296;1.4387;
224.7000;0.9271;1.4316;
225.0000;0.9263;1.4316;
225.3000;0.9239;1.4245;
225.6000;0.9271;1.4269;
225.9000;0.9271;1.4269;
226.2000;0.9280;1.4221;
226.5000;0.9280;1.4151;
226.8000;0.9312;1.4198;
227.1000;0.9288;1.4151;
227.4000;0.9263;1.4080;
227.7000;0.9263;1.4127;
228.0000;0.9263;1.4103;
228.3000;0.9288;1.4151;
228.6000;0.9231;1.4103;
228.9000;0.9280;1.4245;
229.2000;0.9288;1.4269;
229.5000;0.9280;1.4174;
229.8000;0.9255;1.4127;
230.1000;0.9255;1.4103;
230.4000;0.9280;1.4221;
230.7000;0.9271;1.4151;
231.0000;0.9174;1.3938;
231.3000;0.9280;1.4151;
231.6000;0.9255;1.4151;
231.9000;0.9296;1.4363;
232.2000;0.9288;1.4292;
232.5000;0.9296;1.4316;
232.8000;0.9280;1.4198;
233.1000;0.9288;1.4292;
233.4000;0.9288;1.4340;
233.7000;0.9296;1.4340;
234.0000;0.9271;1.4292;
234.3000;0.9288;1.4269;
234.6000;0.9280;1.4127;
234.9000;0.9263;1.4056;
235.2000;0.9280;1.4032;
235.5000;0.9255;1.4103;
235.8000;0.9280;1.4221;
236.1000;0.9271;1.4174;
236.4000;0.9280;1.4127;
236.7000;0.9255;1.3985;
237.0000;0.9288;1.4080;
237.3000;0.9263;1.4174;
237.6000;0.9280;1.4221;
237.9000;0.9263;1.4221;
238.2000;0.9280;1.4245;
238.5000;0.9280;1.4174;
238.8000;0.9271;1.4127;
239.1000;0.9280;1.4056;
239.4000;0.9263;1.4080;
239.7000;0.9271;1.4032;
240.0000;0.9280;1.4032;
240.3000;0.9263;1.3985;
240.6000;0.9214;1.3914;
240.9000;0.9280;1.4103;
241.2000;0.9255;1.4127;
241.5000;0.9255;1.4174;
241.8000;0.9231;1.4056;
242.1000;0.9271;1.4198;
242.4000;0.9271;1.4245;
242.7000;0.9296;1.4221;
243.0000;0.9271;1.4151;
243.3000;0.9280;1.4174;
243.6000;0.9271;1.4127;
243.9000;0.9288;1.4103;
244.2000;0.9255;1.4056;
244.5000;0.9263;1.4103;
244.8000;0.9263;1.4174;
245.1000;0.9312;1.4363;
245.4000;0.9304;1.4245;
245.7000;0.9231;1.4103;
246.0000;0.9255;1.4198;
246.3000;0.9255;1.4198;
246.6000;0.9271;1.4174;
246.9000;0.9271;1.4103;
247.2000;0.9280;1.4127;
247.5000;0.9271;1.4103;
247.8000;0.9271;1.4127;
248.1000;0.9280;1.4127;
248.4000;0.9288;1.4056;
248.7000;0.9337;1.4174;
249.0000;0.9271;1.3962;
249.3000;0.9255;1.3820;
249.6000;0.9296;1.4009;
249.9000;0.9247;1.3843;
250.2000;0.9263;1.3820;
250.5000;0.9231;1.3702;
250.8000;0.9231;1.3702;
251.1000;0.9263;1.3891;
251.4000;0.9255;1.3938;
251.7000;0.9255;1.3891;
252.0000;0.9190;1.3749;
252.3000;0.9280;1.3985;
252.6000;0.9337;1.4198;
252.9000;0.9255;1.4009;
253.2000;0.9280;1.4009;
253.5000;0.9280;1.3962;
253.8000;0.9271;1.3985;
254.1000;0.9263;1.3985;
254.4000;0.9271;1.4009;
254.7000;0.9263;1.4009;
255.0000;0.9288;1.4009;
255.3000;0.9263;1.3985;
255.6000;0.9255;1.4056;
255.9000;0.9255;1.4103;
256.2000;0.9271;1.4198;
256.5000;0.9271;1.4151;
256.8000;0.9263;1.4080;
257.1000;0.9263;1.4103;
257.4000;0.9263;1.4056;
257.7000;0.9255;1.3985;
258.0000;0.9271;1.3914;
258.3000;0.9280;1.3938;
258.6000;0.9288;1.3962;
258.9000;0.9280;1.3938;
259.2000;0.9239;1.3773;
259.5000;0.9280;1.3962;
259.8000;0.9263;1.4009;
260.1000;0.9255;1.3962;
260.4000;0.9247;1.3891;
260.7000;0.9263;1.3843;
261.0000;0.9190;1.3607;
261.3000;0.9271;1.3820;
261.6000;0.9255;1.3843;
261.9000;0.9239;1.3843;
262.2000;0.9255;1.3938;
262.5000;0.9280;1.3985;
262.8000;0.9263;1.3891;
263.1000;0.9271;1.3938;
263.4000;0.9271;1.3962;
263.7000;0.9263;1.3891;
264.0000;0.9280;1.3914;
264.3000;0.9280;1.3796;
264.6000;0.9247;1.3654;
264.9000;0.9271;1.3654;
265.2000;0.9288;1.3725;
265.5000;0.9223;1.3607;
265.8000;0.9263;1.3725;
266.1000;0.9288;1.3773;
266.4000;0.9288;1.3773;
266.7000;0.9280;1.3796;
267.0000;0.9255;1.3749;
267.3000;0.9247;1.3725;
267.6000;0.9255;1.3820;
267.9000;0.9263;1.3796;
268.2000;0.9263;1.3938;
268.5000;0.9304;1.4056;
268.8000;0.9174;1.3773;
269.1000;0.9320;1.4080;
269.4000;0.9280;1.4032;
269.7000;0.9328;1.4198;
270.0000;0.9263;1.3962;
270.3000;0.9255;1.3938;
270.6000;0.9280;1.3985;
270.9000;0.9255;1.3914;
271.2000;0.9263;1.3914;
271.5000;0.9263;1.3820;
271.8000;0.9255;1.3820;
272.1000;0.9271;1.3891;
272.4000;0.9263;1.4009;
272.7000;0.9296;1.4080;
273.0000;0.9263;1.3985;
273.3000;0.9271;1.4009;
273.6000;0.9255;1.4009;
273.9000;0.9263;1.3985;
274.2000;0.9271;1.3938;
274.5000;0.9296;1.3914;
274.8000;0.9280;1.3962;
275.1000;0.9263;1.3938;
275.4000;0.9288;1.3985;
275.7000;0.9288;1.4009;
276.0000;0.9271;1.3985;
276.3000;0.9263;1.4080;
276.6000;0.9255;1.4056;
276.9000;0.9280;1.3985;
277.2000;0.9255;1.3962;
277.5000;0.9247;1.3962;
277.8000;0.9255;1.3962;
278.1000;0.9263;1.3914;
278.4000;0.9255;1.3914;
278.7000;0.9255;1.3962;
279.0000;0.9263;1.3914;
279.3000;0.9280;1.3914;
279.6000;0.9271;1.3867;
279.9000;0.9280;1.3796;
280.2000;0.9304;1.3891;
280.5000;0.9271;1.3867;
280.8000;0.9263;1.3796;
281.1000;0.9263;1.3820;
281.4000;0.9263;1.3843;
281.7000;0.9247;1.3843;
282.0000;0.9263;1.3891;
282.3000;0.9255;1.3891;
282.6000;0.9263;1.3914;
282.9000;0.9255;1.3820;
283.2000;0.9239;1.3749;
283.5000;0.9263;1.3749;
283.8000;0.9271;1.3749;
284.1000;0.9255;1.3702;
284.4000;0.9280;1.3725;
284.7000;0.9296;1.3773;
285.0000;0.9288;1.3820;
285.3000;0.9255;1.3773;
285.6000;0.9296;1.3796;
285.9000;0.9280;1.3773;
286.2000;0.9280;1.3820;
286.5000;0.9288;1.3749;
286.8000;0.9280;1.3749;
287.1000;0.9271;1.3796;
287.4000;0.9271;1.3796;
287.7000;0.9263;1.3773;
288.0000;0.9271;1.3891;
288.3000;0.9288;1.3914;
288.6000;0.9231;1.3773;
288.9000;0.9247;1.3891;
289.2000;0.9271;1.3891;
289.5000;0.9280;1.3938;
289.8000;0.9271;1.3891;
290.1000;0.9190;1.3773;
290.4000;0.9231;1.3867;
290.7000;0.9255;1.3914;
291.0000;0.9271;1.3985;
291.3000;0.9280;1.4032;
291.6000;0.9255;1.3985;
291.9000;0.9247;1.4032;
292.2000;0.9271;1.4080;
292.5000;0.9239;1.3985;
292.8000;0.9231;1.3891;
293.1000;0.9263;1.3938;
293.4000;0.9263;1.4056;
293.7000;0.9263;1.3938;
294.0000;0.9263;1.4009;
294.3000;0.9271;1.4032;
294.6000;0.9247;1.3914;
294.9000;0.9271;1.3962;
295.2000;0.9280;1.3962;
295.5000;0.9255;1.3938;
295.8000;0.9280;1.3938;
296.1000;0.9280;1.3962;
296.4000;0.9271;1.3891;
296.7000;0.9320;1.4032;
297.0000;0.9304;1.4080;
297.3000;0.9263;1.4032;
297.6000;0.9271;1.3985;
297.9000;0.9255;1.3985;
298.2000;0.9271;1.4080;
298.5000;0.9239;1.3985;
298.8000;0.9263;1.4056;
299.1000;0.9231;1.3962;
299.4000;0.9255;1.4032;
299.7000;0.9255;1.4080;
300.0000;0.9263;1.4127;
300.3000;0.9255;1.4151;
300.6000;0.9263;1.4198;
300.9000;0.9271;1.4292;
301.2000;0.9263;1.4245;
301.5000;0.9271;1.4198;
301.8000;0.9263;1.4174;
302.1000;0.9231;1.4151;
302.4000;0.9255;1.4174;
302.7000;0.9247;1.4080;
303.0000;0.9239;1.4080;
303.3000;0.9255;1.4103;
303.6000;0.9271;1.4174;
303.9000;0.9247;1.4151;
304.2000;0.9271;1.4151;
304.5000;0.9304;1.4151;
304.8000;0.9263;1.4103;
305.1000;0.9271;1.4009;
305.4000;0.9288;1.3985;
305.7000;0.9255;1.3914;
306.0000;0.9263;1.3985;
306.3000;0.9312;1.4056;
306.6000;0.9231;1.3938;
306.9000;0.9345;1.4269;
307.2000;0.9223;1.4032;
307.5000;0.9271;1.4080;
307.8000;0.9247;1.4032;
308.1000;0.9247;1.4009;
308.4000;0.9255;1.4103;
308.7000;0.9263;1.4127;
309.0000;0.9247;1.4127;
309.3000;0.9247;1.4103;
309.6000;0.9247;1.4009;
309.9000;0.9263;1.4032;
310.2000;0.9247;1.4103;
310.5000;0.9239;1.4103;
310.8000;0.9247;1.4080;
311.1000;0.9255;1.4103;
311.4000;0.9255;1.4056;
311.7000;0.9271;1.3962;
312.0000;0.9174;1.3749;
312.3000;0.9255;1.4009;
312.6000;0.9296;1.4127;
312.9000;0.9271;1.4056;
313.2000;0.9247;1.4056;
313.5000;0.9255;1.4080;
313.8000;0.9271;1.4174;
314.1000;0.9255;1.4174;
314.4000;0.9271;1.4127;
314.7000;0.9263;1.4080;
315.0000;0.9263;1.4080;
315.3000;0.9288;1.4080;
315.6000;0.9263;1.4032;
315.9000;0.9263;1.4032;
316.2000;0.9255;1.4032;
316.5000;0.9271;1.4103;
316.8000;0.9263;1.4174;
317.1000;0.9263;1.4245;
317.4000;0.9255;1.4198;
317.7000;0.9239;1.4127;
318.0000;0.9247;1.4080;
318.3000;0.9255;1.4198;
318.6000;0.9255;1.4245;
318.9000;0.9263;1.4363;
319.2000;0.9263;1.4292;
319.5000;0.9337;1.4363;
319.8000;0.9263;1.4198;
320.1000;0.9263;1.4151;
320.4000;0.9271;1.4127;
320.7000;0.9296;1.4080;
321.0000;0.9271;1.3985;
321.3000;0.9271;1.3962;
321.6000;0.9255;1.4032;
321.9000;0.9271;1.4056;
322.2000;0.9263;1.3985;
322.5000;0.9255;1.4032;
322.8000;0.9280;1.4032;
323.1000;0.9271;1.4009;
323.4000;0.9239;1.3914;
323.7000;0.9320;1.4080;
324.0000;0.9263;1.4032;
324.3000;0.9247;1.4032;
324.6000;0.9263;1.4127;
324.9000;0.9263;1.4080;
325.2000;0.9271;1.4056;
325.5000;0.9271;1.4009;
325.8000;0.9263;1.3962;
326.1000;0.9263;1.3914;
326.4000;0.9263;1.3914;
326.7000;0.9239;1.3891;
327.0000;0.9255;1.3891;
327.3000;0.9231;1.3962;
327.6000;0.9247;1.4056;
327.9000;0.9247;1.4056;
328.2000;0.9255;1.4080;
328.5000;0.9255;1.4009;
328.8000;0.9263;1.4056;
329.1000;0.9263;1.4151;
329.4000;0.9263;1.4103;
329.7000;0.9288;1.4056;
330.0000;0.9231;1.3962;
330.3000;0.9328;1.4221;
330.6000;0.9271;1.4127;
330.9000;0.9255;1.4009;
331.2000;0.9263;1.4009;
331.5000;0.9255;1.3985;
331.8000;0.9263;1.4009;
332.1000;0.9263;1.4032;
332.4000;0.9271;1.4009;
332.7000;0.9280;1.4056;
333.0000;0.9271;1.4032;
333.3000;0.9280;1.4032;
333.6000;0.9255;1.3962;
333.9000;0.9255;1.3962;
334.2000;0.9271;1.3985;
334.5000;0.9280;1.4009;
334.8000;0.9280;1.3843;
335.1000;0.9247;1.3725;
335.4000;0.9231;1.3702;
335.7000;0.9280;1.3867;
336.0000;0.9247;1.3867;
336.3000;0.9247;1.3867;
336.6000;0.9239;1.3820;
336.9000;0.9223;1.3796;
337.2000;0.9239;1.3773;
337.5000;0.9247;1.3820;
337.8000;0.9182;1.3749;
338.1000;0.9288;1.4080;
338.4000;0.9361;1.4245;
338.7000;0.9247;1.3891;
339.0000;0.9255;1.3891;
339.3000;0.9223;1.3725;
339.6000;0.9280;1.3796;
339.9000;0.9214;1.3725;
340.2000;0.9239;1.3867;
340.5000;0.9239;1.3843;
340.8000;0.9263;1.3867;
341.1000;0.9247;1.3725;
341.4000;0.9247;1.3796;
341.7000;0.9263;1.3914;
342.0000;0.9247;1.3891;
342.3000;0.9255;1.3867;
342.6000;0.9263;1.3914;
342.9000;0.9231;1.3914;
343.2000;0.9263;1.4009;
343.5000;0.9280;1.4103;
343.8000;0.9255;1.4080;
344.1000;0.9255;1.4080;
344.4000;0.9271;1.4127;
344.7000;0.9255;1.4080;
345.0000;0.9263;1.4056;
345.3000;0.9255;1.3985;
345.6000;0.9247;1.3962;
345.9000;0.9247;1.3938;
346.2000;0.9280;1.3914;
346.5000;0.9280;1.3962;
346.8000;0.9271;1.4080;
347.1000;0.9271;1.4056;
347.4000;0.9255;1.3985;
347.7000;0.9247;1.4080;
348.0000;0.9255;1.4103;
348.3000;0.9271;1.4080;
348.6000;0.9280;1.4080;
348.9000;0.9263;1.4056;
349.2000;0.9255;1.4032;
349.5000;0.9239;1.4056;
349.8000;0.9255;1.4127;
350.1000;0.9239;1.4127;
350.4000;0.9247;1.4198;
350.7000;0.9247;1.4103;
351.0000;0.9263;1.4080;
351.3000;0.9247;1.4009;
351.6000;0.9247;1.4009;
351.9000;0.9255;1.4103;
352.2000;0.9255;1.4103;
352.5000;0.9214;1.4009;
352.8000;0.9255;1.4032;
353.1000;0.9271;1.4151;
353.4000;0.9247;1.4127;
353.7000;0.9247;1.4080;
354.0000;0.9337;1.4198;
354.3000;0.9239;1.3891;
354.6000;0.9263;1.3985;
354.9000;0.9263;1.3938;
355.2000;0.9263;1.3962;
355.5000;0.9247;1.3843;
355.8000;0.9231;1.3820;
356.1000;0.9271;1.3914;
356.4000;0.9247;1.3891;
356.7000;0.9263;1.3914;
357.0000;0.9263;1.3914;
357.3000;0.9255;1.3891;
357.6000;0.9255;1.3914;
357.9000;0.9223;1.3796;
358.2000;0.9174;1.3749;
358.5000;0.9263;1.3938;
358.8000;0.9255;1.3891;
359.1000;0.9255;1.3891;
359.4000;0.9255;1.3938;
359.7000;0.9263;1.4009;
360.0000;0.9247;1.3985;
360.3000;0.9255;1.4151;
360.6000;0.9214;1.4127;
360.9000;0.9288;1.4245;
361.2000;0.9231;1.4127;
361.5000;0.9247;1.4080;
361.8000;0.9214;1.4009;
362.1000;0.9255;1.4056;
362.4000;0.9263;1.4032;
362.7000;0.9255;1.3962;
363.0000;0.9263;1.4032;
363.3000;0.9231;1.4032;
363.6000;0.9247;1.3985;
363.9000;0.9214;1.3938;
364.2000;0.9255;1.3962;
364.5000;0.9239;1.4032;
364.8000;0.9263;1.4009;
365.1000;0.9280;1.4080;
365.4000;0.9255;1.4103;
365.7000;0.9255;1.4151;
366.0000;0.9214;1.4080;
366.3000;0.9263;1.4174;
366.6000;0.9271;1.4198;
366.9000;0.9239;1.4080;
367.2000;0.9271;1.4056;
367.5000;0.9312;1.4103;
367.8000;0.9271;1.4056;
368.1000;0.9263;1.4032;
368.4000;0.9247;1.3962;
368.7000;0.9288;1.4080;
369.0000;0.9263;1.4032;
369.3000;0.9263;1.4032;
369.6000;0.9263;1.4056;
369.9000;0.9263;1.4032;
370.2000;0.9231;1.3985;
370.5000;0.9280;1.4056;
370.8000;0.9239;1.4009;
371.1000;0.9231;1.3962;
371.4000;0.9271;1.3962;
371.7000;0.9263;1.3914;
372.0000;0.9255;1.3938;
372.3000;0.9247;1.3914;
372.6000;0.9255;1.3938;
372.9000;0.9247;1.3938;
373.2000;0.9214;1.3891;
373.5000;0.9255;1.4080;
373.8000;0.9353;1.4198;
374.1000;0.9263;1.4032;
374.4000;0.9255;1.4080;
374.7000;0.9239;1.4151;
375.0000;0.9263;1.4221;
375.3000;0.9255;1.4080;
375.6000;0.9263;1.4009;
375.9000;0.9247;1.4032;
376.2000;0.9255;1.4056;
376.5000;0.9263;1.4151;
376.8000;0.9239;1.4080;
377.1000;0.9198;1.3985;
377.4000;0.9263;1.4103;
377.7000;0.9271;1.3985;
378.0000;0.9247;1.3938;
378.3000;0.9247;1.3962;
378.6000;0.9231;1.4009;
378.9000;0.9255;1.4009;
379.2000;0.9271;1.4080;
379.5000;0.9198;1.3867;
379.8000;0.9263;1.4009;
380.1000;0.9263;1.4032;
380.4000;0.9239;1.4032;
380.7000;0.9239;1.3985;
381.0000;0.9263;1.3985;
381.3000;0.9247;1.4009;
381.6000;0.9369;1.4269;
381.9000;0.9247;1.3985;
382.2000;0.9247;1.3938;
382.5000;0.9263;1.3962;
382.8000;0.9280;1.3985;
383.1000;0.9271;1.3962;
383.4000;0.9255;1.3985;
383.7000;0.9214;1.3891;
384.0000;0.9263;1.4009;
384.3000;0.9255;1.3962;
384.6000;0.9255;1.3962;
384.9000;0.9271;1.3985;
385.2000;0.9312;1.3938;
385.5000;0.9247;1.3725;
385.8000;0.9214;1.3654;
386.1000;0.9239;1.3702;
386.4000;0.9247;1.3607;
386.7000;0.9247;1.3489;
387.0000;0.9223;1.3465;
387.3000;0.9247;1.3513;
387.6000;0.9255;1.3513;
387.9000;0.9223;1.3513;
388.2000;0.9255;1.3631;
388.5000;0.9271;1.3725;
388.8000;0.9247;1.3702;
389.1000;0.9239;1.3773;
389.4000;0.9263;1.3843;
389.7000;0.9247;1.3891;
390.0000;0.9247;1.3891;
390.3000;0.9231;1.3962;
390.6000;0.9296;1.4103;
390.9000;0.9255;1.4056;
391.2000;0.9231;1.4009;
391.5000;0.9255;1.4009;
391.8000;0.9223;1.3962;
392.1000;0.9255;1.3985;
392.4000;0.9247;1.3796;
392.7000;0.9280;1.3843;
393.0000;0.9263;1.3843;
393.3000;0.9255;1.3843;
393.6000;0.9247;1.3891;
393.9000;0.9263;1.3962;
394.2000;0.9255;1.4080;
394.5000;0.9263;1.4080;
394.8000;0.9255;1.4080;
395.1000;0.9239;1.4056;
395.4000;0.9255;1.4103;
395.7000;0.9247;1.4080;
396.0000;0.9255;1.4056;
396.3000;0.9239;1.4032;
396.6000;0.9125;1.3820;
396.9000;0.9255;1.4103;
397.2000;0.9255;1.4103;
397.5000;0.9239;1.4032;
397.8000;0.9214;1.3914;
398.1000;0.9214;1.3914;
398.4000;0.9255;1.4032;
398.7000;0.9231;1.3985;
399.0000;0.9239;1.4080;
399.3000;0.9223;1.4032;
399.6000;0.9271;1.4103;
399.9000;0.9214;1.3891;
400.2000;0.9231;1.3867;
400.5000;0.9312;1.4103;
400.8000;0.9239;1.3962;
401.1000;0.9239;1.3891;
401.4000;0.9239;1.3867;
401.7000;0.9255;1.3843;
402.0000;0.9231;1.3820;
402.3000;0.9255;1.3843;
402.6000;0.9255;1.3843;
402.9000;0.9247;1.3843;
403.2000;0.9239;1.3938;
403.5000;0.9255;1.3985;
403.8000;0.9239;1.3962;
404.1000;0.9239;1.4009;
404.4000;0.9255;1.4198;
404.7000;0.9255;1.4221;
405.0000;0.9255;1.4245;
405.3000;0.9231;1.4174;
405.6000;0.9239;1.4151;
405.9000;0.9214;1.4103;
406.2000;0.9239;1.4080;
406.5000;0.9280;1.4080;
406.8000;0.9239;1.3962;
407.1000;0.9247;1.3962;
407.4000;0.9247;1.3962;
407.7000;0.9255;1.3891;
408.0000;0.9214;1.3843;
408.3000;0.9247;1.3938;
408.6000;0.9271;1.3985;
408.9000;0.9263;1.3962;
409.2000;0.9231;1.3914;
409.5000;0.9263;1.3914;
409.8000;0.9239;1.3867;
410.1000;0.9247;1.3891;
410.4000;0.9239;1.3914;
410.7000;0.9239;1.3962;
411.0000;0.9247;1.4009;
411.3000;0.9247;1.3962;
411.6000;0.9239;1.4032;
411.9000;0.9247;1.4032;
412.2000;0.9247;1.3985;
412.5000;0.9214;1.3867;
412.8000;0.9263;1.4009;
413.1000;0.9247;1.4009;
413.4000;0.9247;1.3985;
413.7000;0.9345;1.4245;
414.0000;0.9255;1.4009;
414.3000;0.9263;1.3985;
414.6000;0.9206;1.3938;
414.9000;0.9263;1.3985;
415.2000;0.9239;1.4009;
415.5000;0.9328;1.4316;
415.8000;0.9182;1.4009;
416.1000;0.9239;1.4032;
416.4000;0.9255;1.4009;
416.7000;0.9174;1.3796;
417.0000;0.9247;1.3938;
417.3000;0.9255;1.3962;
417.6000;0.9255;1.3985;
417.9000;0.9239;1.3938;
418.2000;0.9263;1.4009;
418.5000;0.9247;1.3962;
418.8000;0.9239;1.4009;
419.1000;0.9296;1.4245;
419.4000;0.9271;1.4127;
419.7000;0.9247;1.4056;
420.0000;0.9247;1.4009;
420.3000;0.9280;1.4080;
420.6000;0.9223;1.3914;
420.9000;0.9231;1.3914;
421.2000;0.9231;1.3867;
421.5000;0.9223;1.3891;
421.8000;0.9239;1.3891;
422.1000;0.9288;1.3985;
422.4000;0.9247;1.3891;
422.7000;0.9231;1.3938;
423.0000;0.9320;1.4245;
423.3000;0.9223;1.4032;
423.6000;0.9223;1.4056;
423.9000;0.9247;1.4009;
424.2000;0.9223;1.3962;
424.5000;0.9214;1.4009;
424.8000;0.9255;1.4103;
425.1000;0.9304;1.4151;
425.4000;0.9231;1.4009;
425.7000;0.9231;1.4080;
426.0000;0.9247;1.4009;
426.3000;0.9247;1.3985;
426.6000;0.9255;1.4080;
426.9000;0.9239;1.4080;
427.2000;0.9239;1.4080;
427.5000;0.9263;1.4127;
427.8000;0.9263;1.4103;
428.1000;0.9239;1.4056;
428.4000;0.9288;1.4221;
428.7000;0.9223;1.4198;
429.0000;0.9247;1.4245;
429.3000;0.9255;1.4245;
429.6000;0.9182;1.4127;
429.9000;0.9255;1.4292;
430.2000;0.9288;1.4340;
430.5000;0.9231;1.4151;
430.8000;0.9247;1.4127;
431.1000;0.9239;1.4080;
431.4000;0.9206;1.3962;
431.7000;0.9247;1.4032;
432.0000;0.9231;1.3962;
432.3000;0.9280;1.4009;
432.6000;0.9288;1.4032;
432.9000;0.9239;1.3985;
433.2000;0.9223;1.4032;
433.5000;0.9231;1.4009;
433.8000;0.9255;1.4009;
434.1000;0.9255;1.3985;
434.4000;0.9239;1.3938;
434.7000;0.9255;1.3891;
435.0000;0.9247;1.3914;
435.3000;0.9231;1.3891;
435.6000;0.9255;1.3914;
435.9000;0.9255;1.3938;
436.2000;0.9247;1.3985;
436.5000;0.9263;1.4127;
436.8000;0.9231;1.4151;
437.1000;0.9247;1.4151;
437.4000;0.9231;1.4221;
437.7000;0.9231;1.4245;
438.0000;0.9239;1.4269;
438.3000;0.9223;1.4221;
438.6000;0.9190;1.4174;
438.9000;0.9247;1.4221;
439.2000;0.9239;1.4151;
439.5000;0.9247;1.4198;
439.8000;0.9231;1.4151;
440.1000;0.9231;1.4103;
440.4000;0.9255;1.4032;
440.7000;0.9214;1.3867;
441.0000;0.9198;1.3749;
441.3000;0.9255;1.3867;
441.6000;0.9231;1.3867;
441.9000;0.9271;1.3962;
442.2000;0.9231;1.3985;
442.5000;0.9239;1.3962;
442.8000;0.9239;1.3962;
443.1000;0.9231;1.3962;
443.4000;0.9239;1.4032;
443.7000;0.9239;1.4103;
444.0000;0.9247;1.4151;
444.3000;0.9304;1.4269;
444.6000;0.9263;1.4151;
444.9000;0.9247;1.4174;
445.2000;0.9182;1.4032;
445.5000;0.9263;1.4174;
445.8000;0.9239;1.4151;
446.1000;0.9296;1.4363;
446.4000;0.9223;1.4151;
446.7000;0.9214;1.4127;
447.0000;0.9174;1.4080;
447.3000;0.9214;1.4103;
447.6000;0.9214;1.3962;
447.9000;0.9231;1.3962;
448.2000;0.9304;1.4292;
448.5000;0.9223;1.4127;
448.8000;0.9239;1.4127;
449.1000;0.9166;1.3914;
449.4000;0.9239;1.4009;
449.7000;0.9247;1.4056;
450.0000;0.9247;1.4009;
450.3000;0.9206;1.3843;
450.6000;0.9271;1.3985;
450.9000;0.9239;1.3914;
451.2000;0.9231;1.3891;
451.5000;0.9247;1.3914;
451.8000;0.9263;1.3938;
452.1000;0.9247;1.3914;
452.4000;0.9361;1.4221;
452.7000;0.9247;1.3938;
453.0000;0.9255;1.3962;
453.3000;0.9280;1.3985;
453.6000;0.9141;1.3654;
453.9000;0.9223;1.3820;
454.2000;0.9190;1.3773;
454.5000;0.9223;1.3820;
454.8000;0.9223;1.3867;
455.1000;0.9255;1.3891;
455.4000;0.9239;1.3773;
455.7000;0.9263;1.3725;
456.0000;0.9239;1.3725;
456.3000;0.9223;1.3654;
456.6000;0.9239;1.3702;
456.9000;0.9231;1.3796;
457.2000;0.9231;1.3938;
457.5000;0.9214;1.3938;
457.8000;0.9174;1.3749;
458.1000;0.9223;1.3914;
458.4000;0.9223;1.3891;
458.7000;0.9255;1.3985;
459.0000;0.9231;1.3985;
459.3000;0.9231;1.3938;
459.6000;0.9223;1.3891;
459.9000;0.9231;1.3938;
460.2000;0.9231;1.3985;
460.5000;0.9263;1.3962;
460.8000;0.9223;1.3891;
461.1000;0.9190;1.3891;
461.4000;0.9231;1.4032;
461.7000;0.9231;1.4056;
462.0000;0.9231;1.4103;
462.3000;0.9239;1.4103;
462.6000;0.9255;1.4080;
462.9000;0.9223;1.3962;
463.2000;0.9255;1.4032;
463.5000;0.9223;1.3914;
463.8000;0.9223;1.3891;
464.1000;0.9223;1.3867;
464.4000;0.9231;1.3891;
464.7000;0.9239;1.3914;
465.0000;0.9231;1.3891;
465.3000;0.9214;1.3938;
465.6000;0.9231;1.3938;
465.9000;0.9239;1.4032;
466.2000;0.9239;1.4056;
466.5000;0.9263;1.4032;
466.8000;0.9255;1.4056;
467.1000;0.9247;1.4032;
467.4000;0.9214;1.3962;
467.7000;0.9214;1.4009;
468.0000;0.9198;1.4009;
468.3000;0.9141;1.4009;
468.6000;0.9231;1.4198;
468.9000;0.9214;1.4103;
469.2000;0.9255;1.4151;
469.5000;0.9239;1.4080;
469.8000;0.9223;1.3985;
470.1000;0.9149;1.3749;
470.4000;0.9231;1.3914;
470.7000;0.9255;1.3962;
471.0000;0.9280;1.4080;
471.3000;0.9133;1.3631;
471.6000;0.9223;1.3796;
471.9000;0.9239;1.3867;
472.2000;0.9247;1.3938;
472.5000;0.9271;1.4080;
472.8000;0.9206;1.3985;
473.1000;0.9231;1.4009;
473.4000;0.9231;1.4032;
473.7000;0.9198;1.3938;
474.0000;0.9198;1.3914;
474.3000;0.9214;1.4009;
474.6000;0.9255;1.4080;
474.9000;0.9158;1.3867;
475.2000;0.9239;1.3985;
475.5000;0.9239;1.3962;
475.8000;0.9247;1.3962;
476.1000;0.9255;1.3962;
476.4000;0.9247;1.4032;
476.7000;0.9239;1.4032;
477.0000;0.9255;1.4103;
477.3000;0.9231;1.4056;
477.6000;0.9206;1.3985;
477.9000;0.9231;1.4056;
478.2000;0.9214;1.3985;
478.5000;0.9214;1.4032;
478.8000;0.9320;1.4198;
479.1000;0.9231;1.3985;
479.4000;0.9206;1.3843;
479.7000;0.9231;1.3867;
480.0000;0.9231;1.3891;
480.3000;0.9239;1.3914;
480.6000;0.9223;1.3796;
480.9000;0.9280;1.4009;
481.2000;0.9247;1.3914;
481.5000;0.9223;1.3938;
481.8000;0.9214;1.3962;
482.1000;0.9223;1.3985;
482.4000;0.9214;1.4103;
482.7000;0.9239;1.4174;
483.0000;0.9231;1.4174;
483.3000;0.9214;1.4127;
483.6000;0.9247;1.4103;
483.9000;0.9255;1.4127;
484.2000;0.9312;1.4174;
484.5000;0.9190;1.3962;
484.8000;0.9247;1.4080;
485.1000;0.9231;1.3985;
485.4000;0.9239;1.3962;
485.7000;0.9223;1.3914;
486.0000;0.9239;1.3962;
486.3000;0.9239;1.4009;
486.6000;0.9214;1.3914;
486.9000;0.9214;1.3891;
487.2000;0.9214;1.3914;
487.5000;0.9239;1.3962;
487.8000;0.9223;1.3867;
488.1000;0.9214;1.3938;
488.4000;0.9223;1.4032;
488.7000;0.9206;1.3867;
489.0000;0.9223;1.3867;
489.3000;0.9263;1.4009;
489.6000;0.9231;1.3938;
489.9000;0.9239;1.3962;
490.2000;0.9239;1.3914;
490.5000;0.9223;1.3773;
490.8000;0.9247;1.3749;
491.1000;0.9247;1.3796;
491.4000;0.9247;1.3867;
491.7000;0.9239;1.3891;
492.0000;0.9231;1.3891;
492.3000;0.9239;1.3914;
492.6000;0.9255;1.3867;
492.9000;0.9223;1.3867;
493.2000;0.9239;1.3891;
493.5000;0.9206;1.3914;
493.8000;0.9231;1.3914;
494.1000;0.9239;1.3867;
494.4000;0.9206;1.3820;
494.7000;0.9223;1.3820;
495.0000;0.9231;1.3867;
495.3000;0.9223;1.3820;
495.6000;0.9255;1.3749;
495.9000;0.9231;1.3773;
496.2000;0.9223;1.3702;
496.5000;0.9231;1.3702;
496.8000;0.9271;1.3843;
497.1000;0.9255;1.3914;
497.4000;0.9223;1.3843;
497.7000;0.9255;1.3938;
498.0000;0.9288;1.4080;
498.3000;0.9231;1.4009;
498.6000;0.9280;1.4032;
498.9000;0.9247;1.4056;
499.2000;0.9231;1.4056;
499.5000;0.9214;1.3914;
499.8000;0.9198;1.3891;
500.1000;0.9231;1.3938;
500.4000;0.9231;1.3938;
500.7000;0.9239;1.3962;
501.0000;0.9239;1.3962;
501.3000;0.9206;1.3891;
501.6000;0.9271;1.3985;
501.9000;0.9239;1.3938;
502.2000;0.9239;1.3914;
502.5000;0.9223;1.3938;
502.8000;0.9247;1.3985;
503.1000;0.9247;1.3962;
503.4000;0.9239;1.3985;
503.7000;0.9190;1.3914;
504.0000;0.9239;1.4056;
504.3000;0.9223;1.4080;
504.6000;0.9231;1.3938;
504.9000;0.9231;1.3938;
505.2000;0.9239;1.3891;
505.5000;0.9247;1.3820;
505.8000;0.9247;1.3796;
506.1000;0.9231;1.3749;
506.4000;0.9239;1.3843;
506.7000;0.9255;1.3938;
507.0000;0.9239;1.3985;
507.3000;0.9239;1.3962;
507.6000;0.9239;1.3962;
507.9000;0.9239;1.3891;
508.2000;0.9239;1.3867;
508.5000;0.9247;1.3867;
508.8000;0.9231;1.3867;
509.1000;0.9214;1.3820;
509.4000;0.9239;1.3938;
509.7000;0.9190;1.3867;
510.0000;0.9231;1.3962;
510.3000;0.9198;1.3914;
510.6000;0.9206;1.3914;
510.9000;0.9214;1.3867;
511.2000;0.9214;1.3914;
511.5000;0.9223;1.3843;
511.8000;0.9214;1.3796;
512.1000;0.9239;1.3891;
512.4000;0.9231;1.3867;
512.7000;0.9223;1.3773;
513.0000;0.9214;1.3749;
513.3000;0.9190;1.3749;
513.6000;0.9231;1.3796;
513.9000;0.9198;1.3773;
514.2000;0.9206;1.3820;
514.5000;0.9206;1.3820;
514.8000;0.9206;1.3749;
515.1000;0.9255;1.3843;
515.4000;0.9206;1.3773;
515.7000;0.9231;1.3820;
516.0000;0.9231;1.3843;
516.3000;0.9182;1.3678;
516.6000;0.9198;1.3773;
516.9000;0.9223;1.3796;
517.2000;0.9214;1.3796;
517.5000;0.9206;1.3843;
517.8000;0.9223;1.3914;
518.1000;0.9198;1.3867;
518.4000;0.9223;1.3843;
518.7000;0.9198;1.3843;
519.0000;0.9223;1.3891;
519.3000;0.9247;1.3985;
519.6000;0.9214;1.3843;
519.9000;0.9206;1.3796;
520.2000;0.9206;1.3702;
520.5000;0.9190;1.3702;
520.8000;0.9223;1.3702;
521.1000;0.9223;1.3631;
521.4000;0.9182;1.3631;
521.7000;0.9198;1.3678;
522.0000;0.9296;1.3891;
522.3000;0.9231;1.3702;
522.6000;0.9247;1.3725;
522.9000;0.9182;1.3560;
523.2000;0.9223;1.3749;
523.5000;0.9223;1.3749;
523.8000;0.9231;1.3796;
524.1000;0.9223;1.3843;
524.4000;0.9231;1.3843;
524.7000;0.9214;1.3843;
525.0000;0.9206;1.3796;
525.3000;0.9214;1.3938;
525.6000;0.9231;1.4056;
525.9000;0.9223;1.4103;
526.2000;0.9231;1.4127;
526.5000;0.9206;1.4080;
526.8000;0.9231;1.4056;
527.1000;0.9206;1.3914;
527.4000;0.9166;1.3749;
527.7000;0.9198;1.3891;
528.0000;0.9239;1.3962;
528.3000;0.9198;1.3914;
528.6000;0.9239;1.4080;
528.9000;0.9320;1.4245;
529.2000;0.9182;1.3891;
529.5000;0.9198;1.3938;
529.8000;0.9214;1.4032;
530.1000;0.9206;1.3914;
530.4000;0.9214;1.3867;
530.7000;0.9231;1.3843;
531.0000;0.9214;1.3820;
531.3000;0.9214;1.3820;
531.6000;0.9239;1.3962;
531.9000;0.9214;1.3914;
532.2000;0.9223;1.3891;
532.5000;0.9223;1.3843;
532.8000;0.9206;1.3773;
533.1000;0.9223;1.3796;
533.4000;0.9231;1.3867;
533.7000;0.9239;1.3938;
534.0000;0.9231;1.3985;
534.3000;0.9206;1.3796;
534.6000;0.9247;1.3914;
534.9000;0.9223;1.3914;
535.2000;0.9223;1.3891;
535.5000;0.9206;1.3796;
535.8000;0.9198;1.3820;
536.1000;0.9190;1.3796;
536.4000;0.9206;1.3867;
536.7000;0.9214;1.3891;
537.0000;0.9223;1.3820;
537.3000;0.9223;1.3962;
537.6000;0.9206;1.3985;
537.9000;0.9198;1.3938;
538.2000;0.9198;1.3773;
538.5000;0.9214;1.3820;
538.8000;0.9223;1.3773;
539.1000;0.9206;1.3820;
539.4000;0.9223;1.3796;
539.7000;0.9231;1.3843;
540.0000;0.9214;1.3796;
540.3000;0.9214;1.3749;
540.6000;0.9198;1.3749;
540.9000;0.9198;1.3702;
541.2000;0.9223;1.3749;
541.5000;0.9214;1.3773;
541.8000;0.9198;1.3749;
542.1000;0.9190;1.3749;
542.4000;0.9223;1.3820;
542.7000;0.9231;1.3914;
543.0000;0.9231;1.3867;
543.3000;0.9288;1.3985;
543.6000;0.9182;1.3702;
543.9000;0.9239;1.3867;
544.2000;0.9190;1.3938;
544.5000;0.9239;1.4032;
544.8000;0.9198;1.3867;
545.1000;0.9239;1.3938;
545.4000;0.9288;1.4009;
545.7000;0.9231;1.3891;
546.0000;0.9231;1.3867;
546.3000;0.9223;1.3867;
546.6000;0.9231;1.3891;
546.9000;0.9141;1.3725;
547.2000;0.9174;1.3773;
547.5000;0.9190;1.3796;
547.8000;0.9223;1.3796;
548.1000;0.9231;1.3891;
548.4000;0.9101;1.3607;
548.7000;0.9255;1.3914;
549.0000;0.9214;1.3820;
549.3000;0.9223;1.3938;
549.6000;0.9247;1.3891;
549.9000;0.9214;1.3820;
550.2000;0.9223;1.3867;
550.5000;0.9231;1.3938;
550.8000;0.9166;1.3891;
551.1000;0.9206;1.4009;
551.4000;0.9214;1.4009;
551.7000;0.9304;1.4292;
552.0000;0.9174;1.3985;
552.3000;0.9206;1.4009;
552.6000;0.9214;1.4032;
552.9000;0.9239;1.4127;
553.2000;0.9198;1.3985;
553.5000;0.9231;1.4009;
553.8000;0.9206;1.3938;
554.1000;0.9190;1.3773;
554.4000;0.9214;1.3796;
554.7000;0.9223;1.3773;
555.0000;0.9174;1.3773;
555.3000;0.9214;1.3843;
555.6000;0.9198;1.3843;
555.9000;0.9206;1.3843;
556.2000;0.9239;1.3843;
556.5000;0.9206;1.3843;
556.8000;0.9206;1.3749;
557.1000;0.9214;1.3725;
557.4000;0.9214;1.3891;
557.7000;0.9231;1.3914;
558.0000;0.9231;1.3867;
558.3000;0.9231;1.3867;
558.6000;0.9231;1.3891;
558.9000;0.9223;1.3891;
559.2000;0.9231;1.4009;
559.5000;0.9223;1.4009;
559.8000;0.9231;1.3938;
560.1000;0.9214;1.3843;
560.4000;0.9206;1.3843;
560.7000;0.9214;1.3891;
561.0000;0.9141;1.3654;
561.3000;0.9247;1.3867;
561.6000;0.9231;1.3843;
561.9000;0.9247;1.3867;
562.2000;0.9214;1.3843;
562.5000;0.9247;1.3891;
562.8000;0.9223;1.3867;
563.1000;0.9239;1.3914;
563.4000;0.9255;1.3891;
563.7000;0.9223;1.3654;
564.0000;0.9206;1.3631;
564.3000;0.9223;1.3678;
564.6000;0.9255;1.3725;
564.9000;0.9247;1.3773;
565.2000;0.9190;1.3702;
565.5000;0.9231;1.3820;
565.8000;0.9231;1.3820;
566.1000;0.9231;1.3914;
566.4000;0.9247;1.3962;
566.7000;0.9223;1.3773;
567.0000;0.9361;1.4198;
567.3000;0.9190;1.3867;
567.6000;0.9223;1.3891;
567.9000;0.9206;1.3867;
568.2000;0.9223;1.3962;
568.5000;0.9296;1.4056;
568.8000;0.9247;1.3938;
569.1000;0.9214;1.3843;
569.4000;0.9288;1.3985;
569.7000;0.9223;1.3867;
570.0000;0.9182;1.3867;
570.3000;0.9206;1.3914;
570.6000;0.9231;1.3938;
570.9000;0.9214;1.3820;
571.2000;0.9231;1.3796;
571.5000;0.9174;1.3654;
571.8000;0.9214;1.3702;
572.1000;0.9198;1.3678;
572.4000;0.9206;1.3749;
572.7000;0.9198;1.3796;
573.0000;0.9223;1.3914;
573.3000;0.9214;1.3914;
573.6000;0.9190;1.3843;
573.9000;0.9198;1.3891;
574.2000;0.9214;1.3962;
574.5000;0.9214;1.3962;
574.8000;0.9141;1.3843;
575.1000;0.9206;1.3962;
575.4000;0.9263;1.4032;
575.7000;0.9206;1.3867;
576.0000;0.9214;1.3867;
576.3000;0.9198;1.3773;
576.6000;0.9198;1.3725;
576.9000;0.9214;1.3725;
577.2000;0.9239;1.3843;
577.5000;0.9214;1.3702;
577.8000;0.9198;1.3749;
578.1000;0.9133;1.3584;
578.4000;0.9206;1.3820;
578.7000;0.9206;1.3891;
579.0000;0.9206;1.3867;
579.3000;0.9214;1.3843;
579.6000;0.9223;1.3914;
579.9000;0.9214;1.3891;
580.2000;0.9223;1.3867;
580.5000;0.9166;1.3678;
580.8000;0.9190;1.3843;
581.1000;0.9223;1.3891;
581.4000;0.9149;1.3702;
581.7000;0.9182;1.3773;
582.0000;0.9198;1.3773;
582.3000;0.9214;1.3867;
582.6000;0.9223;1.3962;
582.9000;0.9231;1.3985;
583.2000;0.9190;1.3843;
583.5000;0.9239;1.3867;
583.8000;0.9214;1.3843;
584.1000;0.9231;1.3773;
584.4000;0.9206;1.3725;
584.7000;0.9239;1.3725;
585.0000;0.9214;1.3749;
585.3000;0.9263;1.3820;
585.6000;0.9214;1.3702;
585.9000;0.9214;1.3796;
586.2000;0.9198;1.3843;
586.5000;0.9223;1.3867;
586.8000;0.9190;1.3702;
587.1000;0.9198;1.3654;
587.4000;0.9255;1.3749;
587.7000;0.9198;1.3631;
588.0000;0.9206;1.3678;
588.3000;0.9214;1.3631;
588.6000;0.9214;1.3654;
588.9000;0.9231;1.3796;
589.2000;0.9198;1.3749;
589.5000;0.9223;1.3749;
589.8000;0.9223;1.3773;
590.1000;0.9231;1.3867;
590.4000;0.9206;1.3773;
590.7000;0.9214;1.3773;
591.0000;0.9214;1.3749;
591.3000;0.9271;1.3867;
591.6000;0.9214;1.3773;
591.9000;0.9198;1.3773;
592.2000;0.9206;1.3796;
592.5000;0.9223;1.3773;
592.8000;0.9231;1.3773;
593.1000;0.9214;1.3725;
593.4000;0.9206;1.3678;
593.7000;0.9223;1.3678;
594.0000;0.9239;1.3749;
594.3000;0.9231;1.3749;
594.6000;0.9206;1.3749;
594.9000;0.9214;1.3796;
595.2000;0.9239;1.3891;
595.5000;0.9182;1.3914;
595.8000;0.9206;1.3962;
596.1000;0.9231;1.3914;
596.4000;0.9223;1.3914;
596.7000;0.9223;1.3891;
597.0000;0.9214;1.3867;
597.3000;0.9214;1.3867;
597.6000;0.9214;1.3796;
597.9000;0.9223;1.3749;
598.2000;0.9223;1.3702;
598.5000;0.9214;1.3654;
598.8000;0.9239;1.3749;
599.1000;0.9231;1.3796;
599.4000;0.9214;1.3796;
599.7000;0.9223;1.3843;
600.0000;0.9190;1.3773;
600.3000;0.9223;1.3773;
600.6000;0.9214;1.3607;
600.9000;0.9198;1.3442;
601.2000;0.9149;1.3300;
601.5000;0.9060;1.3017;
601.8000;0.9027;1.2804;
602.1000;0.8962;1.2497;
602.4000;0.8889;1.2261;
602.7000;0.8840;1.2119;
603.0000;0.8759;1.1906;
603.3000;0.8718;1.1812;
603.6000;0.8645;1.1646;
603.9000;0.8604;1.1552;
604.2000;0.8539;1.1481;
604.5000;0.8457;1.1268;
604.8000;0.8409;1.1174;
605.1000;0.8392;1.1150;
605.4000;0.8368;1.1174;
605.7000;0.8376;1.1198;
606.0000;0.8270;1.0985;
606.3000;0.8262;1.0938;
606.6000;0.8197;1.0749;
606.9000;0.8140;1.0701;
607.2000;0.8091;1.0631;
607.5000;0.8083;1.0678;
607.8000;0.8034;1.0607;
608.1000;0.7993;1.0489;
608.4000;0.8010;1.0583;
608.7000;0.7953;1.0536;
609.0000;0.7912;1.0536;
609.3000;0.7855;1.0347;
609.6000;0.7814;1.0300;
609.9000;0.7806;1.0300;
610.2000;0.7766;1.0229;
610.5000;0.7717;1.0158;
610.8000;0.7692;1.0135;
611.1000;0.7684;1.0158;
611.4000;0.7717;1.0229;
611.7000;0.7676;1.0205;
612.0000;0.7586;0.9993;
612.3000;0.7562;0.9993;
612.6000;0.7521;0.9922;
612.9000;0.7513;0.9946;
613.2000;0.7497;0.9898;
613.5000;0.7473;0.9851;
613.8000;0.7448;0.9804;
614.1000;0.7424;0.9804;
614.4000;0.7399;0.9804;
614.7000;0.7359;0.9709;
615.0000;0.7350;0.9591;
615.3000;0.7326;0.9568;
615.6000;0.7293;0.9568;
615.9000;0.7285;0.9497;
616.2000;0.7253;0.9473;
616.5000;0.7261;0.9520;
616.8000;0.7220;0.9449;
617.1000;0.7188;0.9402;
617.4000;0.7163;0.9331;
617.7000;0.7163;0.9355;
618.0000;0.7139;0.9426;
618.3000;0.7123;0.9449;
618.6000;0.7009;0.9260;
618.9000;0.7074;0.9426;
619.2000;0.7066;0.9426;
619.5000;0.7041;0.9355;
619.8000;0.7017;0.9284;
620.1000;0.7009;0.9260;
620.4000;0.6984;0.9190;
620.7000;0.6976;0.9213;
621.0000;0.6935;0.9142;
621.3000;0.6943;0.9166;
621.6000;0.6943;0.9190;
621.9000;0.6919;0.9213;
622.2000;0.6854;0.9048;
622.5000;0.6878;0.9095;
622.8000;0.6870;0.9166;
623.1000;0.6838;0.9095;
623.4000;0.6829;0.9048;
623.7000;0.6805;0.9048;
624.0000;0.6740;0.8953;
624.3000;0.6789;0.9001;
624.6000;0.6821;0.9142;
624.9000;0.6764;0.9071;
625.2000;0.6716;0.8953;
625.5000;0.6732;0.8953;
625.8000;0.6732;0.8930;
626.1000;0.6691;0.8859;
626.4000;0.6691;0.8835;
626.7000;0.6716;0.9024;
627.0000;0.6659;0.8977;
627.3000;0.6650;0.8953;
627.6000;0.6634;0.8882;
627.9000;0.6634;0.8953;
628.2000;0.6626;0.9024;
628.5000;0.6602;0.9001;
628.8000;0.6593;0.9001;
629.1000;0.6545;0.8953;
629.4000;0.6585;0.9024;
629.7000;0.6561;0.8930;
630.0000;0.6553;0.9024;
630.3000;0.6520;0.8906;
630.6000;0.6561;0.8977;
630.9000;0.6528;0.8977;
631.2000;0.6512;0.8930;
631.5000;0.6488;0.8882;
631.8000;0.6488;0.8906;
632.1000;0.6463;0.8859;
632.4000;0.6528;0.9166;
632.7000;0.6471;0.9001;
633.0000;0.6447;0.8977;
633.3000;0.6431;0.8953;
633.6000;0.6431;0.8977;
633.9000;0.6414;0.8906;
634.2000;0.6406;0.8906;
634.5000;0.6390;0.8835;
634.8000;0.6398;0.8859;
635.1000;0.6374;0.8835;
635.4000;0.6357;0.8812;
635.7000;0.6390;0.8882;
636.0000;0.6357;0.8812;
636.3000;0.6349;0.8882;
636.6000;0.6349;0.8812;
636.9000;0.6341;0.8788;
637.2000;0.6357;0.8764;
637.5000;0.6357;0.8693;
637.8000;0.6325;0.8575;
638.1000;0.6333;0.8599;
638.4000;0.6325;0.8552;
638.7000;0.6268;0.8528;
639.0000;0.6260;0.8599;
639.3000;0.6260;0.8670;
639.6000;0.6276;0.8670;
639.9000;0.6284;0.8670;
640.2000;0.6268;0.8741;
640.5000;0.6243;0.8693;
640.8000;0.6252;0.8741;
641.1000;0.6243;0.8741;
641.4000;0.6317;0.8859;
641.7000;0.6243;0.8670;
642.0000;0.6211;0.8623;
642.3000;0.6227;0.8670;
642.6000;0.6211;0.8693;
642.9000;0.6219;0.8764;
643.2000;0.6203;0.8788;
643.5000;0.6243;0.8859;
643.8000;0.6178;0.8812;
644.1000;0.6162;0.8812;
644.4000;0.6162;0.8788;
644.7000;0.6203;0.8859;
645.0000;0.6146;0.8788;
645.3000;0.6154;0.8835;
645.6000;0.6146;0.8835;
645.9000;0.6138;0.8906;
646.2000;0.6146;0.8906;
646.5000;0.6170;0.8977;
646.8000;0.6129;0.8953;
647.1000;0.6121;0.8906;
647.4000;0.6113;0.8859;
647.7000;0.6113;0.8835;
648.0000;0.6105;0.8812;
648.3000;0.6113;0.8835;
648.6000;0.6105;0.8788;
648.9000;0.6072;0.8717;
649.2000;0.6072;0.8693;
649.5000;0.6048;0.8693;
649.8000;0.6056;0.8741;
650.1000;0.6064;0.8741;
650.4000;0.6072;0.8788;
650.7000;0.6129;0.8953;
651.0000;0.6064;0.8835;
651.3000;0.6064;0.8812;
651.6000;0.6056;0.8764;
651.9000;0.6056;0.8906;
652.2000;0.6064;0.8835;
652.5000;0.6048;0.8859;
652.8000;0.6056;0.8764;
653.1000;0.6024;0.8717;
653.4000;0.6024;0.8835;
653.7000;0.6015;0.8835;
654.0000;0.5967;0.8670;
654.3000;0.6024;0.8717;
654.6000;0.6007;0.8646;
654.9000;0.5991;0.8646;
655.2000;0.6015;0.8693;
655.5000;0.5967;0.8504;
655.8000;0.5975;0.8481;
656.1000;0.6015;0.8599;
656.4000;0.5983;0.8575;
656.7000;0.5983;0.8646;
657.0000;0.5967;0.8670;
657.3000;0.6048;0.8930;
657.6000;0.5975;0.8764;
657.9000;0.5991;0.8764;
658.2000;0.5967;0.8741;
658.5000;0.5958;0.8741;
658.8000;0.5942;0.8717;
659.1000;0.5926;0.8693;
659.4000;0.5967;0.8788;
659.7000;0.5942;0.8670;
660.0000;0.5958;0.8693;
660.3000;0.5934;0.8693;
660.6000;0.5926;0.8646;
660.9000;0.5828;0.8386;
661.2000;0.5926;0.8788;
661.5000;0.5934;0.8788;
661.8000;0.5934;0.8812;
662.1000;0.5958;0.8882;
662.4000;0.5902;0.8835;
662.7000;0.5926;0.8835;
663.0000;0.5902;0.8859;
663.3000;0.5877;0.8741;
663.6000;0.5877;0.8670;
663.9000;0.5975;0.8953;
664.2000;0.5869;0.8812;
664.5000;0.5877;0.8859;
664.8000;0.5845;0.8788;
665.1000;0.5877;0.8859;
665.4000;0.5877;0.8812;
665.7000;0.5861;0.8741;
666.0000;0.5869;0.8693;
666.3000;0.5877;0.8741;
666.6000;0.5877;0.8788;
666.9000;0.5861;0.8764;
667.2000;0.5836;0.8812;
667.5000;0.5861;0.8788;
667.8000;0.5836;0.8788;
668.1000;0.5845;0.8788;
668.4000;0.5820;0.8717;
668.7000;0.5788;0.8693;
669.0000;0.5828;0.8788;
669.3000;0.5836;0.8882;
669.6000;0.5828;0.8930;
669.9000;0.5845;0.8906;
670.2000;0.5828;0.8859;
670.5000;0.5828;0.8930;
670.8000;0.5820;0.8882;
671.1000;0.5820;0.8882;
671.4000;0.5804;0.8930;
671.7000;0.5771;0.8741;
672.0000;0.5812;0.8812;
672.3000;0.5812;0.8717;
672.6000;0.5755;0.8599;
672.9000;0.5804;0.8764;
673.2000;0.5885;0.8930;
673.5000;0.5788;0.8670;
673.8000;0.5788;0.8670;
674.1000;0.5779;0.8599;
674.4000;0.5796;0.8693;
674.7000;0.5779;0.8741;
675.0000;0.5796;0.8764;
675.3000;0.5771;0.8788;
675.6000;0.5779;0.8835;
675.9000;0.5788;0.8788;
676.2000;0.5779;0.8693;
676.5000;0.5779;0.8764;
676.8000;0.5779;0.8764;
677.1000;0.5796;0.8812;
677.4000;0.5796;0.8859;
677.7000;0.5763;0.8812;
678.0000;0.5779;0.8906;
678.3000;0.5763;0.8835;
678.6000;0.5755;0.8812;
678.9000;0.5755;0.8764;
679.2000;0.5739;0.8764;
679.5000;0.5755;0.8859;
679.8000;0.5739;0.8835;
680.1000;0.5788;0.8977;
680.4000;0.5682;0.8693;
680.7000;0.5812;0.8977;
681.0000;0.5739;0.8788;
681.3000;0.5657;0.8552;
681.6000;0.5755;0.8788;
681.9000;0.5747;0.8859;
682.2000;0.5763;0.8788;
682.5000;0.5731;0.8741;
682.8000;0.5747;0.8788;
683.1000;0.5747;0.8835;
683.4000;0.5731;0.8835;
683.7000;0.5731;0.8812;
684.0000;0.5706;0.8812;
684.3000;0.5731;0.8882;
684.6000;0.5665;0.8741;
684.9000;0.5690;0.8764;
685.2000;0.5722;0.8812;
685.5000;0.5722;0.8859;
685.8000;0.5706;0.8788;
686.1000;0.5706;0.8764;
686.4000;0.5714;0.8788;
686.7000;0.5722;0.8835;
687.0000;0.5690;0.8835;
687.3000;0.5698;0.8835;
687.6000;0.5722;0.8835;
687.9000;0.5722;0.8882;
688.2000;0.5714;0.8906;
688.5000;0.5698;0.8906;
688.8000;0.5714;0.8977;
689.1000;0.5706;0.9048;
689.4000;0.5690;0.9001;
689.7000;0.5722;0.9095;
690.0000;0.5763;0.9119;
690.3000;0.5706;0.9024;
690.6000;0.5690;0.8953;
690.9000;0.5690;0.8812;
691.2000;0.5690;0.8812;
691.5000;0.5690;0.8741;
691.8000;0.5698;0.8693;
692.1000;0.5698;0.8741;
692.4000;0.5682;0.8835;
692.7000;0.5674;0.8906;
693.0000;0.5649;0.8882;
693.3000;0.5682;0.8977;
693.6000;0.5674;0.9001;
693.9000;0.5731;0.9142;
694.2000;0.5682;0.9001;
694.5000;0.5608;0.8835;
694.8000;0.5649;0.8882;
695.1000;0.5641;0.8835;
695.4000;0.5657;0.8835;
695.7000;0.5722;0.9001;
696.0000;0.5657;0.8859;
696.3000;0.5657;0.8835;
696.6000;0.5649;0.8882;
696.9000;0.5649;0.8812;
697.2000;0.5674;0.8882;
697.5000;0.5674;0.8906;
697.8000;0.5641;0.8882;
698.1000;0.5633;0.8906;
698.4000;0.5641;0.9024;
698.7000;0.5649;0.9048;
699.0000;0.5641;0.9001;
699.3000;0.5617;0.8930;
699.6000;0.5641;0.8882;
699.9000;0.5641;0.8882;
700.2000;0.5641;0.8906;
700.5000;0.5625;0.8906;
700.8000;0.5649;0.8953;
701.1000;0.5641;0.8882;
701.4000;0.5657;0.8835;
701.7000;0.5649;0.8882;
702.0000;0.5641;0.8788;
702.3000;0.5649;0.8741;
702.6000;0.5633;0.8717;
702.9000;0.5641;0.8717;
703.2000;0.5617;0.8788;
703.5000;0.5657;0.8953;
703.8000;0.5617;0.8882;
704.1000;0.5617;0.8835;
704.4000;0.5617;0.8859;
704.7000;0.5600;0.8788;
705.0000;0.5625;0.8812;
705.3000;0.5617;0.8788;
705.6000;0.5617;0.8670;
705.9000;0.5608;0.8599;
706.2000;0.5625;0.8717;
706.5000;0.5600;0.8670;
706.8000;0.5665;0.8812;
707.1000;0.5600;0.8741;
707.4000;0.5608;0.8788;
707.7000;0.5600;0.8812;
708.0000;0.5600;0.8788;
708.3000;0.5608;0.8693;
708.6000;0.5608;0.8693;
708.9000;0.5608;0.8812;
709.2000;0.5600;0.8835;
709.5000;0.5608;0.8859;
709.8000;0.5600;0.8906;
710.1000;0.5592;0.8882;
710.4000;0.5543;0.8764;
710.7000;0.5592;0.8859;
711.0000;0.5600;0.8882;
711.3000;0.5608;0.8953;
711.6000;0.5633;0.9048;
711.9000;0.5592;0.8977;
712.2000;0.5600;0.9048;
712.5000;0.5600;0.8930;
712.8000;0.5551;0.8835;
713.1000;0.5584;0.8977;
713.4000;0.5568;0.8930;
713.7000;0.5584;0.9024;
714.0000;0.5584;0.8977;
714.3000;0.5560;0.8906;
714.6000;0.5560;0.8835;
714.9000;0.5535;0.8764;
715.2000;0.5592;0.9024;
715.5000;0.5568;0.8906;
715.8000;0.5576;0.8953;
716.1000;0.5535;0.8930;
716.4000;0.5649;0.9237;
716.7000;0.5576;0.8977;
717.0000;0.5584;0.9071;
717.3000;0.5535;0.9001;
717.6000;0.5543;0.8953;
717.9000;0.5576;0.9024;
718.2000;0.5551;0.9048;
718.5000;0.5568;0.9048;
718.8000;0.5576;0.9001;
719.1000;0.5584;0.9001;
719.4000;0.5560;0.9024;
719.7000;0.5527;0.8953;
720.0000;0.5568;0.9119;
720.3000;0.5674;0.9355;
720.6000;0.5560;0.9024;
720.9000;0.5568;0.8953;
721.2000;0.5551;0.8906;
721.5000;0.5560;0.8953;
721.8000;0.5568;0.8906;
722.1000;0.5560;0.8906;
722.4000;0.5584;0.8977;
722.7000;0.5543;0.9001;
723.0000;0.5551;0.8953;
723.3000;0.5568;0.8977;
723.6000;0.5551;0.8977;
723.9000;0.5560;0.9048;
724.2000;0.5543;0.9095;
724.5000;0.5527;0.9095;
724.8000;0.5551;0.9142;
725.1000;0.5543;0.9142;
725.4000;0.5543;0.9142;
725.7000;0.5535;0.9142;
726.0000;0.5535;0.9119;
726.3000;0.5551;0.9071;
726.6000;0.5543;0.9142;
726.9000;0.5543;0.9213;
727.2000;0.5527;0.9260;
727.5000;0.5511;0.9190;
727.8000;0.5527;0.9284;
728.1000;0.5551;0.9308;
728.4000;0.5527;0.9213;
728.7000;0.5551;0.9213;
729.0000;0.5519;0.9237;
729.3000;0.5543;0.9190;
729.6000;0.5527;0.9190;
729.9000;0.5527;0.9213;
730.2000;0.5519;0.9142;
730.5000;0.5543;0.9142;
730.8000;0.5519;0.9095;
731.1000;0.5535;0.9095;
731.4000;0.5503;0.9048;
731.7000;0.5519;0.9048;
732.0000;0.5543;0.9024;
732.3000;0.5511;0.8977;
732.6000;0.5576;0.9213;
732.9000;0.5543;0.9213;
733.2000;0.5511;0.9119;
733.5000;0.5511;0.9142;
733.8000;0.5535;0.9213;
734.1000;0.5543;0.9213;
734.4000;0.5486;0.9071;
734.7000;0.5511;0.9119;
735.0000;0.5527;0.9142;
735.3000;0.5519;0.9166;
735.6000;0.5511;0.9119;
735.9000;0.5519;0.9142;
736.2000;0.5519;0.9001;
736.5000;0.5535;0.9095;
736.8000;0.5438;0.8859;
737.1000;0.5470;0.8906;
737.4000;0.5495;0.9001;
737.7000;0.5527;0.9119;
738.0000;0.5543;0.9166;
738.3000;0.5535;0.9119;
738.6000;0.5478;0.9024;
738.9000;0.5551;0.9237;
739.2000;0.5511;0.9213;
739.5000;0.5527;0.9237;
739.8000;0.5495;0.9213;
740.1000;0.5560;0.9379;
740.4000;0.5519;0.9331;
740.7000;0.5543;0.9426;
741.0000;0.5519;0.9473;
741.3000;0.5495;0.9402;
741.6000;0.5511;0.9426;
741.9000;0.5503;0.9402;
742.2000;0.5527;0.9402;
742.5000;0.5438;0.9142;
742.8000;0.5495;0.9237;
743.1000;0.5543;0.9331;
743.4000;0.5527;0.9355;
743.7000;0.5495;0.9237;
744.0000;0.5495;0.9331;
744.3000;0.5511;0.9449;
744.6000;0.5511;0.9402;
744.9000;0.5511;0.9331;
745.2000;0.5511;0.9331;
745.5000;0.5519;0.9308;
745.8000;0.5495;0.9119;
746.1000;0.5511;0.9166;
746.4000;0.5503;0.9166;
746.7000;0.5503;0.9119;
747.0000;0.5495;0.9142;
747.3000;0.5551;0.9237;
747.6000;0.5503;0.9071;
747.9000;0.5527;0.9142;
748.2000;0.5511;0.9119;
748.5000;0.5495;0.9071;
748.8000;0.5511;0.9119;
749.1000;0.5503;0.9024;
749.4000;0.5462;0.8882;
749.7000;0.5438;0.8646;
750.0000;0.5495;0.8812;
750.3000;0.5495;0.8764;
750.6000;0.5503;0.8788;
750.9000;0.5495;0.8859;
751.2000;0.5470;0.8835;
751.5000;0.5478;0.8812;
751.8000;0.5478;0.8764;
752.1000;0.5486;0.8930;
752.4000;0.5454;0.8930;
752.7000;0.5478;0.9024;
753.0000;0.5470;0.9048;
753.3000;0.5486;0.9095;
753.6000;0.5470;0.9048;
753.9000;0.5470;0.9119;
754.2000;0.5470;0.9190;
754.5000;0.5478;0.9237;
754.8000;0.5478;0.9284;
755.1000;0.5470;0.9308;
755.4000;0.5470;0.9355;
755.7000;0.5478;0.9331;
756.0000;0.5446;0.9213;
756.3000;0.5470;0.9213;
756.6000;0.5495;0.9284;
756.9000;0.5495;0.9142;
757.2000;0.5478;0.9119;
757.5000;0.5454;0.9048;
757.8000;0.5470;0.9024;
758.1000;0.5470;0.9001;
758.4000;0.5470;0.9095;
758.7000;0.5462;0.9119;
759.0000;0.5495;0.9237;
759.3000;0.5470;0.9213;
759.6000;0.5446;0.9095;
759.9000;0.5470;0.9142;
760.2000;0.5486;0.9142;
760.5000;0.5470;0.9166;
760.8000;0.5470;0.9095;
761.1000;0.5495;0.9190;
761.4000;0.5470;0.9119;
761.7000;0.5478;0.9166;
762.0000;0.5405;0.8906;
762.3000;0.5446;0.9071;
762.6000;0.5446;0.9001;
762.9000;0.5462;0.9048;
763.2000;0.5454;0.9048;
763.5000;0.5462;0.9071;
763.8000;0.5454;0.9048;
764.1000;0.5462;0.9048;
764.4000;0.5470;0.9142;
764.7000;0.5478;0.9190;
765.0000;0.5446;0.9119;
765.3000;0.5462;0.9119;
765.6000;0.5438;0.9071;
765.9000;0.5454;0.9071;
766.2000;0.5470;0.9119;
766.5000;0.5470;0.9095;
766.8000;0.5438;0.9048;
767.1000;0.5462;0.9095;
767.4000;0.5462;0.9142;
767.7000;0.5454;0.9142;
768.0000;0.5454;0.9095;
768.3000;0.5446;0.9095;
768.6000;0.5429;0.9024;
768.9000;0.5446;0.9024;
769.2000;0.5454;0.9024;
769.5000;0.5454;0.9048;
769.8000;0.5478;0.9095;
770.1000;0.5470;0.9142;
770.4000;0.5413;0.9024;
770.7000;0.5462;0.9190;
771.0000;0.5454;0.9166;
771.3000;0.5462;0.9142;
771.6000;0.5438;0.9119;
771.9000;0.5446;0.9142;
772.2000;0.5413;0.8977;
772.5000;0.5389;0.8882;
772.8000;0.5454;0.9095;
773.1000;0.5421;0.8977;
773.4000;0.5421;0.8953;
773.7000;0.5413;0.8977;
774.0000;0.5462;0.9071;
774.3000;0.5429;0.9001;
774.6000;0.5462;0.9095;
774.9000;0.5454;0.9095;
775.2000;0.5397;0.9001;
775.5000;0.5446;0.9095;
775.8000;0.5421;0.9119;
776.1000;0.5446;0.9260;
776.4000;0.5454;0.9308;
776.7000;0.5429;0.9331;
777.0000;0.5405;0.9213;
777.3000;0.5429;0.9260;
777.6000;0.5421;0.9237;
777.9000;0.5429;0.9260;
778.2000;0.5413;0.9331;
778.5000;0.5405;0.9308;
778.8000;0.5429;0.9402;
779.1000;0.5429;0.9449;
779.4000;0.5429;0.9426;
779.7000;0.5446;0.9473;
780.0000;0.5421;0.9568;
780.3000;0.5454;0.9568;
780.6000;0.5446;0.9520;
780.9000;0.5413;0.9544;
781.2000;0.5446;0.9591;
781.5000;0.5438;0.9591;
781.8000;0.5438;0.9544;
782.1000;0.5454;0.9497;
782.4000;0.5486;0.9568;
782.7000;0.5429;0.9379;
783.0000;0.5429;0.9379;
783.3000;0.5446;0.9379;
783.6000;0.5421;0.9190;
783.9000;0.5429;0.9237;
784.2000;0.5429;0.9213;
784.5000;0.5429;0.9190;
784.8000;0.5446;0.9142;
785.1000;0.5438;0.9260;
785.4000;0.5438;0.9379;
785.7000;0.5429;0.9355;
786.0000;0.5429;0.9449;
786.3000;0.5438;0.9379;
786.6000;0.5486;0.9497;
786.9000;0.5421;0.9308;
787.2000;0.5438;0.9308;
787.5000;0.5364;0.9142;
787.8000;0.5454;0.9331;
788.1000;0.5527;0.9544;
788.4000;0.5429;0.9331;
788.7000;0.5438;0.9331;
789.0000;0.5397;0.9284;
789.3000;0.5438;0.9260;
789.6000;0.5421;0.9237;
789.9000;0.5438;0.9331;
790.2000;0.5478;0.9544;
790.5000;0.5470;0.9638;
790.8000;0.5429;0.9473;
791.1000;0.5438;0.9520;
791.4000;0.5421;0.9544;
791.7000;0.5421;0.9568;
792.0000;0.5421;0.9568;
792.3000;0.5421;0.9615;
792.6000;0.5413;0.9615;
792.9000;0.5421;0.9568;
793.2000;0.5438;0.9520;
793.5000;0.5429;0.9497;
793.8000;0.5405;0.9426;
794.1000;0.5421;0.9568;
794.4000;0.5421;0.9520;
794.7000;0.5421;0.9520;
795.0000;0.5413;0.9402;
795.3000;0.5446;0.9473;
795.6000;0.5429;0.9473;
795.9000;0.5438;0.9497;
796.2000;0.5389;0.9402;
796.5000;0.5438;0.9426;
796.8000;0.5421;0.9355;
797.1000;0.5413;0.9308;
797.4000;0.5324;0.8977;
797.7000;0.5421;0.9237;
798.0000;0.5405;0.9284;
798.3000;0.5543;0.9662;
798.6000;0.5405;0.9426;
798.9000;0.5405;0.9402;
799.2000;0.5413;0.9473;
799.5000;0.5381;0.9426;
799.8000;0.5421;0.9449;
800.1000;0.5405;0.9355;
800.4000;0.5405;0.9284;
800.7000;0.5421;0.9426;
801.0000;0.5421;0.9449;
801.3000;0.5405;0.9426;
801.6000;0.5405;0.9331;
801.9000;0.5429;0.9379;
802.2000;0.5421;0.9308;
802.5000;0.5421;0.9190;
802.8000;0.5462;0.9308;
803.1000;0.5421;0.9331;
803.4000;0.5438;0.9355;
803.7000;0.5421;0.9284;
804.0000;0.5421;0.9355;
804.3000;0.5429;0.9402;
804.6000;0.5372;0.9355;
804.9000;0.5421;0.9426;
805.2000;0.5413;0.9331;
805.5000;0.5405;0.9426;
805.8000;0.5413;0.9449;
806.1000;0.5421;0.9426;
806.4000;0.5503;0.9638;
806.7000;0.5421;0.9449;
807.0000;0.5397;0.9402;
807.3000;0.5429;0.9449;
807.6000;0.5397;0.9355;
807.9000;0.5389;0.9260;
808.2000;0.5429;0.9355;
808.5000;0.5454;0.9355;
808.8000;0.5429;0.9355;
809.1000;0.5364;0.9237;
809.4000;0.5438;0.9379;
809.7000;0.5405;0.9260;
810.0000;0.5364;0.9213;
810.3000;0.5405;0.9355;
810.6000;0.5413;0.9355;
810.9000;0.5446;0.9402;
811.2000;0.5421;0.9308;
811.5000;0.5454;0.9379;
811.8000;0.5405;0.9284;
812.1000;0.5413;0.9402;
812.4000;0.5397;0.9402;
812.7000;0.5340;0.9237;
813.0000;0.5397;0.9355;
813.3000;0.5389;0.9379;
813.6000;0.5372;0.9284;
813.9000;0.5389;0.9426;
814.2000;0.5405;0.9426;
814.5000;0.5413;0.9426;
814.8000;0.5421;0.9284;
815.1000;0.5397;0.9284;
815.4000;0.5340;0.9284;
815.7000;0.5438;0.9473;
816.0000;0.5405;0.9449;
816.3000;0.5405;0.9355;
816.6000;0.5421;0.9355;
816.9000;0.5421;0.9331;
817.2000;0.5429;0.9284;
817.5000;0.5421;0.9355;
817.8000;0.5405;0.9379;
818.1000;0.5421;0.9402;
818.4000;0.5405;0.9260;
818.7000;0.5405;0.9402;
819.0000;0.5389;0.9449;
819.3000;0.5381;0.9473;
819.6000;0.5389;0.9449;
819.9000;0.5421;0.9449;
820.2000;0.5364;0.9379;
820.5000;0.5381;0.9426;
820.8000;0.5397;0.9544;
821.1000;0.5381;0.9473;
821.4000;0.5413;0.9544;
821.7000;0.5397;0.9379;
822.0000;0.5397;0.9402;
822.3000;0.5405;0.9355;
822.6000;0.5405;0.9308;
822.9000;0.5405;0.9284;
823.2000;0.5348;0.9237;
823.5000;0.5478;0.9568;
823.8000;0.5389;0.9402;
824.1000;0.5381;0.9426;
824.4000;0.5389;0.9449;
824.7000;0.5381;0.9426;
825.0000;0.5397;0.9402;
825.3000;0.5397;0.9260;
825.6000;0.5372;0.9166;
825.9000;0.5381;0.9213;
826.2000;0.5413;0.9308;
826.5000;0.5381;0.9260;
826.8000;0.5405;0.9379;
827.1000;0.5413;0.9426;
827.4000;0.5381;0.9473;
827.7000;0.5372;0.9426;
828.0000;0.5381;0.9449;
828.3000;0.5364;0.9426;
828.6000;0.5381;0.9449;
828.9000;0.5405;0.9497;
829.2000;0.5381;0.9402;
829.5000;0.5397;0.9520;
829.8000;0.5405;0.9520;
830.1000;0.5397;0.9473;
830.4000;0.5389;0.9449;
830.7000;0.5372;0.9426;
831.0000;0.5389;0.9497;
831.3000;0.5381;0.9473;
831.6000;0.5372;0.9426;
831.9000;0.5405;0.9568;
832.2000;0.5397;0.9497;
832.5000;0.5397;0.9426;
832.8000;0.5405;0.9260;
833.1000;0.5389;0.9284;
833.4000;0.5372;0.9213;
833.7000;0.5462;0.9449;
834.0000;0.5372;0.9331;
834.3000;0.5381;0.9355;
834.6000;0.5397;0.9355;
834.9000;0.5381;0.9355;
835.2000;0.5372;0.9355;
835.5000;0.5381;0.9379;
835.8000;0.5389;0.9331;
836.1000;0.5364;0.9402;
836.4000;0.5381;0.9237;
836.7000;0.5315;0.9024;
837.0000;0.5381;0.9119;
837.3000;0.5372;0.9142;
837.6000;0.5486;0.9402;
837.9000;0.5389;0.9237;
838.2000;0.5381;0.9355;
838.5000;0.5372;0.9426;
838.8000;0.5372;0.9379;
839.1000;0.5381;0.9449;
839.4000;0.5389;0.9402;
839.7000;0.5372;0.9331;
840.0000;0.5389;0.9473;
840.3000;0.5381;0.9520;
840.6000;0.5340;0.9355;
840.9000;0.5372;0.9544;
841.2000;0.5389;0.9591;
841.5000;0.5389;0.9591;
841.8000;0.5381;0.9497;
842.1000;0.5381;0.9449;
842.4000;0.5372;0.9402;
842.7000;0.5389;0.9402;
843.0000;0.5381;0.9426;
843.3000;0.5381;0.9473;
843.6000;0.5372;0.9497;
843.9000;0.5389;0.9591;
844.2000;0.5372;0.9615;
844.5000;0.5389;0.9638;
844.8000;0.5381;0.9615;
845.1000;0.5381;0.9662;
845.4000;0.5389;0.9662;
845.7000;0.5364;0.9638;
846.0000;0.5364;0.9591;
846.3000;0.5381;0.9615;
846.6000;0.5364;0.9568;
846.9000;0.5372;0.9568;
847.2000;0.5372;0.9568;
847.5000;0.5372;0.9568;
847.8000;0.5397;0.9615;
848.1000;0.5381;0.9638;
848.4000;0.5364;0.9568;
848.7000;0.5364;0.9615;
849.0000;0.5372;0.9544;
849.3000;0.5389;0.9497;
849.6000;0.5421;0.9568;
849.9000;0.5381;0.9568;
850.2000;0.5389;0.9544;
850.5000;0.5364;0.9615;
850.8000;0.5389;0.9686;
851.1000;0.5364;0.9544;
851.4000;0.5372;0.9544;
851.7000;0.5405;0.9615;
852.0000;0.5405;0.9568;
852.3000;0.5381;0.9473;
852.6000;0.5364;0.9473;
852.9000;0.5389;0.9473;
853.2000;0.5381;0.9402;
853.5000;0.5372;0.9379;
853.8000;0.5389;0.9379;
854.1000;0.5372;0.9331;
854.4000;0.5372;0.9426;
854.7000;0.5372;0.9449;
855.0000;0.5372;0.9497;
855.3000;0.5389;0.9497;
855.6000;0.5381;0.9520;
855.9000;0.5389;0.9544;
856.2000;0.5405;0.9662;
856.5000;0.5324;0.9426;
856.8000;0.5364;0.9568;
857.1000;0.5364;0.9638;
857.4000;0.5372;0.9686;
857.7000;0.5381;0.9662;
858.0000;0.5397;0.9733;
858.3000;0.5381;0.9733;
858.6000;0.5381;0.9662;
858.9000;0.5372;0.9638;
859.2000;0.5356;0.9568;
859.5000;0.5381;0.9591;
859.8000;0.5372;0.9544;
860.1000;0.5372;0.9520;
860.4000;0.5389;0.9544;
860.7000;0.5381;0.9591;
861.0000;0.5381;0.9591;
861.3000;0.5372;0.9568;
861.6000;0.5389;0.9520;
861.9000;0.5381;0.9520;
862.2000;0.5364;0.9544;
862.5000;0.5381;0.9591;
862.8000;0.5372;0.9591;
863.1000;0.5381;0.9638;
863.4000;0.5381;0.9686;
863.7000;0.5381;0.9568;
864.0000;0.5372;0.9615;
864.3000;0.5381;0.9638;
864.6000;0.5364;0.9568;
864.9000;0.5372;0.9615;
865.2000;0.5356;0.9662;
865.5000;0.5389;0.9804;
865.8000;0.5372;0.9733;
866.1000;0.5348;0.9615;
866.4000;0.5315;0.9449;
866.7000;0.5364;0.9568;
867.0000;0.5364;0.9615;
867.3000;0.5364;0.9544;
867.6000;0.5372;0.9449;
867.9000;0.5364;0.9520;
868.2000;0.5364;0.9591;
868.5000;0.5364;0.9615;
868.8000;0.5421;0.9709;
869.1000;0.5364;0.9520;
869.4000;0.5348;0.9568;
869.7000;0.5446;0.9780;
870.0000;0.5372;0.9615;
870.3000;0.5356;0.9520;
870.6000;0.5348;0.9568;
870.9000;0.5348;0.9497;
871.2000;0.5356;0.9473;
871.5000;0.5389;0.9544;
871.8000;0.5372;0.9473;
872.1000;0.5364;0.9497;
872.4000;0.5389;0.9615;
872.7000;0.5348;0.9473;
873.0000;0.5364;0.9520;
873.3000;0.5356;0.9544;
873.6000;0.5413;0.9686;
873.9000;0.5364;0.9544;
874.2000;0.5381;0.9520;
874.5000;0.5324;0.9402;
874.8000;0.5381;0.9544;
875.1000;0.5348;0.9426;
875.4000;0.5364;0.9544;
875.7000;0.5348;0.9568;
876.0000;0.5372;0.9638;
876.3000;0.5356;0.9568;
876.6000;0.5364;0.9544;
876.9000;0.5332;0.9520;
877.2000;0.5389;0.9686;
877.5000;0.5389;0.9709;
877.8000;0.5364;0.9591;
878.1000;0.5372;0.9686;
878.4000;0.5381;0.9780;
878.7000;0.5372;0.9757;
879.0000;0.5372;0.9757;
879.3000;0.5348;0.9733;
879.6000;0.5348;0.9709;
879.9000;0.5356;0.9757;
880.2000;0.5372;0.9780;
880.5000;0.5405;0.9922;
880.8000;0.5372;0.9804;
881.1000;0.5511;1.0158;
881.4000;0.5364;0.9804;
881.7000;0.5364;0.9780;
882.0000;0.5356;0.9709;
882.3000;0.5405;0.9827;
882.6000;0.5364;0.9804;
882.9000;0.5364;0.9733;
883.2000;0.5364;0.9733;
883.5000;0.5372;0.9757;
883.8000;0.5356;0.9733;
884.1000;0.5364;0.9780;
884.4000;0.5364;0.9875;
884.7000;0.5340;0.9827;
885.0000;0.5364;0.9922;
885.3000;0.5356;0.9946;
885.6000;0.5356;0.9922;
885.9000;0.5364;0.9922;
886.2000;0.5348;0.9851;
886.5000;0.5356;0.9827;
886.8000;0.5356;0.9804;
887.1000;0.5348;0.9757;
887.4000;0.5364;0.9780;
887.7000;0.5356;0.9733;
888.0000;0.5405;0.9780;
888.3000;0.5470;0.9969;
888.6000;0.5372;0.9804;
888.9000;0.5372;0.9922;
889.2000;0.5340;0.9851;
889.5000;0.5324;0.9851;
889.8000;0.5356;0.9898;
890.1000;0.5291;0.9686;
890.4000;0.5283;0.9709;
890.7000;0.5348;0.9827;
891.0000;0.5348;0.9827;
891.3000;0.5389;0.9827;
891.6000;0.5299;0.9686;
891.9000;0.5356;0.9780;
892.2000;0.5364;0.9733;
892.5000;0.5372;0.9780;
892.8000;0.5356;0.9757;
893.1000;0.5356;0.9780;
893.4000;0.5348;0.9709;
893.7000;0.5356;0.9780;
894.0000;0.5364;0.9757;
894.3000;0.5364;0.9780;
894.6000;0.5356;0.9851;
894.9000;0.5348;0.9804;
895.2000;0.5348;0.9780;
895.5000;0.5364;0.9757;
895.8000;0.5340;0.9804;
896.1000;0.5356;0.9851;
896.4000;0.5291;0.9615;
896.7000;0.5356;0.9733;
897.0000;0.5348;0.9686;
897.3000;0.5356;0.9638;
897.6000;0.5340;0.9615;
897.9000;0.5356;0.9686;
898.2000;0.5332;0.9591;
898.5000;0.5356;0.9544;
898.8000;0.5372;0.9473;
899.1000;0.5356;0.9520;
899.4000;0.5356;0.9544;
899.7000;0.5348;0.9662;
900.0000;0.5356;0.9686;
900.3000;0.5364;0.9780;
900.6000;0.5372;0.9804;
900.9000;0.5348;0.9615;
901.2000;0.5291;0.9379;
901.5000;0.5364;0.9426;
901.8000;0.5356;0.9402;
902.1000;0.5364;0.9497;
902.4000;0.5315;0.9473;
902.7000;0.5364;0.9591;
903.0000;0.5364;0.9544;
903.3000;0.5356;0.9568;
903.6000;0.5332;0.9568;
903.9000;0.5348;0.9615;
904.2000;0.5364;0.9757;
904.5000;0.5291;0.9520;
904.8000;0.5364;0.9686;
905.1000;0.5340;0.9686;
905.4000;0.5340;0.9591;
905.7000;0.5356;0.9473;
906.0000;0.5332;0.9402;
906.3000;0.5340;0.9520;
906.6000;0.5348;0.9497;
906.9000;0.5348;0.9520;
907.2000;0.5356;0.9520;
907.5000;0.5267;0.9379;
907.8000;0.5356;0.9544;
908.1000;0.5307;0.9402;
908.4000;0.5340;0.9520;
908.7000;0.5340;0.9520;
909.0000;0.5340;0.9568;
909.3000;0.5364;0.9591;
909.6000;0.5332;0.9497;
909.9000;0.5340;0.9568;
910.2000;0.5356;0.9568;
910.5000;0.5364;0.9591;
910.8000;0.5356;0.9591;
911.1000;0.5340;0.9638;
911.4000;0.5324;0.9591;
911.7000;0.5356;0.9662;
912.0000;0.5348;0.9638;
912.3000;0.5372;0.9733;
912.6000;0.5356;0.9638;
912.9000;0.5356;0.9591;
913.2000;0.5348;0.9591;
913.5000;0.5324;0.9638;
913.8000;0.5348;0.9615;
914.1000;0.5340;0.9709;
914.4000;0.5348;0.9686;
914.7000;0.5356;0.9615;
915.0000;0.5340;0.9544;
915.3000;0.5364;0.9449;
915.6000;0.5364;0.9426;
915.9000;0.5348;0.9331;
916.2000;0.5315;0.9331;
916.5000;0.5332;0.9402;
916.8000;0.5348;0.9379;
917.1000;0.5372;0.9402;
917.4000;0.5364;0.9426;
917.7000;0.5340;0.9449;
918.0000;0.5356;0.9497;
918.3000;0.5356;0.9544;
918.6000;0.5381;0.9638;
918.9000;0.5275;0.9331;
919.2000;0.5356;0.9497;
919.5000;0.5356;0.9497;
919.8000;0.5356;0.9520;
920.1000;0.5348;0.9497;
920.4000;0.5332;0.9473;
920.7000;0.5356;0.9544;
921.0000;0.5356;0.9402;
921.3000;0.5332;0.9402;
921.6000;0.5364;0.9497;
921.9000;0.5340;0.9520;
922.2000;0.5364;0.9544;
922.5000;0.5340;0.9520;
922.8000;0.5340;0.9568;
923.1000;0.5356;0.9638;
923.4000;0.5340;0.9662;
923.7000;0.5348;0.9709;
924.0000;0.5405;0.9804;
924.3000;0.5348;0.9686;
924.6000;0.5348;0.9662;
924.9000;0.5356;0.9591;
925.2000;0.5372;0.9520;
925.5000;0.5364;0.9544;
925.8000;0.5340;0.9473;
926.1000;0.5340;0.9402;
926.4000;0.5299;0.9284;
926.7000;0.5324;0.9402;
927.0000;0.5348;0.9520;
927.3000;0.5332;0.9520;
927.6000;0.5332;0.9497;
927.9000;0.5348;0.9568;
928.2000;0.5315;0.9473;
928.5000;0.5307;0.9473;
928.8000;0.5332;0.9568;
929.1000;0.5315;0.9544;
929.4000;0.5348;0.9638;
929.7000;0.5299;0.9638;
930.0000;0.5348;0.9709;
930.3000;0.5348;0.9615;
930.6000;0.5340;0.9544;
930.9000;0.5348;0.9638;
931.2000;0.5324;0.9638;
931.5000;0.5397;0.9757;
931.8000;0.5348;0.9568;
932.1000;0.5340;0.9449;
932.4000;0.5405;0.9662;
932.7000;0.5348;0.9568;
933.0000;0.5332;0.9449;
933.3000;0.5332;0.9473;
933.6000;0.5348;0.9497;
933.9000;0.5348;0.9497;
934.2000;0.5348;0.9497;
934.5000;0.5348;0.9449;
934.8000;0.5356;0.9426;
935.1000;0.5332;0.9426;
935.4000;0.5315;0.9402;
935.7000;0.5348;0.9544;
936.0000;0.5364;0.9520;
936.3000;0.5356;0.9520;
936.6000;0.5340;0.9520;
936.9000;0.5340;0.9449;
937.2000;0.5332;0.9568;
937.5000;0.5348;0.9568;
937.8000;0.5307;0.9402;
938.1000;0.5332;0.9520;
938.4000;0.5324;0.9426;
938.7000;0.5332;0.9426;
939.0000;0.5315;0.9402;
939.3000;0.5340;0.9544;
939.6000;0.5340;0.9638;
939.9000;0.5348;0.9709;
940.2000;0.5340;0.9638;
940.5000;0.5348;0.9686;
940.8000;0.5340;0.9591;
941.1000;0.5381;0.9520;
941.4000;0.5356;0.9520;
941.7000;0.5348;0.9520;
942.0000;0.5348;0.9497;
942.3000;0.5348;0.9520;
942.6000;0.5283;0.9284;
942.9000;0.5332;0.9449;
943.2000;0.5340;0.9473;
943.5000;0.5356;0.9473;
943.8000;0.5348;0.9426;
944.1000;0.5356;0.9379;
944.4000;0.5332;0.9379;
944.7000;0.5364;0.9497;
945.0000;0.5372;0.9497;
945.3000;0.5356;0.9402;
945.6000;0.5324;0.9402;
945.9000;0.5340;0.9379;
946.2000;0.5348;0.9426;
946.5000;0.5364;0.9402;
946.8000;0.5324;0.9284;
947.1000;0.5332;0.9379;
947.4000;0.5413;0.9686;
947.7000;0.5315;0.9473;
948.0000;0.5389;0.9638;
948.3000;0.5332;0.9497;
948.6000;0.5324;0.9544;
948.9000;0.5332;0.9615;
949.2000;0.5324;0.9638;
949.5000;0.5381;0.9733;
949.8000;0.5332;0.9591;
950.1000;0.5348;0.9591;
950.4000;0.5381;0.9662;
950.7000;0.5332;0.9615;
951.0000;0.5340;0.9568;
951.3000;0.5332;0.9544;
951.6000;0.5340;0.9544;
951.9000;0.5324;0.9591;
952.2000;0.5340;0.9709;
952.5000;0.5340;0.9733;
952.8000;0.5332;0.9757;
953.1000;0.5348;0.9709;
953.4000;0.5356;0.9733;
953.7000;0.5348;0.9662;
954.0000;0.5332;0.9638;
954.3000;0.5356;0.9709;
954.6000;0.5348;0.9568;
954.9000;0.5332;0.9544;
955.2000;0.5454;0.9969;
955.5000;0.5340;0.9638;
955.8000;0.5356;0.9591;
956.1000;0.5340;0.9568;
956.4000;0.5340;0.9591;
956.7000;0.5340;0.9686;
957.0000;0.5348;0.9638;
957.3000;0.5332;0.9568;
957.6000;0.5324;0.9568;
957.9000;0.5348;0.9686;
958.2000;0.5340;0.9662;
958.5000;0.5299;0.9449;
958.8000;0.5324;0.9591;
959.1000;0.5348;0.9544;
959.4000;0.5348;0.9449;
959.7000;0.5348;0.9473;
960.0000;0.5267;0.9331;
960.3000;0.5405;0.9615;
960.6000;0.5348;0.9497;
960.9000;0.5340;0.9497;
961.2000;0.5324;0.9497;
961.5000;0.5348;0.9520;
961.8000;0.5324;0.9497;
962.1000;0.5332;0.9544;
962.4000;0.5324;0.9520;
962.7000;0.5340;0.9544;
963.0000;0.5332;0.9544;
963.3000;0.5340;0.9520;
963.6000;0.5315;0.9473;
963.9000;0.5324;0.9544;
964.2000;0.5332;0.9520;
964.5000;0.5332;0.9544;
964.8000;0.5324;0.9568;
965.1000;0.5332;0.9638;
965.4000;0.5348;0.9709;
965.7000;0.5348;0.9733;
966.0000;0.5324;0.9615;
966.3000;0.5348;0.9686;
966.6000;0.5324;0.9709;
966.9000;0.5348;0.9709;
967.2000;0.5332;0.9733;
967.5000;0.5315;0.9662;
967.8000;0.5332;0.9662;
968.1000;0.5348;0.9757;
968.4000;0.5324;0.9686;
968.7000;0.5332;0.9638;
969.0000;0.5348;0.9662;
969.3000;0.5356;0.9804;
969.6000;0.5332;0.9733;
969.9000;0.5348;0.9733;
970.2000;0.5340;0.9686;
970.5000;0.5340;0.9757;
970.8000;0.5356;0.9709;
971.1000;0.5332;0.9638;
971.4000;0.5332;0.9615;
971.7000;0.5340;0.9733;
972.0000;0.5348;0.9733;
972.3000;0.5332;0.9733;
972.6000;0.5332;0.9733;
972.9000;0.5315;0.9686;
973.2000;0.5324;0.9662;
973.5000;0.5332;0.9757;
973.8000;0.5315;0.9733;
974.1000;0.5324;0.9733;
974.4000;0.5348;0.9804;
974.7000;0.5340;0.9780;
975.0000;0.5324;0.9638;
975.3000;0.5332;0.9638;
975.6000;0.5340;0.9804;
975.9000;0.5340;0.9780;
976.2000;0.5283;0.9638;
976.5000;0.5340;0.9757;
976.8000;0.5324;0.9757;
977.1000;0.5348;0.9827;
977.4000;0.5324;0.9898;
977.7000;0.5315;0.9827;
978.0000;0.5315;0.9780;
978.3000;0.5324;0.9780;
978.6000;0.5332;0.9709;
978.9000;0.5340;0.9686;
979.2000;0.5332;0.9568;
979.5000;0.5372;0.9615;
979.8000;0.5348;0.9591;
980.1000;0.5332;0.9402;
980.4000;0.5307;0.9331;
980.7000;0.5340;0.9449;
981.0000;0.5332;0.9497;
981.3000;0.5348;0.9544;
981.6000;0.5340;0.9520;
981.9000;0.5340;0.9473;
982.2000;0.5340;0.9473;
982.5000;0.5315;0.9426;
982.8000;0.5332;0.9355;
983.1000;0.5340;0.9449;
983.4000;0.5324;0.9520;
983.7000;0.5315;0.9544;
984.0000;0.5324;0.9662;
984.3000;0.5299;0.9686;
984.6000;0.5332;0.9733;
984.9000;0.5332;0.9780;
985.2000;0.5315;0.9709;
985.5000;0.5291;0.9686;
985.8000;0.5332;0.9780;
986.1000;0.5307;0.9638;
986.4000;0.5324;0.9686;
986.7000;0.5307;0.9709;
987.0000;0.5332;0.9757;
987.3000;0.5348;0.9757;
987.6000;0.5315;0.9638;
987.9000;0.5315;0.9615;
988.2000;0.5315;0.9615;
988.5000;0.5324;0.9638;
988.8000;0.5324;0.9568;
989.1000;0.5324;0.9591;
989.4000;0.5372;0.9709;
989.7000;0.5340;0.9638;
990.0000;0.5332;0.9615;
990.3000;0.5340;0.9662;
990.6000;0.5332;0.9686;
990.9000;0.5340;0.9709;
991.2000;0.5324;0.9709;
991.5000;0.5291;0.9520;
991.8000;0.5307;0.9662;
992.1000;0.5315;0.9709;
992.4000;0.5340;0.9804;
992.7000;0.5324;0.9662;
993.0000;0.5315;0.9568;
993.3000;0.5307;0.9568;
993.6000;0.5340;0.9591;
993.9000;0.5332;0.9568;
994.2000;0.5299;0.9568;
994.5000;0.5324;0.9638;
994.8000;0.5340;0.9757;
995.1000;0.5332;0.9851;
995.4000;0.5340;0.9804;
995.7000;0.5324;0.9709;
996.0000;0.5332;0.9662;
996.3000;0.5332;0.9615;
996.6000;0.5324;0.9615;
996.9000;0.5324;0.9638;
997.2000;0.5324;0.9591;
997.5000;0.5324;0.9568;
997.8000;0.5348;0.9568;
998.1000;0.5324;0.9544;
998.4000;0.5324;0.9497;
998.7000;0.5332;0.9544;
999.0000;0.5356;0.9568;
999.3000;0.5340;0.9520;
999.6000;0.5291;0.9379;
999.9000;0.5324;0.9544;
1000.2000;0.5389;0.9709;
1000.5000;0.5324;0.9615;
1000.8000;0.5315;0.9591;
1001.1000;0.5340;0.9544;
1001.4000;0.5324;0.9473;
1001.7000;0.5315;0.9426;
1002.0000;0.5315;0.9355;
1002.3000;0.5299;0.9331;
1002.6000;0.5324;0.9426;
1002.9000;0.5332;0.9449;
1003.2000;0.5364;0.9497;
1003.5000;0.5340;0.9379;
1003.8000;0.5332;0.9284;
1004.1000;0.5324;0.9237;
1004.4000;0.5307;0.9284;
1004.7000;0.5332;0.9331;
1005.0000;0.5315;0.9284;
1005.3000;0.5291;0.9260;
1005.6000;0.5340;0.9426;
1005.9000;0.5307;0.9379;
1006.2000;0.5324;0.9497;
1006.5000;0.5267;0.9497;
1006.8000;0.5315;0.9568;
1007.1000;0.5307;0.9544;
1007.4000;0.5324;0.9544;
1007.7000;0.5340;0.9591;
1008.0000;0.5324;0.9638;
1008.3000;0.5307;0.9638;
1008.6000;0.5340;0.9615;
1008.9000;0.5332;0.9520;
1009.2000;0.5332;0.9591;
1009.5000;0.5356;0.9709;
1009.8000;0.5299;0.9591;
1010.1000;0.5340;0.9686;
1010.4000;0.5324;0.9568;
1010.7000;0.5307;0.9568;
1011.0000;0.5324;0.9568;
1011.3000;0.5315;0.9568;
1011.6000;0.5332;0.9591;
1011.9000;0.5315;0.9638;
1012.2000;0.5324;0.9709;
1012.5000;0.5315;0.9780;
1012.8000;0.5315;0.9851;
1013.1000;0.5364;0.9946;
1013.4000;0.5315;0.9875;
1013.7000;0.5332;0.9804;
1014.0000;0.5299;0.9733;
1014.3000;0.5242;0.9568;
1014.6000;0.5332;0.9757;
1014.9000;0.5332;0.9733;
1015.2000;0.5324;0.9709;
1015.5000;0.5307;0.9686;
1015.8000;0.5332;0.9686;
1016.1000;0.5324;0.9733;
1016.4000;0.5332;0.9686;
1016.7000;0.5315;0.9686;
1017.0000;0.5324;0.9638;
1017.3000;0.5307;0.9615;
1017.6000;0.5324;0.9615;
1017.9000;0.5332;0.9638;
1018.2000;0.5307;0.9497;
1018.5000;0.5332;0.9473;
1018.8000;0.5324;0.9497;
1019.1000;0.5332;0.9544;
1019.4000;0.5315;0.9544;
1019.7000;0.5299;0.9615;
1020.0000;0.5315;0.9662;
1020.3000;0.5315;0.9662;
1020.6000;0.5397;0.9946;
1020.9000;0.5299;0.9757;
1021.2000;0.5315;0.9804;
1021.5000;0.5356;0.9875;
1021.8000;0.5307;0.9780;
1022.1000;0.5291;0.9757;
1022.4000;0.5275;0.9757;
1022.7000;0.5307;0.9851;
1023.0000;0.5356;0.9851;
1023.3000;0.5364;0.9827;
1023.6000;0.5315;0.9780;
1023.9000;0.5315;0.9757;
1024.2000;0.5340;0.9733;
1024.5000;0.5307;0.9591;
1024.8000;0.5324;0.9591;
1025.1000;0.5315;0.9544;
1025.4000;0.5356;0.9615;
1025.7000;0.5307;0.9591;
1026.0000;0.5299;0.9568;
1026.3000;0.5307;0.9591;
1026.6000;0.5324;0.9568;
1026.9000;0.5307;0.9591;
1027.2000;0.5315;0.9591;
1027.5000;0.5324;0.9473;
1027.8000;0.5267;0.9379;
1028.1000;0.5340;0.9544;
1028.4000;0.5332;0.9544;
1028.7000;0.5307;0.9473;
1029.0000;0.5340;0.9497;
1029.3000;0.5299;0.9473;
1029.6000;0.5315;0.9591;
1029.9000;0.5226;0.9402;
1030.2000;0.5324;0.9709;
1030.5000;0.5324;0.9733;
1030.8000;0.5315;0.9615;
1031.1000;0.5307;0.9520;
1031.4000;0.5299;0.9520;
1031.7000;0.5332;0.9544;
1032.0000;0.5340;0.9544;
1032.3000;0.5315;0.9473;
1032.6000;0.5324;0.9426;
1032.9000;0.5315;0.9402;
1033.2000;0.5348;0.9497;
1033.5000;0.5315;0.9568;
1033.8000;0.5324;0.9662;
1034.1000;0.5340;0.9709;
1034.4000;0.5340;0.9780;
1034.7000;0.5315;0.9686;
1035.0000;0.5315;0.9709;
1035.3000;0.5397;0.9827;
1035.6000;0.5324;0.9686;
1035.9000;0.5315;0.9662;
1036.2000;0.5324;0.9733;
1036.5000;0.5299;0.9686;
1036.8000;0.5315;0.9733;
1037.1000;0.5315;0.9733;
1037.4000;0.5356;0.9851;
1037.7000;0.5299;0.9757;
1038.0000;0.5315;0.9638;
1038.3000;0.5307;0.9615;
1038.6000;0.5299;0.9568;
1038.9000;0.5340;0.9591;
1039.2000;0.5275;0.9473;
1039.5000;0.5332;0.9591;
1039.8000;0.5307;0.9544;
1040.1000;0.5324;0.9615;
1040.4000;0.5315;0.9615;
1040.7000;0.5340;0.9709;
1041.0000;0.5332;0.9686;
1041.3000;0.5340;0.9686;
1041.6000;0.5324;0.9638;
1041.9000;0.5381;0.9757;
1042.2000;0.5315;0.9520;
1042.5000;0.5324;0.9473;
1042.8000;0.5324;0.9544;
1043.1000;0.5315;0.9520;
1043.4000;0.5307;0.9497;
1043.7000;0.5340;0.9520;
1044.0000;0.5307;0.9426;
1044.3000;0.5356;0.9520;
1044.6000;0.5315;0.9473;
1044.9000;0.5315;0.9473;
1045.2000;0.5307;0.9402;
1045.5000;0.5283;0.9260;
1045.8000;0.5332;0.9426;
1046.1000;0.5340;0.9449;
1046.4000;0.5307;0.9355;
1046.7000;0.5389;0.9497;
1047.0000;0.5372;0.9520;
1047.3000;0.5283;0.9331;
1047.6000;0.5324;0.9449;
1047.9000;0.5307;0.9426;
1048.2000;0.5307;0.9379;
1048.5000;0.5315;0.9379;
1048.8000;0.5324;0.9426;
1049.1000;0.5324;0.9426;
1049.4000;0.5315;0.9402;
1049.7000;0.5324;0.9497;
1050.0000;0.5340;0.9591;
1050.3000;0.5324;0.9638;
1050.6000;0.5307;0.9638;
1050.9000;0.5250;0.9473;
1051.2000;0.5324;0.9709;
1051.5000;0.5307;0.9662;
1051.8000;0.5307;0.9638;
1052.1000;0.5307;0.9638;
1052.4000;0.5324;0.9615;
1052.7000;0.5332;0.9615;
1053.0000;0.5307;0.9568;
1053.3000;0.5364;0.9733;
1053.6000;0.5324;0.9638;
1053.9000;0.5348;0.9709;
1054.2000;0.5315;0.9686;
1054.5000;0.5348;0.9686;
1054.8000;0.5307;0.9591;
1055.1000;0.5324;0.9568;
1055.4000;0.5332;0.9568;
1055.7000;0.5340;0.9568;
1056.0000;0.5315;0.9497;
1056.3000;0.5324;0.9497;
1056.6000;0.5324;0.9591;
1056.9000;0.5299;0.9544;
1057.2000;0.5315;0.9615;
1057.5000;0.5307;0.9686;
1057.8000;0.5307;0.9709;
1058.1000;0.5340;0.9780;
1058.4000;0.5307;0.9733;
1058.7000;0.5315;0.9733;
1059.0000;0.5324;0.9757;
1059.3000;0.5332;0.9733;
1059.6000;0.5324;0.9804;
1059.9000;0.5348;0.9827;
1060.2000;0.5324;0.9662;
1060.5000;0.5324;0.9662;
1060.8000;0.5324;0.9568;
1061.1000;0.5291;0.9520;
1061.4000;0.5324;0.9568;
1061.7000;0.5307;0.9544;
1062.0000;0.5299;0.9568;
1062.3000;0.5324;0.9568;
1062.6000;0.5372;0.9615;
1062.9000;0.5324;0.9615;
1063.2000;0.5315;0.9591;
1063.5000;0.5315;0.9638;
1063.8000;0.5324;0.9709;
1064.1000;0.5364;0.9898;
1064.4000;0.5332;0.9780;
1064.7000;0.5315;0.9709;
1065.0000;0.5250;0.9520;
1065.3000;0.5315;0.9662;
1065.6000;0.5307;0.9591;
1065.9000;0.5250;0.9473;
1066.2000;0.5299;0.9638;
1066.5000;0.5315;0.9662;
1066.8000;0.5299;0.9615;
1067.1000;0.5315;0.9615;
1067.4000;0.5283;0.9568;
1067.7000;0.5340;0.9615;
1068.0000;0.5315;0.9497;
1068.3000;0.5324;0.9544;
1068.6000;0.5299;0.9544;
1068.9000;0.5324;0.9544;
1069.2000;0.5332;0.9449;
1069.5000;0.5299;0.9379;
1069.8000;0.5307;0.9473;
1070.1000;0.5315;0.9615;
1070.4000;0.5283;0.9568;
1070.7000;0.5307;0.9591;
1071.0000;0.5307;0.9662;
1071.3000;0.5283;0.9520;
1071.6000;0.5283;0.9497;
1071.9000;0.5332;0.9638;
1072.2000;0.5324;0.9568;
1072.5000;0.5324;0.9638;
1072.8000;0.5332;0.9709;
1073.1000;0.5315;0.9733;
1073.4000;0.5332;0.9827;
1073.7000;0.5307;0.9733;
1074.0000;0.5299;0.9733;
1074.3000;0.5315;0.9709;
1074.6000;0.5291;0.9615;
1074.9000;0.5291;0.9662;
1075.2000;0.5307;0.9733;
1075.5000;0.5307;0.9757;
1075.8000;0.5299;0.9757;
1076.1000;0.5283;0.9638;
1076.4000;0.5275;0.9544;
1076.7000;0.5307;0.9733;
1077.0000;0.5332;0.9757;
1077.3000;0.5218;0.9544;
1077.6000;0.5324;0.9780;
1077.9000;0.5324;0.9757;
1078.2000;0.5324;0.9780;
1078.5000;0.5397;0.9946;
1078.8000;0.5299;0.9709;
1079.1000;0.5324;0.9780;
1079.4000;0.5307;0.9733;
1079.7000;0.5307;0.9709;
1080.0000;0.5291;0.9757;
1080.3000;0.5299;0.9804;
1080.6000;0.5307;0.9804;
1080.9000;0.5299;0.9898;
1081.2000;0.5307;0.9922;
1081.5000;0.5250;0.9804;
1081.8000;0.5307;0.9946;
1082.1000;0.5291;0.9898;
1082.4000;0.5307;1.0016;
1082.7000;0.5307;0.9993;
1083.0000;0.5315;0.9875;
1083.3000;0.5324;0.9733;
1083.6000;0.5307;0.9686;
1083.9000;0.5324;0.9804;
1084.2000;0.5332;0.9875;
1084.5000;0.5332;0.9804;
1084.8000;0.5307;0.9686;
1085.1000;0.5364;0.9875;
1085.4000;0.5315;0.9709;
1085.7000;0.5307;0.9638;
1086.0000;0.5315;0.9686;
1086.3000;0.5340;0.9780;
1086.6000;0.5299;0.9591;
1086.9000;0.5291;0.9520;
1087.2000;0.5307;0.9568;
1087.5000;0.5307;0.9591;
1087.8000;0.5291;0.9591;
1088.1000;0.5307;0.9638;
1088.4000;0.5315;0.9709;
1088.7000;0.5299;0.9780;
1089.0000;0.5307;0.9851;
1089.3000;0.5307;0.9757;
1089.6000;0.5299;0.9733;
1089.9000;0.5307;0.9780;
1090.2000;0.5324;0.9780;
1090.5000;0.5315;0.9757;
1090.8000;0.5299;0.9662;
1091.1000;0.5299;0.9615;
1091.4000;0.5315;0.9473;
1091.7000;0.5332;0.9544;
1092.0000;0.5299;0.9497;
1092.3000;0.5307;0.9568;
1092.6000;0.5299;0.9591;
1092.9000;0.5324;0.9638;
1093.2000;0.5267;0.9520;
1093.5000;0.5315;0.9638;
1093.8000;0.5291;0.9638;
1094.1000;0.5299;0.9662;
1094.4000;0.5307;0.9615;
1094.7000;0.5307;0.9638;
1095.0000;0.5315;0.9709;
1095.3000;0.5324;0.9733;
1095.6000;0.5307;0.9686;
1095.9000;0.5299;0.9662;
1096.2000;0.5299;0.9686;
1096.5000;0.5307;0.9591;
1096.8000;0.5315;0.9497;
1097.1000;0.5299;0.9544;
1097.4000;0.5324;0.9662;
1097.7000;0.5307;0.9568;
1098.0000;0.5299;0.9568;
1098.3000;0.5291;0.9568;
1098.6000;0.5315;0.9662;
1098.9000;0.5324;0.9757;
1099.2000;0.5299;0.9757;
1099.5000;0.5324;0.9804;
1099.8000;0.5332;0.9851;
1100.1000;0.5299;0.9780;
1100.4000;0.5299;0.9851;
1100.7000;0.5299;0.9827;
1101.0000;0.5324;0.9804;
1101.3000;0.5267;0.9662;
1101.6000;0.5299;0.9686;
1101.9000;0.5299;0.9804;
1102.2000;0.5315;0.9898;
1102.5000;0.5291;0.9851;
1102.8000;0.5307;0.9733;
1103.1000;0.5315;0.9709;
1103.4000;0.5299;0.9662;
1103.7000;0.5315;0.9709;
1104.0000;0.5324;0.9780;
1104.3000;0.5307;0.9733;
1104.6000;0.5275;0.9662;
1104.9000;0.5315;0.9709;
1105.2000;0.5315;0.9757;
1105.5000;0.5315;0.9733;
1105.8000;0.5299;0.9780;
1106.1000;0.5307;0.9804;
1106.4000;0.5348;0.9922;
1106.7000;0.5299;0.9946;
1107.0000;0.5315;0.9946;
1107.3000;0.5307;0.9946;
1107.6000;0.5332;0.9946;
1107.9000;0.5324;0.9969;
1108.2000;0.5307;0.9993;
1108.5000;0.5299;0.9875;
1108.8000;0.5315;0.9851;
1109.1000;0.5324;0.9875;
1109.4000;0.5324;0.9851;
1109.7000;0.5299;0.9827;
1110.0000;0.5340;0.9946;
1110.3000;0.5307;0.9922;
1110.6000;0.5307;0.9827;
1110.9000;0.5283;0.9780;
1111.2000;0.5332;0.9898;
1111.5000;0.5299;0.9875;
1111.8000;0.5307;0.9875;
1112.1000;0.5356;1.0135;
1112.4000;0.5364;1.0158;
1112.7000;0.5307;0.9969;
1113.0000;0.5307;1.0064;
1113.3000;0.5324;1.0087;
1113.6000;0.5356;1.0182;
1113.9000;0.5315;1.0087;
1114.2000;0.5275;1.0016;
1114.5000;0.5324;1.0135;
1114.8000;0.5315;1.0111;
1115.1000;0.5307;1.0040;
1115.4000;0.5283;0.9993;
1115.7000;0.5348;1.0182;
1116.0000;0.5307;1.0064;
1116.3000;0.5299;1.0064;
1116.6000;0.5405;1.0323;
1116.9000;0.5291;1.0064;
1117.2000;0.5307;1.0016;
1117.5000;0.5324;1.0111;
1117.8000;0.5267;0.9946;
1118.1000;0.5291;1.0016;
1118.4000;0.5307;1.0016;
1118.7000;0.5307;0.9993;
1119.0000;0.5234;0.9804;
1119.3000;0.5307;0.9946;
1119.6000;0.5299;0.9946;
1119.9000;0.5307;0.9898;
1120.2000;0.5315;0.9827;
1120.5000;0.5283;0.9733;
1120.8000;0.5267;0.9662;
1121.1000;0.5299;0.9757;
1121.4000;0.5340;0.9875;
1121.7000;0.5340;0.9993;
1122.0000;0.5324;0.9922;
1122.3000;0.5348;0.9993;
1122.6000;0.5315;0.9898;
1122.9000;0.5299;0.9898;
1123.2000;0.5299;0.9780;
1123.5000;0.5307;0.9804;
1123.8000;0.5315;0.9780;
1124.1000;0.5324;0.9851;
1124.4000;0.5315;0.9780;
1124.7000;0.5307;0.9733;
1125.0000;0.5315;0.9780;
1125.3000;0.5315;0.9780;
1125.6000;0.5299;0.9757;
1125.9000;0.5291;0.9757;
1126.2000;0.5315;0.9827;
1126.5000;0.5315;0.9875;
1126.8000;0.5299;0.9946;
1127.1000;0.5324;0.9969;
1127.4000;0.5299;0.9969;
1127.7000;0.5315;0.9922;
1128.0000;0.5315;0.9827;
1128.3000;0.5364;1.0016;
1128.6000;0.5307;0.9946;
1128.9000;0.5356;1.0016;
1129.2000;0.5413;1.0135;
1129.5000;0.5315;0.9851;
1129.8000;0.5299;0.9827;
1130.1000;0.5307;0.9851;
1130.4000;0.5315;0.9922;
1130.7000;0.5299;0.9898;
1131.0000;0.5299;0.9827;
1131.3000;0.5315;1.0016;
1131.6000;0.5299;0.9946;
1131.9000;0.5340;0.9993;
1132.2000;0.5389;1.0064;
1132.5000;0.5299;0.9827;
1132.8000;0.5283;0.9922;
1133.1000;0.5324;0.9898;
1133.4000;0.5275;0.9780;
1133.7000;0.5275;0.9709;
1134.0000;0.5397;0.9969;
1134.3000;0.5307;0.9757;
1134.6000;0.5307;0.9827;
1134.9000;0.5372;1.0064;
1135.2000;0.5324;0.9946;
1135.5000;0.5332;0.9993;
1135.8000;0.5364;0.9993;
1136.1000;0.5315;0.9898;
1136.4000;0.5283;0.9757;
1136.7000;0.5218;0.9591;
1137.0000;0.5299;0.9804;
1137.3000;0.5291;0.9757;
1137.6000;0.5267;0.9733;
1137.9000;0.5283;0.9851;
1138.2000;0.5258;0.9827;
1138.5000;0.5299;0.9898;
1138.8000;0.5258;0.9709;
1139.1000;0.5258;0.9757;
1139.4000;0.5283;0.9804;
1139.7000;0.5299;0.9898;
1140.0000;0.5234;0.9686;
1140.3000;0.5332;0.9898;
1140.6000;0.5299;0.9851;
1140.9000;0.5307;0.9875;
1141.2000;0.5307;0.9804;
1141.5000;0.5324;0.9827;
1141.8000;0.5291;0.9733;
1142.1000;0.5324;0.9827;
1142.4000;0.5324;0.9804;
1142.7000;0.5299;0.9757;
1143.0000;0.5324;0.9780;
1143.3000;0.5315;0.9733;
1143.6000;0.5218;0.9520;
1143.9000;0.5291;0.9638;
1144.2000;0.5299;0.9662;
1144.5000;0.5291;0.9709;
1144.8000;0.5291;0.9780;
1145.1000;0.5291;0.9780;
1145.4000;0.5283;0.9804;
1145.7000;0.5324;0.9922;
1146.0000;0.5299;0.9875;
1146.3000;0.5283;0.9804;
1146.6000;0.5307;0.9780;
1146.9000;0.5291;0.9757;
1147.2000;0.5307;0.9827;
1147.5000;0.5275;0.9804;
1147.8000;0.5299;0.9780;
1148.1000;0.5315;0.9851;
1148.4000;0.5299;0.9827;
1148.7000;0.5283;0.9804;
1149.0000;0.5299;0.9875;
1149.3000;0.5315;0.9851;
1149.6000;0.5291;0.9780;
1149.9000;0.5275;0.9686;
1150.2000;0.5299;0.9686;
1150.5000;0.5275;0.9615;
1150.8000;0.5307;0.9733;
1151.1000;0.5291;0.9662;
1151.4000;0.5299;0.9638;
1151.7000;0.5315;0.9686;
1152.0000;0.5283;0.9662;
1152.3000;0.5405;0.9946;
1152.6000;0.5324;0.9780;
1152.9000;0.5299;0.9686;
1153.2000;0.5299;0.9686;
1153.5000;0.5348;0.9709;
1153.8000;0.5291;0.9568;
1154.1000;0.5267;0.9591;
1154.4000;0.5315;0.9686;
1154.7000;0.5315;0.9662;
1155.0000;0.5299;0.9686;
1155.3000;0.5307;0.9686;
1155.6000;0.5299;0.9733;
1155.9000;0.5307;0.9662;
1156.2000;0.5283;0.9662;
1156.5000;0.5307;0.9709;
1156.8000;0.5299;0.9804;
1157.1000;0.5324;0.9875;
1157.4000;0.5299;0.9757;
1157.7000;0.5315;0.9804;
1158.0000;0.5299;0.9827;
1158.3000;0.5307;0.9851;
1158.6000;0.5283;0.9804;
1158.9000;0.5283;0.9922;
1159.2000;0.5299;0.9875;
1159.5000;0.5332;0.9922;
1159.8000;0.5324;0.9993;
1160.1000;0.5258;0.9875;
1160.4000;0.5307;0.9875;
1160.7000;0.5283;0.9898;
1161.0000;0.5324;0.9851;
1161.3000;0.5299;0.9827;
1161.6000;0.5307;0.9804;
1161.9000;0.5307;0.9709;
1162.2000;0.5364;0.9733;
1162.5000;0.5258;0.9449;
1162.8000;0.5275;0.9615;
1163.1000;0.5299;0.9686;
1163.4000;0.5283;0.9615;
1163.7000;0.5283;0.9662;
1164.0000;0.5267;0.9591;
1164.3000;0.5299;0.9662;
1164.6000;0.5291;0.9733;
1164.9000;0.5291;0.9733;
1165.2000;0.5299;0.9709;
1165.5000;0.5299;0.9780;
1165.8000;0.5315;0.9922;
1166.1000;0.5315;0.9922;
1166.4000;0.5324;0.9922;
1166.7000;0.5307;0.9827;
1167.0000;0.5315;0.9922;
1167.3000;0.5315;0.9898;
1167.6000;0.5307;0.9827;
1167.9000;0.5315;0.9780;
1168.2000;0.5299;0.9686;
1168.5000;0.5315;0.9733;
1168.8000;0.5299;0.9757;
1169.1000;0.5283;0.9733;
1169.4000;0.5291;0.9709;
1169.7000;0.5291;0.9757;
1170.0000;0.5291;0.9733;
1170.3000;0.5210;0.9544;
1170.6000;0.5307;0.9851;
1170.9000;0.5307;0.9922;
1171.2000;0.5332;0.9851;
1171.5000;0.5381;0.9993;
1171.8000;0.5299;0.9780;
1172.1000;0.5291;0.9827;
1172.4000;0.5291;0.9851;
1172.7000;0.5299;0.9875;
1173.0000;0.5267;0.9827;
1173.3000;0.5307;0.9898;
1173.6000;0.5299;0.9804;
1173.9000;0.5291;0.9662;
1174.2000;0.5315;0.9662;
1174.5000;0.5291;0.9591;
1174.8000;0.5315;0.9615;
1175.1000;0.5307;0.9638;
1175.4000;0.5324;0.9638;
1175.7000;0.5291;0.9662;
1176.0000;0.5324;0.9780;
1176.3000;0.5324;0.9780;
1176.6000;0.5307;0.9827;
1176.9000;0.5307;0.9757;
1177.2000;0.5299;0.9757;
1177.5000;0.5267;0.9827;
1177.8000;0.5307;0.9898;
1178.1000;0.5283;0.9827;
1178.4000;0.5291;0.9827;
1178.7000;0.5299;0.9827;
1179.0000;0.5283;0.9827;
1179.3000;0.5283;0.9827;
1179.6000;0.5307;0.9780;
1179.9000;0.5299;0.9827;
1180.2000;0.5340;0.9851;
1180.5000;0.5299;0.9780;
1180.8000;0.5242;0.9733;
1181.1000;0.5283;0.9898;
1181.4000;0.5299;0.9898;
1181.7000;0.5299;0.9804;
1182.0000;0.5267;0.9733;
1182.3000;0.5283;0.9733;
1182.6000;0.5299;0.9804;
1182.9000;0.5291;0.9851;
1183.2000;0.5307;0.9851;
1183.5000;0.5307;0.9875;
1183.8000;0.5291;0.9827;
1184.1000;0.5291;0.9780;
1184.4000;0.5315;0.9875;
1184.7000;0.5299;0.9922;
1185.0000;0.5332;0.9969;
1185.3000;0.5315;0.9898;
1185.6000;0.5299;0.9898;
1185.9000;0.5291;0.9922;
1186.2000;0.5307;0.9969;
1186.5000;0.5291;0.9946;
1186.8000;0.5291;0.9875;
1187.1000;0.5283;0.9851;
1187.4000;0.5299;0.9875;
1187.7000;0.5291;0.9827;
1188.0000;0.5299;0.9804;
1188.3000;0.5291;0.9804;
1188.6000;0.5275;0.9686;
1188.9000;0.5299;0.9733;
1189.2000;0.5299;0.9780;
1189.5000;0.5340;0.9875;
1189.8000;0.5291;0.9757;
1190.1000;0.5291;0.9827;
1190.4000;0.5299;0.9898;
1190.7000;0.5291;0.9851;
1191.0000;0.5307;0.9875;
1191.3000;0.5299;0.9804;
1191.6000;0.5307;0.9851;
1191.9000;0.5291;0.9780;
1192.2000;0.5299;0.9875;
1192.5000;0.5193;0.9638;
1192.8000;0.5315;0.9898;
1193.1000;0.5299;0.9875;
1193.4000;0.5299;0.9875;
1193.7000;0.5218;0.9638;
1194.0000;0.5299;0.9875;
1194.3000;0.5299;0.9898;
1194.6000;0.5210;0.9615;
1194.9000;0.5275;0.9686;
1195.2000;0.5258;0.9615;
1195.5000;0.5258;0.9638;
1195.8000;0.5283;0.9709;
1196.1000;0.5275;0.9733;
1196.4000;0.5315;0.9804;
1196.7000;0.5307;0.9875;
1197.0000;0.5299;0.9851;
1197.3000;0.5283;0.9709;
1197.6000;0.5291;0.9757;
1197.9000;0.5299;0.9875;
1198.2000;0.5299;0.9946;
1198.5000;0.5307;0.9922;
1198.8000;0.5307;0.9875;
1199.1000;0.5315;0.9780;
1199.4000;0.5299;0.9709;
1199.7000;0.5291;0.9709;
1200.0000;0.5291;0.9733;
1200.3000;0.5299;0.9804;
1200.6000;0.5315;0.9898;
1200.9000;0.5291;0.9827;
1201.2000;0.5307;0.9898;
1201.5000;0.5250;0.9686;
1201.8000;0.5299;0.9804;
1202.1000;0.5364;0.9922;
1202.4000;0.5299;0.9804;
1202.7000;0.5299;0.9827;
1203.0000;0.5307;0.9875;
1203.3000;0.5299;0.9898;
1203.6000;0.5307;0.9898;
1203.9000;0.5299;0.9969;
1204.2000;0.5299;0.9969;
1204.5000;0.5307;0.9922;
1204.8000;0.5307;0.9875;
1205.1000;0.5283;0.9898;
1205.4000;0.5299;0.9875;
1205.7000;0.5315;0.9922;
1206.0000;0.5267;0.9875;
1206.3000;0.5299;0.9898;
1206.6000;0.5291;0.9922;
1206.9000;0.5291;0.9969;
1207.2000;0.5299;0.9969;
1207.5000;0.5291;0.9969;
1207.8000;0.5307;0.9969;
1208.1000;0.5307;0.9922;
1208.4000;0.5307;0.9922;
1208.7000;0.5291;0.9875;
1209.0000;0.5307;0.9898;
1209.3000;0.5210;0.9615;
1209.6000;0.5291;0.9709;
1209.9000;0.5283;0.9591;
1210.2000;0.5348;0.9733;
1210.5000;0.5307;0.9591;
1210.8000;0.5291;0.9615;
1211.1000;0.5258;0.9544;
1211.4000;0.5332;0.9851;
1211.7000;0.5291;0.9733;
1212.0000;0.5291;0.9757;
1212.3000;0.5291;0.9757;
1212.6000;0.5291;0.9757;
1212.9000;0.5291;0.9709;
1213.2000;0.5283;0.9733;
1213.5000;0.5307;0.9733;
1213.8000;0.5283;0.9686;
1214.1000;0.5307;0.9686;
1214.4000;0.5283;0.9733;
1214.7000;0.5242;0.9591;
1215.0000;0.5291;0.9733;
1215.3000;0.5315;0.9875;
1215.6000;0.5291;0.9898;
1215.9000;0.5299;0.9946;
1216.2000;0.5283;0.9946;
1216.5000;0.5299;0.9827;
1216.8000;0.5299;0.9804;
1217.1000;0.5291;0.9922;
1217.4000;0.5324;1.0040;
1217.7000;0.5291;1.0016;
1218.0000;0.5291;0.9969;
1218.3000;0.5299;0.9993;
1218.6000;0.5258;0.9827;
1218.9000;0.5307;1.0064;
1219.2000;0.5283;0.9993;
1219.5000;0.5267;0.9946;
1219.8000;0.5324;0.9993;
1220.1000;0.5291;0.9875;
1220.4000;0.5283;0.9922;
1220.7000;0.5315;1.0016;
1221.0000;0.5299;0.9922;
1221.3000;0.5291;0.9875;
1221.6000;0.5291;0.9946;
1221.9000;0.5299;0.9875;
1222.2000;0.5291;0.9780;
1222.5000;0.5299;0.9827;
1222.8000;0.5307;0.9851;
1223.1000;0.5299;0.9827;
1223.4000;0.5275;0.9827;
1223.7000;0.5307;0.9898;
1224.0000;0.5307;0.9827;
1224.3000;0.5372;0.9922;
1224.6000;0.5324;0.9733;
1224.9000;0.5299;0.9757;
1225.2000;0.5421;1.0087;
1225.5000;0.5315;0.9827;
1225.8000;0.5340;0.9922;
1226.1000;0.5299;0.9875;
1226.4000;0.5291;0.9709;
1226.7000;0.5291;0.9780;
1227.0000;0.5283;0.9804;
1227.3000;0.5307;0.9804;
1227.6000;0.5275;0.9686;
1227.9000;0.5250;0.9615;
1228.2000;0.5291;0.9780;
1228.5000;0.5299;0.9780;
1228.8000;0.5389;0.9969;
1229.1000;0.5299;0.9757;
1229.4000;0.5307;0.9851;
1229.7000;0.5299;0.9875;
1230.0000;0.5242;0.9662;
1230.3000;0.5364;1.0016;
1230.6000;0.5307;0.9804;
1230.9000;0.5291;0.9709;
1231.2000;0.5307;0.9780;
1231.5000;0.5299;0.9757;
1231.8000;0.5283;0.9733;
1232.1000;0.5291;0.9757;
1232.4000;0.5307;0.9780;
1232.7000;0.5299;0.9780;
1233.0000;0.5242;0.9544;
1233.3000;0.5299;0.9804;
1233.6000;0.5291;0.9733;
1233.9000;0.5283;0.9686;
1234.2000;0.5299;0.9804;
1234.5000;0.5299;0.9827;
1234.8000;0.5307;0.9827;
1235.1000;0.5267;0.9780;
1235.4000;0.5307;0.9922;
1235.7000;0.5218;0.9662;
1236.0000;0.5299;0.9827;
1236.3000;0.5275;0.9780;
1236.6000;0.5291;0.9780;
1236.9000;0.5291;0.9709;
1237.2000;0.5299;0.9757;
1237.5000;0.5283;0.9804;
1237.8000;0.5307;0.9875;
1238.1000;0.5299;0.9969;
1238.4000;0.5299;0.9969;
1238.7000;0.5299;0.9946;
1239.0000;0.5307;0.9851;
1239.3000;0.5234;0.9686;
1239.6000;0.5267;0.9733;
1239.9000;0.5299;0.9686;
1240.2000;0.5283;0.9662;
1240.5000;0.5364;0.9875;
1240.8000;0.5340;0.9851;
1241.1000;0.5315;0.9780;
1241.4000;0.5307;0.9733;
1241.7000;0.5275;0.9662;
1242.0000;0.5291;0.9662;
1242.3000;0.5299;0.9662;
1242.6000;0.5291;0.9733;
1242.9000;0.5307;0.9709;
1243.2000;0.5291;0.9686;
1243.5000;0.5307;0.9662;
1243.8000;0.5315;0.9638;
1244.1000;0.5307;0.9615;
1244.4000;0.5283;0.9591;
1244.7000;0.5299;0.9709;
1245.0000;0.5291;0.9686;
1245.3000;0.5299;0.9686;
1245.6000;0.5283;0.9733;
1245.9000;0.5291;0.9662;
1246.2000;0.5324;0.9780;
1246.5000;0.5299;0.9780;
1246.8000;0.5307;0.9827;
1247.1000;0.5283;0.9875;
1247.4000;0.5307;0.9898;
1247.7000;0.5299;0.9780;
1248.0000;0.5348;0.9898;
1248.3000;0.5315;0.9780;
1248.6000;0.5299;0.9686;
1248.9000;0.5299;0.9686;
1249.2000;0.5315;0.9662;
1249.5000;0.5291;0.9544;
1249.8000;0.5283;0.9449;
1250.1000;0.5315;0.9520;
1250.4000;0.5299;0.9473;
1250.7000;0.5299;0.9426;
1251.0000;0.5267;0.9426;
1251.3000;0.5283;0.9591;
1251.6000;0.5283;0.9591;
1251.9000;0.5299;0.9568;
1252.2000;0.5307;0.9686;
1252.5000;0.5291;0.9662;
1252.8000;0.5307;0.9709;
1253.1000;0.5315;0.9686;
1253.4000;0.5324;0.9686;
1253.7000;0.5299;0.9615;
1254.0000;0.5340;0.9709;
1254.3000;0.5299;0.9591;
1254.6000;0.5315;0.9568;
1254.9000;0.5299;0.9568;
1255.2000;0.5307;0.9662;
1255.5000;0.5291;0.9568;
1255.8000;0.5307;0.9520;
1256.1000;0.5250;0.9497;
1256.4000;0.5299;0.9638;
1256.7000;0.5291;0.9686;
1257.0000;0.5307;0.9662;
1257.3000;0.5340;0.9686;
1257.6000;0.5283;0.9591;
1257.9000;0.5291;0.9662;
1258.2000;0.5324;0.9662;
1258.5000;0.5299;0.9638;
1258.8000;0.5299;0.9591;
1259.1000;0.5315;0.9686;
1259.4000;0.5299;0.9733;
1259.7000;0.5299;0.9780;
1260.0000;0.5299;0.9757;
1260.3000;0.5299;0.9757;
1260.6000;0.5307;0.9827;
1260.9000;0.5340;0.9851;
1261.2000;0.5283;0.9662;
1261.5000;0.5275;0.9662;
1261.8000;0.5307;0.9686;
1262.1000;0.5315;0.9686;
1262.4000;0.5258;0.9638;
1262.7000;0.5299;0.9757;
1263.0000;0.5291;0.9757;
1263.3000;0.5299;0.9757;
1263.6000;0.5283;0.9780;
1263.9000;0.5315;0.9827;
1264.2000;0.5291;0.9757;
1264.5000;0.5291;0.9757;
1264.8000;0.5307;0.9804;
1265.1000;0.5291;0.9804;
1265.4000;0.5275;0.9709;
1265.7000;0.5315;0.9898;
1266.0000;0.5275;0.9851;
1266.3000;0.5267;0.9733;
1266.6000;0.5291;0.9757;
1266.9000;0.5267;0.9709;
1267.2000;0.5283;0.9757;
1267.5000;0.5226;0.9591;
1267.8000;0.5291;0.9757;
1268.1000;0.5291;0.9757;
1268.4000;0.5332;0.9851;
1268.7000;0.5267;0.9662;
1269.0000;0.5299;0.9686;
1269.3000;0.5324;0.9757;
1269.6000;0.5356;0.9875;
1269.9000;0.5275;0.9686;
1270.2000;0.5315;0.9733;
1270.5000;0.5299;0.9662;
1270.8000;0.5299;0.9709;
1271.1000;0.5307;0.9733;
1271.4000;0.5267;0.9544;
1271.7000;0.5291;0.9615;
1272.0000;0.5299;0.9686;
1272.3000;0.5299;0.9709;
1272.6000;0.5267;0.9615;
1272.9000;0.5291;0.9638;
1273.2000;0.5299;0.9709;
1273.5000;0.5291;0.9709;
1273.8000;0.5299;0.9662;
1274.1000;0.5356;0.9827;
1274.4000;0.5291;0.9686;
1274.7000;0.5299;0.9804;
1275.0000;0.5307;0.9851;
1275.3000;0.5299;0.9804;
1275.6000;0.5283;0.9662;
1275.9000;0.5291;0.9662;
1276.2000;0.5299;0.9851;
1276.5000;0.5299;0.9827;
1276.8000;0.5291;0.9804;
1277.1000;0.5299;0.9709;
1277.4000;0.5291;0.9662;
1277.7000;0.5299;0.9591;
1278.0000;0.5291;0.9662;
1278.3000;0.5299;0.9709;
1278.6000;0.5283;0.9615;
1278.9000;0.5299;0.9709;
1279.2000;0.5275;0.9662;
1279.5000;0.5307;0.9780;
1279.8000;0.5299;0.9780;
1280.1000;0.5283;0.9804;
1280.4000;0.5299;0.9804;
1280.7000;0.5299;0.9733;
1281.0000;0.5315;0.9757;
1281.3000;0.5291;0.9733;
1281.6000;0.5283;0.9662;
1281.9000;0.5291;0.9686;
1282.2000;0.5299;0.9568;
1282.5000;0.5283;0.9591;
1282.8000;0.5283;0.9662;
1283.1000;0.5283;0.9662;
1283.4000;0.5291;0.9662;
1283.7000;0.5291;0.9709;
1284.0000;0.5291;0.9709;
1284.3000;0.5291;0.9686;
1284.6000;0.5299;0.9757;
1284.9000;0.5307;0.9733;
1285.2000;0.5299;0.9686;
1285.5000;0.5234;0.9544;
1285.8000;0.5299;0.9686;
1286.1000;0.5291;0.9733;
1286.4000;0.5267;0.9638;
1286.7000;0.5291;0.9757;
1287.0000;0.5275;0.9757;
1287.3000;0.5324;0.9827;
1287.6000;0.5275;0.9780;
1287.9000;0.5275;0.9827;
1288.2000;0.5299;0.9875;
1288.5000;0.5283;0.9898;
1288.8000;0.5185;0.9615;
1289.1000;0.5283;0.9757;
1289.4000;0.5275;0.9733;
1289.7000;0.5291;0.9709;
1290.0000;0.5283;0.9662;
1290.3000;0.5283;0.9780;
1290.6000;0.5267;0.9757;
1290.9000;0.5275;0.9827;
1291.2000;0.5307;0.9898;
1291.5000;0.5291;0.9780;
1291.8000;0.5307;0.9804;
1292.1000;0.5267;0.9827;
1292.4000;0.5291;0.9875;
1292.7000;0.5307;0.9827;
1293.0000;0.5307;0.9851;
1293.3000;0.5218;0.9591;
1293.6000;0.5299;0.9804;
1293.9000;0.5291;0.9827;
1294.2000;0.5283;0.9851;
1294.5000;0.5275;0.9851;
1294.8000;0.5275;0.9804;
1295.1000;0.5291;0.9827;
1295.4000;0.5299;0.9804;
1295.7000;0.5291;0.9757;
1296.0000;0.5258;0.9686;
1296.3000;0.5299;0.9780;
1296.6000;0.5307;0.9780;
1296.9000;0.5283;0.9709;
1297.2000;0.5267;0.9709;
1297.5000;0.5283;0.9709;
1297.8000;0.5307;0.9733;
1298.1000;0.5283;0.9709;
1298.4000;0.5283;0.9757;
1298.7000;0.5283;0.9757;
1299.0000;0.5291;0.9827;
1299.3000;0.5299;0.9757;
1299.6000;0.5356;0.9804;
1299.9000;0.5291;0.9662;
1300.2000;0.5299;0.9757;
1300.5000;0.5291;0.9709;
1300.8000;0.5275;0.9615;
1301.1000;0.5299;0.9662;
1301.4000;0.5283;0.9662;
1301.7000;0.5299;0.9591;
1302.0000;0.5291;0.9615;
1302.3000;0.5250;0.9591;
1302.6000;0.5258;0.9591;
1302.9000;0.5299;0.9638;
1303.2000;0.5299;0.9591;
1303.5000;0.5267;0.9544;
1303.8000;0.5283;0.9615;
1304.1000;0.5299;0.9686;
1304.4000;0.5283;0.9638;
1304.7000;0.5291;0.9591;
1305.0000;0.5299;0.9662;
1305.3000;0.5299;0.9686;
1305.6000;0.5283;0.9686;
1305.9000;0.5307;0.9804;
1306.2000;0.5291;0.9757;
1306.5000;0.5299;0.9757;
1306.8000;0.5315;0.9827;
1307.1000;0.5267;0.9757;
1307.4000;0.5307;0.9804;
1307.7000;0.5291;0.9709;
1308.0000;0.5267;0.9544;
1308.3000;0.5315;0.9591;
1308.6000;0.5299;0.9568;
1308.9000;0.5356;0.9686;
1309.2000;0.5291;0.9520;
1309.5000;0.5291;0.9520;
1309.8000;0.5372;0.9757;
1310.1000;0.5283;0.9544;
1310.4000;0.5242;0.9449;
1310.7000;0.5283;0.9449;
1311.0000;0.5291;0.9591;
1311.3000;0.5291;0.9638;
1311.6000;0.5299;0.9615;
1311.9000;0.5258;0.9568;
1312.2000;0.5283;0.9638;
1312.5000;0.5283;0.9662;
1312.8000;0.5299;0.9757;
1313.1000;0.5315;0.9757;
1313.4000;0.5283;0.9733;
1313.7000;0.5275;0.9662;
1314.0000;0.5283;0.9757;
1314.3000;0.5291;0.9827;
1314.6000;0.5283;0.9733;
1314.9000;0.5299;0.9757;
1315.2000;0.5283;0.9662;
1315.5000;0.5307;0.9709;
1315.8000;0.5267;0.9615;
1316.1000;0.5299;0.9638;
1316.4000;0.5283;0.9568;
1316.7000;0.5283;0.9615;
1317.0000;0.5291;0.9591;
1317.3000;0.5210;0.9379;
1317.6000;0.5275;0.9544;
1317.9000;0.5275;0.9497;
1318.2000;0.5291;0.9591;
1318.5000;0.5291;0.9568;
1318.8000;0.5291;0.9686;
1319.1000;0.5299;0.9662;
1319.4000;0.5258;0.9520;
1319.7000;0.5283;0.9520;
1320.0000;0.5299;0.9520;
1320.3000;0.5275;0.9473;
1320.6000;0.5299;0.9591;
1320.9000;0.5299;0.9591;
1321.2000;0.5299;0.9591;
1321.5000;0.5275;0.9473;
1321.8000;0.5283;0.9473;
1322.1000;0.5291;0.9615;
1322.4000;0.5283;0.9591;
1322.7000;0.5283;0.9615;
1323.0000;0.5283;0.9591;
1323.3000;0.5299;0.9757;
1323.6000;0.5267;0.9804;
1323.9000;0.5275;0.9827;
1324.2000;0.5283;0.9804;
1324.5000;0.5299;0.9827;
1324.8000;0.5275;0.9733;
1325.1000;0.5267;0.9686;
1325.4000;0.5234;0.9568;
1325.7000;0.5283;0.9733;
1326.0000;0.5291;0.9709;
1326.3000;0.5332;0.9851;
1326.6000;0.5307;0.9733;
1326.9000;0.5267;0.9733;
1327.2000;0.5364;0.9993;
1327.5000;0.5275;0.9898;
1327.8000;0.5275;0.9922;
1328.1000;0.5291;1.0016;
1328.4000;0.5291;1.0040;
1328.7000;0.5283;1.0064;
1329.0000;0.5283;1.0064;
1329.3000;0.5291;1.0016;
1329.6000;0.5315;0.9946;
1329.9000;0.5299;0.9733;
1330.2000;0.5299;0.9804;
1330.5000;0.5291;0.9827;
1330.8000;0.5291;0.9757;
1331.1000;0.5299;0.9780;
1331.4000;0.5291;0.9733;
1331.7000;0.5283;0.9662;
1332.0000;0.5267;0.9638;
1332.3000;0.5267;0.9638;
1332.6000;0.5307;0.9733;
1332.9000;0.5299;0.9757;
1333.2000;0.5291;0.9686;
1333.5000;0.5267;0.9591;
1333.8000;0.5299;0.9615;
1334.1000;0.5332;0.9804;
1334.4000;0.5275;0.9662;
1334.7000;0.5291;0.9686;
1335.0000;0.5291;0.9733;
1335.3000;0.5283;0.9709;
1335.6000;0.5283;0.9733;
1335.9000;0.5275;0.9757;
1336.2000;0.5283;0.9827;
1336.5000;0.5291;0.9780;
1336.8000;0.5291;0.9827;
1337.1000;0.5291;0.9780;
1337.4000;0.5299;0.9757;
1337.7000;0.5283;0.9662;
1338.0000;0.5275;0.9686;
1338.3000;0.5275;0.9804;
1338.6000;0.5258;0.9851;
1338.9000;0.5267;0.9804;
1339.2000;0.5267;0.9757;
1339.5000;0.5291;0.9757;
1339.8000;0.5283;0.9733;
1340.1000;0.5275;0.9638;
1340.4000;0.5275;0.9709;
1340.7000;0.5291;0.9733;
1341.0000;0.5299;0.9733;
1341.3000;0.5250;0.9662;
1341.6000;0.5210;0.9520;
1341.9000;0.5267;0.9638;
1342.2000;0.5218;0.9568;
1342.5000;0.5291;0.9780;
1342.8000;0.5283;0.9780;
1343.1000;0.5291;0.9898;
1343.4000;0.5291;0.9804;
1343.7000;0.5291;0.9780;
1344.0000;0.5291;0.9851;
1344.3000;0.5283;0.9827;
1344.6000;0.5283;0.9804;
1344.9000;0.5283;0.9875;
1345.2000;0.5315;0.9946;
1345.5000;0.5275;0.9780;
1345.8000;0.5283;0.9827;
1346.1000;0.5250;0.9827;
1346.4000;0.5283;0.9969;
1346.7000;0.5258;0.9851;
1347.0000;0.5267;0.9804;
1347.3000;0.5299;0.9851;
1347.6000;0.5291;0.9709;
1347.9000;0.5291;0.9757;
1348.2000;0.5267;0.9686;
1348.5000;0.5275;0.9875;
1348.8000;0.5275;0.9898;
1349.1000;0.5291;0.9946;
1349.4000;0.5275;0.9898;
1349.7000;0.5283;0.9827;
1350.0000;0.5283;0.9875;
1350.3000;0.5283;0.9804;
1350.6000;0.5283;0.9733;
1350.9000;0.5291;0.9733;
1351.2000;0.5299;0.9709;
1351.5000;0.5324;0.9733;
1351.8000;0.5389;0.9875;
1352.1000;0.5291;0.9709;
1352.4000;0.5299;0.9875;
1352.7000;0.5299;0.9922;
1353.0000;0.5299;0.9898;
1353.3000;0.5267;0.9757;
1353.6000;0.5291;0.9733;
1353.9000;0.5299;0.9851;
1354.2000;0.5307;0.9851;
1354.5000;0.5291;0.9804;
1354.8000;0.5299;0.9757;
1355.1000;0.5291;0.9780;
1355.4000;0.5299;0.9875;
1355.7000;0.5291;1.0016;
1356.0000;0.5291;0.9993;
1356.3000;0.5291;1.0016;
1356.6000;0.5291;0.9969;
1356.9000;0.5299;0.9922;
1357.2000;0.5283;0.9804;
1357.5000;0.5299;0.9875;
1357.8000;0.5291;0.9851;
1358.1000;0.5283;0.9875;
1358.4000;0.5291;0.9898;
1358.7000;0.5283;0.9851;
1359.0000;0.5283;0.9922;
1359.3000;0.5275;0.9898;
1359.6000;0.5169;0.9638;
1359.9000;0.5307;0.9827;
1360.2000;0.5291;0.9804;
1360.5000;0.5291;0.9709;
1360.8000;0.5307;0.9804;
1361.1000;0.5299;0.9851;
1361.4000;0.5291;0.9757;
1361.7000;0.5283;0.9709;
1362.0000;0.5315;0.9780;
1362.3000;0.5283;0.9686;
1362.6000;0.5307;0.9638;
1362.9000;0.5307;0.9733;
1363.2000;0.5291;0.9757;
1363.5000;0.5283;0.9827;
1363.8000;0.5267;0.9875;
1364.1000;0.5258;0.9733;
1364.4000;0.5185;0.9544;
1364.7000;0.5283;0.9733;
1365.0000;0.5250;0.9615;
1365.3000;0.5210;0.9449;
1365.6000;0.5356;0.9898;
1365.9000;0.5275;0.9733;
1366.2000;0.5315;0.9780;
1366.5000;0.5299;0.9780;
1366.8000;0.5307;0.9733;
1367.1000;0.5324;0.9780;
1367.4000;0.5307;0.9733;
1367.7000;0.5275;0.9686;
1368.0000;0.5324;0.9780;
1368.3000;0.5291;0.9780;
1368.6000;0.5275;0.9827;
1368.9000;0.5299;0.9922;
1369.2000;0.5299;0.9898;
1369.5000;0.5275;0.9875;
1369.8000;0.5267;0.9898;
1370.1000;0.5356;1.0111;
1370.4000;0.5291;0.9875;
1370.7000;0.5283;0.9827;
1371.0000;0.5299;0.9851;
1371.3000;0.5283;0.9827;
1371.6000;0.5226;0.9615;
1371.9000;0.5299;0.9757;
1372.2000;0.5250;0.9615;
1372.5000;0.5324;0.9827;
1372.8000;0.5291;0.9709;
1373.1000;0.5299;0.9662;
1373.4000;0.5275;0.9591;
1373.7000;0.5267;0.9591;
1374.0000;0.5275;0.9638;
1374.3000;0.5250;0.9591;
1374.6000;0.5275;0.9686;
1374.9000;0.5291;0.9757;
1375.2000;0.5283;0.9780;
1375.5000;0.5291;0.9733;
1375.8000;0.5275;0.9780;
1376.1000;0.5275;0.9804;
1376.4000;0.5291;0.9851;
1376.7000;0.5299;0.9851;
1377.0000;0.5299;0.9780;
1377.3000;0.5332;0.9875;
1377.6000;0.5291;0.9851;
1377.9000;0.5315;0.9804;
1378.2000;0.5299;0.9827;
1378.5000;0.5234;0.9638;
1378.8000;0.5291;0.9875;
1379.1000;0.5283;0.9946;
1379.4000;0.5267;0.9851;
1379.7000;0.5283;0.9922;
1380.0000;0.5267;0.9969;
1380.3000;0.5275;0.9922;
1380.6000;0.5291;0.9946;
1380.9000;0.5283;0.9898;
1381.2000;0.5283;0.9851;
1381.5000;0.5299;0.9686;
1381.8000;0.5250;0.9568;
1382.1000;0.5299;0.9662;
1382.4000;0.5307;0.9686;
1382.7000;0.5283;0.9615;
1383.0000;0.5210;0.9473;
1383.3000;0.5291;0.9709;
1383.6000;0.5283;0.9733;
1383.9000;0.5291;0.9733;
1384.2000;0.5340;0.9827;
1384.5000;0.5299;0.9638;
1384.8000;0.5283;0.9568;
1385.1000;0.5275;0.9520;
1385.4000;0.5275;0.9497;
1385.7000;0.5299;0.9473;
1386.0000;0.5340;0.9591;
1386.3000;0.5291;0.9497;
1386.6000;0.5299;0.9568;
1386.9000;0.5315;0.9662;
1387.2000;0.5299;0.9615;
1387.5000;0.5275;0.9591;
1387.8000;0.5291;0.9662;
1388.1000;0.5315;0.9757;
1388.4000;0.5389;0.9993;
1388.7000;0.5291;0.9827;
1389.0000;0.5299;0.9804;
1389.3000;0.5283;0.9780;
1389.6000;0.5275;0.9757;
1389.9000;0.5283;0.9827;
1390.2000;0.5283;0.9898;
1390.5000;0.5291;0.9969;
1390.8000;0.5291;0.9969;
1391.1000;0.5283;0.9898;
1391.4000;0.5283;0.9946;
1391.7000;0.5283;0.9969;
1392.0000;0.5275;0.9922;
1392.3000;0.5275;0.9969;
1392.6000;0.5275;0.9946;
1392.9000;0.5299;0.9969;
1393.2000;0.5283;0.9946;
1393.5000;0.5291;0.9993;
1393.8000;0.5283;0.9875;
1394.1000;0.5283;0.9875;
1394.4000;0.5291;0.9757;
1394.7000;0.5291;0.9662;
1395.0000;0.5283;0.9615;
1395.3000;0.5283;0.9662;
1395.6000;0.5307;0.9662;
1395.9000;0.5283;0.9615;
1396.2000;0.5275;0.9544;
1396.5000;0.5291;0.9568;
1396.8000;0.5299;0.9638;
1397.1000;0.5283;0.9638;
1397.4000;0.5299;0.9686;
1397.7000;0.5283;0.9709;
1398.0000;0.5283;0.9709;
1398.3000;0.5283;0.9662;
1398.6000;0.5291;0.9733;
1398.9000;0.5291;0.9709;
1399.2000;0.5275;0.9757;
1399.5000;0.5291;0.9898;
1399.8000;0.5283;0.9922;
