time/ms;Fluo/V;P700 deltaI/I x10³;
-199.8000;0.7863;1.0300;
-199.5000;0.7896;1.0371;
-199.2000;0.7888;1.0394;
-198.9000;0.7871;1.0394;
-198.6000;0.7880;1.0465;
-198.3000;0.7904;1.0536;
-198.0000;0.7839;1.0442;
-197.7000;0.7871;1.0560;
-197.4000;0.7871;1.0607;
-197.1000;0.7888;1.0631;
-196.8000;0.7871;1.0631;
-196.5000;0.7823;1.0489;
-196.2000;0.7888;1.0701;
-195.9000;0.7871;1.0678;
-195.6000;0.7863;1.0749;
-195.3000;0.7871;1.0820;
-195.0000;0.7855;1.0725;
-194.7000;0.7855;1.0701;
-194.4000;0.7871;1.0725;
-194.1000;0.7863;1.0701;
-193.8000;0.7880;1.0701;
-193.5000;0.7863;1.0701;
-193.2000;0.7863;1.0725;
-192.9000;0.7863;1.0701;
-192.6000;0.7855;1.0749;
-192.3000;0.7888;1.0914;
-192.0000;0.7871;1.0796;
-191.7000;0.7880;1.0583;
-191.4000;0.7896;1.0607;
-191.1000;0.7847;1.0536;
-190.8000;0.7871;1.0607;
-190.5000;0.7920;1.0820;
-190.2000;0.7928;1.0843;
-189.9000;0.7937;1.0914;
-189.6000;0.7880;1.0772;
-189.3000;0.7839;1.0796;
-189.0000;0.7823;1.0725;
-188.7000;0.7831;1.0749;
-188.4000;0.7880;1.0772;
-188.1000;0.7896;1.0820;
-187.8000;0.7855;1.0772;
-187.5000;0.7880;1.0796;
-187.2000;0.7863;1.0772;
-186.9000;0.7871;1.0796;
-186.6000;0.7855;1.0820;
-186.3000;0.7831;1.0843;
-186.0000;0.7871;1.0938;
-185.7000;0.7847;1.0843;
-185.4000;0.7863;1.0843;
-185.1000;0.7888;1.0796;
-184.8000;0.7871;1.0654;
-184.5000;0.7871;1.0678;
-184.2000;0.7888;1.0654;
-183.9000;0.7871;1.0607;
-183.6000;0.7855;1.0560;
-183.3000;0.7839;1.0442;
-183.0000;0.7880;1.0607;
-182.7000;0.7871;1.0583;
-182.4000;0.7863;1.0607;
-182.1000;0.7863;1.0631;
-181.8000;0.7896;1.0631;
-181.5000;0.7880;1.0560;
-181.2000;0.7863;1.0465;
-180.9000;0.7871;1.0465;
-180.6000;0.7839;1.0418;
-180.3000;0.7855;1.0442;
-180.0000;0.7855;1.0512;
-179.7000;0.7855;1.0442;
-179.4000;0.7806;1.0465;
-179.1000;0.7871;1.0678;
-178.8000;0.7880;1.0749;
-178.5000;0.7782;1.0512;
-178.2000;0.7871;1.0820;
-177.9000;0.7880;1.0749;
-177.6000;0.7888;1.0820;
-177.3000;0.7863;1.0749;
-177.0000;0.7855;1.0701;
-176.7000;0.7896;1.0725;
-176.4000;0.7831;1.0583;
-176.1000;0.7839;1.0631;
-175.8000;0.7855;1.0701;
-175.5000;0.7814;1.0678;
-175.2000;0.7871;1.0820;
-174.9000;0.7871;1.0772;
-174.6000;0.7855;1.0678;
-174.3000;0.7871;1.0654;
-174.0000;0.7888;1.0820;
-173.7000;0.7871;1.0772;
-173.4000;0.7920;1.0867;
-173.1000;0.7888;1.0820;
-172.8000;0.7904;1.0772;
-172.5000;0.7937;1.0890;
-172.2000;0.7961;1.0867;
-171.9000;0.7961;1.0867;
-171.6000;0.7847;1.0701;
-171.3000;0.7871;1.0678;
-171.0000;0.7871;1.0678;
-170.7000;0.7880;1.0701;
-170.4000;0.7839;1.0678;
-170.1000;0.7888;1.0631;
-169.8000;0.7863;1.0536;
-169.5000;0.7863;1.0583;
-169.2000;0.7888;1.0560;
-168.9000;0.7871;1.0512;
-168.6000;0.7863;1.0512;
-168.3000;0.7823;1.0418;
-168.0000;0.7871;1.0560;
-167.7000;0.7880;1.0701;
-167.4000;0.7888;1.0772;
-167.1000;0.7871;1.0725;
-166.8000;0.7880;1.0772;
-166.5000;0.7888;1.0749;
-166.2000;0.7896;1.0749;
-165.9000;0.7961;1.0890;
-165.6000;0.7880;1.0654;
-165.3000;0.7880;1.0725;
-165.0000;0.7880;1.0678;
-164.7000;0.7888;1.0749;
-164.4000;0.7888;1.0796;
-164.1000;0.7896;1.0772;
-163.8000;0.7896;1.0749;
-163.5000;0.7871;1.0654;
-163.2000;0.7855;1.0701;
-162.9000;0.7880;1.0749;
-162.6000;0.7871;1.0701;
-162.3000;0.7888;1.0701;
-162.0000;0.7871;1.0654;
-161.7000;0.7920;1.0631;
-161.4000;0.7888;1.0654;
-161.1000;0.7871;1.0678;
-160.8000;0.7871;1.0583;
-160.5000;0.7839;1.0512;
-160.2000;0.7888;1.0560;
-159.9000;0.7888;1.0512;
-159.6000;0.7880;1.0536;
-159.3000;0.7896;1.0607;
-159.0000;0.7920;1.0725;
-158.7000;0.7904;1.0678;
-158.4000;0.7888;1.0583;
-158.1000;0.7888;1.0607;
-157.8000;0.7880;1.0631;
-157.5000;0.7855;1.0607;
-157.2000;0.7871;1.0701;
-156.9000;0.7888;1.0678;
-156.6000;0.7863;1.0678;
-156.3000;0.7888;1.0772;
-156.0000;0.7871;1.0843;
-155.7000;0.7904;1.0961;
-155.4000;0.7855;1.0820;
-155.1000;0.7880;1.0749;
-154.8000;0.7871;1.0749;
-154.5000;0.7774;1.0512;
-154.2000;0.7871;1.0701;
-153.9000;0.7863;1.0701;
-153.6000;0.7896;1.0796;
-153.3000;0.7880;1.0725;
-153.0000;0.7839;1.0654;
-152.7000;0.7806;1.0512;
-152.4000;0.7937;1.0820;
-152.1000;0.7847;1.0654;
-151.8000;0.7880;1.0725;
-151.5000;0.7896;1.0843;
-151.2000;0.7863;1.0772;
-150.9000;0.7912;1.0820;
-150.6000;0.7855;1.0749;
-150.3000;0.7847;1.0725;
-150.0000;0.7896;1.0749;
-149.7000;0.7888;1.0701;
-149.4000;0.7806;1.0442;
-149.1000;0.7839;1.0465;
-148.8000;0.7863;1.0560;
-148.5000;0.7961;1.0796;
-148.2000;0.7904;1.0725;
-147.9000;0.7863;1.0560;
-147.6000;0.7847;1.0607;
-147.3000;0.7880;1.0701;
-147.0000;0.7888;1.0796;
-146.7000;0.7871;1.0725;
-146.4000;0.7880;1.0772;
-146.1000;0.7855;1.0701;
-145.8000;0.7880;1.0796;
-145.5000;0.7847;1.0749;
-145.2000;0.7855;1.0772;
-144.9000;0.7863;1.0772;
-144.6000;0.7871;1.0796;
-144.3000;0.7855;1.0725;
-144.0000;0.7863;1.0678;
-143.7000;0.7888;1.0701;
-143.4000;0.7888;1.0772;
-143.1000;0.7863;1.0701;
-142.8000;0.7839;1.0607;
-142.5000;0.7855;1.0583;
-142.2000;0.7880;1.0631;
-141.9000;0.7871;1.0631;
-141.6000;0.7888;1.0725;
-141.3000;0.7855;1.0607;
-141.0000;0.7888;1.0701;
-140.7000;0.7863;1.0631;
-140.4000;0.7871;1.0583;
-140.1000;0.7839;1.0536;
-139.8000;0.7847;1.0583;
-139.5000;0.7863;1.0678;
-139.2000;0.7896;1.0772;
-138.9000;0.7863;1.0772;
-138.6000;0.7880;1.0749;
-138.3000;0.7847;1.0654;
-138.0000;0.7871;1.0796;
-137.7000;0.7839;1.0796;
-137.4000;0.7888;1.0890;
-137.1000;0.7855;1.0820;
-136.8000;0.7880;1.0890;
-136.5000;0.7831;1.0772;
-136.2000;0.7871;1.0843;
-135.9000;0.7855;1.0843;
-135.6000;0.7880;1.0914;
-135.3000;0.7863;1.0820;
-135.0000;0.7847;1.0749;
-134.7000;0.7896;1.0796;
-134.4000;0.7863;1.0843;
-134.1000;0.7880;1.0867;
-133.8000;0.7880;1.0772;
-133.5000;0.7806;1.0654;
-133.2000;0.7977;1.0961;
-132.9000;0.7880;1.0701;
-132.6000;0.7855;1.0725;
-132.3000;0.7871;1.0749;
-132.0000;0.7904;1.0843;
-131.7000;0.7888;1.0725;
-131.4000;0.7871;1.0749;
-131.1000;0.7880;1.0820;
-130.8000;0.7928;1.0914;
-130.5000;0.7880;1.0867;
-130.2000;0.7871;1.0867;
-129.9000;0.7871;1.0890;
-129.6000;0.7928;1.0961;
-129.3000;0.7880;1.0772;
-129.0000;0.7855;1.0749;
-128.7000;0.7863;1.0772;
-128.4000;0.7847;1.0725;
-128.1000;0.7863;1.0820;
-127.8000;0.7871;1.0867;
-127.5000;0.7831;1.0843;
-127.2000;0.7855;1.0796;
-126.9000;0.7863;1.0772;
-126.6000;0.7871;1.0725;
-126.3000;0.7871;1.0749;
-126.0000;0.7871;1.0701;
-125.7000;0.7871;1.0725;
-125.4000;0.7757;1.0323;
-125.1000;0.7847;1.0512;
-124.8000;0.7863;1.0512;
-124.5000;0.7928;1.0654;
-124.2000;0.7888;1.0536;
-123.9000;0.7855;1.0489;
-123.6000;0.7847;1.0512;
-123.3000;0.7880;1.0512;
-123.0000;0.7880;1.0560;
-122.7000;0.7847;1.0465;
-122.4000;0.7855;1.0465;
-122.1000;0.7847;1.0465;
-121.8000;0.7847;1.0489;
-121.5000;0.7855;1.0347;
-121.2000;0.7847;1.0347;
-120.9000;0.7855;1.0418;
-120.6000;0.7880;1.0512;
-120.3000;0.7880;1.0560;
-120.0000;0.7871;1.0631;
-119.7000;0.7855;1.0654;
-119.4000;0.7847;1.0536;
-119.1000;0.7855;1.0583;
-118.8000;0.7871;1.0583;
-118.5000;0.7847;1.0560;
-118.2000;0.7888;1.0678;
-117.9000;0.7880;1.0678;
-117.6000;0.7855;1.0725;
-117.3000;0.7863;1.0749;
-117.0000;0.7888;1.0772;
-116.7000;0.7863;1.0749;
-116.4000;0.7863;1.0796;
-116.1000;0.7855;1.0749;
-115.8000;0.7863;1.0772;
-115.5000;0.7855;1.0749;
-115.2000;0.7888;1.0867;
-114.9000;0.7880;1.0890;
-114.6000;0.7863;1.0843;
-114.3000;0.7871;1.0725;
-114.0000;0.7871;1.0725;
-113.7000;0.7863;1.0701;
-113.4000;0.7847;1.0701;
-113.1000;0.7806;1.0583;
-112.8000;0.7871;1.0749;
-112.5000;0.7912;1.0820;
-112.2000;0.7880;1.0749;
-111.9000;0.7871;1.0701;
-111.6000;0.7871;1.0631;
-111.3000;0.7888;1.0701;
-111.0000;0.7839;1.0489;
-110.7000;0.7863;1.0536;
-110.4000;0.7855;1.0394;
-110.1000;0.7855;1.0347;
-109.8000;0.7855;1.0442;
-109.5000;0.7847;1.0371;
-109.2000;0.7855;1.0323;
-108.9000;0.7863;1.0394;
-108.6000;0.7855;1.0418;
-108.3000;0.7871;1.0418;
-108.0000;0.7888;1.0489;
-107.7000;0.7871;1.0465;
-107.4000;0.7863;1.0512;
-107.1000;0.7855;1.0442;
-106.8000;0.7863;1.0489;
-106.5000;0.7880;1.0583;
-106.2000;0.7880;1.0583;
-105.9000;0.7871;1.0560;
-105.6000;0.7863;1.0418;
-105.3000;0.7855;1.0442;
-105.0000;0.7888;1.0489;
-104.7000;0.7871;1.0560;
-104.4000;0.7863;1.0607;
-104.1000;0.7855;1.0654;
-103.8000;0.7880;1.0678;
-103.5000;0.7863;1.0701;
-103.2000;0.7863;1.0820;
-102.9000;0.7863;1.0890;
-102.6000;0.7871;1.0890;
-102.3000;0.7937;1.1056;
-102.0000;0.7904;1.0985;
-101.7000;0.7863;1.0890;
-101.4000;0.7880;1.0843;
-101.1000;0.7880;1.0820;
-100.8000;0.7880;1.0772;
-100.5000;0.7871;1.0843;
-100.2000;0.7871;1.0820;
-99.9000;0.7871;1.0796;
-99.6000;0.7880;1.0772;
-99.3000;0.7863;1.0701;
-99.0000;0.7863;1.0678;
-98.7000;0.7888;1.0701;
-98.4000;0.7871;1.0678;
-98.1000;0.7871;1.0725;
-97.8000;0.7855;1.0772;
-97.5000;0.7863;1.0820;
-97.2000;0.7937;1.1009;
-96.9000;0.7855;1.0749;
-96.6000;0.7863;1.0749;
-96.3000;0.7839;1.0749;
-96.0000;0.7871;1.0890;
-95.7000;0.7871;1.0820;
-95.4000;0.7871;1.0701;
-95.1000;0.7855;1.0654;
-94.8000;0.7888;1.0796;
-94.5000;0.7871;1.0772;
-94.2000;0.7855;1.0654;
-93.9000;0.7855;1.0631;
-93.6000;0.7880;1.0654;
-93.3000;0.7880;1.0654;
-93.0000;0.7888;1.0701;
-92.7000;0.7863;1.0654;
-92.4000;0.7904;1.0843;
-92.1000;0.7912;1.0843;
-91.8000;0.7863;1.0701;
-91.5000;0.7880;1.0772;
-91.2000;0.7888;1.0820;
-90.9000;0.7888;1.0725;
-90.6000;0.7855;1.0631;
-90.3000;0.7855;1.0678;
-90.0000;0.7896;1.0820;
-89.7000;0.7888;1.0749;
-89.4000;0.7880;1.0772;
-89.1000;0.7896;1.0772;
-88.8000;0.7855;1.0678;
-88.5000;0.7855;1.0631;
-88.2000;0.7855;1.0583;
-87.9000;0.7863;1.0631;
-87.6000;0.7863;1.0678;
-87.3000;0.7888;1.0749;
-87.0000;0.7823;1.0465;
-86.7000;0.7847;1.0583;
-86.4000;0.7871;1.0607;
-86.1000;0.7888;1.0701;
-85.8000;0.7863;1.0631;
-85.5000;0.7880;1.0725;
-85.2000;0.7880;1.0701;
-84.9000;0.7888;1.0631;
-84.6000;0.7855;1.0536;
-84.3000;0.7888;1.0654;
-84.0000;0.7880;1.0654;
-83.7000;0.7871;1.0678;
-83.4000;0.7904;1.0725;
-83.1000;0.7863;1.0631;
-82.8000;0.7880;1.0678;
-82.5000;0.7880;1.0607;
-82.2000;0.7880;1.0607;
-81.9000;0.7896;1.0607;
-81.6000;0.7871;1.0583;
-81.3000;0.7871;1.0607;
-81.0000;0.7863;1.0583;
-80.7000;0.7831;1.0394;
-80.4000;0.7863;1.0536;
-80.1000;0.7863;1.0583;
-79.8000;0.7863;1.0607;
-79.5000;0.7880;1.0678;
-79.2000;0.7814;1.0607;
-78.9000;0.7855;1.0631;
-78.6000;0.7863;1.0560;
-78.3000;0.7920;1.0701;
-78.0000;0.7863;1.0631;
-77.7000;0.7871;1.0678;
-77.4000;0.7871;1.0701;
-77.1000;0.7855;1.0678;
-76.8000;0.7823;1.0678;
-76.5000;0.7896;1.0796;
-76.2000;0.7871;1.0749;
-75.9000;0.7880;1.0701;
-75.6000;0.7880;1.0701;
-75.3000;0.7880;1.0654;
-75.0000;0.7863;1.0631;
-74.7000;0.7871;1.0631;
-74.4000;0.7871;1.0631;
-74.1000;0.7871;1.0678;
-73.8000;0.7839;1.0607;
-73.5000;0.7847;1.0701;
-73.2000;0.7855;1.0678;
-72.9000;0.7863;1.0725;
-72.6000;0.7839;1.0654;
-72.3000;0.7831;1.0607;
-72.0000;0.7863;1.0701;
-71.7000;0.7912;1.0772;
-71.4000;0.7863;1.0583;
-71.1000;0.7863;1.0607;
-70.8000;0.7863;1.0678;
-70.5000;0.7888;1.0725;
-70.2000;0.7871;1.0654;
-69.9000;0.7855;1.0701;
-69.6000;0.7863;1.0772;
-69.3000;0.7888;1.0843;
-69.0000;0.7871;1.0843;
-68.7000;0.7855;1.0890;
-68.4000;0.7847;1.0890;
-68.1000;0.7871;1.0938;
-67.8000;0.7863;1.0914;
-67.5000;0.7880;1.0938;
-67.2000;0.7855;1.0914;
-66.9000;0.7888;1.0938;
-66.6000;0.7896;1.1056;
-66.3000;0.7888;1.1009;
-66.0000;0.7888;1.0938;
-65.7000;0.7880;1.0914;
-65.4000;0.7871;1.0843;
-65.1000;0.7888;1.0749;
-64.8000;0.7871;1.0678;
-64.5000;0.7880;1.0631;
-64.2000;0.7871;1.0678;
-63.9000;0.7896;1.0678;
-63.6000;0.7863;1.0654;
-63.3000;0.7880;1.0725;
-63.0000;0.7912;1.0772;
-62.7000;0.7896;1.0796;
-62.4000;0.7871;1.0772;
-62.1000;0.7937;1.0890;
-61.8000;0.7880;1.0607;
-61.5000;0.7920;1.0725;
-61.2000;0.7831;1.0583;
-60.9000;0.7855;1.0701;
-60.6000;0.7888;1.0843;
-60.3000;0.7896;1.0914;
-60.0000;0.7863;1.0890;
-59.7000;0.7904;1.0961;
-59.4000;0.7863;1.0796;
-59.1000;0.7888;1.0938;
-58.8000;0.7920;1.0985;
-58.5000;0.7871;1.0796;
-58.2000;0.7888;1.0796;
-57.9000;0.7880;1.0796;
-57.6000;0.7880;1.0772;
-57.3000;0.7863;1.0725;
-57.0000;0.7831;1.0725;
-56.7000;0.7863;1.0772;
-56.4000;0.7871;1.0796;
-56.1000;0.7863;1.0749;
-55.8000;0.7888;1.0890;
-55.5000;0.7880;1.0914;
-55.2000;0.7871;1.0772;
-54.9000;0.7855;1.0749;
-54.6000;0.7855;1.0725;
-54.3000;0.7863;1.0772;
-54.0000;0.7945;1.0890;
-53.7000;0.7871;1.0772;
-53.4000;0.7871;1.0796;
-53.1000;0.7855;1.0749;
-52.8000;0.7871;1.0725;
-52.5000;0.7888;1.0749;
-52.2000;0.7888;1.0772;
-51.9000;0.7863;1.0749;
-51.6000;0.7888;1.0701;
-51.3000;0.7880;1.0749;
-51.0000;0.7855;1.0725;
-50.7000;0.7863;1.0701;
-50.4000;0.7888;1.0772;
-50.1000;0.7871;1.0725;
-49.8000;0.7839;1.0607;
-49.5000;0.7855;1.0725;
-49.2000;0.7871;1.0725;
-48.9000;0.7888;1.0820;
-48.6000;0.7871;1.0843;
-48.3000;0.7871;1.0843;
-48.0000;0.7847;1.0631;
-47.7000;0.7855;1.0536;
-47.4000;0.7855;1.0512;
-47.1000;0.7831;1.0418;
-46.8000;0.7847;1.0512;
-46.5000;0.7855;1.0583;
-46.2000;0.7798;1.0442;
-45.9000;0.7871;1.0678;
-45.6000;0.7855;1.0772;
-45.3000;0.7880;1.0796;
-45.0000;0.7880;1.0772;
-44.7000;0.7855;1.0820;
-44.4000;0.7871;1.0796;
-44.1000;0.7863;1.0701;
-43.8000;0.7888;1.0749;
-43.5000;0.7904;1.0820;
-43.2000;0.7855;1.0749;
-42.9000;0.7888;1.0772;
-42.6000;0.7912;1.0867;
-42.3000;0.7871;1.0843;
-42.0000;0.7871;1.0820;
-41.7000;0.7839;1.0701;
-41.4000;0.7782;1.0489;
-41.1000;0.7928;1.0843;
-40.8000;0.7847;1.0678;
-40.5000;0.7855;1.0701;
-40.2000;0.7888;1.0678;
-39.9000;0.7880;1.0654;
-39.6000;0.7904;1.0749;
-39.3000;0.7904;1.0725;
-39.0000;0.7896;1.0678;
-38.7000;0.7823;1.0418;
-38.4000;0.7871;1.0560;
-38.1000;0.7912;1.0701;
-37.8000;0.7880;1.0631;
-37.5000;0.7888;1.0560;
-37.2000;0.7880;1.0607;
-36.9000;0.7855;1.0583;
-36.6000;0.7847;1.0536;
-36.3000;0.7847;1.0536;
-36.0000;0.7871;1.0512;
-35.7000;0.7863;1.0418;
-35.4000;0.7863;1.0465;
-35.1000;0.7863;1.0442;
-34.8000;0.7896;1.0583;
-34.5000;0.7855;1.0536;
-34.2000;0.7880;1.0583;
-33.9000;0.7863;1.0560;
-33.6000;0.7880;1.0631;
-33.3000;0.7871;1.0607;
-33.0000;0.7863;1.0583;
-32.7000;0.7855;1.0583;
-32.4000;0.7863;1.0749;
-32.1000;0.7855;1.0796;
-31.8000;0.7847;1.0725;
-31.5000;0.7855;1.0725;
-31.2000;0.7855;1.0772;
-30.9000;0.7863;1.0725;
-30.6000;0.7847;1.0654;
-30.3000;0.7863;1.0725;
-30.0000;0.7880;1.0701;
-29.7000;0.7871;1.0631;
-29.4000;0.7871;1.0607;
-29.1000;0.7888;1.0607;
-28.8000;0.7871;1.0536;
-28.5000;0.7896;1.0512;
-28.2000;0.7871;1.0394;
-27.9000;0.7871;1.0442;
-27.6000;0.7871;1.0512;
-27.3000;0.7839;1.0276;
-27.0000;0.7863;1.0371;
-26.7000;0.7863;1.0300;
-26.4000;0.7888;1.0394;
-26.1000;0.7880;1.0347;
-25.8000;0.7782;1.0087;
-25.5000;0.7855;1.0276;
-25.2000;0.7880;1.0276;
-24.9000;0.7880;1.0205;
-24.6000;0.7880;1.0205;
-24.3000;0.7855;1.0182;
-24.0000;0.7871;1.0300;
-23.7000;0.7937;1.0489;
-23.4000;0.7912;1.0465;
-23.1000;0.7880;1.0418;
-22.8000;0.7871;1.0347;
-22.5000;0.7782;1.0158;
-22.2000;0.7863;1.0371;
-21.9000;0.7839;1.0300;
-21.6000;0.7888;1.0465;
-21.3000;0.7880;1.0442;
-21.0000;0.7847;1.0371;
-20.7000;0.7871;1.0560;
-20.4000;0.7823;1.0512;
-20.1000;0.7896;1.0654;
-19.8000;0.7871;1.0536;
-19.5000;0.7871;1.0583;
-19.2000;0.7888;1.0607;
-18.9000;0.7863;1.0536;
-18.6000;0.7880;1.0560;
-18.3000;0.7855;1.0607;
-18.0000;0.7880;1.0560;
-17.7000;0.7855;1.0489;
-17.4000;0.7863;1.0607;
-17.1000;0.7880;1.0654;
-16.8000;0.7871;1.0583;
-16.5000;0.7904;1.0654;
-16.2000;0.7871;1.0536;
-15.9000;0.7871;1.0512;
-15.6000;0.7871;1.0536;
-15.3000;0.7855;1.0607;
-15.0000;0.7863;1.0631;
-14.7000;0.7880;1.0654;
-14.4000;0.7831;1.0607;
-14.1000;0.7880;1.0701;
-13.8000;0.7880;1.0654;
-13.5000;0.7871;1.0607;
-13.2000;0.7880;1.0560;
-12.9000;0.7871;1.0560;
-12.6000;0.7871;1.0583;
-12.3000;0.7888;1.0607;
-12.0000;0.7880;1.0583;
-11.7000;0.7863;1.0536;
-11.4000;0.7871;1.0536;
-11.1000;0.7871;1.0465;
-10.8000;0.7871;1.0489;
-10.5000;0.7871;1.0536;
-10.2000;0.7880;1.0560;
-9.9000;0.7847;1.0512;
-9.6000;0.7880;1.0560;
-9.3000;0.7880;1.0560;
-9.0000;0.7896;1.0607;
-8.7000;0.7871;1.0489;
-8.4000;0.7888;1.0394;
-8.1000;0.7896;1.0394;
-7.8000;0.7888;1.0371;
-7.5000;0.7880;1.0300;
-7.2000;0.7871;1.0276;
-6.9000;0.7888;1.0347;
-6.6000;0.7839;1.0276;
-6.3000;0.7847;1.0323;
-6.0000;0.7863;1.0394;
-5.7000;0.7855;1.0465;
-5.4000;0.7904;1.0536;
-5.1000;0.7855;1.0489;
-4.8000;0.7831;1.0418;
-4.5000;0.7888;1.0489;
-4.2000;0.7888;1.0560;
-3.9000;0.7831;1.0394;
-3.6000;0.7855;1.0465;
-3.3000;0.7863;1.0489;
-3.0000;0.7863;1.0465;
-2.7000;0.7888;1.0489;
-2.4000;0.7863;1.0631;
-2.1000;0.7863;1.0560;
-1.8000;0.7871;1.0560;
-1.5000;0.7880;1.0607;
-1.2000;0.7839;1.0631;
-0.9000;0.7880;1.0701;
-0.6000;0.7847;1.0607;
-0.3000;0.7839;1.0631;
0.0000;0.7839;1.0631;
0.3000;0.7985;1.0796;
0.6000;0.8099;1.1009;
0.9000;0.8295;1.1599;
1.2000;0.8474;1.2166;
1.5000;0.8498;1.2331;
1.8000;0.8539;1.2473;
2.1000;0.8604;1.2780;
2.4000;0.8661;1.3017;
2.7000;0.8702;1.3182;
3.0000;0.8807;1.3536;
3.3000;0.8742;1.3347;
3.6000;0.8799;1.3465;
3.9000;0.8832;1.3442;
4.2000;0.8832;1.3442;
4.5000;0.8832;1.3418;
4.8000;0.8873;1.3489;
5.1000;0.8889;1.3513;
5.4000;0.8913;1.3536;
5.7000;0.8930;1.3560;
6.0000;0.8930;1.3560;
6.3000;0.8954;1.3631;
6.6000;0.8962;1.3796;
6.9000;0.8962;1.3796;
7.2000;0.8995;1.3773;
7.5000;0.9011;1.3773;
7.8000;0.9011;1.3749;
8.1000;0.9011;1.3678;
8.4000;0.9052;1.3796;
8.7000;0.9068;1.3820;
9.0000;0.9068;1.3820;
9.3000;0.9076;1.3796;
9.6000;0.9092;1.3749;
9.9000;0.9117;1.3796;
10.2000;0.9109;1.3773;
10.5000;0.9125;1.3891;
10.8000;0.9125;1.3985;
11.1000;0.9141;1.3962;
11.4000;0.9149;1.3891;
11.7000;0.9133;1.3843;
12.0000;0.9182;1.3962;
12.3000;0.9174;1.3938;
12.6000;0.9174;1.3891;
12.9000;0.9174;1.3867;
13.2000;0.9182;1.3938;
13.5000;0.9214;1.3962;
13.8000;0.9223;1.3891;
14.1000;0.9174;1.3725;
14.4000;0.9214;1.3867;
14.7000;0.9206;1.3843;
15.0000;0.9247;1.3773;
15.3000;0.9231;1.3725;
15.6000;0.9247;1.3773;
15.9000;0.9239;1.3725;
16.2000;0.9247;1.3702;
16.5000;0.9280;1.3773;
16.8000;0.9263;1.3702;
17.1000;0.9271;1.3702;
17.4000;0.9280;1.3678;
17.7000;0.9369;1.3867;
18.0000;0.9223;1.3560;
18.3000;0.9255;1.3631;
18.6000;0.9280;1.3607;
18.9000;0.9304;1.3607;
19.2000;0.9353;1.3725;
19.5000;0.9288;1.3654;
19.8000;0.9312;1.3702;
20.1000;0.9280;1.3584;
20.4000;0.9312;1.3702;
20.7000;0.9255;1.3536;
21.0000;0.9337;1.3702;
21.3000;0.9320;1.3702;
21.6000;0.9337;1.3749;
21.9000;0.9320;1.3702;
22.2000;0.9320;1.3725;
22.5000;0.9328;1.3773;
22.8000;0.9328;1.3820;
23.1000;0.9296;1.3702;
23.4000;0.9394;1.3796;
23.7000;0.9320;1.3607;
24.0000;0.9345;1.3678;
24.3000;0.9337;1.3607;
24.6000;0.9328;1.3607;
24.9000;0.9345;1.3584;
25.2000;0.9353;1.3584;
25.5000;0.9361;1.3584;
25.8000;0.9353;1.3631;
26.1000;0.9369;1.3702;
26.4000;0.9353;1.3678;
26.7000;0.9353;1.3560;
27.0000;0.9369;1.3678;
27.3000;0.9377;1.3631;
27.6000;0.9377;1.3631;
27.9000;0.9394;1.3678;
28.2000;0.9369;1.3654;
28.5000;0.9361;1.3820;
28.8000;0.9385;1.3938;
29.1000;0.9394;1.3938;
29.4000;0.9320;1.3749;
29.7000;0.9377;1.3820;
30.0000;0.9385;1.3796;
30.3000;0.9369;1.3843;
30.6000;0.9385;1.3891;
30.9000;0.9385;1.3843;
31.2000;0.9402;1.3962;
31.5000;0.9410;1.4009;
31.8000;0.9394;1.4009;
32.1000;0.9385;1.3914;
32.4000;0.9434;1.4009;
32.7000;0.9418;1.3867;
33.0000;0.9410;1.3773;
33.3000;0.9402;1.3725;
33.6000;0.9402;1.3631;
33.9000;0.9402;1.3607;
34.2000;0.9394;1.3584;
34.5000;0.9434;1.3702;
34.8000;0.9483;1.3820;
35.1000;0.9410;1.3725;
35.4000;0.9475;1.3891;
35.7000;0.9361;1.3654;
36.0000;0.9410;1.3914;
36.3000;0.9410;1.3962;
36.6000;0.9312;1.3678;
36.9000;0.9410;1.3843;
37.2000;0.9442;1.3773;
37.5000;0.9418;1.3749;
37.8000;0.9402;1.3749;
38.1000;0.9442;1.3820;
38.4000;0.9418;1.3725;
38.7000;0.9418;1.3631;
39.0000;0.9442;1.3702;
39.3000;0.9442;1.3631;
39.6000;0.9434;1.3702;
39.9000;0.9434;1.3725;
40.2000;0.9434;1.3678;
40.5000;0.9434;1.3702;
40.8000;0.9434;1.3749;
41.1000;0.9426;1.3749;
41.4000;0.9426;1.3749;
41.7000;0.9499;1.3914;
42.0000;0.9442;1.3702;
42.3000;0.9418;1.3702;
42.6000;0.9418;1.3678;
42.9000;0.9442;1.3725;
43.2000;0.9442;1.3843;
43.5000;0.9442;1.3867;
43.8000;0.9402;1.3773;
44.1000;0.9410;1.3796;
44.4000;0.9451;1.3867;
44.7000;0.9426;1.3891;
45.0000;0.9434;1.3843;
45.3000;0.9442;1.3725;
45.6000;0.9418;1.3749;
45.9000;0.9426;1.3820;
46.2000;0.9426;1.3867;
46.5000;0.9434;1.3891;
46.8000;0.9434;1.3914;
47.1000;0.9418;1.3938;
47.4000;0.9410;1.3891;
47.7000;0.9410;1.3938;
48.0000;0.9434;1.4032;
48.3000;0.9459;1.4056;
48.6000;0.9410;1.3962;
48.9000;0.9434;1.3914;
49.2000;0.9369;1.3725;
49.5000;0.9459;1.3962;
49.8000;0.9442;1.3867;
50.1000;0.9451;1.3891;
50.4000;0.9451;1.3985;
50.7000;0.9451;1.3962;
51.0000;0.9442;1.3962;
51.3000;0.9434;1.3843;
51.6000;0.9434;1.3938;
51.9000;0.9451;1.3985;
52.2000;0.9442;1.3962;
52.5000;0.9467;1.3985;
52.8000;0.9451;1.3843;
53.1000;0.9451;1.3914;
53.4000;0.9475;1.4009;
53.7000;0.9475;1.3938;
54.0000;0.9475;1.3938;
54.3000;0.9459;1.3914;
54.6000;0.9467;1.3867;
54.9000;0.9442;1.3843;
55.2000;0.9451;1.3867;
55.5000;0.9499;1.3938;
55.8000;0.9442;1.3796;
56.1000;0.9442;1.3725;
56.4000;0.9459;1.3867;
56.7000;0.9434;1.3867;
57.0000;0.9459;1.3962;
57.3000;0.9467;1.3914;
57.6000;0.9459;1.3938;
57.9000;0.9491;1.3985;
58.2000;0.9459;1.3867;
58.5000;0.9516;1.3962;
58.8000;0.9426;1.3796;
59.1000;0.9442;1.3843;
59.4000;0.9442;1.3891;
59.7000;0.9459;1.3962;
60.0000;0.9442;1.3914;
60.3000;0.9451;1.3867;
60.6000;0.9442;1.3867;
60.9000;0.9459;1.3820;
61.2000;0.9459;1.3796;
61.5000;0.9467;1.3820;
61.8000;0.9459;1.3796;
62.1000;0.9467;1.3773;
62.4000;0.9459;1.3773;
62.7000;0.9475;1.3796;
63.0000;0.9459;1.3749;
63.3000;0.9467;1.3796;
63.6000;0.9467;1.3843;
63.9000;0.9467;1.3773;
64.2000;0.9459;1.3725;
64.5000;0.9467;1.3725;
64.8000;0.9475;1.3820;
65.1000;0.9459;1.3891;
65.4000;0.9459;1.3914;
65.7000;0.9442;1.3938;
66.0000;0.9426;1.3843;
66.3000;0.9467;1.3962;
66.6000;0.9459;1.3891;
66.9000;0.9459;1.3867;
67.2000;0.9467;1.3891;
67.5000;0.9467;1.4009;
67.8000;0.9377;1.3820;
68.1000;0.9483;1.4127;
68.4000;0.9475;1.4009;
68.7000;0.9467;1.3914;
69.0000;0.9475;1.3891;
69.3000;0.9483;1.3867;
69.6000;0.9483;1.3938;
69.9000;0.9467;1.3914;
70.2000;0.9459;1.3891;
70.5000;0.9491;1.3985;
70.8000;0.9475;1.3938;
71.1000;0.9467;1.3962;
71.4000;0.9475;1.3914;
71.7000;0.9467;1.3962;
72.0000;0.9459;1.3914;
72.3000;0.9475;1.3891;
72.6000;0.9459;1.3773;
72.9000;0.9459;1.3749;
73.2000;0.9451;1.3654;
73.5000;0.9475;1.3631;
73.8000;0.9467;1.3702;
74.1000;0.9467;1.3678;
74.4000;0.9467;1.3702;
74.7000;0.9483;1.3843;
75.0000;0.9451;1.3796;
75.3000;0.9451;1.3914;
75.6000;0.9451;1.3914;
75.9000;0.9353;1.3725;
76.2000;0.9451;1.3891;
76.5000;0.9508;1.4056;
76.8000;0.9459;1.3962;
77.1000;0.9459;1.3843;
77.4000;0.9491;1.3843;
77.7000;0.9516;1.3867;
78.0000;0.9475;1.3702;
78.3000;0.9467;1.3725;
78.6000;0.9451;1.3749;
78.9000;0.9434;1.3773;
79.2000;0.9459;1.3891;
79.5000;0.9377;1.3749;
79.8000;0.9459;1.3985;
80.1000;0.9459;1.3985;
80.4000;0.9434;1.3843;
80.7000;0.9442;1.3914;
81.0000;0.9459;1.3820;
81.3000;0.9467;1.3867;
81.6000;0.9459;1.3843;
81.9000;0.9451;1.3702;
82.2000;0.9459;1.3678;
82.5000;0.9532;1.3820;
82.8000;0.9451;1.3560;
83.1000;0.9467;1.3513;
83.4000;0.9475;1.3560;
83.7000;0.9410;1.3536;
84.0000;0.9475;1.3702;
84.3000;0.9491;1.3773;
84.6000;0.9483;1.3749;
84.9000;0.9475;1.3843;
85.2000;0.9451;1.3820;
85.5000;0.9451;1.3773;
85.8000;0.9459;1.3796;
86.1000;0.9451;1.3796;
86.4000;0.9442;1.3773;
86.7000;0.9451;1.3749;
87.0000;0.9451;1.3678;
87.3000;0.9467;1.3702;
87.6000;0.9459;1.3749;
87.9000;0.9483;1.3678;
88.2000;0.9451;1.3631;
88.5000;0.9475;1.3560;
88.8000;0.9451;1.3536;
89.1000;0.9483;1.3560;
89.4000;0.9467;1.3560;
89.7000;0.9475;1.3584;
90.0000;0.9459;1.3584;
90.3000;0.9451;1.3631;
90.6000;0.9491;1.3702;
90.9000;0.9475;1.3678;
91.2000;0.9475;1.3631;
91.5000;0.9459;1.3536;
91.8000;0.9475;1.3631;
92.1000;0.9459;1.3536;
92.4000;0.9426;1.3395;
92.7000;0.9459;1.3489;
93.0000;0.9475;1.3536;
93.3000;0.9467;1.3607;
93.6000;0.9410;1.3584;
93.9000;0.9451;1.3631;
94.2000;0.9475;1.3607;
94.5000;0.9499;1.3749;
94.8000;0.9467;1.3584;
95.1000;0.9499;1.3749;
95.4000;0.9467;1.3725;
95.7000;0.9467;1.3749;
96.0000;0.9426;1.3631;
96.3000;0.9442;1.3678;
96.6000;0.9467;1.3725;
96.9000;0.9475;1.3725;
97.2000;0.9459;1.3702;
97.5000;0.9483;1.3749;
97.8000;0.9459;1.3773;
98.1000;0.9467;1.3796;
98.4000;0.9467;1.3749;
98.7000;0.9451;1.3725;
99.0000;0.9467;1.3796;
99.3000;0.9475;1.3773;
99.6000;0.9475;1.3796;
99.9000;0.9532;1.3914;
100.2000;0.9475;1.3725;
100.5000;0.9475;1.3749;
100.8000;0.9540;1.3962;
101.1000;0.9467;1.3820;
101.4000;0.9459;1.3796;
101.7000;0.9434;1.3796;
102.0000;0.9475;1.3843;
102.3000;0.9459;1.3891;
102.6000;0.9451;1.3820;
102.9000;0.9442;1.3654;
103.2000;0.9459;1.3678;
103.5000;0.9459;1.3749;
103.8000;0.9459;1.3749;
104.1000;0.9459;1.3749;
104.4000;0.9459;1.3843;
104.7000;0.9491;1.3914;
105.0000;0.9451;1.3843;
105.3000;0.9459;1.3914;
105.6000;0.9459;1.3962;
105.9000;0.9459;1.3938;
106.2000;0.9459;1.3891;
106.5000;0.9467;1.3843;
106.8000;0.9467;1.3891;
107.1000;0.9475;1.3962;
107.4000;0.9483;1.3914;
107.7000;0.9459;1.3938;
108.0000;0.9353;1.3749;
108.3000;0.9483;1.4009;
108.6000;0.9467;1.3985;
108.9000;0.9483;1.3985;
109.2000;0.9467;1.3962;
109.5000;0.9451;1.3891;
109.8000;0.9467;1.3796;
110.1000;0.9459;1.3773;
110.4000;0.9451;1.3773;
110.7000;0.9451;1.3820;
111.0000;0.9483;1.3820;
111.3000;0.9467;1.3843;
111.6000;0.9442;1.3867;
111.9000;0.9426;1.3867;
112.2000;0.9442;1.3914;
112.5000;0.9434;1.3891;
112.8000;0.9483;1.3962;
113.1000;0.9442;1.3867;
113.4000;0.9459;1.3773;
113.7000;0.9442;1.3820;
114.0000;0.9418;1.3749;
114.3000;0.9467;1.3820;
114.6000;0.9459;1.3796;
114.9000;0.9442;1.3867;
115.2000;0.9418;1.3773;
115.5000;0.9451;1.3867;
115.8000;0.9467;1.3891;
116.1000;0.9467;1.3820;
116.4000;0.9475;1.3796;
116.7000;0.9410;1.3607;
117.0000;0.9459;1.3607;
117.3000;0.9467;1.3631;
117.6000;0.9459;1.3678;
117.9000;0.9459;1.3631;
118.2000;0.9467;1.3749;
118.5000;0.9451;1.3702;
118.8000;0.9475;1.3796;
119.1000;0.9459;1.3702;
119.4000;0.9483;1.3584;
119.7000;0.9475;1.3465;
120.0000;0.9410;1.3300;
120.3000;0.9459;1.3418;
120.6000;0.9467;1.3513;
120.9000;0.9475;1.3536;
121.2000;0.9459;1.3584;
121.5000;0.9451;1.3678;
121.8000;0.9459;1.3702;
122.1000;0.9434;1.3607;
122.4000;0.9467;1.3654;
122.7000;0.9475;1.3702;
123.0000;0.9426;1.3654;
123.3000;0.9459;1.3725;
123.6000;0.9467;1.3820;
123.9000;0.9451;1.3749;
124.2000;0.9467;1.3749;
124.5000;0.9434;1.3631;
124.8000;0.9442;1.3560;
125.1000;0.9516;1.3678;
125.4000;0.9516;1.3631;
125.7000;0.9451;1.3536;
126.0000;0.9467;1.3513;
126.3000;0.9459;1.3560;
126.6000;0.9451;1.3560;
126.9000;0.9459;1.3513;
127.2000;0.9459;1.3465;
127.5000;0.9459;1.3513;
127.8000;0.9483;1.3536;
128.1000;0.9459;1.3513;
128.4000;0.9451;1.3607;
128.7000;0.9459;1.3631;
129.0000;0.9451;1.3631;
129.3000;0.9442;1.3654;
129.6000;0.9475;1.3702;
129.9000;0.9467;1.3678;
130.2000;0.9475;1.3631;
130.5000;0.9467;1.3607;
130.8000;0.9451;1.3631;
131.1000;0.9467;1.3749;
131.4000;0.9467;1.3820;
131.7000;0.9451;1.3773;
132.0000;0.9556;1.4032;
132.3000;0.9377;1.3536;
132.6000;0.9418;1.3607;
132.9000;0.9459;1.3654;
133.2000;0.9459;1.3654;
133.5000;0.9451;1.3560;
133.8000;0.9451;1.3631;
134.1000;0.9451;1.3678;
134.4000;0.9451;1.3725;
134.7000;0.9459;1.3749;
135.0000;0.9483;1.3867;
135.3000;0.9475;1.3820;
135.6000;0.9459;1.3749;
135.9000;0.9459;1.3654;
136.2000;0.9459;1.3702;
136.5000;0.9451;1.3702;
136.8000;0.9442;1.3654;
137.1000;0.9499;1.3749;
137.4000;0.9442;1.3678;
137.7000;0.9475;1.3773;
138.0000;0.9442;1.3773;
138.3000;0.9475;1.3796;
138.6000;0.9442;1.3607;
138.9000;0.9442;1.3654;
139.2000;0.9442;1.3678;
139.5000;0.9442;1.3725;
139.8000;0.9467;1.3796;
140.1000;0.9459;1.3796;
140.4000;0.9459;1.3820;
140.7000;0.9475;1.3843;
141.0000;0.9459;1.3867;
141.3000;0.9459;1.3820;
141.6000;0.9451;1.3678;
141.9000;0.9467;1.3749;
142.2000;0.9459;1.3914;
142.5000;0.9459;1.3938;
142.8000;0.9459;1.3914;
143.1000;0.9483;1.3962;
143.4000;0.9451;1.3891;
143.7000;0.9483;1.3891;
144.0000;0.9451;1.3867;
144.3000;0.9459;1.3938;
144.6000;0.9459;1.3962;
144.9000;0.9459;1.3985;
145.2000;0.9451;1.3914;
145.5000;0.9442;1.3820;
145.8000;0.9451;1.3796;
146.1000;0.9451;1.3796;
146.4000;0.9467;1.3820;
146.7000;0.9361;1.3584;
147.0000;0.9451;1.3702;
147.3000;0.9442;1.3678;
147.6000;0.9451;1.3749;
147.9000;0.9442;1.3749;
148.2000;0.9451;1.3725;
148.5000;0.9491;1.3914;
148.8000;0.9451;1.3796;
149.1000;0.9434;1.3749;
149.4000;0.9418;1.3725;
149.7000;0.9451;1.3678;
150.0000;0.9573;1.3867;
150.3000;0.9402;1.3442;
150.6000;0.9491;1.3631;
150.9000;0.9459;1.3607;
151.2000;0.9459;1.3607;
151.5000;0.9361;1.3418;
151.8000;0.9418;1.3513;
152.1000;0.9459;1.3560;
152.4000;0.9459;1.3654;
152.7000;0.9483;1.3749;
153.0000;0.9467;1.3725;
153.3000;0.9442;1.3678;
153.6000;0.9451;1.3678;
153.9000;0.9451;1.3725;
154.2000;0.9483;1.3820;
154.5000;0.9451;1.3796;
154.8000;0.9451;1.3749;
155.1000;0.9459;1.3773;
155.4000;0.9459;1.3749;
155.7000;0.9459;1.3773;
156.0000;0.9475;1.3796;
156.3000;0.9442;1.3702;
156.6000;0.9467;1.3820;
156.9000;0.9475;1.3820;
157.2000;0.9459;1.3867;
157.5000;0.9459;1.3891;
157.8000;0.9467;1.3867;
158.1000;0.9467;1.3796;
158.4000;0.9467;1.3820;
158.7000;0.9451;1.3867;
159.0000;0.9459;1.3843;
159.3000;0.9459;1.3843;
159.6000;0.9459;1.3796;
159.9000;0.9483;1.3820;
160.2000;0.9499;1.3843;
160.5000;0.9442;1.3773;
160.8000;0.9459;1.3867;
161.1000;0.9459;1.3867;
161.4000;0.9459;1.3962;
161.7000;0.9459;1.3914;
162.0000;0.9442;1.3796;
162.3000;0.9475;1.3938;
162.6000;0.9442;1.3962;
162.9000;0.9451;1.4009;
163.2000;0.9434;1.4009;
163.5000;0.9434;1.3914;
163.8000;0.9459;1.3985;
164.1000;0.9451;1.3938;
164.4000;0.9459;1.3891;
164.7000;0.9434;1.3820;
165.0000;0.9426;1.3725;
165.3000;0.9442;1.3843;
165.6000;0.9451;1.3867;
165.9000;0.9459;1.3820;
166.2000;0.9451;1.3843;
166.5000;0.9426;1.3843;
166.8000;0.9442;1.3914;
167.1000;0.9467;1.3938;
167.4000;0.9475;1.3914;
167.7000;0.9451;1.3867;
168.0000;0.9451;1.3843;
168.3000;0.9467;1.3749;
168.6000;0.9451;1.3843;
168.9000;0.9442;1.3796;
169.2000;0.9442;1.3773;
169.5000;0.9451;1.3843;
169.8000;0.9426;1.3867;
170.1000;0.9451;1.3843;
170.4000;0.9426;1.3725;
170.7000;0.9459;1.3773;
171.0000;0.9475;1.3796;
171.3000;0.9491;1.3820;
171.6000;0.9451;1.3749;
171.9000;0.9451;1.3796;
172.2000;0.9459;1.3820;
172.5000;0.9483;1.3938;
172.8000;0.9442;1.3938;
173.1000;0.9451;1.3962;
173.4000;0.9459;1.3962;
173.7000;0.9459;1.3962;
174.0000;0.9467;1.3938;
174.3000;0.9418;1.3820;
174.6000;0.9565;1.4151;
174.9000;0.9410;1.3749;
175.2000;0.9385;1.3607;
175.5000;0.9499;1.3773;
175.8000;0.9459;1.3678;
176.1000;0.9467;1.3725;
176.4000;0.9459;1.3678;
176.7000;0.9451;1.3654;
177.0000;0.9467;1.3654;
177.3000;0.9442;1.3513;
177.6000;0.9459;1.3560;
177.9000;0.9442;1.3584;
178.2000;0.9475;1.3725;
178.5000;0.9451;1.3725;
178.8000;0.9434;1.3654;
179.1000;0.9451;1.3536;
179.4000;0.9451;1.3584;
179.7000;0.9451;1.3702;
180.0000;0.9451;1.3773;
180.3000;0.9410;1.3796;
180.6000;0.9451;1.3867;
180.9000;0.9442;1.3938;
181.2000;0.9459;1.4080;
181.5000;0.9442;1.4032;
181.8000;0.9499;1.4080;
182.1000;0.9451;1.3962;
182.4000;0.9434;1.3938;
182.7000;0.9459;1.3962;
183.0000;0.9442;1.3962;
183.3000;0.9434;1.4009;
183.6000;0.9459;1.4056;
183.9000;0.9426;1.4032;
184.2000;0.9426;1.4009;
184.5000;0.9434;1.3985;
184.8000;0.9426;1.3985;
185.1000;0.9442;1.3985;
185.4000;0.9451;1.3962;
185.7000;0.9426;1.3891;
186.0000;0.9459;1.3938;
186.3000;0.9451;1.3938;
186.6000;0.9434;1.3891;
186.9000;0.9451;1.3891;
187.2000;0.9548;1.4056;
187.5000;0.9434;1.3796;
187.8000;0.9467;1.3891;
188.1000;0.9442;1.3867;
188.4000;0.9459;1.3796;
188.7000;0.9442;1.3796;
189.0000;0.9459;1.3796;
189.3000;0.9418;1.3725;
189.6000;0.9426;1.3725;
189.9000;0.9491;1.3891;
190.2000;0.9442;1.3725;
190.5000;0.9516;1.4009;
190.8000;0.9442;1.3749;
191.1000;0.9418;1.3702;
191.4000;0.9442;1.3773;
191.7000;0.9540;1.3962;
192.0000;0.9426;1.3631;
192.3000;0.9451;1.3796;
192.6000;0.9459;1.3867;
192.9000;0.9451;1.3891;
193.2000;0.9442;1.3962;
193.5000;0.9451;1.3985;
193.8000;0.9459;1.4009;
194.1000;0.9451;1.3985;
194.4000;0.9451;1.3962;
194.7000;0.9483;1.3914;
195.0000;0.9434;1.3773;
195.3000;0.9451;1.3749;
195.6000;0.9451;1.3749;
195.9000;0.9459;1.3820;
196.2000;0.9442;1.3820;
196.5000;0.9451;1.3820;
196.8000;0.9467;1.3914;
197.1000;0.9418;1.3820;
197.4000;0.9451;1.3843;
197.7000;0.9467;1.3843;
198.0000;0.9426;1.3749;
198.3000;0.9451;1.3867;
198.6000;0.9451;1.3867;
198.9000;0.9459;1.3891;
199.2000;0.9459;1.3914;
199.5000;0.9467;1.3796;
199.8000;0.9434;1.3820;
200.1000;0.9442;1.3773;
200.4000;0.9442;1.3654;
200.7000;0.9442;1.3631;
201.0000;0.9426;1.3654;
201.3000;0.9434;1.3702;
201.6000;0.9451;1.3796;
201.9000;0.9442;1.3749;
202.2000;0.9467;1.3749;
202.5000;0.9459;1.3725;
202.8000;0.9491;1.3867;
203.1000;0.9459;1.3843;
203.4000;0.9442;1.3796;
203.7000;0.9451;1.3773;
204.0000;0.9442;1.3749;
204.3000;0.9459;1.3725;
204.6000;0.9459;1.3773;
204.9000;0.9426;1.3749;
205.2000;0.9434;1.3749;
205.5000;0.9442;1.3725;
205.8000;0.9459;1.3725;
206.1000;0.9459;1.3796;
206.4000;0.9491;1.3938;
206.7000;0.9418;1.3725;
207.0000;0.9442;1.3820;
207.3000;0.9385;1.3631;
207.6000;0.9434;1.3678;
207.9000;0.9426;1.3631;
208.2000;0.9459;1.3678;
208.5000;0.9451;1.3702;
208.8000;0.9369;1.3489;
209.1000;0.9434;1.3607;
209.4000;0.9459;1.3702;
209.7000;0.9451;1.3654;
210.0000;0.9434;1.3702;
210.3000;0.9434;1.3654;
210.6000;0.9442;1.3654;
210.9000;0.9467;1.3631;
211.2000;0.9467;1.3607;
211.5000;0.9426;1.3536;
211.8000;0.9459;1.3654;
212.1000;0.9459;1.3607;
212.4000;0.9459;1.3654;
212.7000;0.9459;1.3749;
213.0000;0.9459;1.3702;
213.3000;0.9459;1.3678;
213.6000;0.9442;1.3631;
213.9000;0.9459;1.3654;
214.2000;0.9475;1.3607;
214.5000;0.9459;1.3584;
214.8000;0.9442;1.3536;
215.1000;0.9451;1.3584;
215.4000;0.9467;1.3536;
215.7000;0.9491;1.3702;
216.0000;0.9459;1.3654;
216.3000;0.9442;1.3631;
216.6000;0.9451;1.3678;
216.9000;0.9410;1.3631;
217.2000;0.9451;1.3678;
217.5000;0.9532;1.3938;
217.8000;0.9442;1.3749;
218.1000;0.9451;1.3749;
218.4000;0.9434;1.3773;
218.7000;0.9426;1.3796;
219.0000;0.9418;1.3773;
219.3000;0.9451;1.3843;
219.6000;0.9434;1.3843;
219.9000;0.9353;1.3607;
220.2000;0.9426;1.3725;
220.5000;0.9434;1.3773;
220.8000;0.9434;1.3749;
221.1000;0.9434;1.3678;
221.4000;0.9442;1.3631;
221.7000;0.9426;1.3584;
222.0000;0.9434;1.3607;
222.3000;0.9459;1.3654;
222.6000;0.9418;1.3560;
222.9000;0.9434;1.3607;
223.2000;0.9451;1.3631;
223.5000;0.9451;1.3584;
223.8000;0.9442;1.3513;
224.1000;0.9426;1.3513;
224.4000;0.9426;1.3536;
224.7000;0.9410;1.3489;
225.0000;0.9451;1.3607;
225.3000;0.9426;1.3513;
225.6000;0.9442;1.3536;
225.9000;0.9434;1.3536;
226.2000;0.9442;1.3560;
226.5000;0.9442;1.3584;
226.8000;0.9434;1.3607;
227.1000;0.9451;1.3749;
227.4000;0.9459;1.3725;
227.7000;0.9442;1.3702;
228.0000;0.9434;1.3654;
228.3000;0.9467;1.3725;
228.6000;0.9451;1.3654;
228.9000;0.9385;1.3584;
229.2000;0.9491;1.3820;
229.5000;0.9442;1.3607;
229.8000;0.9442;1.3607;
230.1000;0.9451;1.3678;
230.4000;0.9442;1.3654;
230.7000;0.9442;1.3607;
231.0000;0.9451;1.3631;
231.3000;0.9434;1.3607;
231.6000;0.9426;1.3584;
231.9000;0.9442;1.3607;
232.2000;0.9451;1.3584;
232.5000;0.9442;1.3654;
232.8000;0.9442;1.3654;
233.1000;0.9451;1.3654;
233.4000;0.9491;1.3725;
233.7000;0.9442;1.3607;
234.0000;0.9451;1.3631;
234.3000;0.9434;1.3584;
234.6000;0.9369;1.3560;
234.9000;0.9524;1.3938;
235.2000;0.9426;1.3725;
235.5000;0.9516;1.3938;
235.8000;0.9451;1.3796;
236.1000;0.9426;1.3702;
236.4000;0.9451;1.3702;
236.7000;0.9442;1.3678;
237.0000;0.9451;1.3702;
237.3000;0.9459;1.3725;
237.6000;0.9459;1.3773;
237.9000;0.9442;1.3749;
238.2000;0.9442;1.3796;
238.5000;0.9459;1.3843;
238.8000;0.9442;1.3938;
239.1000;0.9434;1.3914;
239.4000;0.9426;1.3796;
239.7000;0.9442;1.3702;
240.0000;0.9451;1.3725;
240.3000;0.9434;1.3631;
240.6000;0.9434;1.3678;
240.9000;0.9434;1.3607;
241.2000;0.9442;1.3702;
241.5000;0.9491;1.3773;
241.8000;0.9434;1.3678;
242.1000;0.9451;1.3725;
242.4000;0.9451;1.3725;
242.7000;0.9426;1.3702;
243.0000;0.9426;1.3749;
243.3000;0.9442;1.3796;
243.6000;0.9434;1.3820;
243.9000;0.9451;1.3820;
244.2000;0.9442;1.3843;
244.5000;0.9451;1.3796;
244.8000;0.9459;1.3749;
245.1000;0.9573;1.3891;
245.4000;0.9467;1.3631;
245.7000;0.9442;1.3584;
246.0000;0.9426;1.3513;
246.3000;0.9451;1.3607;
246.6000;0.9434;1.3560;
246.9000;0.9442;1.3584;
247.2000;0.9442;1.3607;
247.5000;0.9442;1.3631;
247.8000;0.9418;1.3702;
248.1000;0.9434;1.3725;
248.4000;0.9442;1.3702;
248.7000;0.9516;1.3867;
249.0000;0.9451;1.3773;
249.3000;0.9451;1.3749;
249.6000;0.9451;1.3702;
249.9000;0.9451;1.3678;
250.2000;0.9475;1.3607;
250.5000;0.9467;1.3560;
250.8000;0.9442;1.3560;
251.1000;0.9434;1.3536;
251.4000;0.9451;1.3584;
251.7000;0.9434;1.3489;
252.0000;0.9434;1.3560;
252.3000;0.9442;1.3560;
252.6000;0.9451;1.3560;
252.9000;0.9418;1.3465;
253.2000;0.9442;1.3536;
253.5000;0.9442;1.3536;
253.8000;0.9442;1.3560;
254.1000;0.9410;1.3418;
254.4000;0.9442;1.3584;
254.7000;0.9394;1.3513;
255.0000;0.9451;1.3725;
255.3000;0.9459;1.3749;
255.6000;0.9451;1.3725;
255.9000;0.9442;1.3678;
256.2000;0.9442;1.3678;
256.5000;0.9442;1.3654;
256.8000;0.9434;1.3678;
257.1000;0.9467;1.3749;
257.4000;0.9385;1.3607;
257.7000;0.9442;1.3678;
258.0000;0.9442;1.3725;
258.3000;0.9442;1.3654;
258.6000;0.9426;1.3536;
258.9000;0.9451;1.3654;
259.2000;0.9459;1.3584;
259.5000;0.9394;1.3489;
259.8000;0.9434;1.3560;
260.1000;0.9459;1.3584;
260.4000;0.9451;1.3607;
260.7000;0.9442;1.3631;
261.0000;0.9451;1.3702;
261.3000;0.9451;1.3678;
261.6000;0.9459;1.3607;
261.9000;0.9442;1.3536;
262.2000;0.9451;1.3560;
262.5000;0.9434;1.3702;
262.8000;0.9442;1.3749;
263.1000;0.9451;1.3773;
263.4000;0.9442;1.3773;
263.7000;0.9508;1.3914;
264.0000;0.9467;1.3678;
264.3000;0.9459;1.3607;
264.6000;0.9426;1.3607;
264.9000;0.9442;1.3584;
265.2000;0.9451;1.3560;
265.5000;0.9451;1.3560;
265.8000;0.9451;1.3631;
266.1000;0.9426;1.3536;
266.4000;0.9434;1.3536;
266.7000;0.9434;1.3513;
267.0000;0.9475;1.3631;
267.3000;0.9475;1.3702;
267.6000;0.9426;1.3607;
267.9000;0.9434;1.3631;
268.2000;0.9475;1.3820;
268.5000;0.9451;1.3820;
268.8000;0.9385;1.3631;
269.1000;0.9459;1.3796;
269.4000;0.9442;1.3749;
269.7000;0.9442;1.3702;
270.0000;0.9426;1.3678;
270.3000;0.9434;1.3654;
270.6000;0.9451;1.3631;
270.9000;0.9426;1.3607;
271.2000;0.9434;1.3631;
271.5000;0.9426;1.3631;
271.8000;0.9459;1.3725;
272.1000;0.9548;1.3914;
272.4000;0.9426;1.3678;
272.7000;0.9418;1.3725;
273.0000;0.9426;1.3702;
273.3000;0.9467;1.3725;
273.6000;0.9410;1.3607;
273.9000;0.9426;1.3607;
274.2000;0.9434;1.3536;
274.5000;0.9442;1.3513;
274.8000;0.9442;1.3489;
275.1000;0.9451;1.3560;
275.4000;0.9434;1.3584;
275.7000;0.9451;1.3678;
276.0000;0.9410;1.3584;
276.3000;0.9434;1.3584;
276.6000;0.9418;1.3513;
276.9000;0.9434;1.3536;
277.2000;0.9410;1.3442;
277.5000;0.9418;1.3465;
277.8000;0.9410;1.3442;
278.1000;0.9434;1.3489;
278.4000;0.9426;1.3513;
278.7000;0.9426;1.3513;
279.0000;0.9418;1.3560;
279.3000;0.9434;1.3654;
279.6000;0.9442;1.3725;
279.9000;0.9467;1.3725;
280.2000;0.9426;1.3631;
280.5000;0.9385;1.3560;
280.8000;0.9410;1.3536;
281.1000;0.9442;1.3584;
281.4000;0.9434;1.3678;
281.7000;0.9337;1.3584;
282.0000;0.9434;1.3773;
282.3000;0.9434;1.3678;
282.6000;0.9426;1.3607;
282.9000;0.9434;1.3654;
283.2000;0.9442;1.3678;
283.5000;0.9426;1.3678;
283.8000;0.9426;1.3654;
284.1000;0.9426;1.3631;
284.4000;0.9451;1.3654;
284.7000;0.9394;1.3513;
285.0000;0.9451;1.3678;
285.3000;0.9434;1.3631;
285.6000;0.9434;1.3678;
285.9000;0.9434;1.3725;
286.2000;0.9434;1.3678;
286.5000;0.9410;1.3607;
286.8000;0.9459;1.3702;
287.1000;0.9442;1.3678;
287.4000;0.9459;1.3702;
287.7000;0.9442;1.3796;
288.0000;0.9418;1.3749;
288.3000;0.9442;1.3796;
288.6000;0.9434;1.3843;
288.9000;0.9434;1.3773;
289.2000;0.9451;1.3843;
289.5000;0.9402;1.3773;
289.8000;0.9451;1.3843;
290.1000;0.9442;1.3867;
290.4000;0.9410;1.3749;
290.7000;0.9442;1.3749;
291.0000;0.9442;1.3773;
291.3000;0.9442;1.3773;
291.6000;0.9442;1.3773;
291.9000;0.9434;1.3796;
292.2000;0.9467;1.3820;
292.5000;0.9467;1.3867;
292.8000;0.9426;1.3843;
293.1000;0.9459;1.3867;
293.4000;0.9426;1.3843;
293.7000;0.9459;1.3843;
294.0000;0.9442;1.3725;
294.3000;0.9361;1.3536;
294.6000;0.9451;1.3749;
294.9000;0.9459;1.3773;
295.2000;0.9451;1.3725;
295.5000;0.9451;1.3702;
295.8000;0.9418;1.3678;
296.1000;0.9442;1.3725;
296.4000;0.9524;1.3938;
296.7000;0.9434;1.3725;
297.0000;0.9442;1.3678;
297.3000;0.9328;1.3300;
297.6000;0.9418;1.3513;
297.9000;0.9418;1.3560;
298.2000;0.9434;1.3584;
298.5000;0.9442;1.3678;
298.8000;0.9434;1.3749;
299.1000;0.9459;1.3820;
299.4000;0.9377;1.3631;
299.7000;0.9434;1.3678;
300.0000;0.9475;1.3773;
300.3000;0.9442;1.3725;
300.6000;0.9442;1.3678;
300.9000;0.9434;1.3773;
301.2000;0.9434;1.3678;
301.5000;0.9442;1.3749;
301.8000;0.9434;1.3725;
302.1000;0.9426;1.3702;
302.4000;0.9418;1.3678;
302.7000;0.9434;1.3725;
303.0000;0.9451;1.3654;
303.3000;0.9524;1.3843;
303.6000;0.9434;1.3678;
303.9000;0.9434;1.3560;
304.2000;0.9467;1.3584;
304.5000;0.9402;1.3489;
304.8000;0.9442;1.3631;
305.1000;0.9426;1.3584;
305.4000;0.9451;1.3607;
305.7000;0.9402;1.3513;
306.0000;0.9499;1.3749;
306.3000;0.9426;1.3513;
306.6000;0.9426;1.3489;
306.9000;0.9434;1.3536;
307.2000;0.9426;1.3631;
307.5000;0.9410;1.3654;
307.8000;0.9418;1.3654;
308.1000;0.9434;1.3749;
308.4000;0.9410;1.3702;
308.7000;0.9394;1.3725;
309.0000;0.9426;1.3820;
309.3000;0.9426;1.3796;
309.6000;0.9426;1.3725;
309.9000;0.9442;1.3702;
310.2000;0.9426;1.3584;
310.5000;0.9434;1.3631;
310.8000;0.9434;1.3584;
311.1000;0.9418;1.3607;
311.4000;0.9451;1.3702;
311.7000;0.9426;1.3678;
312.0000;0.9434;1.3678;
312.3000;0.9402;1.3560;
312.6000;0.9434;1.3560;
312.9000;0.9442;1.3536;
313.2000;0.9442;1.3536;
313.5000;0.9434;1.3607;
313.8000;0.9426;1.3654;
314.1000;0.9426;1.3631;
314.4000;0.9442;1.3654;
314.7000;0.9418;1.3702;
315.0000;0.9451;1.3773;
315.3000;0.9434;1.3678;
315.6000;0.9434;1.3702;
315.9000;0.9426;1.3631;
316.2000;0.9451;1.3678;
316.5000;0.9434;1.3607;
316.8000;0.9459;1.3702;
317.1000;0.9426;1.3607;
317.4000;0.9426;1.3631;
317.7000;0.9426;1.3607;
318.0000;0.9442;1.3678;
318.3000;0.9442;1.3560;
318.6000;0.9418;1.3489;
318.9000;0.9418;1.3489;
319.2000;0.9426;1.3489;
319.5000;0.9451;1.3513;
319.8000;0.9418;1.3513;
320.1000;0.9434;1.3584;
320.4000;0.9426;1.3489;
320.7000;0.9434;1.3536;
321.0000;0.9426;1.3513;
321.3000;0.9410;1.3371;
321.6000;0.9442;1.3489;
321.9000;0.9442;1.3513;
322.2000;0.9459;1.3536;
322.5000;0.9451;1.3536;
322.8000;0.9451;1.3607;
323.1000;0.9434;1.3607;
323.4000;0.9385;1.3513;
323.7000;0.9353;1.3418;
324.0000;0.9434;1.3607;
324.3000;0.9483;1.3725;
324.6000;0.9434;1.3607;
324.9000;0.9426;1.3536;
325.2000;0.9434;1.3489;
325.5000;0.9434;1.3465;
325.8000;0.9451;1.3513;
326.1000;0.9385;1.3371;
326.4000;0.9402;1.3371;
326.7000;0.9451;1.3442;
327.0000;0.9483;1.3560;
327.3000;0.9410;1.3536;
327.6000;0.9418;1.3584;
327.9000;0.9410;1.3607;
328.2000;0.9442;1.3678;
328.5000;0.9418;1.3678;
328.8000;0.9434;1.3749;
329.1000;0.9426;1.3678;
329.4000;0.9442;1.3631;
329.7000;0.9410;1.3584;
330.0000;0.9426;1.3560;
330.3000;0.9426;1.3536;
330.6000;0.9377;1.3465;
330.9000;0.9442;1.3489;
331.2000;0.9418;1.3324;
331.5000;0.9410;1.3395;
331.8000;0.9426;1.3371;
332.1000;0.9426;1.3371;
332.4000;0.9418;1.3395;
332.7000;0.9418;1.3442;
333.0000;0.9426;1.3465;
333.3000;0.9442;1.3513;
333.6000;0.9434;1.3442;
333.9000;0.9426;1.3489;
334.2000;0.9426;1.3536;
334.5000;0.9434;1.3607;
334.8000;0.9475;1.3702;
335.1000;0.9459;1.3631;
335.4000;0.9426;1.3631;
335.7000;0.9442;1.3702;
336.0000;0.9434;1.3678;
336.3000;0.9434;1.3654;
336.6000;0.9402;1.3654;
336.9000;0.9418;1.3678;
337.2000;0.9442;1.3796;
337.5000;0.9418;1.3725;
337.8000;0.9418;1.3702;
338.1000;0.9426;1.3654;
338.4000;0.9426;1.3654;
338.7000;0.9434;1.3678;
339.0000;0.9483;1.3843;
339.3000;0.9353;1.3536;
339.6000;0.9434;1.3654;
339.9000;0.9434;1.3584;
340.2000;0.9426;1.3607;
340.5000;0.9442;1.3654;
340.8000;0.9345;1.3465;
341.1000;0.9451;1.3631;
341.4000;0.9426;1.3584;
341.7000;0.9402;1.3513;
342.0000;0.9442;1.3607;
342.3000;0.9451;1.3678;
342.6000;0.9491;1.3749;
342.9000;0.9434;1.3584;
343.2000;0.9442;1.3631;
343.5000;0.9434;1.3607;
343.8000;0.9426;1.3678;
344.1000;0.9442;1.3678;
344.4000;0.9426;1.3654;
344.7000;0.9434;1.3678;
345.0000;0.9442;1.3631;
345.3000;0.9434;1.3654;
345.6000;0.9434;1.3749;
345.9000;0.9467;1.3820;
346.2000;0.9442;1.3702;
346.5000;0.9426;1.3631;
346.8000;0.9459;1.3584;
347.1000;0.9426;1.3489;
347.4000;0.9434;1.3536;
347.7000;0.9394;1.3418;
348.0000;0.9426;1.3442;
348.3000;0.9467;1.3584;
348.6000;0.9434;1.3560;
348.9000;0.9434;1.3607;
349.2000;0.9385;1.3607;
349.5000;0.9394;1.3678;
349.8000;0.9426;1.3749;
350.1000;0.9426;1.3725;
350.4000;0.9402;1.3584;
350.7000;0.9394;1.3654;
351.0000;0.9418;1.3820;
351.3000;0.9418;1.3891;
351.6000;0.9394;1.3796;
351.9000;0.9418;1.3867;
352.2000;0.9402;1.3796;
352.5000;0.9442;1.3891;
352.8000;0.9434;1.3843;
353.1000;0.9418;1.3796;
353.4000;0.9418;1.3749;
353.7000;0.9418;1.3749;
354.0000;0.9410;1.3678;
354.3000;0.9418;1.3678;
354.6000;0.9402;1.3607;
354.9000;0.9402;1.3607;
355.2000;0.9410;1.3631;
355.5000;0.9402;1.3607;
355.8000;0.9402;1.3631;
356.1000;0.9475;1.3843;
356.4000;0.9434;1.3702;
356.7000;0.9418;1.3678;
357.0000;0.9410;1.3702;
357.3000;0.9442;1.3796;
357.6000;0.9491;1.3891;
357.9000;0.9459;1.3891;
358.2000;0.9434;1.3796;
358.5000;0.9418;1.3702;
358.8000;0.9410;1.3654;
359.1000;0.9434;1.3678;
359.4000;0.9434;1.3631;
359.7000;0.9418;1.3702;
360.0000;0.9442;1.3773;
360.3000;0.9451;1.3914;
360.6000;0.9467;1.3867;
360.9000;0.9426;1.3702;
361.2000;0.9410;1.3654;
361.5000;0.9442;1.3678;
361.8000;0.9434;1.3607;
362.1000;0.9418;1.3513;
362.4000;0.9426;1.3536;
362.7000;0.9499;1.3773;
363.0000;0.9434;1.3560;
363.3000;0.9394;1.3418;
363.6000;0.9410;1.3465;
363.9000;0.9434;1.3442;
364.2000;0.9434;1.3536;
364.5000;0.9410;1.3513;
364.8000;0.9508;1.3749;
365.1000;0.9410;1.3489;
365.4000;0.9451;1.3631;
365.7000;0.9426;1.3560;
366.0000;0.9426;1.3489;
366.3000;0.9426;1.3442;
366.6000;0.9410;1.3513;
366.9000;0.9328;1.3300;
367.2000;0.9451;1.3584;
367.5000;0.9442;1.3654;
367.8000;0.9451;1.3560;
368.1000;0.9442;1.3560;
368.4000;0.9434;1.3584;
368.7000;0.9442;1.3489;
369.0000;0.9540;1.3702;
369.3000;0.9442;1.3489;
369.6000;0.9426;1.3418;
369.9000;0.9410;1.3324;
370.2000;0.9410;1.3347;
370.5000;0.9410;1.3395;
370.8000;0.9418;1.3513;
371.1000;0.9353;1.3371;
371.4000;0.9418;1.3560;
371.7000;0.9418;1.3654;
372.0000;0.9402;1.3584;
372.3000;0.9418;1.3584;
372.6000;0.9402;1.3560;
372.9000;0.9418;1.3702;
373.2000;0.9426;1.3654;
373.5000;0.9402;1.3584;
373.8000;0.9418;1.3678;
374.1000;0.9426;1.3702;
374.4000;0.9394;1.3678;
374.7000;0.9434;1.3749;
375.0000;0.9385;1.3584;
375.3000;0.9434;1.3678;
375.6000;0.9418;1.3631;
375.9000;0.9394;1.3536;
376.2000;0.9410;1.3536;
376.5000;0.9394;1.3536;
376.8000;0.9426;1.3513;
377.1000;0.9418;1.3465;
377.4000;0.9459;1.3584;
377.7000;0.9426;1.3607;
378.0000;0.9418;1.3631;
378.3000;0.9426;1.3749;
378.6000;0.9434;1.3702;
378.9000;0.9442;1.3654;
379.2000;0.9410;1.3560;
379.5000;0.9402;1.3607;
379.8000;0.9377;1.3489;
380.1000;0.9410;1.3536;
380.4000;0.9418;1.3536;
380.7000;0.9410;1.3489;
381.0000;0.9418;1.3513;
381.3000;0.9418;1.3442;
381.6000;0.9418;1.3395;
381.9000;0.9426;1.3371;
382.2000;0.9426;1.3418;
382.5000;0.9418;1.3442;
382.8000;0.9402;1.3395;
383.1000;0.9410;1.3347;
383.4000;0.9418;1.3395;
383.7000;0.9385;1.3347;
384.0000;0.9426;1.3465;
384.3000;0.9402;1.3442;
384.6000;0.9426;1.3584;
384.9000;0.9418;1.3631;
385.2000;0.9402;1.3631;
385.5000;0.9434;1.3678;
385.8000;0.9410;1.3631;
386.1000;0.9418;1.3560;
386.4000;0.9418;1.3513;
386.7000;0.9369;1.3560;
387.0000;0.9418;1.3631;
387.3000;0.9394;1.3536;
387.6000;0.9418;1.3654;
387.9000;0.9418;1.3702;
388.2000;0.9402;1.3654;
388.5000;0.9410;1.3678;
388.8000;0.9418;1.3678;
389.1000;0.9410;1.3749;
389.4000;0.9418;1.3654;
389.7000;0.9426;1.3536;
390.0000;0.9418;1.3560;
390.3000;0.9418;1.3489;
390.6000;0.9418;1.3489;
390.9000;0.9475;1.3749;
391.2000;0.9418;1.3536;
391.5000;0.9402;1.3560;
391.8000;0.9402;1.3654;
392.1000;0.9434;1.3678;
392.4000;0.9410;1.3654;
392.7000;0.9467;1.3773;
393.0000;0.9491;1.3678;
393.3000;0.9402;1.3489;
393.6000;0.9418;1.3536;
393.9000;0.9410;1.3489;
394.2000;0.9426;1.3513;
394.5000;0.9434;1.3465;
394.8000;0.9377;1.3324;
395.1000;0.9426;1.3442;
395.4000;0.9426;1.3324;
395.7000;0.9434;1.3324;
396.0000;0.9410;1.3229;
396.3000;0.9418;1.3253;
396.6000;0.9426;1.3324;
396.9000;0.9402;1.3276;
397.2000;0.9385;1.3253;
397.5000;0.9385;1.3300;
397.8000;0.9434;1.3324;
398.1000;0.9418;1.3276;
398.4000;0.9426;1.3347;
398.7000;0.9418;1.3418;
399.0000;0.9459;1.3560;
399.3000;0.9418;1.3465;
399.6000;0.9410;1.3489;
399.9000;0.9434;1.3513;
400.2000;0.9418;1.3536;
400.5000;0.9385;1.3442;
400.8000;0.9426;1.3489;
401.1000;0.9410;1.3489;
401.4000;0.9402;1.3513;
401.7000;0.9394;1.3513;
402.0000;0.9442;1.3584;
402.3000;0.9402;1.3536;
402.6000;0.9394;1.3560;
402.9000;0.9410;1.3560;
403.2000;0.9418;1.3465;
403.5000;0.9402;1.3465;
403.8000;0.9426;1.3489;
404.1000;0.9426;1.3418;
404.4000;0.9451;1.3418;
404.7000;0.9434;1.3300;
405.0000;0.9434;1.3347;
405.3000;0.9394;1.3276;
405.6000;0.9369;1.3206;
405.9000;0.9434;1.3324;
406.2000;0.9418;1.3300;
406.5000;0.9426;1.3324;
406.8000;0.9459;1.3300;
407.1000;0.9418;1.3158;
407.4000;0.9410;1.3253;
407.7000;0.9434;1.3253;
408.0000;0.9353;1.2993;
408.3000;0.9410;1.3087;
408.6000;0.9353;1.2993;
408.9000;0.9402;1.3206;
409.2000;0.9459;1.3418;
409.5000;0.9426;1.3371;
409.8000;0.9402;1.3347;
410.1000;0.9385;1.3371;
410.4000;0.9426;1.3442;
410.7000;0.9402;1.3465;
411.0000;0.9418;1.3536;
411.3000;0.9434;1.3607;
411.6000;0.9426;1.3654;
411.9000;0.9418;1.3702;
412.2000;0.9418;1.3702;
412.5000;0.9434;1.3631;
412.8000;0.9377;1.3560;
413.1000;0.9328;1.3442;
413.4000;0.9402;1.3607;
413.7000;0.9394;1.3442;
414.0000;0.9426;1.3513;
414.3000;0.9467;1.3560;
414.6000;0.9467;1.3584;
414.9000;0.9418;1.3536;
415.2000;0.9434;1.3631;
415.5000;0.9434;1.3584;
415.8000;0.9410;1.3607;
416.1000;0.9426;1.3560;
416.4000;0.9402;1.3513;
416.7000;0.9418;1.3607;
417.0000;0.9426;1.3654;
417.3000;0.9410;1.3702;
417.6000;0.9394;1.3749;
417.9000;0.9402;1.3654;
418.2000;0.9483;1.3725;
418.5000;0.9434;1.3560;
418.8000;0.9418;1.3560;
419.1000;0.9459;1.3725;
419.4000;0.9410;1.3631;
419.7000;0.9410;1.3631;
420.0000;0.9418;1.3702;
420.3000;0.9426;1.3773;
420.6000;0.9410;1.3749;
420.9000;0.9402;1.3654;
421.2000;0.9402;1.3678;
421.5000;0.9418;1.3725;
421.8000;0.9418;1.3702;
422.1000;0.9418;1.3678;
422.4000;0.9394;1.3725;
422.7000;0.9410;1.3796;
423.0000;0.9410;1.3820;
423.3000;0.9402;1.3749;
423.6000;0.9410;1.3749;
423.9000;0.9418;1.3796;
424.2000;0.9410;1.3749;
424.5000;0.9442;1.3773;
424.8000;0.9402;1.3702;
425.1000;0.9426;1.3678;
425.4000;0.9410;1.3584;
425.7000;0.9385;1.3465;
426.0000;0.9442;1.3749;
426.3000;0.9418;1.3678;
426.6000;0.9402;1.3725;
426.9000;0.9402;1.3749;
427.2000;0.9402;1.3725;
427.5000;0.9402;1.3773;
427.8000;0.9402;1.3843;
428.1000;0.9418;1.3725;
428.4000;0.9385;1.3560;
428.7000;0.9410;1.3536;
429.0000;0.9418;1.3607;
429.3000;0.9369;1.3560;
429.6000;0.9426;1.3631;
429.9000;0.9394;1.3560;
430.2000;0.9418;1.3654;
430.5000;0.9418;1.3631;
430.8000;0.9394;1.3584;
431.1000;0.9418;1.3654;
431.4000;0.9418;1.3654;
431.7000;0.9451;1.3725;
432.0000;0.9394;1.3584;
432.3000;0.9402;1.3584;
432.6000;0.9442;1.3773;
432.9000;0.9353;1.3678;
433.2000;0.9369;1.3725;
433.5000;0.9410;1.3773;
433.8000;0.9361;1.3702;
434.1000;0.9410;1.3773;
434.4000;0.9402;1.3796;
434.7000;0.9394;1.3702;
435.0000;0.9394;1.3654;
435.3000;0.9418;1.3631;
435.6000;0.9402;1.3654;
435.9000;0.9434;1.3773;
436.2000;0.9394;1.3654;
436.5000;0.9394;1.3654;
436.8000;0.9434;1.3749;
437.1000;0.9418;1.3725;
437.4000;0.9426;1.3702;
437.7000;0.9328;1.3442;
438.0000;0.9402;1.3654;
438.3000;0.9459;1.3796;
438.6000;0.9426;1.3725;
438.9000;0.9410;1.3702;
439.2000;0.9385;1.3631;
439.5000;0.9418;1.3702;
439.8000;0.9410;1.3631;
440.1000;0.9418;1.3702;
440.4000;0.9451;1.3749;
440.7000;0.9426;1.3631;
441.0000;0.9451;1.3749;
441.3000;0.9385;1.3654;
441.6000;0.9418;1.3678;
441.9000;0.9418;1.3678;
442.2000;0.9467;1.3749;
442.5000;0.9426;1.3654;
442.8000;0.9483;1.3820;
443.1000;0.9418;1.3654;
443.4000;0.9418;1.3584;
443.7000;0.9402;1.3513;
444.0000;0.9402;1.3607;
444.3000;0.9475;1.3867;
444.6000;0.9434;1.3867;
444.9000;0.9410;1.3796;
445.2000;0.9394;1.3843;
445.5000;0.9410;1.3820;
445.8000;0.9394;1.3725;
446.1000;0.9418;1.3796;
446.4000;0.9410;1.3702;
446.7000;0.9394;1.3631;
447.0000;0.9410;1.3607;
447.3000;0.9418;1.3584;
447.6000;0.9442;1.3607;
447.9000;0.9410;1.3536;
448.2000;0.9410;1.3584;
448.5000;0.9353;1.3418;
448.8000;0.9402;1.3513;
449.1000;0.9410;1.3536;
449.4000;0.9394;1.3560;
449.7000;0.9410;1.3513;
450.0000;0.9410;1.3489;
450.3000;0.9394;1.3513;
450.6000;0.9337;1.3465;
450.9000;0.9418;1.3584;
451.2000;0.9410;1.3631;
451.5000;0.9377;1.3607;
451.8000;0.9402;1.3654;
452.1000;0.9418;1.3820;
452.4000;0.9385;1.3796;
452.7000;0.9426;1.3820;
453.0000;0.9394;1.3796;
453.3000;0.9410;1.3867;
453.6000;0.9410;1.3796;
453.9000;0.9402;1.3702;
454.2000;0.9410;1.3631;
454.5000;0.9410;1.3631;
454.8000;0.9353;1.3513;
455.1000;0.9410;1.3654;
455.4000;0.9369;1.3536;
455.7000;0.9459;1.3749;
456.0000;0.9410;1.3654;
456.3000;0.9426;1.3654;
456.6000;0.9377;1.3560;
456.9000;0.9410;1.3631;
457.2000;0.9402;1.3654;
457.5000;0.9328;1.3465;
457.8000;0.9402;1.3654;
458.1000;0.9402;1.3607;
458.4000;0.9410;1.3584;
458.7000;0.9394;1.3536;
459.0000;0.9410;1.3560;
459.3000;0.9377;1.3536;
459.6000;0.9402;1.3631;
459.9000;0.9410;1.3654;
460.2000;0.9434;1.3654;
460.5000;0.9402;1.3513;
460.8000;0.9426;1.3513;
461.1000;0.9426;1.3536;
461.4000;0.9410;1.3489;
461.7000;0.9402;1.3560;
462.0000;0.9410;1.3489;
462.3000;0.9426;1.3607;
462.6000;0.9426;1.3631;
462.9000;0.9394;1.3607;
463.2000;0.9410;1.3584;
463.5000;0.9402;1.3536;
463.8000;0.9418;1.3584;
464.1000;0.9361;1.3418;
464.4000;0.9418;1.3489;
464.7000;0.9410;1.3489;
465.0000;0.9442;1.3513;
465.3000;0.9410;1.3395;
465.6000;0.9418;1.3418;
465.9000;0.9418;1.3442;
466.2000;0.9418;1.3513;
466.5000;0.9410;1.3489;
466.8000;0.9402;1.3536;
467.1000;0.9377;1.3418;
467.4000;0.9418;1.3584;
467.7000;0.9418;1.3607;
468.0000;0.9410;1.3560;
468.3000;0.9385;1.3536;
468.6000;0.9402;1.3654;
468.9000;0.9394;1.3654;
469.2000;0.9394;1.3654;
469.5000;0.9410;1.3654;
469.8000;0.9394;1.3607;
470.1000;0.9410;1.3631;
470.4000;0.9410;1.3654;
470.7000;0.9410;1.3654;
471.0000;0.9410;1.3631;
471.3000;0.9426;1.3702;
471.6000;0.9402;1.3607;
471.9000;0.9410;1.3678;
472.2000;0.9426;1.3678;
472.5000;0.9345;1.3465;
472.8000;0.9426;1.3678;
473.1000;0.9369;1.3513;
473.4000;0.9402;1.3536;
473.7000;0.9442;1.3536;
474.0000;0.9394;1.3465;
474.3000;0.9385;1.3442;
474.6000;0.9451;1.3560;
474.9000;0.9418;1.3442;
475.2000;0.9475;1.3584;
475.5000;0.9385;1.3418;
475.8000;0.9402;1.3513;
476.1000;0.9402;1.3560;
476.4000;0.9410;1.3584;
476.7000;0.9434;1.3678;
477.0000;0.9402;1.3584;
477.3000;0.9410;1.3560;
477.6000;0.9410;1.3584;
477.9000;0.9418;1.3607;
478.2000;0.9377;1.3560;
478.5000;0.9385;1.3654;
478.8000;0.9402;1.3702;
479.1000;0.9402;1.3654;
479.4000;0.9402;1.3631;
479.7000;0.9394;1.3678;
480.0000;0.9402;1.3749;
480.3000;0.9402;1.3773;
480.6000;0.9418;1.3749;
480.9000;0.9361;1.3654;
481.2000;0.9418;1.3820;
481.5000;0.9418;1.3891;
481.8000;0.9394;1.3820;
482.1000;0.9402;1.3678;
482.4000;0.9418;1.3678;
482.7000;0.9475;1.3914;
483.0000;0.9410;1.3843;
483.3000;0.9394;1.3914;
483.6000;0.9385;1.3796;
483.9000;0.9402;1.3796;
484.2000;0.9402;1.3796;
484.5000;0.9418;1.3867;
484.8000;0.9394;1.3773;
485.1000;0.9394;1.3796;
485.4000;0.9402;1.3867;
485.7000;0.9426;1.4032;
486.0000;0.9377;1.3914;
486.3000;0.9394;1.3867;
486.6000;0.9402;1.3891;
486.9000;0.9394;1.3891;
487.2000;0.9402;1.3796;
487.5000;0.9385;1.3796;
487.8000;0.9410;1.3749;
488.1000;0.9328;1.3560;
488.4000;0.9410;1.3773;
488.7000;0.9385;1.3702;
489.0000;0.9426;1.3749;
489.3000;0.9394;1.3631;
489.6000;0.9402;1.3725;
489.9000;0.9402;1.3749;
490.2000;0.9394;1.3749;
490.5000;0.9394;1.3773;
490.8000;0.9402;1.3843;
491.1000;0.9377;1.3843;
491.4000;0.9442;1.4009;
491.7000;0.9459;1.4127;
492.0000;0.9394;1.3867;
492.3000;0.9394;1.3843;
492.6000;0.9418;1.3891;
492.9000;0.9410;1.3820;
493.2000;0.9410;1.3843;
493.5000;0.9434;1.3843;
493.8000;0.9394;1.3654;
494.1000;0.9385;1.3631;
494.4000;0.9402;1.3584;
494.7000;0.9402;1.3536;
495.0000;0.9410;1.3513;
495.3000;0.9369;1.3584;
495.6000;0.9402;1.3654;
495.9000;0.9402;1.3513;
496.2000;0.9402;1.3536;
496.5000;0.9369;1.3536;
496.8000;0.9418;1.3702;
497.1000;0.9402;1.3702;
497.4000;0.9402;1.3654;
497.7000;0.9459;1.3891;
498.0000;0.9426;1.3773;
498.3000;0.9418;1.3749;
498.6000;0.9402;1.3773;
498.9000;0.9410;1.3820;
499.2000;0.9402;1.3820;
499.5000;0.9402;1.3820;
499.8000;0.9410;1.3773;
500.1000;0.9426;1.3867;
500.4000;0.9402;1.3843;
500.7000;0.9369;1.3678;
501.0000;0.9402;1.3725;
501.3000;0.9410;1.3678;
501.6000;0.9369;1.3631;
501.9000;0.9402;1.3654;
502.2000;0.9418;1.3654;
502.5000;0.9402;1.3536;
502.8000;0.9394;1.3631;
503.1000;0.9402;1.3702;
503.4000;0.9385;1.3654;
503.7000;0.9410;1.3584;
504.0000;0.9385;1.3536;
504.3000;0.9499;1.3773;
504.6000;0.9410;1.3536;
504.9000;0.9418;1.3654;
505.2000;0.9418;1.3607;
505.5000;0.9402;1.3560;
505.8000;0.9312;1.3300;
506.1000;0.9410;1.3513;
506.4000;0.9377;1.3418;
506.7000;0.9402;1.3442;
507.0000;0.9426;1.3607;
507.3000;0.9410;1.3702;
507.6000;0.9402;1.3654;
507.9000;0.9394;1.3536;
508.2000;0.9394;1.3560;
508.5000;0.9418;1.3631;
508.8000;0.9394;1.3631;
509.1000;0.9394;1.3607;
509.4000;0.9394;1.3678;
509.7000;0.9410;1.3702;
510.0000;0.9385;1.3584;
510.3000;0.9402;1.3607;
510.6000;0.9418;1.3560;
510.9000;0.9418;1.3584;
511.2000;0.9369;1.3536;
511.5000;0.9394;1.3584;
511.8000;0.9402;1.3584;
512.1000;0.9402;1.3560;
512.4000;0.9402;1.3607;
512.7000;0.9385;1.3584;
513.0000;0.9385;1.3584;
513.3000;0.9410;1.3607;
513.6000;0.9369;1.3536;
513.9000;0.9394;1.3536;
514.2000;0.9361;1.3513;
514.5000;0.9434;1.3584;
514.8000;0.9402;1.3584;
515.1000;0.9369;1.3654;
515.4000;0.9385;1.3654;
515.7000;0.9353;1.3584;
516.0000;0.9426;1.3725;
516.3000;0.9426;1.3678;
516.6000;0.9312;1.3442;
516.9000;0.9475;1.3796;
517.2000;0.9361;1.3560;
517.5000;0.9394;1.3584;
517.8000;0.9385;1.3584;
518.1000;0.9394;1.3560;
518.4000;0.9410;1.3584;
518.7000;0.9418;1.3584;
519.0000;0.9402;1.3513;
519.3000;0.9394;1.3560;
519.6000;0.9369;1.3584;
519.9000;0.9410;1.3725;
520.2000;0.9426;1.3820;
520.5000;0.9385;1.3678;
520.8000;0.9402;1.3725;
521.1000;0.9451;1.3773;
521.4000;0.9394;1.3631;
521.7000;0.9402;1.3654;
522.0000;0.9385;1.3631;
522.3000;0.9385;1.3654;
522.6000;0.9394;1.3702;
522.9000;0.9402;1.3702;
523.2000;0.9394;1.3725;
523.5000;0.9418;1.3702;
523.8000;0.9434;1.3796;
524.1000;0.9385;1.3678;
524.4000;0.9377;1.3796;
524.7000;0.9410;1.3820;
525.0000;0.9394;1.3867;
525.3000;0.9402;1.3867;
525.6000;0.9451;1.3891;
525.9000;0.9394;1.3796;
526.2000;0.9418;1.3843;
526.5000;0.9353;1.3702;
526.8000;0.9361;1.3631;
527.1000;0.9385;1.3631;
527.4000;0.9402;1.3702;
527.7000;0.9394;1.3749;
528.0000;0.9402;1.3773;
528.3000;0.9402;1.3725;
528.6000;0.9434;1.3796;
528.9000;0.9385;1.3678;
529.2000;0.9402;1.3725;
529.5000;0.9394;1.3702;
529.8000;0.9353;1.3631;
530.1000;0.9394;1.3702;
530.4000;0.9402;1.3702;
530.7000;0.9394;1.3654;
531.0000;0.9394;1.3584;
531.3000;0.9418;1.3536;
531.6000;0.9410;1.3513;
531.9000;0.9402;1.3489;
532.2000;0.9418;1.3395;
532.5000;0.9410;1.3395;
532.8000;0.9402;1.3347;
533.1000;0.9394;1.3371;
533.4000;0.9304;1.3229;
533.7000;0.9491;1.3654;
534.0000;0.9410;1.3560;
534.3000;0.9402;1.3536;
534.6000;0.9394;1.3513;
534.9000;0.9402;1.3607;
535.2000;0.9410;1.3536;
535.5000;0.9402;1.3513;
535.8000;0.9402;1.3584;
536.1000;0.9402;1.3607;
536.4000;0.9442;1.3702;
536.7000;0.9377;1.3560;
537.0000;0.9385;1.3584;
537.3000;0.9418;1.3654;
537.6000;0.9353;1.3560;
537.9000;0.9385;1.3725;
538.2000;0.9353;1.3773;
538.5000;0.9377;1.3796;
538.8000;0.9394;1.3843;
539.1000;0.9418;1.3914;
539.4000;0.9402;1.3914;
539.7000;0.9394;1.3962;
540.0000;0.9385;1.3962;
540.3000;0.9385;1.3962;
540.6000;0.9451;1.4056;
540.9000;0.9328;1.3796;
541.2000;0.9385;1.3891;
541.5000;0.9394;1.3843;
541.8000;0.9377;1.3891;
542.1000;0.9385;1.3867;
542.4000;0.9385;1.3749;
542.7000;0.9402;1.3725;
543.0000;0.9402;1.3654;
543.3000;0.9410;1.3654;
543.6000;0.9377;1.3654;
543.9000;0.9410;1.3796;
544.2000;0.9418;1.3773;
544.5000;0.9377;1.3607;
544.8000;0.9402;1.3560;
545.1000;0.9385;1.3442;
545.4000;0.9410;1.3465;
545.7000;0.9410;1.3560;
546.0000;0.9402;1.3536;
546.3000;0.9410;1.3678;
546.6000;0.9418;1.3725;
546.9000;0.9402;1.3654;
547.2000;0.9394;1.3678;
547.5000;0.9394;1.3631;
547.8000;0.9410;1.3678;
548.1000;0.9418;1.3607;
548.4000;0.9377;1.3536;
548.7000;0.9394;1.3584;
549.0000;0.9385;1.3607;
549.3000;0.9410;1.3725;
549.6000;0.9483;1.3891;
549.9000;0.9394;1.3702;
550.2000;0.9385;1.3725;
550.5000;0.9328;1.3607;
550.8000;0.9377;1.3607;
551.1000;0.9385;1.3654;
551.4000;0.9337;1.3560;
551.7000;0.9353;1.3631;
552.0000;0.9385;1.3631;
552.3000;0.9385;1.3631;
552.6000;0.9410;1.3725;
552.9000;0.9377;1.3702;
553.2000;0.9394;1.3678;
553.5000;0.9426;1.3796;
553.8000;0.9320;1.3489;
554.1000;0.9385;1.3631;
554.4000;0.9402;1.3725;
554.7000;0.9394;1.3749;
555.0000;0.9385;1.3796;
555.3000;0.9385;1.3796;
555.6000;0.9385;1.3796;
555.9000;0.9385;1.3773;
556.2000;0.9402;1.3725;
556.5000;0.9402;1.3749;
556.8000;0.9402;1.3725;
557.1000;0.9418;1.3773;
557.4000;0.9394;1.3725;
557.7000;0.9394;1.3702;
558.0000;0.9394;1.3678;
558.3000;0.9418;1.3725;
558.6000;0.9394;1.3654;
558.9000;0.9377;1.3654;
559.2000;0.9385;1.3820;
559.5000;0.9402;1.3867;
559.8000;0.9402;1.3867;
560.1000;0.9394;1.3938;
560.4000;0.9385;1.3725;
560.7000;0.9402;1.3678;
561.0000;0.9394;1.3654;
561.3000;0.9418;1.3702;
561.6000;0.9385;1.3536;
561.9000;0.9369;1.3513;
562.2000;0.9402;1.3631;
562.5000;0.9394;1.3678;
562.8000;0.9385;1.3631;
563.1000;0.9369;1.3631;
563.4000;0.9385;1.3678;
563.7000;0.9377;1.3702;
564.0000;0.9353;1.3702;
564.3000;0.9385;1.3773;
564.6000;0.9434;1.3820;
564.9000;0.9394;1.3773;
565.2000;0.9377;1.3725;
565.5000;0.9377;1.3773;
565.8000;0.9377;1.3820;
566.1000;0.9410;1.3796;
566.4000;0.9402;1.3678;
566.7000;0.9418;1.3820;
567.0000;0.9410;1.3796;
567.3000;0.9410;1.3773;
567.6000;0.9410;1.3820;
567.9000;0.9402;1.3891;
568.2000;0.9394;1.3820;
568.5000;0.9410;1.3914;
568.8000;0.9369;1.3867;
569.1000;0.9377;1.3867;
569.4000;0.9402;1.3962;
569.7000;0.9402;1.3867;
570.0000;0.9385;1.3773;
570.3000;0.9426;1.3820;
570.6000;0.9385;1.3773;
570.9000;0.9394;1.3796;
571.2000;0.9369;1.3820;
571.5000;0.9361;1.3678;
571.8000;0.9385;1.3654;
572.1000;0.9385;1.3654;
572.4000;0.9385;1.3584;
572.7000;0.9369;1.3560;
573.0000;0.9377;1.3560;
573.3000;0.9426;1.3607;
573.6000;0.9394;1.3560;
573.9000;0.9402;1.3560;
574.2000;0.9353;1.3560;
574.5000;0.9442;1.3820;
574.8000;0.9345;1.3584;
575.1000;0.9385;1.3773;
575.4000;0.9345;1.3725;
575.7000;0.9385;1.3820;
576.0000;0.9369;1.3773;
576.3000;0.9353;1.3654;
576.6000;0.9377;1.3773;
576.9000;0.9385;1.3749;
577.2000;0.9385;1.3678;
577.5000;0.9361;1.3654;
577.8000;0.9385;1.3654;
578.1000;0.9402;1.3654;
578.4000;0.9410;1.3702;
578.7000;0.9394;1.3654;
579.0000;0.9394;1.3631;
579.3000;0.9385;1.3584;
579.6000;0.9385;1.3513;
579.9000;0.9402;1.3560;
580.2000;0.9377;1.3536;
580.5000;0.9385;1.3536;
580.8000;0.9394;1.3560;
581.1000;0.9345;1.3607;
581.4000;0.9402;1.3725;
581.7000;0.9385;1.3749;
582.0000;0.9394;1.3725;
582.3000;0.9337;1.3631;
582.6000;0.9394;1.3749;
582.9000;0.9377;1.3773;
583.2000;0.9369;1.3678;
583.5000;0.9377;1.3678;
583.8000;0.9467;1.3843;
584.1000;0.9385;1.3654;
584.4000;0.9369;1.3749;
584.7000;0.9385;1.3820;
585.0000;0.9402;1.3891;
585.3000;0.9328;1.3725;
585.6000;0.9361;1.3773;
585.9000;0.9394;1.3843;
586.2000;0.9385;1.3820;
586.5000;0.9369;1.3749;
586.8000;0.9369;1.3843;
587.1000;0.9361;1.3867;
587.4000;0.9369;1.3891;
587.7000;0.9304;1.3702;
588.0000;0.9410;1.3962;
588.3000;0.9385;1.3962;
588.6000;0.9467;1.4198;
588.9000;0.9353;1.3914;
589.2000;0.9442;1.4009;
589.5000;0.9394;1.3820;
589.8000;0.9377;1.3749;
590.1000;0.9491;1.4032;
590.4000;0.9385;1.3796;
590.7000;0.9377;1.3867;
591.0000;0.9483;1.4056;
591.3000;0.9410;1.3867;
591.6000;0.9410;1.3867;
591.9000;0.9385;1.3796;
592.2000;0.9394;1.3820;
592.5000;0.9394;1.3725;
592.8000;0.9394;1.3725;
593.1000;0.9394;1.3773;
593.4000;0.9377;1.3725;
593.7000;0.9434;1.3914;
594.0000;0.9402;1.3796;
594.3000;0.9402;1.3749;
594.6000;0.9418;1.3773;
594.9000;0.9402;1.3843;
595.2000;0.9402;1.3843;
595.5000;0.9402;1.3938;
595.8000;0.9410;1.3914;
596.1000;0.9402;1.3891;
596.4000;0.9377;1.3867;
596.7000;0.9385;1.3867;
597.0000;0.9394;1.3843;
597.3000;0.9394;1.3891;
597.6000;0.9377;1.3891;
597.9000;0.9377;1.3820;
598.2000;0.9377;1.3796;
598.5000;0.9394;1.3796;
598.8000;0.9394;1.3773;
599.1000;0.9385;1.3702;
599.4000;0.9385;1.3725;
599.7000;0.9377;1.3654;
600.0000;0.9377;1.3607;
600.3000;0.9394;1.3607;
600.6000;0.9410;1.3489;
600.9000;0.9369;1.3371;
601.2000;0.9312;1.3135;
601.5000;0.9280;1.2851;
601.8000;0.9206;1.2662;
602.1000;0.9117;1.2450;
602.4000;0.9044;1.2284;
602.7000;0.8987;1.2119;
603.0000;0.8930;1.1977;
603.3000;0.8881;1.1859;
603.6000;0.8807;1.1670;
603.9000;0.8751;1.1528;
604.2000;0.8710;1.1457;
604.5000;0.8653;1.1339;
604.8000;0.8571;1.1198;
605.1000;0.8547;1.1150;
605.4000;0.8506;1.1056;
605.7000;0.8457;1.0961;
606.0000;0.8400;1.0867;
606.3000;0.8368;1.0772;
606.6000;0.8319;1.0678;
606.9000;0.8295;1.0607;
607.2000;0.8246;1.0465;
607.5000;0.8205;1.0394;
607.8000;0.8164;1.0323;
608.1000;0.8148;1.0323;
608.4000;0.8099;1.0253;
608.7000;0.8075;1.0205;
609.0000;0.8026;1.0158;
609.3000;0.8002;1.0111;
609.6000;0.8010;1.0158;
609.9000;0.7928;1.0135;
610.2000;0.7888;1.0158;
610.5000;0.7839;1.0087;
610.8000;0.7839;1.0135;
611.1000;0.7806;0.9993;
611.4000;0.7790;1.0040;
611.7000;0.7741;0.9993;
612.0000;0.7725;1.0016;
612.3000;0.7700;0.9946;
612.6000;0.7652;0.9851;
612.9000;0.7652;0.9757;
613.2000;0.7611;0.9709;
613.5000;0.7586;0.9733;
613.8000;0.7562;0.9757;
614.1000;0.7456;0.9591;
614.4000;0.7513;0.9780;
614.7000;0.7562;0.9851;
615.0000;0.7448;0.9615;
615.3000;0.7440;0.9615;
615.6000;0.7432;0.9591;
615.9000;0.7391;0.9449;
616.2000;0.7375;0.9497;
616.5000;0.7359;0.9473;
616.8000;0.7326;0.9379;
617.1000;0.7302;0.9308;
617.4000;0.7326;0.9355;
617.7000;0.7261;0.9379;
618.0000;0.7245;0.9426;
618.3000;0.7236;0.9355;
618.6000;0.7188;0.9166;
618.9000;0.7163;0.9119;
619.2000;0.7179;0.9190;
619.5000;0.7098;0.9048;
619.8000;0.7131;0.9213;
620.1000;0.7114;0.9237;
620.4000;0.7066;0.9119;
620.7000;0.7082;0.9119;
621.0000;0.7057;0.9048;
621.3000;0.7025;0.8906;
621.6000;0.7033;0.8906;
621.9000;0.7009;0.8859;
622.2000;0.6992;0.8835;
622.5000;0.6960;0.8835;
622.8000;0.6943;0.8906;
623.1000;0.6878;0.8859;
623.4000;0.6927;0.9071;
623.7000;0.6903;0.9095;
624.0000;0.6870;0.9001;
624.3000;0.6903;0.9142;
624.6000;0.6878;0.9119;
624.9000;0.6870;0.9190;
625.2000;0.6846;0.9166;
625.5000;0.6838;0.9142;
625.8000;0.6821;0.9024;
626.1000;0.6821;0.9024;
626.4000;0.6764;0.8859;
626.7000;0.6748;0.8835;
627.0000;0.6748;0.8812;
627.3000;0.6764;0.8859;
627.6000;0.6732;0.8764;
627.9000;0.6699;0.8670;
628.2000;0.6716;0.8741;
628.5000;0.6716;0.8693;
628.8000;0.6675;0.8623;
629.1000;0.6667;0.8646;
629.4000;0.6716;0.8764;
629.7000;0.6642;0.8764;
630.0000;0.6642;0.8741;
630.3000;0.6634;0.8764;
630.6000;0.6618;0.8812;
630.9000;0.6610;0.8788;
631.2000;0.6577;0.8717;
631.5000;0.6577;0.8741;
631.8000;0.6569;0.8670;
632.1000;0.6488;0.8481;
632.4000;0.6610;0.8788;
632.7000;0.6569;0.8693;
633.0000;0.6536;0.8646;
633.3000;0.6479;0.8599;
633.6000;0.6439;0.8528;
633.9000;0.6561;0.8788;
634.2000;0.6471;0.8646;
634.5000;0.6512;0.8788;
634.8000;0.6471;0.8717;
635.1000;0.6593;0.8953;
635.4000;0.6447;0.8646;
635.7000;0.6447;0.8646;
636.0000;0.6422;0.8552;
636.3000;0.6431;0.8552;
636.6000;0.6422;0.8528;
636.9000;0.6414;0.8481;
637.2000;0.6422;0.8528;
637.5000;0.6406;0.8410;
637.8000;0.6398;0.8410;
638.1000;0.6341;0.8339;
638.4000;0.6374;0.8504;
638.7000;0.6382;0.8528;
639.0000;0.6357;0.8552;
639.3000;0.6357;0.8575;
639.6000;0.6341;0.8552;
639.9000;0.6317;0.8552;
640.2000;0.6317;0.8599;
640.5000;0.6325;0.8741;
640.8000;0.6325;0.8693;
641.1000;0.6325;0.8693;
641.4000;0.6284;0.8646;
641.7000;0.6276;0.8599;
642.0000;0.6276;0.8575;
642.3000;0.6276;0.8552;
642.6000;0.6284;0.8528;
642.9000;0.6235;0.8434;
643.2000;0.6260;0.8623;
643.5000;0.6243;0.8552;
643.8000;0.6252;0.8504;
644.1000;0.6276;0.8575;
644.4000;0.6235;0.8528;
644.7000;0.6235;0.8575;
645.0000;0.6203;0.8623;
645.3000;0.6219;0.8646;
645.6000;0.6219;0.8670;
645.9000;0.6186;0.8552;
646.2000;0.6203;0.8623;
646.5000;0.6195;0.8670;
646.8000;0.6195;0.8670;
647.1000;0.6195;0.8623;
647.4000;0.6186;0.8552;
647.7000;0.6178;0.8599;
648.0000;0.6162;0.8670;
648.3000;0.6154;0.8575;
648.6000;0.6170;0.8623;
648.9000;0.6105;0.8386;
649.2000;0.6138;0.8457;
649.5000;0.6129;0.8410;
649.8000;0.6129;0.8457;
650.1000;0.6154;0.8552;
650.4000;0.6121;0.8457;
650.7000;0.6129;0.8552;
651.0000;0.6113;0.8575;
651.3000;0.6121;0.8623;
651.6000;0.6129;0.8575;
651.9000;0.6097;0.8599;
652.2000;0.6113;0.8623;
652.5000;0.6113;0.8693;
652.8000;0.6113;0.8670;
653.1000;0.6048;0.8646;
653.4000;0.6097;0.8812;
653.7000;0.6129;0.8930;
654.0000;0.6072;0.8764;
654.3000;0.6064;0.8764;
654.6000;0.6056;0.8835;
654.9000;0.6032;0.8812;
655.2000;0.6097;0.8859;
655.5000;0.6032;0.8646;
655.8000;0.6056;0.8646;
656.1000;0.6072;0.8693;
656.4000;0.5991;0.8552;
656.7000;0.6040;0.8717;
657.0000;0.6040;0.8717;
657.3000;0.6007;0.8646;
657.6000;0.6032;0.8717;
657.9000;0.6015;0.8670;
658.2000;0.6024;0.8670;
658.5000;0.6105;0.8906;
658.8000;0.6007;0.8717;
659.1000;0.5999;0.8670;
659.4000;0.6007;0.8599;
659.7000;0.6007;0.8623;
660.0000;0.5910;0.8410;
660.3000;0.5999;0.8623;
660.6000;0.5999;0.8741;
660.9000;0.5967;0.8741;
661.2000;0.5958;0.8812;
661.5000;0.5975;0.8835;
661.8000;0.5983;0.8859;
662.1000;0.5958;0.8741;
662.4000;0.5958;0.8741;
662.7000;0.5958;0.8764;
663.0000;0.5958;0.8717;
663.3000;0.5950;0.8670;
663.6000;0.5950;0.8693;
663.9000;0.5958;0.8788;
664.2000;0.5958;0.8764;
664.5000;0.5950;0.8741;
664.8000;0.5950;0.8717;
665.1000;0.5975;0.8812;
665.4000;0.5918;0.8717;
665.7000;0.5918;0.8788;
666.0000;0.5918;0.8788;
666.3000;0.5942;0.8835;
666.6000;0.5893;0.8693;
666.9000;0.5918;0.8812;
667.2000;0.5910;0.8812;
667.5000;0.5885;0.8835;
667.8000;0.5902;0.8764;
668.1000;0.5918;0.8859;
668.4000;0.5902;0.8788;
668.7000;0.5918;0.8741;
669.0000;0.5902;0.8670;
669.3000;0.5877;0.8623;
669.6000;0.5877;0.8575;
669.9000;0.5861;0.8599;
670.2000;0.5861;0.8646;
670.5000;0.5869;0.8764;
670.8000;0.5877;0.8812;
671.1000;0.5771;0.8599;
671.4000;0.5861;0.8670;
671.7000;0.5926;0.8812;
672.0000;0.5861;0.8693;
672.3000;0.5853;0.8646;
672.6000;0.5845;0.8717;
672.9000;0.5853;0.8788;
673.2000;0.5861;0.8930;
673.5000;0.5845;0.8906;
673.8000;0.5836;0.8882;
674.1000;0.5869;0.8930;
674.4000;0.5845;0.8906;
674.7000;0.5893;0.8953;
675.0000;0.5836;0.8882;
675.3000;0.5845;0.8882;
675.6000;0.5828;0.8882;
675.9000;0.5820;0.8953;
676.2000;0.5877;0.9071;
676.5000;0.5812;0.8859;
676.8000;0.5877;0.8930;
677.1000;0.5877;0.8882;
677.4000;0.5828;0.8741;
677.7000;0.5820;0.8764;
678.0000;0.5812;0.8764;
678.3000;0.5820;0.8859;
678.6000;0.5836;0.8882;
678.9000;0.5804;0.8788;
679.2000;0.5820;0.8882;
679.5000;0.5779;0.8859;
679.8000;0.5796;0.8930;
680.1000;0.5804;0.8859;
680.4000;0.5788;0.8764;
680.7000;0.5796;0.8764;
681.0000;0.5755;0.8670;
681.3000;0.5763;0.8741;
681.6000;0.5763;0.8741;
681.9000;0.5796;0.8788;
682.2000;0.5788;0.8859;
682.5000;0.5779;0.8859;
682.8000;0.5788;0.8906;
683.1000;0.5779;0.8835;
683.4000;0.5779;0.8788;
683.7000;0.5796;0.8835;
684.0000;0.5706;0.8693;
684.3000;0.5763;0.8859;
684.6000;0.5771;0.8882;
684.9000;0.5779;0.8835;
685.2000;0.5763;0.8717;
685.5000;0.5763;0.8670;
685.8000;0.5755;0.8646;
686.1000;0.5763;0.8670;
686.4000;0.5739;0.8575;
686.7000;0.5722;0.8575;
687.0000;0.5755;0.8599;
687.3000;0.5747;0.8528;
687.6000;0.5755;0.8599;
687.9000;0.5820;0.8764;
688.2000;0.5739;0.8528;
688.5000;0.5722;0.8552;
688.8000;0.5820;0.8788;
689.1000;0.5731;0.8528;
689.4000;0.5755;0.8693;
689.7000;0.5731;0.8646;
690.0000;0.5739;0.8623;
690.3000;0.5706;0.8646;
690.6000;0.5731;0.8835;
690.9000;0.5722;0.8953;
691.2000;0.5722;0.8977;
691.5000;0.5706;0.8906;
691.8000;0.5788;0.9071;
692.1000;0.5714;0.8906;
692.4000;0.5714;0.9001;
692.7000;0.5731;0.8977;
693.0000;0.5690;0.8930;
693.3000;0.5706;0.9001;
693.6000;0.5714;0.8930;
693.9000;0.5706;0.9001;
694.2000;0.5690;0.9001;
694.5000;0.5714;0.9024;
694.8000;0.5714;0.9071;
695.1000;0.5690;0.9048;
695.4000;0.5690;0.8906;
695.7000;0.5690;0.8882;
696.0000;0.5698;0.8835;
696.3000;0.5706;0.8859;
696.6000;0.5690;0.8859;
696.9000;0.5617;0.8788;
697.2000;0.5690;0.8953;
697.5000;0.5698;0.8977;
697.8000;0.5714;0.8953;
698.1000;0.5690;0.8930;
698.4000;0.5698;0.8882;
698.7000;0.5682;0.8859;
699.0000;0.5657;0.8812;
699.3000;0.5665;0.8835;
699.6000;0.5674;0.8835;
699.9000;0.5706;0.8906;
700.2000;0.5674;0.8835;
700.5000;0.5657;0.8859;
700.8000;0.5674;0.8835;
701.1000;0.5682;0.8906;
701.4000;0.5674;0.8930;
701.7000;0.5674;0.8953;
702.0000;0.5674;0.8953;
702.3000;0.5674;0.8977;
702.6000;0.5722;0.9119;
702.9000;0.5674;0.8953;
703.2000;0.5690;0.8906;
703.5000;0.5739;0.9119;
703.8000;0.5665;0.8930;
704.1000;0.5657;0.8906;
704.4000;0.5649;0.8835;
704.7000;0.5674;0.8977;
705.0000;0.5657;0.9071;
705.3000;0.5674;0.9024;
705.6000;0.5657;0.8977;
705.9000;0.5657;0.9024;
706.2000;0.5657;0.9048;
706.5000;0.5641;0.8977;
706.8000;0.5641;0.9024;
707.1000;0.5649;0.9071;
707.4000;0.5657;0.9095;
707.7000;0.5625;0.8977;
708.0000;0.5698;0.9190;
708.3000;0.5641;0.9095;
708.6000;0.5641;0.9048;
708.9000;0.5625;0.8953;
709.2000;0.5649;0.9001;
709.5000;0.5649;0.8977;
709.8000;0.5649;0.8953;
710.1000;0.5665;0.9024;
710.4000;0.5641;0.8930;
710.7000;0.5617;0.8906;
711.0000;0.5625;0.8835;
711.3000;0.5625;0.8812;
711.6000;0.5633;0.8859;
711.9000;0.5625;0.8882;
712.2000;0.5617;0.8906;
712.5000;0.5625;0.9024;
712.8000;0.5625;0.9071;
713.1000;0.5617;0.8930;
713.4000;0.5625;0.9001;
713.7000;0.5617;0.8977;
714.0000;0.5641;0.8977;
714.3000;0.5617;0.9001;
714.6000;0.5608;0.8977;
714.9000;0.5625;0.9071;
715.2000;0.5633;0.9071;
715.5000;0.5617;0.9166;
715.8000;0.5560;0.9001;
716.1000;0.5600;0.9095;
716.4000;0.5608;0.9119;
716.7000;0.5543;0.8953;
717.0000;0.5592;0.9071;
717.3000;0.5576;0.9024;
717.6000;0.5617;0.9119;
717.9000;0.5641;0.9142;
718.2000;0.5608;0.8953;
718.5000;0.5617;0.8906;
718.8000;0.5608;0.9001;
719.1000;0.5633;0.9095;
719.4000;0.5617;0.9024;
719.7000;0.5608;0.9001;
720.0000;0.5592;0.9024;
720.3000;0.5608;0.9071;
720.6000;0.5617;0.9048;
720.9000;0.5617;0.9071;
721.2000;0.5576;0.8953;
721.5000;0.5600;0.8930;
721.8000;0.5600;0.8930;
722.1000;0.5608;0.8953;
722.4000;0.5584;0.8835;
722.7000;0.5600;0.8930;
723.0000;0.5625;0.9071;
723.3000;0.5608;0.9119;
723.6000;0.5560;0.9024;
723.9000;0.5592;0.9001;
724.2000;0.5592;0.9024;
724.5000;0.5592;0.9001;
724.8000;0.5592;0.9024;
725.1000;0.5560;0.9001;
725.4000;0.5600;0.9071;
725.7000;0.5600;0.9071;
726.0000;0.5600;0.9119;
726.3000;0.5576;0.9095;
726.6000;0.5486;0.8930;
726.9000;0.5519;0.9048;
727.2000;0.5584;0.9190;
727.5000;0.5560;0.9142;
727.8000;0.5576;0.9095;
728.1000;0.5576;0.9095;
728.4000;0.5568;0.9071;
728.7000;0.5576;0.9071;
729.0000;0.5543;0.9071;
729.3000;0.5576;0.9095;
729.6000;0.5568;0.9166;
729.9000;0.5657;0.9426;
730.2000;0.5551;0.9071;
730.5000;0.5543;0.8977;
730.8000;0.5568;0.9095;
731.1000;0.5600;0.9142;
731.4000;0.5560;0.8977;
731.7000;0.5551;0.9142;
732.0000;0.5560;0.9166;
732.3000;0.5560;0.9237;
732.6000;0.5551;0.9237;
732.9000;0.5568;0.9237;
733.2000;0.5584;0.9213;
733.5000;0.5608;0.9308;
733.8000;0.5568;0.9166;
734.1000;0.5560;0.9166;
734.4000;0.5568;0.9308;
734.7000;0.5551;0.9284;
735.0000;0.5560;0.9260;
735.3000;0.5527;0.9142;
735.6000;0.5551;0.9331;
735.9000;0.5551;0.9331;
736.2000;0.5543;0.9237;
736.5000;0.5543;0.9260;
736.8000;0.5503;0.9213;
737.1000;0.5543;0.9260;
737.4000;0.5527;0.9237;
737.7000;0.5543;0.9355;
738.0000;0.5543;0.9331;
738.3000;0.5527;0.9284;
738.6000;0.5568;0.9355;
738.9000;0.5543;0.9213;
739.2000;0.5576;0.9284;
739.5000;0.5503;0.9095;
739.8000;0.5543;0.9166;
740.1000;0.5543;0.9190;
740.4000;0.5551;0.9166;
740.7000;0.5568;0.9237;
741.0000;0.5551;0.9237;
741.3000;0.5543;0.9213;
741.6000;0.5527;0.9237;
741.9000;0.5535;0.9284;
742.2000;0.5543;0.9331;
742.5000;0.5551;0.9308;
742.8000;0.5543;0.9213;
743.1000;0.5551;0.9213;
743.4000;0.5560;0.9166;
743.7000;0.5527;0.9095;
744.0000;0.5543;0.9119;
744.3000;0.5560;0.9095;
744.6000;0.5551;0.9119;
744.9000;0.5535;0.9119;
745.2000;0.5560;0.9119;
745.5000;0.5543;0.9166;
745.8000;0.5592;0.9331;
746.1000;0.5584;0.9402;
746.4000;0.5543;0.9308;
746.7000;0.5478;0.9190;
747.0000;0.5519;0.9213;
747.3000;0.5560;0.9284;
747.6000;0.5503;0.9142;
747.9000;0.5495;0.9119;
748.2000;0.5438;0.9095;
748.5000;0.5519;0.9260;
748.8000;0.5511;0.9237;
749.1000;0.5576;0.9331;
749.4000;0.5519;0.9213;
749.7000;0.5511;0.9237;
750.0000;0.5495;0.9213;
750.3000;0.5560;0.9402;
750.6000;0.5503;0.9260;
750.9000;0.5519;0.9260;
751.2000;0.5519;0.9284;
751.5000;0.5511;0.9213;
751.8000;0.5519;0.9166;
752.1000;0.5511;0.9095;
752.4000;0.5519;0.9213;
752.7000;0.5519;0.9213;
753.0000;0.5560;0.9308;
753.3000;0.5503;0.9142;
753.6000;0.5511;0.9213;
753.9000;0.5535;0.9213;
754.2000;0.5551;0.9213;
754.5000;0.5519;0.9095;
754.8000;0.5511;0.9024;
755.1000;0.5519;0.9095;
755.4000;0.5519;0.9166;
755.7000;0.5535;0.9213;
756.0000;0.5503;0.9190;
756.3000;0.5527;0.9260;
756.6000;0.5478;0.9190;
756.9000;0.5543;0.9426;
757.2000;0.5503;0.9379;
757.5000;0.5503;0.9497;
757.8000;0.5511;0.9473;
758.1000;0.5511;0.9497;
758.4000;0.5495;0.9426;
758.7000;0.5486;0.9473;
759.0000;0.5511;0.9473;
759.3000;0.5503;0.9473;
759.6000;0.5511;0.9473;
759.9000;0.5503;0.9449;
760.2000;0.5519;0.9449;
760.5000;0.5486;0.9426;
760.8000;0.5495;0.9449;
761.1000;0.5511;0.9497;
761.4000;0.5495;0.9402;
761.7000;0.5511;0.9379;
762.0000;0.5486;0.9402;
762.3000;0.5519;0.9473;
762.6000;0.5503;0.9426;
762.9000;0.5527;0.9426;
763.2000;0.5495;0.9379;
763.5000;0.5486;0.9237;
763.8000;0.5495;0.9190;
764.1000;0.5495;0.9237;
764.4000;0.5503;0.9213;
764.7000;0.5486;0.9213;
765.0000;0.5495;0.9190;
765.3000;0.5478;0.9284;
765.6000;0.5470;0.9308;
765.9000;0.5462;0.9355;
766.2000;0.5511;0.9426;
766.5000;0.5503;0.9426;
766.8000;0.5495;0.9355;
767.1000;0.5495;0.9449;
767.4000;0.5478;0.9497;
767.7000;0.5535;0.9544;
768.0000;0.5486;0.9402;
768.3000;0.5454;0.9331;
768.6000;0.5478;0.9355;
768.9000;0.5495;0.9402;
769.2000;0.5486;0.9449;
769.5000;0.5478;0.9449;
769.8000;0.5495;0.9426;
770.1000;0.5470;0.9426;
770.4000;0.5478;0.9449;
770.7000;0.5446;0.9426;
771.0000;0.5486;0.9449;
771.3000;0.5478;0.9355;
771.6000;0.5421;0.9213;
771.9000;0.5413;0.9237;
772.2000;0.5478;0.9331;
772.5000;0.5413;0.9260;
772.8000;0.5470;0.9473;
773.1000;0.5454;0.9449;
773.4000;0.5486;0.9497;
773.7000;0.5454;0.9449;
774.0000;0.5503;0.9568;
774.3000;0.5486;0.9473;
774.6000;0.5568;0.9686;
774.9000;0.5486;0.9473;
775.2000;0.5519;0.9520;
775.5000;0.5446;0.9449;
775.8000;0.5470;0.9497;
776.1000;0.5454;0.9449;
776.4000;0.5495;0.9544;
776.7000;0.5454;0.9449;
777.0000;0.5486;0.9449;
777.3000;0.5470;0.9355;
777.6000;0.5438;0.9284;
777.9000;0.5478;0.9260;
778.2000;0.5413;0.9190;
778.5000;0.5462;0.9237;
778.8000;0.5438;0.9284;
779.1000;0.5454;0.9237;
779.4000;0.5470;0.9213;
779.7000;0.5454;0.9190;
780.0000;0.5462;0.9190;
780.3000;0.5486;0.9237;
780.6000;0.5462;0.9166;
780.9000;0.5478;0.9166;
781.2000;0.5454;0.9095;
781.5000;0.5470;0.9142;
781.8000;0.5462;0.9142;
782.1000;0.5462;0.9142;
782.4000;0.5446;0.9095;
782.7000;0.5535;0.9331;
783.0000;0.5446;0.9190;
783.3000;0.5495;0.9237;
783.6000;0.5462;0.9142;
783.9000;0.5462;0.9166;
784.2000;0.5446;0.9142;
784.5000;0.5470;0.9142;
784.8000;0.5462;0.9142;
785.1000;0.5478;0.9190;
785.4000;0.5470;0.9260;
785.7000;0.5462;0.9284;
786.0000;0.5438;0.9308;
786.3000;0.5470;0.9284;
786.6000;0.5454;0.9355;
786.9000;0.5470;0.9379;
787.2000;0.5438;0.9308;
787.5000;0.5462;0.9308;
787.8000;0.5462;0.9308;
788.1000;0.5478;0.9284;
788.4000;0.5470;0.9260;
788.7000;0.5470;0.9260;
789.0000;0.5470;0.9260;
789.3000;0.5454;0.9166;
789.6000;0.5454;0.9142;
789.9000;0.5462;0.9119;
790.2000;0.5462;0.9166;
790.5000;0.5495;0.9166;
790.8000;0.5446;0.9095;
791.1000;0.5478;0.9237;
791.4000;0.5454;0.9284;
791.7000;0.5462;0.9308;
792.0000;0.5454;0.9308;
792.3000;0.5454;0.9379;
792.6000;0.5438;0.9379;
792.9000;0.5438;0.9308;
793.2000;0.5446;0.9379;
793.5000;0.5397;0.9237;
793.8000;0.5454;0.9355;
794.1000;0.5511;0.9473;
794.4000;0.5438;0.9308;
794.7000;0.5446;0.9308;
795.0000;0.5446;0.9331;
795.3000;0.5454;0.9260;
795.6000;0.5503;0.9355;
795.9000;0.5454;0.9213;
796.2000;0.5462;0.9213;
796.5000;0.5429;0.9190;
796.8000;0.5421;0.9237;
797.1000;0.5429;0.9260;
797.4000;0.5454;0.9379;
797.7000;0.5405;0.9379;
798.0000;0.5446;0.9497;
798.3000;0.5454;0.9520;
798.6000;0.5535;0.9686;
798.9000;0.5429;0.9520;
799.2000;0.5470;0.9591;
799.5000;0.5462;0.9544;
799.8000;0.5462;0.9544;
800.1000;0.5429;0.9402;
800.4000;0.5446;0.9426;
800.7000;0.5397;0.9308;
801.0000;0.5429;0.9402;
801.3000;0.5438;0.9473;
801.6000;0.5438;0.9544;
801.9000;0.5438;0.9544;
802.2000;0.5454;0.9591;
802.5000;0.5413;0.9426;
802.8000;0.5421;0.9402;
803.1000;0.5429;0.9449;
803.4000;0.5454;0.9379;
803.7000;0.5438;0.9402;
804.0000;0.5438;0.9379;
804.3000;0.5438;0.9449;
804.6000;0.5429;0.9473;
804.9000;0.5454;0.9520;
805.2000;0.5446;0.9591;
805.5000;0.5454;0.9591;
805.8000;0.5446;0.9544;
806.1000;0.5454;0.9591;
806.4000;0.5429;0.9520;
806.7000;0.5429;0.9544;
807.0000;0.5421;0.9473;
807.3000;0.5438;0.9497;
807.6000;0.5421;0.9379;
807.9000;0.5429;0.9449;
808.2000;0.5405;0.9379;
808.5000;0.5446;0.9426;
808.8000;0.5438;0.9426;
809.1000;0.5438;0.9379;
809.4000;0.5381;0.9308;
809.7000;0.5462;0.9473;
810.0000;0.5454;0.9520;
810.3000;0.5429;0.9497;
810.6000;0.5446;0.9544;
810.9000;0.5421;0.9497;
811.2000;0.5446;0.9520;
811.5000;0.5446;0.9544;
811.8000;0.5429;0.9497;
812.1000;0.5429;0.9426;
812.4000;0.5446;0.9473;
812.7000;0.5429;0.9497;
813.0000;0.5421;0.9497;
813.3000;0.5405;0.9426;
813.6000;0.5429;0.9497;
813.9000;0.5438;0.9520;
814.2000;0.5429;0.9449;
814.5000;0.5421;0.9426;
814.8000;0.5438;0.9379;
815.1000;0.5462;0.9449;
815.4000;0.5446;0.9426;
815.7000;0.5438;0.9426;
816.0000;0.5405;0.9449;
816.3000;0.5446;0.9544;
816.6000;0.5397;0.9449;
816.9000;0.5495;0.9709;
817.2000;0.5438;0.9568;
817.5000;0.5429;0.9662;
817.8000;0.5429;0.9591;
818.1000;0.5389;0.9449;
818.4000;0.5364;0.9402;
818.7000;0.5421;0.9520;
819.0000;0.5429;0.9520;
819.3000;0.5429;0.9520;
819.6000;0.5421;0.9449;
819.9000;0.5421;0.9426;
820.2000;0.5478;0.9544;
820.5000;0.5429;0.9426;
820.8000;0.5519;0.9686;
821.1000;0.5421;0.9379;
821.4000;0.5446;0.9426;
821.7000;0.5438;0.9473;
822.0000;0.5478;0.9662;
822.3000;0.5438;0.9591;
822.6000;0.5429;0.9544;
822.9000;0.5462;0.9591;
823.2000;0.5421;0.9520;
823.5000;0.5405;0.9497;
823.8000;0.5405;0.9544;
824.1000;0.5413;0.9591;
824.4000;0.5413;0.9591;
824.7000;0.5454;0.9686;
825.0000;0.5421;0.9568;
825.3000;0.5446;0.9591;
825.6000;0.5429;0.9520;
825.9000;0.5421;0.9544;
826.2000;0.5438;0.9449;
826.5000;0.5438;0.9426;
826.8000;0.5438;0.9473;
827.1000;0.5438;0.9591;
827.4000;0.5438;0.9497;
827.7000;0.5438;0.9449;
828.0000;0.5405;0.9308;
828.3000;0.5413;0.9379;
828.6000;0.5421;0.9402;
828.9000;0.5429;0.9402;
829.2000;0.5397;0.9379;
829.5000;0.5438;0.9473;
829.8000;0.5397;0.9402;
830.1000;0.5413;0.9355;
830.4000;0.5421;0.9355;
830.7000;0.5381;0.9237;
831.0000;0.5421;0.9355;
831.3000;0.5413;0.9426;
831.6000;0.5397;0.9426;
831.9000;0.5429;0.9497;
832.2000;0.5421;0.9473;
832.5000;0.5429;0.9544;
832.8000;0.5421;0.9568;
833.1000;0.5438;0.9591;
833.4000;0.5413;0.9497;
833.7000;0.5405;0.9473;
834.0000;0.5405;0.9449;
834.3000;0.5421;0.9379;
834.6000;0.5332;0.9119;
834.9000;0.5429;0.9402;
835.2000;0.5413;0.9402;
835.5000;0.5389;0.9379;
835.8000;0.5397;0.9284;
836.1000;0.5462;0.9473;
836.4000;0.5421;0.9449;
836.7000;0.5429;0.9473;
837.0000;0.5446;0.9497;
837.3000;0.5421;0.9544;
837.6000;0.5429;0.9568;
837.9000;0.5429;0.9520;
838.2000;0.5405;0.9497;
838.5000;0.5413;0.9520;
838.8000;0.5438;0.9568;
839.1000;0.5446;0.9544;
839.4000;0.5405;0.9473;
839.7000;0.5397;0.9449;
840.0000;0.5405;0.9426;
840.3000;0.5372;0.9355;
840.6000;0.5413;0.9379;
840.9000;0.5405;0.9379;
841.2000;0.5421;0.9379;
841.5000;0.5332;0.9142;
841.8000;0.5405;0.9260;
842.1000;0.5315;0.9071;
842.4000;0.5405;0.9355;
842.7000;0.5405;0.9308;
843.0000;0.5421;0.9355;
843.3000;0.5413;0.9308;
843.6000;0.5389;0.9284;
843.9000;0.5405;0.9402;
844.2000;0.5397;0.9284;
844.5000;0.5405;0.9260;
844.8000;0.5397;0.9260;
845.1000;0.5397;0.9260;
845.4000;0.5429;0.9308;
845.7000;0.5405;0.9331;
846.0000;0.5389;0.9260;
846.3000;0.5413;0.9308;
846.6000;0.5381;0.9190;
846.9000;0.5381;0.9119;
847.2000;0.5405;0.9237;
847.5000;0.5413;0.9284;
847.8000;0.5413;0.9355;
848.1000;0.5413;0.9331;
848.4000;0.5413;0.9379;
848.7000;0.5405;0.9284;
849.0000;0.5413;0.9308;
849.3000;0.5421;0.9355;
849.6000;0.5413;0.9237;
849.9000;0.5486;0.9426;
850.2000;0.5397;0.9213;
850.5000;0.5397;0.9284;
850.8000;0.5413;0.9402;
851.1000;0.5397;0.9449;
851.4000;0.5381;0.9449;
851.7000;0.5397;0.9520;
852.0000;0.5397;0.9473;
852.3000;0.5372;0.9426;
852.6000;0.5405;0.9449;
852.9000;0.5413;0.9426;
853.2000;0.5413;0.9402;
853.5000;0.5389;0.9355;
853.8000;0.5381;0.9331;
854.1000;0.5389;0.9308;
854.4000;0.5324;0.9166;
854.7000;0.5389;0.9284;
855.0000;0.5397;0.9308;
855.3000;0.5429;0.9449;
855.6000;0.5397;0.9308;
855.9000;0.5413;0.9473;
856.2000;0.5397;0.9520;
856.5000;0.5389;0.9497;
856.8000;0.5397;0.9497;
857.1000;0.5413;0.9497;
857.4000;0.5397;0.9402;
857.7000;0.5405;0.9426;
858.0000;0.5389;0.9331;
858.3000;0.5429;0.9402;
858.6000;0.5413;0.9284;
858.9000;0.5381;0.9284;
859.2000;0.5381;0.9331;
859.5000;0.5413;0.9449;
859.8000;0.5405;0.9379;
860.1000;0.5413;0.9355;
860.4000;0.5372;0.9331;
860.7000;0.5389;0.9379;
861.0000;0.5421;0.9497;
861.3000;0.5397;0.9355;
861.6000;0.5397;0.9379;
861.9000;0.5413;0.9402;
862.2000;0.5389;0.9426;
862.5000;0.5397;0.9449;
862.8000;0.5405;0.9449;
863.1000;0.5397;0.9497;
863.4000;0.5405;0.9568;
863.7000;0.5397;0.9544;
864.0000;0.5397;0.9544;
864.3000;0.5364;0.9473;
864.6000;0.5397;0.9568;
864.9000;0.5397;0.9568;
865.2000;0.5397;0.9544;
865.5000;0.5364;0.9473;
865.8000;0.5397;0.9449;
866.1000;0.5389;0.9449;
866.4000;0.5397;0.9426;
866.7000;0.5397;0.9426;
867.0000;0.5397;0.9402;
867.3000;0.5389;0.9426;
867.6000;0.5413;0.9426;
867.9000;0.5413;0.9497;
868.2000;0.5413;0.9497;
868.5000;0.5421;0.9638;
868.8000;0.5389;0.9615;
869.1000;0.5405;0.9568;
869.4000;0.5372;0.9568;
869.7000;0.5397;0.9591;
870.0000;0.5389;0.9568;
870.3000;0.5397;0.9662;
870.6000;0.5397;0.9568;
870.9000;0.5413;0.9615;
871.2000;0.5470;0.9733;
871.5000;0.5405;0.9591;
871.8000;0.5397;0.9544;
872.1000;0.5389;0.9591;
872.4000;0.5372;0.9520;
872.7000;0.5405;0.9520;
873.0000;0.5340;0.9402;
873.3000;0.5389;0.9544;
873.6000;0.5397;0.9638;
873.9000;0.5413;0.9662;
874.2000;0.5405;0.9615;
874.5000;0.5389;0.9568;
874.8000;0.5397;0.9591;
875.1000;0.5389;0.9544;
875.4000;0.5397;0.9544;
875.7000;0.5389;0.9473;
876.0000;0.5397;0.9449;
876.3000;0.5454;0.9544;
876.6000;0.5397;0.9449;
876.9000;0.5405;0.9473;
877.2000;0.5397;0.9497;
877.5000;0.5413;0.9544;
877.8000;0.5413;0.9497;
878.1000;0.5397;0.9473;
878.4000;0.5381;0.9520;
878.7000;0.5405;0.9544;
879.0000;0.5389;0.9497;
879.3000;0.5389;0.9497;
879.6000;0.5405;0.9520;
879.9000;0.5372;0.9449;
880.2000;0.5389;0.9520;
880.5000;0.5381;0.9520;
880.8000;0.5389;0.9568;
881.1000;0.5372;0.9591;
881.4000;0.5405;0.9686;
881.7000;0.5397;0.9568;
882.0000;0.5397;0.9591;
882.3000;0.5405;0.9638;
882.6000;0.5421;0.9638;
882.9000;0.5372;0.9615;
883.2000;0.5389;0.9591;
883.5000;0.5397;0.9686;
883.8000;0.5413;0.9827;
884.1000;0.5438;0.9969;
884.4000;0.5397;0.9875;
884.7000;0.5389;0.9780;
885.0000;0.5381;0.9615;
885.3000;0.5413;0.9591;
885.6000;0.5405;0.9544;
885.9000;0.5397;0.9591;
886.2000;0.5389;0.9662;
886.5000;0.5372;0.9662;
886.8000;0.5389;0.9591;
887.1000;0.5389;0.9591;
887.4000;0.5405;0.9662;
887.7000;0.5413;0.9709;
888.0000;0.5413;0.9733;
888.3000;0.5389;0.9615;
888.6000;0.5315;0.9449;
888.9000;0.5446;0.9686;
889.2000;0.5381;0.9568;
889.5000;0.5389;0.9520;
889.8000;0.5364;0.9473;
890.1000;0.5397;0.9638;
890.4000;0.5405;0.9709;
890.7000;0.5381;0.9615;
891.0000;0.5348;0.9544;
891.3000;0.5381;0.9615;
891.6000;0.5454;0.9804;
891.9000;0.5397;0.9638;
892.2000;0.5429;0.9709;
892.5000;0.5389;0.9686;
892.8000;0.5389;0.9733;
893.1000;0.5372;0.9591;
893.4000;0.5381;0.9544;
893.7000;0.5405;0.9544;
894.0000;0.5446;0.9709;
894.3000;0.5381;0.9544;
894.6000;0.5397;0.9497;
894.9000;0.5389;0.9497;
895.2000;0.5413;0.9591;
895.5000;0.5389;0.9497;
895.8000;0.5397;0.9591;
896.1000;0.5381;0.9568;
896.4000;0.5381;0.9544;
896.7000;0.5389;0.9568;
897.0000;0.5364;0.9520;
897.3000;0.5364;0.9591;
897.6000;0.5389;0.9686;
897.9000;0.5389;0.9733;
898.2000;0.5389;0.9757;
898.5000;0.5381;0.9709;
898.8000;0.5372;0.9709;
899.1000;0.5397;0.9662;
899.4000;0.5381;0.9662;
899.7000;0.5405;0.9615;
900.0000;0.5389;0.9520;
900.3000;0.5413;0.9638;
900.6000;0.5381;0.9520;
900.9000;0.5372;0.9473;
901.2000;0.5372;0.9473;
901.5000;0.5429;0.9662;
901.8000;0.5372;0.9544;
902.1000;0.5364;0.9497;
902.4000;0.5405;0.9615;
902.7000;0.5381;0.9568;
903.0000;0.5389;0.9568;
903.3000;0.5389;0.9520;
903.6000;0.5381;0.9591;
903.9000;0.5381;0.9638;
904.2000;0.5372;0.9638;
904.5000;0.5389;0.9709;
904.8000;0.5381;0.9733;
905.1000;0.5381;0.9780;
905.4000;0.5381;0.9804;
905.7000;0.5381;0.9709;
906.0000;0.5372;0.9686;
906.3000;0.5381;0.9686;
906.6000;0.5405;0.9638;
906.9000;0.5381;0.9638;
907.2000;0.5381;0.9686;
907.5000;0.5397;0.9662;
907.8000;0.5397;0.9568;
908.1000;0.5405;0.9520;
908.4000;0.5397;0.9544;
908.7000;0.5364;0.9473;
909.0000;0.5364;0.9497;
909.3000;0.5364;0.9520;
909.6000;0.5389;0.9591;
909.9000;0.5381;0.9615;
910.2000;0.5381;0.9568;
910.5000;0.5356;0.9591;
910.8000;0.5340;0.9473;
911.1000;0.5356;0.9520;
911.4000;0.5356;0.9520;
911.7000;0.5364;0.9497;
912.0000;0.5364;0.9520;
912.3000;0.5372;0.9497;
912.6000;0.5397;0.9473;
912.9000;0.5364;0.9426;
913.2000;0.5372;0.9379;
913.5000;0.5381;0.9379;
913.8000;0.5462;0.9568;
914.1000;0.5372;0.9284;
914.4000;0.5364;0.9237;
914.7000;0.5364;0.9308;
915.0000;0.5324;0.9166;
915.3000;0.5364;0.9308;
915.6000;0.5372;0.9260;
915.9000;0.5356;0.9284;
916.2000;0.5389;0.9308;
916.5000;0.5381;0.9284;
916.8000;0.5356;0.9284;
917.1000;0.5315;0.9284;
917.4000;0.5397;0.9449;
917.7000;0.5364;0.9355;
918.0000;0.5372;0.9379;
918.3000;0.5389;0.9402;
918.6000;0.5381;0.9379;
918.9000;0.5389;0.9379;
919.2000;0.5389;0.9402;
919.5000;0.5389;0.9402;
919.8000;0.5397;0.9449;
920.1000;0.5397;0.9544;
920.4000;0.5389;0.9520;
920.7000;0.5348;0.9449;
921.0000;0.5372;0.9568;
921.3000;0.5372;0.9686;
921.6000;0.5372;0.9662;
921.9000;0.5372;0.9709;
922.2000;0.5364;0.9827;
922.5000;0.5356;0.9757;
922.8000;0.5340;0.9686;
923.1000;0.5372;0.9709;
923.4000;0.5405;0.9662;
923.7000;0.5381;0.9686;
924.0000;0.5364;0.9686;
924.3000;0.5372;0.9638;
924.6000;0.5389;0.9709;
924.9000;0.5389;0.9757;
925.2000;0.5372;0.9686;
925.5000;0.5381;0.9686;
925.8000;0.5372;0.9757;
926.1000;0.5364;0.9804;
926.4000;0.5356;0.9757;
926.7000;0.5364;0.9804;
927.0000;0.5364;0.9851;
927.3000;0.5364;0.9875;
927.6000;0.5372;0.9851;
927.9000;0.5389;0.9827;
928.2000;0.5397;0.9733;
928.5000;0.5381;0.9686;
928.8000;0.5389;0.9638;
929.1000;0.5389;0.9568;
929.4000;0.5381;0.9473;
929.7000;0.5389;0.9520;
930.0000;0.5381;0.9449;
930.3000;0.5364;0.9402;
930.6000;0.5372;0.9402;
930.9000;0.5421;0.9615;
931.2000;0.5348;0.9497;
931.5000;0.5364;0.9544;
931.8000;0.5372;0.9638;
932.1000;0.5397;0.9804;
932.4000;0.5372;0.9780;
932.7000;0.5372;0.9804;
933.0000;0.5299;0.9662;
933.3000;0.5364;0.9780;
933.6000;0.5372;0.9851;
933.9000;0.5389;0.9780;
934.2000;0.5372;0.9662;
934.5000;0.5356;0.9733;
934.8000;0.5364;0.9757;
935.1000;0.5389;0.9875;
935.4000;0.5364;0.9662;
935.7000;0.5372;0.9638;
936.0000;0.5364;0.9709;
936.3000;0.5372;0.9733;
936.6000;0.5372;0.9733;
936.9000;0.5372;0.9591;
937.2000;0.5372;0.9544;
937.5000;0.5372;0.9638;
937.8000;0.5372;0.9615;
938.1000;0.5381;0.9638;
938.4000;0.5421;0.9827;
938.7000;0.5364;0.9615;
939.0000;0.5381;0.9568;
939.3000;0.5372;0.9544;
939.6000;0.5372;0.9520;
939.9000;0.5372;0.9449;
940.2000;0.5332;0.9379;
940.5000;0.5372;0.9520;
940.8000;0.5356;0.9497;
941.1000;0.5372;0.9544;
941.4000;0.5389;0.9638;
941.7000;0.5356;0.9591;
942.0000;0.5364;0.9520;
942.3000;0.5372;0.9497;
942.6000;0.5364;0.9520;
942.9000;0.5364;0.9591;
943.2000;0.5364;0.9591;
943.5000;0.5372;0.9615;
943.8000;0.5364;0.9544;
944.1000;0.5381;0.9638;
944.4000;0.5364;0.9709;
944.7000;0.5372;0.9662;
945.0000;0.5356;0.9662;
945.3000;0.5364;0.9686;
945.6000;0.5372;0.9638;
945.9000;0.5372;0.9615;
946.2000;0.5364;0.9591;
946.5000;0.5372;0.9615;
946.8000;0.5356;0.9520;
947.1000;0.5364;0.9497;
947.4000;0.5356;0.9520;
947.7000;0.5356;0.9568;
948.0000;0.5364;0.9638;
948.3000;0.5299;0.9520;
948.6000;0.5372;0.9733;
948.9000;0.5372;0.9757;
949.2000;0.5364;0.9709;
949.5000;0.5372;0.9662;
949.8000;0.5372;0.9733;
950.1000;0.5372;0.9804;
950.4000;0.5389;0.9875;
950.7000;0.5307;0.9662;
951.0000;0.5364;0.9851;
951.3000;0.5372;0.9804;
951.6000;0.5372;0.9827;
951.9000;0.5364;0.9757;
952.2000;0.5348;0.9733;
952.5000;0.5364;0.9638;
952.8000;0.5364;0.9709;
953.1000;0.5348;0.9591;
953.4000;0.5381;0.9638;
953.7000;0.5372;0.9638;
954.0000;0.5389;0.9709;
954.3000;0.5381;0.9757;
954.6000;0.5372;0.9780;
954.9000;0.5372;0.9780;
955.2000;0.5356;0.9733;
955.5000;0.5372;0.9686;
955.8000;0.5372;0.9615;
956.1000;0.5372;0.9638;
956.4000;0.5372;0.9568;
956.7000;0.5364;0.9568;
957.0000;0.5397;0.9662;
957.3000;0.5356;0.9497;
957.6000;0.5372;0.9662;
957.9000;0.5356;0.9591;
958.2000;0.5372;0.9544;
958.5000;0.5348;0.9402;
958.8000;0.5348;0.9402;
959.1000;0.5348;0.9473;
959.4000;0.5356;0.9568;
959.7000;0.5364;0.9544;
960.0000;0.5372;0.9615;
960.3000;0.5381;0.9709;
960.6000;0.5356;0.9686;
960.9000;0.5356;0.9638;
961.2000;0.5372;0.9615;
961.5000;0.5372;0.9544;
961.8000;0.5372;0.9544;
962.1000;0.5364;0.9473;
962.4000;0.5372;0.9426;
962.7000;0.5356;0.9426;
963.0000;0.5364;0.9402;
963.3000;0.5372;0.9402;
963.6000;0.5372;0.9331;
963.9000;0.5348;0.9331;
964.2000;0.5364;0.9379;
964.5000;0.5356;0.9426;
964.8000;0.5356;0.9449;
965.1000;0.5372;0.9473;
965.4000;0.5356;0.9402;
965.7000;0.5356;0.9449;
966.0000;0.5356;0.9520;
966.3000;0.5348;0.9568;
966.6000;0.5364;0.9591;
966.9000;0.5364;0.9544;
967.2000;0.5364;0.9497;
967.5000;0.5356;0.9568;
967.8000;0.5348;0.9568;
968.1000;0.5372;0.9568;
968.4000;0.5364;0.9568;
968.7000;0.5348;0.9449;
969.0000;0.5381;0.9544;
969.3000;0.5405;0.9638;
969.6000;0.5356;0.9544;
969.9000;0.5364;0.9544;
970.2000;0.5356;0.9473;
970.5000;0.5413;0.9615;
970.8000;0.5364;0.9449;
971.1000;0.5372;0.9449;
971.4000;0.5324;0.9426;
971.7000;0.5372;0.9568;
972.0000;0.5356;0.9615;
972.3000;0.5364;0.9709;
972.6000;0.5381;0.9757;
972.9000;0.5356;0.9591;
973.2000;0.5356;0.9520;
973.5000;0.5356;0.9568;
973.8000;0.5332;0.9544;
974.1000;0.5348;0.9544;
974.4000;0.5364;0.9615;
974.7000;0.5356;0.9544;
975.0000;0.5364;0.9638;
975.3000;0.5356;0.9615;
975.6000;0.5372;0.9544;
975.9000;0.5364;0.9544;
976.2000;0.5397;0.9638;
976.5000;0.5372;0.9591;
976.8000;0.5356;0.9615;
977.1000;0.5397;0.9709;
977.4000;0.5340;0.9568;
977.7000;0.5340;0.9591;
978.0000;0.5356;0.9638;
978.3000;0.5372;0.9709;
978.6000;0.5364;0.9733;
978.9000;0.5421;0.9851;
979.2000;0.5348;0.9615;
979.5000;0.5372;0.9568;
979.8000;0.5372;0.9615;
980.1000;0.5356;0.9568;
980.4000;0.5372;0.9568;
980.7000;0.5356;0.9615;
981.0000;0.5372;0.9686;
981.3000;0.5356;0.9638;
981.6000;0.5348;0.9638;
981.9000;0.5389;0.9686;
982.2000;0.5340;0.9638;
982.5000;0.5454;0.9969;
982.8000;0.5372;0.9733;
983.1000;0.5356;0.9804;
983.4000;0.5315;0.9686;
983.7000;0.5340;0.9757;
984.0000;0.5356;0.9780;
984.3000;0.5340;0.9804;
984.6000;0.5364;0.9780;
984.9000;0.5356;0.9757;
985.2000;0.5356;0.9733;
985.5000;0.5315;0.9615;
985.8000;0.5356;0.9733;
986.1000;0.5381;0.9733;
986.4000;0.5372;0.9733;
986.7000;0.5364;0.9662;
987.0000;0.5364;0.9686;
987.3000;0.5381;0.9804;
987.6000;0.5348;0.9733;
987.9000;0.5364;0.9733;
988.2000;0.5356;0.9662;
988.5000;0.5364;0.9709;
988.8000;0.5356;0.9709;
989.1000;0.5356;0.9638;
989.4000;0.5348;0.9709;
989.7000;0.5364;0.9709;
990.0000;0.5372;0.9662;
990.3000;0.5364;0.9638;
990.6000;0.5356;0.9662;
990.9000;0.5340;0.9591;
991.2000;0.5372;0.9662;
991.5000;0.5381;0.9662;
991.8000;0.5364;0.9709;
992.1000;0.5356;0.9686;
992.4000;0.5364;0.9662;
992.7000;0.5438;0.9875;
993.0000;0.5356;0.9591;
993.3000;0.5348;0.9638;
993.6000;0.5332;0.9638;
993.9000;0.5364;0.9638;
994.2000;0.5372;0.9662;
994.5000;0.5332;0.9615;
994.8000;0.5348;0.9662;
995.1000;0.5356;0.9568;
995.4000;0.5348;0.9568;
995.7000;0.5348;0.9615;
996.0000;0.5348;0.9662;
996.3000;0.5364;0.9709;
996.6000;0.5356;0.9757;
996.9000;0.5340;0.9638;
997.2000;0.5340;0.9520;
997.5000;0.5413;0.9733;
997.8000;0.5315;0.9449;
998.1000;0.5364;0.9426;
998.4000;0.5356;0.9520;
998.7000;0.5348;0.9544;
999.0000;0.5356;0.9520;
999.3000;0.5389;0.9709;
999.6000;0.5332;0.9638;
999.9000;0.5356;0.9686;
1000.2000;0.5332;0.9733;
1000.5000;0.5356;0.9662;
1000.8000;0.5348;0.9615;
1001.1000;0.5364;0.9662;
1001.4000;0.5381;0.9757;
1001.7000;0.5348;0.9686;
1002.0000;0.5348;0.9568;
1002.3000;0.5332;0.9473;
1002.6000;0.5348;0.9544;
1002.9000;0.5413;0.9686;
1003.2000;0.5340;0.9544;
1003.5000;0.5348;0.9568;
1003.8000;0.5340;0.9544;
1004.1000;0.5389;0.9709;
1004.4000;0.5356;0.9544;
1004.7000;0.5332;0.9568;
1005.0000;0.5356;0.9615;
1005.3000;0.5348;0.9615;
1005.6000;0.5275;0.9497;
1005.9000;0.5405;0.9804;
1006.2000;0.5348;0.9733;
1006.5000;0.5356;0.9898;
1006.8000;0.5372;0.9969;
1007.1000;0.5348;0.9851;
1007.4000;0.5421;1.0016;
1007.7000;0.5356;0.9898;
1008.0000;0.5340;0.9827;
1008.3000;0.5348;0.9898;
1008.6000;0.5356;0.9875;
1008.9000;0.5356;0.9875;
1009.2000;0.5348;0.9898;
1009.5000;0.5356;0.9898;
1009.8000;0.5364;0.9804;
1010.1000;0.5356;0.9686;
1010.4000;0.5348;0.9591;
1010.7000;0.5348;0.9568;
1011.0000;0.5324;0.9520;
1011.3000;0.5364;0.9591;
1011.6000;0.5364;0.9638;
1011.9000;0.5381;0.9615;
1012.2000;0.5348;0.9568;
1012.5000;0.5356;0.9615;
1012.8000;0.5397;0.9804;
1013.1000;0.5389;0.9780;
1013.4000;0.5356;0.9686;
1013.7000;0.5332;0.9662;
1014.0000;0.5340;0.9662;
1014.3000;0.5340;0.9662;
1014.6000;0.5356;0.9733;
1014.9000;0.5332;0.9709;
1015.2000;0.5364;0.9662;
1015.5000;0.5364;0.9709;
1015.8000;0.5340;0.9709;
1016.1000;0.5356;0.9780;
1016.4000;0.5389;0.9804;
1016.7000;0.5389;0.9780;
1017.0000;0.5307;0.9591;
1017.3000;0.5356;0.9662;
1017.6000;0.5348;0.9638;
1017.9000;0.5372;0.9638;
1018.2000;0.5356;0.9662;
1018.5000;0.5340;0.9591;
1018.8000;0.5315;0.9426;
1019.1000;0.5381;0.9591;
1019.4000;0.5315;0.9426;
1019.7000;0.5356;0.9568;
1020.0000;0.5364;0.9662;
1020.3000;0.5340;0.9638;
1020.6000;0.5397;0.9851;
1020.9000;0.5364;0.9733;
1021.2000;0.5356;0.9638;
1021.5000;0.5348;0.9638;
1021.8000;0.5356;0.9591;
1022.1000;0.5356;0.9686;
1022.4000;0.5348;0.9709;
1022.7000;0.5356;0.9662;
1023.0000;0.5348;0.9733;
1023.3000;0.5364;0.9757;
1023.6000;0.5348;0.9662;
1023.9000;0.5348;0.9662;
1024.2000;0.5348;0.9638;
1024.5000;0.5356;0.9757;
1024.8000;0.5348;0.9733;
1025.1000;0.5405;0.9875;
1025.4000;0.5340;0.9709;
1025.7000;0.5348;0.9709;
1026.0000;0.5348;0.9709;
1026.3000;0.5340;0.9757;
1026.6000;0.5348;0.9827;
1026.9000;0.5389;0.9827;
1027.2000;0.5332;0.9638;
1027.5000;0.5340;0.9638;
1027.8000;0.5315;0.9615;
1028.1000;0.5364;0.9851;
1028.4000;0.5283;0.9568;
1028.7000;0.5348;0.9662;
1029.0000;0.5340;0.9544;
1029.3000;0.5332;0.9615;
1029.6000;0.5348;0.9804;
1029.9000;0.5348;0.9757;
1030.2000;0.5340;0.9709;
1030.5000;0.5348;0.9757;
1030.8000;0.5348;0.9757;
1031.1000;0.5332;0.9851;
1031.4000;0.5340;0.9851;
1031.7000;0.5348;0.9946;
1032.0000;0.5356;0.9898;
1032.3000;0.5356;0.9898;
1032.6000;0.5267;0.9638;
1032.9000;0.5340;0.9851;
1033.2000;0.5348;0.9898;
1033.5000;0.5372;0.9898;
1033.8000;0.5324;0.9827;
1034.1000;0.5372;0.9875;
1034.4000;0.5356;0.9851;
1034.7000;0.5356;0.9898;
1035.0000;0.5348;0.9875;
1035.3000;0.5340;0.9780;
1035.6000;0.5348;0.9757;
1035.9000;0.5324;0.9662;
1036.2000;0.5348;0.9709;
1036.5000;0.5340;0.9686;
1036.8000;0.5324;0.9686;
1037.1000;0.5348;0.9662;
1037.4000;0.5364;0.9686;
1037.7000;0.5324;0.9638;
1038.0000;0.5356;0.9733;
1038.3000;0.5348;0.9757;
1038.6000;0.5324;0.9686;
1038.9000;0.5356;0.9780;
1039.2000;0.5356;0.9780;
1039.5000;0.5348;0.9804;
1039.8000;0.5324;0.9804;
1040.1000;0.5348;0.9780;
1040.4000;0.5332;0.9733;
1040.7000;0.5356;0.9804;
1041.0000;0.5250;0.9638;
1041.3000;0.5332;0.9898;
1041.6000;0.5348;0.9946;
1041.9000;0.5307;0.9804;
1042.2000;0.5348;0.9922;
1042.5000;0.5348;0.9898;
1042.8000;0.5348;0.9851;
1043.1000;0.5332;0.9875;
1043.4000;0.5315;0.9757;
1043.7000;0.5372;0.9875;
1044.0000;0.5372;0.9851;
1044.3000;0.5340;0.9709;
1044.6000;0.5356;0.9733;
1044.9000;0.5348;0.9709;
1045.2000;0.5356;0.9804;
1045.5000;0.5356;0.9827;
1045.8000;0.5332;0.9733;
1046.1000;0.5356;0.9709;
1046.4000;0.5381;0.9709;
1046.7000;0.5348;0.9662;
1047.0000;0.5381;0.9757;
1047.3000;0.5356;0.9686;
1047.6000;0.5356;0.9780;
1047.9000;0.5315;0.9733;
1048.2000;0.5348;0.9804;
1048.5000;0.5364;0.9851;
1048.8000;0.5397;0.9946;
1049.1000;0.5340;0.9780;
1049.4000;0.5348;0.9827;
1049.7000;0.5315;0.9804;
1050.0000;0.5356;0.9922;
1050.3000;0.5348;0.9898;
1050.6000;0.5348;0.9804;
1050.9000;0.5364;0.9851;
1051.2000;0.5348;0.9709;
1051.5000;0.5340;0.9638;
1051.8000;0.5340;0.9686;
1052.1000;0.5348;0.9662;
1052.4000;0.5348;0.9497;
1052.7000;0.5324;0.9544;
1053.0000;0.5332;0.9568;
1053.3000;0.5340;0.9591;
1053.6000;0.5340;0.9615;
1053.9000;0.5364;0.9686;
1054.2000;0.5348;0.9780;
1054.5000;0.5348;0.9851;
1054.8000;0.5348;0.9875;
1055.1000;0.5356;0.9851;
1055.4000;0.5364;0.9827;
1055.7000;0.5348;0.9757;
1056.0000;0.5340;0.9733;
1056.3000;0.5356;0.9709;
1056.6000;0.5356;0.9568;
1056.9000;0.5356;0.9449;
1057.2000;0.5348;0.9426;
1057.5000;0.5348;0.9426;
1057.8000;0.5381;0.9591;
1058.1000;0.5421;0.9733;
1058.4000;0.5348;0.9568;
1058.7000;0.5356;0.9638;
1059.0000;0.5315;0.9615;
1059.3000;0.5356;0.9638;
1059.6000;0.5340;0.9615;
1059.9000;0.5348;0.9686;
1060.2000;0.5372;0.9804;
1060.5000;0.5332;0.9757;
1060.8000;0.5340;0.9851;
1061.1000;0.5340;0.9898;
1061.4000;0.5332;0.9922;
1061.7000;0.5332;0.9804;
1062.0000;0.5356;0.9851;
1062.3000;0.5340;0.9804;
1062.6000;0.5348;0.9780;
1062.9000;0.5381;0.9875;
1063.2000;0.5324;0.9757;
1063.5000;0.5324;0.9757;
1063.8000;0.5356;0.9827;
1064.1000;0.5348;0.9733;
1064.4000;0.5348;0.9733;
1064.7000;0.5332;0.9615;
1065.0000;0.5332;0.9638;
1065.3000;0.5348;0.9638;
1065.6000;0.5348;0.9591;
1065.9000;0.5348;0.9615;
1066.2000;0.5340;0.9662;
1066.5000;0.5348;0.9733;
1066.8000;0.5348;0.9686;
1067.1000;0.5348;0.9733;
1067.4000;0.5397;0.9851;
1067.7000;0.5332;0.9780;
1068.0000;0.5356;0.9851;
1068.3000;0.5348;0.9851;
1068.6000;0.5356;0.9804;
1068.9000;0.5332;0.9780;
1069.2000;0.5340;0.9733;
1069.5000;0.5307;0.9686;
1069.8000;0.5340;0.9709;
1070.1000;0.5324;0.9686;
1070.4000;0.5340;0.9662;
1070.7000;0.5324;0.9591;
1071.0000;0.5332;0.9638;
1071.3000;0.5340;0.9638;
1071.6000;0.5340;0.9662;
1071.9000;0.5299;0.9497;
1072.2000;0.5307;0.9520;
1072.5000;0.5340;0.9520;
1072.8000;0.5348;0.9568;
1073.1000;0.5258;0.9449;
1073.4000;0.5291;0.9568;
1073.7000;0.5332;0.9709;
1074.0000;0.5340;0.9733;
1074.3000;0.5340;0.9686;
1074.6000;0.5348;0.9780;
1074.9000;0.5348;0.9757;
1075.2000;0.5356;0.9686;
1075.5000;0.5340;0.9733;
1075.8000;0.5332;0.9709;
1076.1000;0.5315;0.9638;
1076.4000;0.5324;0.9544;
1076.7000;0.5356;0.9638;
1077.0000;0.5348;0.9591;
1077.3000;0.5332;0.9544;
1077.6000;0.5291;0.9379;
1077.9000;0.5348;0.9591;
1078.2000;0.5332;0.9568;
1078.5000;0.5340;0.9568;
1078.8000;0.5307;0.9449;
1079.1000;0.5307;0.9402;
1079.4000;0.5332;0.9497;
1079.7000;0.5307;0.9402;
1080.0000;0.5348;0.9473;
1080.3000;0.5348;0.9379;
1080.6000;0.5340;0.9308;
1080.9000;0.5340;0.9331;
1081.2000;0.5299;0.9284;
1081.5000;0.5340;0.9355;
1081.8000;0.5324;0.9379;
1082.1000;0.5348;0.9426;
1082.4000;0.5340;0.9308;
1082.7000;0.5332;0.9473;
1083.0000;0.5348;0.9473;
1083.3000;0.5356;0.9544;
1083.6000;0.5324;0.9379;
1083.9000;0.5324;0.9426;
1084.2000;0.5315;0.9473;
1084.5000;0.5340;0.9473;
1084.8000;0.5356;0.9473;
1085.1000;0.5332;0.9426;
1085.4000;0.5340;0.9284;
1085.7000;0.5348;0.9260;
1086.0000;0.5348;0.9284;
1086.3000;0.5372;0.9379;
1086.6000;0.5315;0.9331;
1086.9000;0.5381;0.9379;
1087.2000;0.5340;0.9284;
1087.5000;0.5364;0.9379;
1087.8000;0.5332;0.9355;
1088.1000;0.5324;0.9331;
1088.4000;0.5364;0.9426;
1088.7000;0.5340;0.9379;
1089.0000;0.5364;0.9426;
1089.3000;0.5348;0.9355;
1089.6000;0.5340;0.9331;
1089.9000;0.5356;0.9426;
1090.2000;0.5324;0.9331;
1090.5000;0.5340;0.9379;
1090.8000;0.5364;0.9497;
1091.1000;0.5315;0.9402;
1091.4000;0.5340;0.9426;
1091.7000;0.5348;0.9568;
1092.0000;0.5315;0.9568;
1092.3000;0.5332;0.9568;
1092.6000;0.5340;0.9591;
1092.9000;0.5348;0.9568;
1093.2000;0.5307;0.9473;
1093.5000;0.5356;0.9615;
1093.8000;0.5332;0.9568;
1094.1000;0.5356;0.9568;
1094.4000;0.5340;0.9520;
1094.7000;0.5324;0.9497;
1095.0000;0.5291;0.9331;
1095.3000;0.5348;0.9473;
1095.6000;0.5332;0.9449;
1095.9000;0.5340;0.9544;
1096.2000;0.5340;0.9520;
1096.5000;0.5324;0.9544;
1096.8000;0.5324;0.9497;
1097.1000;0.5340;0.9544;
1097.4000;0.5389;0.9686;
1097.7000;0.5299;0.9497;
1098.0000;0.5307;0.9544;
1098.3000;0.5332;0.9615;
1098.6000;0.5332;0.9591;
1098.9000;0.5332;0.9591;
1099.2000;0.5340;0.9686;
1099.5000;0.5348;0.9709;
1099.8000;0.5348;0.9686;
1100.1000;0.5324;0.9686;
1100.4000;0.5340;0.9591;
1100.7000;0.5340;0.9544;
1101.0000;0.5275;0.9402;
1101.3000;0.5340;0.9544;
1101.6000;0.5332;0.9497;
1101.9000;0.5340;0.9379;
1102.2000;0.5340;0.9402;
1102.5000;0.5364;0.9497;
1102.8000;0.5324;0.9449;
1103.1000;0.5340;0.9615;
1103.4000;0.5340;0.9568;
1103.7000;0.5348;0.9638;
1104.0000;0.5275;0.9473;
1104.3000;0.5340;0.9662;
1104.6000;0.5340;0.9686;
1104.9000;0.5356;0.9757;
1105.2000;0.5356;0.9851;
1105.5000;0.5332;0.9780;
1105.8000;0.5356;0.9757;
1106.1000;0.5364;0.9757;
1106.4000;0.5348;0.9757;
1106.7000;0.5324;0.9709;
1107.0000;0.5340;0.9638;
1107.3000;0.5348;0.9591;
1107.6000;0.5348;0.9662;
1107.9000;0.5324;0.9662;
1108.2000;0.5348;0.9733;
1108.5000;0.5332;0.9686;
1108.8000;0.5340;0.9757;
1109.1000;0.5340;0.9780;
1109.4000;0.5324;0.9757;
1109.7000;0.5324;0.9638;
1110.0000;0.5356;0.9733;
1110.3000;0.5275;0.9615;
1110.6000;0.5340;0.9757;
1110.9000;0.5340;0.9757;
1111.2000;0.5340;0.9638;
1111.5000;0.5340;0.9568;
1111.8000;0.5332;0.9544;
1112.1000;0.5332;0.9497;
1112.4000;0.5340;0.9520;
1112.7000;0.5324;0.9497;
1113.0000;0.5348;0.9544;
1113.3000;0.5389;0.9615;
1113.6000;0.5340;0.9638;
1113.9000;0.5348;0.9686;
1114.2000;0.5356;0.9662;
1114.5000;0.5356;0.9662;
1114.8000;0.5307;0.9591;
1115.1000;0.5332;0.9662;
1115.4000;0.5315;0.9662;
1115.7000;0.5324;0.9686;
1116.0000;0.5324;0.9662;
1116.3000;0.5340;0.9638;
1116.6000;0.5332;0.9568;
1116.9000;0.5324;0.9544;
1117.2000;0.5324;0.9544;
1117.5000;0.5340;0.9615;
1117.8000;0.5348;0.9686;
1118.1000;0.5405;0.9827;
1118.4000;0.5340;0.9638;
1118.7000;0.5315;0.9638;
1119.0000;0.5299;0.9591;
1119.3000;0.5324;0.9757;
1119.6000;0.5356;0.9757;
1119.9000;0.5332;0.9757;
1120.2000;0.5348;0.9780;
1120.5000;0.5332;0.9709;
1120.8000;0.5332;0.9733;
1121.1000;0.5364;0.9875;
1121.4000;0.5348;0.9804;
1121.7000;0.5348;0.9757;
1122.0000;0.5348;0.9757;
1122.3000;0.5324;0.9733;
1122.6000;0.5324;0.9780;
1122.9000;0.5324;0.9709;
1123.2000;0.5340;0.9757;
1123.5000;0.5332;0.9686;
1123.8000;0.5324;0.9544;
1124.1000;0.5348;0.9638;
1124.4000;0.5356;0.9615;
1124.7000;0.5324;0.9709;
1125.0000;0.5340;0.9662;
1125.3000;0.5364;0.9686;
1125.6000;0.5364;0.9709;
1125.9000;0.5356;0.9709;
1126.2000;0.5340;0.9733;
1126.5000;0.5356;0.9851;
1126.8000;0.5348;0.9851;
1127.1000;0.5324;0.9804;
1127.4000;0.5324;0.9709;
1127.7000;0.5348;0.9757;
1128.0000;0.5340;0.9733;
1128.3000;0.5340;0.9709;
1128.6000;0.5381;0.9875;
1128.9000;0.5332;0.9780;
1129.2000;0.5372;0.9780;
1129.5000;0.5429;0.9922;
1129.8000;0.5348;0.9615;
1130.1000;0.5356;0.9686;
1130.4000;0.5348;0.9638;
1130.7000;0.5324;0.9615;
1131.0000;0.5340;0.9615;
1131.3000;0.5340;0.9591;
1131.6000;0.5315;0.9591;
1131.9000;0.5324;0.9568;
1132.2000;0.5324;0.9544;
1132.5000;0.5324;0.9449;
1132.8000;0.5332;0.9449;
1133.1000;0.5364;0.9568;
1133.4000;0.5348;0.9568;
1133.7000;0.5332;0.9544;
1134.0000;0.5332;0.9638;
1134.3000;0.5315;0.9591;
1134.6000;0.5324;0.9615;
1134.9000;0.5332;0.9615;
1135.2000;0.5324;0.9591;
1135.5000;0.5340;0.9544;
1135.8000;0.5340;0.9497;
1136.1000;0.5332;0.9402;
1136.4000;0.5348;0.9355;
1136.7000;0.5324;0.9213;
1137.0000;0.5348;0.9213;
1137.3000;0.5324;0.9213;
1137.6000;0.5332;0.9260;
1137.9000;0.5324;0.9190;
1138.2000;0.5364;0.9237;
1138.5000;0.5348;0.9284;
1138.8000;0.5348;0.9426;
1139.1000;0.5340;0.9520;
1139.4000;0.5332;0.9544;
1139.7000;0.5332;0.9568;
1140.0000;0.5315;0.9449;
1140.3000;0.5332;0.9473;
1140.6000;0.5332;0.9473;
1140.9000;0.5340;0.9544;
1141.2000;0.5348;0.9591;
1141.5000;0.5332;0.9544;
1141.8000;0.5340;0.9497;
1142.1000;0.5348;0.9568;
1142.4000;0.5315;0.9638;
1142.7000;0.5315;0.9709;
1143.0000;0.5421;1.0016;
1143.3000;0.5332;0.9757;
1143.6000;0.5340;0.9757;
1143.9000;0.5381;0.9827;
1144.2000;0.5348;0.9686;
1144.5000;0.5356;0.9662;
1144.8000;0.5356;0.9662;
1145.1000;0.5324;0.9591;
1145.4000;0.5348;0.9638;
1145.7000;0.5348;0.9615;
1146.0000;0.5324;0.9520;
1146.3000;0.5332;0.9544;
1146.6000;0.5315;0.9544;
1146.9000;0.5340;0.9449;
1147.2000;0.5340;0.9473;
1147.5000;0.5340;0.9520;
1147.8000;0.5315;0.9449;
1148.1000;0.5340;0.9520;
1148.4000;0.5324;0.9449;
1148.7000;0.5348;0.9497;
1149.0000;0.5307;0.9449;
1149.3000;0.5332;0.9520;
1149.6000;0.5364;0.9686;
1149.9000;0.5340;0.9662;
1150.2000;0.5324;0.9662;
1150.5000;0.5348;0.9662;
1150.8000;0.5299;0.9591;
1151.1000;0.5332;0.9638;
1151.4000;0.5340;0.9591;
1151.7000;0.5389;0.9662;
1152.0000;0.5332;0.9544;
1152.3000;0.5332;0.9544;
1152.6000;0.5324;0.9591;
1152.9000;0.5332;0.9662;
1153.2000;0.5332;0.9662;
1153.5000;0.5324;0.9638;
1153.8000;0.5348;0.9615;
1154.1000;0.5332;0.9568;
1154.4000;0.5340;0.9591;
1154.7000;0.5348;0.9709;
1155.0000;0.5356;0.9686;
1155.3000;0.5315;0.9638;
1155.6000;0.5356;0.9804;
1155.9000;0.5315;0.9686;
1156.2000;0.5348;0.9757;
1156.5000;0.5340;0.9757;
1156.8000;0.5226;0.9520;
1157.1000;0.5348;0.9757;
1157.4000;0.5332;0.9709;
1157.7000;0.5332;0.9615;
1158.0000;0.5340;0.9544;
1158.3000;0.5324;0.9473;
1158.6000;0.5332;0.9426;
1158.9000;0.5299;0.9449;
1159.2000;0.5324;0.9449;
1159.5000;0.5340;0.9568;
1159.8000;0.5340;0.9686;
1160.1000;0.5324;0.9709;
1160.4000;0.5356;0.9780;
1160.7000;0.5348;0.9733;
1161.0000;0.5340;0.9686;
1161.3000;0.5332;0.9733;
1161.6000;0.5324;0.9662;
1161.9000;0.5364;0.9757;
1162.2000;0.5340;0.9733;
1162.5000;0.5381;0.9946;
1162.8000;0.5332;0.9851;
1163.1000;0.5315;0.9804;
1163.4000;0.5340;0.9804;
1163.7000;0.5332;0.9851;
1164.0000;0.5332;0.9851;
1164.3000;0.5340;0.9733;
1164.6000;0.5307;0.9638;
1164.9000;0.5332;0.9733;
1165.2000;0.5340;0.9686;
1165.5000;0.5299;0.9662;
1165.8000;0.5332;0.9733;
1166.1000;0.5340;0.9875;
1166.4000;0.5340;0.9875;
1166.7000;0.5315;0.9827;
1167.0000;0.5332;0.9780;
1167.3000;0.5332;0.9757;
1167.6000;0.5340;0.9757;
1167.9000;0.5315;0.9638;
1168.2000;0.5324;0.9757;
1168.5000;0.5324;0.9875;
1168.8000;0.5324;0.9898;
1169.1000;0.5315;0.9922;
1169.4000;0.5332;0.9898;
1169.7000;0.5348;0.9922;
1170.0000;0.5340;0.9946;
1170.3000;0.5332;0.9946;
1170.6000;0.5324;0.9993;
1170.9000;0.5324;0.9851;
1171.2000;0.5340;0.9827;
1171.5000;0.5299;0.9851;
1171.8000;0.5340;0.9898;
1172.1000;0.5348;0.9946;
1172.4000;0.5340;1.0064;
1172.7000;0.5364;1.0111;
1173.0000;0.5340;0.9993;
1173.3000;0.5332;1.0016;
1173.6000;0.5340;0.9993;
1173.9000;0.5291;0.9898;
1174.2000;0.5381;1.0111;
1174.5000;0.5299;0.9827;
1174.8000;0.5299;0.9780;
1175.1000;0.5324;0.9898;
1175.4000;0.5340;0.9922;
1175.7000;0.5389;1.0040;
1176.0000;0.5324;0.9898;
1176.3000;0.5356;0.9922;
1176.6000;0.5340;0.9875;
1176.9000;0.5332;0.9875;
1177.2000;0.5332;0.9946;
1177.5000;0.5332;0.9946;
1177.8000;0.5324;0.9946;
1178.1000;0.5348;1.0064;
1178.4000;0.5299;0.9875;
1178.7000;0.5348;0.9946;
1179.0000;0.5421;1.0135;
1179.3000;0.5340;1.0016;
1179.6000;0.5324;0.9969;
1179.9000;0.5364;1.0064;
1180.2000;0.5340;1.0016;
1180.5000;0.5381;1.0016;
1180.8000;0.5381;1.0040;
1181.1000;0.5324;0.9922;
1181.4000;0.5332;0.9946;
1181.7000;0.5324;0.9946;
1182.0000;0.5332;0.9969;
1182.3000;0.5324;0.9946;
1182.6000;0.5332;0.9969;
1182.9000;0.5324;1.0064;
1183.2000;0.5340;0.9969;
1183.5000;0.5348;0.9875;
1183.8000;0.5332;0.9827;
1184.1000;0.5332;0.9898;
1184.4000;0.5307;0.9851;
1184.7000;0.5421;1.0087;
1185.0000;0.5315;0.9898;
1185.3000;0.5372;1.0040;
1185.6000;0.5356;0.9993;
1185.9000;0.5315;0.9851;
1186.2000;0.5332;0.9851;
1186.5000;0.5356;1.0016;
1186.8000;0.5405;1.0064;
1187.1000;0.5315;0.9780;
1187.4000;0.5340;0.9733;
1187.7000;0.5340;0.9709;
1188.0000;0.5348;0.9733;
1188.3000;0.5275;0.9638;
1188.6000;0.5307;0.9638;
1188.9000;0.5340;0.9686;
1189.2000;0.5389;0.9875;
1189.5000;0.5332;0.9709;
1189.8000;0.5340;0.9615;
1190.1000;0.5315;0.9591;
1190.4000;0.5324;0.9662;
1190.7000;0.5332;0.9709;
1191.0000;0.5299;0.9615;
1191.3000;0.5291;0.9615;
1191.6000;0.5307;0.9638;
1191.9000;0.5340;0.9686;
1192.2000;0.5332;0.9662;
1192.5000;0.5324;0.9638;
1192.8000;0.5348;0.9686;
1193.1000;0.5340;0.9709;
1193.4000;0.5348;0.9780;
1193.7000;0.5332;0.9780;
1194.0000;0.5381;0.9875;
1194.3000;0.5332;0.9709;
1194.6000;0.5340;0.9733;
1194.9000;0.5332;0.9757;
1195.2000;0.5364;0.9804;
1195.5000;0.5283;0.9544;
1195.8000;0.5356;0.9709;
1196.1000;0.5315;0.9615;
1196.4000;0.5315;0.9615;
1196.7000;0.5324;0.9591;
1197.0000;0.5348;0.9638;
1197.3000;0.5307;0.9544;
1197.6000;0.5315;0.9568;
1197.9000;0.5324;0.9568;
1198.2000;0.5315;0.9568;
1198.5000;0.5307;0.9568;
1198.8000;0.5340;0.9615;
1199.1000;0.5324;0.9638;
1199.4000;0.5340;0.9780;
1199.7000;0.5348;0.9780;
1200.0000;0.5332;0.9709;
1200.3000;0.5332;0.9662;
1200.6000;0.5332;0.9757;
1200.9000;0.5340;0.9827;
1201.2000;0.5348;0.9804;
1201.5000;0.5307;0.9709;
1201.8000;0.5324;0.9757;
1202.1000;0.5332;0.9733;
1202.4000;0.5324;0.9686;
1202.7000;0.5332;0.9662;
1203.0000;0.5315;0.9662;
1203.3000;0.5291;0.9544;
1203.6000;0.5332;0.9757;
1203.9000;0.5315;0.9686;
1204.2000;0.5332;0.9733;
1204.5000;0.5348;0.9780;
1204.8000;0.5307;0.9827;
1205.1000;0.5315;0.9946;
1205.4000;0.5267;0.9733;
1205.7000;0.5324;0.9969;
1206.0000;0.5340;0.9946;
1206.3000;0.5356;0.9922;
1206.6000;0.5340;0.9898;
1206.9000;0.5348;0.9922;
1207.2000;0.5348;1.0016;
1207.5000;0.5340;1.0040;
1207.8000;0.5332;1.0016;
1208.1000;0.5381;1.0111;
1208.4000;0.5299;0.9898;
1208.7000;0.5332;0.9922;
1209.0000;0.5340;0.9922;
1209.3000;0.5324;0.9875;
1209.6000;0.5340;0.9804;
1209.9000;0.5315;0.9780;
1210.2000;0.5332;0.9851;
1210.5000;0.5324;0.9875;
1210.8000;0.5348;0.9851;
1211.1000;0.5324;0.9898;
1211.4000;0.5315;0.9804;
1211.7000;0.5307;0.9804;
1212.0000;0.5324;0.9757;
1212.3000;0.5340;0.9757;
1212.6000;0.5372;0.9851;
1212.9000;0.5340;0.9780;
1213.2000;0.5348;0.9757;
1213.5000;0.5275;0.9733;
1213.8000;0.5364;0.9922;
1214.1000;0.5340;0.9898;
1214.4000;0.5332;0.9922;
1214.7000;0.5340;0.9946;
1215.0000;0.5324;0.9993;
1215.3000;0.5324;0.9922;
1215.6000;0.5332;1.0040;
1215.9000;0.5307;1.0016;
1216.2000;0.5356;1.0135;
1216.5000;0.5332;1.0087;
1216.8000;0.5340;1.0158;
1217.1000;0.5291;1.0040;
1217.4000;0.5332;1.0111;
1217.7000;0.5332;1.0111;
1218.0000;0.5340;1.0135;
1218.3000;0.5307;1.0040;
1218.6000;0.5421;1.0323;
1218.9000;0.5348;1.0135;
1219.2000;0.5348;1.0087;
1219.5000;0.5356;1.0087;
1219.8000;0.5340;1.0016;
1220.1000;0.5291;0.9922;
1220.4000;0.5307;0.9993;
1220.7000;0.5315;0.9969;
1221.0000;0.5332;1.0087;
1221.3000;0.5348;1.0087;
1221.6000;0.5324;1.0016;
1221.9000;0.5324;0.9993;
1222.2000;0.5299;0.9969;
1222.5000;0.5340;1.0087;
1222.8000;0.5356;1.0182;
1223.1000;0.5340;1.0040;
1223.4000;0.5340;0.9969;
1223.7000;0.5340;0.9946;
1224.0000;0.5315;0.9851;
1224.3000;0.5340;0.9922;
1224.6000;0.5332;0.9922;
1224.9000;0.5324;0.9922;
1225.2000;0.5332;0.9969;
1225.5000;0.5340;1.0016;
1225.8000;0.5324;0.9993;
1226.1000;0.5315;0.9946;
1226.4000;0.5340;0.9898;
1226.7000;0.5381;1.0064;
1227.0000;0.5348;0.9922;
1227.3000;0.5364;1.0016;
1227.6000;0.5332;1.0040;
1227.9000;0.5332;1.0111;
1228.2000;0.5315;1.0016;
1228.5000;0.5381;1.0087;
1228.8000;0.5340;1.0064;
1229.1000;0.5315;0.9969;
1229.4000;0.5299;0.9969;
1229.7000;0.5324;0.9969;
1230.0000;0.5332;0.9946;
1230.3000;0.5315;0.9851;
1230.6000;0.5332;0.9898;
1230.9000;0.5332;0.9851;
1231.2000;0.5332;0.9827;
1231.5000;0.5275;0.9591;
1231.8000;0.5324;0.9733;
1232.1000;0.5315;0.9709;
1232.4000;0.5315;0.9827;
1232.7000;0.5315;0.9780;
1233.0000;0.5267;0.9520;
1233.3000;0.5397;0.9875;
1233.6000;0.5315;0.9591;
1233.9000;0.5315;0.9568;
1234.2000;0.5332;0.9686;
1234.5000;0.5307;0.9733;
1234.8000;0.5332;0.9709;
1235.1000;0.5364;0.9898;
1235.4000;0.5332;0.9827;
1235.7000;0.5324;0.9827;
1236.0000;0.5267;0.9662;
1236.3000;0.5324;0.9827;
1236.6000;0.5340;0.9922;
1236.9000;0.5324;0.9851;
1237.2000;0.5307;0.9780;
1237.5000;0.5340;0.9851;
1237.8000;0.5332;0.9804;
1238.1000;0.5348;0.9757;
1238.4000;0.5315;0.9686;
1238.7000;0.5307;0.9662;
1239.0000;0.5315;0.9733;
1239.3000;0.5324;0.9709;
1239.6000;0.5332;0.9733;
1239.9000;0.5324;0.9733;
1240.2000;0.5324;0.9757;
1240.5000;0.5332;0.9709;
1240.8000;0.5315;0.9757;
1241.1000;0.5332;0.9780;
1241.4000;0.5340;0.9804;
1241.7000;0.5348;0.9780;
1242.0000;0.5332;0.9709;
1242.3000;0.5340;0.9780;
1242.6000;0.5340;0.9946;
1242.9000;0.5332;1.0064;
1243.2000;0.5340;0.9946;
1243.5000;0.5315;0.9780;
1243.8000;0.5340;0.9946;
1244.1000;0.5315;0.9875;
1244.4000;0.5324;0.9922;
1244.7000;0.5324;0.9875;
1245.0000;0.5324;0.9804;
1245.3000;0.5348;0.9780;
1245.6000;0.5332;0.9733;
1245.9000;0.5340;0.9780;
1246.2000;0.5307;0.9709;
1246.5000;0.5332;0.9757;
1246.8000;0.5356;0.9804;
1247.1000;0.5340;0.9733;
1247.4000;0.5340;0.9733;
1247.7000;0.5332;0.9780;
1248.0000;0.5324;0.9686;
1248.3000;0.5332;0.9709;
1248.6000;0.5340;0.9780;
1248.9000;0.5340;0.9733;
1249.2000;0.5332;0.9686;
1249.5000;0.5364;0.9733;
1249.8000;0.5332;0.9709;
1250.1000;0.5332;0.9709;
1250.4000;0.5315;0.9709;
1250.7000;0.5381;0.9804;
1251.0000;0.5332;0.9662;
1251.3000;0.5340;0.9568;
1251.6000;0.5348;0.9638;
1251.9000;0.5332;0.9591;
1252.2000;0.5340;0.9520;
1252.5000;0.5324;0.9473;
1252.8000;0.5340;0.9615;
1253.1000;0.5324;0.9520;
1253.4000;0.5332;0.9544;
1253.7000;0.5315;0.9544;
1254.0000;0.5397;0.9804;
1254.3000;0.5405;0.9780;
1254.6000;0.5283;0.9591;
1254.9000;0.5340;0.9804;
1255.2000;0.5307;0.9733;
1255.5000;0.5299;0.9757;
1255.8000;0.5332;0.9875;
1256.1000;0.5348;0.9709;
1256.4000;0.5324;0.9662;
1256.7000;0.5307;0.9638;
1257.0000;0.5315;0.9662;
1257.3000;0.5348;0.9733;
1257.6000;0.5283;0.9544;
1257.9000;0.5332;0.9757;
1258.2000;0.5332;0.9804;
1258.5000;0.5332;0.9827;
1258.8000;0.5315;0.9851;
1259.1000;0.5348;0.9827;
1259.4000;0.5324;0.9780;
1259.7000;0.5307;0.9780;
1260.0000;0.5299;0.9709;
1260.3000;0.5307;0.9709;
1260.6000;0.5324;0.9780;
1260.9000;0.5324;0.9827;
1261.2000;0.5307;0.9898;
1261.5000;0.5307;0.9922;
1261.8000;0.5307;0.9875;
1262.1000;0.5332;0.9851;
1262.4000;0.5315;0.9827;
1262.7000;0.5356;0.9922;
1263.0000;0.5332;0.9851;
1263.3000;0.5332;0.9898;
1263.6000;0.5332;0.9851;
1263.9000;0.5315;0.9733;
1264.2000;0.5340;0.9780;
1264.5000;0.5324;0.9780;
1264.8000;0.5389;0.9946;
1265.1000;0.5332;0.9851;
1265.4000;0.5307;0.9780;
1265.7000;0.5340;0.9827;
1266.0000;0.5324;0.9804;
1266.3000;0.5307;0.9780;
1266.6000;0.5381;0.9851;
1266.9000;0.5315;0.9709;
1267.2000;0.5315;0.9686;
1267.5000;0.5324;0.9733;
1267.8000;0.5413;0.9898;
1268.1000;0.5307;0.9709;
1268.4000;0.5332;0.9733;
1268.7000;0.5332;0.9804;
1269.0000;0.5324;0.9875;
1269.3000;0.5324;0.9827;
1269.6000;0.5324;0.9875;
1269.9000;0.5324;0.9898;
1270.2000;0.5315;0.9946;
1270.5000;0.5315;0.9946;
1270.8000;0.5405;1.0087;
1271.1000;0.5356;1.0064;
1271.4000;0.5315;0.9993;
1271.7000;0.5307;1.0016;
1272.0000;0.5307;0.9946;
1272.3000;0.5283;0.9780;
1272.6000;0.5332;0.9875;
1272.9000;0.5291;0.9804;
1273.2000;0.5307;0.9757;
1273.5000;0.5348;0.9875;
1273.8000;0.5324;0.9898;
1274.1000;0.5332;0.9922;
1274.4000;0.5372;1.0016;
1274.7000;0.5340;0.9922;
1275.0000;0.5332;0.9922;
1275.3000;0.5324;0.9969;
1275.6000;0.5340;0.9922;
1275.9000;0.5364;0.9946;
1276.2000;0.5332;0.9804;
1276.5000;0.5332;0.9875;
1276.8000;0.5324;0.9851;
1277.1000;0.5332;0.9875;
1277.4000;0.5340;0.9851;
1277.7000;0.5324;0.9827;
1278.0000;0.5307;0.9780;
1278.3000;0.5340;0.9875;
1278.6000;0.5299;0.9875;
1278.9000;0.5291;0.9804;
1279.2000;0.5332;0.9969;
1279.5000;0.5324;0.9898;
1279.8000;0.5315;0.9922;
1280.1000;0.5348;1.0016;
1280.4000;0.5332;0.9946;
1280.7000;0.5307;0.9875;
1281.0000;0.5340;0.9851;
1281.3000;0.5332;0.9780;
1281.6000;0.5307;0.9804;
1281.9000;0.5315;0.9827;
1282.2000;0.5356;0.9827;
1282.5000;0.5332;0.9780;
1282.8000;0.5324;0.9662;
1283.1000;0.5348;0.9757;
1283.4000;0.5324;0.9780;
1283.7000;0.5315;0.9757;
1284.0000;0.5332;0.9780;
1284.3000;0.5332;0.9875;
1284.6000;0.5340;0.9875;
1284.9000;0.5332;0.9851;
1285.2000;0.5332;0.9898;
1285.5000;0.5324;0.9875;
1285.8000;0.5324;0.9969;
1286.1000;0.5315;0.9851;
1286.4000;0.5315;0.9804;
1286.7000;0.5307;0.9757;
1287.0000;0.5299;0.9804;
1287.3000;0.5307;0.9804;
1287.6000;0.5315;0.9804;
1287.9000;0.5307;0.9827;
1288.2000;0.5315;0.9922;
1288.5000;0.5307;1.0016;
1288.8000;0.5332;1.0016;
1289.1000;0.5299;0.9993;
1289.4000;0.5332;1.0040;
1289.7000;0.5299;0.9946;
1290.0000;0.5324;1.0064;
1290.3000;0.5340;1.0040;
1290.6000;0.5315;0.9898;
1290.9000;0.5340;0.9969;
1291.2000;0.5315;0.9922;
1291.5000;0.5356;0.9969;
1291.8000;0.5340;0.9875;
1292.1000;0.5332;0.9851;
1292.4000;0.5324;0.9851;
1292.7000;0.5324;0.9851;
1293.0000;0.5307;0.9851;
1293.3000;0.5324;0.9898;
1293.6000;0.5291;0.9875;
1293.9000;0.5405;1.0182;
1294.2000;0.5315;0.9898;
1294.5000;0.5315;0.9969;
1294.8000;0.5283;0.9969;
1295.1000;0.5324;1.0087;
1295.4000;0.5324;1.0040;
1295.7000;0.5315;0.9969;
1296.0000;0.5283;0.9875;
1296.3000;0.5332;0.9993;
1296.6000;0.5299;0.9922;
1296.9000;0.5332;1.0040;
1297.2000;0.5267;0.9827;
1297.5000;0.5315;0.9969;
1297.8000;0.5332;0.9993;
1298.1000;0.5315;0.9969;
1298.4000;0.5283;0.9827;
1298.7000;0.5324;0.9969;
1299.0000;0.5372;1.0135;
1299.3000;0.5332;1.0087;
1299.6000;0.5315;0.9969;
1299.9000;0.5324;0.9946;
1300.2000;0.5332;1.0064;
1300.5000;0.5315;1.0040;
1300.8000;0.5332;1.0040;
1301.1000;0.5307;0.9969;
1301.4000;0.5340;1.0135;
1301.7000;0.5356;1.0135;
1302.0000;0.5299;0.9946;
1302.3000;0.5315;1.0016;
1302.6000;0.5332;1.0064;
1302.9000;0.5299;1.0016;
1303.2000;0.5307;0.9969;
1303.5000;0.5332;0.9922;
1303.8000;0.5307;0.9898;
1304.1000;0.5307;0.9851;
1304.4000;0.5315;0.9804;
1304.7000;0.5315;0.9922;
1305.0000;0.5315;0.9969;
1305.3000;0.5332;0.9946;
1305.6000;0.5324;0.9946;
1305.9000;0.5324;0.9875;
1306.2000;0.5324;0.9851;
1306.5000;0.5332;0.9993;
1306.8000;0.5348;1.0087;
1307.1000;0.5332;1.0016;
1307.4000;0.5332;1.0040;
1307.7000;0.5372;1.0158;
1308.0000;0.5307;1.0016;
1308.3000;0.5307;1.0016;
1308.6000;0.5299;1.0016;
1308.9000;0.5299;1.0111;
1309.2000;0.5315;1.0135;
1309.5000;0.5307;1.0040;
1309.8000;0.5340;1.0016;
1310.1000;0.5315;0.9969;
1310.4000;0.5315;1.0040;
1310.7000;0.5348;1.0064;
1311.0000;0.5315;1.0016;
1311.3000;0.5299;0.9993;
1311.6000;0.5315;1.0016;
1311.9000;0.5332;1.0087;
1312.2000;0.5324;1.0040;
1312.5000;0.5234;0.9898;
1312.8000;0.5307;1.0229;
1313.1000;0.5324;1.0253;
1313.4000;0.5340;1.0253;
1313.7000;0.5324;1.0253;
1314.0000;0.5324;1.0205;
1314.3000;0.5307;1.0158;
1314.6000;0.5307;1.0087;
1314.9000;0.5324;1.0135;
1315.2000;0.5307;1.0016;
1315.5000;0.5340;1.0016;
1315.8000;0.5307;0.9993;
1316.1000;0.5315;1.0016;
1316.4000;0.5324;1.0087;
1316.7000;0.5324;1.0087;
1317.0000;0.5299;0.9898;
1317.3000;0.5348;1.0111;
1317.6000;0.5299;1.0040;
1317.9000;0.5299;0.9898;
1318.2000;0.5332;0.9969;
1318.5000;0.5340;1.0016;
1318.8000;0.5340;0.9993;
1319.1000;0.5307;0.9946;
1319.4000;0.5324;1.0064;
1319.7000;0.5340;1.0040;
1320.0000;0.5283;0.9851;
1320.3000;0.5332;0.9993;
1320.6000;0.5332;1.0016;
1320.9000;0.5340;1.0158;
1321.2000;0.5332;1.0135;
1321.5000;0.5315;1.0087;
1321.8000;0.5340;1.0135;
1322.1000;0.5332;1.0064;
1322.4000;0.5307;1.0064;
1322.7000;0.5275;0.9922;
1323.0000;0.5299;0.9922;
1323.3000;0.5324;0.9875;
1323.6000;0.5340;0.9922;
1323.9000;0.5299;0.9804;
1324.2000;0.5299;0.9898;
1324.5000;0.5315;0.9946;
1324.8000;0.5315;0.9969;
1325.1000;0.5275;0.9780;
1325.4000;0.5307;0.9804;
1325.7000;0.5324;0.9827;
1326.0000;0.5356;0.9898;
1326.3000;0.5324;0.9922;
1326.6000;0.5324;0.9922;
1326.9000;0.5381;1.0016;
1327.2000;0.5332;0.9780;
1327.5000;0.5340;0.9780;
1327.8000;0.5315;0.9780;
1328.1000;0.5315;0.9875;
1328.4000;0.5332;0.9946;
1328.7000;0.5332;0.9969;
1329.0000;0.5275;0.9827;
1329.3000;0.5315;0.9922;
1329.6000;0.5307;0.9922;
1329.9000;0.5332;0.9993;
1330.2000;0.5340;1.0016;
1330.5000;0.5332;0.9898;
1330.8000;0.5315;0.9875;
1331.1000;0.5397;1.0040;
1331.4000;0.5324;0.9827;
1331.7000;0.5324;0.9875;
1332.0000;0.5315;0.9780;
1332.3000;0.5315;0.9827;
1332.6000;0.5307;0.9804;
1332.9000;0.5340;0.9898;
1333.2000;0.5332;0.9875;
1333.5000;0.5315;0.9898;
1333.8000;0.5315;0.9851;
1334.1000;0.5307;0.9851;
1334.4000;0.5299;0.9804;
1334.7000;0.5324;0.9804;
1335.0000;0.5324;0.9804;
1335.3000;0.5315;0.9686;
1335.6000;0.5332;0.9686;
1335.9000;0.5307;0.9686;
1336.2000;0.5315;0.9709;
1336.5000;0.5307;0.9733;
1336.8000;0.5315;0.9733;
1337.1000;0.5307;0.9827;
1337.4000;0.5315;0.9922;
1337.7000;0.5307;0.9733;
1338.0000;0.5324;0.9851;
1338.3000;0.5315;0.9827;
1338.6000;0.5315;0.9827;
1338.9000;0.5307;0.9898;
1339.2000;0.5307;0.9898;
1339.5000;0.5299;0.9898;
1339.8000;0.5324;0.9946;
1340.1000;0.5324;0.9898;
1340.4000;0.5324;0.9922;
1340.7000;0.5258;0.9804;
1341.0000;0.5356;1.0111;
1341.3000;0.5315;1.0135;
1341.6000;0.5324;1.0182;
1341.9000;0.5307;1.0111;
1342.2000;0.5324;1.0064;
1342.5000;0.5332;1.0087;
1342.8000;0.5324;1.0111;
1343.1000;0.5315;1.0064;
1343.4000;0.5315;1.0064;
1343.7000;0.5340;1.0064;
1344.0000;0.5291;0.9946;
1344.3000;0.5315;0.9922;
1344.6000;0.5332;0.9827;
1344.9000;0.5332;0.9898;
1345.2000;0.5332;0.9946;
1345.5000;0.5340;0.9898;
1345.8000;0.5267;0.9733;
1346.1000;0.5283;0.9804;
1346.4000;0.5348;0.9946;
1346.7000;0.5324;0.9898;
1347.0000;0.5340;1.0087;
1347.3000;0.5340;1.0182;
1347.6000;0.5324;1.0158;
1347.9000;0.5307;1.0087;
1348.2000;0.5315;1.0064;
1348.5000;0.5307;1.0064;
1348.8000;0.5324;1.0040;
1349.1000;0.5307;0.9946;
1349.4000;0.5315;0.9922;
1349.7000;0.5307;0.9946;
1350.0000;0.5332;1.0016;
1350.3000;0.5332;1.0064;
1350.6000;0.5356;1.0016;
1350.9000;0.5324;0.9969;
1351.2000;0.5291;0.9875;
1351.5000;0.5324;0.9946;
1351.8000;0.5332;0.9922;
1352.1000;0.5291;0.9804;
1352.4000;0.5315;0.9804;
1352.7000;0.5275;0.9757;
1353.0000;0.5340;0.9875;
1353.3000;0.5348;0.9851;
1353.6000;0.5315;0.9827;
1353.9000;0.5348;0.9827;
1354.2000;0.5348;0.9851;
1354.5000;0.5307;0.9827;
1354.8000;0.5315;0.9875;
1355.1000;0.5324;0.9946;
1355.4000;0.5315;0.9898;
1355.7000;0.5324;0.9851;
1356.0000;0.5307;0.9804;
1356.3000;0.5315;0.9898;
1356.6000;0.5307;0.9946;
1356.9000;0.5324;0.9969;
1357.2000;0.5307;0.9969;
1357.5000;0.5299;0.9898;
1357.8000;0.5291;0.9827;
1358.1000;0.5324;0.9922;
1358.4000;0.5315;0.9875;
1358.7000;0.5283;0.9804;
1359.0000;0.5324;0.9875;
1359.3000;0.5332;0.9827;
1359.6000;0.5315;0.9733;
1359.9000;0.5315;0.9757;
1360.2000;0.5315;0.9733;
1360.5000;0.5315;0.9686;
1360.8000;0.5315;0.9757;
1361.1000;0.5332;0.9780;
1361.4000;0.5315;0.9851;
1361.7000;0.5332;0.9827;
1362.0000;0.5315;0.9898;
1362.3000;0.5307;0.9946;
1362.6000;0.5307;1.0040;
1362.9000;0.5307;1.0064;
1363.2000;0.5332;1.0135;
1363.5000;0.5299;0.9969;
1363.8000;0.5315;0.9993;
1364.1000;0.5307;0.9922;
1364.4000;0.5340;0.9969;
1364.7000;0.5299;0.9875;
1365.0000;0.5267;0.9733;
1365.3000;0.5315;0.9804;
1365.6000;0.5299;0.9851;
1365.9000;0.5315;0.9875;
1366.2000;0.5324;0.9969;
1366.5000;0.5324;0.9922;
1366.8000;0.5356;0.9993;
1367.1000;0.5283;0.9851;
1367.4000;0.5283;0.9922;
1367.7000;0.5299;1.0040;
1368.0000;0.5299;0.9969;
1368.3000;0.5332;0.9969;
1368.6000;0.5299;0.9827;
1368.9000;0.5299;0.9733;
1369.2000;0.5340;0.9780;
1369.5000;0.5364;0.9851;
1369.8000;0.5356;0.9780;
1370.1000;0.5315;0.9851;
1370.4000;0.5315;0.9875;
1370.7000;0.5348;0.9993;
1371.0000;0.5315;0.9993;
1371.3000;0.5307;1.0087;
1371.6000;0.5291;0.9993;
1371.9000;0.5307;1.0016;
1372.2000;0.5324;1.0087;
1372.5000;0.5372;1.0205;
1372.8000;0.5307;1.0135;
1373.1000;0.5315;1.0040;
1373.4000;0.5324;0.9993;
1373.7000;0.5340;1.0016;
1374.0000;0.5315;0.9993;
1374.3000;0.5348;1.0016;
1374.6000;0.5340;0.9969;
1374.9000;0.5307;0.9922;
1375.2000;0.5299;0.9922;
1375.5000;0.5332;0.9922;
1375.8000;0.5315;0.9898;
1376.1000;0.5324;0.9993;
1376.4000;0.5324;0.9969;
1376.7000;0.5315;0.9851;
1377.0000;0.5340;0.9780;
1377.3000;0.5283;0.9709;
1377.6000;0.5307;0.9757;
1377.9000;0.5340;0.9827;
1378.2000;0.5324;0.9898;
1378.5000;0.5315;0.9946;
1378.8000;0.5315;0.9922;
1379.1000;0.5315;0.9898;
1379.4000;0.5315;0.9993;
1379.7000;0.5324;0.9946;
1380.0000;0.5324;0.9922;
1380.3000;0.5315;0.9922;
1380.6000;0.5372;1.0016;
1380.9000;0.5299;0.9827;
1381.2000;0.5324;0.9969;
1381.5000;0.5332;0.9993;
1381.8000;0.5291;0.9922;
1382.1000;0.5324;0.9922;
1382.4000;0.5324;0.9851;
1382.7000;0.5356;0.9922;
1383.0000;0.5332;0.9851;
1383.3000;0.5324;0.9922;
1383.6000;0.5324;0.9922;
1383.9000;0.5324;0.9969;
1384.2000;0.5307;0.9875;
1384.5000;0.5315;0.9993;
1384.8000;0.5356;1.0135;
1385.1000;0.5299;1.0064;
1385.4000;0.5291;1.0182;
1385.7000;0.5315;1.0135;
1386.0000;0.5324;1.0135;
1386.3000;0.5315;1.0016;
1386.6000;0.5307;0.9993;
1386.9000;0.5324;1.0016;
1387.2000;0.5324;1.0016;
1387.5000;0.5315;0.9993;
1387.8000;0.5315;0.9969;
1388.1000;0.5299;0.9969;
1388.4000;0.5307;0.9875;
1388.7000;0.5315;0.9875;
1389.0000;0.5291;0.9804;
1389.3000;0.5315;0.9827;
1389.6000;0.5307;0.9827;
1389.9000;0.5324;0.9804;
1390.2000;0.5324;0.9757;
1390.5000;0.5332;0.9757;
1390.8000;0.5275;0.9591;
1391.1000;0.5324;0.9709;
1391.4000;0.5324;0.9757;
1391.7000;0.5315;0.9686;
1392.0000;0.5315;0.9686;
1392.3000;0.5356;0.9780;
1392.6000;0.5291;0.9638;
1392.9000;0.5348;0.9827;
1393.2000;0.5332;0.9804;
1393.5000;0.5315;0.9804;
1393.8000;0.5307;0.9780;
1394.1000;0.5340;0.9969;
1394.4000;0.5307;0.9851;
1394.7000;0.5315;0.9898;
1395.0000;0.5315;0.9780;
1395.3000;0.5356;0.9804;
1395.6000;0.5275;0.9520;
1395.9000;0.5332;0.9757;
1396.2000;0.5332;0.9804;
1396.5000;0.5324;0.9780;
1396.8000;0.5356;0.9827;
1397.1000;0.5291;0.9733;
1397.4000;0.5299;0.9686;
1397.7000;0.5291;0.9662;
1398.0000;0.5324;0.9757;
1398.3000;0.5299;0.9757;
1398.6000;0.5364;0.9875;
1398.9000;0.5332;0.9946;
1399.2000;0.5372;1.0016;
1399.5000;0.5315;0.9922;
1399.8000;0.5340;0.9922;
