time/ms;Fluo/V;P700 deltaI/I x10³;
-199.8000;0.5958;0.8684;
-199.5000;0.5950;0.8638;
-199.2000;0.5975;0.8638;
-198.9000;0.5975;0.8661;
-198.6000;0.5983;0.8684;
-198.3000;0.5926;0.8568;
-198.0000;0.6015;0.8661;
-197.7000;0.5975;0.8498;
-197.4000;0.5967;0.8405;
-197.1000;0.5975;0.8405;
-196.8000;0.5983;0.8452;
-196.5000;0.6015;0.8545;
-196.2000;0.5975;0.8452;
-195.9000;0.5967;0.8498;
-195.6000;0.5983;0.8498;
-195.3000;0.5950;0.8429;
-195.0000;0.5958;0.8405;
-194.7000;0.5958;0.8313;
-194.4000;0.5983;0.8405;
-194.1000;0.5983;0.8475;
-193.8000;0.5942;0.8405;
-193.5000;0.5958;0.8498;
-193.2000;0.5958;0.8545;
-192.9000;0.5983;0.8521;
-192.6000;0.5991;0.8498;
-192.3000;0.5958;0.8405;
-192.0000;0.5967;0.8498;
-191.7000;0.5967;0.8545;
-191.4000;0.5975;0.8568;
-191.1000;0.5967;0.8568;
-190.8000;0.5967;0.8545;
-190.5000;0.5967;0.8545;
-190.2000;0.5975;0.8638;
-189.9000;0.5958;0.8638;
-189.6000;0.5958;0.8661;
-189.3000;0.5950;0.8684;
-189.0000;0.5967;0.8591;
-188.7000;0.5958;0.8452;
-188.4000;0.5967;0.8498;
-188.1000;0.5967;0.8452;
-187.8000;0.5975;0.8382;
-187.5000;0.5991;0.8429;
-187.2000;0.5942;0.8382;
-186.9000;0.5967;0.8452;
-186.6000;0.5975;0.8498;
-186.3000;0.5983;0.8475;
-186.0000;0.5967;0.8405;
-185.7000;0.5967;0.8429;
-185.4000;0.5958;0.8452;
-185.1000;0.5975;0.8498;
-184.8000;0.5958;0.8475;
-184.5000;0.5958;0.8545;
-184.2000;0.5942;0.8638;
-183.9000;0.5958;0.8661;
-183.6000;0.5950;0.8614;
-183.3000;0.5967;0.8568;
-183.0000;0.5950;0.8475;
-182.7000;0.5967;0.8452;
-182.4000;0.5967;0.8382;
-182.1000;0.5975;0.8405;
-181.8000;0.5967;0.8545;
-181.5000;0.5983;0.8591;
-181.2000;0.5991;0.8661;
-180.9000;0.5975;0.8545;
-180.6000;0.5975;0.8498;
-180.3000;0.5975;0.8521;
-180.0000;0.5942;0.8429;
-179.7000;0.5975;0.8521;
-179.4000;0.5950;0.8498;
-179.1000;0.5967;0.8568;
-178.8000;0.5958;0.8591;
-178.5000;0.5958;0.8498;
-178.2000;0.5902;0.8405;
-177.9000;0.5967;0.8545;
-177.6000;0.5975;0.8545;
-177.3000;0.5967;0.8498;
-177.0000;0.5975;0.8521;
-176.7000;0.5983;0.8614;
-176.4000;0.5983;0.8707;
-176.1000;0.5983;0.8684;
-175.8000;0.5975;0.8707;
-175.5000;0.5967;0.8823;
-175.2000;0.5975;0.8870;
-174.9000;0.5991;0.8847;
-174.6000;0.5975;0.8730;
-174.3000;0.5983;0.8684;
-174.0000;0.5910;0.8405;
-173.7000;0.5958;0.8521;
-173.4000;0.5975;0.8614;
-173.1000;0.5967;0.8614;
-172.8000;0.5958;0.8452;
-172.5000;0.5983;0.8429;
-172.2000;0.5967;0.8405;
-171.9000;0.5950;0.8405;
-171.6000;0.5975;0.8545;
-171.3000;0.5975;0.8568;
-171.0000;0.5967;0.8591;
-170.7000;0.5983;0.8568;
-170.4000;0.5967;0.8568;
-170.1000;0.5991;0.8614;
-169.8000;0.5991;0.8521;
-169.5000;0.5991;0.8591;
-169.2000;0.5975;0.8614;
-168.9000;0.5975;0.8684;
-168.6000;0.5975;0.8777;
-168.3000;0.5975;0.8823;
-168.0000;0.5967;0.8777;
-167.7000;0.5967;0.8754;
-167.4000;0.5950;0.8800;
-167.1000;0.5983;0.8823;
-166.8000;0.5967;0.8754;
-166.5000;0.5975;0.8707;
-166.2000;0.5958;0.8661;
-165.9000;0.5975;0.8661;
-165.6000;0.5983;0.8661;
-165.3000;0.5975;0.8684;
-165.0000;0.5958;0.8661;
-164.7000;0.5999;0.8638;
-164.4000;0.5950;0.8661;
-164.1000;0.5975;0.8707;
-163.8000;0.5967;0.8754;
-163.5000;0.5983;0.8893;
-163.2000;0.5983;0.8847;
-162.9000;0.5975;0.8777;
-162.6000;0.5975;0.8847;
-162.3000;0.5999;0.8963;
-162.0000;0.5975;0.8916;
-161.7000;0.5967;0.8847;
-161.4000;0.5975;0.8847;
-161.1000;0.5975;0.8847;
-160.8000;0.5999;0.8893;
-160.5000;0.5975;0.8754;
-160.2000;0.5991;0.8730;
-159.9000;0.5958;0.8707;
-159.6000;0.5983;0.8754;
-159.3000;0.6024;0.8777;
-159.0000;0.5950;0.8684;
-158.7000;0.5975;0.8638;
-158.4000;0.5975;0.8684;
-158.1000;0.5967;0.8707;
-157.8000;0.5967;0.8777;
-157.5000;0.5958;0.8823;
-157.2000;0.5950;0.8730;
-156.9000;0.5918;0.8638;
-156.6000;0.5967;0.8661;
-156.3000;0.5942;0.8614;
-156.0000;0.5958;0.8707;
-155.7000;0.5975;0.8684;
-155.4000;0.5967;0.8684;
-155.1000;0.5967;0.8754;
-154.8000;0.5967;0.8684;
-154.5000;0.5999;0.8754;
-154.2000;0.5975;0.8638;
-153.9000;0.5983;0.8591;
-153.6000;0.5967;0.8521;
-153.3000;0.5975;0.8475;
-153.0000;0.5958;0.8405;
-152.7000;0.5893;0.8196;
-152.4000;0.5958;0.8382;
-152.1000;0.5967;0.8452;
-151.8000;0.5967;0.8405;
-151.5000;0.5983;0.8591;
-151.2000;0.5967;0.8638;
-150.9000;0.5975;0.8684;
-150.6000;0.5893;0.8475;
-150.3000;0.5926;0.8568;
-150.0000;0.5991;0.8707;
-149.7000;0.5967;0.8777;
-149.4000;0.5967;0.8777;
-149.1000;0.5902;0.8521;
-148.8000;0.5958;0.8614;
-148.5000;0.5975;0.8661;
-148.2000;0.5975;0.8614;
-147.9000;0.5958;0.8498;
-147.6000;0.5958;0.8568;
-147.3000;0.5958;0.8591;
-147.0000;0.5967;0.8661;
-146.7000;0.5967;0.8684;
-146.4000;0.5975;0.8661;
-146.1000;0.5967;0.8661;
-145.8000;0.5999;0.8823;
-145.5000;0.5975;0.8730;
-145.2000;0.5950;0.8638;
-144.9000;0.5958;0.8661;
-144.6000;0.5958;0.8707;
-144.3000;0.5958;0.8800;
-144.0000;0.5950;0.8754;
-143.7000;0.5967;0.8777;
-143.4000;0.6015;0.8893;
-143.1000;0.5967;0.8707;
-142.8000;0.5958;0.8707;
-142.5000;0.5942;0.8730;
-142.2000;0.5918;0.8730;
-141.9000;0.5958;0.8754;
-141.6000;0.5967;0.8730;
-141.3000;0.5926;0.8661;
-141.0000;0.5950;0.8777;
-140.7000;0.5975;0.8777;
-140.4000;0.5967;0.8847;
-140.1000;0.5967;0.8870;
-139.8000;0.5958;0.8916;
-139.5000;0.5967;0.8800;
-139.2000;0.5983;0.8777;
-138.9000;0.5950;0.8707;
-138.6000;0.5958;0.8684;
-138.3000;0.5999;0.8684;
-138.0000;0.5975;0.8638;
-137.7000;0.5967;0.8614;
-137.4000;0.5958;0.8684;
-137.1000;0.5967;0.8707;
-136.8000;0.5958;0.8684;
-136.5000;0.5975;0.8800;
-136.2000;0.6015;0.8823;
-135.9000;0.5975;0.8684;
-135.6000;0.5991;0.8730;
-135.3000;0.5902;0.8475;
-135.0000;0.5958;0.8614;
-134.7000;0.5958;0.8614;
-134.4000;0.5950;0.8614;
-134.1000;0.5967;0.8754;
-133.8000;0.5950;0.8777;
-133.5000;0.5958;0.8730;
-133.2000;0.5958;0.8707;
-132.9000;0.5958;0.8707;
-132.6000;0.5967;0.8661;
-132.3000;0.5958;0.8591;
-132.0000;0.5958;0.8521;
-131.7000;0.5975;0.8614;
-131.4000;0.5975;0.8707;
-131.1000;0.5934;0.8498;
-130.8000;0.5958;0.8475;
-130.5000;0.5958;0.8498;
-130.2000;0.5975;0.8429;
-129.9000;0.5983;0.8475;
-129.6000;0.5967;0.8452;
-129.3000;0.6015;0.8545;
-129.0000;0.5942;0.8498;
-128.7000;0.5958;0.8498;
-128.4000;0.6024;0.8545;
-128.1000;0.5950;0.8475;
-127.8000;0.5942;0.8498;
-127.5000;0.5958;0.8498;
-127.2000;0.5975;0.8498;
-126.9000;0.5958;0.8614;
-126.6000;0.5975;0.8707;
-126.3000;0.5893;0.8614;
-126.0000;0.5967;0.8777;
-125.7000;0.5942;0.8661;
-125.4000;0.5934;0.8638;
-125.1000;0.5967;0.8730;
-124.8000;0.5958;0.8707;
-124.5000;0.5958;0.8707;
-124.2000;0.5975;0.8684;
-123.9000;0.5991;0.8800;
-123.6000;0.5975;0.8707;
-123.3000;0.5975;0.8754;
-123.0000;0.5958;0.8777;
-122.7000;0.5958;0.8684;
-122.4000;0.5958;0.8591;
-122.1000;0.5942;0.8545;
-121.8000;0.6056;0.8847;
-121.5000;0.5967;0.8498;
-121.2000;0.5975;0.8498;
-120.9000;0.5950;0.8498;
-120.6000;0.5958;0.8475;
-120.3000;0.5983;0.8521;
-120.0000;0.5983;0.8498;
-119.7000;0.5958;0.8498;
-119.4000;0.5983;0.8545;
-119.1000;0.5958;0.8382;
-118.8000;0.5991;0.8475;
-118.5000;0.5975;0.8498;
-118.2000;0.5983;0.8429;
-117.9000;0.5950;0.8289;
-117.6000;0.5967;0.8359;
-117.3000;0.6024;0.8498;
-117.0000;0.5967;0.8405;
-116.7000;0.5975;0.8382;
-116.4000;0.5967;0.8498;
-116.1000;0.5967;0.8475;
-115.8000;0.5958;0.8498;
-115.5000;0.5942;0.8475;
-115.2000;0.5942;0.8498;
-114.9000;0.5950;0.8498;
-114.6000;0.5967;0.8521;
-114.3000;0.5958;0.8498;
-114.0000;0.5967;0.8521;
-113.7000;0.6007;0.8707;
-113.4000;0.5983;0.8638;
-113.1000;0.5967;0.8591;
-112.8000;0.5950;0.8498;
-112.5000;0.5975;0.8568;
-112.2000;0.5958;0.8568;
-111.9000;0.5950;0.8545;
-111.6000;0.5950;0.8568;
-111.3000;0.6015;0.8707;
-111.0000;0.6040;0.8684;
-110.7000;0.6072;0.8800;
-110.4000;0.5983;0.8498;
-110.1000;0.5967;0.8429;
-109.8000;0.5975;0.8475;
-109.5000;0.5999;0.8405;
-109.2000;0.5999;0.8452;
-108.9000;0.5975;0.8359;
-108.6000;0.5967;0.8359;
-108.3000;0.5991;0.8289;
-108.0000;0.5910;0.8080;
-107.7000;0.5958;0.8266;
-107.4000;0.5942;0.8289;
-107.1000;0.5942;0.8313;
-106.8000;0.5983;0.8498;
-106.5000;0.5950;0.8452;
-106.2000;0.5975;0.8452;
-105.9000;0.5942;0.8405;
-105.6000;0.5975;0.8475;
-105.3000;0.5967;0.8614;
-105.0000;0.5967;0.8591;
-104.7000;0.5983;0.8591;
-104.4000;0.6015;0.8707;
-104.1000;0.5975;0.8521;
-103.8000;0.5983;0.8521;
-103.5000;0.5975;0.8475;
-103.2000;0.5967;0.8359;
-102.9000;0.5958;0.8336;
-102.6000;0.5958;0.8289;
-102.3000;0.5958;0.8382;
-102.0000;0.5967;0.8289;
-101.7000;0.5958;0.8289;
-101.4000;0.5950;0.8429;
-101.1000;0.5967;0.8429;
-100.8000;0.5991;0.8475;
-100.5000;0.5999;0.8568;
-100.2000;0.5967;0.8452;
-99.9000;0.5967;0.8475;
-99.6000;0.5975;0.8475;
-99.3000;0.5983;0.8498;
-99.0000;0.5958;0.8359;
-98.7000;0.5942;0.8382;
-98.4000;0.5942;0.8382;
-98.1000;0.5967;0.8475;
-97.8000;0.6007;0.8568;
-97.5000;0.5950;0.8475;
-97.2000;0.5975;0.8452;
-96.9000;0.5958;0.8359;
-96.6000;0.5910;0.8266;
-96.3000;0.5967;0.8498;
-96.0000;0.5983;0.8614;
-95.7000;0.5991;0.8684;
-95.4000;0.5975;0.8614;
-95.1000;0.5958;0.8521;
-94.8000;0.5975;0.8568;
-94.5000;0.6072;0.8730;
-94.2000;0.5983;0.8429;
-93.9000;0.5975;0.8405;
-93.6000;0.5983;0.8452;
-93.3000;0.6007;0.8591;
-93.0000;0.5950;0.8382;
-92.7000;0.5975;0.8452;
-92.4000;0.5950;0.8405;
-92.1000;0.5991;0.8521;
-91.8000;0.5991;0.8545;
-91.5000;0.5967;0.8568;
-91.2000;0.5983;0.8614;
-90.9000;0.5983;0.8707;
-90.6000;0.5958;0.8614;
-90.3000;0.5983;0.8661;
-90.0000;0.5967;0.8614;
-89.7000;0.5967;0.8521;
-89.4000;0.5983;0.8382;
-89.1000;0.6048;0.8429;
-88.8000;0.5975;0.8266;
-88.5000;0.5967;0.8173;
-88.2000;0.5942;0.8150;
-87.9000;0.5958;0.8127;
-87.6000;0.5983;0.8220;
-87.3000;0.5918;0.8011;
-87.0000;0.5950;0.8243;
-86.7000;0.5983;0.8220;
-86.4000;0.6056;0.8289;
-86.1000;0.5975;0.8057;
-85.8000;0.5942;0.8057;
-85.5000;0.5975;0.8220;
-85.2000;0.5975;0.8173;
-84.9000;0.5950;0.8173;
-84.6000;0.5958;0.8173;
-84.3000;0.5942;0.8196;
-84.0000;0.5950;0.8243;
-83.7000;0.5958;0.8313;
-83.4000;0.5967;0.8336;
-83.1000;0.5999;0.8382;
-82.8000;0.5950;0.8359;
-82.5000;0.5999;0.8382;
-82.2000;0.5958;0.8313;
-81.9000;0.5967;0.8313;
-81.6000;0.5950;0.8150;
-81.3000;0.5958;0.8150;
-81.0000;0.5934;0.8173;
-80.7000;0.5934;0.8173;
-80.4000;0.5958;0.8313;
-80.1000;0.5958;0.8266;
-79.8000;0.5950;0.8313;
-79.5000;0.5918;0.8243;
-79.2000;0.5991;0.8429;
-78.9000;0.5967;0.8429;
-78.6000;0.5918;0.8243;
-78.3000;0.5950;0.8313;
-78.0000;0.5975;0.8359;
-77.7000;0.5902;0.8196;
-77.4000;0.5950;0.8336;
-77.1000;0.5967;0.8359;
-76.8000;0.5958;0.8266;
-76.5000;0.5958;0.8196;
-76.2000;0.5967;0.8289;
-75.9000;0.5958;0.8313;
-75.6000;0.5934;0.8243;
-75.3000;0.5967;0.8266;
-75.0000;0.5967;0.8266;
-74.7000;0.5910;0.8104;
-74.4000;0.5999;0.8336;
-74.1000;0.5967;0.8359;
-73.8000;0.5967;0.8498;
-73.5000;0.5967;0.8429;
-73.2000;0.5983;0.8452;
-72.9000;0.5967;0.8359;
-72.6000;0.5958;0.8359;
-72.3000;0.5950;0.8382;
-72.0000;0.5967;0.8382;
-71.7000;0.5902;0.8220;
-71.4000;0.5967;0.8359;
-71.1000;0.5975;0.8359;
-70.8000;0.5983;0.8336;
-70.5000;0.5950;0.8220;
-70.2000;0.5950;0.8220;
-69.9000;0.5950;0.8266;
-69.6000;0.5999;0.8452;
-69.3000;0.5950;0.8359;
-69.0000;0.5967;0.8359;
-68.7000;0.5983;0.8429;
-68.4000;0.5958;0.8429;
-68.1000;0.5958;0.8568;
-67.8000;0.5991;0.8707;
-67.5000;0.5983;0.8614;
-67.2000;0.5975;0.8498;
-66.9000;0.5991;0.8429;
-66.6000;0.5983;0.8498;
-66.3000;0.5983;0.8475;
-66.0000;0.5983;0.8429;
-65.7000;0.5975;0.8452;
-65.4000;0.5999;0.8521;
-65.1000;0.5902;0.8243;
-64.8000;0.5942;0.8452;
-64.5000;0.5942;0.8521;
-64.2000;0.5967;0.8568;
-63.9000;0.5967;0.8591;
-63.6000;0.5983;0.8707;
-63.3000;0.5999;0.8754;
-63.0000;0.5975;0.8661;
-62.7000;0.5999;0.8684;
-62.4000;0.5983;0.8568;
-62.1000;0.5983;0.8475;
-61.8000;0.5975;0.8498;
-61.5000;0.5983;0.8545;
-61.2000;0.5983;0.8498;
-60.9000;0.5958;0.8475;
-60.6000;0.5958;0.8429;
-60.3000;0.5967;0.8429;
-60.0000;0.5975;0.8475;
-59.7000;0.5950;0.8382;
-59.4000;0.5950;0.8359;
-59.1000;0.5958;0.8452;
-58.8000;0.5950;0.8498;
-58.5000;0.5950;0.8521;
-58.2000;0.6040;0.8754;
-57.9000;0.5950;0.8521;
-57.6000;0.5975;0.8521;
-57.3000;0.6024;0.8661;
-57.0000;0.5983;0.8638;
-56.7000;0.5942;0.8568;
-56.4000;0.5975;0.8568;
-56.1000;0.5958;0.8568;
-55.8000;0.5926;0.8498;
-55.5000;0.5967;0.8614;
-55.2000;0.5967;0.8591;
-54.9000;0.5975;0.8475;
-54.6000;0.5967;0.8382;
-54.3000;0.5975;0.8429;
-54.0000;0.5950;0.8336;
-53.7000;0.5958;0.8405;
-53.4000;0.5991;0.8591;
-53.1000;0.5967;0.8545;
-52.8000;0.5983;0.8684;
-52.5000;0.5950;0.8521;
-52.2000;0.5958;0.8429;
-51.9000;0.5983;0.8382;
-51.6000;0.5967;0.8313;
-51.3000;0.5967;0.8336;
-51.0000;0.5958;0.8313;
-50.7000;0.5967;0.8313;
-50.4000;0.6032;0.8359;
-50.1000;0.5967;0.8173;
-49.8000;0.5967;0.8220;
-49.5000;0.5958;0.8196;
-49.2000;0.5958;0.8173;
-48.9000;0.5942;0.8173;
-48.6000;0.5958;0.8266;
-48.3000;0.5934;0.8289;
-48.0000;0.5942;0.8289;
-47.7000;0.5975;0.8429;
-47.4000;0.5967;0.8475;
-47.1000;0.5991;0.8591;
-46.8000;0.5958;0.8521;
-46.5000;0.5958;0.8521;
-46.2000;0.5942;0.8591;
-45.9000;0.5958;0.8545;
-45.6000;0.5958;0.8429;
-45.3000;0.5950;0.8382;
-45.0000;0.5958;0.8545;
-44.7000;0.5983;0.8684;
-44.4000;0.5975;0.8521;
-44.1000;0.5967;0.8405;
-43.8000;0.5885;0.8173;
-43.5000;0.5983;0.8429;
-43.2000;0.5958;0.8452;
-42.9000;0.5967;0.8452;
-42.6000;0.5991;0.8498;
-42.3000;0.5975;0.8452;
-42.0000;0.5975;0.8452;
-41.7000;0.5991;0.8498;
-41.4000;0.5967;0.8452;
-41.1000;0.5967;0.8405;
-40.8000;0.5975;0.8429;
-40.5000;0.5950;0.8429;
-40.2000;0.5967;0.8382;
-39.9000;0.5975;0.8405;
-39.6000;0.5999;0.8521;
-39.3000;0.5975;0.8475;
-39.0000;0.5967;0.8382;
-38.7000;0.5999;0.8452;
-38.4000;0.5934;0.8405;
-38.1000;0.5958;0.8545;
-37.8000;0.5950;0.8521;
-37.5000;0.5942;0.8498;
-37.2000;0.5958;0.8475;
-36.9000;0.5967;0.8591;
-36.6000;0.5958;0.8521;
-36.3000;0.5967;0.8568;
-36.0000;0.5958;0.8568;
-35.7000;0.5950;0.8614;
-35.4000;0.5958;0.8730;
-35.1000;0.5958;0.8545;
-34.8000;0.5950;0.8638;
-34.5000;0.5942;0.8638;
-34.2000;0.6015;0.8684;
-33.9000;0.5975;0.8521;
-33.6000;0.5950;0.8545;
-33.3000;0.5950;0.8521;
-33.0000;0.5975;0.8429;
-32.7000;0.5958;0.8359;
-32.4000;0.5967;0.8313;
-32.1000;0.5910;0.8150;
-31.8000;0.5983;0.8313;
-31.5000;0.5950;0.8405;
-31.2000;0.5983;0.8475;
-30.9000;0.5967;0.8429;
-30.6000;0.5967;0.8498;
-30.3000;0.5967;0.8591;
-30.0000;0.5975;0.8638;
-29.7000;0.5967;0.8661;
-29.4000;0.5967;0.8638;
-29.1000;0.5983;0.8614;
-28.8000;0.5975;0.8591;
-28.5000;0.5958;0.8521;
-28.2000;0.5950;0.8614;
-27.9000;0.5967;0.8684;
-27.6000;0.5958;0.8707;
-27.3000;0.5950;0.8661;
-27.0000;0.5967;0.8614;
-26.7000;0.5975;0.8638;
-26.4000;0.5975;0.8614;
-26.1000;0.5958;0.8614;
-25.8000;0.5958;0.8638;
-25.5000;0.6007;0.8730;
-25.2000;0.5983;0.8684;
-24.9000;0.5967;0.8591;
-24.6000;0.6024;0.8684;
-24.3000;0.5967;0.8591;
-24.0000;0.5975;0.8638;
-23.7000;0.5958;0.8707;
-23.4000;0.5967;0.8684;
-23.1000;0.5967;0.8661;
-22.8000;0.5958;0.8661;
-22.5000;0.5967;0.8661;
-22.2000;0.5958;0.8638;
-21.9000;0.5967;0.8638;
-21.6000;0.5975;0.8684;
-21.3000;0.5991;0.8754;
-21.0000;0.5967;0.8707;
-20.7000;0.5983;0.8661;
-20.4000;0.5983;0.8591;
-20.1000;0.5967;0.8452;
-19.8000;0.5869;0.8243;
-19.5000;0.5967;0.8521;
-19.2000;0.5967;0.8545;
-18.9000;0.5950;0.8475;
-18.6000;0.5934;0.8382;
-18.3000;0.5893;0.8382;
-18.0000;0.5975;0.8545;
-17.7000;0.5967;0.8614;
-17.4000;0.5991;0.8684;
-17.1000;0.5967;0.8591;
-16.8000;0.5967;0.8638;
-16.5000;0.5975;0.8730;
-16.2000;0.5958;0.8707;
-15.9000;0.5958;0.8638;
-15.6000;0.5967;0.8614;
-15.3000;0.6007;0.8591;
-15.0000;0.5958;0.8359;
-14.7000;0.5967;0.8359;
-14.4000;0.5958;0.8313;
-14.1000;0.5958;0.8313;
-13.8000;0.5975;0.8313;
-13.5000;0.5950;0.8289;
-13.2000;0.5877;0.8196;
-12.9000;0.5975;0.8452;
-12.6000;0.5975;0.8591;
-12.3000;0.5967;0.8614;
-12.0000;0.5975;0.8614;
-11.7000;0.5967;0.8638;
-11.4000;0.5958;0.8521;
-11.1000;0.6015;0.8614;
-10.8000;0.5975;0.8568;
-10.5000;0.5893;0.8359;
-10.2000;0.5983;0.8638;
-9.9000;0.5983;0.8684;
-9.6000;0.5934;0.8568;
-9.3000;0.5983;0.8730;
-9.0000;0.5967;0.8707;
-8.7000;0.5967;0.8568;
-8.4000;0.5983;0.8684;
-8.1000;0.5967;0.8730;
-7.8000;0.5942;0.8754;
-7.5000;0.5967;0.8823;
-7.2000;0.5967;0.8684;
-6.9000;0.5999;0.8684;
-6.6000;0.5967;0.8498;
-6.3000;0.5967;0.8452;
-6.0000;0.5983;0.8521;
-5.7000;0.5958;0.8452;
-5.4000;0.5967;0.8521;
-5.1000;0.5983;0.8452;
-4.8000;0.5861;0.8173;
-4.5000;0.5934;0.8545;
-4.2000;0.5991;0.8638;
-3.9000;0.5975;0.8614;
-3.6000;0.5975;0.8638;
-3.3000;0.5910;0.8545;
-3.0000;0.5983;0.8707;
-2.7000;0.5967;0.8638;
-2.4000;0.5983;0.8638;
-2.1000;0.5967;0.8638;
-1.8000;0.5967;0.8614;
-1.5000;0.5950;0.8707;
-1.2000;0.5958;0.8661;
-0.9000;0.5975;0.8661;
-0.6000;0.5975;0.8707;
-0.3000;0.5958;0.8777;
0.0000;0.5958;0.8777;
0.3000;0.6040;0.8893;
0.6000;0.6162;0.9172;
0.9000;0.6154;0.9125;
1.2000;0.6178;0.9357;
1.5000;0.6227;0.9590;
1.8000;0.6219;0.9636;
2.1000;0.6252;0.9775;
2.4000;0.6268;0.9891;
2.7000;0.6292;1.0008;
3.0000;0.6300;1.0077;
3.3000;0.6309;1.0193;
3.6000;0.6325;1.0263;
3.9000;0.6349;1.0286;
4.2000;0.6349;1.0333;
4.5000;0.6365;1.0402;
4.8000;0.6365;1.0425;
5.1000;0.6365;1.0379;
5.4000;0.6374;1.0425;
5.7000;0.6357;1.0402;
6.0000;0.6390;1.0425;
6.3000;0.6374;1.0518;
6.6000;0.6398;1.0495;
6.9000;0.6406;1.0449;
7.2000;0.6398;1.0379;
7.5000;0.6414;1.0379;
7.8000;0.6414;1.0425;
8.1000;0.6422;1.0379;
8.4000;0.6431;1.0402;
8.7000;0.6422;1.0449;
9.0000;0.6431;1.0472;
9.3000;0.6431;1.0472;
9.6000;0.6439;1.0472;
9.9000;0.6447;1.0588;
10.2000;0.6471;1.0588;
10.5000;0.6455;1.0565;
10.8000;0.6447;1.0727;
11.1000;0.6463;1.0820;
11.4000;0.6471;1.0820;
11.7000;0.6488;1.0774;
12.0000;0.6479;1.0727;
12.3000;0.6471;1.0727;
12.6000;0.6479;1.0774;
12.9000;0.6414;1.0588;
13.2000;0.6479;1.0727;
13.5000;0.6479;1.0658;
13.8000;0.6422;1.0472;
14.1000;0.6504;1.0518;
14.4000;0.6536;1.0565;
14.7000;0.6488;1.0472;
15.0000;0.6512;1.0472;
15.3000;0.6512;1.0588;
15.6000;0.6520;1.0495;
15.9000;0.6528;1.0611;
16.2000;0.6528;1.0565;
16.5000;0.6528;1.0565;
16.8000;0.6545;1.0588;
17.1000;0.6512;1.0425;
17.4000;0.6536;1.0472;
17.7000;0.6577;1.0588;
18.0000;0.6569;1.0588;
18.3000;0.6618;1.0727;
18.6000;0.6545;1.0425;
18.9000;0.6569;1.0495;
19.2000;0.6683;1.0774;
19.5000;0.6585;1.0542;
19.8000;0.6577;1.0495;
20.1000;0.6520;1.0379;
20.4000;0.6585;1.0402;
20.7000;0.6569;1.0402;
21.0000;0.6593;1.0472;
21.3000;0.6602;1.0542;
21.6000;0.6569;1.0542;
21.9000;0.6610;1.0634;
22.2000;0.6577;1.0611;
22.5000;0.6585;1.0611;
22.8000;0.6610;1.0611;
23.1000;0.6561;1.0518;
23.4000;0.6593;1.0588;
23.7000;0.6618;1.0518;
24.0000;0.6593;1.0449;
24.3000;0.6610;1.0495;
24.6000;0.6626;1.0518;
24.9000;0.6618;1.0402;
25.2000;0.6577;1.0379;
25.5000;0.6602;1.0472;
25.8000;0.6618;1.0495;
26.1000;0.6642;1.0495;
26.4000;0.6618;1.0472;
26.7000;0.6610;1.0588;
27.0000;0.6545;1.0518;
27.3000;0.6626;1.0704;
27.6000;0.6675;1.0658;
27.9000;0.6618;1.0518;
28.2000;0.6626;1.0518;
28.5000;0.6634;1.0495;
28.8000;0.6618;1.0542;
29.1000;0.6602;1.0588;
29.4000;0.6642;1.0681;
29.7000;0.6650;1.0681;
30.0000;0.6626;1.0634;
30.3000;0.6650;1.0681;
30.6000;0.6642;1.0658;
30.9000;0.6659;1.0611;
31.2000;0.6675;1.0634;
31.5000;0.6650;1.0611;
31.8000;0.6642;1.0588;
32.1000;0.6626;1.0542;
32.4000;0.6667;1.0658;
32.7000;0.6675;1.0634;
33.0000;0.6650;1.0634;
33.3000;0.6602;1.0518;
33.6000;0.6650;1.0634;
33.9000;0.6642;1.0658;
34.2000;0.6659;1.0611;
34.5000;0.6659;1.0472;
34.8000;0.6659;1.0495;
35.1000;0.6650;1.0518;
35.4000;0.6667;1.0565;
35.7000;0.6740;1.0704;
36.0000;0.6642;1.0449;
36.3000;0.6667;1.0472;
36.6000;0.6691;1.0518;
36.9000;0.6650;1.0356;
37.2000;0.6602;1.0263;
37.5000;0.6691;1.0472;
37.8000;0.6545;1.0008;
38.1000;0.6667;1.0309;
38.4000;0.6561;1.0008;
38.7000;0.6667;1.0263;
39.0000;0.6667;1.0309;
39.3000;0.6683;1.0449;
39.6000;0.6716;1.0542;
39.9000;0.6683;1.0379;
40.2000;0.6659;1.0286;
40.5000;0.6716;1.0402;
40.8000;0.6691;1.0402;
41.1000;0.6683;1.0356;
41.4000;0.6707;1.0449;
41.7000;0.6699;1.0472;
42.0000;0.6675;1.0449;
42.3000;0.6691;1.0495;
42.6000;0.6675;1.0425;
42.9000;0.6683;1.0495;
43.2000;0.6642;1.0333;
43.5000;0.6683;1.0402;
43.8000;0.6699;1.0425;
44.1000;0.6618;1.0333;
44.4000;0.6691;1.0472;
44.7000;0.6675;1.0449;
45.0000;0.6683;1.0495;
45.3000;0.6683;1.0425;
45.6000;0.6675;1.0449;
45.9000;0.6683;1.0472;
46.2000;0.6764;1.0658;
46.5000;0.6707;1.0495;
46.8000;0.6683;1.0495;
47.1000;0.6642;1.0309;
47.4000;0.6683;1.0356;
47.7000;0.6691;1.0402;
48.0000;0.6691;1.0402;
48.3000;0.6699;1.0472;
48.6000;0.6724;1.0542;
48.9000;0.6691;1.0449;
49.2000;0.6675;1.0402;
49.5000;0.6659;1.0309;
49.8000;0.6667;1.0240;
50.1000;0.6691;1.0356;
50.4000;0.6691;1.0379;
50.7000;0.6683;1.0379;
51.0000;0.6707;1.0356;
51.3000;0.6683;1.0402;
51.6000;0.6707;1.0425;
51.9000;0.6716;1.0495;
52.2000;0.6699;1.0518;
52.5000;0.6691;1.0565;
52.8000;0.6691;1.0588;
53.1000;0.6691;1.0588;
53.4000;0.6699;1.0634;
53.7000;0.6642;1.0472;
54.0000;0.6716;1.0658;
54.3000;0.6724;1.0681;
54.6000;0.6675;1.0472;
54.9000;0.6650;1.0379;
55.2000;0.6675;1.0402;
55.5000;0.6691;1.0449;
55.8000;0.6699;1.0425;
56.1000;0.6699;1.0495;
56.4000;0.6732;1.0588;
56.7000;0.6707;1.0658;
57.0000;0.6683;1.0611;
57.3000;0.6683;1.0542;
57.6000;0.6707;1.0588;
57.9000;0.6683;1.0518;
58.2000;0.6691;1.0542;
58.5000;0.6691;1.0588;
58.8000;0.6707;1.0611;
59.1000;0.6691;1.0565;
59.4000;0.6691;1.0542;
59.7000;0.6724;1.0518;
60.0000;0.6716;1.0495;
60.3000;0.6683;1.0425;
60.6000;0.6667;1.0472;
60.9000;0.6699;1.0634;
61.2000;0.6699;1.0611;
61.5000;0.6772;1.0704;
61.8000;0.6716;1.0518;
62.1000;0.6707;1.0495;
62.4000;0.6707;1.0472;
62.7000;0.6724;1.0518;
63.0000;0.6707;1.0425;
63.3000;0.6699;1.0495;
63.6000;0.6691;1.0472;
63.9000;0.6716;1.0425;
64.2000;0.6732;1.0449;
64.5000;0.6707;1.0472;
64.8000;0.6707;1.0495;
65.1000;0.6716;1.0402;
65.4000;0.6707;1.0402;
65.7000;0.6699;1.0286;
66.0000;0.6716;1.0356;
66.3000;0.6764;1.0611;
66.6000;0.6732;1.0611;
66.9000;0.6716;1.0611;
67.2000;0.6724;1.0681;
67.5000;0.6683;1.0704;
67.8000;0.6724;1.0681;
68.1000;0.6707;1.0658;
68.4000;0.6716;1.0704;
68.7000;0.6732;1.0634;
69.0000;0.6699;1.0542;
69.3000;0.6683;1.0495;
69.6000;0.6699;1.0542;
69.9000;0.6691;1.0518;
70.2000;0.6732;1.0472;
70.5000;0.6764;1.0542;
70.8000;0.6683;1.0449;
71.1000;0.6707;1.0425;
71.4000;0.6716;1.0449;
71.7000;0.6707;1.0518;
72.0000;0.6748;1.0565;
72.3000;0.6699;1.0425;
72.6000;0.6716;1.0565;
72.9000;0.6716;1.0495;
73.2000;0.6724;1.0542;
73.5000;0.6691;1.0425;
73.8000;0.6716;1.0449;
74.1000;0.6716;1.0472;
74.4000;0.6716;1.0472;
74.7000;0.6691;1.0425;
75.0000;0.6699;1.0472;
75.3000;0.6707;1.0495;
75.6000;0.6740;1.0542;
75.9000;0.6724;1.0518;
76.2000;0.6716;1.0472;
76.5000;0.6707;1.0518;
76.8000;0.6716;1.0518;
77.1000;0.6732;1.0518;
77.4000;0.6707;1.0425;
77.7000;0.6724;1.0425;
78.0000;0.6716;1.0379;
78.3000;0.6740;1.0472;
78.6000;0.6821;1.0588;
78.9000;0.6732;1.0356;
79.2000;0.6716;1.0286;
79.5000;0.6732;1.0286;
79.8000;0.6748;1.0379;
80.1000;0.6707;1.0309;
80.4000;0.6691;1.0240;
80.7000;0.6683;1.0170;
81.0000;0.6756;1.0286;
81.3000;0.6634;0.9961;
81.6000;0.6716;1.0217;
81.9000;0.6707;1.0124;
82.2000;0.6716;1.0193;
82.5000;0.6724;1.0170;
82.8000;0.6724;1.0170;
83.1000;0.6724;1.0147;
83.4000;0.6740;1.0147;
83.7000;0.6691;0.9984;
84.0000;0.6724;1.0031;
84.3000;0.6732;1.0124;
84.6000;0.6764;1.0147;
84.9000;0.6683;1.0077;
85.2000;0.6829;1.0402;
85.5000;0.6805;1.0309;
85.8000;0.6829;1.0449;
86.1000;0.6716;1.0263;
86.4000;0.6732;1.0356;
86.7000;0.6732;1.0263;
87.0000;0.6756;1.0240;
87.3000;0.6732;1.0240;
87.6000;0.6740;1.0356;
87.9000;0.6732;1.0333;
88.2000;0.6748;1.0356;
88.5000;0.6724;1.0333;
88.8000;0.6724;1.0240;
89.1000;0.6732;1.0356;
89.4000;0.6716;1.0240;
89.7000;0.6707;1.0240;
90.0000;0.6724;1.0263;
90.3000;0.6740;1.0286;
90.6000;0.6724;1.0356;
90.9000;0.6724;1.0402;
91.2000;0.6732;1.0402;
91.5000;0.6716;1.0402;
91.8000;0.6716;1.0472;
92.1000;0.6732;1.0542;
92.4000;0.6740;1.0542;
92.7000;0.6764;1.0495;
93.0000;0.6740;1.0402;
93.3000;0.6707;1.0286;
93.6000;0.6732;1.0309;
93.9000;0.6716;1.0309;
94.2000;0.6732;1.0379;
94.5000;0.6748;1.0472;
94.8000;0.6732;1.0309;
95.1000;0.6724;1.0333;
95.4000;0.6707;1.0286;
95.7000;0.6748;1.0425;
96.0000;0.6724;1.0402;
96.3000;0.6740;1.0518;
96.6000;0.6716;1.0472;
96.9000;0.6740;1.0472;
97.2000;0.6724;1.0425;
97.5000;0.6748;1.0472;
97.8000;0.6716;1.0263;
98.1000;0.6724;1.0170;
98.4000;0.6764;1.0240;
98.7000;0.6740;1.0240;
99.0000;0.6732;1.0217;
99.3000;0.6764;1.0333;
99.6000;0.6650;1.0147;
99.9000;0.6740;1.0425;
100.2000;0.6724;1.0449;
100.5000;0.6699;1.0425;
100.8000;0.6707;1.0379;
101.1000;0.6732;1.0472;
101.4000;0.6740;1.0518;
101.7000;0.6724;1.0425;
102.0000;0.6716;1.0356;
102.3000;0.6716;1.0402;
102.6000;0.6724;1.0356;
102.9000;0.6740;1.0286;
103.2000;0.6740;1.0356;
103.5000;0.6732;1.0309;
103.8000;0.6724;1.0147;
104.1000;0.6740;1.0170;
104.4000;0.6756;1.0170;
104.7000;0.6724;1.0031;
105.0000;0.6724;1.0077;
105.3000;0.6675;1.0031;
105.6000;0.6797;1.0333;
105.9000;0.6724;1.0170;
106.2000;0.6740;1.0193;
106.5000;0.6732;1.0309;
106.8000;0.6699;1.0263;
107.1000;0.6724;1.0333;
107.4000;0.6724;1.0263;
107.7000;0.6732;1.0333;
108.0000;0.6797;1.0518;
108.3000;0.6724;1.0402;
108.6000;0.6724;1.0356;
108.9000;0.6740;1.0356;
109.2000;0.6707;1.0263;
109.5000;0.6724;1.0263;
109.8000;0.6650;1.0077;
110.1000;0.6740;1.0379;
110.4000;0.6650;1.0217;
110.7000;0.6740;1.0542;
111.0000;0.6699;1.0495;
111.3000;0.6724;1.0518;
111.6000;0.6724;1.0518;
111.9000;0.6740;1.0542;
112.2000;0.6732;1.0611;
112.5000;0.6740;1.0588;
112.8000;0.6732;1.0425;
113.1000;0.6756;1.0379;
113.4000;0.6740;1.0379;
113.7000;0.6732;1.0495;
114.0000;0.6732;1.0449;
114.3000;0.6732;1.0518;
114.6000;0.6756;1.0542;
114.9000;0.6724;1.0588;
115.2000;0.6724;1.0518;
115.5000;0.6740;1.0565;
115.8000;0.6732;1.0565;
116.1000;0.6707;1.0425;
116.4000;0.6740;1.0518;
116.7000;0.6838;1.0727;
117.0000;0.6724;1.0518;
117.3000;0.6724;1.0611;
117.6000;0.6732;1.0565;
117.9000;0.6724;1.0518;
118.2000;0.6675;1.0356;
118.5000;0.6732;1.0449;
118.8000;0.6716;1.0495;
119.1000;0.6740;1.0449;
119.4000;0.6740;1.0425;
119.7000;0.6724;1.0356;
120.0000;0.6732;1.0286;
120.3000;0.6740;1.0333;
120.6000;0.6732;1.0333;
120.9000;0.6740;1.0402;
121.2000;0.6724;1.0402;
121.5000;0.6740;1.0402;
121.8000;0.6748;1.0542;
122.1000;0.6724;1.0542;
122.4000;0.6716;1.0542;
122.7000;0.6732;1.0658;
123.0000;0.6764;1.0704;
123.3000;0.6716;1.0658;
123.6000;0.6740;1.0704;
123.9000;0.6732;1.0751;
124.2000;0.6732;1.0843;
124.5000;0.6732;1.0797;
124.8000;0.6732;1.0774;
125.1000;0.6748;1.0820;
125.4000;0.6732;1.0634;
125.7000;0.6724;1.0611;
126.0000;0.6732;1.0611;
126.3000;0.6634;1.0333;
126.6000;0.6740;1.0472;
126.9000;0.6724;1.0379;
127.2000;0.6691;1.0356;
127.5000;0.6732;1.0425;
127.8000;0.6724;1.0402;
128.1000;0.6724;1.0518;
128.4000;0.6732;1.0472;
128.7000;0.6732;1.0425;
129.0000;0.6724;1.0402;
129.3000;0.6764;1.0425;
129.6000;0.6732;1.0495;
129.9000;0.6675;1.0472;
130.2000;0.6716;1.0518;
130.5000;0.6732;1.0472;
130.8000;0.6716;1.0518;
131.1000;0.6732;1.0565;
131.4000;0.6716;1.0542;
131.7000;0.6707;1.0542;
132.0000;0.6740;1.0542;
132.3000;0.6683;1.0379;
132.6000;0.6675;1.0402;
132.9000;0.6789;1.0588;
133.2000;0.6691;1.0333;
133.5000;0.6732;1.0425;
133.8000;0.6740;1.0402;
134.1000;0.6756;1.0449;
134.4000;0.6789;1.0495;
134.7000;0.6732;1.0309;
135.0000;0.6740;1.0402;
135.3000;0.6724;1.0449;
135.6000;0.6740;1.0565;
135.9000;0.6724;1.0542;
136.2000;0.6732;1.0588;
136.5000;0.6838;1.0843;
136.8000;0.6732;1.0518;
137.1000;0.6732;1.0449;
137.4000;0.6716;1.0449;
137.7000;0.6781;1.0518;
138.0000;0.6716;1.0356;
138.3000;0.6732;1.0402;
138.6000;0.6740;1.0379;
138.9000;0.6732;1.0286;
139.2000;0.6724;1.0240;
139.5000;0.6748;1.0263;
139.8000;0.6724;1.0286;
140.1000;0.6716;1.0240;
140.4000;0.6716;1.0217;
140.7000;0.6748;1.0333;
141.0000;0.6724;1.0309;
141.3000;0.6707;1.0356;
141.6000;0.6716;1.0402;
141.9000;0.6748;1.0518;
142.2000;0.6716;1.0356;
142.5000;0.6659;1.0147;
142.8000;0.6716;1.0240;
143.1000;0.6724;1.0170;
143.4000;0.6724;1.0100;
143.7000;0.6707;1.0008;
144.0000;0.6707;1.0100;
144.3000;0.6756;1.0309;
144.6000;0.6732;1.0286;
144.9000;0.6716;1.0263;
145.2000;0.6740;1.0217;
145.5000;0.6732;1.0286;
145.8000;0.6732;1.0286;
146.1000;0.6716;1.0240;
146.4000;0.6724;1.0170;
146.7000;0.6740;1.0240;
147.0000;0.6683;1.0124;
147.3000;0.6707;1.0147;
147.6000;0.6724;1.0170;
147.9000;0.6756;1.0286;
148.2000;0.6667;1.0217;
148.5000;0.6821;1.0611;
148.8000;0.6732;1.0379;
149.1000;0.6732;1.0449;
149.4000;0.6732;1.0518;
149.7000;0.6764;1.0588;
150.0000;0.6707;1.0588;
150.3000;0.6724;1.0542;
150.6000;0.6732;1.0588;
150.9000;0.6732;1.0565;
151.2000;0.6707;1.0472;
151.5000;0.6716;1.0402;
151.8000;0.6716;1.0333;
152.1000;0.6683;1.0170;
152.4000;0.6691;1.0124;
152.7000;0.6789;1.0402;
153.0000;0.6724;1.0333;
153.3000;0.6659;1.0124;
153.6000;0.6724;1.0286;
153.9000;0.6781;1.0356;
154.2000;0.6716;1.0286;
154.5000;0.6797;1.0495;
154.8000;0.6781;1.0518;
155.1000;0.6732;1.0402;
155.4000;0.6683;1.0217;
155.7000;0.6789;1.0379;
156.0000;0.6732;1.0240;
156.3000;0.6716;1.0147;
156.6000;0.6740;1.0193;
156.9000;0.6781;1.0309;
157.2000;0.6772;1.0379;
157.5000;0.6732;1.0379;
157.8000;0.6740;1.0379;
158.1000;0.6707;1.0402;
158.4000;0.6732;1.0402;
158.7000;0.6716;1.0379;
159.0000;0.6732;1.0379;
159.3000;0.6732;1.0309;
159.6000;0.6732;1.0309;
159.9000;0.6732;1.0449;
160.2000;0.6724;1.0518;
160.5000;0.6756;1.0565;
160.8000;0.6732;1.0518;
161.1000;0.6740;1.0565;
161.4000;0.6732;1.0518;
161.7000;0.6724;1.0472;
162.0000;0.6732;1.0425;
162.3000;0.6732;1.0425;
162.6000;0.6724;1.0356;
162.9000;0.6732;1.0425;
163.2000;0.6724;1.0356;
163.5000;0.6756;1.0425;
163.8000;0.6732;1.0425;
164.1000;0.6740;1.0449;
164.4000;0.6724;1.0449;
164.7000;0.6854;1.0774;
165.0000;0.6732;1.0518;
165.3000;0.6740;1.0542;
165.6000;0.6740;1.0565;
165.9000;0.6724;1.0495;
166.2000;0.6716;1.0472;
166.5000;0.6716;1.0472;
166.8000;0.6732;1.0472;
167.1000;0.6732;1.0472;
167.4000;0.6748;1.0495;
167.7000;0.6740;1.0402;
168.0000;0.6724;1.0263;
168.3000;0.6732;1.0263;
168.6000;0.6781;1.0518;
168.9000;0.6740;1.0425;
169.2000;0.6740;1.0379;
169.5000;0.6748;1.0379;
169.8000;0.6675;1.0193;
170.1000;0.6781;1.0495;
170.4000;0.6707;1.0333;
170.7000;0.6732;1.0333;
171.0000;0.6732;1.0402;
171.3000;0.6764;1.0495;
171.6000;0.6821;1.0681;
171.9000;0.6732;1.0518;
172.2000;0.6740;1.0472;
172.5000;0.6699;1.0402;
172.8000;0.6642;1.0217;
173.1000;0.6797;1.0495;
173.4000;0.6764;1.0379;
173.7000;0.6732;1.0286;
174.0000;0.6772;1.0402;
174.3000;0.6732;1.0286;
174.6000;0.6748;1.0402;
174.9000;0.6748;1.0356;
175.2000;0.6716;1.0263;
175.5000;0.6724;1.0263;
175.8000;0.6740;1.0286;
176.1000;0.6724;1.0217;
176.4000;0.6707;1.0240;
176.7000;0.6772;1.0356;
177.0000;0.6740;1.0286;
177.3000;0.6740;1.0425;
177.6000;0.6716;1.0379;
177.9000;0.6740;1.0495;
178.2000;0.6716;1.0449;
178.5000;0.6724;1.0449;
178.8000;0.6732;1.0449;
179.1000;0.6675;1.0356;
179.4000;0.6716;1.0495;
179.7000;0.6732;1.0588;
180.0000;0.6740;1.0611;
180.3000;0.6724;1.0472;
180.6000;0.6732;1.0379;
180.9000;0.6716;1.0333;
181.2000;0.6740;1.0309;
181.5000;0.6740;1.0333;
181.8000;0.6748;1.0333;
182.1000;0.6732;1.0309;
182.4000;0.6667;1.0286;
182.7000;0.6699;1.0449;
183.0000;0.6707;1.0472;
183.3000;0.6716;1.0495;
183.6000;0.6724;1.0472;
183.9000;0.6716;1.0402;
184.2000;0.6724;1.0402;
184.5000;0.6740;1.0402;
184.8000;0.6740;1.0402;
185.1000;0.6748;1.0425;
185.4000;0.6732;1.0402;
185.7000;0.6732;1.0472;
186.0000;0.6691;1.0472;
186.3000;0.6732;1.0565;
186.6000;0.6683;1.0472;
186.9000;0.6732;1.0495;
187.2000;0.6732;1.0472;
187.5000;0.6740;1.0425;
187.8000;0.6716;1.0356;
188.1000;0.6732;1.0425;
188.4000;0.6732;1.0518;
188.7000;0.6699;1.0449;
189.0000;0.6724;1.0518;
189.3000;0.6724;1.0634;
189.6000;0.6748;1.0681;
189.9000;0.6724;1.0542;
190.2000;0.6724;1.0518;
190.5000;0.6781;1.0634;
190.8000;0.6756;1.0495;
191.1000;0.6764;1.0518;
191.4000;0.6748;1.0518;
191.7000;0.6683;1.0402;
192.0000;0.6724;1.0518;
192.3000;0.6764;1.0611;
192.6000;0.6724;1.0565;
192.9000;0.6732;1.0565;
193.2000;0.6756;1.0634;
193.5000;0.6740;1.0518;
193.8000;0.6699;1.0472;
194.1000;0.6732;1.0565;
194.4000;0.6707;1.0565;
194.7000;0.6724;1.0611;
195.0000;0.6699;1.0588;
195.3000;0.6691;1.0588;
195.6000;0.6707;1.0518;
195.9000;0.6748;1.0565;
196.2000;0.6683;1.0402;
196.5000;0.6724;1.0449;
196.8000;0.6716;1.0472;
197.1000;0.6732;1.0518;
197.4000;0.6732;1.0518;
197.7000;0.6724;1.0588;
198.0000;0.6716;1.0565;
198.3000;0.6634;1.0333;
198.6000;0.6740;1.0472;
198.9000;0.6724;1.0472;
199.2000;0.6716;1.0518;
199.5000;0.6772;1.0565;
199.8000;0.6732;1.0449;
200.1000;0.6724;1.0449;
200.4000;0.6691;1.0309;
200.7000;0.6732;1.0379;
201.0000;0.6740;1.0472;
201.3000;0.6732;1.0518;
201.6000;0.6740;1.0542;
201.9000;0.6740;1.0356;
202.2000;0.6748;1.0309;
202.5000;0.6772;1.0425;
202.8000;0.6740;1.0425;
203.1000;0.6748;1.0472;
203.4000;0.6748;1.0495;
203.7000;0.6707;1.0425;
204.0000;0.6716;1.0449;
204.3000;0.6716;1.0588;
204.6000;0.6732;1.0588;
204.9000;0.6716;1.0472;
205.2000;0.6732;1.0542;
205.5000;0.6748;1.0611;
205.8000;0.6724;1.0495;
206.1000;0.6748;1.0449;
206.4000;0.6732;1.0472;
206.7000;0.6716;1.0495;
207.0000;0.6740;1.0565;
207.3000;0.6740;1.0495;
207.6000;0.6675;1.0356;
207.9000;0.6732;1.0495;
208.2000;0.6740;1.0518;
208.5000;0.6789;1.0565;
208.8000;0.6740;1.0472;
209.1000;0.6716;1.0402;
209.4000;0.6707;1.0495;
209.7000;0.6707;1.0449;
210.0000;0.6732;1.0518;
210.3000;0.6732;1.0588;
210.6000;0.6675;1.0356;
210.9000;0.6740;1.0542;
211.2000;0.6740;1.0611;
211.5000;0.6707;1.0472;
211.8000;0.6740;1.0472;
212.1000;0.6724;1.0425;
212.4000;0.6740;1.0356;
212.7000;0.6740;1.0333;
213.0000;0.6724;1.0356;
213.3000;0.6724;1.0309;
213.6000;0.6748;1.0379;
213.9000;0.6732;1.0309;
214.2000;0.6724;1.0333;
214.5000;0.6748;1.0402;
214.8000;0.6740;1.0379;
215.1000;0.6732;1.0309;
215.4000;0.6732;1.0402;
215.7000;0.6805;1.0658;
216.0000;0.6691;1.0449;
216.3000;0.6699;1.0518;
216.6000;0.6732;1.0495;
216.9000;0.6724;1.0425;
217.2000;0.6740;1.0542;
217.5000;0.6724;1.0565;
217.8000;0.6683;1.0495;
218.1000;0.6764;1.0658;
218.4000;0.6748;1.0658;
218.7000;0.6740;1.0634;
219.0000;0.6748;1.0681;
219.3000;0.6683;1.0611;
219.6000;0.6716;1.0611;
219.9000;0.6732;1.0634;
220.2000;0.6699;1.0495;
220.5000;0.6764;1.0634;
220.8000;0.6732;1.0611;
221.1000;0.6740;1.0611;
221.4000;0.6707;1.0588;
221.7000;0.6724;1.0634;
222.0000;0.6724;1.0658;
222.3000;0.6740;1.0518;
222.6000;0.6699;1.0402;
222.9000;0.6716;1.0356;
223.2000;0.6724;1.0217;
223.5000;0.6650;1.0077;
223.8000;0.6748;1.0309;
224.1000;0.6740;1.0309;
224.4000;0.6659;1.0008;
224.7000;0.6724;1.0286;
225.0000;0.6707;1.0240;
225.3000;0.6707;1.0217;
225.6000;0.6724;1.0240;
225.9000;0.6724;1.0217;
226.2000;0.6772;1.0333;
226.5000;0.6732;1.0309;
226.8000;0.6602;1.0147;
227.1000;0.6724;1.0402;
227.4000;0.6740;1.0356;
227.7000;0.6740;1.0379;
228.0000;0.6724;1.0286;
228.3000;0.6716;1.0309;
228.6000;0.6764;1.0356;
228.9000;0.6740;1.0309;
229.2000;0.6732;1.0333;
229.5000;0.6748;1.0379;
229.8000;0.6707;1.0286;
230.1000;0.6707;1.0309;
230.4000;0.6716;1.0309;
230.7000;0.6724;1.0309;
231.0000;0.6724;1.0286;
231.3000;0.6724;1.0379;
231.6000;0.6797;1.0542;
231.9000;0.6724;1.0333;
232.2000;0.6724;1.0240;
232.5000;0.6699;1.0100;
232.8000;0.6732;1.0147;
233.1000;0.6716;1.0170;
233.4000;0.6724;1.0170;
233.7000;0.6724;1.0193;
234.0000;0.6716;1.0217;
234.3000;0.6732;1.0170;
234.6000;0.6772;1.0356;
234.9000;0.6699;1.0193;
235.2000;0.6724;1.0286;
235.5000;0.6724;1.0333;
235.8000;0.6716;1.0333;
236.1000;0.6724;1.0309;
236.4000;0.6724;1.0333;
236.7000;0.6732;1.0402;
237.0000;0.6716;1.0309;
237.3000;0.6707;1.0309;
237.6000;0.6724;1.0286;
237.9000;0.6716;1.0333;
238.2000;0.6716;1.0333;
238.5000;0.6716;1.0356;
238.8000;0.6724;1.0402;
239.1000;0.6740;1.0402;
239.4000;0.6716;1.0565;
239.7000;0.6716;1.0611;
240.0000;0.6659;1.0472;
240.3000;0.6756;1.0565;
240.6000;0.6740;1.0425;
240.9000;0.6732;1.0495;
241.2000;0.6732;1.0495;
241.5000;0.6797;1.0518;
241.8000;0.6740;1.0425;
242.1000;0.6813;1.0588;
242.4000;0.6716;1.0402;
242.7000;0.6724;1.0379;
243.0000;0.6740;1.0356;
243.3000;0.6724;1.0333;
243.6000;0.6740;1.0402;
243.9000;0.6716;1.0379;
244.2000;0.6740;1.0402;
244.5000;0.6740;1.0472;
244.8000;0.6724;1.0472;
245.1000;0.6716;1.0518;
245.4000;0.6707;1.0588;
245.7000;0.6699;1.0518;
246.0000;0.6724;1.0518;
246.3000;0.6724;1.0449;
246.6000;0.6732;1.0495;
246.9000;0.6707;1.0356;
247.2000;0.6528;0.9799;
247.5000;0.6756;1.0425;
247.8000;0.6716;1.0356;
248.1000;0.6716;1.0309;
248.4000;0.6732;1.0495;
248.7000;0.6634;1.0309;
249.0000;0.6756;1.0634;
249.3000;0.6772;1.0565;
249.6000;0.6691;1.0333;
249.9000;0.6756;1.0565;
250.2000;0.6756;1.0588;
250.5000;0.6724;1.0472;
250.8000;0.6659;1.0309;
251.1000;0.6724;1.0565;
251.4000;0.6716;1.0588;
251.7000;0.6716;1.0518;
252.0000;0.6732;1.0495;
252.3000;0.6716;1.0495;
252.6000;0.6699;1.0449;
252.9000;0.6724;1.0518;
253.2000;0.6724;1.0518;
253.5000;0.6724;1.0472;
253.8000;0.6740;1.0425;
254.1000;0.6724;1.0472;
254.4000;0.6683;1.0402;
254.7000;0.6740;1.0495;
255.0000;0.6724;1.0518;
255.3000;0.6707;1.0542;
255.6000;0.6732;1.0588;
255.9000;0.6716;1.0542;
256.2000;0.6740;1.0588;
256.5000;0.6724;1.0611;
256.8000;0.6716;1.0542;
257.1000;0.6740;1.0542;
257.4000;0.6732;1.0518;
257.7000;0.6748;1.0588;
258.0000;0.6724;1.0611;
258.3000;0.6732;1.0495;
258.6000;0.6732;1.0495;
258.9000;0.6740;1.0542;
259.2000;0.6699;1.0472;
259.5000;0.6732;1.0518;
259.8000;0.6724;1.0518;
260.1000;0.6716;1.0542;
260.4000;0.6707;1.0518;
260.7000;0.6724;1.0472;
261.0000;0.6740;1.0518;
261.3000;0.6707;1.0449;
261.6000;0.6699;1.0449;
261.9000;0.6724;1.0425;
262.2000;0.6724;1.0379;
262.5000;0.6724;1.0356;
262.8000;0.6675;1.0240;
263.1000;0.6740;1.0309;
263.4000;0.6772;1.0309;
263.7000;0.6724;1.0217;
264.0000;0.6716;1.0286;
264.3000;0.6659;1.0240;
264.6000;0.6683;1.0240;
264.9000;0.6732;1.0356;
265.2000;0.6772;1.0379;
265.5000;0.6593;0.9938;
265.8000;0.6748;1.0263;
266.1000;0.6699;1.0077;
266.4000;0.6797;1.0309;
266.7000;0.6772;1.0356;
267.0000;0.6748;1.0425;
267.3000;0.6716;1.0449;
267.6000;0.6716;1.0449;
267.9000;0.6740;1.0565;
268.2000;0.6732;1.0449;
268.5000;0.6699;1.0379;
268.8000;0.6732;1.0425;
269.1000;0.6732;1.0402;
269.4000;0.6691;1.0124;
269.7000;0.6699;1.0147;
270.0000;0.6740;1.0217;
270.3000;0.6683;1.0170;
270.6000;0.6691;1.0217;
270.9000;0.6732;1.0356;
271.2000;0.6740;1.0449;
271.5000;0.6789;1.0472;
271.8000;0.6707;1.0286;
272.1000;0.6716;1.0379;
272.4000;0.6699;1.0240;
272.7000;0.6716;1.0379;
273.0000;0.6756;1.0542;
273.3000;0.6667;1.0309;
273.6000;0.6691;1.0402;
273.9000;0.6707;1.0472;
274.2000;0.6732;1.0542;
274.5000;0.6789;1.0565;
274.8000;0.6716;1.0472;
275.1000;0.6716;1.0449;
275.4000;0.6732;1.0309;
275.7000;0.6716;1.0286;
276.0000;0.6707;1.0333;
276.3000;0.6732;1.0425;
276.6000;0.6667;1.0286;
276.9000;0.6724;1.0379;
277.2000;0.6724;1.0309;
277.5000;0.6748;1.0309;
277.8000;0.6724;1.0286;
278.1000;0.6707;1.0217;
278.4000;0.6724;1.0263;
278.7000;0.6740;1.0333;
279.0000;0.6724;1.0333;
279.3000;0.6724;1.0333;
279.6000;0.6716;1.0286;
279.9000;0.6716;1.0286;
280.2000;0.6707;1.0449;
280.5000;0.6732;1.0542;
280.8000;0.6707;1.0542;
281.1000;0.6724;1.0518;
281.4000;0.6724;1.0472;
281.7000;0.6707;1.0495;
282.0000;0.6699;1.0425;
282.3000;0.6716;1.0333;
282.6000;0.6691;1.0263;
282.9000;0.6740;1.0356;
283.2000;0.6691;1.0333;
283.5000;0.6716;1.0356;
283.8000;0.6716;1.0356;
284.1000;0.6732;1.0356;
284.4000;0.6740;1.0472;
284.7000;0.6740;1.0449;
285.0000;0.6724;1.0425;
285.3000;0.6781;1.0542;
285.6000;0.6740;1.0425;
285.9000;0.6716;1.0379;
286.2000;0.6724;1.0309;
286.5000;0.6748;1.0263;
286.8000;0.6707;1.0193;
287.1000;0.6642;0.9984;
287.4000;0.6716;1.0124;
287.7000;0.6659;0.9961;
288.0000;0.6716;1.0170;
288.3000;0.6732;1.0147;
288.6000;0.6675;1.0124;
288.9000;0.6716;1.0333;
289.2000;0.6716;1.0286;
289.5000;0.6781;1.0309;
289.8000;0.6691;1.0147;
290.1000;0.6732;1.0170;
290.4000;0.6748;1.0217;
290.7000;0.6724;1.0286;
291.0000;0.6724;1.0309;
291.3000;0.6716;1.0263;
291.6000;0.6732;1.0240;
291.9000;0.6740;1.0217;
292.2000;0.6764;1.0286;
292.5000;0.6699;1.0077;
292.8000;0.6732;1.0124;
293.1000;0.6650;1.0054;
293.4000;0.6707;1.0286;
293.7000;0.6716;1.0286;
294.0000;0.6716;1.0286;
294.3000;0.6716;1.0309;
294.6000;0.6716;1.0217;
294.9000;0.6724;1.0286;
295.2000;0.6691;1.0147;
295.5000;0.6699;1.0124;
295.8000;0.6716;1.0147;
296.1000;0.6707;1.0170;
296.4000;0.6716;1.0240;
296.7000;0.6707;1.0263;
297.0000;0.6724;1.0286;
297.3000;0.6724;1.0240;
297.6000;0.6716;1.0309;
297.9000;0.6716;1.0333;
298.2000;0.6707;1.0309;
298.5000;0.6789;1.0402;
298.8000;0.6707;1.0217;
299.1000;0.6724;1.0286;
299.4000;0.6732;1.0333;
299.7000;0.6732;1.0309;
300.0000;0.6716;1.0333;
300.3000;0.6716;1.0356;
300.6000;0.6699;1.0286;
300.9000;0.6716;1.0356;
301.2000;0.6716;1.0333;
301.5000;0.6732;1.0356;
301.8000;0.6740;1.0449;
302.1000;0.6716;1.0449;
302.4000;0.6724;1.0402;
302.7000;0.6707;1.0356;
303.0000;0.6724;1.0449;
303.3000;0.6732;1.0425;
303.6000;0.6724;1.0379;
303.9000;0.6716;1.0379;
304.2000;0.6724;1.0425;
304.5000;0.6675;1.0379;
304.8000;0.6707;1.0472;
305.1000;0.6724;1.0518;
305.4000;0.6716;1.0495;
305.7000;0.6724;1.0588;
306.0000;0.6707;1.0611;
306.3000;0.6707;1.0588;
306.6000;0.6675;1.0449;
306.9000;0.6732;1.0588;
307.2000;0.6748;1.0611;
307.5000;0.6724;1.0565;
307.8000;0.6756;1.0634;
308.1000;0.6732;1.0565;
308.4000;0.6707;1.0518;
308.7000;0.6707;1.0472;
309.0000;0.6716;1.0495;
309.3000;0.6724;1.0449;
309.6000;0.6764;1.0611;
309.9000;0.6748;1.0472;
310.2000;0.6716;1.0379;
310.5000;0.6716;1.0425;
310.8000;0.6732;1.0379;
311.1000;0.6740;1.0379;
311.4000;0.6716;1.0402;
311.7000;0.6724;1.0356;
312.0000;0.6724;1.0309;
312.3000;0.6716;1.0356;
312.6000;0.6650;1.0193;
312.9000;0.6724;1.0263;
313.2000;0.6716;1.0263;
313.5000;0.6732;1.0333;
313.8000;0.6732;1.0309;
314.1000;0.6724;1.0240;
314.4000;0.6724;1.0240;
314.7000;0.6732;1.0379;
315.0000;0.6732;1.0379;
315.3000;0.6691;1.0286;
315.6000;0.6732;1.0402;
315.9000;0.6740;1.0425;
316.2000;0.6740;1.0333;
316.5000;0.6716;1.0217;
316.8000;0.6707;1.0193;
317.1000;0.6716;1.0286;
317.4000;0.6716;1.0263;
317.7000;0.6707;1.0217;
318.0000;0.6683;1.0263;
318.3000;0.6707;1.0402;
318.6000;0.6716;1.0402;
318.9000;0.6691;1.0333;
319.2000;0.6699;1.0356;
319.5000;0.6683;1.0309;
319.8000;0.6724;1.0379;
320.1000;0.6716;1.0472;
320.4000;0.6732;1.0495;
320.7000;0.6707;1.0402;
321.0000;0.6724;1.0518;
321.3000;0.6732;1.0472;
321.6000;0.6707;1.0472;
321.9000;0.6707;1.0449;
322.2000;0.6699;1.0333;
322.5000;0.6732;1.0333;
322.8000;0.6691;1.0286;
323.1000;0.6707;1.0379;
323.4000;0.6724;1.0425;
323.7000;0.6716;1.0495;
324.0000;0.6724;1.0565;
324.3000;0.6716;1.0588;
324.6000;0.6740;1.0658;
324.9000;0.6732;1.0611;
325.2000;0.6732;1.0542;
325.5000;0.6683;1.0472;
325.8000;0.6716;1.0495;
326.1000;0.6732;1.0495;
326.4000;0.6740;1.0518;
326.7000;0.6764;1.0588;
327.0000;0.6740;1.0588;
327.3000;0.6724;1.0518;
327.6000;0.6732;1.0425;
327.9000;0.6716;1.0425;
328.2000;0.6724;1.0518;
328.5000;0.6838;1.0843;
328.8000;0.6724;1.0634;
329.1000;0.6707;1.0611;
329.4000;0.6716;1.0704;
329.7000;0.6740;1.0658;
330.0000;0.6740;1.0611;
330.3000;0.6724;1.0634;
330.6000;0.6724;1.0611;
330.9000;0.6724;1.0588;
331.2000;0.6716;1.0634;
331.5000;0.6732;1.0658;
331.8000;0.6699;1.0542;
332.1000;0.6699;1.0472;
332.4000;0.6683;1.0425;
332.7000;0.6699;1.0495;
333.0000;0.6707;1.0495;
333.3000;0.6707;1.0449;
333.6000;0.6707;1.0402;
333.9000;0.6707;1.0402;
334.2000;0.6740;1.0472;
334.5000;0.6732;1.0472;
334.8000;0.6699;1.0402;
335.1000;0.6716;1.0379;
335.4000;0.6716;1.0379;
335.7000;0.6740;1.0425;
336.0000;0.6724;1.0449;
336.3000;0.6732;1.0518;
336.6000;0.6716;1.0449;
336.9000;0.6724;1.0402;
337.2000;0.6716;1.0356;
337.5000;0.6716;1.0379;
337.8000;0.6716;1.0402;
338.1000;0.6707;1.0449;
338.4000;0.6716;1.0518;
338.7000;0.6707;1.0449;
339.0000;0.6748;1.0565;
339.3000;0.6716;1.0518;
339.6000;0.6707;1.0472;
339.9000;0.6716;1.0565;
340.2000;0.6699;1.0588;
340.5000;0.6789;1.0727;
340.8000;0.6716;1.0588;
341.1000;0.6707;1.0518;
341.4000;0.6724;1.0588;
341.7000;0.6732;1.0658;
342.0000;0.6707;1.0588;
342.3000;0.6724;1.0611;
342.6000;0.6756;1.0727;
342.9000;0.6707;1.0588;
343.2000;0.6797;1.0936;
343.5000;0.6577;1.0333;
343.8000;0.6699;1.0565;
344.1000;0.6699;1.0518;
344.4000;0.6716;1.0588;
344.7000;0.6691;1.0542;
345.0000;0.6707;1.0495;
345.3000;0.6716;1.0588;
345.6000;0.6748;1.0611;
345.9000;0.6707;1.0588;
346.2000;0.6716;1.0588;
346.5000;0.6724;1.0611;
346.8000;0.6724;1.0681;
347.1000;0.6707;1.0611;
347.4000;0.6707;1.0425;
347.7000;0.6724;1.0425;
348.0000;0.6716;1.0379;
348.3000;0.6716;1.0379;
348.6000;0.6707;1.0425;
348.9000;0.6707;1.0379;
349.2000;0.6716;1.0449;
349.5000;0.6683;1.0379;
349.8000;0.6707;1.0425;
350.1000;0.6740;1.0472;
350.4000;0.6740;1.0379;
350.7000;0.6724;1.0333;
351.0000;0.6724;1.0402;
351.3000;0.6716;1.0425;
351.6000;0.6716;1.0495;
351.9000;0.6724;1.0542;
352.2000;0.6716;1.0402;
352.5000;0.6716;1.0449;
352.8000;0.6699;1.0495;
353.1000;0.6707;1.0495;
353.4000;0.6699;1.0449;
353.7000;0.6732;1.0518;
354.0000;0.6691;1.0449;
354.3000;0.6724;1.0588;
354.6000;0.6716;1.0518;
354.9000;0.6626;1.0333;
355.2000;0.6699;1.0565;
355.5000;0.6756;1.0634;
355.8000;0.6724;1.0588;
356.1000;0.6732;1.0634;
356.4000;0.6650;1.0449;
356.7000;0.6707;1.0588;
357.0000;0.6691;1.0472;
357.3000;0.6707;1.0449;
357.6000;0.6724;1.0449;
357.9000;0.6724;1.0472;
358.2000;0.6675;1.0333;
358.5000;0.6748;1.0518;
358.8000;0.6683;1.0449;
359.1000;0.6724;1.0542;
359.4000;0.6716;1.0611;
359.7000;0.6618;1.0449;
360.0000;0.6699;1.0611;
360.3000;0.6699;1.0611;
360.6000;0.6740;1.0704;
360.9000;0.6740;1.0634;
361.2000;0.6691;1.0495;
361.5000;0.6707;1.0449;
361.8000;0.6707;1.0588;
362.1000;0.6716;1.0681;
362.4000;0.6716;1.0704;
362.7000;0.6756;1.0704;
363.0000;0.6724;1.0611;
363.3000;0.6724;1.0634;
363.6000;0.6732;1.0588;
363.9000;0.6724;1.0518;
364.2000;0.6789;1.0681;
364.5000;0.6838;1.0843;
364.8000;0.6699;1.0518;
365.1000;0.6756;1.0634;
365.4000;0.6699;1.0588;
365.7000;0.6724;1.0681;
366.0000;0.6707;1.0542;
366.3000;0.6707;1.0565;
366.6000;0.6707;1.0565;
366.9000;0.6716;1.0588;
367.2000;0.6829;1.0867;
367.5000;0.6716;1.0565;
367.8000;0.6716;1.0611;
368.1000;0.6724;1.0611;
368.4000;0.6724;1.0658;
368.7000;0.6707;1.0658;
369.0000;0.6707;1.0565;
369.3000;0.6699;1.0634;
369.6000;0.6756;1.0611;
369.9000;0.6732;1.0495;
370.2000;0.6699;1.0402;
370.5000;0.6716;1.0472;
370.8000;0.6740;1.0542;
371.1000;0.6707;1.0518;
371.4000;0.6716;1.0565;
371.7000;0.6683;1.0565;
372.0000;0.6716;1.0751;
372.3000;0.6716;1.0751;
372.6000;0.6772;1.0797;
372.9000;0.6724;1.0658;
373.2000;0.6732;1.0611;
373.5000;0.6716;1.0495;
373.8000;0.6707;1.0518;
374.1000;0.6707;1.0449;
374.4000;0.6683;1.0379;
374.7000;0.6724;1.0472;
375.0000;0.6716;1.0518;
375.3000;0.6716;1.0565;
375.6000;0.6716;1.0611;
375.9000;0.6707;1.0681;
376.2000;0.6650;1.0565;
376.5000;0.6756;1.0727;
376.8000;0.6756;1.0797;
377.1000;0.6699;1.0681;
377.4000;0.6732;1.0727;
377.7000;0.6707;1.0588;
378.0000;0.6716;1.0542;
378.3000;0.6716;1.0565;
378.6000;0.6716;1.0518;
378.9000;0.6716;1.0542;
379.2000;0.6748;1.0658;
379.5000;0.6716;1.0658;
379.8000;0.6740;1.0611;
380.1000;0.6699;1.0495;
380.4000;0.6707;1.0402;
380.7000;0.6764;1.0611;
381.0000;0.6716;1.0425;
381.3000;0.6650;1.0240;
381.6000;0.6732;1.0402;
381.9000;0.6707;1.0425;
382.2000;0.6716;1.0379;
382.5000;0.6707;1.0379;
382.8000;0.6716;1.0495;
383.1000;0.6691;1.0402;
383.4000;0.6707;1.0449;
383.7000;0.6740;1.0425;
384.0000;0.6732;1.0333;
384.3000;0.6732;1.0495;
384.6000;0.6748;1.0611;
384.9000;0.6724;1.0565;
385.2000;0.6805;1.0658;
385.5000;0.6683;1.0425;
385.8000;0.6699;1.0472;
386.1000;0.6724;1.0472;
386.4000;0.6724;1.0472;
386.7000;0.6650;1.0356;
387.0000;0.6724;1.0518;
387.3000;0.6683;1.0425;
387.6000;0.6716;1.0449;
387.9000;0.6699;1.0333;
388.2000;0.6683;1.0263;
388.5000;0.6716;1.0379;
388.8000;0.6707;1.0356;
389.1000;0.6716;1.0425;
389.4000;0.6716;1.0495;
389.7000;0.6699;1.0518;
390.0000;0.6716;1.0542;
390.3000;0.6724;1.0565;
390.6000;0.6716;1.0495;
390.9000;0.6683;1.0402;
391.2000;0.6716;1.0518;
391.5000;0.6716;1.0472;
391.8000;0.6691;1.0309;
392.1000;0.6716;1.0356;
392.4000;0.6716;1.0240;
392.7000;0.6724;1.0170;
393.0000;0.6724;1.0077;
393.3000;0.6716;1.0100;
393.6000;0.6716;1.0193;
393.9000;0.6732;1.0333;
394.2000;0.6699;1.0240;
394.5000;0.6683;1.0240;
394.8000;0.6699;1.0240;
395.1000;0.6707;1.0286;
395.4000;0.6732;1.0356;
395.7000;0.6707;1.0240;
396.0000;0.6699;1.0240;
396.3000;0.6699;1.0425;
396.6000;0.6683;1.0425;
396.9000;0.6707;1.0425;
397.2000;0.6699;1.0425;
397.5000;0.6724;1.0495;
397.8000;0.6716;1.0472;
398.1000;0.6716;1.0425;
398.4000;0.6716;1.0472;
398.7000;0.6716;1.0495;
399.0000;0.6724;1.0495;
399.3000;0.6707;1.0425;
399.6000;0.6732;1.0425;
399.9000;0.6707;1.0518;
400.2000;0.6699;1.0495;
400.5000;0.6732;1.0588;
400.8000;0.6707;1.0611;
401.1000;0.6699;1.0518;
401.4000;0.6716;1.0542;
401.7000;0.6699;1.0449;
402.0000;0.6716;1.0356;
402.3000;0.6707;1.0333;
402.6000;0.6716;1.0356;
402.9000;0.6724;1.0495;
403.2000;0.6716;1.0402;
403.5000;0.6724;1.0402;
403.8000;0.6764;1.0565;
404.1000;0.6707;1.0518;
404.4000;0.6699;1.0565;
404.7000;0.6699;1.0495;
405.0000;0.6716;1.0472;
405.3000;0.6724;1.0565;
405.6000;0.6699;1.0588;
405.9000;0.6716;1.0611;
406.2000;0.6699;1.0611;
406.5000;0.6707;1.0681;
406.8000;0.6740;1.0843;
407.1000;0.6732;1.0751;
407.4000;0.6716;1.0704;
407.7000;0.6764;1.0704;
408.0000;0.6707;1.0588;
408.3000;0.6699;1.0518;
408.6000;0.6699;1.0449;
408.9000;0.6724;1.0495;
409.2000;0.6716;1.0449;
409.5000;0.6699;1.0402;
409.8000;0.6724;1.0542;
410.1000;0.6699;1.0542;
410.4000;0.6691;1.0495;
410.7000;0.6724;1.0542;
411.0000;0.6707;1.0542;
411.3000;0.6707;1.0425;
411.6000;0.6724;1.0333;
411.9000;0.6699;1.0402;
412.2000;0.6707;1.0379;
412.5000;0.6699;1.0449;
412.8000;0.6699;1.0472;
413.1000;0.6707;1.0425;
413.4000;0.6716;1.0518;
413.7000;0.6716;1.0495;
414.0000;0.6716;1.0449;
414.3000;0.6707;1.0495;
414.6000;0.6707;1.0611;
414.9000;0.6716;1.0634;
415.2000;0.6707;1.0495;
415.5000;0.6707;1.0518;
415.8000;0.6683;1.0425;
416.1000;0.6716;1.0495;
416.4000;0.6707;1.0495;
416.7000;0.6699;1.0472;
417.0000;0.6707;1.0588;
417.3000;0.6707;1.0611;
417.6000;0.6707;1.0611;
417.9000;0.6691;1.0565;
418.2000;0.6707;1.0518;
418.5000;0.6740;1.0588;
418.8000;0.6716;1.0518;
419.1000;0.6699;1.0495;
419.4000;0.6699;1.0542;
419.7000;0.6634;1.0356;
420.0000;0.6716;1.0588;
420.3000;0.6691;1.0495;
420.6000;0.6699;1.0449;
420.9000;0.6675;1.0356;
421.2000;0.6716;1.0402;
421.5000;0.6634;1.0193;
421.8000;0.6740;1.0379;
422.1000;0.6707;1.0263;
422.4000;0.6699;1.0286;
422.7000;0.6707;1.0309;
423.0000;0.6716;1.0379;
423.3000;0.6683;1.0333;
423.6000;0.6732;1.0379;
423.9000;0.6683;1.0217;
424.2000;0.6748;1.0379;
424.5000;0.6691;1.0263;
424.8000;0.6707;1.0356;
425.1000;0.6707;1.0286;
425.4000;0.6716;1.0356;
425.7000;0.6691;1.0286;
426.0000;0.6716;1.0217;
426.3000;0.6699;1.0217;
426.6000;0.6675;1.0147;
426.9000;0.6707;1.0170;
427.2000;0.6707;1.0193;
427.5000;0.6707;1.0170;
427.8000;0.6740;1.0217;
428.1000;0.6724;1.0240;
428.4000;0.6716;1.0170;
428.7000;0.6732;1.0217;
429.0000;0.6707;1.0124;
429.3000;0.6716;1.0031;
429.6000;0.6748;1.0147;
429.9000;0.6732;1.0124;
430.2000;0.6805;1.0333;
430.5000;0.6732;1.0100;
430.8000;0.6716;0.9984;
431.1000;0.6724;1.0008;
431.4000;0.6691;1.0124;
431.7000;0.6724;1.0147;
432.0000;0.6691;1.0100;
432.3000;0.6724;1.0286;
432.6000;0.6716;1.0193;
432.9000;0.6699;1.0193;
433.2000;0.6707;1.0240;
433.5000;0.6707;1.0263;
433.8000;0.6716;1.0240;
434.1000;0.6699;1.0147;
434.4000;0.6732;1.0286;
434.7000;0.6683;1.0333;
435.0000;0.6707;1.0379;
435.3000;0.6716;1.0379;
435.6000;0.6691;1.0356;
435.9000;0.6683;1.0425;
436.2000;0.6707;1.0518;
436.5000;0.6724;1.0518;
436.8000;0.6683;1.0402;
437.1000;0.6691;1.0402;
437.4000;0.6667;1.0240;
437.7000;0.6716;1.0356;
438.0000;0.6707;1.0333;
438.3000;0.6716;1.0356;
438.6000;0.6716;1.0425;
438.9000;0.6740;1.0449;
439.2000;0.6716;1.0402;
439.5000;0.6716;1.0402;
439.8000;0.6724;1.0518;
440.1000;0.6716;1.0495;
440.4000;0.6691;1.0449;
440.7000;0.6691;1.0425;
441.0000;0.6707;1.0495;
441.3000;0.6675;1.0402;
441.6000;0.6683;1.0379;
441.9000;0.6691;1.0402;
442.2000;0.6691;1.0402;
442.5000;0.6740;1.0449;
442.8000;0.6691;1.0333;
443.1000;0.6691;1.0425;
443.4000;0.6732;1.0565;
443.7000;0.6634;1.0356;
444.0000;0.6707;1.0449;
444.3000;0.6740;1.0518;
444.6000;0.6699;1.0379;
444.9000;0.6724;1.0356;
445.2000;0.6732;1.0356;
445.5000;0.6683;1.0286;
445.8000;0.6707;1.0309;
446.1000;0.6707;1.0309;
446.4000;0.6772;1.0449;
446.7000;0.6683;1.0217;
447.0000;0.6691;1.0309;
447.3000;0.6683;1.0356;
447.6000;0.6707;1.0402;
447.9000;0.6716;1.0402;
448.2000;0.6740;1.0611;
448.5000;0.6707;1.0611;
448.8000;0.6707;1.0634;
449.1000;0.6716;1.0611;
449.4000;0.6716;1.0565;
449.7000;0.6707;1.0472;
450.0000;0.6707;1.0402;
450.3000;0.6716;1.0379;
450.6000;0.6716;1.0425;
450.9000;0.6691;1.0402;
451.2000;0.6797;1.0588;
451.5000;0.6724;1.0286;
451.8000;0.6707;1.0263;
452.1000;0.6707;1.0356;
452.4000;0.6707;1.0379;
452.7000;0.6716;1.0333;
453.0000;0.6707;1.0379;
453.3000;0.6797;1.0681;
453.6000;0.6716;1.0565;
453.9000;0.6716;1.0588;
454.2000;0.6724;1.0518;
454.5000;0.6675;1.0379;
454.8000;0.6707;1.0449;
455.1000;0.6716;1.0472;
455.4000;0.6699;1.0449;
455.7000;0.6716;1.0449;
456.0000;0.6691;1.0495;
456.3000;0.6764;1.0681;
456.6000;0.6683;1.0472;
456.9000;0.6716;1.0611;
457.2000;0.6683;1.0565;
457.5000;0.6675;1.0518;
457.8000;0.6699;1.0611;
458.1000;0.6707;1.0704;
458.4000;0.6691;1.0588;
458.7000;0.6683;1.0542;
459.0000;0.6691;1.0634;
459.3000;0.6699;1.0658;
459.6000;0.6699;1.0681;
459.9000;0.6707;1.0681;
460.2000;0.6707;1.0704;
460.5000;0.6707;1.0634;
460.8000;0.6699;1.0565;
461.1000;0.6675;1.0472;
461.4000;0.6691;1.0588;
461.7000;0.6716;1.0681;
462.0000;0.6716;1.0727;
462.3000;0.6716;1.0658;
462.6000;0.6691;1.0658;
462.9000;0.6683;1.0634;
463.2000;0.6707;1.0704;
463.5000;0.6707;1.0704;
463.8000;0.6675;1.0658;
464.1000;0.6699;1.0658;
464.4000;0.6716;1.0634;
464.7000;0.6659;1.0611;
465.0000;0.6699;1.0727;
465.3000;0.6732;1.0727;
465.6000;0.6716;1.0727;
465.9000;0.6716;1.0658;
466.2000;0.6691;1.0588;
466.5000;0.6691;1.0518;
466.8000;0.6732;1.0588;
467.1000;0.6724;1.0518;
467.4000;0.6716;1.0518;
467.7000;0.6691;1.0495;
468.0000;0.6691;1.0588;
468.3000;0.6691;1.0542;
468.6000;0.6675;1.0542;
468.9000;0.6748;1.0611;
469.2000;0.6699;1.0495;
469.5000;0.6716;1.0518;
469.8000;0.6675;1.0495;
470.1000;0.6699;1.0518;
470.4000;0.6748;1.0542;
470.7000;0.6675;1.0495;
471.0000;0.6707;1.0542;
471.3000;0.6707;1.0518;
471.6000;0.6691;1.0611;
471.9000;0.6716;1.0588;
472.2000;0.6683;1.0565;
472.5000;0.6740;1.0727;
472.8000;0.6707;1.0704;
473.1000;0.6667;1.0611;
473.4000;0.6691;1.0565;
473.7000;0.6707;1.0588;
474.0000;0.6699;1.0588;
474.3000;0.6740;1.0658;
474.6000;0.6707;1.0681;
474.9000;0.6691;1.0611;
475.2000;0.6716;1.0727;
475.5000;0.6716;1.0658;
475.8000;0.6707;1.0634;
476.1000;0.6707;1.0542;
476.4000;0.6724;1.0681;
476.7000;0.6707;1.0588;
477.0000;0.6732;1.0588;
477.3000;0.6724;1.0588;
477.6000;0.6691;1.0425;
477.9000;0.6691;1.0425;
478.2000;0.6659;1.0402;
478.5000;0.6675;1.0449;
478.8000;0.6683;1.0495;
479.1000;0.6626;1.0356;
479.4000;0.6667;1.0518;
479.7000;0.6716;1.0611;
480.0000;0.6683;1.0518;
480.3000;0.6707;1.0588;
480.6000;0.6699;1.0588;
480.9000;0.6675;1.0472;
481.2000;0.6618;1.0263;
481.5000;0.6683;1.0472;
481.8000;0.6691;1.0449;
482.1000;0.6691;1.0565;
482.4000;0.6683;1.0542;
482.7000;0.6699;1.0565;
483.0000;0.6691;1.0472;
483.3000;0.6667;1.0402;
483.6000;0.6691;1.0449;
483.9000;0.6716;1.0588;
484.2000;0.6699;1.0611;
484.5000;0.6691;1.0518;
484.8000;0.6724;1.0634;
485.1000;0.6683;1.0518;
485.4000;0.6683;1.0495;
485.7000;0.6699;1.0495;
486.0000;0.6707;1.0472;
486.3000;0.6699;1.0356;
486.6000;0.6732;1.0402;
486.9000;0.6707;1.0402;
487.2000;0.6707;1.0472;
487.5000;0.6707;1.0425;
487.8000;0.6675;1.0286;
488.1000;0.6699;1.0309;
488.4000;0.6732;1.0309;
488.7000;0.6707;1.0309;
489.0000;0.6707;1.0170;
489.3000;0.6707;1.0147;
489.6000;0.6707;1.0124;
489.9000;0.6699;1.0217;
490.2000;0.6683;1.0263;
490.5000;0.6716;1.0309;
490.8000;0.6707;1.0356;
491.1000;0.6699;1.0356;
491.4000;0.6716;1.0425;
491.7000;0.6707;1.0309;
492.0000;0.6699;1.0286;
492.3000;0.6716;1.0309;
492.6000;0.6691;1.0309;
492.9000;0.6691;1.0379;
493.2000;0.6659;1.0286;
493.5000;0.6691;1.0472;
493.8000;0.6675;1.0495;
494.1000;0.6683;1.0472;
494.4000;0.6667;1.0402;
494.7000;0.6683;1.0449;
495.0000;0.6699;1.0449;
495.3000;0.6650;1.0402;
495.6000;0.6707;1.0588;
495.9000;0.6691;1.0495;
496.2000;0.6642;1.0402;
496.5000;0.6699;1.0495;
496.8000;0.6732;1.0449;
497.1000;0.6716;1.0379;
497.4000;0.6707;1.0425;
497.7000;0.6781;1.0634;
498.0000;0.6716;1.0402;
498.3000;0.6650;1.0263;
498.6000;0.6716;1.0402;
498.9000;0.6707;1.0356;
499.2000;0.6707;1.0379;
499.5000;0.6691;1.0402;
499.8000;0.6675;1.0402;
500.1000;0.6683;1.0449;
500.4000;0.6699;1.0449;
500.7000;0.6650;1.0402;
501.0000;0.6756;1.0611;
501.3000;0.6716;1.0565;
501.6000;0.6724;1.0518;
501.9000;0.6732;1.0542;
502.2000;0.6691;1.0425;
502.5000;0.6772;1.0565;
502.8000;0.6675;1.0333;
503.1000;0.6691;1.0425;
503.4000;0.6699;1.0449;
503.7000;0.6724;1.0542;
504.0000;0.6683;1.0309;
504.3000;0.6724;1.0309;
504.6000;0.6683;1.0286;
504.9000;0.6699;1.0309;
505.2000;0.6716;1.0402;
505.5000;0.6691;1.0333;
505.8000;0.6675;1.0309;
506.1000;0.6699;1.0240;
506.4000;0.6691;1.0286;
506.7000;0.6707;1.0356;
507.0000;0.6699;1.0286;
507.3000;0.6724;1.0425;
507.6000;0.6716;1.0333;
507.9000;0.6732;1.0402;
508.2000;0.6740;1.0379;
508.5000;0.6797;1.0565;
508.8000;0.6699;1.0333;
509.1000;0.6716;1.0309;
509.4000;0.6691;1.0263;
509.7000;0.6691;1.0286;
510.0000;0.6683;1.0356;
510.3000;0.6691;1.0379;
510.6000;0.6667;1.0379;
510.9000;0.6683;1.0449;
511.2000;0.6691;1.0472;
511.5000;0.6667;1.0425;
511.8000;0.6707;1.0495;
512.1000;0.6707;1.0518;
512.4000;0.6683;1.0472;
512.7000;0.6659;1.0402;
513.0000;0.6707;1.0472;
513.3000;0.6699;1.0402;
513.6000;0.6707;1.0309;
513.9000;0.6699;1.0379;
514.2000;0.6683;1.0402;
514.5000;0.6683;1.0449;
514.8000;0.6667;1.0472;
515.1000;0.6683;1.0518;
515.4000;0.6691;1.0472;
515.7000;0.6805;1.0727;
516.0000;0.6691;1.0472;
516.3000;0.6740;1.0542;
516.6000;0.6675;1.0286;
516.9000;0.6691;1.0379;
517.2000;0.6691;1.0425;
517.5000;0.6707;1.0425;
517.8000;0.6707;1.0333;
518.1000;0.6707;1.0333;
518.4000;0.6699;1.0333;
518.7000;0.6650;1.0286;
519.0000;0.6691;1.0472;
519.3000;0.6699;1.0449;
519.6000;0.6675;1.0286;
519.9000;0.6691;1.0356;
520.2000;0.6642;1.0263;
520.5000;0.6764;1.0495;
520.8000;0.6699;1.0379;
521.1000;0.6691;1.0309;
521.4000;0.6707;1.0356;
521.7000;0.6699;1.0309;
522.0000;0.6732;1.0379;
522.3000;0.6667;1.0286;
522.6000;0.6716;1.0402;
522.9000;0.6707;1.0495;
523.2000;0.6691;1.0425;
523.5000;0.6707;1.0449;
523.8000;0.6667;1.0379;
524.1000;0.6683;1.0449;
524.4000;0.6772;1.0588;
524.7000;0.6683;1.0309;
525.0000;0.6691;1.0356;
525.3000;0.6691;1.0449;
525.6000;0.6699;1.0379;
525.9000;0.6699;1.0356;
526.2000;0.6699;1.0379;
526.5000;0.6683;1.0333;
526.8000;0.6707;1.0379;
527.1000;0.6699;1.0333;
527.4000;0.6724;1.0309;
527.7000;0.6716;1.0263;
528.0000;0.6634;1.0217;
528.3000;0.6707;1.0472;
528.6000;0.6707;1.0518;
528.9000;0.6691;1.0402;
529.2000;0.6707;1.0449;
529.5000;0.6716;1.0472;
529.8000;0.6707;1.0518;
530.1000;0.6691;1.0495;
530.4000;0.6691;1.0495;
530.7000;0.6716;1.0495;
531.0000;0.6675;1.0449;
531.3000;0.6716;1.0495;
531.6000;0.6691;1.0449;
531.9000;0.6716;1.0449;
532.2000;0.6699;1.0402;
532.5000;0.6699;1.0402;
532.8000;0.6724;1.0495;
533.1000;0.6691;1.0518;
533.4000;0.6764;1.0704;
533.7000;0.6716;1.0495;
534.0000;0.6691;1.0402;
534.3000;0.6716;1.0356;
534.6000;0.6642;1.0286;
534.9000;0.6667;1.0356;
535.2000;0.6675;1.0379;
535.5000;0.6659;1.0379;
535.8000;0.6699;1.0379;
536.1000;0.6707;1.0379;
536.4000;0.6707;1.0425;
536.7000;0.6716;1.0425;
537.0000;0.6716;1.0449;
537.3000;0.6707;1.0472;
537.6000;0.6707;1.0356;
537.9000;0.6667;1.0356;
538.2000;0.6699;1.0449;
538.5000;0.6691;1.0333;
538.8000;0.6593;1.0170;
539.1000;0.6683;1.0425;
539.4000;0.6683;1.0379;
539.7000;0.6675;1.0402;
540.0000;0.6797;1.0774;
540.3000;0.6707;1.0542;
540.6000;0.6716;1.0565;
540.9000;0.6716;1.0472;
541.2000;0.6691;1.0472;
541.5000;0.6667;1.0379;
541.8000;0.6748;1.0565;
542.1000;0.6683;1.0472;
542.4000;0.6691;1.0449;
542.7000;0.6699;1.0518;
543.0000;0.6683;1.0379;
543.3000;0.6667;1.0379;
543.6000;0.6683;1.0449;
543.9000;0.6667;1.0472;
544.2000;0.6683;1.0634;
544.5000;0.6683;1.0727;
544.8000;0.6699;1.0797;
545.1000;0.6667;1.0681;
545.4000;0.6667;1.0704;
545.7000;0.6683;1.0704;
546.0000;0.6707;1.0820;
546.3000;0.6707;1.0843;
546.6000;0.6691;1.0774;
546.9000;0.6699;1.0681;
547.2000;0.6691;1.0588;
547.5000;0.6772;1.0704;
547.8000;0.6699;1.0472;
548.1000;0.6683;1.0518;
548.4000;0.6675;1.0542;
548.7000;0.6691;1.0611;
549.0000;0.6683;1.0611;
549.3000;0.6683;1.0542;
549.6000;0.6675;1.0518;
549.9000;0.6707;1.0611;
550.2000;0.6789;1.0751;
550.5000;0.6675;1.0495;
550.8000;0.6675;1.0472;
551.1000;0.6683;1.0472;
551.4000;0.6691;1.0495;
551.7000;0.6667;1.0449;
552.0000;0.6691;1.0495;
552.3000;0.6699;1.0588;
552.6000;0.6675;1.0518;
552.9000;0.6691;1.0472;
553.2000;0.6683;1.0449;
553.5000;0.6675;1.0449;
553.8000;0.6724;1.0495;
554.1000;0.6699;1.0565;
554.4000;0.6691;1.0402;
554.7000;0.6707;1.0495;
555.0000;0.6691;1.0495;
555.3000;0.6691;1.0449;
555.6000;0.6667;1.0425;
555.9000;0.6691;1.0449;
556.2000;0.6667;1.0449;
556.5000;0.6691;1.0565;
556.8000;0.6691;1.0658;
557.1000;0.6683;1.0681;
557.4000;0.6691;1.0658;
557.7000;0.6756;1.0843;
558.0000;0.6699;1.0658;
558.3000;0.6699;1.0634;
558.6000;0.6675;1.0588;
558.9000;0.6691;1.0658;
559.2000;0.6683;1.0681;
559.5000;0.6838;1.0960;
559.8000;0.6667;1.0611;
560.1000;0.6683;1.0634;
560.4000;0.6650;1.0611;
560.7000;0.6716;1.0658;
561.0000;0.6659;1.0425;
561.3000;0.6691;1.0495;
561.6000;0.6716;1.0518;
561.9000;0.6691;1.0518;
562.2000;0.6683;1.0565;
562.5000;0.6675;1.0611;
562.8000;0.6683;1.0588;
563.1000;0.6675;1.0611;
563.4000;0.6699;1.0797;
563.7000;0.6699;1.0774;
564.0000;0.6699;1.0727;
564.3000;0.6683;1.0658;
564.6000;0.6707;1.0704;
564.9000;0.6691;1.0704;
565.2000;0.6699;1.0704;
565.5000;0.6659;1.0588;
565.8000;0.6683;1.0542;
566.1000;0.6716;1.0542;
566.4000;0.6756;1.0681;
566.7000;0.6772;1.0727;
567.0000;0.6683;1.0588;
567.3000;0.6724;1.0588;
567.6000;0.6699;1.0518;
567.9000;0.6748;1.0611;
568.2000;0.6691;1.0542;
568.5000;0.6675;1.0472;
568.8000;0.6699;1.0611;
569.1000;0.6699;1.0518;
569.4000;0.6699;1.0565;
569.7000;0.6683;1.0472;
570.0000;0.6691;1.0495;
570.3000;0.6667;1.0472;
570.6000;0.6707;1.0542;
570.9000;0.6707;1.0542;
571.2000;0.6659;1.0565;
571.5000;0.6707;1.0658;
571.8000;0.6691;1.0588;
572.1000;0.6740;1.0658;
572.4000;0.6707;1.0565;
572.7000;0.6716;1.0681;
573.0000;0.6707;1.0658;
573.3000;0.6764;1.0774;
573.6000;0.6691;1.0542;
573.9000;0.6675;1.0495;
574.2000;0.6675;1.0495;
574.5000;0.6707;1.0565;
574.8000;0.6781;1.0797;
575.1000;0.6675;1.0472;
575.4000;0.6699;1.0449;
575.7000;0.6691;1.0518;
576.0000;0.6650;1.0356;
576.3000;0.6691;1.0518;
576.6000;0.6691;1.0495;
576.9000;0.6707;1.0495;
577.2000;0.6691;1.0449;
577.5000;0.6683;1.0379;
577.8000;0.6683;1.0449;
578.1000;0.6675;1.0542;
578.4000;0.6675;1.0518;
578.7000;0.6699;1.0634;
579.0000;0.6716;1.0611;
579.3000;0.6699;1.0542;
579.6000;0.6707;1.0518;
579.9000;0.6707;1.0565;
580.2000;0.6683;1.0542;
580.5000;0.6707;1.0588;
580.8000;0.6707;1.0542;
581.1000;0.6716;1.0565;
581.4000;0.6699;1.0588;
581.7000;0.6691;1.0588;
582.0000;0.6699;1.0611;
582.3000;0.6707;1.0611;
582.6000;0.6683;1.0634;
582.9000;0.6683;1.0611;
583.2000;0.6683;1.0634;
583.5000;0.6724;1.0658;
583.8000;0.6675;1.0588;
584.1000;0.6699;1.0588;
584.4000;0.6699;1.0588;
584.7000;0.6683;1.0495;
585.0000;0.6691;1.0611;
585.3000;0.6667;1.0565;
585.6000;0.6699;1.0658;
585.9000;0.6577;1.0286;
586.2000;0.6667;1.0518;
586.5000;0.6699;1.0611;
586.8000;0.6691;1.0588;
587.1000;0.6691;1.0565;
587.4000;0.6667;1.0425;
587.7000;0.6675;1.0425;
588.0000;0.6691;1.0425;
588.3000;0.6675;1.0472;
588.6000;0.6667;1.0518;
588.9000;0.6691;1.0681;
589.2000;0.6683;1.0681;
589.5000;0.6675;1.0727;
589.8000;0.6659;1.0634;
590.1000;0.6659;1.0634;
590.4000;0.6707;1.0820;
590.7000;0.6691;1.0751;
591.0000;0.6675;1.0565;
591.3000;0.6716;1.0542;
591.6000;0.6642;1.0356;
591.9000;0.6683;1.0472;
592.2000;0.6683;1.0565;
592.5000;0.6675;1.0634;
592.8000;0.6699;1.0634;
593.1000;0.6683;1.0681;
593.4000;0.6699;1.0751;
593.7000;0.6699;1.0704;
594.0000;0.6699;1.0658;
594.3000;0.6675;1.0565;
594.6000;0.6634;1.0518;
594.9000;0.6683;1.0681;
595.2000;0.6667;1.0518;
595.5000;0.6683;1.0425;
595.8000;0.6683;1.0379;
596.1000;0.6716;1.0472;
596.4000;0.6691;1.0309;
596.7000;0.6675;1.0193;
597.0000;0.6699;1.0263;
597.3000;0.6748;1.0379;
597.6000;0.6667;1.0286;
597.9000;0.6707;1.0518;
598.2000;0.6691;1.0472;
598.5000;0.6675;1.0588;
598.8000;0.6683;1.0518;
599.1000;0.6699;1.0611;
599.4000;0.6683;1.0518;
599.7000;0.6691;1.0542;
600.0000;0.6659;1.0425;
600.3000;0.6756;1.0379;
600.6000;0.6675;1.0147;
600.9000;0.6724;1.0217;
601.2000;0.6691;1.0100;
601.5000;0.6675;0.9984;
601.8000;0.6626;0.9775;
602.1000;0.6585;0.9590;
602.4000;0.6561;0.9450;
602.7000;0.6504;0.9288;
603.0000;0.6463;0.9195;
603.3000;0.6422;0.9102;
603.6000;0.6422;0.9032;
603.9000;0.6398;0.9009;
604.2000;0.6390;0.9009;
604.5000;0.6325;0.8916;
604.8000;0.6309;0.8893;
605.1000;0.6235;0.8754;
605.4000;0.6260;0.8754;
605.7000;0.6219;0.8614;
606.0000;0.6146;0.8498;
606.3000;0.6203;0.8545;
606.6000;0.6195;0.8545;
606.9000;0.6121;0.8313;
607.2000;0.6129;0.8336;
607.5000;0.6203;0.8521;
607.8000;0.6121;0.8359;
608.1000;0.6040;0.8220;
608.4000;0.6056;0.8313;
608.7000;0.6081;0.8498;
609.0000;0.6024;0.8405;
609.3000;0.6040;0.8382;
609.6000;0.5967;0.8150;
609.9000;0.5934;0.8104;
610.2000;0.6048;0.8359;
610.5000;0.5991;0.8382;
610.8000;0.5918;0.8243;
611.1000;0.5958;0.8196;
611.4000;0.5918;0.8173;
611.7000;0.5910;0.8150;
612.0000;0.5893;0.8173;
612.3000;0.5902;0.8127;
612.6000;0.5869;0.7987;
612.9000;0.5836;0.8011;
613.2000;0.5820;0.8104;
613.5000;0.5853;0.8196;
613.8000;0.5796;0.8057;
614.1000;0.5820;0.8127;
614.4000;0.5820;0.8196;
614.7000;0.5845;0.8196;
615.0000;0.5796;0.8127;
615.3000;0.5869;0.8405;
615.6000;0.5812;0.8196;
615.9000;0.5755;0.8080;
616.2000;0.5755;0.8127;
616.5000;0.5625;0.7848;
616.8000;0.5739;0.8080;
617.1000;0.5706;0.8057;
617.4000;0.5633;0.7964;
617.7000;0.5608;0.7941;
618.0000;0.5674;0.8034;
618.3000;0.5665;0.8057;
618.6000;0.5665;0.7987;
618.9000;0.5657;0.8057;
619.2000;0.5649;0.8104;
619.5000;0.5641;0.8080;
619.8000;0.5617;0.8057;
620.1000;0.5674;0.8220;
620.4000;0.5617;0.8127;
620.7000;0.5617;0.8104;
621.0000;0.5608;0.8150;
621.3000;0.5560;0.8011;
621.6000;0.5617;0.8173;
621.9000;0.5584;0.8150;
622.2000;0.5584;0.8034;
622.5000;0.5560;0.8011;
622.8000;0.5551;0.7987;
623.1000;0.5527;0.8011;
623.4000;0.5503;0.7895;
623.7000;0.5535;0.7964;
624.0000;0.5543;0.8173;
624.3000;0.5527;0.8150;
624.6000;0.5446;0.8034;
624.9000;0.5527;0.8057;
625.2000;0.5527;0.8034;
625.5000;0.5438;0.7778;
625.8000;0.5495;0.7918;
626.1000;0.5503;0.7941;
626.4000;0.5511;0.7918;
626.7000;0.5495;0.7895;
627.0000;0.5478;0.7871;
627.3000;0.5462;0.7848;
627.6000;0.5462;0.7848;
627.9000;0.5495;0.7941;
628.2000;0.5519;0.7987;
628.5000;0.5446;0.7802;
628.8000;0.5405;0.7825;
629.1000;0.5438;0.7918;
629.4000;0.5421;0.8011;
629.7000;0.5421;0.8057;
630.0000;0.5438;0.8011;
630.3000;0.5389;0.7871;
630.6000;0.5421;0.7987;
630.9000;0.5429;0.8034;
631.2000;0.5454;0.8034;
631.5000;0.5332;0.7709;
631.8000;0.5372;0.7848;
632.1000;0.5356;0.7941;
632.4000;0.5389;0.8104;
632.7000;0.5421;0.8150;
633.0000;0.5372;0.8034;
633.3000;0.5364;0.7941;
633.6000;0.5356;0.7802;
633.9000;0.5356;0.7848;
634.2000;0.5381;0.7987;
634.5000;0.5364;0.7895;
634.8000;0.5332;0.7778;
635.1000;0.5364;0.7848;
635.4000;0.5356;0.7964;
635.7000;0.5356;0.7895;
636.0000;0.5364;0.7895;
636.3000;0.5348;0.7941;
636.6000;0.5348;0.8034;
636.9000;0.5340;0.8173;
637.2000;0.5324;0.8196;
637.5000;0.5315;0.8150;
637.8000;0.5299;0.8104;
638.1000;0.5307;0.8057;
638.4000;0.5307;0.8057;
638.7000;0.5299;0.8080;
639.0000;0.5299;0.8080;
639.3000;0.5299;0.8173;
639.6000;0.5299;0.8220;
639.9000;0.5299;0.8243;
640.2000;0.5283;0.8196;
640.5000;0.5250;0.8080;
640.8000;0.5267;0.8011;
641.1000;0.5283;0.8034;
641.4000;0.5315;0.8150;
641.7000;0.5283;0.8127;
642.0000;0.5275;0.8173;
642.3000;0.5250;0.8150;
642.6000;0.5250;0.8127;
642.9000;0.5234;0.8034;
643.2000;0.5267;0.8057;
643.5000;0.5242;0.7895;
643.8000;0.5218;0.7848;
644.1000;0.5234;0.7895;
644.4000;0.5218;0.7964;
644.7000;0.5242;0.8127;
645.0000;0.5226;0.8104;
645.3000;0.5210;0.8127;
645.6000;0.5234;0.8150;
645.9000;0.5234;0.8127;
646.2000;0.5234;0.8150;
646.5000;0.5201;0.8034;
646.8000;0.5234;0.8173;
647.1000;0.5185;0.8220;
647.4000;0.5210;0.8289;
647.7000;0.5201;0.8243;
648.0000;0.5193;0.8057;
648.3000;0.5193;0.8057;
648.6000;0.5185;0.7964;
648.9000;0.5226;0.8150;
649.2000;0.5201;0.8127;
649.5000;0.5193;0.8034;
649.8000;0.5201;0.8104;
650.1000;0.5218;0.8150;
650.4000;0.5226;0.8150;
650.7000;0.5185;0.8104;
651.0000;0.5210;0.8104;
651.3000;0.5161;0.8011;
651.6000;0.5161;0.7964;
651.9000;0.5144;0.7895;
652.2000;0.5185;0.7987;
652.5000;0.5193;0.7987;
652.8000;0.5120;0.7825;
653.1000;0.5169;0.7941;
653.4000;0.5169;0.7941;
653.7000;0.5210;0.8057;
654.0000;0.5112;0.7802;
654.3000;0.5161;0.7825;
654.6000;0.5153;0.7871;
654.9000;0.5144;0.7848;
655.2000;0.5153;0.7871;
655.5000;0.5104;0.7755;
655.8000;0.5144;0.7848;
656.1000;0.5161;0.7871;
656.4000;0.5144;0.7732;
656.7000;0.5185;0.7848;
657.0000;0.5144;0.7778;
657.3000;0.5120;0.7778;
657.6000;0.5128;0.7848;
657.9000;0.5120;0.7964;
658.2000;0.5136;0.7941;
658.5000;0.5120;0.7941;
658.8000;0.5136;0.7941;
659.1000;0.5104;0.7895;
659.4000;0.5096;0.7825;
659.7000;0.5112;0.7825;
660.0000;0.5128;0.7918;
660.3000;0.5104;0.7987;
660.6000;0.5112;0.8080;
660.9000;0.5104;0.8104;
661.2000;0.5112;0.7987;
661.5000;0.5112;0.7918;
661.8000;0.5096;0.7871;
662.1000;0.5096;0.7918;
662.4000;0.5104;0.7941;
662.7000;0.5096;0.7825;
663.0000;0.5014;0.7639;
663.3000;0.5088;0.7964;
663.6000;0.5096;0.7918;
663.9000;0.5112;0.7895;
664.2000;0.5096;0.7802;
664.5000;0.5096;0.7871;
664.8000;0.5096;0.7848;
665.1000;0.5104;0.7895;
665.4000;0.5096;0.7848;
665.7000;0.5063;0.7755;
666.0000;0.5079;0.7895;
666.3000;0.5063;0.7895;
666.6000;0.5071;0.7941;
666.9000;0.5055;0.8011;
667.2000;0.5063;0.8127;
667.5000;0.5039;0.8057;
667.8000;0.5071;0.8150;
668.1000;0.5055;0.8127;
668.4000;0.5047;0.8080;
668.7000;0.5055;0.8034;
669.0000;0.5063;0.8150;
669.3000;0.5055;0.8011;
669.6000;0.5039;0.7895;
669.9000;0.5039;0.7895;
670.2000;0.5055;0.7848;
670.5000;0.5047;0.7778;
670.8000;0.5055;0.7825;
671.1000;0.5047;0.7709;
671.4000;0.5047;0.7755;
671.7000;0.5047;0.7778;
672.0000;0.5022;0.7732;
672.3000;0.5055;0.7732;
672.6000;0.5014;0.7709;
672.9000;0.5055;0.7825;
673.2000;0.5039;0.7895;
673.5000;0.5039;0.7848;
673.8000;0.5014;0.7732;
674.1000;0.5039;0.7825;
674.4000;0.5088;0.7941;
674.7000;0.5031;0.7918;
675.0000;0.5031;0.7871;
675.3000;0.5022;0.7802;
675.6000;0.5039;0.7778;
675.9000;0.5031;0.7709;
676.2000;0.5039;0.7686;
676.5000;0.5014;0.7662;
676.8000;0.5022;0.7709;
677.1000;0.5022;0.7709;
677.4000;0.5047;0.7825;
677.7000;0.5031;0.7755;
678.0000;0.5031;0.7848;
678.3000;0.5022;0.7871;
678.6000;0.5022;0.7941;
678.9000;0.5014;0.7987;
679.2000;0.5039;0.8080;
679.5000;0.5006;0.7964;
679.8000;0.5014;0.7941;
680.1000;0.4990;0.7895;
680.4000;0.5031;0.8011;
680.7000;0.5006;0.7987;
681.0000;0.4982;0.7918;
681.3000;0.4998;0.8034;
681.6000;0.4998;0.8127;
681.9000;0.5022;0.8196;
682.2000;0.4982;0.8080;
682.5000;0.4990;0.8034;
682.8000;0.4998;0.7987;
683.1000;0.4990;0.7895;
683.4000;0.4982;0.7871;
683.7000;0.5006;0.8034;
684.0000;0.4990;0.7987;
684.3000;0.4998;0.8011;
684.6000;0.4990;0.8034;
684.9000;0.5039;0.8104;
685.2000;0.4990;0.7918;
685.5000;0.5006;0.7895;
685.8000;0.5006;0.7871;
686.1000;0.4982;0.7848;
686.4000;0.4965;0.7802;
686.7000;0.4974;0.7825;
687.0000;0.4974;0.7802;
687.3000;0.4957;0.7802;
687.6000;0.4974;0.7964;
687.9000;0.4974;0.7964;
688.2000;0.4990;0.7987;
688.5000;0.4965;0.7895;
688.8000;0.4974;0.7987;
689.1000;0.4949;0.7964;
689.4000;0.4957;0.7964;
689.7000;0.4965;0.7987;
690.0000;0.4949;0.7964;
690.3000;0.5039;0.8243;
690.6000;0.4965;0.8034;
690.9000;0.4957;0.7987;
691.2000;0.4949;0.7987;
691.5000;0.4941;0.7941;
691.8000;0.4941;0.7848;
692.1000;0.4965;0.7871;
692.4000;0.4957;0.7802;
692.7000;0.4957;0.7778;
693.0000;0.5022;0.8057;
693.3000;0.4982;0.8057;
693.6000;0.4949;0.7964;
693.9000;0.5071;0.8289;
694.2000;0.4957;0.8104;
694.5000;0.4949;0.8080;
694.8000;0.4957;0.8011;
695.1000;0.4957;0.7987;
695.4000;0.4957;0.8057;
695.7000;0.4941;0.7964;
696.0000;0.4965;0.7964;
696.3000;0.4957;0.7987;
696.6000;0.5022;0.8104;
696.9000;0.4974;0.8080;
697.2000;0.4941;0.8034;
697.5000;0.4925;0.8080;
697.8000;0.4933;0.7987;
698.1000;0.4982;0.8011;
698.4000;0.4900;0.7802;
698.7000;0.4941;0.7871;
699.0000;0.4933;0.7918;
699.3000;0.4949;0.7918;
699.6000;0.4925;0.7918;
699.9000;0.4949;0.7848;
700.2000;0.4925;0.7802;
700.5000;0.4900;0.7662;
700.8000;0.4884;0.7662;
701.1000;0.4925;0.7825;
701.4000;0.4925;0.7895;
701.7000;0.4925;0.7895;
702.0000;0.4925;0.7848;
702.3000;0.4949;0.7825;
702.6000;0.4851;0.7523;
702.9000;0.4933;0.7732;
703.2000;0.4933;0.7802;
703.5000;0.4941;0.7825;
703.8000;0.4884;0.7662;
704.1000;0.4933;0.7755;
704.4000;0.4925;0.7732;
704.7000;0.4900;0.7802;
705.0000;0.4982;0.8057;
705.3000;0.4925;0.7941;
705.6000;0.4917;0.7895;
705.9000;0.4982;0.8057;
706.2000;0.4892;0.7918;
706.5000;0.4827;0.7732;
706.8000;0.4794;0.7709;
707.1000;0.4917;0.7895;
707.4000;0.4827;0.7732;
707.7000;0.4908;0.7895;
708.0000;0.4917;0.7918;
708.3000;0.4884;0.7871;
708.6000;0.4925;0.7987;
708.9000;0.4908;0.8011;
709.2000;0.4908;0.8011;
709.5000;0.4941;0.8034;
709.8000;0.4965;0.8127;
710.1000;0.4917;0.8173;
710.4000;0.4957;0.8266;
710.7000;0.4851;0.8150;
711.0000;0.4892;0.8220;
711.3000;0.4900;0.8127;
711.6000;0.4884;0.8104;
711.9000;0.4917;0.8034;
712.2000;0.4876;0.7871;
712.5000;0.4974;0.7918;
712.8000;0.4925;0.7802;
713.1000;0.4917;0.7895;
713.4000;0.4982;0.8057;
713.7000;0.4925;0.7941;
714.0000;0.4892;0.7964;
714.3000;0.4835;0.7848;
714.6000;0.4892;0.8057;
714.9000;0.4900;0.8104;
715.2000;0.4908;0.8057;
715.5000;0.4884;0.7964;
715.8000;0.4843;0.7871;
716.1000;0.4900;0.7941;
716.4000;0.4908;0.7964;
716.7000;0.4876;0.7778;
717.0000;0.4917;0.7918;
717.3000;0.4868;0.7825;
717.6000;0.4974;0.8173;
717.9000;0.4884;0.7941;
718.2000;0.4925;0.8080;
718.5000;0.4917;0.7987;
718.8000;0.4835;0.7802;
719.1000;0.4900;0.8057;
719.4000;0.4908;0.8034;
719.7000;0.4925;0.8150;
720.0000;0.4917;0.8150;
720.3000;0.4892;0.8150;
720.6000;0.4892;0.8150;
720.9000;0.4860;0.8080;
721.2000;0.4851;0.8080;
721.5000;0.4868;0.8057;
721.8000;0.4860;0.8080;
722.1000;0.4860;0.8127;
722.4000;0.4876;0.8034;
722.7000;0.4892;0.7987;
723.0000;0.4868;0.7964;
723.3000;0.4884;0.8034;
723.6000;0.4868;0.7918;
723.9000;0.4884;0.7848;
724.2000;0.4876;0.7941;
724.5000;0.4892;0.7918;
724.8000;0.4851;0.7732;
725.1000;0.4876;0.7848;
725.4000;0.4876;0.7778;
725.7000;0.4778;0.7570;
726.0000;0.4908;0.7825;
726.3000;0.4941;0.7871;
726.6000;0.4860;0.7686;
726.9000;0.4868;0.7523;
727.2000;0.4868;0.7570;
727.5000;0.4860;0.7523;
727.8000;0.4892;0.7639;
728.1000;0.4803;0.7453;
728.4000;0.4876;0.7709;
728.7000;0.4876;0.7732;
729.0000;0.4876;0.7778;
729.3000;0.4868;0.7802;
729.6000;0.4892;0.7802;
729.9000;0.4876;0.7871;
730.2000;0.4868;0.7848;
730.5000;0.4851;0.7778;
730.8000;0.4843;0.7709;
731.1000;0.4860;0.7825;
731.4000;0.4868;0.7778;
731.7000;0.4876;0.7778;
732.0000;0.4868;0.7802;
732.3000;0.4884;0.7871;
732.6000;0.4843;0.7778;
732.9000;0.4876;0.7848;
733.2000;0.4851;0.7802;
733.5000;0.4876;0.7825;
733.8000;0.4868;0.7848;
734.1000;0.4884;0.7918;
734.4000;0.4868;0.7964;
734.7000;0.4835;0.7848;
735.0000;0.4851;0.7941;
735.3000;0.4860;0.7987;
735.6000;0.4876;0.7941;
735.9000;0.4843;0.7825;
736.2000;0.4860;0.7871;
736.5000;0.4892;0.8011;
736.8000;0.4835;0.7918;
737.1000;0.4843;0.7895;
737.4000;0.4827;0.7732;
737.7000;0.4835;0.7732;
738.0000;0.4860;0.7732;
738.3000;0.4990;0.8080;
738.6000;0.4835;0.7709;
738.9000;0.4860;0.7848;
739.2000;0.4860;0.7825;
739.5000;0.4851;0.7871;
739.8000;0.4860;0.7941;
740.1000;0.4843;0.7918;
740.4000;0.4851;0.7964;
740.7000;0.4843;0.7941;
741.0000;0.4794;0.7778;
741.3000;0.4843;0.7871;
741.6000;0.4860;0.7871;
741.9000;0.4835;0.7918;
742.2000;0.4835;0.7871;
742.5000;0.4835;0.7871;
742.8000;0.4843;0.7895;
743.1000;0.4843;0.7895;
743.4000;0.4843;0.7941;
743.7000;0.4843;0.8034;
744.0000;0.4860;0.8080;
744.3000;0.4786;0.7848;
744.6000;0.4851;0.7941;
744.9000;0.4827;0.7941;
745.2000;0.4803;0.7918;
745.5000;0.4868;0.8127;
745.8000;0.4843;0.8104;
746.1000;0.4843;0.8057;
746.4000;0.4827;0.7941;
746.7000;0.4770;0.7825;
747.0000;0.4827;0.7918;
747.3000;0.4843;0.7918;
747.6000;0.4827;0.7895;
747.9000;0.4794;0.7755;
748.2000;0.4827;0.7918;
748.5000;0.4843;0.7825;
748.8000;0.4778;0.7570;
749.1000;0.4900;0.7987;
749.4000;0.4868;0.7895;
749.7000;0.4819;0.7778;
750.0000;0.4835;0.7895;
750.3000;0.4876;0.8011;
750.6000;0.4843;0.8080;
750.9000;0.4835;0.8080;
751.2000;0.4770;0.7895;
751.5000;0.4843;0.7918;
751.8000;0.4835;0.7895;
752.1000;0.4851;0.7895;
752.4000;0.4965;0.8196;
752.7000;0.4811;0.7825;
753.0000;0.4819;0.7871;
753.3000;0.4851;0.7964;
753.6000;0.4835;0.8011;
753.9000;0.4835;0.7964;
754.2000;0.4835;0.7895;
754.5000;0.4843;0.7825;
754.8000;0.4827;0.7802;
755.1000;0.4843;0.7941;
755.4000;0.4835;0.7964;
755.7000;0.4851;0.8057;
756.0000;0.4843;0.8057;
756.3000;0.4917;0.8196;
756.6000;0.4819;0.7941;
756.9000;0.4819;0.7871;
757.2000;0.4819;0.7848;
757.5000;0.4827;0.7825;
757.8000;0.4843;0.7871;
758.1000;0.4811;0.7755;
758.4000;0.4851;0.7802;
758.7000;0.4794;0.7616;
759.0000;0.4819;0.7802;
759.3000;0.4892;0.7987;
759.6000;0.4811;0.7732;
759.9000;0.4827;0.7755;
760.2000;0.4819;0.7732;
760.5000;0.4819;0.7686;
760.8000;0.4843;0.7848;
761.1000;0.4827;0.7848;
761.4000;0.4786;0.7732;
761.7000;0.4851;0.7848;
762.0000;0.4811;0.7825;
762.3000;0.4794;0.7802;
762.6000;0.4827;0.7964;
762.9000;0.4835;0.8011;
763.2000;0.4819;0.7941;
763.5000;0.4843;0.8034;
763.8000;0.4762;0.7848;
764.1000;0.4762;0.7895;
764.4000;0.4770;0.7918;
764.7000;0.4868;0.8150;
765.0000;0.4819;0.7918;
765.3000;0.4811;0.7895;
765.6000;0.4868;0.7987;
765.9000;0.4827;0.7941;
766.2000;0.4811;0.7825;
766.5000;0.4827;0.7825;
766.8000;0.4803;0.7686;
767.1000;0.4827;0.7662;
767.4000;0.4811;0.7732;
767.7000;0.4811;0.7778;
768.0000;0.4819;0.7848;
768.3000;0.4827;0.7871;
768.6000;0.4811;0.7918;
768.9000;0.4835;0.7895;
769.2000;0.4803;0.7848;
769.5000;0.4786;0.7825;
769.8000;0.4835;0.7941;
770.1000;0.4811;0.7895;
770.4000;0.4835;0.7987;
770.7000;0.4794;0.7871;
771.0000;0.4827;0.7941;
771.3000;0.4819;0.7918;
771.6000;0.4819;0.7895;
771.9000;0.4803;0.7871;
772.2000;0.4827;0.7871;
772.5000;0.4803;0.7802;
772.8000;0.4803;0.7848;
773.1000;0.4803;0.7825;
773.4000;0.4811;0.7848;
773.7000;0.4827;0.7871;
774.0000;0.4843;0.7987;
774.3000;0.4786;0.7848;
774.6000;0.4819;0.7918;
774.9000;0.4827;0.7941;
775.2000;0.4876;0.8057;
775.5000;0.4811;0.7871;
775.8000;0.4803;0.7895;
776.1000;0.4803;0.7918;
776.4000;0.4917;0.8266;
776.7000;0.4786;0.7918;
777.0000;0.4770;0.7825;
777.3000;0.4819;0.7964;
777.6000;0.4811;0.7848;
777.9000;0.4811;0.7802;
778.2000;0.4827;0.7755;
778.5000;0.4827;0.7778;
778.8000;0.4819;0.7755;
779.1000;0.4803;0.7825;
779.4000;0.4900;0.8127;
779.7000;0.4794;0.7987;
780.0000;0.4786;0.8057;
780.3000;0.4803;0.8150;
780.6000;0.4803;0.8220;
780.9000;0.4729;0.8150;
781.2000;0.4794;0.8220;
781.5000;0.4689;0.7895;
781.8000;0.4794;0.8127;
782.1000;0.4803;0.8150;
782.4000;0.4843;0.8150;
782.7000;0.4786;0.8104;
783.0000;0.4811;0.8080;
783.3000;0.4794;0.7987;
783.6000;0.4811;0.8127;
783.9000;0.4819;0.8173;
784.2000;0.4811;0.8104;
784.5000;0.4819;0.8127;
784.8000;0.4835;0.8196;
785.1000;0.4851;0.8150;
785.4000;0.4803;0.8011;
785.7000;0.4786;0.7964;
786.0000;0.4794;0.8034;
786.3000;0.4794;0.7871;
786.6000;0.4803;0.7778;
786.9000;0.4786;0.7732;
787.2000;0.4811;0.7778;
787.5000;0.4827;0.7895;
787.8000;0.4811;0.7825;
788.1000;0.4778;0.7778;
788.4000;0.4778;0.7732;
788.7000;0.4786;0.7825;
789.0000;0.4794;0.7802;
789.3000;0.4737;0.7639;
789.6000;0.4835;0.7941;
789.9000;0.4835;0.7964;
790.2000;0.4778;0.7755;
790.5000;0.4762;0.7686;
790.8000;0.4794;0.7755;
791.1000;0.4778;0.7662;
791.4000;0.4794;0.7639;
791.7000;0.4794;0.7686;
792.0000;0.4803;0.7755;
792.3000;0.4876;0.7941;
792.6000;0.4803;0.7825;
792.9000;0.4754;0.7732;
793.2000;0.4794;0.7825;
793.5000;0.4786;0.7802;
793.8000;0.4770;0.7825;
794.1000;0.4794;0.7848;
794.4000;0.4811;0.7918;
794.7000;0.4786;0.7848;
795.0000;0.4803;0.7871;
795.3000;0.4794;0.7918;
795.6000;0.4786;0.7802;
795.9000;0.4803;0.7732;
796.2000;0.4794;0.7778;
796.5000;0.4786;0.7778;
796.8000;0.4811;0.7755;
797.1000;0.4786;0.7686;
797.4000;0.4786;0.7639;
797.7000;0.4803;0.7732;
798.0000;0.4778;0.7709;
798.3000;0.4794;0.7848;
798.6000;0.4762;0.7778;
798.9000;0.4754;0.7732;
799.2000;0.4803;0.7941;
799.5000;0.4778;0.7802;
799.8000;0.4803;0.7848;
800.1000;0.4786;0.7871;
800.4000;0.4794;0.7964;
800.7000;0.4770;0.7941;
801.0000;0.4770;0.7941;
801.3000;0.4786;0.7941;
801.6000;0.4778;0.7825;
801.9000;0.4770;0.7732;
802.2000;0.4819;0.7802;
802.5000;0.4794;0.7709;
802.8000;0.4770;0.7639;
803.1000;0.4794;0.7778;
803.4000;0.4803;0.7778;
803.7000;0.4786;0.7732;
804.0000;0.4770;0.7709;
804.3000;0.4786;0.7662;
804.6000;0.4746;0.7639;
804.9000;0.4778;0.7686;
805.2000;0.4762;0.7616;
805.5000;0.4778;0.7500;
805.8000;0.4778;0.7546;
806.1000;0.4778;0.7593;
806.4000;0.4778;0.7593;
806.7000;0.4786;0.7616;
807.0000;0.4786;0.7593;
807.3000;0.4770;0.7500;
807.6000;0.4770;0.7570;
807.9000;0.4786;0.7639;
808.2000;0.4811;0.7593;
808.5000;0.4778;0.7662;
808.8000;0.4778;0.7639;
809.1000;0.4754;0.7639;
809.4000;0.4786;0.7755;
809.7000;0.4778;0.7709;
810.0000;0.4786;0.7686;
810.3000;0.4786;0.7616;
810.6000;0.4827;0.7848;
810.9000;0.4770;0.7732;
811.2000;0.4786;0.7778;
811.5000;0.4811;0.7941;
811.8000;0.4778;0.7871;
812.1000;0.4778;0.7871;
812.4000;0.4762;0.7825;
812.7000;0.4778;0.7964;
813.0000;0.4794;0.7987;
813.3000;0.4794;0.7918;
813.6000;0.4786;0.7871;
813.9000;0.4762;0.7755;
814.2000;0.4803;0.7732;
814.5000;0.4786;0.7755;
814.8000;0.4770;0.7825;
815.1000;0.4827;0.7895;
815.4000;0.4762;0.7662;
815.7000;0.4770;0.7732;
816.0000;0.4786;0.7778;
816.3000;0.4746;0.7732;
816.6000;0.4794;0.7802;
816.9000;0.4786;0.7848;
817.2000;0.4778;0.7825;
817.5000;0.4762;0.7802;
817.8000;0.4770;0.7825;
818.1000;0.4860;0.7964;
818.4000;0.4770;0.7778;
818.7000;0.4762;0.7825;
819.0000;0.4770;0.7778;
819.3000;0.4737;0.7848;
819.6000;0.4786;0.7964;
819.9000;0.4786;0.7918;
820.2000;0.4770;0.7871;
820.5000;0.4803;0.7941;
820.8000;0.4860;0.8034;
821.1000;0.4770;0.7848;
821.4000;0.4770;0.7987;
821.7000;0.4786;0.8057;
822.0000;0.4770;0.8011;
822.3000;0.4794;0.8080;
822.6000;0.4746;0.8034;
822.9000;0.4778;0.7964;
823.2000;0.4778;0.7918;
823.5000;0.4762;0.7802;
823.8000;0.4778;0.7848;
824.1000;0.4770;0.7895;
824.4000;0.4746;0.7848;
824.7000;0.4794;0.7941;
825.0000;0.4770;0.7918;
825.3000;0.4770;0.7871;
825.6000;0.4762;0.7732;
825.9000;0.4770;0.7802;
826.2000;0.4770;0.7848;
826.5000;0.4778;0.7918;
826.8000;0.4786;0.8011;
827.1000;0.4778;0.8057;
827.4000;0.4786;0.8034;
827.7000;0.4762;0.7871;
828.0000;0.4770;0.7918;
828.3000;0.4843;0.8104;
828.6000;0.4762;0.7918;
828.9000;0.4794;0.8011;
829.2000;0.4770;0.8034;
829.5000;0.4827;0.8173;
829.8000;0.4770;0.8080;
830.1000;0.4762;0.8011;
830.4000;0.4746;0.7871;
830.7000;0.4762;0.7987;
831.0000;0.4770;0.8034;
831.3000;0.4778;0.8057;
831.6000;0.4762;0.7987;
831.9000;0.4778;0.7987;
832.2000;0.4746;0.7964;
832.5000;0.4778;0.8011;
832.8000;0.4778;0.8034;
833.1000;0.4778;0.8104;
833.4000;0.4786;0.8080;
833.7000;0.4713;0.7895;
834.0000;0.4762;0.7964;
834.3000;0.4762;0.7941;
834.6000;0.4754;0.8057;
834.9000;0.4786;0.8127;
835.2000;0.4762;0.8104;
835.5000;0.4762;0.8127;
835.8000;0.4754;0.8057;
836.1000;0.4778;0.8150;
836.4000;0.4827;0.8243;
836.7000;0.4770;0.8104;
837.0000;0.4754;0.7941;
837.3000;0.4778;0.7895;
837.6000;0.4794;0.7871;
837.9000;0.4770;0.7825;
838.2000;0.4770;0.7802;
838.5000;0.4762;0.7755;
838.8000;0.4778;0.7778;
839.1000;0.4746;0.7709;
839.4000;0.4754;0.7871;
839.7000;0.4762;0.7964;
840.0000;0.4754;0.7987;
840.3000;0.4762;0.8034;
840.6000;0.4762;0.8011;
840.9000;0.4754;0.8034;
841.2000;0.4892;0.8359;
841.5000;0.4729;0.7918;
841.8000;0.4754;0.8011;
842.1000;0.4770;0.8127;
842.4000;0.4729;0.8034;
842.7000;0.4770;0.8127;
843.0000;0.4664;0.7871;
843.3000;0.4762;0.8173;
843.6000;0.4721;0.8150;
843.9000;0.4746;0.8057;
844.2000;0.4713;0.8011;
844.5000;0.4843;0.8405;
844.8000;0.4762;0.8080;
845.1000;0.4770;0.8150;
845.4000;0.4770;0.8150;
845.7000;0.4786;0.8173;
846.0000;0.4746;0.8104;
846.3000;0.4721;0.8127;
846.6000;0.4770;0.8150;
846.9000;0.4754;0.7987;
847.2000;0.4770;0.7895;
847.5000;0.4778;0.8034;
847.8000;0.4754;0.7964;
848.1000;0.4754;0.7918;
848.4000;0.4770;0.7941;
848.7000;0.4786;0.7987;
849.0000;0.4860;0.8173;
849.3000;0.4803;0.8127;
849.6000;0.4762;0.7895;
849.9000;0.4746;0.7825;
850.2000;0.4754;0.7802;
850.5000;0.4803;0.7941;
850.8000;0.4746;0.7755;
851.1000;0.4754;0.7871;
851.4000;0.4762;0.7987;
851.7000;0.4754;0.8080;
852.0000;0.4762;0.8080;
852.3000;0.4746;0.8034;
852.6000;0.4754;0.7987;
852.9000;0.4762;0.7964;
853.2000;0.4770;0.7895;
853.5000;0.4754;0.7871;
853.8000;0.4762;0.7918;
854.1000;0.4754;0.7941;
854.4000;0.4737;0.7918;
854.7000;0.4746;0.7895;
855.0000;0.4770;0.7918;
855.3000;0.4786;0.7964;
855.6000;0.4754;0.7941;
855.9000;0.4737;0.7848;
856.2000;0.4754;0.7871;
856.5000;0.4794;0.7964;
856.8000;0.4746;0.7871;
857.1000;0.4754;0.7918;
857.4000;0.4778;0.7941;
857.7000;0.4746;0.7825;
858.0000;0.4770;0.7871;
858.3000;0.4770;0.7848;
858.6000;0.4778;0.7825;
858.9000;0.4729;0.7709;
859.2000;0.4729;0.7639;
859.5000;0.4632;0.7407;
859.8000;0.4762;0.7755;
860.1000;0.4648;0.7616;
860.4000;0.4729;0.7871;
860.7000;0.4737;0.7825;
861.0000;0.4746;0.7895;
861.3000;0.4737;0.7987;
861.6000;0.4721;0.7895;
861.9000;0.4762;0.7964;
862.2000;0.4713;0.7755;
862.5000;0.4737;0.7802;
862.8000;0.4794;0.8011;
863.1000;0.4794;0.8011;
863.4000;0.4762;0.7918;
863.7000;0.4737;0.7802;
864.0000;0.4729;0.7802;
864.3000;0.4737;0.7941;
864.6000;0.4754;0.7941;
864.9000;0.4737;0.7964;
865.2000;0.4754;0.8011;
865.5000;0.4794;0.8011;
865.8000;0.4754;0.7987;
866.1000;0.4770;0.8104;
866.4000;0.4762;0.8243;
866.7000;0.4729;0.8220;
867.0000;0.4705;0.8289;
867.3000;0.4746;0.8289;
867.6000;0.4746;0.8173;
867.9000;0.4754;0.8173;
868.2000;0.4762;0.8127;
868.5000;0.4754;0.7987;
868.8000;0.4762;0.7918;
869.1000;0.4762;0.7895;
869.4000;0.4778;0.7941;
869.7000;0.4754;0.7871;
870.0000;0.4762;0.7941;
870.3000;0.4754;0.7964;
870.6000;0.4746;0.7964;
870.9000;0.4746;0.7895;
871.2000;0.4762;0.7871;
871.5000;0.4754;0.7918;
871.8000;0.4746;0.7987;
872.1000;0.4746;0.7987;
872.4000;0.4786;0.8104;
872.7000;0.4746;0.7941;
873.0000;0.4754;0.7918;
873.3000;0.4762;0.7941;
873.6000;0.4786;0.8104;
873.9000;0.4746;0.8080;
874.2000;0.4746;0.8127;
874.5000;0.4746;0.8150;
874.8000;0.4754;0.8173;
875.1000;0.4762;0.8196;
875.4000;0.4656;0.7802;
875.7000;0.4746;0.8011;
876.0000;0.4737;0.8034;
876.3000;0.4786;0.8104;
876.6000;0.4762;0.7964;
876.9000;0.4721;0.7895;
877.2000;0.4729;0.7825;
877.5000;0.4754;0.7871;
877.8000;0.4851;0.8243;
878.1000;0.4737;0.8057;
878.4000;0.4746;0.8034;
878.7000;0.4778;0.8150;
879.0000;0.4746;0.8080;
879.3000;0.4729;0.8057;
879.6000;0.4729;0.8034;
879.9000;0.4746;0.8127;
880.2000;0.4754;0.8150;
880.5000;0.4754;0.8150;
880.8000;0.4754;0.8080;
881.1000;0.4811;0.8289;
881.4000;0.4754;0.8243;
881.7000;0.4746;0.8243;
882.0000;0.4860;0.8591;
882.3000;0.4754;0.8359;
882.6000;0.4721;0.8243;
882.9000;0.4672;0.8057;
883.2000;0.4754;0.8173;
883.5000;0.4835;0.8475;
883.8000;0.4705;0.8196;
884.1000;0.4729;0.8220;
884.4000;0.4729;0.8127;
884.7000;0.4737;0.8080;
885.0000;0.4754;0.8057;
885.3000;0.4746;0.8011;
885.6000;0.4729;0.7964;
885.9000;0.4746;0.7848;
886.2000;0.4705;0.7755;
886.5000;0.4721;0.7778;
886.8000;0.4713;0.7825;
887.1000;0.4746;0.8011;
887.4000;0.4729;0.7918;
887.7000;0.4737;0.7918;
888.0000;0.4729;0.7848;
888.3000;0.4721;0.7802;
888.6000;0.4746;0.7895;
888.9000;0.4729;0.7941;
889.2000;0.4737;0.8011;
889.5000;0.4746;0.8011;
889.8000;0.4729;0.8057;
890.1000;0.4762;0.8150;
890.4000;0.4705;0.7918;
890.7000;0.4713;0.7848;
891.0000;0.4729;0.7941;
891.3000;0.4746;0.8034;
891.6000;0.4737;0.8080;
891.9000;0.4656;0.7895;
892.2000;0.4705;0.8104;
892.5000;0.4746;0.8220;
892.8000;0.4746;0.8313;
893.1000;0.4746;0.8382;
893.4000;0.4835;0.8568;
893.7000;0.4746;0.8289;
894.0000;0.4746;0.8266;
894.3000;0.4754;0.8266;
894.6000;0.4762;0.8173;
894.9000;0.4746;0.8173;
895.2000;0.4737;0.8266;
895.5000;0.4737;0.8336;
895.8000;0.4746;0.8150;
896.1000;0.4737;0.8127;
896.4000;0.4737;0.8196;
896.7000;0.4754;0.8220;
897.0000;0.4729;0.8127;
897.3000;0.4737;0.8057;
897.6000;0.4746;0.8104;
897.9000;0.4762;0.8080;
898.2000;0.4754;0.8057;
898.5000;0.4721;0.7918;
898.8000;0.4737;0.7964;
899.1000;0.4737;0.8150;
899.4000;0.4811;0.8289;
899.7000;0.4762;0.8127;
900.0000;0.4770;0.8173;
900.3000;0.4778;0.8104;
900.6000;0.4762;0.7941;
900.9000;0.4737;0.7918;
901.2000;0.4729;0.7941;
901.5000;0.4746;0.7964;
901.8000;0.4713;0.7895;
902.1000;0.4746;0.7941;
902.4000;0.4713;0.7871;
902.7000;0.4754;0.7895;
903.0000;0.4827;0.8104;
903.3000;0.4737;0.7825;
903.6000;0.4762;0.7848;
903.9000;0.4860;0.8080;
904.2000;0.4737;0.7871;
904.5000;0.4786;0.7964;
904.8000;0.4705;0.7709;
905.1000;0.4746;0.7778;
905.4000;0.4754;0.7895;
905.7000;0.4794;0.8080;
906.0000;0.4729;0.8011;
906.3000;0.4746;0.7987;
906.6000;0.4721;0.7964;
906.9000;0.4819;0.8220;
907.2000;0.4681;0.8011;
907.5000;0.4827;0.8359;
907.8000;0.4778;0.8289;
908.1000;0.4754;0.8266;
908.4000;0.4737;0.8150;
908.7000;0.4721;0.8080;
909.0000;0.4746;0.8127;
909.3000;0.4754;0.8173;
909.6000;0.4737;0.8080;
909.9000;0.4754;0.8220;
910.2000;0.4754;0.8196;
910.5000;0.4778;0.8243;
910.8000;0.4851;0.8452;
911.1000;0.4754;0.8266;
911.4000;0.4746;0.8266;
911.7000;0.4737;0.8173;
912.0000;0.4737;0.8104;
912.3000;0.4746;0.8127;
912.6000;0.4746;0.8080;
912.9000;0.4770;0.8173;
913.2000;0.4737;0.8057;
913.5000;0.4737;0.8057;
913.8000;0.4746;0.8127;
914.1000;0.4770;0.8127;
914.4000;0.4729;0.8011;
914.7000;0.4721;0.7964;
915.0000;0.4737;0.8011;
915.3000;0.4770;0.8011;
915.6000;0.4762;0.7964;
915.9000;0.4737;0.8011;
916.2000;0.4729;0.8034;
916.5000;0.4697;0.8057;
916.8000;0.4705;0.8057;
917.1000;0.4729;0.8080;
917.4000;0.4697;0.7918;
917.7000;0.4746;0.7964;
918.0000;0.4737;0.7964;
918.3000;0.4737;0.7987;
918.6000;0.4648;0.7848;
918.9000;0.4729;0.8080;
919.2000;0.4689;0.8104;
919.5000;0.4737;0.8313;
919.8000;0.4697;0.8243;
920.1000;0.4737;0.8243;
920.4000;0.4843;0.8313;
920.7000;0.4770;0.8080;
921.0000;0.4689;0.7825;
921.3000;0.4729;0.7987;
921.6000;0.4737;0.8080;
921.9000;0.4737;0.7918;
922.2000;0.4729;0.7895;
922.5000;0.4721;0.7871;
922.8000;0.4713;0.7848;
923.1000;0.4672;0.7825;
923.4000;0.4737;0.7987;
923.7000;0.4721;0.7964;
924.0000;0.4746;0.8080;
924.3000;0.4746;0.8173;
924.6000;0.4762;0.8266;
924.9000;0.4721;0.8220;
925.2000;0.4746;0.8127;
925.5000;0.4762;0.8034;
925.8000;0.4754;0.7918;
926.1000;0.4737;0.7848;
926.4000;0.4713;0.7755;
926.7000;0.4697;0.7802;
927.0000;0.4794;0.7987;
927.3000;0.4737;0.7987;
927.6000;0.4729;0.7987;
927.9000;0.4713;0.7987;
928.2000;0.4729;0.8080;
928.5000;0.4786;0.8150;
928.8000;0.4689;0.7848;
929.1000;0.4729;0.7941;
929.4000;0.4729;0.8034;
929.7000;0.4737;0.8034;
930.0000;0.4737;0.7987;
930.3000;0.4729;0.7987;
930.6000;0.4721;0.7964;
930.9000;0.4746;0.7987;
931.2000;0.4737;0.8057;
931.5000;0.4697;0.8011;
931.8000;0.4737;0.7941;
932.1000;0.4721;0.7987;
932.4000;0.4729;0.8080;
932.7000;0.4729;0.8196;
933.0000;0.4721;0.8220;
933.3000;0.4721;0.8220;
933.6000;0.4762;0.8220;
933.9000;0.4754;0.8196;
934.2000;0.4697;0.8057;
934.5000;0.4729;0.8011;
934.8000;0.4754;0.8057;
935.1000;0.4721;0.8104;
935.4000;0.4762;0.8196;
935.7000;0.4689;0.8080;
936.0000;0.4770;0.8336;
936.3000;0.4754;0.8266;
936.6000;0.4672;0.8011;
936.9000;0.4746;0.8196;
937.2000;0.4681;0.7964;
937.5000;0.4705;0.8034;
937.8000;0.4786;0.8104;
938.1000;0.4754;0.8057;
938.4000;0.4754;0.8104;
938.7000;0.4721;0.7941;
939.0000;0.4746;0.7964;
939.3000;0.4770;0.8034;
939.6000;0.4713;0.7918;
939.9000;0.4705;0.7964;
940.2000;0.4648;0.7895;
940.5000;0.4721;0.8104;
940.8000;0.4681;0.7987;
941.1000;0.4721;0.8173;
941.4000;0.4607;0.7941;
941.7000;0.4721;0.8220;
942.0000;0.4689;0.8080;
942.3000;0.4729;0.8173;
942.6000;0.4746;0.8150;
942.9000;0.4729;0.8104;
943.2000;0.4721;0.8080;
943.5000;0.4721;0.8057;
943.8000;0.4713;0.8034;
944.1000;0.4843;0.8313;
944.4000;0.4713;0.8057;
944.7000;0.4729;0.7987;
945.0000;0.4754;0.7987;
945.3000;0.4705;0.7848;
945.6000;0.4721;0.7848;
945.9000;0.4664;0.7848;
946.2000;0.4729;0.7964;
946.5000;0.4737;0.7918;
946.8000;0.4672;0.7755;
947.1000;0.4721;0.7871;
947.4000;0.4721;0.7941;
947.7000;0.4729;0.8034;
948.0000;0.4721;0.8080;
948.3000;0.4721;0.8150;
948.6000;0.4721;0.8150;
948.9000;0.4729;0.8196;
949.2000;0.4721;0.8220;
949.5000;0.4721;0.8173;
949.8000;0.4713;0.8127;
950.1000;0.4721;0.8173;
950.4000;0.4746;0.8220;
950.7000;0.4729;0.8127;
951.0000;0.4737;0.8150;
951.3000;0.4737;0.8150;
951.6000;0.4664;0.7941;
951.9000;0.4713;0.8057;
952.2000;0.4705;0.7987;
952.5000;0.4697;0.8127;
952.8000;0.4819;0.8405;
953.1000;0.4713;0.8173;
953.4000;0.4746;0.8196;
953.7000;0.4737;0.8196;
954.0000;0.4721;0.8266;
954.3000;0.4729;0.8243;
954.6000;0.4697;0.8150;
954.9000;0.4705;0.8220;
955.2000;0.4721;0.8243;
955.5000;0.4713;0.8243;
955.8000;0.4713;0.8220;
956.1000;0.4746;0.8266;
956.4000;0.4754;0.8289;
956.7000;0.4754;0.8313;
957.0000;0.4737;0.8196;
957.3000;0.4705;0.8173;
957.6000;0.4689;0.8127;
957.9000;0.4746;0.8196;
958.2000;0.4729;0.8220;
958.5000;0.4697;0.8104;
958.8000;0.4721;0.8196;
959.1000;0.4721;0.8266;
959.4000;0.4721;0.8336;
959.7000;0.4778;0.8498;
960.0000;0.4729;0.8359;
960.3000;0.4729;0.8289;
960.6000;0.4713;0.8196;
960.9000;0.4705;0.8127;
961.2000;0.4713;0.8057;
961.5000;0.4672;0.7987;
961.8000;0.4721;0.8150;
962.1000;0.4729;0.8150;
962.4000;0.4713;0.8080;
962.7000;0.4697;0.7964;
963.0000;0.4713;0.7964;
963.3000;0.4737;0.8034;
963.6000;0.4697;0.7987;
963.9000;0.4721;0.8034;
964.2000;0.4746;0.8127;
964.5000;0.4721;0.8057;
964.8000;0.4713;0.7964;
965.1000;0.4713;0.7941;
965.4000;0.4737;0.7987;
965.7000;0.4729;0.8011;
966.0000;0.4737;0.8104;
966.3000;0.4721;0.8057;
966.6000;0.4746;0.8196;
966.9000;0.4713;0.8127;
967.2000;0.4705;0.8220;
967.5000;0.4729;0.8313;
967.8000;0.4729;0.8266;
968.1000;0.4737;0.8243;
968.4000;0.4681;0.8034;
968.7000;0.4705;0.8057;
969.0000;0.4713;0.8150;
969.3000;0.4721;0.8150;
969.6000;0.4713;0.8104;
969.9000;0.4721;0.8104;
970.2000;0.4737;0.8080;
970.5000;0.4721;0.8080;
970.8000;0.4746;0.8243;
971.1000;0.4729;0.8173;
971.4000;0.4729;0.8173;
971.7000;0.4713;0.8080;
972.0000;0.4729;0.8104;
972.3000;0.4705;0.8080;
972.6000;0.4713;0.8057;
972.9000;0.4721;0.7964;
973.2000;0.4754;0.8057;
973.5000;0.4721;0.7964;
973.8000;0.4721;0.7941;
974.1000;0.4729;0.7895;
974.4000;0.4713;0.7964;
974.7000;0.4713;0.7941;
975.0000;0.4746;0.8104;
975.3000;0.4729;0.8104;
975.6000;0.4713;0.7964;
975.9000;0.4664;0.7848;
976.2000;0.4721;0.8104;
976.5000;0.4713;0.7941;
976.8000;0.4721;0.7987;
977.1000;0.4737;0.7941;
977.4000;0.4737;0.8011;
977.7000;0.4729;0.8011;
978.0000;0.4729;0.8080;
978.3000;0.4729;0.7987;
978.6000;0.4697;0.7871;
978.9000;0.4705;0.7918;
979.2000;0.4721;0.7964;
979.5000;0.4729;0.8034;
979.8000;0.4697;0.7987;
980.1000;0.4713;0.8104;
980.4000;0.4721;0.8196;
980.7000;0.4729;0.8150;
981.0000;0.4721;0.8127;
981.3000;0.4697;0.8034;
981.6000;0.4746;0.8080;
981.9000;0.4713;0.8080;
982.2000;0.4721;0.8034;
982.5000;0.4737;0.8057;
982.8000;0.4689;0.8011;
983.1000;0.4729;0.8127;
983.4000;0.4729;0.8104;
983.7000;0.4713;0.8011;
984.0000;0.4705;0.7941;
984.3000;0.4729;0.7941;
984.6000;0.4737;0.8034;
984.9000;0.4819;0.8289;
985.2000;0.4729;0.8127;
985.5000;0.4713;0.8034;
985.8000;0.4729;0.8080;
986.1000;0.4729;0.8104;
986.4000;0.4737;0.8127;
986.7000;0.4713;0.8127;
987.0000;0.4729;0.8104;
987.3000;0.4656;0.7895;
987.6000;0.4697;0.7987;
987.9000;0.4672;0.7871;
988.2000;0.4713;0.7871;
988.5000;0.4754;0.7987;
988.8000;0.4729;0.7941;
989.1000;0.4713;0.7802;
989.4000;0.4697;0.7871;
989.7000;0.4721;0.7987;
990.0000;0.4721;0.7941;
990.3000;0.4689;0.7895;
990.6000;0.4697;0.8011;
990.9000;0.4713;0.8057;
991.2000;0.4705;0.8080;
991.5000;0.4713;0.8034;
991.8000;0.4689;0.8011;
992.1000;0.4729;0.8034;
992.4000;0.4754;0.8034;
992.7000;0.4721;0.7987;
993.0000;0.4737;0.8104;
993.3000;0.4705;0.8057;
993.6000;0.4737;0.8080;
993.9000;0.4713;0.8080;
994.2000;0.4689;0.8011;
994.5000;0.4729;0.8220;
994.8000;0.4713;0.8243;
995.1000;0.4721;0.8266;
995.4000;0.4746;0.8336;
995.7000;0.4721;0.8289;
996.0000;0.4770;0.8405;
996.3000;0.4729;0.8359;
996.6000;0.4681;0.8220;
996.9000;0.4713;0.8173;
997.2000;0.4672;0.8034;
997.5000;0.4656;0.7918;
997.8000;0.4713;0.8011;
998.1000;0.4721;0.7941;
998.4000;0.4762;0.7987;
998.7000;0.4713;0.8057;
999.0000;0.4803;0.8196;
999.3000;0.4697;0.8011;
999.6000;0.4713;0.8057;
999.9000;0.4689;0.8057;
1000.2000;0.4705;0.8080;
1000.5000;0.4689;0.8080;
1000.8000;0.4754;0.8220;
1001.1000;0.4721;0.8243;
1001.4000;0.4737;0.8243;
1001.7000;0.4697;0.8080;
1002.0000;0.4721;0.8196;
1002.3000;0.4754;0.8313;
1002.6000;0.4737;0.8150;
1002.9000;0.4721;0.8104;
1003.2000;0.4729;0.8196;
1003.5000;0.4729;0.8220;
1003.8000;0.4729;0.8220;
1004.1000;0.4713;0.8150;
1004.4000;0.4713;0.8220;
1004.7000;0.4721;0.8196;
1005.0000;0.4713;0.8173;
1005.3000;0.4737;0.8196;
1005.6000;0.4754;0.8220;
1005.9000;0.4721;0.8220;
1006.2000;0.4737;0.8220;
1006.5000;0.4746;0.8104;
1006.8000;0.4746;0.7964;
1007.1000;0.4737;0.7987;
1007.4000;0.4713;0.8011;
1007.7000;0.4729;0.7987;
1008.0000;0.4729;0.7964;
1008.3000;0.4689;0.7895;
1008.6000;0.4713;0.7964;
1008.9000;0.4729;0.8057;
1009.2000;0.4697;0.8034;
1009.5000;0.4721;0.8011;
1009.8000;0.4713;0.7987;
1010.1000;0.4729;0.8150;
1010.4000;0.4737;0.8173;
1010.7000;0.4713;0.8080;
1011.0000;0.4729;0.8104;
1011.3000;0.4721;0.8011;
1011.6000;0.4729;0.8034;
1011.9000;0.4721;0.8104;
1012.2000;0.4713;0.8104;
1012.5000;0.4713;0.8127;
1012.8000;0.4705;0.8173;
1013.1000;0.4713;0.8150;
1013.4000;0.4672;0.7987;
1013.7000;0.4737;0.8196;
1014.0000;0.4729;0.8034;
1014.3000;0.4729;0.8034;
1014.6000;0.4729;0.7964;
1014.9000;0.4746;0.8080;
1015.2000;0.4746;0.8127;
1015.5000;0.4721;0.8127;
1015.8000;0.4713;0.8196;
1016.1000;0.4713;0.8104;
1016.4000;0.4705;0.8034;
1016.7000;0.4737;0.8080;
1017.0000;0.4737;0.8011;
1017.3000;0.4721;0.7964;
1017.6000;0.4754;0.8034;
1017.9000;0.4737;0.7987;
1018.2000;0.4729;0.8057;
1018.5000;0.4689;0.7964;
1018.8000;0.4713;0.8080;
1019.1000;0.4737;0.8150;
1019.4000;0.4713;0.8127;
1019.7000;0.4697;0.8127;
1020.0000;0.4713;0.8080;
1020.3000;0.4746;0.8243;
1020.6000;0.4721;0.8173;
1020.9000;0.4713;0.8196;
1021.2000;0.4729;0.8243;
1021.5000;0.4721;0.8150;
1021.8000;0.4697;0.8196;
1022.1000;0.4721;0.8266;
1022.4000;0.4729;0.8220;
1022.7000;0.4697;0.7964;
1023.0000;0.4705;0.8011;
1023.3000;0.4721;0.8104;
1023.6000;0.4713;0.8127;
1023.9000;0.4754;0.8196;
1024.2000;0.4705;0.8150;
1024.5000;0.4713;0.8150;
1024.8000;0.4689;0.8150;
1025.1000;0.4599;0.7871;
1025.4000;0.4689;0.8011;
1025.7000;0.4705;0.8011;
1026.0000;0.4713;0.8080;
1026.3000;0.4705;0.8011;
1026.6000;0.4697;0.7964;
1026.9000;0.4729;0.8150;
1027.2000;0.4721;0.8104;
1027.5000;0.4713;0.8080;
1027.8000;0.4713;0.8104;
1028.1000;0.4754;0.8173;
1028.4000;0.4721;0.8034;
1028.7000;0.4648;0.7918;
1029.0000;0.4729;0.8104;
1029.3000;0.4713;0.8127;
1029.6000;0.4705;0.8220;
1029.9000;0.4721;0.8266;
1030.2000;0.4729;0.8289;
1030.5000;0.4713;0.8313;
1030.8000;0.4729;0.8266;
1031.1000;0.4737;0.8289;
1031.4000;0.4729;0.8150;
1031.7000;0.4770;0.8196;
1032.0000;0.4729;0.8034;
1032.3000;0.4697;0.7941;
1032.6000;0.4705;0.7987;
1032.9000;0.4729;0.8196;
1033.2000;0.4672;0.8034;
1033.5000;0.4713;0.8127;
1033.8000;0.4737;0.8150;
1034.1000;0.4705;0.7987;
1034.4000;0.4729;0.8034;
1034.7000;0.4819;0.8266;
1035.0000;0.4591;0.7709;
1035.3000;0.4713;0.8057;
1035.6000;0.4705;0.8057;
1035.9000;0.4672;0.7918;
1036.2000;0.4697;0.7895;
1036.5000;0.4729;0.8034;
1036.8000;0.4729;0.8080;
1037.1000;0.4729;0.8104;
1037.4000;0.4811;0.8196;
1037.7000;0.4705;0.7895;
1038.0000;0.4737;0.7871;
1038.3000;0.4737;0.7987;
1038.6000;0.4746;0.8034;
1038.9000;0.4705;0.8034;
1039.2000;0.4705;0.8034;
1039.5000;0.4648;0.7941;
1039.8000;0.4607;0.7825;
1040.1000;0.4713;0.8080;
1040.4000;0.4721;0.8057;
1040.7000;0.4721;0.8057;
1041.0000;0.4721;0.8011;
1041.3000;0.4729;0.8057;
1041.6000;0.4697;0.8057;
1041.9000;0.4721;0.8057;
1042.2000;0.4729;0.8104;
1042.5000;0.4721;0.8196;
1042.8000;0.4672;0.8150;
1043.1000;0.4721;0.8266;
1043.4000;0.4713;0.8289;
1043.7000;0.4713;0.8336;
1044.0000;0.4729;0.8429;
1044.3000;0.4729;0.8429;
1044.6000;0.4721;0.8336;
1044.9000;0.4721;0.8336;
1045.2000;0.4697;0.8266;
1045.5000;0.4705;0.8266;
1045.8000;0.4681;0.8220;
1046.1000;0.4713;0.8243;
1046.4000;0.4737;0.8173;
1046.7000;0.4697;0.8150;
1047.0000;0.4721;0.8220;
1047.3000;0.4713;0.8243;
1047.6000;0.4713;0.8220;
1047.9000;0.4729;0.8173;
1048.2000;0.4689;0.8104;
1048.5000;0.4762;0.8382;
1048.8000;0.4778;0.8336;
1049.1000;0.4721;0.8336;
1049.4000;0.4705;0.8313;
1049.7000;0.4721;0.8313;
1050.0000;0.4729;0.8243;
1050.3000;0.4721;0.8150;
1050.6000;0.4697;0.8150;
1050.9000;0.4729;0.8150;
1051.2000;0.4713;0.8104;
1051.5000;0.4713;0.8104;
1051.8000;0.4713;0.8011;
1052.1000;0.4697;0.7918;
1052.4000;0.4729;0.7987;
1052.7000;0.4721;0.7964;
1053.0000;0.4778;0.8080;
1053.3000;0.4729;0.8034;
1053.6000;0.4737;0.8127;
1053.9000;0.4607;0.7871;
1054.2000;0.4729;0.8243;
1054.5000;0.4721;0.8220;
1054.8000;0.4729;0.8127;
1055.1000;0.4754;0.8150;
1055.4000;0.4737;0.8104;
1055.7000;0.4713;0.8080;
1056.0000;0.4721;0.8080;
1056.3000;0.4681;0.8011;
1056.6000;0.4721;0.8011;
1056.9000;0.4737;0.7941;
1057.2000;0.4721;0.7964;
1057.5000;0.4721;0.8057;
1057.8000;0.4721;0.7987;
1058.1000;0.4721;0.7918;
1058.4000;0.4729;0.7918;
1058.7000;0.4721;0.7918;
1059.0000;0.4664;0.7778;
1059.3000;0.4721;0.7918;
1059.6000;0.4689;0.7918;
1059.9000;0.4705;0.7918;
1060.2000;0.4746;0.8057;
1060.5000;0.4754;0.8127;
1060.8000;0.4697;0.7964;
1061.1000;0.4705;0.8080;
1061.4000;0.4648;0.7964;
1061.7000;0.4705;0.8150;
1062.0000;0.4681;0.8080;
1062.3000;0.4729;0.8150;
1062.6000;0.4672;0.7987;
1062.9000;0.4713;0.7987;
1063.2000;0.4681;0.7941;
1063.5000;0.4786;0.8127;
1063.8000;0.4705;0.8034;
1064.1000;0.4713;0.7964;
1064.4000;0.4713;0.7895;
1064.7000;0.4705;0.7848;
1065.0000;0.4705;0.7848;
1065.3000;0.4721;0.7987;
1065.6000;0.4705;0.7918;
1065.9000;0.4737;0.8127;
1066.2000;0.4705;0.8080;
1066.5000;0.4713;0.8127;
1066.8000;0.4786;0.8220;
1067.1000;0.4729;0.8080;
1067.4000;0.4681;0.8127;
1067.7000;0.4721;0.8266;
1068.0000;0.4713;0.8289;
1068.3000;0.4721;0.8243;
1068.6000;0.4803;0.8452;
1068.9000;0.4713;0.8220;
1069.2000;0.4762;0.8405;
1069.5000;0.4713;0.8289;
1069.8000;0.4697;0.8359;
1070.1000;0.4713;0.8336;
1070.4000;0.4705;0.8220;
1070.7000;0.4689;0.8104;
1071.0000;0.4713;0.8220;
1071.3000;0.4729;0.8336;
1071.6000;0.4754;0.8382;
1071.9000;0.4721;0.8289;
1072.2000;0.4697;0.8243;
1072.5000;0.4705;0.8080;
1072.8000;0.4640;0.7871;
1073.1000;0.4729;0.8220;
1073.4000;0.4705;0.8150;
1073.7000;0.4713;0.8220;
1074.0000;0.4721;0.8196;
1074.3000;0.4705;0.8080;
1074.6000;0.4713;0.8057;
1074.9000;0.4729;0.8196;
1075.2000;0.4729;0.8220;
1075.5000;0.4721;0.8243;
1075.8000;0.4713;0.8173;
1076.1000;0.4705;0.8150;
1076.4000;0.4737;0.8196;
1076.7000;0.4729;0.8289;
1077.0000;0.4689;0.8196;
1077.3000;0.4705;0.8266;
1077.6000;0.4713;0.8173;
1077.9000;0.4713;0.8150;
1078.2000;0.4681;0.8057;
1078.5000;0.4721;0.8266;
1078.8000;0.4819;0.8498;
1079.1000;0.4705;0.8289;
1079.4000;0.4705;0.8196;
1079.7000;0.4713;0.8196;
1080.0000;0.4729;0.8289;
1080.3000;0.4721;0.8336;
1080.6000;0.4721;0.8266;
1080.9000;0.4624;0.8080;
1081.2000;0.4713;0.8313;
1081.5000;0.4729;0.8336;
1081.8000;0.4713;0.8289;
1082.1000;0.4713;0.8243;
1082.4000;0.4721;0.8289;
1082.7000;0.4754;0.8359;
1083.0000;0.4754;0.8289;
1083.3000;0.4729;0.8266;
1083.6000;0.4713;0.8220;
1083.9000;0.4705;0.8150;
1084.2000;0.4778;0.8266;
1084.5000;0.4762;0.8266;
1084.8000;0.4713;0.8173;
1085.1000;0.4689;0.8150;
1085.4000;0.4721;0.8220;
1085.7000;0.4729;0.8196;
1086.0000;0.4713;0.8173;
1086.3000;0.4713;0.8150;
1086.6000;0.4729;0.8243;
1086.9000;0.4697;0.8196;
1087.2000;0.4705;0.8173;
1087.5000;0.4705;0.8196;
1087.8000;0.4705;0.8243;
1088.1000;0.4713;0.8289;
1088.4000;0.4681;0.8220;
1088.7000;0.4697;0.8313;
1089.0000;0.4681;0.8220;
1089.3000;0.4705;0.8359;
1089.6000;0.4705;0.8452;
1089.9000;0.4705;0.8498;
1090.2000;0.4697;0.8521;
1090.5000;0.4624;0.8313;
1090.8000;0.4729;0.8429;
1091.1000;0.4689;0.8289;
1091.4000;0.4681;0.8243;
1091.7000;0.4729;0.8243;
1092.0000;0.4713;0.8266;
1092.3000;0.4713;0.8243;
1092.6000;0.4648;0.8104;
1092.9000;0.4713;0.8313;
1093.2000;0.4737;0.8382;
1093.5000;0.4624;0.8104;
1093.8000;0.4705;0.8359;
1094.1000;0.4713;0.8429;
1094.4000;0.4656;0.8289;
1094.7000;0.4729;0.8336;
1095.0000;0.4689;0.8266;
1095.3000;0.4721;0.8289;
1095.6000;0.4697;0.8266;
1095.9000;0.4721;0.8289;
1096.2000;0.4705;0.8266;
1096.5000;0.4713;0.8266;
1096.8000;0.4705;0.8196;
1097.1000;0.4705;0.8196;
1097.4000;0.4721;0.8243;
1097.7000;0.4721;0.8196;
1098.0000;0.4697;0.8150;
1098.3000;0.4689;0.8127;
1098.6000;0.4721;0.8150;
1098.9000;0.4737;0.8220;
1099.2000;0.4713;0.8243;
1099.5000;0.4721;0.8243;
1099.8000;0.4705;0.8173;
1100.1000;0.4713;0.8104;
1100.4000;0.4713;0.8080;
1100.7000;0.4721;0.8173;
1101.0000;0.4705;0.8313;
1101.3000;0.4737;0.8405;
1101.6000;0.4705;0.8336;
1101.9000;0.4713;0.8313;
1102.2000;0.4713;0.8336;
1102.5000;0.4729;0.8521;
1102.8000;0.4713;0.8429;
1103.1000;0.4689;0.8359;
1103.4000;0.4697;0.8336;
1103.7000;0.4705;0.8243;
1104.0000;0.4697;0.8289;
1104.3000;0.4697;0.8289;
1104.6000;0.4681;0.8173;
1104.9000;0.4721;0.8196;
1105.2000;0.4746;0.8220;
1105.5000;0.4672;0.8080;
1105.8000;0.4713;0.8243;
1106.1000;0.4729;0.8243;
1106.4000;0.4729;0.8220;
1106.7000;0.4729;0.8243;
1107.0000;0.4713;0.8173;
1107.3000;0.4705;0.8150;
1107.6000;0.4819;0.8336;
1107.9000;0.4721;0.8150;
1108.2000;0.4705;0.8080;
1108.5000;0.4721;0.8150;
1108.8000;0.4729;0.8080;
1109.1000;0.4697;0.7987;
1109.4000;0.4599;0.7825;
1109.7000;0.4827;0.8359;
1110.0000;0.4713;0.8080;
1110.3000;0.4713;0.8127;
1110.6000;0.4721;0.8127;
1110.9000;0.4721;0.8150;
1111.2000;0.4729;0.8150;
1111.5000;0.4697;0.8034;
1111.8000;0.4648;0.7941;
1112.1000;0.4729;0.8266;
1112.4000;0.4729;0.8196;
1112.7000;0.4713;0.8220;
1113.0000;0.4681;0.8243;
1113.3000;0.4713;0.8266;
1113.6000;0.4705;0.8220;
1113.9000;0.4729;0.8220;
1114.2000;0.4713;0.8289;
1114.5000;0.4672;0.8173;
1114.8000;0.4721;0.8359;
1115.1000;0.4713;0.8359;
1115.4000;0.4721;0.8359;
1115.7000;0.4705;0.8289;
1116.0000;0.4721;0.8313;
1116.3000;0.4721;0.8243;
1116.6000;0.4681;0.8220;
1116.9000;0.4713;0.8289;
1117.2000;0.4697;0.8289;
1117.5000;0.4713;0.8336;
1117.8000;0.4697;0.8243;
1118.1000;0.4697;0.8173;
1118.4000;0.4689;0.8080;
1118.7000;0.4721;0.8104;
1119.0000;0.4713;0.8034;
1119.3000;0.4721;0.8011;
1119.6000;0.4721;0.8034;
1119.9000;0.4713;0.8150;
1120.2000;0.4713;0.8127;
1120.5000;0.4705;0.8104;
1120.8000;0.4705;0.8057;
1121.1000;0.4729;0.8034;
1121.4000;0.4746;0.8011;
1121.7000;0.4721;0.8057;
1122.0000;0.4705;0.7987;
1122.3000;0.4721;0.7964;
1122.6000;0.4713;0.7848;
1122.9000;0.4681;0.7802;
1123.2000;0.4713;0.7895;
1123.5000;0.4713;0.8011;
1123.8000;0.4721;0.8150;
1124.1000;0.4705;0.8057;
1124.4000;0.4697;0.8034;
1124.7000;0.4681;0.8034;
1125.0000;0.4713;0.8034;
1125.3000;0.4697;0.7987;
1125.6000;0.4705;0.8034;
1125.9000;0.4632;0.7895;
1126.2000;0.4705;0.8080;
1126.5000;0.4721;0.8127;
1126.8000;0.4729;0.8173;
1127.1000;0.4713;0.8150;
1127.4000;0.4705;0.8196;
1127.7000;0.4705;0.8127;
1128.0000;0.4697;0.8150;
1128.3000;0.4697;0.8104;
1128.6000;0.4689;0.8150;
1128.9000;0.4705;0.8150;
1129.2000;0.4762;0.8266;
1129.5000;0.4681;0.8034;
1129.8000;0.4689;0.8034;
1130.1000;0.4705;0.7871;
1130.4000;0.4721;0.7895;
1130.7000;0.4664;0.7825;
1131.0000;0.4697;0.7964;
1131.3000;0.4713;0.7941;
1131.6000;0.4713;0.8034;
1131.9000;0.4737;0.8034;
1132.2000;0.4705;0.8034;
1132.5000;0.4713;0.8080;
1132.8000;0.4624;0.7825;
1133.1000;0.4713;0.8080;
1133.4000;0.4689;0.8011;
1133.7000;0.4632;0.7941;
1134.0000;0.4713;0.8080;
1134.3000;0.4746;0.8127;
1134.6000;0.4648;0.7895;
1134.9000;0.4721;0.8034;
1135.2000;0.4705;0.8034;
1135.5000;0.4713;0.8127;
1135.8000;0.4705;0.8104;
1136.1000;0.4697;0.8080;
1136.4000;0.4721;0.8173;
1136.7000;0.4681;0.8127;
1137.0000;0.4705;0.8127;
1137.3000;0.4689;0.8080;
1137.6000;0.4705;0.8057;
1137.9000;0.4664;0.8057;
1138.2000;0.4729;0.8173;
1138.5000;0.4713;0.8127;
1138.8000;0.4599;0.7895;
1139.1000;0.4705;0.8220;
1139.4000;0.4713;0.8243;
1139.7000;0.4713;0.8313;
1140.0000;0.4648;0.8220;
1140.3000;0.4713;0.8382;
1140.6000;0.4689;0.8359;
1140.9000;0.4672;0.8289;
1141.2000;0.4705;0.8313;
1141.5000;0.4697;0.8336;
1141.8000;0.4721;0.8289;
1142.1000;0.4697;0.8289;
1142.4000;0.4713;0.8336;
1142.7000;0.4697;0.8289;
1143.0000;0.4713;0.8313;
1143.3000;0.4697;0.8243;
1143.6000;0.4697;0.8173;
1143.9000;0.4681;0.8104;
1144.2000;0.4705;0.8150;
1144.5000;0.4713;0.8289;
1144.8000;0.4689;0.8266;
1145.1000;0.4713;0.8382;
1145.4000;0.4697;0.8266;
1145.7000;0.4737;0.8382;
1146.0000;0.4721;0.8313;
1146.3000;0.4705;0.8266;
1146.6000;0.4705;0.8196;
1146.9000;0.4713;0.8173;
1147.2000;0.4729;0.8243;
1147.5000;0.4746;0.8266;
1147.8000;0.4624;0.7895;
1148.1000;0.4713;0.8243;
1148.4000;0.4689;0.8150;
1148.7000;0.4762;0.8313;
1149.0000;0.4697;0.8196;
1149.3000;0.4689;0.8266;
1149.6000;0.4697;0.8289;
1149.9000;0.4713;0.8243;
1150.2000;0.4697;0.8220;
1150.5000;0.4721;0.8266;
1150.8000;0.4713;0.8266;
1151.1000;0.4672;0.8150;
1151.4000;0.4681;0.8220;
1151.7000;0.4697;0.8336;
1152.0000;0.4705;0.8405;
1152.3000;0.4672;0.8289;
1152.6000;0.4664;0.8313;
1152.9000;0.4729;0.8405;
1153.2000;0.4746;0.8452;
1153.5000;0.4672;0.8127;
1153.8000;0.4713;0.8173;
1154.1000;0.4705;0.8196;
1154.4000;0.4689;0.8150;
1154.7000;0.4705;0.8150;
1155.0000;0.4705;0.8196;
1155.3000;0.4689;0.8127;
1155.6000;0.4713;0.8266;
1155.9000;0.4705;0.8220;
1156.2000;0.4729;0.8289;
1156.5000;0.4705;0.8266;
1156.8000;0.4681;0.8173;
1157.1000;0.4713;0.8196;
1157.4000;0.4640;0.8080;
1157.7000;0.4713;0.8359;
1158.0000;0.4721;0.8382;
1158.3000;0.4713;0.8313;
1158.6000;0.4664;0.8196;
1158.9000;0.4713;0.8243;
1159.2000;0.4697;0.8289;
1159.5000;0.4729;0.8336;
1159.8000;0.4713;0.8243;
1160.1000;0.4697;0.8243;
1160.4000;0.4672;0.8127;
1160.7000;0.4697;0.8127;
1161.0000;0.4697;0.8104;
1161.3000;0.4697;0.8057;
1161.6000;0.4705;0.8057;
1161.9000;0.4681;0.8011;
1162.2000;0.4689;0.8080;
1162.5000;0.4705;0.8150;
1162.8000;0.4681;0.8173;
1163.1000;0.4705;0.8243;
1163.4000;0.4705;0.8173;
1163.7000;0.4697;0.8011;
1164.0000;0.4697;0.7987;
1164.3000;0.4705;0.7941;
1164.6000;0.4689;0.7895;
1164.9000;0.4746;0.8150;
1165.2000;0.4689;0.8011;
1165.5000;0.4615;0.7895;
1165.8000;0.4713;0.8173;
1166.1000;0.4697;0.8127;
1166.4000;0.4713;0.8220;
1166.7000;0.4713;0.8243;
1167.0000;0.4713;0.8220;
1167.3000;0.4737;0.8382;
1167.6000;0.4721;0.8289;
1167.9000;0.4705;0.8266;
1168.2000;0.4697;0.8266;
1168.5000;0.4721;0.8382;
1168.8000;0.4689;0.8289;
1169.1000;0.4689;0.8313;
1169.4000;0.4705;0.8266;
1169.7000;0.4689;0.8220;
1170.0000;0.4705;0.8266;
1170.3000;0.4705;0.8243;
1170.6000;0.4664;0.8127;
1170.9000;0.4713;0.8289;
1171.2000;0.4713;0.8289;
1171.5000;0.4713;0.8196;
1171.8000;0.4778;0.8382;
1172.1000;0.4697;0.8220;
1172.4000;0.4721;0.8313;
1172.7000;0.4721;0.8336;
1173.0000;0.4770;0.8405;
1173.3000;0.4713;0.8196;
1173.6000;0.4705;0.8196;
1173.9000;0.4705;0.8173;
1174.2000;0.4713;0.8034;
1174.5000;0.4713;0.7987;
1174.8000;0.4729;0.7964;
1175.1000;0.4762;0.8127;
1175.4000;0.4681;0.7871;
1175.7000;0.4721;0.8011;
1176.0000;0.4762;0.8173;
1176.3000;0.4664;0.7941;
1176.6000;0.4697;0.7987;
1176.9000;0.4713;0.7964;
1177.2000;0.4705;0.7987;
1177.5000;0.4721;0.8057;
1177.8000;0.4819;0.8336;
1178.1000;0.4697;0.7987;
1178.4000;0.4721;0.8127;
1178.7000;0.4689;0.8057;
1179.0000;0.4713;0.8196;
1179.3000;0.4713;0.8173;
1179.6000;0.4705;0.8104;
1179.9000;0.4705;0.8196;
1180.2000;0.4705;0.8220;
1180.5000;0.4746;0.8220;
1180.8000;0.4705;0.7987;
1181.1000;0.4705;0.7871;
1181.4000;0.4746;0.7964;
1181.7000;0.4713;0.7964;
1182.0000;0.4672;0.8057;
1182.3000;0.4721;0.8104;
1182.6000;0.4721;0.8150;
1182.9000;0.4697;0.8011;
1183.2000;0.4705;0.7987;
1183.5000;0.4697;0.7964;
1183.8000;0.4713;0.7987;
1184.1000;0.4721;0.8034;
1184.4000;0.4705;0.8011;
1184.7000;0.4737;0.8057;
1185.0000;0.4713;0.7941;
1185.3000;0.4729;0.7964;
1185.6000;0.4762;0.8150;
1185.9000;0.4632;0.7871;
1186.2000;0.4713;0.8057;
1186.5000;0.4689;0.8080;
1186.8000;0.4705;0.8127;
1187.1000;0.4664;0.7987;
1187.4000;0.4713;0.8150;
1187.7000;0.4713;0.7987;
1188.0000;0.4697;0.7964;
1188.3000;0.4672;0.7918;
1188.6000;0.4681;0.7964;
1188.9000;0.4705;0.8034;
1189.2000;0.4640;0.7918;
1189.5000;0.4697;0.8104;
1189.8000;0.4713;0.8104;
1190.1000;0.4746;0.8173;
1190.4000;0.4689;0.8104;
1190.7000;0.4705;0.8104;
1191.0000;0.4689;0.8104;
1191.3000;0.4705;0.8034;
1191.6000;0.4681;0.7918;
1191.9000;0.4705;0.7918;
1192.2000;0.4705;0.7871;
1192.5000;0.4737;0.7895;
1192.8000;0.4705;0.7871;
1193.1000;0.4713;0.7964;
1193.4000;0.4713;0.7987;
1193.7000;0.4705;0.7895;
1194.0000;0.4705;0.7918;
1194.3000;0.4681;0.7871;
1194.6000;0.4705;0.8057;
1194.9000;0.4689;0.7987;
1195.2000;0.4713;0.7987;
1195.5000;0.4713;0.8057;
1195.8000;0.4705;0.7987;
1196.1000;0.4705;0.8127;
1196.4000;0.4697;0.8034;
1196.7000;0.4713;0.8034;
1197.0000;0.4697;0.7964;
1197.3000;0.4705;0.7941;
1197.6000;0.4689;0.7871;
1197.9000;0.4689;0.7871;
1198.2000;0.4713;0.7871;
1198.5000;0.4681;0.7778;
1198.8000;0.4681;0.7825;
1199.1000;0.4640;0.7871;
1199.4000;0.4681;0.7941;
1199.7000;0.4697;0.8104;
1200.0000;0.4762;0.8289;
1200.3000;0.4689;0.8173;
1200.6000;0.4705;0.8220;
1200.9000;0.4697;0.8313;
1201.2000;0.4705;0.8359;
1201.5000;0.4721;0.8405;
1201.8000;0.4705;0.8359;
1202.1000;0.4689;0.8359;
1202.4000;0.4729;0.8475;
1202.7000;0.4697;0.8429;
1203.0000;0.4697;0.8405;
1203.3000;0.4697;0.8382;
1203.6000;0.4721;0.8475;
1203.9000;0.4705;0.8475;
1204.2000;0.4737;0.8521;
1204.5000;0.4737;0.8498;
1204.8000;0.4737;0.8498;
1205.1000;0.4721;0.8545;
1205.4000;0.4689;0.8429;
1205.7000;0.4713;0.8452;
1206.0000;0.4672;0.8266;
1206.3000;0.4746;0.8429;
1206.6000;0.4721;0.8359;
1206.9000;0.4705;0.8452;
1207.2000;0.4689;0.8429;
1207.5000;0.4778;0.8521;
1207.8000;0.4689;0.8289;
1208.1000;0.4697;0.8313;
1208.4000;0.4664;0.8289;
1208.7000;0.4697;0.8289;
1209.0000;0.4713;0.8313;
1209.3000;0.4681;0.8266;
1209.6000;0.4697;0.8313;
1209.9000;0.4697;0.8243;
1210.2000;0.4689;0.8266;
1210.5000;0.4697;0.8336;
1210.8000;0.4713;0.8405;
1211.1000;0.4705;0.8359;
1211.4000;0.4705;0.8359;
1211.7000;0.4721;0.8475;
1212.0000;0.4705;0.8359;
1212.3000;0.4705;0.8289;
1212.6000;0.4681;0.8220;
1212.9000;0.4681;0.8243;
1213.2000;0.4705;0.8336;
1213.5000;0.4705;0.8266;
1213.8000;0.4729;0.8313;
1214.1000;0.4705;0.8336;
1214.4000;0.4697;0.8313;
1214.7000;0.4721;0.8359;
1215.0000;0.4746;0.8452;
1215.3000;0.4705;0.8336;
1215.6000;0.4713;0.8336;
1215.9000;0.4729;0.8336;
1216.2000;0.4721;0.8359;
1216.5000;0.4697;0.8196;
1216.8000;0.4705;0.8196;
1217.1000;0.4705;0.8266;
1217.4000;0.4705;0.8220;
1217.7000;0.4729;0.8196;
1218.0000;0.4705;0.8196;
1218.3000;0.4648;0.7987;
1218.6000;0.4737;0.8359;
1218.9000;0.4729;0.8405;
1219.2000;0.4697;0.8382;
1219.5000;0.4713;0.8336;
1219.8000;0.4697;0.8243;
1220.1000;0.4697;0.8336;
1220.4000;0.4729;0.8405;
1220.7000;0.4697;0.8359;
1221.0000;0.4705;0.8382;
1221.3000;0.4689;0.8289;
1221.6000;0.4681;0.8359;
1221.9000;0.4697;0.8289;
1222.2000;0.4624;0.8057;
1222.5000;0.4697;0.8243;
1222.8000;0.4705;0.8220;
1223.1000;0.4713;0.8289;
1223.4000;0.4746;0.8405;
1223.7000;0.4762;0.8382;
1224.0000;0.4705;0.8289;
1224.3000;0.4729;0.8313;
1224.6000;0.4697;0.8196;
1224.9000;0.4697;0.8173;
1225.2000;0.4689;0.8196;
1225.5000;0.4697;0.8196;
1225.8000;0.4713;0.8150;
1226.1000;0.4713;0.8220;
1226.4000;0.4729;0.8405;
1226.7000;0.4705;0.8243;
1227.0000;0.4697;0.8196;
1227.3000;0.4697;0.8173;
1227.6000;0.4705;0.8313;
1227.9000;0.4664;0.8150;
1228.2000;0.4713;0.8289;
1228.5000;0.4681;0.8313;
1228.8000;0.4778;0.8498;
1229.1000;0.4689;0.8243;
1229.4000;0.4721;0.8359;
1229.7000;0.4697;0.8266;
1230.0000;0.4713;0.8313;
1230.3000;0.4729;0.8220;
1230.6000;0.4689;0.8057;
1230.9000;0.4713;0.8127;
1231.2000;0.4721;0.8150;
1231.5000;0.4713;0.8196;
1231.8000;0.4681;0.8080;
1232.1000;0.4697;0.8243;
1232.4000;0.4697;0.8150;
1232.7000;0.4697;0.8150;
1233.0000;0.4689;0.8034;
1233.3000;0.4664;0.8080;
1233.6000;0.4689;0.8034;
1233.9000;0.4697;0.8080;
1234.2000;0.4689;0.8057;
1234.5000;0.4713;0.8150;
1234.8000;0.4705;0.8243;
1235.1000;0.4729;0.8266;
1235.4000;0.4705;0.8220;
1235.7000;0.4721;0.8313;
1236.0000;0.4697;0.8313;
1236.3000;0.4672;0.8266;
1236.6000;0.4697;0.8289;
1236.9000;0.4681;0.8266;
1237.2000;0.4672;0.8336;
1237.5000;0.4697;0.8220;
1237.8000;0.4689;0.8243;
1238.1000;0.4689;0.8196;
1238.4000;0.4689;0.8173;
1238.7000;0.4689;0.8173;
1239.0000;0.4697;0.8220;
1239.3000;0.4713;0.8196;
1239.6000;0.4721;0.8220;
1239.9000;0.4811;0.8429;
1240.2000;0.4713;0.8150;
1240.5000;0.4697;0.8104;
1240.8000;0.4721;0.8243;
1241.1000;0.4713;0.8220;
1241.4000;0.4754;0.8289;
1241.7000;0.4689;0.8220;
1242.0000;0.4721;0.8289;
1242.3000;0.4648;0.8173;
1242.6000;0.4713;0.8405;
1242.9000;0.4721;0.8382;
1243.2000;0.4737;0.8498;
1243.5000;0.4689;0.8405;
1243.8000;0.4721;0.8429;
1244.1000;0.4697;0.8289;
1244.4000;0.4681;0.8150;
1244.7000;0.4746;0.8289;
1245.0000;0.4705;0.8150;
1245.3000;0.4672;0.8057;
1245.6000;0.4705;0.8057;
1245.9000;0.4705;0.7964;
1246.2000;0.4697;0.7941;
1246.5000;0.4705;0.8057;
1246.8000;0.4713;0.8080;
1247.1000;0.4713;0.8104;
1247.4000;0.4681;0.8104;
1247.7000;0.4689;0.8266;
1248.0000;0.4697;0.8289;
1248.3000;0.4697;0.8266;
1248.6000;0.4681;0.8173;
1248.9000;0.4705;0.8220;
1249.2000;0.4697;0.8336;
1249.5000;0.4624;0.8127;
1249.8000;0.4697;0.8313;
1250.1000;0.4721;0.8359;
1250.4000;0.4705;0.8382;
1250.7000;0.4713;0.8429;
1251.0000;0.4762;0.8498;
1251.3000;0.4721;0.8429;
1251.6000;0.4713;0.8336;
1251.9000;0.4721;0.8382;
1252.2000;0.4713;0.8359;
1252.5000;0.4786;0.8591;
1252.8000;0.4721;0.8405;
1253.1000;0.4713;0.8336;
1253.4000;0.4721;0.8313;
1253.7000;0.4664;0.8104;
1254.0000;0.4697;0.8243;
1254.3000;0.4737;0.8382;
1254.6000;0.4681;0.8243;
1254.9000;0.4721;0.8382;
1255.2000;0.4689;0.8336;
1255.5000;0.4713;0.8429;
1255.8000;0.4721;0.8429;
1256.1000;0.4737;0.8359;
1256.4000;0.4705;0.8313;
1256.7000;0.4689;0.8243;
1257.0000;0.4713;0.8382;
1257.3000;0.4664;0.8266;
1257.6000;0.4681;0.8382;
1257.9000;0.4632;0.8196;
1258.2000;0.4681;0.8359;
1258.5000;0.4697;0.8359;
1258.8000;0.4697;0.8313;
1259.1000;0.4689;0.8289;
1259.4000;0.4721;0.8382;
1259.7000;0.4697;0.8359;
1260.0000;0.4697;0.8382;
1260.3000;0.4681;0.8313;
1260.6000;0.4697;0.8429;
1260.9000;0.4689;0.8405;
1261.2000;0.4713;0.8429;
1261.5000;0.4713;0.8475;
1261.8000;0.4713;0.8545;
1262.1000;0.4746;0.8568;
1262.4000;0.4713;0.8475;
1262.7000;0.4697;0.8382;
1263.0000;0.4705;0.8359;
1263.3000;0.4689;0.8289;
1263.6000;0.4721;0.8266;
1263.9000;0.4705;0.8266;
1264.2000;0.4697;0.8266;
1264.5000;0.4721;0.8173;
1264.8000;0.4713;0.8150;
1265.1000;0.4672;0.8173;
1265.4000;0.4672;0.8220;
1265.7000;0.4762;0.8429;
1266.0000;0.4697;0.8243;
1266.3000;0.4689;0.8220;
1266.6000;0.4713;0.8243;
1266.9000;0.4713;0.8289;
1267.2000;0.4689;0.8220;
1267.5000;0.4697;0.8196;
1267.8000;0.4697;0.8127;
1268.1000;0.4697;0.8104;
1268.4000;0.4697;0.8127;
1268.7000;0.4689;0.8034;
1269.0000;0.4689;0.8011;
1269.3000;0.4754;0.8266;
1269.6000;0.4705;0.8150;
1269.9000;0.4681;0.8150;
1270.2000;0.4689;0.8196;
1270.5000;0.4721;0.8243;
1270.8000;0.4689;0.8150;
1271.1000;0.4713;0.8104;
1271.4000;0.4681;0.8034;
1271.7000;0.4729;0.8289;
1272.0000;0.4705;0.8243;
1272.3000;0.4729;0.8220;
1272.6000;0.4705;0.8104;
1272.9000;0.4713;0.8196;
1273.2000;0.4721;0.8289;
1273.5000;0.4672;0.8196;
1273.8000;0.4697;0.8150;
1274.1000;0.4713;0.8196;
1274.4000;0.4697;0.8220;
1274.7000;0.4705;0.8150;
1275.0000;0.4729;0.8196;
1275.3000;0.4697;0.8011;
1275.6000;0.4697;0.7918;
1275.9000;0.4705;0.7987;
1276.2000;0.4705;0.7964;
1276.5000;0.4721;0.8034;
1276.8000;0.4705;0.8034;
1277.1000;0.4681;0.7918;
1277.4000;0.4746;0.8011;
1277.7000;0.4713;0.7941;
1278.0000;0.4705;0.8011;
1278.3000;0.4607;0.7662;
1278.6000;0.4697;0.7918;
1278.9000;0.4713;0.8057;
1279.2000;0.4656;0.7964;
1279.5000;0.4746;0.8127;
1279.8000;0.4713;0.8080;
1280.1000;0.4705;0.7941;
1280.4000;0.4672;0.7709;
1280.7000;0.4689;0.7778;
1281.0000;0.4689;0.7778;
1281.3000;0.4705;0.7778;
1281.6000;0.4664;0.7732;
1281.9000;0.4681;0.7778;
1282.2000;0.4697;0.7895;
1282.5000;0.4721;0.8104;
1282.8000;0.4689;0.8034;
1283.1000;0.4607;0.7755;
1283.4000;0.4656;0.7987;
1283.7000;0.4689;0.8080;
1284.0000;0.4656;0.7941;
1284.3000;0.4689;0.8034;
1284.6000;0.4762;0.8104;
1284.9000;0.4721;0.7987;
1285.2000;0.4721;0.8057;
1285.5000;0.4697;0.8011;
1285.8000;0.4697;0.7987;
1286.1000;0.4729;0.8057;
1286.4000;0.4737;0.8150;
1286.7000;0.4737;0.8243;
1287.0000;0.4681;0.8127;
1287.3000;0.4705;0.8104;
1287.6000;0.4737;0.8196;
1287.9000;0.4737;0.8243;
1288.2000;0.4705;0.8150;
1288.5000;0.4721;0.8127;
1288.8000;0.4721;0.8034;
1289.1000;0.4705;0.8034;
1289.4000;0.4721;0.8080;
1289.7000;0.4705;0.8150;
1290.0000;0.4729;0.8104;
1290.3000;0.4713;0.8150;
1290.6000;0.4664;0.8011;
1290.9000;0.4729;0.8104;
1291.2000;0.4705;0.8057;
1291.5000;0.4729;0.8104;
1291.8000;0.4721;0.7941;
1292.1000;0.4705;0.7941;
1292.4000;0.4689;0.7964;
1292.7000;0.4689;0.8011;
1293.0000;0.4689;0.8011;
1293.3000;0.4681;0.7895;
1293.6000;0.4713;0.7895;
1293.9000;0.4705;0.7778;
1294.2000;0.4713;0.7755;
1294.5000;0.4689;0.7755;
1294.8000;0.4672;0.7732;
1295.1000;0.4713;0.7895;
1295.4000;0.4762;0.8011;
1295.7000;0.4672;0.7825;
1296.0000;0.4786;0.8080;
1296.3000;0.4632;0.7709;
1296.6000;0.4729;0.7987;
1296.9000;0.4705;0.7825;
1297.2000;0.4697;0.7755;
1297.5000;0.4672;0.7616;
1297.8000;0.4729;0.7755;
1298.1000;0.4713;0.7639;
1298.4000;0.4697;0.7662;
1298.7000;0.4697;0.7778;
1299.0000;0.4705;0.7895;
1299.3000;0.4705;0.7987;
1299.6000;0.4664;0.7895;
1299.9000;0.4681;0.8034;
1300.2000;0.4713;0.8080;
1300.5000;0.4705;0.8034;
1300.8000;0.4713;0.8127;
1301.1000;0.4729;0.8080;
1301.4000;0.4746;0.8080;
1301.7000;0.4656;0.7918;
1302.0000;0.4713;0.8104;
1302.3000;0.4697;0.8104;
1302.6000;0.4697;0.8057;
1302.9000;0.4697;0.7964;
1303.2000;0.4697;0.7964;
1303.5000;0.4681;0.8011;
1303.8000;0.4697;0.8080;
1304.1000;0.4697;0.8011;
1304.4000;0.4746;0.8173;
1304.7000;0.4656;0.7964;
1305.0000;0.4672;0.8150;
1305.3000;0.4664;0.8173;
1305.6000;0.4681;0.8266;
1305.9000;0.4705;0.8289;
1306.2000;0.4705;0.8243;
1306.5000;0.4689;0.8127;
1306.8000;0.4705;0.8080;
1307.1000;0.4689;0.8034;
1307.4000;0.4697;0.8080;
1307.7000;0.4705;0.8196;
1308.0000;0.4721;0.8173;
1308.3000;0.4713;0.8104;
1308.6000;0.4697;0.8127;
1308.9000;0.4689;0.8080;
1309.2000;0.4705;0.8150;
1309.5000;0.4721;0.8173;
1309.8000;0.4705;0.8150;
1310.1000;0.4705;0.8150;
1310.4000;0.4721;0.8104;
1310.7000;0.4705;0.8080;
1311.0000;0.4697;0.7987;
1311.3000;0.4713;0.7918;
1311.6000;0.4705;0.7918;
1311.9000;0.4697;0.7895;
1312.2000;0.4713;0.8034;
1312.5000;0.4721;0.8104;
1312.8000;0.4729;0.8057;
1313.1000;0.4713;0.8057;
1313.4000;0.4697;0.7941;
1313.7000;0.4713;0.7964;
1314.0000;0.4721;0.8057;
1314.3000;0.4721;0.8150;
1314.6000;0.4697;0.8127;
1314.9000;0.4664;0.8080;
1315.2000;0.4729;0.8220;
1315.5000;0.4697;0.8173;
1315.8000;0.4697;0.8173;
1316.1000;0.4689;0.8220;
1316.4000;0.4664;0.8034;
1316.7000;0.4664;0.8080;
1317.0000;0.4689;0.8057;
1317.3000;0.4697;0.8080;
1317.6000;0.4705;0.8150;
1317.9000;0.4713;0.8196;
1318.2000;0.4713;0.8243;
1318.5000;0.4681;0.8220;
1318.8000;0.4697;0.8220;
1319.1000;0.4705;0.8196;
1319.4000;0.4746;0.8243;
1319.7000;0.4681;0.8057;
1320.0000;0.4664;0.7987;
1320.3000;0.4746;0.8196;
1320.6000;0.4721;0.8080;
1320.9000;0.4778;0.8266;
1321.2000;0.4697;0.8173;
1321.5000;0.4786;0.8475;
1321.8000;0.4713;0.8405;
1322.1000;0.4713;0.8359;
1322.4000;0.4713;0.8359;
1322.7000;0.4705;0.8243;
1323.0000;0.4705;0.8196;
1323.3000;0.4721;0.8266;
1323.6000;0.4721;0.8313;
1323.9000;0.4697;0.8220;
1324.2000;0.4729;0.8313;
1324.5000;0.4705;0.8429;
1324.8000;0.4697;0.8475;
1325.1000;0.4705;0.8475;
1325.4000;0.4705;0.8429;
1325.7000;0.4721;0.8452;
1326.0000;0.4705;0.8475;
1326.3000;0.4681;0.8498;
1326.6000;0.4697;0.8498;
1326.9000;0.4705;0.8521;
1327.2000;0.4697;0.8498;
1327.5000;0.4705;0.8452;
1327.8000;0.4705;0.8405;
1328.1000;0.4713;0.8359;
1328.4000;0.4681;0.8289;
1328.7000;0.4697;0.8289;
1329.0000;0.4689;0.8243;
1329.3000;0.4697;0.8243;
1329.6000;0.4640;0.8034;
1329.9000;0.4705;0.8243;
1330.2000;0.4713;0.8243;
1330.5000;0.4607;0.8057;
1330.8000;0.4705;0.8313;
1331.1000;0.4705;0.8336;
1331.4000;0.4697;0.8405;
1331.7000;0.4681;0.8429;
1332.0000;0.4705;0.8429;
1332.3000;0.4705;0.8452;
1332.6000;0.4705;0.8405;
1332.9000;0.4705;0.8405;
1333.2000;0.4689;0.8313;
1333.5000;0.4713;0.8429;
1333.8000;0.4729;0.8452;
1334.1000;0.4713;0.8382;
1334.4000;0.4705;0.8429;
1334.7000;0.4697;0.8382;
1335.0000;0.4689;0.8405;
1335.3000;0.4721;0.8336;
1335.6000;0.4697;0.8289;
1335.9000;0.4713;0.8266;
1336.2000;0.4729;0.8336;
1336.5000;0.4672;0.8220;
1336.8000;0.4729;0.8289;
1337.1000;0.4705;0.8243;
1337.4000;0.4705;0.8220;
1337.7000;0.4705;0.8220;
1338.0000;0.4705;0.8196;
1338.3000;0.4754;0.8359;
1338.6000;0.4713;0.8220;
1338.9000;0.4705;0.8220;
1339.2000;0.4648;0.8150;
1339.5000;0.4681;0.8359;
1339.8000;0.4681;0.8405;
1340.1000;0.4713;0.8405;
1340.4000;0.4705;0.8521;
1340.7000;0.4689;0.8429;
1341.0000;0.4681;0.8429;
1341.3000;0.4697;0.8568;
1341.6000;0.4681;0.8498;
1341.9000;0.4664;0.8452;
1342.2000;0.4689;0.8475;
1342.5000;0.4681;0.8382;
1342.8000;0.4689;0.8266;
1343.1000;0.4689;0.8289;
1343.4000;0.4729;0.8289;
1343.7000;0.4713;0.8266;
1344.0000;0.4713;0.8313;
1344.3000;0.4713;0.8289;
1344.6000;0.4689;0.8313;
1344.9000;0.4656;0.8220;
1345.2000;0.4713;0.8313;
1345.5000;0.4689;0.8336;
1345.8000;0.4672;0.8336;
1346.1000;0.4705;0.8336;
1346.4000;0.4705;0.8289;
1346.7000;0.4632;0.8196;
1347.0000;0.4689;0.8313;
1347.3000;0.4713;0.8382;
1347.6000;0.4729;0.8429;
1347.9000;0.4705;0.8429;
1348.2000;0.4721;0.8405;
1348.5000;0.4713;0.8405;
1348.8000;0.4721;0.8475;
1349.1000;0.4713;0.8498;
1349.4000;0.4705;0.8545;
1349.7000;0.4713;0.8614;
1350.0000;0.4705;0.8638;
1350.3000;0.4705;0.8591;
1350.6000;0.4542;0.8173;
1350.9000;0.4689;0.8498;
1351.2000;0.4689;0.8521;
1351.5000;0.4705;0.8591;
1351.8000;0.4705;0.8638;
1352.1000;0.4689;0.8614;
1352.4000;0.4689;0.8568;
1352.7000;0.4713;0.8614;
1353.0000;0.4689;0.8521;
1353.3000;0.4721;0.8661;
1353.6000;0.4697;0.8638;
1353.9000;0.4697;0.8614;
1354.2000;0.4681;0.8614;
1354.5000;0.4713;0.8684;
1354.8000;0.4697;0.8568;
1355.1000;0.4713;0.8521;
1355.4000;0.4713;0.8498;
1355.7000;0.4689;0.8498;
1356.0000;0.4721;0.8568;
1356.3000;0.4697;0.8498;
1356.6000;0.4664;0.8289;
1356.9000;0.4697;0.8429;
1357.2000;0.4713;0.8545;
1357.5000;0.4705;0.8614;
1357.8000;0.4705;0.8614;
1358.1000;0.4705;0.8498;
1358.4000;0.4721;0.8475;
1358.7000;0.4705;0.8429;
1359.0000;0.4721;0.8429;
1359.3000;0.4713;0.8429;
1359.6000;0.4721;0.8429;
1359.9000;0.4697;0.8336;
1360.2000;0.4705;0.8452;
1360.5000;0.4697;0.8382;
1360.8000;0.4697;0.8313;
1361.1000;0.4697;0.8521;
1361.4000;0.4672;0.8452;
1361.7000;0.4713;0.8545;
1362.0000;0.4713;0.8545;
1362.3000;0.4697;0.8521;
1362.6000;0.4713;0.8498;
1362.9000;0.4713;0.8475;
1363.2000;0.4689;0.8521;
1363.5000;0.4681;0.8475;
1363.8000;0.4721;0.8521;
1364.1000;0.4713;0.8545;
1364.4000;0.4721;0.8591;
1364.7000;0.4664;0.8452;
1365.0000;0.4689;0.8452;
1365.3000;0.4689;0.8475;
1365.6000;0.4721;0.8521;
1365.9000;0.4697;0.8405;
1366.2000;0.4689;0.8313;
1366.5000;0.4705;0.8313;
1366.8000;0.4754;0.8429;
1367.1000;0.4697;0.8289;
1367.4000;0.4705;0.8336;
1367.7000;0.4721;0.8405;
1368.0000;0.4713;0.8475;
1368.3000;0.4713;0.8521;
1368.6000;0.4737;0.8614;
1368.9000;0.4721;0.8475;
1369.2000;0.4713;0.8545;
1369.5000;0.4721;0.8614;
1369.8000;0.4762;0.8661;
1370.1000;0.4713;0.8545;
1370.4000;0.4721;0.8545;
1370.7000;0.4721;0.8475;
1371.0000;0.4705;0.8475;
1371.3000;0.4697;0.8545;
1371.6000;0.4697;0.8498;
1371.9000;0.4713;0.8475;
1372.2000;0.4737;0.8521;
1372.5000;0.4689;0.8429;
1372.8000;0.4697;0.8359;
1373.1000;0.4705;0.8313;
1373.4000;0.4705;0.8405;
1373.7000;0.4713;0.8475;
1374.0000;0.4697;0.8405;
1374.3000;0.4697;0.8336;
1374.6000;0.4713;0.8382;
1374.9000;0.4705;0.8382;
1375.2000;0.4713;0.8452;
1375.5000;0.4697;0.8452;
1375.8000;0.4713;0.8429;
1376.1000;0.4697;0.8405;
1376.4000;0.4697;0.8568;
1376.7000;0.4697;0.8545;
1377.0000;0.4681;0.8521;
1377.3000;0.4689;0.8591;
1377.6000;0.4672;0.8545;
1377.9000;0.4729;0.8498;
1378.2000;0.4713;0.8498;
1378.5000;0.4713;0.8475;
1378.8000;0.4770;0.8591;
1379.1000;0.4721;0.8452;
1379.4000;0.4713;0.8336;
1379.7000;0.4737;0.8405;
1380.0000;0.4697;0.8243;
1380.3000;0.4697;0.8266;
1380.6000;0.4697;0.8336;
1380.9000;0.4681;0.8289;
1381.2000;0.4713;0.8266;
1381.5000;0.4721;0.8382;
1381.8000;0.4705;0.8405;
1382.1000;0.4705;0.8429;
1382.4000;0.4697;0.8429;
1382.7000;0.4713;0.8429;
1383.0000;0.4689;0.8359;
1383.3000;0.4705;0.8336;
1383.6000;0.4713;0.8429;
1383.9000;0.4689;0.8452;
1384.2000;0.4697;0.8475;
1384.5000;0.4713;0.8568;
1384.8000;0.4729;0.8568;
1385.1000;0.4705;0.8452;
1385.4000;0.4697;0.8359;
1385.7000;0.4713;0.8429;
1386.0000;0.4705;0.8336;
1386.3000;0.4713;0.8382;
1386.6000;0.4746;0.8545;
1386.9000;0.4705;0.8382;
1387.2000;0.4689;0.8359;
1387.5000;0.4697;0.8429;
1387.8000;0.4664;0.8382;
1388.1000;0.4697;0.8452;
1388.4000;0.4648;0.8382;
1388.7000;0.4729;0.8591;
1389.0000;0.4705;0.8475;
1389.3000;0.4681;0.8336;
1389.6000;0.4689;0.8429;
1389.9000;0.4664;0.8359;
1390.2000;0.4729;0.8498;
1390.5000;0.4697;0.8452;
1390.8000;0.4689;0.8498;
1391.1000;0.4689;0.8429;
1391.4000;0.4697;0.8452;
1391.7000;0.4681;0.8382;
1392.0000;0.4664;0.8382;
1392.3000;0.4746;0.8521;
1392.6000;0.4713;0.8405;
1392.9000;0.4737;0.8545;
1393.2000;0.4705;0.8429;
1393.5000;0.4697;0.8475;
1393.8000;0.4721;0.8429;
1394.1000;0.4705;0.8336;
1394.4000;0.4681;0.8266;
1394.7000;0.4697;0.8266;
1395.0000;0.4697;0.8382;
1395.3000;0.4721;0.8382;
1395.6000;0.4713;0.8289;
1395.9000;0.4737;0.8452;
1396.2000;0.4697;0.8429;
1396.5000;0.4705;0.8382;
1396.8000;0.4713;0.8382;
1397.1000;0.4689;0.8289;
1397.4000;0.4697;0.8382;
1397.7000;0.4689;0.8359;
1398.0000;0.4729;0.8382;
1398.3000;0.4705;0.8359;
1398.6000;0.4697;0.8382;
1398.9000;0.4721;0.8452;
1399.2000;0.4615;0.8196;
1399.5000;0.4681;0.8336;
1399.8000;0.4697;0.8313;
