time/ms;Fluo/V;P700 deltaI/I x10³;
-199.8000;0.4933;0.6687;
-199.5000;0.4957;0.6757;
-199.2000;0.4933;0.6757;
-198.9000;0.4998;0.6919;
-198.6000;0.4843;0.6571;
-198.3000;0.4933;0.6757;
-198.0000;0.4965;0.6826;
-197.7000;0.4941;0.6826;
-197.4000;0.4933;0.6757;
-197.1000;0.4933;0.6826;
-196.8000;0.4900;0.6826;
-196.5000;0.4925;0.6873;
-196.2000;0.4908;0.6826;
-195.9000;0.4925;0.6850;
-195.6000;0.4917;0.6850;
-195.3000;0.4925;0.6826;
-195.0000;0.4917;0.6826;
-194.7000;0.4892;0.6757;
-194.4000;0.4892;0.6710;
-194.1000;0.4949;0.6826;
-193.8000;0.4925;0.6687;
-193.5000;0.4925;0.6664;
-193.2000;0.4941;0.6734;
-192.9000;0.4925;0.6757;
-192.6000;0.4941;0.6803;
-192.3000;0.4965;0.6919;
-192.0000;0.4933;0.6780;
-191.7000;0.4965;0.6780;
-191.4000;0.4933;0.6826;
-191.1000;0.4933;0.6757;
-190.8000;0.5063;0.7059;
-190.5000;0.4941;0.6803;
-190.2000;0.4998;0.6896;
-189.9000;0.4957;0.6780;
-189.6000;0.4917;0.6687;
-189.3000;0.4965;0.6803;
-189.0000;0.4933;0.6687;
-188.7000;0.4925;0.6710;
-188.4000;0.4925;0.6780;
-188.1000;0.4908;0.6780;
-187.8000;0.4917;0.6780;
-187.5000;0.4941;0.6826;
-187.2000;0.4933;0.6803;
-186.9000;0.4941;0.6757;
-186.6000;0.4860;0.6571;
-186.3000;0.4990;0.6873;
-186.0000;0.4957;0.6803;
-185.7000;0.4876;0.6687;
-185.4000;0.4925;0.6803;
-185.1000;0.4917;0.6780;
-184.8000;0.4925;0.6734;
-184.5000;0.4917;0.6664;
-184.2000;0.4949;0.6757;
-183.9000;0.4933;0.6780;
-183.6000;0.4933;0.6757;
-183.3000;0.4933;0.6734;
-183.0000;0.4933;0.6803;
-182.7000;0.4941;0.6803;
-182.4000;0.4835;0.6455;
-182.1000;0.4933;0.6757;
-181.8000;0.4900;0.6664;
-181.5000;0.4933;0.6826;
-181.2000;0.4941;0.6780;
-180.9000;0.4933;0.6850;
-180.6000;0.4925;0.6803;
-180.3000;0.4965;0.6919;
-180.0000;0.4933;0.6826;
-179.7000;0.4933;0.6803;
-179.4000;0.4974;0.7082;
-179.1000;0.4917;0.6943;
-178.8000;0.4917;0.6919;
-178.5000;0.4925;0.6919;
-178.2000;0.4925;0.6919;
-177.9000;0.4900;0.7012;
-177.6000;0.4933;0.7035;
-177.3000;0.4933;0.6943;
-177.0000;0.4925;0.6826;
-176.7000;0.4965;0.6873;
-176.4000;0.4957;0.6850;
-176.1000;0.4957;0.6943;
-175.8000;0.4974;0.7012;
-175.5000;0.4925;0.6919;
-175.2000;0.4925;0.6919;
-174.9000;0.4941;0.6989;
-174.6000;0.4908;0.6873;
-174.3000;0.4949;0.6919;
-174.0000;0.4925;0.6803;
-173.7000;0.4949;0.6826;
-173.4000;0.4917;0.6780;
-173.1000;0.4900;0.6780;
-172.8000;0.4900;0.6757;
-172.5000;0.4933;0.6896;
-172.2000;0.4900;0.6826;
-171.9000;0.4949;0.6943;
-171.6000;0.4949;0.6966;
-171.3000;0.4957;0.6966;
-171.0000;0.4933;0.6896;
-170.7000;0.4965;0.6919;
-170.4000;0.4917;0.6826;
-170.1000;0.4941;0.6873;
-169.8000;0.4982;0.6966;
-169.5000;0.4925;0.6896;
-169.2000;0.4917;0.6826;
-168.9000;0.4933;0.6757;
-168.6000;0.4965;0.6850;
-168.3000;0.4949;0.6943;
-168.0000;0.4917;0.6850;
-167.7000;0.4917;0.6966;
-167.4000;0.4917;0.6943;
-167.1000;0.4957;0.6943;
-166.8000;0.4884;0.6757;
-166.5000;0.4941;0.6780;
-166.2000;0.4868;0.6618;
-165.9000;0.4941;0.6826;
-165.6000;0.4925;0.6780;
-165.3000;0.4933;0.6803;
-165.0000;0.4957;0.6826;
-164.7000;0.4949;0.6826;
-164.4000;0.4933;0.6687;
-164.1000;0.4933;0.6734;
-163.8000;0.4933;0.6710;
-163.5000;0.4949;0.6780;
-163.2000;0.4925;0.6780;
-162.9000;0.4917;0.6919;
-162.6000;0.5006;0.7128;
-162.3000;0.4941;0.6966;
-162.0000;0.4949;0.6943;
-161.7000;0.4941;0.6896;
-161.4000;0.4933;0.6919;
-161.1000;0.4933;0.6919;
-160.8000;0.4957;0.6943;
-160.5000;0.4949;0.6966;
-160.2000;0.4949;0.6966;
-159.9000;0.4917;0.6943;
-159.6000;0.4982;0.6966;
-159.3000;0.5047;0.7105;
-159.0000;0.4933;0.6803;
-158.7000;0.4917;0.6826;
-158.4000;0.4941;0.6826;
-158.1000;0.4949;0.6780;
-157.8000;0.4965;0.6896;
-157.5000;0.4941;0.6873;
-157.2000;0.4941;0.6873;
-156.9000;0.4917;0.6896;
-156.6000;0.4941;0.6989;
-156.3000;0.4860;0.6919;
-156.0000;0.4957;0.7175;
-155.7000;0.4917;0.7082;
-155.4000;0.4925;0.7082;
-155.1000;0.4900;0.7082;
-154.8000;0.4941;0.7152;
-154.5000;0.4925;0.7105;
-154.2000;0.4941;0.7059;
-153.9000;0.4933;0.7105;
-153.6000;0.4925;0.7035;
-153.3000;0.4990;0.7128;
-153.0000;0.4941;0.7012;
-152.7000;0.4917;0.6850;
-152.4000;0.4933;0.6896;
-152.1000;0.4949;0.6966;
-151.8000;0.4925;0.6896;
-151.5000;0.4933;0.7012;
-151.2000;0.4941;0.6989;
-150.9000;0.4900;0.6896;
-150.6000;0.4925;0.6943;
-150.3000;0.4933;0.6989;
-150.0000;0.4941;0.7059;
-149.7000;0.4917;0.7035;
-149.4000;0.4884;0.6989;
-149.1000;0.4949;0.7035;
-148.8000;0.4908;0.6919;
-148.5000;0.4908;0.6826;
-148.2000;0.4900;0.6780;
-147.9000;0.4949;0.6943;
-147.6000;0.4949;0.6896;
-147.3000;0.4917;0.6919;
-147.0000;0.4974;0.7059;
-146.7000;0.4925;0.6896;
-146.4000;0.4908;0.6850;
-146.1000;0.4843;0.6710;
-145.8000;0.4925;0.6896;
-145.5000;0.4949;0.6919;
-145.2000;0.4917;0.6757;
-144.9000;0.4917;0.6734;
-144.6000;0.4933;0.6710;
-144.3000;0.4925;0.6641;
-144.0000;0.4965;0.6780;
-143.7000;0.4933;0.6757;
-143.4000;0.4892;0.6687;
-143.1000;0.4957;0.6803;
-142.8000;0.4949;0.6803;
-142.5000;0.4851;0.6710;
-142.2000;0.4900;0.6850;
-141.9000;0.4925;0.6943;
-141.6000;0.4933;0.6896;
-141.3000;0.4876;0.6989;
-141.0000;0.4933;0.7175;
-140.7000;0.4933;0.7105;
-140.4000;0.4941;0.7059;
-140.1000;0.4908;0.6919;
-139.8000;0.4933;0.6989;
-139.5000;0.4925;0.7082;
-139.2000;0.4908;0.6966;
-138.9000;0.4908;0.6919;
-138.6000;0.4925;0.6966;
-138.3000;0.4908;0.6966;
-138.0000;0.4933;0.6989;
-137.7000;0.4917;0.6989;
-137.4000;0.4917;0.7059;
-137.1000;0.4917;0.6943;
-136.8000;0.4917;0.6943;
-136.5000;0.4925;0.6943;
-136.2000;0.4982;0.7035;
-135.9000;0.4892;0.6826;
-135.6000;0.4925;0.6966;
-135.3000;0.4860;0.6826;
-135.0000;0.4908;0.6989;
-134.7000;0.4941;0.6989;
-134.4000;0.4933;0.6943;
-134.1000;0.4917;0.6873;
-133.8000;0.4892;0.6803;
-133.5000;0.4900;0.6780;
-133.2000;0.4900;0.6734;
-132.9000;0.4917;0.6664;
-132.6000;0.4925;0.6641;
-132.3000;0.4917;0.6664;
-132.0000;0.4917;0.6664;
-131.7000;0.4925;0.6757;
-131.4000;0.4933;0.6710;
-131.1000;0.4925;0.6757;
-130.8000;0.4925;0.6780;
-130.5000;0.4917;0.6780;
-130.2000;0.4925;0.6687;
-129.9000;0.4965;0.6803;
-129.6000;0.4917;0.6826;
-129.3000;0.4884;0.6757;
-129.0000;0.4925;0.7012;
-128.7000;0.4925;0.6943;
-128.4000;0.4925;0.6873;
-128.1000;0.4917;0.6734;
-127.8000;0.4925;0.6803;
-127.5000;0.4917;0.6896;
-127.2000;0.4908;0.6873;
-126.9000;0.4917;0.6896;
-126.6000;0.4925;0.6850;
-126.3000;0.4925;0.6826;
-126.0000;0.4933;0.6780;
-125.7000;0.4949;0.6780;
-125.4000;0.4941;0.6826;
-125.1000;0.4925;0.6873;
-124.8000;0.4941;0.6873;
-124.5000;0.4917;0.6803;
-124.2000;0.4917;0.6803;
-123.9000;0.4925;0.6734;
-123.6000;0.4933;0.6641;
-123.3000;0.4908;0.6710;
-123.0000;0.4933;0.6710;
-122.7000;0.4917;0.6641;
-122.4000;0.4933;0.6710;
-122.1000;0.4941;0.6687;
-121.8000;0.4925;0.6571;
-121.5000;0.4868;0.6501;
-121.2000;0.4941;0.6664;
-120.9000;0.4925;0.6710;
-120.6000;0.4917;0.6710;
-120.3000;0.4925;0.6734;
-120.0000;0.4908;0.6710;
-119.7000;0.4925;0.6618;
-119.4000;0.5031;0.6896;
-119.1000;0.4933;0.6710;
-118.8000;0.4998;0.6873;
-118.5000;0.4941;0.6734;
-118.2000;0.4908;0.6734;
-117.9000;0.4917;0.6780;
-117.6000;0.4843;0.6478;
-117.3000;0.4851;0.6548;
-117.0000;0.4933;0.6710;
-116.7000;0.4925;0.6594;
-116.4000;0.4941;0.6618;
-116.1000;0.4941;0.6664;
-115.8000;0.4917;0.6687;
-115.5000;0.4949;0.6757;
-115.2000;0.4925;0.6734;
-114.9000;0.4908;0.6594;
-114.6000;0.4933;0.6641;
-114.3000;0.4917;0.6641;
-114.0000;0.4941;0.6687;
-113.7000;0.4957;0.6687;
-113.4000;0.4949;0.6734;
-113.1000;0.4933;0.6803;
-112.8000;0.4925;0.6780;
-112.5000;0.4941;0.6873;
-112.2000;0.4933;0.6780;
-111.9000;0.4917;0.6803;
-111.6000;0.4933;0.6780;
-111.3000;0.4908;0.6734;
-111.0000;0.4933;0.6850;
-110.7000;0.4933;0.6896;
-110.4000;0.4908;0.6826;
-110.1000;0.4933;0.6873;
-109.8000;0.4908;0.6873;
-109.5000;0.4925;0.6826;
-109.2000;0.4917;0.6850;
-108.9000;0.4925;0.6919;
-108.6000;0.4925;0.6873;
-108.3000;0.4933;0.6780;
-108.0000;0.4908;0.6803;
-107.7000;0.4900;0.6873;
-107.4000;0.4925;0.6896;
-107.1000;0.4908;0.6710;
-106.8000;0.4908;0.6734;
-106.5000;0.4925;0.6757;
-106.2000;0.4949;0.6826;
-105.9000;0.4941;0.6780;
-105.6000;0.4933;0.6873;
-105.3000;0.4933;0.6873;
-105.0000;0.4933;0.6826;
-104.7000;0.4941;0.6919;
-104.4000;0.5006;0.6943;
-104.1000;0.4933;0.6641;
-103.8000;0.4933;0.6757;
-103.5000;0.4998;0.6850;
-103.2000;0.4941;0.6757;
-102.9000;0.4925;0.6757;
-102.6000;0.4925;0.6803;
-102.3000;0.4925;0.6896;
-102.0000;0.4941;0.6896;
-101.7000;0.4933;0.6734;
-101.4000;0.4933;0.6710;
-101.1000;0.4925;0.6757;
-100.8000;0.4925;0.6896;
-100.5000;0.4925;0.6826;
-100.2000;0.4933;0.6943;
-99.9000;0.4933;0.6873;
-99.6000;0.4900;0.6850;
-99.3000;0.4917;0.6873;
-99.0000;0.4908;0.6873;
-98.7000;0.4965;0.6943;
-98.4000;0.4925;0.6966;
-98.1000;0.4965;0.7059;
-97.8000;0.4933;0.6919;
-97.5000;0.4908;0.6896;
-97.2000;0.4917;0.6896;
-96.9000;0.4933;0.6919;
-96.6000;0.4917;0.6943;
-96.3000;0.4908;0.6873;
-96.0000;0.4868;0.6734;
-95.7000;0.4933;0.6966;
-95.4000;0.4933;0.6989;
-95.1000;0.4941;0.7012;
-94.8000;0.4941;0.7059;
-94.5000;0.4941;0.6989;
-94.2000;0.4949;0.7012;
-93.9000;0.4819;0.6826;
-93.6000;0.4933;0.7105;
-93.3000;0.4941;0.7082;
-93.0000;0.4917;0.7012;
-92.7000;0.4925;0.7035;
-92.4000;0.4908;0.6989;
-92.1000;0.4925;0.6966;
-91.8000;0.4917;0.6966;
-91.5000;0.4900;0.6919;
-91.2000;0.4908;0.7012;
-90.9000;0.4900;0.7082;
-90.6000;0.4925;0.7059;
-90.3000;0.4933;0.7059;
-90.0000;0.4933;0.7082;
-89.7000;0.4925;0.7082;
-89.4000;0.4925;0.7035;
-89.1000;0.4917;0.7035;
-88.8000;0.4925;0.7082;
-88.5000;0.4917;0.7035;
-88.2000;0.4917;0.6989;
-87.9000;0.4925;0.6966;
-87.6000;0.4917;0.7035;
-87.3000;0.4917;0.7035;
-87.0000;0.4941;0.7152;
-86.7000;0.4933;0.7128;
-86.4000;0.4925;0.7059;
-86.1000;0.4892;0.7012;
-85.8000;0.4908;0.6989;
-85.5000;0.4925;0.6943;
-85.2000;0.4982;0.7059;
-84.9000;0.4933;0.7012;
-84.6000;0.5039;0.7268;
-84.3000;0.4933;0.6966;
-84.0000;0.4925;0.6966;
-83.7000;0.4925;0.6873;
-83.4000;0.4900;0.6873;
-83.1000;0.4917;0.6873;
-82.8000;0.4941;0.6780;
-82.5000;0.4917;0.6710;
-82.2000;0.4917;0.6757;
-81.9000;0.4933;0.6873;
-81.6000;0.4917;0.6873;
-81.3000;0.4925;0.6919;
-81.0000;0.4917;0.6919;
-80.7000;0.4933;0.7059;
-80.4000;0.4933;0.7035;
-80.1000;0.4933;0.7059;
-79.8000;0.4925;0.7035;
-79.5000;0.4892;0.6966;
-79.2000;0.4908;0.7105;
-78.9000;0.4933;0.7082;
-78.6000;0.4917;0.7035;
-78.3000;0.4941;0.7105;
-78.0000;0.4925;0.7105;
-77.7000;0.4925;0.7128;
-77.4000;0.4990;0.7314;
-77.1000;0.4941;0.7221;
-76.8000;0.4917;0.7128;
-76.5000;0.4892;0.6989;
-76.2000;0.4908;0.7035;
-75.9000;0.4811;0.6734;
-75.6000;0.4917;0.7035;
-75.3000;0.4925;0.7035;
-75.0000;0.4925;0.7012;
-74.7000;0.4925;0.7012;
-74.4000;0.4941;0.7082;
-74.1000;0.4949;0.7128;
-73.8000;0.4949;0.7012;
-73.5000;0.4933;0.7035;
-73.2000;0.4933;0.7105;
-72.9000;0.4941;0.7105;
-72.6000;0.4933;0.7128;
-72.3000;0.4949;0.7105;
-72.0000;0.4925;0.7105;
-71.7000;0.4941;0.7082;
-71.4000;0.4933;0.7105;
-71.1000;0.4925;0.6989;
-70.8000;0.4933;0.7128;
-70.5000;0.4917;0.7059;
-70.2000;0.4933;0.7059;
-69.9000;0.4917;0.7012;
-69.6000;0.4925;0.7082;
-69.3000;0.4884;0.6989;
-69.0000;0.4925;0.7105;
-68.7000;0.4917;0.7082;
-68.4000;0.4949;0.7082;
-68.1000;0.4925;0.6989;
-67.8000;0.4941;0.6989;
-67.5000;0.4949;0.7012;
-67.2000;0.4949;0.6989;
-66.9000;0.4941;0.6943;
-66.6000;0.4917;0.6919;
-66.3000;0.4949;0.7035;
-66.0000;0.4884;0.6780;
-65.7000;0.4900;0.6896;
-65.4000;0.4925;0.6989;
-65.1000;0.4843;0.6780;
-64.8000;0.4908;0.6943;
-64.5000;0.4925;0.6989;
-64.2000;0.4900;0.6896;
-63.9000;0.4957;0.6919;
-63.6000;0.4957;0.6850;
-63.3000;0.4843;0.6710;
-63.0000;0.4908;0.6896;
-62.7000;0.4860;0.6710;
-62.4000;0.4933;0.6780;
-62.1000;0.5031;0.7035;
-61.8000;0.4892;0.6664;
-61.5000;0.4925;0.6803;
-61.2000;0.4949;0.6943;
-60.9000;0.4957;0.6943;
-60.6000;0.5031;0.7175;
-60.3000;0.4892;0.6919;
-60.0000;0.4933;0.7082;
-59.7000;0.4917;0.7012;
-59.4000;0.4917;0.6919;
-59.1000;0.4925;0.6943;
-58.8000;0.4941;0.6966;
-58.5000;0.4933;0.6919;
-58.2000;0.4957;0.6850;
-57.9000;0.4925;0.6803;
-57.6000;0.4933;0.6826;
-57.3000;0.4933;0.6943;
-57.0000;0.4917;0.6989;
-56.7000;0.4925;0.6919;
-56.4000;0.4933;0.6919;
-56.1000;0.4917;0.6896;
-55.8000;0.5006;0.7082;
-55.5000;0.4917;0.6803;
-55.2000;0.4933;0.6826;
-54.9000;0.4933;0.6919;
-54.6000;0.4908;0.6896;
-54.3000;0.4868;0.6687;
-54.0000;0.4933;0.6850;
-53.7000;0.4917;0.6734;
-53.4000;0.4892;0.6641;
-53.1000;0.4933;0.6734;
-52.8000;0.4941;0.6826;
-52.5000;0.4925;0.6873;
-52.2000;0.4941;0.6966;
-51.9000;0.4949;0.6989;
-51.6000;0.4908;0.6966;
-51.3000;0.4900;0.6966;
-51.0000;0.4933;0.7059;
-50.7000;0.4933;0.7012;
-50.4000;0.4917;0.6943;
-50.1000;0.4925;0.6966;
-49.8000;0.4941;0.6919;
-49.5000;0.4843;0.6594;
-49.2000;0.4941;0.6873;
-48.9000;0.4917;0.6826;
-48.6000;0.4925;0.6873;
-48.3000;0.4949;0.6943;
-48.0000;0.4933;0.6943;
-47.7000;0.4998;0.7105;
-47.4000;0.4957;0.6966;
-47.1000;0.4949;0.6966;
-46.8000;0.4933;0.6989;
-46.5000;0.4925;0.6989;
-46.2000;0.4957;0.7012;
-45.9000;0.4998;0.7082;
-45.6000;0.4933;0.6966;
-45.3000;0.4908;0.6966;
-45.0000;0.4900;0.6803;
-44.7000;0.4933;0.6966;
-44.4000;0.4933;0.7012;
-44.1000;0.4925;0.7059;
-43.8000;0.4933;0.7012;
-43.5000;0.4949;0.7035;
-43.2000;0.4957;0.7059;
-42.9000;0.4925;0.7012;
-42.6000;0.4892;0.6919;
-42.3000;0.4851;0.6850;
-42.0000;0.4933;0.6989;
-41.7000;0.4900;0.6943;
-41.4000;0.4941;0.6966;
-41.1000;0.5006;0.7128;
-40.8000;0.4957;0.7128;
-40.5000;0.4925;0.7035;
-40.2000;0.4892;0.6966;
-39.9000;0.4908;0.7059;
-39.6000;0.4933;0.7128;
-39.3000;0.4908;0.7082;
-39.0000;0.4908;0.7059;
-38.7000;0.4884;0.6896;
-38.4000;0.4941;0.7059;
-38.1000;0.4941;0.7035;
-37.8000;0.4917;0.6966;
-37.5000;0.4949;0.7012;
-37.2000;0.4941;0.6873;
-36.9000;0.4941;0.6873;
-36.6000;0.4933;0.6803;
-36.3000;0.4941;0.6826;
-36.0000;0.4933;0.6803;
-35.7000;0.4941;0.6826;
-35.4000;0.4933;0.6734;
-35.1000;0.4941;0.6873;
-34.8000;0.4933;0.6919;
-34.5000;0.4933;0.6896;
-34.2000;0.4933;0.6850;
-33.9000;0.4900;0.6780;
-33.6000;0.4917;0.6850;
-33.3000;0.4925;0.6873;
-33.0000;0.4925;0.6757;
-32.7000;0.4908;0.6734;
-32.4000;0.4925;0.6826;
-32.1000;0.4998;0.7035;
-31.8000;0.4908;0.6896;
-31.5000;0.4941;0.6966;
-31.2000;0.4860;0.6664;
-30.9000;0.4917;0.6803;
-30.6000;0.4949;0.6896;
-30.3000;0.4949;0.6850;
-30.0000;0.4933;0.6734;
-29.7000;0.4941;0.6873;
-29.4000;0.4925;0.6873;
-29.1000;0.4941;0.6919;
-28.8000;0.4925;0.6826;
-28.5000;0.4933;0.6803;
-28.2000;0.4925;0.6780;
-27.9000;0.4941;0.6826;
-27.6000;0.4941;0.6966;
-27.3000;0.4933;0.6966;
-27.0000;0.4949;0.7035;
-26.7000;0.4908;0.7035;
-26.4000;0.4941;0.7059;
-26.1000;0.4917;0.7059;
-25.8000;0.4908;0.6989;
-25.5000;0.4974;0.7152;
-25.2000;0.4917;0.6943;
-24.9000;0.4892;0.6850;
-24.6000;0.4917;0.6803;
-24.3000;0.4925;0.6850;
-24.0000;0.4941;0.6803;
-23.7000;0.4925;0.6780;
-23.4000;0.4908;0.6803;
-23.1000;0.4925;0.6873;
-22.8000;0.4925;0.6943;
-22.5000;0.4941;0.7035;
-22.2000;0.4925;0.6943;
-21.9000;0.4925;0.6989;
-21.6000;0.4949;0.7035;
-21.3000;0.4933;0.7059;
-21.0000;0.4957;0.7082;
-20.7000;0.4925;0.6919;
-20.4000;0.4933;0.6943;
-20.1000;0.4908;0.6873;
-19.8000;0.4925;0.6896;
-19.5000;0.4908;0.6989;
-19.2000;0.4925;0.6966;
-18.9000;0.4908;0.6873;
-18.6000;0.4933;0.6896;
-18.3000;0.4900;0.6850;
-18.0000;0.4908;0.6850;
-17.7000;0.4925;0.6780;
-17.4000;0.4957;0.6803;
-17.1000;0.4900;0.6757;
-16.8000;0.4908;0.6873;
-16.5000;0.4925;0.6780;
-16.2000;0.4933;0.6873;
-15.9000;0.4925;0.6826;
-15.6000;0.4925;0.6850;
-15.3000;0.4925;0.6803;
-15.0000;0.4843;0.6664;
-14.7000;0.4917;0.6919;
-14.4000;0.4900;0.6757;
-14.1000;0.4933;0.6734;
-13.8000;0.4941;0.6850;
-13.5000;0.4933;0.6850;
-13.2000;0.4925;0.6826;
-12.9000;0.4925;0.6803;
-12.6000;0.4957;0.6826;
-12.3000;0.4941;0.6826;
-12.0000;0.4941;0.6687;
-11.7000;0.4941;0.6664;
-11.4000;0.4917;0.6478;
-11.1000;0.4949;0.6478;
-10.8000;0.4925;0.6362;
-10.5000;0.4941;0.6478;
-10.2000;0.4965;0.6618;
-9.9000;0.4957;0.6687;
-9.6000;0.4941;0.6618;
-9.3000;0.4933;0.6594;
-9.0000;0.4933;0.6548;
-8.7000;0.4949;0.6664;
-8.4000;0.4933;0.6734;
-8.1000;0.4925;0.6826;
-7.8000;0.4917;0.6873;
-7.5000;0.4933;0.6919;
-7.2000;0.4957;0.6989;
-6.9000;0.4941;0.6896;
-6.6000;0.4949;0.6966;
-6.3000;0.4925;0.6989;
-6.0000;0.4933;0.6989;
-5.7000;0.4925;0.6966;
-5.4000;0.4925;0.6943;
-5.1000;0.4941;0.6966;
-4.8000;0.4949;0.6919;
-4.5000;0.4941;0.6919;
-4.2000;0.4941;0.6943;
-3.9000;0.4982;0.7082;
-3.6000;0.4925;0.6966;
-3.3000;0.4957;0.7059;
-3.0000;0.4917;0.7082;
-2.7000;0.4949;0.7035;
-2.4000;0.4925;0.7012;
-2.1000;0.4933;0.6989;
-1.8000;0.4892;0.6873;
-1.5000;0.4949;0.6966;
-1.2000;0.4957;0.6873;
-0.9000;0.4957;0.6873;
-0.6000;0.5039;0.7082;
-0.3000;0.4933;0.6826;
0.0000;0.4933;0.6826;
0.3000;0.5096;0.7035;
0.6000;0.5307;0.7268;
0.9000;0.5454;0.7546;
1.2000;0.5608;0.7802;
1.5000;0.5698;0.8011;
1.8000;0.5779;0.8150;
2.1000;0.5845;0.8313;
2.4000;0.5893;0.8475;
2.7000;0.5942;0.8661;
3.0000;0.5983;0.8823;
3.3000;0.5991;0.8800;
3.6000;0.6032;0.8916;
3.9000;0.6056;0.9079;
4.2000;0.6081;0.9148;
4.5000;0.6097;0.9195;
4.8000;0.6121;0.9218;
5.1000;0.6154;0.9265;
5.4000;0.6170;0.9288;
5.7000;0.6195;0.9288;
6.0000;0.6203;0.9218;
6.3000;0.6211;0.9172;
6.6000;0.6219;0.9265;
6.9000;0.6235;0.9334;
7.2000;0.6260;0.9265;
7.5000;0.6292;0.9311;
7.8000;0.6309;0.9381;
8.1000;0.6325;0.9404;
8.4000;0.6341;0.9265;
8.7000;0.6349;0.9218;
9.0000;0.6365;0.9265;
9.3000;0.6374;0.9311;
9.6000;0.6357;0.9288;
9.9000;0.6406;0.9404;
10.2000;0.6422;0.9473;
10.5000;0.6447;0.9450;
10.8000;0.6463;0.9450;
11.1000;0.6439;0.9427;
11.4000;0.6479;0.9427;
11.7000;0.6471;0.9311;
12.0000;0.6496;0.9404;
12.3000;0.6512;0.9357;
12.6000;0.6512;0.9334;
12.9000;0.6561;0.9404;
13.2000;0.6553;0.9241;
13.5000;0.6577;0.9311;
13.8000;0.6577;0.9357;
14.1000;0.6602;0.9334;
14.4000;0.6602;0.9311;
14.7000;0.6610;0.9265;
15.0000;0.6626;0.9311;
15.3000;0.6642;0.9334;
15.6000;0.6650;0.9357;
15.9000;0.6650;0.9334;
16.2000;0.6667;0.9334;
16.5000;0.6667;0.9357;
16.8000;0.6667;0.9404;
17.1000;0.6699;0.9381;
17.4000;0.6716;0.9381;
17.7000;0.6740;0.9473;
18.0000;0.6724;0.9404;
18.3000;0.6724;0.9334;
18.6000;0.6732;0.9288;
18.9000;0.6748;0.9265;
19.2000;0.6748;0.9288;
19.5000;0.6756;0.9195;
19.8000;0.6789;0.9311;
20.1000;0.6756;0.9148;
20.4000;0.6838;0.9241;
20.7000;0.6789;0.9172;
21.0000;0.6789;0.9079;
21.3000;0.6789;0.9195;
21.6000;0.6789;0.9241;
21.9000;0.6821;0.9218;
22.2000;0.6821;0.9218;
22.5000;0.6764;0.9102;
22.8000;0.6862;0.9357;
23.1000;0.6846;0.9404;
23.4000;0.6862;0.9381;
23.7000;0.6870;0.9404;
24.0000;0.6870;0.9404;
24.3000;0.6919;0.9427;
24.6000;0.6903;0.9381;
24.9000;0.6886;0.9195;
25.2000;0.6878;0.9172;
25.5000;0.6895;0.9265;
25.8000;0.6911;0.9334;
26.1000;0.6903;0.9265;
26.4000;0.6911;0.9265;
26.7000;0.6903;0.9265;
27.0000;0.6960;0.9288;
27.3000;0.6927;0.9148;
27.6000;0.6960;0.9288;
27.9000;0.6903;0.9172;
28.2000;0.6927;0.9218;
28.5000;0.6935;0.9218;
28.8000;0.6943;0.9102;
29.1000;0.6911;0.9079;
29.4000;0.6952;0.9079;
29.7000;0.6960;0.9102;
30.0000;0.6968;0.9218;
30.3000;0.6968;0.9288;
30.6000;0.6968;0.9218;
30.9000;0.6976;0.9311;
31.2000;0.6984;0.9288;
31.5000;0.6984;0.9241;
31.8000;0.6952;0.9218;
32.1000;0.6943;0.9148;
32.4000;0.6992;0.9241;
32.7000;0.7009;0.9218;
33.0000;0.6919;0.8986;
33.3000;0.7009;0.9218;
33.6000;0.7025;0.9218;
33.9000;0.7025;0.9195;
34.2000;0.7025;0.9218;
34.5000;0.7009;0.9102;
34.8000;0.7033;0.9056;
35.1000;0.7009;0.9009;
35.4000;0.7041;0.9079;
35.7000;0.7041;0.9032;
36.0000;0.7049;0.9102;
36.3000;0.7033;0.9148;
36.6000;0.7025;0.9172;
36.9000;0.7049;0.9195;
37.2000;0.7033;0.9195;
37.5000;0.7139;0.9543;
37.8000;0.7041;0.9241;
38.1000;0.7025;0.9288;
38.4000;0.7057;0.9404;
38.7000;0.7057;0.9404;
39.0000;0.7057;0.9334;
39.3000;0.7057;0.9311;
39.6000;0.6992;0.9125;
39.9000;0.7074;0.9241;
40.2000;0.7082;0.9218;
40.5000;0.7131;0.9381;
40.8000;0.7066;0.9195;
41.1000;0.7066;0.9125;
41.4000;0.7066;0.9148;
41.7000;0.7000;0.8986;
42.0000;0.7090;0.9241;
42.3000;0.7098;0.9311;
42.6000;0.7090;0.9195;
42.9000;0.7098;0.9265;
43.2000;0.7098;0.9241;
43.5000;0.7066;0.9265;
43.8000;0.7098;0.9334;
44.1000;0.7098;0.9311;
44.4000;0.7074;0.9288;
44.7000;0.7098;0.9334;
45.0000;0.7106;0.9473;
45.3000;0.7212;0.9799;
45.6000;0.7098;0.9427;
45.9000;0.7147;0.9404;
46.2000;0.7074;0.9288;
46.5000;0.7098;0.9265;
46.8000;0.7106;0.9172;
47.1000;0.7123;0.9218;
47.4000;0.7147;0.9265;
47.7000;0.7139;0.9241;
48.0000;0.7131;0.9148;
48.3000;0.7131;0.9172;
48.6000;0.7114;0.9148;
48.9000;0.7147;0.9218;
49.2000;0.7131;0.9148;
49.5000;0.7114;0.9125;
49.8000;0.7074;0.8963;
50.1000;0.7131;0.9148;
50.4000;0.7098;0.9079;
50.7000;0.7139;0.9148;
51.0000;0.7131;0.9102;
51.3000;0.7041;0.8916;
51.6000;0.7114;0.9102;
51.9000;0.7123;0.9125;
52.2000;0.7131;0.9218;
52.5000;0.7139;0.9241;
52.8000;0.7139;0.9195;
53.1000;0.7131;0.9172;
53.4000;0.7131;0.9148;
53.7000;0.7147;0.9265;
54.0000;0.7155;0.9241;
54.3000;0.7147;0.9195;
54.6000;0.7131;0.9195;
54.9000;0.7171;0.9265;
55.2000;0.7204;0.9311;
55.5000;0.7179;0.9195;
55.8000;0.7163;0.9218;
56.1000;0.7139;0.9079;
56.4000;0.7171;0.9056;
56.7000;0.7163;0.9009;
57.0000;0.7147;0.8986;
57.3000;0.7163;0.9125;
57.6000;0.7171;0.9125;
57.9000;0.7163;0.9079;
58.2000;0.7179;0.9125;
58.5000;0.7147;0.9079;
58.8000;0.7163;0.9195;
59.1000;0.7188;0.9241;
59.4000;0.7163;0.9218;
59.7000;0.7163;0.9195;
60.0000;0.7179;0.9172;
60.3000;0.7179;0.9125;
60.6000;0.7179;0.9125;
60.9000;0.7179;0.9079;
61.2000;0.7171;0.9148;
61.5000;0.7188;0.9218;
61.8000;0.7171;0.9241;
62.1000;0.7204;0.9334;
62.4000;0.7098;0.9032;
62.7000;0.7163;0.9172;
63.0000;0.7163;0.9079;
63.3000;0.7245;0.9334;
63.6000;0.7171;0.9148;
63.9000;0.7188;0.9195;
64.2000;0.7163;0.9079;
64.5000;0.7171;0.9172;
64.8000;0.7204;0.9241;
65.1000;0.7179;0.9218;
65.4000;0.7171;0.9102;
65.7000;0.7188;0.9148;
66.0000;0.7196;0.9195;
66.3000;0.7171;0.9102;
66.6000;0.7196;0.9148;
66.9000;0.7179;0.9172;
67.2000;0.7220;0.9241;
67.5000;0.7188;0.9195;
67.8000;0.7277;0.9427;
68.1000;0.7293;0.9497;
68.4000;0.7245;0.9288;
68.7000;0.7163;0.9172;
69.0000;0.7196;0.9334;
69.3000;0.7245;0.9473;
69.6000;0.7179;0.9334;
69.9000;0.7245;0.9427;
70.2000;0.7147;0.9288;
70.5000;0.7293;0.9566;
70.8000;0.7188;0.9265;
71.1000;0.7147;0.9079;
71.4000;0.7196;0.9148;
71.7000;0.7147;0.8916;
72.0000;0.7293;0.9311;
72.3000;0.7196;0.9079;
72.6000;0.7277;0.9172;
72.9000;0.7204;0.9056;
73.2000;0.7204;0.9102;
73.5000;0.7188;0.9056;
73.8000;0.7179;0.9009;
74.1000;0.7188;0.9009;
74.4000;0.7212;0.9079;
74.7000;0.7196;0.9032;
75.0000;0.7196;0.9032;
75.3000;0.7220;0.9079;
75.6000;0.7179;0.9079;
75.9000;0.7204;0.9056;
76.2000;0.7228;0.9102;
76.5000;0.7212;0.8986;
76.8000;0.7204;0.8963;
77.1000;0.7204;0.8963;
77.4000;0.7196;0.8939;
77.7000;0.7204;0.9056;
78.0000;0.7228;0.9195;
78.3000;0.7204;0.9218;
78.6000;0.7212;0.9218;
78.9000;0.7114;0.9032;
79.2000;0.7212;0.9218;
79.5000;0.7204;0.9195;
79.8000;0.7228;0.9195;
80.1000;0.7204;0.9172;
80.4000;0.7220;0.9265;
80.7000;0.7236;0.9311;
81.0000;0.7245;0.9195;
81.3000;0.7228;0.9172;
81.6000;0.7220;0.9195;
81.9000;0.7236;0.9241;
82.2000;0.7220;0.9195;
82.5000;0.7261;0.9265;
82.8000;0.7212;0.9195;
83.1000;0.7277;0.9334;
83.4000;0.7236;0.9265;
83.7000;0.7236;0.9218;
84.0000;0.7228;0.9265;
84.3000;0.7228;0.9172;
84.6000;0.7188;0.9079;
84.9000;0.7228;0.9218;
85.2000;0.7196;0.9172;
85.5000;0.7163;0.9079;
85.8000;0.7147;0.9009;
86.1000;0.7236;0.9241;
86.4000;0.7236;0.9265;
86.7000;0.7228;0.9195;
87.0000;0.7212;0.9125;
87.3000;0.7285;0.9311;
87.6000;0.7204;0.9195;
87.9000;0.7147;0.9102;
88.2000;0.7236;0.9288;
88.5000;0.7236;0.9311;
88.8000;0.7204;0.9288;
89.1000;0.7204;0.9334;
89.4000;0.7196;0.9172;
89.7000;0.7147;0.9079;
90.0000;0.7228;0.9241;
90.3000;0.7245;0.9241;
90.6000;0.7220;0.9056;
90.9000;0.7196;0.9009;
91.2000;0.7220;0.9009;
91.5000;0.7228;0.9056;
91.8000;0.7261;0.9056;
92.1000;0.7245;0.9056;
92.4000;0.7228;0.8986;
92.7000;0.7228;0.8986;
93.0000;0.7245;0.9032;
93.3000;0.7179;0.8986;
93.6000;0.7228;0.9032;
93.9000;0.7236;0.8916;
94.2000;0.7318;0.9009;
94.5000;0.7220;0.8847;
94.8000;0.7245;0.8963;
95.1000;0.7212;0.9032;
95.4000;0.7269;0.9195;
95.7000;0.7220;0.9172;
96.0000;0.7228;0.9079;
96.3000;0.7245;0.9125;
96.6000;0.7269;0.9195;
96.9000;0.7236;0.9056;
97.2000;0.7228;0.9102;
97.5000;0.7228;0.9102;
97.8000;0.7236;0.9079;
98.1000;0.7220;0.9102;
98.4000;0.7253;0.9265;
98.7000;0.7253;0.9288;
99.0000;0.7220;0.9241;
99.3000;0.7236;0.9288;
99.6000;0.7220;0.9288;
99.9000;0.7253;0.9334;
100.2000;0.7293;0.9450;
100.5000;0.7228;0.9311;
100.8000;0.7253;0.9241;
101.1000;0.7245;0.9288;
101.4000;0.7253;0.9265;
101.7000;0.7253;0.9265;
102.0000;0.7245;0.9265;
102.3000;0.7253;0.9218;
102.6000;0.7245;0.9241;
102.9000;0.7245;0.9311;
103.2000;0.7261;0.9311;
103.5000;0.7245;0.9241;
103.8000;0.7253;0.9334;
104.1000;0.7236;0.9381;
104.4000;0.7212;0.9265;
104.7000;0.7228;0.9195;
105.0000;0.7236;0.9241;
105.3000;0.7261;0.9241;
105.6000;0.7253;0.9241;
105.9000;0.7253;0.9265;
106.2000;0.7310;0.9311;
106.5000;0.7245;0.9172;
106.8000;0.7269;0.9148;
107.1000;0.7236;0.9102;
107.4000;0.7261;0.9195;
107.7000;0.7277;0.9288;
108.0000;0.7261;0.9288;
108.3000;0.7212;0.9311;
108.6000;0.7253;0.9427;
108.9000;0.7269;0.9381;
109.2000;0.7359;0.9659;
109.5000;0.7245;0.9357;
109.8000;0.7236;0.9311;
110.1000;0.7220;0.9241;
110.4000;0.7245;0.9218;
110.7000;0.7228;0.9241;
111.0000;0.7236;0.9218;
111.3000;0.7261;0.9172;
111.6000;0.7253;0.9172;
111.9000;0.7302;0.9241;
112.2000;0.7253;0.9195;
112.5000;0.7245;0.9311;
112.8000;0.7163;0.9148;
113.1000;0.7253;0.9357;
113.4000;0.7261;0.9311;
113.7000;0.7261;0.9311;
114.0000;0.7253;0.9241;
114.3000;0.7285;0.9241;
114.6000;0.7261;0.9079;
114.9000;0.7245;0.9148;
115.2000;0.7261;0.9172;
115.5000;0.7261;0.9172;
115.8000;0.7245;0.9125;
116.1000;0.7261;0.9195;
116.4000;0.7269;0.9218;
116.7000;0.7261;0.9241;
117.0000;0.7253;0.9172;
117.3000;0.7269;0.9265;
117.6000;0.7253;0.9195;
117.9000;0.7269;0.9195;
118.2000;0.7269;0.9102;
118.5000;0.7253;0.9079;
118.8000;0.7253;0.9148;
119.1000;0.7285;0.9172;
119.4000;0.7261;0.9195;
119.7000;0.7245;0.9241;
120.0000;0.7245;0.9311;
120.3000;0.7261;0.9404;
120.6000;0.7253;0.9427;
120.9000;0.7253;0.9404;
121.2000;0.7236;0.9427;
121.5000;0.7253;0.9566;
121.8000;0.7277;0.9566;
122.1000;0.7261;0.9450;
122.4000;0.7253;0.9357;
122.7000;0.7269;0.9288;
123.0000;0.7285;0.9311;
123.3000;0.7277;0.9357;
123.6000;0.7269;0.9404;
123.9000;0.7277;0.9473;
124.2000;0.7285;0.9473;
124.5000;0.7253;0.9450;
124.8000;0.7261;0.9497;
125.1000;0.7196;0.9334;
125.4000;0.7261;0.9427;
125.7000;0.7261;0.9427;
126.0000;0.7253;0.9357;
126.3000;0.7245;0.9195;
126.6000;0.7245;0.9172;
126.9000;0.7253;0.9172;
127.2000;0.7253;0.9102;
127.5000;0.7261;0.9148;
127.8000;0.7261;0.9241;
128.1000;0.7261;0.9195;
128.4000;0.7261;0.9241;
128.7000;0.7285;0.9218;
129.0000;0.7245;0.9056;
129.3000;0.7253;0.9125;
129.6000;0.7261;0.9125;
129.9000;0.7253;0.9218;
130.2000;0.7204;0.9102;
130.5000;0.7269;0.9311;
130.8000;0.7253;0.9265;
131.1000;0.7261;0.9218;
131.4000;0.7269;0.9195;
131.7000;0.7318;0.9334;
132.0000;0.7261;0.9218;
132.3000;0.7277;0.9288;
132.6000;0.7253;0.9218;
132.9000;0.7253;0.9218;
133.2000;0.7269;0.9265;
133.5000;0.7261;0.9241;
133.8000;0.7220;0.9102;
134.1000;0.7188;0.9032;
134.4000;0.7253;0.9218;
134.7000;0.7269;0.9288;
135.0000;0.7269;0.9334;
135.3000;0.7245;0.9311;
135.6000;0.7342;0.9473;
135.9000;0.7261;0.9265;
136.2000;0.7253;0.9241;
136.5000;0.7236;0.9218;
136.8000;0.7269;0.9357;
137.1000;0.7302;0.9450;
137.4000;0.7261;0.9311;
137.7000;0.7269;0.9265;
138.0000;0.7253;0.9311;
138.3000;0.7269;0.9381;
138.6000;0.7277;0.9311;
138.9000;0.7269;0.9265;
139.2000;0.7277;0.9288;
139.5000;0.7318;0.9311;
139.8000;0.7285;0.9125;
140.1000;0.7285;0.9172;
140.4000;0.7261;0.9172;
140.7000;0.7269;0.9195;
141.0000;0.7245;0.9102;
141.3000;0.7245;0.9102;
141.6000;0.7253;0.9079;
141.9000;0.7277;0.9102;
142.2000;0.7285;0.9102;
142.5000;0.7253;0.9009;
142.8000;0.7261;0.9056;
143.1000;0.7269;0.9125;
143.4000;0.7293;0.9311;
143.7000;0.7236;0.9148;
144.0000;0.7245;0.9195;
144.3000;0.7261;0.9357;
144.6000;0.7293;0.9404;
144.9000;0.7236;0.9265;
145.2000;0.7261;0.9288;
145.5000;0.7261;0.9311;
145.8000;0.7188;0.9125;
146.1000;0.7269;0.9334;
146.4000;0.7285;0.9357;
146.7000;0.7269;0.9241;
147.0000;0.7261;0.9172;
147.3000;0.7269;0.9148;
147.6000;0.7261;0.9148;
147.9000;0.7285;0.9195;
148.2000;0.7253;0.9148;
148.5000;0.7277;0.9265;
148.8000;0.7269;0.9265;
149.1000;0.7302;0.9265;
149.4000;0.7261;0.9125;
149.7000;0.7277;0.9148;
150.0000;0.7293;0.9218;
150.3000;0.7285;0.9218;
150.6000;0.7261;0.9148;
150.9000;0.7253;0.9056;
151.2000;0.7269;0.9079;
151.5000;0.7261;0.9056;
151.8000;0.7269;0.9172;
152.1000;0.7245;0.9148;
152.4000;0.7228;0.9079;
152.7000;0.7253;0.9265;
153.0000;0.7236;0.9218;
153.3000;0.7253;0.9148;
153.6000;0.7261;0.9218;
153.9000;0.7261;0.9218;
154.2000;0.7261;0.9241;
154.5000;0.7277;0.9311;
154.8000;0.7285;0.9265;
155.1000;0.7261;0.9102;
155.4000;0.7293;0.9009;
155.7000;0.7269;0.8963;
156.0000;0.7269;0.9148;
156.3000;0.7269;0.9195;
156.6000;0.7269;0.9241;
156.9000;0.7277;0.9334;
157.2000;0.7253;0.9311;
157.5000;0.7204;0.9218;
157.8000;0.7302;0.9311;
158.1000;0.7269;0.9195;
158.4000;0.7228;0.9148;
158.7000;0.7269;0.9265;
159.0000;0.7277;0.9334;
159.3000;0.7269;0.9218;
159.6000;0.7277;0.9218;
159.9000;0.7277;0.9218;
160.2000;0.7285;0.9288;
160.5000;0.7261;0.9241;
160.8000;0.7261;0.9288;
161.1000;0.7277;0.9288;
161.4000;0.7277;0.9288;
161.7000;0.7261;0.9218;
162.0000;0.7261;0.9241;
162.3000;0.7318;0.9381;
162.6000;0.7285;0.9241;
162.9000;0.7269;0.9172;
163.2000;0.7277;0.9102;
163.5000;0.7204;0.8986;
163.8000;0.7310;0.9172;
164.1000;0.7245;0.9079;
164.4000;0.7269;0.9195;
164.7000;0.7253;0.9125;
165.0000;0.7277;0.9172;
165.3000;0.7326;0.9265;
165.6000;0.7253;0.9079;
165.9000;0.7269;0.9125;
166.2000;0.7277;0.9195;
166.5000;0.7285;0.9125;
166.8000;0.7285;0.9102;
167.1000;0.7293;0.9241;
167.4000;0.7261;0.9218;
167.7000;0.7302;0.9381;
168.0000;0.7302;0.9334;
168.3000;0.7245;0.9195;
168.6000;0.7245;0.9195;
168.9000;0.7261;0.9265;
169.2000;0.7285;0.9218;
169.5000;0.7261;0.9265;
169.8000;0.7228;0.9218;
170.1000;0.7277;0.9265;
170.4000;0.7277;0.9288;
170.7000;0.7285;0.9195;
171.0000;0.7236;0.9079;
171.3000;0.7285;0.9148;
171.6000;0.7277;0.9125;
171.9000;0.7261;0.9125;
172.2000;0.7269;0.9311;
172.5000;0.7293;0.9311;
172.8000;0.7269;0.9357;
173.1000;0.7261;0.9311;
173.4000;0.7261;0.9357;
173.7000;0.7253;0.9288;
174.0000;0.7302;0.9427;
174.3000;0.7293;0.9334;
174.6000;0.7269;0.9218;
174.9000;0.7261;0.9148;
175.2000;0.7269;0.9265;
175.5000;0.7277;0.9311;
175.8000;0.7269;0.9334;
176.1000;0.7269;0.9334;
176.4000;0.7285;0.9334;
176.7000;0.7253;0.9148;
177.0000;0.7261;0.9079;
177.3000;0.7269;0.9125;
177.6000;0.7269;0.9079;
177.9000;0.7285;0.9148;
178.2000;0.7236;0.9102;
178.5000;0.7261;0.9172;
178.8000;0.7269;0.9288;
179.1000;0.7285;0.9334;
179.4000;0.7277;0.9311;
179.7000;0.7285;0.9357;
180.0000;0.7253;0.9218;
180.3000;0.7245;0.9172;
180.6000;0.7285;0.9288;
180.9000;0.7302;0.9357;
181.2000;0.7269;0.9334;
181.5000;0.7212;0.9148;
181.8000;0.7293;0.9311;
182.1000;0.7277;0.9311;
182.4000;0.7269;0.9311;
182.7000;0.7261;0.9357;
183.0000;0.7261;0.9288;
183.3000;0.7367;0.9636;
183.6000;0.7277;0.9427;
183.9000;0.7285;0.9450;
184.2000;0.7277;0.9450;
184.5000;0.7253;0.9288;
184.8000;0.7269;0.9381;
185.1000;0.7245;0.9288;
185.4000;0.7228;0.9218;
185.7000;0.7277;0.9311;
186.0000;0.7285;0.9334;
186.3000;0.7253;0.9404;
186.6000;0.7285;0.9427;
186.9000;0.7277;0.9404;
187.2000;0.7285;0.9311;
187.5000;0.7277;0.9334;
187.8000;0.7293;0.9427;
188.1000;0.7261;0.9427;
188.4000;0.7334;0.9659;
188.7000;0.7261;0.9427;
189.0000;0.7277;0.9311;
189.3000;0.7285;0.9427;
189.6000;0.7261;0.9404;
189.9000;0.7302;0.9427;
190.2000;0.7261;0.9357;
190.5000;0.7285;0.9404;
190.8000;0.7277;0.9427;
191.1000;0.7269;0.9357;
191.4000;0.7261;0.9334;
191.7000;0.7245;0.9241;
192.0000;0.7293;0.9357;
192.3000;0.7302;0.9450;
192.6000;0.7269;0.9404;
192.9000;0.7245;0.9265;
193.2000;0.7261;0.9334;
193.5000;0.7277;0.9404;
193.8000;0.7350;0.9566;
194.1000;0.7261;0.9427;
194.4000;0.7269;0.9381;
194.7000;0.7285;0.9404;
195.0000;0.7293;0.9357;
195.3000;0.7277;0.9241;
195.6000;0.7277;0.9148;
195.9000;0.7285;0.9218;
196.2000;0.7261;0.9148;
196.5000;0.7261;0.9102;
196.8000;0.7269;0.9125;
197.1000;0.7261;0.9102;
197.4000;0.7277;0.9148;
197.7000;0.7277;0.9241;
198.0000;0.7326;0.9427;
198.3000;0.7269;0.9218;
198.6000;0.7277;0.9241;
198.9000;0.7285;0.9288;
199.2000;0.7269;0.9195;
199.5000;0.7310;0.9404;
199.8000;0.7293;0.9288;
200.1000;0.7269;0.9172;
200.4000;0.7277;0.9172;
200.7000;0.7285;0.9265;
201.0000;0.7302;0.9334;
201.3000;0.7310;0.9427;
201.6000;0.7277;0.9334;
201.9000;0.7277;0.9311;
202.2000;0.7334;0.9404;
202.5000;0.7293;0.9311;
202.8000;0.7277;0.9288;
203.1000;0.7245;0.9265;
203.4000;0.7302;0.9334;
203.7000;0.7245;0.9195;
204.0000;0.7220;0.9172;
204.3000;0.7236;0.9148;
204.6000;0.7245;0.9218;
204.9000;0.7269;0.9265;
205.2000;0.7318;0.9427;
205.5000;0.7285;0.9427;
205.8000;0.7302;0.9473;
206.1000;0.7293;0.9497;
206.4000;0.7310;0.9543;
206.7000;0.7293;0.9497;
207.0000;0.7302;0.9566;
207.3000;0.7269;0.9473;
207.6000;0.7269;0.9450;
207.9000;0.7277;0.9427;
208.2000;0.7228;0.9241;
208.5000;0.7285;0.9288;
208.8000;0.7350;0.9404;
209.1000;0.7302;0.9288;
209.4000;0.7204;0.8963;
209.7000;0.7302;0.9148;
210.0000;0.7285;0.9056;
210.3000;0.7269;0.9079;
210.6000;0.7285;0.9056;
210.9000;0.7269;0.9056;
211.2000;0.7302;0.9102;
211.5000;0.7285;0.9079;
211.8000;0.7277;0.9032;
212.1000;0.7326;0.9288;
212.4000;0.7277;0.9241;
212.7000;0.7277;0.9148;
213.0000;0.7277;0.9079;
213.3000;0.7269;0.9056;
213.6000;0.7253;0.9009;
213.9000;0.7269;0.9032;
214.2000;0.7277;0.9056;
214.5000;0.7277;0.9079;
214.8000;0.7277;0.8986;
215.1000;0.7269;0.9032;
215.4000;0.7277;0.9056;
215.7000;0.7269;0.9009;
216.0000;0.7269;0.9009;
216.3000;0.7293;0.9056;
216.6000;0.7293;0.9056;
216.9000;0.7285;0.9056;
217.2000;0.7293;0.9079;
217.5000;0.7277;0.9079;
217.8000;0.7269;0.9079;
218.1000;0.7277;0.9079;
218.4000;0.7285;0.9125;
218.7000;0.7269;0.9102;
219.0000;0.7293;0.9125;
219.3000;0.7285;0.9148;
219.6000;0.7269;0.9079;
219.9000;0.7261;0.9032;
220.2000;0.7326;0.9241;
220.5000;0.7269;0.9079;
220.8000;0.7220;0.8870;
221.1000;0.7245;0.8893;
221.4000;0.7269;0.8870;
221.7000;0.7261;0.8986;
222.0000;0.7302;0.9102;
222.3000;0.7269;0.9102;
222.6000;0.7293;0.9195;
222.9000;0.7277;0.9241;
223.2000;0.7277;0.9218;
223.5000;0.7245;0.9172;
223.8000;0.7261;0.9079;
224.1000;0.7269;0.9056;
224.4000;0.7253;0.9032;
224.7000;0.7277;0.9102;
225.0000;0.7334;0.9311;
225.3000;0.7342;0.9288;
225.6000;0.7310;0.9218;
225.9000;0.7277;0.9125;
226.2000;0.7326;0.9148;
226.5000;0.7302;0.9148;
226.8000;0.7285;0.9218;
227.1000;0.7245;0.9334;
227.4000;0.7261;0.9381;
227.7000;0.7245;0.9241;
228.0000;0.7326;0.9520;
228.3000;0.7293;0.9404;
228.6000;0.7318;0.9450;
228.9000;0.7293;0.9427;
229.2000;0.7293;0.9450;
229.5000;0.7261;0.9311;
229.8000;0.7261;0.9218;
230.1000;0.7277;0.9218;
230.4000;0.7285;0.9265;
230.7000;0.7293;0.9148;
231.0000;0.7269;0.9195;
231.3000;0.7285;0.9218;
231.6000;0.7293;0.9172;
231.9000;0.7269;0.9241;
232.2000;0.7277;0.9218;
232.5000;0.7310;0.9265;
232.8000;0.7253;0.9125;
233.1000;0.7261;0.9102;
233.4000;0.7261;0.9032;
233.7000;0.7367;0.9357;
234.0000;0.7277;0.9148;
234.3000;0.7261;0.9125;
234.6000;0.7204;0.8893;
234.9000;0.7269;0.9102;
235.2000;0.7261;0.9079;
235.5000;0.7285;0.9195;
235.8000;0.7277;0.9148;
236.1000;0.7261;0.9172;
236.4000;0.7261;0.9148;
236.7000;0.7285;0.9172;
237.0000;0.7269;0.9125;
237.3000;0.7277;0.9102;
237.6000;0.7269;0.9009;
237.9000;0.7269;0.9032;
238.2000;0.7277;0.8963;
238.5000;0.7261;0.8939;
238.8000;0.7245;0.8893;
239.1000;0.7261;0.9009;
239.4000;0.7269;0.9079;
239.7000;0.7261;0.9148;
240.0000;0.7261;0.9102;
240.3000;0.7269;0.9032;
240.6000;0.7277;0.9009;
240.9000;0.7293;0.9195;
241.2000;0.7285;0.9125;
241.5000;0.7302;0.9172;
241.8000;0.7285;0.9241;
242.1000;0.7293;0.9241;
242.4000;0.7293;0.9148;
242.7000;0.7269;0.9056;
243.0000;0.7293;0.9079;
243.3000;0.7302;0.9195;
243.6000;0.7302;0.9311;
243.9000;0.7285;0.9265;
244.2000;0.7285;0.9288;
244.5000;0.7302;0.9265;
244.8000;0.7269;0.9241;
245.1000;0.7326;0.9381;
245.4000;0.7342;0.9381;
245.7000;0.7245;0.9056;
246.0000;0.7293;0.9172;
246.3000;0.7220;0.9079;
246.6000;0.7277;0.9148;
246.9000;0.7326;0.9241;
247.2000;0.7277;0.9056;
247.5000;0.7269;0.9172;
247.8000;0.7302;0.9125;
248.1000;0.7277;0.9125;
248.4000;0.7285;0.9125;
248.7000;0.7196;0.8893;
249.0000;0.7285;0.9148;
249.3000;0.7269;0.9079;
249.6000;0.7285;0.9056;
249.9000;0.7106;0.8638;
250.2000;0.7253;0.9056;
250.5000;0.7253;0.8916;
250.8000;0.7269;0.8939;
251.1000;0.7334;0.9172;
251.4000;0.7245;0.8939;
251.7000;0.7261;0.9009;
252.0000;0.7277;0.9125;
252.3000;0.7293;0.9125;
252.6000;0.7342;0.9334;
252.9000;0.7261;0.9125;
253.2000;0.7277;0.9148;
253.5000;0.7269;0.9079;
253.8000;0.7342;0.9218;
254.1000;0.7285;0.9079;
254.4000;0.7261;0.9079;
254.7000;0.7236;0.9056;
255.0000;0.7269;0.9172;
255.3000;0.7293;0.9195;
255.6000;0.7269;0.9218;
255.9000;0.7293;0.9288;
256.2000;0.7293;0.9172;
256.5000;0.7285;0.9218;
256.8000;0.7285;0.9172;
257.1000;0.7293;0.9125;
257.4000;0.7245;0.8986;
257.7000;0.7269;0.9079;
258.0000;0.7277;0.9009;
258.3000;0.7318;0.9172;
258.6000;0.7342;0.9288;
258.9000;0.7261;0.9125;
259.2000;0.7310;0.9288;
259.5000;0.7318;0.9265;
259.8000;0.7326;0.9404;
260.1000;0.7277;0.9357;
260.4000;0.7269;0.9334;
260.7000;0.7253;0.9311;
261.0000;0.7261;0.9334;
261.3000;0.7269;0.9357;
261.6000;0.7204;0.9172;
261.9000;0.7253;0.9311;
262.2000;0.7261;0.9218;
262.5000;0.7253;0.9265;
262.8000;0.7277;0.9218;
263.1000;0.7277;0.9311;
263.4000;0.7277;0.9334;
263.7000;0.7375;0.9613;
264.0000;0.7302;0.9404;
264.3000;0.7261;0.9334;
264.6000;0.7310;0.9381;
264.9000;0.7285;0.9195;
265.2000;0.7277;0.9125;
265.5000;0.7293;0.9195;
265.8000;0.7310;0.9265;
266.1000;0.7293;0.9195;
266.4000;0.7302;0.9148;
266.7000;0.7269;0.9032;
267.0000;0.7302;0.9056;
267.3000;0.7293;0.9125;
267.6000;0.7310;0.9218;
267.9000;0.7302;0.9265;
268.2000;0.7293;0.9381;
268.5000;0.7285;0.9311;
268.8000;0.7293;0.9195;
269.1000;0.7285;0.9218;
269.4000;0.7228;0.9032;
269.7000;0.7285;0.9172;
270.0000;0.7302;0.9218;
270.3000;0.7261;0.9102;
270.6000;0.7269;0.9125;
270.9000;0.7326;0.9241;
271.2000;0.7261;0.9125;
271.5000;0.7269;0.9032;
271.8000;0.7285;0.8963;
272.1000;0.7285;0.8939;
272.4000;0.7293;0.8986;
272.7000;0.7285;0.9032;
273.0000;0.7277;0.9032;
273.3000;0.7277;0.9148;
273.6000;0.7293;0.9218;
273.9000;0.7293;0.9172;
274.2000;0.7277;0.9172;
274.5000;0.7285;0.9241;
274.8000;0.7285;0.9241;
275.1000;0.7277;0.9241;
275.4000;0.7220;0.9102;
275.7000;0.7269;0.9125;
276.0000;0.7269;0.9102;
276.3000;0.7293;0.9265;
276.6000;0.7293;0.9172;
276.9000;0.7269;0.9125;
277.2000;0.7261;0.9172;
277.5000;0.7293;0.9265;
277.8000;0.7253;0.9172;
278.1000;0.7285;0.9241;
278.4000;0.7253;0.9148;
278.7000;0.7269;0.9079;
279.0000;0.7359;0.9265;
279.3000;0.7269;0.8986;
279.6000;0.7293;0.9079;
279.9000;0.7302;0.9079;
280.2000;0.7220;0.8870;
280.5000;0.7285;0.8963;
280.8000;0.7277;0.9056;
281.1000;0.7245;0.9125;
281.4000;0.7236;0.9102;
281.7000;0.7302;0.9265;
282.0000;0.7399;0.9473;
282.3000;0.7269;0.9172;
282.6000;0.7269;0.9195;
282.9000;0.7220;0.9102;
283.2000;0.7285;0.9218;
283.5000;0.7261;0.9218;
283.8000;0.7261;0.9195;
284.1000;0.7269;0.9218;
284.4000;0.7285;0.9218;
284.7000;0.7318;0.9311;
285.0000;0.7269;0.9148;
285.3000;0.7269;0.9218;
285.6000;0.7253;0.9172;
285.9000;0.7253;0.9148;
286.2000;0.7253;0.9195;
286.5000;0.7188;0.9032;
286.8000;0.7269;0.9172;
287.1000;0.7261;0.9148;
287.4000;0.7277;0.9241;
287.7000;0.7269;0.9241;
288.0000;0.7253;0.9241;
288.3000;0.7277;0.9334;
288.6000;0.7269;0.9334;
288.9000;0.7261;0.9288;
289.2000;0.7277;0.9241;
289.5000;0.7293;0.9218;
289.8000;0.7269;0.9218;
290.1000;0.7293;0.9172;
290.4000;0.7269;0.9102;
290.7000;0.7277;0.9195;
291.0000;0.7269;0.9125;
291.3000;0.7285;0.9148;
291.6000;0.7261;0.9195;
291.9000;0.7293;0.9195;
292.2000;0.7277;0.9172;
292.5000;0.7253;0.9056;
292.8000;0.7302;0.9148;
293.1000;0.7302;0.9265;
293.4000;0.7261;0.9172;
293.7000;0.7277;0.9265;
294.0000;0.7293;0.9288;
294.3000;0.7285;0.9288;
294.6000;0.7245;0.9241;
294.9000;0.7261;0.9079;
295.2000;0.7269;0.9125;
295.5000;0.7285;0.9218;
295.8000;0.7293;0.9241;
296.1000;0.7277;0.9148;
296.4000;0.7261;0.9172;
296.7000;0.7220;0.9218;
297.0000;0.7269;0.9357;
297.3000;0.7310;0.9427;
297.6000;0.7269;0.9218;
297.9000;0.7261;0.9195;
298.2000;0.7228;0.9241;
298.5000;0.7253;0.9334;
298.8000;0.7269;0.9357;
299.1000;0.7285;0.9381;
299.4000;0.7302;0.9450;
299.7000;0.7236;0.9334;
300.0000;0.7277;0.9334;
300.3000;0.7269;0.9218;
300.6000;0.7285;0.9265;
300.9000;0.7302;0.9241;
301.2000;0.7310;0.9241;
301.5000;0.7293;0.9334;
301.8000;0.7261;0.9311;
302.1000;0.7253;0.9241;
302.4000;0.7220;0.9195;
302.7000;0.7277;0.9334;
303.0000;0.7318;0.9265;
303.3000;0.7253;0.9148;
303.6000;0.7285;0.9311;
303.9000;0.7269;0.9241;
304.2000;0.7228;0.9241;
304.5000;0.7269;0.9381;
304.8000;0.7277;0.9311;
305.1000;0.7269;0.9334;
305.4000;0.7269;0.9404;
305.7000;0.7293;0.9381;
306.0000;0.7285;0.9334;
306.3000;0.7261;0.9334;
306.6000;0.7253;0.9311;
306.9000;0.7245;0.9311;
307.2000;0.7277;0.9334;
307.5000;0.7334;0.9404;
307.8000;0.7245;0.9195;
308.1000;0.7236;0.9241;
308.4000;0.7277;0.9265;
308.7000;0.7269;0.9311;
309.0000;0.7334;0.9566;
309.3000;0.7269;0.9450;
309.6000;0.7293;0.9543;
309.9000;0.7277;0.9497;
310.2000;0.7277;0.9450;
310.5000;0.7269;0.9427;
310.8000;0.7318;0.9450;
311.1000;0.7302;0.9357;
311.4000;0.7269;0.9311;
311.7000;0.7285;0.9311;
312.0000;0.7269;0.9241;
312.3000;0.7261;0.9241;
312.6000;0.7269;0.9148;
312.9000;0.7228;0.9079;
313.2000;0.7269;0.9334;
313.5000;0.7277;0.9218;
313.8000;0.7285;0.9195;
314.1000;0.7269;0.9195;
314.4000;0.7269;0.9172;
314.7000;0.7293;0.9195;
315.0000;0.7285;0.9241;
315.3000;0.7285;0.9288;
315.6000;0.7302;0.9334;
315.9000;0.7277;0.9172;
316.2000;0.7261;0.9009;
316.5000;0.7318;0.9172;
316.8000;0.7261;0.9125;
317.1000;0.7285;0.9172;
317.4000;0.7212;0.8963;
317.7000;0.7277;0.9056;
318.0000;0.7285;0.9079;
318.3000;0.7228;0.8893;
318.6000;0.7269;0.8986;
318.9000;0.7277;0.9056;
319.2000;0.7302;0.9195;
319.5000;0.7261;0.9102;
319.8000;0.7269;0.9102;
320.1000;0.7253;0.8986;
320.4000;0.7318;0.9172;
320.7000;0.7277;0.9056;
321.0000;0.7074;0.8614;
321.3000;0.7285;0.9079;
321.6000;0.7293;0.9172;
321.9000;0.7277;0.9102;
322.2000;0.7277;0.9172;
322.5000;0.7293;0.9195;
322.8000;0.7269;0.9125;
323.1000;0.7261;0.9148;
323.4000;0.7285;0.9148;
323.7000;0.7293;0.9125;
324.0000;0.7245;0.8986;
324.3000;0.7269;0.9079;
324.6000;0.7391;0.9450;
324.9000;0.7269;0.9148;
325.2000;0.7293;0.9172;
325.5000;0.7359;0.9450;
325.8000;0.7285;0.9195;
326.1000;0.7277;0.9172;
326.4000;0.7342;0.9381;
326.7000;0.7285;0.9241;
327.0000;0.7261;0.9195;
327.3000;0.7277;0.9288;
327.6000;0.7269;0.9265;
327.9000;0.7277;0.9288;
328.2000;0.7261;0.9172;
328.5000;0.7269;0.9009;
328.8000;0.7277;0.9032;
329.1000;0.7269;0.9125;
329.4000;0.7277;0.9218;
329.7000;0.7261;0.9288;
330.0000;0.7245;0.9218;
330.3000;0.7269;0.9218;
330.6000;0.7285;0.9218;
330.9000;0.7245;0.9172;
331.2000;0.7261;0.9195;
331.5000;0.7253;0.9125;
331.8000;0.7334;0.9218;
332.1000;0.7261;0.9102;
332.4000;0.7261;0.9125;
332.7000;0.7293;0.9241;
333.0000;0.7277;0.9148;
333.3000;0.7269;0.9125;
333.6000;0.7261;0.9195;
333.9000;0.7277;0.9079;
334.2000;0.7277;0.9148;
334.5000;0.7253;0.9102;
334.8000;0.7269;0.9056;
335.1000;0.7293;0.9172;
335.4000;0.7285;0.9265;
335.7000;0.7277;0.9218;
336.0000;0.7269;0.9172;
336.3000;0.7285;0.9241;
336.6000;0.7261;0.9172;
336.9000;0.7277;0.9241;
337.2000;0.7285;0.9195;
337.5000;0.7236;0.9125;
337.8000;0.7277;0.9195;
338.1000;0.7269;0.9172;
338.4000;0.7277;0.9195;
338.7000;0.7269;0.9148;
339.0000;0.7285;0.9218;
339.3000;0.7269;0.9195;
339.6000;0.7261;0.9265;
339.9000;0.7310;0.9497;
340.2000;0.7220;0.9357;
340.5000;0.7285;0.9520;
340.8000;0.7277;0.9450;
341.1000;0.7212;0.9334;
341.4000;0.7269;0.9497;
341.7000;0.7285;0.9497;
342.0000;0.7318;0.9473;
342.3000;0.7245;0.9265;
342.6000;0.7261;0.9265;
342.9000;0.7277;0.9357;
343.2000;0.7261;0.9311;
343.5000;0.7269;0.9357;
343.8000;0.7253;0.9311;
344.1000;0.7171;0.9056;
344.4000;0.7245;0.9265;
344.7000;0.7277;0.9357;
345.0000;0.7350;0.9543;
345.3000;0.7285;0.9427;
345.6000;0.7212;0.9288;
345.9000;0.7204;0.9265;
346.2000;0.7269;0.9311;
346.5000;0.7432;0.9659;
346.8000;0.7261;0.9311;
347.1000;0.7293;0.9427;
347.4000;0.7277;0.9334;
347.7000;0.7261;0.9288;
348.0000;0.7212;0.9102;
348.3000;0.7285;0.9334;
348.6000;0.7253;0.9195;
348.9000;0.7310;0.9288;
349.2000;0.7285;0.9218;
349.5000;0.7277;0.9288;
349.8000;0.7334;0.9404;
350.1000;0.7253;0.9241;
350.4000;0.7277;0.9288;
350.7000;0.7261;0.9288;
351.0000;0.7277;0.9288;
351.3000;0.7253;0.9241;
351.6000;0.7269;0.9288;
351.9000;0.7261;0.9311;
352.2000;0.7269;0.9288;
352.5000;0.7269;0.9148;
352.8000;0.7253;0.9172;
353.1000;0.7277;0.9218;
353.4000;0.7269;0.9172;
353.7000;0.7261;0.9079;
354.0000;0.7261;0.9032;
354.3000;0.7253;0.9148;
354.6000;0.7285;0.9195;
354.9000;0.7277;0.9172;
355.2000;0.7269;0.9172;
355.5000;0.7269;0.9079;
355.8000;0.7277;0.9102;
356.1000;0.7269;0.9148;
356.4000;0.7253;0.9079;
356.7000;0.7293;0.9195;
357.0000;0.7245;0.9102;
357.3000;0.7277;0.9148;
357.6000;0.7269;0.9056;
357.9000;0.7261;0.9009;
358.2000;0.7277;0.8939;
358.5000;0.7269;0.8939;
358.8000;0.7277;0.8939;
359.1000;0.7269;0.8963;
359.4000;0.7293;0.9079;
359.7000;0.7269;0.9079;
360.0000;0.7285;0.9009;
360.3000;0.7293;0.8939;
360.6000;0.7277;0.8939;
360.9000;0.7310;0.8939;
361.2000;0.7277;0.8963;
361.5000;0.7261;0.8893;
361.8000;0.7277;0.8963;
362.1000;0.7285;0.8963;
362.4000;0.7293;0.8963;
362.7000;0.7245;0.8893;
363.0000;0.7285;0.8963;
363.3000;0.7302;0.9056;
363.6000;0.7269;0.8916;
363.9000;0.7310;0.8986;
364.2000;0.7277;0.8893;
364.5000;0.7277;0.8870;
364.8000;0.7269;0.8916;
365.1000;0.7236;0.8893;
365.4000;0.7253;0.9009;
365.7000;0.7253;0.8847;
366.0000;0.7261;0.8870;
366.3000;0.7253;0.8823;
366.6000;0.7253;0.8823;
366.9000;0.7269;0.8823;
367.2000;0.7269;0.8847;
367.5000;0.7277;0.8823;
367.8000;0.7269;0.8893;
368.1000;0.7261;0.8893;
368.4000;0.7269;0.8939;
368.7000;0.7318;0.8963;
369.0000;0.7277;0.8939;
369.3000;0.7253;0.8986;
369.6000;0.7261;0.9056;
369.9000;0.7253;0.8939;
370.2000;0.7261;0.9032;
370.5000;0.7261;0.9102;
370.8000;0.7269;0.9009;
371.1000;0.7285;0.8963;
371.4000;0.7302;0.8963;
371.7000;0.7285;0.8986;
372.0000;0.7302;0.8963;
372.3000;0.7277;0.8916;
372.6000;0.7269;0.8870;
372.9000;0.7245;0.8870;
373.2000;0.7261;0.8939;
373.5000;0.7342;0.9172;
373.8000;0.7342;0.9172;
374.1000;0.7261;0.9079;
374.4000;0.7261;0.9125;
374.7000;0.7261;0.9079;
375.0000;0.7269;0.9102;
375.3000;0.7302;0.9241;
375.6000;0.7269;0.9172;
375.9000;0.7228;0.9102;
376.2000;0.7302;0.9218;
376.5000;0.7253;0.9172;
376.8000;0.7269;0.9218;
377.1000;0.7285;0.9265;
377.4000;0.7253;0.9265;
377.7000;0.7269;0.9195;
378.0000;0.7261;0.9125;
378.3000;0.7269;0.9079;
378.6000;0.7269;0.9079;
378.9000;0.7253;0.9032;
379.2000;0.7245;0.9032;
379.5000;0.7236;0.9056;
379.8000;0.7261;0.9148;
380.1000;0.7236;0.9056;
380.4000;0.7245;0.9056;
380.7000;0.7236;0.8963;
381.0000;0.7261;0.9009;
381.3000;0.7269;0.9102;
381.6000;0.7261;0.9056;
381.9000;0.7245;0.9102;
382.2000;0.7269;0.9195;
382.5000;0.7269;0.9172;
382.8000;0.7277;0.9218;
383.1000;0.7269;0.9148;
383.4000;0.7261;0.9148;
383.7000;0.7277;0.9172;
384.0000;0.7236;0.9102;
384.3000;0.7236;0.9218;
384.6000;0.7253;0.9265;
384.9000;0.7261;0.9218;
385.2000;0.7293;0.9241;
385.5000;0.7261;0.9125;
385.8000;0.7253;0.9148;
386.1000;0.7285;0.9218;
386.4000;0.7269;0.9241;
386.7000;0.7269;0.9218;
387.0000;0.7261;0.9241;
387.3000;0.7269;0.9241;
387.6000;0.7285;0.9218;
387.9000;0.7285;0.9125;
388.2000;0.7269;0.9102;
388.5000;0.7293;0.9195;
388.8000;0.7253;0.8986;
389.1000;0.7269;0.8916;
389.4000;0.7277;0.9009;
389.7000;0.7269;0.8963;
390.0000;0.7277;0.9056;
390.3000;0.7293;0.9102;
390.6000;0.7253;0.9079;
390.9000;0.7261;0.9102;
391.2000;0.7269;0.9079;
391.5000;0.7269;0.9079;
391.8000;0.7310;0.9125;
392.1000;0.7277;0.9079;
392.4000;0.7285;0.9079;
392.7000;0.7277;0.9056;
393.0000;0.7269;0.9009;
393.3000;0.7253;0.9009;
393.6000;0.7261;0.9009;
393.9000;0.7269;0.9032;
394.2000;0.7285;0.9056;
394.5000;0.7326;0.9079;
394.8000;0.7277;0.8963;
395.1000;0.7261;0.8939;
395.4000;0.7285;0.8963;
395.7000;0.7277;0.8870;
396.0000;0.7285;0.9009;
396.3000;0.7350;0.9311;
396.6000;0.7269;0.9125;
396.9000;0.7228;0.8986;
397.2000;0.7253;0.9102;
397.5000;0.7269;0.9079;
397.8000;0.7285;0.9056;
398.1000;0.7285;0.9079;
398.4000;0.7261;0.9056;
398.7000;0.7293;0.9148;
399.0000;0.7302;0.9148;
399.3000;0.7326;0.9148;
399.6000;0.7261;0.9009;
399.9000;0.7245;0.9032;
400.2000;0.7269;0.9079;
400.5000;0.7277;0.9009;
400.8000;0.7261;0.8986;
401.1000;0.7253;0.9009;
401.4000;0.7261;0.9079;
401.7000;0.7261;0.9125;
402.0000;0.7236;0.9079;
402.3000;0.7253;0.9125;
402.6000;0.7253;0.9195;
402.9000;0.7269;0.9172;
403.2000;0.7277;0.9218;
403.5000;0.7261;0.9218;
403.8000;0.7245;0.9195;
404.1000;0.7261;0.9195;
404.4000;0.7277;0.9241;
404.7000;0.7245;0.9195;
405.0000;0.7253;0.9172;
405.3000;0.7261;0.9195;
405.6000;0.7269;0.9195;
405.9000;0.7253;0.9172;
406.2000;0.7277;0.9218;
406.5000;0.7245;0.9148;
406.8000;0.7228;0.9102;
407.1000;0.7310;0.9265;
407.4000;0.7261;0.9241;
407.7000;0.7220;0.9195;
408.0000;0.7261;0.9241;
408.3000;0.7277;0.9195;
408.6000;0.7253;0.8986;
408.9000;0.7261;0.8939;
409.2000;0.7261;0.8963;
409.5000;0.7253;0.8939;
409.8000;0.7253;0.8986;
410.1000;0.7253;0.9032;
410.4000;0.7261;0.9079;
410.7000;0.7285;0.9056;
411.0000;0.7261;0.8986;
411.3000;0.7253;0.9079;
411.6000;0.7253;0.9056;
411.9000;0.7261;0.9172;
412.2000;0.7432;0.9566;
412.5000;0.7253;0.9125;
412.8000;0.7212;0.8870;
413.1000;0.7334;0.9218;
413.4000;0.7277;0.9125;
413.7000;0.7293;0.9148;
414.0000;0.7179;0.8870;
414.3000;0.7188;0.8963;
414.6000;0.7261;0.9172;
414.9000;0.7245;0.9148;
415.2000;0.7236;0.9032;
415.5000;0.7342;0.9357;
415.8000;0.7236;0.9148;
416.1000;0.7253;0.9172;
416.4000;0.7236;0.9125;
416.7000;0.7228;0.9009;
417.0000;0.7253;0.9056;
417.3000;0.7253;0.9148;
417.6000;0.7285;0.9125;
417.9000;0.7293;0.9148;
418.2000;0.7261;0.9079;
418.5000;0.7277;0.9102;
418.8000;0.7285;0.9148;
419.1000;0.7236;0.9125;
419.4000;0.7285;0.9218;
419.7000;0.7285;0.9241;
420.0000;0.7261;0.9172;
420.3000;0.7196;0.8893;
420.6000;0.7261;0.9102;
420.9000;0.7261;0.9079;
421.2000;0.7277;0.9148;
421.5000;0.7179;0.8870;
421.8000;0.7277;0.9079;
422.1000;0.7285;0.8986;
422.4000;0.7359;0.9172;
422.7000;0.7245;0.8916;
423.0000;0.7236;0.8986;
423.3000;0.7253;0.9079;
423.6000;0.7269;0.9195;
423.9000;0.7253;0.9218;
424.2000;0.7261;0.9172;
424.5000;0.7253;0.9079;
424.8000;0.7236;0.8916;
425.1000;0.7253;0.9032;
425.4000;0.7261;0.9009;
425.7000;0.7253;0.9056;
426.0000;0.7253;0.9079;
426.3000;0.7253;0.8963;
426.6000;0.7269;0.9009;
426.9000;0.7253;0.9009;
427.2000;0.7277;0.9102;
427.5000;0.7277;0.9102;
427.8000;0.7253;0.9056;
428.1000;0.7245;0.9079;
428.4000;0.7269;0.9102;
428.7000;0.7261;0.9056;
429.0000;0.7245;0.8963;
429.3000;0.7245;0.9056;
429.6000;0.7269;0.9148;
429.9000;0.7269;0.9102;
430.2000;0.7204;0.8986;
430.5000;0.7269;0.9218;
430.8000;0.7253;0.9172;
431.1000;0.7277;0.9172;
431.4000;0.7261;0.9218;
431.7000;0.7302;0.9218;
432.0000;0.7253;0.9195;
432.3000;0.7277;0.9334;
432.6000;0.7302;0.9381;
432.9000;0.7236;0.9241;
433.2000;0.7293;0.9404;
433.5000;0.7261;0.9311;
433.8000;0.7269;0.9288;
434.1000;0.7302;0.9357;
434.4000;0.7261;0.9218;
434.7000;0.7261;0.9125;
435.0000;0.7236;0.9009;
435.3000;0.7293;0.9172;
435.6000;0.7236;0.9079;
435.9000;0.7261;0.9172;
436.2000;0.7367;0.9381;
436.5000;0.7236;0.9195;
436.8000;0.7261;0.9172;
437.1000;0.7261;0.9102;
437.4000;0.7326;0.9288;
437.7000;0.7285;0.9195;
438.0000;0.7220;0.9079;
438.3000;0.7245;0.9195;
438.6000;0.7302;0.9172;
438.9000;0.7269;0.9125;
439.2000;0.7293;0.9079;
439.5000;0.7228;0.8963;
439.8000;0.7261;0.9125;
440.1000;0.7261;0.9195;
440.4000;0.7293;0.9265;
440.7000;0.7236;0.9125;
441.0000;0.7261;0.9218;
441.3000;0.7228;0.9148;
441.6000;0.7375;0.9473;
441.9000;0.7253;0.9241;
442.2000;0.7269;0.9172;
442.5000;0.7261;0.9148;
442.8000;0.7261;0.9102;
443.1000;0.7228;0.8986;
443.4000;0.7228;0.9172;
443.7000;0.7253;0.9311;
444.0000;0.7277;0.9404;
444.3000;0.7277;0.9404;
444.6000;0.7269;0.9404;
444.9000;0.7261;0.9334;
445.2000;0.7277;0.9265;
445.5000;0.7236;0.9172;
445.8000;0.7261;0.9218;
446.1000;0.7253;0.9218;
446.4000;0.7285;0.9265;
446.7000;0.7277;0.9195;
447.0000;0.7269;0.9102;
447.3000;0.7261;0.9125;
447.6000;0.7285;0.9148;
447.9000;0.7261;0.9079;
448.2000;0.7245;0.9009;
448.5000;0.7261;0.9195;
448.8000;0.7253;0.9172;
449.1000;0.7253;0.9195;
449.4000;0.7261;0.9288;
449.7000;0.7245;0.9241;
450.0000;0.7253;0.9241;
450.3000;0.7261;0.9195;
450.6000;0.7245;0.9172;
450.9000;0.7245;0.9218;
451.2000;0.7253;0.9265;
451.5000;0.7245;0.9241;
451.8000;0.7375;0.9613;
452.1000;0.7236;0.9288;
452.4000;0.7245;0.9265;
452.7000;0.7253;0.9288;
453.0000;0.7253;0.9334;
453.3000;0.7236;0.9288;
453.6000;0.7236;0.9241;
453.9000;0.7228;0.9195;
454.2000;0.7253;0.9288;
454.5000;0.7261;0.9218;
454.8000;0.7269;0.9218;
455.1000;0.7334;0.9381;
455.4000;0.7302;0.9381;
455.7000;0.7269;0.9357;
456.0000;0.7277;0.9381;
456.3000;0.7253;0.9218;
456.6000;0.7285;0.9265;
456.9000;0.7261;0.9148;
457.2000;0.7310;0.9195;
457.5000;0.7261;0.9032;
457.8000;0.7269;0.8939;
458.1000;0.7236;0.8893;
458.4000;0.7245;0.8939;
458.7000;0.7236;0.9009;
459.0000;0.7261;0.9032;
459.3000;0.7310;0.9218;
459.6000;0.7350;0.9381;
459.9000;0.7253;0.9125;
460.2000;0.7269;0.9172;
460.5000;0.7261;0.9102;
460.8000;0.7269;0.9079;
461.1000;0.7261;0.9079;
461.4000;0.7220;0.8963;
461.7000;0.7253;0.9032;
462.0000;0.7236;0.9148;
462.3000;0.7253;0.9172;
462.6000;0.7269;0.9148;
462.9000;0.7310;0.9241;
463.2000;0.7253;0.9079;
463.5000;0.7220;0.8939;
463.8000;0.7228;0.8893;
464.1000;0.7245;0.8870;
464.4000;0.7245;0.8939;
464.7000;0.7277;0.8963;
465.0000;0.7261;0.8986;
465.3000;0.7236;0.8963;
465.6000;0.7342;0.9172;
465.9000;0.7269;0.9056;
466.2000;0.7253;0.9056;
466.5000;0.7220;0.8986;
466.8000;0.7269;0.9032;
467.1000;0.7236;0.9009;
467.4000;0.7245;0.8939;
467.7000;0.7236;0.8870;
468.0000;0.7269;0.8963;
468.3000;0.7261;0.9009;
468.6000;0.7253;0.8893;
468.9000;0.7171;0.8707;
469.2000;0.7261;0.8939;
469.5000;0.7261;0.8986;
469.8000;0.7236;0.8870;
470.1000;0.7269;0.8963;
470.4000;0.7253;0.9009;
470.7000;0.7277;0.9056;
471.0000;0.7269;0.9056;
471.3000;0.7261;0.9032;
471.6000;0.7261;0.9102;
471.9000;0.7261;0.9079;
472.2000;0.7245;0.9172;
472.5000;0.7236;0.9218;
472.8000;0.7245;0.9241;
473.1000;0.7245;0.9241;
473.4000;0.7253;0.9148;
473.7000;0.7245;0.9079;
474.0000;0.7285;0.9032;
474.3000;0.7253;0.9079;
474.6000;0.7302;0.9172;
474.9000;0.7253;0.9032;
475.2000;0.7236;0.9009;
475.5000;0.7253;0.9079;
475.8000;0.7253;0.9079;
476.1000;0.7269;0.9125;
476.4000;0.7228;0.8963;
476.7000;0.7236;0.8939;
477.0000;0.7236;0.9009;
477.3000;0.7245;0.8986;
477.6000;0.7261;0.9125;
477.9000;0.7147;0.8893;
478.2000;0.7261;0.9195;
478.5000;0.7245;0.9195;
478.8000;0.7261;0.9125;
479.1000;0.7310;0.9195;
479.4000;0.7245;0.9148;
479.7000;0.7228;0.9148;
480.0000;0.7269;0.9241;
480.3000;0.7261;0.9195;
480.6000;0.7188;0.8986;
480.9000;0.7261;0.9148;
481.2000;0.7277;0.9241;
481.5000;0.7212;0.9172;
481.8000;0.7253;0.9241;
482.1000;0.7261;0.9195;
482.4000;0.7269;0.9265;
482.7000;0.7253;0.9218;
483.0000;0.7245;0.9241;
483.3000;0.7236;0.9241;
483.6000;0.7261;0.9288;
483.9000;0.7261;0.9288;
484.2000;0.7228;0.9172;
484.5000;0.7253;0.9172;
484.8000;0.7261;0.9172;
485.1000;0.7245;0.9148;
485.4000;0.7269;0.9079;
485.7000;0.7261;0.9009;
486.0000;0.7269;0.9079;
486.3000;0.7261;0.9125;
486.6000;0.7236;0.9148;
486.9000;0.7253;0.9125;
487.2000;0.7228;0.9056;
487.5000;0.7269;0.9218;
487.8000;0.7261;0.9125;
488.1000;0.7253;0.9032;
488.4000;0.7253;0.9032;
488.7000;0.7261;0.9102;
489.0000;0.7253;0.9148;
489.3000;0.7228;0.9148;
489.6000;0.7245;0.9148;
489.9000;0.7269;0.9241;
490.2000;0.7253;0.9148;
490.5000;0.7269;0.9148;
490.8000;0.7253;0.9172;
491.1000;0.7253;0.9148;
491.4000;0.7318;0.9311;
491.7000;0.7236;0.9148;
492.0000;0.7261;0.9148;
492.3000;0.7261;0.9056;
492.6000;0.7269;0.9125;
492.9000;0.7285;0.9218;
493.2000;0.7253;0.9195;
493.5000;0.7261;0.9195;
493.8000;0.7253;0.9241;
494.1000;0.7261;0.9311;
494.4000;0.7253;0.9241;
494.7000;0.7245;0.9218;
495.0000;0.7277;0.9195;
495.3000;0.7269;0.9102;
495.6000;0.7253;0.9056;
495.9000;0.7269;0.9056;
496.2000;0.7261;0.9056;
496.5000;0.7261;0.9148;
496.8000;0.7269;0.9172;
497.1000;0.7261;0.9148;
497.4000;0.7261;0.9125;
497.7000;0.7228;0.9032;
498.0000;0.7220;0.8986;
498.3000;0.7236;0.9148;
498.6000;0.7261;0.9172;
498.9000;0.7245;0.9241;
499.2000;0.7253;0.9218;
499.5000;0.7261;0.9218;
499.8000;0.7285;0.9241;
500.1000;0.7269;0.9288;
500.4000;0.7261;0.9288;
500.7000;0.7253;0.9195;
501.0000;0.7228;0.9195;
501.3000;0.7253;0.9241;
501.6000;0.7269;0.9218;
501.9000;0.7277;0.9195;
502.2000;0.7253;0.9148;
502.5000;0.7261;0.9218;
502.8000;0.7196;0.9079;
503.1000;0.7204;0.8986;
503.4000;0.7220;0.8986;
503.7000;0.7253;0.9079;
504.0000;0.7269;0.9195;
504.3000;0.7261;0.9125;
504.6000;0.7261;0.9172;
504.9000;0.7236;0.9241;
505.2000;0.7277;0.9288;
505.5000;0.7253;0.9241;
505.8000;0.7310;0.9311;
506.1000;0.7253;0.9195;
506.4000;0.7253;0.9241;
506.7000;0.7277;0.9218;
507.0000;0.7253;0.9172;
507.3000;0.7277;0.9265;
507.6000;0.7269;0.9311;
507.9000;0.7253;0.9195;
508.2000;0.7228;0.9172;
508.5000;0.7253;0.9125;
508.8000;0.7261;0.9056;
509.1000;0.7253;0.9079;
509.4000;0.7236;0.9056;
509.7000;0.7245;0.9079;
510.0000;0.7261;0.9172;
510.3000;0.7277;0.9125;
510.6000;0.7269;0.9148;
510.9000;0.7269;0.9125;
511.2000;0.7285;0.9288;
511.5000;0.7253;0.9148;
511.8000;0.7302;0.9265;
512.1000;0.7261;0.9102;
512.4000;0.7261;0.9056;
512.7000;0.7253;0.9032;
513.0000;0.7261;0.8939;
513.3000;0.7302;0.9009;
513.6000;0.7318;0.8963;
513.9000;0.7261;0.8754;
514.2000;0.7253;0.8707;
514.5000;0.7253;0.8823;
514.8000;0.7269;0.8986;
515.1000;0.7261;0.8986;
515.4000;0.7269;0.8986;
515.7000;0.7253;0.8916;
516.0000;0.7269;0.8916;
516.3000;0.7253;0.8916;
516.6000;0.7245;0.8986;
516.9000;0.7277;0.9009;
517.2000;0.7285;0.9056;
517.5000;0.7269;0.9056;
517.8000;0.7277;0.8963;
518.1000;0.7253;0.8963;
518.4000;0.7293;0.9009;
518.7000;0.7253;0.8870;
519.0000;0.7253;0.9009;
519.3000;0.7269;0.9102;
519.6000;0.7261;0.9125;
519.9000;0.7245;0.9148;
520.2000;0.7253;0.9218;
520.5000;0.7261;0.9241;
520.8000;0.7261;0.9265;
521.1000;0.7253;0.9241;
521.4000;0.7236;0.9265;
521.7000;0.7228;0.9195;
522.0000;0.7212;0.9311;
522.3000;0.7228;0.9334;
522.6000;0.7269;0.9357;
522.9000;0.7245;0.9357;
523.2000;0.7253;0.9334;
523.5000;0.7245;0.9241;
523.8000;0.7188;0.9079;
524.1000;0.7228;0.9125;
524.4000;0.7253;0.9218;
524.7000;0.7269;0.9172;
525.0000;0.7269;0.9148;
525.3000;0.7236;0.9079;
525.6000;0.7245;0.9148;
525.9000;0.7285;0.9241;
526.2000;0.7236;0.9079;
526.5000;0.7269;0.9125;
526.8000;0.7269;0.9102;
527.1000;0.7196;0.8963;
527.4000;0.7245;0.9056;
527.7000;0.7318;0.9218;
528.0000;0.7253;0.8986;
528.3000;0.7277;0.9032;
528.6000;0.7236;0.8986;
528.9000;0.7196;0.8870;
529.2000;0.7204;0.8963;
529.5000;0.7310;0.9218;
529.8000;0.7269;0.9079;
530.1000;0.7236;0.9009;
530.4000;0.7245;0.9079;
530.7000;0.7253;0.9195;
531.0000;0.7261;0.9218;
531.3000;0.7310;0.9311;
531.6000;0.7236;0.9241;
531.9000;0.7228;0.9288;
532.2000;0.7277;0.9357;
532.5000;0.7245;0.9195;
532.8000;0.7236;0.9102;
533.1000;0.7212;0.9125;
533.4000;0.7220;0.9148;
533.7000;0.7269;0.9311;
534.0000;0.7302;0.9427;
534.3000;0.7236;0.9218;
534.6000;0.7236;0.9125;
534.9000;0.7228;0.9079;
535.2000;0.7220;0.8963;
535.5000;0.7253;0.9009;
535.8000;0.7261;0.9032;
536.1000;0.7253;0.9009;
536.4000;0.7245;0.9032;
536.7000;0.7228;0.9032;
537.0000;0.7228;0.9102;
537.3000;0.7253;0.9148;
537.6000;0.7269;0.9195;
537.9000;0.7261;0.9218;
538.2000;0.7245;0.9195;
538.5000;0.7253;0.9172;
538.8000;0.7245;0.9218;
539.1000;0.7253;0.9288;
539.4000;0.7236;0.9218;
539.7000;0.7253;0.9218;
540.0000;0.7228;0.9148;
540.3000;0.7245;0.9172;
540.6000;0.7228;0.9125;
540.9000;0.7277;0.9357;
541.2000;0.7253;0.9334;
541.5000;0.7236;0.9265;
541.8000;0.7245;0.9265;
542.1000;0.7261;0.9218;
542.4000;0.7261;0.9218;
542.7000;0.7269;0.9288;
543.0000;0.7277;0.9241;
543.3000;0.7269;0.9172;
543.6000;0.7253;0.9172;
543.9000;0.7253;0.9148;
544.2000;0.7253;0.9102;
544.5000;0.7228;0.9079;
544.8000;0.7245;0.9148;
545.1000;0.7228;0.9148;
545.4000;0.7245;0.9218;
545.7000;0.7196;0.9056;
546.0000;0.7212;0.9079;
546.3000;0.7196;0.9032;
546.6000;0.7277;0.9218;
546.9000;0.7261;0.9125;
547.2000;0.7253;0.9148;
547.5000;0.7253;0.9218;
547.8000;0.7253;0.9357;
548.1000;0.7245;0.9241;
548.4000;0.7261;0.9265;
548.7000;0.7212;0.9102;
549.0000;0.7261;0.9265;
549.3000;0.7261;0.9265;
549.6000;0.7245;0.9334;
549.9000;0.7367;0.9590;
550.2000;0.7302;0.9473;
550.5000;0.7236;0.9218;
550.8000;0.7253;0.9288;
551.1000;0.7245;0.9288;
551.4000;0.7261;0.9288;
551.7000;0.7228;0.9195;
552.0000;0.7236;0.9148;
552.3000;0.7228;0.9079;
552.6000;0.7212;0.8986;
552.9000;0.7334;0.9195;
553.2000;0.7245;0.9032;
553.5000;0.7245;0.9009;
553.8000;0.7220;0.8963;
554.1000;0.7293;0.9148;
554.4000;0.7277;0.8963;
554.7000;0.7261;0.8870;
555.0000;0.7277;0.8986;
555.3000;0.7261;0.8986;
555.6000;0.7220;0.8916;
555.9000;0.7245;0.8986;
556.2000;0.7212;0.8963;
556.5000;0.7285;0.9125;
556.8000;0.7163;0.8963;
557.1000;0.7253;0.9079;
557.4000;0.7236;0.8963;
557.7000;0.7261;0.8986;
558.0000;0.7236;0.9009;
558.3000;0.7245;0.9148;
558.6000;0.7245;0.9125;
558.9000;0.7236;0.9079;
559.2000;0.7188;0.8963;
559.5000;0.7196;0.8939;
559.8000;0.7245;0.9102;
560.1000;0.7253;0.9195;
560.4000;0.7236;0.9148;
560.7000;0.7253;0.9079;
561.0000;0.7245;0.9148;
561.3000;0.7236;0.9218;
561.6000;0.7228;0.9241;
561.9000;0.7236;0.9148;
562.2000;0.7245;0.9172;
562.5000;0.7261;0.9218;
562.8000;0.7269;0.9195;
563.1000;0.7261;0.9125;
563.4000;0.7253;0.9172;
563.7000;0.7245;0.9172;
564.0000;0.7261;0.9241;
564.3000;0.7253;0.9172;
564.6000;0.7261;0.9148;
564.9000;0.7236;0.9079;
565.2000;0.7245;0.9148;
565.5000;0.7236;0.9218;
565.8000;0.7261;0.9148;
566.1000;0.7236;0.9079;
566.4000;0.7277;0.9172;
566.7000;0.7236;0.9102;
567.0000;0.7253;0.9079;
567.3000;0.7253;0.9102;
567.6000;0.7228;0.9032;
567.9000;0.7253;0.9079;
568.2000;0.7245;0.9056;
568.5000;0.7245;0.8916;
568.8000;0.7245;0.8963;
569.1000;0.7220;0.8986;
569.4000;0.7261;0.8939;
569.7000;0.7236;0.8870;
570.0000;0.7253;0.8939;
570.3000;0.7228;0.8847;
570.6000;0.7269;0.8963;
570.9000;0.7236;0.8963;
571.2000;0.7220;0.9032;
571.5000;0.7220;0.9079;
571.8000;0.7253;0.9172;
572.1000;0.7277;0.9195;
572.4000;0.7253;0.9218;
572.7000;0.7245;0.9125;
573.0000;0.7318;0.9218;
573.3000;0.7293;0.9148;
573.6000;0.7228;0.9079;
573.9000;0.7228;0.9148;
574.2000;0.7253;0.9195;
574.5000;0.7245;0.9125;
574.8000;0.7261;0.9125;
575.1000;0.7236;0.9079;
575.4000;0.7253;0.9079;
575.7000;0.7261;0.9102;
576.0000;0.7245;0.9125;
576.3000;0.7261;0.9172;
576.6000;0.7253;0.9218;
576.9000;0.7236;0.9288;
577.2000;0.7220;0.9218;
577.5000;0.7269;0.9218;
577.8000;0.7236;0.9218;
578.1000;0.7269;0.9241;
578.4000;0.7253;0.9172;
578.7000;0.7269;0.9241;
579.0000;0.7253;0.9288;
579.3000;0.7253;0.9241;
579.6000;0.7204;0.9032;
579.9000;0.7245;0.9218;
580.2000;0.7196;0.9148;
580.5000;0.7228;0.9218;
580.8000;0.7188;0.9172;
581.1000;0.7228;0.9265;
581.4000;0.7293;0.9450;
581.7000;0.7220;0.9288;
582.0000;0.7245;0.9311;
582.3000;0.7236;0.9218;
582.6000;0.7228;0.9125;
582.9000;0.7253;0.9125;
583.2000;0.7310;0.9195;
583.5000;0.7261;0.9102;
583.8000;0.7236;0.9148;
584.1000;0.7277;0.9241;
584.4000;0.7253;0.9218;
584.7000;0.7261;0.9311;
585.0000;0.7261;0.9265;
585.3000;0.7253;0.9288;
585.6000;0.7253;0.9265;
585.9000;0.7253;0.9265;
586.2000;0.7253;0.9241;
586.5000;0.7310;0.9404;
586.8000;0.7253;0.9241;
587.1000;0.7236;0.9148;
587.4000;0.7253;0.9148;
587.7000;0.7261;0.9125;
588.0000;0.7245;0.9218;
588.3000;0.7269;0.9241;
588.6000;0.7253;0.9288;
588.9000;0.7253;0.9241;
589.2000;0.7253;0.9288;
589.5000;0.7261;0.9241;
589.8000;0.7253;0.9148;
590.1000;0.7220;0.9056;
590.4000;0.7245;0.9125;
590.7000;0.7236;0.9032;
591.0000;0.7253;0.8939;
591.3000;0.7253;0.8963;
591.6000;0.7236;0.8916;
591.9000;0.7245;0.8823;
592.2000;0.7253;0.8777;
592.5000;0.7245;0.8777;
592.8000;0.7196;0.8754;
593.1000;0.7253;0.8893;
593.4000;0.7269;0.8963;
593.7000;0.7269;0.9009;
594.0000;0.7253;0.8963;
594.3000;0.7196;0.8963;
594.6000;0.7245;0.9079;
594.9000;0.7261;0.9125;
595.2000;0.7245;0.9056;
595.5000;0.7253;0.9032;
595.8000;0.7245;0.8986;
596.1000;0.7253;0.9056;
596.4000;0.7236;0.8986;
596.7000;0.7236;0.8963;
597.0000;0.7245;0.9056;
597.3000;0.7204;0.9056;
597.6000;0.7253;0.9102;
597.9000;0.7269;0.9102;
598.2000;0.7236;0.9056;
598.5000;0.7245;0.9102;
598.8000;0.7269;0.9195;
599.1000;0.7253;0.9195;
599.4000;0.7236;0.9218;
599.7000;0.7261;0.9288;
600.0000;0.7245;0.9265;
600.3000;0.7261;0.9102;
600.6000;0.7293;0.9056;
600.9000;0.7277;0.8870;
601.2000;0.7269;0.8800;
601.5000;0.7212;0.8614;
601.8000;0.7196;0.8475;
602.1000;0.7171;0.8382;
602.4000;0.7033;0.8057;
602.7000;0.7082;0.8150;
603.0000;0.7090;0.8057;
603.3000;0.7000;0.7895;
603.6000;0.6976;0.7732;
603.9000;0.6935;0.7616;
604.2000;0.6903;0.7570;
604.5000;0.6878;0.7523;
604.8000;0.6854;0.7500;
605.1000;0.6813;0.7407;
605.4000;0.6813;0.7407;
605.7000;0.6772;0.7291;
606.0000;0.6740;0.7175;
606.3000;0.6699;0.7105;
606.6000;0.6683;0.7082;
606.9000;0.6659;0.7035;
607.2000;0.6610;0.6989;
607.5000;0.6626;0.7035;
607.8000;0.6585;0.7035;
608.1000;0.6569;0.6989;
608.4000;0.6602;0.7128;
608.7000;0.6520;0.7035;
609.0000;0.6553;0.7059;
609.3000;0.6520;0.7012;
609.6000;0.6528;0.7175;
609.9000;0.6471;0.7221;
610.2000;0.6471;0.7314;
610.5000;0.6447;0.7314;
610.8000;0.6422;0.7291;
611.1000;0.6431;0.7268;
611.4000;0.6357;0.7152;
611.7000;0.6398;0.7268;
612.0000;0.6357;0.7175;
612.3000;0.6349;0.7128;
612.6000;0.6325;0.7128;
612.9000;0.6333;0.7175;
613.2000;0.6284;0.7059;
613.5000;0.6284;0.6989;
613.8000;0.6292;0.7059;
614.1000;0.6292;0.7082;
614.4000;0.6235;0.6989;
614.7000;0.6235;0.7012;
615.0000;0.6243;0.7035;
615.3000;0.6252;0.7012;
615.6000;0.6203;0.6850;
615.9000;0.6243;0.6966;
616.2000;0.6170;0.6873;
616.5000;0.6178;0.6803;
616.8000;0.6154;0.6780;
617.1000;0.6260;0.7059;
617.4000;0.6154;0.6873;
617.7000;0.6138;0.6873;
618.0000;0.6129;0.6966;
618.3000;0.6040;0.6826;
618.6000;0.6105;0.6896;
618.9000;0.6089;0.6919;
619.2000;0.6072;0.6826;
619.5000;0.6064;0.6780;
619.8000;0.5991;0.6641;
620.1000;0.6032;0.6826;
620.4000;0.6056;0.6896;
620.7000;0.5999;0.6826;
621.0000;0.5942;0.6734;
621.3000;0.6032;0.6826;
621.6000;0.6024;0.6757;
621.9000;0.5902;0.6525;
622.2000;0.5958;0.6664;
622.5000;0.5967;0.6710;
622.8000;0.5967;0.6803;
623.1000;0.5958;0.6850;
623.4000;0.5910;0.6803;
623.7000;0.5975;0.6850;
624.0000;0.5804;0.6432;
624.3000;0.5926;0.6734;
624.6000;0.5942;0.6850;
624.9000;0.5910;0.6850;
625.2000;0.5877;0.6919;
625.5000;0.5845;0.6873;
625.8000;0.5885;0.6943;
626.1000;0.5788;0.6710;
626.4000;0.5885;0.6943;
626.7000;0.5926;0.7059;
627.0000;0.5853;0.6896;
627.3000;0.5902;0.6966;
627.6000;0.5828;0.6826;
627.9000;0.5828;0.6850;
628.2000;0.5836;0.6943;
628.5000;0.5796;0.6873;
628.8000;0.5926;0.7221;
629.1000;0.5804;0.6943;
629.4000;0.5820;0.6803;
629.7000;0.5796;0.6687;
630.0000;0.5788;0.6780;
630.3000;0.5796;0.6826;
630.6000;0.5779;0.6826;
630.9000;0.5763;0.6780;
631.2000;0.5796;0.6896;
631.5000;0.5771;0.6850;
631.8000;0.5796;0.6896;
632.1000;0.5755;0.6850;
632.4000;0.5779;0.6966;
632.7000;0.5739;0.6826;
633.0000;0.5739;0.6826;
633.3000;0.5747;0.6803;
633.6000;0.5771;0.6919;
633.9000;0.5674;0.6548;
634.2000;0.5722;0.6734;
634.5000;0.5690;0.6664;
634.8000;0.5706;0.6757;
635.1000;0.5682;0.6687;
635.4000;0.5690;0.6757;
635.7000;0.5665;0.6710;
636.0000;0.5674;0.6896;
636.3000;0.5674;0.6896;
636.6000;0.5625;0.6710;
636.9000;0.5665;0.6919;
637.2000;0.5690;0.6989;
637.5000;0.5641;0.6896;
637.8000;0.5690;0.6966;
638.1000;0.5657;0.6873;
638.4000;0.5649;0.6780;
638.7000;0.5641;0.6803;
639.0000;0.5592;0.6641;
639.3000;0.5633;0.6641;
639.6000;0.5608;0.6664;
639.9000;0.5592;0.6664;
640.2000;0.5608;0.6710;
640.5000;0.5608;0.6641;
640.8000;0.5617;0.6548;
641.1000;0.5608;0.6501;
641.4000;0.5608;0.6501;
641.7000;0.5625;0.6571;
642.0000;0.5608;0.6618;
642.3000;0.5592;0.6687;
642.6000;0.5568;0.6618;
642.9000;0.5665;0.6943;
643.2000;0.5592;0.6850;
643.5000;0.5584;0.6780;
643.8000;0.5560;0.6734;
644.1000;0.5568;0.6734;
644.4000;0.5543;0.6687;
644.7000;0.5576;0.6757;
645.0000;0.5600;0.6757;
645.3000;0.5543;0.6618;
645.6000;0.5551;0.6664;
645.9000;0.5543;0.6548;
646.2000;0.5519;0.6548;
646.5000;0.5535;0.6548;
646.8000;0.5535;0.6478;
647.1000;0.5527;0.6501;
647.4000;0.5527;0.6548;
647.7000;0.5495;0.6525;
648.0000;0.5560;0.6641;
648.3000;0.5519;0.6548;
648.6000;0.5495;0.6432;
648.9000;0.5527;0.6501;
649.2000;0.5511;0.6594;
649.5000;0.5551;0.6757;
649.8000;0.5584;0.6850;
650.1000;0.5584;0.6966;
650.4000;0.5519;0.6757;
650.7000;0.5486;0.6664;
651.0000;0.5478;0.6641;
651.3000;0.5486;0.6618;
651.6000;0.5495;0.6641;
651.9000;0.5478;0.6664;
652.2000;0.5462;0.6664;
652.5000;0.5429;0.6618;
652.8000;0.5429;0.6594;
653.1000;0.5470;0.6757;
653.4000;0.5462;0.6710;
653.7000;0.5470;0.6734;
654.0000;0.5429;0.6641;
654.3000;0.5446;0.6641;
654.6000;0.5446;0.6664;
654.9000;0.5438;0.6664;
655.2000;0.5446;0.6780;
655.5000;0.5429;0.6780;
655.8000;0.5438;0.6780;
656.1000;0.5454;0.6826;
656.4000;0.5446;0.6850;
656.7000;0.5454;0.6803;
657.0000;0.5413;0.6641;
657.3000;0.5438;0.6664;
657.6000;0.5429;0.6710;
657.9000;0.5413;0.6757;
658.2000;0.5405;0.6734;
658.5000;0.5421;0.6734;
658.8000;0.5324;0.6478;
659.1000;0.5438;0.6734;
659.4000;0.5405;0.6710;
659.7000;0.5405;0.6664;
660.0000;0.5413;0.6687;
660.3000;0.5405;0.6710;
660.6000;0.5397;0.6757;
660.9000;0.5356;0.6641;
661.2000;0.5381;0.6734;
661.5000;0.5397;0.6780;
661.8000;0.5413;0.6826;
662.1000;0.5348;0.6618;
662.4000;0.5340;0.6501;
662.7000;0.5389;0.6618;
663.0000;0.5372;0.6548;
663.3000;0.5364;0.6594;
663.6000;0.5372;0.6571;
663.9000;0.5348;0.6478;
664.2000;0.5381;0.6571;
664.5000;0.5348;0.6385;
664.8000;0.5356;0.6339;
665.1000;0.5381;0.6385;
665.4000;0.5348;0.6339;
665.7000;0.5356;0.6385;
666.0000;0.5470;0.6687;
666.3000;0.5405;0.6548;
666.6000;0.5364;0.6455;
666.9000;0.5356;0.6594;
667.2000;0.5381;0.6710;
667.5000;0.5364;0.6687;
667.8000;0.5348;0.6618;
668.1000;0.5332;0.6641;
668.4000;0.5340;0.6664;
668.7000;0.5348;0.6641;
669.0000;0.5340;0.6641;
669.3000;0.5332;0.6710;
669.6000;0.5340;0.6734;
669.9000;0.5340;0.6710;
670.2000;0.5340;0.6664;
670.5000;0.5340;0.6757;
670.8000;0.5315;0.6687;
671.1000;0.5324;0.6803;
671.4000;0.5332;0.6896;
671.7000;0.5324;0.6919;
672.0000;0.5324;0.6966;
672.3000;0.5340;0.7082;
672.6000;0.5299;0.6966;
672.9000;0.5307;0.6966;
673.2000;0.5307;0.6919;
673.5000;0.5356;0.7059;
673.8000;0.5299;0.6850;
674.1000;0.5299;0.6826;
674.4000;0.5299;0.6826;
674.7000;0.5291;0.6780;
675.0000;0.5299;0.6780;
675.3000;0.5291;0.6734;
675.6000;0.5267;0.6757;
675.9000;0.5291;0.6826;
676.2000;0.5299;0.6687;
676.5000;0.5299;0.6664;
676.8000;0.5283;0.6618;
677.1000;0.5299;0.6641;
677.4000;0.5283;0.6594;
677.7000;0.5275;0.6501;
678.0000;0.5299;0.6548;
678.3000;0.5291;0.6641;
678.6000;0.5267;0.6594;
678.9000;0.5275;0.6594;
679.2000;0.5291;0.6548;
679.5000;0.5275;0.6594;
679.8000;0.5258;0.6501;
680.1000;0.5275;0.6525;
680.4000;0.5267;0.6432;
680.7000;0.5283;0.6548;
681.0000;0.5242;0.6501;
681.3000;0.5283;0.6618;
681.6000;0.5242;0.6501;
681.9000;0.5226;0.6455;
682.2000;0.5275;0.6548;
682.5000;0.5242;0.6501;
682.8000;0.5250;0.6594;
683.1000;0.5258;0.6594;
683.4000;0.5201;0.6571;
683.7000;0.5258;0.6757;
684.0000;0.5275;0.6780;
684.3000;0.5210;0.6710;
684.6000;0.5258;0.6734;
684.9000;0.5250;0.6641;
685.2000;0.5226;0.6501;
685.5000;0.5177;0.6362;
685.8000;0.5234;0.6548;
686.1000;0.5242;0.6641;
686.4000;0.5201;0.6641;
686.7000;0.5267;0.6850;
687.0000;0.5226;0.6641;
687.3000;0.5218;0.6571;
687.6000;0.5250;0.6618;
687.9000;0.5234;0.6455;
688.2000;0.5169;0.6362;
688.5000;0.5210;0.6478;
688.8000;0.5218;0.6525;
689.1000;0.5144;0.6339;
689.4000;0.5226;0.6571;
689.7000;0.5210;0.6501;
690.0000;0.5201;0.6478;
690.3000;0.5242;0.6571;
690.6000;0.5185;0.6409;
690.9000;0.5226;0.6571;
691.2000;0.5193;0.6548;
691.5000;0.5201;0.6571;
691.8000;0.5193;0.6618;
692.1000;0.5226;0.6850;
692.4000;0.5226;0.6734;
692.7000;0.5201;0.6594;
693.0000;0.5210;0.6687;
693.3000;0.5218;0.6734;
693.6000;0.5193;0.6710;
693.9000;0.5267;0.6873;
694.2000;0.5210;0.6757;
694.5000;0.5193;0.6734;
694.8000;0.5201;0.6757;
695.1000;0.5201;0.6664;
695.4000;0.5218;0.6710;
695.7000;0.5185;0.6710;
696.0000;0.5201;0.6757;
696.3000;0.5169;0.6664;
696.6000;0.5193;0.6664;
696.9000;0.5210;0.6734;
697.2000;0.5315;0.6966;
697.5000;0.5201;0.6710;
697.8000;0.5169;0.6618;
698.1000;0.5169;0.6618;
698.4000;0.5193;0.6641;
698.7000;0.5201;0.6641;
699.0000;0.5201;0.6618;
699.3000;0.5169;0.6548;
699.6000;0.5193;0.6525;
699.9000;0.5169;0.6525;
700.2000;0.5177;0.6525;
700.5000;0.5210;0.6641;
700.8000;0.5185;0.6525;
701.1000;0.5177;0.6478;
701.4000;0.5185;0.6455;
701.7000;0.5193;0.6455;
702.0000;0.5185;0.6548;
702.3000;0.5267;0.6710;
702.6000;0.5201;0.6594;
702.9000;0.5177;0.6571;
703.2000;0.5144;0.6548;
703.5000;0.5169;0.6618;
703.8000;0.5226;0.6803;
704.1000;0.5153;0.6710;
704.4000;0.5169;0.6710;
704.7000;0.5177;0.6664;
705.0000;0.5153;0.6641;
705.3000;0.5153;0.6571;
705.6000;0.5153;0.6664;
705.9000;0.5153;0.6618;
706.2000;0.5161;0.6734;
706.5000;0.5161;0.6710;
706.8000;0.5169;0.6641;
707.1000;0.5161;0.6548;
707.4000;0.5185;0.6734;
707.7000;0.5177;0.6710;
708.0000;0.5144;0.6594;
708.3000;0.5185;0.6641;
708.6000;0.5185;0.6710;
708.9000;0.5201;0.6710;
709.2000;0.5144;0.6687;
709.5000;0.5153;0.6710;
709.8000;0.5193;0.6734;
710.1000;0.5250;0.6896;
710.4000;0.5144;0.6548;
710.7000;0.5136;0.6548;
711.0000;0.5136;0.6501;
711.3000;0.5153;0.6525;
711.6000;0.5128;0.6525;
711.9000;0.5120;0.6594;
712.2000;0.5136;0.6664;
712.5000;0.5136;0.6571;
712.8000;0.5136;0.6501;
713.1000;0.5144;0.6501;
713.4000;0.5136;0.6409;
713.7000;0.5144;0.6501;
714.0000;0.5201;0.6571;
714.3000;0.5128;0.6455;
714.6000;0.5128;0.6501;
714.9000;0.5153;0.6548;
715.2000;0.5144;0.6455;
715.5000;0.5120;0.6385;
715.8000;0.5136;0.6409;
716.1000;0.5120;0.6339;
716.4000;0.5136;0.6316;
716.7000;0.5144;0.6316;
717.0000;0.5112;0.6223;
717.3000;0.5128;0.6455;
717.6000;0.5128;0.6594;
717.9000;0.5128;0.6757;
718.2000;0.5185;0.6780;
718.5000;0.5144;0.6734;
718.8000;0.5136;0.6664;
719.1000;0.5128;0.6664;
719.4000;0.5128;0.6687;
719.7000;0.5120;0.6710;
720.0000;0.5136;0.6687;
720.3000;0.5120;0.6664;
720.6000;0.5104;0.6641;
720.9000;0.5128;0.6710;
721.2000;0.5144;0.6757;
721.5000;0.5120;0.6710;
721.8000;0.5120;0.6710;
722.1000;0.5096;0.6664;
722.4000;0.5096;0.6757;
722.7000;0.5120;0.6734;
723.0000;0.5120;0.6757;
723.3000;0.5120;0.6919;
723.6000;0.5112;0.6989;
723.9000;0.5234;0.7291;
724.2000;0.5136;0.6989;
724.5000;0.5079;0.6850;
724.8000;0.5112;0.6850;
725.1000;0.5104;0.6710;
725.4000;0.5112;0.6594;
725.7000;0.5047;0.6501;
726.0000;0.5096;0.6641;
726.3000;0.5112;0.6618;
726.6000;0.5104;0.6594;
726.9000;0.5088;0.6478;
727.2000;0.5079;0.6525;
727.5000;0.5161;0.6757;
727.8000;0.5096;0.6594;
728.1000;0.5112;0.6687;
728.4000;0.5039;0.6618;
728.7000;0.5096;0.6780;
729.0000;0.5096;0.6803;
729.3000;0.5088;0.6780;
729.6000;0.5088;0.6757;
729.9000;0.5079;0.6710;
730.2000;0.5104;0.6757;
730.5000;0.5112;0.6757;
730.8000;0.5104;0.6757;
731.1000;0.5096;0.6734;
731.4000;0.5112;0.6757;
731.7000;0.5120;0.6826;
732.0000;0.5104;0.6803;
732.3000;0.5088;0.6780;
732.6000;0.5088;0.6803;
732.9000;0.5104;0.6850;
733.2000;0.5096;0.6803;
733.5000;0.5104;0.6757;
733.8000;0.5104;0.6780;
734.1000;0.5088;0.6780;
734.4000;0.5120;0.6873;
734.7000;0.5079;0.6826;
735.0000;0.5096;0.6919;
735.3000;0.5112;0.6943;
735.6000;0.5071;0.6780;
735.9000;0.5088;0.6757;
736.2000;0.5104;0.6850;
736.5000;0.5088;0.6710;
736.8000;0.5104;0.6734;
737.1000;0.5088;0.6780;
737.4000;0.5088;0.6757;
737.7000;0.5096;0.6757;
738.0000;0.5096;0.6757;
738.3000;0.5104;0.6757;
738.6000;0.5104;0.6757;
738.9000;0.5096;0.6757;
739.2000;0.5112;0.6734;
739.5000;0.5096;0.6687;
739.8000;0.5055;0.6501;
740.1000;0.5096;0.6664;
740.4000;0.5096;0.6734;
740.7000;0.5079;0.6757;
741.0000;0.5079;0.6757;
741.3000;0.5112;0.6896;
741.6000;0.5104;0.6826;
741.9000;0.5128;0.6780;
742.2000;0.5063;0.6641;
742.5000;0.5071;0.6664;
742.8000;0.5096;0.6757;
743.1000;0.5079;0.6780;
743.4000;0.5055;0.6734;
743.7000;0.5088;0.6826;
744.0000;0.5071;0.6780;
744.3000;0.5096;0.6850;
744.6000;0.5063;0.6803;
744.9000;0.5088;0.6896;
745.2000;0.5079;0.6943;
745.5000;0.5096;0.6943;
745.8000;0.5088;0.7012;
746.1000;0.5071;0.6966;
746.4000;0.5071;0.6943;
746.7000;0.5079;0.6943;
747.0000;0.5071;0.6943;
747.3000;0.5079;0.6989;
747.6000;0.5031;0.6943;
747.9000;0.5063;0.6943;
748.2000;0.5063;0.7012;
748.5000;0.5063;0.6966;
748.8000;0.5079;0.6943;
749.1000;0.5071;0.6850;
749.4000;0.5104;0.6850;
749.7000;0.5079;0.6780;
750.0000;0.5071;0.6780;
750.3000;0.5014;0.6641;
750.6000;0.5063;0.6687;
750.9000;0.5055;0.6757;
751.2000;0.5039;0.6896;
751.5000;0.5055;0.6943;
751.8000;0.5047;0.6850;
752.1000;0.5063;0.6850;
752.4000;0.5055;0.6826;
752.7000;0.5039;0.6803;
753.0000;0.5063;0.6850;
753.3000;0.5047;0.6803;
753.6000;0.5063;0.6757;
753.9000;0.5063;0.6710;
754.2000;0.5055;0.6710;
754.5000;0.5079;0.6757;
754.8000;0.5104;0.6803;
755.1000;0.5047;0.6803;
755.4000;0.5055;0.6780;
755.7000;0.4965;0.6594;
756.0000;0.5022;0.6780;
756.3000;0.4998;0.6757;
756.6000;0.5055;0.6826;
756.9000;0.5136;0.7012;
757.2000;0.5047;0.6780;
757.5000;0.5063;0.6757;
757.8000;0.5047;0.6710;
758.1000;0.5039;0.6664;
758.4000;0.5047;0.6594;
758.7000;0.5055;0.6618;
759.0000;0.5022;0.6594;
759.3000;0.5055;0.6757;
759.6000;0.5055;0.6873;
759.9000;0.5039;0.6850;
760.2000;0.5047;0.6803;
760.5000;0.5063;0.6826;
760.8000;0.5071;0.6826;
761.1000;0.5055;0.6780;
761.4000;0.5039;0.6687;
761.7000;0.5047;0.6664;
762.0000;0.5055;0.6594;
762.3000;0.5039;0.6641;
762.6000;0.5071;0.6664;
762.9000;0.5022;0.6525;
763.2000;0.5014;0.6548;
763.5000;0.5039;0.6571;
763.8000;0.5047;0.6664;
764.1000;0.5039;0.6687;
764.4000;0.5047;0.6687;
764.7000;0.5063;0.6664;
765.0000;0.5031;0.6525;
765.3000;0.5039;0.6594;
765.6000;0.5063;0.6571;
765.9000;0.5031;0.6478;
766.2000;0.5031;0.6594;
766.5000;0.5047;0.6687;
766.8000;0.5039;0.6571;
767.1000;0.5047;0.6594;
767.4000;0.5039;0.6548;
767.7000;0.5039;0.6525;
768.0000;0.5047;0.6525;
768.3000;0.5031;0.6455;
768.6000;0.5031;0.6455;
768.9000;0.5047;0.6478;
769.2000;0.5039;0.6571;
769.5000;0.5039;0.6687;
769.8000;0.5039;0.6664;
770.1000;0.5063;0.6710;
770.4000;0.5031;0.6594;
770.7000;0.5120;0.6896;
771.0000;0.5063;0.6710;
771.3000;0.5031;0.6594;
771.6000;0.5079;0.6687;
771.9000;0.4998;0.6548;
772.2000;0.5014;0.6548;
772.5000;0.5031;0.6571;
772.8000;0.5039;0.6687;
773.1000;0.5031;0.6710;
773.4000;0.5031;0.6710;
773.7000;0.5039;0.6687;
774.0000;0.5022;0.6641;
774.3000;0.5022;0.6618;
774.6000;0.5039;0.6641;
774.9000;0.5031;0.6664;
775.2000;0.5047;0.6734;
775.5000;0.4974;0.6618;
775.8000;0.5096;0.6896;
776.1000;0.5022;0.6757;
776.4000;0.5031;0.6919;
776.7000;0.5063;0.7059;
777.0000;0.5031;0.7012;
777.3000;0.5022;0.6873;
777.6000;0.5022;0.6919;
777.9000;0.5014;0.6826;
778.2000;0.5022;0.6896;
778.5000;0.5014;0.6943;
778.8000;0.5039;0.6989;
779.1000;0.5031;0.6966;
779.4000;0.5031;0.6919;
779.7000;0.5063;0.7035;
780.0000;0.4974;0.6780;
780.3000;0.5022;0.6826;
780.6000;0.5031;0.6710;
780.9000;0.5055;0.6873;
781.2000;0.5088;0.6896;
781.5000;0.5047;0.6780;
781.8000;0.5022;0.6734;
782.1000;0.5039;0.6850;
782.4000;0.5031;0.6780;
782.7000;0.5006;0.6734;
783.0000;0.5079;0.6966;
783.3000;0.5063;0.6943;
783.6000;0.5014;0.6873;
783.9000;0.5031;0.6919;
784.2000;0.5014;0.6966;
784.5000;0.4998;0.6850;
784.8000;0.5006;0.6896;
785.1000;0.4998;0.6873;
785.4000;0.5063;0.6966;
785.7000;0.5039;0.6873;
786.0000;0.5014;0.6826;
786.3000;0.5022;0.6803;
786.6000;0.5022;0.6803;
786.9000;0.5104;0.7059;
787.2000;0.5014;0.6896;
787.5000;0.5014;0.6850;
787.8000;0.5022;0.6896;
788.1000;0.5014;0.6943;
788.4000;0.5031;0.6966;
788.7000;0.5006;0.6850;
789.0000;0.5006;0.6757;
789.3000;0.5022;0.6780;
789.6000;0.5022;0.6734;
789.9000;0.5039;0.6826;
790.2000;0.4990;0.6780;
790.5000;0.5014;0.6734;
790.8000;0.5006;0.6780;
791.1000;0.5014;0.6757;
791.4000;0.5014;0.6826;
791.7000;0.5014;0.6757;
792.0000;0.5014;0.6757;
792.3000;0.4982;0.6757;
792.6000;0.5014;0.6896;
792.9000;0.5014;0.6989;
793.2000;0.4998;0.6850;
793.5000;0.5014;0.6966;
793.8000;0.4998;0.6850;
794.1000;0.5006;0.6850;
794.4000;0.5014;0.6896;
794.7000;0.4998;0.6873;
795.0000;0.5006;0.6826;
795.3000;0.5006;0.6734;
795.6000;0.5014;0.6710;
795.9000;0.5014;0.6710;
796.2000;0.4957;0.6501;
796.5000;0.4941;0.6432;
796.8000;0.5014;0.6641;
797.1000;0.5022;0.6803;
797.4000;0.5039;0.6896;
797.7000;0.4990;0.6826;
798.0000;0.5022;0.6896;
798.3000;0.4965;0.6664;
798.6000;0.4990;0.6710;
798.9000;0.5014;0.6780;
799.2000;0.4998;0.6710;
799.5000;0.5063;0.6850;
799.8000;0.5006;0.6757;
800.1000;0.5014;0.6780;
800.4000;0.4998;0.6780;
800.7000;0.5031;0.6873;
801.0000;0.5014;0.6803;
801.3000;0.5006;0.6780;
801.6000;0.4998;0.6734;
801.9000;0.4998;0.6803;
802.2000;0.4998;0.6826;
802.5000;0.5006;0.6803;
802.8000;0.4998;0.6710;
803.1000;0.4998;0.6780;
803.4000;0.5006;0.6803;
803.7000;0.4990;0.6826;
804.0000;0.4925;0.6664;
804.3000;0.5071;0.6989;
804.6000;0.4990;0.6757;
804.9000;0.5014;0.6826;
805.2000;0.4982;0.6803;
805.5000;0.4998;0.6803;
805.8000;0.5071;0.6966;
806.1000;0.4990;0.6803;
806.4000;0.4998;0.6873;
806.7000;0.5014;0.7012;
807.0000;0.5006;0.6943;
807.3000;0.5006;0.6989;
807.6000;0.5006;0.6989;
807.9000;0.4974;0.6803;
808.2000;0.5006;0.6826;
808.5000;0.4990;0.6826;
808.8000;0.4990;0.6734;
809.1000;0.4990;0.6710;
809.4000;0.4990;0.6664;
809.7000;0.4998;0.6594;
810.0000;0.5006;0.6594;
810.3000;0.5014;0.6734;
810.6000;0.4998;0.6850;
810.9000;0.5055;0.6989;
811.2000;0.4990;0.6919;
811.5000;0.4990;0.6850;
811.8000;0.4998;0.6943;
812.1000;0.4998;0.6943;
812.4000;0.5006;0.6873;
812.7000;0.4990;0.6943;
813.0000;0.4998;0.6989;
813.3000;0.4990;0.6989;
813.6000;0.5006;0.6943;
813.9000;0.4965;0.6850;
814.2000;0.5006;0.6943;
814.5000;0.4998;0.6826;
814.8000;0.4998;0.6826;
815.1000;0.4982;0.6873;
815.4000;0.4998;0.6943;
815.7000;0.4941;0.6826;
816.0000;0.5014;0.6989;
816.3000;0.4998;0.6966;
816.6000;0.5006;0.7012;
816.9000;0.4990;0.6966;
817.2000;0.5039;0.7059;
817.5000;0.5014;0.6919;
817.8000;0.5022;0.6943;
818.1000;0.4965;0.6943;
818.4000;0.4941;0.6873;
818.7000;0.4998;0.7035;
819.0000;0.4990;0.7012;
819.3000;0.4974;0.6919;
819.6000;0.5014;0.7059;
819.9000;0.4982;0.6943;
820.2000;0.5006;0.6989;
820.5000;0.4957;0.6850;
820.8000;0.4998;0.6989;
821.1000;0.4925;0.6873;
821.4000;0.5006;0.7012;
821.7000;0.4998;0.6919;
822.0000;0.4998;0.6826;
822.3000;0.5006;0.6896;
822.6000;0.4990;0.6873;
822.9000;0.5014;0.6919;
823.2000;0.4990;0.6896;
823.5000;0.5088;0.7012;
823.8000;0.5063;0.6896;
824.1000;0.4990;0.6780;
824.4000;0.4990;0.6826;
824.7000;0.4990;0.6734;
825.0000;0.4998;0.6803;
825.3000;0.5006;0.6780;
825.6000;0.4982;0.6757;
825.9000;0.4998;0.6780;
826.2000;0.4957;0.6734;
826.5000;0.5006;0.6780;
826.8000;0.4965;0.6710;
827.1000;0.5006;0.6734;
827.4000;0.4990;0.6757;
827.7000;0.5006;0.6896;
828.0000;0.4974;0.6803;
828.3000;0.4982;0.6826;
828.6000;0.4982;0.6826;
828.9000;0.5014;0.6873;
829.2000;0.4965;0.6780;
829.5000;0.4974;0.6757;
829.8000;0.4974;0.6734;
830.1000;0.4982;0.6687;
830.4000;0.4982;0.6664;
830.7000;0.4982;0.6687;
831.0000;0.4990;0.6757;
831.3000;0.5006;0.6803;
831.6000;0.4982;0.6687;
831.9000;0.4941;0.6571;
832.2000;0.4957;0.6687;
832.5000;0.4990;0.6826;
832.8000;0.4990;0.6919;
833.1000;0.4982;0.6989;
833.4000;0.4990;0.7035;
833.7000;0.4990;0.7105;
834.0000;0.4982;0.7035;
834.3000;0.4974;0.6896;
834.6000;0.4998;0.6896;
834.9000;0.4974;0.6826;
835.2000;0.4974;0.6826;
835.5000;0.4965;0.6826;
835.8000;0.4974;0.6757;
836.1000;0.4982;0.6687;
836.4000;0.4868;0.6409;
836.7000;0.4957;0.6734;
837.0000;0.4957;0.6734;
837.3000;0.4884;0.6594;
837.6000;0.4990;0.6826;
837.9000;0.4998;0.6780;
838.2000;0.4990;0.6757;
838.5000;0.4949;0.6757;
838.8000;0.4990;0.6826;
839.1000;0.4990;0.6850;
839.4000;0.4965;0.6757;
839.7000;0.4982;0.6757;
840.0000;0.4982;0.6757;
840.3000;0.4949;0.6757;
840.6000;0.5006;0.6826;
840.9000;0.4982;0.6803;
841.2000;0.4965;0.6734;
841.5000;0.4982;0.6734;
841.8000;0.4998;0.6780;
842.1000;0.4974;0.6780;
842.4000;0.4974;0.6757;
842.7000;0.4982;0.6710;
843.0000;0.4982;0.6687;
843.3000;0.4965;0.6780;
843.6000;0.4974;0.6850;
843.9000;0.4957;0.6850;
844.2000;0.5022;0.7035;
844.5000;0.4990;0.6943;
844.8000;0.4998;0.6943;
845.1000;0.4982;0.6803;
845.4000;0.4998;0.6757;
845.7000;0.4965;0.6780;
846.0000;0.4974;0.6803;
846.3000;0.4982;0.6873;
846.6000;0.5039;0.6989;
846.9000;0.4982;0.6943;
847.2000;0.4957;0.6919;
847.5000;0.4990;0.6943;
847.8000;0.5039;0.7035;
848.1000;0.4990;0.6896;
848.4000;0.4957;0.6919;
848.7000;0.4974;0.6896;
849.0000;0.4949;0.6873;
849.3000;0.4965;0.7012;
849.6000;0.4974;0.7012;
849.9000;0.4957;0.7012;
850.2000;0.4965;0.7012;
850.5000;0.4965;0.6966;
850.8000;0.4957;0.6896;
851.1000;0.4998;0.7059;
851.4000;0.4974;0.6966;
851.7000;0.4965;0.6943;
852.0000;0.4965;0.6919;
852.3000;0.4957;0.6873;
852.6000;0.4965;0.6850;
852.9000;0.4974;0.6989;
853.2000;0.4990;0.7082;
853.5000;0.4965;0.7082;
853.8000;0.4965;0.6989;
854.1000;0.4892;0.6710;
854.4000;0.4949;0.6896;
854.7000;0.4982;0.6966;
855.0000;0.4990;0.7035;
855.3000;0.4925;0.6896;
855.6000;0.4941;0.6826;
855.9000;0.4982;0.6943;
856.2000;0.4990;0.6966;
856.5000;0.4990;0.6989;
856.8000;0.4957;0.6919;
857.1000;0.4974;0.7059;
857.4000;0.4868;0.6803;
857.7000;0.4957;0.6826;
858.0000;0.4982;0.6896;
858.3000;0.4965;0.6896;
858.6000;0.4908;0.6780;
858.9000;0.4982;0.6989;
859.2000;0.4974;0.7035;
859.5000;0.4998;0.7035;
859.8000;0.4974;0.7035;
860.1000;0.4965;0.7012;
860.4000;0.4957;0.6943;
860.7000;0.4957;0.6919;
861.0000;0.4974;0.6919;
861.3000;0.4990;0.6989;
861.6000;0.4949;0.6919;
861.9000;0.4965;0.7059;
862.2000;0.4965;0.7012;
862.5000;0.4965;0.7082;
862.8000;0.4982;0.7152;
863.1000;0.4965;0.7059;
863.4000;0.4933;0.6943;
863.7000;0.4982;0.7175;
864.0000;0.4957;0.7105;
864.3000;0.4949;0.7105;
864.6000;0.4990;0.7175;
864.9000;0.4957;0.7152;
865.2000;0.4949;0.6989;
865.5000;0.4941;0.6966;
865.8000;0.4982;0.7059;
866.1000;0.4965;0.7035;
866.4000;0.4957;0.7035;
866.7000;0.4949;0.7059;
867.0000;0.4949;0.7035;
867.3000;0.5071;0.7268;
867.6000;0.4965;0.6989;
867.9000;0.4957;0.6989;
868.2000;0.4965;0.7012;
868.5000;0.4957;0.7035;
868.8000;0.4925;0.6896;
869.1000;0.4965;0.7035;
869.4000;0.4957;0.7059;
869.7000;0.4974;0.7035;
870.0000;0.4965;0.6989;
870.3000;0.4949;0.6943;
870.6000;0.4965;0.7012;
870.9000;0.4965;0.6966;
871.2000;0.4949;0.6943;
871.5000;0.4965;0.6943;
871.8000;0.4965;0.6919;
872.1000;0.4990;0.7012;
872.4000;0.4998;0.7152;
872.7000;0.4925;0.7035;
873.0000;0.4957;0.7012;
873.3000;0.4957;0.6919;
873.6000;0.4990;0.6989;
873.9000;0.5006;0.7152;
874.2000;0.4974;0.7198;
874.5000;0.4957;0.7128;
874.8000;0.5031;0.7244;
875.1000;0.4957;0.7012;
875.4000;0.4941;0.6943;
875.7000;0.4957;0.7059;
876.0000;0.4974;0.7082;
876.3000;0.4908;0.6919;
876.6000;0.4965;0.7035;
876.9000;0.4876;0.6873;
877.2000;0.4868;0.6896;
877.5000;0.4941;0.7152;
877.8000;0.4949;0.6966;
878.1000;0.4851;0.6687;
878.4000;0.4974;0.6989;
878.7000;0.4974;0.7082;
879.0000;0.4965;0.7152;
879.3000;0.4933;0.7082;
879.6000;0.4965;0.7221;
879.9000;0.4957;0.7175;
880.2000;0.4965;0.7128;
880.5000;0.4974;0.7128;
880.8000;0.4965;0.7082;
881.1000;0.4957;0.7128;
881.4000;0.4965;0.7105;
881.7000;0.4957;0.7082;
882.0000;0.4949;0.7012;
882.3000;0.4965;0.6943;
882.6000;0.4982;0.7035;
882.9000;0.4974;0.6919;
883.2000;0.4965;0.6966;
883.5000;0.4957;0.6989;
883.8000;0.4982;0.7059;
884.1000;0.4957;0.6989;
884.4000;0.4876;0.6826;
884.7000;0.4949;0.7035;
885.0000;0.4949;0.7035;
885.3000;0.4982;0.7175;
885.6000;0.4998;0.7291;
885.9000;0.4917;0.7175;
886.2000;0.4990;0.7198;
886.5000;0.4998;0.7152;
886.8000;0.4957;0.7128;
887.1000;0.4949;0.7152;
887.4000;0.4949;0.7152;
887.7000;0.4965;0.7105;
888.0000;0.4933;0.6989;
888.3000;0.4974;0.7012;
888.6000;0.4957;0.6873;
888.9000;0.4941;0.6873;
889.2000;0.4965;0.6989;
889.5000;0.4974;0.6989;
889.8000;0.4990;0.7035;
890.1000;0.4957;0.6989;
890.4000;0.5055;0.7152;
890.7000;0.4917;0.6850;
891.0000;0.4925;0.6803;
891.3000;0.4949;0.6896;
891.6000;0.4925;0.6850;
891.9000;0.4949;0.6966;
892.2000;0.4941;0.6919;
892.5000;0.4908;0.6803;
892.8000;0.4974;0.6919;
893.1000;0.4957;0.6919;
893.4000;0.4949;0.6873;
893.7000;0.4957;0.6989;
894.0000;0.4965;0.6966;
894.3000;0.4941;0.6966;
894.6000;0.4957;0.7012;
894.9000;0.4835;0.6734;
895.2000;0.4965;0.7105;
895.5000;0.4957;0.6943;
895.8000;0.4941;0.6803;
896.1000;0.4941;0.6850;
896.4000;0.4949;0.6896;
896.7000;0.4949;0.6919;
897.0000;0.4900;0.6803;
897.3000;0.5063;0.7152;
897.6000;0.4941;0.6826;
897.9000;0.4957;0.6919;
898.2000;0.4933;0.6873;
898.5000;0.4941;0.6966;
898.8000;0.4957;0.6989;
899.1000;0.4941;0.7082;
899.4000;0.4949;0.7105;
899.7000;0.4965;0.7082;
900.0000;0.4884;0.6919;
900.3000;0.4965;0.7059;
900.6000;0.4974;0.7082;
900.9000;0.4941;0.7105;
901.2000;0.4917;0.7035;
901.5000;0.4925;0.6943;
901.8000;0.4965;0.6989;
902.1000;0.4933;0.7035;
902.4000;0.4941;0.7035;
902.7000;0.4933;0.7035;
903.0000;0.4941;0.7012;
903.3000;0.4933;0.6989;
903.6000;0.4949;0.7059;
903.9000;0.4965;0.7082;
904.2000;0.4892;0.6873;
904.5000;0.4949;0.6943;
904.8000;0.4933;0.6943;
905.1000;0.4941;0.7035;
905.4000;0.4868;0.6919;
905.7000;0.4949;0.7175;
906.0000;0.4949;0.7175;
906.3000;0.5006;0.7221;
906.6000;0.4933;0.6989;
906.9000;0.4957;0.6966;
907.2000;0.4949;0.6966;
907.5000;0.4965;0.6989;
907.8000;0.4941;0.6919;
908.1000;0.4965;0.7035;
908.4000;0.4965;0.7128;
908.7000;0.4965;0.7035;
909.0000;0.4957;0.6966;
909.3000;0.4998;0.7035;
909.6000;0.4974;0.6966;
909.9000;0.4949;0.6966;
910.2000;0.4941;0.6896;
910.5000;0.4933;0.6919;
910.8000;0.4941;0.6989;
911.1000;0.4925;0.7082;
911.4000;0.4925;0.7035;
911.7000;0.4957;0.6989;
912.0000;0.5006;0.7082;
912.3000;0.4917;0.6943;
912.6000;0.4949;0.6989;
912.9000;0.4851;0.6687;
913.2000;0.4949;0.6943;
913.5000;0.4925;0.6966;
913.8000;0.5039;0.7175;
914.1000;0.4949;0.6989;
914.4000;0.4949;0.6943;
914.7000;0.4925;0.6989;
915.0000;0.4957;0.7128;
915.3000;0.4949;0.7105;
915.6000;0.4949;0.7082;
915.9000;0.4965;0.7035;
916.2000;0.4900;0.6850;
916.5000;0.4957;0.6896;
916.8000;0.4957;0.6850;
917.1000;0.4941;0.6850;
917.4000;0.4957;0.6966;
917.7000;0.4941;0.7012;
918.0000;0.4941;0.7059;
918.3000;0.4957;0.7035;
918.6000;0.4974;0.7059;
918.9000;0.4925;0.7012;
919.2000;0.4949;0.7035;
919.5000;0.4957;0.7082;
919.8000;0.4933;0.7059;
920.1000;0.4860;0.6896;
920.4000;0.4957;0.7035;
920.7000;0.4949;0.7012;
921.0000;0.4949;0.7128;
921.3000;0.4957;0.7128;
921.6000;0.4941;0.7059;
921.9000;0.4949;0.7082;
922.2000;0.4949;0.6943;
922.5000;0.4949;0.6919;
922.8000;0.4933;0.6896;
923.1000;0.4949;0.6966;
923.4000;0.4949;0.6919;
923.7000;0.4941;0.6896;
924.0000;0.4925;0.6873;
924.3000;0.4949;0.7082;
924.6000;0.4949;0.7082;
924.9000;0.4957;0.7152;
925.2000;0.4925;0.7105;
925.5000;0.4941;0.7105;
925.8000;0.4957;0.7152;
926.1000;0.4949;0.7059;
926.4000;0.4933;0.7035;
926.7000;0.4868;0.6873;
927.0000;0.4949;0.7035;
927.3000;0.4892;0.6850;
927.6000;0.4933;0.6896;
927.9000;0.4941;0.6966;
928.2000;0.4941;0.6966;
928.5000;0.4941;0.7059;
928.8000;0.4949;0.7059;
929.1000;0.4941;0.6966;
929.4000;0.4941;0.6919;
929.7000;0.4957;0.7012;
930.0000;0.4957;0.7035;
930.3000;0.4949;0.6966;
930.6000;0.4965;0.6943;
930.9000;0.4957;0.6943;
931.2000;0.4957;0.6919;
931.5000;0.4965;0.6826;
931.8000;0.4949;0.6780;
932.1000;0.4949;0.6641;
932.4000;0.4965;0.6664;
932.7000;0.4949;0.6618;
933.0000;0.4957;0.6641;
933.3000;0.4925;0.6734;
933.6000;0.4941;0.6826;
933.9000;0.4982;0.6896;
934.2000;0.4925;0.6826;
934.5000;0.4974;0.6966;
934.8000;0.4933;0.6896;
935.1000;0.4933;0.6989;
935.4000;0.4900;0.7012;
935.7000;0.4933;0.7175;
936.0000;0.4925;0.7059;
936.3000;0.4900;0.7012;
936.6000;0.4949;0.7175;
936.9000;0.5039;0.7337;
937.2000;0.4974;0.7152;
937.5000;0.4949;0.6989;
937.8000;0.4933;0.7012;
938.1000;0.4957;0.7059;
938.4000;0.4925;0.7082;
938.7000;0.4949;0.7082;
939.0000;0.4925;0.7012;
939.3000;0.4925;0.6919;
939.6000;0.4933;0.6966;
939.9000;0.4925;0.6919;
940.2000;0.4949;0.6943;
940.5000;0.4933;0.6850;
940.8000;0.4949;0.6943;
941.1000;0.4941;0.6943;
941.4000;0.4957;0.7012;
941.7000;0.5006;0.7082;
942.0000;0.4941;0.7035;
942.3000;0.4925;0.6966;
942.6000;0.4941;0.6989;
942.9000;0.4949;0.7082;
943.2000;0.4949;0.7105;
943.5000;0.4908;0.7035;
943.8000;0.4941;0.7082;
944.1000;0.4949;0.7059;
944.4000;0.4925;0.7035;
944.7000;0.4941;0.7105;
945.0000;0.4941;0.7105;
945.3000;0.4965;0.7152;
945.6000;0.4941;0.7152;
945.9000;0.4892;0.7105;
946.2000;0.4917;0.7128;
946.5000;0.4933;0.7198;
946.8000;0.4949;0.7244;
947.1000;0.4892;0.7105;
947.4000;0.4941;0.7175;
947.7000;0.4925;0.7152;
948.0000;0.4941;0.7198;
948.3000;0.4982;0.7291;
948.6000;0.4908;0.7128;
948.9000;0.4949;0.7128;
949.2000;0.4941;0.7059;
949.5000;0.4925;0.6989;
949.8000;0.4933;0.6919;
950.1000;0.4949;0.6989;
950.4000;0.4941;0.6919;
950.7000;0.4949;0.6896;
951.0000;0.5022;0.7105;
951.3000;0.5006;0.6943;
951.6000;0.4941;0.6734;
951.9000;0.4974;0.6850;
952.2000;0.4957;0.6850;
952.5000;0.4917;0.6850;
952.8000;0.4925;0.6896;
953.1000;0.4933;0.6919;
953.4000;0.4990;0.7012;
953.7000;0.4925;0.6896;
954.0000;0.4949;0.7035;
954.3000;0.4884;0.6966;
954.6000;0.4941;0.7059;
954.9000;0.4917;0.6966;
955.2000;0.4949;0.6989;
955.5000;0.5022;0.7152;
955.8000;0.4933;0.7012;
956.1000;0.4974;0.7035;
956.4000;0.4957;0.6989;
956.7000;0.4957;0.6989;
957.0000;0.4941;0.6919;
957.3000;0.4925;0.7012;
957.6000;0.4778;0.6594;
957.9000;0.4925;0.6919;
958.2000;0.4933;0.6919;
958.5000;0.4917;0.6826;
958.8000;0.4925;0.6826;
959.1000;0.4933;0.6873;
959.4000;0.4917;0.6803;
959.7000;0.4925;0.6757;
960.0000;0.4908;0.6710;
960.3000;0.4925;0.6803;
960.6000;0.4941;0.6826;
960.9000;0.4876;0.6687;
961.2000;0.4941;0.6966;
961.5000;0.4941;0.7059;
961.8000;0.4925;0.6943;
962.1000;0.4884;0.6803;
962.4000;0.4933;0.6966;
962.7000;0.4949;0.6919;
963.0000;0.4941;0.6826;
963.3000;0.4925;0.6757;
963.6000;0.5063;0.7105;
963.9000;0.4900;0.6734;
964.2000;0.4949;0.6780;
964.5000;0.4933;0.6826;
964.8000;0.4917;0.6803;
965.1000;0.4949;0.6780;
965.4000;0.4941;0.6757;
965.7000;0.4949;0.6780;
966.0000;0.4957;0.6850;
966.3000;0.4957;0.6803;
966.6000;0.4941;0.6803;
966.9000;0.4949;0.6873;
967.2000;0.4965;0.6943;
967.5000;0.4957;0.6896;
967.8000;0.4965;0.6989;
968.1000;0.5006;0.7082;
968.4000;0.4965;0.7035;
968.7000;0.4941;0.6989;
969.0000;0.4860;0.6757;
969.3000;0.4933;0.6989;
969.6000;0.4925;0.6919;
969.9000;0.4965;0.6919;
970.2000;0.4933;0.6826;
970.5000;0.4925;0.6826;
970.8000;0.4949;0.6896;
971.1000;0.4965;0.6896;
971.4000;0.4941;0.6896;
971.7000;0.4949;0.6919;
972.0000;0.4933;0.6873;
972.3000;0.4974;0.7035;
972.6000;0.4941;0.6989;
972.9000;0.4957;0.7059;
973.2000;0.4925;0.7082;
973.5000;0.4974;0.7244;
973.8000;0.4908;0.7128;
974.1000;0.4941;0.7128;
974.4000;0.4917;0.7035;
974.7000;0.4933;0.7105;
975.0000;0.4965;0.7152;
975.3000;0.4917;0.7012;
975.6000;0.4892;0.7012;
975.9000;0.4876;0.6943;
976.2000;0.4925;0.7012;
976.5000;0.4982;0.7035;
976.8000;0.4990;0.7128;
977.1000;0.4933;0.6989;
977.4000;0.4941;0.7035;
977.7000;0.4908;0.7012;
978.0000;0.4925;0.7105;
978.3000;0.4917;0.7059;
978.6000;0.4941;0.7059;
978.9000;0.4974;0.7152;
979.2000;0.4908;0.7035;
979.5000;0.4965;0.7175;
979.8000;0.4908;0.7152;
980.1000;0.4819;0.6966;
980.4000;0.4908;0.7198;
980.7000;0.4917;0.7152;
981.0000;0.4949;0.7128;
981.3000;0.4933;0.7128;
981.6000;0.4884;0.7012;
981.9000;0.4941;0.7198;
982.2000;0.4933;0.7059;
982.5000;0.4941;0.7105;
982.8000;0.4933;0.7128;
983.1000;0.4933;0.7175;
983.4000;0.4900;0.7059;
983.7000;0.4933;0.7082;
984.0000;0.4892;0.6919;
984.3000;0.4941;0.7082;
984.6000;0.4925;0.7221;
984.9000;0.4941;0.7291;
985.2000;0.4957;0.7314;
985.5000;0.4925;0.7152;
985.8000;0.4892;0.7105;
986.1000;0.4941;0.7221;
986.4000;0.4933;0.7105;
986.7000;0.5006;0.7244;
987.0000;0.4998;0.7198;
987.3000;0.4925;0.7035;
987.6000;0.4949;0.7082;
987.9000;0.4900;0.6943;
988.2000;0.4933;0.6966;
988.5000;0.4933;0.7059;
988.8000;0.4933;0.7012;
989.1000;0.4917;0.7012;
989.4000;0.4933;0.7082;
989.7000;0.4900;0.7082;
990.0000;0.4974;0.7152;
990.3000;0.4925;0.6896;
990.6000;0.4941;0.6826;
990.9000;0.4941;0.6780;
991.2000;0.4941;0.6826;
991.5000;0.4941;0.6780;
991.8000;0.4925;0.6757;
992.1000;0.4974;0.6896;
992.4000;0.4949;0.6989;
992.7000;0.4957;0.7059;
993.0000;0.4965;0.7105;
993.3000;0.4941;0.6989;
993.6000;0.4949;0.7035;
993.9000;0.4900;0.6873;
994.2000;0.4908;0.6989;
994.5000;0.4925;0.7059;
994.8000;0.4908;0.7082;
995.1000;0.4933;0.7128;
995.4000;0.4941;0.7128;
995.7000;0.4892;0.7059;
996.0000;0.4933;0.7082;
996.3000;0.4965;0.7152;
996.6000;0.4925;0.7082;
996.9000;0.4965;0.7198;
997.2000;0.4941;0.7198;
997.5000;0.4933;0.7175;
997.8000;0.4965;0.7198;
998.1000;0.4941;0.7152;
998.4000;0.4933;0.7175;
998.7000;0.4892;0.7059;
999.0000;0.4941;0.7175;
999.3000;0.4933;0.7198;
999.6000;0.4949;0.7198;
999.9000;0.4941;0.7244;
1000.2000;0.4949;0.7221;
1000.5000;0.4925;0.7128;
1000.8000;0.4917;0.7105;
1001.1000;0.4917;0.7128;
1001.4000;0.4917;0.7175;
1001.7000;0.4933;0.7198;
1002.0000;0.4957;0.7198;
1002.3000;0.4819;0.6850;
1002.6000;0.4933;0.7221;
1002.9000;0.4949;0.7291;
1003.2000;0.4965;0.7221;
1003.5000;0.4925;0.7221;
1003.8000;0.4949;0.7314;
1004.1000;0.4933;0.7244;
1004.4000;0.4933;0.7175;
1004.7000;0.4933;0.7198;
1005.0000;0.4892;0.7268;
1005.3000;0.4941;0.7337;
1005.6000;0.4933;0.7268;
1005.9000;0.4941;0.7314;
1006.2000;0.4917;0.7198;
1006.5000;0.4941;0.7152;
1006.8000;0.4974;0.7198;
1007.1000;0.4965;0.7244;
1007.4000;0.4933;0.7244;
1007.7000;0.4941;0.7268;
1008.0000;0.5031;0.7407;
1008.3000;0.4908;0.7128;
1008.6000;0.4917;0.7152;
1008.9000;0.4933;0.7128;
1009.2000;0.4941;0.7105;
1009.5000;0.4884;0.7035;
1009.8000;0.4917;0.7128;
1010.1000;0.4917;0.7128;
1010.4000;0.4949;0.7198;
1010.7000;0.4917;0.7059;
1011.0000;0.4957;0.7198;
1011.3000;0.4908;0.7128;
1011.6000;0.4917;0.7059;
1011.9000;0.4933;0.7012;
1012.2000;0.4949;0.7152;
1012.5000;0.4908;0.6989;
1012.8000;0.4925;0.6943;
1013.1000;0.4949;0.6943;
1013.4000;0.4933;0.6966;
1013.7000;0.4941;0.6966;
1014.0000;0.4949;0.7059;
1014.3000;0.4892;0.6896;
1014.6000;0.4900;0.6943;
1014.9000;0.4917;0.7059;
1015.2000;0.4941;0.7175;
1015.5000;0.4925;0.7105;
1015.8000;0.4933;0.7082;
1016.1000;0.4982;0.7221;
1016.4000;0.4925;0.7105;
1016.7000;0.4933;0.7059;
1017.0000;0.4941;0.7012;
1017.3000;0.4908;0.6873;
1017.6000;0.4917;0.6896;
1017.9000;0.4925;0.6966;
1018.2000;0.4917;0.6943;
1018.5000;0.4908;0.6989;
1018.8000;0.4933;0.7035;
1019.1000;0.4933;0.7012;
1019.4000;0.4990;0.7152;
1019.7000;0.4925;0.7082;
1020.0000;0.4908;0.7059;
1020.3000;0.4941;0.7059;
1020.6000;0.4941;0.7082;
1020.9000;0.4925;0.7082;
1021.2000;0.4917;0.6989;
1021.5000;0.4941;0.7128;
1021.8000;0.4925;0.7128;
1022.1000;0.4933;0.6966;
1022.4000;0.4957;0.7059;
1022.7000;0.4933;0.6943;
1023.0000;0.4925;0.6919;
1023.3000;0.4982;0.7198;
1023.6000;0.4941;0.7152;
1023.9000;0.4957;0.7175;
1024.2000;0.4949;0.7082;
1024.5000;0.4949;0.7012;
1024.8000;0.4925;0.7105;
1025.1000;0.4917;0.7059;
1025.4000;0.4949;0.7152;
1025.7000;0.4941;0.7082;
1026.0000;0.4957;0.7059;
1026.3000;0.4917;0.6989;
1026.6000;0.4900;0.7035;
1026.9000;0.4925;0.7198;
1027.2000;0.4892;0.7082;
1027.5000;0.4917;0.7152;
1027.8000;0.4908;0.7128;
1028.1000;0.4892;0.7175;
1028.4000;0.4941;0.7291;
1028.7000;0.4933;0.7244;
1029.0000;0.4933;0.7175;
1029.3000;0.4925;0.7105;
1029.6000;0.4917;0.7012;
1029.9000;0.4876;0.6803;
1030.2000;0.4925;0.6873;
1030.5000;0.4925;0.6826;
1030.8000;0.4925;0.6896;
1031.1000;0.4941;0.6989;
1031.4000;0.4908;0.7082;
1031.7000;0.4908;0.7105;
1032.0000;0.4876;0.6966;
1032.3000;0.4908;0.7012;
1032.6000;0.4925;0.6943;
1032.9000;0.4917;0.6896;
1033.2000;0.4884;0.6803;
1033.5000;0.4949;0.7012;
1033.8000;0.4925;0.6919;
1034.1000;0.4917;0.6943;
1034.4000;0.4965;0.7105;
1034.7000;0.4925;0.7059;
1035.0000;0.4925;0.6943;
1035.3000;0.4941;0.6919;
1035.6000;0.4925;0.6826;
1035.9000;0.4933;0.6896;
1036.2000;0.4933;0.6943;
1036.5000;0.4917;0.6919;
1036.8000;0.4949;0.7082;
1037.1000;0.4925;0.7082;
1037.4000;0.4941;0.7175;
1037.7000;0.4933;0.7175;
1038.0000;0.4933;0.7128;
1038.3000;0.4908;0.6989;
1038.6000;0.4949;0.7035;
1038.9000;0.4933;0.7012;
1039.2000;0.4900;0.6896;
1039.5000;0.4908;0.6943;
1039.8000;0.4917;0.6989;
1040.1000;0.4900;0.6943;
1040.4000;0.4908;0.6919;
1040.7000;0.4908;0.6966;
1041.0000;0.4949;0.7059;
1041.3000;0.4949;0.7059;
1041.6000;0.4900;0.6989;
1041.9000;0.4917;0.7012;
1042.2000;0.4917;0.7012;
1042.5000;0.4925;0.7059;
1042.8000;0.4925;0.7128;
1043.1000;0.4917;0.7082;
1043.4000;0.4917;0.7128;
1043.7000;0.4933;0.7128;
1044.0000;0.4933;0.7152;
1044.3000;0.4900;0.7035;
1044.6000;0.4925;0.7105;
1044.9000;0.4933;0.7128;
1045.2000;0.4941;0.7198;
1045.5000;0.4925;0.7059;
1045.8000;0.4965;0.7059;
1046.1000;0.4941;0.6943;
1046.4000;0.4949;0.6896;
1046.7000;0.4933;0.6896;
1047.0000;0.4925;0.6850;
1047.3000;0.4917;0.6850;
1047.6000;0.4917;0.6850;
1047.9000;0.4876;0.6780;
1048.2000;0.4949;0.6919;
1048.5000;0.4925;0.6896;
1048.8000;0.4941;0.6873;
1049.1000;0.4917;0.6873;
1049.4000;0.4835;0.6710;
1049.7000;0.4908;0.6873;
1050.0000;0.4925;0.6850;
1050.3000;0.4925;0.6826;
1050.6000;0.4941;0.6850;
1050.9000;0.4917;0.6826;
1051.2000;0.4982;0.6966;
1051.5000;0.4933;0.6826;
1051.8000;0.4900;0.6757;
1052.1000;0.4917;0.6850;
1052.4000;0.4908;0.6826;
1052.7000;0.4908;0.6850;
1053.0000;0.4933;0.6896;
1053.3000;0.4917;0.6919;
1053.6000;0.4925;0.7035;
1053.9000;0.4908;0.7059;
1054.2000;0.4949;0.7175;
1054.5000;0.4941;0.7198;
1054.8000;0.4908;0.7105;
1055.1000;0.4917;0.7152;
1055.4000;0.4941;0.7128;
1055.7000;0.4941;0.7152;
1056.0000;0.4868;0.6896;
1056.3000;0.4925;0.6919;
1056.6000;0.4925;0.6896;
1056.9000;0.4908;0.6850;
1057.2000;0.4917;0.6850;
1057.5000;0.4925;0.6966;
1057.8000;0.4941;0.6919;
1058.1000;0.4941;0.6873;
1058.4000;0.4917;0.6896;
1058.7000;0.4933;0.6803;
1059.0000;0.4941;0.6919;
1059.3000;0.4933;0.6803;
1059.6000;0.4941;0.6826;
1059.9000;0.4941;0.6826;
1060.2000;0.4933;0.6826;
1060.5000;0.4933;0.6780;
1060.8000;0.4933;0.6873;
1061.1000;0.4908;0.6803;
1061.4000;0.4925;0.6803;
1061.7000;0.4933;0.6826;
1062.0000;0.4917;0.6966;
1062.3000;0.4933;0.7035;
1062.6000;0.4933;0.7035;
1062.9000;0.4933;0.7035;
1063.2000;0.4933;0.6989;
1063.5000;0.4925;0.6989;
1063.8000;0.4925;0.6966;
1064.1000;0.4933;0.7035;
1064.4000;0.4917;0.7012;
1064.7000;0.4900;0.7105;
1065.0000;0.4908;0.7175;
1065.3000;0.4892;0.7105;
1065.6000;0.4917;0.7198;
1065.9000;0.4908;0.7152;
1066.2000;0.4900;0.7128;
1066.5000;0.4917;0.7198;
1066.8000;0.4908;0.7198;
1067.1000;0.4884;0.7152;
1067.4000;0.4908;0.7152;
1067.7000;0.4933;0.7198;
1068.0000;0.4933;0.7221;
1068.3000;0.4917;0.7152;
1068.6000;0.4925;0.7059;
1068.9000;0.4933;0.7082;
1069.2000;0.4933;0.7035;
1069.5000;0.4925;0.7012;
1069.8000;0.4908;0.6966;
1070.1000;0.4925;0.7012;
1070.4000;0.4933;0.6943;
1070.7000;0.4933;0.6989;
1071.0000;0.4925;0.6943;
1071.3000;0.4908;0.7059;
1071.6000;0.4900;0.7059;
1071.9000;0.4917;0.7059;
1072.2000;0.4933;0.7105;
1072.5000;0.4941;0.7152;
1072.8000;0.4941;0.7198;
1073.1000;0.4917;0.7198;
1073.4000;0.4974;0.7244;
1073.7000;0.4900;0.7012;
1074.0000;0.4908;0.7035;
1074.3000;0.4908;0.7128;
1074.6000;0.4949;0.7198;
1074.9000;0.4900;0.7059;
1075.2000;0.4925;0.7105;
1075.5000;0.4949;0.7082;
1075.8000;0.4892;0.6873;
1076.1000;0.4925;0.7012;
1076.4000;0.4908;0.6943;
1076.7000;0.4925;0.6989;
1077.0000;0.4908;0.7035;
1077.3000;0.4925;0.7082;
1077.6000;0.4925;0.7012;
1077.9000;0.4925;0.7035;
1078.2000;0.4917;0.7012;
1078.5000;0.4908;0.7059;
1078.8000;0.4965;0.7152;
1079.1000;0.4908;0.7059;
1079.4000;0.4917;0.6989;
1079.7000;0.4933;0.7012;
1080.0000;0.4917;0.6873;
1080.3000;0.4941;0.6850;
1080.6000;0.4941;0.6826;
1080.9000;0.4949;0.6896;
1081.2000;0.4925;0.7012;
1081.5000;0.4933;0.6966;
1081.8000;0.4933;0.7082;
1082.1000;0.4908;0.7082;
1082.4000;0.4933;0.7059;
1082.7000;0.4908;0.7128;
1083.0000;0.4941;0.7175;
1083.3000;0.4925;0.7221;
1083.6000;0.4892;0.7128;
1083.9000;0.4933;0.7175;
1084.2000;0.4900;0.7035;
1084.5000;0.4933;0.7152;
1084.8000;0.4917;0.7105;
1085.1000;0.4965;0.7221;
1085.4000;0.4917;0.7128;
1085.7000;0.4908;0.7175;
1086.0000;0.4917;0.7198;
1086.3000;0.4908;0.7105;
1086.6000;0.4917;0.7175;
1086.9000;0.4908;0.7384;
1087.2000;0.4925;0.7384;
1087.5000;0.4908;0.7384;
1087.8000;0.4868;0.7175;
1088.1000;0.4917;0.7221;
1088.4000;0.4876;0.7128;
1088.7000;0.4917;0.7128;
1089.0000;0.4917;0.7152;
1089.3000;0.4908;0.7221;
1089.6000;0.4925;0.7291;
1089.9000;0.4900;0.7198;
1090.2000;0.4908;0.7221;
1090.5000;0.4917;0.7175;
1090.8000;0.4917;0.7244;
1091.1000;0.4982;0.7430;
1091.4000;0.4925;0.7268;
1091.7000;0.4933;0.7244;
1092.0000;0.4900;0.7244;
1092.3000;0.4908;0.7152;
1092.6000;0.4917;0.7059;
1092.9000;0.4949;0.7198;
1093.2000;0.4941;0.7128;
1093.5000;0.5047;0.7384;
1093.8000;0.4933;0.7105;
1094.1000;0.4933;0.7152;
1094.4000;0.4884;0.6989;
1094.7000;0.4925;0.7105;
1095.0000;0.4900;0.7128;
1095.3000;0.4917;0.7221;
1095.6000;0.4908;0.7244;
1095.9000;0.4965;0.7268;
1096.2000;0.4965;0.7244;
1096.5000;0.4900;0.7128;
1096.8000;0.4917;0.7105;
1097.1000;0.4990;0.7175;
1097.4000;0.4917;0.6919;
1097.7000;0.4957;0.7059;
1098.0000;0.4917;0.7082;
1098.3000;0.4892;0.7012;
1098.6000;0.4908;0.7012;
1098.9000;0.4892;0.6896;
1099.2000;0.4917;0.6943;
1099.5000;0.4925;0.6989;
1099.8000;0.4917;0.7105;
1100.1000;0.4917;0.7152;
1100.4000;0.4917;0.7175;
1100.7000;0.4827;0.6803;
1101.0000;0.4933;0.7128;
1101.3000;0.4933;0.7198;
1101.6000;0.4908;0.7221;
1101.9000;0.4908;0.7244;
1102.2000;0.4925;0.7198;
1102.5000;0.4900;0.7035;
1102.8000;0.4949;0.7012;
1103.1000;0.4965;0.7035;
1103.4000;0.4917;0.6873;
1103.7000;0.4933;0.6919;
1104.0000;0.4827;0.6803;
1104.3000;0.4998;0.7105;
1104.6000;0.4933;0.7035;
1104.9000;0.4941;0.6943;
1105.2000;0.4917;0.6826;
1105.5000;0.4982;0.6873;
1105.8000;0.4957;0.6780;
1106.1000;0.4974;0.6919;
1106.4000;0.4941;0.6873;
1106.7000;0.4908;0.6873;
1107.0000;0.4925;0.6919;
1107.3000;0.4917;0.6850;
1107.6000;0.4933;0.6943;
1107.9000;0.4933;0.7035;
1108.2000;0.4925;0.7012;
1108.5000;0.4941;0.7059;
1108.8000;0.4941;0.7128;
1109.1000;0.4892;0.7012;
1109.4000;0.4908;0.6989;
1109.7000;0.4917;0.7035;
1110.0000;0.4925;0.7105;
1110.3000;0.4884;0.6966;
1110.6000;0.4917;0.6989;
1110.9000;0.4925;0.7059;
1111.2000;0.4917;0.7152;
1111.5000;0.4917;0.7152;
1111.8000;0.4941;0.7244;
1112.1000;0.4917;0.7198;
1112.4000;0.4908;0.7244;
1112.7000;0.4917;0.7152;
1113.0000;0.4925;0.7059;
1113.3000;0.4933;0.7198;
1113.6000;0.4933;0.7128;
1113.9000;0.4892;0.6919;
1114.2000;0.4941;0.7059;
1114.5000;0.4908;0.6850;
1114.8000;0.4933;0.6966;
1115.1000;0.4917;0.7012;
1115.4000;0.4917;0.7128;
1115.7000;0.4908;0.7175;
1116.0000;0.4900;0.7105;
1116.3000;0.4917;0.7221;
1116.6000;0.4925;0.7268;
1116.9000;0.4957;0.7198;
1117.2000;0.4933;0.7175;
1117.5000;0.4908;0.7152;
1117.8000;0.4917;0.7268;
1118.1000;0.4917;0.7198;
1118.4000;0.4965;0.7361;
1118.7000;0.4851;0.6989;
1119.0000;0.4925;0.7175;
1119.3000;0.4908;0.7175;
1119.6000;0.4860;0.7082;
1119.9000;0.4965;0.7337;
1120.2000;0.4941;0.7314;
1120.5000;0.4941;0.7268;
1120.8000;0.4900;0.7059;
1121.1000;0.4957;0.7198;
1121.4000;0.4941;0.7268;
1121.7000;0.4892;0.7221;
1122.0000;0.4933;0.7291;
1122.3000;0.4933;0.7268;
1122.6000;0.4925;0.7198;
1122.9000;0.4998;0.7361;
1123.2000;0.4843;0.6989;
1123.5000;0.4925;0.7268;
1123.8000;0.4908;0.7337;
1124.1000;0.4917;0.7291;
1124.4000;0.4900;0.7221;
1124.7000;0.4917;0.7314;
1125.0000;0.4884;0.7105;
1125.3000;0.4949;0.7152;
1125.6000;0.4933;0.7244;
1125.9000;0.4933;0.7198;
1126.2000;0.4933;0.7152;
1126.5000;0.4941;0.7082;
1126.8000;0.4892;0.6943;
1127.1000;0.4941;0.7175;
1127.4000;0.4925;0.7175;
1127.7000;0.4917;0.7128;
1128.0000;0.4933;0.7175;
1128.3000;0.4941;0.7198;
1128.6000;0.4892;0.7059;
1128.9000;0.4933;0.7198;
1129.2000;0.4949;0.7268;
1129.5000;0.4917;0.7221;
1129.8000;0.4925;0.7198;
1130.1000;0.4900;0.7244;
1130.4000;0.4892;0.7268;
1130.7000;0.4900;0.7221;
1131.0000;0.4892;0.7105;
1131.3000;0.4908;0.7152;
1131.6000;0.4908;0.7175;
1131.9000;0.4908;0.7105;
1132.2000;0.4917;0.7175;
1132.5000;0.4917;0.7268;
1132.8000;0.4925;0.7361;
1133.1000;0.4908;0.7198;
1133.4000;0.4908;0.7082;
1133.7000;0.4908;0.7035;
1134.0000;0.4900;0.7059;
1134.3000;0.4835;0.6873;
1134.6000;0.4925;0.7082;
1134.9000;0.4917;0.7105;
1135.2000;0.4908;0.7105;
1135.5000;0.4908;0.7175;
1135.8000;0.4917;0.7198;
1136.1000;0.4908;0.7175;
1136.4000;0.4917;0.7105;
1136.7000;0.4965;0.7221;
1137.0000;0.4917;0.7175;
1137.3000;0.4908;0.7105;
1137.6000;0.4917;0.7059;
1137.9000;0.4884;0.7082;
1138.2000;0.4957;0.7244;
1138.5000;0.4933;0.7128;
1138.8000;0.4933;0.7152;
1139.1000;0.4925;0.7175;
1139.4000;0.4933;0.7105;
1139.7000;0.4908;0.7059;
1140.0000;0.4851;0.6896;
1140.3000;0.4835;0.6966;
1140.6000;0.4900;0.7035;
1140.9000;0.4949;0.7059;
1141.2000;0.4908;0.7012;
1141.5000;0.4908;0.6966;
1141.8000;0.4925;0.7012;
1142.1000;0.4917;0.7035;
1142.4000;0.4933;0.7198;
1142.7000;0.4900;0.7152;
1143.0000;0.4892;0.7175;
1143.3000;0.4941;0.7291;
1143.6000;0.4908;0.7198;
1143.9000;0.4892;0.7152;
1144.2000;0.4917;0.7152;
1144.5000;0.4933;0.7221;
1144.8000;0.4974;0.7268;
1145.1000;0.4925;0.7059;
1145.4000;0.4933;0.7152;
1145.7000;0.4900;0.7059;
1146.0000;0.4925;0.7082;
1146.3000;0.4892;0.7035;
1146.6000;0.4908;0.6989;
1146.9000;0.4998;0.7291;
1147.2000;0.4957;0.7244;
1147.5000;0.4925;0.7221;
1147.8000;0.4908;0.7221;
1148.1000;0.4900;0.7059;
1148.4000;0.4974;0.7268;
1148.7000;0.4925;0.7198;
1149.0000;0.4917;0.7175;
1149.3000;0.4908;0.7152;
1149.6000;0.4957;0.7244;
1149.9000;0.4974;0.7314;
1150.2000;0.4917;0.7175;
1150.5000;0.4860;0.7082;
1150.8000;0.4917;0.7244;
1151.1000;0.4917;0.7175;
1151.4000;0.4900;0.7059;
1151.7000;0.4908;0.7105;
1152.0000;0.4925;0.7175;
1152.3000;0.4925;0.7128;
1152.6000;0.5022;0.7268;
1152.9000;0.4925;0.6966;
1153.2000;0.4900;0.6919;
1153.5000;0.4917;0.7035;
1153.8000;0.4884;0.7012;
1154.1000;0.4908;0.7012;
1154.4000;0.4908;0.6943;
1154.7000;0.4917;0.6943;
1155.0000;0.4892;0.6896;
1155.3000;0.4917;0.6919;
1155.6000;0.4900;0.6873;
1155.9000;0.4933;0.7012;
1156.2000;0.4917;0.6989;
1156.5000;0.4917;0.6896;
1156.8000;0.4892;0.6896;
1157.1000;0.4908;0.6919;
1157.4000;0.4925;0.6826;
1157.7000;0.4917;0.6850;
1158.0000;0.4925;0.6896;
1158.3000;0.4868;0.6734;
1158.6000;0.4925;0.6943;
1158.9000;0.4933;0.6896;
1159.2000;0.4925;0.6734;
1159.5000;0.4908;0.6664;
1159.8000;0.4925;0.6641;
1160.1000;0.4925;0.6641;
1160.4000;0.4917;0.6757;
1160.7000;0.4908;0.6826;
1161.0000;0.4908;0.6873;
1161.3000;0.4908;0.6873;
1161.6000;0.4941;0.6896;
1161.9000;0.4941;0.6943;
1162.2000;0.4933;0.6919;
1162.5000;0.4949;0.7012;
1162.8000;0.4941;0.6966;
1163.1000;0.4876;0.6873;
1163.4000;0.4908;0.6943;
1163.7000;0.4941;0.6966;
1164.0000;0.4908;0.6919;
1164.3000;0.4941;0.6989;
1164.6000;0.4908;0.6826;
1164.9000;0.4884;0.6826;
1165.2000;0.4827;0.6734;
1165.5000;0.4917;0.6966;
1165.8000;0.4884;0.6943;
1166.1000;0.4851;0.6896;
1166.4000;0.4925;0.6989;
1166.7000;0.4917;0.6966;
1167.0000;0.4900;0.6943;
1167.3000;0.4933;0.6989;
1167.6000;0.4925;0.6943;
1167.9000;0.4933;0.7035;
1168.2000;0.4949;0.7012;
1168.5000;0.4917;0.6966;
1168.8000;0.4917;0.7035;
1169.1000;0.4941;0.6989;
1169.4000;0.4933;0.6966;
1169.7000;0.4925;0.6919;
1170.0000;0.4819;0.6664;
1170.3000;0.4933;0.6873;
1170.6000;0.4908;0.6826;
1170.9000;0.4908;0.6803;
1171.2000;0.4917;0.6826;
1171.5000;0.4892;0.6826;
1171.8000;0.4917;0.6803;
1172.1000;0.4892;0.6803;
1172.4000;0.4917;0.6919;
1172.7000;0.4933;0.6873;
1173.0000;0.4933;0.6896;
1173.3000;0.4908;0.6873;
1173.6000;0.4900;0.6919;
1173.9000;0.4941;0.7059;
1174.2000;0.4925;0.7059;
1174.5000;0.4900;0.6989;
1174.8000;0.4925;0.6989;
1175.1000;0.4933;0.6966;
1175.4000;0.4835;0.6710;
1175.7000;0.4925;0.6943;
1176.0000;0.4908;0.6896;
1176.3000;0.4900;0.6943;
1176.6000;0.4917;0.6896;
1176.9000;0.4917;0.6919;
1177.2000;0.4925;0.7035;
1177.5000;0.4908;0.6919;
1177.8000;0.4917;0.6873;
1178.1000;0.4908;0.6919;
1178.4000;0.4892;0.6919;
1178.7000;0.4892;0.6803;
1179.0000;0.4941;0.6850;
1179.3000;0.4908;0.6687;
1179.6000;0.4925;0.6826;
1179.9000;0.4917;0.6826;
1180.2000;0.4876;0.6618;
1180.5000;0.4941;0.6780;
1180.8000;0.4917;0.6687;
1181.1000;0.4860;0.6525;
1181.4000;0.4900;0.6664;
1181.7000;0.4900;0.6757;
1182.0000;0.4900;0.6826;
1182.3000;0.4900;0.6780;
1182.6000;0.4917;0.6780;
1182.9000;0.4925;0.6826;
1183.2000;0.4884;0.6687;
1183.5000;0.4908;0.6757;
1183.8000;0.4884;0.6710;
1184.1000;0.4917;0.6594;
1184.4000;0.4917;0.6641;
1184.7000;0.4908;0.6664;
1185.0000;0.4917;0.6687;
1185.3000;0.4925;0.6710;
1185.6000;0.4908;0.6687;
1185.9000;0.4917;0.6710;
1186.2000;0.4917;0.6710;
1186.5000;0.4900;0.6641;
1186.8000;0.4917;0.6641;
1187.1000;0.4917;0.6664;
1187.4000;0.4917;0.6594;
1187.7000;0.4925;0.6618;
1188.0000;0.4933;0.6687;
1188.3000;0.4933;0.6687;
1188.6000;0.4892;0.6687;
1188.9000;0.4876;0.6664;
1189.2000;0.4990;0.6966;
1189.5000;0.4917;0.6826;
1189.8000;0.4941;0.6780;
1190.1000;0.4900;0.6571;
1190.4000;0.4925;0.6710;
1190.7000;0.4917;0.6826;
1191.0000;0.4917;0.6826;
1191.3000;0.4925;0.6896;
1191.6000;0.4917;0.6710;
1191.9000;0.4908;0.6757;
1192.2000;0.4917;0.6780;
1192.5000;0.4933;0.6734;
1192.8000;0.4917;0.6664;
1193.1000;0.4908;0.6710;
1193.4000;0.4941;0.6757;
1193.7000;0.4933;0.6664;
1194.0000;0.4917;0.6664;
1194.3000;0.4925;0.6664;
1194.6000;0.4933;0.6525;
1194.9000;0.4892;0.6409;
1195.2000;0.4900;0.6501;
1195.5000;0.4974;0.6757;
1195.8000;0.4908;0.6641;
1196.1000;0.4900;0.6687;
1196.4000;0.4876;0.6548;
1196.7000;0.4900;0.6664;
1197.0000;0.4835;0.6618;
1197.3000;0.4917;0.6664;
1197.6000;0.4876;0.6571;
1197.9000;0.4819;0.6385;
1198.2000;0.4933;0.6664;
1198.5000;0.4884;0.6618;
1198.8000;0.4892;0.6641;
1199.1000;0.4917;0.6664;
1199.4000;0.4900;0.6618;
1199.7000;0.4917;0.6594;
1200.0000;0.4925;0.6710;
1200.3000;0.4917;0.6734;
1200.6000;0.4917;0.6710;
1200.9000;0.4925;0.6710;
1201.2000;0.4925;0.6803;
1201.5000;0.4917;0.6873;
1201.8000;0.4900;0.6873;
1202.1000;0.4900;0.6850;
1202.4000;0.4892;0.6826;
1202.7000;0.4876;0.6780;
1203.0000;0.4917;0.6873;
1203.3000;0.4917;0.6850;
1203.6000;0.4917;0.6896;
1203.9000;0.4908;0.6850;
1204.2000;0.4819;0.6641;
1204.5000;0.4917;0.6803;
1204.8000;0.4925;0.6803;
1205.1000;0.4884;0.6780;
1205.4000;0.4892;0.6803;
1205.7000;0.4908;0.6826;
1206.0000;0.4917;0.6780;
1206.3000;0.4908;0.6850;
1206.6000;0.4900;0.6803;
1206.9000;0.4900;0.6757;
1207.2000;0.4843;0.6618;
1207.5000;0.4917;0.6757;
1207.8000;0.4933;0.6803;
1208.1000;0.4917;0.6710;
1208.4000;0.4933;0.6734;
1208.7000;0.4900;0.6664;
1209.0000;0.4908;0.6710;
1209.3000;0.4925;0.6687;
1209.6000;0.4925;0.6687;
1209.9000;0.4933;0.6618;
1210.2000;0.4900;0.6525;
1210.5000;0.4908;0.6548;
1210.8000;0.4900;0.6525;
1211.1000;0.4900;0.6548;
1211.4000;0.4925;0.6687;
1211.7000;0.4900;0.6664;
1212.0000;0.4868;0.6525;
1212.3000;0.4949;0.6780;
1212.6000;0.4900;0.6687;
1212.9000;0.4892;0.6618;
1213.2000;0.4819;0.6432;
1213.5000;0.4908;0.6594;
1213.8000;0.4900;0.6501;
1214.1000;0.4917;0.6525;
1214.4000;0.4933;0.6618;
1214.7000;0.4925;0.6618;
1215.0000;0.4941;0.6664;
1215.3000;0.4908;0.6664;
1215.6000;0.4925;0.6780;
1215.9000;0.4868;0.6618;
1216.2000;0.4933;0.6803;
1216.5000;0.4908;0.6734;
1216.8000;0.4908;0.6850;
1217.1000;0.4900;0.6757;
1217.4000;0.4892;0.6757;
1217.7000;0.4843;0.6641;
1218.0000;0.4933;0.6919;
1218.3000;0.4868;0.6710;
1218.6000;0.4917;0.6803;
1218.9000;0.4908;0.6710;
1219.2000;0.4925;0.6757;
1219.5000;0.4884;0.6641;
1219.8000;0.4917;0.6664;
1220.1000;0.4900;0.6641;
1220.4000;0.4868;0.6594;
1220.7000;0.4908;0.6618;
1221.0000;0.4908;0.6525;
1221.3000;0.4941;0.6641;
1221.6000;0.4925;0.6687;
1221.9000;0.4925;0.6757;
1222.2000;0.4933;0.6850;
1222.5000;0.4941;0.6943;
1222.8000;0.4949;0.6919;
1223.1000;0.4925;0.6757;
1223.4000;0.4917;0.6734;
1223.7000;0.4917;0.6826;
1224.0000;0.4900;0.6757;
1224.3000;0.4908;0.6641;
1224.6000;0.4908;0.6664;
1224.9000;0.4917;0.6687;
1225.2000;0.4868;0.6525;
1225.5000;0.4917;0.6757;
1225.8000;0.4917;0.6803;
1226.1000;0.4908;0.6780;
1226.4000;0.4917;0.6687;
1226.7000;0.4925;0.6757;
1227.0000;0.4933;0.6710;
1227.3000;0.4925;0.6734;
1227.6000;0.4917;0.6734;
1227.9000;0.4925;0.6734;
1228.2000;0.4917;0.6734;
1228.5000;0.4908;0.6664;
1228.8000;0.4925;0.6780;
1229.1000;0.4925;0.6873;
1229.4000;0.4933;0.6943;
1229.7000;0.4908;0.6943;
1230.0000;0.4933;0.6989;
1230.3000;0.4917;0.6943;
1230.6000;0.4925;0.7059;
1230.9000;0.4884;0.6919;
1231.2000;0.4917;0.6896;
1231.5000;0.4917;0.6943;
1231.8000;0.4917;0.6826;
1232.1000;0.4925;0.6803;
1232.4000;0.4933;0.6803;
1232.7000;0.4908;0.6826;
1233.0000;0.4917;0.6803;
1233.3000;0.4884;0.6850;
1233.6000;0.4917;0.6850;
1233.9000;0.4941;0.6943;
1234.2000;0.4925;0.6896;
1234.5000;0.4917;0.6873;
1234.8000;0.4925;0.6757;
1235.1000;0.4892;0.6710;
1235.4000;0.4908;0.6780;
1235.7000;0.4908;0.6850;
1236.0000;0.4884;0.6826;
1236.3000;0.4917;0.6943;
1236.6000;0.4925;0.7035;
1236.9000;0.4941;0.7035;
1237.2000;0.4965;0.7082;
1237.5000;0.4917;0.6850;
1237.8000;0.4990;0.6943;
1238.1000;0.4917;0.6896;
1238.4000;0.4925;0.6943;
1238.7000;0.4925;0.6896;
1239.0000;0.4933;0.6850;
1239.3000;0.4917;0.6803;
1239.6000;0.4925;0.6803;
1239.9000;0.4925;0.6850;
1240.2000;0.4908;0.6803;
1240.5000;0.4925;0.6943;
1240.8000;0.4941;0.6873;
1241.1000;0.4900;0.6803;
1241.4000;0.4917;0.6734;
1241.7000;0.4900;0.6687;
1242.0000;0.4917;0.6734;
1242.3000;0.4982;0.6989;
1242.6000;0.4941;0.6989;
1242.9000;0.4917;0.6966;
1243.2000;0.4900;0.6850;
1243.5000;0.4892;0.6873;
1243.8000;0.4925;0.6873;
1244.1000;0.4917;0.6850;
1244.4000;0.4876;0.6850;
1244.7000;0.4876;0.6873;
1245.0000;0.4917;0.6919;
1245.3000;0.4908;0.6850;
1245.6000;0.4917;0.6896;
1245.9000;0.4900;0.6850;
1246.2000;0.4974;0.6966;
1246.5000;0.4908;0.6919;
1246.8000;0.4900;0.6896;
1247.1000;0.4925;0.6850;
1247.4000;0.4908;0.6757;
1247.7000;0.4900;0.6710;
1248.0000;0.4917;0.6780;
1248.3000;0.4949;0.6803;
1248.6000;0.4917;0.6873;
1248.9000;0.4908;0.6896;
1249.2000;0.4925;0.6896;
1249.5000;0.4900;0.6826;
1249.8000;0.4900;0.6803;
1250.1000;0.4900;0.6826;
1250.4000;0.4908;0.6826;
1250.7000;0.4908;0.6757;
1251.0000;0.4908;0.6734;
1251.3000;0.4892;0.6850;
1251.6000;0.4908;0.6873;
1251.9000;0.4900;0.6943;
1252.2000;0.4974;0.7128;
1252.5000;0.4925;0.7012;
1252.8000;0.4908;0.7082;
1253.1000;0.4900;0.7012;
1253.4000;0.4892;0.6989;
1253.7000;0.4900;0.6943;
1254.0000;0.4868;0.6943;
1254.3000;0.4900;0.7059;
1254.6000;0.4908;0.6966;
1254.9000;0.4908;0.6919;
1255.2000;0.4933;0.6896;
1255.5000;0.4998;0.7128;
1255.8000;0.4933;0.6966;
1256.1000;0.4941;0.6919;
1256.4000;0.4892;0.6873;
1256.7000;0.4892;0.6966;
1257.0000;0.4884;0.6966;
1257.3000;0.4884;0.6943;
1257.6000;0.4900;0.7035;
1257.9000;0.4965;0.7175;
1258.2000;0.4933;0.7175;
1258.5000;0.4908;0.7059;
1258.8000;0.4908;0.7105;
1259.1000;0.4884;0.7082;
1259.4000;0.4900;0.7059;
1259.7000;0.4917;0.7128;
1260.0000;0.4908;0.7128;
1260.3000;0.4933;0.7175;
1260.6000;0.4917;0.7105;
1260.9000;0.4949;0.7128;
1261.2000;0.4884;0.6989;
1261.5000;0.4908;0.6966;
1261.8000;0.4892;0.6873;
1262.1000;0.4917;0.6966;
1262.4000;0.4941;0.7012;
1262.7000;0.4908;0.6943;
1263.0000;0.4925;0.6989;
1263.3000;0.4908;0.7082;
1263.6000;0.4933;0.7175;
1263.9000;0.4900;0.7105;
1264.2000;0.4892;0.7082;
1264.5000;0.4941;0.7152;
1264.8000;0.4908;0.7105;
1265.1000;0.4884;0.7035;
1265.4000;0.4957;0.7152;
1265.7000;0.4876;0.7082;
1266.0000;0.4908;0.7152;
1266.3000;0.4925;0.7082;
1266.6000;0.4917;0.7059;
1266.9000;0.4917;0.7035;
1267.2000;0.4941;0.7012;
1267.5000;0.4908;0.6966;
1267.8000;0.4908;0.6873;
1268.1000;0.4908;0.6803;
1268.4000;0.4900;0.6780;
1268.7000;0.4908;0.6896;
1269.0000;0.4908;0.6943;
1269.3000;0.4900;0.6943;
1269.6000;0.4900;0.6966;
1269.9000;0.4908;0.6966;
1270.2000;0.4900;0.6989;
1270.5000;0.4892;0.6943;
1270.8000;0.4925;0.6943;
1271.1000;0.4925;0.6919;
1271.4000;0.4900;0.6989;
1271.7000;0.4917;0.6966;
1272.0000;0.4900;0.6873;
1272.3000;0.4917;0.6873;
1272.6000;0.4917;0.6850;
1272.9000;0.4900;0.6826;
1273.2000;0.4884;0.6850;
1273.5000;0.4908;0.6896;
1273.8000;0.4925;0.6850;
1274.1000;0.4982;0.6873;
1274.4000;0.4900;0.6734;
1274.7000;0.4917;0.6757;
1275.0000;0.4900;0.6734;
1275.3000;0.4917;0.6664;
1275.6000;0.4917;0.6780;
1275.9000;0.4908;0.6780;
1276.2000;0.5047;0.7082;
1276.5000;0.4892;0.6710;
1276.8000;0.4933;0.6850;
1277.1000;0.4925;0.6896;
1277.4000;0.4941;0.6966;
1277.7000;0.4925;0.7012;
1278.0000;0.4908;0.6989;
1278.3000;0.4933;0.7128;
1278.6000;0.4933;0.7082;
1278.9000;0.4949;0.7128;
1279.2000;0.4933;0.7105;
1279.5000;0.4925;0.7059;
1279.8000;0.4908;0.7035;
1280.1000;0.4965;0.7152;
1280.4000;0.4941;0.7244;
1280.7000;0.4900;0.7152;
1281.0000;0.4917;0.7152;
1281.3000;0.4957;0.7198;
1281.6000;0.4917;0.7175;
1281.9000;0.4917;0.7175;
1282.2000;0.4925;0.7221;
1282.5000;0.4925;0.7268;
1282.8000;0.4933;0.7221;
1283.1000;0.4900;0.7198;
1283.4000;0.4933;0.7198;
1283.7000;0.4892;0.7059;
1284.0000;0.4925;0.7059;
1284.3000;0.4917;0.7035;
1284.6000;0.4892;0.7082;
1284.9000;0.4908;0.7035;
1285.2000;0.4917;0.7035;
1285.5000;0.4908;0.6989;
1285.8000;0.4925;0.6989;
1286.1000;0.4925;0.7035;
1286.4000;0.4917;0.7012;
1286.7000;0.4933;0.7059;
1287.0000;0.4933;0.7082;
1287.3000;0.4925;0.7012;
1287.6000;0.4949;0.7035;
1287.9000;0.4941;0.6966;
1288.2000;0.4933;0.7035;
1288.5000;0.4933;0.7012;
1288.8000;0.4917;0.6989;
1289.1000;0.4925;0.6919;
1289.4000;0.4933;0.6850;
1289.7000;0.4900;0.6826;
1290.0000;0.4908;0.6873;
1290.3000;0.4917;0.6826;
1290.6000;0.4917;0.6873;
1290.9000;0.4941;0.7012;
1291.2000;0.4925;0.6803;
1291.5000;0.4974;0.6943;
1291.8000;0.4941;0.6826;
1292.1000;0.4917;0.6803;
1292.4000;0.4917;0.6850;
1292.7000;0.4933;0.6966;
1293.0000;0.4876;0.6943;
1293.3000;0.4933;0.7128;
1293.6000;0.4908;0.7128;
1293.9000;0.4908;0.6966;
1294.2000;0.4908;0.7012;
1294.5000;0.4900;0.6919;
1294.8000;0.4917;0.7012;
1295.1000;0.4917;0.6943;
1295.4000;0.4908;0.6873;
1295.7000;0.4917;0.6943;
1296.0000;0.4900;0.6850;
1296.3000;0.4917;0.6966;
1296.6000;0.4908;0.6989;
1296.9000;0.4949;0.6966;
1297.2000;0.4917;0.6873;
1297.5000;0.4917;0.6850;
1297.8000;0.4908;0.6943;
1298.1000;0.4949;0.7082;
1298.4000;0.4917;0.7035;
1298.7000;0.4933;0.7105;
1299.0000;0.4925;0.7059;
1299.3000;0.4917;0.6989;
1299.6000;0.4917;0.6966;
1299.9000;0.4908;0.6966;
1300.2000;0.4908;0.6966;
1300.5000;0.4908;0.6850;
1300.8000;0.4900;0.6850;
1301.1000;0.4925;0.6919;
1301.4000;0.4892;0.6873;
1301.7000;0.4908;0.6989;
1302.0000;0.4933;0.7035;
1302.3000;0.4900;0.6966;
1302.6000;0.4908;0.6896;
1302.9000;0.4917;0.6873;
1303.2000;0.4974;0.6966;
1303.5000;0.4925;0.6850;
1303.8000;0.4917;0.6826;
1304.1000;0.4908;0.6850;
1304.4000;0.4908;0.6803;
1304.7000;0.4933;0.6780;
1305.0000;0.4908;0.6780;
1305.3000;0.4925;0.6734;
1305.6000;0.4941;0.6780;
1305.9000;0.4860;0.6664;
1306.2000;0.4900;0.6734;
1306.5000;0.4908;0.6803;
1306.8000;0.4933;0.6757;
1307.1000;0.4900;0.6850;
1307.4000;0.4884;0.6826;
1307.7000;0.4908;0.6896;
1308.0000;0.4933;0.6919;
1308.3000;0.4917;0.6919;
1308.6000;0.4908;0.6966;
1308.9000;0.4860;0.6803;
1309.2000;0.4925;0.7012;
1309.5000;0.4941;0.7082;
1309.8000;0.4917;0.7059;
1310.1000;0.4900;0.6989;
1310.4000;0.4868;0.6803;
1310.7000;0.4982;0.7105;
1311.0000;0.4892;0.6826;
1311.3000;0.4982;0.7035;
1311.6000;0.4933;0.6919;
1311.9000;0.4892;0.6780;
1312.2000;0.4908;0.6803;
1312.5000;0.4868;0.6687;
1312.8000;0.4941;0.6873;
1313.1000;0.4860;0.6618;
1313.4000;0.4860;0.6571;
1313.7000;0.4900;0.6664;
1314.0000;0.4917;0.6826;
1314.3000;0.4868;0.6803;
1314.6000;0.4900;0.6966;
1314.9000;0.4884;0.6826;
1315.2000;0.4900;0.6896;
1315.5000;0.4925;0.6919;
1315.8000;0.4990;0.7012;
1316.1000;0.4892;0.6780;
1316.4000;0.4908;0.6826;
1316.7000;0.4835;0.6664;
1317.0000;0.4917;0.6896;
1317.3000;0.4908;0.7035;
1317.6000;0.4917;0.6966;
1317.9000;0.4917;0.6896;
1318.2000;0.4917;0.6734;
1318.5000;0.4900;0.6641;
1318.8000;0.4908;0.6757;
1319.1000;0.4900;0.6780;
1319.4000;0.4917;0.6873;
1319.7000;0.4925;0.6873;
1320.0000;0.4908;0.6826;
1320.3000;0.4900;0.6803;
1320.6000;0.4925;0.6873;
1320.9000;0.4908;0.6873;
1321.2000;0.4908;0.6850;
1321.5000;0.4908;0.6803;
1321.8000;0.4900;0.6850;
1322.1000;0.4900;0.6943;
1322.4000;0.4925;0.7012;
1322.7000;0.4941;0.7035;
1323.0000;0.4900;0.6989;
1323.3000;0.4925;0.7035;
1323.6000;0.4908;0.7059;
1323.9000;0.4933;0.7175;
1324.2000;0.4908;0.7082;
1324.5000;0.4900;0.7105;
1324.8000;0.4908;0.7128;
1325.1000;0.4917;0.7128;
1325.4000;0.4917;0.7152;
1325.7000;0.4900;0.7105;
1326.0000;0.4917;0.7175;
1326.3000;0.4925;0.7105;
1326.6000;0.4965;0.7128;
1326.9000;0.4917;0.6989;
1327.2000;0.4900;0.7035;
1327.5000;0.4917;0.7059;
1327.8000;0.4908;0.7152;
1328.1000;0.4908;0.7082;
1328.4000;0.4925;0.7105;
1328.7000;0.4925;0.7082;
1329.0000;0.4917;0.7152;
1329.3000;0.4900;0.7035;
1329.6000;0.4908;0.6989;
1329.9000;0.4892;0.6803;
1330.2000;0.4892;0.6780;
1330.5000;0.4851;0.6687;
1330.8000;0.4957;0.6919;
1331.1000;0.4917;0.6873;
1331.4000;0.4908;0.6943;
1331.7000;0.4900;0.7035;
1332.0000;0.4933;0.7105;
1332.3000;0.4900;0.6966;
1332.6000;0.4908;0.6966;
1332.9000;0.4892;0.6826;
1333.2000;0.4917;0.6943;
1333.5000;0.4933;0.6989;
1333.8000;0.4974;0.7152;
1334.1000;0.4900;0.7082;
1334.4000;0.4908;0.7012;
1334.7000;0.4917;0.7059;
1335.0000;0.4917;0.7012;
1335.3000;0.4908;0.6966;
1335.6000;0.4925;0.7059;
1335.9000;0.4957;0.7291;
1336.2000;0.4957;0.7268;
1336.5000;0.4965;0.7337;
1336.8000;0.4868;0.7082;
1337.1000;0.4925;0.7244;
1337.4000;0.4892;0.7175;
1337.7000;0.4908;0.7105;
1338.0000;0.4925;0.7082;
1338.3000;0.4860;0.6850;
1338.6000;0.4933;0.7059;
1338.9000;0.4925;0.6966;
1339.2000;0.4917;0.6989;
1339.5000;0.4900;0.6943;
1339.8000;0.4900;0.6896;
1340.1000;0.4900;0.7035;
1340.4000;0.4917;0.7059;
1340.7000;0.4900;0.6966;
1341.0000;0.4908;0.6943;
1341.3000;0.4933;0.7059;
1341.6000;0.4957;0.7175;
1341.9000;0.4917;0.7105;
1342.2000;0.4908;0.7059;
1342.5000;0.4908;0.7059;
1342.8000;0.4876;0.7035;
1343.1000;0.4900;0.7082;
1343.4000;0.4900;0.6989;
1343.7000;0.4900;0.6850;
1344.0000;0.4933;0.6850;
1344.3000;0.4917;0.6710;
1344.6000;0.4908;0.6734;
1344.9000;0.4933;0.6873;
1345.2000;0.4925;0.6989;
1345.5000;0.4900;0.6873;
1345.8000;0.4908;0.6826;
1346.1000;0.4925;0.6919;
1346.4000;0.4925;0.6919;
1346.7000;0.4949;0.6943;
1347.0000;0.4908;0.6919;
1347.3000;0.4900;0.6873;
1347.6000;0.4917;0.6966;
1347.9000;0.4925;0.6943;
1348.2000;0.4900;0.6919;
1348.5000;0.4900;0.6873;
1348.8000;0.4917;0.6826;
1349.1000;0.4884;0.6919;
1349.4000;0.4933;0.7035;
1349.7000;0.4933;0.6850;
1350.0000;0.4917;0.6826;
1350.3000;0.4908;0.6826;
1350.6000;0.4982;0.6966;
1350.9000;0.4917;0.6896;
1351.2000;0.4876;0.6943;
1351.5000;0.4917;0.7059;
1351.8000;0.4917;0.7082;
1352.1000;0.4933;0.7059;
1352.4000;0.4900;0.6966;
1352.7000;0.4925;0.7012;
1353.0000;0.4892;0.7035;
1353.3000;0.4917;0.7082;
1353.6000;0.4908;0.7082;
1353.9000;0.4811;0.6803;
1354.2000;0.4974;0.7291;
1354.5000;0.4941;0.7175;
1354.8000;0.4982;0.7291;
1355.1000;0.4892;0.6989;
1355.4000;0.4917;0.6989;
1355.7000;0.4917;0.6919;
1356.0000;0.4900;0.6896;
1356.3000;0.4917;0.6826;
1356.6000;0.4933;0.6826;
1356.9000;0.4957;0.6896;
1357.2000;0.4925;0.6780;
1357.5000;0.4917;0.6780;
1357.8000;0.4908;0.6803;
1358.1000;0.4900;0.6850;
1358.4000;0.4933;0.6966;
1358.7000;0.4908;0.7035;
1359.0000;0.4884;0.6989;
1359.3000;0.4900;0.6966;
1359.6000;0.4908;0.7105;
1359.9000;0.4908;0.7035;
1360.2000;0.4917;0.6989;
1360.5000;0.4908;0.6943;
1360.8000;0.4941;0.7012;
1361.1000;0.4908;0.7082;
1361.4000;0.4917;0.7035;
1361.7000;0.4900;0.7012;
1362.0000;0.4917;0.7012;
1362.3000;0.4908;0.6943;
1362.6000;0.4900;0.6919;
1362.9000;0.4908;0.7059;
1363.2000;0.4876;0.7035;
1363.5000;0.4908;0.7128;
1363.8000;0.4884;0.7105;
1364.1000;0.4900;0.7175;
1364.4000;0.4933;0.7175;
1364.7000;0.4917;0.7128;
1365.0000;0.4933;0.7198;
1365.3000;0.4957;0.7175;
1365.6000;0.4925;0.7082;
1365.9000;0.4941;0.7152;
1366.2000;0.4884;0.7059;
1366.5000;0.4917;0.7128;
1366.8000;0.4925;0.7105;
1367.1000;0.4908;0.7012;
1367.4000;0.4908;0.6989;
1367.7000;0.4900;0.6943;
1368.0000;0.4908;0.7012;
1368.3000;0.4949;0.7012;
1368.6000;0.4908;0.6826;
1368.9000;0.4900;0.6873;
1369.2000;0.4941;0.7035;
1369.5000;0.4892;0.6943;
1369.8000;0.4925;0.7035;
1370.1000;0.4925;0.7035;
1370.4000;0.4917;0.7035;
1370.7000;0.4908;0.6989;
1371.0000;0.4925;0.6966;
1371.3000;0.4917;0.6966;
1371.6000;0.4908;0.6943;
1371.9000;0.4917;0.6943;
1372.2000;0.4835;0.6757;
1372.5000;0.4900;0.6943;
1372.8000;0.4908;0.6896;
1373.1000;0.4908;0.6919;
1373.4000;0.4900;0.6919;
1373.7000;0.4917;0.6966;
1374.0000;0.4941;0.6943;
1374.3000;0.4908;0.6966;
1374.6000;0.4900;0.6989;
1374.9000;0.4925;0.7059;
1375.2000;0.4925;0.7059;
1375.5000;0.4908;0.6919;
1375.8000;0.4933;0.6919;
1376.1000;0.4933;0.6943;
1376.4000;0.4925;0.7035;
1376.7000;0.4941;0.7105;
1377.0000;0.4851;0.6966;
1377.3000;0.4868;0.6966;
1377.6000;0.4933;0.7291;
1377.9000;0.4982;0.7430;
1378.2000;0.4884;0.7221;
1378.5000;0.4908;0.7175;
1378.8000;0.4933;0.7152;
1379.1000;0.4900;0.7128;
1379.4000;0.4900;0.7175;
1379.7000;0.4925;0.7082;
1380.0000;0.4917;0.7012;
1380.3000;0.4925;0.7059;
1380.6000;0.4925;0.7059;
1380.9000;0.4908;0.6989;
1381.2000;0.4917;0.7012;
1381.5000;0.4925;0.7035;
1381.8000;0.4908;0.7012;
1382.1000;0.4925;0.7082;
1382.4000;0.4925;0.7082;
1382.7000;0.4876;0.6989;
1383.0000;0.4917;0.7128;
1383.3000;0.4917;0.7105;
1383.6000;0.4908;0.7128;
1383.9000;0.4892;0.7035;
1384.2000;0.4868;0.6966;
1384.5000;0.4900;0.7082;
1384.8000;0.4908;0.7128;
1385.1000;0.4908;0.7012;
1385.4000;0.4908;0.7035;
1385.7000;0.4908;0.7035;
1386.0000;0.4925;0.7012;
1386.3000;0.4917;0.7012;
1386.6000;0.4908;0.6919;
1386.9000;0.4900;0.6966;
1387.2000;0.4900;0.6943;
1387.5000;0.4925;0.6989;
1387.8000;0.4917;0.7012;
1388.1000;0.4941;0.7012;
1388.4000;0.4900;0.7035;
1388.7000;0.4908;0.7152;
1389.0000;0.4892;0.7221;
1389.3000;0.4900;0.7244;
1389.6000;0.4900;0.7244;
1389.9000;0.4908;0.7244;
1390.2000;0.4917;0.7198;
1390.5000;0.4925;0.7152;
1390.8000;0.4908;0.7105;
1391.1000;0.4860;0.6966;
1391.4000;0.4900;0.7082;
1391.7000;0.4908;0.7152;
1392.0000;0.4794;0.6826;
1392.3000;0.4884;0.7152;
1392.6000;0.4892;0.7105;
1392.9000;0.4892;0.7082;
1393.2000;0.4949;0.7244;
1393.5000;0.4900;0.7128;
1393.8000;0.4900;0.7128;
1394.1000;0.4908;0.7105;
1394.4000;0.4908;0.7082;
1394.7000;0.4925;0.7175;
1395.0000;0.4925;0.7175;
1395.3000;0.4908;0.7082;
1395.6000;0.4908;0.7152;
1395.9000;0.4925;0.7198;
1396.2000;0.4925;0.7314;
1396.5000;0.4925;0.7268;
1396.8000;0.4819;0.6919;
1397.1000;0.4908;0.7198;
1397.4000;0.4868;0.7152;
1397.7000;0.4925;0.7314;
1398.0000;0.4892;0.7361;
1398.3000;0.4892;0.7337;
1398.6000;0.4900;0.7430;
1398.9000;0.4876;0.7291;
1399.2000;0.4933;0.7291;
1399.5000;0.4917;0.7128;
1399.8000;0.4917;0.7128;
