time/ms;Fluo/V;P700 deltaI/I x10³;
-199.8000;0.5275;0.7778;
-199.5000;0.5267;0.7778;
-199.2000;0.5226;0.7709;
-198.9000;0.5267;0.7732;
-198.6000;0.5275;0.7802;
-198.3000;0.5250;0.7825;
-198.0000;0.5340;0.8034;
-197.7000;0.5275;0.8057;
-197.4000;0.5250;0.7987;
-197.1000;0.5161;0.7686;
-196.8000;0.5267;0.7941;
-196.5000;0.5283;0.8034;
-196.2000;0.5283;0.8011;
-195.9000;0.5242;0.7918;
-195.6000;0.5250;0.7987;
-195.3000;0.5299;0.7941;
-195.0000;0.5283;0.7941;
-194.7000;0.5258;0.7871;
-194.4000;0.5275;0.8011;
-194.1000;0.5283;0.8011;
-193.8000;0.5275;0.7871;
-193.5000;0.5275;0.7709;
-193.2000;0.5291;0.7686;
-192.9000;0.5267;0.7686;
-192.6000;0.5267;0.7639;
-192.3000;0.5250;0.7732;
-192.0000;0.5201;0.7662;
-191.7000;0.5258;0.7686;
-191.4000;0.5258;0.7639;
-191.1000;0.5275;0.7616;
-190.8000;0.5267;0.7593;
-190.5000;0.5258;0.7570;
-190.2000;0.5250;0.7662;
-189.9000;0.5169;0.7453;
-189.6000;0.5258;0.7755;
-189.3000;0.5258;0.7825;
-189.0000;0.5258;0.7848;
-188.7000;0.5250;0.7848;
-188.4000;0.5275;0.7871;
-188.1000;0.5324;0.8057;
-187.8000;0.5267;0.7941;
-187.5000;0.5267;0.7895;
-187.2000;0.5275;0.7895;
-186.9000;0.5242;0.7825;
-186.6000;0.5258;0.7918;
-186.3000;0.5267;0.8011;
-186.0000;0.5250;0.7918;
-185.7000;0.5283;0.7964;
-185.4000;0.5275;0.7918;
-185.1000;0.5291;0.7941;
-184.8000;0.5275;0.7941;
-184.5000;0.5275;0.7895;
-184.2000;0.5275;0.7825;
-183.9000;0.5291;0.7895;
-183.6000;0.5275;0.7848;
-183.3000;0.5283;0.7848;
-183.0000;0.5275;0.7895;
-182.7000;0.5291;0.7964;
-182.4000;0.5275;0.7871;
-182.1000;0.5258;0.7918;
-181.8000;0.5267;0.7895;
-181.5000;0.5267;0.7848;
-181.2000;0.5283;0.7895;
-180.9000;0.5250;0.7871;
-180.6000;0.5250;0.7871;
-180.3000;0.5267;0.7941;
-180.0000;0.5267;0.7918;
-179.7000;0.5267;0.7918;
-179.4000;0.5258;0.7964;
-179.1000;0.5250;0.7918;
-178.8000;0.5250;0.7848;
-178.5000;0.5275;0.7848;
-178.2000;0.5275;0.7825;
-177.9000;0.5299;0.7825;
-177.6000;0.5267;0.7778;
-177.3000;0.5267;0.7662;
-177.0000;0.5267;0.7686;
-176.7000;0.5250;0.7686;
-176.4000;0.5267;0.7732;
-176.1000;0.5275;0.7686;
-175.8000;0.5258;0.7570;
-175.5000;0.5258;0.7570;
-175.2000;0.5250;0.7570;
-174.9000;0.5267;0.7639;
-174.6000;0.5258;0.7616;
-174.3000;0.5275;0.7709;
-174.0000;0.5258;0.7825;
-173.7000;0.5283;0.7848;
-173.4000;0.5267;0.7778;
-173.1000;0.5177;0.7453;
-172.8000;0.5275;0.7709;
-172.5000;0.5267;0.7778;
-172.2000;0.5283;0.7871;
-171.9000;0.5258;0.7778;
-171.6000;0.5258;0.7732;
-171.3000;0.5275;0.7825;
-171.0000;0.5193;0.7686;
-170.7000;0.5267;0.7964;
-170.4000;0.5258;0.7941;
-170.1000;0.5267;0.7848;
-169.8000;0.5275;0.7825;
-169.5000;0.5258;0.7755;
-169.2000;0.5250;0.7778;
-168.9000;0.5258;0.7895;
-168.6000;0.5283;0.7871;
-168.3000;0.5242;0.7778;
-168.0000;0.5258;0.7825;
-167.7000;0.5267;0.7871;
-167.4000;0.5267;0.7895;
-167.1000;0.5234;0.7848;
-166.8000;0.5267;0.7848;
-166.5000;0.5267;0.7871;
-166.2000;0.5283;0.7848;
-165.9000;0.5275;0.7941;
-165.6000;0.5267;0.7918;
-165.3000;0.5275;0.7941;
-165.0000;0.5267;0.7941;
-164.7000;0.5283;0.7987;
-164.4000;0.5267;0.7964;
-164.1000;0.5218;0.7895;
-163.8000;0.5267;0.8011;
-163.5000;0.5250;0.8011;
-163.2000;0.5267;0.8011;
-162.9000;0.5291;0.8057;
-162.6000;0.5283;0.8080;
-162.3000;0.5299;0.8034;
-162.0000;0.5267;0.7825;
-161.7000;0.5291;0.7825;
-161.4000;0.5283;0.7895;
-161.1000;0.5283;0.7825;
-160.8000;0.5283;0.7778;
-160.5000;0.5242;0.7686;
-160.2000;0.5275;0.7709;
-159.9000;0.5275;0.7662;
-159.6000;0.5267;0.7709;
-159.3000;0.5234;0.7616;
-159.0000;0.5250;0.7686;
-158.7000;0.5258;0.7778;
-158.4000;0.5258;0.7778;
-158.1000;0.5250;0.7778;
-157.8000;0.5144;0.7616;
-157.5000;0.5267;0.7941;
-157.2000;0.5267;0.7871;
-156.9000;0.5258;0.7848;
-156.6000;0.5250;0.7895;
-156.3000;0.5250;0.7871;
-156.0000;0.5250;0.7895;
-155.7000;0.5267;0.8034;
-155.4000;0.5250;0.8127;
-155.1000;0.5250;0.8196;
-154.8000;0.5250;0.8150;
-154.5000;0.5242;0.8034;
-154.2000;0.5234;0.7941;
-153.9000;0.5218;0.7918;
-153.6000;0.5267;0.7918;
-153.3000;0.5258;0.7895;
-153.0000;0.5258;0.7941;
-152.7000;0.5267;0.7987;
-152.4000;0.5258;0.8034;
-152.1000;0.5283;0.7964;
-151.8000;0.5267;0.7848;
-151.5000;0.5242;0.7755;
-151.2000;0.5283;0.7871;
-150.9000;0.5283;0.7848;
-150.6000;0.5267;0.7895;
-150.3000;0.5250;0.7825;
-150.0000;0.5283;0.7895;
-149.7000;0.5258;0.7802;
-149.4000;0.5275;0.7778;
-149.1000;0.5283;0.7778;
-148.8000;0.5250;0.7662;
-148.5000;0.5267;0.7662;
-148.2000;0.5283;0.7802;
-147.9000;0.5250;0.7686;
-147.6000;0.5267;0.7662;
-147.3000;0.5267;0.7639;
-147.0000;0.5275;0.7686;
-146.7000;0.5283;0.7848;
-146.4000;0.5242;0.7686;
-146.1000;0.5258;0.7778;
-145.8000;0.5291;0.7871;
-145.5000;0.5267;0.7918;
-145.2000;0.5267;0.7871;
-144.9000;0.5267;0.7871;
-144.6000;0.5258;0.7732;
-144.3000;0.5283;0.7732;
-144.0000;0.5234;0.7546;
-143.7000;0.5242;0.7639;
-143.4000;0.5242;0.7639;
-143.1000;0.5226;0.7546;
-142.8000;0.5250;0.7546;
-142.5000;0.5242;0.7662;
-142.2000;0.5258;0.7709;
-141.9000;0.5267;0.7662;
-141.6000;0.5267;0.7755;
-141.3000;0.5283;0.7848;
-141.0000;0.5242;0.7709;
-140.7000;0.5258;0.7709;
-140.4000;0.5275;0.7732;
-140.1000;0.5218;0.7686;
-139.8000;0.5267;0.7825;
-139.5000;0.5315;0.7941;
-139.2000;0.5324;0.7871;
-138.9000;0.5258;0.7802;
-138.6000;0.5258;0.7709;
-138.3000;0.5267;0.7755;
-138.0000;0.5250;0.7732;
-137.7000;0.5258;0.7755;
-137.4000;0.5258;0.7709;
-137.1000;0.5283;0.7686;
-136.8000;0.5267;0.7616;
-136.5000;0.5275;0.7662;
-136.2000;0.5210;0.7546;
-135.9000;0.5258;0.7616;
-135.6000;0.5275;0.7593;
-135.3000;0.5258;0.7546;
-135.0000;0.5324;0.7778;
-134.7000;0.5185;0.7500;
-134.4000;0.5283;0.7709;
-134.1000;0.5250;0.7639;
-133.8000;0.5193;0.7570;
-133.5000;0.5226;0.7616;
-133.2000;0.5258;0.7686;
-132.9000;0.5275;0.7755;
-132.6000;0.5315;0.7918;
-132.3000;0.5250;0.7755;
-132.0000;0.5250;0.7662;
-131.7000;0.5267;0.7662;
-131.4000;0.5258;0.7593;
-131.1000;0.5267;0.7662;
-130.8000;0.5258;0.7709;
-130.5000;0.5250;0.7755;
-130.2000;0.5275;0.7895;
-129.9000;0.5250;0.7778;
-129.6000;0.5242;0.7802;
-129.3000;0.5275;0.7848;
-129.0000;0.5153;0.7523;
-128.7000;0.5242;0.7686;
-128.4000;0.5250;0.7662;
-128.1000;0.5258;0.7686;
-127.8000;0.5258;0.7639;
-127.5000;0.5275;0.7709;
-127.2000;0.5267;0.7755;
-126.9000;0.5242;0.7755;
-126.6000;0.5177;0.7616;
-126.3000;0.5283;0.7871;
-126.0000;0.5267;0.7755;
-125.7000;0.5242;0.7709;
-125.4000;0.5275;0.7778;
-125.1000;0.5258;0.7778;
-124.8000;0.5275;0.7848;
-124.5000;0.5267;0.7709;
-124.2000;0.5242;0.7686;
-123.9000;0.5275;0.7732;
-123.6000;0.5275;0.7755;
-123.3000;0.5275;0.7755;
-123.0000;0.5258;0.7755;
-122.7000;0.5267;0.7802;
-122.4000;0.5258;0.7918;
-122.1000;0.5283;0.7918;
-121.8000;0.5267;0.7918;
-121.5000;0.5258;0.7987;
-121.2000;0.5267;0.7964;
-120.9000;0.5250;0.7871;
-120.6000;0.5250;0.7825;
-120.3000;0.5242;0.7802;
-120.0000;0.5242;0.7778;
-119.7000;0.5258;0.7802;
-119.4000;0.5275;0.7778;
-119.1000;0.5258;0.7825;
-118.8000;0.5218;0.7802;
-118.5000;0.5250;0.7755;
-118.2000;0.5283;0.7825;
-117.9000;0.5250;0.7825;
-117.6000;0.5283;0.7871;
-117.3000;0.5275;0.7871;
-117.0000;0.5283;0.7895;
-116.7000;0.5267;0.7941;
-116.4000;0.5283;0.7848;
-116.1000;0.5258;0.7871;
-115.8000;0.5258;0.7964;
-115.5000;0.5258;0.7825;
-115.2000;0.5283;0.7802;
-114.9000;0.5250;0.7639;
-114.6000;0.5267;0.7709;
-114.3000;0.5258;0.7639;
-114.0000;0.5258;0.7686;
-113.7000;0.5275;0.7778;
-113.4000;0.5275;0.7802;
-113.1000;0.5258;0.7825;
-112.8000;0.5250;0.7802;
-112.5000;0.5275;0.7895;
-112.2000;0.5267;0.7825;
-111.9000;0.5291;0.7918;
-111.6000;0.5291;0.7987;
-111.3000;0.5258;0.7987;
-111.0000;0.5258;0.7964;
-110.7000;0.5258;0.7918;
-110.4000;0.5258;0.7871;
-110.1000;0.5267;0.7895;
-109.8000;0.5275;0.7918;
-109.5000;0.5291;0.7918;
-109.2000;0.5275;0.7871;
-108.9000;0.5242;0.7825;
-108.6000;0.5267;0.7941;
-108.3000;0.5267;0.8011;
-108.0000;0.5193;0.7825;
-107.7000;0.5250;0.7918;
-107.4000;0.5291;0.8034;
-107.1000;0.5250;0.8034;
-106.8000;0.5250;0.8034;
-106.5000;0.5234;0.8011;
-106.2000;0.5267;0.8127;
-105.9000;0.5250;0.8057;
-105.6000;0.5210;0.7871;
-105.3000;0.5267;0.8104;
-105.0000;0.5258;0.8127;
-104.7000;0.5267;0.8011;
-104.4000;0.5250;0.7895;
-104.1000;0.5258;0.7918;
-103.8000;0.5250;0.7987;
-103.5000;0.5299;0.8057;
-103.2000;0.5299;0.8034;
-102.9000;0.5250;0.7964;
-102.6000;0.5250;0.8127;
-102.3000;0.5267;0.8196;
-102.0000;0.5258;0.8220;
-101.7000;0.5267;0.8196;
-101.4000;0.5275;0.8266;
-101.1000;0.5275;0.8220;
-100.8000;0.5267;0.8173;
-100.5000;0.5250;0.8034;
-100.2000;0.5250;0.8150;
-99.9000;0.5258;0.8220;
-99.6000;0.5315;0.8313;
-99.3000;0.5258;0.8243;
-99.0000;0.5267;0.8150;
-98.7000;0.5332;0.8266;
-98.4000;0.5267;0.8104;
-98.1000;0.5242;0.8034;
-97.8000;0.5242;0.7964;
-97.5000;0.5267;0.7918;
-97.2000;0.5258;0.7941;
-96.9000;0.5258;0.7941;
-96.6000;0.5267;0.7848;
-96.3000;0.5275;0.7871;
-96.0000;0.5258;0.7895;
-95.7000;0.5267;0.7825;
-95.4000;0.5267;0.7848;
-95.1000;0.5275;0.7848;
-94.8000;0.5177;0.7639;
-94.5000;0.5299;0.7964;
-94.2000;0.5283;0.7918;
-93.9000;0.5275;0.7871;
-93.6000;0.5275;0.7778;
-93.3000;0.5250;0.7755;
-93.0000;0.5242;0.7778;
-92.7000;0.5324;0.7964;
-92.4000;0.5267;0.7918;
-92.1000;0.5291;0.7941;
-91.8000;0.5315;0.8127;
-91.5000;0.5210;0.7871;
-91.2000;0.5283;0.8034;
-90.9000;0.5324;0.8057;
-90.6000;0.5250;0.7848;
-90.3000;0.5267;0.7895;
-90.0000;0.5218;0.7778;
-89.7000;0.5267;0.7941;
-89.4000;0.5275;0.8011;
-89.1000;0.5275;0.8057;
-88.8000;0.5234;0.8011;
-88.5000;0.5267;0.8104;
-88.2000;0.5210;0.8057;
-87.9000;0.5258;0.8150;
-87.6000;0.5242;0.8080;
-87.3000;0.5258;0.8196;
-87.0000;0.5258;0.8173;
-86.7000;0.5258;0.8104;
-86.4000;0.5258;0.8080;
-86.1000;0.5242;0.8127;
-85.8000;0.5242;0.8173;
-85.5000;0.5250;0.8196;
-85.2000;0.5283;0.8220;
-84.9000;0.5250;0.8080;
-84.6000;0.5291;0.8243;
-84.3000;0.5258;0.8104;
-84.0000;0.5250;0.8127;
-83.7000;0.5275;0.8080;
-83.4000;0.5242;0.8080;
-83.1000;0.5258;0.8080;
-82.8000;0.5258;0.8104;
-82.5000;0.5275;0.8104;
-82.2000;0.5299;0.8104;
-81.9000;0.5275;0.8104;
-81.6000;0.5267;0.7964;
-81.3000;0.5299;0.8080;
-81.0000;0.5258;0.8034;
-80.7000;0.5291;0.8104;
-80.4000;0.5267;0.7964;
-80.1000;0.5275;0.7964;
-79.8000;0.5258;0.7918;
-79.5000;0.5267;0.7895;
-79.2000;0.5275;0.7848;
-78.9000;0.5275;0.7848;
-78.6000;0.5275;0.7848;
-78.3000;0.5307;0.7941;
-78.0000;0.5291;0.7871;
-77.7000;0.5283;0.7755;
-77.4000;0.5250;0.7639;
-77.1000;0.5275;0.7732;
-76.8000;0.5267;0.7802;
-76.5000;0.5250;0.7778;
-76.2000;0.5250;0.7871;
-75.9000;0.5258;0.7871;
-75.6000;0.5275;0.7895;
-75.3000;0.5283;0.7964;
-75.0000;0.5250;0.7848;
-74.7000;0.5258;0.7778;
-74.4000;0.5267;0.7755;
-74.1000;0.5275;0.7825;
-73.8000;0.5381;0.8034;
-73.5000;0.5267;0.7709;
-73.2000;0.5275;0.7778;
-72.9000;0.5315;0.7964;
-72.6000;0.5267;0.7895;
-72.3000;0.5242;0.7778;
-72.0000;0.5250;0.7686;
-71.7000;0.5283;0.7709;
-71.4000;0.5283;0.7709;
-71.1000;0.5258;0.7686;
-70.8000;0.5283;0.7709;
-70.5000;0.5258;0.7755;
-70.2000;0.5250;0.7732;
-69.9000;0.5275;0.7755;
-69.6000;0.5275;0.7732;
-69.3000;0.5267;0.7778;
-69.0000;0.5291;0.7802;
-68.7000;0.5267;0.7778;
-68.4000;0.5267;0.7778;
-68.1000;0.5267;0.7825;
-67.8000;0.5291;0.7895;
-67.5000;0.5283;0.7941;
-67.2000;0.5275;0.7964;
-66.9000;0.5299;0.8057;
-66.6000;0.5258;0.7987;
-66.3000;0.5291;0.8127;
-66.0000;0.5258;0.8104;
-65.7000;0.5250;0.8173;
-65.4000;0.5258;0.8150;
-65.1000;0.5364;0.8336;
-64.8000;0.5348;0.8243;
-64.5000;0.5275;0.7964;
-64.2000;0.5258;0.7964;
-63.9000;0.5315;0.8104;
-63.6000;0.5267;0.7987;
-63.3000;0.5267;0.7871;
-63.0000;0.5267;0.7848;
-62.7000;0.5275;0.7987;
-62.4000;0.5258;0.8011;
-62.1000;0.5275;0.7964;
-61.8000;0.5250;0.7825;
-61.5000;0.5275;0.7871;
-61.2000;0.5258;0.7802;
-60.9000;0.5242;0.7732;
-60.6000;0.5201;0.7616;
-60.3000;0.5250;0.7802;
-60.0000;0.5267;0.7802;
-59.7000;0.5283;0.7895;
-59.4000;0.5267;0.7871;
-59.1000;0.5267;0.7918;
-58.8000;0.5258;0.7871;
-58.5000;0.5275;0.7964;
-58.2000;0.5250;0.7848;
-57.9000;0.5275;0.7871;
-57.6000;0.5275;0.7941;
-57.3000;0.5267;0.7918;
-57.0000;0.5250;0.7918;
-56.7000;0.5250;0.7941;
-56.4000;0.5226;0.7895;
-56.1000;0.5275;0.7964;
-55.8000;0.5258;0.7895;
-55.5000;0.5267;0.7941;
-55.2000;0.5283;0.7964;
-54.9000;0.5275;0.8011;
-54.6000;0.5275;0.7918;
-54.3000;0.5242;0.7778;
-54.0000;0.5275;0.7895;
-53.7000;0.5381;0.8173;
-53.4000;0.5307;0.8011;
-53.1000;0.5291;0.8057;
-52.8000;0.5340;0.8243;
-52.5000;0.5250;0.8127;
-52.2000;0.5267;0.8173;
-51.9000;0.5242;0.8080;
-51.6000;0.5348;0.8313;
-51.3000;0.5267;0.8080;
-51.0000;0.5275;0.8011;
-50.7000;0.5169;0.7662;
-50.4000;0.5258;0.7895;
-50.1000;0.5307;0.7987;
-49.8000;0.5242;0.7802;
-49.5000;0.5258;0.7755;
-49.2000;0.5250;0.7848;
-48.9000;0.5258;0.7895;
-48.6000;0.5267;0.7895;
-48.3000;0.5267;0.7871;
-48.0000;0.5250;0.7964;
-47.7000;0.5267;0.7871;
-47.4000;0.5315;0.7987;
-47.1000;0.5258;0.7918;
-46.8000;0.5267;0.7895;
-46.5000;0.5258;0.7918;
-46.2000;0.5267;0.7825;
-45.9000;0.5307;0.7941;
-45.6000;0.5299;0.7918;
-45.3000;0.5267;0.7895;
-45.0000;0.5275;0.8011;
-44.7000;0.5267;0.7987;
-44.4000;0.5267;0.7987;
-44.1000;0.5258;0.8034;
-43.8000;0.5201;0.7895;
-43.5000;0.5275;0.8011;
-43.2000;0.5267;0.7987;
-42.9000;0.5267;0.7941;
-42.6000;0.5267;0.7871;
-42.3000;0.5283;0.7778;
-42.0000;0.5267;0.7871;
-41.7000;0.5364;0.8104;
-41.4000;0.5267;0.7895;
-41.1000;0.5234;0.7825;
-40.8000;0.5340;0.8104;
-40.5000;0.5275;0.7941;
-40.2000;0.5250;0.7895;
-39.9000;0.5218;0.7871;
-39.6000;0.5267;0.8127;
-39.3000;0.5258;0.8150;
-39.0000;0.5242;0.8057;
-38.7000;0.5258;0.7918;
-38.4000;0.5250;0.7941;
-38.1000;0.5291;0.8011;
-37.8000;0.5258;0.8011;
-37.5000;0.5250;0.8080;
-37.2000;0.5267;0.8150;
-36.9000;0.5291;0.8080;
-36.6000;0.5226;0.8011;
-36.3000;0.5250;0.8080;
-36.0000;0.5258;0.8057;
-35.7000;0.5250;0.8011;
-35.4000;0.5226;0.7871;
-35.1000;0.5267;0.7941;
-34.8000;0.5267;0.7941;
-34.5000;0.5267;0.7987;
-34.2000;0.5275;0.8011;
-33.9000;0.5234;0.7848;
-33.6000;0.5267;0.7871;
-33.3000;0.5291;0.7871;
-33.0000;0.5307;0.7964;
-32.7000;0.5258;0.7871;
-32.4000;0.5258;0.7964;
-32.1000;0.5275;0.8011;
-31.8000;0.5267;0.7987;
-31.5000;0.5258;0.8011;
-31.2000;0.5283;0.8104;
-30.9000;0.5267;0.7987;
-30.6000;0.5242;0.7848;
-30.3000;0.5250;0.7871;
-30.0000;0.5258;0.7918;
-29.7000;0.5258;0.7964;
-29.4000;0.5267;0.7895;
-29.1000;0.5267;0.7871;
-28.8000;0.5218;0.7755;
-28.5000;0.5242;0.7825;
-28.2000;0.5267;0.7941;
-27.9000;0.5381;0.8196;
-27.6000;0.5267;0.7848;
-27.3000;0.5258;0.7848;
-27.0000;0.5291;0.7987;
-26.7000;0.5283;0.7987;
-26.4000;0.5258;0.7964;
-26.1000;0.5250;0.7895;
-25.8000;0.5267;0.7941;
-25.5000;0.5267;0.7964;
-25.2000;0.5267;0.7941;
-24.9000;0.5267;0.7941;
-24.6000;0.5250;0.7848;
-24.3000;0.5283;0.7941;
-24.0000;0.5258;0.7895;
-23.7000;0.5250;0.7848;
-23.4000;0.5275;0.7848;
-23.1000;0.5275;0.7895;
-22.8000;0.5258;0.7895;
-22.5000;0.5283;0.7964;
-22.2000;0.5283;0.7918;
-21.9000;0.5242;0.7941;
-21.6000;0.5250;0.8034;
-21.3000;0.5267;0.8080;
-21.0000;0.5250;0.8011;
-20.7000;0.5242;0.8011;
-20.4000;0.5275;0.7941;
-20.1000;0.5283;0.7895;
-19.8000;0.5169;0.7593;
-19.5000;0.5267;0.7895;
-19.2000;0.5267;0.7778;
-18.9000;0.5283;0.7848;
-18.6000;0.5275;0.7848;
-18.3000;0.5267;0.7802;
-18.0000;0.5267;0.7755;
-17.7000;0.5275;0.7709;
-17.4000;0.5250;0.7662;
-17.1000;0.5267;0.7755;
-16.8000;0.5275;0.7755;
-16.5000;0.5283;0.7778;
-16.2000;0.5242;0.7709;
-15.9000;0.5250;0.7778;
-15.6000;0.5258;0.7778;
-15.3000;0.5267;0.7871;
-15.0000;0.5218;0.7778;
-14.7000;0.5258;0.7778;
-14.4000;0.5226;0.7639;
-14.1000;0.5250;0.7570;
-13.8000;0.5267;0.7523;
-13.5000;0.5169;0.7291;
-13.2000;0.5258;0.7546;
-12.9000;0.5283;0.7593;
-12.6000;0.5250;0.7709;
-12.3000;0.5267;0.7778;
-12.0000;0.5250;0.7802;
-11.7000;0.5242;0.7802;
-11.4000;0.5258;0.7895;
-11.1000;0.5258;0.7848;
-10.8000;0.5250;0.7871;
-10.5000;0.5291;0.7871;
-10.2000;0.5226;0.7593;
-9.9000;0.5258;0.7662;
-9.6000;0.5258;0.7709;
-9.3000;0.5226;0.7616;
-9.0000;0.5242;0.7570;
-8.7000;0.5250;0.7686;
-8.4000;0.5258;0.7848;
-8.1000;0.5315;0.8057;
-7.8000;0.5267;0.7941;
-7.5000;0.5381;0.8266;
-7.2000;0.5275;0.8080;
-6.9000;0.5291;0.8057;
-6.6000;0.5267;0.7964;
-6.3000;0.5242;0.7895;
-6.0000;0.5258;0.7895;
-5.7000;0.5275;0.7918;
-5.4000;0.5242;0.7871;
-5.1000;0.5267;0.7871;
-4.8000;0.5242;0.7802;
-4.5000;0.5201;0.7709;
-4.2000;0.5250;0.7778;
-3.9000;0.5275;0.7802;
-3.6000;0.5234;0.7662;
-3.3000;0.5275;0.7848;
-3.0000;0.5283;0.7964;
-2.7000;0.5258;0.7941;
-2.4000;0.5267;0.8034;
-2.1000;0.5267;0.7987;
-1.8000;0.5242;0.7871;
-1.5000;0.5250;0.7802;
-1.2000;0.5250;0.7848;
-0.9000;0.5291;0.8034;
-0.6000;0.5258;0.8034;
-0.3000;0.5275;0.8011;
0.0000;0.5275;0.8011;
0.3000;0.5356;0.7686;
0.6000;0.5519;0.8057;
0.9000;0.5641;0.8336;
1.2000;0.5755;0.8684;
1.5000;0.5836;0.8939;
1.8000;0.5861;0.9079;
2.1000;0.5918;0.9311;
2.4000;0.5885;0.9334;
2.7000;0.5983;0.9659;
3.0000;0.6015;0.9845;
3.3000;0.6040;0.9845;
3.6000;0.6081;0.9868;
3.9000;0.6081;0.9822;
4.2000;0.6105;0.9868;
4.5000;0.6097;0.9775;
4.8000;0.6129;0.9868;
5.1000;0.6178;0.9915;
5.4000;0.6154;0.9799;
5.7000;0.6138;0.9799;
6.0000;0.6268;1.0031;
6.3000;0.6195;0.9868;
6.6000;0.6170;0.9868;
6.9000;0.6195;0.9984;
7.2000;0.6195;0.9961;
7.5000;0.6211;0.9961;
7.8000;0.6243;0.9984;
8.1000;0.6268;1.0008;
8.4000;0.6349;1.0240;
8.7000;0.6252;1.0031;
9.0000;0.6284;1.0008;
9.3000;0.6276;0.9845;
9.6000;0.6317;0.9984;
9.9000;0.6325;0.9938;
10.2000;0.6325;1.0031;
10.5000;0.6333;1.0031;
10.8000;0.6309;0.9915;
11.1000;0.6325;1.0008;
11.4000;0.6333;0.9984;
11.7000;0.6325;0.9891;
12.0000;0.6382;0.9938;
12.3000;0.6390;0.9984;
12.6000;0.6390;0.9938;
12.9000;0.6390;0.9961;
13.2000;0.6414;1.0077;
13.5000;0.6406;1.0100;
13.8000;0.6471;1.0193;
14.1000;0.6439;1.0170;
14.4000;0.6455;1.0124;
14.7000;0.6341;0.9915;
15.0000;0.6463;1.0263;
15.3000;0.6488;1.0333;
15.6000;0.6463;1.0170;
15.9000;0.6471;1.0193;
16.2000;0.6536;1.0356;
16.5000;0.6504;1.0217;
16.8000;0.6512;1.0147;
17.1000;0.6496;1.0031;
17.4000;0.6520;1.0031;
17.7000;0.6528;1.0077;
18.0000;0.6520;1.0100;
18.3000;0.6422;0.9891;
18.6000;0.6520;1.0170;
18.9000;0.6471;0.9961;
19.2000;0.6553;1.0147;
19.5000;0.6553;1.0100;
19.8000;0.6553;1.0100;
20.1000;0.6561;1.0054;
20.4000;0.6561;1.0100;
20.7000;0.6659;1.0356;
21.0000;0.6569;1.0147;
21.3000;0.6585;1.0263;
21.6000;0.6593;1.0217;
21.9000;0.6602;1.0217;
22.2000;0.6626;1.0286;
22.5000;0.6577;1.0193;
22.8000;0.6602;1.0217;
23.1000;0.6593;1.0100;
23.4000;0.6642;1.0240;
23.7000;0.6610;1.0147;
24.0000;0.6634;1.0193;
24.3000;0.6691;1.0379;
24.6000;0.6577;1.0147;
24.9000;0.6626;1.0286;
25.2000;0.6667;1.0379;
25.5000;0.6667;1.0286;
25.8000;0.6650;1.0147;
26.1000;0.6650;1.0124;
26.4000;0.6675;1.0193;
26.7000;0.6659;1.0147;
27.0000;0.6593;0.9938;
27.3000;0.6553;0.9891;
27.6000;0.6642;1.0147;
27.9000;0.6667;1.0147;
28.2000;0.6699;1.0193;
28.5000;0.6683;1.0193;
28.8000;0.6667;1.0193;
29.1000;0.6626;1.0124;
29.4000;0.6675;1.0309;
29.7000;0.6683;1.0425;
30.0000;0.6659;1.0425;
30.3000;0.6683;1.0356;
30.6000;0.6707;1.0379;
30.9000;0.6675;1.0309;
31.2000;0.6699;1.0309;
31.5000;0.6683;1.0309;
31.8000;0.6748;1.0379;
32.1000;0.6691;1.0170;
32.4000;0.6683;1.0100;
32.7000;0.6707;1.0124;
33.0000;0.6772;1.0309;
33.3000;0.6683;1.0077;
33.6000;0.6732;1.0240;
33.9000;0.6724;1.0124;
34.2000;0.6740;1.0124;
34.5000;0.6659;0.9915;
34.8000;0.6732;1.0100;
35.1000;0.6724;1.0193;
35.4000;0.6716;1.0147;
35.7000;0.6732;1.0124;
36.0000;0.6740;1.0054;
36.3000;0.6675;0.9891;
36.6000;0.6748;1.0031;
36.9000;0.6748;1.0031;
37.2000;0.6756;1.0100;
37.5000;0.6740;1.0147;
37.8000;0.6740;1.0147;
38.1000;0.6748;1.0147;
38.4000;0.6756;1.0100;
38.7000;0.6748;0.9984;
39.0000;0.6748;0.9891;
39.3000;0.6797;1.0008;
39.6000;0.6813;1.0054;
39.9000;0.6772;1.0031;
40.2000;0.6878;1.0240;
40.5000;0.6878;1.0217;
40.8000;0.6772;0.9915;
41.1000;0.6756;0.9915;
41.4000;0.6748;0.9891;
41.7000;0.6781;0.9891;
42.0000;0.6797;0.9845;
42.3000;0.6748;0.9799;
42.6000;0.6748;0.9752;
42.9000;0.6781;0.9891;
43.2000;0.6878;1.0217;
43.5000;0.6878;1.0193;
43.8000;0.6781;0.9891;
44.1000;0.6748;0.9799;
44.4000;0.6781;0.9915;
44.7000;0.6797;0.9868;
45.0000;0.6732;0.9706;
45.3000;0.6821;0.9915;
45.6000;0.6797;0.9845;
45.9000;0.6805;0.9822;
46.2000;0.6797;0.9799;
46.5000;0.6781;0.9706;
46.8000;0.6781;0.9659;
47.1000;0.6764;0.9543;
47.4000;0.6854;0.9775;
47.7000;0.6789;0.9613;
48.0000;0.6829;0.9682;
48.3000;0.6854;0.9845;
48.6000;0.6846;0.9706;
48.9000;0.6789;0.9636;
49.2000;0.6813;0.9706;
49.5000;0.6813;0.9775;
49.8000;0.6805;0.9845;
50.1000;0.6821;0.9752;
50.4000;0.6870;0.9915;
50.7000;0.6805;0.9822;
51.0000;0.6838;0.9938;
51.3000;0.6829;0.9915;
51.6000;0.6797;0.9961;
51.9000;0.6813;0.9984;
52.2000;0.6813;0.9961;
52.5000;0.6797;1.0077;
52.8000;0.6829;1.0077;
53.1000;0.6821;1.0170;
53.4000;0.6821;1.0170;
53.7000;0.6838;1.0147;
54.0000;0.6829;1.0147;
54.3000;0.6813;1.0147;
54.6000;0.6797;1.0217;
54.9000;0.6829;1.0240;
55.2000;0.6829;1.0193;
55.5000;0.6829;1.0263;
55.8000;0.6813;1.0170;
56.1000;0.6821;1.0240;
56.4000;0.6846;1.0263;
56.7000;0.6821;1.0147;
57.0000;0.6821;1.0100;
57.3000;0.6838;1.0077;
57.6000;0.6838;1.0100;
57.9000;0.6821;1.0124;
58.2000;0.6862;1.0170;
58.5000;0.6829;1.0077;
58.8000;0.6838;1.0031;
59.1000;0.6829;1.0031;
59.4000;0.6821;1.0031;
59.7000;0.6829;1.0077;
60.0000;0.6846;1.0100;
60.3000;0.6846;1.0031;
60.6000;0.6854;0.9961;
60.9000;0.6829;0.9915;
61.2000;0.6854;0.9938;
61.5000;0.6772;0.9775;
61.8000;0.6838;0.9938;
62.1000;0.6854;1.0054;
62.4000;0.6821;1.0147;
62.7000;0.6821;1.0240;
63.0000;0.6854;1.0263;
63.3000;0.6821;1.0170;
63.6000;0.6935;1.0379;
63.9000;0.6764;1.0031;
64.2000;0.6829;1.0170;
64.5000;0.6846;1.0263;
64.8000;0.6846;1.0263;
65.1000;0.6895;1.0356;
65.4000;0.6846;1.0263;
65.7000;0.6895;1.0263;
66.0000;0.6862;1.0286;
66.3000;0.6862;1.0263;
66.6000;0.6789;1.0124;
66.9000;0.6862;1.0193;
67.2000;0.6838;1.0124;
67.5000;0.6911;1.0286;
67.8000;0.6846;1.0077;
68.1000;0.6854;1.0077;
68.4000;0.6854;1.0077;
68.7000;0.6854;1.0031;
69.0000;0.6862;0.9984;
69.3000;0.6878;1.0100;
69.6000;0.6854;1.0054;
69.9000;0.6862;1.0147;
70.2000;0.6870;1.0124;
70.5000;0.6862;1.0170;
70.8000;0.6854;1.0100;
71.1000;0.6854;1.0077;
71.4000;0.6870;1.0054;
71.7000;0.6854;1.0008;
72.0000;0.6862;0.9938;
72.3000;0.6911;1.0077;
72.6000;0.6870;0.9961;
72.9000;0.6862;0.9961;
73.2000;0.6862;1.0031;
73.5000;0.6911;1.0100;
73.8000;0.6903;1.0170;
74.1000;0.6870;1.0077;
74.4000;0.6886;1.0008;
74.7000;0.6854;0.9984;
75.0000;0.6854;1.0031;
75.3000;0.6878;1.0077;
75.6000;0.6846;0.9984;
75.9000;0.6862;0.9984;
76.2000;0.6854;0.9938;
76.5000;0.6862;0.9938;
76.8000;0.6870;0.9915;
77.1000;0.6870;0.9984;
77.4000;0.6854;0.9984;
77.7000;0.6878;1.0008;
78.0000;0.6895;1.0193;
78.3000;0.6862;1.0170;
78.6000;0.6862;1.0124;
78.9000;0.6878;1.0100;
79.2000;0.6903;1.0217;
79.5000;0.6878;1.0124;
79.8000;0.6870;1.0193;
80.1000;0.6870;1.0286;
80.4000;0.6854;1.0217;
80.7000;0.6862;1.0193;
81.0000;0.6886;1.0217;
81.3000;0.6862;1.0193;
81.6000;0.6854;1.0147;
81.9000;0.6886;1.0124;
82.2000;0.6862;1.0124;
82.5000;0.6886;1.0193;
82.8000;0.6878;1.0217;
83.1000;0.6862;1.0286;
83.4000;0.6886;1.0333;
83.7000;0.6870;1.0309;
84.0000;0.6854;1.0286;
84.3000;0.6919;1.0495;
84.6000;0.6870;1.0402;
84.9000;0.6878;1.0309;
85.2000;0.6895;1.0170;
85.5000;0.6805;0.9845;
85.8000;0.6895;1.0147;
86.1000;0.6878;1.0193;
86.4000;0.6886;1.0147;
86.7000;0.6878;1.0170;
87.0000;0.6878;1.0100;
87.3000;0.6838;1.0124;
87.6000;0.6878;1.0100;
87.9000;0.6878;1.0054;
88.2000;0.6886;1.0100;
88.5000;0.6895;1.0100;
88.8000;0.6878;1.0100;
89.1000;0.6886;1.0054;
89.4000;0.6870;1.0077;
89.7000;0.6903;1.0124;
90.0000;0.6895;1.0031;
90.3000;0.6846;0.9891;
90.6000;0.6927;1.0054;
90.9000;0.6886;0.9984;
91.2000;0.6886;0.9984;
91.5000;0.6886;1.0077;
91.8000;0.6878;1.0217;
92.1000;0.6878;1.0217;
92.4000;0.6862;1.0054;
92.7000;0.6886;1.0077;
93.0000;0.6829;1.0008;
93.3000;0.6870;1.0077;
93.6000;0.6862;0.9984;
93.9000;0.6878;1.0008;
94.2000;0.6797;0.9775;
94.5000;0.6886;0.9938;
94.8000;0.6886;0.9961;
95.1000;0.6878;0.9891;
95.4000;0.6878;0.9938;
95.7000;0.6886;0.9961;
96.0000;0.6878;0.9938;
96.3000;0.6870;0.9891;
96.6000;0.6878;0.9915;
96.9000;0.6895;0.9891;
97.2000;0.6903;0.9891;
97.5000;0.6862;0.9799;
97.8000;0.6886;0.9799;
98.1000;0.6919;0.9938;
98.4000;0.6862;0.9799;
98.7000;0.6878;0.9868;
99.0000;0.6895;1.0077;
99.3000;0.6878;1.0054;
99.6000;0.6895;0.9961;
99.9000;0.6878;0.9938;
100.2000;0.6895;0.9868;
100.5000;0.6870;0.9752;
100.8000;0.6878;0.9822;
101.1000;0.6976;1.0054;
101.4000;0.6886;0.9845;
101.7000;0.6854;0.9775;
102.0000;0.6886;0.9868;
102.3000;0.6903;0.9822;
102.6000;0.6854;0.9775;
102.9000;0.6838;0.9729;
103.2000;0.7000;1.0193;
103.5000;0.6903;0.9915;
103.8000;0.6903;0.9891;
104.1000;0.6878;1.0031;
104.4000;0.6862;0.9938;
104.7000;0.6821;0.9868;
105.0000;0.6895;1.0100;
105.3000;0.6886;1.0054;
105.6000;0.6829;0.9868;
105.9000;0.6878;1.0054;
106.2000;0.6903;1.0147;
106.5000;0.6911;1.0100;
106.8000;0.6886;1.0100;
107.1000;0.6895;1.0147;
107.4000;0.6870;0.9984;
107.7000;0.6854;0.9961;
108.0000;0.6903;1.0100;
108.3000;0.6886;0.9915;
108.6000;0.6886;0.9891;
108.9000;0.6911;0.9961;
109.2000;0.6878;0.9961;
109.5000;0.6821;0.9891;
109.8000;0.6838;0.9938;
110.1000;0.6886;1.0054;
110.4000;0.6821;0.9845;
110.7000;0.6895;0.9938;
111.0000;0.6886;0.9961;
111.3000;0.6911;0.9891;
111.6000;0.6895;0.9799;
111.9000;0.6895;0.9891;
112.2000;0.6895;0.9891;
112.5000;0.6903;0.9845;
112.8000;0.6903;0.9799;
113.1000;0.6927;0.9822;
113.4000;0.6886;0.9729;
113.7000;0.6878;0.9775;
114.0000;0.6895;0.9868;
114.3000;0.6903;0.9915;
114.6000;0.6829;0.9822;
114.9000;0.6911;0.9984;
115.2000;0.6935;1.0077;
115.5000;0.6927;1.0077;
115.8000;0.6911;1.0054;
116.1000;0.6935;1.0054;
116.4000;0.6943;1.0077;
116.7000;0.6903;1.0031;
117.0000;0.6862;0.9938;
117.3000;0.6911;1.0100;
117.6000;0.6903;1.0054;
117.9000;0.6919;1.0100;
118.2000;0.6886;1.0008;
118.5000;0.6878;0.9938;
118.8000;0.6903;0.9984;
119.1000;0.6992;1.0217;
119.4000;0.6862;0.9891;
119.7000;0.6895;0.9938;
120.0000;0.6952;1.0077;
120.3000;0.6854;0.9845;
120.6000;0.6895;0.9915;
120.9000;0.6886;0.9938;
121.2000;0.6903;1.0100;
121.5000;0.6895;1.0193;
121.8000;0.6895;1.0193;
122.1000;0.6870;1.0124;
122.4000;0.6903;1.0147;
122.7000;0.6895;1.0147;
123.0000;0.6903;1.0147;
123.3000;0.6886;1.0077;
123.6000;0.6927;1.0054;
123.9000;0.6895;0.9984;
124.2000;0.6862;0.9961;
124.5000;0.6878;1.0077;
124.8000;0.6911;1.0100;
125.1000;0.6927;1.0124;
125.4000;0.6886;1.0031;
125.7000;0.6903;1.0100;
126.0000;0.6903;1.0008;
126.3000;0.6911;1.0008;
126.6000;0.7000;1.0217;
126.9000;0.6943;1.0100;
127.2000;0.6976;1.0217;
127.5000;0.6903;1.0077;
127.8000;0.6886;0.9938;
128.1000;0.6911;0.9938;
128.4000;0.6846;0.9845;
128.7000;0.6919;0.9868;
129.0000;0.6911;0.9868;
129.3000;0.6919;0.9938;
129.6000;0.6952;1.0031;
129.9000;0.6903;0.9961;
130.2000;0.6886;1.0031;
130.5000;0.6854;0.9938;
130.8000;0.6838;0.9961;
131.1000;0.6895;1.0031;
131.4000;0.6895;1.0124;
131.7000;0.6911;1.0217;
132.0000;0.6878;1.0170;
132.3000;0.6919;1.0217;
132.6000;0.6895;1.0170;
132.9000;0.6911;1.0170;
133.2000;0.6919;1.0193;
133.5000;0.6789;0.9891;
133.8000;0.6886;1.0124;
134.1000;0.6903;1.0193;
134.4000;0.6935;1.0217;
134.7000;0.6911;1.0124;
135.0000;0.6886;1.0054;
135.3000;0.6886;1.0077;
135.6000;0.6911;1.0100;
135.9000;0.6911;1.0100;
136.2000;0.6895;1.0031;
136.5000;0.6886;1.0077;
136.8000;0.6911;1.0147;
137.1000;0.6903;1.0077;
137.4000;0.6862;0.9961;
137.7000;0.6886;1.0124;
138.0000;0.6911;1.0217;
138.3000;0.6895;1.0124;
138.6000;0.6895;1.0100;
138.9000;0.6878;1.0054;
139.2000;0.6935;1.0170;
139.5000;0.6903;1.0077;
139.8000;0.6952;1.0193;
140.1000;0.6911;1.0147;
140.4000;0.6862;1.0077;
140.7000;0.6919;1.0147;
141.0000;0.6846;1.0031;
141.3000;0.6903;1.0170;
141.6000;0.6903;1.0100;
141.9000;0.6935;1.0217;
142.2000;0.6903;1.0240;
142.5000;0.6903;1.0217;
142.8000;0.6903;1.0193;
143.1000;0.6903;1.0240;
143.4000;0.6870;1.0077;
143.7000;0.6903;1.0147;
144.0000;0.6903;1.0147;
144.3000;0.6870;1.0124;
144.6000;0.6903;1.0217;
144.9000;0.6903;1.0217;
145.2000;0.6886;1.0124;
145.5000;0.6895;1.0100;
145.8000;0.6919;1.0170;
146.1000;0.6919;1.0077;
146.4000;0.6903;1.0100;
146.7000;0.6895;1.0240;
147.0000;0.6919;1.0309;
147.3000;0.6911;1.0263;
147.6000;0.6911;1.0170;
147.9000;0.6943;1.0263;
148.2000;0.6927;1.0217;
148.5000;0.6862;1.0100;
148.8000;0.6886;1.0170;
149.1000;0.6895;1.0147;
149.4000;0.6919;1.0124;
149.7000;0.6903;1.0031;
150.0000;0.6927;1.0077;
150.3000;0.6895;0.9984;
150.6000;0.6870;0.9891;
150.9000;0.6919;1.0031;
151.2000;0.6911;0.9938;
151.5000;0.6895;1.0008;
151.8000;0.6911;1.0100;
152.1000;0.6927;1.0124;
152.4000;0.6911;1.0008;
152.7000;0.6911;0.9984;
153.0000;0.6903;0.9938;
153.3000;0.6911;0.9984;
153.6000;0.6919;1.0147;
153.9000;0.6911;1.0054;
154.2000;0.6895;0.9984;
154.5000;0.6911;1.0054;
154.8000;0.6903;1.0008;
155.1000;0.6919;1.0100;
155.4000;0.6895;1.0077;
155.7000;0.6903;1.0147;
156.0000;0.6927;1.0124;
156.3000;0.6903;1.0077;
156.6000;0.6878;1.0031;
156.9000;0.6895;1.0031;
157.2000;0.6903;1.0077;
157.5000;0.6927;1.0031;
157.8000;0.6911;0.9961;
158.1000;0.6895;0.9961;
158.4000;0.6952;1.0031;
158.7000;0.6903;0.9984;
159.0000;0.6911;0.9961;
159.3000;0.6911;1.0054;
159.6000;0.6935;1.0031;
159.9000;0.6903;1.0054;
160.2000;0.6903;1.0124;
160.5000;0.6903;1.0031;
160.8000;0.6911;0.9984;
161.1000;0.6927;1.0031;
161.4000;0.6911;1.0100;
161.7000;0.6919;1.0193;
162.0000;0.6911;1.0124;
162.3000;0.6903;1.0170;
162.6000;0.6919;1.0217;
162.9000;0.6919;1.0193;
163.2000;0.6895;1.0147;
163.5000;0.6927;1.0124;
163.8000;0.6919;1.0193;
164.1000;0.6911;1.0217;
164.4000;0.6878;1.0077;
164.7000;0.6911;1.0170;
165.0000;0.6976;1.0263;
165.3000;0.6903;1.0008;
165.6000;0.6878;1.0031;
165.9000;0.6886;1.0054;
166.2000;0.6919;1.0124;
166.5000;0.6886;1.0054;
166.8000;0.6911;1.0008;
167.1000;0.6903;0.9961;
167.4000;0.6903;0.9938;
167.7000;0.6903;0.9938;
168.0000;0.6911;1.0008;
168.3000;0.6838;0.9799;
168.6000;0.6895;0.9915;
168.9000;0.6903;0.9868;
169.2000;0.6895;0.9961;
169.5000;0.6903;0.9938;
169.8000;0.6903;1.0008;
170.1000;0.6911;1.0031;
170.4000;0.6911;1.0100;
170.7000;0.6927;1.0170;
171.0000;0.6919;1.0100;
171.3000;0.6919;1.0077;
171.6000;0.6911;1.0100;
171.9000;0.6919;1.0077;
172.2000;0.6927;1.0031;
172.5000;0.6911;1.0031;
172.8000;0.6911;1.0008;
173.1000;0.6911;0.9938;
173.4000;0.6935;0.9961;
173.7000;0.6911;0.9938;
174.0000;0.6911;0.9984;
174.3000;0.6927;1.0008;
174.6000;0.6968;1.0054;
174.9000;0.6895;0.9938;
175.2000;0.6903;0.9938;
175.5000;0.6911;1.0031;
175.8000;0.6886;1.0077;
176.1000;0.6886;1.0100;
176.4000;0.7009;1.0356;
176.7000;0.6903;1.0100;
177.0000;0.6895;1.0077;
177.3000;0.6911;1.0147;
177.6000;0.6838;0.9984;
177.9000;0.6919;1.0147;
178.2000;0.6911;1.0124;
178.5000;0.6919;1.0054;
178.8000;0.6911;1.0054;
179.1000;0.6911;1.0077;
179.4000;0.6895;0.9938;
179.7000;0.6878;0.9729;
180.0000;0.6911;0.9706;
180.3000;0.6886;0.9706;
180.6000;0.6911;0.9799;
180.9000;0.6895;0.9845;
181.2000;0.6911;0.9891;
181.5000;0.6903;0.9938;
181.8000;0.6919;0.9984;
182.1000;0.6911;0.9984;
182.4000;0.6919;1.0077;
182.7000;0.6919;1.0054;
183.0000;0.6911;1.0077;
183.3000;0.6919;1.0031;
183.6000;0.6903;0.9915;
183.9000;0.6927;0.9891;
184.2000;0.6919;0.9845;
184.5000;0.6911;0.9915;
184.8000;0.6911;0.9938;
185.1000;0.6870;0.9915;
185.4000;0.6862;0.9915;
185.7000;0.6895;0.9961;
186.0000;0.6878;0.9961;
186.3000;0.6886;0.9961;
186.6000;0.6903;0.9961;
186.9000;0.6911;0.9938;
187.2000;0.6878;0.9822;
187.5000;0.6903;0.9868;
187.8000;0.6911;0.9868;
188.1000;0.6919;0.9799;
188.4000;0.6903;0.9799;
188.7000;0.6903;0.9752;
189.0000;0.6911;0.9868;
189.3000;0.6878;0.9775;
189.6000;0.6911;0.9775;
189.9000;0.6895;0.9682;
190.2000;0.6927;0.9682;
190.5000;0.6895;0.9659;
190.8000;0.6911;0.9590;
191.1000;0.6903;0.9636;
191.4000;0.6895;0.9706;
191.7000;0.6903;0.9729;
192.0000;0.6919;0.9799;
192.3000;0.6903;0.9752;
192.6000;0.6911;0.9822;
192.9000;0.6919;0.9868;
193.2000;0.6911;0.9868;
193.5000;0.6911;0.9799;
193.8000;0.6919;0.9729;
194.1000;0.6919;0.9729;
194.4000;0.6919;0.9729;
194.7000;0.6927;0.9752;
195.0000;0.6919;0.9729;
195.3000;0.6911;0.9822;
195.6000;0.6919;0.9891;
195.9000;0.6911;0.9775;
196.2000;0.6903;0.9775;
196.5000;0.6911;0.9752;
196.8000;0.6919;0.9752;
197.1000;0.6960;0.9822;
197.4000;0.6886;0.9613;
197.7000;0.6919;0.9659;
198.0000;0.6911;0.9706;
198.3000;0.6886;0.9682;
198.6000;0.6878;0.9636;
198.9000;0.6903;0.9706;
199.2000;0.6903;0.9659;
199.5000;0.6943;0.9752;
199.8000;0.6911;0.9706;
200.1000;0.6895;0.9752;
200.4000;0.6878;0.9822;
200.7000;0.6911;0.9961;
201.0000;0.6886;1.0054;
201.3000;0.6895;1.0031;
201.6000;0.6886;1.0031;
201.9000;0.6878;0.9984;
202.2000;0.6927;0.9984;
202.5000;0.6903;0.9845;
202.8000;0.6911;0.9891;
203.1000;0.6911;0.9961;
203.4000;0.6895;0.9891;
203.7000;0.6911;0.9891;
204.0000;0.6903;0.9915;
204.3000;0.6911;0.9891;
204.6000;0.6911;0.9961;
204.9000;0.6919;1.0008;
205.2000;0.6927;0.9984;
205.5000;0.6911;0.9938;
205.8000;0.6911;0.9915;
206.1000;0.6911;0.9961;
206.4000;0.6878;0.9845;
206.7000;0.6895;0.9891;
207.0000;0.6960;1.0008;
207.3000;0.6829;0.9729;
207.6000;0.6895;0.9915;
207.9000;0.6911;1.0008;
208.2000;0.6911;0.9984;
208.5000;0.6911;1.0008;
208.8000;0.6911;0.9984;
209.1000;0.6927;0.9984;
209.4000;0.6895;0.9915;
209.7000;0.6911;1.0031;
210.0000;0.6960;1.0124;
210.3000;0.6935;1.0077;
210.6000;0.6919;0.9984;
210.9000;0.6911;1.0077;
211.2000;0.6903;1.0008;
211.5000;0.6952;1.0100;
211.8000;0.6903;0.9984;
212.1000;0.6911;0.9984;
212.4000;0.6911;0.9938;
212.7000;0.6911;0.9845;
213.0000;0.6805;0.9543;
213.3000;0.6919;0.9822;
213.6000;0.7000;1.0054;
213.9000;0.6903;0.9775;
214.2000;0.6895;0.9752;
214.5000;0.6903;0.9682;
214.8000;0.6911;0.9822;
215.1000;0.6943;0.9915;
215.4000;0.6797;0.9636;
215.7000;0.6927;1.0031;
216.0000;0.6772;0.9799;
216.3000;0.7025;1.0379;
216.6000;0.6919;1.0008;
216.9000;0.6903;1.0077;
217.2000;0.6927;1.0077;
217.5000;0.6903;0.9938;
217.8000;0.6895;0.9915;
218.1000;0.6903;0.9984;
218.4000;0.6911;1.0077;
218.7000;0.6903;1.0008;
219.0000;0.6952;1.0124;
219.3000;0.6919;0.9961;
219.6000;0.6903;0.9845;
219.9000;0.6903;0.9984;
220.2000;0.6952;1.0031;
220.5000;0.6911;1.0031;
220.8000;0.6911;1.0077;
221.1000;0.6911;1.0193;
221.4000;0.6903;1.0124;
221.7000;0.6919;1.0217;
222.0000;0.6927;1.0124;
222.3000;0.6895;1.0031;
222.6000;0.6886;1.0054;
222.9000;0.6903;1.0054;
223.2000;0.6878;1.0031;
223.5000;0.6976;1.0286;
223.8000;0.6968;1.0217;
224.1000;0.6919;0.9984;
224.4000;0.6911;1.0008;
224.7000;0.6911;1.0008;
225.0000;0.6911;1.0008;
225.3000;0.6903;1.0031;
225.6000;0.6878;0.9915;
225.9000;0.6903;1.0008;
226.2000;0.6895;1.0008;
226.5000;0.6911;0.9938;
226.8000;0.6903;0.9915;
227.1000;0.6903;0.9961;
227.4000;0.6911;0.9961;
227.7000;0.6952;0.9984;
228.0000;0.6895;0.9915;
228.3000;0.6895;0.9891;
228.6000;0.6911;0.9891;
228.9000;0.6911;0.9822;
229.2000;0.6927;0.9891;
229.5000;0.6911;0.9752;
229.8000;0.6895;0.9682;
230.1000;0.6919;0.9729;
230.4000;0.6911;0.9729;
230.7000;0.6911;0.9636;
231.0000;0.6919;0.9706;
231.3000;0.6919;0.9775;
231.6000;0.6911;0.9822;
231.9000;0.6927;0.9915;
232.2000;0.6895;0.9845;
232.5000;0.6886;0.9822;
232.8000;0.6895;0.9822;
233.1000;0.6813;0.9682;
233.4000;0.6797;0.9682;
233.7000;0.6919;1.0031;
234.0000;0.6911;1.0008;
234.3000;0.6903;1.0031;
234.6000;0.6895;1.0031;
234.9000;0.6919;1.0147;
235.2000;0.6919;1.0170;
235.5000;0.6886;1.0008;
235.8000;0.6903;0.9938;
236.1000;0.6886;0.9891;
236.4000;0.6886;0.9961;
236.7000;0.6895;1.0031;
237.0000;0.6895;1.0031;
237.3000;0.6895;0.9984;
237.6000;0.6927;1.0008;
237.9000;0.6911;0.9915;
238.2000;0.6903;0.9915;
238.5000;0.6772;0.9659;
238.8000;0.6821;0.9682;
239.1000;0.7009;1.0193;
239.4000;0.6952;1.0124;
239.7000;0.6919;1.0054;
240.0000;0.6829;0.9938;
240.3000;0.6919;1.0170;
240.6000;0.6927;1.0170;
240.9000;0.6895;1.0077;
241.2000;0.6903;1.0100;
241.5000;0.7025;1.0309;
241.8000;0.6911;0.9984;
242.1000;0.6960;1.0100;
242.4000;0.6911;1.0008;
242.7000;0.6911;0.9961;
243.0000;0.6919;1.0008;
243.3000;0.6903;1.0124;
243.6000;0.6903;1.0124;
243.9000;0.6895;1.0100;
244.2000;0.6919;1.0124;
244.5000;0.6911;1.0031;
244.8000;0.6903;0.9915;
245.1000;0.6927;0.9915;
245.4000;0.6903;0.9938;
245.7000;0.6976;1.0077;
246.0000;0.6886;0.9961;
246.3000;0.6968;1.0147;
246.6000;0.6789;0.9775;
246.9000;0.6903;1.0031;
247.2000;0.6911;1.0008;
247.5000;0.6878;1.0054;
247.8000;0.6895;1.0193;
248.1000;0.6911;1.0263;
248.4000;0.6895;1.0147;
248.7000;0.6919;1.0193;
249.0000;0.6911;1.0147;
249.3000;0.6911;1.0193;
249.6000;0.6927;1.0286;
249.9000;0.6895;1.0170;
250.2000;0.6878;1.0147;
250.5000;0.6903;1.0100;
250.8000;0.6911;1.0193;
251.1000;0.6952;1.0356;
251.4000;0.6919;1.0309;
251.7000;0.6911;1.0170;
252.0000;0.7033;1.0449;
252.3000;0.6935;1.0217;
252.6000;0.6846;0.9961;
252.9000;0.6911;1.0100;
253.2000;0.6895;1.0077;
253.5000;0.6895;1.0031;
253.8000;0.6911;1.0008;
254.1000;0.6895;1.0031;
254.4000;0.6903;1.0100;
254.7000;0.6927;1.0077;
255.0000;0.6911;1.0008;
255.3000;0.6968;1.0193;
255.6000;0.6960;1.0286;
255.9000;0.6927;1.0193;
256.2000;0.6919;1.0263;
256.5000;0.6895;1.0263;
256.8000;0.6911;1.0309;
257.1000;0.6927;1.0286;
257.4000;0.6919;1.0379;
257.7000;0.6952;1.0402;
258.0000;0.6911;1.0193;
258.3000;0.6911;1.0147;
258.6000;0.6911;0.9961;
258.9000;0.6886;0.9868;
259.2000;0.6903;0.9984;
259.5000;0.6911;1.0100;
259.8000;0.6903;1.0100;
260.1000;0.6919;1.0077;
260.4000;0.6895;1.0077;
260.7000;0.6911;1.0147;
261.0000;0.6886;0.9984;
261.3000;0.6895;0.9938;
261.6000;0.6903;1.0008;
261.9000;0.6903;1.0031;
262.2000;0.6911;1.0147;
262.5000;0.6911;1.0193;
262.8000;0.6895;1.0147;
263.1000;0.6838;1.0031;
263.4000;0.6927;1.0240;
263.7000;0.6911;1.0170;
264.0000;0.6927;1.0193;
264.3000;0.6903;1.0124;
264.6000;0.6911;1.0124;
264.9000;0.6919;1.0100;
265.2000;0.6919;1.0170;
265.5000;0.6919;1.0193;
265.8000;0.6895;1.0263;
266.1000;0.6960;1.0449;
266.4000;0.6903;1.0286;
266.7000;0.6903;1.0263;
267.0000;0.6886;1.0263;
267.3000;0.6919;1.0263;
267.6000;0.6911;1.0193;
267.9000;0.6911;1.0217;
268.2000;0.6911;1.0077;
268.5000;0.6919;1.0124;
268.8000;0.6895;1.0054;
269.1000;0.6935;1.0100;
269.4000;0.6886;1.0031;
269.7000;0.6911;1.0054;
270.0000;0.6911;1.0008;
270.3000;0.6919;1.0124;
270.6000;0.6960;1.0217;
270.9000;0.6903;1.0124;
271.2000;0.6927;1.0100;
271.5000;0.6903;1.0077;
271.8000;0.6895;1.0054;
272.1000;0.6886;1.0124;
272.4000;0.6895;1.0217;
272.7000;0.6927;1.0240;
273.0000;0.6886;1.0077;
273.3000;0.6870;1.0008;
273.6000;0.6878;0.9984;
273.9000;0.6927;1.0077;
274.2000;0.6903;1.0031;
274.5000;0.6927;1.0077;
274.8000;0.6911;0.9984;
275.1000;0.6943;1.0031;
275.4000;0.6911;0.9868;
275.7000;0.6935;1.0008;
276.0000;0.6911;0.9984;
276.3000;0.6960;1.0008;
276.6000;0.6903;0.9938;
276.9000;0.6903;0.9915;
277.2000;0.6927;0.9984;
277.5000;0.6895;0.9984;
277.8000;0.6903;0.9984;
278.1000;0.6911;1.0054;
278.4000;0.6911;1.0077;
278.7000;0.6886;1.0054;
279.0000;0.6984;1.0240;
279.3000;0.6903;1.0031;
279.6000;0.6903;1.0008;
279.9000;0.6895;1.0008;
280.2000;0.6895;1.0008;
280.5000;0.6911;0.9915;
280.8000;0.6895;0.9891;
281.1000;0.6878;0.9915;
281.4000;0.6886;0.9868;
281.7000;0.6903;0.9891;
282.0000;0.6886;1.0008;
282.3000;0.6895;1.0054;
282.6000;0.6895;1.0077;
282.9000;0.6911;1.0147;
283.2000;0.6870;1.0100;
283.5000;0.6878;1.0077;
283.8000;0.6903;1.0170;
284.1000;0.6886;1.0170;
284.4000;0.6886;1.0124;
284.7000;0.6886;1.0124;
285.0000;0.6862;1.0193;
285.3000;0.6870;1.0217;
285.6000;0.6895;1.0147;
285.9000;0.6919;1.0147;
286.2000;0.6895;1.0054;
286.5000;0.6984;1.0309;
286.8000;0.6895;0.9984;
287.1000;0.6919;0.9961;
287.4000;0.6911;0.9915;
287.7000;0.6911;1.0008;
288.0000;0.6895;0.9961;
288.3000;0.6919;0.9961;
288.6000;0.6919;0.9984;
288.9000;0.6943;1.0124;
289.2000;0.6895;1.0008;
289.5000;0.6927;0.9961;
289.8000;0.6919;0.9915;
290.1000;0.6911;0.9822;
290.4000;0.6903;0.9752;
290.7000;0.6838;0.9613;
291.0000;0.6895;0.9799;
291.3000;0.6919;0.9891;
291.6000;0.6821;0.9659;
291.9000;0.6903;0.9868;
292.2000;0.6878;0.9868;
292.5000;0.6911;1.0054;
292.8000;0.6895;0.9984;
293.1000;0.6903;1.0147;
293.4000;0.6903;1.0193;
293.7000;0.6886;1.0147;
294.0000;0.6911;1.0124;
294.3000;0.6984;1.0263;
294.6000;0.6895;1.0054;
294.9000;0.6903;1.0008;
295.2000;0.6903;1.0031;
295.5000;0.6935;1.0170;
295.8000;0.6911;1.0147;
296.1000;0.6903;1.0124;
296.4000;0.6895;1.0100;
296.7000;0.6903;1.0147;
297.0000;0.6903;1.0263;
297.3000;0.6911;1.0333;
297.6000;0.6903;1.0333;
297.9000;0.6919;1.0402;
298.2000;0.6911;1.0263;
298.5000;0.6886;1.0217;
298.8000;0.6911;1.0309;
299.1000;0.6927;1.0286;
299.4000;0.6895;1.0170;
299.7000;0.6895;1.0124;
300.0000;0.6927;1.0147;
300.3000;0.6821;0.9915;
300.6000;0.6903;1.0124;
300.9000;0.6903;1.0077;
301.2000;0.6886;1.0054;
301.5000;0.6919;1.0124;
301.8000;0.6886;1.0077;
302.1000;0.6878;1.0054;
302.4000;0.6911;1.0170;
302.7000;0.6886;1.0147;
303.0000;0.6895;1.0263;
303.3000;0.6911;1.0286;
303.6000;0.6895;1.0240;
303.9000;0.6903;1.0217;
304.2000;0.6927;1.0309;
304.5000;0.6911;1.0170;
304.8000;0.6886;1.0077;
305.1000;0.6886;1.0147;
305.4000;0.6911;1.0100;
305.7000;0.6903;1.0031;
306.0000;0.6886;1.0008;
306.3000;0.6911;1.0054;
306.6000;0.6919;1.0077;
306.9000;0.6903;1.0054;
307.2000;0.6911;1.0077;
307.5000;0.6878;1.0031;
307.8000;0.6911;1.0077;
308.1000;0.6911;1.0077;
308.4000;0.6895;1.0170;
308.7000;0.6886;1.0263;
309.0000;0.6903;1.0193;
309.3000;0.6927;1.0263;
309.6000;0.6878;1.0170;
309.9000;0.6886;1.0124;
310.2000;0.6895;1.0077;
310.5000;0.6886;1.0031;
310.8000;0.6903;1.0100;
311.1000;0.6895;1.0147;
311.4000;0.6911;1.0240;
311.7000;0.6903;1.0124;
312.0000;0.6911;1.0124;
312.3000;0.6862;1.0008;
312.6000;0.6886;1.0147;
312.9000;0.6919;1.0240;
313.2000;0.6919;1.0263;
313.5000;0.6903;1.0077;
313.8000;0.6886;1.0054;
314.1000;0.6886;1.0077;
314.4000;0.6903;1.0240;
314.7000;0.6911;1.0309;
315.0000;0.6886;1.0263;
315.3000;0.6895;1.0356;
315.6000;0.6919;1.0356;
315.9000;0.6919;1.0263;
316.2000;0.6878;1.0124;
316.5000;0.7000;1.0425;
316.8000;0.6927;1.0309;
317.1000;0.6870;1.0193;
317.4000;0.6903;1.0217;
317.7000;0.6895;1.0193;
318.0000;0.6911;1.0217;
318.3000;0.6919;1.0240;
318.6000;0.6919;1.0170;
318.9000;0.6895;1.0147;
319.2000;0.6895;1.0170;
319.5000;0.6919;1.0217;
319.8000;0.6903;1.0147;
320.1000;0.6911;1.0170;
320.4000;0.6911;1.0054;
320.7000;0.6911;1.0170;
321.0000;0.6903;1.0240;
321.3000;0.6919;1.0170;
321.6000;0.6903;1.0100;
321.9000;0.6903;1.0054;
322.2000;0.6919;1.0100;
322.5000;0.6903;1.0077;
322.8000;0.6911;1.0008;
323.1000;0.6903;0.9984;
323.4000;0.6927;1.0054;
323.7000;0.6903;1.0031;
324.0000;0.6911;1.0100;
324.3000;0.6911;1.0031;
324.6000;0.6919;0.9984;
324.9000;0.6935;0.9984;
325.2000;0.6935;1.0100;
325.5000;0.6903;0.9984;
325.8000;0.6903;0.9961;
326.1000;0.6870;0.9961;
326.4000;0.6903;1.0217;
326.7000;0.6911;1.0217;
327.0000;0.6895;1.0100;
327.3000;0.6886;1.0054;
327.6000;0.6911;1.0077;
327.9000;0.6895;1.0031;
328.2000;0.6903;1.0054;
328.5000;0.6919;1.0124;
328.8000;0.6919;1.0170;
329.1000;0.6911;1.0217;
329.4000;0.6903;1.0124;
329.7000;0.6919;1.0147;
330.0000;0.6919;1.0193;
330.3000;0.6911;1.0193;
330.6000;0.6886;1.0054;
330.9000;0.6895;1.0170;
331.2000;0.6886;1.0147;
331.5000;0.6952;1.0240;
331.8000;0.6886;1.0170;
332.1000;0.6878;1.0100;
332.4000;0.6919;1.0240;
332.7000;0.6903;1.0263;
333.0000;0.6903;1.0286;
333.3000;0.6903;1.0217;
333.6000;0.6935;1.0425;
333.9000;0.6903;1.0356;
334.2000;0.6927;1.0472;
334.5000;0.6903;1.0402;
334.8000;0.6911;1.0449;
335.1000;0.6911;1.0425;
335.4000;0.6895;1.0333;
335.7000;0.6870;1.0286;
336.0000;0.6903;1.0379;
336.3000;0.6911;1.0356;
336.6000;0.6911;1.0286;
336.9000;0.6895;1.0263;
337.2000;0.6903;1.0356;
337.5000;0.6886;1.0286;
337.8000;0.6870;1.0263;
338.1000;0.6886;1.0356;
338.4000;0.6968;1.0425;
338.7000;0.6903;1.0286;
339.0000;0.6911;1.0333;
339.3000;0.6886;1.0286;
339.6000;0.6911;1.0240;
339.9000;0.6895;1.0170;
340.2000;0.6862;1.0100;
340.5000;0.6878;1.0147;
340.8000;0.6886;1.0309;
341.1000;0.6903;1.0309;
341.4000;0.6895;1.0193;
341.7000;0.6878;1.0193;
342.0000;0.6895;1.0170;
342.3000;0.6895;1.0147;
342.6000;0.6903;1.0170;
342.9000;0.6903;1.0170;
343.2000;0.6895;1.0193;
343.5000;0.6895;1.0263;
343.8000;0.6919;1.0240;
344.1000;0.6911;1.0170;
344.4000;0.6911;1.0077;
344.7000;0.6911;0.9984;
345.0000;0.6911;1.0008;
345.3000;0.6919;1.0077;
345.6000;0.6903;1.0031;
345.9000;0.6911;1.0054;
346.2000;0.7090;1.0518;
346.5000;0.6903;1.0008;
346.8000;0.6903;1.0077;
347.1000;0.6895;1.0077;
347.4000;0.6878;1.0008;
347.7000;0.6878;0.9938;
348.0000;0.6935;1.0170;
348.3000;0.6789;0.9706;
348.6000;0.6903;0.9961;
348.9000;0.6878;0.9961;
349.2000;0.7000;1.0263;
349.5000;0.6911;0.9915;
349.8000;0.6919;0.9915;
350.1000;0.6903;0.9915;
350.4000;0.6911;1.0054;
350.7000;0.6886;1.0031;
351.0000;0.6886;1.0008;
351.3000;0.6903;1.0054;
351.6000;0.6903;1.0054;
351.9000;0.6903;1.0031;
352.2000;0.6878;1.0008;
352.5000;0.6895;1.0147;
352.8000;0.6886;1.0100;
353.1000;0.6895;1.0077;
353.4000;0.6903;1.0031;
353.7000;0.6895;0.9984;
354.0000;0.6903;1.0008;
354.3000;0.6886;0.9915;
354.6000;0.6895;0.9822;
354.9000;0.6911;0.9891;
355.2000;0.6927;0.9938;
355.5000;0.6919;0.9938;
355.8000;0.6895;0.9799;
356.1000;0.6895;0.9706;
356.4000;0.6870;0.9636;
356.7000;0.6919;0.9775;
357.0000;0.6911;0.9706;
357.3000;0.6911;0.9659;
357.6000;0.6919;0.9682;
357.9000;0.6911;0.9799;
358.2000;0.6886;0.9822;
358.5000;0.6886;0.9775;
358.8000;0.6878;0.9822;
359.1000;0.6903;0.9891;
359.4000;0.6895;0.9845;
359.7000;0.6919;0.9915;
360.0000;0.6927;0.9961;
360.3000;0.6968;1.0054;
360.6000;0.6911;0.9915;
360.9000;0.6903;0.9845;
361.2000;0.6919;0.9915;
361.5000;0.6886;0.9868;
361.8000;0.6903;0.9961;
362.1000;0.6911;0.9845;
362.4000;0.6903;0.9799;
362.7000;0.6854;0.9636;
363.0000;0.6911;0.9799;
363.3000;0.6903;0.9915;
363.6000;0.6952;1.0077;
363.9000;0.6919;1.0031;
364.2000;0.6943;1.0170;
364.5000;0.7049;1.0356;
364.8000;0.6911;0.9938;
365.1000;0.6919;0.9845;
365.4000;0.6911;0.9868;
365.7000;0.6886;0.9891;
366.0000;0.6895;0.9799;
366.3000;0.6927;1.0008;
366.6000;0.6903;0.9938;
366.9000;0.6927;0.9915;
367.2000;0.6878;0.9891;
367.5000;0.6919;0.9938;
367.8000;0.6886;0.9868;
368.1000;0.6870;0.9822;
368.4000;0.6984;0.9961;
368.7000;0.6854;0.9659;
369.0000;0.6878;0.9659;
369.3000;0.6911;0.9822;
369.6000;0.6911;0.9752;
369.9000;0.6895;0.9682;
370.2000;0.6935;0.9891;
370.5000;0.6927;0.9752;
370.8000;0.6919;0.9822;
371.1000;0.6960;0.9938;
371.4000;0.6886;0.9729;
371.7000;0.6862;0.9729;
372.0000;0.6903;0.9799;
372.3000;0.6878;0.9636;
372.6000;0.6895;0.9659;
372.9000;0.6895;0.9752;
373.2000;0.6854;0.9613;
373.5000;0.6903;0.9799;
373.8000;0.6854;0.9682;
374.1000;0.6911;0.9845;
374.4000;0.6886;0.9845;
374.7000;0.6911;0.9845;
375.0000;0.6903;0.9845;
375.3000;0.6903;0.9915;
375.6000;0.6903;0.9961;
375.9000;0.6895;0.9845;
376.2000;0.6878;0.9752;
376.5000;0.6968;0.9961;
376.8000;0.6895;0.9822;
377.1000;0.6895;0.9799;
377.4000;0.6895;0.9706;
377.7000;0.6903;0.9752;
378.0000;0.6919;0.9822;
378.3000;0.6919;0.9845;
378.6000;0.6919;0.9822;
378.9000;0.6911;0.9868;
379.2000;0.6895;0.9891;
379.5000;0.6903;0.9845;
379.8000;0.6878;0.9868;
380.1000;0.6895;0.9891;
380.4000;0.6886;0.9845;
380.7000;0.6903;0.9938;
381.0000;0.6911;0.9868;
381.3000;0.6935;0.9891;
381.6000;0.6886;0.9891;
381.9000;0.6886;0.9938;
382.2000;0.6919;0.9961;
382.5000;0.6886;0.9845;
382.8000;0.6895;0.9868;
383.1000;0.6886;0.9845;
383.4000;0.6903;0.9915;
383.7000;0.6895;0.9868;
384.0000;0.6878;0.9752;
384.3000;0.6886;0.9845;
384.6000;0.6903;0.9822;
384.9000;0.6919;0.9799;
385.2000;0.6919;0.9799;
385.5000;0.6903;0.9822;
385.8000;0.6895;0.9752;
386.1000;0.6903;0.9752;
386.4000;0.6870;0.9659;
386.7000;0.6895;0.9706;
387.0000;0.6886;0.9752;
387.3000;0.6886;0.9729;
387.6000;0.6895;0.9845;
387.9000;0.6862;0.9845;
388.2000;0.6870;0.9845;
388.5000;0.6886;0.9915;
388.8000;0.6886;0.9915;
389.1000;0.6886;0.9891;
389.4000;0.6911;0.9822;
389.7000;0.6895;0.9822;
390.0000;0.6895;0.9822;
390.3000;0.6903;0.9845;
390.6000;0.6886;0.9868;
390.9000;0.6895;0.9845;
391.2000;0.6927;0.9915;
391.5000;0.6919;0.9961;
391.8000;0.6895;0.9961;
392.1000;0.6829;0.9822;
392.4000;0.6952;0.9984;
392.7000;0.6960;0.9938;
393.0000;0.6878;0.9891;
393.3000;0.6911;0.9961;
393.6000;0.6911;0.9984;
393.9000;0.6927;1.0170;
394.2000;0.6862;1.0008;
394.5000;0.6911;1.0124;
394.8000;0.6895;1.0077;
395.1000;0.6854;0.9915;
395.4000;0.6895;0.9984;
395.7000;0.6886;0.9938;
396.0000;0.6870;0.9915;
396.3000;0.6911;1.0100;
396.6000;0.6903;1.0100;
396.9000;0.6781;0.9729;
397.2000;0.6927;1.0077;
397.5000;0.6895;1.0008;
397.8000;0.6886;0.9961;
398.1000;0.6870;0.9984;
398.4000;0.6911;1.0100;
398.7000;0.6895;1.0100;
399.0000;0.6895;1.0077;
399.3000;0.6895;1.0100;
399.6000;0.6911;1.0100;
399.9000;0.6886;1.0054;
400.2000;0.6903;1.0054;
400.5000;0.6854;0.9984;
400.8000;0.6919;1.0124;
401.1000;0.6895;1.0100;
401.4000;0.6927;1.0077;
401.7000;0.6903;1.0031;
402.0000;0.6878;0.9984;
402.3000;0.6943;1.0100;
402.6000;0.6895;1.0054;
402.9000;0.6903;1.0054;
403.2000;0.6886;1.0077;
403.5000;0.6895;1.0077;
403.8000;0.6911;1.0100;
404.1000;0.6886;0.9938;
404.4000;0.6878;0.9961;
404.7000;0.6943;1.0100;
405.0000;0.6886;1.0008;
405.3000;0.6829;0.9891;
405.6000;0.6919;1.0217;
405.9000;0.6886;1.0077;
406.2000;0.6903;1.0147;
406.5000;0.6895;1.0147;
406.8000;0.6919;1.0147;
407.1000;0.6886;1.0054;
407.4000;0.6870;1.0031;
407.7000;0.6895;1.0100;
408.0000;0.6895;1.0124;
408.3000;0.6943;1.0240;
408.6000;0.6935;1.0217;
408.9000;0.6968;1.0286;
409.2000;0.6903;1.0124;
409.5000;0.6886;1.0124;
409.8000;0.6870;1.0077;
410.1000;0.6952;1.0286;
410.4000;0.6895;1.0077;
410.7000;0.6895;1.0147;
411.0000;0.6911;1.0217;
411.3000;0.6895;1.0170;
411.6000;0.6895;1.0170;
411.9000;0.6903;1.0100;
412.2000;0.6895;0.9984;
412.5000;0.6862;0.9915;
412.8000;0.6895;0.9891;
413.1000;0.6895;0.9915;
413.4000;0.6838;0.9752;
413.7000;0.6895;0.9961;
414.0000;0.6895;1.0031;
414.3000;0.6886;0.9961;
414.6000;0.6886;1.0008;
414.9000;0.6878;1.0008;
415.2000;0.6886;1.0008;
415.5000;0.6895;0.9984;
415.8000;0.6886;0.9961;
416.1000;0.6878;0.9915;
416.4000;0.6886;0.9915;
416.7000;0.6886;0.9891;
417.0000;0.6903;0.9938;
417.3000;0.6911;0.9961;
417.6000;0.6870;0.9822;
417.9000;0.6886;0.9891;
418.2000;0.6862;0.9799;
418.5000;0.6895;0.9822;
418.8000;0.6895;0.9729;
419.1000;0.6886;0.9799;
419.4000;0.6895;0.9915;
419.7000;0.6870;0.9868;
420.0000;0.6886;0.9938;
420.3000;0.6895;0.9984;
420.6000;0.6895;1.0054;
420.9000;0.6886;1.0077;
421.2000;0.6886;1.0077;
421.5000;0.6886;0.9938;
421.8000;0.6895;0.9938;
422.1000;0.6903;1.0054;
422.4000;0.6878;1.0031;
422.7000;0.6886;1.0054;
423.0000;0.6903;0.9961;
423.3000;0.6911;0.9845;
423.6000;0.6886;0.9799;
423.9000;0.6886;0.9822;
424.2000;0.6895;0.9775;
424.5000;0.6870;0.9729;
424.8000;0.6878;0.9775;
425.1000;0.6886;0.9822;
425.4000;0.6878;0.9915;
425.7000;0.6895;1.0077;
426.0000;0.6886;1.0100;
426.3000;0.6927;1.0193;
426.6000;0.6895;1.0217;
426.9000;0.6895;1.0286;
427.2000;0.6911;1.0333;
427.5000;0.6854;1.0240;
427.8000;0.6878;1.0147;
428.1000;0.6895;1.0124;
428.4000;0.6870;1.0147;
428.7000;0.6895;1.0240;
429.0000;0.6895;1.0240;
429.3000;0.6878;1.0124;
429.6000;0.6895;1.0193;
429.9000;0.6895;1.0217;
430.2000;0.6870;1.0170;
430.5000;0.6895;1.0147;
430.8000;0.6886;1.0100;
431.1000;0.6886;1.0008;
431.4000;0.6976;1.0286;
431.7000;0.6895;1.0124;
432.0000;0.6903;1.0170;
432.3000;0.6968;1.0309;
432.6000;0.6895;1.0240;
432.9000;0.6895;1.0170;
433.2000;0.6895;1.0193;
433.5000;0.6895;1.0170;
433.8000;0.6895;1.0124;
434.1000;0.6886;1.0031;
434.4000;0.6854;0.9938;
434.7000;0.6919;1.0193;
435.0000;0.6895;1.0170;
435.3000;0.6886;1.0193;
435.6000;0.6886;1.0170;
435.9000;0.6772;0.9845;
436.2000;0.6878;1.0031;
436.5000;0.6895;1.0008;
436.8000;0.6870;0.9984;
437.1000;0.6886;1.0008;
437.4000;0.6895;1.0054;
437.7000;0.6886;1.0031;
438.0000;0.6886;1.0170;
438.3000;0.6878;1.0147;
438.6000;0.6886;1.0217;
438.9000;0.6821;1.0124;
439.2000;0.6886;1.0217;
439.5000;0.6878;1.0147;
439.8000;0.6886;1.0170;
440.1000;0.7000;1.0495;
440.4000;0.6878;1.0124;
440.7000;0.6895;1.0100;
441.0000;0.6878;1.0031;
441.3000;0.6903;1.0054;
441.6000;0.6829;0.9891;
441.9000;0.6895;1.0100;
442.2000;0.6895;1.0124;
442.5000;0.6903;1.0077;
442.8000;0.6903;1.0100;
443.1000;0.6895;1.0077;
443.4000;0.6911;1.0124;
443.7000;0.6903;1.0077;
444.0000;0.6895;1.0054;
444.3000;0.6878;1.0008;
444.6000;0.6886;1.0031;
444.9000;0.6895;1.0124;
445.2000;0.6878;1.0170;
445.5000;0.6911;1.0263;
445.8000;0.6846;1.0124;
446.1000;0.6886;1.0263;
446.4000;0.6846;1.0217;
446.7000;0.6886;1.0263;
447.0000;0.6878;1.0333;
447.3000;0.6870;1.0333;
447.6000;0.6911;1.0333;
447.9000;0.6878;1.0309;
448.2000;0.6895;1.0309;
448.5000;0.6886;1.0333;
448.8000;0.6870;1.0356;
449.1000;0.6895;1.0333;
449.4000;0.6878;1.0263;
449.7000;0.6862;1.0263;
450.0000;0.6895;1.0286;
450.3000;0.6878;1.0240;
450.6000;0.6870;1.0193;
450.9000;0.6862;1.0077;
451.2000;0.6886;1.0031;
451.5000;0.6878;0.9961;
451.8000;0.6878;1.0008;
452.1000;0.6886;1.0077;
452.4000;0.6886;1.0193;
452.7000;0.6846;1.0077;
453.0000;0.6895;1.0100;
453.3000;0.6870;1.0054;
453.6000;0.6903;1.0008;
453.9000;0.6895;0.9915;
454.2000;0.6878;0.9915;
454.5000;0.6870;0.9961;
454.8000;0.6862;0.9961;
455.1000;0.6911;1.0031;
455.4000;0.6870;0.9915;
455.7000;0.6886;0.9822;
456.0000;0.6870;0.9822;
456.3000;0.6895;0.9984;
456.6000;0.6886;1.0008;
456.9000;0.6919;1.0124;
457.2000;0.6862;1.0100;
457.5000;0.6895;1.0217;
457.8000;0.6870;1.0170;
458.1000;0.6886;1.0193;
458.4000;0.6862;1.0100;
458.7000;0.6870;1.0217;
459.0000;0.6870;1.0217;
459.3000;0.6895;1.0124;
459.6000;0.6935;1.0124;
459.9000;0.6870;1.0008;
460.2000;0.6886;0.9984;
460.5000;0.6886;0.9961;
460.8000;0.6878;1.0008;
461.1000;0.7000;1.0333;
461.4000;0.6870;1.0008;
461.7000;0.6903;1.0031;
462.0000;0.6911;1.0077;
462.3000;0.6838;0.9938;
462.6000;0.6935;1.0193;
462.9000;0.6903;1.0147;
463.2000;0.6862;1.0031;
463.5000;0.6935;1.0054;
463.8000;0.6878;0.9915;
464.1000;0.6878;0.9891;
464.4000;0.6789;0.9752;
464.7000;0.6895;1.0008;
465.0000;0.6862;1.0008;
465.3000;0.6895;1.0147;
465.6000;0.6862;1.0077;
465.9000;0.6878;1.0240;
466.2000;0.6878;1.0054;
466.5000;0.6870;1.0008;
466.8000;0.6862;0.9984;
467.1000;0.6878;0.9938;
467.4000;0.6895;0.9961;
467.7000;0.6886;1.0054;
468.0000;0.6903;1.0077;
468.3000;0.6903;1.0077;
468.6000;0.6878;0.9961;
468.9000;0.6870;0.9938;
469.2000;0.6829;0.9868;
469.5000;0.6878;1.0008;
469.8000;0.6895;0.9984;
470.1000;0.6878;1.0008;
470.4000;0.6911;1.0008;
470.7000;0.6886;0.9984;
471.0000;0.6903;0.9938;
471.3000;0.6886;0.9961;
471.6000;0.6903;1.0124;
471.9000;0.6895;1.0124;
472.2000;0.6886;1.0031;
472.5000;0.6886;0.9984;
472.8000;0.6878;0.9961;
473.1000;0.6895;1.0031;
473.4000;0.6886;0.9984;
473.7000;0.6886;0.9891;
474.0000;0.6878;0.9938;
474.3000;0.6911;0.9961;
474.6000;0.6886;1.0008;
474.9000;0.6886;1.0031;
475.2000;0.6878;1.0008;
475.5000;0.6919;1.0031;
475.8000;0.6870;0.9915;
476.1000;0.6878;0.9868;
476.4000;0.6854;0.9868;
476.7000;0.6895;0.9891;
477.0000;0.6943;1.0077;
477.3000;0.6870;0.9868;
477.6000;0.6878;0.9891;
477.9000;0.6886;0.9961;
478.2000;0.6919;1.0031;
478.5000;0.6870;0.9961;
478.8000;0.6870;1.0031;
479.1000;0.6878;0.9961;
479.4000;0.6886;0.9961;
479.7000;0.6862;0.9938;
480.0000;0.6886;1.0008;
480.3000;0.6886;0.9984;
480.6000;0.6870;0.9984;
480.9000;0.6862;1.0008;
481.2000;0.6952;1.0193;
481.5000;0.6862;0.9845;
481.8000;0.6886;0.9845;
482.1000;0.6870;0.9822;
482.4000;0.6846;0.9845;
482.7000;0.6878;0.9868;
483.0000;0.6895;0.9915;
483.3000;0.6886;0.9799;
483.6000;0.6960;1.0008;
483.9000;0.6846;0.9799;
484.2000;0.6927;1.0031;
484.5000;0.6895;1.0100;
484.8000;0.6878;1.0124;
485.1000;0.6821;0.9938;
485.4000;0.6878;0.9984;
485.7000;0.6895;0.9938;
486.0000;0.6943;1.0077;
486.3000;0.6886;1.0008;
486.6000;0.6895;1.0008;
486.9000;0.6870;1.0008;
487.2000;0.6968;1.0286;
487.5000;0.6927;1.0193;
487.8000;0.6862;1.0124;
488.1000;0.6862;1.0147;
488.4000;0.6911;1.0263;
488.7000;0.6895;1.0240;
489.0000;0.6862;1.0170;
489.3000;0.6870;1.0170;
489.6000;0.6886;1.0124;
489.9000;0.6903;1.0147;
490.2000;0.6903;1.0100;
490.5000;0.6886;1.0008;
490.8000;0.6870;0.9961;
491.1000;0.6870;0.9891;
491.4000;0.6886;0.9938;
491.7000;0.6862;0.9891;
492.0000;0.6895;0.9984;
492.3000;0.6903;1.0031;
492.6000;0.6886;1.0031;
492.9000;0.6862;0.9961;
493.2000;0.6968;1.0170;
493.5000;0.6895;1.0008;
493.8000;0.6895;1.0170;
494.1000;0.6903;1.0100;
494.4000;0.6903;1.0124;
494.7000;0.6895;1.0147;
495.0000;0.6919;1.0240;
495.3000;0.6870;1.0193;
495.6000;0.6870;1.0147;
495.9000;0.6878;1.0217;
496.2000;0.6862;1.0170;
496.5000;0.6870;1.0263;
496.8000;0.6870;1.0263;
497.1000;0.6895;1.0124;
497.4000;0.6886;0.9961;
497.7000;0.6878;0.9822;
498.0000;0.6903;0.9868;
498.3000;0.6821;0.9706;
498.6000;0.6870;0.9775;
498.9000;0.6886;0.9799;
499.2000;0.6895;0.9868;
499.5000;0.6895;0.9891;
499.8000;0.6895;0.9938;
500.1000;0.6895;0.9984;
500.4000;0.6862;0.9984;
500.7000;0.6878;1.0031;
501.0000;0.6870;0.9961;
501.3000;0.6878;1.0077;
501.6000;0.6886;1.0031;
501.9000;0.6895;1.0031;
502.2000;0.6854;0.9891;
502.5000;0.6862;0.9961;
502.8000;0.6870;1.0100;
503.1000;0.6911;1.0124;
503.4000;0.6829;0.9961;
503.7000;0.6895;1.0147;
504.0000;0.6862;1.0077;
504.3000;0.6903;0.9984;
504.6000;0.6895;0.9961;
504.9000;0.6886;0.9915;
505.2000;0.6960;1.0077;
505.5000;0.6895;0.9891;
505.8000;0.6886;0.9822;
506.1000;0.6911;0.9799;
506.4000;0.6886;0.9706;
506.7000;0.6878;0.9729;
507.0000;0.6838;0.9659;
507.3000;0.6878;0.9799;
507.6000;0.6870;0.9891;
507.9000;0.6878;0.9915;
508.2000;0.6903;0.9938;
508.5000;0.6895;0.9868;
508.8000;0.6870;0.9752;
509.1000;0.6870;0.9868;
509.4000;0.6854;0.9822;
509.7000;0.6878;0.9915;
510.0000;0.6878;0.9961;
510.3000;0.6886;0.9938;
510.6000;0.6870;0.9961;
510.9000;0.6886;0.9938;
511.2000;0.6895;0.9961;
511.5000;0.6903;0.9891;
511.8000;0.6927;0.9984;
512.1000;0.6895;1.0008;
512.4000;0.6886;1.0031;
512.7000;0.6870;0.9961;
513.0000;0.6854;0.9891;
513.3000;0.6911;0.9915;
513.6000;0.6903;0.9799;
513.9000;0.6886;0.9729;
514.2000;0.6870;0.9799;
514.5000;0.6854;0.9822;
514.8000;0.6878;0.9891;
515.1000;0.6886;0.9938;
515.4000;0.6870;0.9891;
515.7000;0.6878;0.9845;
516.0000;0.6829;0.9682;
516.3000;0.6886;0.9822;
516.6000;0.6870;0.9868;
516.9000;0.6878;0.9845;
517.2000;0.6870;0.9845;
517.5000;0.6878;0.9822;
517.8000;0.6878;0.9729;
518.1000;0.6878;0.9822;
518.4000;0.6886;0.9891;
518.7000;0.6895;0.9868;
519.0000;0.6870;0.9799;
519.3000;0.6805;0.9659;
519.6000;0.6846;0.9706;
519.9000;0.6870;0.9729;
520.2000;0.6878;0.9822;
520.5000;0.6862;0.9868;
520.8000;0.6854;0.9799;
521.1000;0.6870;0.9752;
521.4000;0.6862;0.9636;
521.7000;0.6870;0.9729;
522.0000;0.6854;0.9775;
522.3000;0.6862;0.9799;
522.6000;0.6846;0.9845;
522.9000;0.6854;0.9915;
523.2000;0.6846;0.9915;
523.5000;0.6870;0.9984;
523.8000;0.6870;1.0008;
524.1000;0.6870;1.0054;
524.4000;0.6829;1.0054;
524.7000;0.6870;1.0217;
525.0000;0.6878;1.0217;
525.3000;0.6903;1.0217;
525.6000;0.6878;1.0147;
525.9000;0.6895;1.0193;
526.2000;0.6870;1.0124;
526.5000;0.6878;1.0100;
526.8000;0.6886;1.0100;
527.1000;0.6821;0.9938;
527.4000;0.6878;1.0100;
527.7000;0.6895;1.0147;
528.0000;0.6886;1.0217;
528.3000;0.6878;1.0217;
528.6000;0.6960;1.0518;
528.9000;0.6846;1.0286;
529.2000;0.6878;1.0356;
529.5000;0.6886;1.0309;
529.8000;0.6878;1.0309;
530.1000;0.6886;1.0217;
530.4000;0.6886;1.0100;
530.7000;0.6903;1.0054;
531.0000;0.6878;1.0054;
531.3000;0.6862;1.0031;
531.6000;0.6919;1.0077;
531.9000;0.6886;1.0008;
532.2000;0.6870;1.0008;
532.5000;0.6870;1.0077;
532.8000;0.6878;1.0077;
533.1000;0.6870;1.0170;
533.4000;0.6878;1.0170;
533.7000;0.6919;1.0193;
534.0000;0.6854;1.0147;
534.3000;0.6878;1.0147;
534.6000;0.6878;1.0170;
534.9000;0.6870;1.0077;
535.2000;0.6878;1.0147;
535.5000;0.6878;1.0147;
535.8000;0.6886;1.0124;
536.1000;0.6895;1.0147;
536.4000;0.6870;1.0193;
536.7000;0.6862;1.0077;
537.0000;0.6895;0.9984;
537.3000;0.6846;0.9915;
537.6000;0.6854;1.0031;
537.9000;0.6862;1.0147;
538.2000;0.6862;1.0147;
538.5000;0.6846;1.0147;
538.8000;0.6862;1.0217;
539.1000;0.6878;1.0217;
539.4000;0.6878;1.0147;
539.7000;0.6870;1.0100;
540.0000;0.6870;1.0008;
540.3000;0.6927;0.9984;
540.6000;0.6878;0.9891;
540.9000;0.6895;0.9938;
541.2000;0.6886;0.9891;
541.5000;0.6895;1.0008;
541.8000;0.6886;0.9938;
542.1000;0.6895;0.9961;
542.4000;0.6935;1.0124;
542.7000;0.6878;1.0100;
543.0000;0.6886;1.0100;
543.3000;0.6870;1.0077;
543.6000;0.6895;1.0054;
543.9000;0.6886;1.0008;
544.2000;0.6870;0.9938;
544.5000;0.6862;0.9868;
544.8000;0.6878;1.0031;
545.1000;0.6886;0.9938;
545.4000;0.6854;0.9891;
545.7000;0.6895;1.0008;
546.0000;0.6895;1.0031;
546.3000;0.6878;0.9984;
546.6000;0.6878;1.0008;
546.9000;0.6870;1.0031;
547.2000;0.6878;1.0124;
547.5000;0.6878;1.0147;
547.8000;0.6862;1.0100;
548.1000;0.6862;1.0054;
548.4000;0.6870;1.0031;
548.7000;0.6862;1.0008;
549.0000;0.6895;1.0031;
549.3000;0.6854;0.9915;
549.6000;0.6862;0.9915;
549.9000;0.6878;0.9938;
550.2000;0.6943;1.0193;
550.5000;0.6870;1.0031;
550.8000;0.6878;1.0147;
551.1000;0.6886;1.0217;
551.4000;0.6903;1.0100;
551.7000;0.6878;1.0008;
552.0000;0.6886;1.0031;
552.3000;0.6878;0.9984;
552.6000;0.6895;0.9961;
552.9000;0.6846;0.9891;
553.2000;0.6878;0.9915;
553.5000;0.6903;0.9961;
553.8000;0.6878;0.9822;
554.1000;0.6870;0.9891;
554.4000;0.6878;0.9845;
554.7000;0.6870;0.9845;
555.0000;0.6878;0.9938;
555.3000;0.6870;0.9984;
555.6000;0.6878;1.0031;
555.9000;0.6878;0.9961;
556.2000;0.6821;0.9799;
556.5000;0.6862;0.9868;
556.8000;0.6870;0.9891;
557.1000;0.6854;0.9938;
557.4000;0.6870;1.0100;
557.7000;0.6878;0.9984;
558.0000;0.6895;0.9915;
558.3000;0.6862;0.9868;
558.6000;0.6878;0.9915;
558.9000;0.6927;1.0170;
559.2000;0.6854;0.9868;
559.5000;0.6870;0.9938;
559.8000;0.6862;0.9915;
560.1000;0.6878;0.9915;
560.4000;0.6878;0.9868;
560.7000;0.6870;0.9822;
561.0000;0.6878;0.9868;
561.3000;0.6886;0.9961;
561.6000;0.6886;0.9984;
561.9000;0.6878;1.0008;
562.2000;0.6870;0.9938;
562.5000;0.6878;0.9915;
562.8000;0.6886;0.9961;
563.1000;0.6870;0.9984;
563.4000;0.6886;0.9938;
563.7000;0.6846;0.9915;
564.0000;0.6878;0.9961;
564.3000;0.6886;0.9915;
564.6000;0.6772;0.9729;
564.9000;0.6878;0.9961;
565.2000;0.6895;0.9961;
565.5000;0.6895;0.9984;
565.8000;0.6870;0.9984;
566.1000;0.6870;1.0031;
566.4000;0.6862;1.0077;
566.7000;0.6878;1.0124;
567.0000;0.6895;1.0286;
567.3000;0.6943;1.0402;
567.6000;0.6870;1.0170;
567.9000;0.6886;1.0240;
568.2000;0.6878;1.0193;
568.5000;0.6862;1.0170;
568.8000;0.6862;1.0100;
569.1000;0.6854;0.9961;
569.4000;0.6870;0.9915;
569.7000;0.6870;0.9775;
570.0000;0.6862;0.9706;
570.3000;0.6878;0.9729;
570.6000;0.6886;0.9799;
570.9000;0.6878;0.9706;
571.2000;0.6862;0.9729;
571.5000;0.6870;0.9729;
571.8000;0.6911;0.9915;
572.1000;0.6870;0.9891;
572.4000;0.6846;0.9891;
572.7000;0.6870;1.0077;
573.0000;0.6886;1.0124;
573.3000;0.6862;1.0031;
573.6000;0.6862;0.9984;
573.9000;0.6862;1.0054;
574.2000;0.6886;1.0077;
574.5000;0.6870;1.0077;
574.8000;0.6895;1.0077;
575.1000;0.6870;0.9938;
575.4000;0.6886;1.0031;
575.7000;0.6911;1.0008;
576.0000;0.6854;0.9915;
576.3000;0.6878;0.9961;
576.6000;0.6878;0.9868;
576.9000;0.6911;1.0031;
577.2000;0.6797;0.9752;
577.5000;0.6870;0.9984;
577.8000;0.6919;1.0147;
578.1000;0.6870;1.0054;
578.4000;0.6919;1.0124;
578.7000;0.6862;1.0077;
579.0000;0.6886;1.0240;
579.3000;0.6886;1.0240;
579.6000;0.6862;1.0077;
579.9000;0.6813;0.9984;
580.2000;0.6870;1.0147;
580.5000;0.6870;1.0077;
580.8000;0.6862;1.0031;
581.1000;0.6862;1.0077;
581.4000;0.6854;1.0054;
581.7000;0.6886;1.0147;
582.0000;0.6878;1.0193;
582.3000;0.6976;1.0379;
582.6000;0.6862;1.0077;
582.9000;0.6870;1.0031;
583.2000;0.6764;0.9682;
583.5000;0.6829;0.9938;
583.8000;0.6813;0.9961;
584.1000;0.6862;1.0077;
584.4000;0.6862;1.0054;
584.7000;0.6870;1.0100;
585.0000;0.6870;1.0124;
585.3000;0.6862;1.0193;
585.6000;0.6862;1.0193;
585.9000;0.6870;1.0170;
586.2000;0.6870;1.0147;
586.5000;0.6870;1.0147;
586.8000;0.6870;1.0100;
587.1000;0.6870;1.0077;
587.4000;0.6878;1.0147;
587.7000;0.6870;1.0170;
588.0000;0.6895;1.0193;
588.3000;0.6927;1.0263;
588.6000;0.6878;1.0170;
588.9000;0.6886;1.0147;
589.2000;0.6878;1.0100;
589.5000;0.6895;1.0170;
589.8000;0.6878;1.0054;
590.1000;0.6886;0.9961;
590.4000;0.6862;0.9915;
590.7000;0.6878;0.9891;
591.0000;0.6878;0.9938;
591.3000;0.6903;0.9984;
591.6000;0.6895;0.9961;
591.9000;0.6854;1.0008;
592.2000;0.6911;1.0147;
592.5000;0.6878;1.0031;
592.8000;0.6862;1.0054;
593.1000;0.6862;1.0031;
593.4000;0.6886;1.0054;
593.7000;0.6870;0.9891;
594.0000;0.6878;0.9961;
594.3000;0.6878;1.0008;
594.6000;0.6854;0.9961;
594.9000;0.6846;0.9984;
595.2000;0.6862;0.9984;
595.5000;0.6886;1.0031;
595.8000;0.6854;0.9961;
596.1000;0.6862;0.9915;
596.4000;0.6797;0.9775;
596.7000;0.6878;0.9891;
597.0000;0.6870;0.9845;
597.3000;0.6878;0.9961;
597.6000;0.6878;0.9984;
597.9000;0.6862;0.9868;
598.2000;0.6829;0.9775;
598.5000;0.6943;1.0124;
598.8000;0.6870;0.9938;
599.1000;0.6854;0.9868;
599.4000;0.6878;0.9799;
599.7000;0.6846;0.9636;
600.0000;0.6764;0.9427;
600.3000;0.6895;0.9566;
600.6000;0.6829;0.9288;
600.9000;0.6911;0.9473;
601.2000;0.6870;0.9427;
601.5000;0.6781;0.9125;
601.8000;0.6772;0.9125;
602.1000;0.6772;0.9172;
602.4000;0.6748;0.9079;
602.7000;0.6699;0.8963;
603.0000;0.6699;0.8916;
603.3000;0.6610;0.8614;
603.6000;0.6593;0.8498;
603.9000;0.6504;0.8266;
604.2000;0.6561;0.8452;
604.5000;0.6488;0.8243;
604.8000;0.6463;0.8173;
605.1000;0.6431;0.8104;
605.4000;0.6382;0.8011;
605.7000;0.6374;0.7941;
606.0000;0.6357;0.7848;
606.3000;0.6325;0.7802;
606.6000;0.6309;0.7778;
606.9000;0.6284;0.7825;
607.2000;0.6284;0.7755;
607.5000;0.6235;0.7593;
607.8000;0.6227;0.7593;
608.1000;0.6178;0.7477;
608.4000;0.6170;0.7453;
608.7000;0.6154;0.7500;
609.0000;0.6146;0.7500;
609.3000;0.6138;0.7523;
609.6000;0.6121;0.7546;
609.9000;0.6097;0.7500;
610.2000;0.6048;0.7523;
610.5000;0.6064;0.7477;
610.8000;0.6056;0.7477;
611.1000;0.6056;0.7546;
611.4000;0.6015;0.7477;
611.7000;0.5991;0.7407;
612.0000;0.6032;0.7546;
612.3000;0.5983;0.7314;
612.6000;0.5991;0.7477;
612.9000;0.5975;0.7523;
613.2000;0.5950;0.7453;
613.5000;0.5934;0.7361;
613.8000;0.5958;0.7477;
614.1000;0.5934;0.7430;
614.4000;0.5893;0.7430;
614.7000;0.5877;0.7384;
615.0000;0.5902;0.7361;
615.3000;0.5869;0.7384;
615.6000;0.5853;0.7314;
615.9000;0.5845;0.7384;
616.2000;0.5828;0.7523;
616.5000;0.5828;0.7523;
616.8000;0.5804;0.7477;
617.1000;0.5731;0.7314;
617.4000;0.5796;0.7662;
617.7000;0.5804;0.7662;
618.0000;0.5739;0.7477;
618.3000;0.5755;0.7500;
618.6000;0.5763;0.7477;
618.9000;0.5755;0.7384;
619.2000;0.5788;0.7453;
619.5000;0.5674;0.7198;
619.8000;0.5731;0.7407;
620.1000;0.5714;0.7453;
620.4000;0.5690;0.7337;
620.7000;0.5747;0.7500;
621.0000;0.5674;0.7384;
621.3000;0.5682;0.7477;
621.6000;0.5690;0.7500;
621.9000;0.5690;0.7546;
622.2000;0.5779;0.7825;
622.5000;0.5657;0.7546;
622.8000;0.5722;0.7732;
623.1000;0.5649;0.7523;
623.4000;0.5641;0.7546;
623.7000;0.5633;0.7546;
624.0000;0.5641;0.7570;
624.3000;0.5617;0.7523;
624.6000;0.5608;0.7477;
624.9000;0.5608;0.7477;
625.2000;0.5592;0.7407;
625.5000;0.5584;0.7407;
625.8000;0.5592;0.7500;
626.1000;0.5576;0.7500;
626.4000;0.5568;0.7523;
626.7000;0.5576;0.7523;
627.0000;0.5551;0.7500;
627.3000;0.5551;0.7500;
627.6000;0.5535;0.7500;
627.9000;0.5543;0.7570;
628.2000;0.5543;0.7709;
628.5000;0.5543;0.7686;
628.8000;0.5519;0.7616;
629.1000;0.5543;0.7593;
629.4000;0.5511;0.7500;
629.7000;0.5503;0.7500;
630.0000;0.5495;0.7570;
630.3000;0.5503;0.7593;
630.6000;0.5495;0.7662;
630.9000;0.5478;0.7639;
631.2000;0.5495;0.7709;
631.5000;0.5462;0.7662;
631.8000;0.5470;0.7662;
632.1000;0.5438;0.7570;
632.4000;0.5446;0.7593;
632.7000;0.5454;0.7639;
633.0000;0.5462;0.7709;
633.3000;0.5454;0.7639;
633.6000;0.5429;0.7639;
633.9000;0.5438;0.7616;
634.2000;0.5454;0.7686;
634.5000;0.5446;0.7709;
634.8000;0.5421;0.7570;
635.1000;0.5438;0.7616;
635.4000;0.5405;0.7570;
635.7000;0.5454;0.7639;
636.0000;0.5397;0.7570;
636.3000;0.5462;0.7709;
636.6000;0.5429;0.7570;
636.9000;0.5389;0.7523;
637.2000;0.5381;0.7546;
637.5000;0.5381;0.7546;
637.8000;0.5364;0.7430;
638.1000;0.5381;0.7500;
638.4000;0.5381;0.7570;
638.7000;0.5421;0.7732;
639.0000;0.5356;0.7546;
639.3000;0.5356;0.7616;
639.6000;0.5340;0.7662;
639.9000;0.5356;0.7709;
640.2000;0.5372;0.7755;
640.5000;0.5356;0.7709;
640.8000;0.5348;0.7639;
641.1000;0.5275;0.7500;
641.4000;0.5332;0.7570;
641.7000;0.5315;0.7430;
642.0000;0.5250;0.7244;
642.3000;0.5307;0.7291;
642.6000;0.5315;0.7291;
642.9000;0.5307;0.7314;
643.2000;0.5201;0.7012;
643.5000;0.5307;0.7337;
643.8000;0.5324;0.7337;
644.1000;0.5283;0.7384;
644.4000;0.5332;0.7453;
644.7000;0.5315;0.7477;
645.0000;0.5291;0.7430;
645.3000;0.5291;0.7453;
645.6000;0.5291;0.7453;
645.9000;0.5291;0.7453;
646.2000;0.5283;0.7407;
646.5000;0.5291;0.7477;
646.8000;0.5267;0.7453;
647.1000;0.5275;0.7616;
647.4000;0.5250;0.7523;
647.7000;0.5258;0.7500;
648.0000;0.5267;0.7523;
648.3000;0.5250;0.7500;
648.6000;0.5267;0.7570;
648.9000;0.5234;0.7453;
649.2000;0.5267;0.7500;
649.5000;0.5299;0.7616;
649.8000;0.5153;0.7361;
650.1000;0.5218;0.7593;
650.4000;0.5267;0.7732;
650.7000;0.5250;0.7732;
651.0000;0.5226;0.7686;
651.3000;0.5307;0.7825;
651.6000;0.5226;0.7662;
651.9000;0.5226;0.7639;
652.2000;0.5258;0.7755;
652.5000;0.5226;0.7662;
652.8000;0.5210;0.7639;
653.1000;0.5234;0.7639;
653.4000;0.5185;0.7453;
653.7000;0.5218;0.7500;
654.0000;0.5226;0.7570;
654.3000;0.5234;0.7430;
654.6000;0.5234;0.7477;
654.9000;0.5201;0.7523;
655.2000;0.5226;0.7523;
655.5000;0.5210;0.7500;
655.8000;0.5210;0.7500;
656.1000;0.5201;0.7570;
656.4000;0.5169;0.7523;
656.7000;0.5185;0.7639;
657.0000;0.5193;0.7593;
657.3000;0.5185;0.7546;
657.6000;0.5169;0.7523;
657.9000;0.5177;0.7616;
658.2000;0.5177;0.7570;
658.5000;0.5226;0.7686;
658.8000;0.5177;0.7593;
659.1000;0.5177;0.7593;
659.4000;0.5161;0.7639;
659.7000;0.5128;0.7593;
660.0000;0.5169;0.7709;
660.3000;0.5153;0.7709;
660.6000;0.5120;0.7639;
660.9000;0.5144;0.7732;
661.2000;0.5177;0.7825;
661.5000;0.5153;0.7802;
661.8000;0.5185;0.7941;
662.1000;0.5136;0.7825;
662.4000;0.5153;0.7778;
662.7000;0.5136;0.7732;
663.0000;0.5144;0.7709;
663.3000;0.5120;0.7732;
663.6000;0.5136;0.7732;
663.9000;0.5136;0.7732;
664.2000;0.5136;0.7825;
664.5000;0.5120;0.7732;
664.8000;0.5136;0.7755;
665.1000;0.5128;0.7825;
665.4000;0.5120;0.7802;
665.7000;0.5136;0.7825;
666.0000;0.5112;0.7732;
666.3000;0.5193;0.7964;
666.6000;0.5104;0.7732;
666.9000;0.5104;0.7778;
667.2000;0.5128;0.7802;
667.5000;0.5120;0.7755;
667.8000;0.5104;0.7709;
668.1000;0.5063;0.7662;
668.4000;0.5136;0.7848;
668.7000;0.5120;0.7825;
669.0000;0.5120;0.7825;
669.3000;0.5128;0.7825;
669.6000;0.5088;0.7686;
669.9000;0.5120;0.7802;
670.2000;0.5104;0.7848;
670.5000;0.5128;0.7871;
670.8000;0.5096;0.7825;
671.1000;0.5104;0.7871;
671.4000;0.5088;0.7825;
671.7000;0.5112;0.7755;
672.0000;0.5112;0.7686;
672.3000;0.5088;0.7639;
672.6000;0.5088;0.7616;
672.9000;0.5088;0.7662;
673.2000;0.5079;0.7732;
673.5000;0.5071;0.7662;
673.8000;0.5079;0.7709;
674.1000;0.5088;0.7755;
674.4000;0.5047;0.7755;
674.7000;0.5079;0.7778;
675.0000;0.5055;0.7778;
675.3000;0.5136;0.7941;
675.6000;0.5071;0.7732;
675.9000;0.5063;0.7593;
676.2000;0.5079;0.7616;
676.5000;0.5079;0.7639;
676.8000;0.5071;0.7709;
677.1000;0.5055;0.7709;
677.4000;0.5104;0.7825;
677.7000;0.5071;0.7895;
678.0000;0.5047;0.7825;
678.3000;0.5063;0.7895;
678.6000;0.5071;0.7871;
678.9000;0.5055;0.7778;
679.2000;0.5039;0.7755;
679.5000;0.5055;0.7755;
679.8000;0.5071;0.7755;
680.1000;0.5071;0.7755;
680.4000;0.5039;0.7709;
680.7000;0.5047;0.7686;
681.0000;0.5071;0.7732;
681.3000;0.5055;0.7778;
681.6000;0.5006;0.7755;
681.9000;0.5031;0.7732;
682.2000;0.5031;0.7732;
682.5000;0.5031;0.7686;
682.8000;0.5039;0.7639;
683.1000;0.5047;0.7593;
683.4000;0.5047;0.7662;
683.7000;0.5022;0.7477;
684.0000;0.5047;0.7477;
684.3000;0.4925;0.7152;
684.6000;0.5031;0.7453;
684.9000;0.5014;0.7523;
685.2000;0.5047;0.7639;
685.5000;0.5022;0.7662;
685.8000;0.5022;0.7662;
686.1000;0.4982;0.7523;
686.4000;0.5031;0.7709;
686.7000;0.5014;0.7778;
687.0000;0.5031;0.7825;
687.3000;0.5006;0.7802;
687.6000;0.5006;0.7778;
687.9000;0.5006;0.7802;
688.2000;0.5055;0.7825;
688.5000;0.4990;0.7709;
688.8000;0.5014;0.7848;
689.1000;0.5014;0.7778;
689.4000;0.5022;0.7825;
689.7000;0.5014;0.7778;
690.0000;0.4998;0.7709;
690.3000;0.5014;0.7686;
690.6000;0.5022;0.7662;
690.9000;0.4990;0.7616;
691.2000;0.5014;0.7686;
691.5000;0.5006;0.7616;
691.8000;0.5022;0.7686;
692.1000;0.5071;0.7778;
692.4000;0.4957;0.7523;
692.7000;0.4998;0.7662;
693.0000;0.4990;0.7616;
693.3000;0.5014;0.7662;
693.6000;0.4990;0.7523;
693.9000;0.4982;0.7523;
694.2000;0.4982;0.7500;
694.5000;0.4982;0.7546;
694.8000;0.4990;0.7453;
695.1000;0.5088;0.7662;
695.4000;0.5014;0.7662;
695.7000;0.4990;0.7593;
696.0000;0.4990;0.7639;
696.3000;0.4982;0.7616;
696.6000;0.5031;0.7639;
696.9000;0.4974;0.7477;
697.2000;0.5014;0.7593;
697.5000;0.5039;0.7755;
697.8000;0.4957;0.7616;
698.1000;0.5006;0.7686;
698.4000;0.4965;0.7686;
698.7000;0.4965;0.7616;
699.0000;0.4949;0.7616;
699.3000;0.4982;0.7662;
699.6000;0.4965;0.7616;
699.9000;0.4941;0.7570;
700.2000;0.4949;0.7570;
700.5000;0.4965;0.7570;
700.8000;0.4965;0.7593;
701.1000;0.4957;0.7546;
701.4000;0.4957;0.7500;
701.7000;0.4957;0.7477;
702.0000;0.4957;0.7430;
702.3000;0.4949;0.7314;
702.6000;0.4957;0.7244;
702.9000;0.4933;0.7152;
703.2000;0.4974;0.7337;
703.5000;0.4965;0.7314;
703.8000;0.4965;0.7291;
704.1000;0.4965;0.7337;
704.4000;0.4965;0.7407;
704.7000;0.4974;0.7453;
705.0000;0.4941;0.7314;
705.3000;0.4957;0.7523;
705.6000;0.4982;0.7755;
705.9000;0.4957;0.7662;
706.2000;0.4974;0.7639;
706.5000;0.4957;0.7686;
706.8000;0.4957;0.7732;
707.1000;0.4949;0.7732;
707.4000;0.4949;0.7686;
707.7000;0.4965;0.7732;
708.0000;0.4933;0.7709;
708.3000;0.4965;0.7755;
708.6000;0.4974;0.7778;
708.9000;0.4941;0.7755;
709.2000;0.4974;0.7848;
709.5000;0.4941;0.7755;
709.8000;0.4949;0.7825;
710.1000;0.4941;0.7802;
710.4000;0.4884;0.7570;
710.7000;0.4925;0.7709;
711.0000;0.4941;0.7755;
711.3000;0.4941;0.7686;
711.6000;0.4957;0.7755;
711.9000;0.4933;0.7639;
712.2000;0.4949;0.7686;
712.5000;0.4957;0.7686;
712.8000;0.4957;0.7639;
713.1000;0.4941;0.7477;
713.4000;0.4941;0.7523;
713.7000;0.4941;0.7477;
714.0000;0.4933;0.7500;
714.3000;0.4925;0.7593;
714.6000;0.4957;0.7732;
714.9000;0.4933;0.7662;
715.2000;0.4949;0.7662;
715.5000;0.4900;0.7662;
715.8000;0.4917;0.7686;
716.1000;0.4957;0.7732;
716.4000;0.4917;0.7593;
716.7000;0.4933;0.7616;
717.0000;0.4933;0.7686;
717.3000;0.4941;0.7755;
717.6000;0.4974;0.7895;
717.9000;0.4908;0.7686;
718.2000;0.4892;0.7616;
718.5000;0.4941;0.7732;
718.8000;0.4917;0.7639;
719.1000;0.4917;0.7686;
719.4000;0.4965;0.7871;
719.7000;0.4941;0.7755;
720.0000;0.4908;0.7686;
720.3000;0.4917;0.7686;
720.6000;0.4908;0.7662;
720.9000;0.4917;0.7686;
721.2000;0.4941;0.7778;
721.5000;0.4925;0.7755;
721.8000;0.4933;0.7778;
722.1000;0.4925;0.7732;
722.4000;0.4917;0.7639;
722.7000;0.4917;0.7570;
723.0000;0.4900;0.7616;
723.3000;0.4900;0.7732;
723.6000;0.4892;0.7639;
723.9000;0.4917;0.7616;
724.2000;0.4908;0.7570;
724.5000;0.4933;0.7639;
724.8000;0.4925;0.7639;
725.1000;0.4908;0.7662;
725.4000;0.4908;0.7686;
725.7000;0.4908;0.7662;
726.0000;0.4900;0.7686;
726.3000;0.4908;0.7662;
726.6000;0.4925;0.7616;
726.9000;0.4925;0.7662;
727.2000;0.4884;0.7616;
727.5000;0.4925;0.7709;
727.8000;0.4908;0.7616;
728.1000;0.4900;0.7477;
728.4000;0.4884;0.7477;
728.7000;0.4900;0.7477;
729.0000;0.4884;0.7477;
729.3000;0.4900;0.7523;
729.6000;0.4892;0.7430;
729.9000;0.4892;0.7407;
730.2000;0.4900;0.7407;
730.5000;0.4876;0.7477;
730.8000;0.4900;0.7709;
731.1000;0.4933;0.7848;
731.4000;0.4819;0.7546;
731.7000;0.4908;0.7732;
732.0000;0.4892;0.7686;
732.3000;0.4884;0.7662;
732.6000;0.4900;0.7755;
732.9000;0.4900;0.7848;
733.2000;0.4949;0.8034;
733.5000;0.4908;0.7941;
733.8000;0.4908;0.7871;
734.1000;0.4884;0.7778;
734.4000;0.4892;0.7686;
734.7000;0.4892;0.7570;
735.0000;0.4884;0.7570;
735.3000;0.4843;0.7407;
735.6000;0.4884;0.7523;
735.9000;0.4868;0.7523;
736.2000;0.4884;0.7570;
736.5000;0.4835;0.7477;
736.8000;0.4884;0.7570;
737.1000;0.4876;0.7593;
737.4000;0.4900;0.7546;
737.7000;0.4892;0.7570;
738.0000;0.4892;0.7593;
738.3000;0.4900;0.7639;
738.6000;0.4876;0.7616;
738.9000;0.4892;0.7662;
739.2000;0.4884;0.7593;
739.5000;0.4876;0.7523;
739.8000;0.4884;0.7500;
740.1000;0.4884;0.7546;
740.4000;0.4892;0.7500;
740.7000;0.4884;0.7523;
741.0000;0.4876;0.7570;
741.3000;0.4868;0.7662;
741.6000;0.4884;0.7686;
741.9000;0.4892;0.7662;
742.2000;0.4900;0.7709;
742.5000;0.4860;0.7570;
742.8000;0.4892;0.7477;
743.1000;0.4908;0.7477;
743.4000;0.4892;0.7546;
743.7000;0.4884;0.7546;
744.0000;0.4876;0.7593;
744.3000;0.4884;0.7546;
744.6000;0.4843;0.7407;
744.9000;0.4835;0.7361;
745.2000;0.4876;0.7523;
745.5000;0.4851;0.7430;
745.8000;0.4860;0.7407;
746.1000;0.4876;0.7523;
746.4000;0.4860;0.7523;
746.7000;0.4884;0.7500;
747.0000;0.4876;0.7570;
747.3000;0.4868;0.7570;
747.6000;0.4860;0.7500;
747.9000;0.4876;0.7593;
748.2000;0.4868;0.7616;
748.5000;0.4876;0.7546;
748.8000;0.4860;0.7570;
749.1000;0.4860;0.7593;
749.4000;0.4884;0.7639;
749.7000;0.4843;0.7593;
750.0000;0.4860;0.7662;
750.3000;0.4851;0.7686;
750.6000;0.4876;0.7732;
750.9000;0.4860;0.7639;
751.2000;0.4876;0.7686;
751.5000;0.4860;0.7709;
751.8000;0.4868;0.7709;
752.1000;0.4892;0.7732;
752.4000;0.4868;0.7616;
752.7000;0.4851;0.7593;
753.0000;0.4876;0.7593;
753.3000;0.4876;0.7570;
753.6000;0.4860;0.7523;
753.9000;0.4860;0.7477;
754.2000;0.4876;0.7523;
754.5000;0.4843;0.7593;
754.8000;0.4860;0.7709;
755.1000;0.4819;0.7662;
755.4000;0.4843;0.7732;
755.7000;0.4868;0.7686;
756.0000;0.4835;0.7662;
756.3000;0.4860;0.7732;
756.6000;0.4843;0.7686;
756.9000;0.4860;0.7755;
757.2000;0.4868;0.7755;
757.5000;0.4876;0.7778;
757.8000;0.4811;0.7570;
758.1000;0.4876;0.7686;
758.4000;0.4843;0.7616;
758.7000;0.4851;0.7732;
759.0000;0.4835;0.7709;
759.3000;0.4860;0.7778;
759.6000;0.4851;0.7802;
759.9000;0.4860;0.7871;
760.2000;0.4819;0.7871;
760.5000;0.4843;0.7871;
760.8000;0.4843;0.7825;
761.1000;0.4892;0.7848;
761.4000;0.4835;0.7709;
761.7000;0.4835;0.7755;
762.0000;0.4851;0.7848;
762.3000;0.4770;0.7639;
762.6000;0.4851;0.7686;
762.9000;0.4860;0.7639;
763.2000;0.4843;0.7523;
763.5000;0.4884;0.7546;
763.8000;0.4860;0.7593;
764.1000;0.4851;0.7639;
764.4000;0.4868;0.7662;
764.7000;0.4884;0.7686;
765.0000;0.4851;0.7686;
765.3000;0.4908;0.7848;
765.6000;0.4843;0.7616;
765.9000;0.4843;0.7593;
766.2000;0.4851;0.7593;
766.5000;0.4827;0.7570;
766.8000;0.4876;0.7802;
767.1000;0.4851;0.7732;
767.4000;0.4843;0.7848;
767.7000;0.4835;0.7732;
768.0000;0.4860;0.7755;
768.3000;0.4819;0.7662;
768.6000;0.4884;0.7755;
768.9000;0.4851;0.7732;
769.2000;0.4843;0.7616;
769.5000;0.4884;0.7639;
769.8000;0.4860;0.7732;
770.1000;0.4843;0.7732;
770.4000;0.4811;0.7755;
770.7000;0.4843;0.7778;
771.0000;0.4860;0.7871;
771.3000;0.4851;0.7802;
771.6000;0.4851;0.7709;
771.9000;0.4835;0.7639;
772.2000;0.4827;0.7593;
772.5000;0.4819;0.7523;
772.8000;0.4835;0.7616;
773.1000;0.4835;0.7662;
773.4000;0.4843;0.7662;
773.7000;0.4827;0.7732;
774.0000;0.4835;0.7755;
774.3000;0.4811;0.7709;
774.6000;0.4827;0.7709;
774.9000;0.4868;0.7755;
775.2000;0.4835;0.7686;
775.5000;0.4884;0.7755;
775.8000;0.4827;0.7686;
776.1000;0.4851;0.7732;
776.4000;0.4843;0.7802;
776.7000;0.4786;0.7616;
777.0000;0.4843;0.7755;
777.3000;0.4835;0.7732;
777.6000;0.4843;0.7802;
777.9000;0.4843;0.7755;
778.2000;0.4835;0.7848;
778.5000;0.4835;0.7987;
778.8000;0.4835;0.7941;
779.1000;0.4860;0.8011;
779.4000;0.4884;0.8034;
779.7000;0.4827;0.7918;
780.0000;0.4835;0.7964;
780.3000;0.4851;0.8011;
780.6000;0.4819;0.7895;
780.9000;0.4827;0.7918;
781.2000;0.4819;0.7987;
781.5000;0.4851;0.7918;
781.8000;0.4843;0.7964;
782.1000;0.4819;0.7987;
782.4000;0.4843;0.8034;
782.7000;0.4827;0.8034;
783.0000;0.4827;0.8150;
783.3000;0.4819;0.8127;
783.6000;0.4819;0.8150;
783.9000;0.4827;0.8173;
784.2000;0.4884;0.8266;
784.5000;0.4835;0.8104;
784.8000;0.4827;0.8150;
785.1000;0.4868;0.8150;
785.4000;0.4835;0.8011;
785.7000;0.4811;0.7848;
786.0000;0.4827;0.7871;
786.3000;0.4827;0.7918;
786.6000;0.4811;0.7987;
786.9000;0.4786;0.7918;
787.2000;0.4811;0.7918;
787.5000;0.4811;0.7895;
787.8000;0.4827;0.7987;
788.1000;0.4803;0.7964;
788.4000;0.4803;0.7918;
788.7000;0.4827;0.7895;
789.0000;0.4803;0.7825;
789.3000;0.4860;0.7964;
789.6000;0.4778;0.7732;
789.9000;0.4819;0.7662;
790.2000;0.4827;0.7732;
790.5000;0.4827;0.7802;
790.8000;0.4827;0.7871;
791.1000;0.4851;0.7848;
791.4000;0.4811;0.7732;
791.7000;0.4811;0.7802;
792.0000;0.4803;0.7778;
792.3000;0.4860;0.7871;
792.6000;0.4835;0.7825;
792.9000;0.4819;0.7871;
793.2000;0.4811;0.7732;
793.5000;0.4811;0.7825;
793.8000;0.4827;0.7918;
794.1000;0.4827;0.7871;
794.4000;0.4811;0.7848;
794.7000;0.4770;0.7639;
795.0000;0.4819;0.7662;
795.3000;0.4827;0.7709;
795.6000;0.4811;0.7709;
795.9000;0.4811;0.7686;
796.2000;0.4827;0.7686;
796.5000;0.4811;0.7546;
796.8000;0.4803;0.7662;
797.1000;0.4827;0.7639;
797.4000;0.4737;0.7430;
797.7000;0.4819;0.7546;
798.0000;0.4835;0.7639;
798.3000;0.4811;0.7593;
798.6000;0.4803;0.7523;
798.9000;0.4811;0.7500;
799.2000;0.4860;0.7593;
799.5000;0.4811;0.7546;
799.8000;0.4819;0.7500;
800.1000;0.4811;0.7430;
800.4000;0.4835;0.7546;
800.7000;0.4746;0.7361;
801.0000;0.4827;0.7500;
801.3000;0.4843;0.7616;
801.6000;0.4794;0.7523;
801.9000;0.4827;0.7570;
802.2000;0.4835;0.7616;
802.5000;0.4819;0.7546;
802.8000;0.4827;0.7662;
803.1000;0.4811;0.7616;
803.4000;0.4819;0.7639;
803.7000;0.4811;0.7616;
804.0000;0.4811;0.7593;
804.3000;0.4754;0.7523;
804.6000;0.4819;0.7848;
804.9000;0.4803;0.7871;
805.2000;0.4827;0.7918;
805.5000;0.4737;0.7639;
805.8000;0.4811;0.7778;
806.1000;0.4884;0.7871;
806.4000;0.4819;0.7825;
806.7000;0.4803;0.7802;
807.0000;0.4843;0.7964;
807.3000;0.4811;0.7825;
807.6000;0.4746;0.7593;
807.9000;0.4811;0.7686;
808.2000;0.4827;0.7686;
808.5000;0.4827;0.7732;
808.8000;0.4827;0.7709;
809.1000;0.4794;0.7662;
809.4000;0.4876;0.7848;
809.7000;0.4835;0.7755;
810.0000;0.4819;0.7732;
810.3000;0.4803;0.7778;
810.6000;0.4941;0.8127;
810.9000;0.4843;0.7709;
811.2000;0.4811;0.7570;
811.5000;0.4794;0.7616;
811.8000;0.4803;0.7570;
812.1000;0.4819;0.7778;
812.4000;0.4835;0.7802;
812.7000;0.4803;0.7755;
813.0000;0.4803;0.7755;
813.3000;0.4746;0.7732;
813.6000;0.4770;0.7709;
813.9000;0.4794;0.7709;
814.2000;0.4811;0.7755;
814.5000;0.4811;0.7871;
814.8000;0.4803;0.7895;
815.1000;0.4762;0.7732;
815.4000;0.4819;0.7895;
815.7000;0.4811;0.7895;
816.0000;0.4892;0.7987;
816.3000;0.4803;0.7848;
816.6000;0.4803;0.7778;
816.9000;0.4803;0.7848;
817.2000;0.4794;0.7871;
817.5000;0.4778;0.7802;
817.8000;0.4811;0.7871;
818.1000;0.4819;0.7895;
818.4000;0.4851;0.8011;
818.7000;0.4811;0.7871;
819.0000;0.4778;0.7848;
819.3000;0.4811;0.7964;
819.6000;0.4778;0.7848;
819.9000;0.4786;0.7895;
820.2000;0.4811;0.7918;
820.5000;0.4835;0.7848;
820.8000;0.4819;0.7639;
821.1000;0.4827;0.7732;
821.4000;0.4794;0.7639;
821.7000;0.4819;0.7662;
822.0000;0.4819;0.7662;
822.3000;0.4803;0.7570;
822.6000;0.4778;0.7639;
822.9000;0.4746;0.7523;
823.2000;0.4803;0.7755;
823.5000;0.4794;0.7778;
823.8000;0.4851;0.7848;
824.1000;0.4786;0.7686;
824.4000;0.4729;0.7570;
824.7000;0.4803;0.7686;
825.0000;0.4746;0.7500;
825.3000;0.4819;0.7593;
825.6000;0.4794;0.7500;
825.9000;0.4786;0.7453;
826.2000;0.4786;0.7430;
826.5000;0.4811;0.7523;
826.8000;0.4770;0.7477;
827.1000;0.4754;0.7384;
827.4000;0.4762;0.7430;
827.7000;0.4803;0.7593;
828.0000;0.4803;0.7662;
828.3000;0.4827;0.7709;
828.6000;0.4819;0.7709;
828.9000;0.4786;0.7639;
829.2000;0.4811;0.7593;
829.5000;0.4794;0.7639;
829.8000;0.4811;0.7732;
830.1000;0.4737;0.7570;
830.4000;0.4754;0.7662;
830.7000;0.4803;0.7732;
831.0000;0.4819;0.7778;
831.3000;0.4835;0.7755;
831.6000;0.4811;0.7639;
831.9000;0.4737;0.7477;
832.2000;0.4786;0.7639;
832.5000;0.4770;0.7570;
832.8000;0.4794;0.7500;
833.1000;0.4737;0.7384;
833.4000;0.4778;0.7500;
833.7000;0.4794;0.7593;
834.0000;0.4811;0.7616;
834.3000;0.4794;0.7546;
834.6000;0.4778;0.7477;
834.9000;0.4803;0.7523;
835.2000;0.4803;0.7546;
835.5000;0.4827;0.7593;
835.8000;0.4803;0.7500;
836.1000;0.4794;0.7662;
836.4000;0.4811;0.7825;
836.7000;0.4786;0.7755;
837.0000;0.4794;0.7778;
837.3000;0.4851;0.7825;
837.6000;0.4770;0.7709;
837.9000;0.4770;0.7709;
838.2000;0.4843;0.7848;
838.5000;0.4794;0.7616;
838.8000;0.4746;0.7477;
839.1000;0.4803;0.7616;
839.4000;0.4794;0.7639;
839.7000;0.4803;0.7755;
840.0000;0.4803;0.7802;
840.3000;0.4803;0.7802;
840.6000;0.4794;0.7802;
840.9000;0.4794;0.7848;
841.2000;0.4811;0.7848;
841.5000;0.4803;0.7778;
841.8000;0.4737;0.7686;
842.1000;0.4811;0.7778;
842.4000;0.4778;0.7709;
842.7000;0.4754;0.7732;
843.0000;0.4811;0.7848;
843.3000;0.4778;0.7755;
843.6000;0.4778;0.7802;
843.9000;0.4811;0.7941;
844.2000;0.4803;0.7941;
844.5000;0.4786;0.7918;
844.8000;0.4843;0.8057;
845.1000;0.4803;0.7964;
845.4000;0.4803;0.7918;
845.7000;0.4794;0.7778;
846.0000;0.4794;0.7871;
846.3000;0.4786;0.7825;
846.6000;0.4786;0.7871;
846.9000;0.4770;0.7918;
847.2000;0.4786;0.7871;
847.5000;0.4762;0.7732;
847.8000;0.4778;0.7732;
848.1000;0.4754;0.7755;
848.4000;0.4770;0.7686;
848.7000;0.4754;0.7616;
849.0000;0.4786;0.7755;
849.3000;0.4803;0.7918;
849.6000;0.4803;0.7941;
849.9000;0.4794;0.7895;
850.2000;0.4770;0.7825;
850.5000;0.4746;0.7825;
850.8000;0.4746;0.7825;
851.1000;0.4851;0.7987;
851.4000;0.4778;0.7755;
851.7000;0.4705;0.7570;
852.0000;0.4697;0.7546;
852.3000;0.4778;0.7732;
852.6000;0.4770;0.7709;
852.9000;0.4778;0.7686;
853.2000;0.4794;0.7662;
853.5000;0.4819;0.7639;
853.8000;0.4762;0.7593;
854.1000;0.4892;0.7848;
854.4000;0.4794;0.7662;
854.7000;0.4794;0.7709;
855.0000;0.4786;0.7709;
855.3000;0.4786;0.7755;
855.6000;0.4770;0.7755;
855.9000;0.4778;0.7755;
856.2000;0.4770;0.7825;
856.5000;0.4786;0.7755;
856.8000;0.4794;0.7662;
857.1000;0.4729;0.7593;
857.4000;0.4778;0.7755;
857.7000;0.4786;0.7686;
858.0000;0.4778;0.7639;
858.3000;0.4786;0.7686;
858.6000;0.4794;0.7802;
858.9000;0.4762;0.7802;
859.2000;0.4794;0.7825;
859.5000;0.4770;0.7778;
859.8000;0.4794;0.7755;
860.1000;0.4786;0.7755;
860.4000;0.4778;0.7778;
860.7000;0.4786;0.7895;
861.0000;0.4778;0.7918;
861.3000;0.4737;0.7802;
861.6000;0.4778;0.7918;
861.9000;0.4786;0.7871;
862.2000;0.4786;0.7802;
862.5000;0.4770;0.7686;
862.8000;0.4762;0.7686;
863.1000;0.4811;0.7639;
863.4000;0.4770;0.7523;
863.7000;0.4786;0.7546;
864.0000;0.4770;0.7570;
864.3000;0.4786;0.7616;
864.6000;0.4770;0.7546;
864.9000;0.4778;0.7593;
865.2000;0.4786;0.7662;
865.5000;0.4778;0.7732;
865.8000;0.4786;0.7755;
866.1000;0.4770;0.7732;
866.4000;0.4778;0.7802;
866.7000;0.4778;0.7778;
867.0000;0.4770;0.7802;
867.3000;0.4794;0.7871;
867.6000;0.4778;0.7778;
867.9000;0.4786;0.7778;
868.2000;0.4770;0.7709;
868.5000;0.4721;0.7616;
868.8000;0.4794;0.7732;
869.1000;0.4770;0.7709;
869.4000;0.4786;0.7662;
869.7000;0.4762;0.7662;
870.0000;0.4770;0.7639;
870.3000;0.4778;0.7616;
870.6000;0.4843;0.7848;
870.9000;0.4803;0.7825;
871.2000;0.4762;0.7639;
871.5000;0.4770;0.7639;
871.8000;0.4786;0.7755;
872.1000;0.4794;0.7825;
872.4000;0.4778;0.7732;
872.7000;0.4778;0.7778;
873.0000;0.4762;0.7732;
873.3000;0.4778;0.7686;
873.6000;0.4770;0.7616;
873.9000;0.4770;0.7570;
874.2000;0.4778;0.7500;
874.5000;0.4770;0.7546;
874.8000;0.4794;0.7546;
875.1000;0.4778;0.7477;
875.4000;0.4729;0.7361;
875.7000;0.4770;0.7384;
876.0000;0.4778;0.7407;
876.3000;0.4794;0.7500;
876.6000;0.4770;0.7546;
876.9000;0.4786;0.7709;
877.2000;0.4746;0.7662;
877.5000;0.4778;0.7732;
877.8000;0.4778;0.7732;
878.1000;0.4778;0.7709;
878.4000;0.4786;0.7802;
878.7000;0.4770;0.7802;
879.0000;0.4770;0.7802;
879.3000;0.4778;0.7848;
879.6000;0.4778;0.7732;
879.9000;0.4762;0.7570;
880.2000;0.4762;0.7523;
880.5000;0.4770;0.7523;
880.8000;0.4778;0.7453;
881.1000;0.4778;0.7523;
881.4000;0.4762;0.7546;
881.7000;0.4762;0.7546;
882.0000;0.4786;0.7593;
882.3000;0.4762;0.7593;
882.6000;0.4762;0.7570;
882.9000;0.4770;0.7639;
883.2000;0.4786;0.7709;
883.5000;0.4778;0.7778;
883.8000;0.4770;0.7616;
884.1000;0.4786;0.7662;
884.4000;0.4778;0.7686;
884.7000;0.4794;0.7662;
885.0000;0.4778;0.7686;
885.3000;0.4770;0.7709;
885.6000;0.4762;0.7686;
885.9000;0.4786;0.7709;
886.2000;0.4811;0.7755;
886.5000;0.4770;0.7732;
886.8000;0.4794;0.7778;
887.1000;0.4778;0.7778;
887.4000;0.4778;0.7802;
887.7000;0.4762;0.7686;
888.0000;0.4762;0.7686;
888.3000;0.4762;0.7732;
888.6000;0.4786;0.7848;
888.9000;0.4770;0.7732;
889.2000;0.4770;0.7755;
889.5000;0.4754;0.7616;
889.8000;0.4794;0.7662;
890.1000;0.4754;0.7523;
890.4000;0.4770;0.7523;
890.7000;0.4770;0.7523;
891.0000;0.4778;0.7523;
891.3000;0.4770;0.7500;
891.6000;0.4770;0.7523;
891.9000;0.4770;0.7546;
892.2000;0.4794;0.7686;
892.5000;0.4794;0.7686;
892.8000;0.4770;0.7593;
893.1000;0.4786;0.7639;
893.4000;0.4770;0.7732;
893.7000;0.4770;0.7709;
894.0000;0.4762;0.7686;
894.3000;0.4770;0.7639;
894.6000;0.4778;0.7616;
894.9000;0.4762;0.7570;
895.2000;0.4737;0.7593;
895.5000;0.4746;0.7546;
895.8000;0.4770;0.7570;
896.1000;0.4746;0.7593;
896.4000;0.4762;0.7639;
896.7000;0.4811;0.7709;
897.0000;0.4762;0.7686;
897.3000;0.4770;0.7686;
897.6000;0.4794;0.7709;
897.9000;0.4770;0.7709;
898.2000;0.4762;0.7732;
898.5000;0.4762;0.7802;
898.8000;0.4746;0.7755;
899.1000;0.4746;0.7848;
899.4000;0.4762;0.7825;
899.7000;0.4762;0.7802;
900.0000;0.4762;0.7778;
900.3000;0.4762;0.7732;
900.6000;0.4762;0.7732;
900.9000;0.4746;0.7778;
901.2000;0.4754;0.7918;
901.5000;0.4746;0.7848;
901.8000;0.4746;0.7802;
902.1000;0.4705;0.7709;
902.4000;0.4762;0.7825;
902.7000;0.4778;0.7941;
903.0000;0.4770;0.7964;
903.3000;0.4672;0.7662;
903.6000;0.4770;0.7871;
903.9000;0.4786;0.7848;
904.2000;0.4786;0.7918;
904.5000;0.4762;0.7778;
904.8000;0.4762;0.7686;
905.1000;0.4762;0.7709;
905.4000;0.4778;0.7778;
905.7000;0.4827;0.7918;
906.0000;0.4762;0.7732;
906.3000;0.4746;0.7732;
906.6000;0.4754;0.7778;
906.9000;0.4762;0.7686;
907.2000;0.4754;0.7662;
907.5000;0.4794;0.7686;
907.8000;0.4770;0.7709;
908.1000;0.4770;0.7639;
908.4000;0.4729;0.7523;
908.7000;0.4746;0.7593;
909.0000;0.4762;0.7639;
909.3000;0.4762;0.7570;
909.6000;0.4721;0.7477;
909.9000;0.4754;0.7500;
910.2000;0.4770;0.7616;
910.5000;0.4778;0.7570;
910.8000;0.4778;0.7523;
911.1000;0.4770;0.7453;
911.4000;0.4664;0.7244;
911.7000;0.4778;0.7546;
912.0000;0.4786;0.7593;
912.3000;0.4811;0.7709;
912.6000;0.4754;0.7500;
912.9000;0.4770;0.7453;
913.2000;0.4770;0.7384;
913.5000;0.4754;0.7361;
913.8000;0.4770;0.7477;
914.1000;0.4754;0.7430;
914.4000;0.4770;0.7546;
914.7000;0.4762;0.7546;
915.0000;0.4754;0.7477;
915.3000;0.4770;0.7477;
915.6000;0.4778;0.7616;
915.9000;0.4754;0.7570;
916.2000;0.4778;0.7546;
916.5000;0.4721;0.7384;
916.8000;0.4762;0.7453;
917.1000;0.4746;0.7500;
917.4000;0.4786;0.7686;
917.7000;0.4778;0.7616;
918.0000;0.4794;0.7639;
918.3000;0.4762;0.7570;
918.6000;0.4811;0.7570;
918.9000;0.4786;0.7384;
919.2000;0.4770;0.7291;
919.5000;0.4762;0.7268;
919.8000;0.4786;0.7337;
920.1000;0.4770;0.7361;
920.4000;0.4762;0.7453;
920.7000;0.4811;0.7755;
921.0000;0.4762;0.7732;
921.3000;0.4770;0.7755;
921.6000;0.4762;0.7755;
921.9000;0.4770;0.7755;
922.2000;0.4778;0.7778;
922.5000;0.4778;0.7662;
922.8000;0.4770;0.7662;
923.1000;0.4737;0.7709;
923.4000;0.4762;0.7686;
923.7000;0.4770;0.7732;
924.0000;0.4762;0.7709;
924.3000;0.4729;0.7639;
924.6000;0.4778;0.7778;
924.9000;0.4746;0.7732;
925.2000;0.4778;0.7871;
925.5000;0.4754;0.7848;
925.8000;0.4762;0.7778;
926.1000;0.4713;0.7755;
926.4000;0.4721;0.7778;
926.7000;0.4762;0.7709;
927.0000;0.4770;0.7732;
927.3000;0.4778;0.7639;
927.6000;0.4762;0.7709;
927.9000;0.4770;0.7709;
928.2000;0.4786;0.7755;
928.5000;0.4770;0.7778;
928.8000;0.4778;0.7755;
929.1000;0.4762;0.7732;
929.4000;0.4762;0.7802;
929.7000;0.4770;0.7778;
930.0000;0.4762;0.7802;
930.3000;0.4737;0.7802;
930.6000;0.4762;0.7895;
930.9000;0.4778;0.7871;
931.2000;0.4762;0.8011;
931.5000;0.4794;0.7987;
931.8000;0.4762;0.7964;
932.1000;0.4778;0.7941;
932.4000;0.4754;0.7871;
932.7000;0.4754;0.7871;
933.0000;0.4762;0.7941;
933.3000;0.4803;0.8034;
933.6000;0.4876;0.8173;
933.9000;0.4762;0.7964;
934.2000;0.4737;0.7918;
934.5000;0.4713;0.7918;
934.8000;0.4786;0.8011;
935.1000;0.4754;0.7895;
935.4000;0.4770;0.7895;
935.7000;0.4754;0.7732;
936.0000;0.4762;0.7802;
936.3000;0.4754;0.7802;
936.6000;0.4746;0.7709;
936.9000;0.4746;0.7709;
937.2000;0.4811;0.7825;
937.5000;0.4705;0.7639;
937.8000;0.4729;0.7593;
938.1000;0.4697;0.7453;
938.4000;0.4778;0.7732;
938.7000;0.4754;0.7709;
939.0000;0.4746;0.7686;
939.3000;0.4746;0.7848;
939.6000;0.4778;0.7941;
939.9000;0.4786;0.7987;
940.2000;0.4794;0.7941;
940.5000;0.4754;0.7778;
940.8000;0.4754;0.7732;
941.1000;0.4746;0.7686;
941.4000;0.4778;0.7709;
941.7000;0.4754;0.7709;
942.0000;0.4819;0.7895;
942.3000;0.4762;0.7802;
942.6000;0.4762;0.7778;
942.9000;0.4819;0.7895;
943.2000;0.4762;0.7755;
943.5000;0.4721;0.7686;
943.8000;0.4762;0.7639;
944.1000;0.4713;0.7593;
944.4000;0.4754;0.7709;
944.7000;0.4778;0.7778;
945.0000;0.4778;0.7802;
945.3000;0.4778;0.7825;
945.6000;0.4754;0.7778;
945.9000;0.4746;0.7755;
946.2000;0.4762;0.7732;
946.5000;0.4762;0.7825;
946.8000;0.4860;0.8080;
947.1000;0.4721;0.7686;
947.4000;0.4754;0.7802;
947.7000;0.4778;0.7825;
948.0000;0.4762;0.7778;
948.3000;0.4835;0.7964;
948.6000;0.4762;0.7732;
948.9000;0.4762;0.7709;
949.2000;0.4762;0.7802;
949.5000;0.4762;0.7755;
949.8000;0.4770;0.7778;
950.1000;0.4754;0.7732;
950.4000;0.4737;0.7686;
950.7000;0.4754;0.7686;
951.0000;0.4746;0.7709;
951.3000;0.4689;0.7570;
951.6000;0.4754;0.7686;
951.9000;0.4746;0.7616;
952.2000;0.4803;0.7778;
952.5000;0.4786;0.7825;
952.8000;0.4746;0.7825;
953.1000;0.4746;0.7802;
953.4000;0.4754;0.7825;
953.7000;0.4656;0.7616;
954.0000;0.4762;0.7895;
954.3000;0.4762;0.8011;
954.6000;0.4737;0.8034;
954.9000;0.4778;0.8034;
955.2000;0.4770;0.7987;
955.5000;0.4754;0.8011;
955.8000;0.4737;0.7987;
956.1000;0.4754;0.8057;
956.4000;0.4868;0.8336;
956.7000;0.4746;0.7987;
957.0000;0.4737;0.8080;
957.3000;0.4786;0.8196;
957.6000;0.4754;0.8150;
957.9000;0.4754;0.8104;
958.2000;0.4762;0.8080;
958.5000;0.4754;0.8057;
958.8000;0.4729;0.8011;
959.1000;0.4778;0.8127;
959.4000;0.4713;0.7895;
959.7000;0.4737;0.7964;
960.0000;0.4721;0.7825;
960.3000;0.4762;0.7825;
960.6000;0.4770;0.7848;
960.9000;0.4762;0.7802;
961.2000;0.4721;0.7616;
961.5000;0.4762;0.7709;
961.8000;0.4737;0.7709;
962.1000;0.4770;0.7802;
962.4000;0.4746;0.7848;
962.7000;0.4754;0.7895;
963.0000;0.4689;0.7662;
963.3000;0.4729;0.7825;
963.6000;0.4762;0.7825;
963.9000;0.4762;0.7802;
964.2000;0.4754;0.7778;
964.5000;0.4794;0.7848;
964.8000;0.4754;0.7732;
965.1000;0.4778;0.7941;
965.4000;0.4762;0.7755;
965.7000;0.4770;0.7778;
966.0000;0.4689;0.7616;
966.3000;0.4705;0.7662;
966.6000;0.4762;0.7848;
966.9000;0.4754;0.7778;
967.2000;0.4746;0.7755;
967.5000;0.4746;0.7778;
967.8000;0.4754;0.7709;
968.1000;0.4729;0.7732;
968.4000;0.4746;0.7778;
968.7000;0.4737;0.7755;
969.0000;0.4746;0.7778;
969.3000;0.4754;0.7848;
969.6000;0.4681;0.7709;
969.9000;0.4746;0.7918;
970.2000;0.4778;0.7987;
970.5000;0.4762;0.7987;
970.8000;0.4705;0.7802;
971.1000;0.4754;0.7987;
971.4000;0.4737;0.7941;
971.7000;0.4762;0.7964;
972.0000;0.4762;0.8034;
972.3000;0.4721;0.7987;
972.6000;0.4746;0.7987;
972.9000;0.4762;0.7941;
973.2000;0.4762;0.7941;
973.5000;0.4729;0.7848;
973.8000;0.4713;0.7871;
974.1000;0.4737;0.7848;
974.4000;0.4746;0.7895;
974.7000;0.4770;0.7964;
975.0000;0.4754;0.8034;
975.3000;0.4803;0.8104;
975.6000;0.4778;0.8080;
975.9000;0.4754;0.8104;
976.2000;0.4729;0.8057;
976.5000;0.4762;0.8104;
976.8000;0.4754;0.8127;
977.1000;0.4737;0.8104;
977.4000;0.4746;0.8150;
977.7000;0.4754;0.8127;
978.0000;0.4729;0.8057;
978.3000;0.4746;0.8034;
978.6000;0.4737;0.7964;
978.9000;0.4754;0.7871;
979.2000;0.4762;0.7964;
979.5000;0.4803;0.8011;
979.8000;0.4746;0.7871;
980.1000;0.4754;0.7848;
980.4000;0.4762;0.7895;
980.7000;0.4754;0.7895;
981.0000;0.4746;0.7802;
981.3000;0.4737;0.7825;
981.6000;0.4762;0.7941;
981.9000;0.4689;0.7662;
982.2000;0.4754;0.7941;
982.5000;0.4754;0.7987;
982.8000;0.4746;0.7987;
983.1000;0.4770;0.8057;
983.4000;0.4721;0.7964;
983.7000;0.4737;0.8057;
984.0000;0.4713;0.7941;
984.3000;0.4746;0.7987;
984.6000;0.4746;0.8057;
984.9000;0.4770;0.8196;
985.2000;0.4754;0.8127;
985.5000;0.4794;0.8150;
985.8000;0.4737;0.7895;
986.1000;0.4778;0.7941;
986.4000;0.4778;0.8034;
986.7000;0.4770;0.7987;
987.0000;0.4746;0.7964;
987.3000;0.4746;0.7987;
987.6000;0.4737;0.7825;
987.9000;0.4737;0.7848;
988.2000;0.4737;0.7895;
988.5000;0.4721;0.7918;
988.8000;0.4770;0.8034;
989.1000;0.4729;0.7848;
989.4000;0.4754;0.7871;
989.7000;0.4762;0.7825;
990.0000;0.4770;0.7778;
990.3000;0.4729;0.7802;
990.6000;0.4762;0.7848;
990.9000;0.4762;0.7871;
991.2000;0.4754;0.7778;
991.5000;0.4746;0.7686;
991.8000;0.4746;0.7662;
992.1000;0.4729;0.7709;
992.4000;0.4754;0.7802;
992.7000;0.4729;0.7778;
993.0000;0.4729;0.7755;
993.3000;0.4746;0.7802;
993.6000;0.4770;0.7918;
993.9000;0.4746;0.7802;
994.2000;0.4737;0.7778;
994.5000;0.4762;0.7825;
994.8000;0.4762;0.7802;
995.1000;0.4729;0.7778;
995.4000;0.4754;0.7755;
995.7000;0.4770;0.7778;
996.0000;0.4762;0.7848;
996.3000;0.4786;0.7895;
996.6000;0.4721;0.7755;
996.9000;0.4729;0.7825;
997.2000;0.4705;0.7686;
997.5000;0.4762;0.7848;
997.8000;0.4721;0.7802;
998.1000;0.4746;0.7848;
998.4000;0.4737;0.7895;
998.7000;0.4746;0.7848;
999.0000;0.4746;0.7895;
999.3000;0.4705;0.7918;
999.6000;0.4746;0.7964;
999.9000;0.4754;0.8034;
1000.2000;0.4754;0.8127;
1000.5000;0.4729;0.8034;
1000.8000;0.4705;0.8011;
1001.1000;0.4754;0.8104;
1001.4000;0.4762;0.8080;
1001.7000;0.4754;0.8080;
1002.0000;0.4762;0.8080;
1002.3000;0.4746;0.8011;
1002.6000;0.4754;0.8057;
1002.9000;0.4754;0.7987;
1003.2000;0.4737;0.7941;
1003.5000;0.4803;0.8104;
1003.8000;0.4770;0.7964;
1004.1000;0.4737;0.7895;
1004.4000;0.4705;0.7941;
1004.7000;0.4729;0.8150;
1005.0000;0.4681;0.7895;
1005.3000;0.4737;0.8034;
1005.6000;0.4786;0.8080;
1005.9000;0.4737;0.8011;
1006.2000;0.4754;0.8034;
1006.5000;0.4754;0.7987;
1006.8000;0.4754;0.8080;
1007.1000;0.4737;0.8034;
1007.4000;0.4754;0.8104;
1007.7000;0.4762;0.8057;
1008.0000;0.4762;0.7987;
1008.3000;0.4746;0.7871;
1008.6000;0.4778;0.7895;
1008.9000;0.4827;0.8011;
1009.2000;0.4762;0.7825;
1009.5000;0.4754;0.7825;
1009.8000;0.4729;0.7732;
1010.1000;0.4754;0.7848;
1010.4000;0.4729;0.7871;
1010.7000;0.4746;0.7918;
1011.0000;0.4737;0.7802;
1011.3000;0.4762;0.7802;
1011.6000;0.4746;0.7778;
1011.9000;0.4754;0.7802;
1012.2000;0.4746;0.7825;
1012.5000;0.4697;0.7778;
1012.8000;0.4737;0.7802;
1013.1000;0.4754;0.7802;
1013.4000;0.4737;0.7778;
1013.7000;0.4762;0.7895;
1014.0000;0.4729;0.7918;
1014.3000;0.4762;0.7964;
1014.6000;0.4737;0.7941;
1014.9000;0.4786;0.7964;
1015.2000;0.4868;0.8196;
1015.5000;0.4754;0.7964;
1015.8000;0.4770;0.7941;
1016.1000;0.4754;0.7802;
1016.4000;0.4770;0.7848;
1016.7000;0.4754;0.7778;
1017.0000;0.4697;0.7662;
1017.3000;0.4778;0.7871;
1017.6000;0.4737;0.7802;
1017.9000;0.4794;0.7871;
1018.2000;0.4737;0.7686;
1018.5000;0.4746;0.7639;
1018.8000;0.4737;0.7778;
1019.1000;0.4754;0.7895;
1019.4000;0.4754;0.7778;
1019.7000;0.4729;0.7662;
1020.0000;0.4729;0.7686;
1020.3000;0.4851;0.8057;
1020.6000;0.4794;0.7918;
1020.9000;0.4697;0.7755;
1021.2000;0.4737;0.7964;
1021.5000;0.4754;0.8011;
1021.8000;0.4762;0.7987;
1022.1000;0.4770;0.7964;
1022.4000;0.4729;0.7895;
1022.7000;0.4746;0.7987;
1023.0000;0.4737;0.7918;
1023.3000;0.4729;0.7825;
1023.6000;0.4754;0.7871;
1023.9000;0.4737;0.7918;
1024.2000;0.4729;0.7895;
1024.5000;0.4770;0.7941;
1024.8000;0.4729;0.7825;
1025.1000;0.4737;0.7825;
1025.4000;0.4762;0.7918;
1025.7000;0.4737;0.7918;
1026.0000;0.4746;0.7825;
1026.3000;0.4737;0.7825;
1026.6000;0.4762;0.7825;
1026.9000;0.4746;0.7755;
1027.2000;0.4754;0.7662;
1027.5000;0.4746;0.7593;
1027.8000;0.4737;0.7662;
1028.1000;0.4746;0.7616;
1028.4000;0.4746;0.7709;
1028.7000;0.4737;0.7662;
1029.0000;0.4746;0.7593;
1029.3000;0.4762;0.7570;
1029.6000;0.4729;0.7523;
1029.9000;0.4737;0.7546;
1030.2000;0.4746;0.7570;
1030.5000;0.4746;0.7570;
1030.8000;0.4705;0.7500;
1031.1000;0.4737;0.7570;
1031.4000;0.4737;0.7593;
1031.7000;0.4762;0.7732;
1032.0000;0.4737;0.7686;
1032.3000;0.4729;0.7639;
1032.6000;0.4754;0.7662;
1032.9000;0.4729;0.7639;
1033.2000;0.4811;0.7895;
1033.5000;0.4705;0.7755;
1033.8000;0.4737;0.7802;
1034.1000;0.4746;0.7825;
1034.4000;0.4705;0.7709;
1034.7000;0.4721;0.7871;
1035.0000;0.4721;0.7871;
1035.3000;0.4778;0.8057;
1035.6000;0.4746;0.7848;
1035.9000;0.4811;0.7825;
1036.2000;0.4737;0.7662;
1036.5000;0.4737;0.7639;
1036.8000;0.4729;0.7709;
1037.1000;0.4729;0.7802;
1037.4000;0.4746;0.7895;
1037.7000;0.4721;0.7848;
1038.0000;0.4697;0.7825;
1038.3000;0.4713;0.7755;
1038.6000;0.4721;0.7662;
1038.9000;0.4737;0.7709;
1039.2000;0.4705;0.7662;
1039.5000;0.4762;0.7825;
1039.8000;0.4746;0.7755;
1040.1000;0.4794;0.7778;
1040.4000;0.4729;0.7593;
1040.7000;0.4746;0.7523;
1041.0000;0.4754;0.7570;
1041.3000;0.4737;0.7616;
1041.6000;0.4737;0.7593;
1041.9000;0.4754;0.7546;
1042.2000;0.4705;0.7453;
1042.5000;0.4746;0.7639;
1042.8000;0.4737;0.7616;
1043.1000;0.4770;0.7686;
1043.4000;0.4754;0.7686;
1043.7000;0.4746;0.7639;
1044.0000;0.4746;0.7662;
1044.3000;0.4721;0.7778;
1044.6000;0.4754;0.7941;
1044.9000;0.4770;0.7941;
1045.2000;0.4721;0.7895;
1045.5000;0.4721;0.7825;
1045.8000;0.4746;0.7895;
1046.1000;0.4721;0.7871;
1046.4000;0.4729;0.7825;
1046.7000;0.4729;0.7848;
1047.0000;0.4762;0.7871;
1047.3000;0.4737;0.7755;
1047.6000;0.4770;0.7941;
1047.9000;0.4746;0.7918;
1048.2000;0.4737;0.7918;
1048.5000;0.4754;0.7895;
1048.8000;0.4754;0.7825;
1049.1000;0.4770;0.7802;
1049.4000;0.4729;0.7778;
1049.7000;0.4746;0.7871;
1050.0000;0.4843;0.8127;
1050.3000;0.4746;0.7895;
1050.6000;0.4737;0.7895;
1050.9000;0.4754;0.7895;
1051.2000;0.4762;0.7825;
1051.5000;0.4737;0.7778;
1051.8000;0.4754;0.7755;
1052.1000;0.4754;0.7732;
1052.4000;0.4835;0.7941;
1052.7000;0.4754;0.7686;
1053.0000;0.4737;0.7686;
1053.3000;0.4746;0.7639;
1053.6000;0.4762;0.7686;
1053.9000;0.4851;0.7964;
1054.2000;0.4770;0.7778;
1054.5000;0.4762;0.7848;
1054.8000;0.4721;0.7616;
1055.1000;0.4721;0.7709;
1055.4000;0.4778;0.7825;
1055.7000;0.4713;0.7755;
1056.0000;0.4770;0.7848;
1056.3000;0.4746;0.7848;
1056.6000;0.4729;0.7895;
1056.9000;0.4770;0.7964;
1057.2000;0.4746;0.7918;
1057.5000;0.4803;0.7987;
1057.8000;0.4681;0.7662;
1058.1000;0.4746;0.7895;
1058.4000;0.4689;0.7709;
1058.7000;0.4762;0.7778;
1059.0000;0.4746;0.7709;
1059.3000;0.4632;0.7523;
1059.6000;0.4713;0.7616;
1059.9000;0.4632;0.7384;
1060.2000;0.4754;0.7802;
1060.5000;0.4672;0.7662;
1060.8000;0.4754;0.7895;
1061.1000;0.4746;0.7871;
1061.4000;0.4729;0.7662;
1061.7000;0.4721;0.7593;
1062.0000;0.4705;0.7523;
1062.3000;0.4803;0.7709;
1062.6000;0.4746;0.7639;
1062.9000;0.4770;0.7755;
1063.2000;0.4754;0.7686;
1063.5000;0.4729;0.7732;
1063.8000;0.4746;0.7755;
1064.1000;0.4762;0.7778;
1064.4000;0.4746;0.7802;
1064.7000;0.4746;0.7755;
1065.0000;0.4754;0.7825;
1065.3000;0.4754;0.7918;
1065.6000;0.4737;0.7848;
1065.9000;0.4754;0.7848;
1066.2000;0.4754;0.7848;
1066.5000;0.4737;0.7871;
1066.8000;0.4737;0.7825;
1067.1000;0.4794;0.7964;
1067.4000;0.4689;0.7778;
1067.7000;0.4729;0.7755;
1068.0000;0.4746;0.7802;
1068.3000;0.4754;0.7848;
1068.6000;0.4729;0.7709;
1068.9000;0.4721;0.7639;
1069.2000;0.4794;0.7662;
1069.5000;0.4737;0.7593;
1069.8000;0.4737;0.7639;
1070.1000;0.4721;0.7709;
1070.4000;0.4754;0.7848;
1070.7000;0.4729;0.7778;
1071.0000;0.4762;0.7895;
1071.3000;0.4721;0.7732;
1071.6000;0.4778;0.7778;
1071.9000;0.4721;0.7662;
1072.2000;0.4713;0.7709;
1072.5000;0.4746;0.7755;
1072.8000;0.4754;0.7709;
1073.1000;0.4746;0.7732;
1073.4000;0.4729;0.7686;
1073.7000;0.4737;0.7686;
1074.0000;0.4729;0.7616;
1074.3000;0.4729;0.7639;
1074.6000;0.4721;0.7570;
1074.9000;0.4754;0.7639;
1075.2000;0.4721;0.7500;
1075.5000;0.4746;0.7546;
1075.8000;0.4705;0.7500;
1076.1000;0.4746;0.7593;
1076.4000;0.4721;0.7430;
1076.7000;0.4746;0.7500;
1077.0000;0.4762;0.7616;
1077.3000;0.4794;0.7662;
1077.6000;0.4746;0.7546;
1077.9000;0.4754;0.7546;
1078.2000;0.4721;0.7523;
1078.5000;0.4778;0.7686;
1078.8000;0.4721;0.7570;
1079.1000;0.4778;0.7709;
1079.4000;0.4729;0.7639;
1079.7000;0.4746;0.7709;
1080.0000;0.4746;0.7709;
1080.3000;0.4754;0.7778;
1080.6000;0.4737;0.7755;
1080.9000;0.4746;0.7825;
1081.2000;0.4737;0.7825;
1081.5000;0.4729;0.7709;
1081.8000;0.4721;0.7616;
1082.1000;0.4737;0.7616;
1082.4000;0.4762;0.7570;
1082.7000;0.4754;0.7616;
1083.0000;0.4697;0.7477;
1083.3000;0.4778;0.7686;
1083.6000;0.4762;0.7662;
1083.9000;0.4762;0.7616;
1084.2000;0.4770;0.7616;
1084.5000;0.4737;0.7523;
1084.8000;0.4746;0.7570;
1085.1000;0.4835;0.7895;
1085.4000;0.4737;0.7639;
1085.7000;0.4754;0.7639;
1086.0000;0.4689;0.7430;
1086.3000;0.4746;0.7662;
1086.6000;0.4737;0.7616;
1086.9000;0.4754;0.7686;
1087.2000;0.4729;0.7639;
1087.5000;0.4754;0.7709;
1087.8000;0.4762;0.7732;
1088.1000;0.4746;0.7802;
1088.4000;0.4762;0.7918;
1088.7000;0.4762;0.7941;
1089.0000;0.4737;0.7871;
1089.3000;0.4770;0.7871;
1089.6000;0.4770;0.7802;
1089.9000;0.4746;0.7778;
1090.2000;0.4737;0.7709;
1090.5000;0.4729;0.7709;
1090.8000;0.4697;0.7662;
1091.1000;0.4729;0.7732;
1091.4000;0.4689;0.7662;
1091.7000;0.4762;0.7709;
1092.0000;0.4770;0.7755;
1092.3000;0.4754;0.7755;
1092.6000;0.4746;0.7802;
1092.9000;0.4762;0.7825;
1093.2000;0.4770;0.7871;
1093.5000;0.4762;0.7895;
1093.8000;0.4746;0.7825;
1094.1000;0.4762;0.7918;
1094.4000;0.4754;0.7941;
1094.7000;0.4754;0.7964;
1095.0000;0.4713;0.7802;
1095.3000;0.4778;0.7964;
1095.6000;0.4770;0.7871;
1095.9000;0.4729;0.7755;
1096.2000;0.4705;0.7709;
1096.5000;0.4794;0.7941;
1096.8000;0.4729;0.7755;
1097.1000;0.4754;0.7848;
1097.4000;0.4746;0.7895;
1097.7000;0.4729;0.7941;
1098.0000;0.4803;0.8057;
1098.3000;0.4746;0.7848;
1098.6000;0.4754;0.7848;
1098.9000;0.4746;0.7802;
1099.2000;0.4713;0.7732;
1099.5000;0.4737;0.7918;
1099.8000;0.4770;0.7918;
1100.1000;0.4737;0.7802;
1100.4000;0.4672;0.7732;
1100.7000;0.4746;0.7871;
1101.0000;0.4746;0.7825;
1101.3000;0.4729;0.7732;
1101.6000;0.4737;0.7686;
1101.9000;0.4729;0.7686;
1102.2000;0.4746;0.7778;
1102.5000;0.4721;0.7732;
1102.8000;0.4729;0.7802;
1103.1000;0.4737;0.7848;
1103.4000;0.4746;0.7848;
1103.7000;0.4721;0.7802;
1104.0000;0.4762;0.7895;
1104.3000;0.4713;0.7825;
1104.6000;0.4746;0.7778;
1104.9000;0.4762;0.7825;
1105.2000;0.4713;0.7732;
1105.5000;0.4729;0.7732;
1105.8000;0.4827;0.7918;
1106.1000;0.4746;0.7639;
1106.4000;0.4746;0.7593;
1106.7000;0.4689;0.7407;
1107.0000;0.4729;0.7639;
1107.3000;0.4762;0.7662;
1107.6000;0.4762;0.7709;
1107.9000;0.4729;0.7593;
1108.2000;0.4721;0.7546;
1108.5000;0.4754;0.7639;
1108.8000;0.4746;0.7709;
1109.1000;0.4729;0.7686;
1109.4000;0.4737;0.7662;
1109.7000;0.4729;0.7732;
1110.0000;0.4737;0.7755;
1110.3000;0.4737;0.7755;
1110.6000;0.4746;0.7709;
1110.9000;0.4746;0.7709;
1111.2000;0.4737;0.7639;
1111.5000;0.4737;0.7593;
1111.8000;0.4737;0.7570;
1112.1000;0.4729;0.7523;
1112.4000;0.4737;0.7500;
1112.7000;0.4754;0.7523;
1113.0000;0.4746;0.7477;
1113.3000;0.4746;0.7523;
1113.6000;0.4746;0.7453;
1113.9000;0.4754;0.7477;
1114.2000;0.4770;0.7709;
1114.5000;0.4737;0.7616;
1114.8000;0.4762;0.7732;
1115.1000;0.4737;0.7686;
1115.4000;0.4737;0.7709;
1115.7000;0.4721;0.7755;
1116.0000;0.4729;0.7802;
1116.3000;0.4713;0.7732;
1116.6000;0.4754;0.7755;
1116.9000;0.4754;0.7755;
1117.2000;0.4729;0.7802;
1117.5000;0.4721;0.7848;
1117.8000;0.4746;0.7918;
1118.1000;0.4729;0.7941;
1118.4000;0.4672;0.7709;
1118.7000;0.4746;0.7778;
1119.0000;0.4713;0.7686;
1119.3000;0.4705;0.7546;
1119.6000;0.4746;0.7570;
1119.9000;0.4713;0.7570;
1120.2000;0.4746;0.7686;
1120.5000;0.4746;0.7709;
1120.8000;0.4729;0.7523;
1121.1000;0.4737;0.7570;
1121.4000;0.4737;0.7546;
1121.7000;0.4737;0.7546;
1122.0000;0.4737;0.7523;
1122.3000;0.4737;0.7616;
1122.6000;0.4754;0.7639;
1122.9000;0.4697;0.7477;
1123.2000;0.4770;0.7616;
1123.5000;0.4746;0.7662;
1123.8000;0.4681;0.7477;
1124.1000;0.4827;0.7848;
1124.4000;0.4746;0.7732;
1124.7000;0.4737;0.7709;
1125.0000;0.4762;0.7709;
1125.3000;0.4737;0.7686;
1125.6000;0.4754;0.7709;
1125.9000;0.4754;0.7662;
1126.2000;0.4754;0.7616;
1126.5000;0.4737;0.7593;
1126.8000;0.4770;0.7686;
1127.1000;0.4729;0.7523;
1127.4000;0.4729;0.7546;
1127.7000;0.4729;0.7662;
1128.0000;0.4729;0.7686;
1128.3000;0.4721;0.7686;
1128.6000;0.4729;0.7639;
1128.9000;0.4713;0.7732;
1129.2000;0.4705;0.7709;
1129.5000;0.4705;0.7709;
1129.8000;0.4729;0.7709;
1130.1000;0.4737;0.7755;
1130.4000;0.4746;0.7778;
1130.7000;0.4729;0.7732;
1131.0000;0.4721;0.7709;
1131.3000;0.4746;0.7732;
1131.6000;0.4713;0.7662;
1131.9000;0.4746;0.7755;
1132.2000;0.4721;0.7802;
1132.5000;0.4689;0.7778;
1132.8000;0.4762;0.7941;
1133.1000;0.4713;0.7802;
1133.4000;0.4697;0.7709;
1133.7000;0.4754;0.7848;
1134.0000;0.4778;0.7941;
1134.3000;0.4786;0.7941;
1134.6000;0.4737;0.7871;
1134.9000;0.4754;0.7918;
1135.2000;0.4721;0.7802;
1135.5000;0.4754;0.7848;
1135.8000;0.4721;0.7778;
1136.1000;0.4721;0.7709;
1136.4000;0.4762;0.7755;
1136.7000;0.4754;0.7825;
1137.0000;0.4737;0.7802;
1137.3000;0.4770;0.7825;
1137.6000;0.4746;0.7802;
1137.9000;0.4770;0.7778;
1138.2000;0.4762;0.7755;
1138.5000;0.4737;0.7755;
1138.8000;0.4729;0.7686;
1139.1000;0.4746;0.7732;
1139.4000;0.4754;0.7755;
1139.7000;0.4737;0.7686;
1140.0000;0.4737;0.7686;
1140.3000;0.4754;0.7755;
1140.6000;0.4746;0.7895;
1140.9000;0.4737;0.7871;
1141.2000;0.4746;0.7778;
1141.5000;0.4737;0.7802;
1141.8000;0.4729;0.7802;
1142.1000;0.4746;0.7895;
1142.4000;0.4737;0.7918;
1142.7000;0.4721;0.8011;
1143.0000;0.4737;0.8011;
1143.3000;0.4746;0.8034;
1143.6000;0.4729;0.7895;
1143.9000;0.4737;0.7918;
1144.2000;0.4754;0.8104;
1144.5000;0.4705;0.7941;
1144.8000;0.4737;0.7964;
1145.1000;0.4729;0.7918;
1145.4000;0.4746;0.7825;
1145.7000;0.4762;0.7871;
1146.0000;0.4762;0.7895;
1146.3000;0.4746;0.7802;
1146.6000;0.4786;0.7848;
1146.9000;0.4794;0.7825;
1147.2000;0.4746;0.7686;
1147.5000;0.4746;0.7732;
1147.8000;0.4746;0.7732;
1148.1000;0.4640;0.7453;
1148.4000;0.4754;0.7848;
1148.7000;0.4729;0.7778;
1149.0000;0.4794;0.7895;
1149.3000;0.4786;0.7825;
1149.6000;0.4672;0.7546;
1149.9000;0.4713;0.7686;
1150.2000;0.4729;0.7802;
1150.5000;0.4778;0.7848;
1150.8000;0.4721;0.7616;
1151.1000;0.4737;0.7639;
1151.4000;0.4762;0.7755;
1151.7000;0.4737;0.7778;
1152.0000;0.4778;0.7848;
1152.3000;0.4762;0.7778;
1152.6000;0.4737;0.7732;
1152.9000;0.4713;0.7686;
1153.2000;0.4746;0.7709;
1153.5000;0.4762;0.7639;
1153.8000;0.4713;0.7546;
1154.1000;0.4729;0.7570;
1154.4000;0.4713;0.7546;
1154.7000;0.4754;0.7639;
1155.0000;0.4778;0.7778;
1155.3000;0.4746;0.7662;
1155.6000;0.4770;0.7616;
1155.9000;0.4729;0.7477;
1156.2000;0.4754;0.7593;
1156.5000;0.4737;0.7500;
1156.8000;0.4803;0.7778;
1157.1000;0.4746;0.7686;
1157.4000;0.4754;0.7709;
1157.7000;0.4762;0.7732;
1158.0000;0.4770;0.7732;
1158.3000;0.4778;0.7825;
1158.6000;0.4721;0.7755;
1158.9000;0.4746;0.7709;
1159.2000;0.4729;0.7709;
1159.5000;0.4746;0.7662;
1159.8000;0.4729;0.7616;
1160.1000;0.4721;0.7546;
1160.4000;0.4729;0.7570;
1160.7000;0.4721;0.7500;
1161.0000;0.4754;0.7523;
1161.3000;0.4762;0.7616;
1161.6000;0.4737;0.7662;
1161.9000;0.4729;0.7662;
1162.2000;0.4737;0.7709;
1162.5000;0.4770;0.7848;
1162.8000;0.4737;0.7709;
1163.1000;0.4729;0.7686;
1163.4000;0.4729;0.7593;
1163.7000;0.4729;0.7570;
1164.0000;0.4729;0.7686;
1164.3000;0.4713;0.7732;
1164.6000;0.4754;0.7825;
1164.9000;0.4721;0.7802;
1165.2000;0.4729;0.7732;
1165.5000;0.4721;0.7732;
1165.8000;0.4746;0.7802;
1166.1000;0.4746;0.7732;
1166.4000;0.4697;0.7616;
1166.7000;0.4729;0.7732;
1167.0000;0.4762;0.7778;
1167.3000;0.4811;0.7871;
1167.6000;0.4762;0.7662;
1167.9000;0.4843;0.7825;
1168.2000;0.4762;0.7662;
1168.5000;0.4827;0.7778;
1168.8000;0.4737;0.7639;
1169.1000;0.4721;0.7616;
1169.4000;0.4729;0.7616;
1169.7000;0.4729;0.7709;
1170.0000;0.4754;0.7709;
1170.3000;0.4697;0.7546;
1170.6000;0.4729;0.7593;
1170.9000;0.4737;0.7523;
1171.2000;0.4770;0.7709;
1171.5000;0.4729;0.7593;
1171.8000;0.4746;0.7662;
1172.1000;0.4737;0.7755;
1172.4000;0.4762;0.7755;
1172.7000;0.4746;0.7662;
1173.0000;0.4794;0.7778;
1173.3000;0.4713;0.7546;
1173.6000;0.4737;0.7570;
1173.9000;0.4737;0.7639;
1174.2000;0.4746;0.7709;
1174.5000;0.4689;0.7662;
1174.8000;0.4746;0.7848;
1175.1000;0.4746;0.7895;
1175.4000;0.4746;0.7848;
1175.7000;0.4689;0.7686;
1176.0000;0.4721;0.7825;
1176.3000;0.4697;0.7732;
1176.6000;0.4737;0.7778;
1176.9000;0.4713;0.7732;
1177.2000;0.4737;0.7732;
1177.5000;0.4729;0.7686;
1177.8000;0.4746;0.7639;
1178.1000;0.4746;0.7639;
1178.4000;0.4737;0.7477;
1178.7000;0.4811;0.7477;
1179.0000;0.4729;0.7384;
1179.3000;0.4713;0.7361;
1179.6000;0.4681;0.7291;
1179.9000;0.4729;0.7453;
1180.2000;0.4737;0.7593;
1180.5000;0.4737;0.7523;
1180.8000;0.4697;0.7430;
1181.1000;0.4746;0.7593;
1181.4000;0.4746;0.7639;
1181.7000;0.4762;0.7709;
1182.0000;0.4737;0.7732;
1182.3000;0.4721;0.7662;
1182.6000;0.4746;0.7709;
1182.9000;0.4737;0.7639;
1183.2000;0.4754;0.7662;
1183.5000;0.4754;0.7709;
1183.8000;0.4754;0.7709;
1184.1000;0.4754;0.7778;
1184.4000;0.4754;0.7802;
1184.7000;0.4737;0.7825;
1185.0000;0.4721;0.7848;
1185.3000;0.4729;0.7802;
1185.6000;0.4721;0.7709;
1185.9000;0.4721;0.7709;
1186.2000;0.4803;0.7848;
1186.5000;0.4737;0.7639;
1186.8000;0.4746;0.7639;
1187.1000;0.4697;0.7546;
1187.4000;0.4737;0.7523;
1187.7000;0.4851;0.7755;
1188.0000;0.4729;0.7453;
1188.3000;0.4762;0.7523;
1188.6000;0.4737;0.7546;
1188.9000;0.4729;0.7593;
1189.2000;0.4721;0.7570;
1189.5000;0.4729;0.7477;
1189.8000;0.4713;0.7523;
1190.1000;0.4721;0.7546;
1190.4000;0.4721;0.7546;
1190.7000;0.4737;0.7593;
1191.0000;0.4746;0.7639;
1191.3000;0.4705;0.7546;
1191.6000;0.4770;0.7825;
1191.9000;0.4746;0.7732;
1192.2000;0.4746;0.7778;
1192.5000;0.4729;0.7755;
1192.8000;0.4754;0.7825;
1193.1000;0.4729;0.7802;
1193.4000;0.4754;0.7895;
1193.7000;0.4705;0.7755;
1194.0000;0.4737;0.7825;
1194.3000;0.4754;0.7825;
1194.6000;0.4754;0.7732;
1194.9000;0.4746;0.7755;
1195.2000;0.4754;0.7686;
1195.5000;0.4737;0.7639;
1195.8000;0.4737;0.7686;
1196.1000;0.4754;0.7732;
1196.4000;0.4705;0.7639;
1196.7000;0.4737;0.7755;
1197.0000;0.4737;0.7662;
1197.3000;0.4729;0.7709;
1197.6000;0.4624;0.7500;
1197.9000;0.4754;0.7802;
1198.2000;0.4754;0.7802;
1198.5000;0.4770;0.7825;
1198.8000;0.4729;0.7732;
1199.1000;0.4729;0.7825;
1199.4000;0.4737;0.7848;
1199.7000;0.4729;0.7755;
1200.0000;0.4754;0.7802;
1200.3000;0.4713;0.7732;
1200.6000;0.4737;0.7686;
1200.9000;0.4729;0.7639;
1201.2000;0.4729;0.7639;
1201.5000;0.4729;0.7570;
1201.8000;0.4737;0.7639;
1202.1000;0.4721;0.7732;
1202.4000;0.4721;0.7802;
1202.7000;0.4737;0.7755;
1203.0000;0.4754;0.7778;
1203.3000;0.4721;0.7709;
1203.6000;0.4737;0.7755;
1203.9000;0.4729;0.7709;
1204.2000;0.4746;0.7732;
1204.5000;0.4762;0.7709;
1204.8000;0.4737;0.7593;
1205.1000;0.4778;0.7755;
1205.4000;0.4737;0.7662;
1205.7000;0.4754;0.7662;
1206.0000;0.4746;0.7732;
1206.3000;0.4729;0.7686;
1206.6000;0.4746;0.7732;
1206.9000;0.4754;0.7732;
1207.2000;0.4729;0.7778;
1207.5000;0.4746;0.7848;
1207.8000;0.4762;0.7848;
1208.1000;0.4762;0.7848;
1208.4000;0.4737;0.7732;
1208.7000;0.4746;0.7825;
1209.0000;0.4746;0.7825;
1209.3000;0.4721;0.7755;
1209.6000;0.4713;0.7802;
1209.9000;0.4737;0.7871;
1210.2000;0.4746;0.7825;
1210.5000;0.4721;0.7778;
1210.8000;0.4729;0.7778;
1211.1000;0.4721;0.7755;
1211.4000;0.4754;0.7918;
1211.7000;0.4705;0.7871;
1212.0000;0.4786;0.7964;
1212.3000;0.4737;0.7825;
1212.6000;0.4729;0.7871;
1212.9000;0.4721;0.7871;
1213.2000;0.4746;0.8011;
1213.5000;0.4729;0.7964;
1213.8000;0.4713;0.7964;
1214.1000;0.4729;0.8080;
1214.4000;0.4803;0.8173;
1214.7000;0.4754;0.7941;
1215.0000;0.4778;0.7895;
1215.3000;0.4762;0.7778;
1215.6000;0.4713;0.7662;
1215.9000;0.4672;0.7500;
1216.2000;0.4746;0.7639;
1216.5000;0.4754;0.7616;
1216.8000;0.4721;0.7570;
1217.1000;0.4770;0.7616;
1217.4000;0.4754;0.7593;
1217.7000;0.4737;0.7593;
1218.0000;0.4803;0.7732;
1218.3000;0.4762;0.7686;
1218.6000;0.4737;0.7686;
1218.9000;0.4754;0.7732;
1219.2000;0.4737;0.7732;
1219.5000;0.4770;0.7755;
1219.8000;0.4746;0.7662;
1220.1000;0.4746;0.7825;
1220.4000;0.4737;0.7871;
1220.7000;0.4737;0.7848;
1221.0000;0.4729;0.7848;
1221.3000;0.4737;0.7802;
1221.6000;0.4746;0.7778;
1221.9000;0.4729;0.7616;
1222.2000;0.4729;0.7616;
1222.5000;0.4737;0.7616;
1222.8000;0.4729;0.7500;
1223.1000;0.4705;0.7500;
1223.4000;0.4721;0.7616;
1223.7000;0.4762;0.7732;
1224.0000;0.4754;0.7686;
1224.3000;0.4729;0.7662;
1224.6000;0.4770;0.7732;
1224.9000;0.4746;0.7593;
1225.2000;0.4794;0.7778;
1225.5000;0.4729;0.7709;
1225.8000;0.4729;0.7523;
1226.1000;0.4803;0.7639;
1226.4000;0.4721;0.7500;
1226.7000;0.4721;0.7523;
1227.0000;0.4746;0.7546;
1227.3000;0.4754;0.7477;
1227.6000;0.4746;0.7430;
1227.9000;0.4721;0.7407;
1228.2000;0.4762;0.7593;
1228.5000;0.4754;0.7570;
1228.8000;0.4729;0.7593;
1229.1000;0.4835;0.7871;
1229.4000;0.4746;0.7662;
1229.7000;0.4754;0.7639;
1230.0000;0.4754;0.7709;
1230.3000;0.4794;0.7825;
1230.6000;0.4729;0.7616;
1230.9000;0.4729;0.7523;
1231.2000;0.4664;0.7361;
1231.5000;0.4746;0.7616;
1231.8000;0.4737;0.7755;
1232.1000;0.4737;0.7709;
1232.4000;0.4729;0.7732;
1232.7000;0.4737;0.7709;
1233.0000;0.4729;0.7616;
1233.3000;0.4721;0.7570;
1233.6000;0.4737;0.7709;
1233.9000;0.4737;0.7778;
1234.2000;0.4737;0.7848;
1234.5000;0.4762;0.7871;
1234.8000;0.4721;0.7802;
1235.1000;0.4762;0.7848;
1235.4000;0.4746;0.7802;
1235.7000;0.4721;0.7755;
1236.0000;0.4697;0.7662;
1236.3000;0.4729;0.7848;
1236.6000;0.4762;0.7964;
1236.9000;0.4721;0.7871;
1237.2000;0.4786;0.8011;
1237.5000;0.4737;0.7987;
1237.8000;0.4754;0.7964;
1238.1000;0.4721;0.7941;
1238.4000;0.4778;0.7987;
1238.7000;0.4770;0.7871;
1239.0000;0.4762;0.7709;
1239.3000;0.4770;0.7709;
1239.6000;0.4746;0.7639;
1239.9000;0.4770;0.7662;
1240.2000;0.4754;0.7686;
1240.5000;0.4827;0.7871;
1240.8000;0.4737;0.7639;
1241.1000;0.4721;0.7593;
1241.4000;0.4746;0.7616;
1241.7000;0.4851;0.7964;
1242.0000;0.4737;0.7546;
1242.3000;0.4729;0.7546;
1242.6000;0.4737;0.7570;
1242.9000;0.4721;0.7546;
1243.2000;0.4729;0.7593;
1243.5000;0.4754;0.7593;
1243.8000;0.4762;0.7523;
1244.1000;0.4762;0.7430;
1244.4000;0.4754;0.7500;
1244.7000;0.4746;0.7523;
1245.0000;0.4746;0.7430;
1245.3000;0.4737;0.7407;
1245.6000;0.4713;0.7314;
1245.9000;0.4746;0.7453;
1246.2000;0.4737;0.7523;
1246.5000;0.4770;0.7616;
1246.8000;0.4729;0.7523;
1247.1000;0.4746;0.7639;
1247.4000;0.4737;0.7593;
1247.7000;0.4737;0.7686;
1248.0000;0.4746;0.7709;
1248.3000;0.4729;0.7662;
1248.6000;0.4713;0.7616;
1248.9000;0.4754;0.7686;
1249.2000;0.4770;0.7778;
1249.5000;0.4737;0.7709;
1249.8000;0.4729;0.7616;
1250.1000;0.4746;0.7616;
1250.4000;0.4737;0.7616;
1250.7000;0.4648;0.7430;
1251.0000;0.4737;0.7732;
1251.3000;0.4721;0.7732;
1251.6000;0.4762;0.7848;
1251.9000;0.4754;0.7802;
1252.2000;0.4770;0.7895;
1252.5000;0.4778;0.7848;
1252.8000;0.4762;0.7895;
1253.1000;0.4778;0.7941;
1253.4000;0.4754;0.7895;
1253.7000;0.4746;0.7918;
1254.0000;0.4746;0.7918;
1254.3000;0.4794;0.8034;
1254.6000;0.4754;0.7755;
1254.9000;0.4746;0.7732;
1255.2000;0.4746;0.7686;
1255.5000;0.4648;0.7407;
1255.8000;0.4770;0.7686;
1256.1000;0.4721;0.7546;
1256.4000;0.4729;0.7616;
1256.7000;0.4746;0.7593;
1257.0000;0.4737;0.7523;
1257.3000;0.4786;0.7686;
1257.6000;0.4737;0.7639;
1257.9000;0.4689;0.7523;
1258.2000;0.4754;0.7662;
1258.5000;0.4737;0.7639;
1258.8000;0.4713;0.7593;
1259.1000;0.4762;0.7686;
1259.4000;0.4729;0.7662;
1259.7000;0.4729;0.7709;
1260.0000;0.4705;0.7686;
1260.3000;0.4721;0.7616;
1260.6000;0.4746;0.7662;
1260.9000;0.4762;0.7709;
1261.2000;0.4721;0.7616;
1261.5000;0.4729;0.7709;
1261.8000;0.4737;0.7755;
1262.1000;0.4746;0.7755;
1262.4000;0.4599;0.7523;
1262.7000;0.4713;0.7825;
1263.0000;0.4737;0.7848;
1263.3000;0.4754;0.7895;
1263.6000;0.4721;0.7825;
1263.9000;0.4721;0.7825;
1264.2000;0.4754;0.7778;
1264.5000;0.4721;0.7709;
1264.8000;0.4754;0.7802;
1265.1000;0.4754;0.7755;
1265.4000;0.4762;0.7778;
1265.7000;0.4754;0.7709;
1266.0000;0.4754;0.7639;
1266.3000;0.4737;0.7709;
1266.6000;0.4737;0.7848;
1266.9000;0.4754;0.7871;
1267.2000;0.4721;0.7895;
1267.5000;0.4697;0.7825;
1267.8000;0.4697;0.7778;
1268.1000;0.4737;0.7825;
1268.4000;0.4770;0.7848;
1268.7000;0.4746;0.7709;
1269.0000;0.4737;0.7709;
1269.3000;0.4754;0.7802;
1269.6000;0.4721;0.7778;
1269.9000;0.4729;0.7848;
1270.2000;0.4746;0.7918;
1270.5000;0.4729;0.7941;
1270.8000;0.4746;0.7941;
1271.1000;0.4762;0.8034;
1271.4000;0.4729;0.7964;
1271.7000;0.4705;0.7895;
1272.0000;0.4697;0.7918;
1272.3000;0.4721;0.7987;
1272.6000;0.4811;0.8150;
1272.9000;0.4762;0.7964;
1273.2000;0.4746;0.7941;
1273.5000;0.4705;0.7918;
1273.8000;0.4713;0.7918;
1274.1000;0.4746;0.7941;
1274.4000;0.4721;0.7848;
1274.7000;0.4794;0.8011;
1275.0000;0.4737;0.7825;
1275.3000;0.4697;0.7709;
1275.6000;0.4737;0.7848;
1275.9000;0.4762;0.7964;
1276.2000;0.4729;0.7871;
1276.5000;0.4721;0.7825;
1276.8000;0.4754;0.7802;
1277.1000;0.4729;0.7570;
1277.4000;0.4746;0.7686;
1277.7000;0.4713;0.7616;
1278.0000;0.4762;0.7686;
1278.3000;0.4762;0.7755;
1278.6000;0.4778;0.7778;
1278.9000;0.4746;0.7778;
1279.2000;0.4721;0.7709;
1279.5000;0.4729;0.7616;
1279.8000;0.4721;0.7616;
1280.1000;0.4737;0.7732;
1280.4000;0.4729;0.7662;
1280.7000;0.4713;0.7616;
1281.0000;0.4721;0.7616;
1281.3000;0.4705;0.7662;
1281.6000;0.4729;0.7755;
1281.9000;0.4705;0.7732;
1282.2000;0.4754;0.7918;
1282.5000;0.4721;0.7871;
1282.8000;0.4721;0.7918;
1283.1000;0.4713;0.7871;
1283.4000;0.4705;0.7802;
1283.7000;0.4754;0.7987;
1284.0000;0.4721;0.7802;
1284.3000;0.4697;0.7732;
1284.6000;0.4737;0.7871;
1284.9000;0.4746;0.7802;
1285.2000;0.4786;0.7825;
1285.5000;0.4721;0.7709;
1285.8000;0.4721;0.7732;
1286.1000;0.4737;0.7732;
1286.4000;0.4689;0.7662;
1286.7000;0.4713;0.7732;
1287.0000;0.4697;0.7686;
1287.3000;0.4729;0.7662;
1287.6000;0.4762;0.7686;
1287.9000;0.4770;0.7802;
1288.2000;0.4705;0.7616;
1288.5000;0.4721;0.7732;
1288.8000;0.4762;0.7871;
1289.1000;0.4705;0.7778;
1289.4000;0.4664;0.7616;
1289.7000;0.4746;0.7848;
1290.0000;0.4754;0.7918;
1290.3000;0.4729;0.7987;
1290.6000;0.4737;0.8034;
1290.9000;0.4746;0.8080;
1291.2000;0.4754;0.8104;
1291.5000;0.4705;0.8057;
1291.8000;0.4721;0.8080;
1292.1000;0.4729;0.7987;
1292.4000;0.4729;0.7964;
1292.7000;0.4705;0.8034;
1293.0000;0.4713;0.8011;
1293.3000;0.4721;0.8057;
1293.6000;0.4737;0.8057;
1293.9000;0.4737;0.8034;
1294.2000;0.4705;0.7941;
1294.5000;0.4721;0.7987;
1294.8000;0.4713;0.7895;
1295.1000;0.4737;0.7895;
1295.4000;0.4713;0.7964;
1295.7000;0.4746;0.8057;
1296.0000;0.4713;0.8034;
1296.3000;0.4737;0.8080;
1296.6000;0.4729;0.8196;
1296.9000;0.4713;0.8173;
1297.2000;0.4737;0.8220;
1297.5000;0.4737;0.8196;
1297.8000;0.4746;0.8011;
1298.1000;0.4729;0.8011;
1298.4000;0.4713;0.7941;
1298.7000;0.4729;0.7802;
1299.0000;0.4729;0.7802;
1299.3000;0.4737;0.7825;
1299.6000;0.4721;0.7802;
1299.9000;0.4721;0.7755;
1300.2000;0.4689;0.7662;
1300.5000;0.4737;0.7755;
1300.8000;0.4721;0.7616;
1301.1000;0.4737;0.7709;
1301.4000;0.4851;0.7964;
1301.7000;0.4770;0.7848;
1302.0000;0.4737;0.7825;
1302.3000;0.4729;0.7871;
1302.6000;0.4746;0.7918;
1302.9000;0.4737;0.8034;
1303.2000;0.4754;0.7871;
1303.5000;0.4835;0.8150;
1303.8000;0.4721;0.7964;
1304.1000;0.4746;0.7987;
1304.4000;0.4729;0.8034;
1304.7000;0.4729;0.8011;
1305.0000;0.4746;0.8011;
1305.3000;0.4721;0.8034;
1305.6000;0.4729;0.8011;
1305.9000;0.4737;0.7964;
1306.2000;0.4713;0.8034;
1306.5000;0.4746;0.7964;
1306.8000;0.4746;0.8011;
1307.1000;0.4689;0.7895;
1307.4000;0.4827;0.8196;
1307.7000;0.4737;0.7941;
1308.0000;0.4746;0.7895;
1308.3000;0.4770;0.7895;
1308.6000;0.4819;0.7987;
1308.9000;0.4843;0.8011;
1309.2000;0.4721;0.7755;
1309.5000;0.4721;0.7778;
1309.8000;0.4737;0.7964;
1310.1000;0.4729;0.7987;
1310.4000;0.4737;0.7964;
1310.7000;0.4746;0.7941;
1311.0000;0.4754;0.7987;
1311.3000;0.4754;0.8057;
1311.6000;0.4737;0.7941;
1311.9000;0.4729;0.7778;
1312.2000;0.4721;0.7778;
1312.5000;0.4754;0.7848;
1312.8000;0.4737;0.7732;
1313.1000;0.4729;0.7732;
1313.4000;0.4746;0.7616;
1313.7000;0.4721;0.7732;
1314.0000;0.4721;0.7686;
1314.3000;0.4754;0.7709;
1314.6000;0.4737;0.7732;
1314.9000;0.4729;0.7686;
1315.2000;0.4729;0.7802;
1315.5000;0.4721;0.7825;
1315.8000;0.4737;0.7802;
1316.1000;0.4746;0.7848;
1316.4000;0.4721;0.7755;
1316.7000;0.4746;0.7732;
1317.0000;0.4754;0.7732;
1317.3000;0.4778;0.7662;
1317.6000;0.4721;0.7500;
1317.9000;0.4746;0.7546;
1318.2000;0.4746;0.7477;
1318.5000;0.4729;0.7523;
1318.8000;0.4778;0.7709;
1319.1000;0.4713;0.7686;
1319.4000;0.4729;0.7755;
1319.7000;0.4721;0.7662;
1320.0000;0.4737;0.7662;
1320.3000;0.4762;0.7755;
1320.6000;0.4754;0.7755;
1320.9000;0.4721;0.7686;
1321.2000;0.4713;0.7616;
1321.5000;0.4729;0.7570;
1321.8000;0.4729;0.7570;
1322.1000;0.4705;0.7593;
1322.4000;0.4746;0.7616;
1322.7000;0.4729;0.7570;
1323.0000;0.4737;0.7662;
1323.3000;0.4754;0.7686;
1323.6000;0.4754;0.7686;
1323.9000;0.4713;0.7639;
1324.2000;0.4746;0.7802;
1324.5000;0.4794;0.8011;
1324.8000;0.4746;0.7918;
1325.1000;0.4786;0.7964;
1325.4000;0.4737;0.7709;
1325.7000;0.4737;0.7709;
1326.0000;0.4746;0.7639;
1326.3000;0.4624;0.7361;
1326.6000;0.4713;0.7523;
1326.9000;0.4729;0.7593;
1327.2000;0.4827;0.7778;
1327.5000;0.4721;0.7477;
1327.8000;0.4729;0.7523;
1328.1000;0.4737;0.7662;
1328.4000;0.4746;0.7662;
1328.7000;0.4729;0.7593;
1329.0000;0.4746;0.7616;
1329.3000;0.4664;0.7453;
1329.6000;0.4721;0.7662;
1329.9000;0.4762;0.7778;
1330.2000;0.4689;0.7686;
1330.5000;0.4705;0.7732;
1330.8000;0.4729;0.7755;
1331.1000;0.4713;0.7639;
1331.4000;0.4778;0.7732;
1331.7000;0.4729;0.7755;
1332.0000;0.4762;0.7825;
1332.3000;0.4737;0.7778;
1332.6000;0.4786;0.7964;
1332.9000;0.4762;0.7802;
1333.2000;0.4729;0.7732;
1333.5000;0.4737;0.7802;
1333.8000;0.4729;0.7755;
1334.1000;0.4737;0.7709;
1334.4000;0.4778;0.7778;
1334.7000;0.4762;0.7802;
1335.0000;0.4737;0.7825;
1335.3000;0.4713;0.7686;
1335.6000;0.4746;0.7825;
1335.9000;0.4729;0.7802;
1336.2000;0.4746;0.7848;
1336.5000;0.4778;0.7895;
1336.8000;0.4746;0.7778;
1337.1000;0.4770;0.7755;
1337.4000;0.4713;0.7593;
1337.7000;0.4762;0.7686;
1338.0000;0.4729;0.7709;
1338.3000;0.4754;0.7778;
1338.6000;0.4746;0.7802;
1338.9000;0.4721;0.7825;
1339.2000;0.4737;0.7895;
1339.5000;0.4737;0.7848;
1339.8000;0.4754;0.7848;
1340.1000;0.4729;0.7778;
1340.4000;0.4737;0.7848;
1340.7000;0.4697;0.7662;
1341.0000;0.4729;0.7593;
1341.3000;0.4721;0.7616;
1341.6000;0.4697;0.7546;
1341.9000;0.4729;0.7662;
1342.2000;0.4762;0.7709;
1342.5000;0.4721;0.7709;
1342.8000;0.4754;0.7871;
1343.1000;0.4737;0.7802;
1343.4000;0.4746;0.7732;
1343.7000;0.4746;0.7639;
1344.0000;0.4770;0.7639;
1344.3000;0.4746;0.7593;
1344.6000;0.4770;0.7593;
1344.9000;0.4729;0.7570;
1345.2000;0.4770;0.7570;
1345.5000;0.4721;0.7500;
1345.8000;0.4737;0.7593;
1346.1000;0.4664;0.7430;
1346.4000;0.4737;0.7639;
1346.7000;0.4762;0.7732;
1347.0000;0.4746;0.7732;
1347.3000;0.4737;0.7732;
1347.6000;0.4729;0.7686;
1347.9000;0.4746;0.7802;
1348.2000;0.4794;0.7825;
1348.5000;0.4778;0.7802;
1348.8000;0.4754;0.7825;
1349.1000;0.4754;0.7895;
1349.4000;0.4713;0.7732;
1349.7000;0.4721;0.7709;
1350.0000;0.4721;0.7802;
1350.3000;0.4729;0.7778;
1350.6000;0.4681;0.7639;
1350.9000;0.4737;0.7662;
1351.2000;0.4803;0.7871;
1351.5000;0.4754;0.7686;
1351.8000;0.4737;0.7616;
1352.1000;0.4729;0.7709;
1352.4000;0.4729;0.7709;
1352.7000;0.4729;0.7709;
1353.0000;0.4697;0.7732;
1353.3000;0.4737;0.7755;
1353.6000;0.4721;0.7802;
1353.9000;0.4729;0.7778;
1354.2000;0.4746;0.7825;
1354.5000;0.4713;0.7778;
1354.8000;0.4737;0.7778;
1355.1000;0.4803;0.7895;
1355.4000;0.4762;0.7755;
1355.7000;0.4770;0.7662;
1356.0000;0.4721;0.7593;
1356.3000;0.4746;0.7616;
1356.6000;0.4754;0.7686;
1356.9000;0.4770;0.7755;
1357.2000;0.4762;0.7732;
1357.5000;0.4721;0.7616;
1357.8000;0.4737;0.7709;
1358.1000;0.4762;0.7686;
1358.4000;0.4754;0.7593;
1358.7000;0.4713;0.7570;
1359.0000;0.4737;0.7662;
1359.3000;0.4729;0.7639;
1359.6000;0.4754;0.7686;
1359.9000;0.4737;0.7662;
1360.2000;0.4737;0.7639;
1360.5000;0.4786;0.7662;
1360.8000;0.4737;0.7593;
1361.1000;0.4737;0.7570;
1361.4000;0.4754;0.7732;
1361.7000;0.4729;0.7616;
1362.0000;0.4786;0.7755;
1362.3000;0.4713;0.7616;
1362.6000;0.4729;0.7709;
1362.9000;0.4729;0.7662;
1363.2000;0.4721;0.7686;
1363.5000;0.4737;0.7848;
1363.8000;0.4746;0.7778;
1364.1000;0.4705;0.7662;
1364.4000;0.4713;0.7686;
1364.7000;0.4664;0.7500;
1365.0000;0.4705;0.7639;
1365.3000;0.4737;0.7709;
1365.6000;0.4713;0.7662;
1365.9000;0.4729;0.7732;
1366.2000;0.4729;0.7662;
1366.5000;0.4762;0.7848;
1366.8000;0.4746;0.7778;
1367.1000;0.4729;0.7755;
1367.4000;0.4762;0.7778;
1367.7000;0.4827;0.7941;
1368.0000;0.4794;0.7871;
1368.3000;0.4721;0.7709;
1368.6000;0.4746;0.7755;
1368.9000;0.4721;0.7802;
1369.2000;0.4803;0.7895;
1369.5000;0.4860;0.8104;
1369.8000;0.4746;0.7732;
1370.1000;0.4754;0.7755;
1370.4000;0.4729;0.7755;
1370.7000;0.4729;0.7871;
1371.0000;0.4729;0.7871;
1371.3000;0.4721;0.7871;
1371.6000;0.4729;0.7895;
1371.9000;0.4754;0.7918;
1372.2000;0.4762;0.7871;
1372.5000;0.4721;0.7755;
1372.8000;0.4729;0.7918;
1373.1000;0.4754;0.7941;
1373.4000;0.4746;0.7918;
1373.7000;0.4778;0.7918;
1374.0000;0.4754;0.7895;
1374.3000;0.4746;0.7871;
1374.6000;0.4746;0.7895;
1374.9000;0.4737;0.7941;
1375.2000;0.4737;0.8057;
1375.5000;0.4729;0.8034;
1375.8000;0.4754;0.7895;
1376.1000;0.4737;0.7802;
1376.4000;0.4737;0.7709;
1376.7000;0.4762;0.7802;
1377.0000;0.4754;0.7778;
1377.3000;0.4754;0.7848;
1377.6000;0.4778;0.7895;
1377.9000;0.4713;0.7825;
1378.2000;0.4737;0.7825;
1378.5000;0.4713;0.7686;
1378.8000;0.4794;0.7825;
1379.1000;0.4770;0.7709;
1379.4000;0.4762;0.7639;
1379.7000;0.4762;0.7570;
1380.0000;0.4737;0.7593;
1380.3000;0.4713;0.7639;
1380.6000;0.4794;0.7778;
1380.9000;0.4754;0.7662;
1381.2000;0.4762;0.7709;
1381.5000;0.4729;0.7639;
1381.8000;0.4689;0.7570;
1382.1000;0.4770;0.7662;
1382.4000;0.4729;0.7639;
1382.7000;0.4721;0.7686;
1383.0000;0.4721;0.7732;
1383.3000;0.4737;0.7732;
1383.6000;0.4737;0.7709;
1383.9000;0.4754;0.7709;
1384.2000;0.4737;0.7662;
1384.5000;0.4762;0.7778;
1384.8000;0.4737;0.7686;
1385.1000;0.4729;0.7570;
1385.4000;0.4746;0.7662;
1385.7000;0.4705;0.7593;
1386.0000;0.4737;0.7709;
1386.3000;0.4681;0.7639;
1386.6000;0.4729;0.7755;
1386.9000;0.4737;0.7802;
1387.2000;0.4721;0.7662;
1387.5000;0.4778;0.7825;
1387.8000;0.4794;0.7825;
1388.1000;0.4746;0.7732;
1388.4000;0.4729;0.7686;
1388.7000;0.4754;0.7662;
1389.0000;0.4648;0.7291;
1389.3000;0.4737;0.7477;
1389.6000;0.4746;0.7570;
1389.9000;0.4689;0.7500;
1390.2000;0.4713;0.7616;
1390.5000;0.4705;0.7546;
1390.8000;0.4713;0.7500;
1391.1000;0.4729;0.7570;
1391.4000;0.4705;0.7546;
1391.7000;0.4721;0.7662;
1392.0000;0.4746;0.7662;
1392.3000;0.4746;0.7639;
1392.6000;0.4721;0.7570;
1392.9000;0.4721;0.7546;
1393.2000;0.4721;0.7686;
1393.5000;0.4746;0.7802;
1393.8000;0.4729;0.7709;
1394.1000;0.4729;0.7662;
1394.4000;0.4713;0.7546;
1394.7000;0.4729;0.7546;
1395.0000;0.4746;0.7546;
1395.3000;0.4705;0.7523;
1395.6000;0.4721;0.7616;
1395.9000;0.4737;0.7639;
1396.2000;0.4737;0.7709;
1396.5000;0.4754;0.7662;
1396.8000;0.4737;0.7662;
1397.1000;0.4746;0.7732;
1397.4000;0.4746;0.7732;
1397.7000;0.4729;0.7802;
1398.0000;0.4729;0.7755;
1398.3000;0.4786;0.7825;
1398.6000;0.4721;0.7662;
1398.9000;0.4746;0.7732;
1399.2000;0.4729;0.7616;
1399.5000;0.4729;0.7639;
1399.8000;0.4746;0.7686;
