time/ms;Fluo/V;P700 deltaI/I x10³;
-199.8000;0.6154;1.0147;
-199.5000;0.6146;1.0054;
-199.2000;0.6081;0.9799;
-198.9000;0.6186;1.0031;
-198.6000;0.6154;1.0008;
-198.3000;0.6162;1.0100;
-198.0000;0.6146;1.0100;
-197.7000;0.6211;1.0240;
-197.4000;0.6129;1.0054;
-197.1000;0.6154;1.0100;
-196.8000;0.6097;1.0008;
-196.5000;0.6162;1.0147;
-196.2000;0.6170;1.0147;
-195.9000;0.6162;1.0124;
-195.6000;0.6178;1.0193;
-195.3000;0.6162;1.0263;
-195.0000;0.6146;1.0217;
-194.7000;0.6186;1.0333;
-194.4000;0.6170;1.0402;
-194.1000;0.6178;1.0379;
-193.8000;0.6170;1.0333;
-193.5000;0.6268;1.0495;
-193.2000;0.6162;1.0333;
-192.9000;0.6162;1.0263;
-192.6000;0.6146;1.0193;
-192.3000;0.6203;1.0333;
-192.0000;0.6146;1.0333;
-191.7000;0.6162;1.0402;
-191.4000;0.6162;1.0425;
-191.1000;0.6154;1.0472;
-190.8000;0.6276;1.0774;
-190.5000;0.6162;1.0449;
-190.2000;0.6162;1.0379;
-189.9000;0.6178;1.0449;
-189.6000;0.6235;1.0565;
-189.3000;0.6162;1.0495;
-189.0000;0.6178;1.0472;
-188.7000;0.6154;1.0425;
-188.4000;0.6146;1.0402;
-188.1000;0.6154;1.0425;
-187.8000;0.6146;1.0379;
-187.5000;0.6146;1.0356;
-187.2000;0.6138;1.0356;
-186.9000;0.6138;1.0472;
-186.6000;0.6129;1.0542;
-186.3000;0.6146;1.0588;
-186.0000;0.6162;1.0518;
-185.7000;0.6162;1.0425;
-185.4000;0.6162;1.0379;
-185.1000;0.6154;1.0402;
-184.8000;0.6162;1.0425;
-184.5000;0.6162;1.0402;
-184.2000;0.6154;1.0402;
-183.9000;0.6154;1.0472;
-183.6000;0.6162;1.0658;
-183.3000;0.6162;1.0681;
-183.0000;0.6162;1.0565;
-182.7000;0.6154;1.0542;
-182.4000;0.6170;1.0542;
-182.1000;0.6146;1.0472;
-181.8000;0.6146;1.0472;
-181.5000;0.6146;1.0495;
-181.2000;0.6154;1.0542;
-180.9000;0.6154;1.0542;
-180.6000;0.6138;1.0495;
-180.3000;0.6146;1.0495;
-180.0000;0.6138;1.0425;
-179.7000;0.6138;1.0356;
-179.4000;0.6162;1.0379;
-179.1000;0.6170;1.0472;
-178.8000;0.6154;1.0472;
-178.5000;0.6154;1.0425;
-178.2000;0.6162;1.0449;
-177.9000;0.6170;1.0495;
-177.6000;0.6154;1.0425;
-177.3000;0.6146;1.0379;
-177.0000;0.6162;1.0449;
-176.7000;0.6138;1.0356;
-176.4000;0.6138;1.0356;
-176.1000;0.6146;1.0379;
-175.8000;0.6154;1.0495;
-175.5000;0.6162;1.0495;
-175.2000;0.6154;1.0449;
-174.9000;0.6162;1.0472;
-174.6000;0.6138;1.0425;
-174.3000;0.6121;1.0402;
-174.0000;0.6146;1.0333;
-173.7000;0.6154;1.0402;
-173.4000;0.6146;1.0333;
-173.1000;0.6170;1.0379;
-172.8000;0.6162;1.0379;
-172.5000;0.6146;1.0472;
-172.2000;0.6138;1.0425;
-171.9000;0.6195;1.0634;
-171.6000;0.6129;1.0495;
-171.3000;0.6146;1.0518;
-171.0000;0.6162;1.0425;
-170.7000;0.6129;1.0379;
-170.4000;0.6146;1.0449;
-170.1000;0.6113;1.0425;
-169.8000;0.6146;1.0495;
-169.5000;0.6178;1.0425;
-169.2000;0.6113;1.0240;
-168.9000;0.6097;1.0147;
-168.6000;0.6154;1.0309;
-168.3000;0.6154;1.0309;
-168.0000;0.6138;1.0356;
-167.7000;0.6162;1.0425;
-167.4000;0.6170;1.0356;
-167.1000;0.6268;1.0611;
-166.8000;0.6203;1.0449;
-166.5000;0.6154;1.0333;
-166.2000;0.6162;1.0309;
-165.9000;0.6170;1.0333;
-165.6000;0.6170;1.0286;
-165.3000;0.6170;1.0333;
-165.0000;0.6138;1.0263;
-164.7000;0.6170;1.0379;
-164.4000;0.6170;1.0402;
-164.1000;0.6170;1.0379;
-163.8000;0.6170;1.0402;
-163.5000;0.6154;1.0309;
-163.2000;0.6162;1.0425;
-162.9000;0.6186;1.0542;
-162.6000;0.6154;1.0449;
-162.3000;0.6178;1.0495;
-162.0000;0.6211;1.0611;
-161.7000;0.6138;1.0495;
-161.4000;0.6146;1.0495;
-161.1000;0.6186;1.0565;
-160.8000;0.6170;1.0588;
-160.5000;0.6146;1.0588;
-160.2000;0.6170;1.0704;
-159.9000;0.6170;1.0751;
-159.6000;0.6097;1.0495;
-159.3000;0.6138;1.0565;
-159.0000;0.6154;1.0542;
-158.7000;0.6129;1.0379;
-158.4000;0.6146;1.0356;
-158.1000;0.6154;1.0309;
-157.8000;0.6129;1.0193;
-157.5000;0.6170;1.0286;
-157.2000;0.6089;1.0147;
-156.9000;0.6146;1.0309;
-156.6000;0.6121;1.0263;
-156.3000;0.6162;1.0333;
-156.0000;0.6178;1.0333;
-155.7000;0.6186;1.0356;
-155.4000;0.6170;1.0356;
-155.1000;0.6170;1.0425;
-154.8000;0.6170;1.0472;
-154.5000;0.6162;1.0425;
-154.2000;0.6170;1.0402;
-153.9000;0.6146;1.0333;
-153.6000;0.6162;1.0286;
-153.3000;0.6162;1.0263;
-153.0000;0.6170;1.0333;
-152.7000;0.6178;1.0379;
-152.4000;0.6146;1.0193;
-152.1000;0.6186;1.0263;
-151.8000;0.6162;1.0217;
-151.5000;0.6162;1.0263;
-151.2000;0.6138;1.0240;
-150.9000;0.6154;1.0240;
-150.6000;0.6138;1.0333;
-150.3000;0.6162;1.0309;
-150.0000;0.6162;1.0379;
-149.7000;0.6138;1.0263;
-149.4000;0.6113;1.0193;
-149.1000;0.6089;1.0124;
-148.8000;0.6154;1.0379;
-148.5000;0.6186;1.0356;
-148.2000;0.6105;1.0240;
-147.9000;0.6186;1.0425;
-147.6000;0.6162;1.0402;
-147.3000;0.6243;1.0588;
-147.0000;0.6138;1.0309;
-146.7000;0.6138;1.0379;
-146.4000;0.6186;1.0518;
-146.1000;0.6146;1.0379;
-145.8000;0.6146;1.0333;
-145.5000;0.6154;1.0379;
-145.2000;0.6170;1.0449;
-144.9000;0.6154;1.0472;
-144.6000;0.6154;1.0449;
-144.3000;0.6146;1.0565;
-144.0000;0.6268;1.0843;
-143.7000;0.6162;1.0518;
-143.4000;0.6162;1.0518;
-143.1000;0.6170;1.0449;
-142.8000;0.6178;1.0425;
-142.5000;0.6162;1.0472;
-142.2000;0.6154;1.0542;
-141.9000;0.6162;1.0588;
-141.6000;0.6162;1.0681;
-141.3000;0.6129;1.0634;
-141.0000;0.6121;1.0634;
-140.7000;0.6129;1.0681;
-140.4000;0.6146;1.0727;
-140.1000;0.6162;1.0774;
-139.8000;0.6146;1.0634;
-139.5000;0.6178;1.0611;
-139.2000;0.6170;1.0565;
-138.9000;0.6146;1.0542;
-138.6000;0.6162;1.0565;
-138.3000;0.6154;1.0542;
-138.0000;0.6162;1.0495;
-137.7000;0.6186;1.0472;
-137.4000;0.6162;1.0449;
-137.1000;0.6162;1.0449;
-136.8000;0.6089;1.0309;
-136.5000;0.6154;1.0542;
-136.2000;0.6178;1.0588;
-135.9000;0.6138;1.0518;
-135.6000;0.6138;1.0542;
-135.3000;0.6129;1.0588;
-135.0000;0.6138;1.0634;
-134.7000;0.6162;1.0565;
-134.4000;0.6186;1.0588;
-134.1000;0.6146;1.0495;
-133.8000;0.6162;1.0518;
-133.5000;0.6162;1.0518;
-133.2000;0.6154;1.0425;
-132.9000;0.6113;1.0333;
-132.6000;0.6146;1.0449;
-132.3000;0.6162;1.0379;
-132.0000;0.6154;1.0379;
-131.7000;0.6154;1.0402;
-131.4000;0.6146;1.0472;
-131.1000;0.6186;1.0542;
-130.8000;0.6170;1.0472;
-130.5000;0.6146;1.0425;
-130.2000;0.6146;1.0425;
-129.9000;0.6170;1.0472;
-129.6000;0.6154;1.0472;
-129.3000;0.6178;1.0542;
-129.0000;0.6154;1.0611;
-128.7000;0.6154;1.0681;
-128.4000;0.6138;1.0542;
-128.1000;0.6195;1.0658;
-127.8000;0.6146;1.0472;
-127.5000;0.6260;1.0704;
-127.2000;0.6121;1.0356;
-126.9000;0.6146;1.0333;
-126.6000;0.6154;1.0402;
-126.3000;0.6170;1.0472;
-126.0000;0.6162;1.0425;
-125.7000;0.6186;1.0518;
-125.4000;0.6089;1.0356;
-125.1000;0.6211;1.0611;
-124.8000;0.6154;1.0495;
-124.5000;0.6138;1.0542;
-124.2000;0.6081;1.0425;
-123.9000;0.6089;1.0425;
-123.6000;0.6162;1.0565;
-123.3000;0.6129;1.0518;
-123.0000;0.6162;1.0542;
-122.7000;0.6162;1.0565;
-122.4000;0.6178;1.0611;
-122.1000;0.6243;1.0634;
-121.8000;0.6154;1.0425;
-121.5000;0.6146;1.0356;
-121.2000;0.6081;1.0240;
-120.9000;0.6170;1.0425;
-120.6000;0.6154;1.0402;
-120.3000;0.6162;1.0472;
-120.0000;0.6081;1.0170;
-119.7000;0.6129;1.0217;
-119.4000;0.6154;1.0240;
-119.1000;0.6154;1.0124;
-118.8000;0.6138;1.0100;
-118.5000;0.6146;1.0124;
-118.2000;0.6162;1.0193;
-117.9000;0.6170;1.0054;
-117.6000;0.6146;1.0100;
-117.3000;0.6162;1.0240;
-117.0000;0.6138;1.0263;
-116.7000;0.6138;1.0240;
-116.4000;0.6129;1.0170;
-116.1000;0.6154;1.0193;
-115.8000;0.6129;1.0170;
-115.5000;0.6162;1.0193;
-115.2000;0.6162;1.0124;
-114.9000;0.6138;1.0077;
-114.6000;0.6154;1.0147;
-114.3000;0.6154;1.0240;
-114.0000;0.6146;1.0263;
-113.7000;0.6154;1.0309;
-113.4000;0.6186;1.0379;
-113.1000;0.6170;1.0309;
-112.8000;0.6154;1.0286;
-112.5000;0.6138;1.0263;
-112.2000;0.6178;1.0286;
-111.9000;0.6162;1.0217;
-111.6000;0.6081;1.0031;
-111.3000;0.6170;1.0333;
-111.0000;0.6138;1.0333;
-110.7000;0.6170;1.0449;
-110.4000;0.6178;1.0542;
-110.1000;0.6129;1.0379;
-109.8000;0.6154;1.0518;
-109.5000;0.6162;1.0518;
-109.2000;0.6203;1.0542;
-108.9000;0.6154;1.0425;
-108.6000;0.6162;1.0425;
-108.3000;0.6154;1.0425;
-108.0000;0.6170;1.0472;
-107.7000;0.6154;1.0402;
-107.4000;0.6146;1.0286;
-107.1000;0.6162;1.0379;
-106.8000;0.6146;1.0333;
-106.5000;0.6162;1.0217;
-106.2000;0.6146;1.0170;
-105.9000;0.6146;1.0124;
-105.6000;0.6170;1.0170;
-105.3000;0.6154;1.0147;
-105.0000;0.6154;1.0170;
-104.7000;0.6170;1.0263;
-104.4000;0.6129;1.0124;
-104.1000;0.6162;1.0217;
-103.8000;0.6154;1.0100;
-103.5000;0.6113;1.0031;
-103.2000;0.6138;1.0147;
-102.9000;0.6178;1.0217;
-102.6000;0.6170;1.0240;
-102.3000;0.6162;1.0309;
-102.0000;0.6146;1.0193;
-101.7000;0.6178;1.0217;
-101.4000;0.6154;1.0193;
-101.1000;0.6113;1.0100;
-100.8000;0.6170;1.0170;
-100.5000;0.6154;1.0054;
-100.2000;0.6121;0.9938;
-99.9000;0.6162;0.9938;
-99.6000;0.6162;0.9961;
-99.3000;0.6162;0.9938;
-99.0000;0.6105;0.9891;
-98.7000;0.6154;1.0217;
-98.4000;0.6154;1.0286;
-98.1000;0.6154;1.0379;
-97.8000;0.6170;1.0402;
-97.5000;0.6178;1.0449;
-97.2000;0.6186;1.0495;
-96.9000;0.6121;1.0356;
-96.6000;0.6162;1.0495;
-96.3000;0.6162;1.0542;
-96.0000;0.6138;1.0379;
-95.7000;0.6146;1.0449;
-95.4000;0.6146;1.0495;
-95.1000;0.6138;1.0449;
-94.8000;0.6146;1.0333;
-94.5000;0.6138;1.0333;
-94.2000;0.6138;1.0286;
-93.9000;0.6162;1.0356;
-93.6000;0.6146;1.0309;
-93.3000;0.6138;1.0240;
-93.0000;0.6097;1.0170;
-92.7000;0.6178;1.0402;
-92.4000;0.6154;1.0379;
-92.1000;0.6178;1.0449;
-91.8000;0.6219;1.0518;
-91.5000;0.6162;1.0402;
-91.2000;0.6186;1.0402;
-90.9000;0.6170;1.0402;
-90.6000;0.6146;1.0333;
-90.3000;0.6186;1.0379;
-90.0000;0.6170;1.0309;
-89.7000;0.6154;1.0217;
-89.4000;0.6186;1.0309;
-89.1000;0.6138;1.0217;
-88.8000;0.6154;1.0193;
-88.5000;0.6154;1.0124;
-88.2000;0.6162;1.0100;
-87.9000;0.6121;1.0054;
-87.6000;0.6186;1.0240;
-87.3000;0.6162;1.0263;
-87.0000;0.6146;1.0286;
-86.7000;0.6146;1.0286;
-86.4000;0.6178;1.0309;
-86.1000;0.6170;1.0263;
-85.8000;0.6154;1.0263;
-85.5000;0.6154;1.0356;
-85.2000;0.6129;1.0333;
-84.9000;0.6162;1.0333;
-84.6000;0.6154;1.0263;
-84.3000;0.6170;1.0193;
-84.0000;0.6219;1.0379;
-83.7000;0.6162;1.0309;
-83.4000;0.6154;1.0286;
-83.1000;0.6154;1.0240;
-82.8000;0.6162;1.0217;
-82.5000;0.6178;1.0240;
-82.2000;0.6162;1.0217;
-81.9000;0.6138;1.0309;
-81.6000;0.6113;1.0356;
-81.3000;0.6178;1.0472;
-81.0000;0.6154;1.0402;
-80.7000;0.6162;1.0425;
-80.4000;0.6154;1.0379;
-80.1000;0.6146;1.0425;
-79.8000;0.6186;1.0495;
-79.5000;0.6162;1.0472;
-79.2000;0.6178;1.0356;
-78.9000;0.6129;1.0309;
-78.6000;0.6154;1.0240;
-78.3000;0.6138;1.0193;
-78.0000;0.6138;1.0193;
-77.7000;0.6146;1.0286;
-77.4000;0.6146;1.0217;
-77.1000;0.6121;1.0124;
-76.8000;0.6154;1.0217;
-76.5000;0.6015;0.9938;
-76.2000;0.6170;1.0356;
-75.9000;0.6300;1.0751;
-75.6000;0.6146;1.0425;
-75.3000;0.6138;1.0356;
-75.0000;0.6170;1.0472;
-74.7000;0.6154;1.0402;
-74.4000;0.6129;1.0402;
-74.1000;0.6154;1.0425;
-73.8000;0.6154;1.0402;
-73.5000;0.6170;1.0333;
-73.2000;0.6154;1.0263;
-72.9000;0.6178;1.0356;
-72.6000;0.6162;1.0309;
-72.3000;0.6121;1.0333;
-72.0000;0.6170;1.0402;
-71.7000;0.6146;1.0309;
-71.4000;0.6146;1.0309;
-71.1000;0.6162;1.0263;
-70.8000;0.6162;1.0217;
-70.5000;0.6146;1.0170;
-70.2000;0.6154;1.0286;
-69.9000;0.6154;1.0402;
-69.6000;0.6138;1.0379;
-69.3000;0.6105;1.0356;
-69.0000;0.6146;1.0379;
-68.7000;0.6121;1.0333;
-68.4000;0.6162;1.0402;
-68.1000;0.6154;1.0379;
-67.8000;0.6154;1.0495;
-67.5000;0.6178;1.0588;
-67.2000;0.6154;1.0425;
-66.9000;0.6154;1.0356;
-66.6000;0.6170;1.0309;
-66.3000;0.6138;1.0333;
-66.0000;0.6146;1.0309;
-65.7000;0.6129;1.0309;
-65.4000;0.6146;1.0379;
-65.1000;0.6170;1.0379;
-64.8000;0.6227;1.0542;
-64.5000;0.6178;1.0472;
-64.2000;0.6162;1.0402;
-63.9000;0.6154;1.0379;
-63.6000;0.6154;1.0402;
-63.3000;0.6170;1.0449;
-63.0000;0.6170;1.0518;
-62.7000;0.6203;1.0704;
-62.4000;0.6219;1.0797;
-62.1000;0.6170;1.0727;
-61.8000;0.6162;1.0658;
-61.5000;0.6162;1.0565;
-61.2000;0.6162;1.0472;
-60.9000;0.6154;1.0495;
-60.6000;0.6154;1.0495;
-60.3000;0.6170;1.0542;
-60.0000;0.6146;1.0495;
-59.7000;0.6146;1.0495;
-59.4000;0.6154;1.0379;
-59.1000;0.6146;1.0356;
-58.8000;0.6162;1.0402;
-58.5000;0.6146;1.0356;
-58.2000;0.6146;1.0286;
-57.9000;0.6146;1.0263;
-57.6000;0.6146;1.0170;
-57.3000;0.6146;1.0170;
-57.0000;0.6203;1.0356;
-56.7000;0.6105;1.0100;
-56.4000;0.6243;1.0379;
-56.1000;0.6146;1.0217;
-55.8000;0.6154;1.0402;
-55.5000;0.6162;1.0495;
-55.2000;0.6170;1.0518;
-54.9000;0.6162;1.0518;
-54.6000;0.6203;1.0542;
-54.3000;0.6154;1.0402;
-54.0000;0.6146;1.0356;
-53.7000;0.6170;1.0379;
-53.4000;0.6146;1.0333;
-53.1000;0.6186;1.0379;
-52.8000;0.6162;1.0333;
-52.5000;0.6154;1.0217;
-52.2000;0.6146;1.0124;
-51.9000;0.6146;1.0193;
-51.6000;0.6203;1.0263;
-51.3000;0.6146;1.0263;
-51.0000;0.6138;1.0217;
-50.7000;0.6129;1.0309;
-50.4000;0.6162;1.0356;
-50.1000;0.6154;1.0379;
-49.8000;0.6162;1.0449;
-49.5000;0.6138;1.0379;
-49.2000;0.6154;1.0379;
-48.9000;0.6129;1.0333;
-48.6000;0.6154;1.0356;
-48.3000;0.6154;1.0356;
-48.0000;0.6129;1.0240;
-47.7000;0.6162;1.0379;
-47.4000;0.6162;1.0379;
-47.1000;0.6129;1.0263;
-46.8000;0.6178;1.0356;
-46.5000;0.6081;1.0193;
-46.2000;0.6129;1.0286;
-45.9000;0.6138;1.0333;
-45.6000;0.6170;1.0356;
-45.3000;0.6162;1.0286;
-45.0000;0.6162;1.0356;
-44.7000;0.6121;1.0309;
-44.4000;0.6170;1.0472;
-44.1000;0.6186;1.0588;
-43.8000;0.6146;1.0425;
-43.5000;0.6162;1.0449;
-43.2000;0.6178;1.0425;
-42.9000;0.6146;1.0425;
-42.6000;0.6129;1.0425;
-42.3000;0.6146;1.0495;
-42.0000;0.6024;1.0170;
-41.7000;0.6154;1.0518;
-41.4000;0.6170;1.0449;
-41.1000;0.6146;1.0356;
-40.8000;0.6089;1.0124;
-40.5000;0.6170;1.0240;
-40.2000;0.6170;1.0240;
-39.9000;0.6154;1.0217;
-39.6000;0.6178;1.0217;
-39.3000;0.6138;1.0193;
-39.0000;0.6170;1.0193;
-38.7000;0.6105;1.0008;
-38.4000;0.6138;1.0054;
-38.1000;0.6146;1.0100;
-37.8000;0.6162;1.0193;
-37.5000;0.6138;1.0217;
-37.2000;0.6105;1.0124;
-36.9000;0.6138;1.0147;
-36.6000;0.6170;1.0263;
-36.3000;0.6113;1.0100;
-36.0000;0.6138;1.0193;
-35.7000;0.6146;1.0263;
-35.4000;0.6154;1.0309;
-35.1000;0.6154;1.0240;
-34.8000;0.6195;1.0379;
-34.5000;0.6154;1.0425;
-34.2000;0.6154;1.0309;
-33.9000;0.6162;1.0356;
-33.6000;0.6146;1.0402;
-33.3000;0.6186;1.0402;
-33.0000;0.6154;1.0356;
-32.7000;0.6154;1.0379;
-32.4000;0.6227;1.0472;
-32.1000;0.6129;1.0240;
-31.8000;0.6154;1.0286;
-31.5000;0.6097;1.0240;
-31.2000;0.6260;1.0704;
-30.9000;0.6154;1.0495;
-30.6000;0.6154;1.0495;
-30.3000;0.6178;1.0495;
-30.0000;0.6178;1.0495;
-29.7000;0.6170;1.0472;
-29.4000;0.6146;1.0333;
-29.1000;0.6162;1.0286;
-28.8000;0.6170;1.0309;
-28.5000;0.6129;1.0333;
-28.2000;0.6154;1.0425;
-27.9000;0.6154;1.0472;
-27.6000;0.6154;1.0495;
-27.3000;0.6105;1.0449;
-27.0000;0.6154;1.0425;
-26.7000;0.6154;1.0379;
-26.4000;0.6138;1.0402;
-26.1000;0.6154;1.0472;
-25.8000;0.6170;1.0542;
-25.5000;0.6154;1.0518;
-25.2000;0.6154;1.0518;
-24.9000;0.6162;1.0542;
-24.6000;0.6138;1.0472;
-24.3000;0.6146;1.0518;
-24.0000;0.6146;1.0565;
-23.7000;0.6154;1.0565;
-23.4000;0.6154;1.0518;
-23.1000;0.6146;1.0495;
-22.8000;0.6129;1.0379;
-22.5000;0.6219;1.0518;
-22.2000;0.6138;1.0402;
-21.9000;0.6146;1.0449;
-21.6000;0.6146;1.0449;
-21.3000;0.6154;1.0425;
-21.0000;0.6138;1.0379;
-20.7000;0.6170;1.0495;
-20.4000;0.6154;1.0449;
-20.1000;0.6129;1.0449;
-19.8000;0.6178;1.0565;
-19.5000;0.6162;1.0565;
-19.2000;0.6146;1.0425;
-18.9000;0.6154;1.0379;
-18.6000;0.6170;1.0495;
-18.3000;0.6154;1.0542;
-18.0000;0.6162;1.0495;
-17.7000;0.6162;1.0472;
-17.4000;0.6170;1.0425;
-17.1000;0.6203;1.0449;
-16.8000;0.6138;1.0309;
-16.5000;0.6121;1.0333;
-16.2000;0.6170;1.0402;
-15.9000;0.6162;1.0356;
-15.6000;0.6178;1.0356;
-15.3000;0.6146;1.0309;
-15.0000;0.6162;1.0333;
-14.7000;0.6162;1.0402;
-14.4000;0.6162;1.0309;
-14.1000;0.6162;1.0263;
-13.8000;0.6146;1.0263;
-13.5000;0.6178;1.0356;
-13.2000;0.6138;1.0217;
-12.9000;0.6154;1.0193;
-12.6000;0.6154;1.0263;
-12.3000;0.6129;1.0263;
-12.0000;0.6146;1.0333;
-11.7000;0.6138;1.0193;
-11.4000;0.6129;1.0217;
-11.1000;0.6129;1.0263;
-10.8000;0.6113;1.0193;
-10.5000;0.6178;1.0356;
-10.2000;0.6138;1.0170;
-9.9000;0.6121;1.0124;
-9.6000;0.6154;1.0170;
-9.3000;0.6162;1.0309;
-9.0000;0.6154;1.0333;
-8.7000;0.6178;1.0356;
-8.4000;0.6178;1.0356;
-8.1000;0.6146;1.0193;
-7.8000;0.6162;1.0124;
-7.5000;0.6138;1.0008;
-7.2000;0.6227;1.0263;
-6.9000;0.6162;1.0054;
-6.6000;0.6162;1.0077;
-6.3000;0.6154;1.0077;
-6.0000;0.6170;1.0077;
-5.7000;0.6170;1.0008;
-5.4000;0.6129;0.9845;
-5.1000;0.6162;0.9961;
-4.8000;0.6170;1.0031;
-4.5000;0.6154;0.9961;
-4.2000;0.6146;0.9984;
-3.9000;0.6129;0.9938;
-3.6000;0.6154;0.9938;
-3.3000;0.6162;1.0008;
-3.0000;0.6154;0.9915;
-2.7000;0.6154;1.0031;
-2.4000;0.6195;1.0170;
-2.1000;0.6170;1.0124;
-1.8000;0.6186;1.0170;
-1.5000;0.6121;1.0124;
-1.2000;0.6162;1.0240;
-0.9000;0.6138;1.0263;
-0.6000;0.6105;1.0100;
-0.3000;0.6154;1.0170;
0.0000;0.6154;1.0170;
0.3000;0.6235;1.0193;
0.6000;0.6178;1.0170;
0.9000;0.6178;1.0309;
1.2000;0.6146;1.0425;
1.5000;0.6129;1.0588;
1.8000;0.6146;1.0774;
2.1000;0.6113;1.0913;
2.4000;0.6121;1.1029;
2.7000;0.6146;1.1168;
3.0000;0.6129;1.1215;
3.3000;0.6154;1.1354;
3.6000;0.6129;1.1308;
3.9000;0.6129;1.1401;
4.2000;0.6129;1.1401;
4.5000;0.6138;1.1401;
4.8000;0.6146;1.1424;
5.1000;0.6113;1.1331;
5.4000;0.6170;1.1517;
5.7000;0.6154;1.1563;
6.0000;0.6146;1.1610;
6.3000;0.6154;1.1610;
6.6000;0.6129;1.1517;
6.9000;0.6146;1.1540;
7.2000;0.6162;1.1494;
7.5000;0.6146;1.1470;
7.8000;0.6138;1.1447;
8.1000;0.6154;1.1447;
8.4000;0.6162;1.1494;
8.7000;0.6146;1.1470;
9.0000;0.6154;1.1494;
9.3000;0.6154;1.1494;
9.6000;0.6186;1.1703;
9.9000;0.6203;1.1795;
10.2000;0.6154;1.1540;
10.5000;0.6219;1.1610;
10.8000;0.6146;1.1494;
11.1000;0.6162;1.1540;
11.4000;0.6129;1.1540;
11.7000;0.6138;1.1586;
12.0000;0.6162;1.1610;
12.3000;0.6162;1.1656;
12.6000;0.6154;1.1656;
12.9000;0.6162;1.1703;
13.2000;0.6154;1.1679;
13.5000;0.6170;1.1679;
13.8000;0.6162;1.1540;
14.1000;0.6203;1.1563;
14.4000;0.6170;1.1447;
14.7000;0.6154;1.1331;
15.0000;0.6170;1.1494;
15.3000;0.6178;1.1517;
15.6000;0.6178;1.1540;
15.9000;0.6186;1.1494;
16.2000;0.6162;1.1447;
16.5000;0.6170;1.1610;
16.8000;0.6219;1.1842;
17.1000;0.6162;1.1795;
17.4000;0.6203;1.1865;
17.7000;0.6186;1.1795;
18.0000;0.6097;1.1540;
18.3000;0.6170;1.1772;
18.6000;0.6129;1.1656;
18.9000;0.6154;1.1703;
19.2000;0.6178;1.1865;
19.5000;0.6162;1.1819;
19.8000;0.6178;1.1888;
20.1000;0.6146;1.1703;
20.4000;0.6162;1.1726;
20.7000;0.6195;1.1795;
21.0000;0.6260;1.2004;
21.3000;0.6195;1.1819;
21.6000;0.6178;1.1819;
21.9000;0.6178;1.1703;
22.2000;0.6195;1.1749;
22.5000;0.6203;1.1772;
22.8000;0.6178;1.1703;
23.1000;0.6178;1.1865;
23.4000;0.6178;1.1912;
23.7000;0.6203;1.1888;
24.0000;0.6195;1.1842;
24.3000;0.6195;1.1865;
24.6000;0.6178;1.1819;
24.9000;0.6186;1.1819;
25.2000;0.6195;1.1842;
25.5000;0.6195;1.1819;
25.8000;0.6195;1.1772;
26.1000;0.6186;1.1726;
26.4000;0.6186;1.1772;
26.7000;0.6195;1.1819;
27.0000;0.6195;1.1819;
27.3000;0.6243;1.2004;
27.6000;0.6195;1.1795;
27.9000;0.6186;1.1772;
28.2000;0.6211;1.1795;
28.5000;0.6219;1.1795;
28.8000;0.6186;1.1726;
29.1000;0.6186;1.1726;
29.4000;0.6211;1.1749;
29.7000;0.6211;1.1703;
30.0000;0.6227;1.1679;
30.3000;0.6146;1.1517;
30.6000;0.6219;1.1633;
30.9000;0.6129;1.1401;
31.2000;0.6178;1.1517;
31.5000;0.6219;1.1586;
31.8000;0.6186;1.1633;
32.1000;0.6186;1.1586;
32.4000;0.6203;1.1656;
32.7000;0.6203;1.1772;
33.0000;0.6105;1.1586;
33.3000;0.6203;1.1819;
33.6000;0.6219;1.1772;
33.9000;0.6146;1.1610;
34.2000;0.6219;1.1749;
34.5000;0.6195;1.1795;
34.8000;0.6195;1.1819;
35.1000;0.6203;1.1888;
35.4000;0.6203;1.1865;
35.7000;0.6178;1.1772;
36.0000;0.6186;1.1656;
36.3000;0.6195;1.1749;
36.6000;0.6186;1.1795;
36.9000;0.6195;1.1842;
37.2000;0.6186;1.1888;
37.5000;0.6211;1.1842;
37.8000;0.6195;1.1912;
38.1000;0.6154;1.1795;
38.4000;0.6178;1.1772;
38.7000;0.6195;1.1679;
39.0000;0.6195;1.1633;
39.3000;0.6219;1.1656;
39.6000;0.6203;1.1679;
39.9000;0.6195;1.1703;
40.2000;0.6260;1.1912;
40.5000;0.6219;1.1912;
40.8000;0.6211;1.1865;
41.1000;0.6211;1.1842;
41.4000;0.6211;1.1912;
41.7000;0.6227;1.1888;
42.0000;0.6040;1.1447;
42.3000;0.6089;1.1517;
42.6000;0.6292;1.1981;
42.9000;0.6268;1.1935;
43.2000;0.6227;1.1819;
43.5000;0.6211;1.1749;
43.8000;0.6219;1.1819;
44.1000;0.6284;1.2004;
44.4000;0.6227;1.1842;
44.7000;0.6235;1.1888;
45.0000;0.6227;1.1865;
45.3000;0.6203;1.1842;
45.6000;0.6203;1.1772;
45.9000;0.6211;1.1749;
46.2000;0.6178;1.1772;
46.5000;0.6235;1.1958;
46.8000;0.6211;1.1958;
47.1000;0.6300;1.2097;
47.4000;0.6219;1.1842;
47.7000;0.6195;1.1726;
48.0000;0.6178;1.1772;
48.3000;0.6072;1.1540;
48.6000;0.6195;1.1842;
48.9000;0.6211;1.1865;
49.2000;0.6195;1.1819;
49.5000;0.6211;1.1819;
49.8000;0.6195;1.1703;
50.1000;0.6195;1.1726;
50.4000;0.6211;1.1795;
50.7000;0.6195;1.1749;
51.0000;0.6203;1.1842;
51.3000;0.6219;1.1888;
51.6000;0.6203;1.1865;
51.9000;0.6195;1.1888;
52.2000;0.6219;1.1819;
52.5000;0.6203;1.1772;
52.8000;0.6211;1.1842;
53.1000;0.6243;1.1888;
53.4000;0.6227;1.1842;
53.7000;0.6211;1.1772;
54.0000;0.6195;1.1679;
54.3000;0.6276;1.1795;
54.6000;0.6235;1.1749;
54.9000;0.6227;1.1865;
55.2000;0.6227;1.1819;
55.5000;0.6129;1.1633;
55.8000;0.6211;1.1819;
56.1000;0.6235;1.1842;
56.4000;0.6186;1.1656;
56.7000;0.6219;1.1656;
57.0000;0.6203;1.1679;
57.3000;0.6211;1.1749;
57.6000;0.6211;1.1772;
57.9000;0.6203;1.1679;
58.2000;0.6219;1.1679;
58.5000;0.6292;1.1888;
58.8000;0.6186;1.1540;
59.1000;0.6227;1.1633;
59.4000;0.6203;1.1610;
59.7000;0.6235;1.1610;
60.0000;0.6243;1.1633;
60.3000;0.6317;1.1726;
60.6000;0.6178;1.1424;
60.9000;0.6268;1.1633;
61.2000;0.6227;1.1610;
61.5000;0.6227;1.1656;
61.8000;0.6186;1.1679;
62.1000;0.6211;1.1772;
62.4000;0.6219;1.1772;
62.7000;0.6211;1.1726;
63.0000;0.6235;1.1842;
63.3000;0.6203;1.1726;
63.6000;0.6186;1.1656;
63.9000;0.6268;1.1795;
64.2000;0.6243;1.1749;
64.5000;0.6235;1.1656;
64.8000;0.6243;1.1656;
65.1000;0.6252;1.1633;
65.4000;0.6243;1.1633;
65.7000;0.6235;1.1610;
66.0000;0.6268;1.1749;
66.3000;0.6178;1.1540;
66.6000;0.6219;1.1586;
66.9000;0.6284;1.1633;
67.2000;0.6292;1.1795;
67.5000;0.6227;1.1610;
67.8000;0.6219;1.1610;
68.1000;0.6325;1.1749;
68.4000;0.6227;1.1610;
68.7000;0.6219;1.1633;
69.0000;0.6219;1.1610;
69.3000;0.6219;1.1633;
69.6000;0.6235;1.1610;
69.9000;0.6235;1.1610;
70.2000;0.6203;1.1633;
70.5000;0.6211;1.1679;
70.8000;0.6219;1.1679;
71.1000;0.6203;1.1633;
71.4000;0.6235;1.1749;
71.7000;0.6276;1.1772;
72.0000;0.6211;1.1563;
72.3000;0.6235;1.1563;
72.6000;0.6211;1.1563;
72.9000;0.6235;1.1610;
73.2000;0.6235;1.1586;
73.5000;0.6227;1.1633;
73.8000;0.6235;1.1679;
74.1000;0.6203;1.1633;
74.4000;0.6260;1.1772;
74.7000;0.6227;1.1819;
75.0000;0.6252;1.1912;
75.3000;0.6284;1.1958;
75.6000;0.6211;1.1795;
75.9000;0.6195;1.1749;
76.2000;0.6227;1.1819;
76.5000;0.6252;1.2004;
76.8000;0.6186;1.1888;
77.1000;0.6227;1.1958;
77.4000;0.6219;1.1958;
77.7000;0.6211;1.1912;
78.0000;0.6203;1.1795;
78.3000;0.6235;1.1772;
78.6000;0.6227;1.1726;
78.9000;0.6260;1.1842;
79.2000;0.6235;1.1726;
79.5000;0.6195;1.1679;
79.8000;0.6170;1.1656;
80.1000;0.6186;1.1540;
80.4000;0.6219;1.1633;
80.7000;0.6178;1.1703;
81.0000;0.6292;1.2004;
81.3000;0.6211;1.1795;
81.6000;0.6227;1.1842;
81.9000;0.6170;1.1726;
82.2000;0.6203;1.1912;
82.5000;0.6203;1.1912;
82.8000;0.6178;1.1865;
83.1000;0.6211;1.1912;
83.4000;0.6162;1.1772;
83.7000;0.6227;1.1935;
84.0000;0.6235;1.1865;
84.3000;0.6219;1.1842;
84.6000;0.6195;1.1795;
84.9000;0.6203;1.1749;
85.2000;0.6235;1.1888;
85.5000;0.6219;1.1842;
85.8000;0.6178;1.1772;
86.1000;0.6227;1.1935;
86.4000;0.6186;1.1819;
86.7000;0.6260;1.1842;
87.0000;0.6235;1.1772;
87.3000;0.6211;1.1703;
87.6000;0.6235;1.1772;
87.9000;0.6292;1.1935;
88.2000;0.6235;1.1888;
88.5000;0.6235;1.1935;
88.8000;0.6138;1.1679;
89.1000;0.6227;1.1981;
89.4000;0.6235;1.1981;
89.7000;0.6243;1.1888;
90.0000;0.6227;1.1935;
90.3000;0.6227;1.1842;
90.6000;0.6276;1.1958;
90.9000;0.6211;1.1865;
91.2000;0.6219;1.1888;
91.5000;0.6219;1.1842;
91.8000;0.6219;1.1865;
92.1000;0.6211;1.1842;
92.4000;0.6227;1.1865;
92.7000;0.6227;1.1865;
93.0000;0.6227;1.1912;
93.3000;0.6219;1.1888;
93.6000;0.6219;1.1912;
93.9000;0.6227;1.1912;
94.2000;0.6219;1.1842;
94.5000;0.6195;1.1819;
94.8000;0.6219;1.1912;
95.1000;0.6227;1.1981;
95.4000;0.6211;1.1888;
95.7000;0.6203;1.1795;
96.0000;0.6211;1.1749;
96.3000;0.6235;1.1795;
96.6000;0.6211;1.1819;
96.9000;0.6211;1.1842;
97.2000;0.6211;1.1842;
97.5000;0.6219;1.1819;
97.8000;0.6227;1.1795;
98.1000;0.6203;1.1772;
98.4000;0.6203;1.1772;
98.7000;0.6219;1.1819;
99.0000;0.6243;1.1819;
99.3000;0.6227;1.1749;
99.6000;0.6235;1.1772;
99.9000;0.6284;1.1865;
100.2000;0.6219;1.1679;
100.5000;0.6227;1.1749;
100.8000;0.6268;1.1819;
101.1000;0.6219;1.1633;
101.4000;0.6276;1.1772;
101.7000;0.6219;1.1726;
102.0000;0.6219;1.1819;
102.3000;0.6195;1.1819;
102.6000;0.6227;1.1819;
102.9000;0.6195;1.1749;
103.2000;0.6211;1.1772;
103.5000;0.6211;1.1819;
103.8000;0.6203;1.1726;
104.1000;0.6219;1.1749;
104.4000;0.6235;1.1795;
104.7000;0.6227;1.1772;
105.0000;0.6203;1.1679;
105.3000;0.6195;1.1703;
105.6000;0.6227;1.1888;
105.9000;0.6203;1.1795;
106.2000;0.6203;1.1749;
106.5000;0.6211;1.1795;
106.8000;0.6211;1.1703;
107.1000;0.6219;1.1703;
107.4000;0.6146;1.1586;
107.7000;0.6203;1.1819;
108.0000;0.6203;1.1795;
108.3000;0.6211;1.1795;
108.6000;0.6178;1.1679;
108.9000;0.6203;1.1819;
109.2000;0.6211;1.1912;
109.5000;0.6211;1.1981;
109.8000;0.6162;1.1842;
110.1000;0.6235;1.2004;
110.4000;0.6186;1.1912;
110.7000;0.6211;1.1935;
111.0000;0.6211;1.1958;
111.3000;0.6186;1.1842;
111.6000;0.6195;1.1726;
111.9000;0.6227;1.1749;
112.2000;0.6211;1.1703;
112.5000;0.6243;1.1772;
112.8000;0.6097;1.1494;
113.1000;0.6235;1.1842;
113.4000;0.6211;1.1842;
113.7000;0.6252;1.2004;
114.0000;0.6170;1.1819;
114.3000;0.6227;1.1935;
114.6000;0.6178;1.1795;
114.9000;0.6219;1.1935;
115.2000;0.6219;1.1935;
115.5000;0.6203;1.1981;
115.8000;0.6203;1.1981;
116.1000;0.6195;1.1842;
116.4000;0.6211;1.1795;
116.7000;0.6211;1.1726;
117.0000;0.6203;1.1679;
117.3000;0.6195;1.1703;
117.6000;0.6227;1.1703;
117.9000;0.6227;1.1610;
118.2000;0.6227;1.1563;
118.5000;0.6195;1.1563;
118.8000;0.6235;1.1772;
119.1000;0.6178;1.1610;
119.4000;0.6227;1.1749;
119.7000;0.6211;1.1772;
120.0000;0.6203;1.1819;
120.3000;0.6178;1.1749;
120.6000;0.6219;1.1888;
120.9000;0.6235;1.1912;
121.2000;0.6219;1.1912;
121.5000;0.6219;1.1795;
121.8000;0.6195;1.1726;
122.1000;0.6219;1.1749;
122.4000;0.6235;1.1842;
122.7000;0.6219;1.1749;
123.0000;0.6186;1.1679;
123.3000;0.6227;1.1819;
123.6000;0.6219;1.1819;
123.9000;0.6300;1.1935;
124.2000;0.6235;1.1865;
124.5000;0.6211;1.1865;
124.8000;0.6243;1.2028;
125.1000;0.6235;1.1912;
125.4000;0.6203;1.1795;
125.7000;0.6162;1.1749;
126.0000;0.6227;1.1842;
126.3000;0.6211;1.1819;
126.6000;0.6219;1.1703;
126.9000;0.6317;1.1865;
127.2000;0.6227;1.1726;
127.5000;0.6227;1.1726;
127.8000;0.6211;1.1703;
128.1000;0.6211;1.1795;
128.4000;0.6211;1.1842;
128.7000;0.6203;1.1819;
129.0000;0.6211;1.1842;
129.3000;0.6195;1.1842;
129.6000;0.6203;1.1888;
129.9000;0.6195;1.1888;
130.2000;0.6211;1.1958;
130.5000;0.6211;1.1981;
130.8000;0.6203;1.2028;
131.1000;0.6203;1.1958;
131.4000;0.6219;1.1935;
131.7000;0.6227;1.1958;
132.0000;0.6195;1.1935;
132.3000;0.6227;1.1912;
132.6000;0.6154;1.1819;
132.9000;0.6203;1.1912;
133.2000;0.6211;1.1981;
133.5000;0.6219;1.1981;
133.8000;0.6219;1.1912;
134.1000;0.6195;1.1888;
134.4000;0.6219;1.1912;
134.7000;0.6211;1.1912;
135.0000;0.6203;1.1865;
135.3000;0.6227;1.2004;
135.6000;0.6227;1.2051;
135.9000;0.6219;1.2051;
136.2000;0.6227;1.2190;
136.5000;0.6219;1.2074;
136.8000;0.6203;1.2144;
137.1000;0.6211;1.2190;
137.4000;0.6235;1.2260;
137.7000;0.6235;1.2283;
138.0000;0.6170;1.2097;
138.3000;0.6203;1.2144;
138.6000;0.6268;1.2190;
138.9000;0.6219;1.2051;
139.2000;0.6219;1.2028;
139.5000;0.6195;1.1958;
139.8000;0.6203;1.1935;
140.1000;0.6170;1.1865;
140.4000;0.6203;1.1865;
140.7000;0.6195;1.1842;
141.0000;0.6349;1.2237;
141.3000;0.6227;1.2004;
141.6000;0.6219;1.2004;
141.9000;0.6211;1.1958;
142.2000;0.6195;1.1865;
142.5000;0.6211;1.1912;
142.8000;0.6211;1.1865;
143.1000;0.6211;1.1888;
143.4000;0.6195;1.1842;
143.7000;0.6211;1.1865;
144.0000;0.6243;1.1935;
144.3000;0.6211;1.1888;
144.6000;0.6211;1.1888;
144.9000;0.6211;1.1981;
145.2000;0.6243;1.2051;
145.5000;0.6219;1.2167;
145.8000;0.6219;1.2144;
146.1000;0.6235;1.2213;
146.4000;0.6219;1.2074;
146.7000;0.6211;1.2097;
147.0000;0.6203;1.2074;
147.3000;0.6195;1.1981;
147.6000;0.6227;1.1958;
147.9000;0.6203;1.1981;
148.2000;0.6195;1.2028;
148.5000;0.6211;1.2074;
148.8000;0.6195;1.2004;
149.1000;0.6219;1.2051;
149.4000;0.6211;1.1958;
149.7000;0.6227;1.1935;
150.0000;0.6211;1.2004;
150.3000;0.6227;1.2097;
150.6000;0.6203;1.2004;
150.9000;0.6203;1.2004;
151.2000;0.6211;1.1981;
151.5000;0.6235;1.1981;
151.8000;0.6219;1.2004;
152.1000;0.6146;1.1819;
152.4000;0.6227;1.2028;
152.7000;0.6219;1.1981;
153.0000;0.6227;1.2051;
153.3000;0.6195;1.1958;
153.6000;0.6211;1.1981;
153.9000;0.6211;1.1958;
154.2000;0.6203;1.1842;
154.5000;0.6186;1.1888;
154.8000;0.6195;1.1912;
155.1000;0.6211;1.2004;
155.4000;0.6276;1.2120;
155.7000;0.6178;1.1935;
156.0000;0.6211;1.2004;
156.3000;0.6203;1.2028;
156.6000;0.6227;1.2120;
156.9000;0.6211;1.2074;
157.2000;0.6170;1.1981;
157.5000;0.6162;1.1958;
157.8000;0.6227;1.2097;
158.1000;0.6211;1.2004;
158.4000;0.6195;1.1842;
158.7000;0.6203;1.1772;
159.0000;0.6219;1.1679;
159.3000;0.6260;1.1772;
159.6000;0.6235;1.1656;
159.9000;0.6195;1.1517;
160.2000;0.6186;1.1494;
160.5000;0.6227;1.1633;
160.8000;0.6235;1.1726;
161.1000;0.6162;1.1679;
161.4000;0.6235;1.1842;
161.7000;0.6227;1.1819;
162.0000;0.6227;1.1795;
162.3000;0.6227;1.1726;
162.6000;0.6219;1.1703;
162.9000;0.6219;1.1819;
163.2000;0.6227;1.1865;
163.5000;0.6252;1.1981;
163.8000;0.6186;1.1842;
164.1000;0.6154;1.1842;
164.4000;0.6203;1.2051;
164.7000;0.6186;1.2004;
165.0000;0.6203;1.2004;
165.3000;0.6252;1.2097;
165.6000;0.6227;1.2028;
165.9000;0.6219;1.2028;
166.2000;0.6195;1.2004;
166.5000;0.6211;1.2028;
166.8000;0.6203;1.2074;
167.1000;0.6211;1.2097;
167.4000;0.6203;1.2097;
167.7000;0.6203;1.1981;
168.0000;0.6203;1.1935;
168.3000;0.6195;1.1958;
168.6000;0.6195;1.1958;
168.9000;0.6227;1.2004;
169.2000;0.6203;1.1865;
169.5000;0.6186;1.1888;
169.8000;0.6195;1.2028;
170.1000;0.6203;1.2004;
170.4000;0.6211;1.2120;
170.7000;0.6219;1.2144;
171.0000;0.6211;1.2097;
171.3000;0.6146;1.1981;
171.6000;0.6203;1.2190;
171.9000;0.6195;1.2167;
172.2000;0.6235;1.2283;
172.5000;0.6219;1.2190;
172.8000;0.6211;1.2237;
173.1000;0.6203;1.2237;
173.4000;0.6219;1.2260;
173.7000;0.6195;1.2213;
174.0000;0.6195;1.2190;
174.3000;0.6178;1.2120;
174.6000;0.6203;1.2144;
174.9000;0.6195;1.2213;
175.2000;0.6195;1.2260;
175.5000;0.6235;1.2376;
175.8000;0.6227;1.2283;
176.1000;0.6203;1.2260;
176.4000;0.6162;1.2144;
176.7000;0.6203;1.2144;
177.0000;0.6203;1.2260;
177.3000;0.6235;1.2329;
177.6000;0.6211;1.2306;
177.9000;0.6178;1.2144;
178.2000;0.6260;1.2283;
178.5000;0.6227;1.2260;
178.8000;0.6203;1.2144;
179.1000;0.6195;1.2097;
179.4000;0.6252;1.2213;
179.7000;0.6203;1.2167;
180.0000;0.6195;1.2167;
180.3000;0.6186;1.2120;
180.6000;0.6227;1.2120;
180.9000;0.6203;1.2028;
181.2000;0.6203;1.2097;
181.5000;0.6186;1.2097;
181.8000;0.6219;1.2190;
182.1000;0.6219;1.2120;
182.4000;0.6178;1.1958;
182.7000;0.6227;1.2144;
183.0000;0.6227;1.1981;
183.3000;0.6235;1.2028;
183.6000;0.6211;1.1958;
183.9000;0.6211;1.1981;
184.2000;0.6227;1.2051;
184.5000;0.6203;1.2097;
184.8000;0.6203;1.2120;
185.1000;0.6178;1.1958;
185.4000;0.6203;1.1958;
185.7000;0.6211;1.2028;
186.0000;0.6211;1.2028;
186.3000;0.6235;1.2051;
186.6000;0.6203;1.2004;
186.9000;0.6211;1.2028;
187.2000;0.6195;1.2004;
187.5000;0.6154;1.1842;
187.8000;0.6186;1.1888;
188.1000;0.6162;1.1865;
188.4000;0.6195;1.1958;
188.7000;0.6219;1.2028;
189.0000;0.6186;1.2074;
189.3000;0.6203;1.2074;
189.6000;0.6211;1.2167;
189.9000;0.6219;1.2167;
190.2000;0.6243;1.2237;
190.5000;0.6219;1.2074;
190.8000;0.6211;1.2074;
191.1000;0.6211;1.2074;
191.4000;0.6260;1.2190;
191.7000;0.6203;1.2074;
192.0000;0.6186;1.2051;
192.3000;0.6203;1.2074;
192.6000;0.6211;1.2051;
192.9000;0.6211;1.2051;
193.2000;0.6227;1.2097;
193.5000;0.6235;1.2167;
193.8000;0.6203;1.2190;
194.1000;0.6227;1.2260;
194.4000;0.6211;1.2213;
194.7000;0.6211;1.2167;
195.0000;0.6235;1.2167;
195.3000;0.6203;1.2097;
195.6000;0.6195;1.2028;
195.9000;0.6203;1.2074;
196.2000;0.6211;1.2190;
196.5000;0.6203;1.2144;
196.8000;0.6211;1.2190;
197.1000;0.6186;1.2120;
197.4000;0.6211;1.2260;
197.7000;0.6203;1.2260;
198.0000;0.6203;1.2144;
198.3000;0.6235;1.2167;
198.6000;0.6211;1.2074;
198.9000;0.6211;1.1981;
199.2000;0.6203;1.1958;
199.5000;0.6203;1.2004;
199.8000;0.6186;1.1981;
200.1000;0.6203;1.2120;
200.4000;0.6178;1.2120;
200.7000;0.6211;1.2097;
201.0000;0.6211;1.2074;
201.3000;0.6195;1.2120;
201.6000;0.6243;1.2167;
201.9000;0.6219;1.2074;
202.2000;0.6203;1.2004;
202.5000;0.6203;1.2004;
202.8000;0.6243;1.2120;
203.1000;0.6227;1.1981;
203.4000;0.6211;1.1912;
203.7000;0.6170;1.1842;
204.0000;0.6260;1.2144;
204.3000;0.6211;1.2074;
204.6000;0.6284;1.2167;
204.9000;0.6186;1.2074;
205.2000;0.6227;1.2097;
205.5000;0.6219;1.2190;
205.8000;0.6252;1.2260;
206.1000;0.6195;1.2167;
206.4000;0.6227;1.2144;
206.7000;0.6186;1.1935;
207.0000;0.6186;1.1865;
207.3000;0.6211;1.1912;
207.6000;0.6211;1.1935;
207.9000;0.6219;1.1958;
208.2000;0.6219;1.1958;
208.5000;0.6203;1.2051;
208.8000;0.6203;1.2144;
209.1000;0.6219;1.2167;
209.4000;0.6211;1.2074;
209.7000;0.6170;1.1981;
210.0000;0.6178;1.1958;
210.3000;0.6195;1.2097;
210.6000;0.6195;1.2028;
210.9000;0.6178;1.1935;
211.2000;0.6186;1.2028;
211.5000;0.6195;1.2144;
211.8000;0.6211;1.2190;
212.1000;0.6186;1.2190;
212.4000;0.6211;1.2329;
212.7000;0.6227;1.2306;
213.0000;0.6203;1.2283;
213.3000;0.6203;1.2306;
213.6000;0.6178;1.2237;
213.9000;0.6211;1.2237;
214.2000;0.6178;1.2190;
214.5000;0.6203;1.2167;
214.8000;0.6178;1.1958;
215.1000;0.6203;1.1935;
215.4000;0.6211;1.2051;
215.7000;0.6203;1.2190;
216.0000;0.6203;1.2237;
216.3000;0.6195;1.2190;
216.6000;0.6211;1.2213;
216.9000;0.6211;1.2260;
217.2000;0.6211;1.2306;
217.5000;0.6203;1.2237;
217.8000;0.6211;1.2237;
218.1000;0.6203;1.2213;
218.4000;0.6252;1.2237;
218.7000;0.6211;1.2190;
219.0000;0.6252;1.2283;
219.3000;0.6211;1.2237;
219.6000;0.6195;1.2190;
219.9000;0.6195;1.2213;
220.2000;0.6195;1.2074;
220.5000;0.6219;1.2144;
220.8000;0.6195;1.2051;
221.1000;0.6203;1.2074;
221.4000;0.6203;1.2028;
221.7000;0.6170;1.1935;
222.0000;0.6186;1.1912;
222.3000;0.6195;1.1865;
222.6000;0.6203;1.1888;
222.9000;0.6268;1.2051;
223.2000;0.6170;1.1842;
223.5000;0.6195;1.1865;
223.8000;0.6203;1.1842;
224.1000;0.6203;1.1865;
224.4000;0.6252;1.2028;
224.7000;0.6186;1.1958;
225.0000;0.6195;1.2028;
225.3000;0.6186;1.1958;
225.6000;0.6195;1.1958;
225.9000;0.6203;1.1888;
226.2000;0.6186;1.1865;
226.5000;0.6203;1.1912;
226.8000;0.6195;1.1981;
227.1000;0.6211;1.2074;
227.4000;0.6203;1.2097;
227.7000;0.6203;1.2120;
228.0000;0.6195;1.2028;
228.3000;0.6195;1.2004;
228.6000;0.6235;1.2028;
228.9000;0.6195;1.1958;
229.2000;0.6195;1.1958;
229.5000;0.6203;1.2004;
229.8000;0.6154;1.2004;
230.1000;0.6203;1.2144;
230.4000;0.6170;1.2213;
230.7000;0.6186;1.2329;
231.0000;0.6195;1.2213;
231.3000;0.6186;1.2074;
231.6000;0.6170;1.1981;
231.9000;0.6211;1.2167;
232.2000;0.6195;1.2120;
232.5000;0.6252;1.2283;
232.8000;0.6211;1.2213;
233.1000;0.6203;1.2004;
233.4000;0.6203;1.2074;
233.7000;0.6243;1.2144;
234.0000;0.6309;1.2237;
234.3000;0.6195;1.1981;
234.6000;0.6203;1.2051;
234.9000;0.6186;1.2004;
235.2000;0.6203;1.1912;
235.5000;0.6333;1.2237;
235.8000;0.6203;1.1981;
236.1000;0.6195;1.2004;
236.4000;0.6203;1.2074;
236.7000;0.6186;1.2028;
237.0000;0.6211;1.2051;
237.3000;0.6195;1.1935;
237.6000;0.6195;1.1912;
237.9000;0.6186;1.1958;
238.2000;0.6211;1.2120;
238.5000;0.6186;1.2144;
238.8000;0.6195;1.2283;
239.1000;0.6203;1.2329;
239.4000;0.6203;1.2283;
239.7000;0.6186;1.2190;
240.0000;0.6211;1.2167;
240.3000;0.6178;1.2004;
240.6000;0.6211;1.1981;
240.9000;0.6195;1.1935;
241.2000;0.6211;1.2097;
241.5000;0.6186;1.2167;
241.8000;0.6178;1.2190;
242.1000;0.6195;1.2237;
242.4000;0.6178;1.2167;
242.7000;0.6195;1.2144;
243.0000;0.6211;1.2167;
243.3000;0.6235;1.2190;
243.6000;0.6243;1.2237;
243.9000;0.6170;1.2051;
244.2000;0.6203;1.2051;
244.5000;0.6186;1.1981;
244.8000;0.6276;1.2237;
245.1000;0.6203;1.2051;
245.4000;0.6195;1.2120;
245.7000;0.6211;1.2167;
246.0000;0.6105;1.2028;
246.3000;0.6186;1.2260;
246.6000;0.6195;1.2283;
246.9000;0.6195;1.2167;
247.2000;0.6186;1.2237;
247.5000;0.6203;1.2283;
247.8000;0.6203;1.2329;
248.1000;0.6186;1.2329;
248.4000;0.6284;1.2538;
248.7000;0.6178;1.2283;
249.0000;0.6211;1.2399;
249.3000;0.6203;1.2399;
249.6000;0.6186;1.2353;
249.9000;0.6203;1.2283;
250.2000;0.6195;1.2144;
250.5000;0.6186;1.2167;
250.8000;0.6195;1.2097;
251.1000;0.6186;1.2097;
251.4000;0.6252;1.2329;
251.7000;0.6195;1.2120;
252.0000;0.6195;1.2097;
252.3000;0.6186;1.2074;
252.6000;0.6195;1.2283;
252.9000;0.6203;1.2283;
253.2000;0.6211;1.2260;
253.5000;0.6195;1.2260;
253.8000;0.6211;1.2213;
254.1000;0.6203;1.2237;
254.4000;0.6203;1.2213;
254.7000;0.6203;1.2190;
255.0000;0.6219;1.2213;
255.3000;0.6219;1.2167;
255.6000;0.6162;1.2051;
255.9000;0.6186;1.2167;
256.2000;0.6211;1.2213;
256.5000;0.6211;1.2167;
256.8000;0.6186;1.2074;
257.1000;0.6170;1.2051;
257.4000;0.6195;1.2051;
257.7000;0.6195;1.2120;
258.0000;0.6178;1.2167;
258.3000;0.6195;1.2097;
258.6000;0.6186;1.2097;
258.9000;0.6235;1.2213;
259.2000;0.6195;1.2144;
259.5000;0.6186;1.2144;
259.8000;0.6219;1.2260;
260.1000;0.6211;1.2260;
260.4000;0.6203;1.2306;
260.7000;0.6203;1.2190;
261.0000;0.6186;1.2237;
261.3000;0.6195;1.2213;
261.6000;0.6203;1.2190;
261.9000;0.6195;1.2144;
262.2000;0.6186;1.2097;
262.5000;0.6195;1.2097;
262.8000;0.6211;1.2167;
263.1000;0.6195;1.2097;
263.4000;0.6195;1.2190;
263.7000;0.6195;1.2144;
264.0000;0.6178;1.2190;
264.3000;0.6154;1.2051;
264.6000;0.6195;1.2074;
264.9000;0.6138;1.1935;
265.2000;0.6195;1.2097;
265.5000;0.6195;1.2120;
265.8000;0.6186;1.2190;
266.1000;0.6178;1.2190;
266.4000;0.6203;1.2144;
266.7000;0.6195;1.2028;
267.0000;0.6235;1.2260;
267.3000;0.6195;1.2260;
267.6000;0.6211;1.2353;
267.9000;0.6203;1.2353;
268.2000;0.6162;1.2260;
268.5000;0.6186;1.2283;
268.8000;0.6195;1.2399;
269.1000;0.6154;1.2329;
269.4000;0.6203;1.2376;
269.7000;0.6186;1.2213;
270.0000;0.6146;1.2051;
270.3000;0.6072;1.2004;
270.6000;0.6195;1.2237;
270.9000;0.6154;1.2167;
271.2000;0.6219;1.2376;
271.5000;0.6186;1.2329;
271.8000;0.6195;1.2306;
272.1000;0.6186;1.2260;
272.4000;0.6219;1.2306;
272.7000;0.6170;1.2190;
273.0000;0.6219;1.2306;
273.3000;0.6178;1.2190;
273.6000;0.6203;1.2144;
273.9000;0.6186;1.2097;
274.2000;0.6162;1.2004;
274.5000;0.6195;1.2097;
274.8000;0.6211;1.2051;
275.1000;0.6129;1.1842;
275.4000;0.6178;1.1865;
275.7000;0.6146;1.1912;
276.0000;0.6203;1.2074;
276.3000;0.6195;1.2051;
276.6000;0.6195;1.2004;
276.9000;0.6195;1.2004;
277.2000;0.6154;1.1912;
277.5000;0.6203;1.2051;
277.8000;0.6170;1.2004;
278.1000;0.6154;1.1888;
278.4000;0.6195;1.2028;
278.7000;0.6170;1.1958;
279.0000;0.6195;1.2028;
279.3000;0.6211;1.1935;
279.6000;0.6186;1.1958;
279.9000;0.6186;1.1981;
280.2000;0.6284;1.2260;
280.5000;0.6219;1.2144;
280.8000;0.6203;1.2097;
281.1000;0.6162;1.2028;
281.4000;0.6186;1.2120;
281.7000;0.6186;1.2097;
282.0000;0.6211;1.2120;
282.3000;0.6195;1.2051;
282.6000;0.6178;1.1935;
282.9000;0.6203;1.1912;
283.2000;0.6162;1.1865;
283.5000;0.6138;1.1819;
283.8000;0.6203;1.2028;
284.1000;0.6203;1.2051;
284.4000;0.6203;1.2097;
284.7000;0.6211;1.2120;
285.0000;0.6203;1.2074;
285.3000;0.6227;1.2144;
285.6000;0.6203;1.2004;
285.9000;0.6211;1.2074;
286.2000;0.6195;1.2097;
286.5000;0.6186;1.2144;
286.8000;0.6211;1.2237;
287.1000;0.6186;1.2144;
287.4000;0.6178;1.2051;
287.7000;0.6186;1.2074;
288.0000;0.6235;1.2120;
288.3000;0.6227;1.2144;
288.6000;0.6170;1.2097;
288.9000;0.6186;1.2097;
289.2000;0.6195;1.2097;
289.5000;0.6252;1.2213;
289.8000;0.6203;1.2097;
290.1000;0.6211;1.2190;
290.4000;0.6178;1.2074;
290.7000;0.6203;1.2144;
291.0000;0.6186;1.2213;
291.3000;0.6195;1.2097;
291.6000;0.6195;1.2004;
291.9000;0.6121;1.1772;
292.2000;0.6178;1.1819;
292.5000;0.6186;1.1958;
292.8000;0.6186;1.1935;
293.1000;0.6170;1.1888;
293.4000;0.6195;1.2028;
293.7000;0.6178;1.2004;
294.0000;0.6170;1.1935;
294.3000;0.6227;1.1981;
294.6000;0.6203;1.1981;
294.9000;0.6195;1.1958;
295.2000;0.6178;1.2004;
295.5000;0.6186;1.1958;
295.8000;0.6219;1.2028;
296.1000;0.6211;1.2028;
296.4000;0.6121;1.1865;
296.7000;0.6162;1.2004;
297.0000;0.6195;1.2028;
297.3000;0.6170;1.2074;
297.6000;0.6195;1.2097;
297.9000;0.6195;1.2120;
298.2000;0.6121;1.1981;
298.5000;0.6178;1.2167;
298.8000;0.6129;1.1958;
299.1000;0.6178;1.2097;
299.4000;0.6195;1.2097;
299.7000;0.6227;1.2190;
300.0000;0.6186;1.2167;
300.3000;0.6211;1.2144;
300.6000;0.6162;1.2004;
300.9000;0.6186;1.2097;
301.2000;0.6178;1.2120;
301.5000;0.6195;1.2190;
301.8000;0.6072;1.1958;
302.1000;0.6186;1.2237;
302.4000;0.6186;1.2144;
302.7000;0.6203;1.2190;
303.0000;0.6186;1.2097;
303.3000;0.6186;1.1958;
303.6000;0.6203;1.1912;
303.9000;0.6203;1.1865;
304.2000;0.6138;1.1772;
304.5000;0.6227;1.2028;
304.8000;0.6186;1.1842;
305.1000;0.6227;1.1842;
305.4000;0.6178;1.1726;
305.7000;0.6203;1.1819;
306.0000;0.6203;1.1865;
306.3000;0.6211;1.1888;
306.6000;0.6268;1.2097;
306.9000;0.6186;1.1912;
307.2000;0.6178;1.1935;
307.5000;0.6195;1.1958;
307.8000;0.6203;1.2074;
308.1000;0.6186;1.2097;
308.4000;0.6203;1.2074;
308.7000;0.6203;1.2028;
309.0000;0.6178;1.2120;
309.3000;0.6154;1.2097;
309.6000;0.6178;1.2097;
309.9000;0.6186;1.1981;
310.2000;0.6170;1.1935;
310.5000;0.6170;1.2051;
310.8000;0.6178;1.2097;
311.1000;0.6186;1.2120;
311.4000;0.6211;1.2144;
311.7000;0.6186;1.1935;
312.0000;0.6162;1.1888;
312.3000;0.6146;1.1819;
312.6000;0.6203;1.1912;
312.9000;0.6146;1.1795;
313.2000;0.6154;1.1819;
313.5000;0.6284;1.2237;
313.8000;0.6186;1.2004;
314.1000;0.6186;1.2120;
314.4000;0.6113;1.1865;
314.7000;0.6203;1.2028;
315.0000;0.6195;1.2097;
315.3000;0.6195;1.2051;
315.6000;0.6178;1.2097;
315.9000;0.6186;1.2120;
316.2000;0.6170;1.2120;
316.5000;0.6195;1.2120;
316.8000;0.6211;1.2097;
317.1000;0.6211;1.2097;
317.4000;0.6195;1.2028;
317.7000;0.6203;1.2028;
318.0000;0.6195;1.2097;
318.3000;0.6162;1.2074;
318.6000;0.6219;1.2260;
318.9000;0.6178;1.2190;
319.2000;0.6178;1.2213;
319.5000;0.6186;1.2237;
319.8000;0.6186;1.2283;
320.1000;0.6186;1.2376;
320.4000;0.6186;1.2469;
320.7000;0.6170;1.2329;
321.0000;0.6195;1.2329;
321.3000;0.6203;1.2283;
321.6000;0.6292;1.2492;
321.9000;0.6186;1.2329;
322.2000;0.6186;1.2167;
322.5000;0.6186;1.2283;
322.8000;0.6203;1.2283;
323.1000;0.6178;1.2213;
323.4000;0.6203;1.2237;
323.7000;0.6154;1.2074;
324.0000;0.6195;1.2144;
324.3000;0.6211;1.2097;
324.6000;0.6203;1.2074;
324.9000;0.6178;1.2144;
325.2000;0.6195;1.2213;
325.5000;0.6195;1.2260;
325.8000;0.6162;1.2260;
326.1000;0.6178;1.2283;
326.4000;0.6178;1.2260;
326.7000;0.6178;1.2283;
327.0000;0.6203;1.2422;
327.3000;0.6252;1.2562;
327.6000;0.6162;1.2353;
327.9000;0.6170;1.2376;
328.2000;0.6154;1.2446;
328.5000;0.6105;1.2190;
328.8000;0.6178;1.2353;
329.1000;0.6178;1.2237;
329.4000;0.6186;1.2237;
329.7000;0.6178;1.2120;
330.0000;0.6219;1.2237;
330.3000;0.6260;1.2376;
330.6000;0.6178;1.2260;
330.9000;0.6186;1.2260;
331.2000;0.6154;1.2167;
331.5000;0.6186;1.2353;
331.8000;0.6203;1.2376;
332.1000;0.6186;1.2353;
332.4000;0.6186;1.2283;
332.7000;0.6186;1.2353;
333.0000;0.6203;1.2446;
333.3000;0.6219;1.2492;
333.6000;0.6170;1.2283;
333.9000;0.6178;1.2329;
334.2000;0.6211;1.2353;
334.5000;0.6211;1.2538;
334.8000;0.6203;1.2515;
335.1000;0.6195;1.2399;
335.4000;0.6211;1.2353;
335.7000;0.6211;1.2353;
336.0000;0.6195;1.2329;
336.3000;0.6170;1.2283;
336.6000;0.6203;1.2399;
336.9000;0.6129;1.2190;
337.2000;0.6203;1.2329;
337.5000;0.6186;1.2237;
337.8000;0.6195;1.2260;
338.1000;0.6252;1.2399;
338.4000;0.6203;1.2329;
338.7000;0.6186;1.2190;
339.0000;0.6097;1.1912;
339.3000;0.6178;1.2167;
339.6000;0.6170;1.2097;
339.9000;0.6162;1.2120;
340.2000;0.6178;1.2097;
340.5000;0.6170;1.2167;
340.8000;0.6186;1.2260;
341.1000;0.6170;1.2283;
341.4000;0.6195;1.2260;
341.7000;0.6195;1.2213;
342.0000;0.6186;1.2167;
342.3000;0.6203;1.2167;
342.6000;0.6170;1.2190;
342.9000;0.6186;1.2190;
343.2000;0.6186;1.2190;
343.5000;0.6186;1.2167;
343.8000;0.6203;1.2329;
344.1000;0.6235;1.2353;
344.4000;0.6235;1.2376;
344.7000;0.6186;1.2260;
345.0000;0.6170;1.2190;
345.3000;0.6195;1.2283;
345.6000;0.6195;1.2329;
345.9000;0.6195;1.2515;
346.2000;0.6195;1.2422;
346.5000;0.6170;1.2353;
346.8000;0.6178;1.2306;
347.1000;0.6195;1.2283;
347.4000;0.6219;1.2329;
347.7000;0.6186;1.2144;
348.0000;0.6203;1.2144;
348.3000;0.6219;1.2283;
348.6000;0.6195;1.2260;
348.9000;0.6317;1.2608;
349.2000;0.6235;1.2306;
349.5000;0.6219;1.2306;
349.8000;0.6195;1.2190;
350.1000;0.6170;1.2213;
350.4000;0.6219;1.2260;
350.7000;0.6186;1.2260;
351.0000;0.6195;1.2353;
351.3000;0.6121;1.2213;
351.6000;0.6219;1.2399;
351.9000;0.6178;1.2376;
352.2000;0.6195;1.2422;
352.5000;0.6178;1.2399;
352.8000;0.6170;1.2376;
353.1000;0.6186;1.2399;
353.4000;0.6195;1.2329;
353.7000;0.6178;1.2353;
354.0000;0.6186;1.2376;
354.3000;0.6203;1.2399;
354.6000;0.6162;1.2376;
354.9000;0.6186;1.2422;
355.2000;0.6186;1.2446;
355.5000;0.6195;1.2376;
355.8000;0.6203;1.2422;
356.1000;0.6186;1.2422;
356.4000;0.6170;1.2422;
356.7000;0.6195;1.2515;
357.0000;0.6178;1.2446;
357.3000;0.6235;1.2538;
357.6000;0.6195;1.2306;
357.9000;0.6195;1.2306;
358.2000;0.6203;1.2213;
358.5000;0.6186;1.2213;
358.8000;0.6219;1.2422;
359.1000;0.6227;1.2399;
359.4000;0.6186;1.2329;
359.7000;0.6203;1.2353;
360.0000;0.6186;1.2306;
360.3000;0.6178;1.2283;
360.6000;0.6186;1.2213;
360.9000;0.6178;1.2213;
361.2000;0.6186;1.2213;
361.5000;0.6146;1.2167;
361.8000;0.6211;1.2399;
362.1000;0.6178;1.2376;
362.4000;0.6170;1.2492;
362.7000;0.6195;1.2585;
363.0000;0.6178;1.2538;
363.3000;0.6170;1.2515;
363.6000;0.6186;1.2469;
363.9000;0.6162;1.2376;
364.2000;0.6154;1.2283;
364.5000;0.6162;1.2237;
364.8000;0.6170;1.2144;
365.1000;0.6195;1.2144;
365.4000;0.6178;1.1981;
365.7000;0.6186;1.1981;
366.0000;0.6178;1.2004;
366.3000;0.6178;1.2004;
366.6000;0.6170;1.2004;
366.9000;0.6178;1.2051;
367.2000;0.6186;1.2120;
367.5000;0.6162;1.2051;
367.8000;0.6186;1.2028;
368.1000;0.6170;1.1958;
368.4000;0.6203;1.2051;
368.7000;0.6178;1.1958;
369.0000;0.6186;1.2004;
369.3000;0.6195;1.2028;
369.6000;0.6162;1.1865;
369.9000;0.6178;1.1958;
370.2000;0.6195;1.1981;
370.5000;0.6178;1.2097;
370.8000;0.6162;1.2144;
371.1000;0.6178;1.2074;
371.4000;0.6195;1.2144;
371.7000;0.6178;1.2190;
372.0000;0.6178;1.2237;
372.3000;0.6129;1.2120;
372.6000;0.6186;1.2329;
372.9000;0.6186;1.2260;
373.2000;0.6186;1.2167;
373.5000;0.6178;1.2167;
373.8000;0.6178;1.2167;
374.1000;0.6170;1.2097;
374.4000;0.6186;1.2028;
374.7000;0.6178;1.2120;
375.0000;0.6186;1.2028;
375.3000;0.6178;1.2144;
375.6000;0.6162;1.2167;
375.9000;0.6170;1.2237;
376.2000;0.6121;1.2097;
376.5000;0.6146;1.2167;
376.8000;0.6170;1.2237;
377.1000;0.6170;1.2237;
377.4000;0.6178;1.2144;
377.7000;0.6178;1.2167;
378.0000;0.6186;1.2283;
378.3000;0.6178;1.2260;
378.6000;0.6195;1.2260;
378.9000;0.6170;1.2260;
379.2000;0.6162;1.2329;
379.5000;0.6162;1.2190;
379.8000;0.6178;1.2097;
380.1000;0.6170;1.2074;
380.4000;0.6211;1.2144;
380.7000;0.6186;1.1935;
381.0000;0.6195;1.1958;
381.3000;0.6146;1.1981;
381.6000;0.6170;1.2074;
381.9000;0.6203;1.2120;
382.2000;0.6186;1.1888;
382.5000;0.6178;1.1842;
382.8000;0.6186;1.1865;
383.1000;0.6178;1.1772;
383.4000;0.6203;1.1819;
383.7000;0.6178;1.1749;
384.0000;0.6154;1.1795;
384.3000;0.6170;1.1842;
384.6000;0.6154;1.1912;
384.9000;0.6170;1.1935;
385.2000;0.6138;1.1819;
385.5000;0.6186;1.2051;
385.8000;0.6178;1.2004;
386.1000;0.6162;1.1912;
386.4000;0.6203;1.2051;
386.7000;0.6186;1.1981;
387.0000;0.6186;1.1935;
387.3000;0.6170;1.1981;
387.6000;0.6178;1.2051;
387.9000;0.6195;1.2051;
388.2000;0.6121;1.1819;
388.5000;0.6154;1.1912;
388.8000;0.6186;1.1935;
389.1000;0.6178;1.1935;
389.4000;0.6219;1.2028;
389.7000;0.6170;1.1981;
390.0000;0.6162;1.1981;
390.3000;0.6178;1.1981;
390.6000;0.6178;1.1888;
390.9000;0.6178;1.1912;
391.2000;0.6260;1.2144;
391.5000;0.6178;1.1981;
391.8000;0.6195;1.1981;
392.1000;0.6235;1.2190;
392.4000;0.6178;1.2051;
392.7000;0.6300;1.2283;
393.0000;0.6154;1.1981;
393.3000;0.6195;1.2028;
393.6000;0.6170;1.1958;
393.9000;0.6178;1.1958;
394.2000;0.6170;1.2004;
394.5000;0.6186;1.2144;
394.8000;0.6072;1.1958;
395.1000;0.6186;1.2260;
395.4000;0.6146;1.2237;
395.7000;0.6284;1.2515;
396.0000;0.6154;1.2167;
396.3000;0.6195;1.2260;
396.6000;0.6195;1.2260;
396.9000;0.6186;1.2120;
397.2000;0.6227;1.2190;
397.5000;0.6195;1.2028;
397.8000;0.6170;1.1819;
398.1000;0.6219;1.1842;
398.4000;0.6219;1.1865;
398.7000;0.6252;1.2028;
399.0000;0.6170;1.1819;
399.3000;0.6138;1.1703;
399.6000;0.6186;1.1772;
399.9000;0.6186;1.1726;
400.2000;0.6186;1.1726;
400.5000;0.6292;1.1935;
400.8000;0.6178;1.1586;
401.1000;0.6178;1.1656;
401.4000;0.6170;1.1656;
401.7000;0.6178;1.1703;
402.0000;0.6154;1.1703;
402.3000;0.6154;1.1842;
402.6000;0.6186;1.1935;
402.9000;0.6178;1.1842;
403.2000;0.6195;1.1912;
403.5000;0.6170;1.1888;
403.8000;0.6186;1.2051;
404.1000;0.6162;1.2074;
404.4000;0.6178;1.2120;
404.7000;0.6170;1.2120;
405.0000;0.6170;1.2028;
405.3000;0.6121;1.1795;
405.6000;0.6178;1.1912;
405.9000;0.6186;1.2004;
406.2000;0.6154;1.1981;
406.5000;0.6170;1.1981;
406.8000;0.6162;1.1888;
407.1000;0.6211;1.2028;
407.4000;0.6154;1.1935;
407.7000;0.6162;1.1958;
408.0000;0.6146;1.2028;
408.3000;0.6292;1.2399;
408.6000;0.6178;1.2074;
408.9000;0.6178;1.2028;
409.2000;0.6162;1.2051;
409.5000;0.6146;1.1958;
409.8000;0.6121;1.1935;
410.1000;0.6195;1.2144;
410.4000;0.6178;1.2120;
410.7000;0.6170;1.2120;
411.0000;0.6170;1.2144;
411.3000;0.6154;1.2004;
411.6000;0.6162;1.1981;
411.9000;0.6170;1.2051;
412.2000;0.6186;1.2120;
412.5000;0.6105;1.1981;
412.8000;0.6154;1.2097;
413.1000;0.6203;1.2097;
413.4000;0.6219;1.2074;
413.7000;0.6162;1.1935;
414.0000;0.6252;1.2097;
414.3000;0.6170;1.1935;
414.6000;0.6162;1.1865;
414.9000;0.6178;1.1958;
415.2000;0.6186;1.1981;
415.5000;0.6170;1.1935;
415.8000;0.6178;1.1981;
416.1000;0.6186;1.2028;
416.4000;0.6154;1.1888;
416.7000;0.6186;1.2028;
417.0000;0.6162;1.2028;
417.3000;0.6162;1.2074;
417.6000;0.6162;1.2213;
417.9000;0.6129;1.2120;
418.2000;0.6170;1.2283;
418.5000;0.6186;1.2260;
418.8000;0.6138;1.2051;
419.1000;0.6154;1.2004;
419.4000;0.6170;1.2074;
419.7000;0.6260;1.2283;
420.0000;0.6227;1.2237;
420.3000;0.6178;1.2097;
420.6000;0.6219;1.2028;
420.9000;0.6235;1.2167;
421.2000;0.6195;1.2028;
421.5000;0.6162;1.1888;
421.8000;0.6162;1.2028;
422.1000;0.6162;1.2004;
422.4000;0.6146;1.1981;
422.7000;0.6211;1.2167;
423.0000;0.6146;1.2004;
423.3000;0.6105;1.1935;
423.6000;0.6284;1.2399;
423.9000;0.6186;1.2213;
424.2000;0.6162;1.2051;
424.5000;0.6162;1.1981;
424.8000;0.6186;1.1912;
425.1000;0.6170;1.1865;
425.4000;0.6170;1.1935;
425.7000;0.6170;1.1958;
426.0000;0.6170;1.2028;
426.3000;0.6186;1.2074;
426.6000;0.6178;1.2120;
426.9000;0.6170;1.2120;
427.2000;0.6138;1.2074;
427.5000;0.6170;1.2074;
427.8000;0.6162;1.2074;
428.1000;0.6178;1.2120;
428.4000;0.6227;1.2260;
428.7000;0.6162;1.2167;
429.0000;0.6162;1.2144;
429.3000;0.6178;1.2237;
429.6000;0.6170;1.2190;
429.9000;0.6186;1.2144;
430.2000;0.6170;1.2167;
430.5000;0.6162;1.2051;
430.8000;0.6186;1.1981;
431.1000;0.6170;1.1912;
431.4000;0.6178;1.1912;
431.7000;0.6178;1.1981;
432.0000;0.6162;1.1888;
432.3000;0.6186;1.2028;
432.6000;0.6195;1.2004;
432.9000;0.6195;1.2074;
433.2000;0.6129;1.2028;
433.5000;0.6138;1.1981;
433.8000;0.6170;1.2097;
434.1000;0.6162;1.2097;
434.4000;0.6170;1.2120;
434.7000;0.6186;1.2190;
435.0000;0.6203;1.2167;
435.3000;0.6170;1.2167;
435.6000;0.6178;1.2097;
435.9000;0.6170;1.2028;
436.2000;0.6170;1.1981;
436.5000;0.6195;1.2004;
436.8000;0.6178;1.1981;
437.1000;0.6170;1.1958;
437.4000;0.6154;1.1912;
437.7000;0.6170;1.1935;
438.0000;0.6146;1.1819;
438.3000;0.6170;1.1935;
438.6000;0.6162;1.1912;
438.9000;0.6170;1.1958;
439.2000;0.6186;1.1958;
439.5000;0.6162;1.1981;
439.8000;0.6178;1.2074;
440.1000;0.6186;1.2051;
440.4000;0.6170;1.1888;
440.7000;0.6170;1.1865;
441.0000;0.6203;1.1865;
441.3000;0.6203;1.1842;
441.6000;0.6170;1.1819;
441.9000;0.6170;1.1772;
442.2000;0.6162;1.1749;
442.5000;0.6178;1.1912;
442.8000;0.6170;1.1842;
443.1000;0.6178;1.1958;
443.4000;0.6178;1.1912;
443.7000;0.6146;1.1935;
444.0000;0.6178;1.2004;
444.3000;0.6178;1.2004;
444.6000;0.6235;1.2167;
444.9000;0.6170;1.2028;
445.2000;0.6195;1.2097;
445.5000;0.6178;1.2051;
445.8000;0.6170;1.1935;
446.1000;0.6162;1.1981;
446.4000;0.6186;1.2097;
446.7000;0.6178;1.2097;
447.0000;0.6178;1.2097;
447.3000;0.6178;1.2051;
447.6000;0.6178;1.2097;
447.9000;0.6203;1.2283;
448.2000;0.6154;1.2237;
448.5000;0.6243;1.2422;
448.8000;0.6154;1.2190;
449.1000;0.6162;1.2190;
449.4000;0.6170;1.2213;
449.7000;0.6170;1.2144;
450.0000;0.6170;1.2120;
450.3000;0.6154;1.2120;
450.6000;0.6162;1.2167;
450.9000;0.6178;1.2237;
451.2000;0.6170;1.2190;
451.5000;0.6162;1.2306;
451.8000;0.6154;1.2306;
452.1000;0.6162;1.2376;
452.4000;0.6154;1.2329;
452.7000;0.6195;1.2469;
453.0000;0.6203;1.2422;
453.3000;0.6211;1.2376;
453.6000;0.6162;1.2213;
453.9000;0.6154;1.2237;
454.2000;0.6186;1.2329;
454.5000;0.6186;1.2283;
454.8000;0.6170;1.2120;
455.1000;0.6162;1.2097;
455.4000;0.6170;1.2260;
455.7000;0.6186;1.2353;
456.0000;0.6227;1.2446;
456.3000;0.6170;1.2260;
456.6000;0.6162;1.2260;
456.9000;0.6186;1.2237;
457.2000;0.6170;1.2306;
457.5000;0.6186;1.2283;
457.8000;0.6170;1.2213;
458.1000;0.6154;1.2190;
458.4000;0.6162;1.2167;
458.7000;0.6162;1.2190;
459.0000;0.6146;1.2051;
459.3000;0.6162;1.2074;
459.6000;0.6162;1.2144;
459.9000;0.6113;1.1981;
460.2000;0.6146;1.2028;
460.5000;0.6138;1.2051;
460.8000;0.6178;1.2167;
461.1000;0.6170;1.2237;
461.4000;0.6154;1.2237;
461.7000;0.6146;1.2190;
462.0000;0.6154;1.2097;
462.3000;0.6162;1.2213;
462.6000;0.6186;1.2306;
462.9000;0.6154;1.2051;
463.2000;0.6146;1.2051;
463.5000;0.6162;1.2097;
463.8000;0.6154;1.2074;
464.1000;0.6154;1.2051;
464.4000;0.6170;1.2213;
464.7000;0.6170;1.2329;
465.0000;0.6162;1.2306;
465.3000;0.6186;1.2260;
465.6000;0.6154;1.2097;
465.9000;0.6154;1.2074;
466.2000;0.6129;1.2074;
466.5000;0.6170;1.2097;
466.8000;0.6170;1.2120;
467.1000;0.6211;1.2237;
467.4000;0.6178;1.2237;
467.7000;0.6162;1.2167;
468.0000;0.6162;1.2190;
468.3000;0.6178;1.2329;
468.6000;0.6227;1.2469;
468.9000;0.6170;1.2260;
469.2000;0.6178;1.2213;
469.5000;0.6186;1.2260;
469.8000;0.6170;1.2213;
470.1000;0.6178;1.2213;
470.4000;0.6162;1.2306;
470.7000;0.6154;1.2237;
471.0000;0.6162;1.2213;
471.3000;0.6178;1.2213;
471.6000;0.6170;1.2144;
471.9000;0.6170;1.2167;
472.2000;0.6162;1.2283;
472.5000;0.6178;1.2353;
472.8000;0.6154;1.2376;
473.1000;0.6154;1.2329;
473.4000;0.6146;1.2306;
473.7000;0.6162;1.2237;
474.0000;0.6154;1.2097;
474.3000;0.6138;1.2074;
474.6000;0.6146;1.2097;
474.9000;0.6186;1.2120;
475.2000;0.6154;1.2120;
475.5000;0.6154;1.2144;
475.8000;0.6178;1.2167;
476.1000;0.6162;1.2167;
476.4000;0.6211;1.2190;
476.7000;0.6162;1.2144;
477.0000;0.6186;1.2237;
477.3000;0.6162;1.2260;
477.6000;0.6186;1.2237;
477.9000;0.6162;1.2144;
478.2000;0.6162;1.2190;
478.5000;0.6203;1.2260;
478.8000;0.6170;1.2167;
479.1000;0.6162;1.2097;
479.4000;0.6146;1.2097;
479.7000;0.6146;1.2213;
480.0000;0.6146;1.2144;
480.3000;0.6170;1.2213;
480.6000;0.6154;1.2120;
480.9000;0.6154;1.2144;
481.2000;0.6170;1.2097;
481.5000;0.6146;1.2074;
481.8000;0.6154;1.2190;
482.1000;0.6162;1.2097;
482.4000;0.6178;1.2120;
482.7000;0.6170;1.2167;
483.0000;0.6154;1.2190;
483.3000;0.6146;1.2237;
483.6000;0.6284;1.2538;
483.9000;0.6154;1.2213;
484.2000;0.6162;1.2167;
484.5000;0.6211;1.2260;
484.8000;0.6146;1.2028;
485.1000;0.6162;1.1981;
485.4000;0.6097;1.1888;
485.7000;0.6138;1.1981;
486.0000;0.6162;1.2097;
486.3000;0.6170;1.2167;
486.6000;0.6162;1.2144;
486.9000;0.6097;1.2028;
487.2000;0.6154;1.2144;
487.5000;0.6162;1.2097;
487.8000;0.6162;1.2074;
488.1000;0.6146;1.2051;
488.4000;0.6146;1.2097;
488.7000;0.6146;1.2097;
489.0000;0.6170;1.2144;
489.3000;0.6138;1.2028;
489.6000;0.6146;1.1958;
489.9000;0.6146;1.1958;
490.2000;0.6227;1.2120;
490.5000;0.6146;1.1912;
490.8000;0.6138;1.1935;
491.1000;0.6129;1.1935;
491.4000;0.6227;1.2260;
491.7000;0.6170;1.2190;
492.0000;0.6178;1.2167;
492.3000;0.6146;1.2167;
492.6000;0.6162;1.2260;
492.9000;0.6154;1.2237;
493.2000;0.6154;1.2167;
493.5000;0.6170;1.2167;
493.8000;0.6154;1.2190;
494.1000;0.6154;1.2213;
494.4000;0.6146;1.2213;
494.7000;0.6154;1.2167;
495.0000;0.6113;1.2051;
495.3000;0.6219;1.2306;
495.6000;0.6162;1.2120;
495.9000;0.6129;1.2097;
496.2000;0.6129;1.2097;
496.5000;0.6186;1.2306;
496.8000;0.6162;1.2237;
497.1000;0.6170;1.2213;
497.4000;0.6138;1.2097;
497.7000;0.6154;1.2004;
498.0000;0.6105;1.1888;
498.3000;0.6162;1.2028;
498.6000;0.6162;1.2028;
498.9000;0.6138;1.2004;
499.2000;0.6162;1.2004;
499.5000;0.6162;1.1958;
499.8000;0.6154;1.1981;
500.1000;0.6154;1.2004;
500.4000;0.6138;1.2028;
500.7000;0.6146;1.1981;
501.0000;0.6129;1.2004;
501.3000;0.6154;1.2004;
501.6000;0.6138;1.1912;
501.9000;0.6186;1.2004;
502.2000;0.6146;1.1912;
502.5000;0.6138;1.1935;
502.8000;0.6170;1.2120;
503.1000;0.6162;1.2144;
503.4000;0.6211;1.2237;
503.7000;0.6146;1.2120;
504.0000;0.6162;1.2051;
504.3000;0.6154;1.2051;
504.6000;0.6154;1.2051;
504.9000;0.6162;1.2120;
505.2000;0.6154;1.2120;
505.5000;0.6146;1.2097;
505.8000;0.6170;1.2097;
506.1000;0.6154;1.2051;
506.4000;0.6154;1.2028;
506.7000;0.6178;1.2028;
507.0000;0.6138;1.1958;
507.3000;0.6178;1.2004;
507.6000;0.6162;1.2004;
507.9000;0.6178;1.2051;
508.2000;0.6211;1.2120;
508.5000;0.6138;1.1912;
508.8000;0.6170;1.1981;
509.1000;0.6211;1.2167;
509.4000;0.6170;1.1981;
509.7000;0.6154;1.1842;
510.0000;0.6154;1.1912;
510.3000;0.6170;1.1981;
510.6000;0.6178;1.2028;
510.9000;0.6129;1.2074;
511.2000;0.6154;1.2190;
511.5000;0.6154;1.2120;
511.8000;0.6154;1.2167;
512.1000;0.6154;1.2097;
512.4000;0.6162;1.2097;
512.7000;0.6162;1.2120;
513.0000;0.6146;1.2167;
513.3000;0.6178;1.2144;
513.6000;0.6154;1.2144;
513.9000;0.6162;1.2190;
514.2000;0.6162;1.2237;
514.5000;0.6162;1.2167;
514.8000;0.6154;1.2097;
515.1000;0.6178;1.2097;
515.4000;0.6154;1.2051;
515.7000;0.6162;1.2028;
516.0000;0.6170;1.2004;
516.3000;0.6146;1.1935;
516.6000;0.6129;1.1981;
516.9000;0.6162;1.2074;
517.2000;0.6178;1.2190;
517.5000;0.6195;1.2144;
517.8000;0.6146;1.1958;
518.1000;0.6154;1.2028;
518.4000;0.6170;1.2074;
518.7000;0.6162;1.2074;
519.0000;0.6121;1.2004;
519.3000;0.6162;1.2051;
519.6000;0.6162;1.2051;
519.9000;0.6154;1.2120;
520.2000;0.6170;1.2097;
520.5000;0.6146;1.2051;
520.8000;0.6146;1.2051;
521.1000;0.6170;1.2190;
521.4000;0.6129;1.2144;
521.7000;0.6162;1.2190;
522.0000;0.6146;1.2167;
522.3000;0.6154;1.2237;
522.6000;0.6146;1.2260;
522.9000;0.6089;1.1958;
523.2000;0.6146;1.2097;
523.5000;0.6203;1.2190;
523.8000;0.6154;1.1981;
524.1000;0.6146;1.1912;
524.4000;0.6170;1.1912;
524.7000;0.6162;1.1981;
525.0000;0.6162;1.2051;
525.3000;0.6178;1.2144;
525.6000;0.6146;1.2167;
525.9000;0.6170;1.2167;
526.2000;0.6170;1.2283;
526.5000;0.6154;1.2144;
526.8000;0.6146;1.2028;
527.1000;0.6162;1.2074;
527.4000;0.6146;1.2097;
527.7000;0.6162;1.2120;
528.0000;0.6162;1.2004;
528.3000;0.6146;1.1958;
528.6000;0.6146;1.1912;
528.9000;0.6138;1.1935;
529.2000;0.6178;1.2097;
529.5000;0.6146;1.1981;
529.8000;0.6146;1.1981;
530.1000;0.6178;1.2051;
530.4000;0.6146;1.1888;
530.7000;0.6138;1.1865;
531.0000;0.6129;1.1865;
531.3000;0.6138;1.1888;
531.6000;0.6146;1.1935;
531.9000;0.6146;1.1935;
532.2000;0.6146;1.1935;
532.5000;0.6146;1.1888;
532.8000;0.6138;1.1865;
533.1000;0.6146;1.1842;
533.4000;0.6146;1.1958;
533.7000;0.6162;1.2028;
534.0000;0.6162;1.2028;
534.3000;0.6162;1.2004;
534.6000;0.6170;1.1935;
534.9000;0.6154;1.2004;
535.2000;0.6178;1.2004;
535.5000;0.6138;1.1912;
535.8000;0.6138;1.1981;
536.1000;0.6146;1.2144;
536.4000;0.6154;1.2097;
536.7000;0.6146;1.2028;
537.0000;0.6138;1.2051;
537.3000;0.6162;1.2120;
537.6000;0.6203;1.2213;
537.9000;0.6178;1.2051;
538.2000;0.6162;1.2074;
538.5000;0.6129;1.2004;
538.8000;0.6170;1.2097;
539.1000;0.6146;1.2028;
539.4000;0.6178;1.2097;
539.7000;0.6170;1.2120;
540.0000;0.6154;1.2097;
540.3000;0.6146;1.2004;
540.6000;0.6203;1.2051;
540.9000;0.6138;1.1865;
541.2000;0.6146;1.2120;
541.5000;0.6138;1.2144;
541.8000;0.6154;1.2120;
542.1000;0.6162;1.2120;
542.4000;0.6162;1.2190;
542.7000;0.6129;1.2213;
543.0000;0.6162;1.2213;
543.3000;0.6186;1.2306;
543.6000;0.6162;1.2260;
543.9000;0.6138;1.2260;
544.2000;0.6170;1.2353;
544.5000;0.6154;1.2329;
544.8000;0.6154;1.2353;
545.1000;0.6162;1.2283;
545.4000;0.6154;1.2306;
545.7000;0.6162;1.2260;
546.0000;0.6040;1.1912;
546.3000;0.6170;1.2167;
546.6000;0.6154;1.2213;
546.9000;0.6154;1.2167;
547.2000;0.6138;1.2120;
547.5000;0.6121;1.2074;
547.8000;0.6154;1.2237;
548.1000;0.6170;1.2260;
548.4000;0.6162;1.2306;
548.7000;0.6154;1.2237;
549.0000;0.6154;1.2260;
549.3000;0.6105;1.2167;
549.6000;0.6154;1.2190;
549.9000;0.6170;1.2144;
550.2000;0.6178;1.2120;
550.5000;0.6186;1.2120;
550.8000;0.6138;1.2004;
551.1000;0.6129;1.2051;
551.4000;0.6170;1.2190;
551.7000;0.6162;1.2190;
552.0000;0.6170;1.2167;
552.3000;0.6138;1.2051;
552.6000;0.6170;1.2120;
552.9000;0.6154;1.2120;
553.2000;0.6154;1.2190;
553.5000;0.6170;1.2306;
553.8000;0.6097;1.2074;
554.1000;0.6162;1.2120;
554.4000;0.6170;1.2051;
554.7000;0.6146;1.2051;
555.0000;0.6154;1.2120;
555.3000;0.6154;1.2097;
555.6000;0.6186;1.2260;
555.9000;0.6162;1.2167;
556.2000;0.6170;1.2190;
556.5000;0.6252;1.2446;
556.8000;0.6170;1.2283;
557.1000;0.6195;1.2446;
557.4000;0.6154;1.2329;
557.7000;0.6129;1.2306;
558.0000;0.6162;1.2329;
558.3000;0.6186;1.2446;
558.6000;0.6178;1.2446;
558.9000;0.6154;1.2353;
559.2000;0.6162;1.2306;
559.5000;0.6195;1.2422;
559.8000;0.6162;1.2329;
560.1000;0.6162;1.2376;
560.4000;0.6170;1.2353;
560.7000;0.6129;1.2306;
561.0000;0.6154;1.2446;
561.3000;0.6195;1.2562;
561.6000;0.6146;1.2399;
561.9000;0.6162;1.2353;
562.2000;0.6146;1.2213;
562.5000;0.6154;1.2120;
562.8000;0.6170;1.2260;
563.1000;0.6162;1.2213;
563.4000;0.6146;1.2213;
563.7000;0.6227;1.2376;
564.0000;0.6203;1.2306;
564.3000;0.6162;1.2190;
564.6000;0.6276;1.2446;
564.9000;0.6138;1.2097;
565.2000;0.6170;1.2120;
565.5000;0.6203;1.2260;
565.8000;0.6162;1.2190;
566.1000;0.6138;1.2144;
566.4000;0.6154;1.2213;
566.7000;0.6154;1.2213;
567.0000;0.6154;1.2213;
567.3000;0.6089;1.2051;
567.6000;0.6154;1.2167;
567.9000;0.6138;1.2167;
568.2000;0.6170;1.2260;
568.5000;0.6154;1.2283;
568.8000;0.6146;1.2213;
569.1000;0.6154;1.2306;
569.4000;0.6138;1.2237;
569.7000;0.6138;1.2283;
570.0000;0.6138;1.2283;
570.3000;0.6162;1.2306;
570.6000;0.6146;1.2306;
570.9000;0.6154;1.2260;
571.2000;0.6154;1.2260;
571.5000;0.6154;1.2190;
571.8000;0.6138;1.2167;
572.1000;0.6154;1.2237;
572.4000;0.6154;1.2144;
572.7000;0.6146;1.2167;
573.0000;0.6154;1.2329;
573.3000;0.6146;1.2306;
573.6000;0.6170;1.2306;
573.9000;0.6162;1.2167;
574.2000;0.6154;1.2120;
574.5000;0.6162;1.2097;
574.8000;0.6178;1.2167;
575.1000;0.6170;1.2074;
575.4000;0.6138;1.1958;
575.7000;0.6129;1.1958;
576.0000;0.6162;1.2004;
576.3000;0.6162;1.2167;
576.6000;0.6121;1.2144;
576.9000;0.6081;1.2097;
577.2000;0.6154;1.2237;
577.5000;0.6154;1.2190;
577.8000;0.6235;1.2376;
578.1000;0.6268;1.2446;
578.4000;0.6154;1.2120;
578.7000;0.6146;1.2097;
579.0000;0.6154;1.2120;
579.3000;0.6129;1.2097;
579.6000;0.6113;1.2097;
579.9000;0.6154;1.2237;
580.2000;0.6170;1.2353;
580.5000;0.6105;1.2237;
580.8000;0.6162;1.2353;
581.1000;0.6146;1.2376;
581.4000;0.6121;1.2329;
581.7000;0.6138;1.2376;
582.0000;0.6129;1.2446;
582.3000;0.6178;1.2446;
582.6000;0.6154;1.2306;
582.9000;0.6121;1.2120;
583.2000;0.6138;1.2190;
583.5000;0.6146;1.2190;
583.8000;0.6129;1.2028;
584.1000;0.6138;1.2097;
584.4000;0.6154;1.2120;
584.7000;0.6138;1.2167;
585.0000;0.6146;1.2190;
585.3000;0.6178;1.2260;
585.6000;0.6195;1.2329;
585.9000;0.6154;1.2213;
586.2000;0.6170;1.2213;
586.5000;0.6154;1.2190;
586.8000;0.6146;1.2144;
587.1000;0.6129;1.2167;
587.4000;0.6146;1.2283;
587.7000;0.6121;1.2190;
588.0000;0.6138;1.2213;
588.3000;0.6129;1.2260;
588.6000;0.6146;1.2306;
588.9000;0.6154;1.2144;
589.2000;0.6138;1.2144;
589.5000;0.6129;1.2120;
589.8000;0.6162;1.2167;
590.1000;0.6178;1.2213;
590.4000;0.6146;1.2167;
590.7000;0.6154;1.2167;
591.0000;0.6154;1.2260;
591.3000;0.6162;1.2376;
591.6000;0.6154;1.2353;
591.9000;0.6154;1.2283;
592.2000;0.6260;1.2469;
592.5000;0.6170;1.2190;
592.8000;0.6162;1.2167;
593.1000;0.6154;1.2144;
593.4000;0.6154;1.2120;
593.7000;0.6146;1.2120;
594.0000;0.6154;1.2213;
594.3000;0.6129;1.2190;
594.6000;0.6154;1.2306;
594.9000;0.6138;1.2283;
595.2000;0.6113;1.2260;
595.5000;0.6146;1.2283;
595.8000;0.6121;1.2167;
596.1000;0.6154;1.2283;
596.4000;0.6129;1.2283;
596.7000;0.6146;1.2283;
597.0000;0.6129;1.2237;
597.3000;0.6195;1.2329;
597.6000;0.6154;1.2167;
597.9000;0.6138;1.2167;
598.2000;0.6170;1.2237;
598.5000;0.6260;1.2562;
598.8000;0.6162;1.2260;
599.1000;0.6154;1.2260;
599.4000;0.6154;1.2260;
599.7000;0.6154;1.2190;
600.0000;0.6138;1.2190;
600.3000;0.6162;1.2260;
600.6000;0.6178;1.2120;
600.9000;0.6162;1.2051;
601.2000;0.6154;1.1958;
601.5000;0.6081;1.1679;
601.8000;0.6097;1.1679;
602.1000;0.6081;1.1470;
602.4000;0.6024;1.1192;
602.7000;0.5983;1.1006;
603.0000;0.5991;1.1006;
603.3000;0.5934;1.0843;
603.6000;0.5918;1.0797;
603.9000;0.5893;1.0727;
604.2000;0.5885;1.0611;
604.5000;0.5828;1.0402;
604.8000;0.5828;1.0356;
605.1000;0.5771;1.0309;
605.4000;0.5779;1.0379;
605.7000;0.5779;1.0356;
606.0000;0.5739;1.0263;
606.3000;0.5739;1.0240;
606.6000;0.5698;1.0240;
606.9000;0.5690;1.0170;
607.2000;0.5665;1.0100;
607.5000;0.5657;1.0193;
607.8000;0.5657;1.0240;
608.1000;0.5608;1.0147;
608.4000;0.5608;1.0170;
608.7000;0.5584;1.0054;
609.0000;0.5592;1.0008;
609.3000;0.5584;1.0031;
609.6000;0.5568;0.9961;
609.9000;0.5527;0.9845;
610.2000;0.5551;0.9938;
610.5000;0.5560;0.9868;
610.8000;0.5551;0.9845;
611.1000;0.5527;0.9799;
611.4000;0.5503;0.9775;
611.7000;0.5503;0.9799;
612.0000;0.5478;0.9752;
612.3000;0.5470;0.9706;
612.6000;0.5462;0.9706;
612.9000;0.5438;0.9659;
613.2000;0.5454;0.9682;
613.5000;0.5429;0.9752;
613.8000;0.5413;0.9775;
614.1000;0.5413;0.9775;
614.4000;0.5429;0.9891;
614.7000;0.5413;0.9822;
615.0000;0.5405;0.9729;
615.3000;0.5405;0.9752;
615.6000;0.5405;0.9706;
615.9000;0.5381;0.9636;
616.2000;0.5372;0.9729;
616.5000;0.5381;0.9868;
616.8000;0.5356;0.9845;
617.1000;0.5332;0.9775;
617.4000;0.5332;0.9822;
617.7000;0.5324;0.9775;
618.0000;0.5283;0.9706;
618.3000;0.5315;0.9752;
618.6000;0.5315;0.9775;
618.9000;0.5315;0.9775;
619.2000;0.5299;0.9752;
619.5000;0.5381;0.9891;
619.8000;0.5324;0.9706;
620.1000;0.5299;0.9613;
620.4000;0.5283;0.9473;
620.7000;0.5299;0.9590;
621.0000;0.5283;0.9566;
621.3000;0.5258;0.9450;
621.6000;0.5258;0.9473;
621.9000;0.5283;0.9566;
622.2000;0.5250;0.9613;
622.5000;0.5242;0.9613;
622.8000;0.5242;0.9659;
623.1000;0.5250;0.9729;
623.4000;0.5234;0.9659;
623.7000;0.5234;0.9636;
624.0000;0.5275;0.9706;
624.3000;0.5210;0.9613;
624.6000;0.5201;0.9543;
624.9000;0.5218;0.9682;
625.2000;0.5153;0.9682;
625.5000;0.5193;0.9775;
625.8000;0.5193;0.9868;
626.1000;0.5088;0.9636;
626.4000;0.5177;0.9799;
626.7000;0.5201;0.9799;
627.0000;0.5104;0.9613;
627.3000;0.5177;0.9822;
627.6000;0.5177;0.9799;
627.9000;0.5144;0.9706;
628.2000;0.5144;0.9682;
628.5000;0.5136;0.9566;
628.8000;0.5136;0.9473;
629.1000;0.5128;0.9543;
629.4000;0.5144;0.9473;
629.7000;0.5161;0.9520;
630.0000;0.5144;0.9473;
630.3000;0.5136;0.9427;
630.6000;0.5112;0.9311;
630.9000;0.5128;0.9404;
631.2000;0.5161;0.9543;
631.5000;0.5096;0.9241;
631.8000;0.5120;0.9334;
632.1000;0.5079;0.9357;
632.4000;0.5104;0.9381;
632.7000;0.5104;0.9381;
633.0000;0.5096;0.9357;
633.3000;0.5136;0.9450;
633.6000;0.5096;0.9543;
633.9000;0.5096;0.9497;
634.2000;0.5006;0.9288;
634.5000;0.5088;0.9520;
634.8000;0.5088;0.9520;
635.1000;0.5079;0.9566;
635.4000;0.5088;0.9590;
635.7000;0.5136;0.9659;
636.0000;0.5088;0.9636;
636.3000;0.5055;0.9706;
636.6000;0.5063;0.9799;
636.9000;0.5079;0.9799;
637.2000;0.5031;0.9752;
637.5000;0.5022;0.9799;
637.8000;0.5071;0.9845;
638.1000;0.5055;0.9752;
638.4000;0.5063;0.9682;
638.7000;0.5047;0.9636;
639.0000;0.5039;0.9543;
639.3000;0.5022;0.9613;
639.6000;0.5039;0.9636;
639.9000;0.5031;0.9613;
640.2000;0.5039;0.9659;
640.5000;0.5063;0.9682;
640.8000;0.5031;0.9682;
641.1000;0.5022;0.9775;
641.4000;0.5022;0.9752;
641.7000;0.5014;0.9682;
642.0000;0.5047;0.9682;
642.3000;0.5031;0.9613;
642.6000;0.5014;0.9520;
642.9000;0.5022;0.9566;
643.2000;0.5006;0.9613;
643.5000;0.5022;0.9706;
643.8000;0.5006;0.9682;
644.1000;0.4998;0.9613;
644.4000;0.4998;0.9752;
644.7000;0.4990;0.9775;
645.0000;0.4990;0.9752;
645.3000;0.4982;0.9822;
645.6000;0.4974;0.9775;
645.9000;0.4990;0.9752;
646.2000;0.4990;0.9729;
646.5000;0.4998;0.9752;
646.8000;0.4974;0.9636;
647.1000;0.4974;0.9636;
647.4000;0.4982;0.9613;
647.7000;0.5022;0.9752;
648.0000;0.5055;0.9775;
648.3000;0.4990;0.9636;
648.6000;0.4957;0.9473;
648.9000;0.4957;0.9497;
649.2000;0.4974;0.9543;
649.5000;0.4965;0.9497;
649.8000;0.4982;0.9543;
650.1000;0.4900;0.9473;
650.4000;0.4957;0.9682;
650.7000;0.4965;0.9613;
651.0000;0.4933;0.9520;
651.3000;0.4974;0.9566;
651.6000;0.5031;0.9729;
651.9000;0.4917;0.9543;
652.2000;0.4949;0.9682;
652.5000;0.4957;0.9752;
652.8000;0.4933;0.9706;
653.1000;0.4900;0.9543;
653.4000;0.4925;0.9706;
653.7000;0.4917;0.9636;
654.0000;0.4949;0.9613;
654.3000;0.4925;0.9543;
654.6000;0.4990;0.9659;
654.9000;0.4933;0.9613;
655.2000;0.4974;0.9682;
655.5000;0.4876;0.9427;
655.8000;0.4908;0.9497;
656.1000;0.4917;0.9566;
656.4000;0.4917;0.9590;
656.7000;0.4957;0.9659;
657.0000;0.4900;0.9450;
657.3000;0.4949;0.9613;
657.6000;0.4925;0.9613;
657.9000;0.4908;0.9497;
658.2000;0.4900;0.9613;
658.5000;0.4900;0.9566;
658.8000;0.4892;0.9613;
659.1000;0.4884;0.9659;
659.4000;0.4892;0.9682;
659.7000;0.4941;0.9775;
660.0000;0.4892;0.9729;
660.3000;0.4892;0.9613;
660.6000;0.4900;0.9590;
660.9000;0.4884;0.9682;
661.2000;0.4851;0.9497;
661.5000;0.4892;0.9613;
661.8000;0.4884;0.9636;
662.1000;0.4884;0.9543;
662.4000;0.4868;0.9590;
662.7000;0.4892;0.9520;
663.0000;0.4884;0.9543;
663.3000;0.4876;0.9543;
663.6000;0.4884;0.9543;
663.9000;0.4908;0.9613;
664.2000;0.4884;0.9543;
664.5000;0.4876;0.9659;
664.8000;0.4851;0.9636;
665.1000;0.4876;0.9706;
665.4000;0.4868;0.9590;
665.7000;0.4851;0.9427;
666.0000;0.4860;0.9543;
666.3000;0.4876;0.9543;
666.6000;0.4876;0.9520;
666.9000;0.4884;0.9520;
667.2000;0.4843;0.9473;
667.5000;0.4843;0.9497;
667.8000;0.4876;0.9497;
668.1000;0.4843;0.9543;
668.4000;0.4851;0.9520;
668.7000;0.4851;0.9636;
669.0000;0.4770;0.9473;
669.3000;0.4868;0.9752;
669.6000;0.4851;0.9659;
669.9000;0.4778;0.9473;
670.2000;0.4843;0.9566;
670.5000;0.4851;0.9590;
670.8000;0.4851;0.9566;
671.1000;0.4843;0.9543;
671.4000;0.4949;0.9891;
671.7000;0.4843;0.9590;
672.0000;0.4843;0.9473;
672.3000;0.4843;0.9543;
672.6000;0.4851;0.9566;
672.9000;0.4851;0.9566;
673.2000;0.4868;0.9566;
673.5000;0.4892;0.9613;
673.8000;0.4819;0.9450;
674.1000;0.4827;0.9543;
674.4000;0.4860;0.9729;
674.7000;0.4827;0.9682;
675.0000;0.4819;0.9636;
675.3000;0.4803;0.9590;
675.6000;0.4835;0.9636;
675.9000;0.4835;0.9613;
676.2000;0.4851;0.9543;
676.5000;0.4827;0.9590;
676.8000;0.4835;0.9752;
677.1000;0.4819;0.9682;
677.4000;0.4803;0.9636;
677.7000;0.4811;0.9706;
678.0000;0.4827;0.9752;
678.3000;0.4819;0.9706;
678.6000;0.4827;0.9752;
678.9000;0.4851;0.9915;
679.2000;0.4794;0.9799;
679.5000;0.4811;0.9799;
679.8000;0.4811;0.9822;
680.1000;0.4762;0.9682;
680.4000;0.4827;0.9799;
680.7000;0.4827;0.9938;
681.0000;0.4811;0.9822;
681.3000;0.4811;0.9822;
681.6000;0.4762;0.9729;
681.9000;0.4803;0.9845;
682.2000;0.4803;0.9822;
682.5000;0.4794;0.9822;
682.8000;0.4811;0.9729;
683.1000;0.4786;0.9682;
683.4000;0.4819;0.9682;
683.7000;0.4811;0.9590;
684.0000;0.4794;0.9497;
684.3000;0.4794;0.9427;
684.6000;0.4786;0.9427;
684.9000;0.4803;0.9497;
685.2000;0.4786;0.9450;
685.5000;0.4778;0.9566;
685.8000;0.4770;0.9659;
686.1000;0.4770;0.9659;
686.4000;0.4721;0.9566;
686.7000;0.4770;0.9636;
687.0000;0.4786;0.9682;
687.3000;0.4794;0.9682;
687.6000;0.4786;0.9636;
687.9000;0.4754;0.9636;
688.2000;0.4794;0.9729;
688.5000;0.4762;0.9590;
688.8000;0.4794;0.9752;
689.1000;0.4770;0.9706;
689.4000;0.4803;0.9775;
689.7000;0.4803;0.9891;
690.0000;0.4811;0.9845;
690.3000;0.4770;0.9775;
690.6000;0.4794;0.9845;
690.9000;0.4803;0.9822;
691.2000;0.4786;0.9822;
691.5000;0.4770;0.9799;
691.8000;0.4786;0.9868;
692.1000;0.4786;0.9845;
692.4000;0.4778;0.9868;
692.7000;0.4803;0.9961;
693.0000;0.4819;0.9891;
693.3000;0.4786;0.9845;
693.6000;0.4762;0.9845;
693.9000;0.4786;0.9822;
694.2000;0.4770;0.9729;
694.5000;0.4786;0.9845;
694.8000;0.4737;0.9682;
695.1000;0.4778;0.9799;
695.4000;0.4754;0.9775;
695.7000;0.4762;0.9845;
696.0000;0.4762;0.9799;
696.3000;0.4770;0.9729;
696.6000;0.4778;0.9659;
696.9000;0.4762;0.9752;
697.2000;0.4737;0.9775;
697.5000;0.4762;0.9752;
697.8000;0.4778;0.9752;
698.1000;0.4762;0.9682;
698.4000;0.4778;0.9706;
698.7000;0.4746;0.9636;
699.0000;0.4762;0.9659;
699.3000;0.4811;0.9752;
699.6000;0.4754;0.9543;
699.9000;0.4770;0.9566;
700.2000;0.4754;0.9543;
700.5000;0.4737;0.9427;
700.8000;0.4762;0.9497;
701.1000;0.4746;0.9566;
701.4000;0.4746;0.9543;
701.7000;0.4754;0.9590;
702.0000;0.4762;0.9636;
702.3000;0.4746;0.9706;
702.6000;0.4754;0.9799;
702.9000;0.4762;0.9775;
703.2000;0.4746;0.9799;
703.5000;0.4746;0.9682;
703.8000;0.4762;0.9682;
704.1000;0.4762;0.9752;
704.4000;0.4737;0.9682;
704.7000;0.4746;0.9682;
705.0000;0.4770;0.9706;
705.3000;0.4770;0.9729;
705.6000;0.4778;0.9706;
705.9000;0.4762;0.9729;
706.2000;0.4713;0.9636;
706.5000;0.4737;0.9613;
706.8000;0.4746;0.9682;
707.1000;0.4729;0.9613;
707.4000;0.4737;0.9729;
707.7000;0.4721;0.9799;
708.0000;0.4721;0.9822;
708.3000;0.4729;0.9868;
708.6000;0.4762;0.9822;
708.9000;0.4754;0.9752;
709.2000;0.4746;0.9752;
709.5000;0.4746;0.9752;
709.8000;0.4672;0.9543;
710.1000;0.4737;0.9729;
710.4000;0.4729;0.9729;
710.7000;0.4729;0.9706;
711.0000;0.4721;0.9682;
711.3000;0.4689;0.9590;
711.6000;0.4729;0.9659;
711.9000;0.4721;0.9706;
712.2000;0.4705;0.9613;
712.5000;0.4697;0.9590;
712.8000;0.4729;0.9590;
713.1000;0.4713;0.9566;
713.4000;0.4721;0.9613;
713.7000;0.4729;0.9659;
714.0000;0.4713;0.9590;
714.3000;0.4786;0.9682;
714.6000;0.4721;0.9590;
714.9000;0.4786;0.9799;
715.2000;0.4729;0.9636;
715.5000;0.4746;0.9729;
715.8000;0.4705;0.9590;
716.1000;0.4721;0.9682;
716.4000;0.4713;0.9729;
716.7000;0.4713;0.9682;
717.0000;0.4762;0.9775;
717.3000;0.4713;0.9775;
717.6000;0.4729;0.9799;
717.9000;0.4721;0.9659;
718.2000;0.4713;0.9636;
718.5000;0.4721;0.9682;
718.8000;0.4737;0.9729;
719.1000;0.4721;0.9729;
719.4000;0.4705;0.9636;
719.7000;0.4713;0.9659;
720.0000;0.4729;0.9613;
720.3000;0.4754;0.9706;
720.6000;0.4713;0.9636;
720.9000;0.4705;0.9752;
721.2000;0.4729;0.9799;
721.5000;0.4705;0.9729;
721.8000;0.4737;0.9752;
722.1000;0.4729;0.9822;
722.4000;0.4705;0.9706;
722.7000;0.4713;0.9636;
723.0000;0.4729;0.9752;
723.3000;0.4705;0.9729;
723.6000;0.4721;0.9822;
723.9000;0.4713;0.9775;
724.2000;0.4705;0.9799;
724.5000;0.4713;0.9799;
724.8000;0.4697;0.9613;
725.1000;0.4705;0.9520;
725.4000;0.4648;0.9404;
725.7000;0.4705;0.9659;
726.0000;0.4681;0.9636;
726.3000;0.4705;0.9682;
726.6000;0.4721;0.9729;
726.9000;0.4705;0.9659;
727.2000;0.4705;0.9636;
727.5000;0.4705;0.9729;
727.8000;0.4705;0.9752;
728.1000;0.4713;0.9799;
728.4000;0.4705;0.9845;
728.7000;0.4689;0.9868;
729.0000;0.4754;0.9984;
729.3000;0.4705;0.9891;
729.6000;0.4705;0.9915;
729.9000;0.4697;0.9915;
730.2000;0.4583;0.9497;
730.5000;0.4786;0.9961;
730.8000;0.4746;0.9775;
731.1000;0.4721;0.9706;
731.4000;0.4689;0.9659;
731.7000;0.4705;0.9706;
732.0000;0.4681;0.9682;
732.3000;0.4681;0.9729;
732.6000;0.4697;0.9706;
732.9000;0.4689;0.9659;
733.2000;0.4721;0.9752;
733.5000;0.4794;1.0031;
733.8000;0.4681;0.9822;
734.1000;0.4705;0.9822;
734.4000;0.4729;0.9822;
734.7000;0.4672;0.9775;
735.0000;0.4697;0.9799;
735.3000;0.4729;0.9868;
735.6000;0.4697;0.9752;
735.9000;0.4778;0.9984;
736.2000;0.4697;0.9752;
736.5000;0.4689;0.9706;
736.8000;0.4705;0.9682;
737.1000;0.4672;0.9636;
737.4000;0.4697;0.9682;
737.7000;0.4697;0.9659;
738.0000;0.4681;0.9706;
738.3000;0.4656;0.9613;
738.6000;0.4705;0.9706;
738.9000;0.4689;0.9729;
739.2000;0.4705;0.9775;
739.5000;0.4713;0.9775;
739.8000;0.4697;0.9752;
740.1000;0.4656;0.9636;
740.4000;0.4721;0.9775;
740.7000;0.4664;0.9636;
741.0000;0.4689;0.9682;
741.3000;0.4713;0.9706;
741.6000;0.4672;0.9613;
741.9000;0.4689;0.9590;
742.2000;0.4672;0.9520;
742.5000;0.4697;0.9613;
742.8000;0.4672;0.9613;
743.1000;0.4689;0.9659;
743.4000;0.4689;0.9590;
743.7000;0.4672;0.9543;
744.0000;0.4705;0.9659;
744.3000;0.4705;0.9613;
744.6000;0.4672;0.9473;
744.9000;0.4689;0.9590;
745.2000;0.4721;0.9706;
745.5000;0.4689;0.9613;
745.8000;0.4689;0.9543;
746.1000;0.4672;0.9566;
746.4000;0.4681;0.9706;
746.7000;0.4664;0.9613;
747.0000;0.4705;0.9636;
747.3000;0.4689;0.9682;
747.6000;0.4648;0.9590;
747.9000;0.4672;0.9682;
748.2000;0.4672;0.9682;
748.5000;0.4656;0.9613;
748.8000;0.4672;0.9706;
749.1000;0.4697;0.9682;
749.4000;0.4729;0.9822;
749.7000;0.4721;0.9915;
750.0000;0.4672;0.9775;
750.3000;0.4713;0.9822;
750.6000;0.4648;0.9543;
750.9000;0.4681;0.9682;
751.2000;0.4689;0.9752;
751.5000;0.4607;0.9636;
751.8000;0.4664;0.9775;
752.1000;0.4640;0.9706;
752.4000;0.4672;0.9891;
752.7000;0.4599;0.9613;
753.0000;0.4786;1.0124;
753.3000;0.4729;0.9961;
753.6000;0.4672;0.9752;
753.9000;0.4689;0.9799;
754.2000;0.4624;0.9566;
754.5000;0.4705;0.9752;
754.8000;0.4681;0.9752;
755.1000;0.4656;0.9613;
755.4000;0.4656;0.9613;
755.7000;0.4672;0.9729;
756.0000;0.4648;0.9659;
756.3000;0.4681;0.9845;
756.6000;0.4664;0.9729;
756.9000;0.4607;0.9636;
757.2000;0.4681;0.9822;
757.5000;0.4664;0.9822;
757.8000;0.4656;0.9775;
758.1000;0.4689;0.9822;
758.4000;0.4672;0.9752;
758.7000;0.4697;0.9822;
759.0000;0.4664;0.9752;
759.3000;0.4656;0.9775;
759.6000;0.4689;0.9775;
759.9000;0.4689;0.9822;
760.2000;0.4689;0.9868;
760.5000;0.4672;0.9891;
760.8000;0.4681;0.9822;
761.1000;0.4681;0.9891;
761.4000;0.4689;0.9891;
761.7000;0.4648;0.9799;
762.0000;0.4672;0.9868;
762.3000;0.4681;0.9775;
762.6000;0.4656;0.9729;
762.9000;0.4770;1.0100;
763.2000;0.4672;0.9868;
763.5000;0.4648;0.9775;
763.8000;0.4697;0.9938;
764.1000;0.4672;0.9984;
764.4000;0.4632;0.9868;
764.7000;0.4664;0.9915;
765.0000;0.4656;0.9938;
765.3000;0.4697;1.0031;
765.6000;0.4656;0.9891;
765.9000;0.4656;0.9891;
766.2000;0.4656;0.9845;
766.5000;0.4664;0.9799;
766.8000;0.4648;0.9729;
767.1000;0.4746;1.0031;
767.4000;0.4664;0.9891;
767.7000;0.4681;0.9868;
768.0000;0.4567;0.9566;
768.3000;0.4648;0.9752;
768.6000;0.4737;0.9961;
768.9000;0.4672;0.9706;
769.2000;0.4664;0.9706;
769.5000;0.4632;0.9706;
769.8000;0.4648;0.9682;
770.1000;0.4648;0.9682;
770.4000;0.4615;0.9543;
770.7000;0.4640;0.9682;
771.0000;0.4648;0.9752;
771.3000;0.4664;0.9752;
771.6000;0.4656;0.9659;
771.9000;0.4640;0.9706;
772.2000;0.4640;0.9682;
772.5000;0.4656;0.9682;
772.8000;0.4672;0.9659;
773.1000;0.4632;0.9543;
773.4000;0.4648;0.9590;
773.7000;0.4664;0.9659;
774.0000;0.4640;0.9566;
774.3000;0.4697;0.9682;
774.6000;0.4648;0.9613;
774.9000;0.4664;0.9706;
775.2000;0.4632;0.9636;
775.5000;0.4615;0.9636;
775.8000;0.4648;0.9729;
776.1000;0.4648;0.9706;
776.4000;0.4648;0.9775;
776.7000;0.4672;0.9752;
777.0000;0.4689;0.9775;
777.3000;0.4656;0.9752;
777.6000;0.4648;0.9613;
777.9000;0.4656;0.9752;
778.2000;0.4632;0.9752;
778.5000;0.4648;0.9845;
778.8000;0.4648;0.9752;
779.1000;0.4656;0.9799;
779.4000;0.4583;0.9636;
779.7000;0.4640;0.9752;
780.0000;0.4648;0.9891;
780.3000;0.4656;0.9938;
780.6000;0.4632;0.9938;
780.9000;0.4656;0.9984;
781.2000;0.4640;0.9961;
781.5000;0.4648;0.9938;
781.8000;0.4672;1.0008;
782.1000;0.4640;0.9938;
782.4000;0.4607;0.9775;
782.7000;0.4648;0.9799;
783.0000;0.4607;0.9682;
783.3000;0.4632;0.9659;
783.6000;0.4672;0.9659;
783.9000;0.4632;0.9590;
784.2000;0.4664;0.9706;
784.5000;0.4689;0.9729;
784.8000;0.4656;0.9682;
785.1000;0.4648;0.9613;
785.4000;0.4664;0.9543;
785.7000;0.4640;0.9566;
786.0000;0.4624;0.9520;
786.3000;0.4542;0.9381;
786.6000;0.4640;0.9729;
786.9000;0.4656;0.9775;
787.2000;0.4640;0.9706;
787.5000;0.4648;0.9636;
787.8000;0.4632;0.9590;
788.1000;0.4640;0.9636;
788.4000;0.4632;0.9590;
788.7000;0.4599;0.9543;
789.0000;0.4672;0.9775;
789.3000;0.4640;0.9752;
789.6000;0.4607;0.9636;
789.9000;0.4640;0.9752;
790.2000;0.4624;0.9752;
790.5000;0.4632;0.9706;
790.8000;0.4624;0.9682;
791.1000;0.4640;0.9775;
791.4000;0.4656;0.9845;
791.7000;0.4640;0.9822;
792.0000;0.4672;0.9822;
792.3000;0.4648;0.9706;
792.6000;0.4656;0.9636;
792.9000;0.4640;0.9636;
793.2000;0.4648;0.9775;
793.5000;0.4648;0.9729;
793.8000;0.4640;0.9729;
794.1000;0.4624;0.9729;
794.4000;0.4648;0.9775;
794.7000;0.4632;0.9775;
795.0000;0.4648;0.9775;
795.3000;0.4632;0.9729;
795.6000;0.4664;0.9729;
795.9000;0.4648;0.9682;
796.2000;0.4607;0.9520;
796.5000;0.4640;0.9613;
796.8000;0.4648;0.9752;
797.1000;0.4672;0.9822;
797.4000;0.4640;0.9822;
797.7000;0.4656;0.9822;
798.0000;0.4640;0.9775;
798.3000;0.4648;0.9775;
798.6000;0.4656;0.9961;
798.9000;0.4640;0.9868;
799.2000;0.4607;0.9868;
799.5000;0.4648;0.9891;
799.8000;0.4640;0.9799;
800.1000;0.4607;0.9706;
800.4000;0.4640;0.9799;
800.7000;0.4648;0.9775;
801.0000;0.4648;0.9775;
801.3000;0.4640;0.9752;
801.6000;0.4632;0.9822;
801.9000;0.4648;0.9891;
802.2000;0.4640;0.9845;
802.5000;0.4648;0.9775;
802.8000;0.4656;0.9729;
803.1000;0.4640;0.9682;
803.4000;0.4624;0.9613;
803.7000;0.4624;0.9613;
804.0000;0.4615;0.9729;
804.3000;0.4632;0.9868;
804.6000;0.4615;0.9822;
804.9000;0.4640;0.9822;
805.2000;0.4640;0.9682;
805.5000;0.4624;0.9706;
805.8000;0.4632;0.9799;
806.1000;0.4640;0.9729;
806.4000;0.4648;0.9682;
806.7000;0.4632;0.9682;
807.0000;0.4648;0.9752;
807.3000;0.4632;0.9659;
807.6000;0.4664;0.9682;
807.9000;0.4632;0.9682;
808.2000;0.4648;0.9682;
808.5000;0.4640;0.9659;
808.8000;0.4632;0.9590;
809.1000;0.4632;0.9613;
809.4000;0.4656;0.9682;
809.7000;0.4648;0.9729;
810.0000;0.4632;0.9729;
810.3000;0.4591;0.9729;
810.6000;0.4648;0.9868;
810.9000;0.4632;0.9915;
811.2000;0.4607;0.9775;
811.5000;0.4640;0.9799;
811.8000;0.4632;0.9775;
812.1000;0.4648;0.9868;
812.4000;0.4640;0.9845;
812.7000;0.4689;0.9961;
813.0000;0.4640;0.9845;
813.3000;0.4599;0.9799;
813.6000;0.4705;1.0124;
813.9000;0.4624;1.0031;
814.2000;0.4648;1.0147;
814.5000;0.4640;1.0124;
814.8000;0.4656;1.0031;
815.1000;0.4632;1.0077;
815.4000;0.4632;0.9984;
815.7000;0.4624;0.9938;
816.0000;0.4632;0.9868;
816.3000;0.4632;0.9799;
816.6000;0.4624;0.9729;
816.9000;0.4632;0.9822;
817.2000;0.4632;0.9775;
817.5000;0.4640;0.9729;
817.8000;0.4648;0.9729;
818.1000;0.4640;0.9752;
818.4000;0.4640;0.9775;
818.7000;0.4632;0.9799;
819.0000;0.4624;0.9845;
819.3000;0.4575;0.9752;
819.6000;0.4607;0.9891;
819.9000;0.4632;1.0054;
820.2000;0.4615;1.0054;
820.5000;0.4632;1.0008;
820.8000;0.4607;0.9822;
821.1000;0.4615;0.9845;
821.4000;0.4624;0.9706;
821.7000;0.4632;0.9729;
822.0000;0.4615;0.9799;
822.3000;0.4624;0.9868;
822.6000;0.4632;1.0031;
822.9000;0.4640;1.0077;
823.2000;0.4624;1.0008;
823.5000;0.4615;0.9984;
823.8000;0.4640;0.9961;
824.1000;0.4632;0.9868;
824.4000;0.4615;0.9915;
824.7000;0.4624;0.9868;
825.0000;0.4615;0.9845;
825.3000;0.4664;1.0031;
825.6000;0.4624;0.9938;
825.9000;0.4632;0.9938;
826.2000;0.4632;0.9915;
826.5000;0.4640;0.9891;
826.8000;0.4632;0.9868;
827.1000;0.4632;0.9891;
827.4000;0.4632;0.9961;
827.7000;0.4632;0.9938;
828.0000;0.4640;1.0008;
828.3000;0.4599;0.9891;
828.6000;0.4632;1.0077;
828.9000;0.4624;1.0124;
829.2000;0.4624;1.0217;
829.5000;0.4550;0.9984;
829.8000;0.4607;1.0170;
830.1000;0.4624;1.0147;
830.4000;0.4607;1.0077;
830.7000;0.4607;0.9984;
831.0000;0.4624;1.0008;
831.3000;0.4689;1.0217;
831.6000;0.4632;0.9938;
831.9000;0.4632;0.9915;
832.2000;0.4624;0.9891;
832.5000;0.4624;0.9915;
832.8000;0.4640;0.9984;
833.1000;0.4567;0.9845;
833.4000;0.4632;0.9961;
833.7000;0.4591;0.9868;
834.0000;0.4648;0.9961;
834.3000;0.4681;0.9961;
834.6000;0.4615;0.9891;
834.9000;0.4640;0.9868;
835.2000;0.4607;0.9915;
835.5000;0.4624;0.9984;
835.8000;0.4615;0.9961;
836.1000;0.4615;1.0031;
836.4000;0.4607;0.9915;
836.7000;0.4656;0.9961;
837.0000;0.4640;0.9799;
837.3000;0.4624;0.9706;
837.6000;0.4624;0.9729;
837.9000;0.4640;0.9799;
838.2000;0.4632;0.9799;
838.5000;0.4615;0.9799;
838.8000;0.4632;0.9891;
839.1000;0.4624;0.9891;
839.4000;0.4640;0.9984;
839.7000;0.4615;0.9891;
840.0000;0.4599;0.9799;
840.3000;0.4591;0.9659;
840.6000;0.4615;0.9613;
840.9000;0.4607;0.9613;
841.2000;0.4607;0.9590;
841.5000;0.4632;0.9613;
841.8000;0.4632;0.9543;
842.1000;0.4615;0.9520;
842.4000;0.4534;0.9311;
842.7000;0.4615;0.9543;
843.0000;0.4632;0.9590;
843.3000;0.4746;0.9915;
843.6000;0.4624;0.9659;
843.9000;0.4615;0.9706;
844.2000;0.4607;0.9752;
844.5000;0.4624;0.9729;
844.8000;0.4615;0.9729;
845.1000;0.4624;0.9775;
845.4000;0.4632;0.9799;
845.7000;0.4607;0.9706;
846.0000;0.4615;0.9682;
846.3000;0.4754;1.0077;
846.6000;0.4615;0.9636;
846.9000;0.4615;0.9706;
847.2000;0.4624;0.9775;
847.5000;0.4583;0.9682;
847.8000;0.4632;0.9775;
848.1000;0.4640;0.9868;
848.4000;0.4632;0.9845;
848.7000;0.4632;0.9752;
849.0000;0.4632;0.9775;
849.3000;0.4632;0.9729;
849.6000;0.4615;0.9682;
849.9000;0.4615;0.9682;
850.2000;0.4615;0.9706;
850.5000;0.4624;0.9682;
850.8000;0.4632;0.9636;
851.1000;0.4607;0.9566;
851.4000;0.4607;0.9520;
851.7000;0.4615;0.9566;
852.0000;0.4607;0.9590;
852.3000;0.4624;0.9682;
852.6000;0.4599;0.9682;
852.9000;0.4615;0.9775;
853.2000;0.4599;0.9822;
853.5000;0.4607;0.9706;
853.8000;0.4607;0.9822;
854.1000;0.4607;0.9775;
854.4000;0.4615;0.9845;
854.7000;0.4607;0.9799;
855.0000;0.4615;0.9799;
855.3000;0.4615;0.9752;
855.6000;0.4615;0.9729;
855.9000;0.4558;0.9590;
856.2000;0.4615;0.9706;
856.5000;0.4615;0.9729;
856.8000;0.4615;0.9775;
857.1000;0.4599;0.9729;
857.4000;0.4624;0.9845;
857.7000;0.4632;0.9868;
858.0000;0.4672;0.9961;
858.3000;0.4624;0.9822;
858.6000;0.4640;0.9822;
858.9000;0.4607;0.9775;
859.2000;0.4607;0.9752;
859.5000;0.4607;0.9775;
859.8000;0.4624;0.9891;
860.1000;0.4607;0.9799;
860.4000;0.4615;0.9845;
860.7000;0.4591;0.9706;
861.0000;0.4591;0.9682;
861.3000;0.4599;0.9613;
861.6000;0.4542;0.9473;
861.9000;0.4615;0.9706;
862.2000;0.4624;0.9659;
862.5000;0.4583;0.9566;
862.8000;0.4632;0.9729;
863.1000;0.4615;0.9729;
863.4000;0.4656;0.9775;
863.7000;0.4624;0.9752;
864.0000;0.4615;0.9729;
864.3000;0.4607;0.9775;
864.6000;0.4599;0.9775;
864.9000;0.4607;0.9799;
865.2000;0.4599;0.9868;
865.5000;0.4624;0.9961;
865.8000;0.4591;0.9938;
866.1000;0.4599;1.0008;
866.4000;0.4607;1.0031;
866.7000;0.4607;0.9938;
867.0000;0.4607;0.9891;
867.3000;0.4599;0.9891;
867.6000;0.4624;0.9891;
867.9000;0.4607;0.9752;
868.2000;0.4591;0.9706;
868.5000;0.4624;0.9752;
868.8000;0.4624;0.9636;
869.1000;0.4583;0.9636;
869.4000;0.4607;0.9729;
869.7000;0.4624;0.9775;
870.0000;0.4591;0.9636;
870.3000;0.4615;0.9590;
870.6000;0.4607;0.9566;
870.9000;0.4615;0.9590;
871.2000;0.4681;0.9659;
871.5000;0.4615;0.9473;
871.8000;0.4615;0.9497;
872.1000;0.4615;0.9566;
872.4000;0.4599;0.9543;
872.7000;0.4599;0.9613;
873.0000;0.4615;0.9682;
873.3000;0.4591;0.9659;
873.6000;0.4607;0.9682;
873.9000;0.4615;0.9682;
874.2000;0.4615;0.9659;
874.5000;0.4632;0.9682;
874.8000;0.4607;0.9613;
875.1000;0.4624;0.9729;
875.4000;0.4599;0.9659;
875.7000;0.4599;0.9636;
876.0000;0.4624;0.9682;
876.3000;0.4615;0.9590;
876.6000;0.4607;0.9590;
876.9000;0.4615;0.9590;
877.2000;0.4599;0.9682;
877.5000;0.4615;0.9706;
877.8000;0.4615;0.9682;
878.1000;0.4542;0.9613;
878.4000;0.4615;0.9845;
878.7000;0.4607;0.9799;
879.0000;0.4591;0.9775;
879.3000;0.4567;0.9775;
879.6000;0.4575;0.9822;
879.9000;0.4640;0.9868;
880.2000;0.4607;0.9822;
880.5000;0.4624;0.9822;
880.8000;0.4615;0.9729;
881.1000;0.4583;0.9682;
881.4000;0.4599;0.9682;
881.7000;0.4575;0.9613;
882.0000;0.4615;0.9636;
882.3000;0.4599;0.9706;
882.6000;0.4607;0.9706;
882.9000;0.4607;0.9682;
883.2000;0.4583;0.9636;
883.5000;0.4591;0.9706;
883.8000;0.4632;0.9775;
884.1000;0.4510;0.9566;
884.4000;0.4518;0.9566;
884.7000;0.4607;0.9775;
885.0000;0.4624;0.9845;
885.3000;0.4591;0.9752;
885.6000;0.4689;1.0077;
885.9000;0.4607;0.9868;
886.2000;0.4615;0.9845;
886.5000;0.4591;0.9845;
886.8000;0.4558;0.9659;
887.1000;0.4624;0.9775;
887.4000;0.4624;0.9752;
887.7000;0.4607;0.9868;
888.0000;0.4656;0.9984;
888.3000;0.4583;0.9729;
888.6000;0.4591;0.9706;
888.9000;0.4607;0.9775;
889.2000;0.4615;0.9868;
889.5000;0.4599;0.9891;
889.8000;0.4591;0.9891;
890.1000;0.4624;0.9868;
890.4000;0.4632;0.9891;
890.7000;0.4624;0.9775;
891.0000;0.4591;0.9729;
891.3000;0.4599;0.9729;
891.6000;0.4607;0.9799;
891.9000;0.4632;0.9961;
892.2000;0.4583;0.9915;
892.5000;0.4599;0.9984;
892.8000;0.4607;0.9961;
893.1000;0.4607;0.9891;
893.4000;0.4664;0.9961;
893.7000;0.4607;0.9868;
894.0000;0.4607;0.9961;
894.3000;0.4591;0.9845;
894.6000;0.4624;0.9915;
894.9000;0.4599;0.9891;
895.2000;0.4591;0.9799;
895.5000;0.4624;0.9845;
895.8000;0.4607;0.9822;
896.1000;0.4583;0.9822;
896.4000;0.4599;0.9845;
896.7000;0.4583;0.9799;
897.0000;0.4599;0.9868;
897.3000;0.4656;0.9915;
897.6000;0.4624;0.9822;
897.9000;0.4624;0.9775;
898.2000;0.4615;0.9636;
898.5000;0.4632;0.9682;
898.8000;0.4591;0.9659;
899.1000;0.4607;0.9775;
899.4000;0.4599;0.9729;
899.7000;0.4607;0.9775;
900.0000;0.4615;0.9799;
900.3000;0.4510;0.9520;
900.6000;0.4583;0.9752;
900.9000;0.4624;0.9868;
901.2000;0.4607;0.9752;
901.5000;0.4615;0.9706;
901.8000;0.4672;0.9915;
902.1000;0.4664;0.9891;
902.4000;0.4542;0.9659;
902.7000;0.4607;0.9799;
903.0000;0.4591;0.9706;
903.3000;0.4615;0.9799;
903.6000;0.4558;0.9682;
903.9000;0.4599;0.9822;
904.2000;0.4583;0.9752;
904.5000;0.4591;0.9822;
904.8000;0.4624;0.9938;
905.1000;0.4599;0.9845;
905.4000;0.4526;0.9590;
905.7000;0.4615;0.9891;
906.0000;0.4607;0.9775;
906.3000;0.4615;0.9799;
906.6000;0.4607;0.9729;
906.9000;0.4607;0.9729;
907.2000;0.4534;0.9520;
907.5000;0.4615;0.9752;
907.8000;0.4575;0.9636;
908.1000;0.4607;0.9775;
908.4000;0.4518;0.9473;
908.7000;0.4591;0.9682;
909.0000;0.4599;0.9636;
909.3000;0.4599;0.9706;
909.6000;0.4599;0.9752;
909.9000;0.4615;0.9775;
910.2000;0.4599;0.9868;
910.5000;0.4599;0.9868;
910.8000;0.4632;0.9868;
911.1000;0.4632;0.9845;
911.4000;0.4599;0.9775;
911.7000;0.4615;0.9822;
912.0000;0.4607;0.9775;
912.3000;0.4607;0.9775;
912.6000;0.4599;0.9682;
912.9000;0.4567;0.9543;
913.2000;0.4615;0.9613;
913.5000;0.4607;0.9543;
913.8000;0.4591;0.9566;
914.1000;0.4591;0.9636;
914.4000;0.4640;0.9799;
914.7000;0.4607;0.9659;
915.0000;0.4607;0.9473;
915.3000;0.4615;0.9497;
915.6000;0.4599;0.9566;
915.9000;0.4615;0.9613;
916.2000;0.4615;0.9613;
916.5000;0.4624;0.9543;
916.8000;0.4599;0.9427;
917.1000;0.4624;0.9590;
917.4000;0.4599;0.9613;
917.7000;0.4591;0.9566;
918.0000;0.4591;0.9636;
918.3000;0.4510;0.9520;
918.6000;0.4599;0.9845;
918.9000;0.4607;0.9915;
919.2000;0.4599;0.9845;
919.5000;0.4615;0.9775;
919.8000;0.4591;0.9613;
920.1000;0.4583;0.9636;
920.4000;0.4591;0.9636;
920.7000;0.4615;0.9566;
921.0000;0.4615;0.9520;
921.3000;0.4697;0.9915;
921.6000;0.4656;0.9891;
921.9000;0.4615;0.9775;
922.2000;0.4599;0.9752;
922.5000;0.4599;0.9729;
922.8000;0.4599;0.9636;
923.1000;0.4583;0.9590;
923.4000;0.4583;0.9566;
923.7000;0.4575;0.9590;
924.0000;0.4583;0.9613;
924.3000;0.4526;0.9334;
924.6000;0.4583;0.9543;
924.9000;0.4615;0.9729;
925.2000;0.4599;0.9636;
925.5000;0.4615;0.9799;
925.8000;0.4599;0.9775;
926.1000;0.4681;1.0008;
926.4000;0.4567;0.9682;
926.7000;0.4575;0.9636;
927.0000;0.4599;0.9682;
927.3000;0.4607;0.9729;
927.6000;0.4599;0.9682;
927.9000;0.4583;0.9706;
928.2000;0.4485;0.9450;
928.5000;0.4599;0.9636;
928.8000;0.4632;0.9799;
929.1000;0.4737;1.0008;
929.4000;0.4599;0.9590;
929.7000;0.4591;0.9590;
930.0000;0.4607;0.9706;
930.3000;0.4615;0.9775;
930.6000;0.4599;0.9729;
930.9000;0.4599;0.9659;
931.2000;0.4599;0.9682;
931.5000;0.4526;0.9613;
931.8000;0.4501;0.9473;
932.1000;0.4591;0.9636;
932.4000;0.4583;0.9613;
932.7000;0.4607;0.9706;
933.0000;0.4599;0.9706;
933.3000;0.4599;0.9706;
933.6000;0.4599;0.9659;
933.9000;0.4632;0.9752;
934.2000;0.4591;0.9590;
934.5000;0.4591;0.9497;
934.8000;0.4624;0.9613;
935.1000;0.4599;0.9659;
935.4000;0.4599;0.9682;
935.7000;0.4591;0.9706;
936.0000;0.4607;0.9706;
936.3000;0.4591;0.9682;
936.6000;0.4607;0.9682;
936.9000;0.4624;0.9845;
937.2000;0.4632;0.9868;
937.5000;0.4632;0.9961;
937.8000;0.4599;0.9845;
938.1000;0.4591;0.9822;
938.4000;0.4591;0.9775;
938.7000;0.4591;0.9845;
939.0000;0.4591;0.9775;
939.3000;0.4607;0.9775;
939.6000;0.4607;0.9822;
939.9000;0.4591;0.9891;
940.2000;0.4591;0.9891;
940.5000;0.4599;0.9891;
940.8000;0.4615;0.9891;
941.1000;0.4583;0.9915;
941.4000;0.4615;0.9984;
941.7000;0.4591;0.9984;
942.0000;0.4583;0.9915;
942.3000;0.4485;0.9613;
942.6000;0.4607;0.9891;
942.9000;0.4591;0.9868;
943.2000;0.4615;0.9845;
943.5000;0.4615;0.9799;
943.8000;0.4583;0.9729;
944.1000;0.4591;0.9752;
944.4000;0.4591;0.9775;
944.7000;0.4599;0.9752;
945.0000;0.4591;0.9799;
945.3000;0.4624;1.0008;
945.6000;0.4640;1.0054;
945.9000;0.4583;0.9891;
946.2000;0.4607;0.9845;
946.5000;0.4615;0.9891;
946.8000;0.4599;0.9729;
947.1000;0.4615;0.9775;
947.4000;0.4591;0.9891;
947.7000;0.4591;0.9868;
948.0000;0.4607;0.9845;
948.3000;0.4599;0.9775;
948.6000;0.4567;0.9613;
948.9000;0.4607;0.9636;
949.2000;0.4567;0.9590;
949.5000;0.4591;0.9566;
949.8000;0.4591;0.9543;
950.1000;0.4575;0.9566;
950.4000;0.4615;0.9566;
950.7000;0.4583;0.9566;
951.0000;0.4591;0.9636;
951.3000;0.4591;0.9682;
951.6000;0.4599;0.9706;
951.9000;0.4607;0.9752;
952.2000;0.4510;0.9450;
952.5000;0.4583;0.9636;
952.8000;0.4599;0.9636;
953.1000;0.4599;0.9659;
953.4000;0.4599;0.9636;
953.7000;0.4591;0.9590;
954.0000;0.4575;0.9566;
954.3000;0.4575;0.9566;
954.6000;0.4599;0.9590;
954.9000;0.4567;0.9497;
955.2000;0.4591;0.9543;
955.5000;0.4575;0.9566;
955.8000;0.4493;0.9357;
956.1000;0.4599;0.9799;
956.4000;0.4575;0.9868;
956.7000;0.4575;0.9938;
957.0000;0.4656;1.0124;
957.3000;0.4583;0.9938;
957.6000;0.4583;0.9961;
957.9000;0.4599;1.0008;
958.2000;0.4567;0.9915;
958.5000;0.4599;0.9868;
958.8000;0.4575;0.9659;
959.1000;0.4599;0.9682;
959.4000;0.4599;0.9682;
959.7000;0.4599;0.9706;
960.0000;0.4664;0.9822;
960.3000;0.4591;0.9520;
960.6000;0.4558;0.9497;
960.9000;0.4583;0.9566;
961.2000;0.4591;0.9636;
961.5000;0.4599;0.9752;
961.8000;0.4591;0.9775;
962.1000;0.4615;0.9868;
962.4000;0.4607;0.9845;
962.7000;0.4583;0.9613;
963.0000;0.4599;0.9613;
963.3000;0.4558;0.9543;
963.6000;0.4575;0.9659;
963.9000;0.4583;0.9706;
964.2000;0.4583;0.9659;
964.5000;0.4591;0.9659;
964.8000;0.4583;0.9729;
965.1000;0.4583;0.9799;
965.4000;0.4583;0.9799;
965.7000;0.4575;0.9706;
966.0000;0.4583;0.9682;
966.3000;0.4542;0.9590;
966.6000;0.4583;0.9822;
966.9000;0.4575;0.9822;
967.2000;0.4575;0.9891;
967.5000;0.4591;0.9961;
967.8000;0.4567;0.9915;
968.1000;0.4591;0.9961;
968.4000;0.4599;0.9938;
968.7000;0.4583;0.9891;
969.0000;0.4591;0.9915;
969.3000;0.4599;0.9868;
969.6000;0.4477;0.9613;
969.9000;0.4599;0.9868;
970.2000;0.4607;0.9915;
970.5000;0.4567;0.9822;
970.8000;0.4583;0.9868;
971.1000;0.4591;0.9938;
971.4000;0.4583;0.9915;
971.7000;0.4591;0.9915;
972.0000;0.4607;0.9938;
972.3000;0.4599;0.9845;
972.6000;0.4599;0.9845;
972.9000;0.4599;0.9868;
973.2000;0.4591;0.9822;
973.5000;0.4607;0.9799;
973.8000;0.4599;0.9799;
974.1000;0.4599;0.9775;
974.4000;0.4599;0.9752;
974.7000;0.4599;0.9775;
975.0000;0.4632;0.9868;
975.3000;0.4599;0.9822;
975.6000;0.4681;1.0124;
975.9000;0.4583;1.0031;
976.2000;0.4615;1.0124;
976.5000;0.4591;1.0124;
976.8000;0.4672;1.0425;
977.1000;0.4599;1.0170;
977.4000;0.4510;0.9891;
977.7000;0.4615;1.0147;
978.0000;0.4607;1.0031;
978.3000;0.4583;0.9868;
978.6000;0.4599;0.9845;
978.9000;0.4607;0.9845;
979.2000;0.4599;0.9915;
979.5000;0.4607;0.9961;
979.8000;0.4591;0.9984;
980.1000;0.4567;0.9915;
980.4000;0.4607;1.0008;
980.7000;0.4583;0.9938;
981.0000;0.4607;1.0077;
981.3000;0.4591;1.0008;
981.6000;0.4583;1.0031;
981.9000;0.4575;1.0031;
982.2000;0.4624;1.0124;
982.5000;0.4550;1.0054;
982.8000;0.4591;1.0170;
983.1000;0.4567;1.0031;
983.4000;0.4632;1.0240;
983.7000;0.4599;1.0217;
984.0000;0.4632;1.0356;
984.3000;0.4591;1.0263;
984.6000;0.4599;1.0147;
984.9000;0.4526;0.9915;
985.2000;0.4567;0.9961;
985.5000;0.4591;0.9938;
985.8000;0.4583;0.9915;
986.1000;0.4599;0.9915;
986.4000;0.4599;0.9938;
986.7000;0.4583;0.9822;
987.0000;0.4599;0.9891;
987.3000;0.4575;0.9868;
987.6000;0.4591;0.9961;
987.9000;0.4591;1.0008;
988.2000;0.4575;0.9891;
988.5000;0.4591;0.9915;
988.8000;0.4567;0.9799;
989.1000;0.4607;0.9915;
989.4000;0.4591;0.9822;
989.7000;0.4599;0.9868;
990.0000;0.4583;0.9822;
990.3000;0.4583;0.9799;
990.6000;0.4607;0.9822;
990.9000;0.4583;0.9822;
991.2000;0.4591;0.9938;
991.5000;0.4558;0.9938;
991.8000;0.4567;0.9938;
992.1000;0.4607;1.0031;
992.4000;0.4583;0.9984;
992.7000;0.4591;1.0054;
993.0000;0.4583;1.0100;
993.3000;0.4583;0.9984;
993.6000;0.4526;1.0008;
993.9000;0.4591;1.0217;
994.2000;0.4664;1.0356;
994.5000;0.4591;1.0100;
994.8000;0.4591;1.0077;
995.1000;0.4591;1.0100;
995.4000;0.4583;1.0054;
995.7000;0.4575;1.0008;
996.0000;0.4558;1.0008;
996.3000;0.4583;0.9984;
996.6000;0.4599;0.9984;
996.9000;0.4599;0.9938;
997.2000;0.4591;0.9961;
997.5000;0.4591;0.9961;
997.8000;0.4550;0.9915;
998.1000;0.4583;1.0008;
998.4000;0.4599;1.0077;
998.7000;0.4591;1.0008;
999.0000;0.4681;1.0170;
999.3000;0.4591;0.9915;
999.6000;0.4737;1.0193;
999.9000;0.4591;0.9822;
1000.2000;0.4591;0.9845;
1000.5000;0.4542;0.9752;
1000.8000;0.4558;0.9845;
1001.1000;0.4501;0.9752;
1001.4000;0.4583;0.9961;
1001.7000;0.4575;0.9961;
1002.0000;0.4583;0.9984;
1002.3000;0.4672;1.0193;
1002.6000;0.4550;0.9822;
1002.9000;0.4567;0.9822;
1003.2000;0.4583;0.9822;
1003.5000;0.4599;0.9868;
1003.8000;0.4575;0.9799;
1004.1000;0.4607;0.9799;
1004.4000;0.4591;0.9868;
1004.7000;0.4583;0.9868;
1005.0000;0.4583;0.9915;
1005.3000;0.4591;0.9891;
1005.6000;0.4615;1.0008;
1005.9000;0.4583;0.9984;
1006.2000;0.4575;1.0008;
1006.5000;0.4558;1.0008;
1006.8000;0.4575;1.0031;
1007.1000;0.4648;1.0170;
1007.4000;0.4575;0.9984;
1007.7000;0.4591;0.9915;
1008.0000;0.4664;1.0008;
1008.3000;0.4591;0.9868;
1008.6000;0.4591;0.9961;
1008.9000;0.4615;0.9915;
1009.2000;0.4591;0.9845;
1009.5000;0.4591;0.9799;
1009.8000;0.4550;0.9706;
1010.1000;0.4607;0.9845;
1010.4000;0.4575;0.9799;
1010.7000;0.4575;0.9845;
1011.0000;0.4624;0.9915;
1011.3000;0.4558;0.9822;
1011.6000;0.4583;0.9822;
1011.9000;0.4567;0.9775;
1012.2000;0.4583;0.9822;
1012.5000;0.4591;0.9915;
1012.8000;0.4591;1.0008;
1013.1000;0.4583;0.9938;
1013.4000;0.4583;0.9961;
1013.7000;0.4607;0.9961;
1014.0000;0.4591;0.9961;
1014.3000;0.4607;0.9961;
1014.6000;0.4591;0.9938;
1014.9000;0.4599;0.9961;
1015.2000;0.4591;0.9891;
1015.5000;0.4583;0.9915;
1015.8000;0.4607;0.9915;
1016.1000;0.4567;0.9799;
1016.4000;0.4591;0.9822;
1016.7000;0.4575;0.9706;
1017.0000;0.4583;0.9775;
1017.3000;0.4583;0.9868;
1017.6000;0.4615;0.9961;
1017.9000;0.4591;0.9938;
1018.2000;0.4591;0.9938;
1018.5000;0.4567;0.9822;
1018.8000;0.4583;0.9752;
1019.1000;0.4567;0.9799;
1019.4000;0.4575;0.9891;
1019.7000;0.4575;0.9891;
1020.0000;0.4632;1.0031;
1020.3000;0.4583;0.9915;
1020.6000;0.4583;0.9915;
1020.9000;0.4591;0.9845;
1021.2000;0.4550;0.9752;
1021.5000;0.4558;0.9636;
1021.8000;0.4599;0.9729;
1022.1000;0.4591;0.9682;
1022.4000;0.4558;0.9566;
1022.7000;0.4583;0.9590;
1023.0000;0.4558;0.9659;
1023.3000;0.4583;0.9775;
1023.6000;0.4550;0.9659;
1023.9000;0.4607;0.9752;
1024.2000;0.4591;0.9845;
1024.5000;0.4607;0.9822;
1024.8000;0.4599;0.9868;
1025.1000;0.4567;0.9938;
1025.4000;0.4591;0.9938;
1025.7000;0.4583;0.9938;
1026.0000;0.4591;0.9915;
1026.3000;0.4567;0.9845;
1026.6000;0.4575;0.9938;
1026.9000;0.4575;1.0054;
1027.2000;0.4615;1.0077;
1027.5000;0.4607;0.9961;
1027.8000;0.4583;0.9891;
1028.1000;0.4575;0.9845;
1028.4000;0.4583;0.9799;
1028.7000;0.4607;0.9868;
1029.0000;0.4591;0.9891;
1029.3000;0.4583;0.9845;
1029.6000;0.4607;0.9984;
1029.9000;0.4591;0.9938;
1030.2000;0.4591;0.9961;
1030.5000;0.4575;0.9984;
1030.8000;0.4591;1.0008;
1031.1000;0.4583;0.9961;
1031.4000;0.4583;0.9961;
1031.7000;0.4575;0.9938;
1032.0000;0.4591;0.9915;
1032.3000;0.4583;1.0008;
1032.6000;0.4591;1.0008;
1032.9000;0.4591;1.0054;
1033.2000;0.4591;0.9984;
1033.5000;0.4615;1.0124;
1033.8000;0.4599;1.0031;
1034.1000;0.4558;0.9891;
1034.4000;0.4534;0.9822;
1034.7000;0.4640;1.0124;
1035.0000;0.4599;0.9961;
1035.3000;0.4575;0.9891;
1035.6000;0.4583;0.9961;
1035.9000;0.4599;0.9915;
1036.2000;0.4640;1.0031;
1036.5000;0.4575;0.9868;
1036.8000;0.4583;0.9845;
1037.1000;0.4583;0.9868;
1037.4000;0.4615;0.9961;
1037.7000;0.4591;0.9938;
1038.0000;0.4567;1.0031;
1038.3000;0.4558;0.9961;
1038.6000;0.4607;1.0054;
1038.9000;0.4591;1.0008;
1039.2000;0.4599;0.9984;
1039.5000;0.4624;1.0100;
1039.8000;0.4591;0.9961;
1040.1000;0.4591;0.9984;
1040.4000;0.4624;1.0100;
1040.7000;0.4567;0.9984;
1041.0000;0.4591;1.0008;
1041.3000;0.4485;0.9682;
1041.6000;0.4575;0.9775;
1041.9000;0.4575;0.9775;
1042.2000;0.4591;0.9868;
1042.5000;0.4599;0.9891;
1042.8000;0.4583;0.9868;
1043.1000;0.4575;0.9915;
1043.4000;0.4558;0.9984;
1043.7000;0.4607;1.0054;
1044.0000;0.4534;0.9915;
1044.3000;0.4575;1.0031;
1044.6000;0.4591;1.0008;
1044.9000;0.4591;1.0008;
1045.2000;0.4558;0.9915;
1045.5000;0.4575;0.9984;
1045.8000;0.4575;0.9915;
1046.1000;0.4558;0.9822;
1046.4000;0.4567;0.9868;
1046.7000;0.4558;0.9868;
1047.0000;0.4583;0.9891;
1047.3000;0.4567;0.9845;
1047.6000;0.4583;0.9961;
1047.9000;0.4624;1.0077;
1048.2000;0.4510;0.9822;
1048.5000;0.4591;0.9961;
1048.8000;0.4583;0.9938;
1049.1000;0.4591;1.0008;
1049.4000;0.4583;0.9984;
1049.7000;0.4583;0.9915;
1050.0000;0.4672;1.0124;
1050.3000;0.4591;0.9915;
1050.6000;0.4534;0.9775;
1050.9000;0.4583;1.0031;
1051.2000;0.4599;1.0100;
1051.5000;0.4575;0.9938;
1051.8000;0.4575;0.9868;
1052.1000;0.4567;0.9961;
1052.4000;0.4558;0.9984;
1052.7000;0.4583;0.9961;
1053.0000;0.4575;0.9961;
1053.3000;0.4575;0.9984;
1053.6000;0.4558;0.9938;
1053.9000;0.4583;1.0054;
1054.2000;0.4599;1.0054;
1054.5000;0.4591;1.0124;
1054.8000;0.4591;1.0054;
1055.1000;0.4575;1.0031;
1055.4000;0.4550;0.9984;
1055.7000;0.4591;1.0077;
1056.0000;0.4567;1.0031;
1056.3000;0.4575;1.0008;
1056.6000;0.4583;0.9984;
1056.9000;0.4558;0.9891;
1057.2000;0.4607;0.9961;
1057.5000;0.4542;0.9729;
1057.8000;0.4591;0.9915;
1058.1000;0.4607;0.9938;
1058.4000;0.4558;0.9729;
1058.7000;0.4599;0.9752;
1059.0000;0.4567;0.9659;
1059.3000;0.4575;0.9590;
1059.6000;0.4591;0.9659;
1059.9000;0.4575;0.9636;
1060.2000;0.4575;0.9682;
1060.5000;0.4632;0.9822;
1060.8000;0.4583;0.9729;
1061.1000;0.4591;0.9868;
1061.4000;0.4583;0.9961;
1061.7000;0.4583;0.9984;
1062.0000;0.4575;0.9938;
1062.3000;0.4599;0.9915;
1062.6000;0.4567;0.9799;
1062.9000;0.4599;0.9961;
1063.2000;0.4575;0.9868;
1063.5000;0.4583;0.9868;
1063.8000;0.4542;0.9775;
1064.1000;0.4599;0.9984;
1064.4000;0.4583;1.0100;
1064.7000;0.4591;1.0170;
1065.0000;0.4558;1.0170;
1065.3000;0.4640;1.0263;
1065.6000;0.4607;1.0054;
1065.9000;0.4591;0.9938;
1066.2000;0.4510;0.9706;
1066.5000;0.4567;0.9822;
1066.8000;0.4567;0.9845;
1067.1000;0.4575;0.9752;
1067.4000;0.4591;0.9752;
1067.7000;0.4599;0.9775;
1068.0000;0.4599;0.9799;
1068.3000;0.4591;0.9752;
1068.6000;0.4583;0.9729;
1068.9000;0.4583;0.9775;
1069.2000;0.4607;0.9891;
1069.5000;0.4591;0.9891;
1069.8000;0.4591;0.9961;
1070.1000;0.4558;0.9822;
1070.4000;0.4550;0.9822;
1070.7000;0.4583;0.9961;
1071.0000;0.4583;0.9915;
1071.3000;0.4591;0.9961;
1071.6000;0.4558;0.9984;
1071.9000;0.4575;1.0031;
1072.2000;0.4583;0.9984;
1072.5000;0.4583;1.0077;
1072.8000;0.4583;0.9961;
1073.1000;0.4681;1.0170;
1073.4000;0.4599;0.9938;
1073.7000;0.4591;0.9891;
1074.0000;0.4599;0.9938;
1074.3000;0.4624;0.9984;
1074.6000;0.4607;0.9938;
1074.9000;0.4632;0.9984;
1075.2000;0.4583;0.9891;
1075.5000;0.4599;0.9961;
1075.8000;0.4599;0.9961;
1076.1000;0.4599;0.9891;
1076.4000;0.4567;0.9845;
1076.7000;0.4583;0.9915;
1077.0000;0.4542;0.9868;
1077.3000;0.4575;0.9938;
1077.6000;0.4567;0.9938;
1077.9000;0.4567;0.9938;
1078.2000;0.4567;1.0008;
1078.5000;0.4599;1.0124;
1078.8000;0.4575;1.0031;
1079.1000;0.4599;1.0100;
1079.4000;0.4575;1.0031;
1079.7000;0.4599;1.0100;
1080.0000;0.4583;1.0077;
1080.3000;0.4567;1.0124;
1080.6000;0.4599;1.0170;
1080.9000;0.4567;1.0077;
1081.2000;0.4575;1.0031;
1081.5000;0.4583;0.9961;
1081.8000;0.4599;0.9938;
1082.1000;0.4575;0.9984;
1082.4000;0.4615;1.0077;
1082.7000;0.4607;0.9984;
1083.0000;0.4583;0.9822;
1083.3000;0.4599;0.9845;
1083.6000;0.4583;0.9729;
1083.9000;0.4575;0.9682;
1084.2000;0.4583;0.9636;
1084.5000;0.4591;0.9682;
1084.8000;0.4575;0.9775;
1085.1000;0.4567;0.9845;
1085.4000;0.4575;0.9915;
1085.7000;0.4575;0.9868;
1086.0000;0.4567;0.9799;
1086.3000;0.4542;0.9659;
1086.6000;0.4591;0.9799;
1086.9000;0.4599;0.9822;
1087.2000;0.4583;0.9868;
1087.5000;0.4558;0.9775;
1087.8000;0.4615;0.9868;
1088.1000;0.4591;0.9706;
1088.4000;0.4567;0.9729;
1088.7000;0.4575;0.9775;
1089.0000;0.4567;0.9775;
1089.3000;0.4558;0.9706;
1089.6000;0.4567;0.9822;
1089.9000;0.4591;0.9845;
1090.2000;0.4624;0.9915;
1090.5000;0.4599;0.9845;
1090.8000;0.4591;0.9799;
1091.1000;0.4599;0.9845;
1091.4000;0.4599;0.9775;
1091.7000;0.4583;0.9706;
1092.0000;0.4534;0.9636;
1092.3000;0.4575;0.9706;
1092.6000;0.4583;0.9706;
1092.9000;0.4599;0.9799;
1093.2000;0.4583;0.9822;
1093.5000;0.4624;0.9891;
1093.8000;0.4567;0.9822;
1094.1000;0.4558;0.9891;
1094.4000;0.4518;0.9775;
1094.7000;0.4583;0.9938;
1095.0000;0.4550;0.9752;
1095.3000;0.4510;0.9682;
1095.6000;0.4534;0.9636;
1095.9000;0.4599;0.9822;
1096.2000;0.4591;0.9845;
1096.5000;0.4591;0.9822;
1096.8000;0.4591;0.9799;
1097.1000;0.4632;0.9845;
1097.4000;0.4583;0.9682;
1097.7000;0.4526;0.9613;
1098.0000;0.4575;0.9775;
1098.3000;0.4567;0.9752;
1098.6000;0.4526;0.9729;
1098.9000;0.4599;1.0100;
1099.2000;0.4567;1.0054;
1099.5000;0.4575;1.0077;
1099.8000;0.4567;1.0054;
1100.1000;0.4542;0.9961;
1100.4000;0.4493;0.9868;
1100.7000;0.4575;0.9984;
1101.0000;0.4493;0.9775;
1101.3000;0.4583;0.9984;
1101.6000;0.4599;0.9984;
1101.9000;0.4575;0.9938;
1102.2000;0.4583;0.9984;
1102.5000;0.4575;1.0031;
1102.8000;0.4607;1.0147;
1103.1000;0.4583;1.0054;
1103.4000;0.4550;0.9915;
1103.7000;0.4583;1.0008;
1104.0000;0.4591;0.9938;
1104.3000;0.4575;0.9984;
1104.6000;0.4583;1.0031;
1104.9000;0.4575;1.0077;
1105.2000;0.4583;1.0217;
1105.5000;0.4558;1.0309;
1105.8000;0.4567;1.0263;
1106.1000;0.4591;1.0286;
1106.4000;0.4591;1.0217;
1106.7000;0.4583;1.0124;
1107.0000;0.4607;1.0217;
1107.3000;0.4567;1.0077;
1107.6000;0.4575;1.0077;
1107.9000;0.4575;1.0008;
1108.2000;0.4567;1.0008;
1108.5000;0.4558;1.0054;
1108.8000;0.4689;1.0286;
1109.1000;0.4583;1.0054;
1109.4000;0.4640;1.0170;
1109.7000;0.4567;0.9984;
1110.0000;0.4583;1.0031;
1110.3000;0.4575;1.0100;
1110.6000;0.4591;1.0217;
1110.9000;0.4567;1.0170;
1111.2000;0.4599;1.0217;
1111.5000;0.4615;1.0309;
1111.8000;0.4591;1.0217;
1112.1000;0.4591;1.0124;
1112.4000;0.4607;1.0170;
1112.7000;0.4575;1.0124;
1113.0000;0.4632;1.0240;
1113.3000;0.4550;1.0124;
1113.6000;0.4575;1.0170;
1113.9000;0.4607;1.0217;
1114.2000;0.4575;1.0077;
1114.5000;0.4493;0.9822;
1114.8000;0.4656;1.0170;
1115.1000;0.4567;0.9938;
1115.4000;0.4583;1.0008;
1115.7000;0.4591;1.0008;
1116.0000;0.4526;0.9961;
1116.3000;0.4558;1.0124;
1116.6000;0.4526;1.0054;
1116.9000;0.4567;1.0100;
1117.2000;0.4583;1.0031;
1117.5000;0.4624;1.0147;
1117.8000;0.4607;1.0031;
1118.1000;0.4534;0.9845;
1118.4000;0.4567;0.9915;
1118.7000;0.4575;0.9984;
1119.0000;0.4607;1.0147;
1119.3000;0.4583;1.0193;
1119.6000;0.4558;1.0124;
1119.9000;0.4567;1.0147;
1120.2000;0.4591;1.0170;
1120.5000;0.4567;1.0031;
1120.8000;0.4656;1.0170;
1121.1000;0.4575;0.9961;
1121.4000;0.4575;0.9891;
1121.7000;0.4599;1.0008;
1122.0000;0.4591;1.0054;
1122.3000;0.4583;1.0077;
1122.6000;0.4583;1.0100;
1122.9000;0.4607;1.0147;
1123.2000;0.4583;1.0100;
1123.5000;0.4575;1.0054;
1123.8000;0.4567;0.9961;
1124.1000;0.4567;0.9915;
1124.4000;0.4583;0.9868;
1124.7000;0.4575;0.9822;
1125.0000;0.4567;0.9868;
1125.3000;0.4567;0.9891;
1125.6000;0.4583;0.9915;
1125.9000;0.4575;0.9868;
1126.2000;0.4558;0.9868;
1126.5000;0.4583;1.0054;
1126.8000;0.4632;1.0263;
1127.1000;0.4591;1.0263;
1127.4000;0.4567;1.0240;
1127.7000;0.4583;1.0217;
1128.0000;0.4558;1.0263;
1128.3000;0.4591;1.0333;
1128.6000;0.4583;1.0425;
1128.9000;0.4575;1.0425;
1129.2000;0.4558;1.0449;
1129.5000;0.4575;1.0402;
1129.8000;0.4583;1.0356;
1130.1000;0.4550;1.0240;
1130.4000;0.4583;1.0147;
1130.7000;0.4591;1.0124;
1131.0000;0.4567;1.0077;
1131.3000;0.4534;1.0031;
1131.6000;0.4526;0.9915;
1131.9000;0.4575;1.0077;
1132.2000;0.4575;1.0124;
1132.5000;0.4583;1.0193;
1132.8000;0.4583;1.0193;
1133.1000;0.4615;1.0240;
1133.4000;0.4591;1.0170;
1133.7000;0.4575;1.0100;
1134.0000;0.4575;1.0077;
1134.3000;0.4550;0.9984;
1134.6000;0.4583;1.0147;
1134.9000;0.4567;1.0054;
1135.2000;0.4550;1.0100;
1135.5000;0.4550;1.0077;
1135.8000;0.4615;1.0147;
1136.1000;0.4591;1.0054;
1136.4000;0.4591;1.0008;
1136.7000;0.4591;0.9938;
1137.0000;0.4575;0.9891;
1137.3000;0.4599;0.9938;
1137.6000;0.4575;0.9984;
1137.9000;0.4591;0.9961;
1138.2000;0.4534;0.9845;
1138.5000;0.4518;0.9845;
1138.8000;0.4591;0.9984;
1139.1000;0.4558;0.9891;
1139.4000;0.4567;0.9891;
1139.7000;0.4624;1.0054;
1140.0000;0.4583;1.0008;
1140.3000;0.4583;0.9891;
1140.6000;0.4558;0.9845;
1140.9000;0.4583;0.9868;
1141.2000;0.4567;1.0008;
1141.5000;0.4567;0.9938;
1141.8000;0.4567;0.9961;
1142.1000;0.4575;0.9961;
1142.4000;0.4575;0.9984;
1142.7000;0.4591;1.0031;
1143.0000;0.4567;0.9938;
1143.3000;0.4575;0.9868;
1143.6000;0.4583;1.0008;
1143.9000;0.4583;0.9915;
1144.2000;0.4575;0.9868;
1144.5000;0.4591;0.9984;
1144.8000;0.4583;0.9915;
1145.1000;0.4567;0.9868;
1145.4000;0.4567;0.9845;
1145.7000;0.4567;0.9915;
1146.0000;0.4607;1.0008;
1146.3000;0.4567;0.9961;
1146.6000;0.4583;1.0008;
1146.9000;0.4591;0.9984;
1147.2000;0.4575;0.9915;
1147.5000;0.4591;0.9961;
1147.8000;0.4558;0.9868;
1148.1000;0.4575;0.9938;
1148.4000;0.4591;0.9938;
1148.7000;0.4542;0.9984;
1149.0000;0.4591;1.0077;
1149.3000;0.4575;0.9984;
1149.6000;0.4550;0.9984;
1149.9000;0.4567;0.9961;
1150.2000;0.4550;0.9845;
1150.5000;0.4558;0.9891;
1150.8000;0.4567;0.9891;
1151.1000;0.4567;0.9868;
1151.4000;0.4518;0.9775;
1151.7000;0.4567;0.9915;
1152.0000;0.4575;0.9984;
1152.3000;0.4558;0.9961;
1152.6000;0.4558;1.0008;
1152.9000;0.4575;0.9961;
1153.2000;0.4583;0.9938;
1153.5000;0.4583;1.0008;
1153.8000;0.4567;0.9868;
1154.1000;0.4567;0.9891;
1154.4000;0.4567;0.9868;
1154.7000;0.4575;0.9961;
1155.0000;0.4583;1.0031;
1155.3000;0.4526;0.9822;
1155.6000;0.4542;0.9822;
1155.9000;0.4567;0.9822;
1156.2000;0.4648;1.0054;
1156.5000;0.4624;0.9961;
1156.8000;0.4558;0.9799;
1157.1000;0.4567;0.9799;
1157.4000;0.4591;0.9845;
1157.7000;0.4599;0.9799;
1158.0000;0.4567;0.9729;
1158.3000;0.4599;0.9845;
1158.6000;0.4648;1.0008;
1158.9000;0.4575;0.9799;
1159.2000;0.4567;0.9799;
1159.5000;0.4591;0.9961;
1159.8000;0.4575;0.9891;
1160.1000;0.4599;0.9799;
1160.4000;0.4583;0.9799;
1160.7000;0.4583;0.9706;
1161.0000;0.4591;0.9775;
1161.3000;0.4575;0.9868;
1161.6000;0.4632;1.0054;
1161.9000;0.4567;0.9891;
1162.2000;0.4689;1.0193;
1162.5000;0.4583;0.9891;
1162.8000;0.4558;0.9915;
1163.1000;0.4567;0.9961;
1163.4000;0.4558;0.9938;
1163.7000;0.4575;0.9961;
1164.0000;0.4469;0.9775;
1164.3000;0.4575;1.0100;
1164.6000;0.4567;1.0077;
1164.9000;0.4575;1.0100;
1165.2000;0.4599;1.0077;
1165.5000;0.4583;1.0031;
1165.8000;0.4567;1.0008;
1166.1000;0.4550;0.9938;
1166.4000;0.4591;0.9938;
1166.7000;0.4567;0.9822;
1167.0000;0.4583;0.9845;
1167.3000;0.4575;0.9822;
1167.6000;0.4575;0.9938;
1167.9000;0.4583;0.9938;
1168.2000;0.4558;0.9868;
1168.5000;0.4583;0.9984;
1168.8000;0.4591;0.9938;
1169.1000;0.4575;0.9915;
1169.4000;0.4575;0.9961;
1169.7000;0.4583;1.0008;
1170.0000;0.4567;1.0100;
1170.3000;0.4624;1.0193;
1170.6000;0.4583;1.0054;
1170.9000;0.4648;1.0263;
1171.2000;0.4599;1.0077;
1171.5000;0.4575;0.9961;
1171.8000;0.4567;1.0031;
1172.1000;0.4575;1.0054;
1172.4000;0.4575;1.0008;
1172.7000;0.4599;1.0031;
1173.0000;0.4575;0.9961;
1173.3000;0.4624;1.0031;
1173.6000;0.4624;1.0124;
1173.9000;0.4534;0.9868;
1174.2000;0.4583;0.9984;
1174.5000;0.4583;1.0031;
1174.8000;0.4583;1.0077;
1175.1000;0.4567;1.0147;
1175.4000;0.4542;1.0054;
1175.7000;0.4583;1.0054;
1176.0000;0.4575;1.0077;
1176.3000;0.4558;0.9938;
1176.6000;0.4583;1.0124;
1176.9000;0.4672;1.0333;
1177.2000;0.4567;0.9984;
1177.5000;0.4542;0.9845;
1177.8000;0.4583;0.9845;
1178.1000;0.4575;0.9868;
1178.4000;0.4575;0.9984;
1178.7000;0.4558;0.9938;
1179.0000;0.4575;0.9984;
1179.3000;0.4575;1.0031;
1179.6000;0.4591;1.0100;
1179.9000;0.4567;1.0100;
1180.2000;0.4558;1.0100;
1180.5000;0.4583;0.9984;
1180.8000;0.4567;0.9984;
1181.1000;0.4575;0.9984;
1181.4000;0.4567;0.9984;
1181.7000;0.4567;0.9891;
1182.0000;0.4583;0.9961;
1182.3000;0.4591;1.0100;
1182.6000;0.4575;1.0054;
1182.9000;0.4567;1.0077;
1183.2000;0.4607;1.0054;
1183.5000;0.4567;1.0008;
1183.8000;0.4591;1.0124;
1184.1000;0.4542;1.0077;
1184.4000;0.4583;1.0100;
1184.7000;0.4567;1.0077;
1185.0000;0.4558;1.0031;
1185.3000;0.4583;0.9984;
1185.6000;0.4583;1.0031;
1185.9000;0.4575;0.9961;
1186.2000;0.4575;1.0008;
1186.5000;0.4583;0.9961;
1186.8000;0.4558;0.9891;
1187.1000;0.4534;0.9752;
1187.4000;0.4591;0.9845;
1187.7000;0.4558;0.9868;
1188.0000;0.4469;0.9729;
1188.3000;0.4591;0.9984;
1188.6000;0.4575;1.0008;
1188.9000;0.4542;0.9915;
1189.2000;0.4583;0.9915;
1189.5000;0.4567;0.9845;
1189.8000;0.4575;0.9775;
1190.1000;0.4558;0.9729;
1190.4000;0.4550;0.9706;
1190.7000;0.4591;0.9822;
1191.0000;0.4575;0.9845;
1191.3000;0.4591;0.9915;
1191.6000;0.4567;0.9822;
1191.9000;0.4575;0.9915;
1192.2000;0.4567;0.9984;
1192.5000;0.4558;1.0054;
1192.8000;0.4558;1.0054;
1193.1000;0.4591;1.0124;
1193.4000;0.4575;1.0147;
1193.7000;0.4575;1.0124;
1194.0000;0.4583;1.0193;
1194.3000;0.4567;1.0170;
1194.6000;0.4591;1.0217;
1194.9000;0.4567;1.0100;
1195.2000;0.4567;1.0077;
1195.5000;0.4575;1.0100;
1195.8000;0.4575;1.0077;
1196.1000;0.4664;1.0263;
1196.4000;0.4567;0.9984;
1196.7000;0.4591;1.0031;
1197.0000;0.4567;1.0077;
1197.3000;0.4575;1.0077;
1197.6000;0.4575;1.0031;
1197.9000;0.4567;0.9961;
1198.2000;0.4558;0.9915;
1198.5000;0.4583;0.9891;
1198.8000;0.4583;0.9868;
1199.1000;0.4575;0.9868;
1199.4000;0.4575;0.9891;
1199.7000;0.4567;0.9915;
1200.0000;0.4567;0.9868;
1200.3000;0.4583;0.9845;
1200.6000;0.4648;0.9984;
1200.9000;0.4583;0.9868;
1201.2000;0.4575;0.9938;
1201.5000;0.4567;1.0031;
1201.8000;0.4550;1.0008;
1202.1000;0.4567;1.0031;
1202.4000;0.4583;0.9984;
1202.7000;0.4567;0.9961;
1203.0000;0.4558;0.9915;
1203.3000;0.4558;0.9868;
1203.6000;0.4648;1.0263;
1203.9000;0.4567;0.9915;
1204.2000;0.4550;0.9915;
1204.5000;0.4526;0.9868;
1204.8000;0.4599;1.0031;
1205.1000;0.4567;0.9845;
1205.4000;0.4567;0.9729;
1205.7000;0.4567;0.9799;
1206.0000;0.4607;0.9845;
1206.3000;0.4599;0.9845;
1206.6000;0.4591;0.9822;
1206.9000;0.4567;0.9915;
1207.2000;0.4583;0.9961;
1207.5000;0.4575;0.9984;
1207.8000;0.4567;1.0054;
1208.1000;0.4575;1.0031;
1208.4000;0.4575;1.0054;
1208.7000;0.4591;1.0100;
1209.0000;0.4558;1.0008;
1209.3000;0.4583;1.0054;
1209.6000;0.4567;1.0031;
1209.9000;0.4567;0.9984;
1210.2000;0.4534;0.9891;
1210.5000;0.4558;1.0054;
1210.8000;0.4583;1.0100;
1211.1000;0.4583;1.0054;
1211.4000;0.4575;1.0031;
1211.7000;0.4567;0.9961;
1212.0000;0.4672;1.0193;
1212.3000;0.4567;0.9868;
1212.6000;0.4575;0.9845;
1212.9000;0.4567;0.9845;
1213.2000;0.4518;0.9752;
1213.5000;0.4558;0.9915;
1213.8000;0.4615;1.0054;
1214.1000;0.4567;0.9891;
1214.4000;0.4575;0.9961;
1214.7000;0.4558;0.9961;
1215.0000;0.4567;0.9961;
1215.3000;0.4583;1.0077;
1215.6000;0.4583;1.0124;
1215.9000;0.4550;1.0077;
1216.2000;0.4542;0.9984;
1216.5000;0.4550;0.9984;
1216.8000;0.4567;1.0031;
1217.1000;0.4583;1.0054;
1217.4000;0.4567;1.0170;
1217.7000;0.4518;0.9938;
1218.0000;0.4567;1.0077;
1218.3000;0.4575;1.0170;
1218.6000;0.4575;1.0170;
1218.9000;0.4599;1.0193;
1219.2000;0.4583;1.0147;
1219.5000;0.4534;1.0054;
1219.8000;0.4591;1.0077;
1220.1000;0.4583;1.0124;
1220.4000;0.4485;0.9915;
1220.7000;0.4591;1.0031;
1221.0000;0.4575;0.9938;
1221.3000;0.4575;0.9822;
1221.6000;0.4550;0.9706;
1221.9000;0.4567;0.9799;
1222.2000;0.4567;0.9775;
1222.5000;0.4583;0.9891;
1222.8000;0.4477;0.9706;
1223.1000;0.4550;0.9799;
1223.4000;0.4558;0.9752;
1223.7000;0.4567;0.9868;
1224.0000;0.4599;0.9961;
1224.3000;0.4575;0.9729;
1224.6000;0.4632;0.9984;
1224.9000;0.4575;0.9938;
1225.2000;0.4591;0.9984;
1225.5000;0.4583;1.0054;
1225.8000;0.4583;1.0008;
1226.1000;0.4599;1.0008;
1226.4000;0.4583;0.9891;
1226.7000;0.4583;0.9845;
1227.0000;0.4624;0.9961;
1227.3000;0.4534;0.9775;
1227.6000;0.4558;0.9915;
1227.9000;0.4493;0.9659;
1228.2000;0.4558;0.9822;
1228.5000;0.4575;0.9891;
1228.8000;0.4558;0.9891;
1229.1000;0.4591;0.9984;
1229.4000;0.4558;0.9891;
1229.7000;0.4567;0.9868;
1230.0000;0.4591;0.9961;
1230.3000;0.4583;1.0031;
1230.6000;0.4615;1.0147;
1230.9000;0.4575;0.9961;
1231.2000;0.4583;0.9961;
1231.5000;0.4583;1.0008;
1231.8000;0.4591;0.9961;
1232.1000;0.4591;0.9915;
1232.4000;0.4583;0.9822;
1232.7000;0.4583;0.9752;
1233.0000;0.4624;0.9868;
1233.3000;0.4599;0.9775;
1233.6000;0.4558;0.9706;
1233.9000;0.4567;0.9775;
1234.2000;0.4558;0.9799;
1234.5000;0.4575;0.9752;
1234.8000;0.4542;0.9729;
1235.1000;0.4591;0.9775;
1235.4000;0.4583;0.9729;
1235.7000;0.4591;0.9636;
1236.0000;0.4550;0.9590;
1236.3000;0.4567;0.9682;
1236.6000;0.4575;0.9775;
1236.9000;0.4583;0.9729;
1237.2000;0.4485;0.9450;
1237.5000;0.4575;0.9566;
1237.8000;0.4558;0.9590;
1238.1000;0.4567;0.9659;
1238.4000;0.4567;0.9706;
1238.7000;0.4550;0.9775;
1239.0000;0.4558;0.9729;
1239.3000;0.4567;0.9729;
1239.6000;0.4567;0.9636;
1239.9000;0.4583;0.9636;
1240.2000;0.4567;0.9752;
1240.5000;0.4599;0.9845;
1240.8000;0.4575;0.9915;
1241.1000;0.4583;1.0008;
1241.4000;0.4575;0.9868;
1241.7000;0.4599;0.9868;
1242.0000;0.4567;0.9868;
1242.3000;0.4583;0.9845;
1242.6000;0.4534;0.9752;
1242.9000;0.4542;0.9845;
1243.2000;0.4567;0.9984;
1243.5000;0.4567;0.9961;
1243.8000;0.4615;1.0193;
1244.1000;0.4558;1.0008;
1244.4000;0.4689;1.0240;
1244.7000;0.4591;0.9915;
1245.0000;0.4550;0.9775;
1245.3000;0.4534;0.9752;
1245.6000;0.4542;0.9845;
1245.9000;0.4591;0.9961;
1246.2000;0.4567;0.9891;
1246.5000;0.4575;0.9961;
1246.8000;0.4615;1.0100;
1247.1000;0.4591;0.9984;
1247.4000;0.4583;1.0054;
1247.7000;0.4575;1.0008;
1248.0000;0.4567;1.0008;
1248.3000;0.4583;1.0147;
1248.6000;0.4558;1.0031;
1248.9000;0.4550;1.0054;
1249.2000;0.4567;1.0054;
1249.5000;0.4550;1.0054;
1249.8000;0.4567;1.0077;
1250.1000;0.4558;1.0054;
1250.4000;0.4567;1.0054;
1250.7000;0.4567;1.0031;
1251.0000;0.4583;1.0124;
1251.3000;0.4501;0.9984;
1251.6000;0.4583;1.0170;
1251.9000;0.4591;1.0193;
1252.2000;0.4575;1.0054;
1252.5000;0.4575;1.0100;
1252.8000;0.4583;1.0100;
1253.1000;0.4575;1.0100;
1253.4000;0.4575;1.0008;
1253.7000;0.4567;0.9961;
1254.0000;0.4542;0.9961;
1254.3000;0.4583;0.9984;
1254.6000;0.4583;0.9984;
1254.9000;0.4583;0.9961;
1255.2000;0.4583;1.0031;
1255.5000;0.4599;1.0008;
1255.8000;0.4575;0.9938;
1256.1000;0.4575;0.9961;
1256.4000;0.4591;0.9984;
1256.7000;0.4583;0.9822;
1257.0000;0.4567;0.9752;
1257.3000;0.4599;0.9868;
1257.6000;0.4583;0.9822;
1257.9000;0.4591;0.9938;
1258.2000;0.4575;0.9984;
1258.5000;0.4567;1.0008;
1258.8000;0.4575;1.0124;
1259.1000;0.4567;1.0031;
1259.4000;0.4583;0.9868;
1259.7000;0.4567;0.9799;
1260.0000;0.4567;0.9891;
1260.3000;0.4542;0.9961;
1260.6000;0.4558;0.9915;
1260.9000;0.4583;0.9984;
1261.2000;0.4583;0.9984;
1261.5000;0.4567;0.9938;
1261.8000;0.4567;0.9915;
1262.1000;0.4640;1.0100;
1262.4000;0.4550;0.9938;
1262.7000;0.4575;0.9961;
1263.0000;0.4575;0.9868;
1263.3000;0.4567;0.9845;
1263.6000;0.4567;0.9845;
1263.9000;0.4583;0.9868;
1264.2000;0.4575;0.9915;
1264.5000;0.4542;0.9915;
1264.8000;0.4558;0.9938;
1265.1000;0.4567;0.9961;
1265.4000;0.4567;1.0031;
1265.7000;0.4567;1.0077;
1266.0000;0.4583;1.0077;
1266.3000;0.4567;1.0124;
1266.6000;0.4583;1.0054;
1266.9000;0.4558;0.9961;
1267.2000;0.4575;1.0031;
1267.5000;0.4542;0.9822;
1267.8000;0.4550;0.9799;
1268.1000;0.4575;0.9799;
1268.4000;0.4558;0.9891;
1268.7000;0.4567;1.0008;
1269.0000;0.4550;0.9891;
1269.3000;0.4550;0.9799;
1269.6000;0.4534;0.9752;
1269.9000;0.4632;0.9984;
1270.2000;0.4583;0.9915;
1270.5000;0.4583;1.0008;
1270.8000;0.4591;1.0054;
1271.1000;0.4599;1.0100;
1271.4000;0.4575;1.0100;
1271.7000;0.4575;1.0147;
1272.0000;0.4558;1.0100;
1272.3000;0.4534;1.0031;
1272.6000;0.4567;1.0031;
1272.9000;0.4567;1.0054;
1273.2000;0.4575;1.0100;
1273.5000;0.4583;1.0124;
1273.8000;0.4583;1.0124;
1274.1000;0.4550;0.9984;
1274.4000;0.4567;1.0031;
1274.7000;0.4558;0.9984;
1275.0000;0.4567;0.9984;
1275.3000;0.4550;0.9938;
1275.6000;0.4501;0.9775;
1275.9000;0.4615;1.0170;
1276.2000;0.4599;1.0077;
1276.5000;0.4583;1.0008;
1276.8000;0.4583;0.9984;
1277.1000;0.4542;0.9961;
1277.4000;0.4591;1.0147;
1277.7000;0.4583;1.0193;
1278.0000;0.4575;1.0124;
1278.3000;0.4575;1.0077;
1278.6000;0.4575;1.0170;
1278.9000;0.4558;1.0077;
1279.2000;0.4485;0.9822;
1279.5000;0.4583;1.0054;
1279.8000;0.4567;0.9961;
1280.1000;0.4575;0.9984;
1280.4000;0.4591;0.9984;
1280.7000;0.4567;0.9868;
1281.0000;0.4550;0.9845;
1281.3000;0.4567;0.9891;
1281.6000;0.4558;0.9961;
1281.9000;0.4567;1.0077;
1282.2000;0.4567;1.0170;
1282.5000;0.4567;1.0286;
1282.8000;0.4575;1.0193;
1283.1000;0.4558;1.0100;
1283.4000;0.4542;0.9984;
1283.7000;0.4583;1.0077;
1284.0000;0.4583;1.0031;
1284.3000;0.4575;1.0147;
1284.6000;0.4567;1.0100;
1284.9000;0.4583;1.0217;
1285.2000;0.4583;1.0193;
1285.5000;0.4591;1.0193;
1285.8000;0.4542;1.0077;
1286.1000;0.4510;0.9984;
1286.4000;0.4575;1.0124;
1286.7000;0.4583;1.0077;
1287.0000;0.4583;1.0031;
1287.3000;0.4542;0.9915;
1287.6000;0.4615;1.0077;
1287.9000;0.4567;0.9868;
1288.2000;0.4615;0.9961;
1288.5000;0.4485;0.9659;
1288.8000;0.4591;0.9938;
1289.1000;0.4501;0.9775;
1289.4000;0.4558;0.9915;
1289.7000;0.4575;0.9938;
1290.0000;0.4542;0.9961;
1290.3000;0.4567;0.9961;
1290.6000;0.4518;0.9775;
1290.9000;0.4567;0.9938;
1291.2000;0.4558;0.9984;
1291.5000;0.4558;0.9891;
1291.8000;0.4575;0.9938;
1292.1000;0.4558;0.9984;
1292.4000;0.4632;1.0100;
1292.7000;0.4567;0.9868;
1293.0000;0.4558;0.9799;
1293.3000;0.4575;0.9729;
1293.6000;0.4607;0.9775;
1293.9000;0.4575;0.9636;
1294.2000;0.4567;0.9636;
1294.5000;0.4591;0.9729;
1294.8000;0.4607;0.9729;
1295.1000;0.4550;0.9682;
1295.4000;0.4550;0.9682;
1295.7000;0.4583;0.9752;
1296.0000;0.4558;0.9659;
1296.3000;0.4550;0.9682;
1296.6000;0.4583;0.9891;
1296.9000;0.4575;0.9868;
1297.2000;0.4567;0.9822;
1297.5000;0.4558;0.9984;
1297.8000;0.4624;1.0124;
1298.1000;0.4599;1.0124;
1298.4000;0.4567;1.0100;
1298.7000;0.4599;1.0124;
1299.0000;0.4583;1.0077;
1299.3000;0.4567;1.0054;
1299.6000;0.4550;1.0008;
1299.9000;0.4534;0.9938;
1300.2000;0.4591;1.0031;
1300.5000;0.4558;1.0031;
1300.8000;0.4591;1.0147;
1301.1000;0.4591;1.0193;
1301.4000;0.4591;1.0124;
1301.7000;0.4672;1.0309;
1302.0000;0.4567;0.9961;
1302.3000;0.4567;1.0031;
1302.6000;0.4558;1.0077;
1302.9000;0.4591;1.0147;
1303.2000;0.4607;1.0147;
1303.5000;0.4591;1.0124;
1303.8000;0.4575;1.0100;
1304.1000;0.4518;0.9984;
1304.4000;0.4567;1.0147;
1304.7000;0.4558;1.0100;
1305.0000;0.4583;1.0170;
1305.3000;0.4567;1.0147;
1305.6000;0.4567;1.0147;
1305.9000;0.4575;1.0170;
1306.2000;0.4567;1.0217;
1306.5000;0.4542;1.0008;
1306.8000;0.4575;1.0124;
1307.1000;0.4567;1.0124;
1307.4000;0.4575;1.0124;
1307.7000;0.4558;1.0077;
1308.0000;0.4575;1.0124;
1308.3000;0.4575;1.0147;
1308.6000;0.4567;1.0008;
1308.9000;0.4689;1.0217;
1309.2000;0.4583;0.9984;
1309.5000;0.4550;0.9984;
1309.8000;0.4697;1.0309;
1310.1000;0.4607;1.0124;
1310.4000;0.4558;1.0008;
1310.7000;0.4575;0.9961;
1311.0000;0.4575;0.9961;
1311.3000;0.4526;0.9891;
1311.6000;0.4567;1.0008;
1311.9000;0.4689;1.0333;
1312.2000;0.4575;1.0008;
1312.5000;0.4624;1.0147;
1312.8000;0.4575;0.9868;
1313.1000;0.4567;0.9891;
1313.4000;0.4591;0.9799;
1313.7000;0.4591;0.9822;
1314.0000;0.4591;0.9868;
1314.3000;0.4567;0.9984;
1314.6000;0.4583;0.9961;
1314.9000;0.4567;0.9961;
1315.2000;0.4567;0.9938;
1315.5000;0.4558;1.0008;
1315.8000;0.4575;0.9984;
1316.1000;0.4575;1.0008;
1316.4000;0.4567;1.0008;
1316.7000;0.4542;1.0100;
1317.0000;0.4567;1.0240;
1317.3000;0.4615;1.0356;
1317.6000;0.4575;1.0193;
1317.9000;0.4607;1.0263;
1318.2000;0.4558;1.0077;
1318.5000;0.4591;1.0170;
1318.8000;0.4558;1.0077;
1319.1000;0.4558;1.0124;
1319.4000;0.4567;1.0008;
1319.7000;0.4550;0.9915;
1320.0000;0.4567;0.9868;
1320.3000;0.4510;0.9775;
1320.6000;0.4575;0.9938;
1320.9000;0.4558;0.9891;
1321.2000;0.4591;1.0031;
1321.5000;0.4550;0.9938;
1321.8000;0.4567;0.9984;
1322.1000;0.4567;1.0147;
1322.4000;0.4575;1.0008;
1322.7000;0.4558;1.0054;
1323.0000;0.4567;1.0054;
1323.3000;0.4518;1.0008;
1323.6000;0.4583;1.0100;
1323.9000;0.4567;1.0147;
1324.2000;0.4526;1.0031;
1324.5000;0.4575;1.0100;
1324.8000;0.4558;0.9938;
1325.1000;0.4591;1.0077;
1325.4000;0.4583;1.0124;
1325.7000;0.4558;1.0054;
1326.0000;0.4526;0.9984;
1326.3000;0.4558;0.9984;
1326.6000;0.4583;0.9915;
1326.9000;0.4591;0.9961;
1327.2000;0.4607;1.0217;
1327.5000;0.4575;1.0193;
1327.8000;0.4550;1.0193;
1328.1000;0.4567;1.0217;
1328.4000;0.4575;1.0286;
1328.7000;0.4567;1.0217;
1329.0000;0.4558;1.0170;
1329.3000;0.4558;1.0124;
1329.6000;0.4575;1.0193;
1329.9000;0.4583;1.0240;
1330.2000;0.4550;1.0217;
1330.5000;0.4575;1.0263;
1330.8000;0.4567;1.0124;
1331.1000;0.4542;1.0008;
1331.4000;0.4591;1.0031;
1331.7000;0.4615;1.0077;
1332.0000;0.4583;0.9891;
1332.3000;0.4567;0.9891;
1332.6000;0.4558;0.9961;
1332.9000;0.4575;0.9891;
1333.2000;0.4567;0.9891;
1333.5000;0.4583;0.9984;
1333.8000;0.4583;1.0031;
1334.1000;0.4591;1.0077;
1334.4000;0.4575;1.0077;
1334.7000;0.4575;1.0054;
1335.0000;0.4567;1.0077;
1335.3000;0.4575;1.0124;
1335.6000;0.4607;1.0147;
1335.9000;0.4558;1.0077;
1336.2000;0.4591;1.0124;
1336.5000;0.4567;1.0008;
1336.8000;0.4558;1.0031;
1337.1000;0.4575;1.0147;
1337.4000;0.4591;1.0286;
1337.7000;0.4575;1.0217;
1338.0000;0.4583;1.0077;
1338.3000;0.4591;1.0077;
1338.6000;0.4558;1.0100;
1338.9000;0.4591;1.0100;
1339.2000;0.4567;0.9984;
1339.5000;0.4567;1.0124;
1339.8000;0.4583;1.0193;
1340.1000;0.4583;1.0147;
1340.4000;0.4567;1.0100;
1340.7000;0.4542;0.9961;
1341.0000;0.4526;0.9938;
1341.3000;0.4591;0.9961;
1341.6000;0.4558;0.9915;
1341.9000;0.4550;0.9961;
1342.2000;0.4534;0.9891;
1342.5000;0.4567;1.0031;
1342.8000;0.4599;1.0217;
1343.1000;0.4583;1.0217;
1343.4000;0.4550;1.0193;
1343.7000;0.4558;1.0193;
1344.0000;0.4493;0.9961;
1344.3000;0.4664;1.0193;
1344.6000;0.4624;1.0124;
1344.9000;0.4575;0.9984;
1345.2000;0.4583;1.0031;
1345.5000;0.4510;0.9891;
1345.8000;0.4567;1.0008;
1346.1000;0.4575;0.9961;
1346.4000;0.4518;0.9891;
1346.7000;0.4567;1.0008;
1347.0000;0.4599;1.0147;
1347.3000;0.4567;1.0100;
1347.6000;0.4575;1.0054;
1347.9000;0.4583;1.0077;
1348.2000;0.4510;0.9938;
1348.5000;0.4583;1.0217;
1348.8000;0.4583;1.0240;
1349.1000;0.4656;1.0402;
1349.4000;0.4599;1.0286;
1349.7000;0.4567;1.0240;
1350.0000;0.4591;1.0217;
1350.3000;0.4575;1.0147;
1350.6000;0.4575;1.0100;
1350.9000;0.4583;1.0124;
1351.2000;0.4632;1.0193;
1351.5000;0.4575;0.9984;
1351.8000;0.4599;1.0077;
1352.1000;0.4575;0.9891;
1352.4000;0.4567;0.9915;
1352.7000;0.4575;0.9938;
1353.0000;0.4599;1.0054;
1353.3000;0.4493;0.9822;
1353.6000;0.4542;0.9961;
1353.9000;0.4607;1.0077;
1354.2000;0.4567;0.9961;
1354.5000;0.4558;0.9938;
1354.8000;0.4599;1.0100;
1355.1000;0.4558;0.9868;
1355.4000;0.4567;0.9915;
1355.7000;0.4591;0.9938;
1356.0000;0.4583;0.9984;
1356.3000;0.4583;1.0031;
1356.6000;0.4542;0.9891;
1356.9000;0.4599;1.0100;
1357.2000;0.4550;1.0147;
1357.5000;0.4583;1.0147;
1357.8000;0.4575;1.0124;
1358.1000;0.4567;1.0031;
1358.4000;0.4591;0.9938;
1358.7000;0.4583;0.9845;
1359.0000;0.4575;0.9822;
1359.3000;0.4526;0.9729;
1359.6000;0.4567;0.9845;
1359.9000;0.4534;0.9799;
1360.2000;0.4526;0.9868;
1360.5000;0.4567;1.0054;
1360.8000;0.4583;1.0008;
1361.1000;0.4558;1.0124;
1361.4000;0.4510;0.9961;
1361.7000;0.4558;1.0031;
1362.0000;0.4567;1.0100;
1362.3000;0.4526;1.0008;
1362.6000;0.4542;1.0008;
1362.9000;0.4542;1.0054;
1363.2000;0.4583;1.0077;
1363.5000;0.4542;0.9984;
1363.8000;0.4558;1.0031;
1364.1000;0.4575;1.0031;
1364.4000;0.4550;0.9961;
1364.7000;0.4575;1.0031;
1365.0000;0.4534;0.9938;
1365.3000;0.4550;0.9984;
1365.6000;0.4567;0.9961;
1365.9000;0.4526;0.9822;
1366.2000;0.4575;0.9961;
1366.5000;0.4575;0.9984;
1366.8000;0.4607;1.0077;
1367.1000;0.4558;0.9915;
1367.4000;0.4567;0.9868;
1367.7000;0.4550;0.9822;
1368.0000;0.4526;0.9799;
1368.3000;0.4567;0.9845;
1368.6000;0.4575;0.9938;
1368.9000;0.4567;0.9984;
1369.2000;0.4624;1.0100;
1369.5000;0.4534;0.9868;
1369.8000;0.4583;1.0054;
1370.1000;0.4567;1.0008;
1370.4000;0.4575;1.0031;
1370.7000;0.4615;1.0193;
1371.0000;0.4648;1.0217;
1371.3000;0.4648;1.0286;
1371.6000;0.4567;1.0217;
1371.9000;0.4575;1.0193;
1372.2000;0.4575;1.0170;
1372.5000;0.4567;1.0217;
1372.8000;0.4558;1.0263;
1373.1000;0.4558;1.0333;
1373.4000;0.4575;1.0333;
1373.7000;0.4567;1.0263;
1374.0000;0.4575;1.0286;
1374.3000;0.4664;1.0379;
1374.6000;0.4672;1.0449;
1374.9000;0.4575;1.0124;
1375.2000;0.4567;1.0077;
1375.5000;0.4567;1.0008;
1375.8000;0.4558;0.9891;
1376.1000;0.4575;0.9984;
1376.4000;0.4550;1.0077;
1376.7000;0.4550;1.0008;
1377.0000;0.4583;1.0031;
1377.3000;0.4575;0.9938;
1377.6000;0.4575;0.9891;
1377.9000;0.4567;0.9961;
1378.2000;0.4567;1.0124;
1378.5000;0.4567;1.0124;
1378.8000;0.4567;1.0031;
1379.1000;0.4672;1.0263;
1379.4000;0.4567;1.0008;
1379.7000;0.4567;0.9915;
1380.0000;0.4583;1.0008;
1380.3000;0.4542;0.9938;
1380.6000;0.4550;0.9915;
1380.9000;0.4656;1.0147;
1381.2000;0.4558;0.9915;
1381.5000;0.4567;0.9961;
1381.8000;0.4567;1.0031;
1382.1000;0.4558;0.9961;
1382.4000;0.4583;0.9984;
1382.7000;0.4558;0.9915;
1383.0000;0.4583;1.0008;
1383.3000;0.4567;1.0077;
1383.6000;0.4526;1.0077;
1383.9000;0.4583;1.0193;
1384.2000;0.4591;1.0240;
1384.5000;0.4550;1.0147;
1384.8000;0.4567;1.0147;
1385.1000;0.4558;1.0147;
1385.4000;0.4632;1.0333;
1385.7000;0.4550;1.0193;
1386.0000;0.4583;1.0286;
1386.3000;0.4575;1.0309;
1386.6000;0.4567;1.0240;
1386.9000;0.4550;1.0124;
1387.2000;0.4599;1.0193;
1387.5000;0.4575;1.0124;
1387.8000;0.4558;1.0124;
1388.1000;0.4558;1.0031;
1388.4000;0.4567;0.9938;
1388.7000;0.4558;0.9915;
1389.0000;0.4567;0.9984;
1389.3000;0.4615;1.0170;
1389.6000;0.4558;1.0054;
1389.9000;0.4591;1.0031;
1390.2000;0.4575;1.0124;
1390.5000;0.4558;1.0100;
1390.8000;0.4575;1.0193;
1391.1000;0.4567;1.0217;
1391.4000;0.4583;1.0263;
1391.7000;0.4558;1.0263;
1392.0000;0.4599;1.0333;
1392.3000;0.4583;1.0240;
1392.6000;0.4591;1.0170;
1392.9000;0.4575;1.0170;
1393.2000;0.4558;1.0124;
1393.5000;0.4575;1.0193;
1393.8000;0.4575;1.0193;
1394.1000;0.4607;1.0263;
1394.4000;0.4542;1.0100;
1394.7000;0.4567;1.0286;
1395.0000;0.4542;1.0170;
1395.3000;0.4575;1.0170;
1395.6000;0.4575;1.0217;
1395.9000;0.4575;1.0217;
1396.2000;0.4583;1.0170;
1396.5000;0.4575;1.0170;
1396.8000;0.4575;1.0124;
1397.1000;0.4567;1.0147;
1397.4000;0.4567;1.0147;
1397.7000;0.4510;1.0054;
1398.0000;0.4583;1.0240;
1398.3000;0.4558;1.0124;
1398.6000;0.4575;1.0100;
1398.9000;0.4567;1.0054;
1399.2000;0.4567;1.0147;
1399.5000;0.4526;1.0031;
1399.8000;0.4550;1.0054;
