time/ms;Fluo/V;P700 deltaI/I x10³;
-199.8000;0.6219;0.9891;
-199.5000;0.6219;0.9868;
-199.2000;0.6227;0.9868;
-198.9000;0.6211;0.9822;
-198.6000;0.6186;0.9845;
-198.3000;0.6219;0.9868;
-198.0000;0.6252;0.9984;
-197.7000;0.6186;0.9984;
-197.4000;0.6227;1.0100;
-197.1000;0.6235;1.0100;
-196.8000;0.6227;1.0054;
-196.5000;0.6227;1.0031;
-196.2000;0.6186;0.9868;
-195.9000;0.6227;0.9915;
-195.6000;0.6235;0.9915;
-195.3000;0.6227;0.9915;
-195.0000;0.6203;0.9822;
-194.7000;0.6170;0.9659;
-194.4000;0.6211;0.9822;
-194.1000;0.6227;0.9915;
-193.8000;0.6219;0.9891;
-193.5000;0.6227;0.9915;
-193.2000;0.6203;0.9868;
-192.9000;0.6186;0.9891;
-192.6000;0.6203;0.9938;
-192.3000;0.6211;0.9822;
-192.0000;0.6211;0.9915;
-191.7000;0.6219;0.9915;
-191.4000;0.6211;0.9799;
-191.1000;0.6211;0.9799;
-190.8000;0.6219;0.9775;
-190.5000;0.6227;0.9775;
-190.2000;0.6211;0.9706;
-189.9000;0.6211;0.9706;
-189.6000;0.6154;0.9613;
-189.3000;0.6203;0.9729;
-189.0000;0.6219;0.9822;
-188.7000;0.6211;0.9891;
-188.4000;0.6211;0.9891;
-188.1000;0.6203;0.9822;
-187.8000;0.6260;0.9799;
-187.5000;0.6227;0.9752;
-187.2000;0.6203;0.9845;
-186.9000;0.6227;0.9938;
-186.6000;0.6195;0.9938;
-186.3000;0.6211;1.0054;
-186.0000;0.6203;1.0008;
-185.7000;0.6178;1.0008;
-185.4000;0.6227;1.0054;
-185.1000;0.6219;0.9984;
-184.8000;0.6219;0.9984;
-184.5000;0.6186;0.9915;
-184.2000;0.6227;0.9891;
-183.9000;0.6227;0.9868;
-183.6000;0.6243;0.9891;
-183.3000;0.6219;0.9799;
-183.0000;0.6211;0.9752;
-182.7000;0.6203;0.9752;
-182.4000;0.6203;0.9845;
-182.1000;0.6219;0.9938;
-181.8000;0.6227;1.0077;
-181.5000;0.6235;1.0008;
-181.2000;0.6211;1.0054;
-180.9000;0.6195;1.0031;
-180.6000;0.6195;1.0008;
-180.3000;0.6243;0.9938;
-180.0000;0.6203;0.9845;
-179.7000;0.6203;0.9891;
-179.4000;0.6219;0.9891;
-179.1000;0.6211;0.9891;
-178.8000;0.6227;0.9961;
-178.5000;0.6243;1.0077;
-178.2000;0.6276;1.0170;
-177.9000;0.6219;1.0008;
-177.6000;0.6227;1.0008;
-177.3000;0.6203;1.0031;
-177.0000;0.6252;1.0100;
-176.7000;0.6235;1.0031;
-176.4000;0.6211;0.9868;
-176.1000;0.6219;0.9799;
-175.8000;0.6186;0.9822;
-175.5000;0.6227;0.9961;
-175.2000;0.6195;0.9961;
-174.9000;0.6186;0.9915;
-174.6000;0.6195;0.9915;
-174.3000;0.6186;0.9845;
-174.0000;0.6292;1.0077;
-173.7000;0.6227;0.9845;
-173.4000;0.6195;0.9706;
-173.1000;0.6219;0.9752;
-172.8000;0.6203;0.9682;
-172.5000;0.6186;0.9590;
-172.2000;0.6195;0.9659;
-171.9000;0.6138;0.9427;
-171.6000;0.6154;0.9381;
-171.3000;0.6186;0.9381;
-171.0000;0.6195;0.9473;
-170.7000;0.6195;0.9566;
-170.4000;0.6146;0.9473;
-170.1000;0.6195;0.9590;
-169.8000;0.6219;0.9659;
-169.5000;0.6203;0.9590;
-169.2000;0.6276;0.9775;
-168.9000;0.6211;0.9659;
-168.6000;0.6203;0.9706;
-168.3000;0.6195;0.9682;
-168.0000;0.6219;0.9682;
-167.7000;0.6235;0.9706;
-167.4000;0.6211;0.9659;
-167.1000;0.6211;0.9636;
-166.8000;0.6195;0.9636;
-166.5000;0.6203;0.9590;
-166.2000;0.6219;0.9590;
-165.9000;0.6227;0.9613;
-165.6000;0.6203;0.9590;
-165.3000;0.6219;0.9659;
-165.0000;0.6219;0.9706;
-164.7000;0.6219;0.9775;
-164.4000;0.6211;0.9799;
-164.1000;0.6178;0.9822;
-163.8000;0.6195;0.9845;
-163.5000;0.6227;0.9915;
-163.2000;0.6203;0.9868;
-162.9000;0.6211;0.9799;
-162.6000;0.6195;0.9682;
-162.3000;0.6219;0.9613;
-162.0000;0.6195;0.9566;
-161.7000;0.6195;0.9543;
-161.4000;0.6203;0.9590;
-161.1000;0.6170;0.9543;
-160.8000;0.6219;0.9613;
-160.5000;0.6186;0.9497;
-160.2000;0.6195;0.9520;
-159.9000;0.6186;0.9520;
-159.6000;0.6219;0.9590;
-159.3000;0.6211;0.9613;
-159.0000;0.6211;0.9613;
-158.7000;0.6195;0.9659;
-158.4000;0.6219;0.9706;
-158.1000;0.6129;0.9590;
-157.8000;0.6186;0.9706;
-157.5000;0.6170;0.9706;
-157.2000;0.6186;0.9752;
-156.9000;0.6195;0.9775;
-156.6000;0.6211;0.9706;
-156.3000;0.6211;0.9799;
-156.0000;0.6186;0.9729;
-155.7000;0.6211;0.9799;
-155.4000;0.6203;0.9729;
-155.1000;0.6211;0.9799;
-154.8000;0.6227;0.9822;
-154.5000;0.6276;0.9915;
-154.2000;0.6227;0.9775;
-153.9000;0.6219;0.9822;
-153.6000;0.6186;0.9729;
-153.3000;0.6203;0.9868;
-153.0000;0.6252;0.9984;
-152.7000;0.6186;0.9845;
-152.4000;0.6211;0.9799;
-152.1000;0.6186;0.9636;
-151.8000;0.6195;0.9799;
-151.5000;0.6186;0.9752;
-151.2000;0.6211;0.9868;
-150.9000;0.6211;0.9868;
-150.6000;0.6211;0.9822;
-150.3000;0.6211;0.9845;
-150.0000;0.6219;0.9775;
-149.7000;0.6219;0.9729;
-149.4000;0.6219;0.9706;
-149.1000;0.6219;0.9729;
-148.8000;0.6219;0.9706;
-148.5000;0.6349;1.0031;
-148.2000;0.6203;0.9822;
-147.9000;0.6211;0.9938;
-147.6000;0.6292;1.0031;
-147.3000;0.6227;0.9891;
-147.0000;0.6203;0.9915;
-146.7000;0.6219;0.9961;
-146.4000;0.6219;0.9961;
-146.1000;0.6203;0.9915;
-145.8000;0.6211;0.9868;
-145.5000;0.6219;0.9891;
-145.2000;0.6195;0.9822;
-144.9000;0.6203;0.9659;
-144.6000;0.6195;0.9590;
-144.3000;0.6211;0.9613;
-144.0000;0.6203;0.9659;
-143.7000;0.6211;0.9775;
-143.4000;0.6203;0.9822;
-143.1000;0.6252;0.9984;
-142.8000;0.6227;0.9868;
-142.5000;0.6211;0.9775;
-142.2000;0.6211;0.9799;
-141.9000;0.6195;0.9822;
-141.6000;0.6219;0.9752;
-141.3000;0.6195;0.9636;
-141.0000;0.6203;0.9659;
-140.7000;0.6195;0.9729;
-140.4000;0.6195;0.9845;
-140.1000;0.6186;0.9915;
-139.8000;0.6186;0.9891;
-139.5000;0.6211;0.9915;
-139.2000;0.6186;0.9891;
-138.9000;0.6170;0.9845;
-138.6000;0.6203;0.9891;
-138.3000;0.6219;0.9915;
-138.0000;0.6211;0.9845;
-137.7000;0.6211;0.9868;
-137.4000;0.6195;0.9938;
-137.1000;0.6227;1.0054;
-136.8000;0.6203;0.9961;
-136.5000;0.6219;1.0008;
-136.2000;0.6178;0.9938;
-135.9000;0.6186;0.9868;
-135.6000;0.6252;0.9984;
-135.3000;0.6195;0.9868;
-135.0000;0.6186;0.9891;
-134.7000;0.6211;1.0031;
-134.4000;0.6211;1.0147;
-134.1000;0.6260;1.0240;
-133.8000;0.6203;1.0147;
-133.5000;0.6195;1.0170;
-133.2000;0.6162;1.0008;
-132.9000;0.6235;1.0170;
-132.6000;0.6195;1.0008;
-132.3000;0.6146;0.9822;
-132.0000;0.6129;0.9729;
-131.7000;0.6211;0.9868;
-131.4000;0.6203;0.9845;
-131.1000;0.6260;0.9961;
-130.8000;0.6211;0.9822;
-130.5000;0.6203;0.9868;
-130.2000;0.6211;0.9938;
-129.9000;0.6219;0.9938;
-129.6000;0.6211;1.0124;
-129.3000;0.6138;1.0008;
-129.0000;0.6195;1.0217;
-128.7000;0.6195;1.0147;
-128.4000;0.6186;1.0077;
-128.1000;0.6195;1.0008;
-127.8000;0.6235;1.0309;
-127.5000;0.6178;1.0100;
-127.2000;0.6089;0.9822;
-126.9000;0.6195;1.0077;
-126.6000;0.6203;1.0077;
-126.3000;0.6227;1.0124;
-126.0000;0.6203;1.0100;
-125.7000;0.6121;0.9868;
-125.4000;0.6219;1.0077;
-125.1000;0.6219;1.0077;
-124.8000;0.6211;1.0008;
-124.5000;0.6186;0.9984;
-124.2000;0.6203;0.9961;
-123.9000;0.6203;0.9915;
-123.6000;0.6203;0.9961;
-123.3000;0.6203;1.0100;
-123.0000;0.6235;1.0100;
-122.7000;0.6170;0.9961;
-122.4000;0.6203;1.0031;
-122.1000;0.6178;1.0124;
-121.8000;0.6203;1.0170;
-121.5000;0.6211;1.0193;
-121.2000;0.6186;1.0147;
-120.9000;0.6089;0.9915;
-120.6000;0.6195;1.0147;
-120.3000;0.6227;1.0100;
-120.0000;0.6211;1.0077;
-119.7000;0.6178;1.0008;
-119.4000;0.6211;1.0031;
-119.1000;0.6203;1.0031;
-118.8000;0.6211;1.0077;
-118.5000;0.6227;1.0100;
-118.2000;0.6203;1.0031;
-117.9000;0.6235;1.0077;
-117.6000;0.6195;0.9938;
-117.3000;0.6219;1.0008;
-117.0000;0.6195;0.9984;
-116.7000;0.6195;0.9961;
-116.4000;0.6195;0.9938;
-116.1000;0.6203;0.9938;
-115.8000;0.6211;0.9845;
-115.5000;0.6186;0.9845;
-115.2000;0.6186;0.9915;
-114.9000;0.6195;1.0031;
-114.6000;0.6219;1.0100;
-114.3000;0.6211;1.0193;
-114.0000;0.6211;1.0124;
-113.7000;0.6203;1.0008;
-113.4000;0.6219;1.0031;
-113.1000;0.6227;1.0008;
-112.8000;0.6211;0.9891;
-112.5000;0.6203;0.9938;
-112.2000;0.6219;0.9984;
-111.9000;0.6227;0.9961;
-111.6000;0.6211;0.9891;
-111.3000;0.6211;0.9984;
-111.0000;0.6203;1.0077;
-110.7000;0.6203;1.0077;
-110.4000;0.6260;1.0170;
-110.1000;0.6219;0.9984;
-109.8000;0.6203;0.9845;
-109.5000;0.6219;0.9845;
-109.2000;0.6211;0.9868;
-108.9000;0.6211;0.9822;
-108.6000;0.6203;0.9799;
-108.3000;0.6105;0.9590;
-108.0000;0.6211;0.9752;
-107.7000;0.6186;0.9659;
-107.4000;0.6235;0.9659;
-107.1000;0.6252;0.9682;
-106.8000;0.6195;0.9566;
-106.5000;0.6235;0.9659;
-106.2000;0.6211;0.9729;
-105.9000;0.6227;0.9799;
-105.6000;0.6211;0.9822;
-105.3000;0.6203;0.9752;
-105.0000;0.6260;0.9891;
-104.7000;0.6203;0.9775;
-104.4000;0.6178;0.9775;
-104.1000;0.6195;0.9915;
-103.8000;0.6203;0.9891;
-103.5000;0.6203;0.9891;
-103.2000;0.6203;0.9961;
-102.9000;0.6186;0.9984;
-102.6000;0.6170;0.9938;
-102.3000;0.6203;1.0031;
-102.0000;0.6211;1.0031;
-101.7000;0.6243;1.0054;
-101.4000;0.6268;1.0077;
-101.1000;0.6170;0.9915;
-100.8000;0.6284;1.0217;
-100.5000;0.6211;0.9961;
-100.2000;0.6186;0.9891;
-99.9000;0.6195;0.9938;
-99.6000;0.6203;0.9845;
-99.3000;0.6129;0.9706;
-99.0000;0.6186;0.9845;
-98.7000;0.6146;0.9775;
-98.4000;0.6211;0.9891;
-98.1000;0.6211;0.9961;
-97.8000;0.6178;0.9845;
-97.5000;0.6186;0.9938;
-97.2000;0.6260;1.0008;
-96.9000;0.6203;0.9845;
-96.6000;0.6203;0.9799;
-96.3000;0.6219;0.9868;
-96.0000;0.6260;0.9915;
-95.7000;0.6203;0.9845;
-95.4000;0.6219;0.9938;
-95.1000;0.6227;0.9915;
-94.8000;0.6252;0.9984;
-94.5000;0.6203;0.9868;
-94.2000;0.6211;0.9938;
-93.9000;0.6203;1.0031;
-93.6000;0.6219;1.0100;
-93.3000;0.6227;1.0100;
-93.0000;0.6195;0.9984;
-92.7000;0.6203;0.9984;
-92.4000;0.6211;0.9961;
-92.1000;0.6211;0.9961;
-91.8000;0.6268;1.0031;
-91.5000;0.6227;0.9915;
-91.2000;0.6219;0.9822;
-90.9000;0.6211;0.9822;
-90.6000;0.6235;0.9891;
-90.3000;0.6219;0.9915;
-90.0000;0.6235;1.0031;
-89.7000;0.6203;0.9938;
-89.4000;0.6219;0.9938;
-89.1000;0.6211;1.0008;
-88.8000;0.6203;0.9984;
-88.5000;0.6154;0.9868;
-88.2000;0.6203;1.0054;
-87.9000;0.6195;1.0077;
-87.6000;0.6195;1.0008;
-87.3000;0.6203;0.9891;
-87.0000;0.6195;0.9845;
-86.7000;0.6219;0.9938;
-86.4000;0.6211;0.9845;
-86.1000;0.6170;0.9752;
-85.8000;0.6186;0.9822;
-85.5000;0.6219;0.9868;
-85.2000;0.6211;0.9984;
-84.9000;0.6227;0.9984;
-84.6000;0.6211;0.9961;
-84.3000;0.6235;1.0031;
-84.0000;0.6284;1.0031;
-83.7000;0.6243;0.9845;
-83.4000;0.6203;0.9822;
-83.1000;0.6219;0.9915;
-82.8000;0.6219;1.0008;
-82.5000;0.6252;1.0217;
-82.2000;0.6203;1.0100;
-81.9000;0.6203;1.0077;
-81.6000;0.6186;1.0054;
-81.3000;0.6219;1.0077;
-81.0000;0.6219;1.0054;
-80.7000;0.6097;0.9729;
-80.4000;0.6203;1.0031;
-80.1000;0.6227;1.0077;
-79.8000;0.6203;1.0124;
-79.5000;0.6146;0.9915;
-79.2000;0.6235;1.0263;
-78.9000;0.6195;1.0240;
-78.6000;0.6235;1.0263;
-78.3000;0.6203;1.0193;
-78.0000;0.6227;1.0217;
-77.7000;0.6113;0.9938;
-77.4000;0.6203;1.0124;
-77.1000;0.6195;1.0124;
-76.8000;0.6243;1.0193;
-76.5000;0.6219;1.0170;
-76.2000;0.6146;1.0031;
-75.9000;0.6195;1.0077;
-75.6000;0.6252;1.0217;
-75.3000;0.6186;1.0031;
-75.0000;0.6203;1.0054;
-74.7000;0.6243;1.0147;
-74.4000;0.6227;1.0170;
-74.1000;0.6211;1.0147;
-73.8000;0.6219;1.0124;
-73.5000;0.6260;1.0100;
-73.2000;0.6105;0.9706;
-72.9000;0.6211;0.9799;
-72.6000;0.6178;0.9752;
-72.3000;0.6203;0.9961;
-72.0000;0.6276;1.0147;
-71.7000;0.6252;1.0124;
-71.4000;0.6219;1.0054;
-71.1000;0.6195;1.0054;
-70.8000;0.6162;0.9961;
-70.5000;0.6219;0.9984;
-70.2000;0.6235;1.0124;
-69.9000;0.6235;1.0077;
-69.6000;0.6211;1.0124;
-69.3000;0.6227;1.0077;
-69.0000;0.6227;1.0054;
-68.7000;0.6219;1.0008;
-68.4000;0.6195;0.9961;
-68.1000;0.6186;1.0054;
-67.8000;0.6195;1.0077;
-67.5000;0.6195;1.0100;
-67.2000;0.6195;1.0054;
-66.9000;0.6195;1.0054;
-66.6000;0.6178;0.9984;
-66.3000;0.6211;0.9984;
-66.0000;0.6203;1.0031;
-65.7000;0.6178;1.0031;
-65.4000;0.6195;1.0008;
-65.1000;0.6219;1.0008;
-64.8000;0.6211;1.0031;
-64.5000;0.6268;1.0240;
-64.2000;0.6276;1.0240;
-63.9000;0.6211;1.0100;
-63.6000;0.6260;1.0240;
-63.3000;0.6219;1.0193;
-63.0000;0.6211;1.0240;
-62.7000;0.6203;1.0286;
-62.4000;0.6227;1.0333;
-62.1000;0.6203;1.0286;
-61.8000;0.6203;1.0217;
-61.5000;0.6235;1.0147;
-61.2000;0.6243;1.0170;
-60.9000;0.6284;1.0240;
-60.6000;0.6203;1.0100;
-60.3000;0.6235;1.0217;
-60.0000;0.6243;1.0170;
-59.7000;0.6227;1.0077;
-59.4000;0.6203;1.0077;
-59.1000;0.6211;1.0124;
-58.8000;0.6252;1.0170;
-58.5000;0.6203;0.9961;
-58.2000;0.6178;0.9938;
-57.9000;0.6170;0.9845;
-57.6000;0.6170;0.9822;
-57.3000;0.6243;0.9961;
-57.0000;0.6219;0.9984;
-56.7000;0.6227;0.9938;
-56.4000;0.6252;1.0008;
-56.1000;0.6211;0.9938;
-55.8000;0.6211;0.9938;
-55.5000;0.6195;0.9938;
-55.2000;0.6219;0.9915;
-54.9000;0.6284;1.0077;
-54.6000;0.6219;1.0031;
-54.3000;0.6317;1.0240;
-54.0000;0.6219;0.9915;
-53.7000;0.6243;1.0008;
-53.4000;0.6227;0.9961;
-53.1000;0.6203;0.9799;
-52.8000;0.6211;0.9729;
-52.5000;0.6227;0.9868;
-52.2000;0.6203;0.9799;
-51.9000;0.6211;0.9799;
-51.6000;0.6203;0.9775;
-51.3000;0.6219;0.9729;
-51.0000;0.6219;0.9682;
-50.7000;0.6195;0.9682;
-50.4000;0.6211;0.9706;
-50.1000;0.6178;0.9659;
-49.8000;0.6203;0.9659;
-49.5000;0.6219;0.9775;
-49.2000;0.6195;0.9706;
-48.9000;0.6211;0.9799;
-48.6000;0.6243;0.9822;
-48.3000;0.6186;0.9799;
-48.0000;0.6186;0.9799;
-47.7000;0.6219;0.9891;
-47.4000;0.6203;0.9845;
-47.1000;0.6195;0.9752;
-46.8000;0.6203;0.9775;
-46.5000;0.6211;0.9822;
-46.2000;0.6227;0.9845;
-45.9000;0.6219;0.9799;
-45.6000;0.6219;0.9775;
-45.3000;0.6211;0.9915;
-45.0000;0.6227;0.9984;
-44.7000;0.6219;0.9961;
-44.4000;0.6211;1.0008;
-44.1000;0.6162;1.0054;
-43.8000;0.6227;1.0170;
-43.5000;0.6211;1.0054;
-43.2000;0.6195;0.9961;
-42.9000;0.6195;0.9868;
-42.6000;0.6211;0.9868;
-42.3000;0.6219;0.9845;
-42.0000;0.6211;0.9822;
-41.7000;0.6186;0.9729;
-41.4000;0.6195;0.9799;
-41.1000;0.6235;0.9775;
-40.8000;0.6276;0.9822;
-40.5000;0.6211;0.9729;
-40.2000;0.6243;0.9729;
-39.9000;0.6219;0.9590;
-39.6000;0.6211;0.9729;
-39.3000;0.6162;0.9659;
-39.0000;0.6268;0.9891;
-38.7000;0.6154;0.9659;
-38.4000;0.6211;0.9799;
-38.1000;0.6203;0.9845;
-37.8000;0.6097;0.9659;
-37.5000;0.6211;0.9938;
-37.2000;0.6243;0.9961;
-36.9000;0.6243;0.9938;
-36.6000;0.6211;0.9845;
-36.3000;0.6227;0.9845;
-36.0000;0.6162;0.9682;
-35.7000;0.6195;0.9775;
-35.4000;0.6138;0.9729;
-35.1000;0.6195;0.9822;
-34.8000;0.6186;0.9799;
-34.5000;0.6211;0.9845;
-34.2000;0.6203;0.9845;
-33.9000;0.6203;0.9799;
-33.6000;0.6186;0.9659;
-33.3000;0.6243;0.9799;
-33.0000;0.6203;0.9752;
-32.7000;0.6203;0.9822;
-32.4000;0.6195;0.9845;
-32.1000;0.6186;0.9799;
-31.8000;0.6235;0.9891;
-31.5000;0.6203;0.9799;
-31.2000;0.6203;0.9775;
-30.9000;0.6195;0.9799;
-30.6000;0.6219;0.9799;
-30.3000;0.6203;0.9891;
-30.0000;0.6203;0.9915;
-29.7000;0.6211;0.9891;
-29.4000;0.6195;0.9984;
-29.1000;0.6211;1.0031;
-28.8000;0.6211;0.9891;
-28.5000;0.6227;0.9891;
-28.2000;0.6219;0.9938;
-27.9000;0.6227;0.9938;
-27.6000;0.6219;0.9868;
-27.3000;0.6186;0.9799;
-27.0000;0.6203;0.9891;
-26.7000;0.6211;0.9868;
-26.4000;0.6219;0.9822;
-26.1000;0.6195;0.9775;
-25.8000;0.6203;0.9775;
-25.5000;0.6195;0.9822;
-25.2000;0.6219;0.9891;
-24.9000;0.6203;0.9868;
-24.6000;0.6203;0.9938;
-24.3000;0.6211;0.9938;
-24.0000;0.6203;0.9961;
-23.7000;0.6186;0.9961;
-23.4000;0.6203;1.0008;
-23.1000;0.6211;0.9984;
-22.8000;0.6252;1.0147;
-22.5000;0.6227;0.9984;
-22.2000;0.6186;0.9938;
-21.9000;0.6186;0.9868;
-21.6000;0.6227;0.9915;
-21.3000;0.6195;0.9822;
-21.0000;0.6203;0.9752;
-20.7000;0.6203;0.9729;
-20.4000;0.6203;0.9799;
-20.1000;0.6211;0.9891;
-19.8000;0.6203;0.9845;
-19.5000;0.6170;0.9775;
-19.2000;0.6203;0.9845;
-18.9000;0.6203;0.9868;
-18.6000;0.6219;0.9845;
-18.3000;0.6203;0.9752;
-18.0000;0.6154;0.9613;
-17.7000;0.6227;0.9799;
-17.4000;0.6211;0.9845;
-17.1000;0.6195;0.9799;
-16.8000;0.6219;0.9868;
-16.5000;0.6203;0.9915;
-16.2000;0.6170;0.9845;
-15.9000;0.6195;0.9961;
-15.6000;0.6146;0.9938;
-15.3000;0.6186;0.9915;
-15.0000;0.6203;0.9822;
-14.7000;0.6195;0.9799;
-14.4000;0.6170;0.9822;
-14.1000;0.6235;0.9891;
-13.8000;0.6203;0.9868;
-13.5000;0.6211;0.9938;
-13.2000;0.6219;0.9984;
-12.9000;0.6341;1.0309;
-12.6000;0.6203;0.9961;
-12.3000;0.6203;0.9915;
-12.0000;0.6203;0.9891;
-11.7000;0.6203;0.9891;
-11.4000;0.6195;1.0054;
-11.1000;0.6211;1.0077;
-10.8000;0.6195;0.9938;
-10.5000;0.6154;0.9822;
-10.2000;0.6203;0.9822;
-9.9000;0.6203;0.9822;
-9.6000;0.6211;0.9915;
-9.3000;0.6211;0.9775;
-9.0000;0.6211;0.9752;
-8.7000;0.6227;0.9868;
-8.4000;0.6203;0.9915;
-8.1000;0.6227;1.0008;
-7.8000;0.6219;1.0008;
-7.5000;0.6195;0.9915;
-7.2000;0.6195;0.9961;
-6.9000;0.6203;0.9984;
-6.6000;0.6211;1.0031;
-6.3000;0.6219;1.0100;
-6.0000;0.6203;1.0054;
-5.7000;0.6195;1.0077;
-5.4000;0.6195;1.0077;
-5.1000;0.6211;1.0124;
-4.8000;0.6203;1.0124;
-4.5000;0.6203;1.0100;
-4.2000;0.6203;1.0147;
-3.9000;0.6219;1.0124;
-3.6000;0.6195;1.0008;
-3.3000;0.6203;0.9938;
-3.0000;0.6195;0.9891;
-2.7000;0.6211;0.9961;
-2.4000;0.6211;1.0008;
-2.1000;0.6203;1.0008;
-1.8000;0.6203;0.9961;
-1.5000;0.6186;0.9984;
-1.2000;0.6227;1.0077;
-0.9000;0.6219;1.0100;
-0.6000;0.6211;1.0077;
-0.3000;0.6203;1.0100;
0.0000;0.6203;1.0100;
0.3000;0.6195;0.9938;
0.6000;0.6195;1.0170;
0.9000;0.6203;1.0449;
1.2000;0.6276;1.0704;
1.5000;0.6227;1.0774;
1.8000;0.6227;1.0983;
2.1000;0.6211;1.1029;
2.4000;0.6235;1.1122;
2.7000;0.6243;1.1099;
3.0000;0.6227;1.1122;
3.3000;0.6235;1.1099;
3.6000;0.6276;1.1192;
3.9000;0.6243;1.1192;
4.2000;0.6260;1.1215;
4.5000;0.6260;1.1377;
4.8000;0.6227;1.1401;
5.1000;0.6268;1.1494;
5.4000;0.6252;1.1494;
5.7000;0.6268;1.1610;
6.0000;0.6186;1.1377;
6.3000;0.6243;1.1586;
6.6000;0.6284;1.1772;
6.9000;0.6252;1.1726;
7.2000;0.6260;1.1586;
7.5000;0.6252;1.1586;
7.8000;0.6284;1.1633;
8.1000;0.6178;1.1447;
8.4000;0.6227;1.1517;
8.7000;0.6292;1.1586;
9.0000;0.6268;1.1586;
9.3000;0.6292;1.1633;
9.6000;0.6300;1.1726;
9.9000;0.6268;1.1679;
10.2000;0.6284;1.1749;
10.5000;0.6309;1.1772;
10.8000;0.6309;1.1842;
11.1000;0.6309;1.1865;
11.4000;0.6300;1.1842;
11.7000;0.6276;1.1749;
12.0000;0.6300;1.1749;
12.3000;0.6309;1.1772;
12.6000;0.6276;1.1586;
12.9000;0.6292;1.1633;
13.2000;0.6317;1.1540;
13.5000;0.6284;1.1540;
13.8000;0.6317;1.1586;
14.1000;0.6374;1.1703;
14.4000;0.6309;1.1586;
14.7000;0.6300;1.1563;
15.0000;0.6317;1.1679;
15.3000;0.6284;1.1633;
15.6000;0.6260;1.1563;
15.9000;0.6325;1.1703;
16.2000;0.6325;1.1656;
16.5000;0.6300;1.1656;
16.8000;0.6309;1.1633;
17.1000;0.6317;1.1610;
17.4000;0.6300;1.1517;
17.7000;0.6300;1.1470;
18.0000;0.6333;1.1494;
18.3000;0.6325;1.1447;
18.6000;0.6309;1.1540;
18.9000;0.6325;1.1679;
19.2000;0.6317;1.1679;
19.5000;0.6317;1.1610;
19.8000;0.6309;1.1633;
20.1000;0.6382;1.1865;
20.4000;0.6325;1.1679;
20.7000;0.6325;1.1656;
21.0000;0.6227;1.1494;
21.3000;0.6325;1.1679;
21.6000;0.6341;1.1703;
21.9000;0.6390;1.1819;
22.2000;0.6390;1.1912;
22.5000;0.6349;1.1842;
22.8000;0.6333;1.1749;
23.1000;0.6292;1.1540;
23.4000;0.6406;1.1912;
23.7000;0.6309;1.1679;
24.0000;0.6292;1.1610;
24.3000;0.6317;1.1679;
24.6000;0.6333;1.1679;
24.9000;0.6333;1.1703;
25.2000;0.6317;1.1610;
25.5000;0.6333;1.1703;
25.8000;0.6333;1.1633;
26.1000;0.6341;1.1633;
26.4000;0.6357;1.1726;
26.7000;0.6341;1.1726;
27.0000;0.6365;1.1726;
27.3000;0.6325;1.1703;
27.6000;0.6341;1.1749;
27.9000;0.6341;1.1656;
28.2000;0.6349;1.1610;
28.5000;0.6374;1.1610;
28.8000;0.6349;1.1540;
29.1000;0.6349;1.1563;
29.4000;0.6357;1.1447;
29.7000;0.6341;1.1308;
30.0000;0.6349;1.1331;
30.3000;0.6325;1.1331;
30.6000;0.6365;1.1494;
30.9000;0.6349;1.1540;
31.2000;0.6341;1.1470;
31.5000;0.6317;1.1377;
31.8000;0.6341;1.1424;
32.1000;0.6357;1.1424;
32.4000;0.6374;1.1563;
32.7000;0.6406;1.1563;
33.0000;0.6365;1.1540;
33.3000;0.6357;1.1540;
33.6000;0.6414;1.1633;
33.9000;0.6341;1.1540;
34.2000;0.6365;1.1563;
34.5000;0.6309;1.1354;
34.8000;0.6447;1.1749;
35.1000;0.6349;1.1494;
35.4000;0.6317;1.1354;
35.7000;0.6374;1.1633;
36.0000;0.6463;1.1795;
36.3000;0.6390;1.1517;
36.6000;0.6382;1.1517;
36.9000;0.6374;1.1424;
37.2000;0.6382;1.1377;
37.5000;0.6414;1.1401;
37.8000;0.6365;1.1285;
38.1000;0.6382;1.1308;
38.4000;0.6374;1.1354;
38.7000;0.6300;1.1238;
39.0000;0.6374;1.1354;
39.3000;0.6374;1.1308;
39.6000;0.6374;1.1308;
39.9000;0.6374;1.1285;
40.2000;0.6406;1.1308;
40.5000;0.6374;1.1168;
40.8000;0.6365;1.1215;
41.1000;0.6341;1.1099;
41.4000;0.6365;1.1145;
41.7000;0.6365;1.1145;
42.0000;0.6374;1.1215;
42.3000;0.6382;1.1261;
42.6000;0.6357;1.1308;
42.9000;0.6365;1.1261;
43.2000;0.6349;1.1215;
43.5000;0.6447;1.1401;
43.8000;0.6374;1.1192;
44.1000;0.6390;1.1192;
44.4000;0.6390;1.1215;
44.7000;0.6382;1.1261;
45.0000;0.6382;1.1261;
45.3000;0.6398;1.1354;
45.6000;0.6382;1.1215;
45.9000;0.6398;1.1215;
46.2000;0.6382;1.1215;
46.5000;0.6365;1.1215;
46.8000;0.6365;1.1192;
47.1000;0.6382;1.1145;
47.4000;0.6365;1.1238;
47.7000;0.6374;1.1261;
48.0000;0.6349;1.1168;
48.3000;0.6374;1.1308;
48.6000;0.6374;1.1354;
48.9000;0.6349;1.1331;
49.2000;0.6333;1.1238;
49.5000;0.6365;1.1308;
49.8000;0.6382;1.1331;
50.1000;0.6374;1.1238;
50.4000;0.6357;1.1215;
50.7000;0.6374;1.1285;
51.0000;0.6349;1.1238;
51.3000;0.6365;1.1308;
51.6000;0.6357;1.1238;
51.9000;0.6374;1.1192;
52.2000;0.6317;1.1029;
52.5000;0.6357;1.1261;
52.8000;0.6382;1.1354;
53.1000;0.6374;1.1377;
53.4000;0.6398;1.1540;
53.7000;0.6488;1.1819;
54.0000;0.6357;1.1494;
54.3000;0.6365;1.1377;
54.6000;0.6333;1.1215;
54.9000;0.6341;1.1238;
55.2000;0.6398;1.1285;
55.5000;0.6317;1.1215;
55.8000;0.6382;1.1377;
56.1000;0.6357;1.1377;
56.4000;0.6398;1.1470;
56.7000;0.6398;1.1447;
57.0000;0.6374;1.1401;
57.3000;0.6365;1.1401;
57.6000;0.6398;1.1494;
57.9000;0.6333;1.1308;
58.2000;0.6357;1.1331;
58.5000;0.6365;1.1331;
58.8000;0.6488;1.1656;
59.1000;0.6447;1.1633;
59.4000;0.6374;1.1331;
59.7000;0.6374;1.1401;
60.0000;0.6374;1.1331;
60.3000;0.6439;1.1447;
60.6000;0.6422;1.1424;
60.9000;0.6374;1.1331;
61.2000;0.6374;1.1285;
61.5000;0.6382;1.1261;
61.8000;0.6374;1.1215;
62.1000;0.6374;1.1308;
62.4000;0.6422;1.1401;
62.7000;0.6398;1.1377;
63.0000;0.6390;1.1238;
63.3000;0.6382;1.1122;
63.6000;0.6447;1.1215;
63.9000;0.6357;1.1122;
64.2000;0.6382;1.1238;
64.5000;0.6390;1.1261;
64.8000;0.6406;1.1308;
65.1000;0.6414;1.1401;
65.4000;0.6382;1.1354;
65.7000;0.6374;1.1308;
66.0000;0.6365;1.1331;
66.3000;0.6365;1.1192;
66.6000;0.6398;1.1215;
66.9000;0.6398;1.1238;
67.2000;0.6357;1.1122;
67.5000;0.6382;1.1145;
67.8000;0.6357;1.1076;
68.1000;0.6422;1.1122;
68.4000;0.6374;1.1006;
68.7000;0.6374;1.1099;
69.0000;0.6422;1.1308;
69.3000;0.6374;1.1285;
69.6000;0.6382;1.1331;
69.9000;0.6382;1.1238;
70.2000;0.6390;1.1261;
70.5000;0.6414;1.1308;
70.8000;0.6431;1.1401;
71.1000;0.6398;1.1308;
71.4000;0.6374;1.1285;
71.7000;0.6406;1.1401;
72.0000;0.6382;1.1308;
72.3000;0.6374;1.1331;
72.6000;0.6382;1.1331;
72.9000;0.6463;1.1447;
73.2000;0.6422;1.1331;
73.5000;0.6398;1.1401;
73.8000;0.6406;1.1540;
74.1000;0.6365;1.1494;
74.4000;0.6398;1.1540;
74.7000;0.6422;1.1470;
75.0000;0.6414;1.1377;
75.3000;0.6382;1.1285;
75.6000;0.6382;1.1285;
75.9000;0.6365;1.1331;
76.2000;0.6390;1.1377;
76.5000;0.6341;1.1261;
76.8000;0.6406;1.1308;
77.1000;0.6390;1.1261;
77.4000;0.6374;1.1238;
77.7000;0.6406;1.1238;
78.0000;0.6390;1.1099;
78.3000;0.6390;1.1122;
78.6000;0.6488;1.1401;
78.9000;0.6406;1.1238;
79.2000;0.6357;1.1145;
79.5000;0.6398;1.1285;
79.8000;0.6374;1.1122;
80.1000;0.6447;1.1308;
80.4000;0.6398;1.1285;
80.7000;0.6439;1.1285;
81.0000;0.6398;1.1215;
81.3000;0.6398;1.1215;
81.6000;0.6398;1.1145;
81.9000;0.6390;1.1099;
82.2000;0.6390;1.1122;
82.5000;0.6390;1.1122;
82.8000;0.6382;1.1052;
83.1000;0.6374;1.0960;
83.4000;0.6390;1.1076;
83.7000;0.6382;1.1122;
84.0000;0.6382;1.1192;
84.3000;0.6374;1.1192;
84.6000;0.6349;1.1099;
84.9000;0.6382;1.1168;
85.2000;0.6390;1.1238;
85.5000;0.6382;1.1192;
85.8000;0.6390;1.1261;
86.1000;0.6406;1.1215;
86.4000;0.6390;1.1261;
86.7000;0.6455;1.1424;
87.0000;0.6390;1.1261;
87.3000;0.6374;1.1285;
87.6000;0.6382;1.1168;
87.9000;0.6414;1.1145;
88.2000;0.6374;1.1029;
88.5000;0.6398;1.1215;
88.8000;0.6390;1.1122;
89.1000;0.6357;1.1029;
89.4000;0.6382;1.1052;
89.7000;0.6382;1.1145;
90.0000;0.6398;1.1168;
90.3000;0.6390;1.1145;
90.6000;0.6382;1.1029;
90.9000;0.6390;1.1052;
91.2000;0.6357;1.1006;
91.5000;0.6414;1.1192;
91.8000;0.6374;1.1076;
92.1000;0.6382;1.1029;
92.4000;0.6406;1.1076;
92.7000;0.6333;1.0913;
93.0000;0.6325;1.0913;
93.3000;0.6390;1.1052;
93.6000;0.6390;1.0983;
93.9000;0.6471;1.1215;
94.2000;0.6398;1.1122;
94.5000;0.6357;1.1099;
94.8000;0.6520;1.1517;
95.1000;0.6390;1.1238;
95.4000;0.6406;1.1285;
95.7000;0.6390;1.1285;
96.0000;0.6406;1.1354;
96.3000;0.6414;1.1285;
96.6000;0.6357;1.1192;
96.9000;0.6390;1.1261;
97.2000;0.6357;1.1215;
97.5000;0.6374;1.1238;
97.8000;0.6382;1.1145;
98.1000;0.6365;1.1168;
98.4000;0.6365;1.1192;
98.7000;0.6390;1.1168;
99.0000;0.6374;1.1122;
99.3000;0.6390;1.1076;
99.6000;0.6390;1.1052;
99.9000;0.6382;1.1029;
100.2000;0.6374;1.1029;
100.5000;0.6357;1.0983;
100.8000;0.6357;1.1029;
101.1000;0.6390;1.1076;
101.4000;0.6398;1.1122;
101.7000;0.6390;1.1145;
102.0000;0.6471;1.1331;
102.3000;0.6382;1.1215;
102.6000;0.6357;1.1192;
102.9000;0.6374;1.1261;
103.2000;0.6365;1.1285;
103.5000;0.6390;1.1308;
103.8000;0.6398;1.1285;
104.1000;0.6382;1.1308;
104.4000;0.6382;1.1215;
104.7000;0.6333;1.1122;
105.0000;0.6357;1.1168;
105.3000;0.6390;1.1285;
105.6000;0.6398;1.1377;
105.9000;0.6390;1.1331;
106.2000;0.6406;1.1308;
106.5000;0.6374;1.1285;
106.8000;0.6390;1.1331;
107.1000;0.6382;1.1354;
107.4000;0.6365;1.1285;
107.7000;0.6479;1.1586;
108.0000;0.6463;1.1540;
108.3000;0.6374;1.1308;
108.6000;0.6382;1.1377;
108.9000;0.6382;1.1401;
109.2000;0.6357;1.1377;
109.5000;0.6382;1.1494;
109.8000;0.6365;1.1261;
110.1000;0.6374;1.1192;
110.4000;0.6357;1.1122;
110.7000;0.6365;1.1006;
111.0000;0.6390;1.1076;
111.3000;0.6382;1.1099;
111.6000;0.6374;1.1145;
111.9000;0.6390;1.1285;
112.2000;0.6390;1.1331;
112.5000;0.6365;1.1215;
112.8000;0.6365;1.1168;
113.1000;0.6365;1.1261;
113.4000;0.6382;1.1354;
113.7000;0.6390;1.1354;
114.0000;0.6455;1.1424;
114.3000;0.6390;1.1238;
114.6000;0.6390;1.1377;
114.9000;0.6414;1.1424;
115.2000;0.6406;1.1424;
115.5000;0.6390;1.1377;
115.8000;0.6406;1.1424;
116.1000;0.6406;1.1424;
116.4000;0.6382;1.1354;
116.7000;0.6431;1.1401;
117.0000;0.6398;1.1424;
117.3000;0.6357;1.1285;
117.6000;0.6398;1.1377;
117.9000;0.6390;1.1470;
118.2000;0.6309;1.1308;
118.5000;0.6374;1.1401;
118.8000;0.6398;1.1424;
119.1000;0.6414;1.1377;
119.4000;0.6374;1.1215;
119.7000;0.6382;1.1168;
120.0000;0.6382;1.1285;
120.3000;0.6390;1.1238;
120.6000;0.6406;1.1354;
120.9000;0.6398;1.1377;
121.2000;0.6374;1.1377;
121.5000;0.6463;1.1656;
121.8000;0.6406;1.1517;
122.1000;0.6390;1.1354;
122.4000;0.6390;1.1354;
122.7000;0.6390;1.1285;
123.0000;0.6382;1.1285;
123.3000;0.6374;1.1215;
123.6000;0.6374;1.1261;
123.9000;0.6390;1.1192;
124.2000;0.6365;1.1168;
124.5000;0.6382;1.1308;
124.8000;0.6390;1.1424;
125.1000;0.6382;1.1517;
125.4000;0.6374;1.1470;
125.7000;0.6398;1.1633;
126.0000;0.6382;1.1610;
126.3000;0.6398;1.1656;
126.6000;0.6300;1.1377;
126.9000;0.6333;1.1401;
127.2000;0.6365;1.1447;
127.5000;0.6406;1.1540;
127.8000;0.6374;1.1447;
128.1000;0.6455;1.1517;
128.4000;0.6374;1.1261;
128.7000;0.6398;1.1447;
129.0000;0.6414;1.1470;
129.3000;0.6439;1.1447;
129.6000;0.6374;1.1331;
129.9000;0.6374;1.1354;
130.2000;0.6365;1.1261;
130.5000;0.6414;1.1401;
130.8000;0.6398;1.1401;
131.1000;0.6439;1.1447;
131.4000;0.6382;1.1470;
131.7000;0.6414;1.1563;
132.0000;0.6390;1.1447;
132.3000;0.6414;1.1494;
132.6000;0.6455;1.1586;
132.9000;0.6390;1.1401;
133.2000;0.6414;1.1447;
133.5000;0.6374;1.1331;
133.8000;0.6365;1.1215;
134.1000;0.6374;1.1285;
134.4000;0.6365;1.1238;
134.7000;0.6374;1.1285;
135.0000;0.6374;1.1261;
135.3000;0.6365;1.1308;
135.6000;0.6365;1.1285;
135.9000;0.6382;1.1261;
136.2000;0.6398;1.1261;
136.5000;0.6390;1.1354;
136.8000;0.6365;1.1261;
137.1000;0.6382;1.1238;
137.4000;0.6398;1.1308;
137.7000;0.6365;1.1331;
138.0000;0.6390;1.1377;
138.3000;0.6439;1.1494;
138.6000;0.6390;1.1424;
138.9000;0.6357;1.1354;
139.2000;0.6374;1.1354;
139.5000;0.6414;1.1424;
139.8000;0.6374;1.1447;
140.1000;0.6365;1.1447;
140.4000;0.6309;1.1308;
140.7000;0.6374;1.1447;
141.0000;0.6488;1.1679;
141.3000;0.6357;1.1308;
141.6000;0.6365;1.1377;
141.9000;0.6390;1.1517;
142.2000;0.6382;1.1610;
142.5000;0.6431;1.1749;
142.8000;0.6365;1.1586;
143.1000;0.6374;1.1656;
143.4000;0.6406;1.1633;
143.7000;0.6365;1.1517;
144.0000;0.6341;1.1517;
144.3000;0.6390;1.1656;
144.6000;0.6365;1.1586;
144.9000;0.6365;1.1563;
145.2000;0.6390;1.1656;
145.5000;0.6374;1.1633;
145.8000;0.6374;1.1563;
146.1000;0.6382;1.1517;
146.4000;0.6317;1.1261;
146.7000;0.6374;1.1540;
147.0000;0.6365;1.1517;
147.3000;0.6463;1.1633;
147.6000;0.6382;1.1540;
147.9000;0.6390;1.1540;
148.2000;0.6406;1.1470;
148.5000;0.6382;1.1401;
148.8000;0.6374;1.1377;
149.1000;0.6349;1.1215;
149.4000;0.6325;1.1168;
149.7000;0.6471;1.1540;
150.0000;0.6309;1.1122;
150.3000;0.6374;1.1354;
150.6000;0.6349;1.1215;
150.9000;0.6374;1.1238;
151.2000;0.6390;1.1331;
151.5000;0.6374;1.1308;
151.8000;0.6374;1.1377;
152.1000;0.6390;1.1563;
152.4000;0.6374;1.1517;
152.7000;0.6357;1.1494;
153.0000;0.6390;1.1540;
153.3000;0.6398;1.1586;
153.6000;0.6349;1.1447;
153.9000;0.6365;1.1470;
154.2000;0.6341;1.1447;
154.5000;0.6317;1.1331;
154.8000;0.6374;1.1447;
155.1000;0.6357;1.1308;
155.4000;0.6357;1.1261;
155.7000;0.6414;1.1331;
156.0000;0.6398;1.1285;
156.3000;0.6365;1.1285;
156.6000;0.6365;1.1285;
156.9000;0.6374;1.1261;
157.2000;0.6398;1.1377;
157.5000;0.6382;1.1308;
157.8000;0.6374;1.1354;
158.1000;0.6382;1.1285;
158.4000;0.6382;1.1261;
158.7000;0.6365;1.1331;
159.0000;0.6382;1.1377;
159.3000;0.6374;1.1377;
159.6000;0.6374;1.1331;
159.9000;0.6398;1.1494;
160.2000;0.6357;1.1401;
160.5000;0.6374;1.1447;
160.8000;0.6382;1.1494;
161.1000;0.6365;1.1447;
161.4000;0.6365;1.1401;
161.7000;0.6374;1.1424;
162.0000;0.6365;1.1354;
162.3000;0.6382;1.1401;
162.6000;0.6382;1.1401;
162.9000;0.6390;1.1470;
163.2000;0.6349;1.1424;
163.5000;0.6365;1.1447;
163.8000;0.6382;1.1494;
164.1000;0.6382;1.1517;
164.4000;0.6365;1.1494;
164.7000;0.6382;1.1494;
165.0000;0.6374;1.1540;
165.3000;0.6382;1.1633;
165.6000;0.6365;1.1633;
165.9000;0.6374;1.1679;
166.2000;0.6382;1.1586;
166.5000;0.6398;1.1517;
166.8000;0.6374;1.1517;
167.1000;0.6390;1.1517;
167.4000;0.6422;1.1703;
167.7000;0.6365;1.1494;
168.0000;0.6374;1.1494;
168.3000;0.6357;1.1447;
168.6000;0.6374;1.1401;
168.9000;0.6365;1.1331;
169.2000;0.6382;1.1308;
169.5000;0.6390;1.1238;
169.8000;0.6439;1.1470;
170.1000;0.6374;1.1285;
170.4000;0.6422;1.1401;
170.7000;0.6317;1.1331;
171.0000;0.6374;1.1633;
171.3000;0.6398;1.1749;
171.6000;0.6398;1.1656;
171.9000;0.6365;1.1540;
172.2000;0.6284;1.1261;
172.5000;0.6374;1.1424;
172.8000;0.6382;1.1517;
173.1000;0.6406;1.1563;
173.4000;0.6447;1.1563;
173.7000;0.6365;1.1377;
174.0000;0.6382;1.1424;
174.3000;0.6341;1.1354;
174.6000;0.6390;1.1494;
174.9000;0.6382;1.1447;
175.2000;0.6365;1.1377;
175.5000;0.6365;1.1308;
175.8000;0.6398;1.1470;
176.1000;0.6374;1.1401;
176.4000;0.6382;1.1354;
176.7000;0.6365;1.1308;
177.0000;0.6382;1.1377;
177.3000;0.6357;1.1285;
177.6000;0.6390;1.1331;
177.9000;0.6390;1.1354;
178.2000;0.6382;1.1447;
178.5000;0.6341;1.1470;
178.8000;0.6374;1.1470;
179.1000;0.6365;1.1447;
179.4000;0.6374;1.1494;
179.7000;0.6349;1.1401;
180.0000;0.6357;1.1354;
180.3000;0.6382;1.1308;
180.6000;0.6374;1.1331;
180.9000;0.6357;1.1331;
181.2000;0.6357;1.1377;
181.5000;0.6349;1.1401;
181.8000;0.6365;1.1447;
182.1000;0.6390;1.1517;
182.4000;0.6382;1.1517;
182.7000;0.6365;1.1563;
183.0000;0.6374;1.1586;
183.3000;0.6365;1.1586;
183.6000;0.6374;1.1610;
183.9000;0.6365;1.1540;
184.2000;0.6374;1.1470;
184.5000;0.6382;1.1633;
184.8000;0.6374;1.1610;
185.1000;0.6406;1.1610;
185.4000;0.6390;1.1586;
185.7000;0.6374;1.1494;
186.0000;0.6357;1.1447;
186.3000;0.6374;1.1470;
186.6000;0.6382;1.1447;
186.9000;0.6471;1.1703;
187.2000;0.6390;1.1517;
187.5000;0.6325;1.1354;
187.8000;0.6382;1.1517;
188.1000;0.6374;1.1517;
188.4000;0.6447;1.1703;
188.7000;0.6365;1.1517;
189.0000;0.6276;1.1192;
189.3000;0.6390;1.1401;
189.6000;0.6390;1.1331;
189.9000;0.6414;1.1470;
190.2000;0.6382;1.1354;
190.5000;0.6390;1.1447;
190.8000;0.6349;1.1424;
191.1000;0.6374;1.1447;
191.4000;0.6365;1.1447;
191.7000;0.6374;1.1424;
192.0000;0.6382;1.1447;
192.3000;0.6365;1.1494;
192.6000;0.6374;1.1517;
192.9000;0.6382;1.1540;
193.2000;0.6390;1.1563;
193.5000;0.6382;1.1563;
193.8000;0.6390;1.1610;
194.1000;0.6382;1.1517;
194.4000;0.6463;1.1656;
194.7000;0.6414;1.1517;
195.0000;0.6357;1.1308;
195.3000;0.6349;1.1377;
195.6000;0.6333;1.1354;
195.9000;0.6365;1.1424;
196.2000;0.6374;1.1447;
196.5000;0.6365;1.1424;
196.8000;0.6365;1.1447;
197.1000;0.6439;1.1610;
197.4000;0.6365;1.1401;
197.7000;0.6406;1.1540;
198.0000;0.6357;1.1494;
198.3000;0.6390;1.1703;
198.6000;0.6374;1.1726;
198.9000;0.6349;1.1726;
199.2000;0.6365;1.1656;
199.5000;0.6365;1.1586;
199.8000;0.6390;1.1633;
200.1000;0.6365;1.1656;
200.4000;0.6349;1.1610;
200.7000;0.6422;1.1749;
201.0000;0.6357;1.1563;
201.3000;0.6365;1.1563;
201.6000;0.6365;1.1494;
201.9000;0.6357;1.1494;
202.2000;0.6365;1.1540;
202.5000;0.6357;1.1540;
202.8000;0.6382;1.1633;
203.1000;0.6365;1.1610;
203.4000;0.6365;1.1679;
203.7000;0.6365;1.1726;
204.0000;0.6479;1.2028;
204.3000;0.6382;1.1726;
204.6000;0.6357;1.1610;
204.9000;0.6341;1.1563;
205.2000;0.6365;1.1610;
205.5000;0.6374;1.1563;
205.8000;0.6382;1.1679;
206.1000;0.6374;1.1749;
206.4000;0.6390;1.1865;
206.7000;0.6374;1.1912;
207.0000;0.6374;1.1865;
207.3000;0.6382;1.1865;
207.6000;0.6390;1.1819;
207.9000;0.6374;1.1749;
208.2000;0.6357;1.1679;
208.5000;0.6382;1.1656;
208.8000;0.6317;1.1494;
209.1000;0.6357;1.1563;
209.4000;0.6333;1.1517;
209.7000;0.6382;1.1563;
210.0000;0.6341;1.1447;
210.3000;0.6374;1.1633;
210.6000;0.6382;1.1633;
210.9000;0.6374;1.1586;
211.2000;0.6374;1.1494;
211.5000;0.6374;1.1494;
211.8000;0.6357;1.1470;
212.1000;0.6357;1.1517;
212.4000;0.6333;1.1563;
212.7000;0.6390;1.1517;
213.0000;0.6406;1.1563;
213.3000;0.6357;1.1494;
213.6000;0.6349;1.1563;
213.9000;0.6390;1.1749;
214.2000;0.6365;1.1703;
214.5000;0.6357;1.1795;
214.8000;0.6382;1.1819;
215.1000;0.6382;1.1703;
215.4000;0.6374;1.1586;
215.7000;0.6374;1.1586;
216.0000;0.6414;1.1610;
216.3000;0.6365;1.1540;
216.6000;0.6341;1.1563;
216.9000;0.6365;1.1563;
217.2000;0.6349;1.1517;
217.5000;0.6349;1.1494;
217.8000;0.6349;1.1470;
218.1000;0.6349;1.1401;
218.4000;0.6398;1.1470;
218.7000;0.6349;1.1354;
219.0000;0.6349;1.1447;
219.3000;0.6341;1.1470;
219.6000;0.6382;1.1633;
219.9000;0.6382;1.1656;
220.2000;0.6374;1.1656;
220.5000;0.6317;1.1586;
220.8000;0.6365;1.1610;
221.1000;0.6357;1.1656;
221.4000;0.6357;1.1772;
221.7000;0.6333;1.1656;
222.0000;0.6365;1.1610;
222.3000;0.6349;1.1610;
222.6000;0.6382;1.1656;
222.9000;0.6365;1.1563;
223.2000;0.6357;1.1586;
223.5000;0.6365;1.1517;
223.8000;0.6382;1.1470;
224.1000;0.6382;1.1494;
224.4000;0.6390;1.1540;
224.7000;0.6374;1.1586;
225.0000;0.6382;1.1726;
225.3000;0.6390;1.1749;
225.6000;0.6382;1.1703;
225.9000;0.6374;1.1679;
226.2000;0.6382;1.1656;
226.5000;0.6292;1.1470;
226.8000;0.6365;1.1679;
227.1000;0.6357;1.1656;
227.4000;0.6365;1.1586;
227.7000;0.6357;1.1470;
228.0000;0.6349;1.1447;
228.3000;0.6365;1.1517;
228.6000;0.6382;1.1447;
228.9000;0.6382;1.1377;
229.2000;0.6382;1.1377;
229.5000;0.6365;1.1308;
229.8000;0.6374;1.1424;
230.1000;0.6374;1.1401;
230.4000;0.6374;1.1377;
230.7000;0.6365;1.1331;
231.0000;0.6365;1.1424;
231.3000;0.6357;1.1517;
231.6000;0.6374;1.1633;
231.9000;0.6382;1.1656;
232.2000;0.6365;1.1610;
232.5000;0.6292;1.1331;
232.8000;0.6357;1.1494;
233.1000;0.6365;1.1540;
233.4000;0.6382;1.1656;
233.7000;0.6382;1.1633;
234.0000;0.6349;1.1610;
234.3000;0.6333;1.1540;
234.6000;0.6374;1.1586;
234.9000;0.6374;1.1517;
235.2000;0.6390;1.1610;
235.5000;0.6390;1.1610;
235.8000;0.6382;1.1470;
236.1000;0.6365;1.1470;
236.4000;0.6382;1.1610;
236.7000;0.6374;1.1633;
237.0000;0.6357;1.1517;
237.3000;0.6365;1.1563;
237.6000;0.6365;1.1540;
237.9000;0.6357;1.1517;
238.2000;0.6365;1.1424;
238.5000;0.6374;1.1447;
238.8000;0.6382;1.1540;
239.1000;0.6365;1.1540;
239.4000;0.6365;1.1586;
239.7000;0.6365;1.1540;
240.0000;0.6382;1.1517;
240.3000;0.6365;1.1494;
240.6000;0.6390;1.1586;
240.9000;0.6374;1.1563;
241.2000;0.6260;1.1308;
241.5000;0.6365;1.1517;
241.8000;0.6374;1.1563;
242.1000;0.6325;1.1424;
242.4000;0.6357;1.1494;
242.7000;0.6365;1.1470;
243.0000;0.6317;1.1401;
243.3000;0.6357;1.1586;
243.6000;0.6309;1.1494;
243.9000;0.6333;1.1586;
244.2000;0.6382;1.1772;
244.5000;0.6317;1.1563;
244.8000;0.6365;1.1679;
245.1000;0.6365;1.1679;
245.4000;0.6365;1.1679;
245.7000;0.6349;1.1633;
246.0000;0.6374;1.1726;
246.3000;0.6374;1.1726;
246.6000;0.6333;1.1633;
246.9000;0.6349;1.1633;
247.2000;0.6390;1.1795;
247.5000;0.6333;1.1470;
247.8000;0.6349;1.1563;
248.1000;0.6235;1.1308;
248.4000;0.6349;1.1563;
248.7000;0.6349;1.1470;
249.0000;0.6349;1.1494;
249.3000;0.6374;1.1540;
249.6000;0.6382;1.1517;
249.9000;0.6374;1.1540;
250.2000;0.6333;1.1494;
250.5000;0.6292;1.1424;
250.8000;0.6374;1.1610;
251.1000;0.6365;1.1517;
251.4000;0.6365;1.1563;
251.7000;0.6374;1.1633;
252.0000;0.6349;1.1494;
252.3000;0.6349;1.1424;
252.6000;0.6357;1.1447;
252.9000;0.6406;1.1586;
253.2000;0.6349;1.1377;
253.5000;0.6357;1.1447;
253.8000;0.6357;1.1470;
254.1000;0.6357;1.1447;
254.4000;0.6365;1.1494;
254.7000;0.6390;1.1517;
255.0000;0.6333;1.1470;
255.3000;0.6357;1.1656;
255.6000;0.6341;1.1656;
255.9000;0.6365;1.1726;
256.2000;0.6365;1.1772;
256.5000;0.6439;1.1981;
256.8000;0.6374;1.1772;
257.1000;0.6365;1.1633;
257.4000;0.6357;1.1540;
257.7000;0.6374;1.1633;
258.0000;0.6374;1.1517;
258.3000;0.6431;1.1610;
258.6000;0.6357;1.1447;
258.9000;0.6276;1.1238;
259.2000;0.6365;1.1401;
259.5000;0.6365;1.1401;
259.8000;0.6382;1.1377;
260.1000;0.6374;1.1354;
260.4000;0.6357;1.1285;
260.7000;0.6374;1.1308;
261.0000;0.6365;1.1377;
261.3000;0.6357;1.1261;
261.6000;0.6382;1.1401;
261.9000;0.6374;1.1354;
262.2000;0.6357;1.1377;
262.5000;0.6300;1.1238;
262.8000;0.6349;1.1401;
263.1000;0.6422;1.1610;
263.4000;0.6374;1.1447;
263.7000;0.6406;1.1424;
264.0000;0.6365;1.1331;
264.3000;0.6390;1.1377;
264.6000;0.6390;1.1377;
264.9000;0.6374;1.1308;
265.2000;0.6398;1.1401;
265.5000;0.6357;1.1331;
265.8000;0.6365;1.1517;
266.1000;0.6422;1.1586;
266.4000;0.6414;1.1656;
266.7000;0.6439;1.1703;
267.0000;0.6357;1.1447;
267.3000;0.6227;1.1076;
267.6000;0.6357;1.1261;
267.9000;0.6341;1.1192;
268.2000;0.6341;1.1261;
268.5000;0.6357;1.1308;
268.8000;0.6276;1.1145;
269.1000;0.6374;1.1215;
269.4000;0.6276;1.1029;
269.7000;0.6398;1.1331;
270.0000;0.6357;1.1261;
270.3000;0.6365;1.1215;
270.6000;0.6333;1.1076;
270.9000;0.6382;1.1261;
271.2000;0.6382;1.1261;
271.5000;0.6382;1.1354;
271.8000;0.6374;1.1354;
272.1000;0.6341;1.1308;
272.4000;0.6357;1.1308;
272.7000;0.6365;1.1401;
273.0000;0.6365;1.1401;
273.3000;0.6341;1.1354;
273.6000;0.6333;1.1354;
273.9000;0.6365;1.1308;
274.2000;0.6357;1.1331;
274.5000;0.6365;1.1331;
274.8000;0.6374;1.1331;
275.1000;0.6374;1.1401;
275.4000;0.6382;1.1447;
275.7000;0.6390;1.1354;
276.0000;0.6357;1.1308;
276.3000;0.6382;1.1377;
276.6000;0.6365;1.1261;
276.9000;0.6365;1.1238;
277.2000;0.6365;1.1192;
277.5000;0.6382;1.1215;
277.8000;0.6357;1.1192;
278.1000;0.6374;1.1215;
278.4000;0.6365;1.1215;
278.7000;0.6374;1.1308;
279.0000;0.6349;1.1331;
279.3000;0.6309;1.1168;
279.6000;0.6349;1.1238;
279.9000;0.6374;1.1168;
280.2000;0.6349;1.1145;
280.5000;0.6390;1.1215;
280.8000;0.6349;1.1145;
281.1000;0.6325;1.1076;
281.4000;0.6365;1.1238;
281.7000;0.6374;1.1238;
282.0000;0.6357;1.1145;
282.3000;0.6365;1.1192;
282.6000;0.6374;1.1145;
282.9000;0.6349;1.1076;
283.2000;0.6357;1.1099;
283.5000;0.6349;1.1122;
283.8000;0.6374;1.1192;
284.1000;0.6365;1.1192;
284.4000;0.6374;1.1168;
284.7000;0.6357;1.1215;
285.0000;0.6357;1.1192;
285.3000;0.6365;1.1122;
285.6000;0.6382;1.1168;
285.9000;0.6341;1.1122;
286.2000;0.6349;1.1192;
286.5000;0.6414;1.1401;
286.8000;0.6357;1.1377;
287.1000;0.6365;1.1470;
287.4000;0.6390;1.1656;
287.7000;0.6349;1.1540;
288.0000;0.6365;1.1517;
288.3000;0.6406;1.1563;
288.6000;0.6333;1.1470;
288.9000;0.6365;1.1424;
289.2000;0.6309;1.1308;
289.5000;0.6333;1.1377;
289.8000;0.6341;1.1354;
290.1000;0.6341;1.1261;
290.4000;0.6374;1.1447;
290.7000;0.6333;1.1308;
291.0000;0.6349;1.1424;
291.3000;0.6382;1.1517;
291.6000;0.6317;1.1331;
291.9000;0.6349;1.1354;
292.2000;0.6341;1.1377;
292.5000;0.6341;1.1308;
292.8000;0.6349;1.1401;
293.1000;0.6365;1.1424;
293.4000;0.6349;1.1470;
293.7000;0.6431;1.1610;
294.0000;0.6349;1.1424;
294.3000;0.6341;1.1377;
294.6000;0.6365;1.1377;
294.9000;0.6284;1.1122;
295.2000;0.6341;1.1308;
295.5000;0.6365;1.1447;
295.8000;0.6357;1.1424;
296.1000;0.6341;1.1447;
296.4000;0.6357;1.1424;
296.7000;0.6365;1.1470;
297.0000;0.6382;1.1494;
297.3000;0.6349;1.1494;
297.6000;0.6365;1.1494;
297.9000;0.6357;1.1470;
298.2000;0.6374;1.1563;
298.5000;0.6357;1.1447;
298.8000;0.6357;1.1447;
299.1000;0.6357;1.1377;
299.4000;0.6374;1.1331;
299.7000;0.6431;1.1447;
300.0000;0.6317;1.1215;
300.3000;0.6382;1.1401;
300.6000;0.6341;1.1354;
300.9000;0.6357;1.1424;
301.2000;0.6357;1.1354;
301.5000;0.6374;1.1377;
301.8000;0.6365;1.1308;
302.1000;0.6382;1.1215;
302.4000;0.6325;1.1076;
302.7000;0.6341;1.1099;
303.0000;0.6365;1.1145;
303.3000;0.6374;1.1145;
303.6000;0.6382;1.1215;
303.9000;0.6455;1.1424;
304.2000;0.6365;1.1238;
304.5000;0.6292;1.1029;
304.8000;0.6349;1.1145;
305.1000;0.6349;1.1076;
305.4000;0.6414;1.1261;
305.7000;0.6374;1.1238;
306.0000;0.6349;1.1238;
306.3000;0.6349;1.1261;
306.6000;0.6357;1.1401;
306.9000;0.6365;1.1447;
307.2000;0.6317;1.1401;
307.5000;0.6382;1.1447;
307.8000;0.6374;1.1377;
308.1000;0.6365;1.1354;
308.4000;0.6365;1.1354;
308.7000;0.6357;1.1308;
309.0000;0.6341;1.1238;
309.3000;0.6365;1.1215;
309.6000;0.6374;1.1145;
309.9000;0.6390;1.1215;
310.2000;0.6374;1.1168;
310.5000;0.6365;1.1145;
310.8000;0.6357;1.1215;
311.1000;0.6365;1.1238;
311.4000;0.6382;1.1145;
311.7000;0.6349;1.0913;
312.0000;0.6365;1.0936;
312.3000;0.6365;1.0960;
312.6000;0.6349;1.0960;
312.9000;0.6357;1.1029;
313.2000;0.6357;1.1029;
313.5000;0.6309;1.0936;
313.8000;0.6422;1.1145;
314.1000;0.6349;1.1076;
314.4000;0.6357;1.1145;
314.7000;0.6349;1.1168;
315.0000;0.6357;1.1215;
315.3000;0.6357;1.1238;
315.6000;0.6300;1.1261;
315.9000;0.6365;1.1424;
316.2000;0.6365;1.1447;
316.5000;0.6357;1.1447;
316.8000;0.6349;1.1377;
317.1000;0.6374;1.1494;
317.4000;0.6382;1.1540;
317.7000;0.6341;1.1354;
318.0000;0.6357;1.1424;
318.3000;0.6349;1.1331;
318.6000;0.6365;1.1470;
318.9000;0.6341;1.1401;
319.2000;0.6357;1.1424;
319.5000;0.6422;1.1540;
319.8000;0.6349;1.1331;
320.1000;0.6374;1.1215;
320.4000;0.6349;1.1168;
320.7000;0.6365;1.1168;
321.0000;0.6341;1.1122;
321.3000;0.6357;1.1076;
321.6000;0.6357;1.1052;
321.9000;0.6357;1.1029;
322.2000;0.6357;1.1029;
322.5000;0.6357;1.1122;
322.8000;0.6284;1.0983;
323.1000;0.6341;1.1052;
323.4000;0.6357;1.1099;
323.7000;0.6349;1.1215;
324.0000;0.6349;1.1099;
324.3000;0.6341;1.1052;
324.6000;0.6341;1.1076;
324.9000;0.6292;1.0936;
325.2000;0.6349;1.1192;
325.5000;0.6365;1.1215;
325.8000;0.6292;1.1076;
326.1000;0.6357;1.1168;
326.4000;0.6406;1.1331;
326.7000;0.6406;1.1285;
327.0000;0.6300;1.0960;
327.3000;0.6333;1.1099;
327.6000;0.6357;1.1099;
327.9000;0.6341;1.1006;
328.2000;0.6341;1.1006;
328.5000;0.6357;1.1076;
328.8000;0.6341;1.1145;
329.1000;0.6333;1.1215;
329.4000;0.6333;1.1261;
329.7000;0.6325;1.1192;
330.0000;0.6349;1.1285;
330.3000;0.6357;1.1308;
330.6000;0.6382;1.1401;
330.9000;0.6365;1.1308;
331.2000;0.6365;1.1377;
331.5000;0.6333;1.1354;
331.8000;0.6341;1.1377;
332.1000;0.6341;1.1424;
332.4000;0.6349;1.1354;
332.7000;0.6341;1.1238;
333.0000;0.6365;1.1331;
333.3000;0.6365;1.1331;
333.6000;0.6365;1.1354;
333.9000;0.6374;1.1377;
334.2000;0.6374;1.1261;
334.5000;0.6365;1.1285;
334.8000;0.6365;1.1285;
335.1000;0.6341;1.1261;
335.4000;0.6357;1.1285;
335.7000;0.6357;1.1308;
336.0000;0.6333;1.1238;
336.3000;0.6349;1.1308;
336.6000;0.6252;1.1122;
336.9000;0.6333;1.1354;
337.2000;0.6349;1.1470;
337.5000;0.6349;1.1447;
337.8000;0.6357;1.1470;
338.1000;0.6349;1.1401;
338.4000;0.6341;1.1377;
338.7000;0.6374;1.1470;
339.0000;0.6357;1.1470;
339.3000;0.6349;1.1331;
339.6000;0.6365;1.1470;
339.9000;0.6341;1.1494;
340.2000;0.6365;1.1447;
340.5000;0.6349;1.1447;
340.8000;0.6349;1.1401;
341.1000;0.6333;1.1377;
341.4000;0.6374;1.1377;
341.7000;0.6357;1.1354;
342.0000;0.6365;1.1401;
342.3000;0.6349;1.1354;
342.6000;0.6357;1.1354;
342.9000;0.6365;1.1424;
343.2000;0.6333;1.1401;
343.5000;0.6374;1.1470;
343.8000;0.6357;1.1447;
344.1000;0.6341;1.1377;
344.4000;0.6349;1.1308;
344.7000;0.6317;1.1238;
345.0000;0.6349;1.1331;
345.3000;0.6341;1.1424;
345.6000;0.6374;1.1540;
345.9000;0.6357;1.1424;
346.2000;0.6374;1.1470;
346.5000;0.6374;1.1470;
346.8000;0.6357;1.1377;
347.1000;0.6365;1.1331;
347.4000;0.6382;1.1401;
347.7000;0.6357;1.1424;
348.0000;0.6390;1.1517;
348.3000;0.6309;1.1354;
348.6000;0.6374;1.1494;
348.9000;0.6365;1.1517;
349.2000;0.6349;1.1540;
349.5000;0.6349;1.1424;
349.8000;0.6349;1.1401;
350.1000;0.6349;1.1401;
350.4000;0.6325;1.1424;
350.7000;0.6357;1.1517;
351.0000;0.6341;1.1447;
351.3000;0.6414;1.1586;
351.6000;0.6349;1.1424;
351.9000;0.6357;1.1447;
352.2000;0.6374;1.1447;
352.5000;0.6300;1.1285;
352.8000;0.6422;1.1540;
353.1000;0.6414;1.1517;
353.4000;0.6333;1.1354;
353.7000;0.6341;1.1354;
354.0000;0.6341;1.1354;
354.3000;0.6365;1.1470;
354.6000;0.6374;1.1586;
354.9000;0.6349;1.1633;
355.2000;0.6365;1.1726;
355.5000;0.6349;1.1679;
355.8000;0.6365;1.1563;
356.1000;0.6341;1.1494;
356.4000;0.6365;1.1470;
356.7000;0.6333;1.1401;
357.0000;0.6357;1.1517;
357.3000;0.6325;1.1447;
357.6000;0.6341;1.1494;
357.9000;0.6365;1.1517;
358.2000;0.6317;1.1401;
358.5000;0.6317;1.1354;
358.8000;0.6333;1.1424;
359.1000;0.6357;1.1470;
359.4000;0.6300;1.1377;
359.7000;0.6349;1.1540;
360.0000;0.6365;1.1494;
360.3000;0.6341;1.1447;
360.6000;0.6325;1.1354;
360.9000;0.6349;1.1424;
361.2000;0.6341;1.1470;
361.5000;0.6357;1.1633;
361.8000;0.6349;1.1656;
362.1000;0.6333;1.1679;
362.4000;0.6325;1.1610;
362.7000;0.6374;1.1726;
363.0000;0.6317;1.1494;
363.3000;0.6365;1.1633;
363.6000;0.6365;1.1679;
363.9000;0.6349;1.1610;
364.2000;0.6284;1.1424;
364.5000;0.6349;1.1586;
364.8000;0.6325;1.1494;
365.1000;0.6357;1.1540;
365.4000;0.6317;1.1470;
365.7000;0.6374;1.1494;
366.0000;0.6357;1.1517;
366.3000;0.6333;1.1470;
366.6000;0.6317;1.1470;
366.9000;0.6333;1.1517;
367.2000;0.6325;1.1517;
367.5000;0.6333;1.1517;
367.8000;0.6341;1.1470;
368.1000;0.6341;1.1354;
368.4000;0.6365;1.1424;
368.7000;0.6349;1.1494;
369.0000;0.6341;1.1447;
369.3000;0.6325;1.1470;
369.6000;0.6365;1.1563;
369.9000;0.6341;1.1540;
370.2000;0.6341;1.1494;
370.5000;0.6357;1.1494;
370.8000;0.6341;1.1470;
371.1000;0.6365;1.1540;
371.4000;0.6349;1.1563;
371.7000;0.6341;1.1540;
372.0000;0.6333;1.1494;
372.3000;0.6333;1.1563;
372.6000;0.6341;1.1586;
372.9000;0.6341;1.1633;
373.2000;0.6333;1.1633;
373.5000;0.6341;1.1563;
373.8000;0.6276;1.1354;
374.1000;0.6349;1.1517;
374.4000;0.6309;1.1424;
374.7000;0.6341;1.1563;
375.0000;0.6341;1.1563;
375.3000;0.6341;1.1563;
375.6000;0.6325;1.1494;
375.9000;0.6365;1.1517;
376.2000;0.6292;1.1308;
376.5000;0.6341;1.1424;
376.8000;0.6341;1.1517;
377.1000;0.6333;1.1563;
377.4000;0.6325;1.1586;
377.7000;0.6349;1.1656;
378.0000;0.6406;1.1819;
378.3000;0.6325;1.1540;
378.6000;0.6382;1.1656;
378.9000;0.6349;1.1586;
379.2000;0.6349;1.1656;
379.5000;0.6365;1.1633;
379.8000;0.6349;1.1517;
380.1000;0.6333;1.1424;
380.4000;0.6292;1.1354;
380.7000;0.6341;1.1401;
381.0000;0.6341;1.1494;
381.3000;0.6349;1.1517;
381.6000;0.6333;1.1447;
381.9000;0.6349;1.1447;
382.2000;0.6292;1.1377;
382.5000;0.6341;1.1424;
382.8000;0.6333;1.1401;
383.1000;0.6333;1.1354;
383.4000;0.6341;1.1308;
383.7000;0.6349;1.1308;
384.0000;0.6309;1.1215;
384.3000;0.6341;1.1261;
384.6000;0.6317;1.1122;
384.9000;0.6349;1.1261;
385.2000;0.6374;1.1192;
385.5000;0.6357;1.1168;
385.8000;0.6357;1.1261;
386.1000;0.6365;1.1238;
386.4000;0.6349;1.1238;
386.7000;0.6317;1.1168;
387.0000;0.6357;1.1261;
387.3000;0.6357;1.1331;
387.6000;0.6333;1.1238;
387.9000;0.6317;1.1215;
388.2000;0.6276;1.1076;
388.5000;0.6374;1.1354;
388.8000;0.6349;1.1308;
389.1000;0.6349;1.1192;
389.4000;0.6365;1.1192;
389.7000;0.6341;1.1099;
390.0000;0.6357;1.1168;
390.3000;0.6357;1.1238;
390.6000;0.6341;1.1331;
390.9000;0.6341;1.1308;
391.2000;0.6439;1.1494;
391.5000;0.6365;1.1401;
391.8000;0.6349;1.1401;
392.1000;0.6341;1.1377;
392.4000;0.6341;1.1331;
392.7000;0.6341;1.1424;
393.0000;0.6365;1.1470;
393.3000;0.6300;1.1377;
393.6000;0.6333;1.1401;
393.9000;0.6317;1.1331;
394.2000;0.6325;1.1331;
394.5000;0.6317;1.1308;
394.8000;0.6357;1.1331;
395.1000;0.6292;1.1238;
395.4000;0.6341;1.1354;
395.7000;0.6325;1.1308;
396.0000;0.6300;1.1377;
396.3000;0.6406;1.1563;
396.6000;0.6341;1.1401;
396.9000;0.6341;1.1285;
397.2000;0.6325;1.1308;
397.5000;0.6341;1.1401;
397.8000;0.6349;1.1494;
398.1000;0.6398;1.1610;
398.4000;0.6333;1.1331;
398.7000;0.6341;1.1308;
399.0000;0.6398;1.1517;
399.3000;0.6341;1.1377;
399.6000;0.6341;1.1401;
399.9000;0.6341;1.1424;
400.2000;0.6333;1.1494;
400.5000;0.6292;1.1261;
400.8000;0.6341;1.1377;
401.1000;0.6357;1.1447;
401.4000;0.6333;1.1331;
401.7000;0.6357;1.1354;
402.0000;0.6333;1.1238;
402.3000;0.6349;1.1192;
402.6000;0.6349;1.1331;
402.9000;0.6341;1.1261;
403.2000;0.6357;1.1285;
403.5000;0.6341;1.1308;
403.8000;0.6333;1.1238;
404.1000;0.6333;1.1261;
404.4000;0.6341;1.1285;
404.7000;0.6325;1.1331;
405.0000;0.6349;1.1331;
405.3000;0.6349;1.1354;
405.6000;0.6317;1.1261;
405.9000;0.6357;1.1308;
406.2000;0.6341;1.1261;
406.5000;0.6349;1.1215;
406.8000;0.6349;1.1238;
407.1000;0.6300;1.1215;
407.4000;0.6333;1.1285;
407.7000;0.6325;1.1145;
408.0000;0.6390;1.1285;
408.3000;0.6341;1.1261;
408.6000;0.6333;1.1238;
408.9000;0.6333;1.1238;
409.2000;0.6357;1.1377;
409.5000;0.6349;1.1424;
409.8000;0.6422;1.1586;
410.1000;0.6309;1.1401;
410.4000;0.6382;1.1656;
410.7000;0.6317;1.1424;
411.0000;0.6349;1.1470;
411.3000;0.6341;1.1494;
411.6000;0.6341;1.1447;
411.9000;0.6357;1.1447;
412.2000;0.6252;1.1192;
412.5000;0.6317;1.1447;
412.8000;0.6317;1.1424;
413.1000;0.6317;1.1331;
413.4000;0.6333;1.1331;
413.7000;0.6268;1.1238;
414.0000;0.6333;1.1354;
414.3000;0.6317;1.1354;
414.6000;0.6349;1.1354;
414.9000;0.6317;1.1331;
415.2000;0.6365;1.1424;
415.5000;0.6349;1.1377;
415.8000;0.6349;1.1354;
416.1000;0.6357;1.1424;
416.4000;0.6325;1.1308;
416.7000;0.6333;1.1308;
417.0000;0.6349;1.1285;
417.3000;0.6284;1.1215;
417.6000;0.6382;1.1354;
417.9000;0.6341;1.1261;
418.2000;0.6365;1.1354;
418.5000;0.6325;1.1261;
418.8000;0.6333;1.1261;
419.1000;0.6333;1.1261;
419.4000;0.6333;1.1331;
419.7000;0.6349;1.1285;
420.0000;0.6325;1.1261;
420.3000;0.6325;1.1308;
420.6000;0.6349;1.1424;
420.9000;0.6341;1.1470;
421.2000;0.6349;1.1517;
421.5000;0.6300;1.1377;
421.8000;0.6317;1.1354;
422.1000;0.6374;1.1517;
422.4000;0.6341;1.1470;
422.7000;0.6333;1.1447;
423.0000;0.6341;1.1424;
423.3000;0.6268;1.1261;
423.6000;0.6365;1.1447;
423.9000;0.6317;1.1401;
424.2000;0.6309;1.1401;
424.5000;0.6333;1.1447;
424.8000;0.6349;1.1401;
425.1000;0.6349;1.1424;
425.4000;0.6325;1.1377;
425.7000;0.6349;1.1401;
426.0000;0.6349;1.1424;
426.3000;0.6341;1.1424;
426.6000;0.6309;1.1377;
426.9000;0.6341;1.1447;
427.2000;0.6349;1.1540;
427.5000;0.6341;1.1540;
427.8000;0.6341;1.1494;
428.1000;0.6333;1.1424;
428.4000;0.6341;1.1517;
428.7000;0.6325;1.1447;
429.0000;0.6317;1.1424;
429.3000;0.6333;1.1470;
429.6000;0.6349;1.1470;
429.9000;0.6390;1.1517;
430.2000;0.6325;1.1401;
430.5000;0.6333;1.1401;
430.8000;0.6325;1.1401;
431.1000;0.6349;1.1470;
431.4000;0.6325;1.1447;
431.7000;0.6390;1.1586;
432.0000;0.6333;1.1377;
432.3000;0.6325;1.1331;
432.6000;0.6333;1.1401;
432.9000;0.6349;1.1470;
433.2000;0.6341;1.1494;
433.5000;0.6317;1.1424;
433.8000;0.6317;1.1424;
434.1000;0.6333;1.1447;
434.4000;0.6317;1.1354;
434.7000;0.6374;1.1447;
435.0000;0.6341;1.1354;
435.3000;0.6260;1.1215;
435.6000;0.6341;1.1354;
435.9000;0.6357;1.1377;
436.2000;0.6341;1.1424;
436.5000;0.6284;1.1470;
436.8000;0.6357;1.1656;
437.1000;0.6341;1.1610;
437.4000;0.6357;1.1703;
437.7000;0.6349;1.1679;
438.0000;0.6349;1.1633;
438.3000;0.6325;1.1447;
438.6000;0.6325;1.1447;
438.9000;0.6333;1.1377;
439.2000;0.6325;1.1331;
439.5000;0.6292;1.1308;
439.8000;0.6333;1.1401;
440.1000;0.6333;1.1401;
440.4000;0.6349;1.1424;
440.7000;0.6317;1.1424;
441.0000;0.6309;1.1331;
441.3000;0.6341;1.1354;
441.6000;0.6349;1.1424;
441.9000;0.6325;1.1308;
442.2000;0.6325;1.1424;
442.5000;0.6341;1.1563;
442.8000;0.6325;1.1517;
443.1000;0.6325;1.1517;
443.4000;0.6333;1.1494;
443.7000;0.6333;1.1563;
444.0000;0.6325;1.1494;
444.3000;0.6309;1.1494;
444.6000;0.6325;1.1447;
444.9000;0.6317;1.1447;
445.2000;0.6349;1.1401;
445.5000;0.6325;1.1261;
445.8000;0.6325;1.1354;
446.1000;0.6382;1.1447;
446.4000;0.6300;1.1261;
446.7000;0.6349;1.1377;
447.0000;0.6333;1.1401;
447.3000;0.6406;1.1610;
447.6000;0.6349;1.1494;
447.9000;0.6317;1.1424;
448.2000;0.6341;1.1470;
448.5000;0.6333;1.1517;
448.8000;0.6341;1.1494;
449.1000;0.6349;1.1424;
449.4000;0.6333;1.1377;
449.7000;0.6333;1.1470;
450.0000;0.6382;1.1610;
450.3000;0.6333;1.1517;
450.6000;0.6357;1.1610;
450.9000;0.6341;1.1517;
451.2000;0.6357;1.1517;
451.5000;0.6309;1.1377;
451.8000;0.6349;1.1447;
452.1000;0.6341;1.1401;
452.4000;0.6317;1.1377;
452.7000;0.6317;1.1354;
453.0000;0.6325;1.1285;
453.3000;0.6317;1.1192;
453.6000;0.6309;1.1168;
453.9000;0.6341;1.1168;
454.2000;0.6325;1.1192;
454.5000;0.6341;1.1215;
454.8000;0.6333;1.1192;
455.1000;0.6341;1.1238;
455.4000;0.6341;1.1168;
455.7000;0.6325;1.1076;
456.0000;0.6333;1.1168;
456.3000;0.6333;1.1215;
456.6000;0.6349;1.1261;
456.9000;0.6333;1.1261;
457.2000;0.6341;1.1447;
457.5000;0.6317;1.1401;
457.8000;0.6333;1.1470;
458.1000;0.6349;1.1401;
458.4000;0.6317;1.1261;
458.7000;0.6365;1.1308;
459.0000;0.6357;1.1285;
459.3000;0.6325;1.1145;
459.6000;0.6260;1.0983;
459.9000;0.6333;1.1261;
460.2000;0.6341;1.1238;
460.5000;0.6349;1.1192;
460.8000;0.6325;1.1076;
461.1000;0.6325;1.1238;
461.4000;0.6374;1.1424;
461.7000;0.6333;1.1354;
462.0000;0.6349;1.1331;
462.3000;0.6341;1.1215;
462.6000;0.6333;1.1238;
462.9000;0.6333;1.1285;
463.2000;0.6341;1.1261;
463.5000;0.6422;1.1401;
463.8000;0.6333;1.1076;
464.1000;0.6325;1.1122;
464.4000;0.6357;1.1308;
464.7000;0.6325;1.1215;
465.0000;0.6243;1.1076;
465.3000;0.6284;1.1215;
465.6000;0.6333;1.1261;
465.9000;0.6317;1.1285;
466.2000;0.6325;1.1285;
466.5000;0.6333;1.1261;
466.8000;0.6341;1.1192;
467.1000;0.6276;1.1145;
467.4000;0.6357;1.1331;
467.7000;0.6333;1.1285;
468.0000;0.6349;1.1308;
468.3000;0.6333;1.1285;
468.6000;0.6325;1.1331;
468.9000;0.6292;1.1238;
469.2000;0.6325;1.1354;
469.5000;0.6325;1.1354;
469.8000;0.6317;1.1331;
470.1000;0.6333;1.1377;
470.4000;0.6309;1.1401;
470.7000;0.6333;1.1447;
471.0000;0.6260;1.1145;
471.3000;0.6333;1.1308;
471.6000;0.6284;1.1215;
471.9000;0.6276;1.1145;
472.2000;0.6317;1.1331;
472.5000;0.6333;1.1331;
472.8000;0.6333;1.1331;
473.1000;0.6341;1.1331;
473.4000;0.6341;1.1424;
473.7000;0.6309;1.1354;
474.0000;0.6317;1.1377;
474.3000;0.6357;1.1424;
474.6000;0.6317;1.1285;
474.9000;0.6341;1.1377;
475.2000;0.6365;1.1494;
475.5000;0.6398;1.1563;
475.8000;0.6341;1.1494;
476.1000;0.6333;1.1401;
476.4000;0.6325;1.1354;
476.7000;0.6317;1.1401;
477.0000;0.6349;1.1470;
477.3000;0.6317;1.1447;
477.6000;0.6276;1.1354;
477.9000;0.6333;1.1470;
478.2000;0.6349;1.1563;
478.5000;0.6325;1.1563;
478.8000;0.6317;1.1470;
479.1000;0.6325;1.1354;
479.4000;0.6406;1.1563;
479.7000;0.6341;1.1424;
480.0000;0.6309;1.1377;
480.3000;0.6317;1.1354;
480.6000;0.6317;1.1377;
480.9000;0.6341;1.1401;
481.2000;0.6333;1.1354;
481.5000;0.6422;1.1517;
481.8000;0.6284;1.1168;
482.1000;0.6341;1.1285;
482.4000;0.6341;1.1331;
482.7000;0.6284;1.1215;
483.0000;0.6325;1.1285;
483.3000;0.6333;1.1401;
483.6000;0.6398;1.1563;
483.9000;0.6325;1.1424;
484.2000;0.6333;1.1354;
484.5000;0.6325;1.1261;
484.8000;0.6309;1.1261;
485.1000;0.6317;1.1285;
485.4000;0.6333;1.1285;
485.7000;0.6317;1.1192;
486.0000;0.6333;1.1238;
486.3000;0.6406;1.1377;
486.6000;0.6325;1.1122;
486.9000;0.6325;1.1145;
487.2000;0.6341;1.1261;
487.5000;0.6365;1.1377;
487.8000;0.6325;1.1377;
488.1000;0.6341;1.1377;
488.4000;0.6341;1.1308;
488.7000;0.6325;1.1285;
489.0000;0.6333;1.1377;
489.3000;0.6309;1.1308;
489.6000;0.6333;1.1238;
489.9000;0.6300;1.1192;
490.2000;0.6309;1.1215;
490.5000;0.6390;1.1401;
490.8000;0.6300;1.1238;
491.1000;0.6365;1.1424;
491.4000;0.6325;1.1261;
491.7000;0.6317;1.1099;
492.0000;0.6333;1.1076;
492.3000;0.6325;1.1029;
492.6000;0.6333;1.1052;
492.9000;0.6341;1.1122;
493.2000;0.6325;1.1145;
493.5000;0.6333;1.1215;
493.8000;0.6341;1.1331;
494.1000;0.6317;1.1285;
494.4000;0.6317;1.1285;
494.7000;0.6325;1.1331;
495.0000;0.6349;1.1470;
495.3000;0.6357;1.1424;
495.6000;0.6325;1.1447;
495.9000;0.6333;1.1470;
496.2000;0.6276;1.1331;
496.5000;0.6325;1.1424;
496.8000;0.6325;1.1470;
497.1000;0.6268;1.1401;
497.4000;0.6341;1.1563;
497.7000;0.6333;1.1563;
498.0000;0.6260;1.1424;
498.3000;0.6325;1.1447;
498.6000;0.6317;1.1401;
498.9000;0.6349;1.1563;
499.2000;0.6325;1.1563;
499.5000;0.6325;1.1494;
499.8000;0.6365;1.1563;
500.1000;0.6341;1.1424;
500.4000;0.6357;1.1447;
500.7000;0.6325;1.1424;
501.0000;0.6341;1.1377;
501.3000;0.6325;1.1354;
501.6000;0.6268;1.1145;
501.9000;0.6300;1.1215;
502.2000;0.6317;1.1168;
502.5000;0.6317;1.1122;
502.8000;0.6374;1.1192;
503.1000;0.6317;1.1006;
503.4000;0.6317;1.1006;
503.7000;0.6235;1.0936;
504.0000;0.6333;1.1238;
504.3000;0.6325;1.1192;
504.6000;0.6243;1.0913;
504.9000;0.6325;1.1145;
505.2000;0.6333;1.1215;
505.5000;0.6317;1.1192;
505.8000;0.6325;1.1145;
506.1000;0.6333;1.1168;
506.4000;0.6309;1.1122;
506.7000;0.6252;1.0983;
507.0000;0.6333;1.1192;
507.3000;0.6382;1.1285;
507.6000;0.6333;1.1192;
507.9000;0.6349;1.1308;
508.2000;0.6333;1.1261;
508.5000;0.6341;1.1192;
508.8000;0.6300;1.1029;
509.1000;0.6341;1.1192;
509.4000;0.6341;1.1192;
509.7000;0.6333;1.1308;
510.0000;0.6357;1.1285;
510.3000;0.6341;1.1285;
510.6000;0.6349;1.1285;
510.9000;0.6309;1.1238;
511.2000;0.6317;1.1285;
511.5000;0.6325;1.1308;
511.8000;0.6317;1.1308;
512.1000;0.6341;1.1424;
512.4000;0.6276;1.1285;
512.7000;0.6333;1.1354;
513.0000;0.6317;1.1215;
513.3000;0.6349;1.1145;
513.6000;0.6341;1.1029;
513.9000;0.6374;1.1145;
514.2000;0.6357;1.1168;
514.5000;0.6325;1.1145;
514.8000;0.6317;1.1261;
515.1000;0.6398;1.1517;
515.4000;0.6349;1.1540;
515.7000;0.6333;1.1494;
516.0000;0.6349;1.1540;
516.3000;0.6325;1.1517;
516.6000;0.6309;1.1517;
516.9000;0.6325;1.1563;
517.2000;0.6284;1.1563;
517.5000;0.6325;1.1586;
517.8000;0.6309;1.1540;
518.1000;0.6349;1.1586;
518.4000;0.6325;1.1377;
518.7000;0.6317;1.1354;
519.0000;0.6333;1.1331;
519.3000;0.6365;1.1331;
519.6000;0.6317;1.1261;
519.9000;0.6333;1.1331;
520.2000;0.6325;1.1308;
520.5000;0.6300;1.1354;
520.8000;0.6325;1.1354;
521.1000;0.6309;1.1308;
521.4000;0.6300;1.1377;
521.7000;0.6341;1.1447;
522.0000;0.6325;1.1401;
522.3000;0.6300;1.1401;
522.6000;0.6317;1.1517;
522.9000;0.6317;1.1563;
523.2000;0.6333;1.1586;
523.5000;0.6309;1.1540;
523.8000;0.6292;1.1470;
524.1000;0.6317;1.1586;
524.4000;0.6341;1.1633;
524.7000;0.6333;1.1563;
525.0000;0.6300;1.1470;
525.3000;0.6333;1.1494;
525.6000;0.6333;1.1470;
525.9000;0.6341;1.1308;
526.2000;0.6333;1.1261;
526.5000;0.6341;1.1285;
526.8000;0.6317;1.1308;
527.1000;0.6300;1.1285;
527.4000;0.6317;1.1285;
527.7000;0.6252;1.1192;
528.0000;0.6300;1.1308;
528.3000;0.6325;1.1285;
528.6000;0.6309;1.1285;
528.9000;0.6325;1.1377;
529.2000;0.6317;1.1354;
529.5000;0.6398;1.1517;
529.8000;0.6341;1.1331;
530.1000;0.6341;1.1285;
530.4000;0.6333;1.1377;
530.7000;0.6260;1.1238;
531.0000;0.6333;1.1331;
531.3000;0.6276;1.1308;
531.6000;0.6309;1.1354;
531.9000;0.6325;1.1470;
532.2000;0.6374;1.1586;
532.5000;0.6325;1.1447;
532.8000;0.6325;1.1285;
533.1000;0.6309;1.1308;
533.4000;0.6317;1.1354;
533.7000;0.6325;1.1401;
534.0000;0.6325;1.1517;
534.3000;0.6284;1.1424;
534.6000;0.6333;1.1517;
534.9000;0.6333;1.1424;
535.2000;0.6309;1.1285;
535.5000;0.6309;1.1261;
535.8000;0.6317;1.1331;
536.1000;0.6349;1.1470;
536.4000;0.6292;1.1377;
536.7000;0.6317;1.1377;
537.0000;0.6317;1.1424;
537.3000;0.6317;1.1447;
537.6000;0.6317;1.1424;
537.9000;0.6309;1.1424;
538.2000;0.6300;1.1354;
538.5000;0.6333;1.1470;
538.8000;0.6325;1.1447;
539.1000;0.6341;1.1494;
539.4000;0.6292;1.1424;
539.7000;0.6333;1.1470;
540.0000;0.6300;1.1401;
540.3000;0.6292;1.1401;
540.6000;0.6357;1.1447;
540.9000;0.6284;1.1215;
541.2000;0.6349;1.1285;
541.5000;0.6325;1.1145;
541.8000;0.6317;1.1192;
542.1000;0.6349;1.1192;
542.4000;0.6357;1.1238;
542.7000;0.6341;1.1192;
543.0000;0.6309;1.1215;
543.3000;0.6325;1.1215;
543.6000;0.6341;1.1168;
543.9000;0.6365;1.1331;
544.2000;0.6325;1.1261;
544.5000;0.6333;1.1285;
544.8000;0.6333;1.1308;
545.1000;0.6349;1.1377;
545.4000;0.6309;1.1285;
545.7000;0.6325;1.1354;
546.0000;0.6374;1.1354;
546.3000;0.6317;1.1308;
546.6000;0.6317;1.1238;
546.9000;0.6309;1.1192;
547.2000;0.6333;1.1238;
547.5000;0.6252;1.1145;
547.8000;0.6317;1.1285;
548.1000;0.6325;1.1308;
548.4000;0.6300;1.1308;
548.7000;0.6341;1.1377;
549.0000;0.6317;1.1377;
549.3000;0.6309;1.1377;
549.6000;0.6422;1.1633;
549.9000;0.6325;1.1447;
550.2000;0.6325;1.1424;
550.5000;0.6284;1.1377;
550.8000;0.6317;1.1401;
551.1000;0.6309;1.1424;
551.4000;0.6325;1.1540;
551.7000;0.6292;1.1377;
552.0000;0.6317;1.1401;
552.3000;0.6292;1.1354;
552.6000;0.6300;1.1215;
552.9000;0.6325;1.1308;
553.2000;0.6317;1.1401;
553.5000;0.6300;1.1494;
553.8000;0.6333;1.1586;
554.1000;0.6300;1.1494;
554.4000;0.6333;1.1586;
554.7000;0.6341;1.1540;
555.0000;0.6325;1.1540;
555.3000;0.6268;1.1331;
555.6000;0.6341;1.1447;
555.9000;0.6333;1.1494;
556.2000;0.6325;1.1470;
556.5000;0.6333;1.1470;
556.8000;0.6325;1.1447;
557.1000;0.6309;1.1354;
557.4000;0.6333;1.1401;
557.7000;0.6300;1.1354;
558.0000;0.6325;1.1308;
558.3000;0.6317;1.1168;
558.6000;0.6325;1.1192;
558.9000;0.6309;1.1215;
559.2000;0.6317;1.1285;
559.5000;0.6317;1.1285;
559.8000;0.6325;1.1285;
560.1000;0.6235;1.1215;
560.4000;0.6325;1.1401;
560.7000;0.6317;1.1354;
561.0000;0.6333;1.1354;
561.3000;0.6422;1.1540;
561.6000;0.6317;1.1285;
561.9000;0.6325;1.1308;
562.2000;0.6333;1.1285;
562.5000;0.6284;1.1261;
562.8000;0.6309;1.1377;
563.1000;0.6300;1.1331;
563.4000;0.6374;1.1540;
563.7000;0.6309;1.1354;
564.0000;0.6300;1.1285;
564.3000;0.6382;1.1377;
564.6000;0.6325;1.1238;
564.9000;0.6309;1.1238;
565.2000;0.6317;1.1308;
565.5000;0.6333;1.1377;
565.8000;0.6325;1.1447;
566.1000;0.6309;1.1517;
566.4000;0.6317;1.1540;
566.7000;0.6317;1.1494;
567.0000;0.6309;1.1494;
567.3000;0.6317;1.1517;
567.6000;0.6325;1.1494;
567.9000;0.6292;1.1424;
568.2000;0.6317;1.1447;
568.5000;0.6341;1.1401;
568.8000;0.6317;1.1238;
569.1000;0.6309;1.1168;
569.4000;0.6276;1.1192;
569.7000;0.6309;1.1238;
570.0000;0.6349;1.1308;
570.3000;0.6325;1.1261;
570.6000;0.6284;1.1099;
570.9000;0.6309;1.1168;
571.2000;0.6333;1.1168;
571.5000;0.6390;1.1331;
571.8000;0.6325;1.1168;
572.1000;0.6317;1.1122;
572.4000;0.6252;1.0983;
572.7000;0.6325;1.1192;
573.0000;0.6309;1.1215;
573.3000;0.6325;1.1331;
573.6000;0.6325;1.1424;
573.9000;0.6325;1.1470;
574.2000;0.6309;1.1470;
574.5000;0.6317;1.1540;
574.8000;0.6309;1.1517;
575.1000;0.6309;1.1494;
575.4000;0.6317;1.1517;
575.7000;0.6309;1.1517;
576.0000;0.6317;1.1470;
576.3000;0.6284;1.1401;
576.6000;0.6317;1.1470;
576.9000;0.6325;1.1377;
577.2000;0.6260;1.1354;
577.5000;0.6300;1.1540;
577.8000;0.6300;1.1586;
578.1000;0.6300;1.1563;
578.4000;0.6341;1.1610;
578.7000;0.6325;1.1494;
579.0000;0.6300;1.1424;
579.3000;0.6309;1.1401;
579.6000;0.6317;1.1377;
579.9000;0.6317;1.1308;
580.2000;0.6300;1.1285;
580.5000;0.6317;1.1285;
580.8000;0.6309;1.1377;
581.1000;0.6300;1.1377;
581.4000;0.6414;1.1586;
581.7000;0.6333;1.1285;
582.0000;0.6333;1.1238;
582.3000;0.6333;1.1238;
582.6000;0.6317;1.1238;
582.9000;0.6243;1.1076;
583.2000;0.6325;1.1238;
583.5000;0.6292;1.1285;
583.8000;0.6300;1.1285;
584.1000;0.6300;1.1215;
584.4000;0.6333;1.1215;
584.7000;0.6317;1.1215;
585.0000;0.6390;1.1354;
585.3000;0.6333;1.1238;
585.6000;0.6317;1.1261;
585.9000;0.6325;1.1261;
586.2000;0.6300;1.1145;
586.5000;0.6317;1.1238;
586.8000;0.6325;1.1285;
587.1000;0.6317;1.1308;
587.4000;0.6276;1.1308;
587.7000;0.6300;1.1308;
588.0000;0.6333;1.1308;
588.3000;0.6325;1.1285;
588.6000;0.6325;1.1308;
588.9000;0.6300;1.1215;
589.2000;0.6300;1.1285;
589.5000;0.6309;1.1331;
589.8000;0.6317;1.1470;
590.1000;0.6325;1.1470;
590.4000;0.6300;1.1470;
590.7000;0.6309;1.1540;
591.0000;0.6325;1.1563;
591.3000;0.6317;1.1494;
591.6000;0.6309;1.1517;
591.9000;0.6325;1.1517;
592.2000;0.6300;1.1517;
592.5000;0.6252;1.1424;
592.8000;0.6325;1.1563;
593.1000;0.6300;1.1563;
593.4000;0.6317;1.1540;
593.7000;0.6300;1.1494;
594.0000;0.6268;1.1331;
594.3000;0.6317;1.1401;
594.6000;0.6309;1.1424;
594.9000;0.6317;1.1447;
595.2000;0.6292;1.1470;
595.5000;0.6227;1.1424;
595.8000;0.6406;1.1842;
596.1000;0.6309;1.1610;
596.4000;0.6268;1.1424;
596.7000;0.6317;1.1540;
597.0000;0.6309;1.1447;
597.3000;0.6317;1.1470;
597.6000;0.6479;1.1819;
597.9000;0.6317;1.1424;
598.2000;0.6325;1.1447;
598.5000;0.6317;1.1447;
598.8000;0.6284;1.1331;
599.1000;0.6284;1.1308;
599.4000;0.6317;1.1424;
599.7000;0.6317;1.1517;
600.0000;0.6325;1.1494;
600.3000;0.6260;1.1215;
600.6000;0.6341;1.1192;
600.9000;0.6333;1.1029;
601.2000;0.6309;1.0843;
601.5000;0.6300;1.0751;
601.8000;0.6243;1.0565;
602.1000;0.6227;1.0495;
602.4000;0.6195;1.0356;
602.7000;0.6162;1.0263;
603.0000;0.6040;0.9938;
603.3000;0.6146;1.0147;
603.6000;0.6072;0.9961;
603.9000;0.6048;0.9868;
604.2000;0.6032;0.9682;
604.5000;0.5991;0.9636;
604.8000;0.5967;0.9566;
605.1000;0.5975;0.9613;
605.4000;0.5934;0.9450;
605.7000;0.5893;0.9427;
606.0000;0.5926;0.9450;
606.3000;0.5885;0.9357;
606.6000;0.5869;0.9288;
606.9000;0.5828;0.9195;
607.2000;0.5820;0.9102;
607.5000;0.5739;0.8939;
607.8000;0.5779;0.9102;
608.1000;0.5779;0.9218;
608.4000;0.5731;0.8986;
608.7000;0.5747;0.9148;
609.0000;0.5739;0.9079;
609.3000;0.5763;0.9125;
609.6000;0.5698;0.9032;
609.9000;0.5690;0.9079;
610.2000;0.5576;0.8939;
610.5000;0.5674;0.9102;
610.8000;0.5641;0.8916;
611.1000;0.5755;0.9172;
611.4000;0.5633;0.8823;
611.7000;0.5641;0.8800;
612.0000;0.5600;0.8754;
612.3000;0.5608;0.8847;
612.6000;0.5600;0.8870;
612.9000;0.5584;0.8847;
613.2000;0.5543;0.8754;
613.5000;0.5535;0.8730;
613.8000;0.5682;0.9241;
614.1000;0.5568;0.9056;
614.4000;0.5527;0.8939;
614.7000;0.5519;0.9009;
615.0000;0.5503;0.8963;
615.3000;0.5527;0.8963;
615.6000;0.5495;0.8847;
615.9000;0.5503;0.8754;
616.2000;0.5462;0.8730;
616.5000;0.5486;0.8800;
616.8000;0.5462;0.8684;
617.1000;0.5478;0.8777;
617.4000;0.5486;0.8730;
617.7000;0.5454;0.8754;
618.0000;0.5421;0.8684;
618.3000;0.5454;0.8847;
618.6000;0.5332;0.8614;
618.9000;0.5462;0.8916;
619.2000;0.5405;0.8777;
619.5000;0.5389;0.8823;
619.8000;0.5397;0.8893;
620.1000;0.5397;0.8939;
620.4000;0.5389;0.8847;
620.7000;0.5372;0.8730;
621.0000;0.5348;0.8777;
621.3000;0.5372;0.8939;
621.6000;0.5307;0.8823;
621.9000;0.5364;0.8963;
622.2000;0.5356;0.8986;
622.5000;0.5332;0.8823;
622.8000;0.5413;0.8916;
623.1000;0.5340;0.8730;
623.4000;0.5299;0.8638;
623.7000;0.5340;0.8730;
624.0000;0.5332;0.8684;
624.3000;0.5324;0.8730;
624.6000;0.5291;0.8707;
624.9000;0.5275;0.8754;
625.2000;0.5307;0.8800;
625.5000;0.5324;0.8800;
625.8000;0.5283;0.8730;
626.1000;0.5250;0.8545;
626.4000;0.5177;0.8266;
626.7000;0.5283;0.8638;
627.0000;0.5258;0.8684;
627.3000;0.5258;0.8847;
627.6000;0.5324;0.9009;
627.9000;0.5210;0.8870;
628.2000;0.5242;0.8916;
628.5000;0.5267;0.8916;
628.8000;0.5242;0.8777;
629.1000;0.5250;0.8684;
629.4000;0.5226;0.8545;
629.7000;0.5242;0.8661;
630.0000;0.5234;0.8661;
630.3000;0.5226;0.8684;
630.6000;0.5210;0.8661;
630.9000;0.5193;0.8661;
631.2000;0.5153;0.8568;
631.5000;0.5177;0.8661;
631.8000;0.5201;0.8707;
632.1000;0.5250;0.8963;
632.4000;0.5226;0.8939;
632.7000;0.5185;0.8800;
633.0000;0.5169;0.8754;
633.3000;0.5201;0.8823;
633.6000;0.5169;0.8800;
633.9000;0.5185;0.8823;
634.2000;0.5169;0.8823;
634.5000;0.5177;0.8800;
634.8000;0.5161;0.8823;
635.1000;0.5218;0.8916;
635.4000;0.5169;0.8684;
635.7000;0.5169;0.8614;
636.0000;0.5153;0.8591;
636.3000;0.5153;0.8638;
636.6000;0.5120;0.8661;
636.9000;0.5136;0.8638;
637.2000;0.5144;0.8661;
637.5000;0.5120;0.8568;
637.8000;0.5144;0.8591;
638.1000;0.5153;0.8707;
638.4000;0.5153;0.8730;
638.7000;0.5128;0.8614;
639.0000;0.5136;0.8591;
639.3000;0.5112;0.8429;
639.6000;0.5096;0.8452;
639.9000;0.5088;0.8429;
640.2000;0.5079;0.8429;
640.5000;0.5144;0.8568;
640.8000;0.5104;0.8475;
641.1000;0.5088;0.8405;
641.4000;0.5104;0.8405;
641.7000;0.5112;0.8452;
642.0000;0.5112;0.8545;
642.3000;0.5104;0.8545;
642.6000;0.5063;0.8521;
642.9000;0.5096;0.8521;
643.2000;0.5096;0.8568;
643.5000;0.5079;0.8614;
643.8000;0.5104;0.8707;
644.1000;0.5071;0.8661;
644.4000;0.5071;0.8614;
644.7000;0.5079;0.8661;
645.0000;0.5063;0.8754;
645.3000;0.5039;0.8800;
645.6000;0.5063;0.8730;
645.9000;0.5047;0.8823;
646.2000;0.5120;0.8963;
646.5000;0.5071;0.8870;
646.8000;0.5055;0.8823;
647.1000;0.5022;0.8754;
647.4000;0.5063;0.8870;
647.7000;0.5031;0.8754;
648.0000;0.5055;0.8730;
648.3000;0.5071;0.8730;
648.6000;0.5063;0.8614;
648.9000;0.5031;0.8521;
649.2000;0.5022;0.8452;
649.5000;0.5055;0.8591;
649.8000;0.5039;0.8521;
650.1000;0.5039;0.8475;
650.4000;0.5039;0.8521;
650.7000;0.5047;0.8591;
651.0000;0.5047;0.8545;
651.3000;0.5039;0.8614;
651.6000;0.5088;0.8754;
651.9000;0.5031;0.8661;
652.2000;0.5039;0.8730;
652.5000;0.5006;0.8614;
652.8000;0.4998;0.8591;
653.1000;0.5006;0.8545;
653.4000;0.5014;0.8568;
653.7000;0.5031;0.8638;
654.0000;0.5014;0.8568;
654.3000;0.5006;0.8498;
654.6000;0.4998;0.8475;
654.9000;0.4933;0.8359;
655.2000;0.4998;0.8498;
655.5000;0.4982;0.8545;
655.8000;0.4998;0.8614;
656.1000;0.5022;0.8661;
656.4000;0.4982;0.8545;
656.7000;0.4990;0.8591;
657.0000;0.4974;0.8614;
657.3000;0.5006;0.8638;
657.6000;0.4990;0.8638;
657.9000;0.4965;0.8614;
658.2000;0.4941;0.8684;
658.5000;0.4982;0.8730;
658.8000;0.4949;0.8707;
659.1000;0.4957;0.8823;
659.4000;0.4990;0.8777;
659.7000;0.4957;0.8754;
660.0000;0.4965;0.8730;
660.3000;0.4974;0.8684;
660.6000;0.4974;0.8498;
660.9000;0.4933;0.8429;
661.2000;0.4998;0.8638;
661.5000;0.4868;0.8266;
661.8000;0.4949;0.8452;
662.1000;0.4957;0.8336;
662.4000;0.4957;0.8359;
662.7000;0.4949;0.8359;
663.0000;0.4949;0.8452;
663.3000;0.4941;0.8382;
663.6000;0.4949;0.8382;
663.9000;0.4949;0.8359;
664.2000;0.4957;0.8429;
664.5000;0.4925;0.8405;
664.8000;0.4957;0.8452;
665.1000;0.4965;0.8452;
665.4000;0.4941;0.8405;
665.7000;0.4933;0.8405;
666.0000;0.4933;0.8498;
666.3000;0.4933;0.8475;
666.6000;0.4917;0.8568;
666.9000;0.4941;0.8614;
667.2000;0.4900;0.8591;
667.5000;0.4917;0.8614;
667.8000;0.4917;0.8521;
668.1000;0.4908;0.8475;
668.4000;0.4908;0.8475;
668.7000;0.4925;0.8521;
669.0000;0.4892;0.8475;
669.3000;0.4925;0.8452;
669.6000;0.4851;0.8359;
669.9000;0.4925;0.8638;
670.2000;0.4908;0.8591;
670.5000;0.4917;0.8568;
670.8000;0.4908;0.8638;
671.1000;0.4900;0.8545;
671.4000;0.4917;0.8521;
671.7000;0.4917;0.8429;
672.0000;0.4908;0.8498;
672.3000;0.4819;0.8289;
672.6000;0.4876;0.8359;
672.9000;0.4892;0.8359;
673.2000;0.4908;0.8429;
673.5000;0.4925;0.8475;
673.8000;0.4908;0.8475;
674.1000;0.4843;0.8382;
674.4000;0.4917;0.8661;
674.7000;0.4900;0.8707;
675.0000;0.4908;0.8707;
675.3000;0.4908;0.8754;
675.6000;0.4892;0.8707;
675.9000;0.4884;0.8730;
676.2000;0.4892;0.8707;
676.5000;0.4908;0.8730;
676.8000;0.4884;0.8661;
677.1000;0.4892;0.8684;
677.4000;0.4876;0.8638;
677.7000;0.4892;0.8614;
678.0000;0.4892;0.8614;
678.3000;0.4884;0.8521;
678.6000;0.4892;0.8568;
678.9000;0.4876;0.8521;
679.2000;0.4876;0.8475;
679.5000;0.4851;0.8429;
679.8000;0.4876;0.8545;
680.1000;0.4876;0.8591;
680.4000;0.4868;0.8661;
680.7000;0.4868;0.8661;
681.0000;0.4884;0.8707;
681.3000;0.4900;0.8730;
681.6000;0.4876;0.8684;
681.9000;0.4860;0.8684;
682.2000;0.4868;0.8661;
682.5000;0.4843;0.8638;
682.8000;0.4868;0.8707;
683.1000;0.4868;0.8661;
683.4000;0.4843;0.8568;
683.7000;0.4843;0.8568;
684.0000;0.4876;0.8638;
684.3000;0.4876;0.8684;
684.6000;0.4876;0.8638;
684.9000;0.4860;0.8661;
685.2000;0.4851;0.8684;
685.5000;0.4843;0.8661;
685.8000;0.4868;0.8707;
686.1000;0.4851;0.8684;
686.4000;0.4868;0.8707;
686.7000;0.4835;0.8684;
687.0000;0.4827;0.8684;
687.3000;0.4843;0.8638;
687.6000;0.4851;0.8707;
687.9000;0.4843;0.8661;
688.2000;0.4843;0.8638;
688.5000;0.4811;0.8545;
688.8000;0.4843;0.8638;
689.1000;0.4827;0.8591;
689.4000;0.4851;0.8614;
689.7000;0.4843;0.8661;
690.0000;0.4794;0.8545;
690.3000;0.4811;0.8591;
690.6000;0.4851;0.8684;
690.9000;0.4835;0.8684;
691.2000;0.4811;0.8614;
691.5000;0.4860;0.8707;
691.8000;0.4835;0.8684;
692.1000;0.4851;0.8684;
692.4000;0.4843;0.8591;
692.7000;0.4827;0.8498;
693.0000;0.4770;0.8429;
693.3000;0.4835;0.8568;
693.6000;0.4811;0.8429;
693.9000;0.4835;0.8521;
694.2000;0.4843;0.8591;
694.5000;0.4843;0.8638;
694.8000;0.4843;0.8591;
695.1000;0.4835;0.8614;
695.4000;0.4843;0.8614;
695.7000;0.4843;0.8638;
696.0000;0.4843;0.8684;
696.3000;0.4835;0.8684;
696.6000;0.4827;0.8661;
696.9000;0.4827;0.8707;
697.2000;0.4762;0.8568;
697.5000;0.4811;0.8730;
697.8000;0.4811;0.8730;
698.1000;0.4851;0.8777;
698.4000;0.4819;0.8684;
698.7000;0.4803;0.8730;
699.0000;0.4811;0.8777;
699.3000;0.4811;0.8730;
699.6000;0.4827;0.8754;
699.9000;0.4770;0.8684;
700.2000;0.4811;0.8684;
700.5000;0.4811;0.8707;
700.8000;0.4819;0.8730;
701.1000;0.4827;0.8777;
701.4000;0.4835;0.8777;
701.7000;0.4827;0.8684;
702.0000;0.4819;0.8730;
702.3000;0.4811;0.8777;
702.6000;0.4794;0.8754;
702.9000;0.4803;0.8777;
703.2000;0.4811;0.8800;
703.5000;0.4843;0.8939;
703.8000;0.4794;0.8777;
704.1000;0.4819;0.8684;
704.4000;0.4803;0.8661;
704.7000;0.4803;0.8638;
705.0000;0.4819;0.8684;
705.3000;0.4794;0.8707;
705.6000;0.4786;0.8661;
705.9000;0.4803;0.8730;
706.2000;0.4917;0.8916;
706.5000;0.4786;0.8638;
706.8000;0.4794;0.8707;
707.1000;0.4884;0.9032;
707.4000;0.4819;0.8939;
707.7000;0.4803;0.8777;
708.0000;0.4794;0.8684;
708.3000;0.4778;0.8730;
708.6000;0.4762;0.8707;
708.9000;0.4794;0.8730;
709.2000;0.4786;0.8707;
709.5000;0.4794;0.8684;
709.8000;0.4851;0.8754;
710.1000;0.4851;0.8823;
710.4000;0.4786;0.8614;
710.7000;0.4786;0.8638;
711.0000;0.4754;0.8498;
711.3000;0.4811;0.8684;
711.6000;0.4697;0.8313;
711.9000;0.4794;0.8568;
712.2000;0.4794;0.8707;
712.5000;0.4786;0.8730;
712.8000;0.4786;0.8707;
713.1000;0.4794;0.8707;
713.4000;0.4778;0.8707;
713.7000;0.4794;0.8684;
714.0000;0.4794;0.8591;
714.3000;0.4786;0.8568;
714.6000;0.4770;0.8591;
714.9000;0.4819;0.8684;
715.2000;0.4754;0.8638;
715.5000;0.4786;0.8638;
715.8000;0.4794;0.8638;
716.1000;0.4786;0.8661;
716.4000;0.4803;0.8800;
716.7000;0.4786;0.8800;
717.0000;0.4811;0.8870;
717.3000;0.4794;0.8754;
717.6000;0.4811;0.8800;
717.9000;0.4786;0.8777;
718.2000;0.4770;0.8800;
718.5000;0.4786;0.8847;
718.8000;0.4770;0.8800;
719.1000;0.4803;0.8870;
719.4000;0.4794;0.8847;
719.7000;0.4786;0.8823;
720.0000;0.4778;0.8800;
720.3000;0.4786;0.8963;
720.6000;0.4786;0.8939;
720.9000;0.4778;0.8754;
721.2000;0.4786;0.8707;
721.5000;0.4786;0.8730;
721.8000;0.4786;0.8777;
722.1000;0.4786;0.8847;
722.4000;0.4778;0.8823;
722.7000;0.4770;0.8823;
723.0000;0.4746;0.8754;
723.3000;0.4819;0.8870;
723.6000;0.4754;0.8823;
723.9000;0.4770;0.8893;
724.2000;0.4737;0.8707;
724.5000;0.4778;0.8800;
724.8000;0.4762;0.8777;
725.1000;0.4713;0.8684;
725.4000;0.4770;0.8754;
725.7000;0.4754;0.8638;
726.0000;0.4754;0.8591;
726.3000;0.4762;0.8521;
726.6000;0.4778;0.8638;
726.9000;0.4778;0.8591;
727.2000;0.4721;0.8475;
727.5000;0.4754;0.8591;
727.8000;0.4786;0.8707;
728.1000;0.4819;0.8754;
728.4000;0.4746;0.8591;
728.7000;0.4762;0.8684;
729.0000;0.4737;0.8661;
729.3000;0.4786;0.8777;
729.6000;0.4754;0.8777;
729.9000;0.4762;0.8823;
730.2000;0.4754;0.8777;
730.5000;0.4737;0.8730;
730.8000;0.4762;0.8754;
731.1000;0.4762;0.8684;
731.4000;0.4778;0.8684;
731.7000;0.4778;0.8521;
732.0000;0.4746;0.8452;
732.3000;0.4770;0.8429;
732.6000;0.4754;0.8452;
732.9000;0.4762;0.8498;
733.2000;0.4737;0.8475;
733.5000;0.4737;0.8614;
733.8000;0.4721;0.8591;
734.1000;0.4803;0.8730;
734.4000;0.4746;0.8661;
734.7000;0.4754;0.8661;
735.0000;0.4746;0.8638;
735.3000;0.4737;0.8521;
735.6000;0.4762;0.8661;
735.9000;0.4762;0.8684;
736.2000;0.4770;0.8777;
736.5000;0.4778;0.8800;
736.8000;0.4770;0.8823;
737.1000;0.4754;0.8661;
737.4000;0.4721;0.8614;
737.7000;0.4762;0.8847;
738.0000;0.4754;0.8777;
738.3000;0.4737;0.8707;
738.6000;0.4770;0.8800;
738.9000;0.4729;0.8684;
739.2000;0.4697;0.8591;
739.5000;0.4778;0.8754;
739.8000;0.4729;0.8591;
740.1000;0.4721;0.8638;
740.4000;0.4737;0.8800;
740.7000;0.4705;0.8847;
741.0000;0.4737;0.8916;
741.3000;0.4746;0.8754;
741.6000;0.4754;0.8800;
741.9000;0.4754;0.8777;
742.2000;0.4721;0.8684;
742.5000;0.4746;0.8777;
742.8000;0.4746;0.8730;
743.1000;0.4729;0.8754;
743.4000;0.4746;0.8777;
743.7000;0.4721;0.8730;
744.0000;0.4713;0.8730;
744.3000;0.4811;0.8870;
744.6000;0.4803;0.8800;
744.9000;0.4737;0.8754;
745.2000;0.4746;0.8800;
745.5000;0.4737;0.8823;
745.8000;0.4721;0.8777;
746.1000;0.4778;0.8847;
746.4000;0.4737;0.8730;
746.7000;0.4746;0.8823;
747.0000;0.4729;0.8707;
747.3000;0.4689;0.8707;
747.6000;0.4721;0.8823;
747.9000;0.4721;0.8870;
748.2000;0.4754;0.8986;
748.5000;0.4721;0.9009;
748.8000;0.4737;0.9102;
749.1000;0.4721;0.8986;
749.4000;0.4746;0.8916;
749.7000;0.4721;0.8800;
750.0000;0.4737;0.8777;
750.3000;0.4705;0.8754;
750.6000;0.4713;0.8800;
750.9000;0.4754;0.8939;
751.2000;0.4721;0.8870;
751.5000;0.4713;0.8777;
751.8000;0.4729;0.8870;
752.1000;0.4713;0.8870;
752.4000;0.4737;0.8800;
752.7000;0.4737;0.8777;
753.0000;0.4762;0.8870;
753.3000;0.4737;0.8823;
753.6000;0.4737;0.8777;
753.9000;0.4681;0.8661;
754.2000;0.4770;0.8916;
754.5000;0.4705;0.8800;
754.8000;0.4713;0.8754;
755.1000;0.4729;0.8754;
755.4000;0.4721;0.8730;
755.7000;0.4721;0.8754;
756.0000;0.4713;0.8684;
756.3000;0.4721;0.8777;
756.6000;0.4713;0.8893;
756.9000;0.4705;0.8986;
757.2000;0.4729;0.9056;
757.5000;0.4713;0.8963;
757.8000;0.4737;0.8939;
758.1000;0.4746;0.8963;
758.4000;0.4729;0.9032;
758.7000;0.4721;0.9102;
759.0000;0.4713;0.9079;
759.3000;0.4721;0.8963;
759.6000;0.4729;0.9032;
759.9000;0.4729;0.9056;
760.2000;0.4689;0.8870;
760.5000;0.4737;0.8986;
760.8000;0.4705;0.9009;
761.1000;0.4689;0.9009;
761.4000;0.4697;0.9032;
761.7000;0.4729;0.9056;
762.0000;0.4729;0.9102;
762.3000;0.4746;0.9079;
762.6000;0.4729;0.8963;
762.9000;0.4729;0.8916;
763.2000;0.4746;0.8893;
763.5000;0.4721;0.8800;
763.8000;0.4713;0.8870;
764.1000;0.4713;0.8870;
764.4000;0.4705;0.8847;
764.7000;0.4778;0.9102;
765.0000;0.4705;0.8963;
765.3000;0.4705;0.9009;
765.6000;0.4705;0.9032;
765.9000;0.4713;0.9056;
766.2000;0.4705;0.8963;
766.5000;0.4713;0.8916;
766.8000;0.4713;0.8893;
767.1000;0.4737;0.8963;
767.4000;0.4681;0.8823;
767.7000;0.4689;0.8939;
768.0000;0.4729;0.9032;
768.3000;0.4737;0.8986;
768.6000;0.4770;0.9032;
768.9000;0.4705;0.8893;
769.2000;0.4672;0.8870;
769.5000;0.4705;0.8963;
769.8000;0.4697;0.9032;
770.1000;0.4737;0.9056;
770.4000;0.4721;0.8939;
770.7000;0.4697;0.8823;
771.0000;0.4729;0.8893;
771.3000;0.4705;0.8847;
771.6000;0.4705;0.8707;
771.9000;0.4705;0.8707;
772.2000;0.4721;0.8777;
772.5000;0.4721;0.8870;
772.8000;0.4746;0.8986;
773.1000;0.4689;0.8870;
773.4000;0.4705;0.8986;
773.7000;0.4697;0.9009;
774.0000;0.4672;0.8939;
774.3000;0.4697;0.8939;
774.6000;0.4697;0.8916;
774.9000;0.4705;0.8986;
775.2000;0.4729;0.9079;
775.5000;0.4729;0.8916;
775.8000;0.4697;0.8800;
776.1000;0.4705;0.8823;
776.4000;0.4713;0.8847;
776.7000;0.4729;0.8963;
777.0000;0.4729;0.8939;
777.3000;0.4697;0.8939;
777.6000;0.4697;0.9056;
777.9000;0.4632;0.8963;
778.2000;0.4697;0.9125;
778.5000;0.4697;0.9148;
778.8000;0.4705;0.9172;
779.1000;0.4705;0.9102;
779.4000;0.4672;0.8963;
779.7000;0.4681;0.8939;
780.0000;0.4656;0.8870;
780.3000;0.4697;0.9056;
780.6000;0.4786;0.9241;
780.9000;0.4672;0.8939;
781.2000;0.4681;0.8986;
781.5000;0.4681;0.8986;
781.8000;0.4689;0.9009;
782.1000;0.4697;0.8939;
782.4000;0.4689;0.9056;
782.7000;0.4664;0.8963;
783.0000;0.4697;0.9009;
783.3000;0.4697;0.9125;
783.6000;0.4746;0.9172;
783.9000;0.4697;0.9102;
784.2000;0.4672;0.8939;
784.5000;0.4672;0.8916;
784.8000;0.4754;0.9079;
785.1000;0.4713;0.9079;
785.4000;0.4737;0.9125;
785.7000;0.4794;0.9288;
786.0000;0.4689;0.8916;
786.3000;0.4697;0.8916;
786.6000;0.4697;0.8963;
786.9000;0.4681;0.8893;
787.2000;0.4648;0.8730;
787.5000;0.4689;0.8823;
787.8000;0.4697;0.8916;
788.1000;0.4689;0.8963;
788.4000;0.4681;0.8939;
788.7000;0.4689;0.8939;
789.0000;0.4721;0.9009;
789.3000;0.4697;0.8893;
789.6000;0.4729;0.8916;
789.9000;0.4689;0.8939;
790.2000;0.4705;0.9032;
790.5000;0.4664;0.8893;
790.8000;0.4672;0.9009;
791.1000;0.4664;0.8963;
791.4000;0.4689;0.8939;
791.7000;0.4689;0.8916;
792.0000;0.4689;0.8870;
792.3000;0.4705;0.8800;
792.6000;0.4672;0.8823;
792.9000;0.4705;0.8847;
793.2000;0.4672;0.8777;
793.5000;0.4681;0.8823;
793.8000;0.4681;0.8754;
794.1000;0.4705;0.8823;
794.4000;0.4672;0.8823;
794.7000;0.4705;0.8870;
795.0000;0.4689;0.8893;
795.3000;0.4689;0.8916;
795.6000;0.4681;0.8893;
795.9000;0.4689;0.8963;
796.2000;0.4689;0.8916;
796.5000;0.4681;0.8870;
796.8000;0.4689;0.8870;
797.1000;0.4681;0.8847;
797.4000;0.4697;0.8847;
797.7000;0.4672;0.8777;
798.0000;0.4705;0.8800;
798.3000;0.4746;0.8939;
798.6000;0.4697;0.8870;
798.9000;0.4689;0.8847;
799.2000;0.4697;0.8847;
799.5000;0.4681;0.8847;
799.8000;0.4697;0.8800;
800.1000;0.4648;0.8614;
800.4000;0.4721;0.8777;
800.7000;0.4705;0.8847;
801.0000;0.4737;0.8963;
801.3000;0.4681;0.8847;
801.6000;0.4689;0.8800;
801.9000;0.4681;0.8823;
802.2000;0.4672;0.8916;
802.5000;0.4656;0.8916;
802.8000;0.4737;0.9032;
803.1000;0.4713;0.8939;
803.4000;0.4681;0.8870;
803.7000;0.4721;0.8847;
804.0000;0.4681;0.8893;
804.3000;0.4705;0.8893;
804.6000;0.4746;0.9032;
804.9000;0.4664;0.8777;
805.2000;0.4721;0.8893;
805.5000;0.4697;0.8870;
805.8000;0.4689;0.8800;
806.1000;0.4697;0.8823;
806.4000;0.4672;0.8800;
806.7000;0.4664;0.8730;
807.0000;0.4689;0.8777;
807.3000;0.4672;0.8800;
807.6000;0.4672;0.8823;
807.9000;0.4697;0.8963;
808.2000;0.4681;0.8916;
808.5000;0.4672;0.8847;
808.8000;0.4697;0.8893;
809.1000;0.4705;0.8939;
809.4000;0.4681;0.8916;
809.7000;0.4697;0.9032;
810.0000;0.4672;0.9032;
810.3000;0.4656;0.8986;
810.6000;0.4681;0.8963;
810.9000;0.4689;0.8939;
811.2000;0.4664;0.8916;
811.5000;0.4672;0.8847;
811.8000;0.4672;0.8823;
812.1000;0.4672;0.8777;
812.4000;0.4672;0.8800;
812.7000;0.4689;0.8707;
813.0000;0.4689;0.8707;
813.3000;0.4713;0.8870;
813.6000;0.4803;0.9102;
813.9000;0.4681;0.8823;
814.2000;0.4640;0.8638;
814.5000;0.4697;0.8870;
814.8000;0.4697;0.8847;
815.1000;0.4681;0.8870;
815.4000;0.4681;0.8939;
815.7000;0.4689;0.8939;
816.0000;0.4689;0.8963;
816.3000;0.4664;0.8916;
816.6000;0.4672;0.8916;
816.9000;0.4656;0.8986;
817.2000;0.4705;0.9009;
817.5000;0.4681;0.9032;
817.8000;0.4672;0.9102;
818.1000;0.4664;0.9079;
818.4000;0.4681;0.9032;
818.7000;0.4656;0.8847;
819.0000;0.4672;0.8916;
819.3000;0.4656;0.8916;
819.6000;0.4681;0.9009;
819.9000;0.4681;0.8939;
820.2000;0.4672;0.8870;
820.5000;0.4746;0.9009;
820.8000;0.4664;0.8847;
821.1000;0.4689;0.8893;
821.4000;0.4664;0.8870;
821.7000;0.4656;0.8823;
822.0000;0.4672;0.8893;
822.3000;0.4632;0.8777;
822.6000;0.4672;0.8916;
822.9000;0.4664;0.8847;
823.2000;0.4656;0.8870;
823.5000;0.4640;0.8777;
823.8000;0.4689;0.9032;
824.1000;0.4664;0.9056;
824.4000;0.4681;0.9056;
824.7000;0.4713;0.9148;
825.0000;0.4672;0.9009;
825.3000;0.4664;0.8939;
825.6000;0.4656;0.8986;
825.9000;0.4664;0.9009;
826.2000;0.4664;0.9056;
826.5000;0.4656;0.9032;
826.8000;0.4672;0.9148;
827.1000;0.4672;0.9241;
827.4000;0.4672;0.9241;
827.7000;0.4681;0.9218;
828.0000;0.4681;0.9195;
828.3000;0.4672;0.9195;
828.6000;0.4664;0.9079;
828.9000;0.4681;0.9032;
829.2000;0.4664;0.8986;
829.5000;0.4681;0.9079;
829.8000;0.4689;0.9102;
830.1000;0.4689;0.9125;
830.4000;0.4681;0.9241;
830.7000;0.4664;0.9265;
831.0000;0.4575;0.9056;
831.3000;0.4672;0.9218;
831.6000;0.4656;0.9102;
831.9000;0.4672;0.9056;
832.2000;0.4664;0.9056;
832.5000;0.4672;0.9125;
832.8000;0.4648;0.9032;
833.1000;0.4672;0.9102;
833.4000;0.4656;0.9125;
833.7000;0.4681;0.9288;
834.0000;0.4672;0.9218;
834.3000;0.4672;0.9241;
834.6000;0.4656;0.9218;
834.9000;0.4664;0.9218;
835.2000;0.4697;0.9241;
835.5000;0.4624;0.9056;
835.8000;0.4664;0.9148;
836.1000;0.4754;0.9404;
836.4000;0.4656;0.9102;
836.7000;0.4615;0.8939;
837.0000;0.4648;0.9102;
837.3000;0.4648;0.9125;
837.6000;0.4713;0.9195;
837.9000;0.4664;0.9032;
838.2000;0.4672;0.9009;
838.5000;0.4632;0.8986;
838.8000;0.4664;0.8963;
839.1000;0.4664;0.9056;
839.4000;0.4672;0.9009;
839.7000;0.4656;0.8986;
840.0000;0.4672;0.9009;
840.3000;0.4664;0.9009;
840.6000;0.4664;0.8939;
840.9000;0.4681;0.8986;
841.2000;0.4664;0.8916;
841.5000;0.4681;0.8870;
841.8000;0.4664;0.8916;
842.1000;0.4664;0.9056;
842.4000;0.4624;0.9032;
842.7000;0.4672;0.9079;
843.0000;0.4656;0.8986;
843.3000;0.4656;0.9032;
843.6000;0.4656;0.9009;
843.9000;0.4689;0.9102;
844.2000;0.4664;0.9079;
844.5000;0.4664;0.9056;
844.8000;0.4664;0.9056;
845.1000;0.4664;0.9056;
845.4000;0.4697;0.9102;
845.7000;0.4681;0.9056;
846.0000;0.4672;0.8986;
846.3000;0.4656;0.9032;
846.6000;0.4697;0.9172;
846.9000;0.4672;0.9056;
847.2000;0.4672;0.9102;
847.5000;0.4737;0.9265;
847.8000;0.4591;0.8847;
848.1000;0.4656;0.9032;
848.4000;0.4648;0.8893;
848.7000;0.4672;0.8847;
849.0000;0.4672;0.8916;
849.3000;0.4656;0.8939;
849.6000;0.4648;0.8916;
849.9000;0.4664;0.8823;
850.2000;0.4664;0.8893;
850.5000;0.4656;0.8939;
850.8000;0.4664;0.9009;
851.1000;0.4656;0.9009;
851.4000;0.4664;0.9102;
851.7000;0.4681;0.9218;
852.0000;0.4681;0.9241;
852.3000;0.4664;0.9148;
852.6000;0.4689;0.9079;
852.9000;0.4664;0.9056;
853.2000;0.4672;0.9125;
853.5000;0.4656;0.9125;
853.8000;0.4648;0.9195;
854.1000;0.4672;0.9172;
854.4000;0.4672;0.9102;
854.7000;0.4656;0.8963;
855.0000;0.4648;0.8939;
855.3000;0.4656;0.8939;
855.6000;0.4681;0.9079;
855.9000;0.4664;0.9102;
856.2000;0.4672;0.8986;
856.5000;0.4664;0.8939;
856.8000;0.4640;0.8870;
857.1000;0.4640;0.8986;
857.4000;0.4656;0.9032;
857.7000;0.4656;0.9032;
858.0000;0.4664;0.9079;
858.3000;0.4648;0.9009;
858.6000;0.4640;0.8939;
858.9000;0.4648;0.8986;
859.2000;0.4778;0.9311;
859.5000;0.4713;0.9288;
859.8000;0.4664;0.9125;
860.1000;0.4640;0.8963;
860.4000;0.4656;0.9032;
860.7000;0.4607;0.8893;
861.0000;0.4672;0.9056;
861.3000;0.4697;0.9102;
861.6000;0.4664;0.9032;
861.9000;0.4648;0.9102;
862.2000;0.4656;0.9195;
862.5000;0.4737;0.9427;
862.8000;0.4672;0.9195;
863.1000;0.4689;0.9241;
863.4000;0.4648;0.9218;
863.7000;0.4648;0.9172;
864.0000;0.4583;0.9056;
864.3000;0.4664;0.9218;
864.6000;0.4664;0.9148;
864.9000;0.4664;0.9172;
865.2000;0.4648;0.9102;
865.5000;0.4681;0.9172;
865.8000;0.4664;0.9195;
866.1000;0.4656;0.9172;
866.4000;0.4648;0.9056;
866.7000;0.4648;0.9102;
867.0000;0.4656;0.9056;
867.3000;0.4664;0.9056;
867.6000;0.4640;0.9032;
867.9000;0.4672;0.9079;
868.2000;0.4664;0.9032;
868.5000;0.4656;0.9032;
868.8000;0.4648;0.9102;
869.1000;0.4648;0.9195;
869.4000;0.4656;0.9218;
869.7000;0.4681;0.9195;
870.0000;0.4648;0.9102;
870.3000;0.4664;0.9032;
870.6000;0.4672;0.9079;
870.9000;0.4656;0.9102;
871.2000;0.4664;0.9218;
871.5000;0.4648;0.9079;
871.8000;0.4656;0.9079;
872.1000;0.4648;0.9056;
872.4000;0.4648;0.9079;
872.7000;0.4648;0.9056;
873.0000;0.4583;0.8870;
873.3000;0.4656;0.9102;
873.6000;0.4664;0.9125;
873.9000;0.4664;0.9195;
874.2000;0.4648;0.9056;
874.5000;0.4599;0.8916;
874.8000;0.4648;0.9056;
875.1000;0.4664;0.9079;
875.4000;0.4624;0.9009;
875.7000;0.4672;0.9125;
876.0000;0.4632;0.9079;
876.3000;0.4648;0.9079;
876.6000;0.4656;0.9032;
876.9000;0.4640;0.8986;
877.2000;0.4648;0.9056;
877.5000;0.4648;0.8986;
877.8000;0.4615;0.8893;
878.1000;0.4656;0.8963;
878.4000;0.4672;0.8986;
878.7000;0.4615;0.8800;
879.0000;0.4656;0.8870;
879.3000;0.4656;0.8916;
879.6000;0.4632;0.8939;
879.9000;0.4656;0.9009;
880.2000;0.4640;0.9009;
880.5000;0.4656;0.9032;
880.8000;0.4648;0.8916;
881.1000;0.4664;0.9056;
881.4000;0.4648;0.9009;
881.7000;0.4664;0.9032;
882.0000;0.4640;0.9009;
882.3000;0.4689;0.9079;
882.6000;0.4681;0.9056;
882.9000;0.4656;0.8986;
883.2000;0.4607;0.8823;
883.5000;0.4656;0.8916;
883.8000;0.4656;0.8847;
884.1000;0.4648;0.8823;
884.4000;0.4591;0.8754;
884.7000;0.4648;0.8916;
885.0000;0.4721;0.9102;
885.3000;0.4591;0.8754;
885.6000;0.4648;0.8893;
885.9000;0.4664;0.8986;
886.2000;0.4705;0.9102;
886.5000;0.4640;0.8870;
886.8000;0.4648;0.8893;
887.1000;0.4656;0.8916;
887.4000;0.4681;0.8986;
887.7000;0.4664;0.9009;
888.0000;0.4656;0.8939;
888.3000;0.4640;0.8800;
888.6000;0.4640;0.8823;
888.9000;0.4640;0.8893;
889.2000;0.4624;0.8893;
889.5000;0.4648;0.8916;
889.8000;0.4648;0.8939;
890.1000;0.4664;0.9009;
890.4000;0.4681;0.9056;
890.7000;0.4632;0.8916;
891.0000;0.4648;0.8939;
891.3000;0.4705;0.9032;
891.6000;0.4648;0.8939;
891.9000;0.4664;0.9056;
892.2000;0.4656;0.9148;
892.5000;0.4664;0.9125;
892.8000;0.4664;0.9032;
893.1000;0.4656;0.8986;
893.4000;0.4664;0.9032;
893.7000;0.4648;0.9032;
894.0000;0.4656;0.9032;
894.3000;0.4632;0.8870;
894.6000;0.4656;0.8870;
894.9000;0.4640;0.8823;
895.2000;0.4632;0.8777;
895.5000;0.4648;0.8870;
895.8000;0.4632;0.8847;
896.1000;0.4648;0.8963;
896.4000;0.4640;0.9009;
896.7000;0.4632;0.8986;
897.0000;0.4648;0.9009;
897.3000;0.4615;0.8939;
897.6000;0.4664;0.9056;
897.9000;0.4656;0.9102;
898.2000;0.4664;0.9079;
898.5000;0.4640;0.9195;
898.8000;0.4599;0.9079;
899.1000;0.4689;0.9172;
899.4000;0.4542;0.8730;
899.7000;0.4656;0.8893;
900.0000;0.4640;0.8986;
900.3000;0.4648;0.9056;
900.6000;0.4648;0.9079;
900.9000;0.4624;0.8986;
901.2000;0.4632;0.8893;
901.5000;0.4640;0.8963;
901.8000;0.4689;0.9032;
902.1000;0.4648;0.8986;
902.4000;0.4632;0.8939;
902.7000;0.4648;0.8963;
903.0000;0.4632;0.8916;
903.3000;0.4624;0.8916;
903.6000;0.4648;0.9079;
903.9000;0.4640;0.9056;
904.2000;0.4648;0.9102;
904.5000;0.4648;0.9079;
904.8000;0.4615;0.9009;
905.1000;0.4648;0.9079;
905.4000;0.4632;0.9195;
905.7000;0.4640;0.9241;
906.0000;0.4640;0.9218;
906.3000;0.4656;0.9218;
906.6000;0.4664;0.9195;
906.9000;0.4648;0.9265;
907.2000;0.4640;0.9265;
907.5000;0.4632;0.9125;
907.8000;0.4640;0.9265;
908.1000;0.4656;0.9265;
908.4000;0.4534;0.8870;
908.7000;0.4656;0.9148;
909.0000;0.4697;0.9172;
909.3000;0.4672;0.9148;
909.6000;0.4648;0.9009;
909.9000;0.4648;0.9102;
910.2000;0.4624;0.9079;
910.5000;0.4607;0.9032;
910.8000;0.4632;0.9102;
911.1000;0.4632;0.9148;
911.4000;0.4624;0.9172;
911.7000;0.4640;0.9125;
912.0000;0.4640;0.9172;
912.3000;0.4656;0.9195;
912.6000;0.4656;0.9125;
912.9000;0.4656;0.9148;
913.2000;0.4648;0.9148;
913.5000;0.4656;0.9172;
913.8000;0.4656;0.9125;
914.1000;0.4648;0.8963;
914.4000;0.4648;0.8986;
914.7000;0.4672;0.9079;
915.0000;0.4648;0.9102;
915.3000;0.4632;0.9148;
915.6000;0.4624;0.9265;
915.9000;0.4632;0.9311;
916.2000;0.4632;0.9311;
916.5000;0.4632;0.9288;
916.8000;0.4640;0.9172;
917.1000;0.4640;0.9148;
917.4000;0.4624;0.9032;
917.7000;0.4632;0.8939;
918.0000;0.4697;0.9009;
918.3000;0.4640;0.8870;
918.6000;0.4640;0.8893;
918.9000;0.4648;0.8939;
919.2000;0.4656;0.9032;
919.5000;0.4640;0.8939;
919.8000;0.4640;0.8847;
920.1000;0.4624;0.8847;
920.4000;0.4640;0.8986;
920.7000;0.4640;0.9009;
921.0000;0.4729;0.9148;
921.3000;0.4656;0.8986;
921.6000;0.4640;0.8939;
921.9000;0.4632;0.8939;
922.2000;0.4632;0.8986;
922.5000;0.4615;0.8893;
922.8000;0.4632;0.8916;
923.1000;0.4656;0.9125;
923.4000;0.4632;0.9032;
923.7000;0.4575;0.8963;
924.0000;0.4648;0.9148;
924.3000;0.4664;0.9195;
924.6000;0.4648;0.9195;
924.9000;0.4640;0.9241;
925.2000;0.4640;0.9195;
925.5000;0.4672;0.9195;
925.8000;0.4648;0.9148;
926.1000;0.4648;0.9056;
926.4000;0.4632;0.8986;
926.7000;0.4632;0.9056;
927.0000;0.4624;0.9009;
927.3000;0.4640;0.8986;
927.6000;0.4648;0.9032;
927.9000;0.4640;0.8963;
928.2000;0.4689;0.9009;
928.5000;0.4664;0.8963;
928.8000;0.4632;0.8870;
929.1000;0.4632;0.8754;
929.4000;0.4640;0.8777;
929.7000;0.4632;0.8916;
930.0000;0.4624;0.9009;
930.3000;0.4607;0.8986;
930.6000;0.4632;0.9032;
930.9000;0.4648;0.9102;
931.2000;0.4575;0.8870;
931.5000;0.4640;0.9148;
931.8000;0.4640;0.9241;
932.1000;0.4648;0.9265;
932.4000;0.4656;0.9265;
932.7000;0.4632;0.9102;
933.0000;0.4624;0.9218;
933.3000;0.4542;0.8986;
933.6000;0.4632;0.9218;
933.9000;0.4640;0.9241;
934.2000;0.4632;0.9311;
934.5000;0.4648;0.9357;
934.8000;0.4648;0.9334;
935.1000;0.4656;0.9404;
935.4000;0.4656;0.9357;
935.7000;0.4656;0.9334;
936.0000;0.4648;0.9357;
936.3000;0.4607;0.9148;
936.6000;0.4632;0.9265;
936.9000;0.4656;0.9218;
937.2000;0.4648;0.9241;
937.5000;0.4656;0.9265;
937.8000;0.4624;0.9148;
938.1000;0.4640;0.9079;
938.4000;0.4632;0.9056;
938.7000;0.4624;0.9009;
939.0000;0.4656;0.9009;
939.3000;0.4648;0.9102;
939.6000;0.4640;0.9102;
939.9000;0.4624;0.9079;
940.2000;0.4640;0.9079;
940.5000;0.4615;0.9032;
940.8000;0.4632;0.9195;
941.1000;0.4632;0.9241;
941.4000;0.4632;0.9195;
941.7000;0.4615;0.9032;
942.0000;0.4648;0.9079;
942.3000;0.4648;0.9102;
942.6000;0.4648;0.9032;
942.9000;0.4624;0.9009;
943.2000;0.4632;0.9102;
943.5000;0.4624;0.9102;
943.8000;0.4648;0.9125;
944.1000;0.4615;0.9032;
944.4000;0.4632;0.9102;
944.7000;0.4689;0.9265;
945.0000;0.4615;0.9172;
945.3000;0.4656;0.9265;
945.6000;0.4648;0.9195;
945.9000;0.4640;0.9056;
946.2000;0.4599;0.8986;
946.5000;0.4640;0.9056;
946.8000;0.4632;0.9056;
947.1000;0.4648;0.9125;
947.4000;0.4640;0.9125;
947.7000;0.4575;0.8800;
948.0000;0.4648;0.8986;
948.3000;0.4713;0.9172;
948.6000;0.4640;0.9056;
948.9000;0.4648;0.9056;
949.2000;0.4648;0.9056;
949.5000;0.4624;0.9125;
949.8000;0.4656;0.9148;
950.1000;0.4558;0.8939;
950.4000;0.4656;0.9195;
950.7000;0.4640;0.9195;
951.0000;0.4648;0.9265;
951.3000;0.4583;0.9102;
951.6000;0.4624;0.9148;
951.9000;0.4648;0.9288;
952.2000;0.4762;0.9566;
952.5000;0.4648;0.9288;
952.8000;0.4640;0.9265;
953.1000;0.4640;0.9241;
953.4000;0.4664;0.9288;
953.7000;0.4648;0.9195;
954.0000;0.4664;0.9241;
954.3000;0.4697;0.9334;
954.6000;0.4607;0.9032;
954.9000;0.4632;0.8963;
955.2000;0.4640;0.8963;
955.5000;0.4615;0.8823;
955.8000;0.4664;0.8916;
956.1000;0.4681;0.8963;
956.4000;0.4640;0.8963;
956.7000;0.4648;0.8963;
957.0000;0.4648;0.9102;
957.3000;0.4624;0.9056;
957.6000;0.4632;0.9056;
957.9000;0.4664;0.9148;
958.2000;0.4632;0.9102;
958.5000;0.4689;0.9195;
958.8000;0.4640;0.9102;
959.1000;0.4648;0.8986;
959.4000;0.4624;0.8847;
959.7000;0.4640;0.8870;
960.0000;0.4640;0.8870;
960.3000;0.4624;0.8986;
960.6000;0.4656;0.9172;
960.9000;0.4640;0.9148;
961.2000;0.4615;0.8986;
961.5000;0.4632;0.9009;
961.8000;0.4632;0.9009;
962.1000;0.4632;0.8963;
962.4000;0.4567;0.8684;
962.7000;0.4632;0.8847;
963.0000;0.4737;0.9102;
963.3000;0.4632;0.8893;
963.6000;0.4640;0.8986;
963.9000;0.4689;0.9125;
964.2000;0.4648;0.9056;
964.5000;0.4640;0.9056;
964.8000;0.4632;0.9079;
965.1000;0.4607;0.9079;
965.4000;0.4632;0.9079;
965.7000;0.4624;0.9102;
966.0000;0.4640;0.9148;
966.3000;0.4656;0.9148;
966.6000;0.4648;0.9195;
966.9000;0.4648;0.9265;
967.2000;0.4632;0.9056;
967.5000;0.4607;0.9009;
967.8000;0.4607;0.8986;
968.1000;0.4640;0.9172;
968.4000;0.4640;0.9172;
968.7000;0.4640;0.9218;
969.0000;0.4599;0.9009;
969.3000;0.4640;0.9079;
969.6000;0.4656;0.9079;
969.9000;0.4640;0.9079;
970.2000;0.4599;0.8963;
970.5000;0.4689;0.9195;
970.8000;0.4705;0.9218;
971.1000;0.4640;0.9009;
971.4000;0.4624;0.9009;
971.7000;0.4656;0.9172;
972.0000;0.4632;0.9125;
972.3000;0.4672;0.9241;
972.6000;0.4607;0.9125;
972.9000;0.4632;0.9148;
973.2000;0.4648;0.9218;
973.5000;0.4640;0.9218;
973.8000;0.4640;0.9218;
974.1000;0.4681;0.9218;
974.4000;0.4640;0.9102;
974.7000;0.4656;0.9032;
975.0000;0.4607;0.9009;
975.3000;0.4656;0.9079;
975.6000;0.4615;0.9009;
975.9000;0.4648;0.9032;
976.2000;0.4624;0.8963;
976.5000;0.4681;0.9102;
976.8000;0.4632;0.9032;
977.1000;0.4648;0.9032;
977.4000;0.4640;0.8986;
977.7000;0.4648;0.9079;
978.0000;0.4607;0.9032;
978.3000;0.4558;0.8870;
978.6000;0.4575;0.8870;
978.9000;0.4640;0.9009;
979.2000;0.4632;0.9056;
979.5000;0.4656;0.9009;
979.8000;0.4632;0.8963;
980.1000;0.4648;0.8893;
980.4000;0.4640;0.8939;
980.7000;0.4640;0.9079;
981.0000;0.4640;0.9032;
981.3000;0.4648;0.8963;
981.6000;0.4607;0.8870;
981.9000;0.4632;0.8986;
982.2000;0.4632;0.8916;
982.5000;0.4607;0.8823;
982.8000;0.4615;0.8847;
983.1000;0.4648;0.8916;
983.4000;0.4624;0.8847;
983.7000;0.4632;0.8916;
984.0000;0.4640;0.9009;
984.3000;0.4632;0.9079;
984.6000;0.4648;0.9102;
984.9000;0.4640;0.9102;
985.2000;0.4624;0.8939;
985.5000;0.4648;0.8939;
985.8000;0.4632;0.9032;
986.1000;0.4615;0.8963;
986.4000;0.4640;0.9056;
986.7000;0.4615;0.9079;
987.0000;0.4607;0.9079;
987.3000;0.4624;0.9148;
987.6000;0.4632;0.9032;
987.9000;0.4607;0.8916;
988.2000;0.4632;0.8939;
988.5000;0.4640;0.8963;
988.8000;0.4632;0.8939;
989.1000;0.4615;0.8963;
989.4000;0.4632;0.9032;
989.7000;0.4640;0.9125;
990.0000;0.4640;0.9148;
990.3000;0.4632;0.9125;
990.6000;0.4632;0.9125;
990.9000;0.4640;0.9172;
991.2000;0.4632;0.9218;
991.5000;0.4567;0.9032;
991.8000;0.4632;0.9218;
992.1000;0.4607;0.9218;
992.4000;0.4656;0.9334;
992.7000;0.4632;0.9195;
993.0000;0.4615;0.9056;
993.3000;0.4632;0.9125;
993.6000;0.4640;0.9125;
993.9000;0.4624;0.9079;
994.2000;0.4607;0.9102;
994.5000;0.4672;0.9241;
994.8000;0.4632;0.9148;
995.1000;0.4640;0.9195;
995.4000;0.4624;0.9148;
995.7000;0.4640;0.9311;
996.0000;0.4615;0.9241;
996.3000;0.4632;0.9311;
996.6000;0.4615;0.9288;
996.9000;0.4624;0.9288;
997.2000;0.4632;0.9381;
997.5000;0.4624;0.9357;
997.8000;0.4640;0.9334;
998.1000;0.4615;0.9148;
998.4000;0.4624;0.9148;
998.7000;0.4640;0.9172;
999.0000;0.4591;0.8986;
999.3000;0.4632;0.9102;
999.6000;0.4632;0.9079;
999.9000;0.4713;0.9311;
1000.2000;0.4624;0.9079;
1000.5000;0.4632;0.9079;
1000.8000;0.4632;0.9195;
1001.1000;0.4640;0.9195;
1001.4000;0.4599;0.9056;
1001.7000;0.4640;0.9241;
1002.0000;0.4607;0.9172;
1002.3000;0.4624;0.9172;
1002.6000;0.4648;0.9288;
1002.9000;0.4632;0.9241;
1003.2000;0.4721;0.9404;
1003.5000;0.4624;0.9172;
1003.8000;0.4624;0.9079;
1004.1000;0.4640;0.9056;
1004.4000;0.4624;0.9009;
1004.7000;0.4632;0.9032;
1005.0000;0.4648;0.9032;
1005.3000;0.4640;0.9032;
1005.6000;0.4632;0.9032;
1005.9000;0.4648;0.8986;
1006.2000;0.4664;0.9009;
1006.5000;0.4640;0.8986;
1006.8000;0.4624;0.8893;
1007.1000;0.4632;0.8916;
1007.4000;0.4697;0.9056;
1007.7000;0.4640;0.8893;
1008.0000;0.4640;0.8916;
1008.3000;0.4672;0.9009;
1008.6000;0.4640;0.8986;
1008.9000;0.4607;0.8847;
1009.2000;0.4640;0.8823;
1009.5000;0.4615;0.8684;
1009.8000;0.4624;0.8730;
1010.1000;0.4624;0.8777;
1010.4000;0.4632;0.8823;
1010.7000;0.4624;0.8847;
1011.0000;0.4624;0.8916;
1011.3000;0.4640;0.8939;
1011.6000;0.4648;0.8939;
1011.9000;0.4640;0.8847;
1012.2000;0.4607;0.8800;
1012.5000;0.4624;0.8916;
1012.8000;0.4575;0.8800;
1013.1000;0.4624;0.8916;
1013.4000;0.4575;0.8893;
1013.7000;0.4624;0.8986;
1014.0000;0.4615;0.9032;
1014.3000;0.4689;0.9195;
1014.6000;0.4599;0.8939;
1014.9000;0.4607;0.8870;
1015.2000;0.4599;0.8963;
1015.5000;0.4632;0.9009;
1015.8000;0.4624;0.8939;
1016.1000;0.4632;0.9009;
1016.4000;0.4664;0.9032;
1016.7000;0.4534;0.8730;
1017.0000;0.4632;0.8963;
1017.3000;0.4632;0.8939;
1017.6000;0.4640;0.9009;
1017.9000;0.4640;0.9056;
1018.2000;0.4591;0.8963;
1018.5000;0.4681;0.9079;
1018.8000;0.4615;0.8939;
1019.1000;0.4607;0.9079;
1019.4000;0.4632;0.9172;
1019.7000;0.4624;0.9148;
1020.0000;0.4640;0.9195;
1020.3000;0.4640;0.9102;
1020.6000;0.4632;0.9056;
1020.9000;0.4624;0.9079;
1021.2000;0.4632;0.9148;
1021.5000;0.4632;0.9241;
1021.8000;0.4599;0.9079;
1022.1000;0.4640;0.9032;
1022.4000;0.4624;0.9032;
1022.7000;0.4607;0.8986;
1023.0000;0.4648;0.8963;
1023.3000;0.4615;0.8916;
1023.6000;0.4607;0.8870;
1023.9000;0.4615;0.8847;
1024.2000;0.4624;0.8823;
1024.5000;0.4607;0.8893;
1024.8000;0.4624;0.8870;
1025.1000;0.4624;0.8823;
1025.4000;0.4624;0.8823;
1025.7000;0.4624;0.8800;
1026.0000;0.4640;0.8847;
1026.3000;0.4607;0.8893;
1026.6000;0.4624;0.8986;
1026.9000;0.4632;0.8986;
1027.2000;0.4632;0.9009;
1027.5000;0.4624;0.9009;
1027.8000;0.4624;0.8986;
1028.1000;0.4656;0.9056;
1028.4000;0.4672;0.9102;
1028.7000;0.4648;0.9079;
1029.0000;0.4640;0.9195;
1029.3000;0.4632;0.9148;
1029.6000;0.4640;0.9195;
1029.9000;0.4615;0.9125;
1030.2000;0.4615;0.9102;
1030.5000;0.4632;0.9148;
1030.8000;0.4648;0.9195;
1031.1000;0.4624;0.9102;
1031.4000;0.4640;0.9102;
1031.7000;0.4632;0.9102;
1032.0000;0.4624;0.9032;
1032.3000;0.4632;0.9056;
1032.6000;0.4640;0.9148;
1032.9000;0.4632;0.9102;
1033.2000;0.4624;0.9148;
1033.5000;0.4648;0.9079;
1033.8000;0.4632;0.8963;
1034.1000;0.4591;0.8893;
1034.4000;0.4640;0.9125;
1034.7000;0.4599;0.9032;
1035.0000;0.4615;0.9079;
1035.3000;0.4615;0.8893;
1035.6000;0.4648;0.8939;
1035.9000;0.4648;0.9079;
1036.2000;0.4632;0.9125;
1036.5000;0.4624;0.9241;
1036.8000;0.4591;0.9148;
1037.1000;0.4615;0.9218;
1037.4000;0.4607;0.9288;
1037.7000;0.4615;0.9218;
1038.0000;0.4640;0.9218;
1038.3000;0.4615;0.9148;
1038.6000;0.4615;0.9195;
1038.9000;0.4615;0.9102;
1039.2000;0.4640;0.9102;
1039.5000;0.4640;0.8963;
1039.8000;0.4607;0.8847;
1040.1000;0.4689;0.8986;
1040.4000;0.4624;0.8847;
1040.7000;0.4656;0.8870;
1041.0000;0.4697;0.8986;
1041.3000;0.4632;0.8847;
1041.6000;0.4615;0.8823;
1041.9000;0.4632;0.8823;
1042.2000;0.4624;0.8800;
1042.5000;0.4640;0.8730;
1042.8000;0.4640;0.8684;
1043.1000;0.4615;0.8754;
1043.4000;0.4648;0.8893;
1043.7000;0.4632;0.8823;
1044.0000;0.4615;0.8777;
1044.3000;0.4624;0.8754;
1044.6000;0.4632;0.8800;
1044.9000;0.4640;0.8847;
1045.2000;0.4607;0.8847;
1045.5000;0.4632;0.8916;
1045.8000;0.4624;0.8823;
1046.1000;0.4624;0.8777;
1046.4000;0.4624;0.8730;
1046.7000;0.4632;0.8823;
1047.0000;0.4624;0.8847;
1047.3000;0.4558;0.8777;
1047.6000;0.4624;0.8986;
1047.9000;0.4624;0.9009;
1048.2000;0.4599;0.9102;
1048.5000;0.4632;0.9172;
1048.8000;0.4607;0.9102;
1049.1000;0.4624;0.9125;
1049.4000;0.4624;0.9195;
1049.7000;0.4624;0.9102;
1050.0000;0.4607;0.9195;
1050.3000;0.4705;0.9450;
1050.6000;0.4615;0.9288;
1050.9000;0.4624;0.9357;
1051.2000;0.4632;0.9357;
1051.5000;0.4607;0.9357;
1051.8000;0.4640;0.9404;
1052.1000;0.4648;0.9334;
1052.4000;0.4607;0.9241;
1052.7000;0.4599;0.9218;
1053.0000;0.4640;0.9311;
1053.3000;0.4624;0.9195;
1053.6000;0.4632;0.9218;
1053.9000;0.4615;0.9102;
1054.2000;0.4624;0.9125;
1054.5000;0.4615;0.9218;
1054.8000;0.4632;0.9172;
1055.1000;0.4632;0.9218;
1055.4000;0.4599;0.9172;
1055.7000;0.4624;0.9241;
1056.0000;0.4632;0.9102;
1056.3000;0.4526;0.8800;
1056.6000;0.4583;0.9032;
1056.9000;0.4607;0.9148;
1057.2000;0.4648;0.9241;
1057.5000;0.4615;0.9195;
1057.8000;0.4624;0.9172;
1058.1000;0.4615;0.9195;
1058.4000;0.4632;0.9288;
1058.7000;0.4632;0.9404;
1059.0000;0.4615;0.9334;
1059.3000;0.4607;0.9148;
1059.6000;0.4624;0.9172;
1059.9000;0.4624;0.9125;
1060.2000;0.4615;0.9172;
1060.5000;0.4624;0.9148;
1060.8000;0.4615;0.9125;
1061.1000;0.4648;0.9195;
1061.4000;0.4632;0.9148;
1061.7000;0.4615;0.9148;
1062.0000;0.4624;0.9148;
1062.3000;0.4624;0.9218;
1062.6000;0.4624;0.9195;
1062.9000;0.4607;0.8986;
1063.2000;0.4591;0.8893;
1063.5000;0.4591;0.8893;
1063.8000;0.4632;0.8986;
1064.1000;0.4648;0.9125;
1064.4000;0.4591;0.8916;
1064.7000;0.4640;0.8963;
1065.0000;0.4567;0.8800;
1065.3000;0.4624;0.8986;
1065.6000;0.4607;0.8986;
1065.9000;0.4615;0.8986;
1066.2000;0.4632;0.9032;
1066.5000;0.4615;0.9009;
1066.8000;0.4640;0.9032;
1067.1000;0.4624;0.9009;
1067.4000;0.4607;0.9009;
1067.7000;0.4640;0.9102;
1068.0000;0.4656;0.9172;
1068.3000;0.4607;0.9009;
1068.6000;0.4607;0.9032;
1068.9000;0.4607;0.9079;
1069.2000;0.4615;0.9079;
1069.5000;0.4615;0.9056;
1069.8000;0.4632;0.9102;
1070.1000;0.4648;0.9195;
1070.4000;0.4721;0.9450;
1070.7000;0.4615;0.9172;
1071.0000;0.4624;0.9102;
1071.3000;0.4664;0.9148;
1071.6000;0.4624;0.9125;
1071.9000;0.4607;0.9172;
1072.2000;0.4607;0.9218;
1072.5000;0.4615;0.9241;
1072.8000;0.4534;0.9009;
1073.1000;0.4632;0.9288;
1073.4000;0.4624;0.9334;
1073.7000;0.4632;0.9265;
1074.0000;0.4615;0.9241;
1074.3000;0.4615;0.9218;
1074.6000;0.4607;0.9218;
1074.9000;0.4632;0.9125;
1075.2000;0.4632;0.9125;
1075.5000;0.4624;0.9195;
1075.8000;0.4664;0.9195;
1076.1000;0.4632;0.9195;
1076.4000;0.4624;0.9218;
1076.7000;0.4615;0.9125;
1077.0000;0.4624;0.9148;
1077.3000;0.4615;0.9125;
1077.6000;0.4640;0.9311;
1077.9000;0.4640;0.9357;
1078.2000;0.4632;0.9288;
1078.5000;0.4656;0.9288;
1078.8000;0.4615;0.9241;
1079.1000;0.4624;0.9288;
1079.4000;0.4632;0.9241;
1079.7000;0.4615;0.9218;
1080.0000;0.4624;0.9172;
1080.3000;0.4624;0.9148;
1080.6000;0.4640;0.9218;
1080.9000;0.4624;0.9218;
1081.2000;0.4640;0.9125;
1081.5000;0.4591;0.8939;
1081.8000;0.4624;0.9056;
1082.1000;0.4648;0.9148;
1082.4000;0.4607;0.9056;
1082.7000;0.4599;0.9056;
1083.0000;0.4624;0.9056;
1083.3000;0.4632;0.9032;
1083.6000;0.4632;0.9009;
1083.9000;0.4615;0.8963;
1084.2000;0.4542;0.8847;
1084.5000;0.4632;0.9102;
1084.8000;0.4624;0.9056;
1085.1000;0.4624;0.9009;
1085.4000;0.4624;0.9056;
1085.7000;0.4591;0.9079;
1086.0000;0.4575;0.8963;
1086.3000;0.4624;0.9195;
1086.6000;0.4656;0.9195;
1086.9000;0.4648;0.9334;
1087.2000;0.4640;0.9427;
1087.5000;0.4624;0.9265;
1087.8000;0.4624;0.9172;
1088.1000;0.4599;0.9125;
1088.4000;0.4640;0.9125;
1088.7000;0.4607;0.8916;
1089.0000;0.4632;0.8986;
1089.3000;0.4615;0.9009;
1089.6000;0.4632;0.9102;
1089.9000;0.4624;0.9125;
1090.2000;0.4632;0.9148;
1090.5000;0.4632;0.9102;
1090.8000;0.4648;0.9148;
1091.1000;0.4672;0.9195;
1091.4000;0.4640;0.9172;
1091.7000;0.4624;0.9195;
1092.0000;0.4583;0.8939;
1092.3000;0.4591;0.9009;
1092.6000;0.4632;0.9056;
1092.9000;0.4615;0.9079;
1093.2000;0.4632;0.9079;
1093.5000;0.4632;0.9102;
1093.8000;0.4615;0.9056;
1094.1000;0.4632;0.9009;
1094.4000;0.4558;0.8870;
1094.7000;0.4640;0.9102;
1095.0000;0.4615;0.9056;
1095.3000;0.4607;0.9032;
1095.6000;0.4624;0.9056;
1095.9000;0.4615;0.9056;
1096.2000;0.4615;0.9032;
1096.5000;0.4615;0.9102;
1096.8000;0.4624;0.9241;
1097.1000;0.4640;0.9265;
1097.4000;0.4615;0.9148;
1097.7000;0.4558;0.8939;
1098.0000;0.4615;0.9148;
1098.3000;0.4624;0.9079;
1098.6000;0.4615;0.9009;
1098.9000;0.4640;0.8986;
1099.2000;0.4615;0.9009;
1099.5000;0.4615;0.9079;
1099.8000;0.4632;0.9102;
1100.1000;0.4624;0.9195;
1100.4000;0.4632;0.9265;
1100.7000;0.4624;0.9148;
1101.0000;0.4624;0.9195;
1101.3000;0.4615;0.9148;
1101.6000;0.4648;0.9079;
1101.9000;0.4624;0.9009;
1102.2000;0.4599;0.9032;
1102.5000;0.4550;0.8893;
1102.8000;0.4607;0.9056;
1103.1000;0.4624;0.9148;
1103.4000;0.4624;0.9102;
1103.7000;0.4632;0.9125;
1104.0000;0.4624;0.9102;
1104.3000;0.4648;0.9102;
1104.6000;0.4624;0.9079;
1104.9000;0.4648;0.9102;
1105.2000;0.4624;0.9102;
1105.5000;0.4632;0.9125;
1105.8000;0.4607;0.9032;
1106.1000;0.4599;0.9102;
1106.4000;0.4632;0.9195;
1106.7000;0.4615;0.9148;
1107.0000;0.4681;0.9241;
1107.3000;0.4640;0.9056;
1107.6000;0.4624;0.8963;
1107.9000;0.4624;0.8986;
1108.2000;0.4729;0.9311;
1108.5000;0.4591;0.8916;
1108.8000;0.4632;0.9009;
1109.1000;0.4656;0.9032;
1109.4000;0.4607;0.8939;
1109.7000;0.4624;0.8986;
1110.0000;0.4656;0.9079;
1110.3000;0.4624;0.8963;
1110.6000;0.4607;0.8916;
1110.9000;0.4624;0.9079;
1111.2000;0.4770;0.9590;
1111.5000;0.4607;0.9288;
1111.8000;0.4640;0.9334;
1112.1000;0.4591;0.9148;
1112.4000;0.4615;0.9172;
1112.7000;0.4624;0.9218;
1113.0000;0.4615;0.9241;
1113.3000;0.4632;0.9241;
1113.6000;0.4624;0.9218;
1113.9000;0.4648;0.9334;
1114.2000;0.4615;0.9148;
1114.5000;0.4632;0.9172;
1114.8000;0.4615;0.9195;
1115.1000;0.4615;0.9148;
1115.4000;0.4615;0.9148;
1115.7000;0.4624;0.9079;
1116.0000;0.4607;0.9056;
1116.3000;0.4607;0.8986;
1116.6000;0.4615;0.8963;
1116.9000;0.4607;0.8939;
1117.2000;0.4640;0.8986;
1117.5000;0.4599;0.8939;
1117.8000;0.4607;0.8916;
1118.1000;0.4632;0.9032;
1118.4000;0.4607;0.9009;
1118.7000;0.4705;0.9056;
1119.0000;0.4632;0.8777;
1119.3000;0.4640;0.8754;
1119.6000;0.4599;0.8568;
1119.9000;0.4615;0.8661;
1120.2000;0.4607;0.8823;
1120.5000;0.4624;0.8847;
1120.8000;0.4607;0.8847;
1121.1000;0.4615;0.8823;
1121.4000;0.4615;0.8707;
1121.7000;0.4607;0.8684;
1122.0000;0.4632;0.8823;
1122.3000;0.4624;0.8800;
1122.6000;0.4624;0.8730;
1122.9000;0.4607;0.8777;
1123.2000;0.4615;0.8777;
1123.5000;0.4615;0.8777;
1123.8000;0.4640;0.8847;
1124.1000;0.4632;0.8870;
1124.4000;0.4558;0.8847;
1124.7000;0.4624;0.8986;
1125.0000;0.4640;0.8939;
1125.3000;0.4615;0.8916;
1125.6000;0.4672;0.9079;
1125.9000;0.4632;0.8986;
1126.2000;0.4591;0.8916;
1126.5000;0.4632;0.8963;
1126.8000;0.4615;0.8939;
1127.1000;0.4640;0.8939;
1127.4000;0.4615;0.8847;
1127.7000;0.4615;0.8823;
1128.0000;0.4615;0.8823;
1128.3000;0.4624;0.8847;
1128.6000;0.4615;0.8777;
1128.9000;0.4615;0.8847;
1129.2000;0.4615;0.8847;
1129.5000;0.4615;0.8870;
1129.8000;0.4624;0.8939;
1130.1000;0.4599;0.8870;
1130.4000;0.4640;0.8870;
1130.7000;0.4624;0.8963;
1131.0000;0.4672;0.8916;
1131.3000;0.4599;0.8707;
1131.6000;0.4624;0.8823;
1131.9000;0.4599;0.8847;
1132.2000;0.4632;0.8893;
1132.5000;0.4615;0.8870;
1132.8000;0.4632;0.8939;
1133.1000;0.4615;0.8916;
1133.4000;0.4624;0.8870;
1133.7000;0.4615;0.8870;
1134.0000;0.4640;0.8963;
1134.3000;0.4640;0.8986;
1134.6000;0.4640;0.8893;
1134.9000;0.4615;0.8870;
1135.2000;0.4567;0.8870;
1135.5000;0.4632;0.9102;
1135.8000;0.4615;0.9079;
1136.1000;0.4607;0.9032;
1136.4000;0.4591;0.8870;
1136.7000;0.4615;0.9102;
1137.0000;0.4615;0.9079;
1137.3000;0.4648;0.9195;
1137.6000;0.4624;0.8986;
1137.9000;0.4624;0.8939;
1138.2000;0.4632;0.8823;
1138.5000;0.4632;0.8847;
1138.8000;0.4615;0.8754;
1139.1000;0.4624;0.8730;
1139.4000;0.4607;0.8730;
1139.7000;0.4591;0.8730;
1140.0000;0.4632;0.8916;
1140.3000;0.4615;0.8986;
1140.6000;0.4632;0.9102;
1140.9000;0.4624;0.9102;
1141.2000;0.4591;0.9056;
1141.5000;0.4615;0.9172;
1141.8000;0.4624;0.9195;
1142.1000;0.4607;0.9195;
1142.4000;0.4607;0.9032;
1142.7000;0.4640;0.9172;
1143.0000;0.4607;0.9032;
1143.3000;0.4607;0.8870;
1143.6000;0.4624;0.8823;
1143.9000;0.4632;0.8730;
1144.2000;0.4624;0.8707;
1144.5000;0.4591;0.8591;
1144.8000;0.4632;0.8614;
1145.1000;0.4607;0.8545;
1145.4000;0.4615;0.8661;
1145.7000;0.4615;0.8777;
1146.0000;0.4624;0.8777;
1146.3000;0.4607;0.8730;
1146.6000;0.4599;0.8730;
1146.9000;0.4632;0.8893;
1147.2000;0.4607;0.8847;
1147.5000;0.4583;0.8730;
1147.8000;0.4599;0.8847;
1148.1000;0.4607;0.8823;
1148.4000;0.4632;0.8893;
1148.7000;0.4624;0.8847;
1149.0000;0.4624;0.8963;
1149.3000;0.4624;0.9032;
1149.6000;0.4640;0.9056;
1149.9000;0.4640;0.9009;
1150.2000;0.4632;0.9148;
1150.5000;0.4542;0.8939;
1150.8000;0.4607;0.9056;
1151.1000;0.4591;0.9102;
1151.4000;0.4615;0.9125;
1151.7000;0.4615;0.8986;
1152.0000;0.4632;0.8986;
1152.3000;0.4624;0.9056;
1152.6000;0.4632;0.9125;
1152.9000;0.4615;0.9056;
1153.2000;0.4615;0.8986;
1153.5000;0.4632;0.9079;
1153.8000;0.4624;0.9102;
1154.1000;0.4615;0.9102;
1154.4000;0.4615;0.9148;
1154.7000;0.4615;0.9125;
1155.0000;0.4632;0.9125;
1155.3000;0.4607;0.9172;
1155.6000;0.4624;0.9195;
1155.9000;0.4656;0.9172;
1156.2000;0.4624;0.9032;
1156.5000;0.4624;0.9032;
1156.8000;0.4632;0.9056;
1157.1000;0.4607;0.9056;
1157.4000;0.4607;0.9102;
1157.7000;0.4632;0.9009;
1158.0000;0.4664;0.9172;
1158.3000;0.4624;0.9148;
1158.6000;0.4615;0.9079;
1158.9000;0.4599;0.9056;
1159.2000;0.4599;0.9172;
1159.5000;0.4640;0.9218;
1159.8000;0.4632;0.9195;
1160.1000;0.4624;0.9195;
1160.4000;0.4624;0.9172;
1160.7000;0.4607;0.9009;
1161.0000;0.4648;0.9079;
1161.3000;0.4599;0.9009;
1161.6000;0.4624;0.9102;
1161.9000;0.4599;0.9125;
1162.2000;0.4640;0.9218;
1162.5000;0.4615;0.9079;
1162.8000;0.4615;0.9032;
1163.1000;0.4534;0.8800;
1163.4000;0.4664;0.9148;
1163.7000;0.4640;0.9195;
1164.0000;0.4583;0.9102;
1164.3000;0.4624;0.9218;
1164.6000;0.4640;0.9265;
1164.9000;0.4681;0.9404;
1165.2000;0.4656;0.9404;
1165.5000;0.4624;0.9404;
1165.8000;0.4607;0.9288;
1166.1000;0.4648;0.9288;
1166.4000;0.4640;0.9218;
1166.7000;0.4615;0.9241;
1167.0000;0.4689;0.9473;
1167.3000;0.4632;0.9241;
1167.6000;0.4632;0.9195;
1167.9000;0.4624;0.9195;
1168.2000;0.4607;0.9102;
1168.5000;0.4591;0.9102;
1168.8000;0.4615;0.9148;
1169.1000;0.4615;0.9172;
1169.4000;0.4656;0.9288;
1169.7000;0.4640;0.9241;
1170.0000;0.4640;0.9334;
1170.3000;0.4640;0.9265;
1170.6000;0.4567;0.9032;
1170.9000;0.4624;0.9102;
1171.2000;0.4624;0.9056;
1171.5000;0.4632;0.9172;
1171.8000;0.4624;0.9148;
1172.1000;0.4615;0.9125;
1172.4000;0.4624;0.8986;
1172.7000;0.4664;0.9102;
1173.0000;0.4632;0.9009;
1173.3000;0.4607;0.9032;
1173.6000;0.4615;0.9125;
1173.9000;0.4615;0.9125;
1174.2000;0.4607;0.9172;
1174.5000;0.4615;0.9172;
1174.8000;0.4607;0.9265;
1175.1000;0.4632;0.9241;
1175.4000;0.4632;0.9172;
1175.7000;0.4615;0.9056;
1176.0000;0.4599;0.8963;
1176.3000;0.4624;0.8963;
1176.6000;0.4624;0.8986;
1176.9000;0.4615;0.8963;
1177.2000;0.4575;0.8823;
1177.5000;0.4615;0.8893;
1177.8000;0.4632;0.8986;
1178.1000;0.4599;0.9032;
1178.4000;0.4624;0.9079;
1178.7000;0.4624;0.9125;
1179.0000;0.4615;0.9102;
1179.3000;0.4607;0.9056;
1179.6000;0.4567;0.8870;
1179.9000;0.4648;0.9148;
1180.2000;0.4705;0.9334;
1180.5000;0.4615;0.9125;
1180.8000;0.4624;0.9241;
1181.1000;0.4591;0.9172;
1181.4000;0.4640;0.9288;
1181.7000;0.4591;0.9102;
1182.0000;0.4624;0.9195;
1182.3000;0.4648;0.9265;
1182.6000;0.4681;0.9357;
1182.9000;0.4615;0.9288;
1183.2000;0.4624;0.9218;
1183.5000;0.4607;0.9172;
1183.8000;0.4624;0.9241;
1184.1000;0.4607;0.9148;
1184.4000;0.4624;0.9195;
1184.7000;0.4599;0.9102;
1185.0000;0.4624;0.9148;
1185.3000;0.4632;0.9172;
1185.6000;0.4689;0.9311;
1185.9000;0.4591;0.9056;
1186.2000;0.4632;0.9056;
1186.5000;0.4632;0.9032;
1186.8000;0.4607;0.9079;
1187.1000;0.4550;0.8893;
1187.4000;0.4681;0.9079;
1187.7000;0.4624;0.8893;
1188.0000;0.4624;0.8893;
1188.3000;0.4607;0.8893;
1188.6000;0.4615;0.8916;
1188.9000;0.4607;0.8986;
1189.2000;0.4632;0.9056;
1189.5000;0.4624;0.9032;
1189.8000;0.4624;0.9079;
1190.1000;0.4624;0.9056;
1190.4000;0.4599;0.9102;
1190.7000;0.4615;0.9056;
1191.0000;0.4664;0.9079;
1191.3000;0.4615;0.8916;
1191.6000;0.4607;0.8939;
1191.9000;0.4615;0.8893;
1192.2000;0.4615;0.8800;
1192.5000;0.4640;0.8870;
1192.8000;0.4640;0.9009;
1193.1000;0.4632;0.8963;
1193.4000;0.4632;0.8893;
1193.7000;0.4615;0.8870;
1194.0000;0.4615;0.8986;
1194.3000;0.4624;0.9102;
1194.6000;0.4632;0.9148;
1194.9000;0.4615;0.9032;
1195.2000;0.4624;0.9056;
1195.5000;0.4550;0.8939;
1195.8000;0.4607;0.9009;
1196.1000;0.4624;0.9009;
1196.4000;0.4615;0.9032;
1196.7000;0.4640;0.9102;
1197.0000;0.4615;0.9056;
1197.3000;0.4607;0.8939;
1197.6000;0.4615;0.9009;
1197.9000;0.4607;0.8963;
1198.2000;0.4632;0.9056;
1198.5000;0.4615;0.9079;
1198.8000;0.4624;0.9032;
1199.1000;0.4575;0.8963;
1199.4000;0.4599;0.8963;
1199.7000;0.4607;0.9032;
1200.0000;0.4664;0.9357;
1200.3000;0.4599;0.9195;
1200.6000;0.4640;0.9334;
1200.9000;0.4624;0.9265;
1201.2000;0.4615;0.9125;
1201.5000;0.4624;0.9125;
1201.8000;0.4632;0.9195;
1202.1000;0.4632;0.9148;
1202.4000;0.4575;0.8916;
1202.7000;0.4615;0.9032;
1203.0000;0.4607;0.9009;
1203.3000;0.4664;0.9195;
1203.6000;0.4681;0.9148;
1203.9000;0.4624;0.9009;
1204.2000;0.4632;0.9056;
1204.5000;0.4624;0.9056;
1204.8000;0.4664;0.9172;
1205.1000;0.4624;0.8986;
1205.4000;0.4624;0.8963;
1205.7000;0.4607;0.9009;
1206.0000;0.4624;0.9056;
1206.3000;0.4607;0.9172;
1206.6000;0.4501;0.8986;
1206.9000;0.4640;0.9265;
1207.2000;0.4640;0.9357;
1207.5000;0.4615;0.9288;
1207.8000;0.4615;0.9241;
1208.1000;0.4624;0.9172;
1208.4000;0.4607;0.9148;
1208.7000;0.4615;0.9148;
1209.0000;0.4615;0.9148;
1209.3000;0.4624;0.9148;
1209.6000;0.4591;0.9102;
1209.9000;0.4575;0.9056;
1210.2000;0.4599;0.9079;
1210.5000;0.4607;0.8986;
1210.8000;0.4624;0.9032;
1211.1000;0.4672;0.9218;
1211.4000;0.4607;0.9148;
1211.7000;0.4607;0.9172;
1212.0000;0.4632;0.9172;
1212.3000;0.4591;0.9148;
1212.6000;0.4599;0.9148;
1212.9000;0.4615;0.9125;
1213.2000;0.4591;0.8963;
1213.5000;0.4624;0.9079;
1213.8000;0.4607;0.9079;
1214.1000;0.4607;0.9079;
1214.4000;0.4681;0.9241;
1214.7000;0.4615;0.9056;
1215.0000;0.4624;0.9195;
1215.3000;0.4624;0.9218;
1215.6000;0.4599;0.9195;
1215.9000;0.4624;0.9125;
1216.2000;0.4607;0.8986;
1216.5000;0.4624;0.9079;
1216.8000;0.4615;0.9079;
1217.1000;0.4632;0.9241;
1217.4000;0.4607;0.9288;
1217.7000;0.4624;0.9357;
1218.0000;0.4607;0.9311;
1218.3000;0.4624;0.9288;
1218.6000;0.4640;0.9218;
1218.9000;0.4615;0.9148;
1219.2000;0.4599;0.9125;
1219.5000;0.4721;0.9334;
1219.8000;0.4632;0.9079;
1220.1000;0.4607;0.9056;
1220.4000;0.4615;0.8939;
1220.7000;0.4624;0.8916;
1221.0000;0.4632;0.8893;
1221.3000;0.4624;0.8870;
1221.6000;0.4615;0.8777;
1221.9000;0.4607;0.8847;
1222.2000;0.4567;0.8800;
1222.5000;0.4624;0.9009;
1222.8000;0.4632;0.9056;
1223.1000;0.4542;0.8916;
1223.4000;0.4615;0.9125;
1223.7000;0.4615;0.9148;
1224.0000;0.4624;0.9241;
1224.3000;0.4624;0.9241;
1224.6000;0.4615;0.9148;
1224.9000;0.4615;0.9102;
1225.2000;0.4624;0.9172;
1225.5000;0.4615;0.9241;
1225.8000;0.4615;0.9195;
1226.1000;0.4607;0.9125;
1226.4000;0.4607;0.9079;
1226.7000;0.4599;0.9009;
1227.0000;0.4599;0.9079;
1227.3000;0.4607;0.9079;
1227.6000;0.4615;0.9148;
1227.9000;0.4624;0.9172;
1228.2000;0.4526;0.9009;
1228.5000;0.4607;0.9218;
1228.8000;0.4615;0.9218;
1229.1000;0.4664;0.9241;
1229.4000;0.4615;0.9102;
1229.7000;0.4607;0.9056;
1230.0000;0.4615;0.9079;
1230.3000;0.4615;0.9079;
1230.6000;0.4583;0.8939;
1230.9000;0.4615;0.9032;
1231.2000;0.4607;0.8916;
1231.5000;0.4607;0.8823;
1231.8000;0.4624;0.8847;
1232.1000;0.4607;0.8870;
1232.4000;0.4632;0.8870;
1232.7000;0.4689;0.9009;
1233.0000;0.4607;0.8823;
1233.3000;0.4632;0.8893;
1233.6000;0.4615;0.8870;
1233.9000;0.4599;0.8870;
1234.2000;0.4583;0.8939;
1234.5000;0.4632;0.9218;
1234.8000;0.4607;0.9218;
1235.1000;0.4615;0.9218;
1235.4000;0.4615;0.9265;
1235.7000;0.4615;0.9241;
1236.0000;0.4615;0.9288;
1236.3000;0.4599;0.9288;
1236.6000;0.4607;0.9311;
1236.9000;0.4615;0.9357;
1237.2000;0.4607;0.9381;
1237.5000;0.4624;0.9404;
1237.8000;0.4615;0.9404;
1238.1000;0.4599;0.9404;
1238.4000;0.4615;0.9543;
1238.7000;0.4583;0.9404;
1239.0000;0.4607;0.9473;
1239.3000;0.4632;0.9497;
1239.6000;0.4632;0.9497;
1239.9000;0.4615;0.9404;
1240.2000;0.4607;0.9450;
1240.5000;0.4599;0.9334;
1240.8000;0.4624;0.9357;
1241.1000;0.4615;0.9288;
1241.4000;0.4632;0.9218;
1241.7000;0.4624;0.9265;
1242.0000;0.4624;0.9288;
1242.3000;0.4607;0.9265;
1242.6000;0.4615;0.9265;
1242.9000;0.4632;0.9311;
1243.2000;0.4615;0.9195;
1243.5000;0.4672;0.9311;
1243.8000;0.4599;0.9218;
1244.1000;0.4624;0.9265;
1244.4000;0.4591;0.9125;
1244.7000;0.4615;0.9218;
1245.0000;0.4615;0.9311;
1245.3000;0.4591;0.9172;
1245.6000;0.4501;0.9032;
1245.9000;0.4599;0.9172;
1246.2000;0.4599;0.9218;
1246.5000;0.4640;0.9404;
1246.8000;0.4518;0.9079;
1247.1000;0.4640;0.9497;
1247.4000;0.4599;0.9265;
1247.7000;0.4624;0.9311;
1248.0000;0.4615;0.9218;
1248.3000;0.4615;0.9288;
1248.6000;0.4615;0.9311;
1248.9000;0.4624;0.9241;
1249.2000;0.4624;0.9241;
1249.5000;0.4607;0.9288;
1249.8000;0.4615;0.9241;
1250.1000;0.4672;0.9265;
1250.4000;0.4632;0.9265;
1250.7000;0.4624;0.9241;
1251.0000;0.4534;0.9079;
1251.3000;0.4591;0.9172;
1251.6000;0.4599;0.9172;
1251.9000;0.4615;0.9172;
1252.2000;0.4615;0.9172;
1252.5000;0.4615;0.9172;
1252.8000;0.4624;0.9172;
1253.1000;0.4721;0.9357;
1253.4000;0.4624;0.9032;
1253.7000;0.4615;0.9195;
1254.0000;0.4624;0.9241;
1254.3000;0.4640;0.9288;
1254.6000;0.4615;0.9148;
1254.9000;0.4607;0.9032;
1255.2000;0.4615;0.9056;
1255.5000;0.4615;0.8986;
1255.8000;0.4607;0.8916;
1256.1000;0.4607;0.8870;
1256.4000;0.4624;0.8916;
1256.7000;0.4607;0.8916;
1257.0000;0.4615;0.8986;
1257.3000;0.4607;0.8986;
1257.6000;0.4607;0.9056;
1257.9000;0.4599;0.9195;
1258.2000;0.4632;0.9218;
1258.5000;0.4632;0.9241;
1258.8000;0.4607;0.9288;
1259.1000;0.4615;0.9218;
1259.4000;0.4624;0.9172;
1259.7000;0.4624;0.9172;
1260.0000;0.4599;0.9241;
1260.3000;0.4615;0.9218;
1260.6000;0.4615;0.9241;
1260.9000;0.4583;0.9148;
1261.2000;0.4721;0.9427;
1261.5000;0.4632;0.9148;
1261.8000;0.4599;0.9172;
1262.1000;0.4615;0.9125;
1262.4000;0.4624;0.9102;
1262.7000;0.4632;0.9102;
1263.0000;0.4615;0.9009;
1263.3000;0.4624;0.9079;
1263.6000;0.4607;0.9009;
1263.9000;0.4615;0.9032;
1264.2000;0.4640;0.9079;
1264.5000;0.4583;0.8893;
1264.8000;0.4648;0.9056;
1265.1000;0.4624;0.8916;
1265.4000;0.4624;0.8986;
1265.7000;0.4632;0.9102;
1266.0000;0.4615;0.9102;
1266.3000;0.4615;0.9032;
1266.6000;0.4705;0.9311;
1266.9000;0.4615;0.9079;
1267.2000;0.4607;0.9172;
1267.5000;0.4624;0.9125;
1267.8000;0.4591;0.9102;
1268.1000;0.4607;0.9125;
1268.4000;0.4615;0.9172;
1268.7000;0.4583;0.9125;
1269.0000;0.4624;0.9148;
1269.3000;0.4705;0.9381;
1269.6000;0.4615;0.9056;
1269.9000;0.4599;0.8986;
1270.2000;0.4615;0.9148;
1270.5000;0.4624;0.9125;
1270.8000;0.4632;0.9102;
1271.1000;0.4640;0.9195;
1271.4000;0.4607;0.9195;
1271.7000;0.4632;0.9357;
1272.0000;0.4624;0.9357;
1272.3000;0.4607;0.9288;
1272.6000;0.4632;0.9241;
1272.9000;0.4599;0.9148;
1273.2000;0.4599;0.9218;
1273.5000;0.4632;0.9311;
1273.8000;0.4640;0.9381;
1274.1000;0.4640;0.9241;
1274.4000;0.4640;0.9241;
1274.7000;0.4615;0.9102;
1275.0000;0.4607;0.9125;
1275.3000;0.4615;0.9218;
1275.6000;0.4615;0.9172;
1275.9000;0.4591;0.9125;
1276.2000;0.4607;0.9172;
1276.5000;0.4607;0.9148;
1276.8000;0.4599;0.9102;
1277.1000;0.4648;0.9218;
1277.4000;0.4705;0.9427;
1277.7000;0.4607;0.9265;
1278.0000;0.4624;0.9288;
1278.3000;0.4607;0.9288;
1278.6000;0.4615;0.9334;
1278.9000;0.4599;0.9357;
1279.2000;0.4624;0.9381;
1279.5000;0.4615;0.9334;
1279.8000;0.4656;0.9404;
1280.1000;0.4615;0.9357;
1280.4000;0.4607;0.9218;
1280.7000;0.4607;0.9056;
1281.0000;0.4615;0.9079;
1281.3000;0.4697;0.9265;
1281.6000;0.4615;0.9218;
1281.9000;0.4607;0.9195;
1282.2000;0.4607;0.9288;
1282.5000;0.4624;0.9311;
1282.8000;0.4624;0.9265;
1283.1000;0.4632;0.9241;
1283.4000;0.4599;0.9125;
1283.7000;0.4624;0.9172;
1284.0000;0.4607;0.9195;
1284.3000;0.4624;0.9218;
1284.6000;0.4624;0.9148;
1284.9000;0.4632;0.9056;
1285.2000;0.4664;0.9195;
1285.5000;0.4624;0.9056;
1285.8000;0.4599;0.9056;
1286.1000;0.4615;0.8986;
1286.4000;0.4615;0.8986;
1286.7000;0.4624;0.9009;
1287.0000;0.4607;0.9079;
1287.3000;0.4624;0.8986;
1287.6000;0.4713;0.9056;
1287.9000;0.4615;0.8847;
1288.2000;0.4624;0.9056;
1288.5000;0.4624;0.9009;
1288.8000;0.4632;0.9079;
1289.1000;0.4591;0.8939;
1289.4000;0.4632;0.9032;
1289.7000;0.4624;0.9079;
1290.0000;0.4615;0.9218;
1290.3000;0.4615;0.9241;
1290.6000;0.4632;0.9265;
1290.9000;0.4591;0.9288;
1291.2000;0.4632;0.9334;
1291.5000;0.4518;0.9009;
1291.8000;0.4615;0.9241;
1292.1000;0.4632;0.9241;
1292.4000;0.4632;0.9265;
1292.7000;0.4575;0.9218;
1293.0000;0.4624;0.9334;
1293.3000;0.4624;0.9334;
1293.6000;0.4607;0.9195;
1293.9000;0.4607;0.9125;
1294.2000;0.4599;0.9172;
1294.5000;0.4615;0.9288;
1294.8000;0.4607;0.9241;
1295.1000;0.4632;0.9357;
1295.4000;0.4615;0.9288;
1295.7000;0.4599;0.9195;
1296.0000;0.4607;0.9218;
1296.3000;0.4583;0.9172;
1296.6000;0.4664;0.9357;
1296.9000;0.4624;0.9334;
1297.2000;0.4624;0.9311;
1297.5000;0.4624;0.9311;
1297.8000;0.4607;0.9195;
1298.1000;0.4550;0.8986;
1298.4000;0.4599;0.9125;
1298.7000;0.4615;0.9172;
1299.0000;0.4615;0.9265;
1299.3000;0.4615;0.9265;
1299.6000;0.4575;0.9172;
1299.9000;0.4624;0.9265;
1300.2000;0.4607;0.9148;
1300.5000;0.4607;0.9102;
1300.8000;0.4615;0.9148;
1301.1000;0.4607;0.9032;
1301.4000;0.4648;0.9102;
1301.7000;0.4632;0.9125;
1302.0000;0.4640;0.9102;
1302.3000;0.4607;0.8986;
1302.6000;0.4615;0.9009;
1302.9000;0.4591;0.9056;
1303.2000;0.4550;0.9009;
1303.5000;0.4632;0.9311;
1303.8000;0.4607;0.9218;
1304.1000;0.4599;0.9172;
1304.4000;0.4607;0.9241;
1304.7000;0.4591;0.9125;
1305.0000;0.4624;0.9218;
1305.3000;0.4640;0.9148;
1305.6000;0.4615;0.9148;
1305.9000;0.4648;0.9357;
1306.2000;0.4607;0.9241;
1306.5000;0.4624;0.9265;
1306.8000;0.4624;0.9311;
1307.1000;0.4632;0.9311;
1307.4000;0.4583;0.9241;
1307.7000;0.4501;0.8986;
1308.0000;0.4583;0.9125;
1308.3000;0.4599;0.9218;
1308.6000;0.4607;0.9265;
1308.9000;0.4599;0.9241;
1309.2000;0.4583;0.9241;
1309.5000;0.4632;0.9404;
1309.8000;0.4591;0.9334;
1310.1000;0.4624;0.9357;
1310.4000;0.4624;0.9218;
1310.7000;0.4624;0.9148;
1311.0000;0.4615;0.9056;
1311.3000;0.4591;0.9009;
1311.6000;0.4599;0.9009;
1311.9000;0.4599;0.9079;
1312.2000;0.4624;0.9241;
1312.5000;0.4640;0.9381;
1312.8000;0.4632;0.9404;
1313.1000;0.4615;0.9381;
1313.4000;0.4607;0.9381;
1313.7000;0.4624;0.9288;
1314.0000;0.4518;0.8986;
1314.3000;0.4575;0.9009;
1314.6000;0.4624;0.8963;
1314.9000;0.4615;0.8939;
1315.2000;0.4632;0.9079;
1315.5000;0.4632;0.9056;
1315.8000;0.4624;0.9032;
1316.1000;0.4550;0.8986;
1316.4000;0.4599;0.9056;
1316.7000;0.4591;0.9032;
1317.0000;0.4583;0.9009;
1317.3000;0.4607;0.9032;
1317.6000;0.4615;0.9009;
1317.9000;0.4632;0.9009;
1318.2000;0.4599;0.8893;
1318.5000;0.4640;0.9032;
1318.8000;0.4632;0.9009;
1319.1000;0.4534;0.8847;
1319.4000;0.4567;0.8939;
1319.7000;0.4615;0.9172;
1320.0000;0.4591;0.9218;
1320.3000;0.4648;0.9404;
1320.6000;0.4664;0.9381;
1320.9000;0.4624;0.9265;
1321.2000;0.4624;0.9265;
1321.5000;0.4615;0.9172;
1321.8000;0.4591;0.9032;
1322.1000;0.4558;0.8916;
1322.4000;0.4591;0.9009;
1322.7000;0.4591;0.9148;
1323.0000;0.4632;0.9172;
1323.3000;0.4607;0.9148;
1323.6000;0.4591;0.9079;
1323.9000;0.4615;0.9125;
1324.2000;0.4624;0.9125;
1324.5000;0.4607;0.9056;
1324.8000;0.4615;0.8986;
1325.1000;0.4615;0.9009;
1325.4000;0.4615;0.8963;
1325.7000;0.4624;0.9125;
1326.0000;0.4632;0.9148;
1326.3000;0.4640;0.9311;
1326.6000;0.4615;0.9357;
1326.9000;0.4624;0.9404;
1327.2000;0.4624;0.9357;
1327.5000;0.4615;0.9334;
1327.8000;0.4624;0.9427;
1328.1000;0.4599;0.9288;
1328.4000;0.4599;0.9381;
1328.7000;0.4640;0.9543;
1329.0000;0.4607;0.9473;
1329.3000;0.4607;0.9450;
1329.6000;0.4624;0.9497;
1329.9000;0.4599;0.9450;
1330.2000;0.4583;0.9311;
1330.5000;0.4599;0.9311;
1330.8000;0.4615;0.9404;
1331.1000;0.4624;0.9334;
1331.4000;0.4672;0.9427;
1331.7000;0.4550;0.9125;
1332.0000;0.4640;0.9334;
1332.3000;0.4632;0.9311;
1332.6000;0.4615;0.9241;
1332.9000;0.4607;0.9102;
1333.2000;0.4656;0.9241;
1333.5000;0.4615;0.9172;
1333.8000;0.4558;0.9079;
1334.1000;0.4615;0.9265;
1334.4000;0.4624;0.9241;
1334.7000;0.4640;0.9241;
1335.0000;0.4632;0.9357;
1335.3000;0.4591;0.9241;
1335.6000;0.4624;0.9334;
1335.9000;0.4624;0.9357;
1336.2000;0.4615;0.9265;
1336.5000;0.4558;0.9032;
1336.8000;0.4624;0.9218;
1337.1000;0.4615;0.9241;
1337.4000;0.4607;0.9218;
1337.7000;0.4607;0.9125;
1338.0000;0.4607;0.9148;
1338.3000;0.4624;0.9148;
1338.6000;0.4607;0.9079;
1338.9000;0.4632;0.9102;
1339.2000;0.4624;0.9102;
1339.5000;0.4599;0.8963;
1339.8000;0.4648;0.9148;
1340.1000;0.4615;0.9241;
1340.4000;0.4624;0.9218;
1340.7000;0.4624;0.9265;
1341.0000;0.4624;0.9218;
1341.3000;0.4607;0.9195;
1341.6000;0.4624;0.9241;
1341.9000;0.4632;0.9265;
1342.2000;0.4534;0.9079;
1342.5000;0.4640;0.9427;
1342.8000;0.4607;0.9265;
1343.1000;0.4607;0.9195;
1343.4000;0.4591;0.9288;
1343.7000;0.4615;0.9311;
1344.0000;0.4615;0.9381;
1344.3000;0.4615;0.9357;
1344.6000;0.4615;0.9311;
1344.9000;0.4615;0.9288;
1345.2000;0.4624;0.9265;
1345.5000;0.4615;0.9218;
1345.8000;0.4607;0.9148;
1346.1000;0.4632;0.9288;
1346.4000;0.4599;0.9241;
1346.7000;0.4607;0.9148;
1347.0000;0.4599;0.9172;
1347.3000;0.4689;0.9427;
1347.6000;0.4615;0.9148;
1347.9000;0.4607;0.9102;
1348.2000;0.4615;0.9102;
1348.5000;0.4591;0.9056;
1348.8000;0.4607;0.9079;
1349.1000;0.4599;0.9148;
1349.4000;0.4615;0.9288;
1349.7000;0.4599;0.9218;
1350.0000;0.4615;0.9334;
1350.3000;0.4624;0.9172;
1350.6000;0.4624;0.9218;
1350.9000;0.4599;0.9172;
1351.2000;0.4542;0.9148;
1351.5000;0.4624;0.9218;
1351.8000;0.4599;0.9056;
1352.1000;0.4615;0.9056;
1352.4000;0.4558;0.8963;
1352.7000;0.4632;0.9195;
1353.0000;0.4607;0.9218;
1353.3000;0.4599;0.9172;
1353.6000;0.4624;0.9195;
1353.9000;0.4624;0.9125;
1354.2000;0.4624;0.9172;
1354.5000;0.4632;0.9102;
1354.8000;0.4615;0.9032;
1355.1000;0.4615;0.9102;
1355.4000;0.4624;0.9172;
1355.7000;0.4615;0.9102;
1356.0000;0.4615;0.9102;
1356.3000;0.4632;0.9125;
1356.6000;0.4615;0.9102;
1356.9000;0.4607;0.9148;
1357.2000;0.4607;0.9102;
1357.5000;0.4640;0.9172;
1357.8000;0.4624;0.9079;
1358.1000;0.4624;0.9079;
1358.4000;0.4599;0.9056;
1358.7000;0.4624;0.9102;
1359.0000;0.4624;0.9172;
1359.3000;0.4583;0.9032;
1359.6000;0.4567;0.9056;
1359.9000;0.4550;0.9125;
1360.2000;0.4599;0.9172;
1360.5000;0.4624;0.9241;
1360.8000;0.4615;0.9125;
1361.1000;0.4599;0.9032;
1361.4000;0.4624;0.9102;
1361.7000;0.4607;0.9079;
1362.0000;0.4607;0.9148;
1362.3000;0.4632;0.9218;
1362.6000;0.4624;0.9148;
1362.9000;0.4672;0.9311;
1363.2000;0.4607;0.9241;
1363.5000;0.4575;0.9172;
1363.8000;0.4624;0.9357;
1364.1000;0.4607;0.9334;
1364.4000;0.4615;0.9311;
1364.7000;0.4615;0.9195;
1365.0000;0.4681;0.9381;
1365.3000;0.4607;0.9172;
1365.6000;0.4632;0.9218;
1365.9000;0.4624;0.9102;
1366.2000;0.4607;0.9032;
1366.5000;0.4624;0.9148;
1366.8000;0.4615;0.9195;
1367.1000;0.4624;0.9195;
1367.4000;0.4632;0.9288;
1367.7000;0.4607;0.9288;
1368.0000;0.4615;0.9265;
1368.3000;0.4624;0.9265;
1368.6000;0.4615;0.9218;
1368.9000;0.4599;0.9125;
1369.2000;0.4583;0.9032;
1369.5000;0.4607;0.8986;
1369.8000;0.4615;0.8963;
1370.1000;0.4615;0.9032;
1370.4000;0.4599;0.9056;
1370.7000;0.4624;0.9172;
1371.0000;0.4640;0.9218;
1371.3000;0.4575;0.9032;
1371.6000;0.4615;0.9172;
1371.9000;0.4624;0.9311;
1372.2000;0.4615;0.9218;
1372.5000;0.4615;0.9218;
1372.8000;0.4591;0.9195;
1373.1000;0.4615;0.9265;
1373.4000;0.4624;0.9218;
1373.7000;0.4632;0.9195;
1374.0000;0.4591;0.9079;
1374.3000;0.4656;0.9195;
1374.6000;0.4632;0.9218;
1374.9000;0.4615;0.9195;
1375.2000;0.4607;0.9172;
1375.5000;0.4624;0.9102;
1375.8000;0.4624;0.9125;
1376.1000;0.4615;0.9032;
1376.4000;0.4615;0.9056;
1376.7000;0.4624;0.9102;
1377.0000;0.4615;0.9102;
1377.3000;0.4624;0.9125;
1377.6000;0.4615;0.9056;
1377.9000;0.4624;0.9079;
1378.2000;0.4632;0.9195;
1378.5000;0.4632;0.9357;
1378.8000;0.4615;0.9404;
1379.1000;0.4615;0.9357;
1379.4000;0.4640;0.9311;
1379.7000;0.4648;0.9381;
1380.0000;0.4615;0.9265;
1380.3000;0.4599;0.9218;
1380.6000;0.4624;0.9241;
1380.9000;0.4689;0.9450;
1381.2000;0.4624;0.9311;
1381.5000;0.4615;0.9311;
1381.8000;0.4615;0.9357;
1382.1000;0.4624;0.9357;
1382.4000;0.4664;0.9520;
1382.7000;0.4615;0.9404;
1383.0000;0.4632;0.9334;
1383.3000;0.4428;0.8823;
1383.6000;0.4632;0.9381;
1383.9000;0.4607;0.9334;
1384.2000;0.4599;0.9404;
1384.5000;0.4624;0.9288;
1384.8000;0.4615;0.9218;
1385.1000;0.4591;0.9241;
1385.4000;0.4534;0.9079;
1385.7000;0.4624;0.9218;
1386.0000;0.4624;0.9241;
1386.3000;0.4607;0.9218;
1386.6000;0.4615;0.9195;
1386.9000;0.4615;0.9172;
1387.2000;0.4518;0.8986;
1387.5000;0.4648;0.9172;
1387.8000;0.4624;0.9125;
1388.1000;0.4607;0.9009;
1388.4000;0.4640;0.9148;
1388.7000;0.4672;0.9265;
1389.0000;0.4615;0.9125;
1389.3000;0.4624;0.9079;
1389.6000;0.4615;0.9102;
1389.9000;0.4624;0.9102;
1390.2000;0.4640;0.9148;
1390.5000;0.4640;0.9241;
1390.8000;0.4672;0.9334;
1391.1000;0.4624;0.9241;
1391.4000;0.4518;0.8870;
1391.7000;0.4607;0.9172;
1392.0000;0.4607;0.9172;
1392.3000;0.4729;0.9427;
1392.6000;0.4615;0.9125;
1392.9000;0.4615;0.9195;
1393.2000;0.4607;0.9195;
1393.5000;0.4648;0.9288;
1393.8000;0.4624;0.9218;
1394.1000;0.4648;0.9334;
1394.4000;0.4607;0.9218;
1394.7000;0.4591;0.9218;
1395.0000;0.4632;0.9357;
1395.3000;0.4607;0.9265;
1395.6000;0.4607;0.9195;
1395.9000;0.4591;0.9241;
1396.2000;0.4575;0.9102;
1396.5000;0.4624;0.9218;
1396.8000;0.4615;0.9125;
1397.1000;0.4624;0.9265;
1397.4000;0.4640;0.9265;
1397.7000;0.4624;0.9241;
1398.0000;0.4607;0.9172;
1398.3000;0.4615;0.9195;
1398.6000;0.4615;0.9172;
1398.9000;0.4640;0.9241;
1399.2000;0.4599;0.9172;
1399.5000;0.4591;0.9102;
1399.8000;0.4599;0.8986;
