time/ms;Fluo/V;P700 deltaI/I x10³;
-199.8000;0.6032;0.8429;
-199.5000;0.6015;0.8429;
-199.2000;0.6048;0.8568;
-198.9000;0.6056;0.8452;
-198.6000;0.6032;0.8336;
-198.3000;0.6007;0.8196;
-198.0000;0.6048;0.8266;
-197.7000;0.6056;0.8336;
-197.4000;0.5967;0.8289;
-197.1000;0.5999;0.8336;
-196.8000;0.6024;0.8289;
-196.5000;0.6040;0.8313;
-196.2000;0.6032;0.8405;
-195.9000;0.6024;0.8382;
-195.6000;0.6048;0.8382;
-195.3000;0.5991;0.8336;
-195.0000;0.6032;0.8405;
-194.7000;0.6032;0.8452;
-194.4000;0.6024;0.8405;
-194.1000;0.6048;0.8452;
-193.8000;0.6048;0.8452;
-193.5000;0.6032;0.8475;
-193.2000;0.6015;0.8475;
-192.9000;0.6040;0.8405;
-192.6000;0.5934;0.8057;
-192.3000;0.5999;0.8266;
-192.0000;0.5967;0.8150;
-191.7000;0.6032;0.8289;
-191.4000;0.6024;0.8336;
-191.1000;0.6032;0.8359;
-190.8000;0.6015;0.8289;
-190.5000;0.6081;0.8429;
-190.2000;0.6040;0.8313;
-189.9000;0.6040;0.8359;
-189.6000;0.6048;0.8452;
-189.3000;0.6048;0.8521;
-189.0000;0.6056;0.8545;
-188.7000;0.6040;0.8521;
-188.4000;0.6015;0.8405;
-188.1000;0.6015;0.8382;
-187.8000;0.6024;0.8475;
-187.5000;0.6024;0.8429;
-187.2000;0.6040;0.8452;
-186.9000;0.6015;0.8498;
-186.6000;0.6024;0.8545;
-186.3000;0.5991;0.8638;
-186.0000;0.6015;0.8661;
-185.7000;0.6024;0.8684;
-185.4000;0.6032;0.8638;
-185.1000;0.6040;0.8707;
-184.8000;0.6048;0.8730;
-184.5000;0.6032;0.8730;
-184.2000;0.6056;0.8777;
-183.9000;0.6007;0.8638;
-183.6000;0.6032;0.8730;
-183.3000;0.6040;0.8684;
-183.0000;0.6032;0.8591;
-182.7000;0.6056;0.8591;
-182.4000;0.6081;0.8638;
-182.1000;0.6040;0.8498;
-181.8000;0.6032;0.8405;
-181.5000;0.6040;0.8452;
-181.2000;0.6048;0.8452;
-180.9000;0.6032;0.8359;
-180.6000;0.6015;0.8336;
-180.3000;0.6015;0.8243;
-180.0000;0.6032;0.8220;
-179.7000;0.6040;0.8289;
-179.4000;0.6048;0.8382;
-179.1000;0.6024;0.8405;
-178.8000;0.6032;0.8336;
-178.5000;0.6040;0.8452;
-178.2000;0.6072;0.8568;
-177.9000;0.6024;0.8452;
-177.6000;0.6048;0.8475;
-177.3000;0.6032;0.8429;
-177.0000;0.6007;0.8336;
-176.7000;0.6024;0.8359;
-176.4000;0.6007;0.8359;
-176.1000;0.6040;0.8429;
-175.8000;0.6048;0.8475;
-175.5000;0.6024;0.8498;
-175.2000;0.6040;0.8475;
-174.9000;0.6024;0.8429;
-174.6000;0.6015;0.8475;
-174.3000;0.6032;0.8382;
-174.0000;0.6015;0.8359;
-173.7000;0.6048;0.8382;
-173.4000;0.6032;0.8289;
-173.1000;0.6032;0.8313;
-172.8000;0.6040;0.8313;
-172.5000;0.6040;0.8336;
-172.2000;0.6024;0.8289;
-171.9000;0.6040;0.8313;
-171.6000;0.6089;0.8429;
-171.3000;0.6024;0.8313;
-171.0000;0.6064;0.8359;
-170.7000;0.6024;0.8266;
-170.4000;0.5958;0.8127;
-170.1000;0.6032;0.8243;
-169.8000;0.6040;0.8289;
-169.5000;0.6015;0.8220;
-169.2000;0.6040;0.8336;
-168.9000;0.5999;0.8266;
-168.6000;0.6024;0.8336;
-168.3000;0.6064;0.8405;
-168.0000;0.6024;0.8359;
-167.7000;0.5983;0.8243;
-167.4000;0.6048;0.8452;
-167.1000;0.6007;0.8359;
-166.8000;0.6024;0.8336;
-166.5000;0.6015;0.8243;
-166.2000;0.6048;0.8429;
-165.9000;0.6024;0.8405;
-165.6000;0.6064;0.8498;
-165.3000;0.6024;0.8405;
-165.0000;0.6032;0.8382;
-164.7000;0.6040;0.8405;
-164.4000;0.6032;0.8405;
-164.1000;0.6024;0.8405;
-163.8000;0.6024;0.8382;
-163.5000;0.6048;0.8429;
-163.2000;0.6032;0.8313;
-162.9000;0.6024;0.8243;
-162.6000;0.6024;0.8196;
-162.3000;0.5999;0.8150;
-162.0000;0.6015;0.8080;
-161.7000;0.6048;0.8080;
-161.4000;0.6007;0.8057;
-161.1000;0.6024;0.8173;
-160.8000;0.6024;0.8220;
-160.5000;0.6040;0.8220;
-160.2000;0.5999;0.8150;
-159.9000;0.6048;0.8266;
-159.6000;0.6040;0.8336;
-159.3000;0.6032;0.8336;
-159.0000;0.6129;0.8591;
-158.7000;0.6040;0.8382;
-158.4000;0.6032;0.8336;
-158.1000;0.6007;0.8266;
-157.8000;0.6040;0.8289;
-157.5000;0.5958;0.8034;
-157.2000;0.6081;0.8359;
-156.9000;0.6032;0.8289;
-156.6000;0.6024;0.8220;
-156.3000;0.6007;0.8220;
-156.0000;0.6040;0.8220;
-155.7000;0.6024;0.8196;
-155.4000;0.5934;0.7987;
-155.1000;0.6040;0.8173;
-154.8000;0.6032;0.8173;
-154.5000;0.6024;0.8150;
-154.2000;0.5991;0.7987;
-153.9000;0.6040;0.8127;
-153.6000;0.6024;0.8173;
-153.3000;0.6032;0.8266;
-153.0000;0.6048;0.8336;
-152.7000;0.6015;0.8243;
-152.4000;0.6032;0.8150;
-152.1000;0.6048;0.8080;
-151.8000;0.6048;0.8104;
-151.5000;0.6040;0.8150;
-151.2000;0.6024;0.8127;
-150.9000;0.6024;0.8127;
-150.6000;0.6032;0.8150;
-150.3000;0.6032;0.8196;
-150.0000;0.6040;0.8243;
-149.7000;0.6048;0.8289;
-149.4000;0.6040;0.8243;
-149.1000;0.6015;0.8243;
-148.8000;0.6024;0.8173;
-148.5000;0.6040;0.8173;
-148.2000;0.6048;0.8173;
-147.9000;0.6032;0.8150;
-147.6000;0.6056;0.8173;
-147.3000;0.5934;0.7918;
-147.0000;0.6056;0.8127;
-146.7000;0.6040;0.8104;
-146.4000;0.6032;0.8173;
-146.1000;0.6024;0.8173;
-145.8000;0.6040;0.8220;
-145.5000;0.6040;0.8127;
-145.2000;0.6032;0.8080;
-144.9000;0.6015;0.8011;
-144.6000;0.6015;0.8150;
-144.3000;0.6024;0.8313;
-144.0000;0.6032;0.8313;
-143.7000;0.6081;0.8429;
-143.4000;0.5991;0.8289;
-143.1000;0.6024;0.8289;
-142.8000;0.6056;0.8359;
-142.5000;0.6048;0.8313;
-142.2000;0.6040;0.8336;
-141.9000;0.6040;0.8336;
-141.6000;0.6032;0.8266;
-141.3000;0.6032;0.8220;
-141.0000;0.6089;0.8382;
-140.7000;0.6024;0.8289;
-140.4000;0.6024;0.8336;
-140.1000;0.6024;0.8289;
-139.8000;0.6032;0.8289;
-139.5000;0.6015;0.8266;
-139.2000;0.6040;0.8266;
-138.9000;0.6121;0.8452;
-138.6000;0.6040;0.8220;
-138.3000;0.6032;0.8173;
-138.0000;0.6048;0.8150;
-137.7000;0.6048;0.8104;
-137.4000;0.6048;0.8080;
-137.1000;0.6015;0.8011;
-136.8000;0.6040;0.8104;
-136.5000;0.6040;0.8150;
-136.2000;0.6024;0.8127;
-135.9000;0.6024;0.8127;
-135.6000;0.6007;0.8127;
-135.3000;0.6032;0.8150;
-135.0000;0.6015;0.8011;
-134.7000;0.6032;0.7941;
-134.4000;0.6040;0.7987;
-134.1000;0.6048;0.7987;
-133.8000;0.6040;0.7918;
-133.5000;0.6040;0.8011;
-133.2000;0.6040;0.7918;
-132.9000;0.5926;0.7639;
-132.6000;0.6064;0.7918;
-132.3000;0.6024;0.7895;
-132.0000;0.6040;0.7871;
-131.7000;0.6040;0.7918;
-131.4000;0.6089;0.8080;
-131.1000;0.6024;0.7964;
-130.8000;0.6024;0.7918;
-130.5000;0.6015;0.7941;
-130.2000;0.6040;0.8034;
-129.9000;0.6007;0.8104;
-129.6000;0.6015;0.8104;
-129.3000;0.6024;0.8104;
-129.0000;0.6007;0.8011;
-128.7000;0.6040;0.8034;
-128.4000;0.6089;0.8104;
-128.1000;0.5983;0.8011;
-127.8000;0.6056;0.8196;
-127.5000;0.6048;0.8289;
-127.2000;0.6048;0.8289;
-126.9000;0.6048;0.8313;
-126.6000;0.6048;0.8173;
-126.3000;0.6015;0.8150;
-126.0000;0.6056;0.8266;
-125.7000;0.6040;0.8313;
-125.4000;0.6048;0.8429;
-125.1000;0.6007;0.8313;
-124.8000;0.6048;0.8405;
-124.5000;0.6032;0.8336;
-124.2000;0.6024;0.8359;
-123.9000;0.5999;0.8359;
-123.6000;0.5958;0.8289;
-123.3000;0.6048;0.8591;
-123.0000;0.6032;0.8661;
-122.7000;0.6032;0.8568;
-122.4000;0.5991;0.8336;
-122.1000;0.6056;0.8382;
-121.8000;0.6056;0.8336;
-121.5000;0.6040;0.8196;
-121.2000;0.6064;0.8173;
-120.9000;0.6040;0.8196;
-120.6000;0.6024;0.8196;
-120.3000;0.6024;0.8336;
-120.0000;0.6040;0.8382;
-119.7000;0.6040;0.8313;
-119.4000;0.6032;0.8313;
-119.1000;0.6015;0.8313;
-118.8000;0.6089;0.8405;
-118.5000;0.6129;0.8521;
-118.2000;0.6032;0.8313;
-117.9000;0.6138;0.8498;
-117.6000;0.6032;0.8196;
-117.3000;0.6040;0.8313;
-117.0000;0.5999;0.8173;
-116.7000;0.5967;0.8080;
-116.4000;0.6032;0.8104;
-116.1000;0.5967;0.8011;
-115.8000;0.6056;0.8173;
-115.5000;0.6048;0.8150;
-115.2000;0.6015;0.8173;
-114.9000;0.6040;0.8150;
-114.6000;0.6040;0.8196;
-114.3000;0.6015;0.8150;
-114.0000;0.6032;0.8196;
-113.7000;0.6007;0.8034;
-113.4000;0.6040;0.8057;
-113.1000;0.6024;0.8104;
-112.8000;0.6040;0.8173;
-112.5000;0.6024;0.8313;
-112.2000;0.6040;0.8382;
-111.9000;0.6048;0.8405;
-111.6000;0.6040;0.8452;
-111.3000;0.6040;0.8452;
-111.0000;0.6072;0.8545;
-110.7000;0.6015;0.8289;
-110.4000;0.6024;0.8382;
-110.1000;0.6154;0.8707;
-109.8000;0.6040;0.8382;
-109.5000;0.6048;0.8336;
-109.2000;0.6015;0.8289;
-108.9000;0.6015;0.8359;
-108.6000;0.6040;0.8382;
-108.3000;0.6048;0.8313;
-108.0000;0.5991;0.8336;
-107.7000;0.6032;0.8313;
-107.4000;0.6032;0.8313;
-107.1000;0.6040;0.8336;
-106.8000;0.6048;0.8313;
-106.5000;0.6040;0.8336;
-106.2000;0.6048;0.8359;
-105.9000;0.6048;0.8382;
-105.6000;0.6040;0.8452;
-105.3000;0.6024;0.8429;
-105.0000;0.6015;0.8289;
-104.7000;0.6032;0.8313;
-104.4000;0.6040;0.8382;
-104.1000;0.6048;0.8405;
-103.8000;0.6015;0.8405;
-103.5000;0.6024;0.8382;
-103.2000;0.6040;0.8359;
-102.9000;0.6015;0.8289;
-102.6000;0.6048;0.8266;
-102.3000;0.6032;0.8289;
-102.0000;0.6048;0.8336;
-101.7000;0.6024;0.8359;
-101.4000;0.6032;0.8289;
-101.1000;0.6007;0.8243;
-100.8000;0.6032;0.8243;
-100.5000;0.6007;0.8266;
-100.2000;0.6032;0.8196;
-99.9000;0.6032;0.8266;
-99.6000;0.6105;0.8475;
-99.3000;0.5942;0.8196;
-99.0000;0.6015;0.8220;
-98.7000;0.6007;0.8173;
-98.4000;0.6024;0.8196;
-98.1000;0.6040;0.8243;
-97.8000;0.6015;0.8150;
-97.5000;0.5983;0.8011;
-97.2000;0.6024;0.8150;
-96.9000;0.5999;0.8104;
-96.6000;0.6007;0.8173;
-96.3000;0.5991;0.8173;
-96.0000;0.6015;0.8220;
-95.7000;0.6040;0.8289;
-95.4000;0.6032;0.8313;
-95.1000;0.6056;0.8336;
-94.8000;0.5991;0.8220;
-94.5000;0.6015;0.8336;
-94.2000;0.6015;0.8336;
-93.9000;0.6024;0.8289;
-93.6000;0.5975;0.8104;
-93.3000;0.6056;0.8243;
-93.0000;0.6007;0.8196;
-92.7000;0.6015;0.8243;
-92.4000;0.6024;0.8266;
-92.1000;0.6024;0.8243;
-91.8000;0.6024;0.8266;
-91.5000;0.6048;0.8289;
-91.2000;0.6032;0.8243;
-90.9000;0.6048;0.8266;
-90.6000;0.6048;0.8243;
-90.3000;0.6024;0.8080;
-90.0000;0.6064;0.8127;
-89.7000;0.6024;0.8080;
-89.4000;0.6024;0.8127;
-89.1000;0.6007;0.8196;
-88.8000;0.5999;0.8127;
-88.5000;0.6024;0.8057;
-88.2000;0.6040;0.8173;
-87.9000;0.6072;0.8266;
-87.6000;0.6040;0.8104;
-87.3000;0.5958;0.7941;
-87.0000;0.5983;0.7918;
-86.7000;0.6056;0.8173;
-86.4000;0.6048;0.8127;
-86.1000;0.6089;0.8243;
-85.8000;0.5942;0.7895;
-85.5000;0.6032;0.8104;
-85.2000;0.6048;0.8289;
-84.9000;0.6129;0.8475;
-84.6000;0.6024;0.8220;
-84.3000;0.6040;0.8359;
-84.0000;0.6040;0.8359;
-83.7000;0.6056;0.8243;
-83.4000;0.6015;0.8173;
-83.1000;0.6081;0.8313;
-82.8000;0.6040;0.8266;
-82.5000;0.6032;0.8220;
-82.2000;0.6024;0.8289;
-81.9000;0.6032;0.8382;
-81.6000;0.6040;0.8429;
-81.3000;0.6032;0.8405;
-81.0000;0.6040;0.8498;
-80.7000;0.6056;0.8591;
-80.4000;0.6032;0.8498;
-80.1000;0.6032;0.8429;
-79.8000;0.6007;0.8336;
-79.5000;0.6040;0.8382;
-79.2000;0.6056;0.8452;
-78.9000;0.6032;0.8475;
-78.6000;0.6015;0.8521;
-78.3000;0.6015;0.8545;
-78.0000;0.6007;0.8475;
-77.7000;0.6007;0.8336;
-77.4000;0.6024;0.8313;
-77.1000;0.6032;0.8196;
-76.8000;0.6056;0.8220;
-76.5000;0.6032;0.8104;
-76.2000;0.6056;0.8127;
-75.9000;0.6024;0.8127;
-75.6000;0.6032;0.8150;
-75.3000;0.6015;0.8220;
-75.0000;0.5991;0.8289;
-74.7000;0.6032;0.8429;
-74.4000;0.6024;0.8289;
-74.1000;0.6015;0.8196;
-73.8000;0.6024;0.8220;
-73.5000;0.6007;0.8289;
-73.2000;0.6024;0.8313;
-72.9000;0.6015;0.8289;
-72.6000;0.6015;0.8359;
-72.3000;0.6015;0.8405;
-72.0000;0.6015;0.8545;
-71.7000;0.6015;0.8475;
-71.4000;0.6048;0.8521;
-71.1000;0.6032;0.8498;
-70.8000;0.6007;0.8452;
-70.5000;0.6024;0.8429;
-70.2000;0.6048;0.8475;
-69.9000;0.5950;0.8220;
-69.6000;0.6032;0.8382;
-69.3000;0.6015;0.8289;
-69.0000;0.6024;0.8336;
-68.7000;0.6007;0.8405;
-68.4000;0.6024;0.8336;
-68.1000;0.6015;0.8313;
-67.8000;0.6048;0.8429;
-67.5000;0.6040;0.8405;
-67.2000;0.6081;0.8545;
-66.9000;0.6048;0.8429;
-66.6000;0.6072;0.8405;
-66.3000;0.6064;0.8475;
-66.0000;0.6032;0.8521;
-65.7000;0.6040;0.8475;
-65.4000;0.6048;0.8475;
-65.1000;0.5934;0.8104;
-64.8000;0.6040;0.8452;
-64.5000;0.6048;0.8475;
-64.2000;0.6032;0.8429;
-63.9000;0.6024;0.8382;
-63.6000;0.6032;0.8382;
-63.3000;0.6072;0.8429;
-63.0000;0.5991;0.8220;
-62.7000;0.6040;0.8405;
-62.4000;0.6032;0.8266;
-62.1000;0.6007;0.8196;
-61.8000;0.5934;0.8057;
-61.5000;0.6024;0.8289;
-61.2000;0.6024;0.8313;
-60.9000;0.6040;0.8382;
-60.6000;0.5983;0.8220;
-60.3000;0.6032;0.8266;
-60.0000;0.5967;0.8150;
-59.7000;0.6113;0.8521;
-59.4000;0.6032;0.8382;
-59.1000;0.6040;0.8382;
-58.8000;0.6032;0.8359;
-58.5000;0.6040;0.8336;
-58.2000;0.6024;0.8289;
-57.9000;0.6064;0.8336;
-57.6000;0.6007;0.8243;
-57.3000;0.6032;0.8243;
-57.0000;0.6024;0.8220;
-56.7000;0.6015;0.8243;
-56.4000;0.6040;0.8289;
-56.1000;0.6048;0.8289;
-55.8000;0.5958;0.8011;
-55.5000;0.6040;0.8196;
-55.2000;0.6024;0.8150;
-54.9000;0.6040;0.8127;
-54.6000;0.6032;0.8104;
-54.3000;0.6081;0.8196;
-54.0000;0.6032;0.8150;
-53.7000;0.6032;0.8127;
-53.4000;0.6032;0.8080;
-53.1000;0.6024;0.8080;
-52.8000;0.6015;0.7987;
-52.5000;0.6015;0.8057;
-52.2000;0.6048;0.8243;
-51.9000;0.6040;0.8289;
-51.6000;0.6032;0.8289;
-51.3000;0.6015;0.8289;
-51.0000;0.6024;0.8336;
-50.7000;0.6032;0.8382;
-50.4000;0.6024;0.8452;
-50.1000;0.5983;0.8336;
-49.8000;0.6032;0.8382;
-49.5000;0.6056;0.8382;
-49.2000;0.6048;0.8452;
-48.9000;0.6032;0.8405;
-48.6000;0.6032;0.8336;
-48.3000;0.6048;0.8498;
-48.0000;0.6007;0.8521;
-47.7000;0.6024;0.8568;
-47.4000;0.6024;0.8521;
-47.1000;0.6032;0.8498;
-46.8000;0.6056;0.8614;
-46.5000;0.6024;0.8429;
-46.2000;0.6015;0.8336;
-45.9000;0.6040;0.8336;
-45.6000;0.6015;0.8243;
-45.3000;0.6007;0.8243;
-45.0000;0.6048;0.8289;
-44.7000;0.6048;0.8359;
-44.4000;0.6032;0.8382;
-44.1000;0.6040;0.8382;
-43.8000;0.6032;0.8405;
-43.5000;0.6032;0.8382;
-43.2000;0.6056;0.8405;
-42.9000;0.6040;0.8336;
-42.6000;0.6048;0.8382;
-42.3000;0.6097;0.8568;
-42.0000;0.6032;0.8382;
-41.7000;0.6032;0.8382;
-41.4000;0.6040;0.8382;
-41.1000;0.6032;0.8382;
-40.8000;0.6024;0.8405;
-40.5000;0.6040;0.8382;
-40.2000;0.6007;0.8313;
-39.9000;0.6048;0.8452;
-39.6000;0.6032;0.8405;
-39.3000;0.6040;0.8498;
-39.0000;0.6040;0.8475;
-38.7000;0.6032;0.8429;
-38.4000;0.6040;0.8475;
-38.1000;0.6040;0.8475;
-37.8000;0.6040;0.8359;
-37.5000;0.6032;0.8313;
-37.2000;0.6032;0.8382;
-36.9000;0.6032;0.8521;
-36.6000;0.6007;0.8475;
-36.3000;0.6048;0.8498;
-36.0000;0.6056;0.8498;
-35.7000;0.6040;0.8498;
-35.4000;0.6015;0.8429;
-35.1000;0.6024;0.8429;
-34.8000;0.6032;0.8336;
-34.5000;0.6032;0.8313;
-34.2000;0.6048;0.8243;
-33.9000;0.6048;0.8266;
-33.6000;0.6024;0.8243;
-33.3000;0.6007;0.8173;
-33.0000;0.6024;0.8173;
-32.7000;0.6024;0.8127;
-32.4000;0.6048;0.8173;
-32.1000;0.6024;0.8011;
-31.8000;0.6064;0.8057;
-31.5000;0.6015;0.8034;
-31.2000;0.5950;0.7895;
-30.9000;0.6007;0.7941;
-30.6000;0.6032;0.8011;
-30.3000;0.6072;0.8220;
-30.0000;0.6048;0.8220;
-29.7000;0.6032;0.8150;
-29.4000;0.5950;0.7987;
-29.1000;0.6064;0.8289;
-28.8000;0.6048;0.8220;
-28.5000;0.6040;0.8289;
-28.2000;0.6032;0.8243;
-27.9000;0.6007;0.8196;
-27.6000;0.6032;0.8243;
-27.3000;0.6015;0.8173;
-27.0000;0.6056;0.8243;
-26.7000;0.6032;0.8359;
-26.4000;0.6024;0.8405;
-26.1000;0.6024;0.8336;
-25.8000;0.6032;0.8382;
-25.5000;0.6040;0.8452;
-25.2000;0.6032;0.8498;
-24.9000;0.6032;0.8521;
-24.6000;0.6015;0.8382;
-24.3000;0.6040;0.8498;
-24.0000;0.6024;0.8475;
-23.7000;0.6048;0.8498;
-23.4000;0.6007;0.8405;
-23.1000;0.6040;0.8452;
-22.8000;0.6040;0.8498;
-22.5000;0.6007;0.8475;
-22.2000;0.6024;0.8498;
-21.9000;0.6024;0.8568;
-21.6000;0.5999;0.8405;
-21.3000;0.6048;0.8405;
-21.0000;0.6007;0.8382;
-20.7000;0.6015;0.8405;
-20.4000;0.6040;0.8405;
-20.1000;0.6072;0.8545;
-19.8000;0.5950;0.8266;
-19.5000;0.6048;0.8591;
-19.2000;0.6040;0.8498;
-18.9000;0.6040;0.8545;
-18.6000;0.6048;0.8568;
-18.3000;0.5975;0.8475;
-18.0000;0.6007;0.8545;
-17.7000;0.6048;0.8661;
-17.4000;0.6040;0.8614;
-17.1000;0.6024;0.8591;
-16.8000;0.6064;0.8614;
-16.5000;0.6097;0.8614;
-16.2000;0.6032;0.8429;
-15.9000;0.6015;0.8405;
-15.6000;0.6138;0.8707;
-15.3000;0.6032;0.8359;
-15.0000;0.6048;0.8475;
-14.7000;0.6105;0.8568;
-14.4000;0.6024;0.8382;
-14.1000;0.6040;0.8429;
-13.8000;0.6024;0.8382;
-13.5000;0.6032;0.8359;
-13.2000;0.6064;0.8475;
-12.9000;0.6024;0.8452;
-12.6000;0.6015;0.8475;
-12.3000;0.6040;0.8521;
-12.0000;0.6040;0.8614;
-11.7000;0.6072;0.8591;
-11.4000;0.6015;0.8452;
-11.1000;0.5975;0.8405;
-10.8000;0.6032;0.8498;
-10.5000;0.6024;0.8521;
-10.2000;0.6032;0.8521;
-9.9000;0.6007;0.8498;
-9.6000;0.6121;0.8730;
-9.3000;0.6040;0.8545;
-9.0000;0.6056;0.8568;
-8.7000;0.6048;0.8498;
-8.4000;0.6032;0.8405;
-8.1000;0.6024;0.8359;
-7.8000;0.6024;0.8359;
-7.5000;0.6056;0.8382;
-7.2000;0.6048;0.8336;
-6.9000;0.6007;0.8220;
-6.6000;0.6040;0.8359;
-6.3000;0.6015;0.8336;
-6.0000;0.6024;0.8336;
-5.7000;0.6040;0.8289;
-5.4000;0.6040;0.8289;
-5.1000;0.6007;0.8127;
-4.8000;0.6040;0.8243;
-4.5000;0.6032;0.8220;
-4.2000;0.6081;0.8289;
-3.9000;0.6056;0.8243;
-3.6000;0.6015;0.8243;
-3.3000;0.6024;0.8173;
-3.0000;0.6024;0.8127;
-2.7000;0.6040;0.8266;
-2.4000;0.6032;0.8243;
-2.1000;0.6089;0.8359;
-1.8000;0.6032;0.8266;
-1.5000;0.6024;0.8289;
-1.2000;0.6015;0.8313;
-0.9000;0.6040;0.8266;
-0.6000;0.6032;0.8313;
-0.3000;0.6032;0.8359;
0.0000;0.6032;0.8359;
0.3000;0.6048;0.8382;
0.6000;0.6113;0.8638;
0.9000;0.6154;0.8800;
1.2000;0.6186;0.8963;
1.5000;0.6219;0.9125;
1.8000;0.6227;0.9218;
2.1000;0.6243;0.9381;
2.4000;0.6260;0.9520;
2.7000;0.6252;0.9636;
3.0000;0.6276;0.9775;
3.3000;0.6268;0.9775;
3.6000;0.6292;0.9822;
3.9000;0.6284;0.9775;
4.2000;0.6243;0.9845;
4.5000;0.6292;0.9938;
4.8000;0.6300;1.0054;
5.1000;0.6317;1.0054;
5.4000;0.6317;1.0054;
5.7000;0.6325;0.9961;
6.0000;0.6349;0.9984;
6.3000;0.6300;0.9891;
6.6000;0.6365;1.0124;
6.9000;0.6357;1.0077;
7.2000;0.6349;1.0124;
7.5000;0.6365;1.0170;
7.8000;0.6333;1.0193;
8.1000;0.6365;1.0217;
8.4000;0.6382;1.0217;
8.7000;0.6390;1.0263;
9.0000;0.6325;1.0077;
9.3000;0.6422;1.0356;
9.6000;0.6382;1.0263;
9.9000;0.6382;1.0240;
10.2000;0.6390;1.0240;
10.5000;0.6422;1.0263;
10.8000;0.6406;1.0100;
11.1000;0.6382;1.0008;
11.4000;0.6447;1.0170;
11.7000;0.6431;1.0031;
12.0000;0.6414;1.0031;
12.3000;0.6439;1.0100;
12.6000;0.6455;1.0147;
12.9000;0.6431;1.0147;
13.2000;0.6455;1.0170;
13.5000;0.6431;1.0286;
13.8000;0.6414;1.0356;
14.1000;0.6439;1.0379;
14.4000;0.6447;1.0333;
14.7000;0.6422;1.0309;
15.0000;0.6463;1.0356;
15.3000;0.6553;1.0542;
15.6000;0.6455;1.0402;
15.9000;0.6463;1.0425;
16.2000;0.6536;1.0472;
16.5000;0.6471;1.0309;
16.8000;0.6488;1.0379;
17.1000;0.6488;1.0333;
17.4000;0.6496;1.0263;
17.7000;0.6488;1.0147;
18.0000;0.6488;1.0100;
18.3000;0.6504;1.0124;
18.6000;0.6496;1.0077;
18.9000;0.6463;1.0077;
19.2000;0.6463;1.0077;
19.5000;0.6463;0.9984;
19.8000;0.6479;1.0008;
20.1000;0.6471;1.0077;
20.4000;0.6496;1.0170;
20.7000;0.6528;1.0170;
21.0000;0.6496;1.0100;
21.3000;0.6496;1.0170;
21.6000;0.6504;1.0170;
21.9000;0.6561;1.0263;
22.2000;0.6536;1.0147;
22.5000;0.6634;1.0333;
22.8000;0.6536;1.0147;
23.1000;0.6528;1.0170;
23.4000;0.6585;1.0449;
23.7000;0.6488;1.0100;
24.0000;0.6512;1.0100;
24.3000;0.6512;1.0054;
24.6000;0.6536;1.0124;
24.9000;0.6561;1.0217;
25.2000;0.6512;1.0100;
25.5000;0.6528;1.0100;
25.8000;0.6520;1.0147;
26.1000;0.6496;1.0100;
26.4000;0.6504;1.0077;
26.7000;0.6553;1.0170;
27.0000;0.6512;1.0170;
27.3000;0.6577;1.0193;
27.6000;0.6536;1.0100;
27.9000;0.6488;0.9868;
28.2000;0.6561;1.0100;
28.5000;0.6545;0.9984;
28.8000;0.6479;0.9868;
29.1000;0.6553;1.0031;
29.4000;0.6520;1.0031;
29.7000;0.6561;1.0217;
30.0000;0.6561;1.0077;
30.3000;0.6545;1.0031;
30.6000;0.6561;1.0124;
30.9000;0.6626;1.0286;
31.2000;0.6577;1.0170;
31.5000;0.6561;1.0170;
31.8000;0.6561;1.0170;
32.1000;0.6545;1.0077;
32.4000;0.6585;1.0100;
32.7000;0.6577;1.0054;
33.0000;0.6561;1.0124;
33.3000;0.6642;1.0356;
33.6000;0.6561;1.0217;
33.9000;0.6569;1.0170;
34.2000;0.6553;1.0217;
34.5000;0.6553;1.0147;
34.8000;0.6569;1.0170;
35.1000;0.6577;1.0147;
35.4000;0.6569;1.0124;
35.7000;0.6545;1.0170;
36.0000;0.6577;1.0217;
36.3000;0.6553;1.0170;
36.6000;0.6585;1.0240;
36.9000;0.6585;1.0263;
37.2000;0.6577;1.0217;
37.5000;0.6577;1.0217;
37.8000;0.6585;1.0263;
38.1000;0.6561;1.0286;
38.4000;0.6593;1.0356;
38.7000;0.6577;1.0379;
39.0000;0.6577;1.0356;
39.3000;0.6569;1.0425;
39.6000;0.6618;1.0425;
39.9000;0.6593;1.0193;
40.2000;0.6593;1.0147;
40.5000;0.6593;1.0147;
40.8000;0.6585;1.0100;
41.1000;0.6610;1.0170;
41.4000;0.6593;1.0193;
41.7000;0.6577;1.0240;
42.0000;0.6585;1.0286;
42.3000;0.6593;1.0286;
42.6000;0.6585;1.0240;
42.9000;0.6602;1.0309;
43.2000;0.6593;1.0263;
43.5000;0.6561;1.0217;
43.8000;0.6593;1.0193;
44.1000;0.6593;1.0193;
44.4000;0.6593;1.0170;
44.7000;0.6593;1.0147;
45.0000;0.6585;1.0054;
45.3000;0.6577;1.0054;
45.6000;0.6585;1.0008;
45.9000;0.6569;0.9984;
46.2000;0.6618;1.0100;
46.5000;0.6577;1.0031;
46.8000;0.6577;1.0031;
47.1000;0.6585;1.0008;
47.4000;0.6455;0.9729;
47.7000;0.6634;1.0170;
48.0000;0.6569;1.0008;
48.3000;0.6593;1.0054;
48.6000;0.6602;1.0124;
48.9000;0.6634;1.0217;
49.2000;0.6602;1.0263;
49.5000;0.6602;1.0286;
49.8000;0.6618;1.0286;
50.1000;0.6610;1.0333;
50.4000;0.6602;1.0333;
50.7000;0.6626;1.0379;
51.0000;0.6642;1.0472;
51.3000;0.6610;1.0333;
51.6000;0.6618;1.0263;
51.9000;0.6593;1.0286;
52.2000;0.6577;1.0193;
52.5000;0.6610;1.0263;
52.8000;0.6618;1.0286;
53.1000;0.6602;1.0309;
53.4000;0.6618;1.0286;
53.7000;0.6659;1.0472;
54.0000;0.6699;1.0565;
54.3000;0.6610;1.0309;
54.6000;0.6593;1.0286;
54.9000;0.6602;1.0356;
55.2000;0.6602;1.0263;
55.5000;0.6610;1.0333;
55.8000;0.6585;1.0286;
56.1000;0.6618;1.0263;
56.4000;0.6618;1.0263;
56.7000;0.6610;1.0170;
57.0000;0.6610;1.0286;
57.3000;0.6610;1.0333;
57.6000;0.6618;1.0356;
57.9000;0.6626;1.0379;
58.2000;0.6593;1.0286;
58.5000;0.6602;1.0263;
58.8000;0.6634;1.0472;
59.1000;0.6642;1.0495;
59.4000;0.6618;1.0495;
59.7000;0.6610;1.0495;
60.0000;0.6626;1.0472;
60.3000;0.6618;1.0518;
60.6000;0.6593;1.0402;
60.9000;0.6634;1.0402;
61.2000;0.6626;1.0263;
61.5000;0.6626;1.0333;
61.8000;0.6602;1.0286;
62.1000;0.6593;1.0309;
62.4000;0.6610;1.0356;
62.7000;0.6642;1.0449;
63.0000;0.6553;1.0193;
63.3000;0.6602;1.0263;
63.6000;0.6593;1.0193;
63.9000;0.6618;1.0147;
64.2000;0.6626;1.0263;
64.5000;0.6593;1.0147;
64.8000;0.6642;1.0170;
65.1000;0.6602;1.0077;
65.4000;0.6626;1.0124;
65.7000;0.6642;1.0124;
66.0000;0.6610;1.0147;
66.3000;0.6626;1.0147;
66.6000;0.6585;1.0124;
66.9000;0.6618;1.0193;
67.2000;0.6618;1.0217;
67.5000;0.6610;1.0240;
67.8000;0.6618;1.0193;
68.1000;0.6618;1.0124;
68.4000;0.6618;1.0170;
68.7000;0.6610;1.0240;
69.0000;0.6618;1.0263;
69.3000;0.6634;1.0286;
69.6000;0.6618;1.0217;
69.9000;0.6577;0.9984;
70.2000;0.6618;1.0031;
70.5000;0.6618;1.0100;
70.8000;0.6626;1.0147;
71.1000;0.6553;0.9984;
71.4000;0.6626;1.0217;
71.7000;0.6626;1.0217;
72.0000;0.6610;1.0263;
72.3000;0.6618;1.0240;
72.6000;0.6593;1.0193;
72.9000;0.6642;1.0263;
73.2000;0.6626;1.0124;
73.5000;0.6610;1.0193;
73.8000;0.6602;1.0193;
74.1000;0.6626;1.0124;
74.4000;0.6610;1.0008;
74.7000;0.6610;1.0124;
75.0000;0.6610;1.0217;
75.3000;0.6618;1.0240;
75.6000;0.6626;1.0170;
75.9000;0.6618;1.0170;
76.2000;0.6610;1.0286;
76.5000;0.6610;1.0286;
76.8000;0.6642;1.0286;
77.1000;0.6610;1.0124;
77.4000;0.6610;1.0240;
77.7000;0.6602;1.0193;
78.0000;0.6626;1.0240;
78.3000;0.6577;1.0100;
78.6000;0.6618;1.0193;
78.9000;0.6618;1.0147;
79.2000;0.6634;1.0147;
79.5000;0.6626;1.0170;
79.8000;0.6626;1.0193;
80.1000;0.6610;1.0170;
80.4000;0.6634;1.0170;
80.7000;0.6618;1.0240;
81.0000;0.6593;1.0263;
81.3000;0.6618;1.0356;
81.6000;0.6602;1.0309;
81.9000;0.6610;1.0333;
82.2000;0.6626;1.0286;
82.5000;0.6610;1.0309;
82.8000;0.6610;1.0356;
83.1000;0.6626;1.0379;
83.4000;0.6618;1.0402;
83.7000;0.6626;1.0472;
84.0000;0.6634;1.0495;
84.3000;0.6650;1.0565;
84.6000;0.6691;1.0634;
84.9000;0.6634;1.0495;
85.2000;0.6626;1.0518;
85.5000;0.6650;1.0449;
85.8000;0.6683;1.0425;
86.1000;0.6634;1.0286;
86.4000;0.6626;1.0170;
86.7000;0.6561;1.0008;
87.0000;0.6626;1.0286;
87.3000;0.6642;1.0286;
87.6000;0.6618;1.0217;
87.9000;0.6626;1.0193;
88.2000;0.6618;1.0217;
88.5000;0.6618;1.0240;
88.8000;0.6618;1.0309;
89.1000;0.6610;1.0286;
89.4000;0.6593;1.0309;
89.7000;0.6626;1.0449;
90.0000;0.6593;1.0425;
90.3000;0.6618;1.0449;
90.6000;0.6618;1.0425;
90.9000;0.6626;1.0379;
91.2000;0.6618;1.0333;
91.5000;0.6675;1.0286;
91.8000;0.6626;1.0263;
92.1000;0.6626;1.0379;
92.4000;0.6618;1.0379;
92.7000;0.6618;1.0402;
93.0000;0.6634;1.0379;
93.3000;0.6577;1.0240;
93.6000;0.6642;1.0402;
93.9000;0.6618;1.0333;
94.2000;0.6618;1.0356;
94.5000;0.6577;1.0240;
94.8000;0.6618;1.0309;
95.1000;0.6618;1.0263;
95.4000;0.6618;1.0193;
95.7000;0.6569;1.0031;
96.0000;0.6618;1.0240;
96.3000;0.6618;1.0356;
96.6000;0.6634;1.0333;
96.9000;0.6626;1.0286;
97.2000;0.6561;1.0170;
97.5000;0.6610;1.0309;
97.8000;0.6602;1.0286;
98.1000;0.6593;1.0217;
98.4000;0.6626;1.0217;
98.7000;0.6618;1.0240;
99.0000;0.6626;1.0217;
99.3000;0.6610;1.0170;
99.6000;0.6618;1.0240;
99.9000;0.6634;1.0333;
100.2000;0.6659;1.0402;
100.5000;0.6610;1.0333;
100.8000;0.6618;1.0309;
101.1000;0.6610;1.0263;
101.4000;0.6610;1.0240;
101.7000;0.6618;1.0263;
102.0000;0.6618;1.0263;
102.3000;0.6659;1.0356;
102.6000;0.6626;1.0263;
102.9000;0.6618;1.0193;
103.2000;0.6618;1.0263;
103.5000;0.6650;1.0263;
103.8000;0.6634;1.0309;
104.1000;0.6642;1.0217;
104.4000;0.6610;1.0054;
104.7000;0.6618;1.0031;
105.0000;0.6650;1.0124;
105.3000;0.6642;1.0193;
105.6000;0.6618;1.0170;
105.9000;0.6642;1.0217;
106.2000;0.6626;1.0193;
106.5000;0.6626;1.0124;
106.8000;0.6634;1.0124;
107.1000;0.6610;1.0147;
107.4000;0.6650;1.0193;
107.7000;0.6642;1.0217;
108.0000;0.6626;1.0147;
108.3000;0.6650;1.0217;
108.6000;0.6626;1.0193;
108.9000;0.6626;1.0170;
109.2000;0.6634;1.0217;
109.5000;0.6634;1.0124;
109.8000;0.6577;0.9961;
110.1000;0.6634;1.0100;
110.4000;0.6642;1.0077;
110.7000;0.6642;1.0147;
111.0000;0.6610;1.0170;
111.3000;0.6675;1.0309;
111.6000;0.6618;1.0309;
111.9000;0.6618;1.0379;
112.2000;0.6602;1.0356;
112.5000;0.6626;1.0309;
112.8000;0.6610;1.0193;
113.1000;0.6634;1.0170;
113.4000;0.6659;1.0170;
113.7000;0.6626;1.0193;
114.0000;0.6634;1.0263;
114.3000;0.6642;1.0356;
114.6000;0.6642;1.0356;
114.9000;0.6699;1.0518;
115.2000;0.6650;1.0356;
115.5000;0.6650;1.0402;
115.8000;0.6659;1.0379;
116.1000;0.6626;1.0402;
116.4000;0.6634;1.0402;
116.7000;0.6593;1.0286;
117.0000;0.6618;1.0309;
117.3000;0.6593;1.0240;
117.6000;0.6675;1.0356;
117.9000;0.6626;1.0286;
118.2000;0.6634;1.0217;
118.5000;0.6610;1.0286;
118.8000;0.6610;1.0333;
119.1000;0.6618;1.0147;
119.4000;0.6642;1.0147;
119.7000;0.6610;1.0124;
120.0000;0.6585;1.0077;
120.3000;0.6659;1.0286;
120.6000;0.6634;1.0333;
120.9000;0.6675;1.0472;
121.2000;0.6626;1.0309;
121.5000;0.6634;1.0263;
121.8000;0.6561;1.0008;
122.1000;0.6626;1.0217;
122.4000;0.6602;1.0286;
122.7000;0.6536;1.0124;
123.0000;0.6634;1.0217;
123.3000;0.6618;1.0170;
123.6000;0.6626;1.0193;
123.9000;0.6626;1.0124;
124.2000;0.6545;0.9961;
124.5000;0.6634;1.0193;
124.8000;0.6634;1.0286;
125.1000;0.6626;1.0333;
125.4000;0.6675;1.0402;
125.7000;0.6642;1.0263;
126.0000;0.6642;1.0263;
126.3000;0.6626;1.0170;
126.6000;0.6650;1.0193;
126.9000;0.6626;1.0193;
127.2000;0.6593;1.0286;
127.5000;0.6634;1.0425;
127.8000;0.6650;1.0518;
128.1000;0.6626;1.0402;
128.4000;0.6667;1.0356;
128.7000;0.6642;1.0333;
129.0000;0.6642;1.0333;
129.3000;0.6610;1.0309;
129.6000;0.6634;1.0356;
129.9000;0.6642;1.0402;
130.2000;0.6650;1.0286;
130.5000;0.6626;1.0193;
130.8000;0.6650;1.0309;
131.1000;0.6626;1.0309;
131.4000;0.6610;1.0240;
131.7000;0.6618;1.0240;
132.0000;0.6610;1.0286;
132.3000;0.6618;1.0379;
132.6000;0.6618;1.0333;
132.9000;0.6634;1.0402;
133.2000;0.6610;1.0309;
133.5000;0.6618;1.0356;
133.8000;0.6602;1.0309;
134.1000;0.6634;1.0333;
134.4000;0.6618;1.0263;
134.7000;0.6650;1.0356;
135.0000;0.6602;1.0286;
135.3000;0.6659;1.0425;
135.6000;0.6626;1.0333;
135.9000;0.6602;1.0425;
136.2000;0.6618;1.0495;
136.5000;0.6610;1.0425;
136.8000;0.6634;1.0495;
137.1000;0.6593;1.0449;
137.4000;0.6634;1.0542;
137.7000;0.6626;1.0518;
138.0000;0.6602;1.0425;
138.3000;0.6634;1.0449;
138.6000;0.6642;1.0379;
138.9000;0.6634;1.0309;
139.2000;0.6634;1.0240;
139.5000;0.6634;1.0286;
139.8000;0.6626;1.0240;
140.1000;0.6618;1.0240;
140.4000;0.6618;1.0193;
140.7000;0.6650;1.0263;
141.0000;0.6610;1.0170;
141.3000;0.6642;1.0240;
141.6000;0.6626;1.0147;
141.9000;0.6561;0.9961;
142.2000;0.6642;1.0217;
142.5000;0.6642;1.0170;
142.8000;0.6602;1.0170;
143.1000;0.6650;1.0217;
143.4000;0.6618;1.0147;
143.7000;0.6520;1.0031;
144.0000;0.6593;1.0240;
144.3000;0.6610;1.0263;
144.6000;0.6610;1.0217;
144.9000;0.6626;1.0170;
145.2000;0.6626;1.0170;
145.5000;0.6618;1.0170;
145.8000;0.6536;0.9961;
146.1000;0.6634;1.0193;
146.4000;0.6642;1.0263;
146.7000;0.6618;1.0240;
147.0000;0.6675;1.0449;
147.3000;0.6650;1.0472;
147.6000;0.6634;1.0379;
147.9000;0.6634;1.0449;
148.2000;0.6618;1.0495;
148.5000;0.6634;1.0542;
148.8000;0.6618;1.0425;
149.1000;0.6610;1.0309;
149.4000;0.6602;1.0240;
149.7000;0.6634;1.0240;
150.0000;0.6626;1.0309;
150.3000;0.6618;1.0286;
150.6000;0.6642;1.0286;
150.9000;0.6634;1.0309;
151.2000;0.6634;1.0217;
151.5000;0.6626;1.0170;
151.8000;0.6634;1.0193;
152.1000;0.6667;1.0286;
152.4000;0.6642;1.0309;
152.7000;0.6634;1.0379;
153.0000;0.6618;1.0356;
153.3000;0.6610;1.0286;
153.6000;0.6675;1.0449;
153.9000;0.6634;1.0425;
154.2000;0.6642;1.0425;
154.5000;0.6659;1.0402;
154.8000;0.6634;1.0379;
155.1000;0.6626;1.0402;
155.4000;0.6659;1.0379;
155.7000;0.6634;1.0286;
156.0000;0.6602;1.0379;
156.3000;0.6634;1.0495;
156.6000;0.6626;1.0495;
156.9000;0.6618;1.0379;
157.2000;0.6618;1.0333;
157.5000;0.6642;1.0356;
157.8000;0.6642;1.0402;
158.1000;0.6642;1.0356;
158.4000;0.6626;1.0309;
158.7000;0.6683;1.0518;
159.0000;0.6602;1.0240;
159.3000;0.6626;1.0170;
159.6000;0.6602;1.0077;
159.9000;0.6642;1.0193;
160.2000;0.6626;1.0170;
160.5000;0.6618;1.0170;
160.8000;0.6650;1.0263;
161.1000;0.6618;1.0240;
161.4000;0.6618;1.0170;
161.7000;0.6642;1.0193;
162.0000;0.6488;0.9822;
162.3000;0.6626;1.0193;
162.6000;0.6585;1.0217;
162.9000;0.6642;1.0333;
163.2000;0.6626;1.0309;
163.5000;0.6675;1.0309;
163.8000;0.6634;1.0356;
164.1000;0.6618;1.0263;
164.4000;0.6585;1.0193;
164.7000;0.6618;1.0240;
165.0000;0.6618;1.0286;
165.3000;0.6618;1.0217;
165.6000;0.6650;1.0309;
165.9000;0.6593;1.0217;
166.2000;0.6626;1.0309;
166.5000;0.6642;1.0356;
166.8000;0.6626;1.0286;
167.1000;0.6618;1.0217;
167.4000;0.6626;1.0193;
167.7000;0.6626;1.0240;
168.0000;0.6642;1.0217;
168.3000;0.6602;1.0147;
168.6000;0.6618;1.0263;
168.9000;0.6659;1.0402;
169.2000;0.6642;1.0402;
169.5000;0.6602;1.0217;
169.8000;0.6618;1.0286;
170.1000;0.6626;1.0333;
170.4000;0.6602;1.0309;
170.7000;0.6618;1.0286;
171.0000;0.6602;1.0286;
171.3000;0.6667;1.0449;
171.6000;0.6634;1.0333;
171.9000;0.6659;1.0333;
172.2000;0.6626;1.0425;
172.5000;0.6634;1.0309;
172.8000;0.6634;1.0286;
173.1000;0.6610;1.0147;
173.4000;0.6626;1.0124;
173.7000;0.6610;1.0100;
174.0000;0.6626;1.0217;
174.3000;0.6634;1.0240;
174.6000;0.6610;1.0286;
174.9000;0.6626;1.0309;
175.2000;0.6618;1.0263;
175.5000;0.6634;1.0286;
175.8000;0.6618;1.0193;
176.1000;0.6634;1.0286;
176.4000;0.6634;1.0240;
176.7000;0.6626;1.0240;
177.0000;0.6610;1.0100;
177.3000;0.6610;1.0217;
177.6000;0.6602;1.0309;
177.9000;0.6642;1.0356;
178.2000;0.6626;1.0309;
178.5000;0.6642;1.0309;
178.8000;0.6642;1.0356;
179.1000;0.6626;1.0333;
179.4000;0.6626;1.0356;
179.7000;0.6610;1.0402;
180.0000;0.6626;1.0518;
180.3000;0.6626;1.0518;
180.6000;0.6691;1.0588;
180.9000;0.6634;1.0542;
181.2000;0.6618;1.0542;
181.5000;0.6610;1.0518;
181.8000;0.6496;1.0240;
182.1000;0.6610;1.0472;
182.4000;0.6618;1.0518;
182.7000;0.6634;1.0472;
183.0000;0.6626;1.0309;
183.3000;0.6626;1.0379;
183.6000;0.6618;1.0379;
183.9000;0.6626;1.0449;
184.2000;0.6618;1.0449;
184.5000;0.6610;1.0495;
184.8000;0.6618;1.0518;
185.1000;0.6634;1.0588;
185.4000;0.6683;1.0565;
185.7000;0.6618;1.0286;
186.0000;0.6585;1.0309;
186.3000;0.6618;1.0518;
186.6000;0.6716;1.0913;
186.9000;0.6667;1.0820;
187.2000;0.6634;1.0727;
187.5000;0.6577;1.0704;
187.8000;0.6610;1.0751;
188.1000;0.6585;1.0681;
188.4000;0.6585;1.0658;
188.7000;0.6610;1.0681;
189.0000;0.6602;1.0751;
189.3000;0.6634;1.0774;
189.6000;0.6610;1.0727;
189.9000;0.6602;1.0681;
190.2000;0.6602;1.0751;
190.5000;0.6610;1.0797;
190.8000;0.6626;1.0797;
191.1000;0.6610;1.0774;
191.4000;0.6634;1.0797;
191.7000;0.6536;1.0495;
192.0000;0.6618;1.0681;
192.3000;0.6626;1.0681;
192.6000;0.6618;1.0634;
192.9000;0.6642;1.0634;
193.2000;0.6642;1.0611;
193.5000;0.6634;1.0611;
193.8000;0.6626;1.0542;
194.1000;0.6610;1.0449;
194.4000;0.6618;1.0472;
194.7000;0.6642;1.0565;
195.0000;0.6593;1.0565;
195.3000;0.6545;1.0449;
195.6000;0.6618;1.0611;
195.9000;0.6634;1.0751;
196.2000;0.6634;1.0774;
196.5000;0.6634;1.0751;
196.8000;0.6626;1.0820;
197.1000;0.6634;1.0774;
197.4000;0.6626;1.0751;
197.7000;0.6626;1.0681;
198.0000;0.6593;1.0681;
198.3000;0.6626;1.0797;
198.6000;0.6642;1.0681;
198.9000;0.6642;1.0565;
199.2000;0.6642;1.0565;
199.5000;0.6659;1.0634;
199.8000;0.6634;1.0542;
200.1000;0.6618;1.0518;
200.4000;0.6610;1.0495;
200.7000;0.6667;1.0658;
201.0000;0.6610;1.0565;
201.3000;0.6618;1.0565;
201.6000;0.6610;1.0565;
201.9000;0.6634;1.0588;
202.2000;0.6683;1.0704;
202.5000;0.6634;1.0634;
202.8000;0.6691;1.0774;
203.1000;0.6593;1.0518;
203.4000;0.6642;1.0565;
203.7000;0.6626;1.0565;
204.0000;0.6642;1.0681;
204.3000;0.6618;1.0658;
204.6000;0.6642;1.0634;
204.9000;0.6618;1.0658;
205.2000;0.6553;1.0565;
205.5000;0.6610;1.0658;
205.8000;0.6634;1.0727;
206.1000;0.6650;1.0588;
206.4000;0.6634;1.0402;
206.7000;0.6610;1.0356;
207.0000;0.6683;1.0611;
207.3000;0.6618;1.0518;
207.6000;0.6626;1.0542;
207.9000;0.6585;1.0425;
208.2000;0.6602;1.0472;
208.5000;0.6634;1.0472;
208.8000;0.6642;1.0333;
209.1000;0.6626;1.0286;
209.4000;0.6659;1.0379;
209.7000;0.6610;1.0309;
210.0000;0.6659;1.0449;
210.3000;0.6618;1.0356;
210.6000;0.6626;1.0309;
210.9000;0.6634;1.0402;
211.2000;0.6634;1.0472;
211.5000;0.6553;1.0379;
211.8000;0.6593;1.0472;
212.1000;0.6659;1.0681;
212.4000;0.6577;1.0518;
212.7000;0.6610;1.0611;
213.0000;0.6618;1.0588;
213.3000;0.6618;1.0588;
213.6000;0.6634;1.0542;
213.9000;0.6610;1.0495;
214.2000;0.6634;1.0495;
214.5000;0.6626;1.0518;
214.8000;0.6602;1.0542;
215.1000;0.6650;1.0588;
215.4000;0.6602;1.0634;
215.7000;0.6626;1.0518;
216.0000;0.6618;1.0518;
216.3000;0.6626;1.0495;
216.6000;0.6618;1.0495;
216.9000;0.6626;1.0379;
217.2000;0.6577;1.0356;
217.5000;0.6642;1.0449;
217.8000;0.6626;1.0333;
218.1000;0.6618;1.0333;
218.4000;0.6634;1.0379;
218.7000;0.6618;1.0333;
219.0000;0.6610;1.0333;
219.3000;0.6618;1.0333;
219.6000;0.6618;1.0309;
219.9000;0.6618;1.0333;
220.2000;0.6838;1.0867;
220.5000;0.6626;1.0356;
220.8000;0.6618;1.0379;
221.1000;0.6642;1.0402;
221.4000;0.6618;1.0356;
221.7000;0.6618;1.0333;
222.0000;0.6618;1.0472;
222.3000;0.6634;1.0588;
222.6000;0.6618;1.0542;
222.9000;0.6618;1.0611;
223.2000;0.6618;1.0634;
223.5000;0.6634;1.0658;
223.8000;0.6626;1.0542;
224.1000;0.6634;1.0495;
224.4000;0.6602;1.0333;
224.7000;0.6634;1.0472;
225.0000;0.6602;1.0402;
225.3000;0.6650;1.0472;
225.6000;0.6642;1.0495;
225.9000;0.6618;1.0356;
226.2000;0.6707;1.0542;
226.5000;0.6626;1.0449;
226.8000;0.6667;1.0518;
227.1000;0.6618;1.0449;
227.4000;0.6593;1.0402;
227.7000;0.6626;1.0495;
228.0000;0.6642;1.0518;
228.3000;0.6634;1.0449;
228.6000;0.6650;1.0379;
228.9000;0.6675;1.0425;
229.2000;0.6561;1.0217;
229.5000;0.6650;1.0565;
229.8000;0.6699;1.0751;
230.1000;0.6602;1.0634;
230.4000;0.6634;1.0634;
230.7000;0.6610;1.0565;
231.0000;0.6610;1.0565;
231.3000;0.6650;1.0634;
231.6000;0.6626;1.0565;
231.9000;0.6610;1.0542;
232.2000;0.6667;1.0751;
232.5000;0.6593;1.0611;
232.8000;0.6634;1.0611;
233.1000;0.6610;1.0472;
233.4000;0.6618;1.0472;
233.7000;0.6602;1.0379;
234.0000;0.6602;1.0263;
234.3000;0.6618;1.0402;
234.6000;0.6602;1.0379;
234.9000;0.6585;1.0263;
235.2000;0.6593;1.0333;
235.5000;0.6626;1.0495;
235.8000;0.6610;1.0449;
236.1000;0.6642;1.0542;
236.4000;0.6618;1.0495;
236.7000;0.6602;1.0472;
237.0000;0.6618;1.0449;
237.3000;0.6602;1.0263;
237.6000;0.6634;1.0333;
237.9000;0.6626;1.0379;
238.2000;0.6642;1.0565;
238.5000;0.6610;1.0449;
238.8000;0.6691;1.0634;
239.1000;0.6626;1.0518;
239.4000;0.6634;1.0565;
239.7000;0.6634;1.0379;
240.0000;0.6602;1.0286;
240.3000;0.6626;1.0333;
240.6000;0.6618;1.0333;
240.9000;0.6569;1.0240;
241.2000;0.6618;1.0449;
241.5000;0.6618;1.0449;
241.8000;0.6618;1.0425;
242.1000;0.6634;1.0449;
242.4000;0.6610;1.0402;
242.7000;0.6602;1.0379;
243.0000;0.6634;1.0449;
243.3000;0.6659;1.0472;
243.6000;0.6642;1.0449;
243.9000;0.6691;1.0518;
244.2000;0.6659;1.0449;
244.5000;0.6650;1.0379;
244.8000;0.6626;1.0425;
245.1000;0.6618;1.0402;
245.4000;0.6626;1.0449;
245.7000;0.6634;1.0495;
246.0000;0.6618;1.0565;
246.3000;0.6610;1.0518;
246.6000;0.6626;1.0518;
246.9000;0.6634;1.0565;
247.2000;0.6618;1.0542;
247.5000;0.6610;1.0472;
247.8000;0.6602;1.0379;
248.1000;0.6634;1.0402;
248.4000;0.6634;1.0472;
248.7000;0.6618;1.0449;
249.0000;0.6610;1.0356;
249.3000;0.6618;1.0425;
249.6000;0.6618;1.0495;
249.9000;0.6585;1.0309;
250.2000;0.6577;1.0286;
250.5000;0.6602;1.0333;
250.8000;0.6642;1.0449;
251.1000;0.6610;1.0495;
251.4000;0.6610;1.0542;
251.7000;0.6593;1.0472;
252.0000;0.6602;1.0402;
252.3000;0.6618;1.0449;
252.6000;0.6626;1.0472;
252.9000;0.6593;1.0379;
253.2000;0.6618;1.0379;
253.5000;0.6602;1.0286;
253.8000;0.6667;1.0495;
254.1000;0.6610;1.0379;
254.4000;0.6610;1.0379;
254.7000;0.6610;1.0425;
255.0000;0.6585;1.0425;
255.3000;0.6626;1.0588;
255.6000;0.6569;1.0518;
255.9000;0.6610;1.0634;
256.2000;0.6634;1.0611;
256.5000;0.6602;1.0518;
256.8000;0.6610;1.0611;
257.1000;0.6610;1.0518;
257.4000;0.6602;1.0449;
257.7000;0.6626;1.0518;
258.0000;0.6659;1.0518;
258.3000;0.6642;1.0518;
258.6000;0.6602;1.0356;
258.9000;0.6634;1.0425;
259.2000;0.6528;1.0193;
259.5000;0.6618;1.0472;
259.8000;0.6618;1.0449;
260.1000;0.6618;1.0402;
260.4000;0.6577;1.0240;
260.7000;0.6626;1.0309;
261.0000;0.6634;1.0263;
261.3000;0.6593;1.0193;
261.6000;0.6618;1.0170;
261.9000;0.6618;1.0193;
262.2000;0.6634;1.0193;
262.5000;0.6634;1.0286;
262.8000;0.6610;1.0309;
263.1000;0.6610;1.0286;
263.4000;0.6626;1.0379;
263.7000;0.6634;1.0356;
264.0000;0.6610;1.0356;
264.3000;0.6602;1.0379;
264.6000;0.6634;1.0518;
264.9000;0.6610;1.0495;
265.2000;0.6610;1.0333;
265.5000;0.6618;1.0309;
265.8000;0.6610;1.0286;
266.1000;0.6634;1.0379;
266.4000;0.6610;1.0402;
266.7000;0.6626;1.0333;
267.0000;0.6618;1.0309;
267.3000;0.6610;1.0147;
267.6000;0.6618;1.0217;
267.9000;0.6618;1.0309;
268.2000;0.6602;1.0263;
268.5000;0.6634;1.0309;
268.8000;0.6618;1.0286;
269.1000;0.6610;1.0286;
269.4000;0.6618;1.0263;
269.7000;0.6634;1.0333;
270.0000;0.6626;1.0286;
270.3000;0.6618;1.0333;
270.6000;0.6634;1.0449;
270.9000;0.6642;1.0402;
271.2000;0.6610;1.0449;
271.5000;0.6618;1.0425;
271.8000;0.6602;1.0286;
272.1000;0.6618;1.0217;
272.4000;0.6659;1.0263;
272.7000;0.6610;1.0170;
273.0000;0.6610;1.0170;
273.3000;0.6659;1.0356;
273.6000;0.6618;1.0379;
273.9000;0.6618;1.0449;
274.2000;0.6618;1.0449;
274.5000;0.6602;1.0495;
274.8000;0.6602;1.0402;
275.1000;0.6618;1.0379;
275.4000;0.6520;1.0124;
275.7000;0.6626;1.0309;
276.0000;0.6602;1.0263;
276.3000;0.6683;1.0425;
276.6000;0.6626;1.0379;
276.9000;0.6683;1.0495;
277.2000;0.6610;1.0425;
277.5000;0.6626;1.0518;
277.8000;0.6659;1.0518;
278.1000;0.6610;1.0356;
278.4000;0.6650;1.0356;
278.7000;0.6618;1.0263;
279.0000;0.6618;1.0240;
279.3000;0.6553;1.0031;
279.6000;0.6618;1.0124;
279.9000;0.6569;1.0031;
280.2000;0.6642;1.0286;
280.5000;0.6618;1.0309;
280.8000;0.6618;1.0309;
281.1000;0.6667;1.0402;
281.4000;0.6585;1.0309;
281.7000;0.6626;1.0356;
282.0000;0.6667;1.0425;
282.3000;0.6618;1.0263;
282.6000;0.6626;1.0217;
282.9000;0.6610;1.0100;
283.2000;0.6512;0.9845;
283.5000;0.6610;1.0170;
283.8000;0.6610;1.0170;
284.1000;0.6577;1.0077;
284.4000;0.6593;1.0031;
284.7000;0.6610;1.0077;
285.0000;0.6626;1.0100;
285.3000;0.6618;1.0100;
285.6000;0.6610;1.0147;
285.9000;0.6610;1.0193;
286.2000;0.6634;1.0263;
286.5000;0.6626;1.0100;
286.8000;0.6626;1.0054;
287.1000;0.6626;1.0100;
287.4000;0.6634;1.0263;
287.7000;0.6610;1.0263;
288.0000;0.6618;1.0286;
288.3000;0.6634;1.0425;
288.6000;0.6602;1.0356;
288.9000;0.6634;1.0379;
289.2000;0.6618;1.0286;
289.5000;0.6602;1.0263;
289.8000;0.6610;1.0425;
290.1000;0.6618;1.0356;
290.4000;0.6626;1.0240;
290.7000;0.6618;1.0356;
291.0000;0.6626;1.0333;
291.3000;0.6618;1.0379;
291.6000;0.6634;1.0472;
291.9000;0.6650;1.0518;
292.2000;0.6634;1.0518;
292.5000;0.6618;1.0449;
292.8000;0.6610;1.0379;
293.1000;0.6626;1.0495;
293.4000;0.6634;1.0495;
293.7000;0.6602;1.0379;
294.0000;0.6626;1.0379;
294.3000;0.6610;1.0425;
294.6000;0.6642;1.0588;
294.9000;0.6618;1.0402;
295.2000;0.6602;1.0263;
295.5000;0.6626;1.0286;
295.8000;0.6642;1.0286;
296.1000;0.6593;1.0193;
296.4000;0.6602;1.0193;
296.7000;0.6585;1.0054;
297.0000;0.6618;1.0217;
297.3000;0.6675;1.0333;
297.6000;0.6610;1.0240;
297.9000;0.6602;1.0193;
298.2000;0.6610;1.0170;
298.5000;0.6610;1.0147;
298.8000;0.6634;1.0193;
299.1000;0.6610;1.0193;
299.4000;0.6618;1.0286;
299.7000;0.6667;1.0402;
300.0000;0.6610;1.0240;
300.3000;0.6634;1.0333;
300.6000;0.6626;1.0356;
300.9000;0.6577;1.0193;
301.2000;0.6667;1.0333;
301.5000;0.6602;1.0217;
301.8000;0.6602;1.0286;
302.1000;0.6593;1.0286;
302.4000;0.6618;1.0333;
302.7000;0.6610;1.0309;
303.0000;0.6610;1.0286;
303.3000;0.6642;1.0240;
303.6000;0.6610;1.0286;
303.9000;0.6610;1.0240;
304.2000;0.6602;1.0240;
304.5000;0.6626;1.0240;
304.8000;0.6626;1.0309;
305.1000;0.6626;1.0425;
305.4000;0.6618;1.0379;
305.7000;0.6618;1.0356;
306.0000;0.6626;1.0333;
306.3000;0.6626;1.0356;
306.6000;0.6618;1.0402;
306.9000;0.6634;1.0402;
307.2000;0.6634;1.0425;
307.5000;0.6618;1.0309;
307.8000;0.6545;1.0147;
308.1000;0.6675;1.0356;
308.4000;0.6602;1.0286;
308.7000;0.6602;1.0240;
309.0000;0.6650;1.0402;
309.3000;0.6593;1.0240;
309.6000;0.6610;1.0356;
309.9000;0.6602;1.0240;
310.2000;0.6593;1.0286;
310.5000;0.6618;1.0356;
310.8000;0.6618;1.0379;
311.1000;0.6626;1.0449;
311.4000;0.6618;1.0472;
311.7000;0.6610;1.0402;
312.0000;0.6610;1.0356;
312.3000;0.6618;1.0309;
312.6000;0.6602;1.0217;
312.9000;0.6602;1.0263;
313.2000;0.6602;1.0309;
313.5000;0.6618;1.0309;
313.8000;0.6593;1.0240;
314.1000;0.6610;1.0217;
314.4000;0.6602;1.0193;
314.7000;0.6610;1.0379;
315.0000;0.6610;1.0449;
315.3000;0.6585;1.0333;
315.6000;0.6610;1.0356;
315.9000;0.6593;1.0379;
316.2000;0.6618;1.0356;
316.5000;0.6618;1.0309;
316.8000;0.6610;1.0286;
317.1000;0.6634;1.0309;
317.4000;0.6602;1.0263;
317.7000;0.6610;1.0309;
318.0000;0.6618;1.0240;
318.3000;0.6602;1.0193;
318.6000;0.6585;1.0193;
318.9000;0.6626;1.0217;
319.2000;0.6642;1.0333;
319.5000;0.6602;1.0240;
319.8000;0.6618;1.0309;
320.1000;0.6602;1.0286;
320.4000;0.6610;1.0217;
320.7000;0.6626;1.0286;
321.0000;0.6683;1.0425;
321.3000;0.6618;1.0263;
321.6000;0.6626;1.0333;
321.9000;0.6610;1.0309;
322.2000;0.6610;1.0333;
322.5000;0.6618;1.0425;
322.8000;0.6602;1.0333;
323.1000;0.6610;1.0263;
323.4000;0.6602;1.0193;
323.7000;0.6602;1.0124;
324.0000;0.6577;1.0147;
324.3000;0.6610;1.0263;
324.6000;0.6593;1.0240;
324.9000;0.6642;1.0379;
325.2000;0.6602;1.0263;
325.5000;0.6593;1.0379;
325.8000;0.6610;1.0402;
326.1000;0.6610;1.0449;
326.4000;0.6610;1.0379;
326.7000;0.6610;1.0402;
327.0000;0.6602;1.0286;
327.3000;0.6610;1.0309;
327.6000;0.6634;1.0379;
327.9000;0.6634;1.0356;
328.2000;0.6585;1.0193;
328.5000;0.6569;1.0100;
328.8000;0.6610;1.0309;
329.1000;0.6602;1.0263;
329.4000;0.6585;1.0286;
329.7000;0.6593;1.0263;
330.0000;0.6602;1.0333;
330.3000;0.6602;1.0309;
330.6000;0.6707;1.0472;
330.9000;0.6585;1.0240;
331.2000;0.6602;1.0309;
331.5000;0.6626;1.0472;
331.8000;0.6618;1.0449;
332.1000;0.6602;1.0379;
332.4000;0.6569;1.0217;
332.7000;0.6536;1.0054;
333.0000;0.6626;1.0263;
333.3000;0.6618;1.0286;
333.6000;0.6618;1.0333;
333.9000;0.6593;1.0263;
334.2000;0.6618;1.0286;
334.5000;0.6602;1.0286;
334.8000;0.6618;1.0333;
335.1000;0.6585;1.0240;
335.4000;0.6602;1.0309;
335.7000;0.6610;1.0309;
336.0000;0.6667;1.0449;
336.3000;0.6602;1.0240;
336.6000;0.6610;1.0193;
336.9000;0.6593;1.0240;
337.2000;0.6593;1.0193;
337.5000;0.6602;1.0240;
337.8000;0.6626;1.0217;
338.1000;0.6610;1.0309;
338.4000;0.6610;1.0333;
338.7000;0.6626;1.0356;
339.0000;0.6618;1.0309;
339.3000;0.6642;1.0286;
339.6000;0.6618;1.0263;
339.9000;0.6618;1.0240;
340.2000;0.6618;1.0217;
340.5000;0.6618;1.0240;
340.8000;0.6602;1.0217;
341.1000;0.6618;1.0240;
341.4000;0.6553;1.0077;
341.7000;0.6610;1.0240;
342.0000;0.6602;1.0263;
342.3000;0.6602;1.0240;
342.6000;0.6610;1.0193;
342.9000;0.6610;1.0193;
343.2000;0.6634;1.0286;
343.5000;0.6716;1.0495;
343.8000;0.6610;1.0240;
344.1000;0.6602;1.0193;
344.4000;0.6610;1.0217;
344.7000;0.6569;1.0170;
345.0000;0.6593;1.0263;
345.3000;0.6675;1.0518;
345.6000;0.6602;1.0356;
345.9000;0.6610;1.0333;
346.2000;0.6618;1.0449;
346.5000;0.6610;1.0518;
346.8000;0.6626;1.0518;
347.1000;0.6610;1.0565;
347.4000;0.6618;1.0588;
347.7000;0.6577;1.0495;
348.0000;0.6610;1.0495;
348.3000;0.6488;1.0147;
348.6000;0.6610;1.0425;
348.9000;0.6593;1.0286;
349.2000;0.6593;1.0263;
349.5000;0.6626;1.0333;
349.8000;0.6626;1.0425;
350.1000;0.6585;1.0356;
350.4000;0.6748;1.0751;
350.7000;0.6626;1.0472;
351.0000;0.6610;1.0472;
351.3000;0.6642;1.0588;
351.6000;0.6577;1.0425;
351.9000;0.6618;1.0518;
352.2000;0.6626;1.0588;
352.5000;0.6618;1.0658;
352.8000;0.6634;1.0727;
353.1000;0.6634;1.0797;
353.4000;0.6553;1.0634;
353.7000;0.6585;1.0634;
354.0000;0.6650;1.0681;
354.3000;0.6642;1.0588;
354.6000;0.6634;1.0518;
354.9000;0.6593;1.0425;
355.2000;0.6659;1.0542;
355.5000;0.6602;1.0402;
355.8000;0.6610;1.0379;
356.1000;0.6569;1.0379;
356.4000;0.6602;1.0449;
356.7000;0.6634;1.0542;
357.0000;0.6610;1.0588;
357.3000;0.6569;1.0495;
357.6000;0.6610;1.0518;
357.9000;0.6561;1.0402;
358.2000;0.6593;1.0472;
358.5000;0.6602;1.0402;
358.8000;0.6610;1.0379;
359.1000;0.6642;1.0356;
359.4000;0.6626;1.0240;
359.7000;0.6618;1.0217;
360.0000;0.6618;1.0240;
360.3000;0.6602;1.0263;
360.6000;0.6610;1.0240;
360.9000;0.6561;1.0147;
361.2000;0.6602;1.0402;
361.5000;0.6602;1.0472;
361.8000;0.6610;1.0542;
362.1000;0.6650;1.0611;
362.4000;0.6585;1.0542;
362.7000;0.6593;1.0495;
363.0000;0.6602;1.0565;
363.3000;0.6724;1.0843;
363.6000;0.6626;1.0634;
363.9000;0.6610;1.0634;
364.2000;0.6659;1.0820;
364.5000;0.6618;1.0704;
364.8000;0.6618;1.0611;
365.1000;0.6618;1.0588;
365.4000;0.6642;1.0611;
365.7000;0.6626;1.0565;
366.0000;0.6626;1.0518;
366.3000;0.6626;1.0565;
366.6000;0.6610;1.0449;
366.9000;0.6642;1.0449;
367.2000;0.6618;1.0425;
367.5000;0.6634;1.0518;
367.8000;0.6561;1.0379;
368.1000;0.6593;1.0472;
368.4000;0.6634;1.0495;
368.7000;0.6732;1.0727;
369.0000;0.6553;1.0425;
369.3000;0.6618;1.0495;
369.6000;0.6683;1.0588;
369.9000;0.6545;1.0356;
370.2000;0.6618;1.0425;
370.5000;0.6626;1.0263;
370.8000;0.6553;1.0077;
371.1000;0.6610;1.0263;
371.4000;0.6610;1.0309;
371.7000;0.6561;1.0193;
372.0000;0.6602;1.0425;
372.3000;0.6593;1.0402;
372.6000;0.6520;1.0333;
372.9000;0.6585;1.0425;
373.2000;0.6593;1.0309;
373.5000;0.6610;1.0356;
373.8000;0.6602;1.0309;
374.1000;0.6602;1.0309;
374.4000;0.6626;1.0333;
374.7000;0.6610;1.0333;
375.0000;0.6618;1.0402;
375.3000;0.6618;1.0425;
375.6000;0.6602;1.0356;
375.9000;0.6618;1.0356;
376.2000;0.6618;1.0356;
376.5000;0.6593;1.0217;
376.8000;0.6593;1.0217;
377.1000;0.6602;1.0286;
377.4000;0.6496;1.0008;
377.7000;0.6585;1.0170;
378.0000;0.6610;1.0286;
378.3000;0.6650;1.0425;
378.6000;0.6610;1.0356;
378.9000;0.6593;1.0425;
379.2000;0.6602;1.0495;
379.5000;0.6610;1.0542;
379.8000;0.6626;1.0542;
380.1000;0.6577;1.0472;
380.4000;0.6602;1.0425;
380.7000;0.6610;1.0379;
381.0000;0.6610;1.0379;
381.3000;0.6610;1.0402;
381.6000;0.6610;1.0379;
381.9000;0.6610;1.0402;
382.2000;0.6569;1.0193;
382.5000;0.6593;1.0240;
382.8000;0.6610;1.0240;
383.1000;0.6602;1.0217;
383.4000;0.6602;1.0193;
383.7000;0.6626;1.0263;
384.0000;0.6610;1.0356;
384.3000;0.6610;1.0379;
384.6000;0.6593;1.0472;
384.9000;0.6626;1.0425;
385.2000;0.6626;1.0472;
385.5000;0.6618;1.0402;
385.8000;0.6618;1.0402;
386.1000;0.6610;1.0333;
386.4000;0.6610;1.0240;
386.7000;0.6634;1.0170;
387.0000;0.6618;1.0124;
387.3000;0.6602;1.0147;
387.6000;0.6610;1.0217;
387.9000;0.6634;1.0217;
388.2000;0.6593;1.0217;
388.5000;0.6602;1.0240;
388.8000;0.6577;1.0100;
389.1000;0.6610;1.0170;
389.4000;0.6610;1.0217;
389.7000;0.6610;1.0170;
390.0000;0.6626;1.0240;
390.3000;0.6626;1.0217;
390.6000;0.6610;1.0263;
390.9000;0.6610;1.0286;
391.2000;0.6626;1.0402;
391.5000;0.6610;1.0240;
391.8000;0.6642;1.0356;
392.1000;0.6577;1.0263;
392.4000;0.6593;1.0286;
392.7000;0.6626;1.0333;
393.0000;0.6577;1.0240;
393.3000;0.6602;1.0286;
393.6000;0.6602;1.0286;
393.9000;0.6626;1.0217;
394.2000;0.6618;1.0124;
394.5000;0.6577;0.9938;
394.8000;0.6593;1.0077;
395.1000;0.6602;1.0147;
395.4000;0.6618;1.0170;
395.7000;0.6561;1.0100;
396.0000;0.6577;1.0124;
396.3000;0.6504;0.9961;
396.6000;0.6602;1.0193;
396.9000;0.6569;1.0077;
397.2000;0.6577;1.0170;
397.5000;0.6593;1.0309;
397.8000;0.6650;1.0425;
398.1000;0.6585;1.0333;
398.4000;0.6634;1.0356;
398.7000;0.6577;1.0263;
399.0000;0.6585;1.0240;
399.3000;0.6618;1.0263;
399.6000;0.6577;1.0170;
399.9000;0.6593;1.0217;
400.2000;0.6610;1.0124;
400.5000;0.6610;1.0147;
400.8000;0.6602;1.0124;
401.1000;0.6610;1.0240;
401.4000;0.6602;1.0309;
401.7000;0.6618;1.0286;
402.0000;0.6569;1.0147;
402.3000;0.6610;1.0286;
402.6000;0.6602;1.0286;
402.9000;0.6593;1.0263;
403.2000;0.6602;1.0286;
403.5000;0.6561;1.0170;
403.8000;0.6593;1.0193;
404.1000;0.6610;1.0217;
404.4000;0.6593;1.0147;
404.7000;0.6602;1.0170;
405.0000;0.6602;1.0124;
405.3000;0.6610;1.0240;
405.6000;0.6602;1.0240;
405.9000;0.6602;1.0240;
406.2000;0.6602;1.0309;
406.5000;0.6593;1.0193;
406.8000;0.6593;1.0240;
407.1000;0.6593;1.0240;
407.4000;0.6593;1.0309;
407.7000;0.6610;1.0402;
408.0000;0.6618;1.0356;
408.3000;0.6602;1.0402;
408.6000;0.6602;1.0379;
408.9000;0.6618;1.0402;
409.2000;0.6585;1.0425;
409.5000;0.6618;1.0472;
409.8000;0.6618;1.0356;
410.1000;0.6602;1.0217;
410.4000;0.6610;1.0286;
410.7000;0.6626;1.0402;
411.0000;0.6618;1.0495;
411.3000;0.6610;1.0472;
411.6000;0.6626;1.0542;
411.9000;0.6618;1.0402;
412.2000;0.6610;1.0309;
412.5000;0.6602;1.0263;
412.8000;0.6561;1.0240;
413.1000;0.6626;1.0402;
413.4000;0.6593;1.0379;
413.7000;0.6610;1.0472;
414.0000;0.6602;1.0495;
414.3000;0.6569;1.0449;
414.6000;0.6585;1.0565;
414.9000;0.6610;1.0658;
415.2000;0.6593;1.0634;
415.5000;0.6659;1.0727;
415.8000;0.6602;1.0634;
416.1000;0.6610;1.0588;
416.4000;0.6602;1.0449;
416.7000;0.6536;1.0286;
417.0000;0.6602;1.0518;
417.3000;0.6593;1.0495;
417.6000;0.6553;1.0449;
417.9000;0.6593;1.0565;
418.2000;0.6593;1.0611;
418.5000;0.6618;1.0704;
418.8000;0.6585;1.0658;
419.1000;0.6593;1.0588;
419.4000;0.6618;1.0588;
419.7000;0.6496;1.0286;
420.0000;0.6602;1.0449;
420.3000;0.6593;1.0309;
420.6000;0.6610;1.0193;
420.9000;0.6618;1.0193;
421.2000;0.6593;1.0124;
421.5000;0.6650;1.0217;
421.8000;0.6610;1.0147;
422.1000;0.6618;1.0170;
422.4000;0.6626;1.0147;
422.7000;0.6610;1.0193;
423.0000;0.6561;1.0217;
423.3000;0.6585;1.0402;
423.6000;0.6618;1.0402;
423.9000;0.6602;1.0356;
424.2000;0.6602;1.0356;
424.5000;0.6553;1.0263;
424.8000;0.6602;1.0402;
425.1000;0.6593;1.0495;
425.4000;0.6602;1.0425;
425.7000;0.6610;1.0495;
426.0000;0.6626;1.0472;
426.3000;0.6610;1.0495;
426.6000;0.6610;1.0542;
426.9000;0.6602;1.0518;
427.2000;0.6602;1.0542;
427.5000;0.6593;1.0542;
427.8000;0.6593;1.0565;
428.1000;0.6593;1.0518;
428.4000;0.6634;1.0542;
428.7000;0.6610;1.0472;
429.0000;0.6602;1.0495;
429.3000;0.6569;1.0472;
429.6000;0.6593;1.0565;
429.9000;0.6610;1.0542;
430.2000;0.6602;1.0611;
430.5000;0.6602;1.0611;
430.8000;0.6610;1.0588;
431.1000;0.6610;1.0565;
431.4000;0.6610;1.0542;
431.7000;0.6602;1.0611;
432.0000;0.6610;1.0518;
432.3000;0.6593;1.0495;
432.6000;0.6626;1.0449;
432.9000;0.6593;1.0356;
433.2000;0.6593;1.0379;
433.5000;0.6634;1.0472;
433.8000;0.6610;1.0472;
434.1000;0.6602;1.0565;
434.4000;0.6593;1.0634;
434.7000;0.6593;1.0751;
435.0000;0.6602;1.0751;
435.3000;0.6585;1.0681;
435.6000;0.6593;1.0588;
435.9000;0.6602;1.0611;
436.2000;0.6593;1.0681;
436.5000;0.6602;1.0588;
436.8000;0.6593;1.0565;
437.1000;0.6593;1.0518;
437.4000;0.6610;1.0402;
437.7000;0.6650;1.0542;
438.0000;0.6610;1.0542;
438.3000;0.6593;1.0634;
438.6000;0.6602;1.0658;
438.9000;0.6585;1.0611;
439.2000;0.6593;1.0611;
439.5000;0.6553;1.0565;
439.8000;0.6626;1.0658;
440.1000;0.6618;1.0588;
440.4000;0.6634;1.0634;
440.7000;0.6602;1.0542;
441.0000;0.6732;1.0843;
441.3000;0.6610;1.0472;
441.6000;0.6618;1.0565;
441.9000;0.6602;1.0518;
442.2000;0.6528;1.0333;
442.5000;0.6496;1.0217;
442.8000;0.6610;1.0518;
443.1000;0.6593;1.0518;
443.4000;0.6610;1.0611;
443.7000;0.6545;1.0472;
444.0000;0.6602;1.0704;
444.3000;0.6585;1.0681;
444.6000;0.6569;1.0634;
444.9000;0.6569;1.0565;
445.2000;0.6585;1.0565;
445.5000;0.6593;1.0542;
445.8000;0.6593;1.0495;
446.1000;0.6602;1.0565;
446.4000;0.6602;1.0542;
446.7000;0.6618;1.0518;
447.0000;0.6496;1.0263;
447.3000;0.6610;1.0542;
447.6000;0.6642;1.0588;
447.9000;0.6602;1.0565;
448.2000;0.6610;1.0565;
448.5000;0.6585;1.0518;
448.8000;0.6602;1.0542;
449.1000;0.6610;1.0495;
449.4000;0.6569;1.0495;
449.7000;0.6602;1.0565;
450.0000;0.6593;1.0472;
450.3000;0.6610;1.0542;
450.6000;0.6585;1.0402;
450.9000;0.6585;1.0425;
451.2000;0.6585;1.0495;
451.5000;0.6618;1.0472;
451.8000;0.6610;1.0356;
452.1000;0.6585;1.0425;
452.4000;0.6602;1.0472;
452.7000;0.6602;1.0449;
453.0000;0.6610;1.0472;
453.3000;0.6561;1.0356;
453.6000;0.6585;1.0356;
453.9000;0.6634;1.0542;
454.2000;0.6602;1.0495;
454.5000;0.6618;1.0588;
454.8000;0.6585;1.0449;
455.1000;0.6536;1.0124;
455.4000;0.6602;1.0309;
455.7000;0.6610;1.0402;
456.0000;0.6626;1.0449;
456.3000;0.6610;1.0542;
456.6000;0.6634;1.0611;
456.9000;0.6610;1.0611;
457.2000;0.6618;1.0518;
457.5000;0.6634;1.0495;
457.8000;0.6602;1.0402;
458.1000;0.6602;1.0333;
458.4000;0.6602;1.0240;
458.7000;0.6593;1.0170;
459.0000;0.6602;1.0356;
459.3000;0.6569;1.0356;
459.6000;0.6602;1.0425;
459.9000;0.6602;1.0472;
460.2000;0.6618;1.0425;
460.5000;0.6602;1.0425;
460.8000;0.6610;1.0449;
461.1000;0.6675;1.0588;
461.4000;0.6667;1.0658;
461.7000;0.6610;1.0611;
462.0000;0.6610;1.0611;
462.3000;0.6618;1.0588;
462.6000;0.6593;1.0518;
462.9000;0.6602;1.0542;
463.2000;0.6593;1.0542;
463.5000;0.6593;1.0518;
463.8000;0.6585;1.0495;
464.1000;0.6585;1.0542;
464.4000;0.6553;1.0449;
464.7000;0.6602;1.0472;
465.0000;0.6569;1.0449;
465.3000;0.6593;1.0495;
465.6000;0.6593;1.0472;
465.9000;0.6569;1.0425;
466.2000;0.6634;1.0542;
466.5000;0.6610;1.0495;
466.8000;0.6675;1.0472;
467.1000;0.6585;1.0286;
467.4000;0.6610;1.0333;
467.7000;0.6585;1.0286;
468.0000;0.6577;1.0217;
468.3000;0.6602;1.0170;
468.6000;0.6528;1.0077;
468.9000;0.6593;1.0263;
469.2000;0.6545;1.0124;
469.5000;0.6593;1.0263;
469.8000;0.6593;1.0263;
470.1000;0.6569;1.0240;
470.4000;0.6585;1.0309;
470.7000;0.6593;1.0402;
471.0000;0.6577;1.0379;
471.3000;0.6610;1.0425;
471.6000;0.6528;1.0263;
471.9000;0.6536;1.0263;
472.2000;0.6585;1.0425;
472.5000;0.6569;1.0449;
472.8000;0.6577;1.0402;
473.1000;0.6528;1.0356;
473.4000;0.6602;1.0565;
473.7000;0.6585;1.0542;
474.0000;0.6602;1.0611;
474.3000;0.6610;1.0681;
474.6000;0.6602;1.0658;
474.9000;0.6577;1.0542;
475.2000;0.6577;1.0611;
475.5000;0.6585;1.0611;
475.8000;0.6561;1.0472;
476.1000;0.6569;1.0542;
476.4000;0.6626;1.0634;
476.7000;0.6659;1.0774;
477.0000;0.6593;1.0611;
477.3000;0.6602;1.0658;
477.6000;0.6610;1.0658;
477.9000;0.6593;1.0588;
478.2000;0.6553;1.0495;
478.5000;0.6577;1.0565;
478.8000;0.6585;1.0542;
479.1000;0.6553;1.0449;
479.4000;0.6585;1.0542;
479.7000;0.6585;1.0518;
480.0000;0.6602;1.0495;
480.3000;0.6593;1.0518;
480.6000;0.6585;1.0542;
480.9000;0.6610;1.0565;
481.2000;0.6593;1.0495;
481.5000;0.6593;1.0449;
481.8000;0.6610;1.0495;
482.1000;0.6610;1.0542;
482.4000;0.6602;1.0495;
482.7000;0.6585;1.0472;
483.0000;0.6610;1.0542;
483.3000;0.6585;1.0542;
483.6000;0.6610;1.0588;
483.9000;0.6593;1.0518;
484.2000;0.6602;1.0634;
484.5000;0.6602;1.0611;
484.8000;0.6602;1.0588;
485.1000;0.6618;1.0611;
485.4000;0.6691;1.0797;
485.7000;0.6577;1.0565;
486.0000;0.6618;1.0681;
486.3000;0.6577;1.0542;
486.6000;0.6634;1.0634;
486.9000;0.6650;1.0681;
487.2000;0.6667;1.0658;
487.5000;0.6675;1.0611;
487.8000;0.6602;1.0449;
488.1000;0.6593;1.0402;
488.4000;0.6545;1.0356;
488.7000;0.6650;1.0634;
489.0000;0.6659;1.0658;
489.3000;0.6593;1.0588;
489.6000;0.6642;1.0774;
489.9000;0.6585;1.0658;
490.2000;0.6520;1.0565;
490.5000;0.6602;1.0658;
490.8000;0.6585;1.0634;
491.1000;0.6593;1.0634;
491.4000;0.6634;1.0774;
491.7000;0.6593;1.0727;
492.0000;0.6602;1.0704;
492.3000;0.6602;1.0565;
492.6000;0.6626;1.0542;
492.9000;0.6585;1.0495;
493.2000;0.6602;1.0518;
493.5000;0.6675;1.0634;
493.8000;0.6593;1.0379;
494.1000;0.6569;1.0379;
494.4000;0.6585;1.0425;
494.7000;0.6593;1.0425;
495.0000;0.6602;1.0449;
495.3000;0.6561;1.0449;
495.6000;0.6585;1.0565;
495.9000;0.6577;1.0472;
496.2000;0.6610;1.0495;
496.5000;0.6577;1.0542;
496.8000;0.6585;1.0425;
497.1000;0.6585;1.0379;
497.4000;0.6602;1.0402;
497.7000;0.6593;1.0402;
498.0000;0.6602;1.0542;
498.3000;0.6577;1.0472;
498.6000;0.6602;1.0495;
498.9000;0.6593;1.0518;
499.2000;0.6585;1.0402;
499.5000;0.6602;1.0425;
499.8000;0.6593;1.0495;
500.1000;0.6602;1.0472;
500.4000;0.6610;1.0379;
500.7000;0.6585;1.0402;
501.0000;0.6577;1.0472;
501.3000;0.6593;1.0565;
501.6000;0.6602;1.0542;
501.9000;0.6602;1.0449;
502.2000;0.6585;1.0472;
502.5000;0.6618;1.0449;
502.8000;0.6618;1.0472;
503.1000;0.6585;1.0379;
503.4000;0.6593;1.0263;
503.7000;0.6593;1.0240;
504.0000;0.6593;1.0309;
504.3000;0.6585;1.0263;
504.6000;0.6577;1.0309;
504.9000;0.6585;1.0333;
505.2000;0.6577;1.0356;
505.5000;0.6602;1.0333;
505.8000;0.6593;1.0263;
506.1000;0.6602;1.0147;
506.4000;0.6618;1.0147;
506.7000;0.6626;1.0193;
507.0000;0.6650;1.0333;
507.3000;0.6602;1.0402;
507.6000;0.6610;1.0518;
507.9000;0.6602;1.0542;
508.2000;0.6610;1.0588;
508.5000;0.6593;1.0588;
508.8000;0.6675;1.0681;
509.1000;0.6610;1.0495;
509.4000;0.6553;1.0333;
509.7000;0.6536;1.0240;
510.0000;0.6626;1.0542;
510.3000;0.6626;1.0518;
510.6000;0.6512;1.0333;
510.9000;0.6585;1.0518;
511.2000;0.6593;1.0565;
511.5000;0.6593;1.0565;
511.8000;0.6569;1.0518;
512.1000;0.6642;1.0751;
512.4000;0.6569;1.0565;
512.7000;0.6593;1.0658;
513.0000;0.6691;1.0774;
513.3000;0.6602;1.0588;
513.6000;0.6577;1.0565;
513.9000;0.6561;1.0495;
514.2000;0.6610;1.0518;
514.5000;0.6585;1.0472;
514.8000;0.6569;1.0565;
515.1000;0.6593;1.0634;
515.4000;0.6593;1.0634;
515.7000;0.6585;1.0634;
516.0000;0.6602;1.0774;
516.3000;0.6585;1.0634;
516.6000;0.6667;1.0681;
516.9000;0.6577;1.0449;
517.2000;0.6577;1.0356;
517.5000;0.6585;1.0309;
517.8000;0.6569;1.0170;
518.1000;0.6593;1.0217;
518.4000;0.6536;1.0031;
518.7000;0.6610;1.0240;
519.0000;0.6593;1.0240;
519.3000;0.6610;1.0217;
519.6000;0.6585;1.0240;
519.9000;0.6585;1.0263;
520.2000;0.6602;1.0333;
520.5000;0.6593;1.0356;
520.8000;0.6593;1.0402;
521.1000;0.6577;1.0379;
521.4000;0.6593;1.0402;
521.7000;0.6602;1.0495;
522.0000;0.6585;1.0379;
522.3000;0.6577;1.0379;
522.6000;0.6593;1.0425;
522.9000;0.6585;1.0402;
523.2000;0.6610;1.0565;
523.5000;0.6569;1.0588;
523.8000;0.6642;1.0681;
524.1000;0.6577;1.0472;
524.4000;0.6602;1.0495;
524.7000;0.6642;1.0588;
525.0000;0.6569;1.0379;
525.3000;0.6593;1.0379;
525.6000;0.6577;1.0449;
525.9000;0.6593;1.0542;
526.2000;0.6577;1.0379;
526.5000;0.6553;1.0309;
526.8000;0.6577;1.0356;
527.1000;0.6593;1.0333;
527.4000;0.6585;1.0333;
527.7000;0.6577;1.0309;
528.0000;0.6593;1.0379;
528.3000;0.6618;1.0425;
528.6000;0.6585;1.0402;
528.9000;0.6602;1.0379;
529.2000;0.6593;1.0425;
529.5000;0.6577;1.0425;
529.8000;0.6618;1.0518;
530.1000;0.6593;1.0472;
530.4000;0.6577;1.0425;
530.7000;0.6610;1.0449;
531.0000;0.6585;1.0309;
531.3000;0.6593;1.0263;
531.6000;0.6618;1.0333;
531.9000;0.6504;1.0077;
532.2000;0.6610;1.0333;
532.5000;0.6602;1.0356;
532.8000;0.6553;1.0333;
533.1000;0.6585;1.0449;
533.4000;0.6691;1.0727;
533.7000;0.6618;1.0518;
534.0000;0.6585;1.0425;
534.3000;0.6569;1.0425;
534.6000;0.6545;1.0356;
534.9000;0.6610;1.0518;
535.2000;0.6593;1.0495;
535.5000;0.6585;1.0518;
535.8000;0.6602;1.0518;
536.1000;0.6585;1.0425;
536.4000;0.6585;1.0425;
536.7000;0.6585;1.0402;
537.0000;0.6561;1.0240;
537.3000;0.6610;1.0356;
537.6000;0.6577;1.0286;
537.9000;0.6585;1.0402;
538.2000;0.6585;1.0402;
538.5000;0.6610;1.0495;
538.8000;0.6618;1.0495;
539.1000;0.6593;1.0449;
539.4000;0.6683;1.0658;
539.7000;0.6610;1.0565;
540.0000;0.6536;1.0309;
540.3000;0.6577;1.0356;
540.6000;0.6634;1.0495;
540.9000;0.6585;1.0472;
541.2000;0.6545;1.0333;
541.5000;0.6585;1.0542;
541.8000;0.6553;1.0565;
542.1000;0.6577;1.0565;
542.4000;0.6634;1.0704;
542.7000;0.6577;1.0565;
543.0000;0.6569;1.0518;
543.3000;0.6577;1.0542;
543.6000;0.6577;1.0634;
543.9000;0.6585;1.0658;
544.2000;0.6593;1.0588;
544.5000;0.6593;1.0565;
544.8000;0.6602;1.0518;
545.1000;0.6593;1.0518;
545.4000;0.6610;1.0565;
545.7000;0.6585;1.0495;
546.0000;0.6602;1.0542;
546.3000;0.6610;1.0565;
546.6000;0.6593;1.0611;
546.9000;0.6569;1.0565;
547.2000;0.6593;1.0565;
547.5000;0.6602;1.0495;
547.8000;0.6561;1.0333;
548.1000;0.6593;1.0402;
548.4000;0.6577;1.0495;
548.7000;0.6553;1.0402;
549.0000;0.6659;1.0658;
549.3000;0.6659;1.0634;
549.6000;0.6602;1.0588;
549.9000;0.6593;1.0611;
550.2000;0.6602;1.0704;
550.5000;0.6602;1.0774;
550.8000;0.6634;1.0890;
551.1000;0.6577;1.0751;
551.4000;0.6593;1.0727;
551.7000;0.6626;1.0774;
552.0000;0.6577;1.0681;
552.3000;0.6561;1.0611;
552.6000;0.6593;1.0542;
552.9000;0.6488;1.0333;
553.2000;0.6593;1.0611;
553.5000;0.6577;1.0658;
553.8000;0.6577;1.0634;
554.1000;0.6593;1.0704;
554.4000;0.6569;1.0588;
554.7000;0.6618;1.0727;
555.0000;0.6610;1.0704;
555.3000;0.6610;1.0704;
555.6000;0.6626;1.0704;
555.9000;0.6585;1.0634;
556.2000;0.6593;1.0681;
556.5000;0.6528;1.0634;
556.8000;0.6618;1.0867;
557.1000;0.6650;1.0843;
557.4000;0.6585;1.0588;
557.7000;0.6593;1.0774;
558.0000;0.6626;1.0867;
558.3000;0.6585;1.0774;
558.6000;0.6585;1.0727;
558.9000;0.6561;1.0634;
559.2000;0.6577;1.0681;
559.5000;0.6577;1.0751;
559.8000;0.6569;1.0751;
560.1000;0.6593;1.0797;
560.4000;0.6593;1.0751;
560.7000;0.6602;1.0681;
561.0000;0.6618;1.0634;
561.3000;0.6561;1.0565;
561.6000;0.6585;1.0588;
561.9000;0.6577;1.0542;
562.2000;0.6585;1.0542;
562.5000;0.6593;1.0565;
562.8000;0.6585;1.0611;
563.1000;0.6593;1.0704;
563.4000;0.6561;1.0542;
563.7000;0.6577;1.0518;
564.0000;0.6585;1.0472;
564.3000;0.6585;1.0472;
564.6000;0.6593;1.0379;
564.9000;0.6569;1.0379;
565.2000;0.6569;1.0449;
565.5000;0.6593;1.0379;
565.8000;0.6593;1.0402;
566.1000;0.6569;1.0402;
566.4000;0.6593;1.0425;
566.7000;0.6577;1.0356;
567.0000;0.6593;1.0333;
567.3000;0.6585;1.0263;
567.6000;0.6561;1.0379;
567.9000;0.6602;1.0565;
568.2000;0.6577;1.0542;
568.5000;0.6569;1.0425;
568.8000;0.6593;1.0518;
569.1000;0.6577;1.0495;
569.4000;0.6577;1.0472;
569.7000;0.6585;1.0425;
570.0000;0.6545;1.0240;
570.3000;0.6593;1.0402;
570.6000;0.6593;1.0425;
570.9000;0.6577;1.0425;
571.2000;0.6577;1.0449;
571.5000;0.6585;1.0495;
571.8000;0.6577;1.0425;
572.1000;0.6585;1.0449;
572.4000;0.6577;1.0518;
572.7000;0.6504;1.0356;
573.0000;0.6593;1.0565;
573.3000;0.6577;1.0588;
573.6000;0.6577;1.0611;
573.9000;0.6642;1.0820;
574.2000;0.6577;1.0751;
574.5000;0.6585;1.0727;
574.8000;0.6577;1.0704;
575.1000;0.6569;1.0681;
575.4000;0.6577;1.0658;
575.7000;0.6577;1.0565;
576.0000;0.6602;1.0588;
576.3000;0.6618;1.0611;
576.6000;0.6569;1.0472;
576.9000;0.6593;1.0588;
577.2000;0.6593;1.0611;
577.5000;0.6585;1.0611;
577.8000;0.6577;1.0565;
578.1000;0.6602;1.0658;
578.4000;0.6593;1.0565;
578.7000;0.6569;1.0542;
579.0000;0.6618;1.0565;
579.3000;0.6536;1.0472;
579.6000;0.6593;1.0658;
579.9000;0.6585;1.0727;
580.2000;0.6545;1.0658;
580.5000;0.6585;1.0704;
580.8000;0.6569;1.0681;
581.1000;0.6577;1.0565;
581.4000;0.6561;1.0588;
581.7000;0.6585;1.0611;
582.0000;0.6667;1.0797;
582.3000;0.6577;1.0518;
582.6000;0.6569;1.0425;
582.9000;0.6602;1.0565;
583.2000;0.6610;1.0634;
583.5000;0.6602;1.0704;
583.8000;0.6545;1.0518;
584.1000;0.6642;1.0704;
584.4000;0.6585;1.0449;
584.7000;0.6585;1.0402;
585.0000;0.6585;1.0495;
585.3000;0.6585;1.0542;
585.6000;0.6610;1.0449;
585.9000;0.6577;1.0425;
586.2000;0.6593;1.0518;
586.5000;0.6585;1.0542;
586.8000;0.6577;1.0518;
587.1000;0.6512;1.0402;
587.4000;0.6520;1.0379;
587.7000;0.6585;1.0449;
588.0000;0.6561;1.0263;
588.3000;0.6577;1.0286;
588.6000;0.6593;1.0309;
588.9000;0.6553;1.0240;
589.2000;0.6577;1.0286;
589.5000;0.6585;1.0379;
589.8000;0.6602;1.0402;
590.1000;0.6561;1.0449;
590.4000;0.6545;1.0449;
590.7000;0.6602;1.0634;
591.0000;0.6585;1.0542;
591.3000;0.6569;1.0425;
591.6000;0.6585;1.0495;
591.9000;0.6585;1.0542;
592.2000;0.6593;1.0449;
592.5000;0.6593;1.0402;
592.8000;0.6577;1.0356;
593.1000;0.6569;1.0379;
593.4000;0.6650;1.0495;
593.7000;0.6577;1.0286;
594.0000;0.6577;1.0263;
594.3000;0.6577;1.0333;
594.6000;0.6577;1.0425;
594.9000;0.6520;1.0356;
595.2000;0.6585;1.0611;
595.5000;0.6585;1.0634;
595.8000;0.6602;1.0588;
596.1000;0.6553;1.0565;
596.4000;0.6577;1.0611;
596.7000;0.6585;1.0658;
597.0000;0.6585;1.0658;
597.3000;0.6577;1.0681;
597.6000;0.6593;1.0704;
597.9000;0.6585;1.0704;
598.2000;0.6585;1.0634;
598.5000;0.6602;1.0658;
598.8000;0.6585;1.0658;
599.1000;0.6602;1.0634;
599.4000;0.6593;1.0634;
599.7000;0.6593;1.0634;
600.0000;0.6610;1.0588;
600.3000;0.6602;1.0588;
600.6000;0.6593;1.0425;
600.9000;0.6626;1.0449;
601.2000;0.6593;1.0402;
601.5000;0.6675;1.0518;
601.8000;0.6626;1.0333;
602.1000;0.6520;0.9915;
602.4000;0.6431;0.9566;
602.7000;0.6374;0.9357;
603.0000;0.6382;0.9241;
603.3000;0.6414;0.9241;
603.6000;0.6349;0.9148;
603.9000;0.6284;0.8986;
604.2000;0.6252;0.8870;
604.5000;0.6276;0.8916;
604.8000;0.6227;0.8823;
605.1000;0.6211;0.8800;
605.4000;0.6170;0.8707;
605.7000;0.6121;0.8730;
606.0000;0.6089;0.8591;
606.3000;0.6064;0.8545;
606.6000;0.5975;0.8452;
606.9000;0.6056;0.8684;
607.2000;0.6024;0.8591;
607.5000;0.5942;0.8289;
607.8000;0.5983;0.8405;
608.1000;0.6064;0.8707;
608.4000;0.6040;0.8638;
608.7000;0.5950;0.8452;
609.0000;0.5926;0.8382;
609.3000;0.5926;0.8614;
609.6000;0.5885;0.8591;
609.9000;0.5885;0.8405;
610.2000;0.5861;0.8359;
610.5000;0.5853;0.8336;
610.8000;0.5853;0.8313;
611.1000;0.5828;0.8266;
611.4000;0.5942;0.8475;
611.7000;0.5820;0.8104;
612.0000;0.5836;0.8173;
612.3000;0.5796;0.8011;
612.6000;0.5763;0.7987;
612.9000;0.5763;0.8080;
613.2000;0.5779;0.8104;
613.5000;0.5747;0.8080;
613.8000;0.5755;0.8034;
614.1000;0.5714;0.7895;
614.4000;0.5682;0.7778;
614.7000;0.5690;0.7778;
615.0000;0.5714;0.7709;
615.3000;0.5706;0.7778;
615.6000;0.5682;0.7802;
615.9000;0.5706;0.7755;
616.2000;0.5649;0.7686;
616.5000;0.5641;0.7755;
616.8000;0.5625;0.7802;
617.1000;0.5641;0.7825;
617.4000;0.5633;0.7802;
617.7000;0.5600;0.7848;
618.0000;0.5592;0.7802;
618.3000;0.5535;0.7593;
618.6000;0.5576;0.7709;
618.9000;0.5600;0.7778;
619.2000;0.5600;0.7825;
619.5000;0.5568;0.7755;
619.8000;0.5551;0.7662;
620.1000;0.5560;0.7616;
620.4000;0.5560;0.7662;
620.7000;0.5543;0.7639;
621.0000;0.5527;0.7686;
621.3000;0.5503;0.7616;
621.6000;0.5519;0.7755;
621.9000;0.5519;0.7732;
622.2000;0.5511;0.7755;
622.5000;0.5495;0.7732;
622.8000;0.5511;0.7732;
623.1000;0.5503;0.7778;
623.4000;0.5478;0.7593;
623.7000;0.5486;0.7755;
624.0000;0.5462;0.7848;
624.3000;0.5462;0.7848;
624.6000;0.5462;0.7918;
624.9000;0.5454;0.7918;
625.2000;0.5519;0.8080;
625.5000;0.5438;0.7918;
625.8000;0.5421;0.7918;
626.1000;0.5421;0.7895;
626.4000;0.5429;0.7848;
626.7000;0.5495;0.8011;
627.0000;0.5421;0.7825;
627.3000;0.5381;0.7732;
627.6000;0.5397;0.7778;
627.9000;0.5413;0.7871;
628.2000;0.5397;0.7802;
628.5000;0.5364;0.7848;
628.8000;0.5438;0.8057;
629.1000;0.5389;0.7964;
629.4000;0.5364;0.7895;
629.7000;0.5315;0.7732;
630.0000;0.5356;0.7709;
630.3000;0.5372;0.7662;
630.6000;0.5340;0.7523;
630.9000;0.5340;0.7593;
631.2000;0.5348;0.7686;
631.5000;0.5356;0.7616;
631.8000;0.5332;0.7593;
632.1000;0.5315;0.7593;
632.4000;0.5315;0.7755;
632.7000;0.5348;0.7778;
633.0000;0.5315;0.7802;
633.3000;0.5340;0.7941;
633.6000;0.5348;0.7871;
633.9000;0.5315;0.7732;
634.2000;0.5324;0.7802;
634.5000;0.5299;0.7709;
634.8000;0.5291;0.7662;
635.1000;0.5275;0.7686;
635.4000;0.5283;0.7825;
635.7000;0.5307;0.7895;
636.0000;0.5291;0.7895;
636.3000;0.5299;0.8034;
636.6000;0.5267;0.8011;
636.9000;0.5291;0.8011;
637.2000;0.5267;0.7918;
637.5000;0.5267;0.7918;
637.8000;0.5275;0.7825;
638.1000;0.5291;0.7848;
638.4000;0.5250;0.7825;
638.7000;0.5267;0.7871;
639.0000;0.5258;0.7918;
639.3000;0.5267;0.7895;
639.6000;0.5250;0.7848;
639.9000;0.5234;0.7825;
640.2000;0.5258;0.7802;
640.5000;0.5242;0.7871;
640.8000;0.5161;0.7709;
641.1000;0.5210;0.7848;
641.4000;0.5324;0.8080;
641.7000;0.5218;0.7848;
642.0000;0.5242;0.7825;
642.3000;0.5161;0.7593;
642.6000;0.5210;0.7778;
642.9000;0.5234;0.7802;
643.2000;0.5210;0.7732;
643.5000;0.5226;0.7732;
643.8000;0.5210;0.7755;
644.1000;0.5201;0.7755;
644.4000;0.5201;0.7778;
644.7000;0.5185;0.7732;
645.0000;0.5161;0.7778;
645.3000;0.5177;0.7802;
645.6000;0.5193;0.7709;
645.9000;0.5185;0.7732;
646.2000;0.5169;0.7732;
646.5000;0.5144;0.7570;
646.8000;0.5161;0.7686;
647.1000;0.5161;0.7732;
647.4000;0.5193;0.7802;
647.7000;0.5112;0.7686;
648.0000;0.5144;0.7825;
648.3000;0.5161;0.7964;
648.6000;0.5177;0.8011;
648.9000;0.5169;0.8034;
649.2000;0.5136;0.7895;
649.5000;0.5136;0.7871;
649.8000;0.5161;0.7848;
650.1000;0.5144;0.7755;
650.4000;0.5161;0.7802;
650.7000;0.5136;0.7709;
651.0000;0.5112;0.7639;
651.3000;0.5153;0.7732;
651.6000;0.5136;0.7732;
651.9000;0.5120;0.7639;
652.2000;0.5136;0.7662;
652.5000;0.5079;0.7546;
652.8000;0.5144;0.7686;
653.1000;0.5120;0.7639;
653.4000;0.5128;0.7616;
653.7000;0.5112;0.7593;
654.0000;0.5128;0.7593;
654.3000;0.5120;0.7616;
654.6000;0.5185;0.7871;
654.9000;0.5014;0.7407;
655.2000;0.5112;0.7639;
655.5000;0.5039;0.7500;
655.8000;0.5039;0.7500;
656.1000;0.5071;0.7639;
656.4000;0.5112;0.7732;
656.7000;0.5104;0.7662;
657.0000;0.5153;0.7755;
657.3000;0.5104;0.7662;
657.6000;0.5096;0.7593;
657.9000;0.5169;0.7639;
658.2000;0.5096;0.7477;
658.5000;0.5096;0.7546;
658.8000;0.5120;0.7662;
659.1000;0.5096;0.7639;
659.4000;0.5079;0.7686;
659.7000;0.5088;0.7686;
660.0000;0.5104;0.7755;
660.3000;0.5096;0.7778;
660.6000;0.5055;0.7616;
660.9000;0.5088;0.7662;
661.2000;0.5079;0.7616;
661.5000;0.5079;0.7616;
661.8000;0.5063;0.7546;
662.1000;0.5063;0.7523;
662.4000;0.5071;0.7686;
662.7000;0.5055;0.7570;
663.0000;0.5055;0.7639;
663.3000;0.5047;0.7686;
663.6000;0.5071;0.7732;
663.9000;0.5063;0.7778;
664.2000;0.5039;0.7709;
664.5000;0.5063;0.7778;
664.8000;0.5031;0.7732;
665.1000;0.5031;0.7686;
665.4000;0.5006;0.7523;
665.7000;0.5022;0.7523;
666.0000;0.5031;0.7593;
666.3000;0.5014;0.7523;
666.6000;0.5047;0.7546;
666.9000;0.5079;0.7616;
667.2000;0.5022;0.7546;
667.5000;0.5047;0.7616;
667.8000;0.5055;0.7570;
668.1000;0.4941;0.7361;
668.4000;0.5096;0.7825;
668.7000;0.5022;0.7778;
669.0000;0.5022;0.7848;
669.3000;0.5006;0.7755;
669.6000;0.5039;0.7848;
669.9000;0.5022;0.7778;
670.2000;0.5022;0.7662;
670.5000;0.5022;0.7662;
670.8000;0.5006;0.7709;
671.1000;0.4982;0.7686;
671.4000;0.4990;0.7686;
671.7000;0.5006;0.7616;
672.0000;0.4965;0.7500;
672.3000;0.4990;0.7546;
672.6000;0.5006;0.7662;
672.9000;0.4990;0.7709;
673.2000;0.4990;0.7686;
673.5000;0.4990;0.7639;
673.8000;0.4998;0.7686;
674.1000;0.5014;0.7755;
674.4000;0.5047;0.7895;
674.7000;0.4982;0.7686;
675.0000;0.4990;0.7662;
675.3000;0.5055;0.7755;
675.6000;0.4957;0.7477;
675.9000;0.4982;0.7546;
676.2000;0.4941;0.7430;
676.5000;0.4982;0.7500;
676.8000;0.4990;0.7477;
677.1000;0.5031;0.7616;
677.4000;0.4990;0.7570;
677.7000;0.4982;0.7546;
678.0000;0.4982;0.7616;
678.3000;0.4982;0.7523;
678.6000;0.4957;0.7361;
678.9000;0.4957;0.7314;
679.2000;0.4982;0.7337;
679.5000;0.4908;0.7175;
679.8000;0.4965;0.7314;
680.1000;0.4974;0.7337;
680.4000;0.4982;0.7430;
680.7000;0.4982;0.7407;
681.0000;0.4974;0.7500;
681.3000;0.4957;0.7477;
681.6000;0.4925;0.7337;
681.9000;0.5031;0.7732;
682.2000;0.4982;0.7686;
682.5000;0.4965;0.7732;
682.8000;0.4965;0.7732;
683.1000;0.4941;0.7709;
683.4000;0.4974;0.7778;
683.7000;0.4982;0.7802;
684.0000;0.4957;0.7662;
684.3000;0.4965;0.7709;
684.6000;0.4974;0.7686;
684.9000;0.4949;0.7639;
685.2000;0.4941;0.7686;
685.5000;0.4974;0.7732;
685.8000;0.4957;0.7686;
686.1000;0.4884;0.7453;
686.4000;0.4884;0.7453;
686.7000;0.4949;0.7453;
687.0000;0.4933;0.7500;
687.3000;0.4990;0.7593;
687.6000;0.4933;0.7593;
687.9000;0.4982;0.7686;
688.2000;0.4974;0.7732;
688.5000;0.4933;0.7686;
688.8000;0.4925;0.7802;
689.1000;0.4957;0.7895;
689.4000;0.4925;0.7755;
689.7000;0.4965;0.7825;
690.0000;0.4949;0.7709;
690.3000;0.4949;0.7778;
690.6000;0.4925;0.7662;
690.9000;0.4933;0.7686;
691.2000;0.4925;0.7709;
691.5000;0.4925;0.7709;
691.8000;0.4925;0.7616;
692.1000;0.4851;0.7523;
692.4000;0.4908;0.7639;
692.7000;0.4925;0.7732;
693.0000;0.4933;0.7709;
693.3000;0.4917;0.7639;
693.6000;0.4908;0.7570;
693.9000;0.4843;0.7337;
694.2000;0.4925;0.7616;
694.5000;0.4925;0.7639;
694.8000;0.4917;0.7662;
695.1000;0.4965;0.7825;
695.4000;0.4925;0.7755;
695.7000;0.4917;0.7778;
696.0000;0.4917;0.7802;
696.3000;0.4925;0.7755;
696.6000;0.4860;0.7662;
696.9000;0.4917;0.7778;
697.2000;0.4835;0.7546;
697.5000;0.4925;0.7732;
697.8000;0.4900;0.7570;
698.1000;0.4827;0.7407;
698.4000;0.4933;0.7616;
698.7000;0.4957;0.7662;
699.0000;0.4908;0.7709;
699.3000;0.4900;0.7802;
699.6000;0.4900;0.7848;
699.9000;0.4925;0.7802;
700.2000;0.4900;0.7778;
700.5000;0.4827;0.7616;
700.8000;0.4933;0.7802;
701.1000;0.4892;0.7709;
701.4000;0.4917;0.7825;
701.7000;0.4876;0.7802;
702.0000;0.4949;0.7987;
702.3000;0.4900;0.7918;
702.6000;0.4908;0.7941;
702.9000;0.4892;0.7918;
703.2000;0.4900;0.7825;
703.5000;0.4949;0.7895;
703.8000;0.4876;0.7709;
704.1000;0.4884;0.7732;
704.4000;0.4892;0.7686;
704.7000;0.4917;0.7755;
705.0000;0.4876;0.7662;
705.3000;0.4884;0.7755;
705.6000;0.4884;0.7802;
705.9000;0.4884;0.7825;
706.2000;0.4892;0.7802;
706.5000;0.4778;0.7546;
706.8000;0.4892;0.7802;
707.1000;0.4908;0.7802;
707.4000;0.4892;0.7755;
707.7000;0.4876;0.7871;
708.0000;0.4860;0.7848;
708.3000;0.4892;0.7871;
708.6000;0.4876;0.7802;
708.9000;0.4876;0.7778;
709.2000;0.4884;0.7755;
709.5000;0.4876;0.7709;
709.8000;0.4917;0.7918;
710.1000;0.4868;0.7778;
710.4000;0.4868;0.7848;
710.7000;0.4884;0.7941;
711.0000;0.4884;0.8011;
711.3000;0.4900;0.8057;
711.6000;0.4860;0.7964;
711.9000;0.4884;0.8011;
712.2000;0.4868;0.8057;
712.5000;0.4868;0.8057;
712.8000;0.4925;0.8196;
713.1000;0.4860;0.8127;
713.4000;0.4876;0.8127;
713.7000;0.4778;0.7871;
714.0000;0.4868;0.8057;
714.3000;0.4851;0.7941;
714.6000;0.4851;0.7987;
714.9000;0.4843;0.7964;
715.2000;0.4843;0.7895;
715.5000;0.4860;0.7895;
715.8000;0.4860;0.7987;
716.1000;0.4860;0.8080;
716.4000;0.4860;0.8080;
716.7000;0.4900;0.8220;
717.0000;0.4835;0.8011;
717.3000;0.4900;0.8150;
717.6000;0.4860;0.8034;
717.9000;0.4860;0.8104;
718.2000;0.4819;0.8080;
718.5000;0.4819;0.8127;
718.8000;0.4884;0.8266;
719.1000;0.4868;0.8196;
719.4000;0.4876;0.8150;
719.7000;0.4884;0.8104;
720.0000;0.4868;0.8173;
720.3000;0.4843;0.8011;
720.6000;0.4835;0.7964;
720.9000;0.4941;0.8173;
721.2000;0.4819;0.7895;
721.5000;0.4811;0.7778;
721.8000;0.4851;0.7871;
722.1000;0.4835;0.7871;
722.4000;0.4851;0.7941;
722.7000;0.4819;0.7871;
723.0000;0.4860;0.7987;
723.3000;0.4827;0.7848;
723.6000;0.4851;0.7895;
723.9000;0.4876;0.7941;
724.2000;0.4851;0.7825;
724.5000;0.4868;0.7871;
724.8000;0.4860;0.7918;
725.1000;0.4900;0.7987;
725.4000;0.4868;0.7871;
725.7000;0.4843;0.7825;
726.0000;0.4835;0.7755;
726.3000;0.4860;0.7778;
726.6000;0.4835;0.7616;
726.9000;0.4843;0.7686;
727.2000;0.4851;0.7755;
727.5000;0.4868;0.7639;
727.8000;0.4835;0.7709;
728.1000;0.4851;0.7802;
728.4000;0.4843;0.7825;
728.7000;0.4835;0.7871;
729.0000;0.4794;0.7709;
729.3000;0.4860;0.7895;
729.6000;0.4835;0.7825;
729.9000;0.4860;0.7918;
730.2000;0.4835;0.7825;
730.5000;0.4851;0.7895;
730.8000;0.4868;0.7895;
731.1000;0.4827;0.7895;
731.4000;0.4819;0.7918;
731.7000;0.4860;0.8011;
732.0000;0.4835;0.8011;
732.3000;0.4851;0.8057;
732.6000;0.4811;0.7895;
732.9000;0.4851;0.8011;
733.2000;0.4860;0.8034;
733.5000;0.4835;0.7941;
733.8000;0.4851;0.7918;
734.1000;0.4843;0.7848;
734.4000;0.4835;0.7848;
734.7000;0.4851;0.7918;
735.0000;0.4827;0.7895;
735.3000;0.4860;0.7941;
735.6000;0.4835;0.7918;
735.9000;0.4835;0.7941;
736.2000;0.4835;0.7941;
736.5000;0.4835;0.7941;
736.8000;0.4868;0.8034;
737.1000;0.4819;0.7871;
737.4000;0.4851;0.7987;
737.7000;0.4835;0.7941;
738.0000;0.4803;0.7848;
738.3000;0.4827;0.7941;
738.6000;0.4794;0.7871;
738.9000;0.4803;0.7895;
739.2000;0.4835;0.7941;
739.5000;0.4811;0.7895;
739.8000;0.4827;0.8034;
740.1000;0.4827;0.8057;
740.4000;0.4811;0.7964;
740.7000;0.4803;0.7895;
741.0000;0.4811;0.7848;
741.3000;0.4835;0.7987;
741.6000;0.4843;0.7987;
741.9000;0.4835;0.7941;
742.2000;0.4811;0.7941;
742.5000;0.4892;0.8196;
742.8000;0.4827;0.8104;
743.1000;0.4819;0.8057;
743.4000;0.4811;0.7964;
743.7000;0.4851;0.7941;
744.0000;0.4811;0.7941;
744.3000;0.4827;0.7941;
744.6000;0.4811;0.7825;
744.9000;0.4811;0.7755;
745.2000;0.4803;0.7732;
745.5000;0.4762;0.7732;
745.8000;0.4786;0.7918;
746.1000;0.4811;0.7918;
746.4000;0.4811;0.7895;
746.7000;0.4786;0.7848;
747.0000;0.4746;0.7825;
747.3000;0.4811;0.8080;
747.6000;0.4794;0.8057;
747.9000;0.4754;0.7987;
748.2000;0.4811;0.8011;
748.5000;0.4778;0.7987;
748.8000;0.4786;0.8080;
749.1000;0.4778;0.8104;
749.4000;0.4860;0.8266;
749.7000;0.4794;0.8127;
750.0000;0.4803;0.8173;
750.3000;0.4811;0.8127;
750.6000;0.4794;0.8057;
750.9000;0.4811;0.8196;
751.2000;0.4819;0.8266;
751.5000;0.4803;0.8196;
751.8000;0.4794;0.8150;
752.1000;0.4811;0.8150;
752.4000;0.4794;0.8150;
752.7000;0.4811;0.8196;
753.0000;0.4794;0.8173;
753.3000;0.4803;0.8196;
753.6000;0.4794;0.8080;
753.9000;0.4794;0.8057;
754.2000;0.4794;0.7941;
754.5000;0.4803;0.7964;
754.8000;0.4794;0.7941;
755.1000;0.4803;0.7941;
755.4000;0.4794;0.7918;
755.7000;0.4843;0.8080;
756.0000;0.4803;0.8034;
756.3000;0.4811;0.7964;
756.6000;0.4770;0.8057;
756.9000;0.4786;0.8104;
757.2000;0.4746;0.7941;
757.5000;0.4811;0.8104;
757.8000;0.4794;0.8034;
758.1000;0.4803;0.8011;
758.4000;0.4819;0.8104;
758.7000;0.4860;0.8150;
759.0000;0.4803;0.8104;
759.3000;0.4803;0.8127;
759.6000;0.4819;0.8150;
759.9000;0.4786;0.8150;
760.2000;0.4794;0.8150;
760.5000;0.4811;0.8266;
760.8000;0.4811;0.8220;
761.1000;0.4803;0.8150;
761.4000;0.4819;0.8127;
761.7000;0.4803;0.8173;
762.0000;0.4770;0.8104;
762.3000;0.4778;0.8150;
762.6000;0.4811;0.8266;
762.9000;0.4778;0.8220;
763.2000;0.4794;0.8196;
763.5000;0.4811;0.8266;
763.8000;0.4778;0.8313;
764.1000;0.4786;0.8289;
764.4000;0.4778;0.8289;
764.7000;0.4811;0.8266;
765.0000;0.4786;0.8243;
765.3000;0.4762;0.8220;
765.6000;0.4778;0.8243;
765.9000;0.4803;0.8196;
766.2000;0.4794;0.8289;
766.5000;0.4778;0.8289;
766.8000;0.4794;0.8359;
767.1000;0.4811;0.8173;
767.4000;0.4786;0.8080;
767.7000;0.4803;0.8173;
768.0000;0.4819;0.8127;
768.3000;0.4803;0.8104;
768.6000;0.4794;0.8150;
768.9000;0.4794;0.8127;
769.2000;0.4786;0.8080;
769.5000;0.4770;0.8011;
769.8000;0.4778;0.8173;
770.1000;0.4794;0.8243;
770.4000;0.4786;0.8220;
770.7000;0.4794;0.8196;
771.0000;0.4794;0.8266;
771.3000;0.4803;0.8266;
771.6000;0.4705;0.8057;
771.9000;0.4778;0.8150;
772.2000;0.4778;0.8173;
772.5000;0.4794;0.8266;
772.8000;0.4770;0.8243;
773.1000;0.4746;0.8150;
773.4000;0.4786;0.8266;
773.7000;0.4762;0.8173;
774.0000;0.4778;0.8127;
774.3000;0.4770;0.8104;
774.6000;0.4770;0.8104;
774.9000;0.4770;0.8150;
775.2000;0.4762;0.8104;
775.5000;0.4746;0.8034;
775.8000;0.4778;0.8057;
776.1000;0.4794;0.8127;
776.4000;0.4803;0.8150;
776.7000;0.4778;0.8080;
777.0000;0.4786;0.8104;
777.3000;0.4786;0.8057;
777.6000;0.4794;0.8034;
777.9000;0.4786;0.8080;
778.2000;0.4762;0.8011;
778.5000;0.4794;0.8104;
778.8000;0.4786;0.8127;
779.1000;0.4786;0.8080;
779.4000;0.4794;0.8104;
779.7000;0.4778;0.8057;
780.0000;0.4778;0.8080;
780.3000;0.4762;0.8034;
780.6000;0.4762;0.7987;
780.9000;0.4746;0.7987;
781.2000;0.4778;0.8057;
781.5000;0.4770;0.8104;
781.8000;0.4827;0.8196;
782.1000;0.4762;0.7964;
782.4000;0.4778;0.7895;
782.7000;0.4811;0.7895;
783.0000;0.4786;0.7918;
783.3000;0.4778;0.7848;
783.6000;0.4762;0.7848;
783.9000;0.4778;0.7895;
784.2000;0.4778;0.7802;
784.5000;0.4778;0.7895;
784.8000;0.4729;0.7848;
785.1000;0.4770;0.8034;
785.4000;0.4770;0.8127;
785.7000;0.4762;0.8173;
786.0000;0.4746;0.8150;
786.3000;0.4737;0.8080;
786.6000;0.4770;0.8011;
786.9000;0.4786;0.8034;
787.2000;0.4770;0.8080;
787.5000;0.4770;0.8104;
787.8000;0.4794;0.8173;
788.1000;0.4868;0.8429;
788.4000;0.4737;0.8127;
788.7000;0.4786;0.8173;
789.0000;0.4754;0.8057;
789.3000;0.4794;0.8034;
789.6000;0.4786;0.8011;
789.9000;0.4762;0.7987;
790.2000;0.4770;0.8080;
790.5000;0.4803;0.8173;
790.8000;0.4754;0.8150;
791.1000;0.4713;0.7987;
791.4000;0.4827;0.8289;
791.7000;0.4754;0.8150;
792.0000;0.4770;0.8034;
792.3000;0.4803;0.8173;
792.6000;0.4770;0.8243;
792.9000;0.4851;0.8429;
793.2000;0.4754;0.8173;
793.5000;0.4778;0.8150;
793.8000;0.4778;0.8034;
794.1000;0.4762;0.7987;
794.4000;0.4762;0.7895;
794.7000;0.4770;0.7918;
795.0000;0.4786;0.8034;
795.3000;0.4762;0.8057;
795.6000;0.4746;0.8034;
795.9000;0.4746;0.7964;
796.2000;0.4778;0.8057;
796.5000;0.4770;0.7964;
796.8000;0.4754;0.7964;
797.1000;0.4754;0.7941;
797.4000;0.4754;0.7964;
797.7000;0.4737;0.8011;
798.0000;0.4778;0.8127;
798.3000;0.4762;0.8127;
798.6000;0.4762;0.8034;
798.9000;0.4746;0.8127;
799.2000;0.4689;0.7941;
799.5000;0.4770;0.8057;
799.8000;0.4762;0.7964;
800.1000;0.4746;0.8034;
800.4000;0.4754;0.8196;
800.7000;0.4754;0.8289;
801.0000;0.4762;0.8266;
801.3000;0.4762;0.8220;
801.6000;0.4762;0.8150;
801.9000;0.4746;0.8057;
802.2000;0.4754;0.8057;
802.5000;0.4778;0.8127;
802.8000;0.4754;0.8104;
803.1000;0.4794;0.8220;
803.4000;0.4778;0.8220;
803.7000;0.4778;0.8127;
804.0000;0.4778;0.8057;
804.3000;0.4770;0.8127;
804.6000;0.4762;0.8243;
804.9000;0.4737;0.8150;
805.2000;0.4770;0.8173;
805.5000;0.4762;0.8173;
805.8000;0.4705;0.8104;
806.1000;0.4762;0.8220;
806.4000;0.4754;0.8220;
806.7000;0.4803;0.8429;
807.0000;0.4746;0.8266;
807.3000;0.4827;0.8359;
807.6000;0.4762;0.8266;
807.9000;0.4681;0.8057;
808.2000;0.4770;0.8289;
808.5000;0.4770;0.8266;
808.8000;0.4754;0.8382;
809.1000;0.4737;0.8313;
809.4000;0.4705;0.8127;
809.7000;0.4746;0.8173;
810.0000;0.4803;0.8266;
810.3000;0.4721;0.8080;
810.6000;0.4762;0.8243;
810.9000;0.4681;0.8104;
811.2000;0.4721;0.8150;
811.5000;0.4697;0.8011;
811.8000;0.4754;0.8104;
812.1000;0.4705;0.8057;
812.4000;0.4746;0.8080;
812.7000;0.4762;0.8057;
813.0000;0.4746;0.7964;
813.3000;0.4770;0.8150;
813.6000;0.4746;0.8173;
813.9000;0.4770;0.8220;
814.2000;0.4746;0.8196;
814.5000;0.4721;0.8173;
814.8000;0.4754;0.8243;
815.1000;0.4737;0.8196;
815.4000;0.4770;0.8266;
815.7000;0.4754;0.8150;
816.0000;0.4729;0.8011;
816.3000;0.4713;0.8011;
816.6000;0.4762;0.8104;
816.9000;0.4754;0.7941;
817.2000;0.4729;0.7895;
817.5000;0.4746;0.7941;
817.8000;0.4737;0.7964;
818.1000;0.4754;0.7941;
818.4000;0.4754;0.7918;
818.7000;0.4681;0.7732;
819.0000;0.4754;0.8011;
819.3000;0.4737;0.8057;
819.6000;0.4770;0.8150;
819.9000;0.4762;0.8080;
820.2000;0.4737;0.7964;
820.5000;0.4794;0.8034;
820.8000;0.4746;0.7987;
821.1000;0.4786;0.8104;
821.4000;0.4721;0.7895;
821.7000;0.4729;0.7871;
822.0000;0.4729;0.7918;
822.3000;0.4754;0.7987;
822.6000;0.4689;0.7848;
822.9000;0.4737;0.7964;
823.2000;0.4754;0.7964;
823.5000;0.4762;0.8011;
823.8000;0.4746;0.7941;
824.1000;0.4754;0.7987;
824.4000;0.4754;0.7964;
824.7000;0.4762;0.8057;
825.0000;0.4770;0.8057;
825.3000;0.4778;0.7987;
825.6000;0.4737;0.7848;
825.9000;0.4721;0.7778;
826.2000;0.4737;0.7918;
826.5000;0.4754;0.7964;
826.8000;0.4778;0.8011;
827.1000;0.4762;0.7964;
827.4000;0.4754;0.7964;
827.7000;0.4746;0.7987;
828.0000;0.4754;0.8034;
828.3000;0.4754;0.8034;
828.6000;0.4737;0.8011;
828.9000;0.4794;0.8196;
829.2000;0.4803;0.8196;
829.5000;0.4746;0.8011;
829.8000;0.4746;0.8034;
830.1000;0.4705;0.7918;
830.4000;0.4721;0.7941;
830.7000;0.4737;0.7964;
831.0000;0.4746;0.8057;
831.3000;0.4737;0.7964;
831.6000;0.4762;0.8034;
831.9000;0.4689;0.7941;
832.2000;0.4762;0.8057;
832.5000;0.4778;0.8127;
832.8000;0.4737;0.8034;
833.1000;0.4746;0.8011;
833.4000;0.4737;0.7987;
833.7000;0.4737;0.7941;
834.0000;0.4737;0.7964;
834.3000;0.4762;0.8080;
834.6000;0.4754;0.8057;
834.9000;0.4737;0.8057;
835.2000;0.4851;0.8336;
835.5000;0.4705;0.8057;
835.8000;0.4746;0.8173;
836.1000;0.4754;0.8127;
836.4000;0.4754;0.8104;
836.7000;0.4737;0.8150;
837.0000;0.4729;0.8104;
837.3000;0.4697;0.8057;
837.6000;0.4770;0.8220;
837.9000;0.4729;0.8080;
838.2000;0.4737;0.8104;
838.5000;0.4697;0.8034;
838.8000;0.4754;0.8173;
839.1000;0.4754;0.8150;
839.4000;0.4754;0.8196;
839.7000;0.4754;0.8196;
840.0000;0.4729;0.8057;
840.3000;0.4737;0.8034;
840.6000;0.4746;0.8057;
840.9000;0.4729;0.8034;
841.2000;0.4721;0.7987;
841.5000;0.4770;0.8104;
841.8000;0.4721;0.8080;
842.1000;0.4705;0.8034;
842.4000;0.4737;0.8104;
842.7000;0.4794;0.8336;
843.0000;0.4729;0.8266;
843.3000;0.4754;0.8266;
843.6000;0.4705;0.8127;
843.9000;0.4721;0.8150;
844.2000;0.4721;0.8173;
844.5000;0.4713;0.8127;
844.8000;0.4705;0.8127;
845.1000;0.4713;0.8220;
845.4000;0.4729;0.8382;
845.7000;0.4737;0.8336;
846.0000;0.4729;0.8220;
846.3000;0.4762;0.8220;
846.6000;0.4640;0.7895;
846.9000;0.4737;0.8034;
847.2000;0.4737;0.8057;
847.5000;0.4786;0.8057;
847.8000;0.4762;0.8080;
848.1000;0.4737;0.7987;
848.4000;0.4729;0.7918;
848.7000;0.4729;0.7964;
849.0000;0.4746;0.8150;
849.3000;0.4746;0.8104;
849.6000;0.4754;0.8104;
849.9000;0.4737;0.8127;
850.2000;0.4689;0.7987;
850.5000;0.4713;0.8034;
850.8000;0.4721;0.8080;
851.1000;0.4681;0.7987;
851.4000;0.4737;0.8080;
851.7000;0.4762;0.8150;
852.0000;0.4721;0.8127;
852.3000;0.4729;0.8104;
852.6000;0.4721;0.8104;
852.9000;0.4737;0.8173;
853.2000;0.4697;0.8057;
853.5000;0.4729;0.8057;
853.8000;0.4746;0.8127;
854.1000;0.4721;0.8104;
854.4000;0.4827;0.8359;
854.7000;0.4656;0.7987;
855.0000;0.4803;0.8266;
855.3000;0.4721;0.8150;
855.6000;0.4713;0.8080;
855.9000;0.4721;0.8080;
856.2000;0.4705;0.8011;
856.5000;0.4746;0.8150;
856.8000;0.4737;0.8150;
857.1000;0.4737;0.8127;
857.4000;0.4713;0.8034;
857.7000;0.4729;0.7987;
858.0000;0.4737;0.8080;
858.3000;0.4737;0.8080;
858.6000;0.4737;0.8034;
858.9000;0.4754;0.8080;
859.2000;0.4754;0.8057;
859.5000;0.4721;0.7987;
859.8000;0.4713;0.8034;
860.1000;0.4729;0.8057;
860.4000;0.4746;0.8080;
860.7000;0.4705;0.7987;
861.0000;0.4737;0.8173;
861.3000;0.4737;0.8127;
861.6000;0.4705;0.8080;
861.9000;0.4721;0.8127;
862.2000;0.4754;0.8220;
862.5000;0.4705;0.8127;
862.8000;0.4697;0.8150;
863.1000;0.4721;0.8150;
863.4000;0.4737;0.8150;
863.7000;0.4705;0.8057;
864.0000;0.4705;0.8057;
864.3000;0.4851;0.8359;
864.6000;0.4737;0.8127;
864.9000;0.4746;0.8196;
865.2000;0.4746;0.8289;
865.5000;0.4811;0.8452;
865.8000;0.4721;0.8150;
866.1000;0.4786;0.8289;
866.4000;0.4729;0.8127;
866.7000;0.4721;0.8057;
867.0000;0.4689;0.7964;
867.3000;0.4737;0.8080;
867.6000;0.4778;0.8220;
867.9000;0.4705;0.8011;
868.2000;0.4721;0.8057;
868.5000;0.4721;0.8057;
868.8000;0.4705;0.7987;
869.1000;0.4729;0.8057;
869.4000;0.4713;0.8104;
869.7000;0.4713;0.8104;
870.0000;0.4721;0.8150;
870.3000;0.4713;0.8127;
870.6000;0.4746;0.8196;
870.9000;0.4737;0.8150;
871.2000;0.4729;0.8104;
871.5000;0.4737;0.8080;
871.8000;0.4705;0.7964;
872.1000;0.4713;0.8057;
872.4000;0.4721;0.8034;
872.7000;0.4729;0.8011;
873.0000;0.4721;0.7964;
873.3000;0.4729;0.8057;
873.6000;0.4729;0.8196;
873.9000;0.4721;0.8220;
874.2000;0.4729;0.8220;
874.5000;0.4721;0.8243;
874.8000;0.4754;0.8266;
875.1000;0.4786;0.8289;
875.4000;0.4721;0.8034;
875.7000;0.4754;0.7964;
876.0000;0.4737;0.7964;
876.3000;0.4689;0.7848;
876.6000;0.4713;0.8011;
876.9000;0.4721;0.8034;
877.2000;0.4705;0.8080;
877.5000;0.4705;0.8104;
877.8000;0.4721;0.8150;
878.1000;0.4705;0.8080;
878.4000;0.4721;0.8127;
878.7000;0.4713;0.8057;
879.0000;0.4746;0.8196;
879.3000;0.4713;0.8196;
879.6000;0.4713;0.8150;
879.9000;0.4705;0.8220;
880.2000;0.4705;0.8150;
880.5000;0.4713;0.8057;
880.8000;0.4713;0.8057;
881.1000;0.4705;0.8080;
881.4000;0.4713;0.8173;
881.7000;0.4705;0.8127;
882.0000;0.4697;0.8057;
882.3000;0.4721;0.8104;
882.6000;0.4705;0.8034;
882.9000;0.4737;0.8034;
883.2000;0.4713;0.8057;
883.5000;0.4729;0.7941;
883.8000;0.4729;0.7964;
884.1000;0.4729;0.8034;
884.4000;0.4713;0.8057;
884.7000;0.4737;0.8057;
885.0000;0.4729;0.8080;
885.3000;0.4632;0.7848;
885.6000;0.4737;0.8104;
885.9000;0.4721;0.8104;
886.2000;0.4737;0.8127;
886.5000;0.4713;0.8127;
886.8000;0.4737;0.8173;
887.1000;0.4713;0.8080;
887.4000;0.4729;0.8173;
887.7000;0.4713;0.8150;
888.0000;0.4705;0.8104;
888.3000;0.4721;0.8220;
888.6000;0.4713;0.8196;
888.9000;0.4697;0.8173;
889.2000;0.4705;0.8150;
889.5000;0.4681;0.8080;
889.8000;0.4713;0.8196;
890.1000;0.4689;0.8220;
890.4000;0.4689;0.8196;
890.7000;0.4721;0.8220;
891.0000;0.4737;0.8266;
891.3000;0.4664;0.8104;
891.6000;0.4754;0.8405;
891.9000;0.4746;0.8313;
892.2000;0.4689;0.8104;
892.5000;0.4713;0.8127;
892.8000;0.4713;0.8150;
893.1000;0.4770;0.8382;
893.4000;0.4648;0.8080;
893.7000;0.4713;0.8289;
894.0000;0.4697;0.8196;
894.3000;0.4762;0.8382;
894.6000;0.4681;0.8173;
894.9000;0.4681;0.8150;
895.2000;0.4697;0.8150;
895.5000;0.4713;0.8173;
895.8000;0.4697;0.8196;
896.1000;0.4713;0.8173;
896.4000;0.4713;0.8127;
896.7000;0.4721;0.8127;
897.0000;0.4713;0.8150;
897.3000;0.4737;0.8243;
897.6000;0.4721;0.8266;
897.9000;0.4681;0.8196;
898.2000;0.4705;0.8266;
898.5000;0.4705;0.8289;
898.8000;0.4754;0.8359;
899.1000;0.4713;0.8243;
899.4000;0.4697;0.8080;
899.7000;0.4713;0.8127;
900.0000;0.4705;0.8196;
900.3000;0.4721;0.8220;
900.6000;0.4721;0.8104;
900.9000;0.4664;0.7918;
901.2000;0.4737;0.8173;
901.5000;0.4737;0.8150;
901.8000;0.4721;0.8150;
902.1000;0.4713;0.8080;
902.4000;0.4697;0.7964;
902.7000;0.4648;0.7871;
903.0000;0.4705;0.8011;
903.3000;0.4713;0.8127;
903.6000;0.4713;0.8173;
903.9000;0.4713;0.8196;
904.2000;0.4697;0.8127;
904.5000;0.4697;0.8104;
904.8000;0.4705;0.8150;
905.1000;0.4689;0.8243;
905.4000;0.4689;0.8243;
905.7000;0.4705;0.8173;
906.0000;0.4681;0.8150;
906.3000;0.4705;0.8220;
906.6000;0.4713;0.8243;
906.9000;0.4705;0.8243;
907.2000;0.4705;0.8313;
907.5000;0.4721;0.8359;
907.8000;0.4697;0.8289;
908.1000;0.4713;0.8289;
908.4000;0.4713;0.8313;
908.7000;0.4819;0.8568;
909.0000;0.4721;0.8359;
909.3000;0.4721;0.8289;
909.6000;0.4721;0.8405;
909.9000;0.4705;0.8359;
910.2000;0.4729;0.8429;
910.5000;0.4729;0.8266;
910.8000;0.4746;0.8243;
911.1000;0.4721;0.8127;
911.4000;0.4713;0.8080;
911.7000;0.4721;0.8057;
912.0000;0.4713;0.8080;
912.3000;0.4746;0.8220;
912.6000;0.4713;0.8150;
912.9000;0.4729;0.8313;
913.2000;0.4713;0.8196;
913.5000;0.4705;0.8080;
913.8000;0.4672;0.8034;
914.1000;0.4697;0.8127;
914.4000;0.4713;0.8266;
914.7000;0.4713;0.8266;
915.0000;0.4762;0.8382;
915.3000;0.4729;0.8196;
915.6000;0.4746;0.8196;
915.9000;0.4697;0.8173;
916.2000;0.4713;0.8080;
916.5000;0.4713;0.8127;
916.8000;0.4713;0.8150;
917.1000;0.4705;0.8150;
917.4000;0.4721;0.8196;
917.7000;0.4697;0.8104;
918.0000;0.4705;0.8104;
918.3000;0.4681;0.8150;
918.6000;0.4705;0.8313;
918.9000;0.4713;0.8359;
919.2000;0.4697;0.8313;
919.5000;0.4664;0.8080;
919.8000;0.4713;0.8196;
920.1000;0.4697;0.8266;
920.4000;0.4705;0.8150;
920.7000;0.4713;0.8150;
921.0000;0.4681;0.8034;
921.3000;0.4664;0.7987;
921.6000;0.4721;0.8196;
921.9000;0.4713;0.8266;
922.2000;0.4729;0.8266;
922.5000;0.4705;0.8266;
922.8000;0.4713;0.8173;
923.1000;0.4721;0.8243;
923.4000;0.4689;0.8173;
923.7000;0.4689;0.8150;
924.0000;0.4672;0.8104;
924.3000;0.4721;0.8173;
924.6000;0.4672;0.8104;
924.9000;0.4697;0.8150;
925.2000;0.4697;0.8173;
925.5000;0.4689;0.8173;
925.8000;0.4705;0.8220;
926.1000;0.4705;0.8243;
926.4000;0.4681;0.8196;
926.7000;0.4689;0.8289;
927.0000;0.4713;0.8313;
927.3000;0.4721;0.8359;
927.6000;0.4689;0.8243;
927.9000;0.4705;0.8313;
928.2000;0.4672;0.8196;
928.5000;0.4746;0.8243;
928.8000;0.4697;0.8080;
929.1000;0.4689;0.8127;
929.4000;0.4770;0.8313;
929.7000;0.4713;0.8220;
930.0000;0.4697;0.8289;
930.3000;0.4681;0.8220;
930.6000;0.4713;0.8173;
930.9000;0.4705;0.8057;
931.2000;0.4713;0.8011;
931.5000;0.4721;0.8034;
931.8000;0.4697;0.8011;
932.1000;0.4705;0.7987;
932.4000;0.4689;0.7987;
932.7000;0.4754;0.8173;
933.0000;0.4664;0.8034;
933.3000;0.4713;0.8150;
933.6000;0.4737;0.8150;
933.9000;0.4705;0.8034;
934.2000;0.4697;0.7964;
934.5000;0.4729;0.8011;
934.8000;0.4705;0.8034;
935.1000;0.4705;0.8011;
935.4000;0.4689;0.7848;
935.7000;0.4721;0.7941;
936.0000;0.4721;0.7941;
936.3000;0.4721;0.7987;
936.6000;0.4705;0.7895;
936.9000;0.4721;0.7987;
937.2000;0.4689;0.7941;
937.5000;0.4697;0.7895;
937.8000;0.4705;0.7918;
938.1000;0.4721;0.7964;
938.4000;0.4705;0.7964;
938.7000;0.4697;0.8034;
939.0000;0.4697;0.8011;
939.3000;0.4656;0.7895;
939.6000;0.4689;0.7987;
939.9000;0.4697;0.8011;
940.2000;0.4705;0.8034;
940.5000;0.4737;0.8104;
940.8000;0.4705;0.8080;
941.1000;0.4705;0.8057;
941.4000;0.4713;0.8057;
941.7000;0.4713;0.8034;
942.0000;0.4721;0.8011;
942.3000;0.4697;0.7987;
942.6000;0.4705;0.7941;
942.9000;0.4721;0.8057;
943.2000;0.4689;0.7964;
943.5000;0.4729;0.8080;
943.8000;0.4713;0.8104;
944.1000;0.4737;0.8150;
944.4000;0.4697;0.8011;
944.7000;0.4713;0.8150;
945.0000;0.4681;0.8150;
945.3000;0.4713;0.8196;
945.6000;0.4705;0.8150;
945.9000;0.4697;0.8127;
946.2000;0.4599;0.7895;
946.5000;0.4705;0.8196;
946.8000;0.4648;0.8127;
947.1000;0.4624;0.8080;
947.4000;0.4656;0.8150;
947.7000;0.4721;0.8289;
948.0000;0.4713;0.8289;
948.3000;0.4713;0.8289;
948.6000;0.4713;0.8313;
948.9000;0.4681;0.8359;
949.2000;0.4770;0.8521;
949.5000;0.4705;0.8359;
949.8000;0.4713;0.8359;
950.1000;0.4689;0.8266;
950.4000;0.4672;0.8150;
950.7000;0.4705;0.8289;
951.0000;0.4672;0.8080;
951.3000;0.4697;0.8104;
951.6000;0.4705;0.8173;
951.9000;0.4697;0.8243;
952.2000;0.4672;0.8127;
952.5000;0.4721;0.8220;
952.8000;0.4705;0.8220;
953.1000;0.4705;0.8104;
953.4000;0.4721;0.8080;
953.7000;0.4729;0.8057;
954.0000;0.4729;0.8080;
954.3000;0.4737;0.8127;
954.6000;0.4705;0.8011;
954.9000;0.4803;0.8313;
955.2000;0.4697;0.8104;
955.5000;0.4624;0.7941;
955.8000;0.4689;0.8196;
956.1000;0.4697;0.8196;
956.4000;0.4689;0.8173;
956.7000;0.4729;0.8266;
957.0000;0.4705;0.8196;
957.3000;0.4762;0.8266;
957.6000;0.4729;0.8243;
957.9000;0.4713;0.8196;
958.2000;0.4697;0.8196;
958.5000;0.4689;0.8173;
958.8000;0.4697;0.8196;
959.1000;0.4689;0.8034;
959.4000;0.4746;0.8220;
959.7000;0.4681;0.8150;
960.0000;0.4689;0.8243;
960.3000;0.4672;0.8243;
960.6000;0.4672;0.8173;
960.9000;0.4697;0.8127;
961.2000;0.4721;0.8173;
961.5000;0.4721;0.8220;
961.8000;0.4721;0.8173;
962.1000;0.4681;0.8034;
962.4000;0.4640;0.7964;
962.7000;0.4705;0.8104;
963.0000;0.4705;0.8057;
963.3000;0.4729;0.8127;
963.6000;0.4746;0.8220;
963.9000;0.4672;0.8104;
964.2000;0.4689;0.8173;
964.5000;0.4689;0.8173;
964.8000;0.4624;0.8011;
965.1000;0.4697;0.8196;
965.4000;0.4705;0.8196;
965.7000;0.4697;0.8173;
966.0000;0.4672;0.8173;
966.3000;0.4697;0.8150;
966.6000;0.4729;0.8150;
966.9000;0.4705;0.8127;
967.2000;0.4729;0.8220;
967.5000;0.4713;0.8220;
967.8000;0.4681;0.8220;
968.1000;0.4689;0.8289;
968.4000;0.4689;0.8220;
968.7000;0.4689;0.8220;
969.0000;0.4689;0.8173;
969.3000;0.4754;0.8266;
969.6000;0.4697;0.8196;
969.9000;0.4697;0.8196;
970.2000;0.4737;0.8266;
970.5000;0.4697;0.8266;
970.8000;0.4689;0.8220;
971.1000;0.4672;0.8220;
971.4000;0.4681;0.8289;
971.7000;0.4697;0.8336;
972.0000;0.4681;0.8289;
972.3000;0.4689;0.8359;
972.6000;0.4721;0.8336;
972.9000;0.4713;0.8336;
973.2000;0.4713;0.8289;
973.5000;0.4697;0.8266;
973.8000;0.4689;0.8243;
974.1000;0.4689;0.8220;
974.4000;0.4697;0.8289;
974.7000;0.4689;0.8313;
975.0000;0.4672;0.8266;
975.3000;0.4689;0.8220;
975.6000;0.4697;0.8243;
975.9000;0.4672;0.8243;
976.2000;0.4681;0.8243;
976.5000;0.4672;0.8220;
976.8000;0.4754;0.8336;
977.1000;0.4689;0.8173;
977.4000;0.4689;0.8173;
977.7000;0.4681;0.8080;
978.0000;0.4705;0.8104;
978.3000;0.4705;0.8173;
978.6000;0.4681;0.8080;
978.9000;0.4770;0.8313;
979.2000;0.4697;0.8057;
979.5000;0.4705;0.7941;
979.8000;0.4689;0.7825;
980.1000;0.4681;0.7732;
980.4000;0.4697;0.7871;
980.7000;0.4705;0.7941;
981.0000;0.4681;0.7964;
981.3000;0.4689;0.8104;
981.6000;0.4664;0.8011;
981.9000;0.4697;0.8104;
982.2000;0.4681;0.7964;
982.5000;0.4672;0.7918;
982.8000;0.4689;0.7918;
983.1000;0.4746;0.8150;
983.4000;0.4705;0.8057;
983.7000;0.4713;0.8057;
984.0000;0.4697;0.8011;
984.3000;0.4713;0.7987;
984.6000;0.4689;0.7895;
984.9000;0.4681;0.7895;
985.2000;0.4697;0.7941;
985.5000;0.4697;0.8057;
985.8000;0.4689;0.8080;
986.1000;0.4713;0.8150;
986.4000;0.4746;0.8173;
986.7000;0.4689;0.7941;
987.0000;0.4697;0.7964;
987.3000;0.4705;0.8127;
987.6000;0.4672;0.8104;
987.9000;0.4689;0.8196;
988.2000;0.4705;0.8289;
988.5000;0.4697;0.8220;
988.8000;0.4697;0.8196;
989.1000;0.4737;0.8359;
989.4000;0.4697;0.8359;
989.7000;0.4713;0.8359;
990.0000;0.4689;0.8359;
990.3000;0.4689;0.8313;
990.6000;0.4689;0.8313;
990.9000;0.4778;0.8591;
991.2000;0.4664;0.8289;
991.5000;0.4672;0.8359;
991.8000;0.4664;0.8336;
992.1000;0.4672;0.8452;
992.4000;0.4689;0.8452;
992.7000;0.4648;0.8266;
993.0000;0.4689;0.8266;
993.3000;0.4632;0.8220;
993.6000;0.4681;0.8429;
993.9000;0.4672;0.8475;
994.2000;0.4681;0.8452;
994.5000;0.4681;0.8382;
994.8000;0.4705;0.8429;
995.1000;0.4681;0.8313;
995.4000;0.4607;0.8080;
995.7000;0.4697;0.8266;
996.0000;0.4681;0.8313;
996.3000;0.4705;0.8452;
996.6000;0.4705;0.8545;
996.9000;0.4697;0.8405;
997.2000;0.4672;0.8313;
997.5000;0.4672;0.8243;
997.8000;0.4713;0.8243;
998.1000;0.4681;0.8196;
998.4000;0.4681;0.8243;
998.7000;0.4689;0.8289;
999.0000;0.4697;0.8243;
999.3000;0.4689;0.8220;
999.6000;0.4681;0.8150;
999.9000;0.4697;0.8150;
1000.2000;0.4713;0.8127;
1000.5000;0.4672;0.8127;
1000.8000;0.4681;0.8173;
1001.1000;0.4705;0.8266;
1001.4000;0.4705;0.8243;
1001.7000;0.4681;0.8266;
1002.0000;0.4672;0.8243;
1002.3000;0.4681;0.8313;
1002.6000;0.4681;0.8243;
1002.9000;0.4681;0.8243;
1003.2000;0.4681;0.8196;
1003.5000;0.4681;0.8127;
1003.8000;0.4689;0.8150;
1004.1000;0.4729;0.8196;
1004.4000;0.4705;0.8127;
1004.7000;0.4689;0.8127;
1005.0000;0.4681;0.8173;
1005.3000;0.4689;0.8150;
1005.6000;0.4697;0.8173;
1005.9000;0.4672;0.8243;
1006.2000;0.4721;0.8313;
1006.5000;0.4664;0.8173;
1006.8000;0.4697;0.8173;
1007.1000;0.4681;0.8057;
1007.4000;0.4664;0.7964;
1007.7000;0.4681;0.8034;
1008.0000;0.4681;0.8011;
1008.3000;0.4681;0.8034;
1008.6000;0.4681;0.8080;
1008.9000;0.4681;0.8034;
1009.2000;0.4681;0.8080;
1009.5000;0.4689;0.8150;
1009.8000;0.4681;0.8150;
1010.1000;0.4681;0.8266;
1010.4000;0.4664;0.8173;
1010.7000;0.4681;0.8173;
1011.0000;0.4681;0.8196;
1011.3000;0.4672;0.8243;
1011.6000;0.4672;0.8173;
1011.9000;0.4681;0.8173;
1012.2000;0.4681;0.8127;
1012.5000;0.4762;0.8243;
1012.8000;0.4697;0.8104;
1013.1000;0.4697;0.8196;
1013.4000;0.4689;0.8150;
1013.7000;0.4681;0.8104;
1014.0000;0.4672;0.8150;
1014.3000;0.4713;0.8243;
1014.6000;0.4689;0.8289;
1014.9000;0.4705;0.8313;
1015.2000;0.4737;0.8452;
1015.5000;0.4697;0.8336;
1015.8000;0.4689;0.8405;
1016.1000;0.4770;0.8638;
1016.4000;0.4721;0.8475;
1016.7000;0.4713;0.8475;
1017.0000;0.4689;0.8429;
1017.3000;0.4689;0.8313;
1017.6000;0.4672;0.8289;
1017.9000;0.4729;0.8475;
1018.2000;0.4737;0.8382;
1018.5000;0.4664;0.8220;
1018.8000;0.4672;0.8289;
1019.1000;0.4721;0.8336;
1019.4000;0.4705;0.8359;
1019.7000;0.4689;0.8359;
1020.0000;0.4656;0.8359;
1020.3000;0.4689;0.8359;
1020.6000;0.4713;0.8336;
1020.9000;0.4681;0.8266;
1021.2000;0.4672;0.8220;
1021.5000;0.4713;0.8289;
1021.8000;0.4705;0.8243;
1022.1000;0.4697;0.8127;
1022.4000;0.4697;0.8034;
1022.7000;0.4697;0.8104;
1023.0000;0.4721;0.8220;
1023.3000;0.4640;0.7987;
1023.6000;0.4689;0.8104;
1023.9000;0.4721;0.8220;
1024.2000;0.4705;0.8266;
1024.5000;0.4713;0.8359;
1024.8000;0.4721;0.8359;
1025.1000;0.4681;0.8196;
1025.4000;0.4746;0.8429;
1025.7000;0.4697;0.8359;
1026.0000;0.4689;0.8382;
1026.3000;0.4689;0.8452;
1026.6000;0.4648;0.8359;
1026.9000;0.4672;0.8429;
1027.2000;0.4697;0.8452;
1027.5000;0.4697;0.8475;
1027.8000;0.4689;0.8382;
1028.1000;0.4689;0.8336;
1028.4000;0.4624;0.8127;
1028.7000;0.4697;0.8336;
1029.0000;0.4705;0.8289;
1029.3000;0.4697;0.8196;
1029.6000;0.4762;0.8405;
1029.9000;0.4681;0.8196;
1030.2000;0.4681;0.8173;
1030.5000;0.4697;0.8196;
1030.8000;0.4713;0.8220;
1031.1000;0.4672;0.8057;
1031.4000;0.4681;0.8150;
1031.7000;0.4681;0.8173;
1032.0000;0.4713;0.8266;
1032.3000;0.4689;0.8196;
1032.6000;0.4721;0.8243;
1032.9000;0.4681;0.8243;
1033.2000;0.4656;0.8173;
1033.5000;0.4664;0.8150;
1033.8000;0.4681;0.8104;
1034.1000;0.4713;0.8080;
1034.4000;0.4689;0.8196;
1034.7000;0.4689;0.8313;
1035.0000;0.4664;0.8173;
1035.3000;0.4689;0.8127;
1035.6000;0.4697;0.8196;
1035.9000;0.4681;0.8173;
1036.2000;0.4689;0.8150;
1036.5000;0.4689;0.8266;
1036.8000;0.4672;0.8359;
1037.1000;0.4705;0.8359;
1037.4000;0.4681;0.8289;
1037.7000;0.4689;0.8359;
1038.0000;0.4697;0.8289;
1038.3000;0.4737;0.8313;
1038.6000;0.4697;0.8127;
1038.9000;0.4705;0.8104;
1039.2000;0.4697;0.8057;
1039.5000;0.4713;0.8150;
1039.8000;0.4705;0.8173;
1040.1000;0.4697;0.8266;
1040.4000;0.4681;0.8313;
1040.7000;0.4697;0.8289;
1041.0000;0.4648;0.8057;
1041.3000;0.4713;0.8080;
1041.6000;0.4664;0.7941;
1041.9000;0.4721;0.8034;
1042.2000;0.4713;0.8150;
1042.5000;0.4689;0.8057;
1042.8000;0.4689;0.8150;
1043.1000;0.4697;0.8127;
1043.4000;0.4705;0.8173;
1043.7000;0.4697;0.8150;
1044.0000;0.4672;0.8173;
1044.3000;0.4713;0.8243;
1044.6000;0.4697;0.8196;
1044.9000;0.4648;0.8057;
1045.2000;0.4689;0.8173;
1045.5000;0.4713;0.8336;
1045.8000;0.4689;0.8359;
1046.1000;0.4713;0.8498;
1046.4000;0.4697;0.8405;
1046.7000;0.4672;0.8405;
1047.0000;0.4689;0.8429;
1047.3000;0.4746;0.8498;
1047.6000;0.4697;0.8405;
1047.9000;0.4689;0.8359;
1048.2000;0.4697;0.8405;
1048.5000;0.4689;0.8313;
1048.8000;0.4697;0.8336;
1049.1000;0.4664;0.8289;
1049.4000;0.4697;0.8289;
1049.7000;0.4705;0.8336;
1050.0000;0.4713;0.8313;
1050.3000;0.4689;0.8243;
1050.6000;0.4721;0.8313;
1050.9000;0.4705;0.8173;
1051.2000;0.4705;0.8057;
1051.5000;0.4681;0.7987;
1051.8000;0.4689;0.8104;
1052.1000;0.4713;0.8220;
1052.4000;0.4672;0.8080;
1052.7000;0.4672;0.8104;
1053.0000;0.4689;0.8173;
1053.3000;0.4689;0.8057;
1053.6000;0.4664;0.8057;
1053.9000;0.4697;0.8266;
1054.2000;0.4681;0.8243;
1054.5000;0.4672;0.8173;
1054.8000;0.4689;0.8150;
1055.1000;0.4705;0.8243;
1055.4000;0.4664;0.8173;
1055.7000;0.4664;0.8196;
1056.0000;0.4697;0.8336;
1056.3000;0.4689;0.8336;
1056.6000;0.4624;0.8173;
1056.9000;0.4697;0.8498;
1057.2000;0.4681;0.8359;
1057.5000;0.4713;0.8313;
1057.8000;0.4689;0.8243;
1058.1000;0.4681;0.8196;
1058.4000;0.4672;0.8173;
1058.7000;0.4705;0.8243;
1059.0000;0.4689;0.8150;
1059.3000;0.4681;0.8104;
1059.6000;0.4681;0.8127;
1059.9000;0.4689;0.8150;
1060.2000;0.4689;0.8173;
1060.5000;0.4689;0.8104;
1060.8000;0.4672;0.8057;
1061.1000;0.4713;0.8196;
1061.4000;0.4681;0.8243;
1061.7000;0.4746;0.8382;
1062.0000;0.4681;0.8336;
1062.3000;0.4713;0.8382;
1062.6000;0.4672;0.8289;
1062.9000;0.4607;0.8127;
1063.2000;0.4705;0.8452;
1063.5000;0.4681;0.8313;
1063.8000;0.4778;0.8498;
1064.1000;0.4681;0.8313;
1064.4000;0.4681;0.8289;
1064.7000;0.4640;0.8127;
1065.0000;0.4656;0.8220;
1065.3000;0.4672;0.8289;
1065.6000;0.4664;0.8173;
1065.9000;0.4681;0.8220;
1066.2000;0.4672;0.8220;
1066.5000;0.4689;0.8150;
1066.8000;0.4689;0.8080;
1067.1000;0.4689;0.8104;
1067.4000;0.4697;0.8173;
1067.7000;0.4672;0.8057;
1068.0000;0.4672;0.8173;
1068.3000;0.4672;0.8173;
1068.6000;0.4664;0.8104;
1068.9000;0.4689;0.8150;
1069.2000;0.4713;0.8196;
1069.5000;0.4705;0.8080;
1069.8000;0.4689;0.8127;
1070.1000;0.4697;0.8196;
1070.4000;0.4705;0.8243;
1070.7000;0.4721;0.8266;
1071.0000;0.4729;0.8266;
1071.3000;0.4713;0.8220;
1071.6000;0.4721;0.8220;
1071.9000;0.4705;0.8173;
1072.2000;0.4697;0.8173;
1072.5000;0.4689;0.8034;
1072.8000;0.4689;0.8034;
1073.1000;0.4689;0.8080;
1073.4000;0.4672;0.7918;
1073.7000;0.4681;0.7895;
1074.0000;0.4697;0.8011;
1074.3000;0.4689;0.8057;
1074.6000;0.4689;0.7987;
1074.9000;0.4689;0.7964;
1075.2000;0.4672;0.7964;
1075.5000;0.4681;0.8011;
1075.8000;0.4664;0.7964;
1076.1000;0.4681;0.8127;
1076.4000;0.4664;0.8127;
1076.7000;0.4689;0.8196;
1077.0000;0.4754;0.8313;
1077.3000;0.4681;0.8150;
1077.6000;0.4672;0.8220;
1077.9000;0.4697;0.8336;
1078.2000;0.4624;0.8220;
1078.5000;0.4656;0.8289;
1078.8000;0.4664;0.8289;
1079.1000;0.4713;0.8405;
1079.4000;0.4681;0.8359;
1079.7000;0.4656;0.8243;
1080.0000;0.4705;0.8289;
1080.3000;0.4681;0.8266;
1080.6000;0.4705;0.8196;
1080.9000;0.4697;0.8127;
1081.2000;0.4689;0.8104;
1081.5000;0.4664;0.8150;
1081.8000;0.4697;0.8289;
1082.1000;0.4689;0.8150;
1082.4000;0.4681;0.8127;
1082.7000;0.4697;0.8127;
1083.0000;0.4681;0.8127;
1083.3000;0.4681;0.8220;
1083.6000;0.4697;0.8266;
1083.9000;0.4681;0.8243;
1084.2000;0.4681;0.8173;
1084.5000;0.4689;0.8127;
1084.8000;0.4681;0.8080;
1085.1000;0.4697;0.8150;
1085.4000;0.4689;0.8150;
1085.7000;0.4689;0.8127;
1086.0000;0.4689;0.8150;
1086.3000;0.4672;0.8080;
1086.6000;0.4681;0.8104;
1086.9000;0.4689;0.8150;
1087.2000;0.4737;0.8266;
1087.5000;0.4697;0.8104;
1087.8000;0.4689;0.8057;
1088.1000;0.4681;0.8034;
1088.4000;0.4672;0.8011;
1088.7000;0.4689;0.8034;
1089.0000;0.4664;0.8104;
1089.3000;0.4689;0.8127;
1089.6000;0.4689;0.8266;
1089.9000;0.4681;0.8266;
1090.2000;0.4672;0.8243;
1090.5000;0.4648;0.8127;
1090.8000;0.4689;0.8266;
1091.1000;0.4689;0.8313;
1091.4000;0.4656;0.8243;
1091.7000;0.4681;0.8196;
1092.0000;0.4689;0.8173;
1092.3000;0.4681;0.8127;
1092.6000;0.4664;0.8080;
1092.9000;0.4681;0.7964;
1093.2000;0.4689;0.8034;
1093.5000;0.4689;0.7987;
1093.8000;0.4689;0.8011;
1094.1000;0.4656;0.8011;
1094.4000;0.4713;0.8127;
1094.7000;0.4681;0.8127;
1095.0000;0.4681;0.8196;
1095.3000;0.4664;0.8173;
1095.6000;0.4672;0.8196;
1095.9000;0.4697;0.8313;
1096.2000;0.4672;0.8266;
1096.5000;0.4656;0.8173;
1096.8000;0.4689;0.8220;
1097.1000;0.4681;0.8196;
1097.4000;0.4664;0.8127;
1097.7000;0.4689;0.8196;
1098.0000;0.4705;0.8220;
1098.3000;0.4721;0.8196;
1098.6000;0.4689;0.8011;
1098.9000;0.4681;0.8057;
1099.2000;0.4656;0.8034;
1099.5000;0.4672;0.8057;
1099.8000;0.4664;0.8034;
1100.1000;0.4672;0.8034;
1100.4000;0.4803;0.8382;
1100.7000;0.4697;0.8127;
1101.0000;0.4664;0.8034;
1101.3000;0.4689;0.7987;
1101.6000;0.4664;0.7871;
1101.9000;0.4689;0.8011;
1102.2000;0.4656;0.7964;
1102.5000;0.4713;0.8057;
1102.8000;0.4689;0.7964;
1103.1000;0.4648;0.7918;
1103.4000;0.4591;0.7895;
1103.7000;0.4681;0.8080;
1104.0000;0.4681;0.8034;
1104.3000;0.4656;0.8034;
1104.6000;0.4681;0.7964;
1104.9000;0.4681;0.7918;
1105.2000;0.4664;0.7895;
1105.5000;0.4672;0.8011;
1105.8000;0.4664;0.8034;
1106.1000;0.4672;0.7941;
1106.4000;0.4672;0.7964;
1106.7000;0.4681;0.8034;
1107.0000;0.4672;0.8011;
1107.3000;0.4681;0.8057;
1107.6000;0.4672;0.8034;
1107.9000;0.4681;0.7941;
1108.2000;0.4672;0.7918;
1108.5000;0.4681;0.7941;
1108.8000;0.4681;0.7987;
1109.1000;0.4672;0.7987;
1109.4000;0.4681;0.8011;
1109.7000;0.4672;0.8011;
1110.0000;0.4672;0.8034;
1110.3000;0.4697;0.8057;
1110.6000;0.4681;0.8080;
1110.9000;0.4681;0.8104;
1111.2000;0.4721;0.8150;
1111.5000;0.4656;0.8034;
1111.8000;0.4681;0.8057;
1112.1000;0.4672;0.8080;
1112.4000;0.4672;0.8104;
1112.7000;0.4689;0.8034;
1113.0000;0.4672;0.8034;
1113.3000;0.4672;0.8104;
1113.6000;0.4672;0.8150;
1113.9000;0.4689;0.8127;
1114.2000;0.4664;0.8104;
1114.5000;0.4672;0.8127;
1114.8000;0.4697;0.8220;
1115.1000;0.4689;0.8127;
1115.4000;0.4689;0.8104;
1115.7000;0.4664;0.8011;
1116.0000;0.4689;0.8034;
1116.3000;0.4672;0.7918;
1116.6000;0.4689;0.7825;
1116.9000;0.4689;0.7848;
1117.2000;0.4689;0.7871;
1117.5000;0.4794;0.8220;
1117.8000;0.4697;0.7918;
1118.1000;0.4672;0.7918;
1118.4000;0.4746;0.8150;
1118.7000;0.4681;0.7964;
1119.0000;0.4689;0.7987;
1119.3000;0.4681;0.7895;
1119.6000;0.4681;0.7918;
1119.9000;0.4672;0.7802;
1120.2000;0.4689;0.7918;
1120.5000;0.4705;0.7918;
1120.8000;0.4672;0.7848;
1121.1000;0.4672;0.7895;
1121.4000;0.4786;0.8196;
1121.7000;0.4672;0.8057;
1122.0000;0.4681;0.7918;
1122.3000;0.4697;0.8057;
1122.6000;0.4697;0.8127;
1122.9000;0.4697;0.8104;
1123.2000;0.4705;0.8034;
1123.5000;0.4689;0.8011;
1123.8000;0.4705;0.7987;
1124.1000;0.4689;0.7964;
1124.4000;0.4689;0.7871;
1124.7000;0.4656;0.7732;
1125.0000;0.4689;0.7825;
1125.3000;0.4672;0.7825;
1125.6000;0.4664;0.7778;
1125.9000;0.4672;0.7918;
1126.2000;0.4664;0.7941;
1126.5000;0.4664;0.7987;
1126.8000;0.4672;0.7987;
1127.1000;0.4672;0.7964;
1127.4000;0.4640;0.7871;
1127.7000;0.4689;0.8104;
1128.0000;0.4689;0.8104;
1128.3000;0.4737;0.8243;
1128.6000;0.4681;0.8034;
1128.9000;0.4697;0.8080;
1129.2000;0.4705;0.8011;
1129.5000;0.4672;0.7987;
1129.8000;0.4656;0.7848;
1130.1000;0.4664;0.7825;
1130.4000;0.4656;0.7755;
1130.7000;0.4672;0.7848;
1131.0000;0.4681;0.7918;
1131.3000;0.4681;0.7802;
1131.6000;0.4681;0.7732;
1131.9000;0.4672;0.7802;
1132.2000;0.4689;0.7802;
1132.5000;0.4689;0.7755;
1132.8000;0.4681;0.7616;
1133.1000;0.4697;0.7616;
1133.4000;0.4615;0.7500;
1133.7000;0.4697;0.7755;
1134.0000;0.4721;0.7732;
1134.3000;0.4656;0.7593;
1134.6000;0.4689;0.7709;
1134.9000;0.4672;0.7616;
1135.2000;0.4697;0.7616;
1135.5000;0.4689;0.7570;
1135.8000;0.4672;0.7593;
1136.1000;0.4729;0.7732;
1136.4000;0.4681;0.7639;
1136.7000;0.4672;0.7709;
1137.0000;0.4583;0.7546;
1137.3000;0.4770;0.7918;
1137.6000;0.4664;0.7755;
1137.9000;0.4656;0.7755;
1138.2000;0.4689;0.7802;
1138.5000;0.4681;0.7825;
1138.8000;0.4672;0.7825;
1139.1000;0.4721;0.8034;
1139.4000;0.4697;0.8080;
1139.7000;0.4689;0.8080;
1140.0000;0.4583;0.7755;
1140.3000;0.4672;0.7964;
1140.6000;0.4697;0.7987;
1140.9000;0.4624;0.7616;
1141.2000;0.4664;0.7709;
1141.5000;0.4786;0.7987;
1141.8000;0.4681;0.7778;
1142.1000;0.4689;0.7941;
1142.4000;0.4689;0.7918;
1142.7000;0.4689;0.7895;
1143.0000;0.4689;0.7895;
1143.3000;0.4672;0.7871;
1143.6000;0.4681;0.7825;
1143.9000;0.4672;0.7709;
1144.2000;0.4624;0.7570;
1144.5000;0.4672;0.7732;
1144.8000;0.4672;0.7755;
1145.1000;0.4689;0.7802;
1145.4000;0.4681;0.7848;
1145.7000;0.4713;0.7918;
1146.0000;0.4689;0.7802;
1146.3000;0.4697;0.7848;
1146.6000;0.4697;0.7871;
1146.9000;0.4615;0.7616;
1147.2000;0.4705;0.7848;
1147.5000;0.4689;0.7848;
1147.8000;0.4681;0.7802;
1148.1000;0.4672;0.7709;
1148.4000;0.4672;0.7848;
1148.7000;0.4689;0.7825;
1149.0000;0.4681;0.7709;
1149.3000;0.4721;0.7755;
1149.6000;0.4689;0.7709;
1149.9000;0.4689;0.7732;
1150.2000;0.4721;0.7848;
1150.5000;0.4689;0.7755;
1150.8000;0.4689;0.7825;
1151.1000;0.4689;0.7732;
1151.4000;0.4656;0.7778;
1151.7000;0.4681;0.7778;
1152.0000;0.4664;0.7639;
1152.3000;0.4624;0.7546;
1152.6000;0.4681;0.7709;
1152.9000;0.4656;0.7639;
1153.2000;0.4681;0.7825;
1153.5000;0.4689;0.7941;
1153.8000;0.4664;0.7918;
1154.1000;0.4689;0.7895;
1154.4000;0.4656;0.7918;
1154.7000;0.4681;0.7941;
1155.0000;0.4689;0.8011;
1155.3000;0.4689;0.8104;
1155.6000;0.4672;0.8104;
1155.9000;0.4672;0.8034;
1156.2000;0.4656;0.8057;
1156.5000;0.4681;0.8080;
1156.8000;0.4664;0.8127;
1157.1000;0.4664;0.8080;
1157.4000;0.4681;0.8150;
1157.7000;0.4664;0.8104;
1158.0000;0.4648;0.8011;
1158.3000;0.4672;0.8057;
1158.6000;0.4664;0.8057;
1158.9000;0.4664;0.8104;
1159.2000;0.4672;0.8150;
1159.5000;0.4681;0.8080;
1159.8000;0.4672;0.8034;
1160.1000;0.4656;0.8104;
1160.4000;0.4672;0.8173;
1160.7000;0.4689;0.8080;
1161.0000;0.4672;0.8127;
1161.3000;0.4648;0.8034;
1161.6000;0.4697;0.8173;
1161.9000;0.4705;0.8150;
1162.2000;0.4664;0.7987;
1162.5000;0.4672;0.7918;
1162.8000;0.4656;0.7941;
1163.1000;0.4664;0.7941;
1163.4000;0.4672;0.7941;
1163.7000;0.4705;0.7987;
1164.0000;0.4664;0.7895;
1164.3000;0.4681;0.8011;
1164.6000;0.4746;0.8220;
1164.9000;0.4648;0.8034;
1165.2000;0.4672;0.8080;
1165.5000;0.4664;0.8034;
1165.8000;0.4689;0.8057;
1166.1000;0.4640;0.7848;
1166.4000;0.4672;0.7918;
1166.7000;0.4672;0.7895;
1167.0000;0.4737;0.8034;
1167.3000;0.4689;0.7987;
1167.6000;0.4786;0.8220;
1167.9000;0.4689;0.7941;
1168.2000;0.4681;0.7871;
1168.5000;0.4746;0.8034;
1168.8000;0.4697;0.7825;
1169.1000;0.4681;0.7755;
1169.4000;0.4681;0.7686;
1169.7000;0.4681;0.7686;
1170.0000;0.4672;0.7732;
1170.3000;0.4681;0.7941;
1170.6000;0.4648;0.7848;
1170.9000;0.4681;0.7895;
1171.2000;0.4697;0.8011;
1171.5000;0.4681;0.7987;
1171.8000;0.4656;0.8011;
1172.1000;0.4786;0.8266;
1172.4000;0.4705;0.7941;
1172.7000;0.4672;0.7848;
1173.0000;0.4689;0.7895;
1173.3000;0.4624;0.7709;
1173.6000;0.4689;0.7871;
1173.9000;0.4681;0.7918;
1174.2000;0.4721;0.8127;
1174.5000;0.4681;0.7964;
1174.8000;0.4672;0.7895;
1175.1000;0.4737;0.7941;
1175.4000;0.4786;0.8034;
1175.7000;0.4689;0.7732;
1176.0000;0.4672;0.7709;
1176.3000;0.4705;0.7732;
1176.6000;0.4689;0.7755;
1176.9000;0.4664;0.7662;
1177.2000;0.4607;0.7477;
1177.5000;0.4672;0.7732;
1177.8000;0.4656;0.7639;
1178.1000;0.4664;0.7616;
1178.4000;0.4672;0.7593;
1178.7000;0.4672;0.7662;
1179.0000;0.4672;0.7686;
1179.3000;0.4664;0.7778;
1179.6000;0.4681;0.7871;
1179.9000;0.4648;0.7848;
1180.2000;0.4664;0.7918;
1180.5000;0.4672;0.7941;
1180.8000;0.4681;0.7895;
1181.1000;0.4672;0.7987;
1181.4000;0.4689;0.8034;
1181.7000;0.4721;0.8127;
1182.0000;0.4664;0.8034;
1182.3000;0.4640;0.7964;
1182.6000;0.4681;0.8011;
1182.9000;0.4664;0.7987;
1183.2000;0.4672;0.8034;
1183.5000;0.4672;0.7918;
1183.8000;0.4656;0.7755;
1184.1000;0.4689;0.7871;
1184.4000;0.4681;0.7871;
1184.7000;0.4689;0.7871;
1185.0000;0.4648;0.7825;
1185.3000;0.4721;0.7918;
1185.6000;0.4648;0.7848;
1185.9000;0.4656;0.7778;
1186.2000;0.4689;0.7871;
1186.5000;0.4721;0.7987;
1186.8000;0.4664;0.7895;
1187.1000;0.4672;0.7964;
1187.4000;0.4672;0.7941;
1187.7000;0.4697;0.7918;
1188.0000;0.4664;0.7895;
1188.3000;0.4672;0.7987;
1188.6000;0.4632;0.7987;
1188.9000;0.4648;0.8034;
1189.2000;0.4672;0.8011;
1189.5000;0.4664;0.7987;
1189.8000;0.4648;0.8011;
1190.1000;0.4705;0.8127;
1190.4000;0.4689;0.8104;
1190.7000;0.4689;0.8173;
1191.0000;0.4689;0.8057;
1191.3000;0.4681;0.8034;
1191.6000;0.4672;0.8034;
1191.9000;0.4681;0.8011;
1192.2000;0.4672;0.7987;
1192.5000;0.4672;0.7871;
1192.8000;0.4664;0.7802;
1193.1000;0.4664;0.7848;
1193.4000;0.4672;0.7825;
1193.7000;0.4648;0.7871;
1194.0000;0.4656;0.7918;
1194.3000;0.4672;0.7964;
1194.6000;0.4672;0.7918;
1194.9000;0.4664;0.8057;
1195.2000;0.4689;0.8127;
1195.5000;0.4713;0.8243;
1195.8000;0.4697;0.8289;
1196.1000;0.4672;0.8266;
1196.4000;0.4615;0.8057;
1196.7000;0.4664;0.8196;
1197.0000;0.4672;0.8196;
1197.3000;0.4681;0.8220;
1197.6000;0.4664;0.8196;
1197.9000;0.4689;0.8289;
1198.2000;0.4640;0.8127;
1198.5000;0.4648;0.8220;
1198.8000;0.4648;0.8243;
1199.1000;0.4729;0.8313;
1199.4000;0.4689;0.8127;
1199.7000;0.4656;0.8080;
1200.0000;0.4705;0.8243;
1200.3000;0.4672;0.8173;
1200.6000;0.4681;0.8196;
1200.9000;0.4689;0.8220;
1201.2000;0.4656;0.8104;
1201.5000;0.4648;0.8173;
1201.8000;0.4672;0.8289;
1202.1000;0.4672;0.8359;
1202.4000;0.4681;0.8313;
1202.7000;0.4664;0.8266;
1203.0000;0.4681;0.8266;
1203.3000;0.4656;0.8220;
1203.6000;0.4681;0.8289;
1203.9000;0.4656;0.8266;
1204.2000;0.4689;0.8313;
1204.5000;0.4664;0.8243;
1204.8000;0.4672;0.8220;
1205.1000;0.4672;0.8220;
1205.4000;0.4664;0.8150;
1205.7000;0.4681;0.8127;
1206.0000;0.4697;0.8127;
1206.3000;0.4672;0.8104;
1206.6000;0.4672;0.8127;
1206.9000;0.4672;0.8127;
1207.2000;0.4664;0.8057;
1207.5000;0.4656;0.7987;
1207.8000;0.4664;0.8080;
1208.1000;0.4721;0.8173;
1208.4000;0.4681;0.8057;
1208.7000;0.4672;0.8034;
1209.0000;0.4713;0.8173;
1209.3000;0.4737;0.8150;
1209.6000;0.4672;0.8080;
1209.9000;0.4754;0.8173;
1210.2000;0.4664;0.8034;
1210.5000;0.4664;0.8104;
1210.8000;0.4681;0.8266;
1211.1000;0.4681;0.8336;
1211.4000;0.4672;0.8336;
1211.7000;0.4681;0.8289;
1212.0000;0.4681;0.8289;
1212.3000;0.4713;0.8336;
1212.6000;0.4672;0.8220;
1212.9000;0.4737;0.8359;
1213.2000;0.4672;0.8266;
1213.5000;0.4640;0.8173;
1213.8000;0.4672;0.8243;
1214.1000;0.4672;0.8266;
1214.4000;0.4607;0.8011;
1214.7000;0.4762;0.8313;
1215.0000;0.4664;0.8080;
1215.3000;0.4681;0.8104;
1215.6000;0.4689;0.8243;
1215.9000;0.4689;0.8266;
1216.2000;0.4672;0.8150;
1216.5000;0.4689;0.8080;
1216.8000;0.4705;0.8196;
1217.1000;0.4664;0.8034;
1217.4000;0.4664;0.8057;
1217.7000;0.4672;0.7987;
1218.0000;0.4664;0.7918;
1218.3000;0.4689;0.7987;
1218.6000;0.4632;0.7871;
1218.9000;0.4656;0.7964;
1219.2000;0.4713;0.8173;
1219.5000;0.4689;0.8150;
1219.8000;0.4705;0.8289;
1220.1000;0.4664;0.8196;
1220.4000;0.4681;0.8243;
1220.7000;0.4681;0.8196;
1221.0000;0.4689;0.8336;
1221.3000;0.4656;0.8220;
1221.6000;0.4624;0.8080;
1221.9000;0.4681;0.8196;
1222.2000;0.4672;0.8104;
1222.5000;0.4689;0.8080;
1222.8000;0.4583;0.7895;
1223.1000;0.4632;0.8057;
1223.4000;0.4656;0.8173;
1223.7000;0.4648;0.8173;
1224.0000;0.4689;0.8243;
1224.3000;0.4607;0.8011;
1224.6000;0.4672;0.8173;
1224.9000;0.4681;0.8243;
1225.2000;0.4672;0.8220;
1225.5000;0.4697;0.8243;
1225.8000;0.4672;0.8266;
1226.1000;0.4656;0.8243;
1226.4000;0.4664;0.8127;
1226.7000;0.4664;0.8173;
1227.0000;0.4664;0.8034;
1227.3000;0.4697;0.8127;
1227.6000;0.4681;0.8127;
1227.9000;0.4656;0.8104;
1228.2000;0.4656;0.8080;
1228.5000;0.4672;0.8150;
1228.8000;0.4672;0.8080;
1229.1000;0.4640;0.8011;
1229.4000;0.4648;0.8011;
1229.7000;0.4664;0.8080;
1230.0000;0.4681;0.8080;
1230.3000;0.4721;0.8080;
1230.6000;0.4689;0.8057;
1230.9000;0.4672;0.7987;
1231.2000;0.4697;0.8011;
1231.5000;0.4697;0.7964;
1231.8000;0.4664;0.7941;
1232.1000;0.4672;0.7941;
1232.4000;0.4648;0.7941;
1232.7000;0.4681;0.8080;
1233.0000;0.4664;0.8127;
1233.3000;0.4656;0.8104;
1233.6000;0.4681;0.8173;
1233.9000;0.4681;0.8220;
1234.2000;0.4672;0.8127;
1234.5000;0.4648;0.7964;
1234.8000;0.4656;0.8080;
1235.1000;0.4681;0.8150;
1235.4000;0.4681;0.8196;
1235.7000;0.4664;0.8150;
1236.0000;0.4689;0.8196;
1236.3000;0.4672;0.8150;
1236.6000;0.4681;0.8104;
1236.9000;0.4681;0.8080;
1237.2000;0.4664;0.8104;
1237.5000;0.4583;0.7941;
1237.8000;0.4664;0.8220;
1238.1000;0.4664;0.8266;
1238.4000;0.4672;0.8150;
1238.7000;0.4656;0.8080;
1239.0000;0.4672;0.8150;
1239.3000;0.4664;0.8127;
1239.6000;0.4672;0.8104;
1239.9000;0.4672;0.8150;
1240.2000;0.4681;0.8127;
1240.5000;0.4672;0.8266;
1240.8000;0.4656;0.8289;
1241.1000;0.4664;0.8243;
1241.4000;0.4689;0.8243;
1241.7000;0.4681;0.8150;
1242.0000;0.4681;0.8173;
1242.3000;0.4648;0.8127;
1242.6000;0.4672;0.8196;
1242.9000;0.4689;0.8289;
1243.2000;0.4672;0.8289;
1243.5000;0.4664;0.8313;
1243.8000;0.4672;0.8382;
1244.1000;0.4664;0.8359;
1244.4000;0.4721;0.8568;
1244.7000;0.4689;0.8452;
1245.0000;0.4672;0.8405;
1245.3000;0.4664;0.8382;
1245.6000;0.4672;0.8429;
1245.9000;0.4664;0.8359;
1246.2000;0.4624;0.8313;
1246.5000;0.4672;0.8429;
1246.8000;0.4672;0.8382;
1247.1000;0.4656;0.8173;
1247.4000;0.4656;0.8220;
1247.7000;0.4664;0.8220;
1248.0000;0.4689;0.8289;
1248.3000;0.4664;0.8243;
1248.6000;0.4656;0.8243;
1248.9000;0.4664;0.8289;
1249.2000;0.4648;0.8220;
1249.5000;0.4656;0.8196;
1249.8000;0.4681;0.8220;
1250.1000;0.4664;0.8173;
1250.4000;0.4705;0.8313;
1250.7000;0.4681;0.8313;
1251.0000;0.4689;0.8313;
1251.3000;0.4672;0.8313;
1251.6000;0.4672;0.8289;
1251.9000;0.4689;0.8405;
1252.2000;0.4705;0.8405;
1252.5000;0.4664;0.8243;
1252.8000;0.4664;0.8173;
1253.1000;0.4689;0.8150;
1253.4000;0.4689;0.8173;
1253.7000;0.4681;0.8196;
1254.0000;0.4689;0.8336;
1254.3000;0.4672;0.8336;
1254.6000;0.4697;0.8359;
1254.9000;0.4697;0.8359;
1255.2000;0.4721;0.8382;
1255.5000;0.4681;0.8289;
1255.8000;0.4689;0.8429;
1256.1000;0.4656;0.8313;
1256.4000;0.4599;0.8127;
1256.7000;0.4681;0.8289;
1257.0000;0.4640;0.8220;
1257.3000;0.4672;0.8405;
1257.6000;0.4672;0.8313;
1257.9000;0.4656;0.8289;
1258.2000;0.4664;0.8382;
1258.5000;0.4656;0.8243;
1258.8000;0.4624;0.8127;
1259.1000;0.4664;0.8243;
1259.4000;0.4664;0.8173;
1259.7000;0.4664;0.8173;
1260.0000;0.4656;0.8243;
1260.3000;0.4648;0.8150;
1260.6000;0.4656;0.8243;
1260.9000;0.4672;0.8405;
1261.2000;0.4640;0.8289;
1261.5000;0.4656;0.8359;
1261.8000;0.4656;0.8405;
1262.1000;0.4689;0.8405;
1262.4000;0.4664;0.8452;
1262.7000;0.4664;0.8405;
1263.0000;0.4672;0.8405;
1263.3000;0.4648;0.8336;
1263.6000;0.4672;0.8266;
1263.9000;0.4705;0.8359;
1264.2000;0.4656;0.8196;
1264.5000;0.4672;0.8196;
1264.8000;0.4664;0.8196;
1265.1000;0.4664;0.8196;
1265.4000;0.4672;0.8173;
1265.7000;0.4689;0.8243;
1266.0000;0.4681;0.8243;
1266.3000;0.4681;0.8150;
1266.6000;0.4664;0.8150;
1266.9000;0.4762;0.8405;
1267.2000;0.4697;0.8266;
1267.5000;0.4624;0.8150;
1267.8000;0.4672;0.8243;
1268.1000;0.4640;0.8057;
1268.4000;0.4737;0.8382;
1268.7000;0.4672;0.8266;
1269.0000;0.4713;0.8266;
1269.3000;0.4664;0.8104;
1269.6000;0.4615;0.7871;
1269.9000;0.4689;0.8057;
1270.2000;0.4672;0.8011;
1270.5000;0.4648;0.8080;
1270.8000;0.4664;0.8080;
1271.1000;0.4672;0.8057;
1271.4000;0.4648;0.8080;
1271.7000;0.4656;0.8080;
1272.0000;0.4624;0.8034;
1272.3000;0.4737;0.8382;
1272.6000;0.4681;0.8243;
1272.9000;0.4672;0.8173;
1273.2000;0.4648;0.8173;
1273.5000;0.4672;0.8173;
1273.8000;0.4689;0.8150;
1274.1000;0.4697;0.8173;
1274.4000;0.4689;0.8150;
1274.7000;0.4656;0.8104;
1275.0000;0.4681;0.8150;
1275.3000;0.4664;0.8127;
1275.6000;0.4672;0.8127;
1275.9000;0.4689;0.8196;
1276.2000;0.4689;0.8196;
1276.5000;0.4697;0.8196;
1276.8000;0.4672;0.8150;
1277.1000;0.4681;0.8150;
1277.4000;0.4705;0.8127;
1277.7000;0.4648;0.7941;
1278.0000;0.4681;0.8104;
1278.3000;0.4681;0.8196;
1278.6000;0.4689;0.8220;
1278.9000;0.4681;0.8150;
1279.2000;0.4640;0.7941;
1279.5000;0.4664;0.7895;
1279.8000;0.4681;0.7964;
1280.1000;0.4697;0.8104;
1280.4000;0.4746;0.8243;
1280.7000;0.4672;0.8104;
1281.0000;0.4672;0.8127;
1281.3000;0.4672;0.8127;
1281.6000;0.4656;0.8034;
1281.9000;0.4648;0.7987;
1282.2000;0.4721;0.8173;
1282.5000;0.4681;0.8127;
1282.8000;0.4689;0.8150;
1283.1000;0.4656;0.8104;
1283.4000;0.4656;0.8127;
1283.7000;0.4672;0.8173;
1284.0000;0.4689;0.8196;
1284.3000;0.4664;0.8080;
1284.6000;0.4648;0.8080;
1284.9000;0.4656;0.8173;
1285.2000;0.4689;0.8359;
1285.5000;0.4778;0.8568;
1285.8000;0.4689;0.8313;
1286.1000;0.4632;0.8127;
1286.4000;0.4672;0.8220;
1286.7000;0.4664;0.8266;
1287.0000;0.4672;0.8220;
1287.3000;0.4697;0.8266;
1287.6000;0.4681;0.8243;
1287.9000;0.4697;0.8289;
1288.2000;0.4672;0.8266;
1288.5000;0.4721;0.8382;
1288.8000;0.4664;0.8266;
1289.1000;0.4648;0.8173;
1289.4000;0.4672;0.8220;
1289.7000;0.4672;0.8313;
1290.0000;0.4778;0.8545;
1290.3000;0.4681;0.8266;
1290.6000;0.4640;0.8104;
1290.9000;0.4681;0.8243;
1291.2000;0.4624;0.8150;
1291.5000;0.4672;0.8220;
1291.8000;0.4664;0.8150;
1292.1000;0.4664;0.8127;
1292.4000;0.4689;0.8104;
1292.7000;0.4697;0.8150;
1293.0000;0.4762;0.8382;
1293.3000;0.4762;0.8336;
1293.6000;0.4681;0.8127;
1293.9000;0.4754;0.8382;
1294.2000;0.4681;0.8266;
1294.5000;0.4664;0.8150;
1294.8000;0.4656;0.8127;
1295.1000;0.4681;0.8196;
1295.4000;0.4689;0.8243;
1295.7000;0.4632;0.8127;
1296.0000;0.4648;0.8150;
1296.3000;0.4648;0.8220;
1296.6000;0.4672;0.8289;
1296.9000;0.4664;0.8243;
1297.2000;0.4713;0.8289;
1297.5000;0.4689;0.8243;
1297.8000;0.4672;0.8196;
1298.1000;0.4672;0.8220;
1298.4000;0.4697;0.8243;
1298.7000;0.4615;0.8011;
1299.0000;0.4664;0.8173;
1299.3000;0.4672;0.8104;
1299.6000;0.4689;0.8057;
1299.9000;0.4689;0.8104;
1300.2000;0.4681;0.8127;
1300.5000;0.4681;0.8127;
1300.8000;0.4664;0.8173;
1301.1000;0.4713;0.8313;
1301.4000;0.4697;0.8313;
1301.7000;0.4656;0.8173;
1302.0000;0.4664;0.8150;
1302.3000;0.4656;0.8243;
1302.6000;0.4656;0.8196;
1302.9000;0.4697;0.8289;
1303.2000;0.4672;0.8313;
1303.5000;0.4672;0.8313;
1303.8000;0.4689;0.8359;
1304.1000;0.4664;0.8382;
1304.4000;0.4656;0.8336;
1304.7000;0.4664;0.8336;
1305.0000;0.4681;0.8359;
1305.3000;0.4681;0.8336;
1305.6000;0.4737;0.8429;
1305.9000;0.4672;0.8289;
1306.2000;0.4615;0.8127;
1306.5000;0.4664;0.8243;
1306.8000;0.4648;0.8196;
1307.1000;0.4681;0.8104;
1307.4000;0.4624;0.7964;
1307.7000;0.4681;0.8150;
1308.0000;0.4689;0.8196;
1308.3000;0.4681;0.8173;
1308.6000;0.4648;0.8196;
1308.9000;0.4689;0.8359;
1309.2000;0.4681;0.8313;
1309.5000;0.4632;0.8220;
1309.8000;0.4672;0.8220;
1310.1000;0.4656;0.8150;
1310.4000;0.4681;0.8173;
1310.7000;0.4705;0.8243;
1311.0000;0.4656;0.8220;
1311.3000;0.4689;0.8173;
1311.6000;0.4713;0.8150;
1311.9000;0.4713;0.8127;
1312.2000;0.4656;0.8011;
1312.5000;0.4624;0.7895;
1312.8000;0.4672;0.8034;
1313.1000;0.4672;0.8080;
1313.4000;0.4713;0.8150;
1313.7000;0.4689;0.8080;
1314.0000;0.4672;0.8080;
1314.3000;0.4697;0.8127;
1314.6000;0.4681;0.8127;
1314.9000;0.4681;0.8196;
1315.2000;0.4648;0.8173;
1315.5000;0.4697;0.8313;
1315.8000;0.4689;0.8289;
1316.1000;0.4664;0.8243;
1316.4000;0.4705;0.8289;
1316.7000;0.4672;0.8150;
1317.0000;0.4672;0.8127;
1317.3000;0.4664;0.8104;
1317.6000;0.4648;0.8150;
1317.9000;0.4681;0.8173;
1318.2000;0.4640;0.8080;
1318.5000;0.4656;0.8104;
1318.8000;0.4681;0.8104;
1319.1000;0.4664;0.8104;
1319.4000;0.4672;0.8150;
1319.7000;0.4672;0.8266;
1320.0000;0.4664;0.8196;
1320.3000;0.4656;0.8127;
1320.6000;0.4689;0.8150;
1320.9000;0.4672;0.8034;
1321.2000;0.4729;0.8127;
1321.5000;0.4656;0.8150;
1321.8000;0.4648;0.8173;
1322.1000;0.4681;0.8243;
1322.4000;0.4664;0.8266;
1322.7000;0.4656;0.8313;
1323.0000;0.4681;0.8429;
1323.3000;0.4672;0.8336;
1323.6000;0.4656;0.8243;
1323.9000;0.4681;0.8266;
1324.2000;0.4681;0.8150;
1324.5000;0.4672;0.8011;
1324.8000;0.4664;0.8080;
1325.1000;0.4672;0.8104;
1325.4000;0.4656;0.7987;
1325.7000;0.4656;0.8057;
1326.0000;0.4664;0.8196;
1326.3000;0.4697;0.8336;
1326.6000;0.4656;0.8266;
1326.9000;0.4648;0.8266;
1327.2000;0.4689;0.8313;
1327.5000;0.4697;0.8289;
1327.8000;0.4648;0.8034;
1328.1000;0.4672;0.7895;
1328.4000;0.4689;0.7895;
1328.7000;0.4672;0.7732;
1329.0000;0.4672;0.7616;
1329.3000;0.4624;0.7453;
1329.6000;0.4721;0.7848;
1329.9000;0.4681;0.7778;
1330.2000;0.4656;0.7778;
1330.5000;0.4656;0.7709;
1330.8000;0.4672;0.7732;
1331.1000;0.4656;0.7709;
1331.4000;0.4664;0.7732;
1331.7000;0.4672;0.7755;
1332.0000;0.4656;0.7755;
1332.3000;0.4664;0.7778;
1332.6000;0.4664;0.7639;
1332.9000;0.4672;0.7616;
1333.2000;0.4656;0.7546;
1333.5000;0.4664;0.7593;
1333.8000;0.4681;0.7686;
1334.1000;0.4672;0.7778;
1334.4000;0.4697;0.7732;
1334.7000;0.4705;0.7802;
1335.0000;0.4672;0.7848;
1335.3000;0.4664;0.7825;
1335.6000;0.4681;0.7918;
1335.9000;0.4664;0.7802;
1336.2000;0.4656;0.7848;
1336.5000;0.4697;0.7987;
1336.8000;0.4672;0.7941;
1337.1000;0.4664;0.7964;
1337.4000;0.4672;0.7987;
1337.7000;0.4681;0.8104;
1338.0000;0.4664;0.8034;
1338.3000;0.4664;0.7964;
1338.6000;0.4681;0.7987;
1338.9000;0.4664;0.8034;
1339.2000;0.4681;0.7964;
1339.5000;0.4681;0.7987;
1339.8000;0.4689;0.7964;
1340.1000;0.4681;0.7941;
1340.4000;0.4672;0.7918;
1340.7000;0.4689;0.8011;
1341.0000;0.4689;0.8127;
1341.3000;0.4672;0.7964;
1341.6000;0.4656;0.7964;
1341.9000;0.4672;0.7918;
1342.2000;0.4640;0.7778;
1342.5000;0.4648;0.7732;
1342.8000;0.4664;0.7732;
1343.1000;0.4664;0.7778;
1343.4000;0.4664;0.7802;
1343.7000;0.4672;0.7848;
1344.0000;0.4681;0.7964;
1344.3000;0.4656;0.7987;
1344.6000;0.4656;0.8057;
1344.9000;0.4664;0.8080;
1345.2000;0.4705;0.8266;
1345.5000;0.4689;0.8243;
1345.8000;0.4681;0.8173;
1346.1000;0.4664;0.8127;
1346.4000;0.4607;0.7895;
1346.7000;0.4689;0.8104;
1347.0000;0.4664;0.8011;
1347.3000;0.4681;0.8150;
1347.6000;0.4689;0.8196;
1347.9000;0.4648;0.8150;
1348.2000;0.4656;0.8173;
1348.5000;0.4672;0.8196;
1348.8000;0.4672;0.8196;
1349.1000;0.4664;0.8150;
1349.4000;0.4697;0.8266;
1349.7000;0.4656;0.8196;
1350.0000;0.4681;0.8173;
1350.3000;0.4672;0.8080;
1350.6000;0.4689;0.8127;
1350.9000;0.4681;0.8173;
1351.2000;0.4664;0.8034;
1351.5000;0.4664;0.7941;
1351.8000;0.4672;0.7895;
1352.1000;0.4664;0.7895;
1352.4000;0.4681;0.7964;
1352.7000;0.4672;0.8011;
1353.0000;0.4648;0.7964;
1353.3000;0.4681;0.8127;
1353.6000;0.4672;0.8080;
1353.9000;0.4689;0.8127;
1354.2000;0.4697;0.8150;
1354.5000;0.4640;0.8173;
1354.8000;0.4672;0.8289;
1355.1000;0.4689;0.8313;
1355.4000;0.4672;0.8243;
1355.7000;0.4672;0.8336;
1356.0000;0.4681;0.8196;
1356.3000;0.4681;0.8220;
1356.6000;0.4672;0.8243;
1356.9000;0.4672;0.8127;
1357.2000;0.4672;0.8150;
1357.5000;0.4648;0.8196;
1357.8000;0.4672;0.8289;
1358.1000;0.4697;0.8429;
1358.4000;0.4656;0.8405;
1358.7000;0.4681;0.8289;
1359.0000;0.4672;0.8289;
1359.3000;0.4664;0.8266;
1359.6000;0.4672;0.8243;
1359.9000;0.4672;0.8289;
1360.2000;0.4697;0.8289;
1360.5000;0.4672;0.8243;
1360.8000;0.4672;0.8359;
1361.1000;0.4591;0.8127;
1361.4000;0.4697;0.8359;
1361.7000;0.4681;0.8336;
1362.0000;0.4672;0.8266;
1362.3000;0.4648;0.8150;
1362.6000;0.4648;0.8173;
1362.9000;0.4672;0.8382;
1363.2000;0.4599;0.8104;
1363.5000;0.4681;0.8266;
1363.8000;0.4672;0.8289;
1364.1000;0.4624;0.8127;
1364.4000;0.4640;0.8196;
1364.7000;0.4681;0.8313;
1365.0000;0.4672;0.8359;
1365.3000;0.4681;0.8405;
1365.6000;0.4672;0.8313;
1365.9000;0.4697;0.8313;
1366.2000;0.4648;0.8173;
1366.5000;0.4664;0.8266;
1366.8000;0.4681;0.8266;
1367.1000;0.4689;0.8243;
1367.4000;0.4624;0.8173;
1367.7000;0.4664;0.8220;
1368.0000;0.4689;0.8266;
1368.3000;0.4689;0.8266;
1368.6000;0.4656;0.8127;
1368.9000;0.4672;0.8150;
1369.2000;0.4591;0.7918;
1369.5000;0.4681;0.8104;
1369.8000;0.4664;0.8196;
1370.1000;0.4664;0.8173;
1370.4000;0.4705;0.8382;
1370.7000;0.4672;0.8266;
1371.0000;0.4648;0.8080;
1371.3000;0.4681;0.8173;
1371.6000;0.4697;0.8266;
1371.9000;0.4681;0.8266;
1372.2000;0.4648;0.8266;
1372.5000;0.4664;0.8266;
1372.8000;0.4664;0.8313;
1373.1000;0.4656;0.8289;
1373.4000;0.4689;0.8429;
1373.7000;0.4672;0.8429;
1374.0000;0.4713;0.8498;
1374.3000;0.4689;0.8452;
1374.6000;0.4762;0.8591;
1374.9000;0.4681;0.8382;
1375.2000;0.4681;0.8359;
1375.5000;0.4664;0.8359;
1375.8000;0.4681;0.8336;
1376.1000;0.4672;0.8313;
1376.4000;0.4656;0.8173;
1376.7000;0.4672;0.8196;
1377.0000;0.4713;0.8220;
1377.3000;0.4778;0.8359;
1377.6000;0.4689;0.8104;
1377.9000;0.4754;0.8313;
1378.2000;0.4664;0.8080;
1378.5000;0.4664;0.8080;
1378.8000;0.4656;0.8080;
1379.1000;0.4672;0.8173;
1379.4000;0.4697;0.8104;
1379.7000;0.4689;0.8173;
1380.0000;0.4664;0.8150;
1380.3000;0.4615;0.8034;
1380.6000;0.4656;0.8266;
1380.9000;0.4656;0.8266;
1381.2000;0.4672;0.8313;
1381.5000;0.4672;0.8243;
1381.8000;0.4697;0.8243;
1382.1000;0.4689;0.8196;
1382.4000;0.4697;0.8173;
1382.7000;0.4689;0.8104;
1383.0000;0.4681;0.8104;
1383.3000;0.4607;0.7964;
1383.6000;0.4705;0.8313;
1383.9000;0.4672;0.8289;
1384.2000;0.4681;0.8243;
1384.5000;0.4681;0.8220;
1384.8000;0.4689;0.8196;
1385.1000;0.4656;0.8127;
1385.4000;0.4689;0.8173;
1385.7000;0.4681;0.8150;
1386.0000;0.4624;0.7987;
1386.3000;0.4656;0.8011;
1386.6000;0.4599;0.7918;
1386.9000;0.4656;0.8150;
1387.2000;0.4681;0.8220;
1387.5000;0.4697;0.8313;
1387.8000;0.4681;0.8289;
1388.1000;0.4681;0.8313;
1388.4000;0.4615;0.8220;
1388.7000;0.4664;0.8382;
1389.0000;0.4681;0.8359;
1389.3000;0.4681;0.8382;
1389.6000;0.4689;0.8475;
1389.9000;0.4689;0.8498;
1390.2000;0.4672;0.8475;
1390.5000;0.4681;0.8475;
1390.8000;0.4705;0.8382;
1391.1000;0.4697;0.8313;
1391.4000;0.4689;0.8220;
1391.7000;0.4681;0.8266;
1392.0000;0.4672;0.8243;
1392.3000;0.4689;0.8243;
1392.6000;0.4705;0.8336;
1392.9000;0.4664;0.8243;
1393.2000;0.4672;0.8289;
1393.5000;0.4664;0.8405;
1393.8000;0.4656;0.8475;
1394.1000;0.4648;0.8591;
1394.4000;0.4624;0.8498;
1394.7000;0.4664;0.8498;
1395.0000;0.4632;0.8313;
1395.3000;0.4697;0.8405;
1395.6000;0.4640;0.8243;
1395.9000;0.4689;0.8289;
1396.2000;0.4656;0.8220;
1396.5000;0.4737;0.8289;
1396.8000;0.4672;0.8104;
1397.1000;0.4672;0.8104;
1397.4000;0.4632;0.8080;
1397.7000;0.4672;0.8173;
1398.0000;0.4632;0.8080;
1398.3000;0.4672;0.8196;
1398.6000;0.4591;0.8080;
1398.9000;0.4689;0.8429;
1399.2000;0.4664;0.8359;
1399.5000;0.4681;0.8266;
1399.8000;0.4664;0.8220;
