time/ms;Fluo/V;P700 deltaI/I x10³;
-199.8000;0.5682;0.8196;
-199.5000;0.5682;0.8150;
-199.2000;0.5698;0.8150;
-198.9000;0.5665;0.8080;
-198.6000;0.5682;0.8104;
-198.3000;0.5625;0.7895;
-198.0000;0.5698;0.8057;
-197.7000;0.5682;0.8080;
-197.4000;0.5698;0.8034;
-197.1000;0.5690;0.8034;
-196.8000;0.5706;0.8080;
-196.5000;0.5714;0.8150;
-196.2000;0.5690;0.8127;
-195.9000;0.5682;0.8104;
-195.6000;0.5690;0.8080;
-195.3000;0.5706;0.8127;
-195.0000;0.5665;0.7987;
-194.7000;0.5665;0.7964;
-194.4000;0.5682;0.7871;
-194.1000;0.5690;0.7918;
-193.8000;0.5682;0.7825;
-193.5000;0.5674;0.7825;
-193.2000;0.5690;0.7802;
-192.9000;0.5641;0.7732;
-192.6000;0.5682;0.7895;
-192.3000;0.5690;0.7941;
-192.0000;0.5698;0.7941;
-191.7000;0.5706;0.7964;
-191.4000;0.5682;0.7941;
-191.1000;0.5706;0.7987;
-190.8000;0.5690;0.7941;
-190.5000;0.5674;0.7941;
-190.2000;0.5682;0.7871;
-189.9000;0.5698;0.7871;
-189.6000;0.5674;0.7825;
-189.3000;0.5690;0.7825;
-189.0000;0.5690;0.7871;
-188.7000;0.5722;0.7918;
-188.4000;0.5674;0.7802;
-188.1000;0.5674;0.7778;
-187.8000;0.5698;0.7802;
-187.5000;0.5657;0.7732;
-187.2000;0.5698;0.7778;
-186.9000;0.5698;0.7895;
-186.6000;0.5690;0.7918;
-186.3000;0.5682;0.7987;
-186.0000;0.5682;0.7964;
-185.7000;0.5698;0.8057;
-185.4000;0.5698;0.8150;
-185.1000;0.5698;0.8173;
-184.8000;0.5682;0.8080;
-184.5000;0.5682;0.8150;
-184.2000;0.5690;0.8173;
-183.9000;0.5674;0.8104;
-183.6000;0.5682;0.7987;
-183.3000;0.5682;0.7987;
-183.0000;0.5674;0.7987;
-182.7000;0.5682;0.8057;
-182.4000;0.5682;0.8057;
-182.1000;0.5690;0.8127;
-181.8000;0.5714;0.8173;
-181.5000;0.5690;0.8104;
-181.2000;0.5682;0.8104;
-180.9000;0.5674;0.8104;
-180.6000;0.5682;0.8173;
-180.3000;0.5690;0.8243;
-180.0000;0.5682;0.8243;
-179.7000;0.5706;0.8266;
-179.4000;0.5690;0.8150;
-179.1000;0.5690;0.8034;
-178.8000;0.5690;0.8057;
-178.5000;0.5714;0.8080;
-178.2000;0.5674;0.7987;
-177.9000;0.5674;0.8011;
-177.6000;0.5690;0.7987;
-177.3000;0.5690;0.8080;
-177.0000;0.5698;0.8057;
-176.7000;0.5682;0.7918;
-176.4000;0.5674;0.7964;
-176.1000;0.5682;0.7987;
-175.8000;0.5698;0.8034;
-175.5000;0.5690;0.8057;
-175.2000;0.5690;0.8034;
-174.9000;0.5698;0.8127;
-174.6000;0.5698;0.8057;
-174.3000;0.5657;0.7941;
-174.0000;0.5706;0.8080;
-173.7000;0.5641;0.7871;
-173.4000;0.5600;0.7709;
-173.1000;0.5682;0.7848;
-172.8000;0.5665;0.7848;
-172.5000;0.5690;0.7941;
-172.2000;0.5690;0.8057;
-171.9000;0.5698;0.8011;
-171.6000;0.5682;0.7964;
-171.3000;0.5682;0.7987;
-171.0000;0.5690;0.8034;
-170.7000;0.5657;0.7941;
-170.4000;0.5690;0.8057;
-170.1000;0.5698;0.8080;
-169.8000;0.5722;0.8196;
-169.5000;0.5706;0.8196;
-169.2000;0.5698;0.8150;
-168.9000;0.5690;0.8173;
-168.6000;0.5682;0.8220;
-168.3000;0.5665;0.8196;
-168.0000;0.5682;0.8243;
-167.7000;0.5641;0.8034;
-167.4000;0.5592;0.7825;
-167.1000;0.5682;0.8127;
-166.8000;0.5665;0.8173;
-166.5000;0.5682;0.8243;
-166.2000;0.5714;0.8266;
-165.9000;0.5698;0.8336;
-165.6000;0.5682;0.8289;
-165.3000;0.5690;0.8266;
-165.0000;0.5657;0.8243;
-164.7000;0.5714;0.8220;
-164.4000;0.5706;0.8080;
-164.1000;0.5649;0.8011;
-163.8000;0.5657;0.7964;
-163.5000;0.5690;0.8057;
-163.2000;0.5657;0.8057;
-162.9000;0.5682;0.7987;
-162.6000;0.5674;0.7964;
-162.3000;0.5657;0.7895;
-162.0000;0.5641;0.7848;
-161.7000;0.5682;0.7987;
-161.4000;0.5722;0.8011;
-161.1000;0.5682;0.8034;
-160.8000;0.5690;0.8104;
-160.5000;0.5698;0.8057;
-160.2000;0.5674;0.7918;
-159.9000;0.5682;0.7871;
-159.6000;0.5763;0.8057;
-159.3000;0.5714;0.8034;
-159.0000;0.5690;0.7964;
-158.7000;0.5690;0.7987;
-158.4000;0.5690;0.8011;
-158.1000;0.5722;0.8034;
-157.8000;0.5690;0.7987;
-157.5000;0.5690;0.8104;
-157.2000;0.5625;0.8080;
-156.9000;0.5657;0.8266;
-156.6000;0.5690;0.8429;
-156.3000;0.5682;0.8336;
-156.0000;0.5690;0.8289;
-155.7000;0.5665;0.8127;
-155.4000;0.5682;0.8173;
-155.1000;0.5690;0.8196;
-154.8000;0.5682;0.8150;
-154.5000;0.5690;0.8243;
-154.2000;0.5731;0.8382;
-153.9000;0.5690;0.8405;
-153.6000;0.5698;0.8475;
-153.3000;0.5714;0.8498;
-153.0000;0.5714;0.8521;
-152.7000;0.5690;0.8359;
-152.4000;0.5682;0.8359;
-152.1000;0.5682;0.8359;
-151.8000;0.5698;0.8336;
-151.5000;0.5682;0.8336;
-151.2000;0.5674;0.8313;
-150.9000;0.5674;0.8243;
-150.6000;0.5690;0.8196;
-150.3000;0.5682;0.8196;
-150.0000;0.5682;0.8220;
-149.7000;0.5665;0.8057;
-149.4000;0.5698;0.8104;
-149.1000;0.5690;0.8104;
-148.8000;0.5682;0.8127;
-148.5000;0.5690;0.8173;
-148.2000;0.5690;0.8150;
-147.9000;0.5690;0.8313;
-147.6000;0.5665;0.8313;
-147.3000;0.5674;0.8313;
-147.0000;0.5641;0.8266;
-146.7000;0.5698;0.8359;
-146.4000;0.5690;0.8220;
-146.1000;0.5682;0.8127;
-145.8000;0.5682;0.8104;
-145.5000;0.5706;0.8127;
-145.2000;0.5665;0.8080;
-144.9000;0.5828;0.8382;
-144.6000;0.5690;0.8057;
-144.3000;0.5706;0.8104;
-144.0000;0.5747;0.8173;
-143.7000;0.5690;0.8080;
-143.4000;0.5674;0.7987;
-143.1000;0.5706;0.8057;
-142.8000;0.5698;0.8011;
-142.5000;0.5665;0.7964;
-142.2000;0.5665;0.8011;
-141.9000;0.5674;0.8104;
-141.6000;0.5682;0.8173;
-141.3000;0.5682;0.8173;
-141.0000;0.5560;0.7848;
-140.7000;0.5698;0.8127;
-140.4000;0.5698;0.8173;
-140.1000;0.5763;0.8336;
-139.8000;0.5674;0.8034;
-139.5000;0.5731;0.8150;
-139.2000;0.5722;0.8011;
-138.9000;0.5674;0.7918;
-138.6000;0.5665;0.7918;
-138.3000;0.5682;0.7987;
-138.0000;0.5657;0.7918;
-137.7000;0.5674;0.7941;
-137.4000;0.5633;0.7825;
-137.1000;0.5665;0.7918;
-136.8000;0.5690;0.7918;
-136.5000;0.5682;0.7918;
-136.2000;0.5682;0.7895;
-135.9000;0.5682;0.7964;
-135.6000;0.5698;0.8080;
-135.3000;0.5722;0.8196;
-135.0000;0.5674;0.8150;
-134.7000;0.5674;0.8196;
-134.4000;0.5739;0.8313;
-134.1000;0.5698;0.8313;
-133.8000;0.5690;0.8243;
-133.5000;0.5706;0.8313;
-133.2000;0.5690;0.8266;
-132.9000;0.5682;0.8382;
-132.6000;0.5657;0.8266;
-132.3000;0.5649;0.8127;
-132.0000;0.5690;0.8289;
-131.7000;0.5657;0.8243;
-131.4000;0.5698;0.8243;
-131.1000;0.5682;0.8220;
-130.8000;0.5690;0.8289;
-130.5000;0.5739;0.8452;
-130.2000;0.5682;0.8336;
-129.9000;0.5706;0.8289;
-129.6000;0.5690;0.8173;
-129.3000;0.5690;0.8196;
-129.0000;0.5731;0.8359;
-128.7000;0.5682;0.8220;
-128.4000;0.5690;0.8173;
-128.1000;0.5633;0.8080;
-127.8000;0.5698;0.8289;
-127.5000;0.5796;0.8545;
-127.2000;0.5747;0.8498;
-126.9000;0.5706;0.8266;
-126.6000;0.5665;0.8173;
-126.3000;0.5674;0.8173;
-126.0000;0.5698;0.8266;
-125.7000;0.5682;0.8150;
-125.4000;0.5682;0.8173;
-125.1000;0.5641;0.8080;
-124.8000;0.5682;0.8173;
-124.5000;0.5657;0.8150;
-124.2000;0.5674;0.8173;
-123.9000;0.5682;0.8243;
-123.6000;0.5690;0.8336;
-123.3000;0.5682;0.8289;
-123.0000;0.5690;0.8289;
-122.7000;0.5690;0.8266;
-122.4000;0.5698;0.8266;
-122.1000;0.5690;0.8220;
-121.8000;0.5690;0.8243;
-121.5000;0.5698;0.8266;
-121.2000;0.5682;0.8336;
-120.9000;0.5682;0.8313;
-120.6000;0.5690;0.8382;
-120.3000;0.5690;0.8313;
-120.0000;0.5690;0.8173;
-119.7000;0.5690;0.8127;
-119.4000;0.5665;0.8034;
-119.1000;0.5690;0.8150;
-118.8000;0.5690;0.8196;
-118.5000;0.5665;0.8196;
-118.2000;0.5665;0.8150;
-117.9000;0.5682;0.8289;
-117.6000;0.5682;0.8266;
-117.3000;0.5682;0.8313;
-117.0000;0.5706;0.8452;
-116.7000;0.5674;0.8289;
-116.4000;0.5682;0.8313;
-116.1000;0.5690;0.8313;
-115.8000;0.5698;0.8429;
-115.5000;0.5682;0.8452;
-115.2000;0.5657;0.8336;
-114.9000;0.5698;0.8313;
-114.6000;0.5690;0.8359;
-114.3000;0.5674;0.8220;
-114.0000;0.5674;0.8220;
-113.7000;0.5698;0.8266;
-113.4000;0.5698;0.8173;
-113.1000;0.5690;0.8196;
-112.8000;0.5657;0.8127;
-112.5000;0.5706;0.8150;
-112.2000;0.5698;0.8196;
-111.9000;0.5674;0.8080;
-111.6000;0.5698;0.8220;
-111.3000;0.5576;0.7964;
-111.0000;0.5690;0.8266;
-110.7000;0.5690;0.8266;
-110.4000;0.5682;0.8104;
-110.1000;0.5665;0.8011;
-109.8000;0.5755;0.8150;
-109.5000;0.5674;0.8034;
-109.2000;0.5698;0.8220;
-108.9000;0.5706;0.8266;
-108.6000;0.5665;0.8127;
-108.3000;0.5722;0.8196;
-108.0000;0.5674;0.8150;
-107.7000;0.5690;0.8196;
-107.4000;0.5625;0.8034;
-107.1000;0.5682;0.8196;
-106.8000;0.5690;0.8127;
-106.5000;0.5690;0.8104;
-106.2000;0.5682;0.8034;
-105.9000;0.5682;0.8011;
-105.6000;0.5690;0.8011;
-105.3000;0.5625;0.7941;
-105.0000;0.5690;0.8150;
-104.7000;0.5682;0.8266;
-104.4000;0.5641;0.8057;
-104.1000;0.5731;0.8127;
-103.8000;0.5690;0.8011;
-103.5000;0.5690;0.8011;
-103.2000;0.5682;0.8150;
-102.9000;0.5690;0.8196;
-102.6000;0.5690;0.8173;
-102.3000;0.5698;0.8104;
-102.0000;0.5698;0.8034;
-101.7000;0.5698;0.8104;
-101.4000;0.5674;0.8011;
-101.1000;0.5771;0.8196;
-100.8000;0.5682;0.8104;
-100.5000;0.5682;0.8057;
-100.2000;0.5674;0.8080;
-99.9000;0.5665;0.8034;
-99.6000;0.5682;0.8104;
-99.3000;0.5690;0.8196;
-99.0000;0.5698;0.8196;
-98.7000;0.5641;0.8011;
-98.4000;0.5690;0.8127;
-98.1000;0.5739;0.8359;
-97.8000;0.5682;0.8243;
-97.5000;0.5682;0.8266;
-97.2000;0.5690;0.8336;
-96.9000;0.5690;0.8289;
-96.6000;0.5690;0.8289;
-96.3000;0.5706;0.8359;
-96.0000;0.5714;0.8359;
-95.7000;0.5739;0.8429;
-95.4000;0.5706;0.8266;
-95.1000;0.5665;0.8220;
-94.8000;0.5674;0.8173;
-94.5000;0.5633;0.8057;
-94.2000;0.5690;0.8150;
-93.9000;0.5690;0.8150;
-93.6000;0.5674;0.8127;
-93.3000;0.5706;0.8266;
-93.0000;0.5722;0.8336;
-92.7000;0.5690;0.8313;
-92.4000;0.5592;0.8034;
-92.1000;0.5698;0.8220;
-91.8000;0.5649;0.8127;
-91.5000;0.5706;0.8243;
-91.2000;0.5698;0.8173;
-90.9000;0.5706;0.8243;
-90.6000;0.5674;0.8220;
-90.3000;0.5714;0.8313;
-90.0000;0.5706;0.8336;
-89.7000;0.5674;0.8243;
-89.4000;0.5690;0.8150;
-89.1000;0.5731;0.8150;
-88.8000;0.5690;0.7918;
-88.5000;0.5690;0.7848;
-88.2000;0.5690;0.7895;
-87.9000;0.5698;0.7895;
-87.6000;0.5649;0.7848;
-87.3000;0.5722;0.8080;
-87.0000;0.5690;0.8127;
-86.7000;0.5682;0.8220;
-86.4000;0.5682;0.8127;
-86.1000;0.5706;0.8243;
-85.8000;0.5690;0.8266;
-85.5000;0.5665;0.8266;
-85.2000;0.5788;0.8614;
-84.9000;0.5690;0.8429;
-84.6000;0.5682;0.8336;
-84.3000;0.5682;0.8382;
-84.0000;0.5682;0.8405;
-83.7000;0.5674;0.8313;
-83.4000;0.5731;0.8336;
-83.1000;0.5722;0.8266;
-82.8000;0.5698;0.8243;
-82.5000;0.5698;0.8336;
-82.2000;0.5706;0.8429;
-81.9000;0.5731;0.8382;
-81.6000;0.5633;0.8104;
-81.3000;0.5682;0.8196;
-81.0000;0.5674;0.8127;
-80.7000;0.5682;0.8104;
-80.4000;0.5665;0.8127;
-80.1000;0.5674;0.8196;
-79.8000;0.5674;0.8196;
-79.5000;0.5657;0.8104;
-79.2000;0.5674;0.8173;
-78.9000;0.5665;0.8196;
-78.6000;0.5698;0.8243;
-78.3000;0.5690;0.8266;
-78.0000;0.5722;0.8336;
-77.7000;0.5665;0.8150;
-77.4000;0.5706;0.8243;
-77.1000;0.5714;0.8289;
-76.8000;0.5690;0.8313;
-76.5000;0.5674;0.8429;
-76.2000;0.5698;0.8382;
-75.9000;0.5674;0.8289;
-75.6000;0.5690;0.8289;
-75.3000;0.5690;0.8173;
-75.0000;0.5674;0.8150;
-74.7000;0.5682;0.8243;
-74.4000;0.5649;0.8104;
-74.1000;0.5690;0.8104;
-73.8000;0.5682;0.8150;
-73.5000;0.5682;0.8127;
-73.2000;0.5739;0.8266;
-72.9000;0.5706;0.8173;
-72.6000;0.5706;0.8173;
-72.3000;0.5665;0.8150;
-72.0000;0.5625;0.7964;
-71.7000;0.5690;0.8104;
-71.4000;0.5690;0.8127;
-71.1000;0.5747;0.8243;
-70.8000;0.5690;0.8080;
-70.5000;0.5690;0.8173;
-70.2000;0.5690;0.8104;
-69.9000;0.5706;0.8173;
-69.6000;0.5592;0.7918;
-69.3000;0.5674;0.8080;
-69.0000;0.5657;0.7964;
-68.7000;0.5714;0.8104;
-68.4000;0.5739;0.8173;
-68.1000;0.5682;0.8057;
-67.8000;0.5690;0.8104;
-67.5000;0.5690;0.8150;
-67.2000;0.5739;0.8289;
-66.9000;0.5714;0.8173;
-66.6000;0.5690;0.8150;
-66.3000;0.5690;0.8104;
-66.0000;0.5714;0.8150;
-65.7000;0.5665;0.8057;
-65.4000;0.5763;0.8359;
-65.1000;0.5714;0.8243;
-64.8000;0.5682;0.8150;
-64.5000;0.5706;0.8266;
-64.2000;0.5682;0.8313;
-63.9000;0.5682;0.8313;
-63.6000;0.5698;0.8243;
-63.3000;0.5682;0.8196;
-63.0000;0.5698;0.8220;
-62.7000;0.5665;0.8196;
-62.4000;0.5698;0.8196;
-62.1000;0.5690;0.8127;
-61.8000;0.5698;0.8034;
-61.5000;0.5682;0.7987;
-61.2000;0.5706;0.8057;
-60.9000;0.5682;0.8011;
-60.6000;0.5690;0.8057;
-60.3000;0.5682;0.8034;
-60.0000;0.5665;0.8034;
-59.7000;0.5690;0.7964;
-59.4000;0.5665;0.7941;
-59.1000;0.5698;0.7987;
-58.8000;0.5739;0.8127;
-58.5000;0.5682;0.8034;
-58.2000;0.5690;0.8057;
-57.9000;0.5682;0.7987;
-57.6000;0.5682;0.8034;
-57.3000;0.5682;0.8034;
-57.0000;0.5698;0.8104;
-56.7000;0.5665;0.8034;
-56.4000;0.5690;0.8080;
-56.1000;0.5714;0.8034;
-55.8000;0.5690;0.8034;
-55.5000;0.5674;0.7941;
-55.2000;0.5690;0.7941;
-54.9000;0.5682;0.8034;
-54.6000;0.5682;0.8034;
-54.3000;0.5706;0.8080;
-54.0000;0.5682;0.7987;
-53.7000;0.5690;0.8080;
-53.4000;0.5706;0.8127;
-53.1000;0.5682;0.8034;
-52.8000;0.5690;0.8057;
-52.5000;0.5690;0.8104;
-52.2000;0.5682;0.8057;
-51.9000;0.5698;0.8057;
-51.6000;0.5698;0.7964;
-51.3000;0.5698;0.7964;
-51.0000;0.5706;0.7941;
-50.7000;0.5698;0.7964;
-50.4000;0.5690;0.7918;
-50.1000;0.5722;0.7964;
-49.8000;0.5698;0.7987;
-49.5000;0.5682;0.7964;
-49.2000;0.5674;0.8080;
-48.9000;0.5698;0.8104;
-48.6000;0.5690;0.8104;
-48.3000;0.5698;0.8057;
-48.0000;0.5690;0.8104;
-47.7000;0.5739;0.8196;
-47.4000;0.5682;0.8034;
-47.1000;0.5690;0.7987;
-46.8000;0.5690;0.8011;
-46.5000;0.5682;0.8057;
-46.2000;0.5690;0.8127;
-45.9000;0.5682;0.8220;
-45.6000;0.5665;0.8173;
-45.3000;0.5608;0.8011;
-45.0000;0.5755;0.8336;
-44.7000;0.5674;0.8196;
-44.4000;0.5747;0.8336;
-44.1000;0.5674;0.8220;
-43.8000;0.5674;0.8127;
-43.5000;0.5682;0.8080;
-43.2000;0.5698;0.8080;
-42.9000;0.5674;0.7941;
-42.6000;0.5690;0.7895;
-42.3000;0.5698;0.8011;
-42.0000;0.5698;0.7987;
-41.7000;0.5698;0.8011;
-41.4000;0.5682;0.7987;
-41.1000;0.5682;0.8080;
-40.8000;0.5674;0.8080;
-40.5000;0.5682;0.8011;
-40.2000;0.5731;0.8127;
-39.9000;0.5690;0.8057;
-39.6000;0.5682;0.7918;
-39.3000;0.5690;0.7941;
-39.0000;0.5690;0.7895;
-38.7000;0.5690;0.7871;
-38.4000;0.5649;0.7755;
-38.1000;0.5682;0.7964;
-37.8000;0.5649;0.7871;
-37.5000;0.5665;0.7987;
-37.2000;0.5674;0.8011;
-36.9000;0.5690;0.7964;
-36.6000;0.5682;0.8080;
-36.3000;0.5698;0.8150;
-36.0000;0.5665;0.8011;
-35.7000;0.5682;0.8057;
-35.4000;0.5674;0.8011;
-35.1000;0.5690;0.7941;
-34.8000;0.5690;0.8011;
-34.5000;0.5690;0.8080;
-34.2000;0.5698;0.8127;
-33.9000;0.5698;0.8127;
-33.6000;0.5690;0.8127;
-33.3000;0.5682;0.8150;
-33.0000;0.5690;0.8150;
-32.7000;0.5690;0.8150;
-32.4000;0.5682;0.8034;
-32.1000;0.5706;0.8104;
-31.8000;0.5674;0.8034;
-31.5000;0.5690;0.8034;
-31.2000;0.5641;0.7848;
-30.9000;0.5665;0.7918;
-30.6000;0.5682;0.7964;
-30.3000;0.5812;0.8220;
-30.0000;0.5674;0.7941;
-29.7000;0.5690;0.7987;
-29.4000;0.5682;0.7918;
-29.1000;0.5698;0.7987;
-28.8000;0.5674;0.7964;
-28.5000;0.5674;0.8034;
-28.2000;0.5690;0.8080;
-27.9000;0.5682;0.8034;
-27.6000;0.5665;0.8057;
-27.3000;0.5698;0.8150;
-27.0000;0.5657;0.7987;
-26.7000;0.5649;0.7964;
-26.4000;0.5674;0.7964;
-26.1000;0.5690;0.7987;
-25.8000;0.5674;0.7918;
-25.5000;0.5674;0.7848;
-25.2000;0.5698;0.7895;
-24.9000;0.5674;0.7778;
-24.6000;0.5682;0.7732;
-24.3000;0.5706;0.7825;
-24.0000;0.5657;0.7802;
-23.7000;0.5665;0.7755;
-23.4000;0.5682;0.7825;
-23.1000;0.5682;0.7802;
-22.8000;0.5722;0.7987;
-22.5000;0.5592;0.7755;
-22.2000;0.5657;0.7918;
-21.9000;0.5690;0.7941;
-21.6000;0.5747;0.8080;
-21.3000;0.5665;0.7941;
-21.0000;0.5674;0.7964;
-20.7000;0.5665;0.8080;
-20.4000;0.5649;0.8080;
-20.1000;0.5674;0.8150;
-19.8000;0.5690;0.8266;
-19.5000;0.5682;0.8266;
-19.2000;0.5706;0.8243;
-18.9000;0.5690;0.8266;
-18.6000;0.5674;0.8150;
-18.3000;0.5657;0.8127;
-18.0000;0.5690;0.8196;
-17.7000;0.5698;0.8150;
-17.4000;0.5706;0.8150;
-17.1000;0.5682;0.8034;
-16.8000;0.5682;0.8057;
-16.5000;0.5706;0.8080;
-16.2000;0.5665;0.7895;
-15.9000;0.5690;0.7964;
-15.6000;0.5674;0.7941;
-15.3000;0.5690;0.8080;
-15.0000;0.5714;0.8080;
-14.7000;0.5706;0.8080;
-14.4000;0.5739;0.8057;
-14.1000;0.5722;0.7987;
-13.8000;0.5698;0.8011;
-13.5000;0.5706;0.8057;
-13.2000;0.5682;0.8034;
-12.9000;0.5690;0.8057;
-12.6000;0.5722;0.8173;
-12.3000;0.5682;0.8080;
-12.0000;0.5690;0.8011;
-11.7000;0.5690;0.8011;
-11.4000;0.5690;0.7987;
-11.1000;0.5698;0.8011;
-10.8000;0.5665;0.7918;
-10.5000;0.5674;0.7941;
-10.2000;0.5674;0.7871;
-9.9000;0.5698;0.7964;
-9.6000;0.5674;0.7964;
-9.3000;0.5682;0.7895;
-9.0000;0.5706;0.7895;
-8.7000;0.5706;0.7918;
-8.4000;0.5706;0.7941;
-8.1000;0.5682;0.7941;
-7.8000;0.5722;0.8057;
-7.5000;0.5674;0.7918;
-7.2000;0.5674;0.7964;
-6.9000;0.5665;0.7964;
-6.6000;0.5698;0.8011;
-6.3000;0.5657;0.7895;
-6.0000;0.5706;0.8011;
-5.7000;0.5674;0.7918;
-5.4000;0.5706;0.7987;
-5.1000;0.5665;0.7895;
-4.8000;0.5698;0.7895;
-4.5000;0.5682;0.7895;
-4.2000;0.5722;0.8011;
-3.9000;0.5706;0.7987;
-3.6000;0.5698;0.8034;
-3.3000;0.5674;0.8057;
-3.0000;0.5690;0.8196;
-2.7000;0.5682;0.8173;
-2.4000;0.5690;0.8104;
-2.1000;0.5698;0.8080;
-1.8000;0.5706;0.8104;
-1.5000;0.5682;0.8080;
-1.2000;0.5690;0.8173;
-0.9000;0.5698;0.8243;
-0.6000;0.5690;0.8289;
-0.3000;0.5690;0.8289;
0.0000;0.5690;0.8289;
0.3000;0.5796;0.8034;
0.6000;0.5861;0.8150;
0.9000;0.5967;0.8452;
1.2000;0.6138;0.8963;
1.5000;0.6162;0.9009;
1.8000;0.6121;0.9009;
2.1000;0.6138;0.9125;
2.4000;0.6178;0.9311;
2.7000;0.6211;0.9497;
3.0000;0.6227;0.9590;
3.3000;0.6219;0.9613;
3.6000;0.6243;0.9706;
3.9000;0.6219;0.9613;
4.2000;0.6260;0.9706;
4.5000;0.6203;0.9590;
4.8000;0.6268;0.9752;
5.1000;0.6309;0.9822;
5.4000;0.6333;0.9891;
5.7000;0.6398;1.0147;
6.0000;0.6317;1.0008;
6.3000;0.6341;1.0077;
6.6000;0.6357;1.0170;
6.9000;0.6349;1.0217;
7.2000;0.6357;1.0356;
7.5000;0.6390;1.0379;
7.8000;0.6390;1.0379;
8.1000;0.6292;1.0147;
8.4000;0.6374;1.0240;
8.7000;0.6300;1.0054;
9.0000;0.6374;1.0217;
9.3000;0.6406;1.0286;
9.6000;0.6422;1.0240;
9.9000;0.6447;1.0240;
10.2000;0.6414;1.0193;
10.5000;0.6496;1.0309;
10.8000;0.6455;1.0124;
11.1000;0.6439;1.0077;
11.4000;0.6504;1.0263;
11.7000;0.6455;1.0170;
12.0000;0.6471;1.0193;
12.3000;0.6488;1.0193;
12.6000;0.6439;1.0077;
12.9000;0.6488;1.0170;
13.2000;0.6439;1.0008;
13.5000;0.6479;1.0031;
13.8000;0.6471;1.0031;
14.1000;0.6520;1.0100;
14.4000;0.6479;0.9961;
14.7000;0.6520;1.0008;
15.0000;0.6512;0.9868;
15.3000;0.6512;0.9868;
15.6000;0.6561;0.9938;
15.9000;0.6545;0.9845;
16.2000;0.6545;0.9938;
16.5000;0.6577;0.9938;
16.8000;0.6553;0.9961;
17.1000;0.6561;0.9915;
17.4000;0.6553;0.9891;
17.7000;0.6561;0.9961;
18.0000;0.6561;0.9915;
18.3000;0.6585;1.0054;
18.6000;0.6610;1.0077;
18.9000;0.6585;1.0008;
19.2000;0.6667;1.0147;
19.5000;0.6585;0.9915;
19.8000;0.6626;0.9984;
20.1000;0.6642;1.0008;
20.4000;0.6667;1.0077;
20.7000;0.6642;1.0008;
21.0000;0.6626;1.0031;
21.3000;0.6618;1.0054;
21.6000;0.6610;1.0077;
21.9000;0.6642;1.0100;
22.2000;0.6642;1.0008;
22.5000;0.6650;1.0031;
22.8000;0.6650;1.0031;
23.1000;0.6602;0.9938;
23.4000;0.6577;0.9868;
23.7000;0.6650;1.0031;
24.0000;0.6667;0.9961;
24.3000;0.6659;0.9938;
24.6000;0.6642;0.9891;
24.9000;0.6634;0.9961;
25.2000;0.6650;1.0100;
25.5000;0.6659;1.0054;
25.8000;0.6659;1.0124;
26.1000;0.6626;1.0077;
26.4000;0.6683;1.0124;
26.7000;0.6691;1.0147;
27.0000;0.6585;0.9845;
27.3000;0.6675;1.0008;
27.6000;0.6732;1.0031;
27.9000;0.6610;0.9775;
28.2000;0.6675;0.9891;
28.5000;0.6602;0.9799;
28.8000;0.6659;0.9961;
29.1000;0.6691;0.9984;
29.4000;0.6667;0.9938;
29.7000;0.6683;1.0008;
30.0000;0.6724;1.0054;
30.3000;0.6683;1.0008;
30.6000;0.6667;0.9915;
30.9000;0.6699;0.9891;
31.2000;0.6724;0.9984;
31.5000;0.6716;1.0054;
31.8000;0.6724;1.0100;
32.1000;0.6724;1.0008;
32.4000;0.6716;0.9961;
32.7000;0.6683;0.9938;
33.0000;0.6732;0.9984;
33.3000;0.6716;0.9868;
33.6000;0.6707;0.9961;
33.9000;0.6764;1.0031;
34.2000;0.6650;0.9752;
34.5000;0.6732;0.9868;
34.8000;0.6716;0.9868;
35.1000;0.6740;0.9891;
35.4000;0.6732;0.9891;
35.7000;0.6732;0.9775;
36.0000;0.6740;0.9799;
36.3000;0.6740;0.9915;
36.6000;0.6707;0.9729;
36.9000;0.6740;0.9752;
37.2000;0.6732;0.9682;
37.5000;0.6716;0.9775;
37.8000;0.6716;0.9799;
38.1000;0.6724;0.9706;
38.4000;0.6740;0.9822;
38.7000;0.6740;0.9915;
39.0000;0.6748;0.9845;
39.3000;0.6756;0.9845;
39.6000;0.6740;0.9799;
39.9000;0.6634;0.9473;
40.2000;0.6748;0.9775;
40.5000;0.6756;0.9822;
40.8000;0.6756;0.9822;
41.1000;0.6772;0.9915;
41.4000;0.6756;0.9961;
41.7000;0.6748;0.9915;
42.0000;0.6740;0.9915;
42.3000;0.6732;0.9868;
42.6000;0.6756;0.9799;
42.9000;0.6756;0.9822;
43.2000;0.6756;0.9868;
43.5000;0.6740;0.9822;
43.8000;0.6740;0.9822;
44.1000;0.6756;0.9891;
44.4000;0.6756;0.9961;
44.7000;0.6764;0.9984;
45.0000;0.6813;1.0077;
45.3000;0.6781;0.9984;
45.6000;0.6724;0.9868;
45.9000;0.6772;0.9961;
46.2000;0.6772;0.9984;
46.5000;0.6756;0.9891;
46.8000;0.6667;0.9543;
47.1000;0.6772;0.9752;
47.4000;0.6764;0.9659;
47.7000;0.6805;0.9775;
48.0000;0.6772;0.9682;
48.3000;0.6854;0.9845;
48.6000;0.6797;0.9729;
48.9000;0.6756;0.9822;
49.2000;0.6764;0.9799;
49.5000;0.6756;0.9752;
49.8000;0.6789;0.9845;
50.1000;0.6764;0.9752;
50.4000;0.6813;0.9891;
50.7000;0.6764;0.9799;
51.0000;0.6805;0.9868;
51.3000;0.6781;0.9845;
51.6000;0.6797;0.9984;
51.9000;0.6789;0.9915;
52.2000;0.6781;0.9961;
52.5000;0.6781;1.0031;
52.8000;0.6797;1.0124;
53.1000;0.6772;1.0124;
53.4000;0.6756;1.0193;
53.7000;0.6772;1.0240;
54.0000;0.6756;1.0124;
54.3000;0.6764;1.0054;
54.6000;0.6797;1.0124;
54.9000;0.6772;0.9984;
55.2000;0.6781;1.0008;
55.5000;0.6772;1.0008;
55.8000;0.6772;1.0031;
56.1000;0.6781;0.9984;
56.4000;0.6781;1.0008;
56.7000;0.6789;1.0054;
57.0000;0.6797;1.0147;
57.3000;0.6797;1.0124;
57.6000;0.6805;1.0193;
57.9000;0.6805;1.0217;
58.2000;0.6789;1.0124;
58.5000;0.6781;1.0170;
58.8000;0.6805;1.0193;
59.1000;0.6789;1.0217;
59.4000;0.6781;1.0193;
59.7000;0.6772;1.0147;
60.0000;0.6813;1.0170;
60.3000;0.6813;1.0240;
60.6000;0.6805;1.0124;
60.9000;0.6797;1.0170;
61.2000;0.6789;1.0193;
61.5000;0.6805;1.0263;
61.8000;0.6813;1.0240;
62.1000;0.6781;1.0124;
62.4000;0.6797;1.0100;
62.7000;0.6797;1.0031;
63.0000;0.6805;0.9984;
63.3000;0.6789;0.9961;
63.6000;0.6797;1.0008;
63.9000;0.6797;1.0147;
64.2000;0.6764;1.0124;
64.5000;0.6772;1.0170;
64.8000;0.6772;1.0124;
65.1000;0.6772;1.0100;
65.4000;0.6797;1.0147;
65.7000;0.6789;1.0077;
66.0000;0.6789;1.0008;
66.3000;0.6813;1.0124;
66.6000;0.6789;1.0217;
66.9000;0.6772;1.0170;
67.2000;0.6781;1.0217;
67.5000;0.6789;1.0263;
67.8000;0.6846;1.0286;
68.1000;0.6789;1.0193;
68.4000;0.6797;1.0263;
68.7000;0.6797;1.0170;
69.0000;0.6732;1.0031;
69.3000;0.6813;1.0077;
69.6000;0.6781;0.9984;
69.9000;0.6740;0.9915;
70.2000;0.6764;0.9984;
70.5000;0.6764;1.0031;
70.8000;0.6748;1.0054;
71.1000;0.6805;1.0147;
71.4000;0.6789;1.0031;
71.7000;0.6813;1.0077;
72.0000;0.6781;0.9915;
72.3000;0.6813;1.0077;
72.6000;0.6805;1.0170;
72.9000;0.6813;1.0193;
73.2000;0.6813;1.0147;
73.5000;0.6789;1.0008;
73.8000;0.6805;0.9938;
74.1000;0.6813;0.9961;
74.4000;0.6813;0.9938;
74.7000;0.6805;0.9961;
75.0000;0.6805;1.0031;
75.3000;0.6805;1.0054;
75.6000;0.6797;1.0170;
75.9000;0.6797;1.0217;
76.2000;0.6781;1.0124;
76.5000;0.6813;1.0170;
76.8000;0.6813;1.0147;
77.1000;0.6813;1.0193;
77.4000;0.6813;1.0147;
77.7000;0.6781;1.0077;
78.0000;0.6813;1.0147;
78.3000;0.6829;1.0100;
78.6000;0.6813;1.0031;
78.9000;0.6846;1.0240;
79.2000;0.6846;1.0286;
79.5000;0.6829;1.0263;
79.8000;0.6821;1.0193;
80.1000;0.6813;1.0170;
80.4000;0.6813;1.0170;
80.7000;0.6878;1.0309;
81.0000;0.6772;1.0031;
81.3000;0.6821;1.0170;
81.6000;0.6821;1.0193;
81.9000;0.6846;1.0147;
82.2000;0.6821;1.0147;
82.5000;0.6805;1.0170;
82.8000;0.6797;1.0193;
83.1000;0.6821;1.0286;
83.4000;0.6789;1.0193;
83.7000;0.6748;1.0100;
84.0000;0.6821;1.0240;
84.3000;0.6805;1.0240;
84.6000;0.6829;1.0309;
84.9000;0.6813;1.0402;
85.2000;0.6821;1.0379;
85.5000;0.6813;1.0356;
85.8000;0.6821;1.0379;
86.1000;0.6862;1.0379;
86.4000;0.6805;1.0309;
86.7000;0.6878;1.0449;
87.0000;0.6829;1.0356;
87.3000;0.6781;1.0286;
87.6000;0.6838;1.0402;
87.9000;0.6829;1.0356;
88.2000;0.6821;1.0309;
88.5000;0.6829;1.0286;
88.8000;0.6813;1.0333;
89.1000;0.6854;1.0379;
89.4000;0.6805;1.0217;
89.7000;0.6821;1.0147;
90.0000;0.6821;1.0170;
90.3000;0.6886;1.0402;
90.6000;0.6846;1.0356;
90.9000;0.6829;1.0333;
91.2000;0.6846;1.0263;
91.5000;0.6813;1.0240;
91.8000;0.6846;1.0356;
92.1000;0.6821;1.0309;
92.4000;0.6821;1.0286;
92.7000;0.6821;1.0286;
93.0000;0.6829;1.0333;
93.3000;0.6821;1.0309;
93.6000;0.6821;1.0263;
93.9000;0.6829;1.0309;
94.2000;0.6813;1.0309;
94.5000;0.6813;1.0379;
94.8000;0.6846;1.0449;
95.1000;0.6829;1.0333;
95.4000;0.6805;1.0286;
95.7000;0.6838;1.0333;
96.0000;0.6805;1.0124;
96.3000;0.6878;1.0240;
96.6000;0.6805;1.0031;
96.9000;0.6813;0.9984;
97.2000;0.6813;0.9984;
97.5000;0.6797;0.9984;
97.8000;0.6829;1.0008;
98.1000;0.6838;1.0077;
98.4000;0.6829;1.0054;
98.7000;0.6846;1.0077;
99.0000;0.6821;1.0008;
99.3000;0.6829;0.9984;
99.6000;0.6911;1.0217;
99.9000;0.6838;0.9984;
100.2000;0.6854;1.0008;
100.5000;0.6797;0.9845;
100.8000;0.6813;0.9938;
101.1000;0.6813;1.0031;
101.4000;0.6838;1.0077;
101.7000;0.6821;0.9984;
102.0000;0.6821;1.0054;
102.3000;0.6829;0.9961;
102.6000;0.6821;0.9984;
102.9000;0.6821;1.0100;
103.2000;0.6756;1.0031;
103.5000;0.6821;1.0193;
103.8000;0.6821;1.0147;
104.1000;0.6846;1.0240;
104.4000;0.6878;1.0286;
104.7000;0.6821;1.0217;
105.0000;0.6829;1.0217;
105.3000;0.6821;1.0124;
105.6000;0.6797;1.0008;
105.9000;0.6813;1.0077;
106.2000;0.6821;1.0100;
106.5000;0.6829;1.0031;
106.8000;0.6813;0.9938;
107.1000;0.6813;0.9868;
107.4000;0.6838;0.9938;
107.7000;0.6805;0.9845;
108.0000;0.6829;0.9915;
108.3000;0.6813;0.9868;
108.6000;0.6838;0.9938;
108.9000;0.6813;0.9984;
109.2000;0.6821;1.0031;
109.5000;0.6813;1.0124;
109.8000;0.6813;1.0100;
110.1000;0.6797;1.0077;
110.4000;0.6854;1.0263;
110.7000;0.6886;1.0333;
111.0000;0.6821;1.0217;
111.3000;0.6838;1.0240;
111.6000;0.6821;1.0193;
111.9000;0.6854;1.0170;
112.2000;0.6927;1.0309;
112.5000;0.6805;1.0054;
112.8000;0.6813;1.0147;
113.1000;0.6829;1.0147;
113.4000;0.6952;1.0333;
113.7000;0.6838;1.0077;
114.0000;0.6846;1.0124;
114.3000;0.6789;0.9961;
114.6000;0.6829;0.9961;
114.9000;0.6838;1.0031;
115.2000;0.6821;1.0008;
115.5000;0.6829;0.9984;
115.8000;0.6829;1.0054;
116.1000;0.6805;1.0008;
116.4000;0.6813;1.0031;
116.7000;0.6829;1.0054;
117.0000;0.6829;0.9915;
117.3000;0.6756;0.9729;
117.6000;0.6829;0.9961;
117.9000;0.6838;0.9799;
118.2000;0.6846;0.9822;
118.5000;0.6821;0.9752;
118.8000;0.6846;0.9868;
119.1000;0.6854;0.9984;
119.4000;0.6846;1.0031;
119.7000;0.6903;1.0217;
120.0000;0.6805;1.0008;
120.3000;0.6829;0.9961;
120.6000;0.6838;0.9961;
120.9000;0.6838;0.9961;
121.2000;0.6846;0.9961;
121.5000;0.6821;0.9868;
121.8000;0.6699;0.9636;
122.1000;0.6821;0.9984;
122.4000;0.6829;1.0031;
122.7000;0.6895;1.0193;
123.0000;0.6838;1.0031;
123.3000;0.6846;1.0054;
123.6000;0.6838;1.0008;
123.9000;0.6838;1.0031;
124.2000;0.6854;1.0124;
124.5000;0.6846;1.0124;
124.8000;0.6764;0.9915;
125.1000;0.6854;1.0217;
125.4000;0.6862;1.0170;
125.7000;0.6854;1.0193;
126.0000;0.6821;1.0124;
126.3000;0.6813;1.0193;
126.6000;0.6821;1.0240;
126.9000;0.6813;1.0309;
127.2000;0.6805;1.0217;
127.5000;0.6821;1.0054;
127.8000;0.6862;1.0170;
128.1000;0.6846;1.0193;
128.4000;0.6846;1.0240;
128.7000;0.6829;1.0263;
129.0000;0.6813;1.0240;
129.3000;0.6829;1.0217;
129.6000;0.6838;1.0263;
129.9000;0.6854;1.0263;
130.2000;0.6821;1.0193;
130.5000;0.6821;1.0217;
130.8000;0.6838;1.0309;
131.1000;0.6813;1.0286;
131.4000;0.6805;1.0286;
131.7000;0.6821;1.0286;
132.0000;0.6829;1.0193;
132.3000;0.6829;1.0147;
132.6000;0.6789;1.0031;
132.9000;0.6764;1.0031;
133.2000;0.6846;1.0263;
133.5000;0.6821;1.0309;
133.8000;0.6821;1.0263;
134.1000;0.6829;1.0333;
134.4000;0.6829;1.0379;
134.7000;0.6854;1.0356;
135.0000;0.6829;1.0286;
135.3000;0.6838;1.0379;
135.6000;0.6821;1.0309;
135.9000;0.6821;1.0333;
136.2000;0.6805;1.0356;
136.5000;0.6829;1.0402;
136.8000;0.6789;1.0402;
137.1000;0.6813;1.0263;
137.4000;0.6838;1.0309;
137.7000;0.6813;1.0240;
138.0000;0.6838;1.0193;
138.3000;0.6846;1.0193;
138.6000;0.6829;1.0077;
138.9000;0.6797;0.9915;
139.2000;0.6797;1.0077;
139.5000;0.6764;1.0008;
139.8000;0.6878;1.0240;
140.1000;0.6854;1.0263;
140.4000;0.6829;1.0147;
140.7000;0.6821;1.0124;
141.0000;0.6805;1.0077;
141.3000;0.6838;1.0147;
141.6000;0.6764;1.0193;
141.9000;0.6821;1.0333;
142.2000;0.6821;1.0356;
142.5000;0.6707;0.9961;
142.8000;0.6797;1.0100;
143.1000;0.6838;1.0217;
143.4000;0.6862;1.0286;
143.7000;0.6895;1.0425;
144.0000;0.6829;1.0379;
144.3000;0.6838;1.0333;
144.6000;0.6781;1.0240;
144.9000;0.6829;1.0402;
145.2000;0.6821;1.0356;
145.5000;0.6821;1.0356;
145.8000;0.6829;1.0333;
146.1000;0.6821;1.0263;
146.4000;0.6846;1.0333;
146.7000;0.6821;1.0309;
147.0000;0.6838;1.0425;
147.3000;0.6829;1.0449;
147.6000;0.6838;1.0379;
147.9000;0.6854;1.0402;
148.2000;0.6829;1.0379;
148.5000;0.6846;1.0402;
148.8000;0.6829;1.0402;
149.1000;0.6854;1.0449;
149.4000;0.6846;1.0425;
149.7000;0.6821;1.0356;
150.0000;0.6838;1.0356;
150.3000;0.6821;1.0309;
150.6000;0.6813;1.0356;
150.9000;0.6846;1.0402;
151.2000;0.6838;1.0356;
151.5000;0.6838;1.0309;
151.8000;0.6870;1.0333;
152.1000;0.6838;1.0263;
152.4000;0.6821;1.0240;
152.7000;0.6821;1.0263;
153.0000;0.6829;1.0333;
153.3000;0.6829;1.0286;
153.6000;0.6821;1.0240;
153.9000;0.6838;1.0263;
154.2000;0.6829;1.0147;
154.5000;0.6838;1.0240;
154.8000;0.6846;1.0263;
155.1000;0.6838;1.0333;
155.4000;0.6829;1.0333;
155.7000;0.6813;1.0309;
156.0000;0.6862;1.0402;
156.3000;0.6854;1.0379;
156.6000;0.6829;1.0356;
156.9000;0.6821;1.0356;
157.2000;0.6829;1.0518;
157.5000;0.6821;1.0518;
157.8000;0.6805;1.0472;
158.1000;0.6829;1.0518;
158.4000;0.6821;1.0472;
158.7000;0.6829;1.0542;
159.0000;0.6829;1.0495;
159.3000;0.6789;1.0379;
159.6000;0.6838;1.0472;
159.9000;0.6862;1.0495;
160.2000;0.6813;1.0309;
160.5000;0.6870;1.0379;
160.8000;0.6846;1.0309;
161.1000;0.6829;1.0240;
161.4000;0.6919;1.0402;
161.7000;0.6829;1.0170;
162.0000;0.6838;1.0193;
162.3000;0.6838;1.0309;
162.6000;0.6838;1.0402;
162.9000;0.6878;1.0472;
163.2000;0.6838;1.0333;
163.5000;0.6870;1.0379;
163.8000;0.6805;1.0054;
164.1000;0.6829;1.0100;
164.4000;0.6772;1.0054;
164.7000;0.6813;1.0124;
165.0000;0.6813;1.0100;
165.3000;0.6829;1.0100;
165.6000;0.6772;1.0031;
165.9000;0.6854;1.0240;
166.2000;0.6846;1.0240;
166.5000;0.6960;1.0518;
166.8000;0.6829;1.0263;
167.1000;0.6838;1.0240;
167.4000;0.6838;1.0217;
167.7000;0.6838;1.0124;
168.0000;0.6854;1.0124;
168.3000;0.6829;1.0100;
168.6000;0.6797;1.0124;
168.9000;0.6829;1.0217;
169.2000;0.6838;1.0217;
169.5000;0.6805;1.0170;
169.8000;0.6821;1.0193;
170.1000;0.6886;1.0356;
170.4000;0.6829;1.0286;
170.7000;0.6764;1.0100;
171.0000;0.6862;1.0425;
171.3000;0.6846;1.0356;
171.6000;0.6854;1.0193;
171.9000;0.6829;1.0147;
172.2000;0.6854;1.0170;
172.5000;0.6829;1.0193;
172.8000;0.6911;1.0356;
173.1000;0.6846;1.0240;
173.4000;0.6838;1.0147;
173.7000;0.6821;1.0031;
174.0000;0.6829;0.9961;
174.3000;0.6821;0.9915;
174.6000;0.6854;1.0031;
174.9000;0.6878;1.0031;
175.2000;0.6846;0.9984;
175.5000;0.6854;1.0077;
175.8000;0.6821;1.0077;
176.1000;0.6829;1.0124;
176.4000;0.6829;1.0124;
176.7000;0.6813;1.0193;
177.0000;0.6821;1.0147;
177.3000;0.6821;1.0193;
177.6000;0.6846;1.0356;
177.9000;0.6846;1.0379;
178.2000;0.6813;1.0333;
178.5000;0.6829;1.0333;
178.8000;0.6854;1.0402;
179.1000;0.6829;1.0286;
179.4000;0.6895;1.0402;
179.7000;0.6870;1.0379;
180.0000;0.6813;1.0263;
180.3000;0.6838;1.0217;
180.6000;0.6716;0.9938;
180.9000;0.6829;1.0309;
181.2000;0.6821;1.0147;
181.5000;0.6829;1.0170;
181.8000;0.6797;1.0124;
182.1000;0.6829;1.0286;
182.4000;0.6838;1.0193;
182.7000;0.6846;1.0240;
183.0000;0.6878;1.0356;
183.3000;0.6846;1.0333;
183.6000;0.6829;1.0286;
183.9000;0.6813;1.0309;
184.2000;0.6781;1.0217;
184.5000;0.6846;1.0333;
184.8000;0.6862;1.0286;
185.1000;0.6829;1.0147;
185.4000;0.6846;1.0124;
185.7000;0.6829;1.0100;
186.0000;0.6821;1.0100;
186.3000;0.6862;1.0217;
186.6000;0.6829;1.0217;
186.9000;0.6854;1.0193;
187.2000;0.6911;1.0309;
187.5000;0.6829;1.0170;
187.8000;0.6838;1.0217;
188.1000;0.6895;1.0356;
188.4000;0.6895;1.0263;
188.7000;0.6854;1.0147;
189.0000;0.6821;1.0124;
189.3000;0.6829;1.0170;
189.6000;0.6854;1.0170;
189.9000;0.6813;1.0077;
190.2000;0.6813;1.0031;
190.5000;0.6813;0.9984;
190.8000;0.6838;1.0031;
191.1000;0.6821;1.0008;
191.4000;0.6838;0.9961;
191.7000;0.6829;0.9938;
192.0000;0.6838;1.0077;
192.3000;0.6829;1.0193;
192.6000;0.6838;1.0170;
192.9000;0.6805;1.0124;
193.2000;0.6829;1.0286;
193.5000;0.6846;1.0379;
193.8000;0.6829;1.0263;
194.1000;0.6805;1.0240;
194.4000;0.6854;1.0425;
194.7000;0.6854;1.0495;
195.0000;0.6821;1.0472;
195.3000;0.6821;1.0472;
195.6000;0.6805;1.0425;
195.9000;0.6862;1.0518;
196.2000;0.6846;1.0402;
196.5000;0.6838;1.0402;
196.8000;0.6838;1.0449;
197.1000;0.6846;1.0379;
197.4000;0.6854;1.0379;
197.7000;0.6821;1.0286;
198.0000;0.6821;1.0309;
198.3000;0.6805;1.0263;
198.6000;0.6829;1.0356;
198.9000;0.6829;1.0425;
199.2000;0.6789;1.0402;
199.5000;0.6821;1.0449;
199.8000;0.6813;1.0356;
200.1000;0.6821;1.0449;
200.4000;0.6821;1.0425;
200.7000;0.6838;1.0472;
201.0000;0.6821;1.0425;
201.3000;0.6789;1.0379;
201.6000;0.6829;1.0425;
201.9000;0.6838;1.0425;
202.2000;0.6838;1.0449;
202.5000;0.6829;1.0425;
202.8000;0.6829;1.0193;
203.1000;0.6838;1.0217;
203.4000;0.6862;1.0286;
203.7000;0.6846;1.0286;
204.0000;0.6821;1.0217;
204.3000;0.6821;1.0263;
204.6000;0.6821;1.0286;
204.9000;0.6870;1.0356;
205.2000;0.6838;1.0217;
205.5000;0.6821;1.0170;
205.8000;0.6829;1.0309;
206.1000;0.6813;1.0333;
206.4000;0.6829;1.0402;
206.7000;0.6829;1.0402;
207.0000;0.6829;1.0402;
207.3000;0.6862;1.0425;
207.6000;0.6854;1.0402;
207.9000;0.6829;1.0379;
208.2000;0.6781;1.0333;
208.5000;0.6838;1.0518;
208.8000;0.6838;1.0588;
209.1000;0.6821;1.0611;
209.4000;0.6846;1.0611;
209.7000;0.6838;1.0542;
210.0000;0.6821;1.0518;
210.3000;0.6854;1.0518;
210.6000;0.6846;1.0402;
210.9000;0.6846;1.0333;
211.2000;0.6895;1.0402;
211.5000;0.6854;1.0263;
211.8000;0.6862;1.0333;
212.1000;0.6854;1.0309;
212.4000;0.6838;1.0217;
212.7000;0.6862;1.0356;
213.0000;0.6838;1.0333;
213.3000;0.6838;1.0240;
213.6000;0.6838;1.0193;
213.9000;0.6838;1.0286;
214.2000;0.6838;1.0286;
214.5000;0.6838;1.0379;
214.8000;0.6829;1.0333;
215.1000;0.6829;1.0356;
215.4000;0.6838;1.0263;
215.7000;0.6846;1.0263;
216.0000;0.6846;1.0263;
216.3000;0.6838;1.0309;
216.6000;0.6829;1.0379;
216.9000;0.6838;1.0356;
217.2000;0.6821;1.0263;
217.5000;0.6838;1.0240;
217.8000;0.6829;1.0333;
218.1000;0.6829;1.0309;
218.4000;0.6838;1.0309;
218.7000;0.6838;1.0333;
219.0000;0.6870;1.0472;
219.3000;0.6821;1.0333;
219.6000;0.6821;1.0240;
219.9000;0.6838;1.0193;
220.2000;0.6829;1.0124;
220.5000;0.6838;1.0124;
220.8000;0.6724;0.9775;
221.1000;0.6854;1.0124;
221.4000;0.6829;1.0054;
221.7000;0.6838;1.0077;
222.0000;0.6829;1.0100;
222.3000;0.6838;1.0170;
222.6000;0.6846;1.0147;
222.9000;0.6838;1.0124;
223.2000;0.6838;1.0077;
223.5000;0.6862;1.0170;
223.8000;0.6838;1.0240;
224.1000;0.6846;1.0193;
224.4000;0.6829;1.0170;
224.7000;0.6838;1.0100;
225.0000;0.6846;1.0147;
225.3000;0.6772;0.9961;
225.6000;0.6838;1.0008;
225.9000;0.6821;0.9961;
226.2000;0.6813;1.0054;
226.5000;0.6813;1.0147;
226.8000;0.6813;1.0100;
227.1000;0.6886;1.0240;
227.4000;0.6878;1.0193;
227.7000;0.6829;1.0100;
228.0000;0.6829;1.0008;
228.3000;0.6927;1.0425;
228.6000;0.6829;1.0217;
228.9000;0.6821;1.0217;
229.2000;0.6838;1.0379;
229.5000;0.6821;1.0333;
229.8000;0.6813;1.0402;
230.1000;0.6789;1.0286;
230.4000;0.6829;1.0286;
230.7000;0.6838;1.0263;
231.0000;0.6813;1.0193;
231.3000;0.6829;1.0286;
231.6000;0.6829;1.0309;
231.9000;0.6838;1.0309;
232.2000;0.6813;1.0240;
232.5000;0.6821;1.0240;
232.8000;0.6829;1.0240;
233.1000;0.6829;1.0333;
233.4000;0.6821;1.0356;
233.7000;0.6838;1.0309;
234.0000;0.6854;1.0356;
234.3000;0.6821;1.0333;
234.6000;0.6821;1.0333;
234.9000;0.6748;1.0100;
235.2000;0.6805;1.0263;
235.5000;0.6829;1.0309;
235.8000;0.6846;1.0309;
236.1000;0.6813;1.0240;
236.4000;0.6829;1.0309;
236.7000;0.6846;1.0240;
237.0000;0.6838;1.0147;
237.3000;0.6862;1.0217;
237.6000;0.6813;1.0170;
237.9000;0.6862;1.0309;
238.2000;0.6862;1.0309;
238.5000;0.6813;1.0240;
238.8000;0.6789;1.0286;
239.1000;0.6829;1.0356;
239.4000;0.6829;1.0286;
239.7000;0.6829;1.0356;
240.0000;0.6813;1.0309;
240.3000;0.6821;1.0333;
240.6000;0.6895;1.0449;
240.9000;0.6821;1.0193;
241.2000;0.6846;1.0286;
241.5000;0.6813;1.0170;
241.8000;0.6838;1.0263;
242.1000;0.6846;1.0333;
242.4000;0.6846;1.0309;
242.7000;0.6756;1.0124;
243.0000;0.6838;1.0263;
243.3000;0.6829;1.0240;
243.6000;0.6821;1.0217;
243.9000;0.6838;1.0193;
244.2000;0.6829;1.0147;
244.5000;0.6805;1.0217;
244.8000;0.6846;1.0356;
245.1000;0.6805;1.0309;
245.4000;0.6821;1.0309;
245.7000;0.6821;1.0240;
246.0000;0.6813;1.0170;
246.3000;0.6756;1.0054;
246.6000;0.6813;1.0193;
246.9000;0.6846;1.0333;
247.2000;0.6829;1.0333;
247.5000;0.6829;1.0333;
247.8000;0.6821;1.0286;
248.1000;0.6829;1.0217;
248.4000;0.6813;1.0147;
248.7000;0.6838;1.0217;
249.0000;0.6829;1.0147;
249.3000;0.6838;1.0240;
249.6000;0.6838;1.0193;
249.9000;0.6813;1.0217;
250.2000;0.6838;1.0333;
250.5000;0.6797;1.0240;
250.8000;0.6870;1.0379;
251.1000;0.6838;1.0333;
251.4000;0.6821;1.0240;
251.7000;0.6821;1.0263;
252.0000;0.6821;1.0286;
252.3000;0.6854;1.0402;
252.6000;0.6805;1.0333;
252.9000;0.6821;1.0333;
253.2000;0.6829;1.0309;
253.5000;0.6821;1.0263;
253.8000;0.6813;1.0193;
254.1000;0.6846;1.0124;
254.4000;0.6862;1.0147;
254.7000;0.6829;1.0008;
255.0000;0.6813;1.0008;
255.3000;0.6838;1.0147;
255.6000;0.6821;1.0100;
255.9000;0.6813;1.0031;
256.2000;0.6797;0.9891;
256.5000;0.6716;0.9613;
256.8000;0.6781;0.9752;
257.1000;0.6789;0.9868;
257.4000;0.6813;1.0031;
257.7000;0.6813;0.9915;
258.0000;0.6829;0.9961;
258.3000;0.6772;0.9845;
258.6000;0.6838;0.9961;
258.9000;0.6813;0.9891;
259.2000;0.6903;1.0124;
259.5000;0.6878;1.0100;
259.8000;0.6821;0.9984;
260.1000;0.6821;1.0077;
260.4000;0.6821;1.0031;
260.7000;0.6821;0.9984;
261.0000;0.6821;1.0008;
261.3000;0.6829;1.0077;
261.6000;0.6821;1.0031;
261.9000;0.6813;0.9984;
262.2000;0.6797;0.9961;
262.5000;0.6789;1.0008;
262.8000;0.6789;0.9961;
263.1000;0.6805;1.0031;
263.4000;0.6813;0.9961;
263.7000;0.6854;1.0054;
264.0000;0.6870;1.0054;
264.3000;0.6813;0.9915;
264.6000;0.6813;0.9915;
264.9000;0.6829;0.9938;
265.2000;0.6813;0.9984;
265.5000;0.6846;1.0077;
265.8000;0.6821;0.9984;
266.1000;0.6846;1.0100;
266.4000;0.6813;1.0100;
266.7000;0.6829;1.0077;
267.0000;0.6838;1.0077;
267.3000;0.6813;1.0054;
267.6000;0.6821;1.0077;
267.9000;0.6805;1.0008;
268.2000;0.6813;1.0008;
268.5000;0.6821;1.0054;
268.8000;0.6813;1.0124;
269.1000;0.6821;1.0031;
269.4000;0.6846;1.0077;
269.7000;0.6829;1.0100;
270.0000;0.6838;1.0100;
270.3000;0.6829;1.0100;
270.6000;0.6862;1.0054;
270.9000;0.6829;0.9961;
271.2000;0.6846;1.0031;
271.5000;0.6813;1.0031;
271.8000;0.6781;0.9938;
272.1000;0.6821;1.0100;
272.4000;0.6854;1.0240;
272.7000;0.6805;1.0217;
273.0000;0.6813;1.0054;
273.3000;0.6781;0.9891;
273.6000;0.6805;1.0031;
273.9000;0.6821;1.0008;
274.2000;0.6846;1.0054;
274.5000;0.6772;0.9822;
274.8000;0.6911;1.0193;
275.1000;0.6829;1.0054;
275.4000;0.6862;1.0124;
275.7000;0.6821;1.0054;
276.0000;0.6813;1.0170;
276.3000;0.6821;1.0147;
276.6000;0.6829;1.0077;
276.9000;0.6854;1.0077;
277.2000;0.6821;1.0031;
277.5000;0.6829;1.0031;
277.8000;0.6854;1.0100;
278.1000;0.6813;1.0031;
278.4000;0.6829;1.0077;
278.7000;0.6838;1.0054;
279.0000;0.6829;0.9961;
279.3000;0.6829;0.9938;
279.6000;0.6838;0.9915;
279.9000;0.6878;1.0054;
280.2000;0.6797;1.0008;
280.5000;0.6829;1.0147;
280.8000;0.6829;1.0124;
281.1000;0.6829;1.0170;
281.4000;0.6854;1.0193;
281.7000;0.6781;0.9938;
282.0000;0.6821;1.0124;
282.3000;0.6911;1.0240;
282.6000;0.6781;0.9938;
282.9000;0.6805;1.0008;
283.2000;0.6829;1.0054;
283.5000;0.6740;0.9775;
283.8000;0.6813;0.9961;
284.1000;0.6805;0.9984;
284.4000;0.6772;0.9868;
284.7000;0.6821;0.9845;
285.0000;0.6821;0.9752;
285.3000;0.6846;0.9822;
285.6000;0.6813;0.9775;
285.9000;0.6838;0.9868;
286.2000;0.6886;0.9961;
286.5000;0.6821;0.9799;
286.8000;0.6797;0.9752;
287.1000;0.6813;0.9868;
287.4000;0.6838;0.9891;
287.7000;0.6821;0.9891;
288.0000;0.6838;0.9938;
288.3000;0.6846;0.9915;
288.6000;0.6854;0.9961;
288.9000;0.6829;0.9868;
289.2000;0.6821;0.9822;
289.5000;0.6838;0.9915;
289.8000;0.6838;1.0008;
290.1000;0.6886;1.0100;
290.4000;0.6846;1.0031;
290.7000;0.6821;1.0008;
291.0000;0.6838;0.9938;
291.3000;0.6846;0.9938;
291.6000;0.6821;1.0008;
291.9000;0.6886;1.0124;
292.2000;0.6838;0.9961;
292.5000;0.6846;1.0008;
292.8000;0.6846;1.0008;
293.1000;0.6838;1.0031;
293.4000;0.6829;0.9984;
293.7000;0.6821;1.0008;
294.0000;0.6821;0.9915;
294.3000;0.6838;0.9938;
294.6000;0.6813;0.9822;
294.9000;0.6821;0.9868;
295.2000;0.6903;1.0100;
295.5000;0.6846;0.9984;
295.8000;0.6878;1.0217;
296.1000;0.6919;1.0240;
296.4000;0.6838;1.0124;
296.7000;0.6829;1.0170;
297.0000;0.6821;1.0170;
297.3000;0.6813;0.9984;
297.6000;0.6789;0.9984;
297.9000;0.6821;1.0124;
298.2000;0.6805;1.0031;
298.5000;0.6805;1.0031;
298.8000;0.6781;0.9961;
299.1000;0.6805;1.0031;
299.4000;0.6813;0.9961;
299.7000;0.6838;1.0054;
300.0000;0.6813;1.0008;
300.3000;0.6838;1.0100;
300.6000;0.6821;1.0054;
300.9000;0.6813;1.0054;
301.2000;0.6829;1.0054;
301.5000;0.6829;1.0100;
301.8000;0.6821;1.0031;
302.1000;0.6846;1.0054;
302.4000;0.6821;1.0077;
302.7000;0.6813;1.0008;
303.0000;0.6829;1.0031;
303.3000;0.6813;0.9961;
303.6000;0.6805;0.9915;
303.9000;0.6821;0.9891;
304.2000;0.6829;0.9984;
304.5000;0.6838;1.0077;
304.8000;0.6838;1.0077;
305.1000;0.6829;1.0008;
305.4000;0.6813;0.9868;
305.7000;0.6846;0.9961;
306.0000;0.6854;0.9891;
306.3000;0.6829;0.9822;
306.6000;0.6829;0.9868;
306.9000;0.6829;0.9891;
307.2000;0.6805;0.9799;
307.5000;0.6821;0.9822;
307.8000;0.6813;0.9729;
308.1000;0.6805;0.9682;
308.4000;0.6846;0.9682;
308.7000;0.6748;0.9427;
309.0000;0.6829;0.9682;
309.3000;0.6838;0.9775;
309.6000;0.6838;0.9868;
309.9000;0.6886;1.0054;
310.2000;0.6838;0.9938;
310.5000;0.6829;1.0031;
310.8000;0.6903;1.0054;
311.1000;0.6805;0.9799;
311.4000;0.6829;0.9868;
311.7000;0.6854;0.9891;
312.0000;0.6813;0.9822;
312.3000;0.6838;0.9938;
312.6000;0.6797;0.9845;
312.9000;0.6789;0.9891;
313.2000;0.6821;0.9961;
313.5000;0.6821;0.9938;
313.8000;0.6838;0.9961;
314.1000;0.6838;0.9915;
314.4000;0.6829;0.9868;
314.7000;0.6829;0.9938;
315.0000;0.6854;0.9984;
315.3000;0.6821;0.9868;
315.6000;0.6829;0.9984;
315.9000;0.6919;1.0263;
316.2000;0.6846;1.0124;
316.5000;0.6838;0.9984;
316.8000;0.6829;0.9915;
317.1000;0.6854;0.9961;
317.4000;0.6805;0.9845;
317.7000;0.6813;0.9915;
318.0000;0.6829;0.9961;
318.3000;0.6821;0.9961;
318.6000;0.6813;0.9984;
318.9000;0.6772;0.9752;
319.2000;0.6797;0.9868;
319.5000;0.6829;0.9822;
319.8000;0.6838;0.9891;
320.1000;0.6789;0.9845;
320.4000;0.6838;1.0008;
320.7000;0.6805;0.9915;
321.0000;0.6838;1.0054;
321.3000;0.6854;1.0124;
321.6000;0.6838;1.0054;
321.9000;0.6764;0.9845;
322.2000;0.6821;0.9984;
322.5000;0.6829;0.9891;
322.8000;0.6829;0.9891;
323.1000;0.6829;0.9891;
323.4000;0.6821;0.9799;
323.7000;0.6805;0.9729;
324.0000;0.6829;0.9799;
324.3000;0.6813;0.9729;
324.6000;0.6805;0.9729;
324.9000;0.6805;0.9752;
325.2000;0.6838;0.9891;
325.5000;0.6813;0.9868;
325.8000;0.6805;0.9891;
326.1000;0.6805;0.9891;
326.4000;0.6829;0.9891;
326.7000;0.6813;0.9775;
327.0000;0.6813;0.9799;
327.3000;0.6829;0.9938;
327.6000;0.6829;0.9938;
327.9000;0.6829;1.0031;
328.2000;0.6829;1.0054;
328.5000;0.6821;1.0077;
328.8000;0.6838;1.0100;
329.1000;0.6821;1.0054;
329.4000;0.6838;1.0124;
329.7000;0.6878;1.0379;
330.0000;0.6772;1.0170;
330.3000;0.6846;1.0495;
330.6000;0.6838;1.0425;
330.9000;0.6813;1.0379;
331.2000;0.6813;1.0333;
331.5000;0.6821;1.0333;
331.8000;0.6846;1.0356;
332.1000;0.6821;1.0217;
332.4000;0.6813;1.0147;
332.7000;0.6805;1.0100;
333.0000;0.6813;1.0170;
333.3000;0.6813;1.0170;
333.6000;0.6903;1.0356;
333.9000;0.6829;1.0170;
334.2000;0.6805;1.0147;
334.5000;0.6813;1.0170;
334.8000;0.6821;1.0193;
335.1000;0.6821;1.0193;
335.4000;0.6829;1.0309;
335.7000;0.6846;1.0333;
336.0000;0.6821;1.0309;
336.3000;0.6821;1.0333;
336.6000;0.6732;1.0124;
336.9000;0.6813;1.0309;
337.2000;0.6838;1.0309;
337.5000;0.6805;1.0240;
337.8000;0.6756;1.0124;
338.1000;0.6821;1.0286;
338.4000;0.6797;1.0147;
338.7000;0.6829;1.0147;
339.0000;0.6821;1.0147;
339.3000;0.6813;1.0240;
339.6000;0.6813;1.0286;
339.9000;0.6805;1.0240;
340.2000;0.6846;1.0356;
340.5000;0.6829;1.0286;
340.8000;0.6821;1.0309;
341.1000;0.6805;1.0333;
341.4000;0.6846;1.0449;
341.7000;0.6805;1.0309;
342.0000;0.6829;1.0309;
342.3000;0.6821;1.0217;
342.6000;0.6838;1.0263;
342.9000;0.6805;1.0147;
343.2000;0.6772;1.0008;
343.5000;0.6838;1.0100;
343.8000;0.6772;1.0008;
344.1000;0.6838;1.0170;
344.4000;0.6781;1.0124;
344.7000;0.6805;1.0217;
345.0000;0.6813;1.0263;
345.3000;0.6805;1.0309;
345.6000;0.6805;1.0263;
345.9000;0.6829;1.0309;
346.2000;0.6813;1.0286;
346.5000;0.6829;1.0333;
346.8000;0.6862;1.0402;
347.1000;0.6886;1.0425;
347.4000;0.6846;1.0309;
347.7000;0.6829;1.0217;
348.0000;0.6813;1.0240;
348.3000;0.6797;1.0217;
348.6000;0.6821;1.0309;
348.9000;0.6846;1.0240;
349.2000;0.6829;1.0240;
349.5000;0.6829;1.0170;
349.8000;0.6829;1.0193;
350.1000;0.6821;1.0240;
350.4000;0.6838;1.0402;
350.7000;0.6838;1.0309;
351.0000;0.6821;1.0356;
351.3000;0.6789;1.0240;
351.6000;0.6846;1.0402;
351.9000;0.6821;1.0286;
352.2000;0.6846;1.0263;
352.5000;0.6846;1.0193;
352.8000;0.6756;1.0077;
353.1000;0.6838;1.0240;
353.4000;0.6870;1.0333;
353.7000;0.6821;1.0217;
354.0000;0.6862;1.0356;
354.3000;0.6821;1.0333;
354.6000;0.6838;1.0333;
354.9000;0.6829;1.0240;
355.2000;0.6797;1.0193;
355.5000;0.6805;1.0263;
355.8000;0.6838;1.0402;
356.1000;0.6813;1.0193;
356.4000;0.6829;1.0147;
356.7000;0.6716;0.9891;
357.0000;0.6854;1.0147;
357.3000;0.6829;1.0054;
357.6000;0.6846;1.0124;
357.9000;0.6829;1.0217;
358.2000;0.6846;1.0309;
358.5000;0.6829;1.0286;
358.8000;0.6813;1.0240;
359.1000;0.6829;1.0217;
359.4000;0.6829;1.0193;
359.7000;0.6821;1.0193;
360.0000;0.6813;1.0147;
360.3000;0.6805;1.0124;
360.6000;0.6772;1.0031;
360.9000;0.6829;1.0147;
361.2000;0.6789;1.0077;
361.5000;0.6805;1.0054;
361.8000;0.6838;0.9984;
362.1000;0.6846;1.0008;
362.4000;0.6829;1.0031;
362.7000;0.6854;1.0031;
363.0000;0.6821;0.9984;
363.3000;0.6781;0.9984;
363.6000;0.6821;1.0031;
363.9000;0.6691;0.9799;
364.2000;0.6813;1.0147;
364.5000;0.6846;1.0286;
364.8000;0.6797;1.0124;
365.1000;0.6781;1.0100;
365.4000;0.6789;1.0008;
365.7000;0.6821;1.0077;
366.0000;0.6716;0.9799;
366.3000;0.6781;1.0054;
366.6000;0.6821;1.0100;
366.9000;0.6805;1.0031;
367.2000;0.6846;1.0147;
367.5000;0.6838;1.0217;
367.8000;0.6813;1.0077;
368.1000;0.6781;1.0077;
368.4000;0.6797;1.0077;
368.7000;0.6813;1.0170;
369.0000;0.6821;1.0240;
369.3000;0.6813;1.0217;
369.6000;0.6821;1.0309;
369.9000;0.6821;1.0240;
370.2000;0.6821;1.0240;
370.5000;0.6789;1.0217;
370.8000;0.6838;1.0333;
371.1000;0.6829;1.0193;
371.4000;0.6821;1.0240;
371.7000;0.6805;1.0240;
372.0000;0.6878;1.0356;
372.3000;0.6846;1.0217;
372.6000;0.6805;1.0077;
372.9000;0.6772;1.0031;
373.2000;0.6813;1.0170;
373.5000;0.6813;1.0100;
373.8000;0.6821;1.0100;
374.1000;0.6870;1.0286;
374.4000;0.6829;1.0263;
374.7000;0.6829;1.0309;
375.0000;0.6789;1.0170;
375.3000;0.6797;1.0240;
375.6000;0.6829;1.0449;
375.9000;0.6764;1.0263;
376.2000;0.6846;1.0309;
376.5000;0.6821;1.0170;
376.8000;0.6813;1.0170;
377.1000;0.6813;1.0147;
377.4000;0.6805;1.0124;
377.7000;0.6821;1.0100;
378.0000;0.6797;1.0147;
378.3000;0.6829;1.0263;
378.6000;0.6829;1.0217;
378.9000;0.6821;1.0240;
379.2000;0.6683;0.9915;
379.5000;0.6813;1.0193;
379.8000;0.6805;1.0147;
380.1000;0.6838;1.0217;
380.4000;0.6854;1.0263;
380.7000;0.6838;1.0263;
381.0000;0.6813;1.0193;
381.3000;0.6813;1.0170;
381.6000;0.6797;1.0100;
381.9000;0.6797;1.0147;
382.2000;0.6829;1.0193;
382.5000;0.6829;1.0124;
382.8000;0.6821;0.9984;
383.1000;0.6813;0.9984;
383.4000;0.6805;1.0031;
383.7000;0.6805;0.9915;
384.0000;0.6846;0.9984;
384.3000;0.6838;0.9961;
384.6000;0.6813;0.9891;
384.9000;0.6846;0.9938;
385.2000;0.6829;0.9891;
385.5000;0.6805;0.9845;
385.8000;0.6772;0.9706;
386.1000;0.6813;0.9868;
386.4000;0.6805;0.9961;
386.7000;0.6829;0.9961;
387.0000;0.6838;1.0077;
387.3000;0.6829;1.0100;
387.6000;0.6821;1.0031;
387.9000;0.6862;1.0100;
388.2000;0.6829;1.0100;
388.5000;0.6821;1.0100;
388.8000;0.6838;1.0217;
389.1000;0.6821;1.0240;
389.4000;0.6903;1.0333;
389.7000;0.6813;1.0147;
390.0000;0.6821;1.0240;
390.3000;0.6821;1.0124;
390.6000;0.6943;1.0402;
390.9000;0.6862;1.0240;
391.2000;0.6764;1.0031;
391.5000;0.6821;1.0124;
391.8000;0.6862;1.0263;
392.1000;0.6805;1.0147;
392.4000;0.6813;1.0193;
392.7000;0.6813;1.0217;
393.0000;0.6838;1.0263;
393.3000;0.6829;1.0217;
393.6000;0.6829;1.0217;
393.9000;0.6829;1.0286;
394.2000;0.6829;1.0240;
394.5000;0.6813;1.0193;
394.8000;0.6805;1.0147;
395.1000;0.6821;1.0193;
395.4000;0.6781;1.0077;
395.7000;0.6821;1.0193;
396.0000;0.6829;1.0240;
396.3000;0.6805;1.0286;
396.6000;0.6838;1.0263;
396.9000;0.6805;1.0309;
397.2000;0.6813;1.0240;
397.5000;0.6838;1.0217;
397.8000;0.6829;1.0147;
398.1000;0.6838;1.0170;
398.4000;0.6829;1.0193;
398.7000;0.6813;1.0193;
399.0000;0.6829;1.0217;
399.3000;0.6829;1.0263;
399.6000;0.6797;1.0240;
399.9000;0.6805;1.0170;
400.2000;0.6805;1.0193;
400.5000;0.6781;1.0077;
400.8000;0.6797;1.0124;
401.1000;0.6805;1.0124;
401.4000;0.6805;1.0054;
401.7000;0.6797;1.0031;
402.0000;0.6813;1.0054;
402.3000;0.6805;1.0077;
402.6000;0.6797;1.0263;
402.9000;0.6813;1.0240;
403.2000;0.6821;1.0240;
403.5000;0.6821;1.0263;
403.8000;0.6797;1.0309;
404.1000;0.6756;1.0263;
404.4000;0.6805;1.0333;
404.7000;0.6797;1.0356;
405.0000;0.6813;1.0402;
405.3000;0.6821;1.0356;
405.6000;0.6821;1.0309;
405.9000;0.6829;1.0356;
406.2000;0.6829;1.0333;
406.5000;0.6838;1.0402;
406.8000;0.6854;1.0565;
407.1000;0.6813;1.0495;
407.4000;0.6838;1.0472;
407.7000;0.6699;1.0170;
408.0000;0.6821;1.0402;
408.3000;0.6838;1.0379;
408.6000;0.6846;1.0309;
408.9000;0.6829;1.0286;
409.2000;0.6789;1.0147;
409.5000;0.6829;1.0263;
409.8000;0.6821;1.0217;
410.1000;0.6821;1.0170;
410.4000;0.6854;1.0333;
410.7000;0.6829;1.0170;
411.0000;0.6935;1.0309;
411.3000;0.6789;0.9961;
411.6000;0.6821;1.0054;
411.9000;0.6870;1.0193;
412.2000;0.6813;1.0147;
412.5000;0.6789;1.0124;
412.8000;0.6846;1.0124;
413.1000;0.6829;1.0100;
413.4000;0.6878;1.0286;
413.7000;0.6821;1.0356;
414.0000;0.6821;1.0356;
414.3000;0.6781;1.0286;
414.6000;0.6789;1.0193;
414.9000;0.6805;1.0124;
415.2000;0.6740;0.9938;
415.5000;0.6789;0.9938;
415.8000;0.6805;1.0008;
416.1000;0.6821;1.0031;
416.4000;0.6854;1.0147;
416.7000;0.6805;1.0124;
417.0000;0.6829;1.0240;
417.3000;0.6829;1.0193;
417.6000;0.6886;1.0309;
417.9000;0.6821;1.0193;
418.2000;0.6829;1.0124;
418.5000;0.6805;1.0054;
418.8000;0.6829;1.0193;
419.1000;0.6805;1.0100;
419.4000;0.6821;1.0170;
419.7000;0.6821;1.0170;
420.0000;0.6821;1.0240;
420.3000;0.6797;1.0240;
420.6000;0.6813;1.0286;
420.9000;0.6821;1.0379;
421.2000;0.6829;1.0286;
421.5000;0.6829;1.0240;
421.8000;0.6821;1.0240;
422.1000;0.6813;1.0309;
422.4000;0.6821;1.0309;
422.7000;0.6813;1.0217;
423.0000;0.6789;1.0193;
423.3000;0.6821;1.0356;
423.6000;0.6821;1.0309;
423.9000;0.6829;1.0379;
424.2000;0.6813;1.0356;
424.5000;0.6821;1.0356;
424.8000;0.6821;1.0309;
425.1000;0.6813;1.0286;
425.4000;0.6813;1.0217;
425.7000;0.6732;0.9961;
426.0000;0.6821;1.0124;
426.3000;0.6813;1.0077;
426.6000;0.6846;1.0170;
426.9000;0.6797;1.0124;
427.2000;0.6772;1.0031;
427.5000;0.6821;1.0124;
427.8000;0.6789;1.0077;
428.1000;0.6789;1.0031;
428.4000;0.6805;1.0100;
428.7000;0.6886;1.0286;
429.0000;0.6805;1.0217;
429.3000;0.6813;1.0379;
429.6000;0.6797;1.0379;
429.9000;0.6903;1.0611;
430.2000;0.6813;1.0449;
430.5000;0.6813;1.0425;
430.8000;0.6846;1.0449;
431.1000;0.6821;1.0356;
431.4000;0.6813;1.0333;
431.7000;0.6821;1.0379;
432.0000;0.6838;1.0379;
432.3000;0.6829;1.0333;
432.6000;0.6838;1.0309;
432.9000;0.6821;1.0333;
433.2000;0.6870;1.0402;
433.5000;0.6821;1.0240;
433.8000;0.6829;1.0263;
434.1000;0.6821;1.0263;
434.4000;0.6838;1.0263;
434.7000;0.6821;1.0217;
435.0000;0.6829;1.0309;
435.3000;0.6813;1.0286;
435.6000;0.6821;1.0333;
435.9000;0.6829;1.0333;
436.2000;0.6805;1.0286;
436.5000;0.6821;1.0286;
436.8000;0.6772;1.0193;
437.1000;0.6813;1.0309;
437.4000;0.6829;1.0263;
437.7000;0.6821;1.0147;
438.0000;0.6821;1.0054;
438.3000;0.6862;1.0217;
438.6000;0.6805;1.0077;
438.9000;0.6919;1.0425;
439.2000;0.6829;1.0170;
439.5000;0.6829;1.0170;
439.8000;0.6789;1.0077;
440.1000;0.6813;1.0217;
440.4000;0.6821;1.0309;
440.7000;0.6797;1.0286;
441.0000;0.6805;1.0449;
441.3000;0.6813;1.0379;
441.6000;0.6716;1.0100;
441.9000;0.6772;1.0217;
442.2000;0.6805;1.0240;
442.5000;0.6829;1.0170;
442.8000;0.6838;1.0170;
443.1000;0.6813;1.0240;
443.4000;0.6805;1.0100;
443.7000;0.6829;1.0147;
444.0000;0.6838;1.0217;
444.3000;0.6829;1.0240;
444.6000;0.6821;1.0263;
444.9000;0.6821;1.0333;
445.2000;0.6813;1.0309;
445.5000;0.6813;1.0263;
445.8000;0.6862;1.0425;
446.1000;0.6813;1.0379;
446.4000;0.6821;1.0402;
446.7000;0.6821;1.0379;
447.0000;0.6821;1.0333;
447.3000;0.6789;1.0263;
447.6000;0.6805;1.0263;
447.9000;0.6805;1.0240;
448.2000;0.6797;1.0240;
448.5000;0.6813;1.0333;
448.8000;0.6813;1.0217;
449.1000;0.6821;1.0240;
449.4000;0.6797;1.0217;
449.7000;0.6764;1.0124;
450.0000;0.6805;1.0217;
450.3000;0.6903;1.0495;
450.6000;0.6821;1.0356;
450.9000;0.6797;1.0425;
451.2000;0.6805;1.0402;
451.5000;0.6797;1.0402;
451.8000;0.6862;1.0588;
452.1000;0.6797;1.0425;
452.4000;0.6789;1.0425;
452.7000;0.6838;1.0495;
453.0000;0.6813;1.0449;
453.3000;0.6805;1.0379;
453.6000;0.6829;1.0379;
453.9000;0.6821;1.0333;
454.2000;0.6829;1.0425;
454.5000;0.6813;1.0402;
454.8000;0.6805;1.0379;
455.1000;0.6813;1.0425;
455.4000;0.6838;1.0425;
455.7000;0.6821;1.0425;
456.0000;0.6813;1.0472;
456.3000;0.6805;1.0472;
456.6000;0.6829;1.0518;
456.9000;0.6821;1.0449;
457.2000;0.6838;1.0402;
457.5000;0.6813;1.0309;
457.8000;0.6821;1.0286;
458.1000;0.6764;1.0147;
458.4000;0.6805;1.0356;
458.7000;0.6813;1.0379;
459.0000;0.6829;1.0356;
459.3000;0.6821;1.0333;
459.6000;0.6797;1.0333;
459.9000;0.6813;1.0425;
460.2000;0.6821;1.0379;
460.5000;0.6838;1.0309;
460.8000;0.6821;1.0240;
461.1000;0.6805;1.0193;
461.4000;0.6813;1.0217;
461.7000;0.6821;1.0170;
462.0000;0.6797;1.0100;
462.3000;0.6805;1.0124;
462.6000;0.6764;1.0124;
462.9000;0.6813;1.0309;
463.2000;0.6838;1.0402;
463.5000;0.6797;1.0263;
463.8000;0.6805;1.0217;
464.1000;0.6789;1.0170;
464.4000;0.6813;1.0240;
464.7000;0.6829;1.0263;
465.0000;0.6813;1.0379;
465.3000;0.6813;1.0356;
465.6000;0.6813;1.0379;
465.9000;0.6813;1.0333;
466.2000;0.6829;1.0379;
466.5000;0.6821;1.0402;
466.8000;0.6821;1.0449;
467.1000;0.6805;1.0356;
467.4000;0.6813;1.0472;
467.7000;0.6789;1.0402;
468.0000;0.6789;1.0356;
468.3000;0.6797;1.0449;
468.6000;0.6797;1.0356;
468.9000;0.6797;1.0309;
469.2000;0.6805;1.0309;
469.5000;0.6838;1.0356;
469.8000;0.6797;1.0356;
470.1000;0.6813;1.0449;
470.4000;0.6821;1.0449;
470.7000;0.6821;1.0356;
471.0000;0.6821;1.0356;
471.3000;0.6772;1.0286;
471.6000;0.6756;1.0309;
471.9000;0.6797;1.0495;
472.2000;0.6821;1.0495;
472.5000;0.6846;1.0611;
472.8000;0.6805;1.0472;
473.1000;0.6805;1.0495;
473.4000;0.6789;1.0472;
473.7000;0.6789;1.0449;
474.0000;0.6797;1.0495;
474.3000;0.6789;1.0472;
474.6000;0.6789;1.0588;
474.9000;0.6797;1.0634;
475.2000;0.6805;1.0588;
475.5000;0.6846;1.0681;
475.8000;0.6797;1.0542;
476.1000;0.6781;1.0518;
476.4000;0.6805;1.0542;
476.7000;0.6821;1.0658;
477.0000;0.6813;1.0588;
477.3000;0.6797;1.0565;
477.6000;0.6789;1.0565;
477.9000;0.6813;1.0611;
478.2000;0.6821;1.0658;
478.5000;0.6829;1.0518;
478.8000;0.6813;1.0356;
479.1000;0.6805;1.0425;
479.4000;0.6805;1.0356;
479.7000;0.6829;1.0402;
480.0000;0.6813;1.0379;
480.3000;0.6821;1.0309;
480.6000;0.6838;1.0309;
480.9000;0.6829;1.0263;
481.2000;0.6821;1.0217;
481.5000;0.6829;1.0240;
481.8000;0.6797;1.0170;
482.1000;0.6813;1.0286;
482.4000;0.6813;1.0286;
482.7000;0.6870;1.0518;
483.0000;0.6805;1.0402;
483.3000;0.6797;1.0425;
483.6000;0.6797;1.0425;
483.9000;0.6895;1.0634;
484.2000;0.6805;1.0356;
484.5000;0.6805;1.0356;
484.8000;0.6748;1.0193;
485.1000;0.6805;1.0217;
485.4000;0.6813;1.0286;
485.7000;0.6789;1.0193;
486.0000;0.6805;1.0217;
486.3000;0.6813;1.0263;
486.6000;0.6797;1.0240;
486.9000;0.6846;1.0333;
487.2000;0.6805;1.0356;
487.5000;0.6821;1.0402;
487.8000;0.6797;1.0449;
488.1000;0.6805;1.0449;
488.4000;0.6789;1.0402;
488.7000;0.6805;1.0333;
489.0000;0.6805;1.0286;
489.3000;0.6821;1.0379;
489.6000;0.6805;1.0286;
489.9000;0.6829;1.0286;
490.2000;0.6797;1.0217;
490.5000;0.6813;1.0309;
490.8000;0.6813;1.0356;
491.1000;0.6878;1.0495;
491.4000;0.6797;1.0333;
491.7000;0.6797;1.0286;
492.0000;0.6805;1.0263;
492.3000;0.6797;1.0263;
492.6000;0.6813;1.0286;
492.9000;0.6829;1.0240;
493.2000;0.6829;1.0263;
493.5000;0.6854;1.0309;
493.8000;0.6821;1.0217;
494.1000;0.6821;1.0170;
494.4000;0.6805;1.0170;
494.7000;0.6805;1.0124;
495.0000;0.6854;1.0193;
495.3000;0.6813;1.0170;
495.6000;0.6895;1.0356;
495.9000;0.6805;1.0147;
496.2000;0.6781;1.0100;
496.5000;0.6805;1.0217;
496.8000;0.6829;1.0263;
497.1000;0.6789;1.0170;
497.4000;0.6789;1.0240;
497.7000;0.6813;1.0240;
498.0000;0.6813;1.0309;
498.3000;0.6789;1.0217;
498.6000;0.6781;1.0170;
498.9000;0.6805;1.0240;
499.2000;0.6919;1.0634;
499.5000;0.6789;1.0286;
499.8000;0.6829;1.0379;
500.1000;0.6821;1.0333;
500.4000;0.6797;1.0170;
500.7000;0.6732;1.0031;
501.0000;0.6821;1.0193;
501.3000;0.6821;1.0170;
501.6000;0.6813;1.0100;
501.9000;0.6797;1.0077;
502.2000;0.6756;1.0008;
502.5000;0.6789;1.0147;
502.8000;0.6797;1.0240;
503.1000;0.6797;1.0240;
503.4000;0.6781;1.0240;
503.7000;0.6813;1.0333;
504.0000;0.6813;1.0425;
504.3000;0.6813;1.0518;
504.6000;0.6797;1.0472;
504.9000;0.6838;1.0518;
505.2000;0.6821;1.0449;
505.5000;0.6789;1.0402;
505.8000;0.6805;1.0402;
506.1000;0.6797;1.0425;
506.4000;0.6813;1.0472;
506.7000;0.6927;1.0727;
507.0000;0.6821;1.0425;
507.3000;0.6805;1.0333;
507.6000;0.6813;1.0425;
507.9000;0.6756;1.0286;
508.2000;0.6919;1.0588;
508.5000;0.6789;1.0309;
508.8000;0.6813;1.0356;
509.1000;0.6813;1.0333;
509.4000;0.6813;1.0379;
509.7000;0.6772;1.0333;
510.0000;0.6789;1.0309;
510.3000;0.6813;1.0286;
510.6000;0.6813;1.0333;
510.9000;0.6813;1.0309;
511.2000;0.6789;1.0263;
511.5000;0.6821;1.0402;
511.8000;0.6772;1.0472;
512.1000;0.6772;1.0425;
512.4000;0.6821;1.0449;
512.7000;0.6805;1.0402;
513.0000;0.6772;1.0333;
513.3000;0.6797;1.0379;
513.6000;0.6829;1.0402;
513.9000;0.6838;1.0425;
514.2000;0.6805;1.0472;
514.5000;0.6797;1.0425;
514.8000;0.6805;1.0472;
515.1000;0.6813;1.0495;
515.4000;0.6821;1.0518;
515.7000;0.6813;1.0495;
516.0000;0.6829;1.0611;
516.3000;0.6797;1.0449;
516.6000;0.6805;1.0472;
516.9000;0.6813;1.0449;
517.2000;0.6813;1.0449;
517.5000;0.6854;1.0472;
517.8000;0.6829;1.0402;
518.1000;0.6813;1.0379;
518.4000;0.6789;1.0333;
518.7000;0.6870;1.0495;
519.0000;0.6862;1.0542;
519.3000;0.6813;1.0333;
519.6000;0.6838;1.0379;
519.9000;0.6789;1.0217;
520.2000;0.6724;1.0077;
520.5000;0.6838;1.0309;
520.8000;0.6772;1.0240;
521.1000;0.6772;1.0240;
521.4000;0.6732;1.0077;
521.7000;0.6797;1.0147;
522.0000;0.6797;1.0193;
522.3000;0.6748;1.0147;
522.6000;0.6870;1.0425;
522.9000;0.6797;1.0286;
523.2000;0.6797;1.0309;
523.5000;0.6789;1.0286;
523.8000;0.6821;1.0518;
524.1000;0.6781;1.0402;
524.4000;0.6821;1.0542;
524.7000;0.6789;1.0495;
525.0000;0.6805;1.0449;
525.3000;0.6903;1.0611;
525.6000;0.6764;1.0309;
525.9000;0.6781;1.0309;
526.2000;0.6797;1.0286;
526.5000;0.6797;1.0286;
526.8000;0.6813;1.0217;
527.1000;0.6805;1.0309;
527.4000;0.6805;1.0309;
527.7000;0.6789;1.0309;
528.0000;0.6797;1.0333;
528.3000;0.6789;1.0356;
528.6000;0.6797;1.0402;
528.9000;0.6764;1.0217;
529.2000;0.6789;1.0309;
529.5000;0.6813;1.0356;
529.8000;0.6813;1.0356;
530.1000;0.6797;1.0263;
530.4000;0.6911;1.0588;
530.7000;0.6789;1.0286;
531.0000;0.6821;1.0379;
531.3000;0.6829;1.0356;
531.6000;0.6838;1.0402;
531.9000;0.6797;1.0379;
532.2000;0.6797;1.0379;
532.5000;0.6707;1.0124;
532.8000;0.6813;1.0309;
533.1000;0.6813;1.0379;
533.4000;0.6797;1.0425;
533.7000;0.6805;1.0495;
534.0000;0.6797;1.0449;
534.3000;0.6813;1.0449;
534.6000;0.6781;1.0402;
534.9000;0.6829;1.0449;
535.2000;0.6797;1.0286;
535.5000;0.6813;1.0240;
535.8000;0.6797;1.0263;
536.1000;0.6805;1.0309;
536.4000;0.6797;1.0309;
536.7000;0.6821;1.0356;
537.0000;0.6764;1.0147;
537.3000;0.6797;1.0217;
537.6000;0.6805;1.0147;
537.9000;0.6797;1.0217;
538.2000;0.6805;1.0217;
538.5000;0.6781;1.0170;
538.8000;0.6805;1.0240;
539.1000;0.6797;1.0193;
539.4000;0.6805;1.0217;
539.7000;0.6813;1.0240;
540.0000;0.6781;1.0124;
540.3000;0.6797;1.0100;
540.6000;0.6813;1.0286;
540.9000;0.6821;1.0286;
541.2000;0.6797;1.0286;
541.5000;0.6797;1.0379;
541.8000;0.6789;1.0263;
542.1000;0.6821;1.0263;
542.4000;0.6821;1.0286;
542.7000;0.6781;1.0124;
543.0000;0.6764;1.0170;
543.3000;0.6821;1.0333;
543.6000;0.6870;1.0356;
543.9000;0.6821;1.0309;
544.2000;0.6748;1.0124;
544.5000;0.6691;1.0054;
544.8000;0.6789;1.0263;
545.1000;0.6821;1.0333;
545.4000;0.6772;1.0170;
545.7000;0.6772;1.0100;
546.0000;0.6838;1.0217;
546.3000;0.6797;1.0124;
546.6000;0.6805;1.0100;
546.9000;0.6748;0.9938;
547.2000;0.6772;1.0124;
547.5000;0.6805;1.0217;
547.8000;0.6797;1.0263;
548.1000;0.6650;0.9938;
548.4000;0.6805;1.0147;
548.7000;0.6797;1.0240;
549.0000;0.6813;1.0263;
549.3000;0.6821;1.0263;
549.6000;0.6797;1.0263;
549.9000;0.6797;1.0309;
550.2000;0.6797;1.0286;
550.5000;0.6789;1.0263;
550.8000;0.6797;1.0217;
551.1000;0.6846;1.0286;
551.4000;0.6797;1.0147;
551.7000;0.6821;1.0147;
552.0000;0.6838;1.0263;
552.3000;0.6797;1.0263;
552.6000;0.6805;1.0356;
552.9000;0.6829;1.0356;
553.2000;0.6805;1.0217;
553.5000;0.6813;1.0193;
553.8000;0.6821;1.0193;
554.1000;0.6764;1.0193;
554.4000;0.6813;1.0379;
554.7000;0.6805;1.0309;
555.0000;0.6781;1.0356;
555.3000;0.6805;1.0379;
555.6000;0.6789;1.0240;
555.9000;0.6732;1.0193;
556.2000;0.6781;1.0333;
556.5000;0.6789;1.0286;
556.8000;0.6764;1.0240;
557.1000;0.6805;1.0379;
557.4000;0.6707;1.0054;
557.7000;0.6797;1.0356;
558.0000;0.6789;1.0286;
558.3000;0.6789;1.0333;
558.6000;0.6789;1.0379;
558.9000;0.6740;1.0402;
559.2000;0.6797;1.0449;
559.5000;0.6805;1.0425;
559.8000;0.6797;1.0402;
560.1000;0.6797;1.0425;
560.4000;0.6805;1.0402;
560.7000;0.6772;1.0240;
561.0000;0.6732;1.0147;
561.3000;0.6805;1.0286;
561.6000;0.6781;1.0170;
561.9000;0.6813;1.0170;
562.2000;0.6797;1.0240;
562.5000;0.6797;1.0263;
562.8000;0.6813;1.0379;
563.1000;0.6813;1.0402;
563.4000;0.6764;1.0333;
563.7000;0.6797;1.0449;
564.0000;0.6805;1.0402;
564.3000;0.6862;1.0495;
564.6000;0.6838;1.0449;
564.9000;0.6805;1.0333;
565.2000;0.6813;1.0333;
565.5000;0.6805;1.0286;
565.8000;0.6797;1.0356;
566.1000;0.6797;1.0402;
566.4000;0.6789;1.0425;
566.7000;0.6813;1.0379;
567.0000;0.6781;1.0286;
567.3000;0.6781;1.0356;
567.6000;0.6683;1.0170;
567.9000;0.6797;1.0425;
568.2000;0.6805;1.0425;
568.5000;0.6854;1.0542;
568.8000;0.6789;1.0449;
569.1000;0.6846;1.0542;
569.4000;0.6789;1.0379;
569.7000;0.6805;1.0356;
570.0000;0.6797;1.0356;
570.3000;0.6838;1.0472;
570.6000;0.6813;1.0356;
570.9000;0.6789;1.0286;
571.2000;0.6797;1.0240;
571.5000;0.6789;1.0193;
571.8000;0.6805;1.0193;
572.1000;0.6797;1.0240;
572.4000;0.6789;1.0240;
572.7000;0.6781;1.0217;
573.0000;0.6789;1.0217;
573.3000;0.6781;1.0147;
573.6000;0.6797;1.0193;
573.9000;0.6772;1.0193;
574.2000;0.6813;1.0356;
574.5000;0.6797;1.0309;
574.8000;0.6813;1.0449;
575.1000;0.6789;1.0425;
575.4000;0.6829;1.0449;
575.7000;0.6797;1.0309;
576.0000;0.6732;1.0054;
576.3000;0.6797;1.0147;
576.6000;0.6805;1.0263;
576.9000;0.6813;1.0217;
577.2000;0.6805;1.0170;
577.5000;0.6813;1.0217;
577.8000;0.6789;1.0170;
578.1000;0.6813;1.0170;
578.4000;0.6797;1.0286;
578.7000;0.6829;1.0425;
579.0000;0.6805;1.0286;
579.3000;0.6789;1.0240;
579.6000;0.6772;1.0240;
579.9000;0.6846;1.0379;
580.2000;0.6789;1.0263;
580.5000;0.6764;1.0217;
580.8000;0.6797;1.0309;
581.1000;0.6772;1.0263;
581.4000;0.6805;1.0286;
581.7000;0.6789;1.0286;
582.0000;0.6756;1.0263;
582.3000;0.6789;1.0449;
582.6000;0.6772;1.0425;
582.9000;0.6797;1.0565;
583.2000;0.6797;1.0449;
583.5000;0.6789;1.0379;
583.8000;0.6789;1.0309;
584.1000;0.6756;1.0170;
584.4000;0.6772;1.0124;
584.7000;0.6797;1.0170;
585.0000;0.6821;1.0193;
585.3000;0.6829;1.0263;
585.6000;0.6789;1.0147;
585.9000;0.6797;1.0147;
586.2000;0.6870;1.0425;
586.5000;0.6789;1.0286;
586.8000;0.6789;1.0286;
587.1000;0.6805;1.0356;
587.4000;0.6740;1.0263;
587.7000;0.6789;1.0425;
588.0000;0.6789;1.0402;
588.3000;0.6846;1.0518;
588.6000;0.6797;1.0518;
588.9000;0.6797;1.0472;
589.2000;0.6772;1.0379;
589.5000;0.6805;1.0425;
589.8000;0.6772;1.0333;
590.1000;0.6870;1.0379;
590.4000;0.6838;1.0379;
590.7000;0.6919;1.0518;
591.0000;0.6797;1.0240;
591.3000;0.6789;1.0286;
591.6000;0.6797;1.0286;
591.9000;0.6805;1.0356;
592.2000;0.6797;1.0425;
592.5000;0.6789;1.0402;
592.8000;0.6797;1.0309;
593.1000;0.6797;1.0286;
593.4000;0.6805;1.0356;
593.7000;0.6805;1.0425;
594.0000;0.6821;1.0449;
594.3000;0.6732;1.0193;
594.6000;0.6805;1.0472;
594.9000;0.6797;1.0402;
595.2000;0.6813;1.0402;
595.5000;0.6813;1.0263;
595.8000;0.6829;1.0170;
596.1000;0.6797;1.0263;
596.4000;0.6797;1.0240;
596.7000;0.6756;1.0147;
597.0000;0.6870;1.0472;
597.3000;0.6813;1.0379;
597.6000;0.6781;1.0240;
597.9000;0.6748;1.0170;
598.2000;0.6764;1.0263;
598.5000;0.6829;1.0356;
598.8000;0.6764;1.0263;
599.1000;0.6716;1.0124;
599.4000;0.6781;1.0240;
599.7000;0.6797;1.0240;
600.0000;0.6789;1.0333;
600.3000;0.6821;1.0217;
600.6000;0.6829;1.0147;
600.9000;0.6797;1.0008;
601.2000;0.6895;1.0217;
601.5000;0.6789;0.9915;
601.8000;0.6764;0.9915;
602.1000;0.6691;0.9799;
602.4000;0.6659;0.9706;
602.7000;0.6512;0.9334;
603.0000;0.6569;0.9450;
603.3000;0.6528;0.9218;
603.6000;0.6520;0.9148;
603.9000;0.6479;0.9009;
604.2000;0.6439;0.8963;
604.5000;0.6422;0.8870;
604.8000;0.6398;0.8823;
605.1000;0.6374;0.8754;
605.4000;0.6341;0.8684;
605.7000;0.6325;0.8638;
606.0000;0.6309;0.8730;
606.3000;0.6268;0.8684;
606.6000;0.6235;0.8661;
606.9000;0.6203;0.8521;
607.2000;0.6203;0.8475;
607.5000;0.6186;0.8405;
607.8000;0.6178;0.8382;
608.1000;0.6154;0.8289;
608.4000;0.6146;0.8382;
608.7000;0.6154;0.8405;
609.0000;0.6121;0.8382;
609.3000;0.6129;0.8382;
609.6000;0.6056;0.8243;
609.9000;0.6089;0.8266;
610.2000;0.6024;0.8127;
610.5000;0.6056;0.8266;
610.8000;0.6015;0.8150;
611.1000;0.6024;0.8220;
611.4000;0.6007;0.8173;
611.7000;0.6007;0.8173;
612.0000;0.5975;0.8080;
612.3000;0.5918;0.7871;
612.6000;0.5934;0.7987;
612.9000;0.5910;0.7964;
613.2000;0.5967;0.8127;
613.5000;0.5869;0.8034;
613.8000;0.5893;0.8034;
614.1000;0.5885;0.7987;
614.4000;0.5845;0.7918;
614.7000;0.5804;0.7848;
615.0000;0.5845;0.8034;
615.3000;0.5804;0.7964;
615.6000;0.5820;0.8034;
615.9000;0.5788;0.7895;
616.2000;0.5845;0.8057;
616.5000;0.5804;0.8080;
616.8000;0.5804;0.8057;
617.1000;0.5788;0.7987;
617.4000;0.5755;0.7918;
617.7000;0.5722;0.7871;
618.0000;0.5739;0.7987;
618.3000;0.5771;0.8057;
618.6000;0.5617;0.7709;
618.9000;0.5739;0.7964;
619.2000;0.5698;0.7895;
619.5000;0.5698;0.7895;
619.8000;0.5731;0.7987;
620.1000;0.5755;0.8057;
620.4000;0.5690;0.7918;
620.7000;0.5690;0.7895;
621.0000;0.5698;0.7964;
621.3000;0.5665;0.7941;
621.6000;0.5674;0.7987;
621.9000;0.5657;0.8011;
622.2000;0.5625;0.7918;
622.5000;0.5649;0.8057;
622.8000;0.5625;0.8080;
623.1000;0.5617;0.8057;
623.4000;0.5600;0.8057;
623.7000;0.5600;0.7964;
624.0000;0.5600;0.7987;
624.3000;0.5600;0.8057;
624.6000;0.5592;0.8104;
624.9000;0.5576;0.8011;
625.2000;0.5568;0.8011;
625.5000;0.5527;0.7848;
625.8000;0.5560;0.7895;
626.1000;0.5560;0.7848;
626.4000;0.5535;0.7686;
626.7000;0.5551;0.7825;
627.0000;0.5535;0.7871;
627.3000;0.5543;0.7871;
627.6000;0.5535;0.7895;
627.9000;0.5503;0.7802;
628.2000;0.5503;0.7871;
628.5000;0.5511;0.7941;
628.8000;0.5470;0.7755;
629.1000;0.5470;0.7778;
629.4000;0.5503;0.7871;
629.7000;0.5527;0.7941;
630.0000;0.5478;0.7848;
630.3000;0.5495;0.7918;
630.6000;0.5478;0.7871;
630.9000;0.5478;0.7871;
631.2000;0.5462;0.7895;
631.5000;0.5462;0.7895;
631.8000;0.5429;0.7686;
632.1000;0.5454;0.7709;
632.4000;0.5446;0.7732;
632.7000;0.5438;0.7755;
633.0000;0.5478;0.7871;
633.3000;0.5429;0.7825;
633.6000;0.5421;0.7732;
633.9000;0.5421;0.7686;
634.2000;0.5413;0.7686;
634.5000;0.5397;0.7686;
634.8000;0.5429;0.7802;
635.1000;0.5405;0.7802;
635.4000;0.5397;0.7895;
635.7000;0.5413;0.7987;
636.0000;0.5405;0.8034;
636.3000;0.5405;0.7987;
636.6000;0.5324;0.7732;
636.9000;0.5405;0.7941;
637.2000;0.5389;0.7941;
637.5000;0.5356;0.7941;
637.8000;0.5364;0.8080;
638.1000;0.5389;0.8196;
638.4000;0.5340;0.8127;
638.7000;0.5332;0.8104;
639.0000;0.5332;0.8011;
639.3000;0.5307;0.7918;
639.6000;0.5340;0.7987;
639.9000;0.5307;0.7895;
640.2000;0.5332;0.7964;
640.5000;0.5340;0.8034;
640.8000;0.5356;0.8011;
641.1000;0.5242;0.7778;
641.4000;0.5315;0.7987;
641.7000;0.5324;0.7941;
642.0000;0.5324;0.7987;
642.3000;0.5299;0.7941;
642.6000;0.5324;0.7895;
642.9000;0.5299;0.7778;
643.2000;0.5332;0.7825;
643.5000;0.5291;0.7755;
643.8000;0.5307;0.7732;
644.1000;0.5307;0.7686;
644.4000;0.5299;0.7755;
644.7000;0.5283;0.7732;
645.0000;0.5299;0.7732;
645.3000;0.5275;0.7570;
645.6000;0.5315;0.7686;
645.9000;0.5315;0.7686;
646.2000;0.5267;0.7546;
646.5000;0.5275;0.7593;
646.8000;0.5283;0.7662;
647.1000;0.5267;0.7709;
647.4000;0.5267;0.7639;
647.7000;0.5250;0.7570;
648.0000;0.5258;0.7616;
648.3000;0.5242;0.7732;
648.6000;0.5226;0.7825;
648.9000;0.5234;0.7871;
649.2000;0.5226;0.7848;
649.5000;0.5299;0.8011;
649.8000;0.5234;0.7871;
650.1000;0.5242;0.7871;
650.4000;0.5226;0.7732;
650.7000;0.5218;0.7755;
651.0000;0.5234;0.7802;
651.3000;0.5218;0.7778;
651.6000;0.5210;0.7825;
651.9000;0.5210;0.7871;
652.2000;0.5218;0.7848;
652.5000;0.5210;0.7778;
652.8000;0.5201;0.7825;
653.1000;0.5201;0.7825;
653.4000;0.5144;0.7709;
653.7000;0.5185;0.7778;
654.0000;0.5193;0.7755;
654.3000;0.5177;0.7662;
654.6000;0.5193;0.7732;
654.9000;0.5177;0.7662;
655.2000;0.5169;0.7639;
655.5000;0.5177;0.7639;
655.8000;0.5193;0.7662;
656.1000;0.5177;0.7755;
656.4000;0.5201;0.7732;
656.7000;0.5201;0.7686;
657.0000;0.5193;0.7732;
657.3000;0.5177;0.7755;
657.6000;0.5177;0.7778;
657.9000;0.5169;0.7732;
658.2000;0.5177;0.7709;
658.5000;0.5185;0.7755;
658.8000;0.5185;0.7732;
659.1000;0.5234;0.7848;
659.4000;0.5169;0.7755;
659.7000;0.5177;0.7802;
660.0000;0.5161;0.7778;
660.3000;0.5177;0.7871;
660.6000;0.5128;0.7778;
660.9000;0.5128;0.7871;
661.2000;0.5153;0.7941;
661.5000;0.5153;0.7871;
661.8000;0.5161;0.7918;
662.1000;0.5169;0.7941;
662.4000;0.5136;0.7941;
662.7000;0.5112;0.7871;
663.0000;0.5128;0.7895;
663.3000;0.5088;0.7802;
663.6000;0.5120;0.7918;
663.9000;0.5136;0.7895;
664.2000;0.5128;0.7964;
664.5000;0.5096;0.7848;
664.8000;0.5006;0.7570;
665.1000;0.5079;0.7755;
665.4000;0.5104;0.7732;
665.7000;0.5120;0.7732;
666.0000;0.5161;0.7686;
666.3000;0.5128;0.7639;
666.6000;0.5120;0.7639;
666.9000;0.5104;0.7616;
667.2000;0.5104;0.7546;
667.5000;0.5112;0.7570;
667.8000;0.5136;0.7523;
668.1000;0.5120;0.7477;
668.4000;0.5104;0.7546;
668.7000;0.5088;0.7546;
669.0000;0.5128;0.7732;
669.3000;0.5088;0.7500;
669.6000;0.5104;0.7593;
669.9000;0.5079;0.7523;
670.2000;0.5112;0.7546;
670.5000;0.5096;0.7570;
670.8000;0.5079;0.7546;
671.1000;0.5088;0.7546;
671.4000;0.5104;0.7593;
671.7000;0.5104;0.7546;
672.0000;0.5088;0.7523;
672.3000;0.5096;0.7570;
672.6000;0.5104;0.7709;
672.9000;0.5120;0.7895;
673.2000;0.5063;0.7732;
673.5000;0.5039;0.7616;
673.8000;0.5120;0.7918;
674.1000;0.5071;0.7802;
674.4000;0.5071;0.7825;
674.7000;0.5055;0.7871;
675.0000;0.5055;0.7918;
675.3000;0.5071;0.7871;
675.6000;0.5055;0.7895;
675.9000;0.5047;0.7895;
676.2000;0.5063;0.7895;
676.5000;0.5039;0.7732;
676.8000;0.5047;0.7802;
677.1000;0.5031;0.7825;
677.4000;0.5039;0.7825;
677.7000;0.5031;0.7802;
678.0000;0.5047;0.7871;
678.3000;0.5031;0.7871;
678.6000;0.5071;0.7964;
678.9000;0.5071;0.7941;
679.2000;0.5022;0.7778;
679.5000;0.5039;0.7802;
679.8000;0.5063;0.7871;
680.1000;0.5022;0.7755;
680.4000;0.5055;0.7778;
680.7000;0.5071;0.7732;
681.0000;0.5055;0.7662;
681.3000;0.5047;0.7662;
681.6000;0.5039;0.7593;
681.9000;0.5047;0.7593;
682.2000;0.5014;0.7616;
682.5000;0.4998;0.7593;
682.8000;0.5031;0.7709;
683.1000;0.5039;0.7709;
683.4000;0.5031;0.7802;
683.7000;0.5022;0.7755;
684.0000;0.5022;0.7732;
684.3000;0.5006;0.7686;
684.6000;0.5022;0.7755;
684.9000;0.5006;0.7732;
685.2000;0.5006;0.7778;
685.5000;0.4998;0.7778;
685.8000;0.5031;0.7918;
686.1000;0.4957;0.7732;
686.4000;0.5006;0.7686;
686.7000;0.4998;0.7686;
687.0000;0.5014;0.7848;
687.3000;0.4990;0.7895;
687.6000;0.5006;0.7895;
687.9000;0.4900;0.7546;
688.2000;0.5022;0.7755;
688.5000;0.4998;0.7616;
688.8000;0.4949;0.7500;
689.1000;0.5039;0.7778;
689.4000;0.4990;0.7639;
689.7000;0.4998;0.7732;
690.0000;0.4982;0.7662;
690.3000;0.5006;0.7662;
690.6000;0.5014;0.7732;
690.9000;0.5006;0.7709;
691.2000;0.4998;0.7732;
691.5000;0.4982;0.7732;
691.8000;0.4998;0.7732;
692.1000;0.4998;0.7755;
692.4000;0.5006;0.7755;
692.7000;0.4982;0.7709;
693.0000;0.4998;0.7778;
693.3000;0.4998;0.7709;
693.6000;0.4990;0.7686;
693.9000;0.4974;0.7570;
694.2000;0.4998;0.7662;
694.5000;0.4974;0.7662;
694.8000;0.5104;0.7895;
695.1000;0.4990;0.7570;
695.4000;0.4974;0.7616;
695.7000;0.4982;0.7570;
696.0000;0.4998;0.7686;
696.3000;0.4982;0.7686;
696.6000;0.4990;0.7662;
696.9000;0.5063;0.7755;
697.2000;0.5031;0.7686;
697.5000;0.4982;0.7662;
697.8000;0.4941;0.7616;
698.1000;0.4974;0.7639;
698.4000;0.4949;0.7593;
698.7000;0.4990;0.7732;
699.0000;0.4965;0.7732;
699.3000;0.4974;0.7709;
699.6000;0.4990;0.7732;
699.9000;0.4965;0.7523;
700.2000;0.5014;0.7546;
700.5000;0.4998;0.7523;
700.8000;0.4974;0.7639;
701.1000;0.4982;0.7616;
701.4000;0.5022;0.7709;
701.7000;0.4957;0.7639;
702.0000;0.4982;0.7686;
702.3000;0.4998;0.7593;
702.6000;0.4965;0.7546;
702.9000;0.4949;0.7523;
703.2000;0.4974;0.7639;
703.5000;0.4982;0.7616;
703.8000;0.4965;0.7639;
704.1000;0.4965;0.7732;
704.4000;0.4925;0.7686;
704.7000;0.4990;0.7825;
705.0000;0.4974;0.7755;
705.3000;0.4957;0.7825;
705.6000;0.5088;0.8150;
705.9000;0.4949;0.7778;
706.2000;0.4933;0.7639;
706.5000;0.4974;0.7732;
706.8000;0.4941;0.7639;
707.1000;0.4957;0.7662;
707.4000;0.4925;0.7523;
707.7000;0.4965;0.7593;
708.0000;0.4957;0.7570;
708.3000;0.4933;0.7546;
708.6000;0.4957;0.7639;
708.9000;0.4965;0.7686;
709.2000;0.4925;0.7570;
709.5000;0.4941;0.7570;
709.8000;0.4957;0.7686;
710.1000;0.4949;0.7732;
710.4000;0.4933;0.7802;
710.7000;0.4957;0.7918;
711.0000;0.5014;0.8034;
711.3000;0.4941;0.7964;
711.6000;0.4957;0.8011;
711.9000;0.4925;0.7987;
712.2000;0.4827;0.7686;
712.5000;0.4949;0.7918;
712.8000;0.4925;0.7895;
713.1000;0.4917;0.7755;
713.4000;0.4941;0.7778;
713.7000;0.4949;0.7825;
714.0000;0.4957;0.7871;
714.3000;0.4941;0.7895;
714.6000;0.4949;0.7895;
714.9000;0.4941;0.7802;
715.2000;0.4908;0.7732;
715.5000;0.4908;0.7778;
715.8000;0.4965;0.7871;
716.1000;0.4933;0.7848;
716.4000;0.4957;0.7941;
716.7000;0.4908;0.7825;
717.0000;0.4925;0.7871;
717.3000;0.4933;0.7895;
717.6000;0.4941;0.7871;
717.9000;0.4949;0.7918;
718.2000;0.4917;0.7802;
718.5000;0.4876;0.7639;
718.8000;0.4957;0.7895;
719.1000;0.4925;0.7848;
719.4000;0.4925;0.7871;
719.7000;0.4908;0.7918;
720.0000;0.5039;0.8034;
720.3000;0.4917;0.7802;
720.6000;0.4908;0.7825;
720.9000;0.4892;0.7918;
721.2000;0.4917;0.7941;
721.5000;0.4819;0.7709;
721.8000;0.4900;0.7941;
722.1000;0.4925;0.7964;
722.4000;0.4941;0.7964;
722.7000;0.4933;0.7941;
723.0000;0.4933;0.7895;
723.3000;0.4908;0.7778;
723.6000;0.4892;0.7825;
723.9000;0.4908;0.7918;
724.2000;0.4957;0.7918;
724.5000;0.4900;0.7778;
724.8000;0.4917;0.7918;
725.1000;0.4900;0.7871;
725.4000;0.4917;0.7895;
725.7000;0.4900;0.7895;
726.0000;0.4900;0.7964;
726.3000;0.4884;0.7895;
726.6000;0.4908;0.7941;
726.9000;0.4892;0.7941;
727.2000;0.4908;0.7964;
727.5000;0.4892;0.7964;
727.8000;0.4908;0.7895;
728.1000;0.4900;0.7778;
728.4000;0.4884;0.7802;
728.7000;0.4925;0.7802;
729.0000;0.4933;0.7895;
729.3000;0.4900;0.7918;
729.6000;0.4908;0.7918;
729.9000;0.4908;0.7941;
730.2000;0.4908;0.7918;
730.5000;0.4892;0.7825;
730.8000;0.4884;0.7825;
731.1000;0.4884;0.7848;
731.4000;0.4876;0.7778;
731.7000;0.4803;0.7686;
732.0000;0.4884;0.7895;
732.3000;0.4868;0.7802;
732.6000;0.4900;0.7871;
732.9000;0.4884;0.7895;
733.2000;0.4868;0.7871;
733.5000;0.4900;0.7941;
733.8000;0.4876;0.7871;
734.1000;0.4892;0.7871;
734.4000;0.4892;0.7848;
734.7000;0.4892;0.7918;
735.0000;0.4908;0.7964;
735.3000;0.4860;0.7848;
735.6000;0.4884;0.7964;
735.9000;0.4884;0.7895;
736.2000;0.4876;0.7755;
736.5000;0.4860;0.7732;
736.8000;0.4892;0.7848;
737.1000;0.4908;0.7825;
737.4000;0.4876;0.7778;
737.7000;0.4892;0.7941;
738.0000;0.4892;0.7918;
738.3000;0.4965;0.8127;
738.6000;0.4900;0.7941;
738.9000;0.4876;0.7895;
739.2000;0.4908;0.7871;
739.5000;0.4892;0.7825;
739.8000;0.4917;0.7871;
740.1000;0.4884;0.7871;
740.4000;0.4860;0.7895;
740.7000;0.4884;0.7895;
741.0000;0.4884;0.7825;
741.3000;0.4884;0.7848;
741.6000;0.4892;0.7895;
741.9000;0.4884;0.7802;
742.2000;0.4908;0.7871;
742.5000;0.4884;0.7871;
742.8000;0.4892;0.7848;
743.1000;0.4884;0.7871;
743.4000;0.4851;0.7825;
743.7000;0.4892;0.7871;
744.0000;0.4884;0.7778;
744.3000;0.4884;0.7941;
744.6000;0.4819;0.7755;
744.9000;0.4876;0.7848;
745.2000;0.4876;0.7918;
745.5000;0.4892;0.8011;
745.8000;0.4860;0.8011;
746.1000;0.4876;0.7964;
746.4000;0.4860;0.7941;
746.7000;0.4876;0.8011;
747.0000;0.4860;0.7987;
747.3000;0.4860;0.7987;
747.6000;0.4851;0.7895;
747.9000;0.4860;0.7941;
748.2000;0.4876;0.8034;
748.5000;0.4868;0.8057;
748.8000;0.4860;0.8127;
749.1000;0.4908;0.8196;
749.4000;0.4803;0.8034;
749.7000;0.4843;0.8173;
750.0000;0.4876;0.8220;
750.3000;0.4868;0.8127;
750.6000;0.4851;0.7987;
750.9000;0.4908;0.8057;
751.2000;0.4884;0.7941;
751.5000;0.4851;0.7964;
751.8000;0.4868;0.7987;
752.1000;0.4778;0.7802;
752.4000;0.4851;0.8057;
752.7000;0.4843;0.8057;
753.0000;0.4868;0.8034;
753.3000;0.4868;0.8057;
753.6000;0.4860;0.7941;
753.9000;0.4843;0.8034;
754.2000;0.4868;0.8080;
754.5000;0.4876;0.8127;
754.8000;0.4860;0.8034;
755.1000;0.4851;0.7964;
755.4000;0.4860;0.7987;
755.7000;0.4851;0.7987;
756.0000;0.4851;0.8011;
756.3000;0.4827;0.7987;
756.6000;0.4949;0.8313;
756.9000;0.4843;0.7918;
757.2000;0.4908;0.8196;
757.5000;0.4851;0.8011;
757.8000;0.4900;0.8127;
758.1000;0.4884;0.8104;
758.4000;0.4860;0.7987;
758.7000;0.4851;0.7895;
759.0000;0.4941;0.8104;
759.3000;0.4851;0.7802;
759.6000;0.4851;0.7778;
759.9000;0.4860;0.7825;
760.2000;0.4835;0.7778;
760.5000;0.4860;0.7755;
760.8000;0.4868;0.7871;
761.1000;0.4860;0.7895;
761.4000;0.4868;0.7918;
761.7000;0.4851;0.7895;
762.0000;0.4851;0.7918;
762.3000;0.4868;0.7895;
762.6000;0.4860;0.7825;
762.9000;0.4851;0.7755;
763.2000;0.4876;0.7871;
763.5000;0.4868;0.7778;
763.8000;0.4868;0.7802;
764.1000;0.4851;0.7732;
764.4000;0.4860;0.7848;
764.7000;0.4884;0.7871;
765.0000;0.4835;0.7871;
765.3000;0.4851;0.7987;
765.6000;0.4868;0.7964;
765.9000;0.4819;0.7848;
766.2000;0.4868;0.7918;
766.5000;0.4851;0.7895;
766.8000;0.4835;0.7848;
767.1000;0.4843;0.7987;
767.4000;0.4811;0.7895;
767.7000;0.4835;0.7964;
768.0000;0.4827;0.7918;
768.3000;0.4843;0.7964;
768.6000;0.4884;0.8104;
768.9000;0.4835;0.8011;
769.2000;0.4819;0.8034;
769.5000;0.4843;0.8034;
769.8000;0.4835;0.7964;
770.1000;0.4819;0.7918;
770.4000;0.4827;0.7987;
770.7000;0.4868;0.8080;
771.0000;0.4835;0.7964;
771.3000;0.4843;0.7987;
771.6000;0.4835;0.7895;
771.9000;0.4843;0.7918;
772.2000;0.4819;0.7895;
772.5000;0.4851;0.7941;
772.8000;0.4843;0.7895;
773.1000;0.4819;0.7871;
773.4000;0.4835;0.7918;
773.7000;0.4843;0.8011;
774.0000;0.4876;0.7941;
774.3000;0.4843;0.7778;
774.6000;0.4851;0.7686;
774.9000;0.4868;0.7662;
775.2000;0.4819;0.7593;
775.5000;0.4827;0.7639;
775.8000;0.4754;0.7570;
776.1000;0.4827;0.7778;
776.4000;0.4851;0.7918;
776.7000;0.4851;0.7871;
777.0000;0.4827;0.7848;
777.3000;0.4843;0.7871;
777.6000;0.4843;0.7895;
777.9000;0.4811;0.7848;
778.2000;0.4811;0.7941;
778.5000;0.4827;0.8034;
778.8000;0.4786;0.7848;
779.1000;0.4786;0.7802;
779.4000;0.4827;0.7941;
779.7000;0.4786;0.7825;
780.0000;0.4835;0.7825;
780.3000;0.4827;0.7755;
780.6000;0.4762;0.7616;
780.9000;0.4884;0.7871;
781.2000;0.4827;0.7825;
781.5000;0.4835;0.7871;
781.8000;0.4843;0.7802;
782.1000;0.4819;0.7755;
782.4000;0.4827;0.7778;
782.7000;0.4827;0.7802;
783.0000;0.4754;0.7662;
783.3000;0.4803;0.7918;
783.6000;0.4794;0.7871;
783.9000;0.4827;0.7895;
784.2000;0.4835;0.7778;
784.5000;0.4835;0.7871;
784.8000;0.4794;0.7778;
785.1000;0.4843;0.7825;
785.4000;0.4835;0.7802;
785.7000;0.4827;0.7709;
786.0000;0.4827;0.7755;
786.3000;0.4835;0.7848;
786.6000;0.4843;0.7895;
786.9000;0.4827;0.7895;
787.2000;0.4835;0.7918;
787.5000;0.4819;0.7848;
787.8000;0.4827;0.7941;
788.1000;0.4786;0.7918;
788.4000;0.4762;0.7871;
788.7000;0.4835;0.8173;
789.0000;0.4835;0.8104;
789.3000;0.4835;0.8057;
789.6000;0.4835;0.8057;
789.9000;0.4827;0.8034;
790.2000;0.4835;0.8057;
790.5000;0.4843;0.8080;
790.8000;0.4819;0.8080;
791.1000;0.4811;0.8057;
791.4000;0.4762;0.7941;
791.7000;0.4803;0.8127;
792.0000;0.4786;0.8104;
792.3000;0.4819;0.8150;
792.6000;0.4835;0.8150;
792.9000;0.4827;0.8104;
793.2000;0.4811;0.8034;
793.5000;0.4860;0.8104;
793.8000;0.4819;0.7964;
794.1000;0.4803;0.8011;
794.4000;0.4827;0.8034;
794.7000;0.4811;0.8034;
795.0000;0.4778;0.7848;
795.3000;0.4811;0.7848;
795.6000;0.4811;0.7825;
795.9000;0.4754;0.7662;
796.2000;0.4843;0.7871;
796.5000;0.4843;0.7802;
796.8000;0.4835;0.7778;
797.1000;0.4843;0.7755;
797.4000;0.4835;0.7802;
797.7000;0.4819;0.7755;
798.0000;0.4827;0.7802;
798.3000;0.4835;0.7895;
798.6000;0.4819;0.7895;
798.9000;0.4811;0.7941;
799.2000;0.4827;0.7941;
799.5000;0.4819;0.8057;
799.8000;0.4786;0.8034;
800.1000;0.4835;0.8104;
800.4000;0.4851;0.8127;
800.7000;0.4843;0.8011;
801.0000;0.4819;0.8011;
801.3000;0.4803;0.7918;
801.6000;0.4835;0.7987;
801.9000;0.4843;0.7941;
802.2000;0.4851;0.8011;
802.5000;0.4770;0.7987;
802.8000;0.4803;0.8057;
803.1000;0.4827;0.8080;
803.4000;0.4811;0.7987;
803.7000;0.4851;0.8034;
804.0000;0.4778;0.7871;
804.3000;0.4794;0.7941;
804.6000;0.4827;0.7964;
804.9000;0.4827;0.7918;
805.2000;0.4786;0.8057;
805.5000;0.4819;0.8127;
805.8000;0.4811;0.8057;
806.1000;0.4868;0.8080;
806.4000;0.4794;0.7871;
806.7000;0.4803;0.7825;
807.0000;0.4819;0.7871;
807.3000;0.4819;0.7871;
807.6000;0.4835;0.7918;
807.9000;0.4737;0.7639;
808.2000;0.4819;0.7941;
808.5000;0.4811;0.8034;
808.8000;0.4794;0.7941;
809.1000;0.4811;0.7918;
809.4000;0.4803;0.7895;
809.7000;0.4811;0.8011;
810.0000;0.4811;0.8057;
810.3000;0.4827;0.7987;
810.6000;0.4786;0.7871;
810.9000;0.4819;0.7825;
811.2000;0.4819;0.7918;
811.5000;0.4811;0.7918;
811.8000;0.4827;0.7964;
812.1000;0.4843;0.7987;
812.4000;0.4819;0.7895;
812.7000;0.4786;0.7825;
813.0000;0.4827;0.7964;
813.3000;0.4843;0.8034;
813.6000;0.4819;0.7964;
813.9000;0.4827;0.7964;
814.2000;0.4819;0.7941;
814.5000;0.4737;0.7686;
814.8000;0.4811;0.7895;
815.1000;0.4811;0.7778;
815.4000;0.4803;0.7825;
815.7000;0.4803;0.7918;
816.0000;0.4819;0.7871;
816.3000;0.4803;0.7802;
816.6000;0.4819;0.7941;
816.9000;0.4819;0.8011;
817.2000;0.4827;0.8034;
817.5000;0.4746;0.7802;
817.8000;0.4811;0.7918;
818.1000;0.4794;0.7848;
818.4000;0.4819;0.7918;
818.7000;0.4803;0.7941;
819.0000;0.4803;0.7964;
819.3000;0.4803;0.7941;
819.6000;0.4786;0.7964;
819.9000;0.4762;0.7895;
820.2000;0.4778;0.7941;
820.5000;0.4803;0.7987;
820.8000;0.4794;0.7941;
821.1000;0.4843;0.8011;
821.4000;0.4811;0.7918;
821.7000;0.4835;0.8011;
822.0000;0.4811;0.8034;
822.3000;0.4794;0.8034;
822.6000;0.4811;0.8057;
822.9000;0.4819;0.7964;
823.2000;0.4811;0.7918;
823.5000;0.4835;0.8057;
823.8000;0.4803;0.7987;
824.1000;0.4794;0.7941;
824.4000;0.4786;0.7918;
824.7000;0.4786;0.7895;
825.0000;0.4786;0.7802;
825.3000;0.4762;0.7709;
825.6000;0.4794;0.7709;
825.9000;0.4803;0.7709;
826.2000;0.4803;0.7616;
826.5000;0.4786;0.7570;
826.8000;0.4778;0.7616;
827.1000;0.4835;0.7732;
827.4000;0.4811;0.7732;
827.7000;0.4786;0.7593;
828.0000;0.4827;0.7686;
828.3000;0.4843;0.7732;
828.6000;0.4770;0.7616;
828.9000;0.4819;0.7755;
829.2000;0.4705;0.7523;
829.5000;0.4803;0.7778;
829.8000;0.4786;0.7709;
830.1000;0.4770;0.7616;
830.4000;0.4778;0.7732;
830.7000;0.4754;0.7662;
831.0000;0.4786;0.7732;
831.3000;0.4811;0.7871;
831.6000;0.4762;0.7755;
831.9000;0.4794;0.7848;
832.2000;0.4803;0.7941;
832.5000;0.4794;0.7941;
832.8000;0.4819;0.7941;
833.1000;0.4803;0.8011;
833.4000;0.4786;0.7895;
833.7000;0.4770;0.7871;
834.0000;0.4803;0.7987;
834.3000;0.4770;0.7871;
834.6000;0.4786;0.7941;
834.9000;0.4803;0.8080;
835.2000;0.4778;0.8057;
835.5000;0.4794;0.8057;
835.8000;0.4786;0.8104;
836.1000;0.4827;0.8080;
836.4000;0.4803;0.8057;
836.7000;0.4811;0.7987;
837.0000;0.4794;0.8034;
837.3000;0.4811;0.8011;
837.6000;0.4811;0.7964;
837.9000;0.4827;0.8034;
838.2000;0.4819;0.8080;
838.5000;0.4794;0.8011;
838.8000;0.4786;0.7987;
839.1000;0.4786;0.7964;
839.4000;0.4754;0.7895;
839.7000;0.4786;0.7964;
840.0000;0.4819;0.7941;
840.3000;0.4786;0.7848;
840.6000;0.4803;0.7895;
840.9000;0.4794;0.7848;
841.2000;0.4819;0.7825;
841.5000;0.4786;0.7778;
841.8000;0.4778;0.7755;
842.1000;0.4811;0.7871;
842.4000;0.4746;0.7871;
842.7000;0.4803;0.8034;
843.0000;0.4835;0.8127;
843.3000;0.4778;0.8034;
843.6000;0.4794;0.8080;
843.9000;0.4770;0.8057;
844.2000;0.4762;0.8011;
844.5000;0.4786;0.7964;
844.8000;0.4770;0.7871;
845.1000;0.4762;0.7895;
845.4000;0.4754;0.7825;
845.7000;0.4770;0.7941;
846.0000;0.4754;0.7918;
846.3000;0.4803;0.7941;
846.6000;0.4778;0.7871;
846.9000;0.4803;0.7871;
847.2000;0.4835;0.8011;
847.5000;0.4803;0.7964;
847.8000;0.4778;0.7825;
848.1000;0.4803;0.7825;
848.4000;0.4778;0.7802;
848.7000;0.4803;0.7895;
849.0000;0.4794;0.7895;
849.3000;0.4835;0.8011;
849.6000;0.4778;0.7848;
849.9000;0.4770;0.7871;
850.2000;0.4762;0.7895;
850.5000;0.4884;0.8243;
850.8000;0.4803;0.7895;
851.1000;0.4835;0.7987;
851.4000;0.4794;0.7778;
851.7000;0.4835;0.7941;
852.0000;0.4811;0.7895;
852.3000;0.4803;0.7964;
852.6000;0.4794;0.8034;
852.9000;0.4794;0.8011;
853.2000;0.4811;0.8057;
853.5000;0.4786;0.7895;
853.8000;0.4746;0.7755;
854.1000;0.4778;0.7848;
854.4000;0.4786;0.7778;
854.7000;0.4868;0.8057;
855.0000;0.4762;0.7895;
855.3000;0.4786;0.7987;
855.6000;0.4778;0.7964;
855.9000;0.4778;0.7987;
856.2000;0.4778;0.8011;
856.5000;0.4786;0.7987;
856.8000;0.4786;0.8011;
857.1000;0.4786;0.7964;
857.4000;0.4770;0.7987;
857.7000;0.4770;0.8080;
858.0000;0.4754;0.8034;
858.3000;0.4778;0.7987;
858.6000;0.4794;0.8080;
858.9000;0.4786;0.8080;
859.2000;0.4794;0.8173;
859.5000;0.4770;0.8173;
859.8000;0.4778;0.8150;
860.1000;0.4737;0.8011;
860.4000;0.4778;0.8080;
860.7000;0.4778;0.8011;
861.0000;0.4803;0.8104;
861.3000;0.4770;0.8057;
861.6000;0.4754;0.7964;
861.9000;0.4794;0.8080;
862.2000;0.4803;0.8034;
862.5000;0.4746;0.7848;
862.8000;0.4803;0.7987;
863.1000;0.4794;0.7964;
863.4000;0.4803;0.7871;
863.7000;0.4794;0.7871;
864.0000;0.4803;0.7987;
864.3000;0.4786;0.7918;
864.6000;0.4754;0.7918;
864.9000;0.4803;0.7987;
865.2000;0.4754;0.7802;
865.5000;0.4778;0.7802;
865.8000;0.4794;0.7848;
866.1000;0.4778;0.7778;
866.4000;0.4786;0.7778;
866.7000;0.4803;0.7778;
867.0000;0.4794;0.7778;
867.3000;0.4729;0.7709;
867.6000;0.4762;0.7825;
867.9000;0.4697;0.7546;
868.2000;0.4835;0.7825;
868.5000;0.4786;0.7709;
868.8000;0.4794;0.7709;
869.1000;0.4762;0.7593;
869.4000;0.4794;0.7825;
869.7000;0.4819;0.7941;
870.0000;0.4770;0.7778;
870.3000;0.4786;0.7825;
870.6000;0.4729;0.7686;
870.9000;0.4778;0.7778;
871.2000;0.4803;0.7941;
871.5000;0.4786;0.7825;
871.8000;0.4794;0.7871;
872.1000;0.4770;0.7871;
872.4000;0.4794;0.8034;
872.7000;0.4746;0.7871;
873.0000;0.4778;0.7941;
873.3000;0.4786;0.7941;
873.6000;0.4762;0.7871;
873.9000;0.4770;0.7825;
874.2000;0.4786;0.7825;
874.5000;0.4786;0.7941;
874.8000;0.4778;0.7918;
875.1000;0.4770;0.7895;
875.4000;0.4762;0.7871;
875.7000;0.4770;0.7895;
876.0000;0.4778;0.7825;
876.3000;0.4778;0.7918;
876.6000;0.4778;0.7825;
876.9000;0.4770;0.7871;
877.2000;0.4770;0.7871;
877.5000;0.4786;0.7895;
877.8000;0.4786;0.7987;
878.1000;0.4770;0.8034;
878.4000;0.4786;0.7964;
878.7000;0.4778;0.7964;
879.0000;0.4729;0.7848;
879.3000;0.4778;0.7964;
879.6000;0.4786;0.7964;
879.9000;0.4778;0.7987;
880.2000;0.4778;0.7941;
880.5000;0.4778;0.8011;
880.8000;0.4786;0.8011;
881.1000;0.4729;0.7918;
881.4000;0.4754;0.7964;
881.7000;0.4786;0.8057;
882.0000;0.4746;0.7964;
882.3000;0.4762;0.8011;
882.6000;0.4697;0.7895;
882.9000;0.4770;0.8127;
883.2000;0.4786;0.8057;
883.5000;0.4770;0.8034;
883.8000;0.4770;0.7895;
884.1000;0.4762;0.7732;
884.4000;0.4778;0.7709;
884.7000;0.4786;0.7755;
885.0000;0.4794;0.7778;
885.3000;0.4770;0.7802;
885.6000;0.4770;0.7802;
885.9000;0.4754;0.7732;
886.2000;0.4803;0.7848;
886.5000;0.4843;0.7871;
886.8000;0.4746;0.7546;
887.1000;0.4754;0.7639;
887.4000;0.4778;0.7755;
887.7000;0.4770;0.7686;
888.0000;0.4770;0.7778;
888.3000;0.4786;0.7825;
888.6000;0.4786;0.7941;
888.9000;0.4746;0.7871;
889.2000;0.4762;0.7918;
889.5000;0.4786;0.7918;
889.8000;0.4778;0.7895;
890.1000;0.4786;0.8034;
890.4000;0.4770;0.7987;
890.7000;0.4762;0.7848;
891.0000;0.4762;0.7848;
891.3000;0.4746;0.7709;
891.6000;0.4762;0.7709;
891.9000;0.4762;0.7639;
892.2000;0.4672;0.7430;
892.5000;0.4778;0.7755;
892.8000;0.4737;0.7662;
893.1000;0.4754;0.7662;
893.4000;0.4754;0.7686;
893.7000;0.4770;0.7755;
894.0000;0.4778;0.7709;
894.3000;0.4754;0.7662;
894.6000;0.4762;0.7570;
894.9000;0.4770;0.7709;
895.2000;0.4770;0.7825;
895.5000;0.4803;0.7825;
895.8000;0.4794;0.7802;
896.1000;0.4778;0.7871;
896.4000;0.4770;0.7871;
896.7000;0.4754;0.7871;
897.0000;0.4770;0.7871;
897.3000;0.4770;0.7709;
897.6000;0.4811;0.7755;
897.9000;0.4778;0.7778;
898.2000;0.4778;0.7825;
898.5000;0.4770;0.7755;
898.8000;0.4770;0.7755;
899.1000;0.4786;0.7871;
899.4000;0.4762;0.8011;
899.7000;0.4778;0.8034;
900.0000;0.4786;0.8057;
900.3000;0.4786;0.7964;
900.6000;0.4778;0.7825;
900.9000;0.4770;0.7778;
901.2000;0.4786;0.7732;
901.5000;0.4786;0.7778;
901.8000;0.4754;0.7732;
902.1000;0.4778;0.7755;
902.4000;0.4786;0.7778;
902.7000;0.4770;0.7802;
903.0000;0.4786;0.7918;
903.3000;0.4778;0.7941;
903.6000;0.4786;0.7871;
903.9000;0.4778;0.7802;
904.2000;0.4803;0.7848;
904.5000;0.4794;0.7848;
904.8000;0.4770;0.7755;
905.1000;0.4819;0.7964;
905.4000;0.4794;0.7918;
905.7000;0.4786;0.7918;
906.0000;0.4754;0.7848;
906.3000;0.4770;0.7941;
906.6000;0.4778;0.7987;
906.9000;0.4803;0.8011;
907.2000;0.4754;0.7987;
907.5000;0.4762;0.8034;
907.8000;0.4754;0.8080;
908.1000;0.4778;0.8196;
908.4000;0.4786;0.8220;
908.7000;0.4754;0.8150;
909.0000;0.4754;0.8150;
909.3000;0.4770;0.8196;
909.6000;0.4786;0.8220;
909.9000;0.4762;0.8173;
910.2000;0.4770;0.8150;
910.5000;0.4762;0.8150;
910.8000;0.4754;0.8173;
911.1000;0.4786;0.8243;
911.4000;0.4729;0.8080;
911.7000;0.4770;0.8127;
912.0000;0.4737;0.8034;
912.3000;0.4762;0.8127;
912.6000;0.4746;0.7987;
912.9000;0.4762;0.7941;
913.2000;0.4811;0.8011;
913.5000;0.4762;0.7895;
913.8000;0.4762;0.7895;
914.1000;0.4770;0.7895;
914.4000;0.4770;0.7964;
914.7000;0.4762;0.7918;
915.0000;0.4746;0.7895;
915.3000;0.4778;0.7825;
915.6000;0.4778;0.7825;
915.9000;0.4762;0.7755;
916.2000;0.4713;0.7686;
916.5000;0.4770;0.7778;
916.8000;0.4770;0.7825;
917.1000;0.4762;0.7895;
917.4000;0.4754;0.7918;
917.7000;0.4762;0.7871;
918.0000;0.4770;0.7825;
918.3000;0.4778;0.7755;
918.6000;0.4770;0.7755;
918.9000;0.4737;0.7732;
919.2000;0.4770;0.7755;
919.5000;0.4770;0.7802;
919.8000;0.4746;0.7778;
920.1000;0.4737;0.7662;
920.4000;0.4778;0.7778;
920.7000;0.4786;0.7848;
921.0000;0.4762;0.7895;
921.3000;0.4827;0.8034;
921.6000;0.4721;0.7709;
921.9000;0.4827;0.7941;
922.2000;0.4778;0.7825;
922.5000;0.4770;0.7825;
922.8000;0.4770;0.7871;
923.1000;0.4681;0.7709;
923.4000;0.4746;0.7895;
923.7000;0.4746;0.7825;
924.0000;0.4737;0.7825;
924.3000;0.4762;0.7825;
924.6000;0.4754;0.7802;
924.9000;0.4819;0.7964;
925.2000;0.4737;0.7848;
925.5000;0.4762;0.7871;
925.8000;0.4770;0.7825;
926.1000;0.4672;0.7639;
926.4000;0.4729;0.7802;
926.7000;0.4811;0.7964;
927.0000;0.4770;0.7964;
927.3000;0.4770;0.7918;
927.6000;0.4762;0.7802;
927.9000;0.4762;0.7802;
928.2000;0.4737;0.7778;
928.5000;0.4778;0.7802;
928.8000;0.4754;0.7709;
929.1000;0.4803;0.7802;
929.4000;0.4778;0.7755;
929.7000;0.4770;0.7732;
930.0000;0.4737;0.7639;
930.3000;0.4762;0.7755;
930.6000;0.4762;0.7732;
930.9000;0.4762;0.7825;
931.2000;0.4770;0.7802;
931.5000;0.4778;0.7825;
931.8000;0.4754;0.7778;
932.1000;0.4762;0.7871;
932.4000;0.4737;0.7871;
932.7000;0.4876;0.8104;
933.0000;0.4737;0.7732;
933.3000;0.4762;0.7848;
933.6000;0.4762;0.7825;
933.9000;0.4762;0.7825;
934.2000;0.4754;0.7778;
934.5000;0.4770;0.7755;
934.8000;0.4713;0.7593;
935.1000;0.4762;0.7709;
935.4000;0.4737;0.7639;
935.7000;0.4770;0.7778;
936.0000;0.4778;0.7871;
936.3000;0.4754;0.7871;
936.6000;0.4778;0.7895;
936.9000;0.4762;0.7871;
937.2000;0.4721;0.7755;
937.5000;0.4762;0.7895;
937.8000;0.4770;0.7895;
938.1000;0.4762;0.7732;
938.4000;0.4754;0.7662;
938.7000;0.4770;0.7802;
939.0000;0.4762;0.7802;
939.3000;0.4827;0.7895;
939.6000;0.4762;0.7778;
939.9000;0.4803;0.7825;
940.2000;0.4770;0.7778;
940.5000;0.4770;0.7686;
940.8000;0.4762;0.7709;
941.1000;0.4746;0.7709;
941.4000;0.4762;0.7778;
941.7000;0.4762;0.7848;
942.0000;0.4746;0.7871;
942.3000;0.4762;0.7918;
942.6000;0.4811;0.8034;
942.9000;0.4754;0.7987;
943.2000;0.4737;0.7918;
943.5000;0.4713;0.7871;
943.8000;0.4705;0.7848;
944.1000;0.4803;0.8011;
944.4000;0.4754;0.7895;
944.7000;0.4803;0.7918;
945.0000;0.4762;0.7918;
945.3000;0.4803;0.8011;
945.6000;0.4754;0.7918;
945.9000;0.4770;0.7964;
946.2000;0.4778;0.7987;
946.5000;0.4770;0.7964;
946.8000;0.4762;0.7918;
947.1000;0.4737;0.7825;
947.4000;0.4770;0.7848;
947.7000;0.4729;0.7755;
948.0000;0.4705;0.7709;
948.3000;0.4762;0.7755;
948.6000;0.4803;0.7825;
948.9000;0.4721;0.7732;
949.2000;0.4762;0.7732;
949.5000;0.4729;0.7662;
949.8000;0.4770;0.7709;
950.1000;0.4713;0.7639;
950.4000;0.4762;0.7709;
950.7000;0.4811;0.7871;
951.0000;0.4762;0.7709;
951.3000;0.4770;0.7778;
951.6000;0.4762;0.7732;
951.9000;0.4762;0.7778;
952.2000;0.4746;0.7918;
952.5000;0.4762;0.7941;
952.8000;0.4778;0.8011;
953.1000;0.4754;0.7895;
953.4000;0.4697;0.7755;
953.7000;0.4778;0.7964;
954.0000;0.4770;0.7941;
954.3000;0.4754;0.7918;
954.6000;0.4770;0.7918;
954.9000;0.4754;0.7848;
955.2000;0.4770;0.7825;
955.5000;0.4746;0.7755;
955.8000;0.4754;0.7778;
956.1000;0.4737;0.7732;
956.4000;0.4794;0.7825;
956.7000;0.4729;0.7802;
957.0000;0.4754;0.7941;
957.3000;0.4762;0.7941;
957.6000;0.4770;0.7918;
957.9000;0.4770;0.7871;
958.2000;0.4729;0.7732;
958.5000;0.4754;0.7778;
958.8000;0.4778;0.7871;
959.1000;0.4778;0.7802;
959.4000;0.4770;0.7709;
959.7000;0.4770;0.7709;
960.0000;0.4721;0.7662;
960.3000;0.4721;0.7593;
960.6000;0.4786;0.7778;
960.9000;0.4770;0.7709;
961.2000;0.4762;0.7662;
961.5000;0.4778;0.7616;
961.8000;0.4803;0.7593;
962.1000;0.4770;0.7639;
962.4000;0.4729;0.7686;
962.7000;0.4746;0.7778;
963.0000;0.4672;0.7570;
963.3000;0.4770;0.7825;
963.6000;0.4737;0.7732;
963.9000;0.4803;0.7871;
964.2000;0.4835;0.7987;
964.5000;0.4770;0.7895;
964.8000;0.4762;0.7755;
965.1000;0.4770;0.7709;
965.4000;0.4762;0.7662;
965.7000;0.4762;0.7593;
966.0000;0.4705;0.7453;
966.3000;0.4737;0.7570;
966.6000;0.4786;0.7616;
966.9000;0.4794;0.7616;
967.2000;0.4770;0.7616;
967.5000;0.4664;0.7500;
967.8000;0.4762;0.7825;
968.1000;0.4762;0.7871;
968.4000;0.4762;0.7802;
968.7000;0.4892;0.8150;
969.0000;0.4754;0.7848;
969.3000;0.4762;0.7778;
969.6000;0.4778;0.7755;
969.9000;0.4803;0.7895;
970.2000;0.4778;0.7871;
970.5000;0.4770;0.7987;
970.8000;0.4729;0.7941;
971.1000;0.4754;0.8057;
971.4000;0.4746;0.8080;
971.7000;0.4786;0.8080;
972.0000;0.4778;0.7987;
972.3000;0.4762;0.7941;
972.6000;0.4746;0.7895;
972.9000;0.4754;0.7941;
973.2000;0.4737;0.7941;
973.5000;0.4754;0.8011;
973.8000;0.4754;0.8104;
974.1000;0.4721;0.7964;
974.4000;0.4754;0.8034;
974.7000;0.4754;0.8104;
975.0000;0.4746;0.8104;
975.3000;0.4762;0.8080;
975.6000;0.4729;0.7987;
975.9000;0.4754;0.8011;
976.2000;0.4754;0.7964;
976.5000;0.4770;0.8034;
976.8000;0.4754;0.7941;
977.1000;0.4803;0.7987;
977.4000;0.4754;0.7941;
977.7000;0.4746;0.7941;
978.0000;0.4746;0.7987;
978.3000;0.4762;0.8080;
978.6000;0.4746;0.8011;
978.9000;0.4754;0.7987;
979.2000;0.4746;0.7848;
979.5000;0.4754;0.7778;
979.8000;0.4762;0.7802;
980.1000;0.4860;0.7964;
980.4000;0.4778;0.7802;
980.7000;0.4746;0.7802;
981.0000;0.4737;0.7709;
981.3000;0.4737;0.7662;
981.6000;0.4721;0.7593;
981.9000;0.4762;0.7616;
982.2000;0.4762;0.7570;
982.5000;0.4754;0.7639;
982.8000;0.4746;0.7639;
983.1000;0.4729;0.7686;
983.4000;0.4770;0.7662;
983.7000;0.4737;0.7570;
984.0000;0.4778;0.7593;
984.3000;0.4746;0.7639;
984.6000;0.4746;0.7709;
984.9000;0.4762;0.7732;
985.2000;0.4778;0.7802;
985.5000;0.4786;0.7825;
985.8000;0.4737;0.7709;
986.1000;0.4721;0.7709;
986.4000;0.4794;0.7918;
986.7000;0.4721;0.7825;
987.0000;0.4754;0.7825;
987.3000;0.4843;0.7895;
987.6000;0.4729;0.7709;
987.9000;0.4754;0.7755;
988.2000;0.4754;0.7732;
988.5000;0.4754;0.7778;
988.8000;0.4819;0.7987;
989.1000;0.4746;0.7755;
989.4000;0.4770;0.7732;
989.7000;0.4754;0.7732;
990.0000;0.4770;0.7825;
990.3000;0.4762;0.7848;
990.6000;0.4713;0.7778;
990.9000;0.4851;0.8104;
991.2000;0.4754;0.7778;
991.5000;0.4762;0.7802;
991.8000;0.4721;0.7616;
992.1000;0.4835;0.7848;
992.4000;0.4754;0.7709;
992.7000;0.4754;0.7778;
993.0000;0.4754;0.7848;
993.3000;0.4770;0.7918;
993.6000;0.4778;0.7987;
993.9000;0.4843;0.8173;
994.2000;0.4762;0.8011;
994.5000;0.4737;0.7941;
994.8000;0.4746;0.7895;
995.1000;0.4754;0.7895;
995.4000;0.4729;0.7778;
995.7000;0.4746;0.7778;
996.0000;0.4762;0.7802;
996.3000;0.4737;0.7778;
996.6000;0.4681;0.7662;
996.9000;0.4737;0.7848;
997.2000;0.4737;0.7964;
997.5000;0.4754;0.8034;
997.8000;0.4754;0.8034;
998.1000;0.4746;0.8011;
998.4000;0.4746;0.7987;
998.7000;0.4762;0.8011;
999.0000;0.4737;0.7895;
999.3000;0.4729;0.7848;
999.6000;0.4819;0.7987;
999.9000;0.4737;0.7871;
1000.2000;0.4754;0.8011;
1000.5000;0.4737;0.8034;
1000.8000;0.4786;0.8080;
1001.1000;0.4754;0.7941;
1001.4000;0.4737;0.7895;
1001.7000;0.4762;0.7895;
1002.0000;0.4754;0.7941;
1002.3000;0.4746;0.8011;
1002.6000;0.4648;0.7778;
1002.9000;0.4737;0.8034;
1003.2000;0.4729;0.8011;
1003.5000;0.4746;0.7918;
1003.8000;0.4851;0.8173;
1004.1000;0.4762;0.7895;
1004.4000;0.4762;0.7778;
1004.7000;0.4746;0.7686;
1005.0000;0.4770;0.7755;
1005.3000;0.4762;0.7755;
1005.6000;0.4746;0.7709;
1005.9000;0.4729;0.7755;
1006.2000;0.4746;0.7918;
1006.5000;0.4754;0.8011;
1006.8000;0.4746;0.7825;
1007.1000;0.4762;0.7755;
1007.4000;0.4746;0.7802;
1007.7000;0.4737;0.7662;
1008.0000;0.4770;0.7570;
1008.3000;0.4697;0.7477;
1008.6000;0.4737;0.7662;
1008.9000;0.4778;0.7848;
1009.2000;0.4754;0.7825;
1009.5000;0.4729;0.7778;
1009.8000;0.4754;0.7778;
1010.1000;0.4762;0.7825;
1010.4000;0.4664;0.7662;
1010.7000;0.4762;0.7848;
1011.0000;0.4754;0.7848;
1011.3000;0.4754;0.7848;
1011.6000;0.4762;0.7918;
1011.9000;0.4746;0.7871;
1012.2000;0.4729;0.7778;
1012.5000;0.4770;0.7918;
1012.8000;0.4729;0.7941;
1013.1000;0.4794;0.8127;
1013.4000;0.4746;0.7987;
1013.7000;0.4770;0.7941;
1014.0000;0.4737;0.7918;
1014.3000;0.4770;0.7918;
1014.6000;0.4762;0.7918;
1014.9000;0.4746;0.7895;
1015.2000;0.4754;0.7895;
1015.5000;0.4746;0.7941;
1015.8000;0.4737;0.7941;
1016.1000;0.4737;0.7918;
1016.4000;0.4762;0.7895;
1016.7000;0.4762;0.7825;
1017.0000;0.4721;0.7662;
1017.3000;0.4746;0.7662;
1017.6000;0.4754;0.7895;
1017.9000;0.4762;0.7941;
1018.2000;0.4705;0.7639;
1018.5000;0.4762;0.7778;
1018.8000;0.4746;0.7732;
1019.1000;0.4754;0.7848;
1019.4000;0.4746;0.7941;
1019.7000;0.4737;0.7895;
1020.0000;0.4721;0.7825;
1020.3000;0.4762;0.7895;
1020.6000;0.4746;0.7848;
1020.9000;0.4786;0.7941;
1021.2000;0.4729;0.7709;
1021.5000;0.4754;0.7778;
1021.8000;0.4754;0.7848;
1022.1000;0.4746;0.7802;
1022.4000;0.4762;0.7895;
1022.7000;0.4762;0.7871;
1023.0000;0.4762;0.7778;
1023.3000;0.4754;0.7755;
1023.6000;0.4754;0.7755;
1023.9000;0.4786;0.7871;
1024.2000;0.4754;0.7825;
1024.5000;0.4705;0.7709;
1024.8000;0.4737;0.7755;
1025.1000;0.4746;0.7686;
1025.4000;0.4786;0.7895;
1025.7000;0.4754;0.7848;
1026.0000;0.4737;0.7732;
1026.3000;0.4737;0.7639;
1026.6000;0.4778;0.7686;
1026.9000;0.4746;0.7616;
1027.2000;0.4746;0.7616;
1027.5000;0.4762;0.7755;
1027.8000;0.4746;0.7686;
1028.1000;0.4754;0.7686;
1028.4000;0.4746;0.7732;
1028.7000;0.4746;0.7755;
1029.0000;0.4729;0.7755;
1029.3000;0.4786;0.7825;
1029.6000;0.4746;0.7686;
1029.9000;0.4737;0.7593;
1030.2000;0.4729;0.7639;
1030.5000;0.4762;0.7709;
1030.8000;0.4754;0.7709;
1031.1000;0.4729;0.7709;
1031.4000;0.4770;0.7825;
1031.7000;0.4737;0.7802;
1032.0000;0.4754;0.7825;
1032.3000;0.4737;0.7802;
1032.6000;0.4737;0.7802;
1032.9000;0.4713;0.7732;
1033.2000;0.4754;0.7895;
1033.5000;0.4746;0.7848;
1033.8000;0.4754;0.7848;
1034.1000;0.4762;0.7871;
1034.4000;0.4697;0.7778;
1034.7000;0.4737;0.7848;
1035.0000;0.4778;0.7848;
1035.3000;0.4754;0.7848;
1035.6000;0.4737;0.7848;
1035.9000;0.4754;0.7918;
1036.2000;0.4762;0.7848;
1036.5000;0.4672;0.7477;
1036.8000;0.4713;0.7570;
1037.1000;0.4754;0.7639;
1037.4000;0.4746;0.7709;
1037.7000;0.4713;0.7662;
1038.0000;0.4860;0.7964;
1038.3000;0.4721;0.7662;
1038.6000;0.4786;0.7848;
1038.9000;0.4762;0.7825;
1039.2000;0.4843;0.8080;
1039.5000;0.4737;0.7848;
1039.8000;0.4746;0.7918;
1040.1000;0.4803;0.8104;
1040.4000;0.4713;0.7941;
1040.7000;0.4737;0.7964;
1041.0000;0.4746;0.7941;
1041.3000;0.4762;0.7964;
1041.6000;0.4729;0.7802;
1041.9000;0.4746;0.7802;
1042.2000;0.4664;0.7546;
1042.5000;0.4737;0.7662;
1042.8000;0.4737;0.7686;
1043.1000;0.4729;0.7686;
1043.4000;0.4762;0.7802;
1043.7000;0.4729;0.7732;
1044.0000;0.4762;0.7825;
1044.3000;0.4746;0.7848;
1044.6000;0.4770;0.7941;
1044.9000;0.4721;0.7778;
1045.2000;0.4754;0.7709;
1045.5000;0.4721;0.7662;
1045.8000;0.4746;0.7709;
1046.1000;0.4737;0.7732;
1046.4000;0.4697;0.7616;
1046.7000;0.4737;0.7778;
1047.0000;0.4762;0.7802;
1047.3000;0.4754;0.7755;
1047.6000;0.4762;0.7825;
1047.9000;0.4754;0.7732;
1048.2000;0.4746;0.7686;
1048.5000;0.4762;0.7686;
1048.8000;0.4754;0.7686;
1049.1000;0.4746;0.7616;
1049.4000;0.4729;0.7593;
1049.7000;0.4746;0.7709;
1050.0000;0.4762;0.7662;
1050.3000;0.4762;0.7639;
1050.6000;0.4721;0.7500;
1050.9000;0.4754;0.7546;
1051.2000;0.4762;0.7593;
1051.5000;0.4737;0.7570;
1051.8000;0.4754;0.7616;
1052.1000;0.4770;0.7732;
1052.4000;0.4737;0.7686;
1052.7000;0.4770;0.7755;
1053.0000;0.4737;0.7709;
1053.3000;0.4737;0.7778;
1053.6000;0.4746;0.7871;
1053.9000;0.4762;0.7895;
1054.2000;0.4729;0.7778;
1054.5000;0.4729;0.7825;
1054.8000;0.4737;0.7825;
1055.1000;0.4770;0.7964;
1055.4000;0.4778;0.7987;
1055.7000;0.4729;0.7778;
1056.0000;0.4729;0.7778;
1056.3000;0.4721;0.7778;
1056.6000;0.4770;0.7848;
1056.9000;0.4737;0.7825;
1057.2000;0.4770;0.7918;
1057.5000;0.4778;0.7871;
1057.8000;0.4705;0.7755;
1058.1000;0.4713;0.7755;
1058.4000;0.4754;0.7825;
1058.7000;0.4754;0.7871;
1059.0000;0.4746;0.7825;
1059.3000;0.4746;0.7941;
1059.6000;0.4689;0.7802;
1059.9000;0.4754;0.7987;
1060.2000;0.4786;0.8034;
1060.5000;0.4762;0.7871;
1060.8000;0.4729;0.7802;
1061.1000;0.4729;0.7825;
1061.4000;0.4754;0.7802;
1061.7000;0.4713;0.7802;
1062.0000;0.4737;0.7941;
1062.3000;0.4746;0.7848;
1062.6000;0.4762;0.7895;
1062.9000;0.4737;0.7825;
1063.2000;0.4770;0.7871;
1063.5000;0.4729;0.7709;
1063.8000;0.4746;0.7686;
1064.1000;0.4721;0.7616;
1064.4000;0.4729;0.7709;
1064.7000;0.4770;0.7848;
1065.0000;0.4746;0.7895;
1065.3000;0.4729;0.7848;
1065.6000;0.4762;0.7895;
1065.9000;0.4729;0.7895;
1066.2000;0.4770;0.7941;
1066.5000;0.4746;0.7987;
1066.8000;0.4737;0.7987;
1067.1000;0.4729;0.8011;
1067.4000;0.4721;0.7941;
1067.7000;0.4721;0.7918;
1068.0000;0.4754;0.7964;
1068.3000;0.4746;0.7918;
1068.6000;0.4737;0.7802;
1068.9000;0.4762;0.7895;
1069.2000;0.4721;0.7848;
1069.5000;0.4729;0.7848;
1069.8000;0.4762;0.7848;
1070.1000;0.4762;0.7895;
1070.4000;0.4770;0.7964;
1070.7000;0.4770;0.7987;
1071.0000;0.4721;0.7964;
1071.3000;0.4737;0.7941;
1071.6000;0.4713;0.7964;
1071.9000;0.4689;0.7918;
1072.2000;0.4737;0.8057;
1072.5000;0.4754;0.8057;
1072.8000;0.4746;0.7918;
1073.1000;0.4754;0.7964;
1073.4000;0.4770;0.7964;
1073.7000;0.4762;0.7918;
1074.0000;0.4835;0.8104;
1074.3000;0.4746;0.7848;
1074.6000;0.4729;0.7895;
1074.9000;0.4729;0.7964;
1075.2000;0.4778;0.7987;
1075.5000;0.4746;0.7778;
1075.8000;0.4754;0.7686;
1076.1000;0.4754;0.7686;
1076.4000;0.4729;0.7686;
1076.7000;0.4737;0.7778;
1077.0000;0.4803;0.7918;
1077.3000;0.4754;0.7802;
1077.6000;0.4705;0.7709;
1077.9000;0.4737;0.7755;
1078.2000;0.4754;0.7825;
1078.5000;0.4713;0.7755;
1078.8000;0.4729;0.7755;
1079.1000;0.4786;0.7964;
1079.4000;0.4754;0.7755;
1079.7000;0.4737;0.7848;
1080.0000;0.4721;0.7871;
1080.3000;0.4851;0.8057;
1080.6000;0.4737;0.7802;
1080.9000;0.4762;0.7802;
1081.2000;0.4729;0.7778;
1081.5000;0.4754;0.7802;
1081.8000;0.4762;0.7895;
1082.1000;0.4737;0.7755;
1082.4000;0.4737;0.7755;
1082.7000;0.4851;0.8057;
1083.0000;0.4729;0.7895;
1083.3000;0.4729;0.7918;
1083.6000;0.4794;0.8104;
1083.9000;0.4746;0.7964;
1084.2000;0.4746;0.7941;
1084.5000;0.4729;0.7848;
1084.8000;0.4737;0.7918;
1085.1000;0.4729;0.7895;
1085.4000;0.4754;0.7895;
1085.7000;0.4713;0.7825;
1086.0000;0.4754;0.8011;
1086.3000;0.4737;0.8104;
1086.6000;0.4746;0.8220;
1086.9000;0.4786;0.8289;
1087.2000;0.4737;0.8150;
1087.5000;0.4737;0.8127;
1087.8000;0.4746;0.8266;
1088.1000;0.4754;0.8289;
1088.4000;0.4729;0.8196;
1088.7000;0.4729;0.8080;
1089.0000;0.4721;0.8034;
1089.3000;0.4746;0.8057;
1089.6000;0.4737;0.8127;
1089.9000;0.4762;0.8196;
1090.2000;0.4737;0.8057;
1090.5000;0.4713;0.8080;
1090.8000;0.4737;0.8150;
1091.1000;0.4737;0.8104;
1091.4000;0.4762;0.8127;
1091.7000;0.4729;0.8127;
1092.0000;0.4729;0.8127;
1092.3000;0.4729;0.8034;
1092.6000;0.4737;0.7987;
1092.9000;0.4770;0.7964;
1093.2000;0.4746;0.7987;
1093.5000;0.4746;0.7918;
1093.8000;0.4770;0.7941;
1094.1000;0.4737;0.7871;
1094.4000;0.4721;0.7755;
1094.7000;0.4754;0.7802;
1095.0000;0.4778;0.7755;
1095.3000;0.4721;0.7593;
1095.6000;0.4729;0.7662;
1095.9000;0.4746;0.7732;
1096.2000;0.4762;0.7755;
1096.5000;0.4754;0.7732;
1096.8000;0.4729;0.7639;
1097.1000;0.4705;0.7755;
1097.4000;0.4729;0.7848;
1097.7000;0.4729;0.7825;
1098.0000;0.4713;0.7848;
1098.3000;0.4721;0.7941;
1098.6000;0.4746;0.7848;
1098.9000;0.4729;0.7778;
1099.2000;0.4770;0.7848;
1099.5000;0.4729;0.7918;
1099.8000;0.4689;0.7918;
1100.1000;0.4737;0.8057;
1100.4000;0.4729;0.8104;
1100.7000;0.4754;0.8104;
1101.0000;0.4737;0.7941;
1101.3000;0.4746;0.7895;
1101.6000;0.4746;0.7895;
1101.9000;0.4746;0.7895;
1102.2000;0.4770;0.7964;
1102.5000;0.4746;0.7918;
1102.8000;0.4746;0.7941;
1103.1000;0.4705;0.7895;
1103.4000;0.4754;0.8080;
1103.7000;0.4713;0.8034;
1104.0000;0.4786;0.8104;
1104.3000;0.4729;0.7918;
1104.6000;0.4746;0.7895;
1104.9000;0.4729;0.7871;
1105.2000;0.4746;0.7918;
1105.5000;0.4746;0.7871;
1105.8000;0.4746;0.7778;
1106.1000;0.4762;0.7825;
1106.4000;0.4746;0.7802;
1106.7000;0.4729;0.7778;
1107.0000;0.4754;0.7918;
1107.3000;0.4762;0.7941;
1107.6000;0.4737;0.7895;
1107.9000;0.4737;0.7895;
1108.2000;0.4721;0.7918;
1108.5000;0.4729;0.7871;
1108.8000;0.4729;0.7871;
1109.1000;0.4721;0.7778;
1109.4000;0.4713;0.7686;
1109.7000;0.4746;0.7709;
1110.0000;0.4754;0.7709;
1110.3000;0.4737;0.7639;
1110.6000;0.4746;0.7686;
1110.9000;0.4721;0.7639;
1111.2000;0.4746;0.7709;
1111.5000;0.4746;0.7686;
1111.8000;0.4737;0.7732;
1112.1000;0.4746;0.7732;
1112.4000;0.4754;0.7802;
1112.7000;0.4778;0.7825;
1113.0000;0.4729;0.7802;
1113.3000;0.4762;0.7918;
1113.6000;0.4754;0.7871;
1113.9000;0.4737;0.7755;
1114.2000;0.4721;0.7686;
1114.5000;0.4729;0.7802;
1114.8000;0.4737;0.7848;
1115.1000;0.4737;0.7871;
1115.4000;0.4729;0.7802;
1115.7000;0.4681;0.7709;
1116.0000;0.4721;0.7848;
1116.3000;0.4746;0.7895;
1116.6000;0.4754;0.7918;
1116.9000;0.4754;0.7871;
1117.2000;0.4737;0.7778;
1117.5000;0.4762;0.7802;
1117.8000;0.4737;0.7778;
1118.1000;0.4746;0.7639;
1118.4000;0.4697;0.7570;
1118.7000;0.4770;0.7825;
1119.0000;0.4664;0.7570;
1119.3000;0.4737;0.7802;
1119.6000;0.4697;0.7686;
1119.9000;0.4778;0.7895;
1120.2000;0.4746;0.7802;
1120.5000;0.4835;0.8011;
1120.8000;0.4705;0.7778;
1121.1000;0.4811;0.8057;
1121.4000;0.4746;0.7941;
1121.7000;0.4754;0.7918;
1122.0000;0.4762;0.7987;
1122.3000;0.4746;0.8011;
1122.6000;0.4778;0.8196;
1122.9000;0.4721;0.8127;
1123.2000;0.4746;0.8173;
1123.5000;0.4721;0.8080;
1123.8000;0.4697;0.8011;
1124.1000;0.4737;0.8011;
1124.4000;0.4729;0.8011;
1124.7000;0.4737;0.8080;
1125.0000;0.4705;0.7964;
1125.3000;0.4754;0.7987;
1125.6000;0.4729;0.7918;
1125.9000;0.4705;0.7825;
1126.2000;0.4729;0.7802;
1126.5000;0.4762;0.7802;
1126.8000;0.4754;0.7848;
1127.1000;0.4737;0.7825;
1127.4000;0.4737;0.7732;
1127.7000;0.4754;0.7802;
1128.0000;0.4835;0.7987;
1128.3000;0.4729;0.7778;
1128.6000;0.4746;0.7755;
1128.9000;0.4729;0.7778;
1129.2000;0.4713;0.7918;
1129.5000;0.4721;0.8011;
1129.8000;0.4729;0.8011;
1130.1000;0.4721;0.7964;
1130.4000;0.4737;0.8104;
1130.7000;0.4754;0.8080;
1131.0000;0.4770;0.8057;
1131.3000;0.4754;0.7895;
1131.6000;0.4754;0.7871;
1131.9000;0.4754;0.7871;
1132.2000;0.4737;0.7778;
1132.5000;0.4729;0.7778;
1132.8000;0.4778;0.7848;
1133.1000;0.4746;0.7871;
1133.4000;0.4729;0.7918;
1133.7000;0.4721;0.7964;
1134.0000;0.4721;0.8057;
1134.3000;0.4729;0.8104;
1134.6000;0.4713;0.7987;
1134.9000;0.4762;0.7964;
1135.2000;0.4737;0.7941;
1135.5000;0.4746;0.8034;
1135.8000;0.4721;0.7964;
1136.1000;0.4721;0.8034;
1136.4000;0.4721;0.8011;
1136.7000;0.4754;0.8057;
1137.0000;0.4746;0.8104;
1137.3000;0.4737;0.8080;
1137.6000;0.4754;0.8127;
1137.9000;0.4762;0.8173;
1138.2000;0.4746;0.8080;
1138.5000;0.4737;0.7895;
1138.8000;0.4746;0.7802;
1139.1000;0.4713;0.7709;
1139.4000;0.4737;0.7709;
1139.7000;0.4721;0.7639;
1140.0000;0.4746;0.7802;
1140.3000;0.4729;0.7732;
1140.6000;0.4754;0.7848;
1140.9000;0.4713;0.7778;
1141.2000;0.4762;0.7941;
1141.5000;0.4737;0.7964;
1141.8000;0.4762;0.8034;
1142.1000;0.4737;0.8011;
1142.4000;0.4713;0.7964;
1142.7000;0.4737;0.8034;
1143.0000;0.4697;0.7918;
1143.3000;0.4746;0.7964;
1143.6000;0.4721;0.7918;
1143.9000;0.4705;0.7895;
1144.2000;0.4729;0.7987;
1144.5000;0.4713;0.7964;
1144.8000;0.4721;0.7964;
1145.1000;0.4729;0.8057;
1145.4000;0.4737;0.8057;
1145.7000;0.4762;0.8011;
1146.0000;0.4737;0.7964;
1146.3000;0.4746;0.7918;
1146.6000;0.4729;0.7941;
1146.9000;0.4746;0.8104;
1147.2000;0.4762;0.8011;
1147.5000;0.4746;0.7964;
1147.8000;0.4746;0.7895;
1148.1000;0.4762;0.7871;
1148.4000;0.4786;0.7941;
1148.7000;0.4729;0.7918;
1149.0000;0.4762;0.7964;
1149.3000;0.4689;0.7778;
1149.6000;0.4746;0.8057;
1149.9000;0.4746;0.8011;
1150.2000;0.4811;0.8127;
1150.5000;0.4729;0.8034;
1150.8000;0.4746;0.8034;
1151.1000;0.4746;0.8080;
1151.4000;0.4737;0.8104;
1151.7000;0.4746;0.8127;
1152.0000;0.4689;0.8011;
1152.3000;0.4746;0.8057;
1152.6000;0.4762;0.8104;
1152.9000;0.4721;0.8011;
1153.2000;0.4729;0.8080;
1153.5000;0.4664;0.7918;
1153.8000;0.4737;0.8173;
1154.1000;0.4729;0.8150;
1154.4000;0.4729;0.8173;
1154.7000;0.4786;0.8220;
1155.0000;0.4737;0.8150;
1155.3000;0.4729;0.8104;
1155.6000;0.4624;0.7802;
1155.9000;0.4721;0.8104;
1156.2000;0.4705;0.8104;
1156.5000;0.4737;0.8011;
1156.8000;0.4737;0.8057;
1157.1000;0.4746;0.8173;
1157.4000;0.4754;0.8104;
1157.7000;0.4607;0.7686;
1158.0000;0.4770;0.8011;
1158.3000;0.4729;0.8034;
1158.6000;0.4729;0.7987;
1158.9000;0.4746;0.7918;
1159.2000;0.4721;0.7871;
1159.5000;0.4746;0.7895;
1159.8000;0.4737;0.7987;
1160.1000;0.4778;0.8057;
1160.4000;0.4729;0.7964;
1160.7000;0.4729;0.8057;
1161.0000;0.4754;0.8243;
1161.3000;0.4746;0.8243;
1161.6000;0.4737;0.8220;
1161.9000;0.4729;0.8104;
1162.2000;0.4770;0.8104;
1162.5000;0.4754;0.7918;
1162.8000;0.4729;0.7871;
1163.1000;0.4729;0.7778;
1163.4000;0.4762;0.7802;
1163.7000;0.4754;0.7848;
1164.0000;0.4754;0.7825;
1164.3000;0.4737;0.7848;
1164.6000;0.4737;0.7871;
1164.9000;0.4746;0.7871;
1165.2000;0.4754;0.7987;
1165.5000;0.4729;0.7895;
1165.8000;0.4721;0.7964;
1166.1000;0.4737;0.8011;
1166.4000;0.4754;0.7941;
1166.7000;0.4746;0.8011;
1167.0000;0.4762;0.8034;
1167.3000;0.4737;0.7941;
1167.6000;0.4737;0.7848;
1167.9000;0.4729;0.7802;
1168.2000;0.4721;0.7778;
1168.5000;0.4737;0.7895;
1168.8000;0.4811;0.8011;
1169.1000;0.4746;0.7802;
1169.4000;0.4729;0.7802;
1169.7000;0.4737;0.7802;
1170.0000;0.4770;0.7987;
1170.3000;0.4754;0.7918;
1170.6000;0.4721;0.7825;
1170.9000;0.4737;0.7918;
1171.2000;0.4672;0.7802;
1171.5000;0.4754;0.7987;
1171.8000;0.4721;0.8034;
1172.1000;0.4689;0.7778;
1172.4000;0.4786;0.7964;
1172.7000;0.4762;0.7941;
1173.0000;0.4754;0.7941;
1173.3000;0.4729;0.7918;
1173.6000;0.4729;0.7895;
1173.9000;0.4729;0.7871;
1174.2000;0.4770;0.7918;
1174.5000;0.4721;0.7848;
1174.8000;0.4721;0.7825;
1175.1000;0.4803;0.8080;
1175.4000;0.4762;0.7987;
1175.7000;0.4697;0.7918;
1176.0000;0.4811;0.8150;
1176.3000;0.4746;0.8011;
1176.6000;0.4721;0.8057;
1176.9000;0.4754;0.8173;
1177.2000;0.4754;0.8220;
1177.5000;0.4737;0.8034;
1177.8000;0.4746;0.7964;
1178.1000;0.4746;0.8011;
1178.4000;0.4737;0.8034;
1178.7000;0.4697;0.7895;
1179.0000;0.4729;0.7987;
1179.3000;0.4729;0.7941;
1179.6000;0.4729;0.7871;
1179.9000;0.4729;0.7918;
1180.2000;0.4721;0.7871;
1180.5000;0.4746;0.7895;
1180.8000;0.4737;0.7895;
1181.1000;0.4729;0.7895;
1181.4000;0.4729;0.7895;
1181.7000;0.4754;0.7964;
1182.0000;0.4786;0.8057;
1182.3000;0.4737;0.7848;
1182.6000;0.4721;0.7895;
1182.9000;0.4746;0.7895;
1183.2000;0.4754;0.7895;
1183.5000;0.4729;0.7918;
1183.8000;0.4754;0.7964;
1184.1000;0.4737;0.7964;
1184.4000;0.4746;0.8011;
1184.7000;0.4721;0.7941;
1185.0000;0.4746;0.7964;
1185.3000;0.4746;0.7918;
1185.6000;0.4803;0.8080;
1185.9000;0.4754;0.8127;
1186.2000;0.4754;0.8057;
1186.5000;0.4737;0.8080;
1186.8000;0.4762;0.8243;
1187.1000;0.4681;0.7918;
1187.4000;0.4746;0.8080;
1187.7000;0.4770;0.8220;
1188.0000;0.4803;0.8289;
1188.3000;0.4803;0.8313;
1188.6000;0.4729;0.8011;
1188.9000;0.4746;0.7918;
1189.2000;0.4737;0.7941;
1189.5000;0.4737;0.7848;
1189.8000;0.4729;0.7825;
1190.1000;0.4746;0.7848;
1190.4000;0.4672;0.7662;
1190.7000;0.4746;0.7825;
1191.0000;0.4737;0.7825;
1191.3000;0.4721;0.7755;
1191.6000;0.4729;0.7802;
1191.9000;0.4705;0.7802;
1192.2000;0.4754;0.7825;
1192.5000;0.4721;0.7686;
1192.8000;0.4721;0.7709;
1193.1000;0.4721;0.7755;
1193.4000;0.4713;0.7802;
1193.7000;0.4737;0.7802;
1194.0000;0.4737;0.7755;
1194.3000;0.4713;0.7709;
1194.6000;0.4737;0.7732;
1194.9000;0.4737;0.7755;
1195.2000;0.4827;0.8034;
1195.5000;0.4713;0.7686;
1195.8000;0.4754;0.7825;
1196.1000;0.4705;0.7778;
1196.4000;0.4729;0.7895;
1196.7000;0.4737;0.7848;
1197.0000;0.4762;0.7802;
1197.3000;0.4672;0.7616;
1197.6000;0.4746;0.7918;
1197.9000;0.4746;0.7871;
1198.2000;0.4705;0.7755;
1198.5000;0.4746;0.7848;
1198.8000;0.4746;0.7918;
1199.1000;0.4746;0.7848;
1199.4000;0.4746;0.7941;
1199.7000;0.4737;0.7918;
1200.0000;0.4729;0.7918;
1200.3000;0.4737;0.8057;
1200.6000;0.4746;0.8150;
1200.9000;0.4746;0.8104;
1201.2000;0.4746;0.8080;
1201.5000;0.4729;0.8080;
1201.8000;0.4729;0.8080;
1202.1000;0.4827;0.8266;
1202.4000;0.4737;0.7964;
1202.7000;0.4713;0.7964;
1203.0000;0.4737;0.8104;
1203.3000;0.4721;0.8080;
1203.6000;0.4737;0.8011;
1203.9000;0.4721;0.7941;
1204.2000;0.4746;0.8057;
1204.5000;0.4762;0.8057;
1204.8000;0.4737;0.8034;
1205.1000;0.4737;0.7941;
1205.4000;0.4746;0.7895;
1205.7000;0.4737;0.7871;
1206.0000;0.4746;0.7871;
1206.3000;0.4746;0.7941;
1206.6000;0.4721;0.7848;
1206.9000;0.4754;0.7871;
1207.2000;0.4721;0.7848;
1207.5000;0.4737;0.7918;
1207.8000;0.4737;0.7918;
1208.1000;0.4721;0.7918;
1208.4000;0.4737;0.7941;
1208.7000;0.4737;0.7895;
1209.0000;0.4681;0.7802;
1209.3000;0.4762;0.7918;
1209.6000;0.4737;0.7941;
1209.9000;0.4729;0.7895;
1210.2000;0.4762;0.7918;
1210.5000;0.4803;0.8034;
1210.8000;0.4737;0.7871;
1211.1000;0.4860;0.8150;
1211.4000;0.4737;0.7987;
1211.7000;0.4786;0.8104;
1212.0000;0.4705;0.7918;
1212.3000;0.4729;0.7918;
1212.6000;0.4721;0.7895;
1212.9000;0.4648;0.7686;
1213.2000;0.4664;0.7732;
1213.5000;0.4737;0.7848;
1213.8000;0.4737;0.7871;
1214.1000;0.4713;0.7871;
1214.4000;0.4664;0.7848;
1214.7000;0.4737;0.8011;
1215.0000;0.4746;0.8034;
1215.3000;0.4737;0.7941;
1215.6000;0.4778;0.8080;
1215.9000;0.4803;0.8127;
1216.2000;0.4729;0.7895;
1216.5000;0.4729;0.7871;
1216.8000;0.4843;0.8150;
1217.1000;0.4729;0.7964;
1217.4000;0.4737;0.7918;
1217.7000;0.4737;0.7802;
1218.0000;0.4843;0.8057;
1218.3000;0.4754;0.7825;
1218.6000;0.4729;0.7778;
1218.9000;0.4729;0.7895;
1219.2000;0.4713;0.7895;
1219.5000;0.4729;0.7987;
1219.8000;0.4746;0.8034;
1220.1000;0.4729;0.8034;
1220.4000;0.4762;0.8220;
1220.7000;0.4721;0.8173;
1221.0000;0.4721;0.8173;
1221.3000;0.4721;0.8150;
1221.6000;0.4713;0.8080;
1221.9000;0.4721;0.8104;
1222.2000;0.4729;0.8080;
1222.5000;0.4729;0.8011;
1222.8000;0.4664;0.7848;
1223.1000;0.4737;0.8034;
1223.4000;0.4721;0.7941;
1223.7000;0.4721;0.8011;
1224.0000;0.4721;0.7941;
1224.3000;0.4721;0.7941;
1224.6000;0.4729;0.8057;
1224.9000;0.4746;0.8057;
1225.2000;0.4754;0.7987;
1225.5000;0.4746;0.8011;
1225.8000;0.4754;0.8080;
1226.1000;0.4721;0.8057;
1226.4000;0.4721;0.7941;
1226.7000;0.4729;0.7964;
1227.0000;0.4729;0.7964;
1227.3000;0.4721;0.7987;
1227.6000;0.4729;0.8011;
1227.9000;0.4713;0.7918;
1228.2000;0.4721;0.7848;
1228.5000;0.4681;0.7639;
1228.8000;0.4705;0.7570;
1229.1000;0.4713;0.7523;
1229.4000;0.4737;0.7546;
1229.7000;0.4746;0.7639;
1230.0000;0.4770;0.7686;
1230.3000;0.4770;0.7778;
1230.6000;0.4746;0.7732;
1230.9000;0.4746;0.7686;
1231.2000;0.4754;0.7709;
1231.5000;0.4729;0.7662;
1231.8000;0.4754;0.7709;
1232.1000;0.4762;0.7825;
1232.4000;0.4746;0.7848;
1232.7000;0.4746;0.7802;
1233.0000;0.4721;0.7709;
1233.3000;0.4778;0.7895;
1233.6000;0.4737;0.7802;
1233.9000;0.4746;0.7802;
1234.2000;0.4754;0.7802;
1234.5000;0.4754;0.7802;
1234.8000;0.4746;0.7895;
1235.1000;0.4786;0.7987;
1235.4000;0.4860;0.8196;
1235.7000;0.4737;0.7895;
1236.0000;0.4737;0.7848;
1236.3000;0.4721;0.7918;
1236.6000;0.4778;0.8011;
1236.9000;0.4729;0.7871;
1237.2000;0.4811;0.7964;
1237.5000;0.4721;0.7709;
1237.8000;0.4737;0.7871;
1238.1000;0.4754;0.7964;
1238.4000;0.4729;0.7987;
1238.7000;0.4786;0.8034;
1239.0000;0.4737;0.7918;
1239.3000;0.4721;0.7871;
1239.6000;0.4721;0.7871;
1239.9000;0.4737;0.7918;
1240.2000;0.4754;0.7941;
1240.5000;0.4746;0.7918;
1240.8000;0.4754;0.7987;
1241.1000;0.4754;0.7987;
1241.4000;0.4721;0.7802;
1241.7000;0.4721;0.7802;
1242.0000;0.4737;0.7918;
1242.3000;0.4746;0.7964;
1242.6000;0.4705;0.7871;
1242.9000;0.4737;0.7871;
1243.2000;0.4721;0.7825;
1243.5000;0.4713;0.7941;
1243.8000;0.4729;0.7895;
1244.1000;0.4697;0.7918;
1244.4000;0.4721;0.7918;
1244.7000;0.4721;0.7871;
1245.0000;0.4721;0.7848;
1245.3000;0.4737;0.7918;
1245.6000;0.4737;0.7825;
1245.9000;0.4737;0.7895;
1246.2000;0.4819;0.8104;
1246.5000;0.4746;0.7918;
1246.8000;0.4737;0.7987;
1247.1000;0.4729;0.7895;
1247.4000;0.4721;0.7825;
1247.7000;0.4705;0.7755;
1248.0000;0.4721;0.7895;
1248.3000;0.4721;0.7918;
1248.6000;0.4729;0.7941;
1248.9000;0.4705;0.7895;
1249.2000;0.4737;0.7941;
1249.5000;0.4746;0.7941;
1249.8000;0.4737;0.8011;
1250.1000;0.4746;0.7941;
1250.4000;0.4746;0.7871;
1250.7000;0.4721;0.7778;
1251.0000;0.4762;0.7848;
1251.3000;0.4754;0.7895;
1251.6000;0.4762;0.8034;
1251.9000;0.4729;0.7987;
1252.2000;0.4754;0.8011;
1252.5000;0.4729;0.8034;
1252.8000;0.4737;0.8057;
1253.1000;0.4762;0.8057;
1253.4000;0.4746;0.7941;
1253.7000;0.4754;0.7964;
1254.0000;0.4746;0.8034;
1254.3000;0.4737;0.8127;
1254.6000;0.4729;0.8057;
1254.9000;0.4721;0.8150;
1255.2000;0.4729;0.8127;
1255.5000;0.4737;0.8127;
1255.8000;0.4737;0.8034;
1256.1000;0.4689;0.7895;
1256.4000;0.4689;0.7848;
1256.7000;0.4721;0.7895;
1257.0000;0.4713;0.7895;
1257.3000;0.4697;0.7848;
1257.6000;0.4705;0.7848;
1257.9000;0.4811;0.8104;
1258.2000;0.4746;0.8011;
1258.5000;0.4721;0.7964;
1258.8000;0.4729;0.7895;
1259.1000;0.4737;0.7918;
1259.4000;0.4689;0.7871;
1259.7000;0.4721;0.7871;
1260.0000;0.4713;0.7848;
1260.3000;0.4746;0.7848;
1260.6000;0.4746;0.7709;
1260.9000;0.4778;0.7848;
1261.2000;0.4729;0.7686;
1261.5000;0.4729;0.7732;
1261.8000;0.4737;0.7964;
1262.1000;0.4754;0.8034;
1262.4000;0.4737;0.8080;
1262.7000;0.4746;0.8104;
1263.0000;0.4737;0.8104;
1263.3000;0.4746;0.8127;
1263.6000;0.4737;0.8104;
1263.9000;0.4819;0.8405;
1264.2000;0.4737;0.8173;
1264.5000;0.4746;0.8196;
1264.8000;0.4746;0.8173;
1265.1000;0.4729;0.8034;
1265.4000;0.4729;0.7964;
1265.7000;0.4754;0.8034;
1266.0000;0.4754;0.8080;
1266.3000;0.4729;0.7987;
1266.6000;0.4721;0.8034;
1266.9000;0.4746;0.8034;
1267.2000;0.4672;0.7848;
1267.5000;0.4746;0.8057;
1267.8000;0.4729;0.8057;
1268.1000;0.4615;0.7825;
1268.4000;0.4746;0.8080;
1268.7000;0.4721;0.8034;
1269.0000;0.4754;0.8173;
1269.3000;0.4713;0.8127;
1269.6000;0.4729;0.8266;
1269.9000;0.4705;0.8150;
1270.2000;0.4721;0.8173;
1270.5000;0.4778;0.8266;
1270.8000;0.4705;0.8057;
1271.1000;0.4746;0.8196;
1271.4000;0.4746;0.8080;
1271.7000;0.4721;0.7987;
1272.0000;0.4729;0.7941;
1272.3000;0.4729;0.7918;
1272.6000;0.4729;0.7802;
1272.9000;0.4729;0.7686;
1273.2000;0.4721;0.7662;
1273.5000;0.4721;0.7825;
1273.8000;0.4770;0.8011;
1274.1000;0.4705;0.7848;
1274.4000;0.4737;0.7848;
1274.7000;0.4827;0.7987;
1275.0000;0.4737;0.7802;
1275.3000;0.4754;0.7825;
1275.6000;0.4721;0.7825;
1275.9000;0.4737;0.7895;
1276.2000;0.4746;0.7918;
1276.5000;0.4762;0.7895;
1276.8000;0.4746;0.7918;
1277.1000;0.4762;0.8011;
1277.4000;0.4754;0.7987;
1277.7000;0.4656;0.7871;
1278.0000;0.4746;0.7987;
1278.3000;0.4746;0.7987;
1278.6000;0.4746;0.8080;
1278.9000;0.4713;0.7987;
1279.2000;0.4746;0.7895;
1279.5000;0.4729;0.7802;
1279.8000;0.4729;0.7732;
1280.1000;0.4721;0.7732;
1280.4000;0.4737;0.7755;
1280.7000;0.4737;0.7848;
1281.0000;0.4770;0.7987;
1281.3000;0.4737;0.7895;
1281.6000;0.4729;0.7802;
1281.9000;0.4713;0.7848;
1282.2000;0.4737;0.7895;
1282.5000;0.4737;0.7964;
1282.8000;0.4746;0.8080;
1283.1000;0.4656;0.7918;
1283.4000;0.4737;0.8034;
1283.7000;0.4721;0.8011;
1284.0000;0.4786;0.8104;
1284.3000;0.4697;0.7987;
1284.6000;0.4721;0.8011;
1284.9000;0.4640;0.7848;
1285.2000;0.4689;0.7987;
1285.5000;0.4729;0.8104;
1285.8000;0.4721;0.8127;
1286.1000;0.4721;0.8150;
1286.4000;0.4762;0.8220;
1286.7000;0.4754;0.8173;
1287.0000;0.4754;0.8150;
1287.3000;0.4672;0.7964;
1287.6000;0.4721;0.8080;
1287.9000;0.4729;0.8034;
1288.2000;0.4713;0.7987;
1288.5000;0.4746;0.8057;
1288.8000;0.4746;0.8080;
1289.1000;0.4705;0.7918;
1289.4000;0.4737;0.8011;
1289.7000;0.4729;0.7964;
1290.0000;0.4729;0.7964;
1290.3000;0.4737;0.7871;
1290.6000;0.4737;0.7871;
1290.9000;0.4697;0.7825;
1291.2000;0.4713;0.7848;
1291.5000;0.4754;0.7918;
1291.8000;0.4746;0.7964;
1292.1000;0.4811;0.8150;
1292.4000;0.4754;0.7964;
1292.7000;0.4721;0.7918;
1293.0000;0.4754;0.8011;
1293.3000;0.4729;0.8011;
1293.6000;0.4737;0.7964;
1293.9000;0.4778;0.8057;
1294.2000;0.4746;0.8011;
1294.5000;0.4713;0.7918;
1294.8000;0.4713;0.7825;
1295.1000;0.4737;0.7895;
1295.4000;0.4737;0.7848;
1295.7000;0.4746;0.7941;
1296.0000;0.4737;0.7895;
1296.3000;0.4737;0.7941;
1296.6000;0.4729;0.7895;
1296.9000;0.4746;0.8011;
1297.2000;0.4721;0.7941;
1297.5000;0.4729;0.7964;
1297.8000;0.4737;0.8057;
1298.1000;0.4713;0.8104;
1298.4000;0.4721;0.8127;
1298.7000;0.4762;0.8289;
1299.0000;0.4721;0.8150;
1299.3000;0.4737;0.8173;
1299.6000;0.4689;0.8080;
1299.9000;0.4713;0.8080;
1300.2000;0.4754;0.8243;
1300.5000;0.4721;0.8080;
1300.8000;0.4746;0.8127;
1301.1000;0.4729;0.8080;
1301.4000;0.4737;0.8080;
1301.7000;0.4737;0.8057;
1302.0000;0.4697;0.7848;
1302.3000;0.4754;0.7987;
1302.6000;0.4705;0.7941;
1302.9000;0.4729;0.8057;
1303.2000;0.4713;0.7964;
1303.5000;0.4697;0.7895;
1303.8000;0.4729;0.7941;
1304.1000;0.4843;0.8220;
1304.4000;0.4705;0.7964;
1304.7000;0.4754;0.8011;
1305.0000;0.4713;0.8011;
1305.3000;0.4721;0.8057;
1305.6000;0.4746;0.8080;
1305.9000;0.4754;0.8080;
1306.2000;0.4721;0.7941;
1306.5000;0.4811;0.8196;
1306.8000;0.4746;0.8080;
1307.1000;0.4697;0.7987;
1307.4000;0.4803;0.8196;
1307.7000;0.4705;0.7964;
1308.0000;0.4737;0.8011;
1308.3000;0.4697;0.7825;
1308.6000;0.4843;0.8011;
1308.9000;0.4737;0.7732;
1309.2000;0.4762;0.7871;
1309.5000;0.4746;0.7941;
1309.8000;0.4721;0.7895;
1310.1000;0.4737;0.7895;
1310.4000;0.4737;0.7871;
1310.7000;0.4737;0.7964;
1311.0000;0.4746;0.8011;
1311.3000;0.4737;0.8080;
1311.6000;0.4754;0.8220;
1311.9000;0.4729;0.8220;
1312.2000;0.4737;0.8173;
1312.5000;0.4729;0.8034;
1312.8000;0.4786;0.8080;
1313.1000;0.4770;0.8104;
1313.4000;0.4729;0.8057;
1313.7000;0.4697;0.7895;
1314.0000;0.4705;0.7964;
1314.3000;0.4762;0.8080;
1314.6000;0.4737;0.8104;
1314.9000;0.4729;0.8057;
1315.2000;0.4729;0.8011;
1315.5000;0.4737;0.8011;
1315.8000;0.4729;0.7941;
1316.1000;0.4835;0.8150;
1316.4000;0.4770;0.8034;
1316.7000;0.4770;0.7987;
1317.0000;0.4770;0.7987;
1317.3000;0.4737;0.7941;
1317.6000;0.4746;0.7964;
1317.9000;0.4746;0.7941;
1318.2000;0.4729;0.7778;
1318.5000;0.4721;0.7639;
1318.8000;0.4705;0.7593;
1319.1000;0.4713;0.7616;
1319.4000;0.4729;0.7686;
1319.7000;0.4697;0.7686;
1320.0000;0.4729;0.7825;
1320.3000;0.4721;0.7778;
1320.6000;0.4697;0.7662;
1320.9000;0.4705;0.7593;
1321.2000;0.4729;0.7593;
1321.5000;0.4721;0.7523;
1321.8000;0.4705;0.7500;
1322.1000;0.4746;0.7755;
1322.4000;0.4729;0.7778;
1322.7000;0.4737;0.7778;
1323.0000;0.4746;0.7755;
1323.3000;0.4770;0.7825;
1323.6000;0.4746;0.7732;
1323.9000;0.4746;0.7825;
1324.2000;0.4762;0.7848;
1324.5000;0.4786;0.7987;
1324.8000;0.4737;0.7918;
1325.1000;0.4721;0.7941;
1325.4000;0.4729;0.7871;
1325.7000;0.4729;0.7871;
1326.0000;0.4737;0.7918;
1326.3000;0.4721;0.7778;
1326.6000;0.4729;0.7871;
1326.9000;0.4786;0.7987;
1327.2000;0.4754;0.7941;
1327.5000;0.4737;0.7918;
1327.8000;0.4632;0.7709;
1328.1000;0.4819;0.8104;
1328.4000;0.4689;0.7895;
1328.7000;0.4689;0.7964;
1329.0000;0.4729;0.8080;
1329.3000;0.4737;0.7987;
1329.6000;0.4754;0.7871;
1329.9000;0.4729;0.7802;
1330.2000;0.4713;0.7825;
1330.5000;0.4762;0.7918;
1330.8000;0.4762;0.7825;
1331.1000;0.4721;0.7662;
1331.4000;0.4656;0.7407;
1331.7000;0.4737;0.7546;
1332.0000;0.4713;0.7523;
1332.3000;0.4737;0.7546;
1332.6000;0.4729;0.7593;
1332.9000;0.4721;0.7616;
1333.2000;0.4737;0.7732;
1333.5000;0.4754;0.7848;
1333.8000;0.4713;0.7709;
1334.1000;0.4754;0.7825;
1334.4000;0.4729;0.7802;
1334.7000;0.4713;0.7802;
1335.0000;0.4729;0.7871;
1335.3000;0.4729;0.7778;
1335.6000;0.4729;0.7709;
1335.9000;0.4737;0.7755;
1336.2000;0.4746;0.7732;
1336.5000;0.4746;0.7825;
1336.8000;0.4746;0.7871;
1337.1000;0.4746;0.7918;
1337.4000;0.4746;0.7895;
1337.7000;0.4754;0.7987;
1338.0000;0.4729;0.7987;
1338.3000;0.4786;0.8127;
1338.6000;0.4737;0.8034;
1338.9000;0.4778;0.8220;
1339.2000;0.4770;0.8196;
1339.5000;0.4746;0.8173;
1339.8000;0.4705;0.8080;
1340.1000;0.4746;0.8220;
1340.4000;0.4746;0.8173;
1340.7000;0.4746;0.7964;
1341.0000;0.4746;0.7941;
1341.3000;0.4746;0.7941;
1341.6000;0.4794;0.7987;
1341.9000;0.4762;0.7802;
1342.2000;0.4721;0.7848;
1342.5000;0.4729;0.7778;
1342.8000;0.4737;0.7825;
1343.1000;0.4746;0.7825;
1343.4000;0.4713;0.7732;
1343.7000;0.4770;0.7778;
1344.0000;0.4835;0.7964;
1344.3000;0.4746;0.7662;
1344.6000;0.4721;0.7570;
1344.9000;0.4754;0.7662;
1345.2000;0.4729;0.7570;
1345.5000;0.4729;0.7523;
1345.8000;0.4737;0.7546;
1346.1000;0.4737;0.7523;
1346.4000;0.4737;0.7546;
1346.7000;0.4737;0.7662;
1347.0000;0.4737;0.7662;
1347.3000;0.4737;0.7755;
1347.6000;0.4746;0.7755;
1347.9000;0.4737;0.7709;
1348.2000;0.4746;0.7686;
1348.5000;0.4713;0.7662;
1348.8000;0.4794;0.7895;
1349.1000;0.4737;0.7732;
1349.4000;0.4729;0.7709;
1349.7000;0.4737;0.7709;
1350.0000;0.4713;0.7709;
1350.3000;0.4794;0.7964;
1350.6000;0.4729;0.7825;
1350.9000;0.4713;0.7732;
1351.2000;0.4729;0.7802;
1351.5000;0.4729;0.7848;
1351.8000;0.4705;0.7639;
1352.1000;0.4762;0.7895;
1352.4000;0.4697;0.7802;
1352.7000;0.4754;0.7918;
1353.0000;0.4770;0.7918;
1353.3000;0.4729;0.7802;
1353.6000;0.4746;0.7778;
1353.9000;0.4737;0.7802;
1354.2000;0.4737;0.7895;
1354.5000;0.4713;0.7848;
1354.8000;0.4729;0.7825;
1355.1000;0.4794;0.7941;
1355.4000;0.4689;0.7732;
1355.7000;0.4705;0.7848;
1356.0000;0.4729;0.7941;
1356.3000;0.4713;0.7941;
1356.6000;0.4746;0.7848;
1356.9000;0.4746;0.7755;
1357.2000;0.4778;0.7825;
1357.5000;0.4737;0.7778;
1357.8000;0.4737;0.7709;
1358.1000;0.4754;0.7709;
1358.4000;0.4721;0.7709;
1358.7000;0.4746;0.7778;
1359.0000;0.4737;0.7755;
1359.3000;0.4754;0.7802;
1359.6000;0.4746;0.7848;
1359.9000;0.4737;0.7848;
1360.2000;0.4737;0.7895;
1360.5000;0.4737;0.8057;
1360.8000;0.4835;0.8220;
1361.1000;0.4721;0.7848;
1361.4000;0.4746;0.7848;
1361.7000;0.4729;0.7802;
1362.0000;0.4681;0.7778;
1362.3000;0.4697;0.7778;
1362.6000;0.4721;0.7825;
1362.9000;0.4729;0.7941;
1363.2000;0.4737;0.7987;
1363.5000;0.4729;0.7941;
1363.8000;0.4737;0.7918;
1364.1000;0.4762;0.7987;
1364.4000;0.4746;0.7871;
1364.7000;0.4754;0.7825;
1365.0000;0.4737;0.7732;
1365.3000;0.4754;0.7825;
1365.6000;0.4737;0.7755;
1365.9000;0.4746;0.7755;
1366.2000;0.4827;0.7987;
1366.5000;0.4737;0.7802;
1366.8000;0.4729;0.7825;
1367.1000;0.4713;0.7732;
1367.4000;0.4705;0.7732;
1367.7000;0.4721;0.7755;
1368.0000;0.4737;0.7848;
1368.3000;0.4729;0.7871;
1368.6000;0.4737;0.7918;
1368.9000;0.4729;0.7941;
1369.2000;0.4746;0.8080;
1369.5000;0.4746;0.8080;
1369.8000;0.4737;0.8104;
1370.1000;0.4721;0.8127;
1370.4000;0.4729;0.8104;
1370.7000;0.4729;0.8150;
1371.0000;0.4754;0.8127;
1371.3000;0.4737;0.8080;
1371.6000;0.4713;0.7964;
1371.9000;0.4737;0.8011;
1372.2000;0.4713;0.7964;
1372.5000;0.4721;0.8057;
1372.8000;0.4721;0.8080;
1373.1000;0.4681;0.8080;
1373.4000;0.4721;0.8220;
1373.7000;0.4664;0.7964;
1374.0000;0.4737;0.8220;
1374.3000;0.4762;0.8220;
1374.6000;0.4746;0.8220;
1374.9000;0.4729;0.8173;
1375.2000;0.4737;0.8104;
1375.5000;0.4746;0.8080;
1375.8000;0.4583;0.7709;
1376.1000;0.4681;0.7871;
1376.4000;0.4689;0.7895;
1376.7000;0.4770;0.8034;
1377.0000;0.4729;0.8011;
1377.3000;0.4729;0.7964;
1377.6000;0.4746;0.7941;
1377.9000;0.4713;0.7871;
1378.2000;0.4770;0.7918;
1378.5000;0.4713;0.7639;
1378.8000;0.4664;0.7430;
1379.1000;0.4737;0.7639;
1379.4000;0.4705;0.7593;
1379.7000;0.4786;0.7848;
1380.0000;0.4721;0.7755;
1380.3000;0.4713;0.7662;
1380.6000;0.4737;0.7871;
1380.9000;0.4754;0.7918;
1381.2000;0.4713;0.7871;
1381.5000;0.4721;0.7895;
1381.8000;0.4746;0.8011;
1382.1000;0.4827;0.8196;
1382.4000;0.4713;0.8034;
1382.7000;0.4721;0.8034;
1383.0000;0.4713;0.7918;
1383.3000;0.4656;0.7755;
1383.6000;0.4705;0.7895;
1383.9000;0.4697;0.7964;
1384.2000;0.4737;0.7964;
1384.5000;0.4746;0.7825;
1384.8000;0.4746;0.7778;
1385.1000;0.4697;0.7662;
1385.4000;0.4713;0.7778;
1385.7000;0.4737;0.7871;
1386.0000;0.4721;0.7964;
1386.3000;0.4729;0.8057;
1386.6000;0.4737;0.8080;
1386.9000;0.4754;0.8127;
1387.2000;0.4713;0.7941;
1387.5000;0.4746;0.7964;
1387.8000;0.4754;0.8034;
1388.1000;0.4737;0.7964;
1388.4000;0.4746;0.8057;
1388.7000;0.4737;0.8104;
1389.0000;0.4721;0.8034;
1389.3000;0.4746;0.8104;
1389.6000;0.4746;0.8127;
1389.9000;0.4754;0.8150;
1390.2000;0.4681;0.7941;
1390.5000;0.4746;0.8011;
1390.8000;0.4729;0.7987;
1391.1000;0.4770;0.8034;
1391.4000;0.4737;0.7941;
1391.7000;0.4737;0.7871;
1392.0000;0.4762;0.7941;
1392.3000;0.4754;0.7941;
1392.6000;0.4681;0.7871;
1392.9000;0.4746;0.7941;
1393.2000;0.4713;0.7895;
1393.5000;0.4721;0.7964;
1393.8000;0.4737;0.7918;
1394.1000;0.4746;0.7895;
1394.4000;0.4713;0.7825;
1394.7000;0.4721;0.7825;
1395.0000;0.4754;0.7895;
1395.3000;0.4754;0.7802;
1395.6000;0.4737;0.7871;
1395.9000;0.4729;0.7918;
1396.2000;0.4737;0.7895;
1396.5000;0.4721;0.7825;
1396.8000;0.4721;0.7825;
1397.1000;0.4705;0.7848;
1397.4000;0.4721;0.7871;
1397.7000;0.4729;0.7848;
1398.0000;0.4729;0.7848;
1398.3000;0.4746;0.7941;
1398.6000;0.4746;0.7987;
1398.9000;0.4746;0.8080;
1399.2000;0.4721;0.8011;
1399.5000;0.4705;0.8011;
1399.8000;0.4737;0.8080;
