time/ms;Fluo/V;P700 deltaI/I x10³;
-199.8000;0.6374;3.1932;
-199.5000;0.6374;3.2004;
-199.2000;0.6341;3.1932;
-198.9000;0.6309;3.1908;
-198.6000;0.6349;3.2076;
-198.3000;0.6357;3.2100;
-198.0000;0.6349;3.2148;
-197.7000;0.6325;3.2052;
-197.4000;0.6349;3.2052;
-197.1000;0.6382;3.2052;
-196.8000;0.6390;3.2076;
-196.5000;0.6357;3.2028;
-196.2000;0.6374;3.2076;
-195.9000;0.6357;3.2052;
-195.6000;0.6479;3.2316;
-195.3000;0.6365;3.2028;
-195.0000;0.6439;3.2268;
-194.7000;0.6333;3.2052;
-194.4000;0.6374;3.2172;
-194.1000;0.6317;3.2100;
-193.8000;0.6349;3.2196;
-193.5000;0.6382;3.2268;
-193.2000;0.6382;3.2244;
-192.9000;0.6374;3.2316;
-192.6000;0.6382;3.2316;
-192.3000;0.6365;3.2292;
-192.0000;0.6382;3.2244;
-191.7000;0.6374;3.2148;
-191.4000;0.6365;3.2196;
-191.1000;0.6357;3.2124;
-190.8000;0.6341;3.2076;
-190.5000;0.6357;3.2124;
-190.2000;0.6431;3.2316;
-189.9000;0.6349;3.2124;
-189.6000;0.6365;3.2100;
-189.3000;0.6349;3.2100;
-189.0000;0.6333;3.2028;
-188.7000;0.6374;3.2004;
-188.4000;0.6374;3.2004;
-188.1000;0.6357;3.1956;
-187.8000;0.6365;3.1980;
-187.5000;0.6341;3.1908;
-187.2000;0.6349;3.1836;
-186.9000;0.6382;3.1860;
-186.6000;0.6382;3.1788;
-186.3000;0.6365;3.1812;
-186.0000;0.6357;3.1932;
-185.7000;0.6365;3.1932;
-185.4000;0.6390;3.1980;
-185.1000;0.6357;3.1932;
-184.8000;0.6349;3.1980;
-184.5000;0.6390;3.2004;
-184.2000;0.6374;3.2004;
-183.9000;0.6382;3.2004;
-183.6000;0.6341;3.1980;
-183.3000;0.6357;3.2028;
-183.0000;0.6374;3.2076;
-182.7000;0.6382;3.1980;
-182.4000;0.6309;3.1908;
-182.1000;0.6390;3.2172;
-181.8000;0.6374;3.2244;
-181.5000;0.6374;3.2172;
-181.2000;0.6333;3.2148;
-180.9000;0.6357;3.2244;
-180.6000;0.6365;3.2268;
-180.3000;0.6365;3.2220;
-180.0000;0.6398;3.2220;
-179.7000;0.6374;3.2148;
-179.4000;0.6439;3.2244;
-179.1000;0.6390;3.2100;
-178.8000;0.6357;3.1956;
-178.5000;0.6357;3.1980;
-178.2000;0.6374;3.2052;
-177.9000;0.6374;3.2004;
-177.6000;0.6317;3.1932;
-177.3000;0.6357;3.1980;
-177.0000;0.6439;3.2076;
-176.7000;0.6390;3.1908;
-176.4000;0.6365;3.1860;
-176.1000;0.6365;3.1908;
-175.8000;0.6365;3.1932;
-175.5000;0.6374;3.1884;
-175.2000;0.6382;3.1980;
-174.9000;0.6309;3.1884;
-174.6000;0.6357;3.2052;
-174.3000;0.6357;3.2052;
-174.0000;0.6406;3.2292;
-173.7000;0.6333;3.2148;
-173.4000;0.6357;3.2148;
-173.1000;0.6374;3.2220;
-172.8000;0.6357;3.2148;
-172.5000;0.6374;3.2172;
-172.2000;0.6341;3.2124;
-171.9000;0.6374;3.2148;
-171.6000;0.6390;3.2148;
-171.3000;0.6357;3.2076;
-171.0000;0.6365;3.2124;
-170.7000;0.6390;3.2220;
-170.4000;0.6349;3.2124;
-170.1000;0.6349;3.2100;
-169.8000;0.6382;3.2172;
-169.5000;0.6325;3.2052;
-169.2000;0.6374;3.2172;
-168.9000;0.6357;3.2220;
-168.6000;0.6349;3.2220;
-168.3000;0.6374;3.2220;
-168.0000;0.6357;3.2220;
-167.7000;0.6349;3.2196;
-167.4000;0.6341;3.2100;
-167.1000;0.6341;3.2148;
-166.8000;0.6357;3.2172;
-166.5000;0.6357;3.2292;
-166.2000;0.6357;3.2148;
-165.9000;0.6365;3.2148;
-165.6000;0.6357;3.2148;
-165.3000;0.6357;3.2244;
-165.0000;0.6333;3.2148;
-164.7000;0.6341;3.2220;
-164.4000;0.6349;3.2268;
-164.1000;0.6382;3.2340;
-163.8000;0.6341;3.2244;
-163.5000;0.6357;3.2268;
-163.2000;0.6357;3.2220;
-162.9000;0.6374;3.2244;
-162.6000;0.6349;3.2220;
-162.3000;0.6365;3.2196;
-162.0000;0.6341;3.2124;
-161.7000;0.6357;3.2124;
-161.4000;0.6374;3.2172;
-161.1000;0.6357;3.2076;
-160.8000;0.6349;3.2028;
-160.5000;0.6365;3.2076;
-160.2000;0.6333;3.2028;
-159.9000;0.6365;3.2076;
-159.6000;0.6349;3.1980;
-159.3000;0.6357;3.2076;
-159.0000;0.6357;3.2052;
-158.7000;0.6349;3.2052;
-158.4000;0.6357;3.1956;
-158.1000;0.6382;3.2028;
-157.8000;0.6374;3.1980;
-157.5000;0.6357;3.1956;
-157.2000;0.6398;3.2052;
-156.9000;0.6365;3.1980;
-156.6000;0.6398;3.2076;
-156.3000;0.6365;3.2148;
-156.0000;0.6382;3.2124;
-155.7000;0.6374;3.2100;
-155.4000;0.6374;3.2148;
-155.1000;0.6382;3.2148;
-154.8000;0.6349;3.2052;
-154.5000;0.6349;3.2052;
-154.2000;0.6357;3.2076;
-153.9000;0.6390;3.2100;
-153.6000;0.6365;3.2148;
-153.3000;0.6365;3.2076;
-153.0000;0.6382;3.2076;
-152.7000;0.6365;3.2076;
-152.4000;0.6374;3.2004;
-152.1000;0.6365;3.2028;
-151.8000;0.6365;3.2100;
-151.5000;0.6382;3.2268;
-151.2000;0.6374;3.2292;
-150.9000;0.6365;3.2244;
-150.6000;0.6357;3.2148;
-150.3000;0.6374;3.2172;
-150.0000;0.6422;3.2244;
-149.7000;0.6365;3.2100;
-149.4000;0.6382;3.2220;
-149.1000;0.6365;3.2172;
-148.8000;0.6349;3.2172;
-148.5000;0.6357;3.2196;
-148.2000;0.6357;3.2124;
-147.9000;0.6374;3.2052;
-147.6000;0.6365;3.2004;
-147.3000;0.6365;3.2028;
-147.0000;0.6357;3.1980;
-146.7000;0.6365;3.1956;
-146.4000;0.6382;3.2028;
-146.1000;0.6357;3.2004;
-145.8000;0.6374;3.2100;
-145.5000;0.6374;3.2148;
-145.2000;0.6374;3.2148;
-144.9000;0.6406;3.2316;
-144.6000;0.6382;3.2220;
-144.3000;0.6374;3.2076;
-144.0000;0.6374;3.2076;
-143.7000;0.6349;3.2052;
-143.4000;0.6357;3.2004;
-143.1000;0.6365;3.1980;
-142.8000;0.6374;3.2028;
-142.5000;0.6374;3.2028;
-142.2000;0.6341;3.1980;
-141.9000;0.6365;3.2004;
-141.6000;0.6382;3.2004;
-141.3000;0.6374;3.2004;
-141.0000;0.6374;3.2028;
-140.7000;0.6382;3.1908;
-140.4000;0.6365;3.1836;
-140.1000;0.6382;3.1932;
-139.8000;0.6382;3.2004;
-139.5000;0.6357;3.1860;
-139.2000;0.6422;3.1980;
-138.9000;0.6365;3.1788;
-138.6000;0.6365;3.1812;
-138.3000;0.6382;3.1860;
-138.0000;0.6333;3.1764;
-137.7000;0.6382;3.1764;
-137.4000;0.6365;3.1740;
-137.1000;0.6365;3.1884;
-136.8000;0.6374;3.1956;
-136.5000;0.6341;3.2004;
-136.2000;0.6390;3.2100;
-135.9000;0.6365;3.2052;
-135.6000;0.6365;3.2028;
-135.3000;0.6341;3.1956;
-135.0000;0.6357;3.2004;
-134.7000;0.6365;3.1956;
-134.4000;0.6374;3.1932;
-134.1000;0.6382;3.2028;
-133.8000;0.6374;3.1980;
-133.5000;0.6365;3.1956;
-133.2000;0.6341;3.1884;
-132.9000;0.6317;3.1812;
-132.6000;0.6365;3.1860;
-132.3000;0.6357;3.1884;
-132.0000;0.6374;3.1860;
-131.7000;0.6357;3.1932;
-131.4000;0.6463;3.2268;
-131.1000;0.6349;3.2124;
-130.8000;0.6357;3.2124;
-130.5000;0.6317;3.2004;
-130.2000;0.6357;3.2148;
-129.9000;0.6357;3.2124;
-129.6000;0.6365;3.2076;
-129.3000;0.6333;3.2028;
-129.0000;0.6341;3.2076;
-128.7000;0.6357;3.2076;
-128.4000;0.6349;3.2076;
-128.1000;0.6390;3.2100;
-127.8000;0.6357;3.1980;
-127.5000;0.6357;3.1956;
-127.2000;0.6357;3.1956;
-126.9000;0.6341;3.1884;
-126.6000;0.6382;3.2028;
-126.3000;0.6374;3.2028;
-126.0000;0.6292;3.1836;
-125.7000;0.6374;3.2100;
-125.4000;0.6374;3.2148;
-125.1000;0.6365;3.2244;
-124.8000;0.6382;3.2364;
-124.5000;0.6374;3.2316;
-124.2000;0.6382;3.2316;
-123.9000;0.6357;3.2268;
-123.6000;0.6357;3.2292;
-123.3000;0.6357;3.2268;
-123.0000;0.6365;3.2220;
-122.7000;0.6365;3.2172;
-122.4000;0.6357;3.2172;
-122.1000;0.6349;3.2196;
-121.8000;0.6341;3.2172;
-121.5000;0.6357;3.2268;
-121.2000;0.6365;3.2172;
-120.9000;0.6374;3.2268;
-120.6000;0.6357;3.2196;
-120.3000;0.6365;3.2220;
-120.0000;0.6357;3.2220;
-119.7000;0.6357;3.2220;
-119.4000;0.6357;3.2292;
-119.1000;0.6357;3.2148;
-118.8000;0.6284;3.1956;
-118.5000;0.6357;3.2124;
-118.2000;0.6357;3.2124;
-117.9000;0.6365;3.2148;
-117.6000;0.6390;3.2292;
-117.3000;0.6365;3.2172;
-117.0000;0.6349;3.2148;
-116.7000;0.6349;3.2076;
-116.4000;0.6365;3.2076;
-116.1000;0.6365;3.2076;
-115.8000;0.6357;3.2076;
-115.5000;0.6341;3.2028;
-115.2000;0.6341;3.2004;
-114.9000;0.6357;3.2076;
-114.6000;0.6390;3.2220;
-114.3000;0.6365;3.2148;
-114.0000;0.6349;3.2052;
-113.7000;0.6365;3.2052;
-113.4000;0.6374;3.2124;
-113.1000;0.6374;3.2100;
-112.8000;0.6365;3.2052;
-112.5000;0.6365;3.1956;
-112.2000;0.6349;3.1788;
-111.9000;0.6374;3.1788;
-111.6000;0.6382;3.1812;
-111.3000;0.6300;3.1644;
-111.0000;0.6382;3.1836;
-110.7000;0.6374;3.1836;
-110.4000;0.6390;3.1860;
-110.1000;0.6357;3.1908;
-109.8000;0.6365;3.1956;
-109.5000;0.6357;3.1980;
-109.2000;0.6349;3.1980;
-108.9000;0.6357;3.2100;
-108.6000;0.6333;3.2076;
-108.3000;0.6406;3.2244;
-108.0000;0.6374;3.2004;
-107.7000;0.6357;3.1980;
-107.4000;0.6349;3.2004;
-107.1000;0.6349;3.1980;
-106.8000;0.6365;3.2124;
-106.5000;0.6349;3.2148;
-106.2000;0.6357;3.2124;
-105.9000;0.6333;3.2052;
-105.6000;0.6365;3.2148;
-105.3000;0.6349;3.2124;
-105.0000;0.6357;3.2172;
-104.7000;0.6374;3.2220;
-104.4000;0.6349;3.2244;
-104.1000;0.6414;3.2436;
-103.8000;0.6357;3.2364;
-103.5000;0.6341;3.2388;
-103.2000;0.6382;3.2436;
-102.9000;0.6276;3.2076;
-102.6000;0.6365;3.2292;
-102.3000;0.6365;3.2292;
-102.0000;0.6374;3.2268;
-101.7000;0.6365;3.2196;
-101.4000;0.6374;3.2124;
-101.1000;0.6414;3.2268;
-100.8000;0.6341;3.2052;
-100.5000;0.6390;3.2196;
-100.2000;0.6357;3.2172;
-99.9000;0.6349;3.2148;
-99.6000;0.6357;3.2172;
-99.3000;0.6357;3.2148;
-99.0000;0.6349;3.2124;
-98.7000;0.6365;3.2220;
-98.4000;0.6349;3.2196;
-98.1000;0.6374;3.2076;
-97.8000;0.6365;3.2028;
-97.5000;0.6357;3.2148;
-97.2000;0.6357;3.2172;
-96.9000;0.6365;3.2172;
-96.6000;0.6365;3.2124;
-96.3000;0.6357;3.2100;
-96.0000;0.6349;3.2148;
-95.7000;0.6382;3.2244;
-95.4000;0.6365;3.2196;
-95.1000;0.6357;3.2148;
-94.8000;0.6447;3.2412;
-94.5000;0.6374;3.2196;
-94.2000;0.6374;3.2220;
-93.9000;0.6357;3.2196;
-93.6000;0.6341;3.2172;
-93.3000;0.6365;3.2220;
-93.0000;0.6365;3.2244;
-92.7000;0.6382;3.2220;
-92.4000;0.6365;3.2172;
-92.1000;0.6365;3.2172;
-91.8000;0.6349;3.2100;
-91.5000;0.6349;3.2052;
-91.2000;0.6365;3.2124;
-90.9000;0.6357;3.2148;
-90.6000;0.6374;3.2292;
-90.3000;0.6398;3.2364;
-90.0000;0.6357;3.2292;
-89.7000;0.6365;3.2292;
-89.4000;0.6374;3.2220;
-89.1000;0.6365;3.2196;
-88.8000;0.6414;3.2268;
-88.5000;0.6365;3.2148;
-88.2000;0.6349;3.2076;
-87.9000;0.6357;3.2124;
-87.6000;0.6292;3.1980;
-87.3000;0.6365;3.2196;
-87.0000;0.6365;3.2316;
-86.7000;0.6390;3.2292;
-86.4000;0.6382;3.2172;
-86.1000;0.6357;3.2100;
-85.8000;0.6365;3.2196;
-85.5000;0.6333;3.2148;
-85.2000;0.6365;3.2268;
-84.9000;0.6349;3.2244;
-84.6000;0.6349;3.2292;
-84.3000;0.6422;3.2412;
-84.0000;0.6374;3.2244;
-83.7000;0.6382;3.2244;
-83.4000;0.6349;3.2100;
-83.1000;0.6365;3.2196;
-82.8000;0.6357;3.2196;
-82.5000;0.6357;3.2220;
-82.2000;0.6382;3.2292;
-81.9000;0.6357;3.2220;
-81.6000;0.6414;3.2292;
-81.3000;0.6357;3.2148;
-81.0000;0.6333;3.2148;
-80.7000;0.6365;3.2196;
-80.4000;0.6300;3.2124;
-80.1000;0.6390;3.2220;
-79.8000;0.6349;3.2100;
-79.5000;0.6325;3.2124;
-79.2000;0.6357;3.2196;
-78.9000;0.6341;3.2148;
-78.6000;0.6349;3.2124;
-78.3000;0.6349;3.2100;
-78.0000;0.6365;3.2124;
-77.7000;0.6374;3.2196;
-77.4000;0.6365;3.2124;
-77.1000;0.6390;3.2220;
-76.8000;0.6341;3.2100;
-76.5000;0.6382;3.2100;
-76.2000;0.6365;3.2100;
-75.9000;0.6422;3.2292;
-75.6000;0.6374;3.2172;
-75.3000;0.6406;3.2220;
-75.0000;0.6365;3.2100;
-74.7000;0.6357;3.2100;
-74.4000;0.6382;3.2196;
-74.1000;0.6341;3.2148;
-73.8000;0.6349;3.2100;
-73.5000;0.6365;3.2148;
-73.2000;0.6341;3.2196;
-72.9000;0.6349;3.2220;
-72.6000;0.6365;3.2292;
-72.3000;0.6431;3.2484;
-72.0000;0.6341;3.2316;
-71.7000;0.6317;3.2292;
-71.4000;0.6382;3.2316;
-71.1000;0.6374;3.2268;
-70.8000;0.6357;3.2316;
-70.5000;0.6365;3.2292;
-70.2000;0.6365;3.2196;
-69.9000;0.6374;3.2244;
-69.6000;0.6349;3.2172;
-69.3000;0.6365;3.2124;
-69.0000;0.6382;3.2124;
-68.7000;0.6365;3.2124;
-68.4000;0.6374;3.2172;
-68.1000;0.6349;3.2196;
-67.8000;0.6341;3.2100;
-67.5000;0.6357;3.2172;
-67.2000;0.6349;3.2172;
-66.9000;0.6268;3.2028;
-66.6000;0.6349;3.2220;
-66.3000;0.6365;3.2196;
-66.0000;0.6349;3.2172;
-65.7000;0.6333;3.2100;
-65.4000;0.6309;3.2076;
-65.1000;0.6374;3.2148;
-64.8000;0.6309;3.1980;
-64.5000;0.6365;3.2124;
-64.2000;0.6341;3.2052;
-63.9000;0.6365;3.2076;
-63.6000;0.6341;3.1980;
-63.3000;0.6333;3.2004;
-63.0000;0.6357;3.2052;
-62.7000;0.6333;3.2004;
-62.4000;0.6374;3.2004;
-62.1000;0.6333;3.1908;
-61.8000;0.6276;3.1740;
-61.5000;0.6333;3.1932;
-61.2000;0.6374;3.2076;
-60.9000;0.6341;3.1932;
-60.6000;0.6374;3.2052;
-60.3000;0.6374;3.2076;
-60.0000;0.6357;3.2052;
-59.7000;0.6300;3.1860;
-59.4000;0.6374;3.2028;
-59.1000;0.6357;3.2100;
-58.8000;0.6374;3.2172;
-58.5000;0.6414;3.2244;
-58.2000;0.6382;3.2172;
-57.9000;0.6357;3.2052;
-57.6000;0.6333;3.1956;
-57.3000;0.6374;3.2028;
-57.0000;0.6349;3.2004;
-56.7000;0.6349;3.1980;
-56.4000;0.6325;3.2052;
-56.1000;0.6349;3.2004;
-55.8000;0.6365;3.1932;
-55.5000;0.6333;3.1932;
-55.2000;0.6382;3.2124;
-54.9000;0.6374;3.2172;
-54.6000;0.6382;3.2148;
-54.3000;0.6390;3.2172;
-54.0000;0.6365;3.2196;
-53.7000;0.6357;3.2220;
-53.4000;0.6374;3.2220;
-53.1000;0.6357;3.2196;
-52.8000;0.6357;3.2148;
-52.5000;0.6365;3.2172;
-52.2000;0.6357;3.2172;
-51.9000;0.6365;3.2172;
-51.6000;0.6349;3.2124;
-51.3000;0.6374;3.2124;
-51.0000;0.6357;3.2148;
-50.7000;0.6357;3.2148;
-50.4000;0.6341;3.2052;
-50.1000;0.6365;3.2052;
-49.8000;0.6374;3.2028;
-49.5000;0.6357;3.2028;
-49.2000;0.6382;3.2052;
-48.9000;0.6374;3.2100;
-48.6000;0.6357;3.2052;
-48.3000;0.6357;3.2028;
-48.0000;0.6374;3.2076;
-47.7000;0.6365;3.2124;
-47.4000;0.6382;3.2196;
-47.1000;0.6382;3.2244;
-46.8000;0.6365;3.2244;
-46.5000;0.6357;3.2148;
-46.2000;0.6357;3.2124;
-45.9000;0.6357;3.2076;
-45.6000;0.6431;3.2220;
-45.3000;0.6374;3.2196;
-45.0000;0.6439;3.2388;
-44.7000;0.6357;3.2172;
-44.4000;0.6365;3.2220;
-44.1000;0.6357;3.2172;
-43.8000;0.6357;3.2172;
-43.5000;0.6349;3.2196;
-43.2000;0.6365;3.2196;
-42.9000;0.6349;3.2100;
-42.6000;0.6349;3.2076;
-42.3000;0.6357;3.2076;
-42.0000;0.6365;3.2148;
-41.7000;0.6349;3.2124;
-41.4000;0.6357;3.2172;
-41.1000;0.6382;3.2220;
-40.8000;0.6357;3.2196;
-40.5000;0.6365;3.2244;
-40.2000;0.6325;3.2148;
-39.9000;0.6365;3.2340;
-39.6000;0.6398;3.2484;
-39.3000;0.6382;3.2412;
-39.0000;0.6365;3.2388;
-38.7000;0.6357;3.2292;
-38.4000;0.6365;3.2316;
-38.1000;0.6300;3.2196;
-37.8000;0.6341;3.2268;
-37.5000;0.6365;3.2316;
-37.2000;0.6357;3.2316;
-36.9000;0.6382;3.2340;
-36.6000;0.6365;3.2316;
-36.3000;0.6374;3.2340;
-36.0000;0.6374;3.2244;
-35.7000;0.6349;3.2100;
-35.4000;0.6365;3.2220;
-35.1000;0.6284;3.1980;
-34.8000;0.6365;3.2124;
-34.5000;0.6382;3.2196;
-34.2000;0.6349;3.2220;
-33.9000;0.6357;3.2196;
-33.6000;0.6357;3.2196;
-33.3000;0.6382;3.2148;
-33.0000;0.6341;3.2100;
-32.7000;0.6349;3.2124;
-32.4000;0.6374;3.2220;
-32.1000;0.6382;3.2316;
-31.8000;0.6341;3.2268;
-31.5000;0.6365;3.2268;
-31.2000;0.6374;3.2148;
-30.9000;0.6374;3.2148;
-30.6000;0.6390;3.2244;
-30.3000;0.6374;3.2292;
-30.0000;0.6365;3.2292;
-29.7000;0.6365;3.2268;
-29.4000;0.6374;3.2292;
-29.1000;0.6357;3.2244;
-28.8000;0.6365;3.2220;
-28.5000;0.6374;3.2292;
-28.2000;0.6341;3.2100;
-27.9000;0.6374;3.2196;
-27.6000;0.6365;3.2196;
-27.3000;0.6341;3.2292;
-27.0000;0.6349;3.2316;
-26.7000;0.6365;3.2316;
-26.4000;0.6341;3.2196;
-26.1000;0.6357;3.2196;
-25.8000;0.6357;3.2196;
-25.5000;0.6365;3.2340;
-25.2000;0.6365;3.2292;
-24.9000;0.6349;3.2220;
-24.6000;0.6365;3.2244;
-24.3000;0.6374;3.2244;
-24.0000;0.6365;3.2196;
-23.7000;0.6349;3.2244;
-23.4000;0.6382;3.2316;
-23.1000;0.6357;3.2292;
-22.8000;0.6357;3.2340;
-22.5000;0.6341;3.2244;
-22.2000;0.6357;3.2244;
-21.9000;0.6382;3.2268;
-21.6000;0.6325;3.2220;
-21.3000;0.6390;3.2412;
-21.0000;0.6349;3.2364;
-20.7000;0.6341;3.2388;
-20.4000;0.6365;3.2460;
-20.1000;0.6382;3.2460;
-19.8000;0.6357;3.2316;
-19.5000;0.6300;3.2268;
-19.2000;0.6357;3.2316;
-18.9000;0.6357;3.2364;
-18.6000;0.6374;3.2292;
-18.3000;0.6406;3.2364;
-18.0000;0.6349;3.2148;
-17.7000;0.6333;3.2148;
-17.4000;0.6365;3.2124;
-17.1000;0.6357;3.2124;
-16.8000;0.6374;3.2220;
-16.5000;0.6341;3.2100;
-16.2000;0.6390;3.2220;
-15.9000;0.6374;3.2196;
-15.6000;0.6357;3.2196;
-15.3000;0.6382;3.2196;
-15.0000;0.6333;3.2100;
-14.7000;0.6365;3.2172;
-14.4000;0.6357;3.2124;
-14.1000;0.6357;3.2220;
-13.8000;0.6365;3.2196;
-13.5000;0.6365;3.2196;
-13.2000;0.6357;3.2196;
-12.9000;0.6365;3.2292;
-12.6000;0.6292;3.2172;
-12.3000;0.6357;3.2292;
-12.0000;0.6357;3.2268;
-11.7000;0.6365;3.2292;
-11.4000;0.6357;3.2220;
-11.1000;0.6406;3.2316;
-10.8000;0.6422;3.2364;
-10.5000;0.6374;3.2244;
-10.2000;0.6390;3.2292;
-9.9000;0.6390;3.2220;
-9.6000;0.6349;3.2076;
-9.3000;0.6365;3.2028;
-9.0000;0.6309;3.1932;
-8.7000;0.6374;3.2148;
-8.4000;0.6268;3.1956;
-8.1000;0.6365;3.2172;
-7.8000;0.6365;3.2220;
-7.5000;0.6349;3.2172;
-7.2000;0.6365;3.2220;
-6.9000;0.6357;3.2244;
-6.6000;0.6357;3.2292;
-6.3000;0.6365;3.2364;
-6.0000;0.6349;3.2412;
-5.7000;0.6374;3.2460;
-5.4000;0.6365;3.2364;
-5.1000;0.6365;3.2316;
-4.8000;0.6374;3.2268;
-4.5000;0.6365;3.2316;
-4.2000;0.6390;3.2340;
-3.9000;0.6382;3.2364;
-3.6000;0.6357;3.2340;
-3.3000;0.6357;3.2268;
-3.0000;0.6374;3.2292;
-2.7000;0.6365;3.2268;
-2.4000;0.6349;3.2220;
-2.1000;0.6357;3.2124;
-1.8000;0.6365;3.2220;
-1.5000;0.6365;3.2220;
-1.2000;0.6357;3.2148;
-0.9000;0.6365;3.2124;
-0.6000;0.6365;3.2172;
-0.3000;0.6374;3.2244;
0.0000;0.6374;3.2244;
0.3000;0.6504;3.2508;
0.6000;0.6691;3.2747;
0.9000;0.6838;3.3035;
1.2000;0.6935;3.3275;
1.5000;0.7033;3.3539;
1.8000;0.7106;3.3755;
2.1000;0.7179;3.4019;
2.4000;0.7204;3.4187;
2.7000;0.7253;3.4427;
3.0000;0.7269;3.4499;
3.3000;0.7310;3.4643;
3.6000;0.7350;3.4667;
3.9000;0.7359;3.4739;
4.2000;0.7375;3.4763;
4.5000;0.7399;3.4763;
4.8000;0.7416;3.4763;
5.1000;0.7432;3.4667;
5.4000;0.7448;3.4667;
5.7000;0.7481;3.4811;
6.0000;0.7562;3.5075;
6.3000;0.7513;3.5051;
6.6000;0.7513;3.4931;
6.9000;0.7513;3.4883;
7.2000;0.7546;3.4907;
7.5000;0.7578;3.5027;
7.8000;0.7464;3.4715;
8.1000;0.7586;3.4955;
8.4000;0.7635;3.5027;
8.7000;0.7603;3.4979;
9.0000;0.7627;3.4979;
9.3000;0.7619;3.5003;
9.6000;0.7635;3.5003;
9.9000;0.7652;3.4955;
10.2000;0.7635;3.4859;
10.5000;0.7660;3.4883;
10.8000;0.7660;3.4835;
11.1000;0.7676;3.4859;
11.4000;0.7692;3.4811;
11.7000;0.7700;3.4835;
12.0000;0.7652;3.4643;
12.3000;0.7749;3.4739;
12.6000;0.7717;3.4739;
12.9000;0.7709;3.4643;
13.2000;0.7782;3.4883;
13.5000;0.7757;3.4811;
13.8000;0.7798;3.4979;
14.1000;0.7790;3.4931;
14.4000;0.7774;3.4835;
14.7000;0.7741;3.4691;
15.0000;0.7806;3.4667;
15.3000;0.7823;3.4643;
15.6000;0.7790;3.4571;
15.9000;0.7798;3.4643;
16.2000;0.7896;3.4883;
16.5000;0.7839;3.4787;
16.8000;0.7831;3.4787;
17.1000;0.7880;3.4907;
17.4000;0.7839;3.4835;
17.7000;0.7928;3.5122;
18.0000;0.7880;3.4883;
18.3000;0.7847;3.4739;
18.6000;0.7888;3.4787;
18.9000;0.7896;3.4787;
19.2000;0.7961;3.4931;
19.5000;0.7871;3.4691;
19.8000;0.7904;3.4811;
20.1000;0.7912;3.4835;
20.4000;0.7912;3.4907;
20.7000;0.7920;3.4907;
21.0000;0.7920;3.4859;
21.3000;0.7937;3.4811;
21.6000;0.7937;3.4787;
21.9000;0.7937;3.4763;
22.2000;0.7888;3.4571;
22.5000;0.7945;3.4787;
22.8000;0.7928;3.4811;
23.1000;0.7920;3.4859;
23.4000;0.7961;3.4931;
23.7000;0.7977;3.4979;
24.0000;0.7977;3.4955;
24.3000;0.7969;3.4931;
24.6000;0.7977;3.4907;
24.9000;0.7977;3.4883;
25.2000;0.7993;3.4859;
25.5000;0.8002;3.4883;
25.8000;0.7985;3.4859;
26.1000;0.7977;3.4835;
26.4000;0.7985;3.4811;
26.7000;0.7985;3.4691;
27.0000;0.7985;3.4763;
27.3000;0.7993;3.4763;
27.6000;0.8018;3.4739;
27.9000;0.7977;3.4715;
28.2000;0.8018;3.4859;
28.5000;0.8002;3.4811;
28.8000;0.8042;3.4859;
29.1000;0.8034;3.4739;
29.4000;0.7969;3.4619;
29.7000;0.8018;3.4691;
30.0000;0.8002;3.4691;
30.3000;0.7977;3.4595;
30.6000;0.7993;3.4523;
30.9000;0.8034;3.4643;
31.2000;0.8018;3.4667;
31.5000;0.7993;3.4691;
31.8000;0.8026;3.4835;
32.1000;0.7985;3.4811;
32.4000;0.8026;3.4907;
32.7000;0.8026;3.4859;
33.0000;0.7937;3.4739;
33.3000;0.8018;3.4931;
33.6000;0.8010;3.4835;
33.9000;0.7993;3.4715;
34.2000;0.8050;3.4859;
34.5000;0.8034;3.4811;
34.8000;0.8042;3.4907;
35.1000;0.8050;3.4955;
35.4000;0.8059;3.4931;
35.7000;0.8050;3.4931;
36.0000;0.8050;3.4859;
36.3000;0.8042;3.4811;
36.6000;0.8059;3.4883;
36.9000;0.8059;3.4931;
37.2000;0.8050;3.4859;
37.5000;0.8050;3.4931;
37.8000;0.8075;3.5051;
38.1000;0.8067;3.4979;
38.4000;0.8132;3.5194;
38.7000;0.8083;3.4931;
39.0000;0.8059;3.4739;
39.3000;0.8075;3.4715;
39.6000;0.8091;3.4739;
39.9000;0.8050;3.4619;
40.2000;0.8067;3.4667;
40.5000;0.8091;3.4715;
40.8000;0.8124;3.4763;
41.1000;0.8083;3.4667;
41.4000;0.8091;3.4787;
41.7000;0.8099;3.4859;
42.0000;0.8083;3.4883;
42.3000;0.8083;3.4859;
42.6000;0.8083;3.4931;
42.9000;0.8075;3.4907;
43.2000;0.8116;3.4931;
43.5000;0.8083;3.4787;
43.8000;0.8075;3.4715;
44.1000;0.8050;3.4739;
44.4000;0.8099;3.4739;
44.7000;0.8083;3.4763;
45.0000;0.8099;3.4667;
45.3000;0.8050;3.4571;
45.6000;0.8107;3.4667;
45.9000;0.8067;3.4691;
46.2000;0.8173;3.4979;
46.5000;0.8116;3.4907;
46.8000;0.8107;3.4979;
47.1000;0.8067;3.4835;
47.4000;0.8099;3.4811;
47.7000;0.8116;3.4763;
48.0000;0.8050;3.4571;
48.3000;0.8107;3.4619;
48.6000;0.8107;3.4619;
48.9000;0.8116;3.4619;
49.2000;0.8050;3.4523;
49.5000;0.8116;3.4643;
49.8000;0.8099;3.4715;
50.1000;0.8099;3.4619;
50.4000;0.8140;3.4763;
50.7000;0.8124;3.4859;
51.0000;0.8124;3.4907;
51.3000;0.8107;3.4979;
51.6000;0.8099;3.5027;
51.9000;0.8099;3.4955;
52.2000;0.8083;3.4907;
52.5000;0.8107;3.4955;
52.8000;0.8124;3.4883;
53.1000;0.8091;3.4787;
53.4000;0.8034;3.4643;
53.7000;0.8067;3.4667;
54.0000;0.8091;3.4739;
54.3000;0.8116;3.4739;
54.6000;0.8124;3.4667;
54.9000;0.8107;3.4619;
55.2000;0.8124;3.4739;
55.5000;0.8107;3.4811;
55.8000;0.8116;3.4811;
56.1000;0.8132;3.4811;
56.4000;0.8156;3.4835;
56.7000;0.8107;3.4715;
57.0000;0.8124;3.4739;
57.3000;0.8116;3.4667;
57.6000;0.8107;3.4595;
57.9000;0.8132;3.4571;
58.2000;0.8156;3.4595;
58.5000;0.8140;3.4619;
58.8000;0.8132;3.4667;
59.1000;0.8140;3.4715;
59.4000;0.8132;3.4739;
59.7000;0.8124;3.4787;
60.0000;0.8099;3.4739;
60.3000;0.8164;3.4907;
60.6000;0.8124;3.4835;
60.9000;0.8116;3.4835;
61.2000;0.8116;3.4787;
61.5000;0.8099;3.4667;
61.8000;0.8140;3.4763;
62.1000;0.8132;3.4739;
62.4000;0.8124;3.4763;
62.7000;0.8124;3.4763;
63.0000;0.8140;3.4715;
63.3000;0.8173;3.4787;
63.6000;0.8140;3.4811;
63.9000;0.8124;3.4787;
64.2000;0.8124;3.4787;
64.5000;0.8148;3.4907;
64.8000;0.8156;3.4883;
65.1000;0.8189;3.4955;
65.4000;0.8107;3.4763;
65.7000;0.8124;3.4739;
66.0000;0.8124;3.4643;
66.3000;0.8116;3.4571;
66.6000;0.8107;3.4571;
66.9000;0.8116;3.4667;
67.2000;0.8107;3.4667;
67.5000;0.8132;3.4667;
67.8000;0.8124;3.4619;
68.1000;0.8116;3.4619;
68.4000;0.8124;3.4643;
68.7000;0.8132;3.4619;
69.0000;0.8107;3.4667;
69.3000;0.8132;3.4691;
69.6000;0.8132;3.4691;
69.9000;0.8132;3.4763;
70.2000;0.8164;3.4787;
70.5000;0.8124;3.4691;
70.8000;0.8140;3.4835;
71.1000;0.8140;3.4835;
71.4000;0.8148;3.4835;
71.7000;0.8140;3.4787;
72.0000;0.8132;3.4883;
72.3000;0.8140;3.4907;
72.6000;0.8140;3.4907;
72.9000;0.8132;3.4739;
73.2000;0.8148;3.4835;
73.5000;0.8164;3.4811;
73.8000;0.8164;3.4787;
74.1000;0.8148;3.4715;
74.4000;0.8083;3.4547;
74.7000;0.8164;3.4763;
75.0000;0.8140;3.4619;
75.3000;0.8140;3.4523;
75.6000;0.8173;3.4595;
75.9000;0.8164;3.4739;
76.2000;0.8148;3.4667;
76.5000;0.8230;3.4811;
76.8000;0.8116;3.4547;
77.1000;0.8132;3.4595;
77.4000;0.8107;3.4595;
77.7000;0.8156;3.4763;
78.0000;0.8148;3.4763;
78.3000;0.8164;3.4883;
78.6000;0.8132;3.4859;
78.9000;0.8124;3.4859;
79.2000;0.8132;3.4883;
79.5000;0.8132;3.4835;
79.8000;0.8164;3.4883;
80.1000;0.8140;3.4883;
80.4000;0.8140;3.4883;
80.7000;0.8124;3.4811;
81.0000;0.8140;3.4811;
81.3000;0.8099;3.4715;
81.6000;0.8083;3.4739;
81.9000;0.8099;3.4859;
82.2000;0.8140;3.5099;
82.5000;0.8148;3.5146;
82.8000;0.8140;3.5099;
83.1000;0.8132;3.5099;
83.4000;0.8132;3.5170;
83.7000;0.8148;3.5146;
84.0000;0.8132;3.5051;
84.3000;0.8140;3.5099;
84.6000;0.8173;3.5170;
84.9000;0.8164;3.5146;
85.2000;0.8148;3.5122;
85.5000;0.8140;3.5194;
85.8000;0.8148;3.5266;
86.1000;0.8140;3.5242;
86.4000;0.8140;3.5194;
86.7000;0.8140;3.5194;
87.0000;0.8148;3.5027;
87.3000;0.8140;3.4883;
87.6000;0.8156;3.4811;
87.9000;0.8156;3.4715;
88.2000;0.8173;3.4811;
88.5000;0.8164;3.4667;
88.8000;0.8148;3.4571;
89.1000;0.8156;3.4619;
89.4000;0.8164;3.4667;
89.7000;0.8156;3.4643;
90.0000;0.8173;3.4643;
90.3000;0.8173;3.4691;
90.6000;0.8156;3.4691;
90.9000;0.8173;3.4811;
91.2000;0.8164;3.4859;
91.5000;0.8148;3.4955;
91.8000;0.8164;3.5075;
92.1000;0.8148;3.5099;
92.4000;0.8140;3.5075;
92.7000;0.8156;3.5027;
93.0000;0.8156;3.5027;
93.3000;0.8156;3.5003;
93.6000;0.8189;3.5099;
93.9000;0.8140;3.5075;
94.2000;0.8156;3.5122;
94.5000;0.8156;3.5051;
94.8000;0.8164;3.5051;
95.1000;0.8173;3.5003;
95.4000;0.8156;3.5003;
95.7000;0.8164;3.5051;
96.0000;0.8156;3.4955;
96.3000;0.8148;3.4931;
96.6000;0.8156;3.4907;
96.9000;0.8148;3.4955;
97.2000;0.8148;3.4931;
97.5000;0.8132;3.4931;
97.8000;0.8148;3.4955;
98.1000;0.8148;3.4883;
98.4000;0.8132;3.4955;
98.7000;0.8156;3.5027;
99.0000;0.8140;3.4979;
99.3000;0.8140;3.4907;
99.6000;0.8091;3.4811;
99.9000;0.8124;3.4907;
100.2000;0.8148;3.4931;
100.5000;0.8156;3.4955;
100.8000;0.8156;3.4931;
101.1000;0.8205;3.5027;
101.4000;0.8164;3.4907;
101.7000;0.8205;3.4979;
102.0000;0.8164;3.4811;
102.3000;0.8140;3.4811;
102.6000;0.8140;3.4883;
102.9000;0.8181;3.4955;
103.2000;0.8173;3.4931;
103.5000;0.8124;3.4811;
103.8000;0.8156;3.4931;
104.1000;0.8173;3.4979;
104.4000;0.8173;3.4979;
104.7000;0.8164;3.4931;
105.0000;0.8156;3.4883;
105.3000;0.8173;3.4811;
105.6000;0.8148;3.4811;
105.9000;0.8164;3.4835;
106.2000;0.8156;3.4811;
106.5000;0.8164;3.4859;
106.8000;0.8164;3.4811;
107.1000;0.8140;3.4763;
107.4000;0.8148;3.4811;
107.7000;0.8164;3.4835;
108.0000;0.8148;3.4811;
108.3000;0.8156;3.4811;
108.6000;0.8148;3.4715;
108.9000;0.8173;3.4715;
109.2000;0.8156;3.4667;
109.5000;0.8262;3.4979;
109.8000;0.8173;3.4835;
110.1000;0.8164;3.4811;
110.4000;0.8181;3.4811;
110.7000;0.8221;3.4883;
111.0000;0.8173;3.4763;
111.3000;0.8173;3.4883;
111.6000;0.8189;3.4979;
111.9000;0.8164;3.4931;
112.2000;0.8164;3.4979;
112.5000;0.8140;3.4859;
112.8000;0.8173;3.4907;
113.1000;0.8148;3.4931;
113.4000;0.8148;3.4931;
113.7000;0.8148;3.4907;
114.0000;0.8148;3.4883;
114.3000;0.8173;3.4763;
114.6000;0.8164;3.4787;
114.9000;0.8156;3.4835;
115.2000;0.8156;3.4907;
115.5000;0.8164;3.5027;
115.8000;0.8164;3.5075;
116.1000;0.8189;3.5075;
116.4000;0.8156;3.4979;
116.7000;0.8164;3.5003;
117.0000;0.8156;3.5003;
117.3000;0.8173;3.5051;
117.6000;0.8148;3.4979;
117.9000;0.8181;3.4931;
118.2000;0.8181;3.4979;
118.5000;0.8132;3.4931;
118.8000;0.8140;3.4979;
119.1000;0.8221;3.5099;
119.4000;0.8164;3.4931;
119.7000;0.8173;3.5051;
120.0000;0.8148;3.4979;
120.3000;0.8156;3.4907;
120.6000;0.8164;3.4931;
120.9000;0.8156;3.4787;
121.2000;0.8148;3.4691;
121.5000;0.8181;3.4739;
121.8000;0.8156;3.4787;
122.1000;0.8156;3.4787;
122.4000;0.8164;3.4907;
122.7000;0.8173;3.4883;
123.0000;0.8173;3.4931;
123.3000;0.8156;3.4955;
123.6000;0.8173;3.4955;
123.9000;0.8148;3.5003;
124.2000;0.8164;3.5075;
124.5000;0.8173;3.5099;
124.8000;0.8164;3.5122;
125.1000;0.8181;3.5170;
125.4000;0.8238;3.5218;
125.7000;0.8181;3.5122;
126.0000;0.8156;3.5051;
126.3000;0.8181;3.5146;
126.6000;0.8173;3.5075;
126.9000;0.8173;3.5051;
127.2000;0.8164;3.5003;
127.5000;0.8156;3.4931;
127.8000;0.8140;3.4955;
128.1000;0.8156;3.5027;
128.4000;0.8189;3.5122;
128.7000;0.8156;3.5122;
129.0000;0.8156;3.5170;
129.3000;0.8173;3.5194;
129.6000;0.8164;3.5194;
129.9000;0.8140;3.5051;
130.2000;0.8164;3.5027;
130.5000;0.8189;3.5146;
130.8000;0.8164;3.5051;
131.1000;0.8164;3.5027;
131.4000;0.8181;3.5051;
131.7000;0.8156;3.4955;
132.0000;0.8173;3.4907;
132.3000;0.8156;3.4811;
132.6000;0.8164;3.4811;
132.9000;0.8173;3.4715;
133.2000;0.8181;3.4763;
133.5000;0.8173;3.4811;
133.8000;0.8148;3.4811;
134.1000;0.8148;3.4835;
134.4000;0.8164;3.4907;
134.7000;0.8124;3.4811;
135.0000;0.8156;3.4859;
135.3000;0.8213;3.4883;
135.6000;0.8156;3.4811;
135.9000;0.8116;3.4715;
136.2000;0.8213;3.4907;
136.5000;0.8156;3.4763;
136.8000;0.8164;3.4787;
137.1000;0.8189;3.4859;
137.4000;0.8164;3.4859;
137.7000;0.8164;3.4787;
138.0000;0.8164;3.4787;
138.3000;0.8246;3.5075;
138.6000;0.8181;3.4955;
138.9000;0.8173;3.4907;
139.2000;0.8156;3.4979;
139.5000;0.8173;3.4955;
139.8000;0.8164;3.4931;
140.1000;0.8156;3.4907;
140.4000;0.8148;3.4883;
140.7000;0.8148;3.4859;
141.0000;0.8148;3.4883;
141.3000;0.8132;3.4931;
141.6000;0.8148;3.4979;
141.9000;0.8156;3.5003;
142.2000;0.8181;3.5027;
142.5000;0.8164;3.5075;
142.8000;0.8124;3.5027;
143.1000;0.8181;3.5146;
143.4000;0.8221;3.5290;
143.7000;0.8156;3.5051;
144.0000;0.8156;3.5051;
144.3000;0.8213;3.5146;
144.6000;0.8173;3.5122;
144.9000;0.8164;3.5122;
145.2000;0.8140;3.5122;
145.5000;0.8148;3.5099;
145.8000;0.8148;3.5027;
146.1000;0.8140;3.4907;
146.4000;0.8099;3.4883;
146.7000;0.8148;3.4859;
147.0000;0.8156;3.4859;
147.3000;0.8205;3.4955;
147.6000;0.8164;3.4955;
147.9000;0.8140;3.4907;
148.2000;0.8156;3.4931;
148.5000;0.8173;3.4883;
148.8000;0.8164;3.4859;
149.1000;0.8164;3.4955;
149.4000;0.8148;3.4955;
149.7000;0.8181;3.5075;
150.0000;0.8213;3.5027;
150.3000;0.8173;3.4979;
150.6000;0.8107;3.4883;
150.9000;0.8197;3.5027;
151.2000;0.8181;3.4955;
151.5000;0.8156;3.5003;
151.8000;0.8181;3.5003;
152.1000;0.8181;3.4955;
152.4000;0.8124;3.4787;
152.7000;0.8164;3.4979;
153.0000;0.8164;3.5003;
153.3000;0.8140;3.4883;
153.6000;0.8181;3.4931;
153.9000;0.8181;3.4907;
154.2000;0.8181;3.4883;
154.5000;0.8173;3.4883;
154.8000;0.8164;3.4979;
155.1000;0.8156;3.4979;
155.4000;0.8124;3.4955;
155.7000;0.8140;3.5099;
156.0000;0.8173;3.5146;
156.3000;0.8156;3.5027;
156.6000;0.8140;3.4979;
156.9000;0.8173;3.4979;
157.2000;0.8156;3.4883;
157.5000;0.8164;3.5003;
157.8000;0.8213;3.5003;
158.1000;0.8181;3.4931;
158.4000;0.8164;3.4859;
158.7000;0.8156;3.4907;
159.0000;0.8156;3.4931;
159.3000;0.8132;3.4859;
159.6000;0.8148;3.4883;
159.9000;0.8148;3.4883;
160.2000;0.8164;3.4835;
160.5000;0.8164;3.4835;
160.8000;0.8221;3.5003;
161.1000;0.8181;3.4955;
161.4000;0.8173;3.4955;
161.7000;0.8156;3.4907;
162.0000;0.8140;3.4835;
162.3000;0.8164;3.4859;
162.6000;0.8173;3.4835;
162.9000;0.8156;3.4835;
163.2000;0.8173;3.4883;
163.5000;0.8181;3.4859;
163.8000;0.8164;3.4811;
164.1000;0.8156;3.4715;
164.4000;0.8156;3.4811;
164.7000;0.8164;3.4955;
165.0000;0.8173;3.4955;
165.3000;0.8189;3.4979;
165.6000;0.8156;3.4907;
165.9000;0.8116;3.4787;
166.2000;0.8156;3.4811;
166.5000;0.8156;3.4955;
166.8000;0.8164;3.5003;
167.1000;0.8164;3.5003;
167.4000;0.8148;3.4979;
167.7000;0.8197;3.5003;
168.0000;0.8164;3.5027;
168.3000;0.8173;3.5027;
168.6000;0.8156;3.5003;
168.9000;0.8164;3.4955;
169.2000;0.8164;3.4955;
169.5000;0.8156;3.4883;
169.8000;0.8140;3.4907;
170.1000;0.8164;3.4955;
170.4000;0.8164;3.4907;
170.7000;0.8189;3.4859;
171.0000;0.8221;3.4979;
171.3000;0.8181;3.4883;
171.6000;0.8189;3.4859;
171.9000;0.8140;3.4763;
172.2000;0.8181;3.4859;
172.5000;0.8181;3.4787;
172.8000;0.8262;3.5075;
173.1000;0.8173;3.4955;
173.4000;0.8181;3.5027;
173.7000;0.8156;3.4883;
174.0000;0.8140;3.4883;
174.3000;0.8173;3.4931;
174.6000;0.8164;3.4883;
174.9000;0.8164;3.4883;
175.2000;0.8148;3.4883;
175.5000;0.8148;3.4883;
175.8000;0.8148;3.4955;
176.1000;0.8164;3.4931;
176.4000;0.8189;3.4955;
176.7000;0.8156;3.4883;
177.0000;0.8156;3.4883;
177.3000;0.8124;3.4787;
177.6000;0.8132;3.4835;
177.9000;0.8173;3.4931;
178.2000;0.8164;3.4883;
178.5000;0.8181;3.4859;
178.8000;0.8156;3.4835;
179.1000;0.8173;3.4907;
179.4000;0.8132;3.4835;
179.7000;0.8164;3.4979;
180.0000;0.8156;3.5027;
180.3000;0.8173;3.5051;
180.6000;0.8164;3.4979;
180.9000;0.8148;3.4787;
181.2000;0.8140;3.4643;
181.5000;0.8173;3.4739;
181.8000;0.8164;3.4715;
182.1000;0.8132;3.4667;
182.4000;0.8148;3.4763;
182.7000;0.8156;3.4811;
183.0000;0.8132;3.4811;
183.3000;0.8156;3.4883;
183.6000;0.8132;3.4811;
183.9000;0.8164;3.4811;
184.2000;0.8181;3.4907;
184.5000;0.8156;3.4859;
184.8000;0.8156;3.4859;
185.1000;0.8181;3.4859;
185.4000;0.8189;3.4883;
185.7000;0.8164;3.4883;
186.0000;0.8173;3.4835;
186.3000;0.8197;3.4931;
186.6000;0.8164;3.4931;
186.9000;0.8173;3.5003;
187.2000;0.8173;3.5027;
187.5000;0.8164;3.5003;
187.8000;0.8181;3.5003;
188.1000;0.8173;3.5027;
188.4000;0.8156;3.5051;
188.7000;0.8140;3.5003;
189.0000;0.8173;3.5146;
189.3000;0.8173;3.5099;
189.6000;0.8173;3.5075;
189.9000;0.8156;3.5003;
190.2000;0.8164;3.5003;
190.5000;0.8173;3.5027;
190.8000;0.8156;3.5003;
191.1000;0.8132;3.4907;
191.4000;0.8164;3.4907;
191.7000;0.8189;3.4979;
192.0000;0.8181;3.4907;
192.3000;0.8140;3.4859;
192.6000;0.8116;3.4763;
192.9000;0.8156;3.4931;
193.2000;0.8140;3.4907;
193.5000;0.8148;3.4883;
193.8000;0.8189;3.4955;
194.1000;0.8164;3.4883;
194.4000;0.8164;3.4907;
194.7000;0.8197;3.4955;
195.0000;0.8148;3.4859;
195.3000;0.8173;3.4955;
195.6000;0.8164;3.4907;
195.9000;0.8181;3.4811;
196.2000;0.8156;3.4835;
196.5000;0.8181;3.4955;
196.8000;0.8164;3.4955;
197.1000;0.8173;3.4955;
197.4000;0.8164;3.4955;
197.7000;0.8156;3.4979;
198.0000;0.8148;3.5027;
198.3000;0.8164;3.5051;
198.6000;0.8173;3.5099;
198.9000;0.8148;3.4955;
199.2000;0.8140;3.4907;
199.5000;0.8156;3.4859;
199.8000;0.8156;3.4931;
200.1000;0.8148;3.4931;
200.4000;0.8213;3.5075;
200.7000;0.8164;3.4931;
201.0000;0.8156;3.5003;
201.3000;0.8173;3.5051;
201.6000;0.8181;3.5122;
201.9000;0.8156;3.5146;
202.2000;0.8164;3.5122;
202.5000;0.8156;3.5051;
202.8000;0.8140;3.4955;
203.1000;0.8164;3.4907;
203.4000;0.8164;3.4835;
203.7000;0.8156;3.4811;
204.0000;0.8181;3.4787;
204.3000;0.8164;3.4715;
204.6000;0.8156;3.4763;
204.9000;0.8156;3.4835;
205.2000;0.8164;3.4859;
205.5000;0.8164;3.4883;
205.8000;0.8173;3.4907;
206.1000;0.8173;3.4859;
206.4000;0.8156;3.4835;
206.7000;0.8164;3.4835;
207.0000;0.8189;3.4979;
207.3000;0.8173;3.4979;
207.6000;0.8173;3.4955;
207.9000;0.8173;3.5099;
208.2000;0.8189;3.5051;
208.5000;0.8156;3.5075;
208.8000;0.8164;3.5051;
209.1000;0.8156;3.5051;
209.4000;0.8173;3.5051;
209.7000;0.8189;3.5122;
210.0000;0.8164;3.5051;
210.3000;0.8148;3.5051;
210.6000;0.8156;3.5146;
210.9000;0.8173;3.5170;
211.2000;0.8148;3.5051;
211.5000;0.8124;3.4979;
211.8000;0.8173;3.5075;
212.1000;0.8181;3.5099;
212.4000;0.8156;3.5051;
212.7000;0.8181;3.5051;
213.0000;0.8156;3.4979;
213.3000;0.8164;3.4931;
213.6000;0.8156;3.4931;
213.9000;0.8173;3.4955;
214.2000;0.8173;3.4907;
214.5000;0.8173;3.4883;
214.8000;0.8140;3.4739;
215.1000;0.8173;3.4715;
215.4000;0.8156;3.4739;
215.7000;0.8173;3.4907;
216.0000;0.8164;3.4931;
216.3000;0.8148;3.4835;
216.6000;0.8164;3.4883;
216.9000;0.8164;3.4931;
217.2000;0.8173;3.5027;
217.5000;0.8181;3.4979;
217.8000;0.8107;3.4883;
218.1000;0.8181;3.5027;
218.4000;0.8156;3.4979;
218.7000;0.8164;3.5051;
219.0000;0.8164;3.5051;
219.3000;0.8107;3.4979;
219.6000;0.8156;3.5099;
219.9000;0.8164;3.5218;
220.2000;0.8148;3.5146;
220.5000;0.8124;3.5075;
220.8000;0.8148;3.5027;
221.1000;0.8181;3.5027;
221.4000;0.8156;3.4907;
221.7000;0.8148;3.4883;
222.0000;0.8059;3.4691;
222.3000;0.8173;3.5003;
222.6000;0.8164;3.4979;
222.9000;0.8148;3.4955;
223.2000;0.8156;3.4931;
223.5000;0.8254;3.5194;
223.8000;0.8164;3.5003;
224.1000;0.8156;3.5027;
224.4000;0.8075;3.4835;
224.7000;0.8156;3.5146;
225.0000;0.8148;3.5146;
225.3000;0.8164;3.5266;
225.6000;0.8140;3.5218;
225.9000;0.8156;3.5266;
226.2000;0.8156;3.5242;
226.5000;0.8181;3.5242;
226.8000;0.8156;3.5194;
227.1000;0.8140;3.5122;
227.4000;0.8164;3.5194;
227.7000;0.8164;3.5170;
228.0000;0.8148;3.5051;
228.3000;0.8164;3.5122;
228.6000;0.8164;3.5170;
228.9000;0.8164;3.5027;
229.2000;0.8156;3.5051;
229.5000;0.8156;3.5122;
229.8000;0.8173;3.5218;
230.1000;0.8164;3.5170;
230.4000;0.8164;3.5146;
230.7000;0.8164;3.5146;
231.0000;0.8197;3.5170;
231.3000;0.8173;3.5075;
231.6000;0.8173;3.5075;
231.9000;0.8116;3.4931;
232.2000;0.8189;3.5099;
232.5000;0.8189;3.5170;
232.8000;0.8156;3.5146;
233.1000;0.8132;3.5146;
233.4000;0.8181;3.5122;
233.7000;0.8156;3.5170;
234.0000;0.8181;3.5170;
234.3000;0.8173;3.5075;
234.6000;0.8164;3.5075;
234.9000;0.8140;3.4979;
235.2000;0.8156;3.4979;
235.5000;0.8148;3.5003;
235.8000;0.8156;3.4979;
236.1000;0.8173;3.5003;
236.4000;0.8156;3.4955;
236.7000;0.8132;3.4907;
237.0000;0.8156;3.4979;
237.3000;0.8140;3.4931;
237.6000;0.8173;3.5051;
237.9000;0.8230;3.5146;
238.2000;0.8140;3.4859;
238.5000;0.8164;3.4931;
238.8000;0.8156;3.4931;
239.1000;0.8156;3.4883;
239.4000;0.8140;3.4979;
239.7000;0.8164;3.5122;
240.0000;0.8156;3.5099;
240.3000;0.8124;3.4979;
240.6000;0.8173;3.5051;
240.9000;0.8124;3.5003;
241.2000;0.8213;3.5266;
241.5000;0.8181;3.5194;
241.8000;0.8164;3.5122;
242.1000;0.8164;3.5146;
242.4000;0.8156;3.5122;
242.7000;0.8197;3.5170;
243.0000;0.8156;3.5051;
243.3000;0.8140;3.4955;
243.6000;0.8246;3.5170;
243.9000;0.8156;3.5051;
244.2000;0.8156;3.5027;
244.5000;0.8156;3.5122;
244.8000;0.8164;3.5170;
245.1000;0.8173;3.5170;
245.4000;0.8173;3.5122;
245.7000;0.8156;3.5075;
246.0000;0.8156;3.5003;
246.3000;0.8156;3.5051;
246.6000;0.8205;3.5122;
246.9000;0.8164;3.5027;
247.2000;0.8156;3.5027;
247.5000;0.8181;3.4955;
247.8000;0.8156;3.4907;
248.1000;0.8156;3.4955;
248.4000;0.8140;3.5003;
248.7000;0.8148;3.5075;
249.0000;0.8132;3.5051;
249.3000;0.8140;3.5051;
249.6000;0.8164;3.5075;
249.9000;0.8124;3.4955;
250.2000;0.8173;3.5003;
250.5000;0.8116;3.4931;
250.8000;0.8164;3.5146;
251.1000;0.8156;3.5218;
251.4000;0.8148;3.5194;
251.7000;0.8164;3.5266;
252.0000;0.8099;3.5146;
252.3000;0.8148;3.5242;
252.6000;0.8156;3.5218;
252.9000;0.8156;3.5290;
253.2000;0.8148;3.5170;
253.5000;0.8140;3.5194;
253.8000;0.8156;3.5242;
254.1000;0.8164;3.5290;
254.4000;0.8173;3.5194;
254.7000;0.8164;3.5122;
255.0000;0.8156;3.5146;
255.3000;0.8164;3.5194;
255.6000;0.8164;3.5194;
255.9000;0.8164;3.5218;
256.2000;0.8181;3.5290;
256.5000;0.8173;3.5266;
256.8000;0.8164;3.5194;
257.1000;0.8156;3.5266;
257.4000;0.8156;3.5290;
257.7000;0.8173;3.5290;
258.0000;0.8107;3.5075;
258.3000;0.8156;3.5051;
258.6000;0.8156;3.5075;
258.9000;0.8156;3.5075;
259.2000;0.8148;3.5122;
259.5000;0.8124;3.5099;
259.8000;0.8148;3.5170;
260.1000;0.8140;3.5194;
260.4000;0.8124;3.5146;
260.7000;0.8156;3.5218;
261.0000;0.8189;3.5314;
261.3000;0.8181;3.5290;
261.6000;0.8148;3.5242;
261.9000;0.8164;3.5218;
262.2000;0.8262;3.5410;
262.5000;0.8156;3.5075;
262.8000;0.8164;3.5122;
263.1000;0.8164;3.5122;
263.4000;0.8156;3.5099;
263.7000;0.8189;3.5242;
264.0000;0.8148;3.5146;
264.3000;0.8173;3.5099;
264.6000;0.8189;3.5194;
264.9000;0.8164;3.5027;
265.2000;0.8148;3.5027;
265.5000;0.8164;3.5075;
265.8000;0.8156;3.5099;
266.1000;0.8181;3.5075;
266.4000;0.8197;3.5122;
266.7000;0.8156;3.5122;
267.0000;0.8156;3.5170;
267.3000;0.8156;3.5170;
267.6000;0.8164;3.5194;
267.9000;0.8148;3.5051;
268.2000;0.8164;3.5075;
268.5000;0.8140;3.5027;
268.8000;0.8156;3.5099;
269.1000;0.8164;3.5170;
269.4000;0.8156;3.5146;
269.7000;0.8156;3.5075;
270.0000;0.8156;3.5051;
270.3000;0.8173;3.5051;
270.6000;0.8156;3.4979;
270.9000;0.8148;3.5027;
271.2000;0.8132;3.5051;
271.5000;0.8156;3.5194;
271.8000;0.8132;3.5146;
272.1000;0.8173;3.5242;
272.4000;0.8140;3.5266;
272.7000;0.8148;3.5314;
273.0000;0.8164;3.5458;
273.3000;0.8173;3.5506;
273.6000;0.8164;3.5338;
273.9000;0.8156;3.5266;
274.2000;0.8270;3.5506;
274.5000;0.8156;3.5314;
274.8000;0.8181;3.5314;
275.1000;0.8164;3.5362;
275.4000;0.8189;3.5410;
275.7000;0.8173;3.5410;
276.0000;0.8181;3.5386;
276.3000;0.8140;3.5290;
276.6000;0.8156;3.5314;
276.9000;0.8156;3.5386;
277.2000;0.8221;3.5506;
277.5000;0.8173;3.5410;
277.8000;0.8156;3.5434;
278.1000;0.8156;3.5410;
278.4000;0.8173;3.5410;
278.7000;0.8140;3.5266;
279.0000;0.8148;3.5218;
279.3000;0.8156;3.5266;
279.6000;0.8148;3.5266;
279.9000;0.8156;3.5194;
280.2000;0.8205;3.5386;
280.5000;0.8148;3.5266;
280.8000;0.8164;3.5290;
281.1000;0.8148;3.5338;
281.4000;0.8140;3.5314;
281.7000;0.8116;3.5218;
282.0000;0.8173;3.5314;
282.3000;0.8148;3.5218;
282.6000;0.8156;3.5170;
282.9000;0.8132;3.5146;
283.2000;0.8173;3.5194;
283.5000;0.8148;3.5146;
283.8000;0.8132;3.5099;
284.1000;0.8156;3.5170;
284.4000;0.8164;3.5051;
284.7000;0.8189;3.5122;
285.0000;0.8164;3.5051;
285.3000;0.8205;3.5362;
285.6000;0.8148;3.5146;
285.9000;0.8156;3.5122;
286.2000;0.8197;3.5218;
286.5000;0.8132;3.5075;
286.8000;0.8164;3.5194;
287.1000;0.8173;3.5218;
287.4000;0.8164;3.5122;
287.7000;0.8148;3.5122;
288.0000;0.8156;3.5122;
288.3000;0.8132;3.5122;
288.6000;0.8189;3.5242;
288.9000;0.8189;3.5242;
289.2000;0.8148;3.5194;
289.5000;0.8132;3.5170;
289.8000;0.8156;3.5242;
290.1000;0.8156;3.5122;
290.4000;0.8132;3.4979;
290.7000;0.8164;3.5003;
291.0000;0.8164;3.4931;
291.3000;0.8205;3.5051;
291.6000;0.8132;3.4835;
291.9000;0.8156;3.4955;
292.2000;0.8164;3.5003;
292.5000;0.8156;3.5027;
292.8000;0.8156;3.5003;
293.1000;0.8164;3.5075;
293.4000;0.8156;3.5099;
293.7000;0.8164;3.5146;
294.0000;0.8156;3.5122;
294.3000;0.8132;3.5051;
294.6000;0.8156;3.5218;
294.9000;0.8156;3.5170;
295.2000;0.8164;3.5242;
295.5000;0.8148;3.5170;
295.8000;0.8156;3.5075;
296.1000;0.8148;3.5027;
296.4000;0.8124;3.5027;
296.7000;0.8148;3.5099;
297.0000;0.8140;3.5122;
297.3000;0.8148;3.5075;
297.6000;0.8156;3.4979;
297.9000;0.8140;3.4931;
298.2000;0.8230;3.5075;
298.5000;0.8164;3.4979;
298.8000;0.8189;3.5099;
299.1000;0.8164;3.5051;
299.4000;0.8156;3.5099;
299.7000;0.8140;3.5122;
300.0000;0.8173;3.5170;
300.3000;0.8181;3.5146;
300.6000;0.8156;3.5122;
300.9000;0.8164;3.5146;
301.2000;0.8164;3.5075;
301.5000;0.8173;3.5075;
301.8000;0.8148;3.5051;
302.1000;0.8189;3.5170;
302.4000;0.8173;3.5146;
302.7000;0.8164;3.5122;
303.0000;0.8181;3.5146;
303.3000;0.8189;3.5146;
303.6000;0.8181;3.5170;
303.9000;0.8197;3.5146;
304.2000;0.8148;3.5099;
304.5000;0.8164;3.5099;
304.8000;0.8164;3.5099;
305.1000;0.8181;3.5122;
305.4000;0.8164;3.5075;
305.7000;0.8173;3.5003;
306.0000;0.8173;3.5027;
306.3000;0.8148;3.4979;
306.6000;0.8156;3.5003;
306.9000;0.8246;3.5242;
307.2000;0.8173;3.5051;
307.5000;0.8164;3.5051;
307.8000;0.8124;3.4955;
308.1000;0.8116;3.4955;
308.4000;0.8181;3.5027;
308.7000;0.8181;3.5099;
309.0000;0.8156;3.5003;
309.3000;0.8124;3.4883;
309.6000;0.8164;3.5003;
309.9000;0.8205;3.5170;
310.2000;0.8148;3.5051;
310.5000;0.8262;3.5458;
310.8000;0.8148;3.5099;
311.1000;0.8230;3.5266;
311.4000;0.8140;3.5051;
311.7000;0.8238;3.5170;
312.0000;0.8164;3.4955;
312.3000;0.8164;3.4931;
312.6000;0.8246;3.5218;
312.9000;0.8148;3.4931;
313.2000;0.8164;3.5003;
313.5000;0.8156;3.4955;
313.8000;0.8156;3.4907;
314.1000;0.8173;3.4907;
314.4000;0.8140;3.4931;
314.7000;0.8124;3.4859;
315.0000;0.8156;3.4883;
315.3000;0.8156;3.4859;
315.6000;0.8148;3.4859;
315.9000;0.8148;3.4883;
316.2000;0.8164;3.4883;
316.5000;0.8164;3.4859;
316.8000;0.8148;3.4859;
317.1000;0.8148;3.4859;
317.4000;0.8132;3.4907;
317.7000;0.8156;3.5003;
318.0000;0.8140;3.4979;
318.3000;0.8173;3.4979;
318.6000;0.8140;3.4859;
318.9000;0.8140;3.4787;
319.2000;0.8140;3.4763;
319.5000;0.8124;3.4811;
319.8000;0.8156;3.4907;
320.1000;0.8148;3.4883;
320.4000;0.8164;3.4907;
320.7000;0.8148;3.4859;
321.0000;0.8148;3.4859;
321.3000;0.8156;3.4907;
321.6000;0.8148;3.4907;
321.9000;0.8140;3.4883;
322.2000;0.8156;3.4787;
322.5000;0.8156;3.4787;
322.8000;0.8156;3.4739;
323.1000;0.8156;3.4763;
323.4000;0.8156;3.4811;
323.7000;0.8164;3.4787;
324.0000;0.8173;3.4859;
324.3000;0.8205;3.5003;
324.6000;0.8132;3.4835;
324.9000;0.8164;3.4955;
325.2000;0.8156;3.5027;
325.5000;0.8156;3.5027;
325.8000;0.8116;3.4907;
326.1000;0.8156;3.4979;
326.4000;0.8148;3.5003;
326.7000;0.8132;3.4883;
327.0000;0.8148;3.4907;
327.3000;0.8246;3.5075;
327.6000;0.8156;3.4955;
327.9000;0.8164;3.4883;
328.2000;0.8156;3.4931;
328.5000;0.8148;3.4811;
328.8000;0.8156;3.4787;
329.1000;0.8189;3.4835;
329.4000;0.8140;3.4739;
329.7000;0.8107;3.4691;
330.0000;0.8140;3.4715;
330.3000;0.8116;3.4619;
330.6000;0.8148;3.4691;
330.9000;0.8156;3.4811;
331.2000;0.8140;3.4739;
331.5000;0.8173;3.4835;
331.8000;0.8156;3.4907;
332.1000;0.8140;3.4883;
332.4000;0.8156;3.4835;
332.7000;0.8156;3.4787;
333.0000;0.8156;3.4715;
333.3000;0.8140;3.4643;
333.6000;0.8197;3.4739;
333.9000;0.8148;3.4667;
334.2000;0.8132;3.4643;
334.5000;0.8189;3.4811;
334.8000;0.8156;3.4787;
335.1000;0.8254;3.5122;
335.4000;0.8181;3.4931;
335.7000;0.8124;3.4787;
336.0000;0.8164;3.4931;
336.3000;0.8156;3.4907;
336.6000;0.8221;3.5003;
336.9000;0.8083;3.4571;
337.2000;0.8156;3.4811;
337.5000;0.8148;3.4811;
337.8000;0.8164;3.4859;
338.1000;0.8254;3.5170;
338.4000;0.8156;3.4931;
338.7000;0.8140;3.4787;
339.0000;0.8148;3.4859;
339.3000;0.8156;3.4883;
339.6000;0.8173;3.4955;
339.9000;0.8164;3.4859;
340.2000;0.8164;3.4835;
340.5000;0.8124;3.4739;
340.8000;0.8148;3.4907;
341.1000;0.8156;3.4979;
341.4000;0.8132;3.4883;
341.7000;0.8164;3.4907;
342.0000;0.8164;3.4907;
342.3000;0.8156;3.4931;
342.6000;0.8075;3.4763;
342.9000;0.8156;3.4955;
343.2000;0.8148;3.4955;
343.5000;0.8148;3.4955;
343.8000;0.8156;3.4883;
344.1000;0.8156;3.4907;
344.4000;0.8164;3.5003;
344.7000;0.8140;3.4907;
345.0000;0.8205;3.5027;
345.3000;0.8164;3.4883;
345.6000;0.8173;3.4955;
345.9000;0.8124;3.4763;
346.2000;0.8067;3.4571;
346.5000;0.8148;3.4739;
346.8000;0.8164;3.4691;
347.1000;0.8124;3.4547;
347.4000;0.8156;3.4619;
347.7000;0.8156;3.4667;
348.0000;0.8197;3.4835;
348.3000;0.8091;3.4523;
348.6000;0.8140;3.4811;
348.9000;0.8132;3.4787;
349.2000;0.8181;3.4859;
349.5000;0.8156;3.4883;
349.8000;0.8140;3.4907;
350.1000;0.8148;3.4955;
350.4000;0.8197;3.5003;
350.7000;0.8116;3.4787;
351.0000;0.8099;3.4763;
351.3000;0.8189;3.5003;
351.6000;0.8156;3.4907;
351.9000;0.8148;3.4859;
352.2000;0.8156;3.4859;
352.5000;0.8140;3.4859;
352.8000;0.8148;3.4883;
353.1000;0.8156;3.4883;
353.4000;0.8140;3.4931;
353.7000;0.8140;3.4907;
354.0000;0.8148;3.4931;
354.3000;0.8148;3.4907;
354.6000;0.8156;3.5051;
354.9000;0.8148;3.4955;
355.2000;0.8164;3.4907;
355.5000;0.8148;3.4883;
355.8000;0.8173;3.4931;
356.1000;0.8148;3.4955;
356.4000;0.8148;3.4907;
356.7000;0.8173;3.4931;
357.0000;0.8116;3.4787;
357.3000;0.8164;3.4883;
357.6000;0.8140;3.4787;
357.9000;0.8148;3.4883;
358.2000;0.8116;3.4931;
358.5000;0.8164;3.5027;
358.8000;0.8156;3.5027;
359.1000;0.8075;3.4787;
359.4000;0.8164;3.5027;
359.7000;0.8132;3.4907;
360.0000;0.8173;3.5027;
360.3000;0.8148;3.4931;
360.6000;0.8148;3.4883;
360.9000;0.8173;3.5003;
361.2000;0.8164;3.5075;
361.5000;0.8148;3.4931;
361.8000;0.8164;3.4979;
362.1000;0.8181;3.5003;
362.4000;0.8148;3.4955;
362.7000;0.8140;3.4955;
363.0000;0.8189;3.5122;
363.3000;0.8148;3.5051;
363.6000;0.8156;3.5051;
363.9000;0.8164;3.5003;
364.2000;0.8156;3.4955;
364.5000;0.8140;3.4907;
364.8000;0.8156;3.4883;
365.1000;0.8148;3.4907;
365.4000;0.8132;3.4835;
365.7000;0.8148;3.4907;
366.0000;0.8156;3.4859;
366.3000;0.8156;3.4715;
366.6000;0.8164;3.4715;
366.9000;0.8148;3.4763;
367.2000;0.8173;3.4835;
367.5000;0.8246;3.5122;
367.8000;0.8148;3.4883;
368.1000;0.8156;3.4859;
368.4000;0.8156;3.4931;
368.7000;0.8148;3.4955;
369.0000;0.8164;3.4931;
369.3000;0.8148;3.4811;
369.6000;0.8164;3.4835;
369.9000;0.8148;3.4811;
370.2000;0.8197;3.4811;
370.5000;0.8164;3.4643;
370.8000;0.8173;3.4715;
371.1000;0.8173;3.4715;
371.4000;0.8181;3.4691;
371.7000;0.8156;3.4667;
372.0000;0.8173;3.4691;
372.3000;0.8164;3.4739;
372.6000;0.8181;3.4787;
372.9000;0.8132;3.4667;
373.2000;0.8140;3.4643;
373.5000;0.8181;3.4763;
373.8000;0.8173;3.4859;
374.1000;0.8164;3.4883;
374.4000;0.8140;3.4859;
374.7000;0.8156;3.4979;
375.0000;0.8164;3.5027;
375.3000;0.8132;3.4883;
375.6000;0.8156;3.4859;
375.9000;0.8164;3.4955;
376.2000;0.8132;3.4931;
376.5000;0.8148;3.4907;
376.8000;0.8156;3.4907;
377.1000;0.8148;3.4907;
377.4000;0.8083;3.4643;
377.7000;0.8132;3.4787;
378.0000;0.8164;3.4835;
378.3000;0.8132;3.4715;
378.6000;0.8148;3.4787;
378.9000;0.8156;3.4859;
379.2000;0.8173;3.4883;
379.5000;0.8173;3.4811;
379.8000;0.8148;3.4811;
380.1000;0.8132;3.4667;
380.4000;0.8164;3.4691;
380.7000;0.8148;3.4667;
381.0000;0.8140;3.4667;
381.3000;0.8107;3.4619;
381.6000;0.8156;3.4811;
381.9000;0.8173;3.4883;
382.2000;0.8140;3.4811;
382.5000;0.8181;3.4955;
382.8000;0.8173;3.4883;
383.1000;0.8132;3.4835;
383.4000;0.8132;3.4859;
383.7000;0.8140;3.5027;
384.0000;0.8140;3.4979;
384.3000;0.8091;3.4811;
384.6000;0.8132;3.4931;
384.9000;0.8140;3.4979;
385.2000;0.8140;3.4979;
385.5000;0.8189;3.5003;
385.8000;0.8156;3.4811;
386.1000;0.8156;3.4787;
386.4000;0.8181;3.4931;
386.7000;0.8156;3.4763;
387.0000;0.8140;3.4715;
387.3000;0.8132;3.4811;
387.6000;0.8189;3.5003;
387.9000;0.8164;3.4907;
388.2000;0.8140;3.4859;
388.5000;0.8164;3.4859;
388.8000;0.8156;3.4811;
389.1000;0.8164;3.4883;
389.4000;0.8213;3.5027;
389.7000;0.8148;3.4883;
390.0000;0.8173;3.5075;
390.3000;0.8148;3.5003;
390.6000;0.8124;3.4931;
390.9000;0.8148;3.4883;
391.2000;0.8156;3.4979;
391.5000;0.8156;3.4979;
391.8000;0.8148;3.4931;
392.1000;0.8156;3.5003;
392.4000;0.8173;3.5003;
392.7000;0.8156;3.4883;
393.0000;0.8156;3.4907;
393.3000;0.8124;3.4691;
393.6000;0.8164;3.4715;
393.9000;0.8140;3.4619;
394.2000;0.8173;3.4691;
394.5000;0.8173;3.4715;
394.8000;0.8156;3.4691;
395.1000;0.8156;3.4691;
395.4000;0.8156;3.4619;
395.7000;0.8181;3.4667;
396.0000;0.8164;3.4619;
396.3000;0.8164;3.4739;
396.6000;0.8181;3.4691;
396.9000;0.8189;3.4595;
397.2000;0.8156;3.4571;
397.5000;0.8156;3.4571;
397.8000;0.8181;3.4619;
398.1000;0.8148;3.4619;
398.4000;0.8148;3.4691;
398.7000;0.8156;3.4691;
399.0000;0.8156;3.4739;
399.3000;0.8156;3.4787;
399.6000;0.8205;3.4883;
399.9000;0.8156;3.4787;
400.2000;0.8164;3.4859;
400.5000;0.8148;3.4835;
400.8000;0.8148;3.4883;
401.1000;0.8124;3.4859;
401.4000;0.8156;3.5027;
401.7000;0.8107;3.4931;
402.0000;0.8140;3.5051;
402.3000;0.8221;3.5170;
402.6000;0.8148;3.5003;
402.9000;0.8148;3.5075;
403.2000;0.8148;3.5099;
403.5000;0.8140;3.5051;
403.8000;0.8148;3.5051;
404.1000;0.8254;3.5266;
404.4000;0.8156;3.4979;
404.7000;0.8099;3.4883;
405.0000;0.8148;3.5003;
405.3000;0.8156;3.5003;
405.6000;0.8189;3.5122;
405.9000;0.8164;3.5075;
406.2000;0.8173;3.5099;
406.5000;0.8181;3.5099;
406.8000;0.8173;3.5003;
407.1000;0.8107;3.5003;
407.4000;0.8107;3.4979;
407.7000;0.8140;3.5003;
408.0000;0.8181;3.5051;
408.3000;0.8132;3.4835;
408.6000;0.8132;3.4835;
408.9000;0.8132;3.4859;
409.2000;0.8148;3.4859;
409.5000;0.8197;3.4859;
409.8000;0.8140;3.4691;
410.1000;0.8132;3.4619;
410.4000;0.8132;3.4619;
410.7000;0.8148;3.4595;
411.0000;0.8148;3.4547;
411.3000;0.8148;3.4643;
411.6000;0.8156;3.4715;
411.9000;0.8164;3.4787;
412.2000;0.8132;3.4787;
412.5000;0.8140;3.4931;
412.8000;0.8140;3.4883;
413.1000;0.8148;3.4859;
413.4000;0.8132;3.4787;
413.7000;0.8140;3.4739;
414.0000;0.8124;3.4691;
414.3000;0.8148;3.4739;
414.6000;0.8140;3.4715;
414.9000;0.8148;3.4787;
415.2000;0.8148;3.4787;
415.5000;0.8181;3.4883;
415.8000;0.8140;3.4763;
416.1000;0.8140;3.4715;
416.4000;0.8124;3.4571;
416.7000;0.8164;3.4667;
417.0000;0.8148;3.4619;
417.3000;0.8262;3.4907;
417.6000;0.8164;3.4691;
417.9000;0.8189;3.4859;
418.2000;0.8148;3.4691;
418.5000;0.8140;3.4643;
418.8000;0.8132;3.4619;
419.1000;0.8156;3.4595;
419.4000;0.8140;3.4667;
419.7000;0.8189;3.4739;
420.0000;0.8148;3.4691;
420.3000;0.8164;3.4715;
420.6000;0.8164;3.4739;
420.9000;0.8148;3.4691;
421.2000;0.8140;3.4667;
421.5000;0.8173;3.4739;
421.8000;0.8156;3.4667;
422.1000;0.8173;3.4595;
422.4000;0.8140;3.4499;
422.7000;0.8164;3.4451;
423.0000;0.8156;3.4523;
423.3000;0.8148;3.4547;
423.6000;0.8132;3.4451;
423.9000;0.8148;3.4619;
424.2000;0.8148;3.4619;
424.5000;0.8164;3.4619;
424.8000;0.8156;3.4715;
425.1000;0.8173;3.4691;
425.4000;0.8140;3.4667;
425.7000;0.8107;3.4667;
426.0000;0.8156;3.4811;
426.3000;0.8116;3.4763;
426.6000;0.8164;3.4859;
426.9000;0.8140;3.4883;
427.2000;0.8140;3.4979;
427.5000;0.8132;3.4955;
427.8000;0.8116;3.4883;
428.1000;0.8132;3.4907;
428.4000;0.8148;3.4979;
428.7000;0.8140;3.4955;
429.0000;0.8132;3.5027;
429.3000;0.8140;3.4931;
429.6000;0.8132;3.4931;
429.9000;0.8156;3.4811;
430.2000;0.8148;3.4811;
430.5000;0.8148;3.4883;
430.8000;0.8181;3.4883;
431.1000;0.8140;3.4859;
431.4000;0.8148;3.4907;
431.7000;0.8140;3.4859;
432.0000;0.8156;3.4907;
432.3000;0.8148;3.5027;
432.6000;0.8156;3.5027;
432.9000;0.8156;3.4979;
433.2000;0.8164;3.4979;
433.5000;0.8156;3.4859;
433.8000;0.8148;3.4907;
434.1000;0.8164;3.4835;
434.4000;0.8116;3.4691;
434.7000;0.8156;3.4787;
435.0000;0.8140;3.4763;
435.3000;0.8148;3.4667;
435.6000;0.8173;3.4835;
435.9000;0.8156;3.4787;
436.2000;0.8156;3.4835;
436.5000;0.8132;3.4955;
436.8000;0.8132;3.4955;
437.1000;0.8156;3.4955;
437.4000;0.8148;3.4907;
437.7000;0.8156;3.4955;
438.0000;0.8205;3.5122;
438.3000;0.8148;3.5027;
438.6000;0.8148;3.5003;
438.9000;0.8181;3.5003;
439.2000;0.8132;3.4931;
439.5000;0.8140;3.5051;
439.8000;0.8181;3.5099;
440.1000;0.8156;3.5099;
440.4000;0.8164;3.5218;
440.7000;0.8148;3.5218;
441.0000;0.8164;3.5218;
441.3000;0.8164;3.5194;
441.6000;0.8148;3.5218;
441.9000;0.8189;3.5290;
442.2000;0.8091;3.5075;
442.5000;0.8156;3.5194;
442.8000;0.8132;3.5051;
443.1000;0.8132;3.5003;
443.4000;0.8075;3.4883;
443.7000;0.8124;3.5075;
444.0000;0.8148;3.5099;
444.3000;0.8173;3.5122;
444.6000;0.8148;3.5122;
444.9000;0.8091;3.5003;
445.2000;0.8156;3.5075;
445.5000;0.8164;3.5122;
445.8000;0.8197;3.5218;
446.1000;0.8181;3.5242;
446.4000;0.8156;3.5122;
446.7000;0.8148;3.4979;
447.0000;0.8213;3.5146;
447.3000;0.8140;3.4979;
447.6000;0.8164;3.5027;
447.9000;0.8156;3.5027;
448.2000;0.8148;3.5122;
448.5000;0.8181;3.5170;
448.8000;0.8132;3.5099;
449.1000;0.8132;3.5051;
449.4000;0.8116;3.5027;
449.7000;0.8148;3.5027;
450.0000;0.8132;3.5051;
450.3000;0.8140;3.5051;
450.6000;0.8140;3.5003;
450.9000;0.8132;3.4979;
451.2000;0.8132;3.5027;
451.5000;0.8148;3.5170;
451.8000;0.8116;3.5099;
452.1000;0.8173;3.5194;
452.4000;0.8132;3.5099;
452.7000;0.8124;3.5122;
453.0000;0.8140;3.5146;
453.3000;0.8148;3.5170;
453.6000;0.8140;3.5170;
453.9000;0.8173;3.5194;
454.2000;0.8148;3.5170;
454.5000;0.8140;3.5170;
454.8000;0.8164;3.5194;
455.1000;0.8181;3.5242;
455.4000;0.8148;3.5099;
455.7000;0.8148;3.5099;
456.0000;0.8148;3.5122;
456.3000;0.8148;3.5122;
456.6000;0.8181;3.5218;
456.9000;0.8156;3.5242;
457.2000;0.8156;3.5266;
457.5000;0.8091;3.5146;
457.8000;0.8156;3.5242;
458.1000;0.8140;3.5146;
458.4000;0.8140;3.5051;
458.7000;0.8164;3.5075;
459.0000;0.8140;3.5051;
459.3000;0.8148;3.5170;
459.6000;0.8124;3.5099;
459.9000;0.8148;3.5194;
460.2000;0.8156;3.5242;
460.5000;0.8164;3.5194;
460.8000;0.8156;3.5194;
461.1000;0.8156;3.5099;
461.4000;0.8148;3.5218;
461.7000;0.8140;3.5146;
462.0000;0.8140;3.5099;
462.3000;0.8156;3.5122;
462.6000;0.8148;3.5146;
462.9000;0.8197;3.5194;
463.2000;0.8164;3.5099;
463.5000;0.8140;3.5003;
463.8000;0.8156;3.5051;
464.1000;0.8148;3.4883;
464.4000;0.8156;3.4859;
464.7000;0.8140;3.4883;
465.0000;0.8140;3.4955;
465.3000;0.8132;3.5051;
465.6000;0.8132;3.5146;
465.9000;0.8107;3.5051;
466.2000;0.8148;3.5099;
466.5000;0.8140;3.5099;
466.8000;0.8148;3.5170;
467.1000;0.8164;3.5290;
467.4000;0.8148;3.5218;
467.7000;0.8148;3.5170;
468.0000;0.8148;3.5218;
468.3000;0.8132;3.5122;
468.6000;0.8140;3.5146;
468.9000;0.8156;3.5170;
469.2000;0.8156;3.5146;
469.5000;0.8140;3.5146;
469.8000;0.8140;3.5170;
470.1000;0.8189;3.5242;
470.4000;0.8156;3.5099;
470.7000;0.8148;3.5075;
471.0000;0.8148;3.5003;
471.3000;0.8132;3.4955;
471.6000;0.8140;3.5027;
471.9000;0.8140;3.5027;
472.2000;0.8140;3.5003;
472.5000;0.8140;3.4955;
472.8000;0.8270;3.5290;
473.1000;0.8148;3.4955;
473.4000;0.8067;3.4763;
473.7000;0.8132;3.5003;
474.0000;0.8132;3.5075;
474.3000;0.8140;3.5051;
474.6000;0.8140;3.5051;
474.9000;0.8132;3.4979;
475.2000;0.8116;3.4907;
475.5000;0.8132;3.4955;
475.8000;0.8116;3.4979;
476.1000;0.8140;3.4979;
476.4000;0.8156;3.4931;
476.7000;0.8148;3.4931;
477.0000;0.8148;3.4883;
477.3000;0.8132;3.4931;
477.6000;0.8107;3.4835;
477.9000;0.8156;3.5003;
478.2000;0.8148;3.5003;
478.5000;0.8132;3.4907;
478.8000;0.8140;3.4859;
479.1000;0.8132;3.4883;
479.4000;0.8148;3.4835;
479.7000;0.8140;3.4763;
480.0000;0.8148;3.4763;
480.3000;0.8156;3.4883;
480.6000;0.8148;3.4931;
480.9000;0.8156;3.4907;
481.2000;0.8148;3.4931;
481.5000;0.8140;3.4835;
481.8000;0.8148;3.4835;
482.1000;0.8213;3.4931;
482.4000;0.8116;3.4739;
482.7000;0.8148;3.4739;
483.0000;0.8059;3.4523;
483.3000;0.8132;3.4859;
483.6000;0.8140;3.4883;
483.9000;0.8132;3.4907;
484.2000;0.8213;3.5099;
484.5000;0.8148;3.4931;
484.8000;0.8132;3.4931;
485.1000;0.8124;3.4883;
485.4000;0.8132;3.5051;
485.7000;0.8140;3.4979;
486.0000;0.8148;3.5027;
486.3000;0.8124;3.4907;
486.6000;0.8132;3.4835;
486.9000;0.8213;3.5122;
487.2000;0.8140;3.4955;
487.5000;0.8148;3.4979;
487.8000;0.8156;3.5027;
488.1000;0.8156;3.5051;
488.4000;0.8164;3.5027;
488.7000;0.8148;3.4931;
489.0000;0.8148;3.4955;
489.3000;0.8156;3.4931;
489.6000;0.8140;3.4787;
489.9000;0.8124;3.4763;
490.2000;0.8140;3.4811;
490.5000;0.8156;3.4931;
490.8000;0.8148;3.4931;
491.1000;0.8140;3.5027;
491.4000;0.8156;3.4955;
491.7000;0.8164;3.4979;
492.0000;0.8148;3.4907;
492.3000;0.8140;3.4739;
492.6000;0.8156;3.4811;
492.9000;0.8156;3.4811;
493.2000;0.8124;3.4787;
493.5000;0.8189;3.4811;
493.8000;0.8124;3.4715;
494.1000;0.8140;3.4739;
494.4000;0.8140;3.4811;
494.7000;0.8164;3.4787;
495.0000;0.8140;3.4763;
495.3000;0.8181;3.4955;
495.6000;0.8124;3.4931;
495.9000;0.8148;3.5003;
496.2000;0.8164;3.5170;
496.5000;0.8124;3.5099;
496.8000;0.8140;3.5099;
497.1000;0.8254;3.5362;
497.4000;0.8140;3.5027;
497.7000;0.8189;3.5099;
498.0000;0.8140;3.5027;
498.3000;0.8181;3.5051;
498.6000;0.8148;3.4907;
498.9000;0.8148;3.4955;
499.2000;0.8156;3.5099;
499.5000;0.8026;3.4763;
499.8000;0.8107;3.4931;
500.1000;0.8140;3.5051;
500.4000;0.8132;3.4907;
500.7000;0.8042;3.4547;
501.0000;0.8181;3.4979;
501.3000;0.8132;3.4883;
501.6000;0.8116;3.4907;
501.9000;0.8156;3.5051;
502.2000;0.8132;3.4931;
502.5000;0.8140;3.4883;
502.8000;0.8148;3.4907;
503.1000;0.8148;3.4979;
503.4000;0.8156;3.5051;
503.7000;0.8148;3.4979;
504.0000;0.8140;3.4955;
504.3000;0.8148;3.4883;
504.6000;0.8156;3.4907;
504.9000;0.8156;3.4883;
505.2000;0.8156;3.4955;
505.5000;0.8156;3.4979;
505.8000;0.8132;3.4955;
506.1000;0.8140;3.4979;
506.4000;0.8140;3.4979;
506.7000;0.8140;3.5027;
507.0000;0.8148;3.5051;
507.3000;0.8148;3.5003;
507.6000;0.8140;3.5003;
507.9000;0.8099;3.4883;
508.2000;0.8140;3.5027;
508.5000;0.8156;3.5075;
508.8000;0.8140;3.5146;
509.1000;0.8107;3.5146;
509.4000;0.8148;3.5290;
509.7000;0.8148;3.5266;
510.0000;0.8132;3.5218;
510.3000;0.8124;3.5146;
510.6000;0.8164;3.5170;
510.9000;0.8132;3.5099;
511.2000;0.8132;3.5170;
511.5000;0.8148;3.5194;
511.8000;0.8140;3.5218;
512.1000;0.8140;3.5194;
512.4000;0.8148;3.5146;
512.7000;0.8140;3.5051;
513.0000;0.8148;3.5027;
513.3000;0.8116;3.4955;
513.6000;0.8140;3.5051;
513.9000;0.8140;3.5051;
514.2000;0.8148;3.5075;
514.5000;0.8156;3.5194;
514.8000;0.8156;3.5242;
515.1000;0.8148;3.5242;
515.4000;0.8140;3.5170;
515.7000;0.8164;3.5146;
516.0000;0.8156;3.5170;
516.3000;0.8164;3.5242;
516.6000;0.8132;3.5218;
516.9000;0.8132;3.5266;
517.2000;0.8107;3.5218;
517.5000;0.8107;3.5170;
517.8000;0.8132;3.5170;
518.1000;0.8148;3.5242;
518.4000;0.8189;3.5362;
518.7000;0.8156;3.5290;
519.0000;0.8156;3.5314;
519.3000;0.8140;3.5218;
519.6000;0.8099;3.5051;
519.9000;0.8124;3.5075;
520.2000;0.8099;3.5027;
520.5000;0.8124;3.5075;
520.8000;0.8140;3.5099;
521.1000;0.8148;3.5051;
521.4000;0.8124;3.5027;
521.7000;0.8132;3.5075;
522.0000;0.8124;3.5003;
522.3000;0.8132;3.4955;
522.6000;0.8124;3.4955;
522.9000;0.8132;3.5003;
523.2000;0.8132;3.5075;
523.5000;0.8124;3.5099;
523.8000;0.8156;3.5242;
524.1000;0.8140;3.5266;
524.4000;0.8140;3.5194;
524.7000;0.8148;3.5218;
525.0000;0.8148;3.5266;
525.3000;0.8148;3.5194;
525.6000;0.8132;3.5075;
525.9000;0.8148;3.5099;
526.2000;0.8148;3.5099;
526.5000;0.8205;3.5170;
526.8000;0.8140;3.5051;
527.1000;0.8156;3.5122;
527.4000;0.8156;3.5099;
527.7000;0.8140;3.5051;
528.0000;0.8148;3.5003;
528.3000;0.8164;3.5051;
528.6000;0.8156;3.5003;
528.9000;0.8124;3.4931;
529.2000;0.8124;3.4931;
529.5000;0.8156;3.5003;
529.8000;0.8148;3.5003;
530.1000;0.8124;3.5003;
530.4000;0.8164;3.5075;
530.7000;0.8213;3.5122;
531.0000;0.8148;3.4883;
531.3000;0.8132;3.4859;
531.6000;0.8164;3.4859;
531.9000;0.8148;3.4787;
532.2000;0.8132;3.4931;
532.5000;0.8156;3.4979;
532.8000;0.8116;3.4883;
533.1000;0.8050;3.4691;
533.4000;0.8148;3.4907;
533.7000;0.8148;3.4907;
534.0000;0.8221;3.5075;
534.3000;0.8164;3.4883;
534.6000;0.8124;3.4787;
534.9000;0.8156;3.4907;
535.2000;0.8156;3.4931;
535.5000;0.8132;3.4811;
535.8000;0.8116;3.4787;
536.1000;0.8067;3.4619;
536.4000;0.8140;3.4739;
536.7000;0.8140;3.4859;
537.0000;0.8164;3.4955;
537.3000;0.8140;3.5027;
537.6000;0.8148;3.5122;
537.9000;0.8148;3.5099;
538.2000;0.8156;3.5075;
538.5000;0.8148;3.5099;
538.8000;0.8173;3.5075;
539.1000;0.8164;3.5003;
539.4000;0.8156;3.4979;
539.7000;0.8148;3.5003;
540.0000;0.8140;3.5051;
540.3000;0.8156;3.5122;
540.6000;0.8140;3.5075;
540.9000;0.8099;3.4955;
541.2000;0.8156;3.5051;
541.5000;0.8148;3.4979;
541.8000;0.8148;3.4979;
542.1000;0.8132;3.5003;
542.4000;0.8132;3.5051;
542.7000;0.8140;3.5027;
543.0000;0.8132;3.5027;
543.3000;0.8132;3.5146;
543.6000;0.8132;3.5099;
543.9000;0.8148;3.5146;
544.2000;0.8132;3.5051;
544.5000;0.8140;3.4979;
544.8000;0.8132;3.4955;
545.1000;0.8148;3.5003;
545.4000;0.8148;3.5027;
545.7000;0.8042;3.4739;
546.0000;0.8156;3.5051;
546.3000;0.8156;3.5051;
546.6000;0.8173;3.5146;
546.9000;0.8156;3.5122;
547.2000;0.8156;3.5218;
547.5000;0.8156;3.5242;
547.8000;0.8156;3.5362;
548.1000;0.8148;3.5386;
548.4000;0.8140;3.5410;
548.7000;0.8156;3.5386;
549.0000;0.8140;3.5410;
549.3000;0.8164;3.5434;
549.6000;0.8116;3.5362;
549.9000;0.8132;3.5314;
550.2000;0.8148;3.5338;
550.5000;0.8156;3.5290;
550.8000;0.8124;3.5314;
551.1000;0.8124;3.5338;
551.4000;0.8164;3.5290;
551.7000;0.8181;3.5386;
552.0000;0.8132;3.5218;
552.3000;0.8132;3.5242;
552.6000;0.8140;3.5194;
552.9000;0.8156;3.5242;
553.2000;0.8132;3.5146;
553.5000;0.8148;3.5194;
553.8000;0.8148;3.5218;
554.1000;0.8173;3.5314;
554.4000;0.8156;3.5290;
554.7000;0.8148;3.5218;
555.0000;0.8140;3.5290;
555.3000;0.8156;3.5290;
555.6000;0.8124;3.5290;
555.9000;0.8148;3.5362;
556.2000;0.8148;3.5314;
556.5000;0.8132;3.5386;
556.8000;0.8164;3.5506;
557.1000;0.8205;3.5626;
557.4000;0.8148;3.5554;
557.7000;0.8156;3.5506;
558.0000;0.8067;3.5242;
558.3000;0.8148;3.5410;
558.6000;0.8148;3.5410;
558.9000;0.8164;3.5458;
559.2000;0.8132;3.5338;
559.5000;0.8132;3.5314;
559.8000;0.8091;3.5075;
560.1000;0.8140;3.5122;
560.4000;0.8148;3.5146;
560.7000;0.8213;3.5314;
561.0000;0.8140;3.5194;
561.3000;0.8140;3.5170;
561.6000;0.8156;3.5242;
561.9000;0.8148;3.5218;
562.2000;0.8156;3.5266;
562.5000;0.8148;3.5242;
562.8000;0.8140;3.5170;
563.1000;0.8140;3.5146;
563.4000;0.8173;3.5170;
563.7000;0.8173;3.5099;
564.0000;0.8148;3.4955;
564.3000;0.8148;3.4979;
564.6000;0.8132;3.5027;
564.9000;0.8124;3.5075;
565.2000;0.8132;3.5051;
565.5000;0.8148;3.5099;
565.8000;0.8148;3.5146;
566.1000;0.8132;3.5075;
566.4000;0.8107;3.5099;
566.7000;0.8124;3.5218;
567.0000;0.8140;3.5170;
567.3000;0.8140;3.5075;
567.6000;0.8124;3.5027;
567.9000;0.8132;3.4979;
568.2000;0.8156;3.5075;
568.5000;0.8132;3.4979;
568.8000;0.8164;3.5099;
569.1000;0.8148;3.4931;
569.4000;0.8164;3.4955;
569.7000;0.8148;3.4931;
570.0000;0.8156;3.4955;
570.3000;0.8140;3.4955;
570.6000;0.8140;3.5003;
570.9000;0.8189;3.5194;
571.2000;0.8132;3.5099;
571.5000;0.8107;3.4859;
571.8000;0.8140;3.4883;
572.1000;0.8140;3.4955;
572.4000;0.8124;3.4931;
572.7000;0.8148;3.4979;
573.0000;0.8148;3.5003;
573.3000;0.8156;3.5051;
573.6000;0.8140;3.5003;
573.9000;0.8116;3.4955;
574.2000;0.8148;3.5003;
574.5000;0.8148;3.4955;
574.8000;0.8140;3.4883;
575.1000;0.8124;3.4787;
575.4000;0.8116;3.4667;
575.7000;0.8164;3.4835;
576.0000;0.8148;3.4859;
576.3000;0.8132;3.4835;
576.6000;0.8148;3.5003;
576.9000;0.8148;3.5122;
577.2000;0.8189;3.5266;
577.5000;0.8132;3.5170;
577.8000;0.8140;3.5146;
578.1000;0.8156;3.5170;
578.4000;0.8164;3.5218;
578.7000;0.8140;3.5194;
579.0000;0.8148;3.5266;
579.3000;0.8148;3.5290;
579.6000;0.8124;3.5242;
579.9000;0.8132;3.5290;
580.2000;0.8173;3.5338;
580.5000;0.8148;3.5290;
580.8000;0.8107;3.5218;
581.1000;0.8124;3.5194;
581.4000;0.8148;3.5194;
581.7000;0.8140;3.5122;
582.0000;0.8148;3.5051;
582.3000;0.8140;3.5099;
582.6000;0.8132;3.5051;
582.9000;0.8140;3.5027;
583.2000;0.8156;3.4979;
583.5000;0.8140;3.4955;
583.8000;0.8140;3.4979;
584.1000;0.8124;3.4883;
584.4000;0.8132;3.4859;
584.7000;0.8124;3.4931;
585.0000;0.8189;3.5075;
585.3000;0.8124;3.4979;
585.6000;0.8140;3.5051;
585.9000;0.8099;3.5051;
586.2000;0.8132;3.5099;
586.5000;0.8156;3.5146;
586.8000;0.8140;3.5075;
587.1000;0.8148;3.5075;
587.4000;0.8132;3.5027;
587.7000;0.8164;3.5051;
588.0000;0.8132;3.5027;
588.3000;0.8238;3.5410;
588.6000;0.8148;3.5242;
588.9000;0.8140;3.5290;
589.2000;0.8124;3.5314;
589.5000;0.8107;3.5218;
589.8000;0.8124;3.5194;
590.1000;0.8156;3.5194;
590.4000;0.8099;3.4979;
590.7000;0.8140;3.4979;
591.0000;0.8148;3.5051;
591.3000;0.8173;3.4979;
591.6000;0.8140;3.4907;
591.9000;0.8148;3.4955;
592.2000;0.8156;3.4859;
592.5000;0.8148;3.4787;
592.8000;0.8140;3.4835;
593.1000;0.8148;3.4931;
593.4000;0.8156;3.4979;
593.7000;0.8156;3.5003;
594.0000;0.8156;3.4979;
594.3000;0.8116;3.4811;
594.6000;0.8140;3.4859;
594.9000;0.8148;3.4907;
595.2000;0.8148;3.4955;
595.5000;0.8173;3.4979;
595.8000;0.8140;3.4859;
596.1000;0.8164;3.5003;
596.4000;0.8132;3.4979;
596.7000;0.8124;3.4955;
597.0000;0.8148;3.5003;
597.3000;0.8164;3.5027;
597.6000;0.8148;3.5027;
597.9000;0.8132;3.5051;
598.2000;0.8140;3.5051;
598.5000;0.8132;3.4979;
598.8000;0.8140;3.4931;
599.1000;0.8116;3.4835;
599.4000;0.8156;3.4859;
599.7000;0.8140;3.4883;
600.0000;0.8205;3.4979;
600.3000;0.8132;3.4715;
600.6000;0.8140;3.4595;
600.9000;0.8132;3.4475;
601.2000;0.8091;3.4259;
601.5000;0.8042;3.4043;
601.8000;0.7985;3.3851;
602.1000;0.7977;3.3659;
602.4000;0.7888;3.3515;
602.7000;0.7847;3.3443;
603.0000;0.7798;3.3347;
603.3000;0.7733;3.3131;
603.6000;0.7700;3.3059;
603.9000;0.7627;3.3011;
604.2000;0.7603;3.2867;
604.5000;0.7562;3.2747;
604.8000;0.7530;3.2675;
605.1000;0.7538;3.2627;
605.4000;0.7538;3.2627;
605.7000;0.7416;3.2316;
606.0000;0.7399;3.2340;
606.3000;0.7391;3.2316;
606.6000;0.7359;3.2292;
606.9000;0.7334;3.2316;
607.2000;0.7277;3.2388;
607.5000;0.7269;3.2364;
607.8000;0.7228;3.2292;
608.1000;0.7163;3.2100;
608.4000;0.7179;3.2124;
608.7000;0.7147;3.2076;
609.0000;0.7123;3.1956;
609.3000;0.7082;3.2004;
609.6000;0.7082;3.2052;
609.9000;0.7049;3.2028;
610.2000;0.7049;3.2028;
610.5000;0.7090;3.2172;
610.8000;0.6976;3.1908;
611.1000;0.6984;3.1932;
611.4000;0.6952;3.1884;
611.7000;0.6935;3.1860;
612.0000;0.6919;3.1836;
612.3000;0.6895;3.1860;
612.6000;0.6911;3.1980;
612.9000;0.6854;3.1908;
613.2000;0.6829;3.1956;
613.5000;0.6789;3.1884;
613.8000;0.6821;3.1980;
614.1000;0.6772;3.1956;
614.4000;0.6772;3.1884;
614.7000;0.6748;3.1812;
615.0000;0.6756;3.1836;
615.3000;0.6724;3.1740;
615.6000;0.6724;3.1668;
615.9000;0.6667;3.1668;
616.2000;0.6650;3.1692;
616.5000;0.6667;3.1740;
616.8000;0.6626;3.1740;
617.1000;0.6634;3.1812;
617.4000;0.6618;3.1740;
617.7000;0.6585;3.1764;
618.0000;0.6593;3.1788;
618.3000;0.6569;3.1740;
618.6000;0.6553;3.1692;
618.9000;0.6528;3.1668;
619.2000;0.6520;3.1596;
619.5000;0.6463;3.1428;
619.8000;0.6496;3.1476;
620.1000;0.6439;3.1356;
620.4000;0.6471;3.1476;
620.7000;0.6479;3.1548;
621.0000;0.6463;3.1524;
621.3000;0.6471;3.1572;
621.6000;0.6447;3.1548;
621.9000;0.6422;3.1596;
622.2000;0.6414;3.1620;
622.5000;0.6414;3.1644;
622.8000;0.6422;3.1692;
623.1000;0.6398;3.1668;
623.4000;0.6390;3.1476;
623.7000;0.6365;3.1380;
624.0000;0.6374;3.1380;
624.3000;0.6349;3.1404;
624.6000;0.6365;3.1380;
624.9000;0.6341;3.1332;
625.2000;0.6357;3.1380;
625.5000;0.6325;3.1356;
625.8000;0.6309;3.1356;
626.1000;0.6325;3.1380;
626.4000;0.6333;3.1428;
626.7000;0.6292;3.1404;
627.0000;0.6268;3.1428;
627.3000;0.6268;3.1356;
627.6000;0.6252;3.1380;
627.9000;0.6276;3.1524;
628.2000;0.6243;3.1476;
628.5000;0.6252;3.1500;
628.8000;0.6235;3.1476;
629.1000;0.6170;3.1236;
629.4000;0.6227;3.1356;
629.7000;0.6211;3.1308;
630.0000;0.6138;3.1212;
630.3000;0.6138;3.1212;
630.6000;0.6195;3.1356;
630.9000;0.6178;3.1332;
631.2000;0.6178;3.1356;
631.5000;0.6162;3.1284;
631.8000;0.6162;3.1308;
632.1000;0.6195;3.1452;
632.4000;0.6138;3.1308;
632.7000;0.6146;3.1332;
633.0000;0.6138;3.1356;
633.3000;0.6138;3.1476;
633.6000;0.6121;3.1428;
633.9000;0.6072;3.1380;
634.2000;0.6097;3.1452;
634.5000;0.6129;3.1572;
634.8000;0.6089;3.1548;
635.1000;0.6089;3.1644;
635.4000;0.6089;3.1692;
635.7000;0.6105;3.1668;
636.0000;0.6089;3.1572;
636.3000;0.6024;3.1452;
636.6000;0.6072;3.1548;
636.9000;0.6064;3.1500;
637.2000;0.6040;3.1428;
637.5000;0.6048;3.1404;
637.8000;0.6032;3.1380;
638.1000;0.6040;3.1476;
638.4000;0.6015;3.1428;
638.7000;0.5991;3.1356;
639.0000;0.6024;3.1500;
639.3000;0.6007;3.1500;
639.6000;0.5975;3.1428;
639.9000;0.5983;3.1380;
640.2000;0.5999;3.1404;
640.5000;0.5991;3.1332;
640.8000;0.5975;3.1284;
641.1000;0.6007;3.1452;
641.4000;0.5967;3.1404;
641.7000;0.5975;3.1428;
642.0000;0.5967;3.1524;
642.3000;0.5967;3.1548;
642.6000;0.5958;3.1596;
642.9000;0.5934;3.1692;
643.2000;0.5958;3.1764;
643.5000;0.5991;3.1836;
643.8000;0.5926;3.1644;
644.1000;0.5934;3.1620;
644.4000;0.5893;3.1500;
644.7000;0.5918;3.1524;
645.0000;0.5902;3.1428;
645.3000;0.5902;3.1284;
645.6000;0.5910;3.1260;
645.9000;0.5902;3.1212;
646.2000;0.5885;3.1212;
646.5000;0.5877;3.1284;
646.8000;0.5902;3.1356;
647.1000;0.5845;3.1260;
647.4000;0.5918;3.1380;
647.7000;0.5885;3.1212;
648.0000;0.5902;3.1260;
648.3000;0.5869;3.1260;
648.6000;0.5877;3.1404;
648.9000;0.5853;3.1284;
649.2000;0.5861;3.1308;
649.5000;0.5845;3.1284;
649.8000;0.5845;3.1236;
650.1000;0.5853;3.1356;
650.4000;0.5934;3.1596;
650.7000;0.5845;3.1452;
651.0000;0.5836;3.1500;
651.3000;0.5820;3.1524;
651.6000;0.5828;3.1428;
651.9000;0.5812;3.1356;
652.2000;0.5788;3.1260;
652.5000;0.5804;3.1260;
652.8000;0.5828;3.1332;
653.1000;0.5788;3.1356;
653.4000;0.5812;3.1380;
653.7000;0.5812;3.1404;
654.0000;0.5796;3.1404;
654.3000;0.5820;3.1476;
654.6000;0.5804;3.1452;
654.9000;0.5714;3.1308;
655.2000;0.5779;3.1428;
655.5000;0.5788;3.1476;
655.8000;0.5853;3.1620;
656.1000;0.5779;3.1404;
656.4000;0.5779;3.1404;
656.7000;0.5779;3.1428;
657.0000;0.5788;3.1476;
657.3000;0.5812;3.1500;
657.6000;0.5771;3.1452;
657.9000;0.5763;3.1404;
658.2000;0.5779;3.1476;
658.5000;0.5739;3.1356;
658.8000;0.5771;3.1380;
659.1000;0.5771;3.1380;
659.4000;0.5763;3.1428;
659.7000;0.5739;3.1332;
660.0000;0.5739;3.1308;
660.3000;0.5755;3.1380;
660.6000;0.5755;3.1284;
660.9000;0.5722;3.1332;
661.2000;0.5755;3.1452;
661.5000;0.5739;3.1500;
661.8000;0.5722;3.1452;
662.1000;0.5714;3.1524;
662.4000;0.5739;3.1596;
662.7000;0.5714;3.1548;
663.0000;0.5722;3.1380;
663.3000;0.5731;3.1356;
663.6000;0.5722;3.1356;
663.9000;0.5690;3.1284;
664.2000;0.5674;3.1212;
664.5000;0.5722;3.1284;
664.8000;0.5682;3.1092;
665.1000;0.5690;3.1020;
665.4000;0.5674;3.1044;
665.7000;0.5682;3.1020;
666.0000;0.5690;3.1212;
666.3000;0.5722;3.1332;
666.6000;0.5682;3.1260;
666.9000;0.5682;3.1284;
667.2000;0.5714;3.1380;
667.5000;0.5698;3.1332;
667.8000;0.5690;3.1236;
668.1000;0.5674;3.1284;
668.4000;0.5674;3.1284;
668.7000;0.5674;3.1236;
669.0000;0.5690;3.1308;
669.3000;0.5706;3.1356;
669.6000;0.5674;3.1404;
669.9000;0.5674;3.1476;
670.2000;0.5657;3.1404;
670.5000;0.5649;3.1356;
670.8000;0.5657;3.1476;
671.1000;0.5633;3.1452;
671.4000;0.5649;3.1500;
671.7000;0.5649;3.1548;
672.0000;0.5600;3.1428;
672.3000;0.5641;3.1548;
672.6000;0.5633;3.1548;
672.9000;0.5633;3.1380;
673.2000;0.5641;3.1308;
673.5000;0.5657;3.1380;
673.8000;0.5641;3.1284;
674.1000;0.5633;3.1380;
674.4000;0.5633;3.1452;
674.7000;0.5625;3.1404;
675.0000;0.5649;3.1404;
675.3000;0.5625;3.1332;
675.6000;0.5617;3.1380;
675.9000;0.5617;3.1500;
676.2000;0.5600;3.1524;
676.5000;0.5633;3.1500;
676.8000;0.5584;3.1428;
677.1000;0.5617;3.1500;
677.4000;0.5625;3.1452;
677.7000;0.5608;3.1476;
678.0000;0.5584;3.1428;
678.3000;0.5592;3.1428;
678.6000;0.5592;3.1404;
678.9000;0.5608;3.1452;
679.2000;0.5584;3.1404;
679.5000;0.5576;3.1356;
679.8000;0.5592;3.1380;
680.1000;0.5608;3.1404;
680.4000;0.5568;3.1308;
680.7000;0.5584;3.1356;
681.0000;0.5568;3.1332;
681.3000;0.5584;3.1380;
681.6000;0.5568;3.1404;
681.9000;0.5568;3.1356;
682.2000;0.5560;3.1308;
682.5000;0.5527;3.1284;
682.8000;0.5560;3.1452;
683.1000;0.5560;3.1500;
683.4000;0.5560;3.1596;
683.7000;0.5551;3.1668;
684.0000;0.5568;3.1740;
684.3000;0.5568;3.1716;
684.6000;0.5560;3.1692;
684.9000;0.5560;3.1812;
685.2000;0.5551;3.1764;
685.5000;0.5560;3.1692;
685.8000;0.5543;3.1620;
686.1000;0.5543;3.1644;
686.4000;0.5576;3.1692;
686.7000;0.5560;3.1572;
687.0000;0.5551;3.1476;
687.3000;0.5576;3.1500;
687.6000;0.5568;3.1500;
687.9000;0.5535;3.1452;
688.2000;0.5600;3.1644;
688.5000;0.5503;3.1380;
688.8000;0.5608;3.1644;
689.1000;0.5551;3.1572;
689.4000;0.5551;3.1620;
689.7000;0.5535;3.1596;
690.0000;0.5535;3.1668;
690.3000;0.5535;3.1620;
690.6000;0.5446;3.1380;
690.9000;0.5543;3.1716;
691.2000;0.5543;3.1644;
691.5000;0.5511;3.1572;
691.8000;0.5617;3.1836;
692.1000;0.5519;3.1596;
692.4000;0.5527;3.1596;
692.7000;0.5527;3.1668;
693.0000;0.5511;3.1740;
693.3000;0.5511;3.1764;
693.6000;0.5568;3.1860;
693.9000;0.5608;3.1860;
694.2000;0.5511;3.1668;
694.5000;0.5503;3.1644;
694.8000;0.5495;3.1668;
695.1000;0.5519;3.1764;
695.4000;0.5486;3.1740;
695.7000;0.5486;3.1812;
696.0000;0.5478;3.1836;
696.3000;0.5503;3.1812;
696.6000;0.5486;3.1836;
696.9000;0.5486;3.1764;
697.2000;0.5519;3.1908;
697.5000;0.5486;3.1788;
697.8000;0.5495;3.1716;
698.1000;0.5486;3.1668;
698.4000;0.5470;3.1692;
698.7000;0.5478;3.1716;
699.0000;0.5584;3.2004;
699.3000;0.5495;3.1812;
699.6000;0.5495;3.1836;
699.9000;0.5527;3.1908;
700.2000;0.5478;3.1788;
700.5000;0.5478;3.1764;
700.8000;0.5478;3.1668;
701.1000;0.5470;3.1572;
701.4000;0.5486;3.1500;
701.7000;0.5478;3.1452;
702.0000;0.5478;3.1428;
702.3000;0.5462;3.1476;
702.6000;0.5478;3.1524;
702.9000;0.5495;3.1620;
703.2000;0.5470;3.1596;
703.5000;0.5486;3.1644;
703.8000;0.5462;3.1500;
704.1000;0.5429;3.1476;
704.4000;0.5470;3.1644;
704.7000;0.5470;3.1668;
705.0000;0.5462;3.1620;
705.3000;0.5454;3.1644;
705.6000;0.5462;3.1596;
705.9000;0.5446;3.1548;
706.2000;0.5446;3.1476;
706.5000;0.5511;3.1644;
706.8000;0.5462;3.1500;
707.1000;0.5438;3.1500;
707.4000;0.5446;3.1524;
707.7000;0.5519;3.1740;
708.0000;0.5478;3.1668;
708.3000;0.5454;3.1596;
708.6000;0.5446;3.1596;
708.9000;0.5356;3.1356;
709.2000;0.5438;3.1596;
709.5000;0.5438;3.1596;
709.8000;0.5429;3.1596;
710.1000;0.5454;3.1644;
710.4000;0.5446;3.1740;
710.7000;0.5454;3.1740;
711.0000;0.5421;3.1572;
711.3000;0.5446;3.1596;
711.6000;0.5438;3.1620;
711.9000;0.5438;3.1716;
712.2000;0.5462;3.1788;
712.5000;0.5470;3.1764;
712.8000;0.5438;3.1716;
713.1000;0.5462;3.1812;
713.4000;0.5462;3.1884;
713.7000;0.5413;3.1740;
714.0000;0.5397;3.1740;
714.3000;0.5438;3.1836;
714.6000;0.5397;3.1740;
714.9000;0.5413;3.1764;
715.2000;0.5421;3.1716;
715.5000;0.5446;3.1788;
715.8000;0.5421;3.1788;
716.1000;0.5429;3.1764;
716.4000;0.5405;3.1788;
716.7000;0.5429;3.1764;
717.0000;0.5405;3.1644;
717.3000;0.5413;3.1716;
717.6000;0.5413;3.1668;
717.9000;0.5454;3.1812;
718.2000;0.5405;3.1668;
718.5000;0.5397;3.1668;
718.8000;0.5413;3.1644;
719.1000;0.5405;3.1620;
719.4000;0.5413;3.1644;
719.7000;0.5405;3.1644;
720.0000;0.5413;3.1740;
720.3000;0.5397;3.1644;
720.6000;0.5405;3.1692;
720.9000;0.5413;3.1716;
721.2000;0.5486;3.1980;
721.5000;0.5421;3.1836;
721.8000;0.5413;3.1716;
722.1000;0.5462;3.1764;
722.4000;0.5446;3.1788;
722.7000;0.5397;3.1764;
723.0000;0.5413;3.1764;
723.3000;0.5454;3.1908;
723.6000;0.5397;3.1812;
723.9000;0.5381;3.1788;
724.2000;0.5421;3.1908;
724.5000;0.5389;3.1836;
724.8000;0.5397;3.1812;
725.1000;0.5405;3.1788;
725.4000;0.5421;3.1932;
725.7000;0.5389;3.1860;
726.0000;0.5364;3.1812;
726.3000;0.5364;3.1764;
726.6000;0.5381;3.1812;
726.9000;0.5405;3.1812;
727.2000;0.5405;3.1764;
727.5000;0.5381;3.1668;
727.8000;0.5397;3.1716;
728.1000;0.5397;3.1668;
728.4000;0.5413;3.1716;
728.7000;0.5381;3.1620;
729.0000;0.5381;3.1596;
729.3000;0.5389;3.1596;
729.6000;0.5405;3.1596;
729.9000;0.5389;3.1572;
730.2000;0.5356;3.1428;
730.5000;0.5381;3.1452;
730.8000;0.5389;3.1452;
731.1000;0.5364;3.1572;
731.4000;0.5348;3.1596;
731.7000;0.5356;3.1644;
732.0000;0.5364;3.1692;
732.3000;0.5372;3.1668;
732.6000;0.5324;3.1500;
732.9000;0.5381;3.1620;
733.2000;0.5389;3.1644;
733.5000;0.5324;3.1572;
733.8000;0.5356;3.1668;
734.1000;0.5389;3.1764;
734.4000;0.5381;3.1764;
734.7000;0.5372;3.1644;
735.0000;0.5299;3.1404;
735.3000;0.5372;3.1572;
735.6000;0.5364;3.1548;
735.9000;0.5372;3.1620;
736.2000;0.5381;3.1764;
736.5000;0.5364;3.1836;
736.8000;0.5372;3.1860;
737.1000;0.5364;3.1836;
737.4000;0.5356;3.1812;
737.7000;0.5372;3.1812;
738.0000;0.5364;3.1788;
738.3000;0.5389;3.1836;
738.6000;0.5348;3.1764;
738.9000;0.5356;3.1836;
739.2000;0.5454;3.2028;
739.5000;0.5372;3.1764;
739.8000;0.5364;3.1620;
740.1000;0.5372;3.1716;
740.4000;0.5340;3.1572;
740.7000;0.5356;3.1572;
741.0000;0.5364;3.1572;
741.3000;0.5364;3.1644;
741.6000;0.5356;3.1692;
741.9000;0.5364;3.1716;
742.2000;0.5413;3.1812;
742.5000;0.5372;3.1596;
742.8000;0.5299;3.1452;
743.1000;0.5340;3.1620;
743.4000;0.5372;3.1692;
743.7000;0.5356;3.1740;
744.0000;0.5348;3.1740;
744.3000;0.5364;3.1788;
744.6000;0.5364;3.1740;
744.9000;0.5348;3.1644;
745.2000;0.5283;3.1476;
745.5000;0.5348;3.1548;
745.8000;0.5364;3.1644;
746.1000;0.5315;3.1596;
746.4000;0.5348;3.1572;
746.7000;0.5372;3.1692;
747.0000;0.5324;3.1596;
747.3000;0.5340;3.1596;
747.6000;0.5340;3.1620;
747.9000;0.5356;3.1716;
748.2000;0.5356;3.1740;
748.5000;0.5372;3.1788;
748.8000;0.5372;3.1836;
749.1000;0.5340;3.1812;
749.4000;0.5340;3.1836;
749.7000;0.5348;3.1836;
750.0000;0.5348;3.1764;
750.3000;0.5364;3.1788;
750.6000;0.5315;3.1620;
750.9000;0.5340;3.1716;
751.2000;0.5340;3.1740;
751.5000;0.5307;3.1668;
751.8000;0.5324;3.1740;
752.1000;0.5364;3.1812;
752.4000;0.5348;3.1788;
752.7000;0.5340;3.1812;
753.0000;0.5250;3.1548;
753.3000;0.5332;3.1716;
753.6000;0.5348;3.1788;
753.9000;0.5340;3.1836;
754.2000;0.5332;3.1788;
754.5000;0.5348;3.1812;
754.8000;0.5332;3.1812;
755.1000;0.5356;3.1836;
755.4000;0.5332;3.1956;
755.7000;0.5332;3.2004;
756.0000;0.5307;3.2028;
756.3000;0.5307;3.1956;
756.6000;0.5250;3.1860;
756.9000;0.5332;3.2052;
757.2000;0.5324;3.1908;
757.5000;0.5381;3.2004;
757.8000;0.5324;3.1836;
758.1000;0.5324;3.1836;
758.4000;0.5332;3.1812;
758.7000;0.5405;3.2028;
759.0000;0.5324;3.1980;
759.3000;0.5324;3.1908;
759.6000;0.5315;3.2028;
759.9000;0.5315;3.1980;
760.2000;0.5250;3.1860;
760.5000;0.5283;3.2028;
760.8000;0.5299;3.1956;
761.1000;0.5299;3.1884;
761.4000;0.5291;3.1860;
761.7000;0.5307;3.1908;
762.0000;0.5299;3.1812;
762.3000;0.5307;3.1788;
762.6000;0.5381;3.1812;
762.9000;0.5283;3.1644;
763.2000;0.5332;3.1836;
763.5000;0.5356;3.1836;
763.8000;0.5340;3.1812;
764.1000;0.5324;3.1788;
764.4000;0.5307;3.1764;
764.7000;0.5315;3.1692;
765.0000;0.5340;3.1764;
765.3000;0.5315;3.1692;
765.6000;0.5307;3.1644;
765.9000;0.5291;3.1692;
766.2000;0.5267;3.1644;
766.5000;0.5299;3.1716;
766.8000;0.5307;3.1668;
767.1000;0.5299;3.1596;
767.4000;0.5307;3.1620;
767.7000;0.5283;3.1620;
768.0000;0.5299;3.1764;
768.3000;0.5299;3.1812;
768.6000;0.5291;3.1764;
768.9000;0.5291;3.1740;
769.2000;0.5307;3.1836;
769.5000;0.5299;3.1716;
769.8000;0.5307;3.1764;
770.1000;0.5275;3.1620;
770.4000;0.5299;3.1692;
770.7000;0.5291;3.1788;
771.0000;0.5307;3.1884;
771.3000;0.5340;3.2004;
771.6000;0.5291;3.1812;
771.9000;0.5291;3.1788;
772.2000;0.5299;3.1740;
772.5000;0.5299;3.1740;
772.8000;0.5299;3.1836;
773.1000;0.5291;3.1908;
773.4000;0.5307;3.1836;
773.7000;0.5299;3.1884;
774.0000;0.5291;3.1788;
774.3000;0.5275;3.1812;
774.6000;0.5283;3.1788;
774.9000;0.5275;3.1740;
775.2000;0.5283;3.1764;
775.5000;0.5291;3.1716;
775.8000;0.5226;3.1644;
776.1000;0.5267;3.1716;
776.4000;0.5291;3.1812;
776.7000;0.5275;3.1716;
777.0000;0.5275;3.1692;
777.3000;0.5275;3.1668;
777.6000;0.5275;3.1764;
777.9000;0.5267;3.1716;
778.2000;0.5275;3.1812;
778.5000;0.5291;3.1812;
778.8000;0.5275;3.1764;
779.1000;0.5283;3.1740;
779.4000;0.5258;3.1692;
779.7000;0.5267;3.1764;
780.0000;0.5275;3.1836;
780.3000;0.5258;3.1836;
780.6000;0.5315;3.1932;
780.9000;0.5275;3.1836;
781.2000;0.5258;3.1812;
781.5000;0.5291;3.1884;
781.8000;0.5283;3.1884;
782.1000;0.5258;3.1788;
782.4000;0.5364;3.2052;
782.7000;0.5267;3.1908;
783.0000;0.5275;3.1884;
783.3000;0.5258;3.1860;
783.6000;0.5258;3.1764;
783.9000;0.5267;3.1812;
784.2000;0.5291;3.1812;
784.5000;0.5275;3.1716;
784.8000;0.5267;3.1740;
785.1000;0.5283;3.1764;
785.4000;0.5234;3.1620;
785.7000;0.5307;3.1812;
786.0000;0.5258;3.1788;
786.3000;0.5267;3.1716;
786.6000;0.5291;3.1788;
786.9000;0.5299;3.1788;
787.2000;0.5267;3.1788;
787.5000;0.5250;3.1836;
787.8000;0.5267;3.1932;
788.1000;0.5275;3.2028;
788.4000;0.5283;3.2076;
788.7000;0.5291;3.2052;
789.0000;0.5275;3.2076;
789.3000;0.5275;3.2052;
789.6000;0.5267;3.2124;
789.9000;0.5267;3.2172;
790.2000;0.5258;3.2100;
790.5000;0.5258;3.1980;
790.8000;0.5258;3.1884;
791.1000;0.5267;3.1836;
791.4000;0.5250;3.1716;
791.7000;0.5275;3.1764;
792.0000;0.5242;3.1716;
792.3000;0.5275;3.1812;
792.6000;0.5267;3.1908;
792.9000;0.5267;3.1860;
793.2000;0.5267;3.1740;
793.5000;0.5267;3.1716;
793.8000;0.5283;3.1740;
794.1000;0.5267;3.1740;
794.4000;0.5226;3.1740;
794.7000;0.5267;3.1812;
795.0000;0.5283;3.1860;
795.3000;0.5267;3.1740;
795.6000;0.5267;3.1716;
795.9000;0.5267;3.1788;
796.2000;0.5242;3.1716;
796.5000;0.5242;3.1764;
796.8000;0.5242;3.1836;
797.1000;0.5250;3.1932;
797.4000;0.5234;3.1860;
797.7000;0.5234;3.1836;
798.0000;0.5267;3.2004;
798.3000;0.5267;3.1908;
798.6000;0.5267;3.1836;
798.9000;0.5267;3.1764;
799.2000;0.5267;3.1836;
799.5000;0.5242;3.1884;
799.8000;0.5201;3.1764;
800.1000;0.5267;3.1932;
800.4000;0.5234;3.1812;
800.7000;0.5242;3.1932;
801.0000;0.5242;3.1884;
801.3000;0.5250;3.1788;
801.6000;0.5250;3.1812;
801.9000;0.5267;3.1932;
802.2000;0.5258;3.1908;
802.5000;0.5258;3.1884;
802.8000;0.5258;3.1884;
803.1000;0.5250;3.1716;
803.4000;0.5218;3.1620;
803.7000;0.5250;3.1644;
804.0000;0.5242;3.1572;
804.3000;0.5250;3.1572;
804.6000;0.5242;3.1524;
804.9000;0.5242;3.1524;
805.2000;0.5250;3.1548;
805.5000;0.5299;3.1644;
805.8000;0.5250;3.1428;
806.1000;0.5258;3.1452;
806.4000;0.5242;3.1524;
806.7000;0.5234;3.1548;
807.0000;0.5258;3.1644;
807.3000;0.5250;3.1620;
807.6000;0.5234;3.1668;
807.9000;0.5324;3.1836;
808.2000;0.5250;3.1620;
808.5000;0.5234;3.1620;
808.8000;0.5234;3.1524;
809.1000;0.5242;3.1548;
809.4000;0.5250;3.1620;
809.7000;0.5234;3.1620;
810.0000;0.5242;3.1572;
810.3000;0.5242;3.1572;
810.6000;0.5258;3.1644;
810.9000;0.5250;3.1620;
811.2000;0.5226;3.1692;
811.5000;0.5242;3.1812;
811.8000;0.5258;3.1860;
812.1000;0.5242;3.1908;
812.4000;0.5234;3.1860;
812.7000;0.5234;3.1860;
813.0000;0.5242;3.1908;
813.3000;0.5201;3.1740;
813.6000;0.5242;3.1788;
813.9000;0.5242;3.1788;
814.2000;0.5242;3.1788;
814.5000;0.5242;3.1812;
814.8000;0.5258;3.1836;
815.1000;0.5218;3.1668;
815.4000;0.5226;3.1692;
815.7000;0.5242;3.1764;
816.0000;0.5226;3.1764;
816.3000;0.5242;3.1860;
816.6000;0.5250;3.1860;
816.9000;0.5234;3.1812;
817.2000;0.5226;3.1764;
817.5000;0.5218;3.1740;
817.8000;0.5275;3.1884;
818.1000;0.5218;3.1788;
818.4000;0.5250;3.1884;
818.7000;0.5242;3.1956;
819.0000;0.5177;3.1764;
819.3000;0.5234;3.1860;
819.6000;0.5218;3.1836;
819.9000;0.5242;3.1788;
820.2000;0.5242;3.1764;
820.5000;0.5234;3.1692;
820.8000;0.5234;3.1740;
821.1000;0.5234;3.1620;
821.4000;0.5234;3.1524;
821.7000;0.5234;3.1548;
822.0000;0.5234;3.1644;
822.3000;0.5226;3.1668;
822.6000;0.5218;3.1644;
822.9000;0.5218;3.1644;
823.2000;0.5234;3.1692;
823.5000;0.5283;3.1884;
823.8000;0.5169;3.1620;
824.1000;0.5242;3.1764;
824.4000;0.5193;3.1740;
824.7000;0.5258;3.1908;
825.0000;0.5242;3.1884;
825.3000;0.5242;3.1956;
825.6000;0.5242;3.1836;
825.9000;0.5193;3.1716;
826.2000;0.5218;3.1788;
826.5000;0.5226;3.1812;
826.8000;0.5218;3.1836;
827.1000;0.5210;3.1788;
827.4000;0.5315;3.2076;
827.7000;0.5218;3.1956;
828.0000;0.5226;3.2028;
828.3000;0.5218;3.1980;
828.6000;0.5234;3.1980;
828.9000;0.5267;3.2076;
829.2000;0.5226;3.1980;
829.5000;0.5218;3.1956;
829.8000;0.5226;3.2004;
830.1000;0.5218;3.1980;
830.4000;0.5193;3.1908;
830.7000;0.5226;3.1956;
831.0000;0.5226;3.1956;
831.3000;0.5218;3.1956;
831.6000;0.5226;3.2004;
831.9000;0.5250;3.2148;
832.2000;0.5210;3.2004;
832.5000;0.5218;3.2100;
832.8000;0.5226;3.2052;
833.1000;0.5218;3.2052;
833.4000;0.5234;3.2124;
833.7000;0.5234;3.2124;
834.0000;0.5201;3.2052;
834.3000;0.5201;3.2076;
834.6000;0.5226;3.2172;
834.9000;0.5193;3.2076;
835.2000;0.5234;3.2196;
835.5000;0.5226;3.2124;
835.8000;0.5218;3.2076;
836.1000;0.5218;3.2172;
836.4000;0.5201;3.2148;
836.7000;0.5193;3.2124;
837.0000;0.5185;3.2052;
837.3000;0.5226;3.2196;
837.6000;0.5226;3.2100;
837.9000;0.5210;3.2004;
838.2000;0.5169;3.1884;
838.5000;0.5226;3.2028;
838.8000;0.5226;3.2004;
839.1000;0.5193;3.1860;
839.4000;0.5226;3.1980;
839.7000;0.5210;3.2052;
840.0000;0.5299;3.2268;
840.3000;0.5267;3.2196;
840.6000;0.5193;3.1956;
840.9000;0.5201;3.1980;
841.2000;0.5218;3.2076;
841.5000;0.5210;3.2052;
841.8000;0.5234;3.2100;
842.1000;0.5201;3.1956;
842.4000;0.5234;3.1956;
842.7000;0.5234;3.2052;
843.0000;0.5193;3.1956;
843.3000;0.5250;3.2172;
843.6000;0.5210;3.2148;
843.9000;0.5218;3.2148;
844.2000;0.5226;3.2148;
844.5000;0.5250;3.2148;
844.8000;0.5210;3.2076;
845.1000;0.5210;3.2124;
845.4000;0.5185;3.2100;
845.7000;0.5218;3.2052;
846.0000;0.5144;3.1836;
846.3000;0.5193;3.1956;
846.6000;0.5218;3.1980;
846.9000;0.5201;3.2004;
847.2000;0.5193;3.1908;
847.5000;0.5210;3.1956;
847.8000;0.5201;3.1932;
848.1000;0.5201;3.1980;
848.4000;0.5193;3.1956;
848.7000;0.5242;3.2004;
849.0000;0.5185;3.1860;
849.3000;0.5210;3.1884;
849.6000;0.5177;3.1908;
849.9000;0.5177;3.1956;
850.2000;0.5226;3.2028;
850.5000;0.5218;3.1980;
850.8000;0.5210;3.1980;
851.1000;0.5210;3.2028;
851.4000;0.5267;3.2196;
851.7000;0.5218;3.2172;
852.0000;0.5226;3.2076;
852.3000;0.5136;3.1908;
852.6000;0.5201;3.2028;
852.9000;0.5193;3.2100;
853.2000;0.5218;3.2196;
853.5000;0.5210;3.2124;
853.8000;0.5226;3.2148;
854.1000;0.5218;3.2124;
854.4000;0.5210;3.2100;
854.7000;0.5201;3.2052;
855.0000;0.5210;3.2076;
855.3000;0.5226;3.2028;
855.6000;0.5218;3.2100;
855.9000;0.5193;3.2052;
856.2000;0.5201;3.2004;
856.5000;0.5193;3.1836;
856.8000;0.5193;3.1788;
857.1000;0.5193;3.1884;
857.4000;0.5210;3.1956;
857.7000;0.5193;3.1908;
858.0000;0.5250;3.1980;
858.3000;0.5201;3.1836;
858.6000;0.5210;3.1836;
858.9000;0.5210;3.1860;
859.2000;0.5201;3.1884;
859.5000;0.5218;3.1980;
859.8000;0.5210;3.2004;
860.1000;0.5201;3.1980;
860.4000;0.5218;3.2100;
860.7000;0.5201;3.2100;
861.0000;0.5218;3.2124;
861.3000;0.5112;3.1788;
861.6000;0.5201;3.2004;
861.9000;0.5169;3.1932;
862.2000;0.5177;3.1980;
862.5000;0.5185;3.2004;
862.8000;0.5193;3.1932;
863.1000;0.5210;3.1980;
863.4000;0.5250;3.2148;
863.7000;0.5218;3.2004;
864.0000;0.5250;3.2052;
864.3000;0.5250;3.2124;
864.6000;0.5201;3.1956;
864.9000;0.5193;3.1956;
865.2000;0.5185;3.1980;
865.5000;0.5210;3.2076;
865.8000;0.5177;3.2028;
866.1000;0.5226;3.2100;
866.4000;0.5185;3.2052;
866.7000;0.5226;3.2148;
867.0000;0.5226;3.2100;
867.3000;0.5201;3.2100;
867.6000;0.5201;3.2076;
867.9000;0.5210;3.2100;
868.2000;0.5210;3.2100;
868.5000;0.5193;3.2124;
868.8000;0.5161;3.2100;
869.1000;0.5193;3.2124;
869.4000;0.5177;3.2028;
869.7000;0.5242;3.2100;
870.0000;0.5193;3.1980;
870.3000;0.5201;3.2028;
870.6000;0.5201;3.1956;
870.9000;0.5177;3.1884;
871.2000;0.5185;3.1884;
871.5000;0.5201;3.1836;
871.8000;0.5193;3.1812;
872.1000;0.5177;3.1860;
872.4000;0.5201;3.1836;
872.7000;0.5185;3.1788;
873.0000;0.5201;3.1836;
873.3000;0.5193;3.1836;
873.6000;0.5177;3.1812;
873.9000;0.5193;3.1764;
874.2000;0.5169;3.1644;
874.5000;0.5201;3.1668;
874.8000;0.5177;3.1500;
875.1000;0.5193;3.1476;
875.4000;0.5193;3.1596;
875.7000;0.5193;3.1572;
876.0000;0.5210;3.1644;
876.3000;0.5169;3.1572;
876.6000;0.5201;3.1668;
876.9000;0.5169;3.1644;
877.2000;0.5250;3.1908;
877.5000;0.5218;3.1668;
877.8000;0.5177;3.1644;
878.1000;0.5096;3.1500;
878.4000;0.5201;3.1836;
878.7000;0.5193;3.1764;
879.0000;0.5242;3.1860;
879.3000;0.5193;3.1716;
879.6000;0.5193;3.1716;
879.9000;0.5201;3.1692;
880.2000;0.5210;3.1668;
880.5000;0.5177;3.1620;
880.8000;0.5210;3.1716;
881.1000;0.5169;3.1692;
881.4000;0.5169;3.1692;
881.7000;0.5185;3.1668;
882.0000;0.5201;3.1644;
882.3000;0.5193;3.1668;
882.6000;0.5177;3.1692;
882.9000;0.5226;3.1812;
883.2000;0.5185;3.1644;
883.5000;0.5185;3.1572;
883.8000;0.5177;3.1644;
884.1000;0.5193;3.1716;
884.4000;0.5185;3.1716;
884.7000;0.5193;3.1668;
885.0000;0.5185;3.1596;
885.3000;0.5169;3.1644;
885.6000;0.5177;3.1644;
885.9000;0.5169;3.1620;
886.2000;0.5210;3.1644;
886.5000;0.5210;3.1668;
886.8000;0.5201;3.1596;
887.1000;0.5185;3.1596;
887.4000;0.5169;3.1668;
887.7000;0.5185;3.1716;
888.0000;0.5169;3.1764;
888.3000;0.5193;3.1764;
888.6000;0.5201;3.1764;
888.9000;0.5201;3.1788;
889.2000;0.5161;3.1764;
889.5000;0.5201;3.1764;
889.8000;0.5193;3.1716;
890.1000;0.5185;3.1788;
890.4000;0.5193;3.1788;
890.7000;0.5177;3.1740;
891.0000;0.5177;3.1692;
891.3000;0.5193;3.1692;
891.6000;0.5177;3.1716;
891.9000;0.5177;3.1668;
892.2000;0.5169;3.1620;
892.5000;0.5177;3.1644;
892.8000;0.5185;3.1764;
893.1000;0.5177;3.1740;
893.4000;0.5242;3.1812;
893.7000;0.5193;3.1620;
894.0000;0.5185;3.1548;
894.3000;0.5193;3.1644;
894.6000;0.5193;3.1596;
894.9000;0.5201;3.1668;
895.2000;0.5185;3.1716;
895.5000;0.5218;3.1860;
895.8000;0.5193;3.1788;
896.1000;0.5193;3.1668;
896.4000;0.5153;3.1572;
896.7000;0.5169;3.1668;
897.0000;0.5185;3.1740;
897.3000;0.5128;3.1692;
897.6000;0.5169;3.1740;
897.9000;0.5128;3.1692;
898.2000;0.5201;3.1860;
898.5000;0.5169;3.1716;
898.8000;0.5185;3.1788;
899.1000;0.5185;3.1884;
899.4000;0.5153;3.1740;
899.7000;0.5193;3.1692;
900.0000;0.5185;3.1740;
900.3000;0.5120;3.1668;
900.6000;0.5169;3.1932;
900.9000;0.5136;3.1788;
901.2000;0.5185;3.1860;
901.5000;0.5185;3.1764;
901.8000;0.5185;3.1788;
902.1000;0.5193;3.1836;
902.4000;0.5193;3.1932;
902.7000;0.5193;3.1860;
903.0000;0.5169;3.1812;
903.3000;0.5210;3.1836;
903.6000;0.5185;3.1884;
903.9000;0.5201;3.1932;
904.2000;0.5185;3.1884;
904.5000;0.5218;3.1980;
904.8000;0.5201;3.2052;
905.1000;0.5193;3.2028;
905.4000;0.5193;3.1980;
905.7000;0.5177;3.1980;
906.0000;0.5185;3.1956;
906.3000;0.5185;3.1908;
906.6000;0.5169;3.1908;
906.9000;0.5185;3.1884;
907.2000;0.5177;3.1764;
907.5000;0.5177;3.1812;
907.8000;0.5161;3.1716;
908.1000;0.5153;3.1644;
908.4000;0.5161;3.1644;
908.7000;0.5177;3.1692;
909.0000;0.5193;3.1788;
909.3000;0.5177;3.1788;
909.6000;0.5185;3.1860;
909.9000;0.5169;3.1836;
910.2000;0.5177;3.1908;
910.5000;0.5161;3.1836;
910.8000;0.5169;3.1884;
911.1000;0.5177;3.1836;
911.4000;0.5161;3.1788;
911.7000;0.5161;3.1836;
912.0000;0.5144;3.1788;
912.3000;0.5177;3.1884;
912.6000;0.5185;3.1956;
912.9000;0.5177;3.1884;
913.2000;0.5177;3.1956;
913.5000;0.5161;3.1956;
913.8000;0.5193;3.2004;
914.1000;0.5177;3.2028;
914.4000;0.5128;3.1908;
914.7000;0.5193;3.2028;
915.0000;0.5185;3.2052;
915.3000;0.5177;3.2052;
915.6000;0.5169;3.1860;
915.9000;0.5169;3.1860;
916.2000;0.5153;3.1884;
916.5000;0.5153;3.1908;
916.8000;0.5169;3.1932;
917.1000;0.5169;3.1836;
917.4000;0.5169;3.1884;
917.7000;0.5177;3.1836;
918.0000;0.5177;3.1812;
918.3000;0.5161;3.1812;
918.6000;0.5185;3.1812;
918.9000;0.5193;3.1836;
919.2000;0.5185;3.1860;
919.5000;0.5169;3.1860;
919.8000;0.5161;3.1836;
920.1000;0.5185;3.1884;
920.4000;0.5169;3.1956;
920.7000;0.5161;3.2004;
921.0000;0.5161;3.1980;
921.3000;0.5169;3.1980;
921.6000;0.5161;3.1956;
921.9000;0.5169;3.1932;
922.2000;0.5193;3.1908;
922.5000;0.5153;3.1884;
922.8000;0.5153;3.1908;
923.1000;0.5161;3.1932;
923.4000;0.5177;3.1932;
923.7000;0.5169;3.1932;
924.0000;0.5153;3.1932;
924.3000;0.5185;3.1980;
924.6000;0.5169;3.1932;
924.9000;0.5193;3.2004;
925.2000;0.5218;3.2100;
925.5000;0.5185;3.2004;
925.8000;0.5177;3.1932;
926.1000;0.5169;3.1908;
926.4000;0.5153;3.1860;
926.7000;0.5169;3.1812;
927.0000;0.5169;3.1836;
927.3000;0.5169;3.1908;
927.6000;0.5169;3.1980;
927.9000;0.5177;3.2028;
928.2000;0.5153;3.1884;
928.5000;0.5136;3.1860;
928.8000;0.5177;3.1908;
929.1000;0.5161;3.1932;
929.4000;0.5169;3.1884;
929.7000;0.5153;3.1860;
930.0000;0.5185;3.1980;
930.3000;0.5169;3.2028;
930.6000;0.5161;3.2028;
930.9000;0.5193;3.1980;
931.2000;0.5169;3.1908;
931.5000;0.5161;3.1836;
931.8000;0.5177;3.1908;
932.1000;0.5161;3.1860;
932.4000;0.5136;3.1740;
932.7000;0.5169;3.1884;
933.0000;0.5185;3.1884;
933.3000;0.5267;3.2076;
933.6000;0.5169;3.1812;
933.9000;0.5161;3.1836;
934.2000;0.5177;3.1932;
934.5000;0.5169;3.1932;
934.8000;0.5161;3.1908;
935.1000;0.5161;3.1956;
935.4000;0.5161;3.1980;
935.7000;0.5161;3.1956;
936.0000;0.5177;3.1932;
936.3000;0.5161;3.1788;
936.6000;0.5169;3.1716;
936.9000;0.5144;3.1668;
937.2000;0.5193;3.1836;
937.5000;0.5161;3.1668;
937.8000;0.5169;3.1692;
938.1000;0.5169;3.1644;
938.4000;0.5169;3.1692;
938.7000;0.5177;3.1812;
939.0000;0.5120;3.1668;
939.3000;0.5193;3.1812;
939.6000;0.5169;3.1812;
939.9000;0.5161;3.1788;
940.2000;0.5169;3.1812;
940.5000;0.5169;3.1788;
940.8000;0.5161;3.1740;
941.1000;0.5161;3.1620;
941.4000;0.5193;3.1644;
941.7000;0.5161;3.1596;
942.0000;0.5169;3.1692;
942.3000;0.5185;3.1692;
942.6000;0.5112;3.1500;
942.9000;0.5161;3.1596;
943.2000;0.5144;3.1596;
943.5000;0.5136;3.1620;
943.8000;0.5144;3.1596;
944.1000;0.5153;3.1644;
944.4000;0.5153;3.1692;
944.7000;0.5153;3.1788;
945.0000;0.5153;3.1956;
945.3000;0.5161;3.2004;
945.6000;0.5136;3.1932;
945.9000;0.5144;3.2004;
946.2000;0.5161;3.2004;
946.5000;0.5161;3.2028;
946.8000;0.5169;3.1956;
947.1000;0.5161;3.1956;
947.4000;0.5136;3.1932;
947.7000;0.5128;3.1956;
948.0000;0.5128;3.1956;
948.3000;0.5071;3.1788;
948.6000;0.5153;3.1932;
948.9000;0.5201;3.2124;
949.2000;0.5169;3.2100;
949.5000;0.5177;3.2052;
949.8000;0.5144;3.1956;
950.1000;0.5161;3.2028;
950.4000;0.5234;3.2196;
950.7000;0.5169;3.2052;
951.0000;0.5210;3.2148;
951.3000;0.5153;3.1908;
951.6000;0.5144;3.1884;
951.9000;0.5153;3.1884;
952.2000;0.5201;3.1980;
952.5000;0.5153;3.1860;
952.8000;0.5153;3.1932;
953.1000;0.5169;3.1980;
953.4000;0.5177;3.2052;
953.7000;0.5161;3.2028;
954.0000;0.5153;3.2004;
954.3000;0.5161;3.1980;
954.6000;0.5169;3.1956;
954.9000;0.5153;3.1932;
955.2000;0.5185;3.2052;
955.5000;0.5185;3.2100;
955.8000;0.5177;3.2076;
956.1000;0.5169;3.2100;
956.4000;0.5161;3.2028;
956.7000;0.5136;3.2004;
957.0000;0.5144;3.2052;
957.3000;0.5153;3.2100;
957.6000;0.5161;3.2076;
957.9000;0.5071;3.1812;
958.2000;0.5153;3.2028;
958.5000;0.5169;3.1956;
958.8000;0.5161;3.1908;
959.1000;0.5169;3.1956;
959.4000;0.5144;3.1956;
959.7000;0.5177;3.2028;
960.0000;0.5136;3.1956;
960.3000;0.5144;3.2028;
960.6000;0.5153;3.2100;
960.9000;0.5153;3.2100;
961.2000;0.5193;3.2124;
961.5000;0.5193;3.2052;
961.8000;0.5161;3.2028;
962.1000;0.5161;3.2004;
962.4000;0.5153;3.2100;
962.7000;0.5161;3.2124;
963.0000;0.5128;3.1956;
963.3000;0.5169;3.2100;
963.6000;0.5169;3.2124;
963.9000;0.5153;3.2052;
964.2000;0.5161;3.2076;
964.5000;0.5169;3.2100;
964.8000;0.5177;3.2100;
965.1000;0.5153;3.2028;
965.4000;0.5136;3.1956;
965.7000;0.5169;3.2004;
966.0000;0.5144;3.1860;
966.3000;0.5161;3.1908;
966.6000;0.5144;3.1836;
966.9000;0.5267;3.2124;
967.2000;0.5169;3.1788;
967.5000;0.5218;3.1956;
967.8000;0.5112;3.1668;
968.1000;0.5161;3.1812;
968.4000;0.5161;3.1860;
968.7000;0.5161;3.1884;
969.0000;0.5153;3.1956;
969.3000;0.5104;3.1884;
969.6000;0.5193;3.2220;
969.9000;0.5169;3.2124;
970.2000;0.5161;3.2004;
970.5000;0.5201;3.2196;
970.8000;0.5144;3.2052;
971.1000;0.5161;3.1980;
971.4000;0.5136;3.1836;
971.7000;0.5136;3.2028;
972.0000;0.5136;3.1980;
972.3000;0.5218;3.2124;
972.6000;0.5153;3.1932;
972.9000;0.5153;3.1980;
973.2000;0.5169;3.2004;
973.5000;0.5169;3.2028;
973.8000;0.5161;3.2052;
974.1000;0.5161;3.2004;
974.4000;0.5104;3.1932;
974.7000;0.5169;3.2052;
975.0000;0.5185;3.2076;
975.3000;0.5153;3.1980;
975.6000;0.5153;3.1908;
975.9000;0.5153;3.2004;
976.2000;0.5161;3.2076;
976.5000;0.5153;3.2076;
976.8000;0.5144;3.2028;
977.1000;0.5161;3.1980;
977.4000;0.5153;3.2052;
977.7000;0.5210;3.2220;
978.0000;0.5120;3.1980;
978.3000;0.5104;3.1812;
978.6000;0.5169;3.1884;
978.9000;0.5161;3.1812;
979.2000;0.5153;3.1836;
979.5000;0.5153;3.1812;
979.8000;0.5161;3.1764;
980.1000;0.5161;3.1812;
980.4000;0.5161;3.1740;
980.7000;0.5153;3.1692;
981.0000;0.5144;3.1716;
981.3000;0.5153;3.1740;
981.6000;0.5128;3.1692;
981.9000;0.5169;3.1764;
982.2000;0.5177;3.1716;
982.5000;0.5169;3.1644;
982.8000;0.5177;3.1620;
983.1000;0.5185;3.1692;
983.4000;0.5153;3.1692;
983.7000;0.5153;3.1620;
984.0000;0.5161;3.1596;
984.3000;0.5161;3.1620;
984.6000;0.5136;3.1596;
984.9000;0.5153;3.1764;
985.2000;0.5169;3.1764;
985.5000;0.5144;3.1716;
985.8000;0.5153;3.1740;
986.1000;0.5153;3.1644;
986.4000;0.5063;3.1476;
986.7000;0.5153;3.1692;
987.0000;0.5128;3.1740;
987.3000;0.5104;3.1716;
987.6000;0.5153;3.1788;
987.9000;0.5136;3.1740;
988.2000;0.5096;3.1548;
988.5000;0.5161;3.1764;
988.8000;0.5144;3.1668;
989.1000;0.5144;3.1644;
989.4000;0.5161;3.1668;
989.7000;0.5128;3.1620;
990.0000;0.5112;3.1524;
990.3000;0.5153;3.1572;
990.6000;0.5185;3.1668;
990.9000;0.5153;3.1620;
991.2000;0.5169;3.1692;
991.5000;0.5112;3.1572;
991.8000;0.5128;3.1644;
992.1000;0.5153;3.1620;
992.4000;0.5136;3.1692;
992.7000;0.5128;3.1692;
993.0000;0.5161;3.1692;
993.3000;0.5169;3.1764;
993.6000;0.5153;3.1596;
993.9000;0.5096;3.1428;
994.2000;0.5128;3.1548;
994.5000;0.5153;3.1596;
994.8000;0.5136;3.1572;
995.1000;0.5201;3.1668;
995.4000;0.5144;3.1572;
995.7000;0.5153;3.1452;
996.0000;0.5161;3.1428;
996.3000;0.5169;3.1452;
996.6000;0.5169;3.1428;
996.9000;0.5144;3.1452;
997.2000;0.5128;3.1548;
997.5000;0.5153;3.1404;
997.8000;0.5136;3.1428;
998.1000;0.5144;3.1452;
998.4000;0.5128;3.1524;
998.7000;0.5153;3.1596;
999.0000;0.5153;3.1572;
999.3000;0.5177;3.1668;
999.6000;0.5153;3.1620;
999.9000;0.5136;3.1572;
1000.2000;0.5161;3.1548;
1000.5000;0.5153;3.1524;
1000.8000;0.5153;3.1548;
1001.1000;0.5161;3.1596;
1001.4000;0.5161;3.1668;
1001.7000;0.5144;3.1620;
1002.0000;0.5128;3.1572;
1002.3000;0.5144;3.1500;
1002.6000;0.5153;3.1476;
1002.9000;0.5104;3.1380;
1003.2000;0.5153;3.1572;
1003.5000;0.5144;3.1572;
1003.8000;0.5153;3.1692;
1004.1000;0.5144;3.1668;
1004.4000;0.5169;3.1740;
1004.7000;0.5112;3.1692;
1005.0000;0.5128;3.1860;
1005.3000;0.5144;3.1932;
1005.6000;0.5161;3.1812;
1005.9000;0.5161;3.1716;
1006.2000;0.5153;3.1788;
1006.5000;0.5177;3.1812;
1006.8000;0.5144;3.1716;
1007.1000;0.5153;3.1812;
1007.4000;0.5120;3.1836;
1007.7000;0.5153;3.1884;
1008.0000;0.5144;3.1812;
1008.3000;0.5112;3.1644;
1008.6000;0.5169;3.1860;
1008.9000;0.5128;3.1716;
1009.2000;0.5104;3.1596;
1009.5000;0.5104;3.1644;
1009.8000;0.5177;3.1788;
1010.1000;0.5153;3.1740;
1010.4000;0.5169;3.1836;
1010.7000;0.5120;3.1692;
1011.0000;0.5169;3.1740;
1011.3000;0.5161;3.1740;
1011.6000;0.5161;3.1740;
1011.9000;0.5153;3.1716;
1012.2000;0.5136;3.1668;
1012.5000;0.5120;3.1644;
1012.8000;0.5136;3.1668;
1013.1000;0.5153;3.1692;
1013.4000;0.5136;3.1740;
1013.7000;0.5210;3.1932;
1014.0000;0.5144;3.1788;
1014.3000;0.5144;3.1812;
1014.6000;0.5136;3.1812;
1014.9000;0.5128;3.1788;
1015.2000;0.5153;3.1884;
1015.5000;0.5144;3.1836;
1015.8000;0.5120;3.1788;
1016.1000;0.5161;3.1884;
1016.4000;0.5153;3.1812;
1016.7000;0.5136;3.1836;
1017.0000;0.5201;3.2028;
1017.3000;0.5136;3.1860;
1017.6000;0.5136;3.1884;
1017.9000;0.5144;3.1884;
1018.2000;0.5136;3.1908;
1018.5000;0.5144;3.1932;
1018.8000;0.5136;3.1860;
1019.1000;0.5128;3.1836;
1019.4000;0.5153;3.1884;
1019.7000;0.5136;3.1932;
1020.0000;0.5136;3.1956;
1020.3000;0.5144;3.1932;
1020.6000;0.5136;3.1908;
1020.9000;0.5136;3.1812;
1021.2000;0.5120;3.1668;
1021.5000;0.5161;3.1764;
1021.8000;0.5177;3.1812;
1022.1000;0.5144;3.1788;
1022.4000;0.5136;3.1716;
1022.7000;0.5136;3.1692;
1023.0000;0.5136;3.1668;
1023.3000;0.5112;3.1596;
1023.6000;0.5136;3.1668;
1023.9000;0.5136;3.1668;
1024.2000;0.5136;3.1668;
1024.5000;0.5144;3.1620;
1024.8000;0.5128;3.1572;
1025.1000;0.5120;3.1716;
1025.4000;0.5112;3.1644;
1025.7000;0.5169;3.1764;
1026.0000;0.5136;3.1788;
1026.3000;0.5144;3.1788;
1026.6000;0.5136;3.1740;
1026.9000;0.5161;3.1644;
1027.2000;0.5136;3.1692;
1027.5000;0.5136;3.1788;
1027.8000;0.5128;3.1884;
1028.1000;0.5153;3.2004;
1028.4000;0.5112;3.1884;
1028.7000;0.5136;3.1908;
1029.0000;0.5153;3.1860;
1029.3000;0.5128;3.1740;
1029.6000;0.5153;3.1788;
1029.9000;0.5144;3.1812;
1030.2000;0.5153;3.1836;
1030.5000;0.5177;3.1788;
1030.8000;0.5161;3.1740;
1031.1000;0.5144;3.1668;
1031.4000;0.5136;3.1668;
1031.7000;0.5144;3.1764;
1032.0000;0.5144;3.1740;
1032.3000;0.5169;3.1956;
1032.6000;0.5112;3.1932;
1032.9000;0.5144;3.2028;
1033.2000;0.5144;3.2148;
1033.5000;0.5153;3.2124;
1033.8000;0.5096;3.2028;
1034.1000;0.5128;3.2100;
1034.4000;0.5161;3.2148;
1034.7000;0.5169;3.2124;
1035.0000;0.5136;3.2028;
1035.3000;0.5136;3.2028;
1035.6000;0.5136;3.1980;
1035.9000;0.5144;3.2004;
1036.2000;0.5120;3.1980;
1036.5000;0.5128;3.1980;
1036.8000;0.5144;3.1956;
1037.1000;0.5169;3.2028;
1037.4000;0.5136;3.1980;
1037.7000;0.5120;3.1932;
1038.0000;0.5136;3.1908;
1038.3000;0.5144;3.1908;
1038.6000;0.5144;3.1908;
1038.9000;0.5112;3.1908;
1039.2000;0.5120;3.1764;
1039.5000;0.5128;3.1860;
1039.8000;0.5136;3.1860;
1040.1000;0.5153;3.1932;
1040.4000;0.5136;3.1788;
1040.7000;0.5136;3.1884;
1041.0000;0.5153;3.1908;
1041.3000;0.5193;3.1980;
1041.6000;0.5144;3.1884;
1041.9000;0.5153;3.1932;
1042.2000;0.5112;3.1860;
1042.5000;0.5136;3.1860;
1042.8000;0.5136;3.1956;
1043.1000;0.5112;3.1860;
1043.4000;0.5161;3.2004;
1043.7000;0.5136;3.2052;
1044.0000;0.5144;3.2028;
1044.3000;0.5136;3.2004;
1044.6000;0.5153;3.1932;
1044.9000;0.5161;3.2004;
1045.2000;0.5120;3.1836;
1045.5000;0.5144;3.1932;
1045.8000;0.5153;3.1932;
1046.1000;0.5161;3.1980;
1046.4000;0.5144;3.1956;
1046.7000;0.5136;3.1980;
1047.0000;0.5153;3.2004;
1047.3000;0.5128;3.2028;
1047.6000;0.5136;3.1956;
1047.9000;0.5120;3.2028;
1048.2000;0.5104;3.1980;
1048.5000;0.5128;3.2004;
1048.8000;0.5153;3.2028;
1049.1000;0.5136;3.2004;
1049.4000;0.5250;3.2268;
1049.7000;0.5120;3.1956;
1050.0000;0.5144;3.2076;
1050.3000;0.5112;3.1980;
1050.6000;0.5128;3.2028;
1050.9000;0.5128;3.2028;
1051.2000;0.5112;3.1908;
1051.5000;0.5104;3.1836;
1051.8000;0.5120;3.1956;
1052.1000;0.5144;3.1980;
1052.4000;0.5153;3.1980;
1052.7000;0.5120;3.1908;
1053.0000;0.5112;3.1812;
1053.3000;0.5136;3.1836;
1053.6000;0.5136;3.1860;
1053.9000;0.5144;3.1860;
1054.2000;0.5144;3.1860;
1054.5000;0.5120;3.1716;
1054.8000;0.5136;3.1812;
1055.1000;0.5128;3.1740;
1055.4000;0.5153;3.1836;
1055.7000;0.5136;3.1788;
1056.0000;0.5153;3.1740;
1056.3000;0.5120;3.1716;
1056.6000;0.5128;3.1764;
1056.9000;0.5112;3.1812;
1057.2000;0.5120;3.1884;
1057.5000;0.5177;3.2052;
1057.8000;0.5136;3.2028;
1058.1000;0.5112;3.2052;
1058.4000;0.5120;3.2028;
1058.7000;0.5128;3.2052;
1059.0000;0.5022;3.1764;
1059.3000;0.5112;3.1980;
1059.6000;0.5120;3.2052;
1059.9000;0.5088;3.1980;
1060.2000;0.5136;3.2244;
1060.5000;0.5136;3.2148;
1060.8000;0.5161;3.2196;
1061.1000;0.5144;3.2196;
1061.4000;0.5104;3.2076;
1061.7000;0.5136;3.2100;
1062.0000;0.5120;3.2124;
1062.3000;0.5177;3.2172;
1062.6000;0.5112;3.1980;
1062.9000;0.5153;3.2124;
1063.2000;0.5136;3.2028;
1063.5000;0.5136;3.1956;
1063.8000;0.5112;3.1908;
1064.1000;0.5128;3.1908;
1064.4000;0.5144;3.1884;
1064.7000;0.5112;3.1764;
1065.0000;0.5136;3.1932;
1065.3000;0.5071;3.1740;
1065.6000;0.5128;3.1812;
1065.9000;0.5144;3.1812;
1066.2000;0.5153;3.1764;
1066.5000;0.5144;3.1812;
1066.8000;0.5136;3.1836;
1067.1000;0.5104;3.1860;
1067.4000;0.5136;3.1884;
1067.7000;0.5112;3.1860;
1068.0000;0.5144;3.1980;
1068.3000;0.5120;3.1956;
1068.6000;0.5144;3.1908;
1068.9000;0.5153;3.1908;
1069.2000;0.5144;3.1860;
1069.5000;0.5136;3.1884;
1069.8000;0.5153;3.1956;
1070.1000;0.5136;3.1932;
1070.4000;0.5153;3.1860;
1070.7000;0.5120;3.1812;
1071.0000;0.5136;3.1860;
1071.3000;0.5112;3.1860;
1071.6000;0.5136;3.1860;
1071.9000;0.5120;3.1836;
1072.2000;0.5120;3.1812;
1072.5000;0.5136;3.1860;
1072.8000;0.5120;3.1932;
1073.1000;0.5120;3.1980;
1073.4000;0.5136;3.1980;
1073.7000;0.5128;3.2028;
1074.0000;0.5120;3.2004;
1074.3000;0.5128;3.2004;
1074.6000;0.5128;3.1932;
1074.9000;0.5120;3.1836;
1075.2000;0.5071;3.1812;
1075.5000;0.5112;3.1860;
1075.8000;0.5120;3.1764;
1076.1000;0.5120;3.1812;
1076.4000;0.5136;3.1836;
1076.7000;0.5128;3.1836;
1077.0000;0.5112;3.1764;
1077.3000;0.5096;3.1692;
1077.6000;0.5136;3.1740;
1077.9000;0.5136;3.1884;
1078.2000;0.5128;3.1812;
1078.5000;0.5144;3.1908;
1078.8000;0.5169;3.1884;
1079.1000;0.5144;3.1788;
1079.4000;0.5161;3.1764;
1079.7000;0.5144;3.1764;
1080.0000;0.5153;3.1812;
1080.3000;0.5153;3.1836;
1080.6000;0.5144;3.1812;
1080.9000;0.5112;3.1812;
1081.2000;0.5153;3.2028;
1081.5000;0.5128;3.2004;
1081.8000;0.5136;3.1932;
1082.1000;0.5120;3.1980;
1082.4000;0.5096;3.2052;
1082.7000;0.5055;3.1908;
1083.0000;0.5079;3.1980;
1083.3000;0.5112;3.1956;
1083.6000;0.5096;3.1908;
1083.9000;0.5096;3.1860;
1084.2000;0.5128;3.1980;
1084.5000;0.5088;3.1884;
1084.8000;0.5120;3.1908;
1085.1000;0.5128;3.1860;
1085.4000;0.5161;3.2028;
1085.7000;0.5136;3.2028;
1086.0000;0.5210;3.2268;
1086.3000;0.5112;3.2052;
1086.6000;0.5096;3.2148;
1086.9000;0.5120;3.2220;
1087.2000;0.5104;3.2172;
1087.5000;0.5112;3.2172;
1087.8000;0.5120;3.2244;
1088.1000;0.5071;3.2100;
1088.4000;0.5079;3.2100;
1088.7000;0.5112;3.2076;
1089.0000;0.5096;3.2004;
1089.3000;0.5120;3.2052;
1089.6000;0.5136;3.2124;
1089.9000;0.5136;3.2124;
1090.2000;0.5136;3.2124;
1090.5000;0.5136;3.2076;
1090.8000;0.5120;3.2100;
1091.1000;0.5088;3.1956;
1091.4000;0.5112;3.1956;
1091.7000;0.5144;3.1980;
1092.0000;0.5112;3.1956;
1092.3000;0.5079;3.1908;
1092.6000;0.5144;3.1980;
1092.9000;0.5120;3.1908;
1093.2000;0.5136;3.1980;
1093.5000;0.5128;3.1932;
1093.8000;0.5120;3.2004;
1094.1000;0.5120;3.2052;
1094.4000;0.5128;3.2052;
1094.7000;0.5136;3.2004;
1095.0000;0.5136;3.2028;
1095.3000;0.5128;3.2028;
1095.6000;0.5128;3.1932;
1095.9000;0.5128;3.1884;
1096.2000;0.5104;3.1908;
1096.5000;0.5112;3.1908;
1096.8000;0.5144;3.2004;
1097.1000;0.5153;3.1884;
1097.4000;0.5128;3.1836;
1097.7000;0.5153;3.1908;
1098.0000;0.5128;3.1932;
1098.3000;0.5144;3.2052;
1098.6000;0.5120;3.2052;
1098.9000;0.5096;3.1956;
1099.2000;0.5039;3.1788;
1099.5000;0.5088;3.1956;
1099.8000;0.5136;3.1932;
1100.1000;0.5104;3.1884;
1100.4000;0.5079;3.1692;
1100.7000;0.5128;3.1860;
1101.0000;0.5104;3.1932;
1101.3000;0.5144;3.2076;
1101.6000;0.5128;3.2076;
1101.9000;0.5120;3.1980;
1102.2000;0.5161;3.2124;
1102.5000;0.5112;3.1956;
1102.8000;0.5120;3.2004;
1103.1000;0.5120;3.2004;
1103.4000;0.5120;3.1956;
1103.7000;0.5104;3.1884;
1104.0000;0.5136;3.1908;
1104.3000;0.5104;3.1932;
1104.6000;0.5120;3.2124;
1104.9000;0.5071;3.1956;
1105.2000;0.5136;3.2148;
1105.5000;0.5136;3.2076;
1105.8000;0.5120;3.2028;
1106.1000;0.5120;3.2028;
1106.4000;0.5104;3.1980;
1106.7000;0.5120;3.2076;
1107.0000;0.5120;3.2148;
1107.3000;0.5104;3.2052;
1107.6000;0.5128;3.2100;
1107.9000;0.5088;3.2004;
1108.2000;0.5120;3.2124;
1108.5000;0.5128;3.2076;
1108.8000;0.5201;3.2196;
1109.1000;0.5120;3.2028;
1109.4000;0.5144;3.2076;
1109.7000;0.5185;3.2220;
1110.0000;0.5112;3.2148;
1110.3000;0.5128;3.2148;
1110.6000;0.5144;3.2172;
1110.9000;0.5096;3.2028;
1111.2000;0.5144;3.2148;
1111.5000;0.5144;3.2172;
1111.8000;0.5096;3.2004;
1112.1000;0.5136;3.2100;
1112.4000;0.5185;3.2244;
1112.7000;0.5128;3.2172;
1113.0000;0.5136;3.2172;
1113.3000;0.5144;3.2268;
1113.6000;0.5112;3.2220;
1113.9000;0.5144;3.2220;
1114.2000;0.5128;3.2172;
1114.5000;0.5128;3.2268;
1114.8000;0.5136;3.2268;
1115.1000;0.5144;3.2220;
1115.4000;0.5120;3.2148;
1115.7000;0.5112;3.2004;
1116.0000;0.5120;3.2004;
1116.3000;0.5104;3.1956;
1116.6000;0.5120;3.2076;
1116.9000;0.5136;3.2172;
1117.2000;0.5120;3.2220;
1117.5000;0.5112;3.2268;
1117.8000;0.5120;3.2196;
1118.1000;0.5128;3.2316;
1118.4000;0.5161;3.2340;
1118.7000;0.5112;3.2172;
1119.0000;0.5136;3.2268;
1119.3000;0.5136;3.2340;
1119.6000;0.5136;3.2220;
1119.9000;0.5144;3.2244;
1120.2000;0.5112;3.2124;
1120.5000;0.5153;3.2220;
1120.8000;0.5120;3.2244;
1121.1000;0.5153;3.2340;
1121.4000;0.5128;3.2196;
1121.7000;0.5120;3.2268;
1122.0000;0.5128;3.2172;
1122.3000;0.5177;3.2340;
1122.6000;0.5136;3.2124;
1122.9000;0.5112;3.2124;
1123.2000;0.5112;3.2172;
1123.5000;0.5144;3.2124;
1123.8000;0.5112;3.2148;
1124.1000;0.5112;3.2148;
1124.4000;0.5210;3.2364;
1124.7000;0.5120;3.2196;
1125.0000;0.5120;3.2268;
1125.3000;0.5096;3.2244;
1125.6000;0.5120;3.2220;
1125.9000;0.5136;3.2244;
1126.2000;0.5120;3.2196;
1126.5000;0.5112;3.2148;
1126.8000;0.5104;3.2124;
1127.1000;0.5120;3.2220;
1127.4000;0.5128;3.2196;
1127.7000;0.5120;3.2076;
1128.0000;0.5128;3.2076;
1128.3000;0.5128;3.2052;
1128.6000;0.5128;3.2052;
1128.9000;0.5144;3.2028;
1129.2000;0.5128;3.1908;
1129.5000;0.5112;3.1908;
1129.8000;0.5136;3.2028;
1130.1000;0.5079;3.1908;
1130.4000;0.5120;3.1932;
1130.7000;0.5112;3.1932;
1131.0000;0.5136;3.1956;
1131.3000;0.5104;3.1884;
1131.6000;0.5120;3.1956;
1131.9000;0.5112;3.1956;
1132.2000;0.5136;3.1980;
1132.5000;0.5120;3.2100;
1132.8000;0.5104;3.2100;
1133.1000;0.5104;3.2052;
1133.4000;0.5120;3.2124;
1133.7000;0.5096;3.2028;
1134.0000;0.5120;3.2076;
1134.3000;0.5096;3.2100;
1134.6000;0.5128;3.2124;
1134.9000;0.5136;3.2100;
1135.2000;0.5128;3.1980;
1135.5000;0.5088;3.1908;
1135.8000;0.5112;3.1908;
1136.1000;0.5185;3.2124;
1136.4000;0.5144;3.1956;
1136.7000;0.5120;3.1932;
1137.0000;0.5128;3.1884;
1137.3000;0.5136;3.1836;
1137.6000;0.5128;3.1932;
1137.9000;0.5112;3.1884;
1138.2000;0.5120;3.1836;
1138.5000;0.5136;3.1980;
1138.8000;0.5136;3.1980;
1139.1000;0.5120;3.1908;
1139.4000;0.5185;3.2052;
1139.7000;0.5120;3.1908;
1140.0000;0.5136;3.1932;
1140.3000;0.5136;3.1908;
1140.6000;0.5112;3.1764;
1140.9000;0.5128;3.1884;
1141.2000;0.5136;3.1956;
1141.5000;0.5120;3.1932;
1141.8000;0.5112;3.1860;
1142.1000;0.5128;3.1812;
1142.4000;0.5088;3.1692;
1142.7000;0.5071;3.1740;
1143.0000;0.5120;3.1884;
1143.3000;0.5144;3.2004;
1143.6000;0.5120;3.1884;
1143.9000;0.5128;3.1860;
1144.2000;0.5104;3.1788;
1144.5000;0.5112;3.1740;
1144.8000;0.5128;3.1812;
1145.1000;0.5153;3.1884;
1145.4000;0.5144;3.1884;
1145.7000;0.5112;3.1764;
1146.0000;0.5136;3.1908;
1146.3000;0.5128;3.1788;
1146.6000;0.5128;3.1788;
1146.9000;0.5128;3.1812;
1147.2000;0.5128;3.1836;
1147.5000;0.5079;3.1716;
1147.8000;0.5128;3.1812;
1148.1000;0.5128;3.1836;
1148.4000;0.5096;3.1764;
1148.7000;0.5112;3.1764;
1149.0000;0.5055;3.1668;
1149.3000;0.5136;3.1908;
1149.6000;0.5136;3.1836;
1149.9000;0.5112;3.1740;
1150.2000;0.5161;3.1860;
1150.5000;0.5063;3.1644;
1150.8000;0.5128;3.1860;
1151.1000;0.5120;3.1836;
1151.4000;0.5136;3.1908;
1151.7000;0.5120;3.1860;
1152.0000;0.5120;3.1980;
1152.3000;0.5104;3.1908;
1152.6000;0.5128;3.1884;
1152.9000;0.5120;3.1860;
1153.2000;0.5112;3.1860;
1153.5000;0.5104;3.1884;
1153.8000;0.5112;3.2004;
1154.1000;0.5144;3.2100;
1154.4000;0.5120;3.2028;
1154.7000;0.5112;3.1980;
1155.0000;0.5136;3.1980;
1155.3000;0.5079;3.1836;
1155.6000;0.5136;3.1980;
1155.9000;0.5104;3.1884;
1156.2000;0.5071;3.1764;
1156.5000;0.5112;3.1884;
1156.8000;0.5161;3.2028;
1157.1000;0.5104;3.1836;
1157.4000;0.5104;3.1812;
1157.7000;0.5128;3.1836;
1158.0000;0.5136;3.1764;
1158.3000;0.5136;3.1788;
1158.6000;0.5112;3.1812;
1158.9000;0.5177;3.1908;
1159.2000;0.5169;3.1836;
1159.5000;0.5071;3.1692;
1159.8000;0.5120;3.1836;
1160.1000;0.5120;3.1884;
1160.4000;0.5153;3.1980;
1160.7000;0.5128;3.1860;
1161.0000;0.5104;3.1764;
1161.3000;0.5096;3.1716;
1161.6000;0.5128;3.1788;
1161.9000;0.5128;3.1740;
1162.2000;0.5055;3.1500;
1162.5000;0.5104;3.1644;
1162.8000;0.5120;3.1764;
1163.1000;0.5120;3.1836;
1163.4000;0.5120;3.1884;
1163.7000;0.5144;3.1908;
1164.0000;0.5128;3.1932;
1164.3000;0.5136;3.1908;
1164.6000;0.5128;3.1764;
1164.9000;0.5112;3.1788;
1165.2000;0.5136;3.1812;
1165.5000;0.5136;3.1788;
1165.8000;0.5120;3.1788;
1166.1000;0.5120;3.1764;
1166.4000;0.5104;3.1764;
1166.7000;0.5096;3.1740;
1167.0000;0.5128;3.1788;
1167.3000;0.5120;3.1644;
1167.6000;0.5144;3.1764;
1167.9000;0.5128;3.1740;
1168.2000;0.5120;3.1740;
1168.5000;0.5112;3.1668;
1168.8000;0.5112;3.1596;
1169.1000;0.5128;3.1572;
1169.4000;0.5088;3.1596;
1169.7000;0.5112;3.1716;
1170.0000;0.5128;3.1764;
1170.3000;0.5120;3.1740;
1170.6000;0.5120;3.1788;
1170.9000;0.5104;3.1764;
1171.2000;0.5128;3.1836;
1171.5000;0.5096;3.1788;
1171.8000;0.5112;3.1956;
1172.1000;0.5112;3.1980;
1172.4000;0.5104;3.1956;
1172.7000;0.5120;3.1980;
1173.0000;0.5120;3.1956;
1173.3000;0.5104;3.1908;
1173.6000;0.5120;3.1860;
1173.9000;0.5088;3.1740;
1174.2000;0.5144;3.1908;
1174.5000;0.5128;3.1932;
1174.8000;0.5112;3.1860;
1175.1000;0.5128;3.1884;
1175.4000;0.5120;3.2004;
1175.7000;0.5161;3.2052;
1176.0000;0.5120;3.1812;
1176.3000;0.5128;3.1812;
1176.6000;0.5120;3.1932;
1176.9000;0.5031;3.1740;
1177.2000;0.5096;3.1836;
1177.5000;0.5144;3.1908;
1177.8000;0.5144;3.1884;
1178.1000;0.5128;3.1884;
1178.4000;0.5071;3.1740;
1178.7000;0.5120;3.1836;
1179.0000;0.5120;3.1884;
1179.3000;0.5144;3.1956;
1179.6000;0.5161;3.1860;
1179.9000;0.5079;3.1644;
1180.2000;0.5120;3.1764;
1180.5000;0.5144;3.1764;
1180.8000;0.5128;3.1740;
1181.1000;0.5071;3.1596;
1181.4000;0.5039;3.1500;
1181.7000;0.5136;3.1860;
1182.0000;0.5120;3.1932;
1182.3000;0.5112;3.1956;
1182.6000;0.5128;3.1932;
1182.9000;0.5153;3.1956;
1183.2000;0.5161;3.1860;
1183.5000;0.5185;3.1908;
1183.8000;0.5120;3.1788;
1184.1000;0.5120;3.1812;
1184.4000;0.5120;3.1764;
1184.7000;0.5144;3.1860;
1185.0000;0.5112;3.1812;
1185.3000;0.5120;3.1908;
1185.6000;0.5120;3.1932;
1185.9000;0.5153;3.2052;
1186.2000;0.5071;3.1908;
1186.5000;0.5120;3.2052;
1186.8000;0.5120;3.1932;
1187.1000;0.5112;3.1956;
1187.4000;0.5128;3.1908;
1187.7000;0.5128;3.1860;
1188.0000;0.5104;3.1764;
1188.3000;0.5136;3.1860;
1188.6000;0.5112;3.1836;
1188.9000;0.5112;3.1908;
1189.2000;0.5136;3.2076;
1189.5000;0.5128;3.2052;
1189.8000;0.5120;3.2100;
1190.1000;0.5096;3.2052;
1190.4000;0.5153;3.1980;
1190.7000;0.5096;3.1740;
1191.0000;0.5112;3.1836;
1191.3000;0.5104;3.1860;
1191.6000;0.5112;3.1884;
1191.9000;0.5104;3.1860;
1192.2000;0.5120;3.1836;
1192.5000;0.5120;3.1788;
1192.8000;0.5063;3.1644;
1193.1000;0.5120;3.1788;
1193.4000;0.5120;3.1836;
1193.7000;0.5112;3.1812;
1194.0000;0.5112;3.1764;
1194.3000;0.5112;3.1812;
1194.6000;0.5112;3.1788;
1194.9000;0.5177;3.1908;
1195.2000;0.5128;3.1812;
1195.5000;0.5112;3.1812;
1195.8000;0.5120;3.1788;
1196.1000;0.5128;3.1788;
1196.4000;0.5120;3.1740;
1196.7000;0.5120;3.1836;
1197.0000;0.5120;3.1908;
1197.3000;0.5128;3.2004;
1197.6000;0.5128;3.2052;
1197.9000;0.5096;3.1980;
1198.2000;0.5161;3.2052;
1198.5000;0.5104;3.1884;
1198.8000;0.5185;3.2052;
1199.1000;0.5096;3.1812;
1199.4000;0.5096;3.1812;
1199.7000;0.5128;3.1908;
1200.0000;0.5136;3.1980;
1200.3000;0.5104;3.1980;
1200.6000;0.5096;3.2028;
1200.9000;0.5144;3.2052;
1201.2000;0.5096;3.1908;
1201.5000;0.5079;3.1764;
1201.8000;0.5055;3.1668;
1202.1000;0.5096;3.1836;
1202.4000;0.5169;3.2052;
1202.7000;0.5104;3.1884;
1203.0000;0.5104;3.1860;
1203.3000;0.5120;3.1908;
1203.6000;0.5104;3.1908;
1203.9000;0.5022;3.1668;
1204.2000;0.5120;3.1884;
1204.5000;0.5055;3.1788;
1204.8000;0.5136;3.1980;
1205.1000;0.5120;3.1956;
1205.4000;0.5161;3.2052;
1205.7000;0.5112;3.1860;
1206.0000;0.5161;3.1980;
1206.3000;0.5120;3.1860;
1206.6000;0.5096;3.1836;
1206.9000;0.5120;3.1884;
1207.2000;0.5079;3.1908;
1207.5000;0.5112;3.2028;
1207.8000;0.5120;3.2028;
1208.1000;0.5096;3.2004;
1208.4000;0.5128;3.2124;
1208.7000;0.5120;3.2172;
1209.0000;0.5104;3.1980;
1209.3000;0.5104;3.2004;
1209.6000;0.5128;3.2028;
1209.9000;0.5136;3.1980;
1210.2000;0.5136;3.2052;
1210.5000;0.5128;3.2124;
1210.8000;0.5104;3.2052;
1211.1000;0.5104;3.2100;
1211.4000;0.5120;3.2148;
1211.7000;0.5088;3.2052;
1212.0000;0.5096;3.2148;
1212.3000;0.5112;3.2148;
1212.6000;0.5096;3.2052;
1212.9000;0.5112;3.2052;
1213.2000;0.5112;3.2004;
1213.5000;0.5096;3.1956;
1213.8000;0.5088;3.1908;
1214.1000;0.5112;3.1932;
1214.4000;0.5079;3.1884;
1214.7000;0.5112;3.1932;
1215.0000;0.5112;3.1980;
1215.3000;0.5088;3.1956;
1215.6000;0.5104;3.2052;
1215.9000;0.5128;3.2172;
1216.2000;0.5128;3.2124;
1216.5000;0.5128;3.2052;
1216.8000;0.5120;3.2028;
1217.1000;0.5112;3.1956;
1217.4000;0.5104;3.1956;
1217.7000;0.5112;3.2028;
1218.0000;0.5120;3.2004;
1218.3000;0.5104;3.1980;
1218.6000;0.5112;3.1980;
1218.9000;0.5153;3.2100;
1219.2000;0.5079;3.1980;
1219.5000;0.5096;3.1956;
1219.8000;0.5153;3.1956;
1220.1000;0.5120;3.1860;
1220.4000;0.5071;3.1668;
1220.7000;0.5104;3.1764;
1221.0000;0.5063;3.1644;
1221.3000;0.5120;3.1740;
1221.6000;0.5128;3.1788;
1221.9000;0.5120;3.1812;
1222.2000;0.5104;3.1860;
1222.5000;0.5120;3.1956;
1222.8000;0.5096;3.1860;
1223.1000;0.5128;3.1956;
1223.4000;0.5071;3.1860;
1223.7000;0.5104;3.2028;
1224.0000;0.5096;3.2004;
1224.3000;0.5128;3.2100;
1224.6000;0.5112;3.1956;
1224.9000;0.5047;3.1812;
1225.2000;0.5120;3.1956;
1225.5000;0.5112;3.1956;
1225.8000;0.5104;3.1956;
1226.1000;0.5096;3.1836;
1226.4000;0.5136;3.1884;
1226.7000;0.5120;3.1788;
1227.0000;0.5120;3.1788;
1227.3000;0.5112;3.1764;
1227.6000;0.5120;3.1764;
1227.9000;0.5104;3.1596;
1228.2000;0.5161;3.1716;
1228.5000;0.5112;3.1620;
1228.8000;0.5128;3.1644;
1229.1000;0.5128;3.1716;
1229.4000;0.5104;3.1644;
1229.7000;0.5112;3.1692;
1230.0000;0.5112;3.1668;
1230.3000;0.5136;3.1716;
1230.6000;0.5128;3.1668;
1230.9000;0.5112;3.1692;
1231.2000;0.5112;3.1740;
1231.5000;0.5128;3.1932;
1231.8000;0.5112;3.1956;
1232.1000;0.5120;3.2004;
1232.4000;0.5104;3.2004;
1232.7000;0.5112;3.2004;
1233.0000;0.5120;3.2004;
1233.3000;0.5120;3.2052;
1233.6000;0.5096;3.2004;
1233.9000;0.5104;3.2004;
1234.2000;0.5104;3.1908;
1234.5000;0.5136;3.2076;
1234.8000;0.5112;3.2028;
1235.1000;0.5112;3.2052;
1235.4000;0.5153;3.2076;
1235.7000;0.5120;3.1956;
1236.0000;0.5096;3.1860;
1236.3000;0.5136;3.1884;
1236.6000;0.5136;3.1812;
1236.9000;0.5096;3.1860;
1237.2000;0.5120;3.1980;
1237.5000;0.5096;3.2028;
1237.8000;0.5104;3.2004;
1238.1000;0.5112;3.2052;
1238.4000;0.5136;3.2076;
1238.7000;0.5144;3.2148;
1239.0000;0.5112;3.2100;
1239.3000;0.5112;3.2052;
1239.6000;0.5104;3.2004;
1239.9000;0.5096;3.1980;
1240.2000;0.5128;3.1932;
1240.5000;0.5128;3.2004;
1240.8000;0.5128;3.1932;
1241.1000;0.5112;3.1860;
1241.4000;0.5104;3.1956;
1241.7000;0.5120;3.1980;
1242.0000;0.5120;3.2004;
1242.3000;0.5120;3.2052;
1242.6000;0.5112;3.1980;
1242.9000;0.5120;3.1956;
1243.2000;0.5136;3.2124;
1243.5000;0.5088;3.2076;
1243.8000;0.5120;3.2148;
1244.1000;0.5136;3.2172;
1244.4000;0.5128;3.2100;
1244.7000;0.5144;3.2004;
1245.0000;0.5112;3.1956;
1245.3000;0.5136;3.2052;
1245.6000;0.5128;3.2076;
1245.9000;0.5104;3.2124;
1246.2000;0.5120;3.2100;
1246.5000;0.5136;3.2052;
1246.8000;0.5128;3.2028;
1247.1000;0.5144;3.2028;
1247.4000;0.5128;3.2004;
1247.7000;0.5112;3.2028;
1248.0000;0.5120;3.2052;
1248.3000;0.5096;3.2028;
1248.6000;0.5096;3.2052;
1248.9000;0.5112;3.2076;
1249.2000;0.5112;3.2028;
1249.5000;0.5120;3.2052;
1249.8000;0.5120;3.2124;
1250.1000;0.5128;3.2148;
1250.4000;0.5112;3.2028;
1250.7000;0.5128;3.2028;
1251.0000;0.5112;3.1980;
1251.3000;0.5096;3.1956;
1251.6000;0.5104;3.1980;
1251.9000;0.5128;3.1956;
1252.2000;0.5112;3.2076;
1252.5000;0.5128;3.2052;
1252.8000;0.5112;3.2052;
1253.1000;0.5120;3.2100;
1253.4000;0.5120;3.2100;
1253.7000;0.5104;3.2100;
1254.0000;0.5104;3.2052;
1254.3000;0.5128;3.2052;
1254.6000;0.5153;3.2028;
1254.9000;0.5120;3.2004;
1255.2000;0.5096;3.1980;
1255.5000;0.5128;3.2028;
1255.8000;0.5128;3.2028;
1256.1000;0.5144;3.2052;
1256.4000;0.5088;3.1884;
1256.7000;0.5120;3.1980;
1257.0000;0.5136;3.2004;
1257.3000;0.5153;3.2028;
1257.6000;0.5128;3.2052;
1257.9000;0.5136;3.2052;
1258.2000;0.5136;3.2148;
1258.5000;0.5112;3.2124;
1258.8000;0.5112;3.2196;
1259.1000;0.5144;3.2196;
1259.4000;0.5104;3.2172;
1259.7000;0.5120;3.2124;
1260.0000;0.5144;3.2052;
1260.3000;0.5112;3.2004;
1260.6000;0.5104;3.1980;
1260.9000;0.5104;3.1932;
1261.2000;0.5120;3.2004;
1261.5000;0.5112;3.2028;
1261.8000;0.5112;3.2028;
1262.1000;0.5112;3.2100;
1262.4000;0.5120;3.2148;
1262.7000;0.5088;3.2004;
1263.0000;0.5104;3.2076;
1263.3000;0.5120;3.2148;
1263.6000;0.5128;3.2172;
1263.9000;0.5136;3.2196;
1264.2000;0.5112;3.2172;
1264.5000;0.5128;3.2172;
1264.8000;0.5112;3.2148;
1265.1000;0.5104;3.2076;
1265.4000;0.5128;3.2052;
1265.7000;0.5153;3.2148;
1266.0000;0.5120;3.2172;
1266.3000;0.5063;3.2076;
1266.6000;0.5128;3.2196;
1266.9000;0.5128;3.2196;
1267.2000;0.5161;3.2196;
1267.5000;0.5128;3.2052;
1267.8000;0.5096;3.1908;
1268.1000;0.5104;3.1908;
1268.4000;0.5128;3.1908;
1268.7000;0.5112;3.1860;
1269.0000;0.5079;3.1716;
1269.3000;0.5088;3.1692;
1269.6000;0.5128;3.1764;
1269.9000;0.5120;3.1812;
1270.2000;0.5136;3.1908;
1270.5000;0.5120;3.1860;
1270.8000;0.5014;3.1524;
1271.1000;0.5120;3.1836;
1271.4000;0.5112;3.1836;
1271.7000;0.5120;3.1884;
1272.0000;0.5128;3.1932;
1272.3000;0.5128;3.1980;
1272.6000;0.5153;3.2076;
1272.9000;0.5112;3.2028;
1273.2000;0.5120;3.2004;
1273.5000;0.5096;3.1908;
1273.8000;0.5112;3.1980;
1274.1000;0.5120;3.2004;
1274.4000;0.5096;3.1932;
1274.7000;0.5112;3.1980;
1275.0000;0.5112;3.2004;
1275.3000;0.5128;3.2100;
1275.6000;0.5112;3.2052;
1275.9000;0.5112;3.2100;
1276.2000;0.5144;3.2076;
1276.5000;0.5128;3.2004;
1276.8000;0.5120;3.1980;
1277.1000;0.5112;3.1932;
1277.4000;0.5136;3.2004;
1277.7000;0.5112;3.1956;
1278.0000;0.5104;3.1956;
1278.3000;0.5120;3.2052;
1278.6000;0.5120;3.2052;
1278.9000;0.5120;3.2076;
1279.2000;0.5136;3.2124;
1279.5000;0.5120;3.1956;
1279.8000;0.5177;3.2100;
1280.1000;0.5112;3.1980;
1280.4000;0.5144;3.2028;
1280.7000;0.5120;3.1884;
1281.0000;0.5104;3.1884;
1281.3000;0.5112;3.1908;
1281.6000;0.5104;3.1908;
1281.9000;0.5112;3.1860;
1282.2000;0.5128;3.1956;
1282.5000;0.5112;3.1836;
1282.8000;0.5096;3.1764;
1283.1000;0.5096;3.1788;
1283.4000;0.5096;3.1884;
1283.7000;0.5104;3.1908;
1284.0000;0.5055;3.1812;
1284.3000;0.5104;3.1860;
1284.6000;0.5104;3.1884;
1284.9000;0.5128;3.1956;
1285.2000;0.5112;3.1980;
1285.5000;0.5120;3.2004;
1285.8000;0.5112;3.2028;
1286.1000;0.5128;3.2028;
1286.4000;0.5096;3.1980;
1286.7000;0.5096;3.2004;
1287.0000;0.5153;3.2076;
1287.3000;0.5104;3.1932;
1287.6000;0.5112;3.1932;
1287.9000;0.5112;3.1908;
1288.2000;0.5104;3.1908;
1288.5000;0.5112;3.1932;
1288.8000;0.5120;3.1932;
1289.1000;0.5112;3.1932;
1289.4000;0.5096;3.1932;
1289.7000;0.5120;3.2028;
1290.0000;0.5104;3.1956;
1290.3000;0.5120;3.1884;
1290.6000;0.5104;3.1812;
1290.9000;0.5144;3.1812;
1291.2000;0.5153;3.1956;
1291.5000;0.5128;3.1884;
1291.8000;0.5104;3.1932;
1292.1000;0.5120;3.2004;
1292.4000;0.5112;3.2076;
1292.7000;0.5104;3.1980;
1293.0000;0.5120;3.1932;
1293.3000;0.5128;3.1980;
1293.6000;0.5112;3.1956;
1293.9000;0.5144;3.2100;
1294.2000;0.5153;3.2028;
1294.5000;0.5104;3.1956;
1294.8000;0.5104;3.1956;
1295.1000;0.5112;3.2124;
1295.4000;0.5128;3.2100;
1295.7000;0.5120;3.2028;
1296.0000;0.5136;3.2052;
1296.3000;0.5144;3.2076;
1296.6000;0.5120;3.2052;
1296.9000;0.5104;3.2100;
1297.2000;0.5169;3.2196;
1297.5000;0.5153;3.2172;
1297.8000;0.5088;3.2028;
1298.1000;0.5104;3.1956;
1298.4000;0.5104;3.1908;
1298.7000;0.5112;3.1932;
1299.0000;0.5128;3.1980;
1299.3000;0.5047;3.1812;
1299.6000;0.5112;3.1860;
1299.9000;0.5104;3.1908;
1300.2000;0.5112;3.1956;
1300.5000;0.5104;3.1836;
1300.8000;0.5112;3.1956;
1301.1000;0.5120;3.2028;
1301.4000;0.5120;3.2076;
1301.7000;0.5112;3.1932;
1302.0000;0.5120;3.1932;
1302.3000;0.5120;3.1956;
1302.6000;0.5096;3.1908;
1302.9000;0.5112;3.1956;
1303.2000;0.5112;3.1932;
1303.5000;0.5104;3.1884;
1303.8000;0.5104;3.1860;
1304.1000;0.5112;3.1956;
1304.4000;0.5088;3.1908;
1304.7000;0.5096;3.2004;
1305.0000;0.5120;3.2028;
1305.3000;0.5112;3.1956;
1305.6000;0.5128;3.1884;
1305.9000;0.5104;3.1788;
1306.2000;0.5112;3.1836;
1306.5000;0.5096;3.1788;
1306.8000;0.5120;3.1908;
1307.1000;0.5088;3.1740;
1307.4000;0.5120;3.1788;
1307.7000;0.5104;3.1764;
1308.0000;0.5112;3.1716;
1308.3000;0.5120;3.1812;
1308.6000;0.5104;3.1716;
1308.9000;0.5104;3.1668;
1309.2000;0.5169;3.1764;
1309.5000;0.5096;3.1644;
1309.8000;0.5128;3.1884;
1310.1000;0.5120;3.1836;
1310.4000;0.5136;3.1812;
1310.7000;0.5218;3.1932;
1311.0000;0.5120;3.1716;
1311.3000;0.5120;3.1740;
1311.6000;0.5096;3.1692;
1311.9000;0.5128;3.1836;
1312.2000;0.5120;3.1788;
1312.5000;0.5144;3.1788;
1312.8000;0.5112;3.1764;
1313.1000;0.5120;3.1716;
1313.4000;0.5031;3.1404;
1313.7000;0.5136;3.1764;
1314.0000;0.5169;3.1788;
1314.3000;0.5120;3.1572;
1314.6000;0.5112;3.1668;
1314.9000;0.5112;3.1716;
1315.2000;0.5120;3.1740;
1315.5000;0.5120;3.1692;
1315.8000;0.5136;3.1668;
1316.1000;0.5096;3.1740;
1316.4000;0.5104;3.1812;
1316.7000;0.5136;3.1812;
1317.0000;0.5096;3.1692;
1317.3000;0.5079;3.1644;
1317.6000;0.5112;3.1764;
1317.9000;0.5112;3.1764;
1318.2000;0.5128;3.1812;
1318.5000;0.5144;3.1836;
1318.8000;0.5112;3.1812;
1319.1000;0.5177;3.2004;
1319.4000;0.5128;3.1956;
1319.7000;0.5120;3.2004;
1320.0000;0.5088;3.1860;
1320.3000;0.5185;3.1956;
1320.6000;0.5104;3.1668;
1320.9000;0.5112;3.1716;
1321.2000;0.5120;3.1884;
1321.5000;0.5120;3.1836;
1321.8000;0.5120;3.1860;
1322.1000;0.5153;3.1812;
1322.4000;0.5112;3.1716;
1322.7000;0.5104;3.1692;
1323.0000;0.5104;3.1620;
1323.3000;0.5096;3.1500;
1323.6000;0.5104;3.1596;
1323.9000;0.5104;3.1644;
1324.2000;0.5144;3.1716;
1324.5000;0.5128;3.1716;
1324.8000;0.5112;3.1668;
1325.1000;0.5120;3.1620;
1325.4000;0.5112;3.1644;
1325.7000;0.5120;3.1692;
1326.0000;0.5128;3.1740;
1326.3000;0.5161;3.1860;
1326.6000;0.5177;3.1860;
1326.9000;0.5120;3.1716;
1327.2000;0.5136;3.1860;
1327.5000;0.5112;3.1812;
1327.8000;0.5112;3.1812;
1328.1000;0.5120;3.1884;
1328.4000;0.5014;3.1620;
1328.7000;0.5144;3.1908;
1329.0000;0.5120;3.1956;
1329.3000;0.5055;3.1836;
1329.6000;0.5128;3.1860;
1329.9000;0.5161;3.1980;
1330.2000;0.5079;3.1812;
1330.5000;0.5112;3.1908;
1330.8000;0.5112;3.1956;
1331.1000;0.5128;3.1932;
1331.4000;0.5153;3.1980;
1331.7000;0.5112;3.1980;
1332.0000;0.5136;3.1980;
1332.3000;0.5120;3.2004;
1332.6000;0.5104;3.2004;
1332.9000;0.5063;3.1836;
1333.2000;0.5169;3.2076;
1333.5000;0.5079;3.1908;
1333.8000;0.5104;3.1908;
1334.1000;0.5210;3.2268;
1334.4000;0.5112;3.1980;
1334.7000;0.5112;3.1956;
1335.0000;0.5088;3.1908;
1335.3000;0.5096;3.1932;
1335.6000;0.5112;3.1812;
1335.9000;0.5128;3.1884;
1336.2000;0.5120;3.1860;
1336.5000;0.5055;3.1716;
1336.8000;0.5104;3.1764;
1337.1000;0.5112;3.1836;
1337.4000;0.5120;3.1788;
1337.7000;0.5120;3.1788;
1338.0000;0.5096;3.1764;
1338.3000;0.5177;3.1956;
1338.6000;0.5112;3.1836;
1338.9000;0.5096;3.1740;
1339.2000;0.5088;3.1716;
1339.5000;0.5120;3.1764;
1339.8000;0.5136;3.1860;
1340.1000;0.5071;3.1716;
1340.4000;0.5096;3.1836;
1340.7000;0.5055;3.1740;
1341.0000;0.5128;3.1908;
1341.3000;0.5112;3.1884;
1341.6000;0.5047;3.1740;
1341.9000;0.5136;3.1980;
1342.2000;0.5104;3.1908;
1342.5000;0.5153;3.1956;
1342.8000;0.5096;3.1836;
1343.1000;0.5120;3.1836;
1343.4000;0.5096;3.1860;
1343.7000;0.5104;3.1884;
1344.0000;0.5104;3.1908;
1344.3000;0.5079;3.1836;
1344.6000;0.5104;3.1860;
1344.9000;0.5096;3.1740;
1345.2000;0.5104;3.1644;
1345.5000;0.5104;3.1692;
1345.8000;0.5112;3.1740;
1346.1000;0.5104;3.1716;
1346.4000;0.5112;3.1812;
1346.7000;0.5104;3.1812;
1347.0000;0.5112;3.1764;
1347.3000;0.5104;3.1740;
1347.6000;0.5136;3.1908;
1347.9000;0.5112;3.1812;
1348.2000;0.5120;3.1812;
1348.5000;0.5128;3.1836;
1348.8000;0.5120;3.1740;
1349.1000;0.5112;3.1740;
1349.4000;0.5104;3.1716;
1349.7000;0.5104;3.1668;
1350.0000;0.5088;3.1668;
1350.3000;0.5104;3.1740;
1350.6000;0.5136;3.1860;
1350.9000;0.5120;3.1788;
1351.2000;0.5128;3.1860;
1351.5000;0.5120;3.1908;
1351.8000;0.5104;3.1884;
1352.1000;0.5144;3.1932;
1352.4000;0.5128;3.1860;
1352.7000;0.5144;3.1812;
1353.0000;0.5144;3.1812;
1353.3000;0.5071;3.1668;
1353.6000;0.5112;3.1812;
1353.9000;0.5112;3.1788;
1354.2000;0.5136;3.1836;
1354.5000;0.5104;3.1764;
1354.8000;0.5120;3.1716;
1355.1000;0.5112;3.1740;
1355.4000;0.5128;3.1716;
1355.7000;0.5055;3.1500;
1356.0000;0.5120;3.1620;
1356.3000;0.5112;3.1572;
1356.6000;0.5112;3.1572;
1356.9000;0.5031;3.1404;
1357.2000;0.5104;3.1644;
1357.5000;0.5161;3.1764;
1357.8000;0.5096;3.1692;
1358.1000;0.5144;3.1812;
1358.4000;0.5112;3.1644;
1358.7000;0.5128;3.1812;
1359.0000;0.5104;3.1812;
1359.3000;0.5104;3.1812;
1359.6000;0.5128;3.1932;
1359.9000;0.5104;3.1956;
1360.2000;0.5210;3.2196;
1360.5000;0.5120;3.2004;
1360.8000;0.5104;3.2052;
1361.1000;0.5112;3.2124;
1361.4000;0.5112;3.2052;
1361.7000;0.5112;3.1980;
1362.0000;0.5104;3.2028;
1362.3000;0.5112;3.1980;
1362.6000;0.5096;3.1884;
1362.9000;0.5112;3.1884;
1363.2000;0.5120;3.2004;
1363.5000;0.5120;3.2004;
1363.8000;0.5112;3.1932;
1364.1000;0.5096;3.1884;
1364.4000;0.5120;3.1932;
1364.7000;0.5104;3.1860;
1365.0000;0.5120;3.1884;
1365.3000;0.5104;3.1932;
1365.6000;0.5088;3.1884;
1365.9000;0.5136;3.1956;
1366.2000;0.5120;3.1932;
1366.5000;0.5112;3.2028;
1366.8000;0.5104;3.1932;
1367.1000;0.5112;3.1908;
1367.4000;0.5120;3.1812;
1367.7000;0.5112;3.1764;
1368.0000;0.5112;3.1836;
1368.3000;0.5136;3.1980;
1368.6000;0.5104;3.1956;
1368.9000;0.5120;3.2028;
1369.2000;0.5128;3.1956;
1369.5000;0.5104;3.1908;
1369.8000;0.5112;3.2004;
1370.1000;0.5120;3.2004;
1370.4000;0.5120;3.1836;
1370.7000;0.5112;3.1764;
1371.0000;0.5096;3.1716;
1371.3000;0.5047;3.1596;
1371.6000;0.5112;3.1812;
1371.9000;0.5096;3.1740;
1372.2000;0.5104;3.1788;
1372.5000;0.5112;3.1884;
1372.8000;0.5104;3.1764;
1373.1000;0.5112;3.1812;
1373.4000;0.5079;3.1740;
1373.7000;0.5112;3.1788;
1374.0000;0.5120;3.1764;
1374.3000;0.5120;3.1836;
1374.6000;0.5120;3.1716;
1374.9000;0.5128;3.1692;
1375.2000;0.5120;3.1740;
1375.5000;0.5104;3.1788;
1375.8000;0.5088;3.1764;
1376.1000;0.5104;3.1716;
1376.4000;0.5071;3.1620;
1376.7000;0.5063;3.1644;
1377.0000;0.5104;3.1716;
1377.3000;0.5088;3.1620;
1377.6000;0.5104;3.1668;
1377.9000;0.5120;3.1596;
1378.2000;0.5096;3.1572;
1378.5000;0.5079;3.1596;
1378.8000;0.5104;3.1620;
1379.1000;0.5120;3.1740;
1379.4000;0.5120;3.1716;
1379.7000;0.5088;3.1692;
1380.0000;0.5088;3.1692;
1380.3000;0.5128;3.1764;
1380.6000;0.5112;3.1788;
1380.9000;0.5112;3.1812;
1381.2000;0.5112;3.1884;
1381.5000;0.5128;3.1956;
1381.8000;0.5136;3.1932;
1382.1000;0.5071;3.1740;
1382.4000;0.5104;3.1788;
1382.7000;0.5120;3.1836;
1383.0000;0.5153;3.1932;
1383.3000;0.5096;3.1740;
1383.6000;0.5112;3.1740;
1383.9000;0.5088;3.1692;
1384.2000;0.5128;3.1812;
1384.5000;0.5120;3.1884;
1384.8000;0.5120;3.1956;
1385.1000;0.5112;3.1836;
1385.4000;0.5136;3.1812;
1385.7000;0.5112;3.1716;
1386.0000;0.5088;3.1692;
1386.3000;0.5063;3.1500;
1386.6000;0.5112;3.1764;
1386.9000;0.5112;3.1860;
1387.2000;0.5136;3.1932;
1387.5000;0.5218;3.2124;
1387.8000;0.5120;3.1836;
1388.1000;0.5079;3.1692;
1388.4000;0.5144;3.1908;
1388.7000;0.5088;3.1740;
1389.0000;0.5079;3.1740;
1389.3000;0.5104;3.1764;
1389.6000;0.5096;3.1788;
1389.9000;0.5104;3.1884;
1390.2000;0.5104;3.1860;
1390.5000;0.5120;3.1908;
1390.8000;0.5096;3.1836;
1391.1000;0.5104;3.1788;
1391.4000;0.5031;3.1572;
1391.7000;0.5104;3.1788;
1392.0000;0.5120;3.1788;
1392.3000;0.5112;3.1788;
1392.6000;0.5128;3.1812;
1392.9000;0.5104;3.1812;
1393.2000;0.5136;3.1956;
1393.5000;0.5104;3.1884;
1393.8000;0.5112;3.1788;
1394.1000;0.5096;3.1764;
1394.4000;0.5120;3.1740;
1394.7000;0.5104;3.1716;
1395.0000;0.5104;3.1812;
1395.3000;0.5144;3.1932;
1395.6000;0.5096;3.1932;
1395.9000;0.5128;3.1932;
1396.2000;0.5112;3.1884;
1396.5000;0.5201;3.2076;
1396.8000;0.5112;3.1860;
1397.1000;0.5088;3.1788;
1397.4000;0.5088;3.1860;
1397.7000;0.5112;3.1692;
1398.0000;0.5104;3.1620;
1398.3000;0.5177;3.1764;
1398.6000;0.5096;3.1572;
1398.9000;0.5104;3.1620;
1399.2000;0.5128;3.1668;
1399.5000;0.5104;3.1668;
1399.8000;0.5096;3.1740;
