time/ms;Fluo/V;P700 deltaI/I x10³;
-199.8000;0.5731;3.1308;
-199.5000;0.5747;3.1332;
-199.2000;0.5747;3.1236;
-198.9000;0.5739;3.1188;
-198.6000;0.5771;3.1236;
-198.3000;0.5779;3.1308;
-198.0000;0.5722;3.1236;
-197.7000;0.5722;3.1308;
-197.4000;0.5731;3.1260;
-197.1000;0.5747;3.1236;
-196.8000;0.5739;3.1140;
-196.5000;0.5739;3.1212;
-196.2000;0.5747;3.1164;
-195.9000;0.5747;3.1140;
-195.6000;0.5747;3.1092;
-195.3000;0.5755;3.1020;
-195.0000;0.5747;3.0972;
-194.7000;0.5722;3.0996;
-194.4000;0.5739;3.0996;
-194.1000;0.5739;3.1020;
-193.8000;0.5747;3.1044;
-193.5000;0.5747;3.1188;
-193.2000;0.5747;3.1236;
-192.9000;0.5739;3.1260;
-192.6000;0.5739;3.1260;
-192.3000;0.5804;3.1452;
-192.0000;0.5714;3.1260;
-191.7000;0.5731;3.1188;
-191.4000;0.5722;3.1044;
-191.1000;0.5739;3.1044;
-190.8000;0.5739;3.0996;
-190.5000;0.5722;3.0972;
-190.2000;0.5747;3.0948;
-189.9000;0.5739;3.0876;
-189.6000;0.5755;3.0876;
-189.3000;0.5796;3.0972;
-189.0000;0.5755;3.0900;
-188.7000;0.5747;3.0972;
-188.4000;0.5747;3.0900;
-188.1000;0.5747;3.0948;
-187.8000;0.5731;3.0972;
-187.5000;0.5731;3.1068;
-187.2000;0.5755;3.1020;
-186.9000;0.5747;3.1020;
-186.6000;0.5739;3.1044;
-186.3000;0.5739;3.0972;
-186.0000;0.5731;3.0996;
-185.7000;0.5788;3.1164;
-185.4000;0.5739;3.1020;
-185.1000;0.5739;3.0996;
-184.8000;0.5731;3.0996;
-184.5000;0.5722;3.1020;
-184.2000;0.5747;3.0996;
-183.9000;0.5739;3.0948;
-183.6000;0.5747;3.0996;
-183.3000;0.5722;3.0972;
-183.0000;0.5747;3.1116;
-182.7000;0.5755;3.1164;
-182.4000;0.5755;3.1044;
-182.1000;0.5722;3.0972;
-181.8000;0.5755;3.1116;
-181.5000;0.5698;3.1068;
-181.2000;0.5747;3.1068;
-180.9000;0.5747;3.1164;
-180.6000;0.5747;3.1164;
-180.3000;0.5747;3.1212;
-180.0000;0.5747;3.1140;
-179.7000;0.5739;3.1164;
-179.4000;0.5755;3.1188;
-179.1000;0.5747;3.1236;
-178.8000;0.5779;3.1284;
-178.5000;0.5779;3.1284;
-178.2000;0.5747;3.1140;
-177.9000;0.5731;3.1140;
-177.6000;0.5731;3.1116;
-177.3000;0.5820;3.1332;
-177.0000;0.5739;3.1140;
-176.7000;0.5722;3.1068;
-176.4000;0.5714;3.1068;
-176.1000;0.5779;3.1236;
-175.8000;0.5755;3.1164;
-175.5000;0.5747;3.1068;
-175.2000;0.5722;3.0924;
-174.9000;0.5739;3.0924;
-174.6000;0.5771;3.0996;
-174.3000;0.5763;3.1044;
-174.0000;0.5739;3.1068;
-173.7000;0.5731;3.1188;
-173.4000;0.5747;3.1260;
-173.1000;0.5747;3.1236;
-172.8000;0.5739;3.1212;
-172.5000;0.5731;3.1212;
-172.2000;0.5731;3.1212;
-171.9000;0.5714;3.1212;
-171.6000;0.5739;3.1236;
-171.3000;0.5731;3.1212;
-171.0000;0.5739;3.1116;
-170.7000;0.5739;3.1116;
-170.4000;0.5771;3.1164;
-170.1000;0.5722;3.0972;
-169.8000;0.5722;3.0996;
-169.5000;0.5706;3.0996;
-169.2000;0.5747;3.1140;
-168.9000;0.5739;3.1116;
-168.6000;0.5731;3.1092;
-168.3000;0.5641;3.0900;
-168.0000;0.5755;3.1092;
-167.7000;0.5763;3.1092;
-167.4000;0.5722;3.1068;
-167.1000;0.5739;3.1140;
-166.8000;0.5731;3.1236;
-166.5000;0.5755;3.1260;
-166.2000;0.5739;3.1212;
-165.9000;0.5739;3.1164;
-165.6000;0.5722;3.1188;
-165.3000;0.5674;3.1164;
-165.0000;0.5747;3.1356;
-164.7000;0.5739;3.1428;
-164.4000;0.5747;3.1452;
-164.1000;0.5755;3.1428;
-163.8000;0.5747;3.1380;
-163.5000;0.5722;3.1308;
-163.2000;0.5714;3.1332;
-162.9000;0.5747;3.1380;
-162.6000;0.5755;3.1404;
-162.3000;0.5755;3.1428;
-162.0000;0.5739;3.1380;
-161.7000;0.5739;3.1380;
-161.4000;0.5747;3.1332;
-161.1000;0.5771;3.1500;
-160.8000;0.5747;3.1332;
-160.5000;0.5755;3.1260;
-160.2000;0.5739;3.1284;
-159.9000;0.5739;3.1332;
-159.6000;0.5755;3.1236;
-159.3000;0.5731;3.1284;
-159.0000;0.5804;3.1476;
-158.7000;0.5747;3.1236;
-158.4000;0.5739;3.1260;
-158.1000;0.5755;3.1404;
-157.8000;0.5747;3.1404;
-157.5000;0.5812;3.1548;
-157.2000;0.5731;3.1380;
-156.9000;0.5739;3.1284;
-156.6000;0.5641;3.1068;
-156.3000;0.5763;3.1380;
-156.0000;0.5706;3.1212;
-155.7000;0.5722;3.1260;
-155.4000;0.5763;3.1356;
-155.1000;0.5755;3.1308;
-154.8000;0.5739;3.1236;
-154.5000;0.5755;3.1212;
-154.2000;0.5755;3.1284;
-153.9000;0.5755;3.1308;
-153.6000;0.5739;3.1308;
-153.3000;0.5739;3.1236;
-153.0000;0.5747;3.1308;
-152.7000;0.5739;3.1308;
-152.4000;0.5796;3.1356;
-152.1000;0.5731;3.1140;
-151.8000;0.5731;3.1092;
-151.5000;0.5682;3.0900;
-151.2000;0.5763;3.1116;
-150.9000;0.5731;3.1092;
-150.6000;0.5747;3.1164;
-150.3000;0.5747;3.1236;
-150.0000;0.5755;3.1284;
-149.7000;0.5747;3.1236;
-149.4000;0.5714;3.1164;
-149.1000;0.5755;3.1212;
-148.8000;0.5739;3.1284;
-148.5000;0.5722;3.1164;
-148.2000;0.5755;3.1260;
-147.9000;0.5747;3.1188;
-147.6000;0.5812;3.1380;
-147.3000;0.5755;3.1332;
-147.0000;0.5747;3.1332;
-146.7000;0.5739;3.1284;
-146.4000;0.5755;3.1404;
-146.1000;0.5698;3.1260;
-145.8000;0.5747;3.1404;
-145.5000;0.5731;3.1428;
-145.2000;0.5698;3.1404;
-144.9000;0.5755;3.1548;
-144.6000;0.5771;3.1548;
-144.3000;0.5804;3.1548;
-144.0000;0.5771;3.1380;
-143.7000;0.5771;3.1332;
-143.4000;0.5731;3.1284;
-143.1000;0.5739;3.1356;
-142.8000;0.5731;3.1380;
-142.5000;0.5722;3.1380;
-142.2000;0.5739;3.1380;
-141.9000;0.5731;3.1308;
-141.6000;0.5755;3.1452;
-141.3000;0.5731;3.1356;
-141.0000;0.5747;3.1380;
-140.7000;0.5722;3.1308;
-140.4000;0.5698;3.1260;
-140.1000;0.5731;3.1356;
-139.8000;0.5731;3.1308;
-139.5000;0.5747;3.1284;
-139.2000;0.5706;3.1212;
-138.9000;0.5739;3.1188;
-138.6000;0.5779;3.1236;
-138.3000;0.5674;3.0996;
-138.0000;0.5739;3.1068;
-137.7000;0.5739;3.1020;
-137.4000;0.5747;3.1068;
-137.1000;0.5747;3.1116;
-136.8000;0.5690;3.1092;
-136.5000;0.5747;3.1260;
-136.2000;0.5698;3.1188;
-135.9000;0.5739;3.1236;
-135.6000;0.5739;3.1236;
-135.3000;0.5731;3.1140;
-135.0000;0.5755;3.1164;
-134.7000;0.5755;3.1188;
-134.4000;0.5763;3.1236;
-134.1000;0.5739;3.1212;
-133.8000;0.5747;3.1236;
-133.5000;0.5747;3.1284;
-133.2000;0.5731;3.1308;
-132.9000;0.5739;3.1356;
-132.6000;0.5674;3.1236;
-132.3000;0.5763;3.1356;
-132.0000;0.5747;3.1332;
-131.7000;0.5739;3.1404;
-131.4000;0.5731;3.1428;
-131.1000;0.5771;3.1524;
-130.8000;0.5755;3.1500;
-130.5000;0.5747;3.1380;
-130.2000;0.5731;3.1308;
-129.9000;0.5674;3.1188;
-129.6000;0.5739;3.1404;
-129.3000;0.5739;3.1452;
-129.0000;0.5706;3.1452;
-128.7000;0.5739;3.1500;
-128.4000;0.5763;3.1548;
-128.1000;0.5788;3.1524;
-127.8000;0.5739;3.1452;
-127.5000;0.5755;3.1500;
-127.2000;0.5747;3.1404;
-126.9000;0.5731;3.1236;
-126.6000;0.5804;3.1500;
-126.3000;0.5731;3.1284;
-126.0000;0.5747;3.1380;
-125.7000;0.5731;3.1452;
-125.4000;0.5755;3.1548;
-125.1000;0.5755;3.1452;
-124.8000;0.5755;3.1476;
-124.5000;0.5739;3.1476;
-124.2000;0.5747;3.1500;
-123.9000;0.5763;3.1596;
-123.6000;0.5747;3.1500;
-123.3000;0.5755;3.1452;
-123.0000;0.5722;3.1356;
-122.7000;0.5771;3.1380;
-122.4000;0.5763;3.1452;
-122.1000;0.5665;3.1188;
-121.8000;0.5755;3.1428;
-121.5000;0.5731;3.1428;
-121.2000;0.5706;3.1308;
-120.9000;0.5747;3.1380;
-120.6000;0.5755;3.1356;
-120.3000;0.5747;3.1308;
-120.0000;0.5747;3.1380;
-119.7000;0.5755;3.1380;
-119.4000;0.5788;3.1524;
-119.1000;0.5804;3.1524;
-118.8000;0.5731;3.1356;
-118.5000;0.5739;3.1404;
-118.2000;0.5771;3.1308;
-117.9000;0.5739;3.1236;
-117.6000;0.5747;3.1332;
-117.3000;0.5714;3.1260;
-117.0000;0.5771;3.1356;
-116.7000;0.5747;3.1380;
-116.4000;0.5722;3.1332;
-116.1000;0.5739;3.1380;
-115.8000;0.5739;3.1332;
-115.5000;0.5739;3.1308;
-115.2000;0.5755;3.1332;
-114.9000;0.5747;3.1308;
-114.6000;0.5755;3.1260;
-114.3000;0.5739;3.1188;
-114.0000;0.5739;3.1212;
-113.7000;0.5755;3.1212;
-113.4000;0.5755;3.1356;
-113.1000;0.5755;3.1260;
-112.8000;0.5739;3.1284;
-112.5000;0.5739;3.1284;
-112.2000;0.5771;3.1236;
-111.9000;0.5739;3.1164;
-111.6000;0.5747;3.1284;
-111.3000;0.5739;3.1356;
-111.0000;0.5747;3.1356;
-110.7000;0.5763;3.1404;
-110.4000;0.5747;3.1284;
-110.1000;0.5690;3.1140;
-109.8000;0.5739;3.1236;
-109.5000;0.5763;3.1284;
-109.2000;0.5714;3.1116;
-108.9000;0.5739;3.1164;
-108.6000;0.5739;3.1188;
-108.3000;0.5731;3.1140;
-108.0000;0.5747;3.1212;
-107.7000;0.5755;3.1116;
-107.4000;0.5755;3.1188;
-107.1000;0.5739;3.1188;
-106.8000;0.5788;3.1380;
-106.5000;0.5731;3.1308;
-106.2000;0.5657;3.1188;
-105.9000;0.5747;3.1380;
-105.6000;0.5739;3.1380;
-105.3000;0.5779;3.1428;
-105.0000;0.5731;3.1284;
-104.7000;0.5706;3.1332;
-104.4000;0.5739;3.1428;
-104.1000;0.5739;3.1404;
-103.8000;0.5739;3.1380;
-103.5000;0.5731;3.1284;
-103.2000;0.5755;3.1332;
-102.9000;0.5731;3.1212;
-102.6000;0.5763;3.1332;
-102.3000;0.5657;3.1044;
-102.0000;0.5755;3.1284;
-101.7000;0.5698;3.1188;
-101.4000;0.5731;3.1260;
-101.1000;0.5739;3.1332;
-100.8000;0.5731;3.1236;
-100.5000;0.5706;3.1140;
-100.2000;0.5755;3.1164;
-99.9000;0.5731;3.1020;
-99.6000;0.5706;3.0924;
-99.3000;0.5763;3.1140;
-99.0000;0.5755;3.1236;
-98.7000;0.5739;3.1188;
-98.4000;0.5747;3.1212;
-98.1000;0.5722;3.1212;
-97.8000;0.5739;3.1308;
-97.5000;0.5755;3.1404;
-97.2000;0.5698;3.1188;
-96.9000;0.5739;3.1236;
-96.6000;0.5820;3.1380;
-96.3000;0.5698;3.1044;
-96.0000;0.5739;3.1164;
-95.7000;0.5731;3.1236;
-95.4000;0.5722;3.1212;
-95.1000;0.5722;3.1284;
-94.8000;0.5633;3.1044;
-94.5000;0.5731;3.1308;
-94.2000;0.5828;3.1524;
-93.9000;0.5747;3.1332;
-93.6000;0.5739;3.1332;
-93.3000;0.5731;3.1380;
-93.0000;0.5714;3.1284;
-92.7000;0.5747;3.1356;
-92.4000;0.5739;3.1308;
-92.1000;0.5714;3.1284;
-91.8000;0.5755;3.1308;
-91.5000;0.5747;3.1332;
-91.2000;0.5731;3.1356;
-90.9000;0.5739;3.1404;
-90.6000;0.5747;3.1452;
-90.3000;0.5747;3.1404;
-90.0000;0.5755;3.1404;
-89.7000;0.5731;3.1428;
-89.4000;0.5747;3.1380;
-89.1000;0.5747;3.1356;
-88.8000;0.5747;3.1308;
-88.5000;0.5722;3.1212;
-88.2000;0.5731;3.1236;
-87.9000;0.5739;3.1332;
-87.6000;0.5763;3.1428;
-87.3000;0.5674;3.1236;
-87.0000;0.5747;3.1428;
-86.7000;0.5747;3.1404;
-86.4000;0.5755;3.1428;
-86.1000;0.5747;3.1428;
-85.8000;0.5641;3.1068;
-85.5000;0.5714;3.1284;
-85.2000;0.5755;3.1332;
-84.9000;0.5739;3.1308;
-84.6000;0.5739;3.1212;
-84.3000;0.5755;3.1212;
-84.0000;0.5739;3.1068;
-83.7000;0.5747;3.1044;
-83.4000;0.5722;3.0948;
-83.1000;0.5722;3.1020;
-82.8000;0.5747;3.0996;
-82.5000;0.5763;3.1020;
-82.2000;0.5747;3.0972;
-81.9000;0.5739;3.1068;
-81.6000;0.5731;3.1116;
-81.3000;0.5779;3.1308;
-81.0000;0.5771;3.1308;
-80.7000;0.5739;3.1284;
-80.4000;0.5747;3.1332;
-80.1000;0.5722;3.1284;
-79.8000;0.5722;3.1284;
-79.5000;0.5804;3.1476;
-79.2000;0.5755;3.1284;
-78.9000;0.5739;3.1212;
-78.6000;0.5722;3.1236;
-78.3000;0.5739;3.1308;
-78.0000;0.5714;3.1188;
-77.7000;0.5739;3.1308;
-77.4000;0.5714;3.1260;
-77.1000;0.5747;3.1260;
-76.8000;0.5739;3.1308;
-76.5000;0.5779;3.1356;
-76.2000;0.5739;3.1236;
-75.9000;0.5755;3.1308;
-75.6000;0.5763;3.1404;
-75.3000;0.5747;3.1404;
-75.0000;0.5747;3.1380;
-74.7000;0.5747;3.1428;
-74.4000;0.5739;3.1356;
-74.1000;0.5755;3.1356;
-73.8000;0.5747;3.1476;
-73.5000;0.5739;3.1476;
-73.2000;0.5722;3.1500;
-72.9000;0.5755;3.1548;
-72.6000;0.5747;3.1476;
-72.3000;0.5731;3.1380;
-72.0000;0.5722;3.1404;
-71.7000;0.5722;3.1428;
-71.4000;0.5763;3.1452;
-71.1000;0.5731;3.1428;
-70.8000;0.5714;3.1428;
-70.5000;0.5747;3.1548;
-70.2000;0.5682;3.1476;
-69.9000;0.5747;3.1668;
-69.6000;0.5722;3.1644;
-69.3000;0.5722;3.1500;
-69.0000;0.5722;3.1428;
-68.7000;0.5747;3.1548;
-68.4000;0.5739;3.1476;
-68.1000;0.5747;3.1428;
-67.8000;0.5796;3.1620;
-67.5000;0.5747;3.1476;
-67.2000;0.5755;3.1548;
-66.9000;0.5722;3.1620;
-66.6000;0.5739;3.1620;
-66.3000;0.5731;3.1524;
-66.0000;0.5731;3.1524;
-65.7000;0.5788;3.1572;
-65.4000;0.5731;3.1452;
-65.1000;0.5796;3.1692;
-64.8000;0.5706;3.1404;
-64.5000;0.5731;3.1380;
-64.2000;0.5714;3.1380;
-63.9000;0.5731;3.1380;
-63.6000;0.5698;3.1308;
-63.3000;0.5665;3.1188;
-63.0000;0.5739;3.1428;
-62.7000;0.5731;3.1428;
-62.4000;0.5755;3.1500;
-62.1000;0.5747;3.1500;
-61.8000;0.5690;3.1332;
-61.5000;0.5722;3.1380;
-61.2000;0.5747;3.1428;
-60.9000;0.5755;3.1428;
-60.6000;0.5747;3.1428;
-60.3000;0.5731;3.1404;
-60.0000;0.5722;3.1452;
-59.7000;0.5747;3.1500;
-59.4000;0.5714;3.1428;
-59.1000;0.5739;3.1380;
-58.8000;0.5690;3.1308;
-58.5000;0.5747;3.1404;
-58.2000;0.5739;3.1356;
-57.9000;0.5739;3.1380;
-57.6000;0.5763;3.1404;
-57.3000;0.5731;3.1404;
-57.0000;0.5739;3.1452;
-56.7000;0.5739;3.1524;
-56.4000;0.5714;3.1524;
-56.1000;0.5739;3.1596;
-55.8000;0.5739;3.1692;
-55.5000;0.5706;3.1524;
-55.2000;0.5755;3.1572;
-54.9000;0.5755;3.1596;
-54.6000;0.5731;3.1596;
-54.3000;0.5763;3.1716;
-54.0000;0.5739;3.1596;
-53.7000;0.5747;3.1548;
-53.4000;0.5763;3.1476;
-53.1000;0.5731;3.1452;
-52.8000;0.5739;3.1476;
-52.5000;0.5747;3.1476;
-52.2000;0.5755;3.1548;
-51.9000;0.5739;3.1524;
-51.6000;0.5731;3.1572;
-51.3000;0.5739;3.1596;
-51.0000;0.5722;3.1644;
-50.7000;0.5755;3.1572;
-50.4000;0.5755;3.1548;
-50.1000;0.5739;3.1476;
-49.8000;0.5714;3.1308;
-49.5000;0.5747;3.1404;
-49.2000;0.5763;3.1500;
-48.9000;0.5714;3.1500;
-48.6000;0.5747;3.1548;
-48.3000;0.5755;3.1596;
-48.0000;0.5641;3.1332;
-47.7000;0.5739;3.1524;
-47.4000;0.5739;3.1548;
-47.1000;0.5641;3.1380;
-46.8000;0.5755;3.1668;
-46.5000;0.5731;3.1596;
-46.2000;0.5755;3.1620;
-45.9000;0.5739;3.1524;
-45.6000;0.5747;3.1428;
-45.3000;0.5747;3.1332;
-45.0000;0.5739;3.1404;
-44.7000;0.5747;3.1476;
-44.4000;0.5739;3.1500;
-44.1000;0.5722;3.1452;
-43.8000;0.5739;3.1428;
-43.5000;0.5747;3.1428;
-43.2000;0.5739;3.1356;
-42.9000;0.5739;3.1356;
-42.6000;0.5755;3.1452;
-42.3000;0.5731;3.1428;
-42.0000;0.5747;3.1500;
-41.7000;0.5739;3.1524;
-41.4000;0.5731;3.1548;
-41.1000;0.5747;3.1548;
-40.8000;0.5755;3.1596;
-40.5000;0.5763;3.1620;
-40.2000;0.5714;3.1452;
-39.9000;0.5747;3.1476;
-39.6000;0.5755;3.1524;
-39.3000;0.5755;3.1476;
-39.0000;0.5747;3.1380;
-38.7000;0.5755;3.1380;
-38.4000;0.5771;3.1452;
-38.1000;0.5739;3.1452;
-37.8000;0.5714;3.1476;
-37.5000;0.5755;3.1572;
-37.2000;0.5739;3.1500;
-36.9000;0.5739;3.1452;
-36.6000;0.5731;3.1524;
-36.3000;0.5731;3.1620;
-36.0000;0.5755;3.1644;
-35.7000;0.5763;3.1596;
-35.4000;0.5747;3.1452;
-35.1000;0.5771;3.1596;
-34.8000;0.5698;3.1380;
-34.5000;0.5731;3.1476;
-34.2000;0.5763;3.1548;
-33.9000;0.5755;3.1476;
-33.6000;0.5755;3.1404;
-33.3000;0.5755;3.1404;
-33.0000;0.5763;3.1380;
-32.7000;0.5788;3.1452;
-32.4000;0.5755;3.1356;
-32.1000;0.5649;3.1116;
-31.8000;0.5747;3.1308;
-31.5000;0.5763;3.1380;
-31.2000;0.5747;3.1332;
-30.9000;0.5747;3.1404;
-30.6000;0.5747;3.1380;
-30.3000;0.5747;3.1356;
-30.0000;0.5731;3.1380;
-29.7000;0.5804;3.1524;
-29.4000;0.5771;3.1476;
-29.1000;0.5739;3.1380;
-28.8000;0.5739;3.1404;
-28.5000;0.5698;3.1380;
-28.2000;0.5755;3.1476;
-27.9000;0.5755;3.1500;
-27.6000;0.5755;3.1500;
-27.3000;0.5747;3.1428;
-27.0000;0.5714;3.1404;
-26.7000;0.5755;3.1524;
-26.4000;0.5706;3.1380;
-26.1000;0.5739;3.1476;
-25.8000;0.5739;3.1452;
-25.5000;0.5755;3.1524;
-25.2000;0.5747;3.1500;
-24.9000;0.5755;3.1572;
-24.6000;0.5731;3.1500;
-24.3000;0.5722;3.1380;
-24.0000;0.5763;3.1428;
-23.7000;0.5747;3.1428;
-23.4000;0.5747;3.1524;
-23.1000;0.5739;3.1524;
-22.8000;0.5731;3.1452;
-22.5000;0.5706;3.1452;
-22.2000;0.5763;3.1644;
-21.9000;0.5747;3.1548;
-21.6000;0.5747;3.1524;
-21.3000;0.5739;3.1500;
-21.0000;0.5739;3.1548;
-20.7000;0.5731;3.1476;
-20.4000;0.5763;3.1500;
-20.1000;0.5731;3.1452;
-19.8000;0.5747;3.1500;
-19.5000;0.5722;3.1476;
-19.2000;0.5739;3.1524;
-18.9000;0.5739;3.1500;
-18.6000;0.5747;3.1596;
-18.3000;0.5731;3.1548;
-18.0000;0.5739;3.1548;
-17.7000;0.5722;3.1500;
-17.4000;0.5739;3.1476;
-17.1000;0.5714;3.1500;
-16.8000;0.5674;3.1404;
-16.5000;0.5739;3.1452;
-16.2000;0.5796;3.1644;
-15.9000;0.5731;3.1476;
-15.6000;0.5739;3.1476;
-15.3000;0.5747;3.1500;
-15.0000;0.5788;3.1500;
-14.7000;0.5682;3.1236;
-14.4000;0.5739;3.1452;
-14.1000;0.5747;3.1428;
-13.8000;0.5747;3.1428;
-13.5000;0.5739;3.1428;
-13.2000;0.5739;3.1428;
-12.9000;0.5755;3.1500;
-12.6000;0.5739;3.1548;
-12.3000;0.5779;3.1572;
-12.0000;0.5747;3.1500;
-11.7000;0.5763;3.1476;
-11.4000;0.5682;3.1332;
-11.1000;0.5739;3.1500;
-10.8000;0.5739;3.1524;
-10.5000;0.5722;3.1476;
-10.2000;0.5763;3.1644;
-9.9000;0.5755;3.1620;
-9.6000;0.5739;3.1572;
-9.3000;0.5755;3.1620;
-9.0000;0.5714;3.1572;
-8.7000;0.5706;3.1500;
-8.4000;0.5739;3.1476;
-8.1000;0.5747;3.1548;
-7.8000;0.5731;3.1572;
-7.5000;0.5739;3.1524;
-7.2000;0.5739;3.1524;
-6.9000;0.5739;3.1476;
-6.6000;0.5731;3.1596;
-6.3000;0.5739;3.1524;
-6.0000;0.5722;3.1452;
-5.7000;0.5747;3.1500;
-5.4000;0.5731;3.1500;
-5.1000;0.5747;3.1548;
-4.8000;0.5747;3.1572;
-4.5000;0.5649;3.1332;
-4.2000;0.5739;3.1500;
-3.9000;0.5747;3.1500;
-3.6000;0.5763;3.1524;
-3.3000;0.5731;3.1476;
-3.0000;0.5747;3.1572;
-2.7000;0.5755;3.1620;
-2.4000;0.5779;3.1716;
-2.1000;0.5755;3.1668;
-1.8000;0.5731;3.1620;
-1.5000;0.5714;3.1572;
-1.2000;0.5836;3.1884;
-0.9000;0.5722;3.1620;
-0.6000;0.5731;3.1692;
-0.3000;0.5739;3.1740;
0.0000;0.5739;3.1740;
0.3000;0.5893;3.1548;
0.6000;0.6178;3.2004;
0.9000;0.6398;3.2436;
1.2000;0.6553;3.2723;
1.5000;0.6691;3.2963;
1.8000;0.6829;3.3323;
2.1000;0.6854;3.3419;
2.4000;0.6919;3.3611;
2.7000;0.6976;3.3731;
3.0000;0.7025;3.3899;
3.3000;0.7066;3.4091;
3.6000;0.7090;3.4211;
3.9000;0.7131;3.4235;
4.2000;0.7139;3.4235;
4.5000;0.7163;3.4307;
4.8000;0.7204;3.4331;
5.1000;0.7228;3.4427;
5.4000;0.7245;3.4571;
5.7000;0.7285;3.4763;
6.0000;0.7310;3.4739;
6.3000;0.7334;3.4835;
6.6000;0.7342;3.4835;
6.9000;0.7375;3.4835;
7.2000;0.7326;3.4643;
7.5000;0.7399;3.4811;
7.8000;0.7407;3.4811;
8.1000;0.7416;3.4787;
8.4000;0.7432;3.4715;
8.7000;0.7456;3.4691;
9.0000;0.7481;3.4715;
9.3000;0.7521;3.4739;
9.6000;0.7489;3.4691;
9.9000;0.7489;3.4763;
10.2000;0.7546;3.4811;
10.5000;0.7530;3.4691;
10.8000;0.7586;3.4811;
11.1000;0.7578;3.4691;
11.4000;0.7586;3.4619;
11.7000;0.7643;3.4715;
12.0000;0.7627;3.4643;
12.3000;0.7635;3.4643;
12.6000;0.7668;3.4715;
12.9000;0.7668;3.4715;
13.2000;0.7660;3.4691;
13.5000;0.7725;3.4859;
13.8000;0.7684;3.4667;
14.1000;0.7709;3.4643;
14.4000;0.7700;3.4619;
14.7000;0.7733;3.4643;
15.0000;0.7741;3.4667;
15.3000;0.7790;3.4763;
15.6000;0.7766;3.4619;
15.9000;0.7757;3.4427;
16.2000;0.7790;3.4499;
16.5000;0.7806;3.4595;
16.8000;0.7814;3.4523;
17.1000;0.7831;3.4499;
17.4000;0.7896;3.4619;
17.7000;0.7863;3.4571;
18.0000;0.7823;3.4451;
18.3000;0.7839;3.4427;
18.6000;0.7847;3.4427;
18.9000;0.7847;3.4379;
19.2000;0.7888;3.4475;
19.5000;0.7961;3.4715;
19.8000;0.7896;3.4571;
20.1000;0.7912;3.4619;
20.4000;0.7912;3.4619;
20.7000;0.7896;3.4523;
21.0000;0.7871;3.4499;
21.3000;0.7920;3.4547;
21.6000;0.7937;3.4571;
21.9000;0.7928;3.4667;
22.2000;0.7937;3.4619;
22.5000;0.7953;3.4715;
22.8000;0.7961;3.4715;
23.1000;0.7953;3.4763;
23.4000;0.7945;3.4739;
23.7000;0.7937;3.4667;
24.0000;0.7969;3.4715;
24.3000;0.7977;3.4667;
24.6000;0.7985;3.4739;
24.9000;0.7985;3.4763;
25.2000;0.7985;3.4811;
25.5000;0.8010;3.4883;
25.8000;0.8002;3.4763;
26.1000;0.8010;3.4691;
26.4000;0.8010;3.4595;
26.7000;0.8042;3.4595;
27.0000;0.8026;3.4523;
27.3000;0.8034;3.4475;
27.6000;0.8034;3.4475;
27.9000;0.8018;3.4475;
28.2000;0.8042;3.4475;
28.5000;0.8050;3.4451;
28.8000;0.8034;3.4475;
29.1000;0.8075;3.4499;
29.4000;0.8050;3.4379;
29.7000;0.8059;3.4499;
30.0000;0.8083;3.4523;
30.3000;0.8083;3.4499;
30.6000;0.8091;3.4547;
30.9000;0.8091;3.4595;
31.2000;0.8140;3.4739;
31.5000;0.8107;3.4715;
31.8000;0.8099;3.4667;
32.1000;0.8083;3.4595;
32.4000;0.8116;3.4643;
32.7000;0.8107;3.4643;
33.0000;0.8099;3.4643;
33.3000;0.8091;3.4643;
33.6000;0.8099;3.4619;
33.9000;0.8107;3.4691;
34.2000;0.8124;3.4739;
34.5000;0.8107;3.4643;
34.8000;0.8107;3.4667;
35.1000;0.8132;3.4619;
35.4000;0.8116;3.4595;
35.7000;0.8107;3.4547;
36.0000;0.8116;3.4595;
36.3000;0.8124;3.4619;
36.6000;0.8140;3.4571;
36.9000;0.8132;3.4499;
37.2000;0.8140;3.4451;
37.5000;0.8148;3.4403;
37.8000;0.8132;3.4379;
38.1000;0.8099;3.4307;
38.4000;0.8156;3.4403;
38.7000;0.8132;3.4331;
39.0000;0.8148;3.4331;
39.3000;0.8164;3.4283;
39.6000;0.8156;3.4235;
39.9000;0.8156;3.4235;
40.2000;0.8067;3.4067;
40.5000;0.8181;3.4451;
40.8000;0.8164;3.4403;
41.1000;0.8173;3.4427;
41.4000;0.8173;3.4451;
41.7000;0.8189;3.4451;
42.0000;0.8164;3.4331;
42.3000;0.8181;3.4355;
42.6000;0.8132;3.4283;
42.9000;0.8173;3.4331;
43.2000;0.8164;3.4355;
43.5000;0.8173;3.4307;
43.8000;0.8181;3.4427;
44.1000;0.8181;3.4475;
44.4000;0.8189;3.4451;
44.7000;0.8197;3.4475;
45.0000;0.8148;3.4355;
45.3000;0.8181;3.4427;
45.6000;0.8205;3.4451;
45.9000;0.8181;3.4427;
46.2000;0.8205;3.4451;
46.5000;0.8197;3.4403;
46.8000;0.8213;3.4355;
47.1000;0.8197;3.4355;
47.4000;0.8189;3.4283;
47.7000;0.8189;3.4283;
48.0000;0.8270;3.4451;
48.3000;0.8205;3.4355;
48.6000;0.8197;3.4355;
48.9000;0.8254;3.4571;
49.2000;0.8189;3.4451;
49.5000;0.8205;3.4547;
49.8000;0.8181;3.4523;
50.1000;0.8213;3.4643;
50.4000;0.8270;3.4763;
50.7000;0.8246;3.4691;
51.0000;0.8230;3.4547;
51.3000;0.8221;3.4427;
51.6000;0.8230;3.4499;
51.9000;0.8262;3.4595;
52.2000;0.8230;3.4523;
52.5000;0.8230;3.4499;
52.8000;0.8213;3.4451;
53.1000;0.8230;3.4595;
53.4000;0.8221;3.4523;
53.7000;0.8230;3.4451;
54.0000;0.8221;3.4355;
54.3000;0.8221;3.4379;
54.6000;0.8238;3.4355;
54.9000;0.8230;3.4307;
55.2000;0.8230;3.4259;
55.5000;0.8238;3.4307;
55.8000;0.8246;3.4403;
56.1000;0.8230;3.4403;
56.4000;0.8238;3.4499;
56.7000;0.8238;3.4571;
57.0000;0.8246;3.4595;
57.3000;0.8230;3.4475;
57.6000;0.8230;3.4499;
57.9000;0.8238;3.4475;
58.2000;0.8246;3.4451;
58.5000;0.8246;3.4403;
58.8000;0.8246;3.4259;
59.1000;0.8246;3.4283;
59.4000;0.8246;3.4379;
59.7000;0.8262;3.4499;
60.0000;0.8246;3.4547;
60.3000;0.8230;3.4499;
60.6000;0.8262;3.4643;
60.9000;0.8262;3.4571;
61.2000;0.8262;3.4451;
61.5000;0.8254;3.4355;
61.8000;0.8246;3.4403;
62.1000;0.8270;3.4427;
62.4000;0.8254;3.4379;
62.7000;0.8246;3.4355;
63.0000;0.8246;3.4355;
63.3000;0.8262;3.4331;
63.6000;0.8246;3.4355;
63.9000;0.8262;3.4283;
64.2000;0.8230;3.4283;
64.5000;0.8246;3.4331;
64.8000;0.8270;3.4427;
65.1000;0.8352;3.4691;
65.4000;0.8254;3.4403;
65.7000;0.8246;3.4355;
66.0000;0.8262;3.4403;
66.3000;0.8270;3.4403;
66.6000;0.8254;3.4355;
66.9000;0.8230;3.4307;
67.2000;0.8270;3.4451;
67.5000;0.8246;3.4427;
67.8000;0.8246;3.4427;
68.1000;0.8262;3.4451;
68.4000;0.8238;3.4355;
68.7000;0.8262;3.4403;
69.0000;0.8238;3.4355;
69.3000;0.8254;3.4355;
69.6000;0.8262;3.4403;
69.9000;0.8246;3.4427;
70.2000;0.8254;3.4379;
70.5000;0.8270;3.4427;
70.8000;0.8270;3.4499;
71.1000;0.8287;3.4547;
71.4000;0.8246;3.4451;
71.7000;0.8278;3.4379;
72.0000;0.8270;3.4379;
72.3000;0.8295;3.4379;
72.6000;0.8278;3.4307;
72.9000;0.8262;3.4307;
73.2000;0.8270;3.4283;
73.5000;0.8278;3.4427;
73.8000;0.8270;3.4451;
74.1000;0.8262;3.4403;
74.4000;0.8278;3.4427;
74.7000;0.8246;3.4331;
75.0000;0.8278;3.4475;
75.3000;0.8262;3.4475;
75.6000;0.8262;3.4403;
75.9000;0.8303;3.4451;
76.2000;0.8295;3.4571;
76.5000;0.8287;3.4619;
76.8000;0.8254;3.4595;
77.1000;0.8262;3.4571;
77.4000;0.8278;3.4619;
77.7000;0.8295;3.4547;
78.0000;0.8278;3.4451;
78.3000;0.8278;3.4523;
78.6000;0.8303;3.4499;
78.9000;0.8270;3.4331;
79.2000;0.8262;3.4307;
79.5000;0.8246;3.4283;
79.8000;0.8287;3.4451;
80.1000;0.8287;3.4475;
80.4000;0.8262;3.4475;
80.7000;0.8303;3.4547;
81.0000;0.8295;3.4571;
81.3000;0.8287;3.4643;
81.6000;0.8278;3.4595;
81.9000;0.8360;3.4691;
82.2000;0.8278;3.4427;
82.5000;0.8287;3.4427;
82.8000;0.8287;3.4427;
83.1000;0.8278;3.4235;
83.4000;0.8287;3.4163;
83.7000;0.8270;3.4139;
84.0000;0.8295;3.4283;
84.3000;0.8270;3.4331;
84.6000;0.8335;3.4523;
84.9000;0.8303;3.4403;
85.2000;0.8311;3.4403;
85.5000;0.8238;3.4355;
85.8000;0.8303;3.4475;
86.1000;0.8295;3.4403;
86.4000;0.8295;3.4451;
86.7000;0.8311;3.4523;
87.0000;0.8295;3.4427;
87.3000;0.8352;3.4571;
87.6000;0.8278;3.4427;
87.9000;0.8278;3.4355;
88.2000;0.8287;3.4235;
88.5000;0.8270;3.4163;
88.8000;0.8295;3.4139;
89.1000;0.8173;3.3875;
89.4000;0.8246;3.4115;
89.7000;0.8287;3.4235;
90.0000;0.8303;3.4355;
90.3000;0.8311;3.4451;
90.6000;0.8303;3.4403;
90.9000;0.8311;3.4427;
91.2000;0.8311;3.4451;
91.5000;0.8295;3.4403;
91.8000;0.8278;3.4355;
92.1000;0.8295;3.4379;
92.4000;0.8311;3.4475;
92.7000;0.8311;3.4427;
93.0000;0.8303;3.4379;
93.3000;0.8295;3.4403;
93.6000;0.8311;3.4403;
93.9000;0.8287;3.4427;
94.2000;0.8303;3.4451;
94.5000;0.8303;3.4403;
94.8000;0.8319;3.4451;
95.1000;0.8303;3.4355;
95.4000;0.8319;3.4427;
95.7000;0.8311;3.4451;
96.0000;0.8311;3.4499;
96.3000;0.8303;3.4523;
96.6000;0.8287;3.4451;
96.9000;0.8319;3.4451;
97.2000;0.8278;3.4379;
97.5000;0.8295;3.4307;
97.8000;0.8303;3.4283;
98.1000;0.8303;3.4307;
98.4000;0.8287;3.4331;
98.7000;0.8303;3.4355;
99.0000;0.8303;3.4403;
99.3000;0.8303;3.4331;
99.6000;0.8238;3.4283;
99.9000;0.8278;3.4403;
100.2000;0.8303;3.4379;
100.5000;0.8295;3.4451;
100.8000;0.8303;3.4523;
101.1000;0.8295;3.4547;
101.4000;0.8311;3.4571;
101.7000;0.8311;3.4523;
102.0000;0.8287;3.4523;
102.3000;0.8295;3.4547;
102.6000;0.8392;3.4907;
102.9000;0.8303;3.4595;
103.2000;0.8287;3.4595;
103.5000;0.8278;3.4475;
103.8000;0.8295;3.4499;
104.1000;0.8278;3.4451;
104.4000;0.8295;3.4379;
104.7000;0.8295;3.4379;
105.0000;0.8295;3.4451;
105.3000;0.8303;3.4427;
105.6000;0.8303;3.4427;
105.9000;0.8295;3.4403;
106.2000;0.8311;3.4427;
106.5000;0.8303;3.4475;
106.8000;0.8311;3.4451;
107.1000;0.8303;3.4355;
107.4000;0.8303;3.4331;
107.7000;0.8295;3.4355;
108.0000;0.8303;3.4475;
108.3000;0.8311;3.4619;
108.6000;0.8295;3.4475;
108.9000;0.8303;3.4499;
109.2000;0.8303;3.4427;
109.5000;0.8303;3.4379;
109.8000;0.8295;3.4403;
110.1000;0.8287;3.4283;
110.4000;0.8270;3.4187;
110.7000;0.8287;3.4283;
111.0000;0.8295;3.4331;
111.3000;0.8270;3.4283;
111.6000;0.8311;3.4427;
111.9000;0.8303;3.4331;
112.2000;0.8311;3.4307;
112.5000;0.8287;3.4259;
112.8000;0.8303;3.4307;
113.1000;0.8287;3.4307;
113.4000;0.8303;3.4355;
113.7000;0.8295;3.4355;
114.0000;0.8319;3.4451;
114.3000;0.8287;3.4403;
114.6000;0.8303;3.4499;
114.9000;0.8295;3.4427;
115.2000;0.8295;3.4379;
115.5000;0.8303;3.4427;
115.8000;0.8303;3.4475;
116.1000;0.8254;3.4307;
116.4000;0.8303;3.4403;
116.7000;0.8319;3.4379;
117.0000;0.8319;3.4403;
117.3000;0.8303;3.4355;
117.6000;0.8311;3.4379;
117.9000;0.8303;3.4403;
118.2000;0.8303;3.4379;
118.5000;0.8319;3.4379;
118.8000;0.8303;3.4331;
119.1000;0.8303;3.4283;
119.4000;0.8303;3.4259;
119.7000;0.8311;3.4355;
120.0000;0.8295;3.4403;
120.3000;0.8295;3.4331;
120.6000;0.8319;3.4331;
120.9000;0.8327;3.4403;
121.2000;0.8311;3.4307;
121.5000;0.8319;3.4283;
121.8000;0.8319;3.4259;
122.1000;0.8327;3.4307;
122.4000;0.8303;3.4259;
122.7000;0.8295;3.4235;
123.0000;0.8295;3.4307;
123.3000;0.8311;3.4403;
123.6000;0.8311;3.4499;
123.9000;0.8368;3.4595;
124.2000;0.8319;3.4451;
124.5000;0.8319;3.4427;
124.8000;0.8303;3.4331;
125.1000;0.8319;3.4283;
125.4000;0.8287;3.4307;
125.7000;0.8254;3.4331;
126.0000;0.8335;3.4523;
126.3000;0.8327;3.4499;
126.6000;0.8303;3.4475;
126.9000;0.8303;3.4331;
127.2000;0.8319;3.4451;
127.5000;0.8303;3.4571;
127.8000;0.8303;3.4571;
128.1000;0.8392;3.4859;
128.4000;0.8303;3.4643;
128.7000;0.8278;3.4523;
129.0000;0.8303;3.4595;
129.3000;0.8311;3.4667;
129.6000;0.8335;3.4667;
129.9000;0.8311;3.4571;
130.2000;0.8295;3.4547;
130.5000;0.8262;3.4523;
130.8000;0.8319;3.4595;
131.1000;0.8319;3.4595;
131.4000;0.8311;3.4571;
131.7000;0.8319;3.4571;
132.0000;0.8327;3.4547;
132.3000;0.8327;3.4523;
132.6000;0.8319;3.4451;
132.9000;0.8319;3.4451;
133.2000;0.8311;3.4403;
133.5000;0.8311;3.4403;
133.8000;0.8303;3.4331;
134.1000;0.8311;3.4283;
134.4000;0.8335;3.4451;
134.7000;0.8344;3.4451;
135.0000;0.8303;3.4427;
135.3000;0.8311;3.4427;
135.6000;0.8311;3.4499;
135.9000;0.8319;3.4499;
136.2000;0.8327;3.4523;
136.5000;0.8327;3.4499;
136.8000;0.8311;3.4379;
137.1000;0.8335;3.4307;
137.4000;0.8319;3.4187;
137.7000;0.8311;3.4091;
138.0000;0.8311;3.4115;
138.3000;0.8327;3.4067;
138.6000;0.8392;3.4235;
138.9000;0.8311;3.4067;
139.2000;0.8319;3.4139;
139.5000;0.8303;3.4187;
139.8000;0.8311;3.4235;
140.1000;0.8319;3.4259;
140.4000;0.8311;3.4235;
140.7000;0.8303;3.4235;
141.0000;0.8327;3.4427;
141.3000;0.8319;3.4379;
141.6000;0.8287;3.4283;
141.9000;0.8311;3.4307;
142.2000;0.8311;3.4379;
142.5000;0.8319;3.4427;
142.8000;0.8352;3.4379;
143.1000;0.8344;3.4379;
143.4000;0.8360;3.4403;
143.7000;0.8319;3.4235;
144.0000;0.8327;3.4331;
144.3000;0.8344;3.4451;
144.6000;0.8335;3.4379;
144.9000;0.8384;3.4355;
145.2000;0.8311;3.4163;
145.5000;0.8295;3.4163;
145.8000;0.8262;3.4091;
146.1000;0.8327;3.4283;
146.4000;0.8303;3.4259;
146.7000;0.8311;3.4283;
147.0000;0.8303;3.4403;
147.3000;0.8295;3.4355;
147.6000;0.8303;3.4235;
147.9000;0.8311;3.4211;
148.2000;0.8295;3.4211;
148.5000;0.8303;3.4163;
148.8000;0.8319;3.4259;
149.1000;0.8344;3.4283;
149.4000;0.8303;3.4283;
149.7000;0.8327;3.4163;
150.0000;0.8392;3.4259;
150.3000;0.8327;3.4163;
150.6000;0.8327;3.4187;
150.9000;0.8295;3.4139;
151.2000;0.8327;3.4187;
151.5000;0.8327;3.4115;
151.8000;0.8311;3.4067;
152.1000;0.8303;3.4115;
152.4000;0.8303;3.4091;
152.7000;0.8311;3.4091;
153.0000;0.8311;3.4211;
153.3000;0.8311;3.4187;
153.6000;0.8327;3.4307;
153.9000;0.8344;3.4331;
154.2000;0.8303;3.4259;
154.5000;0.8303;3.4235;
154.8000;0.8311;3.4307;
155.1000;0.8311;3.4355;
155.4000;0.8319;3.4475;
155.7000;0.8311;3.4451;
156.0000;0.8319;3.4475;
156.3000;0.8319;3.4499;
156.6000;0.8327;3.4547;
156.9000;0.8319;3.4571;
157.2000;0.8311;3.4571;
157.5000;0.8311;3.4523;
157.8000;0.8327;3.4499;
158.1000;0.8319;3.4427;
158.4000;0.8335;3.4475;
158.7000;0.8335;3.4451;
159.0000;0.8311;3.4427;
159.3000;0.8319;3.4427;
159.6000;0.8417;3.4691;
159.9000;0.8319;3.4451;
160.2000;0.8400;3.4667;
160.5000;0.8327;3.4475;
160.8000;0.8319;3.4475;
161.1000;0.8319;3.4523;
161.4000;0.8335;3.4499;
161.7000;0.8319;3.4331;
162.0000;0.8254;3.4259;
162.3000;0.8327;3.4379;
162.6000;0.8319;3.4355;
162.9000;0.8319;3.4427;
163.2000;0.8344;3.4379;
163.5000;0.8295;3.4307;
163.8000;0.8335;3.4379;
164.1000;0.8270;3.4307;
164.4000;0.8311;3.4331;
164.7000;0.8295;3.4307;
165.0000;0.8295;3.4307;
165.3000;0.8319;3.4307;
165.6000;0.8368;3.4403;
165.9000;0.8319;3.4283;
166.2000;0.8352;3.4307;
166.5000;0.8327;3.4283;
166.8000;0.8400;3.4379;
167.1000;0.8327;3.4139;
167.4000;0.8352;3.4043;
167.7000;0.8335;3.3947;
168.0000;0.8335;3.3971;
168.3000;0.8376;3.4139;
168.6000;0.8327;3.4043;
168.9000;0.8360;3.4211;
169.2000;0.8335;3.4091;
169.5000;0.8311;3.4115;
169.8000;0.8335;3.4187;
170.1000;0.8303;3.4187;
170.4000;0.8311;3.4259;
170.7000;0.8376;3.4355;
171.0000;0.8303;3.4211;
171.3000;0.8311;3.4235;
171.6000;0.8352;3.4307;
171.9000;0.8295;3.4187;
172.2000;0.8311;3.4211;
172.5000;0.8335;3.4259;
172.8000;0.8319;3.4259;
173.1000;0.8311;3.4115;
173.4000;0.8319;3.4187;
173.7000;0.8335;3.4259;
174.0000;0.8360;3.4163;
174.3000;0.8335;3.4115;
174.6000;0.8303;3.4091;
174.9000;0.8360;3.4163;
175.2000;0.8344;3.4091;
175.5000;0.8319;3.4067;
175.8000;0.8327;3.4115;
176.1000;0.8319;3.4211;
176.4000;0.8327;3.4259;
176.7000;0.8392;3.4475;
177.0000;0.8327;3.4331;
177.3000;0.8335;3.4379;
177.6000;0.8376;3.4499;
177.9000;0.8303;3.4307;
178.2000;0.8319;3.4283;
178.5000;0.8384;3.4451;
178.8000;0.8311;3.4355;
179.1000;0.8319;3.4379;
179.4000;0.8327;3.4379;
179.7000;0.8327;3.4331;
180.0000;0.8327;3.4259;
180.3000;0.8295;3.4187;
180.6000;0.8295;3.4187;
180.9000;0.8327;3.4235;
181.2000;0.8311;3.4283;
181.5000;0.8360;3.4379;
181.8000;0.8327;3.4331;
182.1000;0.8319;3.4355;
182.4000;0.8319;3.4307;
182.7000;0.8327;3.4379;
183.0000;0.8344;3.4403;
183.3000;0.8303;3.4235;
183.6000;0.8311;3.4307;
183.9000;0.8319;3.4331;
184.2000;0.8327;3.4307;
184.5000;0.8327;3.4235;
184.8000;0.8230;3.4067;
185.1000;0.8327;3.4307;
185.4000;0.8335;3.4355;
185.7000;0.8319;3.4355;
186.0000;0.8319;3.4355;
186.3000;0.8303;3.4355;
186.6000;0.8335;3.4355;
186.9000;0.8335;3.4283;
187.2000;0.8319;3.4211;
187.5000;0.8327;3.4259;
187.8000;0.8311;3.4283;
188.1000;0.8335;3.4307;
188.4000;0.8335;3.4355;
188.7000;0.8319;3.4235;
189.0000;0.8303;3.4163;
189.3000;0.8344;3.4259;
189.6000;0.8335;3.4259;
189.9000;0.8303;3.4235;
190.2000;0.8295;3.4115;
190.5000;0.8319;3.4139;
190.8000;0.8344;3.4187;
191.1000;0.8319;3.4187;
191.4000;0.8376;3.4331;
191.7000;0.8319;3.4115;
192.0000;0.8311;3.4235;
192.3000;0.8327;3.4187;
192.6000;0.8303;3.4235;
192.9000;0.8319;3.4283;
193.2000;0.8319;3.4259;
193.5000;0.8311;3.4139;
193.8000;0.8311;3.4211;
194.1000;0.8238;3.3923;
194.4000;0.8238;3.3923;
194.7000;0.8303;3.4115;
195.0000;0.8311;3.4163;
195.3000;0.8311;3.4283;
195.6000;0.8303;3.4283;
195.9000;0.8278;3.4163;
196.2000;0.8303;3.4307;
196.5000;0.8303;3.4259;
196.8000;0.8327;3.4307;
197.1000;0.8352;3.4307;
197.4000;0.8319;3.4283;
197.7000;0.8319;3.4355;
198.0000;0.8319;3.4307;
198.3000;0.8327;3.4403;
198.6000;0.8327;3.4403;
198.9000;0.8327;3.4331;
199.2000;0.8360;3.4355;
199.5000;0.8303;3.4187;
199.8000;0.8303;3.4307;
200.1000;0.8319;3.4259;
200.4000;0.8335;3.4283;
200.7000;0.8344;3.4283;
201.0000;0.8327;3.4187;
201.3000;0.8384;3.4307;
201.6000;0.8376;3.4403;
201.9000;0.8352;3.4235;
202.2000;0.8400;3.4331;
202.5000;0.8327;3.4139;
202.8000;0.8376;3.4235;
203.1000;0.8319;3.4091;
203.4000;0.8335;3.4187;
203.7000;0.8327;3.4211;
204.0000;0.8327;3.4235;
204.3000;0.8327;3.4307;
204.6000;0.8311;3.4235;
204.9000;0.8327;3.4211;
205.2000;0.8327;3.4259;
205.5000;0.8319;3.4283;
205.8000;0.8327;3.4307;
206.1000;0.8344;3.4259;
206.4000;0.8319;3.4283;
206.7000;0.8319;3.4259;
207.0000;0.8409;3.4331;
207.3000;0.8352;3.4235;
207.6000;0.8303;3.4091;
207.9000;0.8344;3.4211;
208.2000;0.8327;3.4139;
208.5000;0.8335;3.4187;
208.8000;0.8270;3.4067;
209.1000;0.8335;3.4235;
209.4000;0.8287;3.4235;
209.7000;0.8344;3.4307;
210.0000;0.8335;3.4283;
210.3000;0.8319;3.4307;
210.6000;0.8311;3.4235;
210.9000;0.8335;3.4235;
211.2000;0.8344;3.4139;
211.5000;0.8327;3.4139;
211.8000;0.8360;3.4235;
212.1000;0.8417;3.4427;
212.4000;0.8319;3.4211;
212.7000;0.8303;3.4235;
213.0000;0.8335;3.4211;
213.3000;0.8335;3.4211;
213.6000;0.8352;3.4379;
213.9000;0.8352;3.4331;
214.2000;0.8311;3.4259;
214.5000;0.8327;3.4235;
214.8000;0.8319;3.4307;
215.1000;0.8319;3.4331;
215.4000;0.8311;3.4283;
215.7000;0.8311;3.4283;
216.0000;0.8335;3.4427;
216.3000;0.8327;3.4331;
216.6000;0.8335;3.4355;
216.9000;0.8319;3.4307;
217.2000;0.8319;3.4283;
217.5000;0.8344;3.4331;
217.8000;0.8335;3.4331;
218.1000;0.8303;3.4259;
218.4000;0.8360;3.4235;
218.7000;0.8335;3.4211;
219.0000;0.8319;3.4283;
219.3000;0.8311;3.4427;
219.6000;0.8319;3.4499;
219.9000;0.8319;3.4571;
220.2000;0.8311;3.4499;
220.5000;0.8368;3.4595;
220.8000;0.8311;3.4451;
221.1000;0.8319;3.4403;
221.4000;0.8327;3.4427;
221.7000;0.8344;3.4451;
222.0000;0.8327;3.4427;
222.3000;0.8335;3.4475;
222.6000;0.8441;3.4691;
222.9000;0.8327;3.4427;
223.2000;0.8335;3.4451;
223.5000;0.8409;3.4643;
223.8000;0.8352;3.4451;
224.1000;0.8327;3.4379;
224.4000;0.8319;3.4307;
224.7000;0.8360;3.4403;
225.0000;0.8335;3.4355;
225.3000;0.8319;3.4331;
225.6000;0.8344;3.4403;
225.9000;0.8327;3.4379;
226.2000;0.8335;3.4355;
226.5000;0.8344;3.4307;
226.8000;0.8344;3.4283;
227.1000;0.8335;3.4283;
227.4000;0.8360;3.4283;
227.7000;0.8344;3.4307;
228.0000;0.8344;3.4403;
228.3000;0.8327;3.4331;
228.6000;0.8327;3.4259;
228.9000;0.8327;3.4307;
229.2000;0.8319;3.4235;
229.5000;0.8319;3.4283;
229.8000;0.8319;3.4283;
230.1000;0.8295;3.4211;
230.4000;0.8327;3.4235;
230.7000;0.8319;3.4235;
231.0000;0.8335;3.4331;
231.3000;0.8335;3.4379;
231.6000;0.8327;3.4331;
231.9000;0.8335;3.4427;
232.2000;0.8344;3.4355;
232.5000;0.8344;3.4331;
232.8000;0.8392;3.4475;
233.1000;0.8287;3.4259;
233.4000;0.8327;3.4259;
233.7000;0.8327;3.4259;
234.0000;0.8335;3.4283;
234.3000;0.8335;3.4403;
234.6000;0.8335;3.4331;
234.9000;0.8327;3.4283;
235.2000;0.8335;3.4307;
235.5000;0.8327;3.4259;
235.8000;0.8327;3.4211;
236.1000;0.8392;3.4379;
236.4000;0.8327;3.4187;
236.7000;0.8352;3.4235;
237.0000;0.8327;3.4163;
237.3000;0.8335;3.4235;
237.6000;0.8344;3.4283;
237.9000;0.8327;3.4211;
238.2000;0.8344;3.4259;
238.5000;0.8327;3.4115;
238.8000;0.8311;3.4115;
239.1000;0.8327;3.4187;
239.4000;0.8344;3.4259;
239.7000;0.8319;3.4187;
240.0000;0.8344;3.4139;
240.3000;0.8319;3.4091;
240.6000;0.8295;3.3899;
240.9000;0.8327;3.3971;
241.2000;0.8327;3.3971;
241.5000;0.8311;3.4091;
241.8000;0.8311;3.4139;
242.1000;0.8335;3.4211;
242.4000;0.8327;3.4235;
242.7000;0.8319;3.4211;
243.0000;0.8319;3.4163;
243.3000;0.8319;3.4259;
243.6000;0.8360;3.4379;
243.9000;0.8311;3.4283;
244.2000;0.8335;3.4331;
244.5000;0.8327;3.4283;
244.8000;0.8319;3.4283;
245.1000;0.8311;3.4235;
245.4000;0.8311;3.4115;
245.7000;0.8327;3.4091;
246.0000;0.8319;3.4091;
246.3000;0.8335;3.4067;
246.6000;0.8295;3.4043;
246.9000;0.8287;3.4067;
247.2000;0.8303;3.4139;
247.5000;0.8287;3.4139;
247.8000;0.8335;3.4379;
248.1000;0.8327;3.4403;
248.4000;0.8303;3.4307;
248.7000;0.8327;3.4283;
249.0000;0.8327;3.4283;
249.3000;0.8327;3.4283;
249.6000;0.8311;3.4283;
249.9000;0.8360;3.4355;
250.2000;0.8335;3.4283;
250.5000;0.8335;3.4283;
250.8000;0.8311;3.4163;
251.1000;0.8319;3.4187;
251.4000;0.8335;3.4235;
251.7000;0.8335;3.4259;
252.0000;0.8344;3.4187;
252.3000;0.8319;3.4043;
252.6000;0.8319;3.4067;
252.9000;0.8327;3.4067;
253.2000;0.8319;3.4091;
253.5000;0.8319;3.4091;
253.8000;0.8319;3.4091;
254.1000;0.8360;3.4163;
254.4000;0.8319;3.4139;
254.7000;0.8311;3.4163;
255.0000;0.8311;3.4115;
255.3000;0.8327;3.4115;
255.6000;0.8327;3.4067;
255.9000;0.8319;3.4067;
256.2000;0.8311;3.4067;
256.5000;0.8327;3.4115;
256.8000;0.8335;3.4091;
257.1000;0.8344;3.4163;
257.4000;0.8335;3.4283;
257.7000;0.8327;3.4211;
258.0000;0.8327;3.4283;
258.3000;0.8335;3.4307;
258.6000;0.8319;3.4307;
258.9000;0.8319;3.4235;
259.2000;0.8311;3.4235;
259.5000;0.8344;3.4235;
259.8000;0.8327;3.4163;
260.1000;0.8311;3.4067;
260.4000;0.8344;3.4163;
260.7000;0.8344;3.4187;
261.0000;0.8303;3.4115;
261.3000;0.8327;3.4115;
261.6000;0.8327;3.4163;
261.9000;0.8287;3.4067;
262.2000;0.8311;3.4115;
262.5000;0.8327;3.4187;
262.8000;0.8335;3.4163;
263.1000;0.8278;3.4019;
263.4000;0.8335;3.4235;
263.7000;0.8335;3.4259;
264.0000;0.8335;3.4259;
264.3000;0.8344;3.4283;
264.6000;0.8311;3.4139;
264.9000;0.8335;3.4187;
265.2000;0.8327;3.4211;
265.5000;0.8400;3.4259;
265.8000;0.8335;3.4091;
266.1000;0.8384;3.4283;
266.4000;0.8360;3.4211;
266.7000;0.8303;3.4139;
267.0000;0.8344;3.4331;
267.3000;0.8344;3.4331;
267.6000;0.8327;3.4379;
267.9000;0.8344;3.4403;
268.2000;0.8344;3.4571;
268.5000;0.8287;3.4475;
268.8000;0.8335;3.4595;
269.1000;0.8335;3.4571;
269.4000;0.8344;3.4547;
269.7000;0.8344;3.4619;
270.0000;0.8327;3.4499;
270.3000;0.8335;3.4499;
270.6000;0.8352;3.4451;
270.9000;0.8327;3.4331;
271.2000;0.8311;3.4259;
271.5000;0.8335;3.4283;
271.8000;0.8319;3.4259;
272.1000;0.8344;3.4307;
272.4000;0.8311;3.4163;
272.7000;0.8327;3.4283;
273.0000;0.8319;3.4259;
273.3000;0.8360;3.4451;
273.6000;0.8327;3.4451;
273.9000;0.8319;3.4451;
274.2000;0.8319;3.4475;
274.5000;0.8327;3.4499;
274.8000;0.8327;3.4523;
275.1000;0.8295;3.4499;
275.4000;0.8327;3.4571;
275.7000;0.8335;3.4619;
276.0000;0.8303;3.4499;
276.3000;0.8335;3.4571;
276.6000;0.8327;3.4499;
276.9000;0.8335;3.4523;
277.2000;0.8344;3.4523;
277.5000;0.8335;3.4475;
277.8000;0.8344;3.4451;
278.1000;0.8311;3.4379;
278.4000;0.8335;3.4475;
278.7000;0.8311;3.4355;
279.0000;0.8327;3.4331;
279.3000;0.8335;3.4379;
279.6000;0.8327;3.4307;
279.9000;0.8368;3.4379;
280.2000;0.8287;3.4355;
280.5000;0.8335;3.4619;
280.8000;0.8327;3.4547;
281.1000;0.8352;3.4595;
281.4000;0.8327;3.4523;
281.7000;0.8319;3.4475;
282.0000;0.8335;3.4499;
282.3000;0.8327;3.4475;
282.6000;0.8327;3.4523;
282.9000;0.8335;3.4571;
283.2000;0.8335;3.4595;
283.5000;0.8344;3.4619;
283.8000;0.8335;3.4571;
284.1000;0.8319;3.4523;
284.4000;0.8335;3.4427;
284.7000;0.8344;3.4475;
285.0000;0.8311;3.4427;
285.3000;0.8335;3.4427;
285.6000;0.8344;3.4427;
285.9000;0.8327;3.4427;
286.2000;0.8335;3.4451;
286.5000;0.8311;3.4379;
286.8000;0.8352;3.4379;
287.1000;0.8287;3.4259;
287.4000;0.8352;3.4379;
287.7000;0.8327;3.4331;
288.0000;0.8327;3.4355;
288.3000;0.8319;3.4331;
288.6000;0.8335;3.4331;
288.9000;0.8319;3.4259;
289.2000;0.8344;3.4379;
289.5000;0.8327;3.4331;
289.8000;0.8238;3.4043;
290.1000;0.8319;3.4235;
290.4000;0.8303;3.4283;
290.7000;0.8319;3.4283;
291.0000;0.8303;3.4235;
291.3000;0.8327;3.4283;
291.6000;0.8335;3.4331;
291.9000;0.8360;3.4427;
292.2000;0.8344;3.4355;
292.5000;0.8335;3.4307;
292.8000;0.8311;3.4307;
293.1000;0.8327;3.4331;
293.4000;0.8344;3.4307;
293.7000;0.8319;3.4211;
294.0000;0.8327;3.4259;
294.3000;0.8303;3.4211;
294.6000;0.8319;3.4307;
294.9000;0.8287;3.4283;
295.2000;0.8303;3.4307;
295.5000;0.8335;3.4427;
295.8000;0.8319;3.4379;
296.1000;0.8319;3.4283;
296.4000;0.8270;3.4115;
296.7000;0.8319;3.4163;
297.0000;0.8319;3.4187;
297.3000;0.8295;3.4187;
297.6000;0.8230;3.4067;
297.9000;0.8295;3.4331;
298.2000;0.8311;3.4403;
298.5000;0.8384;3.4475;
298.8000;0.8384;3.4403;
299.1000;0.8319;3.4211;
299.4000;0.8311;3.4211;
299.7000;0.8319;3.4163;
300.0000;0.8360;3.4259;
300.3000;0.8327;3.4115;
300.6000;0.8254;3.3875;
300.9000;0.8344;3.4115;
301.2000;0.8376;3.4259;
301.5000;0.8335;3.4091;
301.8000;0.8319;3.4019;
302.1000;0.8311;3.3971;
302.4000;0.8319;3.3947;
302.7000;0.8327;3.4115;
303.0000;0.8319;3.4115;
303.3000;0.8327;3.4115;
303.6000;0.8335;3.4211;
303.9000;0.8335;3.4259;
304.2000;0.8433;3.4427;
304.5000;0.8344;3.4211;
304.8000;0.8327;3.4139;
305.1000;0.8319;3.4235;
305.4000;0.8319;3.4163;
305.7000;0.8352;3.4187;
306.0000;0.8319;3.4139;
306.3000;0.8352;3.4115;
306.6000;0.8311;3.3971;
306.9000;0.8303;3.3851;
307.2000;0.8335;3.3923;
307.5000;0.8327;3.3923;
307.8000;0.8327;3.3851;
308.1000;0.8311;3.3875;
308.4000;0.8327;3.4043;
308.7000;0.8327;3.3995;
309.0000;0.8335;3.4019;
309.3000;0.8319;3.3995;
309.6000;0.8335;3.4019;
309.9000;0.8335;3.4067;
310.2000;0.8303;3.3971;
310.5000;0.8335;3.3923;
310.8000;0.8319;3.3923;
311.1000;0.8319;3.3971;
311.4000;0.8335;3.4115;
311.7000;0.8295;3.3995;
312.0000;0.8327;3.4043;
312.3000;0.8327;3.4115;
312.6000;0.8327;3.4091;
312.9000;0.8344;3.4163;
313.2000;0.8327;3.4091;
313.5000;0.8335;3.4091;
313.8000;0.8344;3.4091;
314.1000;0.8303;3.4043;
314.4000;0.8352;3.4163;
314.7000;0.8335;3.4115;
315.0000;0.8327;3.4043;
315.3000;0.8311;3.4067;
315.6000;0.8262;3.3923;
315.9000;0.8344;3.4235;
316.2000;0.8311;3.4187;
316.5000;0.8254;3.4043;
316.8000;0.8287;3.4163;
317.1000;0.8344;3.4259;
317.4000;0.8335;3.4259;
317.7000;0.8344;3.4259;
318.0000;0.8327;3.4163;
318.3000;0.8319;3.4115;
318.6000;0.8319;3.4115;
318.9000;0.8319;3.4115;
319.2000;0.8327;3.4235;
319.5000;0.8327;3.4091;
319.8000;0.8327;3.4139;
320.1000;0.8344;3.4211;
320.4000;0.8392;3.4331;
320.7000;0.8295;3.4115;
321.0000;0.8311;3.4067;
321.3000;0.8303;3.4091;
321.6000;0.8327;3.4259;
321.9000;0.8335;3.4283;
322.2000;0.8327;3.4187;
322.5000;0.8262;3.4019;
322.8000;0.8368;3.4187;
323.1000;0.8319;3.4019;
323.4000;0.8376;3.4187;
323.7000;0.8262;3.4067;
324.0000;0.8392;3.4355;
324.3000;0.8311;3.4235;
324.6000;0.8319;3.4235;
324.9000;0.8319;3.4235;
325.2000;0.8319;3.4307;
325.5000;0.8327;3.4283;
325.8000;0.8303;3.4211;
326.1000;0.8319;3.4283;
326.4000;0.8319;3.4235;
326.7000;0.8319;3.4307;
327.0000;0.8335;3.4307;
327.3000;0.8327;3.4211;
327.6000;0.8344;3.4283;
327.9000;0.8327;3.4283;
328.2000;0.8311;3.4283;
328.5000;0.8319;3.4259;
328.8000;0.8327;3.4283;
329.1000;0.8344;3.4307;
329.4000;0.8311;3.4187;
329.7000;0.8303;3.4187;
330.0000;0.8327;3.4235;
330.3000;0.8287;3.4211;
330.6000;0.8327;3.4259;
330.9000;0.8287;3.4163;
331.2000;0.8327;3.4307;
331.5000;0.8327;3.4283;
331.8000;0.8344;3.4331;
332.1000;0.8311;3.4283;
332.4000;0.8311;3.4355;
332.7000;0.8360;3.4475;
333.0000;0.8409;3.4619;
333.3000;0.8335;3.4427;
333.6000;0.8311;3.4355;
333.9000;0.8311;3.4355;
334.2000;0.8352;3.4355;
334.5000;0.8303;3.4211;
334.8000;0.8327;3.4259;
335.1000;0.8311;3.4259;
335.4000;0.8319;3.4283;
335.7000;0.8344;3.4403;
336.0000;0.8344;3.4499;
336.3000;0.8246;3.4235;
336.6000;0.8327;3.4403;
336.9000;0.8344;3.4475;
337.2000;0.8311;3.4499;
337.5000;0.8335;3.4523;
337.8000;0.8319;3.4523;
338.1000;0.8319;3.4451;
338.4000;0.8344;3.4451;
338.7000;0.8278;3.4307;
339.0000;0.8254;3.4283;
339.3000;0.8344;3.4523;
339.6000;0.8319;3.4451;
339.9000;0.8327;3.4451;
340.2000;0.8246;3.4331;
340.5000;0.8327;3.4571;
340.8000;0.8327;3.4595;
341.1000;0.8303;3.4499;
341.4000;0.8335;3.4499;
341.7000;0.8319;3.4451;
342.0000;0.8278;3.4307;
342.3000;0.8319;3.4403;
342.6000;0.8270;3.4283;
342.9000;0.8278;3.4355;
343.2000;0.8319;3.4427;
343.5000;0.8319;3.4355;
343.8000;0.8327;3.4307;
344.1000;0.8344;3.4403;
344.4000;0.8319;3.4379;
344.7000;0.8335;3.4355;
345.0000;0.8319;3.4379;
345.3000;0.8319;3.4331;
345.6000;0.8319;3.4379;
345.9000;0.8311;3.4355;
346.2000;0.8311;3.4307;
346.5000;0.8311;3.4355;
346.8000;0.8335;3.4235;
347.1000;0.8335;3.4283;
347.4000;0.8335;3.4379;
347.7000;0.8319;3.4379;
348.0000;0.8344;3.4427;
348.3000;0.8327;3.4451;
348.6000;0.8335;3.4523;
348.9000;0.8319;3.4523;
349.2000;0.8319;3.4619;
349.5000;0.8311;3.4571;
349.8000;0.8327;3.4595;
350.1000;0.8311;3.4571;
350.4000;0.8319;3.4547;
350.7000;0.8319;3.4499;
351.0000;0.8335;3.4499;
351.3000;0.8335;3.4547;
351.6000;0.8311;3.4475;
351.9000;0.8287;3.4451;
352.2000;0.8344;3.4571;
352.5000;0.8327;3.4451;
352.8000;0.8303;3.4451;
353.1000;0.8311;3.4523;
353.4000;0.8319;3.4427;
353.7000;0.8303;3.4451;
354.0000;0.8319;3.4475;
354.3000;0.8319;3.4451;
354.6000;0.8319;3.4403;
354.9000;0.8311;3.4259;
355.2000;0.8246;3.4187;
355.5000;0.8303;3.4331;
355.8000;0.8319;3.4355;
356.1000;0.8368;3.4523;
356.4000;0.8213;3.4163;
356.7000;0.8311;3.4403;
357.0000;0.8335;3.4451;
357.3000;0.8335;3.4499;
357.6000;0.8295;3.4403;
357.9000;0.8319;3.4475;
358.2000;0.8262;3.4331;
358.5000;0.8327;3.4499;
358.8000;0.8335;3.4499;
359.1000;0.8344;3.4547;
359.4000;0.8327;3.4547;
359.7000;0.8335;3.4499;
360.0000;0.8327;3.4475;
360.3000;0.8344;3.4475;
360.6000;0.8319;3.4475;
360.9000;0.8352;3.4547;
361.2000;0.8295;3.4427;
361.5000;0.8295;3.4427;
361.8000;0.8311;3.4451;
362.1000;0.8344;3.4523;
362.4000;0.8319;3.4475;
362.7000;0.8319;3.4451;
363.0000;0.8327;3.4451;
363.3000;0.8319;3.4475;
363.6000;0.8319;3.4523;
363.9000;0.8327;3.4475;
364.2000;0.8384;3.4571;
364.5000;0.8400;3.4523;
364.8000;0.8335;3.4379;
365.1000;0.8327;3.4355;
365.4000;0.8319;3.4307;
365.7000;0.8303;3.4379;
366.0000;0.8311;3.4451;
366.3000;0.8303;3.4427;
366.6000;0.8319;3.4427;
366.9000;0.8319;3.4379;
367.2000;0.8303;3.4499;
367.5000;0.8344;3.4475;
367.8000;0.8303;3.4403;
368.1000;0.8327;3.4523;
368.4000;0.8344;3.4499;
368.7000;0.8400;3.4643;
369.0000;0.8319;3.4427;
369.3000;0.8311;3.4427;
369.6000;0.8327;3.4451;
369.9000;0.8417;3.4643;
370.2000;0.8327;3.4355;
370.5000;0.8303;3.4331;
370.8000;0.8295;3.4283;
371.1000;0.8311;3.4259;
371.4000;0.8319;3.4283;
371.7000;0.8295;3.4235;
372.0000;0.8327;3.4283;
372.3000;0.8319;3.4355;
372.6000;0.8392;3.4475;
372.9000;0.8327;3.4331;
373.2000;0.8303;3.4379;
373.5000;0.8335;3.4451;
373.8000;0.8327;3.4427;
374.1000;0.8335;3.4379;
374.4000;0.8319;3.4331;
374.7000;0.8327;3.4307;
375.0000;0.8327;3.4283;
375.3000;0.8319;3.4283;
375.6000;0.8303;3.4211;
375.9000;0.8311;3.4259;
376.2000;0.8311;3.4331;
376.5000;0.8303;3.4283;
376.8000;0.8311;3.4307;
377.1000;0.8335;3.4307;
377.4000;0.8327;3.4259;
377.7000;0.8327;3.4259;
378.0000;0.8262;3.4067;
378.3000;0.8368;3.4355;
378.6000;0.8335;3.4259;
378.9000;0.8319;3.4139;
379.2000;0.8254;3.3947;
379.5000;0.8311;3.4115;
379.8000;0.8319;3.4067;
380.1000;0.8311;3.4139;
380.4000;0.8352;3.4331;
380.7000;0.8319;3.4259;
381.0000;0.8295;3.4283;
381.3000;0.8262;3.4091;
381.6000;0.8319;3.4187;
381.9000;0.8319;3.4211;
382.2000;0.8327;3.4163;
382.5000;0.8344;3.4187;
382.8000;0.8319;3.4187;
383.1000;0.8327;3.4211;
383.4000;0.8287;3.4187;
383.7000;0.8311;3.4211;
384.0000;0.8344;3.4355;
384.3000;0.8352;3.4355;
384.6000;0.8311;3.4355;
384.9000;0.8311;3.4379;
385.2000;0.8327;3.4379;
385.5000;0.8303;3.4427;
385.8000;0.8303;3.4475;
386.1000;0.8335;3.4547;
386.4000;0.8327;3.4547;
386.7000;0.8303;3.4499;
387.0000;0.8303;3.4475;
387.3000;0.8327;3.4499;
387.6000;0.8352;3.4547;
387.9000;0.8319;3.4451;
388.2000;0.8327;3.4499;
388.5000;0.8327;3.4523;
388.8000;0.8335;3.4523;
389.1000;0.8311;3.4523;
389.4000;0.8311;3.4571;
389.7000;0.8303;3.4499;
390.0000;0.8368;3.4643;
390.3000;0.8335;3.4475;
390.6000;0.8335;3.4427;
390.9000;0.8319;3.4331;
391.2000;0.8327;3.4331;
391.5000;0.8335;3.4307;
391.8000;0.8327;3.4211;
392.1000;0.8319;3.4139;
392.4000;0.8311;3.4259;
392.7000;0.8335;3.4331;
393.0000;0.8319;3.4283;
393.3000;0.8311;3.4187;
393.6000;0.8376;3.4331;
393.9000;0.8327;3.4259;
394.2000;0.8344;3.4283;
394.5000;0.8319;3.4259;
394.8000;0.8221;3.4043;
395.1000;0.8319;3.4211;
395.4000;0.8311;3.4163;
395.7000;0.8482;3.4619;
396.0000;0.8327;3.4283;
396.3000;0.8319;3.4307;
396.6000;0.8319;3.4283;
396.9000;0.8344;3.4499;
397.2000;0.8311;3.4547;
397.5000;0.8303;3.4547;
397.8000;0.8344;3.4547;
398.1000;0.8319;3.4403;
398.4000;0.8335;3.4427;
398.7000;0.8311;3.4523;
399.0000;0.8319;3.4547;
399.3000;0.8327;3.4499;
399.6000;0.8327;3.4571;
399.9000;0.8335;3.4547;
400.2000;0.8319;3.4403;
400.5000;0.8335;3.4403;
400.8000;0.8303;3.4355;
401.1000;0.8295;3.4307;
401.4000;0.8319;3.4331;
401.7000;0.8270;3.4283;
402.0000;0.8311;3.4331;
402.3000;0.8311;3.4355;
402.6000;0.8319;3.4331;
402.9000;0.8327;3.4211;
403.2000;0.8311;3.4259;
403.5000;0.8327;3.4211;
403.8000;0.8319;3.4259;
404.1000;0.8287;3.4211;
404.4000;0.8311;3.4307;
404.7000;0.8311;3.4331;
405.0000;0.8311;3.4307;
405.3000;0.8360;3.4379;
405.6000;0.8319;3.4283;
405.9000;0.8319;3.4307;
406.2000;0.8319;3.4331;
406.5000;0.8295;3.4307;
406.8000;0.8327;3.4427;
407.1000;0.8319;3.4427;
407.4000;0.8335;3.4355;
407.7000;0.8368;3.4523;
408.0000;0.8344;3.4427;
408.3000;0.8335;3.4355;
408.6000;0.8319;3.4379;
408.9000;0.8327;3.4379;
409.2000;0.8327;3.4331;
409.5000;0.8344;3.4379;
409.8000;0.8319;3.4379;
410.1000;0.8368;3.4595;
410.4000;0.8327;3.4595;
410.7000;0.8376;3.4691;
411.0000;0.8311;3.4547;
411.3000;0.8311;3.4571;
411.6000;0.8335;3.4547;
411.9000;0.8319;3.4595;
412.2000;0.8311;3.4619;
412.5000;0.8311;3.4619;
412.8000;0.8303;3.4475;
413.1000;0.8344;3.4571;
413.4000;0.8319;3.4475;
413.7000;0.8311;3.4475;
414.0000;0.8319;3.4523;
414.3000;0.8319;3.4451;
414.6000;0.8319;3.4475;
414.9000;0.8311;3.4499;
415.2000;0.8287;3.4499;
415.5000;0.8311;3.4475;
415.8000;0.8384;3.4571;
416.1000;0.8311;3.4379;
416.4000;0.8287;3.4307;
416.7000;0.8287;3.4355;
417.0000;0.8303;3.4283;
417.3000;0.8319;3.4283;
417.6000;0.8319;3.4379;
417.9000;0.8311;3.4403;
418.2000;0.8344;3.4427;
418.5000;0.8384;3.4619;
418.8000;0.8335;3.4547;
419.1000;0.8303;3.4451;
419.4000;0.8319;3.4475;
419.7000;0.8319;3.4403;
420.0000;0.8303;3.4331;
420.3000;0.8303;3.4379;
420.6000;0.8295;3.4283;
420.9000;0.8311;3.4283;
421.2000;0.8311;3.4259;
421.5000;0.8303;3.4331;
421.8000;0.8303;3.4403;
422.1000;0.8319;3.4451;
422.4000;0.8319;3.4427;
422.7000;0.8335;3.4523;
423.0000;0.8319;3.4547;
423.3000;0.8327;3.4571;
423.6000;0.8319;3.4547;
423.9000;0.8327;3.4571;
424.2000;0.8335;3.4451;
424.5000;0.8319;3.4451;
424.8000;0.8303;3.4355;
425.1000;0.8327;3.4403;
425.4000;0.8311;3.4427;
425.7000;0.8327;3.4427;
426.0000;0.8368;3.4403;
426.3000;0.8376;3.4451;
426.6000;0.8303;3.4283;
426.9000;0.8311;3.4259;
427.2000;0.8327;3.4355;
427.5000;0.8319;3.4331;
427.8000;0.8303;3.4307;
428.1000;0.8344;3.4379;
428.4000;0.8384;3.4547;
428.7000;0.8327;3.4499;
429.0000;0.8327;3.4475;
429.3000;0.8335;3.4475;
429.6000;0.8311;3.4379;
429.9000;0.8319;3.4427;
430.2000;0.8303;3.4355;
430.5000;0.8327;3.4403;
430.8000;0.8327;3.4331;
431.1000;0.8335;3.4355;
431.4000;0.8311;3.4235;
431.7000;0.8368;3.4355;
432.0000;0.8368;3.4451;
432.3000;0.8344;3.4403;
432.6000;0.8327;3.4283;
432.9000;0.8319;3.4259;
433.2000;0.8327;3.4331;
433.5000;0.8335;3.4379;
433.8000;0.8335;3.4379;
434.1000;0.8327;3.4331;
434.4000;0.8327;3.4403;
434.7000;0.8295;3.4307;
435.0000;0.8287;3.4283;
435.3000;0.8335;3.4427;
435.6000;0.8319;3.4331;
435.9000;0.8327;3.4331;
436.2000;0.8352;3.4355;
436.5000;0.8319;3.4283;
436.8000;0.8319;3.4307;
437.1000;0.8327;3.4331;
437.4000;0.8327;3.4331;
437.7000;0.8327;3.4403;
438.0000;0.8327;3.4379;
438.3000;0.8319;3.4427;
438.6000;0.8327;3.4379;
438.9000;0.8335;3.4379;
439.2000;0.8327;3.4451;
439.5000;0.8335;3.4451;
439.8000;0.8303;3.4403;
440.1000;0.8335;3.4523;
440.4000;0.8352;3.4595;
440.7000;0.8311;3.4475;
441.0000;0.8319;3.4475;
441.3000;0.8278;3.4427;
441.6000;0.8270;3.4259;
441.9000;0.8278;3.4211;
442.2000;0.8327;3.4283;
442.5000;0.8303;3.4139;
442.8000;0.8278;3.4067;
443.1000;0.8303;3.4115;
443.4000;0.8295;3.4115;
443.7000;0.8327;3.4187;
444.0000;0.8335;3.4187;
444.3000;0.8319;3.4187;
444.6000;0.8319;3.4307;
444.9000;0.8327;3.4307;
445.2000;0.8319;3.4283;
445.5000;0.8319;3.4283;
445.8000;0.8319;3.4259;
446.1000;0.8319;3.4259;
446.4000;0.8311;3.4259;
446.7000;0.8311;3.4283;
447.0000;0.8319;3.4403;
447.3000;0.8311;3.4403;
447.6000;0.8335;3.4475;
447.9000;0.8319;3.4355;
448.2000;0.8270;3.4235;
448.5000;0.8344;3.4307;
448.8000;0.8392;3.4451;
449.1000;0.8344;3.4331;
449.4000;0.8311;3.4331;
449.7000;0.8327;3.4379;
450.0000;0.8344;3.4475;
450.3000;0.8384;3.4595;
450.6000;0.8303;3.4379;
450.9000;0.8295;3.4211;
451.2000;0.8417;3.4451;
451.5000;0.8262;3.4019;
451.8000;0.8319;3.4211;
452.1000;0.8344;3.4283;
452.4000;0.8319;3.4283;
452.7000;0.8384;3.4475;
453.0000;0.8311;3.4307;
453.3000;0.8352;3.4451;
453.6000;0.8368;3.4547;
453.9000;0.8335;3.4379;
454.2000;0.8352;3.4379;
454.5000;0.8270;3.4259;
454.8000;0.8311;3.4355;
455.1000;0.8352;3.4379;
455.4000;0.8327;3.4283;
455.7000;0.8327;3.4307;
456.0000;0.8319;3.4283;
456.3000;0.8327;3.4235;
456.6000;0.8295;3.4235;
456.9000;0.8319;3.4307;
457.2000;0.8319;3.4379;
457.5000;0.8287;3.4283;
457.8000;0.8319;3.4283;
458.1000;0.8311;3.4259;
458.4000;0.8311;3.4187;
458.7000;0.8303;3.4259;
459.0000;0.8327;3.4307;
459.3000;0.8303;3.4283;
459.6000;0.8311;3.4379;
459.9000;0.8303;3.4331;
460.2000;0.8319;3.4259;
460.5000;0.8335;3.4283;
460.8000;0.8311;3.4211;
461.1000;0.8335;3.4259;
461.4000;0.8319;3.4331;
461.7000;0.8319;3.4259;
462.0000;0.8311;3.4187;
462.3000;0.8303;3.4091;
462.6000;0.8327;3.4235;
462.9000;0.8360;3.4307;
463.2000;0.8327;3.4187;
463.5000;0.8287;3.4091;
463.8000;0.8246;3.3899;
464.1000;0.8311;3.4115;
464.4000;0.8319;3.4115;
464.7000;0.8344;3.4187;
465.0000;0.8295;3.4019;
465.3000;0.8319;3.4043;
465.6000;0.8311;3.4091;
465.9000;0.8311;3.4115;
466.2000;0.8327;3.4259;
466.5000;0.8303;3.4187;
466.8000;0.8311;3.4163;
467.1000;0.8287;3.4235;
467.4000;0.8344;3.4451;
467.7000;0.8327;3.4355;
468.0000;0.8319;3.4259;
468.3000;0.8303;3.4235;
468.6000;0.8303;3.4307;
468.9000;0.8311;3.4235;
469.2000;0.8311;3.4259;
469.5000;0.8287;3.4283;
469.8000;0.8295;3.4307;
470.1000;0.8327;3.4283;
470.4000;0.8287;3.4235;
470.7000;0.8311;3.4283;
471.0000;0.8319;3.4235;
471.3000;0.8327;3.4307;
471.6000;0.8327;3.4331;
471.9000;0.8344;3.4379;
472.2000;0.8392;3.4547;
472.5000;0.8327;3.4355;
472.8000;0.8335;3.4379;
473.1000;0.8287;3.4211;
473.4000;0.8384;3.4331;
473.7000;0.8319;3.4043;
474.0000;0.8319;3.4091;
474.3000;0.8319;3.4115;
474.6000;0.8319;3.4235;
474.9000;0.8319;3.4235;
475.2000;0.8319;3.4091;
475.5000;0.8376;3.4211;
475.8000;0.8311;3.4115;
476.1000;0.8319;3.4115;
476.4000;0.8311;3.4163;
476.7000;0.8335;3.4307;
477.0000;0.8311;3.4211;
477.3000;0.8205;3.4019;
477.6000;0.8335;3.4403;
477.9000;0.8303;3.4403;
478.2000;0.8368;3.4523;
478.5000;0.8319;3.4451;
478.8000;0.8303;3.4307;
479.1000;0.8311;3.4331;
479.4000;0.8311;3.4307;
479.7000;0.8311;3.4307;
480.0000;0.8311;3.4235;
480.3000;0.8319;3.4283;
480.6000;0.8295;3.4235;
480.9000;0.8295;3.4331;
481.2000;0.8303;3.4403;
481.5000;0.8311;3.4379;
481.8000;0.8319;3.4355;
482.1000;0.8327;3.4355;
482.4000;0.8303;3.4331;
482.7000;0.8311;3.4379;
483.0000;0.8278;3.4259;
483.3000;0.8319;3.4355;
483.6000;0.8319;3.4379;
483.9000;0.8311;3.4403;
484.2000;0.8327;3.4379;
484.5000;0.8311;3.4379;
484.8000;0.8311;3.4403;
485.1000;0.8319;3.4427;
485.4000;0.8319;3.4499;
485.7000;0.8303;3.4451;
486.0000;0.8311;3.4451;
486.3000;0.8360;3.4547;
486.6000;0.8376;3.4595;
486.9000;0.8327;3.4403;
487.2000;0.8327;3.4403;
487.5000;0.8287;3.4307;
487.8000;0.8335;3.4403;
488.1000;0.8327;3.4379;
488.4000;0.8327;3.4379;
488.7000;0.8311;3.4259;
489.0000;0.8287;3.4211;
489.3000;0.8319;3.4259;
489.6000;0.8327;3.4235;
489.9000;0.8295;3.4139;
490.2000;0.8303;3.4115;
490.5000;0.8319;3.4187;
490.8000;0.8311;3.4115;
491.1000;0.8303;3.4139;
491.4000;0.8311;3.4115;
491.7000;0.8303;3.4187;
492.0000;0.8311;3.4235;
492.3000;0.8295;3.4259;
492.6000;0.8295;3.4259;
492.9000;0.8311;3.4379;
493.2000;0.8327;3.4403;
493.5000;0.8295;3.4259;
493.8000;0.8287;3.4259;
494.1000;0.8287;3.4307;
494.4000;0.8303;3.4355;
494.7000;0.8311;3.4331;
495.0000;0.8409;3.4619;
495.3000;0.8327;3.4355;
495.6000;0.8262;3.4115;
495.9000;0.8295;3.4259;
496.2000;0.8335;3.4283;
496.5000;0.8303;3.4235;
496.8000;0.8319;3.4259;
497.1000;0.8335;3.4235;
497.4000;0.8311;3.4259;
497.7000;0.8376;3.4427;
498.0000;0.8344;3.4427;
498.3000;0.8303;3.4259;
498.6000;0.8270;3.4187;
498.9000;0.8262;3.4187;
499.2000;0.8295;3.4259;
499.5000;0.8319;3.4259;
499.8000;0.8311;3.4211;
500.1000;0.8311;3.4259;
500.4000;0.8311;3.4283;
500.7000;0.8319;3.4307;
501.0000;0.8319;3.4331;
501.3000;0.8311;3.4259;
501.6000;0.8303;3.4235;
501.9000;0.8287;3.4139;
502.2000;0.8352;3.4235;
502.5000;0.8230;3.3923;
502.8000;0.8303;3.4067;
503.1000;0.8303;3.4091;
503.4000;0.8335;3.4115;
503.7000;0.8303;3.4043;
504.0000;0.8303;3.4019;
504.3000;0.8303;3.3995;
504.6000;0.8311;3.4067;
504.9000;0.8319;3.4115;
505.2000;0.8319;3.4163;
505.5000;0.8400;3.4355;
505.8000;0.8311;3.4187;
506.1000;0.8311;3.4259;
506.4000;0.8327;3.4283;
506.7000;0.8311;3.4163;
507.0000;0.8287;3.4139;
507.3000;0.8335;3.4355;
507.6000;0.8303;3.4331;
507.9000;0.8319;3.4307;
508.2000;0.8311;3.4283;
508.5000;0.8319;3.4379;
508.8000;0.8327;3.4403;
509.1000;0.8327;3.4331;
509.4000;0.8368;3.4451;
509.7000;0.8327;3.4355;
510.0000;0.8335;3.4355;
510.3000;0.8344;3.4427;
510.6000;0.8319;3.4355;
510.9000;0.8319;3.4355;
511.2000;0.8335;3.4379;
511.5000;0.8319;3.4379;
511.8000;0.8360;3.4451;
512.1000;0.8295;3.4283;
512.4000;0.8319;3.4307;
512.7000;0.8262;3.4235;
513.0000;0.8311;3.4355;
513.3000;0.8303;3.4163;
513.6000;0.8303;3.4187;
513.9000;0.8352;3.4283;
514.2000;0.8295;3.4115;
514.5000;0.8319;3.4163;
514.8000;0.8319;3.4115;
515.1000;0.8303;3.4043;
515.4000;0.8311;3.4091;
515.7000;0.8352;3.4259;
516.0000;0.8303;3.4115;
516.3000;0.8303;3.4091;
516.6000;0.8287;3.4019;
516.9000;0.8295;3.4067;
517.2000;0.8319;3.4115;
517.5000;0.8335;3.4091;
517.8000;0.8295;3.4043;
518.1000;0.8311;3.4091;
518.4000;0.8319;3.4211;
518.7000;0.8319;3.4259;
519.0000;0.8319;3.4307;
519.3000;0.8327;3.4235;
519.6000;0.8319;3.4187;
519.9000;0.8344;3.4307;
520.2000;0.8311;3.4187;
520.5000;0.8311;3.4139;
520.8000;0.8352;3.4235;
521.1000;0.8368;3.4139;
521.4000;0.8319;3.4115;
521.7000;0.8319;3.4091;
522.0000;0.8311;3.4091;
522.3000;0.8311;3.4043;
522.6000;0.8319;3.4115;
522.9000;0.8295;3.4067;
523.2000;0.8319;3.4163;
523.5000;0.8278;3.4115;
523.8000;0.8295;3.4115;
524.1000;0.8295;3.4091;
524.4000;0.8311;3.4043;
524.7000;0.8319;3.4067;
525.0000;0.8327;3.4163;
525.3000;0.8311;3.4139;
525.6000;0.8319;3.4115;
525.9000;0.8303;3.4067;
526.2000;0.8360;3.4187;
526.5000;0.8335;3.4211;
526.8000;0.8319;3.4187;
527.1000;0.8205;3.3923;
527.4000;0.8327;3.4235;
527.7000;0.8319;3.4307;
528.0000;0.8327;3.4307;
528.3000;0.8303;3.4307;
528.6000;0.8327;3.4307;
528.9000;0.8295;3.4211;
529.2000;0.8311;3.4211;
529.5000;0.8311;3.4187;
529.8000;0.8319;3.4283;
530.1000;0.8311;3.4307;
530.4000;0.8287;3.4211;
530.7000;0.8303;3.4283;
531.0000;0.8303;3.4307;
531.3000;0.8319;3.4283;
531.6000;0.8295;3.4403;
531.9000;0.8335;3.4427;
532.2000;0.8295;3.4331;
532.5000;0.8311;3.4379;
532.8000;0.8327;3.4379;
533.1000;0.8319;3.4403;
533.4000;0.8295;3.4403;
533.7000;0.8287;3.4355;
534.0000;0.8311;3.4403;
534.3000;0.8327;3.4427;
534.6000;0.8311;3.4283;
534.9000;0.8327;3.4235;
535.2000;0.8327;3.4211;
535.5000;0.8335;3.4307;
535.8000;0.8311;3.4307;
536.1000;0.8327;3.4355;
536.4000;0.8319;3.4331;
536.7000;0.8319;3.4403;
537.0000;0.8295;3.4331;
537.3000;0.8311;3.4403;
537.6000;0.8311;3.4331;
537.9000;0.8311;3.4403;
538.2000;0.8295;3.4379;
538.5000;0.8311;3.4379;
538.8000;0.8311;3.4403;
539.1000;0.8303;3.4523;
539.4000;0.8311;3.4523;
539.7000;0.8311;3.4427;
540.0000;0.8311;3.4451;
540.3000;0.8303;3.4331;
540.6000;0.8303;3.4283;
540.9000;0.8327;3.4355;
541.2000;0.8311;3.4355;
541.5000;0.8335;3.4379;
541.8000;0.8311;3.4307;
542.1000;0.8278;3.4187;
542.4000;0.8303;3.4235;
542.7000;0.8344;3.4211;
543.0000;0.8319;3.4187;
543.3000;0.8303;3.4139;
543.6000;0.8303;3.4235;
543.9000;0.8319;3.4331;
544.2000;0.8319;3.4379;
544.5000;0.8335;3.4403;
544.8000;0.8319;3.4427;
545.1000;0.8319;3.4403;
545.4000;0.8311;3.4331;
545.7000;0.8311;3.4235;
546.0000;0.8303;3.4187;
546.3000;0.8311;3.4235;
546.6000;0.8360;3.4355;
546.9000;0.8303;3.4259;
547.2000;0.8295;3.4139;
547.5000;0.8311;3.4259;
547.8000;0.8327;3.4211;
548.1000;0.8400;3.4427;
548.4000;0.8335;3.4283;
548.7000;0.8303;3.4211;
549.0000;0.8327;3.4331;
549.3000;0.8311;3.4283;
549.6000;0.8311;3.4259;
549.9000;0.8287;3.4163;
550.2000;0.8319;3.4235;
550.5000;0.8319;3.4307;
550.8000;0.8335;3.4403;
551.1000;0.8254;3.4259;
551.4000;0.8295;3.4499;
551.7000;0.8319;3.4691;
552.0000;0.8303;3.4595;
552.3000;0.8295;3.4571;
552.6000;0.8287;3.4403;
552.9000;0.8295;3.4331;
553.2000;0.8319;3.4331;
553.5000;0.8327;3.4283;
553.8000;0.8278;3.4187;
554.1000;0.8327;3.4283;
554.4000;0.8319;3.4307;
554.7000;0.8311;3.4235;
555.0000;0.8311;3.4187;
555.3000;0.8344;3.4235;
555.6000;0.8303;3.4139;
555.9000;0.8311;3.4139;
556.2000;0.8303;3.4139;
556.5000;0.8311;3.4139;
556.8000;0.8311;3.4091;
557.1000;0.8295;3.3971;
557.4000;0.8303;3.3995;
557.7000;0.8311;3.3923;
558.0000;0.8303;3.3875;
558.3000;0.8230;3.3683;
558.6000;0.8311;3.3851;
558.9000;0.8311;3.3875;
559.2000;0.8311;3.4043;
559.5000;0.8327;3.4163;
559.8000;0.8319;3.4259;
560.1000;0.8319;3.4259;
560.4000;0.8319;3.4331;
560.7000;0.8327;3.4427;
561.0000;0.8319;3.4403;
561.3000;0.8319;3.4403;
561.6000;0.8319;3.4475;
561.9000;0.8278;3.4331;
562.2000;0.8254;3.4235;
562.5000;0.8319;3.4307;
562.8000;0.8287;3.4259;
563.1000;0.8287;3.4187;
563.4000;0.8303;3.4307;
563.7000;0.8327;3.4403;
564.0000;0.8327;3.4427;
564.3000;0.8295;3.4355;
564.6000;0.8319;3.4283;
564.9000;0.8368;3.4355;
565.2000;0.8311;3.4259;
565.5000;0.8319;3.4211;
565.8000;0.8327;3.4187;
566.1000;0.8319;3.4187;
566.4000;0.8295;3.4211;
566.7000;0.8311;3.4259;
567.0000;0.8238;3.4043;
567.3000;0.8287;3.4187;
567.6000;0.8303;3.4259;
567.9000;0.8278;3.4163;
568.2000;0.8270;3.4163;
568.5000;0.8311;3.4187;
568.8000;0.8303;3.4139;
569.1000;0.8311;3.4139;
569.4000;0.8319;3.4235;
569.7000;0.8327;3.4307;
570.0000;0.8303;3.4379;
570.3000;0.8319;3.4403;
570.6000;0.8238;3.4187;
570.9000;0.8311;3.4403;
571.2000;0.8254;3.4307;
571.5000;0.8287;3.4451;
571.8000;0.8319;3.4499;
572.1000;0.8360;3.4643;
572.4000;0.8295;3.4523;
572.7000;0.8295;3.4595;
573.0000;0.8295;3.4475;
573.3000;0.8303;3.4403;
573.6000;0.8311;3.4355;
573.9000;0.8311;3.4283;
574.2000;0.8319;3.4259;
574.5000;0.8319;3.4355;
574.8000;0.8319;3.4403;
575.1000;0.8287;3.4379;
575.4000;0.8287;3.4379;
575.7000;0.8295;3.4451;
576.0000;0.8303;3.4499;
576.3000;0.8295;3.4403;
576.6000;0.8287;3.4331;
576.9000;0.8287;3.4211;
577.2000;0.8319;3.4259;
577.5000;0.8319;3.4235;
577.8000;0.8295;3.4115;
578.1000;0.8311;3.4211;
578.4000;0.8303;3.4283;
578.7000;0.8327;3.4307;
579.0000;0.8303;3.4283;
579.3000;0.8311;3.4355;
579.6000;0.8319;3.4379;
579.9000;0.8311;3.4283;
580.2000;0.8278;3.4187;
580.5000;0.8230;3.4067;
580.8000;0.8311;3.4283;
581.1000;0.8311;3.4259;
581.4000;0.8303;3.4211;
581.7000;0.8319;3.4235;
582.0000;0.8303;3.4235;
582.3000;0.8254;3.4139;
582.6000;0.8295;3.4259;
582.9000;0.8303;3.4259;
583.2000;0.8303;3.4235;
583.5000;0.8295;3.4235;
583.8000;0.8295;3.4163;
584.1000;0.8278;3.4091;
584.4000;0.8368;3.4283;
584.7000;0.8311;3.4091;
585.0000;0.8319;3.4091;
585.3000;0.8311;3.4139;
585.6000;0.8303;3.4211;
585.9000;0.8295;3.4235;
586.2000;0.8262;3.4163;
586.5000;0.8303;3.4115;
586.8000;0.8295;3.4091;
587.1000;0.8287;3.4091;
587.4000;0.8327;3.4163;
587.7000;0.8311;3.4259;
588.0000;0.8335;3.4283;
588.3000;0.8295;3.4259;
588.6000;0.8319;3.4307;
588.9000;0.8311;3.4235;
589.2000;0.8303;3.4187;
589.5000;0.8319;3.4331;
589.8000;0.8303;3.4235;
590.1000;0.8352;3.4331;
590.4000;0.8311;3.4235;
590.7000;0.8303;3.4259;
591.0000;0.8287;3.4163;
591.3000;0.8270;3.4091;
591.6000;0.8303;3.4139;
591.9000;0.8303;3.4163;
592.2000;0.8270;3.4163;
592.5000;0.8344;3.4379;
592.8000;0.8303;3.4235;
593.1000;0.8295;3.4235;
593.4000;0.8319;3.4235;
593.7000;0.8319;3.4235;
594.0000;0.8335;3.4235;
594.3000;0.8327;3.4211;
594.6000;0.8352;3.4355;
594.9000;0.8295;3.4187;
595.2000;0.8295;3.4091;
595.5000;0.8303;3.4139;
595.8000;0.8295;3.4115;
596.1000;0.8303;3.4091;
596.4000;0.8311;3.4139;
596.7000;0.8213;3.3971;
597.0000;0.8287;3.4211;
597.3000;0.8303;3.4139;
597.6000;0.8311;3.4283;
597.9000;0.8270;3.4235;
598.2000;0.8238;3.4067;
598.5000;0.8246;3.4091;
598.8000;0.8246;3.4091;
599.1000;0.8295;3.4307;
599.4000;0.8311;3.4331;
599.7000;0.8311;3.4283;
600.0000;0.8311;3.4331;
600.3000;0.8303;3.4115;
600.6000;0.8319;3.3995;
600.9000;0.8319;3.3899;
601.2000;0.8254;3.3707;
601.5000;0.8246;3.3539;
601.8000;0.8181;3.3251;
602.1000;0.8116;3.3035;
602.4000;0.8075;3.2915;
602.7000;0.8010;3.2651;
603.0000;0.7961;3.2603;
603.3000;0.7904;3.2484;
603.6000;0.7880;3.2364;
603.9000;0.7888;3.2364;
604.2000;0.7798;3.2124;
604.5000;0.7839;3.2268;
604.8000;0.7692;3.1980;
605.1000;0.7684;3.1956;
605.4000;0.7635;3.1884;
605.7000;0.7595;3.1836;
606.0000;0.7570;3.1884;
606.3000;0.7538;3.1908;
606.6000;0.7497;3.1764;
606.9000;0.7456;3.1668;
607.2000;0.7432;3.1572;
607.5000;0.7407;3.1620;
607.8000;0.7359;3.1452;
608.1000;0.7342;3.1452;
608.4000;0.7334;3.1476;
608.7000;0.7293;3.1524;
609.0000;0.7277;3.1380;
609.3000;0.7236;3.1260;
609.6000;0.7228;3.1212;
609.9000;0.7212;3.1284;
610.2000;0.7188;3.1380;
610.5000;0.7163;3.1356;
610.8000;0.7139;3.1380;
611.1000;0.7147;3.1404;
611.4000;0.7114;3.1356;
611.7000;0.7074;3.1260;
612.0000;0.7057;3.1260;
612.3000;0.7033;3.1260;
612.6000;0.7017;3.1188;
612.9000;0.6984;3.1140;
613.2000;0.6992;3.1140;
613.5000;0.6976;3.1140;
613.8000;0.6968;3.1092;
614.1000;0.6984;3.1068;
614.4000;0.6927;3.1020;
614.7000;0.6911;3.1044;
615.0000;0.6903;3.1068;
615.3000;0.6895;3.1044;
615.6000;0.6870;3.1020;
615.9000;0.6854;3.1020;
616.2000;0.6838;3.0996;
616.5000;0.6813;3.0900;
616.8000;0.6838;3.0852;
617.1000;0.6829;3.0876;
617.4000;0.6805;3.0828;
617.7000;0.6781;3.0756;
618.0000;0.6764;3.0636;
618.3000;0.6781;3.0708;
618.6000;0.6707;3.0756;
618.9000;0.6732;3.0780;
619.2000;0.6748;3.0852;
619.5000;0.6707;3.0732;
619.8000;0.6764;3.0948;
620.1000;0.6602;3.0564;
620.4000;0.6667;3.0780;
620.7000;0.6569;3.0612;
621.0000;0.6667;3.0852;
621.3000;0.6659;3.0732;
621.6000;0.6699;3.0948;
621.9000;0.6610;3.0660;
622.2000;0.6683;3.1020;
622.5000;0.6593;3.0804;
622.8000;0.6593;3.0732;
623.1000;0.6545;3.0612;
623.4000;0.6545;3.0588;
623.7000;0.6577;3.0804;
624.0000;0.6536;3.0780;
624.3000;0.6545;3.0852;
624.6000;0.6512;3.0828;
624.9000;0.6496;3.0828;
625.2000;0.6520;3.0828;
625.5000;0.6488;3.0804;
625.8000;0.6479;3.0828;
626.1000;0.6479;3.0852;
626.4000;0.6447;3.0852;
626.7000;0.6479;3.0948;
627.0000;0.6447;3.0924;
627.3000;0.6431;3.0924;
627.6000;0.6431;3.0972;
627.9000;0.6422;3.0876;
628.2000;0.6414;3.0876;
628.5000;0.6382;3.0828;
628.8000;0.6382;3.0900;
629.1000;0.6398;3.1044;
629.4000;0.6406;3.0996;
629.7000;0.6382;3.1020;
630.0000;0.6406;3.1212;
630.3000;0.6365;3.1140;
630.6000;0.6374;3.1212;
630.9000;0.6292;3.0948;
631.2000;0.6349;3.0972;
631.5000;0.6341;3.0924;
631.8000;0.6300;3.0852;
632.1000;0.6325;3.0972;
632.4000;0.6309;3.0900;
632.7000;0.6284;3.0900;
633.0000;0.6276;3.0876;
633.3000;0.6284;3.0852;
633.6000;0.6284;3.0828;
633.9000;0.6235;3.0804;
634.2000;0.6284;3.0876;
634.5000;0.6300;3.0972;
634.8000;0.6260;3.0948;
635.1000;0.6260;3.0924;
635.4000;0.6252;3.0924;
635.7000;0.6186;3.0732;
636.0000;0.6268;3.0996;
636.3000;0.6227;3.0900;
636.6000;0.6268;3.0900;
636.9000;0.6219;3.0852;
637.2000;0.6219;3.0804;
637.5000;0.6146;3.0636;
637.8000;0.6203;3.0804;
638.1000;0.6146;3.0612;
638.4000;0.6195;3.0732;
638.7000;0.6203;3.0828;
639.0000;0.6178;3.0780;
639.3000;0.6162;3.0732;
639.6000;0.6146;3.0780;
639.9000;0.6170;3.0828;
640.2000;0.6170;3.0852;
640.5000;0.6129;3.0852;
640.8000;0.6072;3.0732;
641.1000;0.6170;3.0996;
641.4000;0.6121;3.0828;
641.7000;0.6138;3.0828;
642.0000;0.6146;3.0852;
642.3000;0.6129;3.0828;
642.6000;0.6129;3.0900;
642.9000;0.6113;3.0900;
643.2000;0.6105;3.0972;
643.5000;0.6105;3.0948;
643.8000;0.6097;3.0948;
644.1000;0.6048;3.0756;
644.4000;0.6097;3.0804;
644.7000;0.6097;3.0780;
645.0000;0.6089;3.0732;
645.3000;0.6097;3.0828;
645.6000;0.6113;3.0948;
645.9000;0.6048;3.0804;
646.2000;0.6064;3.0756;
646.5000;0.6056;3.0756;
646.8000;0.6040;3.0660;
647.1000;0.6048;3.0684;
647.4000;0.6048;3.0732;
647.7000;0.6064;3.0852;
648.0000;0.5950;3.0564;
648.3000;0.6056;3.0924;
648.6000;0.6015;3.0900;
648.9000;0.6024;3.0924;
649.2000;0.6048;3.0996;
649.5000;0.6024;3.0948;
649.8000;0.5967;3.0756;
650.1000;0.6007;3.0828;
650.4000;0.6048;3.0828;
650.7000;0.6056;3.0876;
651.0000;0.6007;3.0876;
651.3000;0.6024;3.0876;
651.6000;0.6024;3.0924;
651.9000;0.6064;3.1020;
652.2000;0.5999;3.0780;
652.5000;0.5983;3.0732;
652.8000;0.5958;3.0684;
653.1000;0.5975;3.0804;
653.4000;0.5975;3.0852;
653.7000;0.5975;3.0804;
654.0000;0.5934;3.0780;
654.3000;0.5975;3.0900;
654.6000;0.5967;3.0900;
654.9000;0.5975;3.0828;
655.2000;0.5967;3.0900;
655.5000;0.5958;3.0972;
655.8000;0.5950;3.0924;
656.1000;0.5958;3.0948;
656.4000;0.5942;3.0804;
656.7000;0.5975;3.0948;
657.0000;0.5893;3.0828;
657.3000;0.5926;3.0924;
657.6000;0.5950;3.0900;
657.9000;0.5942;3.0924;
658.2000;0.5902;3.0900;
658.5000;0.5958;3.0924;
658.8000;0.5926;3.0852;
659.1000;0.5934;3.0828;
659.4000;0.5934;3.0852;
659.7000;0.5942;3.0780;
660.0000;0.5967;3.0852;
660.3000;0.5934;3.0732;
660.6000;0.5942;3.0756;
660.9000;0.5999;3.0996;
661.2000;0.5910;3.0804;
661.5000;0.5950;3.0924;
661.8000;0.5877;3.0780;
662.1000;0.5893;3.0732;
662.4000;0.5828;3.0636;
662.7000;0.5869;3.0708;
663.0000;0.5877;3.0732;
663.3000;0.5934;3.0924;
663.6000;0.5836;3.0828;
663.9000;0.5861;3.0900;
664.2000;0.5869;3.0948;
664.5000;0.5877;3.0948;
664.8000;0.5861;3.1020;
665.1000;0.5877;3.1092;
665.4000;0.5861;3.1044;
665.7000;0.5861;3.0972;
666.0000;0.5845;3.0972;
666.3000;0.5845;3.1020;
666.6000;0.5877;3.1116;
666.9000;0.5828;3.1020;
667.2000;0.5845;3.1044;
667.5000;0.5836;3.1092;
667.8000;0.5796;3.0924;
668.1000;0.5853;3.1092;
668.4000;0.5853;3.1116;
668.7000;0.5845;3.1044;
669.0000;0.5820;3.0948;
669.3000;0.5845;3.0900;
669.6000;0.5845;3.0852;
669.9000;0.5845;3.0804;
670.2000;0.5836;3.0852;
670.5000;0.5812;3.0828;
670.8000;0.5820;3.0876;
671.1000;0.5828;3.0900;
671.4000;0.5820;3.0924;
671.7000;0.5828;3.0900;
672.0000;0.5796;3.0804;
672.3000;0.5812;3.0756;
672.6000;0.5804;3.0876;
672.9000;0.5796;3.0900;
673.2000;0.5788;3.1020;
673.5000;0.5812;3.1140;
673.8000;0.5788;3.1116;
674.1000;0.5804;3.1212;
674.4000;0.5804;3.1260;
674.7000;0.5836;3.1332;
675.0000;0.5893;3.1452;
675.3000;0.5788;3.1140;
675.6000;0.5796;3.1212;
675.9000;0.5812;3.1236;
676.2000;0.5804;3.1116;
676.5000;0.5747;3.0972;
676.8000;0.5755;3.1020;
677.1000;0.5755;3.1020;
677.4000;0.5771;3.1092;
677.7000;0.5771;3.1140;
678.0000;0.5755;3.0996;
678.3000;0.5747;3.1020;
678.6000;0.5779;3.1140;
678.9000;0.5722;3.0924;
679.2000;0.5755;3.0948;
679.5000;0.5771;3.0900;
679.8000;0.5747;3.0780;
680.1000;0.5779;3.0828;
680.4000;0.5755;3.0756;
680.7000;0.5731;3.0756;
681.0000;0.5747;3.0852;
681.3000;0.5739;3.0924;
681.6000;0.5747;3.0948;
681.9000;0.5739;3.0852;
682.2000;0.5755;3.0828;
682.5000;0.5747;3.0828;
682.8000;0.5722;3.0804;
683.1000;0.5853;3.1116;
683.4000;0.5747;3.0852;
683.7000;0.5747;3.0852;
684.0000;0.5747;3.0756;
684.3000;0.5706;3.0732;
684.6000;0.5779;3.0900;
684.9000;0.5722;3.0804;
685.2000;0.5747;3.0900;
685.5000;0.5714;3.0948;
685.8000;0.5714;3.0900;
686.1000;0.5690;3.0780;
686.4000;0.5722;3.0972;
686.7000;0.5706;3.0900;
687.0000;0.5706;3.0876;
687.3000;0.5722;3.0924;
687.6000;0.5706;3.0924;
687.9000;0.5706;3.0852;
688.2000;0.5682;3.0780;
688.5000;0.5641;3.0756;
688.8000;0.5690;3.0996;
689.1000;0.5763;3.1188;
689.4000;0.5706;3.0972;
689.7000;0.5763;3.1116;
690.0000;0.5682;3.0948;
690.3000;0.5706;3.0948;
690.6000;0.5690;3.0852;
690.9000;0.5706;3.0924;
691.2000;0.5698;3.1092;
691.5000;0.5674;3.1092;
691.8000;0.5690;3.1068;
692.1000;0.5665;3.1044;
692.4000;0.5682;3.1068;
692.7000;0.5682;3.1044;
693.0000;0.5690;3.0996;
693.3000;0.5682;3.0924;
693.6000;0.5755;3.1092;
693.9000;0.5714;3.0948;
694.2000;0.5739;3.1044;
694.5000;0.5674;3.0924;
694.8000;0.5682;3.0996;
695.1000;0.5690;3.1020;
695.4000;0.5690;3.0996;
695.7000;0.5665;3.1020;
696.0000;0.5682;3.1068;
696.3000;0.5682;3.1092;
696.6000;0.5665;3.0972;
696.9000;0.5649;3.1092;
697.2000;0.5682;3.1140;
697.5000;0.5665;3.1092;
697.8000;0.5706;3.1164;
698.1000;0.5674;3.1044;
698.4000;0.5674;3.1020;
698.7000;0.5682;3.1092;
699.0000;0.5674;3.1116;
699.3000;0.5657;3.1116;
699.6000;0.5649;3.1164;
699.9000;0.5641;3.1212;
700.2000;0.5633;3.1140;
700.5000;0.5706;3.1284;
700.8000;0.5633;3.0996;
701.1000;0.5625;3.0876;
701.4000;0.5641;3.0996;
701.7000;0.5641;3.0996;
702.0000;0.5649;3.1068;
702.3000;0.5633;3.1068;
702.6000;0.5617;3.0996;
702.9000;0.5625;3.1020;
703.2000;0.5633;3.1092;
703.5000;0.5617;3.0996;
703.8000;0.5625;3.0948;
704.1000;0.5682;3.1068;
704.4000;0.5633;3.1020;
704.7000;0.5641;3.1068;
705.0000;0.5608;3.0948;
705.3000;0.5625;3.1020;
705.6000;0.5657;3.1068;
705.9000;0.5641;3.1044;
706.2000;0.5633;3.1140;
706.5000;0.5592;3.1116;
706.8000;0.5641;3.1164;
707.1000;0.5592;3.1044;
707.4000;0.5633;3.1212;
707.7000;0.5608;3.1116;
708.0000;0.5608;3.1068;
708.3000;0.5617;3.1044;
708.6000;0.5592;3.1020;
708.9000;0.5625;3.1068;
709.2000;0.5633;3.1164;
709.5000;0.5641;3.1188;
709.8000;0.5592;3.1020;
710.1000;0.5649;3.1116;
710.4000;0.5608;3.0948;
710.7000;0.5600;3.0996;
711.0000;0.5600;3.1068;
711.3000;0.5576;3.0948;
711.6000;0.5608;3.1020;
711.9000;0.5576;3.0924;
712.2000;0.5543;3.0756;
712.5000;0.5600;3.0924;
712.8000;0.5608;3.1068;
713.1000;0.5600;3.1116;
713.4000;0.5576;3.0924;
713.7000;0.5535;3.0828;
714.0000;0.5584;3.0972;
714.3000;0.5608;3.0996;
714.6000;0.5543;3.0852;
714.9000;0.5584;3.0924;
715.2000;0.5584;3.0900;
715.5000;0.5560;3.0876;
715.8000;0.5600;3.0972;
716.1000;0.5560;3.0972;
716.4000;0.5600;3.0996;
716.7000;0.5584;3.0948;
717.0000;0.5560;3.0996;
717.3000;0.5592;3.1116;
717.6000;0.5576;3.1020;
717.9000;0.5576;3.0972;
718.2000;0.5551;3.0948;
718.5000;0.5560;3.0948;
718.8000;0.5576;3.1020;
719.1000;0.5568;3.1068;
719.4000;0.5584;3.1116;
719.7000;0.5584;3.1164;
720.0000;0.5568;3.1092;
720.3000;0.5608;3.1188;
720.6000;0.5576;3.1092;
720.9000;0.5592;3.1044;
721.2000;0.5551;3.1020;
721.5000;0.5576;3.1068;
721.8000;0.5560;3.1020;
722.1000;0.5568;3.1020;
722.4000;0.5560;3.1020;
722.7000;0.5560;3.1020;
723.0000;0.5535;3.0996;
723.3000;0.5584;3.1188;
723.6000;0.5568;3.1164;
723.9000;0.5592;3.1212;
724.2000;0.5560;3.1068;
724.5000;0.5576;3.1092;
724.8000;0.5568;3.1068;
725.1000;0.5560;3.1020;
725.4000;0.5560;3.1092;
725.7000;0.5560;3.1044;
726.0000;0.5535;3.0996;
726.3000;0.5551;3.0972;
726.6000;0.5560;3.1020;
726.9000;0.5560;3.1020;
727.2000;0.5551;3.0972;
727.5000;0.5551;3.0972;
727.8000;0.5543;3.0948;
728.1000;0.5511;3.0924;
728.4000;0.5560;3.1044;
728.7000;0.5543;3.1020;
729.0000;0.5576;3.1092;
729.3000;0.5576;3.1020;
729.6000;0.5551;3.0972;
729.9000;0.5551;3.1020;
730.2000;0.5560;3.1020;
730.5000;0.5535;3.1044;
730.8000;0.5519;3.1116;
731.1000;0.5551;3.1188;
731.4000;0.5543;3.1140;
731.7000;0.5560;3.1116;
732.0000;0.5560;3.1164;
732.3000;0.5551;3.1164;
732.6000;0.5519;3.1092;
732.9000;0.5527;3.1140;
733.2000;0.5511;3.1188;
733.5000;0.5543;3.1260;
733.8000;0.5527;3.1140;
734.1000;0.5535;3.1236;
734.4000;0.5625;3.1308;
734.7000;0.5551;3.1164;
735.0000;0.5535;3.1164;
735.3000;0.5535;3.1236;
735.6000;0.5633;3.1524;
735.9000;0.5551;3.1284;
736.2000;0.5495;3.1140;
736.5000;0.5592;3.1284;
736.8000;0.5527;3.0996;
737.1000;0.5429;3.0684;
737.4000;0.5527;3.0900;
737.7000;0.5527;3.0948;
738.0000;0.5486;3.0900;
738.3000;0.5511;3.1020;
738.6000;0.5519;3.1020;
738.9000;0.5625;3.1308;
739.2000;0.5527;3.1044;
739.5000;0.5535;3.1092;
739.8000;0.5535;3.1092;
740.1000;0.5535;3.1164;
740.4000;0.5519;3.1140;
740.7000;0.5527;3.1116;
741.0000;0.5535;3.1188;
741.3000;0.5560;3.1308;
741.6000;0.5519;3.1188;
741.9000;0.5511;3.1068;
742.2000;0.5519;3.1044;
742.5000;0.5527;3.0996;
742.8000;0.5519;3.0972;
743.1000;0.5519;3.0900;
743.4000;0.5503;3.0876;
743.7000;0.5462;3.0756;
744.0000;0.5511;3.0852;
744.3000;0.5495;3.0804;
744.6000;0.5511;3.0828;
744.9000;0.5495;3.0780;
745.2000;0.5503;3.0804;
745.5000;0.5454;3.0636;
745.8000;0.5495;3.0852;
746.1000;0.5527;3.0804;
746.4000;0.5519;3.0780;
746.7000;0.5511;3.0828;
747.0000;0.5503;3.0804;
747.3000;0.5511;3.0900;
747.6000;0.5495;3.0876;
747.9000;0.5503;3.0900;
748.2000;0.5486;3.0852;
748.5000;0.5486;3.0900;
748.8000;0.5511;3.1020;
749.1000;0.5495;3.1068;
749.4000;0.5495;3.1044;
749.7000;0.5486;3.1020;
750.0000;0.5503;3.1020;
750.3000;0.5511;3.1092;
750.6000;0.5503;3.1140;
750.9000;0.5519;3.1164;
751.2000;0.5535;3.1212;
751.5000;0.5511;3.1140;
751.8000;0.5495;3.1020;
752.1000;0.5535;3.1068;
752.4000;0.5503;3.1044;
752.7000;0.5495;3.1068;
753.0000;0.5470;3.0972;
753.3000;0.5495;3.1020;
753.6000;0.5495;3.0900;
753.9000;0.5527;3.1044;
754.2000;0.5486;3.0972;
754.5000;0.5470;3.0828;
754.8000;0.5495;3.0876;
755.1000;0.5503;3.0876;
755.4000;0.5543;3.1044;
755.7000;0.5495;3.0900;
756.0000;0.5470;3.0828;
756.3000;0.5519;3.0924;
756.6000;0.5405;3.0780;
756.9000;0.5470;3.1068;
757.2000;0.5462;3.1092;
757.5000;0.5446;3.1044;
757.8000;0.5470;3.1092;
758.1000;0.5470;3.1140;
758.4000;0.5478;3.1188;
758.7000;0.5478;3.1092;
759.0000;0.5470;3.1092;
759.3000;0.5486;3.1044;
759.6000;0.5470;3.0996;
759.9000;0.5503;3.1116;
760.2000;0.5446;3.0996;
760.5000;0.5551;3.1260;
760.8000;0.5470;3.1044;
761.1000;0.5495;3.1044;
761.4000;0.5486;3.1044;
761.7000;0.5486;3.1044;
762.0000;0.5462;3.0996;
762.3000;0.5470;3.1020;
762.6000;0.5389;3.0876;
762.9000;0.5462;3.0972;
763.2000;0.5446;3.0948;
763.5000;0.5470;3.1044;
763.8000;0.5470;3.1068;
764.1000;0.5470;3.1140;
764.4000;0.5462;3.1116;
764.7000;0.5478;3.1212;
765.0000;0.5454;3.1140;
765.3000;0.5470;3.1116;
765.6000;0.5462;3.1044;
765.9000;0.5470;3.1020;
766.2000;0.5454;3.1020;
766.5000;0.5446;3.1020;
766.8000;0.5486;3.1044;
767.1000;0.5462;3.1020;
767.4000;0.5470;3.1116;
767.7000;0.5470;3.1164;
768.0000;0.5454;3.1116;
768.3000;0.5470;3.1212;
768.6000;0.5454;3.1140;
768.9000;0.5462;3.1020;
769.2000;0.5454;3.1068;
769.5000;0.5454;3.1044;
769.8000;0.5462;3.1020;
770.1000;0.5470;3.1044;
770.4000;0.5478;3.1092;
770.7000;0.5470;3.1116;
771.0000;0.5462;3.1020;
771.3000;0.5462;3.0996;
771.6000;0.5470;3.0972;
771.9000;0.5454;3.0996;
772.2000;0.5462;3.1020;
772.5000;0.5462;3.1020;
772.8000;0.5438;3.0996;
773.1000;0.5413;3.0876;
773.4000;0.5454;3.0972;
773.7000;0.5438;3.0948;
774.0000;0.5421;3.0924;
774.3000;0.5438;3.0900;
774.6000;0.5438;3.0876;
774.9000;0.5446;3.0948;
775.2000;0.5462;3.1020;
775.5000;0.5454;3.1020;
775.8000;0.5446;3.1116;
776.1000;0.5470;3.1188;
776.4000;0.5446;3.1236;
776.7000;0.5438;3.1212;
777.0000;0.5429;3.1164;
777.3000;0.5446;3.1020;
777.6000;0.5438;3.1092;
777.9000;0.5438;3.1068;
778.2000;0.5438;3.1044;
778.5000;0.5446;3.1068;
778.8000;0.5429;3.1116;
779.1000;0.5429;3.1116;
779.4000;0.5462;3.1164;
779.7000;0.5438;3.1140;
780.0000;0.5446;3.1164;
780.3000;0.5438;3.0996;
780.6000;0.5454;3.1044;
780.9000;0.5454;3.1116;
781.2000;0.5438;3.1092;
781.5000;0.5446;3.1092;
781.8000;0.5429;3.1044;
782.1000;0.5429;3.1044;
782.4000;0.5438;3.1140;
782.7000;0.5438;3.1260;
783.0000;0.5421;3.1260;
783.3000;0.5438;3.1212;
783.6000;0.5413;3.1092;
783.9000;0.5429;3.1116;
784.2000;0.5446;3.1116;
784.5000;0.5429;3.1068;
784.8000;0.5438;3.1140;
785.1000;0.5462;3.1212;
785.4000;0.5429;3.1188;
785.7000;0.5454;3.1236;
786.0000;0.5438;3.1140;
786.3000;0.5429;3.1164;
786.6000;0.5446;3.1188;
786.9000;0.5438;3.1164;
787.2000;0.5446;3.1116;
787.5000;0.5454;3.1068;
787.8000;0.5462;3.1020;
788.1000;0.5421;3.0924;
788.4000;0.5446;3.0996;
788.7000;0.5446;3.0972;
789.0000;0.5438;3.0924;
789.3000;0.5446;3.0948;
789.6000;0.5454;3.0996;
789.9000;0.5421;3.0876;
790.2000;0.5429;3.0996;
790.5000;0.5429;3.1044;
790.8000;0.5454;3.1140;
791.1000;0.5421;3.1092;
791.4000;0.5429;3.1140;
791.7000;0.5462;3.1188;
792.0000;0.5405;3.1164;
792.3000;0.5429;3.1212;
792.6000;0.5405;3.1164;
792.9000;0.5421;3.1212;
793.2000;0.5413;3.1164;
793.5000;0.5429;3.1284;
793.8000;0.5413;3.1164;
794.1000;0.5421;3.1116;
794.4000;0.5429;3.1212;
794.7000;0.5421;3.1164;
795.0000;0.5429;3.1212;
795.3000;0.5405;3.1260;
795.6000;0.5421;3.1356;
795.9000;0.5413;3.1236;
796.2000;0.5397;3.1284;
796.5000;0.5405;3.1188;
796.8000;0.5429;3.1212;
797.1000;0.5438;3.1188;
797.4000;0.5429;3.1140;
797.7000;0.5421;3.1164;
798.0000;0.5429;3.1164;
798.3000;0.5421;3.1092;
798.6000;0.5438;3.1068;
798.9000;0.5511;3.1212;
799.2000;0.5462;3.1116;
799.5000;0.5429;3.1068;
799.8000;0.5429;3.1020;
800.1000;0.5364;3.0948;
800.4000;0.5421;3.1236;
800.7000;0.5462;3.1284;
801.0000;0.5421;3.1308;
801.3000;0.5478;3.1428;
801.6000;0.5405;3.1164;
801.9000;0.5421;3.1140;
802.2000;0.5413;3.1140;
802.5000;0.5413;3.1212;
802.8000;0.5405;3.1260;
803.1000;0.5421;3.1404;
803.4000;0.5405;3.1308;
803.7000;0.5421;3.1236;
804.0000;0.5389;3.1164;
804.3000;0.5413;3.1212;
804.6000;0.5413;3.1212;
804.9000;0.5397;3.1260;
805.2000;0.5462;3.1380;
805.5000;0.5397;3.1188;
805.8000;0.5397;3.1212;
806.1000;0.5405;3.1236;
806.4000;0.5413;3.1284;
806.7000;0.5413;3.1260;
807.0000;0.5397;3.1236;
807.3000;0.5389;3.1164;
807.6000;0.5405;3.1188;
807.9000;0.5405;3.1092;
808.2000;0.5405;3.1164;
808.5000;0.5405;3.1116;
808.8000;0.5421;3.1140;
809.1000;0.5389;3.1020;
809.4000;0.5397;3.1044;
809.7000;0.5413;3.1020;
810.0000;0.5405;3.1020;
810.3000;0.5421;3.1044;
810.6000;0.5421;3.1092;
810.9000;0.5413;3.1092;
811.2000;0.5405;3.1116;
811.5000;0.5405;3.1308;
811.8000;0.5413;3.1260;
812.1000;0.5429;3.1332;
812.4000;0.5389;3.1260;
812.7000;0.5413;3.1284;
813.0000;0.5429;3.1380;
813.3000;0.5405;3.1428;
813.6000;0.5405;3.1428;
813.9000;0.5381;3.1500;
814.2000;0.5389;3.1572;
814.5000;0.5332;3.1308;
814.8000;0.5438;3.1476;
815.1000;0.5413;3.1428;
815.4000;0.5397;3.1428;
815.7000;0.5381;3.1380;
816.0000;0.5356;3.1332;
816.3000;0.5389;3.1452;
816.6000;0.5405;3.1524;
816.9000;0.5389;3.1500;
817.2000;0.5397;3.1428;
817.5000;0.5364;3.1332;
817.8000;0.5364;3.1284;
818.1000;0.5389;3.1308;
818.4000;0.5397;3.1332;
818.7000;0.5413;3.1404;
819.0000;0.5405;3.1260;
819.3000;0.5397;3.1188;
819.6000;0.5397;3.1188;
819.9000;0.5429;3.1380;
820.2000;0.5381;3.1380;
820.5000;0.5397;3.1404;
820.8000;0.5413;3.1404;
821.1000;0.5438;3.1356;
821.4000;0.5397;3.1260;
821.7000;0.5405;3.1188;
822.0000;0.5381;3.1140;
822.3000;0.5397;3.1188;
822.6000;0.5389;3.1188;
822.9000;0.5470;3.1380;
823.2000;0.5389;3.1308;
823.5000;0.5381;3.1308;
823.8000;0.5389;3.1212;
824.1000;0.5397;3.1308;
824.4000;0.5356;3.1284;
824.7000;0.5397;3.1284;
825.0000;0.5372;3.1260;
825.3000;0.5446;3.1332;
825.6000;0.5348;3.1116;
825.9000;0.5397;3.1284;
826.2000;0.5381;3.1260;
826.5000;0.5397;3.1236;
826.8000;0.5389;3.1236;
827.1000;0.5405;3.1284;
827.4000;0.5389;3.1188;
827.7000;0.5389;3.1140;
828.0000;0.5324;3.0972;
828.3000;0.5405;3.1188;
828.6000;0.5372;3.1020;
828.9000;0.5397;3.1092;
829.2000;0.5381;3.1116;
829.5000;0.5397;3.1140;
829.8000;0.5397;3.1116;
830.1000;0.5421;3.1188;
830.4000;0.5381;3.1116;
830.7000;0.5421;3.1140;
831.0000;0.5364;3.1116;
831.3000;0.5397;3.1188;
831.6000;0.5389;3.1260;
831.9000;0.5389;3.1260;
832.2000;0.5372;3.1260;
832.5000;0.5446;3.1380;
832.8000;0.5389;3.1140;
833.1000;0.5381;3.1068;
833.4000;0.5381;3.1092;
833.7000;0.5381;3.1068;
834.0000;0.5389;3.1140;
834.3000;0.5348;3.1044;
834.6000;0.5389;3.1116;
834.9000;0.5381;3.1212;
835.2000;0.5381;3.1284;
835.5000;0.5381;3.1236;
835.8000;0.5356;3.1212;
836.1000;0.5364;3.1236;
836.4000;0.5381;3.1284;
836.7000;0.5364;3.1260;
837.0000;0.5356;3.1164;
837.3000;0.5413;3.1284;
837.6000;0.5372;3.1188;
837.9000;0.5372;3.1212;
838.2000;0.5381;3.1188;
838.5000;0.5291;3.1020;
838.8000;0.5372;3.1212;
839.1000;0.5372;3.1308;
839.4000;0.5364;3.1260;
839.7000;0.5381;3.1260;
840.0000;0.5381;3.1188;
840.3000;0.5429;3.1356;
840.6000;0.5372;3.1236;
840.9000;0.5381;3.1212;
841.2000;0.5397;3.1284;
841.5000;0.5372;3.1188;
841.8000;0.5421;3.1140;
842.1000;0.5397;3.1140;
842.4000;0.5397;3.1116;
842.7000;0.5389;3.1116;
843.0000;0.5381;3.1116;
843.3000;0.5372;3.1116;
843.6000;0.5381;3.1212;
843.9000;0.5405;3.1332;
844.2000;0.5381;3.1332;
844.5000;0.5348;3.1236;
844.8000;0.5364;3.1164;
845.1000;0.5381;3.1188;
845.4000;0.5372;3.1140;
845.7000;0.5381;3.1140;
846.0000;0.5356;3.1068;
846.3000;0.5364;3.1116;
846.6000;0.5413;3.1188;
846.9000;0.5381;3.1140;
847.2000;0.5372;3.1116;
847.5000;0.5429;3.1164;
847.8000;0.5389;3.1116;
848.1000;0.5372;3.1140;
848.4000;0.5364;3.1140;
848.7000;0.5372;3.1188;
849.0000;0.5364;3.1212;
849.3000;0.5364;3.1188;
849.6000;0.5372;3.1188;
849.9000;0.5364;3.1236;
850.2000;0.5364;3.1236;
850.5000;0.5291;3.0972;
850.8000;0.5364;3.1116;
851.1000;0.5356;3.1092;
851.4000;0.5364;3.1116;
851.7000;0.5421;3.1212;
852.0000;0.5372;3.1092;
852.3000;0.5372;3.1140;
852.6000;0.5364;3.1140;
852.9000;0.5364;3.1188;
853.2000;0.5364;3.1164;
853.5000;0.5381;3.1236;
853.8000;0.5372;3.1212;
854.1000;0.5381;3.1164;
854.4000;0.5372;3.1188;
854.7000;0.5372;3.1212;
855.0000;0.5332;3.1164;
855.3000;0.5381;3.1284;
855.6000;0.5356;3.1260;
855.9000;0.5372;3.1308;
856.2000;0.5364;3.1212;
856.5000;0.5372;3.1140;
856.8000;0.5364;3.1188;
857.1000;0.5372;3.1164;
857.4000;0.5364;3.1140;
857.7000;0.5348;3.1164;
858.0000;0.5372;3.1308;
858.3000;0.5364;3.1188;
858.6000;0.5356;3.1164;
858.9000;0.5381;3.1284;
859.2000;0.5364;3.1380;
859.5000;0.5405;3.1476;
859.8000;0.5348;3.1260;
860.1000;0.5381;3.1428;
860.4000;0.5372;3.1428;
860.7000;0.5372;3.1380;
861.0000;0.5356;3.1332;
861.3000;0.5324;3.1164;
861.6000;0.5372;3.1260;
861.9000;0.5389;3.1332;
862.2000;0.5348;3.1332;
862.5000;0.5332;3.1284;
862.8000;0.5356;3.1260;
863.1000;0.5348;3.1188;
863.4000;0.5340;3.1116;
863.7000;0.5356;3.1068;
864.0000;0.5291;3.0876;
864.3000;0.5356;3.1020;
864.6000;0.5348;3.1020;
864.9000;0.5348;3.0996;
865.2000;0.5356;3.0972;
865.5000;0.5381;3.1044;
865.8000;0.5348;3.0972;
866.1000;0.5364;3.1020;
866.4000;0.5364;3.1140;
866.7000;0.5364;3.1188;
867.0000;0.5389;3.1308;
867.3000;0.5364;3.1164;
867.6000;0.5340;3.1164;
867.9000;0.5324;3.1140;
868.2000;0.5356;3.1284;
868.5000;0.5356;3.1284;
868.8000;0.5356;3.1356;
869.1000;0.5397;3.1524;
869.4000;0.5348;3.1380;
869.7000;0.5429;3.1548;
870.0000;0.5340;3.1356;
870.3000;0.5348;3.1428;
870.6000;0.5356;3.1476;
870.9000;0.5348;3.1356;
871.2000;0.5332;3.1332;
871.5000;0.5389;3.1380;
871.8000;0.5356;3.1332;
872.1000;0.5438;3.1500;
872.4000;0.5340;3.1332;
872.7000;0.5356;3.1356;
873.0000;0.5340;3.1332;
873.3000;0.5356;3.1404;
873.6000;0.5356;3.1404;
873.9000;0.5348;3.1332;
874.2000;0.5340;3.1380;
874.5000;0.5348;3.1476;
874.8000;0.5332;3.1452;
875.1000;0.5348;3.1404;
875.4000;0.5364;3.1356;
875.7000;0.5364;3.1380;
876.0000;0.5324;3.1308;
876.3000;0.5372;3.1380;
876.6000;0.5397;3.1524;
876.9000;0.5356;3.1380;
877.2000;0.5356;3.1332;
877.5000;0.5356;3.1356;
877.8000;0.5332;3.1308;
878.1000;0.5348;3.1332;
878.4000;0.5356;3.1332;
878.7000;0.5315;3.1308;
879.0000;0.5340;3.1380;
879.3000;0.5348;3.1356;
879.6000;0.5340;3.1236;
879.9000;0.5340;3.1284;
880.2000;0.5340;3.1236;
880.5000;0.5356;3.1356;
880.8000;0.5372;3.1428;
881.1000;0.5356;3.1404;
881.4000;0.5315;3.1308;
881.7000;0.5340;3.1308;
882.0000;0.5340;3.1332;
882.3000;0.5348;3.1380;
882.6000;0.5340;3.1212;
882.9000;0.5332;3.1044;
883.2000;0.5348;3.1188;
883.5000;0.5307;3.1116;
883.8000;0.5356;3.1284;
884.1000;0.5348;3.1356;
884.4000;0.5364;3.1452;
884.7000;0.5454;3.1716;
885.0000;0.5348;3.1428;
885.3000;0.5348;3.1452;
885.6000;0.5348;3.1380;
885.9000;0.5348;3.1476;
886.2000;0.5340;3.1500;
886.5000;0.5340;3.1404;
886.8000;0.5315;3.1356;
887.1000;0.5324;3.1452;
887.4000;0.5356;3.1476;
887.7000;0.5356;3.1476;
888.0000;0.5340;3.1572;
888.3000;0.5340;3.1572;
888.6000;0.5340;3.1596;
888.9000;0.5315;3.1524;
889.2000;0.5324;3.1404;
889.5000;0.5348;3.1356;
889.8000;0.5299;3.1260;
890.1000;0.5356;3.1452;
890.4000;0.5340;3.1404;
890.7000;0.5340;3.1356;
891.0000;0.5356;3.1332;
891.3000;0.5364;3.1236;
891.6000;0.5348;3.1164;
891.9000;0.5315;3.1068;
892.2000;0.5299;3.1020;
892.5000;0.5356;3.1188;
892.8000;0.5324;3.1164;
893.1000;0.5381;3.1260;
893.4000;0.5356;3.1140;
893.7000;0.5315;3.1020;
894.0000;0.5397;3.1308;
894.3000;0.5389;3.1308;
894.6000;0.5364;3.1308;
894.9000;0.5348;3.1284;
895.2000;0.5421;3.1404;
895.5000;0.5340;3.1260;
895.8000;0.5348;3.1356;
896.1000;0.5372;3.1404;
896.4000;0.5348;3.1308;
896.7000;0.5372;3.1308;
897.0000;0.5348;3.1308;
897.3000;0.5348;3.1332;
897.6000;0.5340;3.1260;
897.9000;0.5356;3.1236;
898.2000;0.5340;3.1284;
898.5000;0.5356;3.1236;
898.8000;0.5332;3.1212;
899.1000;0.5356;3.1212;
899.4000;0.5340;3.1188;
899.7000;0.5356;3.1188;
900.0000;0.5201;3.0804;
900.3000;0.5332;3.1164;
900.6000;0.5315;3.1188;
900.9000;0.5340;3.1332;
901.2000;0.5356;3.1428;
901.5000;0.5356;3.1428;
901.8000;0.5340;3.1356;
902.1000;0.5324;3.1332;
902.4000;0.5340;3.1332;
902.7000;0.5356;3.1356;
903.0000;0.5332;3.1356;
903.3000;0.5332;3.1308;
903.6000;0.5348;3.1236;
903.9000;0.5324;3.1236;
904.2000;0.5356;3.1308;
904.5000;0.5315;3.1260;
904.8000;0.5324;3.1308;
905.1000;0.5364;3.1404;
905.4000;0.5332;3.1308;
905.7000;0.5258;3.1188;
906.0000;0.5332;3.1332;
906.3000;0.5340;3.1452;
906.6000;0.5348;3.1452;
906.9000;0.5340;3.1380;
907.2000;0.5324;3.1284;
907.5000;0.5389;3.1380;
907.8000;0.5348;3.1236;
908.1000;0.5332;3.1284;
908.4000;0.5315;3.1308;
908.7000;0.5307;3.1356;
909.0000;0.5307;3.1452;
909.3000;0.5275;3.1452;
909.6000;0.5332;3.1476;
909.9000;0.5324;3.1476;
910.2000;0.5332;3.1548;
910.5000;0.5307;3.1356;
910.8000;0.5324;3.1308;
911.1000;0.5340;3.1332;
911.4000;0.5332;3.1332;
911.7000;0.5332;3.1260;
912.0000;0.5315;3.1284;
912.3000;0.5324;3.1380;
912.6000;0.5324;3.1500;
912.9000;0.5332;3.1572;
913.2000;0.5324;3.1548;
913.5000;0.5324;3.1476;
913.8000;0.5332;3.1548;
914.1000;0.5348;3.1572;
914.4000;0.5348;3.1596;
914.7000;0.5340;3.1452;
915.0000;0.5307;3.1308;
915.3000;0.5299;3.1260;
915.6000;0.5315;3.1212;
915.9000;0.5324;3.1260;
916.2000;0.5340;3.1356;
916.5000;0.5324;3.1236;
916.8000;0.5332;3.1188;
917.1000;0.5234;3.0972;
917.4000;0.5340;3.1308;
917.7000;0.5340;3.1260;
918.0000;0.5315;3.1140;
918.3000;0.5307;3.1188;
918.6000;0.5340;3.1260;
918.9000;0.5356;3.1308;
919.2000;0.5340;3.1164;
919.5000;0.5315;3.1044;
919.8000;0.5340;3.1068;
920.1000;0.5307;3.1020;
920.4000;0.5340;3.1116;
920.7000;0.5324;3.1188;
921.0000;0.5315;3.1140;
921.3000;0.5340;3.1260;
921.6000;0.5348;3.1284;
921.9000;0.5332;3.1260;
922.2000;0.5332;3.1284;
922.5000;0.5332;3.1164;
922.8000;0.5307;3.1164;
923.1000;0.5307;3.1116;
923.4000;0.5307;3.1140;
923.7000;0.5332;3.1284;
924.0000;0.5283;3.1164;
924.3000;0.5332;3.1188;
924.6000;0.5332;3.1140;
924.9000;0.5324;3.1116;
925.2000;0.5340;3.1212;
925.5000;0.5332;3.1260;
925.8000;0.5332;3.1332;
926.1000;0.5348;3.1332;
926.4000;0.5332;3.1308;
926.7000;0.5348;3.1356;
927.0000;0.5356;3.1380;
927.3000;0.5356;3.1284;
927.6000;0.5340;3.1212;
927.9000;0.5332;3.1092;
928.2000;0.5340;3.1116;
928.5000;0.5324;3.1044;
928.8000;0.5364;3.1212;
929.1000;0.5275;3.1116;
929.4000;0.5324;3.1188;
929.7000;0.5324;3.1044;
930.0000;0.5332;3.1164;
930.3000;0.5381;3.1212;
930.6000;0.5324;3.1164;
930.9000;0.5291;3.1068;
931.2000;0.5332;3.1164;
931.5000;0.5324;3.1116;
931.8000;0.5348;3.1260;
932.1000;0.5340;3.1260;
932.4000;0.5324;3.1284;
932.7000;0.5332;3.1332;
933.0000;0.5315;3.1332;
933.3000;0.5413;3.1500;
933.6000;0.5307;3.1284;
933.9000;0.5315;3.1308;
934.2000;0.5332;3.1332;
934.5000;0.5324;3.1212;
934.8000;0.5315;3.1212;
935.1000;0.5324;3.1284;
935.4000;0.5348;3.1308;
935.7000;0.5332;3.1356;
936.0000;0.5340;3.1260;
936.3000;0.5315;3.1212;
936.6000;0.5340;3.1188;
936.9000;0.5315;3.1188;
937.2000;0.5324;3.1188;
937.5000;0.5291;3.1068;
937.8000;0.5307;3.1068;
938.1000;0.5324;3.1116;
938.4000;0.5332;3.1068;
938.7000;0.5332;3.0972;
939.0000;0.5307;3.0972;
939.3000;0.5315;3.0996;
939.6000;0.5299;3.0900;
939.9000;0.5348;3.1068;
940.2000;0.5348;3.1140;
940.5000;0.5340;3.1212;
940.8000;0.5332;3.1236;
941.1000;0.5324;3.1140;
941.4000;0.5324;3.1188;
941.7000;0.5315;3.1140;
942.0000;0.5340;3.1164;
942.3000;0.5315;3.1116;
942.6000;0.5267;3.0972;
942.9000;0.5332;3.1236;
943.2000;0.5340;3.1260;
943.5000;0.5234;3.1020;
943.8000;0.5332;3.1212;
944.1000;0.5324;3.1236;
944.4000;0.5332;3.1260;
944.7000;0.5340;3.1332;
945.0000;0.5340;3.1476;
945.3000;0.5324;3.1524;
945.6000;0.5340;3.1500;
945.9000;0.5315;3.1404;
946.2000;0.5315;3.1356;
946.5000;0.5307;3.1260;
946.8000;0.5332;3.1380;
947.1000;0.5397;3.1476;
947.4000;0.5324;3.1284;
947.7000;0.5381;3.1500;
948.0000;0.5332;3.1380;
948.3000;0.5324;3.1332;
948.6000;0.5315;3.1332;
948.9000;0.5332;3.1284;
949.2000;0.5315;3.1236;
949.5000;0.5315;3.1284;
949.8000;0.5324;3.1380;
950.1000;0.5324;3.1332;
950.4000;0.5324;3.1332;
950.7000;0.5324;3.1308;
951.0000;0.5340;3.1356;
951.3000;0.5307;3.1260;
951.6000;0.5299;3.1140;
951.9000;0.5315;3.1164;
952.2000;0.5324;3.1164;
952.5000;0.5299;3.1164;
952.8000;0.5291;3.1188;
953.1000;0.5324;3.1236;
953.4000;0.5307;3.1236;
953.7000;0.5283;3.1188;
954.0000;0.5324;3.1236;
954.3000;0.5275;3.1164;
954.6000;0.5332;3.1284;
954.9000;0.5348;3.1308;
955.2000;0.5332;3.1236;
955.5000;0.5299;3.1140;
955.8000;0.5332;3.1236;
956.1000;0.5315;3.1212;
956.4000;0.5315;3.1212;
956.7000;0.5307;3.1140;
957.0000;0.5315;3.1092;
957.3000;0.5324;3.1116;
957.6000;0.5218;3.0708;
957.9000;0.5315;3.0876;
958.2000;0.5299;3.0828;
958.5000;0.5307;3.0900;
958.8000;0.5291;3.0996;
959.1000;0.5283;3.1092;
959.4000;0.5324;3.1188;
959.7000;0.5315;3.1164;
960.0000;0.5315;3.1188;
960.3000;0.5315;3.1236;
960.6000;0.5340;3.1380;
960.9000;0.5324;3.1332;
961.2000;0.5332;3.1356;
961.5000;0.5348;3.1356;
961.8000;0.5307;3.1284;
962.1000;0.5332;3.1404;
962.4000;0.5315;3.1428;
962.7000;0.5324;3.1332;
963.0000;0.5324;3.1236;
963.3000;0.5315;3.1164;
963.6000;0.5226;3.0996;
963.9000;0.5307;3.1236;
964.2000;0.5315;3.1188;
964.5000;0.5299;3.1140;
964.8000;0.5307;3.1188;
965.1000;0.5299;3.1188;
965.4000;0.5332;3.1308;
965.7000;0.5356;3.1452;
966.0000;0.5315;3.1452;
966.3000;0.5324;3.1428;
966.6000;0.5275;3.1380;
966.9000;0.5324;3.1404;
967.2000;0.5332;3.1332;
967.5000;0.5299;3.1236;
967.8000;0.5291;3.1308;
968.1000;0.5299;3.1404;
968.4000;0.5299;3.1404;
968.7000;0.5315;3.1476;
969.0000;0.5299;3.1452;
969.3000;0.5307;3.1452;
969.6000;0.5315;3.1500;
969.9000;0.5315;3.1500;
970.2000;0.5299;3.1476;
970.5000;0.5307;3.1548;
970.8000;0.5324;3.1572;
971.1000;0.5332;3.1548;
971.4000;0.5332;3.1548;
971.7000;0.5364;3.1548;
972.0000;0.5332;3.1452;
972.3000;0.5340;3.1476;
972.6000;0.5324;3.1524;
972.9000;0.5324;3.1500;
973.2000;0.5324;3.1500;
973.5000;0.5315;3.1500;
973.8000;0.5324;3.1452;
974.1000;0.5324;3.1476;
974.4000;0.5299;3.1500;
974.7000;0.5340;3.1596;
975.0000;0.5307;3.1524;
975.3000;0.5291;3.1524;
975.6000;0.5291;3.1428;
975.9000;0.5381;3.1644;
976.2000;0.5315;3.1572;
976.5000;0.5307;3.1476;
976.8000;0.5299;3.1500;
977.1000;0.5299;3.1404;
977.4000;0.5324;3.1332;
977.7000;0.5315;3.1212;
978.0000;0.5324;3.1212;
978.3000;0.5307;3.1332;
978.6000;0.5324;3.1380;
978.9000;0.5381;3.1524;
979.2000;0.5291;3.1332;
979.5000;0.5250;3.1164;
979.8000;0.5324;3.1356;
980.1000;0.5324;3.1332;
980.4000;0.5307;3.1212;
980.7000;0.5299;3.1212;
981.0000;0.5332;3.1236;
981.3000;0.5307;3.1308;
981.6000;0.5315;3.1308;
981.9000;0.5250;3.1140;
982.2000;0.5324;3.1380;
982.5000;0.5324;3.1380;
982.8000;0.5291;3.1284;
983.1000;0.5307;3.1332;
983.4000;0.5324;3.1284;
983.7000;0.5307;3.1284;
984.0000;0.5307;3.1236;
984.3000;0.5299;3.1236;
984.6000;0.5275;3.1260;
984.9000;0.5307;3.1308;
985.2000;0.5315;3.1284;
985.5000;0.5307;3.1284;
985.8000;0.5291;3.1260;
986.1000;0.5340;3.1284;
986.4000;0.5324;3.1284;
986.7000;0.5348;3.1308;
987.0000;0.5356;3.1380;
987.3000;0.5291;3.1212;
987.6000;0.5315;3.1380;
987.9000;0.5348;3.1380;
988.2000;0.5242;3.1140;
988.5000;0.5356;3.1452;
988.8000;0.5356;3.1404;
989.1000;0.5307;3.1308;
989.4000;0.5307;3.1284;
989.7000;0.5307;3.1332;
990.0000;0.5340;3.1452;
990.3000;0.5324;3.1380;
990.6000;0.5299;3.1236;
990.9000;0.5299;3.1260;
991.2000;0.5315;3.1404;
991.5000;0.5291;3.1404;
991.8000;0.5324;3.1524;
992.1000;0.5315;3.1476;
992.4000;0.5307;3.1452;
992.7000;0.5340;3.1524;
993.0000;0.5291;3.1404;
993.3000;0.5307;3.1356;
993.6000;0.5315;3.1284;
993.9000;0.5299;3.1260;
994.2000;0.5315;3.1308;
994.5000;0.5332;3.1332;
994.8000;0.5356;3.1284;
995.1000;0.5307;3.1164;
995.4000;0.5324;3.1140;
995.7000;0.5226;3.0876;
996.0000;0.5307;3.1188;
996.3000;0.5307;3.1140;
996.6000;0.5315;3.1092;
996.9000;0.5332;3.1068;
997.2000;0.5324;3.1044;
997.5000;0.5315;3.1044;
997.8000;0.5324;3.1140;
998.1000;0.5315;3.1188;
998.4000;0.5299;3.1092;
998.7000;0.5283;3.1068;
999.0000;0.5315;3.1212;
999.3000;0.5324;3.1188;
999.6000;0.5291;3.1044;
999.9000;0.5389;3.1356;
1000.2000;0.5315;3.1140;
1000.5000;0.5234;3.0996;
1000.8000;0.5315;3.1164;
1001.1000;0.5315;3.1116;
1001.4000;0.5307;3.1116;
1001.7000;0.5315;3.1116;
1002.0000;0.5267;3.1140;
1002.3000;0.5315;3.1236;
1002.6000;0.5307;3.1284;
1002.9000;0.5324;3.1356;
1003.2000;0.5299;3.1212;
1003.5000;0.5307;3.1212;
1003.8000;0.5283;3.1164;
1004.1000;0.5315;3.1308;
1004.4000;0.5299;3.1212;
1004.7000;0.5324;3.1236;
1005.0000;0.5291;3.1164;
1005.3000;0.5307;3.1188;
1005.6000;0.5324;3.1236;
1005.9000;0.5307;3.1236;
1006.2000;0.5291;3.1212;
1006.5000;0.5348;3.1332;
1006.8000;0.5315;3.1260;
1007.1000;0.5315;3.1308;
1007.4000;0.5299;3.1356;
1007.7000;0.5283;3.1284;
1008.0000;0.5307;3.1428;
1008.3000;0.5283;3.1332;
1008.6000;0.5299;3.1380;
1008.9000;0.5307;3.1404;
1009.2000;0.5299;3.1428;
1009.5000;0.5291;3.1380;
1009.8000;0.5364;3.1452;
1010.1000;0.5356;3.1476;
1010.4000;0.5324;3.1404;
1010.7000;0.5291;3.1356;
1011.0000;0.5291;3.1332;
1011.3000;0.5267;3.1188;
1011.6000;0.5324;3.1428;
1011.9000;0.5307;3.1452;
1012.2000;0.5250;3.1308;
1012.5000;0.5299;3.1404;
1012.8000;0.5275;3.1260;
1013.1000;0.5307;3.1356;
1013.4000;0.5299;3.1308;
1013.7000;0.5291;3.1380;
1014.0000;0.5275;3.1380;
1014.3000;0.5299;3.1332;
1014.6000;0.5307;3.1356;
1014.9000;0.5283;3.1356;
1015.2000;0.5299;3.1380;
1015.5000;0.5299;3.1380;
1015.8000;0.5307;3.1428;
1016.1000;0.5291;3.1476;
1016.4000;0.5307;3.1596;
1016.7000;0.5340;3.1620;
1017.0000;0.5210;3.1260;
1017.3000;0.5307;3.1500;
1017.6000;0.5291;3.1524;
1017.9000;0.5291;3.1452;
1018.2000;0.5307;3.1452;
1018.5000;0.5324;3.1380;
1018.8000;0.5283;3.1236;
1019.1000;0.5283;3.1212;
1019.4000;0.5291;3.1308;
1019.7000;0.5315;3.1500;
1020.0000;0.5291;3.1548;
1020.3000;0.5315;3.1548;
1020.6000;0.5332;3.1620;
1020.9000;0.5275;3.1500;
1021.2000;0.5307;3.1572;
1021.5000;0.5332;3.1668;
1021.8000;0.5315;3.1596;
1022.1000;0.5291;3.1452;
1022.4000;0.5291;3.1428;
1022.7000;0.5315;3.1404;
1023.0000;0.5299;3.1284;
1023.3000;0.5315;3.1212;
1023.6000;0.5283;3.1068;
1023.9000;0.5291;3.1164;
1024.2000;0.5299;3.1236;
1024.5000;0.5283;3.1260;
1024.8000;0.5307;3.1332;
1025.1000;0.5299;3.1332;
1025.4000;0.5307;3.1380;
1025.7000;0.5307;3.1428;
1026.0000;0.5307;3.1428;
1026.3000;0.5291;3.1428;
1026.6000;0.5291;3.1452;
1026.9000;0.5275;3.1308;
1027.2000;0.5283;3.1332;
1027.5000;0.5283;3.1332;
1027.8000;0.5283;3.1404;
1028.1000;0.5307;3.1356;
1028.4000;0.5299;3.1284;
1028.7000;0.5307;3.1260;
1029.0000;0.5291;3.1188;
1029.3000;0.5299;3.1188;
1029.6000;0.5299;3.1284;
1029.9000;0.5283;3.1236;
1030.2000;0.5291;3.1260;
1030.5000;0.5291;3.1356;
1030.8000;0.5307;3.1452;
1031.1000;0.5299;3.1404;
1031.4000;0.5299;3.1500;
1031.7000;0.5275;3.1524;
1032.0000;0.5332;3.1620;
1032.3000;0.5315;3.1548;
1032.6000;0.5307;3.1596;
1032.9000;0.5250;3.1524;
1033.2000;0.5299;3.1620;
1033.5000;0.5299;3.1548;
1033.8000;0.5291;3.1428;
1034.1000;0.5242;3.1332;
1034.4000;0.5299;3.1476;
1034.7000;0.5299;3.1452;
1035.0000;0.5307;3.1452;
1035.3000;0.5275;3.1404;
1035.6000;0.5275;3.1452;
1035.9000;0.5324;3.1476;
1036.2000;0.5307;3.1404;
1036.5000;0.5307;3.1404;
1036.8000;0.5299;3.1356;
1037.1000;0.5315;3.1404;
1037.4000;0.5315;3.1428;
1037.7000;0.5356;3.1476;
1038.0000;0.5324;3.1452;
1038.3000;0.5299;3.1260;
1038.6000;0.5299;3.1404;
1038.9000;0.5291;3.1428;
1039.2000;0.5315;3.1572;
1039.5000;0.5299;3.1644;
1039.8000;0.5275;3.1596;
1040.1000;0.5283;3.1548;
1040.4000;0.5283;3.1548;
1040.7000;0.5291;3.1572;
1041.0000;0.5307;3.1548;
1041.3000;0.5307;3.1524;
1041.6000;0.5324;3.1596;
1041.9000;0.5307;3.1524;
1042.2000;0.5299;3.1596;
1042.5000;0.5291;3.1572;
1042.8000;0.5315;3.1596;
1043.1000;0.5283;3.1500;
1043.4000;0.5307;3.1572;
1043.7000;0.5348;3.1500;
1044.0000;0.5291;3.1332;
1044.3000;0.5291;3.1308;
1044.6000;0.5299;3.1356;
1044.9000;0.5315;3.1404;
1045.2000;0.5291;3.1308;
1045.5000;0.5283;3.1380;
1045.8000;0.5291;3.1428;
1046.1000;0.5324;3.1428;
1046.4000;0.5291;3.1404;
1046.7000;0.5283;3.1284;
1047.0000;0.5348;3.1428;
1047.3000;0.5299;3.1356;
1047.6000;0.5291;3.1308;
1047.9000;0.5324;3.1380;
1048.2000;0.5291;3.1284;
1048.5000;0.5291;3.1284;
1048.8000;0.5307;3.1308;
1049.1000;0.5283;3.1260;
1049.4000;0.5307;3.1356;
1049.7000;0.5275;3.1260;
1050.0000;0.5307;3.1356;
1050.3000;0.5299;3.1380;
1050.6000;0.5307;3.1404;
1050.9000;0.5299;3.1452;
1051.2000;0.5307;3.1500;
1051.5000;0.5299;3.1524;
1051.8000;0.5307;3.1500;
1052.1000;0.5307;3.1596;
1052.4000;0.5315;3.1644;
1052.7000;0.5299;3.1668;
1053.0000;0.5307;3.1596;
1053.3000;0.5283;3.1452;
1053.6000;0.5340;3.1524;
1053.9000;0.5348;3.1500;
1054.2000;0.5283;3.1356;
1054.5000;0.5315;3.1500;
1054.8000;0.5307;3.1452;
1055.1000;0.5299;3.1380;
1055.4000;0.5315;3.1452;
1055.7000;0.5291;3.1356;
1056.0000;0.5258;3.1236;
1056.3000;0.5324;3.1500;
1056.6000;0.5299;3.1524;
1056.9000;0.5324;3.1644;
1057.2000;0.5307;3.1596;
1057.5000;0.5307;3.1596;
1057.8000;0.5389;3.1788;
1058.1000;0.5234;3.1332;
1058.4000;0.5291;3.1476;
1058.7000;0.5307;3.1476;
1059.0000;0.5299;3.1476;
1059.3000;0.5275;3.1428;
1059.6000;0.5307;3.1500;
1059.9000;0.5315;3.1524;
1060.2000;0.5267;3.1308;
1060.5000;0.5299;3.1452;
1060.8000;0.5299;3.1428;
1061.1000;0.5291;3.1404;
1061.4000;0.5283;3.1380;
1061.7000;0.5275;3.1404;
1062.0000;0.5283;3.1404;
1062.3000;0.5299;3.1452;
1062.6000;0.5299;3.1500;
1062.9000;0.5291;3.1476;
1063.2000;0.5283;3.1476;
1063.5000;0.5315;3.1596;
1063.8000;0.5275;3.1596;
1064.1000;0.5299;3.1644;
1064.4000;0.5291;3.1668;
1064.7000;0.5275;3.1668;
1065.0000;0.5299;3.1572;
1065.3000;0.5299;3.1548;
1065.6000;0.5299;3.1476;
1065.9000;0.5291;3.1380;
1066.2000;0.5307;3.1428;
1066.5000;0.5307;3.1476;
1066.8000;0.5275;3.1428;
1067.1000;0.5299;3.1476;
1067.4000;0.5250;3.1356;
1067.7000;0.5299;3.1476;
1068.0000;0.5283;3.1500;
1068.3000;0.5283;3.1476;
1068.6000;0.5267;3.1428;
1068.9000;0.5283;3.1356;
1069.2000;0.5291;3.1356;
1069.5000;0.5283;3.1404;
1069.8000;0.5291;3.1332;
1070.1000;0.5299;3.1380;
1070.4000;0.5307;3.1404;
1070.7000;0.5291;3.1404;
1071.0000;0.5283;3.1404;
1071.3000;0.5299;3.1476;
1071.6000;0.5299;3.1404;
1071.9000;0.5291;3.1404;
1072.2000;0.5299;3.1476;
1072.5000;0.5299;3.1500;
1072.8000;0.5315;3.1548;
1073.1000;0.5283;3.1548;
1073.4000;0.5348;3.1692;
1073.7000;0.5275;3.1644;
1074.0000;0.5275;3.1644;
1074.3000;0.5275;3.1740;
1074.6000;0.5283;3.1764;
1074.9000;0.5299;3.1788;
1075.2000;0.5299;3.1788;
1075.5000;0.5291;3.1692;
1075.8000;0.5299;3.1740;
1076.1000;0.5291;3.1692;
1076.4000;0.5291;3.1596;
1076.7000;0.5307;3.1620;
1077.0000;0.5307;3.1668;
1077.3000;0.5299;3.1596;
1077.6000;0.5283;3.1620;
1077.9000;0.5307;3.1668;
1078.2000;0.5283;3.1644;
1078.5000;0.5291;3.1572;
1078.8000;0.5299;3.1524;
1079.1000;0.5340;3.1620;
1079.4000;0.5283;3.1404;
1079.7000;0.5283;3.1380;
1080.0000;0.5283;3.1404;
1080.3000;0.5299;3.1524;
1080.6000;0.5299;3.1524;
1080.9000;0.5291;3.1428;
1081.2000;0.5291;3.1380;
1081.5000;0.5324;3.1476;
1081.8000;0.5299;3.1380;
1082.1000;0.5315;3.1548;
1082.4000;0.5291;3.1548;
1082.7000;0.5299;3.1692;
1083.0000;0.5275;3.1644;
1083.3000;0.5283;3.1596;
1083.6000;0.5242;3.1548;
1083.9000;0.5275;3.1596;
1084.2000;0.5299;3.1620;
1084.5000;0.5291;3.1572;
1084.8000;0.5291;3.1572;
1085.1000;0.5299;3.1548;
1085.4000;0.5291;3.1452;
1085.7000;0.5291;3.1476;
1086.0000;0.5340;3.1620;
1086.3000;0.5291;3.1452;
1086.6000;0.5307;3.1452;
1086.9000;0.5307;3.1572;
1087.2000;0.5291;3.1500;
1087.5000;0.5161;3.1188;
1087.8000;0.5267;3.1428;
1088.1000;0.5291;3.1500;
1088.4000;0.5291;3.1452;
1088.7000;0.5299;3.1524;
1089.0000;0.5299;3.1548;
1089.3000;0.5291;3.1428;
1089.6000;0.5291;3.1404;
1089.9000;0.5283;3.1428;
1090.2000;0.5283;3.1308;
1090.5000;0.5267;3.1332;
1090.8000;0.5299;3.1404;
1091.1000;0.5291;3.1356;
1091.4000;0.5299;3.1332;
1091.7000;0.5291;3.1260;
1092.0000;0.5283;3.1236;
1092.3000;0.5315;3.1332;
1092.6000;0.5291;3.1380;
1092.9000;0.5307;3.1380;
1093.2000;0.5283;3.1428;
1093.5000;0.5332;3.1572;
1093.8000;0.5283;3.1500;
1094.1000;0.5291;3.1452;
1094.4000;0.5201;3.1164;
1094.7000;0.5291;3.1332;
1095.0000;0.5275;3.1308;
1095.3000;0.5291;3.1308;
1095.6000;0.5283;3.1332;
1095.9000;0.5307;3.1500;
1096.2000;0.5291;3.1404;
1096.5000;0.5275;3.1380;
1096.8000;0.5291;3.1308;
1097.1000;0.5291;3.1332;
1097.4000;0.5283;3.1380;
1097.7000;0.5275;3.1356;
1098.0000;0.5356;3.1548;
1098.3000;0.5299;3.1356;
1098.6000;0.5299;3.1380;
1098.9000;0.5275;3.1284;
1099.2000;0.5291;3.1332;
1099.5000;0.5226;3.1116;
1099.8000;0.5291;3.1260;
1100.1000;0.5291;3.1260;
1100.4000;0.5283;3.1260;
1100.7000;0.5291;3.1236;
1101.0000;0.5267;3.1308;
1101.3000;0.5291;3.1308;
1101.6000;0.5275;3.1380;
1101.9000;0.5299;3.1452;
1102.2000;0.5291;3.1548;
1102.5000;0.5258;3.1500;
1102.8000;0.5291;3.1572;
1103.1000;0.5324;3.1572;
1103.4000;0.5291;3.1524;
1103.7000;0.5291;3.1404;
1104.0000;0.5291;3.1404;
1104.3000;0.5283;3.1500;
1104.6000;0.5291;3.1380;
1104.9000;0.5283;3.1380;
1105.2000;0.5299;3.1380;
1105.5000;0.5307;3.1500;
1105.8000;0.5307;3.1380;
1106.1000;0.5291;3.1380;
1106.4000;0.5275;3.1428;
1106.7000;0.5275;3.1476;
1107.0000;0.5283;3.1572;
1107.3000;0.5291;3.1548;
1107.6000;0.5258;3.1452;
1107.9000;0.5275;3.1452;
1108.2000;0.5283;3.1500;
1108.5000;0.5283;3.1500;
1108.8000;0.5315;3.1500;
1109.1000;0.5291;3.1596;
1109.4000;0.5307;3.1644;
1109.7000;0.5283;3.1620;
1110.0000;0.5299;3.1524;
1110.3000;0.5291;3.1476;
1110.6000;0.5299;3.1548;
1110.9000;0.5315;3.1548;
1111.2000;0.5299;3.1500;
1111.5000;0.5299;3.1500;
1111.8000;0.5250;3.1452;
1112.1000;0.5283;3.1500;
1112.4000;0.5291;3.1476;
1112.7000;0.5201;3.1164;
1113.0000;0.5291;3.1524;
1113.3000;0.5291;3.1476;
1113.6000;0.5267;3.1380;
1113.9000;0.5283;3.1500;
1114.2000;0.5275;3.1452;
1114.5000;0.5275;3.1500;
1114.8000;0.5201;3.1308;
1115.1000;0.5283;3.1428;
1115.4000;0.5267;3.1356;
1115.7000;0.5275;3.1332;
1116.0000;0.5291;3.1476;
1116.3000;0.5348;3.1692;
1116.6000;0.5267;3.1476;
1116.9000;0.5299;3.1548;
1117.2000;0.5283;3.1524;
1117.5000;0.5315;3.1524;
1117.8000;0.5291;3.1500;
1118.1000;0.5267;3.1428;
1118.4000;0.5283;3.1476;
1118.7000;0.5267;3.1476;
1119.0000;0.5275;3.1404;
1119.3000;0.5275;3.1332;
1119.6000;0.5283;3.1332;
1119.9000;0.5275;3.1332;
1120.2000;0.5283;3.1332;
1120.5000;0.5275;3.1332;
1120.8000;0.5291;3.1428;
1121.1000;0.5258;3.1380;
1121.4000;0.5291;3.1476;
1121.7000;0.5299;3.1524;
1122.0000;0.5275;3.1500;
1122.3000;0.5291;3.1524;
1122.6000;0.5291;3.1548;
1122.9000;0.5299;3.1596;
1123.2000;0.5275;3.1524;
1123.5000;0.5291;3.1548;
1123.8000;0.5307;3.1524;
1124.1000;0.5283;3.1404;
1124.4000;0.5267;3.1380;
1124.7000;0.5283;3.1380;
1125.0000;0.5283;3.1452;
1125.3000;0.5299;3.1548;
1125.6000;0.5275;3.1548;
1125.9000;0.5275;3.1548;
1126.2000;0.5299;3.1500;
1126.5000;0.5283;3.1428;
1126.8000;0.5283;3.1428;
1127.1000;0.5283;3.1428;
1127.4000;0.5299;3.1572;
1127.7000;0.5275;3.1524;
1128.0000;0.5291;3.1524;
1128.3000;0.5283;3.1572;
1128.6000;0.5283;3.1500;
1128.9000;0.5275;3.1500;
1129.2000;0.5291;3.1548;
1129.5000;0.5283;3.1524;
1129.8000;0.5258;3.1452;
1130.1000;0.5397;3.1764;
1130.4000;0.5275;3.1476;
1130.7000;0.5291;3.1548;
1131.0000;0.5275;3.1524;
1131.3000;0.5267;3.1500;
1131.6000;0.5291;3.1596;
1131.9000;0.5283;3.1596;
1132.2000;0.5275;3.1620;
1132.5000;0.5315;3.1668;
1132.8000;0.5315;3.1668;
1133.1000;0.5283;3.1668;
1133.4000;0.5299;3.1692;
1133.7000;0.5291;3.1620;
1134.0000;0.5218;3.1428;
1134.3000;0.5291;3.1620;
1134.6000;0.5275;3.1620;
1134.9000;0.5299;3.1596;
1135.2000;0.5283;3.1452;
1135.5000;0.5283;3.1500;
1135.8000;0.5283;3.1500;
1136.1000;0.5291;3.1572;
1136.4000;0.5307;3.1596;
1136.7000;0.5291;3.1572;
1137.0000;0.5291;3.1572;
1137.3000;0.5275;3.1572;
1137.6000;0.5291;3.1572;
1137.9000;0.5291;3.1548;
1138.2000;0.5291;3.1524;
1138.5000;0.5258;3.1452;
1138.8000;0.5299;3.1524;
1139.1000;0.5283;3.1548;
1139.4000;0.5275;3.1548;
1139.7000;0.5291;3.1644;
1140.0000;0.5324;3.1740;
1140.3000;0.5291;3.1620;
1140.6000;0.5299;3.1620;
1140.9000;0.5299;3.1620;
1141.2000;0.5283;3.1644;
1141.5000;0.5112;3.1236;
1141.8000;0.5275;3.1572;
1142.1000;0.5275;3.1572;
1142.4000;0.5283;3.1668;
1142.7000;0.5275;3.1668;
1143.0000;0.5267;3.1572;
1143.3000;0.5275;3.1620;
1143.6000;0.5307;3.1620;
1143.9000;0.5291;3.1548;
1144.2000;0.5267;3.1476;
1144.5000;0.5283;3.1572;
1144.8000;0.5291;3.1572;
1145.1000;0.5299;3.1548;
1145.4000;0.5356;3.1668;
1145.7000;0.5291;3.1500;
1146.0000;0.5283;3.1668;
1146.3000;0.5324;3.1692;
1146.6000;0.5364;3.1716;
1146.9000;0.5299;3.1548;
1147.2000;0.5291;3.1524;
1147.5000;0.5283;3.1572;
1147.8000;0.5291;3.1548;
1148.1000;0.5258;3.1476;
1148.4000;0.5291;3.1596;
1148.7000;0.5299;3.1620;
1149.0000;0.5307;3.1548;
1149.3000;0.5275;3.1404;
1149.6000;0.5299;3.1500;
1149.9000;0.5177;3.1308;
1150.2000;0.5299;3.1620;
1150.5000;0.5291;3.1620;
1150.8000;0.5291;3.1524;
1151.1000;0.5267;3.1500;
1151.4000;0.5291;3.1620;
1151.7000;0.5291;3.1668;
1152.0000;0.5299;3.1572;
1152.3000;0.5283;3.1548;
1152.6000;0.5275;3.1500;
1152.9000;0.5275;3.1500;
1153.2000;0.5291;3.1476;
1153.5000;0.5283;3.1428;
1153.8000;0.5267;3.1308;
1154.1000;0.5275;3.1476;
1154.4000;0.5275;3.1572;
1154.7000;0.5258;3.1548;
1155.0000;0.5299;3.1524;
1155.3000;0.5291;3.1548;
1155.6000;0.5283;3.1644;
1155.9000;0.5283;3.1668;
1156.2000;0.5210;3.1476;
1156.5000;0.5291;3.1740;
1156.8000;0.5299;3.1764;
1157.1000;0.5242;3.1692;
1157.4000;0.5332;3.1908;
1157.7000;0.5283;3.1788;
1158.0000;0.5275;3.1692;
1158.3000;0.5291;3.1668;
1158.6000;0.5275;3.1572;
1158.9000;0.5283;3.1524;
1159.2000;0.5267;3.1452;
1159.5000;0.5307;3.1524;
1159.8000;0.5185;3.1284;
1160.1000;0.5291;3.1500;
1160.4000;0.5299;3.1428;
1160.7000;0.5356;3.1644;
1161.0000;0.5291;3.1524;
1161.3000;0.5299;3.1548;
1161.6000;0.5291;3.1620;
1161.9000;0.5283;3.1644;
1162.2000;0.5283;3.1644;
1162.5000;0.5291;3.1644;
1162.8000;0.5315;3.1668;
1163.1000;0.5291;3.1596;
1163.4000;0.5258;3.1476;
1163.7000;0.5283;3.1620;
1164.0000;0.5169;3.1308;
1164.3000;0.5332;3.1692;
1164.6000;0.5258;3.1620;
1164.9000;0.5291;3.1740;
1165.2000;0.5291;3.1692;
1165.5000;0.5307;3.1740;
1165.8000;0.5291;3.1692;
1166.1000;0.5291;3.1644;
1166.4000;0.5299;3.1716;
1166.7000;0.5340;3.1860;
1167.0000;0.5291;3.1764;
1167.3000;0.5291;3.1692;
1167.6000;0.5283;3.1692;
1167.9000;0.5299;3.1812;
1168.2000;0.5291;3.1812;
1168.5000;0.5275;3.1764;
1168.8000;0.5275;3.1836;
1169.1000;0.5275;3.1764;
1169.4000;0.5356;3.1908;
1169.7000;0.5250;3.1668;
1170.0000;0.5275;3.1692;
1170.3000;0.5299;3.1668;
1170.6000;0.5267;3.1596;
1170.9000;0.5315;3.1740;
1171.2000;0.5267;3.1548;
1171.5000;0.5275;3.1596;
1171.8000;0.5324;3.1788;
1172.1000;0.5218;3.1596;
1172.4000;0.5291;3.1860;
1172.7000;0.5283;3.1860;
1173.0000;0.5283;3.1932;
1173.3000;0.5348;3.2028;
1173.6000;0.5291;3.1836;
1173.9000;0.5324;3.1884;
1174.2000;0.5275;3.1764;
1174.5000;0.5258;3.1764;
1174.8000;0.5291;3.1812;
1175.1000;0.5267;3.1764;
1175.4000;0.5283;3.1740;
1175.7000;0.5307;3.1788;
1176.0000;0.5275;3.1812;
1176.3000;0.5291;3.1740;
1176.6000;0.5267;3.1716;
1176.9000;0.5283;3.1740;
1177.2000;0.5267;3.1668;
1177.5000;0.5315;3.1764;
1177.8000;0.5299;3.1620;
1178.1000;0.5275;3.1620;
1178.4000;0.5283;3.1620;
1178.7000;0.5307;3.1644;
1179.0000;0.5291;3.1596;
1179.3000;0.5283;3.1620;
1179.6000;0.5315;3.1692;
1179.9000;0.5275;3.1524;
1180.2000;0.5226;3.1500;
1180.5000;0.5283;3.1596;
1180.8000;0.5291;3.1596;
1181.1000;0.5291;3.1596;
1181.4000;0.5258;3.1572;
1181.7000;0.5283;3.1620;
1182.0000;0.5299;3.1692;
1182.3000;0.5299;3.1644;
1182.6000;0.5291;3.1500;
1182.9000;0.5275;3.1476;
1183.2000;0.5299;3.1596;
1183.5000;0.5291;3.1524;
1183.8000;0.5258;3.1476;
1184.1000;0.5283;3.1524;
1184.4000;0.5283;3.1572;
1184.7000;0.5299;3.1596;
1185.0000;0.5275;3.1620;
1185.3000;0.5283;3.1644;
1185.6000;0.5291;3.1716;
1185.9000;0.5283;3.1836;
1186.2000;0.5299;3.1908;
1186.5000;0.5275;3.1860;
1186.8000;0.5185;3.1668;
1187.1000;0.5275;3.1932;
1187.4000;0.5283;3.1932;
1187.7000;0.5275;3.1764;
1188.0000;0.5307;3.1812;
1188.3000;0.5283;3.1788;
1188.6000;0.5299;3.1836;
1188.9000;0.5250;3.1740;
1189.2000;0.5307;3.1812;
1189.5000;0.5283;3.1716;
1189.8000;0.5267;3.1692;
1190.1000;0.5283;3.1764;
1190.4000;0.5283;3.1716;
1190.7000;0.5283;3.1716;
1191.0000;0.5291;3.1716;
1191.3000;0.5291;3.1620;
1191.6000;0.5283;3.1572;
1191.9000;0.5275;3.1620;
1192.2000;0.5315;3.1716;
1192.5000;0.5291;3.1692;
1192.8000;0.5275;3.1572;
1193.1000;0.5267;3.1500;
1193.4000;0.5267;3.1500;
1193.7000;0.5324;3.1716;
1194.0000;0.5299;3.1644;
1194.3000;0.5275;3.1548;
1194.6000;0.5267;3.1500;
1194.9000;0.5283;3.1548;
1195.2000;0.5267;3.1524;
1195.5000;0.5275;3.1596;
1195.8000;0.5267;3.1548;
1196.1000;0.5242;3.1476;
1196.4000;0.5291;3.1500;
1196.7000;0.5275;3.1380;
1197.0000;0.5267;3.1332;
1197.3000;0.5299;3.1500;
1197.6000;0.5299;3.1524;
1197.9000;0.5291;3.1596;
1198.2000;0.5267;3.1620;
1198.5000;0.5307;3.1716;
1198.8000;0.5291;3.1692;
1199.1000;0.5291;3.1788;
1199.4000;0.5283;3.1740;
1199.7000;0.5291;3.1764;
1200.0000;0.5283;3.1764;
1200.3000;0.5283;3.1788;
1200.6000;0.5283;3.1860;
1200.9000;0.5291;3.1884;
1201.2000;0.5283;3.1836;
1201.5000;0.5275;3.1764;
1201.8000;0.5275;3.1740;
1202.1000;0.5291;3.1692;
1202.4000;0.5315;3.1740;
1202.7000;0.5267;3.1620;
1203.0000;0.5275;3.1524;
1203.3000;0.5283;3.1524;
1203.6000;0.5299;3.1644;
1203.9000;0.5275;3.1572;
1204.2000;0.5275;3.1596;
1204.5000;0.5275;3.1548;
1204.8000;0.5283;3.1524;
1205.1000;0.5267;3.1476;
1205.4000;0.5267;3.1476;
1205.7000;0.5201;3.1356;
1206.0000;0.5275;3.1668;
1206.3000;0.5267;3.1644;
1206.6000;0.5275;3.1596;
1206.9000;0.5267;3.1500;
1207.2000;0.5267;3.1500;
1207.5000;0.5307;3.1500;
1207.8000;0.5283;3.1524;
1208.1000;0.5267;3.1428;
1208.4000;0.5267;3.1428;
1208.7000;0.5291;3.1428;
1209.0000;0.5234;3.1212;
1209.3000;0.5275;3.1404;
1209.6000;0.5267;3.1452;
1209.9000;0.5275;3.1500;
1210.2000;0.5275;3.1452;
1210.5000;0.5291;3.1524;
1210.8000;0.5258;3.1452;
1211.1000;0.5299;3.1500;
1211.4000;0.5291;3.1452;
1211.7000;0.5283;3.1476;
1212.0000;0.5258;3.1524;
1212.3000;0.5291;3.1596;
1212.6000;0.5291;3.1596;
1212.9000;0.5258;3.1548;
1213.2000;0.5267;3.1500;
1213.5000;0.5185;3.1236;
1213.8000;0.5226;3.1332;
1214.1000;0.5267;3.1452;
1214.4000;0.5275;3.1452;
1214.7000;0.5267;3.1548;
1215.0000;0.5291;3.1620;
1215.3000;0.5275;3.1596;
1215.6000;0.5275;3.1500;
1215.9000;0.5267;3.1380;
1216.2000;0.5291;3.1428;
1216.5000;0.5283;3.1404;
1216.8000;0.5275;3.1452;
1217.1000;0.5250;3.1332;
1217.4000;0.5291;3.1428;
1217.7000;0.5283;3.1380;
1218.0000;0.5299;3.1404;
1218.3000;0.5283;3.1452;
1218.6000;0.5275;3.1452;
1218.9000;0.5267;3.1476;
1219.2000;0.5267;3.1548;
1219.5000;0.5389;3.1860;
1219.8000;0.5275;3.1404;
1220.1000;0.5275;3.1380;
1220.4000;0.5250;3.1332;
1220.7000;0.5275;3.1404;
1221.0000;0.5258;3.1356;
1221.3000;0.5283;3.1404;
1221.6000;0.5307;3.1476;
1221.9000;0.5291;3.1404;
1222.2000;0.5299;3.1404;
1222.5000;0.5283;3.1476;
1222.8000;0.5283;3.1548;
1223.1000;0.5307;3.1596;
1223.4000;0.5299;3.1644;
1223.7000;0.5291;3.1692;
1224.0000;0.5307;3.1764;
1224.3000;0.5291;3.1668;
1224.6000;0.5283;3.1596;
1224.9000;0.5291;3.1596;
1225.2000;0.5283;3.1548;
1225.5000;0.5275;3.1548;
1225.8000;0.5267;3.1500;
1226.1000;0.5315;3.1572;
1226.4000;0.5299;3.1548;
1226.7000;0.5283;3.1500;
1227.0000;0.5283;3.1524;
1227.3000;0.5267;3.1548;
1227.6000;0.5291;3.1524;
1227.9000;0.5267;3.1524;
1228.2000;0.5275;3.1524;
1228.5000;0.5267;3.1500;
1228.8000;0.5275;3.1548;
1229.1000;0.5275;3.1668;
1229.4000;0.5275;3.1692;
1229.7000;0.5324;3.1788;
1230.0000;0.5291;3.1740;
1230.3000;0.5275;3.1668;
1230.6000;0.5275;3.1692;
1230.9000;0.5242;3.1596;
1231.2000;0.5275;3.1644;
1231.5000;0.5258;3.1668;
1231.8000;0.5283;3.1572;
1232.1000;0.5275;3.1524;
1232.4000;0.5283;3.1620;
1232.7000;0.5275;3.1644;
1233.0000;0.5275;3.1572;
1233.3000;0.5275;3.1572;
1233.6000;0.5275;3.1548;
1233.9000;0.5275;3.1500;
1234.2000;0.5291;3.1500;
1234.5000;0.5299;3.1500;
1234.8000;0.5348;3.1620;
1235.1000;0.5283;3.1500;
1235.4000;0.5201;3.1260;
1235.7000;0.5283;3.1476;
1236.0000;0.5283;3.1452;
1236.3000;0.5307;3.1596;
1236.6000;0.5299;3.1572;
1236.9000;0.5291;3.1548;
1237.2000;0.5275;3.1548;
1237.5000;0.5299;3.1620;
1237.8000;0.5275;3.1524;
1238.1000;0.5275;3.1476;
1238.4000;0.5275;3.1404;
1238.7000;0.5258;3.1236;
1239.0000;0.5267;3.1236;
1239.3000;0.5226;3.1116;
1239.6000;0.5275;3.1212;
1239.9000;0.5242;3.1116;
1240.2000;0.5267;3.1236;
1240.5000;0.5267;3.1212;
1240.8000;0.5291;3.1188;
1241.1000;0.5283;3.1284;
1241.4000;0.5283;3.1260;
1241.7000;0.5299;3.1428;
1242.0000;0.5275;3.1404;
1242.3000;0.5275;3.1332;
1242.6000;0.5242;3.1308;
1242.9000;0.5226;3.1356;
1243.2000;0.5283;3.1380;
1243.5000;0.5250;3.1284;
1243.8000;0.5234;3.1212;
1244.1000;0.5258;3.1188;
1244.4000;0.5258;3.1188;
1244.7000;0.5267;3.1164;
1245.0000;0.5275;3.1260;
1245.3000;0.5258;3.1284;
1245.6000;0.5242;3.1212;
1245.9000;0.5267;3.1188;
1246.2000;0.5283;3.1188;
1246.5000;0.5275;3.1188;
1246.8000;0.5291;3.1140;
1247.1000;0.5258;3.1044;
1247.4000;0.5258;3.1092;
1247.7000;0.5210;3.1044;
1248.0000;0.5283;3.1140;
1248.3000;0.5275;3.1164;
1248.6000;0.5299;3.1236;
1248.9000;0.5226;3.1188;
1249.2000;0.5291;3.1284;
1249.5000;0.5283;3.1236;
1249.8000;0.5250;3.1092;
1250.1000;0.5258;3.1068;
1250.4000;0.5291;3.1236;
1250.7000;0.5283;3.1164;
1251.0000;0.5307;3.1236;
1251.3000;0.5267;3.1236;
1251.6000;0.5275;3.1284;
1251.9000;0.5218;3.1236;
1252.2000;0.5267;3.1332;
1252.5000;0.5275;3.1380;
1252.8000;0.5275;3.1404;
1253.1000;0.5267;3.1332;
1253.4000;0.5258;3.1428;
1253.7000;0.5242;3.1380;
1254.0000;0.5258;3.1500;
1254.3000;0.5267;3.1380;
1254.6000;0.5258;3.1308;
1254.9000;0.5275;3.1332;
1255.2000;0.5267;3.1356;
1255.5000;0.5307;3.1404;
1255.8000;0.5275;3.1236;
1256.1000;0.5275;3.1308;
1256.4000;0.5250;3.1356;
1256.7000;0.5258;3.1356;
1257.0000;0.5275;3.1380;
1257.3000;0.5291;3.1428;
1257.6000;0.5275;3.1356;
1257.9000;0.5283;3.1356;
1258.2000;0.5283;3.1332;
1258.5000;0.5267;3.1356;
1258.8000;0.5258;3.1404;
1259.1000;0.5250;3.1404;
1259.4000;0.5283;3.1476;
1259.7000;0.5201;3.1308;
1260.0000;0.5242;3.1452;
1260.3000;0.5258;3.1428;
1260.6000;0.5267;3.1476;
1260.9000;0.5267;3.1404;
1261.2000;0.5299;3.1452;
1261.5000;0.5324;3.1548;
1261.8000;0.5291;3.1428;
1262.1000;0.5283;3.1356;
1262.4000;0.5275;3.1380;
1262.7000;0.5275;3.1332;
1263.0000;0.5315;3.1452;
1263.3000;0.5340;3.1452;
1263.6000;0.5291;3.1404;
1263.9000;0.5267;3.1356;
1264.2000;0.5258;3.1260;
1264.5000;0.5267;3.1284;
1264.8000;0.5267;3.1284;
1265.1000;0.5258;3.1284;
1265.4000;0.5275;3.1356;
1265.7000;0.5283;3.1356;
1266.0000;0.5267;3.1332;
1266.3000;0.5258;3.1260;
1266.6000;0.5283;3.1356;
1266.9000;0.5267;3.1356;
1267.2000;0.5275;3.1380;
1267.5000;0.5275;3.1332;
1267.8000;0.5275;3.1404;
1268.1000;0.5283;3.1380;
1268.4000;0.5267;3.1380;
1268.7000;0.5267;3.1380;
1269.0000;0.5275;3.1332;
1269.3000;0.5267;3.1284;
1269.6000;0.5291;3.1284;
1269.9000;0.5324;3.1476;
1270.2000;0.5258;3.1284;
1270.5000;0.5275;3.1308;
1270.8000;0.5299;3.1476;
1271.1000;0.5258;3.1452;
1271.4000;0.5258;3.1356;
1271.7000;0.5307;3.1500;
1272.0000;0.5291;3.1356;
1272.3000;0.5283;3.1308;
1272.6000;0.5283;3.1260;
1272.9000;0.5283;3.1332;
1273.2000;0.5234;3.1236;
1273.5000;0.5283;3.1284;
1273.8000;0.5275;3.1380;
1274.1000;0.5275;3.1428;
1274.4000;0.5299;3.1524;
1274.7000;0.5283;3.1476;
1275.0000;0.5267;3.1404;
1275.3000;0.5267;3.1284;
1275.6000;0.5258;3.1356;
1275.9000;0.5250;3.1404;
1276.2000;0.5267;3.1428;
1276.5000;0.5250;3.1404;
1276.8000;0.5210;3.1452;
1277.1000;0.5275;3.1668;
1277.4000;0.5291;3.1644;
1277.7000;0.5283;3.1644;
1278.0000;0.5299;3.1692;
1278.3000;0.5283;3.1620;
1278.6000;0.5283;3.1500;
1278.9000;0.5234;3.1308;
1279.2000;0.5275;3.1404;
1279.5000;0.5267;3.1356;
1279.8000;0.5275;3.1332;
1280.1000;0.5267;3.1428;
1280.4000;0.5283;3.1500;
1280.7000;0.5267;3.1428;
1281.0000;0.5275;3.1404;
1281.3000;0.5275;3.1356;
1281.6000;0.5291;3.1380;
1281.9000;0.5275;3.1500;
1282.2000;0.5283;3.1524;
1282.5000;0.5242;3.1380;
1282.8000;0.5283;3.1524;
1283.1000;0.5299;3.1572;
1283.4000;0.5299;3.1572;
1283.7000;0.5267;3.1524;
1284.0000;0.5275;3.1548;
1284.3000;0.5299;3.1668;
1284.6000;0.5267;3.1572;
1284.9000;0.5258;3.1524;
1285.2000;0.5275;3.1452;
1285.5000;0.5258;3.1428;
1285.8000;0.5283;3.1476;
1286.1000;0.5275;3.1476;
1286.4000;0.5275;3.1428;
1286.7000;0.5267;3.1380;
1287.0000;0.5299;3.1476;
1287.3000;0.5275;3.1428;
1287.6000;0.5283;3.1572;
1287.9000;0.5307;3.1668;
1288.2000;0.5307;3.1596;
1288.5000;0.5275;3.1500;
1288.8000;0.5283;3.1548;
1289.1000;0.5283;3.1548;
1289.4000;0.5283;3.1500;
1289.7000;0.5275;3.1404;
1290.0000;0.5291;3.1380;
1290.3000;0.5258;3.1332;
1290.6000;0.5275;3.1428;
1290.9000;0.5275;3.1452;
1291.2000;0.5291;3.1572;
1291.5000;0.5283;3.1620;
1291.8000;0.5267;3.1596;
1292.1000;0.5283;3.1644;
1292.4000;0.5275;3.1596;
1292.7000;0.5283;3.1596;
1293.0000;0.5275;3.1596;
1293.3000;0.5283;3.1620;
1293.6000;0.5283;3.1596;
1293.9000;0.5258;3.1476;
1294.2000;0.5267;3.1524;
1294.5000;0.5275;3.1572;
1294.8000;0.5267;3.1524;
1295.1000;0.5275;3.1452;
1295.4000;0.5267;3.1500;
1295.7000;0.5258;3.1380;
1296.0000;0.5275;3.1428;
1296.3000;0.5258;3.1452;
1296.6000;0.5283;3.1548;
1296.9000;0.5283;3.1524;
1297.2000;0.5275;3.1524;
1297.5000;0.5258;3.1524;
1297.8000;0.5275;3.1596;
1298.1000;0.5283;3.1548;
1298.4000;0.5258;3.1476;
1298.7000;0.5258;3.1428;
1299.0000;0.5275;3.1452;
1299.3000;0.5258;3.1356;
1299.6000;0.5283;3.1284;
1299.9000;0.5267;3.1236;
1300.2000;0.5267;3.1212;
1300.5000;0.5275;3.1308;
1300.8000;0.5275;3.1260;
1301.1000;0.5267;3.1332;
1301.4000;0.5283;3.1404;
1301.7000;0.5226;3.1308;
1302.0000;0.5291;3.1476;
1302.3000;0.5267;3.1428;
1302.6000;0.5275;3.1548;
1302.9000;0.5283;3.1476;
1303.2000;0.5275;3.1452;
1303.5000;0.5307;3.1428;
1303.8000;0.5275;3.1380;
1304.1000;0.5267;3.1476;
1304.4000;0.5267;3.1428;
1304.7000;0.5250;3.1452;
1305.0000;0.5315;3.1572;
1305.3000;0.5291;3.1476;
1305.6000;0.5291;3.1404;
1305.9000;0.5275;3.1404;
1306.2000;0.5283;3.1404;
1306.5000;0.5283;3.1404;
1306.8000;0.5275;3.1428;
1307.1000;0.5258;3.1356;
1307.4000;0.5267;3.1332;
1307.7000;0.5250;3.1356;
1308.0000;0.5275;3.1404;
1308.3000;0.5275;3.1356;
1308.6000;0.5267;3.1260;
1308.9000;0.5267;3.1236;
1309.2000;0.5299;3.1308;
1309.5000;0.5267;3.1188;
1309.8000;0.5258;3.1188;
1310.1000;0.5307;3.1308;
1310.4000;0.5267;3.1308;
1310.7000;0.5275;3.1404;
1311.0000;0.5267;3.1308;
1311.3000;0.5275;3.1404;
1311.6000;0.5340;3.1548;
1311.9000;0.5340;3.1500;
1312.2000;0.5291;3.1452;
1312.5000;0.5283;3.1452;
1312.8000;0.5283;3.1500;
1313.1000;0.5291;3.1596;
1313.4000;0.5283;3.1548;
1313.7000;0.5275;3.1476;
1314.0000;0.5275;3.1500;
1314.3000;0.5299;3.1596;
1314.6000;0.5250;3.1548;
1314.9000;0.5267;3.1596;
1315.2000;0.5275;3.1548;
1315.5000;0.5275;3.1524;
1315.8000;0.5275;3.1596;
1316.1000;0.5283;3.1668;
1316.4000;0.5258;3.1596;
1316.7000;0.5283;3.1596;
1317.0000;0.5258;3.1620;
1317.3000;0.5258;3.1596;
1317.6000;0.5258;3.1524;
1317.9000;0.5250;3.1548;
1318.2000;0.5267;3.1572;
1318.5000;0.5250;3.1500;
1318.8000;0.5242;3.1476;
1319.1000;0.5275;3.1548;
1319.4000;0.5275;3.1596;
1319.7000;0.5291;3.1668;
1320.0000;0.5258;3.1428;
1320.3000;0.5291;3.1452;
1320.6000;0.5283;3.1452;
1320.9000;0.5258;3.1404;
1321.2000;0.5283;3.1476;
1321.5000;0.5267;3.1524;
1321.8000;0.5381;3.1740;
1322.1000;0.5283;3.1428;
1322.4000;0.5267;3.1356;
1322.7000;0.5267;3.1356;
1323.0000;0.5275;3.1404;
1323.3000;0.5267;3.1380;
1323.6000;0.5275;3.1404;
1323.9000;0.5242;3.1284;
1324.2000;0.5267;3.1332;
1324.5000;0.5250;3.1308;
1324.8000;0.5267;3.1404;
1325.1000;0.5258;3.1356;
1325.4000;0.5258;3.1356;
1325.7000;0.5283;3.1476;
1326.0000;0.5275;3.1476;
1326.3000;0.5299;3.1548;
1326.6000;0.5275;3.1596;
1326.9000;0.5275;3.1524;
1327.2000;0.5267;3.1524;
1327.5000;0.5250;3.1548;
1327.8000;0.5267;3.1620;
1328.1000;0.5299;3.1740;
1328.4000;0.5283;3.1644;
1328.7000;0.5275;3.1572;
1329.0000;0.5258;3.1620;
1329.3000;0.5283;3.1644;
1329.6000;0.5258;3.1572;
1329.9000;0.5267;3.1620;
1330.2000;0.5275;3.1596;
1330.5000;0.5250;3.1500;
1330.8000;0.5267;3.1620;
1331.1000;0.5291;3.1668;
1331.4000;0.5234;3.1524;
1331.7000;0.5275;3.1644;
1332.0000;0.5283;3.1812;
1332.3000;0.5275;3.1836;
1332.6000;0.5299;3.1884;
1332.9000;0.5250;3.1740;
1333.2000;0.5372;3.1980;
1333.5000;0.5275;3.1668;
1333.8000;0.5250;3.1572;
1334.1000;0.5250;3.1596;
1334.4000;0.5267;3.1716;
1334.7000;0.5307;3.1812;
1335.0000;0.5242;3.1644;
1335.3000;0.5258;3.1668;
1335.6000;0.5267;3.1740;
1335.9000;0.5275;3.1644;
1336.2000;0.5340;3.1740;
1336.5000;0.5185;3.1332;
1336.8000;0.5250;3.1452;
1337.1000;0.5267;3.1476;
1337.4000;0.5258;3.1428;
1337.7000;0.5275;3.1596;
1338.0000;0.5307;3.1596;
1338.3000;0.5275;3.1428;
1338.6000;0.5275;3.1380;
1338.9000;0.5267;3.1260;
1339.2000;0.5258;3.1356;
1339.5000;0.5275;3.1452;
1339.8000;0.5267;3.1452;
1340.1000;0.5267;3.1404;
1340.4000;0.5267;3.1428;
1340.7000;0.5267;3.1404;
1341.0000;0.5364;3.1644;
1341.3000;0.5275;3.1380;
1341.6000;0.5267;3.1332;
1341.9000;0.5283;3.1332;
1342.2000;0.5299;3.1380;
1342.5000;0.5275;3.1308;
1342.8000;0.5234;3.1164;
1343.1000;0.5332;3.1500;
1343.4000;0.5283;3.1380;
1343.7000;0.5267;3.1260;
1344.0000;0.5267;3.1284;
1344.3000;0.5258;3.1332;
1344.6000;0.5267;3.1260;
1344.9000;0.5275;3.1404;
1345.2000;0.5275;3.1332;
1345.5000;0.5242;3.1284;
1345.8000;0.5258;3.1308;
1346.1000;0.5258;3.1332;
1346.4000;0.5258;3.1404;
1346.7000;0.5291;3.1476;
1347.0000;0.5250;3.1428;
1347.3000;0.5283;3.1476;
1347.6000;0.5226;3.1332;
1347.9000;0.5275;3.1452;
1348.2000;0.5267;3.1452;
1348.5000;0.5283;3.1572;
1348.8000;0.5291;3.1596;
1349.1000;0.5267;3.1476;
1349.4000;0.5283;3.1476;
1349.7000;0.5324;3.1572;
1350.0000;0.5291;3.1500;
1350.3000;0.5291;3.1476;
1350.6000;0.5283;3.1548;
1350.9000;0.5372;3.1716;
1351.2000;0.5267;3.1404;
1351.5000;0.5258;3.1284;
1351.8000;0.5283;3.1380;
1352.1000;0.5299;3.1356;
1352.4000;0.5283;3.1356;
1352.7000;0.5275;3.1212;
1353.0000;0.5275;3.1284;
1353.3000;0.5267;3.1308;
1353.6000;0.5283;3.1428;
1353.9000;0.5267;3.1380;
1354.2000;0.5250;3.1332;
1354.5000;0.5299;3.1476;
1354.8000;0.5275;3.1524;
1355.1000;0.5275;3.1620;
1355.4000;0.5267;3.1572;
1355.7000;0.5275;3.1572;
1356.0000;0.5275;3.1572;
1356.3000;0.5258;3.1596;
1356.6000;0.5283;3.1644;
1356.9000;0.5267;3.1620;
1357.2000;0.5267;3.1572;
1357.5000;0.5324;3.1596;
1357.8000;0.5291;3.1500;
1358.1000;0.5283;3.1452;
1358.4000;0.5283;3.1404;
1358.7000;0.5307;3.1476;
1359.0000;0.5291;3.1476;
1359.3000;0.5275;3.1404;
1359.6000;0.5250;3.1452;
1359.9000;0.5275;3.1476;
1360.2000;0.5267;3.1452;
1360.5000;0.5250;3.1428;
1360.8000;0.5242;3.1356;
1361.1000;0.5267;3.1380;
1361.4000;0.5275;3.1332;
1361.7000;0.5267;3.1356;
1362.0000;0.5250;3.1332;
1362.3000;0.5275;3.1404;
1362.6000;0.5258;3.1404;
1362.9000;0.5267;3.1404;
1363.2000;0.5267;3.1404;
1363.5000;0.5291;3.1428;
1363.8000;0.5283;3.1452;
1364.1000;0.5267;3.1332;
1364.4000;0.5275;3.1356;
1364.7000;0.5348;3.1548;
1365.0000;0.5307;3.1404;
1365.3000;0.5258;3.1188;
1365.6000;0.5275;3.1236;
1365.9000;0.5267;3.1260;
1366.2000;0.5267;3.1332;
1366.5000;0.5332;3.1548;
1366.8000;0.5283;3.1404;
1367.1000;0.5234;3.1308;
1367.4000;0.5267;3.1308;
1367.7000;0.5250;3.1260;
1368.0000;0.5315;3.1308;
1368.3000;0.5267;3.1332;
1368.6000;0.5201;3.1188;
1368.9000;0.5275;3.1332;
1369.2000;0.5267;3.1380;
1369.5000;0.5258;3.1452;
1369.8000;0.5218;3.1452;
1370.1000;0.5267;3.1524;
1370.4000;0.5275;3.1524;
1370.7000;0.5275;3.1500;
1371.0000;0.5250;3.1428;
1371.3000;0.5258;3.1428;
1371.6000;0.5291;3.1428;
1371.9000;0.5258;3.1380;
1372.2000;0.5291;3.1476;
1372.5000;0.5283;3.1500;
1372.8000;0.5275;3.1452;
1373.1000;0.5291;3.1452;
1373.4000;0.5275;3.1380;
1373.7000;0.5267;3.1356;
1374.0000;0.5315;3.1524;
1374.3000;0.5250;3.1452;
1374.6000;0.5250;3.1548;
1374.9000;0.5283;3.1596;
1375.2000;0.5283;3.1596;
1375.5000;0.5364;3.1812;
1375.8000;0.5267;3.1620;
1376.1000;0.5275;3.1644;
1376.4000;0.5275;3.1644;
1376.7000;0.5275;3.1596;
1377.0000;0.5299;3.1596;
1377.3000;0.5250;3.1524;
1377.6000;0.5258;3.1548;
1377.9000;0.5299;3.1644;
1378.2000;0.5267;3.1644;
1378.5000;0.5275;3.1620;
1378.8000;0.5283;3.1620;
1379.1000;0.5291;3.1500;
1379.4000;0.5258;3.1476;
1379.7000;0.5275;3.1548;
1380.0000;0.5258;3.1620;
1380.3000;0.5283;3.1620;
1380.6000;0.5299;3.1692;
1380.9000;0.5283;3.1620;
1381.2000;0.5324;3.1716;
1381.5000;0.5291;3.1548;
1381.8000;0.5275;3.1524;
1382.1000;0.5242;3.1428;
1382.4000;0.5267;3.1476;
1382.7000;0.5275;3.1548;
1383.0000;0.5267;3.1428;
1383.3000;0.5250;3.1308;
1383.6000;0.5267;3.1404;
1383.9000;0.5275;3.1356;
1384.2000;0.5283;3.1332;
1384.5000;0.5275;3.1236;
1384.8000;0.5275;3.1332;
1385.1000;0.5258;3.1284;
1385.4000;0.5340;3.1524;
1385.7000;0.5267;3.1380;
1386.0000;0.5267;3.1428;
1386.3000;0.5275;3.1500;
1386.6000;0.5250;3.1404;
1386.9000;0.5275;3.1476;
1387.2000;0.5258;3.1428;
1387.5000;0.5275;3.1404;
1387.8000;0.5283;3.1380;
1388.1000;0.5283;3.1380;
1388.4000;0.5283;3.1476;
1388.7000;0.5250;3.1524;
1389.0000;0.5250;3.1500;
1389.3000;0.5275;3.1452;
1389.6000;0.5258;3.1500;
1389.9000;0.5275;3.1524;
1390.2000;0.5275;3.1620;
1390.5000;0.5283;3.1644;
1390.8000;0.5267;3.1596;
1391.1000;0.5242;3.1572;
1391.4000;0.5250;3.1548;
1391.7000;0.5258;3.1596;
1392.0000;0.5275;3.1548;
1392.3000;0.5250;3.1524;
1392.6000;0.5283;3.1620;
1392.9000;0.5275;3.1548;
1393.2000;0.5291;3.1548;
1393.5000;0.5267;3.1572;
1393.8000;0.5258;3.1644;
1394.1000;0.5250;3.1596;
1394.4000;0.5283;3.1620;
1394.7000;0.5275;3.1572;
1395.0000;0.5267;3.1620;
1395.3000;0.5258;3.1620;
1395.6000;0.5258;3.1716;
1395.9000;0.5267;3.1644;
1396.2000;0.5275;3.1596;
1396.5000;0.5267;3.1572;
1396.8000;0.5267;3.1644;
1397.1000;0.5267;3.1716;
1397.4000;0.5275;3.1692;
1397.7000;0.5267;3.1692;
1398.0000;0.5283;3.1572;
1398.3000;0.5283;3.1596;
1398.6000;0.5258;3.1572;
1398.9000;0.5275;3.1548;
1399.2000;0.5267;3.1476;
1399.5000;0.5275;3.1572;
1399.8000;0.5258;3.1500;
