time/ms;Fluo/V;P700 deltaI/I x10³;
-199.8000;0.5535;3.0708;
-199.5000;0.5568;3.0684;
-199.2000;0.5560;3.0732;
-198.9000;0.5560;3.0732;
-198.6000;0.5568;3.0756;
-198.3000;0.5543;3.0708;
-198.0000;0.5527;3.0660;
-197.7000;0.5535;3.0636;
-197.4000;0.5551;3.0636;
-197.1000;0.5551;3.0636;
-196.8000;0.5568;3.0660;
-196.5000;0.5551;3.0636;
-196.2000;0.5576;3.0708;
-195.9000;0.5568;3.0636;
-195.6000;0.5543;3.0660;
-195.3000;0.5560;3.0780;
-195.0000;0.5608;3.0828;
-194.7000;0.5486;3.0540;
-194.4000;0.5519;3.0684;
-194.1000;0.5560;3.0852;
-193.8000;0.5592;3.0828;
-193.5000;0.5543;3.0636;
-193.2000;0.5568;3.0684;
-192.9000;0.5560;3.0588;
-192.6000;0.5568;3.0636;
-192.3000;0.5560;3.0708;
-192.0000;0.5560;3.0732;
-191.7000;0.5551;3.0732;
-191.4000;0.5486;3.0540;
-191.1000;0.5600;3.0828;
-190.8000;0.5551;3.0636;
-190.5000;0.5535;3.0660;
-190.2000;0.5551;3.0684;
-189.9000;0.5576;3.0636;
-189.6000;0.5568;3.0660;
-189.3000;0.5560;3.0708;
-189.0000;0.5560;3.0708;
-188.7000;0.5560;3.0636;
-188.4000;0.5568;3.0612;
-188.1000;0.5568;3.0612;
-187.8000;0.5576;3.0612;
-187.5000;0.5568;3.0516;
-187.2000;0.5560;3.0444;
-186.9000;0.5543;3.0396;
-186.6000;0.5625;3.0588;
-186.3000;0.5568;3.0444;
-186.0000;0.5560;3.0492;
-185.7000;0.5568;3.0492;
-185.4000;0.5576;3.0444;
-185.1000;0.5568;3.0444;
-184.8000;0.5576;3.0444;
-184.5000;0.5584;3.0540;
-184.2000;0.5576;3.0516;
-183.9000;0.5600;3.0684;
-183.6000;0.5576;3.0636;
-183.3000;0.5568;3.0660;
-183.0000;0.5560;3.0612;
-182.7000;0.5560;3.0588;
-182.4000;0.5625;3.0732;
-182.1000;0.5551;3.0468;
-181.8000;0.5568;3.0492;
-181.5000;0.5657;3.0804;
-181.2000;0.5568;3.0588;
-180.9000;0.5551;3.0540;
-180.6000;0.5551;3.0564;
-180.3000;0.5519;3.0444;
-180.0000;0.5560;3.0636;
-179.7000;0.5551;3.0732;
-179.4000;0.5551;3.0684;
-179.1000;0.5584;3.0612;
-178.8000;0.5568;3.0660;
-178.5000;0.5576;3.0636;
-178.2000;0.5551;3.0588;
-177.9000;0.5568;3.0588;
-177.6000;0.5535;3.0564;
-177.3000;0.5551;3.0588;
-177.0000;0.5551;3.0564;
-176.7000;0.5551;3.0540;
-176.4000;0.5576;3.0540;
-176.1000;0.5551;3.0468;
-175.8000;0.5543;3.0444;
-175.5000;0.5527;3.0396;
-175.2000;0.5584;3.0540;
-174.9000;0.5617;3.0612;
-174.6000;0.5568;3.0564;
-174.3000;0.5560;3.0540;
-174.0000;0.5568;3.0492;
-173.7000;0.5560;3.0492;
-173.4000;0.5503;3.0276;
-173.1000;0.5568;3.0420;
-172.8000;0.5560;3.0444;
-172.5000;0.5560;3.0612;
-172.2000;0.5551;3.0660;
-171.9000;0.5560;3.0684;
-171.6000;0.5551;3.0660;
-171.3000;0.5584;3.0756;
-171.0000;0.5568;3.0612;
-170.7000;0.5560;3.0468;
-170.4000;0.5543;3.0468;
-170.1000;0.5576;3.0468;
-169.8000;0.5568;3.0444;
-169.5000;0.5560;3.0540;
-169.2000;0.5568;3.0636;
-168.9000;0.5527;3.0540;
-168.6000;0.5576;3.0660;
-168.3000;0.5625;3.0684;
-168.0000;0.5511;3.0396;
-167.7000;0.5576;3.0516;
-167.4000;0.5495;3.0348;
-167.1000;0.5560;3.0468;
-166.8000;0.5551;3.0468;
-166.5000;0.5551;3.0468;
-166.2000;0.5576;3.0492;
-165.9000;0.5503;3.0372;
-165.6000;0.5535;3.0492;
-165.3000;0.5551;3.0564;
-165.0000;0.5535;3.0444;
-164.7000;0.5560;3.0564;
-164.4000;0.5568;3.0516;
-164.1000;0.5551;3.0420;
-163.8000;0.5568;3.0444;
-163.5000;0.5560;3.0444;
-163.2000;0.5576;3.0444;
-162.9000;0.5551;3.0468;
-162.6000;0.5576;3.0564;
-162.3000;0.5568;3.0516;
-162.0000;0.5568;3.0588;
-161.7000;0.5486;3.0492;
-161.4000;0.5543;3.0708;
-161.1000;0.5560;3.0732;
-160.8000;0.5535;3.0636;
-160.5000;0.5495;3.0516;
-160.2000;0.5551;3.0564;
-159.9000;0.5617;3.0660;
-159.6000;0.5576;3.0564;
-159.3000;0.5551;3.0468;
-159.0000;0.5543;3.0492;
-158.7000;0.5543;3.0468;
-158.4000;0.5576;3.0492;
-158.1000;0.5560;3.0492;
-157.8000;0.5560;3.0540;
-157.5000;0.5560;3.0564;
-157.2000;0.5527;3.0492;
-156.9000;0.5535;3.0468;
-156.6000;0.5527;3.0468;
-156.3000;0.5535;3.0588;
-156.0000;0.5543;3.0660;
-155.7000;0.5551;3.0588;
-155.4000;0.5551;3.0612;
-155.1000;0.5527;3.0564;
-154.8000;0.5665;3.0828;
-154.5000;0.5584;3.0588;
-154.2000;0.5543;3.0420;
-153.9000;0.5584;3.0516;
-153.6000;0.5551;3.0468;
-153.3000;0.5568;3.0564;
-153.0000;0.5551;3.0588;
-152.7000;0.5560;3.0636;
-152.4000;0.5535;3.0684;
-152.1000;0.5560;3.0684;
-151.8000;0.5560;3.0660;
-151.5000;0.5551;3.0636;
-151.2000;0.5543;3.0516;
-150.9000;0.5543;3.0588;
-150.6000;0.5535;3.0516;
-150.3000;0.5535;3.0420;
-150.0000;0.5576;3.0540;
-149.7000;0.5568;3.0468;
-149.4000;0.5535;3.0420;
-149.1000;0.5551;3.0420;
-148.8000;0.5568;3.0444;
-148.5000;0.5584;3.0444;
-148.2000;0.5576;3.0516;
-147.9000;0.5576;3.0468;
-147.6000;0.5551;3.0540;
-147.3000;0.5568;3.0564;
-147.0000;0.5560;3.0564;
-146.7000;0.5560;3.0588;
-146.4000;0.5576;3.0732;
-146.1000;0.5551;3.0708;
-145.8000;0.5543;3.0612;
-145.5000;0.5551;3.0660;
-145.2000;0.5551;3.0636;
-144.9000;0.5576;3.0756;
-144.6000;0.5551;3.0708;
-144.3000;0.5560;3.0780;
-144.0000;0.5560;3.0732;
-143.7000;0.5551;3.0756;
-143.4000;0.5560;3.0708;
-143.1000;0.5576;3.0756;
-142.8000;0.5535;3.0684;
-142.5000;0.5568;3.0732;
-142.2000;0.5560;3.0684;
-141.9000;0.5551;3.0756;
-141.6000;0.5551;3.0876;
-141.3000;0.5543;3.0756;
-141.0000;0.5568;3.0780;
-140.7000;0.5608;3.0852;
-140.4000;0.5568;3.0732;
-140.1000;0.5543;3.0708;
-139.8000;0.5551;3.0732;
-139.5000;0.5560;3.0756;
-139.2000;0.5535;3.0780;
-138.9000;0.5551;3.0804;
-138.6000;0.5576;3.0828;
-138.3000;0.5568;3.0924;
-138.0000;0.5576;3.1044;
-137.7000;0.5576;3.1020;
-137.4000;0.5560;3.0948;
-137.1000;0.5568;3.1020;
-136.8000;0.5568;3.0972;
-136.5000;0.5560;3.0948;
-136.2000;0.5543;3.0948;
-135.9000;0.5535;3.0900;
-135.6000;0.5560;3.0780;
-135.3000;0.5560;3.0732;
-135.0000;0.5535;3.0588;
-134.7000;0.5535;3.0612;
-134.4000;0.5576;3.0732;
-134.1000;0.5543;3.0684;
-133.8000;0.5535;3.0660;
-133.5000;0.5519;3.0684;
-133.2000;0.5511;3.0780;
-132.9000;0.5527;3.0852;
-132.6000;0.5568;3.0852;
-132.3000;0.5551;3.0804;
-132.0000;0.5462;3.0588;
-131.7000;0.5551;3.0852;
-131.4000;0.5527;3.0828;
-131.1000;0.5551;3.0780;
-130.8000;0.5551;3.0660;
-130.5000;0.5560;3.0732;
-130.2000;0.5543;3.0684;
-129.9000;0.5543;3.0636;
-129.6000;0.5551;3.0588;
-129.3000;0.5551;3.0540;
-129.0000;0.5535;3.0564;
-128.7000;0.5535;3.0636;
-128.4000;0.5535;3.0636;
-128.1000;0.5560;3.0612;
-127.8000;0.5543;3.0564;
-127.5000;0.5568;3.0516;
-127.2000;0.5551;3.0492;
-126.9000;0.5617;3.0660;
-126.6000;0.5568;3.0588;
-126.3000;0.5543;3.0588;
-126.0000;0.5503;3.0516;
-125.7000;0.5560;3.0588;
-125.4000;0.5503;3.0420;
-125.1000;0.5560;3.0492;
-124.8000;0.5551;3.0492;
-124.5000;0.5551;3.0516;
-124.2000;0.5543;3.0492;
-123.9000;0.5527;3.0564;
-123.6000;0.5584;3.0732;
-123.3000;0.5543;3.0636;
-123.0000;0.5560;3.0780;
-122.7000;0.5568;3.0780;
-122.4000;0.5551;3.0660;
-122.1000;0.5551;3.0660;
-121.8000;0.5551;3.0636;
-121.5000;0.5551;3.0684;
-121.2000;0.5551;3.0684;
-120.9000;0.5568;3.0588;
-120.6000;0.5543;3.0516;
-120.3000;0.5560;3.0612;
-120.0000;0.5568;3.0660;
-119.7000;0.5535;3.0708;
-119.4000;0.5543;3.0732;
-119.1000;0.5576;3.0708;
-118.8000;0.5551;3.0708;
-118.5000;0.5568;3.0780;
-118.2000;0.5551;3.0684;
-117.9000;0.5560;3.0660;
-117.6000;0.5551;3.0684;
-117.3000;0.5543;3.0588;
-117.0000;0.5551;3.0660;
-116.7000;0.5560;3.0708;
-116.4000;0.5560;3.0708;
-116.1000;0.5560;3.0660;
-115.8000;0.5543;3.0540;
-115.5000;0.5551;3.0588;
-115.2000;0.5551;3.0564;
-114.9000;0.5535;3.0516;
-114.6000;0.5551;3.0588;
-114.3000;0.5527;3.0540;
-114.0000;0.5576;3.0588;
-113.7000;0.5551;3.0588;
-113.4000;0.5543;3.0564;
-113.1000;0.5551;3.0540;
-112.8000;0.5576;3.0660;
-112.5000;0.5551;3.0588;
-112.2000;0.5551;3.0612;
-111.9000;0.5568;3.0636;
-111.6000;0.5495;3.0444;
-111.3000;0.5543;3.0612;
-111.0000;0.5560;3.0516;
-110.7000;0.5543;3.0444;
-110.4000;0.5551;3.0492;
-110.1000;0.5584;3.0492;
-109.8000;0.5560;3.0468;
-109.5000;0.5511;3.0468;
-109.2000;0.5560;3.0636;
-108.9000;0.5551;3.0612;
-108.6000;0.5560;3.0636;
-108.3000;0.5551;3.0564;
-108.0000;0.5535;3.0540;
-107.7000;0.5543;3.0588;
-107.4000;0.5568;3.0588;
-107.1000;0.5543;3.0564;
-106.8000;0.5478;3.0468;
-106.5000;0.5560;3.0636;
-106.2000;0.5568;3.0588;
-105.9000;0.5543;3.0540;
-105.6000;0.5568;3.0636;
-105.3000;0.5576;3.0708;
-105.0000;0.5495;3.0516;
-104.7000;0.5600;3.0708;
-104.4000;0.5560;3.0492;
-104.1000;0.5576;3.0516;
-103.8000;0.5551;3.0468;
-103.5000;0.5568;3.0516;
-103.2000;0.5560;3.0468;
-102.9000;0.5551;3.0444;
-102.6000;0.5543;3.0444;
-102.3000;0.5560;3.0564;
-102.0000;0.5551;3.0660;
-101.7000;0.5568;3.0828;
-101.4000;0.5560;3.0756;
-101.1000;0.5560;3.0708;
-100.8000;0.5649;3.0804;
-100.5000;0.5543;3.0444;
-100.2000;0.5560;3.0396;
-99.9000;0.5560;3.0348;
-99.6000;0.5543;3.0276;
-99.3000;0.5551;3.0276;
-99.0000;0.5551;3.0276;
-98.7000;0.5560;3.0324;
-98.4000;0.5543;3.0276;
-98.1000;0.5543;3.0276;
-97.8000;0.5543;3.0420;
-97.5000;0.5568;3.0516;
-97.2000;0.5584;3.0588;
-96.9000;0.5551;3.0564;
-96.6000;0.5560;3.0588;
-96.3000;0.5560;3.0612;
-96.0000;0.5560;3.0636;
-95.7000;0.5560;3.0636;
-95.4000;0.5543;3.0612;
-95.1000;0.5551;3.0708;
-94.8000;0.5568;3.0756;
-94.5000;0.5551;3.0684;
-94.2000;0.5576;3.0636;
-93.9000;0.5568;3.0660;
-93.6000;0.5576;3.0660;
-93.3000;0.5568;3.0636;
-93.0000;0.5568;3.0708;
-92.7000;0.5519;3.0708;
-92.4000;0.5568;3.0804;
-92.1000;0.5560;3.0756;
-91.8000;0.5560;3.0732;
-91.5000;0.5584;3.0828;
-91.2000;0.5551;3.0708;
-90.9000;0.5608;3.0756;
-90.6000;0.5551;3.0636;
-90.3000;0.5568;3.0588;
-90.0000;0.5551;3.0540;
-89.7000;0.5568;3.0612;
-89.4000;0.5527;3.0612;
-89.1000;0.5560;3.0708;
-88.8000;0.5560;3.0636;
-88.5000;0.5568;3.0612;
-88.2000;0.5560;3.0612;
-87.9000;0.5535;3.0444;
-87.6000;0.5543;3.0396;
-87.3000;0.5543;3.0444;
-87.0000;0.5568;3.0468;
-86.7000;0.5560;3.0468;
-86.4000;0.5535;3.0564;
-86.1000;0.5495;3.0468;
-85.8000;0.5551;3.0540;
-85.5000;0.5543;3.0516;
-85.2000;0.5519;3.0588;
-84.9000;0.5527;3.0564;
-84.6000;0.5551;3.0588;
-84.3000;0.5551;3.0540;
-84.0000;0.5600;3.0612;
-83.7000;0.5551;3.0540;
-83.4000;0.5584;3.0636;
-83.1000;0.5560;3.0564;
-82.8000;0.5560;3.0540;
-82.5000;0.5568;3.0612;
-82.2000;0.5576;3.0660;
-81.9000;0.5560;3.0564;
-81.6000;0.5543;3.0468;
-81.3000;0.5551;3.0516;
-81.0000;0.5560;3.0612;
-80.7000;0.5568;3.0660;
-80.4000;0.5543;3.0660;
-80.1000;0.5543;3.0612;
-79.8000;0.5576;3.0684;
-79.5000;0.5551;3.0660;
-79.2000;0.5568;3.0756;
-78.9000;0.5551;3.0636;
-78.6000;0.5535;3.0588;
-78.3000;0.5576;3.0588;
-78.0000;0.5568;3.0588;
-77.7000;0.5543;3.0612;
-77.4000;0.5462;3.0396;
-77.1000;0.5568;3.0636;
-76.8000;0.5543;3.0516;
-76.5000;0.5543;3.0468;
-76.2000;0.5560;3.0420;
-75.9000;0.5495;3.0180;
-75.6000;0.5527;3.0396;
-75.3000;0.5543;3.0372;
-75.0000;0.5551;3.0372;
-74.7000;0.5527;3.0300;
-74.4000;0.5625;3.0636;
-74.1000;0.5600;3.0636;
-73.8000;0.5519;3.0492;
-73.5000;0.5503;3.0396;
-73.2000;0.5543;3.0588;
-72.9000;0.5576;3.0612;
-72.6000;0.5551;3.0564;
-72.3000;0.5543;3.0516;
-72.0000;0.5543;3.0468;
-71.7000;0.5454;3.0276;
-71.4000;0.5551;3.0588;
-71.1000;0.5560;3.0540;
-70.8000;0.5560;3.0540;
-70.5000;0.5560;3.0516;
-70.2000;0.5543;3.0516;
-69.9000;0.5551;3.0540;
-69.6000;0.5551;3.0492;
-69.3000;0.5560;3.0516;
-69.0000;0.5560;3.0588;
-68.7000;0.5535;3.0372;
-68.4000;0.5551;3.0372;
-68.1000;0.5568;3.0372;
-67.8000;0.5560;3.0444;
-67.5000;0.5568;3.0468;
-67.2000;0.5535;3.0444;
-66.9000;0.5568;3.0444;
-66.6000;0.5551;3.0420;
-66.3000;0.5535;3.0444;
-66.0000;0.5519;3.0420;
-65.7000;0.5568;3.0564;
-65.4000;0.5584;3.0636;
-65.1000;0.5551;3.0516;
-64.8000;0.5568;3.0540;
-64.5000;0.5551;3.0468;
-64.2000;0.5560;3.0468;
-63.9000;0.5527;3.0372;
-63.6000;0.5543;3.0348;
-63.3000;0.5560;3.0492;
-63.0000;0.5551;3.0588;
-62.7000;0.5511;3.0420;
-62.4000;0.5568;3.0612;
-62.1000;0.5543;3.0468;
-61.8000;0.5584;3.0564;
-61.5000;0.5560;3.0540;
-61.2000;0.5535;3.0492;
-60.9000;0.5543;3.0492;
-60.6000;0.5560;3.0468;
-60.3000;0.5535;3.0468;
-60.0000;0.5551;3.0516;
-59.7000;0.5551;3.0492;
-59.4000;0.5535;3.0468;
-59.1000;0.5511;3.0276;
-58.8000;0.5519;3.0324;
-58.5000;0.5665;3.0660;
-58.2000;0.5543;3.0420;
-57.9000;0.5503;3.0348;
-57.6000;0.5608;3.0660;
-57.3000;0.5584;3.0636;
-57.0000;0.5568;3.0516;
-56.7000;0.5576;3.0540;
-56.4000;0.5535;3.0324;
-56.1000;0.5527;3.0396;
-55.8000;0.5551;3.0516;
-55.5000;0.5584;3.0540;
-55.2000;0.5560;3.0372;
-54.9000;0.5543;3.0372;
-54.6000;0.5568;3.0396;
-54.3000;0.5446;3.0036;
-54.0000;0.5584;3.0420;
-53.7000;0.5543;3.0396;
-53.4000;0.5535;3.0420;
-53.1000;0.5543;3.0420;
-52.8000;0.5543;3.0396;
-52.5000;0.5551;3.0348;
-52.2000;0.5543;3.0396;
-51.9000;0.5551;3.0396;
-51.6000;0.5568;3.0396;
-51.3000;0.5535;3.0372;
-51.0000;0.5543;3.0348;
-50.7000;0.5551;3.0420;
-50.4000;0.5576;3.0516;
-50.1000;0.5519;3.0396;
-49.8000;0.5543;3.0516;
-49.5000;0.5560;3.0564;
-49.2000;0.5568;3.0636;
-48.9000;0.5560;3.0540;
-48.6000;0.5568;3.0564;
-48.3000;0.5560;3.0516;
-48.0000;0.5543;3.0492;
-47.7000;0.5560;3.0468;
-47.4000;0.5568;3.0468;
-47.1000;0.5568;3.0444;
-46.8000;0.5551;3.0444;
-46.5000;0.5551;3.0372;
-46.2000;0.5560;3.0324;
-45.9000;0.5560;3.0372;
-45.6000;0.5576;3.0420;
-45.3000;0.5560;3.0348;
-45.0000;0.5551;3.0420;
-44.7000;0.5535;3.0396;
-44.4000;0.5535;3.0420;
-44.1000;0.5568;3.0468;
-43.8000;0.5584;3.0540;
-43.5000;0.5560;3.0492;
-43.2000;0.5551;3.0516;
-42.9000;0.5560;3.0492;
-42.6000;0.5568;3.0516;
-42.3000;0.5551;3.0444;
-42.0000;0.5568;3.0444;
-41.7000;0.5543;3.0468;
-41.4000;0.5600;3.0660;
-41.1000;0.5608;3.0708;
-40.8000;0.5535;3.0564;
-40.5000;0.5543;3.0516;
-40.2000;0.5543;3.0492;
-39.9000;0.5543;3.0444;
-39.6000;0.5527;3.0420;
-39.3000;0.5454;3.0108;
-39.0000;0.5543;3.0276;
-38.7000;0.5560;3.0372;
-38.4000;0.5535;3.0396;
-38.1000;0.5495;3.0276;
-37.8000;0.5454;3.0204;
-37.5000;0.5503;3.0348;
-37.2000;0.5519;3.0228;
-36.9000;0.5535;3.0276;
-36.6000;0.5560;3.0372;
-36.3000;0.5560;3.0396;
-36.0000;0.5535;3.0348;
-35.7000;0.5543;3.0444;
-35.4000;0.5584;3.0540;
-35.1000;0.5535;3.0492;
-34.8000;0.5568;3.0516;
-34.5000;0.5568;3.0444;
-34.2000;0.5551;3.0396;
-33.9000;0.5560;3.0444;
-33.6000;0.5657;3.0660;
-33.3000;0.5551;3.0300;
-33.0000;0.5568;3.0348;
-32.7000;0.5560;3.0372;
-32.4000;0.5519;3.0444;
-32.1000;0.5560;3.0516;
-31.8000;0.5551;3.0468;
-31.5000;0.5519;3.0348;
-31.2000;0.5551;3.0492;
-30.9000;0.5527;3.0444;
-30.6000;0.5551;3.0396;
-30.3000;0.5560;3.0348;
-30.0000;0.5560;3.0324;
-29.7000;0.5576;3.0444;
-29.4000;0.5560;3.0492;
-29.1000;0.5543;3.0492;
-28.8000;0.5560;3.0540;
-28.5000;0.5543;3.0444;
-28.2000;0.5543;3.0516;
-27.9000;0.5551;3.0516;
-27.6000;0.5551;3.0468;
-27.3000;0.5535;3.0468;
-27.0000;0.5551;3.0420;
-26.7000;0.5511;3.0324;
-26.4000;0.5560;3.0420;
-26.1000;0.5519;3.0372;
-25.8000;0.5486;3.0276;
-25.5000;0.5543;3.0324;
-25.2000;0.5576;3.0468;
-24.9000;0.5625;3.0612;
-24.6000;0.5543;3.0372;
-24.3000;0.5527;3.0276;
-24.0000;0.5568;3.0324;
-23.7000;0.5551;3.0348;
-23.4000;0.5551;3.0324;
-23.1000;0.5551;3.0396;
-22.8000;0.5527;3.0444;
-22.5000;0.5543;3.0564;
-22.2000;0.5560;3.0516;
-21.9000;0.5551;3.0492;
-21.6000;0.5543;3.0564;
-21.3000;0.5576;3.0540;
-21.0000;0.5560;3.0564;
-20.7000;0.5535;3.0564;
-20.4000;0.5543;3.0588;
-20.1000;0.5560;3.0588;
-19.8000;0.5568;3.0564;
-19.5000;0.5543;3.0564;
-19.2000;0.5568;3.0660;
-18.9000;0.5576;3.0636;
-18.6000;0.5568;3.0588;
-18.3000;0.5551;3.0468;
-18.0000;0.5560;3.0468;
-17.7000;0.5543;3.0420;
-17.4000;0.5576;3.0540;
-17.1000;0.5543;3.0444;
-16.8000;0.5543;3.0420;
-16.5000;0.5527;3.0324;
-16.2000;0.5584;3.0444;
-15.9000;0.5543;3.0396;
-15.6000;0.5503;3.0276;
-15.3000;0.5568;3.0492;
-15.0000;0.5568;3.0492;
-14.7000;0.5608;3.0516;
-14.4000;0.5560;3.0420;
-14.1000;0.5633;3.0636;
-13.8000;0.5551;3.0444;
-13.5000;0.5551;3.0372;
-13.2000;0.5551;3.0324;
-12.9000;0.5551;3.0324;
-12.6000;0.5568;3.0396;
-12.3000;0.5576;3.0444;
-12.0000;0.5568;3.0420;
-11.7000;0.5519;3.0324;
-11.4000;0.5551;3.0444;
-11.1000;0.5584;3.0564;
-10.8000;0.5600;3.0636;
-10.5000;0.5543;3.0492;
-10.2000;0.5560;3.0468;
-9.9000;0.5560;3.0444;
-9.6000;0.5551;3.0420;
-9.3000;0.5535;3.0348;
-9.0000;0.5543;3.0396;
-8.7000;0.5543;3.0372;
-8.4000;0.5576;3.0468;
-8.1000;0.5560;3.0444;
-7.8000;0.5560;3.0420;
-7.5000;0.5551;3.0444;
-7.2000;0.5551;3.0492;
-6.9000;0.5519;3.0372;
-6.6000;0.5560;3.0468;
-6.3000;0.5560;3.0516;
-6.0000;0.5543;3.0516;
-5.7000;0.5486;3.0564;
-5.4000;0.5535;3.0708;
-5.1000;0.5527;3.0636;
-4.8000;0.5535;3.0540;
-4.5000;0.5560;3.0636;
-4.2000;0.5543;3.0588;
-3.9000;0.5543;3.0564;
-3.6000;0.5543;3.0588;
-3.3000;0.5543;3.0564;
-3.0000;0.5560;3.0564;
-2.7000;0.5535;3.0492;
-2.4000;0.5543;3.0492;
-2.1000;0.5535;3.0588;
-1.8000;0.5543;3.0612;
-1.5000;0.5568;3.0564;
-1.2000;0.5535;3.0492;
-0.9000;0.5543;3.0492;
-0.6000;0.5543;3.0468;
-0.3000;0.5495;3.0372;
0.0000;0.5495;3.0372;
0.3000;0.5633;3.0372;
0.6000;0.6032;3.0948;
0.9000;0.6268;3.1380;
1.2000;0.6439;3.1668;
1.5000;0.6577;3.1980;
1.8000;0.6683;3.2220;
2.1000;0.6878;3.2723;
2.4000;0.6854;3.2699;
2.7000;0.6927;3.2939;
3.0000;0.6968;3.3131;
3.3000;0.7049;3.3227;
3.6000;0.7033;3.3299;
3.9000;0.7066;3.3299;
4.2000;0.7123;3.3371;
4.5000;0.7106;3.3275;
4.8000;0.7155;3.3371;
5.1000;0.7196;3.3323;
5.4000;0.7245;3.3347;
5.7000;0.7285;3.3467;
6.0000;0.7310;3.3515;
6.3000;0.7253;3.3299;
6.6000;0.7302;3.3371;
6.9000;0.7334;3.3443;
7.2000;0.7342;3.3395;
7.5000;0.7375;3.3395;
7.8000;0.7367;3.3443;
8.1000;0.7399;3.3563;
8.4000;0.7432;3.3515;
8.7000;0.7497;3.3635;
9.0000;0.7464;3.3467;
9.3000;0.7489;3.3659;
9.6000;0.7497;3.3587;
9.9000;0.7513;3.3635;
10.2000;0.7521;3.3707;
10.5000;0.7554;3.3707;
10.8000;0.7562;3.3683;
11.1000;0.7554;3.3707;
11.4000;0.7603;3.3779;
11.7000;0.7652;3.3731;
12.0000;0.7643;3.3707;
12.3000;0.7643;3.3635;
12.6000;0.7684;3.3683;
12.9000;0.7668;3.3659;
13.2000;0.7717;3.3755;
13.5000;0.7717;3.3779;
13.8000;0.7814;3.3971;
14.1000;0.7749;3.3779;
14.4000;0.7774;3.3779;
14.7000;0.7749;3.3707;
15.0000;0.7782;3.3803;
15.3000;0.7847;3.3851;
15.6000;0.7880;3.3875;
15.9000;0.7790;3.3755;
16.2000;0.7831;3.3779;
16.5000;0.7814;3.3587;
16.8000;0.7831;3.3635;
17.1000;0.7839;3.3683;
17.4000;0.7847;3.3587;
17.7000;0.7863;3.3707;
18.0000;0.7888;3.3683;
18.3000;0.7904;3.3659;
18.6000;0.7904;3.3587;
18.9000;0.7912;3.3683;
19.2000;0.7912;3.3635;
19.5000;0.7920;3.3587;
19.8000;0.7961;3.3587;
20.1000;0.7937;3.3515;
20.4000;0.7928;3.3491;
20.7000;0.7985;3.3515;
21.0000;0.7969;3.3515;
21.3000;0.7961;3.3539;
21.6000;0.7985;3.3563;
21.9000;0.8002;3.3611;
22.2000;0.7985;3.3539;
22.5000;0.8018;3.3587;
22.8000;0.8026;3.3587;
23.1000;0.8026;3.3587;
23.4000;0.8050;3.3587;
23.7000;0.8034;3.3563;
24.0000;0.8050;3.3539;
24.3000;0.8091;3.3635;
24.6000;0.8067;3.3515;
24.9000;0.8059;3.3683;
25.2000;0.8059;3.3731;
25.5000;0.8091;3.3731;
25.8000;0.8091;3.3611;
26.1000;0.8059;3.3563;
26.4000;0.8083;3.3635;
26.7000;0.8067;3.3635;
27.0000;0.8140;3.3683;
27.3000;0.8083;3.3491;
27.6000;0.8148;3.3635;
27.9000;0.8116;3.3563;
28.2000;0.8107;3.3515;
28.5000;0.8140;3.3539;
28.8000;0.8116;3.3467;
29.1000;0.8116;3.3491;
29.4000;0.8124;3.3491;
29.7000;0.8075;3.3323;
30.0000;0.8140;3.3515;
30.3000;0.8132;3.3539;
30.6000;0.8124;3.3491;
30.9000;0.8164;3.3515;
31.2000;0.8148;3.3659;
31.5000;0.8156;3.3755;
31.8000;0.8156;3.3755;
32.1000;0.8164;3.3755;
32.4000;0.8173;3.3803;
32.7000;0.8189;3.3755;
33.0000;0.8181;3.3707;
33.3000;0.8197;3.3731;
33.6000;0.8116;3.3515;
33.9000;0.8197;3.3707;
34.2000;0.8213;3.3755;
34.5000;0.8205;3.3755;
34.8000;0.8213;3.3875;
35.1000;0.8221;3.3851;
35.4000;0.8189;3.3779;
35.7000;0.8230;3.3755;
36.0000;0.8213;3.3779;
36.3000;0.8254;3.3875;
36.6000;0.8230;3.3851;
36.9000;0.8221;3.3899;
37.2000;0.8238;3.3827;
37.5000;0.8246;3.3803;
37.8000;0.8262;3.3803;
38.1000;0.8303;3.3899;
38.4000;0.8246;3.3803;
38.7000;0.8295;3.3827;
39.0000;0.8230;3.3611;
39.3000;0.8238;3.3563;
39.6000;0.8230;3.3539;
39.9000;0.8262;3.3587;
40.2000;0.8311;3.3827;
40.5000;0.8246;3.3659;
40.8000;0.8270;3.3755;
41.1000;0.8238;3.3659;
41.4000;0.8262;3.3731;
41.7000;0.8270;3.3779;
42.0000;0.8327;3.3899;
42.3000;0.8270;3.3755;
42.6000;0.8278;3.3779;
42.9000;0.8254;3.3707;
43.2000;0.8262;3.3635;
43.5000;0.8270;3.3683;
43.8000;0.8270;3.3659;
44.1000;0.8278;3.3755;
44.4000;0.8344;3.3971;
44.7000;0.8278;3.3731;
45.0000;0.8303;3.3683;
45.3000;0.8270;3.3467;
45.6000;0.8278;3.3467;
45.9000;0.8278;3.3467;
46.2000;0.8335;3.3683;
46.5000;0.8278;3.3539;
46.8000;0.8287;3.3611;
47.1000;0.8344;3.3755;
47.4000;0.8303;3.3563;
47.7000;0.8303;3.3587;
48.0000;0.8295;3.3539;
48.3000;0.8319;3.3539;
48.6000;0.8287;3.3395;
48.9000;0.8295;3.3371;
49.2000;0.8278;3.3419;
49.5000;0.8278;3.3539;
49.8000;0.8278;3.3467;
50.1000;0.8295;3.3635;
50.4000;0.8295;3.3683;
50.7000;0.8287;3.3707;
51.0000;0.8295;3.3659;
51.3000;0.8295;3.3659;
51.6000;0.8287;3.3587;
51.9000;0.8319;3.3635;
52.2000;0.8287;3.3563;
52.5000;0.8327;3.3707;
52.8000;0.8335;3.3683;
53.1000;0.8311;3.3563;
53.4000;0.8295;3.3491;
53.7000;0.8311;3.3467;
54.0000;0.8327;3.3443;
54.3000;0.8295;3.3371;
54.6000;0.8262;3.3395;
54.9000;0.8335;3.3467;
55.2000;0.8319;3.3467;
55.5000;0.8319;3.3539;
55.8000;0.8327;3.3563;
56.1000;0.8335;3.3659;
56.4000;0.8335;3.3611;
56.7000;0.8311;3.3611;
57.0000;0.8311;3.3683;
57.3000;0.8311;3.3659;
57.6000;0.8319;3.3707;
57.9000;0.8344;3.3851;
58.2000;0.8319;3.3779;
58.5000;0.8335;3.3827;
58.8000;0.8352;3.3779;
59.1000;0.8344;3.3707;
59.4000;0.8327;3.3683;
59.7000;0.8319;3.3587;
60.0000;0.8344;3.3587;
60.3000;0.8344;3.3491;
60.6000;0.8384;3.3611;
60.9000;0.8335;3.3515;
61.2000;0.8335;3.3587;
61.5000;0.8352;3.3659;
61.8000;0.8360;3.3611;
62.1000;0.8352;3.3587;
62.4000;0.8335;3.3611;
62.7000;0.8360;3.3659;
63.0000;0.8360;3.3707;
63.3000;0.8344;3.3659;
63.6000;0.8360;3.3731;
63.9000;0.8319;3.3707;
64.2000;0.8360;3.3803;
64.5000;0.8352;3.3779;
64.8000;0.8344;3.3755;
65.1000;0.8352;3.3779;
65.4000;0.8368;3.3827;
65.7000;0.8360;3.3731;
66.0000;0.8360;3.3635;
66.3000;0.8392;3.3731;
66.6000;0.8409;3.3779;
66.9000;0.8360;3.3755;
67.2000;0.8360;3.3587;
67.5000;0.8344;3.3563;
67.8000;0.8360;3.3515;
68.1000;0.8425;3.3707;
68.4000;0.8360;3.3467;
68.7000;0.8376;3.3611;
69.0000;0.8368;3.3635;
69.3000;0.8376;3.3683;
69.6000;0.8417;3.3707;
69.9000;0.8368;3.3539;
70.2000;0.8376;3.3611;
70.5000;0.8400;3.3683;
70.8000;0.8360;3.3635;
71.1000;0.8368;3.3707;
71.4000;0.8344;3.3659;
71.7000;0.8352;3.3707;
72.0000;0.8368;3.3779;
72.3000;0.8376;3.3731;
72.6000;0.8384;3.3707;
72.9000;0.8368;3.3611;
73.2000;0.8360;3.3587;
73.5000;0.8384;3.3707;
73.8000;0.8368;3.3707;
74.1000;0.8392;3.3755;
74.4000;0.8352;3.3611;
74.7000;0.8392;3.3563;
75.0000;0.8376;3.3539;
75.3000;0.8474;3.3779;
75.6000;0.8311;3.3395;
75.9000;0.8327;3.3539;
76.2000;0.8376;3.3563;
76.5000;0.8335;3.3467;
76.8000;0.8409;3.3707;
77.1000;0.8392;3.3611;
77.4000;0.8376;3.3515;
77.7000;0.8441;3.3707;
78.0000;0.8392;3.3683;
78.3000;0.8409;3.3683;
78.6000;0.8376;3.3635;
78.9000;0.8392;3.3611;
79.2000;0.8376;3.3587;
79.5000;0.8376;3.3635;
79.8000;0.8392;3.3707;
80.1000;0.8360;3.3611;
80.4000;0.8384;3.3587;
80.7000;0.8417;3.3683;
81.0000;0.8376;3.3563;
81.3000;0.8376;3.3539;
81.6000;0.8466;3.3779;
81.9000;0.8376;3.3563;
82.2000;0.8392;3.3467;
82.5000;0.8376;3.3371;
82.8000;0.8376;3.3251;
83.1000;0.8392;3.3371;
83.4000;0.8392;3.3395;
83.7000;0.8360;3.3275;
84.0000;0.8384;3.3275;
84.3000;0.8409;3.3443;
84.6000;0.8335;3.3323;
84.9000;0.8400;3.3419;
85.2000;0.8392;3.3443;
85.5000;0.8409;3.3515;
85.8000;0.8400;3.3467;
86.1000;0.8400;3.3443;
86.4000;0.8392;3.3443;
86.7000;0.8392;3.3491;
87.0000;0.8417;3.3515;
87.3000;0.8400;3.3443;
87.6000;0.8392;3.3515;
87.9000;0.8392;3.3515;
88.2000;0.8417;3.3635;
88.5000;0.8400;3.3587;
88.8000;0.8392;3.3539;
89.1000;0.8384;3.3515;
89.4000;0.8417;3.3563;
89.7000;0.8409;3.3467;
90.0000;0.8400;3.3395;
90.3000;0.8400;3.3347;
90.6000;0.8400;3.3275;
90.9000;0.8352;3.3179;
91.2000;0.8400;3.3395;
91.5000;0.8368;3.3299;
91.8000;0.8400;3.3467;
92.1000;0.8335;3.3299;
92.4000;0.8400;3.3395;
92.7000;0.8409;3.3347;
93.0000;0.8344;3.3299;
93.3000;0.8409;3.3539;
93.6000;0.8425;3.3419;
93.9000;0.8433;3.3419;
94.2000;0.8417;3.3419;
94.5000;0.8392;3.3299;
94.8000;0.8392;3.3299;
95.1000;0.8400;3.3395;
95.4000;0.8409;3.3491;
95.7000;0.8417;3.3395;
96.0000;0.8417;3.3491;
96.3000;0.8400;3.3395;
96.6000;0.8425;3.3395;
96.9000;0.8417;3.3443;
97.2000;0.8409;3.3419;
97.5000;0.8384;3.3347;
97.8000;0.8417;3.3395;
98.1000;0.8425;3.3395;
98.4000;0.8441;3.3491;
98.7000;0.8449;3.3371;
99.0000;0.8433;3.3323;
99.3000;0.8392;3.3179;
99.6000;0.8433;3.3347;
99.9000;0.8425;3.3395;
100.2000;0.8417;3.3419;
100.5000;0.8319;3.3227;
100.8000;0.8400;3.3419;
101.1000;0.8425;3.3371;
101.4000;0.8417;3.3227;
101.7000;0.8360;3.3107;
102.0000;0.8376;3.3227;
102.3000;0.8457;3.3467;
102.6000;0.8425;3.3467;
102.9000;0.8441;3.3611;
103.2000;0.8417;3.3515;
103.5000;0.8392;3.3491;
103.8000;0.8400;3.3467;
104.1000;0.8409;3.3467;
104.4000;0.8409;3.3419;
104.7000;0.8523;3.3779;
105.0000;0.8392;3.3467;
105.3000;0.8400;3.3491;
105.6000;0.8474;3.3539;
105.9000;0.8425;3.3371;
106.2000;0.8425;3.3443;
106.5000;0.8409;3.3443;
106.8000;0.8376;3.3275;
107.1000;0.8409;3.3371;
107.4000;0.8425;3.3467;
107.7000;0.8425;3.3491;
108.0000;0.8417;3.3515;
108.3000;0.8433;3.3563;
108.6000;0.8449;3.3587;
108.9000;0.8425;3.3395;
109.2000;0.8417;3.3323;
109.5000;0.8425;3.3419;
109.8000;0.8425;3.3515;
110.1000;0.8425;3.3371;
110.4000;0.8409;3.3275;
110.7000;0.8417;3.3299;
111.0000;0.8425;3.3347;
111.3000;0.8433;3.3347;
111.6000;0.8409;3.3275;
111.9000;0.8400;3.3251;
112.2000;0.8417;3.3323;
112.5000;0.8425;3.3323;
112.8000;0.8409;3.3275;
113.1000;0.8425;3.3371;
113.4000;0.8433;3.3371;
113.7000;0.8449;3.3515;
114.0000;0.8384;3.3323;
114.3000;0.8482;3.3659;
114.6000;0.8425;3.3443;
114.9000;0.8425;3.3371;
115.2000;0.8425;3.3347;
115.5000;0.8417;3.3371;
115.8000;0.8417;3.3323;
116.1000;0.8425;3.3443;
116.4000;0.8417;3.3491;
116.7000;0.8417;3.3467;
117.0000;0.8360;3.3251;
117.3000;0.8433;3.3443;
117.6000;0.8425;3.3443;
117.9000;0.8457;3.3443;
118.2000;0.8441;3.3347;
118.5000;0.8474;3.3395;
118.8000;0.8449;3.3347;
119.1000;0.8425;3.3299;
119.4000;0.8449;3.3323;
119.7000;0.8425;3.3275;
120.0000;0.8433;3.3419;
120.3000;0.8425;3.3467;
120.6000;0.8425;3.3419;
120.9000;0.8433;3.3419;
121.2000;0.8441;3.3443;
121.5000;0.8433;3.3491;
121.8000;0.8441;3.3563;
122.1000;0.8417;3.3659;
122.4000;0.8457;3.3635;
122.7000;0.8425;3.3515;
123.0000;0.8417;3.3491;
123.3000;0.8425;3.3539;
123.6000;0.8441;3.3539;
123.9000;0.8392;3.3395;
124.2000;0.8392;3.3371;
124.5000;0.8433;3.3467;
124.8000;0.8433;3.3491;
125.1000;0.8417;3.3395;
125.4000;0.8433;3.3515;
125.7000;0.8335;3.3251;
126.0000;0.8425;3.3467;
126.3000;0.8400;3.3419;
126.6000;0.8425;3.3467;
126.9000;0.8417;3.3563;
127.2000;0.8449;3.3635;
127.5000;0.8449;3.3611;
127.8000;0.8433;3.3515;
128.1000;0.8474;3.3491;
128.4000;0.8425;3.3299;
128.7000;0.8433;3.3227;
129.0000;0.8433;3.3299;
129.3000;0.8433;3.3347;
129.6000;0.8425;3.3395;
129.9000;0.8457;3.3371;
130.2000;0.8425;3.3395;
130.5000;0.8449;3.3443;
130.8000;0.8417;3.3419;
131.1000;0.8441;3.3443;
131.4000;0.8417;3.3419;
131.7000;0.8335;3.3179;
132.0000;0.8433;3.3419;
132.3000;0.8441;3.3371;
132.6000;0.8417;3.3299;
132.9000;0.8474;3.3443;
133.2000;0.8457;3.3419;
133.5000;0.8433;3.3275;
133.8000;0.8449;3.3251;
134.1000;0.8449;3.3323;
134.4000;0.8433;3.3299;
134.7000;0.8433;3.3323;
135.0000;0.8433;3.3371;
135.3000;0.8449;3.3371;
135.6000;0.8457;3.3419;
135.9000;0.8425;3.3395;
136.2000;0.8441;3.3467;
136.5000;0.8449;3.3419;
136.8000;0.8457;3.3395;
137.1000;0.8457;3.3371;
137.4000;0.8466;3.3395;
137.7000;0.8433;3.3419;
138.0000;0.8433;3.3419;
138.3000;0.8425;3.3515;
138.6000;0.8441;3.3515;
138.9000;0.8433;3.3539;
139.2000;0.8490;3.3563;
139.5000;0.8539;3.3611;
139.8000;0.8474;3.3347;
140.1000;0.8449;3.3371;
140.4000;0.8433;3.3347;
140.7000;0.8433;3.3299;
141.0000;0.8417;3.3275;
141.3000;0.8384;3.3155;
141.6000;0.8425;3.3227;
141.9000;0.8441;3.3275;
142.2000;0.8449;3.3347;
142.5000;0.8457;3.3395;
142.8000;0.8466;3.3395;
143.1000;0.8466;3.3371;
143.4000;0.8441;3.3323;
143.7000;0.8433;3.3323;
144.0000;0.8449;3.3371;
144.3000;0.8457;3.3395;
144.6000;0.8449;3.3347;
144.9000;0.8457;3.3419;
145.2000;0.8433;3.3443;
145.5000;0.8449;3.3371;
145.8000;0.8417;3.3275;
146.1000;0.8433;3.3419;
146.4000;0.8441;3.3491;
146.7000;0.8490;3.3563;
147.0000;0.8449;3.3491;
147.3000;0.8457;3.3539;
147.6000;0.8441;3.3563;
147.9000;0.8449;3.3515;
148.2000;0.8441;3.3395;
148.5000;0.8441;3.3443;
148.8000;0.8409;3.3419;
149.1000;0.8441;3.3515;
149.4000;0.8384;3.3371;
149.7000;0.8384;3.3395;
150.0000;0.8433;3.3635;
150.3000;0.8482;3.3659;
150.6000;0.8433;3.3491;
150.9000;0.8433;3.3515;
151.2000;0.8457;3.3587;
151.5000;0.8449;3.3539;
151.8000;0.8449;3.3443;
152.1000;0.8449;3.3467;
152.4000;0.8425;3.3323;
152.7000;0.8547;3.3635;
153.0000;0.8466;3.3443;
153.3000;0.8441;3.3515;
153.6000;0.8433;3.3467;
153.9000;0.8441;3.3467;
154.2000;0.8490;3.3539;
154.5000;0.8433;3.3419;
154.8000;0.8400;3.3395;
155.1000;0.8425;3.3467;
155.4000;0.8457;3.3491;
155.7000;0.8433;3.3443;
156.0000;0.8449;3.3395;
156.3000;0.8417;3.3371;
156.6000;0.8449;3.3515;
156.9000;0.8433;3.3443;
157.2000;0.8425;3.3443;
157.5000;0.8449;3.3491;
157.8000;0.8466;3.3419;
158.1000;0.8466;3.3443;
158.4000;0.8457;3.3491;
158.7000;0.8457;3.3491;
159.0000;0.8449;3.3563;
159.3000;0.8457;3.3467;
159.6000;0.8441;3.3323;
159.9000;0.8433;3.3347;
160.2000;0.8425;3.3323;
160.5000;0.8441;3.3323;
160.8000;0.8433;3.3275;
161.1000;0.8433;3.3251;
161.4000;0.8449;3.3347;
161.7000;0.8433;3.3419;
162.0000;0.8449;3.3443;
162.3000;0.8433;3.3395;
162.6000;0.8433;3.3371;
162.9000;0.8457;3.3443;
163.2000;0.8498;3.3611;
163.5000;0.8466;3.3443;
163.8000;0.8457;3.3395;
164.1000;0.8457;3.3347;
164.4000;0.8457;3.3395;
164.7000;0.8441;3.3299;
165.0000;0.8441;3.3347;
165.3000;0.8449;3.3323;
165.6000;0.8457;3.3299;
165.9000;0.8433;3.3179;
166.2000;0.8482;3.3251;
166.5000;0.8433;3.3155;
166.8000;0.8449;3.3155;
167.1000;0.8457;3.3275;
167.4000;0.8433;3.3347;
167.7000;0.8441;3.3443;
168.0000;0.8449;3.3395;
168.3000;0.8466;3.3371;
168.6000;0.8449;3.3443;
168.9000;0.8449;3.3371;
169.2000;0.8335;3.3179;
169.5000;0.8466;3.3371;
169.8000;0.8449;3.3323;
170.1000;0.8441;3.3275;
170.4000;0.8433;3.3275;
170.7000;0.8392;3.3155;
171.0000;0.8466;3.3275;
171.3000;0.8441;3.3251;
171.6000;0.8425;3.3323;
171.9000;0.8417;3.3299;
172.2000;0.8441;3.3251;
172.5000;0.8441;3.3275;
172.8000;0.8449;3.3251;
173.1000;0.8400;3.3155;
173.4000;0.8441;3.3251;
173.7000;0.8441;3.3203;
174.0000;0.8449;3.3131;
174.3000;0.8457;3.3131;
174.6000;0.8441;3.3083;
174.9000;0.8466;3.3107;
175.2000;0.8425;3.2939;
175.5000;0.8457;3.2963;
175.8000;0.8449;3.2963;
176.1000;0.8490;3.3107;
176.4000;0.8441;3.3035;
176.7000;0.8466;3.3011;
177.0000;0.8457;3.3035;
177.3000;0.8425;3.3035;
177.6000;0.8433;3.3083;
177.9000;0.8457;3.3155;
178.2000;0.8474;3.3227;
178.5000;0.8449;3.3131;
178.8000;0.8474;3.3179;
179.1000;0.8449;3.3179;
179.4000;0.8425;3.3083;
179.7000;0.8449;3.3131;
180.0000;0.8449;3.3107;
180.3000;0.8449;3.3227;
180.6000;0.8441;3.3131;
180.9000;0.8441;3.3155;
181.2000;0.8441;3.3203;
181.5000;0.8441;3.3275;
181.8000;0.8441;3.3299;
182.1000;0.8441;3.3275;
182.4000;0.8466;3.3323;
182.7000;0.8433;3.3227;
183.0000;0.8441;3.3323;
183.3000;0.8449;3.3299;
183.6000;0.8466;3.3299;
183.9000;0.8449;3.3275;
184.2000;0.8474;3.3299;
184.5000;0.8441;3.3275;
184.8000;0.8441;3.3299;
185.1000;0.8441;3.3251;
185.4000;0.8466;3.3227;
185.7000;0.8457;3.3155;
186.0000;0.8425;3.3131;
186.3000;0.8449;3.3179;
186.6000;0.8441;3.3227;
186.9000;0.8474;3.3251;
187.2000;0.8466;3.3203;
187.5000;0.8474;3.3251;
187.8000;0.8449;3.3155;
188.1000;0.8474;3.3227;
188.4000;0.8490;3.3299;
188.7000;0.8490;3.3299;
189.0000;0.8457;3.3155;
189.3000;0.8449;3.3275;
189.6000;0.8449;3.3275;
189.9000;0.8441;3.3347;
190.2000;0.8466;3.3323;
190.5000;0.8466;3.3347;
190.8000;0.8409;3.3179;
191.1000;0.8441;3.3299;
191.4000;0.8433;3.3347;
191.7000;0.8449;3.3251;
192.0000;0.8433;3.3203;
192.3000;0.8482;3.3443;
192.6000;0.8498;3.3539;
192.9000;0.8441;3.3443;
193.2000;0.8392;3.3347;
193.5000;0.8457;3.3515;
193.8000;0.8474;3.3515;
194.1000;0.8482;3.3491;
194.4000;0.8417;3.3395;
194.7000;0.8506;3.3611;
195.0000;0.8474;3.3563;
195.3000;0.8466;3.3539;
195.6000;0.8466;3.3515;
195.9000;0.8449;3.3467;
196.2000;0.8409;3.3323;
196.5000;0.8433;3.3395;
196.8000;0.8433;3.3395;
197.1000;0.8441;3.3347;
197.4000;0.8441;3.3227;
197.7000;0.8449;3.3299;
198.0000;0.8449;3.3299;
198.3000;0.8441;3.3347;
198.6000;0.8449;3.3491;
198.9000;0.8441;3.3587;
199.2000;0.8457;3.3683;
199.5000;0.8466;3.3707;
199.8000;0.8490;3.3707;
200.1000;0.8474;3.3539;
200.4000;0.8466;3.3419;
200.7000;0.8457;3.3275;
201.0000;0.8466;3.3179;
201.3000;0.8539;3.3323;
201.6000;0.8441;3.3179;
201.9000;0.8457;3.3275;
202.2000;0.8474;3.3323;
202.5000;0.8433;3.3179;
202.8000;0.8482;3.3275;
203.1000;0.8457;3.3203;
203.4000;0.8466;3.3275;
203.7000;0.8457;3.3323;
204.0000;0.8466;3.3419;
204.3000;0.8449;3.3347;
204.6000;0.8457;3.3467;
204.9000;0.8449;3.3419;
205.2000;0.8457;3.3395;
205.5000;0.8441;3.3419;
205.8000;0.8466;3.3395;
206.1000;0.8441;3.3299;
206.4000;0.8441;3.3323;
206.7000;0.8441;3.3347;
207.0000;0.8449;3.3299;
207.3000;0.8433;3.3275;
207.6000;0.8441;3.3227;
207.9000;0.8474;3.3251;
208.2000;0.8449;3.3299;
208.5000;0.8506;3.3467;
208.8000;0.8466;3.3395;
209.1000;0.8457;3.3275;
209.4000;0.8433;3.3179;
209.7000;0.8441;3.3251;
210.0000;0.8433;3.3251;
210.3000;0.8384;3.3035;
210.6000;0.8441;3.3131;
210.9000;0.8457;3.3227;
211.2000;0.8457;3.3251;
211.5000;0.8474;3.3323;
211.8000;0.8457;3.3275;
212.1000;0.8539;3.3443;
212.4000;0.8441;3.3275;
212.7000;0.8457;3.3323;
213.0000;0.8531;3.3443;
213.3000;0.8425;3.3203;
213.6000;0.8457;3.3347;
213.9000;0.8482;3.3419;
214.2000;0.8449;3.3275;
214.5000;0.8457;3.3251;
214.8000;0.8425;3.3107;
215.1000;0.8441;3.3131;
215.4000;0.8474;3.3155;
215.7000;0.8441;3.3059;
216.0000;0.8498;3.3203;
216.3000;0.8457;3.3107;
216.6000;0.8441;3.3155;
216.9000;0.8474;3.3227;
217.2000;0.8457;3.3275;
217.5000;0.8449;3.3179;
217.8000;0.8514;3.3275;
218.1000;0.8466;3.3179;
218.4000;0.8457;3.3203;
218.7000;0.8433;3.3203;
219.0000;0.8457;3.3275;
219.3000;0.8449;3.3179;
219.6000;0.8466;3.3203;
219.9000;0.8433;3.3155;
220.2000;0.8409;3.3107;
220.5000;0.8457;3.3203;
220.8000;0.8457;3.3179;
221.1000;0.8466;3.3323;
221.4000;0.8474;3.3371;
221.7000;0.8417;3.3203;
222.0000;0.8449;3.3275;
222.3000;0.8441;3.3227;
222.6000;0.8449;3.3251;
222.9000;0.8457;3.3179;
223.2000;0.8449;3.3155;
223.5000;0.8457;3.3035;
223.8000;0.8457;3.3083;
224.1000;0.8466;3.2963;
224.4000;0.8482;3.3083;
224.7000;0.8474;3.3155;
225.0000;0.8457;3.3059;
225.3000;0.8449;3.3203;
225.6000;0.8466;3.3275;
225.9000;0.8466;3.3251;
226.2000;0.8466;3.3299;
226.5000;0.8466;3.3299;
226.8000;0.8482;3.3419;
227.1000;0.8474;3.3371;
227.4000;0.8466;3.3227;
227.7000;0.8474;3.3227;
228.0000;0.8466;3.3299;
228.3000;0.8490;3.3251;
228.6000;0.8457;3.3179;
228.9000;0.8449;3.3131;
229.2000;0.8457;3.3251;
229.5000;0.8466;3.3275;
229.8000;0.8466;3.3347;
230.1000;0.8449;3.3347;
230.4000;0.8514;3.3467;
230.7000;0.8449;3.3323;
231.0000;0.8441;3.3323;
231.3000;0.8466;3.3395;
231.6000;0.8482;3.3371;
231.9000;0.8433;3.3203;
232.2000;0.8425;3.3203;
232.5000;0.8441;3.3299;
232.8000;0.8449;3.3251;
233.1000;0.8457;3.3299;
233.4000;0.8425;3.3155;
233.7000;0.8425;3.3179;
234.0000;0.8466;3.3203;
234.3000;0.8449;3.3203;
234.6000;0.8457;3.3203;
234.9000;0.8457;3.3203;
235.2000;0.8433;3.3179;
235.5000;0.8457;3.3179;
235.8000;0.8457;3.3179;
236.1000;0.8433;3.3155;
236.4000;0.8433;3.3203;
236.7000;0.8441;3.3059;
237.0000;0.8457;3.3059;
237.3000;0.8449;3.3107;
237.6000;0.8466;3.3155;
237.9000;0.8474;3.3251;
238.2000;0.8466;3.3227;
238.5000;0.8523;3.3395;
238.8000;0.8449;3.3227;
239.1000;0.8466;3.3251;
239.4000;0.8474;3.3275;
239.7000;0.8474;3.3251;
240.0000;0.8457;3.3251;
240.3000;0.8441;3.3251;
240.6000;0.8449;3.3299;
240.9000;0.8441;3.3347;
241.2000;0.8433;3.3323;
241.5000;0.8506;3.3491;
241.8000;0.8449;3.3275;
242.1000;0.8474;3.3443;
242.4000;0.8449;3.3539;
242.7000;0.8457;3.3611;
243.0000;0.8457;3.3587;
243.3000;0.8466;3.3539;
243.6000;0.8474;3.3539;
243.9000;0.8449;3.3347;
244.2000;0.8466;3.3299;
244.5000;0.8441;3.3203;
244.8000;0.8466;3.3179;
245.1000;0.8449;3.3227;
245.4000;0.8466;3.3299;
245.7000;0.8449;3.3371;
246.0000;0.8498;3.3443;
246.3000;0.8457;3.3419;
246.6000;0.8457;3.3395;
246.9000;0.8457;3.3371;
247.2000;0.8474;3.3395;
247.5000;0.8474;3.3371;
247.8000;0.8474;3.3371;
248.1000;0.8466;3.3419;
248.4000;0.8457;3.3323;
248.7000;0.8425;3.3323;
249.0000;0.8449;3.3299;
249.3000;0.8466;3.3275;
249.6000;0.8571;3.3467;
249.9000;0.8474;3.3323;
250.2000;0.8457;3.3179;
250.5000;0.8433;3.3083;
250.8000;0.8466;3.3179;
251.1000;0.8449;3.3155;
251.4000;0.8482;3.3251;
251.7000;0.8441;3.3203;
252.0000;0.8474;3.3299;
252.3000;0.8449;3.3275;
252.6000;0.8441;3.3299;
252.9000;0.8441;3.3275;
253.2000;0.8449;3.3227;
253.5000;0.8457;3.3179;
253.8000;0.8474;3.3131;
254.1000;0.8457;3.3083;
254.4000;0.8466;3.3131;
254.7000;0.8474;3.3251;
255.0000;0.8457;3.3323;
255.3000;0.8474;3.3395;
255.6000;0.8441;3.3299;
255.9000;0.8457;3.3395;
256.2000;0.8417;3.3323;
256.5000;0.8433;3.3371;
256.8000;0.8449;3.3347;
257.1000;0.8531;3.3539;
257.4000;0.8506;3.3395;
257.7000;0.8457;3.3299;
258.0000;0.8409;3.3179;
258.3000;0.8409;3.3179;
258.6000;0.8449;3.3251;
258.9000;0.8457;3.3299;
259.2000;0.8449;3.3227;
259.5000;0.8482;3.3275;
259.8000;0.8474;3.3299;
260.1000;0.8474;3.3251;
260.4000;0.8466;3.3371;
260.7000;0.8441;3.3419;
261.0000;0.8474;3.3371;
261.3000;0.8457;3.3419;
261.6000;0.8449;3.3347;
261.9000;0.8457;3.3395;
262.2000;0.8457;3.3371;
262.5000;0.8449;3.3323;
262.8000;0.8474;3.3323;
263.1000;0.8449;3.3347;
263.4000;0.8457;3.3371;
263.7000;0.8457;3.3467;
264.0000;0.8466;3.3467;
264.3000;0.8425;3.3371;
264.6000;0.8539;3.3635;
264.9000;0.8466;3.3491;
265.2000;0.8449;3.3395;
265.5000;0.8466;3.3515;
265.8000;0.8449;3.3443;
266.1000;0.8441;3.3395;
266.4000;0.8449;3.3299;
266.7000;0.8425;3.3179;
267.0000;0.8449;3.3227;
267.3000;0.8506;3.3419;
267.6000;0.8457;3.3395;
267.9000;0.8433;3.3395;
268.2000;0.8449;3.3419;
268.5000;0.8457;3.3419;
268.8000;0.8482;3.3443;
269.1000;0.8466;3.3467;
269.4000;0.8457;3.3395;
269.7000;0.8409;3.3299;
270.0000;0.8474;3.3443;
270.3000;0.8466;3.3347;
270.6000;0.8457;3.3371;
270.9000;0.8457;3.3371;
271.2000;0.8466;3.3443;
271.5000;0.8457;3.3443;
271.8000;0.8417;3.3275;
272.1000;0.8457;3.3323;
272.4000;0.8441;3.3371;
272.7000;0.8449;3.3371;
273.0000;0.8474;3.3371;
273.3000;0.8441;3.3323;
273.6000;0.8474;3.3419;
273.9000;0.8466;3.3443;
274.2000;0.8449;3.3395;
274.5000;0.8466;3.3443;
274.8000;0.8466;3.3491;
275.1000;0.8474;3.3443;
275.4000;0.8441;3.3443;
275.7000;0.8457;3.3419;
276.0000;0.8449;3.3443;
276.3000;0.8466;3.3443;
276.6000;0.8457;3.3443;
276.9000;0.8466;3.3443;
277.2000;0.8409;3.3323;
277.5000;0.8466;3.3563;
277.8000;0.8457;3.3563;
278.1000;0.8409;3.3323;
278.4000;0.8449;3.3299;
278.7000;0.8449;3.3203;
279.0000;0.8466;3.3203;
279.3000;0.8466;3.3155;
279.6000;0.8417;3.2987;
279.9000;0.8457;3.3107;
280.2000;0.8425;3.3083;
280.5000;0.8441;3.3107;
280.8000;0.8433;3.3083;
281.1000;0.8441;3.3107;
281.4000;0.8457;3.3155;
281.7000;0.8449;3.3203;
282.0000;0.8457;3.3227;
282.3000;0.8506;3.3203;
282.6000;0.8457;3.3011;
282.9000;0.8457;3.3035;
283.2000;0.8466;3.3155;
283.5000;0.8449;3.3059;
283.8000;0.8474;3.3131;
284.1000;0.8466;3.3059;
284.4000;0.8466;3.3107;
284.7000;0.8474;3.3107;
285.0000;0.8482;3.3227;
285.3000;0.8498;3.3251;
285.6000;0.8482;3.3155;
285.9000;0.8400;3.3035;
286.2000;0.8457;3.3131;
286.5000;0.8523;3.3395;
286.8000;0.8457;3.3251;
287.1000;0.8441;3.3275;
287.4000;0.8498;3.3467;
287.7000;0.8449;3.3275;
288.0000;0.8466;3.3227;
288.3000;0.8449;3.3203;
288.6000;0.8425;3.3107;
288.9000;0.8457;3.3107;
289.2000;0.8466;3.3131;
289.5000;0.8425;3.3179;
289.8000;0.8392;3.3155;
290.1000;0.8457;3.3251;
290.4000;0.8466;3.3275;
290.7000;0.8457;3.3299;
291.0000;0.8449;3.3251;
291.3000;0.8474;3.3179;
291.6000;0.8466;3.3131;
291.9000;0.8466;3.3155;
292.2000;0.8449;3.3131;
292.5000;0.8466;3.3275;
292.8000;0.8466;3.3299;
293.1000;0.8425;3.3251;
293.4000;0.8457;3.3371;
293.7000;0.8457;3.3395;
294.0000;0.8466;3.3347;
294.3000;0.8466;3.3299;
294.6000;0.8466;3.3275;
294.9000;0.8466;3.3419;
295.2000;0.8490;3.3515;
295.5000;0.8466;3.3467;
295.8000;0.8474;3.3395;
296.1000;0.8466;3.3419;
296.4000;0.8490;3.3563;
296.7000;0.8482;3.3563;
297.0000;0.8474;3.3539;
297.3000;0.8449;3.3515;
297.6000;0.8482;3.3587;
297.9000;0.8466;3.3467;
298.2000;0.8449;3.3395;
298.5000;0.8474;3.3395;
298.8000;0.8457;3.3323;
299.1000;0.8466;3.3371;
299.4000;0.8466;3.3347;
299.7000;0.8457;3.3395;
300.0000;0.8457;3.3371;
300.3000;0.8441;3.3323;
300.6000;0.8531;3.3539;
300.9000;0.8466;3.3347;
301.2000;0.8441;3.3323;
301.5000;0.8474;3.3467;
301.8000;0.8449;3.3443;
302.1000;0.8466;3.3467;
302.4000;0.8433;3.3323;
302.7000;0.8474;3.3347;
303.0000;0.8466;3.3347;
303.3000;0.8457;3.3371;
303.6000;0.8409;3.3227;
303.9000;0.8457;3.3275;
304.2000;0.8466;3.3299;
304.5000;0.8441;3.3299;
304.8000;0.8474;3.3275;
305.1000;0.8466;3.3227;
305.4000;0.8441;3.3203;
305.7000;0.8474;3.3227;
306.0000;0.8466;3.3179;
306.3000;0.8474;3.3179;
306.6000;0.8457;3.3155;
306.9000;0.8474;3.3179;
307.2000;0.8441;3.3107;
307.5000;0.8417;3.3059;
307.8000;0.8449;3.3227;
308.1000;0.8449;3.3275;
308.4000;0.8482;3.3371;
308.7000;0.8449;3.3227;
309.0000;0.8449;3.3227;
309.3000;0.8457;3.3155;
309.6000;0.8466;3.3131;
309.9000;0.8457;3.3155;
310.2000;0.8433;3.3083;
310.5000;0.8433;3.3155;
310.8000;0.8433;3.3155;
311.1000;0.8441;3.3203;
311.4000;0.8474;3.3323;
311.7000;0.8466;3.3395;
312.0000;0.8449;3.3371;
312.3000;0.8409;3.3275;
312.6000;0.8417;3.3227;
312.9000;0.8441;3.3275;
313.2000;0.8392;3.3323;
313.5000;0.8433;3.3395;
313.8000;0.8457;3.3515;
314.1000;0.8474;3.3635;
314.4000;0.8466;3.3611;
314.7000;0.8506;3.3683;
315.0000;0.8441;3.3635;
315.3000;0.8457;3.3707;
315.6000;0.8474;3.3731;
315.9000;0.8457;3.3731;
316.2000;0.8482;3.3707;
316.5000;0.8449;3.3683;
316.8000;0.8441;3.3683;
317.1000;0.8466;3.3755;
317.4000;0.8457;3.3707;
317.7000;0.8449;3.3611;
318.0000;0.8433;3.3659;
318.3000;0.8457;3.3611;
318.6000;0.8466;3.3563;
318.9000;0.8466;3.3515;
319.2000;0.8474;3.3659;
319.5000;0.8482;3.3635;
319.8000;0.8482;3.3611;
320.1000;0.8482;3.3611;
320.4000;0.8449;3.3611;
320.7000;0.8474;3.3731;
321.0000;0.8417;3.3587;
321.3000;0.8441;3.3707;
321.6000;0.8433;3.3659;
321.9000;0.8474;3.3803;
322.2000;0.8449;3.3779;
322.5000;0.8433;3.3827;
322.8000;0.8449;3.3803;
323.1000;0.8457;3.3707;
323.4000;0.8466;3.3779;
323.7000;0.8466;3.3707;
324.0000;0.8466;3.3707;
324.3000;0.8409;3.3659;
324.6000;0.8441;3.3683;
324.9000;0.8466;3.3707;
325.2000;0.8441;3.3635;
325.5000;0.8457;3.3587;
325.8000;0.8466;3.3635;
326.1000;0.8514;3.3683;
326.4000;0.8409;3.3419;
326.7000;0.8449;3.3515;
327.0000;0.8441;3.3467;
327.3000;0.8457;3.3587;
327.6000;0.8433;3.3587;
327.9000;0.8433;3.3563;
328.2000;0.8506;3.3731;
328.5000;0.8409;3.3611;
328.8000;0.8466;3.3731;
329.1000;0.8457;3.3635;
329.4000;0.8384;3.3587;
329.7000;0.8482;3.3587;
330.0000;0.8457;3.3563;
330.3000;0.8474;3.3731;
330.6000;0.8457;3.3683;
330.9000;0.8457;3.3611;
331.2000;0.8466;3.3635;
331.5000;0.8449;3.3659;
331.8000;0.8457;3.3707;
332.1000;0.8449;3.3683;
332.4000;0.8466;3.3635;
332.7000;0.8425;3.3515;
333.0000;0.8457;3.3611;
333.3000;0.8441;3.3539;
333.6000;0.8441;3.3563;
333.9000;0.8441;3.3491;
334.2000;0.8417;3.3395;
334.5000;0.8474;3.3539;
334.8000;0.8457;3.3467;
335.1000;0.8466;3.3323;
335.4000;0.8457;3.3323;
335.7000;0.8441;3.3275;
336.0000;0.8474;3.3323;
336.3000;0.8457;3.3275;
336.6000;0.8466;3.3371;
336.9000;0.8449;3.3419;
337.2000;0.8449;3.3491;
337.5000;0.8482;3.3563;
337.8000;0.8449;3.3395;
338.1000;0.8449;3.3323;
338.4000;0.8466;3.3371;
338.7000;0.8466;3.3299;
339.0000;0.8449;3.3299;
339.3000;0.8466;3.3299;
339.6000;0.8449;3.3275;
339.9000;0.8400;3.3155;
340.2000;0.8457;3.3323;
340.5000;0.8466;3.3299;
340.8000;0.8449;3.3251;
341.1000;0.8466;3.3347;
341.4000;0.8457;3.3347;
341.7000;0.8466;3.3395;
342.0000;0.8449;3.3323;
342.3000;0.8466;3.3323;
342.6000;0.8466;3.3299;
342.9000;0.8425;3.3155;
343.2000;0.8417;3.3203;
343.5000;0.8441;3.3299;
343.8000;0.8449;3.3323;
344.1000;0.8457;3.3371;
344.4000;0.8474;3.3443;
344.7000;0.8449;3.3323;
345.0000;0.8482;3.3419;
345.3000;0.8457;3.3371;
345.6000;0.8441;3.3323;
345.9000;0.8449;3.3395;
346.2000;0.8474;3.3467;
346.5000;0.8457;3.3467;
346.8000;0.8466;3.3539;
347.1000;0.8449;3.3611;
347.4000;0.8457;3.3635;
347.7000;0.8457;3.3611;
348.0000;0.8474;3.3539;
348.3000;0.8449;3.3443;
348.6000;0.8417;3.3395;
348.9000;0.8457;3.3467;
349.2000;0.8457;3.3419;
349.5000;0.8449;3.3299;
349.8000;0.8409;3.3179;
350.1000;0.8466;3.3275;
350.4000;0.8441;3.3131;
350.7000;0.8441;3.3179;
351.0000;0.8506;3.3347;
351.3000;0.8466;3.3299;
351.6000;0.8457;3.3251;
351.9000;0.8449;3.3203;
352.2000;0.8490;3.3371;
352.5000;0.8466;3.3371;
352.8000;0.8474;3.3299;
353.1000;0.8425;3.3179;
353.4000;0.8433;3.3227;
353.7000;0.8457;3.3275;
354.0000;0.8457;3.3323;
354.3000;0.8466;3.3371;
354.6000;0.8441;3.3395;
354.9000;0.8457;3.3467;
355.2000;0.8457;3.3515;
355.5000;0.8433;3.3467;
355.8000;0.8457;3.3611;
356.1000;0.8539;3.3875;
356.4000;0.8457;3.3635;
356.7000;0.8457;3.3491;
357.0000;0.8441;3.3419;
357.3000;0.8441;3.3467;
357.6000;0.8441;3.3443;
357.9000;0.8449;3.3347;
358.2000;0.8433;3.3347;
358.5000;0.8449;3.3515;
358.8000;0.8457;3.3563;
359.1000;0.8449;3.3515;
359.4000;0.8433;3.3419;
359.7000;0.8457;3.3371;
360.0000;0.8466;3.3371;
360.3000;0.8482;3.3419;
360.6000;0.8449;3.3419;
360.9000;0.8457;3.3443;
361.2000;0.8441;3.3467;
361.5000;0.8433;3.3563;
361.8000;0.8449;3.3659;
362.1000;0.8457;3.3683;
362.4000;0.8449;3.3731;
362.7000;0.8466;3.3779;
363.0000;0.8409;3.3659;
363.3000;0.8449;3.3731;
363.6000;0.8433;3.3779;
363.9000;0.8457;3.3779;
364.2000;0.8466;3.3803;
364.5000;0.8482;3.3827;
364.8000;0.8466;3.3803;
365.1000;0.8466;3.3803;
365.4000;0.8482;3.3779;
365.7000;0.8449;3.3611;
366.0000;0.8466;3.3587;
366.3000;0.8466;3.3539;
366.6000;0.8466;3.3563;
366.9000;0.8449;3.3539;
367.2000;0.8449;3.3563;
367.5000;0.8474;3.3635;
367.8000;0.8449;3.3707;
368.1000;0.8457;3.3707;
368.4000;0.8449;3.3683;
368.7000;0.8514;3.3923;
369.0000;0.8449;3.3755;
369.3000;0.8457;3.3755;
369.6000;0.8466;3.3683;
369.9000;0.8441;3.3635;
370.2000;0.8433;3.3563;
370.5000;0.8457;3.3563;
370.8000;0.8441;3.3683;
371.1000;0.8433;3.3635;
371.4000;0.8457;3.3683;
371.7000;0.8457;3.3659;
372.0000;0.8433;3.3539;
372.3000;0.8457;3.3587;
372.6000;0.8417;3.3539;
372.9000;0.8449;3.3659;
373.2000;0.8449;3.3659;
373.5000;0.8449;3.3659;
373.8000;0.8457;3.3587;
374.1000;0.8457;3.3539;
374.4000;0.8449;3.3587;
374.7000;0.8433;3.3611;
375.0000;0.8449;3.3611;
375.3000;0.8433;3.3515;
375.6000;0.8474;3.3539;
375.9000;0.8457;3.3491;
376.2000;0.8409;3.3443;
376.5000;0.8449;3.3515;
376.8000;0.8457;3.3515;
377.1000;0.8449;3.3515;
377.4000;0.8441;3.3467;
377.7000;0.8441;3.3419;
378.0000;0.8457;3.3467;
378.3000;0.8466;3.3515;
378.6000;0.8449;3.3443;
378.9000;0.8466;3.3491;
379.2000;0.8433;3.3491;
379.5000;0.8449;3.3563;
379.8000;0.8457;3.3539;
380.1000;0.8441;3.3491;
380.4000;0.8457;3.3563;
380.7000;0.8433;3.3491;
381.0000;0.8482;3.3539;
381.3000;0.8457;3.3395;
381.6000;0.8400;3.3203;
381.9000;0.8449;3.3419;
382.2000;0.8441;3.3443;
382.5000;0.8441;3.3515;
382.8000;0.8417;3.3443;
383.1000;0.8392;3.3419;
383.4000;0.8449;3.3635;
383.7000;0.8457;3.3755;
384.0000;0.8466;3.3827;
384.3000;0.8457;3.3779;
384.6000;0.8433;3.3563;
384.9000;0.8449;3.3491;
385.2000;0.8449;3.3539;
385.5000;0.8474;3.3683;
385.8000;0.8482;3.3635;
386.1000;0.8457;3.3587;
386.4000;0.8409;3.3419;
386.7000;0.8490;3.3587;
387.0000;0.8474;3.3467;
387.3000;0.8449;3.3443;
387.6000;0.8441;3.3539;
387.9000;0.8449;3.3515;
388.2000;0.8425;3.3491;
388.5000;0.8474;3.3635;
388.8000;0.8392;3.3563;
389.1000;0.8449;3.3683;
389.4000;0.8441;3.3635;
389.7000;0.8466;3.3683;
390.0000;0.8441;3.3683;
390.3000;0.8400;3.3515;
390.6000;0.8449;3.3659;
390.9000;0.8474;3.3683;
391.2000;0.8457;3.3779;
391.5000;0.8449;3.3755;
391.8000;0.8466;3.3875;
392.1000;0.8466;3.3875;
392.4000;0.8441;3.3707;
392.7000;0.8417;3.3635;
393.0000;0.8449;3.3683;
393.3000;0.8482;3.3779;
393.6000;0.8457;3.3803;
393.9000;0.8466;3.3755;
394.2000;0.8490;3.3779;
394.5000;0.8466;3.3779;
394.8000;0.8466;3.3755;
395.1000;0.8433;3.3659;
395.4000;0.8449;3.3755;
395.7000;0.8441;3.3731;
396.0000;0.8360;3.3467;
396.3000;0.8449;3.3707;
396.6000;0.8441;3.3779;
396.9000;0.8466;3.3731;
397.2000;0.8539;3.3851;
397.5000;0.8466;3.3683;
397.8000;0.8449;3.3659;
398.1000;0.8441;3.3635;
398.4000;0.8466;3.3731;
398.7000;0.8474;3.3779;
399.0000;0.8449;3.3611;
399.3000;0.8466;3.3563;
399.6000;0.8449;3.3563;
399.9000;0.8457;3.3635;
400.2000;0.8466;3.3587;
400.5000;0.8474;3.3563;
400.8000;0.8457;3.3659;
401.1000;0.8457;3.3755;
401.4000;0.8457;3.3659;
401.7000;0.8449;3.3587;
402.0000;0.8498;3.3731;
402.3000;0.8425;3.3707;
402.6000;0.8433;3.3611;
402.9000;0.8425;3.3563;
403.2000;0.8449;3.3635;
403.5000;0.8400;3.3563;
403.8000;0.8441;3.3659;
404.1000;0.8433;3.3683;
404.4000;0.8441;3.3587;
404.7000;0.8449;3.3515;
405.0000;0.8441;3.3515;
405.3000;0.8457;3.3563;
405.6000;0.8441;3.3515;
405.9000;0.8466;3.3587;
406.2000;0.8466;3.3563;
406.5000;0.8466;3.3635;
406.8000;0.8506;3.3731;
407.1000;0.8457;3.3611;
407.4000;0.8457;3.3563;
407.7000;0.8457;3.3611;
408.0000;0.8449;3.3587;
408.3000;0.8433;3.3587;
408.6000;0.8474;3.3659;
408.9000;0.8449;3.3611;
409.2000;0.8449;3.3611;
409.5000;0.8506;3.3755;
409.8000;0.8449;3.3659;
410.1000;0.8449;3.3563;
410.4000;0.8441;3.3563;
410.7000;0.8449;3.3515;
411.0000;0.8466;3.3515;
411.3000;0.8425;3.3371;
411.6000;0.8417;3.3275;
411.9000;0.8449;3.3323;
412.2000;0.8466;3.3371;
412.5000;0.8490;3.3419;
412.8000;0.8482;3.3395;
413.1000;0.8449;3.3419;
413.4000;0.8441;3.3467;
413.7000;0.8466;3.3659;
414.0000;0.8466;3.3707;
414.3000;0.8482;3.3659;
414.6000;0.8474;3.3611;
414.9000;0.8466;3.3539;
415.2000;0.8441;3.3491;
415.5000;0.8474;3.3515;
415.8000;0.8449;3.3467;
416.1000;0.8490;3.3419;
416.4000;0.8490;3.3467;
416.7000;0.8466;3.3539;
417.0000;0.8457;3.3515;
417.3000;0.8466;3.3539;
417.6000;0.8449;3.3419;
417.9000;0.8457;3.3371;
418.2000;0.8441;3.3347;
418.5000;0.8425;3.3251;
418.8000;0.8466;3.3395;
419.1000;0.8466;3.3347;
419.4000;0.8449;3.3371;
419.7000;0.8457;3.3443;
420.0000;0.8466;3.3539;
420.3000;0.8457;3.3539;
420.6000;0.8457;3.3419;
420.9000;0.8449;3.3395;
421.2000;0.8466;3.3467;
421.5000;0.8441;3.3539;
421.8000;0.8466;3.3563;
422.1000;0.8466;3.3443;
422.4000;0.8466;3.3491;
422.7000;0.8490;3.3539;
423.0000;0.8441;3.3395;
423.3000;0.8474;3.3467;
423.6000;0.8441;3.3419;
423.9000;0.8449;3.3467;
424.2000;0.8466;3.3515;
424.5000;0.8474;3.3563;
424.8000;0.8433;3.3467;
425.1000;0.8466;3.3515;
425.4000;0.8449;3.3563;
425.7000;0.8417;3.3467;
426.0000;0.8417;3.3443;
426.3000;0.8441;3.3515;
426.6000;0.8409;3.3515;
426.9000;0.8498;3.3779;
427.2000;0.8441;3.3659;
427.5000;0.8474;3.3635;
427.8000;0.8433;3.3539;
428.1000;0.8482;3.3587;
428.4000;0.8433;3.3443;
428.7000;0.8433;3.3539;
429.0000;0.8433;3.3563;
429.3000;0.8449;3.3587;
429.6000;0.8417;3.3539;
429.9000;0.8384;3.3515;
430.2000;0.8466;3.3635;
430.5000;0.8449;3.3611;
430.8000;0.8457;3.3515;
431.1000;0.8449;3.3443;
431.4000;0.8457;3.3491;
431.7000;0.8457;3.3587;
432.0000;0.8441;3.3539;
432.3000;0.8425;3.3587;
432.6000;0.8441;3.3611;
432.9000;0.8384;3.3467;
433.2000;0.8425;3.3515;
433.5000;0.8466;3.3587;
433.8000;0.8441;3.3515;
434.1000;0.8449;3.3563;
434.4000;0.8474;3.3515;
434.7000;0.8457;3.3419;
435.0000;0.8466;3.3491;
435.3000;0.8409;3.3443;
435.6000;0.8466;3.3467;
435.9000;0.8457;3.3347;
436.2000;0.8457;3.3323;
436.5000;0.8466;3.3371;
436.8000;0.8474;3.3419;
437.1000;0.8457;3.3371;
437.4000;0.8417;3.3299;
437.7000;0.8466;3.3347;
438.0000;0.8466;3.3299;
438.3000;0.8457;3.3347;
438.6000;0.8449;3.3251;
438.9000;0.8449;3.3275;
439.2000;0.8441;3.3275;
439.5000;0.8482;3.3323;
439.8000;0.8466;3.3251;
440.1000;0.8457;3.3275;
440.4000;0.8417;3.3227;
440.7000;0.8457;3.3371;
441.0000;0.8466;3.3443;
441.3000;0.8449;3.3419;
441.6000;0.8457;3.3395;
441.9000;0.8457;3.3347;
442.2000;0.8433;3.3251;
442.5000;0.8539;3.3539;
442.8000;0.8449;3.3323;
443.1000;0.8449;3.3419;
443.4000;0.8417;3.3323;
443.7000;0.8433;3.3419;
444.0000;0.8474;3.3491;
444.3000;0.8466;3.3419;
444.6000;0.8441;3.3347;
444.9000;0.8425;3.3347;
445.2000;0.8457;3.3443;
445.5000;0.8449;3.3347;
445.8000;0.8449;3.3347;
446.1000;0.8466;3.3347;
446.4000;0.8457;3.3395;
446.7000;0.8466;3.3371;
447.0000;0.8466;3.3371;
447.3000;0.8433;3.3323;
447.6000;0.8441;3.3419;
447.9000;0.8441;3.3419;
448.2000;0.8457;3.3395;
448.5000;0.8449;3.3275;
448.8000;0.8425;3.3251;
449.1000;0.8449;3.3347;
449.4000;0.8449;3.3323;
449.7000;0.8449;3.3323;
450.0000;0.8482;3.3371;
450.3000;0.8482;3.3395;
450.6000;0.8449;3.3395;
450.9000;0.8441;3.3443;
451.2000;0.8441;3.3491;
451.5000;0.8457;3.3491;
451.8000;0.8466;3.3539;
452.1000;0.8449;3.3515;
452.4000;0.8433;3.3515;
452.7000;0.8441;3.3443;
453.0000;0.8449;3.3443;
453.3000;0.8449;3.3443;
453.6000;0.8449;3.3371;
453.9000;0.8409;3.3275;
454.2000;0.8457;3.3299;
454.5000;0.8466;3.3227;
454.8000;0.8433;3.3131;
455.1000;0.8449;3.3179;
455.4000;0.8490;3.3323;
455.7000;0.8433;3.3155;
456.0000;0.8449;3.3179;
456.3000;0.8441;3.3251;
456.6000;0.8498;3.3443;
456.9000;0.8449;3.3395;
457.2000;0.8449;3.3323;
457.5000;0.8466;3.3395;
457.8000;0.8417;3.3371;
458.1000;0.8441;3.3443;
458.4000;0.8466;3.3491;
458.7000;0.8417;3.3347;
459.0000;0.8441;3.3371;
459.3000;0.8457;3.3395;
459.6000;0.8449;3.3347;
459.9000;0.8498;3.3395;
460.2000;0.8457;3.3275;
460.5000;0.8474;3.3395;
460.8000;0.8482;3.3323;
461.1000;0.8466;3.3275;
461.4000;0.8531;3.3443;
461.7000;0.8457;3.3299;
462.0000;0.8449;3.3323;
462.3000;0.8474;3.3419;
462.6000;0.8441;3.3371;
462.9000;0.8466;3.3491;
463.2000;0.8457;3.3491;
463.5000;0.8449;3.3419;
463.8000;0.8449;3.3395;
464.1000;0.8433;3.3347;
464.4000;0.8457;3.3419;
464.7000;0.8474;3.3467;
465.0000;0.8449;3.3347;
465.3000;0.8433;3.3275;
465.6000;0.8449;3.3227;
465.9000;0.8457;3.3131;
466.2000;0.8457;3.3131;
466.5000;0.8376;3.2963;
466.8000;0.8425;3.3083;
467.1000;0.8441;3.3131;
467.4000;0.8441;3.3059;
467.7000;0.8425;3.3059;
468.0000;0.8441;3.3107;
468.3000;0.8441;3.3083;
468.6000;0.8441;3.3083;
468.9000;0.8409;3.2939;
469.2000;0.8441;3.3035;
469.5000;0.8409;3.3011;
469.8000;0.8449;3.3083;
470.1000;0.8376;3.2891;
470.4000;0.8466;3.3155;
470.7000;0.8425;3.3131;
471.0000;0.8433;3.3059;
471.3000;0.8466;3.3155;
471.6000;0.8384;3.2891;
471.9000;0.8441;3.2939;
472.2000;0.8466;3.3107;
472.5000;0.8449;3.3155;
472.8000;0.8449;3.3251;
473.1000;0.8449;3.3323;
473.4000;0.8474;3.3371;
473.7000;0.8433;3.3251;
474.0000;0.8457;3.3347;
474.3000;0.8466;3.3419;
474.6000;0.8466;3.3467;
474.9000;0.8466;3.3443;
475.2000;0.8449;3.3443;
475.5000;0.8441;3.3419;
475.8000;0.8433;3.3419;
476.1000;0.8433;3.3419;
476.4000;0.8466;3.3419;
476.7000;0.8466;3.3467;
477.0000;0.8449;3.3395;
477.3000;0.8457;3.3347;
477.6000;0.8376;3.3155;
477.9000;0.8441;3.3299;
478.2000;0.8441;3.3299;
478.5000;0.8457;3.3275;
478.8000;0.8441;3.3203;
479.1000;0.8425;3.3131;
479.4000;0.8441;3.3131;
479.7000;0.8490;3.3275;
480.0000;0.8449;3.3179;
480.3000;0.8425;3.3227;
480.6000;0.8425;3.3323;
480.9000;0.8449;3.3347;
481.2000;0.8490;3.3467;
481.5000;0.8425;3.3275;
481.8000;0.8409;3.3203;
482.1000;0.8441;3.3251;
482.4000;0.8466;3.3347;
482.7000;0.8474;3.3443;
483.0000;0.8441;3.3299;
483.3000;0.8457;3.3347;
483.6000;0.8457;3.3323;
483.9000;0.8449;3.3227;
484.2000;0.8457;3.3227;
484.5000;0.8441;3.3131;
484.8000;0.8441;3.3227;
485.1000;0.8457;3.3395;
485.4000;0.8441;3.3443;
485.7000;0.8457;3.3491;
486.0000;0.8449;3.3515;
486.3000;0.8466;3.3539;
486.6000;0.8457;3.3491;
486.9000;0.8466;3.3587;
487.2000;0.8457;3.3659;
487.5000;0.8474;3.3659;
487.8000;0.8457;3.3683;
488.1000;0.8425;3.3611;
488.4000;0.8457;3.3659;
488.7000;0.8449;3.3659;
489.0000;0.8466;3.3659;
489.3000;0.8441;3.3467;
489.6000;0.8457;3.3443;
489.9000;0.8457;3.3467;
490.2000;0.8457;3.3419;
490.5000;0.8449;3.3467;
490.8000;0.8449;3.3443;
491.1000;0.8441;3.3371;
491.4000;0.8449;3.3371;
491.7000;0.8449;3.3347;
492.0000;0.8441;3.3371;
492.3000;0.8417;3.3323;
492.6000;0.8449;3.3491;
492.9000;0.8449;3.3539;
493.2000;0.8555;3.3779;
493.5000;0.8490;3.3611;
493.8000;0.8449;3.3467;
494.1000;0.8457;3.3659;
494.4000;0.8466;3.3659;
494.7000;0.8523;3.3731;
495.0000;0.8449;3.3587;
495.3000;0.8457;3.3539;
495.6000;0.8417;3.3419;
495.9000;0.8449;3.3443;
496.2000;0.8368;3.3299;
496.5000;0.8433;3.3467;
496.8000;0.8466;3.3491;
497.1000;0.8449;3.3467;
497.4000;0.8441;3.3539;
497.7000;0.8457;3.3611;
498.0000;0.8425;3.3539;
498.3000;0.8441;3.3587;
498.6000;0.8466;3.3659;
498.9000;0.8449;3.3563;
499.2000;0.8457;3.3659;
499.5000;0.8449;3.3683;
499.8000;0.8400;3.3635;
500.1000;0.8433;3.3755;
500.4000;0.8449;3.3779;
500.7000;0.8457;3.3731;
501.0000;0.8457;3.3563;
501.3000;0.8474;3.3539;
501.6000;0.8457;3.3515;
501.9000;0.8433;3.3515;
502.2000;0.8433;3.3635;
502.5000;0.8490;3.3683;
502.8000;0.8449;3.3515;
503.1000;0.8449;3.3443;
503.4000;0.8368;3.3347;
503.7000;0.8392;3.3347;
504.0000;0.8457;3.3515;
504.3000;0.8474;3.3563;
504.6000;0.8449;3.3467;
504.9000;0.8433;3.3443;
505.2000;0.8457;3.3611;
505.5000;0.8433;3.3635;
505.8000;0.8441;3.3659;
506.1000;0.8449;3.3611;
506.4000;0.8457;3.3635;
506.7000;0.8433;3.3683;
507.0000;0.8449;3.3731;
507.3000;0.8466;3.3755;
507.6000;0.8466;3.3683;
507.9000;0.8466;3.3683;
508.2000;0.8466;3.3779;
508.5000;0.8449;3.3779;
508.8000;0.8417;3.3707;
509.1000;0.8457;3.3707;
509.4000;0.8457;3.3707;
509.7000;0.8466;3.3731;
510.0000;0.8498;3.3731;
510.3000;0.8466;3.3659;
510.6000;0.8441;3.3563;
510.9000;0.8457;3.3635;
511.2000;0.8449;3.3635;
511.5000;0.8474;3.3683;
511.8000;0.8441;3.3707;
512.1000;0.8449;3.3683;
512.4000;0.8425;3.3659;
512.7000;0.8433;3.3779;
513.0000;0.8449;3.3803;
513.3000;0.8417;3.3755;
513.6000;0.8466;3.3827;
513.9000;0.8449;3.3755;
514.2000;0.8571;3.4115;
514.5000;0.8514;3.3899;
514.8000;0.8441;3.3707;
515.1000;0.8466;3.3779;
515.4000;0.8441;3.3803;
515.7000;0.8449;3.3851;
516.0000;0.8433;3.3875;
516.3000;0.8449;3.3875;
516.6000;0.8441;3.3755;
516.9000;0.8433;3.3707;
517.2000;0.8433;3.3707;
517.5000;0.8417;3.3707;
517.8000;0.8457;3.3731;
518.1000;0.8449;3.3707;
518.4000;0.8433;3.3683;
518.7000;0.8433;3.3563;
519.0000;0.8449;3.3539;
519.3000;0.8457;3.3563;
519.6000;0.8449;3.3563;
519.9000;0.8466;3.3515;
520.2000;0.8441;3.3491;
520.5000;0.8400;3.3323;
520.8000;0.8449;3.3443;
521.1000;0.8457;3.3491;
521.4000;0.8441;3.3539;
521.7000;0.8482;3.3539;
522.0000;0.8441;3.3467;
522.3000;0.8457;3.3443;
522.6000;0.8441;3.3491;
522.9000;0.8449;3.3539;
523.2000;0.8425;3.3395;
523.5000;0.8441;3.3467;
523.8000;0.8547;3.3755;
524.1000;0.8457;3.3587;
524.4000;0.8449;3.3587;
524.7000;0.8563;3.3899;
525.0000;0.8417;3.3635;
525.3000;0.8433;3.3659;
525.6000;0.8417;3.3587;
525.9000;0.8457;3.3707;
526.2000;0.8433;3.3611;
526.5000;0.8409;3.3611;
526.8000;0.8441;3.3659;
527.1000;0.8457;3.3659;
527.4000;0.8433;3.3659;
527.7000;0.8449;3.3755;
528.0000;0.8449;3.3731;
528.3000;0.8466;3.3707;
528.6000;0.8433;3.3563;
528.9000;0.8409;3.3491;
529.2000;0.8457;3.3635;
529.5000;0.8441;3.3659;
529.8000;0.8466;3.3803;
530.1000;0.8449;3.3731;
530.4000;0.8441;3.3683;
530.7000;0.8441;3.3707;
531.0000;0.8457;3.3731;
531.3000;0.8441;3.3803;
531.6000;0.8449;3.3827;
531.9000;0.8466;3.3875;
532.2000;0.8506;3.3875;
532.5000;0.8409;3.3659;
532.8000;0.8433;3.3779;
533.1000;0.8539;3.3971;
533.4000;0.8449;3.3779;
533.7000;0.8433;3.3731;
534.0000;0.8433;3.3707;
534.3000;0.8506;3.3899;
534.6000;0.8417;3.3611;
534.9000;0.8449;3.3755;
535.2000;0.8368;3.3539;
535.5000;0.8400;3.3683;
535.8000;0.8433;3.3779;
536.1000;0.8376;3.3635;
536.4000;0.8392;3.3635;
536.7000;0.8425;3.3683;
537.0000;0.8384;3.3563;
537.3000;0.8425;3.3731;
537.6000;0.8490;3.3899;
537.9000;0.8417;3.3731;
538.2000;0.8433;3.3779;
538.5000;0.8433;3.3803;
538.8000;0.8433;3.3827;
539.1000;0.8441;3.3899;
539.4000;0.8457;3.3899;
539.7000;0.8457;3.3923;
540.0000;0.8441;3.3923;
540.3000;0.8449;3.3851;
540.6000;0.8441;3.3899;
540.9000;0.8441;3.3779;
541.2000;0.8433;3.3659;
541.5000;0.8433;3.3731;
541.8000;0.8449;3.3779;
542.1000;0.8449;3.3779;
542.4000;0.8466;3.3827;
542.7000;0.8457;3.3731;
543.0000;0.8433;3.3707;
543.3000;0.8457;3.3731;
543.6000;0.8457;3.3779;
543.9000;0.8457;3.3851;
544.2000;0.8482;3.3851;
544.5000;0.8449;3.3803;
544.8000;0.8449;3.3803;
545.1000;0.8449;3.3707;
545.4000;0.8457;3.3635;
545.7000;0.8425;3.3515;
546.0000;0.8498;3.3635;
546.3000;0.8449;3.3563;
546.6000;0.8433;3.3563;
546.9000;0.8425;3.3635;
547.2000;0.8441;3.3731;
547.5000;0.8441;3.3731;
547.8000;0.8409;3.3635;
548.1000;0.8417;3.3659;
548.4000;0.8417;3.3731;
548.7000;0.8457;3.3779;
549.0000;0.8433;3.3683;
549.3000;0.8449;3.3563;
549.6000;0.8409;3.3539;
549.9000;0.8441;3.3659;
550.2000;0.8433;3.3683;
550.5000;0.8433;3.3731;
550.8000;0.8449;3.3803;
551.1000;0.8449;3.3803;
551.4000;0.8449;3.3755;
551.7000;0.8433;3.3683;
552.0000;0.8466;3.3779;
552.3000;0.8457;3.3779;
552.6000;0.8417;3.3635;
552.9000;0.8425;3.3563;
553.2000;0.8449;3.3467;
553.5000;0.8457;3.3395;
553.8000;0.8539;3.3587;
554.1000;0.8441;3.3371;
554.4000;0.8466;3.3563;
554.7000;0.8474;3.3539;
555.0000;0.8457;3.3491;
555.3000;0.8441;3.3395;
555.6000;0.8449;3.3395;
555.9000;0.8441;3.3491;
556.2000;0.8425;3.3419;
556.5000;0.8482;3.3515;
556.8000;0.8400;3.3467;
557.1000;0.8384;3.3467;
557.4000;0.8457;3.3539;
557.7000;0.8457;3.3587;
558.0000;0.8449;3.3563;
558.3000;0.8457;3.3611;
558.6000;0.8449;3.3539;
558.9000;0.8449;3.3539;
559.2000;0.8514;3.3731;
559.5000;0.8449;3.3635;
559.8000;0.8449;3.3683;
560.1000;0.8457;3.3563;
560.4000;0.8474;3.3563;
560.7000;0.8433;3.3491;
561.0000;0.8457;3.3539;
561.3000;0.8449;3.3539;
561.6000;0.8425;3.3515;
561.9000;0.8441;3.3515;
562.2000;0.8449;3.3539;
562.5000;0.8466;3.3563;
562.8000;0.8441;3.3683;
563.1000;0.8425;3.3635;
563.4000;0.8441;3.3659;
563.7000;0.8449;3.3683;
564.0000;0.8425;3.3731;
564.3000;0.8425;3.3707;
564.6000;0.8449;3.3803;
564.9000;0.8449;3.3827;
565.2000;0.8433;3.3803;
565.5000;0.8449;3.3875;
565.8000;0.8441;3.3923;
566.1000;0.8441;3.3851;
566.4000;0.8441;3.3851;
566.7000;0.8441;3.3851;
567.0000;0.8425;3.3707;
567.3000;0.8449;3.3779;
567.6000;0.8433;3.3779;
567.9000;0.8449;3.3899;
568.2000;0.8449;3.3851;
568.5000;0.8523;3.4019;
568.8000;0.8449;3.3779;
569.1000;0.8457;3.3851;
569.4000;0.8425;3.3707;
569.7000;0.8457;3.3731;
570.0000;0.8457;3.3803;
570.3000;0.8449;3.3899;
570.6000;0.8449;3.3899;
570.9000;0.8457;3.3755;
571.2000;0.8449;3.3683;
571.5000;0.8474;3.3755;
571.8000;0.8457;3.3707;
572.1000;0.8433;3.3659;
572.4000;0.8392;3.3611;
572.7000;0.8409;3.3611;
573.0000;0.8449;3.3707;
573.3000;0.8409;3.3779;
573.6000;0.8498;3.4019;
573.9000;0.8433;3.3971;
574.2000;0.8441;3.4043;
574.5000;0.8441;3.3947;
574.8000;0.8392;3.3899;
575.1000;0.8506;3.4187;
575.4000;0.8449;3.4019;
575.7000;0.8449;3.4067;
576.0000;0.8433;3.3995;
576.3000;0.8425;3.3923;
576.6000;0.8457;3.3947;
576.9000;0.8457;3.3851;
577.2000;0.8441;3.3803;
577.5000;0.8441;3.3947;
577.8000;0.8457;3.3995;
578.1000;0.8441;3.3971;
578.4000;0.8425;3.3995;
578.7000;0.8441;3.4019;
579.0000;0.8457;3.3995;
579.3000;0.8441;3.3923;
579.6000;0.8433;3.3803;
579.9000;0.8449;3.3899;
580.2000;0.8441;3.3851;
580.5000;0.8441;3.3779;
580.8000;0.8441;3.3683;
581.1000;0.8433;3.3755;
581.4000;0.8457;3.3827;
581.7000;0.8457;3.3851;
582.0000;0.8457;3.3827;
582.3000;0.8449;3.3923;
582.6000;0.8457;3.3899;
582.9000;0.8449;3.3779;
583.2000;0.8433;3.3707;
583.5000;0.8417;3.3659;
583.8000;0.8441;3.3683;
584.1000;0.8441;3.3635;
584.4000;0.8441;3.3539;
584.7000;0.8441;3.3467;
585.0000;0.8433;3.3347;
585.3000;0.8425;3.3371;
585.6000;0.8457;3.3395;
585.9000;0.8441;3.3371;
586.2000;0.8466;3.3443;
586.5000;0.8449;3.3491;
586.8000;0.8457;3.3563;
587.1000;0.8457;3.3515;
587.4000;0.8449;3.3539;
587.7000;0.8474;3.3563;
588.0000;0.8482;3.3587;
588.3000;0.8441;3.3515;
588.6000;0.8441;3.3587;
588.9000;0.8441;3.3683;
589.2000;0.8449;3.3683;
589.5000;0.8441;3.3731;
589.8000;0.8425;3.3683;
590.1000;0.8457;3.3755;
590.4000;0.8441;3.3755;
590.7000;0.8441;3.3635;
591.0000;0.8433;3.3659;
591.3000;0.8449;3.3683;
591.6000;0.8433;3.3755;
591.9000;0.8433;3.3779;
592.2000;0.8433;3.3779;
592.5000;0.8441;3.3731;
592.8000;0.8457;3.3779;
593.1000;0.8441;3.3707;
593.4000;0.8441;3.3779;
593.7000;0.8474;3.3851;
594.0000;0.8425;3.3611;
594.3000;0.8449;3.3659;
594.6000;0.8425;3.3587;
594.9000;0.8433;3.3539;
595.2000;0.8441;3.3539;
595.5000;0.8376;3.3323;
595.8000;0.8433;3.3515;
596.1000;0.8433;3.3587;
596.4000;0.8400;3.3515;
596.7000;0.8482;3.3683;
597.0000;0.8433;3.3563;
597.3000;0.8433;3.3539;
597.6000;0.8433;3.3419;
597.9000;0.8449;3.3515;
598.2000;0.8449;3.3443;
598.5000;0.8457;3.3395;
598.8000;0.8433;3.3371;
599.1000;0.8441;3.3491;
599.4000;0.8449;3.3587;
599.7000;0.8457;3.3587;
600.0000;0.8409;3.3443;
600.3000;0.8441;3.3395;
600.6000;0.8449;3.3251;
600.9000;0.8466;3.3131;
601.2000;0.8409;3.2987;
601.5000;0.8400;3.2867;
601.8000;0.8335;3.2699;
602.1000;0.8295;3.2555;
602.4000;0.8230;3.2388;
602.7000;0.8164;3.2220;
603.0000;0.8124;3.2100;
603.3000;0.8099;3.1932;
603.6000;0.8034;3.1740;
603.9000;0.7985;3.1572;
604.2000;0.8018;3.1668;
604.5000;0.7888;3.1380;
604.8000;0.7880;3.1380;
605.1000;0.7823;3.1284;
605.4000;0.7823;3.1284;
605.7000;0.7766;3.1164;
606.0000;0.7757;3.1116;
606.3000;0.7725;3.1092;
606.6000;0.7692;3.1140;
606.9000;0.7643;3.1068;
607.2000;0.7635;3.1092;
607.5000;0.7603;3.1116;
607.8000;0.7586;3.1020;
608.1000;0.7554;3.0948;
608.4000;0.7538;3.0804;
608.7000;0.7481;3.0708;
609.0000;0.7481;3.0804;
609.3000;0.7424;3.0804;
609.6000;0.7456;3.0948;
609.9000;0.7424;3.0876;
610.2000;0.7407;3.0876;
610.5000;0.7391;3.0828;
610.8000;0.7375;3.0828;
611.1000;0.7342;3.0852;
611.4000;0.7318;3.0876;
611.7000;0.7302;3.0852;
612.0000;0.7285;3.0804;
612.3000;0.7269;3.0828;
612.6000;0.7277;3.0924;
612.9000;0.7236;3.0900;
613.2000;0.7228;3.0828;
613.5000;0.7196;3.0828;
613.8000;0.7171;3.0708;
614.1000;0.7155;3.0660;
614.4000;0.7155;3.0660;
614.7000;0.7212;3.0804;
615.0000;0.7171;3.0684;
615.3000;0.7098;3.0468;
615.6000;0.7090;3.0444;
615.9000;0.7188;3.0732;
616.2000;0.7057;3.0468;
616.5000;0.7057;3.0420;
616.8000;0.7041;3.0420;
617.1000;0.7017;3.0348;
617.4000;0.6984;3.0372;
617.7000;0.6968;3.0372;
618.0000;0.6968;3.0372;
618.3000;0.6960;3.0420;
618.6000;0.6952;3.0516;
618.9000;0.6960;3.0564;
619.2000;0.6968;3.0540;
619.5000;0.6919;3.0444;
619.8000;0.6927;3.0540;
620.1000;0.6895;3.0396;
620.4000;0.6886;3.0300;
620.7000;0.6886;3.0420;
621.0000;0.6870;3.0396;
621.3000;0.6886;3.0420;
621.6000;0.6854;3.0396;
621.9000;0.6846;3.0348;
622.2000;0.6838;3.0420;
622.5000;0.6821;3.0468;
622.8000;0.6813;3.0420;
623.1000;0.6813;3.0372;
623.4000;0.6789;3.0420;
623.7000;0.6789;3.0468;
624.0000;0.6772;3.0492;
624.3000;0.6781;3.0492;
624.6000;0.6772;3.0444;
624.9000;0.6756;3.0420;
625.2000;0.6740;3.0372;
625.5000;0.6732;3.0372;
625.8000;0.6732;3.0420;
626.1000;0.6732;3.0420;
626.4000;0.6716;3.0324;
626.7000;0.6699;3.0252;
627.0000;0.6699;3.0228;
627.3000;0.6650;3.0108;
627.6000;0.6642;3.0060;
627.9000;0.6675;3.0228;
628.2000;0.6634;3.0180;
628.5000;0.6626;3.0300;
628.8000;0.6642;3.0444;
629.1000;0.6634;3.0540;
629.4000;0.6650;3.0636;
629.7000;0.6642;3.0732;
630.0000;0.6618;3.0660;
630.3000;0.6545;3.0420;
630.6000;0.6593;3.0516;
630.9000;0.6602;3.0540;
631.2000;0.6610;3.0588;
631.5000;0.6593;3.0516;
631.8000;0.6585;3.0444;
632.1000;0.6569;3.0468;
632.4000;0.6577;3.0492;
632.7000;0.6577;3.0516;
633.0000;0.6569;3.0516;
633.3000;0.6618;3.0732;
633.6000;0.6528;3.0468;
633.9000;0.6528;3.0444;
634.2000;0.6553;3.0564;
634.5000;0.6561;3.0540;
634.8000;0.6561;3.0564;
635.1000;0.6536;3.0444;
635.4000;0.6504;3.0444;
635.7000;0.6463;3.0348;
636.0000;0.6504;3.0468;
636.3000;0.6496;3.0564;
636.6000;0.6471;3.0420;
636.9000;0.6488;3.0444;
637.2000;0.6471;3.0468;
637.5000;0.6496;3.0564;
637.8000;0.6528;3.0756;
638.1000;0.6455;3.0684;
638.4000;0.6455;3.0636;
638.7000;0.6553;3.0828;
639.0000;0.6455;3.0564;
639.3000;0.6439;3.0564;
639.6000;0.6431;3.0492;
639.9000;0.6382;3.0444;
640.2000;0.6447;3.0612;
640.5000;0.6447;3.0540;
640.8000;0.6422;3.0492;
641.1000;0.6447;3.0516;
641.4000;0.6414;3.0516;
641.7000;0.6390;3.0516;
642.0000;0.6374;3.0444;
642.3000;0.6382;3.0396;
642.6000;0.6422;3.0492;
642.9000;0.6390;3.0468;
643.2000;0.6357;3.0444;
643.5000;0.6463;3.0708;
643.8000;0.6382;3.0492;
644.1000;0.6398;3.0396;
644.4000;0.6341;3.0204;
644.7000;0.6382;3.0276;
645.0000;0.6365;3.0180;
645.3000;0.6349;3.0300;
645.6000;0.6349;3.0396;
645.9000;0.6398;3.0540;
646.2000;0.6349;3.0420;
646.5000;0.6317;3.0372;
646.8000;0.6325;3.0372;
647.1000;0.6309;3.0324;
647.4000;0.6309;3.0276;
647.7000;0.6333;3.0324;
648.0000;0.6292;3.0324;
648.3000;0.6325;3.0468;
648.6000;0.6309;3.0444;
648.9000;0.6325;3.0396;
649.2000;0.6300;3.0396;
649.5000;0.6300;3.0444;
649.8000;0.6284;3.0468;
650.1000;0.6349;3.0588;
650.4000;0.6235;3.0324;
650.7000;0.6292;3.0516;
651.0000;0.6252;3.0468;
651.3000;0.6317;3.0732;
651.6000;0.6268;3.0660;
651.9000;0.6268;3.0660;
652.2000;0.6227;3.0564;
652.5000;0.6252;3.0708;
652.8000;0.6252;3.0636;
653.1000;0.6252;3.0516;
653.4000;0.6252;3.0540;
653.7000;0.6252;3.0564;
654.0000;0.6252;3.0516;
654.3000;0.6276;3.0564;
654.6000;0.6219;3.0324;
654.9000;0.6227;3.0348;
655.2000;0.6211;3.0348;
655.5000;0.6243;3.0396;
655.8000;0.6235;3.0492;
656.1000;0.6203;3.0444;
656.4000;0.6227;3.0540;
656.7000;0.6219;3.0564;
657.0000;0.6235;3.0612;
657.3000;0.6203;3.0468;
657.6000;0.6203;3.0396;
657.9000;0.6195;3.0444;
658.2000;0.6195;3.0516;
658.5000;0.6211;3.0588;
658.8000;0.6186;3.0468;
659.1000;0.6195;3.0492;
659.4000;0.6186;3.0396;
659.7000;0.6162;3.0252;
660.0000;0.6162;3.0300;
660.3000;0.6186;3.0348;
660.6000;0.6170;3.0204;
660.9000;0.6170;3.0228;
661.2000;0.6195;3.0372;
661.5000;0.6178;3.0468;
661.8000;0.6178;3.0468;
662.1000;0.6138;3.0444;
662.4000;0.6146;3.0444;
662.7000;0.6154;3.0396;
663.0000;0.6146;3.0372;
663.3000;0.6138;3.0372;
663.6000;0.6129;3.0372;
663.9000;0.6129;3.0324;
664.2000;0.6129;3.0300;
664.5000;0.6138;3.0276;
664.8000;0.6138;3.0300;
665.1000;0.6203;3.0612;
665.4000;0.6154;3.0564;
665.7000;0.6138;3.0564;
666.0000;0.6089;3.0420;
666.3000;0.6105;3.0324;
666.6000;0.6064;3.0156;
666.9000;0.6113;3.0276;
667.2000;0.6056;3.0180;
667.5000;0.6170;3.0444;
667.8000;0.6081;3.0228;
668.1000;0.6105;3.0300;
668.4000;0.6195;3.0540;
668.7000;0.6105;3.0348;
669.0000;0.6072;3.0372;
669.3000;0.6081;3.0420;
669.6000;0.6032;3.0300;
669.9000;0.6072;3.0468;
670.2000;0.6081;3.0564;
670.5000;0.6105;3.0540;
670.8000;0.6081;3.0516;
671.1000;0.6072;3.0444;
671.4000;0.6072;3.0444;
671.7000;0.6105;3.0420;
672.0000;0.6072;3.0420;
672.3000;0.6072;3.0420;
672.6000;0.6064;3.0372;
672.9000;0.6064;3.0396;
673.2000;0.6081;3.0492;
673.5000;0.6056;3.0540;
673.8000;0.6064;3.0516;
674.1000;0.6048;3.0468;
674.4000;0.6072;3.0468;
674.7000;0.6081;3.0468;
675.0000;0.6048;3.0348;
675.3000;0.6048;3.0372;
675.6000;0.6072;3.0444;
675.9000;0.6064;3.0564;
676.2000;0.6081;3.0564;
676.5000;0.6064;3.0588;
676.8000;0.6040;3.0588;
677.1000;0.6040;3.0588;
677.4000;0.6032;3.0564;
677.7000;0.6040;3.0540;
678.0000;0.6032;3.0564;
678.3000;0.6032;3.0612;
678.6000;0.6007;3.0468;
678.9000;0.6024;3.0372;
679.2000;0.6032;3.0348;
679.5000;0.6024;3.0348;
679.8000;0.6024;3.0324;
680.1000;0.6040;3.0468;
680.4000;0.6015;3.0420;
680.7000;0.5991;3.0420;
681.0000;0.6024;3.0444;
681.3000;0.6015;3.0468;
681.6000;0.6048;3.0564;
681.9000;0.6024;3.0564;
682.2000;0.6024;3.0564;
682.5000;0.5983;3.0564;
682.8000;0.5999;3.0660;
683.1000;0.5999;3.0636;
683.4000;0.6015;3.0660;
683.7000;0.5942;3.0372;
684.0000;0.5983;3.0564;
684.3000;0.5975;3.0468;
684.6000;0.6015;3.0444;
684.9000;0.5983;3.0348;
685.2000;0.5975;3.0444;
685.5000;0.5991;3.0444;
685.8000;0.5983;3.0444;
686.1000;0.6015;3.0540;
686.4000;0.5950;3.0468;
686.7000;0.5991;3.0516;
687.0000;0.5975;3.0540;
687.3000;0.6007;3.0516;
687.6000;0.5958;3.0372;
687.9000;0.5975;3.0372;
688.2000;0.5967;3.0420;
688.5000;0.6024;3.0540;
688.8000;0.5950;3.0252;
689.1000;0.5967;3.0300;
689.4000;0.5958;3.0396;
689.7000;0.5967;3.0444;
690.0000;0.5967;3.0444;
690.3000;0.6015;3.0612;
690.6000;0.5910;3.0348;
690.9000;0.5975;3.0492;
691.2000;0.5967;3.0468;
691.5000;0.5958;3.0516;
691.8000;0.6056;3.0756;
692.1000;0.5975;3.0492;
692.4000;0.5958;3.0492;
692.7000;0.5950;3.0516;
693.0000;0.5942;3.0492;
693.3000;0.5958;3.0516;
693.6000;0.5950;3.0516;
693.9000;0.5926;3.0540;
694.2000;0.5934;3.0516;
694.5000;0.5942;3.0516;
694.8000;0.5934;3.0540;
695.1000;0.5934;3.0588;
695.4000;0.5934;3.0612;
695.7000;0.5926;3.0660;
696.0000;0.5950;3.0660;
696.3000;0.5934;3.0684;
696.6000;0.5934;3.0708;
696.9000;0.5934;3.0780;
697.2000;0.5934;3.0804;
697.5000;0.5950;3.0852;
697.8000;0.5942;3.0876;
698.1000;0.5926;3.0852;
698.4000;0.5926;3.0900;
698.7000;0.5926;3.0900;
699.0000;0.5926;3.0708;
699.3000;0.5926;3.0636;
699.6000;0.5934;3.0660;
699.9000;0.5926;3.0708;
700.2000;0.5926;3.0804;
700.5000;0.5918;3.0804;
700.8000;0.5934;3.0852;
701.1000;0.5918;3.0732;
701.4000;0.5910;3.0660;
701.7000;0.5902;3.0612;
702.0000;0.5918;3.0732;
702.3000;0.5934;3.0708;
702.6000;0.5918;3.0684;
702.9000;0.5918;3.0708;
703.2000;0.5918;3.0660;
703.5000;0.5902;3.0564;
703.8000;0.5918;3.0516;
704.1000;0.5910;3.0540;
704.4000;0.5910;3.0588;
704.7000;0.5902;3.0516;
705.0000;0.5902;3.0516;
705.3000;0.5902;3.0492;
705.6000;0.5877;3.0396;
705.9000;0.5902;3.0468;
706.2000;0.5910;3.0516;
706.5000;0.5926;3.0540;
706.8000;0.5893;3.0468;
707.1000;0.5885;3.0468;
707.4000;0.5910;3.0444;
707.7000;0.5910;3.0588;
708.0000;0.5893;3.0564;
708.3000;0.5885;3.0612;
708.6000;0.5902;3.0732;
708.9000;0.5877;3.0708;
709.2000;0.5869;3.0684;
709.5000;0.5893;3.0660;
709.8000;0.5885;3.0660;
710.1000;0.5861;3.0588;
710.4000;0.5885;3.0564;
710.7000;0.5877;3.0588;
711.0000;0.5926;3.0636;
711.3000;0.5918;3.0660;
711.6000;0.5869;3.0660;
711.9000;0.5877;3.0660;
712.2000;0.5861;3.0660;
712.5000;0.5869;3.0636;
712.8000;0.5861;3.0660;
713.1000;0.5861;3.0636;
713.4000;0.5861;3.0612;
713.7000;0.5853;3.0636;
714.0000;0.5869;3.0684;
714.3000;0.5820;3.0636;
714.6000;0.5836;3.0708;
714.9000;0.5828;3.0636;
715.2000;0.5869;3.0660;
715.5000;0.5836;3.0564;
715.8000;0.5861;3.0684;
716.1000;0.5869;3.0684;
716.4000;0.5869;3.0684;
716.7000;0.5853;3.0660;
717.0000;0.5845;3.0684;
717.3000;0.5893;3.0732;
717.6000;0.5853;3.0684;
717.9000;0.5845;3.0636;
718.2000;0.5836;3.0564;
718.5000;0.5853;3.0636;
718.8000;0.5861;3.0636;
719.1000;0.5845;3.0612;
719.4000;0.5836;3.0636;
719.7000;0.5828;3.0636;
720.0000;0.5836;3.0708;
720.3000;0.5836;3.0756;
720.6000;0.5877;3.0804;
720.9000;0.5828;3.0708;
721.2000;0.5820;3.0828;
721.5000;0.5804;3.0684;
721.8000;0.5812;3.0636;
722.1000;0.5812;3.0636;
722.4000;0.5836;3.0612;
722.7000;0.5828;3.0588;
723.0000;0.5853;3.0612;
723.3000;0.5836;3.0612;
723.6000;0.5820;3.0564;
723.9000;0.5836;3.0636;
724.2000;0.5820;3.0588;
724.5000;0.5812;3.0612;
724.8000;0.5828;3.0588;
725.1000;0.5836;3.0612;
725.4000;0.5869;3.0684;
725.7000;0.5828;3.0636;
726.0000;0.5820;3.0588;
726.3000;0.5845;3.0612;
726.6000;0.5828;3.0516;
726.9000;0.5820;3.0492;
727.2000;0.5836;3.0540;
727.5000;0.5845;3.0588;
727.8000;0.5836;3.0564;
728.1000;0.5788;3.0492;
728.4000;0.5820;3.0588;
728.7000;0.5869;3.0780;
729.0000;0.5820;3.0684;
729.3000;0.5828;3.0756;
729.6000;0.5812;3.0732;
729.9000;0.5796;3.0756;
730.2000;0.5796;3.0852;
730.5000;0.5804;3.0828;
730.8000;0.5804;3.0804;
731.1000;0.5820;3.0876;
731.4000;0.5820;3.0876;
731.7000;0.5828;3.0924;
732.0000;0.5812;3.0876;
732.3000;0.5804;3.0780;
732.6000;0.5828;3.0780;
732.9000;0.5796;3.0636;
733.2000;0.5812;3.0780;
733.5000;0.5747;3.0660;
733.8000;0.5812;3.0780;
734.1000;0.5893;3.1092;
734.4000;0.5804;3.0900;
734.7000;0.5788;3.0852;
735.0000;0.5796;3.0828;
735.3000;0.5853;3.0972;
735.6000;0.5804;3.0852;
735.9000;0.5804;3.0684;
736.2000;0.5788;3.0660;
736.5000;0.5788;3.0660;
736.8000;0.5828;3.0732;
737.1000;0.5771;3.0660;
737.4000;0.5812;3.0708;
737.7000;0.5812;3.0636;
738.0000;0.5788;3.0660;
738.3000;0.5804;3.0660;
738.6000;0.5820;3.0756;
738.9000;0.5796;3.0684;
739.2000;0.5796;3.0708;
739.5000;0.5796;3.0708;
739.8000;0.5796;3.0852;
740.1000;0.5779;3.0732;
740.4000;0.5796;3.0660;
740.7000;0.5779;3.0660;
741.0000;0.5779;3.0660;
741.3000;0.5869;3.0876;
741.6000;0.5788;3.0684;
741.9000;0.5804;3.0636;
742.2000;0.5771;3.0540;
742.5000;0.5763;3.0468;
742.8000;0.5796;3.0540;
743.1000;0.5771;3.0468;
743.4000;0.5779;3.0444;
743.7000;0.5779;3.0444;
744.0000;0.5779;3.0492;
744.3000;0.5796;3.0612;
744.6000;0.5820;3.0780;
744.9000;0.5763;3.0732;
745.2000;0.5771;3.0780;
745.5000;0.5796;3.0804;
745.8000;0.5763;3.0756;
746.1000;0.5788;3.0780;
746.4000;0.5755;3.0612;
746.7000;0.5747;3.0588;
747.0000;0.5771;3.0636;
747.3000;0.5771;3.0540;
747.6000;0.5779;3.0444;
747.9000;0.5771;3.0468;
748.2000;0.5796;3.0612;
748.5000;0.5755;3.0468;
748.8000;0.5755;3.0420;
749.1000;0.5755;3.0468;
749.4000;0.5779;3.0612;
749.7000;0.5714;3.0540;
750.0000;0.5739;3.0588;
750.3000;0.5779;3.0852;
750.6000;0.5747;3.0780;
750.9000;0.5755;3.0732;
751.2000;0.5779;3.0828;
751.5000;0.5763;3.0732;
751.8000;0.5763;3.0756;
752.1000;0.5779;3.0876;
752.4000;0.5828;3.0948;
752.7000;0.5779;3.0804;
753.0000;0.5771;3.0732;
753.3000;0.5731;3.0660;
753.6000;0.5763;3.0732;
753.9000;0.5747;3.0708;
754.2000;0.5747;3.0732;
754.5000;0.5771;3.0756;
754.8000;0.5747;3.0660;
755.1000;0.5714;3.0588;
755.4000;0.5722;3.0516;
755.7000;0.5771;3.0588;
756.0000;0.5771;3.0612;
756.3000;0.5739;3.0588;
756.6000;0.5755;3.0564;
756.9000;0.5747;3.0636;
757.2000;0.5763;3.0708;
757.5000;0.5739;3.0660;
757.8000;0.5747;3.0564;
758.1000;0.5739;3.0636;
758.4000;0.5739;3.0708;
758.7000;0.5706;3.0564;
759.0000;0.5649;3.0444;
759.3000;0.5788;3.0756;
759.6000;0.5747;3.0708;
759.9000;0.5747;3.0660;
760.2000;0.5714;3.0564;
760.5000;0.5747;3.0612;
760.8000;0.5739;3.0660;
761.1000;0.5739;3.0612;
761.4000;0.5739;3.0588;
761.7000;0.5747;3.0732;
762.0000;0.5755;3.0756;
762.3000;0.5665;3.0492;
762.6000;0.5820;3.0924;
762.9000;0.5739;3.0732;
763.2000;0.5739;3.0756;
763.5000;0.5739;3.0804;
763.8000;0.5755;3.0732;
764.1000;0.5739;3.0708;
764.4000;0.5714;3.0684;
764.7000;0.5747;3.0756;
765.0000;0.5755;3.0804;
765.3000;0.5747;3.0756;
765.6000;0.5739;3.0660;
765.9000;0.5739;3.0708;
766.2000;0.5747;3.0708;
766.5000;0.5739;3.0732;
766.8000;0.5755;3.0780;
767.1000;0.5739;3.0732;
767.4000;0.5747;3.0780;
767.7000;0.5747;3.0756;
768.0000;0.5714;3.0660;
768.3000;0.5731;3.0780;
768.6000;0.5698;3.0804;
768.9000;0.5722;3.0900;
769.2000;0.5731;3.0852;
769.5000;0.5739;3.0684;
769.8000;0.5739;3.0780;
770.1000;0.5731;3.0684;
770.4000;0.5763;3.0684;
770.7000;0.5731;3.0732;
771.0000;0.5722;3.0780;
771.3000;0.5714;3.0828;
771.6000;0.5731;3.0876;
771.9000;0.5747;3.0900;
772.2000;0.5779;3.1020;
772.5000;0.5714;3.0852;
772.8000;0.5747;3.0972;
773.1000;0.5731;3.0924;
773.4000;0.5739;3.0996;
773.7000;0.5739;3.0972;
774.0000;0.5706;3.0900;
774.3000;0.5812;3.1236;
774.6000;0.5731;3.1020;
774.9000;0.5714;3.1020;
775.2000;0.5706;3.0972;
775.5000;0.5649;3.0804;
775.8000;0.5706;3.0996;
776.1000;0.5714;3.1092;
776.4000;0.5722;3.1140;
776.7000;0.5674;3.0972;
777.0000;0.5714;3.0828;
777.3000;0.5747;3.0876;
777.6000;0.5722;3.0804;
777.9000;0.5706;3.0804;
778.2000;0.5722;3.0780;
778.5000;0.5714;3.0756;
778.8000;0.5714;3.0828;
779.1000;0.5690;3.0708;
779.4000;0.5739;3.0708;
779.7000;0.5698;3.0708;
780.0000;0.5682;3.0660;
780.3000;0.5722;3.0732;
780.6000;0.5698;3.0660;
780.9000;0.5714;3.0708;
781.2000;0.5714;3.0732;
781.5000;0.5690;3.0684;
781.8000;0.5698;3.0636;
782.1000;0.5698;3.0732;
782.4000;0.5722;3.0804;
782.7000;0.5706;3.0756;
783.0000;0.5722;3.0708;
783.3000;0.5674;3.0540;
783.6000;0.5706;3.0612;
783.9000;0.5722;3.0660;
784.2000;0.5698;3.0636;
784.5000;0.5698;3.0540;
784.8000;0.5674;3.0564;
785.1000;0.5706;3.0588;
785.4000;0.5690;3.0636;
785.7000;0.5690;3.0612;
786.0000;0.5682;3.0588;
786.3000;0.5731;3.0636;
786.6000;0.5690;3.0660;
786.9000;0.5682;3.0636;
787.2000;0.5698;3.0612;
787.5000;0.5698;3.0612;
787.8000;0.5714;3.0636;
788.1000;0.5690;3.0564;
788.4000;0.5731;3.0684;
788.7000;0.5706;3.0684;
789.0000;0.5706;3.0732;
789.3000;0.5690;3.0588;
789.6000;0.5690;3.0516;
789.9000;0.5722;3.0684;
790.2000;0.5714;3.0804;
790.5000;0.5706;3.0780;
790.8000;0.5698;3.0732;
791.1000;0.5698;3.0780;
791.4000;0.5706;3.0804;
791.7000;0.5722;3.0732;
792.0000;0.5706;3.0708;
792.3000;0.5706;3.0708;
792.6000;0.5722;3.0756;
792.9000;0.5763;3.0924;
793.2000;0.5698;3.0756;
793.5000;0.5706;3.0732;
793.8000;0.5706;3.0660;
794.1000;0.5698;3.0612;
794.4000;0.5698;3.0660;
794.7000;0.5690;3.0660;
795.0000;0.5682;3.0612;
795.3000;0.5698;3.0684;
795.6000;0.5690;3.0660;
795.9000;0.5682;3.0684;
796.2000;0.5674;3.0732;
796.5000;0.5649;3.0636;
796.8000;0.5690;3.0636;
797.1000;0.5706;3.0636;
797.4000;0.5706;3.0636;
797.7000;0.5698;3.0564;
798.0000;0.5690;3.0444;
798.3000;0.5690;3.0492;
798.6000;0.5649;3.0420;
798.9000;0.5674;3.0636;
799.2000;0.5657;3.0708;
799.5000;0.5649;3.0588;
799.8000;0.5633;3.0588;
800.1000;0.5657;3.0660;
800.4000;0.5600;3.0396;
800.7000;0.5600;3.0396;
801.0000;0.5649;3.0564;
801.3000;0.5714;3.0804;
801.6000;0.5706;3.0732;
801.9000;0.5706;3.0732;
802.2000;0.5682;3.0732;
802.5000;0.5682;3.0780;
802.8000;0.5682;3.0708;
803.1000;0.5706;3.0708;
803.4000;0.5682;3.0660;
803.7000;0.5682;3.0756;
804.0000;0.5657;3.0756;
804.3000;0.5674;3.0804;
804.6000;0.5674;3.0852;
804.9000;0.5665;3.0756;
805.2000;0.5665;3.0732;
805.5000;0.5649;3.0684;
805.8000;0.5665;3.0828;
806.1000;0.5665;3.0972;
806.4000;0.5600;3.0900;
806.7000;0.5665;3.0996;
807.0000;0.5665;3.1020;
807.3000;0.5690;3.1020;
807.6000;0.5665;3.0876;
807.9000;0.5674;3.0804;
808.2000;0.5641;3.0588;
808.5000;0.5633;3.0636;
808.8000;0.5665;3.0756;
809.1000;0.5682;3.0804;
809.4000;0.5665;3.0804;
809.7000;0.5682;3.0828;
810.0000;0.5665;3.0876;
810.3000;0.5682;3.0924;
810.6000;0.5690;3.0948;
810.9000;0.5665;3.0852;
811.2000;0.5665;3.0924;
811.5000;0.5698;3.0900;
811.8000;0.5649;3.0780;
812.1000;0.5674;3.0828;
812.4000;0.5665;3.0876;
812.7000;0.5657;3.0900;
813.0000;0.5674;3.0924;
813.3000;0.5682;3.0900;
813.6000;0.5665;3.0852;
813.9000;0.5674;3.0900;
814.2000;0.5690;3.0948;
814.5000;0.5665;3.0876;
814.8000;0.5665;3.0876;
815.1000;0.5649;3.0804;
815.4000;0.5698;3.0828;
815.7000;0.5674;3.0684;
816.0000;0.5674;3.0732;
816.3000;0.5682;3.0852;
816.6000;0.5682;3.0852;
816.9000;0.5657;3.0828;
817.2000;0.5682;3.0924;
817.5000;0.5698;3.1044;
817.8000;0.5665;3.0900;
818.1000;0.5674;3.0924;
818.4000;0.5641;3.0756;
818.7000;0.5641;3.0756;
819.0000;0.5657;3.0780;
819.3000;0.5674;3.0684;
819.6000;0.5649;3.0732;
819.9000;0.5649;3.0660;
820.2000;0.5633;3.0660;
820.5000;0.5657;3.0804;
820.8000;0.5633;3.0804;
821.1000;0.5633;3.0732;
821.4000;0.5649;3.0852;
821.7000;0.5674;3.0900;
822.0000;0.5649;3.0780;
822.3000;0.5665;3.0828;
822.6000;0.5706;3.0948;
822.9000;0.5739;3.1068;
823.2000;0.5665;3.0924;
823.5000;0.5633;3.0804;
823.8000;0.5657;3.0876;
824.1000;0.5649;3.0780;
824.4000;0.5714;3.1020;
824.7000;0.5625;3.0804;
825.0000;0.5657;3.0828;
825.3000;0.5633;3.0660;
825.6000;0.5657;3.0756;
825.9000;0.5665;3.0780;
826.2000;0.5682;3.0852;
826.5000;0.5649;3.0756;
826.8000;0.5674;3.0876;
827.1000;0.5649;3.0900;
827.4000;0.5665;3.0972;
827.7000;0.5657;3.0948;
828.0000;0.5674;3.0948;
828.3000;0.5674;3.0948;
828.6000;0.5641;3.0804;
828.9000;0.5657;3.0828;
829.2000;0.5657;3.0828;
829.5000;0.5584;3.0636;
829.8000;0.5625;3.0708;
830.1000;0.5641;3.0732;
830.4000;0.5649;3.0756;
830.7000;0.5657;3.0828;
831.0000;0.5674;3.0900;
831.3000;0.5584;3.0708;
831.6000;0.5665;3.0972;
831.9000;0.5657;3.1068;
832.2000;0.5633;3.1044;
832.5000;0.5649;3.1140;
832.8000;0.5641;3.1116;
833.1000;0.5649;3.1188;
833.4000;0.5665;3.1116;
833.7000;0.5641;3.0924;
834.0000;0.5641;3.0876;
834.3000;0.5657;3.0948;
834.6000;0.5641;3.0948;
834.9000;0.5657;3.0924;
835.2000;0.5665;3.0852;
835.5000;0.5641;3.0684;
835.8000;0.5649;3.0780;
836.1000;0.5649;3.0804;
836.4000;0.5698;3.0876;
836.7000;0.5649;3.0780;
837.0000;0.5665;3.0828;
837.3000;0.5657;3.0924;
837.6000;0.5625;3.0876;
837.9000;0.5649;3.0972;
838.2000;0.5633;3.0852;
838.5000;0.5665;3.0996;
838.8000;0.5641;3.1044;
839.1000;0.5641;3.1116;
839.4000;0.5657;3.1068;
839.7000;0.5649;3.0972;
840.0000;0.5649;3.1044;
840.3000;0.5625;3.0948;
840.6000;0.5665;3.0876;
840.9000;0.5657;3.0852;
841.2000;0.5657;3.0780;
841.5000;0.5714;3.0852;
841.8000;0.5649;3.0732;
842.1000;0.5649;3.0852;
842.4000;0.5641;3.0876;
842.7000;0.5641;3.0804;
843.0000;0.5641;3.0732;
843.3000;0.5633;3.0756;
843.6000;0.5633;3.0636;
843.9000;0.5633;3.0636;
844.2000;0.5592;3.0564;
844.5000;0.5641;3.0612;
844.8000;0.5633;3.0540;
845.1000;0.5682;3.0660;
845.4000;0.5600;3.0468;
845.7000;0.5633;3.0492;
846.0000;0.5625;3.0516;
846.3000;0.5592;3.0492;
846.6000;0.5641;3.0588;
846.9000;0.5633;3.0708;
847.2000;0.5641;3.0780;
847.5000;0.5633;3.0828;
847.8000;0.5633;3.0732;
848.1000;0.5633;3.0756;
848.4000;0.5625;3.0732;
848.7000;0.5641;3.0732;
849.0000;0.5641;3.0804;
849.3000;0.5625;3.0636;
849.6000;0.5633;3.0660;
849.9000;0.5641;3.0684;
850.2000;0.5617;3.0612;
850.5000;0.5625;3.0612;
850.8000;0.5617;3.0588;
851.1000;0.5682;3.0756;
851.4000;0.5641;3.0660;
851.7000;0.5641;3.0612;
852.0000;0.5608;3.0540;
852.3000;0.5608;3.0612;
852.6000;0.5665;3.0732;
852.9000;0.5641;3.0660;
853.2000;0.5625;3.0660;
853.5000;0.5608;3.0636;
853.8000;0.5633;3.0756;
854.1000;0.5584;3.0660;
854.4000;0.5568;3.0588;
854.7000;0.5625;3.0852;
855.0000;0.5617;3.0876;
855.3000;0.5649;3.0900;
855.6000;0.5633;3.0828;
855.9000;0.5633;3.0804;
856.2000;0.5633;3.0804;
856.5000;0.5617;3.0828;
856.8000;0.5625;3.0996;
857.1000;0.5543;3.0804;
857.4000;0.5641;3.1044;
857.7000;0.5625;3.1044;
858.0000;0.5641;3.1092;
858.3000;0.5633;3.0972;
858.6000;0.5649;3.0948;
858.9000;0.5657;3.0876;
859.2000;0.5617;3.0732;
859.5000;0.5608;3.0732;
859.8000;0.5641;3.0756;
860.1000;0.5641;3.0732;
860.4000;0.5608;3.0516;
860.7000;0.5633;3.0564;
861.0000;0.5633;3.0636;
861.3000;0.5625;3.0636;
861.6000;0.5657;3.0660;
861.9000;0.5641;3.0756;
862.2000;0.5641;3.0876;
862.5000;0.5617;3.0876;
862.8000;0.5600;3.0972;
863.1000;0.5657;3.1068;
863.4000;0.5617;3.0996;
863.7000;0.5649;3.1020;
864.0000;0.5633;3.0924;
864.3000;0.5608;3.0852;
864.6000;0.5617;3.0852;
864.9000;0.5633;3.0924;
865.2000;0.5649;3.0900;
865.5000;0.5560;3.0708;
865.8000;0.5600;3.0852;
866.1000;0.5617;3.0828;
866.4000;0.5625;3.0804;
866.7000;0.5625;3.0900;
867.0000;0.5617;3.0924;
867.3000;0.5649;3.0948;
867.6000;0.5633;3.0852;
867.9000;0.5608;3.0852;
868.2000;0.5633;3.0924;
868.5000;0.5617;3.0900;
868.8000;0.5641;3.0948;
869.1000;0.5722;3.1092;
869.4000;0.5617;3.0804;
869.7000;0.5625;3.0876;
870.0000;0.5633;3.0828;
870.3000;0.5649;3.0852;
870.6000;0.5641;3.0684;
870.9000;0.5625;3.0612;
871.2000;0.5592;3.0588;
871.5000;0.5625;3.0636;
871.8000;0.5633;3.0708;
872.1000;0.5625;3.0660;
872.4000;0.5633;3.0756;
872.7000;0.5633;3.0804;
873.0000;0.5633;3.0780;
873.3000;0.5625;3.0756;
873.6000;0.5698;3.0900;
873.9000;0.5625;3.0636;
874.2000;0.5665;3.0780;
874.5000;0.5617;3.0756;
874.8000;0.5617;3.0804;
875.1000;0.5543;3.0660;
875.4000;0.5560;3.0732;
875.7000;0.5600;3.0804;
876.0000;0.5608;3.0780;
876.3000;0.5625;3.0900;
876.6000;0.5641;3.0924;
876.9000;0.5600;3.0924;
877.2000;0.5608;3.0948;
877.5000;0.5584;3.0876;
877.8000;0.5633;3.0972;
878.1000;0.5568;3.0924;
878.4000;0.5617;3.1068;
878.7000;0.5560;3.0972;
879.0000;0.5633;3.1092;
879.3000;0.5592;3.0972;
879.6000;0.5617;3.0996;
879.9000;0.5617;3.0996;
880.2000;0.5608;3.1044;
880.5000;0.5633;3.1116;
880.8000;0.5617;3.0972;
881.1000;0.5551;3.0900;
881.4000;0.5617;3.1020;
881.7000;0.5633;3.1092;
882.0000;0.5625;3.1068;
882.3000;0.5617;3.1044;
882.6000;0.5633;3.1020;
882.9000;0.5633;3.1044;
883.2000;0.5641;3.1116;
883.5000;0.5625;3.1068;
883.8000;0.5641;3.1140;
884.1000;0.5608;3.1020;
884.4000;0.5682;3.1212;
884.7000;0.5625;3.0972;
885.0000;0.5600;3.0852;
885.3000;0.5608;3.0804;
885.6000;0.5600;3.0780;
885.9000;0.5617;3.0828;
886.2000;0.5617;3.0948;
886.5000;0.5608;3.0972;
886.8000;0.5625;3.1044;
887.1000;0.5674;3.1164;
887.4000;0.5576;3.0876;
887.7000;0.5625;3.1020;
888.0000;0.5608;3.0948;
888.3000;0.5608;3.0924;
888.6000;0.5592;3.0852;
888.9000;0.5600;3.0852;
889.2000;0.5608;3.0876;
889.5000;0.5625;3.0900;
889.8000;0.5617;3.0876;
890.1000;0.5657;3.1020;
890.4000;0.5600;3.0828;
890.7000;0.5617;3.0804;
891.0000;0.5625;3.0804;
891.3000;0.5698;3.1020;
891.6000;0.5560;3.0660;
891.9000;0.5617;3.0876;
892.2000;0.5592;3.0972;
892.5000;0.5608;3.0948;
892.8000;0.5625;3.1020;
893.1000;0.5600;3.0924;
893.4000;0.5600;3.0924;
893.7000;0.5625;3.0876;
894.0000;0.5649;3.0996;
894.3000;0.5600;3.0876;
894.6000;0.5584;3.0780;
894.9000;0.5600;3.0708;
895.2000;0.5633;3.0756;
895.5000;0.5617;3.0804;
895.8000;0.5617;3.0900;
896.1000;0.5608;3.0876;
896.4000;0.5584;3.0900;
896.7000;0.5625;3.1044;
897.0000;0.5649;3.1020;
897.3000;0.5706;3.1140;
897.6000;0.5608;3.0828;
897.9000;0.5625;3.0876;
898.2000;0.5600;3.0876;
898.5000;0.5608;3.0828;
898.8000;0.5600;3.0780;
899.1000;0.5592;3.0780;
899.4000;0.5592;3.0828;
899.7000;0.5608;3.0828;
900.0000;0.5625;3.0852;
900.3000;0.5584;3.0780;
900.6000;0.5592;3.0804;
900.9000;0.5608;3.0828;
901.2000;0.5608;3.0684;
901.5000;0.5617;3.0756;
901.8000;0.5600;3.0900;
902.1000;0.5665;3.1020;
902.4000;0.5592;3.0924;
902.7000;0.5543;3.0732;
903.0000;0.5600;3.1044;
903.3000;0.5592;3.0996;
903.6000;0.5608;3.0948;
903.9000;0.5592;3.0804;
904.2000;0.5608;3.0828;
904.5000;0.5617;3.0804;
904.8000;0.5592;3.0804;
905.1000;0.5600;3.0876;
905.4000;0.5665;3.0948;
905.7000;0.5608;3.0852;
906.0000;0.5608;3.0900;
906.3000;0.5592;3.0924;
906.6000;0.5600;3.1044;
906.9000;0.5617;3.1140;
907.2000;0.5617;3.1164;
907.5000;0.5600;3.1068;
907.8000;0.5608;3.1116;
908.1000;0.5608;3.1212;
908.4000;0.5617;3.1068;
908.7000;0.5600;3.0948;
909.0000;0.5608;3.0924;
909.3000;0.5608;3.0948;
909.6000;0.5625;3.0972;
909.9000;0.5617;3.0948;
910.2000;0.5625;3.0972;
910.5000;0.5625;3.0900;
910.8000;0.5617;3.0900;
911.1000;0.5592;3.0924;
911.4000;0.5617;3.0948;
911.7000;0.5625;3.0972;
912.0000;0.5625;3.0948;
912.3000;0.5617;3.0828;
912.6000;0.5592;3.0780;
912.9000;0.5592;3.0732;
913.2000;0.5633;3.0780;
913.5000;0.5633;3.0828;
913.8000;0.5600;3.0828;
914.1000;0.5568;3.0756;
914.4000;0.5608;3.0852;
914.7000;0.5584;3.0780;
915.0000;0.5608;3.0876;
915.3000;0.5584;3.0972;
915.6000;0.5617;3.1068;
915.9000;0.5600;3.1020;
916.2000;0.5600;3.1044;
916.5000;0.5560;3.0852;
916.8000;0.5592;3.0972;
917.1000;0.5592;3.1044;
917.4000;0.5608;3.0972;
917.7000;0.5600;3.0972;
918.0000;0.5592;3.1020;
918.3000;0.5633;3.1188;
918.6000;0.5625;3.1116;
918.9000;0.5617;3.1020;
919.2000;0.5617;3.1068;
919.5000;0.5600;3.0996;
919.8000;0.5600;3.0972;
920.1000;0.5633;3.1092;
920.4000;0.5608;3.0948;
920.7000;0.5600;3.0996;
921.0000;0.5608;3.1068;
921.3000;0.5608;3.1140;
921.6000;0.5600;3.1140;
921.9000;0.5641;3.1188;
922.2000;0.5617;3.1068;
922.5000;0.5608;3.1068;
922.8000;0.5584;3.0996;
923.1000;0.5608;3.0996;
923.4000;0.5617;3.1020;
923.7000;0.5608;3.0900;
924.0000;0.5608;3.0900;
924.3000;0.5641;3.0996;
924.6000;0.5584;3.1020;
924.9000;0.5633;3.1212;
925.2000;0.5584;3.1116;
925.5000;0.5657;3.1332;
925.8000;0.5568;3.1068;
926.1000;0.5584;3.1188;
926.4000;0.5568;3.1044;
926.7000;0.5592;3.1044;
927.0000;0.5592;3.1092;
927.3000;0.5592;3.1164;
927.6000;0.5600;3.1116;
927.9000;0.5584;3.1044;
928.2000;0.5608;3.1092;
928.5000;0.5608;3.1092;
928.8000;0.5608;3.1044;
929.1000;0.5592;3.1020;
929.4000;0.5592;3.1044;
929.7000;0.5511;3.0804;
930.0000;0.5584;3.1020;
930.3000;0.5592;3.1092;
930.6000;0.5600;3.1164;
930.9000;0.5584;3.1164;
931.2000;0.5600;3.1140;
931.5000;0.5576;3.0996;
931.8000;0.5584;3.0996;
932.1000;0.5568;3.0996;
932.4000;0.5706;3.1404;
932.7000;0.5608;3.1068;
933.0000;0.5576;3.0996;
933.3000;0.5600;3.1020;
933.6000;0.5617;3.1092;
933.9000;0.5560;3.1020;
934.2000;0.5625;3.1116;
934.5000;0.5617;3.1116;
934.8000;0.5592;3.1068;
935.1000;0.5600;3.1116;
935.4000;0.5608;3.1116;
935.7000;0.5576;3.0972;
936.0000;0.5584;3.1020;
936.3000;0.5641;3.1068;
936.6000;0.5543;3.0900;
936.9000;0.5576;3.0948;
937.2000;0.5584;3.0924;
937.5000;0.5608;3.1140;
937.8000;0.5576;3.1212;
938.1000;0.5584;3.1164;
938.4000;0.5592;3.1188;
938.7000;0.5608;3.1188;
939.0000;0.5592;3.1116;
939.3000;0.5576;3.1116;
939.6000;0.5535;3.0924;
939.9000;0.5592;3.1068;
940.2000;0.5592;3.1068;
940.5000;0.5592;3.1044;
940.8000;0.5576;3.1068;
941.1000;0.5592;3.1140;
941.4000;0.5641;3.1236;
941.7000;0.5592;3.1188;
942.0000;0.5608;3.1236;
942.3000;0.5584;3.1116;
942.6000;0.5592;3.1116;
942.9000;0.5600;3.1044;
943.2000;0.5576;3.1020;
943.5000;0.5608;3.1044;
943.8000;0.5592;3.0972;
944.1000;0.5560;3.0948;
944.4000;0.5576;3.1044;
944.7000;0.5568;3.1044;
945.0000;0.5584;3.1044;
945.3000;0.5600;3.1068;
945.6000;0.5600;3.1068;
945.9000;0.5600;3.1068;
946.2000;0.5592;3.1140;
946.5000;0.5535;3.1044;
946.8000;0.5592;3.1164;
947.1000;0.5608;3.1164;
947.4000;0.5608;3.1068;
947.7000;0.5600;3.1044;
948.0000;0.5584;3.1020;
948.3000;0.5551;3.0972;
948.6000;0.5608;3.1116;
948.9000;0.5592;3.1068;
949.2000;0.5551;3.0900;
949.5000;0.5617;3.1020;
949.8000;0.5576;3.1092;
950.1000;0.5576;3.1188;
950.4000;0.5608;3.1164;
950.7000;0.5576;3.0996;
951.0000;0.5576;3.0972;
951.3000;0.5584;3.1020;
951.6000;0.5600;3.0900;
951.9000;0.5584;3.0852;
952.2000;0.5584;3.0924;
952.5000;0.5576;3.0828;
952.8000;0.5600;3.0804;
953.1000;0.5584;3.0780;
953.4000;0.5576;3.0756;
953.7000;0.5584;3.0804;
954.0000;0.5608;3.0852;
954.3000;0.5584;3.0828;
954.6000;0.5625;3.0948;
954.9000;0.5576;3.0804;
955.2000;0.5592;3.0852;
955.5000;0.5584;3.0804;
955.8000;0.5576;3.0780;
956.1000;0.5576;3.0804;
956.4000;0.5600;3.0924;
956.7000;0.5576;3.0828;
957.0000;0.5592;3.0828;
957.3000;0.5584;3.0804;
957.6000;0.5543;3.0732;
957.9000;0.5625;3.0996;
958.2000;0.5584;3.0924;
958.5000;0.5576;3.0828;
958.8000;0.5584;3.0852;
959.1000;0.5633;3.1020;
959.4000;0.5576;3.0876;
959.7000;0.5584;3.0876;
960.0000;0.5568;3.0900;
960.3000;0.5592;3.1020;
960.6000;0.5576;3.0924;
960.9000;0.5527;3.0780;
961.2000;0.5560;3.0900;
961.5000;0.5584;3.0924;
961.8000;0.5560;3.0924;
962.1000;0.5551;3.0996;
962.4000;0.5543;3.1044;
962.7000;0.5568;3.1044;
963.0000;0.5576;3.1044;
963.3000;0.5600;3.1068;
963.6000;0.5584;3.1116;
963.9000;0.5600;3.1188;
964.2000;0.5633;3.1332;
964.5000;0.5584;3.1236;
964.8000;0.5584;3.1260;
965.1000;0.5617;3.1284;
965.4000;0.5584;3.1164;
965.7000;0.5584;3.1044;
966.0000;0.5600;3.1092;
966.3000;0.5608;3.1020;
966.6000;0.5576;3.0972;
966.9000;0.5592;3.0972;
967.2000;0.5592;3.1068;
967.5000;0.5576;3.1044;
967.8000;0.5617;3.1140;
968.1000;0.5600;3.1020;
968.4000;0.5568;3.0924;
968.7000;0.5617;3.0996;
969.0000;0.5576;3.0948;
969.3000;0.5576;3.0972;
969.6000;0.5584;3.1020;
969.9000;0.5584;3.1092;
970.2000;0.5633;3.1164;
970.5000;0.5600;3.1092;
970.8000;0.5462;3.0828;
971.1000;0.5633;3.1188;
971.4000;0.5495;3.0900;
971.7000;0.5665;3.1356;
972.0000;0.5576;3.1116;
972.3000;0.5560;3.0948;
972.6000;0.5592;3.1092;
972.9000;0.5568;3.1020;
973.2000;0.5568;3.0996;
973.5000;0.5576;3.1092;
973.8000;0.5600;3.1212;
974.1000;0.5584;3.1236;
974.4000;0.5600;3.1164;
974.7000;0.5560;3.0972;
975.0000;0.5584;3.0996;
975.3000;0.5592;3.1020;
975.6000;0.5584;3.0924;
975.9000;0.5584;3.0924;
976.2000;0.5576;3.0924;
976.5000;0.5576;3.0924;
976.8000;0.5584;3.0972;
977.1000;0.5592;3.1044;
977.4000;0.5576;3.0972;
977.7000;0.5560;3.0948;
978.0000;0.5576;3.0972;
978.3000;0.5560;3.0972;
978.6000;0.5584;3.0924;
978.9000;0.5592;3.0924;
979.2000;0.5584;3.0948;
979.5000;0.5657;3.1020;
979.8000;0.5584;3.0852;
980.1000;0.5600;3.0900;
980.4000;0.5576;3.0804;
980.7000;0.5568;3.0876;
981.0000;0.5560;3.0948;
981.3000;0.5568;3.0972;
981.6000;0.5576;3.0972;
981.9000;0.5600;3.1044;
982.2000;0.5592;3.1116;
982.5000;0.5568;3.1044;
982.8000;0.5576;3.1092;
983.1000;0.5568;3.1044;
983.4000;0.5617;3.1164;
983.7000;0.5576;3.0972;
984.0000;0.5592;3.0996;
984.3000;0.5592;3.0996;
984.6000;0.5665;3.1260;
984.9000;0.5584;3.1164;
985.2000;0.5568;3.1092;
985.5000;0.5576;3.1092;
985.8000;0.5584;3.1044;
986.1000;0.5551;3.0972;
986.4000;0.5592;3.1068;
986.7000;0.5584;3.1116;
987.0000;0.5551;3.0996;
987.3000;0.5608;3.0948;
987.6000;0.5584;3.0924;
987.9000;0.5608;3.0972;
988.2000;0.5576;3.0948;
988.5000;0.5592;3.1068;
988.8000;0.5568;3.1140;
989.1000;0.5503;3.0948;
989.4000;0.5543;3.0996;
989.7000;0.5551;3.1020;
990.0000;0.5568;3.1116;
990.3000;0.5625;3.1260;
990.6000;0.5568;3.1020;
990.9000;0.5592;3.1068;
991.2000;0.5576;3.1020;
991.5000;0.5568;3.0924;
991.8000;0.5535;3.0876;
992.1000;0.5600;3.1092;
992.4000;0.5576;3.0972;
992.7000;0.5633;3.1116;
993.0000;0.5600;3.0972;
993.3000;0.5584;3.0996;
993.6000;0.5576;3.1020;
993.9000;0.5560;3.0948;
994.2000;0.5592;3.0972;
994.5000;0.5560;3.0972;
994.8000;0.5527;3.0852;
995.1000;0.5454;3.0708;
995.4000;0.5600;3.1020;
995.7000;0.5592;3.0996;
996.0000;0.5576;3.1020;
996.3000;0.5592;3.0996;
996.6000;0.5568;3.0900;
996.9000;0.5592;3.1044;
997.2000;0.5592;3.1044;
997.5000;0.5576;3.1068;
997.8000;0.5608;3.1164;
998.1000;0.5592;3.1140;
998.4000;0.5584;3.1164;
998.7000;0.5592;3.1188;
999.0000;0.5568;3.1068;
999.3000;0.5568;3.1116;
999.6000;0.5584;3.1116;
999.9000;0.5584;3.1116;
1000.2000;0.5592;3.1116;
1000.5000;0.5568;3.1116;
1000.8000;0.5568;3.1068;
1001.1000;0.5600;3.1164;
1001.4000;0.5551;3.1044;
1001.7000;0.5568;3.1116;
1002.0000;0.5560;3.1068;
1002.3000;0.5584;3.1068;
1002.6000;0.5592;3.1068;
1002.9000;0.5584;3.0996;
1003.2000;0.5584;3.1020;
1003.5000;0.5576;3.1188;
1003.8000;0.5600;3.1236;
1004.1000;0.5568;3.1116;
1004.4000;0.5576;3.1092;
1004.7000;0.5535;3.0996;
1005.0000;0.5560;3.1044;
1005.3000;0.5592;3.1044;
1005.6000;0.5519;3.0804;
1005.9000;0.5511;3.0780;
1006.2000;0.5592;3.0900;
1006.5000;0.5560;3.0828;
1006.8000;0.5568;3.0996;
1007.1000;0.5584;3.1044;
1007.4000;0.5584;3.1140;
1007.7000;0.5584;3.1140;
1008.0000;0.5560;3.1116;
1008.3000;0.5576;3.1164;
1008.6000;0.5600;3.1116;
1008.9000;0.5592;3.1020;
1009.2000;0.5535;3.0852;
1009.5000;0.5560;3.0828;
1009.8000;0.5576;3.0852;
1010.1000;0.5584;3.0876;
1010.4000;0.5568;3.0900;
1010.7000;0.5527;3.0780;
1011.0000;0.5600;3.0972;
1011.3000;0.5551;3.0924;
1011.6000;0.5535;3.0804;
1011.9000;0.5560;3.0924;
1012.2000;0.5600;3.1092;
1012.5000;0.5576;3.0996;
1012.8000;0.5584;3.1044;
1013.1000;0.5568;3.1140;
1013.4000;0.5535;3.1020;
1013.7000;0.5576;3.1020;
1014.0000;0.5576;3.1092;
1014.3000;0.5649;3.1284;
1014.6000;0.5576;3.1140;
1014.9000;0.5576;3.1116;
1015.2000;0.5560;3.1068;
1015.5000;0.5600;3.1164;
1015.8000;0.5551;3.1020;
1016.1000;0.5584;3.1116;
1016.4000;0.5543;3.1116;
1016.7000;0.5568;3.1140;
1017.0000;0.5560;3.1212;
1017.3000;0.5576;3.1236;
1017.6000;0.5576;3.1284;
1017.9000;0.5576;3.1260;
1018.2000;0.5592;3.1260;
1018.5000;0.5584;3.1284;
1018.8000;0.5568;3.1284;
1019.1000;0.5576;3.1188;
1019.4000;0.5560;3.1068;
1019.7000;0.5576;3.1212;
1020.0000;0.5576;3.1188;
1020.3000;0.5560;3.1212;
1020.6000;0.5560;3.1068;
1020.9000;0.5584;3.1140;
1021.2000;0.5568;3.1188;
1021.5000;0.5584;3.1212;
1021.8000;0.5584;3.1188;
1022.1000;0.5600;3.1260;
1022.4000;0.5576;3.1284;
1022.7000;0.5560;3.1140;
1023.0000;0.5576;3.1164;
1023.3000;0.5576;3.1116;
1023.6000;0.5511;3.0948;
1023.9000;0.5576;3.1116;
1024.2000;0.5568;3.1044;
1024.5000;0.5568;3.1044;
1024.8000;0.5560;3.1044;
1025.1000;0.5576;3.1068;
1025.4000;0.5568;3.1092;
1025.7000;0.5551;3.1140;
1026.0000;0.5543;3.1068;
1026.3000;0.5568;3.1092;
1026.6000;0.5560;3.1164;
1026.9000;0.5568;3.1116;
1027.2000;0.5576;3.1164;
1027.5000;0.5568;3.1116;
1027.8000;0.5551;3.1068;
1028.1000;0.5543;3.1020;
1028.4000;0.5560;3.1020;
1028.7000;0.5576;3.1044;
1029.0000;0.5551;3.0948;
1029.3000;0.5560;3.0996;
1029.6000;0.5584;3.1092;
1029.9000;0.5551;3.1092;
1030.2000;0.5584;3.1164;
1030.5000;0.5551;3.1068;
1030.8000;0.5560;3.0996;
1031.1000;0.5568;3.1044;
1031.4000;0.5568;3.1044;
1031.7000;0.5568;3.1068;
1032.0000;0.5551;3.1068;
1032.3000;0.5470;3.0780;
1032.6000;0.5568;3.0924;
1032.9000;0.5576;3.0900;
1033.2000;0.5625;3.1116;
1033.5000;0.5576;3.1068;
1033.8000;0.5576;3.1236;
1034.1000;0.5633;3.1380;
1034.4000;0.5584;3.1140;
1034.7000;0.5592;3.1188;
1035.0000;0.5560;3.1140;
1035.3000;0.5568;3.1092;
1035.6000;0.5568;3.0996;
1035.9000;0.5584;3.0972;
1036.2000;0.5551;3.0972;
1036.5000;0.5568;3.0972;
1036.8000;0.5568;3.1068;
1037.1000;0.5576;3.1140;
1037.4000;0.5625;3.1380;
1037.7000;0.5543;3.1116;
1038.0000;0.5568;3.1164;
1038.3000;0.5568;3.1236;
1038.6000;0.5551;3.1260;
1038.9000;0.5560;3.1212;
1039.2000;0.5551;3.1212;
1039.5000;0.5560;3.1260;
1039.8000;0.5560;3.1260;
1040.1000;0.5560;3.1212;
1040.4000;0.5576;3.1188;
1040.7000;0.5576;3.1212;
1041.0000;0.5560;3.1212;
1041.3000;0.5560;3.1236;
1041.6000;0.5551;3.1284;
1041.9000;0.5560;3.1308;
1042.2000;0.5576;3.1212;
1042.5000;0.5560;3.1188;
1042.8000;0.5568;3.1236;
1043.1000;0.5551;3.1260;
1043.4000;0.5584;3.1308;
1043.7000;0.5551;3.1284;
1044.0000;0.5568;3.1308;
1044.3000;0.5568;3.1260;
1044.6000;0.5576;3.1356;
1044.9000;0.5584;3.1404;
1045.2000;0.5551;3.1260;
1045.5000;0.5584;3.1308;
1045.8000;0.5584;3.1380;
1046.1000;0.5535;3.1380;
1046.4000;0.5568;3.1380;
1046.7000;0.5551;3.1332;
1047.0000;0.5568;3.1236;
1047.3000;0.5560;3.1212;
1047.6000;0.5560;3.1260;
1047.9000;0.5560;3.1212;
1048.2000;0.5551;3.1164;
1048.5000;0.5568;3.1188;
1048.8000;0.5486;3.0996;
1049.1000;0.5576;3.1140;
1049.4000;0.5625;3.1308;
1049.7000;0.5568;3.1020;
1050.0000;0.5560;3.0996;
1050.3000;0.5551;3.0996;
1050.6000;0.5576;3.0996;
1050.9000;0.5592;3.0996;
1051.2000;0.5560;3.0948;
1051.5000;0.5560;3.1068;
1051.8000;0.5560;3.1212;
1052.1000;0.5568;3.1260;
1052.4000;0.5535;3.1188;
1052.7000;0.5535;3.1140;
1053.0000;0.5608;3.1236;
1053.3000;0.5568;3.1164;
1053.6000;0.5560;3.1188;
1053.9000;0.5576;3.1212;
1054.2000;0.5568;3.1092;
1054.5000;0.5608;3.1092;
1054.8000;0.5560;3.0996;
1055.1000;0.5568;3.1020;
1055.4000;0.5568;3.0948;
1055.7000;0.5576;3.0924;
1056.0000;0.5576;3.0876;
1056.3000;0.5608;3.1092;
1056.6000;0.5551;3.0972;
1056.9000;0.5568;3.0972;
1057.2000;0.5503;3.0852;
1057.5000;0.5584;3.1044;
1057.8000;0.5592;3.1044;
1058.1000;0.5560;3.1020;
1058.4000;0.5600;3.1164;
1058.7000;0.5560;3.1188;
1059.0000;0.5511;3.1092;
1059.3000;0.5568;3.1260;
1059.6000;0.5576;3.1308;
1059.9000;0.5608;3.1380;
1060.2000;0.5584;3.1284;
1060.5000;0.5576;3.1332;
1060.8000;0.5568;3.1236;
1061.1000;0.5576;3.1236;
1061.4000;0.5560;3.1260;
1061.7000;0.5560;3.1332;
1062.0000;0.5592;3.1404;
1062.3000;0.5576;3.1188;
1062.6000;0.5551;3.1092;
1062.9000;0.5511;3.0876;
1063.2000;0.5560;3.1044;
1063.5000;0.5560;3.1092;
1063.8000;0.5568;3.1116;
1064.1000;0.5551;3.1116;
1064.4000;0.5543;3.1092;
1064.7000;0.5568;3.1068;
1065.0000;0.5568;3.1092;
1065.3000;0.5560;3.1140;
1065.6000;0.5560;3.1044;
1065.9000;0.5568;3.1164;
1066.2000;0.5551;3.1140;
1066.5000;0.5543;3.1068;
1066.8000;0.5568;3.1140;
1067.1000;0.5551;3.1020;
1067.4000;0.5551;3.0948;
1067.7000;0.5551;3.0876;
1068.0000;0.5560;3.0852;
1068.3000;0.5592;3.0852;
1068.6000;0.5527;3.0804;
1068.9000;0.5551;3.0876;
1069.2000;0.5551;3.0900;
1069.5000;0.5576;3.0996;
1069.8000;0.5560;3.0996;
1070.1000;0.5551;3.1044;
1070.4000;0.5560;3.1092;
1070.7000;0.5576;3.1212;
1071.0000;0.5576;3.1188;
1071.3000;0.5551;3.1116;
1071.6000;0.5617;3.1332;
1071.9000;0.5560;3.1116;
1072.2000;0.5560;3.1140;
1072.5000;0.5608;3.1236;
1072.8000;0.5560;3.1188;
1073.1000;0.5576;3.1212;
1073.4000;0.5576;3.1164;
1073.7000;0.5568;3.1188;
1074.0000;0.5560;3.1212;
1074.3000;0.5543;3.1188;
1074.6000;0.5551;3.1188;
1074.9000;0.5543;3.1188;
1075.2000;0.5560;3.1284;
1075.5000;0.5543;3.1212;
1075.8000;0.5551;3.1164;
1076.1000;0.5543;3.1140;
1076.4000;0.5535;3.1068;
1076.7000;0.5519;3.1068;
1077.0000;0.5576;3.1212;
1077.3000;0.5568;3.1116;
1077.6000;0.5560;3.1068;
1077.9000;0.5535;3.1116;
1078.2000;0.5576;3.1284;
1078.5000;0.5576;3.1404;
1078.8000;0.5568;3.1260;
1079.1000;0.5568;3.1164;
1079.4000;0.5560;3.1092;
1079.7000;0.5551;3.1044;
1080.0000;0.5560;3.0972;
1080.3000;0.5568;3.0972;
1080.6000;0.5560;3.0972;
1080.9000;0.5535;3.0924;
1081.2000;0.5527;3.0924;
1081.5000;0.5568;3.1140;
1081.8000;0.5551;3.1068;
1082.1000;0.5551;3.1092;
1082.4000;0.5568;3.1212;
1082.7000;0.5543;3.1236;
1083.0000;0.5527;3.1164;
1083.3000;0.5543;3.1284;
1083.6000;0.5568;3.1236;
1083.9000;0.5568;3.1212;
1084.2000;0.5560;3.1212;
1084.5000;0.5511;3.1140;
1084.8000;0.5543;3.1188;
1085.1000;0.5560;3.1188;
1085.4000;0.5560;3.1188;
1085.7000;0.5584;3.1236;
1086.0000;0.5551;3.1164;
1086.3000;0.5462;3.0900;
1086.6000;0.5551;3.1116;
1086.9000;0.5551;3.1092;
1087.2000;0.5535;3.0972;
1087.5000;0.5633;3.1236;
1087.8000;0.5535;3.1044;
1088.1000;0.5551;3.1068;
1088.4000;0.5462;3.0876;
1088.7000;0.5568;3.1188;
1089.0000;0.5551;3.1164;
1089.3000;0.5576;3.1260;
1089.6000;0.5551;3.1188;
1089.9000;0.5551;3.1260;
1090.2000;0.5527;3.1284;
1090.5000;0.5551;3.1380;
1090.8000;0.5551;3.1308;
1091.1000;0.5560;3.1236;
1091.4000;0.5551;3.1188;
1091.7000;0.5503;3.1140;
1092.0000;0.5543;3.1260;
1092.3000;0.5535;3.1260;
1092.6000;0.5560;3.1260;
1092.9000;0.5560;3.1308;
1093.2000;0.5543;3.1212;
1093.5000;0.5560;3.1188;
1093.8000;0.5543;3.1044;
1094.1000;0.5560;3.0996;
1094.4000;0.5503;3.0828;
1094.7000;0.5535;3.0924;
1095.0000;0.5560;3.1020;
1095.3000;0.5568;3.0972;
1095.6000;0.5527;3.0948;
1095.9000;0.5543;3.0996;
1096.2000;0.5560;3.1068;
1096.5000;0.5568;3.1068;
1096.8000;0.5551;3.1092;
1097.1000;0.5543;3.1140;
1097.4000;0.5486;3.1044;
1097.7000;0.5568;3.1212;
1098.0000;0.5551;3.1188;
1098.3000;0.5543;3.1188;
1098.6000;0.5568;3.1308;
1098.9000;0.5576;3.1332;
1099.2000;0.5551;3.1284;
1099.5000;0.5568;3.1260;
1099.8000;0.5543;3.1236;
1100.1000;0.5543;3.1164;
1100.4000;0.5551;3.1188;
1100.7000;0.5641;3.1332;
1101.0000;0.5535;3.1164;
1101.3000;0.5576;3.1284;
1101.6000;0.5608;3.1284;
1101.9000;0.5543;3.1164;
1102.2000;0.5535;3.1092;
1102.5000;0.5560;3.1236;
1102.8000;0.5551;3.1308;
1103.1000;0.5535;3.1332;
1103.4000;0.5551;3.1380;
1103.7000;0.5560;3.1260;
1104.0000;0.5576;3.1308;
1104.3000;0.5568;3.1260;
1104.6000;0.5600;3.1212;
1104.9000;0.5503;3.0924;
1105.2000;0.5551;3.1020;
1105.5000;0.5560;3.1164;
1105.8000;0.5543;3.1068;
1106.1000;0.5535;3.0972;
1106.4000;0.5560;3.0996;
1106.7000;0.5568;3.0924;
1107.0000;0.5551;3.0804;
1107.3000;0.5608;3.0924;
1107.6000;0.5527;3.0828;
1107.9000;0.5551;3.0924;
1108.2000;0.5495;3.0780;
1108.5000;0.5568;3.0972;
1108.8000;0.5551;3.1044;
1109.1000;0.5560;3.1116;
1109.4000;0.5568;3.1020;
1109.7000;0.5592;3.1116;
1110.0000;0.5560;3.1092;
1110.3000;0.5527;3.1092;
1110.6000;0.5551;3.1188;
1110.9000;0.5560;3.1188;
1111.2000;0.5560;3.1068;
1111.5000;0.5625;3.1236;
1111.8000;0.5527;3.0996;
1112.1000;0.5560;3.1044;
1112.4000;0.5560;3.1044;
1112.7000;0.5560;3.1044;
1113.0000;0.5568;3.1044;
1113.3000;0.5535;3.0948;
1113.6000;0.5608;3.1188;
1113.9000;0.5535;3.1092;
1114.2000;0.5649;3.1308;
1114.5000;0.5576;3.1068;
1114.8000;0.5535;3.0948;
1115.1000;0.5543;3.1020;
1115.4000;0.5535;3.1020;
1115.7000;0.5560;3.1044;
1116.0000;0.5535;3.1044;
1116.3000;0.5551;3.1068;
1116.6000;0.5551;3.1164;
1116.9000;0.5535;3.1140;
1117.2000;0.5551;3.1140;
1117.5000;0.5543;3.1092;
1117.8000;0.5527;3.1020;
1118.1000;0.5535;3.1092;
1118.4000;0.5543;3.1068;
1118.7000;0.5543;3.1044;
1119.0000;0.5551;3.1092;
1119.3000;0.5551;3.1068;
1119.6000;0.5576;3.1044;
1119.9000;0.5543;3.0876;
1120.2000;0.5503;3.0708;
1120.5000;0.5584;3.0876;
1120.8000;0.5551;3.0876;
1121.1000;0.5551;3.0948;
1121.4000;0.5568;3.0924;
1121.7000;0.5551;3.0900;
1122.0000;0.5560;3.0972;
1122.3000;0.5519;3.0924;
1122.6000;0.5519;3.0900;
1122.9000;0.5568;3.1020;
1123.2000;0.5495;3.0852;
1123.5000;0.5617;3.1092;
1123.8000;0.5560;3.0948;
1124.1000;0.5568;3.1044;
1124.4000;0.5584;3.1092;
1124.7000;0.5560;3.1140;
1125.0000;0.5560;3.1164;
1125.3000;0.5560;3.1140;
1125.6000;0.5560;3.1164;
1125.9000;0.5568;3.1164;
1126.2000;0.5560;3.1140;
1126.5000;0.5503;3.0924;
1126.8000;0.5568;3.1068;
1127.1000;0.5543;3.1044;
1127.4000;0.5543;3.1068;
1127.7000;0.5543;3.1020;
1128.0000;0.5543;3.1068;
1128.3000;0.5568;3.1092;
1128.6000;0.5560;3.1068;
1128.9000;0.5535;3.1116;
1129.2000;0.5560;3.1068;
1129.5000;0.5543;3.1164;
1129.8000;0.5560;3.1188;
1130.1000;0.5584;3.1212;
1130.4000;0.5551;3.1092;
1130.7000;0.5568;3.1140;
1131.0000;0.5535;3.1092;
1131.3000;0.5543;3.1116;
1131.6000;0.5551;3.1068;
1131.9000;0.5551;3.0996;
1132.2000;0.5535;3.0972;
1132.5000;0.5535;3.0996;
1132.8000;0.5527;3.0924;
1133.1000;0.5519;3.0924;
1133.4000;0.5560;3.0948;
1133.7000;0.5535;3.0924;
1134.0000;0.5543;3.0972;
1134.3000;0.5551;3.1020;
1134.6000;0.5568;3.1068;
1134.9000;0.5551;3.1044;
1135.2000;0.5543;3.1044;
1135.5000;0.5543;3.1044;
1135.8000;0.5551;3.1020;
1136.1000;0.5560;3.0996;
1136.4000;0.5543;3.0996;
1136.7000;0.5535;3.0996;
1137.0000;0.5560;3.1044;
1137.3000;0.5519;3.0876;
1137.6000;0.5543;3.0924;
1137.9000;0.5535;3.0924;
1138.2000;0.5543;3.1044;
1138.5000;0.5560;3.0924;
1138.8000;0.5543;3.0852;
1139.1000;0.5543;3.0996;
1139.4000;0.5617;3.1140;
1139.7000;0.5600;3.1140;
1140.0000;0.5560;3.1092;
1140.3000;0.5543;3.1068;
1140.6000;0.5462;3.0828;
1140.9000;0.5560;3.1164;
1141.2000;0.5551;3.1212;
1141.5000;0.5527;3.1260;
1141.8000;0.5560;3.1308;
1142.1000;0.5568;3.1188;
1142.4000;0.5568;3.1164;
1142.7000;0.5568;3.1140;
1143.0000;0.5543;3.0996;
1143.3000;0.5551;3.1068;
1143.6000;0.5576;3.1020;
1143.9000;0.5576;3.1020;
1144.2000;0.5543;3.0924;
1144.5000;0.5543;3.0996;
1144.8000;0.5560;3.0972;
1145.1000;0.5568;3.0996;
1145.4000;0.5592;3.1068;
1145.7000;0.5543;3.0948;
1146.0000;0.5551;3.0996;
1146.3000;0.5438;3.0732;
1146.6000;0.5519;3.0948;
1146.9000;0.5470;3.0804;
1147.2000;0.5633;3.1308;
1147.5000;0.5543;3.1140;
1147.8000;0.5543;3.1164;
1148.1000;0.5543;3.1164;
1148.4000;0.5568;3.1284;
1148.7000;0.5527;3.1188;
1149.0000;0.5535;3.1140;
1149.3000;0.5551;3.1188;
1149.6000;0.5551;3.1212;
1149.9000;0.5560;3.1140;
1150.2000;0.5560;3.1068;
1150.5000;0.5568;3.1092;
1150.8000;0.5543;3.1164;
1151.1000;0.5560;3.1164;
1151.4000;0.5543;3.1116;
1151.7000;0.5551;3.1116;
1152.0000;0.5551;3.1164;
1152.3000;0.5560;3.1164;
1152.6000;0.5560;3.1260;
1152.9000;0.5535;3.1308;
1153.2000;0.5535;3.1380;
1153.5000;0.5535;3.1356;
1153.8000;0.5568;3.1452;
1154.1000;0.5560;3.1356;
1154.4000;0.5551;3.1140;
1154.7000;0.5551;3.1116;
1155.0000;0.5551;3.1044;
1155.3000;0.5641;3.1332;
1155.6000;0.5543;3.1116;
1155.9000;0.5551;3.1116;
1156.2000;0.5560;3.1116;
1156.5000;0.5551;3.1092;
1156.8000;0.5543;3.1020;
1157.1000;0.5543;3.1020;
1157.4000;0.5592;3.1068;
1157.7000;0.5535;3.1020;
1158.0000;0.5551;3.1092;
1158.3000;0.5551;3.1116;
1158.6000;0.5568;3.1092;
1158.9000;0.5568;3.1020;
1159.2000;0.5551;3.0996;
1159.5000;0.5568;3.1044;
1159.8000;0.5560;3.0900;
1160.1000;0.5568;3.0828;
1160.4000;0.5560;3.0900;
1160.7000;0.5576;3.0924;
1161.0000;0.5551;3.0828;
1161.3000;0.5568;3.0828;
1161.6000;0.5551;3.0708;
1161.9000;0.5543;3.0780;
1162.2000;0.5543;3.0804;
1162.5000;0.5560;3.0852;
1162.8000;0.5633;3.1140;
1163.1000;0.5568;3.1020;
1163.4000;0.5551;3.1068;
1163.7000;0.5568;3.1068;
1164.0000;0.5560;3.0996;
1164.3000;0.5551;3.1044;
1164.6000;0.5600;3.1116;
1164.9000;0.5527;3.0876;
1165.2000;0.5560;3.0900;
1165.5000;0.5543;3.0996;
1165.8000;0.5543;3.1044;
1166.1000;0.5551;3.1092;
1166.4000;0.5584;3.1140;
1166.7000;0.5535;3.0996;
1167.0000;0.5535;3.1020;
1167.3000;0.5535;3.1140;
1167.6000;0.5560;3.1140;
1167.9000;0.5551;3.1068;
1168.2000;0.5560;3.1116;
1168.5000;0.5543;3.1068;
1168.8000;0.5560;3.1140;
1169.1000;0.5560;3.1140;
1169.4000;0.5560;3.1092;
1169.7000;0.5543;3.1140;
1170.0000;0.5535;3.1236;
1170.3000;0.5560;3.1188;
1170.6000;0.5560;3.1188;
1170.9000;0.5527;3.1188;
1171.2000;0.5633;3.1452;
1171.5000;0.5576;3.1332;
1171.8000;0.5551;3.1140;
1172.1000;0.5535;3.1020;
1172.4000;0.5535;3.1068;
1172.7000;0.5543;3.1068;
1173.0000;0.5592;3.1188;
1173.3000;0.5535;3.1044;
1173.6000;0.5560;3.1092;
1173.9000;0.5560;3.1116;
1174.2000;0.5535;3.0996;
1174.5000;0.5543;3.1044;
1174.8000;0.5535;3.0996;
1175.1000;0.5608;3.1140;
1175.4000;0.5560;3.1020;
1175.7000;0.5535;3.1044;
1176.0000;0.5495;3.0828;
1176.3000;0.5519;3.0876;
1176.6000;0.5535;3.0900;
1176.9000;0.5551;3.0828;
1177.2000;0.5560;3.0948;
1177.5000;0.5576;3.1068;
1177.8000;0.5551;3.1044;
1178.1000;0.5446;3.0828;
1178.4000;0.5543;3.1020;
1178.7000;0.5560;3.1092;
1179.0000;0.5551;3.1068;
1179.3000;0.5560;3.1068;
1179.6000;0.5535;3.0924;
1179.9000;0.5560;3.0996;
1180.2000;0.5560;3.0996;
1180.5000;0.5560;3.0948;
1180.8000;0.5535;3.0876;
1181.1000;0.5543;3.0900;
1181.4000;0.5568;3.0948;
1181.7000;0.5560;3.0828;
1182.0000;0.5551;3.0876;
1182.3000;0.5535;3.0900;
1182.6000;0.5551;3.1068;
1182.9000;0.5551;3.1020;
1183.2000;0.5535;3.0972;
1183.5000;0.5527;3.0900;
1183.8000;0.5551;3.0900;
1184.1000;0.5568;3.0876;
1184.4000;0.5551;3.0876;
1184.7000;0.5535;3.0780;
1185.0000;0.5551;3.0756;
1185.3000;0.5543;3.0660;
1185.6000;0.5543;3.0612;
1185.9000;0.5543;3.0660;
1186.2000;0.5527;3.0684;
1186.5000;0.5535;3.0756;
1186.8000;0.5543;3.0780;
1187.1000;0.5535;3.0660;
1187.4000;0.5535;3.0732;
1187.7000;0.5543;3.0756;
1188.0000;0.5535;3.0780;
1188.3000;0.5535;3.0804;
1188.6000;0.5535;3.0780;
1188.9000;0.5519;3.0828;
1189.2000;0.5543;3.0924;
1189.5000;0.5551;3.0948;
1189.8000;0.5511;3.0852;
1190.1000;0.5527;3.0852;
1190.4000;0.5527;3.0900;
1190.7000;0.5527;3.0852;
1191.0000;0.5519;3.0828;
1191.3000;0.5470;3.0780;
1191.6000;0.5551;3.0924;
1191.9000;0.5543;3.0948;
1192.2000;0.5568;3.0948;
1192.5000;0.5535;3.0900;
1192.8000;0.5527;3.0900;
1193.1000;0.5560;3.0972;
1193.4000;0.5551;3.0996;
1193.7000;0.5551;3.1092;
1194.0000;0.5535;3.1020;
1194.3000;0.5560;3.1068;
1194.6000;0.5551;3.1116;
1194.9000;0.5551;3.1140;
1195.2000;0.5551;3.0972;
1195.5000;0.5584;3.0972;
1195.8000;0.5535;3.0948;
1196.1000;0.5519;3.1092;
1196.4000;0.5543;3.1140;
1196.7000;0.5584;3.1332;
1197.0000;0.5568;3.1332;
1197.3000;0.5584;3.1356;
1197.6000;0.5543;3.1236;
1197.9000;0.5543;3.1260;
1198.2000;0.5503;3.1116;
1198.5000;0.5535;3.1188;
1198.8000;0.5543;3.1140;
1199.1000;0.5527;3.1044;
1199.4000;0.5551;3.1068;
1199.7000;0.5568;3.0924;
1200.0000;0.5560;3.0828;
1200.3000;0.5576;3.0876;
1200.6000;0.5568;3.0804;
1200.9000;0.5551;3.0708;
1201.2000;0.5568;3.0708;
1201.5000;0.5592;3.0756;
1201.8000;0.5576;3.0660;
1202.1000;0.5568;3.0756;
1202.4000;0.5543;3.0780;
1202.7000;0.5543;3.0732;
1203.0000;0.5568;3.0756;
1203.3000;0.5560;3.0780;
1203.6000;0.5551;3.0708;
1203.9000;0.5560;3.0756;
1204.2000;0.5543;3.0732;
1204.5000;0.5511;3.0684;
1204.8000;0.5560;3.0684;
1205.1000;0.5576;3.0684;
1205.4000;0.5551;3.0708;
1205.7000;0.5535;3.0708;
1206.0000;0.5551;3.0780;
1206.3000;0.5551;3.0828;
1206.6000;0.5511;3.0804;
1206.9000;0.5543;3.0876;
1207.2000;0.5535;3.0852;
1207.5000;0.5568;3.0900;
1207.8000;0.5535;3.0828;
1208.1000;0.5543;3.0900;
1208.4000;0.5543;3.0852;
1208.7000;0.5519;3.0828;
1209.0000;0.5551;3.0924;
1209.3000;0.5535;3.0876;
1209.6000;0.5535;3.0852;
1209.9000;0.5543;3.0876;
1210.2000;0.5560;3.0924;
1210.5000;0.5543;3.0876;
1210.8000;0.5560;3.0876;
1211.1000;0.5551;3.0852;
1211.4000;0.5543;3.0804;
1211.7000;0.5519;3.0828;
1212.0000;0.5543;3.0924;
1212.3000;0.5543;3.0924;
1212.6000;0.5551;3.0900;
1212.9000;0.5584;3.0876;
1213.2000;0.5560;3.0900;
1213.5000;0.5495;3.0804;
1213.8000;0.5568;3.1020;
1214.1000;0.5560;3.0972;
1214.4000;0.5543;3.0996;
1214.7000;0.5535;3.0876;
1215.0000;0.5551;3.0900;
1215.3000;0.5568;3.0972;
1215.6000;0.5535;3.0924;
1215.9000;0.5551;3.0972;
1216.2000;0.5543;3.0996;
1216.5000;0.5503;3.0900;
1216.8000;0.5535;3.1044;
1217.1000;0.5551;3.1116;
1217.4000;0.5551;3.1164;
1217.7000;0.5551;3.1164;
1218.0000;0.5543;3.1092;
1218.3000;0.5600;3.1308;
1218.6000;0.5592;3.1284;
1218.9000;0.5551;3.1188;
1219.2000;0.5511;3.1068;
1219.5000;0.5535;3.0996;
1219.8000;0.5511;3.0876;
1220.1000;0.5535;3.0972;
1220.4000;0.5584;3.1044;
1220.7000;0.5527;3.0900;
1221.0000;0.5543;3.0924;
1221.3000;0.5543;3.0876;
1221.6000;0.5527;3.0756;
1221.9000;0.5519;3.0756;
1222.2000;0.5568;3.0876;
1222.5000;0.5535;3.0804;
1222.8000;0.5535;3.0828;
1223.1000;0.5560;3.0756;
1223.4000;0.5551;3.0780;
1223.7000;0.5535;3.0804;
1224.0000;0.5535;3.0852;
1224.3000;0.5592;3.1044;
1224.6000;0.5551;3.0828;
1224.9000;0.5543;3.0780;
1225.2000;0.5543;3.0804;
1225.5000;0.5535;3.0852;
1225.8000;0.5543;3.0828;
1226.1000;0.5551;3.0900;
1226.4000;0.5633;3.1140;
1226.7000;0.5551;3.0900;
1227.0000;0.5543;3.0924;
1227.3000;0.5519;3.0876;
1227.6000;0.5543;3.0876;
1227.9000;0.5551;3.0876;
1228.2000;0.5527;3.0852;
1228.5000;0.5649;3.1188;
1228.8000;0.5527;3.0876;
1229.1000;0.5527;3.0828;
1229.4000;0.5519;3.0804;
1229.7000;0.5503;3.0612;
1230.0000;0.5535;3.0660;
1230.3000;0.5551;3.0780;
1230.6000;0.5568;3.0780;
1230.9000;0.5551;3.0732;
1231.2000;0.5560;3.0732;
1231.5000;0.5535;3.0804;
1231.8000;0.5551;3.0852;
1232.1000;0.5543;3.0828;
1232.4000;0.5551;3.0924;
1232.7000;0.5535;3.0828;
1233.0000;0.5535;3.0876;
1233.3000;0.5543;3.0876;
1233.6000;0.5535;3.0828;
1233.9000;0.5551;3.0804;
1234.2000;0.5568;3.0876;
1234.5000;0.5551;3.0804;
1234.8000;0.5519;3.0732;
1235.1000;0.5608;3.0924;
1235.4000;0.5543;3.0828;
1235.7000;0.5551;3.0876;
1236.0000;0.5560;3.0876;
1236.3000;0.5551;3.0900;
1236.6000;0.5600;3.0996;
1236.9000;0.5551;3.0972;
1237.2000;0.5503;3.0900;
1237.5000;0.5527;3.1020;
1237.8000;0.5535;3.1068;
1238.1000;0.5551;3.1044;
1238.4000;0.5535;3.1116;
1238.7000;0.5551;3.1188;
1239.0000;0.5543;3.1044;
1239.3000;0.5535;3.0996;
1239.6000;0.5527;3.0924;
1239.9000;0.5527;3.0948;
1240.2000;0.5543;3.0900;
1240.5000;0.5511;3.0900;
1240.8000;0.5535;3.0972;
1241.1000;0.5535;3.0924;
1241.4000;0.5551;3.0828;
1241.7000;0.5527;3.0780;
1242.0000;0.5535;3.0708;
1242.3000;0.5503;3.0660;
1242.6000;0.5551;3.0876;
1242.9000;0.5543;3.0852;
1243.2000;0.5560;3.0828;
1243.5000;0.5560;3.0852;
1243.8000;0.5551;3.0900;
1244.1000;0.5551;3.0852;
1244.4000;0.5551;3.0804;
1244.7000;0.5527;3.0732;
1245.0000;0.5543;3.0804;
1245.3000;0.5519;3.0780;
1245.6000;0.5543;3.0804;
1245.9000;0.5527;3.0828;
1246.2000;0.5535;3.0852;
1246.5000;0.5535;3.0756;
1246.8000;0.5543;3.0756;
1247.1000;0.5527;3.0708;
1247.4000;0.5519;3.0708;
1247.7000;0.5551;3.0828;
1248.0000;0.5535;3.0852;
1248.3000;0.5543;3.0876;
1248.6000;0.5535;3.0828;
1248.9000;0.5543;3.0828;
1249.2000;0.5543;3.0828;
1249.5000;0.5543;3.0900;
1249.8000;0.5551;3.0876;
1250.1000;0.5543;3.0876;
1250.4000;0.5543;3.0924;
1250.7000;0.5543;3.0900;
1251.0000;0.5560;3.0996;
1251.3000;0.5543;3.1068;
1251.6000;0.5535;3.1020;
1251.9000;0.5551;3.1068;
1252.2000;0.5535;3.1044;
1252.5000;0.5551;3.1068;
1252.8000;0.5535;3.1092;
1253.1000;0.5543;3.0996;
1253.4000;0.5551;3.0852;
1253.7000;0.5543;3.0804;
1254.0000;0.5576;3.0780;
1254.3000;0.5560;3.0780;
1254.6000;0.5543;3.0708;
1254.9000;0.5535;3.0756;
1255.2000;0.5551;3.0780;
1255.5000;0.5543;3.0756;
1255.8000;0.5543;3.0756;
1256.1000;0.5560;3.0780;
1256.4000;0.5576;3.0876;
1256.7000;0.5551;3.0876;
1257.0000;0.5551;3.0804;
1257.3000;0.5535;3.0804;
1257.6000;0.5535;3.0828;
1257.9000;0.5568;3.0948;
1258.2000;0.5535;3.0876;
1258.5000;0.5478;3.0852;
1258.8000;0.5543;3.0996;
1259.1000;0.5568;3.1068;
1259.4000;0.5527;3.0900;
1259.7000;0.5543;3.0804;
1260.0000;0.5535;3.0828;
1260.3000;0.5551;3.0900;
1260.6000;0.5560;3.0876;
1260.9000;0.5535;3.0924;
1261.2000;0.5519;3.0996;
1261.5000;0.5560;3.1044;
1261.8000;0.5568;3.1020;
1262.1000;0.5527;3.0924;
1262.4000;0.5535;3.0924;
1262.7000;0.5543;3.1020;
1263.0000;0.5600;3.1212;
1263.3000;0.5535;3.1068;
1263.6000;0.5535;3.1044;
1263.9000;0.5568;3.1044;
1264.2000;0.5543;3.0996;
1264.5000;0.5543;3.1020;
1264.8000;0.5551;3.0948;
1265.1000;0.5551;3.0876;
1265.4000;0.5560;3.0852;
1265.7000;0.5551;3.0804;
1266.0000;0.5551;3.0804;
1266.3000;0.5543;3.0804;
1266.6000;0.5527;3.0708;
1266.9000;0.5519;3.0660;
1267.2000;0.5511;3.0732;
1267.5000;0.5560;3.0780;
1267.8000;0.5568;3.0852;
1268.1000;0.5543;3.0852;
1268.4000;0.5551;3.0948;
1268.7000;0.5543;3.0900;
1269.0000;0.5511;3.0900;
1269.3000;0.5551;3.0948;
1269.6000;0.5551;3.0924;
1269.9000;0.5527;3.0876;
1270.2000;0.5551;3.0828;
1270.5000;0.5560;3.0828;
1270.8000;0.5576;3.0828;
1271.1000;0.5551;3.0756;
1271.4000;0.5568;3.0804;
1271.7000;0.5527;3.0828;
1272.0000;0.5543;3.0900;
1272.3000;0.5535;3.0828;
1272.6000;0.5527;3.0804;
1272.9000;0.5543;3.0828;
1273.2000;0.5527;3.0804;
1273.5000;0.5551;3.0852;
1273.8000;0.5543;3.0900;
1274.1000;0.5519;3.0828;
1274.4000;0.5535;3.0828;
1274.7000;0.5551;3.0924;
1275.0000;0.5543;3.0804;
1275.3000;0.5551;3.0780;
1275.6000;0.5535;3.0732;
1275.9000;0.5568;3.0780;
1276.2000;0.5527;3.0756;
1276.5000;0.5551;3.0828;
1276.8000;0.5568;3.0828;
1277.1000;0.5511;3.0756;
1277.4000;0.5486;3.0708;
1277.7000;0.5535;3.0828;
1278.0000;0.5551;3.0876;
1278.3000;0.5551;3.0996;
1278.6000;0.5543;3.0924;
1278.9000;0.5511;3.0804;
1279.2000;0.5535;3.0876;
1279.5000;0.5560;3.0948;
1279.8000;0.5527;3.0948;
1280.1000;0.5527;3.1020;
1280.4000;0.5543;3.0924;
1280.7000;0.5551;3.0996;
1281.0000;0.5543;3.0996;
1281.3000;0.5535;3.0948;
1281.6000;0.5551;3.0972;
1281.9000;0.5535;3.0852;
1282.2000;0.5535;3.0732;
1282.5000;0.5535;3.0852;
1282.8000;0.5478;3.0804;
1283.1000;0.5535;3.0876;
1283.4000;0.5551;3.0948;
1283.7000;0.5527;3.0852;
1284.0000;0.5527;3.0756;
1284.3000;0.5535;3.0708;
1284.6000;0.5527;3.0732;
1284.9000;0.5478;3.0684;
1285.2000;0.5568;3.0972;
1285.5000;0.5551;3.0900;
1285.8000;0.5527;3.0804;
1286.1000;0.5543;3.0828;
1286.4000;0.5535;3.0660;
1286.7000;0.5535;3.0708;
1287.0000;0.5527;3.0708;
1287.3000;0.5543;3.0780;
1287.6000;0.5543;3.0780;
1287.9000;0.5543;3.0828;
1288.2000;0.5551;3.0948;
1288.5000;0.5543;3.1020;
1288.8000;0.5543;3.0996;
1289.1000;0.5527;3.0852;
1289.4000;0.5551;3.0900;
1289.7000;0.5551;3.0876;
1290.0000;0.5535;3.0948;
1290.3000;0.5543;3.0900;
1290.6000;0.5568;3.0948;
1290.9000;0.5527;3.0876;
1291.2000;0.5560;3.0924;
1291.5000;0.5551;3.0876;
1291.8000;0.5535;3.0900;
1292.1000;0.5625;3.1212;
1292.4000;0.5535;3.0924;
1292.7000;0.5535;3.0876;
1293.0000;0.5543;3.1020;
1293.3000;0.5568;3.1068;
1293.6000;0.5470;3.0876;
1293.9000;0.5527;3.1044;
1294.2000;0.5495;3.0924;
1294.5000;0.5543;3.1164;
1294.8000;0.5535;3.1116;
1295.1000;0.5633;3.1380;
1295.4000;0.5543;3.1212;
1295.7000;0.5543;3.1164;
1296.0000;0.5568;3.1092;
1296.3000;0.5568;3.1140;
1296.6000;0.5551;3.1044;
1296.9000;0.5527;3.1044;
1297.2000;0.5551;3.1116;
1297.5000;0.5576;3.1188;
1297.8000;0.5625;3.1236;
1298.1000;0.5560;3.1068;
1298.4000;0.5551;3.1068;
1298.7000;0.5543;3.1020;
1299.0000;0.5527;3.1020;
1299.3000;0.5527;3.0972;
1299.6000;0.5551;3.1044;
1299.9000;0.5592;3.1044;
1300.2000;0.5560;3.0900;
1300.5000;0.5543;3.0876;
1300.8000;0.5584;3.0996;
1301.1000;0.5535;3.0948;
1301.4000;0.5551;3.0996;
1301.7000;0.5543;3.0996;
1302.0000;0.5535;3.0972;
1302.3000;0.5560;3.0996;
1302.6000;0.5543;3.0996;
1302.9000;0.5511;3.0900;
1303.2000;0.5560;3.0972;
1303.5000;0.5551;3.0972;
1303.8000;0.5503;3.0900;
1304.1000;0.5543;3.1044;
1304.4000;0.5551;3.1116;
1304.7000;0.5551;3.1188;
1305.0000;0.5519;3.1140;
1305.3000;0.5535;3.1188;
1305.6000;0.5568;3.1332;
1305.9000;0.5543;3.1260;
1306.2000;0.5551;3.1164;
1306.5000;0.5543;3.1092;
1306.8000;0.5543;3.1092;
1307.1000;0.5543;3.1092;
1307.4000;0.5535;3.1020;
1307.7000;0.5551;3.1044;
1308.0000;0.5551;3.1020;
1308.3000;0.5576;3.1068;
1308.6000;0.5543;3.1020;
1308.9000;0.5551;3.1116;
1309.2000;0.5551;3.1164;
1309.5000;0.5560;3.1164;
1309.8000;0.5560;3.1260;
1310.1000;0.5560;3.1284;
1310.4000;0.5560;3.1260;
1310.7000;0.5535;3.1164;
1311.0000;0.5535;3.1164;
1311.3000;0.5568;3.1236;
1311.6000;0.5503;3.1044;
1311.9000;0.5560;3.1164;
1312.2000;0.5446;3.0900;
1312.5000;0.5576;3.1188;
1312.8000;0.5527;3.1068;
1313.1000;0.5527;3.1020;
1313.4000;0.5543;3.1044;
1313.7000;0.5560;3.1020;
1314.0000;0.5527;3.1068;
1314.3000;0.5511;3.1068;
1314.6000;0.5543;3.1092;
1314.9000;0.5495;3.0996;
1315.2000;0.5551;3.1092;
1315.5000;0.5535;3.0948;
1315.8000;0.5543;3.1020;
1316.1000;0.5568;3.1164;
1316.4000;0.5560;3.1188;
1316.7000;0.5551;3.1140;
1317.0000;0.5527;3.1068;
1317.3000;0.5592;3.1164;
1317.6000;0.5551;3.1020;
1317.9000;0.5543;3.0996;
1318.2000;0.5551;3.1092;
1318.5000;0.5543;3.1020;
1318.8000;0.5535;3.0948;
1319.1000;0.5527;3.0828;
1319.4000;0.5543;3.0876;
1319.7000;0.5535;3.0972;
1320.0000;0.5535;3.1044;
1320.3000;0.5519;3.0972;
1320.6000;0.5592;3.1140;
1320.9000;0.5527;3.1068;
1321.2000;0.5535;3.1164;
1321.5000;0.5543;3.1188;
1321.8000;0.5543;3.1140;
1322.1000;0.5543;3.1116;
1322.4000;0.5527;3.1116;
1322.7000;0.5560;3.1212;
1323.0000;0.5551;3.1140;
1323.3000;0.5543;3.1092;
1323.6000;0.5551;3.1068;
1323.9000;0.5551;3.1116;
1324.2000;0.5576;3.1164;
1324.5000;0.5551;3.1116;
1324.8000;0.5560;3.1140;
1325.1000;0.5543;3.1092;
1325.4000;0.5511;3.0996;
1325.7000;0.5527;3.0996;
1326.0000;0.5551;3.1092;
1326.3000;0.5543;3.1164;
1326.6000;0.5560;3.1236;
1326.9000;0.5535;3.1164;
1327.2000;0.5535;3.1212;
1327.5000;0.5535;3.1140;
1327.8000;0.5486;3.0948;
1328.1000;0.5535;3.1044;
1328.4000;0.5470;3.0828;
1328.7000;0.5551;3.0996;
1329.0000;0.5511;3.0948;
1329.3000;0.5560;3.1068;
1329.6000;0.5543;3.1020;
1329.9000;0.5551;3.1020;
1330.2000;0.5560;3.1044;
1330.5000;0.5543;3.0948;
1330.8000;0.5543;3.0948;
1331.1000;0.5568;3.1092;
1331.4000;0.5535;3.1020;
1331.7000;0.5568;3.1068;
1332.0000;0.5535;3.1044;
1332.3000;0.5527;3.0996;
1332.6000;0.5519;3.1020;
1332.9000;0.5527;3.0972;
1333.2000;0.5511;3.0948;
1333.5000;0.5527;3.0924;
1333.8000;0.5535;3.0900;
1334.1000;0.5535;3.0924;
1334.4000;0.5551;3.0948;
1334.7000;0.5535;3.0876;
1335.0000;0.5535;3.0924;
1335.3000;0.5551;3.1044;
1335.6000;0.5535;3.1068;
1335.9000;0.5535;3.1068;
1336.2000;0.5519;3.0972;
1336.5000;0.5495;3.0852;
1336.8000;0.5543;3.0828;
1337.1000;0.5543;3.0828;
1337.4000;0.5543;3.0924;
1337.7000;0.5535;3.0948;
1338.0000;0.5543;3.0948;
1338.3000;0.5551;3.1140;
1338.6000;0.5535;3.1068;
1338.9000;0.5543;3.0924;
1339.2000;0.5543;3.0900;
1339.5000;0.5551;3.0924;
1339.8000;0.5543;3.0900;
1340.1000;0.5543;3.0948;
1340.4000;0.5543;3.1020;
1340.7000;0.5560;3.1068;
1341.0000;0.5551;3.1116;
1341.3000;0.5535;3.0996;
1341.6000;0.5560;3.1020;
1341.9000;0.5535;3.0972;
1342.2000;0.5535;3.1068;
1342.5000;0.5543;3.1140;
1342.8000;0.5568;3.1236;
1343.1000;0.5551;3.1188;
1343.4000;0.5551;3.1140;
1343.7000;0.5535;3.1068;
1344.0000;0.5527;3.1092;
1344.3000;0.5551;3.1188;
1344.6000;0.5568;3.1236;
1344.9000;0.5535;3.1260;
1345.2000;0.5543;3.1236;
1345.5000;0.5551;3.1188;
1345.8000;0.5551;3.1188;
1346.1000;0.5535;3.1140;
1346.4000;0.5527;3.1092;
1346.7000;0.5551;3.0996;
1347.0000;0.5543;3.1020;
1347.3000;0.5551;3.0972;
1347.6000;0.5519;3.0876;
1347.9000;0.5527;3.0996;
1348.2000;0.5543;3.1116;
1348.5000;0.5511;3.0972;
1348.8000;0.5543;3.0996;
1349.1000;0.5527;3.1044;
1349.4000;0.5560;3.1092;
1349.7000;0.5551;3.1044;
1350.0000;0.5503;3.0948;
1350.3000;0.5535;3.1116;
1350.6000;0.5551;3.1140;
1350.9000;0.5551;3.1068;
1351.2000;0.5527;3.1068;
1351.5000;0.5462;3.0924;
1351.8000;0.5543;3.1116;
1352.1000;0.5527;3.1092;
1352.4000;0.5527;3.1092;
1352.7000;0.5543;3.1116;
1353.0000;0.5665;3.1332;
1353.3000;0.5543;3.1020;
1353.6000;0.5519;3.0948;
1353.9000;0.5551;3.1068;
1354.2000;0.5535;3.1068;
1354.5000;0.5551;3.1092;
1354.8000;0.5560;3.1044;
1355.1000;0.5535;3.1020;
1355.4000;0.5543;3.0972;
1355.7000;0.5527;3.0876;
1356.0000;0.5535;3.0900;
1356.3000;0.5543;3.0900;
1356.6000;0.5535;3.0876;
1356.9000;0.5527;3.0876;
1357.2000;0.5543;3.0924;
1357.5000;0.5535;3.0900;
1357.8000;0.5535;3.0804;
1358.1000;0.5543;3.0804;
1358.4000;0.5633;3.0948;
1358.7000;0.5543;3.0684;
1359.0000;0.5535;3.0684;
1359.3000;0.5527;3.0612;
1359.6000;0.5535;3.0636;
1359.9000;0.5551;3.0684;
1360.2000;0.5551;3.0732;
1360.5000;0.5551;3.0876;
1360.8000;0.5551;3.0804;
1361.1000;0.5543;3.0828;
1361.4000;0.5527;3.0804;
1361.7000;0.5543;3.0876;
1362.0000;0.5551;3.0948;
1362.3000;0.5543;3.0876;
1362.6000;0.5519;3.0804;
1362.9000;0.5535;3.0828;
1363.2000;0.5543;3.0852;
1363.5000;0.5576;3.0876;
1363.8000;0.5543;3.0780;
1364.1000;0.5592;3.0900;
1364.4000;0.5543;3.0828;
1364.7000;0.5535;3.0876;
1365.0000;0.5527;3.0852;
1365.3000;0.5543;3.0876;
1365.6000;0.5535;3.0852;
1365.9000;0.5551;3.0948;
1366.2000;0.5543;3.0852;
1366.5000;0.5551;3.0828;
1366.8000;0.5519;3.0804;
1367.1000;0.5560;3.0828;
1367.4000;0.5560;3.0852;
1367.7000;0.5519;3.0708;
1368.0000;0.5535;3.0660;
1368.3000;0.5527;3.0636;
1368.6000;0.5551;3.0756;
1368.9000;0.5511;3.0732;
1369.2000;0.5527;3.0756;
1369.5000;0.5543;3.0852;
1369.8000;0.5560;3.0900;
1370.1000;0.5543;3.0804;
1370.4000;0.5535;3.0828;
1370.7000;0.5649;3.1188;
1371.0000;0.5568;3.0996;
1371.3000;0.5543;3.0852;
1371.6000;0.5551;3.0828;
1371.9000;0.5519;3.0732;
1372.2000;0.5519;3.0852;
1372.5000;0.5543;3.0852;
1372.8000;0.5519;3.0828;
1373.1000;0.5551;3.0876;
1373.4000;0.5527;3.0852;
1373.7000;0.5511;3.0828;
1374.0000;0.5527;3.0756;
1374.3000;0.5519;3.0804;
1374.6000;0.5551;3.0804;
1374.9000;0.5535;3.0708;
1375.2000;0.5535;3.0732;
1375.5000;0.5535;3.0828;
1375.8000;0.5495;3.0708;
1376.1000;0.5478;3.0732;
1376.4000;0.5543;3.0948;
1376.7000;0.5527;3.0924;
1377.0000;0.5535;3.0948;
1377.3000;0.5551;3.0996;
1377.6000;0.5543;3.0900;
1377.9000;0.5535;3.0852;
1378.2000;0.5543;3.0852;
1378.5000;0.5551;3.0900;
1378.8000;0.5568;3.1020;
1379.1000;0.5543;3.0924;
1379.4000;0.5511;3.0972;
1379.7000;0.5535;3.1044;
1380.0000;0.5543;3.0996;
1380.3000;0.5527;3.0972;
1380.6000;0.5535;3.0972;
1380.9000;0.5560;3.0900;
1381.2000;0.5543;3.0828;
1381.5000;0.5535;3.0852;
1381.8000;0.5551;3.0948;
1382.1000;0.5543;3.0948;
1382.4000;0.5551;3.0972;
1382.7000;0.5519;3.0924;
1383.0000;0.5543;3.0924;
1383.3000;0.5543;3.0996;
1383.6000;0.5560;3.0996;
1383.9000;0.5543;3.0948;
1384.2000;0.5519;3.0924;
1384.5000;0.5527;3.0972;
1384.8000;0.5551;3.0996;
1385.1000;0.5535;3.0948;
1385.4000;0.5568;3.1020;
1385.7000;0.5535;3.0972;
1386.0000;0.5535;3.0996;
1386.3000;0.5551;3.1020;
1386.6000;0.5527;3.1044;
1386.9000;0.5551;3.1116;
1387.2000;0.5527;3.0924;
1387.5000;0.5511;3.0852;
1387.8000;0.5511;3.0732;
1388.1000;0.5503;3.0732;
1388.4000;0.5478;3.0780;
1388.7000;0.5535;3.0876;
1389.0000;0.5535;3.0828;
1389.3000;0.5519;3.0804;
1389.6000;0.5519;3.0780;
1389.9000;0.5543;3.0828;
1390.2000;0.5560;3.0876;
1390.5000;0.5503;3.0732;
1390.8000;0.5543;3.0852;
1391.1000;0.5551;3.0876;
1391.4000;0.5543;3.0804;
1391.7000;0.5535;3.0780;
1392.0000;0.5543;3.0756;
1392.3000;0.5543;3.0684;
1392.6000;0.5535;3.0660;
1392.9000;0.5560;3.0732;
1393.2000;0.5535;3.0636;
1393.5000;0.5551;3.0684;
1393.8000;0.5527;3.0660;
1394.1000;0.5527;3.0780;
1394.4000;0.5535;3.0780;
1394.7000;0.5551;3.0852;
1395.0000;0.5519;3.0732;
1395.3000;0.5560;3.0876;
1395.6000;0.5543;3.0732;
1395.9000;0.5551;3.0708;
1396.2000;0.5535;3.0732;
1396.5000;0.5543;3.0732;
1396.8000;0.5551;3.0756;
1397.1000;0.5511;3.0732;
1397.4000;0.5551;3.0876;
1397.7000;0.5527;3.0828;
1398.0000;0.5543;3.0852;
1398.3000;0.5608;3.1044;
1398.6000;0.5519;3.0852;
1398.9000;0.5519;3.0852;
1399.2000;0.5535;3.0852;
1399.5000;0.5535;3.0828;
1399.8000;0.5543;3.0852;
