time/ms;Fluo/V;P700 deltaI/I x10³;
-199.8000;0.5104;2.9629;
-199.5000;0.5096;2.9629;
-199.2000;0.5104;2.9653;
-198.9000;0.5096;2.9653;
-198.6000;0.5088;2.9629;
-198.3000;0.5096;2.9557;
-198.0000;0.5088;2.9581;
-197.7000;0.5096;2.9677;
-197.4000;0.5088;2.9653;
-197.1000;0.5136;2.9701;
-196.8000;0.5104;2.9653;
-196.5000;0.5169;2.9797;
-196.2000;0.5096;2.9653;
-195.9000;0.5079;2.9605;
-195.6000;0.5071;2.9581;
-195.3000;0.5112;2.9725;
-195.0000;0.5088;2.9701;
-194.7000;0.5104;2.9773;
-194.4000;0.5096;2.9677;
-194.1000;0.5088;2.9581;
-193.8000;0.5096;2.9581;
-193.5000;0.5096;2.9629;
-193.2000;0.5112;2.9605;
-192.9000;0.5112;2.9605;
-192.6000;0.5104;2.9605;
-192.3000;0.5120;2.9581;
-192.0000;0.5104;2.9605;
-191.7000;0.5104;2.9629;
-191.4000;0.5112;2.9629;
-191.1000;0.5112;2.9581;
-190.8000;0.5153;2.9701;
-190.5000;0.5112;2.9557;
-190.2000;0.5112;2.9485;
-189.9000;0.5120;2.9509;
-189.6000;0.5144;2.9509;
-189.3000;0.5096;2.9341;
-189.0000;0.5161;2.9509;
-188.7000;0.5112;2.9533;
-188.4000;0.5120;2.9533;
-188.1000;0.5096;2.9533;
-187.8000;0.5120;2.9581;
-187.5000;0.5144;2.9677;
-187.2000;0.5128;2.9557;
-186.9000;0.5136;2.9605;
-186.6000;0.5112;2.9509;
-186.3000;0.5136;2.9509;
-186.0000;0.5120;2.9413;
-185.7000;0.5128;2.9317;
-185.4000;0.5079;2.9269;
-185.1000;0.5136;2.9341;
-184.8000;0.5153;2.9461;
-184.5000;0.5120;2.9413;
-184.2000;0.5144;2.9437;
-183.9000;0.5136;2.9413;
-183.6000;0.5047;2.9101;
-183.3000;0.5161;2.9317;
-183.0000;0.5144;2.9269;
-182.7000;0.5144;2.9365;
-182.4000;0.5153;2.9485;
-182.1000;0.5153;2.9389;
-181.8000;0.5136;2.9365;
-181.5000;0.5128;2.9461;
-181.2000;0.5104;2.9461;
-180.9000;0.5193;2.9701;
-180.6000;0.5153;2.9533;
-180.3000;0.5153;2.9533;
-180.0000;0.5177;2.9557;
-179.7000;0.5144;2.9413;
-179.4000;0.5153;2.9437;
-179.1000;0.5169;2.9437;
-178.8000;0.5161;2.9389;
-178.5000;0.5185;2.9437;
-178.2000;0.5169;2.9341;
-177.9000;0.5169;2.9341;
-177.6000;0.5169;2.9317;
-177.3000;0.5161;2.9341;
-177.0000;0.5177;2.9293;
-176.7000;0.5177;2.9293;
-176.4000;0.5185;2.9269;
-176.1000;0.5144;2.9221;
-175.8000;0.5169;2.9245;
-175.5000;0.5193;2.9245;
-175.2000;0.5258;2.9341;
-174.9000;0.5201;2.9221;
-174.6000;0.5193;2.9221;
-174.3000;0.5177;2.9269;
-174.0000;0.5169;2.9293;
-173.7000;0.5161;2.9269;
-173.4000;0.5177;2.9389;
-173.1000;0.5161;2.9245;
-172.8000;0.5185;2.9221;
-172.5000;0.5201;2.9197;
-172.2000;0.5299;2.9437;
-171.9000;0.5193;2.9197;
-171.6000;0.5201;2.9293;
-171.3000;0.5250;2.9437;
-171.0000;0.5185;2.9293;
-170.7000;0.5201;2.9341;
-170.4000;0.5201;2.9365;
-170.1000;0.5250;2.9485;
-169.8000;0.5210;2.9485;
-169.5000;0.5210;2.9557;
-169.2000;0.5226;2.9605;
-168.9000;0.5193;2.9509;
-168.6000;0.5210;2.9509;
-168.3000;0.5218;2.9413;
-168.0000;0.5226;2.9317;
-167.7000;0.5234;2.9293;
-167.4000;0.5210;2.9317;
-167.1000;0.5242;2.9269;
-166.8000;0.5226;2.9341;
-166.5000;0.5226;2.9413;
-166.2000;0.5226;2.9413;
-165.9000;0.5218;2.9365;
-165.6000;0.5226;2.9365;
-165.3000;0.5234;2.9389;
-165.0000;0.5193;2.9293;
-164.7000;0.5242;2.9365;
-164.4000;0.5242;2.9413;
-164.1000;0.5242;2.9341;
-163.8000;0.5226;2.9245;
-163.5000;0.5226;2.9269;
-163.2000;0.5226;2.9221;
-162.9000;0.5242;2.9221;
-162.6000;0.5234;2.9221;
-162.3000;0.5169;2.9149;
-162.0000;0.5218;2.9173;
-161.7000;0.5226;2.9149;
-161.4000;0.5250;2.9197;
-161.1000;0.5267;2.9245;
-160.8000;0.5258;2.9245;
-160.5000;0.5267;2.9293;
-160.2000;0.5226;2.9173;
-159.9000;0.5267;2.9269;
-159.6000;0.5234;2.9053;
-159.3000;0.5267;2.9077;
-159.0000;0.5275;2.9125;
-158.7000;0.5250;2.9245;
-158.4000;0.5250;2.9317;
-158.1000;0.5234;2.9245;
-157.8000;0.5267;2.9293;
-157.5000;0.5250;2.9293;
-157.2000;0.5267;2.9245;
-156.9000;0.5291;2.9197;
-156.6000;0.5283;2.9197;
-156.3000;0.5258;2.9221;
-156.0000;0.5291;2.9197;
-155.7000;0.5283;2.9125;
-155.4000;0.5283;2.9053;
-155.1000;0.5291;2.9125;
-154.8000;0.5291;2.9125;
-154.5000;0.5307;2.9221;
-154.2000;0.5283;2.9173;
-153.9000;0.5291;2.9077;
-153.6000;0.5307;2.9077;
-153.3000;0.5299;2.9125;
-153.0000;0.5283;2.9101;
-152.7000;0.5275;2.9077;
-152.4000;0.5324;2.9173;
-152.1000;0.5291;2.9125;
-151.8000;0.5315;2.9197;
-151.5000;0.5307;2.9149;
-151.2000;0.5324;2.9173;
-150.9000;0.5299;2.9053;
-150.6000;0.5315;2.9053;
-150.3000;0.5307;2.9029;
-150.0000;0.5307;2.9005;
-149.7000;0.5291;2.8885;
-149.4000;0.5348;2.9125;
-149.1000;0.5364;2.9197;
-148.8000;0.5324;2.9149;
-148.5000;0.5234;2.9005;
-148.2000;0.5332;2.9173;
-147.9000;0.5348;2.9221;
-147.6000;0.5324;2.9197;
-147.3000;0.5291;2.9005;
-147.0000;0.5315;2.8981;
-146.7000;0.5340;2.9005;
-146.4000;0.5324;2.8933;
-146.1000;0.5332;2.8957;
-145.8000;0.5340;2.8981;
-145.5000;0.5299;2.8885;
-145.2000;0.5340;2.9029;
-144.9000;0.5324;2.9125;
-144.6000;0.5332;2.9149;
-144.3000;0.5348;2.9197;
-144.0000;0.5348;2.9197;
-143.7000;0.5348;2.9125;
-143.4000;0.5332;2.9077;
-143.1000;0.5364;2.9149;
-142.8000;0.5372;2.9125;
-142.5000;0.5364;2.9053;
-142.2000;0.5405;2.9149;
-141.9000;0.5372;2.9053;
-141.6000;0.5348;2.9005;
-141.3000;0.5364;2.8981;
-141.0000;0.5356;2.8933;
-140.7000;0.5364;2.8981;
-140.4000;0.5381;2.9029;
-140.1000;0.5364;2.9005;
-139.8000;0.5446;2.9269;
-139.5000;0.5397;2.9101;
-139.2000;0.5348;2.9029;
-138.9000;0.5413;2.9173;
-138.6000;0.5332;2.8957;
-138.3000;0.5372;2.9029;
-138.0000;0.5389;2.9077;
-137.7000;0.5429;2.9125;
-137.4000;0.5397;2.9101;
-137.1000;0.5413;2.9149;
-136.8000;0.5381;2.9077;
-136.5000;0.5389;2.9077;
-136.2000;0.5389;2.9101;
-135.9000;0.5372;2.9077;
-135.6000;0.5405;2.9221;
-135.3000;0.5405;2.9221;
-135.0000;0.5405;2.9245;
-134.7000;0.5413;2.9269;
-134.4000;0.5429;2.9389;
-134.1000;0.5397;2.9293;
-133.8000;0.5421;2.9293;
-133.5000;0.5381;2.9197;
-133.2000;0.5413;2.9269;
-132.9000;0.5454;2.9413;
-132.6000;0.5429;2.9365;
-132.3000;0.5462;2.9533;
-132.0000;0.5389;2.9317;
-131.7000;0.5429;2.9365;
-131.4000;0.5438;2.9293;
-131.1000;0.5446;2.9293;
-130.8000;0.5413;2.9221;
-130.5000;0.5429;2.9221;
-130.2000;0.5429;2.9221;
-129.9000;0.5429;2.9173;
-129.6000;0.5429;2.9125;
-129.3000;0.5429;2.9101;
-129.0000;0.5405;2.9053;
-128.7000;0.5454;2.9125;
-128.4000;0.5429;2.9125;
-128.1000;0.5446;2.9053;
-127.8000;0.5462;2.9125;
-127.5000;0.5462;2.9077;
-127.2000;0.5462;2.9101;
-126.9000;0.5462;2.9077;
-126.6000;0.5438;2.9101;
-126.3000;0.5478;2.9173;
-126.0000;0.5470;2.9149;
-125.7000;0.5454;2.9125;
-125.4000;0.5519;2.9293;
-125.1000;0.5478;2.9197;
-124.8000;0.5486;2.9197;
-124.5000;0.5535;2.9413;
-124.2000;0.5486;2.9413;
-123.9000;0.5495;2.9365;
-123.6000;0.5503;2.9341;
-123.3000;0.5486;2.9245;
-123.0000;0.5495;2.9245;
-122.7000;0.5511;2.9293;
-122.4000;0.5503;2.9269;
-122.1000;0.5486;2.9245;
-121.8000;0.5503;2.9197;
-121.5000;0.5495;2.9149;
-121.2000;0.5519;2.9221;
-120.9000;0.5503;2.9221;
-120.6000;0.5503;2.9245;
-120.3000;0.5511;2.9173;
-120.0000;0.5511;2.9101;
-119.7000;0.5519;2.9125;
-119.4000;0.5478;2.9077;
-119.1000;0.5527;2.9149;
-118.8000;0.5519;2.9221;
-118.5000;0.5470;2.9029;
-118.2000;0.5503;2.9101;
-117.9000;0.5511;2.9149;
-117.6000;0.5527;2.9197;
-117.3000;0.5543;2.9173;
-117.0000;0.5527;2.9077;
-116.7000;0.5543;2.9053;
-116.4000;0.5535;2.8981;
-116.1000;0.5543;2.9005;
-115.8000;0.5527;2.8933;
-115.5000;0.5592;2.9077;
-115.2000;0.5535;2.8861;
-114.9000;0.5527;2.8813;
-114.6000;0.5527;2.8741;
-114.3000;0.5519;2.8765;
-114.0000;0.5649;2.9005;
-113.7000;0.5535;2.8789;
-113.4000;0.5584;2.8981;
-113.1000;0.5625;2.9101;
-112.8000;0.5543;2.8837;
-112.5000;0.5568;2.8861;
-112.2000;0.5576;2.8837;
-111.9000;0.5584;2.8813;
-111.6000;0.5568;2.8741;
-111.3000;0.5568;2.8765;
-111.0000;0.5568;2.8765;
-110.7000;0.5576;2.8717;
-110.4000;0.5592;2.8885;
-110.1000;0.5527;2.8837;
-109.8000;0.5592;2.9029;
-109.5000;0.5600;2.9077;
-109.2000;0.5576;2.9029;
-108.9000;0.5600;2.9125;
-108.6000;0.5600;2.9197;
-108.3000;0.5608;2.9197;
-108.0000;0.5600;2.9125;
-107.7000;0.5600;2.9005;
-107.4000;0.5633;2.9077;
-107.1000;0.5608;2.8933;
-106.8000;0.5608;2.9029;
-106.5000;0.5592;2.8981;
-106.2000;0.5592;2.8837;
-105.9000;0.5608;2.8885;
-105.6000;0.5584;2.8861;
-105.3000;0.5592;2.8885;
-105.0000;0.5608;2.8933;
-104.7000;0.5551;2.8717;
-104.4000;0.5633;2.8861;
-104.1000;0.5617;2.8789;
-103.8000;0.5625;2.8813;
-103.5000;0.5625;2.8837;
-103.2000;0.5649;2.8981;
-102.9000;0.5641;2.8909;
-102.6000;0.5608;2.8813;
-102.3000;0.5576;2.8717;
-102.0000;0.5608;2.8765;
-101.7000;0.5625;2.8837;
-101.4000;0.5665;2.8885;
-101.1000;0.5657;2.8837;
-100.8000;0.5657;2.8741;
-100.5000;0.5649;2.8741;
-100.2000;0.5657;2.8765;
-99.9000;0.5649;2.8813;
-99.6000;0.5649;2.8741;
-99.3000;0.5592;2.8621;
-99.0000;0.5657;2.8789;
-98.7000;0.5682;2.8765;
-98.4000;0.5665;2.8741;
-98.1000;0.5665;2.8765;
-97.8000;0.5682;2.8765;
-97.5000;0.5682;2.8693;
-97.2000;0.5682;2.8765;
-96.9000;0.5788;2.8981;
-96.6000;0.5690;2.8741;
-96.3000;0.5682;2.8693;
-96.0000;0.5633;2.8597;
-95.7000;0.5690;2.8741;
-95.4000;0.5682;2.8837;
-95.1000;0.5747;2.9053;
-94.8000;0.5674;2.8837;
-94.5000;0.5698;2.8813;
-94.2000;0.5682;2.8669;
-93.9000;0.5690;2.8693;
-93.6000;0.5682;2.8669;
-93.3000;0.5690;2.8717;
-93.0000;0.5698;2.8765;
-92.7000;0.5722;2.8837;
-92.4000;0.5763;2.9005;
-92.1000;0.5722;2.8933;
-91.8000;0.5698;2.8837;
-91.5000;0.5706;2.8837;
-91.2000;0.5714;2.8861;
-90.9000;0.5698;2.8885;
-90.6000;0.5706;2.8861;
-90.3000;0.5706;2.8909;
-90.0000;0.5779;2.9029;
-89.7000;0.5731;2.8957;
-89.4000;0.5722;2.8909;
-89.1000;0.5731;2.8957;
-88.8000;0.5731;2.8861;
-88.5000;0.5722;2.8861;
-88.2000;0.5706;2.8933;
-87.9000;0.5739;2.9005;
-87.6000;0.5739;2.8981;
-87.3000;0.5820;2.9125;
-87.0000;0.5755;2.9005;
-86.7000;0.5763;2.8957;
-86.4000;0.5739;2.8909;
-86.1000;0.5755;2.8837;
-85.8000;0.5755;2.8789;
-85.5000;0.5755;2.8813;
-85.2000;0.5755;2.8861;
-84.9000;0.5731;2.8861;
-84.6000;0.5812;2.9077;
-84.3000;0.5771;2.8957;
-84.0000;0.5771;2.8957;
-83.7000;0.5779;2.8957;
-83.4000;0.5771;2.8957;
-83.1000;0.5779;2.8909;
-82.8000;0.5779;2.8909;
-82.5000;0.5771;2.8837;
-82.2000;0.5771;2.8933;
-81.9000;0.5853;2.9077;
-81.6000;0.5788;2.8861;
-81.3000;0.5788;2.8885;
-81.0000;0.5763;2.8741;
-80.7000;0.5796;2.8837;
-80.4000;0.5779;2.8861;
-80.1000;0.5722;2.8549;
-79.8000;0.5804;2.8765;
-79.5000;0.5796;2.8861;
-79.2000;0.5731;2.8621;
-78.9000;0.5820;2.8789;
-78.6000;0.5820;2.8909;
-78.3000;0.5755;2.8789;
-78.0000;0.5804;2.8957;
-77.7000;0.5771;2.8957;
-77.4000;0.5828;2.9005;
-77.1000;0.5796;2.9005;
-76.8000;0.5828;2.8981;
-76.5000;0.5804;2.8861;
-76.2000;0.5861;2.9005;
-75.9000;0.5845;2.9029;
-75.6000;0.5820;2.8957;
-75.3000;0.5836;2.9029;
-75.0000;0.5804;2.8957;
-74.7000;0.5828;2.9005;
-74.4000;0.5845;2.9077;
-74.1000;0.5861;2.9029;
-73.8000;0.5853;2.9005;
-73.5000;0.5861;2.8957;
-73.2000;0.5853;2.8885;
-72.9000;0.5869;2.8957;
-72.6000;0.5845;2.8885;
-72.3000;0.5796;2.8789;
-72.0000;0.5828;2.8837;
-71.7000;0.5853;2.8909;
-71.4000;0.5853;2.8885;
-71.1000;0.5861;2.8981;
-70.8000;0.5950;2.9269;
-70.5000;0.5869;2.8957;
-70.2000;0.5861;2.8813;
-69.9000;0.5885;2.8909;
-69.6000;0.5845;2.8837;
-69.3000;0.5869;2.8885;
-69.0000;0.5869;2.8861;
-68.7000;0.5861;2.8909;
-68.4000;0.5869;2.8813;
-68.1000;0.5902;2.8813;
-67.8000;0.5934;2.8909;
-67.5000;0.5893;2.8885;
-67.2000;0.5877;2.8909;
-66.9000;0.5893;2.8909;
-66.6000;0.5885;2.8885;
-66.3000;0.5885;2.8789;
-66.0000;0.5902;2.8861;
-65.7000;0.5893;2.8861;
-65.4000;0.5918;2.8933;
-65.1000;0.5918;2.8861;
-64.8000;0.5902;2.8741;
-64.5000;0.5910;2.8765;
-64.2000;0.5893;2.8813;
-63.9000;0.5934;2.8933;
-63.6000;0.5910;2.8909;
-63.3000;0.5934;2.8957;
-63.0000;0.5950;2.8933;
-62.7000;0.5918;2.8765;
-62.4000;0.5934;2.8789;
-62.1000;0.5934;2.8813;
-61.8000;0.5950;2.8861;
-61.5000;0.5934;2.8885;
-61.2000;0.5926;2.8885;
-60.9000;0.5967;2.8861;
-60.6000;0.5918;2.8765;
-60.3000;0.5942;2.8933;
-60.0000;0.5958;2.8861;
-59.7000;0.5950;2.8837;
-59.4000;0.5942;2.8909;
-59.1000;0.5991;2.8981;
-58.8000;0.5975;2.8933;
-58.5000;0.5950;2.8861;
-58.2000;0.5958;2.8981;
-57.9000;0.5934;2.8981;
-57.6000;0.5999;2.9101;
-57.3000;0.5958;2.9005;
-57.0000;0.5934;2.8885;
-56.7000;0.6015;2.9005;
-56.4000;0.5991;2.8933;
-56.1000;0.5869;2.8621;
-55.8000;0.5975;2.8909;
-55.5000;0.5934;2.8861;
-55.2000;0.5975;2.8933;
-54.9000;0.6007;2.9053;
-54.6000;0.5991;2.9005;
-54.3000;0.5975;2.8885;
-54.0000;0.5983;2.8909;
-53.7000;0.5967;2.8957;
-53.4000;0.6007;2.9053;
-53.1000;0.5991;2.9101;
-52.8000;0.6007;2.9053;
-52.5000;0.6089;2.9149;
-52.2000;0.6007;2.8909;
-51.9000;0.6024;2.8933;
-51.6000;0.6007;2.8957;
-51.3000;0.6015;2.8909;
-51.0000;0.6015;2.8885;
-50.7000;0.6032;2.8909;
-50.4000;0.6040;2.8933;
-50.1000;0.6032;2.8909;
-49.8000;0.6032;2.8933;
-49.5000;0.6032;2.8957;
-49.2000;0.6024;2.9005;
-48.9000;0.6056;2.8981;
-48.6000;0.6040;2.8885;
-48.3000;0.6040;2.8813;
-48.0000;0.6040;2.8861;
-47.7000;0.6048;2.8933;
-47.4000;0.6032;2.8885;
-47.1000;0.6048;2.8861;
-46.8000;0.6072;2.8957;
-46.5000;0.6032;2.8885;
-46.2000;0.6015;2.8789;
-45.9000;0.6056;2.8813;
-45.6000;0.6040;2.8717;
-45.3000;0.6024;2.8693;
-45.0000;0.6048;2.8861;
-44.7000;0.6048;2.8909;
-44.4000;0.6048;2.8909;
-44.1000;0.6056;2.8981;
-43.8000;0.6024;2.8981;
-43.5000;0.6072;2.9077;
-43.2000;0.6072;2.9101;
-42.9000;0.6097;2.9221;
-42.6000;0.6064;2.9173;
-42.3000;0.6072;2.9245;
-42.0000;0.6081;2.9101;
-41.7000;0.6081;2.8981;
-41.4000;0.6072;2.8957;
-41.1000;0.6081;2.8957;
-40.8000;0.6081;2.8789;
-40.5000;0.6072;2.8789;
-40.2000;0.6105;2.8813;
-39.9000;0.6089;2.8765;
-39.6000;0.6105;2.8813;
-39.3000;0.6105;2.8741;
-39.0000;0.6089;2.8741;
-38.7000;0.6129;2.8861;
-38.4000;0.6113;2.8861;
-38.1000;0.6121;2.8909;
-37.8000;0.6097;2.8789;
-37.5000;0.6121;2.8885;
-37.2000;0.6113;2.8861;
-36.9000;0.6105;2.8837;
-36.6000;0.6138;2.8885;
-36.3000;0.6121;2.8837;
-36.0000;0.6113;2.8741;
-35.7000;0.6121;2.8717;
-35.4000;0.6121;2.8717;
-35.1000;0.6121;2.8693;
-34.8000;0.6178;2.8813;
-34.5000;0.6129;2.8621;
-34.2000;0.6138;2.8717;
-33.9000;0.6146;2.8717;
-33.6000;0.6121;2.8693;
-33.3000;0.6105;2.8789;
-33.0000;0.6032;2.8549;
-32.7000;0.6146;2.8813;
-32.4000;0.6138;2.8789;
-32.1000;0.6138;2.8765;
-31.8000;0.6138;2.8645;
-31.5000;0.6154;2.8693;
-31.2000;0.6162;2.8645;
-30.9000;0.6162;2.8597;
-30.6000;0.6113;2.8381;
-30.3000;0.6154;2.8453;
-30.0000;0.6162;2.8501;
-29.7000;0.6162;2.8501;
-29.4000;0.6243;2.8741;
-29.1000;0.6162;2.8525;
-28.8000;0.6186;2.8501;
-28.5000;0.6243;2.8669;
-28.2000;0.6170;2.8501;
-27.9000;0.6162;2.8501;
-27.6000;0.6178;2.8501;
-27.3000;0.6211;2.8525;
-27.0000;0.6178;2.8429;
-26.7000;0.6178;2.8405;
-26.4000;0.6186;2.8525;
-26.1000;0.6186;2.8501;
-25.8000;0.6178;2.8477;
-25.5000;0.6195;2.8501;
-25.2000;0.6186;2.8525;
-24.9000;0.6186;2.8573;
-24.6000;0.6186;2.8525;
-24.3000;0.6211;2.8621;
-24.0000;0.6211;2.8597;
-23.7000;0.6203;2.8597;
-23.4000;0.6211;2.8597;
-23.1000;0.6203;2.8453;
-22.8000;0.6195;2.8333;
-22.5000;0.6219;2.8381;
-22.2000;0.6170;2.8237;
-21.9000;0.6195;2.8333;
-21.6000;0.6260;2.8501;
-21.3000;0.6203;2.8357;
-21.0000;0.6227;2.8429;
-20.7000;0.6227;2.8405;
-20.4000;0.6235;2.8477;
-20.1000;0.6227;2.8501;
-19.8000;0.6252;2.8573;
-19.5000;0.6252;2.8573;
-19.2000;0.6219;2.8525;
-18.9000;0.6235;2.8525;
-18.6000;0.6252;2.8525;
-18.3000;0.6227;2.8477;
-18.0000;0.6252;2.8429;
-17.7000;0.6235;2.8429;
-17.4000;0.6243;2.8429;
-17.1000;0.6252;2.8405;
-16.8000;0.6260;2.8477;
-16.5000;0.6243;2.8405;
-16.2000;0.6243;2.8429;
-15.9000;0.6276;2.8501;
-15.6000;0.6252;2.8501;
-15.3000;0.6268;2.8549;
-15.0000;0.6268;2.8621;
-14.7000;0.6268;2.8669;
-14.4000;0.6268;2.8645;
-14.1000;0.6268;2.8549;
-13.8000;0.6268;2.8645;
-13.5000;0.6268;2.8645;
-13.2000;0.6276;2.8621;
-12.9000;0.6260;2.8549;
-12.6000;0.6292;2.8621;
-12.3000;0.6300;2.8645;
-12.0000;0.6309;2.8621;
-11.7000;0.6300;2.8573;
-11.4000;0.6292;2.8525;
-11.1000;0.6317;2.8429;
-10.8000;0.6382;2.8573;
-10.5000;0.6284;2.8405;
-10.2000;0.6292;2.8501;
-9.9000;0.6300;2.8453;
-9.6000;0.6325;2.8453;
-9.3000;0.6284;2.8381;
-9.0000;0.6309;2.8501;
-8.7000;0.6300;2.8525;
-8.4000;0.6317;2.8549;
-8.1000;0.6325;2.8621;
-7.8000;0.6300;2.8525;
-7.5000;0.6317;2.8549;
-7.2000;0.6309;2.8405;
-6.9000;0.6325;2.8429;
-6.6000;0.6317;2.8429;
-6.3000;0.6317;2.8549;
-6.0000;0.6325;2.8525;
-5.7000;0.6309;2.8597;
-5.4000;0.6300;2.8477;
-5.1000;0.6333;2.8525;
-4.8000;0.6341;2.8477;
-4.5000;0.6341;2.8501;
-4.2000;0.6357;2.8621;
-3.9000;0.6390;2.8813;
-3.6000;0.6325;2.8717;
-3.3000;0.6276;2.8621;
-3.0000;0.6333;2.8717;
-2.7000;0.6317;2.8621;
-2.4000;0.6309;2.8645;
-2.1000;0.6349;2.8597;
-1.8000;0.6349;2.8669;
-1.5000;0.6333;2.8645;
-1.2000;0.6406;2.8765;
-0.9000;0.6333;2.8597;
-0.6000;0.6357;2.8621;
-0.3000;0.6325;2.8501;
0.0000;0.6325;2.8501;
0.3000;0.6528;2.8477;
0.6000;0.6789;2.8813;
0.9000;0.7057;2.9317;
1.2000;0.7179;2.9509;
1.5000;0.7326;2.9797;
1.8000;0.7448;2.9988;
2.1000;0.7627;3.0348;
2.4000;0.7586;3.0132;
2.7000;0.7660;3.0252;
3.0000;0.7725;3.0372;
3.3000;0.7757;3.0492;
3.6000;0.7782;3.0588;
3.9000;0.7831;3.0564;
4.2000;0.7863;3.0660;
4.5000;0.7896;3.0660;
4.8000;0.7831;3.0540;
5.1000;0.7912;3.0708;
5.4000;0.7937;3.0804;
5.7000;0.7977;3.0900;
6.0000;0.7977;3.0948;
6.3000;0.8002;3.1044;
6.6000;0.7993;3.1020;
6.9000;0.8034;3.1164;
7.2000;0.8042;3.1164;
7.5000;0.8059;3.1116;
7.8000;0.8050;3.1044;
8.1000;0.8059;3.1140;
8.4000;0.8099;3.1188;
8.7000;0.8107;3.1188;
9.0000;0.8107;3.1164;
9.3000;0.8116;3.1116;
9.6000;0.8181;3.1236;
9.9000;0.8140;3.0972;
10.2000;0.8148;3.0876;
10.5000;0.8164;3.0900;
10.8000;0.8173;3.0852;
11.1000;0.8173;3.0900;
11.4000;0.8189;3.0948;
11.7000;0.8197;3.0924;
12.0000;0.8238;3.0996;
12.3000;0.8213;3.0924;
12.6000;0.8205;3.0924;
12.9000;0.8230;3.0972;
13.2000;0.8238;3.0852;
13.5000;0.8246;3.0876;
13.8000;0.8254;3.0876;
14.1000;0.8262;3.0900;
14.4000;0.8287;3.0900;
14.7000;0.8295;3.0900;
15.0000;0.8287;3.0972;
15.3000;0.8287;3.1020;
15.6000;0.8303;3.1020;
15.9000;0.8295;3.1068;
16.2000;0.8295;3.0948;
16.5000;0.8311;3.0996;
16.8000;0.8319;3.1020;
17.1000;0.8344;3.0948;
17.4000;0.8344;3.0972;
17.7000;0.8335;3.0900;
18.0000;0.8360;3.0948;
18.3000;0.8384;3.1020;
18.6000;0.8466;3.1212;
18.9000;0.8368;3.0924;
19.2000;0.8368;3.0876;
19.5000;0.8392;3.0900;
19.8000;0.8482;3.1044;
20.1000;0.8392;3.0804;
20.4000;0.8409;3.0756;
20.7000;0.8409;3.0828;
21.0000;0.8433;3.0948;
21.3000;0.8417;3.0972;
21.6000;0.8425;3.0948;
21.9000;0.8425;3.0900;
22.2000;0.8425;3.0972;
22.5000;0.8441;3.0924;
22.8000;0.8441;3.0852;
23.1000;0.8441;3.0948;
23.4000;0.8441;3.0972;
23.7000;0.8441;3.0948;
24.0000;0.8457;3.0996;
24.3000;0.8474;3.0924;
24.6000;0.8466;3.0876;
24.9000;0.8466;3.0828;
25.2000;0.8466;3.0708;
25.5000;0.8474;3.0828;
25.8000;0.8474;3.0900;
26.1000;0.8506;3.0876;
26.4000;0.8498;3.0948;
26.7000;0.8547;3.1020;
27.0000;0.8498;3.0852;
27.3000;0.8523;3.0924;
27.6000;0.8514;3.0948;
27.9000;0.8514;3.0876;
28.2000;0.8523;3.0828;
28.5000;0.8514;3.0948;
28.8000;0.8498;3.0948;
29.1000;0.8514;3.0972;
29.4000;0.8506;3.0924;
29.7000;0.8588;3.1068;
30.0000;0.8531;3.0876;
30.3000;0.8539;3.0852;
30.6000;0.8539;3.0756;
30.9000;0.8547;3.0804;
31.2000;0.8571;3.0852;
31.5000;0.8547;3.0804;
31.8000;0.8563;3.0876;
32.1000;0.8547;3.0876;
32.4000;0.8563;3.0972;
32.7000;0.8547;3.0924;
33.0000;0.8555;3.0924;
33.3000;0.8571;3.1020;
33.6000;0.8571;3.1068;
33.9000;0.8563;3.1020;
34.2000;0.8498;3.0852;
34.5000;0.8555;3.0996;
34.8000;0.8669;3.1284;
35.1000;0.8580;3.1020;
35.4000;0.8596;3.1092;
35.7000;0.8571;3.0996;
36.0000;0.8580;3.1092;
36.3000;0.8563;3.1068;
36.6000;0.8580;3.1020;
36.9000;0.8653;3.1188;
37.2000;0.8604;3.1020;
37.5000;0.8612;3.1044;
37.8000;0.8628;3.1092;
38.1000;0.8604;3.0996;
38.4000;0.8612;3.0924;
38.7000;0.8637;3.0996;
39.0000;0.8620;3.0876;
39.3000;0.8612;3.0828;
39.6000;0.8588;3.0828;
39.9000;0.8612;3.0876;
40.2000;0.8620;3.0996;
40.5000;0.8620;3.0996;
40.8000;0.8604;3.0972;
41.1000;0.8628;3.0948;
41.4000;0.8637;3.1068;
41.7000;0.8628;3.1020;
42.0000;0.8637;3.1020;
42.3000;0.8637;3.0948;
42.6000;0.8620;3.0924;
42.9000;0.8637;3.1020;
43.2000;0.8653;3.0996;
43.5000;0.8669;3.1116;
43.8000;0.8620;3.0972;
44.1000;0.8645;3.1044;
44.4000;0.8637;3.1044;
44.7000;0.8628;3.0996;
45.0000;0.8677;3.1068;
45.3000;0.8669;3.1164;
45.6000;0.8718;3.1164;
45.9000;0.8661;3.1044;
46.2000;0.8669;3.1116;
46.5000;0.8685;3.1140;
46.8000;0.8694;3.1116;
47.1000;0.8669;3.1140;
47.4000;0.8637;3.0972;
47.7000;0.8694;3.1092;
48.0000;0.8677;3.0924;
48.3000;0.8669;3.0900;
48.6000;0.8759;3.1116;
48.9000;0.8669;3.0924;
49.2000;0.8677;3.0924;
49.5000;0.8677;3.0900;
49.8000;0.8677;3.0852;
50.1000;0.8694;3.0876;
50.4000;0.8726;3.0972;
50.7000;0.8685;3.0804;
51.0000;0.8685;3.0828;
51.3000;0.8702;3.0780;
51.6000;0.8694;3.0780;
51.9000;0.8694;3.0852;
52.2000;0.8685;3.0828;
52.5000;0.8685;3.0828;
52.8000;0.8702;3.0852;
53.1000;0.8726;3.0876;
53.4000;0.8677;3.0756;
53.7000;0.8669;3.0684;
54.0000;0.8702;3.0804;
54.3000;0.8710;3.0804;
54.6000;0.8710;3.0756;
54.9000;0.8718;3.0876;
55.2000;0.8726;3.0852;
55.5000;0.8702;3.0780;
55.8000;0.8710;3.0900;
56.1000;0.8710;3.0828;
56.4000;0.8759;3.0948;
56.7000;0.8726;3.0852;
57.0000;0.8734;3.0924;
57.3000;0.8694;3.0780;
57.6000;0.8718;3.0852;
57.9000;0.8751;3.0924;
58.2000;0.8734;3.0852;
58.5000;0.8734;3.0924;
58.8000;0.8726;3.0948;
59.1000;0.8710;3.0900;
59.4000;0.8702;3.0948;
59.7000;0.8726;3.0948;
60.0000;0.8694;3.0924;
60.3000;0.8734;3.1044;
60.6000;0.8734;3.1044;
60.9000;0.8702;3.0924;
61.2000;0.8734;3.1020;
61.5000;0.8742;3.1044;
61.8000;0.8742;3.0972;
62.1000;0.8726;3.0876;
62.4000;0.8726;3.0828;
62.7000;0.8751;3.0948;
63.0000;0.8726;3.0780;
63.3000;0.8694;3.0660;
63.6000;0.8734;3.0804;
63.9000;0.8751;3.0876;
64.2000;0.8742;3.0828;
64.5000;0.8694;3.0684;
64.8000;0.8734;3.0732;
65.1000;0.8742;3.0756;
65.4000;0.8734;3.0756;
65.7000;0.8742;3.0708;
66.0000;0.8718;3.0732;
66.3000;0.8742;3.0732;
66.6000;0.8734;3.0684;
66.9000;0.8759;3.0828;
67.2000;0.8734;3.0804;
67.5000;0.8726;3.0828;
67.8000;0.8734;3.0804;
68.1000;0.8742;3.0756;
68.4000;0.8759;3.0804;
68.7000;0.8726;3.0804;
69.0000;0.8742;3.0804;
69.3000;0.8751;3.0780;
69.6000;0.8759;3.0852;
69.9000;0.8742;3.0900;
70.2000;0.8718;3.0780;
70.5000;0.8751;3.0804;
70.8000;0.8759;3.0828;
71.1000;0.8759;3.0900;
71.4000;0.8759;3.0780;
71.7000;0.8751;3.0708;
72.0000;0.8767;3.0780;
72.3000;0.8767;3.0900;
72.6000;0.8751;3.0876;
72.9000;0.8783;3.0924;
73.2000;0.8759;3.0756;
73.5000;0.8742;3.0684;
73.8000;0.8767;3.0660;
74.1000;0.8767;3.0684;
74.4000;0.8799;3.0780;
74.7000;0.8783;3.0804;
75.0000;0.8694;3.0540;
75.3000;0.8759;3.0732;
75.6000;0.8767;3.0804;
75.9000;0.8710;3.0756;
76.2000;0.8751;3.0948;
76.5000;0.8751;3.0852;
76.8000;0.8759;3.0852;
77.1000;0.8734;3.0756;
77.4000;0.8759;3.0780;
77.7000;0.8702;3.0612;
78.0000;0.8759;3.0660;
78.3000;0.8767;3.0780;
78.6000;0.8751;3.0732;
78.9000;0.8783;3.0780;
79.2000;0.8742;3.0732;
79.5000;0.8767;3.0780;
79.8000;0.8767;3.0804;
80.1000;0.8734;3.0780;
80.4000;0.8767;3.0828;
80.7000;0.8775;3.0732;
81.0000;0.8775;3.0732;
81.3000;0.8775;3.0780;
81.6000;0.8791;3.0900;
81.9000;0.8767;3.0852;
82.2000;0.8799;3.0972;
82.5000;0.8767;3.0924;
82.8000;0.8751;3.0924;
83.1000;0.8767;3.0996;
83.4000;0.8799;3.0996;
83.7000;0.8775;3.0924;
84.0000;0.8718;3.0804;
84.3000;0.8775;3.0996;
84.6000;0.8767;3.1044;
84.9000;0.8775;3.1068;
85.2000;0.8767;3.0996;
85.5000;0.8775;3.0900;
85.8000;0.8767;3.0876;
86.1000;0.8791;3.0924;
86.4000;0.8751;3.0780;
86.7000;0.8791;3.0876;
87.0000;0.8759;3.0828;
87.3000;0.8767;3.0756;
87.6000;0.8775;3.0660;
87.9000;0.8783;3.0612;
88.2000;0.8783;3.0588;
88.5000;0.8767;3.0492;
88.8000;0.8783;3.0516;
89.1000;0.8775;3.0516;
89.4000;0.8751;3.0468;
89.7000;0.8783;3.0660;
90.0000;0.8791;3.0732;
90.3000;0.8775;3.0708;
90.6000;0.8783;3.0636;
90.9000;0.8775;3.0660;
91.2000;0.8816;3.0756;
91.5000;0.8775;3.0708;
91.8000;0.8791;3.0828;
92.1000;0.8791;3.0756;
92.4000;0.8783;3.0708;
92.7000;0.8783;3.0660;
93.0000;0.8791;3.0684;
93.3000;0.8848;3.0852;
93.6000;0.8832;3.0900;
93.9000;0.8767;3.0780;
94.2000;0.8775;3.0876;
94.5000;0.8799;3.0948;
94.8000;0.8791;3.0852;
95.1000;0.8783;3.0828;
95.4000;0.8799;3.0876;
95.7000;0.8775;3.0732;
96.0000;0.8783;3.0756;
96.3000;0.8791;3.0732;
96.6000;0.8783;3.0756;
96.9000;0.8848;3.0804;
97.2000;0.8783;3.0660;
97.5000;0.8799;3.0708;
97.8000;0.8751;3.0540;
98.1000;0.8783;3.0660;
98.4000;0.8791;3.0636;
98.7000;0.8791;3.0636;
99.0000;0.8767;3.0588;
99.3000;0.8791;3.0660;
99.6000;0.8791;3.0612;
99.9000;0.8791;3.0636;
100.2000;0.8807;3.0804;
100.5000;0.8799;3.0828;
100.8000;0.8775;3.0756;
101.1000;0.8799;3.0804;
101.4000;0.8807;3.0876;
101.7000;0.8799;3.0804;
102.0000;0.8799;3.0780;
102.3000;0.8807;3.0804;
102.6000;0.8807;3.0828;
102.9000;0.8816;3.0828;
103.2000;0.8791;3.0828;
103.5000;0.8799;3.0804;
103.8000;0.8791;3.0828;
104.1000;0.8799;3.0828;
104.4000;0.8799;3.0852;
104.7000;0.8816;3.0756;
105.0000;0.8799;3.0684;
105.3000;0.8816;3.0708;
105.6000;0.8799;3.0708;
105.9000;0.8783;3.0756;
106.2000;0.8799;3.0828;
106.5000;0.8816;3.0876;
106.8000;0.8816;3.0972;
107.1000;0.8832;3.0972;
107.4000;0.8816;3.1020;
107.7000;0.8816;3.1020;
108.0000;0.8807;3.0972;
108.3000;0.8799;3.0948;
108.6000;0.8832;3.0996;
108.9000;0.8783;3.0804;
109.2000;0.8783;3.0828;
109.5000;0.8848;3.1092;
109.8000;0.8767;3.0828;
110.1000;0.8775;3.0852;
110.4000;0.8889;3.1044;
110.7000;0.8783;3.0804;
111.0000;0.8799;3.0804;
111.3000;0.8807;3.0804;
111.6000;0.8807;3.0828;
111.9000;0.8799;3.0852;
112.2000;0.8807;3.0900;
112.5000;0.8832;3.0756;
112.8000;0.8742;3.0612;
113.1000;0.8807;3.0732;
113.4000;0.8775;3.0660;
113.7000;0.8807;3.0732;
114.0000;0.8807;3.0660;
114.3000;0.8799;3.0732;
114.6000;0.8824;3.0828;
114.9000;0.8799;3.0780;
115.2000;0.8816;3.0780;
115.5000;0.8799;3.0756;
115.8000;0.8807;3.0852;
116.1000;0.8807;3.0852;
116.4000;0.8807;3.0876;
116.7000;0.8791;3.0900;
117.0000;0.8759;3.0924;
117.3000;0.8848;3.1236;
117.6000;0.8807;3.1212;
117.9000;0.8799;3.1140;
118.2000;0.8775;3.0996;
118.5000;0.8799;3.1068;
118.8000;0.8824;3.1044;
119.1000;0.8816;3.0972;
119.4000;0.8783;3.0924;
119.7000;0.8783;3.0852;
120.0000;0.8807;3.0924;
120.3000;0.8799;3.0900;
120.6000;0.8799;3.0948;
120.9000;0.8807;3.0996;
121.2000;0.8807;3.0900;
121.5000;0.8799;3.0828;
121.8000;0.8799;3.0828;
122.1000;0.8799;3.0804;
122.4000;0.8816;3.0876;
122.7000;0.8824;3.0924;
123.0000;0.8799;3.0828;
123.3000;0.8799;3.0828;
123.6000;0.8791;3.0828;
123.9000;0.8816;3.0876;
124.2000;0.8807;3.0828;
124.5000;0.8856;3.0948;
124.8000;0.8824;3.0852;
125.1000;0.8848;3.0900;
125.4000;0.8807;3.0780;
125.7000;0.8816;3.0852;
126.0000;0.8832;3.0780;
126.3000;0.8824;3.0708;
126.6000;0.8816;3.0636;
126.9000;0.8824;3.0588;
127.2000;0.8816;3.0564;
127.5000;0.8840;3.0588;
127.8000;0.8824;3.0636;
128.1000;0.8840;3.0708;
128.4000;0.8832;3.0660;
128.7000;0.8807;3.0636;
129.0000;0.8807;3.0684;
129.3000;0.8807;3.0684;
129.6000;0.8807;3.0636;
129.9000;0.8840;3.0732;
130.2000;0.8807;3.0684;
130.5000;0.8791;3.0732;
130.8000;0.8710;3.0540;
131.1000;0.8807;3.0804;
131.4000;0.8807;3.0828;
131.7000;0.8832;3.0828;
132.0000;0.8791;3.0900;
132.3000;0.8807;3.0972;
132.6000;0.8856;3.1020;
132.9000;0.8726;3.0636;
133.2000;0.8824;3.0756;
133.5000;0.8783;3.0780;
133.8000;0.8905;3.1116;
134.1000;0.8840;3.0924;
134.4000;0.8807;3.0876;
134.7000;0.8824;3.0924;
135.0000;0.8816;3.0828;
135.3000;0.8807;3.0828;
135.6000;0.8816;3.0804;
135.9000;0.8816;3.0756;
136.2000;0.8816;3.0780;
136.5000;0.8832;3.0828;
136.8000;0.8824;3.0780;
137.1000;0.8832;3.0828;
137.4000;0.8807;3.0804;
137.7000;0.8791;3.0828;
138.0000;0.8905;3.1116;
138.3000;0.8799;3.0828;
138.6000;0.8759;3.0756;
138.9000;0.8816;3.0852;
139.2000;0.8816;3.0876;
139.5000;0.8807;3.0900;
139.8000;0.8791;3.0900;
140.1000;0.8799;3.0900;
140.4000;0.8807;3.0876;
140.7000;0.8799;3.0804;
141.0000;0.8807;3.0948;
141.3000;0.8816;3.0924;
141.6000;0.8816;3.0924;
141.9000;0.8848;3.0924;
142.2000;0.8816;3.0876;
142.5000;0.8816;3.0948;
142.8000;0.8832;3.0996;
143.1000;0.8824;3.0996;
143.4000;0.8791;3.0900;
143.7000;0.8799;3.0948;
144.0000;0.8791;3.0972;
144.3000;0.8807;3.0924;
144.6000;0.8816;3.0900;
144.9000;0.8799;3.0804;
145.2000;0.8824;3.0852;
145.5000;0.8832;3.0804;
145.8000;0.8816;3.0828;
146.1000;0.8807;3.0804;
146.4000;0.8791;3.0828;
146.7000;0.8816;3.0972;
147.0000;0.8807;3.1020;
147.3000;0.8799;3.0996;
147.6000;0.8816;3.1068;
147.9000;0.8807;3.1020;
148.2000;0.8799;3.0948;
148.5000;0.8799;3.0900;
148.8000;0.8807;3.0996;
149.1000;0.8807;3.1020;
149.4000;0.8799;3.1044;
149.7000;0.8913;3.1308;
150.0000;0.8734;3.0852;
150.3000;0.8751;3.0948;
150.6000;0.8799;3.1068;
150.9000;0.8799;3.1092;
151.2000;0.8783;3.1140;
151.5000;0.8783;3.1092;
151.8000;0.8816;3.1092;
152.1000;0.8816;3.0972;
152.4000;0.8742;3.0804;
152.7000;0.8807;3.0876;
153.0000;0.8791;3.0756;
153.3000;0.8775;3.0732;
153.6000;0.8799;3.0756;
153.9000;0.8824;3.0804;
154.2000;0.8799;3.0756;
154.5000;0.8799;3.0780;
154.8000;0.8799;3.0948;
155.1000;0.8816;3.0924;
155.4000;0.8783;3.0900;
155.7000;0.8799;3.0924;
156.0000;0.8807;3.0900;
156.3000;0.8791;3.0780;
156.6000;0.8783;3.0732;
156.9000;0.8807;3.0780;
157.2000;0.8799;3.0756;
157.5000;0.8807;3.0780;
157.8000;0.8816;3.0852;
158.1000;0.8807;3.0900;
158.4000;0.8816;3.0948;
158.7000;0.8832;3.0900;
159.0000;0.8816;3.0756;
159.3000;0.8799;3.0876;
159.6000;0.8905;3.1236;
159.9000;0.8799;3.1020;
160.2000;0.8799;3.0948;
160.5000;0.8799;3.0948;
160.8000;0.8799;3.0972;
161.1000;0.8832;3.0900;
161.4000;0.8799;3.0756;
161.7000;0.8791;3.0756;
162.0000;0.8807;3.0804;
162.3000;0.8816;3.0876;
162.6000;0.8816;3.0876;
162.9000;0.8816;3.0900;
163.2000;0.8783;3.0852;
163.5000;0.8816;3.0804;
163.8000;0.8832;3.0828;
164.1000;0.8807;3.0780;
164.4000;0.8791;3.0780;
164.7000;0.8799;3.0780;
165.0000;0.8816;3.0780;
165.3000;0.8783;3.0708;
165.6000;0.8807;3.0780;
165.9000;0.8807;3.0828;
166.2000;0.8791;3.0804;
166.5000;0.8832;3.0900;
166.8000;0.8816;3.0876;
167.1000;0.8816;3.0804;
167.4000;0.8832;3.0804;
167.7000;0.8751;3.0684;
168.0000;0.8807;3.0756;
168.3000;0.8807;3.0732;
168.6000;0.8807;3.0636;
168.9000;0.8840;3.0708;
169.2000;0.8791;3.0564;
169.5000;0.8775;3.0516;
169.8000;0.8799;3.0540;
170.1000;0.8799;3.0516;
170.4000;0.8832;3.0660;
170.7000;0.8807;3.0612;
171.0000;0.8824;3.0684;
171.3000;0.8807;3.0636;
171.6000;0.8824;3.0612;
171.9000;0.8816;3.0756;
172.2000;0.8840;3.0852;
172.5000;0.8767;3.0636;
172.8000;0.8824;3.0828;
173.1000;0.8807;3.0900;
173.4000;0.8816;3.0900;
173.7000;0.8832;3.0972;
174.0000;0.8791;3.0924;
174.3000;0.8791;3.0852;
174.6000;0.8816;3.0732;
174.9000;0.8840;3.0804;
175.2000;0.8799;3.0636;
175.5000;0.8832;3.0732;
175.8000;0.8824;3.0756;
176.1000;0.8824;3.0852;
176.4000;0.8759;3.0708;
176.7000;0.8783;3.0852;
177.0000;0.8807;3.0924;
177.3000;0.8824;3.0948;
177.6000;0.8832;3.0924;
177.9000;0.8816;3.0924;
178.2000;0.8799;3.0876;
178.5000;0.8824;3.0972;
178.8000;0.8824;3.1044;
179.1000;0.8824;3.1020;
179.4000;0.8751;3.0804;
179.7000;0.8824;3.0924;
180.0000;0.8807;3.0876;
180.3000;0.8775;3.0852;
180.6000;0.8807;3.0972;
180.9000;0.8807;3.1020;
181.2000;0.8807;3.1044;
181.5000;0.8824;3.1020;
181.8000;0.8832;3.1020;
182.1000;0.8799;3.0948;
182.4000;0.8816;3.1092;
182.7000;0.8816;3.1140;
183.0000;0.8816;3.1140;
183.3000;0.8791;3.1044;
183.6000;0.8799;3.0972;
183.9000;0.8791;3.1068;
184.2000;0.8783;3.1044;
184.5000;0.8799;3.1092;
184.8000;0.8775;3.0972;
185.1000;0.8799;3.0972;
185.4000;0.8783;3.0924;
185.7000;0.8848;3.1020;
186.0000;0.8816;3.0948;
186.3000;0.8791;3.0876;
186.6000;0.8832;3.0972;
186.9000;0.8807;3.0948;
187.2000;0.8816;3.0876;
187.5000;0.8816;3.0828;
187.8000;0.8807;3.0828;
188.1000;0.8816;3.0828;
188.4000;0.8832;3.0780;
188.7000;0.8799;3.0780;
189.0000;0.8824;3.0804;
189.3000;0.8742;3.0708;
189.6000;0.8816;3.0804;
189.9000;0.8816;3.0828;
190.2000;0.8807;3.0948;
190.5000;0.8807;3.0900;
190.8000;0.8824;3.0948;
191.1000;0.8799;3.0900;
191.4000;0.8807;3.0876;
191.7000;0.8791;3.0852;
192.0000;0.8783;3.0852;
192.3000;0.8816;3.0804;
192.6000;0.8710;3.0564;
192.9000;0.8767;3.0828;
193.2000;0.8807;3.0924;
193.5000;0.8807;3.0996;
193.8000;0.8816;3.1020;
194.1000;0.8807;3.0948;
194.4000;0.8791;3.0924;
194.7000;0.8791;3.0948;
195.0000;0.8873;3.1068;
195.3000;0.8832;3.0972;
195.6000;0.8816;3.1068;
195.9000;0.8799;3.0996;
196.2000;0.8873;3.1284;
196.5000;0.8799;3.1116;
196.8000;0.8807;3.1140;
197.1000;0.8783;3.1092;
197.4000;0.8791;3.1164;
197.7000;0.8799;3.1164;
198.0000;0.8791;3.1140;
198.3000;0.8791;3.0996;
198.6000;0.8791;3.0996;
198.9000;0.8791;3.1044;
199.2000;0.8816;3.1044;
199.5000;0.8799;3.0972;
199.8000;0.8791;3.0948;
200.1000;0.8791;3.0900;
200.4000;0.8824;3.0900;
200.7000;0.8832;3.0852;
201.0000;0.8807;3.0708;
201.3000;0.8816;3.0708;
201.6000;0.8840;3.0660;
201.9000;0.8807;3.0588;
202.2000;0.8791;3.0516;
202.5000;0.8807;3.0636;
202.8000;0.8824;3.0732;
203.1000;0.8767;3.0684;
203.4000;0.8783;3.0756;
203.7000;0.8775;3.0780;
204.0000;0.8791;3.0756;
204.3000;0.8799;3.0780;
204.6000;0.8726;3.0612;
204.9000;0.8742;3.0732;
205.2000;0.8759;3.0828;
205.5000;0.8799;3.0900;
205.8000;0.8799;3.0972;
206.1000;0.8864;3.1140;
206.4000;0.8799;3.0972;
206.7000;0.8816;3.0996;
207.0000;0.8840;3.0972;
207.3000;0.8791;3.0876;
207.6000;0.8791;3.0996;
207.9000;0.8734;3.0900;
208.2000;0.8799;3.1164;
208.5000;0.8783;3.1164;
208.8000;0.8759;3.1020;
209.1000;0.8807;3.1236;
209.4000;0.8816;3.1308;
209.7000;0.8726;3.1164;
210.0000;0.8783;3.1356;
210.3000;0.8791;3.1332;
210.6000;0.8799;3.1260;
210.9000;0.8816;3.1212;
211.2000;0.8807;3.1164;
211.5000;0.8832;3.1140;
211.8000;0.8799;3.1116;
212.1000;0.8791;3.1092;
212.4000;0.8816;3.1164;
212.7000;0.8791;3.1092;
213.0000;0.8799;3.1044;
213.3000;0.8799;3.1044;
213.6000;0.8799;3.1068;
213.9000;0.8799;3.0996;
214.2000;0.8799;3.1020;
214.5000;0.8832;3.1140;
214.8000;0.8783;3.1068;
215.1000;0.8824;3.1140;
215.4000;0.8816;3.1044;
215.7000;0.8791;3.0924;
216.0000;0.8783;3.0924;
216.3000;0.8807;3.0972;
216.6000;0.8783;3.0924;
216.9000;0.8799;3.1020;
217.2000;0.8799;3.1020;
217.5000;0.8807;3.0972;
217.8000;0.8807;3.0996;
218.1000;0.8832;3.1020;
218.4000;0.8718;3.0684;
218.7000;0.8791;3.0900;
219.0000;0.8783;3.0828;
219.3000;0.8791;3.0828;
219.6000;0.8799;3.0732;
219.9000;0.8775;3.0732;
220.2000;0.8791;3.0852;
220.5000;0.8791;3.0948;
220.8000;0.8791;3.0924;
221.1000;0.8791;3.0804;
221.4000;0.8848;3.0972;
221.7000;0.8824;3.0972;
222.0000;0.8791;3.0972;
222.3000;0.8791;3.1020;
222.6000;0.8816;3.1044;
222.9000;0.8791;3.1020;
223.2000;0.8791;3.1020;
223.5000;0.8824;3.1068;
223.8000;0.8791;3.0972;
224.1000;0.8807;3.1020;
224.4000;0.8832;3.1020;
224.7000;0.8799;3.1020;
225.0000;0.8799;3.0996;
225.3000;0.8799;3.0996;
225.6000;0.8791;3.0972;
225.9000;0.8816;3.1092;
226.2000;0.8799;3.1068;
226.5000;0.8799;3.1116;
226.8000;0.8799;3.1116;
227.1000;0.8807;3.1044;
227.4000;0.8791;3.0972;
227.7000;0.8767;3.0924;
228.0000;0.8783;3.0996;
228.3000;0.8799;3.0900;
228.6000;0.8759;3.0804;
228.9000;0.8783;3.0996;
229.2000;0.8807;3.1044;
229.5000;0.8791;3.1020;
229.8000;0.8807;3.0996;
230.1000;0.8816;3.0996;
230.4000;0.8807;3.0996;
230.7000;0.8881;3.1260;
231.0000;0.8807;3.1068;
231.3000;0.8816;3.1068;
231.6000;0.8832;3.1116;
231.9000;0.8799;3.0996;
232.2000;0.8799;3.0948;
232.5000;0.8807;3.1020;
232.8000;0.8807;3.1044;
233.1000;0.8807;3.1092;
233.4000;0.8807;3.1092;
233.7000;0.8799;3.1140;
234.0000;0.8807;3.1164;
234.3000;0.8799;3.1188;
234.6000;0.8791;3.1116;
234.9000;0.8791;3.1020;
235.2000;0.8791;3.1020;
235.5000;0.8759;3.0924;
235.8000;0.8807;3.1020;
236.1000;0.8759;3.0876;
236.4000;0.8848;3.0972;
236.7000;0.8783;3.0900;
237.0000;0.8791;3.0924;
237.3000;0.8791;3.0852;
237.6000;0.8807;3.0996;
237.9000;0.8775;3.1020;
238.2000;0.8807;3.1044;
238.5000;0.8799;3.0996;
238.8000;0.8751;3.0828;
239.1000;0.8799;3.0948;
239.4000;0.8791;3.0900;
239.7000;0.8807;3.0900;
240.0000;0.8783;3.0876;
240.3000;0.8824;3.1020;
240.6000;0.8775;3.0924;
240.9000;0.8775;3.0948;
241.2000;0.8767;3.0900;
241.5000;0.8783;3.0900;
241.8000;0.8799;3.0948;
242.1000;0.8816;3.0996;
242.4000;0.8775;3.0948;
242.7000;0.8799;3.0996;
243.0000;0.8783;3.0996;
243.3000;0.8799;3.1020;
243.6000;0.8799;3.0996;
243.9000;0.8807;3.0972;
244.2000;0.8791;3.0996;
244.5000;0.8832;3.1092;
244.8000;0.8832;3.1044;
245.1000;0.8783;3.0996;
245.4000;0.8783;3.1020;
245.7000;0.8799;3.1020;
246.0000;0.8832;3.0948;
246.3000;0.8759;3.0876;
246.6000;0.8807;3.0972;
246.9000;0.8775;3.0924;
247.2000;0.8791;3.0900;
247.5000;0.8856;3.0996;
247.8000;0.8816;3.0828;
248.1000;0.8702;3.0708;
248.4000;0.8759;3.0876;
248.7000;0.8775;3.0924;
249.0000;0.8767;3.0876;
249.3000;0.8783;3.0852;
249.6000;0.8791;3.0780;
249.9000;0.8775;3.0756;
250.2000;0.8710;3.0564;
250.5000;0.8791;3.0852;
250.8000;0.8856;3.1068;
251.1000;0.8759;3.0852;
251.4000;0.8807;3.0948;
251.7000;0.8848;3.1164;
252.0000;0.8799;3.1068;
252.3000;0.8751;3.1044;
252.6000;0.8807;3.1236;
252.9000;0.8783;3.1164;
253.2000;0.8783;3.1092;
253.5000;0.8807;3.1092;
253.8000;0.8799;3.0996;
254.1000;0.8791;3.1044;
254.4000;0.8807;3.1068;
254.7000;0.8807;3.1164;
255.0000;0.8824;3.1236;
255.3000;0.8791;3.1236;
255.6000;0.8783;3.1284;
255.9000;0.8791;3.1332;
256.2000;0.8799;3.1284;
256.5000;0.8791;3.1236;
256.8000;0.8783;3.1164;
257.1000;0.8799;3.1212;
257.4000;0.8783;3.1236;
257.7000;0.8807;3.1284;
258.0000;0.8791;3.1116;
258.3000;0.8783;3.1092;
258.6000;0.8824;3.1236;
258.9000;0.8816;3.1212;
259.2000;0.8807;3.1164;
259.5000;0.8799;3.1188;
259.8000;0.8807;3.1212;
260.1000;0.8799;3.1236;
260.4000;0.8775;3.1236;
260.7000;0.8816;3.1332;
261.0000;0.8783;3.1308;
261.3000;0.8775;3.1236;
261.6000;0.8783;3.1188;
261.9000;0.8767;3.1236;
262.2000;0.8783;3.1212;
262.5000;0.8791;3.1140;
262.8000;0.8783;3.1188;
263.1000;0.8791;3.1260;
263.4000;0.8775;3.1260;
263.7000;0.8775;3.1188;
264.0000;0.8783;3.1188;
264.3000;0.8767;3.1068;
264.6000;0.8775;3.1068;
264.9000;0.8775;3.1092;
265.2000;0.8775;3.1188;
265.5000;0.8767;3.1260;
265.8000;0.8775;3.1212;
266.1000;0.8791;3.1260;
266.4000;0.8791;3.1308;
266.7000;0.8807;3.1212;
267.0000;0.8775;3.1092;
267.3000;0.8783;3.1140;
267.6000;0.8799;3.1260;
267.9000;0.8783;3.1188;
268.2000;0.8799;3.1212;
268.5000;0.8791;3.1212;
268.8000;0.8783;3.1188;
269.1000;0.8775;3.1116;
269.4000;0.8775;3.1212;
269.7000;0.8807;3.1332;
270.0000;0.8718;3.1116;
270.3000;0.8783;3.1212;
270.6000;0.8799;3.1212;
270.9000;0.8783;3.1188;
271.2000;0.8759;3.1116;
271.5000;0.8791;3.1164;
271.8000;0.8775;3.1092;
272.1000;0.8791;3.0972;
272.4000;0.8775;3.1044;
272.7000;0.8791;3.1164;
273.0000;0.8783;3.1140;
273.3000;0.8767;3.1044;
273.6000;0.8759;3.0996;
273.9000;0.8775;3.1092;
274.2000;0.8759;3.1140;
274.5000;0.8751;3.1236;
274.8000;0.8840;3.1500;
275.1000;0.8775;3.1332;
275.4000;0.8767;3.1332;
275.7000;0.8767;3.1308;
276.0000;0.8775;3.1260;
276.3000;0.8783;3.1356;
276.6000;0.8783;3.1284;
276.9000;0.8783;3.1260;
277.2000;0.8734;3.1092;
277.5000;0.8775;3.1212;
277.8000;0.8799;3.1308;
278.1000;0.8783;3.1308;
278.4000;0.8791;3.1332;
278.7000;0.8767;3.1356;
279.0000;0.8775;3.1332;
279.3000;0.8799;3.1236;
279.6000;0.8783;3.1188;
279.9000;0.8791;3.1284;
280.2000;0.8799;3.1356;
280.5000;0.8791;3.1428;
280.8000;0.8767;3.1332;
281.1000;0.8742;3.1260;
281.4000;0.8775;3.1308;
281.7000;0.8807;3.1332;
282.0000;0.8775;3.1260;
282.3000;0.8799;3.1332;
282.6000;0.8799;3.1212;
282.9000;0.8832;3.1236;
283.2000;0.8799;3.1212;
283.5000;0.8783;3.1140;
283.8000;0.8816;3.1212;
284.1000;0.8799;3.1212;
284.4000;0.8734;3.1044;
284.7000;0.8775;3.1020;
285.0000;0.8775;3.0948;
285.3000;0.8783;3.0924;
285.6000;0.8767;3.0852;
285.9000;0.8824;3.0948;
286.2000;0.8767;3.0948;
286.5000;0.8775;3.1020;
286.8000;0.8791;3.1044;
287.1000;0.8775;3.0876;
287.4000;0.8767;3.0828;
287.7000;0.8799;3.0924;
288.0000;0.8791;3.0972;
288.3000;0.8791;3.1068;
288.6000;0.8783;3.1020;
288.9000;0.8799;3.1068;
289.2000;0.8791;3.1044;
289.5000;0.8783;3.0972;
289.8000;0.8775;3.0996;
290.1000;0.8783;3.0996;
290.4000;0.8791;3.1044;
290.7000;0.8783;3.1092;
291.0000;0.8783;3.1092;
291.3000;0.8783;3.1020;
291.6000;0.8807;3.0972;
291.9000;0.8864;3.1140;
292.2000;0.8816;3.1068;
292.5000;0.8799;3.1068;
292.8000;0.8783;3.1020;
293.1000;0.8791;3.1116;
293.4000;0.8767;3.1020;
293.7000;0.8799;3.1116;
294.0000;0.8759;3.0972;
294.3000;0.8775;3.1020;
294.6000;0.8767;3.0972;
294.9000;0.8791;3.0996;
295.2000;0.8710;3.0756;
295.5000;0.8775;3.0900;
295.8000;0.8767;3.0852;
296.1000;0.8775;3.0828;
296.4000;0.8775;3.0900;
296.7000;0.8726;3.0780;
297.0000;0.8799;3.0924;
297.3000;0.8873;3.1092;
297.6000;0.8759;3.0876;
297.9000;0.8783;3.1020;
298.2000;0.8807;3.1140;
298.5000;0.8799;3.1116;
298.8000;0.8751;3.0972;
299.1000;0.8783;3.1068;
299.4000;0.8775;3.1044;
299.7000;0.8799;3.1068;
300.0000;0.8767;3.0996;
300.3000;0.8783;3.0996;
300.6000;0.8799;3.1092;
300.9000;0.8783;3.1020;
301.2000;0.8791;3.0996;
301.5000;0.8767;3.0948;
301.8000;0.8791;3.1020;
302.1000;0.8751;3.0900;
302.4000;0.8775;3.0900;
302.7000;0.8759;3.0780;
303.0000;0.8775;3.0804;
303.3000;0.8767;3.0780;
303.6000;0.8751;3.0876;
303.9000;0.8807;3.0996;
304.2000;0.8799;3.1020;
304.5000;0.8807;3.1044;
304.8000;0.8783;3.1044;
305.1000;0.8767;3.1068;
305.4000;0.8759;3.1164;
305.7000;0.8767;3.1260;
306.0000;0.8767;3.1284;
306.3000;0.8791;3.1332;
306.6000;0.8775;3.1212;
306.9000;0.8791;3.1260;
307.2000;0.8767;3.1212;
307.5000;0.8799;3.1308;
307.8000;0.8734;3.1092;
308.1000;0.8775;3.1068;
308.4000;0.8751;3.0924;
308.7000;0.8759;3.0900;
309.0000;0.8816;3.1164;
309.3000;0.8702;3.0996;
309.6000;0.8824;3.1260;
309.9000;0.8767;3.1044;
310.2000;0.8661;3.0876;
310.5000;0.8816;3.1236;
310.8000;0.8767;3.1164;
311.1000;0.8783;3.1116;
311.4000;0.8775;3.1044;
311.7000;0.8751;3.0996;
312.0000;0.8775;3.1020;
312.3000;0.8759;3.1092;
312.6000;0.8775;3.1164;
312.9000;0.8775;3.1284;
313.2000;0.8759;3.1260;
313.5000;0.8791;3.1284;
313.8000;0.8726;3.1020;
314.1000;0.8767;3.0996;
314.4000;0.8775;3.1116;
314.7000;0.8791;3.1164;
315.0000;0.8791;3.1188;
315.3000;0.8791;3.1260;
315.6000;0.8783;3.1164;
315.9000;0.8799;3.1164;
316.2000;0.8783;3.1236;
316.5000;0.8783;3.1284;
316.8000;0.8783;3.1356;
317.1000;0.8840;3.1476;
317.4000;0.8783;3.1308;
317.7000;0.8832;3.1356;
318.0000;0.8824;3.1332;
318.3000;0.8775;3.1188;
318.6000;0.8799;3.1212;
318.9000;0.8783;3.1164;
319.2000;0.8775;3.1092;
319.5000;0.8710;3.0924;
319.8000;0.8791;3.1116;
320.1000;0.8775;3.1116;
320.4000;0.8791;3.1164;
320.7000;0.8856;3.1428;
321.0000;0.8767;3.1260;
321.3000;0.8759;3.1260;
321.6000;0.8767;3.1308;
321.9000;0.8767;3.1332;
322.2000;0.8775;3.1380;
322.5000;0.8767;3.1332;
322.8000;0.8726;3.1140;
323.1000;0.8734;3.1116;
323.4000;0.8807;3.1260;
323.7000;0.8783;3.1236;
324.0000;0.8848;3.1380;
324.3000;0.8783;3.1284;
324.6000;0.8783;3.1332;
324.9000;0.8783;3.1284;
325.2000;0.8767;3.1260;
325.5000;0.8767;3.1212;
325.8000;0.8783;3.1212;
326.1000;0.8783;3.1284;
326.4000;0.8775;3.1308;
326.7000;0.8783;3.1260;
327.0000;0.8775;3.1260;
327.3000;0.8767;3.1236;
327.6000;0.8767;3.1236;
327.9000;0.8759;3.1188;
328.2000;0.8767;3.1260;
328.5000;0.8710;3.1164;
328.8000;0.8734;3.1284;
329.1000;0.8751;3.1260;
329.4000;0.8751;3.1140;
329.7000;0.8751;3.1164;
330.0000;0.8807;3.1284;
330.3000;0.8759;3.1188;
330.6000;0.8775;3.1260;
330.9000;0.8791;3.1380;
331.2000;0.8783;3.1332;
331.5000;0.8783;3.1236;
331.8000;0.8767;3.1164;
332.1000;0.8767;3.1236;
332.4000;0.8783;3.1260;
332.7000;0.8791;3.1356;
333.0000;0.8759;3.1308;
333.3000;0.8783;3.1332;
333.6000;0.8767;3.1356;
333.9000;0.8783;3.1404;
334.2000;0.8783;3.1332;
334.5000;0.8775;3.1284;
334.8000;0.8775;3.1284;
335.1000;0.8775;3.1260;
335.4000;0.8759;3.1164;
335.7000;0.8751;3.1188;
336.0000;0.8759;3.1140;
336.3000;0.8767;3.1116;
336.6000;0.8775;3.1116;
336.9000;0.8767;3.1164;
337.2000;0.8767;3.1140;
337.5000;0.8767;3.1092;
337.8000;0.8759;3.1140;
338.1000;0.8767;3.1140;
338.4000;0.8783;3.1116;
338.7000;0.8807;3.1188;
339.0000;0.8767;3.1164;
339.3000;0.8751;3.1164;
339.6000;0.8759;3.1140;
339.9000;0.8775;3.1044;
340.2000;0.8783;3.1044;
340.5000;0.8767;3.0996;
340.8000;0.8783;3.0972;
341.1000;0.8791;3.1044;
341.4000;0.8783;3.1068;
341.7000;0.8767;3.1092;
342.0000;0.8791;3.1092;
342.3000;0.8710;3.0828;
342.6000;0.8742;3.1020;
342.9000;0.8783;3.1164;
343.2000;0.8742;3.1116;
343.5000;0.8783;3.1308;
343.8000;0.8791;3.1428;
344.1000;0.8799;3.1404;
344.4000;0.8775;3.1404;
344.7000;0.8856;3.1596;
345.0000;0.8767;3.1356;
345.3000;0.8799;3.1428;
345.6000;0.8759;3.1212;
345.9000;0.8759;3.1212;
346.2000;0.8775;3.1140;
346.5000;0.8751;3.1116;
346.8000;0.8767;3.1188;
347.1000;0.8775;3.1116;
347.4000;0.8767;3.1020;
347.7000;0.8783;3.1116;
348.0000;0.8783;3.1164;
348.3000;0.8791;3.1212;
348.6000;0.8824;3.1308;
348.9000;0.8783;3.1212;
349.2000;0.8775;3.1188;
349.5000;0.8775;3.1236;
349.8000;0.8718;3.1020;
350.1000;0.8816;3.1236;
350.4000;0.8775;3.1020;
350.7000;0.8783;3.0996;
351.0000;0.8775;3.0972;
351.3000;0.8791;3.1044;
351.6000;0.8783;3.1044;
351.9000;0.8767;3.1092;
352.2000;0.8775;3.1068;
352.5000;0.8775;3.1116;
352.8000;0.8751;3.1116;
353.1000;0.8759;3.1164;
353.4000;0.8767;3.1308;
353.7000;0.8775;3.1212;
354.0000;0.8783;3.1236;
354.3000;0.8759;3.1188;
354.6000;0.8759;3.1164;
354.9000;0.8742;3.1092;
355.2000;0.8751;3.1092;
355.5000;0.8742;3.1068;
355.8000;0.8759;3.1068;
356.1000;0.8767;3.1044;
356.4000;0.8751;3.1092;
356.7000;0.8767;3.1236;
357.0000;0.8751;3.1164;
357.3000;0.8759;3.1212;
357.6000;0.8759;3.1212;
357.9000;0.8783;3.1260;
358.2000;0.8751;3.1164;
358.5000;0.8783;3.1284;
358.8000;0.8759;3.1308;
359.1000;0.8783;3.1356;
359.4000;0.8767;3.1356;
359.7000;0.8751;3.1308;
360.0000;0.8767;3.1260;
360.3000;0.8775;3.1284;
360.6000;0.8783;3.1188;
360.9000;0.8775;3.1188;
361.2000;0.8775;3.1188;
361.5000;0.8783;3.1356;
361.8000;0.8783;3.1356;
362.1000;0.8791;3.1284;
362.4000;0.8791;3.1212;
362.7000;0.8775;3.1236;
363.0000;0.8791;3.1332;
363.3000;0.8783;3.1260;
363.6000;0.8759;3.1140;
363.9000;0.8775;3.1188;
364.2000;0.8824;3.1404;
364.5000;0.8751;3.1308;
364.8000;0.8734;3.1212;
365.1000;0.8767;3.1260;
365.4000;0.8775;3.1212;
365.7000;0.8767;3.1164;
366.0000;0.8759;3.1188;
366.3000;0.8677;3.1020;
366.6000;0.8767;3.1236;
366.9000;0.8799;3.1260;
367.2000;0.8759;3.1068;
367.5000;0.8718;3.0996;
367.8000;0.8767;3.1116;
368.1000;0.8759;3.0996;
368.4000;0.8759;3.1044;
368.7000;0.8767;3.1044;
369.0000;0.8816;3.1188;
369.3000;0.8767;3.1092;
369.6000;0.8759;3.1188;
369.9000;0.8767;3.1188;
370.2000;0.8775;3.1308;
370.5000;0.8751;3.1356;
370.8000;0.8710;3.1212;
371.1000;0.8718;3.1140;
371.4000;0.8751;3.1260;
371.7000;0.8742;3.1188;
372.0000;0.8807;3.1260;
372.3000;0.8832;3.1428;
372.6000;0.8759;3.1260;
372.9000;0.8799;3.1380;
373.2000;0.8767;3.1308;
373.5000;0.8751;3.1260;
373.8000;0.8791;3.1236;
374.1000;0.8791;3.1284;
374.4000;0.8783;3.1284;
374.7000;0.8775;3.1188;
375.0000;0.8767;3.1212;
375.3000;0.8759;3.1260;
375.6000;0.8775;3.1188;
375.9000;0.8783;3.1212;
376.2000;0.8759;3.1092;
376.5000;0.8734;3.0948;
376.8000;0.8759;3.0972;
377.1000;0.8751;3.1020;
377.4000;0.8759;3.1068;
377.7000;0.8840;3.1356;
378.0000;0.8751;3.1068;
378.3000;0.8751;3.0996;
378.6000;0.8767;3.1140;
378.9000;0.8726;3.1044;
379.2000;0.8734;3.1068;
379.5000;0.8759;3.1116;
379.8000;0.8734;3.1020;
380.1000;0.8751;3.1068;
380.4000;0.8759;3.1068;
380.7000;0.8799;3.1236;
381.0000;0.8677;3.0996;
381.3000;0.8751;3.1284;
381.6000;0.8751;3.1284;
381.9000;0.8751;3.1236;
382.2000;0.8742;3.1188;
382.5000;0.8775;3.1164;
382.8000;0.8751;3.1164;
383.1000;0.8751;3.1212;
383.4000;0.8759;3.1236;
383.7000;0.8759;3.1236;
384.0000;0.8767;3.1260;
384.3000;0.8775;3.1236;
384.6000;0.8767;3.1236;
384.9000;0.8775;3.1236;
385.2000;0.8759;3.1236;
385.5000;0.8759;3.1188;
385.8000;0.8767;3.1116;
386.1000;0.8759;3.1116;
386.4000;0.8775;3.1140;
386.7000;0.8759;3.1068;
387.0000;0.8775;3.1140;
387.3000;0.8726;3.0996;
387.6000;0.8751;3.1020;
387.9000;0.8751;3.0996;
388.2000;0.8734;3.0996;
388.5000;0.8767;3.1140;
388.8000;0.8759;3.1116;
389.1000;0.8767;3.1116;
389.4000;0.8742;3.1044;
389.7000;0.8759;3.1164;
390.0000;0.8775;3.1188;
390.3000;0.8734;3.1116;
390.6000;0.8718;3.1044;
390.9000;0.8759;3.1116;
391.2000;0.8816;3.1212;
391.5000;0.8742;3.1044;
391.8000;0.8751;3.1140;
392.1000;0.8751;3.1116;
392.4000;0.8759;3.1188;
392.7000;0.8759;3.1140;
393.0000;0.8726;3.1068;
393.3000;0.8759;3.1236;
393.6000;0.8767;3.1260;
393.9000;0.8759;3.1236;
394.2000;0.8767;3.1164;
394.5000;0.8783;3.1188;
394.8000;0.8767;3.1284;
395.1000;0.8759;3.1260;
395.4000;0.8775;3.1284;
395.7000;0.8783;3.1212;
396.0000;0.8751;3.1188;
396.3000;0.8767;3.1188;
396.6000;0.8767;3.1236;
396.9000;0.8751;3.1260;
397.2000;0.8775;3.1260;
397.5000;0.8783;3.1260;
397.8000;0.8791;3.1236;
398.1000;0.8751;3.1188;
398.4000;0.8742;3.1260;
398.7000;0.8807;3.1332;
399.0000;0.8791;3.1332;
399.3000;0.8751;3.1260;
399.6000;0.8759;3.1284;
399.9000;0.8783;3.1356;
400.2000;0.8751;3.1380;
400.5000;0.8734;3.1332;
400.8000;0.8799;3.1380;
401.1000;0.8742;3.1188;
401.4000;0.8816;3.1428;
401.7000;0.8751;3.1332;
402.0000;0.8751;3.1236;
402.3000;0.8742;3.1188;
402.6000;0.8759;3.1092;
402.9000;0.8718;3.0948;
403.2000;0.8759;3.1092;
403.5000;0.8759;3.1116;
403.8000;0.8767;3.1164;
404.1000;0.8775;3.1188;
404.4000;0.8751;3.1116;
404.7000;0.8767;3.1212;
405.0000;0.8775;3.1260;
405.3000;0.8751;3.1188;
405.6000;0.8759;3.1260;
405.9000;0.8759;3.1260;
406.2000;0.8775;3.1260;
406.5000;0.8759;3.1236;
406.8000;0.8742;3.1236;
407.1000;0.8734;3.1188;
407.4000;0.8742;3.1188;
407.7000;0.8742;3.1164;
408.0000;0.8759;3.1236;
408.3000;0.8767;3.1212;
408.6000;0.8775;3.1092;
408.9000;0.8799;3.1212;
409.2000;0.8751;3.1116;
409.5000;0.8799;3.1236;
409.8000;0.8767;3.1236;
410.1000;0.8759;3.1236;
410.4000;0.8759;3.1236;
410.7000;0.8759;3.1236;
411.0000;0.8759;3.1164;
411.3000;0.8799;3.1236;
411.6000;0.8751;3.1188;
411.9000;0.8759;3.1236;
412.2000;0.8775;3.1188;
412.5000;0.8816;3.1260;
412.8000;0.8751;3.1116;
413.1000;0.8799;3.1236;
413.4000;0.8775;3.1164;
413.7000;0.8710;3.1092;
414.0000;0.8751;3.1164;
414.3000;0.8742;3.1116;
414.6000;0.8751;3.1140;
414.9000;0.8751;3.1164;
415.2000;0.8702;3.1140;
415.5000;0.8742;3.1308;
415.8000;0.8742;3.1236;
416.1000;0.8873;3.1500;
416.4000;0.8775;3.1164;
416.7000;0.8775;3.1140;
417.0000;0.8767;3.1068;
417.3000;0.8726;3.0972;
417.6000;0.8767;3.1092;
417.9000;0.8767;3.1140;
418.2000;0.8807;3.1212;
418.5000;0.8775;3.1116;
418.8000;0.8767;3.1092;
419.1000;0.8775;3.1116;
419.4000;0.8751;3.1044;
419.7000;0.8751;3.1092;
420.0000;0.8685;3.0900;
420.3000;0.8767;3.1044;
420.6000;0.8751;3.1092;
420.9000;0.8751;3.1164;
421.2000;0.8742;3.1188;
421.5000;0.8759;3.1284;
421.8000;0.8742;3.1260;
422.1000;0.8742;3.1236;
422.4000;0.8751;3.1236;
422.7000;0.8759;3.1308;
423.0000;0.8742;3.1260;
423.3000;0.8751;3.1212;
423.6000;0.8742;3.1140;
423.9000;0.8783;3.1236;
424.2000;0.8734;3.1212;
424.5000;0.8742;3.1140;
424.8000;0.8742;3.1020;
425.1000;0.8742;3.1068;
425.4000;0.8718;3.0996;
425.7000;0.8734;3.1044;
426.0000;0.8718;3.0996;
426.3000;0.8759;3.1164;
426.6000;0.8759;3.1140;
426.9000;0.8742;3.1116;
427.2000;0.8751;3.1140;
427.5000;0.8742;3.1188;
427.8000;0.8767;3.1284;
428.1000;0.8742;3.1236;
428.4000;0.8767;3.1260;
428.7000;0.8767;3.1260;
429.0000;0.8767;3.1236;
429.3000;0.8751;3.1284;
429.6000;0.8767;3.1236;
429.9000;0.8759;3.1212;
430.2000;0.8775;3.1332;
430.5000;0.8767;3.1308;
430.8000;0.8775;3.1356;
431.1000;0.8759;3.1284;
431.4000;0.8759;3.1236;
431.7000;0.8751;3.1212;
432.0000;0.8767;3.1260;
432.3000;0.8759;3.1212;
432.6000;0.8759;3.1260;
432.9000;0.8726;3.1092;
433.2000;0.8767;3.1164;
433.5000;0.8726;3.1092;
433.8000;0.8751;3.1212;
434.1000;0.8759;3.1260;
434.4000;0.8759;3.1284;
434.7000;0.8742;3.1188;
435.0000;0.8783;3.1284;
435.3000;0.8751;3.1188;
435.6000;0.8702;3.0996;
435.9000;0.8677;3.0948;
436.2000;0.8775;3.1140;
436.5000;0.8759;3.1164;
436.8000;0.8751;3.1164;
437.1000;0.8751;3.1164;
437.4000;0.8751;3.1236;
437.7000;0.8767;3.1164;
438.0000;0.8751;3.1116;
438.3000;0.8751;3.1236;
438.6000;0.8775;3.1260;
438.9000;0.8775;3.1332;
439.2000;0.8856;3.1572;
439.5000;0.8751;3.1308;
439.8000;0.8775;3.1284;
440.1000;0.8775;3.1164;
440.4000;0.8759;3.1092;
440.7000;0.8759;3.1116;
441.0000;0.8702;3.1044;
441.3000;0.8694;3.1092;
441.6000;0.8726;3.1212;
441.9000;0.8775;3.1332;
442.2000;0.8718;3.1116;
442.5000;0.8759;3.1164;
442.8000;0.8807;3.1308;
443.1000;0.8767;3.1212;
443.4000;0.8759;3.1260;
443.7000;0.8759;3.1212;
444.0000;0.8759;3.1212;
444.3000;0.8767;3.1140;
444.6000;0.8751;3.1164;
444.9000;0.8742;3.1164;
445.2000;0.8759;3.1116;
445.5000;0.8759;3.1092;
445.8000;0.8759;3.1116;
446.1000;0.8734;3.1092;
446.4000;0.8751;3.1116;
446.7000;0.8767;3.1236;
447.0000;0.8759;3.1212;
447.3000;0.8759;3.1164;
447.6000;0.8742;3.1212;
447.9000;0.8742;3.1188;
448.2000;0.8734;3.1212;
448.5000;0.8767;3.1260;
448.8000;0.8734;3.1260;
449.1000;0.8742;3.1284;
449.4000;0.8767;3.1332;
449.7000;0.8751;3.1212;
450.0000;0.8742;3.1260;
450.3000;0.8734;3.1260;
450.6000;0.8734;3.1212;
450.9000;0.8751;3.1308;
451.2000;0.8751;3.1260;
451.5000;0.8734;3.1236;
451.8000;0.8742;3.1188;
452.1000;0.8742;3.1164;
452.4000;0.8751;3.1260;
452.7000;0.8767;3.1332;
453.0000;0.8742;3.1260;
453.3000;0.8775;3.1236;
453.6000;0.8775;3.1188;
453.9000;0.8751;3.1044;
454.2000;0.8751;3.1068;
454.5000;0.8759;3.0996;
454.8000;0.8742;3.0900;
455.1000;0.8767;3.0972;
455.4000;0.8751;3.1068;
455.7000;0.8759;3.1092;
456.0000;0.8759;3.1068;
456.3000;0.8767;3.1044;
456.6000;0.8718;3.0972;
456.9000;0.8751;3.1020;
457.2000;0.8759;3.1020;
457.5000;0.8742;3.0948;
457.8000;0.8751;3.0804;
458.1000;0.8767;3.0876;
458.4000;0.8669;3.0804;
458.7000;0.8759;3.1020;
459.0000;0.8742;3.1068;
459.3000;0.8718;3.1020;
459.6000;0.8767;3.1188;
459.9000;0.8742;3.1164;
460.2000;0.8751;3.1236;
460.5000;0.8734;3.1164;
460.8000;0.8751;3.1236;
461.1000;0.8734;3.1068;
461.4000;0.8751;3.1164;
461.7000;0.8742;3.1164;
462.0000;0.8742;3.1164;
462.3000;0.8767;3.1164;
462.6000;0.8759;3.1164;
462.9000;0.8751;3.1140;
463.2000;0.8775;3.1284;
463.5000;0.8775;3.1332;
463.8000;0.8742;3.1284;
464.1000;0.8742;3.1284;
464.4000;0.8751;3.1236;
464.7000;0.8767;3.1260;
465.0000;0.8751;3.1116;
465.3000;0.8751;3.1188;
465.6000;0.8742;3.1164;
465.9000;0.8751;3.1236;
466.2000;0.8751;3.1260;
466.5000;0.8751;3.1260;
466.8000;0.8751;3.1188;
467.1000;0.8767;3.1308;
467.4000;0.8775;3.1380;
467.7000;0.8759;3.1284;
468.0000;0.8742;3.1260;
468.3000;0.8759;3.1284;
468.6000;0.8767;3.1380;
468.9000;0.8759;3.1380;
469.2000;0.8759;3.1332;
469.5000;0.8742;3.1236;
469.8000;0.8759;3.1380;
470.1000;0.8742;3.1308;
470.4000;0.8742;3.1308;
470.7000;0.8734;3.1284;
471.0000;0.8759;3.1236;
471.3000;0.8751;3.1236;
471.6000;0.8791;3.1380;
471.9000;0.8759;3.1284;
472.2000;0.8783;3.1356;
472.5000;0.8799;3.1332;
472.8000;0.8759;3.1236;
473.1000;0.8759;3.1236;
473.4000;0.8742;3.1212;
473.7000;0.8751;3.1164;
474.0000;0.8767;3.1164;
474.3000;0.8742;3.1164;
474.6000;0.8734;3.1284;
474.9000;0.8775;3.1356;
475.2000;0.8734;3.1308;
475.5000;0.8710;3.1236;
475.8000;0.8751;3.1236;
476.1000;0.8734;3.1164;
476.4000;0.8742;3.1140;
476.7000;0.8751;3.1236;
477.0000;0.8751;3.1260;
477.3000;0.8742;3.1212;
477.6000;0.8742;3.1260;
477.9000;0.8734;3.1164;
478.2000;0.8751;3.1164;
478.5000;0.8718;3.1140;
478.8000;0.8751;3.1164;
479.1000;0.8767;3.1260;
479.4000;0.8734;3.1188;
479.7000;0.8799;3.1332;
480.0000;0.8710;3.1116;
480.3000;0.8702;3.1116;
480.6000;0.8751;3.1188;
480.9000;0.8742;3.1212;
481.2000;0.8775;3.1284;
481.5000;0.8832;3.1476;
481.8000;0.8710;3.1044;
482.1000;0.8734;3.1164;
482.4000;0.8726;3.1164;
482.7000;0.8742;3.1236;
483.0000;0.8751;3.1164;
483.3000;0.8824;3.1404;
483.6000;0.8759;3.1236;
483.9000;0.8791;3.1308;
484.2000;0.8759;3.1308;
484.5000;0.8742;3.1260;
484.8000;0.8742;3.1260;
485.1000;0.8742;3.1260;
485.4000;0.8751;3.1212;
485.7000;0.8767;3.1140;
486.0000;0.8734;3.1044;
486.3000;0.8742;3.1020;
486.6000;0.8734;3.1020;
486.9000;0.8742;3.1044;
487.2000;0.8751;3.1020;
487.5000;0.8759;3.1044;
487.8000;0.8710;3.1020;
488.1000;0.8742;3.1092;
488.4000;0.8734;3.0996;
488.7000;0.8742;3.1044;
489.0000;0.8742;3.1092;
489.3000;0.8734;3.1164;
489.6000;0.8742;3.1164;
489.9000;0.8759;3.1236;
490.2000;0.8742;3.1164;
490.5000;0.8767;3.1188;
490.8000;0.8734;3.1116;
491.1000;0.8751;3.1092;
491.4000;0.8751;3.1068;
491.7000;0.8742;3.1068;
492.0000;0.8742;3.1092;
492.3000;0.8734;3.1044;
492.6000;0.8751;3.1020;
492.9000;0.8734;3.1020;
493.2000;0.8726;3.0996;
493.5000;0.8824;3.1188;
493.8000;0.8742;3.0972;
494.1000;0.8759;3.1020;
494.4000;0.8718;3.0996;
494.7000;0.8734;3.1068;
495.0000;0.8751;3.1116;
495.3000;0.8751;3.1188;
495.6000;0.8742;3.1164;
495.9000;0.8734;3.1140;
496.2000;0.8751;3.1092;
496.5000;0.8751;3.1020;
496.8000;0.8751;3.1164;
497.1000;0.8645;3.0900;
497.4000;0.8791;3.1356;
497.7000;0.8742;3.1308;
498.0000;0.8759;3.1380;
498.3000;0.8783;3.1476;
498.6000;0.8751;3.1380;
498.9000;0.8742;3.1332;
499.2000;0.8742;3.1332;
499.5000;0.8726;3.1260;
499.8000;0.8734;3.1308;
500.1000;0.8759;3.1332;
500.4000;0.8759;3.1404;
500.7000;0.8742;3.1332;
501.0000;0.8742;3.1260;
501.3000;0.8742;3.1236;
501.6000;0.8742;3.1380;
501.9000;0.8734;3.1428;
502.2000;0.8742;3.1452;
502.5000;0.8751;3.1428;
502.8000;0.8742;3.1404;
503.1000;0.8759;3.1404;
503.4000;0.8742;3.1332;
503.7000;0.8718;3.1308;
504.0000;0.8742;3.1260;
504.3000;0.8742;3.1260;
504.6000;0.8726;3.1212;
504.9000;0.8734;3.1308;
505.2000;0.8759;3.1500;
505.5000;0.8726;3.1548;
505.8000;0.8734;3.1428;
506.1000;0.8759;3.1380;
506.4000;0.8734;3.1332;
506.7000;0.8751;3.1380;
507.0000;0.8742;3.1380;
507.3000;0.8718;3.1332;
507.6000;0.8726;3.1428;
507.9000;0.8718;3.1428;
508.2000;0.8767;3.1572;
508.5000;0.8742;3.1452;
508.8000;0.8759;3.1404;
509.1000;0.8807;3.1572;
509.4000;0.8751;3.1500;
509.7000;0.8726;3.1476;
510.0000;0.8734;3.1428;
510.3000;0.8791;3.1524;
510.6000;0.8759;3.1500;
510.9000;0.8734;3.1380;
511.2000;0.8783;3.1476;
511.5000;0.8759;3.1380;
511.8000;0.8685;3.1212;
512.1000;0.8645;3.1092;
512.4000;0.8726;3.1380;
512.7000;0.8742;3.1332;
513.0000;0.8759;3.1476;
513.3000;0.8742;3.1428;
513.6000;0.8832;3.1572;
513.9000;0.8759;3.1428;
514.2000;0.8759;3.1404;
514.5000;0.8759;3.1428;
514.8000;0.8767;3.1404;
515.1000;0.8759;3.1404;
515.4000;0.8767;3.1452;
515.7000;0.8742;3.1476;
516.0000;0.8718;3.1404;
516.3000;0.8718;3.1380;
516.6000;0.8734;3.1308;
516.9000;0.8751;3.1452;
517.2000;0.8734;3.1428;
517.5000;0.8759;3.1524;
517.8000;0.8742;3.1596;
518.1000;0.8751;3.1596;
518.4000;0.8742;3.1500;
518.7000;0.8751;3.1452;
519.0000;0.8767;3.1524;
519.3000;0.8742;3.1524;
519.6000;0.8775;3.1596;
519.9000;0.8759;3.1452;
520.2000;0.8751;3.1476;
520.5000;0.8759;3.1572;
520.8000;0.8767;3.1548;
521.1000;0.8751;3.1524;
521.4000;0.8742;3.1476;
521.7000;0.8751;3.1524;
522.0000;0.8742;3.1596;
522.3000;0.8742;3.1572;
522.6000;0.8734;3.1620;
522.9000;0.8718;3.1524;
523.2000;0.8767;3.1572;
523.5000;0.8742;3.1500;
523.8000;0.8734;3.1428;
524.1000;0.8734;3.1428;
524.4000;0.8734;3.1452;
524.7000;0.8742;3.1452;
525.0000;0.8767;3.1428;
525.3000;0.8742;3.1428;
525.6000;0.8734;3.1404;
525.9000;0.8726;3.1308;
526.2000;0.8742;3.1356;
526.5000;0.8751;3.1236;
526.8000;0.8710;3.1116;
527.1000;0.8751;3.1188;
527.4000;0.8759;3.1068;
527.7000;0.8742;3.1020;
528.0000;0.8742;3.1116;
528.3000;0.8751;3.1212;
528.6000;0.8751;3.1164;
528.9000;0.8751;3.1236;
529.2000;0.8775;3.1236;
529.5000;0.8685;3.1140;
529.8000;0.8759;3.1332;
530.1000;0.8734;3.1236;
530.4000;0.8751;3.1236;
530.7000;0.8742;3.1188;
531.0000;0.8767;3.1308;
531.3000;0.8718;3.1236;
531.6000;0.8637;3.1068;
531.9000;0.8734;3.1260;
532.2000;0.8734;3.1212;
532.5000;0.8775;3.1260;
532.8000;0.8791;3.1308;
533.1000;0.8742;3.1116;
533.4000;0.8751;3.1044;
533.7000;0.8759;3.1212;
534.0000;0.8742;3.1236;
534.3000;0.8742;3.1260;
534.6000;0.8751;3.1380;
534.9000;0.8759;3.1476;
535.2000;0.8734;3.1404;
535.5000;0.8742;3.1380;
535.8000;0.8742;3.1524;
536.1000;0.8742;3.1572;
536.4000;0.8734;3.1596;
536.7000;0.8751;3.1596;
537.0000;0.8742;3.1596;
537.3000;0.8751;3.1548;
537.6000;0.8742;3.1596;
537.9000;0.8726;3.1548;
538.2000;0.8767;3.1644;
538.5000;0.8751;3.1620;
538.8000;0.8759;3.1572;
539.1000;0.8751;3.1500;
539.4000;0.8742;3.1452;
539.7000;0.8751;3.1524;
540.0000;0.8742;3.1548;
540.3000;0.8751;3.1620;
540.6000;0.8726;3.1548;
540.9000;0.8751;3.1572;
541.2000;0.8734;3.1476;
541.5000;0.8751;3.1524;
541.8000;0.8742;3.1476;
542.1000;0.8742;3.1548;
542.4000;0.8734;3.1548;
542.7000;0.8742;3.1500;
543.0000;0.8726;3.1548;
543.3000;0.8759;3.1596;
543.6000;0.8734;3.1572;
543.9000;0.8783;3.1668;
544.2000;0.8710;3.1524;
544.5000;0.8751;3.1548;
544.8000;0.8742;3.1428;
545.1000;0.8742;3.1380;
545.4000;0.8734;3.1356;
545.7000;0.8726;3.1428;
546.0000;0.8742;3.1452;
546.3000;0.8742;3.1452;
546.6000;0.8718;3.1476;
546.9000;0.8734;3.1572;
547.2000;0.8734;3.1548;
547.5000;0.8734;3.1452;
547.8000;0.8742;3.1476;
548.1000;0.8694;3.1476;
548.4000;0.8751;3.1596;
548.7000;0.8751;3.1596;
549.0000;0.8816;3.1644;
549.3000;0.8734;3.1476;
549.6000;0.8742;3.1428;
549.9000;0.8759;3.1524;
550.2000;0.8710;3.1404;
550.5000;0.8718;3.1524;
550.8000;0.8751;3.1548;
551.1000;0.8759;3.1572;
551.4000;0.8742;3.1620;
551.7000;0.8734;3.1620;
552.0000;0.8767;3.1764;
552.3000;0.8751;3.1836;
552.6000;0.8791;3.1908;
552.9000;0.8742;3.1740;
553.2000;0.8751;3.1692;
553.5000;0.8759;3.1692;
553.8000;0.8759;3.1740;
554.1000;0.8734;3.1716;
554.4000;0.8759;3.1692;
554.7000;0.8832;3.1932;
555.0000;0.8742;3.1716;
555.3000;0.8734;3.1620;
555.6000;0.8767;3.1596;
555.9000;0.8685;3.1428;
556.2000;0.8710;3.1476;
556.5000;0.8734;3.1500;
556.8000;0.8710;3.1404;
557.1000;0.8791;3.1596;
557.4000;0.8751;3.1500;
557.7000;0.8742;3.1476;
558.0000;0.8734;3.1428;
558.3000;0.8742;3.1356;
558.6000;0.8751;3.1428;
558.9000;0.8767;3.1572;
559.2000;0.8783;3.1692;
559.5000;0.8726;3.1572;
559.8000;0.8734;3.1620;
560.1000;0.8734;3.1596;
560.4000;0.8751;3.1596;
560.7000;0.8742;3.1644;
561.0000;0.8767;3.1668;
561.3000;0.8742;3.1596;
561.6000;0.8726;3.1572;
561.9000;0.8742;3.1716;
562.2000;0.8751;3.1692;
562.5000;0.8751;3.1620;
562.8000;0.8759;3.1596;
563.1000;0.8742;3.1644;
563.4000;0.8742;3.1596;
563.7000;0.8751;3.1596;
564.0000;0.8751;3.1620;
564.3000;0.8742;3.1620;
564.6000;0.8694;3.1452;
564.9000;0.8742;3.1548;
565.2000;0.8742;3.1572;
565.5000;0.8775;3.1644;
565.8000;0.8742;3.1524;
566.1000;0.8726;3.1380;
566.4000;0.8742;3.1428;
566.7000;0.8734;3.1428;
567.0000;0.8726;3.1404;
567.3000;0.8734;3.1500;
567.6000;0.8751;3.1572;
567.9000;0.8742;3.1548;
568.2000;0.8734;3.1572;
568.5000;0.8734;3.1572;
568.8000;0.8751;3.1716;
569.1000;0.8751;3.1740;
569.4000;0.8734;3.1668;
569.7000;0.8742;3.1620;
570.0000;0.8734;3.1620;
570.3000;0.8742;3.1668;
570.6000;0.8726;3.1644;
570.9000;0.8767;3.1788;
571.2000;0.8734;3.1716;
571.5000;0.8751;3.1716;
571.8000;0.8759;3.1692;
572.1000;0.8734;3.1668;
572.4000;0.8726;3.1572;
572.7000;0.8742;3.1476;
573.0000;0.8742;3.1524;
573.3000;0.8759;3.1596;
573.6000;0.8742;3.1524;
573.9000;0.8767;3.1620;
574.2000;0.8759;3.1596;
574.5000;0.8742;3.1668;
574.8000;0.8751;3.1740;
575.1000;0.8726;3.1716;
575.4000;0.8751;3.1740;
575.7000;0.8734;3.1668;
576.0000;0.8791;3.1788;
576.3000;0.8685;3.1572;
576.6000;0.8734;3.1692;
576.9000;0.8718;3.1644;
577.2000;0.8742;3.1668;
577.5000;0.8726;3.1620;
577.8000;0.8734;3.1716;
578.1000;0.8759;3.1716;
578.4000;0.8718;3.1692;
578.7000;0.8734;3.1668;
579.0000;0.8726;3.1668;
579.3000;0.8726;3.1692;
579.6000;0.8694;3.1620;
579.9000;0.8742;3.1716;
580.2000;0.8742;3.1716;
580.5000;0.8734;3.1668;
580.8000;0.8751;3.1740;
581.1000;0.8710;3.1692;
581.4000;0.8742;3.1764;
581.7000;0.8669;3.1596;
582.0000;0.8726;3.1764;
582.3000;0.8726;3.1764;
582.6000;0.8742;3.1644;
582.9000;0.8726;3.1548;
583.2000;0.8734;3.1596;
583.5000;0.8759;3.1596;
583.8000;0.8718;3.1548;
584.1000;0.8751;3.1596;
584.4000;0.8742;3.1596;
584.7000;0.8751;3.1524;
585.0000;0.8742;3.1500;
585.3000;0.8751;3.1380;
585.6000;0.8751;3.1452;
585.9000;0.8791;3.1524;
586.2000;0.8702;3.1332;
586.5000;0.8726;3.1428;
586.8000;0.8751;3.1476;
587.1000;0.8751;3.1500;
587.4000;0.8734;3.1548;
587.7000;0.8734;3.1596;
588.0000;0.8742;3.1620;
588.3000;0.8726;3.1644;
588.6000;0.8734;3.1692;
588.9000;0.8799;3.1716;
589.2000;0.8742;3.1572;
589.5000;0.8742;3.1620;
589.8000;0.8759;3.1620;
590.1000;0.8742;3.1596;
590.4000;0.8742;3.1596;
590.7000;0.8791;3.1668;
591.0000;0.8751;3.1524;
591.3000;0.8734;3.1500;
591.6000;0.8742;3.1620;
591.9000;0.8734;3.1548;
592.2000;0.8734;3.1524;
592.5000;0.8751;3.1572;
592.8000;0.8726;3.1524;
593.1000;0.8767;3.1572;
593.4000;0.8742;3.1476;
593.7000;0.8726;3.1476;
594.0000;0.8742;3.1476;
594.3000;0.8751;3.1452;
594.6000;0.8759;3.1548;
594.9000;0.8734;3.1452;
595.2000;0.8718;3.1356;
595.5000;0.8759;3.1524;
595.8000;0.8759;3.1548;
596.1000;0.8775;3.1524;
596.4000;0.8694;3.1356;
596.7000;0.8726;3.1332;
597.0000;0.8742;3.1356;
597.3000;0.8726;3.1380;
597.6000;0.8726;3.1428;
597.9000;0.8742;3.1452;
598.2000;0.8742;3.1524;
598.5000;0.8742;3.1452;
598.8000;0.8742;3.1500;
599.1000;0.8734;3.1500;
599.4000;0.8742;3.1572;
599.7000;0.8734;3.1524;
600.0000;0.8726;3.1524;
600.3000;0.8734;3.1284;
600.6000;0.8742;3.1140;
600.9000;0.8718;3.0948;
601.2000;0.8718;3.0900;
601.5000;0.8645;3.0732;
601.8000;0.8588;3.0516;
602.1000;0.8563;3.0396;
602.4000;0.8506;3.0252;
602.7000;0.8376;2.9940;
603.0000;0.8425;2.9988;
603.3000;0.8368;2.9940;
603.6000;0.8352;2.9940;
603.9000;0.8303;2.9869;
604.2000;0.8246;2.9845;
604.5000;0.8230;2.9869;
604.8000;0.8197;2.9653;
605.1000;0.8156;2.9485;
605.4000;0.8124;2.9317;
605.7000;0.8002;2.9077;
606.0000;0.8075;2.9413;
606.3000;0.8026;2.9317;
606.6000;0.7985;2.9269;
606.9000;0.7985;2.9341;
607.2000;0.7953;2.9293;
607.5000;0.7920;2.9197;
607.8000;0.7920;2.9149;
608.1000;0.7912;2.9245;
608.4000;0.7888;2.9197;
608.7000;0.7863;2.9197;
609.0000;0.7855;2.9245;
609.3000;0.7814;2.9221;
609.6000;0.7823;2.9221;
609.9000;0.7798;2.9173;
610.2000;0.7749;2.9101;
610.5000;0.7741;2.9029;
610.8000;0.7749;2.9053;
611.1000;0.7717;2.9029;
611.4000;0.7757;2.9173;
611.7000;0.7717;2.9221;
612.0000;0.7692;2.9221;
612.3000;0.7676;2.9269;
612.6000;0.7709;2.9317;
612.9000;0.7643;2.9221;
613.2000;0.7627;2.9149;
613.5000;0.7652;2.9173;
613.8000;0.7660;2.9221;
614.1000;0.7603;2.9221;
614.4000;0.7619;2.9221;
614.7000;0.7603;2.9197;
615.0000;0.7595;2.9245;
615.3000;0.7562;2.9197;
615.6000;0.7578;2.9221;
615.9000;0.7562;2.9269;
616.2000;0.7554;2.9293;
616.5000;0.7538;2.9389;
616.8000;0.7530;2.9413;
617.1000;0.7530;2.9341;
617.4000;0.7538;2.9365;
617.7000;0.7505;2.9317;
618.0000;0.7489;2.9341;
618.3000;0.7505;2.9341;
618.6000;0.7521;2.9413;
618.9000;0.7530;2.9341;
619.2000;0.7473;2.9221;
619.5000;0.7464;2.9197;
619.8000;0.7440;2.9125;
620.1000;0.7440;2.9197;
620.4000;0.7440;2.9173;
620.7000;0.7440;2.9053;
621.0000;0.7416;2.9149;
621.3000;0.7407;2.9149;
621.6000;0.7399;2.9245;
621.9000;0.7399;2.9173;
622.2000;0.7399;2.9053;
622.5000;0.7399;2.9077;
622.8000;0.7367;2.9005;
623.1000;0.7375;2.9125;
623.4000;0.7375;2.9149;
623.7000;0.7367;2.9077;
624.0000;0.7350;2.9053;
624.3000;0.7391;2.9077;
624.6000;0.7334;2.8861;
624.9000;0.7350;2.8933;
625.2000;0.7326;2.8885;
625.5000;0.7293;2.8813;
625.8000;0.7310;2.8933;
626.1000;0.7293;2.9053;
626.4000;0.7318;2.9149;
626.7000;0.7293;2.9245;
627.0000;0.7277;2.9173;
627.3000;0.7293;2.9221;
627.6000;0.7302;2.9317;
627.9000;0.7261;2.9197;
628.2000;0.7261;2.9173;
628.5000;0.7269;2.9245;
628.8000;0.7334;2.9341;
629.1000;0.7261;2.9173;
629.4000;0.7220;2.9077;
629.7000;0.7261;2.9197;
630.0000;0.7253;2.9269;
630.3000;0.7228;2.9245;
630.6000;0.7228;2.9269;
630.9000;0.7236;2.9317;
631.2000;0.7220;2.9173;
631.5000;0.7212;2.9077;
631.8000;0.7212;2.9005;
632.1000;0.7179;2.8909;
632.4000;0.7212;2.9077;
632.7000;0.7196;2.9101;
633.0000;0.7196;2.9053;
633.3000;0.7196;2.8933;
633.6000;0.7163;2.8909;
633.9000;0.7188;2.9005;
634.2000;0.7179;2.8885;
634.5000;0.7179;2.8909;
634.8000;0.7163;2.8837;
635.1000;0.7171;2.8861;
635.4000;0.7163;2.8861;
635.7000;0.7163;2.8981;
636.0000;0.7171;2.9077;
636.3000;0.7155;2.9101;
636.6000;0.7163;2.9173;
636.9000;0.7131;2.9173;
637.2000;0.7114;2.9101;
637.5000;0.7123;2.9077;
637.8000;0.7131;2.9029;
638.1000;0.7114;2.8909;
638.4000;0.7106;2.8933;
638.7000;0.7106;2.8885;
639.0000;0.7106;2.8789;
639.3000;0.7098;2.8765;
639.6000;0.7098;2.8837;
639.9000;0.7139;2.8981;
640.2000;0.7098;2.8933;
640.5000;0.7098;2.8933;
640.8000;0.7106;2.9005;
641.1000;0.7139;2.9197;
641.4000;0.7090;2.9101;
641.7000;0.7090;2.9005;
642.0000;0.7082;2.9029;
642.3000;0.7090;2.9077;
642.6000;0.7082;2.9149;
642.9000;0.7041;2.9149;
643.2000;0.7074;2.9101;
643.5000;0.7074;2.9101;
643.8000;0.7049;2.9125;
644.1000;0.6960;2.8837;
644.4000;0.7025;2.9005;
644.7000;0.7025;2.9053;
645.0000;0.7098;2.9173;
645.3000;0.7009;2.8933;
645.6000;0.7000;2.8909;
645.9000;0.7000;2.8933;
646.2000;0.7025;2.8957;
646.5000;0.7033;2.9053;
646.8000;0.7009;2.9101;
647.1000;0.6960;2.9005;
647.4000;0.7009;2.9149;
647.7000;0.6968;2.9053;
648.0000;0.6992;2.9053;
648.3000;0.6968;2.8933;
648.6000;0.7000;2.9005;
648.9000;0.6984;2.9029;
649.2000;0.6976;2.9125;
649.5000;0.6992;2.9149;
649.8000;0.6984;2.9197;
650.1000;0.6960;2.9293;
650.4000;0.6984;2.9293;
650.7000;0.6976;2.9221;
651.0000;0.6952;2.9173;
651.3000;0.6968;2.9221;
651.6000;0.6976;2.9221;
651.9000;0.6960;2.9197;
652.2000;0.6943;2.9029;
652.5000;0.6943;2.9053;
652.8000;0.6952;2.9077;
653.1000;0.6952;2.9077;
653.4000;0.6927;2.9077;
653.7000;0.6943;2.9173;
654.0000;0.7000;2.9413;
654.3000;0.6935;2.9293;
654.6000;0.6911;2.9269;
654.9000;0.6911;2.9269;
655.2000;0.6935;2.9269;
655.5000;0.6943;2.9245;
655.8000;0.6927;2.9173;
656.1000;0.6911;2.9077;
656.4000;0.6911;2.9101;
656.7000;0.6911;2.8981;
657.0000;0.6903;2.8957;
657.3000;0.6903;2.8933;
657.6000;0.6935;2.9077;
657.9000;0.6895;2.9101;
658.2000;0.6895;2.9029;
658.5000;0.6870;2.9101;
658.8000;0.6870;2.9077;
659.1000;0.6805;2.8861;
659.4000;0.6878;2.9101;
659.7000;0.6862;2.9101;
660.0000;0.6886;2.9149;
660.3000;0.6886;2.9149;
660.6000;0.6854;2.9053;
660.9000;0.6870;2.9077;
661.2000;0.6862;2.9005;
661.5000;0.6862;2.9029;
661.8000;0.6862;2.9029;
662.1000;0.6870;2.9005;
662.4000;0.6854;2.8957;
662.7000;0.6862;2.8957;
663.0000;0.6854;2.9053;
663.3000;0.6854;2.9077;
663.6000;0.6846;2.9101;
663.9000;0.6862;2.9149;
664.2000;0.6846;2.9101;
664.5000;0.6854;2.9029;
664.8000;0.6854;2.9077;
665.1000;0.6781;2.8885;
665.4000;0.6854;2.9101;
665.7000;0.6805;2.9005;
666.0000;0.6821;2.9197;
666.3000;0.6838;2.9269;
666.6000;0.6846;2.9245;
666.9000;0.6829;2.9125;
667.2000;0.6797;2.9125;
667.5000;0.6813;2.9149;
667.8000;0.6805;2.9101;
668.1000;0.6805;2.9149;
668.4000;0.6797;2.9149;
668.7000;0.6829;2.9245;
669.0000;0.6789;2.9101;
669.3000;0.6813;2.9197;
669.6000;0.6781;2.9197;
669.9000;0.6797;2.9269;
670.2000;0.6781;2.9221;
670.5000;0.6805;2.9245;
670.8000;0.6772;2.9149;
671.1000;0.6756;2.9125;
671.4000;0.6781;2.9173;
671.7000;0.6732;2.9005;
672.0000;0.6789;2.9149;
672.3000;0.6772;2.9005;
672.6000;0.6756;2.9029;
672.9000;0.6789;2.9029;
673.2000;0.6781;2.9053;
673.5000;0.6764;2.9005;
673.8000;0.6764;2.8957;
674.1000;0.6772;2.8981;
674.4000;0.6764;2.8957;
674.7000;0.6797;2.9101;
675.0000;0.6756;2.9101;
675.3000;0.6772;2.9149;
675.6000;0.6789;2.9293;
675.9000;0.6748;2.9293;
676.2000;0.6740;2.9269;
676.5000;0.6748;2.9221;
676.8000;0.6772;2.9293;
677.1000;0.6748;2.9245;
677.4000;0.6740;2.9221;
677.7000;0.6732;2.9221;
678.0000;0.6724;2.9101;
678.3000;0.6740;2.9077;
678.6000;0.6748;2.9077;
678.9000;0.6748;2.9101;
679.2000;0.6756;2.9173;
679.5000;0.6789;2.9221;
679.8000;0.6732;2.9173;
680.1000;0.6748;2.9269;
680.4000;0.6772;2.9341;
680.7000;0.6724;2.9317;
681.0000;0.6699;2.9221;
681.3000;0.6707;2.9293;
681.6000;0.6699;2.9245;
681.9000;0.6675;2.9197;
682.2000;0.6716;2.9149;
682.5000;0.6716;2.9149;
682.8000;0.6740;2.9197;
683.1000;0.6699;2.9125;
683.4000;0.6683;2.8981;
683.7000;0.6691;2.9005;
684.0000;0.6659;2.8981;
684.3000;0.6683;2.9077;
684.6000;0.6707;2.9053;
684.9000;0.6683;2.9077;
685.2000;0.6699;2.9125;
685.5000;0.6691;2.9077;
685.8000;0.6699;2.9149;
686.1000;0.6675;2.9125;
686.4000;0.6675;2.9125;
686.7000;0.6683;2.9125;
687.0000;0.6675;2.9077;
687.3000;0.6691;2.9125;
687.6000;0.6675;2.9125;
687.9000;0.6667;2.9125;
688.2000;0.6716;2.9197;
688.5000;0.6667;2.9125;
688.8000;0.6675;2.9101;
689.1000;0.6634;2.9125;
689.4000;0.6675;2.9101;
689.7000;0.6659;2.9101;
690.0000;0.6642;2.9077;
690.3000;0.6650;2.9149;
690.6000;0.6650;2.9197;
690.9000;0.6642;2.9221;
691.2000;0.6650;2.9173;
691.5000;0.6650;2.9173;
691.8000;0.6642;2.9197;
692.1000;0.6642;2.9173;
692.4000;0.6634;2.9149;
692.7000;0.6618;2.9197;
693.0000;0.6626;2.9269;
693.3000;0.6634;2.9293;
693.6000;0.6634;2.9341;
693.9000;0.6642;2.9221;
694.2000;0.6626;2.9125;
694.5000;0.6618;2.9101;
694.8000;0.6626;2.9221;
695.1000;0.6610;2.9269;
695.4000;0.6602;2.9221;
695.7000;0.6634;2.9245;
696.0000;0.6618;2.9173;
696.3000;0.6626;2.9125;
696.6000;0.6634;2.9149;
696.9000;0.6634;2.9101;
697.2000;0.6618;2.9053;
697.5000;0.6634;2.9101;
697.8000;0.6512;2.8717;
698.1000;0.6667;2.9149;
698.4000;0.6618;2.9077;
698.7000;0.6618;2.9077;
699.0000;0.6610;2.9053;
699.3000;0.6593;2.9125;
699.6000;0.6618;2.9149;
699.9000;0.6618;2.9125;
700.2000;0.6618;2.9101;
700.5000;0.6610;2.9125;
700.8000;0.6610;2.9101;
701.1000;0.6585;2.9077;
701.4000;0.6593;2.8981;
701.7000;0.6545;2.8909;
702.0000;0.6569;2.8909;
702.3000;0.6593;2.8909;
702.6000;0.6577;2.8885;
702.9000;0.6569;2.8837;
703.2000;0.6593;2.8909;
703.5000;0.6602;2.8957;
703.8000;0.6602;2.9029;
704.1000;0.6593;2.9125;
704.4000;0.6569;2.9101;
704.7000;0.6488;2.8885;
705.0000;0.6569;2.9053;
705.3000;0.6569;2.8957;
705.6000;0.6569;2.9053;
705.9000;0.6569;2.9149;
706.2000;0.6577;2.9293;
706.5000;0.6577;2.9317;
706.8000;0.6569;2.9365;
707.1000;0.6569;2.9293;
707.4000;0.6593;2.9317;
707.7000;0.6593;2.9341;
708.0000;0.6569;2.9269;
708.3000;0.6577;2.9221;
708.6000;0.6577;2.9197;
708.9000;0.6553;2.9221;
709.2000;0.6569;2.9317;
709.5000;0.6561;2.9293;
709.8000;0.6504;2.9029;
710.1000;0.6561;2.9173;
710.4000;0.6569;2.9221;
710.7000;0.6536;2.9269;
711.0000;0.6626;2.9557;
711.3000;0.6561;2.9389;
711.6000;0.6569;2.9317;
711.9000;0.6528;2.9317;
712.2000;0.6512;2.9293;
712.5000;0.6553;2.9269;
712.8000;0.6545;2.9293;
713.1000;0.6561;2.9341;
713.4000;0.6479;2.9053;
713.7000;0.6536;2.9317;
714.0000;0.6545;2.9245;
714.3000;0.6553;2.9293;
714.6000;0.6545;2.9221;
714.9000;0.6528;2.9197;
715.2000;0.6528;2.9245;
715.5000;0.6553;2.9245;
715.8000;0.6545;2.9293;
716.1000;0.6520;2.9197;
716.4000;0.6536;2.9221;
716.7000;0.6577;2.9389;
717.0000;0.6520;2.9221;
717.3000;0.6536;2.9221;
717.6000;0.6577;2.9245;
717.9000;0.6553;2.9197;
718.2000;0.6528;2.9221;
718.5000;0.6545;2.9341;
718.8000;0.6528;2.9245;
719.1000;0.6488;2.9053;
719.4000;0.6504;2.9125;
719.7000;0.6504;2.9245;
720.0000;0.6528;2.9317;
720.3000;0.6536;2.9341;
720.6000;0.6512;2.9245;
720.9000;0.6496;2.9269;
721.2000;0.6488;2.9125;
721.5000;0.6520;2.9173;
721.8000;0.6520;2.9173;
722.1000;0.6422;2.8981;
722.4000;0.6496;2.9077;
722.7000;0.6471;2.9029;
723.0000;0.6528;2.9197;
723.3000;0.6488;2.9197;
723.6000;0.6496;2.9221;
723.9000;0.6512;2.9221;
724.2000;0.6504;2.9269;
724.5000;0.6496;2.9341;
724.8000;0.6504;2.9317;
725.1000;0.6479;2.9269;
725.4000;0.6504;2.9269;
725.7000;0.6504;2.9293;
726.0000;0.6488;2.9221;
726.3000;0.6512;2.9221;
726.6000;0.6504;2.9221;
726.9000;0.6512;2.9317;
727.2000;0.6504;2.9269;
727.5000;0.6488;2.9245;
727.8000;0.6561;2.9365;
728.1000;0.6488;2.9221;
728.4000;0.6455;2.9221;
728.7000;0.6512;2.9317;
729.0000;0.6471;2.9125;
729.3000;0.6496;2.9125;
729.6000;0.6471;2.9125;
729.9000;0.6561;2.9365;
730.2000;0.6471;2.9197;
730.5000;0.6471;2.9245;
730.8000;0.6479;2.9173;
731.1000;0.6463;2.9149;
731.4000;0.6463;2.9125;
731.7000;0.6479;2.9173;
732.0000;0.6471;2.9125;
732.3000;0.6447;2.9077;
732.6000;0.6447;2.9101;
732.9000;0.6463;2.9077;
733.2000;0.6455;2.9101;
733.5000;0.6463;2.9245;
733.8000;0.6471;2.9269;
734.1000;0.6479;2.9293;
734.4000;0.6471;2.9365;
734.7000;0.6545;2.9485;
735.0000;0.6479;2.9293;
735.3000;0.6471;2.9197;
735.6000;0.6496;2.9293;
735.9000;0.6447;2.9173;
736.2000;0.6439;2.9173;
736.5000;0.6463;2.9269;
736.8000;0.6463;2.9293;
737.1000;0.6455;2.9197;
737.4000;0.6382;2.9005;
737.7000;0.6471;2.9293;
738.0000;0.6455;2.9317;
738.3000;0.6447;2.9173;
738.6000;0.6455;2.9269;
738.9000;0.6479;2.9269;
739.2000;0.6439;2.9197;
739.5000;0.6455;2.9317;
739.8000;0.6447;2.9317;
740.1000;0.6439;2.9269;
740.4000;0.6479;2.9293;
740.7000;0.6455;2.9197;
741.0000;0.6439;2.9125;
741.3000;0.6422;2.9245;
741.6000;0.6447;2.9317;
741.9000;0.6414;2.9269;
742.2000;0.6439;2.9413;
742.5000;0.6431;2.9389;
742.8000;0.6422;2.9413;
743.1000;0.6357;2.9221;
743.4000;0.6431;2.9365;
743.7000;0.6422;2.9365;
744.0000;0.6414;2.9293;
744.3000;0.6398;2.9173;
744.6000;0.6447;2.9269;
744.9000;0.6431;2.9221;
745.2000;0.6496;2.9413;
745.5000;0.6439;2.9221;
745.8000;0.6422;2.9173;
746.1000;0.6422;2.9149;
746.4000;0.6398;2.9173;
746.7000;0.6431;2.9341;
747.0000;0.6439;2.9341;
747.3000;0.6439;2.9245;
747.6000;0.6422;2.9221;
747.9000;0.6447;2.9221;
748.2000;0.6431;2.9245;
748.5000;0.6414;2.9245;
748.8000;0.6431;2.9293;
749.1000;0.6406;2.9317;
749.4000;0.6431;2.9293;
749.7000;0.6422;2.9221;
750.0000;0.6463;2.9293;
750.3000;0.6422;2.9221;
750.6000;0.6422;2.9341;
750.9000;0.6406;2.9413;
751.2000;0.6414;2.9389;
751.5000;0.6414;2.9341;
751.8000;0.6455;2.9581;
752.1000;0.6390;2.9365;
752.4000;0.6398;2.9365;
752.7000;0.6414;2.9413;
753.0000;0.6398;2.9389;
753.3000;0.6406;2.9389;
753.6000;0.6390;2.9269;
753.9000;0.6292;2.9029;
754.2000;0.6398;2.9245;
754.5000;0.6406;2.9221;
754.8000;0.6390;2.9125;
755.1000;0.6406;2.9197;
755.4000;0.6390;2.9173;
755.7000;0.6374;2.9173;
756.0000;0.6390;2.9221;
756.3000;0.6422;2.9293;
756.6000;0.6374;2.9101;
756.9000;0.6398;2.9101;
757.2000;0.6341;2.9005;
757.5000;0.6390;2.9125;
757.8000;0.6414;2.9197;
758.1000;0.6398;2.9221;
758.4000;0.6398;2.9245;
758.7000;0.6398;2.9245;
759.0000;0.6374;2.9269;
759.3000;0.6406;2.9317;
759.6000;0.6406;2.9197;
759.9000;0.6390;2.9101;
760.2000;0.6406;2.9149;
760.5000;0.6398;2.9197;
760.8000;0.6382;2.9125;
761.1000;0.6382;2.9173;
761.4000;0.6390;2.9293;
761.7000;0.6382;2.9293;
762.0000;0.6382;2.9365;
762.3000;0.6390;2.9293;
762.6000;0.6374;2.9269;
762.9000;0.6365;2.9293;
763.2000;0.6357;2.9317;
763.5000;0.6374;2.9437;
763.8000;0.6374;2.9413;
764.1000;0.6374;2.9293;
764.4000;0.6382;2.9269;
764.7000;0.6325;2.9149;
765.0000;0.6365;2.9269;
765.3000;0.6374;2.9269;
765.6000;0.6357;2.9197;
765.9000;0.6374;2.9293;
766.2000;0.6365;2.9269;
766.5000;0.6422;2.9317;
766.8000;0.6382;2.9197;
767.1000;0.6349;2.9101;
767.4000;0.6374;2.9245;
767.7000;0.6349;2.9269;
768.0000;0.6309;2.9149;
768.3000;0.6357;2.9221;
768.6000;0.6357;2.9245;
768.9000;0.6349;2.9197;
769.2000;0.6365;2.9221;
769.5000;0.6374;2.9221;
769.8000;0.6365;2.9245;
770.1000;0.6341;2.9245;
770.4000;0.6357;2.9245;
770.7000;0.6406;2.9317;
771.0000;0.6374;2.9245;
771.3000;0.6357;2.9197;
771.6000;0.6349;2.9173;
771.9000;0.6414;2.9317;
772.2000;0.6357;2.9149;
772.5000;0.6341;2.9005;
772.8000;0.6300;2.8933;
773.1000;0.6406;2.9197;
773.4000;0.6357;2.9173;
773.7000;0.6365;2.9269;
774.0000;0.6374;2.9269;
774.3000;0.6357;2.9197;
774.6000;0.6349;2.9221;
774.9000;0.6357;2.9269;
775.2000;0.6341;2.9293;
775.5000;0.6357;2.9389;
775.8000;0.6333;2.9341;
776.1000;0.6349;2.9341;
776.4000;0.6341;2.9269;
776.7000;0.6365;2.9341;
777.0000;0.6341;2.9365;
777.3000;0.6349;2.9341;
777.6000;0.6333;2.9221;
777.9000;0.6398;2.9461;
778.2000;0.6317;2.9317;
778.5000;0.6349;2.9413;
778.8000;0.6333;2.9317;
779.1000;0.6357;2.9269;
779.4000;0.6333;2.9245;
779.7000;0.6333;2.9269;
780.0000;0.6333;2.9293;
780.3000;0.6333;2.9365;
780.6000;0.6341;2.9317;
780.9000;0.6341;2.9365;
781.2000;0.6276;2.9197;
781.5000;0.6349;2.9341;
781.8000;0.6349;2.9341;
782.1000;0.6325;2.9341;
782.4000;0.6325;2.9365;
782.7000;0.6341;2.9365;
783.0000;0.6260;2.9173;
783.3000;0.6374;2.9365;
783.6000;0.6349;2.9317;
783.9000;0.6349;2.9317;
784.2000;0.6325;2.9341;
784.5000;0.6325;2.9437;
784.8000;0.6333;2.9413;
785.1000;0.6333;2.9365;
785.4000;0.6317;2.9341;
785.7000;0.6333;2.9293;
786.0000;0.6333;2.9269;
786.3000;0.6341;2.9317;
786.6000;0.6317;2.9245;
786.9000;0.6317;2.9269;
787.2000;0.6325;2.9341;
787.5000;0.6341;2.9341;
787.8000;0.6317;2.9293;
788.1000;0.6317;2.9269;
788.4000;0.6333;2.9269;
788.7000;0.6390;2.9365;
789.0000;0.6341;2.9293;
789.3000;0.6325;2.9365;
789.6000;0.6333;2.9293;
789.9000;0.6333;2.9269;
790.2000;0.6325;2.9221;
790.5000;0.6309;2.9221;
790.8000;0.6309;2.9221;
791.1000;0.6325;2.9293;
791.4000;0.6309;2.9221;
791.7000;0.6300;2.9221;
792.0000;0.6268;2.9173;
792.3000;0.6292;2.9221;
792.6000;0.6325;2.9269;
792.9000;0.6317;2.9317;
793.2000;0.6292;2.9317;
793.5000;0.6325;2.9437;
793.8000;0.6317;2.9389;
794.1000;0.6300;2.9437;
794.4000;0.6309;2.9389;
794.7000;0.6309;2.9341;
795.0000;0.6309;2.9365;
795.3000;0.6317;2.9365;
795.6000;0.6309;2.9293;
795.9000;0.6349;2.9389;
796.2000;0.6317;2.9317;
796.5000;0.6325;2.9365;
796.8000;0.6317;2.9269;
797.1000;0.6325;2.9341;
797.4000;0.6309;2.9317;
797.7000;0.6333;2.9365;
798.0000;0.6317;2.9317;
798.3000;0.6317;2.9341;
798.6000;0.6317;2.9437;
798.9000;0.6292;2.9389;
799.2000;0.6284;2.9341;
799.5000;0.6268;2.9317;
799.8000;0.6309;2.9341;
800.1000;0.6317;2.9413;
800.4000;0.6317;2.9389;
800.7000;0.6300;2.9365;
801.0000;0.6309;2.9341;
801.3000;0.6300;2.9413;
801.6000;0.6317;2.9437;
801.9000;0.6252;2.9221;
802.2000;0.6292;2.9197;
802.5000;0.6276;2.9173;
802.8000;0.6390;2.9317;
803.1000;0.6309;2.9125;
803.4000;0.6260;2.9125;
803.7000;0.6276;2.9245;
804.0000;0.6292;2.9245;
804.3000;0.6300;2.9317;
804.6000;0.6292;2.9365;
804.9000;0.6284;2.9293;
805.2000;0.6292;2.9245;
805.5000;0.6292;2.9245;
805.8000;0.6284;2.9197;
806.1000;0.6252;2.9101;
806.4000;0.6300;2.9125;
806.7000;0.6284;2.9149;
807.0000;0.6276;2.9101;
807.3000;0.6292;2.9197;
807.6000;0.6276;2.9197;
807.9000;0.6292;2.9221;
808.2000;0.6211;2.9053;
808.5000;0.6268;2.9173;
808.8000;0.6276;2.9221;
809.1000;0.6276;2.9173;
809.4000;0.6292;2.9293;
809.7000;0.6276;2.9293;
810.0000;0.6227;2.9173;
810.3000;0.6292;2.9389;
810.6000;0.6292;2.9413;
810.9000;0.6260;2.9317;
811.2000;0.6309;2.9389;
811.5000;0.6300;2.9461;
811.8000;0.6292;2.9437;
812.1000;0.6252;2.9365;
812.4000;0.6284;2.9413;
812.7000;0.6276;2.9413;
813.0000;0.6292;2.9437;
813.3000;0.6235;2.9317;
813.6000;0.6276;2.9245;
813.9000;0.6341;2.9389;
814.2000;0.6260;2.9101;
814.5000;0.6276;2.9101;
814.8000;0.6292;2.9149;
815.1000;0.6260;2.9149;
815.4000;0.6292;2.9221;
815.7000;0.6260;2.9077;
816.0000;0.6243;2.9029;
816.3000;0.6284;2.9149;
816.6000;0.6138;2.8789;
816.9000;0.6268;2.9197;
817.2000;0.6252;2.9197;
817.5000;0.6227;2.9245;
817.8000;0.6268;2.9269;
818.1000;0.6268;2.9293;
818.4000;0.6268;2.9221;
818.7000;0.6195;2.8957;
819.0000;0.6292;2.9221;
819.3000;0.6276;2.9293;
819.6000;0.6276;2.9269;
819.9000;0.6276;2.9269;
820.2000;0.6268;2.9221;
820.5000;0.6284;2.9221;
820.8000;0.6260;2.9149;
821.1000;0.6292;2.9221;
821.4000;0.6260;2.9221;
821.7000;0.6292;2.9341;
822.0000;0.6268;2.9269;
822.3000;0.6268;2.9197;
822.6000;0.6227;2.9077;
822.9000;0.6268;2.9293;
823.2000;0.6260;2.9293;
823.5000;0.6252;2.9125;
823.8000;0.6260;2.9221;
824.1000;0.6268;2.9269;
824.4000;0.6268;2.9341;
824.7000;0.6260;2.9317;
825.0000;0.6260;2.9269;
825.3000;0.6252;2.9293;
825.6000;0.6260;2.9389;
825.9000;0.6186;2.9293;
826.2000;0.6243;2.9485;
826.5000;0.6252;2.9509;
826.8000;0.6333;2.9629;
827.1000;0.6252;2.9461;
827.4000;0.6243;2.9413;
827.7000;0.6252;2.9389;
828.0000;0.6243;2.9389;
828.3000;0.6260;2.9461;
828.6000;0.6227;2.9293;
828.9000;0.6243;2.9269;
829.2000;0.6227;2.9197;
829.5000;0.6252;2.9269;
829.8000;0.6235;2.9173;
830.1000;0.6268;2.9245;
830.4000;0.6243;2.9245;
830.7000;0.6252;2.9293;
831.0000;0.6284;2.9341;
831.3000;0.6268;2.9221;
831.6000;0.6235;2.9197;
831.9000;0.6252;2.9269;
832.2000;0.6252;2.9197;
832.5000;0.6252;2.9245;
832.8000;0.6252;2.9269;
833.1000;0.6260;2.9293;
833.4000;0.6252;2.9197;
833.7000;0.6227;2.9149;
834.0000;0.6235;2.9173;
834.3000;0.6252;2.9197;
834.6000;0.6276;2.9293;
834.9000;0.6260;2.9245;
835.2000;0.6227;2.9077;
835.5000;0.6243;2.9053;
835.8000;0.6260;2.9077;
836.1000;0.6292;2.9101;
836.4000;0.6252;2.9029;
836.7000;0.6243;2.9125;
837.0000;0.6235;2.9149;
837.3000;0.6300;2.9245;
837.6000;0.6227;2.9149;
837.9000;0.6235;2.9293;
838.2000;0.6243;2.9317;
838.5000;0.6243;2.9269;
838.8000;0.6219;2.9221;
839.1000;0.6227;2.9269;
839.4000;0.6235;2.9293;
839.7000;0.6309;2.9557;
840.0000;0.6235;2.9413;
840.3000;0.6235;2.9293;
840.6000;0.6260;2.9413;
840.9000;0.6243;2.9365;
841.2000;0.6219;2.9317;
841.5000;0.6243;2.9389;
841.8000;0.6268;2.9365;
842.1000;0.6260;2.9293;
842.4000;0.6235;2.9269;
842.7000;0.6284;2.9413;
843.0000;0.6227;2.9149;
843.3000;0.6235;2.9125;
843.6000;0.6252;2.9173;
843.9000;0.6113;2.8933;
844.2000;0.6219;2.9269;
844.5000;0.6268;2.9317;
844.8000;0.6227;2.9245;
845.1000;0.6227;2.9173;
845.4000;0.6252;2.9245;
845.7000;0.6252;2.9245;
846.0000;0.6252;2.9221;
846.3000;0.6219;2.9245;
846.6000;0.6227;2.9269;
846.9000;0.6243;2.9269;
847.2000;0.6276;2.9341;
847.5000;0.6227;2.9173;
847.8000;0.6227;2.9173;
848.1000;0.6211;2.9173;
848.4000;0.6178;2.9029;
848.7000;0.6219;2.9125;
849.0000;0.6227;2.9149;
849.3000;0.6227;2.9197;
849.6000;0.6227;2.9341;
849.9000;0.6235;2.9389;
850.2000;0.6211;2.9221;
850.5000;0.6211;2.9197;
850.8000;0.6252;2.9221;
851.1000;0.6235;2.9149;
851.4000;0.6268;2.9221;
851.7000;0.6211;2.9053;
852.0000;0.6227;2.9173;
852.3000;0.6211;2.9125;
852.6000;0.6219;2.9125;
852.9000;0.6227;2.9101;
853.2000;0.6219;2.9053;
853.5000;0.6211;2.9077;
853.8000;0.6243;2.9149;
854.1000;0.6219;2.9149;
854.4000;0.6154;2.9101;
854.7000;0.6219;2.9245;
855.0000;0.6219;2.9341;
855.3000;0.6227;2.9413;
855.6000;0.6227;2.9413;
855.9000;0.6211;2.9413;
856.2000;0.6235;2.9485;
856.5000;0.6211;2.9437;
856.8000;0.6227;2.9485;
857.1000;0.6203;2.9365;
857.4000;0.6211;2.9389;
857.7000;0.6235;2.9413;
858.0000;0.6219;2.9341;
858.3000;0.6219;2.9293;
858.6000;0.6219;2.9341;
858.9000;0.6227;2.9533;
859.2000;0.6243;2.9557;
859.5000;0.6203;2.9485;
859.8000;0.6211;2.9533;
860.1000;0.6219;2.9509;
860.4000;0.6211;2.9557;
860.7000;0.6219;2.9485;
861.0000;0.6203;2.9533;
861.3000;0.6178;2.9485;
861.6000;0.6178;2.9413;
861.9000;0.6195;2.9389;
862.2000;0.6211;2.9341;
862.5000;0.6203;2.9317;
862.8000;0.6203;2.9317;
863.1000;0.6195;2.9317;
863.4000;0.6203;2.9317;
863.7000;0.6211;2.9365;
864.0000;0.6195;2.9317;
864.3000;0.6211;2.9341;
864.6000;0.6195;2.9341;
864.9000;0.6211;2.9365;
865.2000;0.6195;2.9245;
865.5000;0.6227;2.9317;
865.8000;0.6203;2.9341;
866.1000;0.6227;2.9437;
866.4000;0.6211;2.9389;
866.7000;0.6211;2.9389;
867.0000;0.6235;2.9413;
867.3000;0.6203;2.9413;
867.6000;0.6203;2.9485;
867.9000;0.6203;2.9461;
868.2000;0.6211;2.9629;
868.5000;0.6227;2.9653;
868.8000;0.6211;2.9557;
869.1000;0.6219;2.9581;
869.4000;0.6186;2.9485;
869.7000;0.6219;2.9533;
870.0000;0.6186;2.9485;
870.3000;0.6211;2.9485;
870.6000;0.6203;2.9533;
870.9000;0.6178;2.9509;
871.2000;0.6178;2.9533;
871.5000;0.6211;2.9581;
871.8000;0.6186;2.9533;
872.1000;0.6186;2.9557;
872.4000;0.6195;2.9581;
872.7000;0.6203;2.9485;
873.0000;0.6211;2.9533;
873.3000;0.6129;2.9317;
873.6000;0.6203;2.9509;
873.9000;0.6219;2.9605;
874.2000;0.6260;2.9749;
874.5000;0.6203;2.9605;
874.8000;0.6260;2.9749;
875.1000;0.6170;2.9605;
875.4000;0.6219;2.9653;
875.7000;0.6227;2.9773;
876.0000;0.6072;2.9509;
876.3000;0.6170;2.9701;
876.6000;0.6195;2.9701;
876.9000;0.6186;2.9581;
877.2000;0.6186;2.9533;
877.5000;0.6186;2.9509;
877.8000;0.6195;2.9533;
878.1000;0.6195;2.9533;
878.4000;0.6170;2.9437;
878.7000;0.6195;2.9533;
879.0000;0.6195;2.9533;
879.3000;0.6186;2.9461;
879.6000;0.6203;2.9485;
879.9000;0.6203;2.9557;
880.2000;0.6203;2.9653;
880.5000;0.6268;2.9773;
880.8000;0.6227;2.9701;
881.1000;0.6162;2.9533;
881.4000;0.6186;2.9605;
881.7000;0.6203;2.9581;
882.0000;0.6170;2.9413;
882.3000;0.6186;2.9437;
882.6000;0.6178;2.9461;
882.9000;0.6186;2.9509;
883.2000;0.6186;2.9485;
883.5000;0.6195;2.9509;
883.8000;0.6203;2.9461;
884.1000;0.6121;2.9269;
884.4000;0.6170;2.9365;
884.7000;0.6195;2.9413;
885.0000;0.6195;2.9461;
885.3000;0.6186;2.9485;
885.6000;0.6195;2.9533;
885.9000;0.6195;2.9557;
886.2000;0.6195;2.9557;
886.5000;0.6186;2.9557;
886.8000;0.6178;2.9509;
887.1000;0.6178;2.9437;
887.4000;0.6195;2.9461;
887.7000;0.6162;2.9365;
888.0000;0.6203;2.9437;
888.3000;0.6195;2.9509;
888.6000;0.6170;2.9461;
888.9000;0.6195;2.9461;
889.2000;0.6203;2.9413;
889.5000;0.6178;2.9293;
889.8000;0.6186;2.9365;
890.1000;0.6195;2.9485;
890.4000;0.6138;2.9293;
890.7000;0.6178;2.9437;
891.0000;0.6203;2.9509;
891.3000;0.6170;2.9461;
891.6000;0.6211;2.9485;
891.9000;0.6243;2.9605;
892.2000;0.6195;2.9413;
892.5000;0.6186;2.9317;
892.8000;0.6113;2.9173;
893.1000;0.6211;2.9437;
893.4000;0.6203;2.9437;
893.7000;0.6195;2.9389;
894.0000;0.6186;2.9413;
894.3000;0.6186;2.9389;
894.6000;0.6195;2.9317;
894.9000;0.6211;2.9413;
895.2000;0.6211;2.9485;
895.5000;0.6178;2.9437;
895.8000;0.6178;2.9461;
896.1000;0.6178;2.9485;
896.4000;0.6170;2.9437;
896.7000;0.6276;2.9701;
897.0000;0.6178;2.9485;
897.3000;0.6162;2.9509;
897.6000;0.6195;2.9533;
897.9000;0.6178;2.9413;
898.2000;0.6170;2.9389;
898.5000;0.6178;2.9389;
898.8000;0.6186;2.9461;
899.1000;0.6211;2.9581;
899.4000;0.6203;2.9557;
899.7000;0.6178;2.9533;
900.0000;0.6170;2.9437;
900.3000;0.6243;2.9581;
900.6000;0.6162;2.9461;
900.9000;0.6146;2.9413;
901.2000;0.6195;2.9485;
901.5000;0.6178;2.9389;
901.8000;0.6162;2.9413;
902.1000;0.6227;2.9509;
902.4000;0.6170;2.9365;
902.7000;0.6154;2.9341;
903.0000;0.6162;2.9293;
903.3000;0.6178;2.9245;
903.6000;0.6162;2.9269;
903.9000;0.6162;2.9365;
904.2000;0.6186;2.9437;
904.5000;0.6178;2.9485;
904.8000;0.6170;2.9509;
905.1000;0.6170;2.9605;
905.4000;0.6170;2.9629;
905.7000;0.6129;2.9581;
906.0000;0.6178;2.9677;
906.3000;0.6129;2.9461;
906.6000;0.6162;2.9557;
906.9000;0.6170;2.9653;
907.2000;0.6162;2.9677;
907.5000;0.6146;2.9701;
907.8000;0.6178;2.9701;
908.1000;0.6186;2.9677;
908.4000;0.6170;2.9557;
908.7000;0.6178;2.9557;
909.0000;0.6146;2.9581;
909.3000;0.6170;2.9677;
909.6000;0.6170;2.9653;
909.9000;0.6162;2.9581;
910.2000;0.6162;2.9605;
910.5000;0.6162;2.9581;
910.8000;0.6154;2.9605;
911.1000;0.6154;2.9653;
911.4000;0.6146;2.9677;
911.7000;0.6154;2.9701;
912.0000;0.6162;2.9725;
912.3000;0.6162;2.9605;
912.6000;0.6146;2.9461;
912.9000;0.6162;2.9509;
913.2000;0.6178;2.9581;
913.5000;0.6219;2.9677;
913.8000;0.6105;2.9437;
914.1000;0.6162;2.9485;
914.4000;0.6138;2.9365;
914.7000;0.6170;2.9485;
915.0000;0.6170;2.9509;
915.3000;0.6162;2.9581;
915.6000;0.6186;2.9605;
915.9000;0.6113;2.9413;
916.2000;0.6162;2.9581;
916.5000;0.6138;2.9509;
916.8000;0.6154;2.9605;
917.1000;0.6162;2.9581;
917.4000;0.6178;2.9629;
917.7000;0.6154;2.9581;
918.0000;0.6170;2.9701;
918.3000;0.6154;2.9725;
918.6000;0.6162;2.9749;
918.9000;0.6121;2.9629;
919.2000;0.6178;2.9701;
919.5000;0.6162;2.9653;
919.8000;0.6154;2.9533;
920.1000;0.6138;2.9557;
920.4000;0.6154;2.9533;
920.7000;0.6146;2.9461;
921.0000;0.6162;2.9485;
921.3000;0.6154;2.9509;
921.6000;0.6162;2.9461;
921.9000;0.6154;2.9389;
922.2000;0.6178;2.9485;
922.5000;0.6162;2.9461;
922.8000;0.6178;2.9461;
923.1000;0.6138;2.9389;
923.4000;0.6162;2.9461;
923.7000;0.6072;2.9245;
924.0000;0.6146;2.9437;
924.3000;0.6138;2.9413;
924.6000;0.6056;2.9149;
924.9000;0.6170;2.9293;
925.2000;0.6170;2.9317;
925.5000;0.6186;2.9341;
925.8000;0.6170;2.9317;
926.1000;0.6154;2.9293;
926.4000;0.6138;2.9317;
926.7000;0.6129;2.9341;
927.0000;0.6146;2.9461;
927.3000;0.6195;2.9533;
927.6000;0.6162;2.9509;
927.9000;0.6154;2.9533;
928.2000;0.6162;2.9653;
928.5000;0.6154;2.9533;
928.8000;0.6146;2.9557;
929.1000;0.6121;2.9653;
929.4000;0.6154;2.9725;
929.7000;0.6129;2.9725;
930.0000;0.6113;2.9653;
930.3000;0.6178;2.9749;
930.6000;0.6129;2.9701;
930.9000;0.6162;2.9773;
931.2000;0.6138;2.9581;
931.5000;0.6162;2.9605;
931.8000;0.6162;2.9557;
932.1000;0.6146;2.9509;
932.4000;0.6170;2.9557;
932.7000;0.6146;2.9509;
933.0000;0.6170;2.9581;
933.3000;0.6154;2.9581;
933.6000;0.6154;2.9605;
933.9000;0.6195;2.9629;
934.2000;0.6129;2.9557;
934.5000;0.6146;2.9557;
934.8000;0.6146;2.9677;
935.1000;0.6162;2.9701;
935.4000;0.6170;2.9677;
935.7000;0.6162;2.9581;
936.0000;0.6154;2.9605;
936.3000;0.6162;2.9653;
936.6000;0.6129;2.9509;
936.9000;0.6154;2.9605;
937.2000;0.6162;2.9653;
937.5000;0.6162;2.9653;
937.8000;0.6162;2.9701;
938.1000;0.6146;2.9581;
938.4000;0.6154;2.9629;
938.7000;0.6162;2.9725;
939.0000;0.6162;2.9773;
939.3000;0.6146;2.9725;
939.6000;0.6129;2.9725;
939.9000;0.6138;2.9725;
940.2000;0.6105;2.9773;
940.5000;0.6211;2.9964;
940.8000;0.6089;2.9749;
941.1000;0.6121;2.9821;
941.4000;0.6162;2.9893;
941.7000;0.6121;2.9773;
942.0000;0.6154;2.9821;
942.3000;0.6129;2.9773;
942.6000;0.6138;2.9821;
942.9000;0.6154;2.9821;
943.2000;0.6121;2.9725;
943.5000;0.6146;2.9821;
943.8000;0.6178;2.9916;
944.1000;0.6154;2.9869;
944.4000;0.6154;2.9821;
944.7000;0.6105;2.9749;
945.0000;0.6138;2.9725;
945.3000;0.6138;2.9797;
945.6000;0.6146;2.9893;
945.9000;0.6129;2.9916;
946.2000;0.6146;2.9916;
946.5000;0.6178;2.9964;
946.8000;0.6162;2.9916;
947.1000;0.6162;2.9845;
947.4000;0.6146;2.9845;
947.7000;0.6170;2.9916;
948.0000;0.6113;2.9797;
948.3000;0.6129;2.9797;
948.6000;0.6113;2.9773;
948.9000;0.6170;2.9869;
949.2000;0.6138;2.9773;
949.5000;0.6138;2.9749;
949.8000;0.6146;2.9821;
950.1000;0.6056;2.9557;
950.4000;0.6154;2.9845;
950.7000;0.6121;2.9821;
951.0000;0.6178;2.9964;
951.3000;0.6162;2.9869;
951.6000;0.6154;2.9845;
951.9000;0.6154;2.9916;
952.2000;0.6186;3.0012;
952.5000;0.6121;2.9893;
952.8000;0.6178;3.0060;
953.1000;0.6113;2.9916;
953.4000;0.6129;2.9916;
953.7000;0.6089;2.9821;
954.0000;0.6138;2.9940;
954.3000;0.6121;2.9869;
954.6000;0.6129;2.9916;
954.9000;0.6129;2.9916;
955.2000;0.6203;3.0036;
955.5000;0.6138;2.9869;
955.8000;0.6146;2.9916;
956.1000;0.6138;2.9893;
956.4000;0.6129;2.9845;
956.7000;0.6203;2.9964;
957.0000;0.6154;2.9893;
957.3000;0.6121;2.9821;
957.6000;0.6113;2.9797;
957.9000;0.6081;2.9701;
958.2000;0.6105;2.9725;
958.5000;0.6121;2.9749;
958.8000;0.6121;2.9845;
959.1000;0.6113;2.9845;
959.4000;0.6129;2.9869;
959.7000;0.6121;2.9749;
960.0000;0.6113;2.9677;
960.3000;0.6138;2.9629;
960.6000;0.6138;2.9557;
960.9000;0.6113;2.9581;
961.2000;0.6146;2.9725;
961.5000;0.6154;2.9773;
961.8000;0.6154;2.9725;
962.1000;0.6162;2.9773;
962.4000;0.6113;2.9677;
962.7000;0.6129;2.9677;
963.0000;0.6138;2.9653;
963.3000;0.6146;2.9653;
963.6000;0.6129;2.9605;
963.9000;0.6154;2.9725;
964.2000;0.6138;2.9773;
964.5000;0.6129;2.9725;
964.8000;0.6129;2.9701;
965.1000;0.6129;2.9701;
965.4000;0.6146;2.9773;
965.7000;0.6138;2.9701;
966.0000;0.6121;2.9629;
966.3000;0.6138;2.9653;
966.6000;0.6129;2.9557;
966.9000;0.6138;2.9533;
967.2000;0.6113;2.9437;
967.5000;0.6129;2.9653;
967.8000;0.6121;2.9797;
968.1000;0.6138;2.9821;
968.4000;0.6113;2.9845;
968.7000;0.6105;2.9773;
969.0000;0.6113;2.9797;
969.3000;0.6113;2.9797;
969.6000;0.6138;2.9845;
969.9000;0.6129;2.9797;
970.2000;0.6081;2.9653;
970.5000;0.6121;2.9773;
970.8000;0.6129;2.9845;
971.1000;0.6097;2.9677;
971.4000;0.6138;2.9725;
971.7000;0.6138;2.9749;
972.0000;0.6113;2.9725;
972.3000;0.6113;2.9677;
972.6000;0.6138;2.9797;
972.9000;0.6146;2.9964;
973.2000;0.6113;3.0012;
973.5000;0.6121;3.0012;
973.8000;0.6097;2.9916;
974.1000;0.6105;2.9869;
974.4000;0.6105;2.9845;
974.7000;0.6113;2.9869;
975.0000;0.6121;2.9893;
975.3000;0.6113;2.9869;
975.6000;0.6121;2.9869;
975.9000;0.6129;2.9821;
976.2000;0.6138;2.9797;
976.5000;0.6138;2.9797;
976.8000;0.6081;2.9629;
977.1000;0.6113;2.9773;
977.4000;0.6113;2.9845;
977.7000;0.6105;2.9869;
978.0000;0.6121;2.9916;
978.3000;0.6113;2.9893;
978.6000;0.6121;2.9916;
978.9000;0.6113;2.9821;
979.2000;0.6129;2.9773;
979.5000;0.6154;2.9773;
979.8000;0.6121;2.9701;
980.1000;0.6105;2.9629;
980.4000;0.6121;2.9701;
980.7000;0.6138;2.9725;
981.0000;0.6138;2.9677;
981.3000;0.6129;2.9701;
981.6000;0.6146;2.9749;
981.9000;0.6097;2.9677;
982.2000;0.6138;2.9749;
982.5000;0.6129;2.9725;
982.8000;0.6129;2.9749;
983.1000;0.6129;2.9725;
983.4000;0.6138;2.9725;
983.7000;0.6105;2.9605;
984.0000;0.6105;2.9701;
984.3000;0.6129;2.9773;
984.6000;0.6195;2.9869;
984.9000;0.6138;2.9773;
985.2000;0.6105;2.9749;
985.5000;0.6138;2.9916;
985.8000;0.6121;2.9893;
986.1000;0.6203;3.0036;
986.4000;0.6121;2.9725;
986.7000;0.6121;2.9773;
987.0000;0.6138;2.9821;
987.3000;0.6138;2.9869;
987.6000;0.6105;2.9821;
987.9000;0.6129;2.9821;
988.2000;0.6138;2.9821;
988.5000;0.6121;2.9725;
988.8000;0.6113;2.9653;
989.1000;0.6121;2.9653;
989.4000;0.6105;2.9701;
989.7000;0.6121;2.9701;
990.0000;0.6113;2.9701;
990.3000;0.6113;2.9725;
990.6000;0.6097;2.9749;
990.9000;0.6138;2.9749;
991.2000;0.6113;2.9701;
991.5000;0.6089;2.9749;
991.8000;0.6121;2.9749;
992.1000;0.6105;2.9677;
992.4000;0.6105;2.9677;
992.7000;0.6138;2.9725;
993.0000;0.6097;2.9629;
993.3000;0.6105;2.9677;
993.6000;0.6089;2.9701;
993.9000;0.6121;2.9845;
994.2000;0.6154;2.9821;
994.5000;0.6097;2.9629;
994.8000;0.6129;2.9653;
995.1000;0.6105;2.9725;
995.4000;0.6129;2.9725;
995.7000;0.6121;2.9725;
996.0000;0.6154;2.9725;
996.3000;0.6121;2.9653;
996.6000;0.6113;2.9629;
996.9000;0.6129;2.9605;
997.2000;0.6121;2.9725;
997.5000;0.6113;2.9749;
997.8000;0.6146;2.9725;
998.1000;0.6097;2.9581;
998.4000;0.6121;2.9677;
998.7000;0.6105;2.9605;
999.0000;0.6129;2.9653;
999.3000;0.6113;2.9677;
999.6000;0.6138;2.9701;
999.9000;0.6121;2.9773;
1000.2000;0.6121;2.9725;
1000.5000;0.6113;2.9701;
1000.8000;0.6097;2.9725;
1001.1000;0.6138;2.9749;
1001.4000;0.6129;2.9677;
1001.7000;0.6113;2.9509;
1002.0000;0.6211;2.9797;
1002.3000;0.6121;2.9557;
1002.6000;0.6113;2.9461;
1002.9000;0.6121;2.9557;
1003.2000;0.6097;2.9485;
1003.5000;0.6105;2.9437;
1003.8000;0.6089;2.9413;
1004.1000;0.6097;2.9509;
1004.4000;0.6113;2.9581;
1004.7000;0.6113;2.9725;
1005.0000;0.6097;2.9749;
1005.3000;0.6081;2.9701;
1005.6000;0.6097;2.9677;
1005.9000;0.6121;2.9653;
1006.2000;0.6105;2.9629;
1006.5000;0.6113;2.9701;
1006.8000;0.6138;2.9653;
1007.1000;0.6138;2.9605;
1007.4000;0.6162;2.9677;
1007.7000;0.6129;2.9605;
1008.0000;0.6064;2.9485;
1008.3000;0.6089;2.9701;
1008.6000;0.6113;2.9773;
1008.9000;0.6056;2.9677;
1009.2000;0.6089;2.9749;
1009.5000;0.6097;2.9773;
1009.8000;0.6097;2.9701;
1010.1000;0.6121;2.9725;
1010.4000;0.6097;2.9605;
1010.7000;0.6105;2.9677;
1011.0000;0.6113;2.9701;
1011.3000;0.6113;2.9725;
1011.6000;0.6089;2.9701;
1011.9000;0.6089;2.9773;
1012.2000;0.6105;2.9845;
1012.5000;0.6113;2.9797;
1012.8000;0.6121;2.9725;
1013.1000;0.6089;2.9773;
1013.4000;0.6089;2.9797;
1013.7000;0.6113;2.9821;
1014.0000;0.6097;2.9749;
1014.3000;0.6081;2.9653;
1014.6000;0.6105;2.9749;
1014.9000;0.6089;2.9773;
1015.2000;0.6056;2.9677;
1015.5000;0.6097;2.9749;
1015.8000;0.6081;2.9653;
1016.1000;0.6105;2.9725;
1016.4000;0.6113;2.9725;
1016.7000;0.6146;2.9821;
1017.0000;0.6113;2.9701;
1017.3000;0.6113;2.9725;
1017.6000;0.6097;2.9749;
1017.9000;0.6097;2.9773;
1018.2000;0.6097;2.9821;
1018.5000;0.6105;2.9821;
1018.8000;0.6089;2.9821;
1019.1000;0.6089;2.9773;
1019.4000;0.6105;2.9893;
1019.7000;0.6105;2.9869;
1020.0000;0.6097;2.9845;
1020.3000;0.6089;2.9893;
1020.6000;0.6089;2.9869;
1020.9000;0.6097;2.9821;
1021.2000;0.6097;2.9821;
1021.5000;0.6097;2.9773;
1021.8000;0.6113;2.9797;
1022.1000;0.6097;2.9749;
1022.4000;0.6089;2.9701;
1022.7000;0.6097;2.9773;
1023.0000;0.6081;2.9773;
1023.3000;0.6081;2.9773;
1023.6000;0.6089;2.9701;
1023.9000;0.6121;2.9749;
1024.2000;0.6097;2.9677;
1024.5000;0.6089;2.9605;
1024.8000;0.6121;2.9773;
1025.1000;0.6113;2.9845;
1025.4000;0.6081;2.9869;
1025.7000;0.6007;2.9653;
1026.0000;0.6089;2.9821;
1026.3000;0.6097;2.9821;
1026.6000;0.6089;2.9845;
1026.9000;0.6105;2.9821;
1027.2000;0.6113;2.9845;
1027.5000;0.6105;2.9797;
1027.8000;0.6089;2.9749;
1028.1000;0.6154;2.9845;
1028.4000;0.6097;2.9701;
1028.7000;0.6081;2.9773;
1029.0000;0.6097;2.9845;
1029.3000;0.6105;2.9821;
1029.6000;0.6097;2.9869;
1029.9000;0.6089;2.9869;
1030.2000;0.6105;2.9893;
1030.5000;0.6081;2.9773;
1030.8000;0.6089;2.9773;
1031.1000;0.6064;2.9773;
1031.4000;0.6064;2.9869;
1031.7000;0.6097;2.9940;
1032.0000;0.6105;2.9988;
1032.3000;0.6097;2.9940;
1032.6000;0.6097;3.0012;
1032.9000;0.6105;3.0036;
1033.2000;0.6105;3.0084;
1033.5000;0.6089;3.0084;
1033.8000;0.6081;3.0156;
1034.1000;0.6089;3.0252;
1034.4000;0.6081;3.0180;
1034.7000;0.6089;3.0228;
1035.0000;0.6072;3.0180;
1035.3000;0.6056;3.0156;
1035.6000;0.6097;3.0132;
1035.9000;0.6081;3.0132;
1036.2000;0.6138;3.0252;
1036.5000;0.6064;3.0084;
1036.8000;0.6072;3.0060;
1037.1000;0.6097;3.0012;
1037.4000;0.6081;2.9940;
1037.7000;0.6105;2.9940;
1038.0000;0.6072;2.9869;
1038.3000;0.6072;2.9845;
1038.6000;0.6081;2.9916;
1038.9000;0.6081;2.9821;
1039.2000;0.6040;2.9725;
1039.5000;0.6089;2.9797;
1039.8000;0.6105;2.9869;
1040.1000;0.6089;2.9964;
1040.4000;0.6105;2.9940;
1040.7000;0.6089;2.9893;
1041.0000;0.6081;2.9964;
1041.3000;0.6081;3.0036;
1041.6000;0.6097;3.0036;
1041.9000;0.6105;3.0156;
1042.2000;0.6162;3.0252;
1042.5000;0.6007;3.0012;
1042.8000;0.6064;3.0180;
1043.1000;0.6081;3.0276;
1043.4000;0.6056;3.0228;
1043.7000;0.6015;3.0132;
1044.0000;0.6097;3.0300;
1044.3000;0.6072;3.0228;
1044.6000;0.6064;3.0108;
1044.9000;0.6015;2.9916;
1045.2000;0.6097;3.0012;
1045.5000;0.6089;2.9893;
1045.8000;0.6089;2.9869;
1046.1000;0.6089;2.9773;
1046.4000;0.6089;2.9821;
1046.7000;0.6121;2.9869;
1047.0000;0.6081;2.9845;
1047.3000;0.6097;2.9869;
1047.6000;0.6072;2.9916;
1047.9000;0.6081;2.9916;
1048.2000;0.6097;2.9845;
1048.5000;0.6048;2.9797;
1048.8000;0.6121;3.0012;
1049.1000;0.6056;2.9869;
1049.4000;0.6081;2.9964;
1049.7000;0.6081;2.9916;
1050.0000;0.6105;2.9940;
1050.3000;0.6089;2.9845;
1050.6000;0.6089;2.9845;
1050.9000;0.6121;2.9869;
1051.2000;0.6097;2.9869;
1051.5000;0.6072;2.9940;
1051.8000;0.6072;3.0036;
1052.1000;0.6105;3.0084;
1052.4000;0.6081;2.9916;
1052.7000;0.6072;2.9845;
1053.0000;0.6105;2.9988;
1053.3000;0.6081;3.0012;
1053.6000;0.6081;3.0036;
1053.9000;0.6089;3.0012;
1054.2000;0.6081;3.0012;
1054.5000;0.6089;3.0036;
1054.8000;0.6081;2.9916;
1055.1000;0.6089;2.9964;
1055.4000;0.6089;3.0012;
1055.7000;0.6072;3.0012;
1056.0000;0.6129;3.0252;
1056.3000;0.6105;3.0132;
1056.6000;0.6081;3.0156;
1056.9000;0.6072;3.0132;
1057.2000;0.6105;3.0276;
1057.5000;0.6081;3.0132;
1057.8000;0.6040;3.0084;
1058.1000;0.6081;3.0156;
1058.4000;0.6081;3.0132;
1058.7000;0.6072;3.0060;
1059.0000;0.6097;3.0012;
1059.3000;0.6072;2.9940;
1059.6000;0.6089;2.9964;
1059.9000;0.6056;2.9893;
1060.2000;0.6097;2.9869;
1060.5000;0.6089;2.9845;
1060.8000;0.6072;2.9821;
1061.1000;0.6072;2.9869;
1061.4000;0.6072;2.9869;
1061.7000;0.6081;2.9845;
1062.0000;0.6072;2.9964;
1062.3000;0.6081;3.0036;
1062.6000;0.6081;2.9964;
1062.9000;0.6081;2.9940;
1063.2000;0.6040;2.9797;
1063.5000;0.6072;2.9869;
1063.8000;0.6072;2.9869;
1064.1000;0.6081;2.9845;
1064.4000;0.6097;2.9940;
1064.7000;0.6072;2.9869;
1065.0000;0.6072;2.9869;
1065.3000;0.6072;2.9893;
1065.6000;0.6072;2.9893;
1065.9000;0.6089;2.9916;
1066.2000;0.6024;2.9797;
1066.5000;0.6072;2.9916;
1066.8000;0.6089;2.9988;
1067.1000;0.6089;2.9964;
1067.4000;0.6081;2.9916;
1067.7000;0.6097;2.9964;
1068.0000;0.6072;2.9964;
1068.3000;0.6081;3.0012;
1068.6000;0.6072;2.9988;
1068.9000;0.6089;2.9916;
1069.2000;0.6105;2.9869;
1069.5000;0.6072;2.9869;
1069.8000;0.6081;2.9797;
1070.1000;0.6072;2.9773;
1070.4000;0.6081;2.9821;
1070.7000;0.6064;2.9821;
1071.0000;0.6081;2.9797;
1071.3000;0.6072;2.9821;
1071.6000;0.6064;2.9869;
1071.9000;0.6121;2.9988;
1072.2000;0.6081;2.9893;
1072.5000;0.6064;2.9821;
1072.8000;0.6040;2.9893;
1073.1000;0.6064;2.9916;
1073.4000;0.6064;2.9797;
1073.7000;0.6072;2.9797;
1074.0000;0.6056;2.9821;
1074.3000;0.6064;2.9797;
1074.6000;0.6064;2.9797;
1074.9000;0.6081;2.9869;
1075.2000;0.6064;2.9821;
1075.5000;0.6056;2.9773;
1075.8000;0.6105;2.9940;
1076.1000;0.6089;2.9988;
1076.4000;0.6072;2.9916;
1076.7000;0.6048;2.9869;
1077.0000;0.6072;2.9893;
1077.3000;0.6089;2.9893;
1077.6000;0.6089;2.9845;
1077.9000;0.6081;2.9797;
1078.2000;0.6105;2.9893;
1078.5000;0.6081;2.9893;
1078.8000;0.6056;2.9821;
1079.1000;0.6072;2.9893;
1079.4000;0.6081;2.9869;
1079.7000;0.6089;2.9964;
1080.0000;0.6081;2.9916;
1080.3000;0.6089;2.9893;
1080.6000;0.6081;2.9940;
1080.9000;0.6056;2.9916;
1081.2000;0.6097;2.9964;
1081.5000;0.6064;2.9940;
1081.8000;0.6072;2.9988;
1082.1000;0.6138;3.0084;
1082.4000;0.6081;2.9940;
1082.7000;0.6081;2.9869;
1083.0000;0.6072;2.9773;
1083.3000;0.6113;2.9893;
1083.6000;0.6081;2.9845;
1083.9000;0.6089;2.9797;
1084.2000;0.6105;2.9893;
1084.5000;0.6105;2.9845;
1084.8000;0.6064;2.9797;
1085.1000;0.6048;2.9749;
1085.4000;0.6072;2.9773;
1085.7000;0.6064;2.9797;
1086.0000;0.6048;2.9773;
1086.3000;0.6081;2.9845;
1086.6000;0.6097;2.9845;
1086.9000;0.6081;2.9749;
1087.2000;0.6089;2.9797;
1087.5000;0.6064;2.9797;
1087.8000;0.6081;2.9653;
1088.1000;0.6048;2.9605;
1088.4000;0.6089;2.9629;
1088.7000;0.6089;2.9629;
1089.0000;0.6064;2.9653;
1089.3000;0.6081;2.9797;
1089.6000;0.6064;2.9749;
1089.9000;0.6040;2.9677;
1090.2000;0.6081;2.9701;
1090.5000;0.6081;2.9629;
1090.8000;0.6089;2.9701;
1091.1000;0.6064;2.9725;
1091.4000;0.6064;2.9749;
1091.7000;0.6056;2.9677;
1092.0000;0.6072;2.9701;
1092.3000;0.6072;2.9773;
1092.6000;0.6081;2.9797;
1092.9000;0.6048;2.9701;
1093.2000;0.6072;2.9701;
1093.5000;0.6064;2.9749;
1093.8000;0.6048;2.9725;
1094.1000;0.6072;2.9773;
1094.4000;0.6040;2.9677;
1094.7000;0.6064;2.9773;
1095.0000;0.6048;2.9749;
1095.3000;0.6072;2.9869;
1095.6000;0.6040;2.9773;
1095.9000;0.6081;2.9845;
1096.2000;0.6081;2.9964;
1096.5000;0.6072;2.9845;
1096.8000;0.6081;2.9845;
1097.1000;0.6064;2.9893;
1097.4000;0.6072;2.9845;
1097.7000;0.6081;2.9845;
1098.0000;0.6081;2.9869;
1098.3000;0.6064;2.9869;
1098.6000;0.6081;2.9893;
1098.9000;0.6064;2.9821;
1099.2000;0.6081;2.9869;
1099.5000;0.6048;2.9725;
1099.8000;0.6105;2.9725;
1100.1000;0.6089;2.9749;
1100.4000;0.6064;2.9653;
1100.7000;0.6081;2.9653;
1101.0000;0.6040;2.9557;
1101.3000;0.6064;2.9629;
1101.6000;0.6089;2.9677;
1101.9000;0.6081;2.9653;
1102.2000;0.6072;2.9701;
1102.5000;0.6081;2.9725;
1102.8000;0.6089;2.9749;
1103.1000;0.6015;2.9629;
1103.4000;0.6064;2.9797;
1103.7000;0.6097;2.9797;
1104.0000;0.6072;2.9749;
1104.3000;0.6072;2.9773;
1104.6000;0.6072;2.9821;
1104.9000;0.6064;2.9869;
1105.2000;0.6072;2.9845;
1105.5000;0.6081;2.9869;
1105.8000;0.6064;2.9845;
1106.1000;0.6064;2.9845;
1106.4000;0.6064;2.9869;
1106.7000;0.6081;2.9821;
1107.0000;0.6064;2.9821;
1107.3000;0.6056;2.9677;
1107.6000;0.6072;2.9749;
1107.9000;0.6064;2.9725;
1108.2000;0.6056;2.9773;
1108.5000;0.6064;2.9821;
1108.8000;0.6089;2.9916;
1109.1000;0.6072;2.9940;
1109.4000;0.6138;3.0060;
1109.7000;0.6064;2.9893;
1110.0000;0.6072;2.9845;
1110.3000;0.6081;2.9821;
1110.6000;0.6081;2.9821;
1110.9000;0.6040;2.9749;
1111.2000;0.6072;2.9893;
1111.5000;0.6064;2.9940;
1111.8000;0.6064;2.9893;
1112.1000;0.6064;2.9821;
1112.4000;0.6056;2.9797;
1112.7000;0.6072;2.9845;
1113.0000;0.6064;2.9749;
1113.3000;0.6072;2.9845;
1113.6000;0.6056;2.9821;
1113.9000;0.6056;2.9845;
1114.2000;0.6129;3.0036;
1114.5000;0.6056;2.9869;
1114.8000;0.5999;2.9916;
1115.1000;0.6064;3.0060;
1115.4000;0.6064;2.9916;
1115.7000;0.6056;2.9821;
1116.0000;0.6072;2.9773;
1116.3000;0.6056;2.9821;
1116.6000;0.6105;2.9869;
1116.9000;0.6048;2.9773;
1117.2000;0.6072;2.9821;
1117.5000;0.6072;2.9845;
1117.8000;0.6089;2.9916;
1118.1000;0.6056;2.9869;
1118.4000;0.6072;2.9869;
1118.7000;0.6072;2.9845;
1119.0000;0.6040;2.9797;
1119.3000;0.6056;2.9821;
1119.6000;0.6072;2.9797;
1119.9000;0.6056;2.9749;
1120.2000;0.6064;2.9845;
1120.5000;0.6072;2.9964;
1120.8000;0.6056;2.9940;
1121.1000;0.6081;2.9893;
1121.4000;0.6064;2.9893;
1121.7000;0.6081;2.9893;
1122.0000;0.6072;2.9821;
1122.3000;0.6081;2.9845;
1122.6000;0.6056;2.9797;
1122.9000;0.6089;2.9940;
1123.2000;0.6064;2.9964;
1123.5000;0.6056;2.9869;
1123.8000;0.6105;2.9988;
1124.1000;0.6048;2.9869;
1124.4000;0.6072;2.9916;
1124.7000;0.6064;2.9845;
1125.0000;0.5983;2.9701;
1125.3000;0.6056;2.9845;
1125.6000;0.6072;2.9821;
1125.9000;0.6081;2.9893;
1126.2000;0.6072;2.9893;
1126.5000;0.6072;2.9821;
1126.8000;0.6072;2.9821;
1127.1000;0.6072;2.9797;
1127.4000;0.6081;2.9797;
1127.7000;0.6072;2.9821;
1128.0000;0.6048;2.9725;
1128.3000;0.6072;2.9701;
1128.6000;0.5999;2.9485;
1128.9000;0.6072;2.9725;
1129.2000;0.6056;2.9701;
1129.5000;0.6081;2.9797;
1129.8000;0.6064;2.9749;
1130.1000;0.6064;2.9845;
1130.4000;0.6056;2.9869;
1130.7000;0.6081;2.9893;
1131.0000;0.6056;2.9821;
1131.3000;0.6064;2.9845;
1131.6000;0.6064;2.9797;
1131.9000;0.6072;2.9845;
1132.2000;0.6081;2.9797;
1132.5000;0.6056;2.9797;
1132.8000;0.6056;2.9773;
1133.1000;0.6064;2.9773;
1133.4000;0.6056;2.9725;
1133.7000;0.6064;2.9701;
1134.0000;0.6064;2.9797;
1134.3000;0.6064;2.9797;
1134.6000;0.6064;2.9821;
1134.9000;0.6040;2.9797;
1135.2000;0.6072;2.9749;
1135.5000;0.6056;2.9797;
1135.8000;0.6064;2.9773;
1136.1000;0.6040;2.9749;
1136.4000;0.6056;2.9893;
1136.7000;0.6056;2.9845;
1137.0000;0.6048;2.9797;
1137.3000;0.6048;2.9797;
1137.6000;0.6056;2.9869;
1137.9000;0.6048;2.9940;
1138.2000;0.6040;3.0060;
1138.5000;0.6105;3.0228;
1138.8000;0.6040;3.0156;
1139.1000;0.6056;3.0204;
1139.4000;0.6056;3.0228;
1139.7000;0.6072;3.0228;
1140.0000;0.6121;3.0324;
1140.3000;0.6048;3.0132;
1140.6000;0.6056;3.0180;
1140.9000;0.6064;3.0132;
1141.2000;0.6064;3.0108;
1141.5000;0.6056;3.0012;
1141.8000;0.6056;2.9988;
1142.1000;0.6064;2.9988;
1142.4000;0.6097;3.0084;
1142.7000;0.6072;3.0084;
1143.0000;0.6072;3.0084;
1143.3000;0.6081;3.0084;
1143.6000;0.6072;3.0108;
1143.9000;0.6040;3.0036;
1144.2000;0.6064;2.9964;
1144.5000;0.6056;2.9940;
1144.8000;0.6064;2.9869;
1145.1000;0.6064;2.9869;
1145.4000;0.6064;2.9869;
1145.7000;0.6064;2.9845;
1146.0000;0.6064;2.9821;
1146.3000;0.6072;2.9893;
1146.6000;0.6064;2.9845;
1146.9000;0.6056;2.9869;
1147.2000;0.6064;2.9821;
1147.5000;0.6064;2.9773;
1147.8000;0.6048;2.9821;
1148.1000;0.6064;2.9869;
1148.4000;0.6056;2.9893;
1148.7000;0.6072;2.9916;
1149.0000;0.6056;2.9916;
1149.3000;0.6064;2.9916;
1149.6000;0.6048;2.9845;
1149.9000;0.6072;2.9869;
1150.2000;0.5999;2.9749;
1150.5000;0.6048;2.9869;
1150.8000;0.6064;2.9940;
1151.1000;0.6048;2.9893;
1151.4000;0.6072;2.9869;
1151.7000;0.6097;2.9940;
1152.0000;0.6064;2.9869;
1152.3000;0.6072;2.9916;
1152.6000;0.6064;2.9916;
1152.9000;0.6040;2.9821;
1153.2000;0.6105;2.9893;
1153.5000;0.6064;2.9821;
1153.8000;0.6048;2.9797;
1154.1000;0.6056;2.9869;
1154.4000;0.6056;2.9893;
1154.7000;0.6056;2.9893;
1155.0000;0.6007;2.9749;
1155.3000;0.5983;2.9629;
1155.6000;0.6032;2.9749;
1155.9000;0.6040;2.9749;
1156.2000;0.5902;2.9509;
1156.5000;0.6048;2.9869;
1156.8000;0.6064;2.9916;
1157.1000;0.6056;2.9916;
1157.4000;0.6048;2.9916;
1157.7000;0.6048;2.9869;
1158.0000;0.6072;3.0036;
1158.3000;0.6097;3.0036;
1158.6000;0.6072;3.0060;
1158.9000;0.6072;2.9940;
1159.2000;0.6048;2.9869;
1159.5000;0.6040;2.9845;
1159.8000;0.6032;2.9821;
1160.1000;0.6048;2.9821;
1160.4000;0.6024;2.9821;
1160.7000;0.6040;2.9869;
1161.0000;0.6048;2.9893;
1161.3000;0.6072;2.9916;
1161.6000;0.6081;2.9869;
1161.9000;0.6064;2.9893;
1162.2000;0.6081;3.0012;
1162.5000;0.6089;3.0036;
1162.8000;0.6056;2.9988;
1163.1000;0.6056;2.9916;
1163.4000;0.6056;2.9893;
1163.7000;0.6113;2.9869;
1164.0000;0.6056;2.9725;
1164.3000;0.6048;2.9749;
1164.6000;0.6048;2.9725;
1164.9000;0.6064;2.9749;
1165.2000;0.6072;2.9869;
1165.5000;0.6056;2.9869;
1165.8000;0.6048;2.9940;
1166.1000;0.6072;2.9988;
1166.4000;0.6097;3.0084;
1166.7000;0.6048;2.9964;
1167.0000;0.6048;3.0036;
1167.3000;0.6040;2.9988;
1167.6000;0.6072;2.9964;
1167.9000;0.6072;2.9940;
1168.2000;0.6032;2.9869;
1168.5000;0.6040;2.9869;
1168.8000;0.6024;2.9869;
1169.1000;0.6097;2.9988;
1169.4000;0.6040;2.9964;
1169.7000;0.6040;3.0012;
1170.0000;0.6048;3.0036;
1170.3000;0.6056;2.9964;
1170.6000;0.6024;2.9893;
1170.9000;0.6015;2.9869;
1171.2000;0.6064;2.9964;
1171.5000;0.6064;2.9964;
1171.8000;0.6072;3.0012;
1172.1000;0.6056;2.9988;
1172.4000;0.6064;2.9940;
1172.7000;0.6064;2.9964;
1173.0000;0.6032;2.9893;
1173.3000;0.6056;2.9940;
1173.6000;0.6040;2.9821;
1173.9000;0.6048;2.9797;
1174.2000;0.6032;2.9773;
1174.5000;0.6032;2.9773;
1174.8000;0.6072;2.9821;
1175.1000;0.6056;2.9821;
1175.4000;0.6056;2.9749;
1175.7000;0.6056;2.9701;
1176.0000;0.6040;2.9725;
1176.3000;0.6056;2.9725;
1176.6000;0.6064;2.9701;
1176.9000;0.6064;2.9701;
1177.2000;0.6081;2.9773;
1177.5000;0.6089;2.9797;
1177.8000;0.6064;2.9773;
1178.1000;0.6056;2.9773;
1178.4000;0.6048;2.9821;
1178.7000;0.6081;2.9893;
1179.0000;0.6113;3.0012;
1179.3000;0.6048;2.9845;
1179.6000;0.6048;2.9773;
1179.9000;0.6048;2.9821;
1180.2000;0.6040;2.9821;
1180.5000;0.6040;2.9821;
1180.8000;0.6048;2.9821;
1181.1000;0.6032;2.9821;
1181.4000;0.6064;2.9869;
1181.7000;0.6113;2.9916;
1182.0000;0.6081;2.9869;
1182.3000;0.6048;2.9773;
1182.6000;0.6064;2.9821;
1182.9000;0.6064;2.9749;
1183.2000;0.6048;2.9725;
1183.5000;0.6056;2.9725;
1183.8000;0.6154;2.9964;
1184.1000;0.6032;2.9749;
1184.4000;0.6032;2.9677;
1184.7000;0.6040;2.9653;
1185.0000;0.6007;2.9581;
1185.3000;0.6040;2.9677;
1185.6000;0.6056;2.9653;
1185.9000;0.6048;2.9701;
1186.2000;0.6072;2.9677;
1186.5000;0.6048;2.9701;
1186.8000;0.6040;2.9725;
1187.1000;0.6048;2.9653;
1187.4000;0.6056;2.9653;
1187.7000;0.6064;2.9725;
1188.0000;0.6056;2.9725;
1188.3000;0.6048;2.9701;
1188.6000;0.6048;2.9701;
1188.9000;0.6064;2.9797;
1189.2000;0.6056;2.9749;
1189.5000;0.6032;2.9653;
1189.8000;0.6032;2.9653;
1190.1000;0.6040;2.9749;
1190.4000;0.6040;2.9725;
1190.7000;0.6048;2.9653;
1191.0000;0.6040;2.9653;
1191.3000;0.6032;2.9701;
1191.6000;0.6056;2.9725;
1191.9000;0.6032;2.9749;
1192.2000;0.6056;2.9749;
1192.5000;0.6064;2.9725;
1192.8000;0.6064;2.9845;
1193.1000;0.6121;2.9964;
1193.4000;0.5999;2.9557;
1193.7000;0.6064;2.9677;
1194.0000;0.6056;2.9653;
1194.3000;0.6024;2.9605;
1194.6000;0.6056;2.9677;
1194.9000;0.5975;2.9533;
1195.2000;0.6064;2.9797;
1195.5000;0.6048;2.9797;
1195.8000;0.6056;2.9869;
1196.1000;0.6048;2.9821;
1196.4000;0.6072;2.9821;
1196.7000;0.6056;2.9773;
1197.0000;0.6056;2.9773;
1197.3000;0.6072;2.9773;
1197.6000;0.6048;2.9725;
1197.9000;0.6024;2.9629;
1198.2000;0.6048;2.9749;
1198.5000;0.6056;2.9773;
1198.8000;0.6040;2.9773;
1199.1000;0.5999;2.9725;
1199.4000;0.6072;2.9893;
1199.7000;0.6048;2.9797;
1200.0000;0.6015;2.9845;
1200.3000;0.6072;2.9940;
1200.6000;0.6048;2.9797;
1200.9000;0.6064;2.9916;
1201.2000;0.6097;2.9964;
1201.5000;0.5991;2.9749;
1201.8000;0.6056;2.9893;
1202.1000;0.6048;2.9940;
1202.4000;0.6081;3.0036;
1202.7000;0.6064;2.9940;
1203.0000;0.6032;2.9845;
1203.3000;0.6056;2.9821;
1203.6000;0.6032;2.9701;
1203.9000;0.6040;2.9629;
1204.2000;0.6072;2.9581;
1204.5000;0.6048;2.9605;
1204.8000;0.6048;2.9653;
1205.1000;0.6048;2.9701;
1205.4000;0.6048;2.9725;
1205.7000;0.6064;2.9677;
1206.0000;0.6015;2.9533;
1206.3000;0.6024;2.9509;
1206.6000;0.6040;2.9557;
1206.9000;0.6081;2.9677;
1207.2000;0.6032;2.9605;
1207.5000;0.6032;2.9605;
1207.8000;0.6040;2.9725;
1208.1000;0.6056;2.9797;
1208.4000;0.6056;2.9869;
1208.7000;0.6138;3.0108;
1209.0000;0.6007;2.9869;
1209.3000;0.6032;2.9893;
1209.6000;0.6040;2.9964;
1209.9000;0.6024;2.9964;
1210.2000;0.6040;2.9940;
1210.5000;0.6048;2.9940;
1210.8000;0.6040;3.0012;
1211.1000;0.6040;2.9988;
1211.4000;0.6040;2.9940;
1211.7000;0.6032;2.9869;
1212.0000;0.6064;2.9916;
1212.3000;0.6024;2.9845;
1212.6000;0.6032;2.9869;
1212.9000;0.6024;2.9893;
1213.2000;0.6048;2.9940;
1213.5000;0.6040;2.9988;
1213.8000;0.6048;2.9964;
1214.1000;0.6056;2.9964;
1214.4000;0.6048;3.0012;
1214.7000;0.6048;2.9916;
1215.0000;0.5999;2.9821;
1215.3000;0.6089;2.9916;
1215.6000;0.6032;2.9845;
1215.9000;0.6024;2.9821;
1216.2000;0.6024;2.9869;
1216.5000;0.6024;2.9797;
1216.8000;0.6032;2.9821;
1217.1000;0.6105;2.9916;
1217.4000;0.6040;2.9797;
1217.7000;0.6048;2.9797;
1218.0000;0.6056;2.9845;
1218.3000;0.6032;2.9725;
1218.6000;0.6048;2.9773;
1218.9000;0.6040;2.9773;
1219.2000;0.5999;2.9725;
1219.5000;0.6056;2.9869;
1219.8000;0.6056;2.9964;
1220.1000;0.6097;3.0060;
1220.4000;0.6040;2.9964;
1220.7000;0.6064;3.0108;
1221.0000;0.6032;3.0060;
1221.3000;0.6040;3.0060;
1221.6000;0.6032;2.9964;
1221.9000;0.6048;3.0012;
1222.2000;0.6056;3.0060;
1222.5000;0.6064;2.9988;
1222.8000;0.6040;2.9940;
1223.1000;0.6048;2.9964;
1223.4000;0.6048;3.0036;
1223.7000;0.6097;3.0060;
1224.0000;0.6048;2.9988;
1224.3000;0.6015;2.9916;
1224.6000;0.6048;2.9988;
1224.9000;0.6032;2.9893;
1225.2000;0.6040;2.9893;
1225.5000;0.6024;2.9821;
1225.8000;0.6015;2.9797;
1226.1000;0.6056;2.9797;
1226.4000;0.6048;2.9845;
1226.7000;0.6056;2.9940;
1227.0000;0.6056;2.9940;
1227.3000;0.6040;2.9940;
1227.6000;0.6146;3.0252;
1227.9000;0.6048;2.9988;
1228.2000;0.6056;2.9964;
1228.5000;0.6040;2.9964;
1228.8000;0.6072;2.9940;
1229.1000;0.6024;2.9725;
1229.4000;0.6024;2.9605;
1229.7000;0.6048;2.9725;
1230.0000;0.6032;2.9701;
1230.3000;0.6015;2.9677;
1230.6000;0.5999;2.9701;
1230.9000;0.6048;2.9725;
1231.2000;0.6048;2.9725;
1231.5000;0.6032;2.9749;
1231.8000;0.6048;2.9773;
1232.1000;0.6024;2.9773;
1232.4000;0.6048;2.9869;
1232.7000;0.6056;2.9869;
1233.0000;0.6032;2.9845;
1233.3000;0.6032;2.9845;
1233.6000;0.6048;2.9869;
1233.9000;0.6040;2.9821;
1234.2000;0.6056;2.9964;
1234.5000;0.6056;2.9988;
1234.8000;0.6032;2.9940;
1235.1000;0.6040;2.9988;
1235.4000;0.6015;3.0012;
1235.7000;0.6024;2.9940;
1236.0000;0.6048;2.9940;
1236.3000;0.6048;2.9797;
1236.6000;0.6032;2.9821;
1236.9000;0.6048;2.9845;
1237.2000;0.6024;2.9821;
1237.5000;0.6048;2.9869;
1237.8000;0.5967;2.9725;
1238.1000;0.6007;2.9749;
1238.4000;0.6032;2.9749;
1238.7000;0.6056;2.9869;
1239.0000;0.6040;2.9821;
1239.3000;0.6024;2.9821;
1239.6000;0.6040;2.9869;
1239.9000;0.6032;2.9845;
1240.2000;0.6032;2.9797;
1240.5000;0.6032;2.9773;
1240.8000;0.6015;2.9821;
1241.1000;0.6015;2.9797;
1241.4000;0.6048;2.9893;
1241.7000;0.6024;2.9749;
1242.0000;0.6040;2.9725;
1242.3000;0.6048;2.9701;
1242.6000;0.6048;2.9701;
1242.9000;0.6032;2.9509;
1243.2000;0.6024;2.9533;
1243.5000;0.6048;2.9653;
1243.8000;0.6040;2.9725;
1244.1000;0.6032;2.9701;
1244.4000;0.5991;2.9605;
1244.7000;0.6056;2.9701;
1245.0000;0.6056;2.9701;
1245.3000;0.6048;2.9701;
1245.6000;0.6032;2.9677;
1245.9000;0.6089;2.9773;
1246.2000;0.6048;2.9677;
1246.5000;0.6064;2.9701;
1246.8000;0.6048;2.9701;
1247.1000;0.6040;2.9557;
1247.4000;0.6032;2.9437;
1247.7000;0.6040;2.9413;
1248.0000;0.6040;2.9365;
1248.3000;0.6048;2.9365;
1248.6000;0.6015;2.9317;
1248.9000;0.6048;2.9365;
1249.2000;0.6048;2.9365;
1249.5000;0.6032;2.9365;
1249.8000;0.6040;2.9389;
1250.1000;0.6048;2.9413;
1250.4000;0.6056;2.9413;
1250.7000;0.6032;2.9293;
1251.0000;0.6024;2.9389;
1251.3000;0.6024;2.9461;
1251.6000;0.6048;2.9605;
1251.9000;0.6024;2.9629;
1252.2000;0.6024;2.9605;
1252.5000;0.6040;2.9653;
1252.8000;0.6040;2.9701;
1253.1000;0.6032;2.9701;
1253.4000;0.6032;2.9701;
1253.7000;0.6032;2.9725;
1254.0000;0.6048;2.9845;
1254.3000;0.6040;2.9845;
1254.6000;0.6040;2.9797;
1254.9000;0.6032;2.9797;
1255.2000;0.6048;2.9845;
1255.5000;0.6048;2.9869;
1255.8000;0.6048;2.9869;
1256.1000;0.6040;2.9893;
1256.4000;0.6056;2.9988;
1256.7000;0.6040;2.9940;
1257.0000;0.6040;2.9916;
1257.3000;0.6048;2.9940;
1257.6000;0.6048;2.9797;
1257.9000;0.6056;2.9845;
1258.2000;0.6048;2.9749;
1258.5000;0.6056;2.9797;
1258.8000;0.6040;2.9749;
1259.1000;0.6048;2.9797;
1259.4000;0.6032;2.9797;
1259.7000;0.6015;2.9821;
1260.0000;0.6015;2.9797;
1260.3000;0.6032;2.9845;
1260.6000;0.6024;2.9821;
1260.9000;0.6040;2.9773;
1261.2000;0.6024;2.9845;
1261.5000;0.6040;2.9821;
1261.8000;0.6048;2.9797;
1262.1000;0.6056;2.9821;
1262.4000;0.6032;2.9797;
1262.7000;0.6032;2.9797;
1263.0000;0.6056;2.9749;
1263.3000;0.6056;2.9677;
1263.6000;0.6024;2.9629;
1263.9000;0.6048;2.9557;
1264.2000;0.6113;2.9629;
1264.5000;0.6048;2.9557;
1264.8000;0.6032;2.9557;
1265.1000;0.6056;2.9701;
1265.4000;0.6007;2.9701;
1265.7000;0.6048;2.9797;
1266.0000;0.6015;2.9701;
1266.3000;0.6040;2.9797;
1266.6000;0.6024;2.9821;
1266.9000;0.6048;2.9845;
1267.2000;0.6064;2.9869;
1267.5000;0.6056;2.9893;
1267.8000;0.6040;2.9845;
1268.1000;0.6048;2.9797;
1268.4000;0.6081;2.9845;
1268.7000;0.6040;2.9821;
1269.0000;0.6064;2.9893;
1269.3000;0.6089;3.0012;
1269.6000;0.6032;2.9893;
1269.9000;0.6024;2.9845;
1270.2000;0.6015;2.9797;
1270.5000;0.6040;2.9797;
1270.8000;0.6040;2.9797;
1271.1000;0.5999;2.9797;
1271.4000;0.6072;2.9964;
1271.7000;0.6064;2.9916;
1272.0000;0.5967;2.9749;
1272.3000;0.6040;2.9869;
1272.6000;0.6024;2.9797;
1272.9000;0.6024;2.9845;
1273.2000;0.6015;2.9845;
1273.5000;0.6048;2.9893;
1273.8000;0.6024;2.9773;
1274.1000;0.6089;2.9893;
1274.4000;0.6032;2.9797;
1274.7000;0.6032;2.9845;
1275.0000;0.6032;2.9893;
1275.3000;0.5991;2.9821;
1275.6000;0.6040;2.9845;
1275.9000;0.5991;2.9869;
1276.2000;0.6040;2.9988;
1276.5000;0.6048;2.9988;
1276.8000;0.6081;3.0012;
1277.1000;0.6040;2.9869;
1277.4000;0.5950;2.9677;
1277.7000;0.6040;2.9916;
1278.0000;0.6024;2.9988;
1278.3000;0.6024;2.9940;
1278.6000;0.6032;3.0012;
1278.9000;0.6032;3.0012;
1279.2000;0.6032;2.9988;
1279.5000;0.6024;3.0060;
1279.8000;0.6015;3.0084;
1280.1000;0.6024;3.0060;
1280.4000;0.6024;3.0036;
1280.7000;0.6007;2.9940;
1281.0000;0.6032;3.0012;
1281.3000;0.6048;2.9940;
1281.6000;0.6032;3.0012;
1281.9000;0.6024;2.9988;
1282.2000;0.6048;3.0060;
1282.5000;0.6024;2.9964;
1282.8000;0.6032;2.9821;
1283.1000;0.6015;2.9845;
1283.4000;0.6040;2.9845;
1283.7000;0.6048;2.9916;
1284.0000;0.6032;2.9893;
1284.3000;0.6024;2.9869;
1284.6000;0.5958;2.9701;
1284.9000;0.6015;2.9845;
1285.2000;0.6032;2.9869;
1285.5000;0.6040;2.9940;
1285.8000;0.6032;2.9940;
1286.1000;0.6015;2.9916;
1286.4000;0.5967;2.9797;
1286.7000;0.5975;2.9869;
1287.0000;0.6032;2.9988;
1287.3000;0.6032;2.9964;
1287.6000;0.6056;2.9869;
1287.9000;0.6024;2.9797;
1288.2000;0.6040;2.9821;
1288.5000;0.6064;2.9893;
1288.8000;0.6032;2.9893;
1289.1000;0.6040;2.9845;
1289.4000;0.6048;2.9916;
1289.7000;0.6048;2.9893;
1290.0000;0.6056;2.9893;
1290.3000;0.6032;2.9845;
1290.6000;0.6048;2.9940;
1290.9000;0.6040;2.9893;
1291.2000;0.6040;2.9964;
1291.5000;0.6015;2.9893;
1291.8000;0.6024;2.9869;
1292.1000;0.6015;2.9821;
1292.4000;0.6024;2.9869;
1292.7000;0.6015;2.9749;
1293.0000;0.6024;2.9725;
1293.3000;0.6040;2.9773;
1293.6000;0.6040;2.9749;
1293.9000;0.6032;2.9701;
1294.2000;0.6024;2.9749;
1294.5000;0.6032;2.9725;
1294.8000;0.6056;2.9773;
1295.1000;0.5999;2.9557;
1295.4000;0.6007;2.9629;
1295.7000;0.5950;2.9533;
1296.0000;0.5967;2.9677;
1296.3000;0.6097;2.9988;
1296.6000;0.6015;2.9773;
1296.9000;0.6040;2.9893;
1297.2000;0.6064;2.9940;
1297.5000;0.6032;2.9940;
1297.8000;0.6040;3.0012;
1298.1000;0.6032;2.9964;
1298.4000;0.6089;3.0084;
1298.7000;0.6024;2.9893;
1299.0000;0.6032;2.9869;
1299.3000;0.6024;2.9916;
1299.6000;0.6048;3.0036;
1299.9000;0.6032;3.0036;
1300.2000;0.6015;3.0084;
1300.5000;0.5999;3.0060;
1300.8000;0.6007;3.0060;
1301.1000;0.6024;3.0084;
1301.4000;0.5999;2.9964;
1301.7000;0.6024;2.9916;
1302.0000;0.6040;2.9916;
1302.3000;0.6048;2.9845;
1302.6000;0.6048;2.9845;
1302.9000;0.6032;2.9821;
1303.2000;0.6024;2.9797;
1303.5000;0.6048;2.9916;
1303.8000;0.6024;2.9821;
1304.1000;0.6024;2.9869;
1304.4000;0.6040;2.9845;
1304.7000;0.6040;2.9893;
1305.0000;0.6032;2.9916;
1305.3000;0.6040;2.9964;
1305.6000;0.5999;2.9869;
1305.9000;0.6015;2.9940;
1306.2000;0.6024;2.9869;
1306.5000;0.6015;2.9797;
1306.8000;0.6024;2.9797;
1307.1000;0.6007;2.9869;
1307.4000;0.6024;2.9893;
1307.7000;0.6015;2.9845;
1308.0000;0.6024;2.9869;
1308.3000;0.6024;2.9869;
1308.6000;0.6056;2.9893;
1308.9000;0.6097;3.0012;
1309.2000;0.6129;3.0084;
1309.5000;0.6024;2.9893;
1309.8000;0.6040;2.9964;
1310.1000;0.5999;2.9893;
1310.4000;0.6007;2.9893;
1310.7000;0.6007;2.9940;
1311.0000;0.5991;2.9821;
1311.3000;0.6015;2.9845;
1311.6000;0.6015;2.9845;
1311.9000;0.6040;2.9869;
1312.2000;0.6024;2.9916;
1312.5000;0.6064;2.9893;
1312.8000;0.6032;2.9821;
1313.1000;0.6048;2.9869;
1313.4000;0.6056;2.9869;
1313.7000;0.6040;2.9797;
1314.0000;0.6097;3.0012;
1314.3000;0.5950;2.9749;
1314.6000;0.6048;2.9893;
1314.9000;0.6024;2.9869;
1315.2000;0.6024;2.9893;
1315.5000;0.6064;2.9964;
1315.8000;0.6015;2.9869;
1316.1000;0.6024;2.9964;
1316.4000;0.5926;2.9677;
1316.7000;0.6032;2.9893;
1317.0000;0.6032;2.9893;
1317.3000;0.6015;2.9845;
1317.6000;0.6032;2.9964;
1317.9000;0.6032;3.0012;
1318.2000;0.6032;3.0012;
1318.5000;0.6007;2.9988;
1318.8000;0.6032;3.0036;
1319.1000;0.6015;2.9988;
1319.4000;0.6007;2.9916;
1319.7000;0.6040;2.9869;
1320.0000;0.6048;2.9988;
1320.3000;0.5999;2.9869;
1320.6000;0.6015;2.9869;
1320.9000;0.6007;2.9893;
1321.2000;0.6024;2.9893;
1321.5000;0.6040;2.9916;
1321.8000;0.6024;2.9869;
1322.1000;0.6032;2.9821;
1322.4000;0.5975;2.9725;
1322.7000;0.6048;2.9845;
1323.0000;0.6040;2.9893;
1323.3000;0.6024;2.9916;
1323.6000;0.6024;2.9869;
1323.9000;0.6081;3.0012;
1324.2000;0.6032;2.9940;
1324.5000;0.6024;2.9869;
1324.8000;0.6040;3.0012;
1325.1000;0.6015;3.0012;
1325.4000;0.6007;3.0012;
1325.7000;0.5926;2.9797;
1326.0000;0.6007;3.0036;
1326.3000;0.6015;3.0060;
1326.6000;0.6040;3.0060;
1326.9000;0.6007;2.9964;
1327.2000;0.6024;3.0036;
1327.5000;0.6007;3.0084;
1327.8000;0.6040;3.0180;
1328.1000;0.6040;3.0084;
1328.4000;0.6040;3.0108;
1328.7000;0.6024;3.0108;
1329.0000;0.6024;3.0228;
1329.3000;0.6007;3.0156;
1329.6000;0.5999;3.0060;
1329.9000;0.6015;3.0084;
1330.2000;0.6015;3.0060;
1330.5000;0.6032;3.0012;
1330.8000;0.6024;2.9940;
1331.1000;0.6007;2.9964;
1331.4000;0.6040;3.0084;
1331.7000;0.6024;3.0084;
1332.0000;0.6032;3.0132;
1332.3000;0.6007;2.9988;
1332.6000;0.6040;3.0060;
1332.9000;0.6032;3.0060;
1333.2000;0.5991;2.9916;
1333.5000;0.6024;2.9916;
1333.8000;0.6024;2.9988;
1334.1000;0.6032;2.9964;
1334.4000;0.6015;2.9893;
1334.7000;0.6024;2.9869;
1335.0000;0.6015;2.9845;
1335.3000;0.6024;2.9916;
1335.6000;0.6015;2.9940;
1335.9000;0.5999;2.9940;
1336.2000;0.6015;3.0060;
1336.5000;0.6032;3.0060;
1336.8000;0.6040;3.0036;
1337.1000;0.6015;3.0060;
1337.4000;0.6048;3.0132;
1337.7000;0.6040;3.0108;
1338.0000;0.6032;3.0012;
1338.3000;0.6032;2.9916;
1338.6000;0.6015;2.9940;
1338.9000;0.6048;2.9988;
1339.2000;0.6072;3.0084;
1339.5000;0.6024;2.9940;
1339.8000;0.6007;2.9916;
1340.1000;0.6015;2.9869;
1340.4000;0.6024;2.9940;
1340.7000;0.6015;2.9940;
1341.0000;0.6024;3.0036;
1341.3000;0.6040;3.0036;
1341.6000;0.6024;3.0060;
1341.9000;0.5991;3.0012;
1342.2000;0.6015;3.0060;
1342.5000;0.6015;3.0036;
1342.8000;0.6024;3.0060;
1343.1000;0.6032;3.0012;
1343.4000;0.6040;3.0060;
1343.7000;0.6032;3.0108;
1344.0000;0.6024;3.0108;
1344.3000;0.6040;3.0108;
1344.6000;0.5999;3.0036;
1344.9000;0.5991;2.9964;
1345.2000;0.6015;2.9964;
1345.5000;0.6056;3.0036;
1345.8000;0.5999;2.9893;
1346.1000;0.6015;2.9964;
1346.4000;0.6007;2.9916;
1346.7000;0.6015;2.9869;
1347.0000;0.6024;2.9821;
1347.3000;0.6024;2.9821;
1347.6000;0.6007;2.9773;
1347.9000;0.6072;2.9964;
1348.2000;0.6032;2.9821;
1348.5000;0.6032;2.9845;
1348.8000;0.5967;2.9773;
1349.1000;0.6024;2.9916;
1349.4000;0.6040;2.9964;
1349.7000;0.6032;2.9940;
1350.0000;0.6056;2.9940;
1350.3000;0.6024;2.9869;
1350.6000;0.6048;2.9893;
1350.9000;0.6024;2.9845;
1351.2000;0.6015;2.9773;
1351.5000;0.6015;2.9797;
1351.8000;0.6024;2.9821;
1352.1000;0.6015;2.9701;
1352.4000;0.6024;2.9797;
1352.7000;0.6024;2.9797;
1353.0000;0.6024;2.9869;
1353.3000;0.6007;2.9869;
1353.6000;0.5983;2.9821;
1353.9000;0.5999;2.9869;
1354.2000;0.6007;2.9893;
1354.5000;0.6032;3.0012;
1354.8000;0.5999;2.9893;
1355.1000;0.6015;2.9964;
1355.4000;0.6024;2.9869;
1355.7000;0.6032;2.9916;
1356.0000;0.6024;2.9916;
1356.3000;0.5950;2.9677;
1356.6000;0.6015;2.9797;
1356.9000;0.6032;2.9821;
1357.2000;0.6032;2.9845;
1357.5000;0.6024;2.9869;
1357.8000;0.6015;2.9845;
1358.1000;0.6015;2.9821;
1358.4000;0.6032;2.9869;
1358.7000;0.6024;2.9916;
1359.0000;0.6024;2.9916;
1359.3000;0.6024;2.9940;
1359.6000;0.6032;2.9916;
1359.9000;0.6015;3.0012;
1360.2000;0.6015;2.9940;
1360.5000;0.6024;2.9893;
1360.8000;0.6015;2.9940;
1361.1000;0.6024;2.9916;
1361.4000;0.6015;2.9869;
1361.7000;0.6015;2.9869;
1362.0000;0.6024;2.9916;
1362.3000;0.5975;2.9845;
1362.6000;0.5999;2.9916;
1362.9000;0.5958;2.9964;
1363.2000;0.6007;3.0108;
1363.5000;0.6024;3.0108;
1363.8000;0.6024;3.0180;
1364.1000;0.6007;3.0180;
1364.4000;0.5999;3.0156;
1364.7000;0.6015;3.0108;
1365.0000;0.5991;3.0036;
1365.3000;0.6032;3.0060;
1365.6000;0.6105;3.0324;
1365.9000;0.5991;2.9964;
1366.2000;0.6007;3.0036;
1366.5000;0.6007;3.0084;
1366.8000;0.6081;3.0276;
1367.1000;0.6015;3.0132;
1367.4000;0.6015;3.0156;
1367.7000;0.6015;3.0132;
1368.0000;0.6015;3.0180;
1368.3000;0.6015;3.0084;
1368.6000;0.6024;3.0060;
1368.9000;0.6032;3.0012;
1369.2000;0.6024;3.0012;
1369.5000;0.6024;2.9988;
1369.8000;0.6032;3.0036;
1370.1000;0.6024;3.0060;
1370.4000;0.6048;3.0132;
1370.7000;0.6024;3.0060;
1371.0000;0.6007;3.0012;
1371.3000;0.6015;3.0012;
1371.6000;0.6024;3.0036;
1371.9000;0.6048;3.0036;
1372.2000;0.6032;3.0036;
1372.5000;0.6040;3.0108;
1372.8000;0.6072;3.0252;
1373.1000;0.6024;3.0108;
1373.4000;0.6007;3.0012;
1373.7000;0.6032;3.0132;
1374.0000;0.6007;3.0012;
1374.3000;0.6007;3.0012;
1374.6000;0.5999;3.0060;
1374.9000;0.6007;3.0060;
1375.2000;0.5991;2.9964;
1375.5000;0.6015;2.9916;
1375.8000;0.6032;2.9916;
1376.1000;0.5983;2.9797;
1376.4000;0.6040;2.9988;
1376.7000;0.6032;2.9964;
1377.0000;0.6024;3.0012;
1377.3000;0.6048;3.0060;
1377.6000;0.6040;3.0036;
1377.9000;0.6032;3.0036;
1378.2000;0.6024;2.9964;
1378.5000;0.6032;2.9988;
1378.8000;0.6040;3.0012;
1379.1000;0.6024;2.9964;
1379.4000;0.6015;2.9916;
1379.7000;0.6040;2.9893;
1380.0000;0.6048;2.9916;
1380.3000;0.6024;2.9940;
1380.6000;0.6015;2.9916;
1380.9000;0.6015;2.9916;
1381.2000;0.6015;3.0036;
1381.5000;0.6032;3.0108;
1381.8000;0.6015;3.0012;
1382.1000;0.6007;2.9988;
1382.4000;0.6048;2.9988;
1382.7000;0.5999;2.9893;
1383.0000;0.6015;3.0036;
1383.3000;0.6024;3.0012;
1383.6000;0.6048;3.0012;
1383.9000;0.6040;3.0036;
1384.2000;0.6032;3.0084;
1384.5000;0.6032;3.0060;
1384.8000;0.5983;2.9940;
1385.1000;0.6015;2.9988;
1385.4000;0.6007;3.0012;
1385.7000;0.5999;2.9940;
1386.0000;0.5999;2.9893;
1386.3000;0.6032;3.0036;
1386.6000;0.6007;3.0012;
1386.9000;0.6040;3.0084;
1387.2000;0.6007;3.0012;
1387.5000;0.6024;2.9916;
1387.8000;0.5999;2.9940;
1388.1000;0.5999;3.0012;
1388.4000;0.6032;3.0132;
1388.7000;0.6015;3.0132;
1389.0000;0.6048;3.0276;
1389.3000;0.6032;3.0156;
1389.6000;0.6032;3.0060;
1389.9000;0.6032;3.0060;
1390.2000;0.6040;3.0108;
1390.5000;0.6007;3.0084;
1390.8000;0.6032;3.0132;
1391.1000;0.6007;3.0060;
1391.4000;0.6015;3.0012;
1391.7000;0.6032;3.0060;
1392.0000;0.6040;3.0012;
1392.3000;0.6024;3.0012;
1392.6000;0.6056;3.0084;
1392.9000;0.5999;3.0036;
1393.2000;0.6015;3.0084;
1393.5000;0.6024;3.0204;
1393.8000;0.6024;3.0204;
1394.1000;0.6015;3.0132;
1394.4000;0.6024;3.0132;
1394.7000;0.6015;3.0108;
1395.0000;0.6048;3.0084;
1395.3000;0.6015;2.9964;
1395.6000;0.6015;2.9988;
1395.9000;0.6007;2.9916;
1396.2000;0.5999;2.9869;
1396.5000;0.5999;2.9869;
1396.8000;0.6024;2.9964;
1397.1000;0.6032;2.9988;
1397.4000;0.6040;3.0036;
1397.7000;0.6024;3.0060;
1398.0000;0.6015;3.0036;
1398.3000;0.6007;2.9893;
1398.6000;0.6024;2.9964;
1398.9000;0.6072;2.9940;
1399.2000;0.6024;2.9869;
1399.5000;0.6007;2.9869;
1399.8000;0.6024;2.9916;
