time/ms;Fluo/V;P700 deltaI/I x10³;
-199.8000;0.5918;3.0156;
-199.5000;0.5893;3.0084;
-199.2000;0.5893;3.0036;
-198.9000;0.5902;3.0036;
-198.6000;0.5902;3.0060;
-198.3000;0.5902;3.0132;
-198.0000;0.5885;3.0108;
-197.7000;0.5910;3.0252;
-197.4000;0.5918;3.0228;
-197.1000;0.5934;3.0204;
-196.8000;0.5910;3.0132;
-196.5000;0.5910;3.0036;
-196.2000;0.5902;3.0036;
-195.9000;0.5893;3.0156;
-195.6000;0.5926;3.0252;
-195.3000;0.5902;3.0204;
-195.0000;0.5893;3.0276;
-194.7000;0.5902;3.0276;
-194.4000;0.5885;3.0204;
-194.1000;0.5893;3.0180;
-193.8000;0.5926;3.0252;
-193.5000;0.5926;3.0228;
-193.2000;0.5926;3.0132;
-192.9000;0.5910;3.0156;
-192.6000;0.5902;3.0204;
-192.3000;0.5926;3.0276;
-192.0000;0.5885;3.0132;
-191.7000;0.5910;3.0204;
-191.4000;0.5885;3.0156;
-191.1000;0.5918;3.0204;
-190.8000;0.5902;3.0204;
-190.5000;0.5902;3.0156;
-190.2000;0.5893;3.0132;
-189.9000;0.5910;3.0204;
-189.6000;0.5910;3.0276;
-189.3000;0.5902;3.0276;
-189.0000;0.5918;3.0276;
-188.7000;0.5902;3.0180;
-188.4000;0.5893;3.0252;
-188.1000;0.5902;3.0324;
-187.8000;0.5910;3.0324;
-187.5000;0.5893;3.0252;
-187.2000;0.5902;3.0324;
-186.9000;0.5910;3.0300;
-186.6000;0.5918;3.0324;
-186.3000;0.6015;3.0636;
-186.0000;0.5902;3.0420;
-185.7000;0.5910;3.0420;
-185.4000;0.5942;3.0444;
-185.1000;0.5918;3.0276;
-184.8000;0.5910;3.0324;
-184.5000;0.5926;3.0444;
-184.2000;0.5910;3.0444;
-183.9000;0.5975;3.0732;
-183.6000;0.5910;3.0588;
-183.3000;0.5910;3.0612;
-183.0000;0.5918;3.0588;
-182.7000;0.5918;3.0564;
-182.4000;0.5910;3.0588;
-182.1000;0.5902;3.0564;
-181.8000;0.5885;3.0516;
-181.5000;0.5918;3.0636;
-181.2000;0.5893;3.0660;
-180.9000;0.5902;3.0732;
-180.6000;0.5910;3.0636;
-180.3000;0.5910;3.0612;
-180.0000;0.5893;3.0612;
-179.7000;0.5902;3.0540;
-179.4000;0.5926;3.0540;
-179.1000;0.5885;3.0396;
-178.8000;0.5885;3.0348;
-178.5000;0.5942;3.0420;
-178.2000;0.5836;3.0204;
-177.9000;0.5853;3.0204;
-177.6000;0.5845;3.0204;
-177.3000;0.5950;3.0564;
-177.0000;0.5926;3.0564;
-176.7000;0.5902;3.0492;
-176.4000;0.5902;3.0468;
-176.1000;0.5918;3.0516;
-175.8000;0.5910;3.0540;
-175.5000;0.5918;3.0396;
-175.2000;0.5934;3.0420;
-174.9000;0.5885;3.0372;
-174.6000;0.5885;3.0372;
-174.3000;0.5934;3.0444;
-174.0000;0.5950;3.0516;
-173.7000;0.5893;3.0372;
-173.4000;0.5918;3.0468;
-173.1000;0.5902;3.0444;
-172.8000;0.5869;3.0324;
-172.5000;0.5910;3.0540;
-172.2000;0.5902;3.0492;
-171.9000;0.5869;3.0420;
-171.6000;0.5885;3.0420;
-171.3000;0.5926;3.0444;
-171.0000;0.5918;3.0396;
-170.7000;0.5918;3.0468;
-170.4000;0.5902;3.0372;
-170.1000;0.5893;3.0372;
-169.8000;0.5926;3.0444;
-169.5000;0.5983;3.0612;
-169.2000;0.6015;3.0756;
-168.9000;0.5877;3.0420;
-168.6000;0.5893;3.0372;
-168.3000;0.5934;3.0492;
-168.0000;0.5853;3.0300;
-167.7000;0.5877;3.0444;
-167.4000;0.5926;3.0588;
-167.1000;0.5885;3.0492;
-166.8000;0.5910;3.0564;
-166.5000;0.5877;3.0420;
-166.2000;0.5885;3.0540;
-165.9000;0.5885;3.0492;
-165.6000;0.5902;3.0420;
-165.3000;0.5926;3.0516;
-165.0000;0.5902;3.0420;
-164.7000;0.5845;3.0276;
-164.4000;0.5902;3.0396;
-164.1000;0.5902;3.0444;
-163.8000;0.5893;3.0492;
-163.5000;0.5918;3.0540;
-163.2000;0.5893;3.0492;
-162.9000;0.5877;3.0516;
-162.6000;0.5910;3.0516;
-162.3000;0.5910;3.0516;
-162.0000;0.5910;3.0540;
-161.7000;0.5918;3.0732;
-161.4000;0.5877;3.0636;
-161.1000;0.5902;3.0684;
-160.8000;0.5893;3.0732;
-160.5000;0.5934;3.0684;
-160.2000;0.5902;3.0636;
-159.9000;0.5885;3.0540;
-159.6000;0.5910;3.0468;
-159.3000;0.5926;3.0564;
-159.0000;0.5910;3.0684;
-158.7000;0.5926;3.0732;
-158.4000;0.5861;3.0540;
-158.1000;0.5910;3.0636;
-157.8000;0.5877;3.0492;
-157.5000;0.5958;3.0732;
-157.2000;0.5926;3.0588;
-156.9000;0.5902;3.0540;
-156.6000;0.5902;3.0468;
-156.3000;0.5902;3.0372;
-156.0000;0.5918;3.0492;
-155.7000;0.5902;3.0420;
-155.4000;0.5934;3.0468;
-155.1000;0.5902;3.0420;
-154.8000;0.5893;3.0372;
-154.5000;0.5885;3.0420;
-154.2000;0.5950;3.0612;
-153.9000;0.5910;3.0516;
-153.6000;0.5845;3.0396;
-153.3000;0.5885;3.0588;
-153.0000;0.5902;3.0612;
-152.7000;0.5910;3.0588;
-152.4000;0.5910;3.0636;
-152.1000;0.5893;3.0636;
-151.8000;0.5942;3.0708;
-151.5000;0.5877;3.0636;
-151.2000;0.5877;3.0660;
-150.9000;0.5885;3.0588;
-150.6000;0.5934;3.0588;
-150.3000;0.5918;3.0516;
-150.0000;0.5910;3.0540;
-149.7000;0.5902;3.0468;
-149.4000;0.5910;3.0612;
-149.1000;0.5885;3.0588;
-148.8000;0.5926;3.0708;
-148.5000;0.5926;3.0564;
-148.2000;0.5902;3.0492;
-147.9000;0.5902;3.0540;
-147.6000;0.5918;3.0612;
-147.3000;0.5926;3.0564;
-147.0000;0.5853;3.0420;
-146.7000;0.5918;3.0588;
-146.4000;0.5893;3.0468;
-146.1000;0.5902;3.0564;
-145.8000;0.5918;3.0660;
-145.5000;0.5918;3.0684;
-145.2000;0.5934;3.0660;
-144.9000;0.5893;3.0540;
-144.6000;0.5902;3.0636;
-144.3000;0.5926;3.0636;
-144.0000;0.5926;3.0612;
-143.7000;0.5934;3.0564;
-143.4000;0.5918;3.0540;
-143.1000;0.5893;3.0516;
-142.8000;0.5934;3.0612;
-142.5000;0.5910;3.0612;
-142.2000;0.5910;3.0588;
-141.9000;0.5918;3.0516;
-141.6000;0.5893;3.0516;
-141.3000;0.5820;3.0324;
-141.0000;0.5910;3.0516;
-140.7000;0.5893;3.0420;
-140.4000;0.5918;3.0516;
-140.1000;0.5910;3.0516;
-139.8000;0.5902;3.0468;
-139.5000;0.5926;3.0492;
-139.2000;0.5967;3.0540;
-138.9000;0.5918;3.0516;
-138.6000;0.5902;3.0468;
-138.3000;0.5926;3.0468;
-138.0000;0.5902;3.0444;
-137.7000;0.5893;3.0396;
-137.4000;0.5910;3.0516;
-137.1000;0.5910;3.0540;
-136.8000;0.5902;3.0444;
-136.5000;0.5893;3.0516;
-136.2000;0.5910;3.0444;
-135.9000;0.5902;3.0372;
-135.6000;0.5926;3.0348;
-135.3000;0.5893;3.0276;
-135.0000;0.5902;3.0348;
-134.7000;0.5934;3.0468;
-134.4000;0.5910;3.0444;
-134.1000;0.5910;3.0468;
-133.8000;0.5885;3.0396;
-133.5000;0.5918;3.0372;
-133.2000;0.5902;3.0444;
-132.9000;0.5893;3.0444;
-132.6000;0.5918;3.0420;
-132.3000;0.5910;3.0420;
-132.0000;0.5918;3.0516;
-131.7000;0.5910;3.0444;
-131.4000;0.5885;3.0372;
-131.1000;0.5918;3.0516;
-130.8000;0.5918;3.0516;
-130.5000;0.5910;3.0492;
-130.2000;0.5893;3.0492;
-129.9000;0.5910;3.0420;
-129.6000;0.5902;3.0492;
-129.3000;0.5910;3.0612;
-129.0000;0.5893;3.0612;
-128.7000;0.5910;3.0588;
-128.4000;0.5926;3.0468;
-128.1000;0.5902;3.0396;
-127.8000;0.5918;3.0468;
-127.5000;0.5885;3.0468;
-127.2000;0.5910;3.0468;
-126.9000;0.5893;3.0468;
-126.6000;0.5869;3.0372;
-126.3000;0.5902;3.0468;
-126.0000;0.5902;3.0420;
-125.7000;0.5836;3.0276;
-125.4000;0.5893;3.0516;
-125.1000;0.5910;3.0588;
-124.8000;0.5820;3.0324;
-124.5000;0.5902;3.0588;
-124.2000;0.5910;3.0516;
-123.9000;0.5910;3.0588;
-123.6000;0.5836;3.0420;
-123.3000;0.5918;3.0588;
-123.0000;0.5918;3.0564;
-122.7000;0.5910;3.0444;
-122.4000;0.5910;3.0468;
-122.1000;0.5926;3.0516;
-121.8000;0.5910;3.0516;
-121.5000;0.5902;3.0492;
-121.2000;0.5934;3.0564;
-120.9000;0.5910;3.0372;
-120.6000;0.5893;3.0324;
-120.3000;0.5877;3.0348;
-120.0000;0.5910;3.0588;
-119.7000;0.5918;3.0684;
-119.4000;0.5926;3.0780;
-119.1000;0.5885;3.0684;
-118.8000;0.5885;3.0612;
-118.5000;0.5902;3.0516;
-118.2000;0.5918;3.0420;
-117.9000;0.5877;3.0276;
-117.6000;0.5910;3.0276;
-117.3000;0.5869;3.0276;
-117.0000;0.5910;3.0396;
-116.7000;0.5926;3.0348;
-116.4000;0.5885;3.0180;
-116.1000;0.5902;3.0180;
-115.8000;0.5918;3.0180;
-115.5000;0.5893;3.0252;
-115.2000;0.5885;3.0324;
-114.9000;0.5910;3.0324;
-114.6000;0.5910;3.0252;
-114.3000;0.5893;3.0228;
-114.0000;0.5877;3.0156;
-113.7000;0.5902;3.0252;
-113.4000;0.5910;3.0300;
-113.1000;0.5902;3.0252;
-112.8000;0.5902;3.0252;
-112.5000;0.5918;3.0396;
-112.2000;0.5893;3.0420;
-111.9000;0.5918;3.0516;
-111.6000;0.5910;3.0540;
-111.3000;0.5910;3.0564;
-111.0000;0.5910;3.0588;
-110.7000;0.5902;3.0588;
-110.4000;0.5910;3.0636;
-110.1000;0.5910;3.0612;
-109.8000;0.5910;3.0612;
-109.5000;0.5926;3.0660;
-109.2000;0.5902;3.0612;
-108.9000;0.5902;3.0588;
-108.6000;0.5902;3.0588;
-108.3000;0.5869;3.0588;
-108.0000;0.5853;3.0540;
-107.7000;0.5885;3.0588;
-107.4000;0.5877;3.0564;
-107.1000;0.5804;3.0324;
-106.8000;0.5910;3.0564;
-106.5000;0.5902;3.0540;
-106.2000;0.5910;3.0468;
-105.9000;0.5902;3.0444;
-105.6000;0.5926;3.0516;
-105.3000;0.5918;3.0564;
-105.0000;0.5861;3.0468;
-104.7000;0.5918;3.0660;
-104.4000;0.5893;3.0660;
-104.1000;0.5902;3.0636;
-103.8000;0.5902;3.0636;
-103.5000;0.5853;3.0492;
-103.2000;0.5918;3.0708;
-102.9000;0.5918;3.0708;
-102.6000;0.5902;3.0732;
-102.3000;0.5902;3.0756;
-102.0000;0.5926;3.0804;
-101.7000;0.5918;3.0828;
-101.4000;0.5910;3.0804;
-101.1000;0.5934;3.0804;
-100.8000;0.5910;3.0684;
-100.5000;0.5926;3.0756;
-100.2000;0.5869;3.0564;
-99.9000;0.5893;3.0468;
-99.6000;0.5893;3.0468;
-99.3000;0.5934;3.0588;
-99.0000;0.5853;3.0468;
-98.7000;0.5910;3.0588;
-98.4000;0.5910;3.0564;
-98.1000;0.5926;3.0732;
-97.8000;0.5902;3.0684;
-97.5000;0.5918;3.0684;
-97.2000;0.5926;3.0492;
-96.9000;0.5910;3.0516;
-96.6000;0.5926;3.0540;
-96.3000;0.5918;3.0516;
-96.0000;0.5893;3.0468;
-95.7000;0.5902;3.0396;
-95.4000;0.5853;3.0300;
-95.1000;0.5893;3.0396;
-94.8000;0.5885;3.0372;
-94.5000;0.5910;3.0372;
-94.2000;0.5910;3.0372;
-93.9000;0.5845;3.0276;
-93.6000;0.5893;3.0420;
-93.3000;0.5950;3.0588;
-93.0000;0.5902;3.0444;
-92.7000;0.5893;3.0372;
-92.4000;0.5910;3.0468;
-92.1000;0.5918;3.0444;
-91.8000;0.5918;3.0420;
-91.5000;0.5926;3.0492;
-91.2000;0.5910;3.0372;
-90.9000;0.5893;3.0300;
-90.6000;0.5902;3.0252;
-90.3000;0.5991;3.0516;
-90.0000;0.5828;3.0348;
-89.7000;0.5885;3.0468;
-89.4000;0.5893;3.0492;
-89.1000;0.5869;3.0396;
-88.8000;0.5902;3.0468;
-88.5000;0.5918;3.0420;
-88.2000;0.5910;3.0396;
-87.9000;0.5885;3.0396;
-87.6000;0.5893;3.0444;
-87.3000;0.5885;3.0396;
-87.0000;0.5902;3.0396;
-86.7000;0.5902;3.0396;
-86.4000;0.5967;3.0564;
-86.1000;0.5902;3.0396;
-85.8000;0.5893;3.0372;
-85.5000;0.5877;3.0444;
-85.2000;0.5893;3.0540;
-84.9000;0.5877;3.0540;
-84.6000;0.5902;3.0540;
-84.3000;0.5893;3.0564;
-84.0000;0.5820;3.0396;
-83.7000;0.5902;3.0636;
-83.4000;0.5934;3.0732;
-83.1000;0.5869;3.0588;
-82.8000;0.5902;3.0636;
-82.5000;0.5902;3.0516;
-82.2000;0.5918;3.0564;
-81.9000;0.5950;3.0636;
-81.6000;0.5902;3.0516;
-81.3000;0.5902;3.0588;
-81.0000;0.5893;3.0564;
-80.7000;0.5902;3.0540;
-80.4000;0.5902;3.0468;
-80.1000;0.5902;3.0420;
-79.8000;0.5902;3.0420;
-79.5000;0.5885;3.0348;
-79.2000;0.5910;3.0348;
-78.9000;0.5893;3.0420;
-78.6000;0.5902;3.0420;
-78.3000;0.5910;3.0420;
-78.0000;0.5893;3.0468;
-77.7000;0.5902;3.0516;
-77.4000;0.5893;3.0420;
-77.1000;0.5910;3.0468;
-76.8000;0.5910;3.0516;
-76.5000;0.5910;3.0468;
-76.2000;0.5902;3.0420;
-75.9000;0.5902;3.0396;
-75.6000;0.5910;3.0444;
-75.3000;0.5918;3.0516;
-75.0000;0.5918;3.0540;
-74.7000;0.5893;3.0588;
-74.4000;0.5902;3.0492;
-74.1000;0.5910;3.0468;
-73.8000;0.5926;3.0444;
-73.5000;0.5893;3.0444;
-73.2000;0.5885;3.0372;
-72.9000;0.5885;3.0372;
-72.6000;0.5918;3.0444;
-72.3000;0.5926;3.0444;
-72.0000;0.5910;3.0396;
-71.7000;0.5902;3.0324;
-71.4000;0.5853;3.0228;
-71.1000;0.5893;3.0324;
-70.8000;0.5910;3.0396;
-70.5000;0.5902;3.0420;
-70.2000;0.5902;3.0468;
-69.9000;0.5918;3.0444;
-69.6000;0.5910;3.0540;
-69.3000;0.5885;3.0516;
-69.0000;0.5918;3.0540;
-68.7000;0.5902;3.0492;
-68.4000;0.5975;3.0636;
-68.1000;0.5893;3.0420;
-67.8000;0.5910;3.0444;
-67.5000;0.5902;3.0348;
-67.2000;0.5918;3.0300;
-66.9000;0.5902;3.0252;
-66.6000;0.5934;3.0348;
-66.3000;0.5942;3.0420;
-66.0000;0.5918;3.0396;
-65.7000;0.5926;3.0372;
-65.4000;0.5910;3.0348;
-65.1000;0.5918;3.0396;
-64.8000;0.5942;3.0468;
-64.5000;0.5918;3.0348;
-64.2000;0.5918;3.0372;
-63.9000;0.5910;3.0348;
-63.6000;0.5910;3.0372;
-63.3000;0.5918;3.0444;
-63.0000;0.5918;3.0492;
-62.7000;0.5910;3.0468;
-62.4000;0.5910;3.0420;
-62.1000;0.5893;3.0348;
-61.8000;0.5853;3.0228;
-61.5000;0.5926;3.0348;
-61.2000;0.5918;3.0276;
-60.9000;0.5910;3.0300;
-60.6000;0.5918;3.0348;
-60.3000;0.5893;3.0348;
-60.0000;0.5893;3.0252;
-59.7000;0.5902;3.0276;
-59.4000;0.5991;3.0516;
-59.1000;0.5902;3.0372;
-58.8000;0.5845;3.0252;
-58.5000;0.5958;3.0540;
-58.2000;0.5861;3.0204;
-57.9000;0.5918;3.0300;
-57.6000;0.5918;3.0324;
-57.3000;0.5942;3.0252;
-57.0000;0.5926;3.0228;
-56.7000;0.5918;3.0372;
-56.4000;0.5918;3.0348;
-56.1000;0.5910;3.0372;
-55.8000;0.5934;3.0420;
-55.5000;0.5910;3.0348;
-55.2000;0.5910;3.0324;
-54.9000;0.5836;3.0180;
-54.6000;0.5853;3.0252;
-54.3000;0.5910;3.0348;
-54.0000;0.5902;3.0348;
-53.7000;0.5893;3.0372;
-53.4000;0.5893;3.0372;
-53.1000;0.5902;3.0300;
-52.8000;0.5902;3.0300;
-52.5000;0.5910;3.0396;
-52.2000;0.5910;3.0468;
-51.9000;0.5918;3.0492;
-51.6000;0.5910;3.0516;
-51.3000;0.5934;3.0684;
-51.0000;0.5918;3.0684;
-50.7000;0.5902;3.0684;
-50.4000;0.5918;3.0636;
-50.1000;0.5950;3.0732;
-49.8000;0.5877;3.0636;
-49.5000;0.5902;3.0636;
-49.2000;0.5885;3.0492;
-48.9000;0.5902;3.0396;
-48.6000;0.5918;3.0396;
-48.3000;0.5820;3.0156;
-48.0000;0.5918;3.0348;
-47.7000;0.5893;3.0420;
-47.4000;0.5893;3.0468;
-47.1000;0.5893;3.0492;
-46.8000;0.5926;3.0516;
-46.5000;0.5877;3.0468;
-46.2000;0.5885;3.0324;
-45.9000;0.5942;3.0396;
-45.6000;0.5902;3.0276;
-45.3000;0.5853;3.0204;
-45.0000;0.5910;3.0324;
-44.7000;0.5902;3.0228;
-44.4000;0.5902;3.0228;
-44.1000;0.5885;3.0252;
-43.8000;0.5836;3.0276;
-43.5000;0.5893;3.0348;
-43.2000;0.5893;3.0252;
-42.9000;0.5893;3.0252;
-42.6000;0.5845;3.0180;
-42.3000;0.5853;3.0228;
-42.0000;0.5902;3.0324;
-41.7000;0.5902;3.0348;
-41.4000;0.5910;3.0420;
-41.1000;0.5926;3.0444;
-40.8000;0.5893;3.0348;
-40.5000;0.5885;3.0348;
-40.2000;0.5902;3.0420;
-39.9000;0.5877;3.0420;
-39.6000;0.5902;3.0492;
-39.3000;0.5902;3.0516;
-39.0000;0.5885;3.0564;
-38.7000;0.5885;3.0516;
-38.4000;0.5918;3.0564;
-38.1000;0.5918;3.0492;
-37.8000;0.5910;3.0372;
-37.5000;0.5910;3.0300;
-37.2000;0.5910;3.0204;
-36.9000;0.5893;3.0276;
-36.6000;0.5918;3.0300;
-36.3000;0.5902;3.0348;
-36.0000;0.5910;3.0420;
-35.7000;0.5877;3.0420;
-35.4000;0.5893;3.0420;
-35.1000;0.5902;3.0444;
-34.8000;0.5861;3.0324;
-34.5000;0.5910;3.0468;
-34.2000;0.5845;3.0348;
-33.9000;0.5902;3.0516;
-33.6000;0.5885;3.0516;
-33.3000;0.5893;3.0516;
-33.0000;0.5861;3.0516;
-32.7000;0.5853;3.0468;
-32.4000;0.5877;3.0468;
-32.1000;0.5918;3.0444;
-31.8000;0.5934;3.0420;
-31.5000;0.5910;3.0396;
-31.2000;0.5869;3.0324;
-30.9000;0.5869;3.0300;
-30.6000;0.5950;3.0420;
-30.3000;0.5910;3.0396;
-30.0000;0.5934;3.0420;
-29.7000;0.5861;3.0324;
-29.4000;0.5910;3.0396;
-29.1000;0.5861;3.0276;
-28.8000;0.5983;3.0684;
-28.5000;0.5942;3.0564;
-28.2000;0.6024;3.0660;
-27.9000;0.5918;3.0420;
-27.6000;0.5910;3.0444;
-27.3000;0.5926;3.0492;
-27.0000;0.5934;3.0492;
-26.7000;0.5885;3.0372;
-26.4000;0.5918;3.0420;
-26.1000;0.5975;3.0468;
-25.8000;0.5975;3.0444;
-25.5000;0.5893;3.0300;
-25.2000;0.5877;3.0300;
-24.9000;0.5893;3.0300;
-24.6000;0.5902;3.0324;
-24.3000;0.5820;3.0156;
-24.0000;0.5902;3.0420;
-23.7000;0.5877;3.0348;
-23.4000;0.5902;3.0348;
-23.1000;0.5902;3.0252;
-22.8000;0.5893;3.0252;
-22.5000;0.5893;3.0300;
-22.2000;0.5910;3.0396;
-21.9000;0.5877;3.0324;
-21.6000;0.5910;3.0420;
-21.3000;0.5893;3.0348;
-21.0000;0.5877;3.0324;
-20.7000;0.5918;3.0444;
-20.4000;0.5902;3.0444;
-20.1000;0.5893;3.0540;
-19.8000;0.5910;3.0444;
-19.5000;0.5902;3.0468;
-19.2000;0.5910;3.0420;
-18.9000;0.5893;3.0420;
-18.6000;0.5902;3.0396;
-18.3000;0.5918;3.0348;
-18.0000;0.5934;3.0468;
-17.7000;0.5902;3.0372;
-17.4000;0.5910;3.0324;
-17.1000;0.5902;3.0444;
-16.8000;0.5877;3.0372;
-16.5000;0.5893;3.0396;
-16.2000;0.5877;3.0252;
-15.9000;0.5885;3.0300;
-15.6000;0.5877;3.0372;
-15.3000;0.5885;3.0372;
-15.0000;0.5918;3.0420;
-14.7000;0.5893;3.0444;
-14.4000;0.5885;3.0372;
-14.1000;0.5893;3.0348;
-13.8000;0.5942;3.0444;
-13.5000;0.5910;3.0348;
-13.2000;0.5885;3.0300;
-12.9000;0.5893;3.0276;
-12.6000;0.5877;3.0228;
-12.3000;0.5877;3.0252;
-12.0000;0.5853;3.0252;
-11.7000;0.5893;3.0324;
-11.4000;0.5885;3.0300;
-11.1000;0.5877;3.0252;
-10.8000;0.5885;3.0252;
-10.5000;0.5893;3.0276;
-10.2000;0.5902;3.0252;
-9.9000;0.5918;3.0324;
-9.6000;0.5893;3.0228;
-9.3000;0.5877;3.0228;
-9.0000;0.5877;3.0276;
-8.7000;0.5885;3.0324;
-8.4000;0.5918;3.0372;
-8.1000;0.5877;3.0276;
-7.8000;0.5877;3.0396;
-7.5000;0.5885;3.0348;
-7.2000;0.5926;3.0420;
-6.9000;0.5885;3.0300;
-6.6000;0.5918;3.0348;
-6.3000;0.5877;3.0372;
-6.0000;0.5877;3.0300;
-5.7000;0.5885;3.0180;
-5.4000;0.5885;3.0132;
-5.1000;0.5926;3.0108;
-4.8000;0.5877;2.9988;
-4.5000;0.5975;3.0204;
-4.2000;0.5934;3.0156;
-3.9000;0.5902;2.9988;
-3.6000;0.5877;2.9964;
-3.3000;0.5893;2.9964;
-3.0000;0.5910;2.9940;
-2.7000;0.5918;3.0060;
-2.4000;0.5885;3.0060;
-2.1000;0.5893;3.0012;
-1.8000;0.5902;3.0132;
-1.5000;0.5893;3.0132;
-1.2000;0.5902;3.0156;
-0.9000;0.5877;3.0204;
-0.6000;0.5885;3.0228;
-0.3000;0.5885;3.0228;
0.0000;0.5885;3.0228;
0.3000;0.6056;3.0276;
0.6000;0.6325;3.0708;
0.9000;0.6569;3.1140;
1.2000;0.6724;3.1476;
1.5000;0.6886;3.1860;
1.8000;0.6976;3.2100;
2.1000;0.7074;3.2292;
2.4000;0.7155;3.2508;
2.7000;0.7196;3.2651;
3.0000;0.7245;3.2819;
3.3000;0.7293;3.2987;
3.6000;0.7350;3.3131;
3.9000;0.7367;3.3251;
4.2000;0.7407;3.3419;
4.5000;0.7424;3.3515;
4.8000;0.7473;3.3587;
5.1000;0.7440;3.3491;
5.4000;0.7505;3.3563;
5.7000;0.7521;3.3563;
6.0000;0.7497;3.3419;
6.3000;0.7570;3.3515;
6.6000;0.7562;3.3515;
6.9000;0.7562;3.3491;
7.2000;0.7635;3.3731;
7.5000;0.7643;3.3731;
7.8000;0.7684;3.3827;
8.1000;0.7684;3.3851;
8.4000;0.7709;3.3755;
8.7000;0.7741;3.3827;
9.0000;0.7741;3.3851;
9.3000;0.7757;3.3899;
9.6000;0.7766;3.3875;
9.9000;0.7798;3.3851;
10.2000;0.7806;3.3707;
10.5000;0.7823;3.3707;
10.8000;0.7814;3.3659;
11.1000;0.7839;3.3587;
11.4000;0.7831;3.3611;
11.7000;0.7847;3.3539;
12.0000;0.7871;3.3563;
12.3000;0.7912;3.3587;
12.6000;0.7912;3.3683;
12.9000;0.7920;3.3755;
13.2000;0.7928;3.3803;
13.5000;0.7928;3.3659;
13.8000;0.7993;3.3731;
14.1000;0.7993;3.3659;
14.4000;0.7961;3.3635;
14.7000;0.8002;3.3683;
15.0000;0.8018;3.3707;
15.3000;0.8034;3.3659;
15.6000;0.8026;3.3683;
15.9000;0.8026;3.3659;
16.2000;0.8026;3.3587;
16.5000;0.8075;3.3587;
16.8000;0.8059;3.3467;
17.1000;0.8059;3.3467;
17.4000;0.8075;3.3515;
17.7000;0.8059;3.3491;
18.0000;0.8091;3.3539;
18.3000;0.8148;3.3659;
18.6000;0.8132;3.3635;
18.9000;0.8140;3.3659;
19.2000;0.8099;3.3587;
19.5000;0.8148;3.3659;
19.8000;0.8156;3.3563;
20.1000;0.8164;3.3611;
20.4000;0.8156;3.3659;
20.7000;0.8148;3.3539;
21.0000;0.8205;3.3515;
21.3000;0.8189;3.3491;
21.6000;0.8197;3.3467;
21.9000;0.8197;3.3467;
22.2000;0.8181;3.3515;
22.5000;0.8205;3.3587;
22.8000;0.8221;3.3611;
23.1000;0.8221;3.3611;
23.4000;0.8230;3.3611;
23.7000;0.8238;3.3491;
24.0000;0.8254;3.3491;
24.3000;0.8238;3.3419;
24.6000;0.8262;3.3539;
24.9000;0.8254;3.3587;
25.2000;0.8262;3.3587;
25.5000;0.8278;3.3539;
25.8000;0.8238;3.3371;
26.1000;0.8287;3.3395;
26.4000;0.8295;3.3347;
26.7000;0.8287;3.3275;
27.0000;0.8287;3.3323;
27.3000;0.8319;3.3443;
27.6000;0.8319;3.3467;
27.9000;0.8319;3.3515;
28.2000;0.8311;3.3635;
28.5000;0.8287;3.3563;
28.8000;0.8303;3.3635;
29.1000;0.8433;3.3947;
29.4000;0.8319;3.3611;
29.7000;0.8335;3.3539;
30.0000;0.8327;3.3539;
30.3000;0.8352;3.3611;
30.6000;0.8327;3.3587;
30.9000;0.8368;3.3635;
31.2000;0.8352;3.3635;
31.5000;0.8376;3.3731;
31.8000;0.8344;3.3587;
32.1000;0.8368;3.3611;
32.4000;0.8319;3.3539;
32.7000;0.8352;3.3635;
33.0000;0.8368;3.3707;
33.3000;0.8311;3.3443;
33.6000;0.8384;3.3443;
33.9000;0.8384;3.3563;
34.2000;0.8409;3.3491;
34.5000;0.8425;3.3587;
34.8000;0.8376;3.3443;
35.1000;0.8457;3.3659;
35.4000;0.8376;3.3467;
35.7000;0.8384;3.3443;
36.0000;0.8409;3.3467;
36.3000;0.8400;3.3515;
36.6000;0.8409;3.3491;
36.9000;0.8384;3.3443;
37.2000;0.8352;3.3371;
37.5000;0.8474;3.3683;
37.8000;0.8384;3.3491;
38.1000;0.8376;3.3515;
38.4000;0.8417;3.3635;
38.7000;0.8417;3.3683;
39.0000;0.8409;3.3635;
39.3000;0.8449;3.3707;
39.6000;0.8409;3.3683;
39.9000;0.8441;3.3755;
40.2000;0.8425;3.3731;
40.5000;0.8425;3.3707;
40.8000;0.8449;3.3803;
41.1000;0.8433;3.3803;
41.4000;0.8409;3.3779;
41.7000;0.8392;3.3611;
42.0000;0.8433;3.3635;
42.3000;0.8433;3.3635;
42.6000;0.8433;3.3563;
42.9000;0.8441;3.3563;
43.2000;0.8417;3.3587;
43.5000;0.8384;3.3587;
43.8000;0.8425;3.3659;
44.1000;0.8441;3.3731;
44.4000;0.8425;3.3683;
44.7000;0.8433;3.3683;
45.0000;0.8449;3.3779;
45.3000;0.8433;3.3755;
45.6000;0.8441;3.3731;
45.9000;0.8449;3.3707;
46.2000;0.8425;3.3755;
46.5000;0.8466;3.3731;
46.8000;0.8457;3.3683;
47.1000;0.8466;3.3587;
47.4000;0.8457;3.3587;
47.7000;0.8449;3.3611;
48.0000;0.8457;3.3731;
48.3000;0.8466;3.3779;
48.6000;0.8506;3.3923;
48.9000;0.8466;3.3683;
49.2000;0.8433;3.3659;
49.5000;0.8482;3.3779;
49.8000;0.8482;3.3635;
50.1000;0.8457;3.3515;
50.4000;0.8457;3.3491;
50.7000;0.8474;3.3467;
51.0000;0.8474;3.3419;
51.3000;0.8466;3.3395;
51.6000;0.8474;3.3443;
51.9000;0.8482;3.3563;
52.2000;0.8482;3.3659;
52.5000;0.8474;3.3635;
52.8000;0.8474;3.3707;
53.1000;0.8506;3.3875;
53.4000;0.8482;3.3779;
53.7000;0.8482;3.3611;
54.0000;0.8482;3.3587;
54.3000;0.8474;3.3491;
54.6000;0.8482;3.3587;
54.9000;0.8498;3.3587;
55.2000;0.8490;3.3659;
55.5000;0.8490;3.3587;
55.8000;0.8482;3.3515;
56.1000;0.8482;3.3467;
56.4000;0.8474;3.3539;
56.7000;0.8482;3.3611;
57.0000;0.8490;3.3563;
57.3000;0.8547;3.3611;
57.6000;0.8498;3.3395;
57.9000;0.8571;3.3587;
58.2000;0.8498;3.3467;
58.5000;0.8514;3.3587;
58.8000;0.8498;3.3491;
59.1000;0.8523;3.3635;
59.4000;0.8498;3.3467;
59.7000;0.8506;3.3419;
60.0000;0.8482;3.3419;
60.3000;0.8482;3.3491;
60.6000;0.8506;3.3707;
60.9000;0.8523;3.3731;
61.2000;0.8506;3.3707;
61.5000;0.8498;3.3587;
61.8000;0.8482;3.3587;
62.1000;0.8498;3.3587;
62.4000;0.8498;3.3659;
62.7000;0.8506;3.3683;
63.0000;0.8498;3.3683;
63.3000;0.8506;3.3731;
63.6000;0.8514;3.3779;
63.9000;0.8514;3.3803;
64.2000;0.8539;3.3875;
64.5000;0.8539;3.3803;
64.8000;0.8531;3.3707;
65.1000;0.8498;3.3611;
65.4000;0.8523;3.3587;
65.7000;0.8523;3.3563;
66.0000;0.8531;3.3563;
66.3000;0.8490;3.3443;
66.6000;0.8580;3.3515;
66.9000;0.8474;3.3275;
67.2000;0.8539;3.3443;
67.5000;0.8547;3.3515;
67.8000;0.8498;3.3443;
68.1000;0.8531;3.3515;
68.4000;0.8523;3.3587;
68.7000;0.8490;3.3491;
69.0000;0.8523;3.3539;
69.3000;0.8514;3.3491;
69.6000;0.8547;3.3515;
69.9000;0.8514;3.3491;
70.2000;0.8514;3.3467;
70.5000;0.8523;3.3443;
70.8000;0.8498;3.3371;
71.1000;0.8547;3.3491;
71.4000;0.8514;3.3347;
71.7000;0.8531;3.3347;
72.0000;0.8506;3.3347;
72.3000;0.8523;3.3395;
72.6000;0.8523;3.3371;
72.9000;0.8409;3.3155;
73.2000;0.8523;3.3539;
73.5000;0.8539;3.3491;
73.8000;0.8523;3.3443;
74.1000;0.8523;3.3395;
74.4000;0.8514;3.3395;
74.7000;0.8539;3.3467;
75.0000;0.8539;3.3491;
75.3000;0.8523;3.3395;
75.6000;0.8531;3.3419;
75.9000;0.8531;3.3491;
76.2000;0.8531;3.3515;
76.5000;0.8531;3.3515;
76.8000;0.8539;3.3611;
77.1000;0.8539;3.3611;
77.4000;0.8539;3.3515;
77.7000;0.8506;3.3419;
78.0000;0.8539;3.3491;
78.3000;0.8555;3.3515;
78.6000;0.8604;3.3707;
78.9000;0.8539;3.3491;
79.2000;0.8555;3.3491;
79.5000;0.8563;3.3395;
79.8000;0.8539;3.3299;
80.1000;0.8539;3.3323;
80.4000;0.8539;3.3323;
80.7000;0.8588;3.3443;
81.0000;0.8523;3.3395;
81.3000;0.8580;3.3611;
81.6000;0.8531;3.3443;
81.9000;0.8523;3.3467;
82.2000;0.8547;3.3539;
82.5000;0.8539;3.3539;
82.8000;0.8539;3.3563;
83.1000;0.8547;3.3635;
83.4000;0.8539;3.3659;
83.7000;0.8539;3.3659;
84.0000;0.8490;3.3563;
84.3000;0.8523;3.3611;
84.6000;0.8514;3.3563;
84.9000;0.8547;3.3635;
85.2000;0.8555;3.3587;
85.5000;0.8547;3.3563;
85.8000;0.8539;3.3443;
86.1000;0.8596;3.3563;
86.4000;0.8539;3.3443;
86.7000;0.8531;3.3443;
87.0000;0.8555;3.3395;
87.3000;0.8539;3.3395;
87.6000;0.8588;3.3395;
87.9000;0.8555;3.3323;
88.2000;0.8604;3.3467;
88.5000;0.8563;3.3347;
88.8000;0.8563;3.3347;
89.1000;0.8555;3.3323;
89.4000;0.8555;3.3299;
89.7000;0.8539;3.3299;
90.0000;0.8555;3.3323;
90.3000;0.8571;3.3299;
90.6000;0.8547;3.3251;
90.9000;0.8555;3.3323;
91.2000;0.8604;3.3371;
91.5000;0.8539;3.3347;
91.8000;0.8555;3.3419;
92.1000;0.8523;3.3371;
92.4000;0.8547;3.3323;
92.7000;0.8555;3.3419;
93.0000;0.8539;3.3371;
93.3000;0.8547;3.3323;
93.6000;0.8563;3.3395;
93.9000;0.8555;3.3347;
94.2000;0.8523;3.3323;
94.5000;0.8563;3.3443;
94.8000;0.8474;3.3155;
95.1000;0.8547;3.3323;
95.4000;0.8563;3.3395;
95.7000;0.8555;3.3275;
96.0000;0.8563;3.3323;
96.3000;0.8563;3.3347;
96.6000;0.8555;3.3323;
96.9000;0.8563;3.3299;
97.2000;0.8547;3.3227;
97.5000;0.8547;3.3275;
97.8000;0.8555;3.3371;
98.1000;0.8547;3.3275;
98.4000;0.8563;3.3203;
98.7000;0.8580;3.3275;
99.0000;0.8588;3.3347;
99.3000;0.8580;3.3347;
99.6000;0.8571;3.3371;
99.9000;0.8563;3.3347;
100.2000;0.8588;3.3395;
100.5000;0.8571;3.3323;
100.8000;0.8563;3.3347;
101.1000;0.8612;3.3515;
101.4000;0.8547;3.3419;
101.7000;0.8563;3.3395;
102.0000;0.8547;3.3275;
102.3000;0.8547;3.3299;
102.6000;0.8547;3.3299;
102.9000;0.8555;3.3371;
103.2000;0.8547;3.3299;
103.5000;0.8563;3.3347;
103.8000;0.8531;3.3395;
104.1000;0.8514;3.3323;
104.4000;0.8547;3.3323;
104.7000;0.8588;3.3347;
105.0000;0.8523;3.3251;
105.3000;0.8563;3.3395;
105.6000;0.8555;3.3371;
105.9000;0.8547;3.3371;
106.2000;0.8531;3.3347;
106.5000;0.8555;3.3227;
106.8000;0.8539;3.3299;
107.1000;0.8555;3.3347;
107.4000;0.8555;3.3323;
107.7000;0.8563;3.3395;
108.0000;0.8571;3.3467;
108.3000;0.8571;3.3371;
108.6000;0.8571;3.3323;
108.9000;0.8563;3.3323;
109.2000;0.8571;3.3275;
109.5000;0.8588;3.3251;
109.8000;0.8571;3.3251;
110.1000;0.8580;3.3347;
110.4000;0.8531;3.3299;
110.7000;0.8555;3.3419;
111.0000;0.8555;3.3467;
111.3000;0.8628;3.3611;
111.6000;0.8531;3.3371;
111.9000;0.8547;3.3299;
112.2000;0.8596;3.3299;
112.5000;0.8547;3.3227;
112.8000;0.8563;3.3251;
113.1000;0.8563;3.3299;
113.4000;0.8580;3.3275;
113.7000;0.8563;3.3155;
114.0000;0.8588;3.3059;
114.3000;0.8555;3.3083;
114.6000;0.8555;3.3179;
114.9000;0.8547;3.3155;
115.2000;0.8531;3.3203;
115.5000;0.8571;3.3395;
115.8000;0.8571;3.3419;
116.1000;0.8555;3.3419;
116.4000;0.8555;3.3371;
116.7000;0.8637;3.3587;
117.0000;0.8563;3.3371;
117.3000;0.8563;3.3395;
117.6000;0.8531;3.3299;
117.9000;0.8571;3.3323;
118.2000;0.8563;3.3443;
118.5000;0.8571;3.3539;
118.8000;0.8490;3.3299;
119.1000;0.8580;3.3515;
119.4000;0.8588;3.3467;
119.7000;0.8661;3.3611;
120.0000;0.8580;3.3395;
120.3000;0.8571;3.3443;
120.6000;0.8571;3.3491;
120.9000;0.8571;3.3515;
121.2000;0.8523;3.3371;
121.5000;0.8571;3.3563;
121.8000;0.8571;3.3587;
122.1000;0.8588;3.3539;
122.4000;0.8571;3.3491;
122.7000;0.8571;3.3395;
123.0000;0.8580;3.3467;
123.3000;0.8596;3.3419;
123.6000;0.8539;3.3251;
123.9000;0.8531;3.3203;
124.2000;0.8580;3.3491;
124.5000;0.8645;3.3611;
124.8000;0.8628;3.3563;
125.1000;0.8563;3.3443;
125.4000;0.8571;3.3491;
125.7000;0.8588;3.3635;
126.0000;0.8596;3.3611;
126.3000;0.8563;3.3467;
126.6000;0.8571;3.3491;
126.9000;0.8563;3.3467;
127.2000;0.8563;3.3467;
127.5000;0.8563;3.3539;
127.8000;0.8596;3.3587;
128.1000;0.8580;3.3563;
128.4000;0.8580;3.3611;
128.7000;0.8580;3.3611;
129.0000;0.8555;3.3515;
129.3000;0.8555;3.3563;
129.6000;0.8580;3.3683;
129.9000;0.8563;3.3587;
130.2000;0.8555;3.3515;
130.5000;0.8580;3.3635;
130.8000;0.8580;3.3587;
131.1000;0.8571;3.3587;
131.4000;0.8555;3.3611;
131.7000;0.8563;3.3515;
132.0000;0.8580;3.3491;
132.3000;0.8563;3.3419;
132.6000;0.8563;3.3419;
132.9000;0.8571;3.3419;
133.2000;0.8580;3.3467;
133.5000;0.8596;3.3467;
133.8000;0.8612;3.3515;
134.1000;0.8580;3.3443;
134.4000;0.8588;3.3491;
134.7000;0.8604;3.3611;
135.0000;0.8571;3.3467;
135.3000;0.8604;3.3467;
135.6000;0.8580;3.3491;
135.9000;0.8588;3.3491;
136.2000;0.8563;3.3371;
136.5000;0.8628;3.3515;
136.8000;0.8547;3.3347;
137.1000;0.8580;3.3323;
137.4000;0.8580;3.3323;
137.7000;0.8580;3.3347;
138.0000;0.8580;3.3347;
138.3000;0.8604;3.3395;
138.6000;0.8580;3.3395;
138.9000;0.8555;3.3419;
139.2000;0.8580;3.3467;
139.5000;0.8588;3.3491;
139.8000;0.8588;3.3467;
140.1000;0.8547;3.3347;
140.4000;0.8580;3.3467;
140.7000;0.8571;3.3443;
141.0000;0.8645;3.3611;
141.3000;0.8580;3.3539;
141.6000;0.8571;3.3539;
141.9000;0.8539;3.3491;
142.2000;0.8563;3.3611;
142.5000;0.8571;3.3635;
142.8000;0.8596;3.3611;
143.1000;0.8563;3.3467;
143.4000;0.8580;3.3443;
143.7000;0.8580;3.3515;
144.0000;0.8482;3.3323;
144.3000;0.8506;3.3323;
144.6000;0.8596;3.3515;
144.9000;0.8612;3.3611;
145.2000;0.8588;3.3587;
145.5000;0.8580;3.3563;
145.8000;0.8474;3.3275;
146.1000;0.8580;3.3587;
146.4000;0.8580;3.3611;
146.7000;0.8596;3.3635;
147.0000;0.8539;3.3443;
147.3000;0.8580;3.3515;
147.6000;0.8604;3.3515;
147.9000;0.8596;3.3563;
148.2000;0.8563;3.3443;
148.5000;0.8580;3.3587;
148.8000;0.8563;3.3515;
149.1000;0.8588;3.3683;
149.4000;0.8580;3.3539;
149.7000;0.8588;3.3563;
150.0000;0.8580;3.3515;
150.3000;0.8580;3.3539;
150.6000;0.8563;3.3683;
150.9000;0.8571;3.3635;
151.2000;0.8596;3.3635;
151.5000;0.8555;3.3515;
151.8000;0.8571;3.3539;
152.1000;0.8555;3.3467;
152.4000;0.8580;3.3563;
152.7000;0.8563;3.3587;
153.0000;0.8563;3.3659;
153.3000;0.8571;3.3635;
153.6000;0.8588;3.3683;
153.9000;0.8588;3.3659;
154.2000;0.8563;3.3539;
154.5000;0.8580;3.3443;
154.8000;0.8580;3.3539;
155.1000;0.8563;3.3539;
155.4000;0.8580;3.3611;
155.7000;0.8563;3.3659;
156.0000;0.8588;3.3779;
156.3000;0.8588;3.3731;
156.6000;0.8580;3.3731;
156.9000;0.8547;3.3659;
157.2000;0.8580;3.3731;
157.5000;0.8571;3.3659;
157.8000;0.8563;3.3731;
158.1000;0.8571;3.3803;
158.4000;0.8563;3.3755;
158.7000;0.8571;3.3731;
159.0000;0.8604;3.3803;
159.3000;0.8588;3.3683;
159.6000;0.8588;3.3779;
159.9000;0.8596;3.3755;
160.2000;0.8645;3.3827;
160.5000;0.8571;3.3683;
160.8000;0.8588;3.3635;
161.1000;0.8571;3.3683;
161.4000;0.8588;3.3731;
161.7000;0.8571;3.3587;
162.0000;0.8588;3.3587;
162.3000;0.8580;3.3587;
162.6000;0.8563;3.3563;
162.9000;0.8571;3.3467;
163.2000;0.8580;3.3467;
163.5000;0.8596;3.3467;
163.8000;0.8588;3.3491;
164.1000;0.8563;3.3443;
164.4000;0.8563;3.3443;
164.7000;0.8571;3.3515;
165.0000;0.8612;3.3563;
165.3000;0.8596;3.3587;
165.6000;0.8563;3.3563;
165.9000;0.8588;3.3731;
166.2000;0.8596;3.3755;
166.5000;0.8596;3.3635;
166.8000;0.8653;3.3827;
167.1000;0.8596;3.3683;
167.4000;0.8580;3.3635;
167.7000;0.8588;3.3683;
168.0000;0.8628;3.3755;
168.3000;0.8588;3.3635;
168.6000;0.8596;3.3611;
168.9000;0.8604;3.3563;
169.2000;0.8620;3.3539;
169.5000;0.8596;3.3563;
169.8000;0.8596;3.3563;
170.1000;0.8588;3.3515;
170.4000;0.8596;3.3491;
170.7000;0.8588;3.3419;
171.0000;0.8588;3.3347;
171.3000;0.8588;3.3299;
171.6000;0.8588;3.3371;
171.9000;0.8580;3.3371;
172.2000;0.8580;3.3371;
172.5000;0.8588;3.3395;
172.8000;0.8563;3.3347;
173.1000;0.8580;3.3395;
173.4000;0.8571;3.3443;
173.7000;0.8596;3.3515;
174.0000;0.8596;3.3539;
174.3000;0.8645;3.3659;
174.6000;0.8514;3.3323;
174.9000;0.8596;3.3467;
175.2000;0.8580;3.3395;
175.5000;0.8588;3.3419;
175.8000;0.8571;3.3467;
176.1000;0.8571;3.3395;
176.4000;0.8588;3.3419;
176.7000;0.8588;3.3443;
177.0000;0.8580;3.3419;
177.3000;0.8571;3.3467;
177.6000;0.8645;3.3611;
177.9000;0.8596;3.3539;
178.2000;0.8596;3.3587;
178.5000;0.8596;3.3563;
178.8000;0.8588;3.3467;
179.1000;0.8604;3.3419;
179.4000;0.8580;3.3299;
179.7000;0.8580;3.3299;
180.0000;0.8596;3.3299;
180.3000;0.8588;3.3275;
180.6000;0.8588;3.3323;
180.9000;0.8612;3.3371;
181.2000;0.8580;3.3275;
181.5000;0.8588;3.3275;
181.8000;0.8596;3.3275;
182.1000;0.8596;3.3251;
182.4000;0.8547;3.3203;
182.7000;0.8596;3.3395;
183.0000;0.8563;3.3347;
183.3000;0.8588;3.3419;
183.6000;0.8588;3.3395;
183.9000;0.8580;3.3395;
184.2000;0.8580;3.3419;
184.5000;0.8604;3.3443;
184.8000;0.8588;3.3347;
185.1000;0.8563;3.3347;
185.4000;0.8596;3.3419;
185.7000;0.8588;3.3371;
186.0000;0.8580;3.3299;
186.3000;0.8604;3.3299;
186.6000;0.8685;3.3563;
186.9000;0.8596;3.3299;
187.2000;0.8588;3.3347;
187.5000;0.8580;3.3395;
187.8000;0.8588;3.3395;
188.1000;0.8523;3.3227;
188.4000;0.8571;3.3395;
188.7000;0.8588;3.3491;
189.0000;0.8580;3.3563;
189.3000;0.8571;3.3515;
189.6000;0.8580;3.3395;
189.9000;0.8596;3.3443;
190.2000;0.8596;3.3395;
190.5000;0.8588;3.3347;
190.8000;0.8588;3.3323;
191.1000;0.8588;3.3275;
191.4000;0.8580;3.3299;
191.7000;0.8588;3.3371;
192.0000;0.8596;3.3419;
192.3000;0.8588;3.3467;
192.6000;0.8563;3.3371;
192.9000;0.8588;3.3419;
193.2000;0.8588;3.3347;
193.5000;0.8588;3.3275;
193.8000;0.8580;3.3347;
194.1000;0.8580;3.3323;
194.4000;0.8588;3.3347;
194.7000;0.8596;3.3443;
195.0000;0.8596;3.3467;
195.3000;0.8612;3.3563;
195.6000;0.8604;3.3563;
195.9000;0.8539;3.3443;
196.2000;0.8571;3.3467;
196.5000;0.8531;3.3323;
196.8000;0.8563;3.3491;
197.1000;0.8563;3.3443;
197.4000;0.8555;3.3443;
197.7000;0.8539;3.3467;
198.0000;0.8580;3.3563;
198.3000;0.8596;3.3515;
198.6000;0.8596;3.3539;
198.9000;0.8571;3.3467;
199.2000;0.8580;3.3587;
199.5000;0.8604;3.3635;
199.8000;0.8580;3.3587;
200.1000;0.8563;3.3587;
200.4000;0.8555;3.3587;
200.7000;0.8580;3.3635;
201.0000;0.8571;3.3563;
201.3000;0.8580;3.3563;
201.6000;0.8547;3.3443;
201.9000;0.8580;3.3395;
202.2000;0.8677;3.3587;
202.5000;0.8571;3.3323;
202.8000;0.8588;3.3299;
203.1000;0.8571;3.3371;
203.4000;0.8571;3.3347;
203.7000;0.8563;3.3275;
204.0000;0.8604;3.3323;
204.3000;0.8531;3.3107;
204.6000;0.8580;3.3203;
204.9000;0.8580;3.3203;
205.2000;0.8645;3.3395;
205.5000;0.8596;3.3323;
205.8000;0.8588;3.3347;
206.1000;0.8580;3.3323;
206.4000;0.8555;3.3275;
206.7000;0.8628;3.3419;
207.0000;0.8571;3.3275;
207.3000;0.8677;3.3563;
207.6000;0.8523;3.3155;
207.9000;0.8563;3.3395;
208.2000;0.8596;3.3443;
208.5000;0.8588;3.3467;
208.8000;0.8580;3.3419;
209.1000;0.8620;3.3419;
209.4000;0.8588;3.3395;
209.7000;0.8596;3.3443;
210.0000;0.8563;3.3299;
210.3000;0.8588;3.3323;
210.6000;0.8580;3.3275;
210.9000;0.8555;3.3251;
211.2000;0.8588;3.3395;
211.5000;0.8571;3.3323;
211.8000;0.8612;3.3467;
212.1000;0.8506;3.3251;
212.4000;0.8588;3.3419;
212.7000;0.8580;3.3395;
213.0000;0.8571;3.3371;
213.3000;0.8555;3.3347;
213.6000;0.8571;3.3419;
213.9000;0.8604;3.3347;
214.2000;0.8580;3.3299;
214.5000;0.8596;3.3347;
214.8000;0.8596;3.3371;
215.1000;0.8596;3.3371;
215.4000;0.8571;3.3251;
215.7000;0.8604;3.3347;
216.0000;0.8596;3.3371;
216.3000;0.8604;3.3443;
216.6000;0.8596;3.3491;
216.9000;0.8571;3.3395;
217.2000;0.8604;3.3491;
217.5000;0.8588;3.3443;
217.8000;0.8596;3.3467;
218.1000;0.8596;3.3443;
218.4000;0.8604;3.3467;
218.7000;0.8628;3.3539;
219.0000;0.8596;3.3467;
219.3000;0.8596;3.3467;
219.6000;0.8604;3.3635;
219.9000;0.8604;3.3563;
220.2000;0.8612;3.3491;
220.5000;0.8588;3.3443;
220.8000;0.8588;3.3467;
221.1000;0.8596;3.3491;
221.4000;0.8563;3.3419;
221.7000;0.8596;3.3371;
222.0000;0.8612;3.3347;
222.3000;0.8563;3.3299;
222.6000;0.8596;3.3467;
222.9000;0.8580;3.3371;
223.2000;0.8637;3.3515;
223.5000;0.8588;3.3371;
223.8000;0.8588;3.3467;
224.1000;0.8604;3.3587;
224.4000;0.8563;3.3419;
224.7000;0.8571;3.3515;
225.0000;0.8580;3.3539;
225.3000;0.8580;3.3563;
225.6000;0.8596;3.3611;
225.9000;0.8588;3.3611;
226.2000;0.8620;3.3611;
226.5000;0.8571;3.3563;
226.8000;0.8571;3.3539;
227.1000;0.8580;3.3467;
227.4000;0.8596;3.3467;
227.7000;0.8596;3.3467;
228.0000;0.8571;3.3467;
228.3000;0.8596;3.3395;
228.6000;0.8547;3.3419;
228.9000;0.8604;3.3587;
229.2000;0.8637;3.3659;
229.5000;0.8604;3.3539;
229.8000;0.8596;3.3611;
230.1000;0.8596;3.3563;
230.4000;0.8547;3.3515;
230.7000;0.8596;3.3659;
231.0000;0.8588;3.3659;
231.3000;0.8645;3.3803;
231.6000;0.8604;3.3611;
231.9000;0.8571;3.3467;
232.2000;0.8571;3.3395;
232.5000;0.8539;3.3299;
232.8000;0.8588;3.3395;
233.1000;0.8571;3.3395;
233.4000;0.8588;3.3467;
233.7000;0.8580;3.3467;
234.0000;0.8580;3.3443;
234.3000;0.8628;3.3563;
234.6000;0.8563;3.3467;
234.9000;0.8596;3.3515;
235.2000;0.8653;3.3563;
235.5000;0.8604;3.3323;
235.8000;0.8523;3.3131;
236.1000;0.8620;3.3371;
236.4000;0.8596;3.3275;
236.7000;0.8612;3.3203;
237.0000;0.8588;3.3179;
237.3000;0.8596;3.3323;
237.6000;0.8612;3.3395;
237.9000;0.8596;3.3275;
238.2000;0.8580;3.3323;
238.5000;0.8612;3.3419;
238.8000;0.8588;3.3371;
239.1000;0.8612;3.3395;
239.4000;0.8604;3.3443;
239.7000;0.8539;3.3347;
240.0000;0.8604;3.3491;
240.3000;0.8612;3.3491;
240.6000;0.8596;3.3419;
240.9000;0.8645;3.3539;
241.2000;0.8645;3.3539;
241.5000;0.8596;3.3491;
241.8000;0.8596;3.3443;
242.1000;0.8596;3.3371;
242.4000;0.8596;3.3419;
242.7000;0.8596;3.3491;
243.0000;0.8596;3.3539;
243.3000;0.8571;3.3467;
243.6000;0.8588;3.3491;
243.9000;0.8580;3.3395;
244.2000;0.8571;3.3419;
244.5000;0.8620;3.3491;
244.8000;0.8588;3.3467;
245.1000;0.8612;3.3539;
245.4000;0.8588;3.3443;
245.7000;0.8612;3.3467;
246.0000;0.8580;3.3443;
246.3000;0.8588;3.3419;
246.6000;0.8580;3.3371;
246.9000;0.8580;3.3227;
247.2000;0.8571;3.3179;
247.5000;0.8580;3.3227;
247.8000;0.8588;3.3203;
248.1000;0.8571;3.3203;
248.4000;0.8563;3.3227;
248.7000;0.8571;3.3227;
249.0000;0.8596;3.3251;
249.3000;0.8604;3.3347;
249.6000;0.8612;3.3443;
249.9000;0.8596;3.3371;
250.2000;0.8604;3.3347;
250.5000;0.8612;3.3443;
250.8000;0.8580;3.3419;
251.1000;0.8604;3.3467;
251.4000;0.8604;3.3491;
251.7000;0.8596;3.3491;
252.0000;0.8588;3.3395;
252.3000;0.8596;3.3347;
252.6000;0.8588;3.3395;
252.9000;0.8571;3.3347;
253.2000;0.8596;3.3323;
253.5000;0.8523;3.3107;
253.8000;0.8580;3.3203;
254.1000;0.8588;3.3275;
254.4000;0.8604;3.3395;
254.7000;0.8612;3.3371;
255.0000;0.8588;3.3347;
255.3000;0.8612;3.3347;
255.6000;0.8588;3.3299;
255.9000;0.8563;3.3131;
256.2000;0.8563;3.3155;
256.5000;0.8637;3.3299;
256.8000;0.8588;3.3227;
257.1000;0.8596;3.3227;
257.4000;0.8580;3.3227;
257.7000;0.8571;3.3275;
258.0000;0.8604;3.3347;
258.3000;0.8604;3.3371;
258.6000;0.8702;3.3587;
258.9000;0.8580;3.3251;
259.2000;0.8588;3.3251;
259.5000;0.8588;3.3275;
259.8000;0.8580;3.3323;
260.1000;0.8596;3.3275;
260.4000;0.8571;3.3227;
260.7000;0.8588;3.3299;
261.0000;0.8596;3.3323;
261.3000;0.8604;3.3347;
261.6000;0.8604;3.3371;
261.9000;0.8580;3.3395;
262.2000;0.8604;3.3419;
262.5000;0.8588;3.3419;
262.8000;0.8620;3.3443;
263.1000;0.8580;3.3419;
263.4000;0.8588;3.3515;
263.7000;0.8588;3.3563;
264.0000;0.8588;3.3611;
264.3000;0.8588;3.3587;
264.6000;0.8596;3.3659;
264.9000;0.8555;3.3515;
265.2000;0.8612;3.3659;
265.5000;0.8588;3.3563;
265.8000;0.8588;3.3587;
266.1000;0.8580;3.3563;
266.4000;0.8539;3.3467;
266.7000;0.8580;3.3515;
267.0000;0.8482;3.3323;
267.3000;0.8571;3.3515;
267.6000;0.8482;3.3227;
267.9000;0.8588;3.3467;
268.2000;0.8588;3.3395;
268.5000;0.8588;3.3323;
268.8000;0.8571;3.3323;
269.1000;0.8596;3.3419;
269.4000;0.8596;3.3467;
269.7000;0.8571;3.3347;
270.0000;0.8580;3.3347;
270.3000;0.8588;3.3419;
270.6000;0.8604;3.3443;
270.9000;0.8596;3.3347;
271.2000;0.8580;3.3251;
271.5000;0.8604;3.3395;
271.8000;0.8596;3.3395;
272.1000;0.8588;3.3347;
272.4000;0.8596;3.3467;
272.7000;0.8588;3.3371;
273.0000;0.8604;3.3419;
273.3000;0.8588;3.3395;
273.6000;0.8637;3.3467;
273.9000;0.8580;3.3299;
274.2000;0.8604;3.3323;
274.5000;0.8596;3.3323;
274.8000;0.8588;3.3275;
275.1000;0.8596;3.3275;
275.4000;0.8588;3.3275;
275.7000;0.8571;3.3275;
276.0000;0.8588;3.3443;
276.3000;0.8580;3.3467;
276.6000;0.8563;3.3347;
276.9000;0.8588;3.3467;
277.2000;0.8588;3.3515;
277.5000;0.8612;3.3587;
277.8000;0.8571;3.3491;
278.1000;0.8588;3.3467;
278.4000;0.8588;3.3419;
278.7000;0.8596;3.3419;
279.0000;0.8571;3.3371;
279.3000;0.8596;3.3347;
279.6000;0.8694;3.3659;
279.9000;0.8596;3.3371;
280.2000;0.8604;3.3347;
280.5000;0.8596;3.3323;
280.8000;0.8620;3.3395;
281.1000;0.8604;3.3419;
281.4000;0.8604;3.3347;
281.7000;0.8596;3.3251;
282.0000;0.8612;3.3251;
282.3000;0.8596;3.3251;
282.6000;0.8596;3.3299;
282.9000;0.8580;3.3251;
283.2000;0.8596;3.3227;
283.5000;0.8580;3.3275;
283.8000;0.8588;3.3347;
284.1000;0.8580;3.3371;
284.4000;0.8580;3.3395;
284.7000;0.8588;3.3395;
285.0000;0.8612;3.3467;
285.3000;0.8604;3.3395;
285.6000;0.8596;3.3419;
285.9000;0.8588;3.3419;
286.2000;0.8604;3.3491;
286.5000;0.8596;3.3491;
286.8000;0.8604;3.3539;
287.1000;0.8563;3.3467;
287.4000;0.8628;3.3611;
287.7000;0.8596;3.3539;
288.0000;0.8588;3.3491;
288.3000;0.8604;3.3587;
288.6000;0.8580;3.3563;
288.9000;0.8571;3.3563;
289.2000;0.8596;3.3491;
289.5000;0.8563;3.3347;
289.8000;0.8588;3.3395;
290.1000;0.8571;3.3395;
290.4000;0.8571;3.3443;
290.7000;0.8588;3.3443;
291.0000;0.8571;3.3467;
291.3000;0.8571;3.3347;
291.6000;0.8571;3.3347;
291.9000;0.8596;3.3371;
292.2000;0.8563;3.3323;
292.5000;0.8620;3.3395;
292.8000;0.8571;3.3323;
293.1000;0.8571;3.3323;
293.4000;0.8555;3.3419;
293.7000;0.8580;3.3443;
294.0000;0.8604;3.3467;
294.3000;0.8580;3.3371;
294.6000;0.8596;3.3419;
294.9000;0.8580;3.3395;
295.2000;0.8596;3.3419;
295.5000;0.8588;3.3419;
295.8000;0.8588;3.3467;
296.1000;0.8604;3.3467;
296.4000;0.8580;3.3467;
296.7000;0.8620;3.3611;
297.0000;0.8588;3.3539;
297.3000;0.8588;3.3467;
297.6000;0.8694;3.3731;
297.9000;0.8588;3.3419;
298.2000;0.8685;3.3683;
298.5000;0.8596;3.3467;
298.8000;0.8596;3.3467;
299.1000;0.8588;3.3467;
299.4000;0.8588;3.3371;
299.7000;0.8612;3.3371;
300.0000;0.8637;3.3299;
300.3000;0.8547;3.3059;
300.6000;0.8588;3.3059;
300.9000;0.8588;3.3059;
301.2000;0.8604;3.3083;
301.5000;0.8612;3.2987;
301.8000;0.8588;3.3059;
302.1000;0.8596;3.3035;
302.4000;0.8604;3.3107;
302.7000;0.8588;3.3083;
303.0000;0.8563;3.2963;
303.3000;0.8580;3.3059;
303.6000;0.8604;3.3179;
303.9000;0.8588;3.3227;
304.2000;0.8604;3.3347;
304.5000;0.8580;3.3443;
304.8000;0.8555;3.3467;
305.1000;0.8588;3.3419;
305.4000;0.8596;3.3443;
305.7000;0.8571;3.3443;
306.0000;0.8588;3.3467;
306.3000;0.8580;3.3491;
306.6000;0.8571;3.3443;
306.9000;0.8588;3.3395;
307.2000;0.8588;3.3347;
307.5000;0.8620;3.3443;
307.8000;0.8604;3.3467;
308.1000;0.8596;3.3467;
308.4000;0.8580;3.3347;
308.7000;0.8588;3.3371;
309.0000;0.8547;3.3323;
309.3000;0.8596;3.3347;
309.6000;0.8580;3.3299;
309.9000;0.8620;3.3395;
310.2000;0.8571;3.3275;
310.5000;0.8563;3.3323;
310.8000;0.8531;3.3275;
311.1000;0.8596;3.3371;
311.4000;0.8555;3.3227;
311.7000;0.8588;3.3371;
312.0000;0.8571;3.3371;
312.3000;0.8588;3.3443;
312.6000;0.8604;3.3515;
312.9000;0.8612;3.3563;
313.2000;0.8571;3.3419;
313.5000;0.8588;3.3467;
313.8000;0.8555;3.3395;
314.1000;0.8580;3.3443;
314.4000;0.8523;3.3275;
314.7000;0.8588;3.3371;
315.0000;0.8588;3.3371;
315.3000;0.8596;3.3467;
315.6000;0.8588;3.3419;
315.9000;0.8571;3.3419;
316.2000;0.8596;3.3491;
316.5000;0.8596;3.3467;
316.8000;0.8604;3.3491;
317.1000;0.8571;3.3419;
317.4000;0.8596;3.3491;
317.7000;0.8588;3.3611;
318.0000;0.8588;3.3563;
318.3000;0.8588;3.3635;
318.6000;0.8580;3.3683;
318.9000;0.8596;3.3539;
319.2000;0.8612;3.3515;
319.5000;0.8580;3.3395;
319.8000;0.8588;3.3395;
320.1000;0.8571;3.3395;
320.4000;0.8547;3.3347;
320.7000;0.8580;3.3419;
321.0000;0.8645;3.3659;
321.3000;0.8588;3.3491;
321.6000;0.8596;3.3587;
321.9000;0.8588;3.3635;
322.2000;0.8628;3.3683;
322.5000;0.8604;3.3587;
322.8000;0.8588;3.3587;
323.1000;0.8588;3.3563;
323.4000;0.8555;3.3491;
323.7000;0.8580;3.3419;
324.0000;0.8604;3.3371;
324.3000;0.8604;3.3419;
324.6000;0.8571;3.3323;
324.9000;0.8588;3.3323;
325.2000;0.8596;3.3371;
325.5000;0.8588;3.3299;
325.8000;0.8580;3.3299;
326.1000;0.8539;3.3203;
326.4000;0.8588;3.3323;
326.7000;0.8588;3.3227;
327.0000;0.8580;3.3323;
327.3000;0.8677;3.3539;
327.6000;0.8661;3.3539;
327.9000;0.8580;3.3275;
328.2000;0.8523;3.3203;
328.5000;0.8580;3.3347;
328.8000;0.8604;3.3395;
329.1000;0.8604;3.3347;
329.4000;0.8596;3.3371;
329.7000;0.8596;3.3443;
330.0000;0.8571;3.3395;
330.3000;0.8563;3.3323;
330.6000;0.8612;3.3419;
330.9000;0.8588;3.3467;
331.2000;0.8563;3.3395;
331.5000;0.8604;3.3419;
331.8000;0.8637;3.3611;
332.1000;0.8588;3.3491;
332.4000;0.8588;3.3539;
332.7000;0.8571;3.3515;
333.0000;0.8580;3.3515;
333.3000;0.8580;3.3419;
333.6000;0.8563;3.3371;
333.9000;0.8612;3.3443;
334.2000;0.8637;3.3563;
334.5000;0.8588;3.3419;
334.8000;0.8628;3.3491;
335.1000;0.8588;3.3467;
335.4000;0.8620;3.3611;
335.7000;0.8596;3.3539;
336.0000;0.8580;3.3443;
336.3000;0.8588;3.3371;
336.6000;0.8604;3.3467;
336.9000;0.8531;3.3323;
337.2000;0.8563;3.3419;
337.5000;0.8588;3.3539;
337.8000;0.8563;3.3491;
338.1000;0.8580;3.3539;
338.4000;0.8588;3.3467;
338.7000;0.8571;3.3347;
339.0000;0.8571;3.3299;
339.3000;0.8596;3.3299;
339.6000;0.8588;3.3251;
339.9000;0.8588;3.3275;
340.2000;0.8580;3.3275;
340.5000;0.8612;3.3371;
340.8000;0.8596;3.3371;
341.1000;0.8580;3.3395;
341.4000;0.8588;3.3299;
341.7000;0.8596;3.3251;
342.0000;0.8588;3.3227;
342.3000;0.8588;3.3179;
342.6000;0.8588;3.3227;
342.9000;0.8563;3.3155;
343.2000;0.8563;3.3227;
343.5000;0.8580;3.3275;
343.8000;0.8580;3.3275;
344.1000;0.8588;3.3251;
344.4000;0.8596;3.3299;
344.7000;0.8596;3.3347;
345.0000;0.8596;3.3467;
345.3000;0.8612;3.3515;
345.6000;0.8580;3.3467;
345.9000;0.8612;3.3539;
346.2000;0.8580;3.3443;
346.5000;0.8588;3.3371;
346.8000;0.8604;3.3347;
347.1000;0.8596;3.3419;
347.4000;0.8588;3.3491;
347.7000;0.8571;3.3443;
348.0000;0.8596;3.3491;
348.3000;0.8563;3.3443;
348.6000;0.8588;3.3467;
348.9000;0.8604;3.3539;
349.2000;0.8612;3.3587;
349.5000;0.8596;3.3683;
349.8000;0.8555;3.3635;
350.1000;0.8580;3.3731;
350.4000;0.8588;3.3659;
350.7000;0.8645;3.3755;
351.0000;0.8571;3.3635;
351.3000;0.8506;3.3419;
351.6000;0.8563;3.3539;
351.9000;0.8571;3.3515;
352.2000;0.8677;3.3707;
352.5000;0.8588;3.3539;
352.8000;0.8588;3.3539;
353.1000;0.8563;3.3419;
353.4000;0.8596;3.3419;
353.7000;0.8596;3.3395;
354.0000;0.8580;3.3419;
354.3000;0.8645;3.3611;
354.6000;0.8596;3.3491;
354.9000;0.8596;3.3443;
355.2000;0.8571;3.3515;
355.5000;0.8596;3.3539;
355.8000;0.8604;3.3515;
356.1000;0.8596;3.3539;
356.4000;0.8571;3.3515;
356.7000;0.8580;3.3611;
357.0000;0.8588;3.3731;
357.3000;0.8588;3.3611;
357.6000;0.8588;3.3587;
357.9000;0.8588;3.3587;
358.2000;0.8612;3.3539;
358.5000;0.8596;3.3515;
358.8000;0.8596;3.3491;
359.1000;0.8604;3.3587;
359.4000;0.8523;3.3419;
359.7000;0.8612;3.3635;
360.0000;0.8596;3.3611;
360.3000;0.8588;3.3539;
360.6000;0.8596;3.3563;
360.9000;0.8596;3.3659;
361.2000;0.8571;3.3563;
361.5000;0.8588;3.3611;
361.8000;0.8588;3.3611;
362.1000;0.8604;3.3659;
362.4000;0.8580;3.3635;
362.7000;0.8571;3.3587;
363.0000;0.8596;3.3635;
363.3000;0.8604;3.3587;
363.6000;0.8563;3.3587;
363.9000;0.8563;3.3491;
364.2000;0.8588;3.3563;
364.5000;0.8604;3.3563;
364.8000;0.8628;3.3587;
365.1000;0.8580;3.3395;
365.4000;0.8596;3.3443;
365.7000;0.8604;3.3371;
366.0000;0.8588;3.3299;
366.3000;0.8596;3.3275;
366.6000;0.8580;3.3323;
366.9000;0.8588;3.3299;
367.2000;0.8604;3.3323;
367.5000;0.8628;3.3299;
367.8000;0.8571;3.3203;
368.1000;0.8580;3.3251;
368.4000;0.8588;3.3347;
368.7000;0.8588;3.3299;
369.0000;0.8596;3.3395;
369.3000;0.8596;3.3395;
369.6000;0.8612;3.3491;
369.9000;0.8604;3.3467;
370.2000;0.8580;3.3347;
370.5000;0.8612;3.3395;
370.8000;0.8604;3.3371;
371.1000;0.8539;3.3203;
371.4000;0.8596;3.3347;
371.7000;0.8604;3.3371;
372.0000;0.8604;3.3323;
372.3000;0.8612;3.3299;
372.6000;0.8669;3.3443;
372.9000;0.8588;3.3251;
373.2000;0.8628;3.3419;
373.5000;0.8596;3.3371;
373.8000;0.8596;3.3395;
374.1000;0.8588;3.3371;
374.4000;0.8588;3.3395;
374.7000;0.8612;3.3515;
375.0000;0.8604;3.3539;
375.3000;0.8588;3.3467;
375.6000;0.8588;3.3395;
375.9000;0.8588;3.3419;
376.2000;0.8677;3.3659;
376.5000;0.8580;3.3443;
376.8000;0.8596;3.3467;
377.1000;0.8531;3.3347;
377.4000;0.8588;3.3467;
377.7000;0.8588;3.3491;
378.0000;0.8571;3.3467;
378.3000;0.8580;3.3443;
378.6000;0.8571;3.3371;
378.9000;0.8604;3.3443;
379.2000;0.8596;3.3443;
379.5000;0.8588;3.3347;
379.8000;0.8604;3.3443;
380.1000;0.8604;3.3467;
380.4000;0.8596;3.3515;
380.7000;0.8596;3.3515;
381.0000;0.8596;3.3443;
381.3000;0.8596;3.3467;
381.6000;0.8604;3.3491;
381.9000;0.8580;3.3467;
382.2000;0.8596;3.3515;
382.5000;0.8580;3.3515;
382.8000;0.8580;3.3611;
383.1000;0.8563;3.3611;
383.4000;0.8588;3.3707;
383.7000;0.8588;3.3731;
384.0000;0.8604;3.3803;
384.3000;0.8588;3.3683;
384.6000;0.8571;3.3515;
384.9000;0.8571;3.3467;
385.2000;0.8580;3.3515;
385.5000;0.8588;3.3539;
385.8000;0.8571;3.3563;
386.1000;0.8547;3.3515;
386.4000;0.8596;3.3635;
386.7000;0.8571;3.3659;
387.0000;0.8604;3.3707;
387.3000;0.8588;3.3683;
387.6000;0.8588;3.3755;
387.9000;0.8588;3.3755;
388.2000;0.8563;3.3683;
388.5000;0.8580;3.3707;
388.8000;0.8580;3.3707;
389.1000;0.8571;3.3635;
389.4000;0.8580;3.3755;
389.7000;0.8555;3.3707;
390.0000;0.8514;3.3491;
390.3000;0.8596;3.3659;
390.6000;0.8580;3.3587;
390.9000;0.8620;3.3611;
391.2000;0.8596;3.3539;
391.5000;0.8580;3.3443;
391.8000;0.8596;3.3443;
392.1000;0.8612;3.3491;
392.4000;0.8588;3.3467;
392.7000;0.8596;3.3467;
393.0000;0.8588;3.3395;
393.3000;0.8580;3.3443;
393.6000;0.8588;3.3443;
393.9000;0.8596;3.3419;
394.2000;0.8596;3.3491;
394.5000;0.8571;3.3539;
394.8000;0.8596;3.3587;
395.1000;0.8490;3.3395;
395.4000;0.8604;3.3611;
395.7000;0.8580;3.3563;
396.0000;0.8555;3.3419;
396.3000;0.8588;3.3491;
396.6000;0.8580;3.3515;
396.9000;0.8555;3.3491;
397.2000;0.8563;3.3587;
397.5000;0.8588;3.3659;
397.8000;0.8588;3.3659;
398.1000;0.8563;3.3587;
398.4000;0.8580;3.3467;
398.7000;0.8596;3.3443;
399.0000;0.8604;3.3419;
399.3000;0.8588;3.3395;
399.6000;0.8596;3.3491;
399.9000;0.8588;3.3491;
400.2000;0.8580;3.3419;
400.5000;0.8596;3.3515;
400.8000;0.8580;3.3539;
401.1000;0.8588;3.3491;
401.4000;0.8580;3.3491;
401.7000;0.8588;3.3443;
402.0000;0.8555;3.3275;
402.3000;0.8588;3.3347;
402.6000;0.8588;3.3323;
402.9000;0.8580;3.3371;
403.2000;0.8588;3.3371;
403.5000;0.8596;3.3419;
403.8000;0.8588;3.3419;
404.1000;0.8563;3.3395;
404.4000;0.8604;3.3347;
404.7000;0.8604;3.3467;
405.0000;0.8661;3.3611;
405.3000;0.8588;3.3491;
405.6000;0.8588;3.3467;
405.9000;0.8580;3.3539;
406.2000;0.8571;3.3467;
406.5000;0.8580;3.3515;
406.8000;0.8571;3.3395;
407.1000;0.8580;3.3419;
407.4000;0.8580;3.3491;
407.7000;0.8580;3.3563;
408.0000;0.8563;3.3563;
408.3000;0.8580;3.3563;
408.6000;0.8580;3.3467;
408.9000;0.8571;3.3515;
409.2000;0.8596;3.3515;
409.5000;0.8612;3.3467;
409.8000;0.8555;3.3347;
410.1000;0.8580;3.3395;
410.4000;0.8580;3.3491;
410.7000;0.8596;3.3563;
411.0000;0.8596;3.3587;
411.3000;0.8669;3.3731;
411.6000;0.8596;3.3515;
411.9000;0.8588;3.3443;
412.2000;0.8604;3.3419;
412.5000;0.8588;3.3419;
412.8000;0.8588;3.3467;
413.1000;0.8604;3.3491;
413.4000;0.8596;3.3491;
413.7000;0.8580;3.3443;
414.0000;0.8580;3.3467;
414.3000;0.8588;3.3587;
414.6000;0.8580;3.3539;
414.9000;0.8588;3.3563;
415.2000;0.8555;3.3467;
415.5000;0.8580;3.3539;
415.8000;0.8588;3.3515;
416.1000;0.8588;3.3539;
416.4000;0.8596;3.3539;
416.7000;0.8612;3.3539;
417.0000;0.8604;3.3611;
417.3000;0.8588;3.3659;
417.6000;0.8580;3.3635;
417.9000;0.8612;3.3683;
418.2000;0.8580;3.3587;
418.5000;0.8588;3.3491;
418.8000;0.8645;3.3491;
419.1000;0.8596;3.3443;
419.4000;0.8596;3.3323;
419.7000;0.8596;3.3323;
420.0000;0.8580;3.3299;
420.3000;0.8645;3.3539;
420.6000;0.8588;3.3323;
420.9000;0.8531;3.3275;
421.2000;0.8563;3.3443;
421.5000;0.8571;3.3491;
421.8000;0.8563;3.3443;
422.1000;0.8539;3.3323;
422.4000;0.8571;3.3395;
422.7000;0.8531;3.3251;
423.0000;0.8588;3.3419;
423.3000;0.8596;3.3395;
423.6000;0.8588;3.3395;
423.9000;0.8580;3.3323;
424.2000;0.8596;3.3347;
424.5000;0.8596;3.3323;
424.8000;0.8506;3.3083;
425.1000;0.8588;3.3395;
425.4000;0.8588;3.3395;
425.7000;0.8596;3.3395;
426.0000;0.8539;3.3347;
426.3000;0.8571;3.3443;
426.6000;0.8555;3.3371;
426.9000;0.8604;3.3395;
427.2000;0.8620;3.3467;
427.5000;0.8571;3.3371;
427.8000;0.8588;3.3443;
428.1000;0.8588;3.3419;
428.4000;0.8571;3.3395;
428.7000;0.8588;3.3467;
429.0000;0.8588;3.3539;
429.3000;0.8596;3.3587;
429.6000;0.8547;3.3491;
429.9000;0.8580;3.3587;
430.2000;0.8588;3.3587;
430.5000;0.8588;3.3539;
430.8000;0.8596;3.3587;
431.1000;0.8580;3.3539;
431.4000;0.8637;3.3779;
431.7000;0.8571;3.3611;
432.0000;0.8596;3.3659;
432.3000;0.8588;3.3491;
432.6000;0.8596;3.3443;
432.9000;0.8588;3.3467;
433.2000;0.8571;3.3395;
433.5000;0.8596;3.3467;
433.8000;0.8563;3.3467;
434.1000;0.8580;3.3419;
434.4000;0.8588;3.3467;
434.7000;0.8580;3.3443;
435.0000;0.8604;3.3467;
435.3000;0.8596;3.3443;
435.6000;0.8596;3.3299;
435.9000;0.8588;3.3275;
436.2000;0.8588;3.3299;
436.5000;0.8588;3.3299;
436.8000;0.8604;3.3203;
437.1000;0.8563;3.3107;
437.4000;0.8588;3.3227;
437.7000;0.8580;3.3179;
438.0000;0.8604;3.3131;
438.3000;0.8588;3.3059;
438.6000;0.8604;3.2987;
438.9000;0.8628;3.3059;
439.2000;0.8563;3.3011;
439.5000;0.8580;3.3107;
439.8000;0.8588;3.3179;
440.1000;0.8596;3.3155;
440.4000;0.8588;3.3179;
440.7000;0.8580;3.3179;
441.0000;0.8596;3.3203;
441.3000;0.8588;3.3251;
441.6000;0.8620;3.3275;
441.9000;0.8620;3.3323;
442.2000;0.8588;3.3275;
442.5000;0.8596;3.3203;
442.8000;0.8514;3.3011;
443.1000;0.8653;3.3323;
443.4000;0.8571;3.3083;
443.7000;0.8628;3.3203;
444.0000;0.8563;3.3059;
444.3000;0.8620;3.3179;
444.6000;0.8498;3.2939;
444.9000;0.8596;3.3131;
445.2000;0.8645;3.3371;
445.5000;0.8580;3.3203;
445.8000;0.8637;3.3395;
446.1000;0.8571;3.3371;
446.4000;0.8588;3.3371;
446.7000;0.8612;3.3371;
447.0000;0.8596;3.3323;
447.3000;0.8604;3.3323;
447.6000;0.8604;3.3323;
447.9000;0.8588;3.3323;
448.2000;0.8580;3.3227;
448.5000;0.8580;3.3083;
448.8000;0.8563;3.3083;
449.1000;0.8580;3.3059;
449.4000;0.8571;3.3131;
449.7000;0.8580;3.3155;
450.0000;0.8580;3.3179;
450.3000;0.8588;3.3203;
450.6000;0.8539;3.3131;
450.9000;0.8580;3.3323;
451.2000;0.8588;3.3371;
451.5000;0.8588;3.3347;
451.8000;0.8580;3.3275;
452.1000;0.8588;3.3251;
452.4000;0.8596;3.3275;
452.7000;0.8588;3.3203;
453.0000;0.8580;3.3083;
453.3000;0.8580;3.3131;
453.6000;0.8563;3.3107;
453.9000;0.8604;3.3203;
454.2000;0.8580;3.3179;
454.5000;0.8653;3.3443;
454.8000;0.8571;3.3275;
455.1000;0.8571;3.3299;
455.4000;0.8588;3.3371;
455.7000;0.8580;3.3299;
456.0000;0.8571;3.3299;
456.3000;0.8588;3.3491;
456.6000;0.8588;3.3467;
456.9000;0.8580;3.3395;
457.2000;0.8588;3.3491;
457.5000;0.8669;3.3659;
457.8000;0.8588;3.3539;
458.1000;0.8563;3.3491;
458.4000;0.8580;3.3539;
458.7000;0.8580;3.3563;
459.0000;0.8571;3.3395;
459.3000;0.8555;3.3371;
459.6000;0.8580;3.3347;
459.9000;0.8588;3.3395;
460.2000;0.8661;3.3491;
460.5000;0.8580;3.3275;
460.8000;0.8604;3.3299;
461.1000;0.8588;3.3227;
461.4000;0.8596;3.3275;
461.7000;0.8588;3.3347;
462.0000;0.8571;3.3275;
462.3000;0.8580;3.3203;
462.6000;0.8588;3.3203;
462.9000;0.8580;3.3203;
463.2000;0.8571;3.3107;
463.5000;0.8653;3.3323;
463.8000;0.8571;3.3035;
464.1000;0.8555;3.3083;
464.4000;0.8571;3.3059;
464.7000;0.8547;3.3011;
465.0000;0.8580;3.3107;
465.3000;0.8563;3.3107;
465.6000;0.8580;3.3227;
465.9000;0.8563;3.3155;
466.2000;0.8596;3.3227;
466.5000;0.8563;3.3107;
466.8000;0.8596;3.3155;
467.1000;0.8580;3.3251;
467.4000;0.8588;3.3299;
467.7000;0.8596;3.3371;
468.0000;0.8580;3.3323;
468.3000;0.8580;3.3251;
468.6000;0.8628;3.3443;
468.9000;0.8612;3.3491;
469.2000;0.8580;3.3491;
469.5000;0.8588;3.3467;
469.8000;0.8563;3.3395;
470.1000;0.8596;3.3371;
470.4000;0.8588;3.3395;
470.7000;0.8604;3.3443;
471.0000;0.8580;3.3347;
471.3000;0.8588;3.3299;
471.6000;0.8596;3.3203;
471.9000;0.8506;3.3011;
472.2000;0.8571;3.3251;
472.5000;0.8588;3.3395;
472.8000;0.8604;3.3347;
473.1000;0.8588;3.3299;
473.4000;0.8571;3.3299;
473.7000;0.8571;3.3347;
474.0000;0.8596;3.3323;
474.3000;0.8588;3.3251;
474.6000;0.8580;3.3155;
474.9000;0.8580;3.3131;
475.2000;0.8571;3.3179;
475.5000;0.8539;3.3155;
475.8000;0.8580;3.3275;
476.1000;0.8531;3.3107;
476.4000;0.8604;3.3227;
476.7000;0.8596;3.3275;
477.0000;0.8588;3.3299;
477.3000;0.8588;3.3275;
477.6000;0.8580;3.3203;
477.9000;0.8523;3.3011;
478.2000;0.8588;3.3203;
478.5000;0.8588;3.3155;
478.8000;0.8580;3.3203;
479.1000;0.8604;3.3299;
479.4000;0.8580;3.3323;
479.7000;0.8571;3.3371;
480.0000;0.8580;3.3299;
480.3000;0.8604;3.3443;
480.6000;0.8580;3.3395;
480.9000;0.8604;3.3467;
481.2000;0.8563;3.3347;
481.5000;0.8588;3.3347;
481.8000;0.8588;3.3395;
482.1000;0.8571;3.3395;
482.4000;0.8547;3.3299;
482.7000;0.8596;3.3443;
483.0000;0.8580;3.3491;
483.3000;0.8580;3.3443;
483.6000;0.8612;3.3635;
483.9000;0.8571;3.3491;
484.2000;0.8620;3.3587;
484.5000;0.8612;3.3539;
484.8000;0.8571;3.3491;
485.1000;0.8563;3.3419;
485.4000;0.8596;3.3491;
485.7000;0.8596;3.3563;
486.0000;0.8588;3.3539;
486.3000;0.8596;3.3443;
486.6000;0.8628;3.3419;
486.9000;0.8596;3.3323;
487.2000;0.8604;3.3275;
487.5000;0.8588;3.3203;
487.8000;0.8588;3.3179;
488.1000;0.8571;3.3155;
488.4000;0.8571;3.3131;
488.7000;0.8523;3.3011;
489.0000;0.8580;3.3227;
489.3000;0.8588;3.3275;
489.6000;0.8563;3.3203;
489.9000;0.8571;3.3323;
490.2000;0.8596;3.3395;
490.5000;0.8612;3.3443;
490.8000;0.8571;3.3395;
491.1000;0.8555;3.3275;
491.4000;0.8563;3.3251;
491.7000;0.8563;3.3155;
492.0000;0.8571;3.3179;
492.3000;0.8596;3.3203;
492.6000;0.8571;3.3203;
492.9000;0.8547;3.3227;
493.2000;0.8555;3.3275;
493.5000;0.8547;3.3179;
493.8000;0.8571;3.3131;
494.1000;0.8580;3.3203;
494.4000;0.8563;3.3251;
494.7000;0.8555;3.3251;
495.0000;0.8571;3.3299;
495.3000;0.8563;3.3275;
495.6000;0.8571;3.3203;
495.9000;0.8612;3.3275;
496.2000;0.8563;3.3179;
496.5000;0.8580;3.3131;
496.8000;0.8523;3.2939;
497.1000;0.8604;3.3059;
497.4000;0.8571;3.2939;
497.7000;0.8563;3.2891;
498.0000;0.8596;3.3011;
498.3000;0.8596;3.3107;
498.6000;0.8571;3.3011;
498.9000;0.8612;3.3155;
499.2000;0.8580;3.3059;
499.5000;0.8563;3.3083;
499.8000;0.8588;3.3083;
500.1000;0.8604;3.3155;
500.4000;0.8571;3.3083;
500.7000;0.8596;3.3203;
501.0000;0.8588;3.3155;
501.3000;0.8580;3.3131;
501.6000;0.8580;3.3251;
501.9000;0.8588;3.3323;
502.2000;0.8612;3.3323;
502.5000;0.8580;3.3323;
502.8000;0.8596;3.3395;
503.1000;0.8596;3.3395;
503.4000;0.8580;3.3251;
503.7000;0.8571;3.3203;
504.0000;0.8555;3.3179;
504.3000;0.8563;3.3347;
504.6000;0.8571;3.3347;
504.9000;0.8637;3.3395;
505.2000;0.8604;3.3371;
505.5000;0.8596;3.3371;
505.8000;0.8571;3.3227;
506.1000;0.8604;3.3347;
506.4000;0.8571;3.3299;
506.7000;0.8588;3.3299;
507.0000;0.8637;3.3251;
507.3000;0.8523;3.2963;
507.6000;0.8563;3.3083;
507.9000;0.8571;3.3059;
508.2000;0.8588;3.3083;
508.5000;0.8580;3.3251;
508.8000;0.8555;3.3275;
509.1000;0.8547;3.3251;
509.4000;0.8596;3.3275;
509.7000;0.8588;3.3299;
510.0000;0.8604;3.3299;
510.3000;0.8580;3.3251;
510.6000;0.8580;3.3275;
510.9000;0.8563;3.3227;
511.2000;0.8580;3.3299;
511.5000;0.8596;3.3299;
511.8000;0.8580;3.3275;
512.1000;0.8555;3.3203;
512.4000;0.8580;3.3155;
512.7000;0.8563;3.3131;
513.0000;0.8531;3.3011;
513.3000;0.8571;3.3107;
513.6000;0.8645;3.3227;
513.9000;0.8571;3.3011;
514.2000;0.8653;3.3179;
514.5000;0.8571;3.3107;
514.8000;0.8571;3.3251;
515.1000;0.8555;3.3347;
515.4000;0.8563;3.3371;
515.7000;0.8571;3.3395;
516.0000;0.8612;3.3395;
516.3000;0.8588;3.3299;
516.6000;0.8588;3.3251;
516.9000;0.8571;3.3203;
517.2000;0.8571;3.3275;
517.5000;0.8596;3.3371;
517.8000;0.8571;3.3371;
518.1000;0.8596;3.3323;
518.4000;0.8580;3.3323;
518.7000;0.8571;3.3323;
519.0000;0.8580;3.3347;
519.3000;0.8563;3.3395;
519.6000;0.8588;3.3443;
519.9000;0.8604;3.3515;
520.2000;0.8563;3.3443;
520.5000;0.8596;3.3467;
520.8000;0.8604;3.3347;
521.1000;0.8580;3.3371;
521.4000;0.8588;3.3443;
521.7000;0.8596;3.3443;
522.0000;0.8588;3.3443;
522.3000;0.8588;3.3491;
522.6000;0.8604;3.3587;
522.9000;0.8563;3.3419;
523.2000;0.8580;3.3467;
523.5000;0.8580;3.3443;
523.8000;0.8588;3.3419;
524.1000;0.8580;3.3491;
524.4000;0.8588;3.3515;
524.7000;0.8596;3.3563;
525.0000;0.8628;3.3635;
525.3000;0.8588;3.3563;
525.6000;0.8596;3.3611;
525.9000;0.8612;3.3611;
526.2000;0.8612;3.3491;
526.5000;0.8588;3.3467;
526.8000;0.8596;3.3395;
527.1000;0.8580;3.3371;
527.4000;0.8588;3.3419;
527.7000;0.8580;3.3419;
528.0000;0.8580;3.3443;
528.3000;0.8596;3.3419;
528.6000;0.8580;3.3443;
528.9000;0.8571;3.3443;
529.2000;0.8580;3.3395;
529.5000;0.8604;3.3491;
529.8000;0.8563;3.3419;
530.1000;0.8571;3.3395;
530.4000;0.8547;3.3299;
530.7000;0.8563;3.3323;
531.0000;0.8653;3.3563;
531.3000;0.8571;3.3395;
531.6000;0.8571;3.3467;
531.9000;0.8596;3.3539;
532.2000;0.8588;3.3515;
532.5000;0.8596;3.3563;
532.8000;0.8604;3.3443;
533.1000;0.8571;3.3299;
533.4000;0.8580;3.3371;
533.7000;0.8539;3.3275;
534.0000;0.8571;3.3347;
534.3000;0.8571;3.3275;
534.6000;0.8547;3.3275;
534.9000;0.8588;3.3323;
535.2000;0.8596;3.3395;
535.5000;0.8596;3.3491;
535.8000;0.8563;3.3371;
536.1000;0.8498;3.3155;
536.4000;0.8580;3.3323;
536.7000;0.8588;3.3299;
537.0000;0.8580;3.3275;
537.3000;0.8588;3.3323;
537.6000;0.8596;3.3419;
537.9000;0.8571;3.3323;
538.2000;0.8596;3.3251;
538.5000;0.8588;3.3155;
538.8000;0.8596;3.3131;
539.1000;0.8628;3.3203;
539.4000;0.8580;3.3131;
539.7000;0.8580;3.3203;
540.0000;0.8580;3.3251;
540.3000;0.8588;3.3275;
540.6000;0.8588;3.3203;
540.9000;0.8571;3.3155;
541.2000;0.8596;3.3131;
541.5000;0.8580;3.3155;
541.8000;0.8612;3.3275;
542.1000;0.8563;3.3275;
542.4000;0.8580;3.3395;
542.7000;0.8571;3.3323;
543.0000;0.8580;3.3371;
543.3000;0.8547;3.3251;
543.6000;0.8571;3.3275;
543.9000;0.8539;3.3203;
544.2000;0.8571;3.3371;
544.5000;0.8563;3.3347;
544.8000;0.8580;3.3323;
545.1000;0.8563;3.3251;
545.4000;0.8588;3.3275;
545.7000;0.8588;3.3299;
546.0000;0.8563;3.3251;
546.3000;0.8628;3.3443;
546.6000;0.8588;3.3371;
546.9000;0.8571;3.3299;
547.2000;0.8604;3.3371;
547.5000;0.8555;3.3299;
547.8000;0.8588;3.3371;
548.1000;0.8571;3.3299;
548.4000;0.8637;3.3491;
548.7000;0.8588;3.3323;
549.0000;0.8555;3.3203;
549.3000;0.8588;3.3179;
549.6000;0.8555;3.3155;
549.9000;0.8580;3.3203;
550.2000;0.8596;3.3203;
550.5000;0.8596;3.3251;
550.8000;0.8580;3.3251;
551.1000;0.8571;3.3299;
551.4000;0.8563;3.3347;
551.7000;0.8580;3.3395;
552.0000;0.8555;3.3443;
552.3000;0.8563;3.3395;
552.6000;0.8563;3.3323;
552.9000;0.8555;3.3299;
553.2000;0.8547;3.3251;
553.5000;0.8547;3.3299;
553.8000;0.8580;3.3395;
554.1000;0.8563;3.3419;
554.4000;0.8580;3.3395;
554.7000;0.8563;3.3347;
555.0000;0.8466;3.3059;
555.3000;0.8580;3.3203;
555.6000;0.8588;3.3203;
555.9000;0.8531;3.3083;
556.2000;0.8563;3.3299;
556.5000;0.8637;3.3467;
556.8000;0.8588;3.3251;
557.1000;0.8571;3.3155;
557.4000;0.8596;3.3179;
557.7000;0.8637;3.3275;
558.0000;0.8588;3.3083;
558.3000;0.8588;3.3107;
558.6000;0.8580;3.3011;
558.9000;0.8571;3.2987;
559.2000;0.8563;3.2987;
559.5000;0.8588;3.3083;
559.8000;0.8580;3.3011;
560.1000;0.8555;3.2987;
560.4000;0.8571;3.2987;
560.7000;0.8531;3.2891;
561.0000;0.8571;3.3011;
561.3000;0.8539;3.2939;
561.6000;0.8555;3.2939;
561.9000;0.8571;3.2915;
562.2000;0.8588;3.2939;
562.5000;0.8571;3.2939;
562.8000;0.8571;3.3083;
563.1000;0.8563;3.3131;
563.4000;0.8580;3.3083;
563.7000;0.8563;3.3011;
564.0000;0.8571;3.3083;
564.3000;0.8563;3.3035;
564.6000;0.8555;3.3011;
564.9000;0.8563;3.2963;
565.2000;0.8555;3.3035;
565.5000;0.8612;3.3251;
565.8000;0.8580;3.3227;
566.1000;0.8563;3.3155;
566.4000;0.8563;3.3107;
566.7000;0.8588;3.3155;
567.0000;0.8604;3.3203;
567.3000;0.8596;3.3155;
567.6000;0.8571;3.3107;
567.9000;0.8563;3.3035;
568.2000;0.8588;3.3155;
568.5000;0.8563;3.3059;
568.8000;0.8580;3.3107;
569.1000;0.8539;3.3131;
569.4000;0.8596;3.3179;
569.7000;0.8588;3.3155;
570.0000;0.8571;3.3227;
570.3000;0.8588;3.3347;
570.6000;0.8580;3.3323;
570.9000;0.8580;3.3227;
571.2000;0.8563;3.3155;
571.5000;0.8580;3.3203;
571.8000;0.8563;3.3203;
572.1000;0.8555;3.3203;
572.4000;0.8539;3.3155;
572.7000;0.8563;3.3227;
573.0000;0.8571;3.3227;
573.3000;0.8588;3.3299;
573.6000;0.8555;3.3299;
573.9000;0.8531;3.3203;
574.2000;0.8580;3.3275;
574.5000;0.8563;3.3251;
574.8000;0.8555;3.3275;
575.1000;0.8555;3.3323;
575.4000;0.8563;3.3395;
575.7000;0.8580;3.3443;
576.0000;0.8571;3.3323;
576.3000;0.8555;3.3299;
576.6000;0.8555;3.3251;
576.9000;0.8531;3.3107;
577.2000;0.8571;3.3107;
577.5000;0.8571;3.3131;
577.8000;0.8555;3.3179;
578.1000;0.8612;3.3395;
578.4000;0.8588;3.3371;
578.7000;0.8555;3.3347;
579.0000;0.8563;3.3395;
579.3000;0.8580;3.3347;
579.6000;0.8580;3.3275;
579.9000;0.8571;3.3227;
580.2000;0.8563;3.3203;
580.5000;0.8555;3.3155;
580.8000;0.8580;3.3251;
581.1000;0.8571;3.3251;
581.4000;0.8580;3.3179;
581.7000;0.8588;3.3227;
582.0000;0.8637;3.3347;
582.3000;0.8580;3.3179;
582.6000;0.8555;3.3179;
582.9000;0.8580;3.3251;
583.2000;0.8563;3.3251;
583.5000;0.8588;3.3347;
583.8000;0.8612;3.3275;
584.1000;0.8531;3.3131;
584.4000;0.8580;3.3155;
584.7000;0.8588;3.3155;
585.0000;0.8580;3.3107;
585.3000;0.8555;3.3131;
585.6000;0.8580;3.3107;
585.9000;0.8580;3.3203;
586.2000;0.8563;3.3227;
586.5000;0.8547;3.3323;
586.8000;0.8571;3.3347;
587.1000;0.8563;3.3275;
587.4000;0.8580;3.3227;
587.7000;0.8580;3.3203;
588.0000;0.8580;3.3131;
588.3000;0.8580;3.3035;
588.6000;0.8555;3.2987;
588.9000;0.8555;3.3059;
589.2000;0.8547;3.2987;
589.5000;0.8555;3.3059;
589.8000;0.8563;3.3083;
590.1000;0.8563;3.3011;
590.4000;0.8555;3.2987;
590.7000;0.8555;3.3011;
591.0000;0.8588;3.3059;
591.3000;0.8580;3.3083;
591.6000;0.8571;3.3131;
591.9000;0.8563;3.3203;
592.2000;0.8571;3.3155;
592.5000;0.8588;3.3131;
592.8000;0.8563;3.3131;
593.1000;0.8580;3.3155;
593.4000;0.8563;3.3203;
593.7000;0.8588;3.3131;
594.0000;0.8563;3.3083;
594.3000;0.8580;3.3083;
594.6000;0.8563;3.3011;
594.9000;0.8612;3.3179;
595.2000;0.8563;3.3155;
595.5000;0.8588;3.3131;
595.8000;0.8563;3.3179;
596.1000;0.8571;3.3203;
596.4000;0.8539;3.3131;
596.7000;0.8571;3.3227;
597.0000;0.8596;3.3299;
597.3000;0.8588;3.3155;
597.6000;0.8580;3.3131;
597.9000;0.8547;3.3155;
598.2000;0.8555;3.3179;
598.5000;0.8571;3.3155;
598.8000;0.8588;3.3131;
599.1000;0.8531;3.3035;
599.4000;0.8604;3.3251;
599.7000;0.8580;3.3107;
600.0000;0.8482;3.2963;
600.3000;0.8588;3.3203;
600.6000;0.8596;3.3059;
600.9000;0.8580;3.2867;
601.2000;0.8653;3.2819;
601.5000;0.8514;3.2436;
601.8000;0.8466;3.2268;
602.1000;0.8425;3.2100;
602.4000;0.8384;3.1980;
602.7000;0.8352;3.1932;
603.0000;0.8295;3.1764;
603.3000;0.8270;3.1764;
603.6000;0.8221;3.1548;
603.9000;0.8173;3.1452;
604.2000;0.8140;3.1308;
604.5000;0.8099;3.1212;
604.8000;0.7993;3.0876;
605.1000;0.8042;3.0996;
605.4000;0.7993;3.0972;
605.7000;0.7953;3.0852;
606.0000;0.7953;3.0804;
606.3000;0.7928;3.0876;
606.6000;0.7945;3.0948;
606.9000;0.7863;3.0804;
607.2000;0.7847;3.0684;
607.5000;0.7831;3.0708;
607.8000;0.7798;3.0660;
608.1000;0.7774;3.0660;
608.4000;0.7757;3.0708;
608.7000;0.7725;3.0708;
609.0000;0.7692;3.0588;
609.3000;0.7684;3.0564;
609.6000;0.7660;3.0564;
609.9000;0.7643;3.0540;
610.2000;0.7635;3.0516;
610.5000;0.7603;3.0540;
610.8000;0.7603;3.0588;
611.1000;0.7570;3.0468;
611.4000;0.7570;3.0444;
611.7000;0.7611;3.0636;
612.0000;0.7562;3.0516;
612.3000;0.7505;3.0324;
612.6000;0.7505;3.0348;
612.9000;0.7521;3.0492;
613.2000;0.7448;3.0492;
613.5000;0.7432;3.0444;
613.8000;0.7448;3.0372;
614.1000;0.7416;3.0276;
614.4000;0.7391;3.0180;
614.7000;0.7399;3.0276;
615.0000;0.7391;3.0300;
615.3000;0.7375;3.0420;
615.6000;0.7399;3.0516;
615.9000;0.7350;3.0492;
616.2000;0.7326;3.0516;
616.5000;0.7293;3.0468;
616.8000;0.7318;3.0516;
617.1000;0.7310;3.0516;
617.4000;0.7285;3.0396;
617.7000;0.7261;3.0348;
618.0000;0.7261;3.0300;
618.3000;0.7245;3.0276;
618.6000;0.7236;3.0276;
618.9000;0.7228;3.0300;
619.2000;0.7228;3.0348;
619.5000;0.7188;3.0180;
619.8000;0.7188;3.0156;
620.1000;0.7204;3.0252;
620.4000;0.7204;3.0348;
620.7000;0.7171;3.0204;
621.0000;0.7171;3.0204;
621.3000;0.7114;3.0156;
621.6000;0.7147;3.0204;
621.9000;0.7131;3.0204;
622.2000;0.7123;3.0180;
622.5000;0.7123;3.0180;
622.8000;0.7106;3.0156;
623.1000;0.7139;3.0252;
623.4000;0.7090;3.0132;
623.7000;0.7106;3.0108;
624.0000;0.7082;3.0036;
624.3000;0.7082;3.0108;
624.6000;0.7033;3.0012;
624.9000;0.7066;3.0060;
625.2000;0.7025;2.9988;
625.5000;0.7009;2.9916;
625.8000;0.7049;2.9940;
626.1000;0.6992;2.9773;
626.4000;0.6992;2.9869;
626.7000;0.7017;2.9964;
627.0000;0.7000;2.9916;
627.3000;0.6992;3.0060;
627.6000;0.7000;3.0036;
627.9000;0.6943;2.9821;
628.2000;0.6984;2.9916;
628.5000;0.6952;2.9964;
628.8000;0.6960;3.0012;
629.1000;0.6976;3.0012;
629.4000;0.6976;3.0060;
629.7000;0.6935;2.9964;
630.0000;0.6911;2.9869;
630.3000;0.6911;2.9893;
630.6000;0.6895;2.9869;
630.9000;0.6895;2.9940;
631.2000;0.6886;2.9916;
631.5000;0.6919;3.0012;
631.8000;0.6911;3.0156;
632.1000;0.6878;3.0132;
632.4000;0.6878;3.0108;
632.7000;0.6870;3.0132;
633.0000;0.6911;3.0348;
633.3000;0.6862;3.0228;
633.6000;0.6870;3.0252;
633.9000;0.6854;3.0300;
634.2000;0.6846;3.0276;
634.5000;0.6854;3.0324;
634.8000;0.6838;3.0204;
635.1000;0.6821;3.0204;
635.4000;0.6829;3.0204;
635.7000;0.6821;3.0252;
636.0000;0.6805;3.0252;
636.3000;0.6813;3.0276;
636.6000;0.6838;3.0396;
636.9000;0.6805;3.0324;
637.2000;0.6797;3.0324;
637.5000;0.6813;3.0276;
637.8000;0.6789;3.0252;
638.1000;0.6805;3.0276;
638.4000;0.6781;3.0300;
638.7000;0.6699;3.0084;
639.0000;0.6748;3.0204;
639.3000;0.6764;3.0228;
639.6000;0.6748;3.0252;
639.9000;0.6756;3.0300;
640.2000;0.6732;3.0228;
640.5000;0.6707;3.0252;
640.8000;0.6813;3.0444;
641.1000;0.6740;3.0228;
641.4000;0.6740;3.0252;
641.7000;0.6789;3.0348;
642.0000;0.6732;3.0180;
642.3000;0.6716;3.0204;
642.6000;0.6716;3.0372;
642.9000;0.6699;3.0420;
643.2000;0.6699;3.0372;
643.5000;0.6707;3.0396;
643.8000;0.6683;3.0276;
644.1000;0.6699;3.0324;
644.4000;0.6642;3.0156;
644.7000;0.6699;3.0228;
645.0000;0.6675;3.0228;
645.3000;0.6675;3.0228;
645.6000;0.6667;3.0228;
645.9000;0.6667;3.0228;
646.2000;0.6667;3.0180;
646.5000;0.6659;3.0132;
646.8000;0.6650;3.0228;
647.1000;0.6699;3.0324;
647.4000;0.6724;3.0468;
647.7000;0.6650;3.0228;
648.0000;0.6659;3.0252;
648.3000;0.6659;3.0276;
648.6000;0.6626;3.0252;
648.9000;0.6618;3.0132;
649.2000;0.6634;3.0156;
649.5000;0.6634;3.0180;
649.8000;0.6618;3.0108;
650.1000;0.6593;3.0060;
650.4000;0.6610;3.0036;
650.7000;0.6626;2.9940;
651.0000;0.6618;2.9916;
651.3000;0.6585;2.9845;
651.6000;0.6585;2.9940;
651.9000;0.6585;2.9964;
652.2000;0.6667;3.0276;
652.5000;0.6585;3.0108;
652.8000;0.6585;3.0132;
653.1000;0.6545;2.9964;
653.4000;0.6569;2.9988;
653.7000;0.6593;3.0108;
654.0000;0.6561;3.0180;
654.3000;0.6618;3.0276;
654.6000;0.6577;3.0348;
654.9000;0.6528;3.0372;
655.2000;0.6593;3.0564;
655.5000;0.6561;3.0420;
655.8000;0.6569;3.0492;
656.1000;0.6520;3.0396;
656.4000;0.6545;3.0396;
656.7000;0.6536;3.0372;
657.0000;0.6545;3.0444;
657.3000;0.6553;3.0492;
657.6000;0.6536;3.0372;
657.9000;0.6528;3.0348;
658.2000;0.6545;3.0420;
658.5000;0.6545;3.0444;
658.8000;0.6528;3.0348;
659.1000;0.6536;3.0348;
659.4000;0.6528;3.0324;
659.7000;0.6528;3.0300;
660.0000;0.6512;3.0228;
660.3000;0.6512;3.0252;
660.6000;0.6512;3.0252;
660.9000;0.6561;3.0396;
661.2000;0.6528;3.0396;
661.5000;0.6504;3.0300;
661.8000;0.6520;3.0468;
662.1000;0.6520;3.0516;
662.4000;0.6520;3.0516;
662.7000;0.6512;3.0540;
663.0000;0.6512;3.0420;
663.3000;0.6520;3.0372;
663.6000;0.6504;3.0324;
663.9000;0.6545;3.0372;
664.2000;0.6496;3.0276;
664.5000;0.6479;3.0324;
664.8000;0.6479;3.0324;
665.1000;0.6447;3.0372;
665.4000;0.6471;3.0492;
665.7000;0.6422;3.0348;
666.0000;0.6455;3.0396;
666.3000;0.6479;3.0420;
666.6000;0.6455;3.0348;
666.9000;0.6447;3.0372;
667.2000;0.6455;3.0444;
667.5000;0.6455;3.0468;
667.8000;0.6447;3.0396;
668.1000;0.6447;3.0492;
668.4000;0.6447;3.0468;
668.7000;0.6447;3.0348;
669.0000;0.6365;3.0252;
669.3000;0.6406;3.0396;
669.6000;0.6431;3.0468;
669.9000;0.6431;3.0540;
670.2000;0.6455;3.0492;
670.5000;0.6439;3.0492;
670.8000;0.6414;3.0444;
671.1000;0.6455;3.0564;
671.4000;0.6545;3.0756;
671.7000;0.6439;3.0540;
672.0000;0.6422;3.0516;
672.3000;0.6414;3.0516;
672.6000;0.6439;3.0588;
672.9000;0.6406;3.0444;
673.2000;0.6374;3.0444;
673.5000;0.6414;3.0564;
673.8000;0.6422;3.0492;
674.1000;0.6357;3.0444;
674.4000;0.6398;3.0540;
674.7000;0.6374;3.0444;
675.0000;0.6414;3.0444;
675.3000;0.6382;3.0348;
675.6000;0.6439;3.0444;
675.9000;0.6406;3.0420;
676.2000;0.6398;3.0420;
676.5000;0.6422;3.0444;
676.8000;0.6447;3.0588;
677.1000;0.6390;3.0420;
677.4000;0.6390;3.0492;
677.7000;0.6390;3.0492;
678.0000;0.6390;3.0420;
678.3000;0.6382;3.0396;
678.6000;0.6390;3.0444;
678.9000;0.6382;3.0492;
679.2000;0.6365;3.0348;
679.5000;0.6365;3.0324;
679.8000;0.6374;3.0348;
680.1000;0.6325;3.0276;
680.4000;0.6349;3.0396;
680.7000;0.6365;3.0420;
681.0000;0.6382;3.0468;
681.3000;0.6365;3.0372;
681.6000;0.6357;3.0372;
681.9000;0.6406;3.0540;
682.2000;0.6333;3.0444;
682.5000;0.6374;3.0468;
682.8000;0.6365;3.0468;
683.1000;0.6357;3.0468;
683.4000;0.6325;3.0468;
683.7000;0.6382;3.0564;
684.0000;0.6365;3.0468;
684.3000;0.6349;3.0420;
684.6000;0.6365;3.0444;
684.9000;0.6333;3.0300;
685.2000;0.6357;3.0324;
685.5000;0.6374;3.0300;
685.8000;0.6333;3.0276;
686.1000;0.6341;3.0276;
686.4000;0.6349;3.0372;
686.7000;0.6333;3.0348;
687.0000;0.6219;3.0156;
687.3000;0.6333;3.0444;
687.6000;0.6333;3.0396;
687.9000;0.6333;3.0348;
688.2000;0.6325;3.0204;
688.5000;0.6333;3.0252;
688.8000;0.6300;3.0252;
689.1000;0.6309;3.0252;
689.4000;0.6284;3.0276;
689.7000;0.6300;3.0420;
690.0000;0.6292;3.0396;
690.3000;0.6333;3.0492;
690.6000;0.6317;3.0444;
690.9000;0.6284;3.0324;
691.2000;0.6292;3.0204;
691.5000;0.6309;3.0204;
691.8000;0.6317;3.0228;
692.1000;0.6300;3.0180;
692.4000;0.6333;3.0276;
692.7000;0.6300;3.0228;
693.0000;0.6300;3.0324;
693.3000;0.6300;3.0300;
693.6000;0.6292;3.0396;
693.9000;0.6309;3.0396;
694.2000;0.6292;3.0300;
694.5000;0.6276;3.0324;
694.8000;0.6276;3.0324;
695.1000;0.6341;3.0516;
695.4000;0.6284;3.0348;
695.7000;0.6276;3.0372;
696.0000;0.6292;3.0348;
696.3000;0.6260;3.0300;
696.6000;0.6292;3.0444;
696.9000;0.6260;3.0324;
697.2000;0.6268;3.0276;
697.5000;0.6276;3.0300;
697.8000;0.6276;3.0252;
698.1000;0.6276;3.0300;
698.4000;0.6276;3.0348;
698.7000;0.6235;3.0324;
699.0000;0.6268;3.0372;
699.3000;0.6260;3.0348;
699.6000;0.6357;3.0444;
699.9000;0.6252;3.0228;
700.2000;0.6252;3.0204;
700.5000;0.6260;3.0132;
700.8000;0.6227;3.0108;
701.1000;0.6252;3.0180;
701.4000;0.6243;3.0156;
701.7000;0.6260;3.0204;
702.0000;0.6235;3.0300;
702.3000;0.6235;3.0324;
702.6000;0.6252;3.0348;
702.9000;0.6276;3.0396;
703.2000;0.6260;3.0372;
703.5000;0.6227;3.0348;
703.8000;0.6227;3.0348;
704.1000;0.6235;3.0516;
704.4000;0.6227;3.0492;
704.7000;0.6243;3.0492;
705.0000;0.6235;3.0468;
705.3000;0.6243;3.0468;
705.6000;0.6243;3.0516;
705.9000;0.6227;3.0516;
706.2000;0.6243;3.0588;
706.5000;0.6260;3.0660;
706.8000;0.6292;3.0708;
707.1000;0.6227;3.0636;
707.4000;0.6276;3.0732;
707.7000;0.6243;3.0612;
708.0000;0.6227;3.0612;
708.3000;0.6243;3.0612;
708.6000;0.6276;3.0732;
708.9000;0.6170;3.0372;
709.2000;0.6227;3.0564;
709.5000;0.6211;3.0540;
709.8000;0.6211;3.0564;
710.1000;0.6235;3.0588;
710.4000;0.6219;3.0540;
710.7000;0.6195;3.0468;
711.0000;0.6211;3.0492;
711.3000;0.6211;3.0396;
711.6000;0.6211;3.0300;
711.9000;0.6203;3.0252;
712.2000;0.6227;3.0324;
712.5000;0.6195;3.0324;
712.8000;0.6203;3.0396;
713.1000;0.6203;3.0540;
713.4000;0.6170;3.0468;
713.7000;0.6203;3.0492;
714.0000;0.6252;3.0732;
714.3000;0.6162;3.0612;
714.6000;0.6178;3.0612;
714.9000;0.6186;3.0564;
715.2000;0.6195;3.0516;
715.5000;0.6211;3.0540;
715.8000;0.6203;3.0564;
716.1000;0.6203;3.0516;
716.4000;0.6195;3.0492;
716.7000;0.6211;3.0540;
717.0000;0.6203;3.0444;
717.3000;0.6211;3.0444;
717.6000;0.6203;3.0396;
717.9000;0.6195;3.0396;
718.2000;0.6195;3.0420;
718.5000;0.6154;3.0396;
718.8000;0.6195;3.0516;
719.1000;0.6186;3.0492;
719.4000;0.6203;3.0540;
719.7000;0.6178;3.0516;
720.0000;0.6203;3.0588;
720.3000;0.6186;3.0564;
720.6000;0.6195;3.0684;
720.9000;0.6195;3.0660;
721.2000;0.6170;3.0612;
721.5000;0.6170;3.0612;
721.8000;0.6178;3.0564;
722.1000;0.6195;3.0564;
722.4000;0.6195;3.0540;
722.7000;0.6186;3.0540;
723.0000;0.6178;3.0540;
723.3000;0.6178;3.0516;
723.6000;0.6186;3.0636;
723.9000;0.6219;3.0780;
724.2000;0.6170;3.0708;
724.5000;0.6162;3.0732;
724.8000;0.6170;3.0708;
725.1000;0.6170;3.0588;
725.4000;0.6195;3.0588;
725.7000;0.6186;3.0612;
726.0000;0.6170;3.0636;
726.3000;0.6154;3.0588;
726.6000;0.6162;3.0636;
726.9000;0.6203;3.0684;
727.2000;0.6186;3.0564;
727.5000;0.6154;3.0540;
727.8000;0.6162;3.0468;
728.1000;0.6170;3.0516;
728.4000;0.6186;3.0612;
728.7000;0.6162;3.0588;
729.0000;0.6154;3.0588;
729.3000;0.6162;3.0516;
729.6000;0.6178;3.0492;
729.9000;0.6154;3.0396;
730.2000;0.6154;3.0516;
730.5000;0.6146;3.0540;
730.8000;0.6162;3.0516;
731.1000;0.6105;3.0420;
731.4000;0.6162;3.0564;
731.7000;0.6154;3.0684;
732.0000;0.6170;3.0660;
732.3000;0.6146;3.0540;
732.6000;0.6081;3.0276;
732.9000;0.6056;3.0276;
733.2000;0.6154;3.0516;
733.5000;0.6154;3.0588;
733.8000;0.6154;3.0588;
734.1000;0.6186;3.0588;
734.4000;0.6154;3.0468;
734.7000;0.6138;3.0420;
735.0000;0.6138;3.0348;
735.3000;0.6121;3.0276;
735.6000;0.6129;3.0228;
735.9000;0.6138;3.0252;
736.2000;0.6113;3.0276;
736.5000;0.6121;3.0252;
736.8000;0.6154;3.0420;
737.1000;0.6138;3.0420;
737.4000;0.6138;3.0372;
737.7000;0.6121;3.0324;
738.0000;0.6138;3.0396;
738.3000;0.6162;3.0420;
738.6000;0.6146;3.0444;
738.9000;0.6129;3.0492;
739.2000;0.6113;3.0468;
739.5000;0.6146;3.0444;
739.8000;0.6146;3.0444;
740.1000;0.6121;3.0468;
740.4000;0.6186;3.0540;
740.7000;0.6113;3.0372;
741.0000;0.6154;3.0420;
741.3000;0.6129;3.0348;
741.6000;0.6113;3.0348;
741.9000;0.6113;3.0300;
742.2000;0.6138;3.0396;
742.5000;0.6146;3.0420;
742.8000;0.6113;3.0372;
743.1000;0.6121;3.0396;
743.4000;0.6121;3.0444;
743.7000;0.6178;3.0636;
744.0000;0.6113;3.0468;
744.3000;0.6129;3.0444;
744.6000;0.6121;3.0420;
744.9000;0.6113;3.0372;
745.2000;0.6121;3.0468;
745.5000;0.6121;3.0420;
745.8000;0.6121;3.0420;
746.1000;0.6121;3.0396;
746.4000;0.6089;3.0300;
746.7000;0.6105;3.0396;
747.0000;0.6113;3.0420;
747.3000;0.6121;3.0396;
747.6000;0.6113;3.0348;
747.9000;0.6154;3.0468;
748.2000;0.6097;3.0324;
748.5000;0.6121;3.0420;
748.8000;0.6105;3.0444;
749.1000;0.6121;3.0492;
749.4000;0.6113;3.0540;
749.7000;0.6113;3.0492;
750.0000;0.6105;3.0540;
750.3000;0.6113;3.0612;
750.6000;0.6113;3.0492;
750.9000;0.6113;3.0420;
751.2000;0.6105;3.0540;
751.5000;0.6113;3.0588;
751.8000;0.6105;3.0516;
752.1000;0.6113;3.0660;
752.4000;0.6097;3.0540;
752.7000;0.6121;3.0516;
753.0000;0.6129;3.0612;
753.3000;0.6113;3.0708;
753.6000;0.6097;3.0780;
753.9000;0.6121;3.0780;
754.2000;0.6089;3.0732;
754.5000;0.6097;3.0732;
754.8000;0.6072;3.0636;
755.1000;0.6105;3.0756;
755.4000;0.6097;3.0732;
755.7000;0.6097;3.0780;
756.0000;0.6097;3.0708;
756.3000;0.6072;3.0708;
756.6000;0.6089;3.0780;
756.9000;0.6072;3.0684;
757.2000;0.6105;3.0684;
757.5000;0.6089;3.0660;
757.8000;0.6105;3.0804;
758.1000;0.6089;3.0684;
758.4000;0.6081;3.0660;
758.7000;0.6105;3.0684;
759.0000;0.6081;3.0588;
759.3000;0.6081;3.0564;
759.6000;0.6072;3.0588;
759.9000;0.6081;3.0612;
760.2000;0.6129;3.0756;
760.5000;0.6081;3.0612;
760.8000;0.6072;3.0468;
761.1000;0.6081;3.0492;
761.4000;0.6097;3.0588;
761.7000;0.6081;3.0588;
762.0000;0.6089;3.0636;
762.3000;0.6089;3.0660;
762.6000;0.6089;3.0588;
762.9000;0.6105;3.0540;
763.2000;0.6089;3.0492;
763.5000;0.6089;3.0492;
763.8000;0.6089;3.0372;
764.1000;0.6081;3.0276;
764.4000;0.6081;3.0228;
764.7000;0.6072;3.0228;
765.0000;0.6089;3.0324;
765.3000;0.6097;3.0300;
765.6000;0.6081;3.0420;
765.9000;0.6105;3.0492;
766.2000;0.6064;3.0444;
766.5000;0.6089;3.0564;
766.8000;0.6081;3.0540;
767.1000;0.6064;3.0492;
767.4000;0.6081;3.0516;
767.7000;0.6056;3.0372;
768.0000;0.6056;3.0396;
768.3000;0.6081;3.0420;
768.6000;0.6081;3.0516;
768.9000;0.6081;3.0516;
769.2000;0.6081;3.0516;
769.5000;0.6032;3.0444;
769.8000;0.6072;3.0564;
770.1000;0.6072;3.0468;
770.4000;0.6072;3.0516;
770.7000;0.6081;3.0444;
771.0000;0.6072;3.0516;
771.3000;0.6064;3.0564;
771.6000;0.6072;3.0636;
771.9000;0.6064;3.0684;
772.2000;0.6072;3.0732;
772.5000;0.6056;3.0636;
772.8000;0.6081;3.0612;
773.1000;0.6064;3.0564;
773.4000;0.6081;3.0612;
773.7000;0.5967;3.0276;
774.0000;0.6064;3.0444;
774.3000;0.6064;3.0396;
774.6000;0.6056;3.0324;
774.9000;0.6056;3.0348;
775.2000;0.6056;3.0420;
775.5000;0.6064;3.0396;
775.8000;0.6064;3.0324;
776.1000;0.6113;3.0444;
776.4000;0.6032;3.0372;
776.7000;0.6081;3.0468;
777.0000;0.6097;3.0492;
777.3000;0.6081;3.0540;
777.6000;0.6064;3.0492;
777.9000;0.6056;3.0396;
778.2000;0.6081;3.0444;
778.5000;0.6056;3.0516;
778.8000;0.6097;3.0636;
779.1000;0.5983;3.0444;
779.4000;0.6064;3.0492;
779.7000;0.6056;3.0492;
780.0000;0.6048;3.0468;
780.3000;0.6048;3.0444;
780.6000;0.6056;3.0468;
780.9000;0.6048;3.0492;
781.2000;0.6040;3.0444;
781.5000;0.6048;3.0564;
781.8000;0.6048;3.0516;
782.1000;0.6056;3.0420;
782.4000;0.6040;3.0396;
782.7000;0.6056;3.0420;
783.0000;0.6064;3.0348;
783.3000;0.6072;3.0396;
783.6000;0.6056;3.0396;
783.9000;0.6064;3.0396;
784.2000;0.6048;3.0396;
784.5000;0.6056;3.0396;
784.8000;0.6048;3.0324;
785.1000;0.6081;3.0492;
785.4000;0.6081;3.0564;
785.7000;0.6024;3.0492;
786.0000;0.6048;3.0564;
786.3000;0.6040;3.0540;
786.6000;0.6056;3.0516;
786.9000;0.6056;3.0444;
787.2000;0.6056;3.0492;
787.5000;0.6040;3.0468;
787.8000;0.6040;3.0516;
788.1000;0.6072;3.0684;
788.4000;0.6072;3.0612;
788.7000;0.6032;3.0468;
789.0000;0.6048;3.0444;
789.3000;0.6048;3.0516;
789.6000;0.5975;3.0324;
789.9000;0.6015;3.0492;
790.2000;0.6064;3.0684;
790.5000;0.6089;3.0756;
790.8000;0.6056;3.0684;
791.1000;0.6040;3.0660;
791.4000;0.6040;3.0564;
791.7000;0.5958;3.0324;
792.0000;0.6007;3.0564;
792.3000;0.6040;3.0612;
792.6000;0.6015;3.0540;
792.9000;0.6048;3.0612;
793.2000;0.6040;3.0612;
793.5000;0.6048;3.0564;
793.8000;0.6015;3.0468;
794.1000;0.6040;3.0540;
794.4000;0.6056;3.0540;
794.7000;0.6056;3.0540;
795.0000;0.6048;3.0540;
795.3000;0.6032;3.0492;
795.6000;0.6024;3.0420;
795.9000;0.6040;3.0420;
796.2000;0.6032;3.0468;
796.5000;0.6048;3.0540;
796.8000;0.6056;3.0588;
797.1000;0.6032;3.0540;
797.4000;0.6048;3.0516;
797.7000;0.6032;3.0492;
798.0000;0.6064;3.0564;
798.3000;0.6048;3.0540;
798.6000;0.6032;3.0564;
798.9000;0.6032;3.0684;
799.2000;0.6032;3.0684;
799.5000;0.6072;3.0780;
799.8000;0.6048;3.0732;
800.1000;0.6113;3.0924;
800.4000;0.6040;3.0756;
800.7000;0.6064;3.0900;
801.0000;0.6024;3.0732;
801.3000;0.6048;3.0756;
801.6000;0.6015;3.0732;
801.9000;0.5991;3.0732;
802.2000;0.6040;3.0828;
802.5000;0.6024;3.0780;
802.8000;0.5983;3.0540;
803.1000;0.6032;3.0756;
803.4000;0.6040;3.0780;
803.7000;0.6015;3.0804;
804.0000;0.6007;3.0828;
804.3000;0.6015;3.0780;
804.6000;0.6040;3.0900;
804.9000;0.6040;3.0948;
805.2000;0.6015;3.0804;
805.5000;0.6007;3.0708;
805.8000;0.6015;3.0660;
806.1000;0.5918;3.0348;
806.4000;0.5991;3.0516;
806.7000;0.6007;3.0588;
807.0000;0.5991;3.0564;
807.3000;0.6007;3.0588;
807.6000;0.5991;3.0564;
807.9000;0.6007;3.0540;
808.2000;0.5942;3.0300;
808.5000;0.6040;3.0636;
808.8000;0.6032;3.0540;
809.1000;0.6024;3.0612;
809.4000;0.5991;3.0564;
809.7000;0.6015;3.0588;
810.0000;0.6007;3.0540;
810.3000;0.5975;3.0468;
810.6000;0.6048;3.0612;
810.9000;0.6032;3.0564;
811.2000;0.5991;3.0468;
811.5000;0.6007;3.0516;
811.8000;0.6015;3.0444;
812.1000;0.6040;3.0540;
812.4000;0.6015;3.0492;
812.7000;0.6007;3.0444;
813.0000;0.6032;3.0492;
813.3000;0.6024;3.0468;
813.6000;0.6015;3.0420;
813.9000;0.6015;3.0468;
814.2000;0.6024;3.0588;
814.5000;0.6007;3.0540;
814.8000;0.6015;3.0564;
815.1000;0.6024;3.0564;
815.4000;0.5999;3.0540;
815.7000;0.6007;3.0540;
816.0000;0.6015;3.0492;
816.3000;0.6024;3.0492;
816.6000;0.5991;3.0468;
816.9000;0.6007;3.0444;
817.2000;0.6040;3.0468;
817.5000;0.6024;3.0396;
817.8000;0.6015;3.0372;
818.1000;0.6015;3.0468;
818.4000;0.6024;3.0540;
818.7000;0.5999;3.0444;
819.0000;0.6015;3.0540;
819.3000;0.6015;3.0588;
819.6000;0.6007;3.0588;
819.9000;0.6081;3.0732;
820.2000;0.6015;3.0492;
820.5000;0.6007;3.0540;
820.8000;0.5991;3.0516;
821.1000;0.5999;3.0516;
821.4000;0.6007;3.0564;
821.7000;0.6007;3.0492;
822.0000;0.6015;3.0492;
822.3000;0.6015;3.0492;
822.6000;0.6015;3.0492;
822.9000;0.5991;3.0444;
823.2000;0.6015;3.0516;
823.5000;0.5999;3.0588;
823.8000;0.6015;3.0708;
824.1000;0.6015;3.0756;
824.4000;0.5991;3.0636;
824.7000;0.6007;3.0708;
825.0000;0.5983;3.0636;
825.3000;0.5975;3.0516;
825.6000;0.5983;3.0564;
825.9000;0.5967;3.0492;
826.2000;0.6015;3.0492;
826.5000;0.5958;3.0444;
826.8000;0.5999;3.0516;
827.1000;0.5999;3.0516;
827.4000;0.6015;3.0684;
827.7000;0.5999;3.0612;
828.0000;0.6015;3.0588;
828.3000;0.6024;3.0540;
828.6000;0.6040;3.0588;
828.9000;0.6015;3.0564;
829.2000;0.6024;3.0564;
829.5000;0.6024;3.0516;
829.8000;0.5983;3.0444;
830.1000;0.6007;3.0444;
830.4000;0.6015;3.0492;
830.7000;0.5958;3.0348;
831.0000;0.5999;3.0444;
831.3000;0.6015;3.0372;
831.6000;0.6007;3.0324;
831.9000;0.5983;3.0348;
832.2000;0.5991;3.0444;
832.5000;0.6015;3.0444;
832.8000;0.5991;3.0372;
833.1000;0.5975;3.0300;
833.4000;0.6015;3.0324;
833.7000;0.6024;3.0348;
834.0000;0.6015;3.0396;
834.3000;0.5999;3.0348;
834.6000;0.6032;3.0492;
834.9000;0.5975;3.0372;
835.2000;0.5991;3.0324;
835.5000;0.5975;3.0372;
835.8000;0.5999;3.0420;
836.1000;0.5991;3.0396;
836.4000;0.6007;3.0540;
836.7000;0.5991;3.0468;
837.0000;0.5991;3.0444;
837.3000;0.5975;3.0444;
837.6000;0.5983;3.0588;
837.9000;0.5983;3.0564;
838.2000;0.5975;3.0492;
838.5000;0.5975;3.0468;
838.8000;0.5999;3.0516;
839.1000;0.5991;3.0492;
839.4000;0.5975;3.0444;
839.7000;0.5967;3.0468;
840.0000;0.5975;3.0492;
840.3000;0.5983;3.0492;
840.6000;0.5967;3.0492;
840.9000;0.5950;3.0444;
841.2000;0.5999;3.0564;
841.5000;0.5983;3.0516;
841.8000;0.5991;3.0540;
842.1000;0.6007;3.0612;
842.4000;0.5983;3.0660;
842.7000;0.5983;3.0612;
843.0000;0.6007;3.0588;
843.3000;0.5999;3.0492;
843.6000;0.5983;3.0564;
843.9000;0.5975;3.0516;
844.2000;0.5991;3.0468;
844.5000;0.5975;3.0420;
844.8000;0.5991;3.0516;
845.1000;0.5991;3.0516;
845.4000;0.5991;3.0564;
845.7000;0.5975;3.0540;
846.0000;0.5983;3.0540;
846.3000;0.5983;3.0492;
846.6000;0.5999;3.0492;
846.9000;0.6097;3.0828;
847.2000;0.5983;3.0492;
847.5000;0.5975;3.0468;
847.8000;0.5967;3.0564;
848.1000;0.5967;3.0540;
848.4000;0.6040;3.0636;
848.7000;0.5967;3.0492;
849.0000;0.5991;3.0588;
849.3000;0.5983;3.0612;
849.6000;0.5991;3.0708;
849.9000;0.5975;3.0660;
850.2000;0.5983;3.0708;
850.5000;0.5967;3.0732;
850.8000;0.5967;3.0660;
851.1000;0.5967;3.0684;
851.4000;0.5991;3.0660;
851.7000;0.5975;3.0660;
852.0000;0.5967;3.0612;
852.3000;0.5991;3.0564;
852.6000;0.5950;3.0396;
852.9000;0.6015;3.0540;
853.2000;0.5975;3.0444;
853.5000;0.5983;3.0540;
853.8000;0.5991;3.0636;
854.1000;0.5983;3.0636;
854.4000;0.5975;3.0708;
854.7000;0.5991;3.0804;
855.0000;0.5991;3.0804;
855.3000;0.5991;3.0876;
855.6000;0.5991;3.0852;
855.9000;0.5991;3.0876;
856.2000;0.5991;3.0828;
856.5000;0.5991;3.0780;
856.8000;0.6007;3.0732;
857.1000;0.5999;3.0660;
857.4000;0.5983;3.0684;
857.7000;0.6032;3.0828;
858.0000;0.6007;3.0828;
858.3000;0.5983;3.0684;
858.6000;0.5975;3.0636;
858.9000;0.5975;3.0612;
859.2000;0.5975;3.0636;
859.5000;0.5975;3.0684;
859.8000;0.5983;3.0708;
860.1000;0.5967;3.0660;
860.4000;0.5975;3.0684;
860.7000;0.5958;3.0660;
861.0000;0.5975;3.0636;
861.3000;0.5975;3.0684;
861.6000;0.6024;3.0876;
861.9000;0.5975;3.0756;
862.2000;0.5975;3.0804;
862.5000;0.5950;3.0684;
862.8000;0.5975;3.0732;
863.1000;0.5991;3.0876;
863.4000;0.5967;3.0876;
863.7000;0.5975;3.0876;
864.0000;0.5967;3.0804;
864.3000;0.5983;3.0828;
864.6000;0.5967;3.0828;
864.9000;0.5975;3.0756;
865.2000;0.5967;3.0708;
865.5000;0.5991;3.0708;
865.8000;0.5983;3.0708;
866.1000;0.5967;3.0612;
866.4000;0.5967;3.0660;
866.7000;0.5975;3.0684;
867.0000;0.5975;3.0732;
867.3000;0.5999;3.0756;
867.6000;0.5975;3.0708;
867.9000;0.6015;3.0804;
868.2000;0.5991;3.0684;
868.5000;0.6007;3.0732;
868.8000;0.5958;3.0612;
869.1000;0.5991;3.0660;
869.4000;0.5942;3.0684;
869.7000;0.5967;3.0828;
870.0000;0.6024;3.0996;
870.3000;0.5967;3.0804;
870.6000;0.5975;3.0852;
870.9000;0.5983;3.0852;
871.2000;0.5991;3.0900;
871.5000;0.5958;3.0684;
871.8000;0.5910;3.0588;
872.1000;0.5934;3.0660;
872.4000;0.5975;3.0780;
872.7000;0.5983;3.0828;
873.0000;0.5967;3.0780;
873.3000;0.5975;3.0780;
873.6000;0.5967;3.0684;
873.9000;0.5999;3.0900;
874.2000;0.5975;3.0852;
874.5000;0.5983;3.0876;
874.8000;0.5991;3.0900;
875.1000;0.5958;3.0876;
875.4000;0.5967;3.0828;
875.7000;0.5991;3.0828;
876.0000;0.5975;3.0804;
876.3000;0.5991;3.0780;
876.6000;0.5975;3.0732;
876.9000;0.5991;3.0756;
877.2000;0.5967;3.0708;
877.5000;0.5975;3.0684;
877.8000;0.5975;3.0684;
878.1000;0.5975;3.0708;
878.4000;0.5967;3.0708;
878.7000;0.5958;3.0732;
879.0000;0.5967;3.0876;
879.3000;0.5967;3.0852;
879.6000;0.5975;3.0852;
879.9000;0.5958;3.0756;
880.2000;0.5975;3.0852;
880.5000;0.5958;3.0780;
880.8000;0.5926;3.0660;
881.1000;0.6007;3.0804;
881.4000;0.5958;3.0756;
881.7000;0.5950;3.0756;
882.0000;0.5934;3.0804;
882.3000;0.5958;3.0900;
882.6000;0.5958;3.0828;
882.9000;0.5967;3.0780;
883.2000;0.5958;3.0756;
883.5000;0.5958;3.0660;
883.8000;0.5967;3.0780;
884.1000;0.5958;3.0780;
884.4000;0.5975;3.0852;
884.7000;0.5950;3.0900;
885.0000;0.5958;3.0876;
885.3000;0.5991;3.0900;
885.6000;0.5975;3.0804;
885.9000;0.5967;3.0732;
886.2000;0.5958;3.0804;
886.5000;0.5967;3.0804;
886.8000;0.5967;3.0804;
887.1000;0.5967;3.0876;
887.4000;0.5967;3.0924;
887.7000;0.5983;3.0852;
888.0000;0.5950;3.0756;
888.3000;0.5967;3.0732;
888.6000;0.5975;3.0756;
888.9000;0.5958;3.0684;
889.2000;0.5975;3.0780;
889.5000;0.5950;3.0660;
889.8000;0.5983;3.0660;
890.1000;0.5975;3.0660;
890.4000;0.5950;3.0588;
890.7000;0.5958;3.0588;
891.0000;0.5958;3.0612;
891.3000;0.5958;3.0588;
891.6000;0.5958;3.0612;
891.9000;0.5950;3.0612;
892.2000;0.5950;3.0564;
892.5000;0.5975;3.0636;
892.8000;0.5958;3.0516;
893.1000;0.5967;3.0588;
893.4000;0.5958;3.0612;
893.7000;0.6032;3.0852;
894.0000;0.5975;3.0804;
894.3000;0.5958;3.0828;
894.6000;0.5975;3.0804;
894.9000;0.5950;3.0780;
895.2000;0.5942;3.0708;
895.5000;0.5958;3.0756;
895.8000;0.5926;3.0684;
896.1000;0.5967;3.0876;
896.4000;0.5967;3.0732;
896.7000;0.5942;3.0636;
897.0000;0.6040;3.0876;
897.3000;0.5934;3.0660;
897.6000;0.5975;3.0684;
897.9000;0.5958;3.0660;
898.2000;0.5958;3.0660;
898.5000;0.5975;3.0636;
898.8000;0.5975;3.0612;
899.1000;0.5950;3.0612;
899.4000;0.5967;3.0684;
899.7000;0.5967;3.0756;
900.0000;0.5975;3.0828;
900.3000;0.5983;3.0780;
900.6000;0.5958;3.0708;
900.9000;0.5958;3.0684;
901.2000;0.5934;3.0636;
901.5000;0.5967;3.0804;
901.8000;0.5967;3.0708;
902.1000;0.5975;3.0756;
902.4000;0.5942;3.0708;
902.7000;0.5967;3.0828;
903.0000;0.5910;3.0588;
903.3000;0.5958;3.0684;
903.6000;0.5958;3.0756;
903.9000;0.5958;3.0780;
904.2000;0.5853;3.0612;
904.5000;0.5950;3.0684;
904.8000;0.5942;3.0588;
905.1000;0.5975;3.0612;
905.4000;0.5950;3.0660;
905.7000;0.5934;3.0588;
906.0000;0.5950;3.0684;
906.3000;0.5958;3.0732;
906.6000;0.5942;3.0756;
906.9000;0.5926;3.0732;
907.2000;0.5918;3.0588;
907.5000;0.5958;3.0612;
907.8000;0.5950;3.0612;
908.1000;0.5934;3.0516;
908.4000;0.5934;3.0564;
908.7000;0.5942;3.0540;
909.0000;0.5950;3.0612;
909.3000;0.5950;3.0588;
909.6000;0.5942;3.0588;
909.9000;0.5967;3.0612;
910.2000;0.5950;3.0540;
910.5000;0.5942;3.0564;
910.8000;0.5934;3.0516;
911.1000;0.5958;3.0636;
911.4000;0.5950;3.0636;
911.7000;0.5975;3.0684;
912.0000;0.5934;3.0468;
912.3000;0.5967;3.0468;
912.6000;0.5983;3.0564;
912.9000;0.5934;3.0468;
913.2000;0.5926;3.0516;
913.5000;0.5958;3.0612;
913.8000;0.5967;3.0636;
914.1000;0.5942;3.0564;
914.4000;0.5958;3.0612;
914.7000;0.5967;3.0612;
915.0000;0.5950;3.0588;
915.3000;0.5950;3.0588;
915.6000;0.5950;3.0636;
915.9000;0.5926;3.0660;
916.2000;0.5967;3.0780;
916.5000;0.5926;3.0636;
916.8000;0.5942;3.0732;
917.1000;0.5910;3.0636;
917.4000;0.5975;3.0756;
917.7000;0.5926;3.0708;
918.0000;0.5926;3.0756;
918.3000;0.5942;3.0636;
918.6000;0.5885;3.0516;
918.9000;0.5950;3.0732;
919.2000;0.5983;3.0660;
919.5000;0.5958;3.0540;
919.8000;0.5950;3.0564;
920.1000;0.6015;3.0636;
920.4000;0.5967;3.0516;
920.7000;0.5950;3.0468;
921.0000;0.5950;3.0444;
921.3000;0.5958;3.0468;
921.6000;0.5958;3.0492;
921.9000;0.5934;3.0420;
922.2000;0.5926;3.0516;
922.5000;0.5958;3.0612;
922.8000;0.5950;3.0588;
923.1000;0.5942;3.0468;
923.4000;0.5958;3.0444;
923.7000;0.5918;3.0372;
924.0000;0.5918;3.0492;
924.3000;0.6032;3.0756;
924.6000;0.5950;3.0612;
924.9000;0.5958;3.0660;
925.2000;0.5950;3.0708;
925.5000;0.5950;3.0660;
925.8000;0.5926;3.0612;
926.1000;0.5942;3.0660;
926.4000;0.5934;3.0636;
926.7000;0.5926;3.0612;
927.0000;0.5918;3.0588;
927.3000;0.5934;3.0588;
927.6000;0.5942;3.0540;
927.9000;0.5958;3.0468;
928.2000;0.5999;3.0588;
928.5000;0.5967;3.0492;
928.8000;0.5967;3.0492;
929.1000;0.5942;3.0492;
929.4000;0.5942;3.0444;
929.7000;0.5950;3.0444;
930.0000;0.5942;3.0540;
930.3000;0.5950;3.0612;
930.6000;0.5950;3.0612;
930.9000;0.5967;3.0588;
931.2000;0.5934;3.0444;
931.5000;0.5958;3.0468;
931.8000;0.5942;3.0420;
932.1000;0.5934;3.0444;
932.4000;0.5934;3.0492;
932.7000;0.6015;3.0732;
933.0000;0.5958;3.0612;
933.3000;0.5934;3.0588;
933.6000;0.5950;3.0660;
933.9000;0.5926;3.0612;
934.2000;0.5958;3.0612;
934.5000;0.5967;3.0708;
934.8000;0.5902;3.0588;
935.1000;0.5934;3.0612;
935.4000;0.5967;3.0684;
935.7000;0.5958;3.0804;
936.0000;0.5942;3.0756;
936.3000;0.5934;3.0636;
936.6000;0.5942;3.0660;
936.9000;0.6007;3.0828;
937.2000;0.5950;3.0756;
937.5000;0.5950;3.0780;
937.8000;0.5942;3.0756;
938.1000;0.5942;3.0732;
938.4000;0.5950;3.0804;
938.7000;0.6040;3.1116;
939.0000;0.5926;3.0780;
939.3000;0.5958;3.0828;
939.6000;0.5942;3.0804;
939.9000;0.5902;3.0732;
940.2000;0.5926;3.0804;
940.5000;0.5958;3.0924;
940.8000;0.5950;3.0972;
941.1000;0.5967;3.0996;
941.4000;0.5934;3.0876;
941.7000;0.5942;3.0972;
942.0000;0.5934;3.0996;
942.3000;0.5918;3.0972;
942.6000;0.5975;3.0996;
942.9000;0.5918;3.0780;
943.2000;0.5983;3.0924;
943.5000;0.5926;3.0804;
943.8000;0.5975;3.0948;
944.1000;0.6015;3.0996;
944.4000;0.5967;3.0828;
944.7000;0.5950;3.0780;
945.0000;0.5926;3.0756;
945.3000;0.5942;3.0876;
945.6000;0.5942;3.0852;
945.9000;0.5934;3.0900;
946.2000;0.6024;3.1164;
946.5000;0.5918;3.0852;
946.8000;0.5934;3.0852;
947.1000;0.5934;3.0852;
947.4000;0.5934;3.0828;
947.7000;0.5950;3.0780;
948.0000;0.5918;3.0684;
948.3000;0.5999;3.0732;
948.6000;0.5942;3.0660;
948.9000;0.5942;3.0732;
949.2000;0.5942;3.0684;
949.5000;0.5967;3.0804;
949.8000;0.5934;3.0732;
950.1000;0.5934;3.0732;
950.4000;0.5942;3.0756;
950.7000;0.5926;3.0708;
951.0000;0.5942;3.0780;
951.3000;0.5934;3.0708;
951.6000;0.5934;3.0684;
951.9000;0.5934;3.0684;
952.2000;0.5950;3.0660;
952.5000;0.5942;3.0708;
952.8000;0.5934;3.0756;
953.1000;0.5942;3.0708;
953.4000;0.5950;3.0660;
953.7000;0.5942;3.0636;
954.0000;0.5934;3.0588;
954.3000;0.5934;3.0468;
954.6000;0.5958;3.0612;
954.9000;0.5958;3.0588;
955.2000;0.5934;3.0516;
955.5000;0.5934;3.0564;
955.8000;0.5902;3.0564;
956.1000;0.5950;3.0708;
956.4000;0.5942;3.0564;
956.7000;0.5975;3.0612;
957.0000;0.5934;3.0612;
957.3000;0.5950;3.0588;
957.6000;0.5950;3.0612;
957.9000;0.5893;3.0468;
958.2000;0.5950;3.0564;
958.5000;0.5926;3.0540;
958.8000;0.5877;3.0420;
959.1000;0.5926;3.0612;
959.4000;0.5926;3.0516;
959.7000;0.5942;3.0636;
960.0000;0.5918;3.0540;
960.3000;0.5910;3.0540;
960.6000;0.5918;3.0540;
960.9000;0.5934;3.0612;
961.2000;0.5934;3.0636;
961.5000;0.5918;3.0636;
961.8000;0.5926;3.0636;
962.1000;0.5934;3.0588;
962.4000;0.5934;3.0516;
962.7000;0.5918;3.0540;
963.0000;0.5918;3.0660;
963.3000;0.5999;3.0924;
963.6000;0.5934;3.0708;
963.9000;0.5934;3.0660;
964.2000;0.5975;3.0756;
964.5000;0.5934;3.0684;
964.8000;0.5934;3.0780;
965.1000;0.5934;3.0804;
965.4000;0.5958;3.0852;
965.7000;0.5942;3.0852;
966.0000;0.5950;3.0900;
966.3000;0.5885;3.0828;
966.6000;0.5926;3.0876;
966.9000;0.5918;3.0804;
967.2000;0.5942;3.0780;
967.5000;0.5942;3.0756;
967.8000;0.5926;3.0804;
968.1000;0.5942;3.0780;
968.4000;0.6024;3.1020;
968.7000;0.5942;3.0900;
969.0000;0.5926;3.0780;
969.3000;0.5926;3.0732;
969.6000;0.5934;3.0708;
969.9000;0.5877;3.0540;
970.2000;0.5918;3.0660;
970.5000;0.5926;3.0684;
970.8000;0.5950;3.0756;
971.1000;0.5934;3.0804;
971.4000;0.5934;3.0708;
971.7000;0.5918;3.0612;
972.0000;0.5934;3.0636;
972.3000;0.5926;3.0708;
972.6000;0.5934;3.0780;
972.9000;0.5934;3.0780;
973.2000;0.5893;3.0660;
973.5000;0.5926;3.0732;
973.8000;0.5926;3.0684;
974.1000;0.5934;3.0780;
974.4000;0.5934;3.0804;
974.7000;0.5934;3.0780;
975.0000;0.5934;3.0756;
975.3000;0.5910;3.0756;
975.6000;0.5934;3.0804;
975.9000;0.5942;3.0900;
976.2000;0.5918;3.0876;
976.5000;0.5926;3.0756;
976.8000;0.5910;3.0756;
977.1000;0.5918;3.0756;
977.4000;0.5934;3.0780;
977.7000;0.5926;3.0828;
978.0000;0.5910;3.0780;
978.3000;0.5942;3.0852;
978.6000;0.5950;3.0828;
978.9000;0.5902;3.0636;
979.2000;0.5918;3.0660;
979.5000;0.5950;3.0708;
979.8000;0.5926;3.0660;
980.1000;0.5942;3.0660;
980.4000;0.5950;3.0636;
980.7000;0.5934;3.0636;
981.0000;0.5967;3.0780;
981.3000;0.5934;3.0756;
981.6000;0.6024;3.1020;
981.9000;0.5910;3.0780;
982.2000;0.5910;3.0828;
982.5000;0.5934;3.0876;
982.8000;0.5942;3.0948;
983.1000;0.5893;3.0900;
983.4000;0.5918;3.0900;
983.7000;0.5975;3.1092;
984.0000;0.5885;3.0900;
984.3000;0.5910;3.0996;
984.6000;0.5926;3.0996;
984.9000;0.5934;3.1116;
985.2000;0.5918;3.1020;
985.5000;0.5910;3.0996;
985.8000;0.5902;3.0948;
986.1000;0.5934;3.0996;
986.4000;0.5950;3.0996;
986.7000;0.5893;3.0828;
987.0000;0.5926;3.0900;
987.3000;0.5926;3.0852;
987.6000;0.5926;3.0756;
987.9000;0.5918;3.0756;
988.2000;0.5902;3.0732;
988.5000;0.5942;3.0828;
988.8000;0.5942;3.0900;
989.1000;0.5910;3.0828;
989.4000;0.5918;3.0876;
989.7000;0.5918;3.0852;
990.0000;0.5910;3.0924;
990.3000;0.5885;3.0876;
990.6000;0.5885;3.0828;
990.9000;0.5893;3.0828;
991.2000;0.5934;3.0828;
991.5000;0.5918;3.0804;
991.8000;0.5861;3.0780;
992.1000;0.5902;3.0924;
992.4000;0.5902;3.0924;
992.7000;0.5877;3.0828;
993.0000;0.5934;3.0900;
993.3000;0.5893;3.0732;
993.6000;0.5918;3.0828;
993.9000;0.5918;3.0804;
994.2000;0.5918;3.0876;
994.5000;0.5967;3.1020;
994.8000;0.5918;3.0852;
995.1000;0.5975;3.0900;
995.4000;0.5934;3.0684;
995.7000;0.5918;3.0660;
996.0000;0.5812;3.0468;
996.3000;0.5910;3.0756;
996.6000;0.5934;3.0756;
996.9000;0.5926;3.0708;
997.2000;0.5893;3.0684;
997.5000;0.5958;3.0852;
997.8000;0.5942;3.0828;
998.1000;0.5942;3.0852;
998.4000;0.5934;3.0852;
998.7000;0.5934;3.0804;
999.0000;0.5950;3.0780;
999.3000;0.5942;3.0852;
999.6000;0.5934;3.0852;
999.9000;0.5910;3.0804;
1000.2000;0.5885;3.0684;
1000.5000;0.5918;3.0660;
1000.8000;0.5902;3.0636;
1001.1000;0.5910;3.0804;
1001.4000;0.5918;3.0876;
1001.7000;0.5918;3.0804;
1002.0000;0.5918;3.0708;
1002.3000;0.5910;3.0732;
1002.6000;0.5902;3.0780;
1002.9000;0.5926;3.0828;
1003.2000;0.5918;3.0804;
1003.5000;0.5942;3.0900;
1003.8000;0.5918;3.0876;
1004.1000;0.5910;3.0852;
1004.4000;0.5934;3.0804;
1004.7000;0.5918;3.0828;
1005.0000;0.5902;3.0780;
1005.3000;0.5942;3.0924;
1005.6000;0.5934;3.0900;
1005.9000;0.5918;3.0780;
1006.2000;0.5902;3.0828;
1006.5000;0.5910;3.0948;
1006.8000;0.5926;3.0924;
1007.1000;0.5910;3.0828;
1007.4000;0.5926;3.0804;
1007.7000;0.5853;3.0588;
1008.0000;0.5958;3.0900;
1008.3000;0.5942;3.0804;
1008.6000;0.5934;3.0732;
1008.9000;0.5828;3.0492;
1009.2000;0.5926;3.0756;
1009.5000;0.5942;3.0780;
1009.8000;0.5934;3.0780;
1010.1000;0.5942;3.0780;
1010.4000;0.5861;3.0516;
1010.7000;0.5926;3.0660;
1011.0000;0.5926;3.0636;
1011.3000;0.5910;3.0660;
1011.6000;0.5869;3.0540;
1011.9000;0.5902;3.0564;
1012.2000;0.5910;3.0540;
1012.5000;0.5926;3.0564;
1012.8000;0.5918;3.0540;
1013.1000;0.5975;3.0756;
1013.4000;0.5910;3.0540;
1013.7000;0.5942;3.0588;
1014.0000;0.5975;3.0660;
1014.3000;0.5893;3.0492;
1014.6000;0.6015;3.0756;
1014.9000;0.5926;3.0564;
1015.2000;0.5910;3.0516;
1015.5000;0.5942;3.0588;
1015.8000;0.5934;3.0612;
1016.1000;0.5918;3.0684;
1016.4000;0.5885;3.0564;
1016.7000;0.5942;3.0708;
1017.0000;0.5877;3.0588;
1017.3000;0.5918;3.0588;
1017.6000;0.5942;3.0516;
1017.9000;0.5918;3.0564;
1018.2000;0.5926;3.0564;
1018.5000;0.5918;3.0660;
1018.8000;0.5902;3.0588;
1019.1000;0.5910;3.0612;
1019.4000;0.5926;3.0636;
1019.7000;0.5926;3.0636;
1020.0000;0.5902;3.0564;
1020.3000;0.5934;3.0636;
1020.6000;0.5934;3.0636;
1020.9000;0.5918;3.0540;
1021.2000;0.5934;3.0492;
1021.5000;0.5910;3.0444;
1021.8000;0.5910;3.0468;
1022.1000;0.5918;3.0516;
1022.4000;0.5910;3.0540;
1022.7000;0.5910;3.0684;
1023.0000;0.5926;3.0780;
1023.3000;0.5934;3.0804;
1023.6000;0.5934;3.0804;
1023.9000;0.5918;3.0756;
1024.2000;0.5934;3.0756;
1024.5000;0.5910;3.0660;
1024.8000;0.5926;3.0636;
1025.1000;0.5902;3.0612;
1025.4000;0.5910;3.0660;
1025.7000;0.5853;3.0564;
1026.0000;0.5918;3.0660;
1026.3000;0.5893;3.0660;
1026.6000;0.5975;3.0828;
1026.9000;0.5910;3.0636;
1027.2000;0.5910;3.0660;
1027.5000;0.5893;3.0612;
1027.8000;0.5918;3.0612;
1028.1000;0.5902;3.0540;
1028.4000;0.5934;3.0636;
1028.7000;0.5918;3.0636;
1029.0000;0.5918;3.0660;
1029.3000;0.5910;3.0708;
1029.6000;0.5902;3.0660;
1029.9000;0.5975;3.0804;
1030.2000;0.5934;3.0660;
1030.5000;0.5910;3.0588;
1030.8000;0.5934;3.0636;
1031.1000;0.5950;3.0804;
1031.4000;0.5926;3.0732;
1031.7000;0.5910;3.0660;
1032.0000;0.5934;3.0756;
1032.3000;0.5918;3.0756;
1032.6000;0.5902;3.0684;
1032.9000;0.5910;3.0708;
1033.2000;0.5934;3.0780;
1033.5000;0.5918;3.0732;
1033.8000;0.5910;3.0732;
1034.1000;0.5902;3.0732;
1034.4000;0.5975;3.0924;
1034.7000;0.5926;3.0708;
1035.0000;0.5958;3.0660;
1035.3000;0.5845;3.0300;
1035.6000;0.5967;3.0636;
1035.9000;0.5861;3.0492;
1036.2000;0.5910;3.0636;
1036.5000;0.5877;3.0564;
1036.8000;0.5893;3.0636;
1037.1000;0.5975;3.0804;
1037.4000;0.5918;3.0540;
1037.7000;0.5893;3.0492;
1038.0000;0.5869;3.0444;
1038.3000;0.5836;3.0372;
1038.6000;0.5918;3.0612;
1038.9000;0.5910;3.0636;
1039.2000;0.5885;3.0564;
1039.5000;0.5910;3.0612;
1039.8000;0.5902;3.0564;
1040.1000;0.5885;3.0516;
1040.4000;0.5918;3.0420;
1040.7000;0.5902;3.0444;
1041.0000;0.5902;3.0540;
1041.3000;0.5926;3.0636;
1041.6000;0.5893;3.0564;
1041.9000;0.5902;3.0516;
1042.2000;0.5926;3.0516;
1042.5000;0.5926;3.0564;
1042.8000;0.5926;3.0492;
1043.1000;0.5910;3.0516;
1043.4000;0.5918;3.0516;
1043.7000;0.5910;3.0540;
1044.0000;0.5910;3.0540;
1044.3000;0.5910;3.0564;
1044.6000;0.5918;3.0636;
1044.9000;0.5926;3.0684;
1045.2000;0.5934;3.0708;
1045.5000;0.5902;3.0732;
1045.8000;0.5918;3.0708;
1046.1000;0.5926;3.0636;
1046.4000;0.5918;3.0588;
1046.7000;0.5918;3.0588;
1047.0000;0.5902;3.0612;
1047.3000;0.5902;3.0636;
1047.6000;0.5918;3.0732;
1047.9000;0.5910;3.0684;
1048.2000;0.5918;3.0636;
1048.5000;0.5926;3.0732;
1048.8000;0.5926;3.0708;
1049.1000;0.5910;3.0636;
1049.4000;0.5902;3.0660;
1049.7000;0.5934;3.0708;
1050.0000;0.5918;3.0684;
1050.3000;0.5942;3.0804;
1050.6000;0.5934;3.0828;
1050.9000;0.5934;3.0852;
1051.2000;0.5918;3.0900;
1051.5000;0.5902;3.0852;
1051.8000;0.5999;3.1092;
1052.1000;0.5918;3.0876;
1052.4000;0.5926;3.0948;
1052.7000;0.5885;3.0780;
1053.0000;0.5885;3.0684;
1053.3000;0.5918;3.0660;
1053.6000;0.5926;3.0588;
1053.9000;0.5836;3.0540;
1054.2000;0.5918;3.0732;
1054.5000;0.5918;3.0804;
1054.8000;0.5926;3.0780;
1055.1000;0.5885;3.0684;
1055.4000;0.5950;3.0780;
1055.7000;0.5926;3.0708;
1056.0000;0.5926;3.0756;
1056.3000;0.5902;3.0780;
1056.6000;0.5910;3.0780;
1056.9000;0.5910;3.0684;
1057.2000;0.5942;3.0708;
1057.5000;0.5934;3.0684;
1057.8000;0.5910;3.0564;
1058.1000;0.5861;3.0444;
1058.4000;0.5869;3.0564;
1058.7000;0.5918;3.0708;
1059.0000;0.5853;3.0492;
1059.3000;0.5877;3.0588;
1059.6000;0.5902;3.0660;
1059.9000;0.5902;3.0684;
1060.2000;0.5910;3.0636;
1060.5000;0.5877;3.0564;
1060.8000;0.5902;3.0588;
1061.1000;0.5893;3.0636;
1061.4000;0.5893;3.0636;
1061.7000;0.5910;3.0660;
1062.0000;0.5869;3.0612;
1062.3000;0.5893;3.0636;
1062.6000;0.5910;3.0708;
1062.9000;0.5918;3.0732;
1063.2000;0.5902;3.0660;
1063.5000;0.5902;3.0684;
1063.8000;0.5910;3.0804;
1064.1000;0.5910;3.0756;
1064.4000;0.5893;3.0660;
1064.7000;0.5902;3.0660;
1065.0000;0.5902;3.0660;
1065.3000;0.5893;3.0588;
1065.6000;0.5902;3.0636;
1065.9000;0.5926;3.0660;
1066.2000;0.5902;3.0612;
1066.5000;0.5918;3.0588;
1066.8000;0.5902;3.0564;
1067.1000;0.5885;3.0492;
1067.4000;0.5918;3.0588;
1067.7000;0.5910;3.0540;
1068.0000;0.5910;3.0540;
1068.3000;0.5893;3.0612;
1068.6000;0.5885;3.0516;
1068.9000;0.5918;3.0492;
1069.2000;0.5926;3.0516;
1069.5000;0.5926;3.0492;
1069.8000;0.5926;3.0468;
1070.1000;0.5926;3.0444;
1070.4000;0.5934;3.0372;
1070.7000;0.5902;3.0396;
1071.0000;0.5885;3.0396;
1071.3000;0.5934;3.0468;
1071.6000;0.5902;3.0420;
1071.9000;0.5902;3.0444;
1072.2000;0.5885;3.0540;
1072.5000;0.5885;3.0420;
1072.8000;0.5942;3.0540;
1073.1000;0.5918;3.0540;
1073.4000;0.5918;3.0588;
1073.7000;0.5902;3.0588;
1074.0000;0.5902;3.0588;
1074.3000;0.5893;3.0588;
1074.6000;0.5902;3.0588;
1074.9000;0.5910;3.0612;
1075.2000;0.5926;3.0660;
1075.5000;0.5926;3.0636;
1075.8000;0.5885;3.0660;
1076.1000;0.5902;3.0708;
1076.4000;0.5926;3.0732;
1076.7000;0.5910;3.0708;
1077.0000;0.5902;3.0636;
1077.3000;0.5893;3.0540;
1077.6000;0.5885;3.0444;
1077.9000;0.5910;3.0516;
1078.2000;0.5893;3.0444;
1078.5000;0.5885;3.0420;
1078.8000;0.5877;3.0516;
1079.1000;0.5902;3.0516;
1079.4000;0.5893;3.0420;
1079.7000;0.5893;3.0420;
1080.0000;0.5893;3.0372;
1080.3000;0.5877;3.0348;
1080.6000;0.5893;3.0324;
1080.9000;0.5902;3.0348;
1081.2000;0.5885;3.0348;
1081.5000;0.5910;3.0444;
1081.8000;0.5918;3.0588;
1082.1000;0.5910;3.0588;
1082.4000;0.5885;3.0564;
1082.7000;0.5885;3.0636;
1083.0000;0.5910;3.0636;
1083.3000;0.5910;3.0660;
1083.6000;0.5902;3.0612;
1083.9000;0.5902;3.0636;
1084.2000;0.5910;3.0636;
1084.5000;0.5910;3.0708;
1084.8000;0.5893;3.0588;
1085.1000;0.5910;3.0684;
1085.4000;0.5926;3.0660;
1085.7000;0.5926;3.0684;
1086.0000;0.5902;3.0636;
1086.3000;0.5942;3.0708;
1086.6000;0.5910;3.0636;
1086.9000;0.5910;3.0612;
1087.2000;0.5958;3.0780;
1087.5000;0.5893;3.0684;
1087.8000;0.5902;3.0636;
1088.1000;0.5885;3.0660;
1088.4000;0.5885;3.0708;
1088.7000;0.5950;3.0804;
1089.0000;0.5893;3.0732;
1089.3000;0.5902;3.0684;
1089.6000;0.5910;3.0660;
1089.9000;0.5902;3.0588;
1090.2000;0.5942;3.0756;
1090.5000;0.5910;3.0684;
1090.8000;0.5885;3.0636;
1091.1000;0.5902;3.0684;
1091.4000;0.5926;3.0756;
1091.7000;0.5902;3.0756;
1092.0000;0.5918;3.0828;
1092.3000;0.5893;3.0828;
1092.6000;0.5885;3.0756;
1092.9000;0.5958;3.0900;
1093.2000;0.5910;3.0828;
1093.5000;0.5918;3.0828;
1093.8000;0.5877;3.0804;
1094.1000;0.5918;3.0852;
1094.4000;0.5918;3.0852;
1094.7000;0.5893;3.0876;
1095.0000;0.5902;3.0804;
1095.3000;0.5885;3.0780;
1095.6000;0.5902;3.0732;
1095.9000;0.5926;3.0780;
1096.2000;0.5902;3.0708;
1096.5000;0.5902;3.0708;
1096.8000;0.5910;3.0780;
1097.1000;0.5893;3.0852;
1097.4000;0.5885;3.0804;
1097.7000;0.5836;3.0732;
1098.0000;0.5893;3.0900;
1098.3000;0.5902;3.0852;
1098.6000;0.5885;3.0804;
1098.9000;0.5877;3.0756;
1099.2000;0.5893;3.0756;
1099.5000;0.5910;3.0804;
1099.8000;0.5910;3.0708;
1100.1000;0.5902;3.0684;
1100.4000;0.5893;3.0732;
1100.7000;0.5918;3.0756;
1101.0000;0.5910;3.0756;
1101.3000;0.5885;3.0732;
1101.6000;0.5902;3.0756;
1101.9000;0.5893;3.0732;
1102.2000;0.5902;3.0756;
1102.5000;0.5885;3.0684;
1102.8000;0.5885;3.0660;
1103.1000;0.5893;3.0684;
1103.4000;0.5893;3.0756;
1103.7000;0.5910;3.0804;
1104.0000;0.5926;3.0924;
1104.3000;0.5885;3.0804;
1104.6000;0.5926;3.0900;
1104.9000;0.5967;3.1068;
1105.2000;0.5910;3.0924;
1105.5000;0.5902;3.0948;
1105.8000;0.5910;3.0948;
1106.1000;0.5942;3.0996;
1106.4000;0.5934;3.0828;
1106.7000;0.5967;3.0852;
1107.0000;0.5910;3.0684;
1107.3000;0.5918;3.0780;
1107.6000;0.5885;3.0708;
1107.9000;0.5893;3.0876;
1108.2000;0.5902;3.0828;
1108.5000;0.5893;3.0804;
1108.8000;0.5902;3.0780;
1109.1000;0.5902;3.0804;
1109.4000;0.5893;3.0804;
1109.7000;0.5902;3.0876;
1110.0000;0.5918;3.0972;
1110.3000;0.5926;3.1068;
1110.6000;0.5910;3.1092;
1110.9000;0.5918;3.1140;
1111.2000;0.5902;3.1068;
1111.5000;0.5910;3.1044;
1111.8000;0.5910;3.1068;
1112.1000;0.5893;3.1116;
1112.4000;0.5893;3.1044;
1112.7000;0.5893;3.1020;
1113.0000;0.5902;3.0972;
1113.3000;0.5812;3.0780;
1113.6000;0.5942;3.0948;
1113.9000;0.5893;3.0876;
1114.2000;0.5902;3.0948;
1114.5000;0.5893;3.0924;
1114.8000;0.5902;3.0948;
1115.1000;0.5910;3.0924;
1115.4000;0.5885;3.0900;
1115.7000;0.5910;3.0900;
1116.0000;0.5893;3.0852;
1116.3000;0.5893;3.0804;
1116.6000;0.5910;3.0852;
1116.9000;0.5893;3.0804;
1117.2000;0.5950;3.0948;
1117.5000;0.5902;3.0900;
1117.8000;0.5877;3.0828;
1118.1000;0.5910;3.0780;
1118.4000;0.5902;3.0732;
1118.7000;0.5893;3.0756;
1119.0000;0.5902;3.0804;
1119.3000;0.5902;3.0804;
1119.6000;0.5885;3.0732;
1119.9000;0.5885;3.0684;
1120.2000;0.5893;3.0708;
1120.5000;0.5918;3.0828;
1120.8000;0.5910;3.0852;
1121.1000;0.5910;3.0876;
1121.4000;0.5902;3.0876;
1121.7000;0.5877;3.0756;
1122.0000;0.5828;3.0540;
1122.3000;0.5902;3.0852;
1122.6000;0.5902;3.0804;
1122.9000;0.5918;3.0660;
1123.2000;0.5893;3.0564;
1123.5000;0.5910;3.0636;
1123.8000;0.5893;3.0588;
1124.1000;0.5902;3.0732;
1124.4000;0.5885;3.0684;
1124.7000;0.5877;3.0660;
1125.0000;0.5918;3.0732;
1125.3000;0.5918;3.0732;
1125.6000;0.5885;3.0756;
1125.9000;0.5893;3.0684;
1126.2000;0.5902;3.0684;
1126.5000;0.5885;3.0684;
1126.8000;0.5902;3.0708;
1127.1000;0.5902;3.0684;
1127.4000;0.5902;3.0660;
1127.7000;0.5885;3.0636;
1128.0000;0.5877;3.0588;
1128.3000;0.5902;3.0660;
1128.6000;0.5885;3.0636;
1128.9000;0.5893;3.0708;
1129.2000;0.5958;3.1044;
1129.5000;0.5893;3.0900;
1129.8000;0.5893;3.0900;
1130.1000;0.5869;3.0828;
1130.4000;0.5893;3.0948;
1130.7000;0.5926;3.0972;
1131.0000;0.5893;3.0948;
1131.3000;0.5926;3.0972;
1131.6000;0.5902;3.0828;
1131.9000;0.5885;3.0828;
1132.2000;0.5885;3.0852;
1132.5000;0.5999;3.1116;
1132.8000;0.5853;3.0804;
1133.1000;0.5885;3.0828;
1133.4000;0.5893;3.0876;
1133.7000;0.5893;3.0876;
1134.0000;0.5902;3.0876;
1134.3000;0.5893;3.0900;
1134.6000;0.5861;3.0924;
1134.9000;0.5902;3.0972;
1135.2000;0.5902;3.0948;
1135.5000;0.5885;3.0996;
1135.8000;0.5902;3.0996;
1136.1000;0.5893;3.0996;
1136.4000;0.5950;3.1092;
1136.7000;0.5918;3.0924;
1137.0000;0.5918;3.0924;
1137.3000;0.5893;3.0804;
1137.6000;0.5910;3.0852;
1137.9000;0.5893;3.0732;
1138.2000;0.5877;3.0660;
1138.5000;0.5885;3.0660;
1138.8000;0.5902;3.0732;
1139.1000;0.5893;3.0684;
1139.4000;0.5885;3.0564;
1139.7000;0.5893;3.0636;
1140.0000;0.5910;3.0684;
1140.3000;0.5902;3.0636;
1140.6000;0.5885;3.0660;
1140.9000;0.5934;3.0828;
1141.2000;0.5893;3.0876;
1141.5000;0.5893;3.0828;
1141.8000;0.5902;3.0780;
1142.1000;0.5877;3.0828;
1142.4000;0.5885;3.0852;
1142.7000;0.5885;3.0828;
1143.0000;0.5902;3.0876;
1143.3000;0.5861;3.0756;
1143.6000;0.5902;3.0828;
1143.9000;0.5893;3.0900;
1144.2000;0.5967;3.1164;
1144.5000;0.5902;3.0996;
1144.8000;0.5893;3.1020;
1145.1000;0.5877;3.0972;
1145.4000;0.5893;3.1020;
1145.7000;0.5893;3.0996;
1146.0000;0.5877;3.0948;
1146.3000;0.5902;3.0996;
1146.6000;0.5885;3.0876;
1146.9000;0.5893;3.0876;
1147.2000;0.5902;3.0948;
1147.5000;0.5902;3.0876;
1147.8000;0.5877;3.0852;
1148.1000;0.5926;3.0828;
1148.4000;0.5877;3.0804;
1148.7000;0.5877;3.0804;
1149.0000;0.5885;3.0804;
1149.3000;0.5885;3.0780;
1149.6000;0.5885;3.0732;
1149.9000;0.5877;3.0732;
1150.2000;0.5967;3.0948;
1150.5000;0.5885;3.0732;
1150.8000;0.5885;3.0708;
1151.1000;0.5869;3.0612;
1151.4000;0.5902;3.0660;
1151.7000;0.5902;3.0660;
1152.0000;0.5853;3.0516;
1152.3000;0.5958;3.0780;
1152.6000;0.5885;3.0708;
1152.9000;0.5861;3.0732;
1153.2000;0.5934;3.0900;
1153.5000;0.5902;3.0732;
1153.8000;0.5877;3.0780;
1154.1000;0.5877;3.0852;
1154.4000;0.5861;3.0756;
1154.7000;0.5893;3.0852;
1155.0000;0.5877;3.0804;
1155.3000;0.5902;3.0876;
1155.6000;0.5902;3.0852;
1155.9000;0.5902;3.0900;
1156.2000;0.5902;3.0900;
1156.5000;0.5885;3.0948;
1156.8000;0.5910;3.0948;
1157.1000;0.5869;3.0876;
1157.4000;0.5910;3.0876;
1157.7000;0.5877;3.0828;
1158.0000;0.5877;3.0804;
1158.3000;0.5877;3.0804;
1158.6000;0.5869;3.0756;
1158.9000;0.5877;3.0732;
1159.2000;0.5910;3.0852;
1159.5000;0.5893;3.0852;
1159.8000;0.5869;3.0804;
1160.1000;0.5877;3.0852;
1160.4000;0.5893;3.0804;
1160.7000;0.5902;3.0804;
1161.0000;0.5902;3.0780;
1161.3000;0.5885;3.0780;
1161.6000;0.5893;3.0876;
1161.9000;0.5893;3.0900;
1162.2000;0.5877;3.0828;
1162.5000;0.5869;3.0804;
1162.8000;0.5869;3.0804;
1163.1000;0.5902;3.0828;
1163.4000;0.5877;3.0708;
1163.7000;0.5869;3.0636;
1164.0000;0.5902;3.0660;
1164.3000;0.5902;3.0684;
1164.6000;0.5902;3.0732;
1164.9000;0.5902;3.0732;
1165.2000;0.5893;3.0804;
1165.5000;0.5885;3.0804;
1165.8000;0.5893;3.0780;
1166.1000;0.5893;3.0828;
1166.4000;0.5885;3.0780;
1166.7000;0.5885;3.0828;
1167.0000;0.5877;3.0804;
1167.3000;0.5877;3.0780;
1167.6000;0.5902;3.0828;
1167.9000;0.5885;3.0708;
1168.2000;0.5918;3.0756;
1168.5000;0.5893;3.0636;
1168.8000;0.5918;3.0708;
1169.1000;0.5926;3.0780;
1169.4000;0.5902;3.0828;
1169.7000;0.5910;3.0732;
1170.0000;0.5828;3.0540;
1170.3000;0.5885;3.0732;
1170.6000;0.5885;3.0804;
1170.9000;0.5885;3.0756;
1171.2000;0.5877;3.0732;
1171.5000;0.5893;3.0828;
1171.8000;0.5902;3.0828;
1172.1000;0.5885;3.0756;
1172.4000;0.5877;3.0804;
1172.7000;0.5869;3.0780;
1173.0000;0.5926;3.0852;
1173.3000;0.5877;3.0804;
1173.6000;0.5910;3.0924;
1173.9000;0.5877;3.0852;
1174.2000;0.5918;3.0852;
1174.5000;0.5877;3.0756;
1174.8000;0.5885;3.0756;
1175.1000;0.5885;3.0660;
1175.4000;0.5918;3.0684;
1175.7000;0.5926;3.0780;
1176.0000;0.5910;3.0732;
1176.3000;0.5910;3.0708;
1176.6000;0.5893;3.0732;
1176.9000;0.5910;3.0804;
1177.2000;0.5893;3.0828;
1177.5000;0.5885;3.0828;
1177.8000;0.5893;3.0804;
1178.1000;0.5869;3.0708;
1178.4000;0.5958;3.1044;
1178.7000;0.5893;3.0876;
1179.0000;0.5902;3.0924;
1179.3000;0.5950;3.0948;
1179.6000;0.5942;3.0972;
1179.9000;0.5893;3.0876;
1180.2000;0.5885;3.0876;
1180.5000;0.5885;3.0804;
1180.8000;0.5902;3.0876;
1181.1000;0.5910;3.0900;
1181.4000;0.5877;3.0852;
1181.7000;0.5893;3.0852;
1182.0000;0.5902;3.0780;
1182.3000;0.5877;3.0780;
1182.6000;0.5910;3.0780;
1182.9000;0.5861;3.0732;
1183.2000;0.5910;3.0828;
1183.5000;0.5902;3.0780;
1183.8000;0.5910;3.0780;
1184.1000;0.5918;3.0852;
1184.4000;0.5902;3.0828;
1184.7000;0.5893;3.0876;
1185.0000;0.5902;3.0900;
1185.3000;0.5902;3.0900;
1185.6000;0.5885;3.0852;
1185.9000;0.5902;3.0852;
1186.2000;0.5869;3.0780;
1186.5000;0.5893;3.0876;
1186.8000;0.5853;3.0756;
1187.1000;0.5893;3.0804;
1187.4000;0.5877;3.0732;
1187.7000;0.5788;3.0444;
1188.0000;0.5934;3.0708;
1188.3000;0.5885;3.0684;
1188.6000;0.5869;3.0660;
1188.9000;0.5910;3.0588;
1189.2000;0.5918;3.0684;
1189.5000;0.5902;3.0660;
1189.8000;0.5885;3.0636;
1190.1000;0.5893;3.0684;
1190.4000;0.5869;3.0660;
1190.7000;0.5885;3.0660;
1191.0000;0.5877;3.0612;
1191.3000;0.5877;3.0564;
1191.6000;0.5877;3.0516;
1191.9000;0.5885;3.0612;
1192.2000;0.5910;3.0780;
1192.5000;0.5885;3.0660;
1192.8000;0.5869;3.0612;
1193.1000;0.5885;3.0708;
1193.4000;0.5885;3.0684;
1193.7000;0.5877;3.0588;
1194.0000;0.5820;3.0444;
1194.3000;0.5853;3.0492;
1194.6000;0.5869;3.0588;
1194.9000;0.5958;3.0852;
1195.2000;0.5893;3.0732;
1195.5000;0.5885;3.0708;
1195.8000;0.5885;3.0804;
1196.1000;0.5893;3.0756;
1196.4000;0.5902;3.0780;
1196.7000;0.5877;3.0780;
1197.0000;0.5893;3.0708;
1197.3000;0.5877;3.0732;
1197.6000;0.5885;3.0684;
1197.9000;0.5885;3.0708;
1198.2000;0.5877;3.0732;
1198.5000;0.5942;3.0900;
1198.8000;0.5869;3.0780;
1199.1000;0.5877;3.0756;
1199.4000;0.5926;3.0852;
1199.7000;0.5902;3.0732;
1200.0000;0.5910;3.0708;
1200.3000;0.5877;3.0660;
1200.6000;0.5902;3.0804;
1200.9000;0.5869;3.0684;
1201.2000;0.5893;3.0708;
1201.5000;0.5885;3.0732;
1201.8000;0.5893;3.0732;
1202.1000;0.5902;3.0828;
1202.4000;0.5869;3.0756;
1202.7000;0.5869;3.0804;
1203.0000;0.5869;3.0732;
1203.3000;0.5885;3.0684;
1203.6000;0.5926;3.0852;
1203.9000;0.5893;3.0756;
1204.2000;0.5877;3.0708;
1204.5000;0.5902;3.0684;
1204.8000;0.5877;3.0588;
1205.1000;0.5885;3.0564;
1205.4000;0.5869;3.0612;
1205.7000;0.5877;3.0636;
1206.0000;0.5869;3.0756;
1206.3000;0.5885;3.0828;
1206.6000;0.5934;3.0972;
1206.9000;0.5885;3.0828;
1207.2000;0.5861;3.0684;
1207.5000;0.5893;3.0780;
1207.8000;0.5885;3.0732;
1208.1000;0.5877;3.0708;
1208.4000;0.5942;3.0756;
1208.7000;0.5885;3.0660;
1209.0000;0.5869;3.0708;
1209.3000;0.5877;3.0732;
1209.6000;0.5877;3.0732;
1209.9000;0.5877;3.0756;
1210.2000;0.5885;3.0780;
1210.5000;0.5885;3.0756;
1210.8000;0.5845;3.0636;
1211.1000;0.5845;3.0708;
1211.4000;0.5877;3.0780;
1211.7000;0.5902;3.0732;
1212.0000;0.5877;3.0708;
1212.3000;0.5910;3.0852;
1212.6000;0.5910;3.0804;
1212.9000;0.5950;3.0900;
1213.2000;0.5885;3.0756;
1213.5000;0.5910;3.0828;
1213.8000;0.5877;3.0804;
1214.1000;0.5877;3.0804;
1214.4000;0.5861;3.0780;
1214.7000;0.5869;3.0780;
1215.0000;0.5942;3.0972;
1215.3000;0.5877;3.0780;
1215.6000;0.5934;3.0876;
1215.9000;0.5869;3.0660;
1216.2000;0.5902;3.0756;
1216.5000;0.5926;3.0756;
1216.8000;0.5885;3.0660;
1217.1000;0.5885;3.0516;
1217.4000;0.5885;3.0516;
1217.7000;0.5902;3.0588;
1218.0000;0.5902;3.0612;
1218.3000;0.5902;3.0684;
1218.6000;0.5861;3.0660;
1218.9000;0.5861;3.0708;
1219.2000;0.5910;3.0876;
1219.5000;0.5877;3.0780;
1219.8000;0.5861;3.0780;
1220.1000;0.5958;3.0996;
1220.4000;0.5885;3.0732;
1220.7000;0.5877;3.0612;
1221.0000;0.5861;3.0588;
1221.3000;0.5885;3.0660;
1221.6000;0.5893;3.0660;
1221.9000;0.5869;3.0564;
1222.2000;0.5853;3.0612;
1222.5000;0.5902;3.0756;
1222.8000;0.5885;3.0732;
1223.1000;0.5869;3.0756;
1223.4000;0.5869;3.0780;
1223.7000;0.5820;3.0588;
1224.0000;0.5893;3.0780;
1224.3000;0.5910;3.0900;
1224.6000;0.5877;3.0828;
1224.9000;0.5885;3.0876;
1225.2000;0.5853;3.0828;
1225.5000;0.5893;3.0852;
1225.8000;0.5861;3.0804;
1226.1000;0.5836;3.0804;
1226.4000;0.5885;3.0948;
1226.7000;0.5902;3.0996;
1227.0000;0.5877;3.0876;
1227.3000;0.5877;3.0804;
1227.6000;0.5893;3.0876;
1227.9000;0.5902;3.0924;
1228.2000;0.5788;3.0660;
1228.5000;0.5902;3.0780;
1228.8000;0.5812;3.0564;
1229.1000;0.5877;3.0708;
1229.4000;0.5885;3.0756;
1229.7000;0.5902;3.0756;
1230.0000;0.5885;3.0780;
1230.3000;0.5861;3.0732;
1230.6000;0.5893;3.0852;
1230.9000;0.5885;3.0828;
1231.2000;0.5877;3.0780;
1231.5000;0.5877;3.0708;
1231.8000;0.5885;3.0780;
1232.1000;0.5885;3.0852;
1232.4000;0.5877;3.0900;
1232.7000;0.5902;3.0876;
1233.0000;0.5885;3.0828;
1233.3000;0.5885;3.0804;
1233.6000;0.5869;3.0756;
1233.9000;0.5861;3.0636;
1234.2000;0.5885;3.0756;
1234.5000;0.5869;3.0780;
1234.8000;0.5869;3.0876;
1235.1000;0.5885;3.1044;
1235.4000;0.5885;3.0972;
1235.7000;0.5877;3.0924;
1236.0000;0.5861;3.0804;
1236.3000;0.5877;3.0828;
1236.6000;0.5869;3.0804;
1236.9000;0.5942;3.0996;
1237.2000;0.5828;3.0588;
1237.5000;0.5869;3.0564;
1237.8000;0.5869;3.0540;
1238.1000;0.5942;3.0756;
1238.4000;0.5877;3.0612;
1238.7000;0.5950;3.0756;
1239.0000;0.5869;3.0684;
1239.3000;0.5885;3.0708;
1239.6000;0.5885;3.0684;
1239.9000;0.5877;3.0636;
1240.2000;0.5877;3.0708;
1240.5000;0.5910;3.0900;
1240.8000;0.5845;3.0780;
1241.1000;0.5845;3.0756;
1241.4000;0.5877;3.0780;
1241.7000;0.5885;3.0756;
1242.0000;0.5861;3.0612;
1242.3000;0.5869;3.0612;
1242.6000;0.5869;3.0708;
1242.9000;0.5869;3.0780;
1243.2000;0.5877;3.0828;
1243.5000;0.5869;3.0804;
1243.8000;0.5869;3.0780;
1244.1000;0.5893;3.0828;
1244.4000;0.5902;3.0900;
1244.7000;0.5877;3.0828;
1245.0000;0.5836;3.0708;
1245.3000;0.5885;3.0804;
1245.6000;0.5869;3.0828;
1245.9000;0.5902;3.0924;
1246.2000;0.5918;3.0972;
1246.5000;0.5902;3.0948;
1246.8000;0.5877;3.0804;
1247.1000;0.5885;3.0756;
1247.4000;0.5885;3.0828;
1247.7000;0.5812;3.0636;
1248.0000;0.5861;3.0708;
1248.3000;0.5869;3.0756;
1248.6000;0.5845;3.0828;
1248.9000;0.5877;3.0852;
1249.2000;0.5869;3.0804;
1249.5000;0.5893;3.0900;
1249.8000;0.5861;3.0876;
1250.1000;0.5861;3.0828;
1250.4000;0.5885;3.1020;
1250.7000;0.5893;3.0996;
1251.0000;0.5885;3.1020;
1251.3000;0.5902;3.1092;
1251.6000;0.5885;3.0996;
1251.9000;0.5885;3.0948;
1252.2000;0.5836;3.0756;
1252.5000;0.5902;3.0900;
1252.8000;0.5869;3.0804;
1253.1000;0.5861;3.0732;
1253.4000;0.5885;3.0732;
1253.7000;0.5893;3.0756;
1254.0000;0.5893;3.0780;
1254.3000;0.5885;3.0684;
1254.6000;0.5926;3.0828;
1254.9000;0.5910;3.0756;
1255.2000;0.5869;3.0708;
1255.5000;0.5902;3.0780;
1255.8000;0.5910;3.0828;
1256.1000;0.5910;3.0852;
1256.4000;0.5877;3.0756;
1256.7000;0.5869;3.0756;
1257.0000;0.5910;3.0876;
1257.3000;0.5869;3.0804;
1257.6000;0.5885;3.0804;
1257.9000;0.5877;3.0804;
1258.2000;0.5869;3.0804;
1258.5000;0.5885;3.0948;
1258.8000;0.5958;3.1188;
1259.1000;0.5861;3.0948;
1259.4000;0.5885;3.1020;
1259.7000;0.5885;3.0996;
1260.0000;0.5820;3.0708;
1260.3000;0.5861;3.0852;
1260.6000;0.5885;3.0924;
1260.9000;0.5885;3.0900;
1261.2000;0.5869;3.0924;
1261.5000;0.5910;3.0948;
1261.8000;0.5967;3.1092;
1262.1000;0.5910;3.0996;
1262.4000;0.5869;3.0876;
1262.7000;0.5877;3.0924;
1263.0000;0.5902;3.0972;
1263.3000;0.5910;3.0948;
1263.6000;0.5869;3.0804;
1263.9000;0.5902;3.0924;
1264.2000;0.5877;3.0828;
1264.5000;0.5845;3.0756;
1264.8000;0.5869;3.0828;
1265.1000;0.5845;3.0780;
1265.4000;0.5877;3.0780;
1265.7000;0.5869;3.0924;
1266.0000;0.5885;3.1044;
1266.3000;0.5885;3.1044;
1266.6000;0.5853;3.0996;
1266.9000;0.5934;3.1164;
1267.2000;0.5885;3.0996;
1267.5000;0.5861;3.0900;
1267.8000;0.5877;3.0852;
1268.1000;0.5845;3.0708;
1268.4000;0.5942;3.0900;
1268.7000;0.5877;3.0852;
1269.0000;0.5836;3.0780;
1269.3000;0.5861;3.0780;
1269.6000;0.5853;3.0780;
1269.9000;0.5885;3.0732;
1270.2000;0.5934;3.0804;
1270.5000;0.5885;3.0684;
1270.8000;0.5893;3.0732;
1271.1000;0.5902;3.0756;
1271.4000;0.5845;3.0708;
1271.7000;0.5885;3.0780;
1272.0000;0.5877;3.0804;
1272.3000;0.5893;3.0756;
1272.6000;0.5893;3.0804;
1272.9000;0.5885;3.0804;
1273.2000;0.5885;3.0780;
1273.5000;0.5869;3.0732;
1273.8000;0.5869;3.0732;
1274.1000;0.5861;3.0732;
1274.4000;0.5869;3.0804;
1274.7000;0.5885;3.0924;
1275.0000;0.5885;3.0900;
1275.3000;0.5877;3.0876;
1275.6000;0.5877;3.0900;
1275.9000;0.5893;3.0924;
1276.2000;0.5877;3.0852;
1276.5000;0.5885;3.0828;
1276.8000;0.5885;3.0804;
1277.1000;0.5902;3.0804;
1277.4000;0.5885;3.0804;
1277.7000;0.5869;3.0708;
1278.0000;0.5869;3.0660;
1278.3000;0.5926;3.0828;
1278.6000;0.5885;3.0804;
1278.9000;0.5893;3.0924;
1279.2000;0.5893;3.0900;
1279.5000;0.5893;3.0804;
1279.8000;0.5869;3.0780;
1280.1000;0.5885;3.0852;
1280.4000;0.5869;3.0780;
1280.7000;0.5869;3.0852;
1281.0000;0.5942;3.1044;
1281.3000;0.5869;3.0852;
1281.6000;0.5893;3.0900;
1281.9000;0.5893;3.0948;
1282.2000;0.5877;3.0876;
1282.5000;0.5893;3.0876;
1282.8000;0.5934;3.0852;
1283.1000;0.5877;3.0636;
1283.4000;0.5861;3.0612;
1283.7000;0.5885;3.0684;
1284.0000;0.5828;3.0540;
1284.3000;0.5877;3.0684;
1284.6000;0.5893;3.0732;
1284.9000;0.5893;3.0828;
1285.2000;0.5885;3.0804;
1285.5000;0.5885;3.0732;
1285.8000;0.5877;3.0708;
1286.1000;0.5885;3.0684;
1286.4000;0.5885;3.0612;
1286.7000;0.5877;3.0636;
1287.0000;0.5869;3.0636;
1287.3000;0.5877;3.0636;
1287.6000;0.5902;3.0708;
1287.9000;0.5893;3.0780;
1288.2000;0.5902;3.0780;
1288.5000;0.5861;3.0756;
1288.8000;0.5885;3.0828;
1289.1000;0.5877;3.0756;
1289.4000;0.5877;3.0756;
1289.7000;0.5869;3.0708;
1290.0000;0.5885;3.0660;
1290.3000;0.5902;3.0732;
1290.6000;0.5893;3.0756;
1290.9000;0.5877;3.0780;
1291.2000;0.5877;3.0876;
1291.5000;0.5893;3.0876;
1291.8000;0.5861;3.0852;
1292.1000;0.5877;3.0876;
1292.4000;0.5853;3.0732;
1292.7000;0.5877;3.0780;
1293.0000;0.5877;3.0756;
1293.3000;0.5877;3.0732;
1293.6000;0.5869;3.0780;
1293.9000;0.5869;3.0852;
1294.2000;0.5877;3.0900;
1294.5000;0.5869;3.0948;
1294.8000;0.5877;3.0804;
1295.1000;0.5877;3.0828;
1295.4000;0.5926;3.0948;
1295.7000;0.5869;3.0852;
1296.0000;0.5893;3.0828;
1296.3000;0.5877;3.0804;
1296.6000;0.5893;3.0780;
1296.9000;0.5820;3.0636;
1297.2000;0.5877;3.0756;
1297.5000;0.5877;3.0756;
1297.8000;0.5885;3.0852;
1298.1000;0.5861;3.0948;
1298.4000;0.5861;3.0924;
1298.7000;0.5877;3.0972;
1299.0000;0.5877;3.0972;
1299.3000;0.5902;3.0972;
1299.6000;0.5869;3.0924;
1299.9000;0.5853;3.0876;
1300.2000;0.5877;3.0924;
1300.5000;0.5877;3.0948;
1300.8000;0.5902;3.0948;
1301.1000;0.5877;3.0828;
1301.4000;0.5893;3.0804;
1301.7000;0.5918;3.0828;
1302.0000;0.5885;3.0756;
1302.3000;0.5869;3.0660;
1302.6000;0.5869;3.0660;
1302.9000;0.5869;3.0732;
1303.2000;0.5869;3.0828;
1303.5000;0.5869;3.0876;
1303.8000;0.5861;3.0900;
1304.1000;0.5861;3.0852;
1304.4000;0.5869;3.0876;
1304.7000;0.5869;3.0804;
1305.0000;0.5893;3.0900;
1305.3000;0.5877;3.0756;
1305.6000;0.5877;3.0732;
1305.9000;0.5877;3.0708;
1306.2000;0.5861;3.0684;
1306.5000;0.5893;3.0732;
1306.8000;0.5902;3.0732;
1307.1000;0.5869;3.0708;
1307.4000;0.5869;3.0636;
1307.7000;0.5861;3.0636;
1308.0000;0.5853;3.0588;
1308.3000;0.5893;3.0636;
1308.6000;0.5869;3.0540;
1308.9000;0.5893;3.0612;
1309.2000;0.5869;3.0588;
1309.5000;0.5869;3.0756;
1309.8000;0.5861;3.0828;
1310.1000;0.5861;3.0852;
1310.4000;0.5861;3.0900;
1310.7000;0.5869;3.0996;
1311.0000;0.5885;3.1020;
1311.3000;0.5885;3.0972;
1311.6000;0.5877;3.0972;
1311.9000;0.5877;3.0852;
1312.2000;0.5877;3.0876;
1312.5000;0.5853;3.0852;
1312.8000;0.5869;3.0924;
1313.1000;0.5877;3.0876;
1313.4000;0.5861;3.0900;
1313.7000;0.5845;3.0804;
1314.0000;0.5877;3.0828;
1314.3000;0.5885;3.0876;
1314.6000;0.5877;3.0876;
1314.9000;0.5877;3.0852;
1315.2000;0.5877;3.0828;
1315.5000;0.5885;3.0900;
1315.8000;0.5893;3.0900;
1316.1000;0.5869;3.0804;
1316.4000;0.5877;3.0852;
1316.7000;0.5885;3.0924;
1317.0000;0.5877;3.0924;
1317.3000;0.5869;3.0852;
1317.6000;0.5869;3.0924;
1317.9000;0.5771;3.0636;
1318.2000;0.5885;3.0948;
1318.5000;0.5869;3.0900;
1318.8000;0.5861;3.0852;
1319.1000;0.5885;3.0924;
1319.4000;0.5885;3.0876;
1319.7000;0.5877;3.0852;
1320.0000;0.5885;3.0852;
1320.3000;0.5845;3.0732;
1320.6000;0.5902;3.0828;
1320.9000;0.5926;3.0828;
1321.2000;0.5877;3.0684;
1321.5000;0.5877;3.0756;
1321.8000;0.5877;3.0708;
1322.1000;0.5828;3.0636;
1322.4000;0.5869;3.0708;
1322.7000;0.5869;3.0684;
1323.0000;0.5861;3.0708;
1323.3000;0.5869;3.0636;
1323.6000;0.5869;3.0612;
1323.9000;0.5836;3.0540;
1324.2000;0.5877;3.0684;
1324.5000;0.5877;3.0708;
1324.8000;0.5869;3.0660;
1325.1000;0.5861;3.0636;
1325.4000;0.5853;3.0732;
1325.7000;0.5861;3.0780;
1326.0000;0.5877;3.0828;
1326.3000;0.5853;3.0828;
1326.6000;0.5918;3.0948;
1326.9000;0.5853;3.0804;
1327.2000;0.5877;3.0876;
1327.5000;0.5861;3.0780;
1327.8000;0.5869;3.0780;
1328.1000;0.5861;3.0756;
1328.4000;0.5877;3.0804;
1328.7000;0.5861;3.0732;
1329.0000;0.5861;3.0708;
1329.3000;0.5885;3.0780;
1329.6000;0.5869;3.0756;
1329.9000;0.5869;3.0780;
1330.2000;0.5820;3.0588;
1330.5000;0.5877;3.0708;
1330.8000;0.5861;3.0660;
1331.1000;0.5836;3.0660;
1331.4000;0.5869;3.0780;
1331.7000;0.5934;3.0948;
1332.0000;0.5861;3.0900;
1332.3000;0.5885;3.0924;
1332.6000;0.5869;3.0900;
1332.9000;0.5877;3.0852;
1333.2000;0.5869;3.0948;
1333.5000;0.5869;3.0876;
1333.8000;0.5869;3.0852;
1334.1000;0.5869;3.0828;
1334.4000;0.5861;3.0804;
1334.7000;0.5885;3.0780;
1335.0000;0.5861;3.0708;
1335.3000;0.5845;3.0636;
1335.6000;0.5853;3.0732;
1335.9000;0.5804;3.0660;
1336.2000;0.5934;3.0876;
1336.5000;0.5926;3.0876;
1336.8000;0.5877;3.0876;
1337.1000;0.5828;3.0876;
1337.4000;0.5853;3.0900;
1337.7000;0.5926;3.1164;
1338.0000;0.5869;3.1068;
1338.3000;0.5877;3.1020;
1338.6000;0.5893;3.1068;
1338.9000;0.5950;3.1164;
1339.2000;0.5877;3.0924;
1339.5000;0.5902;3.0852;
1339.8000;0.5877;3.0804;
1340.1000;0.5893;3.0732;
1340.4000;0.5877;3.0804;
1340.7000;0.5869;3.0756;
1341.0000;0.5893;3.0876;
1341.3000;0.5877;3.0900;
1341.6000;0.5861;3.0828;
1341.9000;0.5812;3.0684;
1342.2000;0.5893;3.0876;
1342.5000;0.5926;3.0948;
1342.8000;0.5845;3.0756;
1343.1000;0.5853;3.0828;
1343.4000;0.5861;3.0900;
1343.7000;0.5885;3.0924;
1344.0000;0.5885;3.0900;
1344.3000;0.5869;3.0780;
1344.6000;0.5861;3.0756;
1344.9000;0.5861;3.0732;
1345.2000;0.5861;3.0780;
1345.5000;0.5861;3.0804;
1345.8000;0.5877;3.0924;
1346.1000;0.5861;3.0756;
1346.4000;0.5836;3.0780;
1346.7000;0.5853;3.0900;
1347.0000;0.5869;3.0948;
1347.3000;0.5910;3.1020;
1347.6000;0.5861;3.0828;
1347.9000;0.5861;3.0828;
1348.2000;0.5853;3.0852;
1348.5000;0.5869;3.0876;
1348.8000;0.5853;3.0828;
1349.1000;0.5861;3.0852;
1349.4000;0.5861;3.0732;
1349.7000;0.5877;3.0828;
1350.0000;0.5902;3.0876;
1350.3000;0.5861;3.0780;
1350.6000;0.5877;3.0732;
1350.9000;0.5853;3.0660;
1351.2000;0.5893;3.0732;
1351.5000;0.5893;3.0756;
1351.8000;0.5926;3.0804;
1352.1000;0.5861;3.0636;
1352.4000;0.5885;3.0780;
1352.7000;0.5869;3.0684;
1353.0000;0.5861;3.0540;
1353.3000;0.5877;3.0516;
1353.6000;0.5861;3.0540;
1353.9000;0.5877;3.0492;
1354.2000;0.5861;3.0540;
1354.5000;0.5877;3.0588;
1354.8000;0.5828;3.0444;
1355.1000;0.5885;3.0660;
1355.4000;0.5885;3.0756;
1355.7000;0.5877;3.0756;
1356.0000;0.5861;3.0756;
1356.3000;0.5877;3.0828;
1356.6000;0.5845;3.0756;
1356.9000;0.5877;3.0756;
1357.2000;0.5869;3.0708;
1357.5000;0.5877;3.0636;
1357.8000;0.5950;3.0852;
1358.1000;0.5934;3.0732;
1358.4000;0.5861;3.0564;
1358.7000;0.5877;3.0516;
1359.0000;0.5861;3.0516;
1359.3000;0.5885;3.0564;
1359.6000;0.5885;3.0612;
1359.9000;0.5893;3.0612;
1360.2000;0.5877;3.0588;
1360.5000;0.5893;3.0708;
1360.8000;0.5869;3.0708;
1361.1000;0.5869;3.0660;
1361.4000;0.5893;3.0732;
1361.7000;0.5877;3.0588;
1362.0000;0.5869;3.0588;
1362.3000;0.5845;3.0492;
1362.6000;0.5877;3.0612;
1362.9000;0.5877;3.0540;
1363.2000;0.5861;3.0564;
1363.5000;0.5861;3.0588;
1363.8000;0.5861;3.0660;
1364.1000;0.5869;3.0756;
1364.4000;0.5861;3.0756;
1364.7000;0.5861;3.0756;
1365.0000;0.5869;3.0804;
1365.3000;0.5861;3.0804;
1365.6000;0.5893;3.0780;
1365.9000;0.5877;3.0708;
1366.2000;0.5869;3.0732;
1366.5000;0.5902;3.0732;
1366.8000;0.5869;3.0684;
1367.1000;0.5869;3.0732;
1367.4000;0.5861;3.0708;
1367.7000;0.5853;3.0636;
1368.0000;0.5885;3.0660;
1368.3000;0.5869;3.0588;
1368.6000;0.5861;3.0708;
1368.9000;0.5861;3.0708;
1369.2000;0.5869;3.0684;
1369.5000;0.5869;3.0708;
1369.8000;0.5853;3.0732;
1370.1000;0.5869;3.0684;
1370.4000;0.5877;3.0732;
1370.7000;0.5877;3.0684;
1371.0000;0.5869;3.0708;
1371.3000;0.5869;3.0780;
1371.6000;0.5877;3.0876;
1371.9000;0.5853;3.0756;
1372.2000;0.5877;3.0780;
1372.5000;0.5877;3.0828;
1372.8000;0.5893;3.0876;
1373.1000;0.5853;3.0852;
1373.4000;0.5861;3.0852;
1373.7000;0.5853;3.0780;
1374.0000;0.5877;3.0756;
1374.3000;0.5869;3.0732;
1374.6000;0.5836;3.0732;
1374.9000;0.5845;3.0900;
1375.2000;0.5853;3.0780;
1375.5000;0.5877;3.0852;
1375.8000;0.5828;3.0732;
1376.1000;0.5828;3.0756;
1376.4000;0.5861;3.0876;
1376.7000;0.5869;3.0828;
1377.0000;0.5885;3.0876;
1377.3000;0.5869;3.0780;
1377.6000;0.5869;3.0732;
1377.9000;0.5885;3.0732;
1378.2000;0.5885;3.0684;
1378.5000;0.5861;3.0684;
1378.8000;0.5869;3.0660;
1379.1000;0.5877;3.0684;
1379.4000;0.5861;3.0636;
1379.7000;0.5869;3.0708;
1380.0000;0.5885;3.0732;
1380.3000;0.5893;3.0804;
1380.6000;0.5893;3.0828;
1380.9000;0.5877;3.0852;
1381.2000;0.5869;3.0900;
1381.5000;0.5869;3.0924;
1381.8000;0.5877;3.0924;
1382.1000;0.5869;3.0852;
1382.4000;0.5861;3.0852;
1382.7000;0.5885;3.0876;
1383.0000;0.5877;3.0780;
1383.3000;0.5869;3.0756;
1383.6000;0.5885;3.0660;
1383.9000;0.5869;3.0684;
1384.2000;0.5877;3.0708;
1384.5000;0.5934;3.0804;
1384.8000;0.5861;3.0540;
1385.1000;0.5861;3.0540;
1385.4000;0.5877;3.0588;
1385.7000;0.5861;3.0540;
1386.0000;0.5853;3.0468;
1386.3000;0.5910;3.0636;
1386.6000;0.5877;3.0588;
1386.9000;0.5893;3.0636;
1387.2000;0.5853;3.0588;
1387.5000;0.5885;3.0660;
1387.8000;0.5885;3.0636;
1388.1000;0.5877;3.0636;
1388.4000;0.5845;3.0612;
1388.7000;0.5902;3.0756;
1389.0000;0.5869;3.0636;
1389.3000;0.5877;3.0636;
1389.6000;0.5853;3.0612;
1389.9000;0.5869;3.0588;
1390.2000;0.5820;3.0492;
1390.5000;0.5893;3.0756;
1390.8000;0.5869;3.0636;
1391.1000;0.5877;3.0588;
1391.4000;0.5853;3.0588;
1391.7000;0.5861;3.0660;
1392.0000;0.5877;3.0612;
1392.3000;0.5877;3.0660;
1392.6000;0.5861;3.0612;
1392.9000;0.5869;3.0612;
1393.2000;0.5877;3.0540;
1393.5000;0.5861;3.0564;
1393.8000;0.5845;3.0516;
1394.1000;0.5869;3.0660;
1394.4000;0.5853;3.0636;
1394.7000;0.5861;3.0636;
1395.0000;0.5861;3.0612;
1395.3000;0.5877;3.0708;
1395.6000;0.5885;3.0756;
1395.9000;0.5861;3.0684;
1396.2000;0.5877;3.0684;
1396.5000;0.5893;3.0636;
1396.8000;0.5918;3.0684;
1397.1000;0.5902;3.0588;
1397.4000;0.5853;3.0516;
1397.7000;0.5885;3.0612;
1398.0000;0.5869;3.0612;
1398.3000;0.5885;3.0612;
1398.6000;0.5902;3.0684;
1398.9000;0.5869;3.0564;
1399.2000;0.5861;3.0540;
1399.5000;0.5885;3.0588;
1399.8000;0.5877;3.0516;
