time/ms;Fluo/V;P700 deltaI/I x10³;
-199.8000;0.7383;3.4763;
-199.5000;0.7383;3.4715;
-199.2000;0.7432;3.5003;
-198.9000;0.7310;3.4691;
-198.6000;0.7383;3.4883;
-198.3000;0.7424;3.4907;
-198.0000;0.7399;3.4787;
-197.7000;0.7399;3.4787;
-197.4000;0.7399;3.4811;
-197.1000;0.7359;3.4787;
-196.8000;0.7383;3.4835;
-196.5000;0.7359;3.4739;
-196.2000;0.7359;3.4763;
-195.9000;0.7391;3.4907;
-195.6000;0.7383;3.4931;
-195.3000;0.7416;3.5003;
-195.0000;0.7326;3.4883;
-194.7000;0.7391;3.4979;
-194.4000;0.7383;3.5003;
-194.1000;0.7375;3.4979;
-193.8000;0.7416;3.4979;
-193.5000;0.7391;3.5003;
-193.2000;0.7383;3.4883;
-192.9000;0.7342;3.4763;
-192.6000;0.7367;3.4811;
-192.3000;0.7261;3.4547;
-192.0000;0.7359;3.4835;
-191.7000;0.7359;3.4811;
-191.4000;0.7342;3.4763;
-191.1000;0.7375;3.4859;
-190.8000;0.7375;3.4811;
-190.5000;0.7416;3.4931;
-190.2000;0.7456;3.5051;
-189.9000;0.7367;3.4811;
-189.6000;0.7407;3.4955;
-189.3000;0.7375;3.4859;
-189.0000;0.7310;3.4691;
-188.7000;0.7391;3.4835;
-188.4000;0.7383;3.4835;
-188.1000;0.7350;3.4667;
-187.8000;0.7375;3.4811;
-187.5000;0.7367;3.4835;
-187.2000;0.7407;3.4955;
-186.9000;0.7391;3.4931;
-186.6000;0.7407;3.4907;
-186.3000;0.7383;3.4859;
-186.0000;0.7359;3.4811;
-185.7000;0.7342;3.4739;
-185.4000;0.7342;3.4763;
-185.1000;0.7367;3.4811;
-184.8000;0.7383;3.4859;
-184.5000;0.7383;3.4907;
-184.2000;0.7432;3.5003;
-183.9000;0.7399;3.4883;
-183.6000;0.7440;3.4931;
-183.3000;0.7407;3.4907;
-183.0000;0.7399;3.4859;
-182.7000;0.7383;3.4763;
-182.4000;0.7383;3.4835;
-182.1000;0.7367;3.4763;
-181.8000;0.7391;3.4835;
-181.5000;0.7375;3.4835;
-181.2000;0.7383;3.4835;
-180.9000;0.7375;3.4811;
-180.6000;0.7383;3.4787;
-180.3000;0.7375;3.4787;
-180.0000;0.7383;3.4835;
-179.7000;0.7391;3.4883;
-179.4000;0.7399;3.4787;
-179.1000;0.7375;3.4739;
-178.8000;0.7391;3.4787;
-178.5000;0.7391;3.4691;
-178.2000;0.7391;3.4643;
-177.9000;0.7391;3.4595;
-177.6000;0.7391;3.4667;
-177.3000;0.7383;3.4667;
-177.0000;0.7375;3.4595;
-176.7000;0.7383;3.4619;
-176.4000;0.7391;3.4595;
-176.1000;0.7407;3.4643;
-175.8000;0.7407;3.4811;
-175.5000;0.7399;3.4787;
-175.2000;0.7359;3.4739;
-174.9000;0.7391;3.4907;
-174.6000;0.7326;3.4787;
-174.3000;0.7391;3.4979;
-174.0000;0.7399;3.5003;
-173.7000;0.7367;3.4907;
-173.4000;0.7383;3.4859;
-173.1000;0.7407;3.4907;
-172.8000;0.7391;3.4955;
-172.5000;0.7383;3.4931;
-172.2000;0.7399;3.5003;
-171.9000;0.7375;3.5027;
-171.6000;0.7383;3.4955;
-171.3000;0.7383;3.4955;
-171.0000;0.7350;3.4859;
-170.7000;0.7399;3.4979;
-170.4000;0.7350;3.4883;
-170.1000;0.7391;3.4907;
-169.8000;0.7375;3.4811;
-169.5000;0.7383;3.4811;
-169.2000;0.7359;3.4787;
-168.9000;0.7383;3.4835;
-168.6000;0.7383;3.4763;
-168.3000;0.7375;3.4787;
-168.0000;0.7375;3.4763;
-167.7000;0.7293;3.4499;
-167.4000;0.7375;3.4691;
-167.1000;0.7407;3.4763;
-166.8000;0.7391;3.4739;
-166.5000;0.7399;3.4667;
-166.2000;0.7350;3.4499;
-165.9000;0.7383;3.4715;
-165.6000;0.7383;3.4787;
-165.3000;0.7367;3.4739;
-165.0000;0.7334;3.4739;
-164.7000;0.7367;3.4883;
-164.4000;0.7375;3.4955;
-164.1000;0.7391;3.4907;
-163.8000;0.7391;3.5003;
-163.5000;0.7375;3.5027;
-163.2000;0.7359;3.4955;
-162.9000;0.7375;3.4979;
-162.6000;0.7342;3.4859;
-162.3000;0.7350;3.4859;
-162.0000;0.7375;3.4835;
-161.7000;0.7367;3.4835;
-161.4000;0.7383;3.4835;
-161.1000;0.7440;3.4979;
-160.8000;0.7383;3.4835;
-160.5000;0.7375;3.4835;
-160.2000;0.7391;3.4811;
-159.9000;0.7391;3.4763;
-159.6000;0.7383;3.4787;
-159.3000;0.7399;3.4883;
-159.0000;0.7334;3.4715;
-158.7000;0.7391;3.4883;
-158.4000;0.7391;3.4907;
-158.1000;0.7424;3.4907;
-157.8000;0.7399;3.4835;
-157.5000;0.7383;3.4811;
-157.2000;0.7391;3.4763;
-156.9000;0.7416;3.4859;
-156.6000;0.7391;3.4883;
-156.3000;0.7367;3.4739;
-156.0000;0.7383;3.4787;
-155.7000;0.7432;3.4811;
-155.4000;0.7375;3.4619;
-155.1000;0.7375;3.4571;
-154.8000;0.7383;3.4667;
-154.5000;0.7399;3.4715;
-154.2000;0.7440;3.4787;
-153.9000;0.7383;3.4667;
-153.6000;0.7407;3.4715;
-153.3000;0.7391;3.4643;
-153.0000;0.7391;3.4571;
-152.7000;0.7399;3.4595;
-152.4000;0.7375;3.4619;
-152.1000;0.7375;3.4643;
-151.8000;0.7391;3.4739;
-151.5000;0.7399;3.4763;
-151.2000;0.7399;3.4859;
-150.9000;0.7391;3.4763;
-150.6000;0.7359;3.4667;
-150.3000;0.7391;3.4787;
-150.0000;0.7375;3.4715;
-149.7000;0.7383;3.4739;
-149.4000;0.7416;3.4739;
-149.1000;0.7383;3.4643;
-148.8000;0.7383;3.4619;
-148.5000;0.7375;3.4619;
-148.2000;0.7383;3.4667;
-147.9000;0.7391;3.4667;
-147.6000;0.7375;3.4643;
-147.3000;0.7391;3.4643;
-147.0000;0.7375;3.4643;
-146.7000;0.7334;3.4547;
-146.4000;0.7383;3.4643;
-146.1000;0.7375;3.4619;
-145.8000;0.7367;3.4691;
-145.5000;0.7383;3.4763;
-145.2000;0.7424;3.4883;
-144.9000;0.7367;3.4811;
-144.6000;0.7375;3.4859;
-144.3000;0.7416;3.4907;
-144.0000;0.7375;3.4931;
-143.7000;0.7334;3.4907;
-143.4000;0.7367;3.4979;
-143.1000;0.7375;3.5003;
-142.8000;0.7359;3.4979;
-142.5000;0.7375;3.4955;
-142.2000;0.7375;3.4835;
-141.9000;0.7391;3.4763;
-141.6000;0.7342;3.4643;
-141.3000;0.7407;3.4715;
-141.0000;0.7391;3.4715;
-140.7000;0.7399;3.4691;
-140.4000;0.7399;3.4691;
-140.1000;0.7391;3.4643;
-139.8000;0.7383;3.4787;
-139.5000;0.7407;3.4835;
-139.2000;0.7399;3.4883;
-138.9000;0.7399;3.4883;
-138.6000;0.7367;3.4811;
-138.3000;0.7383;3.4883;
-138.0000;0.7456;3.5003;
-137.7000;0.7383;3.4859;
-137.4000;0.7302;3.4643;
-137.1000;0.7399;3.4859;
-136.8000;0.7285;3.4571;
-136.5000;0.7367;3.4715;
-136.2000;0.7359;3.4667;
-135.9000;0.7391;3.4715;
-135.6000;0.7375;3.4667;
-135.3000;0.7399;3.4739;
-135.0000;0.7367;3.4595;
-134.7000;0.7383;3.4667;
-134.4000;0.7367;3.4715;
-134.1000;0.7367;3.4787;
-133.8000;0.7399;3.4859;
-133.5000;0.7399;3.4835;
-133.2000;0.7375;3.4763;
-132.9000;0.7416;3.4859;
-132.6000;0.7399;3.4739;
-132.3000;0.7399;3.4883;
-132.0000;0.7383;3.4955;
-131.7000;0.7399;3.5027;
-131.4000;0.7367;3.4955;
-131.1000;0.7367;3.4883;
-130.8000;0.7367;3.4883;
-130.5000;0.7399;3.4979;
-130.2000;0.7391;3.4955;
-129.9000;0.7383;3.5027;
-129.6000;0.7383;3.4979;
-129.3000;0.7359;3.4811;
-129.0000;0.7399;3.4955;
-128.7000;0.7391;3.4931;
-128.4000;0.7342;3.4715;
-128.1000;0.7399;3.4883;
-127.8000;0.7399;3.4883;
-127.5000;0.7383;3.4763;
-127.2000;0.7407;3.4811;
-126.9000;0.7391;3.4763;
-126.6000;0.7399;3.4811;
-126.3000;0.7399;3.4811;
-126.0000;0.7367;3.4787;
-125.7000;0.7391;3.4835;
-125.4000;0.7399;3.4883;
-125.1000;0.7375;3.4787;
-124.8000;0.7383;3.4883;
-124.5000;0.7350;3.4811;
-124.2000;0.7375;3.4883;
-123.9000;0.7383;3.4883;
-123.6000;0.7391;3.4907;
-123.3000;0.7375;3.4835;
-123.0000;0.7326;3.4691;
-122.7000;0.7375;3.4715;
-122.4000;0.7383;3.4691;
-122.1000;0.7416;3.4739;
-121.8000;0.7375;3.4691;
-121.5000;0.7391;3.4787;
-121.2000;0.7375;3.4787;
-120.9000;0.7375;3.4883;
-120.6000;0.7416;3.4931;
-120.3000;0.7440;3.4955;
-120.0000;0.7391;3.4811;
-119.7000;0.7383;3.4811;
-119.4000;0.7383;3.4979;
-119.1000;0.7383;3.4955;
-118.8000;0.7383;3.4955;
-118.5000;0.7391;3.4979;
-118.2000;0.7367;3.4955;
-117.9000;0.7375;3.4907;
-117.6000;0.7399;3.4859;
-117.3000;0.7399;3.4955;
-117.0000;0.7391;3.4931;
-116.7000;0.7391;3.4979;
-116.4000;0.7383;3.5003;
-116.1000;0.7383;3.4979;
-115.8000;0.7359;3.4907;
-115.5000;0.7416;3.5099;
-115.2000;0.7391;3.5051;
-114.9000;0.7424;3.5075;
-114.6000;0.7391;3.5027;
-114.3000;0.7391;3.5075;
-114.0000;0.7440;3.5170;
-113.7000;0.7399;3.5051;
-113.4000;0.7383;3.5003;
-113.1000;0.7375;3.4955;
-112.8000;0.7391;3.5003;
-112.5000;0.7383;3.4955;
-112.2000;0.7391;3.5075;
-111.9000;0.7407;3.5170;
-111.6000;0.7375;3.5099;
-111.3000;0.7375;3.5075;
-111.0000;0.7383;3.5099;
-110.7000;0.7375;3.5003;
-110.4000;0.7375;3.4979;
-110.1000;0.7399;3.4979;
-109.8000;0.7399;3.4979;
-109.5000;0.7383;3.4907;
-109.2000;0.7359;3.4859;
-108.9000;0.7383;3.4883;
-108.6000;0.7391;3.4883;
-108.3000;0.7391;3.4835;
-108.0000;0.7416;3.4835;
-107.7000;0.7407;3.4787;
-107.4000;0.7407;3.4787;
-107.1000;0.7399;3.4787;
-106.8000;0.7367;3.4739;
-106.5000;0.7375;3.4763;
-106.2000;0.7391;3.4859;
-105.9000;0.7359;3.4811;
-105.6000;0.7391;3.4811;
-105.3000;0.7407;3.4907;
-105.0000;0.7416;3.4979;
-104.7000;0.7375;3.4883;
-104.4000;0.7456;3.5051;
-104.1000;0.7399;3.4979;
-103.8000;0.7391;3.4931;
-103.5000;0.7399;3.4907;
-103.2000;0.7440;3.4955;
-102.9000;0.7391;3.4907;
-102.6000;0.7383;3.4907;
-102.3000;0.7383;3.4811;
-102.0000;0.7391;3.4787;
-101.7000;0.7383;3.4811;
-101.4000;0.7391;3.4883;
-101.1000;0.7383;3.4859;
-100.8000;0.7310;3.4667;
-100.5000;0.7359;3.4811;
-100.2000;0.7375;3.4907;
-99.9000;0.7375;3.4931;
-99.6000;0.7391;3.4979;
-99.3000;0.7416;3.5003;
-99.0000;0.7383;3.4979;
-98.7000;0.7375;3.4907;
-98.4000;0.7383;3.4931;
-98.1000;0.7399;3.4931;
-97.8000;0.7367;3.4859;
-97.5000;0.7367;3.4907;
-97.2000;0.7399;3.5003;
-96.9000;0.7391;3.4931;
-96.6000;0.7407;3.4859;
-96.3000;0.7367;3.4835;
-96.0000;0.7375;3.4763;
-95.7000;0.7391;3.4715;
-95.4000;0.7383;3.4667;
-95.1000;0.7375;3.4667;
-94.8000;0.7383;3.4763;
-94.5000;0.7383;3.4811;
-94.2000;0.7407;3.4859;
-93.9000;0.7375;3.4859;
-93.6000;0.7334;3.4739;
-93.3000;0.7391;3.4979;
-93.0000;0.7391;3.5027;
-92.7000;0.7391;3.5027;
-92.4000;0.7383;3.4955;
-92.1000;0.7391;3.4907;
-91.8000;0.7375;3.4883;
-91.5000;0.7432;3.4979;
-91.2000;0.7407;3.4859;
-90.9000;0.7383;3.4859;
-90.6000;0.7375;3.4835;
-90.3000;0.7293;3.4763;
-90.0000;0.7350;3.4979;
-89.7000;0.7391;3.5122;
-89.4000;0.7375;3.5051;
-89.1000;0.7391;3.5027;
-88.8000;0.7383;3.5099;
-88.5000;0.7375;3.5122;
-88.2000;0.7383;3.5099;
-87.9000;0.7391;3.5099;
-87.6000;0.7375;3.5051;
-87.3000;0.7375;3.4931;
-87.0000;0.7383;3.4883;
-86.7000;0.7391;3.4955;
-86.4000;0.7416;3.4931;
-86.1000;0.7375;3.4787;
-85.8000;0.7350;3.4691;
-85.5000;0.7375;3.4787;
-85.2000;0.7359;3.4811;
-84.9000;0.7277;3.4595;
-84.6000;0.7359;3.4787;
-84.3000;0.7367;3.4811;
-84.0000;0.7367;3.4763;
-83.7000;0.7350;3.4763;
-83.4000;0.7318;3.4691;
-83.1000;0.7383;3.4907;
-82.8000;0.7383;3.4883;
-82.5000;0.7375;3.4835;
-82.2000;0.7383;3.4859;
-81.9000;0.7391;3.4931;
-81.6000;0.7383;3.4883;
-81.3000;0.7391;3.4883;
-81.0000;0.7383;3.4955;
-80.7000;0.7383;3.5003;
-80.4000;0.7456;3.5194;
-80.1000;0.7367;3.4931;
-79.8000;0.7367;3.4907;
-79.5000;0.7350;3.4883;
-79.2000;0.7383;3.4955;
-78.9000;0.7391;3.4979;
-78.6000;0.7383;3.4979;
-78.3000;0.7407;3.4859;
-78.0000;0.7399;3.4835;
-77.7000;0.7383;3.4859;
-77.4000;0.7359;3.4859;
-77.1000;0.7375;3.4931;
-76.8000;0.7375;3.4955;
-76.5000;0.7375;3.5075;
-76.2000;0.7359;3.5075;
-75.9000;0.7359;3.5075;
-75.6000;0.7391;3.5051;
-75.3000;0.7391;3.5051;
-75.0000;0.7391;3.5003;
-74.7000;0.7383;3.4931;
-74.4000;0.7391;3.4883;
-74.1000;0.7367;3.4763;
-73.8000;0.7416;3.4811;
-73.5000;0.7416;3.4811;
-73.2000;0.7399;3.4835;
-72.9000;0.7391;3.4907;
-72.6000;0.7399;3.4859;
-72.3000;0.7375;3.4763;
-72.0000;0.7383;3.4787;
-71.7000;0.7391;3.4859;
-71.4000;0.7383;3.4883;
-71.1000;0.7375;3.4715;
-70.8000;0.7375;3.4715;
-70.5000;0.7375;3.4739;
-70.2000;0.7383;3.4811;
-69.9000;0.7359;3.4763;
-69.6000;0.7391;3.4883;
-69.3000;0.7391;3.4883;
-69.0000;0.7391;3.4883;
-68.7000;0.7416;3.4979;
-68.4000;0.7375;3.5027;
-68.1000;0.7383;3.5051;
-67.8000;0.7383;3.4979;
-67.5000;0.7424;3.4979;
-67.2000;0.7375;3.4859;
-66.9000;0.7391;3.4931;
-66.6000;0.7424;3.5051;
-66.3000;0.7367;3.4883;
-66.0000;0.7383;3.5003;
-65.7000;0.7383;3.4955;
-65.4000;0.7367;3.4883;
-65.1000;0.7375;3.4859;
-64.8000;0.7424;3.5003;
-64.5000;0.7318;3.4763;
-64.2000;0.7383;3.4811;
-63.9000;0.7391;3.4811;
-63.6000;0.7367;3.4715;
-63.3000;0.7375;3.4787;
-63.0000;0.7407;3.4811;
-62.7000;0.7383;3.4859;
-62.4000;0.7391;3.4787;
-62.1000;0.7375;3.4787;
-61.8000;0.7399;3.4835;
-61.5000;0.7375;3.4811;
-61.2000;0.7432;3.4931;
-60.9000;0.7375;3.4859;
-60.6000;0.7383;3.4859;
-60.3000;0.7359;3.4835;
-60.0000;0.7342;3.4763;
-59.7000;0.7383;3.4883;
-59.4000;0.7383;3.4835;
-59.1000;0.7375;3.4763;
-58.8000;0.7383;3.4715;
-58.5000;0.7383;3.4691;
-58.2000;0.7318;3.4547;
-57.9000;0.7367;3.4715;
-57.6000;0.7391;3.4787;
-57.3000;0.7383;3.4763;
-57.0000;0.7367;3.4691;
-56.7000;0.7383;3.4763;
-56.4000;0.7432;3.4787;
-56.1000;0.7375;3.4739;
-55.8000;0.7375;3.4667;
-55.5000;0.7383;3.4691;
-55.2000;0.7399;3.4787;
-54.9000;0.7383;3.4787;
-54.6000;0.7399;3.4907;
-54.3000;0.7383;3.4763;
-54.0000;0.7399;3.4883;
-53.7000;0.7383;3.4907;
-53.4000;0.7399;3.5027;
-53.1000;0.7350;3.4883;
-52.8000;0.7399;3.5099;
-52.5000;0.7424;3.5075;
-52.2000;0.7375;3.4907;
-51.9000;0.7424;3.5003;
-51.6000;0.7391;3.4955;
-51.3000;0.7375;3.4907;
-51.0000;0.7383;3.4835;
-50.7000;0.7350;3.4763;
-50.4000;0.7432;3.4811;
-50.1000;0.7253;3.4307;
-49.8000;0.7473;3.4931;
-49.5000;0.7375;3.4643;
-49.2000;0.7399;3.4667;
-48.9000;0.7432;3.4787;
-48.6000;0.7383;3.4691;
-48.3000;0.7383;3.4715;
-48.0000;0.7375;3.4835;
-47.7000;0.7350;3.4715;
-47.4000;0.7391;3.4931;
-47.1000;0.7359;3.4955;
-46.8000;0.7367;3.5027;
-46.5000;0.7375;3.5003;
-46.2000;0.7391;3.5075;
-45.9000;0.7383;3.5003;
-45.6000;0.7367;3.4955;
-45.3000;0.7399;3.5122;
-45.0000;0.7375;3.5003;
-44.7000;0.7391;3.5003;
-44.4000;0.7367;3.4979;
-44.1000;0.7391;3.5051;
-43.8000;0.7424;3.5075;
-43.5000;0.7375;3.5003;
-43.2000;0.7367;3.4955;
-42.9000;0.7440;3.5099;
-42.6000;0.7399;3.5003;
-42.3000;0.7391;3.5027;
-42.0000;0.7375;3.4955;
-41.7000;0.7383;3.4955;
-41.4000;0.7383;3.4931;
-41.1000;0.7383;3.4883;
-40.8000;0.7375;3.4787;
-40.5000;0.7342;3.4715;
-40.2000;0.7367;3.4811;
-39.9000;0.7399;3.4907;
-39.6000;0.7375;3.4811;
-39.3000;0.7367;3.4763;
-39.0000;0.7359;3.4763;
-38.7000;0.7383;3.4811;
-38.4000;0.7367;3.4763;
-38.1000;0.7342;3.4739;
-37.8000;0.7391;3.4883;
-37.5000;0.7391;3.4931;
-37.2000;0.7391;3.4907;
-36.9000;0.7367;3.4859;
-36.6000;0.7375;3.4835;
-36.3000;0.7399;3.4811;
-36.0000;0.7367;3.4763;
-35.7000;0.7399;3.4907;
-35.4000;0.7367;3.4787;
-35.1000;0.7424;3.4955;
-34.8000;0.7399;3.4859;
-34.5000;0.7391;3.4763;
-34.2000;0.7367;3.4763;
-33.9000;0.7391;3.4883;
-33.6000;0.7383;3.4883;
-33.3000;0.7367;3.4811;
-33.0000;0.7383;3.4715;
-32.7000;0.7383;3.4739;
-32.4000;0.7440;3.4907;
-32.1000;0.7375;3.4691;
-31.8000;0.7375;3.4763;
-31.5000;0.7375;3.4691;
-31.2000;0.7416;3.4811;
-30.9000;0.7367;3.4715;
-30.6000;0.7334;3.4619;
-30.3000;0.7391;3.4763;
-30.0000;0.7407;3.4715;
-29.7000;0.7359;3.4523;
-29.4000;0.7367;3.4547;
-29.1000;0.7456;3.4763;
-28.8000;0.7383;3.4691;
-28.5000;0.7391;3.4715;
-28.2000;0.7375;3.4715;
-27.9000;0.7342;3.4667;
-27.6000;0.7359;3.4715;
-27.3000;0.7367;3.4763;
-27.0000;0.7375;3.4835;
-26.7000;0.7432;3.4931;
-26.4000;0.7375;3.4835;
-26.1000;0.7391;3.4931;
-25.8000;0.7359;3.4859;
-25.5000;0.7367;3.4835;
-25.2000;0.7399;3.4931;
-24.9000;0.7391;3.4931;
-24.6000;0.7399;3.4811;
-24.3000;0.7342;3.4619;
-24.0000;0.7383;3.4667;
-23.7000;0.7407;3.4667;
-23.4000;0.7399;3.4643;
-23.1000;0.7375;3.4619;
-22.8000;0.7391;3.4691;
-22.5000;0.7383;3.4691;
-22.2000;0.7391;3.4715;
-21.9000;0.7375;3.4667;
-21.6000;0.7375;3.4691;
-21.3000;0.7391;3.4667;
-21.0000;0.7399;3.4643;
-20.7000;0.7383;3.4715;
-20.4000;0.7383;3.4739;
-20.1000;0.7416;3.4787;
-19.8000;0.7326;3.4667;
-19.5000;0.7407;3.4859;
-19.2000;0.7407;3.4883;
-18.9000;0.7391;3.4787;
-18.6000;0.7367;3.4691;
-18.3000;0.7399;3.4691;
-18.0000;0.7375;3.4667;
-17.7000;0.7391;3.4619;
-17.4000;0.7440;3.4787;
-17.1000;0.7391;3.4691;
-16.8000;0.7375;3.4739;
-16.5000;0.7350;3.4691;
-16.2000;0.7375;3.4691;
-15.9000;0.7399;3.4763;
-15.6000;0.7375;3.4715;
-15.3000;0.7367;3.4691;
-15.0000;0.7359;3.4691;
-14.7000;0.7383;3.4739;
-14.4000;0.7416;3.4787;
-14.1000;0.7416;3.4715;
-13.8000;0.7367;3.4571;
-13.5000;0.7399;3.4691;
-13.2000;0.7383;3.4595;
-12.9000;0.7383;3.4499;
-12.6000;0.7375;3.4451;
-12.3000;0.7375;3.4499;
-12.0000;0.7383;3.4571;
-11.7000;0.7375;3.4571;
-11.4000;0.7367;3.4547;
-11.1000;0.7367;3.4499;
-10.8000;0.7383;3.4499;
-10.5000;0.7383;3.4499;
-10.2000;0.7391;3.4619;
-9.9000;0.7375;3.4619;
-9.6000;0.7399;3.4619;
-9.3000;0.7391;3.4667;
-9.0000;0.7399;3.4643;
-8.7000;0.7375;3.4619;
-8.4000;0.7342;3.4595;
-8.1000;0.7383;3.4835;
-7.8000;0.7416;3.4931;
-7.5000;0.7383;3.4859;
-7.2000;0.7391;3.4715;
-6.9000;0.7383;3.4595;
-6.6000;0.7375;3.4547;
-6.3000;0.7375;3.4595;
-6.0000;0.7383;3.4595;
-5.7000;0.7375;3.4547;
-5.4000;0.7391;3.4547;
-5.1000;0.7318;3.4379;
-4.8000;0.7375;3.4595;
-4.5000;0.7367;3.4691;
-4.2000;0.7383;3.4715;
-3.9000;0.7375;3.4691;
-3.6000;0.7375;3.4691;
-3.3000;0.7407;3.4787;
-3.0000;0.7440;3.4811;
-2.7000;0.7383;3.4643;
-2.4000;0.7367;3.4643;
-2.1000;0.7391;3.4643;
-1.8000;0.7391;3.4667;
-1.5000;0.7424;3.4691;
-1.2000;0.7391;3.4523;
-0.9000;0.7391;3.4523;
-0.6000;0.7383;3.4547;
-0.3000;0.7424;3.4619;
0.0000;0.7424;3.4619;
0.3000;0.7383;3.4667;
0.6000;0.7367;3.4811;
0.9000;0.7416;3.5075;
1.2000;0.7367;3.5075;
1.5000;0.7350;3.5242;
1.8000;0.7399;3.5578;
2.1000;0.7416;3.5674;
2.4000;0.7416;3.5746;
2.7000;0.7424;3.5914;
3.0000;0.7416;3.5986;
3.3000;0.7432;3.6034;
3.6000;0.7399;3.6106;
3.9000;0.7407;3.6178;
4.2000;0.7432;3.6322;
4.5000;0.7432;3.6322;
4.8000;0.7440;3.6370;
5.1000;0.7424;3.6418;
5.4000;0.7424;3.6490;
5.7000;0.7448;3.6634;
6.0000;0.7432;3.6610;
6.3000;0.7416;3.6730;
6.6000;0.7424;3.6706;
6.9000;0.7448;3.6706;
7.2000;0.7448;3.6754;
7.5000;0.7440;3.6682;
7.8000;0.7440;3.6682;
8.1000;0.7448;3.6706;
8.4000;0.7448;3.6754;
8.7000;0.7481;3.6874;
9.0000;0.7407;3.6634;
9.3000;0.7464;3.6754;
9.6000;0.7473;3.6754;
9.9000;0.7554;3.6922;
10.2000;0.7440;3.6658;
10.5000;0.7473;3.6658;
10.8000;0.7481;3.6706;
11.1000;0.7481;3.6634;
11.4000;0.7464;3.6658;
11.7000;0.7464;3.6730;
12.0000;0.7473;3.6706;
12.3000;0.7473;3.6706;
12.6000;0.7530;3.6778;
12.9000;0.7440;3.6538;
13.2000;0.7481;3.6586;
13.5000;0.7432;3.6490;
13.8000;0.7473;3.6610;
14.1000;0.7481;3.6634;
14.4000;0.7497;3.6682;
14.7000;0.7481;3.6634;
15.0000;0.7481;3.6610;
15.3000;0.7464;3.6634;
15.6000;0.7481;3.6730;
15.9000;0.7481;3.6802;
16.2000;0.7505;3.6826;
16.5000;0.7481;3.6802;
16.8000;0.7489;3.6802;
17.1000;0.7481;3.6778;
17.4000;0.7497;3.6730;
17.7000;0.7489;3.6658;
18.0000;0.7489;3.6610;
18.3000;0.7481;3.6610;
18.6000;0.7481;3.6706;
18.9000;0.7489;3.6706;
19.2000;0.7464;3.6634;
19.5000;0.7481;3.6658;
19.8000;0.7481;3.6634;
20.1000;0.7489;3.6658;
20.4000;0.7464;3.6586;
20.7000;0.7464;3.6562;
21.0000;0.7497;3.6682;
21.3000;0.7497;3.6682;
21.6000;0.7481;3.6658;
21.9000;0.7505;3.6778;
22.2000;0.7513;3.6778;
22.5000;0.7578;3.6922;
22.8000;0.7505;3.6682;
23.1000;0.7481;3.6562;
23.4000;0.7489;3.6610;
23.7000;0.7513;3.6610;
24.0000;0.7489;3.6562;
24.3000;0.7521;3.6754;
24.6000;0.7505;3.6778;
24.9000;0.7505;3.6778;
25.2000;0.7489;3.6754;
25.5000;0.7489;3.6682;
25.8000;0.7513;3.6730;
26.1000;0.7570;3.6802;
26.4000;0.7586;3.6874;
26.7000;0.7538;3.6754;
27.0000;0.7489;3.6730;
27.3000;0.7513;3.6874;
27.6000;0.7521;3.6826;
27.9000;0.7497;3.6778;
28.2000;0.7513;3.6826;
28.5000;0.7513;3.6874;
28.8000;0.7530;3.6874;
29.1000;0.7497;3.6850;
29.4000;0.7497;3.6850;
29.7000;0.7546;3.6874;
30.0000;0.7505;3.6826;
30.3000;0.7513;3.6850;
30.6000;0.7497;3.6730;
30.9000;0.7513;3.6730;
31.2000;0.7521;3.6658;
31.5000;0.7562;3.6778;
31.8000;0.7505;3.6586;
32.1000;0.7513;3.6634;
32.4000;0.7521;3.6610;
32.7000;0.7513;3.6634;
33.0000;0.7521;3.6706;
33.3000;0.7497;3.6682;
33.6000;0.7513;3.6730;
33.9000;0.7456;3.6562;
34.2000;0.7497;3.6730;
34.5000;0.7530;3.6730;
34.8000;0.7538;3.6778;
35.1000;0.7521;3.6778;
35.4000;0.7505;3.6730;
35.7000;0.7562;3.6850;
36.0000;0.7521;3.6778;
36.3000;0.7521;3.6706;
36.6000;0.7530;3.6706;
36.9000;0.7464;3.6562;
37.2000;0.7505;3.6682;
37.5000;0.7505;3.6730;
37.8000;0.7513;3.6730;
38.1000;0.7513;3.6730;
38.4000;0.7497;3.6682;
38.7000;0.7521;3.6634;
39.0000;0.7521;3.6586;
39.3000;0.7497;3.6514;
39.6000;0.7513;3.6538;
39.9000;0.7505;3.6562;
40.2000;0.7505;3.6634;
40.5000;0.7497;3.6610;
40.8000;0.7530;3.6658;
41.1000;0.7473;3.6538;
41.4000;0.7505;3.6610;
41.7000;0.7505;3.6586;
42.0000;0.7481;3.6490;
42.3000;0.7497;3.6514;
42.6000;0.7521;3.6562;
42.9000;0.7521;3.6586;
43.2000;0.7505;3.6514;
43.5000;0.7473;3.6394;
43.8000;0.7489;3.6298;
44.1000;0.7538;3.6442;
44.4000;0.7603;3.6658;
44.7000;0.7521;3.6514;
45.0000;0.7521;3.6562;
45.3000;0.7521;3.6538;
45.6000;0.7530;3.6514;
45.9000;0.7505;3.6418;
46.2000;0.7521;3.6562;
46.5000;0.7497;3.6610;
46.8000;0.7521;3.6682;
47.1000;0.7505;3.6658;
47.4000;0.7530;3.6706;
47.7000;0.7513;3.6610;
48.0000;0.7505;3.6562;
48.3000;0.7505;3.6634;
48.6000;0.7505;3.6610;
48.9000;0.7530;3.6586;
49.2000;0.7505;3.6610;
49.5000;0.7489;3.6610;
49.8000;0.7521;3.6634;
50.1000;0.7513;3.6634;
50.4000;0.7505;3.6610;
50.7000;0.7513;3.6634;
51.0000;0.7489;3.6586;
51.3000;0.7497;3.6586;
51.6000;0.7530;3.6754;
51.9000;0.7538;3.6778;
52.2000;0.7538;3.6778;
52.5000;0.7521;3.6754;
52.8000;0.7546;3.6730;
53.1000;0.7521;3.6706;
53.4000;0.7521;3.6706;
53.7000;0.7513;3.6658;
54.0000;0.7530;3.6706;
54.3000;0.7521;3.6610;
54.6000;0.7521;3.6610;
54.9000;0.7546;3.6730;
55.2000;0.7521;3.6730;
55.5000;0.7521;3.6706;
55.8000;0.7489;3.6634;
56.1000;0.7505;3.6610;
56.4000;0.7538;3.6802;
56.7000;0.7521;3.6778;
57.0000;0.7513;3.6754;
57.3000;0.7505;3.6778;
57.6000;0.7521;3.6802;
57.9000;0.7530;3.6802;
58.2000;0.7521;3.6802;
58.5000;0.7554;3.6970;
58.8000;0.7481;3.6850;
59.1000;0.7513;3.6874;
59.4000;0.7505;3.6826;
59.7000;0.7481;3.6778;
60.0000;0.7513;3.6778;
60.3000;0.7497;3.6730;
60.6000;0.7505;3.6730;
60.9000;0.7530;3.6754;
61.2000;0.7505;3.6730;
61.5000;0.7530;3.6874;
61.8000;0.7521;3.6778;
62.1000;0.7513;3.6730;
62.4000;0.7481;3.6586;
62.7000;0.7513;3.6514;
63.0000;0.7538;3.6586;
63.3000;0.7448;3.6346;
63.6000;0.7530;3.6634;
63.9000;0.7530;3.6586;
64.2000;0.7578;3.6706;
64.5000;0.7521;3.6658;
64.8000;0.7546;3.6658;
65.1000;0.7530;3.6682;
65.4000;0.7554;3.6802;
65.7000;0.7497;3.6682;
66.0000;0.7521;3.6706;
66.3000;0.7546;3.6802;
66.6000;0.7530;3.6754;
66.9000;0.7505;3.6682;
67.2000;0.7538;3.6706;
67.5000;0.7481;3.6562;
67.8000;0.7554;3.6682;
68.1000;0.7538;3.6610;
68.4000;0.7521;3.6634;
68.7000;0.7497;3.6562;
69.0000;0.7538;3.6634;
69.3000;0.7521;3.6634;
69.6000;0.7530;3.6706;
69.9000;0.7505;3.6706;
70.2000;0.7530;3.6706;
70.5000;0.7538;3.6706;
70.8000;0.7521;3.6658;
71.1000;0.7513;3.6610;
71.4000;0.7513;3.6610;
71.7000;0.7521;3.6562;
72.0000;0.7505;3.6538;
72.3000;0.7513;3.6634;
72.6000;0.7521;3.6610;
72.9000;0.7513;3.6682;
73.2000;0.7530;3.6682;
73.5000;0.7530;3.6682;
73.8000;0.7505;3.6730;
74.1000;0.7521;3.6706;
74.4000;0.7505;3.6706;
74.7000;0.7530;3.6730;
75.0000;0.7513;3.6754;
75.3000;0.7513;3.6730;
75.6000;0.7521;3.6706;
75.9000;0.7546;3.6682;
76.2000;0.7521;3.6754;
76.5000;0.7448;3.6562;
76.8000;0.7546;3.6850;
77.1000;0.7513;3.6730;
77.4000;0.7497;3.6730;
77.7000;0.7538;3.6730;
78.0000;0.7489;3.6610;
78.3000;0.7521;3.6658;
78.6000;0.7505;3.6610;
78.9000;0.7530;3.6706;
79.2000;0.7464;3.6586;
79.5000;0.7546;3.6778;
79.8000;0.7489;3.6658;
80.1000;0.7513;3.6706;
80.4000;0.7530;3.6730;
80.7000;0.7530;3.6682;
81.0000;0.7530;3.6754;
81.3000;0.7473;3.6610;
81.6000;0.7432;3.6538;
81.9000;0.7464;3.6682;
82.2000;0.7497;3.6658;
82.5000;0.7513;3.6634;
82.8000;0.7489;3.6586;
83.1000;0.7530;3.6706;
83.4000;0.7513;3.6730;
83.7000;0.7530;3.6802;
84.0000;0.7505;3.6658;
84.3000;0.7505;3.6706;
84.6000;0.7530;3.6706;
84.9000;0.7521;3.6706;
85.2000;0.7513;3.6730;
85.5000;0.7505;3.6826;
85.8000;0.7521;3.6802;
86.1000;0.7570;3.6802;
86.4000;0.7554;3.6730;
86.7000;0.7513;3.6610;
87.0000;0.7497;3.6562;
87.3000;0.7521;3.6562;
87.6000;0.7513;3.6586;
87.9000;0.7513;3.6490;
88.2000;0.7505;3.6442;
88.5000;0.7521;3.6562;
88.8000;0.7505;3.6586;
89.1000;0.7513;3.6658;
89.4000;0.7489;3.6682;
89.7000;0.7521;3.6754;
90.0000;0.7538;3.6778;
90.3000;0.7505;3.6706;
90.6000;0.7505;3.6682;
90.9000;0.7513;3.6658;
91.2000;0.7521;3.6658;
91.5000;0.7521;3.6658;
91.8000;0.7505;3.6562;
92.1000;0.7513;3.6586;
92.4000;0.7513;3.6634;
92.7000;0.7521;3.6682;
93.0000;0.7530;3.6778;
93.3000;0.7513;3.6754;
93.6000;0.7497;3.6778;
93.9000;0.7513;3.6850;
94.2000;0.7497;3.6754;
94.5000;0.7505;3.6730;
94.8000;0.7530;3.6754;
95.1000;0.7530;3.6730;
95.4000;0.7521;3.6754;
95.7000;0.7538;3.6802;
96.0000;0.7570;3.6898;
96.3000;0.7505;3.6778;
96.6000;0.7521;3.6850;
96.9000;0.7513;3.6850;
97.2000;0.7521;3.6850;
97.5000;0.7521;3.6850;
97.8000;0.7513;3.6826;
98.1000;0.7570;3.6874;
98.4000;0.7521;3.6778;
98.7000;0.7521;3.6730;
99.0000;0.7530;3.6754;
99.3000;0.7505;3.6658;
99.6000;0.7521;3.6610;
99.9000;0.7497;3.6586;
100.2000;0.7505;3.6634;
100.5000;0.7521;3.6682;
100.8000;0.7538;3.6826;
101.1000;0.7497;3.6754;
101.4000;0.7546;3.6730;
101.7000;0.7481;3.6562;
102.0000;0.7595;3.6826;
102.3000;0.7538;3.6682;
102.6000;0.7521;3.6610;
102.9000;0.7497;3.6490;
103.2000;0.7521;3.6562;
103.5000;0.7505;3.6562;
103.8000;0.7473;3.6418;
104.1000;0.7521;3.6442;
104.4000;0.7513;3.6466;
104.7000;0.7456;3.6418;
105.0000;0.7521;3.6514;
105.3000;0.7497;3.6562;
105.6000;0.7513;3.6490;
105.9000;0.7505;3.6514;
106.2000;0.7513;3.6466;
106.5000;0.7521;3.6466;
106.8000;0.7521;3.6514;
107.1000;0.7570;3.6538;
107.4000;0.7521;3.6490;
107.7000;0.7513;3.6418;
108.0000;0.7578;3.6634;
108.3000;0.7505;3.6370;
108.6000;0.7530;3.6442;
108.9000;0.7489;3.6490;
109.2000;0.7505;3.6490;
109.5000;0.7505;3.6538;
109.8000;0.7497;3.6490;
110.1000;0.7505;3.6466;
110.4000;0.7513;3.6538;
110.7000;0.7521;3.6514;
111.0000;0.7595;3.6634;
111.3000;0.7505;3.6514;
111.6000;0.7521;3.6610;
111.9000;0.7513;3.6634;
112.2000;0.7530;3.6754;
112.5000;0.7530;3.6802;
112.8000;0.7546;3.6706;
113.1000;0.7521;3.6634;
113.4000;0.7521;3.6562;
113.7000;0.7521;3.6514;
114.0000;0.7513;3.6610;
114.3000;0.7513;3.6586;
114.6000;0.7546;3.6682;
114.9000;0.7521;3.6586;
115.2000;0.7521;3.6442;
115.5000;0.7505;3.6418;
115.8000;0.7513;3.6418;
116.1000;0.7497;3.6490;
116.4000;0.7481;3.6442;
116.7000;0.7513;3.6610;
117.0000;0.7505;3.6658;
117.3000;0.7407;3.6466;
117.6000;0.7513;3.6802;
117.9000;0.7513;3.6826;
118.2000;0.7521;3.6802;
118.5000;0.7464;3.6730;
118.8000;0.7521;3.6970;
119.1000;0.7530;3.6946;
119.4000;0.7530;3.6970;
119.7000;0.7513;3.6850;
120.0000;0.7513;3.6826;
120.3000;0.7513;3.6898;
120.6000;0.7513;3.6946;
120.9000;0.7521;3.6922;
121.2000;0.7521;3.6850;
121.5000;0.7546;3.6874;
121.8000;0.7538;3.6898;
122.1000;0.7497;3.6802;
122.4000;0.7521;3.6946;
122.7000;0.7521;3.6898;
123.0000;0.7513;3.6826;
123.3000;0.7513;3.6730;
123.6000;0.7530;3.6850;
123.9000;0.7497;3.6898;
124.2000;0.7505;3.6850;
124.5000;0.7513;3.6898;
124.8000;0.7521;3.6898;
125.1000;0.7489;3.6730;
125.4000;0.7521;3.6898;
125.7000;0.7570;3.7042;
126.0000;0.7473;3.6754;
126.3000;0.7513;3.6730;
126.6000;0.7538;3.6754;
126.9000;0.7513;3.6658;
127.2000;0.7530;3.6634;
127.5000;0.7538;3.6706;
127.8000;0.7440;3.6442;
128.1000;0.7505;3.6562;
128.4000;0.7513;3.6634;
128.7000;0.7521;3.6634;
129.0000;0.7530;3.6634;
129.3000;0.7538;3.6658;
129.6000;0.7530;3.6682;
129.9000;0.7513;3.6634;
130.2000;0.7521;3.6706;
130.5000;0.7513;3.6730;
130.8000;0.7505;3.6706;
131.1000;0.7513;3.6562;
131.4000;0.7521;3.6610;
131.7000;0.7521;3.6514;
132.0000;0.7521;3.6562;
132.3000;0.7513;3.6634;
132.6000;0.7513;3.6730;
132.9000;0.7513;3.6802;
133.2000;0.7570;3.6850;
133.5000;0.7505;3.6706;
133.8000;0.7521;3.6778;
134.1000;0.7505;3.6682;
134.4000;0.7513;3.6754;
134.7000;0.7481;3.6682;
135.0000;0.7481;3.6658;
135.3000;0.7497;3.6658;
135.6000;0.7505;3.6682;
135.9000;0.7497;3.6658;
136.2000;0.7464;3.6634;
136.5000;0.7505;3.6730;
136.8000;0.7505;3.6730;
137.1000;0.7497;3.6778;
137.4000;0.7505;3.6706;
137.7000;0.7505;3.6730;
138.0000;0.7562;3.6802;
138.3000;0.7538;3.6778;
138.6000;0.7538;3.6706;
138.9000;0.7513;3.6610;
139.2000;0.7497;3.6586;
139.5000;0.7505;3.6634;
139.8000;0.7546;3.6754;
140.1000;0.7521;3.6682;
140.4000;0.7489;3.6634;
140.7000;0.7448;3.6562;
141.0000;0.7407;3.6466;
141.3000;0.7473;3.6610;
141.6000;0.7521;3.6706;
141.9000;0.7521;3.6610;
142.2000;0.7513;3.6610;
142.5000;0.7489;3.6610;
142.8000;0.7530;3.6730;
143.1000;0.7513;3.6802;
143.4000;0.7505;3.6850;
143.7000;0.7489;3.6778;
144.0000;0.7513;3.6754;
144.3000;0.7497;3.6754;
144.6000;0.7521;3.6778;
144.9000;0.7489;3.6706;
145.2000;0.7505;3.6706;
145.5000;0.7513;3.6754;
145.8000;0.7530;3.6778;
146.1000;0.7489;3.6586;
146.4000;0.7497;3.6610;
146.7000;0.7505;3.6538;
147.0000;0.7521;3.6562;
147.3000;0.7570;3.6754;
147.6000;0.7505;3.6562;
147.9000;0.7505;3.6610;
148.2000;0.7538;3.6586;
148.5000;0.7521;3.6610;
148.8000;0.7505;3.6586;
149.1000;0.7513;3.6538;
149.4000;0.7505;3.6538;
149.7000;0.7505;3.6466;
150.0000;0.7513;3.6490;
150.3000;0.7505;3.6538;
150.6000;0.7497;3.6514;
150.9000;0.7497;3.6538;
151.2000;0.7505;3.6490;
151.5000;0.7497;3.6490;
151.8000;0.7497;3.6538;
152.1000;0.7497;3.6586;
152.4000;0.7521;3.6658;
152.7000;0.7505;3.6778;
153.0000;0.7521;3.6826;
153.3000;0.7521;3.6778;
153.6000;0.7513;3.6778;
153.9000;0.7521;3.6778;
154.2000;0.7521;3.6730;
154.5000;0.7530;3.6682;
154.8000;0.7505;3.6610;
155.1000;0.7489;3.6682;
155.4000;0.7505;3.6658;
155.7000;0.7505;3.6754;
156.0000;0.7521;3.6898;
156.3000;0.7448;3.6778;
156.6000;0.7505;3.6970;
156.9000;0.7521;3.7042;
157.2000;0.7473;3.6898;
157.5000;0.7521;3.6922;
157.8000;0.7432;3.6706;
158.1000;0.7513;3.6850;
158.4000;0.7513;3.6802;
158.7000;0.7440;3.6610;
159.0000;0.7448;3.6658;
159.3000;0.7489;3.6706;
159.6000;0.7513;3.6826;
159.9000;0.7513;3.6826;
160.2000;0.7530;3.6970;
160.5000;0.7489;3.6898;
160.8000;0.7505;3.6946;
161.1000;0.7521;3.6994;
161.4000;0.7481;3.6850;
161.7000;0.7489;3.6802;
162.0000;0.7521;3.6898;
162.3000;0.7562;3.6994;
162.6000;0.7505;3.6826;
162.9000;0.7497;3.6754;
163.2000;0.7530;3.6802;
163.5000;0.7497;3.6730;
163.8000;0.7497;3.6682;
164.1000;0.7570;3.6874;
164.4000;0.7521;3.6682;
164.7000;0.7530;3.6706;
165.0000;0.7521;3.6802;
165.3000;0.7481;3.6730;
165.6000;0.7530;3.6850;
165.9000;0.7513;3.6754;
166.2000;0.7513;3.6706;
166.5000;0.7464;3.6562;
166.8000;0.7497;3.6610;
167.1000;0.7538;3.6706;
167.4000;0.7505;3.6610;
167.7000;0.7505;3.6682;
168.0000;0.7513;3.6610;
168.3000;0.7505;3.6538;
168.6000;0.7521;3.6562;
168.9000;0.7505;3.6586;
169.2000;0.7513;3.6562;
169.5000;0.7521;3.6586;
169.8000;0.7497;3.6610;
170.1000;0.7497;3.6658;
170.4000;0.7505;3.6682;
170.7000;0.7505;3.6634;
171.0000;0.7530;3.6682;
171.3000;0.7505;3.6658;
171.6000;0.7481;3.6610;
171.9000;0.7489;3.6658;
172.2000;0.7497;3.6682;
172.5000;0.7497;3.6706;
172.8000;0.7595;3.6946;
173.1000;0.7497;3.6706;
173.4000;0.7513;3.6754;
173.7000;0.7505;3.6682;
174.0000;0.7497;3.6706;
174.3000;0.7497;3.6682;
174.6000;0.7497;3.6754;
174.9000;0.7505;3.6802;
175.2000;0.7497;3.6730;
175.5000;0.7505;3.6682;
175.8000;0.7448;3.6562;
176.1000;0.7489;3.6658;
176.4000;0.7497;3.6634;
176.7000;0.7473;3.6466;
177.0000;0.7497;3.6490;
177.3000;0.7530;3.6586;
177.6000;0.7497;3.6658;
177.9000;0.7513;3.6778;
178.2000;0.7497;3.6778;
178.5000;0.7513;3.6898;
178.8000;0.7505;3.6874;
179.1000;0.7481;3.6754;
179.4000;0.7464;3.6706;
179.7000;0.7456;3.6802;
180.0000;0.7554;3.7114;
180.3000;0.7489;3.6994;
180.6000;0.7481;3.6946;
180.9000;0.7562;3.7066;
181.2000;0.7513;3.6994;
181.5000;0.7497;3.6898;
181.8000;0.7489;3.6898;
182.1000;0.7464;3.6826;
182.4000;0.7497;3.6970;
182.7000;0.7481;3.6874;
183.0000;0.7586;3.6994;
183.3000;0.7513;3.6802;
183.6000;0.7513;3.6730;
183.9000;0.7513;3.6778;
184.2000;0.7497;3.6682;
184.5000;0.7489;3.6730;
184.8000;0.7481;3.6802;
185.1000;0.7497;3.6778;
185.4000;0.7538;3.6850;
185.7000;0.7497;3.6778;
186.0000;0.7530;3.6778;
186.3000;0.7530;3.6826;
186.6000;0.7513;3.6922;
186.9000;0.7505;3.6850;
187.2000;0.7538;3.6898;
187.5000;0.7521;3.6826;
187.8000;0.7513;3.6730;
188.1000;0.7505;3.6754;
188.4000;0.7497;3.6706;
188.7000;0.7538;3.6826;
189.0000;0.7481;3.6754;
189.3000;0.7505;3.6778;
189.6000;0.7497;3.6778;
189.9000;0.7505;3.6754;
190.2000;0.7513;3.6826;
190.5000;0.7489;3.6754;
190.8000;0.7513;3.6826;
191.1000;0.7497;3.6778;
191.4000;0.7521;3.6754;
191.7000;0.7562;3.6778;
192.0000;0.7530;3.6754;
192.3000;0.7513;3.6706;
192.6000;0.7530;3.6754;
192.9000;0.7521;3.6754;
193.2000;0.7513;3.6754;
193.5000;0.7505;3.6730;
193.8000;0.7538;3.6802;
194.1000;0.7521;3.6802;
194.4000;0.7505;3.6754;
194.7000;0.7473;3.6706;
195.0000;0.7489;3.6730;
195.3000;0.7489;3.6658;
195.6000;0.7497;3.6634;
195.9000;0.7497;3.6682;
196.2000;0.7505;3.6730;
196.5000;0.7513;3.6730;
196.8000;0.7538;3.6778;
197.1000;0.7505;3.6682;
197.4000;0.7505;3.6706;
197.7000;0.7481;3.6682;
198.0000;0.7521;3.6706;
198.3000;0.7513;3.6754;
198.6000;0.7473;3.6682;
198.9000;0.7513;3.6802;
199.2000;0.7521;3.6826;
199.5000;0.7505;3.6802;
199.8000;0.7530;3.6802;
200.1000;0.7473;3.6730;
200.4000;0.7513;3.6826;
200.7000;0.7497;3.6778;
201.0000;0.7530;3.6802;
201.3000;0.7505;3.6730;
201.6000;0.7513;3.6802;
201.9000;0.7481;3.6754;
202.2000;0.7521;3.6850;
202.5000;0.7521;3.6802;
202.8000;0.7513;3.6874;
203.1000;0.7546;3.6898;
203.4000;0.7505;3.6850;
203.7000;0.7505;3.6850;
204.0000;0.7521;3.6922;
204.3000;0.7521;3.6874;
204.6000;0.7505;3.6850;
204.9000;0.7497;3.6754;
205.2000;0.7497;3.6778;
205.5000;0.7497;3.6802;
205.8000;0.7497;3.6778;
206.1000;0.7513;3.6802;
206.4000;0.7497;3.6802;
206.7000;0.7505;3.6826;
207.0000;0.7497;3.6778;
207.3000;0.7489;3.6754;
207.6000;0.7521;3.6826;
207.9000;0.7497;3.6778;
208.2000;0.7489;3.6826;
208.5000;0.7489;3.6802;
208.8000;0.7505;3.6802;
209.1000;0.7513;3.6826;
209.4000;0.7489;3.6754;
209.7000;0.7513;3.6922;
210.0000;0.7497;3.6898;
210.3000;0.7481;3.6826;
210.6000;0.7473;3.6778;
210.9000;0.7489;3.6730;
211.2000;0.7497;3.6754;
211.5000;0.7505;3.6778;
211.8000;0.7497;3.6754;
212.1000;0.7489;3.6754;
212.4000;0.7489;3.6802;
212.7000;0.7521;3.6778;
213.0000;0.7505;3.6658;
213.3000;0.7497;3.6658;
213.6000;0.7489;3.6562;
213.9000;0.7497;3.6514;
214.2000;0.7521;3.6538;
214.5000;0.7505;3.6490;
214.8000;0.7505;3.6394;
215.1000;0.7489;3.6394;
215.4000;0.7489;3.6370;
215.7000;0.7489;3.6346;
216.0000;0.7505;3.6394;
216.3000;0.7513;3.6394;
216.6000;0.7505;3.6298;
216.9000;0.7513;3.6346;
217.2000;0.7513;3.6418;
217.5000;0.7513;3.6466;
217.8000;0.7456;3.6346;
218.1000;0.7505;3.6490;
218.4000;0.7440;3.6346;
218.7000;0.7513;3.6514;
219.0000;0.7505;3.6394;
219.3000;0.7513;3.6466;
219.6000;0.7497;3.6490;
219.9000;0.7505;3.6538;
220.2000;0.7505;3.6586;
220.5000;0.7497;3.6610;
220.8000;0.7505;3.6610;
221.1000;0.7489;3.6538;
221.4000;0.7448;3.6442;
221.7000;0.7497;3.6562;
222.0000;0.7448;3.6466;
222.3000;0.7497;3.6634;
222.6000;0.7481;3.6682;
222.9000;0.7513;3.6802;
223.2000;0.7489;3.6802;
223.5000;0.7432;3.6634;
223.8000;0.7497;3.6778;
224.1000;0.7489;3.6682;
224.4000;0.7505;3.6658;
224.7000;0.7505;3.6610;
225.0000;0.7497;3.6562;
225.3000;0.7505;3.6634;
225.6000;0.7513;3.6634;
225.9000;0.7481;3.6538;
226.2000;0.7497;3.6610;
226.5000;0.7481;3.6586;
226.8000;0.7489;3.6562;
227.1000;0.7497;3.6538;
227.4000;0.7505;3.6610;
227.7000;0.7489;3.6466;
228.0000;0.7505;3.6562;
228.3000;0.7513;3.6634;
228.6000;0.7497;3.6610;
228.9000;0.7505;3.6610;
229.2000;0.7505;3.6490;
229.5000;0.7521;3.6538;
229.8000;0.7513;3.6538;
230.1000;0.7489;3.6394;
230.4000;0.7481;3.6346;
230.7000;0.7505;3.6490;
231.0000;0.7489;3.6634;
231.3000;0.7481;3.6658;
231.6000;0.7481;3.6586;
231.9000;0.7481;3.6586;
232.2000;0.7497;3.6586;
232.5000;0.7481;3.6538;
232.8000;0.7497;3.6562;
233.1000;0.7497;3.6514;
233.4000;0.7473;3.6394;
233.7000;0.7473;3.6442;
234.0000;0.7489;3.6466;
234.3000;0.7505;3.6466;
234.6000;0.7489;3.6490;
234.9000;0.7513;3.6634;
235.2000;0.7505;3.6586;
235.5000;0.7489;3.6562;
235.8000;0.7497;3.6562;
236.1000;0.7489;3.6562;
236.4000;0.7505;3.6562;
236.7000;0.7481;3.6394;
237.0000;0.7432;3.6226;
237.3000;0.7497;3.6466;
237.6000;0.7513;3.6514;
237.9000;0.7513;3.6466;
238.2000;0.7505;3.6442;
238.5000;0.7546;3.6514;
238.8000;0.7497;3.6514;
239.1000;0.7505;3.6514;
239.4000;0.7489;3.6442;
239.7000;0.7497;3.6538;
240.0000;0.7489;3.6514;
240.3000;0.7513;3.6658;
240.6000;0.7497;3.6610;
240.9000;0.7497;3.6610;
241.2000;0.7481;3.6658;
241.5000;0.7489;3.6610;
241.8000;0.7521;3.6754;
242.1000;0.7473;3.6562;
242.4000;0.7530;3.6634;
242.7000;0.7489;3.6610;
243.0000;0.7489;3.6610;
243.3000;0.7489;3.6490;
243.6000;0.7513;3.6610;
243.9000;0.7497;3.6562;
244.2000;0.7456;3.6418;
244.5000;0.7473;3.6418;
244.8000;0.7505;3.6490;
245.1000;0.7497;3.6442;
245.4000;0.7481;3.6418;
245.7000;0.7497;3.6418;
246.0000;0.7489;3.6442;
246.3000;0.7448;3.6418;
246.6000;0.7481;3.6562;
246.9000;0.7481;3.6586;
247.2000;0.7497;3.6610;
247.5000;0.7464;3.6610;
247.8000;0.7497;3.6610;
248.1000;0.7505;3.6706;
248.4000;0.7497;3.6682;
248.7000;0.7505;3.6730;
249.0000;0.7505;3.6634;
249.3000;0.7432;3.6466;
249.6000;0.7497;3.6658;
249.9000;0.7554;3.6706;
250.2000;0.7513;3.6562;
250.5000;0.7497;3.6586;
250.8000;0.7489;3.6634;
251.1000;0.7440;3.6538;
251.4000;0.7489;3.6610;
251.7000;0.7489;3.6538;
252.0000;0.7481;3.6514;
252.3000;0.7513;3.6562;
252.6000;0.7530;3.6754;
252.9000;0.7505;3.6610;
253.2000;0.7505;3.6682;
253.5000;0.7505;3.6754;
253.8000;0.7513;3.6754;
254.1000;0.7497;3.6610;
254.4000;0.7513;3.6682;
254.7000;0.7505;3.6682;
255.0000;0.7513;3.6778;
255.3000;0.7489;3.6730;
255.6000;0.7497;3.6682;
255.9000;0.7416;3.6514;
256.2000;0.7497;3.6634;
256.5000;0.7505;3.6586;
256.8000;0.7481;3.6562;
257.1000;0.7489;3.6586;
257.4000;0.7489;3.6610;
257.7000;0.7432;3.6418;
258.0000;0.7489;3.6466;
258.3000;0.7489;3.6490;
258.6000;0.7505;3.6514;
258.9000;0.7481;3.6514;
259.2000;0.7497;3.6490;
259.5000;0.7440;3.6418;
259.8000;0.7489;3.6610;
260.1000;0.7497;3.6610;
260.4000;0.7464;3.6514;
260.7000;0.7489;3.6466;
261.0000;0.7473;3.6418;
261.3000;0.7505;3.6490;
261.6000;0.7505;3.6538;
261.9000;0.7489;3.6514;
262.2000;0.7513;3.6466;
262.5000;0.7497;3.6442;
262.8000;0.7505;3.6394;
263.1000;0.7497;3.6346;
263.4000;0.7513;3.6394;
263.7000;0.7497;3.6394;
264.0000;0.7513;3.6370;
264.3000;0.7513;3.6370;
264.6000;0.7497;3.6274;
264.9000;0.7489;3.6298;
265.2000;0.7521;3.6442;
265.5000;0.7497;3.6346;
265.8000;0.7489;3.6346;
266.1000;0.7481;3.6322;
266.4000;0.7448;3.6226;
266.7000;0.7497;3.6394;
267.0000;0.7489;3.6274;
267.3000;0.7481;3.6274;
267.6000;0.7456;3.6274;
267.9000;0.7505;3.6346;
268.2000;0.7481;3.6250;
268.5000;0.7513;3.6346;
268.8000;0.7505;3.6322;
269.1000;0.7497;3.6298;
269.4000;0.7489;3.6250;
269.7000;0.7481;3.6250;
270.0000;0.7481;3.6298;
270.3000;0.7578;3.6466;
270.6000;0.7497;3.6298;
270.9000;0.7513;3.6370;
271.2000;0.7489;3.6250;
271.5000;0.7513;3.6346;
271.8000;0.7456;3.6250;
272.1000;0.7416;3.6178;
272.4000;0.7497;3.6394;
272.7000;0.7513;3.6442;
273.0000;0.7497;3.6418;
273.3000;0.7505;3.6466;
273.6000;0.7513;3.6466;
273.9000;0.7554;3.6562;
274.2000;0.7505;3.6514;
274.5000;0.7497;3.6442;
274.8000;0.7497;3.6418;
275.1000;0.7424;3.6250;
275.4000;0.7513;3.6394;
275.7000;0.7481;3.6274;
276.0000;0.7473;3.6322;
276.3000;0.7481;3.6370;
276.6000;0.7505;3.6394;
276.9000;0.7489;3.6442;
277.2000;0.7505;3.6562;
277.5000;0.7473;3.6586;
277.8000;0.7521;3.6682;
278.1000;0.7513;3.6658;
278.4000;0.7505;3.6658;
278.7000;0.7497;3.6634;
279.0000;0.7497;3.6610;
279.3000;0.7505;3.6514;
279.6000;0.7497;3.6466;
279.9000;0.7473;3.6442;
280.2000;0.7481;3.6466;
280.5000;0.7489;3.6442;
280.8000;0.7489;3.6394;
281.1000;0.7505;3.6394;
281.4000;0.7473;3.6370;
281.7000;0.7489;3.6370;
282.0000;0.7489;3.6370;
282.3000;0.7464;3.6442;
282.6000;0.7481;3.6514;
282.9000;0.7497;3.6562;
283.2000;0.7473;3.6466;
283.5000;0.7489;3.6586;
283.8000;0.7497;3.6658;
284.1000;0.7497;3.6658;
284.4000;0.7505;3.6610;
284.7000;0.7521;3.6634;
285.0000;0.7489;3.6562;
285.3000;0.7481;3.6610;
285.6000;0.7489;3.6658;
285.9000;0.7481;3.6610;
286.2000;0.7489;3.6610;
286.5000;0.7489;3.6562;
286.8000;0.7497;3.6514;
287.1000;0.7505;3.6538;
287.4000;0.7489;3.6466;
287.7000;0.7521;3.6562;
288.0000;0.7489;3.6442;
288.3000;0.7448;3.6346;
288.6000;0.7513;3.6466;
288.9000;0.7489;3.6322;
289.2000;0.7489;3.6322;
289.5000;0.7473;3.6226;
289.8000;0.7489;3.6298;
290.1000;0.7505;3.6394;
290.4000;0.7497;3.6346;
290.7000;0.7456;3.6226;
291.0000;0.7497;3.6370;
291.3000;0.7497;3.6418;
291.6000;0.7497;3.6490;
291.9000;0.7456;3.6490;
292.2000;0.7464;3.6466;
292.5000;0.7489;3.6466;
292.8000;0.7586;3.6658;
293.1000;0.7489;3.6466;
293.4000;0.7489;3.6466;
293.7000;0.7497;3.6418;
294.0000;0.7489;3.6586;
294.3000;0.7505;3.6658;
294.6000;0.7513;3.6706;
294.9000;0.7497;3.6754;
295.2000;0.7497;3.6682;
295.5000;0.7416;3.6418;
295.8000;0.7562;3.6658;
296.1000;0.7481;3.6370;
296.4000;0.7497;3.6370;
296.7000;0.7497;3.6250;
297.0000;0.7505;3.6274;
297.3000;0.7497;3.6274;
297.6000;0.7505;3.6274;
297.9000;0.7521;3.6250;
298.2000;0.7513;3.6226;
298.5000;0.7497;3.6010;
298.8000;0.7513;3.6010;
299.1000;0.7497;3.6106;
299.4000;0.7505;3.6082;
299.7000;0.7505;3.6106;
300.0000;0.7481;3.6202;
300.3000;0.7464;3.6202;
300.6000;0.7448;3.6130;
300.9000;0.7521;3.6322;
301.2000;0.7473;3.6226;
301.5000;0.7481;3.6346;
301.8000;0.7489;3.6370;
302.1000;0.7473;3.6298;
302.4000;0.7497;3.6346;
302.7000;0.7440;3.6202;
303.0000;0.7505;3.6226;
303.3000;0.7473;3.6178;
303.6000;0.7497;3.6226;
303.9000;0.7489;3.6250;
304.2000;0.7513;3.6346;
304.5000;0.7424;3.6154;
304.8000;0.7489;3.6346;
305.1000;0.7481;3.6346;
305.4000;0.7456;3.6274;
305.7000;0.7481;3.6370;
306.0000;0.7473;3.6322;
306.3000;0.7497;3.6298;
306.6000;0.7473;3.6322;
306.9000;0.7473;3.6298;
307.2000;0.7538;3.6394;
307.5000;0.7489;3.6298;
307.8000;0.7554;3.6442;
308.1000;0.7489;3.6322;
308.4000;0.7505;3.6394;
308.7000;0.7497;3.6370;
309.0000;0.7505;3.6394;
309.3000;0.7505;3.6490;
309.6000;0.7513;3.6490;
309.9000;0.7481;3.6442;
310.2000;0.7489;3.6538;
310.5000;0.7505;3.6466;
310.8000;0.7456;3.6298;
311.1000;0.7497;3.6298;
311.4000;0.7473;3.6298;
311.7000;0.7424;3.6226;
312.0000;0.7481;3.6298;
312.3000;0.7489;3.6250;
312.6000;0.7538;3.6274;
312.9000;0.7521;3.6298;
313.2000;0.7497;3.6202;
313.5000;0.7530;3.6250;
313.8000;0.7505;3.6202;
314.1000;0.7481;3.6178;
314.4000;0.7489;3.6226;
314.7000;0.7440;3.6202;
315.0000;0.7505;3.6442;
315.3000;0.7489;3.6394;
315.6000;0.7497;3.6418;
315.9000;0.7497;3.6274;
316.2000;0.7489;3.6274;
316.5000;0.7481;3.6322;
316.8000;0.7473;3.6346;
317.1000;0.7481;3.6346;
317.4000;0.7481;3.6370;
317.7000;0.7473;3.6394;
318.0000;0.7473;3.6322;
318.3000;0.7473;3.6322;
318.6000;0.7497;3.6370;
318.9000;0.7481;3.6298;
319.2000;0.7481;3.6250;
319.5000;0.7546;3.6322;
319.8000;0.7481;3.6154;
320.1000;0.7489;3.6202;
320.4000;0.7497;3.6202;
320.7000;0.7497;3.6106;
321.0000;0.7489;3.6082;
321.3000;0.7489;3.6106;
321.6000;0.7481;3.6082;
321.9000;0.7473;3.6130;
322.2000;0.7473;3.6202;
322.5000;0.7481;3.6226;
322.8000;0.7481;3.6250;
323.1000;0.7464;3.6322;
323.4000;0.7489;3.6394;
323.7000;0.7489;3.6514;
324.0000;0.7456;3.6418;
324.3000;0.7481;3.6346;
324.6000;0.7505;3.6490;
324.9000;0.7497;3.6418;
325.2000;0.7464;3.6370;
325.5000;0.7481;3.6418;
325.8000;0.7473;3.6370;
326.1000;0.7489;3.6442;
326.4000;0.7497;3.6442;
326.7000;0.7424;3.6322;
327.0000;0.7521;3.6466;
327.3000;0.7489;3.6442;
327.6000;0.7489;3.6490;
327.9000;0.7489;3.6490;
328.2000;0.7481;3.6490;
328.5000;0.7481;3.6514;
328.8000;0.7448;3.6346;
329.1000;0.7489;3.6418;
329.4000;0.7505;3.6418;
329.7000;0.7538;3.6538;
330.0000;0.7497;3.6418;
330.3000;0.7473;3.6322;
330.6000;0.7424;3.6274;
330.9000;0.7530;3.6586;
331.2000;0.7489;3.6538;
331.5000;0.7530;3.6610;
331.8000;0.7489;3.6514;
332.1000;0.7464;3.6466;
332.4000;0.7505;3.6418;
332.7000;0.7521;3.6466;
333.0000;0.7505;3.6466;
333.3000;0.7481;3.6442;
333.6000;0.7513;3.6466;
333.9000;0.7497;3.6562;
334.2000;0.7505;3.6610;
334.5000;0.7481;3.6562;
334.8000;0.7497;3.6658;
335.1000;0.7489;3.6682;
335.4000;0.7497;3.6562;
335.7000;0.7473;3.6490;
336.0000;0.7489;3.6538;
336.3000;0.7489;3.6514;
336.6000;0.7473;3.6442;
336.9000;0.7473;3.6418;
337.2000;0.7489;3.6490;
337.5000;0.7489;3.6586;
337.8000;0.7489;3.6586;
338.1000;0.7497;3.6610;
338.4000;0.7481;3.6586;
338.7000;0.7505;3.6610;
339.0000;0.7562;3.6730;
339.3000;0.7497;3.6586;
339.6000;0.7481;3.6538;
339.9000;0.7489;3.6538;
340.2000;0.7489;3.6586;
340.5000;0.7497;3.6658;
340.8000;0.7473;3.6610;
341.1000;0.7473;3.6610;
341.4000;0.7505;3.6706;
341.7000;0.7489;3.6682;
342.0000;0.7473;3.6658;
342.3000;0.7497;3.6682;
342.6000;0.7497;3.6610;
342.9000;0.7481;3.6610;
343.2000;0.7489;3.6514;
343.5000;0.7513;3.6634;
343.8000;0.7489;3.6706;
344.1000;0.7481;3.6658;
344.4000;0.7481;3.6658;
344.7000;0.7481;3.6634;
345.0000;0.7513;3.6634;
345.3000;0.7489;3.6514;
345.6000;0.7489;3.6322;
345.9000;0.7473;3.6250;
346.2000;0.7481;3.6394;
346.5000;0.7481;3.6442;
346.8000;0.7481;3.6442;
347.1000;0.7456;3.6538;
347.4000;0.7481;3.6562;
347.7000;0.7464;3.6562;
348.0000;0.7456;3.6538;
348.3000;0.7464;3.6562;
348.6000;0.7456;3.6514;
348.9000;0.7481;3.6586;
349.2000;0.7489;3.6586;
349.5000;0.7448;3.6514;
349.8000;0.7456;3.6394;
350.1000;0.7456;3.6394;
350.4000;0.7464;3.6418;
350.7000;0.7424;3.6274;
351.0000;0.7481;3.6490;
351.3000;0.7464;3.6418;
351.6000;0.7489;3.6466;
351.9000;0.7464;3.6466;
352.2000;0.7505;3.6538;
352.5000;0.7489;3.6514;
352.8000;0.7489;3.6490;
353.1000;0.7489;3.6538;
353.4000;0.7497;3.6514;
353.7000;0.7399;3.6418;
354.0000;0.7416;3.6466;
354.3000;0.7497;3.6682;
354.6000;0.7481;3.6634;
354.9000;0.7473;3.6610;
355.2000;0.7473;3.6658;
355.5000;0.7489;3.6634;
355.8000;0.7489;3.6658;
356.1000;0.7464;3.6610;
356.4000;0.7497;3.6634;
356.7000;0.7481;3.6586;
357.0000;0.7464;3.6490;
357.3000;0.7481;3.6562;
357.6000;0.7489;3.6538;
357.9000;0.7489;3.6610;
358.2000;0.7489;3.6730;
358.5000;0.7473;3.6706;
358.8000;0.7481;3.6634;
359.1000;0.7489;3.6610;
359.4000;0.7497;3.6634;
359.7000;0.7448;3.6562;
360.0000;0.7473;3.6586;
360.3000;0.7497;3.6610;
360.6000;0.7489;3.6610;
360.9000;0.7481;3.6538;
361.2000;0.7489;3.6538;
361.5000;0.7497;3.6538;
361.8000;0.7497;3.6586;
362.1000;0.7497;3.6706;
362.4000;0.7440;3.6514;
362.7000;0.7473;3.6634;
363.0000;0.7505;3.6730;
363.3000;0.7505;3.6730;
363.6000;0.7456;3.6562;
363.9000;0.7481;3.6562;
364.2000;0.7497;3.6658;
364.5000;0.7521;3.6634;
364.8000;0.7473;3.6514;
365.1000;0.7456;3.6442;
365.4000;0.7505;3.6538;
365.7000;0.7554;3.6682;
366.0000;0.7513;3.6538;
366.3000;0.7473;3.6514;
366.6000;0.7497;3.6562;
366.9000;0.7489;3.6586;
367.2000;0.7481;3.6562;
367.5000;0.7497;3.6610;
367.8000;0.7497;3.6610;
368.1000;0.7489;3.6682;
368.4000;0.7497;3.6682;
368.7000;0.7481;3.6610;
369.0000;0.7464;3.6490;
369.3000;0.7481;3.6490;
369.6000;0.7481;3.6466;
369.9000;0.7489;3.6562;
370.2000;0.7481;3.6466;
370.5000;0.7456;3.6394;
370.8000;0.7489;3.6538;
371.1000;0.7489;3.6586;
371.4000;0.7473;3.6610;
371.7000;0.7464;3.6562;
372.0000;0.7440;3.6394;
372.3000;0.7473;3.6418;
372.6000;0.7464;3.6418;
372.9000;0.7456;3.6442;
373.2000;0.7497;3.6490;
373.5000;0.7440;3.6466;
373.8000;0.7481;3.6490;
374.1000;0.7464;3.6538;
374.4000;0.7481;3.6514;
374.7000;0.7416;3.6394;
375.0000;0.7464;3.6562;
375.3000;0.7473;3.6586;
375.6000;0.7456;3.6466;
375.9000;0.7464;3.6418;
376.2000;0.7464;3.6394;
376.5000;0.7464;3.6394;
376.8000;0.7473;3.6394;
377.1000;0.7481;3.6442;
377.4000;0.7489;3.6514;
377.7000;0.7456;3.6514;
378.0000;0.7530;3.6754;
378.3000;0.7481;3.6610;
378.6000;0.7497;3.6610;
378.9000;0.7456;3.6514;
379.2000;0.7489;3.6562;
379.5000;0.7481;3.6634;
379.8000;0.7464;3.6562;
380.1000;0.7481;3.6490;
380.4000;0.7489;3.6514;
380.7000;0.7473;3.6490;
381.0000;0.7497;3.6562;
381.3000;0.7497;3.6490;
381.6000;0.7473;3.6394;
381.9000;0.7473;3.6466;
382.2000;0.7489;3.6562;
382.5000;0.7464;3.6466;
382.8000;0.7464;3.6418;
383.1000;0.7473;3.6514;
383.4000;0.7489;3.6538;
383.7000;0.7505;3.6562;
384.0000;0.7481;3.6466;
384.3000;0.7416;3.6298;
384.6000;0.7473;3.6490;
384.9000;0.7407;3.6274;
385.2000;0.7497;3.6490;
385.5000;0.7513;3.6538;
385.8000;0.7489;3.6586;
386.1000;0.7464;3.6538;
386.4000;0.7481;3.6586;
386.7000;0.7473;3.6586;
387.0000;0.7489;3.6562;
387.3000;0.7473;3.6634;
387.6000;0.7481;3.6610;
387.9000;0.7424;3.6466;
388.2000;0.7464;3.6658;
388.5000;0.7464;3.6586;
388.8000;0.7456;3.6490;
389.1000;0.7473;3.6466;
389.4000;0.7489;3.6490;
389.7000;0.7505;3.6466;
390.0000;0.7473;3.6418;
390.3000;0.7464;3.6442;
390.6000;0.7473;3.6394;
390.9000;0.7473;3.6394;
391.2000;0.7473;3.6442;
391.5000;0.7448;3.6370;
391.8000;0.7448;3.6466;
392.1000;0.7497;3.6514;
392.4000;0.7473;3.6490;
392.7000;0.7481;3.6538;
393.0000;0.7505;3.6610;
393.3000;0.7505;3.6466;
393.6000;0.7456;3.6394;
393.9000;0.7481;3.6562;
394.2000;0.7497;3.6634;
394.5000;0.7481;3.6706;
394.8000;0.7456;3.6658;
395.1000;0.7481;3.6730;
395.4000;0.7530;3.6922;
395.7000;0.7481;3.6826;
396.0000;0.7464;3.6754;
396.3000;0.7489;3.6826;
396.6000;0.7464;3.6802;
396.9000;0.7448;3.6706;
397.2000;0.7497;3.6730;
397.5000;0.7497;3.6730;
397.8000;0.7473;3.6754;
398.1000;0.7489;3.6730;
398.4000;0.7530;3.6898;
398.7000;0.7481;3.6778;
399.0000;0.7489;3.6802;
399.3000;0.7473;3.6706;
399.6000;0.7489;3.6706;
399.9000;0.7481;3.6562;
400.2000;0.7473;3.6514;
400.5000;0.7489;3.6514;
400.8000;0.7497;3.6634;
401.1000;0.7456;3.6586;
401.4000;0.7497;3.6658;
401.7000;0.7505;3.6778;
402.0000;0.7448;3.6754;
402.3000;0.7481;3.6874;
402.6000;0.7473;3.6850;
402.9000;0.7473;3.6730;
403.2000;0.7464;3.6682;
403.5000;0.7448;3.6610;
403.8000;0.7481;3.6634;
404.1000;0.7481;3.6682;
404.4000;0.7489;3.6634;
404.7000;0.7448;3.6562;
405.0000;0.7481;3.6562;
405.3000;0.7481;3.6562;
405.6000;0.7473;3.6610;
405.9000;0.7456;3.6634;
406.2000;0.7481;3.6682;
406.5000;0.7456;3.6730;
406.8000;0.7497;3.6802;
407.1000;0.7481;3.6706;
407.4000;0.7473;3.6658;
407.7000;0.7481;3.6658;
408.0000;0.7481;3.6658;
408.3000;0.7448;3.6538;
408.6000;0.7473;3.6658;
408.9000;0.7481;3.6634;
409.2000;0.7481;3.6634;
409.5000;0.7464;3.6586;
409.8000;0.7456;3.6442;
410.1000;0.7489;3.6634;
410.4000;0.7473;3.6562;
410.7000;0.7473;3.6466;
411.0000;0.7473;3.6538;
411.3000;0.7481;3.6562;
411.6000;0.7489;3.6586;
411.9000;0.7473;3.6586;
412.2000;0.7464;3.6466;
412.5000;0.7473;3.6514;
412.8000;0.7473;3.6466;
413.1000;0.7464;3.6562;
413.4000;0.7456;3.6514;
413.7000;0.7481;3.6562;
414.0000;0.7481;3.6514;
414.3000;0.7489;3.6514;
414.6000;0.7481;3.6538;
414.9000;0.7489;3.6490;
415.2000;0.7505;3.6490;
415.5000;0.7456;3.6466;
415.8000;0.7481;3.6514;
416.1000;0.7481;3.6562;
416.4000;0.7473;3.6562;
416.7000;0.7513;3.6682;
417.0000;0.7464;3.6586;
417.3000;0.7448;3.6562;
417.6000;0.7464;3.6538;
417.9000;0.7464;3.6586;
418.2000;0.7464;3.6586;
418.5000;0.7562;3.6898;
418.8000;0.7464;3.6634;
419.1000;0.7464;3.6610;
419.4000;0.7367;3.6346;
419.7000;0.7473;3.6610;
420.0000;0.7448;3.6562;
420.3000;0.7481;3.6658;
420.6000;0.7464;3.6562;
420.9000;0.7473;3.6586;
421.2000;0.7481;3.6658;
421.5000;0.7473;3.6610;
421.8000;0.7464;3.6538;
422.1000;0.7464;3.6562;
422.4000;0.7448;3.6490;
422.7000;0.7538;3.6778;
423.0000;0.7464;3.6610;
423.3000;0.7473;3.6610;
423.6000;0.7473;3.6682;
423.9000;0.7473;3.6658;
424.2000;0.7464;3.6610;
424.5000;0.7456;3.6562;
424.8000;0.7464;3.6562;
425.1000;0.7489;3.6538;
425.4000;0.7473;3.6562;
425.7000;0.7473;3.6586;
426.0000;0.7481;3.6610;
426.3000;0.7473;3.6706;
426.6000;0.7464;3.6610;
426.9000;0.7473;3.6514;
427.2000;0.7497;3.6586;
427.5000;0.7407;3.6322;
427.8000;0.7489;3.6538;
428.1000;0.7530;3.6562;
428.4000;0.7481;3.6418;
428.7000;0.7464;3.6298;
429.0000;0.7473;3.6346;
429.3000;0.7440;3.6370;
429.6000;0.7513;3.6586;
429.9000;0.7473;3.6514;
430.2000;0.7481;3.6370;
430.5000;0.7473;3.6394;
430.8000;0.7481;3.6418;
431.1000;0.7448;3.6346;
431.4000;0.7464;3.6442;
431.7000;0.7481;3.6490;
432.0000;0.7424;3.6298;
432.3000;0.7464;3.6418;
432.6000;0.7456;3.6370;
432.9000;0.7473;3.6346;
433.2000;0.7481;3.6418;
433.5000;0.7399;3.6202;
433.8000;0.7489;3.6442;
434.1000;0.7473;3.6394;
434.4000;0.7481;3.6418;
434.7000;0.7464;3.6370;
435.0000;0.7464;3.6250;
435.3000;0.7481;3.6250;
435.6000;0.7481;3.6298;
435.9000;0.7456;3.6202;
436.2000;0.7464;3.6274;
436.5000;0.7456;3.6274;
436.8000;0.7473;3.6322;
437.1000;0.7464;3.6322;
437.4000;0.7481;3.6370;
437.7000;0.7481;3.6370;
438.0000;0.7464;3.6298;
438.3000;0.7464;3.6226;
438.6000;0.7473;3.6298;
438.9000;0.7464;3.6322;
439.2000;0.7489;3.6346;
439.5000;0.7440;3.6298;
439.8000;0.7481;3.6442;
440.1000;0.7416;3.6346;
440.4000;0.7489;3.6562;
440.7000;0.7448;3.6586;
441.0000;0.7473;3.6658;
441.3000;0.7456;3.6682;
441.6000;0.7497;3.6730;
441.9000;0.7464;3.6610;
442.2000;0.7448;3.6514;
442.5000;0.7481;3.6682;
442.8000;0.7456;3.6586;
443.1000;0.7456;3.6610;
443.4000;0.7464;3.6610;
443.7000;0.7448;3.6442;
444.0000;0.7456;3.6418;
444.3000;0.7481;3.6418;
444.6000;0.7481;3.6346;
444.9000;0.7489;3.6394;
445.2000;0.7464;3.6322;
445.5000;0.7521;3.6418;
445.8000;0.7456;3.6370;
446.1000;0.7464;3.6466;
446.4000;0.7456;3.6466;
446.7000;0.7546;3.6706;
447.0000;0.7578;3.6850;
447.3000;0.7489;3.6730;
447.6000;0.7456;3.6586;
447.9000;0.7448;3.6634;
448.2000;0.7481;3.6778;
448.5000;0.7456;3.6730;
448.8000;0.7473;3.6754;
449.1000;0.7473;3.6634;
449.4000;0.7473;3.6586;
449.7000;0.7464;3.6538;
450.0000;0.7481;3.6610;
450.3000;0.7464;3.6682;
450.6000;0.7473;3.6586;
450.9000;0.7489;3.6562;
451.2000;0.7473;3.6586;
451.5000;0.7464;3.6634;
451.8000;0.7464;3.6658;
452.1000;0.7481;3.6706;
452.4000;0.7456;3.6658;
452.7000;0.7473;3.6610;
453.0000;0.7464;3.6538;
453.3000;0.7473;3.6514;
453.6000;0.7456;3.6514;
453.9000;0.7464;3.6466;
454.2000;0.7473;3.6490;
454.5000;0.7546;3.6610;
454.8000;0.7464;3.6346;
455.1000;0.7456;3.6442;
455.4000;0.7464;3.6514;
455.7000;0.7497;3.6538;
456.0000;0.7440;3.6514;
456.3000;0.7464;3.6514;
456.6000;0.7489;3.6658;
456.9000;0.7464;3.6610;
457.2000;0.7473;3.6562;
457.5000;0.7456;3.6442;
457.8000;0.7464;3.6466;
458.1000;0.7481;3.6514;
458.4000;0.7489;3.6562;
458.7000;0.7473;3.6490;
459.0000;0.7513;3.6610;
459.3000;0.7481;3.6538;
459.6000;0.7481;3.6442;
459.9000;0.7456;3.6394;
460.2000;0.7464;3.6442;
460.5000;0.7464;3.6490;
460.8000;0.7481;3.6538;
461.1000;0.7473;3.6514;
461.4000;0.7464;3.6514;
461.7000;0.7464;3.6442;
462.0000;0.7481;3.6514;
462.3000;0.7481;3.6514;
462.6000;0.7473;3.6490;
462.9000;0.7448;3.6490;
463.2000;0.7464;3.6514;
463.5000;0.7489;3.6586;
463.8000;0.7489;3.6466;
464.1000;0.7448;3.6394;
464.4000;0.7554;3.6706;
464.7000;0.7464;3.6370;
465.0000;0.7489;3.6442;
465.3000;0.7481;3.6418;
465.6000;0.7497;3.6466;
465.9000;0.7456;3.6418;
466.2000;0.7464;3.6514;
466.5000;0.7448;3.6418;
466.8000;0.7416;3.6298;
467.1000;0.7456;3.6490;
467.4000;0.7464;3.6538;
467.7000;0.7489;3.6538;
468.0000;0.7473;3.6514;
468.3000;0.7481;3.6490;
468.6000;0.7538;3.6610;
468.9000;0.7432;3.6370;
469.2000;0.7464;3.6418;
469.5000;0.7464;3.6322;
469.8000;0.7473;3.6394;
470.1000;0.7456;3.6274;
470.4000;0.7473;3.6322;
470.7000;0.7530;3.6466;
471.0000;0.7391;3.6202;
471.3000;0.7473;3.6394;
471.6000;0.7473;3.6418;
471.9000;0.7497;3.6514;
472.2000;0.7464;3.6442;
472.5000;0.7473;3.6418;
472.8000;0.7489;3.6394;
473.1000;0.7464;3.6370;
473.4000;0.7481;3.6346;
473.7000;0.7481;3.6394;
474.0000;0.7489;3.6442;
474.3000;0.7464;3.6466;
474.6000;0.7481;3.6442;
474.9000;0.7530;3.6490;
475.2000;0.7456;3.6322;
475.5000;0.7481;3.6346;
475.8000;0.7456;3.6226;
476.1000;0.7481;3.6226;
476.4000;0.7440;3.6130;
476.7000;0.7464;3.6082;
477.0000;0.7464;3.6178;
477.3000;0.7464;3.6130;
477.6000;0.7440;3.6130;
477.9000;0.7456;3.6226;
478.2000;0.7448;3.6226;
478.5000;0.7473;3.6250;
478.8000;0.7481;3.6226;
479.1000;0.7562;3.6418;
479.4000;0.7464;3.6250;
479.7000;0.7456;3.6274;
480.0000;0.7497;3.6298;
480.3000;0.7464;3.6274;
480.6000;0.7473;3.6346;
480.9000;0.7448;3.6346;
481.2000;0.7473;3.6394;
481.5000;0.7473;3.6490;
481.8000;0.7448;3.6418;
482.1000;0.7481;3.6490;
482.4000;0.7481;3.6514;
482.7000;0.7464;3.6538;
483.0000;0.7448;3.6514;
483.3000;0.7481;3.6610;
483.6000;0.7481;3.6586;
483.9000;0.7464;3.6538;
484.2000;0.7473;3.6538;
484.5000;0.7473;3.6538;
484.8000;0.7464;3.6538;
485.1000;0.7489;3.6610;
485.4000;0.7473;3.6610;
485.7000;0.7481;3.6634;
486.0000;0.7473;3.6586;
486.3000;0.7464;3.6490;
486.6000;0.7440;3.6442;
486.9000;0.7424;3.6322;
487.2000;0.7448;3.6322;
487.5000;0.7456;3.6370;
487.8000;0.7464;3.6394;
488.1000;0.7440;3.6370;
488.4000;0.7497;3.6514;
488.7000;0.7481;3.6490;
489.0000;0.7473;3.6562;
489.3000;0.7464;3.6490;
489.6000;0.7407;3.6322;
489.9000;0.7456;3.6466;
490.2000;0.7456;3.6322;
490.5000;0.7473;3.6322;
490.8000;0.7456;3.6298;
491.1000;0.7456;3.6370;
491.4000;0.7473;3.6370;
491.7000;0.7432;3.6346;
492.0000;0.7440;3.6394;
492.3000;0.7473;3.6514;
492.6000;0.7505;3.6586;
492.9000;0.7456;3.6346;
493.2000;0.7497;3.6514;
493.5000;0.7481;3.6466;
493.8000;0.7481;3.6634;
494.1000;0.7448;3.6634;
494.4000;0.7464;3.6682;
494.7000;0.7473;3.6682;
495.0000;0.7489;3.6682;
495.3000;0.7464;3.6538;
495.6000;0.7464;3.6490;
495.9000;0.7473;3.6418;
496.2000;0.7473;3.6466;
496.5000;0.7473;3.6514;
496.8000;0.7481;3.6514;
497.1000;0.7473;3.6418;
497.4000;0.7456;3.6394;
497.7000;0.7448;3.6370;
498.0000;0.7473;3.6442;
498.3000;0.7456;3.6394;
498.6000;0.7505;3.6514;
498.9000;0.7546;3.6610;
499.2000;0.7456;3.6442;
499.5000;0.7448;3.6490;
499.8000;0.7456;3.6514;
500.1000;0.7489;3.6634;
500.4000;0.7416;3.6466;
500.7000;0.7489;3.6586;
501.0000;0.7440;3.6466;
501.3000;0.7456;3.6514;
501.6000;0.7456;3.6586;
501.9000;0.7456;3.6586;
502.2000;0.7448;3.6562;
502.5000;0.7505;3.6730;
502.8000;0.7497;3.6610;
503.1000;0.7473;3.6634;
503.4000;0.7456;3.6610;
503.7000;0.7416;3.6514;
504.0000;0.7464;3.6634;
504.3000;0.7464;3.6610;
504.6000;0.7464;3.6562;
504.9000;0.7464;3.6586;
505.2000;0.7481;3.6586;
505.5000;0.7481;3.6490;
505.8000;0.7489;3.6466;
506.1000;0.7473;3.6418;
506.4000;0.7464;3.6442;
506.7000;0.7481;3.6466;
507.0000;0.7473;3.6538;
507.3000;0.7473;3.6586;
507.6000;0.7489;3.6658;
507.9000;0.7464;3.6586;
508.2000;0.7456;3.6490;
508.5000;0.7448;3.6490;
508.8000;0.7464;3.6442;
509.1000;0.7497;3.6538;
509.4000;0.7464;3.6490;
509.7000;0.7473;3.6514;
510.0000;0.7464;3.6586;
510.3000;0.7489;3.6634;
510.6000;0.7448;3.6586;
510.9000;0.7416;3.6418;
511.2000;0.7464;3.6586;
511.5000;0.7473;3.6586;
511.8000;0.7489;3.6634;
512.1000;0.7440;3.6538;
512.4000;0.7440;3.6538;
512.7000;0.7448;3.6538;
513.0000;0.7456;3.6538;
513.3000;0.7440;3.6442;
513.6000;0.7448;3.6538;
513.9000;0.7448;3.6514;
514.2000;0.7432;3.6490;
514.5000;0.7399;3.6370;
514.8000;0.7456;3.6538;
515.1000;0.7440;3.6490;
515.4000;0.7448;3.6442;
515.7000;0.7448;3.6442;
516.0000;0.7456;3.6442;
516.3000;0.7440;3.6466;
516.6000;0.7448;3.6466;
516.9000;0.7456;3.6418;
517.2000;0.7456;3.6466;
517.5000;0.7464;3.6514;
517.8000;0.7497;3.6586;
518.1000;0.7481;3.6586;
518.4000;0.7464;3.6634;
518.7000;0.7440;3.6586;
519.0000;0.7448;3.6610;
519.3000;0.7473;3.6658;
519.6000;0.7424;3.6466;
519.9000;0.7489;3.6706;
520.2000;0.7473;3.6730;
520.5000;0.7481;3.6754;
520.8000;0.7473;3.6658;
521.1000;0.7456;3.6658;
521.4000;0.7456;3.6634;
521.7000;0.7456;3.6538;
522.0000;0.7456;3.6634;
522.3000;0.7440;3.6490;
522.6000;0.7505;3.6658;
522.9000;0.7497;3.6610;
523.2000;0.7464;3.6586;
523.5000;0.7456;3.6586;
523.8000;0.7424;3.6490;
524.1000;0.7464;3.6610;
524.4000;0.7448;3.6634;
524.7000;0.7424;3.6658;
525.0000;0.7456;3.6754;
525.3000;0.7521;3.6874;
525.6000;0.7448;3.6610;
525.9000;0.7464;3.6634;
526.2000;0.7464;3.6706;
526.5000;0.7424;3.6778;
526.8000;0.7456;3.6730;
527.1000;0.7473;3.6682;
527.4000;0.7489;3.6634;
527.7000;0.7456;3.6466;
528.0000;0.7464;3.6514;
528.3000;0.7473;3.6562;
528.6000;0.7448;3.6538;
528.9000;0.7456;3.6538;
529.2000;0.7448;3.6538;
529.5000;0.7464;3.6490;
529.8000;0.7464;3.6562;
530.1000;0.7456;3.6610;
530.4000;0.7464;3.6610;
530.7000;0.7473;3.6610;
531.0000;0.7464;3.6490;
531.3000;0.7464;3.6466;
531.6000;0.7424;3.6418;
531.9000;0.7505;3.6538;
532.2000;0.7473;3.6538;
532.5000;0.7456;3.6466;
532.8000;0.7456;3.6394;
533.1000;0.7497;3.6490;
533.4000;0.7456;3.6394;
533.7000;0.7473;3.6514;
534.0000;0.7407;3.6466;
534.3000;0.7456;3.6634;
534.6000;0.7489;3.6634;
534.9000;0.7367;3.6298;
535.2000;0.7456;3.6562;
535.5000;0.7464;3.6634;
535.8000;0.7473;3.6682;
536.1000;0.7473;3.6706;
536.4000;0.7481;3.6754;
536.7000;0.7497;3.6802;
537.0000;0.7448;3.6850;
537.3000;0.7448;3.6970;
537.6000;0.7424;3.6874;
537.9000;0.7464;3.6826;
538.2000;0.7464;3.6730;
538.5000;0.7375;3.6466;
538.8000;0.7497;3.6658;
539.1000;0.7473;3.6610;
539.4000;0.7464;3.6586;
539.7000;0.7456;3.6610;
540.0000;0.7448;3.6610;
540.3000;0.7473;3.6634;
540.6000;0.7489;3.6730;
540.9000;0.7481;3.6610;
541.2000;0.7489;3.6610;
541.5000;0.7473;3.6610;
541.8000;0.7464;3.6586;
542.1000;0.7456;3.6538;
542.4000;0.7473;3.6538;
542.7000;0.7464;3.6586;
543.0000;0.7456;3.6610;
543.3000;0.7481;3.6586;
543.6000;0.7464;3.6466;
543.9000;0.7456;3.6586;
544.2000;0.7481;3.6610;
544.5000;0.7456;3.6562;
544.8000;0.7473;3.6562;
545.1000;0.7464;3.6562;
545.4000;0.7456;3.6586;
545.7000;0.7456;3.6634;
546.0000;0.7456;3.6634;
546.3000;0.7497;3.6706;
546.6000;0.7448;3.6562;
546.9000;0.7440;3.6562;
547.2000;0.7440;3.6538;
547.5000;0.7432;3.6562;
547.8000;0.7440;3.6562;
548.1000;0.7464;3.6514;
548.4000;0.7456;3.6562;
548.7000;0.7440;3.6562;
549.0000;0.7440;3.6682;
549.3000;0.7375;3.6586;
549.6000;0.7456;3.6802;
549.9000;0.7448;3.6802;
550.2000;0.7448;3.6826;
550.5000;0.7448;3.6826;
550.8000;0.7416;3.6706;
551.1000;0.7440;3.6682;
551.4000;0.7440;3.6610;
551.7000;0.7448;3.6634;
552.0000;0.7432;3.6610;
552.3000;0.7432;3.6730;
552.6000;0.7448;3.6802;
552.9000;0.7448;3.6802;
553.2000;0.7440;3.6754;
553.5000;0.7448;3.6730;
553.8000;0.7464;3.6730;
554.1000;0.7464;3.6826;
554.4000;0.7481;3.6802;
554.7000;0.7489;3.6778;
555.0000;0.7497;3.6634;
555.3000;0.7464;3.6562;
555.6000;0.7456;3.6538;
555.9000;0.7456;3.6562;
556.2000;0.7464;3.6634;
556.5000;0.7440;3.6634;
556.8000;0.7473;3.6706;
557.1000;0.7464;3.6634;
557.4000;0.7497;3.6658;
557.7000;0.7464;3.6610;
558.0000;0.7448;3.6706;
558.3000;0.7456;3.6802;
558.6000;0.7530;3.6946;
558.9000;0.7456;3.6682;
559.2000;0.7448;3.6634;
559.5000;0.7448;3.6586;
559.8000;0.7473;3.6610;
560.1000;0.7481;3.6658;
560.4000;0.7375;3.6466;
560.7000;0.7481;3.6706;
561.0000;0.7399;3.6466;
561.3000;0.7464;3.6682;
561.6000;0.7424;3.6706;
561.9000;0.7424;3.6802;
562.2000;0.7448;3.6898;
562.5000;0.7448;3.6802;
562.8000;0.7456;3.6778;
563.1000;0.7489;3.6826;
563.4000;0.7464;3.6706;
563.7000;0.7456;3.6562;
564.0000;0.7440;3.6490;
564.3000;0.7464;3.6634;
564.6000;0.7456;3.6610;
564.9000;0.7546;3.6874;
565.2000;0.7448;3.6634;
565.5000;0.7456;3.6658;
565.8000;0.7448;3.6754;
566.1000;0.7481;3.6778;
566.4000;0.7448;3.6682;
566.7000;0.7456;3.6682;
567.0000;0.7456;3.6634;
567.3000;0.7448;3.6658;
567.6000;0.7456;3.6658;
567.9000;0.7448;3.6610;
568.2000;0.7456;3.6586;
568.5000;0.7473;3.6706;
568.8000;0.7473;3.6802;
569.1000;0.7505;3.6706;
569.4000;0.7473;3.6610;
569.7000;0.7456;3.6586;
570.0000;0.7464;3.6538;
570.3000;0.7464;3.6538;
570.6000;0.7440;3.6442;
570.9000;0.7448;3.6538;
571.2000;0.7456;3.6490;
571.5000;0.7464;3.6466;
571.8000;0.7448;3.6394;
572.1000;0.7432;3.6370;
572.4000;0.7464;3.6466;
572.7000;0.7473;3.6490;
573.0000;0.7464;3.6514;
573.3000;0.7440;3.6442;
573.6000;0.7448;3.6514;
573.9000;0.7456;3.6586;
574.2000;0.7440;3.6610;
574.5000;0.7448;3.6706;
574.8000;0.7497;3.6874;
575.1000;0.7448;3.6778;
575.4000;0.7464;3.6778;
575.7000;0.7464;3.6778;
576.0000;0.7432;3.6682;
576.3000;0.7473;3.6850;
576.6000;0.7456;3.6802;
576.9000;0.7456;3.6754;
577.2000;0.7464;3.6826;
577.5000;0.7456;3.6730;
577.8000;0.7464;3.6730;
578.1000;0.7448;3.6682;
578.4000;0.7473;3.6778;
578.7000;0.7432;3.6586;
579.0000;0.7448;3.6610;
579.3000;0.7448;3.6634;
579.6000;0.7440;3.6634;
579.9000;0.7440;3.6538;
580.2000;0.7473;3.6586;
580.5000;0.7440;3.6562;
580.8000;0.7448;3.6562;
581.1000;0.7440;3.6490;
581.4000;0.7456;3.6562;
581.7000;0.7473;3.6586;
582.0000;0.7456;3.6538;
582.3000;0.7456;3.6610;
582.6000;0.7440;3.6562;
582.9000;0.7456;3.6634;
583.2000;0.7448;3.6610;
583.5000;0.7432;3.6490;
583.8000;0.7456;3.6442;
584.1000;0.7473;3.6418;
584.4000;0.7473;3.6442;
584.7000;0.7456;3.6418;
585.0000;0.7432;3.6346;
585.3000;0.7456;3.6442;
585.6000;0.7473;3.6514;
585.9000;0.7464;3.6466;
586.2000;0.7448;3.6490;
586.5000;0.7464;3.6442;
586.8000;0.7497;3.6538;
587.1000;0.7481;3.6586;
587.4000;0.7464;3.6610;
587.7000;0.7473;3.6586;
588.0000;0.7432;3.6538;
588.3000;0.7456;3.6658;
588.6000;0.7464;3.6610;
588.9000;0.7448;3.6658;
589.2000;0.7473;3.6730;
589.5000;0.7448;3.6634;
589.8000;0.7464;3.6706;
590.1000;0.7424;3.6658;
590.4000;0.7456;3.6730;
590.7000;0.7456;3.6802;
591.0000;0.7407;3.6682;
591.3000;0.7456;3.6706;
591.6000;0.7440;3.6754;
591.9000;0.7440;3.6730;
592.2000;0.7456;3.6850;
592.5000;0.7497;3.6994;
592.8000;0.7448;3.6850;
593.1000;0.7456;3.6874;
593.4000;0.7448;3.6898;
593.7000;0.7416;3.6850;
594.0000;0.7448;3.6778;
594.3000;0.7505;3.6850;
594.6000;0.7440;3.6682;
594.9000;0.7440;3.6658;
595.2000;0.7432;3.6586;
595.5000;0.7448;3.6610;
595.8000;0.7440;3.6562;
596.1000;0.7448;3.6586;
596.4000;0.7432;3.6562;
596.7000;0.7464;3.6634;
597.0000;0.7464;3.6682;
597.3000;0.7440;3.6538;
597.6000;0.7440;3.6490;
597.9000;0.7448;3.6586;
598.2000;0.7456;3.6634;
598.5000;0.7448;3.6538;
598.8000;0.7481;3.6538;
599.1000;0.7440;3.6490;
599.4000;0.7367;3.6298;
599.7000;0.7464;3.6538;
600.0000;0.7350;3.6346;
600.3000;0.7473;3.6370;
600.6000;0.7481;3.6298;
600.9000;0.7464;3.6226;
601.2000;0.7432;3.6130;
601.5000;0.7375;3.5890;
601.8000;0.7350;3.5626;
602.1000;0.7277;3.5410;
602.4000;0.7212;3.5218;
602.7000;0.7188;3.5027;
603.0000;0.7139;3.4859;
603.3000;0.7098;3.4691;
603.6000;0.7049;3.4499;
603.9000;0.6952;3.4283;
604.2000;0.6984;3.4379;
604.5000;0.6935;3.4331;
604.8000;0.6886;3.4259;
605.1000;0.6854;3.4115;
605.4000;0.6821;3.4115;
605.7000;0.6789;3.3971;
606.0000;0.6781;3.3923;
606.3000;0.6748;3.3779;
606.6000;0.6732;3.3683;
606.9000;0.6683;3.3635;
607.2000;0.6683;3.3659;
607.5000;0.6675;3.3635;
607.8000;0.6618;3.3587;
608.1000;0.6577;3.3467;
608.4000;0.6585;3.3467;
608.7000;0.6569;3.3419;
609.0000;0.6569;3.3347;
609.3000;0.6545;3.3299;
609.6000;0.6520;3.3251;
609.9000;0.6536;3.3275;
610.2000;0.6471;3.3251;
610.5000;0.6455;3.3275;
610.8000;0.6455;3.3227;
611.1000;0.6406;3.3059;
611.4000;0.6406;3.3155;
611.7000;0.6341;3.3059;
612.0000;0.6357;3.3131;
612.3000;0.6374;3.3131;
612.6000;0.6349;3.3035;
612.9000;0.6317;3.2891;
613.2000;0.6317;3.2891;
613.5000;0.6317;3.2939;
613.8000;0.6252;3.2915;
614.1000;0.6268;3.2987;
614.4000;0.6260;3.2963;
614.7000;0.6243;3.2987;
615.0000;0.6219;3.2939;
615.3000;0.6211;3.2939;
615.6000;0.6211;3.2987;
615.9000;0.6129;3.2819;
616.2000;0.6170;3.2987;
616.5000;0.6154;3.3035;
616.8000;0.6138;3.3131;
617.1000;0.6121;3.3083;
617.4000;0.6113;3.2987;
617.7000;0.6097;3.2915;
618.0000;0.6097;3.2963;
618.3000;0.6056;3.2795;
618.6000;0.6089;3.2915;
618.9000;0.6056;3.2891;
619.2000;0.6048;3.2819;
619.5000;0.6072;3.2891;
619.8000;0.6072;3.2891;
620.1000;0.6040;3.2891;
620.4000;0.6032;3.2867;
620.7000;0.6007;3.2867;
621.0000;0.5991;3.2819;
621.3000;0.5999;3.2795;
621.6000;0.5991;3.2939;
621.9000;0.5983;3.2963;
622.2000;0.5991;3.2987;
622.5000;0.5983;3.2987;
622.8000;0.5967;3.2891;
623.1000;0.5991;3.2987;
623.4000;0.5967;3.2963;
623.7000;0.5926;3.2747;
624.0000;0.5950;3.2843;
624.3000;0.5934;3.2939;
624.6000;0.5958;3.3011;
624.9000;0.5934;3.3035;
625.2000;0.5926;3.3035;
625.5000;0.5926;3.3059;
625.8000;0.5902;3.2963;
626.1000;0.5885;3.2867;
626.4000;0.5885;3.2915;
626.7000;0.5885;3.2843;
627.0000;0.5853;3.2843;
627.3000;0.5861;3.2915;
627.6000;0.5853;3.2867;
627.9000;0.5893;3.2939;
628.2000;0.5836;3.2699;
628.5000;0.5853;3.2771;
628.8000;0.5820;3.2579;
629.1000;0.5804;3.2531;
629.4000;0.5828;3.2627;
629.7000;0.5812;3.2579;
630.0000;0.5820;3.2627;
630.3000;0.5804;3.2699;
630.6000;0.5804;3.2747;
630.9000;0.5804;3.2795;
631.2000;0.5788;3.2771;
631.5000;0.5779;3.2723;
631.8000;0.5788;3.2723;
632.1000;0.5755;3.2603;
632.4000;0.5763;3.2603;
632.7000;0.5763;3.2603;
633.0000;0.5739;3.2484;
633.3000;0.5731;3.2460;
633.6000;0.5755;3.2555;
633.9000;0.5747;3.2579;
634.2000;0.5731;3.2531;
634.5000;0.5722;3.2603;
634.8000;0.5731;3.2651;
635.1000;0.5739;3.2675;
635.4000;0.5731;3.2651;
635.7000;0.5682;3.2555;
636.0000;0.5706;3.2675;
636.3000;0.5747;3.2699;
636.6000;0.5698;3.2699;
636.9000;0.5731;3.2723;
637.2000;0.5690;3.2723;
637.5000;0.5657;3.2747;
637.8000;0.5682;3.2723;
638.1000;0.5682;3.2651;
638.4000;0.5657;3.2579;
638.7000;0.5657;3.2579;
639.0000;0.5665;3.2651;
639.3000;0.5649;3.2675;
639.6000;0.5657;3.2699;
639.9000;0.5706;3.2747;
640.2000;0.5657;3.2627;
640.5000;0.5649;3.2651;
640.8000;0.5625;3.2579;
641.1000;0.5617;3.2675;
641.4000;0.5641;3.2747;
641.7000;0.5625;3.2675;
642.0000;0.5600;3.2627;
642.3000;0.5600;3.2699;
642.6000;0.5625;3.2795;
642.9000;0.5617;3.2699;
643.2000;0.5584;3.2603;
643.5000;0.5600;3.2699;
643.8000;0.5592;3.2651;
644.1000;0.5584;3.2675;
644.4000;0.5584;3.2795;
644.7000;0.5592;3.2747;
645.0000;0.5592;3.2675;
645.3000;0.5600;3.2627;
645.6000;0.5608;3.2531;
645.9000;0.5584;3.2460;
646.2000;0.5584;3.2460;
646.5000;0.5592;3.2531;
646.8000;0.5617;3.2555;
647.1000;0.5584;3.2484;
647.4000;0.5560;3.2508;
647.7000;0.5600;3.2508;
648.0000;0.5592;3.2603;
648.3000;0.5560;3.2531;
648.6000;0.5543;3.2555;
648.9000;0.5568;3.2579;
649.2000;0.5560;3.2531;
649.5000;0.5551;3.2484;
649.8000;0.5576;3.2603;
650.1000;0.5568;3.2603;
650.4000;0.5560;3.2531;
650.7000;0.5527;3.2579;
651.0000;0.5535;3.2531;
651.3000;0.5527;3.2508;
651.6000;0.5527;3.2460;
651.9000;0.5470;3.2388;
652.2000;0.5519;3.2484;
652.5000;0.5486;3.2579;
652.8000;0.5511;3.2675;
653.1000;0.5511;3.2531;
653.4000;0.5511;3.2603;
653.7000;0.5495;3.2508;
654.0000;0.5511;3.2579;
654.3000;0.5511;3.2603;
654.6000;0.5511;3.2675;
654.9000;0.5503;3.2651;
655.2000;0.5503;3.2699;
655.5000;0.5486;3.2747;
655.8000;0.5495;3.2771;
656.1000;0.5486;3.2747;
656.4000;0.5478;3.2675;
656.7000;0.5462;3.2651;
657.0000;0.5462;3.2675;
657.3000;0.5462;3.2723;
657.6000;0.5584;3.2963;
657.9000;0.5486;3.2699;
658.2000;0.5470;3.2699;
658.5000;0.5462;3.2675;
658.8000;0.5478;3.2747;
659.1000;0.5478;3.2795;
659.4000;0.5478;3.2699;
659.7000;0.5462;3.2699;
660.0000;0.5462;3.2771;
660.3000;0.5470;3.2819;
660.6000;0.5454;3.2795;
660.9000;0.5462;3.2795;
661.2000;0.5446;3.2747;
661.5000;0.5486;3.2819;
661.8000;0.5446;3.2699;
662.1000;0.5421;3.2723;
662.4000;0.5429;3.2723;
662.7000;0.5429;3.2747;
663.0000;0.5372;3.2627;
663.3000;0.5454;3.2843;
663.6000;0.5429;3.2675;
663.9000;0.5372;3.2531;
664.2000;0.5446;3.2627;
664.5000;0.5438;3.2627;
664.8000;0.5429;3.2699;
665.1000;0.5478;3.2915;
665.4000;0.5429;3.2771;
665.7000;0.5397;3.2699;
666.0000;0.5429;3.2723;
666.3000;0.5478;3.2867;
666.6000;0.5421;3.2723;
666.9000;0.5413;3.2747;
667.2000;0.5397;3.2699;
667.5000;0.5364;3.2651;
667.8000;0.5413;3.2675;
668.1000;0.5446;3.2819;
668.4000;0.5381;3.2699;
668.7000;0.5405;3.2747;
669.0000;0.5397;3.2699;
669.3000;0.5405;3.2771;
669.6000;0.5413;3.2699;
669.9000;0.5405;3.2555;
670.2000;0.5405;3.2579;
670.5000;0.5389;3.2603;
670.8000;0.5332;3.2508;
671.1000;0.5381;3.2651;
671.4000;0.5381;3.2723;
671.7000;0.5381;3.2771;
672.0000;0.5389;3.2795;
672.3000;0.5348;3.2723;
672.6000;0.5356;3.2723;
672.9000;0.5356;3.2771;
673.2000;0.5381;3.2843;
673.5000;0.5389;3.2819;
673.8000;0.5381;3.2867;
674.1000;0.5372;3.2891;
674.4000;0.5389;3.2915;
674.7000;0.5364;3.2891;
675.0000;0.5348;3.2771;
675.3000;0.5348;3.2819;
675.6000;0.5340;3.2867;
675.9000;0.5381;3.2963;
676.2000;0.5356;3.2843;
676.5000;0.5364;3.2915;
676.8000;0.5315;3.2795;
677.1000;0.5332;3.2867;
677.4000;0.5356;3.2795;
677.7000;0.5364;3.2795;
678.0000;0.5348;3.2723;
678.3000;0.5364;3.2651;
678.6000;0.5381;3.2699;
678.9000;0.5299;3.2484;
679.2000;0.5372;3.2699;
679.5000;0.5356;3.2675;
679.8000;0.5340;3.2723;
680.1000;0.5324;3.2699;
680.4000;0.5324;3.2699;
680.7000;0.5340;3.2723;
681.0000;0.5340;3.2795;
681.3000;0.5340;3.2819;
681.6000;0.5324;3.2771;
681.9000;0.5324;3.2747;
682.2000;0.5315;3.2723;
682.5000;0.5324;3.2819;
682.8000;0.5299;3.2843;
683.1000;0.5332;3.2939;
683.4000;0.5307;3.2843;
683.7000;0.5226;3.2603;
684.0000;0.5324;3.2771;
684.3000;0.5332;3.2867;
684.6000;0.5324;3.2795;
684.9000;0.5324;3.2699;
685.2000;0.5307;3.2747;
685.5000;0.5299;3.2747;
685.8000;0.5307;3.2795;
686.1000;0.5299;3.2699;
686.4000;0.5299;3.2747;
686.7000;0.5291;3.2771;
687.0000;0.5315;3.2795;
687.3000;0.5299;3.2675;
687.6000;0.5299;3.2651;
687.9000;0.5283;3.2603;
688.2000;0.5291;3.2579;
688.5000;0.5356;3.2771;
688.8000;0.5291;3.2603;
689.1000;0.5307;3.2723;
689.4000;0.5275;3.2627;
689.7000;0.5299;3.2627;
690.0000;0.5291;3.2603;
690.3000;0.5275;3.2579;
690.6000;0.5324;3.2867;
690.9000;0.5299;3.2891;
691.2000;0.5299;3.2915;
691.5000;0.5267;3.2843;
691.8000;0.5275;3.2795;
692.1000;0.5283;3.2819;
692.4000;0.5283;3.2651;
692.7000;0.5267;3.2603;
693.0000;0.5258;3.2651;
693.3000;0.5283;3.2651;
693.6000;0.5258;3.2603;
693.9000;0.5226;3.2436;
694.2000;0.5283;3.2603;
694.5000;0.5275;3.2603;
694.8000;0.5315;3.2819;
695.1000;0.5267;3.2723;
695.4000;0.5258;3.2771;
695.7000;0.5267;3.2843;
696.0000;0.5275;3.2819;
696.3000;0.5258;3.2795;
696.6000;0.5258;3.2723;
696.9000;0.5250;3.2795;
697.2000;0.5161;3.2555;
697.5000;0.5275;3.2819;
697.8000;0.5267;3.2723;
698.1000;0.5242;3.2651;
698.4000;0.5234;3.2675;
698.7000;0.5242;3.2795;
699.0000;0.5258;3.2843;
699.3000;0.5234;3.2795;
699.6000;0.5299;3.2867;
699.9000;0.5250;3.2819;
700.2000;0.5258;3.2867;
700.5000;0.5234;3.2795;
700.8000;0.5267;3.2891;
701.1000;0.5234;3.2795;
701.4000;0.5242;3.2795;
701.7000;0.5250;3.2747;
702.0000;0.5258;3.2699;
702.3000;0.5275;3.2771;
702.6000;0.5242;3.2843;
702.9000;0.5234;3.2867;
703.2000;0.5234;3.2867;
703.5000;0.5242;3.2867;
703.8000;0.5258;3.2963;
704.1000;0.5250;3.2939;
704.4000;0.5258;3.2963;
704.7000;0.5250;3.2867;
705.0000;0.5242;3.2795;
705.3000;0.5226;3.2699;
705.6000;0.5226;3.2627;
705.9000;0.5210;3.2627;
706.2000;0.5242;3.2795;
706.5000;0.5250;3.2699;
706.8000;0.5234;3.2699;
707.1000;0.5250;3.2675;
707.4000;0.5242;3.2747;
707.7000;0.5234;3.2723;
708.0000;0.5218;3.2699;
708.3000;0.5226;3.2675;
708.6000;0.5234;3.2651;
708.9000;0.5210;3.2531;
709.2000;0.5234;3.2699;
709.5000;0.5226;3.2699;
709.8000;0.5210;3.2747;
710.1000;0.5218;3.2819;
710.4000;0.5153;3.2723;
710.7000;0.5218;3.2891;
711.0000;0.5234;3.2915;
711.3000;0.5234;3.2915;
711.6000;0.5218;3.2915;
711.9000;0.5210;3.2963;
712.2000;0.5210;3.2963;
712.5000;0.5201;3.2915;
712.8000;0.5201;3.2867;
713.1000;0.5193;3.2867;
713.4000;0.5210;3.2939;
713.7000;0.5128;3.2675;
714.0000;0.5210;3.2795;
714.3000;0.5193;3.2723;
714.6000;0.5185;3.2819;
714.9000;0.5193;3.2819;
715.2000;0.5218;3.2867;
715.5000;0.5193;3.2939;
715.8000;0.5250;3.2963;
716.1000;0.5177;3.2795;
716.4000;0.5201;3.2963;
716.7000;0.5218;3.2939;
717.0000;0.5258;3.3059;
717.3000;0.5193;3.2843;
717.6000;0.5201;3.2867;
717.9000;0.5201;3.2915;
718.2000;0.5177;3.2819;
718.5000;0.5193;3.2819;
718.8000;0.5250;3.3011;
719.1000;0.5193;3.2939;
719.4000;0.5193;3.2987;
719.7000;0.5144;3.2891;
720.0000;0.5218;3.2987;
720.3000;0.5210;3.2939;
720.6000;0.5185;3.2891;
720.9000;0.5153;3.2771;
721.2000;0.5193;3.2843;
721.5000;0.5201;3.2771;
721.8000;0.5210;3.2795;
722.1000;0.5177;3.2795;
722.4000;0.5193;3.2867;
722.7000;0.5193;3.2795;
723.0000;0.5193;3.2843;
723.3000;0.5177;3.2819;
723.6000;0.5193;3.2915;
723.9000;0.5193;3.2915;
724.2000;0.5201;3.2963;
724.5000;0.5234;3.3035;
724.8000;0.5169;3.2867;
725.1000;0.5128;3.2747;
725.4000;0.5201;3.2891;
725.7000;0.5185;3.2819;
726.0000;0.5258;3.2939;
726.3000;0.5169;3.2651;
726.6000;0.5177;3.2699;
726.9000;0.5161;3.2603;
727.2000;0.5136;3.2651;
727.5000;0.5136;3.2675;
727.8000;0.5153;3.2771;
728.1000;0.5104;3.2555;
728.4000;0.5177;3.2627;
728.7000;0.5161;3.2675;
729.0000;0.5169;3.2747;
729.3000;0.5169;3.2795;
729.6000;0.5161;3.2795;
729.9000;0.5136;3.2795;
730.2000;0.5161;3.2891;
730.5000;0.5169;3.2891;
730.8000;0.5144;3.2891;
731.1000;0.5144;3.2987;
731.4000;0.5120;3.2867;
731.7000;0.5161;3.2939;
732.0000;0.5185;3.2939;
732.3000;0.5201;3.2939;
732.6000;0.5161;3.2843;
732.9000;0.5161;3.2795;
733.2000;0.5153;3.2819;
733.5000;0.5185;3.3011;
733.8000;0.5153;3.3131;
734.1000;0.5169;3.3203;
734.4000;0.5144;3.3107;
734.7000;0.5128;3.3035;
735.0000;0.5153;3.3083;
735.3000;0.5128;3.2987;
735.6000;0.5144;3.2987;
735.9000;0.5128;3.2939;
736.2000;0.5136;3.3035;
736.5000;0.5136;3.3035;
736.8000;0.5153;3.3011;
737.1000;0.5128;3.2987;
737.4000;0.5128;3.3011;
737.7000;0.5144;3.2987;
738.0000;0.5153;3.3107;
738.3000;0.5120;3.2987;
738.6000;0.5136;3.2987;
738.9000;0.5153;3.2939;
739.2000;0.5144;3.2867;
739.5000;0.5161;3.2891;
739.8000;0.5144;3.2867;
740.1000;0.5153;3.2843;
740.4000;0.5161;3.2939;
740.7000;0.5161;3.2963;
741.0000;0.5144;3.2867;
741.3000;0.5112;3.2843;
741.6000;0.5136;3.2819;
741.9000;0.5144;3.2843;
742.2000;0.5144;3.2771;
742.5000;0.5136;3.2867;
742.8000;0.5136;3.2747;
743.1000;0.5193;3.2819;
743.4000;0.5161;3.2771;
743.7000;0.5144;3.2771;
744.0000;0.5161;3.2795;
744.3000;0.5153;3.2867;
744.6000;0.5120;3.2867;
744.9000;0.5128;3.2891;
745.2000;0.5120;3.2843;
745.5000;0.5136;3.2867;
745.8000;0.5128;3.2843;
746.1000;0.5112;3.2747;
746.4000;0.5063;3.2675;
746.7000;0.5210;3.3083;
747.0000;0.5096;3.2771;
747.3000;0.5128;3.2867;
747.6000;0.5120;3.2771;
747.9000;0.5136;3.2843;
748.2000;0.5088;3.2819;
748.5000;0.5047;3.2627;
748.8000;0.5128;3.2819;
749.1000;0.5128;3.2795;
749.4000;0.5112;3.2795;
749.7000;0.5088;3.2771;
750.0000;0.5063;3.2747;
750.3000;0.5112;3.2891;
750.6000;0.5088;3.2795;
750.9000;0.5104;3.2915;
751.2000;0.5112;3.2915;
751.5000;0.5112;3.2939;
751.8000;0.5112;3.2891;
752.1000;0.5104;3.2891;
752.4000;0.5104;3.2891;
752.7000;0.5120;3.2915;
753.0000;0.5104;3.2963;
753.3000;0.5136;3.2963;
753.6000;0.5112;3.2891;
753.9000;0.5104;3.2867;
754.2000;0.5128;3.2939;
754.5000;0.5128;3.2867;
754.8000;0.5120;3.2987;
755.1000;0.5120;3.2939;
755.4000;0.5120;3.2891;
755.7000;0.5120;3.2915;
756.0000;0.5112;3.2915;
756.3000;0.5120;3.2915;
756.6000;0.5120;3.3011;
756.9000;0.5104;3.3059;
757.2000;0.5112;3.3011;
757.5000;0.5104;3.2867;
757.8000;0.5104;3.2915;
758.1000;0.5104;3.2915;
758.4000;0.5096;3.2939;
758.7000;0.5128;3.3035;
759.0000;0.5128;3.3011;
759.3000;0.5120;3.2963;
759.6000;0.5112;3.2963;
759.9000;0.5128;3.2987;
760.2000;0.5096;3.2891;
760.5000;0.5079;3.2867;
760.8000;0.5120;3.2915;
761.1000;0.5088;3.2891;
761.4000;0.5088;3.2939;
761.7000;0.5120;3.2939;
762.0000;0.5128;3.2915;
762.3000;0.5112;3.2987;
762.6000;0.5112;3.2939;
762.9000;0.5120;3.2915;
763.2000;0.5104;3.2915;
763.5000;0.5104;3.2867;
763.8000;0.5079;3.2795;
764.1000;0.5096;3.2867;
764.4000;0.5096;3.2867;
764.7000;0.5096;3.2795;
765.0000;0.5088;3.2771;
765.3000;0.5071;3.2795;
765.6000;0.5112;3.2891;
765.9000;0.5128;3.2795;
766.2000;0.5088;3.2699;
766.5000;0.5071;3.2699;
766.8000;0.5088;3.2723;
767.1000;0.5047;3.2675;
767.4000;0.5088;3.2819;
767.7000;0.5088;3.2747;
768.0000;0.5096;3.2675;
768.3000;0.5088;3.2651;
768.6000;0.5071;3.2699;
768.9000;0.5088;3.2627;
769.2000;0.5071;3.2603;
769.5000;0.5071;3.2603;
769.8000;0.5136;3.2819;
770.1000;0.5088;3.2627;
770.4000;0.5063;3.2531;
770.7000;0.5096;3.2699;
771.0000;0.5144;3.2843;
771.3000;0.5104;3.2747;
771.6000;0.5096;3.2771;
771.9000;0.5071;3.2795;
772.2000;0.5104;3.2891;
772.5000;0.5071;3.2795;
772.8000;0.5136;3.2963;
773.1000;0.5088;3.2867;
773.4000;0.5071;3.2843;
773.7000;0.5112;3.2891;
774.0000;0.5104;3.2987;
774.3000;0.5088;3.2939;
774.6000;0.5112;3.2987;
774.9000;0.5112;3.2915;
775.2000;0.5071;3.2771;
775.5000;0.5120;3.2867;
775.8000;0.5088;3.2819;
776.1000;0.5071;3.2843;
776.4000;0.5096;3.2939;
776.7000;0.5071;3.2891;
777.0000;0.5079;3.2819;
777.3000;0.5079;3.2891;
777.6000;0.5063;3.2867;
777.9000;0.5071;3.2843;
778.2000;0.5055;3.2771;
778.5000;0.5063;3.2867;
778.8000;0.5071;3.2915;
779.1000;0.5071;3.2915;
779.4000;0.5071;3.3011;
779.7000;0.5088;3.3059;
780.0000;0.5096;3.3011;
780.3000;0.5177;3.3251;
780.6000;0.5096;3.2987;
780.9000;0.5096;3.3011;
781.2000;0.5079;3.2987;
781.5000;0.5112;3.3035;
781.8000;0.5096;3.3011;
782.1000;0.5088;3.3011;
782.4000;0.5079;3.3011;
782.7000;0.5079;3.2963;
783.0000;0.5055;3.2939;
783.3000;0.5031;3.2843;
783.6000;0.5039;3.2867;
783.9000;0.5071;3.2891;
784.2000;0.5063;3.2915;
784.5000;0.5079;3.2843;
784.8000;0.5088;3.2867;
785.1000;0.5031;3.2675;
785.4000;0.5063;3.2747;
785.7000;0.5055;3.2675;
786.0000;0.5063;3.2555;
786.3000;0.5079;3.2579;
786.6000;0.5006;3.2412;
786.9000;0.5088;3.2579;
787.2000;0.5096;3.2651;
787.5000;0.5063;3.2603;
787.8000;0.5079;3.2723;
788.1000;0.5071;3.2723;
788.4000;0.5047;3.2699;
788.7000;0.5088;3.2771;
789.0000;0.5063;3.2651;
789.3000;0.5055;3.2651;
789.6000;0.5112;3.2747;
789.9000;0.5055;3.2699;
790.2000;0.5079;3.2747;
790.5000;0.5088;3.2723;
790.8000;0.5031;3.2627;
791.1000;0.5071;3.2819;
791.4000;0.5104;3.2963;
791.7000;0.5055;3.2795;
792.0000;0.5096;3.2939;
792.3000;0.5055;3.2795;
792.6000;0.5039;3.2723;
792.9000;0.5047;3.2723;
793.2000;0.5055;3.2723;
793.5000;0.5063;3.2747;
793.8000;0.5055;3.2771;
794.1000;0.5047;3.2843;
794.4000;0.5047;3.2867;
794.7000;0.5047;3.2891;
795.0000;0.5096;3.3035;
795.3000;0.5063;3.3011;
795.6000;0.5047;3.2891;
795.9000;0.5071;3.2819;
796.2000;0.5055;3.2747;
796.5000;0.5055;3.2795;
796.8000;0.5055;3.2891;
797.1000;0.5055;3.2891;
797.4000;0.5063;3.2939;
797.7000;0.5047;3.2867;
798.0000;0.5047;3.2867;
798.3000;0.5031;3.2819;
798.6000;0.5031;3.2819;
798.9000;0.5055;3.2843;
799.2000;0.5047;3.2795;
799.5000;0.5055;3.2819;
799.8000;0.5047;3.2891;
800.1000;0.5055;3.2939;
800.4000;0.5063;3.2891;
800.7000;0.5055;3.2915;
801.0000;0.5079;3.2963;
801.3000;0.5071;3.2867;
801.6000;0.5063;3.2747;
801.9000;0.5063;3.2747;
802.2000;0.5047;3.2747;
802.5000;0.5112;3.2891;
802.8000;0.5063;3.2795;
803.1000;0.5047;3.2795;
803.4000;0.5055;3.2795;
803.7000;0.5055;3.2843;
804.0000;0.5071;3.2915;
804.3000;0.5063;3.3011;
804.6000;0.5047;3.2939;
804.9000;0.5063;3.2963;
805.2000;0.5047;3.2867;
805.5000;0.5047;3.2771;
805.8000;0.5055;3.2747;
806.1000;0.5055;3.2795;
806.4000;0.5063;3.2915;
806.7000;0.5055;3.2939;
807.0000;0.5039;3.3059;
807.3000;0.5071;3.3059;
807.6000;0.5071;3.3035;
807.9000;0.5096;3.3131;
808.2000;0.5031;3.3035;
808.5000;0.5055;3.3083;
808.8000;0.5055;3.3059;
809.1000;0.4974;3.2771;
809.4000;0.5039;3.2915;
809.7000;0.5031;3.2963;
810.0000;0.5063;3.3083;
810.3000;0.5047;3.3035;
810.6000;0.5096;3.3035;
810.9000;0.5047;3.2987;
811.2000;0.5022;3.2819;
811.5000;0.5039;3.2939;
811.8000;0.5079;3.2939;
812.1000;0.5047;3.2915;
812.4000;0.5047;3.2915;
812.7000;0.5161;3.3131;
813.0000;0.5047;3.2891;
813.3000;0.5088;3.2987;
813.6000;0.5047;3.2939;
813.9000;0.5071;3.2867;
814.2000;0.5047;3.2867;
814.5000;0.5031;3.2819;
814.8000;0.5047;3.2891;
815.1000;0.5071;3.2963;
815.4000;0.5047;3.2891;
815.7000;0.5055;3.2987;
816.0000;0.5039;3.3035;
816.3000;0.5055;3.3083;
816.6000;0.5063;3.3155;
816.9000;0.5055;3.3107;
817.2000;0.5039;3.3083;
817.5000;0.5039;3.3035;
817.8000;0.5047;3.2963;
818.1000;0.5039;3.2915;
818.4000;0.5014;3.2843;
818.7000;0.5031;3.2891;
819.0000;0.5006;3.2867;
819.3000;0.5039;3.2939;
819.6000;0.4974;3.2843;
819.9000;0.5014;3.2867;
820.2000;0.5031;3.2891;
820.5000;0.5031;3.2891;
820.8000;0.5055;3.2915;
821.1000;0.5022;3.2819;
821.4000;0.5031;3.2723;
821.7000;0.5014;3.2675;
822.0000;0.5071;3.2843;
822.3000;0.5022;3.2651;
822.6000;0.5031;3.2651;
822.9000;0.5039;3.2699;
823.2000;0.5031;3.2699;
823.5000;0.5031;3.2747;
823.8000;0.5022;3.2627;
824.1000;0.5031;3.2579;
824.4000;0.5063;3.2675;
824.7000;0.5022;3.2651;
825.0000;0.5039;3.2555;
825.3000;0.5031;3.2603;
825.6000;0.5031;3.2699;
825.9000;0.5031;3.2675;
826.2000;0.5039;3.2675;
826.5000;0.5047;3.2675;
826.8000;0.5055;3.2747;
827.1000;0.5039;3.2867;
827.4000;0.5014;3.2939;
827.7000;0.5031;3.3035;
828.0000;0.5039;3.3059;
828.3000;0.5006;3.2915;
828.6000;0.5014;3.2939;
828.9000;0.5055;3.3035;
829.2000;0.5022;3.2987;
829.5000;0.5047;3.3059;
829.8000;0.5031;3.2987;
830.1000;0.5039;3.3059;
830.4000;0.5047;3.3059;
830.7000;0.5047;3.3083;
831.0000;0.5031;3.3107;
831.3000;0.5039;3.3107;
831.6000;0.5055;3.3155;
831.9000;0.5055;3.3179;
832.2000;0.5022;3.3203;
832.5000;0.5022;3.3227;
832.8000;0.5022;3.3203;
833.1000;0.5022;3.3155;
833.4000;0.5031;3.3203;
833.7000;0.5063;3.3227;
834.0000;0.5006;3.3131;
834.3000;0.5022;3.3083;
834.6000;0.5031;3.3059;
834.9000;0.5022;3.2987;
835.2000;0.5022;3.3011;
835.5000;0.4982;3.2867;
835.8000;0.5031;3.3035;
836.1000;0.5014;3.2939;
836.4000;0.5031;3.2963;
836.7000;0.5014;3.2867;
837.0000;0.5022;3.2915;
837.3000;0.5055;3.2915;
837.6000;0.5014;3.2843;
837.9000;0.5006;3.2771;
838.2000;0.5006;3.2867;
838.5000;0.5022;3.2939;
838.8000;0.4965;3.2771;
839.1000;0.5006;3.2891;
839.4000;0.5014;3.2963;
839.7000;0.5039;3.2987;
840.0000;0.5055;3.2939;
840.3000;0.5022;3.2867;
840.6000;0.5079;3.2987;
840.9000;0.5031;3.2867;
841.2000;0.5022;3.2867;
841.5000;0.5079;3.3011;
841.8000;0.5055;3.2867;
842.1000;0.5088;3.2939;
842.4000;0.5022;3.2843;
842.7000;0.4982;3.2627;
843.0000;0.4949;3.2484;
843.3000;0.5014;3.2603;
843.6000;0.4990;3.2555;
843.9000;0.5031;3.2675;
844.2000;0.4998;3.2579;
844.5000;0.5071;3.2747;
844.8000;0.5014;3.2723;
845.1000;0.5014;3.2819;
845.4000;0.5014;3.2675;
845.7000;0.5014;3.2651;
846.0000;0.5014;3.2747;
846.3000;0.5039;3.2771;
846.6000;0.5039;3.2771;
846.9000;0.5039;3.2819;
847.2000;0.5047;3.2795;
847.5000;0.5031;3.2819;
847.8000;0.4965;3.2723;
848.1000;0.5079;3.2963;
848.4000;0.5022;3.2771;
848.7000;0.5006;3.2699;
849.0000;0.5006;3.2771;
849.3000;0.5014;3.2891;
849.6000;0.5022;3.2891;
849.9000;0.5006;3.2795;
850.2000;0.5006;3.2723;
850.5000;0.4998;3.2747;
850.8000;0.5031;3.2795;
851.1000;0.5031;3.2891;
851.4000;0.5006;3.2915;
851.7000;0.5022;3.3011;
852.0000;0.5022;3.2987;
852.3000;0.5022;3.2987;
852.6000;0.4982;3.2843;
852.9000;0.5006;3.2867;
853.2000;0.5022;3.2867;
853.5000;0.5022;3.2939;
853.8000;0.5014;3.3011;
854.1000;0.5039;3.3011;
854.4000;0.5006;3.2939;
854.7000;0.5014;3.3059;
855.0000;0.5022;3.3155;
855.3000;0.5006;3.3035;
855.6000;0.5039;3.3155;
855.9000;0.5039;3.3131;
856.2000;0.5014;3.3083;
856.5000;0.5022;3.3059;
856.8000;0.5104;3.3179;
857.1000;0.5031;3.2963;
857.4000;0.5031;3.2915;
857.7000;0.4998;3.2819;
858.0000;0.4998;3.2843;
858.3000;0.5022;3.2915;
858.6000;0.5039;3.2963;
858.9000;0.5022;3.2987;
859.2000;0.5071;3.3155;
859.5000;0.5201;3.3443;
859.8000;0.5128;3.3203;
860.1000;0.4998;3.2795;
860.4000;0.4990;3.2867;
860.7000;0.5006;3.2915;
861.0000;0.5039;3.3059;
861.3000;0.5014;3.2987;
861.6000;0.4949;3.2867;
861.9000;0.5022;3.2963;
862.2000;0.5079;3.3011;
862.5000;0.5014;3.2915;
862.8000;0.5031;3.2963;
863.1000;0.4965;3.2843;
863.4000;0.5022;3.3035;
863.7000;0.5006;3.2939;
864.0000;0.5006;3.3011;
864.3000;0.4998;3.2939;
864.6000;0.5006;3.2963;
864.9000;0.5006;3.2963;
865.2000;0.5006;3.2963;
865.5000;0.5031;3.2939;
865.8000;0.5014;3.2987;
866.1000;0.4998;3.2939;
866.4000;0.5014;3.3035;
866.7000;0.5014;3.3011;
867.0000;0.4949;3.2819;
867.3000;0.4990;3.2939;
867.6000;0.5006;3.2891;
867.9000;0.5014;3.2891;
868.2000;0.5006;3.2843;
868.5000;0.5014;3.2939;
868.8000;0.5022;3.2939;
869.1000;0.4998;3.2939;
869.4000;0.5006;3.2915;
869.7000;0.5006;3.2939;
870.0000;0.5006;3.2963;
870.3000;0.5014;3.2915;
870.6000;0.4990;3.2891;
870.9000;0.4990;3.2915;
871.2000;0.5014;3.3035;
871.5000;0.5014;3.3059;
871.8000;0.4990;3.3059;
872.1000;0.4998;3.3083;
872.4000;0.5014;3.3131;
872.7000;0.4965;3.2939;
873.0000;0.4990;3.2939;
873.3000;0.4974;3.2987;
873.6000;0.4982;3.3083;
873.9000;0.4957;3.3011;
874.2000;0.5006;3.3131;
874.5000;0.4982;3.3131;
874.8000;0.5014;3.3227;
875.1000;0.5022;3.3227;
875.4000;0.4990;3.3203;
875.7000;0.5006;3.3227;
876.0000;0.5039;3.3275;
876.3000;0.5022;3.3275;
876.6000;0.4990;3.3251;
876.9000;0.5006;3.3179;
877.2000;0.5014;3.3155;
877.5000;0.5022;3.3107;
877.8000;0.4998;3.3059;
878.1000;0.4990;3.3083;
878.4000;0.4982;3.3179;
878.7000;0.4990;3.3107;
879.0000;0.5006;3.3035;
879.3000;0.4965;3.2843;
879.6000;0.5022;3.2939;
879.9000;0.5006;3.2867;
880.2000;0.4982;3.2795;
880.5000;0.5006;3.2891;
880.8000;0.5014;3.2867;
881.1000;0.4982;3.2819;
881.4000;0.5014;3.2963;
881.7000;0.5014;3.3083;
882.0000;0.4990;3.3059;
882.3000;0.4974;3.3011;
882.6000;0.5014;3.3107;
882.9000;0.5006;3.3083;
883.2000;0.4990;3.3035;
883.5000;0.4982;3.2987;
883.8000;0.5063;3.3203;
884.1000;0.5006;3.3059;
884.4000;0.5014;3.2963;
884.7000;0.4998;3.2987;
885.0000;0.4974;3.2891;
885.3000;0.5006;3.3083;
885.6000;0.5047;3.3275;
885.9000;0.5006;3.3107;
886.2000;0.5006;3.3035;
886.5000;0.4998;3.3011;
886.8000;0.5006;3.2987;
887.1000;0.5014;3.3035;
887.4000;0.4998;3.2963;
887.7000;0.5014;3.3035;
888.0000;0.4998;3.3011;
888.3000;0.4990;3.2963;
888.6000;0.4965;3.2867;
888.9000;0.4998;3.2963;
889.2000;0.4974;3.2867;
889.5000;0.4990;3.2939;
889.8000;0.5014;3.2915;
890.1000;0.4974;3.2867;
890.4000;0.5006;3.2939;
890.7000;0.5006;3.2963;
891.0000;0.4998;3.3011;
891.3000;0.4990;3.3011;
891.6000;0.4990;3.3059;
891.9000;0.5022;3.3107;
892.2000;0.5006;3.2939;
892.5000;0.4982;3.2915;
892.8000;0.5014;3.2939;
893.1000;0.5006;3.2795;
893.4000;0.4998;3.2795;
893.7000;0.4982;3.2795;
894.0000;0.4941;3.2675;
894.3000;0.5022;3.2843;
894.6000;0.5006;3.2843;
894.9000;0.4998;3.2771;
895.2000;0.5006;3.2867;
895.5000;0.4990;3.2867;
895.8000;0.4998;3.2819;
896.1000;0.5006;3.2819;
896.4000;0.4990;3.2747;
896.7000;0.4998;3.2795;
897.0000;0.5022;3.2843;
897.3000;0.5014;3.2843;
897.6000;0.4974;3.2819;
897.9000;0.4998;3.2747;
898.2000;0.4990;3.2795;
898.5000;0.4990;3.2915;
898.8000;0.4965;3.2843;
899.1000;0.4998;3.2939;
899.4000;0.4998;3.2867;
899.7000;0.4982;3.2819;
900.0000;0.4982;3.2843;
900.3000;0.4998;3.2819;
900.6000;0.5014;3.2867;
900.9000;0.4949;3.2747;
901.2000;0.4990;3.2819;
901.5000;0.4990;3.2891;
901.8000;0.5006;3.2891;
902.1000;0.5014;3.2867;
902.4000;0.5014;3.2915;
902.7000;0.4990;3.2891;
903.0000;0.4990;3.2771;
903.3000;0.4941;3.2603;
903.6000;0.4982;3.2699;
903.9000;0.4949;3.2699;
904.2000;0.5014;3.2891;
904.5000;0.4998;3.2867;
904.8000;0.4990;3.2843;
905.1000;0.4974;3.2819;
905.4000;0.5006;3.2891;
905.7000;0.4965;3.2747;
906.0000;0.4998;3.2795;
906.3000;0.4990;3.2699;
906.6000;0.4998;3.2723;
906.9000;0.5088;3.2939;
907.2000;0.4990;3.2747;
907.5000;0.4982;3.2699;
907.8000;0.4982;3.2675;
908.1000;0.4990;3.2723;
908.4000;0.4998;3.2747;
908.7000;0.4965;3.2699;
909.0000;0.5014;3.2795;
909.3000;0.4982;3.2795;
909.6000;0.4982;3.2747;
909.9000;0.4990;3.2723;
910.2000;0.4982;3.2627;
910.5000;0.4998;3.2555;
910.8000;0.5006;3.2484;
911.1000;0.4974;3.2388;
911.4000;0.4982;3.2364;
911.7000;0.4982;3.2388;
912.0000;0.4990;3.2388;
912.3000;0.4998;3.2388;
912.6000;0.4990;3.2412;
912.9000;0.4998;3.2436;
913.2000;0.4982;3.2436;
913.5000;0.4941;3.2388;
913.8000;0.4998;3.2484;
914.1000;0.4974;3.2460;
914.4000;0.4990;3.2555;
914.7000;0.4990;3.2508;
915.0000;0.4982;3.2603;
915.3000;0.4974;3.2555;
915.6000;0.4974;3.2627;
915.9000;0.4998;3.2747;
916.2000;0.4990;3.2747;
916.5000;0.4998;3.2723;
916.8000;0.5006;3.2771;
917.1000;0.4990;3.2795;
917.4000;0.5006;3.2843;
917.7000;0.4990;3.2771;
918.0000;0.5014;3.2891;
918.3000;0.4982;3.2915;
918.6000;0.5006;3.2939;
918.9000;0.4998;3.2987;
919.2000;0.4990;3.2915;
919.5000;0.4933;3.2867;
919.8000;0.4982;3.2939;
920.1000;0.4990;3.2987;
920.4000;0.4982;3.3011;
920.7000;0.5006;3.2963;
921.0000;0.5006;3.2963;
921.3000;0.4982;3.2891;
921.6000;0.4990;3.2915;
921.9000;0.4982;3.2915;
922.2000;0.4998;3.2987;
922.5000;0.5039;3.2987;
922.8000;0.4990;3.2819;
923.1000;0.4982;3.2795;
923.4000;0.4998;3.2843;
923.7000;0.4990;3.2891;
924.0000;0.4990;3.2843;
924.3000;0.4982;3.2771;
924.6000;0.4982;3.2819;
924.9000;0.4892;3.2531;
925.2000;0.4982;3.2723;
925.5000;0.4982;3.2723;
925.8000;0.5006;3.2771;
926.1000;0.4965;3.2651;
926.4000;0.4982;3.2723;
926.7000;0.4957;3.2699;
927.0000;0.4990;3.2819;
927.3000;0.5031;3.2987;
927.6000;0.4965;3.2843;
927.9000;0.4957;3.2891;
928.2000;0.4982;3.2939;
928.5000;0.4974;3.3035;
928.8000;0.4965;3.2987;
929.1000;0.4982;3.2915;
929.4000;0.4974;3.3035;
929.7000;0.4974;3.3083;
930.0000;0.4998;3.3203;
930.3000;0.4998;3.3203;
930.6000;0.4974;3.3083;
930.9000;0.4982;3.3035;
931.2000;0.4925;3.2867;
931.5000;0.4982;3.2939;
931.8000;0.4990;3.2915;
932.1000;0.4998;3.2963;
932.4000;0.4982;3.2987;
932.7000;0.4990;3.3083;
933.0000;0.4990;3.3035;
933.3000;0.4974;3.3011;
933.6000;0.4965;3.2987;
933.9000;0.5039;3.3107;
934.2000;0.4982;3.3011;
934.5000;0.4974;3.3059;
934.8000;0.4982;3.3155;
935.1000;0.5006;3.3155;
935.4000;0.4957;3.3059;
935.7000;0.4965;3.3059;
936.0000;0.4965;3.3011;
936.3000;0.4990;3.2987;
936.6000;0.4982;3.2963;
936.9000;0.5031;3.3083;
937.2000;0.4998;3.3011;
937.5000;0.4982;3.2963;
937.8000;0.4982;3.2987;
938.1000;0.4990;3.2891;
938.4000;0.4998;3.2843;
938.7000;0.4990;3.2843;
939.0000;0.4949;3.2795;
939.3000;0.4982;3.2843;
939.6000;0.4982;3.2915;
939.9000;0.4974;3.2987;
940.2000;0.4974;3.2963;
940.5000;0.4974;3.3035;
940.8000;0.4965;3.2987;
941.1000;0.4990;3.3059;
941.4000;0.4982;3.3155;
941.7000;0.4965;3.3083;
942.0000;0.5039;3.3275;
942.3000;0.4933;3.2987;
942.6000;0.4982;3.3107;
942.9000;0.4965;3.3083;
943.2000;0.4925;3.2915;
943.5000;0.4982;3.3035;
943.8000;0.4990;3.2939;
944.1000;0.4974;3.2891;
944.4000;0.4965;3.2939;
944.7000;0.4982;3.3107;
945.0000;0.5006;3.3083;
945.3000;0.4965;3.2963;
945.6000;0.4974;3.2963;
945.9000;0.4990;3.2939;
946.2000;0.4990;3.2963;
946.5000;0.4974;3.2795;
946.8000;0.4990;3.2843;
947.1000;0.4957;3.2891;
947.4000;0.5006;3.2939;
947.7000;0.4990;3.2987;
948.0000;0.4990;3.2987;
948.3000;0.4974;3.2867;
948.6000;0.4974;3.2843;
948.9000;0.4990;3.2867;
949.2000;0.4974;3.2699;
949.5000;0.4982;3.2651;
949.8000;0.5022;3.2723;
950.1000;0.4990;3.2603;
950.4000;0.4974;3.2579;
950.7000;0.5014;3.2651;
951.0000;0.4974;3.2579;
951.3000;0.5039;3.2795;
951.6000;0.4965;3.2579;
951.9000;0.4998;3.2627;
952.2000;0.4949;3.2508;
952.5000;0.4982;3.2675;
952.8000;0.5014;3.2747;
953.1000;0.4982;3.2651;
953.4000;0.4957;3.2675;
953.7000;0.4974;3.2723;
954.0000;0.4990;3.2867;
954.3000;0.4965;3.2891;
954.6000;0.4925;3.2747;
954.9000;0.4957;3.2867;
955.2000;0.4965;3.2867;
955.5000;0.5014;3.2915;
955.8000;0.4957;3.2819;
956.1000;0.4974;3.2891;
956.4000;0.4974;3.2939;
956.7000;0.4949;3.2867;
957.0000;0.4965;3.2819;
957.3000;0.4974;3.2819;
957.6000;0.4965;3.2771;
957.9000;0.4974;3.2843;
958.2000;0.4974;3.2939;
958.5000;0.4957;3.3059;
958.8000;0.4990;3.3155;
959.1000;0.4990;3.3155;
959.4000;0.4982;3.3083;
959.7000;0.4949;3.3011;
960.0000;0.4974;3.2939;
960.3000;0.4982;3.2939;
960.6000;0.4974;3.2915;
960.9000;0.4982;3.2939;
961.2000;0.4982;3.2915;
961.5000;0.5022;3.3035;
961.8000;0.4990;3.2963;
962.1000;0.4941;3.2795;
962.4000;0.4990;3.2963;
962.7000;0.4982;3.3011;
963.0000;0.4998;3.3131;
963.3000;0.4974;3.3107;
963.6000;0.4974;3.3155;
963.9000;0.4974;3.3155;
964.2000;0.4998;3.3203;
964.5000;0.4965;3.3059;
964.8000;0.4957;3.3107;
965.1000;0.4982;3.3107;
965.4000;0.4957;3.3035;
965.7000;0.4917;3.2891;
966.0000;0.4957;3.2963;
966.3000;0.4982;3.3035;
966.6000;0.4957;3.3035;
966.9000;0.4965;3.2939;
967.2000;0.4949;3.2867;
967.5000;0.4941;3.2915;
967.8000;0.4957;3.3035;
968.1000;0.4974;3.3107;
968.4000;0.4965;3.3107;
968.7000;0.4949;3.3011;
969.0000;0.4941;3.2915;
969.3000;0.4965;3.3011;
969.6000;0.4965;3.2987;
969.9000;0.4908;3.2867;
970.2000;0.4957;3.3035;
970.5000;0.4965;3.3035;
970.8000;0.4949;3.3011;
971.1000;0.4957;3.2987;
971.4000;0.4941;3.2939;
971.7000;0.4974;3.2939;
972.0000;0.4998;3.2987;
972.3000;0.4965;3.2963;
972.6000;0.4892;3.2723;
972.9000;0.4965;3.2891;
973.2000;0.5022;3.3011;
973.5000;0.4965;3.2891;
973.8000;0.4949;3.2771;
974.1000;0.4925;3.2795;
974.4000;0.4957;3.2867;
974.7000;0.4965;3.2819;
975.0000;0.4949;3.2795;
975.3000;0.4965;3.2843;
975.6000;0.4965;3.2867;
975.9000;0.4974;3.2939;
976.2000;0.4965;3.2891;
976.5000;0.4965;3.2795;
976.8000;0.4982;3.2795;
977.1000;0.4965;3.2723;
977.4000;0.5006;3.2771;
977.7000;0.4982;3.2819;
978.0000;0.4974;3.2771;
978.3000;0.4974;3.2747;
978.6000;0.4974;3.2723;
978.9000;0.4949;3.2795;
979.2000;0.4957;3.2843;
979.5000;0.4965;3.2891;
979.8000;0.4941;3.2819;
980.1000;0.4957;3.2867;
980.4000;0.4974;3.2915;
980.7000;0.4974;3.2987;
981.0000;0.4974;3.2843;
981.3000;0.4957;3.2963;
981.6000;0.4965;3.2963;
981.9000;0.4949;3.2939;
982.2000;0.4933;3.2843;
982.5000;0.4974;3.3011;
982.8000;0.4965;3.2987;
983.1000;0.4974;3.3059;
983.4000;0.4957;3.2963;
983.7000;0.4965;3.2891;
984.0000;0.4957;3.2795;
984.3000;0.4974;3.2795;
984.6000;0.4949;3.2723;
984.9000;0.4965;3.2747;
985.2000;0.4965;3.2699;
985.5000;0.4957;3.2723;
985.8000;0.4974;3.2819;
986.1000;0.4957;3.2819;
986.4000;0.4990;3.2867;
986.7000;0.4974;3.2867;
987.0000;0.4974;3.2963;
987.3000;0.4998;3.3011;
987.6000;0.4982;3.3011;
987.9000;0.5031;3.3131;
988.2000;0.4990;3.2987;
988.5000;0.4957;3.2891;
988.8000;0.5014;3.3059;
989.1000;0.4957;3.2867;
989.4000;0.4965;3.2939;
989.7000;0.4965;3.2963;
990.0000;0.4957;3.3035;
990.3000;0.4957;3.3011;
990.6000;0.4957;3.2963;
990.9000;0.4957;3.2987;
991.2000;0.4965;3.2963;
991.5000;0.4957;3.2939;
991.8000;0.4974;3.2987;
992.1000;0.4957;3.2891;
992.4000;0.4965;3.2795;
992.7000;0.4925;3.2723;
993.0000;0.4974;3.2891;
993.3000;0.4965;3.2987;
993.6000;0.4949;3.3011;
993.9000;0.4957;3.3035;
994.2000;0.4933;3.3083;
994.5000;0.4933;3.3107;
994.8000;0.4957;3.3155;
995.1000;0.4982;3.3131;
995.4000;0.4974;3.3107;
995.7000;0.4974;3.3131;
996.0000;0.4900;3.2915;
996.3000;0.4941;3.3035;
996.6000;0.4965;3.3155;
996.9000;0.4965;3.3227;
997.2000;0.5014;3.3371;
997.5000;0.4908;3.3107;
997.8000;0.4925;3.3107;
998.1000;0.4900;3.3035;
998.4000;0.4965;3.3251;
998.7000;0.4957;3.3275;
999.0000;0.4933;3.3227;
999.3000;0.4957;3.3299;
999.6000;0.4933;3.3227;
999.9000;0.4949;3.3251;
1000.2000;0.4974;3.3347;
1000.5000;0.4965;3.3419;
1000.8000;0.4957;3.3347;
1001.1000;0.4974;3.3347;
1001.4000;0.4974;3.3323;
1001.7000;0.4949;3.3323;
1002.0000;0.4957;3.3275;
1002.3000;0.4982;3.3323;
1002.6000;0.4949;3.3251;
1002.9000;0.4957;3.3275;
1003.2000;0.4974;3.3371;
1003.5000;0.4957;3.3323;
1003.8000;0.4998;3.3347;
1004.1000;0.4949;3.3347;
1004.4000;0.4957;3.3275;
1004.7000;0.4949;3.3275;
1005.0000;0.4949;3.3155;
1005.3000;0.4925;3.3083;
1005.6000;0.4941;3.3107;
1005.9000;0.4965;3.3179;
1006.2000;0.4941;3.3179;
1006.5000;0.4941;3.3179;
1006.8000;0.4957;3.3107;
1007.1000;0.4965;3.3083;
1007.4000;0.4965;3.3107;
1007.7000;0.4949;3.3035;
1008.0000;0.4957;3.2987;
1008.3000;0.4957;3.2987;
1008.6000;0.4941;3.2963;
1008.9000;0.4949;3.3059;
1009.2000;0.4949;3.3179;
1009.5000;0.4965;3.3347;
1009.8000;0.4982;3.3443;
1010.1000;0.4974;3.3371;
1010.4000;0.4965;3.3275;
1010.7000;0.4949;3.3251;
1011.0000;0.4965;3.3251;
1011.3000;0.4957;3.3107;
1011.6000;0.4941;3.3131;
1011.9000;0.4957;3.3203;
1012.2000;0.4949;3.3179;
1012.5000;0.4957;3.3227;
1012.8000;0.4941;3.3131;
1013.1000;0.4933;3.3083;
1013.4000;0.4982;3.3155;
1013.7000;0.4982;3.3155;
1014.0000;0.4965;3.3203;
1014.3000;0.4957;3.3155;
1014.6000;0.4957;3.3059;
1014.9000;0.4957;3.3107;
1015.2000;0.4957;3.3107;
1015.5000;0.4957;3.2987;
1015.8000;0.4941;3.2987;
1016.1000;0.4949;3.3035;
1016.4000;0.4957;3.3083;
1016.7000;0.4957;3.3011;
1017.0000;0.4949;3.3059;
1017.3000;0.4941;3.3131;
1017.6000;0.4974;3.3251;
1017.9000;0.4949;3.3179;
1018.2000;0.4982;3.3299;
1018.5000;0.4949;3.3155;
1018.8000;0.4957;3.3251;
1019.1000;0.4974;3.3251;
1019.4000;0.4957;3.3299;
1019.7000;0.4949;3.3299;
1020.0000;0.4949;3.3179;
1020.3000;0.4965;3.3203;
1020.6000;0.4933;3.3155;
1020.9000;0.4925;3.3131;
1021.2000;0.4949;3.3179;
1021.5000;0.4965;3.3107;
1021.8000;0.4900;3.2915;
1022.1000;0.4990;3.3083;
1022.4000;0.4957;3.3011;
1022.7000;0.4982;3.3083;
1023.0000;0.4949;3.3059;
1023.3000;0.4949;3.3059;
1023.6000;0.4982;3.3179;
1023.9000;0.4933;3.3179;
1024.2000;0.4941;3.3227;
1024.5000;0.4941;3.3155;
1024.8000;0.4965;3.3107;
1025.1000;0.4933;3.3083;
1025.4000;0.4965;3.3251;
1025.7000;0.5039;3.3491;
1026.0000;0.4965;3.3203;
1026.3000;0.4965;3.3275;
1026.6000;0.4949;3.3323;
1026.9000;0.5014;3.3419;
1027.2000;0.4949;3.3179;
1027.5000;0.4974;3.3179;
1027.8000;0.4965;3.3179;
1028.1000;0.4957;3.3035;
1028.4000;0.4965;3.2939;
1028.7000;0.4982;3.3035;
1029.0000;0.4965;3.3011;
1029.3000;0.4949;3.3107;
1029.6000;0.4965;3.3179;
1029.9000;0.4941;3.3131;
1030.2000;0.4965;3.3251;
1030.5000;0.4933;3.3203;
1030.8000;0.4941;3.3275;
1031.1000;0.4949;3.3251;
1031.4000;0.4949;3.3227;
1031.7000;0.4957;3.3179;
1032.0000;0.4974;3.3179;
1032.3000;0.4965;3.3251;
1032.6000;0.4965;3.3347;
1032.9000;0.4957;3.3323;
1033.2000;0.4974;3.3371;
1033.5000;0.4965;3.3323;
1033.8000;0.4933;3.3251;
1034.1000;0.4957;3.3299;
1034.4000;0.4917;3.3179;
1034.7000;0.4941;3.3203;
1035.0000;0.4982;3.3155;
1035.3000;0.4965;3.3083;
1035.6000;0.4965;3.3083;
1035.9000;0.4957;3.3011;
1036.2000;0.4941;3.2939;
1036.5000;0.4941;3.2819;
1036.8000;0.4933;3.2867;
1037.1000;0.4957;3.2915;
1037.4000;0.4957;3.2963;
1037.7000;0.4917;3.2987;
1038.0000;0.4974;3.3131;
1038.3000;0.4933;3.3083;
1038.6000;0.4949;3.3107;
1038.9000;0.4941;3.3059;
1039.2000;0.4957;3.2963;
1039.5000;0.4811;3.2699;
1039.8000;0.4884;3.2867;
1040.1000;0.4941;3.3059;
1040.4000;0.4949;3.3251;
1040.7000;0.5031;3.3299;
1041.0000;0.4957;3.3083;
1041.3000;0.4965;3.3059;
1041.6000;0.5006;3.3251;
1041.9000;0.4965;3.3059;
1042.2000;0.4957;3.3035;
1042.5000;0.4957;3.3035;
1042.8000;0.4998;3.2987;
1043.1000;0.4957;3.2867;
1043.4000;0.4957;3.2795;
1043.7000;0.4957;3.2795;
1044.0000;0.4957;3.2891;
1044.3000;0.4949;3.2891;
1044.6000;0.4949;3.2963;
1044.9000;0.4860;3.2795;
1045.2000;0.5014;3.3131;
1045.5000;0.4957;3.2963;
1045.8000;0.4965;3.2939;
1046.1000;0.4990;3.2939;
1046.4000;0.4957;3.2867;
1046.7000;0.4941;3.2891;
1047.0000;0.4957;3.2891;
1047.3000;0.4957;3.2891;
1047.6000;0.4925;3.2867;
1047.9000;0.4917;3.2867;
1048.2000;0.4949;3.2915;
1048.5000;0.4941;3.2891;
1048.8000;0.4941;3.2867;
1049.1000;0.4933;3.2963;
1049.4000;0.4933;3.2963;
1049.7000;0.4949;3.2939;
1050.0000;0.4957;3.2963;
1050.3000;0.4957;3.2987;
1050.6000;0.4974;3.3035;
1050.9000;0.4957;3.2987;
1051.2000;0.4957;3.2987;
1051.5000;0.4941;3.2987;
1051.8000;0.4933;3.2939;
1052.1000;0.4957;3.3035;
1052.4000;0.4957;3.3035;
1052.7000;0.4957;3.3083;
1053.0000;0.4965;3.3107;
1053.3000;0.4982;3.3035;
1053.6000;0.4949;3.3035;
1053.9000;0.4957;3.3059;
1054.2000;0.4957;3.3131;
1054.5000;0.4957;3.3155;
1054.8000;0.4884;3.2915;
1055.1000;0.4982;3.3155;
1055.4000;0.4957;3.3083;
1055.7000;0.4957;3.3035;
1056.0000;0.4949;3.2963;
1056.3000;0.4957;3.2987;
1056.6000;0.4957;3.3035;
1056.9000;0.4933;3.2987;
1057.2000;0.4908;3.2987;
1057.5000;0.4941;3.2963;
1057.8000;0.4941;3.3011;
1058.1000;0.4957;3.3083;
1058.4000;0.4957;3.3179;
1058.7000;0.4933;3.3083;
1059.0000;0.4917;3.3107;
1059.3000;0.4949;3.3131;
1059.6000;0.4965;3.3059;
1059.9000;0.4949;3.2987;
1060.2000;0.4949;3.2939;
1060.5000;0.4933;3.2891;
1060.8000;0.4957;3.2987;
1061.1000;0.4917;3.2939;
1061.4000;0.4917;3.2987;
1061.7000;0.4941;3.3083;
1062.0000;0.4965;3.3107;
1062.3000;0.4941;3.3059;
1062.6000;0.4965;3.3059;
1062.9000;0.4949;3.3107;
1063.2000;0.4941;3.3083;
1063.5000;0.4835;3.2747;
1063.8000;0.4917;3.2939;
1064.1000;0.4941;3.3059;
1064.4000;0.4933;3.2987;
1064.7000;0.4965;3.2915;
1065.0000;0.4957;3.2915;
1065.3000;0.4949;3.2891;
1065.6000;0.4957;3.2891;
1065.9000;0.4957;3.2891;
1066.2000;0.4982;3.2915;
1066.5000;0.5055;3.3155;
1066.8000;0.4965;3.2915;
1067.1000;0.5047;3.3155;
1067.4000;0.4974;3.2987;
1067.7000;0.4949;3.2915;
1068.0000;0.4941;3.2867;
1068.3000;0.4941;3.2939;
1068.6000;0.4925;3.2915;
1068.9000;0.4925;3.2939;
1069.2000;0.4941;3.3083;
1069.5000;0.4941;3.3011;
1069.8000;0.4941;3.3035;
1070.1000;0.4941;3.2939;
1070.4000;0.4925;3.2843;
1070.7000;0.4957;3.2915;
1071.0000;0.4957;3.3059;
1071.3000;0.4949;3.3107;
1071.6000;0.4941;3.3107;
1071.9000;0.4925;3.3107;
1072.2000;0.4933;3.3131;
1072.5000;0.4908;3.3131;
1072.8000;0.4949;3.3059;
1073.1000;0.4933;3.3059;
1073.4000;0.4892;3.2987;
1073.7000;0.4925;3.3059;
1074.0000;0.4957;3.3155;
1074.3000;0.4949;3.3155;
1074.6000;0.4949;3.3227;
1074.9000;0.4957;3.3179;
1075.2000;0.4941;3.3131;
1075.5000;0.4917;3.3035;
1075.8000;0.4941;3.3131;
1076.1000;0.4941;3.3131;
1076.4000;0.4957;3.3155;
1076.7000;0.4965;3.3107;
1077.0000;0.4957;3.3131;
1077.3000;0.4941;3.3107;
1077.6000;0.4965;3.3155;
1077.9000;0.4949;3.3059;
1078.2000;0.4949;3.3131;
1078.5000;0.4933;3.3107;
1078.8000;0.4860;3.2915;
1079.1000;0.4925;3.2939;
1079.4000;0.4949;3.3011;
1079.7000;0.4876;3.2843;
1080.0000;0.4957;3.3035;
1080.3000;0.4941;3.2987;
1080.6000;0.4941;3.2963;
1080.9000;0.4965;3.3035;
1081.2000;0.5006;3.3179;
1081.5000;0.4933;3.2963;
1081.8000;0.4949;3.3083;
1082.1000;0.4949;3.3179;
1082.4000;0.4974;3.3179;
1082.7000;0.4925;3.3083;
1083.0000;0.4908;3.3035;
1083.3000;0.4949;3.3131;
1083.6000;0.4941;3.3131;
1083.9000;0.4917;3.3203;
1084.2000;0.4925;3.3155;
1084.5000;0.4974;3.3179;
1084.8000;0.4949;3.3083;
1085.1000;0.5006;3.3131;
1085.4000;0.4941;3.2987;
1085.7000;0.4933;3.3011;
1086.0000;0.4949;3.2987;
1086.3000;0.4990;3.3083;
1086.6000;0.4949;3.3011;
1086.9000;0.4957;3.3083;
1087.2000;0.4957;3.3035;
1087.5000;0.5022;3.3275;
1087.8000;0.4933;3.2915;
1088.1000;0.4917;3.2939;
1088.4000;0.4957;3.3107;
1088.7000;0.5006;3.3155;
1089.0000;0.4974;3.3059;
1089.3000;0.4933;3.2939;
1089.6000;0.4957;3.3011;
1089.9000;0.4998;3.3155;
1090.2000;0.4941;3.3035;
1090.5000;0.4933;3.3011;
1090.8000;0.4957;3.3107;
1091.1000;0.4965;3.3131;
1091.4000;0.4933;3.3131;
1091.7000;0.4941;3.3155;
1092.0000;0.4925;3.3131;
1092.3000;0.4949;3.3227;
1092.6000;0.4974;3.3227;
1092.9000;0.4933;3.3107;
1093.2000;0.4941;3.3011;
1093.5000;0.4957;3.2987;
1093.8000;0.4941;3.3011;
1094.1000;0.4957;3.3035;
1094.4000;0.4941;3.3059;
1094.7000;0.4941;3.3155;
1095.0000;0.4949;3.3203;
1095.3000;0.4941;3.3131;
1095.6000;0.4949;3.3155;
1095.9000;0.4965;3.3227;
1096.2000;0.4941;3.3107;
1096.5000;0.4965;3.3131;
1096.8000;0.4957;3.3155;
1097.1000;0.4941;3.3107;
1097.4000;0.4941;3.3035;
1097.7000;0.5006;3.3179;
1098.0000;0.4941;3.3059;
1098.3000;0.4957;3.3083;
1098.6000;0.4941;3.3035;
1098.9000;0.4982;3.3155;
1099.2000;0.4949;3.2987;
1099.5000;0.4957;3.3035;
1099.8000;0.4949;3.2915;
1100.1000;0.4957;3.2939;
1100.4000;0.4949;3.2939;
1100.7000;0.4941;3.2963;
1101.0000;0.4957;3.3011;
1101.3000;0.4949;3.3035;
1101.6000;0.4941;3.2963;
1101.9000;0.4941;3.2939;
1102.2000;0.4933;3.2939;
1102.5000;0.4941;3.2987;
1102.8000;0.4933;3.3107;
1103.1000;0.4941;3.3107;
1103.4000;0.4965;3.3131;
1103.7000;0.4949;3.3155;
1104.0000;0.4949;3.3203;
1104.3000;0.4941;3.3155;
1104.6000;0.4933;3.2939;
1104.9000;0.4933;3.2939;
1105.2000;0.4982;3.3035;
1105.5000;0.4941;3.2915;
1105.8000;0.4974;3.3059;
1106.1000;0.4941;3.2987;
1106.4000;0.4990;3.3107;
1106.7000;0.4949;3.3011;
1107.0000;0.4884;3.2747;
1107.3000;0.4941;3.2867;
1107.6000;0.4941;3.2867;
1107.9000;0.4925;3.2795;
1108.2000;0.4941;3.2867;
1108.5000;0.4900;3.2771;
1108.8000;0.4933;3.2867;
1109.1000;0.4933;3.2867;
1109.4000;0.4941;3.2867;
1109.7000;0.4917;3.2819;
1110.0000;0.4933;3.2867;
1110.3000;0.4941;3.2891;
1110.6000;0.4892;3.2723;
1110.9000;0.4982;3.2867;
1111.2000;0.4933;3.2771;
1111.5000;0.4957;3.2843;
1111.8000;0.4957;3.2771;
1112.1000;0.4949;3.2771;
1112.4000;0.4908;3.2723;
1112.7000;0.4957;3.2891;
1113.0000;0.4941;3.2891;
1113.3000;0.4982;3.2987;
1113.6000;0.4941;3.2891;
1113.9000;0.4925;3.2891;
1114.2000;0.4957;3.2939;
1114.5000;0.4925;3.2867;
1114.8000;0.4925;3.2963;
1115.1000;0.4917;3.2939;
1115.4000;0.4949;3.2987;
1115.7000;0.4957;3.3059;
1116.0000;0.4900;3.2939;
1116.3000;0.4933;3.3083;
1116.6000;0.4860;3.2915;
1116.9000;0.4917;3.3131;
1117.2000;0.4908;3.3203;
1117.5000;0.4925;3.3131;
1117.8000;0.4917;3.3131;
1118.1000;0.4949;3.3155;
1118.4000;0.4925;3.3035;
1118.7000;0.4925;3.3059;
1119.0000;0.4933;3.3083;
1119.3000;0.4949;3.3035;
1119.6000;0.4933;3.3011;
1119.9000;0.4917;3.2891;
1120.2000;0.4941;3.2939;
1120.5000;0.4941;3.3011;
1120.8000;0.4957;3.3107;
1121.1000;0.4941;3.3155;
1121.4000;0.4949;3.3155;
1121.7000;0.4917;3.3011;
1122.0000;0.4957;3.2987;
1122.3000;0.4957;3.2963;
1122.6000;0.4957;3.2939;
1122.9000;0.4941;3.2963;
1123.2000;0.4917;3.2939;
1123.5000;0.4933;3.2939;
1123.8000;0.4908;3.2939;
1124.1000;0.4957;3.2963;
1124.4000;0.4933;3.2915;
1124.7000;0.4925;3.3011;
1125.0000;0.4925;3.3035;
1125.3000;0.4925;3.3059;
1125.6000;0.4925;3.3107;
1125.9000;0.4941;3.3083;
1126.2000;0.4908;3.3059;
1126.5000;0.4925;3.3035;
1126.8000;0.4949;3.3035;
1127.1000;0.4925;3.2987;
1127.4000;0.4933;3.2939;
1127.7000;0.4933;3.2915;
1128.0000;0.4949;3.2987;
1128.3000;0.4933;3.2915;
1128.6000;0.4941;3.2843;
1128.9000;0.4941;3.2891;
1129.2000;0.4941;3.2891;
1129.5000;0.4974;3.3011;
1129.8000;0.4925;3.2867;
1130.1000;0.4941;3.2987;
1130.4000;0.4957;3.3059;
1130.7000;0.4933;3.2963;
1131.0000;0.4900;3.2939;
1131.3000;0.4933;3.2987;
1131.6000;0.4965;3.3011;
1131.9000;0.4941;3.2939;
1132.2000;0.4949;3.2963;
1132.5000;0.4965;3.2963;
1132.8000;0.4868;3.2699;
1133.1000;0.4941;3.2915;
1133.4000;0.4949;3.2987;
1133.7000;0.4925;3.3011;
1134.0000;0.4941;3.3035;
1134.3000;0.4933;3.2963;
1134.6000;0.4941;3.3083;
1134.9000;0.4908;3.2987;
1135.2000;0.4925;3.3083;
1135.5000;0.4917;3.3131;
1135.8000;0.4941;3.3155;
1136.1000;0.4941;3.3203;
1136.4000;0.4908;3.3107;
1136.7000;0.4933;3.3107;
1137.0000;0.4933;3.3107;
1137.3000;0.4941;3.3155;
1137.6000;0.4949;3.3107;
1137.9000;0.4933;3.3035;
1138.2000;0.4925;3.2987;
1138.5000;0.4949;3.3011;
1138.8000;0.4982;3.2987;
1139.1000;0.4925;3.2891;
1139.4000;0.4949;3.2891;
1139.7000;0.4949;3.2963;
1140.0000;0.4949;3.2891;
1140.3000;0.4933;3.3035;
1140.6000;0.4933;3.3083;
1140.9000;0.4925;3.3083;
1141.2000;0.4908;3.3107;
1141.5000;0.4925;3.2939;
1141.8000;0.5031;3.3227;
1142.1000;0.4949;3.3035;
1142.4000;0.4941;3.2939;
1142.7000;0.4925;3.2939;
1143.0000;0.4990;3.3107;
1143.3000;0.4949;3.2963;
1143.6000;0.4925;3.3035;
1143.9000;0.4933;3.3059;
1144.2000;0.4917;3.2963;
1144.5000;0.4949;3.2963;
1144.8000;0.4884;3.2771;
1145.1000;0.4925;3.2843;
1145.4000;0.4925;3.2867;
1145.7000;0.4917;3.2867;
1146.0000;0.4900;3.2867;
1146.3000;0.4941;3.2867;
1146.6000;0.4933;3.2843;
1146.9000;0.4949;3.2843;
1147.2000;0.4965;3.2915;
1147.5000;0.4941;3.2939;
1147.8000;0.4933;3.2939;
1148.1000;0.4941;3.2939;
1148.4000;0.4925;3.2915;
1148.7000;0.4941;3.2987;
1149.0000;0.5014;3.3227;
1149.3000;0.4941;3.3059;
1149.6000;0.4925;3.2963;
1149.9000;0.4892;3.2939;
1150.2000;0.4900;3.2915;
1150.5000;0.4933;3.3035;
1150.8000;0.4941;3.3011;
1151.1000;0.4949;3.3035;
1151.4000;0.4941;3.3011;
1151.7000;0.4933;3.2987;
1152.0000;0.4941;3.2915;
1152.3000;0.4933;3.2843;
1152.6000;0.4941;3.2819;
1152.9000;0.4941;3.2819;
1153.2000;0.4974;3.2939;
1153.5000;0.4941;3.2987;
1153.8000;0.4982;3.3059;
1154.1000;0.4917;3.2963;
1154.4000;0.5006;3.3179;
1154.7000;0.4990;3.3203;
1155.0000;0.4908;3.3059;
1155.3000;0.4933;3.3107;
1155.6000;0.4933;3.3131;
1155.9000;0.4949;3.3107;
1156.2000;0.4917;3.2987;
1156.5000;0.4925;3.2987;
1156.8000;0.4933;3.3035;
1157.1000;0.4933;3.2987;
1157.4000;0.4917;3.2891;
1157.7000;0.4925;3.2987;
1158.0000;0.4917;3.3059;
1158.3000;0.4965;3.3179;
1158.6000;0.4941;3.3131;
1158.9000;0.4941;3.3107;
1159.2000;0.4933;3.3059;
1159.5000;0.5014;3.3227;
1159.8000;0.4941;3.3083;
1160.1000;0.4990;3.3251;
1160.4000;0.4949;3.3155;
1160.7000;0.4941;3.3203;
1161.0000;0.4941;3.3155;
1161.3000;0.4941;3.3203;
1161.6000;0.4941;3.3275;
1161.9000;0.4876;3.3131;
1162.2000;0.5031;3.3395;
1162.5000;0.4925;3.3083;
1162.8000;0.4917;3.2987;
1163.1000;0.4933;3.3035;
1163.4000;0.4908;3.3059;
1163.7000;0.4925;3.3107;
1164.0000;0.4957;3.3155;
1164.3000;0.4819;3.2819;
1164.6000;0.4892;3.2915;
1164.9000;0.4933;3.2963;
1165.2000;0.4925;3.2891;
1165.5000;0.4860;3.2723;
1165.8000;0.4925;3.2843;
1166.1000;0.4933;3.2867;
1166.4000;0.5006;3.3059;
1166.7000;0.4949;3.2915;
1167.0000;0.4957;3.2915;
1167.3000;0.4965;3.2939;
1167.6000;0.4941;3.2867;
1167.9000;0.4941;3.2891;
1168.2000;0.4949;3.2963;
1168.5000;0.4949;3.2915;
1168.8000;0.4941;3.2915;
1169.1000;0.4925;3.2939;
1169.4000;0.4925;3.2915;
1169.7000;0.4917;3.2939;
1170.0000;0.4917;3.2915;
1170.3000;0.4917;3.2867;
1170.6000;0.4925;3.2891;
1170.9000;0.4917;3.2819;
1171.2000;0.4925;3.2963;
1171.5000;0.4917;3.2915;
1171.8000;0.4925;3.2963;
1172.1000;0.4917;3.2963;
1172.4000;0.4949;3.2963;
1172.7000;0.4917;3.2843;
1173.0000;0.4892;3.2819;
1173.3000;0.4917;3.2915;
1173.6000;0.4925;3.2987;
1173.9000;0.4925;3.3011;
1174.2000;0.4908;3.2963;
1174.5000;0.4908;3.2819;
1174.8000;0.4933;3.2867;
1175.1000;0.4941;3.2891;
1175.4000;0.4900;3.2795;
1175.7000;0.4933;3.2843;
1176.0000;0.4925;3.2747;
1176.3000;0.4933;3.2747;
1176.6000;0.4908;3.2747;
1176.9000;0.4900;3.2747;
1177.2000;0.4925;3.2771;
1177.5000;0.4949;3.2867;
1177.8000;0.4933;3.2819;
1178.1000;0.4941;3.2819;
1178.4000;0.4957;3.2843;
1178.7000;0.4957;3.2795;
1179.0000;0.4925;3.2771;
1179.3000;0.4949;3.2819;
1179.6000;0.4941;3.2891;
1179.9000;0.4941;3.2891;
1180.2000;0.4974;3.2939;
1180.5000;0.4949;3.2915;
1180.8000;0.4925;3.2891;
1181.1000;0.4925;3.2987;
1181.4000;0.4957;3.3107;
1181.7000;0.4925;3.2963;
1182.0000;0.4908;3.2915;
1182.3000;0.4933;3.2915;
1182.6000;0.4957;3.2963;
1182.9000;0.4925;3.2867;
1183.2000;0.4892;3.2795;
1183.5000;0.4884;3.2819;
1183.8000;0.4933;3.2939;
1184.1000;0.4925;3.2891;
1184.4000;0.4917;3.2867;
1184.7000;0.4908;3.2867;
1185.0000;0.4843;3.2675;
1185.3000;0.4835;3.2651;
1185.6000;0.4941;3.2963;
1185.9000;0.4868;3.2843;
1186.2000;0.4941;3.3035;
1186.5000;0.4949;3.3107;
1186.8000;0.4933;3.3275;
1187.1000;0.4925;3.3275;
1187.4000;0.4933;3.3179;
1187.7000;0.4925;3.3131;
1188.0000;0.4892;3.2987;
1188.3000;0.4925;3.3035;
1188.6000;0.4949;3.3107;
1188.9000;0.4900;3.3035;
1189.2000;0.4892;3.3035;
1189.5000;0.4884;3.3083;
1189.8000;0.4917;3.3107;
1190.1000;0.4933;3.3155;
1190.4000;0.4876;3.3059;
1190.7000;0.4933;3.3107;
1191.0000;0.4925;3.3107;
1191.3000;0.4933;3.3203;
1191.6000;0.4933;3.3131;
1191.9000;0.4925;3.2963;
1192.2000;0.4917;3.3035;
1192.5000;0.4933;3.3059;
1192.8000;0.4990;3.3251;
1193.1000;0.4925;3.3083;
1193.4000;0.4949;3.3107;
1193.7000;0.4925;3.3059;
1194.0000;0.4949;3.3059;
1194.3000;0.4925;3.3011;
1194.6000;0.4917;3.3011;
1194.9000;0.4941;3.3107;
1195.2000;0.4925;3.3059;
1195.5000;0.4908;3.3107;
1195.8000;0.4868;3.2891;
1196.1000;0.4908;3.3035;
1196.4000;0.4917;3.3059;
1196.7000;0.4933;3.3035;
1197.0000;0.4949;3.3083;
1197.3000;0.4933;3.3011;
1197.6000;0.4925;3.3059;
1197.9000;0.4908;3.2963;
1198.2000;0.4933;3.3059;
1198.5000;0.4925;3.3035;
1198.8000;0.4965;3.3131;
1199.1000;0.4957;3.3131;
1199.4000;0.4908;3.3059;
1199.7000;0.4941;3.3035;
1200.0000;0.4925;3.3011;
1200.3000;0.4884;3.2939;
1200.6000;0.4900;3.2915;
1200.9000;0.4900;3.2987;
1201.2000;0.4835;3.2819;
1201.5000;0.4933;3.3107;
1201.8000;0.4957;3.3155;
1202.1000;0.4868;3.2987;
1202.4000;0.4933;3.3131;
1202.7000;0.4933;3.3155;
1203.0000;0.4933;3.3227;
1203.3000;0.4925;3.3227;
1203.6000;0.4941;3.3275;
1203.9000;0.4974;3.3323;
1204.2000;0.4860;3.3083;
1204.5000;0.4917;3.3251;
1204.8000;0.4949;3.3251;
1205.1000;0.4908;3.3083;
1205.4000;0.4925;3.3059;
1205.7000;0.5022;3.3155;
1206.0000;0.4957;3.2963;
1206.3000;0.5022;3.3179;
1206.6000;0.4957;3.2939;
1206.9000;0.4990;3.3011;
1207.2000;0.4917;3.2915;
1207.5000;0.4949;3.2915;
1207.8000;0.4925;3.2915;
1208.1000;0.4941;3.2987;
1208.4000;0.4925;3.2867;
1208.7000;0.4917;3.2819;
1209.0000;0.4892;3.2747;
1209.3000;0.4917;3.2795;
1209.6000;0.4925;3.2915;
1209.9000;0.4933;3.2915;
1210.2000;0.4908;3.2867;
1210.5000;0.4949;3.2867;
1210.8000;0.4957;3.2843;
1211.1000;0.4900;3.2771;
1211.4000;0.4933;3.2867;
1211.7000;0.4957;3.2963;
1212.0000;0.4908;3.2891;
1212.3000;0.4933;3.2939;
1212.6000;0.4925;3.2939;
1212.9000;0.4941;3.2963;
1213.2000;0.4925;3.2939;
1213.5000;0.4933;3.3011;
1213.8000;0.4933;3.2987;
1214.1000;0.4933;3.3011;
1214.4000;0.4941;3.3083;
1214.7000;0.4917;3.2939;
1215.0000;0.4925;3.2963;
1215.3000;0.4908;3.2891;
1215.6000;0.4933;3.2867;
1215.9000;0.4998;3.2963;
1216.2000;0.4900;3.2795;
1216.5000;0.4933;3.2915;
1216.8000;0.4925;3.2939;
1217.1000;0.4925;3.2891;
1217.4000;0.4957;3.2987;
1217.7000;0.4949;3.2939;
1218.0000;0.4925;3.2915;
1218.3000;0.4933;3.2963;
1218.6000;0.4925;3.2987;
1218.9000;0.4933;3.2915;
1219.2000;0.4925;3.2747;
1219.5000;0.4925;3.2843;
1219.8000;0.4925;3.2843;
1220.1000;0.4933;3.2867;
1220.4000;0.4949;3.2867;
1220.7000;0.4925;3.2843;
1221.0000;0.4925;3.2915;
1221.3000;0.4965;3.2987;
1221.6000;0.4933;3.2867;
1221.9000;0.4933;3.2867;
1222.2000;0.4933;3.2819;
1222.5000;0.4957;3.2819;
1222.8000;0.4941;3.2843;
1223.1000;0.4925;3.2843;
1223.4000;0.4949;3.2915;
1223.7000;0.4917;3.2819;
1224.0000;0.4925;3.2699;
1224.3000;0.5014;3.2987;
1224.6000;0.4949;3.2747;
1224.9000;0.4933;3.2843;
1225.2000;0.4900;3.2699;
1225.5000;0.4933;3.2723;
1225.8000;0.4925;3.2675;
1226.1000;0.4957;3.2771;
1226.4000;0.4933;3.2747;
1226.7000;0.4933;3.2771;
1227.0000;0.4908;3.2699;
1227.3000;0.4908;3.2771;
1227.6000;0.4933;3.2795;
1227.9000;0.4925;3.2795;
1228.2000;0.4925;3.2819;
1228.5000;0.4933;3.2843;
1228.8000;0.4933;3.2819;
1229.1000;0.4917;3.2819;
1229.4000;0.4925;3.2843;
1229.7000;0.4941;3.2891;
1230.0000;0.4892;3.2771;
1230.3000;0.4925;3.2819;
1230.6000;0.4933;3.2795;
1230.9000;0.4892;3.2795;
1231.2000;0.4908;3.2939;
1231.5000;0.4884;3.2915;
1231.8000;0.4925;3.3059;
1232.1000;0.4925;3.2987;
1232.4000;0.4917;3.2987;
1232.7000;0.4908;3.3011;
1233.0000;0.4917;3.2963;
1233.3000;0.4908;3.2939;
1233.6000;0.4982;3.3107;
1233.9000;0.4933;3.3011;
1234.2000;0.4925;3.2987;
1234.5000;0.4917;3.2963;
1234.8000;0.4933;3.3059;
1235.1000;0.4908;3.3155;
1235.4000;0.4933;3.3107;
1235.7000;0.4949;3.3155;
1236.0000;0.4941;3.3131;
1236.3000;0.4933;3.3131;
1236.6000;0.4990;3.3323;
1236.9000;0.4941;3.3131;
1237.2000;0.4941;3.3155;
1237.5000;0.4933;3.3155;
1237.8000;0.4941;3.3131;
1238.1000;0.4917;3.3083;
1238.4000;0.4925;3.3155;
1238.7000;0.4949;3.3299;
1239.0000;0.4900;3.3227;
1239.3000;0.4925;3.3251;
1239.6000;0.4925;3.3251;
1239.9000;0.4925;3.3155;
1240.2000;0.4917;3.3107;
1240.5000;0.4933;3.3155;
1240.8000;0.5014;3.3347;
1241.1000;0.4925;3.3083;
1241.4000;0.4908;3.2987;
1241.7000;0.4925;3.3035;
1242.0000;0.4917;3.3059;
1242.3000;0.4900;3.2987;
1242.6000;0.4925;3.2963;
1242.9000;0.4933;3.2891;
1243.2000;0.4917;3.2795;
1243.5000;0.4892;3.2747;
1243.8000;0.4925;3.2891;
1244.1000;0.4908;3.2915;
1244.4000;0.4892;3.2819;
1244.7000;0.4917;3.2891;
1245.0000;0.4917;3.2819;
1245.3000;0.4900;3.2675;
1245.6000;0.4933;3.2819;
1245.9000;0.4925;3.2771;
1246.2000;0.4965;3.2915;
1246.5000;0.4941;3.2987;
1246.8000;0.5014;3.3179;
1247.1000;0.4925;3.3035;
1247.4000;0.4990;3.3227;
1247.7000;0.4957;3.3083;
1248.0000;0.4933;3.3035;
1248.3000;0.4933;3.3083;
1248.6000;0.4949;3.3083;
1248.9000;0.4933;3.3083;
1249.2000;0.4974;3.3155;
1249.5000;0.4892;3.2963;
1249.8000;0.4933;3.2987;
1250.1000;0.4925;3.3035;
1250.4000;0.4925;3.3083;
1250.7000;0.4925;3.3107;
1251.0000;0.4941;3.3179;
1251.3000;0.4933;3.3179;
1251.6000;0.4941;3.3203;
1251.9000;0.4925;3.3131;
1252.2000;0.4933;3.3179;
1252.5000;0.4925;3.3203;
1252.8000;0.4900;3.3011;
1253.1000;0.4941;3.3083;
1253.4000;0.4917;3.3011;
1253.7000;0.4941;3.3155;
1254.0000;0.4957;3.3179;
1254.3000;0.4900;3.3083;
1254.6000;0.4917;3.3131;
1254.9000;0.4900;3.3035;
1255.2000;0.4917;3.3059;
1255.5000;0.4908;3.3107;
1255.8000;0.5112;3.3587;
1256.1000;0.4908;3.3035;
1256.4000;0.4949;3.3155;
1256.7000;0.4941;3.3155;
1257.0000;0.4933;3.3131;
1257.3000;0.4917;3.3155;
1257.6000;0.4949;3.3299;
1257.9000;0.4908;3.3251;
1258.2000;0.4933;3.3203;
1258.5000;0.4917;3.3227;
1258.8000;0.4917;3.3203;
1259.1000;0.4941;3.3107;
1259.4000;0.4925;3.3083;
1259.7000;0.4933;3.3035;
1260.0000;0.4933;3.3059;
1260.3000;0.4933;3.3035;
1260.6000;0.4925;3.2987;
1260.9000;0.4933;3.2987;
1261.2000;0.4957;3.2987;
1261.5000;0.4925;3.2939;
1261.8000;0.4949;3.3035;
1262.1000;0.4925;3.2963;
1262.4000;0.4925;3.2963;
1262.7000;0.4941;3.3011;
1263.0000;0.4908;3.3083;
1263.3000;0.4908;3.3011;
1263.6000;0.4925;3.2939;
1263.9000;0.4917;3.2963;
1264.2000;0.4941;3.3059;
1264.5000;0.4900;3.2963;
1264.8000;0.4884;3.2915;
1265.1000;0.4957;3.3011;
1265.4000;0.4933;3.3011;
1265.7000;0.4933;3.2915;
1266.0000;0.4925;3.2939;
1266.3000;0.4908;3.2939;
1266.6000;0.4941;3.3035;
1266.9000;0.4925;3.2963;
1267.2000;0.4949;3.2987;
1267.5000;0.4933;3.2987;
1267.8000;0.4917;3.2963;
1268.1000;0.4941;3.3035;
1268.4000;0.4933;3.3035;
1268.7000;0.4908;3.3035;
1269.0000;0.4933;3.2963;
1269.3000;0.4908;3.2963;
1269.6000;0.4908;3.3011;
1269.9000;0.4917;3.3011;
1270.2000;0.4933;3.3059;
1270.5000;0.4908;3.2987;
1270.8000;0.4925;3.2987;
1271.1000;0.4908;3.2963;
1271.4000;0.4876;3.2867;
1271.7000;0.4933;3.2987;
1272.0000;0.4925;3.2963;
1272.3000;0.4917;3.3011;
1272.6000;0.4868;3.2987;
1272.9000;0.4941;3.3131;
1273.2000;0.4933;3.3083;
1273.5000;0.4933;3.3011;
1273.8000;0.4949;3.3035;
1274.1000;0.4941;3.2963;
1274.4000;0.4949;3.2939;
1274.7000;0.5006;3.3083;
1275.0000;0.4933;3.2891;
1275.3000;0.4941;3.2867;
1275.6000;0.4925;3.2963;
1275.9000;0.4933;3.2963;
1276.2000;0.4949;3.2939;
1276.5000;0.4917;3.2843;
1276.8000;0.4941;3.2915;
1277.1000;0.4982;3.3059;
1277.4000;0.4933;3.3011;
1277.7000;0.4941;3.2987;
1278.0000;0.4900;3.3011;
1278.3000;0.4933;3.3107;
1278.6000;0.4908;3.3107;
1278.9000;0.4965;3.3203;
1279.2000;0.4925;3.3179;
1279.5000;0.4917;3.3107;
1279.8000;0.4900;3.3011;
1280.1000;0.4925;3.3059;
1280.4000;0.4917;3.2963;
1280.7000;0.4933;3.2963;
1281.0000;0.4908;3.3011;
1281.3000;0.4925;3.3131;
1281.6000;0.4917;3.3035;
1281.9000;0.4941;3.3035;
1282.2000;0.4941;3.2963;
1282.5000;0.4917;3.2891;
1282.8000;0.4908;3.2795;
1283.1000;0.5014;3.3107;
1283.4000;0.4908;3.2915;
1283.7000;0.4900;3.2843;
1284.0000;0.4908;3.2915;
1284.3000;0.4933;3.3011;
1284.6000;0.4965;3.3107;
1284.9000;0.4941;3.2891;
1285.2000;0.4908;3.2843;
1285.5000;0.4933;3.2843;
1285.8000;0.4908;3.2747;
1286.1000;0.4933;3.2891;
1286.4000;0.4908;3.2843;
1286.7000;0.4925;3.2891;
1287.0000;0.4917;3.2843;
1287.3000;0.4917;3.2891;
1287.6000;0.4892;3.2891;
1287.9000;0.4908;3.2939;
1288.2000;0.4925;3.2963;
1288.5000;0.4908;3.2987;
1288.8000;0.4949;3.3083;
1289.1000;0.4908;3.3011;
1289.4000;0.4925;3.3011;
1289.7000;0.4957;3.3035;
1290.0000;0.4917;3.2987;
1290.3000;0.4917;3.3035;
1290.6000;0.4917;3.3083;
1290.9000;0.4925;3.3083;
1291.2000;0.4925;3.3131;
1291.5000;0.4941;3.3083;
1291.8000;0.4917;3.3107;
1292.1000;0.4925;3.3083;
1292.4000;0.4925;3.3059;
1292.7000;0.4933;3.3083;
1293.0000;0.4933;3.2963;
1293.3000;0.4917;3.3035;
1293.6000;0.4917;3.2963;
1293.9000;0.4925;3.2819;
1294.2000;0.4941;3.2891;
1294.5000;0.4941;3.2963;
1294.8000;0.4933;3.2915;
1295.1000;0.4925;3.2963;
1295.4000;0.4925;3.3059;
1295.7000;0.4933;3.3035;
1296.0000;0.4965;3.3083;
1296.3000;0.4933;3.2939;
1296.6000;0.4925;3.2867;
1296.9000;0.4925;3.2891;
1297.2000;0.4933;3.2939;
1297.5000;0.4941;3.2987;
1297.8000;0.4925;3.2987;
1298.1000;0.4917;3.3011;
1298.4000;0.4949;3.3059;
1298.7000;0.4933;3.3035;
1299.0000;0.4933;3.3059;
1299.3000;0.5006;3.3275;
1299.6000;0.4941;3.3083;
1299.9000;0.4917;3.3083;
1300.2000;0.4933;3.3155;
1300.5000;0.4949;3.3179;
1300.8000;0.4941;3.3131;
1301.1000;0.4900;3.3011;
1301.4000;0.4941;3.3107;
1301.7000;0.4884;3.2963;
1302.0000;0.4908;3.3107;
1302.3000;0.4925;3.3107;
1302.6000;0.4917;3.3059;
1302.9000;0.4941;3.3083;
1303.2000;0.4949;3.3083;
1303.5000;0.4941;3.3011;
1303.8000;0.4933;3.2867;
1304.1000;0.4925;3.2939;
1304.4000;0.4933;3.2915;
1304.7000;0.4925;3.2915;
1305.0000;0.4925;3.2915;
1305.3000;0.4917;3.2987;
1305.6000;0.4933;3.3059;
1305.9000;0.4925;3.3059;
1306.2000;0.4933;3.2939;
1306.5000;0.4917;3.2891;
1306.8000;0.4933;3.2819;
1307.1000;0.4941;3.2843;
1307.4000;0.4957;3.2891;
1307.7000;0.4949;3.2963;
1308.0000;0.4933;3.2867;
1308.3000;0.4949;3.2963;
1308.6000;0.4917;3.2891;
1308.9000;0.4933;3.2939;
1309.2000;0.4933;3.2987;
1309.5000;0.4941;3.3035;
1309.8000;0.4941;3.3059;
1310.1000;0.4941;3.2939;
1310.4000;0.4908;3.2915;
1310.7000;0.4843;3.2771;
1311.0000;0.4917;3.2939;
1311.3000;0.4933;3.2987;
1311.6000;0.4925;3.3107;
1311.9000;0.4908;3.3131;
1312.2000;0.4892;3.3131;
1312.5000;0.4925;3.3131;
1312.8000;0.4917;3.3107;
1313.1000;0.4908;3.3059;
1313.4000;0.4965;3.3059;
1313.7000;0.4941;3.2987;
1314.0000;0.4917;3.2963;
1314.3000;0.4949;3.3059;
1314.6000;0.4933;3.2987;
1314.9000;0.4933;3.3131;
1315.2000;0.4908;3.3155;
1315.5000;0.4917;3.3227;
1315.8000;0.4957;3.3227;
1316.1000;0.4957;3.3275;
1316.4000;0.4892;3.3107;
1316.7000;0.4957;3.3203;
1317.0000;0.4860;3.2939;
1317.3000;0.4892;3.2987;
1317.6000;0.4933;3.2987;
1317.9000;0.4917;3.2987;
1318.2000;0.4933;3.3059;
1318.5000;0.4949;3.3203;
1318.8000;0.4925;3.3227;
1319.1000;0.4941;3.3251;
1319.4000;0.4917;3.3155;
1319.7000;0.4917;3.3203;
1320.0000;0.4974;3.3227;
1320.3000;0.4941;3.3107;
1320.6000;0.4843;3.2819;
1320.9000;0.4933;3.3011;
1321.2000;0.4925;3.2963;
1321.5000;0.4933;3.3059;
1321.8000;0.4933;3.3083;
1322.1000;0.4925;3.3083;
1322.4000;0.4917;3.3131;
1322.7000;0.4998;3.3347;
1323.0000;0.4933;3.3155;
1323.3000;0.4982;3.3227;
1323.6000;0.4917;3.3059;
1323.9000;0.4917;3.3083;
1324.2000;0.4933;3.3131;
1324.5000;0.4925;3.3203;
1324.8000;0.4933;3.3251;
1325.1000;0.4917;3.3155;
1325.4000;0.4933;3.3059;
1325.7000;0.4917;3.2987;
1326.0000;0.4941;3.3131;
1326.3000;0.4941;3.3059;
1326.6000;0.4925;3.2963;
1326.9000;0.4917;3.3035;
1327.2000;0.4933;3.3059;
1327.5000;0.4925;3.3011;
1327.8000;0.4925;3.2987;
1328.1000;0.4917;3.2915;
1328.4000;0.4917;3.2891;
1328.7000;0.4925;3.2891;
1329.0000;0.4908;3.2891;
1329.3000;0.4925;3.2963;
1329.6000;0.4900;3.2939;
1329.9000;0.4925;3.3035;
1330.2000;0.4933;3.3107;
1330.5000;0.4925;3.3131;
1330.8000;0.4917;3.3131;
1331.1000;0.4917;3.3131;
1331.4000;0.4925;3.3107;
1331.7000;0.4941;3.3083;
1332.0000;0.4957;3.3131;
1332.3000;0.4933;3.3059;
1332.6000;0.4941;3.3083;
1332.9000;0.4933;3.3059;
1333.2000;0.4933;3.3083;
1333.5000;0.4843;3.2915;
1333.8000;0.4917;3.3059;
1334.1000;0.4925;3.3035;
1334.4000;0.4917;3.3011;
1334.7000;0.4925;3.3035;
1335.0000;0.4925;3.3035;
1335.3000;0.4917;3.3131;
1335.6000;0.4925;3.3083;
1335.9000;0.4925;3.3107;
1336.2000;0.4941;3.3107;
1336.5000;0.4917;3.3011;
1336.8000;0.4949;3.3035;
1337.1000;0.4908;3.2963;
1337.4000;0.4965;3.3107;
1337.7000;0.4933;3.3059;
1338.0000;0.4908;3.3035;
1338.3000;0.4900;3.3059;
1338.6000;0.4908;3.3011;
1338.9000;0.4892;3.2915;
1339.2000;0.4925;3.2987;
1339.5000;0.4908;3.2843;
1339.8000;0.4892;3.2747;
1340.1000;0.4917;3.2795;
1340.4000;0.4941;3.2723;
1340.7000;0.4925;3.2723;
1341.0000;0.4957;3.2987;
1341.3000;0.4917;3.2963;
1341.6000;0.4933;3.2939;
1341.9000;0.4933;3.2891;
1342.2000;0.4925;3.2771;
1342.5000;0.4941;3.2819;
1342.8000;0.4908;3.2819;
1343.1000;0.4941;3.2939;
1343.4000;0.4933;3.2891;
1343.7000;0.4949;3.3011;
1344.0000;0.4925;3.2939;
1344.3000;0.4949;3.3107;
1344.6000;0.4917;3.3035;
1344.9000;0.4917;3.3035;
1345.2000;0.4933;3.3059;
1345.5000;0.4908;3.2939;
1345.8000;0.4900;3.2939;
1346.1000;0.4925;3.2915;
1346.4000;0.4917;3.2891;
1346.7000;0.4925;3.2843;
1347.0000;0.4933;3.2867;
1347.3000;0.4892;3.2819;
1347.6000;0.4917;3.2939;
1347.9000;0.4917;3.2987;
1348.2000;0.4917;3.2939;
1348.5000;0.4908;3.2915;
1348.8000;0.4908;3.2915;
1349.1000;0.4892;3.2939;
1349.4000;0.4925;3.2963;
1349.7000;0.4925;3.3011;
1350.0000;0.4892;3.2939;
1350.3000;0.4917;3.2987;
1350.6000;0.4908;3.2987;
1350.9000;0.4892;3.2819;
1351.2000;0.4917;3.2867;
1351.5000;0.4982;3.3035;
1351.8000;0.4933;3.2939;
1352.1000;0.4908;3.3035;
1352.4000;0.4917;3.3035;
1352.7000;0.4908;3.2915;
1353.0000;0.4941;3.2963;
1353.3000;0.4925;3.2963;
1353.6000;0.4908;3.2939;
1353.9000;0.4917;3.2915;
1354.2000;0.4949;3.2939;
1354.5000;0.4908;3.2891;
1354.8000;0.4941;3.3011;
1355.1000;0.4965;3.3011;
1355.4000;0.4925;3.2915;
1355.7000;0.4925;3.2939;
1356.0000;0.4965;3.2963;
1356.3000;0.4884;3.2819;
1356.6000;0.4827;3.2723;
1356.9000;0.4917;3.2963;
1357.2000;0.4933;3.3035;
1357.5000;0.4892;3.2963;
1357.8000;0.4941;3.2987;
1358.1000;0.4933;3.2963;
1358.4000;0.4933;3.2963;
1358.7000;0.4941;3.2939;
1359.0000;0.4925;3.2891;
1359.3000;0.4941;3.2939;
1359.6000;0.4949;3.2915;
1359.9000;0.4917;3.2939;
1360.2000;0.4933;3.3035;
1360.5000;0.4925;3.3083;
1360.8000;0.4843;3.2915;
1361.1000;0.4908;3.3083;
1361.4000;0.4917;3.3107;
1361.7000;0.4941;3.3227;
1362.0000;0.4933;3.3203;
1362.3000;0.4925;3.3179;
1362.6000;0.4884;3.3083;
1362.9000;0.4925;3.3203;
1363.2000;0.4933;3.3371;
1363.5000;0.4917;3.3347;
1363.8000;0.4925;3.3299;
1364.1000;0.4925;3.3275;
1364.4000;0.4933;3.3299;
1364.7000;0.4925;3.3203;
1365.0000;0.4925;3.3131;
1365.3000;0.4835;3.2939;
1365.6000;0.4925;3.3059;
1365.9000;0.4941;3.3131;
1366.2000;0.4941;3.3083;
1366.5000;0.4925;3.3011;
1366.8000;0.4941;3.3011;
1367.1000;0.4933;3.2939;
1367.4000;0.4884;3.2915;
1367.7000;0.4925;3.3035;
1368.0000;0.4868;3.2963;
1368.3000;0.4957;3.3131;
1368.6000;0.4957;3.3083;
1368.9000;0.4908;3.3011;
1369.2000;0.4949;3.3083;
1369.5000;0.4917;3.2963;
1369.8000;0.4917;3.2915;
1370.1000;0.4908;3.2819;
1370.4000;0.4917;3.2867;
1370.7000;0.4868;3.2819;
1371.0000;0.4941;3.3011;
1371.3000;0.4925;3.3035;
1371.6000;0.4884;3.2843;
1371.9000;0.4917;3.2915;
1372.2000;0.4933;3.2987;
1372.5000;0.4917;3.2915;
1372.8000;0.4925;3.2915;
1373.1000;0.4941;3.2963;
1373.4000;0.4917;3.2915;
1373.7000;0.4925;3.2939;
1374.0000;0.4925;3.2939;
1374.3000;0.4917;3.2939;
1374.6000;0.4925;3.2915;
1374.9000;0.4917;3.2987;
1375.2000;0.4900;3.2939;
1375.5000;0.4892;3.2963;
1375.8000;0.4900;3.3107;
1376.1000;0.4933;3.3035;
1376.4000;0.4876;3.2915;
1376.7000;0.4941;3.2963;
1377.0000;0.4917;3.3011;
1377.3000;0.4925;3.2963;
1377.6000;0.4908;3.2843;
1377.9000;0.4884;3.2747;
1378.2000;0.4925;3.2867;
1378.5000;0.4965;3.2963;
1378.8000;0.4949;3.2963;
1379.1000;0.4990;3.3083;
1379.4000;0.4965;3.3035;
1379.7000;0.4941;3.2963;
1380.0000;0.4917;3.2939;
1380.3000;0.4908;3.3011;
1380.6000;0.4884;3.2939;
1380.9000;0.4917;3.3011;
1381.2000;0.4917;3.3035;
1381.5000;0.4900;3.2963;
1381.8000;0.4908;3.2987;
1382.1000;0.4908;3.2963;
1382.4000;0.4925;3.3011;
1382.7000;0.4900;3.3011;
1383.0000;0.4917;3.3107;
1383.3000;0.4933;3.3131;
1383.6000;0.4933;3.3083;
1383.9000;0.4933;3.3035;
1384.2000;0.4925;3.2987;
1384.5000;0.4925;3.2939;
1384.8000;0.4892;3.2843;
1385.1000;0.4908;3.2915;
1385.4000;0.4917;3.2891;
1385.7000;0.4957;3.2963;
1386.0000;0.4860;3.2699;
1386.3000;0.4884;3.2819;
1386.6000;0.4908;3.2939;
1386.9000;0.4908;3.3011;
1387.2000;0.4925;3.2939;
1387.5000;0.4933;3.2867;
1387.8000;0.4917;3.2795;
1388.1000;0.4908;3.2699;
1388.4000;0.4925;3.2795;
1388.7000;0.4925;3.2867;
1389.0000;0.4925;3.2843;
1389.3000;0.4884;3.2843;
1389.6000;0.4949;3.3035;
1389.9000;0.4941;3.3035;
1390.2000;0.4900;3.2915;
1390.5000;0.4900;3.2963;
1390.8000;0.4925;3.3035;
1391.1000;0.4908;3.2891;
1391.4000;0.4925;3.2915;
1391.7000;0.4941;3.3035;
1392.0000;0.4925;3.3035;
1392.3000;0.4941;3.3083;
1392.6000;0.4965;3.3083;
1392.9000;0.4900;3.3035;
1393.2000;0.4925;3.3011;
1393.5000;0.4925;3.2963;
1393.8000;0.4941;3.2963;
1394.1000;0.4900;3.2795;
1394.4000;0.4925;3.2843;
1394.7000;0.4908;3.2819;
1395.0000;0.4917;3.2891;
1395.3000;0.4892;3.2819;
1395.6000;0.4925;3.2771;
1395.9000;0.4925;3.2795;
1396.2000;0.4892;3.2747;
1396.5000;0.4917;3.2891;
1396.8000;0.4933;3.2891;
1397.1000;0.4917;3.2843;
1397.4000;0.4917;3.2843;
1397.7000;0.4933;3.2915;
1398.0000;0.4917;3.2915;
1398.3000;0.4941;3.2987;
1398.6000;0.4892;3.2819;
1398.9000;0.4908;3.2819;
1399.2000;0.4908;3.2891;
1399.5000;0.4908;3.2915;
1399.8000;0.4900;3.2939;
