time/ms;Fluo/V;P700 deltaI/I x10³;
-199.8000;0.7424;3.4715;
-199.5000;0.7407;3.4691;
-199.2000;0.7416;3.4667;
-198.9000;0.7391;3.4619;
-198.6000;0.7424;3.4811;
-198.3000;0.7416;3.4859;
-198.0000;0.7399;3.4835;
-197.7000;0.7407;3.4763;
-197.4000;0.7399;3.4739;
-197.1000;0.7440;3.4811;
-196.8000;0.7416;3.4691;
-196.5000;0.7416;3.4595;
-196.2000;0.7424;3.4547;
-195.9000;0.7424;3.4691;
-195.6000;0.7432;3.4811;
-195.3000;0.7424;3.4859;
-195.0000;0.7407;3.4883;
-194.7000;0.7456;3.4931;
-194.4000;0.7481;3.5003;
-194.1000;0.7416;3.4931;
-193.8000;0.7416;3.4931;
-193.5000;0.7367;3.4787;
-193.2000;0.7407;3.4931;
-192.9000;0.7399;3.4931;
-192.6000;0.7383;3.4883;
-192.3000;0.7399;3.5099;
-192.0000;0.7424;3.5146;
-191.7000;0.7399;3.5146;
-191.4000;0.7424;3.5003;
-191.1000;0.7383;3.4859;
-190.8000;0.7391;3.4883;
-190.5000;0.7416;3.4883;
-190.2000;0.7391;3.4835;
-189.9000;0.7399;3.4883;
-189.6000;0.7432;3.4883;
-189.3000;0.7407;3.4763;
-189.0000;0.7391;3.4619;
-188.7000;0.7399;3.4619;
-188.4000;0.7416;3.4739;
-188.1000;0.7424;3.4715;
-187.8000;0.7424;3.4715;
-187.5000;0.7407;3.4643;
-187.2000;0.7416;3.4619;
-186.9000;0.7391;3.4571;
-186.6000;0.7391;3.4571;
-186.3000;0.7359;3.4499;
-186.0000;0.7399;3.4547;
-185.7000;0.7399;3.4571;
-185.4000;0.7399;3.4619;
-185.1000;0.7383;3.4595;
-184.8000;0.7399;3.4595;
-184.5000;0.7416;3.4523;
-184.2000;0.7407;3.4499;
-183.9000;0.7367;3.4451;
-183.6000;0.7407;3.4547;
-183.3000;0.7399;3.4547;
-183.0000;0.7399;3.4547;
-182.7000;0.7407;3.4571;
-182.4000;0.7399;3.4595;
-182.1000;0.7407;3.4619;
-181.8000;0.7399;3.4595;
-181.5000;0.7416;3.4619;
-181.2000;0.7424;3.4643;
-180.9000;0.7399;3.4595;
-180.6000;0.7399;3.4643;
-180.3000;0.7416;3.4811;
-180.0000;0.7391;3.4859;
-179.7000;0.7391;3.4955;
-179.4000;0.7391;3.4955;
-179.1000;0.7407;3.4907;
-178.8000;0.7383;3.4811;
-178.5000;0.7399;3.4883;
-178.2000;0.7399;3.4883;
-177.9000;0.7416;3.4883;
-177.6000;0.7407;3.4835;
-177.3000;0.7399;3.4835;
-177.0000;0.7407;3.4859;
-176.7000;0.7399;3.4835;
-176.4000;0.7416;3.4835;
-176.1000;0.7407;3.4787;
-175.8000;0.7399;3.4787;
-175.5000;0.7424;3.4787;
-175.2000;0.7416;3.4811;
-174.9000;0.7407;3.4835;
-174.6000;0.7407;3.4811;
-174.3000;0.7407;3.4763;
-174.0000;0.7391;3.4619;
-173.7000;0.7407;3.4691;
-173.4000;0.7399;3.4691;
-173.1000;0.7391;3.4619;
-172.8000;0.7407;3.4691;
-172.5000;0.7399;3.4739;
-172.2000;0.7416;3.4811;
-171.9000;0.7407;3.4883;
-171.6000;0.7432;3.4931;
-171.3000;0.7416;3.4883;
-171.0000;0.7424;3.4835;
-170.7000;0.7416;3.4835;
-170.4000;0.7424;3.4883;
-170.1000;0.7424;3.4835;
-169.8000;0.7432;3.4835;
-169.5000;0.7407;3.4739;
-169.2000;0.7407;3.4787;
-168.9000;0.7407;3.4763;
-168.6000;0.7407;3.4811;
-168.3000;0.7407;3.4811;
-168.0000;0.7416;3.4691;
-167.7000;0.7432;3.4691;
-167.4000;0.7399;3.4691;
-167.1000;0.7391;3.4667;
-166.8000;0.7407;3.4691;
-166.5000;0.7407;3.4691;
-166.2000;0.7407;3.4763;
-165.9000;0.7416;3.4763;
-165.6000;0.7407;3.4715;
-165.3000;0.7407;3.4787;
-165.0000;0.7424;3.4859;
-164.7000;0.7399;3.4859;
-164.4000;0.7399;3.4859;
-164.1000;0.7399;3.4787;
-163.8000;0.7399;3.4715;
-163.5000;0.7416;3.4667;
-163.2000;0.7399;3.4643;
-162.9000;0.7407;3.4667;
-162.6000;0.7399;3.4715;
-162.3000;0.7383;3.4643;
-162.0000;0.7391;3.4619;
-161.7000;0.7407;3.4667;
-161.4000;0.7407;3.4643;
-161.1000;0.7416;3.4691;
-160.8000;0.7399;3.4763;
-160.5000;0.7416;3.4883;
-160.2000;0.7399;3.4859;
-159.9000;0.7391;3.4811;
-159.6000;0.7399;3.4787;
-159.3000;0.7391;3.4667;
-159.0000;0.7399;3.4715;
-158.7000;0.7407;3.4787;
-158.4000;0.7391;3.4763;
-158.1000;0.7383;3.4739;
-157.8000;0.7391;3.4763;
-157.5000;0.7399;3.4715;
-157.2000;0.7391;3.4787;
-156.9000;0.7383;3.4835;
-156.6000;0.7407;3.4787;
-156.3000;0.7399;3.4811;
-156.0000;0.7391;3.4739;
-155.7000;0.7399;3.4811;
-155.4000;0.7383;3.4811;
-155.1000;0.7416;3.4787;
-154.8000;0.7399;3.4787;
-154.5000;0.7383;3.4667;
-154.2000;0.7391;3.4715;
-153.9000;0.7391;3.4763;
-153.6000;0.7383;3.4763;
-153.3000;0.7399;3.4787;
-153.0000;0.7383;3.4883;
-152.7000;0.7391;3.4907;
-152.4000;0.7416;3.4907;
-152.1000;0.7391;3.4883;
-151.8000;0.7375;3.4811;
-151.5000;0.7375;3.4739;
-151.2000;0.7424;3.4667;
-150.9000;0.7416;3.4619;
-150.6000;0.7407;3.4571;
-150.3000;0.7391;3.4787;
-150.0000;0.7440;3.4931;
-149.7000;0.7391;3.4787;
-149.4000;0.7391;3.4715;
-149.1000;0.7399;3.4739;
-148.8000;0.7391;3.4787;
-148.5000;0.7407;3.4883;
-148.2000;0.7375;3.4763;
-147.9000;0.7359;3.4763;
-147.6000;0.7407;3.4859;
-147.3000;0.7399;3.4835;
-147.0000;0.7391;3.4739;
-146.7000;0.7407;3.4763;
-146.4000;0.7399;3.4715;
-146.1000;0.7407;3.4715;
-145.8000;0.7407;3.4763;
-145.5000;0.7285;3.4427;
-145.2000;0.7407;3.4883;
-144.9000;0.7407;3.4835;
-144.6000;0.7399;3.4811;
-144.3000;0.7383;3.4811;
-144.0000;0.7383;3.4787;
-143.7000;0.7416;3.4859;
-143.4000;0.7399;3.4859;
-143.1000;0.7407;3.4883;
-142.8000;0.7399;3.4859;
-142.5000;0.7407;3.4835;
-142.2000;0.7416;3.4811;
-141.9000;0.7407;3.4835;
-141.6000;0.7407;3.4787;
-141.3000;0.7399;3.4763;
-141.0000;0.7416;3.4859;
-140.7000;0.7416;3.4859;
-140.4000;0.7424;3.4859;
-140.1000;0.7424;3.4811;
-139.8000;0.7383;3.4715;
-139.5000;0.7367;3.4715;
-139.2000;0.7424;3.4907;
-138.9000;0.7407;3.4787;
-138.6000;0.7391;3.4715;
-138.3000;0.7448;3.4955;
-138.0000;0.7416;3.4835;
-137.7000;0.7342;3.4547;
-137.4000;0.7399;3.4643;
-137.1000;0.7391;3.4547;
-136.8000;0.7391;3.4451;
-136.5000;0.7399;3.4547;
-136.2000;0.7448;3.4715;
-135.9000;0.7432;3.4715;
-135.6000;0.7407;3.4763;
-135.3000;0.7416;3.4667;
-135.0000;0.7416;3.4667;
-134.7000;0.7424;3.4835;
-134.4000;0.7399;3.4859;
-134.1000;0.7407;3.4979;
-133.8000;0.7416;3.4931;
-133.5000;0.7416;3.4931;
-133.2000;0.7399;3.4859;
-132.9000;0.7383;3.4907;
-132.6000;0.7399;3.4931;
-132.3000;0.7416;3.4955;
-132.0000;0.7424;3.5075;
-131.7000;0.7391;3.5027;
-131.4000;0.7350;3.4955;
-131.1000;0.7399;3.5075;
-130.8000;0.7391;3.5051;
-130.5000;0.7383;3.5003;
-130.2000;0.7399;3.5027;
-129.9000;0.7407;3.5075;
-129.6000;0.7407;3.4979;
-129.3000;0.7399;3.4907;
-129.0000;0.7383;3.4763;
-128.7000;0.7391;3.4859;
-128.4000;0.7391;3.4835;
-128.1000;0.7383;3.4763;
-127.8000;0.7391;3.4763;
-127.5000;0.7407;3.4811;
-127.2000;0.7399;3.4883;
-126.9000;0.7399;3.4907;
-126.6000;0.7391;3.4787;
-126.3000;0.7383;3.4859;
-126.0000;0.7407;3.4787;
-125.7000;0.7383;3.4667;
-125.4000;0.7383;3.4667;
-125.1000;0.7399;3.4571;
-124.8000;0.7391;3.4571;
-124.5000;0.7407;3.4691;
-124.2000;0.7416;3.4691;
-123.9000;0.7399;3.4667;
-123.6000;0.7464;3.4907;
-123.3000;0.7399;3.4883;
-123.0000;0.7407;3.4883;
-122.7000;0.7391;3.4835;
-122.4000;0.7432;3.4883;
-122.1000;0.7407;3.4787;
-121.8000;0.7407;3.4763;
-121.5000;0.7399;3.4739;
-121.2000;0.7424;3.4787;
-120.9000;0.7399;3.4835;
-120.6000;0.7416;3.4883;
-120.3000;0.7399;3.4907;
-120.0000;0.7424;3.4907;
-119.7000;0.7399;3.4859;
-119.4000;0.7407;3.4811;
-119.1000;0.7399;3.4787;
-118.8000;0.7399;3.4739;
-118.5000;0.7407;3.4811;
-118.2000;0.7391;3.4739;
-117.9000;0.7391;3.4691;
-117.6000;0.7391;3.4811;
-117.3000;0.7424;3.4883;
-117.0000;0.7391;3.4811;
-116.7000;0.7407;3.4811;
-116.4000;0.7399;3.4763;
-116.1000;0.7416;3.4835;
-115.8000;0.7407;3.4835;
-115.5000;0.7399;3.4787;
-115.2000;0.7399;3.4787;
-114.9000;0.7391;3.4739;
-114.6000;0.7399;3.4811;
-114.3000;0.7399;3.4859;
-114.0000;0.7424;3.4835;
-113.7000;0.7448;3.5003;
-113.4000;0.7399;3.4907;
-113.1000;0.7383;3.4955;
-112.8000;0.7391;3.4907;
-112.5000;0.7391;3.4907;
-112.2000;0.7350;3.4739;
-111.9000;0.7424;3.4907;
-111.6000;0.7399;3.4787;
-111.3000;0.7391;3.4787;
-111.0000;0.7407;3.4835;
-110.7000;0.7416;3.4835;
-110.4000;0.7473;3.5051;
-110.1000;0.7407;3.4931;
-109.8000;0.7407;3.4907;
-109.5000;0.7416;3.4883;
-109.2000;0.7416;3.4907;
-108.9000;0.7391;3.4739;
-108.6000;0.7407;3.4811;
-108.3000;0.7342;3.4547;
-108.0000;0.7407;3.4595;
-107.7000;0.7407;3.4571;
-107.4000;0.7391;3.4595;
-107.1000;0.7383;3.4739;
-106.8000;0.7416;3.4763;
-106.5000;0.7407;3.4667;
-106.2000;0.7424;3.4667;
-105.9000;0.7416;3.4643;
-105.6000;0.7424;3.4619;
-105.3000;0.7416;3.4547;
-105.0000;0.7367;3.4403;
-104.7000;0.7448;3.4643;
-104.4000;0.7407;3.4619;
-104.1000;0.7407;3.4715;
-103.8000;0.7391;3.4691;
-103.5000;0.7416;3.4763;
-103.2000;0.7416;3.4811;
-102.9000;0.7424;3.4835;
-102.6000;0.7440;3.4883;
-102.3000;0.7310;3.4547;
-102.0000;0.7391;3.4643;
-101.7000;0.7407;3.4643;
-101.4000;0.7432;3.4763;
-101.1000;0.7416;3.4691;
-100.8000;0.7334;3.4427;
-100.5000;0.7391;3.4619;
-100.2000;0.7416;3.4739;
-99.9000;0.7424;3.4715;
-99.6000;0.7416;3.4715;
-99.3000;0.7399;3.4667;
-99.0000;0.7424;3.4691;
-98.7000;0.7399;3.4715;
-98.4000;0.7416;3.4787;
-98.1000;0.7391;3.4763;
-97.8000;0.7399;3.4691;
-97.5000;0.7359;3.4523;
-97.2000;0.7375;3.4499;
-96.9000;0.7407;3.4499;
-96.6000;0.7407;3.4523;
-96.3000;0.7391;3.4595;
-96.0000;0.7391;3.4547;
-95.7000;0.7440;3.4691;
-95.4000;0.7416;3.4667;
-95.1000;0.7407;3.4691;
-94.8000;0.7391;3.4691;
-94.5000;0.7367;3.4763;
-94.2000;0.7416;3.4883;
-93.9000;0.7399;3.4931;
-93.6000;0.7383;3.4835;
-93.3000;0.7383;3.4859;
-93.0000;0.7383;3.4835;
-92.7000;0.7416;3.4859;
-92.4000;0.7399;3.4715;
-92.1000;0.7391;3.4691;
-91.8000;0.7399;3.4691;
-91.5000;0.7350;3.4667;
-91.2000;0.7424;3.4835;
-90.9000;0.7399;3.4691;
-90.6000;0.7391;3.4595;
-90.3000;0.7424;3.4571;
-90.0000;0.7424;3.4523;
-89.7000;0.7391;3.4475;
-89.4000;0.7399;3.4475;
-89.1000;0.7391;3.4547;
-88.8000;0.7440;3.4643;
-88.5000;0.7440;3.4595;
-88.2000;0.7391;3.4427;
-87.9000;0.7399;3.4475;
-87.6000;0.7391;3.4451;
-87.3000;0.7407;3.4523;
-87.0000;0.7318;3.4307;
-86.7000;0.7407;3.4451;
-86.4000;0.7407;3.4427;
-86.1000;0.7416;3.4475;
-85.8000;0.7407;3.4475;
-85.5000;0.7407;3.4547;
-85.2000;0.7407;3.4667;
-84.9000;0.7416;3.4739;
-84.6000;0.7399;3.4667;
-84.3000;0.7383;3.4715;
-84.0000;0.7391;3.4667;
-83.7000;0.7416;3.4739;
-83.4000;0.7399;3.4691;
-83.1000;0.7399;3.4571;
-82.8000;0.7375;3.4475;
-82.5000;0.7391;3.4379;
-82.2000;0.7391;3.4331;
-81.9000;0.7375;3.4331;
-81.6000;0.7375;3.4427;
-81.3000;0.7456;3.4691;
-81.0000;0.7391;3.4619;
-80.7000;0.7416;3.4667;
-80.4000;0.7424;3.4667;
-80.1000;0.7440;3.4811;
-79.8000;0.7407;3.4691;
-79.5000;0.7391;3.4787;
-79.2000;0.7391;3.4811;
-78.9000;0.7391;3.4907;
-78.6000;0.7416;3.4907;
-78.3000;0.7440;3.4907;
-78.0000;0.7416;3.4811;
-77.7000;0.7399;3.4859;
-77.4000;0.7432;3.4835;
-77.1000;0.7399;3.4619;
-76.8000;0.7416;3.4643;
-76.5000;0.7424;3.4691;
-76.2000;0.7407;3.4691;
-75.9000;0.7424;3.4715;
-75.6000;0.7375;3.4619;
-75.3000;0.7399;3.4763;
-75.0000;0.7424;3.4763;
-74.7000;0.7391;3.4715;
-74.4000;0.7375;3.4643;
-74.1000;0.7407;3.4667;
-73.8000;0.7391;3.4523;
-73.5000;0.7505;3.4859;
-73.2000;0.7391;3.4571;
-72.9000;0.7399;3.4595;
-72.6000;0.7391;3.4595;
-72.3000;0.7399;3.4643;
-72.0000;0.7399;3.4595;
-71.7000;0.7407;3.4619;
-71.4000;0.7383;3.4571;
-71.1000;0.7416;3.4691;
-70.8000;0.7407;3.4667;
-70.5000;0.7359;3.4667;
-70.2000;0.7416;3.4835;
-69.9000;0.7416;3.4883;
-69.6000;0.7416;3.4835;
-69.3000;0.7416;3.4787;
-69.0000;0.7456;3.4787;
-68.7000;0.7399;3.4715;
-68.4000;0.7416;3.4667;
-68.1000;0.7383;3.4571;
-67.8000;0.7407;3.4595;
-67.5000;0.7432;3.4643;
-67.2000;0.7407;3.4619;
-66.9000;0.7407;3.4643;
-66.6000;0.7391;3.4619;
-66.3000;0.7399;3.4595;
-66.0000;0.7416;3.4619;
-65.7000;0.7407;3.4619;
-65.4000;0.7399;3.4715;
-65.1000;0.7416;3.4715;
-64.8000;0.7440;3.4811;
-64.5000;0.7440;3.4763;
-64.2000;0.7440;3.4667;
-63.9000;0.7399;3.4619;
-63.6000;0.7416;3.4763;
-63.3000;0.7399;3.4643;
-63.0000;0.7391;3.4571;
-62.7000;0.7432;3.4619;
-62.4000;0.7407;3.4571;
-62.1000;0.7318;3.4427;
-61.8000;0.7399;3.4715;
-61.5000;0.7383;3.4715;
-61.2000;0.7383;3.4739;
-60.9000;0.7416;3.4787;
-60.6000;0.7407;3.4739;
-60.3000;0.7399;3.4667;
-60.0000;0.7399;3.4643;
-59.7000;0.7432;3.4715;
-59.4000;0.7391;3.4571;
-59.1000;0.7416;3.4595;
-58.8000;0.7342;3.4499;
-58.5000;0.7407;3.4643;
-58.2000;0.7399;3.4619;
-57.9000;0.7399;3.4475;
-57.6000;0.7432;3.4619;
-57.3000;0.7383;3.4499;
-57.0000;0.7407;3.4523;
-56.7000;0.7416;3.4619;
-56.4000;0.7399;3.4643;
-56.1000;0.7407;3.4691;
-55.8000;0.7399;3.4643;
-55.5000;0.7375;3.4571;
-55.2000;0.7407;3.4619;
-54.9000;0.7399;3.4595;
-54.6000;0.7391;3.4643;
-54.3000;0.7432;3.4715;
-54.0000;0.7407;3.4763;
-53.7000;0.7416;3.4763;
-53.4000;0.7391;3.4619;
-53.1000;0.7416;3.4715;
-52.8000;0.7416;3.4835;
-52.5000;0.7440;3.4931;
-52.2000;0.7416;3.4907;
-51.9000;0.7416;3.4907;
-51.6000;0.7407;3.4931;
-51.3000;0.7391;3.4883;
-51.0000;0.7399;3.4859;
-50.7000;0.7399;3.4859;
-50.4000;0.7375;3.4811;
-50.1000;0.7399;3.4859;
-49.8000;0.7416;3.4907;
-49.5000;0.7399;3.4835;
-49.2000;0.7424;3.4907;
-48.9000;0.7407;3.4835;
-48.6000;0.7416;3.4835;
-48.3000;0.7391;3.4787;
-48.0000;0.7416;3.4859;
-47.7000;0.7367;3.4691;
-47.4000;0.7407;3.4763;
-47.1000;0.7424;3.4811;
-46.8000;0.7407;3.4763;
-46.5000;0.7432;3.4859;
-46.2000;0.7383;3.4787;
-45.9000;0.7416;3.4835;
-45.6000;0.7416;3.4763;
-45.3000;0.7407;3.4667;
-45.0000;0.7391;3.4499;
-44.7000;0.7416;3.4475;
-44.4000;0.7399;3.4523;
-44.1000;0.7391;3.4499;
-43.8000;0.7416;3.4571;
-43.5000;0.7399;3.4523;
-43.2000;0.7407;3.4643;
-42.9000;0.7407;3.4643;
-42.6000;0.7416;3.4571;
-42.3000;0.7424;3.4547;
-42.0000;0.7416;3.4595;
-41.7000;0.7440;3.4739;
-41.4000;0.7350;3.4451;
-41.1000;0.7407;3.4595;
-40.8000;0.7416;3.4523;
-40.5000;0.7432;3.4571;
-40.2000;0.7326;3.4307;
-39.9000;0.7416;3.4523;
-39.6000;0.7391;3.4499;
-39.3000;0.7342;3.4379;
-39.0000;0.7424;3.4571;
-38.7000;0.7416;3.4571;
-38.4000;0.7416;3.4571;
-38.1000;0.7407;3.4547;
-37.8000;0.7416;3.4499;
-37.5000;0.7424;3.4643;
-37.2000;0.7407;3.4763;
-36.9000;0.7407;3.4763;
-36.6000;0.7383;3.4715;
-36.3000;0.7375;3.4763;
-36.0000;0.7399;3.4739;
-35.7000;0.7399;3.4739;
-35.4000;0.7391;3.4643;
-35.1000;0.7399;3.4691;
-34.8000;0.7383;3.4691;
-34.5000;0.7367;3.4667;
-34.2000;0.7440;3.4907;
-33.9000;0.7375;3.4691;
-33.6000;0.7407;3.4835;
-33.3000;0.7424;3.4811;
-33.0000;0.7424;3.4859;
-32.7000;0.7407;3.4715;
-32.4000;0.7424;3.4715;
-32.1000;0.7432;3.4739;
-31.8000;0.7424;3.4643;
-31.5000;0.7424;3.4595;
-31.2000;0.7416;3.4571;
-30.9000;0.7407;3.4547;
-30.6000;0.7416;3.4595;
-30.3000;0.7407;3.4667;
-30.0000;0.7399;3.4691;
-29.7000;0.7416;3.4643;
-29.4000;0.7407;3.4547;
-29.1000;0.7407;3.4691;
-28.8000;0.7391;3.4667;
-28.5000;0.7407;3.4643;
-28.2000;0.7391;3.4715;
-27.9000;0.7407;3.4715;
-27.6000;0.7391;3.4691;
-27.3000;0.7399;3.4691;
-27.0000;0.7383;3.4715;
-26.7000;0.7399;3.4835;
-26.4000;0.7448;3.4931;
-26.1000;0.7407;3.4811;
-25.8000;0.7399;3.4859;
-25.5000;0.7440;3.4979;
-25.2000;0.7391;3.4859;
-24.9000;0.7383;3.4691;
-24.6000;0.7383;3.4643;
-24.3000;0.7407;3.4691;
-24.0000;0.7407;3.4643;
-23.7000;0.7399;3.4619;
-23.4000;0.7350;3.4523;
-23.1000;0.7416;3.4715;
-22.8000;0.7416;3.4907;
-22.5000;0.7407;3.4883;
-22.2000;0.7375;3.4763;
-21.9000;0.7407;3.4811;
-21.6000;0.7399;3.4715;
-21.3000;0.7399;3.4691;
-21.0000;0.7399;3.4619;
-20.7000;0.7407;3.4643;
-20.4000;0.7407;3.4595;
-20.1000;0.7407;3.4667;
-19.8000;0.7399;3.4619;
-19.5000;0.7383;3.4619;
-19.2000;0.7399;3.4619;
-18.9000;0.7416;3.4595;
-18.6000;0.7432;3.4691;
-18.3000;0.7432;3.4715;
-18.0000;0.7391;3.4691;
-17.7000;0.7432;3.4667;
-17.4000;0.7416;3.4667;
-17.1000;0.7391;3.4667;
-16.8000;0.7424;3.4787;
-16.5000;0.7424;3.4715;
-16.2000;0.7407;3.4739;
-15.9000;0.7416;3.4691;
-15.6000;0.7448;3.4691;
-15.3000;0.7513;3.4931;
-15.0000;0.7407;3.4811;
-14.7000;0.7407;3.4763;
-14.4000;0.7432;3.4787;
-14.1000;0.7407;3.4691;
-13.8000;0.7399;3.4643;
-13.5000;0.7383;3.4643;
-13.2000;0.7359;3.4523;
-12.9000;0.7367;3.4523;
-12.6000;0.7391;3.4667;
-12.3000;0.7383;3.4643;
-12.0000;0.7383;3.4739;
-11.7000;0.7407;3.4883;
-11.4000;0.7375;3.4931;
-11.1000;0.7391;3.4859;
-10.8000;0.7424;3.4811;
-10.5000;0.7399;3.4763;
-10.2000;0.7416;3.4691;
-9.9000;0.7399;3.4667;
-9.6000;0.7350;3.4619;
-9.3000;0.7399;3.4667;
-9.0000;0.7359;3.4643;
-8.7000;0.7416;3.4787;
-8.4000;0.7432;3.4859;
-8.1000;0.7399;3.4811;
-7.8000;0.7407;3.4787;
-7.5000;0.7399;3.4691;
-7.2000;0.7350;3.4571;
-6.9000;0.7407;3.4691;
-6.6000;0.7424;3.4715;
-6.3000;0.7407;3.4763;
-6.0000;0.7407;3.4667;
-5.7000;0.7407;3.4715;
-5.4000;0.7391;3.4643;
-5.1000;0.7407;3.4667;
-4.8000;0.7407;3.4667;
-4.5000;0.7456;3.4763;
-4.2000;0.7399;3.4667;
-3.9000;0.7399;3.4691;
-3.6000;0.7391;3.4595;
-3.3000;0.7407;3.4571;
-3.0000;0.7375;3.4523;
-2.7000;0.7424;3.4691;
-2.4000;0.7440;3.4715;
-2.1000;0.7407;3.4691;
-1.8000;0.7383;3.4667;
-1.5000;0.7432;3.4715;
-1.2000;0.7399;3.4475;
-0.9000;0.7399;3.4619;
-0.6000;0.7391;3.4571;
-0.3000;0.7375;3.4547;
0.0000;0.7375;3.4547;
0.3000;0.7416;3.4571;
0.6000;0.7473;3.4835;
0.9000;0.7448;3.5003;
1.2000;0.7456;3.5146;
1.5000;0.7481;3.5314;
1.8000;0.7473;3.5458;
2.1000;0.7481;3.5578;
2.4000;0.7505;3.5722;
2.7000;0.7513;3.5890;
3.0000;0.7513;3.5962;
3.3000;0.7497;3.5986;
3.6000;0.7521;3.6202;
3.9000;0.7513;3.6322;
4.2000;0.7513;3.6418;
4.5000;0.7521;3.6562;
4.8000;0.7538;3.6610;
5.1000;0.7538;3.6634;
5.4000;0.7538;3.6634;
5.7000;0.7554;3.6706;
6.0000;0.7546;3.6754;
6.3000;0.7554;3.6802;
6.6000;0.7562;3.6826;
6.9000;0.7538;3.6754;
7.2000;0.7538;3.6754;
7.5000;0.7611;3.6898;
7.8000;0.7538;3.6826;
8.1000;0.7530;3.6754;
8.4000;0.7554;3.6922;
8.7000;0.7595;3.6946;
9.0000;0.7578;3.6898;
9.3000;0.7562;3.6874;
9.6000;0.7586;3.6826;
9.9000;0.7586;3.6826;
10.2000;0.7570;3.6898;
10.5000;0.7595;3.6922;
10.8000;0.7554;3.6874;
11.1000;0.7603;3.6898;
11.4000;0.7578;3.6850;
11.7000;0.7554;3.6802;
12.0000;0.7578;3.6970;
12.3000;0.7554;3.6874;
12.6000;0.7603;3.6970;
12.9000;0.7603;3.6970;
13.2000;0.7603;3.6922;
13.5000;0.7619;3.6922;
13.8000;0.7635;3.6922;
14.1000;0.7578;3.6826;
14.4000;0.7586;3.6874;
14.7000;0.7611;3.6850;
15.0000;0.7611;3.6874;
15.3000;0.7619;3.6778;
15.6000;0.7660;3.6898;
15.9000;0.7627;3.6826;
16.2000;0.7562;3.6634;
16.5000;0.7603;3.6850;
16.8000;0.7684;3.6970;
17.1000;0.7619;3.6850;
17.4000;0.7619;3.6874;
17.7000;0.7619;3.6946;
18.0000;0.7611;3.6874;
18.3000;0.7627;3.6946;
18.6000;0.7619;3.6946;
18.9000;0.7635;3.7042;
19.2000;0.7635;3.6970;
19.5000;0.7643;3.7042;
19.8000;0.7643;3.7066;
20.1000;0.7635;3.6970;
20.4000;0.7635;3.6970;
20.7000;0.7611;3.6970;
21.0000;0.7627;3.6970;
21.3000;0.7635;3.6946;
21.6000;0.7652;3.7018;
21.9000;0.7635;3.6922;
22.2000;0.7660;3.6946;
22.5000;0.7627;3.6874;
22.8000;0.7643;3.6826;
23.1000;0.7643;3.6730;
23.4000;0.7652;3.6778;
23.7000;0.7652;3.6778;
24.0000;0.7652;3.6754;
24.3000;0.7652;3.6706;
24.6000;0.7652;3.6802;
24.9000;0.7627;3.6778;
25.2000;0.7643;3.6754;
25.5000;0.7668;3.6754;
25.8000;0.7652;3.6706;
26.1000;0.7652;3.6658;
26.4000;0.7652;3.6706;
26.7000;0.7652;3.6802;
27.0000;0.7643;3.6898;
27.3000;0.7643;3.6898;
27.6000;0.7668;3.6946;
27.9000;0.7660;3.6946;
28.2000;0.7652;3.6850;
28.5000;0.7652;3.6826;
28.8000;0.7652;3.6874;
29.1000;0.7660;3.6898;
29.4000;0.7652;3.6898;
29.7000;0.7700;3.6874;
30.0000;0.7692;3.6850;
30.3000;0.7668;3.6826;
30.6000;0.7652;3.6730;
30.9000;0.7643;3.6802;
31.2000;0.7627;3.6874;
31.5000;0.7717;3.7042;
31.8000;0.7635;3.6946;
32.1000;0.7652;3.7018;
32.4000;0.7619;3.6874;
32.7000;0.7700;3.6946;
33.0000;0.7660;3.6850;
33.3000;0.7603;3.6730;
33.6000;0.7652;3.6850;
33.9000;0.7643;3.6826;
34.2000;0.7643;3.6706;
34.5000;0.7660;3.6802;
34.8000;0.7643;3.6730;
35.1000;0.7660;3.6754;
35.4000;0.7717;3.6970;
35.7000;0.7782;3.7234;
36.0000;0.7676;3.6946;
36.3000;0.7676;3.6946;
36.6000;0.7603;3.6730;
36.9000;0.7709;3.6970;
37.2000;0.7700;3.6922;
37.5000;0.7619;3.6826;
37.8000;0.7635;3.6850;
38.1000;0.7660;3.6922;
38.4000;0.7668;3.6850;
38.7000;0.7643;3.6754;
39.0000;0.7660;3.6898;
39.3000;0.7725;3.6970;
39.6000;0.7684;3.6826;
39.9000;0.7660;3.6778;
40.2000;0.7652;3.6826;
40.5000;0.7668;3.6730;
40.8000;0.7741;3.7018;
41.1000;0.7660;3.6826;
41.4000;0.7660;3.6682;
41.7000;0.7684;3.6706;
42.0000;0.7676;3.6706;
42.3000;0.7668;3.6754;
42.6000;0.7660;3.6658;
42.9000;0.7668;3.6706;
43.2000;0.7652;3.6682;
43.5000;0.7619;3.6490;
43.8000;0.7676;3.6706;
44.1000;0.7660;3.6778;
44.4000;0.7692;3.6874;
44.7000;0.7676;3.6778;
45.0000;0.7660;3.6706;
45.3000;0.7676;3.6754;
45.6000;0.7643;3.6658;
45.9000;0.7660;3.6706;
46.2000;0.7643;3.6610;
46.5000;0.7660;3.6706;
46.8000;0.7652;3.6802;
47.1000;0.7652;3.6754;
47.4000;0.7635;3.6682;
47.7000;0.7652;3.6658;
48.0000;0.7684;3.6730;
48.3000;0.7668;3.6658;
48.6000;0.7676;3.6682;
48.9000;0.7660;3.6730;
49.2000;0.7668;3.6754;
49.5000;0.7692;3.6874;
49.8000;0.7684;3.6922;
50.1000;0.7668;3.6946;
50.4000;0.7692;3.6874;
50.7000;0.7700;3.6922;
51.0000;0.7652;3.6778;
51.3000;0.7668;3.6850;
51.6000;0.7627;3.6826;
51.9000;0.7684;3.6970;
52.2000;0.7643;3.6826;
52.5000;0.7643;3.6778;
52.8000;0.7700;3.6946;
53.1000;0.7692;3.6970;
53.4000;0.7692;3.6946;
53.7000;0.7595;3.6658;
54.0000;0.7668;3.6778;
54.3000;0.7684;3.6850;
54.6000;0.7741;3.6970;
54.9000;0.7668;3.6754;
55.2000;0.7668;3.6730;
55.5000;0.7652;3.6706;
55.8000;0.7595;3.6490;
56.1000;0.7603;3.6586;
56.4000;0.7619;3.6538;
56.7000;0.7652;3.6658;
57.0000;0.7652;3.6658;
57.3000;0.7611;3.6466;
57.6000;0.7643;3.6538;
57.9000;0.7684;3.6610;
58.2000;0.7643;3.6514;
58.5000;0.7676;3.6634;
58.8000;0.7676;3.6658;
59.1000;0.7643;3.6682;
59.4000;0.7717;3.6754;
59.7000;0.7692;3.6706;
60.0000;0.7700;3.6634;
60.3000;0.7692;3.6706;
60.6000;0.7660;3.6754;
60.9000;0.7684;3.6730;
61.2000;0.7709;3.6754;
61.5000;0.7619;3.6562;
61.8000;0.7652;3.6586;
62.1000;0.7676;3.6706;
62.4000;0.7709;3.6778;
62.7000;0.7684;3.6730;
63.0000;0.7668;3.6706;
63.3000;0.7660;3.6730;
63.6000;0.7676;3.6658;
63.9000;0.7668;3.6586;
64.2000;0.7676;3.6538;
64.5000;0.7676;3.6490;
64.8000;0.7692;3.6538;
65.1000;0.7660;3.6562;
65.4000;0.7692;3.6634;
65.7000;0.7676;3.6610;
66.0000;0.7668;3.6634;
66.3000;0.7652;3.6634;
66.6000;0.7652;3.6682;
66.9000;0.7660;3.6658;
67.2000;0.7684;3.6658;
67.5000;0.7676;3.6682;
67.8000;0.7676;3.6634;
68.1000;0.7668;3.6586;
68.4000;0.7668;3.6610;
68.7000;0.7668;3.6586;
69.0000;0.7668;3.6658;
69.3000;0.7660;3.6706;
69.6000;0.7676;3.6850;
69.9000;0.7660;3.6898;
70.2000;0.7684;3.6922;
70.5000;0.7668;3.6802;
70.8000;0.7652;3.6706;
71.1000;0.7684;3.6802;
71.4000;0.7668;3.6730;
71.7000;0.7676;3.6754;
72.0000;0.7660;3.6754;
72.3000;0.7652;3.6778;
72.6000;0.7717;3.6826;
72.9000;0.7652;3.6730;
73.2000;0.7660;3.6778;
73.5000;0.7619;3.6634;
73.8000;0.7643;3.6634;
74.1000;0.7676;3.6802;
74.4000;0.7619;3.6754;
74.7000;0.7676;3.6898;
75.0000;0.7676;3.6922;
75.3000;0.7692;3.6922;
75.6000;0.7692;3.6970;
75.9000;0.7684;3.6850;
76.2000;0.7692;3.6874;
76.5000;0.7668;3.6754;
76.8000;0.7668;3.6778;
77.1000;0.7660;3.6634;
77.4000;0.7627;3.6538;
77.7000;0.7611;3.6562;
78.0000;0.7668;3.6706;
78.3000;0.7627;3.6586;
78.6000;0.7652;3.6586;
78.9000;0.7668;3.6562;
79.2000;0.7692;3.6682;
79.5000;0.7635;3.6610;
79.8000;0.7668;3.6682;
80.1000;0.7668;3.6634;
80.4000;0.7741;3.6778;
80.7000;0.7660;3.6610;
81.0000;0.7668;3.6634;
81.3000;0.7652;3.6658;
81.6000;0.7676;3.6658;
81.9000;0.7643;3.6538;
82.2000;0.7652;3.6562;
82.5000;0.7684;3.6706;
82.8000;0.7668;3.6706;
83.1000;0.7668;3.6706;
83.4000;0.7627;3.6730;
83.7000;0.7676;3.6850;
84.0000;0.7684;3.6802;
84.3000;0.7660;3.6754;
84.6000;0.7660;3.6754;
84.9000;0.7684;3.6850;
85.2000;0.7676;3.6898;
85.5000;0.7668;3.6826;
85.8000;0.7668;3.6874;
86.1000;0.7660;3.6826;
86.4000;0.7643;3.6754;
86.7000;0.7668;3.6706;
87.0000;0.7660;3.6682;
87.3000;0.7676;3.6706;
87.6000;0.7660;3.6730;
87.9000;0.7668;3.6826;
88.2000;0.7692;3.6826;
88.5000;0.7660;3.6778;
88.8000;0.7684;3.6850;
89.1000;0.7668;3.6826;
89.4000;0.7652;3.6826;
89.7000;0.7668;3.6850;
90.0000;0.7660;3.6730;
90.3000;0.7660;3.6778;
90.6000;0.7619;3.6634;
90.9000;0.7668;3.6778;
91.2000;0.7652;3.6802;
91.5000;0.7652;3.6850;
91.8000;0.7668;3.6826;
92.1000;0.7668;3.6850;
92.4000;0.7652;3.6730;
92.7000;0.7627;3.6586;
93.0000;0.7676;3.6730;
93.3000;0.7660;3.6658;
93.6000;0.7595;3.6562;
93.9000;0.7668;3.6730;
94.2000;0.7692;3.6682;
94.5000;0.7668;3.6634;
94.8000;0.7684;3.6682;
95.1000;0.7668;3.6730;
95.4000;0.7635;3.6730;
95.7000;0.7652;3.6682;
96.0000;0.7660;3.6706;
96.3000;0.7652;3.6754;
96.6000;0.7676;3.6850;
96.9000;0.7668;3.6850;
97.2000;0.7652;3.6826;
97.5000;0.7660;3.6826;
97.8000;0.7709;3.6898;
98.1000;0.7652;3.6802;
98.4000;0.7660;3.6850;
98.7000;0.7668;3.6754;
99.0000;0.7676;3.6730;
99.3000;0.7692;3.6802;
99.6000;0.7668;3.6850;
99.9000;0.7676;3.6874;
100.2000;0.7660;3.6922;
100.5000;0.7668;3.6874;
100.8000;0.7668;3.6826;
101.1000;0.7676;3.6730;
101.4000;0.7684;3.6682;
101.7000;0.7684;3.6682;
102.0000;0.7676;3.6706;
102.3000;0.7643;3.6538;
102.6000;0.7668;3.6562;
102.9000;0.7684;3.6634;
103.2000;0.7684;3.6634;
103.5000;0.7660;3.6634;
103.8000;0.7676;3.6754;
104.1000;0.7562;3.6658;
104.4000;0.7668;3.6922;
104.7000;0.7660;3.6994;
105.0000;0.7676;3.6994;
105.3000;0.7725;3.7162;
105.6000;0.7660;3.6946;
105.9000;0.7668;3.6898;
106.2000;0.7660;3.6898;
106.5000;0.7660;3.6802;
106.8000;0.7668;3.6802;
107.1000;0.7660;3.6826;
107.4000;0.7660;3.6778;
107.7000;0.7652;3.6730;
108.0000;0.7652;3.6730;
108.3000;0.7700;3.6826;
108.6000;0.7643;3.6730;
108.9000;0.7717;3.6922;
109.2000;0.7668;3.6706;
109.5000;0.7660;3.6754;
109.8000;0.7660;3.6874;
110.1000;0.7676;3.6874;
110.4000;0.7676;3.6898;
110.7000;0.7676;3.6874;
111.0000;0.7652;3.6802;
111.3000;0.7643;3.6730;
111.6000;0.7676;3.6898;
111.9000;0.7692;3.6994;
112.2000;0.7668;3.6874;
112.5000;0.7668;3.6898;
112.8000;0.7652;3.6826;
113.1000;0.7676;3.6898;
113.4000;0.7660;3.6994;
113.7000;0.7700;3.7066;
114.0000;0.7676;3.7066;
114.3000;0.7676;3.7090;
114.6000;0.7586;3.6778;
114.9000;0.7684;3.6946;
115.2000;0.7660;3.6946;
115.5000;0.7684;3.6994;
115.8000;0.7676;3.6898;
116.1000;0.7660;3.6850;
116.4000;0.7643;3.6778;
116.7000;0.7668;3.6778;
117.0000;0.7684;3.6850;
117.3000;0.7668;3.6850;
117.6000;0.7660;3.6874;
117.9000;0.7676;3.6778;
118.2000;0.7676;3.6778;
118.5000;0.7700;3.6850;
118.8000;0.7668;3.6754;
119.1000;0.7668;3.6802;
119.4000;0.7692;3.6850;
119.7000;0.7668;3.6826;
120.0000;0.7668;3.6826;
120.3000;0.7660;3.6898;
120.6000;0.7660;3.6826;
120.9000;0.7684;3.6826;
121.2000;0.7652;3.6706;
121.5000;0.7643;3.6610;
121.8000;0.7668;3.6706;
122.1000;0.7676;3.6730;
122.4000;0.7652;3.6682;
122.7000;0.7660;3.6706;
123.0000;0.7684;3.6658;
123.3000;0.7660;3.6706;
123.6000;0.7668;3.6754;
123.9000;0.7668;3.6778;
124.2000;0.7660;3.6754;
124.5000;0.7692;3.6874;
124.8000;0.7635;3.6730;
125.1000;0.7652;3.6802;
125.4000;0.7660;3.6802;
125.7000;0.7668;3.6754;
126.0000;0.7676;3.6706;
126.3000;0.7619;3.6538;
126.6000;0.7668;3.6562;
126.9000;0.7660;3.6562;
127.2000;0.7643;3.6490;
127.5000;0.7676;3.6610;
127.8000;0.7676;3.6658;
128.1000;0.7660;3.6706;
128.4000;0.7635;3.6658;
128.7000;0.7643;3.6634;
129.0000;0.7652;3.6778;
129.3000;0.7595;3.6706;
129.6000;0.7643;3.6874;
129.9000;0.7595;3.6658;
130.2000;0.7619;3.6802;
130.5000;0.7652;3.6850;
130.8000;0.7652;3.6754;
131.1000;0.7652;3.6754;
131.4000;0.7717;3.7018;
131.7000;0.7684;3.7018;
132.0000;0.7668;3.6922;
132.3000;0.7684;3.6970;
132.6000;0.7676;3.6970;
132.9000;0.7611;3.6874;
133.2000;0.7676;3.7042;
133.5000;0.7668;3.6994;
133.8000;0.7660;3.7042;
134.1000;0.7660;3.6994;
134.4000;0.7668;3.7018;
134.7000;0.7676;3.7066;
135.0000;0.7725;3.7162;
135.3000;0.7652;3.7042;
135.6000;0.7652;3.7042;
135.9000;0.7660;3.6994;
136.2000;0.7635;3.6874;
136.5000;0.7652;3.6946;
136.8000;0.7627;3.6826;
137.1000;0.7643;3.6994;
137.4000;0.7660;3.7114;
137.7000;0.7627;3.7042;
138.0000;0.7668;3.7090;
138.3000;0.7643;3.7018;
138.6000;0.7570;3.6850;
138.9000;0.7668;3.7066;
139.2000;0.7660;3.7066;
139.5000;0.7652;3.7042;
139.8000;0.7676;3.7090;
140.1000;0.7668;3.6970;
140.4000;0.7660;3.6946;
140.7000;0.7668;3.6922;
141.0000;0.7660;3.6922;
141.3000;0.7676;3.6946;
141.6000;0.7652;3.6922;
141.9000;0.7643;3.6898;
142.2000;0.7676;3.7018;
142.5000;0.7635;3.6994;
142.8000;0.7692;3.7018;
143.1000;0.7627;3.6802;
143.4000;0.7652;3.6850;
143.7000;0.7652;3.6802;
144.0000;0.7643;3.6730;
144.3000;0.7643;3.6730;
144.6000;0.7635;3.6730;
144.9000;0.7668;3.6754;
145.2000;0.7684;3.6682;
145.5000;0.7652;3.6682;
145.8000;0.7643;3.6658;
146.1000;0.7676;3.6658;
146.4000;0.7643;3.6658;
146.7000;0.7595;3.6538;
147.0000;0.7643;3.6682;
147.3000;0.7652;3.6754;
147.6000;0.7709;3.6826;
147.9000;0.7643;3.6682;
148.2000;0.7709;3.6946;
148.5000;0.7709;3.6946;
148.8000;0.7660;3.6898;
149.1000;0.7660;3.6850;
149.4000;0.7652;3.6826;
149.7000;0.7668;3.6802;
150.0000;0.7668;3.6826;
150.3000;0.7733;3.7042;
150.6000;0.7668;3.6874;
150.9000;0.7652;3.6826;
151.2000;0.7643;3.6730;
151.5000;0.7668;3.6802;
151.8000;0.7668;3.6802;
152.1000;0.7660;3.6730;
152.4000;0.7652;3.6730;
152.7000;0.7652;3.6826;
153.0000;0.7668;3.6898;
153.3000;0.7676;3.6898;
153.6000;0.7643;3.6778;
153.9000;0.7627;3.6802;
154.2000;0.7611;3.6850;
154.5000;0.7635;3.6922;
154.8000;0.7643;3.6922;
155.1000;0.7660;3.6898;
155.4000;0.7603;3.6658;
155.7000;0.7643;3.6754;
156.0000;0.7668;3.6754;
156.3000;0.7692;3.6778;
156.6000;0.7643;3.6634;
156.9000;0.7660;3.6634;
157.2000;0.7643;3.6634;
157.5000;0.7660;3.6586;
157.8000;0.7676;3.6514;
158.1000;0.7635;3.6538;
158.4000;0.7668;3.6754;
158.7000;0.7652;3.6826;
159.0000;0.7660;3.6802;
159.3000;0.7660;3.6778;
159.6000;0.7660;3.6730;
159.9000;0.7668;3.6682;
160.2000;0.7668;3.6634;
160.5000;0.7660;3.6586;
160.8000;0.7668;3.6610;
161.1000;0.7652;3.6682;
161.4000;0.7668;3.6778;
161.7000;0.7652;3.6802;
162.0000;0.7660;3.6802;
162.3000;0.7643;3.6706;
162.6000;0.7652;3.6682;
162.9000;0.7668;3.6682;
163.2000;0.7668;3.6754;
163.5000;0.7660;3.6778;
163.8000;0.7635;3.6682;
164.1000;0.7652;3.6706;
164.4000;0.7676;3.6778;
164.7000;0.7668;3.6802;
165.0000;0.7660;3.6778;
165.3000;0.7660;3.6706;
165.6000;0.7652;3.6754;
165.9000;0.7652;3.6802;
166.2000;0.7619;3.6730;
166.5000;0.7652;3.6802;
166.8000;0.7684;3.6826;
167.1000;0.7652;3.6850;
167.4000;0.7643;3.6826;
167.7000;0.7643;3.6826;
168.0000;0.7643;3.6850;
168.3000;0.7652;3.6898;
168.6000;0.7643;3.6802;
168.9000;0.7660;3.6778;
169.2000;0.7652;3.6730;
169.5000;0.7635;3.6754;
169.8000;0.7635;3.6754;
170.1000;0.7660;3.6850;
170.4000;0.7676;3.6754;
170.7000;0.7676;3.6754;
171.0000;0.7668;3.6802;
171.3000;0.7652;3.6730;
171.6000;0.7660;3.6730;
171.9000;0.7676;3.6658;
172.2000;0.7684;3.6658;
172.5000;0.7757;3.6946;
172.8000;0.7595;3.6562;
173.1000;0.7668;3.6754;
173.4000;0.7652;3.6754;
173.7000;0.7660;3.6874;
174.0000;0.7660;3.6922;
174.3000;0.7652;3.6802;
174.6000;0.7652;3.6802;
174.9000;0.7676;3.6802;
175.2000;0.7635;3.6754;
175.5000;0.7660;3.6754;
175.8000;0.7619;3.6610;
176.1000;0.7643;3.6634;
176.4000;0.7643;3.6562;
176.7000;0.7652;3.6586;
177.0000;0.7652;3.6658;
177.3000;0.7652;3.6634;
177.6000;0.7652;3.6682;
177.9000;0.7709;3.6706;
178.2000;0.7643;3.6490;
178.5000;0.7660;3.6514;
178.8000;0.7668;3.6586;
179.1000;0.7660;3.6562;
179.4000;0.7700;3.6658;
179.7000;0.7676;3.6586;
180.0000;0.7643;3.6586;
180.3000;0.7660;3.6706;
180.6000;0.7643;3.6658;
180.9000;0.7643;3.6562;
181.2000;0.7635;3.6538;
181.5000;0.7652;3.6562;
181.8000;0.7652;3.6538;
182.1000;0.7643;3.6394;
182.4000;0.7635;3.6490;
182.7000;0.7627;3.6442;
183.0000;0.7635;3.6442;
183.3000;0.7643;3.6490;
183.6000;0.7635;3.6610;
183.9000;0.7652;3.6658;
184.2000;0.7652;3.6634;
184.5000;0.7668;3.6754;
184.8000;0.7619;3.6682;
185.1000;0.7643;3.6754;
185.4000;0.7660;3.6682;
185.7000;0.7717;3.6826;
186.0000;0.7668;3.6706;
186.3000;0.7684;3.6802;
186.6000;0.7668;3.6730;
186.9000;0.7660;3.6730;
187.2000;0.7660;3.6658;
187.5000;0.7635;3.6586;
187.8000;0.7643;3.6658;
188.1000;0.7652;3.6682;
188.4000;0.7643;3.6586;
188.7000;0.7611;3.6514;
189.0000;0.7652;3.6538;
189.3000;0.7635;3.6466;
189.6000;0.7635;3.6466;
189.9000;0.7652;3.6586;
190.2000;0.7643;3.6586;
190.5000;0.7635;3.6586;
190.8000;0.7668;3.6730;
191.1000;0.7643;3.6538;
191.4000;0.7586;3.6418;
191.7000;0.7700;3.6682;
192.0000;0.7717;3.6802;
192.3000;0.7692;3.6754;
192.6000;0.7668;3.6706;
192.9000;0.7652;3.6658;
193.2000;0.7676;3.6658;
193.5000;0.7749;3.6850;
193.8000;0.7652;3.6610;
194.1000;0.7627;3.6610;
194.4000;0.7652;3.6706;
194.7000;0.7660;3.6682;
195.0000;0.7676;3.6730;
195.3000;0.7668;3.6706;
195.6000;0.7643;3.6682;
195.9000;0.7676;3.6682;
196.2000;0.7643;3.6634;
196.5000;0.7652;3.6634;
196.8000;0.7725;3.6754;
197.1000;0.7627;3.6514;
197.4000;0.7652;3.6514;
197.7000;0.7627;3.6442;
198.0000;0.7643;3.6466;
198.3000;0.7652;3.6562;
198.6000;0.7643;3.6562;
198.9000;0.7627;3.6586;
199.2000;0.7643;3.6610;
199.5000;0.7652;3.6610;
199.8000;0.7635;3.6658;
200.1000;0.7643;3.6706;
200.4000;0.7668;3.6682;
200.7000;0.7660;3.6658;
201.0000;0.7652;3.6658;
201.3000;0.7668;3.6658;
201.6000;0.7660;3.6658;
201.9000;0.7652;3.6658;
202.2000;0.7660;3.6682;
202.5000;0.7611;3.6586;
202.8000;0.7660;3.6682;
203.1000;0.7635;3.6658;
203.4000;0.7652;3.6730;
203.7000;0.7643;3.6730;
204.0000;0.7635;3.6706;
204.3000;0.7652;3.6730;
204.6000;0.7668;3.6730;
204.9000;0.7668;3.6610;
205.2000;0.7660;3.6634;
205.5000;0.7627;3.6466;
205.8000;0.7668;3.6346;
206.1000;0.7684;3.6322;
206.4000;0.7652;3.6274;
206.7000;0.7652;3.6226;
207.0000;0.7668;3.6346;
207.3000;0.7660;3.6466;
207.6000;0.7652;3.6490;
207.9000;0.7652;3.6514;
208.2000;0.7643;3.6514;
208.5000;0.7643;3.6370;
208.8000;0.7652;3.6370;
209.1000;0.7643;3.6394;
209.4000;0.7660;3.6370;
209.7000;0.7652;3.6370;
210.0000;0.7635;3.6394;
210.3000;0.7652;3.6394;
210.6000;0.7635;3.6298;
210.9000;0.7652;3.6442;
211.2000;0.7643;3.6442;
211.5000;0.7635;3.6490;
211.8000;0.7660;3.6394;
212.1000;0.7635;3.6370;
212.4000;0.7643;3.6322;
212.7000;0.7643;3.6298;
213.0000;0.7611;3.6370;
213.3000;0.7660;3.6562;
213.6000;0.7643;3.6586;
213.9000;0.7652;3.6610;
214.2000;0.7652;3.6754;
214.5000;0.7668;3.6730;
214.8000;0.7652;3.6778;
215.1000;0.7643;3.6778;
215.4000;0.7643;3.6898;
215.7000;0.7668;3.6874;
216.0000;0.7652;3.6826;
216.3000;0.7668;3.6826;
216.6000;0.7660;3.6826;
216.9000;0.7635;3.6658;
217.2000;0.7660;3.6706;
217.5000;0.7627;3.6682;
217.8000;0.7643;3.6754;
218.1000;0.7652;3.6730;
218.4000;0.7643;3.6658;
218.7000;0.7643;3.6682;
219.0000;0.7635;3.6706;
219.3000;0.7627;3.6682;
219.6000;0.7676;3.6754;
219.9000;0.7652;3.6706;
220.2000;0.7660;3.6730;
220.5000;0.7643;3.6730;
220.8000;0.7643;3.6634;
221.1000;0.7643;3.6658;
221.4000;0.7643;3.6586;
221.7000;0.7635;3.6682;
222.0000;0.7652;3.6778;
222.3000;0.7660;3.6754;
222.6000;0.7595;3.6634;
222.9000;0.7635;3.6778;
223.2000;0.7643;3.6778;
223.5000;0.7635;3.6802;
223.8000;0.7652;3.6802;
224.1000;0.7652;3.6778;
224.4000;0.7635;3.6754;
224.7000;0.7635;3.6802;
225.0000;0.7668;3.6850;
225.3000;0.7643;3.6754;
225.6000;0.7643;3.6754;
225.9000;0.7643;3.6754;
226.2000;0.7684;3.6874;
226.5000;0.7635;3.6778;
226.8000;0.7635;3.6634;
227.1000;0.7643;3.6658;
227.4000;0.7660;3.6706;
227.7000;0.7652;3.6682;
228.0000;0.7652;3.6754;
228.3000;0.7627;3.6658;
228.6000;0.7611;3.6658;
228.9000;0.7619;3.6658;
229.2000;0.7643;3.6730;
229.5000;0.7668;3.6754;
229.8000;0.7660;3.6802;
230.1000;0.7643;3.6754;
230.4000;0.7652;3.6754;
230.7000;0.7660;3.6730;
231.0000;0.7660;3.6730;
231.3000;0.7668;3.6754;
231.6000;0.7660;3.6754;
231.9000;0.7643;3.6754;
232.2000;0.7652;3.6754;
232.5000;0.7652;3.6754;
232.8000;0.7652;3.6802;
233.1000;0.7660;3.6850;
233.4000;0.7635;3.6802;
233.7000;0.7643;3.6778;
234.0000;0.7652;3.6802;
234.3000;0.7619;3.6778;
234.6000;0.7635;3.6730;
234.9000;0.7660;3.6682;
235.2000;0.7668;3.6778;
235.5000;0.7652;3.6706;
235.8000;0.7652;3.6586;
236.1000;0.7660;3.6562;
236.4000;0.7668;3.6730;
236.7000;0.7660;3.6826;
237.0000;0.7652;3.6826;
237.3000;0.7643;3.6754;
237.6000;0.7660;3.6754;
237.9000;0.7643;3.6802;
238.2000;0.7643;3.6754;
238.5000;0.7627;3.6658;
238.8000;0.7652;3.6658;
239.1000;0.7660;3.6658;
239.4000;0.7643;3.6706;
239.7000;0.7652;3.6754;
240.0000;0.7684;3.6898;
240.3000;0.7660;3.6898;
240.6000;0.7627;3.6802;
240.9000;0.7652;3.6802;
241.2000;0.7643;3.6730;
241.5000;0.7643;3.6778;
241.8000;0.7643;3.6778;
242.1000;0.7643;3.6826;
242.4000;0.7643;3.6898;
242.7000;0.7643;3.6898;
243.0000;0.7643;3.6778;
243.3000;0.7652;3.6802;
243.6000;0.7627;3.6730;
243.9000;0.7627;3.6730;
244.2000;0.7635;3.6682;
244.5000;0.7643;3.6634;
244.8000;0.7635;3.6586;
245.1000;0.7635;3.6586;
245.4000;0.7660;3.6586;
245.7000;0.7643;3.6610;
246.0000;0.7660;3.6682;
246.3000;0.7652;3.6730;
246.6000;0.7668;3.6730;
246.9000;0.7643;3.6802;
247.2000;0.7643;3.6850;
247.5000;0.7627;3.6922;
247.8000;0.7643;3.6970;
248.1000;0.7635;3.6874;
248.4000;0.7603;3.6754;
248.7000;0.7652;3.6874;
249.0000;0.7635;3.6850;
249.3000;0.7627;3.6850;
249.6000;0.7652;3.6754;
249.9000;0.7627;3.6802;
250.2000;0.7635;3.6778;
250.5000;0.7643;3.6802;
250.8000;0.7643;3.6850;
251.1000;0.7643;3.6730;
251.4000;0.7643;3.6658;
251.7000;0.7643;3.6682;
252.0000;0.7643;3.6754;
252.3000;0.7643;3.6754;
252.6000;0.7643;3.6658;
252.9000;0.7660;3.6610;
253.2000;0.7643;3.6634;
253.5000;0.7643;3.6610;
253.8000;0.7635;3.6658;
254.1000;0.7660;3.6778;
254.4000;0.7643;3.6754;
254.7000;0.7668;3.6754;
255.0000;0.7627;3.6610;
255.3000;0.7684;3.6730;
255.6000;0.7652;3.6706;
255.9000;0.7660;3.6778;
256.2000;0.7652;3.6778;
256.5000;0.7660;3.6706;
256.8000;0.7700;3.6874;
257.1000;0.7643;3.6778;
257.4000;0.7611;3.6778;
257.7000;0.7619;3.6754;
258.0000;0.7619;3.6730;
258.3000;0.7652;3.6754;
258.6000;0.7627;3.6634;
258.9000;0.7627;3.6562;
259.2000;0.7635;3.6610;
259.5000;0.7652;3.6682;
259.8000;0.7627;3.6658;
260.1000;0.7643;3.6730;
260.4000;0.7652;3.6706;
260.7000;0.7635;3.6634;
261.0000;0.7635;3.6634;
261.3000;0.7595;3.6562;
261.6000;0.7700;3.6874;
261.9000;0.7652;3.6754;
262.2000;0.7652;3.6778;
262.5000;0.7586;3.6634;
262.8000;0.7627;3.6730;
263.1000;0.7733;3.6994;
263.4000;0.7660;3.6778;
263.7000;0.7652;3.6706;
264.0000;0.7643;3.6754;
264.3000;0.7668;3.6778;
264.6000;0.7684;3.6922;
264.9000;0.7668;3.6898;
265.2000;0.7619;3.6802;
265.5000;0.7709;3.6946;
265.8000;0.7635;3.6730;
266.1000;0.7700;3.6778;
266.4000;0.7643;3.6634;
266.7000;0.7660;3.6706;
267.0000;0.7619;3.6658;
267.3000;0.7635;3.6634;
267.6000;0.7635;3.6634;
267.9000;0.7635;3.6802;
268.2000;0.7700;3.6946;
268.5000;0.7660;3.6682;
268.8000;0.7643;3.6610;
269.1000;0.7652;3.6514;
269.4000;0.7643;3.6418;
269.7000;0.7643;3.6370;
270.0000;0.7619;3.6346;
270.3000;0.7652;3.6466;
270.6000;0.7652;3.6562;
270.9000;0.7643;3.6538;
271.2000;0.7643;3.6562;
271.5000;0.7660;3.6586;
271.8000;0.7660;3.6610;
272.1000;0.7652;3.6610;
272.4000;0.7635;3.6586;
272.7000;0.7635;3.6634;
273.0000;0.7635;3.6610;
273.3000;0.7643;3.6682;
273.6000;0.7635;3.6682;
273.9000;0.7660;3.6706;
274.2000;0.7635;3.6586;
274.5000;0.7652;3.6682;
274.8000;0.7643;3.6682;
275.1000;0.7652;3.6802;
275.4000;0.7652;3.6802;
275.7000;0.7619;3.6730;
276.0000;0.7643;3.6754;
276.3000;0.7643;3.6730;
276.6000;0.7652;3.6754;
276.9000;0.7635;3.6682;
277.2000;0.7660;3.6634;
277.5000;0.7586;3.6418;
277.8000;0.7652;3.6610;
278.1000;0.7652;3.6730;
278.4000;0.7692;3.6826;
278.7000;0.7570;3.6586;
279.0000;0.7652;3.6778;
279.3000;0.7676;3.6922;
279.6000;0.7595;3.6754;
279.9000;0.7652;3.6898;
280.2000;0.7635;3.6922;
280.5000;0.7635;3.6946;
280.8000;0.7643;3.6922;
281.1000;0.7643;3.6898;
281.4000;0.7660;3.6970;
281.7000;0.7643;3.6946;
282.0000;0.7627;3.6946;
282.3000;0.7652;3.7066;
282.6000;0.7635;3.7018;
282.9000;0.7627;3.6946;
283.2000;0.7635;3.6898;
283.5000;0.7635;3.6850;
283.8000;0.7619;3.6802;
284.1000;0.7619;3.6706;
284.4000;0.7652;3.6682;
284.7000;0.7643;3.6706;
285.0000;0.7643;3.6682;
285.3000;0.7635;3.6610;
285.6000;0.7627;3.6514;
285.9000;0.7643;3.6514;
286.2000;0.7643;3.6514;
286.5000;0.7709;3.6610;
286.8000;0.7611;3.6394;
287.1000;0.7635;3.6442;
287.4000;0.7635;3.6466;
287.7000;0.7578;3.6394;
288.0000;0.7635;3.6682;
288.3000;0.7643;3.6778;
288.6000;0.7741;3.6922;
288.9000;0.7627;3.6586;
289.2000;0.7643;3.6706;
289.5000;0.7643;3.6850;
289.8000;0.7709;3.6922;
290.1000;0.7676;3.6850;
290.4000;0.7652;3.6778;
290.7000;0.7652;3.6826;
291.0000;0.7692;3.6946;
291.3000;0.7668;3.6850;
291.6000;0.7652;3.6802;
291.9000;0.7619;3.6730;
292.2000;0.7652;3.6754;
292.5000;0.7635;3.6706;
292.8000;0.7676;3.6778;
293.1000;0.7643;3.6706;
293.4000;0.7643;3.6682;
293.7000;0.7643;3.6682;
294.0000;0.7635;3.6634;
294.3000;0.7643;3.6682;
294.6000;0.7660;3.6682;
294.9000;0.7635;3.6634;
295.2000;0.7643;3.6682;
295.5000;0.7643;3.6706;
295.8000;0.7643;3.6658;
296.1000;0.7643;3.6682;
296.4000;0.7595;3.6538;
296.7000;0.7619;3.6658;
297.0000;0.7635;3.6610;
297.3000;0.7652;3.6706;
297.6000;0.7635;3.6706;
297.9000;0.7611;3.6514;
298.2000;0.7643;3.6562;
298.5000;0.7627;3.6634;
298.8000;0.7643;3.6634;
299.1000;0.7643;3.6610;
299.4000;0.7619;3.6514;
299.7000;0.7643;3.6682;
300.0000;0.7652;3.6802;
300.3000;0.7627;3.6754;
300.6000;0.7652;3.6730;
300.9000;0.7635;3.6706;
301.2000;0.7635;3.6586;
301.5000;0.7652;3.6634;
301.8000;0.7652;3.6658;
302.1000;0.7643;3.6634;
302.4000;0.7676;3.6730;
302.7000;0.7578;3.6538;
303.0000;0.7635;3.6706;
303.3000;0.7652;3.6802;
303.6000;0.7660;3.6874;
303.9000;0.7627;3.6826;
304.2000;0.7643;3.6802;
304.5000;0.7652;3.6874;
304.8000;0.7635;3.6850;
305.1000;0.7660;3.6826;
305.4000;0.7643;3.6778;
305.7000;0.7627;3.6802;
306.0000;0.7635;3.6778;
306.3000;0.7635;3.6778;
306.6000;0.7627;3.6778;
306.9000;0.7627;3.6706;
307.2000;0.7619;3.6658;
307.5000;0.7635;3.6658;
307.8000;0.7684;3.6682;
308.1000;0.7635;3.6466;
308.4000;0.7668;3.6418;
308.7000;0.7635;3.6322;
309.0000;0.7652;3.6298;
309.3000;0.7684;3.6490;
309.6000;0.7652;3.6538;
309.9000;0.7652;3.6538;
310.2000;0.7660;3.6562;
310.5000;0.7643;3.6562;
310.8000;0.7643;3.6634;
311.1000;0.7660;3.6586;
311.4000;0.7676;3.6634;
311.7000;0.7652;3.6586;
312.0000;0.7643;3.6538;
312.3000;0.7611;3.6394;
312.6000;0.7652;3.6370;
312.9000;0.7643;3.6322;
313.2000;0.7643;3.6370;
313.5000;0.7635;3.6442;
313.8000;0.7643;3.6562;
314.1000;0.7652;3.6562;
314.4000;0.7643;3.6610;
314.7000;0.7635;3.6682;
315.0000;0.7643;3.6754;
315.3000;0.7643;3.6754;
315.6000;0.7668;3.6706;
315.9000;0.7627;3.6634;
316.2000;0.7635;3.6634;
316.5000;0.7652;3.6826;
316.8000;0.7660;3.6826;
317.1000;0.7643;3.6778;
317.4000;0.7700;3.6898;
317.7000;0.7643;3.6730;
318.0000;0.7627;3.6658;
318.3000;0.7619;3.6610;
318.6000;0.7611;3.6634;
318.9000;0.7643;3.6730;
319.2000;0.7619;3.6754;
319.5000;0.7643;3.6826;
319.8000;0.7643;3.6826;
320.1000;0.7635;3.6802;
320.4000;0.7643;3.6850;
320.7000;0.7635;3.6754;
321.0000;0.7635;3.6802;
321.3000;0.7643;3.6730;
321.6000;0.7627;3.6754;
321.9000;0.7652;3.6874;
322.2000;0.7652;3.6802;
322.5000;0.7619;3.6682;
322.8000;0.7652;3.6730;
323.1000;0.7635;3.6754;
323.4000;0.7619;3.6850;
323.7000;0.7643;3.6922;
324.0000;0.7652;3.6874;
324.3000;0.7668;3.6898;
324.6000;0.7643;3.6874;
324.9000;0.7643;3.6874;
325.2000;0.7635;3.6802;
325.5000;0.7652;3.6850;
325.8000;0.7619;3.6754;
326.1000;0.7635;3.6706;
326.4000;0.7643;3.6706;
326.7000;0.7611;3.6682;
327.0000;0.7652;3.6658;
327.3000;0.7635;3.6610;
327.6000;0.7643;3.6562;
327.9000;0.7619;3.6610;
328.2000;0.7546;3.6442;
328.5000;0.7652;3.6706;
328.8000;0.7627;3.6778;
329.1000;0.7643;3.6778;
329.4000;0.7643;3.6850;
329.7000;0.7635;3.6802;
330.0000;0.7635;3.6754;
330.3000;0.7627;3.6778;
330.6000;0.7660;3.6874;
330.9000;0.7635;3.6778;
331.2000;0.7733;3.7018;
331.5000;0.7627;3.6730;
331.8000;0.7643;3.6826;
332.1000;0.7635;3.6874;
332.4000;0.7635;3.6922;
332.7000;0.7643;3.6922;
333.0000;0.7562;3.6730;
333.3000;0.7627;3.6850;
333.6000;0.7627;3.6802;
333.9000;0.7652;3.6874;
334.2000;0.7643;3.6802;
334.5000;0.7684;3.6970;
334.8000;0.7643;3.6946;
335.1000;0.7652;3.6922;
335.4000;0.7643;3.6898;
335.7000;0.7643;3.6946;
336.0000;0.7643;3.6874;
336.3000;0.7603;3.6730;
336.6000;0.7652;3.6802;
336.9000;0.7676;3.6874;
337.2000;0.7643;3.6826;
337.5000;0.7619;3.6730;
337.8000;0.7562;3.6634;
338.1000;0.7660;3.6802;
338.4000;0.7627;3.6754;
338.7000;0.7660;3.6898;
339.0000;0.7635;3.6826;
339.3000;0.7635;3.6826;
339.6000;0.7635;3.6802;
339.9000;0.7627;3.6754;
340.2000;0.7619;3.6706;
340.5000;0.7668;3.6778;
340.8000;0.7635;3.6706;
341.1000;0.7652;3.6682;
341.4000;0.7643;3.6658;
341.7000;0.7652;3.6658;
342.0000;0.7643;3.6586;
342.3000;0.7652;3.6610;
342.6000;0.7603;3.6442;
342.9000;0.7635;3.6466;
343.2000;0.7643;3.6586;
343.5000;0.7635;3.6634;
343.8000;0.7635;3.6658;
344.1000;0.7619;3.6634;
344.4000;0.7660;3.6658;
344.7000;0.7627;3.6658;
345.0000;0.7635;3.6658;
345.3000;0.7627;3.6706;
345.6000;0.7619;3.6730;
345.9000;0.7611;3.6682;
346.2000;0.7643;3.6778;
346.5000;0.7643;3.6778;
346.8000;0.7643;3.6754;
347.1000;0.7635;3.6754;
347.4000;0.7627;3.6706;
347.7000;0.7643;3.6706;
348.0000;0.7619;3.6658;
348.3000;0.7627;3.6658;
348.6000;0.7635;3.6658;
348.9000;0.7627;3.6610;
349.2000;0.7635;3.6634;
349.5000;0.7652;3.6658;
349.8000;0.7652;3.6682;
350.1000;0.7643;3.6754;
350.4000;0.7619;3.6730;
350.7000;0.7619;3.6850;
351.0000;0.7643;3.6946;
351.3000;0.7619;3.6922;
351.6000;0.7643;3.6874;
351.9000;0.7652;3.6802;
352.2000;0.7676;3.6850;
352.5000;0.7652;3.6730;
352.8000;0.7635;3.6658;
353.1000;0.7643;3.6730;
353.4000;0.7627;3.6754;
353.7000;0.7652;3.6706;
354.0000;0.7635;3.6634;
354.3000;0.7619;3.6586;
354.6000;0.7643;3.6706;
354.9000;0.7652;3.6754;
355.2000;0.7635;3.6754;
355.5000;0.7627;3.6706;
355.8000;0.7643;3.6754;
356.1000;0.7627;3.6658;
356.4000;0.7668;3.6730;
356.7000;0.7619;3.6682;
357.0000;0.7652;3.6874;
357.3000;0.7660;3.6970;
357.6000;0.7741;3.7162;
357.9000;0.7643;3.6874;
358.2000;0.7627;3.6802;
358.5000;0.7635;3.6730;
358.8000;0.7627;3.6754;
359.1000;0.7692;3.6874;
359.4000;0.7635;3.6778;
359.7000;0.7643;3.6802;
360.0000;0.7635;3.6826;
360.3000;0.7643;3.6826;
360.6000;0.7546;3.6634;
360.9000;0.7627;3.6850;
361.2000;0.7652;3.6898;
361.5000;0.7635;3.6922;
361.8000;0.7643;3.6826;
362.1000;0.7603;3.6682;
362.4000;0.7635;3.6826;
362.7000;0.7643;3.6898;
363.0000;0.7619;3.6826;
363.3000;0.7660;3.6898;
363.6000;0.7684;3.6994;
363.9000;0.7619;3.6898;
364.2000;0.7627;3.6898;
364.5000;0.7635;3.6970;
364.8000;0.7619;3.6946;
365.1000;0.7619;3.6970;
365.4000;0.7619;3.6946;
365.7000;0.7627;3.6970;
366.0000;0.7554;3.6778;
366.3000;0.7619;3.6946;
366.6000;0.7627;3.6850;
366.9000;0.7627;3.6826;
367.2000;0.7643;3.6826;
367.5000;0.7627;3.6874;
367.8000;0.7643;3.6874;
368.1000;0.7643;3.7018;
368.4000;0.7643;3.7042;
368.7000;0.7643;3.7090;
369.0000;0.7554;3.6778;
369.3000;0.7635;3.6970;
369.6000;0.7643;3.6994;
369.9000;0.7643;3.7042;
370.2000;0.7627;3.7042;
370.5000;0.7627;3.7042;
370.8000;0.7619;3.7018;
371.1000;0.7627;3.6970;
371.4000;0.7643;3.7018;
371.7000;0.7619;3.6970;
372.0000;0.7643;3.6898;
372.3000;0.7562;3.6706;
372.6000;0.7643;3.6898;
372.9000;0.7635;3.6874;
373.2000;0.7611;3.6850;
373.5000;0.7643;3.6970;
373.8000;0.7635;3.6898;
374.1000;0.7619;3.6946;
374.4000;0.7660;3.7066;
374.7000;0.7635;3.6946;
375.0000;0.7627;3.6994;
375.3000;0.7635;3.7138;
375.6000;0.7660;3.7162;
375.9000;0.7627;3.7090;
376.2000;0.7627;3.6970;
376.5000;0.7692;3.7090;
376.8000;0.7643;3.6826;
377.1000;0.7652;3.6802;
377.4000;0.7603;3.6682;
377.7000;0.7660;3.6850;
378.0000;0.7619;3.6754;
378.3000;0.7586;3.6634;
378.6000;0.7619;3.6730;
378.9000;0.7643;3.6802;
379.2000;0.7635;3.6802;
379.5000;0.7692;3.7018;
379.8000;0.7595;3.6802;
380.1000;0.7627;3.6826;
380.4000;0.7611;3.6802;
380.7000;0.7627;3.6826;
381.0000;0.7652;3.6850;
381.3000;0.7595;3.6634;
381.6000;0.7627;3.6658;
381.9000;0.7619;3.6634;
382.2000;0.7627;3.6658;
382.5000;0.7627;3.6706;
382.8000;0.7652;3.6802;
383.1000;0.7676;3.6874;
383.4000;0.7619;3.6802;
383.7000;0.7619;3.6826;
384.0000;0.7635;3.6970;
384.3000;0.7643;3.6994;
384.6000;0.7611;3.6922;
384.9000;0.7627;3.6874;
385.2000;0.7619;3.6850;
385.5000;0.7643;3.6946;
385.8000;0.7635;3.6850;
386.1000;0.7619;3.6754;
386.4000;0.7635;3.6778;
386.7000;0.7643;3.6682;
387.0000;0.7619;3.6730;
387.3000;0.7627;3.6706;
387.6000;0.7635;3.6706;
387.9000;0.7635;3.6802;
388.2000;0.7627;3.6826;
388.5000;0.7627;3.6778;
388.8000;0.7619;3.6754;
389.1000;0.7643;3.6826;
389.4000;0.7635;3.6802;
389.7000;0.7603;3.6706;
390.0000;0.7652;3.6850;
390.3000;0.7635;3.6778;
390.6000;0.7643;3.6730;
390.9000;0.7635;3.6634;
391.2000;0.7611;3.6634;
391.5000;0.7652;3.6706;
391.8000;0.7660;3.6778;
392.1000;0.7627;3.6778;
392.4000;0.7643;3.6850;
392.7000;0.7635;3.6778;
393.0000;0.7627;3.6706;
393.3000;0.7643;3.6802;
393.6000;0.7635;3.6802;
393.9000;0.7619;3.6778;
394.2000;0.7692;3.7042;
394.5000;0.7603;3.6874;
394.8000;0.7627;3.6874;
395.1000;0.7619;3.6826;
395.4000;0.7627;3.6874;
395.7000;0.7619;3.6730;
396.0000;0.7611;3.6778;
396.3000;0.7627;3.6826;
396.6000;0.7660;3.6946;
396.9000;0.7643;3.6850;
397.2000;0.7652;3.6778;
397.5000;0.7635;3.6826;
397.8000;0.7627;3.6802;
398.1000;0.7627;3.6802;
398.4000;0.7619;3.6802;
398.7000;0.7627;3.6826;
399.0000;0.7578;3.6634;
399.3000;0.7603;3.6658;
399.6000;0.7619;3.6682;
399.9000;0.7627;3.6730;
400.2000;0.7619;3.6778;
400.5000;0.7692;3.6946;
400.8000;0.7570;3.6634;
401.1000;0.7627;3.6802;
401.4000;0.7660;3.6898;
401.7000;0.7692;3.7042;
402.0000;0.7627;3.6826;
402.3000;0.7652;3.6874;
402.6000;0.7611;3.6850;
402.9000;0.7643;3.6946;
403.2000;0.7635;3.6898;
403.5000;0.7619;3.6898;
403.8000;0.7586;3.6802;
404.1000;0.7627;3.6826;
404.4000;0.7652;3.7018;
404.7000;0.7635;3.6898;
405.0000;0.7619;3.6874;
405.3000;0.7635;3.6994;
405.6000;0.7627;3.7042;
405.9000;0.7627;3.7066;
406.2000;0.7635;3.7114;
406.5000;0.7611;3.7018;
406.8000;0.7643;3.6994;
407.1000;0.7627;3.6994;
407.4000;0.7619;3.6994;
407.7000;0.7611;3.7042;
408.0000;0.7635;3.7042;
408.3000;0.7627;3.7042;
408.6000;0.7627;3.7018;
408.9000;0.7627;3.6994;
409.2000;0.7643;3.7018;
409.5000;0.7692;3.7162;
409.8000;0.7627;3.6994;
410.1000;0.7643;3.7042;
410.4000;0.7619;3.7090;
410.7000;0.7611;3.7018;
411.0000;0.7627;3.6994;
411.3000;0.7635;3.7090;
411.6000;0.7627;3.7042;
411.9000;0.7643;3.7066;
412.2000;0.7627;3.6970;
412.5000;0.7611;3.6898;
412.8000;0.7627;3.6946;
413.1000;0.7619;3.6922;
413.4000;0.7635;3.6994;
413.7000;0.7627;3.6970;
414.0000;0.7611;3.6946;
414.3000;0.7635;3.7066;
414.6000;0.7627;3.6970;
414.9000;0.7668;3.7114;
415.2000;0.7619;3.6970;
415.5000;0.7619;3.6946;
415.8000;0.7627;3.6922;
416.1000;0.7627;3.6922;
416.4000;0.7627;3.6826;
416.7000;0.7619;3.6850;
417.0000;0.7652;3.6874;
417.3000;0.7635;3.6850;
417.6000;0.7627;3.6778;
417.9000;0.7627;3.6922;
418.2000;0.7619;3.6922;
418.5000;0.7619;3.6778;
418.8000;0.7619;3.6778;
419.1000;0.7619;3.6754;
419.4000;0.7627;3.6754;
419.7000;0.7570;3.6586;
420.0000;0.7619;3.6754;
420.3000;0.7627;3.6778;
420.6000;0.7619;3.6826;
420.9000;0.7635;3.6826;
421.2000;0.7660;3.6922;
421.5000;0.7627;3.6754;
421.8000;0.7635;3.6850;
422.1000;0.7578;3.6682;
422.4000;0.7619;3.6754;
422.7000;0.7619;3.6826;
423.0000;0.7619;3.6898;
423.3000;0.7635;3.6970;
423.6000;0.7635;3.6874;
423.9000;0.7700;3.6994;
424.2000;0.7717;3.7042;
424.5000;0.7619;3.6826;
424.8000;0.7652;3.6922;
425.1000;0.7627;3.6802;
425.4000;0.7627;3.6682;
425.7000;0.7619;3.6610;
426.0000;0.7643;3.6754;
426.3000;0.7627;3.6706;
426.6000;0.7595;3.6586;
426.9000;0.7570;3.6562;
427.2000;0.7635;3.6778;
427.5000;0.7635;3.6826;
427.8000;0.7554;3.6658;
428.1000;0.7668;3.6850;
428.4000;0.7635;3.6778;
428.7000;0.7635;3.6826;
429.0000;0.7619;3.6874;
429.3000;0.7611;3.6826;
429.6000;0.7619;3.6922;
429.9000;0.7619;3.6874;
430.2000;0.7611;3.6778;
430.5000;0.7611;3.6802;
430.8000;0.7611;3.6754;
431.1000;0.7619;3.6826;
431.4000;0.7611;3.6778;
431.7000;0.7611;3.6874;
432.0000;0.7554;3.6778;
432.3000;0.7635;3.6850;
432.6000;0.7619;3.6778;
432.9000;0.7627;3.6754;
433.2000;0.7627;3.6706;
433.5000;0.7676;3.6874;
433.8000;0.7619;3.6682;
434.1000;0.7595;3.6634;
434.4000;0.7619;3.6634;
434.7000;0.7643;3.6658;
435.0000;0.7643;3.6658;
435.3000;0.7627;3.6730;
435.6000;0.7603;3.6706;
435.9000;0.7603;3.6706;
436.2000;0.7660;3.6826;
436.5000;0.7643;3.6802;
436.8000;0.7627;3.6730;
437.1000;0.7635;3.6754;
437.4000;0.7643;3.6730;
437.7000;0.7643;3.6682;
438.0000;0.7627;3.6706;
438.3000;0.7619;3.6706;
438.6000;0.7635;3.6730;
438.9000;0.7643;3.6778;
439.2000;0.7603;3.6754;
439.5000;0.7619;3.6730;
439.8000;0.7643;3.6802;
440.1000;0.7619;3.6802;
440.4000;0.7619;3.6802;
440.7000;0.7611;3.6802;
441.0000;0.7814;3.7306;
441.3000;0.7611;3.6802;
441.6000;0.7627;3.6826;
441.9000;0.7627;3.6802;
442.2000;0.7611;3.6850;
442.5000;0.7578;3.6754;
442.8000;0.7611;3.6802;
443.1000;0.7619;3.6754;
443.4000;0.7603;3.6682;
443.7000;0.7676;3.6802;
444.0000;0.7635;3.6730;
444.3000;0.7603;3.6850;
444.6000;0.7611;3.6874;
444.9000;0.7619;3.6850;
445.2000;0.7627;3.6850;
445.5000;0.7619;3.6826;
445.8000;0.7627;3.6802;
446.1000;0.7635;3.6778;
446.4000;0.7627;3.6826;
446.7000;0.7635;3.6778;
447.0000;0.7578;3.6658;
447.3000;0.7570;3.6634;
447.6000;0.7619;3.6802;
447.9000;0.7611;3.6826;
448.2000;0.7627;3.6850;
448.5000;0.7652;3.6754;
448.8000;0.7627;3.6658;
449.1000;0.7627;3.6706;
449.4000;0.7635;3.6826;
449.7000;0.7619;3.6922;
450.0000;0.7619;3.6898;
450.3000;0.7635;3.6922;
450.6000;0.7619;3.6874;
450.9000;0.7619;3.6874;
451.2000;0.7619;3.6898;
451.5000;0.7635;3.6898;
451.8000;0.7611;3.6802;
452.1000;0.7586;3.6754;
452.4000;0.7627;3.6850;
452.7000;0.7635;3.6898;
453.0000;0.7627;3.6826;
453.3000;0.7595;3.6610;
453.6000;0.7611;3.6706;
453.9000;0.7635;3.6682;
454.2000;0.7586;3.6586;
454.5000;0.7660;3.6682;
454.8000;0.7619;3.6586;
455.1000;0.7692;3.6730;
455.4000;0.7627;3.6586;
455.7000;0.7619;3.6562;
456.0000;0.7627;3.6562;
456.3000;0.7635;3.6586;
456.6000;0.7611;3.6514;
456.9000;0.7627;3.6586;
457.2000;0.7619;3.6562;
457.5000;0.7627;3.6610;
457.8000;0.7627;3.6562;
458.1000;0.7595;3.6466;
458.4000;0.7619;3.6490;
458.7000;0.7627;3.6514;
459.0000;0.7627;3.6538;
459.3000;0.7627;3.6586;
459.6000;0.7635;3.6562;
459.9000;0.7603;3.6466;
460.2000;0.7627;3.6586;
460.5000;0.7635;3.6586;
460.8000;0.7619;3.6562;
461.1000;0.7627;3.6514;
461.4000;0.7635;3.6538;
461.7000;0.7627;3.6514;
462.0000;0.7627;3.6586;
462.3000;0.7611;3.6610;
462.6000;0.7627;3.6682;
462.9000;0.7652;3.6682;
463.2000;0.7619;3.6562;
463.5000;0.7627;3.6562;
463.8000;0.7627;3.6610;
464.1000;0.7627;3.6634;
464.4000;0.7643;3.6658;
464.7000;0.7627;3.6682;
465.0000;0.7611;3.6658;
465.3000;0.7603;3.6730;
465.6000;0.7611;3.6706;
465.9000;0.7619;3.6730;
466.2000;0.7635;3.6802;
466.5000;0.7611;3.6754;
466.8000;0.7619;3.6754;
467.1000;0.7627;3.6754;
467.4000;0.7627;3.6706;
467.7000;0.7635;3.6778;
468.0000;0.7635;3.6802;
468.3000;0.7733;3.7090;
468.6000;0.7619;3.6778;
468.9000;0.7643;3.6874;
469.2000;0.7570;3.6706;
469.5000;0.7635;3.6730;
469.8000;0.7611;3.6658;
470.1000;0.7619;3.6682;
470.4000;0.7660;3.6802;
470.7000;0.7627;3.6754;
471.0000;0.7611;3.6706;
471.3000;0.7643;3.6730;
471.6000;0.7660;3.6754;
471.9000;0.7635;3.6682;
472.2000;0.7652;3.6826;
472.5000;0.7611;3.6730;
472.8000;0.7676;3.6850;
473.1000;0.7652;3.6754;
473.4000;0.7627;3.6658;
473.7000;0.7603;3.6610;
474.0000;0.7627;3.6682;
474.3000;0.7627;3.6634;
474.6000;0.7709;3.6778;
474.9000;0.7611;3.6634;
475.2000;0.7603;3.6562;
475.5000;0.7627;3.6634;
475.8000;0.7627;3.6586;
476.1000;0.7611;3.6634;
476.4000;0.7595;3.6658;
476.7000;0.7635;3.6826;
477.0000;0.7611;3.6826;
477.3000;0.7627;3.6778;
477.6000;0.7595;3.6682;
477.9000;0.7627;3.6802;
478.2000;0.7668;3.6946;
478.5000;0.7643;3.6802;
478.8000;0.7627;3.6754;
479.1000;0.7619;3.6802;
479.4000;0.7660;3.6922;
479.7000;0.7611;3.6802;
480.0000;0.7627;3.6826;
480.3000;0.7627;3.6778;
480.6000;0.7611;3.6778;
480.9000;0.7627;3.6802;
481.2000;0.7619;3.6802;
481.5000;0.7619;3.6778;
481.8000;0.7619;3.6754;
482.1000;0.7619;3.6682;
482.4000;0.7643;3.6730;
482.7000;0.7627;3.6634;
483.0000;0.7619;3.6538;
483.3000;0.7627;3.6562;
483.6000;0.7619;3.6586;
483.9000;0.7611;3.6562;
484.2000;0.7619;3.6634;
484.5000;0.7635;3.6706;
484.8000;0.7595;3.6682;
485.1000;0.7611;3.6610;
485.4000;0.7603;3.6538;
485.7000;0.7611;3.6538;
486.0000;0.7595;3.6562;
486.3000;0.7595;3.6490;
486.6000;0.7619;3.6538;
486.9000;0.7619;3.6538;
487.2000;0.7627;3.6538;
487.5000;0.7562;3.6370;
487.8000;0.7627;3.6658;
488.1000;0.7619;3.6706;
488.4000;0.7676;3.6826;
488.7000;0.7595;3.6634;
489.0000;0.7578;3.6634;
489.3000;0.7611;3.6658;
489.6000;0.7643;3.6658;
489.9000;0.7603;3.6586;
490.2000;0.7676;3.6730;
490.5000;0.7611;3.6586;
490.8000;0.7611;3.6586;
491.1000;0.7611;3.6610;
491.4000;0.7660;3.6730;
491.7000;0.7643;3.6754;
492.0000;0.7635;3.6754;
492.3000;0.7619;3.6730;
492.6000;0.7521;3.6538;
492.9000;0.7619;3.6802;
493.2000;0.7635;3.6754;
493.5000;0.7619;3.6682;
493.8000;0.7595;3.6562;
494.1000;0.7586;3.6562;
494.4000;0.7595;3.6610;
494.7000;0.7595;3.6682;
495.0000;0.7627;3.6658;
495.3000;0.7619;3.6586;
495.6000;0.7635;3.6706;
495.9000;0.7595;3.6682;
496.2000;0.7619;3.6802;
496.5000;0.7627;3.6682;
496.8000;0.7611;3.6586;
497.1000;0.7603;3.6514;
497.4000;0.7595;3.6514;
497.7000;0.7595;3.6634;
498.0000;0.7595;3.6634;
498.3000;0.7627;3.6682;
498.6000;0.7635;3.6634;
498.9000;0.7611;3.6610;
499.2000;0.7611;3.6634;
499.5000;0.7611;3.6706;
499.8000;0.7619;3.6778;
500.1000;0.7611;3.6658;
500.4000;0.7611;3.6706;
500.7000;0.7619;3.6682;
501.0000;0.7619;3.6586;
501.3000;0.7635;3.6586;
501.6000;0.7595;3.6514;
501.9000;0.7619;3.6586;
502.2000;0.7619;3.6658;
502.5000;0.7627;3.6610;
502.8000;0.7619;3.6658;
503.1000;0.7619;3.6634;
503.4000;0.7586;3.6514;
503.7000;0.7619;3.6538;
504.0000;0.7611;3.6562;
504.3000;0.7619;3.6490;
504.6000;0.7611;3.6586;
504.9000;0.7611;3.6634;
505.2000;0.7611;3.6634;
505.5000;0.7603;3.6586;
505.8000;0.7619;3.6730;
506.1000;0.7619;3.6802;
506.4000;0.7635;3.6874;
506.7000;0.7586;3.6730;
507.0000;0.7595;3.6802;
507.3000;0.7627;3.6946;
507.6000;0.7635;3.7018;
507.9000;0.7619;3.6946;
508.2000;0.7619;3.6898;
508.5000;0.7595;3.6682;
508.8000;0.7611;3.6634;
509.1000;0.7611;3.6682;
509.4000;0.7603;3.6682;
509.7000;0.7619;3.6682;
510.0000;0.7586;3.6658;
510.3000;0.7611;3.6778;
510.6000;0.7652;3.6874;
510.9000;0.7635;3.6874;
511.2000;0.7668;3.6970;
511.5000;0.7635;3.6874;
511.8000;0.7611;3.6778;
512.1000;0.7635;3.6850;
512.4000;0.7611;3.6826;
512.7000;0.7643;3.6826;
513.0000;0.7611;3.6730;
513.3000;0.7627;3.6802;
513.6000;0.7619;3.6826;
513.9000;0.7554;3.6634;
514.2000;0.7627;3.6778;
514.5000;0.7611;3.6802;
514.8000;0.7619;3.6778;
515.1000;0.7627;3.6826;
515.4000;0.7635;3.6922;
515.7000;0.7603;3.6802;
516.0000;0.7611;3.6850;
516.3000;0.7627;3.6778;
516.6000;0.7619;3.6706;
516.9000;0.7595;3.6634;
517.2000;0.7643;3.6850;
517.5000;0.7635;3.6898;
517.8000;0.7546;3.6706;
518.1000;0.7619;3.6850;
518.4000;0.7635;3.6778;
518.7000;0.7635;3.6826;
519.0000;0.7627;3.6754;
519.3000;0.7603;3.6778;
519.6000;0.7627;3.6730;
519.9000;0.7595;3.6706;
520.2000;0.7619;3.6754;
520.5000;0.7619;3.6754;
520.8000;0.7611;3.6850;
521.1000;0.7611;3.6922;
521.4000;0.7619;3.6898;
521.7000;0.7619;3.6874;
522.0000;0.7627;3.6802;
522.3000;0.7611;3.6778;
522.6000;0.7603;3.6706;
522.9000;0.7611;3.6730;
523.2000;0.7586;3.6706;
523.5000;0.7595;3.6778;
523.8000;0.7619;3.6802;
524.1000;0.7603;3.6682;
524.4000;0.7595;3.6634;
524.7000;0.7595;3.6658;
525.0000;0.7611;3.6730;
525.3000;0.7627;3.6730;
525.6000;0.7562;3.6634;
525.9000;0.7603;3.6754;
526.2000;0.7619;3.6778;
526.5000;0.7595;3.6682;
526.8000;0.7603;3.6778;
527.1000;0.7619;3.6802;
527.4000;0.7627;3.6802;
527.7000;0.7619;3.6682;
528.0000;0.7619;3.6682;
528.3000;0.7611;3.6754;
528.6000;0.7578;3.6682;
528.9000;0.7627;3.6778;
529.2000;0.7627;3.6706;
529.5000;0.7619;3.6706;
529.8000;0.7627;3.6778;
530.1000;0.7611;3.6802;
530.4000;0.7700;3.6970;
530.7000;0.7652;3.6874;
531.0000;0.7586;3.6682;
531.3000;0.7627;3.6778;
531.6000;0.7660;3.6850;
531.9000;0.7595;3.6778;
532.2000;0.7668;3.6922;
532.5000;0.7595;3.6754;
532.8000;0.7619;3.6730;
533.1000;0.7603;3.6658;
533.4000;0.7611;3.6730;
533.7000;0.7717;3.6946;
534.0000;0.7668;3.6826;
534.3000;0.7611;3.6634;
534.6000;0.7603;3.6658;
534.9000;0.7619;3.6610;
535.2000;0.7595;3.6514;
535.5000;0.7619;3.6658;
535.8000;0.7603;3.6634;
536.1000;0.7595;3.6586;
536.4000;0.7611;3.6610;
536.7000;0.7619;3.6682;
537.0000;0.7619;3.6706;
537.3000;0.7603;3.6658;
537.6000;0.7578;3.6658;
537.9000;0.7643;3.6802;
538.2000;0.7652;3.6850;
538.5000;0.7635;3.6706;
538.8000;0.7611;3.6610;
539.1000;0.7619;3.6610;
539.4000;0.7652;3.6658;
539.7000;0.7619;3.6538;
540.0000;0.7611;3.6586;
540.3000;0.7595;3.6610;
540.6000;0.7611;3.6658;
540.9000;0.7570;3.6658;
541.2000;0.7660;3.6850;
541.5000;0.7611;3.6754;
541.8000;0.7595;3.6778;
542.1000;0.7611;3.6826;
542.4000;0.7595;3.6874;
542.7000;0.7627;3.6802;
543.0000;0.7627;3.6778;
543.3000;0.7595;3.6754;
543.6000;0.7627;3.6778;
543.9000;0.7627;3.6778;
544.2000;0.7643;3.6826;
544.5000;0.7603;3.6922;
544.8000;0.7603;3.6922;
545.1000;0.7684;3.7114;
545.4000;0.7619;3.6874;
545.7000;0.7611;3.6802;
546.0000;0.7627;3.6826;
546.3000;0.7603;3.6802;
546.6000;0.7635;3.6826;
546.9000;0.7619;3.6706;
547.2000;0.7603;3.6586;
547.5000;0.7627;3.6610;
547.8000;0.7660;3.6706;
548.1000;0.7619;3.6634;
548.4000;0.7619;3.6586;
548.7000;0.7619;3.6634;
549.0000;0.7619;3.6610;
549.3000;0.7619;3.6610;
549.6000;0.7570;3.6514;
549.9000;0.7611;3.6586;
550.2000;0.7603;3.6586;
550.5000;0.7619;3.6610;
550.8000;0.7611;3.6538;
551.1000;0.7619;3.6610;
551.4000;0.7586;3.6634;
551.7000;0.7611;3.6682;
552.0000;0.7611;3.6682;
552.3000;0.7611;3.6706;
552.6000;0.7595;3.6682;
552.9000;0.7554;3.6634;
553.2000;0.7619;3.6826;
553.5000;0.7611;3.6778;
553.8000;0.7570;3.6634;
554.1000;0.7652;3.6778;
554.4000;0.7603;3.6730;
554.7000;0.7595;3.6658;
555.0000;0.7611;3.6730;
555.3000;0.7611;3.6802;
555.6000;0.7603;3.6754;
555.9000;0.7603;3.6826;
556.2000;0.7611;3.6802;
556.5000;0.7603;3.6850;
556.8000;0.7611;3.6826;
557.1000;0.7521;3.6514;
557.4000;0.7595;3.6682;
557.7000;0.7603;3.6682;
558.0000;0.7643;3.6754;
558.3000;0.7611;3.6706;
558.6000;0.7619;3.6730;
558.9000;0.7627;3.6706;
559.2000;0.7611;3.6754;
559.5000;0.7611;3.6754;
559.8000;0.7611;3.6634;
560.1000;0.7603;3.6610;
560.4000;0.7627;3.6754;
560.7000;0.7619;3.6802;
561.0000;0.7619;3.6778;
561.3000;0.7619;3.6754;
561.6000;0.7595;3.6706;
561.9000;0.7603;3.6778;
562.2000;0.7635;3.6850;
562.5000;0.7619;3.6802;
562.8000;0.7611;3.6778;
563.1000;0.7611;3.6826;
563.4000;0.7619;3.6826;
563.7000;0.7619;3.6850;
564.0000;0.7586;3.6706;
564.3000;0.7586;3.6754;
564.6000;0.7603;3.6850;
564.9000;0.7595;3.6826;
565.2000;0.7619;3.6874;
565.5000;0.7709;3.7138;
565.8000;0.7635;3.6970;
566.1000;0.7595;3.6970;
566.4000;0.7595;3.6874;
566.7000;0.7595;3.6730;
567.0000;0.7619;3.6826;
567.3000;0.7562;3.6658;
567.6000;0.7619;3.6754;
567.9000;0.7611;3.6730;
568.2000;0.7635;3.6802;
568.5000;0.7643;3.6898;
568.8000;0.7619;3.6898;
569.1000;0.7595;3.6874;
569.4000;0.7643;3.6994;
569.7000;0.7619;3.6946;
570.0000;0.7603;3.6874;
570.3000;0.7595;3.6874;
570.6000;0.7611;3.6874;
570.9000;0.7619;3.6970;
571.2000;0.7611;3.6850;
571.5000;0.7611;3.6874;
571.8000;0.7627;3.6874;
572.1000;0.7619;3.6850;
572.4000;0.7619;3.6850;
572.7000;0.7619;3.6874;
573.0000;0.7611;3.6826;
573.3000;0.7635;3.6898;
573.6000;0.7586;3.6730;
573.9000;0.7627;3.6826;
574.2000;0.7627;3.6754;
574.5000;0.7619;3.6850;
574.8000;0.7570;3.6730;
575.1000;0.7627;3.6826;
575.4000;0.7619;3.6778;
575.7000;0.7660;3.6898;
576.0000;0.7627;3.6778;
576.3000;0.7627;3.6754;
576.6000;0.7603;3.6706;
576.9000;0.7627;3.6754;
577.2000;0.7635;3.6802;
577.5000;0.7619;3.6754;
577.8000;0.7611;3.6730;
578.1000;0.7619;3.6754;
578.4000;0.7627;3.6754;
578.7000;0.7652;3.6778;
579.0000;0.7611;3.6754;
579.3000;0.7603;3.6754;
579.6000;0.7603;3.6730;
579.9000;0.7643;3.6778;
580.2000;0.7595;3.6610;
580.5000;0.7611;3.6706;
580.8000;0.7611;3.6730;
581.1000;0.7595;3.6730;
581.4000;0.7619;3.6730;
581.7000;0.7595;3.6610;
582.0000;0.7595;3.6514;
582.3000;0.7611;3.6562;
582.6000;0.7611;3.6514;
582.9000;0.7611;3.6538;
583.2000;0.7611;3.6562;
583.5000;0.7619;3.6610;
583.8000;0.7611;3.6586;
584.1000;0.7619;3.6610;
584.4000;0.7603;3.6586;
584.7000;0.7595;3.6610;
585.0000;0.7619;3.6682;
585.3000;0.7652;3.6778;
585.6000;0.7619;3.6706;
585.9000;0.7619;3.6682;
586.2000;0.7619;3.6730;
586.5000;0.7627;3.6802;
586.8000;0.7684;3.6922;
587.1000;0.7611;3.6658;
587.4000;0.7611;3.6682;
587.7000;0.7619;3.6706;
588.0000;0.7627;3.6682;
588.3000;0.7627;3.6658;
588.6000;0.7627;3.6658;
588.9000;0.7611;3.6682;
589.2000;0.7627;3.6802;
589.5000;0.7611;3.6874;
589.8000;0.7619;3.6850;
590.1000;0.7611;3.6778;
590.4000;0.7586;3.6634;
590.7000;0.7595;3.6610;
591.0000;0.7603;3.6610;
591.3000;0.7595;3.6658;
591.6000;0.7603;3.6682;
591.9000;0.7586;3.6730;
592.2000;0.7595;3.6778;
592.5000;0.7562;3.6682;
592.8000;0.7595;3.6706;
593.1000;0.7578;3.6730;
593.4000;0.7603;3.6802;
593.7000;0.7595;3.6754;
594.0000;0.7627;3.6826;
594.3000;0.7603;3.6850;
594.6000;0.7611;3.6826;
594.9000;0.7611;3.6802;
595.2000;0.7603;3.6754;
595.5000;0.7603;3.6754;
595.8000;0.7578;3.6730;
596.1000;0.7611;3.6826;
596.4000;0.7619;3.6778;
596.7000;0.7611;3.6754;
597.0000;0.7578;3.6538;
597.3000;0.7619;3.6658;
597.6000;0.7627;3.6754;
597.9000;0.7619;3.6730;
598.2000;0.7660;3.6802;
598.5000;0.7627;3.6730;
598.8000;0.7603;3.6706;
599.1000;0.7619;3.6730;
599.4000;0.7595;3.6682;
599.7000;0.7619;3.6850;
600.0000;0.7611;3.6850;
600.3000;0.7668;3.6826;
600.6000;0.7676;3.6682;
600.9000;0.7586;3.6346;
601.2000;0.7570;3.6250;
601.5000;0.7497;3.6154;
601.8000;0.7464;3.6010;
602.1000;0.7432;3.5962;
602.4000;0.7383;3.5770;
602.7000;0.7318;3.5554;
603.0000;0.7277;3.5386;
603.3000;0.7236;3.5122;
603.6000;0.7204;3.5003;
603.9000;0.7147;3.4835;
604.2000;0.7098;3.4787;
604.5000;0.7074;3.4667;
604.8000;0.7049;3.4571;
605.1000;0.6976;3.4355;
605.4000;0.6960;3.4379;
605.7000;0.6968;3.4331;
606.0000;0.6935;3.4331;
606.3000;0.6862;3.4187;
606.6000;0.6935;3.4259;
606.9000;0.6821;3.4019;
607.2000;0.6821;3.4067;
607.5000;0.6789;3.4019;
607.8000;0.6764;3.3995;
608.1000;0.6732;3.3947;
608.4000;0.6756;3.4019;
608.7000;0.6732;3.3971;
609.0000;0.6634;3.3851;
609.3000;0.6650;3.3827;
609.6000;0.6602;3.3731;
609.9000;0.6602;3.3827;
610.2000;0.6528;3.3635;
610.5000;0.6561;3.3731;
610.8000;0.6545;3.3779;
611.1000;0.6536;3.3779;
611.4000;0.6488;3.3539;
611.7000;0.6496;3.3659;
612.0000;0.6479;3.3683;
612.3000;0.6463;3.3659;
612.6000;0.6447;3.3635;
612.9000;0.6447;3.3587;
613.2000;0.6422;3.3563;
613.5000;0.6398;3.3443;
613.8000;0.6398;3.3371;
614.1000;0.6382;3.3275;
614.4000;0.6374;3.3323;
614.7000;0.6333;3.3179;
615.0000;0.6341;3.3179;
615.3000;0.6333;3.3275;
615.6000;0.6309;3.3203;
615.9000;0.6292;3.3131;
616.2000;0.6268;3.3107;
616.5000;0.6365;3.3323;
616.8000;0.6268;3.3155;
617.1000;0.6243;3.3083;
617.4000;0.6235;3.3179;
617.7000;0.6243;3.3299;
618.0000;0.6211;3.3371;
618.3000;0.6195;3.3323;
618.6000;0.6195;3.3251;
618.9000;0.6203;3.3179;
619.2000;0.6162;3.3083;
619.5000;0.6146;3.3011;
619.8000;0.6162;3.3107;
620.1000;0.6129;3.3203;
620.4000;0.6121;3.3227;
620.7000;0.6097;3.3179;
621.0000;0.6113;3.3107;
621.3000;0.6146;3.3155;
621.6000;0.6097;3.3035;
621.9000;0.6089;3.3083;
622.2000;0.6072;3.3059;
622.5000;0.5991;3.2939;
622.8000;0.6072;3.3179;
623.1000;0.6056;3.3203;
623.4000;0.6040;3.3155;
623.7000;0.6024;3.3179;
624.0000;0.6024;3.3131;
624.3000;0.6015;3.3131;
624.6000;0.5918;3.2915;
624.9000;0.6007;3.3011;
625.2000;0.5999;3.3083;
625.5000;0.5999;3.3131;
625.8000;0.5967;3.2987;
626.1000;0.5942;3.2891;
626.4000;0.5950;3.2867;
626.7000;0.5934;3.2867;
627.0000;0.5950;3.2939;
627.3000;0.5942;3.3035;
627.6000;0.5967;3.3107;
627.9000;0.5934;3.3035;
628.2000;0.5926;3.3035;
628.5000;0.5918;3.3107;
628.8000;0.5910;3.3059;
629.1000;0.5910;3.3035;
629.4000;0.5885;3.3011;
629.7000;0.5877;3.2891;
630.0000;0.5804;3.2771;
630.3000;0.5877;3.2963;
630.6000;0.5893;3.3035;
630.9000;0.5861;3.2963;
631.2000;0.5869;3.3059;
631.5000;0.5869;3.3083;
631.8000;0.5853;3.3083;
632.1000;0.5845;3.3131;
632.4000;0.5853;3.3203;
632.7000;0.5836;3.3203;
633.0000;0.5869;3.3299;
633.3000;0.5845;3.3227;
633.6000;0.5828;3.3227;
633.9000;0.5812;3.3227;
634.2000;0.5796;3.3179;
634.5000;0.5796;3.3227;
634.8000;0.5796;3.3203;
635.1000;0.5771;3.3179;
635.4000;0.5812;3.3251;
635.7000;0.5796;3.3203;
636.0000;0.5763;3.3131;
636.3000;0.5779;3.3131;
636.6000;0.5771;3.3083;
636.9000;0.5763;3.3083;
637.2000;0.5771;3.3131;
637.5000;0.5755;3.3083;
637.8000;0.5739;3.3035;
638.1000;0.5771;3.3203;
638.4000;0.5731;3.3107;
638.7000;0.5714;3.2987;
639.0000;0.5722;3.2915;
639.3000;0.5714;3.2963;
639.6000;0.5714;3.3083;
639.9000;0.5690;3.3035;
640.2000;0.5698;3.3035;
640.5000;0.5731;3.3155;
640.8000;0.5714;3.3179;
641.1000;0.5674;3.3107;
641.4000;0.5698;3.3083;
641.7000;0.5674;3.3059;
642.0000;0.5690;3.3083;
642.3000;0.5657;3.2987;
642.6000;0.5633;3.2915;
642.9000;0.5706;3.3131;
643.2000;0.5682;3.3083;
643.5000;0.5657;3.3011;
643.8000;0.5657;3.3059;
644.1000;0.5657;3.3107;
644.4000;0.5674;3.3179;
644.7000;0.5657;3.3083;
645.0000;0.5657;3.3059;
645.3000;0.5641;3.3035;
645.6000;0.5771;3.3347;
645.9000;0.5641;3.3059;
646.2000;0.5625;3.3011;
646.5000;0.5633;3.3155;
646.8000;0.5633;3.3083;
647.1000;0.5633;3.3155;
647.4000;0.5608;3.3131;
647.7000;0.5617;3.3131;
648.0000;0.5633;3.3131;
648.3000;0.5625;3.3011;
648.6000;0.5503;3.2675;
648.9000;0.5608;3.2915;
649.2000;0.5608;3.2939;
649.5000;0.5600;3.2987;
649.8000;0.5592;3.2963;
650.1000;0.5608;3.2939;
650.4000;0.5592;3.3011;
650.7000;0.5592;3.3011;
651.0000;0.5657;3.3227;
651.3000;0.5576;3.2963;
651.6000;0.5576;3.3107;
651.9000;0.5551;3.3179;
652.2000;0.5592;3.3323;
652.5000;0.5568;3.3299;
652.8000;0.5551;3.3203;
653.1000;0.5568;3.3155;
653.4000;0.5584;3.3107;
653.7000;0.5568;3.3083;
654.0000;0.5560;3.3155;
654.3000;0.5568;3.3155;
654.6000;0.5560;3.3035;
654.9000;0.5543;3.2963;
655.2000;0.5527;3.2987;
655.5000;0.5511;3.2891;
655.8000;0.5551;3.2939;
656.1000;0.5543;3.2963;
656.4000;0.5527;3.2939;
656.7000;0.5527;3.3035;
657.0000;0.5543;3.3083;
657.3000;0.5413;3.2747;
657.6000;0.5543;3.2963;
657.9000;0.5503;3.2963;
658.2000;0.5543;3.2987;
658.5000;0.5543;3.2963;
658.8000;0.5535;3.2963;
659.1000;0.5519;3.3011;
659.4000;0.5486;3.2963;
659.7000;0.5503;3.3035;
660.0000;0.5503;3.2939;
660.3000;0.5495;3.2843;
660.6000;0.5495;3.2771;
660.9000;0.5495;3.2747;
661.2000;0.5486;3.2795;
661.5000;0.5495;3.2843;
661.8000;0.5478;3.2795;
662.1000;0.5486;3.2819;
662.4000;0.5486;3.2819;
662.7000;0.5503;3.2915;
663.0000;0.5413;3.2699;
663.3000;0.5478;3.2891;
663.6000;0.5486;3.2939;
663.9000;0.5478;3.2939;
664.2000;0.5470;3.2891;
664.5000;0.5478;3.2915;
664.8000;0.5462;3.2915;
665.1000;0.5486;3.3083;
665.4000;0.5470;3.3011;
665.7000;0.5495;3.3107;
666.0000;0.5478;3.3107;
666.3000;0.5486;3.3131;
666.6000;0.5462;3.3011;
666.9000;0.5462;3.3035;
667.2000;0.5438;3.3083;
667.5000;0.5454;3.3083;
667.8000;0.5429;3.3083;
668.1000;0.5454;3.3155;
668.4000;0.5446;3.3227;
668.7000;0.5438;3.3179;
669.0000;0.5454;3.3179;
669.3000;0.5495;3.3491;
669.6000;0.5495;3.3419;
669.9000;0.5519;3.3443;
670.2000;0.5446;3.3275;
670.5000;0.5413;3.3251;
670.8000;0.5429;3.3299;
671.1000;0.5438;3.3371;
671.4000;0.5446;3.3395;
671.7000;0.5454;3.3395;
672.0000;0.5438;3.3323;
672.3000;0.5438;3.3323;
672.6000;0.5429;3.3203;
672.9000;0.5429;3.3179;
673.2000;0.5413;3.3227;
673.5000;0.5405;3.3275;
673.8000;0.5405;3.3179;
674.1000;0.5413;3.3203;
674.4000;0.5381;3.3107;
674.7000;0.5389;3.3131;
675.0000;0.5389;3.3179;
675.3000;0.5389;3.3083;
675.6000;0.5421;3.3059;
675.9000;0.5364;3.2987;
676.2000;0.5348;3.2939;
676.5000;0.5389;3.3035;
676.8000;0.5389;3.2963;
677.1000;0.5405;3.2915;
677.4000;0.5381;3.2963;
677.7000;0.5324;3.2747;
678.0000;0.5389;3.2939;
678.3000;0.5381;3.2891;
678.6000;0.5364;3.2867;
678.9000;0.5372;3.2795;
679.2000;0.5372;3.2843;
679.5000;0.5381;3.2843;
679.8000;0.5381;3.2795;
680.1000;0.5381;3.2747;
680.4000;0.5438;3.2867;
680.7000;0.5372;3.2675;
681.0000;0.5381;3.2651;
681.3000;0.5372;3.2579;
681.6000;0.5397;3.2675;
681.9000;0.5356;3.2508;
682.2000;0.5364;3.2555;
682.5000;0.5381;3.2508;
682.8000;0.5364;3.2484;
683.1000;0.5340;3.2555;
683.4000;0.5315;3.2531;
683.7000;0.5356;3.2675;
684.0000;0.5348;3.2675;
684.3000;0.5315;3.2555;
684.6000;0.5324;3.2627;
684.9000;0.5299;3.2651;
685.2000;0.5348;3.2723;
685.5000;0.5332;3.2675;
685.8000;0.5324;3.2651;
686.1000;0.5332;3.2579;
686.4000;0.5372;3.2747;
686.7000;0.5348;3.2675;
687.0000;0.5332;3.2603;
687.3000;0.5332;3.2627;
687.6000;0.5332;3.2579;
687.9000;0.5332;3.2603;
688.2000;0.5340;3.2627;
688.5000;0.5356;3.2531;
688.8000;0.5364;3.2555;
689.1000;0.5332;3.2555;
689.4000;0.5340;3.2579;
689.7000;0.5332;3.2603;
690.0000;0.5332;3.2579;
690.3000;0.5307;3.2531;
690.6000;0.5324;3.2531;
690.9000;0.5340;3.2555;
691.2000;0.5348;3.2531;
691.5000;0.5340;3.2651;
691.8000;0.5348;3.2795;
692.1000;0.5340;3.2795;
692.4000;0.5315;3.2675;
692.7000;0.5324;3.2723;
693.0000;0.5340;3.2891;
693.3000;0.5283;3.2771;
693.6000;0.5307;3.2915;
693.9000;0.5291;3.2867;
694.2000;0.5307;3.2891;
694.5000;0.5299;3.2915;
694.8000;0.5307;3.2891;
695.1000;0.5307;3.2915;
695.4000;0.5315;3.2915;
695.7000;0.5291;3.2915;
696.0000;0.5324;3.2939;
696.3000;0.5372;3.3107;
696.6000;0.5307;3.2915;
696.9000;0.5381;3.3131;
697.2000;0.5283;3.2939;
697.5000;0.5299;3.3059;
697.8000;0.5291;3.3011;
698.1000;0.5299;3.2963;
698.4000;0.5315;3.3059;
698.7000;0.5356;3.3059;
699.0000;0.5299;3.2915;
699.3000;0.5324;3.2963;
699.6000;0.5275;3.2771;
699.9000;0.5234;3.2699;
700.2000;0.5267;3.2891;
700.5000;0.5283;3.2987;
700.8000;0.5283;3.2939;
701.1000;0.5234;3.2771;
701.4000;0.5275;3.2819;
701.7000;0.5299;3.2867;
702.0000;0.5275;3.2867;
702.3000;0.5258;3.2819;
702.6000;0.5275;3.2915;
702.9000;0.5364;3.3131;
703.2000;0.5201;3.2699;
703.5000;0.5258;3.2771;
703.8000;0.5340;3.3059;
704.1000;0.5283;3.2891;
704.4000;0.5275;3.2891;
704.7000;0.5242;3.2819;
705.0000;0.5275;3.2939;
705.3000;0.5299;3.3179;
705.6000;0.5258;3.3059;
705.9000;0.5250;3.2987;
706.2000;0.5258;3.3011;
706.5000;0.5267;3.3011;
706.8000;0.5275;3.3131;
707.1000;0.5267;3.3131;
707.4000;0.5218;3.3059;
707.7000;0.5258;3.3059;
708.0000;0.5267;3.3107;
708.3000;0.5250;3.3107;
708.6000;0.5242;3.3179;
708.9000;0.5258;3.3251;
709.2000;0.5250;3.3227;
709.5000;0.5250;3.3227;
709.8000;0.5258;3.3107;
710.1000;0.5267;3.3083;
710.4000;0.5226;3.3011;
710.7000;0.5234;3.3155;
711.0000;0.5250;3.3107;
711.3000;0.5250;3.3035;
711.6000;0.5242;3.2963;
711.9000;0.5250;3.2963;
712.2000;0.5258;3.2915;
712.5000;0.5242;3.2819;
712.8000;0.5267;3.2939;
713.1000;0.5218;3.2963;
713.4000;0.5250;3.2987;
713.7000;0.5234;3.3011;
714.0000;0.5250;3.3131;
714.3000;0.5258;3.3131;
714.6000;0.5136;3.2843;
714.9000;0.5193;3.2915;
715.2000;0.5201;3.2939;
715.5000;0.5250;3.3011;
715.8000;0.5234;3.2939;
716.1000;0.5250;3.3011;
716.4000;0.5177;3.2843;
716.7000;0.5242;3.3035;
717.0000;0.5242;3.3059;
717.3000;0.5226;3.3035;
717.6000;0.5234;3.3155;
717.9000;0.5258;3.3155;
718.2000;0.5234;3.3083;
718.5000;0.5210;3.3131;
718.8000;0.5234;3.3131;
719.1000;0.5218;3.3011;
719.4000;0.5226;3.3059;
719.7000;0.5177;3.2963;
720.0000;0.5201;3.2963;
720.3000;0.5226;3.2987;
720.6000;0.5226;3.3011;
720.9000;0.5201;3.2963;
721.2000;0.5169;3.2867;
721.5000;0.5258;3.3011;
721.8000;0.5218;3.2939;
722.1000;0.5177;3.2915;
722.4000;0.5201;3.3011;
722.7000;0.5185;3.2963;
723.0000;0.5226;3.3107;
723.3000;0.5218;3.3179;
723.6000;0.5226;3.3227;
723.9000;0.5201;3.3251;
724.2000;0.5218;3.3275;
724.5000;0.5193;3.3155;
724.8000;0.5161;3.3131;
725.1000;0.5201;3.3299;
725.4000;0.5242;3.3371;
725.7000;0.5226;3.3251;
726.0000;0.5218;3.3203;
726.3000;0.5234;3.3251;
726.6000;0.5210;3.3155;
726.9000;0.5201;3.3107;
727.2000;0.5193;3.3035;
727.5000;0.5218;3.3131;
727.8000;0.5210;3.3107;
728.1000;0.5218;3.3179;
728.4000;0.5169;3.3059;
728.7000;0.5193;3.3131;
729.0000;0.5201;3.3179;
729.3000;0.5275;3.3251;
729.6000;0.5226;3.3083;
729.9000;0.5153;3.2987;
730.2000;0.5177;3.3083;
730.5000;0.5177;3.3011;
730.8000;0.5112;3.2915;
731.1000;0.5201;3.3083;
731.4000;0.5177;3.3011;
731.7000;0.5177;3.3083;
732.0000;0.5177;3.3131;
732.3000;0.5193;3.3179;
732.6000;0.5193;3.3227;
732.9000;0.5193;3.3227;
733.2000;0.5185;3.3203;
733.5000;0.5193;3.3227;
733.8000;0.5169;3.3131;
734.1000;0.5193;3.3227;
734.4000;0.5177;3.3203;
734.7000;0.5193;3.3179;
735.0000;0.5153;3.3083;
735.3000;0.5144;3.3035;
735.6000;0.5136;3.2915;
735.9000;0.5210;3.3131;
736.2000;0.5193;3.3011;
736.5000;0.5177;3.2963;
736.8000;0.5275;3.3203;
737.1000;0.5104;3.2843;
737.4000;0.5218;3.3131;
737.7000;0.5161;3.2987;
738.0000;0.5193;3.2939;
738.3000;0.5185;3.2915;
738.6000;0.5104;3.2723;
738.9000;0.5177;3.2915;
739.2000;0.5136;3.2867;
739.5000;0.5242;3.3107;
739.8000;0.5185;3.2843;
740.1000;0.5193;3.2843;
740.4000;0.5169;3.2723;
740.7000;0.5177;3.2795;
741.0000;0.5193;3.2891;
741.3000;0.5169;3.2843;
741.6000;0.5169;3.2795;
741.9000;0.5144;3.2795;
742.2000;0.5177;3.2891;
742.5000;0.5144;3.2795;
742.8000;0.5161;3.2891;
743.1000;0.5210;3.3059;
743.4000;0.5185;3.2987;
743.7000;0.5210;3.2987;
744.0000;0.5161;3.2843;
744.3000;0.5177;3.2843;
744.6000;0.5161;3.2843;
744.9000;0.5210;3.2939;
745.2000;0.5153;3.2867;
745.5000;0.5153;3.2939;
745.8000;0.5128;3.2939;
746.1000;0.5177;3.2939;
746.4000;0.5169;3.2939;
746.7000;0.5161;3.2939;
747.0000;0.5201;3.3083;
747.3000;0.5153;3.3011;
747.6000;0.5153;3.3059;
747.9000;0.5096;3.2867;
748.2000;0.5218;3.3155;
748.5000;0.5144;3.3107;
748.8000;0.5144;3.3203;
749.1000;0.5193;3.3347;
749.4000;0.5161;3.3299;
749.7000;0.5153;3.3371;
750.0000;0.5161;3.3347;
750.3000;0.5193;3.3467;
750.6000;0.5153;3.3347;
750.9000;0.5161;3.3347;
751.2000;0.5169;3.3347;
751.5000;0.5161;3.3371;
751.8000;0.5153;3.3371;
752.1000;0.5153;3.3371;
752.4000;0.5153;3.3323;
752.7000;0.5226;3.3467;
753.0000;0.5169;3.3371;
753.3000;0.5161;3.3347;
753.6000;0.5161;3.3395;
753.9000;0.5153;3.3299;
754.2000;0.5153;3.3347;
754.5000;0.5169;3.3371;
754.8000;0.5169;3.3395;
755.1000;0.5144;3.3299;
755.4000;0.5161;3.3323;
755.7000;0.5128;3.3299;
756.0000;0.5234;3.3539;
756.3000;0.5128;3.3323;
756.6000;0.5136;3.3347;
756.9000;0.5136;3.3299;
757.2000;0.5153;3.3299;
757.5000;0.5169;3.3299;
757.8000;0.5169;3.3395;
758.1000;0.5120;3.3299;
758.4000;0.5104;3.3155;
758.7000;0.5144;3.3347;
759.0000;0.5169;3.3443;
759.3000;0.5153;3.3347;
759.6000;0.5120;3.3323;
759.9000;0.5153;3.3323;
760.2000;0.5144;3.3299;
760.5000;0.5120;3.3299;
760.8000;0.5128;3.3395;
761.1000;0.5144;3.3395;
761.4000;0.5144;3.3395;
761.7000;0.5153;3.3419;
762.0000;0.5153;3.3371;
762.3000;0.5079;3.3155;
762.6000;0.5153;3.3347;
762.9000;0.5136;3.3371;
763.2000;0.5210;3.3587;
763.5000;0.5144;3.3467;
763.8000;0.5088;3.3347;
764.1000;0.5104;3.3515;
764.4000;0.5120;3.3611;
764.7000;0.5128;3.3635;
765.0000;0.5136;3.3539;
765.3000;0.5153;3.3515;
765.6000;0.5128;3.3443;
765.9000;0.5120;3.3347;
766.2000;0.5128;3.3347;
766.5000;0.5136;3.3299;
766.8000;0.5112;3.3227;
767.1000;0.5120;3.3299;
767.4000;0.5128;3.3395;
767.7000;0.5079;3.3275;
768.0000;0.5136;3.3443;
768.3000;0.5144;3.3515;
768.6000;0.5128;3.3515;
768.9000;0.5201;3.3659;
769.2000;0.5136;3.3491;
769.5000;0.5128;3.3491;
769.8000;0.5128;3.3467;
770.1000;0.5169;3.3467;
770.4000;0.5136;3.3419;
770.7000;0.5104;3.3347;
771.0000;0.5096;3.3347;
771.3000;0.5096;3.3347;
771.6000;0.5112;3.3347;
771.9000;0.5128;3.3419;
772.2000;0.5120;3.3371;
772.5000;0.5112;3.3323;
772.8000;0.5153;3.3395;
773.1000;0.5136;3.3347;
773.4000;0.5104;3.3275;
773.7000;0.5120;3.3299;
774.0000;0.5128;3.3275;
774.3000;0.5006;3.3035;
774.6000;0.5144;3.3419;
774.9000;0.5136;3.3419;
775.2000;0.5088;3.3419;
775.5000;0.5136;3.3539;
775.8000;0.5128;3.3395;
776.1000;0.5128;3.3371;
776.4000;0.5136;3.3395;
776.7000;0.5096;3.3323;
777.0000;0.5112;3.3395;
777.3000;0.5112;3.3347;
777.6000;0.5112;3.3323;
777.9000;0.5120;3.3275;
778.2000;0.5104;3.3251;
778.5000;0.5096;3.3155;
778.8000;0.5136;3.3371;
779.1000;0.5120;3.3323;
779.4000;0.5128;3.3275;
779.7000;0.5144;3.3323;
780.0000;0.5128;3.3347;
780.3000;0.5112;3.3299;
780.6000;0.5104;3.3347;
780.9000;0.5104;3.3371;
781.2000;0.5096;3.3275;
781.5000;0.5120;3.3275;
781.8000;0.5112;3.3299;
782.1000;0.5104;3.3251;
782.4000;0.5120;3.3299;
782.7000;0.5104;3.3299;
783.0000;0.5096;3.3347;
783.3000;0.5096;3.3323;
783.6000;0.5112;3.3371;
783.9000;0.5161;3.3347;
784.2000;0.5088;3.3251;
784.5000;0.5120;3.3323;
784.8000;0.5104;3.3299;
785.1000;0.5112;3.3299;
785.4000;0.5153;3.3443;
785.7000;0.5104;3.3347;
786.0000;0.5096;3.3251;
786.3000;0.5104;3.3083;
786.6000;0.5104;3.3179;
786.9000;0.5128;3.3251;
787.2000;0.5112;3.3227;
787.5000;0.5112;3.3251;
787.8000;0.5120;3.3323;
788.1000;0.5120;3.3275;
788.4000;0.5112;3.3299;
788.7000;0.5112;3.3251;
789.0000;0.5104;3.3299;
789.3000;0.5096;3.3275;
789.6000;0.5120;3.3419;
789.9000;0.5088;3.3323;
790.2000;0.5079;3.3323;
790.5000;0.5088;3.3275;
790.8000;0.5096;3.3227;
791.1000;0.5096;3.3299;
791.4000;0.5104;3.3251;
791.7000;0.5112;3.3323;
792.0000;0.5088;3.3251;
792.3000;0.5128;3.3443;
792.6000;0.5096;3.3347;
792.9000;0.5096;3.3323;
793.2000;0.5096;3.3371;
793.5000;0.5071;3.3251;
793.8000;0.5104;3.3395;
794.1000;0.5104;3.3467;
794.4000;0.5104;3.3491;
794.7000;0.5088;3.3467;
795.0000;0.5079;3.3419;
795.3000;0.5079;3.3323;
795.6000;0.5104;3.3395;
795.9000;0.5104;3.3419;
796.2000;0.5096;3.3323;
796.5000;0.5079;3.3275;
796.8000;0.5120;3.3347;
797.1000;0.5088;3.3347;
797.4000;0.5161;3.3515;
797.7000;0.5088;3.3347;
798.0000;0.5096;3.3323;
798.3000;0.5112;3.3395;
798.6000;0.5104;3.3251;
798.9000;0.5096;3.3299;
799.2000;0.5088;3.3395;
799.5000;0.5104;3.3443;
799.8000;0.5096;3.3419;
800.1000;0.5096;3.3323;
800.4000;0.5088;3.3323;
800.7000;0.5079;3.3347;
801.0000;0.5088;3.3323;
801.3000;0.5096;3.3347;
801.6000;0.5104;3.3251;
801.9000;0.5071;3.3251;
802.2000;0.5088;3.3299;
802.5000;0.5071;3.3323;
802.8000;0.5096;3.3443;
803.1000;0.5088;3.3371;
803.4000;0.5096;3.3419;
803.7000;0.5096;3.3443;
804.0000;0.5079;3.3395;
804.3000;0.5096;3.3515;
804.6000;0.5071;3.3467;
804.9000;0.5063;3.3443;
805.2000;0.5088;3.3467;
805.5000;0.5063;3.3395;
805.8000;0.5169;3.3707;
806.1000;0.5079;3.3371;
806.4000;0.5079;3.3419;
806.7000;0.5039;3.3323;
807.0000;0.5096;3.3419;
807.3000;0.5022;3.3227;
807.6000;0.5104;3.3467;
807.9000;0.5088;3.3467;
808.2000;0.5104;3.3491;
808.5000;0.5039;3.3347;
808.8000;0.5096;3.3563;
809.1000;0.5096;3.3611;
809.4000;0.5096;3.3707;
809.7000;0.5144;3.3731;
810.0000;0.5088;3.3611;
810.3000;0.5079;3.3563;
810.6000;0.5063;3.3491;
810.9000;0.5096;3.3539;
811.2000;0.5104;3.3659;
811.5000;0.5088;3.3635;
811.8000;0.5055;3.3635;
812.1000;0.5079;3.3731;
812.4000;0.5071;3.3659;
812.7000;0.5112;3.3755;
813.0000;0.5104;3.3707;
813.3000;0.5088;3.3731;
813.6000;0.5144;3.3851;
813.9000;0.5047;3.3635;
814.2000;0.5079;3.3731;
814.5000;0.5055;3.3635;
814.8000;0.5063;3.3635;
815.1000;0.5112;3.3683;
815.4000;0.5088;3.3491;
815.7000;0.5022;3.3323;
816.0000;0.5136;3.3539;
816.3000;0.5079;3.3467;
816.6000;0.5071;3.3467;
816.9000;0.5055;3.3419;
817.2000;0.5153;3.3707;
817.5000;0.5071;3.3443;
817.8000;0.5071;3.3491;
818.1000;0.4982;3.3299;
818.4000;0.5161;3.3827;
818.7000;0.5063;3.3635;
819.0000;0.5055;3.3563;
819.3000;0.5120;3.3731;
819.6000;0.5071;3.3587;
819.9000;0.5096;3.3635;
820.2000;0.5071;3.3587;
820.5000;0.5063;3.3539;
820.8000;0.5071;3.3491;
821.1000;0.5071;3.3419;
821.4000;0.5079;3.3491;
821.7000;0.5063;3.3467;
822.0000;0.5014;3.3299;
822.3000;0.5039;3.3419;
822.6000;0.5088;3.3563;
822.9000;0.5071;3.3491;
823.2000;0.5047;3.3443;
823.5000;0.5063;3.3539;
823.8000;0.5039;3.3563;
824.1000;0.5047;3.3587;
824.4000;0.5079;3.3635;
824.7000;0.5079;3.3635;
825.0000;0.5088;3.3659;
825.3000;0.5063;3.3659;
825.6000;0.5071;3.3707;
825.9000;0.5071;3.3635;
826.2000;0.5047;3.3563;
826.5000;0.5071;3.3683;
826.8000;0.5063;3.3611;
827.1000;0.5063;3.3587;
827.4000;0.5088;3.3587;
827.7000;0.5128;3.3779;
828.0000;0.5071;3.3731;
828.3000;0.5088;3.3683;
828.6000;0.5063;3.3707;
828.9000;0.5079;3.3683;
829.2000;0.5031;3.3491;
829.5000;0.5104;3.3635;
829.8000;0.5071;3.3491;
830.1000;0.5128;3.3731;
830.4000;0.5006;3.3347;
830.7000;0.5031;3.3395;
831.0000;0.5079;3.3443;
831.3000;0.5031;3.3275;
831.6000;0.4949;3.3179;
831.9000;0.5112;3.3587;
832.2000;0.5047;3.3467;
832.5000;0.5104;3.3491;
832.8000;0.5055;3.3371;
833.1000;0.5063;3.3419;
833.4000;0.5063;3.3419;
833.7000;0.5071;3.3347;
834.0000;0.5096;3.3395;
834.3000;0.5047;3.3275;
834.6000;0.5088;3.3395;
834.9000;0.5071;3.3371;
835.2000;0.5055;3.3347;
835.5000;0.5006;3.3155;
835.8000;0.5055;3.3227;
836.1000;0.5055;3.3299;
836.4000;0.5104;3.3491;
836.7000;0.5047;3.3347;
837.0000;0.5055;3.3395;
837.3000;0.5079;3.3467;
837.6000;0.5079;3.3395;
837.9000;0.5055;3.3419;
838.2000;0.5031;3.3323;
838.5000;0.5063;3.3395;
838.8000;0.5071;3.3443;
839.1000;0.5006;3.3131;
839.4000;0.5055;3.3251;
839.7000;0.5039;3.3131;
840.0000;0.5055;3.3275;
840.3000;0.5063;3.3347;
840.6000;0.5063;3.3395;
840.9000;0.5014;3.3251;
841.2000;0.5079;3.3371;
841.5000;0.5039;3.3251;
841.8000;0.5039;3.3347;
842.1000;0.5063;3.3323;
842.4000;0.5039;3.3323;
842.7000;0.5055;3.3395;
843.0000;0.5047;3.3443;
843.3000;0.5047;3.3443;
843.6000;0.5039;3.3443;
843.9000;0.5055;3.3491;
844.2000;0.5047;3.3539;
844.5000;0.5031;3.3443;
844.8000;0.5071;3.3611;
845.1000;0.5071;3.3539;
845.4000;0.5047;3.3419;
845.7000;0.5063;3.3419;
846.0000;0.5055;3.3491;
846.3000;0.5039;3.3443;
846.6000;0.5047;3.3443;
846.9000;0.5071;3.3539;
847.2000;0.5039;3.3563;
847.5000;0.5071;3.3659;
847.8000;0.5055;3.3635;
848.1000;0.5039;3.3611;
848.4000;0.5120;3.3827;
848.7000;0.5039;3.3635;
849.0000;0.5039;3.3563;
849.3000;0.5055;3.3587;
849.6000;0.5055;3.3611;
849.9000;0.5055;3.3587;
850.2000;0.5063;3.3635;
850.5000;0.5047;3.3611;
850.8000;0.5014;3.3467;
851.1000;0.5063;3.3539;
851.4000;0.5047;3.3467;
851.7000;0.5055;3.3419;
852.0000;0.5014;3.3275;
852.3000;0.5047;3.3419;
852.6000;0.5071;3.3539;
852.9000;0.5071;3.3443;
853.2000;0.5063;3.3515;
853.5000;0.5120;3.3731;
853.8000;0.5047;3.3611;
854.1000;0.5047;3.3611;
854.4000;0.5014;3.3611;
854.7000;0.5039;3.3803;
855.0000;0.5031;3.3779;
855.3000;0.5039;3.3659;
855.6000;0.5022;3.3611;
855.9000;0.5039;3.3587;
856.2000;0.5047;3.3659;
856.5000;0.5031;3.3539;
856.8000;0.5063;3.3539;
857.1000;0.5055;3.3539;
857.4000;0.5039;3.3515;
857.7000;0.5047;3.3419;
858.0000;0.5096;3.3563;
858.3000;0.5055;3.3515;
858.6000;0.5047;3.3443;
858.9000;0.5055;3.3491;
859.2000;0.5063;3.3587;
859.5000;0.5055;3.3683;
859.8000;0.5031;3.3635;
860.1000;0.5031;3.3683;
860.4000;0.5031;3.3707;
860.7000;0.5047;3.3683;
861.0000;0.5055;3.3755;
861.3000;0.5031;3.3755;
861.6000;0.5047;3.3851;
861.9000;0.5047;3.3827;
862.2000;0.5039;3.3731;
862.5000;0.5022;3.3659;
862.8000;0.5031;3.3635;
863.1000;0.5055;3.3659;
863.4000;0.5014;3.3467;
863.7000;0.5014;3.3563;
864.0000;0.5055;3.3635;
864.3000;0.5006;3.3587;
864.6000;0.5031;3.3587;
864.9000;0.4990;3.3587;
865.2000;0.5120;3.3875;
865.5000;0.5031;3.3635;
865.8000;0.5031;3.3563;
866.1000;0.5088;3.3707;
866.4000;0.5006;3.3491;
866.7000;0.5047;3.3515;
867.0000;0.5047;3.3491;
867.3000;0.4998;3.3491;
867.6000;0.5022;3.3539;
867.9000;0.5039;3.3611;
868.2000;0.5039;3.3635;
868.5000;0.5031;3.3587;
868.8000;0.5047;3.3635;
869.1000;0.5031;3.3515;
869.4000;0.5055;3.3419;
869.7000;0.5039;3.3395;
870.0000;0.5022;3.3371;
870.3000;0.5039;3.3395;
870.6000;0.5022;3.3371;
870.9000;0.5039;3.3419;
871.2000;0.5047;3.3419;
871.5000;0.5006;3.3371;
871.8000;0.5022;3.3395;
872.1000;0.5047;3.3467;
872.4000;0.5039;3.3563;
872.7000;0.5022;3.3683;
873.0000;0.5039;3.3683;
873.3000;0.5047;3.3803;
873.6000;0.5006;3.3731;
873.9000;0.5063;3.3755;
874.2000;0.5022;3.3587;
874.5000;0.5014;3.3539;
874.8000;0.5120;3.3803;
875.1000;0.5039;3.3635;
875.4000;0.5063;3.3635;
875.7000;0.5031;3.3611;
876.0000;0.5136;3.3875;
876.3000;0.5055;3.3635;
876.6000;0.5039;3.3515;
876.9000;0.5063;3.3611;
877.2000;0.5039;3.3539;
877.5000;0.5022;3.3515;
877.8000;0.4990;3.3371;
878.1000;0.4974;3.3347;
878.4000;0.5006;3.3347;
878.7000;0.5031;3.3467;
879.0000;0.5079;3.3635;
879.3000;0.5047;3.3611;
879.6000;0.4998;3.3491;
879.9000;0.5031;3.3515;
880.2000;0.5022;3.3515;
880.5000;0.5039;3.3587;
880.8000;0.5047;3.3659;
881.1000;0.5047;3.3611;
881.4000;0.5039;3.3563;
881.7000;0.5031;3.3515;
882.0000;0.5022;3.3467;
882.3000;0.5055;3.3515;
882.6000;0.5063;3.3563;
882.9000;0.5022;3.3563;
883.2000;0.5022;3.3635;
883.5000;0.5022;3.3635;
883.8000;0.5014;3.3587;
884.1000;0.5120;3.3779;
884.4000;0.5006;3.3491;
884.7000;0.5039;3.3515;
885.0000;0.5031;3.3467;
885.3000;0.5006;3.3347;
885.6000;0.5031;3.3419;
885.9000;0.5047;3.3467;
886.2000;0.5014;3.3323;
886.5000;0.5031;3.3443;
886.8000;0.5039;3.3443;
887.1000;0.5014;3.3371;
887.4000;0.5071;3.3587;
887.7000;0.5006;3.3443;
888.0000;0.5022;3.3515;
888.3000;0.5022;3.3491;
888.6000;0.5031;3.3467;
888.9000;0.5022;3.3395;
889.2000;0.5031;3.3467;
889.5000;0.5014;3.3491;
889.8000;0.5047;3.3515;
890.1000;0.5047;3.3515;
890.4000;0.5022;3.3515;
890.7000;0.5039;3.3587;
891.0000;0.5031;3.3587;
891.3000;0.5006;3.3491;
891.6000;0.5006;3.3371;
891.9000;0.5039;3.3443;
892.2000;0.5039;3.3419;
892.5000;0.5014;3.3395;
892.8000;0.5031;3.3443;
893.1000;0.5031;3.3419;
893.4000;0.5039;3.3419;
893.7000;0.5006;3.3275;
894.0000;0.5006;3.3275;
894.3000;0.5031;3.3323;
894.6000;0.5031;3.3347;
894.9000;0.5047;3.3347;
895.2000;0.5022;3.3323;
895.5000;0.5022;3.3275;
895.8000;0.5022;3.3275;
896.1000;0.5014;3.3275;
896.4000;0.5031;3.3323;
896.7000;0.5006;3.3323;
897.0000;0.5063;3.3491;
897.3000;0.5022;3.3299;
897.6000;0.5006;3.3299;
897.9000;0.5063;3.3419;
898.2000;0.5014;3.3251;
898.5000;0.5022;3.3323;
898.8000;0.5039;3.3323;
899.1000;0.5006;3.3227;
899.4000;0.5014;3.3347;
899.7000;0.5006;3.3443;
900.0000;0.5022;3.3515;
900.3000;0.5006;3.3443;
900.6000;0.5006;3.3395;
900.9000;0.5022;3.3491;
901.2000;0.4974;3.3347;
901.5000;0.5014;3.3419;
901.8000;0.5039;3.3467;
902.1000;0.5014;3.3467;
902.4000;0.4998;3.3467;
902.7000;0.4990;3.3467;
903.0000;0.5006;3.3587;
903.3000;0.5031;3.3611;
903.6000;0.5022;3.3515;
903.9000;0.5014;3.3467;
904.2000;0.5047;3.3539;
904.5000;0.5039;3.3539;
904.8000;0.5031;3.3467;
905.1000;0.5022;3.3443;
905.4000;0.5022;3.3491;
905.7000;0.5006;3.3371;
906.0000;0.5014;3.3299;
906.3000;0.5031;3.3323;
906.6000;0.5031;3.3419;
906.9000;0.4998;3.3467;
907.2000;0.4998;3.3419;
907.5000;0.5031;3.3491;
907.8000;0.5014;3.3443;
908.1000;0.4990;3.3323;
908.4000;0.5014;3.3395;
908.7000;0.5022;3.3419;
909.0000;0.4998;3.3371;
909.3000;0.4998;3.3347;
909.6000;0.5006;3.3347;
909.9000;0.5014;3.3347;
910.2000;0.5031;3.3491;
910.5000;0.4982;3.3323;
910.8000;0.4941;3.3107;
911.1000;0.5022;3.3371;
911.4000;0.4982;3.3251;
911.7000;0.5079;3.3587;
912.0000;0.5014;3.3347;
912.3000;0.5022;3.3395;
912.6000;0.4998;3.3347;
912.9000;0.5014;3.3467;
913.2000;0.5006;3.3467;
913.5000;0.5006;3.3371;
913.8000;0.5014;3.3443;
914.1000;0.5006;3.3371;
914.4000;0.5006;3.3419;
914.7000;0.5014;3.3443;
915.0000;0.5022;3.3467;
915.3000;0.5031;3.3419;
915.6000;0.4998;3.3395;
915.9000;0.5039;3.3419;
916.2000;0.5014;3.3395;
916.5000;0.5006;3.3299;
916.8000;0.5014;3.3275;
917.1000;0.5006;3.3251;
917.4000;0.5014;3.3251;
917.7000;0.5022;3.3275;
918.0000;0.5031;3.3347;
918.3000;0.5014;3.3371;
918.6000;0.5014;3.3395;
918.9000;0.5022;3.3443;
919.2000;0.5014;3.3395;
919.5000;0.5006;3.3323;
919.8000;0.5031;3.3419;
920.1000;0.5014;3.3371;
920.4000;0.5022;3.3395;
920.7000;0.4998;3.3347;
921.0000;0.4998;3.3395;
921.3000;0.5006;3.3515;
921.6000;0.4998;3.3419;
921.9000;0.5014;3.3443;
922.2000;0.5039;3.3539;
922.5000;0.5112;3.3707;
922.8000;0.5006;3.3467;
923.1000;0.4965;3.3347;
923.4000;0.5014;3.3539;
923.7000;0.5014;3.3611;
924.0000;0.5022;3.3587;
924.3000;0.4998;3.3539;
924.6000;0.4941;3.3347;
924.9000;0.4998;3.3539;
925.2000;0.5014;3.3587;
925.5000;0.4933;3.3371;
925.8000;0.5006;3.3539;
926.1000;0.5006;3.3515;
926.4000;0.4998;3.3371;
926.7000;0.5014;3.3371;
927.0000;0.4998;3.3347;
927.3000;0.5006;3.3491;
927.6000;0.4982;3.3419;
927.9000;0.5022;3.3539;
928.2000;0.5022;3.3563;
928.5000;0.4998;3.3539;
928.8000;0.5006;3.3635;
929.1000;0.5014;3.3731;
929.4000;0.4998;3.3683;
929.7000;0.5006;3.3611;
930.0000;0.5006;3.3611;
930.3000;0.4990;3.3539;
930.6000;0.5006;3.3515;
930.9000;0.4974;3.3419;
931.2000;0.5006;3.3467;
931.5000;0.4998;3.3443;
931.8000;0.4990;3.3467;
932.1000;0.4990;3.3491;
932.4000;0.4982;3.3467;
932.7000;0.5014;3.3515;
933.0000;0.5022;3.3491;
933.3000;0.5014;3.3323;
933.6000;0.4998;3.3347;
933.9000;0.4933;3.3155;
934.2000;0.5014;3.3323;
934.5000;0.5006;3.3299;
934.8000;0.5006;3.3347;
935.1000;0.4957;3.3347;
935.4000;0.4998;3.3443;
935.7000;0.4998;3.3371;
936.0000;0.4998;3.3395;
936.3000;0.4965;3.3395;
936.6000;0.5014;3.3491;
936.9000;0.5006;3.3539;
937.2000;0.5022;3.3611;
937.5000;0.4982;3.3563;
937.8000;0.5022;3.3539;
938.1000;0.5022;3.3395;
938.4000;0.4998;3.3371;
938.7000;0.4998;3.3467;
939.0000;0.4998;3.3467;
939.3000;0.4998;3.3467;
939.6000;0.4982;3.3395;
939.9000;0.5014;3.3491;
940.2000;0.5014;3.3587;
940.5000;0.4998;3.3587;
940.8000;0.4998;3.3659;
941.1000;0.4982;3.3611;
941.4000;0.5006;3.3539;
941.7000;0.5006;3.3491;
942.0000;0.4998;3.3419;
942.3000;0.5006;3.3587;
942.6000;0.4982;3.3467;
942.9000;0.4974;3.3491;
943.2000;0.5014;3.3539;
943.5000;0.4982;3.3347;
943.8000;0.4998;3.3323;
944.1000;0.4998;3.3395;
944.4000;0.4974;3.3347;
944.7000;0.5006;3.3395;
945.0000;0.5006;3.3419;
945.3000;0.4998;3.3395;
945.6000;0.4982;3.3395;
945.9000;0.5006;3.3419;
946.2000;0.4990;3.3395;
946.5000;0.4998;3.3443;
946.8000;0.4990;3.3419;
947.1000;0.4949;3.3395;
947.4000;0.5047;3.3635;
947.7000;0.4990;3.3563;
948.0000;0.4998;3.3587;
948.3000;0.5022;3.3563;
948.6000;0.4990;3.3467;
948.9000;0.5006;3.3611;
949.2000;0.4998;3.3635;
949.5000;0.5079;3.3755;
949.8000;0.5014;3.3587;
950.1000;0.5055;3.3803;
950.4000;0.5006;3.3635;
950.7000;0.5014;3.3755;
951.0000;0.4998;3.3731;
951.3000;0.4982;3.3587;
951.6000;0.5022;3.3683;
951.9000;0.5022;3.3659;
952.2000;0.5006;3.3635;
952.5000;0.5014;3.3563;
952.8000;0.5006;3.3611;
953.1000;0.4998;3.3659;
953.4000;0.5022;3.3683;
953.7000;0.5031;3.3635;
954.0000;0.5014;3.3587;
954.3000;0.5022;3.3563;
954.6000;0.5014;3.3539;
954.9000;0.5006;3.3539;
955.2000;0.5014;3.3491;
955.5000;0.4998;3.3515;
955.8000;0.4998;3.3491;
956.1000;0.4974;3.3443;
956.4000;0.4990;3.3515;
956.7000;0.4990;3.3443;
957.0000;0.4974;3.3347;
957.3000;0.5014;3.3395;
957.6000;0.4990;3.3419;
957.9000;0.4982;3.3371;
958.2000;0.5006;3.3467;
958.5000;0.4990;3.3515;
958.8000;0.4998;3.3467;
959.1000;0.5006;3.3563;
959.4000;0.4998;3.3515;
959.7000;0.4990;3.3467;
960.0000;0.4982;3.3395;
960.3000;0.4998;3.3443;
960.6000;0.5006;3.3467;
960.9000;0.4957;3.3419;
961.2000;0.5006;3.3563;
961.5000;0.4998;3.3539;
961.8000;0.5039;3.3587;
962.1000;0.4998;3.3539;
962.4000;0.5014;3.3491;
962.7000;0.5006;3.3563;
963.0000;0.5006;3.3635;
963.3000;0.5014;3.3635;
963.6000;0.5014;3.3587;
963.9000;0.5047;3.3659;
964.2000;0.4974;3.3467;
964.5000;0.5006;3.3539;
964.8000;0.4941;3.3515;
965.1000;0.4982;3.3587;
965.4000;0.4990;3.3755;
965.7000;0.5031;3.3827;
966.0000;0.4990;3.3755;
966.3000;0.5006;3.3779;
966.6000;0.4965;3.3659;
966.9000;0.4974;3.3611;
967.2000;0.4998;3.3659;
967.5000;0.4990;3.3611;
967.8000;0.4974;3.3563;
968.1000;0.4982;3.3707;
968.4000;0.4974;3.3707;
968.7000;0.4917;3.3539;
969.0000;0.4998;3.3707;
969.3000;0.4965;3.3707;
969.6000;0.5014;3.3731;
969.9000;0.4990;3.3635;
970.2000;0.4982;3.3635;
970.5000;0.4974;3.3587;
970.8000;0.4990;3.3611;
971.1000;0.4998;3.3683;
971.4000;0.4949;3.3491;
971.7000;0.4990;3.3587;
972.0000;0.4998;3.3635;
972.3000;0.4974;3.3611;
972.6000;0.5006;3.3683;
972.9000;0.4949;3.3563;
973.2000;0.4990;3.3659;
973.5000;0.4982;3.3683;
973.8000;0.4990;3.3707;
974.1000;0.5039;3.3707;
974.4000;0.4965;3.3539;
974.7000;0.5014;3.3563;
975.0000;0.5006;3.3563;
975.3000;0.5014;3.3659;
975.6000;0.5014;3.3635;
975.9000;0.5014;3.3611;
976.2000;0.4982;3.3491;
976.5000;0.4998;3.3491;
976.8000;0.4965;3.3419;
977.1000;0.5006;3.3467;
977.4000;0.5014;3.3395;
977.7000;0.4965;3.3347;
978.0000;0.4933;3.3275;
978.3000;0.4917;3.3251;
978.6000;0.4982;3.3371;
978.9000;0.4990;3.3443;
979.2000;0.4982;3.3491;
979.5000;0.4990;3.3539;
979.8000;0.4982;3.3539;
980.1000;0.4982;3.3491;
980.4000;0.4990;3.3467;
980.7000;0.4990;3.3587;
981.0000;0.4998;3.3659;
981.3000;0.5022;3.3755;
981.6000;0.4990;3.3611;
981.9000;0.4974;3.3515;
982.2000;0.4998;3.3515;
982.5000;0.4982;3.3563;
982.8000;0.4990;3.3539;
983.1000;0.4998;3.3587;
983.4000;0.5022;3.3563;
983.7000;0.4982;3.3491;
984.0000;0.5047;3.3755;
984.3000;0.4998;3.3587;
984.6000;0.4998;3.3539;
984.9000;0.4957;3.3419;
985.2000;0.5014;3.3443;
985.5000;0.4949;3.3371;
985.8000;0.4998;3.3467;
986.1000;0.4990;3.3395;
986.4000;0.4965;3.3371;
986.7000;0.5006;3.3515;
987.0000;0.5047;3.3611;
987.3000;0.5006;3.3491;
987.6000;0.5006;3.3539;
987.9000;0.5022;3.3563;
988.2000;0.5006;3.3587;
988.5000;0.4990;3.3515;
988.8000;0.5006;3.3515;
989.1000;0.4990;3.3515;
989.4000;0.5014;3.3611;
989.7000;0.5006;3.3563;
990.0000;0.4998;3.3563;
990.3000;0.5014;3.3491;
990.6000;0.4990;3.3443;
990.9000;0.4990;3.3443;
991.2000;0.4941;3.3275;
991.5000;0.5006;3.3443;
991.8000;0.5014;3.3419;
992.1000;0.4949;3.3275;
992.4000;0.4974;3.3323;
992.7000;0.4965;3.3299;
993.0000;0.4990;3.3467;
993.3000;0.4982;3.3395;
993.6000;0.4933;3.3371;
993.9000;0.4990;3.3395;
994.2000;0.4998;3.3419;
994.5000;0.5006;3.3467;
994.8000;0.4990;3.3419;
995.1000;0.4990;3.3491;
995.4000;0.4982;3.3467;
995.7000;0.4982;3.3395;
996.0000;0.4957;3.3347;
996.3000;0.4998;3.3419;
996.6000;0.4998;3.3419;
996.9000;0.4990;3.3419;
997.2000;0.4998;3.3443;
997.5000;0.4990;3.3443;
997.8000;0.4949;3.3323;
998.1000;0.4998;3.3467;
998.4000;0.5006;3.3419;
998.7000;0.5014;3.3515;
999.0000;0.5006;3.3491;
999.3000;0.5006;3.3539;
999.6000;0.5006;3.3587;
999.9000;0.5006;3.3659;
1000.2000;0.5014;3.3683;
1000.5000;0.4990;3.3683;
1000.8000;0.4998;3.3707;
1001.1000;0.4974;3.3587;
1001.4000;0.4965;3.3539;
1001.7000;0.4990;3.3539;
1002.0000;0.4982;3.3659;
1002.3000;0.5006;3.3659;
1002.6000;0.4982;3.3611;
1002.9000;0.4982;3.3563;
1003.2000;0.4965;3.3563;
1003.5000;0.5014;3.3611;
1003.8000;0.4941;3.3371;
1004.1000;0.4998;3.3563;
1004.4000;0.4925;3.3539;
1004.7000;0.4998;3.3707;
1005.0000;0.5006;3.3731;
1005.3000;0.4974;3.3659;
1005.6000;0.4965;3.3515;
1005.9000;0.4982;3.3563;
1006.2000;0.4974;3.3611;
1006.5000;0.5006;3.3611;
1006.8000;0.4990;3.3611;
1007.1000;0.4990;3.3539;
1007.4000;0.5039;3.3707;
1007.7000;0.4957;3.3563;
1008.0000;0.4990;3.3611;
1008.3000;0.4998;3.3683;
1008.6000;0.4965;3.3755;
1008.9000;0.4982;3.3851;
1009.2000;0.5006;3.3875;
1009.5000;0.4990;3.3875;
1009.8000;0.4941;3.3755;
1010.1000;0.4974;3.3755;
1010.4000;0.4982;3.3803;
1010.7000;0.4998;3.3827;
1011.0000;0.4990;3.3875;
1011.3000;0.5031;3.3923;
1011.6000;0.4974;3.3731;
1011.9000;0.4998;3.3779;
1012.2000;0.4965;3.3707;
1012.5000;0.4974;3.3779;
1012.8000;0.4990;3.3779;
1013.1000;0.4965;3.3707;
1013.4000;0.4998;3.3755;
1013.7000;0.5047;3.3851;
1014.0000;0.4998;3.3731;
1014.3000;0.4990;3.3731;
1014.6000;0.4982;3.3635;
1014.9000;0.4974;3.3539;
1015.2000;0.4982;3.3515;
1015.5000;0.4998;3.3563;
1015.8000;0.4974;3.3611;
1016.1000;0.4974;3.3491;
1016.4000;0.4957;3.3467;
1016.7000;0.4990;3.3539;
1017.0000;0.4990;3.3563;
1017.3000;0.4974;3.3659;
1017.6000;0.4974;3.3683;
1017.9000;0.4990;3.3755;
1018.2000;0.4990;3.3803;
1018.5000;0.4982;3.3827;
1018.8000;0.4990;3.3755;
1019.1000;0.4965;3.3659;
1019.4000;0.4982;3.3635;
1019.7000;0.5047;3.3755;
1020.0000;0.4982;3.3683;
1020.3000;0.5006;3.3731;
1020.6000;0.5039;3.3731;
1020.9000;0.4998;3.3683;
1021.2000;0.4990;3.3611;
1021.5000;0.4990;3.3563;
1021.8000;0.5022;3.3515;
1022.1000;0.5006;3.3491;
1022.4000;0.4982;3.3419;
1022.7000;0.4974;3.3395;
1023.0000;0.4982;3.3419;
1023.3000;0.4998;3.3515;
1023.6000;0.4982;3.3587;
1023.9000;0.4974;3.3587;
1024.2000;0.4982;3.3635;
1024.5000;0.4974;3.3563;
1024.8000;0.4974;3.3539;
1025.1000;0.4957;3.3491;
1025.4000;0.4974;3.3539;
1025.7000;0.4990;3.3611;
1026.0000;0.4982;3.3683;
1026.3000;0.4974;3.3659;
1026.6000;0.4974;3.3611;
1026.9000;0.4982;3.3539;
1027.2000;0.4982;3.3467;
1027.5000;0.4982;3.3539;
1027.8000;0.4982;3.3587;
1028.1000;0.4990;3.3563;
1028.4000;0.4990;3.3563;
1028.7000;0.4990;3.3563;
1029.0000;0.4933;3.3467;
1029.3000;0.4998;3.3563;
1029.6000;0.5014;3.3635;
1029.9000;0.4990;3.3635;
1030.2000;0.4965;3.3635;
1030.5000;0.4998;3.3707;
1030.8000;0.4982;3.3683;
1031.1000;0.4990;3.3659;
1031.4000;0.4982;3.3563;
1031.7000;0.4990;3.3587;
1032.0000;0.5006;3.3683;
1032.3000;0.5006;3.3635;
1032.6000;0.4982;3.3611;
1032.9000;0.5014;3.3707;
1033.2000;0.4990;3.3707;
1033.5000;0.4982;3.3659;
1033.8000;0.4982;3.3635;
1034.1000;0.4990;3.3539;
1034.4000;0.4982;3.3611;
1034.7000;0.5039;3.3731;
1035.0000;0.5006;3.3515;
1035.3000;0.4974;3.3491;
1035.6000;0.5039;3.3683;
1035.9000;0.5006;3.3635;
1036.2000;0.4990;3.3683;
1036.5000;0.4990;3.3683;
1036.8000;0.4974;3.3635;
1037.1000;0.5022;3.3731;
1037.4000;0.4982;3.3683;
1037.7000;0.4965;3.3659;
1038.0000;0.4965;3.3635;
1038.3000;0.4974;3.3659;
1038.6000;0.5006;3.3707;
1038.9000;0.4998;3.3683;
1039.2000;0.5014;3.3755;
1039.5000;0.4941;3.3563;
1039.8000;0.5006;3.3707;
1040.1000;0.4974;3.3635;
1040.4000;0.5006;3.3635;
1040.7000;0.5006;3.3683;
1041.0000;0.4982;3.3731;
1041.3000;0.4917;3.3515;
1041.6000;0.4965;3.3587;
1041.9000;0.4990;3.3707;
1042.2000;0.4957;3.3683;
1042.5000;0.5022;3.3731;
1042.8000;0.4990;3.3683;
1043.1000;0.4965;3.3611;
1043.4000;0.4998;3.3587;
1043.7000;0.4998;3.3635;
1044.0000;0.4982;3.3611;
1044.3000;0.4982;3.3611;
1044.6000;0.4982;3.3587;
1044.9000;0.5006;3.3755;
1045.2000;0.4974;3.3707;
1045.5000;0.4974;3.3683;
1045.8000;0.4990;3.3611;
1046.1000;0.4990;3.3491;
1046.4000;0.4974;3.3491;
1046.7000;0.5014;3.3563;
1047.0000;0.4965;3.3491;
1047.3000;0.4990;3.3491;
1047.6000;0.4990;3.3515;
1047.9000;0.4941;3.3491;
1048.2000;0.4990;3.3587;
1048.5000;0.4982;3.3563;
1048.8000;0.4982;3.3611;
1049.1000;0.4974;3.3539;
1049.4000;0.4974;3.3563;
1049.7000;0.4974;3.3515;
1050.0000;0.5006;3.3611;
1050.3000;0.4990;3.3635;
1050.6000;0.4974;3.3587;
1050.9000;0.4965;3.3563;
1051.2000;0.4965;3.3611;
1051.5000;0.4941;3.3611;
1051.8000;0.4974;3.3611;
1052.1000;0.4965;3.3539;
1052.4000;0.4892;3.3275;
1052.7000;0.4974;3.3515;
1053.0000;0.4974;3.3587;
1053.3000;0.4982;3.3635;
1053.6000;0.4990;3.3659;
1053.9000;0.4965;3.3635;
1054.2000;0.4990;3.3659;
1054.5000;0.4998;3.3707;
1054.8000;0.4998;3.3611;
1055.1000;0.4990;3.3659;
1055.4000;0.4982;3.3635;
1055.7000;0.4990;3.3683;
1056.0000;0.4974;3.3659;
1056.3000;0.4990;3.3683;
1056.6000;0.4974;3.3659;
1056.9000;0.5047;3.3827;
1057.2000;0.4965;3.3683;
1057.5000;0.4965;3.3635;
1057.8000;0.4990;3.3611;
1058.1000;0.4990;3.3683;
1058.4000;0.4998;3.3707;
1058.7000;0.5014;3.3683;
1059.0000;0.4998;3.3635;
1059.3000;0.4998;3.3635;
1059.6000;0.4990;3.3683;
1059.9000;0.4982;3.3659;
1060.2000;0.4982;3.3731;
1060.5000;0.4998;3.3707;
1060.8000;0.5014;3.3755;
1061.1000;0.4949;3.3563;
1061.4000;0.4941;3.3587;
1061.7000;0.4957;3.3659;
1062.0000;0.4974;3.3659;
1062.3000;0.4965;3.3707;
1062.6000;0.4998;3.3803;
1062.9000;0.4982;3.3779;
1063.2000;0.4965;3.3755;
1063.5000;0.4933;3.3659;
1063.8000;0.4982;3.3755;
1064.1000;0.4998;3.3875;
1064.4000;0.4982;3.3827;
1064.7000;0.4982;3.3803;
1065.0000;0.4982;3.3755;
1065.3000;0.4982;3.3779;
1065.6000;0.4974;3.3731;
1065.9000;0.4990;3.3707;
1066.2000;0.4998;3.3731;
1066.5000;0.4982;3.3635;
1066.8000;0.4982;3.3539;
1067.1000;0.4982;3.3467;
1067.4000;0.4965;3.3371;
1067.7000;0.4982;3.3299;
1068.0000;0.4974;3.3395;
1068.3000;0.4982;3.3467;
1068.6000;0.5055;3.3611;
1068.9000;0.4990;3.3491;
1069.2000;0.4982;3.3587;
1069.5000;0.4974;3.3515;
1069.8000;0.4965;3.3467;
1070.1000;0.4990;3.3563;
1070.4000;0.4990;3.3587;
1070.7000;0.4965;3.3467;
1071.0000;0.4974;3.3539;
1071.3000;0.4974;3.3611;
1071.6000;0.4957;3.3515;
1071.9000;0.4949;3.3419;
1072.2000;0.4965;3.3491;
1072.5000;0.4957;3.3539;
1072.8000;0.5039;3.3659;
1073.1000;0.4957;3.3443;
1073.4000;0.4949;3.3443;
1073.7000;0.4974;3.3491;
1074.0000;0.4925;3.3371;
1074.3000;0.4974;3.3467;
1074.6000;0.4965;3.3491;
1074.9000;0.4990;3.3419;
1075.2000;0.4957;3.3371;
1075.5000;0.4990;3.3443;
1075.8000;0.4965;3.3371;
1076.1000;0.4908;3.3275;
1076.4000;0.5047;3.3659;
1076.7000;0.5014;3.3587;
1077.0000;0.4941;3.3371;
1077.3000;0.4974;3.3347;
1077.6000;0.4974;3.3347;
1077.9000;0.4900;3.3203;
1078.2000;0.4965;3.3347;
1078.5000;0.4982;3.3299;
1078.8000;0.4998;3.3275;
1079.1000;0.4974;3.3227;
1079.4000;0.4990;3.3299;
1079.7000;0.4982;3.3347;
1080.0000;0.4974;3.3323;
1080.3000;0.5006;3.3467;
1080.6000;0.5006;3.3491;
1080.9000;0.4965;3.3443;
1081.2000;0.4949;3.3467;
1081.5000;0.4982;3.3491;
1081.8000;0.4982;3.3491;
1082.1000;0.4965;3.3467;
1082.4000;0.4982;3.3491;
1082.7000;0.4965;3.3467;
1083.0000;0.4974;3.3491;
1083.3000;0.4990;3.3467;
1083.6000;0.4965;3.3371;
1083.9000;0.4974;3.3443;
1084.2000;0.4974;3.3467;
1084.5000;0.4965;3.3539;
1084.8000;0.4949;3.3587;
1085.1000;0.4957;3.3659;
1085.4000;0.4990;3.3707;
1085.7000;0.4957;3.3563;
1086.0000;0.4949;3.3587;
1086.3000;0.4965;3.3659;
1086.6000;0.4957;3.3683;
1086.9000;0.4974;3.3731;
1087.2000;0.4974;3.3683;
1087.5000;0.4949;3.3539;
1087.8000;0.4974;3.3491;
1088.1000;0.4990;3.3467;
1088.4000;0.4990;3.3467;
1088.7000;0.4974;3.3467;
1089.0000;0.4974;3.3467;
1089.3000;0.4974;3.3467;
1089.6000;0.4917;3.3323;
1089.9000;0.4974;3.3467;
1090.2000;0.4974;3.3443;
1090.5000;0.4990;3.3467;
1090.8000;0.4982;3.3443;
1091.1000;0.4965;3.3443;
1091.4000;0.4982;3.3515;
1091.7000;0.4965;3.3491;
1092.0000;0.4974;3.3515;
1092.3000;0.4974;3.3491;
1092.6000;0.4990;3.3491;
1092.9000;0.4982;3.3419;
1093.2000;0.4982;3.3443;
1093.5000;0.4974;3.3419;
1093.8000;0.4949;3.3467;
1094.1000;0.4974;3.3563;
1094.4000;0.5006;3.3683;
1094.7000;0.5014;3.3635;
1095.0000;0.4974;3.3659;
1095.3000;0.4990;3.3635;
1095.6000;0.4957;3.3443;
1095.9000;0.4990;3.3587;
1096.2000;0.4982;3.3683;
1096.5000;0.4965;3.3659;
1096.8000;0.4965;3.3611;
1097.1000;0.4965;3.3707;
1097.4000;0.4957;3.3707;
1097.7000;0.4965;3.3659;
1098.0000;0.4982;3.3587;
1098.3000;0.4982;3.3587;
1098.6000;0.4957;3.3539;
1098.9000;0.4982;3.3611;
1099.2000;0.5022;3.3755;
1099.5000;0.4949;3.3563;
1099.8000;0.4949;3.3563;
1100.1000;0.4965;3.3611;
1100.4000;0.4982;3.3635;
1100.7000;0.5031;3.3827;
1101.0000;0.4974;3.3659;
1101.3000;0.5014;3.3683;
1101.6000;0.4957;3.3587;
1101.9000;0.5031;3.3779;
1102.2000;0.4974;3.3659;
1102.5000;0.4998;3.3635;
1102.8000;0.4965;3.3515;
1103.1000;0.4957;3.3563;
1103.4000;0.4892;3.3395;
1103.7000;0.4982;3.3635;
1104.0000;0.4957;3.3611;
1104.3000;0.4965;3.3587;
1104.6000;0.4974;3.3587;
1104.9000;0.4982;3.3563;
1105.2000;0.4974;3.3467;
1105.5000;0.4965;3.3467;
1105.8000;0.4957;3.3515;
1106.1000;0.4974;3.3635;
1106.4000;0.4957;3.3587;
1106.7000;0.4982;3.3563;
1107.0000;0.4982;3.3611;
1107.3000;0.4957;3.3563;
1107.6000;0.4949;3.3659;
1107.9000;0.4965;3.3659;
1108.2000;0.4965;3.3683;
1108.5000;0.4982;3.3659;
1108.8000;0.4941;3.3587;
1109.1000;0.4982;3.3587;
1109.4000;0.4998;3.3611;
1109.7000;0.4949;3.3611;
1110.0000;0.4965;3.3563;
1110.3000;0.4949;3.3419;
1110.6000;0.4965;3.3443;
1110.9000;0.4974;3.3323;
1111.2000;0.4933;3.3227;
1111.5000;0.4965;3.3347;
1111.8000;0.4957;3.3323;
1112.1000;0.4974;3.3467;
1112.4000;0.4965;3.3563;
1112.7000;0.4957;3.3659;
1113.0000;0.4957;3.3683;
1113.3000;0.4974;3.3635;
1113.6000;0.4974;3.3587;
1113.9000;0.4957;3.3467;
1114.2000;0.4974;3.3515;
1114.5000;0.4990;3.3515;
1114.8000;0.4982;3.3563;
1115.1000;0.4965;3.3587;
1115.4000;0.4957;3.3515;
1115.7000;0.4998;3.3587;
1116.0000;0.5006;3.3683;
1116.3000;0.5031;3.3827;
1116.6000;0.4957;3.3683;
1116.9000;0.4974;3.3755;
1117.2000;0.4965;3.3803;
1117.5000;0.4982;3.3827;
1117.8000;0.4974;3.3779;
1118.1000;0.4957;3.3659;
1118.4000;0.4957;3.3587;
1118.7000;0.4982;3.3587;
1119.0000;0.4965;3.3515;
1119.3000;0.4990;3.3563;
1119.6000;0.4982;3.3539;
1119.9000;0.4982;3.3563;
1120.2000;0.4974;3.3539;
1120.5000;0.4949;3.3491;
1120.8000;0.4974;3.3491;
1121.1000;0.4965;3.3467;
1121.4000;0.4982;3.3443;
1121.7000;0.4957;3.3443;
1122.0000;0.4974;3.3467;
1122.3000;0.4949;3.3443;
1122.6000;0.4965;3.3539;
1122.9000;0.4965;3.3563;
1123.2000;0.4957;3.3539;
1123.5000;0.4974;3.3635;
1123.8000;0.4965;3.3659;
1124.1000;0.4965;3.3635;
1124.4000;0.4965;3.3635;
1124.7000;0.4965;3.3539;
1125.0000;0.4974;3.3635;
1125.3000;0.4998;3.3755;
1125.6000;0.4941;3.3683;
1125.9000;0.5047;3.3875;
1126.2000;0.4974;3.3659;
1126.5000;0.4965;3.3635;
1126.8000;0.4982;3.3707;
1127.1000;0.4965;3.3659;
1127.4000;0.4965;3.3659;
1127.7000;0.4949;3.3635;
1128.0000;0.4965;3.3611;
1128.3000;0.4949;3.3515;
1128.6000;0.4965;3.3563;
1128.9000;0.4974;3.3587;
1129.2000;0.4949;3.3515;
1129.5000;0.4974;3.3515;
1129.8000;0.4965;3.3611;
1130.1000;0.4990;3.3635;
1130.4000;0.4990;3.3683;
1130.7000;0.4974;3.3707;
1131.0000;0.4974;3.3683;
1131.3000;0.4974;3.3659;
1131.6000;0.4949;3.3707;
1131.9000;0.4965;3.3755;
1132.2000;0.4974;3.3707;
1132.5000;0.4982;3.3611;
1132.8000;0.4974;3.3491;
1133.1000;0.4965;3.3515;
1133.4000;0.4949;3.3539;
1133.7000;0.4974;3.3539;
1134.0000;0.4965;3.3515;
1134.3000;0.4965;3.3395;
1134.6000;0.4982;3.3395;
1134.9000;0.4982;3.3539;
1135.2000;0.4965;3.3419;
1135.5000;0.4974;3.3419;
1135.8000;0.4990;3.3395;
1136.1000;0.4957;3.3395;
1136.4000;0.4965;3.3467;
1136.7000;0.4957;3.3515;
1137.0000;0.4965;3.3539;
1137.3000;0.4949;3.3563;
1137.6000;0.4957;3.3611;
1137.9000;0.4957;3.3563;
1138.2000;0.4974;3.3587;
1138.5000;0.4974;3.3635;
1138.8000;0.4990;3.3683;
1139.1000;0.4990;3.3659;
1139.4000;0.4982;3.3707;
1139.7000;0.4974;3.3755;
1140.0000;0.4982;3.3731;
1140.3000;0.4974;3.3755;
1140.6000;0.4957;3.3707;
1140.9000;0.4998;3.3755;
1141.2000;0.4982;3.3827;
1141.5000;0.5022;3.3875;
1141.8000;0.4957;3.3611;
1142.1000;0.4982;3.3611;
1142.4000;0.4990;3.3635;
1142.7000;0.4965;3.3587;
1143.0000;0.4974;3.3683;
1143.3000;0.4965;3.3635;
1143.6000;0.4974;3.3683;
1143.9000;0.4965;3.3611;
1144.2000;0.5014;3.3731;
1144.5000;0.4965;3.3515;
1144.8000;0.4957;3.3491;
1145.1000;0.4876;3.3395;
1145.4000;0.4957;3.3563;
1145.7000;0.4941;3.3587;
1146.0000;0.4965;3.3515;
1146.3000;0.5063;3.3731;
1146.6000;0.4974;3.3515;
1146.9000;0.4957;3.3443;
1147.2000;0.4941;3.3467;
1147.5000;0.4990;3.3587;
1147.8000;0.4965;3.3563;
1148.1000;0.4957;3.3539;
1148.4000;0.4957;3.3611;
1148.7000;0.4957;3.3683;
1149.0000;0.4925;3.3635;
1149.3000;0.4965;3.3707;
1149.6000;0.4917;3.3611;
1149.9000;0.4917;3.3563;
1150.2000;0.4990;3.3731;
1150.5000;0.4982;3.3755;
1150.8000;0.4965;3.3635;
1151.1000;0.4974;3.3587;
1151.4000;0.4965;3.3539;
1151.7000;0.4998;3.3587;
1152.0000;0.4965;3.3539;
1152.3000;0.4982;3.3539;
1152.6000;0.5022;3.3635;
1152.9000;0.4982;3.3515;
1153.2000;0.4957;3.3419;
1153.5000;0.4990;3.3443;
1153.8000;0.4990;3.3395;
1154.1000;0.4974;3.3371;
1154.4000;0.4965;3.3347;
1154.7000;0.4974;3.3323;
1155.0000;0.4949;3.3323;
1155.3000;0.4982;3.3371;
1155.6000;0.4949;3.3299;
1155.9000;0.4965;3.3227;
1156.2000;0.4965;3.3203;
1156.5000;0.4998;3.3251;
1156.8000;0.4974;3.3179;
1157.1000;0.4941;3.3179;
1157.4000;0.4982;3.3299;
1157.7000;0.4990;3.3299;
1158.0000;0.4982;3.3347;
1158.3000;0.4957;3.3371;
1158.6000;0.4974;3.3395;
1158.9000;0.4974;3.3443;
1159.2000;0.5022;3.3635;
1159.5000;0.4965;3.3443;
1159.8000;0.4965;3.3443;
1160.1000;0.4974;3.3467;
1160.4000;0.4957;3.3347;
1160.7000;0.4933;3.3347;
1161.0000;0.4957;3.3467;
1161.3000;0.4957;3.3467;
1161.6000;0.4974;3.3467;
1161.9000;0.4965;3.3491;
1162.2000;0.4949;3.3443;
1162.5000;0.4957;3.3371;
1162.8000;0.4990;3.3443;
1163.1000;0.4982;3.3395;
1163.4000;0.4974;3.3395;
1163.7000;0.4990;3.3419;
1164.0000;0.4974;3.3371;
1164.3000;0.4982;3.3419;
1164.6000;0.5006;3.3395;
1164.9000;0.4941;3.3299;
1165.2000;0.4982;3.3443;
1165.5000;0.4974;3.3419;
1165.8000;0.4982;3.3419;
1166.1000;0.4982;3.3491;
1166.4000;0.4957;3.3467;
1166.7000;0.4957;3.3467;
1167.0000;0.4933;3.3395;
1167.3000;0.4957;3.3563;
1167.6000;0.4965;3.3539;
1167.9000;0.4957;3.3611;
1168.2000;0.5006;3.3707;
1168.5000;0.4965;3.3683;
1168.8000;0.4949;3.3683;
1169.1000;0.4957;3.3635;
1169.4000;0.4900;3.3491;
1169.7000;0.4982;3.3587;
1170.0000;0.4990;3.3491;
1170.3000;0.4974;3.3443;
1170.6000;0.4941;3.3275;
1170.9000;0.4908;3.3179;
1171.2000;0.4965;3.3371;
1171.5000;0.4974;3.3443;
1171.8000;0.4933;3.3275;
1172.1000;0.4974;3.3347;
1172.4000;0.5071;3.3683;
1172.7000;0.4982;3.3491;
1173.0000;0.4965;3.3467;
1173.3000;0.4965;3.3443;
1173.6000;0.4982;3.3515;
1173.9000;0.4982;3.3539;
1174.2000;0.4957;3.3491;
1174.5000;0.4965;3.3515;
1174.8000;0.4974;3.3515;
1175.1000;0.4965;3.3515;
1175.4000;0.4965;3.3419;
1175.7000;0.4974;3.3443;
1176.0000;0.4965;3.3443;
1176.3000;0.4957;3.3467;
1176.6000;0.4957;3.3539;
1176.9000;0.4974;3.3515;
1177.2000;0.4965;3.3491;
1177.5000;0.4908;3.3347;
1177.8000;0.4949;3.3347;
1178.1000;0.4974;3.3395;
1178.4000;0.4974;3.3443;
1178.7000;0.4949;3.3395;
1179.0000;0.4957;3.3371;
1179.3000;0.4965;3.3395;
1179.6000;0.4965;3.3395;
1179.9000;0.4949;3.3299;
1180.2000;0.4974;3.3395;
1180.5000;0.4982;3.3467;
1180.8000;0.4965;3.3371;
1181.1000;0.4974;3.3395;
1181.4000;0.4982;3.3539;
1181.7000;0.4925;3.3443;
1182.0000;0.4998;3.3587;
1182.3000;0.4957;3.3611;
1182.6000;0.4965;3.3683;
1182.9000;0.4974;3.3755;
1183.2000;0.4957;3.3731;
1183.5000;0.4949;3.3587;
1183.8000;0.4965;3.3659;
1184.1000;0.4957;3.3587;
1184.4000;0.4957;3.3587;
1184.7000;0.4965;3.3539;
1185.0000;0.4974;3.3611;
1185.3000;0.4965;3.3587;
1185.6000;0.4965;3.3611;
1185.9000;0.4965;3.3515;
1186.2000;0.4974;3.3635;
1186.5000;0.4982;3.3563;
1186.8000;0.4974;3.3515;
1187.1000;0.4982;3.3419;
1187.4000;0.4974;3.3443;
1187.7000;0.4982;3.3419;
1188.0000;0.4965;3.3299;
1188.3000;0.4982;3.3347;
1188.6000;0.4990;3.3323;
1188.9000;0.4998;3.3419;
1189.2000;0.4974;3.3443;
1189.5000;0.4957;3.3395;
1189.8000;0.4990;3.3443;
1190.1000;0.4965;3.3395;
1190.4000;0.4949;3.3371;
1190.7000;0.4965;3.3275;
1191.0000;0.4965;3.3395;
1191.3000;0.4917;3.3275;
1191.6000;0.4957;3.3395;
1191.9000;0.4933;3.3443;
1192.2000;0.4965;3.3515;
1192.5000;0.4957;3.3515;
1192.8000;0.4941;3.3467;
1193.1000;0.4957;3.3491;
1193.4000;0.4819;3.3179;
1193.7000;0.4957;3.3539;
1194.0000;0.4957;3.3563;
1194.3000;0.4827;3.3371;
1194.6000;0.5014;3.3779;
1194.9000;0.4974;3.3635;
1195.2000;0.4965;3.3539;
1195.5000;0.4941;3.3587;
1195.8000;0.4925;3.3443;
1196.1000;0.4957;3.3515;
1196.4000;0.4965;3.3539;
1196.7000;0.4957;3.3539;
1197.0000;0.4957;3.3587;
1197.3000;0.4982;3.3683;
1197.6000;0.4974;3.3683;
1197.9000;0.4990;3.3683;
1198.2000;0.4974;3.3587;
1198.5000;0.4965;3.3467;
1198.8000;0.4941;3.3419;
1199.1000;0.4965;3.3419;
1199.4000;0.4957;3.3491;
1199.7000;0.4941;3.3491;
1200.0000;0.4949;3.3611;
1200.3000;0.4949;3.3611;
1200.6000;0.4933;3.3635;
1200.9000;0.4957;3.3803;
1201.2000;0.4908;3.3731;
1201.5000;0.4917;3.3755;
1201.8000;0.4957;3.3755;
1202.1000;0.4949;3.3659;
1202.4000;0.5006;3.3779;
1202.7000;0.4965;3.3683;
1203.0000;0.4957;3.3635;
1203.3000;0.4957;3.3587;
1203.6000;0.5055;3.3899;
1203.9000;0.4949;3.3635;
1204.2000;0.4957;3.3659;
1204.5000;0.4957;3.3587;
1204.8000;0.4974;3.3683;
1205.1000;0.4965;3.3611;
1205.4000;0.4982;3.3587;
1205.7000;0.4965;3.3563;
1206.0000;0.4974;3.3539;
1206.3000;0.4949;3.3515;
1206.6000;0.4892;3.3395;
1206.9000;0.4965;3.3539;
1207.2000;0.4949;3.3539;
1207.5000;0.4982;3.3635;
1207.8000;0.4949;3.3635;
1208.1000;0.4949;3.3635;
1208.4000;0.4965;3.3683;
1208.7000;0.4949;3.3707;
1209.0000;0.4974;3.3659;
1209.3000;0.4949;3.3611;
1209.6000;0.4982;3.3707;
1209.9000;0.4982;3.3707;
1210.2000;0.4982;3.3659;
1210.5000;0.4982;3.3635;
1210.8000;0.4957;3.3611;
1211.1000;0.4957;3.3635;
1211.4000;0.4949;3.3635;
1211.7000;0.4933;3.3539;
1212.0000;0.4965;3.3659;
1212.3000;0.4965;3.3587;
1212.6000;0.4965;3.3635;
1212.9000;0.4925;3.3467;
1213.2000;0.4974;3.3515;
1213.5000;0.4949;3.3539;
1213.8000;0.4933;3.3515;
1214.1000;0.4957;3.3563;
1214.4000;0.4957;3.3491;
1214.7000;0.4941;3.3419;
1215.0000;0.4965;3.3443;
1215.3000;0.4965;3.3491;
1215.6000;0.4957;3.3515;
1215.9000;0.4933;3.3443;
1216.2000;0.4965;3.3539;
1216.5000;0.4949;3.3515;
1216.8000;0.4941;3.3371;
1217.1000;0.4949;3.3323;
1217.4000;0.4998;3.3491;
1217.7000;0.4965;3.3443;
1218.0000;0.4900;3.3251;
1218.3000;0.4949;3.3323;
1218.6000;0.4957;3.3275;
1218.9000;0.4974;3.3299;
1219.2000;0.4982;3.3299;
1219.5000;0.4917;3.3107;
1219.8000;0.4982;3.3227;
1220.1000;0.4965;3.3179;
1220.4000;0.4965;3.3179;
1220.7000;0.4965;3.3131;
1221.0000;0.4965;3.3083;
1221.3000;0.4949;3.3179;
1221.6000;0.4957;3.3203;
1221.9000;0.4965;3.3203;
1222.2000;0.4957;3.3179;
1222.5000;0.4917;3.3107;
1222.8000;0.4965;3.3275;
1223.1000;0.4949;3.3347;
1223.4000;0.4941;3.3323;
1223.7000;0.4974;3.3419;
1224.0000;0.4957;3.3395;
1224.3000;0.4933;3.3371;
1224.6000;0.4949;3.3395;
1224.9000;0.4957;3.3299;
1225.2000;0.4957;3.3299;
1225.5000;0.4974;3.3299;
1225.8000;0.4941;3.3227;
1226.1000;0.4949;3.3299;
1226.4000;0.4965;3.3419;
1226.7000;0.4900;3.3323;
1227.0000;0.4949;3.3395;
1227.3000;0.4933;3.3443;
1227.6000;0.5014;3.3611;
1227.9000;0.4957;3.3371;
1228.2000;0.4949;3.3323;
1228.5000;0.4957;3.3323;
1228.8000;0.4965;3.3395;
1229.1000;0.4957;3.3395;
1229.4000;0.4974;3.3515;
1229.7000;0.4974;3.3515;
1230.0000;0.4965;3.3515;
1230.3000;0.4990;3.3563;
1230.6000;0.4965;3.3443;
1230.9000;0.4957;3.3419;
1231.2000;0.4965;3.3347;
1231.5000;0.4957;3.3323;
1231.8000;0.4933;3.3275;
1232.1000;0.4957;3.3419;
1232.4000;0.4957;3.3371;
1232.7000;0.4974;3.3467;
1233.0000;0.4965;3.3491;
1233.3000;0.4949;3.3539;
1233.6000;0.4974;3.3635;
1233.9000;0.4917;3.3563;
1234.2000;0.4965;3.3731;
1234.5000;0.4965;3.3731;
1234.8000;0.4974;3.3731;
1235.1000;0.4957;3.3683;
1235.4000;0.4949;3.3563;
1235.7000;0.4917;3.3467;
1236.0000;0.4965;3.3443;
1236.3000;0.4957;3.3443;
1236.6000;0.4965;3.3395;
1236.9000;0.4957;3.3323;
1237.2000;0.5039;3.3539;
1237.5000;0.4941;3.3323;
1237.8000;0.4957;3.3395;
1238.1000;0.4982;3.3443;
1238.4000;0.4949;3.3395;
1238.7000;0.4965;3.3467;
1239.0000;0.4941;3.3371;
1239.3000;0.4957;3.3395;
1239.6000;0.4957;3.3395;
1239.9000;0.4949;3.3443;
1240.2000;0.4949;3.3419;
1240.5000;0.4965;3.3347;
1240.8000;0.4957;3.3323;
1241.1000;0.4949;3.3275;
1241.4000;0.4957;3.3299;
1241.7000;0.4965;3.3323;
1242.0000;0.4957;3.3347;
1242.3000;0.4892;3.3179;
1242.6000;0.4949;3.3299;
1242.9000;0.4949;3.3299;
1243.2000;0.4965;3.3371;
1243.5000;0.4933;3.3275;
1243.8000;0.4957;3.3323;
1244.1000;0.4949;3.3395;
1244.4000;0.4974;3.3467;
1244.7000;0.5014;3.3587;
1245.0000;0.5014;3.3635;
1245.3000;0.4957;3.3539;
1245.6000;0.4957;3.3611;
1245.9000;0.4965;3.3611;
1246.2000;0.4965;3.3563;
1246.5000;0.4949;3.3515;
1246.8000;0.4974;3.3587;
1247.1000;0.4949;3.3443;
1247.4000;0.4933;3.3347;
1247.7000;0.4965;3.3371;
1248.0000;0.4965;3.3299;
1248.3000;0.4957;3.3299;
1248.6000;0.4965;3.3395;
1248.9000;0.4957;3.3491;
1249.2000;0.4998;3.3563;
1249.5000;0.4965;3.3395;
1249.8000;0.4957;3.3323;
1250.1000;0.4957;3.3419;
1250.4000;0.4974;3.3419;
1250.7000;0.4974;3.3515;
1251.0000;0.4965;3.3515;
1251.3000;0.4949;3.3443;
1251.6000;0.4974;3.3587;
1251.9000;0.4965;3.3563;
1252.2000;0.4949;3.3419;
1252.5000;0.4949;3.3419;
1252.8000;0.4908;3.3395;
1253.1000;0.4941;3.3419;
1253.4000;0.4949;3.3467;
1253.7000;0.4941;3.3491;
1254.0000;0.4949;3.3443;
1254.3000;0.4949;3.3347;
1254.6000;0.4957;3.3371;
1254.9000;0.4949;3.3323;
1255.2000;0.4933;3.3179;
1255.5000;0.4949;3.3227;
1255.8000;0.4941;3.3203;
1256.1000;0.4957;3.3275;
1256.4000;0.4949;3.3275;
1256.7000;0.4982;3.3323;
1257.0000;0.4933;3.3107;
1257.3000;0.4957;3.3155;
1257.6000;0.4933;3.3179;
1257.9000;0.4941;3.3323;
1258.2000;0.4941;3.3347;
1258.5000;0.4957;3.3419;
1258.8000;0.4941;3.3371;
1259.1000;0.4949;3.3323;
1259.4000;0.4941;3.3299;
1259.7000;0.5031;3.3539;
1260.0000;0.4965;3.3347;
1260.3000;0.4949;3.3275;
1260.6000;0.4974;3.3275;
1260.9000;0.4974;3.3251;
1261.2000;0.4965;3.3155;
1261.5000;0.4957;3.3179;
1261.8000;0.4982;3.3251;
1262.1000;0.4957;3.3251;
1262.4000;0.4917;3.3179;
1262.7000;0.4933;3.3299;
1263.0000;0.4925;3.3323;
1263.3000;0.4957;3.3347;
1263.6000;0.4957;3.3323;
1263.9000;0.4949;3.3395;
1264.2000;0.4957;3.3419;
1264.5000;0.4974;3.3491;
1264.8000;0.4974;3.3515;
1265.1000;0.4982;3.3491;
1265.4000;0.4965;3.3467;
1265.7000;0.4925;3.3467;
1266.0000;0.4974;3.3587;
1266.3000;0.4974;3.3467;
1266.6000;0.5006;3.3515;
1266.9000;0.4974;3.3491;
1267.2000;0.4974;3.3539;
1267.5000;0.4957;3.3395;
1267.8000;0.4941;3.3443;
1268.1000;0.4957;3.3515;
1268.4000;0.4998;3.3659;
1268.7000;0.4957;3.3563;
1269.0000;0.4949;3.3539;
1269.3000;0.4941;3.3515;
1269.6000;0.4974;3.3563;
1269.9000;0.4957;3.3515;
1270.2000;0.4965;3.3515;
1270.5000;0.4957;3.3467;
1270.8000;0.4949;3.3467;
1271.1000;0.4965;3.3419;
1271.4000;0.4965;3.3395;
1271.7000;0.4965;3.3395;
1272.0000;0.4957;3.3371;
1272.3000;0.5006;3.3539;
1272.6000;0.4957;3.3515;
1272.9000;0.4941;3.3563;
1273.2000;0.4949;3.3611;
1273.5000;0.4965;3.3587;
1273.8000;0.4965;3.3587;
1274.1000;0.4925;3.3467;
1274.4000;0.4949;3.3467;
1274.7000;0.4998;3.3611;
1275.0000;0.4949;3.3587;
1275.3000;0.4957;3.3635;
1275.6000;0.4925;3.3515;
1275.9000;0.4982;3.3635;
1276.2000;0.4965;3.3683;
1276.5000;0.4900;3.3491;
1276.8000;0.4949;3.3563;
1277.1000;0.4957;3.3587;
1277.4000;0.4941;3.3491;
1277.7000;0.4965;3.3539;
1278.0000;0.4965;3.3443;
1278.3000;0.4933;3.3323;
1278.6000;0.4949;3.3323;
1278.9000;0.4957;3.3323;
1279.2000;0.4957;3.3323;
1279.5000;0.5014;3.3419;
1279.8000;0.4957;3.3251;
1280.1000;0.4957;3.3323;
1280.4000;0.4949;3.3251;
1280.7000;0.4957;3.3275;
1281.0000;0.5022;3.3467;
1281.3000;0.4982;3.3419;
1281.6000;0.4957;3.3419;
1281.9000;0.4965;3.3491;
1282.2000;0.4957;3.3443;
1282.5000;0.4965;3.3491;
1282.8000;0.4965;3.3491;
1283.1000;0.4957;3.3491;
1283.4000;0.4925;3.3443;
1283.7000;0.4957;3.3467;
1284.0000;0.4933;3.3419;
1284.3000;0.4933;3.3371;
1284.6000;0.4925;3.3419;
1284.9000;0.4941;3.3491;
1285.2000;0.4990;3.3563;
1285.5000;0.4982;3.3587;
1285.8000;0.4949;3.3539;
1286.1000;0.4957;3.3515;
1286.4000;0.4949;3.3443;
1286.7000;0.4965;3.3443;
1287.0000;0.5014;3.3491;
1287.3000;0.4925;3.3251;
1287.6000;0.4957;3.3275;
1287.9000;0.4965;3.3251;
1288.2000;0.4965;3.3227;
1288.5000;0.4974;3.3275;
1288.8000;0.4982;3.3251;
1289.1000;0.4965;3.3203;
1289.4000;0.4925;3.3131;
1289.7000;0.4974;3.3299;
1290.0000;0.4925;3.3227;
1290.3000;0.4965;3.3371;
1290.6000;0.4965;3.3395;
1290.9000;0.4957;3.3275;
1291.2000;0.4982;3.3323;
1291.5000;0.4949;3.3275;
1291.8000;0.4957;3.3347;
1292.1000;0.4957;3.3419;
1292.4000;0.4965;3.3515;
1292.7000;0.4974;3.3539;
1293.0000;0.4974;3.3539;
1293.3000;0.4957;3.3491;
1293.6000;0.4917;3.3395;
1293.9000;0.4965;3.3491;
1294.2000;0.4965;3.3395;
1294.5000;0.4949;3.3299;
1294.8000;0.4957;3.3323;
1295.1000;0.4982;3.3323;
1295.4000;0.4965;3.3275;
1295.7000;0.4965;3.3347;
1296.0000;0.4965;3.3299;
1296.3000;0.4957;3.3251;
1296.6000;0.5031;3.3395;
1296.9000;0.4957;3.3347;
1297.2000;0.4965;3.3443;
1297.5000;0.4957;3.3467;
1297.8000;0.4957;3.3419;
1298.1000;0.4965;3.3395;
1298.4000;0.4949;3.3323;
1298.7000;0.4982;3.3347;
1299.0000;0.4974;3.3347;
1299.3000;0.4998;3.3443;
1299.6000;0.4965;3.3443;
1299.9000;0.4974;3.3323;
1300.2000;0.4974;3.3275;
1300.5000;0.4965;3.3275;
1300.8000;0.4949;3.3275;
1301.1000;0.4965;3.3347;
1301.4000;0.4957;3.3323;
1301.7000;0.4965;3.3347;
1302.0000;0.4933;3.3203;
1302.3000;0.4982;3.3323;
1302.6000;0.4957;3.3251;
1302.9000;0.4892;3.3083;
1303.2000;0.4949;3.3275;
1303.5000;0.4949;3.3299;
1303.8000;0.4982;3.3347;
1304.1000;0.4965;3.3419;
1304.4000;0.4949;3.3371;
1304.7000;0.4965;3.3299;
1305.0000;0.4949;3.3299;
1305.3000;0.4974;3.3323;
1305.6000;0.4941;3.3227;
1305.9000;0.4933;3.3251;
1306.2000;0.4941;3.3179;
1306.5000;0.4965;3.3251;
1306.8000;0.4965;3.3251;
1307.1000;0.4925;3.3179;
1307.4000;0.4957;3.3275;
1307.7000;0.4949;3.3275;
1308.0000;0.4957;3.3371;
1308.3000;0.4892;3.3227;
1308.6000;0.4965;3.3251;
1308.9000;0.5047;3.3515;
1309.2000;0.4949;3.3347;
1309.5000;0.4925;3.3299;
1309.8000;0.4908;3.3251;
1310.1000;0.4933;3.3347;
1310.4000;0.5039;3.3563;
1310.7000;0.4949;3.3323;
1311.0000;0.4933;3.3347;
1311.3000;0.4998;3.3467;
1311.6000;0.4884;3.3155;
1311.9000;0.4990;3.3419;
1312.2000;0.4949;3.3323;
1312.5000;0.4965;3.3371;
1312.8000;0.4949;3.3323;
1313.1000;0.4957;3.3467;
1313.4000;0.4957;3.3419;
1313.7000;0.4949;3.3371;
1314.0000;0.5014;3.3515;
1314.3000;0.4974;3.3491;
1314.6000;0.4933;3.3395;
1314.9000;0.4974;3.3443;
1315.2000;0.4974;3.3467;
1315.5000;0.4974;3.3491;
1315.8000;0.4982;3.3515;
1316.1000;0.4974;3.3467;
1316.4000;0.4949;3.3371;
1316.7000;0.4974;3.3395;
1317.0000;0.4949;3.3347;
1317.3000;0.4949;3.3323;
1317.6000;0.4941;3.3275;
1317.9000;0.4941;3.3299;
1318.2000;0.4957;3.3323;
1318.5000;0.4990;3.3515;
1318.8000;0.4965;3.3539;
1319.1000;0.4957;3.3419;
1319.4000;0.4957;3.3539;
1319.7000;0.4957;3.3515;
1320.0000;0.4949;3.3563;
1320.3000;0.4965;3.3635;
1320.6000;0.4965;3.3611;
1320.9000;0.4957;3.3635;
1321.2000;0.4900;3.3467;
1321.5000;0.4925;3.3515;
1321.8000;0.4949;3.3515;
1322.1000;0.5014;3.3683;
1322.4000;0.4949;3.3515;
1322.7000;0.4941;3.3395;
1323.0000;0.4933;3.3443;
1323.3000;0.4974;3.3539;
1323.6000;0.4957;3.3467;
1323.9000;0.4974;3.3563;
1324.2000;0.4925;3.3467;
1324.5000;0.4965;3.3539;
1324.8000;0.4965;3.3491;
1325.1000;0.4949;3.3467;
1325.4000;0.4965;3.3515;
1325.7000;0.4974;3.3539;
1326.0000;0.5014;3.3731;
1326.3000;0.4941;3.3491;
1326.6000;0.4949;3.3467;
1326.9000;0.4974;3.3539;
1327.2000;0.4949;3.3467;
1327.5000;0.4949;3.3467;
1327.8000;0.4957;3.3467;
1328.1000;0.4933;3.3395;
1328.4000;0.4933;3.3419;
1328.7000;0.4974;3.3515;
1329.0000;0.4876;3.3227;
1329.3000;0.4974;3.3443;
1329.6000;0.4949;3.3371;
1329.9000;0.4933;3.3371;
1330.2000;0.4957;3.3467;
1330.5000;0.4908;3.3323;
1330.8000;0.4933;3.3371;
1331.1000;0.4933;3.3395;
1331.4000;0.4892;3.3347;
1331.7000;0.4941;3.3419;
1332.0000;0.4949;3.3443;
1332.3000;0.4949;3.3467;
1332.6000;0.4949;3.3443;
1332.9000;0.4957;3.3467;
1333.2000;0.4925;3.3347;
1333.5000;0.4917;3.3395;
1333.8000;0.4949;3.3467;
1334.1000;0.4957;3.3491;
1334.4000;0.4990;3.3563;
1334.7000;0.4900;3.3323;
1335.0000;0.4941;3.3467;
1335.3000;0.4941;3.3563;
1335.6000;0.5006;3.3707;
1335.9000;0.4957;3.3443;
1336.2000;0.4982;3.3515;
1336.5000;0.4974;3.3539;
1336.8000;0.4965;3.3443;
1337.1000;0.4965;3.3443;
1337.4000;0.4965;3.3491;
1337.7000;0.4974;3.3587;
1338.0000;0.4965;3.3539;
1338.3000;0.4974;3.3563;
1338.6000;0.4957;3.3539;
1338.9000;0.4949;3.3563;
1339.2000;0.4941;3.3515;
1339.5000;0.4957;3.3539;
1339.8000;0.4957;3.3491;
1340.1000;0.4908;3.3299;
1340.4000;0.4974;3.3443;
1340.7000;0.4974;3.3395;
1341.0000;0.4900;3.3323;
1341.3000;0.4957;3.3467;
1341.6000;0.4900;3.3395;
1341.9000;0.4974;3.3659;
1342.2000;0.4965;3.3659;
1342.5000;0.4982;3.3611;
1342.8000;0.4957;3.3587;
1343.1000;0.4965;3.3587;
1343.4000;0.4957;3.3515;
1343.7000;0.5031;3.3755;
1344.0000;0.4974;3.3659;
1344.3000;0.4957;3.3515;
1344.6000;0.5006;3.3611;
1344.9000;0.4957;3.3491;
1345.2000;0.5055;3.3731;
1345.5000;0.4900;3.3347;
1345.8000;0.4949;3.3491;
1346.1000;0.4933;3.3419;
1346.4000;0.4974;3.3515;
1346.7000;0.4908;3.3491;
1347.0000;0.4974;3.3539;
1347.3000;0.4941;3.3515;
1347.6000;0.5006;3.3539;
1347.9000;0.4933;3.3275;
1348.2000;0.4949;3.3347;
1348.5000;0.4949;3.3347;
1348.8000;0.4974;3.3443;
1349.1000;0.4965;3.3419;
1349.4000;0.4941;3.3419;
1349.7000;0.5055;3.3731;
1350.0000;0.4982;3.3515;
1350.3000;0.4957;3.3467;
1350.6000;0.4957;3.3395;
1350.9000;0.4965;3.3347;
1351.2000;0.4982;3.3419;
1351.5000;0.4965;3.3347;
1351.8000;0.4908;3.3251;
1352.1000;0.4957;3.3347;
1352.4000;0.4949;3.3323;
1352.7000;0.4949;3.3251;
1353.0000;0.4949;3.3227;
1353.3000;0.4957;3.3227;
1353.6000;0.4957;3.3299;
1353.9000;0.4949;3.3275;
1354.2000;0.4957;3.3203;
1354.5000;0.4957;3.3227;
1354.8000;0.4957;3.3251;
1355.1000;0.4957;3.3275;
1355.4000;0.4957;3.3347;
1355.7000;0.4957;3.3419;
1356.0000;0.4957;3.3443;
1356.3000;0.4949;3.3419;
1356.6000;0.4957;3.3419;
1356.9000;0.4965;3.3539;
1357.2000;0.4949;3.3443;
1357.5000;0.4957;3.3395;
1357.8000;0.4965;3.3419;
1358.1000;0.4949;3.3371;
1358.4000;0.5006;3.3491;
1358.7000;0.4965;3.3395;
1359.0000;0.4957;3.3347;
1359.3000;0.4965;3.3371;
1359.6000;0.4941;3.3347;
1359.9000;0.4974;3.3395;
1360.2000;0.4965;3.3299;
1360.5000;0.4949;3.3251;
1360.8000;0.4982;3.3323;
1361.1000;0.4990;3.3347;
1361.4000;0.4917;3.3227;
1361.7000;0.4941;3.3227;
1362.0000;0.4933;3.3227;
1362.3000;0.4957;3.3299;
1362.6000;0.4965;3.3347;
1362.9000;0.4941;3.3275;
1363.2000;0.4933;3.3323;
1363.5000;0.4868;3.3155;
1363.8000;0.4957;3.3299;
1364.1000;0.4957;3.3275;
1364.4000;0.4933;3.3203;
1364.7000;0.4949;3.3275;
1365.0000;0.4949;3.3251;
1365.3000;0.4949;3.3203;
1365.6000;0.4941;3.3203;
1365.9000;0.4941;3.3251;
1366.2000;0.4957;3.3275;
1366.5000;0.4982;3.3371;
1366.8000;0.4941;3.3275;
1367.1000;0.4974;3.3371;
1367.4000;0.4957;3.3299;
1367.7000;0.4949;3.3299;
1368.0000;0.4965;3.3299;
1368.3000;0.4965;3.3203;
1368.6000;0.4965;3.3203;
1368.9000;0.4982;3.3203;
1369.2000;0.4957;3.3131;
1369.5000;0.4974;3.3179;
1369.8000;0.4949;3.3107;
1370.1000;0.4933;3.3083;
1370.4000;0.4982;3.3203;
1370.7000;0.4941;3.3179;
1371.0000;0.4941;3.3179;
1371.3000;0.4965;3.3203;
1371.6000;0.5014;3.3419;
1371.9000;0.4990;3.3419;
1372.2000;0.4957;3.3347;
1372.5000;0.4965;3.3347;
1372.8000;0.4957;3.3395;
1373.1000;0.4965;3.3419;
1373.4000;0.4957;3.3371;
1373.7000;0.4990;3.3635;
1374.0000;0.4965;3.3659;
1374.3000;0.4974;3.3563;
1374.6000;0.4957;3.3491;
1374.9000;0.4908;3.3299;
1375.2000;0.4974;3.3443;
1375.5000;0.4949;3.3371;
1375.8000;0.4957;3.3323;
1376.1000;0.4957;3.3395;
1376.4000;0.4982;3.3443;
1376.7000;0.4949;3.3443;
1377.0000;0.4957;3.3419;
1377.3000;0.4998;3.3515;
1377.6000;0.4925;3.3371;
1377.9000;0.4974;3.3491;
1378.2000;0.4957;3.3443;
1378.5000;0.4892;3.3299;
1378.8000;0.4933;3.3371;
1379.1000;0.4982;3.3347;
1379.4000;0.4965;3.3299;
1379.7000;0.4949;3.3251;
1380.0000;0.4965;3.3227;
1380.3000;0.4933;3.3155;
1380.6000;0.4965;3.3251;
1380.9000;0.4917;3.3131;
1381.2000;0.4957;3.3275;
1381.5000;0.4965;3.3323;
1381.8000;0.5055;3.3443;
1382.1000;0.4949;3.3083;
1382.4000;0.4990;3.3251;
1382.7000;0.4892;3.3035;
1383.0000;0.4957;3.3203;
1383.3000;0.4998;3.3299;
1383.6000;0.4982;3.3347;
1383.9000;0.4982;3.3347;
1384.2000;0.4949;3.3371;
1384.5000;0.4949;3.3323;
1384.8000;0.4957;3.3371;
1385.1000;0.4965;3.3371;
1385.4000;0.4990;3.3371;
1385.7000;0.4884;3.3179;
1386.0000;0.4949;3.3347;
1386.3000;0.4957;3.3347;
1386.6000;0.4965;3.3419;
1386.9000;0.4965;3.3419;
1387.2000;0.4933;3.3275;
1387.5000;0.4949;3.3203;
1387.8000;0.4941;3.3227;
1388.1000;0.4908;3.3107;
1388.4000;0.5014;3.3467;
1388.7000;0.4941;3.3251;
1389.0000;0.4949;3.3251;
1389.3000;0.4957;3.3203;
1389.6000;0.4957;3.3179;
1389.9000;0.4941;3.3179;
1390.2000;0.4949;3.3179;
1390.5000;0.4974;3.3347;
1390.8000;0.4957;3.3251;
1391.1000;0.4900;3.3179;
1391.4000;0.4965;3.3347;
1391.7000;0.4957;3.3467;
1392.0000;0.4957;3.3419;
1392.3000;0.5120;3.3803;
1392.6000;0.4974;3.3395;
1392.9000;0.4974;3.3371;
1393.2000;0.4982;3.3395;
1393.5000;0.4941;3.3347;
1393.8000;0.4965;3.3395;
1394.1000;0.4965;3.3347;
1394.4000;0.4965;3.3251;
1394.7000;0.4957;3.3251;
1395.0000;0.4949;3.3179;
1395.3000;0.4925;3.3155;
1395.6000;0.4949;3.3251;
1395.9000;0.4957;3.3251;
1396.2000;0.4949;3.3179;
1396.5000;0.4925;3.3179;
1396.8000;0.4933;3.3323;
1397.1000;0.4925;3.3299;
1397.4000;0.4957;3.3323;
1397.7000;0.4941;3.3419;
1398.0000;0.4917;3.3323;
1398.3000;0.4949;3.3347;
1398.6000;0.4941;3.3275;
1398.9000;0.4917;3.3227;
1399.2000;0.4965;3.3299;
1399.5000;0.4957;3.3299;
1399.8000;0.4965;3.3299;
