time/ms;Fluo/V;P700 deltaI/I x10³;
-199.8000;0.5649;3.1044;
-199.5000;0.5657;3.1092;
-199.2000;0.5641;3.1068;
-198.9000;0.5625;3.1020;
-198.6000;0.5633;3.1044;
-198.3000;0.5592;3.1068;
-198.0000;0.5600;3.1092;
-197.7000;0.5617;3.1092;
-197.4000;0.5641;3.1188;
-197.1000;0.5633;3.1164;
-196.8000;0.5641;3.1236;
-196.5000;0.5633;3.1188;
-196.2000;0.5584;3.1092;
-195.9000;0.5617;3.1164;
-195.6000;0.5706;3.1428;
-195.3000;0.5641;3.1188;
-195.0000;0.5584;3.0924;
-194.7000;0.5682;3.1140;
-194.4000;0.5690;3.1164;
-194.1000;0.5649;3.1116;
-193.8000;0.5641;3.1164;
-193.5000;0.5633;3.1068;
-193.2000;0.5649;3.1116;
-192.9000;0.5625;3.1068;
-192.6000;0.5657;3.1116;
-192.3000;0.5657;3.1140;
-192.0000;0.5682;3.1116;
-191.7000;0.5665;3.1068;
-191.4000;0.5641;3.0924;
-191.1000;0.5649;3.0972;
-190.8000;0.5641;3.0972;
-190.5000;0.5625;3.0948;
-190.2000;0.5641;3.0900;
-189.9000;0.5649;3.0924;
-189.6000;0.5649;3.0972;
-189.3000;0.5641;3.0924;
-189.0000;0.5641;3.0996;
-188.7000;0.5633;3.0924;
-188.4000;0.5608;3.0900;
-188.1000;0.5625;3.0924;
-187.8000;0.5674;3.1068;
-187.5000;0.5641;3.0972;
-187.2000;0.5633;3.0852;
-186.9000;0.5682;3.0972;
-186.6000;0.5641;3.0900;
-186.3000;0.5625;3.0828;
-186.0000;0.5625;3.0852;
-185.7000;0.5592;3.0804;
-185.4000;0.5633;3.0900;
-185.1000;0.5633;3.0876;
-184.8000;0.5649;3.0900;
-184.5000;0.5657;3.0876;
-184.2000;0.5641;3.0804;
-183.9000;0.5633;3.0780;
-183.6000;0.5625;3.0828;
-183.3000;0.5568;3.0732;
-183.0000;0.5657;3.0972;
-182.7000;0.5608;3.0924;
-182.4000;0.5584;3.0756;
-182.1000;0.5649;3.0948;
-181.8000;0.5657;3.0924;
-181.5000;0.5633;3.0756;
-181.2000;0.5657;3.0804;
-180.9000;0.5641;3.0900;
-180.6000;0.5649;3.0948;
-180.3000;0.5649;3.0852;
-180.0000;0.5641;3.0876;
-179.7000;0.5625;3.0852;
-179.4000;0.5641;3.0972;
-179.1000;0.5665;3.1020;
-178.8000;0.5633;3.0924;
-178.5000;0.5617;3.0852;
-178.2000;0.5649;3.0924;
-177.9000;0.5649;3.0900;
-177.6000;0.5649;3.0972;
-177.3000;0.5633;3.0948;
-177.0000;0.5649;3.0972;
-176.7000;0.5633;3.0972;
-176.4000;0.5641;3.0948;
-176.1000;0.5592;3.0852;
-175.8000;0.5649;3.0972;
-175.5000;0.5657;3.0996;
-175.2000;0.5633;3.0900;
-174.9000;0.5625;3.0780;
-174.6000;0.5633;3.0732;
-174.3000;0.5641;3.0780;
-174.0000;0.5600;3.0756;
-173.7000;0.5592;3.0780;
-173.4000;0.5617;3.0948;
-173.1000;0.5625;3.0996;
-172.8000;0.5625;3.0948;
-172.5000;0.5608;3.0972;
-172.2000;0.5633;3.0948;
-171.9000;0.5625;3.0996;
-171.6000;0.5633;3.0996;
-171.3000;0.5633;3.0996;
-171.0000;0.5649;3.1116;
-170.7000;0.5625;3.0996;
-170.4000;0.5657;3.1044;
-170.1000;0.5592;3.0804;
-169.8000;0.5657;3.0804;
-169.5000;0.5633;3.0612;
-169.2000;0.5657;3.0660;
-168.9000;0.5633;3.0588;
-168.6000;0.5641;3.0588;
-168.3000;0.5625;3.0516;
-168.0000;0.5649;3.0636;
-167.7000;0.5633;3.0636;
-167.4000;0.5649;3.0804;
-167.1000;0.5641;3.0828;
-166.8000;0.5608;3.0828;
-166.5000;0.5625;3.0900;
-166.2000;0.5617;3.0900;
-165.9000;0.5641;3.0996;
-165.6000;0.5617;3.1020;
-165.3000;0.5633;3.0996;
-165.0000;0.5641;3.1068;
-164.7000;0.5641;3.1068;
-164.4000;0.5641;3.1140;
-164.1000;0.5657;3.1164;
-163.8000;0.5633;3.1068;
-163.5000;0.5633;3.1044;
-163.2000;0.5625;3.0972;
-162.9000;0.5739;3.1260;
-162.6000;0.5641;3.0876;
-162.3000;0.5608;3.0924;
-162.0000;0.5657;3.1068;
-161.7000;0.5641;3.1068;
-161.4000;0.5649;3.0996;
-161.1000;0.5608;3.0948;
-160.8000;0.5633;3.1044;
-160.5000;0.5617;3.1068;
-160.2000;0.5665;3.1188;
-159.9000;0.5625;3.1068;
-159.6000;0.5641;3.1116;
-159.3000;0.5706;3.1212;
-159.0000;0.5682;3.1164;
-158.7000;0.5641;3.1044;
-158.4000;0.5576;3.0900;
-158.1000;0.5633;3.1020;
-157.8000;0.5633;3.0996;
-157.5000;0.5608;3.0924;
-157.2000;0.5617;3.0852;
-156.9000;0.5633;3.0972;
-156.6000;0.5633;3.1116;
-156.3000;0.5633;3.1020;
-156.0000;0.5641;3.0996;
-155.7000;0.5641;3.0948;
-155.4000;0.5633;3.0924;
-155.1000;0.5633;3.0852;
-154.8000;0.5633;3.0780;
-154.5000;0.5617;3.0708;
-154.2000;0.5617;3.0756;
-153.9000;0.5625;3.0780;
-153.6000;0.5633;3.0804;
-153.3000;0.5617;3.0780;
-153.0000;0.5608;3.0732;
-152.7000;0.5633;3.0804;
-152.4000;0.5625;3.0852;
-152.1000;0.5608;3.0828;
-151.8000;0.5625;3.0900;
-151.5000;0.5625;3.0972;
-151.2000;0.5633;3.0972;
-150.9000;0.5641;3.0972;
-150.6000;0.5625;3.0996;
-150.3000;0.5617;3.1020;
-150.0000;0.5592;3.0900;
-149.7000;0.5706;3.1164;
-149.4000;0.5592;3.0924;
-149.1000;0.5641;3.1020;
-148.8000;0.5649;3.1044;
-148.5000;0.5706;3.1116;
-148.2000;0.5617;3.0780;
-147.9000;0.5633;3.0828;
-147.6000;0.5641;3.0852;
-147.3000;0.5674;3.0948;
-147.0000;0.5641;3.0876;
-146.7000;0.5641;3.0924;
-146.4000;0.5625;3.0900;
-146.1000;0.5641;3.0852;
-145.8000;0.5625;3.0876;
-145.5000;0.5633;3.0804;
-145.2000;0.5641;3.0828;
-144.9000;0.5649;3.0876;
-144.6000;0.5625;3.0780;
-144.3000;0.5633;3.0828;
-144.0000;0.5641;3.0972;
-143.7000;0.5625;3.1020;
-143.4000;0.5633;3.0996;
-143.1000;0.5657;3.1020;
-142.8000;0.5625;3.0972;
-142.5000;0.5617;3.0900;
-142.2000;0.5641;3.0900;
-141.9000;0.5633;3.0924;
-141.6000;0.5633;3.0924;
-141.3000;0.5657;3.0900;
-141.0000;0.5633;3.0900;
-140.7000;0.5633;3.0996;
-140.4000;0.5649;3.0972;
-140.1000;0.5617;3.0876;
-139.8000;0.5625;3.0996;
-139.5000;0.5633;3.1140;
-139.2000;0.5633;3.1164;
-138.9000;0.5641;3.1164;
-138.6000;0.5649;3.1164;
-138.3000;0.5641;3.1140;
-138.0000;0.5625;3.1116;
-137.7000;0.5633;3.1212;
-137.4000;0.5633;3.1332;
-137.1000;0.5633;3.1212;
-136.8000;0.5625;3.1116;
-136.5000;0.5649;3.1092;
-136.2000;0.5625;3.1044;
-135.9000;0.5608;3.1044;
-135.6000;0.5633;3.1116;
-135.3000;0.5682;3.1188;
-135.0000;0.5633;3.1068;
-134.7000;0.5633;3.1044;
-134.4000;0.5617;3.1020;
-134.1000;0.5617;3.1116;
-133.8000;0.5649;3.1140;
-133.5000;0.5649;3.1044;
-133.2000;0.5625;3.1140;
-132.9000;0.5592;3.0972;
-132.6000;0.5641;3.1092;
-132.3000;0.5576;3.0876;
-132.0000;0.5633;3.1092;
-131.7000;0.5625;3.1092;
-131.4000;0.5625;3.1164;
-131.1000;0.5617;3.1236;
-130.8000;0.5617;3.1260;
-130.5000;0.5625;3.1236;
-130.2000;0.5649;3.1188;
-129.9000;0.5617;3.1044;
-129.6000;0.5633;3.0996;
-129.3000;0.5641;3.0948;
-129.0000;0.5633;3.1020;
-128.7000;0.5641;3.1044;
-128.4000;0.5633;3.0948;
-128.1000;0.5608;3.0948;
-127.8000;0.5657;3.1092;
-127.5000;0.5625;3.1092;
-127.2000;0.5649;3.1236;
-126.9000;0.5633;3.1140;
-126.6000;0.5625;3.1188;
-126.3000;0.5633;3.1068;
-126.0000;0.5649;3.1020;
-125.7000;0.5592;3.0900;
-125.4000;0.5641;3.0996;
-125.1000;0.5633;3.1020;
-124.8000;0.5649;3.1020;
-124.5000;0.5649;3.0972;
-124.2000;0.5633;3.0828;
-123.9000;0.5568;3.0660;
-123.6000;0.5649;3.0924;
-123.3000;0.5625;3.0876;
-123.0000;0.5617;3.0900;
-122.7000;0.5608;3.0972;
-122.4000;0.5641;3.1068;
-122.1000;0.5617;3.0900;
-121.8000;0.5617;3.0900;
-121.5000;0.5617;3.0948;
-121.2000;0.5633;3.0924;
-120.9000;0.5633;3.0876;
-120.6000;0.5625;3.0828;
-120.3000;0.5690;3.0948;
-120.0000;0.5617;3.0828;
-119.7000;0.5657;3.0996;
-119.4000;0.5641;3.0996;
-119.1000;0.5625;3.1020;
-118.8000;0.5560;3.0852;
-118.5000;0.5649;3.1020;
-118.2000;0.5625;3.0972;
-117.9000;0.5665;3.1068;
-117.6000;0.5625;3.0948;
-117.3000;0.5649;3.1092;
-117.0000;0.5641;3.1140;
-116.7000;0.5625;3.1044;
-116.4000;0.5633;3.1116;
-116.1000;0.5633;3.1164;
-115.8000;0.5633;3.1140;
-115.5000;0.5649;3.1140;
-115.2000;0.5617;3.1140;
-114.9000;0.5649;3.1212;
-114.6000;0.5641;3.1092;
-114.3000;0.5649;3.0996;
-114.0000;0.5633;3.0972;
-113.7000;0.5633;3.0948;
-113.4000;0.5617;3.0900;
-113.1000;0.5641;3.0948;
-112.8000;0.5617;3.0924;
-112.5000;0.5625;3.0948;
-112.2000;0.5633;3.0852;
-111.9000;0.5633;3.0876;
-111.6000;0.5617;3.0948;
-111.3000;0.5584;3.0876;
-111.0000;0.5641;3.1068;
-110.7000;0.5641;3.1092;
-110.4000;0.5600;3.0948;
-110.1000;0.5641;3.1020;
-109.8000;0.5657;3.1020;
-109.5000;0.5641;3.0948;
-109.2000;0.5641;3.0972;
-108.9000;0.5649;3.1020;
-108.6000;0.5641;3.0972;
-108.3000;0.5625;3.0876;
-108.0000;0.5633;3.0924;
-107.7000;0.5633;3.0948;
-107.4000;0.5633;3.0924;
-107.1000;0.5633;3.0972;
-106.8000;0.5633;3.0972;
-106.5000;0.5617;3.0972;
-106.2000;0.5617;3.0900;
-105.9000;0.5608;3.0876;
-105.6000;0.5649;3.0900;
-105.3000;0.5633;3.0876;
-105.0000;0.5633;3.0900;
-104.7000;0.5633;3.0948;
-104.4000;0.5674;3.1044;
-104.1000;0.5625;3.0948;
-103.8000;0.5641;3.0900;
-103.5000;0.5665;3.0900;
-103.2000;0.5641;3.0852;
-102.9000;0.5608;3.0804;
-102.6000;0.5706;3.0972;
-102.3000;0.5633;3.0804;
-102.0000;0.5633;3.0804;
-101.7000;0.5641;3.0876;
-101.4000;0.5706;3.0972;
-101.1000;0.5625;3.0804;
-100.8000;0.5714;3.1044;
-100.5000;0.5584;3.0708;
-100.2000;0.5641;3.0900;
-99.9000;0.5600;3.0852;
-99.6000;0.5633;3.0924;
-99.3000;0.5633;3.0876;
-99.0000;0.5584;3.0732;
-98.7000;0.5592;3.0780;
-98.4000;0.5625;3.0852;
-98.1000;0.5633;3.0972;
-97.8000;0.5649;3.0972;
-97.5000;0.5625;3.0876;
-97.2000;0.5633;3.0828;
-96.9000;0.5641;3.0804;
-96.6000;0.5641;3.0732;
-96.3000;0.5617;3.0732;
-96.0000;0.5608;3.0684;
-95.7000;0.5641;3.0708;
-95.4000;0.5633;3.0660;
-95.1000;0.5617;3.0708;
-94.8000;0.5633;3.0708;
-94.5000;0.5608;3.0636;
-94.2000;0.5641;3.0828;
-93.9000;0.5617;3.0708;
-93.6000;0.5649;3.0804;
-93.3000;0.5625;3.0828;
-93.0000;0.5633;3.0876;
-92.7000;0.5633;3.0900;
-92.4000;0.5649;3.0924;
-92.1000;0.5617;3.0852;
-91.8000;0.5657;3.0900;
-91.5000;0.5649;3.0900;
-91.2000;0.5633;3.0876;
-90.9000;0.5641;3.0924;
-90.6000;0.5633;3.0852;
-90.3000;0.5625;3.0804;
-90.0000;0.5617;3.0804;
-89.7000;0.5608;3.0852;
-89.4000;0.5641;3.0900;
-89.1000;0.5641;3.0924;
-88.8000;0.5641;3.0996;
-88.5000;0.5617;3.1068;
-88.2000;0.5641;3.1092;
-87.9000;0.5633;3.1116;
-87.6000;0.5682;3.1212;
-87.3000;0.5641;3.1140;
-87.0000;0.5633;3.1068;
-86.7000;0.5625;3.1164;
-86.4000;0.5641;3.1044;
-86.1000;0.5617;3.0948;
-85.8000;0.5641;3.0948;
-85.5000;0.5625;3.0900;
-85.2000;0.5617;3.0972;
-84.9000;0.5625;3.1020;
-84.6000;0.5617;3.1020;
-84.3000;0.5625;3.1092;
-84.0000;0.5633;3.1068;
-83.7000;0.5600;3.0972;
-83.4000;0.5633;3.1116;
-83.1000;0.5600;3.1044;
-82.8000;0.5665;3.1164;
-82.5000;0.5617;3.1164;
-82.2000;0.5633;3.1164;
-81.9000;0.5633;3.0996;
-81.6000;0.5682;3.1116;
-81.3000;0.5633;3.1044;
-81.0000;0.5625;3.1044;
-80.7000;0.5633;3.0948;
-80.4000;0.5682;3.1092;
-80.1000;0.5641;3.0948;
-79.8000;0.5560;3.0828;
-79.5000;0.5682;3.1116;
-79.2000;0.5633;3.0972;
-78.9000;0.5657;3.1068;
-78.6000;0.5535;3.0780;
-78.3000;0.5608;3.0972;
-78.0000;0.5649;3.1020;
-77.7000;0.5649;3.1068;
-77.4000;0.5625;3.0996;
-77.1000;0.5625;3.0972;
-76.8000;0.5625;3.0876;
-76.5000;0.5633;3.0948;
-76.2000;0.5625;3.0948;
-75.9000;0.5617;3.0924;
-75.6000;0.5641;3.0948;
-75.3000;0.5682;3.1068;
-75.0000;0.5625;3.1044;
-74.7000;0.5592;3.1092;
-74.4000;0.5633;3.1260;
-74.1000;0.5584;3.1116;
-73.8000;0.5633;3.1236;
-73.5000;0.5633;3.1212;
-73.2000;0.5641;3.1140;
-72.9000;0.5625;3.1044;
-72.6000;0.5665;3.1116;
-72.3000;0.5625;3.1092;
-72.0000;0.5674;3.1284;
-71.7000;0.5625;3.1068;
-71.4000;0.5641;3.1164;
-71.1000;0.5731;3.1332;
-70.8000;0.5584;3.0996;
-70.5000;0.5625;3.1188;
-70.2000;0.5641;3.1332;
-69.9000;0.5633;3.1260;
-69.6000;0.5641;3.1212;
-69.3000;0.5617;3.1164;
-69.0000;0.5641;3.1116;
-68.7000;0.5592;3.1044;
-68.4000;0.5641;3.1116;
-68.1000;0.5625;3.1044;
-67.8000;0.5625;3.1044;
-67.5000;0.5633;3.1116;
-67.2000;0.5641;3.1164;
-66.9000;0.5641;3.1236;
-66.6000;0.5641;3.1212;
-66.3000;0.5649;3.1308;
-66.0000;0.5625;3.1380;
-65.7000;0.5592;3.1188;
-65.4000;0.5633;3.1140;
-65.1000;0.5649;3.1260;
-64.8000;0.5600;3.1140;
-64.5000;0.5617;3.1068;
-64.2000;0.5625;3.1116;
-63.9000;0.5625;3.1044;
-63.6000;0.5641;3.1068;
-63.3000;0.5608;3.0924;
-63.0000;0.5625;3.0996;
-62.7000;0.5617;3.0996;
-62.4000;0.5600;3.0996;
-62.1000;0.5625;3.1116;
-61.8000;0.5608;3.0996;
-61.5000;0.5617;3.1068;
-61.2000;0.5633;3.1092;
-60.9000;0.5682;3.1212;
-60.6000;0.5617;3.0972;
-60.3000;0.5625;3.0948;
-60.0000;0.5617;3.0852;
-59.7000;0.5625;3.0948;
-59.4000;0.5641;3.1044;
-59.1000;0.5633;3.1068;
-58.8000;0.5625;3.1068;
-58.5000;0.5649;3.1116;
-58.2000;0.5641;3.1116;
-57.9000;0.5641;3.1044;
-57.6000;0.5747;3.1308;
-57.3000;0.5641;3.1044;
-57.0000;0.5625;3.1020;
-56.7000;0.5617;3.0972;
-56.4000;0.5649;3.1068;
-56.1000;0.5657;3.1020;
-55.8000;0.5527;3.0708;
-55.5000;0.5690;3.1044;
-55.2000;0.5617;3.0828;
-54.9000;0.5633;3.0852;
-54.6000;0.5584;3.0732;
-54.3000;0.5592;3.0924;
-54.0000;0.5625;3.1020;
-53.7000;0.5641;3.1116;
-53.4000;0.5657;3.1140;
-53.1000;0.5682;3.1164;
-52.8000;0.5608;3.0948;
-52.5000;0.5633;3.0996;
-52.2000;0.5625;3.0972;
-51.9000;0.5665;3.1068;
-51.6000;0.5641;3.1044;
-51.3000;0.5625;3.1044;
-51.0000;0.5625;3.1020;
-50.7000;0.5625;3.1068;
-50.4000;0.5625;3.1068;
-50.1000;0.5641;3.1020;
-49.8000;0.5641;3.1044;
-49.5000;0.5633;3.1044;
-49.2000;0.5633;3.1020;
-48.9000;0.5592;3.0948;
-48.6000;0.5633;3.0996;
-48.3000;0.5641;3.1020;
-48.0000;0.5649;3.0996;
-47.7000;0.5641;3.1044;
-47.4000;0.5633;3.1044;
-47.1000;0.5649;3.1116;
-46.8000;0.5641;3.1188;
-46.5000;0.5625;3.1236;
-46.2000;0.5633;3.1236;
-45.9000;0.5674;3.1260;
-45.6000;0.5625;3.1068;
-45.3000;0.5633;3.0996;
-45.0000;0.5674;3.1020;
-44.7000;0.5649;3.0924;
-44.4000;0.5657;3.0876;
-44.1000;0.5641;3.0828;
-43.8000;0.5641;3.0780;
-43.5000;0.5649;3.0876;
-43.2000;0.5657;3.0996;
-42.9000;0.5641;3.1092;
-42.6000;0.5641;3.1044;
-42.3000;0.5625;3.0972;
-42.0000;0.5625;3.1044;
-41.7000;0.5592;3.0900;
-41.4000;0.5625;3.1044;
-41.1000;0.5625;3.1092;
-40.8000;0.5674;3.1140;
-40.5000;0.5641;3.1092;
-40.2000;0.5698;3.1212;
-39.9000;0.5625;3.1020;
-39.6000;0.5641;3.1092;
-39.3000;0.5625;3.1092;
-39.0000;0.5641;3.1068;
-38.7000;0.5641;3.1164;
-38.4000;0.5641;3.1164;
-38.1000;0.5649;3.1068;
-37.8000;0.5641;3.1068;
-37.5000;0.5633;3.1092;
-37.2000;0.5649;3.1236;
-36.9000;0.5625;3.1188;
-36.6000;0.5633;3.1212;
-36.3000;0.5633;3.1116;
-36.0000;0.5641;3.1020;
-35.7000;0.5649;3.0996;
-35.4000;0.5625;3.0924;
-35.1000;0.5617;3.0972;
-34.8000;0.5625;3.1020;
-34.5000;0.5665;3.1116;
-34.2000;0.5617;3.0972;
-33.9000;0.5633;3.1020;
-33.6000;0.5649;3.1044;
-33.3000;0.5641;3.0948;
-33.0000;0.5633;3.1020;
-32.7000;0.5649;3.1068;
-32.4000;0.5641;3.1068;
-32.1000;0.5617;3.1092;
-31.8000;0.5633;3.1188;
-31.5000;0.5714;3.1452;
-31.2000;0.5625;3.1164;
-30.9000;0.5641;3.1140;
-30.6000;0.5617;3.0996;
-30.3000;0.5633;3.0996;
-30.0000;0.5649;3.0948;
-29.7000;0.5657;3.1020;
-29.4000;0.5649;3.0924;
-29.1000;0.5641;3.0948;
-28.8000;0.5641;3.0948;
-28.5000;0.5649;3.1020;
-28.2000;0.5641;3.0948;
-27.9000;0.5633;3.0924;
-27.6000;0.5625;3.0996;
-27.3000;0.5625;3.1116;
-27.0000;0.5649;3.1140;
-26.7000;0.5649;3.1140;
-26.4000;0.5633;3.1092;
-26.1000;0.5633;3.1092;
-25.8000;0.5633;3.1116;
-25.5000;0.5641;3.1116;
-25.2000;0.5641;3.1068;
-24.9000;0.5641;3.0972;
-24.6000;0.5657;3.0972;
-24.3000;0.5641;3.0900;
-24.0000;0.5625;3.0924;
-23.7000;0.5641;3.1068;
-23.4000;0.5641;3.0996;
-23.1000;0.5641;3.1020;
-22.8000;0.5641;3.1020;
-22.5000;0.5633;3.1044;
-22.2000;0.5641;3.1116;
-21.9000;0.5649;3.1188;
-21.6000;0.5649;3.1188;
-21.3000;0.5633;3.1140;
-21.0000;0.5608;3.1116;
-20.7000;0.5633;3.1164;
-20.4000;0.5641;3.1260;
-20.1000;0.5617;3.1260;
-19.8000;0.5641;3.1356;
-19.5000;0.5649;3.1404;
-19.2000;0.5592;3.1308;
-18.9000;0.5633;3.1356;
-18.6000;0.5633;3.1260;
-18.3000;0.5625;3.1164;
-18.0000;0.5657;3.1212;
-17.7000;0.5649;3.1164;
-17.4000;0.5617;3.1044;
-17.1000;0.5633;3.1068;
-16.8000;0.5592;3.1044;
-16.5000;0.5633;3.1188;
-16.2000;0.5657;3.1212;
-15.9000;0.5698;3.1308;
-15.6000;0.5600;3.1116;
-15.3000;0.5576;3.1020;
-15.0000;0.5600;3.0972;
-14.7000;0.5633;3.0996;
-14.4000;0.5657;3.1044;
-14.1000;0.5617;3.0924;
-13.8000;0.5665;3.1068;
-13.5000;0.5633;3.1092;
-13.2000;0.5674;3.1116;
-12.9000;0.5608;3.0948;
-12.6000;0.5641;3.1068;
-12.3000;0.5625;3.1020;
-12.0000;0.5633;3.1116;
-11.7000;0.5625;3.1164;
-11.4000;0.5617;3.1284;
-11.1000;0.5649;3.1452;
-10.8000;0.5633;3.1404;
-10.5000;0.5633;3.1356;
-10.2000;0.5633;3.1332;
-9.9000;0.5633;3.1260;
-9.6000;0.5625;3.1284;
-9.3000;0.5608;3.1236;
-9.0000;0.5649;3.1284;
-8.7000;0.5649;3.1164;
-8.4000;0.5633;3.1092;
-8.1000;0.5633;3.1140;
-7.8000;0.5625;3.1044;
-7.5000;0.5649;3.1068;
-7.2000;0.5617;3.0996;
-6.9000;0.5633;3.0996;
-6.6000;0.5633;3.1068;
-6.3000;0.5617;3.1068;
-6.0000;0.5649;3.1188;
-5.7000;0.5633;3.1188;
-5.4000;0.5641;3.1164;
-5.1000;0.5649;3.1116;
-4.8000;0.5625;3.1140;
-4.5000;0.5633;3.1188;
-4.2000;0.5641;3.1260;
-3.9000;0.5608;3.1212;
-3.6000;0.5641;3.1260;
-3.3000;0.5608;3.1236;
-3.0000;0.5641;3.1284;
-2.7000;0.5633;3.1260;
-2.4000;0.5633;3.1212;
-2.1000;0.5625;3.1212;
-1.8000;0.5617;3.1284;
-1.5000;0.5625;3.1236;
-1.2000;0.5625;3.1188;
-0.9000;0.5641;3.1284;
-0.6000;0.5617;3.1212;
-0.3000;0.5617;3.1236;
0.0000;0.5617;3.1236;
0.3000;0.5812;3.1572;
0.6000;0.6105;3.1932;
0.9000;0.6357;3.2436;
1.2000;0.6536;3.2699;
1.5000;0.6634;3.2891;
1.8000;0.6740;3.3107;
2.1000;0.6813;3.3323;
2.4000;0.6895;3.3467;
2.7000;0.6935;3.3539;
3.0000;0.6976;3.3659;
3.3000;0.7025;3.3755;
3.6000;0.7074;3.3971;
3.9000;0.7057;3.3899;
4.2000;0.7074;3.3971;
4.5000;0.7139;3.4115;
4.8000;0.7228;3.4211;
5.1000;0.7163;3.3995;
5.4000;0.7236;3.4187;
5.7000;0.7293;3.4283;
6.0000;0.7285;3.4283;
6.3000;0.7269;3.4187;
6.6000;0.7310;3.4211;
6.9000;0.7350;3.4211;
7.2000;0.7359;3.4283;
7.5000;0.7416;3.4427;
7.8000;0.7432;3.4379;
8.1000;0.7383;3.4331;
8.4000;0.7416;3.4259;
8.7000;0.7440;3.4211;
9.0000;0.7448;3.4163;
9.3000;0.7481;3.4259;
9.6000;0.7489;3.4235;
9.9000;0.7521;3.4307;
10.2000;0.7546;3.4403;
10.5000;0.7554;3.4427;
10.8000;0.7570;3.4379;
11.1000;0.7578;3.4403;
11.4000;0.7538;3.4379;
11.7000;0.7595;3.4451;
12.0000;0.7627;3.4379;
12.3000;0.7643;3.4283;
12.6000;0.7643;3.4259;
12.9000;0.7668;3.4331;
13.2000;0.7676;3.4403;
13.5000;0.7709;3.4403;
13.8000;0.7725;3.4307;
14.1000;0.7725;3.4283;
14.4000;0.7733;3.4307;
14.7000;0.7766;3.4283;
15.0000;0.7774;3.4307;
15.3000;0.7774;3.4259;
15.6000;0.7774;3.4235;
15.9000;0.7790;3.4283;
16.2000;0.7806;3.4355;
16.5000;0.7798;3.4427;
16.8000;0.7774;3.4379;
17.1000;0.7814;3.4427;
17.4000;0.7823;3.4403;
17.7000;0.7806;3.4331;
18.0000;0.7863;3.4427;
18.3000;0.7871;3.4403;
18.6000;0.7871;3.4379;
18.9000;0.7904;3.4427;
19.2000;0.7896;3.4307;
19.5000;0.7912;3.4211;
19.8000;0.7912;3.4211;
20.1000;0.7814;3.3875;
20.4000;0.7937;3.4235;
20.7000;0.7937;3.4283;
21.0000;0.7961;3.4379;
21.3000;0.7961;3.4403;
21.6000;0.7961;3.4355;
21.9000;0.7969;3.4451;
22.2000;0.7985;3.4427;
22.5000;0.8002;3.4595;
22.8000;0.8002;3.4571;
23.1000;0.7985;3.4427;
23.4000;0.8010;3.4475;
23.7000;0.8018;3.4451;
24.0000;0.8018;3.4331;
24.3000;0.8034;3.4379;
24.6000;0.8010;3.4403;
24.9000;0.8034;3.4331;
25.2000;0.8050;3.4331;
25.5000;0.8042;3.4259;
25.8000;0.8002;3.4187;
26.1000;0.8059;3.4307;
26.4000;0.8059;3.4355;
26.7000;0.8075;3.4427;
27.0000;0.8067;3.4451;
27.3000;0.8083;3.4379;
27.6000;0.8042;3.4259;
27.9000;0.8075;3.4331;
28.2000;0.8083;3.4427;
28.5000;0.8034;3.4355;
28.8000;0.8091;3.4403;
29.1000;0.8075;3.4331;
29.4000;0.8099;3.4331;
29.7000;0.8091;3.4355;
30.0000;0.8083;3.4331;
30.3000;0.8197;3.4643;
30.6000;0.8107;3.4403;
30.9000;0.8116;3.4403;
31.2000;0.8124;3.4451;
31.5000;0.8164;3.4595;
31.8000;0.8116;3.4427;
32.1000;0.8124;3.4427;
32.4000;0.8156;3.4403;
32.7000;0.8148;3.4427;
33.0000;0.8124;3.4403;
33.3000;0.8124;3.4523;
33.6000;0.8132;3.4451;
33.9000;0.8132;3.4403;
34.2000;0.8164;3.4451;
34.5000;0.8148;3.4427;
34.8000;0.8132;3.4427;
35.1000;0.8148;3.4475;
35.4000;0.8164;3.4523;
35.7000;0.8181;3.4499;
36.0000;0.8164;3.4523;
36.3000;0.8278;3.4811;
36.6000;0.8173;3.4667;
36.9000;0.8164;3.4499;
37.2000;0.8148;3.4379;
37.5000;0.8173;3.4451;
37.8000;0.8164;3.4451;
38.1000;0.8213;3.4451;
38.4000;0.8278;3.4667;
38.7000;0.8181;3.4403;
39.0000;0.8181;3.4355;
39.3000;0.8205;3.4499;
39.6000;0.8189;3.4379;
39.9000;0.8221;3.4451;
40.2000;0.8189;3.4355;
40.5000;0.8189;3.4403;
40.8000;0.8148;3.4283;
41.1000;0.8189;3.4283;
41.4000;0.8189;3.4331;
41.7000;0.8287;3.4523;
42.0000;0.8205;3.4403;
42.3000;0.8213;3.4379;
42.6000;0.8205;3.4403;
42.9000;0.8230;3.4331;
43.2000;0.8213;3.4211;
43.5000;0.8221;3.4307;
43.8000;0.8213;3.4283;
44.1000;0.8238;3.4427;
44.4000;0.8230;3.4451;
44.7000;0.8230;3.4427;
45.0000;0.8246;3.4427;
45.3000;0.8230;3.4427;
45.6000;0.8246;3.4427;
45.9000;0.8262;3.4403;
46.2000;0.8213;3.4307;
46.5000;0.8238;3.4379;
46.8000;0.8238;3.4355;
47.1000;0.8246;3.4307;
47.4000;0.8254;3.4259;
47.7000;0.8238;3.4163;
48.0000;0.8254;3.4115;
48.3000;0.8278;3.4091;
48.6000;0.8254;3.4067;
48.9000;0.8246;3.4043;
49.2000;0.8287;3.4211;
49.5000;0.8278;3.4259;
49.8000;0.8262;3.4259;
50.1000;0.8270;3.4235;
50.4000;0.8246;3.4139;
50.7000;0.8278;3.4283;
51.0000;0.8221;3.4139;
51.3000;0.8230;3.4211;
51.6000;0.8319;3.4427;
51.9000;0.8254;3.4307;
52.2000;0.8303;3.4499;
52.5000;0.8254;3.4331;
52.8000;0.8254;3.4331;
53.1000;0.8278;3.4403;
53.4000;0.8278;3.4355;
53.7000;0.8254;3.4355;
54.0000;0.8254;3.4427;
54.3000;0.8270;3.4427;
54.6000;0.8287;3.4427;
54.9000;0.8287;3.4427;
55.2000;0.8278;3.4331;
55.5000;0.8262;3.4307;
55.8000;0.8278;3.4355;
56.1000;0.8262;3.4283;
56.4000;0.8254;3.4259;
56.7000;0.8270;3.4307;
57.0000;0.8287;3.4451;
57.3000;0.8254;3.4427;
57.6000;0.8238;3.4331;
57.9000;0.8278;3.4427;
58.2000;0.8303;3.4523;
58.5000;0.8295;3.4523;
58.8000;0.8262;3.4427;
59.1000;0.8287;3.4427;
59.4000;0.8319;3.4451;
59.7000;0.8295;3.4355;
60.0000;0.8287;3.4355;
60.3000;0.8262;3.4283;
60.6000;0.8270;3.4307;
60.9000;0.8287;3.4475;
61.2000;0.8400;3.4763;
61.5000;0.8376;3.4715;
61.8000;0.8262;3.4451;
62.1000;0.8278;3.4379;
62.4000;0.8287;3.4475;
62.7000;0.8287;3.4475;
63.0000;0.8319;3.4595;
63.3000;0.8311;3.4595;
63.6000;0.8303;3.4451;
63.9000;0.8287;3.4355;
64.2000;0.8319;3.4379;
64.5000;0.8303;3.4451;
64.8000;0.8295;3.4403;
65.1000;0.8295;3.4355;
65.4000;0.8287;3.4331;
65.7000;0.8311;3.4379;
66.0000;0.8311;3.4379;
66.3000;0.8287;3.4283;
66.6000;0.8287;3.4235;
66.9000;0.8287;3.4259;
67.2000;0.8311;3.4331;
67.5000;0.8311;3.4307;
67.8000;0.8295;3.4307;
68.1000;0.8295;3.4283;
68.4000;0.8311;3.4427;
68.7000;0.8295;3.4355;
69.0000;0.8303;3.4427;
69.3000;0.8295;3.4475;
69.6000;0.8319;3.4451;
69.9000;0.8327;3.4403;
70.2000;0.8303;3.4355;
70.5000;0.8295;3.4331;
70.8000;0.8303;3.4283;
71.1000;0.8303;3.4331;
71.4000;0.8295;3.4283;
71.7000;0.8311;3.4403;
72.0000;0.8360;3.4403;
72.3000;0.8295;3.4211;
72.6000;0.8295;3.4187;
72.9000;0.8319;3.4235;
73.2000;0.8295;3.4043;
73.5000;0.8319;3.3995;
73.8000;0.8352;3.4043;
74.1000;0.8295;3.3923;
74.4000;0.8335;3.4091;
74.7000;0.8344;3.4091;
75.0000;0.8311;3.4043;
75.3000;0.8327;3.4115;
75.6000;0.8360;3.4259;
75.9000;0.8344;3.4307;
76.2000;0.8319;3.4259;
76.5000;0.8303;3.4283;
76.8000;0.8344;3.4403;
77.1000;0.8425;3.4619;
77.4000;0.8352;3.4307;
77.7000;0.8384;3.4403;
78.0000;0.8319;3.4211;
78.3000;0.8360;3.4403;
78.6000;0.8352;3.4331;
78.9000;0.8327;3.4235;
79.2000;0.8319;3.4163;
79.5000;0.8384;3.4187;
79.8000;0.8327;3.4067;
80.1000;0.8311;3.4043;
80.4000;0.8335;3.4115;
80.7000;0.8327;3.4235;
81.0000;0.8344;3.4187;
81.3000;0.8352;3.4115;
81.6000;0.8319;3.4091;
81.9000;0.8335;3.4091;
82.2000;0.8335;3.4019;
82.5000;0.8384;3.4091;
82.8000;0.8319;3.4019;
83.1000;0.8319;3.4067;
83.4000;0.8344;3.4139;
83.7000;0.8335;3.4139;
84.0000;0.8368;3.4163;
84.3000;0.8303;3.3971;
84.6000;0.8327;3.4139;
84.9000;0.8335;3.4163;
85.2000;0.8376;3.4235;
85.5000;0.8327;3.4163;
85.8000;0.8335;3.4115;
86.1000;0.8344;3.4067;
86.4000;0.8360;3.3995;
86.7000;0.8344;3.4067;
87.0000;0.8352;3.4019;
87.3000;0.8360;3.4019;
87.6000;0.8360;3.3971;
87.9000;0.8344;3.3947;
88.2000;0.8335;3.3971;
88.5000;0.8335;3.3923;
88.8000;0.8344;3.3971;
89.1000;0.8335;3.4019;
89.4000;0.8335;3.4067;
89.7000;0.8327;3.3971;
90.0000;0.8327;3.3971;
90.3000;0.8352;3.4091;
90.6000;0.8344;3.4067;
90.9000;0.8352;3.4115;
91.2000;0.8352;3.4139;
91.5000;0.8360;3.4091;
91.8000;0.8352;3.3947;
92.1000;0.8368;3.3971;
92.4000;0.8360;3.3875;
92.7000;0.8360;3.3827;
93.0000;0.8360;3.3803;
93.3000;0.8384;3.3947;
93.6000;0.8352;3.4019;
93.9000;0.8368;3.4043;
94.2000;0.8360;3.4019;
94.5000;0.8344;3.4043;
94.8000;0.8344;3.4067;
95.1000;0.8344;3.3899;
95.4000;0.8344;3.3875;
95.7000;0.8344;3.3875;
96.0000;0.8344;3.3827;
96.3000;0.8327;3.3851;
96.6000;0.8344;3.3923;
96.9000;0.8335;3.3923;
97.2000;0.8327;3.3947;
97.5000;0.8335;3.3995;
97.8000;0.8376;3.4115;
98.1000;0.8425;3.4283;
98.4000;0.8335;3.4115;
98.7000;0.8360;3.4211;
99.0000;0.8352;3.4211;
99.3000;0.8384;3.4163;
99.6000;0.8335;3.4043;
99.9000;0.8327;3.4019;
100.2000;0.8360;3.4019;
100.5000;0.8368;3.3923;
100.8000;0.8352;3.3923;
101.1000;0.8409;3.4067;
101.4000;0.8344;3.3827;
101.7000;0.8303;3.3731;
102.0000;0.8392;3.3995;
102.3000;0.8360;3.3971;
102.6000;0.8368;3.4067;
102.9000;0.8352;3.4019;
103.2000;0.8360;3.4043;
103.5000;0.8352;3.3971;
103.8000;0.8344;3.3971;
104.1000;0.8360;3.3971;
104.4000;0.8360;3.4043;
104.7000;0.8360;3.4019;
105.0000;0.8368;3.4067;
105.3000;0.8368;3.4211;
105.6000;0.8368;3.4235;
105.9000;0.8344;3.4115;
106.2000;0.8360;3.4091;
106.5000;0.8352;3.4115;
106.8000;0.8376;3.4163;
107.1000;0.8384;3.4139;
107.4000;0.8368;3.4043;
107.7000;0.8344;3.3947;
108.0000;0.8360;3.3947;
108.3000;0.8352;3.4043;
108.6000;0.8360;3.4019;
108.9000;0.8352;3.3971;
109.2000;0.8368;3.3923;
109.5000;0.8352;3.3899;
109.8000;0.8360;3.3947;
110.1000;0.8344;3.3947;
110.4000;0.8368;3.3923;
110.7000;0.8441;3.4115;
111.0000;0.8344;3.3899;
111.3000;0.8352;3.3971;
111.6000;0.8392;3.4019;
111.9000;0.8360;3.3971;
112.2000;0.8368;3.3995;
112.5000;0.8376;3.3923;
112.8000;0.8384;3.3875;
113.1000;0.8360;3.3851;
113.4000;0.8376;3.3851;
113.7000;0.8352;3.3803;
114.0000;0.8344;3.3755;
114.3000;0.8368;3.3899;
114.6000;0.8368;3.3875;
114.9000;0.8278;3.3611;
115.2000;0.8327;3.3803;
115.5000;0.8360;3.3947;
115.8000;0.8368;3.3923;
116.1000;0.8376;3.3875;
116.4000;0.8352;3.3779;
116.7000;0.8376;3.3851;
117.0000;0.8376;3.3779;
117.3000;0.8368;3.3659;
117.6000;0.8384;3.3659;
117.9000;0.8384;3.3803;
118.2000;0.8376;3.3779;
118.5000;0.8344;3.3731;
118.8000;0.8368;3.3803;
119.1000;0.8352;3.3755;
119.4000;0.8360;3.3803;
119.7000;0.8344;3.3731;
120.0000;0.8368;3.3779;
120.3000;0.8344;3.3731;
120.6000;0.8368;3.3923;
120.9000;0.8352;3.3899;
121.2000;0.8376;3.3923;
121.5000;0.8360;3.3875;
121.8000;0.8376;3.3899;
122.1000;0.8352;3.3755;
122.4000;0.8335;3.3707;
122.7000;0.8360;3.3827;
123.0000;0.8376;3.3875;
123.3000;0.8392;3.3947;
123.6000;0.8360;3.3851;
123.9000;0.8360;3.3899;
124.2000;0.8344;3.3755;
124.5000;0.8433;3.3947;
124.8000;0.8368;3.3803;
125.1000;0.8352;3.3851;
125.4000;0.8368;3.3851;
125.7000;0.8368;3.3923;
126.0000;0.8425;3.4043;
126.3000;0.8368;3.3899;
126.6000;0.8392;3.3947;
126.9000;0.8368;3.3875;
127.2000;0.8360;3.3875;
127.5000;0.8368;3.3827;
127.8000;0.8360;3.3827;
128.1000;0.8384;3.3803;
128.4000;0.8384;3.3755;
128.7000;0.8376;3.3659;
129.0000;0.8384;3.3635;
129.3000;0.8384;3.3635;
129.6000;0.8368;3.3659;
129.9000;0.8376;3.3635;
130.2000;0.8384;3.3659;
130.5000;0.8376;3.3683;
130.8000;0.8335;3.3635;
131.1000;0.8368;3.3827;
131.4000;0.8344;3.3731;
131.7000;0.8352;3.3707;
132.0000;0.8376;3.3707;
132.3000;0.8384;3.3779;
132.6000;0.8352;3.3755;
132.9000;0.8417;3.3899;
133.2000;0.8368;3.3779;
133.5000;0.8376;3.3851;
133.8000;0.8433;3.3995;
134.1000;0.8368;3.3851;
134.4000;0.8384;3.3899;
134.7000;0.8368;3.3875;
135.0000;0.8376;3.4019;
135.3000;0.8482;3.4211;
135.6000;0.8368;3.3947;
135.9000;0.8270;3.3683;
136.2000;0.8360;3.3947;
136.5000;0.8384;3.3971;
136.8000;0.8441;3.4043;
137.1000;0.8384;3.3995;
137.4000;0.8400;3.4043;
137.7000;0.8376;3.3875;
138.0000;0.8384;3.3971;
138.3000;0.8376;3.3971;
138.6000;0.8376;3.4043;
138.9000;0.8360;3.4067;
139.2000;0.8376;3.4091;
139.5000;0.8360;3.4115;
139.8000;0.8360;3.4043;
140.1000;0.8368;3.3947;
140.4000;0.8376;3.3923;
140.7000;0.8360;3.3899;
141.0000;0.8376;3.3875;
141.3000;0.8360;3.3899;
141.6000;0.8376;3.3899;
141.9000;0.8344;3.3899;
142.2000;0.8384;3.3971;
142.5000;0.8376;3.3899;
142.8000;0.8368;3.3875;
143.1000;0.8303;3.3779;
143.4000;0.8376;3.3851;
143.7000;0.8384;3.3827;
144.0000;0.8360;3.3851;
144.3000;0.8360;3.3827;
144.6000;0.8368;3.3827;
144.9000;0.8352;3.3851;
145.2000;0.8352;3.3851;
145.5000;0.8368;3.3851;
145.8000;0.8360;3.3779;
146.1000;0.8303;3.3683;
146.4000;0.8368;3.3851;
146.7000;0.8376;3.3923;
147.0000;0.8384;3.3923;
147.3000;0.8376;3.3947;
147.6000;0.8376;3.3899;
147.9000;0.8376;3.3803;
148.2000;0.8384;3.3731;
148.5000;0.8384;3.3755;
148.8000;0.8376;3.3755;
149.1000;0.8368;3.3731;
149.4000;0.8376;3.3803;
149.7000;0.8376;3.3755;
150.0000;0.8384;3.3875;
150.3000;0.8376;3.3899;
150.6000;0.8360;3.3851;
150.9000;0.8360;3.3803;
151.2000;0.8376;3.3827;
151.5000;0.8352;3.3803;
151.8000;0.8376;3.3755;
152.1000;0.8368;3.3779;
152.4000;0.8514;3.4091;
152.7000;0.8368;3.3755;
153.0000;0.8368;3.3755;
153.3000;0.8327;3.3635;
153.6000;0.8303;3.3515;
153.9000;0.8400;3.3707;
154.2000;0.8441;3.3851;
154.5000;0.8335;3.3635;
154.8000;0.8368;3.3659;
155.1000;0.8384;3.3683;
155.4000;0.8368;3.3731;
155.7000;0.8352;3.3707;
156.0000;0.8368;3.3803;
156.3000;0.8368;3.3851;
156.6000;0.8384;3.3899;
156.9000;0.8417;3.3899;
157.2000;0.8392;3.3779;
157.5000;0.8384;3.3779;
157.8000;0.8392;3.3851;
158.1000;0.8433;3.3899;
158.4000;0.8384;3.3851;
158.7000;0.8368;3.3851;
159.0000;0.8360;3.3899;
159.3000;0.8425;3.4019;
159.6000;0.8376;3.3851;
159.9000;0.8295;3.3539;
160.2000;0.8384;3.3731;
160.5000;0.8368;3.3683;
160.8000;0.8368;3.3755;
161.1000;0.8400;3.3803;
161.4000;0.8384;3.3827;
161.7000;0.8392;3.3923;
162.0000;0.8368;3.3947;
162.3000;0.8376;3.4019;
162.6000;0.8409;3.4019;
162.9000;0.8392;3.4043;
163.2000;0.8368;3.3995;
163.5000;0.8368;3.3995;
163.8000;0.8392;3.3995;
164.1000;0.8376;3.3923;
164.4000;0.8360;3.3803;
164.7000;0.8368;3.3755;
165.0000;0.8384;3.3755;
165.3000;0.8368;3.3707;
165.6000;0.8376;3.3707;
165.9000;0.8360;3.3683;
166.2000;0.8392;3.3779;
166.5000;0.8352;3.3803;
166.8000;0.8376;3.3803;
167.1000;0.8392;3.3803;
167.4000;0.8376;3.3803;
167.7000;0.8417;3.3923;
168.0000;0.8376;3.3827;
168.3000;0.8368;3.3851;
168.6000;0.8400;3.3947;
168.9000;0.8392;3.3947;
169.2000;0.8368;3.3923;
169.5000;0.8327;3.3827;
169.8000;0.8417;3.3995;
170.1000;0.8352;3.3851;
170.4000;0.8417;3.3923;
170.7000;0.8368;3.3971;
171.0000;0.8319;3.3875;
171.3000;0.8368;3.3995;
171.6000;0.8384;3.4019;
171.9000;0.8368;3.3995;
172.2000;0.8384;3.3923;
172.5000;0.8368;3.3803;
172.8000;0.8392;3.3899;
173.1000;0.8392;3.3875;
173.4000;0.8376;3.3827;
173.7000;0.8400;3.3947;
174.0000;0.8433;3.4163;
174.3000;0.8360;3.3947;
174.6000;0.8368;3.3899;
174.9000;0.8376;3.3923;
175.2000;0.8392;3.4019;
175.5000;0.8384;3.3971;
175.8000;0.8352;3.3899;
176.1000;0.8376;3.3851;
176.4000;0.8425;3.3947;
176.7000;0.8376;3.3923;
177.0000;0.8360;3.3923;
177.3000;0.8352;3.3923;
177.6000;0.8384;3.3971;
177.9000;0.8384;3.3971;
178.2000;0.8417;3.3971;
178.5000;0.8384;3.3875;
178.8000;0.8368;3.3827;
179.1000;0.8360;3.3779;
179.4000;0.8376;3.3611;
179.7000;0.8368;3.3611;
180.0000;0.8368;3.3659;
180.3000;0.8360;3.3659;
180.6000;0.8392;3.3683;
180.9000;0.8368;3.3731;
181.2000;0.8384;3.3683;
181.5000;0.8376;3.3731;
181.8000;0.8384;3.3827;
182.1000;0.8384;3.3923;
182.4000;0.8376;3.3995;
182.7000;0.8392;3.3995;
183.0000;0.8417;3.4091;
183.3000;0.8400;3.4091;
183.6000;0.8384;3.4043;
183.9000;0.8376;3.4043;
184.2000;0.8376;3.4067;
184.5000;0.8376;3.4091;
184.8000;0.8384;3.4019;
185.1000;0.8376;3.4019;
185.4000;0.8376;3.3947;
185.7000;0.8376;3.3947;
186.0000;0.8384;3.3923;
186.3000;0.8400;3.3923;
186.6000;0.8384;3.3875;
186.9000;0.8400;3.3899;
187.2000;0.8392;3.3899;
187.5000;0.8376;3.3875;
187.8000;0.8368;3.3899;
188.1000;0.8392;3.4019;
188.4000;0.8376;3.4019;
188.7000;0.8409;3.4091;
189.0000;0.8368;3.4019;
189.3000;0.8392;3.4067;
189.6000;0.8392;3.4043;
189.9000;0.8368;3.3947;
190.2000;0.8360;3.3995;
190.5000;0.8384;3.4091;
190.8000;0.8384;3.4019;
191.1000;0.8376;3.4067;
191.4000;0.8368;3.3947;
191.7000;0.8384;3.3947;
192.0000;0.8376;3.3995;
192.3000;0.8344;3.3899;
192.6000;0.8457;3.4187;
192.9000;0.8400;3.4067;
193.2000;0.8344;3.3875;
193.5000;0.8344;3.3755;
193.8000;0.8287;3.3635;
194.1000;0.8392;3.3875;
194.4000;0.8392;3.3923;
194.7000;0.8506;3.4211;
195.0000;0.8384;3.3995;
195.3000;0.8368;3.3971;
195.6000;0.8392;3.4019;
195.9000;0.8400;3.4067;
196.2000;0.8392;3.4091;
196.5000;0.8417;3.4043;
196.8000;0.8384;3.3995;
197.1000;0.8384;3.3995;
197.4000;0.8433;3.4067;
197.7000;0.8449;3.4211;
198.0000;0.8449;3.4187;
198.3000;0.8384;3.4067;
198.6000;0.8368;3.4043;
198.9000;0.8376;3.4067;
199.2000;0.8368;3.4067;
199.5000;0.8368;3.4091;
199.8000;0.8376;3.4115;
200.1000;0.8376;3.4163;
200.4000;0.8360;3.4091;
200.7000;0.8384;3.4115;
201.0000;0.8384;3.4091;
201.3000;0.8376;3.4115;
201.6000;0.8384;3.4187;
201.9000;0.8400;3.4307;
202.2000;0.8392;3.4259;
202.5000;0.8441;3.4355;
202.8000;0.8400;3.4211;
203.1000;0.8376;3.4067;
203.4000;0.8376;3.3947;
203.7000;0.8368;3.3875;
204.0000;0.8376;3.3923;
204.3000;0.8368;3.3947;
204.6000;0.8392;3.3923;
204.9000;0.8376;3.3899;
205.2000;0.8384;3.3923;
205.5000;0.8384;3.3971;
205.8000;0.8392;3.3971;
206.1000;0.8400;3.4019;
206.4000;0.8409;3.3995;
206.7000;0.8392;3.4019;
207.0000;0.8400;3.4115;
207.3000;0.8392;3.4067;
207.6000;0.8376;3.4043;
207.9000;0.8376;3.4043;
208.2000;0.8384;3.4067;
208.5000;0.8376;3.4043;
208.8000;0.8392;3.4115;
209.1000;0.8368;3.4067;
209.4000;0.8384;3.4043;
209.7000;0.8376;3.3971;
210.0000;0.8368;3.3923;
210.3000;0.8384;3.3875;
210.6000;0.8392;3.3923;
210.9000;0.8376;3.3947;
211.2000;0.8376;3.4019;
211.5000;0.8368;3.4043;
211.8000;0.8376;3.4067;
212.1000;0.8417;3.4115;
212.4000;0.8392;3.4139;
212.7000;0.8400;3.4163;
213.0000;0.8384;3.4067;
213.3000;0.8417;3.4139;
213.6000;0.8409;3.4067;
213.9000;0.8490;3.4331;
214.2000;0.8311;3.3875;
214.5000;0.8327;3.3947;
214.8000;0.8384;3.4019;
215.1000;0.8344;3.3971;
215.4000;0.8360;3.3971;
215.7000;0.8384;3.3899;
216.0000;0.8376;3.3875;
216.3000;0.8368;3.3875;
216.6000;0.8400;3.4019;
216.9000;0.8392;3.3995;
217.2000;0.8409;3.4043;
217.5000;0.8400;3.4091;
217.8000;0.8376;3.3947;
218.1000;0.8352;3.3995;
218.4000;0.8376;3.4067;
218.7000;0.8400;3.4043;
219.0000;0.8392;3.4043;
219.3000;0.8392;3.4043;
219.6000;0.8441;3.4187;
219.9000;0.8384;3.4067;
220.2000;0.8400;3.4091;
220.5000;0.8376;3.4067;
220.8000;0.8384;3.4043;
221.1000;0.8376;3.4067;
221.4000;0.8368;3.4043;
221.7000;0.8376;3.3947;
222.0000;0.8376;3.3995;
222.3000;0.8392;3.4067;
222.6000;0.8384;3.4091;
222.9000;0.8384;3.4115;
223.2000;0.8368;3.4067;
223.5000;0.8335;3.3923;
223.8000;0.8417;3.4115;
224.1000;0.8392;3.3995;
224.4000;0.8400;3.3971;
224.7000;0.8392;3.3947;
225.0000;0.8384;3.3923;
225.3000;0.8392;3.3971;
225.6000;0.8384;3.3947;
225.9000;0.8384;3.3923;
226.2000;0.8376;3.3947;
226.5000;0.8376;3.3947;
226.8000;0.8368;3.3875;
227.1000;0.8425;3.3971;
227.4000;0.8384;3.3875;
227.7000;0.8384;3.3779;
228.0000;0.8384;3.3827;
228.3000;0.8368;3.3803;
228.6000;0.8400;3.3851;
228.9000;0.8392;3.3827;
229.2000;0.8384;3.3803;
229.5000;0.8392;3.3899;
229.8000;0.8392;3.3923;
230.1000;0.8457;3.4139;
230.4000;0.8376;3.3923;
230.7000;0.8368;3.3923;
231.0000;0.8392;3.4043;
231.3000;0.8400;3.4067;
231.6000;0.8392;3.4115;
231.9000;0.8384;3.4139;
232.2000;0.8449;3.4331;
232.5000;0.8392;3.4163;
232.8000;0.8384;3.4139;
233.1000;0.8400;3.4187;
233.4000;0.8384;3.4091;
233.7000;0.8400;3.4067;
234.0000;0.8449;3.4091;
234.3000;0.8409;3.4019;
234.6000;0.8384;3.3899;
234.9000;0.8392;3.3899;
235.2000;0.8400;3.3899;
235.5000;0.8376;3.3899;
235.8000;0.8384;3.3947;
236.1000;0.8384;3.3995;
236.4000;0.8384;3.3995;
236.7000;0.8376;3.3947;
237.0000;0.8376;3.4067;
237.3000;0.8384;3.4067;
237.6000;0.8368;3.4043;
237.9000;0.8384;3.4115;
238.2000;0.8400;3.4139;
238.5000;0.8360;3.3947;
238.8000;0.8392;3.4091;
239.1000;0.8384;3.4115;
239.4000;0.8384;3.4115;
239.7000;0.8417;3.4211;
240.0000;0.8392;3.4091;
240.3000;0.8376;3.4043;
240.6000;0.8384;3.3995;
240.9000;0.8376;3.3947;
241.2000;0.8368;3.4019;
241.5000;0.8278;3.3851;
241.8000;0.8344;3.3995;
242.1000;0.8376;3.4067;
242.4000;0.8376;3.4091;
242.7000;0.8384;3.4067;
243.0000;0.8392;3.4115;
243.3000;0.8384;3.4067;
243.6000;0.8384;3.4019;
243.9000;0.8409;3.4163;
244.2000;0.8409;3.4091;
244.5000;0.8409;3.4043;
244.8000;0.8392;3.4019;
245.1000;0.8384;3.4091;
245.4000;0.8392;3.4163;
245.7000;0.8384;3.4115;
246.0000;0.8376;3.4115;
246.3000;0.8392;3.4091;
246.6000;0.8400;3.4043;
246.9000;0.8384;3.3995;
247.2000;0.8392;3.3971;
247.5000;0.8425;3.4043;
247.8000;0.8392;3.4019;
248.1000;0.8409;3.4043;
248.4000;0.8384;3.3971;
248.7000;0.8392;3.4043;
249.0000;0.8409;3.4115;
249.3000;0.8400;3.4115;
249.6000;0.8376;3.4067;
249.9000;0.8400;3.4067;
250.2000;0.8400;3.4019;
250.5000;0.8392;3.4043;
250.8000;0.8376;3.3971;
251.1000;0.8384;3.3923;
251.4000;0.8409;3.3947;
251.7000;0.8400;3.3923;
252.0000;0.8384;3.3851;
252.3000;0.8433;3.3995;
252.6000;0.8400;3.3971;
252.9000;0.8409;3.3875;
253.2000;0.8449;3.3923;
253.5000;0.8417;3.3875;
253.8000;0.8409;3.3971;
254.1000;0.8417;3.4067;
254.4000;0.8409;3.4091;
254.7000;0.8392;3.4019;
255.0000;0.8319;3.3779;
255.3000;0.8392;3.3947;
255.6000;0.8417;3.3947;
255.9000;0.8392;3.3923;
256.2000;0.8392;3.3923;
256.5000;0.8384;3.3971;
256.8000;0.8376;3.3923;
257.1000;0.8384;3.3923;
257.4000;0.8384;3.3971;
257.7000;0.8392;3.3971;
258.0000;0.8400;3.4043;
258.3000;0.8384;3.3995;
258.6000;0.8392;3.4019;
258.9000;0.8368;3.3995;
259.2000;0.8400;3.4043;
259.5000;0.8392;3.3971;
259.8000;0.8368;3.3899;
260.1000;0.8384;3.3875;
260.4000;0.8376;3.3851;
260.7000;0.8400;3.3923;
261.0000;0.8384;3.3851;
261.3000;0.8376;3.3875;
261.6000;0.8384;3.3851;
261.9000;0.8392;3.3827;
262.2000;0.8384;3.3803;
262.5000;0.8368;3.3755;
262.8000;0.8384;3.3827;
263.1000;0.8441;3.4115;
263.4000;0.8376;3.4043;
263.7000;0.8384;3.4091;
264.0000;0.8384;3.4043;
264.3000;0.8384;3.3923;
264.6000;0.8335;3.3635;
264.9000;0.8368;3.3683;
265.2000;0.8360;3.3707;
265.5000;0.8376;3.3803;
265.8000;0.8368;3.3827;
266.1000;0.8368;3.3803;
266.4000;0.8384;3.3875;
266.7000;0.8384;3.4043;
267.0000;0.8392;3.4187;
267.3000;0.8360;3.4067;
267.6000;0.8376;3.4067;
267.9000;0.8392;3.4091;
268.2000;0.8384;3.4139;
268.5000;0.8400;3.4091;
268.8000;0.8409;3.4139;
269.1000;0.8384;3.4091;
269.4000;0.8409;3.4139;
269.7000;0.8376;3.4043;
270.0000;0.8376;3.4067;
270.3000;0.8392;3.4067;
270.6000;0.8400;3.4067;
270.9000;0.8368;3.4043;
271.2000;0.8384;3.4043;
271.5000;0.8376;3.3971;
271.8000;0.8376;3.3971;
272.1000;0.8384;3.3995;
272.4000;0.8384;3.3899;
272.7000;0.8376;3.3995;
273.0000;0.8392;3.4043;
273.3000;0.8409;3.4043;
273.6000;0.8392;3.4043;
273.9000;0.8482;3.4331;
274.2000;0.8384;3.4139;
274.5000;0.8392;3.4283;
274.8000;0.8409;3.4259;
275.1000;0.8376;3.4235;
275.4000;0.8400;3.4331;
275.7000;0.8400;3.4379;
276.0000;0.8384;3.4451;
276.3000;0.8392;3.4475;
276.6000;0.8400;3.4403;
276.9000;0.8376;3.4403;
277.2000;0.8392;3.4427;
277.5000;0.8392;3.4403;
277.8000;0.8392;3.4355;
278.1000;0.8303;3.4283;
278.4000;0.8400;3.4451;
278.7000;0.8376;3.4331;
279.0000;0.8376;3.4259;
279.3000;0.8303;3.4043;
279.6000;0.8392;3.4187;
279.9000;0.8368;3.4115;
280.2000;0.8384;3.4115;
280.5000;0.8368;3.4163;
280.8000;0.8376;3.4139;
281.1000;0.8352;3.4067;
281.4000;0.8376;3.4067;
281.7000;0.8384;3.4067;
282.0000;0.8360;3.3971;
282.3000;0.8384;3.4091;
282.6000;0.8376;3.4019;
282.9000;0.8425;3.4019;
283.2000;0.8360;3.3923;
283.5000;0.8417;3.4043;
283.8000;0.8376;3.3923;
284.1000;0.8400;3.4043;
284.4000;0.8457;3.4259;
284.7000;0.8409;3.4139;
285.0000;0.8409;3.4115;
285.3000;0.8344;3.4043;
285.6000;0.8392;3.4139;
285.9000;0.8376;3.4067;
286.2000;0.8352;3.4139;
286.5000;0.8287;3.3947;
286.8000;0.8400;3.4163;
287.1000;0.8490;3.4403;
287.4000;0.8409;3.4115;
287.7000;0.8457;3.4211;
288.0000;0.8384;3.4139;
288.3000;0.8409;3.4211;
288.6000;0.8417;3.4187;
288.9000;0.8490;3.4427;
289.2000;0.8400;3.4163;
289.5000;0.8376;3.4115;
289.8000;0.8441;3.4307;
290.1000;0.8384;3.4235;
290.4000;0.8384;3.4115;
290.7000;0.8376;3.4043;
291.0000;0.8392;3.3971;
291.3000;0.8384;3.3923;
291.6000;0.8368;3.3899;
291.9000;0.8392;3.3995;
292.2000;0.8409;3.3995;
292.5000;0.8425;3.4067;
292.8000;0.8400;3.3995;
293.1000;0.8384;3.3923;
293.4000;0.8400;3.3899;
293.7000;0.8384;3.3875;
294.0000;0.8392;3.3899;
294.3000;0.8376;3.3851;
294.6000;0.8384;3.3899;
294.9000;0.8392;3.4019;
295.2000;0.8392;3.3995;
295.5000;0.8376;3.3899;
295.8000;0.8409;3.3923;
296.1000;0.8409;3.3971;
296.4000;0.8400;3.3947;
296.7000;0.8392;3.3995;
297.0000;0.8400;3.3923;
297.3000;0.8425;3.3971;
297.6000;0.8376;3.3947;
297.9000;0.8400;3.3995;
298.2000;0.8376;3.3971;
298.5000;0.8368;3.4019;
298.8000;0.8400;3.4115;
299.1000;0.8376;3.4091;
299.4000;0.8352;3.3995;
299.7000;0.8368;3.4019;
300.0000;0.8417;3.4067;
300.3000;0.8368;3.3971;
300.6000;0.8368;3.3923;
300.9000;0.8425;3.4043;
301.2000;0.8327;3.3779;
301.5000;0.8368;3.3827;
301.8000;0.8360;3.3779;
302.1000;0.8384;3.3851;
302.4000;0.8384;3.3827;
302.7000;0.8392;3.3923;
303.0000;0.8400;3.3995;
303.3000;0.8425;3.4067;
303.6000;0.8409;3.4043;
303.9000;0.8384;3.3995;
304.2000;0.8392;3.3995;
304.5000;0.8376;3.4043;
304.8000;0.8400;3.3971;
305.1000;0.8409;3.3923;
305.4000;0.8368;3.3899;
305.7000;0.8384;3.3899;
306.0000;0.8384;3.3899;
306.3000;0.8376;3.3875;
306.6000;0.8392;3.3827;
306.9000;0.8409;3.3851;
307.2000;0.8392;3.3875;
307.5000;0.8409;3.3875;
307.8000;0.8425;3.3851;
308.1000;0.8392;3.3803;
308.4000;0.8392;3.3755;
308.7000;0.8392;3.3731;
309.0000;0.8384;3.3899;
309.3000;0.8335;3.3779;
309.6000;0.8384;3.3899;
309.9000;0.8335;3.3779;
310.2000;0.8368;3.3827;
310.5000;0.8344;3.3707;
310.8000;0.8368;3.3803;
311.1000;0.8368;3.3779;
311.4000;0.8400;3.3899;
311.7000;0.8344;3.3851;
312.0000;0.8376;3.3947;
312.3000;0.8360;3.3899;
312.6000;0.8392;3.3971;
312.9000;0.8392;3.3947;
313.2000;0.8368;3.3899;
313.5000;0.8400;3.3851;
313.8000;0.8376;3.3779;
314.1000;0.8400;3.3875;
314.4000;0.8433;3.3971;
314.7000;0.8384;3.3851;
315.0000;0.8392;3.3875;
315.3000;0.8392;3.3899;
315.6000;0.8409;3.3803;
315.9000;0.8384;3.3683;
316.2000;0.8400;3.3779;
316.5000;0.8376;3.3779;
316.8000;0.8392;3.3851;
317.1000;0.8392;3.3875;
317.4000;0.8400;3.3827;
317.7000;0.8392;3.3827;
318.0000;0.8409;3.3923;
318.3000;0.8417;3.3875;
318.6000;0.8392;3.3851;
318.9000;0.8417;3.3875;
319.2000;0.8392;3.3899;
319.5000;0.8392;3.3923;
319.8000;0.8384;3.3947;
320.1000;0.8384;3.3923;
320.4000;0.8376;3.3923;
320.7000;0.8368;3.3899;
321.0000;0.8352;3.3731;
321.3000;0.8400;3.3779;
321.6000;0.8384;3.3755;
321.9000;0.8376;3.3755;
322.2000;0.8344;3.3659;
322.5000;0.8376;3.3611;
322.8000;0.8400;3.3779;
323.1000;0.8376;3.3803;
323.4000;0.8368;3.3803;
323.7000;0.8384;3.3875;
324.0000;0.8441;3.4019;
324.3000;0.8352;3.3899;
324.6000;0.8384;3.3947;
324.9000;0.8376;3.3875;
325.2000;0.8441;3.4067;
325.5000;0.8384;3.3971;
325.8000;0.8368;3.3923;
326.1000;0.8384;3.3971;
326.4000;0.8433;3.4043;
326.7000;0.8311;3.3779;
327.0000;0.8376;3.3827;
327.3000;0.8384;3.3779;
327.6000;0.8400;3.3851;
327.9000;0.8392;3.3851;
328.2000;0.8392;3.3827;
328.5000;0.8384;3.3851;
328.8000;0.8400;3.3875;
329.1000;0.8409;3.3923;
329.4000;0.8384;3.3875;
329.7000;0.8376;3.3923;
330.0000;0.8392;3.3899;
330.3000;0.8392;3.3971;
330.6000;0.8376;3.4139;
330.9000;0.8384;3.4139;
331.2000;0.8360;3.4067;
331.5000;0.8376;3.4115;
331.8000;0.8384;3.4019;
332.1000;0.8384;3.4019;
332.4000;0.8360;3.4019;
332.7000;0.8425;3.4043;
333.0000;0.8392;3.3923;
333.3000;0.8352;3.3851;
333.6000;0.8417;3.4019;
333.9000;0.8392;3.3971;
334.2000;0.8449;3.4163;
334.5000;0.8384;3.4019;
334.8000;0.8392;3.3971;
335.1000;0.8392;3.4019;
335.4000;0.8352;3.3923;
335.7000;0.8335;3.3875;
336.0000;0.8360;3.3899;
336.3000;0.8384;3.3947;
336.6000;0.8376;3.3995;
336.9000;0.8384;3.4115;
337.2000;0.8384;3.4187;
337.5000;0.8360;3.4139;
337.8000;0.8384;3.4235;
338.1000;0.8400;3.4259;
338.4000;0.8368;3.4139;
338.7000;0.8376;3.4091;
339.0000;0.8474;3.4355;
339.3000;0.8392;3.4139;
339.6000;0.8327;3.3923;
339.9000;0.8409;3.4091;
340.2000;0.8392;3.3971;
340.5000;0.8352;3.3899;
340.8000;0.8368;3.3971;
341.1000;0.8376;3.4019;
341.4000;0.8384;3.4043;
341.7000;0.8400;3.4163;
342.0000;0.8400;3.4163;
342.3000;0.8409;3.4163;
342.6000;0.8392;3.4235;
342.9000;0.8368;3.4211;
343.2000;0.8466;3.4475;
343.5000;0.8457;3.4499;
343.8000;0.8417;3.4379;
344.1000;0.8392;3.4235;
344.4000;0.8441;3.4355;
344.7000;0.8384;3.4259;
345.0000;0.8400;3.4283;
345.3000;0.8384;3.4259;
345.6000;0.8400;3.4235;
345.9000;0.8425;3.4307;
346.2000;0.8400;3.4211;
346.5000;0.8384;3.4163;
346.8000;0.8400;3.4139;
347.1000;0.8409;3.4187;
347.4000;0.8335;3.4043;
347.7000;0.8392;3.4067;
348.0000;0.8433;3.4139;
348.3000;0.8400;3.3995;
348.6000;0.8392;3.3923;
348.9000;0.8368;3.3899;
349.2000;0.8360;3.3923;
349.5000;0.8384;3.3971;
349.8000;0.8409;3.3947;
350.1000;0.8376;3.3899;
350.4000;0.8368;3.3851;
350.7000;0.8409;3.4019;
351.0000;0.8360;3.3923;
351.3000;0.8360;3.3899;
351.6000;0.8376;3.3923;
351.9000;0.8400;3.3875;
352.2000;0.8376;3.3923;
352.5000;0.8400;3.3923;
352.8000;0.8392;3.3923;
353.1000;0.8392;3.3923;
353.4000;0.8368;3.3851;
353.7000;0.8376;3.3947;
354.0000;0.8376;3.3971;
354.3000;0.8400;3.3971;
354.6000;0.8360;3.3923;
354.9000;0.8384;3.3995;
355.2000;0.8360;3.3827;
355.5000;0.8344;3.3683;
355.8000;0.8368;3.3875;
356.1000;0.8376;3.3947;
356.4000;0.8368;3.3947;
356.7000;0.8360;3.3995;
357.0000;0.8392;3.4019;
357.3000;0.8449;3.4115;
357.6000;0.8392;3.3947;
357.9000;0.8400;3.3923;
358.2000;0.8392;3.3923;
358.5000;0.8400;3.3923;
358.8000;0.8376;3.3899;
359.1000;0.8368;3.3899;
359.4000;0.8449;3.4115;
359.7000;0.8376;3.3875;
360.0000;0.8392;3.3947;
360.3000;0.8392;3.3899;
360.6000;0.8352;3.3827;
360.9000;0.8392;3.3875;
361.2000;0.8392;3.3803;
361.5000;0.8392;3.3827;
361.8000;0.8392;3.3875;
362.1000;0.8376;3.3947;
362.4000;0.8490;3.4307;
362.7000;0.8392;3.3995;
363.0000;0.8376;3.3971;
363.3000;0.8392;3.4091;
363.6000;0.8441;3.4091;
363.9000;0.8384;3.3947;
364.2000;0.8376;3.3875;
364.5000;0.8360;3.3851;
364.8000;0.8384;3.3923;
365.1000;0.8392;3.3923;
365.4000;0.8352;3.3803;
365.7000;0.8368;3.3899;
366.0000;0.8409;3.3947;
366.3000;0.8392;3.3875;
366.6000;0.8384;3.3971;
366.9000;0.8384;3.4091;
367.2000;0.8384;3.4115;
367.5000;0.8392;3.4163;
367.8000;0.8384;3.4091;
368.1000;0.8376;3.4067;
368.4000;0.8400;3.4163;
368.7000;0.8392;3.4091;
369.0000;0.8409;3.4043;
369.3000;0.8368;3.3947;
369.6000;0.8376;3.3923;
369.9000;0.8392;3.3971;
370.2000;0.8400;3.4019;
370.5000;0.8392;3.4019;
370.8000;0.8376;3.4019;
371.1000;0.8376;3.3947;
371.4000;0.8319;3.3803;
371.7000;0.8368;3.3923;
372.0000;0.8400;3.3995;
372.3000;0.8400;3.4019;
372.6000;0.8400;3.4091;
372.9000;0.8400;3.3971;
373.2000;0.8376;3.3851;
373.5000;0.8360;3.3827;
373.8000;0.8319;3.3659;
374.1000;0.8360;3.3755;
374.4000;0.8368;3.3779;
374.7000;0.8368;3.3779;
375.0000;0.8376;3.3755;
375.3000;0.8400;3.3803;
375.6000;0.8368;3.3731;
375.9000;0.8417;3.3875;
376.2000;0.8384;3.3899;
376.5000;0.8368;3.3851;
376.8000;0.8376;3.3875;
377.1000;0.8360;3.3851;
377.4000;0.8384;3.3899;
377.7000;0.8384;3.3899;
378.0000;0.8368;3.3875;
378.3000;0.8425;3.3947;
378.6000;0.8400;3.3899;
378.9000;0.8384;3.3899;
379.2000;0.8384;3.3851;
379.5000;0.8400;3.3875;
379.8000;0.8384;3.3779;
380.1000;0.8384;3.3851;
380.4000;0.8344;3.3707;
380.7000;0.8344;3.3659;
381.0000;0.8384;3.3731;
381.3000;0.8409;3.3707;
381.6000;0.8352;3.3539;
381.9000;0.8384;3.3707;
382.2000;0.8384;3.3827;
382.5000;0.8335;3.3779;
382.8000;0.8376;3.3779;
383.1000;0.8368;3.3707;
383.4000;0.8392;3.3779;
383.7000;0.8384;3.3707;
384.0000;0.8392;3.3683;
384.3000;0.8368;3.3563;
384.6000;0.8376;3.3539;
384.9000;0.8384;3.3635;
385.2000;0.8368;3.3683;
385.5000;0.8417;3.3803;
385.8000;0.8384;3.3731;
386.1000;0.8376;3.3707;
386.4000;0.8344;3.3707;
386.7000;0.8376;3.3803;
387.0000;0.8400;3.3779;
387.3000;0.8392;3.3803;
387.6000;0.8392;3.3755;
387.9000;0.8384;3.3755;
388.2000;0.8384;3.3923;
388.5000;0.8392;3.3971;
388.8000;0.8384;3.3851;
389.1000;0.8409;3.3899;
389.4000;0.8400;3.3827;
389.7000;0.8384;3.3827;
390.0000;0.8400;3.3899;
390.3000;0.8384;3.3875;
390.6000;0.8384;3.3851;
390.9000;0.8360;3.3851;
391.2000;0.8376;3.3947;
391.5000;0.8400;3.3971;
391.8000;0.8400;3.3947;
392.1000;0.8327;3.3755;
392.4000;0.8384;3.3851;
392.7000;0.8392;3.3827;
393.0000;0.8400;3.3851;
393.3000;0.8392;3.3851;
393.6000;0.8384;3.3851;
393.9000;0.8360;3.3755;
394.2000;0.8368;3.3779;
394.5000;0.8368;3.3683;
394.8000;0.8384;3.3611;
395.1000;0.8384;3.3611;
395.4000;0.8376;3.3635;
395.7000;0.8376;3.3731;
396.0000;0.8368;3.3731;
396.3000;0.8384;3.3779;
396.6000;0.8368;3.3755;
396.9000;0.8392;3.3851;
397.2000;0.8368;3.3851;
397.5000;0.8392;3.3947;
397.8000;0.8433;3.4043;
398.1000;0.8400;3.4019;
398.4000;0.8400;3.3947;
398.7000;0.8392;3.3779;
399.0000;0.8392;3.3779;
399.3000;0.8409;3.3755;
399.6000;0.8425;3.3755;
399.9000;0.8352;3.3587;
400.2000;0.8368;3.3707;
400.5000;0.8400;3.3851;
400.8000;0.8319;3.3635;
401.1000;0.8441;3.3899;
401.4000;0.8417;3.3875;
401.7000;0.8384;3.3779;
402.0000;0.8368;3.3851;
402.3000;0.8360;3.3851;
402.6000;0.8392;3.3947;
402.9000;0.8417;3.3971;
403.2000;0.8376;3.3875;
403.5000;0.8441;3.3971;
403.8000;0.8400;3.3803;
404.1000;0.8400;3.3827;
404.4000;0.8400;3.3803;
404.7000;0.8376;3.3827;
405.0000;0.8384;3.3971;
405.3000;0.8392;3.3947;
405.6000;0.8417;3.3923;
405.9000;0.8400;3.3827;
406.2000;0.8409;3.3803;
406.5000;0.8384;3.3803;
406.8000;0.8384;3.3803;
407.1000;0.8482;3.3971;
407.4000;0.8360;3.3731;
407.7000;0.8376;3.3803;
408.0000;0.8392;3.3899;
408.3000;0.8409;3.3971;
408.6000;0.8376;3.3899;
408.9000;0.8392;3.3899;
409.2000;0.8392;3.3923;
409.5000;0.8392;3.3995;
409.8000;0.8360;3.4019;
410.1000;0.8376;3.4091;
410.4000;0.8368;3.4067;
410.7000;0.8392;3.3995;
411.0000;0.8392;3.3947;
411.3000;0.8376;3.3947;
411.6000;0.8368;3.3875;
411.9000;0.8384;3.3899;
412.2000;0.8352;3.3875;
412.5000;0.8400;3.3947;
412.8000;0.8392;3.3899;
413.1000;0.8392;3.3827;
413.4000;0.8384;3.3779;
413.7000;0.8392;3.3803;
414.0000;0.8368;3.3803;
414.3000;0.8384;3.3875;
414.6000;0.8384;3.3827;
414.9000;0.8384;3.3923;
415.2000;0.8400;3.4043;
415.5000;0.8392;3.3995;
415.8000;0.8392;3.3923;
416.1000;0.8376;3.3947;
416.4000;0.8433;3.4043;
416.7000;0.8376;3.3923;
417.0000;0.8368;3.3899;
417.3000;0.8425;3.4067;
417.6000;0.8384;3.3899;
417.9000;0.8384;3.3899;
418.2000;0.8319;3.3683;
418.5000;0.8344;3.3659;
418.8000;0.8384;3.3779;
419.1000;0.8376;3.3731;
419.4000;0.8392;3.3803;
419.7000;0.8376;3.3827;
420.0000;0.8376;3.3875;
420.3000;0.8360;3.3779;
420.6000;0.8384;3.3827;
420.9000;0.8384;3.3899;
421.2000;0.8392;3.4019;
421.5000;0.8392;3.3995;
421.8000;0.8376;3.3899;
422.1000;0.8384;3.3875;
422.4000;0.8392;3.3899;
422.7000;0.8360;3.3875;
423.0000;0.8352;3.3851;
423.3000;0.8376;3.3851;
423.6000;0.8409;3.3899;
423.9000;0.8376;3.3851;
424.2000;0.8376;3.3947;
424.5000;0.8392;3.3947;
424.8000;0.8335;3.3827;
425.1000;0.8400;3.3899;
425.4000;0.8392;3.3923;
425.7000;0.8368;3.3899;
426.0000;0.8368;3.3923;
426.3000;0.8368;3.3923;
426.6000;0.8360;3.3923;
426.9000;0.8384;3.3995;
427.2000;0.8384;3.3947;
427.5000;0.8352;3.3899;
427.8000;0.8368;3.3947;
428.1000;0.8376;3.3947;
428.4000;0.8368;3.3971;
428.7000;0.8376;3.3971;
429.0000;0.8392;3.4043;
429.3000;0.8384;3.3995;
429.6000;0.8392;3.3899;
429.9000;0.8376;3.3851;
430.2000;0.8376;3.3779;
430.5000;0.8392;3.3851;
430.8000;0.8392;3.3851;
431.1000;0.8360;3.3659;
431.4000;0.8376;3.3683;
431.7000;0.8376;3.3731;
432.0000;0.8368;3.3803;
432.3000;0.8384;3.3899;
432.6000;0.8384;3.3971;
432.9000;0.8392;3.4091;
433.2000;0.8400;3.4091;
433.5000;0.8400;3.3995;
433.8000;0.8400;3.3923;
434.1000;0.8368;3.3851;
434.4000;0.8384;3.3851;
434.7000;0.8384;3.3899;
435.0000;0.8384;3.3947;
435.3000;0.8400;3.3971;
435.6000;0.8392;3.3947;
435.9000;0.8392;3.3947;
436.2000;0.8392;3.3899;
436.5000;0.8392;3.3923;
436.8000;0.8376;3.3851;
437.1000;0.8384;3.3899;
437.4000;0.8409;3.4019;
437.7000;0.8392;3.3995;
438.0000;0.8376;3.3995;
438.3000;0.8392;3.4043;
438.6000;0.8376;3.4019;
438.9000;0.8392;3.4019;
439.2000;0.8384;3.4115;
439.5000;0.8376;3.4139;
439.8000;0.8384;3.4091;
440.1000;0.8425;3.4163;
440.4000;0.8400;3.4043;
440.7000;0.8384;3.3923;
441.0000;0.8376;3.3947;
441.3000;0.8376;3.3971;
441.6000;0.8376;3.4043;
441.9000;0.8376;3.3971;
442.2000;0.8303;3.3851;
442.5000;0.8392;3.4091;
442.8000;0.8360;3.4019;
443.1000;0.8409;3.4163;
443.4000;0.8376;3.4115;
443.7000;0.8376;3.4163;
444.0000;0.8384;3.4163;
444.3000;0.8384;3.4139;
444.6000;0.8384;3.4139;
444.9000;0.8425;3.4211;
445.2000;0.8376;3.4091;
445.5000;0.8384;3.4067;
445.8000;0.8376;3.4115;
446.1000;0.8392;3.4115;
446.4000;0.8327;3.4019;
446.7000;0.8376;3.4115;
447.0000;0.8352;3.4091;
447.3000;0.8392;3.4187;
447.6000;0.8360;3.4187;
447.9000;0.8376;3.4163;
448.2000;0.8384;3.4187;
448.5000;0.8376;3.4187;
448.8000;0.8368;3.4139;
449.1000;0.8384;3.4115;
449.4000;0.8384;3.4115;
449.7000;0.8368;3.4091;
450.0000;0.8376;3.4091;
450.3000;0.8384;3.4139;
450.6000;0.8376;3.4211;
450.9000;0.8384;3.4163;
451.2000;0.8376;3.4163;
451.5000;0.8474;3.4427;
451.8000;0.8376;3.4115;
452.1000;0.8384;3.4091;
452.4000;0.8392;3.4163;
452.7000;0.8376;3.4139;
453.0000;0.8384;3.4187;
453.3000;0.8384;3.4139;
453.6000;0.8392;3.4067;
453.9000;0.8384;3.4067;
454.2000;0.8400;3.4019;
454.5000;0.8400;3.3995;
454.8000;0.8376;3.4019;
455.1000;0.8376;3.3923;
455.4000;0.8425;3.4115;
455.7000;0.8376;3.3971;
456.0000;0.8392;3.4043;
456.3000;0.8400;3.4187;
456.6000;0.8352;3.4091;
456.9000;0.8384;3.4163;
457.2000;0.8368;3.4019;
457.5000;0.8335;3.3899;
457.8000;0.8384;3.3971;
458.1000;0.8368;3.4019;
458.4000;0.8360;3.4019;
458.7000;0.8376;3.4139;
459.0000;0.8384;3.4115;
459.3000;0.8400;3.4187;
459.6000;0.8384;3.4187;
459.9000;0.8392;3.4139;
460.2000;0.8409;3.4187;
460.5000;0.8368;3.4043;
460.8000;0.8376;3.3995;
461.1000;0.8376;3.3995;
461.4000;0.8409;3.4115;
461.7000;0.8392;3.4139;
462.0000;0.8360;3.4091;
462.3000;0.8360;3.4115;
462.6000;0.8392;3.4187;
462.9000;0.8400;3.4187;
463.2000;0.8376;3.4163;
463.5000;0.8376;3.4139;
463.8000;0.8384;3.4211;
464.1000;0.8425;3.4355;
464.4000;0.8376;3.4187;
464.7000;0.8384;3.4211;
465.0000;0.8392;3.4235;
465.3000;0.8368;3.4187;
465.6000;0.8376;3.4235;
465.9000;0.8368;3.4139;
466.2000;0.8376;3.4115;
466.5000;0.8400;3.4163;
466.8000;0.8384;3.4091;
467.1000;0.8384;3.4091;
467.4000;0.8352;3.4115;
467.7000;0.8384;3.4211;
468.0000;0.8384;3.4139;
468.3000;0.8376;3.4091;
468.6000;0.8392;3.4187;
468.9000;0.8384;3.4163;
469.2000;0.8368;3.4163;
469.5000;0.8400;3.4235;
469.8000;0.8376;3.4187;
470.1000;0.8384;3.4283;
470.4000;0.8384;3.4211;
470.7000;0.8376;3.4187;
471.0000;0.8368;3.4259;
471.3000;0.8368;3.4235;
471.6000;0.8392;3.4187;
471.9000;0.8376;3.4115;
472.2000;0.8376;3.4067;
472.5000;0.8360;3.4091;
472.8000;0.8384;3.4259;
473.1000;0.8376;3.4235;
473.4000;0.8270;3.3923;
473.7000;0.8384;3.4163;
474.0000;0.8384;3.4139;
474.3000;0.8376;3.4043;
474.6000;0.8376;3.4043;
474.9000;0.8384;3.4091;
475.2000;0.8327;3.3899;
475.5000;0.8384;3.3995;
475.8000;0.8376;3.4019;
476.1000;0.8376;3.3971;
476.4000;0.8376;3.3995;
476.7000;0.8392;3.4019;
477.0000;0.8376;3.3971;
477.3000;0.8376;3.4019;
477.6000;0.8368;3.4115;
477.9000;0.8360;3.4163;
478.2000;0.8400;3.4307;
478.5000;0.8368;3.4187;
478.8000;0.8384;3.4139;
479.1000;0.8384;3.4043;
479.4000;0.8400;3.4115;
479.7000;0.8384;3.4091;
480.0000;0.8384;3.4115;
480.3000;0.8352;3.3875;
480.6000;0.8384;3.3875;
480.9000;0.8384;3.3923;
481.2000;0.8352;3.3875;
481.5000;0.8352;3.3971;
481.8000;0.8376;3.4043;
482.1000;0.8368;3.3995;
482.4000;0.8433;3.4187;
482.7000;0.8376;3.4091;
483.0000;0.8384;3.4187;
483.3000;0.8368;3.4115;
483.6000;0.8392;3.4115;
483.9000;0.8295;3.3923;
484.2000;0.8376;3.4139;
484.5000;0.8384;3.4091;
484.8000;0.8425;3.4187;
485.1000;0.8327;3.4019;
485.4000;0.8376;3.4163;
485.7000;0.8376;3.4139;
486.0000;0.8360;3.4091;
486.3000;0.8400;3.4115;
486.6000;0.8368;3.4091;
486.9000;0.8360;3.4043;
487.2000;0.8376;3.3923;
487.5000;0.8384;3.3971;
487.8000;0.8376;3.3995;
488.1000;0.8384;3.4019;
488.4000;0.8376;3.3923;
488.7000;0.8376;3.3947;
489.0000;0.8490;3.4235;
489.3000;0.8392;3.3971;
489.6000;0.8384;3.3995;
489.9000;0.8384;3.3947;
490.2000;0.8384;3.4067;
490.5000;0.8376;3.4139;
490.8000;0.8376;3.4139;
491.1000;0.8287;3.3923;
491.4000;0.8352;3.3995;
491.7000;0.8376;3.4115;
492.0000;0.8303;3.3923;
492.3000;0.8360;3.4043;
492.6000;0.8360;3.4091;
492.9000;0.8368;3.4019;
493.2000;0.8400;3.4019;
493.5000;0.8384;3.4067;
493.8000;0.8409;3.4163;
494.1000;0.8425;3.4163;
494.4000;0.8400;3.4187;
494.7000;0.8376;3.4139;
495.0000;0.8368;3.4091;
495.3000;0.8400;3.4091;
495.6000;0.8335;3.3995;
495.9000;0.8384;3.4115;
496.2000;0.8368;3.4091;
496.5000;0.8335;3.3995;
496.8000;0.8417;3.4091;
497.1000;0.8441;3.4091;
497.4000;0.8376;3.3899;
497.7000;0.8278;3.3683;
498.0000;0.8368;3.3899;
498.3000;0.8376;3.3875;
498.6000;0.8384;3.3899;
498.9000;0.8466;3.4163;
499.2000;0.8352;3.3923;
499.5000;0.8327;3.3923;
499.8000;0.8360;3.4091;
500.1000;0.8376;3.4043;
500.4000;0.8360;3.3971;
500.7000;0.8368;3.3899;
501.0000;0.8384;3.3971;
501.3000;0.8360;3.3923;
501.6000;0.8360;3.3995;
501.9000;0.8360;3.3947;
502.2000;0.8368;3.3947;
502.5000;0.8425;3.3995;
502.8000;0.8376;3.3803;
503.1000;0.8376;3.3899;
503.4000;0.8384;3.3971;
503.7000;0.8384;3.3995;
504.0000;0.8376;3.4019;
504.3000;0.8392;3.4115;
504.6000;0.8384;3.3995;
504.9000;0.8368;3.3851;
505.2000;0.8360;3.3851;
505.5000;0.8376;3.3947;
505.8000;0.8384;3.3947;
506.1000;0.8376;3.4067;
506.4000;0.8368;3.4115;
506.7000;0.8368;3.4211;
507.0000;0.8392;3.4187;
507.3000;0.8376;3.4139;
507.6000;0.8376;3.4187;
507.9000;0.8417;3.4283;
508.2000;0.8392;3.4307;
508.5000;0.8384;3.4211;
508.8000;0.8311;3.3947;
509.1000;0.8368;3.4115;
509.4000;0.8376;3.4091;
509.7000;0.8360;3.4043;
510.0000;0.8376;3.4019;
510.3000;0.8360;3.3947;
510.6000;0.8344;3.3875;
510.9000;0.8360;3.3947;
511.2000;0.8376;3.3947;
511.5000;0.8352;3.3947;
511.8000;0.8384;3.4019;
512.1000;0.8392;3.3995;
512.4000;0.8384;3.3995;
512.7000;0.8360;3.3875;
513.0000;0.8360;3.3899;
513.3000;0.8352;3.3971;
513.6000;0.8384;3.3995;
513.9000;0.8384;3.3971;
514.2000;0.8368;3.3971;
514.5000;0.8425;3.4163;
514.8000;0.8376;3.4091;
515.1000;0.8409;3.4163;
515.4000;0.8376;3.4091;
515.7000;0.8360;3.4019;
516.0000;0.8384;3.4067;
516.3000;0.8352;3.3995;
516.6000;0.8368;3.3995;
516.9000;0.8392;3.4019;
517.2000;0.8400;3.3971;
517.5000;0.8417;3.3995;
517.8000;0.8384;3.3851;
518.1000;0.8425;3.3995;
518.4000;0.8344;3.3851;
518.7000;0.8392;3.3971;
519.0000;0.8368;3.3899;
519.3000;0.8392;3.3923;
519.6000;0.8376;3.3947;
519.9000;0.8352;3.3947;
520.2000;0.8352;3.3947;
520.5000;0.8409;3.4043;
520.8000;0.8360;3.3923;
521.1000;0.8400;3.3923;
521.4000;0.8368;3.3827;
521.7000;0.8400;3.3971;
522.0000;0.8433;3.4043;
522.3000;0.8376;3.3923;
522.6000;0.8376;3.4043;
522.9000;0.8368;3.3947;
523.2000;0.8384;3.3995;
523.5000;0.8384;3.3995;
523.8000;0.8384;3.3923;
524.1000;0.8392;3.3899;
524.4000;0.8392;3.3851;
524.7000;0.8376;3.3899;
525.0000;0.8376;3.3875;
525.3000;0.8384;3.3779;
525.6000;0.8376;3.3635;
525.9000;0.8392;3.3611;
526.2000;0.8376;3.3539;
526.5000;0.8400;3.3467;
526.8000;0.8392;3.3515;
527.1000;0.8384;3.3611;
527.4000;0.8376;3.3683;
527.7000;0.8368;3.3707;
528.0000;0.8392;3.3803;
528.3000;0.8384;3.3851;
528.6000;0.8384;3.3875;
528.9000;0.8368;3.3755;
529.2000;0.8368;3.3755;
529.5000;0.8360;3.3779;
529.8000;0.8376;3.3851;
530.1000;0.8360;3.3827;
530.4000;0.8368;3.3779;
530.7000;0.8352;3.3707;
531.0000;0.8344;3.3635;
531.3000;0.8344;3.3731;
531.6000;0.8360;3.3755;
531.9000;0.8376;3.3707;
532.2000;0.8409;3.3899;
532.5000;0.8368;3.3731;
532.8000;0.8376;3.3827;
533.1000;0.8392;3.3779;
533.4000;0.8417;3.3755;
533.7000;0.8392;3.3707;
534.0000;0.8360;3.3707;
534.3000;0.8384;3.3803;
534.6000;0.8360;3.3779;
534.9000;0.8392;3.3875;
535.2000;0.8392;3.3779;
535.5000;0.8376;3.3683;
535.8000;0.8352;3.3683;
536.1000;0.8352;3.3659;
536.4000;0.8376;3.3731;
536.7000;0.8368;3.3707;
537.0000;0.8360;3.3755;
537.3000;0.8368;3.3803;
537.6000;0.8384;3.3899;
537.9000;0.8392;3.3851;
538.2000;0.8368;3.3731;
538.5000;0.8376;3.3803;
538.8000;0.8303;3.3683;
539.1000;0.8376;3.3803;
539.4000;0.8409;3.3827;
539.7000;0.8360;3.3779;
540.0000;0.8384;3.3755;
540.3000;0.8376;3.3827;
540.6000;0.8384;3.3827;
540.9000;0.8360;3.3755;
541.2000;0.8376;3.3755;
541.5000;0.8417;3.3779;
541.8000;0.8344;3.3635;
542.1000;0.8368;3.3731;
542.4000;0.8352;3.3779;
542.7000;0.8368;3.3803;
543.0000;0.8376;3.3875;
543.3000;0.8384;3.3923;
543.6000;0.8368;3.3923;
543.9000;0.8400;3.4043;
544.2000;0.8384;3.3971;
544.5000;0.8392;3.3947;
544.8000;0.8352;3.3755;
545.1000;0.8376;3.3899;
545.4000;0.8384;3.3851;
545.7000;0.8425;3.3827;
546.0000;0.8368;3.3731;
546.3000;0.8384;3.3731;
546.6000;0.8384;3.3707;
546.9000;0.8392;3.3731;
547.2000;0.8384;3.3683;
547.5000;0.8360;3.3731;
547.8000;0.8376;3.3851;
548.1000;0.8360;3.3803;
548.4000;0.8376;3.3875;
548.7000;0.8400;3.3947;
549.0000;0.8376;3.3803;
549.3000;0.8384;3.3827;
549.6000;0.8368;3.3827;
549.9000;0.8376;3.3779;
550.2000;0.8360;3.3755;
550.5000;0.8392;3.3755;
550.8000;0.8360;3.3731;
551.1000;0.8376;3.3779;
551.4000;0.8335;3.3779;
551.7000;0.8368;3.3851;
552.0000;0.8360;3.3803;
552.3000;0.8368;3.3803;
552.6000;0.8376;3.3827;
552.9000;0.8352;3.3947;
553.2000;0.8376;3.3923;
553.5000;0.8368;3.3899;
553.8000;0.8384;3.4019;
554.1000;0.8392;3.4067;
554.4000;0.8344;3.4019;
554.7000;0.8335;3.3971;
555.0000;0.8344;3.3947;
555.3000;0.8360;3.3971;
555.6000;0.8352;3.3923;
555.9000;0.8287;3.3803;
556.2000;0.8409;3.4067;
556.5000;0.8376;3.4019;
556.8000;0.8425;3.4187;
557.1000;0.8368;3.4043;
557.4000;0.8368;3.4067;
557.7000;0.8344;3.3899;
558.0000;0.8344;3.3923;
558.3000;0.8376;3.3947;
558.6000;0.8360;3.3899;
558.9000;0.8368;3.3923;
559.2000;0.8474;3.4187;
559.5000;0.8384;3.3923;
559.8000;0.8400;3.4019;
560.1000;0.8368;3.3971;
560.4000;0.8392;3.4019;
560.7000;0.8384;3.4091;
561.0000;0.8327;3.4019;
561.3000;0.8360;3.4115;
561.6000;0.8376;3.4187;
561.9000;0.8303;3.3923;
562.2000;0.8344;3.4067;
562.5000;0.8335;3.4091;
562.8000;0.8368;3.4187;
563.1000;0.8376;3.4187;
563.4000;0.8376;3.4067;
563.7000;0.8335;3.3875;
564.0000;0.8392;3.4019;
564.3000;0.8295;3.3899;
564.6000;0.8376;3.4163;
564.9000;0.8368;3.4139;
565.2000;0.8384;3.4091;
565.5000;0.8392;3.4043;
565.8000;0.8392;3.4043;
566.1000;0.8368;3.3995;
566.4000;0.8352;3.3947;
566.7000;0.8360;3.3995;
567.0000;0.8368;3.3971;
567.3000;0.8344;3.3899;
567.6000;0.8335;3.3827;
567.9000;0.8368;3.3875;
568.2000;0.8384;3.3851;
568.5000;0.8335;3.3779;
568.8000;0.8376;3.3851;
569.1000;0.8376;3.3779;
569.4000;0.8392;3.3851;
569.7000;0.8400;3.3851;
570.0000;0.8400;3.3995;
570.3000;0.8376;3.3971;
570.6000;0.8400;3.4019;
570.9000;0.8376;3.3899;
571.2000;0.8376;3.3923;
571.5000;0.8376;3.3923;
571.8000;0.8376;3.3875;
572.1000;0.8319;3.3707;
572.4000;0.8335;3.3683;
572.7000;0.8360;3.3779;
573.0000;0.8392;3.3875;
573.3000;0.8392;3.3899;
573.6000;0.8376;3.3851;
573.9000;0.8384;3.3923;
574.2000;0.8376;3.3899;
574.5000;0.8368;3.3923;
574.8000;0.8376;3.3995;
575.1000;0.8368;3.3947;
575.4000;0.8376;3.4019;
575.7000;0.8384;3.4067;
576.0000;0.8384;3.4043;
576.3000;0.8368;3.4019;
576.6000;0.8352;3.3947;
576.9000;0.8303;3.3803;
577.2000;0.8376;3.3923;
577.5000;0.8352;3.3899;
577.8000;0.8344;3.3923;
578.1000;0.8360;3.3923;
578.4000;0.8376;3.3899;
578.7000;0.8392;3.3923;
579.0000;0.8376;3.3923;
579.3000;0.8352;3.3899;
579.6000;0.8368;3.3851;
579.9000;0.8376;3.3875;
580.2000;0.8409;3.3995;
580.5000;0.8360;3.3923;
580.8000;0.8352;3.3899;
581.1000;0.8384;3.4043;
581.4000;0.8368;3.4019;
581.7000;0.8368;3.3971;
582.0000;0.8384;3.3995;
582.3000;0.8384;3.3995;
582.6000;0.8360;3.3995;
582.9000;0.8368;3.4019;
583.2000;0.8360;3.3995;
583.5000;0.8384;3.3995;
583.8000;0.8360;3.3971;
584.1000;0.8360;3.3923;
584.4000;0.8376;3.3851;
584.7000;0.8376;3.3827;
585.0000;0.8360;3.3803;
585.3000;0.8368;3.3731;
585.6000;0.8368;3.3779;
585.9000;0.8441;3.3995;
586.2000;0.8360;3.3827;
586.5000;0.8368;3.3827;
586.8000;0.8352;3.3851;
587.1000;0.8376;3.3875;
587.4000;0.8368;3.3779;
587.7000;0.8368;3.3659;
588.0000;0.8376;3.3683;
588.3000;0.8335;3.3707;
588.6000;0.8368;3.3875;
588.9000;0.8368;3.3899;
589.2000;0.8360;3.3923;
589.5000;0.8368;3.3947;
589.8000;0.8360;3.4019;
590.1000;0.8368;3.4019;
590.4000;0.8368;3.4067;
590.7000;0.8368;3.4139;
591.0000;0.8376;3.4115;
591.3000;0.8449;3.4163;
591.6000;0.8425;3.4091;
591.9000;0.8368;3.3899;
592.2000;0.8368;3.3923;
592.5000;0.8433;3.4163;
592.8000;0.8368;3.4043;
593.1000;0.8400;3.4091;
593.4000;0.8368;3.3995;
593.7000;0.8368;3.4019;
594.0000;0.8352;3.3995;
594.3000;0.8352;3.3995;
594.6000;0.8335;3.3947;
594.9000;0.8368;3.4043;
595.2000;0.8368;3.4043;
595.5000;0.8335;3.3995;
595.8000;0.8376;3.4091;
596.1000;0.8376;3.4091;
596.4000;0.8384;3.4091;
596.7000;0.8368;3.3971;
597.0000;0.8327;3.3875;
597.3000;0.8368;3.3971;
597.6000;0.8327;3.3899;
597.9000;0.8352;3.3923;
598.2000;0.8376;3.4043;
598.5000;0.8384;3.4067;
598.8000;0.8368;3.4019;
599.1000;0.8360;3.4043;
599.4000;0.8352;3.4019;
599.7000;0.8368;3.4043;
600.0000;0.8368;3.3995;
600.3000;0.8384;3.4019;
600.6000;0.8400;3.3923;
600.9000;0.8392;3.3779;
601.2000;0.8344;3.3491;
601.5000;0.8295;3.3299;
601.8000;0.8262;3.3227;
602.1000;0.8197;3.2939;
602.4000;0.8107;3.2675;
602.7000;0.8099;3.2627;
603.0000;0.8034;3.2436;
603.3000;0.7985;3.2340;
603.6000;0.7961;3.2316;
603.9000;0.7928;3.2220;
604.2000;0.7855;3.2028;
604.5000;0.7823;3.1860;
604.8000;0.7798;3.1836;
605.1000;0.7766;3.1812;
605.4000;0.7782;3.1860;
605.7000;0.7676;3.1692;
606.0000;0.7652;3.1620;
606.3000;0.7603;3.1524;
606.6000;0.7578;3.1452;
606.9000;0.7570;3.1452;
607.2000;0.7448;3.1212;
607.5000;0.7513;3.1452;
607.8000;0.7513;3.1356;
608.1000;0.7440;3.1236;
608.4000;0.7432;3.1188;
608.7000;0.7464;3.1260;
609.0000;0.7383;3.1044;
609.3000;0.7391;3.1068;
609.6000;0.7326;3.0924;
609.9000;0.7302;3.0876;
610.2000;0.7277;3.0780;
610.5000;0.7261;3.0684;
610.8000;0.7245;3.0756;
611.1000;0.7228;3.0804;
611.4000;0.7196;3.0804;
611.7000;0.7163;3.0708;
612.0000;0.7179;3.0852;
612.3000;0.7114;3.0780;
612.6000;0.7106;3.0732;
612.9000;0.7106;3.0708;
613.2000;0.7098;3.0684;
613.5000;0.7090;3.0780;
613.8000;0.7066;3.0804;
614.1000;0.7074;3.0900;
614.4000;0.7041;3.0876;
614.7000;0.7009;3.0924;
615.0000;0.7000;3.0924;
615.3000;0.6952;3.0900;
615.6000;0.6927;3.0876;
615.9000;0.6952;3.0900;
616.2000;0.6952;3.0852;
616.5000;0.6927;3.0780;
616.8000;0.6895;3.0708;
617.1000;0.6878;3.0732;
617.4000;0.6878;3.0756;
617.7000;0.6878;3.0828;
618.0000;0.6846;3.0804;
618.3000;0.6838;3.0804;
618.6000;0.6829;3.0780;
618.9000;0.6829;3.0828;
619.2000;0.6797;3.0804;
619.5000;0.6805;3.0828;
619.8000;0.6813;3.0828;
620.1000;0.6846;3.0948;
620.4000;0.6781;3.0732;
620.7000;0.6748;3.0660;
621.0000;0.6740;3.0828;
621.3000;0.6748;3.0900;
621.6000;0.6781;3.1164;
621.9000;0.6683;3.0948;
622.2000;0.6772;3.1140;
622.5000;0.6683;3.0924;
622.8000;0.6683;3.0996;
623.1000;0.6683;3.1044;
623.4000;0.6675;3.0972;
623.7000;0.6650;3.0876;
624.0000;0.6650;3.0852;
624.3000;0.6650;3.0828;
624.6000;0.6642;3.0876;
624.9000;0.6626;3.0852;
625.2000;0.6602;3.0828;
625.5000;0.6569;3.0660;
625.8000;0.6577;3.0732;
626.1000;0.6577;3.0804;
626.4000;0.6545;3.0732;
626.7000;0.6561;3.0804;
627.0000;0.6569;3.0852;
627.3000;0.6528;3.0804;
627.6000;0.6512;3.0780;
627.9000;0.6545;3.0852;
628.2000;0.6569;3.0972;
628.5000;0.6528;3.0828;
628.8000;0.6512;3.0804;
629.1000;0.6382;3.0516;
629.4000;0.6463;3.0708;
629.7000;0.6463;3.0732;
630.0000;0.6479;3.0732;
630.3000;0.6471;3.0636;
630.6000;0.6463;3.0660;
630.9000;0.6471;3.0564;
631.2000;0.6439;3.0468;
631.5000;0.6439;3.0420;
631.8000;0.6439;3.0444;
632.1000;0.6439;3.0492;
632.4000;0.6431;3.0516;
632.7000;0.6398;3.0468;
633.0000;0.6398;3.0492;
633.3000;0.6390;3.0564;
633.6000;0.6390;3.0588;
633.9000;0.6390;3.0540;
634.2000;0.6398;3.0516;
634.5000;0.6431;3.0540;
634.8000;0.6414;3.0588;
635.1000;0.6374;3.0492;
635.4000;0.6365;3.0564;
635.7000;0.6349;3.0564;
636.0000;0.6349;3.0588;
636.3000;0.6341;3.0660;
636.6000;0.6341;3.0708;
636.9000;0.6309;3.0636;
637.2000;0.6341;3.0636;
637.5000;0.6276;3.0492;
637.8000;0.6325;3.0612;
638.1000;0.6309;3.0588;
638.4000;0.6300;3.0444;
638.7000;0.6374;3.0708;
639.0000;0.6292;3.0588;
639.3000;0.6300;3.0588;
639.6000;0.6325;3.0780;
639.9000;0.6276;3.0756;
640.2000;0.6276;3.0708;
640.5000;0.6357;3.0972;
640.8000;0.6252;3.0900;
641.1000;0.6243;3.0780;
641.4000;0.6252;3.0660;
641.7000;0.6252;3.0684;
642.0000;0.6243;3.0708;
642.3000;0.6227;3.0636;
642.6000;0.6186;3.0564;
642.9000;0.6252;3.0756;
643.2000;0.6211;3.0756;
643.5000;0.6219;3.0780;
643.8000;0.6211;3.0732;
644.1000;0.6227;3.0732;
644.4000;0.6178;3.0660;
644.7000;0.6211;3.0636;
645.0000;0.6170;3.0516;
645.3000;0.6195;3.0492;
645.6000;0.6203;3.0540;
645.9000;0.6186;3.0612;
646.2000;0.6178;3.0588;
646.5000;0.6170;3.0516;
646.8000;0.6211;3.0684;
647.1000;0.6081;3.0348;
647.4000;0.6178;3.0588;
647.7000;0.6162;3.0636;
648.0000;0.6178;3.0684;
648.3000;0.6170;3.0660;
648.6000;0.6162;3.0660;
648.9000;0.6146;3.0660;
649.2000;0.6170;3.0732;
649.5000;0.6154;3.0684;
649.8000;0.6146;3.0660;
650.1000;0.6154;3.0708;
650.4000;0.6146;3.0732;
650.7000;0.6146;3.0708;
651.0000;0.6105;3.0732;
651.3000;0.6113;3.0780;
651.6000;0.6056;3.0564;
651.9000;0.6121;3.0732;
652.2000;0.6097;3.0756;
652.5000;0.6097;3.0804;
652.8000;0.6081;3.0828;
653.1000;0.6146;3.0972;
653.4000;0.6089;3.0756;
653.7000;0.6105;3.0684;
654.0000;0.6081;3.0588;
654.3000;0.6097;3.0588;
654.6000;0.6064;3.0516;
654.9000;0.6064;3.0540;
655.2000;0.6056;3.0468;
655.5000;0.6072;3.0468;
655.8000;0.6064;3.0468;
656.1000;0.6048;3.0516;
656.4000;0.6056;3.0492;
656.7000;0.6048;3.0612;
657.0000;0.6040;3.0612;
657.3000;0.6048;3.0660;
657.6000;0.6032;3.0636;
657.9000;0.6032;3.0588;
658.2000;0.6032;3.0588;
658.5000;0.6056;3.0636;
658.8000;0.6032;3.0612;
659.1000;0.6032;3.0684;
659.4000;0.6040;3.0732;
659.7000;0.6081;3.0732;
660.0000;0.6024;3.0588;
660.3000;0.6040;3.0564;
660.6000;0.6040;3.0516;
660.9000;0.6040;3.0540;
661.2000;0.6032;3.0492;
661.5000;0.6015;3.0492;
661.8000;0.6024;3.0708;
662.1000;0.6032;3.0732;
662.4000;0.6007;3.0636;
662.7000;0.5991;3.0564;
663.0000;0.6032;3.0708;
663.3000;0.5926;3.0420;
663.6000;0.6007;3.0636;
663.9000;0.5967;3.0492;
664.2000;0.5999;3.0612;
664.5000;0.5967;3.0516;
664.8000;0.5991;3.0684;
665.1000;0.5983;3.0684;
665.4000;0.5975;3.0684;
665.7000;0.5975;3.0756;
666.0000;0.5975;3.0684;
666.3000;0.5983;3.0660;
666.6000;0.5999;3.0732;
666.9000;0.5991;3.0636;
667.2000;0.5942;3.0564;
667.5000;0.5950;3.0516;
667.8000;0.5958;3.0588;
668.1000;0.5934;3.0492;
668.4000;0.5918;3.0468;
668.7000;0.5958;3.0516;
669.0000;0.5967;3.0468;
669.3000;0.5918;3.0372;
669.6000;0.5975;3.0492;
669.9000;0.5958;3.0468;
670.2000;0.5958;3.0516;
670.5000;0.5942;3.0588;
670.8000;0.5942;3.0612;
671.1000;0.5942;3.0588;
671.4000;0.5934;3.0660;
671.7000;0.5918;3.0684;
672.0000;0.5885;3.0564;
672.3000;0.5910;3.0588;
672.6000;0.5926;3.0660;
672.9000;0.5926;3.0564;
673.2000;0.5926;3.0612;
673.5000;0.5934;3.0612;
673.8000;0.5902;3.0564;
674.1000;0.5877;3.0468;
674.4000;0.5910;3.0444;
674.7000;0.5926;3.0468;
675.0000;0.5918;3.0564;
675.3000;0.5926;3.0612;
675.6000;0.5910;3.0660;
675.9000;0.5910;3.0660;
676.2000;0.5910;3.0756;
676.5000;0.5893;3.0636;
676.8000;0.5869;3.0588;
677.1000;0.5869;3.0612;
677.4000;0.5893;3.0732;
677.7000;0.5885;3.0732;
678.0000;0.5861;3.0732;
678.3000;0.5869;3.0684;
678.6000;0.5853;3.0564;
678.9000;0.5869;3.0492;
679.2000;0.5853;3.0564;
679.5000;0.5869;3.0588;
679.8000;0.5877;3.0684;
680.1000;0.5877;3.0636;
680.4000;0.5869;3.0612;
680.7000;0.5861;3.0660;
681.0000;0.5861;3.0708;
681.3000;0.5877;3.0732;
681.6000;0.5845;3.0564;
681.9000;0.5853;3.0564;
682.2000;0.5861;3.0564;
682.5000;0.5893;3.0660;
682.8000;0.5853;3.0492;
683.1000;0.5845;3.0468;
683.4000;0.5845;3.0588;
683.7000;0.5853;3.0540;
684.0000;0.5845;3.0492;
684.3000;0.5845;3.0468;
684.6000;0.5853;3.0492;
684.9000;0.5836;3.0516;
685.2000;0.5845;3.0468;
685.5000;0.5836;3.0492;
685.8000;0.5836;3.0444;
686.1000;0.5828;3.0372;
686.4000;0.5828;3.0276;
686.7000;0.5812;3.0252;
687.0000;0.5739;3.0132;
687.3000;0.5812;3.0372;
687.6000;0.5828;3.0420;
687.9000;0.5820;3.0420;
688.2000;0.5804;3.0396;
688.5000;0.5877;3.0492;
688.8000;0.5820;3.0420;
689.1000;0.5853;3.0420;
689.4000;0.5812;3.0252;
689.7000;0.5820;3.0444;
690.0000;0.5812;3.0444;
690.3000;0.5812;3.0564;
690.6000;0.5796;3.0444;
690.9000;0.5804;3.0540;
691.2000;0.5804;3.0612;
691.5000;0.5967;3.0828;
691.8000;0.5812;3.0420;
692.1000;0.5804;3.0372;
692.4000;0.5812;3.0444;
692.7000;0.5885;3.0660;
693.0000;0.5788;3.0444;
693.3000;0.5788;3.0444;
693.6000;0.5788;3.0444;
693.9000;0.5779;3.0396;
694.2000;0.5788;3.0420;
694.5000;0.5804;3.0492;
694.8000;0.5796;3.0444;
695.1000;0.5788;3.0324;
695.4000;0.5788;3.0300;
695.7000;0.5861;3.0588;
696.0000;0.5755;3.0372;
696.3000;0.5836;3.0588;
696.6000;0.5788;3.0468;
696.9000;0.5771;3.0396;
697.2000;0.5731;3.0276;
697.5000;0.5763;3.0348;
697.8000;0.5763;3.0300;
698.1000;0.5747;3.0300;
698.4000;0.5771;3.0276;
698.7000;0.5763;3.0228;
699.0000;0.5763;3.0204;
699.3000;0.5771;3.0228;
699.6000;0.5747;3.0372;
699.9000;0.5755;3.0468;
700.2000;0.5755;3.0636;
700.5000;0.5747;3.0588;
700.8000;0.5763;3.0708;
701.1000;0.5739;3.0684;
701.4000;0.5755;3.0732;
701.7000;0.5763;3.0708;
702.0000;0.5747;3.0732;
702.3000;0.5739;3.0732;
702.6000;0.5771;3.0804;
702.9000;0.5755;3.0708;
703.2000;0.5722;3.0660;
703.5000;0.5739;3.0612;
703.8000;0.5739;3.0636;
704.1000;0.5755;3.0756;
704.4000;0.5747;3.0780;
704.7000;0.5739;3.0828;
705.0000;0.5739;3.0852;
705.3000;0.5722;3.0780;
705.6000;0.5739;3.0828;
705.9000;0.5739;3.0780;
706.2000;0.5722;3.0756;
706.5000;0.5722;3.0756;
706.8000;0.5731;3.0732;
707.1000;0.5747;3.0684;
707.4000;0.5788;3.0876;
707.7000;0.5739;3.0732;
708.0000;0.5747;3.0708;
708.3000;0.5739;3.0588;
708.6000;0.5722;3.0588;
708.9000;0.5739;3.0612;
709.2000;0.5739;3.0540;
709.5000;0.5739;3.0732;
709.8000;0.5698;3.0708;
710.1000;0.5731;3.0852;
710.4000;0.5731;3.0780;
710.7000;0.5731;3.0708;
711.0000;0.5714;3.0684;
711.3000;0.5698;3.0564;
711.6000;0.5731;3.0660;
711.9000;0.5714;3.0660;
712.2000;0.5690;3.0636;
712.5000;0.5698;3.0660;
712.8000;0.5722;3.0804;
713.1000;0.5779;3.1044;
713.4000;0.5698;3.0804;
713.7000;0.5706;3.0780;
714.0000;0.5706;3.0708;
714.3000;0.5731;3.0876;
714.6000;0.5641;3.0732;
714.9000;0.5779;3.1044;
715.2000;0.5714;3.0924;
715.5000;0.5714;3.1020;
715.8000;0.5739;3.1092;
716.1000;0.5796;3.1284;
716.4000;0.5674;3.0924;
716.7000;0.5698;3.0948;
717.0000;0.5698;3.0948;
717.3000;0.5674;3.0948;
717.6000;0.5690;3.0948;
717.9000;0.5682;3.0924;
718.2000;0.5690;3.0876;
718.5000;0.5682;3.0948;
718.8000;0.5690;3.0972;
719.1000;0.5674;3.0876;
719.4000;0.5625;3.0684;
719.7000;0.5698;3.0876;
720.0000;0.5714;3.0900;
720.3000;0.5771;3.0996;
720.6000;0.5690;3.0828;
720.9000;0.5698;3.0852;
721.2000;0.5633;3.0804;
721.5000;0.5665;3.0852;
721.8000;0.5706;3.0972;
722.1000;0.5665;3.0780;
722.4000;0.5657;3.0708;
722.7000;0.5665;3.0756;
723.0000;0.5665;3.0780;
723.3000;0.5665;3.0756;
723.6000;0.5674;3.0780;
723.9000;0.5665;3.0804;
724.2000;0.5649;3.0852;
724.5000;0.5674;3.0900;
724.8000;0.5665;3.0948;
725.1000;0.5665;3.0828;
725.4000;0.5674;3.0924;
725.7000;0.5649;3.0972;
726.0000;0.5682;3.0948;
726.3000;0.5625;3.0852;
726.6000;0.5657;3.0804;
726.9000;0.5665;3.0828;
727.2000;0.5649;3.0780;
727.5000;0.5649;3.0708;
727.8000;0.5657;3.0732;
728.1000;0.5665;3.0804;
728.4000;0.5665;3.0804;
728.7000;0.5674;3.0804;
729.0000;0.5731;3.0948;
729.3000;0.5674;3.0828;
729.6000;0.5682;3.0924;
729.9000;0.5617;3.0708;
730.2000;0.5633;3.0756;
730.5000;0.5641;3.0852;
730.8000;0.5657;3.0876;
731.1000;0.5674;3.0900;
731.4000;0.5649;3.0924;
731.7000;0.5576;3.0660;
732.0000;0.5641;3.0780;
732.3000;0.5649;3.0804;
732.6000;0.5608;3.0708;
732.9000;0.5649;3.0828;
733.2000;0.5649;3.0828;
733.5000;0.5690;3.0852;
733.8000;0.5649;3.0684;
734.1000;0.5633;3.0636;
734.4000;0.5641;3.0732;
734.7000;0.5649;3.0756;
735.0000;0.5657;3.0852;
735.3000;0.5641;3.0732;
735.6000;0.5674;3.0900;
735.9000;0.5617;3.0852;
736.2000;0.5641;3.0924;
736.5000;0.5641;3.0948;
736.8000;0.5657;3.1020;
737.1000;0.5657;3.1116;
737.4000;0.5576;3.0804;
737.7000;0.5625;3.0852;
738.0000;0.5657;3.0900;
738.3000;0.5755;3.1140;
738.6000;0.5641;3.0948;
738.9000;0.5682;3.1020;
739.2000;0.5617;3.0852;
739.5000;0.5617;3.0876;
739.8000;0.5657;3.0924;
740.1000;0.5625;3.0876;
740.4000;0.5633;3.0804;
740.7000;0.5649;3.0828;
741.0000;0.5641;3.0828;
741.3000;0.5608;3.0852;
741.6000;0.5633;3.0804;
741.9000;0.5641;3.0876;
742.2000;0.5600;3.0780;
742.5000;0.5633;3.0900;
742.8000;0.5608;3.0876;
743.1000;0.5641;3.0900;
743.4000;0.5617;3.0852;
743.7000;0.5617;3.0828;
744.0000;0.5665;3.0876;
744.3000;0.5576;3.0588;
744.6000;0.5641;3.0708;
744.9000;0.5617;3.0660;
745.2000;0.5682;3.0876;
745.5000;0.5608;3.0756;
745.8000;0.5617;3.0828;
746.1000;0.5625;3.0900;
746.4000;0.5608;3.0804;
746.7000;0.5600;3.0756;
747.0000;0.5608;3.0804;
747.3000;0.5617;3.0900;
747.6000;0.5576;3.0876;
747.9000;0.5608;3.0924;
748.2000;0.5592;3.0924;
748.5000;0.5608;3.0900;
748.8000;0.5592;3.0756;
749.1000;0.5608;3.0732;
749.4000;0.5568;3.0684;
749.7000;0.5592;3.0684;
750.0000;0.5608;3.0756;
750.3000;0.5592;3.0708;
750.6000;0.5584;3.0708;
750.9000;0.5608;3.0756;
751.2000;0.5608;3.0780;
751.5000;0.5592;3.0804;
751.8000;0.5600;3.0780;
752.1000;0.5600;3.0780;
752.4000;0.5608;3.0828;
752.7000;0.5584;3.0828;
753.0000;0.5617;3.0924;
753.3000;0.5584;3.0804;
753.6000;0.5592;3.0828;
753.9000;0.5584;3.0780;
754.2000;0.5592;3.0852;
754.5000;0.5576;3.0876;
754.8000;0.5592;3.0876;
755.1000;0.5584;3.0852;
755.4000;0.5600;3.0852;
755.7000;0.5584;3.0876;
756.0000;0.5551;3.0828;
756.3000;0.5600;3.0948;
756.6000;0.5608;3.0948;
756.9000;0.5608;3.0996;
757.2000;0.5600;3.0972;
757.5000;0.5633;3.0972;
757.8000;0.5600;3.0996;
758.1000;0.5608;3.0948;
758.4000;0.5600;3.0996;
758.7000;0.5568;3.0972;
759.0000;0.5584;3.0924;
759.3000;0.5600;3.0972;
759.6000;0.5625;3.1068;
759.9000;0.5592;3.0996;
760.2000;0.5584;3.0972;
760.5000;0.5625;3.1044;
760.8000;0.5592;3.1020;
761.1000;0.5649;3.1092;
761.4000;0.5600;3.0948;
761.7000;0.5584;3.0876;
762.0000;0.5551;3.0852;
762.3000;0.5592;3.0804;
762.6000;0.5665;3.1020;
762.9000;0.5592;3.0876;
763.2000;0.5551;3.0756;
763.5000;0.5592;3.0900;
763.8000;0.5584;3.0876;
764.1000;0.5576;3.0828;
764.4000;0.5584;3.0852;
764.7000;0.5584;3.0756;
765.0000;0.5560;3.0684;
765.3000;0.5576;3.0684;
765.6000;0.5584;3.0612;
765.9000;0.5576;3.0636;
766.2000;0.5576;3.0684;
766.5000;0.5584;3.0660;
766.8000;0.5584;3.0756;
767.1000;0.5576;3.0756;
767.4000;0.5584;3.0828;
767.7000;0.5568;3.0804;
768.0000;0.5560;3.0852;
768.3000;0.5568;3.0876;
768.6000;0.5576;3.0852;
768.9000;0.5584;3.0780;
769.2000;0.5551;3.0756;
769.5000;0.5568;3.0876;
769.8000;0.5519;3.0756;
770.1000;0.5568;3.0924;
770.4000;0.5592;3.1068;
770.7000;0.5535;3.0972;
771.0000;0.5543;3.0972;
771.3000;0.5560;3.1068;
771.6000;0.5576;3.1068;
771.9000;0.5560;3.0996;
772.2000;0.5551;3.0948;
772.5000;0.5551;3.0996;
772.8000;0.5568;3.0972;
773.1000;0.5568;3.0996;
773.4000;0.5560;3.0996;
773.7000;0.5568;3.1092;
774.0000;0.5584;3.1188;
774.3000;0.5568;3.1092;
774.6000;0.5560;3.1140;
774.9000;0.5560;3.1236;
775.2000;0.5551;3.1212;
775.5000;0.5568;3.1140;
775.8000;0.5551;3.0876;
776.1000;0.5551;3.0876;
776.4000;0.5511;3.0708;
776.7000;0.5576;3.0756;
777.0000;0.5576;3.0804;
777.3000;0.5551;3.0804;
777.6000;0.5568;3.0804;
777.9000;0.5560;3.0876;
778.2000;0.5543;3.0900;
778.5000;0.5535;3.0876;
778.8000;0.5470;3.0660;
779.1000;0.5551;3.0876;
779.4000;0.5560;3.0948;
779.7000;0.5551;3.1020;
780.0000;0.5535;3.1020;
780.3000;0.5568;3.1020;
780.6000;0.5535;3.1044;
780.9000;0.5503;3.0972;
781.2000;0.5503;3.1020;
781.5000;0.5625;3.1356;
781.8000;0.5535;3.1092;
782.1000;0.5584;3.1092;
782.4000;0.5535;3.0972;
782.7000;0.5527;3.1020;
783.0000;0.5568;3.1020;
783.3000;0.5543;3.0852;
783.6000;0.5535;3.0780;
783.9000;0.5495;3.0756;
784.2000;0.5543;3.0828;
784.5000;0.5535;3.0756;
784.8000;0.5511;3.0612;
785.1000;0.5527;3.0684;
785.4000;0.5560;3.0708;
785.7000;0.5568;3.0780;
786.0000;0.5535;3.0708;
786.3000;0.5503;3.0636;
786.6000;0.5551;3.0636;
786.9000;0.5576;3.0588;
787.2000;0.5543;3.0516;
787.5000;0.5543;3.0540;
787.8000;0.5543;3.0564;
788.1000;0.5543;3.0660;
788.4000;0.5568;3.0708;
788.7000;0.5543;3.0708;
789.0000;0.5543;3.0828;
789.3000;0.5543;3.0852;
789.6000;0.5560;3.0852;
789.9000;0.5535;3.0876;
790.2000;0.5495;3.0828;
790.5000;0.5543;3.0900;
790.8000;0.5551;3.0900;
791.1000;0.5551;3.0948;
791.4000;0.5527;3.0684;
791.7000;0.5551;3.0780;
792.0000;0.5560;3.0780;
792.3000;0.5495;3.0588;
792.6000;0.5535;3.0660;
792.9000;0.5535;3.0684;
793.2000;0.5551;3.0756;
793.5000;0.5543;3.0732;
793.8000;0.5527;3.0684;
794.1000;0.5519;3.0732;
794.4000;0.5560;3.0708;
794.7000;0.5535;3.0636;
795.0000;0.5560;3.0660;
795.3000;0.5592;3.0876;
795.6000;0.5543;3.0852;
795.9000;0.5543;3.0828;
796.2000;0.5527;3.0900;
796.5000;0.5551;3.0900;
796.8000;0.5584;3.0972;
797.1000;0.5527;3.0900;
797.4000;0.5560;3.0996;
797.7000;0.5535;3.0996;
798.0000;0.5543;3.0924;
798.3000;0.5511;3.0876;
798.6000;0.5543;3.0900;
798.9000;0.5543;3.0924;
799.2000;0.5543;3.0996;
799.5000;0.5543;3.0972;
799.8000;0.5535;3.0876;
800.1000;0.5519;3.0828;
800.4000;0.5527;3.0876;
800.7000;0.5527;3.0900;
801.0000;0.5535;3.0900;
801.3000;0.5535;3.0876;
801.6000;0.5543;3.0948;
801.9000;0.5535;3.0996;
802.2000;0.5519;3.0924;
802.5000;0.5527;3.0852;
802.8000;0.5486;3.0900;
803.1000;0.5519;3.1020;
803.4000;0.5519;3.1116;
803.7000;0.5519;3.1116;
804.0000;0.5543;3.1140;
804.3000;0.5625;3.1308;
804.6000;0.5519;3.1092;
804.9000;0.5543;3.1116;
805.2000;0.5527;3.1116;
805.5000;0.5568;3.1236;
805.8000;0.5527;3.1044;
806.1000;0.5527;3.0924;
806.4000;0.5527;3.0924;
806.7000;0.5511;3.0876;
807.0000;0.5527;3.0900;
807.3000;0.5511;3.0948;
807.6000;0.5486;3.0828;
807.9000;0.5511;3.0876;
808.2000;0.5519;3.0900;
808.5000;0.5527;3.0924;
808.8000;0.5503;3.0852;
809.1000;0.5535;3.0924;
809.4000;0.5527;3.0828;
809.7000;0.5511;3.0756;
810.0000;0.5519;3.0804;
810.3000;0.5535;3.0804;
810.6000;0.5519;3.0756;
810.9000;0.5576;3.0876;
811.2000;0.5527;3.0780;
811.5000;0.5527;3.0828;
811.8000;0.5535;3.0924;
812.1000;0.5519;3.0972;
812.4000;0.5527;3.0972;
812.7000;0.5511;3.0948;
813.0000;0.5527;3.0996;
813.3000;0.5527;3.0876;
813.6000;0.5527;3.0900;
813.9000;0.5503;3.0804;
814.2000;0.5503;3.0876;
814.5000;0.5519;3.0876;
814.8000;0.5527;3.0852;
815.1000;0.5511;3.0756;
815.4000;0.5495;3.0612;
815.7000;0.5503;3.0732;
816.0000;0.5511;3.0780;
816.3000;0.5503;3.0708;
816.6000;0.5503;3.0708;
816.9000;0.5535;3.0732;
817.2000;0.5495;3.0708;
817.5000;0.5495;3.0828;
817.8000;0.5503;3.0924;
818.1000;0.5503;3.0852;
818.4000;0.5535;3.0972;
818.7000;0.5503;3.0828;
819.0000;0.5495;3.0756;
819.3000;0.5495;3.0660;
819.6000;0.5503;3.0564;
819.9000;0.5503;3.0612;
820.2000;0.5519;3.0612;
820.5000;0.5511;3.0612;
820.8000;0.5511;3.0708;
821.1000;0.5503;3.0756;
821.4000;0.5470;3.0780;
821.7000;0.5495;3.0924;
822.0000;0.5495;3.0972;
822.3000;0.5511;3.0996;
822.6000;0.5503;3.0972;
822.9000;0.5486;3.0948;
823.2000;0.5511;3.0900;
823.5000;0.5495;3.0900;
823.8000;0.5535;3.0900;
824.1000;0.5519;3.0900;
824.4000;0.5495;3.0732;
824.7000;0.5503;3.0780;
825.0000;0.5551;3.0852;
825.3000;0.5503;3.0828;
825.6000;0.5495;3.0948;
825.9000;0.5568;3.1116;
826.2000;0.5462;3.0948;
826.5000;0.5495;3.0972;
826.8000;0.5495;3.0924;
827.1000;0.5486;3.0924;
827.4000;0.5503;3.0924;
827.7000;0.5495;3.0900;
828.0000;0.5649;3.1284;
828.3000;0.5511;3.0876;
828.6000;0.5503;3.0900;
828.9000;0.5503;3.0900;
829.2000;0.5462;3.0828;
829.5000;0.5503;3.0924;
829.8000;0.5503;3.0948;
830.1000;0.5503;3.0948;
830.4000;0.5495;3.0924;
830.7000;0.5495;3.0876;
831.0000;0.5495;3.0948;
831.3000;0.5495;3.0972;
831.6000;0.5462;3.0804;
831.9000;0.5495;3.0852;
832.2000;0.5495;3.0828;
832.5000;0.5527;3.0876;
832.8000;0.5511;3.0804;
833.1000;0.5486;3.0780;
833.4000;0.5495;3.0780;
833.7000;0.5495;3.0708;
834.0000;0.5495;3.0804;
834.3000;0.5503;3.0852;
834.6000;0.5511;3.0924;
834.9000;0.5519;3.0948;
835.2000;0.5503;3.0828;
835.5000;0.5503;3.0828;
835.8000;0.5511;3.0828;
836.1000;0.5495;3.0828;
836.4000;0.5576;3.1020;
836.7000;0.5413;3.0636;
837.0000;0.5495;3.0948;
837.3000;0.5462;3.0876;
837.6000;0.5478;3.0852;
837.9000;0.5503;3.0996;
838.2000;0.5405;3.0804;
838.5000;0.5486;3.1092;
838.8000;0.5478;3.1020;
839.1000;0.5478;3.1020;
839.4000;0.5446;3.0996;
839.7000;0.5462;3.0996;
840.0000;0.5486;3.1116;
840.3000;0.5495;3.1188;
840.6000;0.5478;3.1116;
840.9000;0.5495;3.1140;
841.2000;0.5478;3.1092;
841.5000;0.5519;3.1164;
841.8000;0.5486;3.1044;
842.1000;0.5470;3.1020;
842.4000;0.5470;3.0924;
842.7000;0.5495;3.0876;
843.0000;0.5478;3.0876;
843.3000;0.5470;3.0876;
843.6000;0.5478;3.0756;
843.9000;0.5478;3.0732;
844.2000;0.5478;3.0660;
844.5000;0.5462;3.0636;
844.8000;0.5495;3.0660;
845.1000;0.5486;3.0660;
845.4000;0.5495;3.0684;
845.7000;0.5495;3.0708;
846.0000;0.5478;3.0636;
846.3000;0.5511;3.0780;
846.6000;0.5495;3.0876;
846.9000;0.5478;3.0876;
847.2000;0.5503;3.0924;
847.5000;0.5495;3.0804;
847.8000;0.5478;3.0780;
848.1000;0.5478;3.0924;
848.4000;0.5478;3.0924;
848.7000;0.5495;3.0948;
849.0000;0.5429;3.0828;
849.3000;0.5486;3.0924;
849.6000;0.5470;3.0924;
849.9000;0.5405;3.0852;
850.2000;0.5462;3.0876;
850.5000;0.5495;3.0900;
850.8000;0.5486;3.0828;
851.1000;0.5470;3.0828;
851.4000;0.5486;3.0876;
851.7000;0.5486;3.0876;
852.0000;0.5478;3.0804;
852.3000;0.5478;3.0732;
852.6000;0.5413;3.0612;
852.9000;0.5405;3.0564;
853.2000;0.5486;3.0732;
853.5000;0.5462;3.0636;
853.8000;0.5495;3.0732;
854.1000;0.5421;3.0588;
854.4000;0.5495;3.0828;
854.7000;0.5462;3.0732;
855.0000;0.5486;3.0828;
855.3000;0.5527;3.0900;
855.6000;0.5584;3.1044;
855.9000;0.5486;3.0804;
856.2000;0.5454;3.0660;
856.5000;0.5486;3.0828;
856.8000;0.5495;3.0876;
857.1000;0.5486;3.0900;
857.4000;0.5462;3.0804;
857.7000;0.5454;3.0732;
858.0000;0.5454;3.0756;
858.3000;0.5495;3.0780;
858.6000;0.5470;3.0660;
858.9000;0.5470;3.0684;
859.2000;0.5478;3.0660;
859.5000;0.5511;3.0828;
859.8000;0.5470;3.0732;
860.1000;0.5495;3.0780;
860.4000;0.5486;3.0756;
860.7000;0.5478;3.0804;
861.0000;0.5454;3.0852;
861.3000;0.5462;3.0948;
861.6000;0.5462;3.0924;
861.9000;0.5503;3.0972;
862.2000;0.5527;3.1140;
862.5000;0.5454;3.0996;
862.8000;0.5470;3.1068;
863.1000;0.5478;3.0996;
863.4000;0.5454;3.0852;
863.7000;0.5446;3.0828;
864.0000;0.5462;3.0852;
864.3000;0.5470;3.0924;
864.6000;0.5462;3.0900;
864.9000;0.5470;3.0924;
865.2000;0.5470;3.0924;
865.5000;0.5470;3.0900;
865.8000;0.5462;3.0972;
866.1000;0.5486;3.0996;
866.4000;0.5470;3.0996;
866.7000;0.5478;3.0996;
867.0000;0.5454;3.0972;
867.3000;0.5421;3.0852;
867.6000;0.5462;3.0828;
867.9000;0.5470;3.0924;
868.2000;0.5478;3.0852;
868.5000;0.5454;3.0780;
868.8000;0.5470;3.0852;
869.1000;0.5470;3.0756;
869.4000;0.5486;3.0780;
869.7000;0.5462;3.0732;
870.0000;0.5478;3.0780;
870.3000;0.5470;3.0828;
870.6000;0.5478;3.0948;
870.9000;0.5519;3.1116;
871.2000;0.5478;3.0972;
871.5000;0.5462;3.0948;
871.8000;0.5421;3.0900;
872.1000;0.5462;3.1068;
872.4000;0.5462;3.0996;
872.7000;0.5462;3.0900;
873.0000;0.5413;3.0780;
873.3000;0.5478;3.0900;
873.6000;0.5478;3.0876;
873.9000;0.5454;3.0780;
874.2000;0.5454;3.0828;
874.5000;0.5389;3.0804;
874.8000;0.5470;3.1044;
875.1000;0.5478;3.1068;
875.4000;0.5462;3.1020;
875.7000;0.5470;3.1116;
876.0000;0.5462;3.1140;
876.3000;0.5446;3.1116;
876.6000;0.5462;3.1140;
876.9000;0.5535;3.1356;
877.2000;0.5470;3.1116;
877.5000;0.5389;3.0876;
877.8000;0.5454;3.1044;
878.1000;0.5470;3.1164;
878.4000;0.5470;3.1044;
878.7000;0.5446;3.0996;
879.0000;0.5429;3.0972;
879.3000;0.5470;3.1092;
879.6000;0.5478;3.1188;
879.9000;0.5462;3.1164;
880.2000;0.5454;3.1140;
880.5000;0.5470;3.1164;
880.8000;0.5462;3.1092;
881.1000;0.5462;3.1092;
881.4000;0.5454;3.1116;
881.7000;0.5438;3.0996;
882.0000;0.5486;3.0996;
882.3000;0.5486;3.0948;
882.6000;0.5446;3.0948;
882.9000;0.5454;3.0996;
883.2000;0.5429;3.0852;
883.5000;0.5462;3.0828;
883.8000;0.5478;3.0900;
884.1000;0.5454;3.0924;
884.4000;0.5503;3.1044;
884.7000;0.5503;3.1020;
885.0000;0.5470;3.0900;
885.3000;0.5454;3.0828;
885.6000;0.5462;3.0948;
885.9000;0.5470;3.0972;
886.2000;0.5446;3.0876;
886.5000;0.5462;3.0996;
886.8000;0.5429;3.0924;
887.1000;0.5462;3.0972;
887.4000;0.5454;3.0948;
887.7000;0.5462;3.0924;
888.0000;0.5454;3.0900;
888.3000;0.5462;3.0948;
888.6000;0.5462;3.0900;
888.9000;0.5438;3.0900;
889.2000;0.5454;3.0852;
889.5000;0.5478;3.0852;
889.8000;0.5470;3.0924;
890.1000;0.5438;3.0804;
890.4000;0.5462;3.0948;
890.7000;0.5511;3.1116;
891.0000;0.5462;3.1044;
891.3000;0.5462;3.0828;
891.6000;0.5454;3.0780;
891.9000;0.5438;3.0756;
892.2000;0.5470;3.0780;
892.5000;0.5454;3.0684;
892.8000;0.5470;3.0588;
893.1000;0.5438;3.0588;
893.4000;0.5462;3.0588;
893.7000;0.5478;3.0684;
894.0000;0.5462;3.0732;
894.3000;0.5470;3.0708;
894.6000;0.5429;3.0708;
894.9000;0.5462;3.0780;
895.2000;0.5470;3.0780;
895.5000;0.5454;3.0708;
895.8000;0.5486;3.0876;
896.1000;0.5438;3.0900;
896.4000;0.5454;3.0948;
896.7000;0.5446;3.0972;
897.0000;0.5438;3.0852;
897.3000;0.5438;3.0804;
897.6000;0.5446;3.0804;
897.9000;0.5291;3.0396;
898.2000;0.5454;3.0828;
898.5000;0.5495;3.0852;
898.8000;0.5462;3.0780;
899.1000;0.5446;3.0804;
899.4000;0.5462;3.0876;
899.7000;0.5470;3.0900;
900.0000;0.5421;3.0924;
900.3000;0.5348;3.0708;
900.6000;0.5389;3.0804;
900.9000;0.5470;3.0996;
901.2000;0.5470;3.0996;
901.5000;0.5446;3.0972;
901.8000;0.5454;3.0948;
902.1000;0.5462;3.0972;
902.4000;0.5454;3.0900;
902.7000;0.5454;3.0876;
903.0000;0.5429;3.0732;
903.3000;0.5470;3.0804;
903.6000;0.5462;3.0780;
903.9000;0.5462;3.0900;
904.2000;0.5462;3.0900;
904.5000;0.5462;3.1020;
904.8000;0.5462;3.1092;
905.1000;0.5438;3.1020;
905.4000;0.5446;3.0996;
905.7000;0.5446;3.1020;
906.0000;0.5454;3.0972;
906.3000;0.5527;3.1116;
906.6000;0.5446;3.0900;
906.9000;0.5438;3.0900;
907.2000;0.5429;3.0828;
907.5000;0.5462;3.0852;
907.8000;0.5470;3.0876;
908.1000;0.5454;3.0852;
908.4000;0.5454;3.0804;
908.7000;0.5438;3.0852;
909.0000;0.5454;3.0876;
909.3000;0.5429;3.0780;
909.6000;0.5429;3.0804;
909.9000;0.5446;3.0852;
910.2000;0.5470;3.0804;
910.5000;0.5454;3.0780;
910.8000;0.5454;3.0804;
911.1000;0.5454;3.0780;
911.4000;0.5454;3.0852;
911.7000;0.5446;3.0780;
912.0000;0.5446;3.0804;
912.3000;0.5438;3.0780;
912.6000;0.5446;3.0828;
912.9000;0.5462;3.0876;
913.2000;0.5446;3.0900;
913.5000;0.5438;3.0900;
913.8000;0.5462;3.0828;
914.1000;0.5454;3.0804;
914.4000;0.5438;3.0852;
914.7000;0.5454;3.0924;
915.0000;0.5454;3.0948;
915.3000;0.5446;3.0924;
915.6000;0.5446;3.0924;
915.9000;0.5454;3.0828;
916.2000;0.5454;3.0780;
916.5000;0.5405;3.0732;
916.8000;0.5527;3.0972;
917.1000;0.5454;3.0900;
917.4000;0.5438;3.0972;
917.7000;0.5446;3.0924;
918.0000;0.5446;3.0972;
918.3000;0.5438;3.0996;
918.6000;0.5478;3.1044;
918.9000;0.5372;3.0804;
919.2000;0.5438;3.0924;
919.5000;0.5446;3.0924;
919.8000;0.5438;3.0948;
920.1000;0.5462;3.0996;
920.4000;0.5446;3.1020;
920.7000;0.5446;3.1020;
921.0000;0.5429;3.1020;
921.3000;0.5429;3.1044;
921.6000;0.5438;3.1068;
921.9000;0.5429;3.1068;
922.2000;0.5438;3.1044;
922.5000;0.5438;3.1068;
922.8000;0.5495;3.1212;
923.1000;0.5438;3.1188;
923.4000;0.5429;3.1212;
923.7000;0.5446;3.1236;
924.0000;0.5429;3.1116;
924.3000;0.5438;3.1116;
924.6000;0.5429;3.1092;
924.9000;0.5421;3.1020;
925.2000;0.5446;3.1044;
925.5000;0.5462;3.1092;
925.8000;0.5429;3.1092;
926.1000;0.5446;3.1092;
926.4000;0.5438;3.1068;
926.7000;0.5446;3.1044;
927.0000;0.5438;3.1020;
927.3000;0.5446;3.1116;
927.6000;0.5454;3.1140;
927.9000;0.5462;3.1164;
928.2000;0.5454;3.1188;
928.5000;0.5429;3.1092;
928.8000;0.5454;3.1260;
929.1000;0.5438;3.1260;
929.4000;0.5446;3.1236;
929.7000;0.5438;3.1164;
930.0000;0.5454;3.1212;
930.3000;0.5413;3.1140;
930.6000;0.5446;3.1164;
930.9000;0.5438;3.1140;
931.2000;0.5397;3.1020;
931.5000;0.5446;3.1140;
931.8000;0.5446;3.1212;
932.1000;0.5438;3.1092;
932.4000;0.5446;3.1140;
932.7000;0.5462;3.1188;
933.0000;0.5429;3.1116;
933.3000;0.5429;3.1020;
933.6000;0.5421;3.0924;
933.9000;0.5389;3.0828;
934.2000;0.5446;3.1020;
934.5000;0.5446;3.1020;
934.8000;0.5446;3.0996;
935.1000;0.5446;3.0996;
935.4000;0.5397;3.0828;
935.7000;0.5454;3.0924;
936.0000;0.5429;3.0828;
936.3000;0.5478;3.1044;
936.6000;0.5454;3.1020;
936.9000;0.5470;3.1020;
937.2000;0.5446;3.0996;
937.5000;0.5454;3.0876;
937.8000;0.5429;3.0828;
938.1000;0.5438;3.0876;
938.4000;0.5438;3.0876;
938.7000;0.5438;3.0876;
939.0000;0.5446;3.1020;
939.3000;0.5462;3.1044;
939.6000;0.5429;3.1092;
939.9000;0.5495;3.1260;
940.2000;0.5535;3.1380;
940.5000;0.5446;3.1068;
940.8000;0.5446;3.1116;
941.1000;0.5405;3.1044;
941.4000;0.5446;3.1236;
941.7000;0.5446;3.1260;
942.0000;0.5438;3.1356;
942.3000;0.5446;3.1332;
942.6000;0.5446;3.1284;
942.9000;0.5495;3.1524;
943.2000;0.5438;3.1428;
943.5000;0.5405;3.1404;
943.8000;0.5429;3.1404;
944.1000;0.5446;3.1452;
944.4000;0.5438;3.1404;
944.7000;0.5389;3.1308;
945.0000;0.5429;3.1332;
945.3000;0.5438;3.1236;
945.6000;0.5429;3.1260;
945.9000;0.5429;3.1212;
946.2000;0.5421;3.1140;
946.5000;0.5470;3.1212;
946.8000;0.5429;3.1092;
947.1000;0.5429;3.1020;
947.4000;0.5381;3.0900;
947.7000;0.5421;3.0996;
948.0000;0.5429;3.1092;
948.3000;0.5446;3.1092;
948.6000;0.5429;3.1020;
948.9000;0.5421;3.1044;
949.2000;0.5438;3.1092;
949.5000;0.5438;3.1188;
949.8000;0.5429;3.1260;
950.1000;0.5438;3.1284;
950.4000;0.5446;3.1212;
950.7000;0.5454;3.1188;
951.0000;0.5438;3.1116;
951.3000;0.5429;3.1068;
951.6000;0.5429;3.1020;
951.9000;0.5397;3.1020;
952.2000;0.5446;3.1260;
952.5000;0.5470;3.1356;
952.8000;0.5429;3.1236;
953.1000;0.5429;3.1260;
953.4000;0.5405;3.1284;
953.7000;0.5462;3.1308;
954.0000;0.5429;3.1236;
954.3000;0.5446;3.1284;
954.6000;0.5446;3.1212;
954.9000;0.5438;3.1212;
955.2000;0.5438;3.1212;
955.5000;0.5438;3.1164;
955.8000;0.5470;3.1212;
956.1000;0.5446;3.1212;
956.4000;0.5429;3.1116;
956.7000;0.5454;3.1188;
957.0000;0.5454;3.1164;
957.3000;0.5446;3.1188;
957.6000;0.5429;3.1020;
957.9000;0.5429;3.0924;
958.2000;0.5470;3.0996;
958.5000;0.5446;3.0804;
958.8000;0.5438;3.0852;
959.1000;0.5413;3.0804;
959.4000;0.5495;3.0948;
959.7000;0.5429;3.0876;
960.0000;0.5438;3.0924;
960.3000;0.5421;3.0948;
960.6000;0.5413;3.0996;
960.9000;0.5413;3.1092;
961.2000;0.5324;3.0756;
961.5000;0.5438;3.1092;
961.8000;0.5421;3.1116;
962.1000;0.5454;3.1068;
962.4000;0.5413;3.0972;
962.7000;0.5438;3.1068;
963.0000;0.5413;3.0996;
963.3000;0.5438;3.1092;
963.6000;0.5438;3.1116;
963.9000;0.5413;3.1068;
964.2000;0.5381;3.0996;
964.5000;0.5429;3.0996;
964.8000;0.5413;3.1020;
965.1000;0.5429;3.1140;
965.4000;0.5429;3.1164;
965.7000;0.5389;3.1068;
966.0000;0.5421;3.1188;
966.3000;0.5413;3.1164;
966.6000;0.5405;3.0972;
966.9000;0.5438;3.1068;
967.2000;0.5438;3.1092;
967.5000;0.5405;3.0972;
967.8000;0.5503;3.1236;
968.1000;0.5470;3.1212;
968.4000;0.5397;3.0948;
968.7000;0.5381;3.0972;
969.0000;0.5429;3.1068;
969.3000;0.5397;3.0924;
969.6000;0.5389;3.0876;
969.9000;0.5438;3.1044;
970.2000;0.5446;3.1020;
970.5000;0.5495;3.1092;
970.8000;0.5446;3.0996;
971.1000;0.5478;3.1068;
971.4000;0.5413;3.0900;
971.7000;0.5446;3.0972;
972.0000;0.5454;3.1044;
972.3000;0.5429;3.1020;
972.6000;0.5429;3.1044;
972.9000;0.5429;3.1044;
973.2000;0.5421;3.1020;
973.5000;0.5438;3.1068;
973.8000;0.5421;3.1164;
974.1000;0.5429;3.1332;
974.4000;0.5454;3.1452;
974.7000;0.5446;3.1428;
975.0000;0.5413;3.1356;
975.3000;0.5413;3.1260;
975.6000;0.5429;3.1308;
975.9000;0.5421;3.1260;
976.2000;0.5413;3.1188;
976.5000;0.5446;3.1236;
976.8000;0.5421;3.1236;
977.1000;0.5438;3.1260;
977.4000;0.5340;3.1092;
977.7000;0.5438;3.1308;
978.0000;0.5405;3.1356;
978.3000;0.5429;3.1404;
978.6000;0.5462;3.1476;
978.9000;0.5413;3.1260;
979.2000;0.5413;3.1236;
979.5000;0.5405;3.1140;
979.8000;0.5421;3.1188;
980.1000;0.5413;3.1092;
980.4000;0.5421;3.1116;
980.7000;0.5413;3.1116;
981.0000;0.5429;3.1092;
981.3000;0.5429;3.1116;
981.6000;0.5429;3.1116;
981.9000;0.5413;3.1020;
982.2000;0.5405;3.0924;
982.5000;0.5438;3.0972;
982.8000;0.5413;3.1020;
983.1000;0.5421;3.1092;
983.4000;0.5413;3.1116;
983.7000;0.5429;3.1116;
984.0000;0.5421;3.1140;
984.3000;0.5438;3.1212;
984.6000;0.5438;3.1212;
984.9000;0.5429;3.1236;
985.2000;0.5413;3.1260;
985.5000;0.5486;3.1404;
985.8000;0.5421;3.1284;
986.1000;0.5429;3.1284;
986.4000;0.5438;3.1236;
986.7000;0.5446;3.1164;
987.0000;0.5421;3.1092;
987.3000;0.5446;3.1116;
987.6000;0.5446;3.1116;
987.9000;0.5519;3.1332;
988.2000;0.5429;3.1068;
988.5000;0.5413;3.1116;
988.8000;0.5421;3.1140;
989.1000;0.5405;3.1044;
989.4000;0.5413;3.1140;
989.7000;0.5389;3.1068;
990.0000;0.5397;3.1140;
990.3000;0.5381;3.1068;
990.6000;0.5454;3.1260;
990.9000;0.5405;3.1212;
991.2000;0.5413;3.1188;
991.5000;0.5389;3.1236;
991.8000;0.5413;3.1356;
992.1000;0.5446;3.1404;
992.4000;0.5446;3.1404;
992.7000;0.5405;3.1284;
993.0000;0.5364;3.1020;
993.3000;0.5397;3.1116;
993.6000;0.5381;3.1044;
993.9000;0.5413;3.1092;
994.2000;0.5405;3.1164;
994.5000;0.5413;3.1188;
994.8000;0.5429;3.1188;
995.1000;0.5429;3.1188;
995.4000;0.5438;3.1212;
995.7000;0.5413;3.1164;
996.0000;0.5397;3.1188;
996.3000;0.5446;3.1308;
996.6000;0.5438;3.1284;
996.9000;0.5429;3.1260;
997.2000;0.5421;3.1332;
997.5000;0.5438;3.1356;
997.8000;0.5429;3.1284;
998.1000;0.5421;3.1188;
998.4000;0.5413;3.1164;
998.7000;0.5413;3.1116;
999.0000;0.5405;3.1068;
999.3000;0.5429;3.1092;
999.6000;0.5405;3.0972;
999.9000;0.5421;3.0996;
1000.2000;0.5405;3.0972;
1000.5000;0.5421;3.1068;
1000.8000;0.5413;3.1020;
1001.1000;0.5421;3.1068;
1001.4000;0.5413;3.1020;
1001.7000;0.5421;3.1068;
1002.0000;0.5429;3.1068;
1002.3000;0.5405;3.1044;
1002.6000;0.5413;3.0996;
1002.9000;0.5438;3.1068;
1003.2000;0.5462;3.1116;
1003.5000;0.5421;3.0996;
1003.8000;0.5405;3.0924;
1004.1000;0.5438;3.0996;
1004.4000;0.5429;3.0900;
1004.7000;0.5421;3.0876;
1005.0000;0.5429;3.0972;
1005.3000;0.5438;3.0948;
1005.6000;0.5429;3.0948;
1005.9000;0.5429;3.0996;
1006.2000;0.5421;3.1044;
1006.5000;0.5421;3.1236;
1006.8000;0.5438;3.1308;
1007.1000;0.5421;3.1308;
1007.4000;0.5413;3.1308;
1007.7000;0.5413;3.1188;
1008.0000;0.5332;3.0972;
1008.3000;0.5429;3.1188;
1008.6000;0.5381;3.1044;
1008.9000;0.5429;3.1116;
1009.2000;0.5381;3.0972;
1009.5000;0.5381;3.0924;
1009.8000;0.5405;3.1068;
1010.1000;0.5405;3.1116;
1010.4000;0.5421;3.1068;
1010.7000;0.5413;3.1116;
1011.0000;0.5397;3.1116;
1011.3000;0.5405;3.1212;
1011.6000;0.5421;3.1188;
1011.9000;0.5438;3.1164;
1012.2000;0.5413;3.1188;
1012.5000;0.5397;3.1140;
1012.8000;0.5389;3.1140;
1013.1000;0.5405;3.1068;
1013.4000;0.5421;3.1068;
1013.7000;0.5397;3.1092;
1014.0000;0.5307;3.0900;
1014.3000;0.5405;3.1260;
1014.6000;0.5446;3.1356;
1014.9000;0.5389;3.1212;
1015.2000;0.5429;3.1332;
1015.5000;0.5397;3.1284;
1015.8000;0.5405;3.1308;
1016.1000;0.5462;3.1308;
1016.4000;0.5389;3.1164;
1016.7000;0.5429;3.1260;
1017.0000;0.5438;3.1284;
1017.3000;0.5413;3.1188;
1017.6000;0.5413;3.1092;
1017.9000;0.5356;3.1020;
1018.2000;0.5429;3.1260;
1018.5000;0.5429;3.1212;
1018.8000;0.5413;3.1188;
1019.1000;0.5421;3.1236;
1019.4000;0.5446;3.1356;
1019.7000;0.5413;3.1284;
1020.0000;0.5421;3.1212;
1020.3000;0.5413;3.1140;
1020.6000;0.5421;3.1116;
1020.9000;0.5421;3.1140;
1021.2000;0.5429;3.1212;
1021.5000;0.5397;3.1188;
1021.8000;0.5413;3.1140;
1022.1000;0.5421;3.1116;
1022.4000;0.5405;3.1068;
1022.7000;0.5397;3.1092;
1023.0000;0.5405;3.1164;
1023.3000;0.5397;3.1284;
1023.6000;0.5421;3.1308;
1023.9000;0.5381;3.1212;
1024.2000;0.5405;3.1212;
1024.5000;0.5389;3.1212;
1024.8000;0.5421;3.1212;
1025.1000;0.5429;3.1308;
1025.4000;0.5405;3.1308;
1025.7000;0.5438;3.1284;
1026.0000;0.5429;3.1332;
1026.3000;0.5429;3.1356;
1026.6000;0.5438;3.1380;
1026.9000;0.5413;3.1236;
1027.2000;0.5413;3.1236;
1027.5000;0.5413;3.1236;
1027.8000;0.5429;3.1284;
1028.1000;0.5413;3.1284;
1028.4000;0.5421;3.1332;
1028.7000;0.5397;3.1308;
1029.0000;0.5405;3.1308;
1029.3000;0.5389;3.1212;
1029.6000;0.5421;3.1308;
1029.9000;0.5413;3.1308;
1030.2000;0.5413;3.1308;
1030.5000;0.5429;3.1260;
1030.8000;0.5421;3.1236;
1031.1000;0.5429;3.1260;
1031.4000;0.5413;3.1212;
1031.7000;0.5429;3.1212;
1032.0000;0.5429;3.1332;
1032.3000;0.5462;3.1356;
1032.6000;0.5381;3.1188;
1032.9000;0.5413;3.1260;
1033.2000;0.5503;3.1500;
1033.5000;0.5421;3.1284;
1033.8000;0.5421;3.1308;
1034.1000;0.5421;3.1308;
1034.4000;0.5413;3.1212;
1034.7000;0.5413;3.1236;
1035.0000;0.5446;3.1260;
1035.3000;0.5421;3.1164;
1035.6000;0.5413;3.1140;
1035.9000;0.5429;3.1212;
1036.2000;0.5421;3.1164;
1036.5000;0.5446;3.1308;
1036.8000;0.5364;3.1140;
1037.1000;0.5405;3.1284;
1037.4000;0.5405;3.1308;
1037.7000;0.5405;3.1236;
1038.0000;0.5381;3.1236;
1038.3000;0.5397;3.1260;
1038.6000;0.5397;3.1260;
1038.9000;0.5405;3.1236;
1039.2000;0.5397;3.1140;
1039.5000;0.5332;3.0924;
1039.8000;0.5405;3.1140;
1040.1000;0.5413;3.1212;
1040.4000;0.5421;3.1188;
1040.7000;0.5438;3.1188;
1041.0000;0.5429;3.1140;
1041.3000;0.5413;3.1092;
1041.6000;0.5421;3.1212;
1041.9000;0.5421;3.1236;
1042.2000;0.5462;3.1308;
1042.5000;0.5405;3.1116;
1042.8000;0.5397;3.1116;
1043.1000;0.5405;3.1212;
1043.4000;0.5429;3.1260;
1043.7000;0.5405;3.1212;
1044.0000;0.5405;3.1260;
1044.3000;0.5397;3.1236;
1044.6000;0.5405;3.1260;
1044.9000;0.5413;3.1236;
1045.2000;0.5421;3.1188;
1045.5000;0.5429;3.1260;
1045.8000;0.5413;3.1308;
1046.1000;0.5405;3.1284;
1046.4000;0.5413;3.1404;
1046.7000;0.5421;3.1380;
1047.0000;0.5421;3.1404;
1047.3000;0.5454;3.1380;
1047.6000;0.5405;3.1284;
1047.9000;0.5405;3.1260;
1048.2000;0.5397;3.1236;
1048.5000;0.5413;3.1260;
1048.8000;0.5405;3.1308;
1049.1000;0.5438;3.1332;
1049.4000;0.5405;3.1284;
1049.7000;0.5413;3.1356;
1050.0000;0.5413;3.1356;
1050.3000;0.5413;3.1380;
1050.6000;0.5413;3.1380;
1050.9000;0.5421;3.1356;
1051.2000;0.5446;3.1332;
1051.5000;0.5405;3.1164;
1051.8000;0.5421;3.1140;
1052.1000;0.5421;3.1188;
1052.4000;0.5421;3.1284;
1052.7000;0.5421;3.1284;
1053.0000;0.5405;3.1236;
1053.3000;0.5421;3.1308;
1053.6000;0.5405;3.1236;
1053.9000;0.5397;3.1236;
1054.2000;0.5405;3.1164;
1054.5000;0.5397;3.1140;
1054.8000;0.5421;3.1188;
1055.1000;0.5421;3.1236;
1055.4000;0.5413;3.1212;
1055.7000;0.5413;3.1236;
1056.0000;0.5429;3.1212;
1056.3000;0.5429;3.1164;
1056.6000;0.5421;3.1140;
1056.9000;0.5413;3.1116;
1057.2000;0.5381;3.1068;
1057.5000;0.5405;3.1116;
1057.8000;0.5405;3.1212;
1058.1000;0.5405;3.1308;
1058.4000;0.5405;3.1188;
1058.7000;0.5413;3.1140;
1059.0000;0.5421;3.1188;
1059.3000;0.5421;3.1212;
1059.6000;0.5438;3.1164;
1059.9000;0.5413;3.1236;
1060.2000;0.5421;3.1308;
1060.5000;0.5389;3.1188;
1060.8000;0.5405;3.1188;
1061.1000;0.5454;3.1308;
1061.4000;0.5429;3.1212;
1061.7000;0.5397;3.1188;
1062.0000;0.5405;3.1260;
1062.3000;0.5421;3.1140;
1062.6000;0.5421;3.1188;
1062.9000;0.5405;3.1116;
1063.2000;0.5389;3.1020;
1063.5000;0.5364;3.0852;
1063.8000;0.5413;3.0948;
1064.1000;0.5413;3.1020;
1064.4000;0.5429;3.1116;
1064.7000;0.5421;3.1140;
1065.0000;0.5405;3.1140;
1065.3000;0.5421;3.1260;
1065.6000;0.5405;3.1236;
1065.9000;0.5397;3.1236;
1066.2000;0.5462;3.1308;
1066.5000;0.5405;3.1236;
1066.8000;0.5413;3.1236;
1067.1000;0.5307;3.1044;
1067.4000;0.5389;3.1212;
1067.7000;0.5413;3.1260;
1068.0000;0.5421;3.1284;
1068.3000;0.5397;3.1260;
1068.6000;0.5405;3.1236;
1068.9000;0.5421;3.1260;
1069.2000;0.5478;3.1332;
1069.5000;0.5397;3.1068;
1069.8000;0.5413;3.1044;
1070.1000;0.5405;3.1044;
1070.4000;0.5413;3.1092;
1070.7000;0.5413;3.1188;
1071.0000;0.5421;3.1212;
1071.3000;0.5405;3.1140;
1071.6000;0.5405;3.1164;
1071.9000;0.5405;3.1164;
1072.2000;0.5405;3.1116;
1072.5000;0.5389;3.1068;
1072.8000;0.5413;3.1140;
1073.1000;0.5421;3.1092;
1073.4000;0.5413;3.0948;
1073.7000;0.5421;3.1020;
1074.0000;0.5421;3.1044;
1074.3000;0.5405;3.1020;
1074.6000;0.5429;3.0948;
1074.9000;0.5421;3.0948;
1075.2000;0.5446;3.0948;
1075.5000;0.5413;3.0924;
1075.8000;0.5421;3.0876;
1076.1000;0.5405;3.0828;
1076.4000;0.5389;3.0828;
1076.7000;0.5397;3.0852;
1077.0000;0.5421;3.0924;
1077.3000;0.5421;3.0996;
1077.6000;0.5413;3.0948;
1077.9000;0.5397;3.0924;
1078.2000;0.5397;3.0900;
1078.5000;0.5389;3.0804;
1078.8000;0.5413;3.0900;
1079.1000;0.5381;3.0924;
1079.4000;0.5405;3.0900;
1079.7000;0.5389;3.0924;
1080.0000;0.5397;3.0996;
1080.3000;0.5438;3.1068;
1080.6000;0.5421;3.1044;
1080.9000;0.5421;3.1068;
1081.2000;0.5413;3.1020;
1081.5000;0.5397;3.1044;
1081.8000;0.5381;3.1020;
1082.1000;0.5421;3.1068;
1082.4000;0.5413;3.1020;
1082.7000;0.5478;3.1140;
1083.0000;0.5324;3.0900;
1083.3000;0.5429;3.1212;
1083.6000;0.5381;3.1164;
1083.9000;0.5438;3.1212;
1084.2000;0.5389;3.1020;
1084.5000;0.5413;3.1068;
1084.8000;0.5405;3.1044;
1085.1000;0.5421;3.1092;
1085.4000;0.5372;3.0996;
1085.7000;0.5421;3.1092;
1086.0000;0.5421;3.1092;
1086.3000;0.5413;3.1020;
1086.6000;0.5324;3.0804;
1086.9000;0.5405;3.0948;
1087.2000;0.5397;3.0876;
1087.5000;0.5332;3.0732;
1087.8000;0.5413;3.0972;
1088.1000;0.5364;3.0828;
1088.4000;0.5438;3.1092;
1088.7000;0.5429;3.1044;
1089.0000;0.5389;3.1020;
1089.3000;0.5397;3.1044;
1089.6000;0.5397;3.0972;
1089.9000;0.5397;3.0948;
1090.2000;0.5389;3.0900;
1090.5000;0.5372;3.0852;
1090.8000;0.5413;3.0948;
1091.1000;0.5397;3.0996;
1091.4000;0.5413;3.1020;
1091.7000;0.5413;3.1044;
1092.0000;0.5413;3.1020;
1092.3000;0.5389;3.1044;
1092.6000;0.5397;3.1020;
1092.9000;0.5438;3.1116;
1093.2000;0.5389;3.1116;
1093.5000;0.5413;3.1260;
1093.8000;0.5389;3.1212;
1094.1000;0.5389;3.1188;
1094.4000;0.5429;3.1236;
1094.7000;0.5389;3.1188;
1095.0000;0.5389;3.1188;
1095.3000;0.5397;3.1188;
1095.6000;0.5413;3.1164;
1095.9000;0.5397;3.1164;
1096.2000;0.5397;3.1020;
1096.5000;0.5397;3.1044;
1096.8000;0.5397;3.1068;
1097.1000;0.5421;3.1092;
1097.4000;0.5413;3.1020;
1097.7000;0.5405;3.0948;
1098.0000;0.5413;3.0996;
1098.3000;0.5397;3.0900;
1098.6000;0.5405;3.0900;
1098.9000;0.5413;3.0948;
1099.2000;0.5405;3.0972;
1099.5000;0.5397;3.0972;
1099.8000;0.5397;3.0924;
1100.1000;0.5454;3.1092;
1100.4000;0.5389;3.1044;
1100.7000;0.5413;3.1092;
1101.0000;0.5356;3.0972;
1101.3000;0.5397;3.1140;
1101.6000;0.5389;3.1164;
1101.9000;0.5381;3.1092;
1102.2000;0.5413;3.1116;
1102.5000;0.5397;3.0948;
1102.8000;0.5446;3.0996;
1103.1000;0.5372;3.0972;
1103.4000;0.5429;3.1068;
1103.7000;0.5389;3.0972;
1104.0000;0.5389;3.0972;
1104.3000;0.5381;3.0924;
1104.6000;0.5413;3.1020;
1104.9000;0.5397;3.0996;
1105.2000;0.5397;3.0948;
1105.5000;0.5405;3.0924;
1105.8000;0.5413;3.1020;
1106.1000;0.5405;3.0996;
1106.4000;0.5405;3.1092;
1106.7000;0.5397;3.1116;
1107.0000;0.5413;3.1140;
1107.3000;0.5413;3.1188;
1107.6000;0.5405;3.1164;
1107.9000;0.5315;3.0924;
1108.2000;0.5421;3.1140;
1108.5000;0.5446;3.1236;
1108.8000;0.5397;3.1116;
1109.1000;0.5405;3.1188;
1109.4000;0.5405;3.1236;
1109.7000;0.5421;3.1332;
1110.0000;0.5372;3.1140;
1110.3000;0.5470;3.1356;
1110.6000;0.5381;3.1116;
1110.9000;0.5405;3.1068;
1111.2000;0.5405;3.1092;
1111.5000;0.5397;3.1044;
1111.8000;0.5405;3.0972;
1112.1000;0.5413;3.0996;
1112.4000;0.5405;3.0948;
1112.7000;0.5405;3.0972;
1113.0000;0.5389;3.1020;
1113.3000;0.5405;3.1116;
1113.6000;0.5405;3.1044;
1113.9000;0.5413;3.1092;
1114.2000;0.5413;3.1164;
1114.5000;0.5397;3.1068;
1114.8000;0.5397;3.0996;
1115.1000;0.5413;3.1044;
1115.4000;0.5413;3.1164;
1115.7000;0.5397;3.1212;
1116.0000;0.5429;3.1260;
1116.3000;0.5405;3.1212;
1116.6000;0.5405;3.1212;
1116.9000;0.5397;3.1068;
1117.2000;0.5413;3.0996;
1117.5000;0.5413;3.0996;
1117.8000;0.5397;3.0996;
1118.1000;0.5413;3.1068;
1118.4000;0.5429;3.1164;
1118.7000;0.5397;3.1164;
1119.0000;0.5397;3.1164;
1119.3000;0.5438;3.1308;
1119.6000;0.5413;3.1188;
1119.9000;0.5405;3.1092;
1120.2000;0.5381;3.1092;
1120.5000;0.5389;3.1164;
1120.8000;0.5397;3.1140;
1121.1000;0.5421;3.1188;
1121.4000;0.5389;3.1044;
1121.7000;0.5405;3.1068;
1122.0000;0.5405;3.1020;
1122.3000;0.5462;3.1164;
1122.6000;0.5405;3.0948;
1122.9000;0.5381;3.0948;
1123.2000;0.5413;3.1140;
1123.5000;0.5405;3.1164;
1123.8000;0.5405;3.1164;
1124.1000;0.5381;3.1020;
1124.4000;0.5413;3.1140;
1124.7000;0.5397;3.0972;
1125.0000;0.5397;3.0972;
1125.3000;0.5307;3.0660;
1125.6000;0.5405;3.0876;
1125.9000;0.5315;3.0612;
1126.2000;0.5413;3.0924;
1126.5000;0.5348;3.0732;
1126.8000;0.5405;3.0900;
1127.1000;0.5438;3.1044;
1127.4000;0.5405;3.1020;
1127.7000;0.5405;3.1092;
1128.0000;0.5397;3.1044;
1128.3000;0.5372;3.0900;
1128.6000;0.5389;3.0972;
1128.9000;0.5397;3.0972;
1129.2000;0.5405;3.0948;
1129.5000;0.5364;3.0996;
1129.8000;0.5405;3.1188;
1130.1000;0.5495;3.1404;
1130.4000;0.5397;3.1068;
1130.7000;0.5405;3.1164;
1131.0000;0.5389;3.1116;
1131.3000;0.5397;3.1164;
1131.6000;0.5397;3.1236;
1131.9000;0.5429;3.1308;
1132.2000;0.5405;3.1116;
1132.5000;0.5381;3.1020;
1132.8000;0.5397;3.1140;
1133.1000;0.5405;3.1140;
1133.4000;0.5397;3.1212;
1133.7000;0.5405;3.1260;
1134.0000;0.5364;3.1140;
1134.3000;0.5381;3.1068;
1134.6000;0.5397;3.1140;
1134.9000;0.5405;3.1116;
1135.2000;0.5413;3.1140;
1135.5000;0.5413;3.1188;
1135.8000;0.5389;3.1164;
1136.1000;0.5413;3.1212;
1136.4000;0.5421;3.1188;
1136.7000;0.5397;3.1116;
1137.0000;0.5413;3.1068;
1137.3000;0.5413;3.1068;
1137.6000;0.5405;3.0996;
1137.9000;0.5397;3.1020;
1138.2000;0.5405;3.0876;
1138.5000;0.5372;3.0732;
1138.8000;0.5413;3.0804;
1139.1000;0.5397;3.0828;
1139.4000;0.5413;3.0924;
1139.7000;0.5397;3.0924;
1140.0000;0.5421;3.1092;
1140.3000;0.5364;3.0948;
1140.6000;0.5389;3.0924;
1140.9000;0.5389;3.1020;
1141.2000;0.5405;3.1140;
1141.5000;0.5405;3.1116;
1141.8000;0.5389;3.1116;
1142.1000;0.5381;3.1116;
1142.4000;0.5413;3.1044;
1142.7000;0.5397;3.1020;
1143.0000;0.5421;3.1068;
1143.3000;0.5413;3.1020;
1143.6000;0.5446;3.1140;
1143.9000;0.5413;3.1188;
1144.2000;0.5413;3.1164;
1144.5000;0.5372;3.1140;
1144.8000;0.5389;3.1116;
1145.1000;0.5381;3.1044;
1145.4000;0.5389;3.1020;
1145.7000;0.5372;3.0996;
1146.0000;0.5389;3.1044;
1146.3000;0.5438;3.1188;
1146.6000;0.5397;3.1164;
1146.9000;0.5397;3.1092;
1147.2000;0.5413;3.1164;
1147.5000;0.5413;3.1068;
1147.8000;0.5397;3.0972;
1148.1000;0.5356;3.0972;
1148.4000;0.5389;3.0996;
1148.7000;0.5405;3.0972;
1149.0000;0.5397;3.0948;
1149.3000;0.5381;3.0996;
1149.6000;0.5389;3.1092;
1149.9000;0.5307;3.0876;
1150.2000;0.5389;3.1068;
1150.5000;0.5381;3.1116;
1150.8000;0.5389;3.1164;
1151.1000;0.5356;3.1092;
1151.4000;0.5397;3.1164;
1151.7000;0.5405;3.1212;
1152.0000;0.5397;3.1188;
1152.3000;0.5397;3.1188;
1152.6000;0.5421;3.1164;
1152.9000;0.5413;3.1116;
1153.2000;0.5421;3.1140;
1153.5000;0.5397;3.1044;
1153.8000;0.5364;3.0996;
1154.1000;0.5405;3.1044;
1154.4000;0.5381;3.1044;
1154.7000;0.5381;3.1044;
1155.0000;0.5372;3.1092;
1155.3000;0.5413;3.1188;
1155.6000;0.5340;3.0948;
1155.9000;0.5381;3.1068;
1156.2000;0.5389;3.1188;
1156.5000;0.5405;3.1212;
1156.8000;0.5405;3.1284;
1157.1000;0.5421;3.1332;
1157.4000;0.5389;3.1236;
1157.7000;0.5405;3.1164;
1158.0000;0.5405;3.1188;
1158.3000;0.5405;3.1164;
1158.6000;0.5389;3.1140;
1158.9000;0.5389;3.1188;
1159.2000;0.5405;3.1164;
1159.5000;0.5389;3.1044;
1159.8000;0.5381;3.0996;
1160.1000;0.5364;3.0972;
1160.4000;0.5397;3.1020;
1160.7000;0.5381;3.1068;
1161.0000;0.5397;3.1116;
1161.3000;0.5381;3.1092;
1161.6000;0.5397;3.1068;
1161.9000;0.5397;3.1092;
1162.2000;0.5454;3.1236;
1162.5000;0.5397;3.1068;
1162.8000;0.5397;3.1044;
1163.1000;0.5389;3.0924;
1163.4000;0.5389;3.1020;
1163.7000;0.5381;3.0996;
1164.0000;0.5389;3.1020;
1164.3000;0.5405;3.1044;
1164.6000;0.5397;3.1068;
1164.9000;0.5372;3.1140;
1165.2000;0.5372;3.1188;
1165.5000;0.5381;3.1236;
1165.8000;0.5381;3.1212;
1166.1000;0.5372;3.1164;
1166.4000;0.5389;3.1188;
1166.7000;0.5405;3.1236;
1167.0000;0.5381;3.1140;
1167.3000;0.5405;3.1236;
1167.6000;0.5397;3.1164;
1167.9000;0.5405;3.1044;
1168.2000;0.5381;3.0972;
1168.5000;0.5364;3.1020;
1168.8000;0.5372;3.1044;
1169.1000;0.5397;3.1092;
1169.4000;0.5405;3.1044;
1169.7000;0.5413;3.1092;
1170.0000;0.5397;3.1020;
1170.3000;0.5405;3.1092;
1170.6000;0.5405;3.1068;
1170.9000;0.5405;3.0972;
1171.2000;0.5356;3.0900;
1171.5000;0.5413;3.1020;
1171.8000;0.5372;3.0876;
1172.1000;0.5405;3.0996;
1172.4000;0.5397;3.0972;
1172.7000;0.5372;3.0924;
1173.0000;0.5405;3.1116;
1173.3000;0.5381;3.1116;
1173.6000;0.5372;3.1020;
1173.9000;0.5332;3.0924;
1174.2000;0.5446;3.1284;
1174.5000;0.5421;3.1236;
1174.8000;0.5397;3.1116;
1175.1000;0.5356;3.1116;
1175.4000;0.5381;3.1140;
1175.7000;0.5381;3.1188;
1176.0000;0.5389;3.1116;
1176.3000;0.5413;3.1164;
1176.6000;0.5389;3.1140;
1176.9000;0.5397;3.1212;
1177.2000;0.5405;3.1260;
1177.5000;0.5405;3.1308;
1177.8000;0.5397;3.1260;
1178.1000;0.5340;3.1020;
1178.4000;0.5405;3.1236;
1178.7000;0.5413;3.1284;
1179.0000;0.5413;3.1260;
1179.3000;0.5405;3.1164;
1179.6000;0.5421;3.1260;
1179.9000;0.5307;3.0924;
1180.2000;0.5307;3.0852;
1180.5000;0.5438;3.1140;
1180.8000;0.5389;3.1068;
1181.1000;0.5397;3.0972;
1181.4000;0.5397;3.1092;
1181.7000;0.5389;3.1116;
1182.0000;0.5389;3.1116;
1182.3000;0.5381;3.1092;
1182.6000;0.5372;3.1188;
1182.9000;0.5348;3.1116;
1183.2000;0.5381;3.1212;
1183.5000;0.5381;3.1212;
1183.8000;0.5389;3.1188;
1184.1000;0.5397;3.1188;
1184.4000;0.5397;3.1212;
1184.7000;0.5381;3.1164;
1185.0000;0.5405;3.1212;
1185.3000;0.5421;3.1308;
1185.6000;0.5405;3.1236;
1185.9000;0.5397;3.1188;
1186.2000;0.5381;3.1092;
1186.5000;0.5389;3.1140;
1186.8000;0.5405;3.1188;
1187.1000;0.5405;3.1236;
1187.4000;0.5389;3.1092;
1187.7000;0.5332;3.1044;
1188.0000;0.5389;3.1164;
1188.3000;0.5405;3.1164;
1188.6000;0.5405;3.1092;
1188.9000;0.5389;3.1068;
1189.2000;0.5397;3.1068;
1189.5000;0.5421;3.1140;
1189.8000;0.5405;3.1092;
1190.1000;0.5389;3.1044;
1190.4000;0.5381;3.0996;
1190.7000;0.5397;3.1020;
1191.0000;0.5405;3.1020;
1191.3000;0.5405;3.1092;
1191.6000;0.5397;3.1068;
1191.9000;0.5405;3.1092;
1192.2000;0.5389;3.1116;
1192.5000;0.5389;3.1044;
1192.8000;0.5397;3.1020;
1193.1000;0.5397;3.1044;
1193.4000;0.5413;3.1092;
1193.7000;0.5397;3.1044;
1194.0000;0.5389;3.1020;
1194.3000;0.5405;3.1092;
1194.6000;0.5389;3.1092;
1194.9000;0.5413;3.1164;
1195.2000;0.5372;3.1068;
1195.5000;0.5397;3.1092;
1195.8000;0.5421;3.1140;
1196.1000;0.5429;3.1236;
1196.4000;0.5429;3.1188;
1196.7000;0.5364;3.1020;
1197.0000;0.5389;3.1092;
1197.3000;0.5381;3.1020;
1197.6000;0.5381;3.1020;
1197.9000;0.5429;3.1140;
1198.2000;0.5381;3.1020;
1198.5000;0.5413;3.1140;
1198.8000;0.5372;3.1092;
1199.1000;0.5397;3.1092;
1199.4000;0.5381;3.1092;
1199.7000;0.5389;3.1116;
1200.0000;0.5340;3.1020;
1200.3000;0.5356;3.1044;
1200.6000;0.5324;3.1092;
1200.9000;0.5397;3.1284;
1201.2000;0.5470;3.1596;
1201.5000;0.5397;3.1428;
1201.8000;0.5438;3.1476;
1202.1000;0.5381;3.1308;
1202.4000;0.5364;3.1236;
1202.7000;0.5381;3.1308;
1203.0000;0.5397;3.1188;
1203.3000;0.5389;3.1188;
1203.6000;0.5397;3.1188;
1203.9000;0.5381;3.1212;
1204.2000;0.5397;3.1332;
1204.5000;0.5381;3.1380;
1204.8000;0.5372;3.1452;
1205.1000;0.5389;3.1356;
1205.4000;0.5389;3.1284;
1205.7000;0.5397;3.1236;
1206.0000;0.5397;3.1260;
1206.3000;0.5397;3.1236;
1206.6000;0.5381;3.1212;
1206.9000;0.5381;3.1308;
1207.2000;0.5364;3.1284;
1207.5000;0.5413;3.1284;
1207.8000;0.5389;3.1236;
1208.1000;0.5381;3.1140;
1208.4000;0.5397;3.1116;
1208.7000;0.5405;3.1164;
1209.0000;0.5397;3.1092;
1209.3000;0.5389;3.1188;
1209.6000;0.5397;3.1260;
1209.9000;0.5364;3.1236;
1210.2000;0.5389;3.1260;
1210.5000;0.5372;3.1116;
1210.8000;0.5340;3.1140;
1211.1000;0.5405;3.1356;
1211.4000;0.5421;3.1452;
1211.7000;0.5381;3.1380;
1212.0000;0.5389;3.1284;
1212.3000;0.5381;3.1260;
1212.6000;0.5397;3.1260;
1212.9000;0.5413;3.1308;
1213.2000;0.5381;3.1332;
1213.5000;0.5364;3.1356;
1213.8000;0.5389;3.1332;
1214.1000;0.5397;3.1308;
1214.4000;0.5364;3.1308;
1214.7000;0.5446;3.1428;
1215.0000;0.5389;3.1332;
1215.3000;0.5397;3.1404;
1215.6000;0.5372;3.1284;
1215.9000;0.5405;3.1212;
1216.2000;0.5389;3.1188;
1216.5000;0.5405;3.1332;
1216.8000;0.5405;3.1308;
1217.1000;0.5438;3.1380;
1217.4000;0.5389;3.1260;
1217.7000;0.5397;3.1308;
1218.0000;0.5397;3.1236;
1218.3000;0.5372;3.1212;
1218.6000;0.5381;3.1188;
1218.9000;0.5413;3.1308;
1219.2000;0.5397;3.1356;
1219.5000;0.5364;3.1356;
1219.8000;0.5356;3.1332;
1220.1000;0.5372;3.1380;
1220.4000;0.5389;3.1452;
1220.7000;0.5381;3.1428;
1221.0000;0.5413;3.1548;
1221.3000;0.5381;3.1404;
1221.6000;0.5405;3.1356;
1221.9000;0.5429;3.1380;
1222.2000;0.5413;3.1452;
1222.5000;0.5421;3.1548;
1222.8000;0.5389;3.1452;
1223.1000;0.5299;3.1164;
1223.4000;0.5389;3.1332;
1223.7000;0.5397;3.1380;
1224.0000;0.5348;3.1308;
1224.3000;0.5429;3.1524;
1224.6000;0.5364;3.1380;
1224.9000;0.5364;3.1236;
1225.2000;0.5348;3.1164;
1225.5000;0.5381;3.1164;
1225.8000;0.5381;3.1092;
1226.1000;0.5372;3.1068;
1226.4000;0.5381;3.1044;
1226.7000;0.5381;3.1044;
1227.0000;0.5372;3.1068;
1227.3000;0.5372;3.1044;
1227.6000;0.5364;3.0900;
1227.9000;0.5381;3.0972;
1228.2000;0.5372;3.1068;
1228.5000;0.5372;3.1020;
1228.8000;0.5381;3.1140;
1229.1000;0.5397;3.1212;
1229.4000;0.5389;3.1068;
1229.7000;0.5372;3.1116;
1230.0000;0.5372;3.1092;
1230.3000;0.5429;3.1260;
1230.6000;0.5397;3.1140;
1230.9000;0.5372;3.1164;
1231.2000;0.5405;3.1188;
1231.5000;0.5405;3.1188;
1231.8000;0.5405;3.1284;
1232.1000;0.5389;3.1260;
1232.4000;0.5397;3.1284;
1232.7000;0.5389;3.1260;
1233.0000;0.5372;3.1212;
1233.3000;0.5478;3.1452;
1233.6000;0.5381;3.1236;
1233.9000;0.5348;3.1092;
1234.2000;0.5381;3.1092;
1234.5000;0.5372;3.1020;
1234.8000;0.5372;3.0924;
1235.1000;0.5372;3.0924;
1235.4000;0.5389;3.0948;
1235.7000;0.5454;3.1236;
1236.0000;0.5372;3.0972;
1236.3000;0.5381;3.1092;
1236.6000;0.5389;3.1140;
1236.9000;0.5405;3.1212;
1237.2000;0.5397;3.1212;
1237.5000;0.5405;3.1188;
1237.8000;0.5389;3.1164;
1238.1000;0.5397;3.1164;
1238.4000;0.5356;3.1020;
1238.7000;0.5389;3.1140;
1239.0000;0.5405;3.1236;
1239.3000;0.5421;3.1380;
1239.6000;0.5372;3.1404;
1239.9000;0.5372;3.1452;
1240.2000;0.5397;3.1428;
1240.5000;0.5413;3.1380;
1240.8000;0.5381;3.1140;
1241.1000;0.5348;3.1068;
1241.4000;0.5397;3.1092;
1241.7000;0.5381;3.1044;
1242.0000;0.5332;3.0996;
1242.3000;0.5364;3.1140;
1242.6000;0.5381;3.1164;
1242.9000;0.5397;3.1188;
1243.2000;0.5413;3.1212;
1243.5000;0.5413;3.1212;
1243.8000;0.5413;3.1188;
1244.1000;0.5405;3.1188;
1244.4000;0.5372;3.1188;
1244.7000;0.5381;3.1212;
1245.0000;0.5421;3.1356;
1245.3000;0.5372;3.1188;
1245.6000;0.5413;3.1236;
1245.9000;0.5389;3.1188;
1246.2000;0.5389;3.1092;
1246.5000;0.5381;3.1140;
1246.8000;0.5397;3.1164;
1247.1000;0.5372;3.1212;
1247.4000;0.5372;3.1236;
1247.7000;0.5381;3.1236;
1248.0000;0.5397;3.1260;
1248.3000;0.5348;3.1188;
1248.6000;0.5405;3.1332;
1248.9000;0.5389;3.1236;
1249.2000;0.5381;3.1212;
1249.5000;0.5381;3.1212;
1249.8000;0.5405;3.1284;
1250.1000;0.5405;3.1332;
1250.4000;0.5397;3.1380;
1250.7000;0.5413;3.1356;
1251.0000;0.5389;3.1356;
1251.3000;0.5324;3.1188;
1251.6000;0.5381;3.1380;
1251.9000;0.5397;3.1428;
1252.2000;0.5389;3.1332;
1252.5000;0.5364;3.1284;
1252.8000;0.5389;3.1236;
1253.1000;0.5397;3.1260;
1253.4000;0.5413;3.1284;
1253.7000;0.5381;3.1140;
1254.0000;0.5389;3.1116;
1254.3000;0.5364;3.1068;
1254.6000;0.5405;3.1020;
1254.9000;0.5397;3.1116;
1255.2000;0.5405;3.1140;
1255.5000;0.5381;3.0996;
1255.8000;0.5372;3.0972;
1256.1000;0.5397;3.0876;
1256.4000;0.5397;3.0852;
1256.7000;0.5389;3.0924;
1257.0000;0.5389;3.0972;
1257.3000;0.5421;3.1044;
1257.6000;0.5397;3.0972;
1257.9000;0.5397;3.1068;
1258.2000;0.5372;3.1044;
1258.5000;0.5397;3.1140;
1258.8000;0.5397;3.1236;
1259.1000;0.5397;3.1188;
1259.4000;0.5356;3.0996;
1259.7000;0.5372;3.0972;
1260.0000;0.5397;3.1044;
1260.3000;0.5364;3.1068;
1260.6000;0.5381;3.1164;
1260.9000;0.5413;3.1164;
1261.2000;0.5356;3.1164;
1261.5000;0.5381;3.1236;
1261.8000;0.5389;3.1308;
1262.1000;0.5381;3.1260;
1262.4000;0.5405;3.1212;
1262.7000;0.5446;3.1260;
1263.0000;0.5364;3.1068;
1263.3000;0.5389;3.1164;
1263.6000;0.5413;3.1260;
1263.9000;0.5381;3.1212;
1264.2000;0.5372;3.1140;
1264.5000;0.5397;3.1140;
1264.8000;0.5389;3.1236;
1265.1000;0.5381;3.1308;
1265.4000;0.5372;3.1284;
1265.7000;0.5381;3.1236;
1266.0000;0.5381;3.1284;
1266.3000;0.5372;3.1380;
1266.6000;0.5381;3.1380;
1266.9000;0.5470;3.1572;
1267.2000;0.5372;3.1284;
1267.5000;0.5429;3.1404;
1267.8000;0.5397;3.1284;
1268.1000;0.5381;3.1236;
1268.4000;0.5381;3.1236;
1268.7000;0.5381;3.1356;
1269.0000;0.5389;3.1380;
1269.3000;0.5372;3.1308;
1269.6000;0.5389;3.1284;
1269.9000;0.5405;3.1356;
1270.2000;0.5405;3.1284;
1270.5000;0.5389;3.1164;
1270.8000;0.5372;3.1116;
1271.1000;0.5397;3.1164;
1271.4000;0.5397;3.1212;
1271.7000;0.5364;3.1068;
1272.0000;0.5397;3.1140;
1272.3000;0.5421;3.1140;
1272.6000;0.5389;3.1092;
1272.9000;0.5405;3.1044;
1273.2000;0.5413;3.1044;
1273.5000;0.5389;3.1020;
1273.8000;0.5372;3.1068;
1274.1000;0.5381;3.1092;
1274.4000;0.5381;3.1140;
1274.7000;0.5389;3.1116;
1275.0000;0.5381;3.1164;
1275.3000;0.5364;3.1260;
1275.6000;0.5381;3.1260;
1275.9000;0.5381;3.1188;
1276.2000;0.5438;3.1308;
1276.5000;0.5397;3.1236;
1276.8000;0.5381;3.1236;
1277.1000;0.5389;3.1188;
1277.4000;0.5389;3.1164;
1277.7000;0.5356;3.1044;
1278.0000;0.5389;3.1092;
1278.3000;0.5389;3.1068;
1278.6000;0.5397;3.1092;
1278.9000;0.5381;3.1044;
1279.2000;0.5364;3.0996;
1279.5000;0.5364;3.1020;
1279.8000;0.5429;3.1164;
1280.1000;0.5372;3.0972;
1280.4000;0.5397;3.1020;
1280.7000;0.5389;3.1020;
1281.0000;0.5381;3.1020;
1281.3000;0.5405;3.1164;
1281.6000;0.5389;3.1140;
1281.9000;0.5364;3.1044;
1282.2000;0.5381;3.1068;
1282.5000;0.5405;3.1068;
1282.8000;0.5389;3.1020;
1283.1000;0.5405;3.1092;
1283.4000;0.5389;3.0996;
1283.7000;0.5421;3.0996;
1284.0000;0.5413;3.0948;
1284.3000;0.5413;3.0876;
1284.6000;0.5397;3.0876;
1284.9000;0.5397;3.0780;
1285.2000;0.5405;3.0780;
1285.5000;0.5429;3.0804;
1285.8000;0.5413;3.0708;
1286.1000;0.5397;3.0684;
1286.4000;0.5405;3.0780;
1286.7000;0.5397;3.0780;
1287.0000;0.5372;3.0804;
1287.3000;0.5372;3.0804;
1287.6000;0.5389;3.0876;
1287.9000;0.5389;3.0948;
1288.2000;0.5372;3.0852;
1288.5000;0.5364;3.0876;
1288.8000;0.5413;3.1068;
1289.1000;0.5381;3.0972;
1289.4000;0.5389;3.1020;
1289.7000;0.5381;3.1044;
1290.0000;0.5372;3.1020;
1290.3000;0.5381;3.1020;
1290.6000;0.5381;3.1068;
1290.9000;0.5364;3.1068;
1291.2000;0.5381;3.1068;
1291.5000;0.5372;3.1068;
1291.8000;0.5315;3.0948;
1292.1000;0.5389;3.1140;
1292.4000;0.5389;3.1140;
1292.7000;0.5397;3.1068;
1293.0000;0.5389;3.1164;
1293.3000;0.5421;3.1164;
1293.6000;0.5381;3.0996;
1293.9000;0.5356;3.0948;
1294.2000;0.5372;3.0900;
1294.5000;0.5372;3.0948;
1294.8000;0.5381;3.0996;
1295.1000;0.5389;3.1044;
1295.4000;0.5372;3.0972;
1295.7000;0.5364;3.1044;
1296.0000;0.5364;3.1020;
1296.3000;0.5283;3.0780;
1296.6000;0.5397;3.1092;
1296.9000;0.5389;3.1164;
1297.2000;0.5372;3.1020;
1297.5000;0.5381;3.1068;
1297.8000;0.5381;3.1092;
1298.1000;0.5381;3.1140;
1298.4000;0.5397;3.1140;
1298.7000;0.5372;3.1116;
1299.0000;0.5381;3.1116;
1299.3000;0.5405;3.1284;
1299.6000;0.5364;3.1236;
1299.9000;0.5389;3.1260;
1300.2000;0.5389;3.1140;
1300.5000;0.5372;3.0948;
1300.8000;0.5381;3.0900;
1301.1000;0.5364;3.0876;
1301.4000;0.5381;3.0924;
1301.7000;0.5389;3.0900;
1302.0000;0.5381;3.0972;
1302.3000;0.5454;3.1188;
1302.6000;0.5397;3.1116;
1302.9000;0.5397;3.1236;
1303.2000;0.5405;3.1212;
1303.5000;0.5389;3.1116;
1303.8000;0.5478;3.1332;
1304.1000;0.5381;3.1068;
1304.4000;0.5372;3.1092;
1304.7000;0.5381;3.1092;
1305.0000;0.5389;3.1092;
1305.3000;0.5372;3.1068;
1305.6000;0.5372;3.1044;
1305.9000;0.5364;3.1044;
1306.2000;0.5381;3.1092;
1306.5000;0.5389;3.1092;
1306.8000;0.5381;3.1068;
1307.1000;0.5381;3.1164;
1307.4000;0.5389;3.1164;
1307.7000;0.5372;3.1116;
1308.0000;0.5356;3.1068;
1308.3000;0.5389;3.1140;
1308.6000;0.5389;3.1020;
1308.9000;0.5405;3.1068;
1309.2000;0.5389;3.1044;
1309.5000;0.5405;3.1068;
1309.8000;0.5405;3.1068;
1310.1000;0.5372;3.1068;
1310.4000;0.5405;3.1068;
1310.7000;0.5389;3.1092;
1311.0000;0.5381;3.1068;
1311.3000;0.5389;3.1068;
1311.6000;0.5389;3.1068;
1311.9000;0.5446;3.1212;
1312.2000;0.5332;3.0996;
1312.5000;0.5381;3.1140;
1312.8000;0.5364;3.1116;
1313.1000;0.5446;3.1308;
1313.4000;0.5389;3.1140;
1313.7000;0.5364;3.1188;
1314.0000;0.5356;3.1164;
1314.3000;0.5389;3.1284;
1314.6000;0.5381;3.1308;
1314.9000;0.5372;3.1236;
1315.2000;0.5324;3.1068;
1315.5000;0.5299;3.1020;
1315.8000;0.5381;3.1140;
1316.1000;0.5340;3.1044;
1316.4000;0.5356;3.1116;
1316.7000;0.5381;3.1164;
1317.0000;0.5381;3.1236;
1317.3000;0.5454;3.1500;
1317.6000;0.5381;3.1260;
1317.9000;0.5356;3.1236;
1318.2000;0.5389;3.1236;
1318.5000;0.5372;3.1140;
1318.8000;0.5397;3.1212;
1319.1000;0.5348;3.1092;
1319.4000;0.5397;3.1116;
1319.7000;0.5381;3.1020;
1320.0000;0.5381;3.1044;
1320.3000;0.5381;3.1068;
1320.6000;0.5381;3.1020;
1320.9000;0.5381;3.0996;
1321.2000;0.5372;3.1020;
1321.5000;0.5381;3.1044;
1321.8000;0.5381;3.1020;
1322.1000;0.5389;3.1140;
1322.4000;0.5364;3.1116;
1322.7000;0.5364;3.1116;
1323.0000;0.5389;3.1164;
1323.3000;0.5389;3.1164;
1323.6000;0.5405;3.1164;
1323.9000;0.5389;3.1140;
1324.2000;0.5364;3.1044;
1324.5000;0.5397;3.1212;
1324.8000;0.5405;3.1260;
1325.1000;0.5405;3.1284;
1325.4000;0.5429;3.1356;
1325.7000;0.5372;3.1284;
1326.0000;0.5364;3.1284;
1326.3000;0.5462;3.1524;
1326.6000;0.5413;3.1380;
1326.9000;0.5381;3.1284;
1327.2000;0.5397;3.1236;
1327.5000;0.5397;3.1164;
1327.8000;0.5364;3.1140;
1328.1000;0.5389;3.1140;
1328.4000;0.5389;3.1020;
1328.7000;0.5307;3.0756;
1329.0000;0.5381;3.0996;
1329.3000;0.5438;3.1116;
1329.6000;0.5397;3.0996;
1329.9000;0.5348;3.0852;
1330.2000;0.5381;3.0972;
1330.5000;0.5413;3.0996;
1330.8000;0.5372;3.0996;
1331.1000;0.5356;3.1020;
1331.4000;0.5332;3.0996;
1331.7000;0.5389;3.1164;
1332.0000;0.5397;3.1164;
1332.3000;0.5389;3.1068;
1332.6000;0.5364;3.0996;
1332.9000;0.5389;3.0972;
1333.2000;0.5332;3.0780;
1333.5000;0.5438;3.1068;
1333.8000;0.5381;3.1044;
1334.1000;0.5413;3.1188;
1334.4000;0.5381;3.1092;
1334.7000;0.5389;3.1116;
1335.0000;0.5364;3.1068;
1335.3000;0.5340;3.0900;
1335.6000;0.5381;3.0996;
1335.9000;0.5372;3.0972;
1336.2000;0.5381;3.0972;
1336.5000;0.5389;3.0996;
1336.8000;0.5372;3.0972;
1337.1000;0.5372;3.1068;
1337.4000;0.5438;3.1308;
1337.7000;0.5389;3.1116;
1338.0000;0.5397;3.1068;
1338.3000;0.5324;3.0996;
1338.6000;0.5397;3.1284;
1338.9000;0.5389;3.1236;
1339.2000;0.5381;3.1140;
1339.5000;0.5381;3.1092;
1339.8000;0.5397;3.1092;
1340.1000;0.5381;3.1092;
1340.4000;0.5381;3.1116;
1340.7000;0.5372;3.1092;
1341.0000;0.5397;3.1092;
1341.3000;0.5397;3.1116;
1341.6000;0.5381;3.1116;
1341.9000;0.5356;3.1068;
1342.2000;0.5381;3.1116;
1342.5000;0.5364;3.1068;
1342.8000;0.5372;3.1068;
1343.1000;0.5381;3.1044;
1343.4000;0.5397;3.1092;
1343.7000;0.5389;3.1020;
1344.0000;0.5389;3.1044;
1344.3000;0.5405;3.1020;
1344.6000;0.5381;3.0996;
1344.9000;0.5405;3.1092;
1345.2000;0.5364;3.1044;
1345.5000;0.5372;3.1020;
1345.8000;0.5389;3.1116;
1346.1000;0.5372;3.1164;
1346.4000;0.5381;3.1188;
1346.7000;0.5381;3.1236;
1347.0000;0.5381;3.1188;
1347.3000;0.5397;3.1188;
1347.6000;0.5389;3.1044;
1347.9000;0.5372;3.0948;
1348.2000;0.5348;3.0876;
1348.5000;0.5381;3.0972;
1348.8000;0.5405;3.1068;
1349.1000;0.5397;3.1020;
1349.4000;0.5478;3.1284;
1349.7000;0.5397;3.1092;
1350.0000;0.5397;3.1044;
1350.3000;0.5372;3.0948;
1350.6000;0.5389;3.0948;
1350.9000;0.5397;3.1020;
1351.2000;0.5405;3.1140;
1351.5000;0.5397;3.1116;
1351.8000;0.5397;3.1092;
1352.1000;0.5397;3.1140;
1352.4000;0.5389;3.1164;
1352.7000;0.5413;3.1188;
1353.0000;0.5421;3.1092;
1353.3000;0.5389;3.0948;
1353.6000;0.5381;3.0876;
1353.9000;0.5389;3.0900;
1354.2000;0.5381;3.0924;
1354.5000;0.5389;3.0972;
1354.8000;0.5381;3.0900;
1355.1000;0.5372;3.0804;
1355.4000;0.5372;3.0852;
1355.7000;0.5389;3.0852;
1356.0000;0.5372;3.0972;
1356.3000;0.5372;3.0876;
1356.6000;0.5381;3.0900;
1356.9000;0.5372;3.0948;
1357.2000;0.5356;3.0924;
1357.5000;0.5364;3.0804;
1357.8000;0.5381;3.0828;
1358.1000;0.5454;3.0972;
1358.4000;0.5381;3.0804;
1358.7000;0.5389;3.0852;
1359.0000;0.5389;3.0852;
1359.3000;0.5364;3.0804;
1359.6000;0.5381;3.0900;
1359.9000;0.5381;3.0852;
1360.2000;0.5429;3.0996;
1360.5000;0.5389;3.0828;
1360.8000;0.5405;3.0924;
1361.1000;0.5397;3.0996;
1361.4000;0.5381;3.1044;
1361.7000;0.5381;3.1092;
1362.0000;0.5397;3.1092;
1362.3000;0.5405;3.1092;
1362.6000;0.5372;3.1020;
1362.9000;0.5389;3.1068;
1363.2000;0.5389;3.1068;
1363.5000;0.5364;3.1068;
1363.8000;0.5389;3.1260;
1364.1000;0.5381;3.1260;
1364.4000;0.5372;3.1236;
1364.7000;0.5356;3.1260;
1365.0000;0.5364;3.1212;
1365.3000;0.5356;3.1188;
1365.6000;0.5364;3.1164;
1365.9000;0.5381;3.1212;
1366.2000;0.5381;3.1188;
1366.5000;0.5397;3.1188;
1366.8000;0.5381;3.1116;
1367.1000;0.5413;3.1260;
1367.4000;0.5405;3.1260;
1367.7000;0.5397;3.1260;
1368.0000;0.5405;3.1284;
1368.3000;0.5381;3.1260;
1368.6000;0.5413;3.1428;
1368.9000;0.5405;3.1404;
1369.2000;0.5397;3.1380;
1369.5000;0.5372;3.1308;
1369.8000;0.5372;3.1284;
1370.1000;0.5372;3.1236;
1370.4000;0.5389;3.1284;
1370.7000;0.5324;3.1116;
1371.0000;0.5389;3.1284;
1371.3000;0.5397;3.1260;
1371.6000;0.5405;3.1284;
1371.9000;0.5397;3.1236;
1372.2000;0.5389;3.1164;
1372.5000;0.5405;3.1188;
1372.8000;0.5381;3.1164;
1373.1000;0.5389;3.1116;
1373.4000;0.5381;3.1020;
1373.7000;0.5381;3.1020;
1374.0000;0.5405;3.0996;
1374.3000;0.5397;3.0972;
1374.6000;0.5348;3.0900;
1374.9000;0.5381;3.0924;
1375.2000;0.5364;3.0972;
1375.5000;0.5364;3.1020;
1375.8000;0.5348;3.0996;
1376.1000;0.5348;3.0972;
1376.4000;0.5372;3.1020;
1376.7000;0.5397;3.0948;
1377.0000;0.5389;3.0876;
1377.3000;0.5356;3.0900;
1377.6000;0.5364;3.0852;
1377.9000;0.5389;3.0996;
1378.2000;0.5389;3.1068;
1378.5000;0.5389;3.1068;
1378.8000;0.5381;3.1020;
1379.1000;0.5381;3.1020;
1379.4000;0.5381;3.1068;
1379.7000;0.5372;3.1116;
1380.0000;0.5389;3.1020;
1380.3000;0.5389;3.1020;
1380.6000;0.5372;3.1020;
1380.9000;0.5348;3.1020;
1381.2000;0.5381;3.1020;
1381.5000;0.5413;3.1116;
1381.8000;0.5397;3.1140;
1382.1000;0.5307;3.0972;
1382.4000;0.5397;3.1188;
1382.7000;0.5405;3.1140;
1383.0000;0.5495;3.1356;
1383.3000;0.5397;3.1020;
1383.6000;0.5389;3.1020;
1383.9000;0.5381;3.0996;
1384.2000;0.5389;3.0972;
1384.5000;0.5397;3.0972;
1384.8000;0.5405;3.1044;
1385.1000;0.5389;3.1068;
1385.4000;0.5397;3.1044;
1385.7000;0.5397;3.0972;
1386.0000;0.5413;3.1020;
1386.3000;0.5356;3.0972;
1386.6000;0.5356;3.0996;
1386.9000;0.5389;3.1140;
1387.2000;0.5381;3.1164;
1387.5000;0.5389;3.1212;
1387.8000;0.5381;3.1212;
1388.1000;0.5405;3.1212;
1388.4000;0.5397;3.1140;
1388.7000;0.5389;3.1092;
1389.0000;0.5397;3.1020;
1389.3000;0.5397;3.1092;
1389.6000;0.5372;3.1020;
1389.9000;0.5372;3.1044;
1390.2000;0.5283;3.0828;
1390.5000;0.5397;3.1236;
1390.8000;0.5389;3.1188;
1391.1000;0.5421;3.1236;
1391.4000;0.5381;3.1044;
1391.7000;0.5381;3.1068;
1392.0000;0.5381;3.1092;
1392.3000;0.5389;3.1044;
1392.6000;0.5381;3.1068;
1392.9000;0.5397;3.1116;
1393.2000;0.5364;3.1044;
1393.5000;0.5389;3.1188;
1393.8000;0.5372;3.1188;
1394.1000;0.5372;3.1140;
1394.4000;0.5397;3.1212;
1394.7000;0.5381;3.1164;
1395.0000;0.5372;3.1164;
1395.3000;0.5397;3.1164;
1395.6000;0.5381;3.1140;
1395.9000;0.5389;3.1140;
1396.2000;0.5389;3.1260;
1396.5000;0.5438;3.1380;
1396.8000;0.5356;3.1236;
1397.1000;0.5421;3.1476;
1397.4000;0.5389;3.1452;
1397.7000;0.5372;3.1308;
1398.0000;0.5397;3.1284;
1398.3000;0.5413;3.1332;
1398.6000;0.5364;3.1236;
1398.9000;0.5364;3.1164;
1399.2000;0.5372;3.1284;
1399.5000;0.5372;3.1260;
1399.8000;0.5397;3.1236;
