time/ms;Fluo/V;P700 deltaI/I x10³;
-199.8000;0.9939;-5.2647;
-199.5000;0.9963;-5.2569;
-199.2000;0.9988;-5.2569;
-198.9000;1.0012;-5.2465;
-198.6000;0.9988;-5.2517;
-198.3000;0.9963;-5.2569;
-198.0000;0.9980;-5.2569;
-197.7000;1.0004;-5.2517;
-197.4000;0.9988;-5.2491;
-197.1000;1.0045;-5.2413;
-196.8000;0.9980;-5.2621;
-196.5000;1.0012;-5.2517;
-196.2000;1.0069;-5.2257;
-195.9000;0.9996;-5.2439;
-195.6000;0.9996;-5.2439;
-195.3000;1.0004;-5.2413;
-195.0000;0.9988;-5.2491;
-194.7000;0.9988;-5.2465;
-194.4000;0.9988;-5.2413;
-194.1000;1.0012;-5.2335;
-193.8000;0.9996;-5.2439;
-193.5000;1.0012;-5.2361;
-193.2000;0.9996;-5.2465;
-192.9000;0.9955;-5.2517;
-192.6000;0.9988;-5.2439;
-192.3000;1.0037;-5.2361;
-192.0000;0.9996;-5.2465;
-191.7000;0.9980;-5.2439;
-191.4000;0.9996;-5.2439;
-191.1000;0.9963;-5.2517;
-190.8000;0.9988;-5.2439;
-190.5000;0.9988;-5.2543;
-190.2000;0.9996;-5.2465;
-189.9000;0.9996;-5.2569;
-189.6000;0.9988;-5.2569;
-189.3000;0.9988;-5.2543;
-189.0000;0.9988;-5.2569;
-188.7000;0.9988;-5.2647;
-188.4000;1.0004;-5.2491;
-188.1000;0.9988;-5.2439;
-187.8000;0.9980;-5.2413;
-187.5000;0.9996;-5.2387;
-187.2000;1.0028;-5.2335;
-186.9000;1.0004;-5.2491;
-186.6000;1.0077;-5.2413;
-186.3000;0.9988;-5.2698;
-186.0000;1.0020;-5.2672;
-185.7000;1.0020;-5.2647;
-185.4000;0.9996;-5.2595;
-185.1000;1.0004;-5.2569;
-184.8000;1.0012;-5.2439;
-184.5000;1.0028;-5.2257;
-184.2000;1.0012;-5.2361;
-183.9000;0.9996;-5.2387;
-183.6000;1.0020;-5.2335;
-183.3000;1.0004;-5.2361;
-183.0000;1.0012;-5.2413;
-182.7000;1.0012;-5.2465;
-182.4000;0.9988;-5.2569;
-182.1000;0.9996;-5.2621;
-181.8000;1.0004;-5.2595;
-181.5000;0.9988;-5.2569;
-181.2000;0.9980;-5.2595;
-180.9000;1.0004;-5.2621;
-180.6000;1.0004;-5.2595;
-180.3000;0.9996;-5.2595;
-180.0000;1.0012;-5.2621;
-179.7000;1.0004;-5.2672;
-179.4000;1.0012;-5.2621;
-179.1000;0.9996;-5.2672;
-178.8000;1.0004;-5.2595;
-178.5000;0.9996;-5.2621;
-178.2000;0.9988;-5.2621;
-177.9000;0.9988;-5.2621;
-177.6000;1.0004;-5.2569;
-177.3000;0.9996;-5.2595;
-177.0000;0.9996;-5.2621;
-176.7000;0.9996;-5.2698;
-176.4000;1.0061;-5.2491;
-176.1000;0.9996;-5.2569;
-175.8000;1.0004;-5.2595;
-175.5000;0.9996;-5.2621;
-175.2000;0.9988;-5.2698;
-174.9000;0.9988;-5.2724;
-174.6000;0.9980;-5.2724;
-174.3000;1.0020;-5.2672;
-174.0000;0.9988;-5.2828;
-173.7000;0.9996;-5.2724;
-173.4000;1.0012;-5.2724;
-173.1000;1.0004;-5.2802;
-172.8000;1.0004;-5.2724;
-172.5000;0.9988;-5.2621;
-172.2000;1.0012;-5.2595;
-171.9000;1.0037;-5.2672;
-171.6000;1.0020;-5.2724;
-171.3000;0.9996;-5.2672;
-171.0000;0.9996;-5.2672;
-170.7000;1.0004;-5.2698;
-170.4000;0.9996;-5.2750;
-170.1000;0.9980;-5.2802;
-169.8000;1.0020;-5.2621;
-169.5000;1.0012;-5.2517;
-169.2000;1.0012;-5.2595;
-168.9000;0.9996;-5.2569;
-168.6000;0.9988;-5.2595;
-168.3000;0.9980;-5.2698;
-168.0000;1.0012;-5.2647;
-167.7000;1.0004;-5.2595;
-167.4000;0.9996;-5.2647;
-167.1000;0.9996;-5.2698;
-166.8000;0.9996;-5.2776;
-166.5000;0.9988;-5.2672;
-166.2000;0.9972;-5.2724;
-165.9000;0.9980;-5.2776;
-165.6000;1.0037;-5.2621;
-165.3000;0.9996;-5.2802;
-165.0000;0.9988;-5.2828;
-164.7000;0.9996;-5.2828;
-164.4000;1.0028;-5.2750;
-164.1000;1.0004;-5.2802;
-163.8000;0.9996;-5.2776;
-163.5000;0.9980;-5.2880;
-163.2000;1.0004;-5.2854;
-162.9000;1.0004;-5.2828;
-162.6000;1.0012;-5.2802;
-162.3000;0.9988;-5.2828;
-162.0000;1.0053;-5.2698;
-161.7000;1.0004;-5.2828;
-161.4000;0.9980;-5.2880;
-161.1000;0.9996;-5.2854;
-160.8000;0.9996;-5.2854;
-160.5000;1.0020;-5.2776;
-160.2000;1.0012;-5.2828;
-159.9000;1.0012;-5.2776;
-159.6000;1.0004;-5.2854;
-159.3000;0.9972;-5.2854;
-159.0000;1.0012;-5.2698;
-158.7000;1.0012;-5.2647;
-158.4000;1.0004;-5.2776;
-158.1000;1.0012;-5.2724;
-157.8000;0.9988;-5.2750;
-157.5000;0.9980;-5.2776;
-157.2000;0.9963;-5.2802;
-156.9000;1.0004;-5.2698;
-156.6000;0.9963;-5.2776;
-156.3000;0.9980;-5.2724;
-156.0000;0.9980;-5.2802;
-155.7000;0.9972;-5.2906;
-155.4000;1.0028;-5.2698;
-155.1000;0.9996;-5.2776;
-154.8000;0.9980;-5.2776;
-154.5000;0.9988;-5.2828;
-154.2000;0.9980;-5.2854;
-153.9000;0.9963;-5.2906;
-153.6000;1.0004;-5.2828;
-153.3000;1.0004;-5.2776;
-153.0000;0.9988;-5.2828;
-152.7000;0.9996;-5.2802;
-152.4000;0.9996;-5.2828;
-152.1000;0.9988;-5.2828;
-151.8000;1.0012;-5.2932;
-151.5000;0.9988;-5.2958;
-151.2000;1.0020;-5.2854;
-150.9000;1.0004;-5.2854;
-150.6000;1.0012;-5.2880;
-150.3000;1.0004;-5.2880;
-150.0000;1.0020;-5.2880;
-149.7000;0.9996;-5.2828;
-149.4000;0.9996;-5.2776;
-149.1000;0.9996;-5.2828;
-148.8000;1.0004;-5.2776;
-148.5000;1.0004;-5.2828;
-148.2000;0.9988;-5.2906;
-147.9000;1.0020;-5.2802;
-147.6000;1.0012;-5.2802;
-147.3000;1.0012;-5.2906;
-147.0000;1.0012;-5.2984;
-146.7000;1.0012;-5.2984;
-146.4000;0.9939;-5.3061;
-146.1000;1.0004;-5.2880;
-145.8000;1.0004;-5.2906;
-145.5000;0.9980;-5.2880;
-145.2000;1.0004;-5.2828;
-144.9000;1.0004;-5.2828;
-144.6000;0.9931;-5.3036;
-144.3000;0.9980;-5.2932;
-144.0000;0.9972;-5.2854;
-143.7000;0.9996;-5.2776;
-143.4000;1.0028;-5.2724;
-143.1000;1.0020;-5.2672;
-142.8000;0.9996;-5.2776;
-142.5000;0.9996;-5.2750;
-142.2000;0.9996;-5.2698;
-141.9000;0.9988;-5.2698;
-141.6000;0.9996;-5.2647;
-141.3000;0.9996;-5.2647;
-141.0000;1.0004;-5.2569;
-140.7000;0.9988;-5.2621;
-140.4000;0.9980;-5.2595;
-140.1000;1.0020;-5.2465;
-139.8000;1.0004;-5.2491;
-139.5000;1.0020;-5.2517;
-139.2000;1.0012;-5.2543;
-138.9000;1.0069;-5.2465;
-138.6000;1.0020;-5.2647;
-138.3000;0.9972;-5.2776;
-138.0000;0.9980;-5.2880;
-137.7000;1.0004;-5.2906;
-137.4000;1.0012;-5.2854;
-137.1000;1.0004;-5.2906;
-136.8000;1.0004;-5.2906;
-136.5000;0.9996;-5.2932;
-136.2000;0.9988;-5.2984;
-135.9000;1.0004;-5.2906;
-135.6000;0.9988;-5.2932;
-135.3000;0.9988;-5.2984;
-135.0000;1.0004;-5.2932;
-134.7000;0.9996;-5.2906;
-134.4000;1.0037;-5.2906;
-134.1000;0.9980;-5.3113;
-133.8000;1.0020;-5.3036;
-133.5000;0.9980;-5.3165;
-133.2000;0.9988;-5.3036;
-132.9000;0.9988;-5.3139;
-132.6000;0.9996;-5.3087;
-132.3000;0.9988;-5.3036;
-132.0000;1.0012;-5.3010;
-131.7000;0.9988;-5.3010;
-131.4000;1.0004;-5.2880;
-131.1000;0.9972;-5.2880;
-130.8000;1.0004;-5.2750;
-130.5000;0.9988;-5.2750;
-130.2000;0.9980;-5.2802;
-129.9000;0.9980;-5.2698;
-129.6000;0.9988;-5.2595;
-129.3000;1.0004;-5.2595;
-129.0000;0.9988;-5.2698;
-128.7000;0.9988;-5.2802;
-128.4000;0.9996;-5.2776;
-128.1000;1.0012;-5.2776;
-127.8000;1.0020;-5.2854;
-127.5000;0.9996;-5.2906;
-127.2000;1.0012;-5.2802;
-126.9000;0.9988;-5.2776;
-126.6000;0.9996;-5.2776;
-126.3000;1.0004;-5.2698;
-126.0000;1.0004;-5.2750;
-125.7000;1.0004;-5.2880;
-125.4000;1.0012;-5.2906;
-125.1000;0.9988;-5.2880;
-124.8000;1.0004;-5.2932;
-124.5000;1.0004;-5.2932;
-124.2000;0.9996;-5.2984;
-123.9000;0.9988;-5.2984;
-123.6000;0.9996;-5.3010;
-123.3000;1.0020;-5.2958;
-123.0000;1.0012;-5.2932;
-122.7000;1.0012;-5.3010;
-122.4000;1.0004;-5.3087;
-122.1000;1.0028;-5.3061;
-121.8000;1.0004;-5.3113;
-121.5000;1.0012;-5.3061;
-121.2000;0.9980;-5.3113;
-120.9000;0.9996;-5.3165;
-120.6000;1.0004;-5.3191;
-120.3000;0.9988;-5.3139;
-120.0000;0.9988;-5.3139;
-119.7000;0.9972;-5.3217;
-119.4000;0.9980;-5.3061;
-119.1000;1.0004;-5.2880;
-118.8000;1.0004;-5.2906;
-118.5000;0.9996;-5.2854;
-118.2000;1.0012;-5.2854;
-117.9000;1.0020;-5.2854;
-117.6000;1.0028;-5.2854;
-117.3000;0.9963;-5.2880;
-117.0000;1.0004;-5.2880;
-116.7000;1.0012;-5.2854;
-116.4000;1.0004;-5.2854;
-116.1000;0.9996;-5.2906;
-115.8000;1.0061;-5.2724;
-115.5000;1.0020;-5.2880;
-115.2000;1.0020;-5.2880;
-114.9000;0.9988;-5.3010;
-114.6000;1.0004;-5.2932;
-114.3000;1.0004;-5.2984;
-114.0000;1.0045;-5.2802;
-113.7000;1.0037;-5.2672;
-113.4000;1.0012;-5.2698;
-113.1000;1.0004;-5.2595;
-112.8000;1.0028;-5.2517;
-112.5000;0.9996;-5.2569;
-112.2000;1.0020;-5.2543;
-111.9000;1.0004;-5.2569;
-111.6000;1.0012;-5.2595;
-111.3000;1.0004;-5.2569;
-111.0000;1.0028;-5.2543;
-110.7000;0.9996;-5.2647;
-110.4000;0.9996;-5.2621;
-110.1000;0.9988;-5.2621;
-109.8000;0.9988;-5.2698;
-109.5000;0.9963;-5.2776;
-109.2000;0.9996;-5.2647;
-108.9000;1.0012;-5.2647;
-108.6000;0.9988;-5.2698;
-108.3000;1.0004;-5.2672;
-108.0000;0.9980;-5.2672;
-107.7000;1.0020;-5.2672;
-107.4000;1.0061;-5.2543;
-107.1000;0.9996;-5.2776;
-106.8000;1.0004;-5.2828;
-106.5000;0.9996;-5.2828;
-106.2000;0.9996;-5.2802;
-105.9000;0.9988;-5.2750;
-105.6000;1.0004;-5.2750;
-105.3000;1.0004;-5.2647;
-105.0000;0.9988;-5.2672;
-104.7000;0.9988;-5.2647;
-104.4000;0.9996;-5.2595;
-104.1000;0.9988;-5.2621;
-103.8000;1.0045;-5.2517;
-103.5000;0.9996;-5.2517;
-103.2000;0.9996;-5.2517;
-102.9000;0.9996;-5.2491;
-102.6000;1.0004;-5.2517;
-102.3000;1.0004;-5.2491;
-102.0000;0.9988;-5.2465;
-101.7000;0.9988;-5.2465;
-101.4000;0.9996;-5.2491;
-101.1000;0.9988;-5.2543;
-100.8000;1.0028;-5.2465;
-100.5000;0.9996;-5.2595;
-100.2000;0.9996;-5.2543;
-99.9000;0.9972;-5.2672;
-99.6000;0.9923;-5.2828;
-99.3000;0.9980;-5.2647;
-99.0000;0.9955;-5.2724;
-98.7000;0.9988;-5.2698;
-98.4000;0.9947;-5.2750;
-98.1000;1.0004;-5.2517;
-97.8000;0.9996;-5.2491;
-97.5000;0.9972;-5.2543;
-97.2000;1.0020;-5.2387;
-96.9000;0.9988;-5.2439;
-96.6000;0.9996;-5.2413;
-96.3000;1.0028;-5.2387;
-96.0000;0.9980;-5.2517;
-95.7000;1.0004;-5.2595;
-95.4000;1.0012;-5.2543;
-95.1000;0.9980;-5.2621;
-94.8000;0.9988;-5.2621;
-94.5000;0.9996;-5.2595;
-94.2000;0.9996;-5.2621;
-93.9000;0.9939;-5.2698;
-93.6000;1.0012;-5.2491;
-93.3000;1.0004;-5.2595;
-93.0000;0.9988;-5.2569;
-92.7000;0.9996;-5.2543;
-92.4000;1.0004;-5.2517;
-92.1000;1.0004;-5.2543;
-91.8000;0.9988;-5.2647;
-91.5000;0.9988;-5.2647;
-91.2000;0.9996;-5.2647;
-90.9000;0.9963;-5.2750;
-90.6000;0.9988;-5.2672;
-90.3000;0.9996;-5.2647;
-90.0000;0.9988;-5.2647;
-89.7000;0.9963;-5.2698;
-89.4000;1.0004;-5.2621;
-89.1000;0.9980;-5.2672;
-88.8000;1.0012;-5.2569;
-88.5000;0.9996;-5.2621;
-88.2000;0.9996;-5.2698;
-87.9000;1.0004;-5.2750;
-87.6000;1.0004;-5.2802;
-87.3000;1.0012;-5.2672;
-87.0000;0.9996;-5.2776;
-86.7000;1.0004;-5.2828;
-86.4000;0.9996;-5.2776;
-86.1000;1.0012;-5.2698;
-85.8000;0.9996;-5.2672;
-85.5000;0.9963;-5.2621;
-85.2000;0.9939;-5.2750;
-84.9000;0.9996;-5.2621;
-84.6000;0.9988;-5.2595;
-84.3000;1.0061;-5.2491;
-84.0000;0.9988;-5.2595;
-83.7000;0.9996;-5.2543;
-83.4000;0.9988;-5.2595;
-83.1000;0.9996;-5.2621;
-82.8000;0.9996;-5.2569;
-82.5000;0.9988;-5.2569;
-82.2000;0.9996;-5.2621;
-81.9000;1.0004;-5.2621;
-81.6000;0.9988;-5.2595;
-81.3000;1.0004;-5.2595;
-81.0000;1.0037;-5.2439;
-80.7000;0.9996;-5.2361;
-80.4000;0.9988;-5.2465;
-80.1000;1.0020;-5.2387;
-79.8000;1.0053;-5.2335;
-79.5000;0.9988;-5.2621;
-79.2000;0.9996;-5.2543;
-78.9000;0.9988;-5.2517;
-78.6000;0.9988;-5.2517;
-78.3000;1.0004;-5.2491;
-78.0000;1.0004;-5.2413;
-77.7000;1.0004;-5.2387;
-77.4000;0.9980;-5.2413;
-77.1000;1.0012;-5.2387;
-76.8000;1.0012;-5.2413;
-76.5000;1.0012;-5.2361;
-76.2000;1.0012;-5.2439;
-75.9000;1.0004;-5.2465;
-75.6000;1.0028;-5.2439;
-75.3000;1.0020;-5.2491;
-75.0000;1.0020;-5.2517;
-74.7000;1.0045;-5.2517;
-74.4000;0.9939;-5.2802;
-74.1000;0.9988;-5.2698;
-73.8000;0.9963;-5.2750;
-73.5000;0.9955;-5.2776;
-73.2000;0.9996;-5.2750;
-72.9000;0.9988;-5.2724;
-72.6000;0.9972;-5.2776;
-72.3000;0.9988;-5.2621;
-72.0000;0.9988;-5.2621;
-71.7000;0.9996;-5.2647;
-71.4000;0.9996;-5.2569;
-71.1000;0.9996;-5.2543;
-70.8000;0.9988;-5.2491;
-70.5000;0.9996;-5.2543;
-70.2000;0.9996;-5.2491;
-69.9000;0.9988;-5.2491;
-69.6000;1.0004;-5.2491;
-69.3000;1.0020;-5.2543;
-69.0000;1.0004;-5.2517;
-68.7000;0.9996;-5.2413;
-68.4000;1.0012;-5.2439;
-68.1000;0.9988;-5.2569;
-67.8000;0.9996;-5.2517;
-67.5000;1.0004;-5.2439;
-67.2000;1.0012;-5.2361;
-66.9000;1.0012;-5.2361;
-66.6000;1.0028;-5.2361;
-66.3000;1.0004;-5.2361;
-66.0000;1.0012;-5.2335;
-65.7000;1.0004;-5.2387;
-65.4000;1.0020;-5.2465;
-65.1000;1.0020;-5.2491;
-64.8000;0.9996;-5.2595;
-64.5000;0.9996;-5.2595;
-64.2000;0.9947;-5.2750;
-63.9000;0.9988;-5.2569;
-63.6000;1.0020;-5.2491;
-63.3000;0.9996;-5.2517;
-63.0000;0.9988;-5.2439;
-62.7000;0.9988;-5.2439;
-62.4000;0.9980;-5.2439;
-62.1000;0.9947;-5.2543;
-61.8000;1.0004;-5.2465;
-61.5000;1.0012;-5.2465;
-61.2000;0.9988;-5.2491;
-60.9000;0.9980;-5.2491;
-60.6000;0.9988;-5.2439;
-60.3000;1.0004;-5.2361;
-60.0000;0.9996;-5.2413;
-59.7000;0.9996;-5.2465;
-59.4000;1.0004;-5.2439;
-59.1000;0.9988;-5.2439;
-58.8000;0.9980;-5.2517;
-58.5000;0.9980;-5.2517;
-58.2000;0.9988;-5.2465;
-57.9000;1.0004;-5.2439;
-57.6000;0.9996;-5.2413;
-57.3000;0.9988;-5.2309;
-57.0000;0.9955;-5.2387;
-56.7000;1.0004;-5.2257;
-56.4000;1.0053;-5.2180;
-56.1000;1.0004;-5.2335;
-55.8000;1.0004;-5.2361;
-55.5000;1.0012;-5.2387;
-55.2000;1.0012;-5.2361;
-54.9000;1.0004;-5.2465;
-54.6000;1.0028;-5.2413;
-54.3000;1.0004;-5.2517;
-54.0000;1.0069;-5.2387;
-53.7000;1.0037;-5.2491;
-53.4000;0.9988;-5.2621;
-53.1000;0.9988;-5.2672;
-52.8000;1.0012;-5.2672;
-52.5000;0.9988;-5.2672;
-52.2000;1.0012;-5.2543;
-51.9000;0.9980;-5.2621;
-51.6000;0.9996;-5.2491;
-51.3000;1.0004;-5.2413;
-51.0000;0.9980;-5.2491;
-50.7000;0.9947;-5.2595;
-50.4000;0.9980;-5.2569;
-50.1000;1.0004;-5.2517;
-49.8000;1.0028;-5.2491;
-49.5000;0.9988;-5.2543;
-49.2000;1.0004;-5.2647;
-48.9000;0.9972;-5.2698;
-48.6000;1.0004;-5.2724;
-48.3000;0.9980;-5.2776;
-48.0000;0.9980;-5.2647;
-47.7000;0.9963;-5.2750;
-47.4000;1.0020;-5.2595;
-47.1000;0.9988;-5.2621;
-46.8000;0.9988;-5.2543;
-46.5000;1.0012;-5.2569;
-46.2000;1.0012;-5.2491;
-45.9000;0.9972;-5.2569;
-45.6000;1.0004;-5.2517;
-45.3000;1.0020;-5.2595;
-45.0000;1.0004;-5.2672;
-44.7000;1.0004;-5.2595;
-44.4000;1.0012;-5.2543;
-44.1000;1.0020;-5.2595;
-43.8000;1.0037;-5.2672;
-43.5000;1.0028;-5.2672;
-43.2000;1.0037;-5.2647;
-42.9000;1.0012;-5.2750;
-42.6000;1.0020;-5.2750;
-42.3000;1.0004;-5.2828;
-42.0000;1.0004;-5.2802;
-41.7000;0.9988;-5.2906;
-41.4000;1.0004;-5.2802;
-41.1000;1.0004;-5.2750;
-40.8000;0.9988;-5.2776;
-40.5000;0.9996;-5.2698;
-40.2000;0.9947;-5.2828;
-39.9000;0.9955;-5.2724;
-39.6000;1.0053;-5.2569;
-39.3000;0.9988;-5.2828;
-39.0000;0.9923;-5.2958;
-38.7000;0.9996;-5.2698;
-38.4000;0.9996;-5.2724;
-38.1000;0.9980;-5.2750;
-37.8000;0.9996;-5.2647;
-37.5000;0.9988;-5.2595;
-37.2000;0.9988;-5.2621;
-36.9000;0.9996;-5.2569;
-36.6000;0.9980;-5.2569;
-36.3000;1.0012;-5.2595;
-36.0000;1.0020;-5.2595;
-35.7000;0.9996;-5.2595;
-35.4000;1.0004;-5.2621;
-35.1000;0.9988;-5.2621;
-34.8000;0.9980;-5.2595;
-34.5000;0.9996;-5.2569;
-34.2000;1.0012;-5.2543;
-33.9000;0.9988;-5.2569;
-33.6000;1.0012;-5.2647;
-33.3000;0.9980;-5.2724;
-33.0000;0.9988;-5.2698;
-32.7000;0.9988;-5.2776;
-32.4000;0.9988;-5.2750;
-32.1000;1.0020;-5.2750;
-31.8000;0.9996;-5.2750;
-31.5000;0.9988;-5.2802;
-31.2000;1.0012;-5.2776;
-30.9000;1.0004;-5.2880;
-30.6000;0.9996;-5.2906;
-30.3000;0.9955;-5.2958;
-30.0000;1.0004;-5.2854;
-29.7000;1.0012;-5.2906;
-29.4000;1.0037;-5.2854;
-29.1000;0.9996;-5.2906;
-28.8000;1.0012;-5.2672;
-28.5000;1.0012;-5.2698;
-28.2000;1.0004;-5.2698;
-27.9000;0.9996;-5.2724;
-27.6000;0.9996;-5.2828;
-27.3000;0.9996;-5.2828;
-27.0000;0.9980;-5.2724;
-26.7000;1.0004;-5.2724;
-26.4000;0.9988;-5.2750;
-26.1000;0.9939;-5.2932;
-25.8000;0.9988;-5.2828;
-25.5000;0.9972;-5.2828;
-25.2000;0.9988;-5.2776;
-24.9000;0.9988;-5.2750;
-24.6000;1.0004;-5.2672;
-24.3000;0.9955;-5.2776;
-24.0000;0.9988;-5.2672;
-23.7000;1.0020;-5.2491;
-23.4000;0.9996;-5.2595;
-23.1000;0.9996;-5.2672;
-22.8000;1.0037;-5.2698;
-22.5000;1.0004;-5.2776;
-22.2000;1.0012;-5.2776;
-21.9000;0.9939;-5.2932;
-21.6000;0.9996;-5.2828;
-21.3000;0.9988;-5.2750;
-21.0000;0.9972;-5.2647;
-20.7000;0.9980;-5.2647;
-20.4000;0.9980;-5.2621;
-20.1000;0.9988;-5.2672;
-19.8000;0.9996;-5.2724;
-19.5000;1.0004;-5.2698;
-19.2000;0.9996;-5.2750;
-18.9000;1.0037;-5.2569;
-18.6000;1.0004;-5.2569;
-18.3000;1.0020;-5.2595;
-18.0000;1.0004;-5.2621;
-17.7000;1.0012;-5.2595;
-17.4000;1.0004;-5.2517;
-17.1000;1.0012;-5.2465;
-16.8000;0.9988;-5.2569;
-16.5000;0.9996;-5.2672;
-16.2000;1.0004;-5.2621;
-15.9000;0.9980;-5.2698;
-15.6000;1.0045;-5.2543;
-15.3000;0.9996;-5.2776;
-15.0000;0.9988;-5.2750;
-14.7000;0.9996;-5.2647;
-14.4000;0.9996;-5.2698;
-14.1000;0.9980;-5.2854;
-13.8000;0.9996;-5.2698;
-13.5000;0.9963;-5.2672;
-13.2000;0.9988;-5.2672;
-12.9000;0.9980;-5.2647;
-12.6000;0.9988;-5.2621;
-12.3000;0.9972;-5.2569;
-12.0000;0.9980;-5.2517;
-11.7000;0.9996;-5.2517;
-11.4000;0.9980;-5.2465;
-11.1000;1.0004;-5.2439;
-10.8000;0.9988;-5.2491;
-10.5000;1.0012;-5.2491;
-10.2000;0.9996;-5.2439;
-9.9000;0.9988;-5.2543;
-9.6000;1.0012;-5.2491;
-9.3000;1.0037;-5.2465;
-9.0000;0.9955;-5.2621;
-8.7000;0.9996;-5.2543;
-8.4000;1.0012;-5.2517;
-8.1000;1.0012;-5.2621;
-7.8000;0.9980;-5.2698;
-7.5000;1.0004;-5.2621;
-7.2000;0.9996;-5.2569;
-6.9000;1.0012;-5.2569;
-6.6000;1.0004;-5.2595;
-6.3000;0.9972;-5.2724;
-6.0000;0.9996;-5.2698;
-5.7000;0.9996;-5.2595;
-5.4000;1.0004;-5.2595;
-5.1000;0.9980;-5.2569;
-4.8000;0.9988;-5.2569;
-4.5000;0.9996;-5.2569;
-4.2000;0.9996;-5.2569;
-3.9000;1.0045;-5.2517;
-3.6000;1.0012;-5.2595;
-3.3000;0.9972;-5.2724;
-3.0000;0.9996;-5.2698;
-2.7000;0.9972;-5.2724;
-2.4000;0.9988;-5.2621;
-2.1000;0.9988;-5.2672;
-1.8000;0.9947;-5.2698;
-1.5000;1.0037;-5.2517;
-1.2000;0.9972;-5.2647;
-0.9000;0.9980;-5.2672;
-0.6000;0.9980;-5.2672;
-0.3000;0.9963;-5.2750;
0.0000;0.9963;-5.2750;
0.3000;1.0045;-5.2517;
0.6000;1.0273;-5.1868;
0.9000;1.0435;-5.1428;
1.2000;1.0517;-5.0987;
1.5000;1.0623;-5.0650;
1.8000;1.0688;-5.0442;
2.1000;1.0753;-5.0131;
2.4000;1.0794;-5.0001;
2.7000;1.0842;-4.9872;
3.0000;1.0867;-4.9716;
3.3000;1.0899;-4.9534;
3.6000;1.0932;-4.9457;
3.9000;1.0940;-4.9457;
4.2000;1.0965;-4.9379;
4.5000;1.1005;-4.9275;
4.8000;1.1013;-4.9249;
5.1000;1.1030;-4.9223;
5.4000;1.1038;-4.9197;
5.7000;1.1062;-4.9145;
6.0000;1.1087;-4.9119;
6.3000;1.1079;-4.9094;
6.6000;1.1062;-4.9119;
6.9000;1.1111;-4.8990;
7.2000;1.1119;-4.8964;
7.5000;1.1136;-4.8938;
7.8000;1.1136;-4.9068;
8.1000;1.1111;-4.9223;
8.4000;1.1168;-4.9197;
8.7000;1.1160;-4.9145;
9.0000;1.1184;-4.9145;
9.3000;1.1176;-4.9197;
9.6000;1.1193;-4.9249;
9.9000;1.1233;-4.9223;
10.2000;1.1217;-4.9301;
10.5000;1.1233;-4.9275;
10.8000;1.1233;-4.9197;
11.1000;1.1241;-4.9171;
11.4000;1.1241;-4.9145;
11.7000;1.1266;-4.9119;
12.0000;1.1266;-4.9094;
12.3000;1.1290;-4.9145;
12.6000;1.1282;-4.9171;
12.9000;1.1298;-4.9223;
13.2000;1.1315;-4.9223;
13.5000;1.1282;-4.9119;
13.8000;1.1290;-4.9171;
14.1000;1.1315;-4.9119;
14.4000;1.1315;-4.9119;
14.7000;1.1306;-4.9145;
15.0000;1.1331;-4.9145;
15.3000;1.1347;-4.9094;
15.6000;1.1331;-4.9171;
15.9000;1.1339;-4.9145;
16.2000;1.1420;-4.8886;
16.5000;1.1339;-4.9068;
16.8000;1.1355;-4.9094;
17.1000;1.1347;-4.9042;
17.4000;1.1347;-4.9068;
17.7000;1.1355;-4.9042;
18.0000;1.1306;-4.9197;
18.3000;1.1420;-4.8834;
18.6000;1.1372;-4.8964;
18.9000;1.1380;-4.8964;
19.2000;1.1469;-4.8782;
19.5000;1.1355;-4.9042;
19.8000;1.1347;-4.9042;
20.1000;1.1404;-4.8938;
20.4000;1.1396;-4.9042;
20.7000;1.1404;-4.8964;
21.0000;1.1388;-4.8964;
21.3000;1.1429;-4.8912;
21.6000;1.1396;-4.8990;
21.9000;1.1404;-4.9016;
22.2000;1.1404;-4.8990;
22.5000;1.1404;-4.8860;
22.8000;1.1429;-4.8834;
23.1000;1.1420;-4.8834;
23.4000;1.1412;-4.8860;
23.7000;1.1388;-4.9042;
24.0000;1.1420;-4.8938;
24.3000;1.1420;-4.8990;
24.6000;1.1412;-4.9016;
24.9000;1.1420;-4.8964;
25.2000;1.1453;-4.8938;
25.5000;1.1429;-4.9068;
25.8000;1.1429;-4.9094;
26.1000;1.1461;-4.9016;
26.4000;1.1453;-4.8964;
26.7000;1.1437;-4.9068;
27.0000;1.1437;-4.8964;
27.3000;1.1420;-4.8990;
27.6000;1.1445;-4.8964;
27.9000;1.1420;-4.8938;
28.2000;1.1445;-4.8938;
28.5000;1.1461;-4.8886;
28.8000;1.1477;-4.8964;
29.1000;1.1437;-4.9094;
29.4000;1.1445;-4.9119;
29.7000;1.1477;-4.8990;
30.0000;1.1429;-4.9016;
30.3000;1.1453;-4.9068;
30.6000;1.1445;-4.9094;
30.9000;1.1380;-4.9223;
31.2000;1.1437;-4.9094;
31.5000;1.1461;-4.9068;
31.8000;1.1380;-4.9249;
32.1000;1.1453;-4.9094;
32.4000;1.1429;-4.9094;
32.7000;1.1461;-4.9094;
33.0000;1.1453;-4.9119;
33.3000;1.1461;-4.9171;
33.6000;1.1453;-4.9145;
33.9000;1.1445;-4.9275;
34.2000;1.1453;-4.9223;
34.5000;1.1445;-4.9275;
34.8000;1.1469;-4.9249;
35.1000;1.1453;-4.9327;
35.4000;1.1453;-4.9327;
35.7000;1.1453;-4.9405;
36.0000;1.1404;-4.9431;
36.3000;1.1453;-4.9171;
36.6000;1.1461;-4.9171;
36.9000;1.1486;-4.9145;
37.2000;1.1477;-4.9197;
37.5000;1.1469;-4.9249;
37.8000;1.1461;-4.9275;
38.1000;1.1469;-4.9275;
38.4000;1.1445;-4.9275;
38.7000;1.1469;-4.9275;
39.0000;1.1486;-4.9249;
39.3000;1.1494;-4.9275;
39.6000;1.1469;-4.9379;
39.9000;1.1453;-4.9431;
40.2000;1.1469;-4.9379;
40.5000;1.1453;-4.9353;
40.8000;1.1453;-4.9405;
41.1000;1.1453;-4.9223;
41.4000;1.1469;-4.9171;
41.7000;1.1453;-4.9327;
42.0000;1.1486;-4.9275;
42.3000;1.1445;-4.9379;
42.6000;1.1469;-4.9301;
42.9000;1.1461;-4.9275;
43.2000;1.1510;-4.9119;
43.5000;1.1453;-4.9275;
43.8000;1.1469;-4.9249;
44.1000;1.1453;-4.9223;
44.4000;1.1477;-4.9223;
44.7000;1.1486;-4.9171;
45.0000;1.1477;-4.9171;
45.3000;1.1469;-4.9145;
45.6000;1.1477;-4.9197;
45.9000;1.1486;-4.9145;
46.2000;1.1486;-4.9197;
46.5000;1.1469;-4.9249;
46.8000;1.1486;-4.9327;
47.1000;1.1486;-4.9431;
47.4000;1.1477;-4.9431;
47.7000;1.1477;-4.9405;
48.0000;1.1486;-4.9431;
48.3000;1.1486;-4.9405;
48.6000;1.1486;-4.9483;
48.9000;1.1486;-4.9457;
49.2000;1.1543;-4.9301;
49.5000;1.1477;-4.9431;
49.8000;1.1494;-4.9379;
50.1000;1.1486;-4.9353;
50.4000;1.1510;-4.9249;
50.7000;1.1461;-4.9353;
51.0000;1.1477;-4.9327;
51.3000;1.1477;-4.9249;
51.6000;1.1453;-4.9197;
51.9000;1.1469;-4.9068;
52.2000;1.1469;-4.9171;
52.5000;1.1518;-4.9068;
52.8000;1.1494;-4.9094;
53.1000;1.1461;-4.9094;
53.4000;1.1469;-4.9042;
53.7000;1.1469;-4.9094;
54.0000;1.1477;-4.9016;
54.3000;1.1461;-4.9016;
54.6000;1.1486;-4.9016;
54.9000;1.1420;-4.9119;
55.2000;1.1477;-4.9171;
55.5000;1.1486;-4.9197;
55.8000;1.1518;-4.9016;
56.1000;1.1477;-4.9094;
56.4000;1.1469;-4.9197;
56.7000;1.1477;-4.9171;
57.0000;1.1477;-4.9119;
57.3000;1.1486;-4.9094;
57.6000;1.1486;-4.9094;
57.9000;1.1469;-4.9223;
58.2000;1.1486;-4.9171;
58.5000;1.1486;-4.9171;
58.8000;1.1494;-4.9145;
59.1000;1.1510;-4.9197;
59.4000;1.1477;-4.9353;
59.7000;1.1486;-4.9379;
60.0000;1.1486;-4.9379;
60.3000;1.1494;-4.9457;
60.6000;1.1486;-4.9483;
60.9000;1.1486;-4.9353;
61.2000;1.1494;-4.9223;
61.5000;1.1437;-4.9301;
61.8000;1.1461;-4.9275;
62.1000;1.1510;-4.9171;
62.4000;1.1486;-4.9275;
62.7000;1.1494;-4.9171;
63.0000;1.1494;-4.9223;
63.3000;1.1486;-4.9223;
63.6000;1.1494;-4.9223;
63.9000;1.1518;-4.9145;
64.2000;1.1469;-4.9223;
64.5000;1.1486;-4.9223;
64.8000;1.1469;-4.9171;
65.1000;1.1486;-4.9119;
65.4000;1.1477;-4.9171;
65.7000;1.1437;-4.9275;
66.0000;1.1486;-4.9301;
66.3000;1.1486;-4.9301;
66.6000;1.1469;-4.9327;
66.9000;1.1461;-4.9353;
67.2000;1.1518;-4.9094;
67.5000;1.1404;-4.9327;
67.8000;1.1469;-4.9145;
68.1000;1.1510;-4.9042;
68.4000;1.1477;-4.9094;
68.7000;1.1437;-4.9119;
69.0000;1.1477;-4.9068;
69.3000;1.1437;-4.9249;
69.6000;1.1469;-4.9145;
69.9000;1.1469;-4.9171;
70.2000;1.1477;-4.9197;
70.5000;1.1477;-4.9119;
70.8000;1.1518;-4.8938;
71.1000;1.1486;-4.9016;
71.4000;1.1502;-4.9042;
71.7000;1.1486;-4.9094;
72.0000;1.1494;-4.9119;
72.3000;1.1477;-4.9223;
72.6000;1.1494;-4.9197;
72.9000;1.1502;-4.9223;
73.2000;1.1518;-4.9145;
73.5000;1.1477;-4.9171;
73.8000;1.1494;-4.9119;
74.1000;1.1502;-4.9094;
74.4000;1.1477;-4.9119;
74.7000;1.1494;-4.9119;
75.0000;1.1494;-4.9145;
75.3000;1.1477;-4.9094;
75.6000;1.1477;-4.9145;
75.9000;1.1461;-4.9119;
76.2000;1.1494;-4.9094;
76.5000;1.1461;-4.9197;
76.8000;1.1502;-4.9068;
77.1000;1.1453;-4.9171;
77.4000;1.1469;-4.9145;
77.7000;1.1469;-4.9145;
78.0000;1.1461;-4.9145;
78.3000;1.1477;-4.9145;
78.6000;1.1469;-4.9197;
78.9000;1.1477;-4.9275;
79.2000;1.1453;-4.9301;
79.5000;1.1469;-4.9275;
79.8000;1.1469;-4.9223;
80.1000;1.1461;-4.9145;
80.4000;1.1469;-4.9068;
80.7000;1.1469;-4.9119;
81.0000;1.1477;-4.9119;
81.3000;1.1486;-4.9094;
81.6000;1.1469;-4.9119;
81.9000;1.1477;-4.9119;
82.2000;1.1477;-4.9171;
82.5000;1.1477;-4.9171;
82.8000;1.1477;-4.9197;
83.1000;1.1477;-4.9197;
83.4000;1.1486;-4.9223;
83.7000;1.1494;-4.9223;
84.0000;1.1486;-4.9249;
84.3000;1.1486;-4.9223;
84.6000;1.1486;-4.9223;
84.9000;1.1486;-4.9145;
85.2000;1.1477;-4.9145;
85.5000;1.1510;-4.9042;
85.8000;1.1486;-4.9042;
86.1000;1.1469;-4.8990;
86.4000;1.1477;-4.8990;
86.7000;1.1477;-4.8834;
87.0000;1.1469;-4.8886;
87.3000;1.1477;-4.8912;
87.6000;1.1469;-4.9016;
87.9000;1.1469;-4.8964;
88.2000;1.1469;-4.9068;
88.5000;1.1453;-4.9068;
88.8000;1.1486;-4.8938;
89.1000;1.1469;-4.8964;
89.4000;1.1469;-4.8938;
89.7000;1.1461;-4.9016;
90.0000;1.1469;-4.9042;
90.3000;1.1477;-4.9068;
90.6000;1.1469;-4.9119;
90.9000;1.1494;-4.8990;
91.2000;1.1469;-4.9145;
91.5000;1.1486;-4.9223;
91.8000;1.1445;-4.9197;
92.1000;1.1461;-4.9119;
92.4000;1.1461;-4.9197;
92.7000;1.1461;-4.9171;
93.0000;1.1453;-4.9249;
93.3000;1.1461;-4.9197;
93.6000;1.1469;-4.9249;
93.9000;1.1486;-4.9145;
94.2000;1.1453;-4.9197;
94.5000;1.1477;-4.9171;
94.8000;1.1477;-4.9094;
95.1000;1.1477;-4.9016;
95.4000;1.1477;-4.8938;
95.7000;1.1486;-4.8938;
96.0000;1.1486;-4.9016;
96.3000;1.1477;-4.9016;
96.6000;1.1494;-4.8938;
96.9000;1.1502;-4.8860;
97.2000;1.1494;-4.8808;
97.5000;1.1486;-4.8860;
97.8000;1.1469;-4.8886;
98.1000;1.1486;-4.8964;
98.4000;1.1477;-4.8964;
98.7000;1.1486;-4.9016;
99.0000;1.1461;-4.9068;
99.3000;1.1477;-4.9016;
99.6000;1.1469;-4.8990;
99.9000;1.1486;-4.8912;
100.2000;1.1461;-4.8912;
100.5000;1.1469;-4.8938;
100.8000;1.1469;-4.8990;
101.1000;1.1469;-4.9068;
101.4000;1.1453;-4.9094;
101.7000;1.1477;-4.9068;
102.0000;1.1469;-4.9042;
102.3000;1.1469;-4.8990;
102.6000;1.1469;-4.9042;
102.9000;1.1510;-4.8938;
103.2000;1.1469;-4.9145;
103.5000;1.1469;-4.9094;
103.8000;1.1461;-4.9068;
104.1000;1.1396;-4.9249;
104.4000;1.1469;-4.9094;
104.7000;1.1486;-4.9042;
105.0000;1.1477;-4.9094;
105.3000;1.1477;-4.9171;
105.6000;1.1477;-4.9171;
105.9000;1.1469;-4.9197;
106.2000;1.1477;-4.9145;
106.5000;1.1469;-4.9171;
106.8000;1.1486;-4.9197;
107.1000;1.1461;-4.9197;
107.4000;1.1461;-4.9197;
107.7000;1.1461;-4.9171;
108.0000;1.1502;-4.9016;
108.3000;1.1469;-4.9145;
108.6000;1.1469;-4.9171;
108.9000;1.1477;-4.9223;
109.2000;1.1469;-4.9171;
109.5000;1.1469;-4.9171;
109.8000;1.1486;-4.9068;
110.1000;1.1477;-4.9119;
110.4000;1.1469;-4.9119;
110.7000;1.1477;-4.9145;
111.0000;1.1486;-4.9119;
111.3000;1.1469;-4.9094;
111.6000;1.1461;-4.9119;
111.9000;1.1486;-4.9042;
112.2000;1.1469;-4.9094;
112.5000;1.1445;-4.9223;
112.8000;1.1453;-4.9223;
113.1000;1.1461;-4.9197;
113.4000;1.1477;-4.9119;
113.7000;1.1461;-4.9068;
114.0000;1.1453;-4.9119;
114.3000;1.1461;-4.9119;
114.6000;1.1477;-4.9119;
114.9000;1.1477;-4.9197;
115.2000;1.1477;-4.9249;
115.5000;1.1486;-4.9119;
115.8000;1.1477;-4.9094;
116.1000;1.1518;-4.8938;
116.4000;1.1477;-4.9016;
116.7000;1.1469;-4.8990;
117.0000;1.1477;-4.8886;
117.3000;1.1477;-4.8938;
117.6000;1.1477;-4.8990;
117.9000;1.1461;-4.9068;
118.2000;1.1469;-4.9094;
118.5000;1.1469;-4.9094;
118.8000;1.1469;-4.9119;
119.1000;1.1469;-4.9145;
119.4000;1.1469;-4.9197;
119.7000;1.1502;-4.9223;
120.0000;1.1494;-4.9249;
120.3000;1.1477;-4.9275;
120.6000;1.1469;-4.9327;
120.9000;1.1477;-4.9197;
121.2000;1.1477;-4.9119;
121.5000;1.1469;-4.9197;
121.8000;1.1469;-4.9119;
122.1000;1.1469;-4.9223;
122.4000;1.1477;-4.9223;
122.7000;1.1469;-4.9275;
123.0000;1.1494;-4.9223;
123.3000;1.1461;-4.9197;
123.6000;1.1461;-4.9171;
123.9000;1.1461;-4.9068;
124.2000;1.1461;-4.9094;
124.5000;1.1461;-4.9094;
124.8000;1.1461;-4.9094;
125.1000;1.1453;-4.9068;
125.4000;1.1469;-4.9016;
125.7000;1.1469;-4.9119;
126.0000;1.1469;-4.9119;
126.3000;1.1477;-4.9042;
126.6000;1.1445;-4.9145;
126.9000;1.1461;-4.9119;
127.2000;1.1469;-4.9171;
127.5000;1.1461;-4.9145;
127.8000;1.1502;-4.8964;
128.1000;1.1461;-4.9094;
128.4000;1.1453;-4.9145;
128.7000;1.1453;-4.9145;
129.0000;1.1469;-4.9171;
129.3000;1.1445;-4.9197;
129.6000;1.1453;-4.9145;
129.9000;1.1469;-4.9068;
130.2000;1.1469;-4.8964;
130.5000;1.1461;-4.9042;
130.8000;1.1461;-4.9171;
131.1000;1.1461;-4.9171;
131.4000;1.1461;-4.9249;
131.7000;1.1477;-4.9275;
132.0000;1.1469;-4.9301;
132.3000;1.1461;-4.9223;
132.6000;1.1461;-4.9171;
132.9000;1.1477;-4.9094;
133.2000;1.1453;-4.9042;
133.5000;1.1469;-4.8990;
133.8000;1.1461;-4.9068;
134.1000;1.1453;-4.9119;
134.4000;1.1469;-4.9042;
134.7000;1.1494;-4.8886;
135.0000;1.1420;-4.9068;
135.3000;1.1469;-4.8912;
135.6000;1.1461;-4.8938;
135.9000;1.1461;-4.8886;
136.2000;1.1469;-4.8886;
136.5000;1.1477;-4.8860;
136.8000;1.1469;-4.8912;
137.1000;1.1445;-4.8886;
137.4000;1.1445;-4.8860;
137.7000;1.1437;-4.8938;
138.0000;1.1453;-4.8886;
138.3000;1.1445;-4.8808;
138.6000;1.1445;-4.8808;
138.9000;1.1469;-4.8782;
139.2000;1.1461;-4.8886;
139.5000;1.1453;-4.8938;
139.8000;1.1502;-4.8886;
140.1000;1.1453;-4.9042;
140.4000;1.1469;-4.8964;
140.7000;1.1486;-4.8938;
141.0000;1.1486;-4.8938;
141.3000;1.1461;-4.8860;
141.6000;1.1477;-4.8860;
141.9000;1.1469;-4.8912;
142.2000;1.1486;-4.8860;
142.5000;1.1486;-4.8886;
142.8000;1.1486;-4.8834;
143.1000;1.1469;-4.8782;
143.4000;1.1461;-4.8782;
143.7000;1.1453;-4.8782;
144.0000;1.1477;-4.8782;
144.3000;1.1477;-4.8912;
144.6000;1.1461;-4.8964;
144.9000;1.1469;-4.9068;
145.2000;1.1461;-4.9094;
145.5000;1.1469;-4.9016;
145.8000;1.1461;-4.8990;
146.1000;1.1437;-4.9016;
146.4000;1.1461;-4.8938;
146.7000;1.1461;-4.8964;
147.0000;1.1494;-4.8990;
147.3000;1.1469;-4.9094;
147.6000;1.1477;-4.9068;
147.9000;1.1477;-4.9068;
148.2000;1.1477;-4.9068;
148.5000;1.1453;-4.9068;
148.8000;1.1445;-4.9145;
149.1000;1.1453;-4.9145;
149.4000;1.1453;-4.9094;
149.7000;1.1453;-4.9094;
150.0000;1.1461;-4.9094;
150.3000;1.1453;-4.9094;
150.6000;1.1469;-4.8990;
150.9000;1.1453;-4.9094;
151.2000;1.1453;-4.9094;
151.5000;1.1477;-4.9094;
151.8000;1.1469;-4.9068;
152.1000;1.1477;-4.8964;
152.4000;1.1453;-4.9016;
152.7000;1.1461;-4.9016;
153.0000;1.1469;-4.8990;
153.3000;1.1461;-4.9016;
153.6000;1.1445;-4.9119;
153.9000;1.1453;-4.9094;
154.2000;1.1510;-4.8912;
154.5000;1.1461;-4.9042;
154.8000;1.1437;-4.9119;
155.1000;1.1453;-4.9042;
155.4000;1.1469;-4.9016;
155.7000;1.1461;-4.9042;
156.0000;1.1469;-4.9042;
156.3000;1.1469;-4.9016;
156.6000;1.1461;-4.9094;
156.9000;1.1453;-4.9094;
157.2000;1.1453;-4.9016;
157.5000;1.1453;-4.8964;
157.8000;1.1461;-4.8964;
158.1000;1.1453;-4.8964;
158.4000;1.1469;-4.8938;
158.7000;1.1494;-4.8912;
159.0000;1.1453;-4.9042;
159.3000;1.1445;-4.9119;
159.6000;1.1461;-4.8990;
159.9000;1.1429;-4.9042;
160.2000;1.1445;-4.9016;
160.5000;1.1445;-4.9042;
160.8000;1.1453;-4.9068;
161.1000;1.1461;-4.9094;
161.4000;1.1445;-4.9119;
161.7000;1.1429;-4.9145;
162.0000;1.1437;-4.9119;
162.3000;1.1469;-4.9068;
162.6000;1.1412;-4.9094;
162.9000;1.1453;-4.9016;
163.2000;1.1404;-4.9197;
163.5000;1.1477;-4.9016;
163.8000;1.1502;-4.8964;
164.1000;1.1412;-4.9068;
164.4000;1.1453;-4.8938;
164.7000;1.1518;-4.8782;
165.0000;1.1453;-4.8808;
165.3000;1.1510;-4.8756;
165.6000;1.1437;-4.8938;
165.9000;1.1429;-4.8912;
166.2000;1.1437;-4.8964;
166.5000;1.1445;-4.8990;
166.8000;1.1445;-4.8938;
167.1000;1.1445;-4.8990;
167.4000;1.1469;-4.8964;
167.7000;1.1461;-4.8912;
168.0000;1.1445;-4.8938;
168.3000;1.1445;-4.8990;
168.6000;1.1453;-4.8964;
168.9000;1.1453;-4.9042;
169.2000;1.1445;-4.9145;
169.5000;1.1453;-4.9171;
169.8000;1.1437;-4.9145;
170.1000;1.1461;-4.9119;
170.4000;1.1486;-4.9094;
170.7000;1.1445;-4.9171;
171.0000;1.1445;-4.9068;
171.3000;1.1461;-4.8990;
171.6000;1.1396;-4.9145;
171.9000;1.1445;-4.9016;
172.2000;1.1453;-4.8964;
172.5000;1.1453;-4.8886;
172.8000;1.1461;-4.8912;
173.1000;1.1502;-4.8860;
173.4000;1.1453;-4.9068;
173.7000;1.1453;-4.9094;
174.0000;1.1453;-4.9042;
174.3000;1.1429;-4.9042;
174.6000;1.1445;-4.9016;
174.9000;1.1437;-4.9068;
175.2000;1.1461;-4.8990;
175.5000;1.1469;-4.8964;
175.8000;1.1469;-4.9016;
176.1000;1.1396;-4.9171;
176.4000;1.1469;-4.8886;
176.7000;1.1461;-4.8860;
177.0000;1.1420;-4.8990;
177.3000;1.1461;-4.8912;
177.6000;1.1477;-4.8756;
177.9000;1.1453;-4.8808;
178.2000;1.1445;-4.8808;
178.5000;1.1461;-4.8782;
178.8000;1.1461;-4.8730;
179.1000;1.1453;-4.8860;
179.4000;1.1453;-4.8834;
179.7000;1.1445;-4.8886;
180.0000;1.1502;-4.8834;
180.3000;1.1453;-4.8912;
180.6000;1.1502;-4.8834;
180.9000;1.1469;-4.8860;
181.2000;1.1445;-4.8860;
181.5000;1.1477;-4.8782;
181.8000;1.1453;-4.8782;
182.1000;1.1380;-4.8990;
182.4000;1.1445;-4.8782;
182.7000;1.1420;-4.8808;
183.0000;1.1445;-4.8808;
183.3000;1.1477;-4.8705;
183.6000;1.1486;-4.8679;
183.9000;1.1469;-4.8705;
184.2000;1.1469;-4.8679;
184.5000;1.1477;-4.8653;
184.8000;1.1429;-4.8782;
185.1000;1.1486;-4.8808;
185.4000;1.1461;-4.8886;
185.7000;1.1469;-4.8886;
186.0000;1.1461;-4.8912;
186.3000;1.1469;-4.8912;
186.6000;1.1486;-4.8808;
186.9000;1.1445;-4.8834;
187.2000;1.1429;-4.8808;
187.5000;1.1445;-4.8756;
187.8000;1.1420;-4.8860;
188.1000;1.1445;-4.8886;
188.4000;1.1429;-4.8886;
188.7000;1.1445;-4.8782;
189.0000;1.1445;-4.8860;
189.3000;1.1453;-4.8782;
189.6000;1.1453;-4.8782;
189.9000;1.1461;-4.8756;
190.2000;1.1453;-4.8808;
190.5000;1.1453;-4.8912;
190.8000;1.1534;-4.8575;
191.1000;1.1429;-4.8782;
191.4000;1.1445;-4.8705;
191.7000;1.1437;-4.8627;
192.0000;1.1437;-4.8575;
192.3000;1.1429;-4.8601;
192.6000;1.1469;-4.8471;
192.9000;1.1461;-4.8549;
193.2000;1.1461;-4.8653;
193.5000;1.1477;-4.8730;
193.8000;1.1445;-4.8782;
194.1000;1.1445;-4.8886;
194.4000;1.1453;-4.8860;
194.7000;1.1453;-4.8912;
195.0000;1.1420;-4.8886;
195.3000;1.1461;-4.8782;
195.6000;1.1437;-4.8782;
195.9000;1.1437;-4.8782;
196.2000;1.1429;-4.8705;
196.5000;1.1543;-4.8549;
196.8000;1.1445;-4.8756;
197.1000;1.1445;-4.8782;
197.4000;1.1437;-4.8834;
197.7000;1.1445;-4.8886;
198.0000;1.1445;-4.8860;
198.3000;1.1420;-4.8912;
198.6000;1.1437;-4.8886;
198.9000;1.1429;-4.8860;
199.2000;1.1437;-4.8756;
199.5000;1.1445;-4.8782;
199.8000;1.1420;-4.8808;
200.1000;1.1477;-4.8730;
200.4000;1.1429;-4.8860;
200.7000;1.1429;-4.8834;
201.0000;1.1445;-4.8756;
201.3000;1.1437;-4.8782;
201.6000;1.1453;-4.8756;
201.9000;1.1453;-4.8705;
202.2000;1.1437;-4.8730;
202.5000;1.1429;-4.8730;
202.8000;1.1396;-4.8860;
203.1000;1.1469;-4.8679;
203.4000;1.1486;-4.8679;
203.7000;1.1445;-4.8782;
204.0000;1.1445;-4.8782;
204.3000;1.1461;-4.8782;
204.6000;1.1518;-4.8679;
204.9000;1.1437;-4.8860;
205.2000;1.1445;-4.8938;
205.5000;1.1461;-4.8886;
205.8000;1.1461;-4.8834;
206.1000;1.1437;-4.8912;
206.4000;1.1445;-4.8886;
206.7000;1.1429;-4.8860;
207.0000;1.1453;-4.8782;
207.3000;1.1453;-4.8860;
207.6000;1.1429;-4.8860;
207.9000;1.1437;-4.8834;
208.2000;1.1453;-4.8808;
208.5000;1.1445;-4.8808;
208.8000;1.1429;-4.8808;
209.1000;1.1445;-4.8834;
209.4000;1.1445;-4.8808;
209.7000;1.1445;-4.8860;
210.0000;1.1429;-4.8834;
210.3000;1.1453;-4.8886;
210.6000;1.1453;-4.8860;
210.9000;1.1453;-4.8834;
211.2000;1.1445;-4.8808;
211.5000;1.1437;-4.8705;
211.8000;1.1388;-4.8808;
212.1000;1.1453;-4.8730;
212.4000;1.1437;-4.8938;
212.7000;1.1445;-4.8964;
213.0000;1.1526;-4.8705;
213.3000;1.1445;-4.8912;
213.6000;1.1469;-4.8886;
213.9000;1.1461;-4.8782;
214.2000;1.1445;-4.8834;
214.5000;1.1469;-4.8834;
214.8000;1.1453;-4.8756;
215.1000;1.1445;-4.8679;
215.4000;1.1461;-4.8705;
215.7000;1.1461;-4.8730;
216.0000;1.1445;-4.8679;
216.3000;1.1445;-4.8756;
216.6000;1.1445;-4.8808;
216.9000;1.1453;-4.8756;
217.2000;1.1445;-4.8756;
217.5000;1.1437;-4.8679;
217.8000;1.1429;-4.8679;
218.1000;1.1437;-4.8653;
218.4000;1.1396;-4.8730;
218.7000;1.1445;-4.8627;
219.0000;1.1420;-4.8679;
219.3000;1.1453;-4.8705;
219.6000;1.1453;-4.8730;
219.9000;1.1412;-4.8808;
220.2000;1.1437;-4.8756;
220.5000;1.1437;-4.8756;
220.8000;1.1445;-4.8730;
221.1000;1.1429;-4.8782;
221.4000;1.1420;-4.8860;
221.7000;1.1437;-4.8834;
222.0000;1.1404;-4.9016;
222.3000;1.1445;-4.8990;
222.6000;1.1445;-4.8912;
222.9000;1.1429;-4.8912;
223.2000;1.1429;-4.8886;
223.5000;1.1437;-4.8808;
223.8000;1.1437;-4.8834;
224.1000;1.1420;-4.8834;
224.4000;1.1437;-4.8834;
224.7000;1.1429;-4.8834;
225.0000;1.1420;-4.8938;
225.3000;1.1429;-4.8886;
225.6000;1.1429;-4.8938;
225.9000;1.1437;-4.8912;
226.2000;1.1380;-4.9119;
226.5000;1.1461;-4.8912;
226.8000;1.1437;-4.8990;
227.1000;1.1469;-4.9016;
227.4000;1.1453;-4.9016;
227.7000;1.1461;-4.9016;
228.0000;1.1445;-4.9016;
228.3000;1.1445;-4.9119;
228.6000;1.1461;-4.8990;
228.9000;1.1445;-4.9145;
229.2000;1.1437;-4.9171;
229.5000;1.1429;-4.9197;
229.8000;1.1429;-4.9094;
230.1000;1.1461;-4.8912;
230.4000;1.1437;-4.8990;
230.7000;1.1437;-4.8938;
231.0000;1.1420;-4.8886;
231.3000;1.1429;-4.8834;
231.6000;1.1420;-4.8912;
231.9000;1.1445;-4.8834;
232.2000;1.1412;-4.8964;
232.5000;1.1420;-4.8938;
232.8000;1.1477;-4.8730;
233.1000;1.1420;-4.8938;
233.4000;1.1429;-4.8912;
233.7000;1.1420;-4.8860;
234.0000;1.1437;-4.8886;
234.3000;1.1380;-4.8990;
234.6000;1.1445;-4.8834;
234.9000;1.1494;-4.8730;
235.2000;1.1429;-4.8808;
235.5000;1.1437;-4.8782;
235.8000;1.1420;-4.8808;
236.1000;1.1429;-4.8912;
236.4000;1.1429;-4.8886;
236.7000;1.1437;-4.8886;
237.0000;1.1429;-4.8912;
237.3000;1.1420;-4.8938;
237.6000;1.1437;-4.8912;
237.9000;1.1445;-4.8886;
238.2000;1.1437;-4.8782;
238.5000;1.1453;-4.8730;
238.8000;1.1437;-4.8730;
239.1000;1.1445;-4.8679;
239.4000;1.1437;-4.8679;
239.7000;1.1429;-4.8679;
240.0000;1.1486;-4.8549;
240.3000;1.1445;-4.8601;
240.6000;1.1453;-4.8782;
240.9000;1.1396;-4.8886;
241.2000;1.1437;-4.8730;
241.5000;1.1445;-4.8653;
241.8000;1.1437;-4.8601;
242.1000;1.1453;-4.8549;
242.4000;1.1420;-4.8549;
242.7000;1.1437;-4.8601;
243.0000;1.1445;-4.8601;
243.3000;1.1445;-4.8679;
243.6000;1.1437;-4.8705;
243.9000;1.1461;-4.8627;
244.2000;1.1429;-4.8575;
244.5000;1.1437;-4.8653;
244.8000;1.1437;-4.8653;
245.1000;1.1437;-4.8782;
245.4000;1.1429;-4.8782;
245.7000;1.1429;-4.8782;
246.0000;1.1404;-4.8938;
246.3000;1.1420;-4.8912;
246.6000;1.1445;-4.8782;
246.9000;1.1380;-4.8990;
247.2000;1.1429;-4.8938;
247.5000;1.1429;-4.8938;
247.8000;1.1437;-4.8886;
248.1000;1.1445;-4.8912;
248.4000;1.1437;-4.8808;
248.7000;1.1429;-4.8886;
249.0000;1.1486;-4.8730;
249.3000;1.1445;-4.8808;
249.6000;1.1437;-4.8912;
249.9000;1.1453;-4.8886;
250.2000;1.1420;-4.8964;
250.5000;1.1429;-4.8860;
250.8000;1.1429;-4.8834;
251.1000;1.1437;-4.8860;
251.4000;1.1429;-4.8912;
251.7000;1.1429;-4.8912;
252.0000;1.1445;-4.8808;
252.3000;1.1429;-4.8912;
252.6000;1.1380;-4.9016;
252.9000;1.1437;-4.8808;
253.2000;1.1445;-4.8808;
253.5000;1.1420;-4.8886;
253.8000;1.1412;-4.8964;
254.1000;1.1461;-4.8808;
254.4000;1.1445;-4.8912;
254.7000;1.1437;-4.8912;
255.0000;1.1420;-4.8860;
255.3000;1.1510;-4.8601;
255.6000;1.1437;-4.8834;
255.9000;1.1429;-4.8808;
256.2000;1.1388;-4.9042;
256.5000;1.1420;-4.8964;
256.8000;1.1363;-4.9016;
257.1000;1.1437;-4.8756;
257.4000;1.1437;-4.8834;
257.7000;1.1404;-4.8860;
258.0000;1.1445;-4.8730;
258.3000;1.1502;-4.8627;
258.6000;1.1429;-4.8782;
258.9000;1.1429;-4.8808;
259.2000;1.1437;-4.8834;
259.5000;1.1437;-4.8782;
259.8000;1.1380;-4.8860;
260.1000;1.1429;-4.8808;
260.4000;1.1429;-4.8938;
260.7000;1.1380;-4.8990;
261.0000;1.1445;-4.8834;
261.3000;1.1429;-4.8912;
261.6000;1.1429;-4.8912;
261.9000;1.1486;-4.8834;
262.2000;1.1429;-4.9016;
262.5000;1.1429;-4.8990;
262.8000;1.1437;-4.8964;
263.1000;1.1429;-4.9042;
263.4000;1.1429;-4.9042;
263.7000;1.1420;-4.8990;
264.0000;1.1437;-4.8912;
264.3000;1.1437;-4.8912;
264.6000;1.1429;-4.8912;
264.9000;1.1445;-4.8808;
265.2000;1.1445;-4.8860;
265.5000;1.1445;-4.8886;
265.8000;1.1445;-4.8782;
266.1000;1.1429;-4.8756;
266.4000;1.1429;-4.8834;
266.7000;1.1437;-4.8834;
267.0000;1.1445;-4.8912;
267.3000;1.1420;-4.8964;
267.6000;1.1429;-4.8964;
267.9000;1.1429;-4.8912;
268.2000;1.1437;-4.8782;
268.5000;1.1445;-4.8938;
268.8000;1.1420;-4.9068;
269.1000;1.1445;-4.9042;
269.4000;1.1429;-4.9094;
269.7000;1.1404;-4.9171;
270.0000;1.1420;-4.9171;
270.3000;1.1412;-4.9145;
270.6000;1.1420;-4.9197;
270.9000;1.1437;-4.9223;
271.2000;1.1420;-4.9145;
271.5000;1.1420;-4.9094;
271.8000;1.1412;-4.9145;
272.1000;1.1429;-4.9171;
272.4000;1.1429;-4.9119;
272.7000;1.1429;-4.9068;
273.0000;1.1445;-4.8964;
273.3000;1.1437;-4.8860;
273.6000;1.1380;-4.8912;
273.9000;1.1347;-4.8938;
274.2000;1.1372;-4.8938;
274.5000;1.1412;-4.8834;
274.8000;1.1412;-4.8912;
275.1000;1.1404;-4.8886;
275.4000;1.1420;-4.8834;
275.7000;1.1420;-4.8808;
276.0000;1.1429;-4.8679;
276.3000;1.1412;-4.8730;
276.6000;1.1461;-4.8653;
276.9000;1.1420;-4.8730;
277.2000;1.1429;-4.8730;
277.5000;1.1412;-4.8756;
277.8000;1.1437;-4.8756;
278.1000;1.1461;-4.8756;
278.4000;1.1429;-4.8912;
278.7000;1.1420;-4.8938;
279.0000;1.1429;-4.8990;
279.3000;1.1420;-4.8990;
279.6000;1.1429;-4.8938;
279.9000;1.1477;-4.8808;
280.2000;1.1339;-4.9016;
280.5000;1.1420;-4.8834;
280.8000;1.1429;-4.8860;
281.1000;1.1469;-4.8886;
281.4000;1.1453;-4.8938;
281.7000;1.1445;-4.8912;
282.0000;1.1420;-4.8938;
282.3000;1.1420;-4.8938;
282.6000;1.1412;-4.8938;
282.9000;1.1429;-4.8938;
283.2000;1.1404;-4.8964;
283.5000;1.1420;-4.9016;
283.8000;1.1453;-4.8886;
284.1000;1.1453;-4.8964;
284.4000;1.1429;-4.9042;
284.7000;1.1445;-4.9042;
285.0000;1.1412;-4.9042;
285.3000;1.1420;-4.8990;
285.6000;1.1396;-4.9068;
285.9000;1.1404;-4.9042;
286.2000;1.1420;-4.8912;
286.5000;1.1420;-4.8808;
286.8000;1.1429;-4.8886;
287.1000;1.1445;-4.8808;
287.4000;1.1445;-4.8756;
287.7000;1.1429;-4.8730;
288.0000;1.1437;-4.8730;
288.3000;1.1429;-4.8756;
288.6000;1.1469;-4.8730;
288.9000;1.1429;-4.8756;
289.2000;1.1412;-4.8808;
289.5000;1.1412;-4.8782;
289.8000;1.1412;-4.8705;
290.1000;1.1404;-4.8679;
290.4000;1.1429;-4.8730;
290.7000;1.1429;-4.8782;
291.0000;1.1412;-4.8860;
291.3000;1.1445;-4.8808;
291.6000;1.1420;-4.8756;
291.9000;1.1420;-4.8808;
292.2000;1.1412;-4.8782;
292.5000;1.1420;-4.8756;
292.8000;1.1429;-4.8730;
293.1000;1.1404;-4.8912;
293.4000;1.1420;-4.8834;
293.7000;1.1420;-4.8808;
294.0000;1.1437;-4.8834;
294.3000;1.1437;-4.8782;
294.6000;1.1412;-4.8834;
294.9000;1.1412;-4.8756;
295.2000;1.1396;-4.8730;
295.5000;1.1429;-4.8627;
295.8000;1.1429;-4.8705;
296.1000;1.1396;-4.8886;
296.4000;1.1437;-4.8834;
296.7000;1.1380;-4.8964;
297.0000;1.1420;-4.8912;
297.3000;1.1412;-4.8912;
297.6000;1.1445;-4.8756;
297.9000;1.1461;-4.8679;
298.2000;1.1445;-4.8705;
298.5000;1.1453;-4.8705;
298.8000;1.1437;-4.8730;
299.1000;1.1429;-4.8730;
299.4000;1.1420;-4.8756;
299.7000;1.1396;-4.8860;
300.0000;1.1420;-4.8782;
300.3000;1.1412;-4.8756;
300.6000;1.1372;-4.8860;
300.9000;1.1396;-4.8756;
301.2000;1.1420;-4.8730;
301.5000;1.1453;-4.8653;
301.8000;1.1380;-4.8860;
302.1000;1.1412;-4.8782;
302.4000;1.1420;-4.8834;
302.7000;1.1429;-4.8886;
303.0000;1.1412;-4.8912;
303.3000;1.1404;-4.8938;
303.6000;1.1380;-4.8964;
303.9000;1.1429;-4.8834;
304.2000;1.1429;-4.8886;
304.5000;1.1429;-4.8964;
304.8000;1.1420;-4.9042;
305.1000;1.1429;-4.9016;
305.4000;1.1412;-4.9042;
305.7000;1.1429;-4.9042;
306.0000;1.1429;-4.9042;
306.3000;1.1412;-4.9068;
306.6000;1.1412;-4.9094;
306.9000;1.1420;-4.9145;
307.2000;1.1437;-4.9145;
307.5000;1.1412;-4.9119;
307.8000;1.1429;-4.9042;
308.1000;1.1437;-4.9016;
308.4000;1.1437;-4.9016;
308.7000;1.1437;-4.9094;
309.0000;1.1420;-4.9094;
309.3000;1.1445;-4.9068;
309.6000;1.1429;-4.9068;
309.9000;1.1437;-4.9145;
310.2000;1.1429;-4.9249;
310.5000;1.1420;-4.9249;
310.8000;1.1420;-4.9249;
311.1000;1.1404;-4.9249;
311.4000;1.1404;-4.9197;
311.7000;1.1453;-4.9145;
312.0000;1.1420;-4.9145;
312.3000;1.1445;-4.9119;
312.6000;1.1412;-4.9171;
312.9000;1.1412;-4.9119;
313.2000;1.1404;-4.9016;
313.5000;1.1437;-4.9042;
313.8000;1.1453;-4.8990;
314.1000;1.1412;-4.9068;
314.4000;1.1412;-4.8990;
314.7000;1.1429;-4.8860;
315.0000;1.1355;-4.8938;
315.3000;1.1404;-4.8886;
315.6000;1.1404;-4.8834;
315.9000;1.1372;-4.8938;
316.2000;1.1380;-4.8964;
316.5000;1.1412;-4.8860;
316.8000;1.1404;-4.8834;
317.1000;1.1420;-4.8756;
317.4000;1.1420;-4.8834;
317.7000;1.1420;-4.8860;
318.0000;1.1429;-4.8886;
318.3000;1.1453;-4.8834;
318.6000;1.1404;-4.8938;
318.9000;1.1429;-4.8808;
319.2000;1.1469;-4.8782;
319.5000;1.1412;-4.8990;
319.8000;1.1437;-4.8912;
320.1000;1.1420;-4.8964;
320.4000;1.1420;-4.8990;
320.7000;1.1396;-4.9016;
321.0000;1.1429;-4.8938;
321.3000;1.1429;-4.8938;
321.6000;1.1412;-4.8886;
321.9000;1.1437;-4.8808;
322.2000;1.1429;-4.8834;
322.5000;1.1429;-4.8808;
322.8000;1.1420;-4.8912;
323.1000;1.1412;-4.8886;
323.4000;1.1429;-4.8860;
323.7000;1.1412;-4.8912;
324.0000;1.1355;-4.9068;
324.3000;1.1412;-4.8964;
324.6000;1.1429;-4.8912;
324.9000;1.1445;-4.8886;
325.2000;1.1412;-4.8886;
325.5000;1.1412;-4.8990;
325.8000;1.1412;-4.8938;
326.1000;1.1437;-4.8886;
326.4000;1.1412;-4.8912;
326.7000;1.1429;-4.8964;
327.0000;1.1396;-4.9119;
327.3000;1.1445;-4.9042;
327.6000;1.1420;-4.9042;
327.9000;1.1404;-4.8938;
328.2000;1.1412;-4.8808;
328.5000;1.1429;-4.8808;
328.8000;1.1420;-4.8730;
329.1000;1.1404;-4.8679;
329.4000;1.1412;-4.8730;
329.7000;1.1420;-4.8679;
330.0000;1.1420;-4.8679;
330.3000;1.1412;-4.8756;
330.6000;1.1412;-4.8834;
330.9000;1.1429;-4.8886;
331.2000;1.1420;-4.8886;
331.5000;1.1404;-4.8886;
331.8000;1.1429;-4.8808;
332.1000;1.1420;-4.8912;
332.4000;1.1445;-4.8834;
332.7000;1.1429;-4.8886;
333.0000;1.1420;-4.8964;
333.3000;1.1412;-4.8964;
333.6000;1.1429;-4.8964;
333.9000;1.1437;-4.8964;
334.2000;1.1429;-4.8912;
334.5000;1.1429;-4.8860;
334.8000;1.1429;-4.8860;
335.1000;1.1437;-4.8834;
335.4000;1.1437;-4.8886;
335.7000;1.1404;-4.8886;
336.0000;1.1420;-4.8808;
336.3000;1.1420;-4.8782;
336.6000;1.1445;-4.8653;
336.9000;1.1412;-4.8782;
337.2000;1.1404;-4.8756;
337.5000;1.1437;-4.8705;
337.8000;1.1412;-4.8705;
338.1000;1.1412;-4.8705;
338.4000;1.1404;-4.8808;
338.7000;1.1420;-4.8782;
339.0000;1.1372;-4.8886;
339.3000;1.1412;-4.8808;
339.6000;1.1412;-4.8886;
339.9000;1.1429;-4.8808;
340.2000;1.1429;-4.8730;
340.5000;1.1412;-4.8782;
340.8000;1.1429;-4.8782;
341.1000;1.1429;-4.8782;
341.4000;1.1331;-4.9016;
341.7000;1.1420;-4.8730;
342.0000;1.1412;-4.8808;
342.3000;1.1380;-4.8886;
342.6000;1.1429;-4.8808;
342.9000;1.1445;-4.8730;
343.2000;1.1429;-4.8808;
343.5000;1.1412;-4.8860;
343.8000;1.1445;-4.8834;
344.1000;1.1429;-4.9016;
344.4000;1.1404;-4.8964;
344.7000;1.1412;-4.8964;
345.0000;1.1429;-4.8964;
345.3000;1.1429;-4.8990;
345.6000;1.1429;-4.8964;
345.9000;1.1437;-4.8964;
346.2000;1.1412;-4.9068;
346.5000;1.1412;-4.9042;
346.8000;1.1429;-4.9042;
347.1000;1.1420;-4.9042;
347.4000;1.1437;-4.9042;
347.7000;1.1412;-4.8990;
348.0000;1.1412;-4.8808;
348.3000;1.1404;-4.8964;
348.6000;1.1404;-4.8990;
348.9000;1.1404;-4.9016;
349.2000;1.1412;-4.8964;
349.5000;1.1429;-4.8912;
349.8000;1.1420;-4.8860;
350.1000;1.1437;-4.8834;
350.4000;1.1429;-4.8834;
350.7000;1.1404;-4.8912;
351.0000;1.1404;-4.9016;
351.3000;1.1420;-4.8912;
351.6000;1.1412;-4.8990;
351.9000;1.1453;-4.9042;
352.2000;1.1396;-4.9145;
352.5000;1.1412;-4.9042;
352.8000;1.1372;-4.9119;
353.1000;1.1412;-4.9016;
353.4000;1.1396;-4.9016;
353.7000;1.1404;-4.8964;
354.0000;1.1420;-4.8938;
354.3000;1.1404;-4.8938;
354.6000;1.1388;-4.8964;
354.9000;1.1380;-4.9042;
355.2000;1.1420;-4.9016;
355.5000;1.1429;-4.9016;
355.8000;1.1420;-4.9016;
356.1000;1.1412;-4.9068;
356.4000;1.1412;-4.8964;
356.7000;1.1412;-4.8938;
357.0000;1.1429;-4.8990;
357.3000;1.1429;-4.9042;
357.6000;1.1412;-4.9016;
357.9000;1.1404;-4.8964;
358.2000;1.1420;-4.8860;
358.5000;1.1412;-4.8912;
358.8000;1.1412;-4.8938;
359.1000;1.1429;-4.8886;
359.4000;1.1445;-4.8964;
359.7000;1.1420;-4.9016;
360.0000;1.1420;-4.9016;
360.3000;1.1445;-4.8990;
360.6000;1.1429;-4.8990;
360.9000;1.1412;-4.9016;
361.2000;1.1388;-4.9068;
361.5000;1.1404;-4.8964;
361.8000;1.1429;-4.8912;
362.1000;1.1404;-4.8990;
362.4000;1.1380;-4.9068;
362.7000;1.1412;-4.8912;
363.0000;1.1437;-4.8860;
363.3000;1.1404;-4.8964;
363.6000;1.1404;-4.9016;
363.9000;1.1372;-4.9016;
364.2000;1.1420;-4.8912;
364.5000;1.1412;-4.8964;
364.8000;1.1412;-4.8938;
365.1000;1.1396;-4.8938;
365.4000;1.1388;-4.8886;
365.7000;1.1420;-4.8653;
366.0000;1.1412;-4.8653;
366.3000;1.1461;-4.8549;
366.6000;1.1388;-4.8730;
366.9000;1.1412;-4.8679;
367.2000;1.1420;-4.8756;
367.5000;1.1404;-4.8730;
367.8000;1.1404;-4.8782;
368.1000;1.1412;-4.8808;
368.4000;1.1429;-4.8912;
368.7000;1.1412;-4.8938;
369.0000;1.1412;-4.8886;
369.3000;1.1412;-4.8834;
369.6000;1.1429;-4.8886;
369.9000;1.1347;-4.9068;
370.2000;1.1420;-4.8886;
370.5000;1.1388;-4.8964;
370.8000;1.1396;-4.8886;
371.1000;1.1453;-4.8782;
371.4000;1.1396;-4.8886;
371.7000;1.1404;-4.8964;
372.0000;1.1412;-4.8938;
372.3000;1.1412;-4.8990;
372.6000;1.1429;-4.9016;
372.9000;1.1355;-4.9119;
373.2000;1.1347;-4.9171;
373.5000;1.1404;-4.9068;
373.8000;1.1380;-4.9171;
374.1000;1.1315;-4.9327;
374.4000;1.1396;-4.9094;
374.7000;1.1396;-4.9119;
375.0000;1.1404;-4.9042;
375.3000;1.1404;-4.9016;
375.6000;1.1412;-4.9068;
375.9000;1.1429;-4.8964;
376.2000;1.1404;-4.9094;
376.5000;1.1396;-4.9197;
376.8000;1.1412;-4.9171;
377.1000;1.1437;-4.9094;
377.4000;1.1404;-4.9145;
377.7000;1.1396;-4.9145;
378.0000;1.1404;-4.9068;
378.3000;1.1396;-4.9119;
378.6000;1.1412;-4.9068;
378.9000;1.1404;-4.9119;
379.2000;1.1412;-4.9094;
379.5000;1.1420;-4.9042;
379.8000;1.1429;-4.9016;
380.1000;1.1412;-4.9016;
380.4000;1.1420;-4.8990;
380.7000;1.1420;-4.8990;
381.0000;1.1429;-4.9016;
381.3000;1.1445;-4.8964;
381.6000;1.1420;-4.8990;
381.9000;1.1420;-4.8990;
382.2000;1.1429;-4.9068;
382.5000;1.1420;-4.9042;
382.8000;1.1396;-4.9145;
383.1000;1.1396;-4.9068;
383.4000;1.1404;-4.9042;
383.7000;1.1388;-4.9068;
384.0000;1.1396;-4.9016;
384.3000;1.1396;-4.8938;
384.6000;1.1420;-4.8886;
384.9000;1.1412;-4.8860;
385.2000;1.1412;-4.8808;
385.5000;1.1420;-4.8756;
385.8000;1.1412;-4.8808;
386.1000;1.1388;-4.8886;
386.4000;1.1420;-4.8912;
386.7000;1.1412;-4.8860;
387.0000;1.1404;-4.8808;
387.3000;1.1429;-4.8782;
387.6000;1.1420;-4.8730;
387.9000;1.1420;-4.8860;
388.2000;1.1396;-4.8912;
388.5000;1.1420;-4.8860;
388.8000;1.1396;-4.8912;
389.1000;1.1412;-4.8938;
389.4000;1.1363;-4.9042;
389.7000;1.1412;-4.8912;
390.0000;1.1437;-4.8938;
390.3000;1.1412;-4.8990;
390.6000;1.1412;-4.9016;
390.9000;1.1396;-4.8964;
391.2000;1.1404;-4.8938;
391.5000;1.1412;-4.8834;
391.8000;1.1396;-4.8860;
392.1000;1.1420;-4.8912;
392.4000;1.1404;-4.8938;
392.7000;1.1404;-4.8912;
393.0000;1.1388;-4.8990;
393.3000;1.1372;-4.9042;
393.6000;1.1388;-4.8964;
393.9000;1.1363;-4.9042;
394.2000;1.1388;-4.8938;
394.5000;1.1372;-4.9094;
394.8000;1.1420;-4.8964;
395.1000;1.1420;-4.9016;
395.4000;1.1404;-4.9068;
395.7000;1.1404;-4.9068;
396.0000;1.1396;-4.8964;
396.3000;1.1388;-4.8886;
396.6000;1.1404;-4.8782;
396.9000;1.1412;-4.8808;
397.2000;1.1355;-4.8964;
397.5000;1.1420;-4.8808;
397.8000;1.1404;-4.8938;
398.1000;1.1396;-4.8964;
398.4000;1.1404;-4.8990;
398.7000;1.1404;-4.9042;
399.0000;1.1420;-4.8886;
399.3000;1.1412;-4.8756;
399.6000;1.1412;-4.8886;
399.9000;1.1404;-4.8912;
400.2000;1.1404;-4.8912;
400.5000;1.1404;-4.8990;
400.8000;1.1412;-4.8964;
401.1000;1.1388;-4.8938;
401.4000;1.1420;-4.8860;
401.7000;1.1412;-4.8860;
402.0000;1.1445;-4.8834;
402.3000;1.1396;-4.8912;
402.6000;1.1396;-4.8886;
402.9000;1.1396;-4.8808;
403.2000;1.1404;-4.8834;
403.5000;1.1396;-4.8834;
403.8000;1.1355;-4.8886;
404.1000;1.1396;-4.8808;
404.4000;1.1396;-4.8653;
404.7000;1.1412;-4.8705;
405.0000;1.1404;-4.8756;
405.3000;1.1420;-4.8653;
405.6000;1.1396;-4.8679;
405.9000;1.1412;-4.8705;
406.2000;1.1404;-4.8808;
406.5000;1.1404;-4.8782;
406.8000;1.1420;-4.8782;
407.1000;1.1404;-4.8730;
407.4000;1.1412;-4.8756;
407.7000;1.1412;-4.8782;
408.0000;1.1437;-4.8705;
408.3000;1.1404;-4.8756;
408.6000;1.1404;-4.8705;
408.9000;1.1380;-4.8730;
409.2000;1.1380;-4.8834;
409.5000;1.1404;-4.8756;
409.8000;1.1404;-4.8679;
410.1000;1.1396;-4.8730;
410.4000;1.1420;-4.8756;
410.7000;1.1412;-4.8808;
411.0000;1.1437;-4.8782;
411.3000;1.1429;-4.8834;
411.6000;1.1420;-4.8938;
411.9000;1.1437;-4.8860;
412.2000;1.1494;-4.8808;
412.5000;1.1453;-4.8912;
412.8000;1.1420;-4.9119;
413.1000;1.1420;-4.9171;
413.4000;1.1502;-4.8938;
413.7000;1.1412;-4.9119;
414.0000;1.1388;-4.9094;
414.3000;1.1412;-4.9068;
414.6000;1.1412;-4.9042;
414.9000;1.1396;-4.9068;
415.2000;1.1396;-4.9042;
415.5000;1.1404;-4.8964;
415.8000;1.1388;-4.8938;
416.1000;1.1388;-4.8964;
416.4000;1.1396;-4.8964;
416.7000;1.1461;-4.8834;
417.0000;1.1404;-4.9016;
417.3000;1.1396;-4.9068;
417.6000;1.1404;-4.9094;
417.9000;1.1412;-4.9094;
418.2000;1.1429;-4.9042;
418.5000;1.1404;-4.9068;
418.8000;1.1412;-4.9094;
419.1000;1.1404;-4.9094;
419.4000;1.1412;-4.9094;
419.7000;1.1412;-4.9094;
420.0000;1.1404;-4.9119;
420.3000;1.1396;-4.9145;
420.6000;1.1412;-4.9171;
420.9000;1.1404;-4.9301;
421.2000;1.1396;-4.9327;
421.5000;1.1388;-4.9301;
421.8000;1.1404;-4.9197;
422.1000;1.1404;-4.9094;
422.4000;1.1404;-4.9094;
422.7000;1.1396;-4.9197;
423.0000;1.1420;-4.9094;
423.3000;1.1388;-4.9119;
423.6000;1.1404;-4.9094;
423.9000;1.1404;-4.9094;
424.2000;1.1388;-4.9042;
424.5000;1.1404;-4.8964;
424.8000;1.1412;-4.8938;
425.1000;1.1404;-4.8886;
425.4000;1.1396;-4.8886;
425.7000;1.1404;-4.8886;
426.0000;1.1396;-4.8938;
426.3000;1.1412;-4.8912;
426.6000;1.1477;-4.8705;
426.9000;1.1404;-4.8964;
427.2000;1.1412;-4.8886;
427.5000;1.1404;-4.8964;
427.8000;1.1396;-4.8964;
428.1000;1.1339;-4.9042;
428.4000;1.1372;-4.8964;
428.7000;1.1404;-4.8808;
429.0000;1.1404;-4.8938;
429.3000;1.1396;-4.9016;
429.6000;1.1404;-4.9068;
429.9000;1.1396;-4.9094;
430.2000;1.1388;-4.9068;
430.5000;1.1380;-4.9094;
430.8000;1.1396;-4.9094;
431.1000;1.1396;-4.9094;
431.4000;1.1396;-4.9042;
431.7000;1.1396;-4.9068;
432.0000;1.1372;-4.9094;
432.3000;1.1404;-4.8938;
432.6000;1.1412;-4.8886;
432.9000;1.1380;-4.8912;
433.2000;1.1396;-4.8886;
433.5000;1.1404;-4.8886;
433.8000;1.1396;-4.8834;
434.1000;1.1404;-4.8782;
434.4000;1.1396;-4.8860;
434.7000;1.1412;-4.8834;
435.0000;1.1404;-4.8860;
435.3000;1.1404;-4.8860;
435.6000;1.1396;-4.8834;
435.9000;1.1420;-4.8834;
436.2000;1.1453;-4.8808;
436.5000;1.1404;-4.8912;
436.8000;1.1420;-4.8860;
437.1000;1.1372;-4.8964;
437.4000;1.1404;-4.8912;
437.7000;1.1453;-4.8860;
438.0000;1.1396;-4.8964;
438.3000;1.1404;-4.9068;
438.6000;1.1396;-4.9016;
438.9000;1.1396;-4.8964;
439.2000;1.1420;-4.8938;
439.5000;1.1404;-4.9016;
439.8000;1.1412;-4.8912;
440.1000;1.1396;-4.8912;
440.4000;1.1412;-4.8860;
440.7000;1.1396;-4.8938;
441.0000;1.1396;-4.8912;
441.3000;1.1396;-4.8964;
441.6000;1.1388;-4.8964;
441.9000;1.1388;-4.8938;
442.2000;1.1380;-4.8912;
442.5000;1.1404;-4.8860;
442.8000;1.1404;-4.8886;
443.1000;1.1388;-4.8886;
443.4000;1.1388;-4.8990;
443.7000;1.1404;-4.8938;
444.0000;1.1388;-4.8912;
444.3000;1.1388;-4.8860;
444.6000;1.1396;-4.8834;
444.9000;1.1396;-4.8886;
445.2000;1.1396;-4.8834;
445.5000;1.1388;-4.8860;
445.8000;1.1388;-4.8860;
446.1000;1.1388;-4.8782;
446.4000;1.1404;-4.8756;
446.7000;1.1396;-4.8834;
447.0000;1.1355;-4.8964;
447.3000;1.1388;-4.8886;
447.6000;1.1429;-4.8912;
447.9000;1.1396;-4.9016;
448.2000;1.1404;-4.9016;
448.5000;1.1363;-4.9171;
448.8000;1.1396;-4.9042;
449.1000;1.1339;-4.9119;
449.4000;1.1404;-4.8912;
449.7000;1.1388;-4.8938;
450.0000;1.1388;-4.8938;
450.3000;1.1396;-4.8938;
450.6000;1.1388;-4.9042;
450.9000;1.1355;-4.9145;
451.2000;1.1396;-4.8938;
451.5000;1.1404;-4.8938;
451.8000;1.1396;-4.8938;
452.1000;1.1380;-4.8964;
452.4000;1.1347;-4.9042;
452.7000;1.1404;-4.8964;
453.0000;1.1372;-4.9094;
453.3000;1.1363;-4.9042;
453.6000;1.1372;-4.8990;
453.9000;1.1469;-4.8756;
454.2000;1.1420;-4.8860;
454.5000;1.1404;-4.8860;
454.8000;1.1404;-4.8886;
455.1000;1.1412;-4.8886;
455.4000;1.1404;-4.8860;
455.7000;1.1388;-4.8860;
456.0000;1.1380;-4.8886;
456.3000;1.1404;-4.8938;
456.6000;1.1388;-4.8912;
456.9000;1.1396;-4.8834;
457.2000;1.1372;-4.8990;
457.5000;1.1380;-4.8938;
457.8000;1.1396;-4.8938;
458.1000;1.1404;-4.8886;
458.4000;1.1323;-4.9145;
458.7000;1.1380;-4.8938;
459.0000;1.1380;-4.8938;
459.3000;1.1404;-4.8886;
459.6000;1.1380;-4.8990;
459.9000;1.1404;-4.8912;
460.2000;1.1461;-4.8756;
460.5000;1.1396;-4.8860;
460.8000;1.1388;-4.8860;
461.1000;1.1380;-4.8886;
461.4000;1.1388;-4.8886;
461.7000;1.1404;-4.8912;
462.0000;1.1396;-4.8990;
462.3000;1.1388;-4.8938;
462.6000;1.1396;-4.8938;
462.9000;1.1388;-4.8886;
463.2000;1.1404;-4.8860;
463.5000;1.1404;-4.8886;
463.8000;1.1396;-4.8912;
464.1000;1.1388;-4.8938;
464.4000;1.1404;-4.8808;
464.7000;1.1404;-4.8808;
465.0000;1.1396;-4.8808;
465.3000;1.1388;-4.8860;
465.6000;1.1396;-4.8834;
465.9000;1.1437;-4.8756;
466.2000;1.1388;-4.8834;
466.5000;1.1388;-4.8912;
466.8000;1.1396;-4.8834;
467.1000;1.1396;-4.8964;
467.4000;1.1396;-4.8938;
467.7000;1.1380;-4.9068;
468.0000;1.1396;-4.9042;
468.3000;1.1396;-4.9016;
468.6000;1.1388;-4.8912;
468.9000;1.1372;-4.8860;
469.2000;1.1388;-4.8886;
469.5000;1.1396;-4.8964;
469.8000;1.1396;-4.9016;
470.1000;1.1396;-4.8990;
470.4000;1.1380;-4.9042;
470.7000;1.1404;-4.8990;
471.0000;1.1372;-4.9068;
471.3000;1.1388;-4.8990;
471.6000;1.1323;-4.9171;
471.9000;1.1388;-4.8938;
472.2000;1.1404;-4.8912;
472.5000;1.1412;-4.8912;
472.8000;1.1396;-4.8938;
473.1000;1.1420;-4.8808;
473.4000;1.1445;-4.8860;
473.7000;1.1404;-4.8938;
474.0000;1.1396;-4.8990;
474.3000;1.1404;-4.8964;
474.6000;1.1404;-4.8990;
474.9000;1.1396;-4.8938;
475.2000;1.1404;-4.8990;
475.5000;1.1347;-4.9042;
475.8000;1.1388;-4.9016;
476.1000;1.1388;-4.8938;
476.4000;1.1445;-4.8808;
476.7000;1.1396;-4.8938;
477.0000;1.1404;-4.8938;
477.3000;1.1404;-4.8938;
477.6000;1.1388;-4.8912;
477.9000;1.1396;-4.8938;
478.2000;1.1380;-4.8990;
478.5000;1.1388;-4.9016;
478.8000;1.1380;-4.9119;
479.1000;1.1396;-4.9119;
479.4000;1.1404;-4.9094;
479.7000;1.1404;-4.9068;
480.0000;1.1420;-4.8860;
480.3000;1.1388;-4.9016;
480.6000;1.1396;-4.8964;
480.9000;1.1396;-4.9016;
481.2000;1.1396;-4.8964;
481.5000;1.1420;-4.8938;
481.8000;1.1396;-4.8912;
482.1000;1.1388;-4.8886;
482.4000;1.1396;-4.8912;
482.7000;1.1396;-4.8912;
483.0000;1.1404;-4.8938;
483.3000;1.1412;-4.8834;
483.6000;1.1404;-4.8808;
483.9000;1.1404;-4.8756;
484.2000;1.1404;-4.8679;
484.5000;1.1380;-4.8730;
484.8000;1.1404;-4.8653;
485.1000;1.1404;-4.8653;
485.4000;1.1404;-4.8627;
485.7000;1.1388;-4.8705;
486.0000;1.1396;-4.8756;
486.3000;1.1396;-4.8808;
486.6000;1.1380;-4.8834;
486.9000;1.1363;-4.8912;
487.2000;1.1388;-4.8938;
487.5000;1.1453;-4.8938;
487.8000;1.1372;-4.9094;
488.1000;1.1380;-4.8990;
488.4000;1.1380;-4.9042;
488.7000;1.1380;-4.9094;
489.0000;1.1339;-4.9171;
489.3000;1.1380;-4.8912;
489.6000;1.1388;-4.8834;
489.9000;1.1445;-4.8653;
490.2000;1.1412;-4.8782;
490.5000;1.1404;-4.8808;
490.8000;1.1396;-4.8860;
491.1000;1.1404;-4.8938;
491.4000;1.1388;-4.8964;
491.7000;1.1396;-4.9016;
492.0000;1.1388;-4.9042;
492.3000;1.1380;-4.8990;
492.6000;1.1404;-4.8886;
492.9000;1.1396;-4.8860;
493.2000;1.1396;-4.8938;
493.5000;1.1396;-4.8886;
493.8000;1.1396;-4.8730;
494.1000;1.1388;-4.8730;
494.4000;1.1396;-4.8730;
494.7000;1.1363;-4.8782;
495.0000;1.1388;-4.8782;
495.3000;1.1404;-4.8782;
495.6000;1.1388;-4.8756;
495.9000;1.1396;-4.8782;
496.2000;1.1469;-4.8601;
496.5000;1.1380;-4.8782;
496.8000;1.1380;-4.8834;
497.1000;1.1380;-4.8782;
497.4000;1.1396;-4.8705;
497.7000;1.1323;-4.8912;
498.0000;1.1339;-4.8782;
498.3000;1.1372;-4.8808;
498.6000;1.1380;-4.8912;
498.9000;1.1396;-4.8886;
499.2000;1.1363;-4.8834;
499.5000;1.1372;-4.8834;
499.8000;1.1347;-4.8912;
500.1000;1.1396;-4.8912;
500.4000;1.1396;-4.8990;
500.7000;1.1404;-4.8990;
501.0000;1.1363;-4.9094;
501.3000;1.1412;-4.8964;
501.6000;1.1404;-4.8990;
501.9000;1.1388;-4.9016;
502.2000;1.1404;-4.8808;
502.5000;1.1396;-4.8808;
502.8000;1.1380;-4.8782;
503.1000;1.1396;-4.8730;
503.4000;1.1396;-4.8834;
503.7000;1.1363;-4.8860;
504.0000;1.1396;-4.8730;
504.3000;1.1372;-4.8860;
504.6000;1.1380;-4.8834;
504.9000;1.1396;-4.8834;
505.2000;1.1388;-4.8886;
505.5000;1.1396;-4.8834;
505.8000;1.1380;-4.8808;
506.1000;1.1347;-4.8938;
506.4000;1.1347;-4.8912;
506.7000;1.1404;-4.8938;
507.0000;1.1363;-4.9016;
507.3000;1.1380;-4.8964;
507.6000;1.1396;-4.8990;
507.9000;1.1363;-4.9042;
508.2000;1.1363;-4.9068;
508.5000;1.1388;-4.8964;
508.8000;1.1388;-4.8990;
509.1000;1.1363;-4.8964;
509.4000;1.1380;-4.8834;
509.7000;1.1363;-4.8834;
510.0000;1.1372;-4.8860;
510.3000;1.1388;-4.8860;
510.6000;1.1298;-4.9068;
510.9000;1.1372;-4.8912;
511.2000;1.1363;-4.8912;
511.5000;1.1388;-4.8860;
511.8000;1.1388;-4.8886;
512.1000;1.1388;-4.8912;
512.4000;1.1372;-4.8964;
512.7000;1.1372;-4.8964;
513.0000;1.1380;-4.8938;
513.3000;1.1388;-4.8886;
513.6000;1.1388;-4.8912;
513.9000;1.1363;-4.8912;
514.2000;1.1388;-4.8990;
514.5000;1.1388;-4.9016;
514.8000;1.1388;-4.8938;
515.1000;1.1363;-4.8964;
515.4000;1.1396;-4.8886;
515.7000;1.1396;-4.8912;
516.0000;1.1380;-4.8886;
516.3000;1.1388;-4.8964;
516.6000;1.1404;-4.8886;
516.9000;1.1420;-4.8860;
517.2000;1.1388;-4.8912;
517.5000;1.1372;-4.8938;
517.8000;1.1331;-4.9094;
518.1000;1.1388;-4.8938;
518.4000;1.1412;-4.8860;
518.7000;1.1388;-4.8912;
519.0000;1.1380;-4.8990;
519.3000;1.1396;-4.8964;
519.6000;1.1372;-4.9042;
519.9000;1.1363;-4.9042;
520.2000;1.1363;-4.9016;
520.5000;1.1388;-4.8990;
520.8000;1.1388;-4.8938;
521.1000;1.1339;-4.9016;
521.4000;1.1396;-4.8860;
521.7000;1.1372;-4.8886;
522.0000;1.1412;-4.8782;
522.3000;1.1372;-4.8808;
522.6000;1.1388;-4.8679;
522.9000;1.1404;-4.8756;
523.2000;1.1380;-4.8808;
523.5000;1.1396;-4.8886;
523.8000;1.1380;-4.8860;
524.1000;1.1380;-4.8912;
524.4000;1.1372;-4.8964;
524.7000;1.1372;-4.8938;
525.0000;1.1412;-4.8860;
525.3000;1.1388;-4.8912;
525.6000;1.1412;-4.8756;
525.9000;1.1404;-4.8730;
526.2000;1.1396;-4.8860;
526.5000;1.1388;-4.8886;
526.8000;1.1396;-4.8886;
527.1000;1.1388;-4.8938;
527.4000;1.1380;-4.9068;
527.7000;1.1380;-4.9016;
528.0000;1.1355;-4.9119;
528.3000;1.1380;-4.8990;
528.6000;1.1388;-4.8990;
528.9000;1.1380;-4.8860;
529.2000;1.1388;-4.8808;
529.5000;1.1363;-4.8886;
529.8000;1.1380;-4.8886;
530.1000;1.1420;-4.8912;
530.4000;1.1388;-4.9068;
530.7000;1.1396;-4.8990;
531.0000;1.1396;-4.8964;
531.3000;1.1396;-4.8886;
531.6000;1.1404;-4.8834;
531.9000;1.1372;-4.8912;
532.2000;1.1396;-4.8782;
532.5000;1.1388;-4.8860;
532.8000;1.1380;-4.8912;
533.1000;1.1388;-4.8860;
533.4000;1.1380;-4.8860;
533.7000;1.1388;-4.8860;
534.0000;1.1380;-4.8912;
534.3000;1.1388;-4.8834;
534.6000;1.1380;-4.8912;
534.9000;1.1404;-4.8782;
535.2000;1.1372;-4.8808;
535.5000;1.1396;-4.8808;
535.8000;1.1388;-4.8860;
536.1000;1.1355;-4.8886;
536.4000;1.1363;-4.8964;
536.7000;1.1380;-4.8938;
537.0000;1.1372;-4.8990;
537.3000;1.1372;-4.8964;
537.6000;1.1404;-4.8860;
537.9000;1.1380;-4.8860;
538.2000;1.1372;-4.8886;
538.5000;1.1380;-4.8860;
538.8000;1.1363;-4.8886;
539.1000;1.1380;-4.8912;
539.4000;1.1380;-4.8860;
539.7000;1.1388;-4.8860;
540.0000;1.1363;-4.9042;
540.3000;1.1372;-4.8964;
540.6000;1.1372;-4.9068;
540.9000;1.1396;-4.8964;
541.2000;1.1396;-4.8964;
541.5000;1.1355;-4.8912;
541.8000;1.1372;-4.8938;
542.1000;1.1380;-4.8912;
542.4000;1.1380;-4.8834;
542.7000;1.1372;-4.8860;
543.0000;1.1347;-4.8938;
543.3000;1.1380;-4.8860;
543.6000;1.1306;-4.8990;
543.9000;1.1437;-4.8705;
544.2000;1.1380;-4.8860;
544.5000;1.1315;-4.8990;
544.8000;1.1363;-4.8886;
545.1000;1.1453;-4.8627;
545.4000;1.1363;-4.8834;
545.7000;1.1380;-4.8808;
546.0000;1.1388;-4.8756;
546.3000;1.1380;-4.8782;
546.6000;1.1355;-4.8756;
546.9000;1.1363;-4.8834;
547.2000;1.1396;-4.8705;
547.5000;1.1388;-4.8730;
547.8000;1.1372;-4.8679;
548.1000;1.1363;-4.8730;
548.4000;1.1388;-4.8730;
548.7000;1.1396;-4.8730;
549.0000;1.1380;-4.8756;
549.3000;1.1363;-4.8782;
549.6000;1.1363;-4.8705;
549.9000;1.1404;-4.8601;
550.2000;1.1380;-4.8575;
550.5000;1.1380;-4.8627;
550.8000;1.1363;-4.8705;
551.1000;1.1363;-4.8627;
551.4000;1.1372;-4.8653;
551.7000;1.1363;-4.8730;
552.0000;1.1372;-4.8782;
552.3000;1.1437;-4.8601;
552.6000;1.1388;-4.8782;
552.9000;1.1363;-4.8860;
553.2000;1.1363;-4.8860;
553.5000;1.1404;-4.8730;
553.8000;1.1372;-4.8756;
554.1000;1.1372;-4.8756;
554.4000;1.1339;-4.8782;
554.7000;1.1355;-4.8782;
555.0000;1.1372;-4.8756;
555.3000;1.1372;-4.8756;
555.6000;1.1339;-4.8860;
555.9000;1.1347;-4.8730;
556.2000;1.1396;-4.8705;
556.5000;1.1372;-4.8730;
556.8000;1.1355;-4.8756;
557.1000;1.1372;-4.8730;
557.4000;1.1363;-4.8756;
557.7000;1.1388;-4.8705;
558.0000;1.1388;-4.8730;
558.3000;1.1363;-4.8886;
558.6000;1.1380;-4.8860;
558.9000;1.1380;-4.8808;
559.2000;1.1396;-4.8860;
559.5000;1.1363;-4.8912;
559.8000;1.1420;-4.8782;
560.1000;1.1388;-4.8834;
560.4000;1.1380;-4.8808;
560.7000;1.1396;-4.8705;
561.0000;1.1372;-4.8730;
561.3000;1.1380;-4.8756;
561.6000;1.1363;-4.8834;
561.9000;1.1380;-4.8756;
562.2000;1.1363;-4.8730;
562.5000;1.1380;-4.8782;
562.8000;1.1339;-4.8938;
563.1000;1.1404;-4.8782;
563.4000;1.1347;-4.8964;
563.7000;1.1306;-4.9068;
564.0000;1.1355;-4.8990;
564.3000;1.1363;-4.8990;
564.6000;1.1380;-4.9068;
564.9000;1.1282;-4.9223;
565.2000;1.1372;-4.8912;
565.5000;1.1372;-4.8964;
565.8000;1.1363;-4.9016;
566.1000;1.1380;-4.8912;
566.4000;1.1315;-4.9042;
566.7000;1.1380;-4.8886;
567.0000;1.1347;-4.8912;
567.3000;1.1372;-4.8886;
567.6000;1.1363;-4.8912;
567.9000;1.1445;-4.8756;
568.2000;1.1420;-4.8834;
568.5000;1.1355;-4.9094;
568.8000;1.1380;-4.9016;
569.1000;1.1388;-4.8964;
569.4000;1.1396;-4.8860;
569.7000;1.1396;-4.8938;
570.0000;1.1323;-4.9068;
570.3000;1.1380;-4.8860;
570.6000;1.1388;-4.8886;
570.9000;1.1372;-4.8938;
571.2000;1.1363;-4.8964;
571.5000;1.1380;-4.9068;
571.8000;1.1429;-4.8938;
572.1000;1.1388;-4.8990;
572.4000;1.1355;-4.9094;
572.7000;1.1380;-4.9042;
573.0000;1.1388;-4.9016;
573.3000;1.1372;-4.9042;
573.6000;1.1347;-4.9119;
573.9000;1.1372;-4.8990;
574.2000;1.1388;-4.8912;
574.5000;1.1388;-4.8938;
574.8000;1.1380;-4.8990;
575.1000;1.1372;-4.9068;
575.4000;1.1380;-4.9042;
575.7000;1.1396;-4.8990;
576.0000;1.1396;-4.9042;
576.3000;1.1380;-4.9016;
576.6000;1.1372;-4.9068;
576.9000;1.1420;-4.9068;
577.2000;1.1380;-4.9171;
577.5000;1.1315;-4.9223;
577.8000;1.1372;-4.9042;
578.1000;1.1396;-4.8990;
578.4000;1.1396;-4.8938;
578.7000;1.1420;-4.8886;
579.0000;1.1380;-4.8912;
579.3000;1.1363;-4.8886;
579.6000;1.1355;-4.8808;
579.9000;1.1380;-4.8912;
580.2000;1.1363;-4.8938;
580.5000;1.1372;-4.8886;
580.8000;1.1453;-4.8679;
581.1000;1.1372;-4.8834;
581.4000;1.1363;-4.8860;
581.7000;1.1372;-4.8912;
582.0000;1.1372;-4.8938;
582.3000;1.1388;-4.8912;
582.6000;1.1380;-4.8886;
582.9000;1.1363;-4.8938;
583.2000;1.1347;-4.9068;
583.5000;1.1372;-4.9042;
583.8000;1.1372;-4.9042;
584.1000;1.1388;-4.9016;
584.4000;1.1372;-4.8938;
584.7000;1.1363;-4.8938;
585.0000;1.1363;-4.8912;
585.3000;1.1380;-4.8860;
585.6000;1.1380;-4.8886;
585.9000;1.1380;-4.8938;
586.2000;1.1363;-4.9068;
586.5000;1.1355;-4.9094;
586.8000;1.1315;-4.9197;
587.1000;1.1363;-4.9094;
587.4000;1.1363;-4.9119;
587.7000;1.1363;-4.9016;
588.0000;1.1372;-4.9042;
588.3000;1.1363;-4.9016;
588.6000;1.1388;-4.8964;
588.9000;1.1347;-4.8964;
589.2000;1.1347;-4.8990;
589.5000;1.1372;-4.8886;
589.8000;1.1363;-4.8886;
590.1000;1.1331;-4.8990;
590.4000;1.1355;-4.8990;
590.7000;1.1355;-4.8990;
591.0000;1.1355;-4.8938;
591.3000;1.1372;-4.9042;
591.6000;1.1355;-4.9171;
591.9000;1.1372;-4.9119;
592.2000;1.1380;-4.9016;
592.5000;1.1355;-4.9042;
592.8000;1.1372;-4.8886;
593.1000;1.1396;-4.8756;
593.4000;1.1380;-4.8756;
593.7000;1.1347;-4.8808;
594.0000;1.1355;-4.8730;
594.3000;1.1347;-4.8860;
594.6000;1.1380;-4.8730;
594.9000;1.1372;-4.8808;
595.2000;1.1372;-4.8860;
595.5000;1.1404;-4.8834;
595.8000;1.1355;-4.8886;
596.1000;1.1404;-4.8834;
596.4000;1.1380;-4.8834;
596.7000;1.1363;-4.8782;
597.0000;1.1372;-4.8679;
597.3000;1.1396;-4.8705;
597.6000;1.1363;-4.8808;
597.9000;1.1380;-4.8834;
598.2000;1.1396;-4.8756;
598.5000;1.1380;-4.8756;
598.8000;1.1355;-4.8834;
599.1000;1.1372;-4.8808;
599.4000;1.1323;-4.8938;
599.7000;1.1331;-4.8938;
600.0000;1.1412;-4.8730;
600.3000;1.1372;-4.8938;
600.6000;1.1388;-4.9016;
600.9000;1.1282;-4.9379;
601.2000;1.1217;-4.9638;
601.5000;1.1136;-4.9897;
601.8000;1.1038;-5.0183;
602.1000;1.0932;-5.0416;
602.4000;1.0851;-5.0624;
602.7000;1.0720;-5.0857;
603.0000;1.0680;-5.0961;
603.3000;1.0590;-5.1142;
603.6000;1.0444;-5.1505;
603.9000;1.0435;-5.1505;
604.2000;1.0354;-5.1557;
604.5000;1.0297;-5.1635;
604.8000;1.0322;-5.1557;
605.1000;1.0175;-5.1868;
605.4000;1.0118;-5.2050;
605.7000;1.0045;-5.2154;
606.0000;0.9996;-5.2154;
606.3000;0.9947;-5.2232;
606.6000;0.9882;-5.2335;
606.9000;0.9858;-5.2387;
607.2000;0.9801;-5.2569;
607.5000;0.9776;-5.2569;
607.8000;0.9719;-5.2647;
608.1000;0.9654;-5.2724;
608.4000;0.9605;-5.2854;
608.7000;0.9573;-5.2906;
609.0000;0.9524;-5.2932;
609.3000;0.9483;-5.2906;
609.6000;0.9459;-5.2984;
609.9000;0.9508;-5.2828;
610.2000;0.9377;-5.3087;
610.5000;0.9345;-5.3165;
610.8000;0.9312;-5.3165;
611.1000;0.9263;-5.3243;
611.4000;0.9231;-5.3243;
611.7000;0.9198;-5.3321;
612.0000;0.9149;-5.3476;
612.3000;0.9117;-5.3528;
612.6000;0.9101;-5.3554;
612.9000;0.9068;-5.3528;
613.2000;0.9035;-5.3580;
613.5000;0.8970;-5.3580;
613.8000;0.8954;-5.3632;
614.1000;0.8930;-5.3684;
614.4000;0.8913;-5.3606;
614.7000;0.8881;-5.3580;
615.0000;0.8864;-5.3554;
615.3000;0.8816;-5.3658;
615.6000;0.8807;-5.3736;
615.9000;0.8848;-5.3632;
616.2000;0.8734;-5.3814;
616.5000;0.8718;-5.3684;
616.8000;0.8685;-5.3762;
617.1000;0.8653;-5.3865;
617.4000;0.8637;-5.3865;
617.7000;0.8612;-5.3917;
618.0000;0.8588;-5.3917;
618.3000;0.8604;-5.3839;
618.6000;0.8547;-5.3839;
618.9000;0.8506;-5.3839;
619.2000;0.8531;-5.3736;
619.5000;0.8482;-5.3762;
619.8000;0.8457;-5.3762;
620.1000;0.8441;-5.3788;
620.4000;0.8449;-5.3788;
620.7000;0.8409;-5.3917;
621.0000;0.8417;-5.3917;
621.3000;0.8335;-5.4151;
621.6000;0.8327;-5.4177;
621.9000;0.8327;-5.4021;
622.2000;0.8270;-5.4099;
622.5000;0.8287;-5.3995;
622.8000;0.8287;-5.3995;
623.1000;0.8205;-5.4151;
623.4000;0.8213;-5.4047;
623.7000;0.8164;-5.4228;
624.0000;0.8181;-5.4073;
624.3000;0.8173;-5.3995;
624.6000;0.8148;-5.4073;
624.9000;0.8164;-5.4021;
625.2000;0.8140;-5.4021;
625.5000;0.8116;-5.4047;
625.8000;0.8099;-5.4021;
626.1000;0.8124;-5.3917;
626.4000;0.8083;-5.4073;
626.7000;0.8059;-5.3995;
627.0000;0.8042;-5.4047;
627.3000;0.8018;-5.4151;
627.6000;0.8010;-5.4151;
627.9000;0.8002;-5.4047;
628.2000;0.8002;-5.3995;
628.5000;0.7977;-5.4151;
628.8000;0.7961;-5.4203;
629.1000;0.7945;-5.4151;
629.4000;0.7953;-5.4125;
629.7000;0.7928;-5.4099;
630.0000;0.7961;-5.4021;
630.3000;0.7904;-5.4177;
630.6000;0.7888;-5.4280;
630.9000;0.7888;-5.4254;
631.2000;0.7880;-5.4280;
631.5000;0.7847;-5.4306;
631.8000;0.7839;-5.4280;
632.1000;0.7855;-5.4254;
632.4000;0.7806;-5.4358;
632.7000;0.7798;-5.4332;
633.0000;0.7782;-5.4254;
633.3000;0.7798;-5.4151;
633.6000;0.7766;-5.4151;
633.9000;0.7814;-5.4047;
634.2000;0.7766;-5.4151;
634.5000;0.7733;-5.4254;
634.8000;0.7733;-5.4280;
635.1000;0.7733;-5.4203;
635.4000;0.7717;-5.4228;
635.7000;0.7725;-5.4254;
636.0000;0.7774;-5.4254;
636.3000;0.7709;-5.4358;
636.6000;0.7684;-5.4488;
636.9000;0.7676;-5.4488;
637.2000;0.7635;-5.4540;
637.5000;0.7643;-5.4436;
637.8000;0.7611;-5.4436;
638.1000;0.7619;-5.4358;
638.4000;0.7603;-5.4384;
638.7000;0.7611;-5.4332;
639.0000;0.7562;-5.4410;
639.3000;0.7578;-5.4384;
639.6000;0.7562;-5.4332;
639.9000;0.7586;-5.4306;
640.2000;0.7570;-5.4358;
640.5000;0.7554;-5.4384;
640.8000;0.7546;-5.4436;
641.1000;0.7554;-5.4332;
641.4000;0.7546;-5.4306;
641.7000;0.7513;-5.4436;
642.0000;0.7521;-5.4436;
642.3000;0.7521;-5.4384;
642.6000;0.7497;-5.4332;
642.9000;0.7489;-5.4332;
643.2000;0.7530;-5.4332;
643.5000;0.7489;-5.4358;
643.8000;0.7497;-5.4332;
644.1000;0.7489;-5.4280;
644.4000;0.7456;-5.4410;
644.7000;0.7464;-5.4462;
645.0000;0.7440;-5.4514;
645.3000;0.7513;-5.4280;
645.6000;0.7473;-5.4410;
645.9000;0.7440;-5.4488;
646.2000;0.7359;-5.4669;
646.5000;0.7407;-5.4514;
646.8000;0.7407;-5.4488;
647.1000;0.7399;-5.4488;
647.4000;0.7391;-5.4488;
647.7000;0.7375;-5.4514;
648.0000;0.7375;-5.4618;
648.3000;0.7367;-5.4592;
648.6000;0.7342;-5.4643;
648.9000;0.7359;-5.4488;
649.2000;0.7342;-5.4514;
649.5000;0.7342;-5.4592;
649.8000;0.7367;-5.4540;
650.1000;0.7334;-5.4436;
650.4000;0.7310;-5.4462;
650.7000;0.7318;-5.4462;
651.0000;0.7293;-5.4488;
651.3000;0.7302;-5.4514;
651.6000;0.7302;-5.4488;
651.9000;0.7302;-5.4462;
652.2000;0.7302;-5.4436;
652.5000;0.7302;-5.4462;
652.8000;0.7285;-5.4514;
653.1000;0.7293;-5.4488;
653.4000;0.7277;-5.4488;
653.7000;0.7285;-5.4514;
654.0000;0.7261;-5.4618;
654.3000;0.7245;-5.4695;
654.6000;0.7245;-5.4773;
654.9000;0.7261;-5.4669;
655.2000;0.7236;-5.4618;
655.5000;0.7220;-5.4643;
655.8000;0.7212;-5.4618;
656.1000;0.7220;-5.4618;
656.4000;0.7212;-5.4721;
656.7000;0.7212;-5.4721;
657.0000;0.7204;-5.4747;
657.3000;0.7179;-5.4695;
657.6000;0.7204;-5.4618;
657.9000;0.7204;-5.4566;
658.2000;0.7179;-5.4566;
658.5000;0.7188;-5.4592;
658.8000;0.7179;-5.4669;
659.1000;0.7253;-5.4436;
659.4000;0.7139;-5.4618;
659.7000;0.7090;-5.4773;
660.0000;0.7155;-5.4592;
660.3000;0.7098;-5.4747;
660.6000;0.7155;-5.4695;
660.9000;0.7057;-5.4903;
661.2000;0.7139;-5.4773;
661.5000;0.7147;-5.4721;
661.8000;0.7147;-5.4747;
662.1000;0.7139;-5.4721;
662.4000;0.7196;-5.4566;
662.7000;0.7123;-5.4695;
663.0000;0.7123;-5.4695;
663.3000;0.7106;-5.4747;
663.6000;0.7049;-5.4929;
663.9000;0.7106;-5.4773;
664.2000;0.7090;-5.4851;
664.5000;0.7090;-5.4851;
664.8000;0.7082;-5.4747;
665.1000;0.7082;-5.4747;
665.4000;0.7009;-5.4929;
665.7000;0.7057;-5.4851;
666.0000;0.7074;-5.4825;
666.3000;0.7098;-5.4773;
666.6000;0.7057;-5.4773;
666.9000;0.7066;-5.4747;
667.2000;0.7017;-5.4825;
667.5000;0.7049;-5.4721;
667.8000;0.7049;-5.4695;
668.1000;0.7041;-5.4747;
668.4000;0.7017;-5.4825;
668.7000;0.6960;-5.4929;
669.0000;0.7009;-5.4799;
669.3000;0.7025;-5.4773;
669.6000;0.7000;-5.4721;
669.9000;0.6992;-5.4721;
670.2000;0.6992;-5.4721;
670.5000;0.7017;-5.4669;
670.8000;0.7009;-5.4721;
671.1000;0.6992;-5.4773;
671.4000;0.6968;-5.4721;
671.7000;0.7017;-5.4566;
672.0000;0.6976;-5.4643;
672.3000;0.6960;-5.4669;
672.6000;0.6968;-5.4643;
672.9000;0.6960;-5.4747;
673.2000;0.6952;-5.4799;
673.5000;0.6968;-5.4747;
673.8000;0.6919;-5.4851;
674.1000;0.6960;-5.4773;
674.4000;0.6952;-5.4773;
674.7000;0.6919;-5.4773;
675.0000;0.6952;-5.4669;
675.3000;0.6943;-5.4721;
675.6000;0.6943;-5.4669;
675.9000;0.6952;-5.4643;
676.2000;0.6935;-5.4669;
676.5000;0.6927;-5.4721;
676.8000;0.6952;-5.4643;
677.1000;0.6935;-5.4695;
677.4000;0.6943;-5.4695;
677.7000;0.6943;-5.4669;
678.0000;0.6927;-5.4592;
678.3000;0.6919;-5.4618;
678.6000;0.6919;-5.4695;
678.9000;0.6927;-5.4747;
679.2000;0.6895;-5.4825;
679.5000;0.6911;-5.4721;
679.8000;0.6895;-5.4747;
680.1000;0.6854;-5.4799;
680.4000;0.6870;-5.4669;
680.7000;0.6886;-5.4643;
681.0000;0.6846;-5.4747;
681.3000;0.6911;-5.4592;
681.6000;0.6846;-5.4747;
681.9000;0.6870;-5.4592;
682.2000;0.6862;-5.4643;
682.5000;0.6878;-5.4618;
682.8000;0.6862;-5.4592;
683.1000;0.6862;-5.4618;
683.4000;0.6878;-5.4540;
683.7000;0.6943;-5.4488;
684.0000;0.6854;-5.4695;
684.3000;0.6870;-5.4643;
684.6000;0.6813;-5.4747;
684.9000;0.6862;-5.4643;
685.2000;0.6854;-5.4643;
685.5000;0.6862;-5.4618;
685.8000;0.6838;-5.4566;
686.1000;0.6838;-5.4592;
686.4000;0.6821;-5.4721;
686.7000;0.6854;-5.4618;
687.0000;0.6805;-5.4721;
687.3000;0.6838;-5.4514;
687.6000;0.6829;-5.4540;
687.9000;0.6821;-5.4514;
688.2000;0.6829;-5.4592;
688.5000;0.6805;-5.4695;
688.8000;0.6838;-5.4669;
689.1000;0.6805;-5.4721;
689.4000;0.6789;-5.4799;
689.7000;0.6813;-5.4643;
690.0000;0.6797;-5.4592;
690.3000;0.6740;-5.4747;
690.6000;0.6772;-5.4695;
690.9000;0.6813;-5.4592;
691.2000;0.6772;-5.4721;
691.5000;0.6772;-5.4799;
691.8000;0.6797;-5.4773;
692.1000;0.6797;-5.4695;
692.4000;0.6764;-5.4799;
692.7000;0.6756;-5.4903;
693.0000;0.6781;-5.4799;
693.3000;0.6781;-5.4773;
693.6000;0.6781;-5.4773;
693.9000;0.6772;-5.4799;
694.2000;0.6764;-5.4669;
694.5000;0.6756;-5.4721;
694.8000;0.6764;-5.4721;
695.1000;0.6748;-5.4747;
695.4000;0.6740;-5.4799;
695.7000;0.6756;-5.4773;
696.0000;0.6740;-5.4773;
696.3000;0.6740;-5.4825;
696.6000;0.6740;-5.4877;
696.9000;0.6748;-5.4955;
697.2000;0.6740;-5.4929;
697.5000;0.6732;-5.4877;
697.8000;0.6740;-5.4877;
698.1000;0.6740;-5.4773;
698.4000;0.6740;-5.4721;
698.7000;0.6732;-5.4643;
699.0000;0.6707;-5.4643;
699.3000;0.6724;-5.4643;
699.6000;0.6724;-5.4592;
699.9000;0.6724;-5.4566;
700.2000;0.6707;-5.4643;
700.5000;0.6707;-5.4669;
700.8000;0.6756;-5.4618;
701.1000;0.6724;-5.4643;
701.4000;0.6716;-5.4566;
701.7000;0.6707;-5.4618;
702.0000;0.6716;-5.4540;
702.3000;0.6716;-5.4436;
702.6000;0.6716;-5.4410;
702.9000;0.6691;-5.4514;
703.2000;0.6699;-5.4436;
703.5000;0.6683;-5.4384;
703.8000;0.6691;-5.4384;
704.1000;0.6683;-5.4384;
704.4000;0.6683;-5.4306;
704.7000;0.6683;-5.4410;
705.0000;0.6675;-5.4514;
705.3000;0.6667;-5.4592;
705.6000;0.6675;-5.4514;
705.9000;0.6683;-5.4514;
706.2000;0.6659;-5.4488;
706.5000;0.6650;-5.4566;
706.8000;0.6659;-5.4540;
707.1000;0.6667;-5.4540;
707.4000;0.6821;-5.4254;
707.7000;0.6683;-5.4514;
708.0000;0.6659;-5.4540;
708.3000;0.6642;-5.4592;
708.6000;0.6659;-5.4618;
708.9000;0.6642;-5.4695;
709.2000;0.6650;-5.4695;
709.5000;0.6642;-5.4669;
709.8000;0.6634;-5.4669;
710.1000;0.6626;-5.4592;
710.4000;0.6642;-5.4540;
710.7000;0.6626;-5.4669;
711.0000;0.6602;-5.4669;
711.3000;0.6626;-5.4618;
711.6000;0.6618;-5.4540;
711.9000;0.6618;-5.4566;
712.2000;0.6577;-5.4592;
712.5000;0.6626;-5.4488;
712.8000;0.6618;-5.4462;
713.1000;0.6577;-5.4488;
713.4000;0.6602;-5.4462;
713.7000;0.6642;-5.4436;
714.0000;0.6618;-5.4514;
714.3000;0.6602;-5.4514;
714.6000;0.6610;-5.4514;
714.9000;0.6610;-5.4566;
715.2000;0.6561;-5.4721;
715.5000;0.6618;-5.4592;
715.8000;0.6602;-5.4618;
716.1000;0.6593;-5.4643;
716.4000;0.6593;-5.4669;
716.7000;0.6602;-5.4643;
717.0000;0.6585;-5.4669;
717.3000;0.6642;-5.4566;
717.6000;0.6577;-5.4695;
717.9000;0.6577;-5.4566;
718.2000;0.6569;-5.4566;
718.5000;0.6585;-5.4462;
718.8000;0.6577;-5.4514;
719.1000;0.6577;-5.4566;
719.4000;0.6569;-5.4566;
719.7000;0.6504;-5.4695;
720.0000;0.6593;-5.4488;
720.3000;0.6593;-5.4410;
720.6000;0.6585;-5.4410;
720.9000;0.6569;-5.4462;
721.2000;0.6569;-5.4462;
721.5000;0.6593;-5.4514;
721.8000;0.6577;-5.4592;
722.1000;0.6569;-5.4618;
722.4000;0.6569;-5.4514;
722.7000;0.6618;-5.4306;
723.0000;0.6553;-5.4436;
723.3000;0.6561;-5.4410;
723.6000;0.6561;-5.4436;
723.9000;0.6577;-5.4410;
724.2000;0.6569;-5.4436;
724.5000;0.6561;-5.4488;
724.8000;0.6561;-5.4514;
725.1000;0.6536;-5.4514;
725.4000;0.6553;-5.4436;
725.7000;0.6528;-5.4488;
726.0000;0.6528;-5.4618;
726.3000;0.6528;-5.4695;
726.6000;0.6528;-5.4721;
726.9000;0.6536;-5.4747;
727.2000;0.6536;-5.4747;
727.5000;0.6528;-5.4721;
727.8000;0.6545;-5.4669;
728.1000;0.6536;-5.4618;
728.4000;0.6545;-5.4566;
728.7000;0.6536;-5.4592;
729.0000;0.6528;-5.4540;
729.3000;0.6536;-5.4566;
729.6000;0.6520;-5.4592;
729.9000;0.6496;-5.4695;
730.2000;0.6512;-5.4566;
730.5000;0.6536;-5.4488;
730.8000;0.6504;-5.4566;
731.1000;0.6504;-5.4566;
731.4000;0.6536;-5.4540;
731.7000;0.6471;-5.4721;
732.0000;0.6512;-5.4592;
732.3000;0.6463;-5.4721;
732.6000;0.6569;-5.4436;
732.9000;0.6520;-5.4566;
733.2000;0.6504;-5.4566;
733.5000;0.6488;-5.4514;
733.8000;0.6504;-5.4488;
734.1000;0.6471;-5.4566;
734.4000;0.6504;-5.4488;
734.7000;0.6471;-5.4592;
735.0000;0.6471;-5.4695;
735.3000;0.6488;-5.4643;
735.6000;0.6479;-5.4592;
735.9000;0.6488;-5.4514;
736.2000;0.6512;-5.4566;
736.5000;0.6488;-5.4592;
736.8000;0.6471;-5.4592;
737.1000;0.6504;-5.4488;
737.4000;0.6496;-5.4540;
737.7000;0.6488;-5.4540;
738.0000;0.6471;-5.4540;
738.3000;0.6512;-5.4462;
738.6000;0.6504;-5.4436;
738.9000;0.6479;-5.4384;
739.2000;0.6479;-5.4384;
739.5000;0.6471;-5.4436;
739.8000;0.6471;-5.4540;
740.1000;0.6520;-5.4410;
740.4000;0.6463;-5.4643;
740.7000;0.6488;-5.4592;
741.0000;0.6479;-5.4643;
741.3000;0.6471;-5.4566;
741.6000;0.6471;-5.4488;
741.9000;0.6463;-5.4410;
742.2000;0.6463;-5.4436;
742.5000;0.6431;-5.4643;
742.8000;0.6422;-5.4566;
743.1000;0.6439;-5.4514;
743.4000;0.6447;-5.4488;
743.7000;0.6431;-5.4566;
744.0000;0.6455;-5.4540;
744.3000;0.6455;-5.4566;
744.6000;0.6455;-5.4514;
744.9000;0.6431;-5.4488;
745.2000;0.6422;-5.4540;
745.5000;0.6431;-5.4566;
745.8000;0.6455;-5.4514;
746.1000;0.6431;-5.4540;
746.4000;0.6431;-5.4436;
746.7000;0.6422;-5.4332;
747.0000;0.6439;-5.4306;
747.3000;0.6431;-5.4410;
747.6000;0.6414;-5.4462;
747.9000;0.6447;-5.4436;
748.2000;0.6439;-5.4488;
748.5000;0.6422;-5.4488;
748.8000;0.6398;-5.4514;
749.1000;0.6431;-5.4410;
749.4000;0.6406;-5.4514;
749.7000;0.6422;-5.4566;
750.0000;0.6471;-5.4540;
750.3000;0.6414;-5.4695;
750.6000;0.6406;-5.4669;
750.9000;0.6422;-5.4669;
751.2000;0.6382;-5.4747;
751.5000;0.6439;-5.4540;
751.8000;0.6422;-5.4566;
752.1000;0.6431;-5.4514;
752.4000;0.6398;-5.4669;
752.7000;0.6406;-5.4566;
753.0000;0.6365;-5.4695;
753.3000;0.6447;-5.4436;
753.6000;0.6406;-5.4436;
753.9000;0.6422;-5.4488;
754.2000;0.6406;-5.4540;
754.5000;0.6439;-5.4540;
754.8000;0.6398;-5.4488;
755.1000;0.6471;-5.4358;
755.4000;0.6374;-5.4566;
755.7000;0.6414;-5.4488;
756.0000;0.6414;-5.4540;
756.3000;0.6414;-5.4514;
756.6000;0.6439;-5.4410;
756.9000;0.6390;-5.4436;
757.2000;0.6398;-5.4436;
757.5000;0.6414;-5.4514;
757.8000;0.6422;-5.4566;
758.1000;0.6414;-5.4669;
758.4000;0.6406;-5.4721;
758.7000;0.6406;-5.4592;
759.0000;0.6382;-5.4618;
759.3000;0.6390;-5.4540;
759.6000;0.6390;-5.4462;
759.9000;0.6406;-5.4436;
760.2000;0.6317;-5.4643;
760.5000;0.6382;-5.4462;
760.8000;0.6333;-5.4566;
761.1000;0.6382;-5.4540;
761.4000;0.6382;-5.4566;
761.7000;0.6382;-5.4618;
762.0000;0.6374;-5.4592;
762.3000;0.6382;-5.4540;
762.6000;0.6365;-5.4514;
762.9000;0.6365;-5.4540;
763.2000;0.6365;-5.4514;
763.5000;0.6390;-5.4514;
763.8000;0.6390;-5.4384;
764.1000;0.6390;-5.4384;
764.4000;0.6365;-5.4514;
764.7000;0.6374;-5.4488;
765.0000;0.6382;-5.4566;
765.3000;0.6365;-5.4592;
765.6000;0.6357;-5.4514;
765.9000;0.6374;-5.4514;
766.2000;0.6382;-5.4436;
766.5000;0.6382;-5.4462;
766.8000;0.6374;-5.4462;
767.1000;0.6365;-5.4410;
767.4000;0.6365;-5.4410;
767.7000;0.6390;-5.4410;
768.0000;0.6317;-5.4488;
768.3000;0.6341;-5.4384;
768.6000;0.6349;-5.4358;
768.9000;0.6349;-5.4358;
769.2000;0.6349;-5.4410;
769.5000;0.6357;-5.4462;
769.8000;0.6309;-5.4540;
770.1000;0.6357;-5.4332;
770.4000;0.6374;-5.4306;
770.7000;0.6414;-5.4280;
771.0000;0.6374;-5.4358;
771.3000;0.6357;-5.4462;
771.6000;0.6341;-5.4488;
771.9000;0.6341;-5.4540;
772.2000;0.6374;-5.4540;
772.5000;0.6349;-5.4540;
772.8000;0.6341;-5.4566;
773.1000;0.6349;-5.4488;
773.4000;0.6333;-5.4436;
773.7000;0.6325;-5.4488;
774.0000;0.6317;-5.4488;
774.3000;0.6300;-5.4488;
774.6000;0.6333;-5.4436;
774.9000;0.6317;-5.4488;
775.2000;0.6349;-5.4436;
775.5000;0.6341;-5.4410;
775.8000;0.6365;-5.4228;
776.1000;0.6325;-5.4358;
776.4000;0.6357;-5.4203;
776.7000;0.6300;-5.4306;
777.0000;0.6284;-5.4332;
777.3000;0.6349;-5.4280;
777.6000;0.6325;-5.4384;
777.9000;0.6325;-5.4436;
778.2000;0.6309;-5.4462;
778.5000;0.6325;-5.4462;
778.8000;0.6317;-5.4436;
779.1000;0.6382;-5.4228;
779.4000;0.6317;-5.4332;
779.7000;0.6382;-5.4047;
780.0000;0.6292;-5.4306;
780.3000;0.6333;-5.4177;
780.6000;0.6349;-5.4151;
780.9000;0.6325;-5.4306;
781.2000;0.6325;-5.4280;
781.5000;0.6292;-5.4358;
781.8000;0.6317;-5.4306;
782.1000;0.6309;-5.4280;
782.4000;0.6300;-5.4306;
782.7000;0.6317;-5.4203;
783.0000;0.6300;-5.4228;
783.3000;0.6309;-5.4254;
783.6000;0.6300;-5.4306;
783.9000;0.6292;-5.4332;
784.2000;0.6317;-5.4254;
784.5000;0.6317;-5.4203;
784.8000;0.6309;-5.4254;
785.1000;0.6309;-5.4306;
785.4000;0.6382;-5.4177;
785.7000;0.6325;-5.4254;
786.0000;0.6300;-5.4332;
786.3000;0.6300;-5.4384;
786.6000;0.6309;-5.4306;
786.9000;0.6309;-5.4306;
787.2000;0.6309;-5.4254;
787.5000;0.6284;-5.4332;
787.8000;0.6300;-5.4280;
788.1000;0.6292;-5.4280;
788.4000;0.6292;-5.4280;
788.7000;0.6284;-5.4280;
789.0000;0.6284;-5.4203;
789.3000;0.6325;-5.4151;
789.6000;0.6284;-5.4228;
789.9000;0.6300;-5.4228;
790.2000;0.6276;-5.4306;
790.5000;0.6300;-5.4280;
790.8000;0.6349;-5.4099;
791.1000;0.6260;-5.4254;
791.4000;0.6300;-5.4280;
791.7000;0.6309;-5.4306;
792.0000;0.6284;-5.4410;
792.3000;0.6284;-5.4462;
792.6000;0.6276;-5.4462;
792.9000;0.6300;-5.4462;
793.2000;0.6276;-5.4410;
793.5000;0.6243;-5.4540;
793.8000;0.6300;-5.4488;
794.1000;0.6284;-5.4592;
794.4000;0.6268;-5.4540;
794.7000;0.6243;-5.4462;
795.0000;0.6284;-5.4358;
795.3000;0.6284;-5.4332;
795.6000;0.6276;-5.4384;
795.9000;0.6284;-5.4384;
796.2000;0.6268;-5.4358;
796.5000;0.6276;-5.4358;
796.8000;0.6284;-5.4280;
797.1000;0.6276;-5.4280;
797.4000;0.6260;-5.4280;
797.7000;0.6268;-5.4358;
798.0000;0.6268;-5.4410;
798.3000;0.6260;-5.4332;
798.6000;0.6268;-5.4332;
798.9000;0.6252;-5.4280;
799.2000;0.6252;-5.4254;
799.5000;0.6268;-5.4254;
799.8000;0.6235;-5.4306;
800.1000;0.6300;-5.4177;
800.4000;0.6211;-5.4436;
800.7000;0.6268;-5.4280;
801.0000;0.6243;-5.4332;
801.3000;0.6268;-5.4228;
801.6000;0.6227;-5.4280;
801.9000;0.6252;-5.4203;
802.2000;0.6260;-5.4203;
802.5000;0.6243;-5.4151;
802.8000;0.6243;-5.4228;
803.1000;0.6260;-5.4203;
803.4000;0.6252;-5.4177;
803.7000;0.6243;-5.4228;
804.0000;0.6235;-5.4203;
804.3000;0.6260;-5.4203;
804.6000;0.6252;-5.4099;
804.9000;0.6252;-5.4099;
805.2000;0.6268;-5.4073;
805.5000;0.6227;-5.4254;
805.8000;0.6235;-5.4203;
806.1000;0.6235;-5.4177;
806.4000;0.6243;-5.4254;
806.7000;0.6227;-5.4306;
807.0000;0.6252;-5.4280;
807.3000;0.6243;-5.4306;
807.6000;0.6227;-5.4384;
807.9000;0.6211;-5.4410;
808.2000;0.6219;-5.4410;
808.5000;0.6235;-5.4280;
808.8000;0.6235;-5.4254;
809.1000;0.6235;-5.4280;
809.4000;0.6252;-5.4254;
809.7000;0.6276;-5.4151;
810.0000;0.6227;-5.4306;
810.3000;0.6243;-5.4332;
810.6000;0.6219;-5.4306;
810.9000;0.6243;-5.4306;
811.2000;0.6219;-5.4384;
811.5000;0.6195;-5.4410;
811.8000;0.6203;-5.4436;
812.1000;0.6235;-5.4358;
812.4000;0.6227;-5.4358;
812.7000;0.6219;-5.4358;
813.0000;0.6178;-5.4410;
813.3000;0.6211;-5.4254;
813.6000;0.6227;-5.4203;
813.9000;0.6203;-5.4228;
814.2000;0.6227;-5.4151;
814.5000;0.6227;-5.4125;
814.8000;0.6227;-5.4099;
815.1000;0.6235;-5.4177;
815.4000;0.6243;-5.4151;
815.7000;0.6235;-5.4073;
816.0000;0.6211;-5.4125;
816.3000;0.6219;-5.4099;
816.6000;0.6227;-5.4073;
816.9000;0.6219;-5.4047;
817.2000;0.6235;-5.3995;
817.5000;0.6252;-5.4021;
817.8000;0.6227;-5.4047;
818.1000;0.6227;-5.4099;
818.4000;0.6203;-5.4073;
818.7000;0.6235;-5.3943;
819.0000;0.6235;-5.4021;
819.3000;0.6211;-5.4099;
819.6000;0.6203;-5.4151;
819.9000;0.6227;-5.4203;
820.2000;0.6211;-5.4177;
820.5000;0.6203;-5.4254;
820.8000;0.6211;-5.4151;
821.1000;0.6211;-5.4151;
821.4000;0.6203;-5.4151;
821.7000;0.6186;-5.4228;
822.0000;0.6211;-5.4203;
822.3000;0.6211;-5.4177;
822.6000;0.6219;-5.4254;
822.9000;0.6203;-5.4306;
823.2000;0.6203;-5.4306;
823.5000;0.6203;-5.4254;
823.8000;0.6195;-5.4306;
824.1000;0.6203;-5.4306;
824.4000;0.6203;-5.4280;
824.7000;0.6178;-5.4280;
825.0000;0.6203;-5.4306;
825.3000;0.6211;-5.4203;
825.6000;0.6203;-5.4228;
825.9000;0.6178;-5.4254;
826.2000;0.6195;-5.4306;
826.5000;0.6203;-5.4280;
826.8000;0.6203;-5.4410;
827.1000;0.6211;-5.4410;
827.4000;0.6203;-5.4332;
827.7000;0.6203;-5.4384;
828.0000;0.6211;-5.4332;
828.3000;0.6170;-5.4358;
828.6000;0.6203;-5.4280;
828.9000;0.6203;-5.4332;
829.2000;0.6252;-5.4280;
829.5000;0.6186;-5.4462;
829.8000;0.6203;-5.4332;
830.1000;0.6186;-5.4306;
830.4000;0.6186;-5.4280;
830.7000;0.6203;-5.4280;
831.0000;0.6186;-5.4306;
831.3000;0.6178;-5.4280;
831.6000;0.6195;-5.4306;
831.9000;0.6195;-5.4306;
832.2000;0.6195;-5.4254;
832.5000;0.6203;-5.4177;
832.8000;0.6195;-5.4177;
833.1000;0.6203;-5.4203;
833.4000;0.6186;-5.4151;
833.7000;0.6178;-5.4151;
834.0000;0.6178;-5.4151;
834.3000;0.6178;-5.4203;
834.6000;0.6186;-5.4332;
834.9000;0.6186;-5.4332;
835.2000;0.6186;-5.4254;
835.5000;0.6203;-5.4280;
835.8000;0.6162;-5.4358;
836.1000;0.6170;-5.4306;
836.4000;0.6162;-5.4203;
836.7000;0.6170;-5.4177;
837.0000;0.6178;-5.4177;
837.3000;0.6170;-5.4228;
837.6000;0.6178;-5.4332;
837.9000;0.6203;-5.4228;
838.2000;0.6170;-5.4306;
838.5000;0.6170;-5.4332;
838.8000;0.6170;-5.4280;
839.1000;0.6113;-5.4332;
839.4000;0.6186;-5.4151;
839.7000;0.6154;-5.4203;
840.0000;0.6154;-5.4203;
840.3000;0.6154;-5.4228;
840.6000;0.6089;-5.4410;
840.9000;0.6154;-5.4254;
841.2000;0.6154;-5.4254;
841.5000;0.6154;-5.4358;
841.8000;0.6170;-5.4280;
842.1000;0.6170;-5.4306;
842.4000;0.6154;-5.4280;
842.7000;0.6170;-5.4280;
843.0000;0.6170;-5.4203;
843.3000;0.6186;-5.4151;
843.6000;0.6178;-5.4203;
843.9000;0.6162;-5.4254;
844.2000;0.6170;-5.4177;
844.5000;0.6170;-5.4203;
844.8000;0.6154;-5.4151;
845.1000;0.6162;-5.4099;
845.4000;0.6170;-5.4177;
845.7000;0.6186;-5.4177;
846.0000;0.6178;-5.4203;
846.3000;0.6162;-5.4254;
846.6000;0.6138;-5.4280;
846.9000;0.6146;-5.4177;
847.2000;0.6097;-5.4254;
847.5000;0.6154;-5.4073;
847.8000;0.6154;-5.4125;
848.1000;0.6227;-5.3943;
848.4000;0.6138;-5.4306;
848.7000;0.6170;-5.4306;
849.0000;0.6146;-5.4280;
849.3000;0.6170;-5.4280;
849.6000;0.6186;-5.4280;
849.9000;0.6154;-5.4462;
850.2000;0.6154;-5.4436;
850.5000;0.6146;-5.4332;
850.8000;0.6154;-5.4358;
851.1000;0.6154;-5.4306;
851.4000;0.6146;-5.4254;
851.7000;0.6138;-5.4254;
852.0000;0.6138;-5.4203;
852.3000;0.6097;-5.4177;
852.6000;0.6113;-5.4073;
852.9000;0.6154;-5.4021;
853.2000;0.6121;-5.4151;
853.5000;0.6138;-5.4177;
853.8000;0.6146;-5.4177;
854.1000;0.6129;-5.4151;
854.4000;0.6154;-5.4073;
854.7000;0.6146;-5.4177;
855.0000;0.6129;-5.4151;
855.3000;0.6219;-5.3917;
855.6000;0.6186;-5.3891;
855.9000;0.6154;-5.3969;
856.2000;0.6162;-5.4073;
856.5000;0.6154;-5.4047;
856.8000;0.6129;-5.3995;
857.1000;0.6113;-5.4047;
857.4000;0.6129;-5.4047;
857.7000;0.6154;-5.3995;
858.0000;0.6146;-5.3995;
858.3000;0.6146;-5.3969;
858.6000;0.6113;-5.3943;
858.9000;0.6129;-5.3839;
859.2000;0.6146;-5.3762;
859.5000;0.6146;-5.3814;
859.8000;0.6154;-5.3839;
860.1000;0.6129;-5.3917;
860.4000;0.6129;-5.3865;
860.7000;0.6146;-5.3814;
861.0000;0.6138;-5.3839;
861.3000;0.6129;-5.3969;
861.6000;0.6121;-5.3995;
861.9000;0.6089;-5.4073;
862.2000;0.6121;-5.3969;
862.5000;0.6138;-5.3917;
862.8000;0.6129;-5.3969;
863.1000;0.6129;-5.3865;
863.4000;0.6121;-5.3917;
863.7000;0.6081;-5.4125;
864.0000;0.6146;-5.4021;
864.3000;0.6129;-5.4021;
864.6000;0.6105;-5.4073;
864.9000;0.6146;-5.3891;
865.2000;0.6121;-5.3917;
865.5000;0.6138;-5.3969;
865.8000;0.6121;-5.4047;
866.1000;0.6138;-5.4125;
866.4000;0.6121;-5.4151;
866.7000;0.6121;-5.4177;
867.0000;0.6105;-5.4203;
867.3000;0.6113;-5.4099;
867.6000;0.6129;-5.4047;
867.9000;0.6097;-5.4099;
868.2000;0.6113;-5.4021;
868.5000;0.6097;-5.4099;
868.8000;0.6121;-5.3995;
869.1000;0.6129;-5.3995;
869.4000;0.6178;-5.3865;
869.7000;0.6129;-5.3943;
870.0000;0.6146;-5.3814;
870.3000;0.6162;-5.3865;
870.6000;0.6097;-5.4073;
870.9000;0.6219;-5.3762;
871.2000;0.6121;-5.4021;
871.5000;0.6121;-5.4073;
871.8000;0.6105;-5.4099;
872.1000;0.6121;-5.3995;
872.4000;0.6154;-5.3995;
872.7000;0.6105;-5.4099;
873.0000;0.6089;-5.4125;
873.3000;0.6121;-5.4125;
873.6000;0.6113;-5.4073;
873.9000;0.6105;-5.4099;
874.2000;0.6138;-5.4047;
874.5000;0.6105;-5.4125;
874.8000;0.6121;-5.3995;
875.1000;0.6129;-5.3917;
875.4000;0.6146;-5.3865;
875.7000;0.6105;-5.4021;
876.0000;0.6129;-5.4099;
876.3000;0.6113;-5.4177;
876.6000;0.6105;-5.4151;
876.9000;0.6121;-5.4073;
877.2000;0.6129;-5.3995;
877.5000;0.6097;-5.3969;
877.8000;0.6105;-5.3917;
878.1000;0.6113;-5.3917;
878.4000;0.6056;-5.4177;
878.7000;0.6121;-5.4073;
879.0000;0.6105;-5.4099;
879.3000;0.6097;-5.4073;
879.6000;0.6089;-5.4125;
879.9000;0.6064;-5.4125;
880.2000;0.6121;-5.3943;
880.5000;0.6097;-5.3995;
880.8000;0.6105;-5.3995;
881.1000;0.6072;-5.4073;
881.4000;0.6097;-5.3995;
881.7000;0.6105;-5.4021;
882.0000;0.6113;-5.4099;
882.3000;0.6089;-5.4151;
882.6000;0.6105;-5.4125;
882.9000;0.6138;-5.4021;
883.2000;0.6097;-5.4203;
883.5000;0.6105;-5.4151;
883.8000;0.6113;-5.4047;
884.1000;0.6129;-5.4047;
884.4000;0.6097;-5.4151;
884.7000;0.6097;-5.4151;
885.0000;0.6113;-5.4099;
885.3000;0.6105;-5.4125;
885.6000;0.6089;-5.4151;
885.9000;0.6056;-5.4306;
886.2000;0.6097;-5.4203;
886.5000;0.6113;-5.4099;
886.8000;0.6146;-5.3969;
887.1000;0.6097;-5.4073;
887.4000;0.6081;-5.4125;
887.7000;0.6097;-5.4099;
888.0000;0.6162;-5.3917;
888.3000;0.6089;-5.4099;
888.6000;0.6129;-5.3969;
888.9000;0.6081;-5.4047;
889.2000;0.6129;-5.3969;
889.5000;0.6105;-5.3943;
889.8000;0.6129;-5.3891;
890.1000;0.6097;-5.3865;
890.4000;0.6113;-5.3788;
890.7000;0.6081;-5.3943;
891.0000;0.6089;-5.3995;
891.3000;0.6121;-5.3969;
891.6000;0.6105;-5.3995;
891.9000;0.6105;-5.4021;
892.2000;0.6089;-5.4047;
892.5000;0.6089;-5.4125;
892.8000;0.6089;-5.4047;
893.1000;0.6089;-5.4047;
893.4000;0.6089;-5.4073;
893.7000;0.6081;-5.4073;
894.0000;0.6097;-5.4047;
894.3000;0.6170;-5.3891;
894.6000;0.6097;-5.4099;
894.9000;0.6113;-5.4073;
895.2000;0.6162;-5.4047;
895.5000;0.6097;-5.4228;
895.8000;0.6097;-5.4228;
896.1000;0.6089;-5.4228;
896.4000;0.6146;-5.4021;
896.7000;0.6113;-5.4099;
897.0000;0.6072;-5.4099;
897.3000;0.6064;-5.4151;
897.6000;0.6081;-5.4177;
897.9000;0.6081;-5.4151;
898.2000;0.6081;-5.4099;
898.5000;0.6081;-5.4151;
898.8000;0.6081;-5.4073;
899.1000;0.6097;-5.3995;
899.4000;0.6089;-5.3943;
899.7000;0.6097;-5.3943;
900.0000;0.6097;-5.4073;
900.3000;0.6056;-5.4151;
900.6000;0.6105;-5.4125;
900.9000;0.6081;-5.4177;
901.2000;0.6081;-5.4177;
901.5000;0.6081;-5.4254;
901.8000;0.6081;-5.4280;
902.1000;0.6081;-5.4228;
902.4000;0.6072;-5.4280;
902.7000;0.6081;-5.4228;
903.0000;0.6089;-5.4203;
903.3000;0.6097;-5.4125;
903.6000;0.6089;-5.4177;
903.9000;0.6097;-5.4203;
904.2000;0.6089;-5.4099;
904.5000;0.6081;-5.4125;
904.8000;0.6081;-5.4125;
905.1000;0.6072;-5.4203;
905.4000;0.6072;-5.4125;
905.7000;0.6089;-5.4047;
906.0000;0.6089;-5.4073;
906.3000;0.6072;-5.4073;
906.6000;0.6072;-5.4073;
906.9000;0.6072;-5.4047;
907.2000;0.6081;-5.4021;
907.5000;0.6081;-5.3995;
907.8000;0.6072;-5.3917;
908.1000;0.6072;-5.3917;
908.4000;0.6064;-5.3969;
908.7000;0.6081;-5.3917;
909.0000;0.6072;-5.3995;
909.3000;0.6056;-5.4047;
909.6000;0.6081;-5.3995;
909.9000;0.6121;-5.3943;
910.2000;0.6032;-5.4203;
910.5000;0.6097;-5.4073;
910.8000;0.6081;-5.3995;
911.1000;0.6081;-5.4021;
911.4000;0.6081;-5.3995;
911.7000;0.6072;-5.3891;
912.0000;0.6072;-5.3969;
912.3000;0.6081;-5.3917;
912.6000;0.6072;-5.4021;
912.9000;0.6072;-5.4047;
913.2000;0.6081;-5.4151;
913.5000;0.6072;-5.4203;
913.8000;0.6072;-5.4151;
914.1000;0.6064;-5.4228;
914.4000;0.6081;-5.4203;
914.7000;0.6015;-5.4306;
915.0000;0.6072;-5.4099;
915.3000;0.6064;-5.4099;
915.6000;0.6072;-5.4099;
915.9000;0.6081;-5.3969;
916.2000;0.6113;-5.3995;
916.5000;0.6040;-5.4177;
916.8000;0.6064;-5.4073;
917.1000;0.6056;-5.4073;
917.4000;0.6064;-5.4125;
917.7000;0.6056;-5.4125;
918.0000;0.6089;-5.3969;
918.3000;0.6072;-5.4047;
918.6000;0.6024;-5.4125;
918.9000;0.6072;-5.4177;
919.2000;0.6064;-5.4203;
919.5000;0.6048;-5.4228;
919.8000;0.6081;-5.4125;
920.1000;0.6064;-5.4099;
920.4000;0.6024;-5.4125;
920.7000;0.6064;-5.4099;
921.0000;0.6064;-5.4125;
921.3000;0.6040;-5.4203;
921.6000;0.6032;-5.4125;
921.9000;0.6048;-5.4073;
922.2000;0.6072;-5.4021;
922.5000;0.6048;-5.4151;
922.8000;0.6040;-5.4125;
923.1000;0.6064;-5.4021;
923.4000;0.6048;-5.4099;
923.7000;0.6064;-5.4047;
924.0000;0.6048;-5.4203;
924.3000;0.6024;-5.4306;
924.6000;0.6105;-5.4099;
924.9000;0.6056;-5.4099;
925.2000;0.6040;-5.4073;
925.5000;0.6048;-5.3969;
925.8000;0.5975;-5.4254;
926.1000;0.6056;-5.4021;
926.4000;0.6105;-5.3865;
926.7000;0.6048;-5.3891;
927.0000;0.6056;-5.3839;
927.3000;0.6032;-5.3891;
927.6000;0.6048;-5.3865;
927.9000;0.6072;-5.3839;
928.2000;0.6064;-5.3865;
928.5000;0.6056;-5.3891;
928.8000;0.6105;-5.3710;
929.1000;0.6072;-5.3788;
929.4000;0.6048;-5.3865;
929.7000;0.6056;-5.3839;
930.0000;0.6048;-5.3891;
930.3000;0.6040;-5.3891;
930.6000;0.6056;-5.3891;
930.9000;0.6048;-5.4021;
931.2000;0.6032;-5.4073;
931.5000;0.6072;-5.4047;
931.8000;0.6048;-5.4125;
932.1000;0.6048;-5.4177;
932.4000;0.6064;-5.4151;
932.7000;0.6032;-5.4177;
933.0000;0.6040;-5.4125;
933.3000;0.6040;-5.3969;
933.6000;0.6048;-5.3917;
933.9000;0.5999;-5.4125;
934.2000;0.6048;-5.3943;
934.5000;0.6024;-5.3943;
934.8000;0.6024;-5.3943;
935.1000;0.6032;-5.3943;
935.4000;0.6040;-5.3865;
935.7000;0.6048;-5.3814;
936.0000;0.6040;-5.3839;
936.3000;0.6089;-5.3658;
936.6000;0.6056;-5.3762;
936.9000;0.6024;-5.3762;
937.2000;0.6024;-5.3788;
937.5000;0.6032;-5.3839;
937.8000;0.6040;-5.3891;
938.1000;0.6064;-5.3839;
938.4000;0.6040;-5.3865;
938.7000;0.6048;-5.3917;
939.0000;0.6048;-5.3814;
939.3000;0.5999;-5.4021;
939.6000;0.6048;-5.3814;
939.9000;0.6040;-5.3839;
940.2000;0.5999;-5.3865;
940.5000;0.6048;-5.3710;
940.8000;0.6032;-5.3814;
941.1000;0.6024;-5.3814;
941.4000;0.6064;-5.3658;
941.7000;0.6007;-5.3762;
942.0000;0.6040;-5.3580;
942.3000;0.6072;-5.3502;
942.6000;0.6048;-5.3632;
942.9000;0.6048;-5.3606;
943.2000;0.6040;-5.3658;
943.5000;0.6032;-5.3788;
943.8000;0.6024;-5.3969;
944.1000;0.6032;-5.3917;
944.4000;0.6040;-5.3865;
944.7000;0.6024;-5.3814;
945.0000;0.6040;-5.3839;
945.3000;0.6040;-5.3762;
945.6000;0.6048;-5.3788;
945.9000;0.6048;-5.3736;
946.2000;0.6081;-5.3736;
946.5000;0.6048;-5.3839;
946.8000;0.6040;-5.3710;
947.1000;0.6040;-5.3684;
947.4000;0.6032;-5.3736;
947.7000;0.6040;-5.3684;
948.0000;0.6048;-5.3684;
948.3000;0.6040;-5.3710;
948.6000;0.6040;-5.3632;
948.9000;0.6032;-5.3684;
949.2000;0.6048;-5.3762;
949.5000;0.6032;-5.3788;
949.8000;0.6032;-5.3684;
950.1000;0.6024;-5.3710;
950.4000;0.6040;-5.3736;
950.7000;0.6129;-5.3554;
951.0000;0.6056;-5.3684;
951.3000;0.6015;-5.3762;
951.6000;0.6024;-5.3710;
951.9000;0.6024;-5.3788;
952.2000;0.6024;-5.3762;
952.5000;0.6040;-5.3710;
952.8000;0.6032;-5.3788;
953.1000;0.6056;-5.3736;
953.4000;0.6024;-5.3762;
953.7000;0.6089;-5.3658;
954.0000;0.6024;-5.3788;
954.3000;0.6040;-5.3788;
954.6000;0.6024;-5.3814;
954.9000;0.6015;-5.3814;
955.2000;0.6024;-5.3814;
955.5000;0.6032;-5.3839;
955.8000;0.5999;-5.3865;
956.1000;0.5999;-5.3917;
956.4000;0.6024;-5.3814;
956.7000;0.6007;-5.3917;
957.0000;0.6040;-5.3762;
957.3000;0.6040;-5.3762;
957.6000;0.6032;-5.3865;
957.9000;0.6032;-5.3865;
958.2000;0.6024;-5.3865;
958.5000;0.5999;-5.3917;
958.8000;0.6015;-5.3839;
959.1000;0.6007;-5.3865;
959.4000;0.6040;-5.3891;
959.7000;0.5975;-5.4047;
960.0000;0.6024;-5.3995;
960.3000;0.6007;-5.4047;
960.6000;0.6024;-5.3995;
960.9000;0.5999;-5.3969;
961.2000;0.6015;-5.3969;
961.5000;0.6007;-5.3943;
961.8000;0.5999;-5.4021;
962.1000;0.6048;-5.3917;
962.4000;0.6015;-5.4047;
962.7000;0.6024;-5.3995;
963.0000;0.6040;-5.3943;
963.3000;0.5942;-5.4228;
963.6000;0.6015;-5.3995;
963.9000;0.5983;-5.4073;
964.2000;0.6040;-5.3969;
964.5000;0.5983;-5.4125;
964.8000;0.6015;-5.3943;
965.1000;0.6024;-5.3865;
965.4000;0.5991;-5.3943;
965.7000;0.5991;-5.3943;
966.0000;0.6007;-5.3969;
966.3000;0.5910;-5.4151;
966.6000;0.5999;-5.3891;
966.9000;0.6024;-5.3839;
967.2000;0.6024;-5.3736;
967.5000;0.6048;-5.3580;
967.8000;0.5999;-5.3710;
968.1000;0.6007;-5.3684;
968.4000;0.6032;-5.3684;
968.7000;0.5967;-5.3865;
969.0000;0.6015;-5.3839;
969.3000;0.6056;-5.3839;
969.6000;0.6024;-5.3917;
969.9000;0.6032;-5.3943;
970.2000;0.5975;-5.4125;
970.5000;0.6015;-5.3995;
970.8000;0.6040;-5.3891;
971.1000;0.6032;-5.3917;
971.4000;0.6015;-5.3969;
971.7000;0.6015;-5.4021;
972.0000;0.5991;-5.3995;
972.3000;0.6015;-5.3917;
972.6000;0.5999;-5.3891;
972.9000;0.5999;-5.3917;
973.2000;0.6040;-5.3865;
973.5000;0.5983;-5.3917;
973.8000;0.5999;-5.3891;
974.1000;0.6015;-5.3865;
974.4000;0.6015;-5.3788;
974.7000;0.5999;-5.3788;
975.0000;0.6024;-5.3710;
975.3000;0.5991;-5.3814;
975.6000;0.5999;-5.3814;
975.9000;0.6007;-5.3839;
976.2000;0.5991;-5.3943;
976.5000;0.5991;-5.3917;
976.8000;0.5983;-5.3943;
977.1000;0.5934;-5.4099;
977.4000;0.6007;-5.3943;
977.7000;0.6007;-5.3995;
978.0000;0.5999;-5.4021;
978.3000;0.5999;-5.3969;
978.6000;0.6015;-5.3943;
978.9000;0.5999;-5.3969;
979.2000;0.6024;-5.3917;
979.5000;0.5975;-5.4021;
979.8000;0.6015;-5.3995;
980.1000;0.6024;-5.3995;
980.4000;0.6015;-5.4073;
980.7000;0.6007;-5.4177;
981.0000;0.6040;-5.4099;
981.3000;0.6015;-5.4203;
981.6000;0.6007;-5.4073;
981.9000;0.5950;-5.4203;
982.2000;0.6007;-5.4099;
982.5000;0.6007;-5.4203;
982.8000;0.6015;-5.4228;
983.1000;0.6007;-5.4228;
983.4000;0.6015;-5.4177;
983.7000;0.6015;-5.4099;
984.0000;0.5983;-5.4151;
984.3000;0.6007;-5.4099;
984.6000;0.5983;-5.4203;
984.9000;0.6048;-5.3969;
985.2000;0.6007;-5.3995;
985.5000;0.5991;-5.3995;
985.8000;0.6015;-5.3839;
986.1000;0.6007;-5.3788;
986.4000;0.5950;-5.3943;
986.7000;0.6007;-5.3891;
987.0000;0.5983;-5.3969;
987.3000;0.5983;-5.3917;
987.6000;0.5967;-5.4099;
987.9000;0.5975;-5.4047;
988.2000;0.5991;-5.3969;
988.5000;0.6032;-5.3891;
988.8000;0.6007;-5.3917;
989.1000;0.5999;-5.3943;
989.4000;0.6007;-5.3995;
989.7000;0.6007;-5.3969;
990.0000;0.5983;-5.4021;
990.3000;0.5967;-5.4099;
990.6000;0.5999;-5.4047;
990.9000;0.5991;-5.4021;
991.2000;0.5983;-5.4099;
991.5000;0.6040;-5.3891;
991.8000;0.5999;-5.3814;
992.1000;0.5991;-5.3943;
992.4000;0.5999;-5.3943;
992.7000;0.6007;-5.3995;
993.0000;0.5991;-5.4021;
993.3000;0.6007;-5.3917;
993.6000;0.6007;-5.3969;
993.9000;0.6007;-5.4021;
994.2000;0.6040;-5.3839;
994.5000;0.6007;-5.3995;
994.8000;0.5999;-5.4047;
995.1000;0.6048;-5.3969;
995.4000;0.5999;-5.4021;
995.7000;0.5926;-5.4177;
996.0000;0.5991;-5.4047;
996.3000;0.5983;-5.4125;
996.6000;0.5991;-5.4099;
996.9000;0.5975;-5.4177;
997.2000;0.5991;-5.4177;
997.5000;0.5991;-5.4151;
997.8000;0.5958;-5.4254;
998.1000;0.5983;-5.4047;
998.4000;0.5983;-5.4047;
998.7000;0.5958;-5.4177;
999.0000;0.6007;-5.4151;
999.3000;0.5983;-5.4099;
999.6000;0.5983;-5.4177;
999.9000;0.5983;-5.4151;
1000.2000;0.6032;-5.4073;
1000.5000;0.5983;-5.4151;
1000.8000;0.5910;-5.4254;
1001.1000;0.6015;-5.4099;
1001.4000;0.6024;-5.4099;
1001.7000;0.5975;-5.4073;
1002.0000;0.5934;-5.4125;
1002.3000;0.5991;-5.4099;
1002.6000;0.5999;-5.4177;
1002.9000;0.6040;-5.4047;
1003.2000;0.5999;-5.4047;
1003.5000;0.5991;-5.4099;
1003.8000;0.6024;-5.4021;
1004.1000;0.5999;-5.4151;
1004.4000;0.5991;-5.4228;
1004.7000;0.6015;-5.4125;
1005.0000;0.5999;-5.4125;
1005.3000;0.5999;-5.4254;
1005.6000;0.5991;-5.4228;
1005.9000;0.5999;-5.4177;
1006.2000;0.5975;-5.4254;
1006.5000;0.5975;-5.4177;
1006.8000;0.5975;-5.4125;
1007.1000;0.5983;-5.4073;
1007.4000;0.5975;-5.4073;
1007.7000;0.5950;-5.4125;
1008.0000;0.5991;-5.3969;
1008.3000;0.5958;-5.3891;
1008.6000;0.5983;-5.3865;
1008.9000;0.5983;-5.3839;
1009.2000;0.5999;-5.3788;
1009.5000;0.5991;-5.3865;
1009.8000;0.6007;-5.3839;
1010.1000;0.6007;-5.3865;
1010.4000;0.5999;-5.3891;
1010.7000;0.5975;-5.3917;
1011.0000;0.5967;-5.4021;
1011.3000;0.5983;-5.4047;
1011.6000;0.5975;-5.3995;
1011.9000;0.5983;-5.3943;
1012.2000;0.5967;-5.3943;
1012.5000;0.5999;-5.3865;
1012.8000;0.5991;-5.3943;
1013.1000;0.5983;-5.3969;
1013.4000;0.5918;-5.4125;
1013.7000;0.5991;-5.3943;
1014.0000;0.5991;-5.3891;
1014.3000;0.6040;-5.3710;
1014.6000;0.5999;-5.3865;
1014.9000;0.5991;-5.3917;
1015.2000;0.5999;-5.3891;
1015.5000;0.6007;-5.3943;
1015.8000;0.5983;-5.3969;
1016.1000;0.5991;-5.3917;
1016.4000;0.5926;-5.4021;
1016.7000;0.5958;-5.3891;
1017.0000;0.5983;-5.3917;
1017.3000;0.5975;-5.3943;
1017.6000;0.5983;-5.3865;
1017.9000;0.5934;-5.3891;
1018.2000;0.5991;-5.3736;
1018.5000;0.5991;-5.3814;
1018.8000;0.5967;-5.3969;
1019.1000;0.5975;-5.3995;
1019.4000;0.6007;-5.3969;
1019.7000;0.5991;-5.4073;
1020.0000;0.5983;-5.4125;
1020.3000;0.5983;-5.4177;
1020.6000;0.5967;-5.4177;
1020.9000;0.6015;-5.4073;
1021.2000;0.5983;-5.4125;
1021.5000;0.5975;-5.4125;
1021.8000;0.5967;-5.4125;
1022.1000;0.5991;-5.4047;
1022.4000;0.5991;-5.3969;
1022.7000;0.5861;-5.4228;
1023.0000;0.6032;-5.3788;
1023.3000;0.5967;-5.3943;
1023.6000;0.5975;-5.4047;
1023.9000;0.5910;-5.3995;
1024.2000;0.5967;-5.3839;
1024.5000;0.5983;-5.3891;
1024.8000;0.5983;-5.3865;
1025.1000;0.5975;-5.3917;
1025.4000;0.5975;-5.3865;
1025.7000;0.5967;-5.3865;
1026.0000;0.5975;-5.3839;
1026.3000;0.5983;-5.3814;
1026.6000;0.5950;-5.3891;
1026.9000;0.5999;-5.3814;
1027.2000;0.5942;-5.3995;
1027.5000;0.5958;-5.3891;
1027.8000;0.5958;-5.3917;
1028.1000;0.5967;-5.3891;
1028.4000;0.5967;-5.3917;
1028.7000;0.5983;-5.3839;
1029.0000;0.5950;-5.3995;
1029.3000;0.5926;-5.4047;
1029.6000;0.5983;-5.4021;
1029.9000;0.6024;-5.3865;
1030.2000;0.5975;-5.3865;
1030.5000;0.5999;-5.3943;
1030.8000;0.5975;-5.3943;
1031.1000;0.5991;-5.3917;
1031.4000;0.5991;-5.3943;
1031.7000;0.5983;-5.4021;
1032.0000;0.5975;-5.4073;
1032.3000;0.6024;-5.3891;
1032.6000;0.5934;-5.4021;
1032.9000;0.5958;-5.3943;
1033.2000;0.6032;-5.3814;
1033.5000;0.5983;-5.3969;
1033.8000;0.5967;-5.4047;
1034.1000;0.5983;-5.4021;
1034.4000;0.5975;-5.3995;
1034.7000;0.5983;-5.3917;
1035.0000;0.5958;-5.3995;
1035.3000;0.5983;-5.3943;
1035.6000;0.5975;-5.3917;
1035.9000;0.5958;-5.3943;
1036.2000;0.5975;-5.3891;
1036.5000;0.5967;-5.3891;
1036.8000;0.5983;-5.3865;
1037.1000;0.5926;-5.3995;
1037.4000;0.5991;-5.3736;
1037.7000;0.5975;-5.3814;
1038.0000;0.5967;-5.3891;
1038.3000;0.5975;-5.3865;
1038.6000;0.5950;-5.3865;
1038.9000;0.5950;-5.3788;
1039.2000;0.6024;-5.3632;
1039.5000;0.5958;-5.3736;
1039.8000;0.5950;-5.3814;
1040.1000;0.5958;-5.3814;
1040.4000;0.5967;-5.3865;
1040.7000;0.5958;-5.3865;
1041.0000;0.5975;-5.3891;
1041.3000;0.5958;-5.3943;
1041.6000;0.5983;-5.3917;
1041.9000;0.5942;-5.4021;
1042.2000;0.5958;-5.3995;
1042.5000;0.5967;-5.4021;
1042.8000;0.5967;-5.4073;
1043.1000;0.5958;-5.4125;
1043.4000;0.5967;-5.4099;
1043.7000;0.5967;-5.4099;
1044.0000;0.5967;-5.4125;
1044.3000;0.5958;-5.4125;
1044.6000;0.5958;-5.4021;
1044.9000;0.5967;-5.3969;
1045.2000;0.5975;-5.3943;
1045.5000;0.5967;-5.3943;
1045.8000;0.5958;-5.3943;
1046.1000;0.5950;-5.3995;
1046.4000;0.5950;-5.3995;
1046.7000;0.5967;-5.4021;
1047.0000;0.5958;-5.4099;
1047.3000;0.5958;-5.4021;
1047.6000;0.5958;-5.3995;
1047.9000;0.5958;-5.3891;
1048.2000;0.5910;-5.4047;
1048.5000;0.5950;-5.3969;
1048.8000;0.5950;-5.3865;
1049.1000;0.5910;-5.3969;
1049.4000;0.5950;-5.3891;
1049.7000;0.5967;-5.3917;
1050.0000;0.6040;-5.3736;
1050.3000;0.5975;-5.3891;
1050.6000;0.5958;-5.3814;
1050.9000;0.5958;-5.3736;
1051.2000;0.5934;-5.3891;
1051.5000;0.5967;-5.3814;
1051.8000;0.5950;-5.3814;
1052.1000;0.5975;-5.3736;
1052.4000;0.5967;-5.3736;
1052.7000;0.5967;-5.3814;
1053.0000;0.5942;-5.3839;
1053.3000;0.5967;-5.3865;
1053.6000;0.5958;-5.3969;
1053.9000;0.5967;-5.3917;
1054.2000;0.5942;-5.3969;
1054.5000;0.5967;-5.3891;
1054.8000;0.5958;-5.3943;
1055.1000;0.5885;-5.4073;
1055.4000;0.5983;-5.3891;
1055.7000;0.5950;-5.3917;
1056.0000;0.5942;-5.3891;
1056.3000;0.5991;-5.3788;
1056.6000;0.5934;-5.3839;
1056.9000;0.5893;-5.4021;
1057.2000;0.5950;-5.3917;
1057.5000;0.5991;-5.3839;
1057.8000;0.5967;-5.3839;
1058.1000;0.6064;-5.3554;
1058.4000;0.5975;-5.3736;
1058.7000;0.5950;-5.3814;
1059.0000;0.5967;-5.3736;
1059.3000;0.5975;-5.3736;
1059.6000;0.5958;-5.3710;
1059.9000;0.5975;-5.3684;
1060.2000;0.5958;-5.3710;
1060.5000;0.5967;-5.3658;
1060.8000;0.5967;-5.3658;
1061.1000;0.5958;-5.3684;
1061.4000;0.5926;-5.3762;
1061.7000;0.5967;-5.3710;
1062.0000;0.5975;-5.3710;
1062.3000;0.5950;-5.3788;
1062.6000;0.5950;-5.3891;
1062.9000;0.5950;-5.3814;
1063.2000;0.5958;-5.3839;
1063.5000;0.5950;-5.3891;
1063.8000;0.5934;-5.3995;
1064.1000;0.5950;-5.3943;
1064.4000;0.5967;-5.3865;
1064.7000;0.5950;-5.3891;
1065.0000;0.5942;-5.3917;
1065.3000;0.5975;-5.3788;
1065.6000;0.5950;-5.3891;
1065.9000;0.5967;-5.3814;
1066.2000;0.5958;-5.3865;
1066.5000;0.5967;-5.3917;
1066.8000;0.5983;-5.3814;
1067.1000;0.5967;-5.3814;
1067.4000;0.5950;-5.3839;
1067.7000;0.5950;-5.3788;
1068.0000;0.5983;-5.3788;
1068.3000;0.5958;-5.3788;
1068.6000;0.5926;-5.3969;
1068.9000;0.5958;-5.3917;
1069.2000;0.5975;-5.3943;
1069.5000;0.5958;-5.4021;
1069.8000;0.5958;-5.3995;
1070.1000;0.5926;-5.4099;
1070.4000;0.5958;-5.4073;
1070.7000;0.5934;-5.4099;
1071.0000;0.5967;-5.3943;
1071.3000;0.5958;-5.3943;
1071.6000;0.5942;-5.3865;
1071.9000;0.5967;-5.3839;
1072.2000;0.5950;-5.3865;
1072.5000;0.5958;-5.3839;
1072.8000;0.6007;-5.3788;
1073.1000;0.6032;-5.3658;
1073.4000;0.5967;-5.3891;
1073.7000;0.5942;-5.3995;
1074.0000;0.5942;-5.4021;
1074.3000;0.5910;-5.4047;
1074.6000;0.5950;-5.3917;
1074.9000;0.5934;-5.3788;
1075.2000;0.5942;-5.3839;
1075.5000;0.5934;-5.3762;
1075.8000;0.5950;-5.3788;
1076.1000;0.5983;-5.3788;
1076.4000;0.5950;-5.3891;
1076.7000;0.5926;-5.3943;
1077.0000;0.5918;-5.3943;
1077.3000;0.5918;-5.3917;
1077.6000;0.5950;-5.3865;
1077.9000;0.5950;-5.3891;
1078.2000;0.5950;-5.3943;
1078.5000;0.5975;-5.3891;
1078.8000;0.5950;-5.3839;
1079.1000;0.5950;-5.3788;
1079.4000;0.5934;-5.3839;
1079.7000;0.5934;-5.3788;
1080.0000;0.5926;-5.3814;
1080.3000;0.5934;-5.3762;
1080.6000;0.5942;-5.3839;
1080.9000;0.5942;-5.3865;
1081.2000;0.5950;-5.3917;
1081.5000;0.5950;-5.3865;
1081.8000;0.5950;-5.3839;
1082.1000;0.5967;-5.3865;
1082.4000;0.5958;-5.3917;
1082.7000;0.5950;-5.3891;
1083.0000;0.5950;-5.3943;
1083.3000;0.5934;-5.4047;
1083.6000;0.5950;-5.3995;
1083.9000;0.5942;-5.3969;
1084.2000;0.5934;-5.4073;
1084.5000;0.5950;-5.4151;
1084.8000;0.5910;-5.4228;
1085.1000;0.5942;-5.4099;
1085.4000;0.5934;-5.3995;
1085.7000;0.5942;-5.3943;
1086.0000;0.5942;-5.3865;
1086.3000;0.5975;-5.3839;
1086.6000;0.5958;-5.3762;
1086.9000;0.5950;-5.3788;
1087.2000;0.5942;-5.3658;
1087.5000;0.5958;-5.3658;
1087.8000;0.5950;-5.3658;
1088.1000;0.5942;-5.3684;
1088.4000;0.5950;-5.3684;
1088.7000;0.5918;-5.3710;
1089.0000;0.5958;-5.3502;
1089.3000;0.5950;-5.3502;
1089.6000;0.5967;-5.3606;
1089.9000;0.5942;-5.3658;
1090.2000;0.5958;-5.3684;
1090.5000;0.5942;-5.3710;
1090.8000;0.5942;-5.3684;
1091.1000;0.5934;-5.3684;
1091.4000;0.5942;-5.3762;
1091.7000;0.5950;-5.3865;
1092.0000;0.5934;-5.3891;
1092.3000;0.5942;-5.3943;
1092.6000;0.5958;-5.3865;
1092.9000;0.5902;-5.4021;
1093.2000;0.5942;-5.3865;
1093.5000;0.5934;-5.3891;
1093.8000;0.6015;-5.3658;
1094.1000;0.5934;-5.3891;
1094.4000;0.5934;-5.3865;
1094.7000;0.5934;-5.3865;
1095.0000;0.5910;-5.3891;
1095.3000;0.5934;-5.3788;
1095.6000;0.5934;-5.3710;
1095.9000;0.5958;-5.3632;
1096.2000;0.5942;-5.3684;
1096.5000;0.5950;-5.3710;
1096.8000;0.5950;-5.3710;
1097.1000;0.5950;-5.3684;
1097.4000;0.5950;-5.3736;
1097.7000;0.5934;-5.3762;
1098.0000;0.5942;-5.3710;
1098.3000;0.5934;-5.3684;
1098.6000;0.5942;-5.3658;
1098.9000;0.5942;-5.3710;
1099.2000;0.5950;-5.3736;
1099.5000;0.5975;-5.3632;
1099.8000;0.5950;-5.3658;
1100.1000;0.5967;-5.3528;
1100.4000;0.5934;-5.3554;
1100.7000;0.5934;-5.3554;
1101.0000;0.5934;-5.3606;
1101.3000;0.5910;-5.3684;
1101.6000;0.6015;-5.3502;
1101.9000;0.5950;-5.3684;
1102.2000;0.5950;-5.3710;
1102.5000;0.5958;-5.3736;
1102.8000;0.5942;-5.3736;
1103.1000;0.6032;-5.3476;
1103.4000;0.5942;-5.3684;
1103.7000;0.5942;-5.3658;
1104.0000;0.5942;-5.3606;
1104.3000;0.5958;-5.3580;
1104.6000;0.5926;-5.3684;
1104.9000;0.5926;-5.3710;
1105.2000;0.5926;-5.3865;
1105.5000;0.5926;-5.3917;
1105.8000;0.5934;-5.3917;
1106.1000;0.5942;-5.3943;
1106.4000;0.5926;-5.4021;
1106.7000;0.5942;-5.3969;
1107.0000;0.5942;-5.3917;
1107.3000;0.5975;-5.3762;
1107.6000;0.5942;-5.3995;
1107.9000;0.5950;-5.3969;
1108.2000;0.5942;-5.3995;
1108.5000;0.5934;-5.3891;
1108.8000;0.5942;-5.3917;
1109.1000;0.5942;-5.3839;
1109.4000;0.5942;-5.3865;
1109.7000;0.5926;-5.3865;
1110.0000;0.5861;-5.4021;
1110.3000;0.5999;-5.3658;
1110.6000;0.5910;-5.3788;
1110.9000;0.5926;-5.3736;
1111.2000;0.5934;-5.3788;
1111.5000;0.5926;-5.3762;
1111.8000;0.5950;-5.3736;
1112.1000;0.5942;-5.3788;
1112.4000;0.5869;-5.3943;
1112.7000;0.5910;-5.3865;
1113.0000;0.5950;-5.3788;
1113.3000;0.5934;-5.3814;
1113.6000;0.5926;-5.3788;
1113.9000;0.5942;-5.3710;
1114.2000;0.5942;-5.3736;
1114.5000;0.5942;-5.3762;
1114.8000;0.5950;-5.3788;
1115.1000;0.5918;-5.3814;
1115.4000;0.5910;-5.3865;
1115.7000;0.5934;-5.3865;
1116.0000;0.5926;-5.3814;
1116.3000;0.5918;-5.3839;
1116.6000;0.5942;-5.3762;
1116.9000;0.5918;-5.3839;
1117.2000;0.5975;-5.3710;
1117.5000;0.5958;-5.3762;
1117.8000;0.5942;-5.3814;
1118.1000;0.5950;-5.3788;
1118.4000;0.5910;-5.3736;
1118.7000;0.5926;-5.3658;
1119.0000;0.5877;-5.3814;
1119.3000;0.5942;-5.3736;
1119.6000;0.5869;-5.3865;
1119.9000;0.5934;-5.3736;
1120.2000;0.5918;-5.3839;
1120.5000;0.5950;-5.3814;
1120.8000;0.5942;-5.3814;
1121.1000;0.5926;-5.3917;
1121.4000;0.5926;-5.3891;
1121.7000;0.5942;-5.3814;
1122.0000;0.5950;-5.3788;
1122.3000;0.5942;-5.3814;
1122.6000;0.5942;-5.3762;
1122.9000;0.5934;-5.3762;
1123.2000;0.5926;-5.3788;
1123.5000;0.5934;-5.3839;
1123.8000;0.5910;-5.3891;
1124.1000;0.5918;-5.3839;
1124.4000;0.5934;-5.3762;
1124.7000;0.5934;-5.3788;
1125.0000;0.5934;-5.3814;
1125.3000;0.5958;-5.3814;
1125.6000;0.5942;-5.3891;
1125.9000;0.5934;-5.3839;
1126.2000;0.5918;-5.3839;
1126.5000;0.5902;-5.3788;
1126.8000;0.5926;-5.3710;
1127.1000;0.5967;-5.3502;
1127.4000;0.5934;-5.3606;
1127.7000;0.5934;-5.3710;
1128.0000;0.5926;-5.3788;
1128.3000;0.5942;-5.3762;
1128.6000;0.5942;-5.3684;
1128.9000;0.5934;-5.3736;
1129.2000;0.5942;-5.3658;
1129.5000;0.5934;-5.3684;
1129.8000;0.5918;-5.3710;
1130.1000;0.5934;-5.3632;
1130.4000;0.5926;-5.3710;
1130.7000;0.5926;-5.3762;
1131.0000;0.5918;-5.3736;
1131.3000;0.5926;-5.3736;
1131.6000;0.5918;-5.3788;
1131.9000;0.5910;-5.3710;
1132.2000;0.5902;-5.3839;
1132.5000;0.5934;-5.3632;
1132.8000;0.5942;-5.3658;
1133.1000;0.5934;-5.3684;
1133.4000;0.5958;-5.3684;
1133.7000;0.5918;-5.3736;
1134.0000;0.5918;-5.3762;
1134.3000;0.5942;-5.3684;
1134.6000;0.5934;-5.3736;
1134.9000;0.5934;-5.3736;
1135.2000;0.5910;-5.3788;
1135.5000;0.5926;-5.3865;
1135.8000;0.5934;-5.3891;
1136.1000;0.5926;-5.3788;
1136.4000;0.5926;-5.3710;
1136.7000;0.5885;-5.3814;
1137.0000;0.5918;-5.3762;
1137.3000;0.5926;-5.3762;
1137.6000;0.5918;-5.3762;
1137.9000;0.5885;-5.3891;
1138.2000;0.5918;-5.3788;
1138.5000;0.5942;-5.3788;
1138.8000;0.5934;-5.3762;
1139.1000;0.5926;-5.3762;
1139.4000;0.5926;-5.3736;
1139.7000;0.5918;-5.3762;
1140.0000;0.5958;-5.3684;
1140.3000;0.5934;-5.3788;
1140.6000;0.5934;-5.3710;
1140.9000;0.5934;-5.3684;
1141.2000;0.5934;-5.3762;
1141.5000;0.5942;-5.3814;
1141.8000;0.5934;-5.3814;
1142.1000;0.5910;-5.3865;
1142.4000;0.5934;-5.3917;
1142.7000;0.5926;-5.3891;
1143.0000;0.5926;-5.3917;
1143.3000;0.5910;-5.4021;
1143.6000;0.5942;-5.3995;
1143.9000;0.5942;-5.3995;
1144.2000;0.5918;-5.4047;
1144.5000;0.5983;-5.3865;
1144.8000;0.5926;-5.3995;
1145.1000;0.5934;-5.3839;
1145.4000;0.5910;-5.3762;
1145.7000;0.5926;-5.3788;
1146.0000;0.5918;-5.3788;
1146.3000;0.5926;-5.3762;
1146.6000;0.5967;-5.3606;
1146.9000;0.5926;-5.3814;
1147.2000;0.5893;-5.3788;
1147.5000;0.5918;-5.3762;
1147.8000;0.5902;-5.3762;
1148.1000;0.5893;-5.3865;
1148.4000;0.5910;-5.3736;
1148.7000;0.5918;-5.3658;
1149.0000;0.5918;-5.3710;
1149.3000;0.5902;-5.3736;
1149.6000;0.5918;-5.3658;
1149.9000;0.5926;-5.3606;
1150.2000;0.5934;-5.3554;
1150.5000;0.5991;-5.3399;
1150.8000;0.5902;-5.3632;
1151.1000;0.5942;-5.3606;
1151.4000;0.5926;-5.3684;
1151.7000;0.5926;-5.3710;
1152.0000;0.5918;-5.3762;
1152.3000;0.5926;-5.3762;
1152.6000;0.5910;-5.3788;
1152.9000;0.5918;-5.3788;
1153.2000;0.5918;-5.3788;
1153.5000;0.5918;-5.3839;
1153.8000;0.5918;-5.3917;
1154.1000;0.5926;-5.3865;
1154.4000;0.5910;-5.3814;
1154.7000;0.5934;-5.3762;
1155.0000;0.5869;-5.3891;
1155.3000;0.5926;-5.3762;
1155.6000;0.5934;-5.3814;
1155.9000;0.5918;-5.3917;
1156.2000;0.5967;-5.3788;
1156.5000;0.5926;-5.3839;
1156.8000;0.5926;-5.3865;
1157.1000;0.5910;-5.3917;
1157.4000;0.5918;-5.3917;
1157.7000;0.5926;-5.3865;
1158.0000;0.5934;-5.3865;
1158.3000;0.5918;-5.3891;
1158.6000;0.5918;-5.3969;
1158.9000;0.5950;-5.3839;
1159.2000;0.5975;-5.3839;
1159.5000;0.5926;-5.3995;
1159.8000;0.5918;-5.3943;
1160.1000;0.5934;-5.3891;
1160.4000;0.5926;-5.3969;
1160.7000;0.5910;-5.4047;
1161.0000;0.5910;-5.3969;
1161.3000;0.5918;-5.3891;
1161.6000;0.5902;-5.3917;
1161.9000;0.5918;-5.3917;
1162.2000;0.5910;-5.3943;
1162.5000;0.5877;-5.4099;
1162.8000;0.5918;-5.3917;
1163.1000;0.5910;-5.3865;
1163.4000;0.5910;-5.3839;
1163.7000;0.5918;-5.3814;
1164.0000;0.5934;-5.3814;
1164.3000;0.5926;-5.3891;
1164.6000;0.5902;-5.3943;
1164.9000;0.5918;-5.3917;
1165.2000;0.5918;-5.3917;
1165.5000;0.5926;-5.3969;
1165.8000;0.5885;-5.4099;
1166.1000;0.5910;-5.4047;
1166.4000;0.5910;-5.4047;
1166.7000;0.5861;-5.4151;
1167.0000;0.5983;-5.3891;
1167.3000;0.5926;-5.3969;
1167.6000;0.5902;-5.3995;
1167.9000;0.5926;-5.3995;
1168.2000;0.5926;-5.3969;
1168.5000;0.5934;-5.3995;
1168.8000;0.5910;-5.4073;
1169.1000;0.5893;-5.4021;
1169.4000;0.5926;-5.3891;
1169.7000;0.5918;-5.3943;
1170.0000;0.5918;-5.3995;
1170.3000;0.5926;-5.3917;
1170.6000;0.5893;-5.3995;
1170.9000;0.5918;-5.3865;
1171.2000;0.5910;-5.3839;
1171.5000;0.5902;-5.3865;
1171.8000;0.5918;-5.3814;
1172.1000;0.5934;-5.3814;
1172.4000;0.5902;-5.3788;
1172.7000;0.5926;-5.3632;
1173.0000;0.5902;-5.3658;
1173.3000;0.5910;-5.3658;
1173.6000;0.5893;-5.3658;
1173.9000;0.5893;-5.3736;
1174.2000;0.5869;-5.3839;
1174.5000;0.5918;-5.3684;
1174.8000;0.5910;-5.3684;
1175.1000;0.5902;-5.3788;
1175.4000;0.5910;-5.3762;
1175.7000;0.5942;-5.3580;
1176.0000;0.5885;-5.3580;
1176.3000;0.5967;-5.3425;
1176.6000;0.5861;-5.3658;
1176.9000;0.5902;-5.3658;
1177.2000;0.5918;-5.3554;
1177.5000;0.5910;-5.3632;
1177.8000;0.5934;-5.3606;
1178.1000;0.5910;-5.3658;
1178.4000;0.5885;-5.3736;
1178.7000;0.5926;-5.3606;
1179.0000;0.5918;-5.3606;
1179.3000;0.5910;-5.3658;
1179.6000;0.5934;-5.3580;
1179.9000;0.5918;-5.3710;
1180.2000;0.5918;-5.3736;
1180.5000;0.5934;-5.3710;
1180.8000;0.5926;-5.3710;
1181.1000;0.5934;-5.3632;
1181.4000;0.5893;-5.3684;
1181.7000;0.5853;-5.3684;
1182.0000;0.5893;-5.3554;
1182.3000;0.5934;-5.3476;
1182.6000;0.5926;-5.3580;
1182.9000;0.5910;-5.3606;
1183.2000;0.5902;-5.3658;
1183.5000;0.5910;-5.3606;
1183.8000;0.5934;-5.3580;
1184.1000;0.5893;-5.3710;
1184.4000;0.5893;-5.3710;
1184.7000;0.5918;-5.3658;
1185.0000;0.5934;-5.3736;
1185.3000;0.5934;-5.3658;
1185.6000;0.5918;-5.3580;
1185.9000;0.5902;-5.3606;
1186.2000;0.5902;-5.3502;
1186.5000;0.5918;-5.3476;
1186.8000;0.5918;-5.3450;
1187.1000;0.5991;-5.3347;
1187.4000;0.5926;-5.3632;
1187.7000;0.5902;-5.3736;
1188.0000;0.5902;-5.3710;
1188.3000;0.5902;-5.3788;
1188.6000;0.5893;-5.3762;
1188.9000;0.5918;-5.3814;
1189.2000;0.5958;-5.3736;
1189.5000;0.5910;-5.3788;
1189.8000;0.5950;-5.3658;
1190.1000;0.5910;-5.3736;
1190.4000;0.5918;-5.3684;
1190.7000;0.5918;-5.3684;
1191.0000;0.5934;-5.3606;
1191.3000;0.5934;-5.3606;
1191.6000;0.5918;-5.3684;
1191.9000;0.5893;-5.3788;
1192.2000;0.5902;-5.3788;
1192.5000;0.5942;-5.3632;
1192.8000;0.5926;-5.3606;
1193.1000;0.5869;-5.3736;
1193.4000;0.5918;-5.3632;
1193.7000;0.5926;-5.3554;
1194.0000;0.5918;-5.3528;
1194.3000;0.5893;-5.3632;
1194.6000;0.5934;-5.3580;
1194.9000;0.5918;-5.3632;
1195.2000;0.5877;-5.3710;
1195.5000;0.5902;-5.3658;
1195.8000;0.5918;-5.3684;
1196.1000;0.5918;-5.3580;
1196.4000;0.5958;-5.3502;
1196.7000;0.5918;-5.3632;
1197.0000;0.5885;-5.3684;
1197.3000;0.5910;-5.3580;
1197.6000;0.5902;-5.3684;
1197.9000;0.5910;-5.3658;
1198.2000;0.5910;-5.3684;
1198.5000;0.5910;-5.3658;
1198.8000;0.5902;-5.3658;
1199.1000;0.5934;-5.3554;
1199.4000;0.5910;-5.3684;
1199.7000;0.5918;-5.3736;
1200.0000;0.5926;-5.3762;
1200.3000;0.5918;-5.3736;
1200.6000;0.5918;-5.3736;
1200.9000;0.5902;-5.3736;
1201.2000;0.5910;-5.3684;
1201.5000;0.5910;-5.3658;
1201.8000;0.5926;-5.3606;
1202.1000;0.5910;-5.3658;
1202.4000;0.5885;-5.3658;
1202.7000;0.5926;-5.3580;
1203.0000;0.5910;-5.3658;
1203.3000;0.5926;-5.3632;
1203.6000;0.5910;-5.3736;
1203.9000;0.5885;-5.3814;
1204.2000;0.5910;-5.3658;
1204.5000;0.5910;-5.3736;
1204.8000;0.5902;-5.3788;
1205.1000;0.5869;-5.3814;
1205.4000;0.5893;-5.3710;
1205.7000;0.5902;-5.3762;
1206.0000;0.5885;-5.3788;
1206.3000;0.5918;-5.3684;
1206.6000;0.5893;-5.3814;
1206.9000;0.5902;-5.3762;
1207.2000;0.5902;-5.3710;
1207.5000;0.5926;-5.3632;
1207.8000;0.5934;-5.3606;
1208.1000;0.5902;-5.3684;
1208.4000;0.5893;-5.3814;
1208.7000;0.5910;-5.3710;
1209.0000;0.5910;-5.3684;
1209.3000;0.5918;-5.3762;
1209.6000;0.5910;-5.3839;
1209.9000;0.5926;-5.3814;
1210.2000;0.5910;-5.3917;
1210.5000;0.5902;-5.3891;
1210.8000;0.5845;-5.3995;
1211.1000;0.5934;-5.3788;
1211.4000;0.5918;-5.3736;
1211.7000;0.5926;-5.3658;
1212.0000;0.5910;-5.3632;
1212.3000;0.5902;-5.3658;
1212.6000;0.5902;-5.3606;
1212.9000;0.5910;-5.3632;
1213.2000;0.5958;-5.3502;
1213.5000;0.5902;-5.3632;
1213.8000;0.5902;-5.3684;
1214.1000;0.5942;-5.3606;
1214.4000;0.5902;-5.3710;
1214.7000;0.5893;-5.3684;
1215.0000;0.5877;-5.3684;
1215.3000;0.5902;-5.3710;
1215.6000;0.5902;-5.3658;
1215.9000;0.5910;-5.3684;
1216.2000;0.5910;-5.3658;
1216.5000;0.5893;-5.3658;
1216.8000;0.5918;-5.3528;
1217.1000;0.5893;-5.3528;
1217.4000;0.5885;-5.3606;
1217.7000;0.5893;-5.3658;
1218.0000;0.5885;-5.3684;
1218.3000;0.5918;-5.3684;
1218.6000;0.5885;-5.3762;
1218.9000;0.5902;-5.3684;
1219.2000;0.5893;-5.3788;
1219.5000;0.5893;-5.3839;
1219.8000;0.5885;-5.3839;
1220.1000;0.5893;-5.3814;
1220.4000;0.5893;-5.3762;
1220.7000;0.5902;-5.3839;
1221.0000;0.5910;-5.3814;
1221.3000;0.5893;-5.3839;
1221.6000;0.5910;-5.3814;
1221.9000;0.5902;-5.3814;
1222.2000;0.5902;-5.3865;
1222.5000;0.5918;-5.3814;
1222.8000;0.5893;-5.3788;
1223.1000;0.5902;-5.3736;
1223.4000;0.5902;-5.3788;
1223.7000;0.5902;-5.3736;
1224.0000;0.5910;-5.3658;
1224.3000;0.5910;-5.3632;
1224.6000;0.5902;-5.3658;
1224.9000;0.5861;-5.3814;
1225.2000;0.5926;-5.3684;
1225.5000;0.5885;-5.3710;
1225.8000;0.5902;-5.3632;
1226.1000;0.5877;-5.3580;
1226.4000;0.5902;-5.3580;
1226.7000;0.5967;-5.3399;
1227.0000;0.5902;-5.3476;
1227.3000;0.5902;-5.3606;
1227.6000;0.5893;-5.3632;
1227.9000;0.5918;-5.3554;
1228.2000;0.5845;-5.3684;
1228.5000;0.5893;-5.3528;
1228.8000;0.5893;-5.3606;
1229.1000;0.5877;-5.3710;
1229.4000;0.5869;-5.3736;
1229.7000;0.5910;-5.3710;
1230.0000;0.5828;-5.3814;
1230.3000;0.5885;-5.3658;
1230.6000;0.5893;-5.3658;
1230.9000;0.5893;-5.3528;
1231.2000;0.5910;-5.3502;
1231.5000;0.5869;-5.3632;
1231.8000;0.5893;-5.3554;
1232.1000;0.5902;-5.3476;
1232.4000;0.5918;-5.3450;
1232.7000;0.5885;-5.3399;
1233.0000;0.5910;-5.3373;
1233.3000;0.5902;-5.3373;
1233.6000;0.5893;-5.3450;
1233.9000;0.5918;-5.3450;
1234.2000;0.5902;-5.3476;
1234.5000;0.5918;-5.3554;
1234.8000;0.5934;-5.3528;
1235.1000;0.5975;-5.3373;
1235.4000;0.5885;-5.3632;
1235.7000;0.5893;-5.3606;
1236.0000;0.5902;-5.3580;
1236.3000;0.5893;-5.3606;
1236.6000;0.5902;-5.3658;
1236.9000;0.5918;-5.3528;
1237.2000;0.5942;-5.3450;
1237.5000;0.5893;-5.3580;
1237.8000;0.5893;-5.3528;
1238.1000;0.5934;-5.3450;
1238.4000;0.5910;-5.3528;
1238.7000;0.5877;-5.3632;
1239.0000;0.5893;-5.3658;
1239.3000;0.5885;-5.3684;
1239.6000;0.5893;-5.3684;
1239.9000;0.5893;-5.3736;
1240.2000;0.5877;-5.3710;
1240.5000;0.5885;-5.3632;
1240.8000;0.5893;-5.3554;
1241.1000;0.5934;-5.3450;
1241.4000;0.5885;-5.3554;
1241.7000;0.5885;-5.3502;
1242.0000;0.5877;-5.3580;
1242.3000;0.5893;-5.3554;
1242.6000;0.5885;-5.3554;
1242.9000;0.5893;-5.3580;
1243.2000;0.5861;-5.3684;
1243.5000;0.5902;-5.3528;
1243.8000;0.5902;-5.3476;
1244.1000;0.5885;-5.3554;
1244.4000;0.5861;-5.3632;
1244.7000;0.5910;-5.3554;
1245.0000;0.5902;-5.3502;
1245.3000;0.5877;-5.3580;
1245.6000;0.5877;-5.3476;
1245.9000;0.5885;-5.3502;
1246.2000;0.5910;-5.3554;
1246.5000;0.5893;-5.3528;
1246.8000;0.5877;-5.3580;
1247.1000;0.5910;-5.3580;
1247.4000;0.5902;-5.3528;
1247.7000;0.5885;-5.3580;
1248.0000;0.5893;-5.3528;
1248.3000;0.5869;-5.3580;
1248.6000;0.5885;-5.3580;
1248.9000;0.5885;-5.3554;
1249.2000;0.5910;-5.3580;
1249.5000;0.5877;-5.3762;
1249.8000;0.5877;-5.3788;
1250.1000;0.5877;-5.3736;
1250.4000;0.5885;-5.3684;
1250.7000;0.5877;-5.3684;
1251.0000;0.5885;-5.3684;
1251.3000;0.5861;-5.3710;
1251.6000;0.5812;-5.3710;
1251.9000;0.5804;-5.3684;
1252.2000;0.5902;-5.3502;
1252.5000;0.5902;-5.3580;
1252.8000;0.5893;-5.3632;
1253.1000;0.5877;-5.3684;
1253.4000;0.5950;-5.3476;
1253.7000;0.5885;-5.3502;
1254.0000;0.5902;-5.3476;
1254.3000;0.5893;-5.3580;
1254.6000;0.5902;-5.3606;
1254.9000;0.5902;-5.3606;
1255.2000;0.5893;-5.3710;
1255.5000;0.5885;-5.3762;
1255.8000;0.5893;-5.3788;
1256.1000;0.5893;-5.3736;
1256.4000;0.5893;-5.3710;
1256.7000;0.5885;-5.3710;
1257.0000;0.5885;-5.3762;
1257.3000;0.5893;-5.3736;
1257.6000;0.5877;-5.3814;
1257.9000;0.5893;-5.3736;
1258.2000;0.5893;-5.3814;
1258.5000;0.5885;-5.3788;
1258.8000;0.5893;-5.3762;
1259.1000;0.5910;-5.3762;
1259.4000;0.5902;-5.3788;
1259.7000;0.5885;-5.3814;
1260.0000;0.5877;-5.3788;
1260.3000;0.5885;-5.3710;
1260.6000;0.5885;-5.3684;
1260.9000;0.5877;-5.3814;
1261.2000;0.5877;-5.3788;
1261.5000;0.5877;-5.3865;
1261.8000;0.5885;-5.3788;
1262.1000;0.5885;-5.3684;
1262.4000;0.5885;-5.3710;
1262.7000;0.5885;-5.3658;
1263.0000;0.5885;-5.3580;
1263.3000;0.5910;-5.3710;
1263.6000;0.5893;-5.3788;
1263.9000;0.5902;-5.3788;
1264.2000;0.5918;-5.3710;
1264.5000;0.5893;-5.3814;
1264.8000;0.5902;-5.3762;
1265.1000;0.5893;-5.3710;
1265.4000;0.5902;-5.3710;
1265.7000;0.5893;-5.3736;
1266.0000;0.5885;-5.3814;
1266.3000;0.5853;-5.3891;
1266.6000;0.5885;-5.3814;
1266.9000;0.5902;-5.3736;
1267.2000;0.5877;-5.3762;
1267.5000;0.5853;-5.3710;
1267.8000;0.5877;-5.3554;
1268.1000;0.5926;-5.3502;
1268.4000;0.5885;-5.3580;
1268.7000;0.5885;-5.3606;
1269.0000;0.5877;-5.3632;
1269.3000;0.5893;-5.3502;
1269.6000;0.5885;-5.3528;
1269.9000;0.5902;-5.3476;
1270.2000;0.5869;-5.3528;
1270.5000;0.5845;-5.3606;
1270.8000;0.5893;-5.3502;
1271.1000;0.5877;-5.3580;
1271.4000;0.5869;-5.3606;
1271.7000;0.5902;-5.3554;
1272.0000;0.5845;-5.3684;
1272.3000;0.5861;-5.3658;
1272.6000;0.5902;-5.3580;
1272.9000;0.5869;-5.3762;
1273.2000;0.5877;-5.3684;
1273.5000;0.5861;-5.3736;
1273.8000;0.5861;-5.3839;
1274.1000;0.5845;-5.3891;
1274.4000;0.5869;-5.3788;
1274.7000;0.5877;-5.3736;
1275.0000;0.5885;-5.3606;
1275.3000;0.5893;-5.3632;
1275.6000;0.5877;-5.3580;
1275.9000;0.5885;-5.3632;
1276.2000;0.5877;-5.3684;
1276.5000;0.5877;-5.3684;
1276.8000;0.5885;-5.3658;
1277.1000;0.5869;-5.3710;
1277.4000;0.5902;-5.3554;
1277.7000;0.5885;-5.3632;
1278.0000;0.5893;-5.3632;
1278.3000;0.5893;-5.3736;
1278.6000;0.5950;-5.3658;
1278.9000;0.5885;-5.3736;
1279.2000;0.5902;-5.3710;
1279.5000;0.5910;-5.3684;
1279.8000;0.5934;-5.3736;
1280.1000;0.5910;-5.3788;
1280.4000;0.5893;-5.3891;
1280.7000;0.5926;-5.3814;
1281.0000;0.5910;-5.3839;
1281.3000;0.5877;-5.3943;
1281.6000;0.5869;-5.4073;
1281.9000;0.5877;-5.4099;
1282.2000;0.5902;-5.4021;
1282.5000;0.5869;-5.4047;
1282.8000;0.5885;-5.3995;
1283.1000;0.5885;-5.3995;
1283.4000;0.5885;-5.4021;
1283.7000;0.5893;-5.4047;
1284.0000;0.5853;-5.3969;
1284.3000;0.5869;-5.3943;
1284.6000;0.5885;-5.3917;
1284.9000;0.5877;-5.3891;
1285.2000;0.5869;-5.3891;
1285.5000;0.5893;-5.3762;
1285.8000;0.5877;-5.3762;
1286.1000;0.5861;-5.3865;
1286.4000;0.5877;-5.3762;
1286.7000;0.5869;-5.3762;
1287.0000;0.5902;-5.3606;
1287.3000;0.5885;-5.3658;
1287.6000;0.5877;-5.3684;
1287.9000;0.5902;-5.3658;
1288.2000;0.5893;-5.3684;
1288.5000;0.5902;-5.3814;
1288.8000;0.5893;-5.3917;
1289.1000;0.5910;-5.3891;
1289.4000;0.5910;-5.4021;
1289.7000;0.5885;-5.3995;
1290.0000;0.5893;-5.3917;
1290.3000;0.5885;-5.3943;
1290.6000;0.5910;-5.3917;
1290.9000;0.5902;-5.3891;
1291.2000;0.5934;-5.3814;
1291.5000;0.5885;-5.3943;
1291.8000;0.5869;-5.3943;
1292.1000;0.5877;-5.3865;
1292.4000;0.5877;-5.3943;
1292.7000;0.5885;-5.3995;
1293.0000;0.5893;-5.3969;
1293.3000;0.5918;-5.3917;
1293.6000;0.5885;-5.3969;
1293.9000;0.5918;-5.3969;
1294.2000;0.5893;-5.4047;
1294.5000;0.5918;-5.3891;
1294.8000;0.5902;-5.3969;
1295.1000;0.5836;-5.4021;
1295.4000;0.5885;-5.3917;
1295.7000;0.5861;-5.3995;
1296.0000;0.5885;-5.3865;
1296.3000;0.5902;-5.3891;
1296.6000;0.5869;-5.3995;
1296.9000;0.5804;-5.4254;
1297.2000;0.5877;-5.4021;
1297.5000;0.5885;-5.3995;
1297.8000;0.5836;-5.4073;
1298.1000;0.5910;-5.3891;
1298.4000;0.5853;-5.3969;
1298.7000;0.5853;-5.3943;
1299.0000;0.5869;-5.3814;
1299.3000;0.5885;-5.3710;
1299.6000;0.5885;-5.3762;
1299.9000;0.5893;-5.3736;
1300.2000;0.5885;-5.3865;
1300.5000;0.5861;-5.3891;
1300.8000;0.5958;-5.3528;
1301.1000;0.5902;-5.3658;
1301.4000;0.5869;-5.3710;
1301.7000;0.5910;-5.3736;
1302.0000;0.5958;-5.3684;
1302.3000;0.5910;-5.3788;
1302.6000;0.5869;-5.3839;
1302.9000;0.5877;-5.3839;
1303.2000;0.5893;-5.3762;
1303.5000;0.5869;-5.3891;
1303.8000;0.5902;-5.3762;
1304.1000;0.5885;-5.3710;
1304.4000;0.5877;-5.3606;
1304.7000;0.5885;-5.3580;
1305.0000;0.5820;-5.3658;
1305.3000;0.5885;-5.3554;
1305.6000;0.5902;-5.3554;
1305.9000;0.5893;-5.3632;
1306.2000;0.5893;-5.3658;
1306.5000;0.5910;-5.3788;
1306.8000;0.5942;-5.3736;
1307.1000;0.5869;-5.3917;
1307.4000;0.5877;-5.3943;
1307.7000;0.5869;-5.3943;
1308.0000;0.5877;-5.3891;
1308.3000;0.5877;-5.3736;
1308.6000;0.5877;-5.3788;
1308.9000;0.5885;-5.3788;
1309.2000;0.5877;-5.3865;
1309.5000;0.5902;-5.3788;
1309.8000;0.5845;-5.3865;
1310.1000;0.5893;-5.3632;
1310.4000;0.5893;-5.3632;
1310.7000;0.5861;-5.3684;
1311.0000;0.5877;-5.3606;
1311.3000;0.5893;-5.3684;
1311.6000;0.5885;-5.3684;
1311.9000;0.5885;-5.3736;
1312.2000;0.5869;-5.3736;
1312.5000;0.5885;-5.3658;
1312.8000;0.5877;-5.3710;
1313.1000;0.5885;-5.3658;
1313.4000;0.5885;-5.3606;
1313.7000;0.5918;-5.3502;
1314.0000;0.5877;-5.3684;
1314.3000;0.5893;-5.3606;
1314.6000;0.5885;-5.3632;
1314.9000;0.5893;-5.3606;
1315.2000;0.5885;-5.3606;
1315.5000;0.5877;-5.3606;
1315.8000;0.5861;-5.3632;
1316.1000;0.5877;-5.3606;
1316.4000;0.5885;-5.3658;
1316.7000;0.5942;-5.3528;
1317.0000;0.5885;-5.3606;
1317.3000;0.5869;-5.3658;
1317.6000;0.5877;-5.3658;
1317.9000;0.5869;-5.3606;
1318.2000;0.5869;-5.3580;
1318.5000;0.5869;-5.3658;
1318.8000;0.5885;-5.3606;
1319.1000;0.5885;-5.3580;
1319.4000;0.5861;-5.3580;
1319.7000;0.5861;-5.3632;
1320.0000;0.5869;-5.3684;
1320.3000;0.5877;-5.3658;
1320.6000;0.5902;-5.3632;
1320.9000;0.5861;-5.3684;
1321.2000;0.5885;-5.3658;
1321.5000;0.5877;-5.3606;
1321.8000;0.5820;-5.3788;
1322.1000;0.5828;-5.3891;
1322.4000;0.5885;-5.3865;
1322.7000;0.5869;-5.3917;
1323.0000;0.5877;-5.3865;
1323.3000;0.5861;-5.3969;
1323.6000;0.5877;-5.3969;
1323.9000;0.5853;-5.3891;
1324.2000;0.5910;-5.3736;
1324.5000;0.5812;-5.3891;
1324.8000;0.5869;-5.3658;
1325.1000;0.5861;-5.3632;
1325.4000;0.5869;-5.3580;
1325.7000;0.5877;-5.3580;
1326.0000;0.5861;-5.3606;
1326.3000;0.5877;-5.3684;
1326.6000;0.5861;-5.3762;
1326.9000;0.5934;-5.3658;
1327.2000;0.5877;-5.3839;
1327.5000;0.5885;-5.3814;
1327.8000;0.5877;-5.3736;
1328.1000;0.5902;-5.3658;
1328.4000;0.5885;-5.3736;
1328.7000;0.5877;-5.3788;
1329.0000;0.5869;-5.3814;
1329.3000;0.5877;-5.3814;
1329.6000;0.5836;-5.3891;
1329.9000;0.5877;-5.3710;
1330.2000;0.5877;-5.3762;
1330.5000;0.5885;-5.3788;
1330.8000;0.5877;-5.3788;
1331.1000;0.5861;-5.3736;
1331.4000;0.5853;-5.3788;
1331.7000;0.5877;-5.3710;
1332.0000;0.5893;-5.3710;
1332.3000;0.5877;-5.3658;
1332.6000;0.5910;-5.3606;
1332.9000;0.5877;-5.3762;
1333.2000;0.5877;-5.3710;
1333.5000;0.5877;-5.3762;
1333.8000;0.5885;-5.3736;
1334.1000;0.5885;-5.3658;
1334.4000;0.5861;-5.3684;
1334.7000;0.5877;-5.3658;
1335.0000;0.5861;-5.3736;
1335.3000;0.5869;-5.3684;
1335.6000;0.5893;-5.3580;
1335.9000;0.5869;-5.3658;
1336.2000;0.5902;-5.3476;
1336.5000;0.5853;-5.3606;
1336.8000;0.5877;-5.3528;
1337.1000;0.5885;-5.3632;
1337.4000;0.5902;-5.3632;
1337.7000;0.5828;-5.3788;
1338.0000;0.5885;-5.3658;
1338.3000;0.5877;-5.3658;
1338.6000;0.5853;-5.3710;
1338.9000;0.5869;-5.3554;
1339.2000;0.5869;-5.3399;
1339.5000;0.5877;-5.3321;
1339.8000;0.5877;-5.3321;
1340.1000;0.5853;-5.3476;
1340.4000;0.5877;-5.3450;
1340.7000;0.5869;-5.3399;
1341.0000;0.5869;-5.3425;
1341.3000;0.5869;-5.3450;
1341.6000;0.5869;-5.3502;
1341.9000;0.5893;-5.3425;
1342.2000;0.5869;-5.3606;
1342.5000;0.5869;-5.3658;
1342.8000;0.5893;-5.3554;
1343.1000;0.5804;-5.3710;
1343.4000;0.5869;-5.3528;
1343.7000;0.5861;-5.3528;
1344.0000;0.5902;-5.3399;
1344.3000;0.5861;-5.3554;
1344.6000;0.5893;-5.3476;
1344.9000;0.5861;-5.3528;
1345.2000;0.5877;-5.3502;
1345.5000;0.5853;-5.3502;
1345.8000;0.5853;-5.3528;
1346.1000;0.5885;-5.3476;
1346.4000;0.5926;-5.3425;
1346.7000;0.5893;-5.3528;
1347.0000;0.5893;-5.3425;
1347.3000;0.5893;-5.3528;
1347.6000;0.5869;-5.3528;
1347.9000;0.5877;-5.3476;
1348.2000;0.5845;-5.3554;
1348.5000;0.5845;-5.3632;
1348.8000;0.5861;-5.3502;
1349.1000;0.5853;-5.3528;
1349.4000;0.5869;-5.3476;
1349.7000;0.5861;-5.3425;
1350.0000;0.5885;-5.3399;
1350.3000;0.5877;-5.3476;
1350.6000;0.5869;-5.3476;
1350.9000;0.5877;-5.3476;
1351.2000;0.5869;-5.3450;
1351.5000;0.5885;-5.3425;
1351.8000;0.5853;-5.3450;
1352.1000;0.5885;-5.3502;
1352.4000;0.5885;-5.3476;
1352.7000;0.5861;-5.3476;
1353.0000;0.5877;-5.3554;
1353.3000;0.5877;-5.3580;
1353.6000;0.5877;-5.3658;
1353.9000;0.5869;-5.3684;
1354.2000;0.5885;-5.3684;
1354.5000;0.5869;-5.3814;
1354.8000;0.5885;-5.3736;
1355.1000;0.5877;-5.3762;
1355.4000;0.5845;-5.3788;
1355.7000;0.5877;-5.3658;
1356.0000;0.5861;-5.3658;
1356.3000;0.5910;-5.3528;
1356.6000;0.5885;-5.3632;
1356.9000;0.5869;-5.3710;
1357.2000;0.5885;-5.3684;
1357.5000;0.5885;-5.3736;
1357.8000;0.5885;-5.3814;
1358.1000;0.5877;-5.3762;
1358.4000;0.5877;-5.3788;
1358.7000;0.5902;-5.3684;
1359.0000;0.5877;-5.3814;
1359.3000;0.5861;-5.3839;
1359.6000;0.5885;-5.3684;
1359.9000;0.5885;-5.3632;
1360.2000;0.5869;-5.3632;
1360.5000;0.5885;-5.3554;
1360.8000;0.5877;-5.3658;
1361.1000;0.5885;-5.3658;
1361.4000;0.5877;-5.3684;
1361.7000;0.5885;-5.3606;
1362.0000;0.5877;-5.3580;
1362.3000;0.5910;-5.3502;
1362.6000;0.5869;-5.3658;
1362.9000;0.5861;-5.3658;
1363.2000;0.5869;-5.3658;
1363.5000;0.5861;-5.3580;
1363.8000;0.5853;-5.3554;
1364.1000;0.5869;-5.3528;
1364.4000;0.5861;-5.3580;
1364.7000;0.5853;-5.3580;
1365.0000;0.5869;-5.3580;
1365.3000;0.5910;-5.3502;
1365.6000;0.5853;-5.3684;
1365.9000;0.5861;-5.3658;
1366.2000;0.5861;-5.3606;
1366.5000;0.5877;-5.3580;
1366.8000;0.5885;-5.3580;
1367.1000;0.5869;-5.3632;
1367.4000;0.5861;-5.3710;
1367.7000;0.5877;-5.3658;
1368.0000;0.5910;-5.3632;
1368.3000;0.5877;-5.3684;
1368.6000;0.5869;-5.3710;
1368.9000;0.5869;-5.3736;
1369.2000;0.5885;-5.3658;
1369.5000;0.5877;-5.3684;
1369.8000;0.5877;-5.3762;
1370.1000;0.5869;-5.3814;
1370.4000;0.5902;-5.3684;
1370.7000;0.5885;-5.3788;
1371.0000;0.5885;-5.3762;
1371.3000;0.5877;-5.3658;
1371.6000;0.5885;-5.3684;
1371.9000;0.5877;-5.3710;
1372.2000;0.5877;-5.3684;
1372.5000;0.5877;-5.3710;
1372.8000;0.5893;-5.3710;
1373.1000;0.5869;-5.3736;
1373.4000;0.5861;-5.3684;
1373.7000;0.5861;-5.3684;
1374.0000;0.5869;-5.3710;
1374.3000;0.5877;-5.3762;
1374.6000;0.5869;-5.3762;
1374.9000;0.5845;-5.3788;
1375.2000;0.5893;-5.3684;
1375.5000;0.5869;-5.3814;
1375.8000;0.5885;-5.3710;
1376.1000;0.5885;-5.3658;
1376.4000;0.5861;-5.3814;
1376.7000;0.5869;-5.3788;
1377.0000;0.5877;-5.3762;
1377.3000;0.5877;-5.3788;
1377.6000;0.5869;-5.3710;
1377.9000;0.5853;-5.3684;
1378.2000;0.5771;-5.3839;
1378.5000;0.5861;-5.3684;
1378.8000;0.5861;-5.3710;
1379.1000;0.5869;-5.3710;
1379.4000;0.5877;-5.3710;
1379.7000;0.5861;-5.3736;
1380.0000;0.5869;-5.3839;
1380.3000;0.5796;-5.3995;
1380.6000;0.5877;-5.3788;
1380.9000;0.5861;-5.3839;
1381.2000;0.5869;-5.3814;
1381.5000;0.5869;-5.3865;
1381.8000;0.5893;-5.3788;
1382.1000;0.5885;-5.3736;
1382.4000;0.5877;-5.3736;
1382.7000;0.5853;-5.3788;
1383.0000;0.5877;-5.3736;
1383.3000;0.5885;-5.3658;
1383.6000;0.5885;-5.3658;
1383.9000;0.5885;-5.3658;
1384.2000;0.5950;-5.3476;
1384.5000;0.5869;-5.3606;
1384.8000;0.5820;-5.3710;
1385.1000;0.5869;-5.3580;
1385.4000;0.5877;-5.3632;
1385.7000;0.5853;-5.3658;
1386.0000;0.5836;-5.3658;
1386.3000;0.5869;-5.3632;
1386.6000;0.5861;-5.3684;
1386.9000;0.5869;-5.3580;
1387.2000;0.5861;-5.3528;
1387.5000;0.5877;-5.3554;
1387.8000;0.5853;-5.3606;
1388.1000;0.5877;-5.3502;
1388.4000;0.5861;-5.3528;
1388.7000;0.5861;-5.3502;
1389.0000;0.5885;-5.3554;
1389.3000;0.5877;-5.3528;
1389.6000;0.5869;-5.3658;
1389.9000;0.5828;-5.3762;
1390.2000;0.5861;-5.3684;
1390.5000;0.5812;-5.3865;
1390.8000;0.5910;-5.3632;
1391.1000;0.5861;-5.3736;
1391.4000;0.5861;-5.3658;
1391.7000;0.5869;-5.3606;
1392.0000;0.5845;-5.3710;
1392.3000;0.5861;-5.3684;
1392.6000;0.5836;-5.3710;
1392.9000;0.5845;-5.3762;
1393.2000;0.5869;-5.3736;
1393.5000;0.5885;-5.3788;
1393.8000;0.5893;-5.3710;
1394.1000;0.5869;-5.3736;
1394.4000;0.5869;-5.3788;
1394.7000;0.5885;-5.3684;
1395.0000;0.5861;-5.3788;
1395.3000;0.5893;-5.3684;
1395.6000;0.5926;-5.3632;
1395.9000;0.5853;-5.3814;
1396.2000;0.5885;-5.3788;
1396.5000;0.5812;-5.3969;
1396.8000;0.5861;-5.3839;
1397.1000;0.5893;-5.3710;
1397.4000;0.5836;-5.3839;
1397.7000;0.5869;-5.3788;
1398.0000;0.5877;-5.3528;
1398.3000;0.5836;-5.3658;
1398.6000;0.5893;-5.3528;
1398.9000;0.5869;-5.3580;
1399.2000;0.5869;-5.3554;
1399.5000;0.5853;-5.3606;
1399.8000;0.5893;-5.3476;
