time/ms;Fluo/V;P700 deltaI/I x10³;
-199.8000;0.9166;-5.3321;
-199.5000;0.9182;-5.3295;
-199.2000;0.9174;-5.3373;
-198.9000;0.9182;-5.3321;
-198.6000;0.9182;-5.3347;
-198.3000;0.9198;-5.3347;
-198.0000;0.9166;-5.3502;
-197.7000;0.9182;-5.3528;
-197.4000;0.9158;-5.3554;
-197.1000;0.9117;-5.3684;
-196.8000;0.9182;-5.3580;
-196.5000;0.9182;-5.3606;
-196.2000;0.9239;-5.3502;
-195.9000;0.9166;-5.3606;
-195.6000;0.9174;-5.3606;
-195.3000;0.9174;-5.3554;
-195.0000;0.9166;-5.3502;
-194.7000;0.9182;-5.3450;
-194.4000;0.9174;-5.3528;
-194.1000;0.9190;-5.3528;
-193.8000;0.9190;-5.3580;
-193.5000;0.9190;-5.3502;
-193.2000;0.9166;-5.3476;
-192.9000;0.9174;-5.3476;
-192.6000;0.9166;-5.3528;
-192.3000;0.9182;-5.3476;
-192.0000;0.9174;-5.3528;
-191.7000;0.9174;-5.3502;
-191.4000;0.9174;-5.3373;
-191.1000;0.9182;-5.3347;
-190.8000;0.9149;-5.3476;
-190.5000;0.9174;-5.3476;
-190.2000;0.9198;-5.3450;
-189.9000;0.9182;-5.3554;
-189.6000;0.9166;-5.3554;
-189.3000;0.9182;-5.3399;
-189.0000;0.9182;-5.3425;
-188.7000;0.9166;-5.3476;
-188.4000;0.9174;-5.3580;
-188.1000;0.9182;-5.3528;
-187.8000;0.9182;-5.3528;
-187.5000;0.9182;-5.3476;
-187.2000;0.9190;-5.3476;
-186.9000;0.9166;-5.3606;
-186.6000;0.9166;-5.3580;
-186.3000;0.9166;-5.3554;
-186.0000;0.9174;-5.3580;
-185.7000;0.9166;-5.3632;
-185.4000;0.9166;-5.3580;
-185.1000;0.9166;-5.3632;
-184.8000;0.9182;-5.3658;
-184.5000;0.9158;-5.3710;
-184.2000;0.9166;-5.3814;
-183.9000;0.9182;-5.3762;
-183.6000;0.9174;-5.3865;
-183.3000;0.9158;-5.3736;
-183.0000;0.9190;-5.3658;
-182.7000;0.9174;-5.3658;
-182.4000;0.9166;-5.3684;
-182.1000;0.9166;-5.3632;
-181.8000;0.9174;-5.3632;
-181.5000;0.9182;-5.3580;
-181.2000;0.9166;-5.3710;
-180.9000;0.9166;-5.3710;
-180.6000;0.9149;-5.3684;
-180.3000;0.9182;-5.3736;
-180.0000;0.9141;-5.3736;
-179.7000;0.9231;-5.3580;
-179.4000;0.9166;-5.3762;
-179.1000;0.9198;-5.3684;
-178.8000;0.9182;-5.3658;
-178.5000;0.9182;-5.3684;
-178.2000;0.9190;-5.3632;
-177.9000;0.9174;-5.3580;
-177.6000;0.9198;-5.3528;
-177.3000;0.9174;-5.3528;
-177.0000;0.9101;-5.3736;
-176.7000;0.9174;-5.3606;
-176.4000;0.9166;-5.3528;
-176.1000;0.9206;-5.3425;
-175.8000;0.9166;-5.3502;
-175.5000;0.9182;-5.3580;
-175.2000;0.9198;-5.3502;
-174.9000;0.9166;-5.3502;
-174.6000;0.9198;-5.3554;
-174.3000;0.9190;-5.3580;
-174.0000;0.9182;-5.3554;
-173.7000;0.9174;-5.3554;
-173.4000;0.9182;-5.3476;
-173.1000;0.9149;-5.3528;
-172.8000;0.9182;-5.3425;
-172.5000;0.9182;-5.3450;
-172.2000;0.9174;-5.3476;
-171.9000;0.9182;-5.3476;
-171.6000;0.9182;-5.3528;
-171.3000;0.9174;-5.3476;
-171.0000;0.9190;-5.3450;
-170.7000;0.9288;-5.3087;
-170.4000;0.9166;-5.3399;
-170.1000;0.9174;-5.3450;
-169.8000;0.9198;-5.3450;
-169.5000;0.9166;-5.3528;
-169.2000;0.9214;-5.3373;
-168.9000;0.9182;-5.3425;
-168.6000;0.9174;-5.3425;
-168.3000;0.9190;-5.3450;
-168.0000;0.9182;-5.3476;
-167.7000;0.9182;-5.3554;
-167.4000;0.9198;-5.3528;
-167.1000;0.9198;-5.3476;
-166.8000;0.9174;-5.3606;
-166.5000;0.9174;-5.3606;
-166.2000;0.9182;-5.3528;
-165.9000;0.9166;-5.3658;
-165.6000;0.9166;-5.3788;
-165.3000;0.9174;-5.3788;
-165.0000;0.9149;-5.3917;
-164.7000;0.9166;-5.3762;
-164.4000;0.9166;-5.3865;
-164.1000;0.9206;-5.3632;
-163.8000;0.9174;-5.3684;
-163.5000;0.9190;-5.3684;
-163.2000;0.9182;-5.3684;
-162.9000;0.9198;-5.3710;
-162.6000;0.9158;-5.3736;
-162.3000;0.9182;-5.3658;
-162.0000;0.9223;-5.3606;
-161.7000;0.9174;-5.3684;
-161.4000;0.9182;-5.3632;
-161.1000;0.9198;-5.3528;
-160.8000;0.9182;-5.3684;
-160.5000;0.9198;-5.3658;
-160.2000;0.9174;-5.3658;
-159.9000;0.9198;-5.3580;
-159.6000;0.9174;-5.3658;
-159.3000;0.9190;-5.3658;
-159.0000;0.9174;-5.3710;
-158.7000;0.9182;-5.3658;
-158.4000;0.9271;-5.3399;
-158.1000;0.9182;-5.3606;
-157.8000;0.9190;-5.3580;
-157.5000;0.9166;-5.3658;
-157.2000;0.9190;-5.3606;
-156.9000;0.9166;-5.3632;
-156.6000;0.9166;-5.3606;
-156.3000;0.9182;-5.3554;
-156.0000;0.9174;-5.3554;
-155.7000;0.9158;-5.3580;
-155.4000;0.9182;-5.3580;
-155.1000;0.9149;-5.3606;
-154.8000;0.9182;-5.3528;
-154.5000;0.9166;-5.3450;
-154.2000;0.9174;-5.3373;
-153.9000;0.9141;-5.3476;
-153.6000;0.9190;-5.3347;
-153.3000;0.9174;-5.3399;
-153.0000;0.9198;-5.3347;
-152.7000;0.9190;-5.3347;
-152.4000;0.9174;-5.3425;
-152.1000;0.9190;-5.3476;
-151.8000;0.9158;-5.3580;
-151.5000;0.9182;-5.3554;
-151.2000;0.9190;-5.3554;
-150.9000;0.9149;-5.3580;
-150.6000;0.9125;-5.3658;
-150.3000;0.9166;-5.3528;
-150.0000;0.9174;-5.3658;
-149.7000;0.9174;-5.3606;
-149.4000;0.9182;-5.3580;
-149.1000;0.9174;-5.3476;
-148.8000;0.9174;-5.3502;
-148.5000;0.9166;-5.3450;
-148.2000;0.9174;-5.3347;
-147.9000;0.9182;-5.3373;
-147.6000;0.9182;-5.3399;
-147.3000;0.9158;-5.3450;
-147.0000;0.9149;-5.3502;
-146.7000;0.9174;-5.3450;
-146.4000;0.9158;-5.3476;
-146.1000;0.9158;-5.3554;
-145.8000;0.9166;-5.3632;
-145.5000;0.9182;-5.3554;
-145.2000;0.9166;-5.3580;
-144.9000;0.9149;-5.3632;
-144.6000;0.9158;-5.3606;
-144.3000;0.9190;-5.3399;
-144.0000;0.9166;-5.3373;
-143.7000;0.9174;-5.3373;
-143.4000;0.9182;-5.3425;
-143.1000;0.9182;-5.3399;
-142.8000;0.9190;-5.3347;
-142.5000;0.9198;-5.3373;
-142.2000;0.9166;-5.3528;
-141.9000;0.9182;-5.3528;
-141.6000;0.9182;-5.3528;
-141.3000;0.9166;-5.3476;
-141.0000;0.9149;-5.3502;
-140.7000;0.9158;-5.3476;
-140.4000;0.9182;-5.3476;
-140.1000;0.9117;-5.3632;
-139.8000;0.9190;-5.3399;
-139.5000;0.9125;-5.3554;
-139.2000;0.9158;-5.3373;
-138.9000;0.9174;-5.3347;
-138.6000;0.9190;-5.3321;
-138.3000;0.9174;-5.3450;
-138.0000;0.9182;-5.3399;
-137.7000;0.9158;-5.3425;
-137.4000;0.9190;-5.3295;
-137.1000;0.9182;-5.3321;
-136.8000;0.9198;-5.3295;
-136.5000;0.9190;-5.3295;
-136.2000;0.9174;-5.3295;
-135.9000;0.9182;-5.3269;
-135.6000;0.9109;-5.3450;
-135.3000;0.9190;-5.3295;
-135.0000;0.9174;-5.3321;
-134.7000;0.9174;-5.3321;
-134.4000;0.9190;-5.3217;
-134.1000;0.9174;-5.3191;
-133.8000;0.9198;-5.3165;
-133.5000;0.9166;-5.3295;
-133.2000;0.9182;-5.3321;
-132.9000;0.9149;-5.3450;
-132.6000;0.9198;-5.3347;
-132.3000;0.9182;-5.3425;
-132.0000;0.9182;-5.3373;
-131.7000;0.9190;-5.3269;
-131.4000;0.9255;-5.3139;
-131.1000;0.9174;-5.3321;
-130.8000;0.9166;-5.3399;
-130.5000;0.9190;-5.3321;
-130.2000;0.9182;-5.3295;
-129.9000;0.9174;-5.3321;
-129.6000;0.9190;-5.3399;
-129.3000;0.9166;-5.3373;
-129.0000;0.9158;-5.3399;
-128.7000;0.9182;-5.3399;
-128.4000;0.9182;-5.3450;
-128.1000;0.9166;-5.3476;
-127.8000;0.9182;-5.3373;
-127.5000;0.9190;-5.3450;
-127.2000;0.9174;-5.3347;
-126.9000;0.9190;-5.3373;
-126.6000;0.9174;-5.3347;
-126.3000;0.9174;-5.3347;
-126.0000;0.9182;-5.3476;
-125.7000;0.9174;-5.3528;
-125.4000;0.9190;-5.3502;
-125.1000;0.9190;-5.3502;
-124.8000;0.9166;-5.3580;
-124.5000;0.9117;-5.3580;
-124.2000;0.9166;-5.3399;
-123.9000;0.9182;-5.3450;
-123.6000;0.9182;-5.3502;
-123.3000;0.9084;-5.3788;
-123.0000;0.9182;-5.3450;
-122.7000;0.9182;-5.3450;
-122.4000;0.9198;-5.3450;
-122.1000;0.9206;-5.3476;
-121.8000;0.9214;-5.3554;
-121.5000;0.9190;-5.3684;
-121.2000;0.9198;-5.3762;
-120.9000;0.9190;-5.3814;
-120.6000;0.9206;-5.3710;
-120.3000;0.9190;-5.3710;
-120.0000;0.9182;-5.3658;
-119.7000;0.9190;-5.3580;
-119.4000;0.9158;-5.3528;
-119.1000;0.9149;-5.3528;
-118.8000;0.9190;-5.3425;
-118.5000;0.9174;-5.3476;
-118.2000;0.9149;-5.3502;
-117.9000;0.9166;-5.3554;
-117.6000;0.9158;-5.3632;
-117.3000;0.9182;-5.3606;
-117.0000;0.9149;-5.3580;
-116.7000;0.9174;-5.3399;
-116.4000;0.9166;-5.3425;
-116.1000;0.9158;-5.3425;
-115.8000;0.9174;-5.3425;
-115.5000;0.9206;-5.3347;
-115.2000;0.9149;-5.3580;
-114.9000;0.9190;-5.3399;
-114.6000;0.9198;-5.3450;
-114.3000;0.9190;-5.3399;
-114.0000;0.9190;-5.3321;
-113.7000;0.9190;-5.3373;
-113.4000;0.9174;-5.3425;
-113.1000;0.9174;-5.3321;
-112.8000;0.9149;-5.3295;
-112.5000;0.9166;-5.3243;
-112.2000;0.9190;-5.3191;
-111.9000;0.9174;-5.3295;
-111.6000;0.9166;-5.3295;
-111.3000;0.9149;-5.3321;
-111.0000;0.9166;-5.3321;
-110.7000;0.9182;-5.3450;
-110.4000;0.9182;-5.3554;
-110.1000;0.9190;-5.3528;
-109.8000;0.9174;-5.3528;
-109.5000;0.9206;-5.3425;
-109.2000;0.9166;-5.3554;
-108.9000;0.9190;-5.3476;
-108.6000;0.9166;-5.3425;
-108.3000;0.9182;-5.3347;
-108.0000;0.9182;-5.3243;
-107.7000;0.9166;-5.3321;
-107.4000;0.9117;-5.3425;
-107.1000;0.9182;-5.3243;
-106.8000;0.9141;-5.3295;
-106.5000;0.9190;-5.3165;
-106.2000;0.9149;-5.3243;
-105.9000;0.9182;-5.3217;
-105.6000;0.9190;-5.3269;
-105.3000;0.9158;-5.3373;
-105.0000;0.9174;-5.3321;
-104.7000;0.9182;-5.3321;
-104.4000;0.9190;-5.3373;
-104.1000;0.9174;-5.3399;
-103.8000;0.9166;-5.3399;
-103.5000;0.9149;-5.3502;
-103.2000;0.9166;-5.3502;
-102.9000;0.9174;-5.3450;
-102.6000;0.9133;-5.3580;
-102.3000;0.9166;-5.3502;
-102.0000;0.9166;-5.3580;
-101.7000;0.9182;-5.3554;
-101.4000;0.9182;-5.3554;
-101.1000;0.9198;-5.3450;
-100.8000;0.9174;-5.3528;
-100.5000;0.9174;-5.3502;
-100.2000;0.9174;-5.3528;
-99.9000;0.9182;-5.3450;
-99.6000;0.9117;-5.3554;
-99.3000;0.9190;-5.3373;
-99.0000;0.9133;-5.3425;
-98.7000;0.9174;-5.3373;
-98.4000;0.9182;-5.3321;
-98.1000;0.9190;-5.3269;
-97.8000;0.9174;-5.3295;
-97.5000;0.9149;-5.3295;
-97.2000;0.9158;-5.3269;
-96.9000;0.9190;-5.3191;
-96.6000;0.9214;-5.3087;
-96.3000;0.9174;-5.3113;
-96.0000;0.9182;-5.3010;
-95.7000;0.9190;-5.3036;
-95.4000;0.9190;-5.2984;
-95.1000;0.9158;-5.3036;
-94.8000;0.9174;-5.3139;
-94.5000;0.9182;-5.3165;
-94.2000;0.9158;-5.3269;
-93.9000;0.9158;-5.3321;
-93.6000;0.9158;-5.3347;
-93.3000;0.9166;-5.3217;
-93.0000;0.9158;-5.3269;
-92.7000;0.9166;-5.3269;
-92.4000;0.9166;-5.3321;
-92.1000;0.9158;-5.3243;
-91.8000;0.9125;-5.3321;
-91.5000;0.9198;-5.3165;
-91.2000;0.9174;-5.3243;
-90.9000;0.9182;-5.3295;
-90.6000;0.9182;-5.3243;
-90.3000;0.9182;-5.3243;
-90.0000;0.9182;-5.3269;
-89.7000;0.9158;-5.3321;
-89.4000;0.9166;-5.3321;
-89.1000;0.9182;-5.3217;
-88.8000;0.9174;-5.3191;
-88.5000;0.9174;-5.3191;
-88.2000;0.9166;-5.3165;
-87.9000;0.9182;-5.3113;
-87.6000;0.9166;-5.3165;
-87.3000;0.9206;-5.3113;
-87.0000;0.9174;-5.3217;
-86.7000;0.9190;-5.3191;
-86.4000;0.9214;-5.3269;
-86.1000;0.9198;-5.3347;
-85.8000;0.9198;-5.3373;
-85.5000;0.9198;-5.3399;
-85.2000;0.9198;-5.3425;
-84.9000;0.9198;-5.3476;
-84.6000;0.9166;-5.3502;
-84.3000;0.9190;-5.3425;
-84.0000;0.9182;-5.3347;
-83.7000;0.9166;-5.3476;
-83.4000;0.9101;-5.3658;
-83.1000;0.9166;-5.3528;
-82.8000;0.9190;-5.3476;
-82.5000;0.9190;-5.3425;
-82.2000;0.9190;-5.3425;
-81.9000;0.9198;-5.3476;
-81.6000;0.9198;-5.3425;
-81.3000;0.9182;-5.3450;
-81.0000;0.9166;-5.3476;
-80.7000;0.9174;-5.3502;
-80.4000;0.9206;-5.3450;
-80.1000;0.9190;-5.3554;
-79.8000;0.9198;-5.3476;
-79.5000;0.9190;-5.3450;
-79.2000;0.9190;-5.3347;
-78.9000;0.9190;-5.3295;
-78.6000;0.9182;-5.3269;
-78.3000;0.9190;-5.3321;
-78.0000;0.9190;-5.3243;
-77.7000;0.9174;-5.3217;
-77.4000;0.9182;-5.3243;
-77.1000;0.9182;-5.3295;
-76.8000;0.9174;-5.3217;
-76.5000;0.9141;-5.3217;
-76.2000;0.9166;-5.3217;
-75.9000;0.9166;-5.3217;
-75.6000;0.9288;-5.2932;
-75.3000;0.9190;-5.3243;
-75.0000;0.9182;-5.3321;
-74.7000;0.9158;-5.3425;
-74.4000;0.9133;-5.3450;
-74.1000;0.9198;-5.3295;
-73.8000;0.9190;-5.3217;
-73.5000;0.9206;-5.3191;
-73.2000;0.9190;-5.3243;
-72.9000;0.9182;-5.3269;
-72.6000;0.9182;-5.3243;
-72.3000;0.9182;-5.3217;
-72.0000;0.9158;-5.3321;
-71.7000;0.9174;-5.3425;
-71.4000;0.9182;-5.3450;
-71.1000;0.9247;-5.3347;
-70.8000;0.9166;-5.3502;
-70.5000;0.9166;-5.3528;
-70.2000;0.9174;-5.3502;
-69.9000;0.9174;-5.3502;
-69.6000;0.9174;-5.3450;
-69.3000;0.9166;-5.3502;
-69.0000;0.9174;-5.3450;
-68.7000;0.9166;-5.3450;
-68.4000;0.9174;-5.3347;
-68.1000;0.9158;-5.3425;
-67.8000;0.9174;-5.3373;
-67.5000;0.9174;-5.3321;
-67.2000;0.9141;-5.3399;
-66.9000;0.9149;-5.3347;
-66.6000;0.9182;-5.3269;
-66.3000;0.9182;-5.3269;
-66.0000;0.9182;-5.3321;
-65.7000;0.9174;-5.3373;
-65.4000;0.9174;-5.3425;
-65.1000;0.9149;-5.3580;
-64.8000;0.9190;-5.3450;
-64.5000;0.9198;-5.3425;
-64.2000;0.9182;-5.3425;
-63.9000;0.9190;-5.3425;
-63.6000;0.9190;-5.3399;
-63.3000;0.9166;-5.3399;
-63.0000;0.9182;-5.3373;
-62.7000;0.9190;-5.3347;
-62.4000;0.9149;-5.3554;
-62.1000;0.9174;-5.3450;
-61.8000;0.9125;-5.3684;
-61.5000;0.9166;-5.3606;
-61.2000;0.9174;-5.3528;
-60.9000;0.9166;-5.3476;
-60.6000;0.9174;-5.3450;
-60.3000;0.9149;-5.3528;
-60.0000;0.9174;-5.3373;
-59.7000;0.9182;-5.3425;
-59.4000;0.9166;-5.3476;
-59.1000;0.9158;-5.3425;
-58.8000;0.9158;-5.3476;
-58.5000;0.9174;-5.3476;
-58.2000;0.9149;-5.3528;
-57.9000;0.9166;-5.3528;
-57.6000;0.9174;-5.3502;
-57.3000;0.9182;-5.3528;
-57.0000;0.9182;-5.3450;
-56.7000;0.9149;-5.3450;
-56.4000;0.9174;-5.3399;
-56.1000;0.9166;-5.3425;
-55.8000;0.9198;-5.3269;
-55.5000;0.9182;-5.3295;
-55.2000;0.9174;-5.3425;
-54.9000;0.9198;-5.3347;
-54.6000;0.9166;-5.3502;
-54.3000;0.9174;-5.3425;
-54.0000;0.9190;-5.3321;
-53.7000;0.9190;-5.3347;
-53.4000;0.9198;-5.3347;
-53.1000;0.9174;-5.3373;
-52.8000;0.9182;-5.3347;
-52.5000;0.9198;-5.3295;
-52.2000;0.9149;-5.3399;
-51.9000;0.9190;-5.3399;
-51.6000;0.9141;-5.3425;
-51.3000;0.9166;-5.3321;
-51.0000;0.9174;-5.3321;
-50.7000;0.9182;-5.3243;
-50.4000;0.9166;-5.3269;
-50.1000;0.9149;-5.3373;
-49.8000;0.9166;-5.3321;
-49.5000;0.9190;-5.3269;
-49.2000;0.9214;-5.3243;
-48.9000;0.9158;-5.3476;
-48.6000;0.9182;-5.3528;
-48.3000;0.9182;-5.3528;
-48.0000;0.9166;-5.3580;
-47.7000;0.9190;-5.3554;
-47.4000;0.9182;-5.3528;
-47.1000;0.9231;-5.3399;
-46.8000;0.9174;-5.3606;
-46.5000;0.9166;-5.3762;
-46.2000;0.9174;-5.3710;
-45.9000;0.9174;-5.3606;
-45.6000;0.9206;-5.3528;
-45.3000;0.9174;-5.3554;
-45.0000;0.9206;-5.3450;
-44.7000;0.9288;-5.3295;
-44.4000;0.9190;-5.3580;
-44.1000;0.9158;-5.3606;
-43.8000;0.9174;-5.3528;
-43.5000;0.9182;-5.3580;
-43.2000;0.9182;-5.3580;
-42.9000;0.9158;-5.3554;
-42.6000;0.9174;-5.3476;
-42.3000;0.9190;-5.3450;
-42.0000;0.9166;-5.3554;
-41.7000;0.9166;-5.3450;
-41.4000;0.9166;-5.3476;
-41.1000;0.9166;-5.3476;
-40.8000;0.9174;-5.3347;
-40.5000;0.9158;-5.3450;
-40.2000;0.9149;-5.3580;
-39.9000;0.9190;-5.3425;
-39.6000;0.9174;-5.3450;
-39.3000;0.9166;-5.3502;
-39.0000;0.9101;-5.3684;
-38.7000;0.9182;-5.3502;
-38.4000;0.9182;-5.3476;
-38.1000;0.9190;-5.3476;
-37.8000;0.9166;-5.3502;
-37.5000;0.9182;-5.3450;
-37.2000;0.9182;-5.3450;
-36.9000;0.9174;-5.3450;
-36.6000;0.9174;-5.3528;
-36.3000;0.9182;-5.3580;
-36.0000;0.9141;-5.3710;
-35.7000;0.9174;-5.3554;
-35.4000;0.9182;-5.3554;
-35.1000;0.9166;-5.3528;
-34.8000;0.9158;-5.3632;
-34.5000;0.9149;-5.3632;
-34.2000;0.9166;-5.3580;
-33.9000;0.9166;-5.3554;
-33.6000;0.9158;-5.3502;
-33.3000;0.9166;-5.3528;
-33.0000;0.9182;-5.3606;
-32.7000;0.9190;-5.3580;
-32.4000;0.9166;-5.3554;
-32.1000;0.9174;-5.3502;
-31.8000;0.9158;-5.3502;
-31.5000;0.9182;-5.3502;
-31.2000;0.9174;-5.3450;
-30.9000;0.9158;-5.3425;
-30.6000;0.9182;-5.3295;
-30.3000;0.9182;-5.3269;
-30.0000;0.9166;-5.3243;
-29.7000;0.9190;-5.3217;
-29.4000;0.9174;-5.3321;
-29.1000;0.9239;-5.3191;
-28.8000;0.9149;-5.3450;
-28.5000;0.9182;-5.3399;
-28.2000;0.9149;-5.3476;
-27.9000;0.9190;-5.3373;
-27.6000;0.9255;-5.3191;
-27.3000;0.9158;-5.3295;
-27.0000;0.9206;-5.3165;
-26.7000;0.9166;-5.3269;
-26.4000;0.9174;-5.3373;
-26.1000;0.9166;-5.3425;
-25.8000;0.9174;-5.3425;
-25.5000;0.9166;-5.3528;
-25.2000;0.9166;-5.3502;
-24.9000;0.9166;-5.3425;
-24.6000;0.9125;-5.3425;
-24.3000;0.9166;-5.3321;
-24.0000;0.9125;-5.3425;
-23.7000;0.9141;-5.3347;
-23.4000;0.9149;-5.3321;
-23.1000;0.9117;-5.3476;
-22.8000;0.9174;-5.3295;
-22.5000;0.9166;-5.3425;
-22.2000;0.9149;-5.3399;
-21.9000;0.9166;-5.3399;
-21.6000;0.9166;-5.3425;
-21.3000;0.9190;-5.3321;
-21.0000;0.9166;-5.3399;
-20.7000;0.9174;-5.3295;
-20.4000;0.9174;-5.3269;
-20.1000;0.9190;-5.3139;
-19.8000;0.9182;-5.3191;
-19.5000;0.9166;-5.3243;
-19.2000;0.9166;-5.3217;
-18.9000;0.9214;-5.3113;
-18.6000;0.9174;-5.3165;
-18.3000;0.9174;-5.3191;
-18.0000;0.9190;-5.3217;
-17.7000;0.9198;-5.3269;
-17.4000;0.9166;-5.3295;
-17.1000;0.9166;-5.3243;
-16.8000;0.9166;-5.3295;
-16.5000;0.9174;-5.3347;
-16.2000;0.9174;-5.3450;
-15.9000;0.9182;-5.3425;
-15.6000;0.9174;-5.3450;
-15.3000;0.9206;-5.3295;
-15.0000;0.9198;-5.3347;
-14.7000;0.9158;-5.3450;
-14.4000;0.9174;-5.3373;
-14.1000;0.9174;-5.3269;
-13.8000;0.9190;-5.3191;
-13.5000;0.9190;-5.3269;
-13.2000;0.9174;-5.3321;
-12.9000;0.9231;-5.3087;
-12.6000;0.9190;-5.3191;
-12.3000;0.9182;-5.3243;
-12.0000;0.9174;-5.3243;
-11.7000;0.9206;-5.3191;
-11.4000;0.9141;-5.3321;
-11.1000;0.9182;-5.3295;
-10.8000;0.9182;-5.3321;
-10.5000;0.9166;-5.3347;
-10.2000;0.9174;-5.3321;
-9.9000;0.9182;-5.3347;
-9.6000;0.9174;-5.3321;
-9.3000;0.9174;-5.3321;
-9.0000;0.9174;-5.3347;
-8.7000;0.9190;-5.3373;
-8.4000;0.9109;-5.3632;
-8.1000;0.9174;-5.3399;
-7.8000;0.9174;-5.3476;
-7.5000;0.9231;-5.3295;
-7.2000;0.9206;-5.3295;
-6.9000;0.9182;-5.3347;
-6.6000;0.9198;-5.3269;
-6.3000;0.9247;-5.3191;
-6.0000;0.9149;-5.3476;
-5.7000;0.9182;-5.3450;
-5.4000;0.9223;-5.3373;
-5.1000;0.9166;-5.3476;
-4.8000;0.9182;-5.3450;
-4.5000;0.9231;-5.3295;
-4.2000;0.9166;-5.3502;
-3.9000;0.9182;-5.3554;
-3.6000;0.9198;-5.3476;
-3.3000;0.9174;-5.3554;
-3.0000;0.9141;-5.3580;
-2.7000;0.9133;-5.3528;
-2.4000;0.9198;-5.3450;
-2.1000;0.9190;-5.3502;
-1.8000;0.9174;-5.3476;
-1.5000;0.9198;-5.3502;
-1.2000;0.9174;-5.3606;
-0.9000;0.9174;-5.3580;
-0.6000;0.9182;-5.3632;
-0.3000;0.9158;-5.3684;
0.0000;0.9158;-5.3684;
0.3000;0.9328;-5.3528;
0.6000;0.9646;-5.2958;
0.9000;0.9931;-5.2232;
1.2000;1.0069;-5.1894;
1.5000;1.0232;-5.1557;
1.8000;1.0338;-5.1220;
2.1000;1.0452;-5.0987;
2.4000;1.0501;-5.0779;
2.7000;1.0566;-5.0598;
3.0000;1.0655;-5.0364;
3.3000;1.0688;-5.0261;
3.6000;1.0737;-5.0235;
3.9000;1.0769;-5.0131;
4.2000;1.0810;-5.0053;
4.5000;1.0851;-5.0027;
4.8000;1.0867;-5.0027;
5.1000;1.0981;-4.9846;
5.4000;1.0940;-4.9923;
5.7000;1.0940;-4.9768;
6.0000;1.0989;-4.9638;
6.3000;1.0973;-4.9794;
6.6000;1.1022;-4.9664;
6.9000;1.0981;-4.9820;
7.2000;1.1062;-4.9690;
7.5000;1.1079;-4.9664;
7.8000;1.1103;-4.9560;
8.1000;1.1136;-4.9560;
8.4000;1.1160;-4.9508;
8.7000;1.1201;-4.9560;
9.0000;1.1168;-4.9690;
9.3000;1.1201;-4.9612;
9.6000;1.1217;-4.9586;
9.9000;1.1217;-4.9612;
10.2000;1.1241;-4.9664;
10.5000;1.1258;-4.9586;
10.8000;1.1258;-4.9586;
11.1000;1.1258;-4.9534;
11.4000;1.1290;-4.9560;
11.7000;1.1298;-4.9664;
12.0000;1.1323;-4.9586;
12.3000;1.1347;-4.9534;
12.6000;1.1315;-4.9638;
12.9000;1.1363;-4.9560;
13.2000;1.1363;-4.9690;
13.5000;1.1363;-4.9690;
13.8000;1.1396;-4.9612;
14.1000;1.1388;-4.9586;
14.4000;1.1372;-4.9560;
14.7000;1.1355;-4.9638;
15.0000;1.1404;-4.9457;
15.3000;1.1404;-4.9534;
15.6000;1.1437;-4.9431;
15.9000;1.1437;-4.9483;
16.2000;1.1461;-4.9508;
16.5000;1.1429;-4.9612;
16.8000;1.1486;-4.9560;
17.1000;1.1486;-4.9560;
17.4000;1.1486;-4.9612;
17.7000;1.1445;-4.9872;
18.0000;1.1518;-4.9638;
18.3000;1.1494;-4.9638;
18.6000;1.1510;-4.9586;
18.9000;1.1526;-4.9508;
19.2000;1.1526;-4.9586;
19.5000;1.1543;-4.9508;
19.8000;1.1518;-4.9534;
20.1000;1.1551;-4.9483;
20.4000;1.1543;-4.9457;
20.7000;1.1526;-4.9405;
21.0000;1.1559;-4.9405;
21.3000;1.1559;-4.9405;
21.6000;1.1559;-4.9457;
21.9000;1.1600;-4.9405;
22.2000;1.1575;-4.9534;
22.5000;1.1543;-4.9638;
22.8000;1.1591;-4.9586;
23.1000;1.1608;-4.9612;
23.4000;1.1600;-4.9664;
23.7000;1.1624;-4.9586;
24.0000;1.1600;-4.9638;
24.3000;1.1616;-4.9638;
24.6000;1.1616;-4.9638;
24.9000;1.1624;-4.9612;
25.2000;1.1616;-4.9586;
25.5000;1.1632;-4.9586;
25.8000;1.1648;-4.9586;
26.1000;1.1656;-4.9612;
26.4000;1.1624;-4.9664;
26.7000;1.1616;-4.9716;
27.0000;1.1632;-4.9716;
27.3000;1.1640;-4.9742;
27.6000;1.1640;-4.9742;
27.9000;1.1624;-4.9716;
28.2000;1.1648;-4.9586;
28.5000;1.1656;-4.9560;
28.8000;1.1632;-4.9664;
29.1000;1.1681;-4.9508;
29.4000;1.1656;-4.9612;
29.7000;1.1665;-4.9612;
30.0000;1.1665;-4.9690;
30.3000;1.1665;-4.9768;
30.6000;1.1656;-4.9768;
30.9000;1.1681;-4.9638;
31.2000;1.1681;-4.9508;
31.5000;1.1665;-4.9534;
31.8000;1.1665;-4.9534;
32.1000;1.1673;-4.9560;
32.4000;1.1697;-4.9508;
32.7000;1.1681;-4.9664;
33.0000;1.1673;-4.9742;
33.3000;1.1689;-4.9716;
33.6000;1.1689;-4.9768;
33.9000;1.1689;-4.9768;
34.2000;1.1697;-4.9820;
34.5000;1.1705;-4.9742;
34.8000;1.1681;-4.9794;
35.1000;1.1713;-4.9768;
35.4000;1.1705;-4.9794;
35.7000;1.1705;-4.9768;
36.0000;1.1705;-4.9716;
36.3000;1.1787;-4.9560;
36.6000;1.1722;-4.9716;
36.9000;1.1697;-4.9794;
37.2000;1.1705;-4.9794;
37.5000;1.1722;-4.9742;
37.8000;1.1697;-4.9768;
38.1000;1.1697;-4.9820;
38.4000;1.1689;-4.9794;
38.7000;1.1705;-4.9716;
39.0000;1.1705;-4.9612;
39.3000;1.1705;-4.9586;
39.6000;1.1722;-4.9560;
39.9000;1.1713;-4.9664;
40.2000;1.1730;-4.9612;
40.5000;1.1754;-4.9560;
40.8000;1.1713;-4.9612;
41.1000;1.1722;-4.9612;
41.4000;1.1730;-4.9612;
41.7000;1.1730;-4.9638;
42.0000;1.1713;-4.9612;
42.3000;1.1730;-4.9483;
42.6000;1.1746;-4.9353;
42.9000;1.1713;-4.9534;
43.2000;1.1648;-4.9664;
43.5000;1.1722;-4.9586;
43.8000;1.1722;-4.9612;
44.1000;1.1730;-4.9638;
44.4000;1.1722;-4.9638;
44.7000;1.1713;-4.9768;
45.0000;1.1730;-4.9638;
45.3000;1.1697;-4.9690;
45.6000;1.1738;-4.9560;
45.9000;1.1681;-4.9716;
46.2000;1.1730;-4.9716;
46.5000;1.1738;-4.9716;
46.8000;1.1713;-4.9742;
47.1000;1.1787;-4.9638;
47.4000;1.1656;-4.9872;
47.7000;1.1730;-4.9716;
48.0000;1.1722;-4.9716;
48.3000;1.1722;-4.9716;
48.6000;1.1730;-4.9716;
48.9000;1.1738;-4.9690;
49.2000;1.1762;-4.9483;
49.5000;1.1738;-4.9508;
49.8000;1.1754;-4.9534;
50.1000;1.1746;-4.9534;
50.4000;1.1746;-4.9483;
50.7000;1.1738;-4.9483;
51.0000;1.1730;-4.9534;
51.3000;1.1746;-4.9586;
51.6000;1.1770;-4.9534;
51.9000;1.1746;-4.9534;
52.2000;1.1746;-4.9586;
52.5000;1.1730;-4.9612;
52.8000;1.1754;-4.9638;
53.1000;1.1746;-4.9690;
53.4000;1.1746;-4.9768;
53.7000;1.1754;-4.9872;
54.0000;1.1827;-4.9794;
54.3000;1.1746;-5.0001;
54.6000;1.1746;-5.0001;
54.9000;1.1738;-5.0001;
55.2000;1.1722;-4.9975;
55.5000;1.1762;-4.9820;
55.8000;1.1746;-4.9820;
56.1000;1.1754;-4.9742;
56.4000;1.1746;-4.9742;
56.7000;1.1713;-4.9897;
57.0000;1.1738;-4.9846;
57.3000;1.1722;-4.9846;
57.6000;1.1738;-4.9742;
57.9000;1.1754;-4.9664;
58.2000;1.1730;-4.9638;
58.5000;1.1738;-4.9716;
58.8000;1.1803;-4.9612;
59.1000;1.1746;-4.9716;
59.4000;1.1738;-4.9716;
59.7000;1.1754;-4.9690;
60.0000;1.1779;-4.9560;
60.3000;1.1705;-4.9768;
60.6000;1.1770;-4.9586;
60.9000;1.1770;-4.9560;
61.2000;1.1787;-4.9508;
61.5000;1.1746;-4.9586;
61.8000;1.1762;-4.9534;
62.1000;1.1754;-4.9534;
62.4000;1.1738;-4.9534;
62.7000;1.1754;-4.9508;
63.0000;1.1779;-4.9483;
63.3000;1.1787;-4.9508;
63.6000;1.1762;-4.9534;
63.9000;1.1754;-4.9560;
64.2000;1.1754;-4.9560;
64.5000;1.1762;-4.9560;
64.8000;1.1803;-4.9508;
65.1000;1.1770;-4.9664;
65.4000;1.1746;-4.9690;
65.7000;1.1754;-4.9742;
66.0000;1.1754;-4.9742;
66.3000;1.1730;-4.9716;
66.6000;1.1754;-4.9612;
66.9000;1.1738;-4.9664;
67.2000;1.1770;-4.9690;
67.5000;1.1787;-4.9716;
67.8000;1.1770;-4.9716;
68.1000;1.1779;-4.9794;
68.4000;1.1779;-4.9820;
68.7000;1.1754;-4.9742;
69.0000;1.1754;-4.9690;
69.3000;1.1795;-4.9612;
69.6000;1.1770;-4.9742;
69.9000;1.1754;-4.9716;
70.2000;1.1713;-4.9794;
70.5000;1.1746;-4.9742;
70.8000;1.1762;-4.9690;
71.1000;1.1770;-4.9690;
71.4000;1.1762;-4.9716;
71.7000;1.1738;-4.9820;
72.0000;1.1770;-4.9690;
72.3000;1.1779;-4.9742;
72.6000;1.1762;-4.9742;
72.9000;1.1770;-4.9742;
73.2000;1.1770;-4.9794;
73.5000;1.1779;-4.9794;
73.8000;1.1770;-4.9690;
74.1000;1.1787;-4.9586;
74.4000;1.1779;-4.9612;
74.7000;1.1795;-4.9612;
75.0000;1.1803;-4.9638;
75.3000;1.1779;-4.9690;
75.6000;1.1770;-4.9612;
75.9000;1.1779;-4.9612;
76.2000;1.1754;-4.9742;
76.5000;1.1762;-4.9794;
76.8000;1.1746;-4.9742;
77.1000;1.1803;-4.9638;
77.4000;1.1746;-4.9742;
77.7000;1.1746;-4.9690;
78.0000;1.1754;-4.9742;
78.3000;1.1738;-4.9768;
78.6000;1.1795;-4.9664;
78.9000;1.1779;-4.9690;
79.2000;1.1754;-4.9716;
79.5000;1.1754;-4.9638;
79.8000;1.1770;-4.9612;
80.1000;1.1819;-4.9431;
80.4000;1.1754;-4.9534;
80.7000;1.1770;-4.9638;
81.0000;1.1795;-4.9612;
81.3000;1.1754;-4.9794;
81.6000;1.1713;-4.9949;
81.9000;1.1754;-4.9794;
82.2000;1.1770;-4.9716;
82.5000;1.1770;-4.9742;
82.8000;1.1770;-4.9690;
83.1000;1.1730;-4.9742;
83.4000;1.1762;-4.9638;
83.7000;1.1779;-4.9508;
84.0000;1.1754;-4.9534;
84.3000;1.1754;-4.9560;
84.6000;1.1738;-4.9508;
84.9000;1.1762;-4.9431;
85.2000;1.1795;-4.9353;
85.5000;1.1762;-4.9457;
85.8000;1.1762;-4.9508;
86.1000;1.1754;-4.9534;
86.4000;1.1770;-4.9612;
86.7000;1.1770;-4.9508;
87.0000;1.1779;-4.9508;
87.3000;1.1779;-4.9560;
87.6000;1.1754;-4.9560;
87.9000;1.1770;-4.9508;
88.2000;1.1762;-4.9586;
88.5000;1.1746;-4.9638;
88.8000;1.1754;-4.9560;
89.1000;1.1779;-4.9483;
89.4000;1.1746;-4.9664;
89.7000;1.1746;-4.9716;
90.0000;1.1762;-4.9742;
90.3000;1.1754;-4.9690;
90.6000;1.1762;-4.9716;
90.9000;1.1754;-4.9716;
91.2000;1.1787;-4.9742;
91.5000;1.1754;-4.9742;
91.8000;1.1779;-4.9690;
92.1000;1.1762;-4.9690;
92.4000;1.1770;-4.9638;
92.7000;1.1770;-4.9664;
93.0000;1.1779;-4.9690;
93.3000;1.1746;-4.9690;
93.6000;1.1852;-4.9457;
93.9000;1.1770;-4.9586;
94.2000;1.1738;-4.9794;
94.5000;1.1762;-4.9716;
94.8000;1.1770;-4.9742;
95.1000;1.1803;-4.9534;
95.4000;1.1779;-4.9560;
95.7000;1.1770;-4.9560;
96.0000;1.1770;-4.9612;
96.3000;1.1762;-4.9612;
96.6000;1.1779;-4.9534;
96.9000;1.1770;-4.9638;
97.2000;1.1762;-4.9586;
97.5000;1.1754;-4.9638;
97.8000;1.1738;-4.9483;
98.1000;1.1770;-4.9431;
98.4000;1.1762;-4.9405;
98.7000;1.1779;-4.9431;
99.0000;1.1844;-4.9249;
99.3000;1.1762;-4.9379;
99.6000;1.1770;-4.9405;
99.9000;1.1770;-4.9431;
100.2000;1.1762;-4.9457;
100.5000;1.1779;-4.9457;
100.8000;1.1844;-4.9275;
101.1000;1.1770;-4.9457;
101.4000;1.1787;-4.9405;
101.7000;1.1762;-4.9405;
102.0000;1.1770;-4.9353;
102.3000;1.1762;-4.9379;
102.6000;1.1770;-4.9353;
102.9000;1.1819;-4.9171;
103.2000;1.1770;-4.9301;
103.5000;1.1762;-4.9301;
103.8000;1.1722;-4.9483;
104.1000;1.1787;-4.9301;
104.4000;1.1762;-4.9405;
104.7000;1.1779;-4.9379;
105.0000;1.1819;-4.9405;
105.3000;1.1746;-4.9508;
105.6000;1.1770;-4.9405;
105.9000;1.1754;-4.9457;
106.2000;1.1787;-4.9405;
106.5000;1.1779;-4.9301;
106.8000;1.1779;-4.9353;
107.1000;1.1787;-4.9405;
107.4000;1.1762;-4.9508;
107.7000;1.1770;-4.9534;
108.0000;1.1779;-4.9431;
108.3000;1.1762;-4.9405;
108.6000;1.1762;-4.9431;
108.9000;1.1770;-4.9431;
109.2000;1.1852;-4.9223;
109.5000;1.1795;-4.9379;
109.8000;1.1762;-4.9379;
110.1000;1.1738;-4.9483;
110.4000;1.1827;-4.9327;
110.7000;1.1762;-4.9431;
111.0000;1.1787;-4.9379;
111.3000;1.1770;-4.9405;
111.6000;1.1722;-4.9586;
111.9000;1.1770;-4.9508;
112.2000;1.1770;-4.9586;
112.5000;1.1754;-4.9534;
112.8000;1.1779;-4.9457;
113.1000;1.1787;-4.9508;
113.4000;1.1819;-4.9405;
113.7000;1.1770;-4.9586;
114.0000;1.1770;-4.9534;
114.3000;1.1787;-4.9586;
114.6000;1.1754;-4.9534;
114.9000;1.1754;-4.9483;
115.2000;1.1770;-4.9431;
115.5000;1.1762;-4.9483;
115.8000;1.1795;-4.9431;
116.1000;1.1746;-4.9560;
116.4000;1.1713;-4.9612;
116.7000;1.1762;-4.9508;
117.0000;1.1746;-4.9534;
117.3000;1.1762;-4.9508;
117.6000;1.1754;-4.9508;
117.9000;1.1770;-4.9560;
118.2000;1.1746;-4.9690;
118.5000;1.1762;-4.9612;
118.8000;1.1762;-4.9534;
119.1000;1.1762;-4.9457;
119.4000;1.1770;-4.9457;
119.7000;1.1754;-4.9405;
120.0000;1.1746;-4.9405;
120.3000;1.1779;-4.9379;
120.6000;1.1779;-4.9379;
120.9000;1.1754;-4.9353;
121.2000;1.1762;-4.9431;
121.5000;1.1762;-4.9534;
121.8000;1.1779;-4.9560;
122.1000;1.1770;-4.9560;
122.4000;1.1770;-4.9534;
122.7000;1.1762;-4.9534;
123.0000;1.1762;-4.9508;
123.3000;1.1762;-4.9431;
123.6000;1.1762;-4.9379;
123.9000;1.1746;-4.9379;
124.2000;1.1770;-4.9301;
124.5000;1.1762;-4.9301;
124.8000;1.1762;-4.9327;
125.1000;1.1730;-4.9405;
125.4000;1.1754;-4.9353;
125.7000;1.1754;-4.9379;
126.0000;1.1779;-4.9379;
126.3000;1.1762;-4.9483;
126.6000;1.1746;-4.9560;
126.9000;1.1779;-4.9508;
127.2000;1.1770;-4.9586;
127.5000;1.1762;-4.9612;
127.8000;1.1779;-4.9560;
128.1000;1.1770;-4.9457;
128.4000;1.1746;-4.9431;
128.7000;1.1754;-4.9431;
129.0000;1.1738;-4.9508;
129.3000;1.1762;-4.9560;
129.6000;1.1762;-4.9586;
129.9000;1.1779;-4.9560;
130.2000;1.1746;-4.9586;
130.5000;1.1770;-4.9534;
130.8000;1.1770;-4.9483;
131.1000;1.1762;-4.9508;
131.4000;1.1779;-4.9508;
131.7000;1.1762;-4.9586;
132.0000;1.1762;-4.9457;
132.3000;1.1779;-4.9379;
132.6000;1.1795;-4.9353;
132.9000;1.1762;-4.9379;
133.2000;1.1770;-4.9379;
133.5000;1.1803;-4.9353;
133.8000;1.1722;-4.9508;
134.1000;1.1770;-4.9431;
134.4000;1.1730;-4.9586;
134.7000;1.1803;-4.9431;
135.0000;1.1770;-4.9586;
135.3000;1.1779;-4.9612;
135.6000;1.1754;-4.9664;
135.9000;1.1803;-4.9638;
136.2000;1.1779;-4.9742;
136.5000;1.1754;-4.9716;
136.8000;1.1779;-4.9690;
137.1000;1.1779;-4.9638;
137.4000;1.1787;-4.9586;
137.7000;1.1754;-4.9560;
138.0000;1.1770;-4.9457;
138.3000;1.1779;-4.9301;
138.6000;1.1762;-4.9275;
138.9000;1.1762;-4.9249;
139.2000;1.1754;-4.9275;
139.5000;1.1746;-4.9353;
139.8000;1.1779;-4.9379;
140.1000;1.1746;-4.9508;
140.4000;1.1787;-4.9483;
140.7000;1.1754;-4.9586;
141.0000;1.1746;-4.9534;
141.3000;1.1746;-4.9483;
141.6000;1.1730;-4.9431;
141.9000;1.1730;-4.9508;
142.2000;1.1746;-4.9405;
142.5000;1.1746;-4.9431;
142.8000;1.1770;-4.9483;
143.1000;1.1779;-4.9508;
143.4000;1.1770;-4.9483;
143.7000;1.1770;-4.9431;
144.0000;1.1770;-4.9483;
144.3000;1.1762;-4.9508;
144.6000;1.1779;-4.9508;
144.9000;1.1770;-4.9508;
145.2000;1.1779;-4.9612;
145.5000;1.1795;-4.9612;
145.8000;1.1779;-4.9638;
146.1000;1.1770;-4.9690;
146.4000;1.1762;-4.9742;
146.7000;1.1762;-4.9664;
147.0000;1.1746;-4.9716;
147.3000;1.1746;-4.9664;
147.6000;1.1754;-4.9586;
147.9000;1.1746;-4.9457;
148.2000;1.1746;-4.9405;
148.5000;1.1722;-4.9508;
148.8000;1.1754;-4.9483;
149.1000;1.1762;-4.9483;
149.4000;1.1762;-4.9508;
149.7000;1.1827;-4.9379;
150.0000;1.1770;-4.9560;
150.3000;1.1697;-4.9716;
150.6000;1.1795;-4.9457;
150.9000;1.1754;-4.9508;
151.2000;1.1762;-4.9457;
151.5000;1.1762;-4.9483;
151.8000;1.1762;-4.9560;
152.1000;1.1746;-4.9560;
152.4000;1.1738;-4.9508;
152.7000;1.1754;-4.9534;
153.0000;1.1754;-4.9534;
153.3000;1.1770;-4.9483;
153.6000;1.1787;-4.9457;
153.9000;1.1762;-4.9612;
154.2000;1.1770;-4.9638;
154.5000;1.1762;-4.9586;
154.8000;1.1746;-4.9690;
155.1000;1.1762;-4.9664;
155.4000;1.1762;-4.9716;
155.7000;1.1762;-4.9742;
156.0000;1.1754;-4.9897;
156.3000;1.1770;-4.9820;
156.6000;1.1762;-4.9820;
156.9000;1.1779;-4.9820;
157.2000;1.1754;-4.9846;
157.5000;1.1770;-4.9820;
157.8000;1.1738;-4.9872;
158.1000;1.1762;-4.9820;
158.4000;1.1746;-4.9872;
158.7000;1.1730;-4.9897;
159.0000;1.1762;-4.9923;
159.3000;1.1779;-4.9923;
159.6000;1.1762;-4.9897;
159.9000;1.1754;-4.9897;
160.2000;1.1738;-4.9897;
160.5000;1.1754;-4.9794;
160.8000;1.1754;-4.9768;
161.1000;1.1754;-4.9768;
161.4000;1.1787;-4.9690;
161.7000;1.1746;-4.9768;
162.0000;1.1746;-4.9716;
162.3000;1.1754;-4.9638;
162.6000;1.1746;-4.9664;
162.9000;1.1787;-4.9560;
163.2000;1.1746;-4.9664;
163.5000;1.1803;-4.9560;
163.8000;1.1795;-4.9508;
164.1000;1.1770;-4.9586;
164.4000;1.1779;-4.9612;
164.7000;1.1754;-4.9638;
165.0000;1.1730;-4.9612;
165.3000;1.1738;-4.9612;
165.6000;1.1762;-4.9612;
165.9000;1.1754;-4.9560;
166.2000;1.1770;-4.9483;
166.5000;1.1754;-4.9483;
166.8000;1.1705;-4.9638;
167.1000;1.1738;-4.9508;
167.4000;1.1746;-4.9534;
167.7000;1.1762;-4.9508;
168.0000;1.1746;-4.9483;
168.3000;1.1754;-4.9560;
168.6000;1.1754;-4.9560;
168.9000;1.1762;-4.9508;
169.2000;1.1762;-4.9586;
169.5000;1.1754;-4.9560;
169.8000;1.1770;-4.9534;
170.1000;1.1762;-4.9664;
170.4000;1.1762;-4.9638;
170.7000;1.1779;-4.9612;
171.0000;1.1754;-4.9716;
171.3000;1.1754;-4.9742;
171.6000;1.1730;-4.9690;
171.9000;1.1754;-4.9586;
172.2000;1.1738;-4.9508;
172.5000;1.1770;-4.9508;
172.8000;1.1770;-4.9560;
173.1000;1.1754;-4.9534;
173.4000;1.1754;-4.9612;
173.7000;1.1754;-4.9638;
174.0000;1.1754;-4.9690;
174.3000;1.1754;-4.9742;
174.6000;1.1746;-4.9716;
174.9000;1.1754;-4.9716;
175.2000;1.1746;-4.9716;
175.5000;1.1754;-4.9586;
175.8000;1.1746;-4.9586;
176.1000;1.1730;-4.9560;
176.4000;1.1754;-4.9379;
176.7000;1.1738;-4.9379;
177.0000;1.1746;-4.9431;
177.3000;1.1746;-4.9483;
177.6000;1.1738;-4.9586;
177.9000;1.1754;-4.9612;
178.2000;1.1754;-4.9534;
178.5000;1.1754;-4.9612;
178.8000;1.1738;-4.9638;
179.1000;1.1779;-4.9586;
179.4000;1.1754;-4.9638;
179.7000;1.1754;-4.9664;
180.0000;1.1762;-4.9638;
180.3000;1.1730;-4.9768;
180.6000;1.1770;-4.9742;
180.9000;1.1787;-4.9768;
181.2000;1.1779;-4.9794;
181.5000;1.1754;-4.9872;
181.8000;1.1738;-4.9949;
182.1000;1.1762;-4.9897;
182.4000;1.1762;-4.9846;
182.7000;1.1746;-4.9949;
183.0000;1.1713;-5.0001;
183.3000;1.1738;-5.0053;
183.6000;1.1770;-4.9872;
183.9000;1.1746;-4.9846;
184.2000;1.1746;-4.9897;
184.5000;1.1754;-4.9768;
184.8000;1.1722;-4.9897;
185.1000;1.1795;-4.9664;
185.4000;1.1754;-4.9742;
185.7000;1.1754;-4.9768;
186.0000;1.1746;-4.9742;
186.3000;1.1754;-4.9742;
186.6000;1.1746;-4.9768;
186.9000;1.1738;-4.9846;
187.2000;1.1803;-4.9690;
187.5000;1.1738;-4.9846;
187.8000;1.1738;-4.9949;
188.1000;1.1754;-4.9846;
188.4000;1.1754;-4.9794;
188.7000;1.1762;-4.9768;
189.0000;1.1762;-4.9716;
189.3000;1.1746;-4.9768;
189.6000;1.1738;-4.9820;
189.9000;1.1762;-4.9716;
190.2000;1.1787;-4.9586;
190.5000;1.1746;-4.9690;
190.8000;1.1770;-4.9638;
191.1000;1.1746;-4.9638;
191.4000;1.1762;-4.9638;
191.7000;1.1730;-4.9794;
192.0000;1.1738;-4.9846;
192.3000;1.1779;-4.9690;
192.6000;1.1762;-4.9716;
192.9000;1.1738;-4.9794;
193.2000;1.1754;-4.9768;
193.5000;1.1705;-4.9897;
193.8000;1.1762;-4.9820;
194.1000;1.1730;-4.9846;
194.4000;1.1754;-4.9768;
194.7000;1.1722;-4.9897;
195.0000;1.1746;-4.9820;
195.3000;1.1722;-4.9872;
195.6000;1.1738;-4.9846;
195.9000;1.1746;-4.9846;
196.2000;1.1730;-4.9872;
196.5000;1.1738;-4.9768;
196.8000;1.1738;-4.9820;
197.1000;1.1738;-4.9768;
197.4000;1.1770;-4.9716;
197.7000;1.1746;-4.9768;
198.0000;1.1762;-4.9690;
198.3000;1.1738;-4.9794;
198.6000;1.1754;-4.9846;
198.9000;1.1787;-4.9768;
199.2000;1.1754;-4.9820;
199.5000;1.1754;-4.9794;
199.8000;1.1762;-4.9690;
200.1000;1.1770;-4.9690;
200.4000;1.1836;-4.9508;
200.7000;1.1738;-4.9638;
201.0000;1.1754;-4.9638;
201.3000;1.1754;-4.9612;
201.6000;1.1762;-4.9586;
201.9000;1.1746;-4.9664;
202.2000;1.1746;-4.9638;
202.5000;1.1787;-4.9560;
202.8000;1.1746;-4.9638;
203.1000;1.1746;-4.9690;
203.4000;1.1746;-4.9690;
203.7000;1.1746;-4.9690;
204.0000;1.1746;-4.9638;
204.3000;1.1738;-4.9690;
204.6000;1.1705;-4.9820;
204.9000;1.1754;-4.9638;
205.2000;1.1746;-4.9690;
205.5000;1.1713;-4.9716;
205.8000;1.1738;-4.9638;
206.1000;1.1746;-4.9560;
206.4000;1.1836;-4.9327;
206.7000;1.1754;-4.9560;
207.0000;1.1730;-4.9664;
207.3000;1.1762;-4.9612;
207.6000;1.1746;-4.9534;
207.9000;1.1746;-4.9508;
208.2000;1.1746;-4.9457;
208.5000;1.1713;-4.9560;
208.8000;1.1754;-4.9560;
209.1000;1.1746;-4.9457;
209.4000;1.1730;-4.9457;
209.7000;1.1730;-4.9508;
210.0000;1.1770;-4.9431;
210.3000;1.1746;-4.9508;
210.6000;1.1738;-4.9560;
210.9000;1.1722;-4.9612;
211.2000;1.1722;-4.9586;
211.5000;1.1730;-4.9586;
211.8000;1.1770;-4.9534;
212.1000;1.1762;-4.9483;
212.4000;1.1738;-4.9457;
212.7000;1.1705;-4.9612;
213.0000;1.1738;-4.9534;
213.3000;1.1738;-4.9534;
213.6000;1.1762;-4.9586;
213.9000;1.1746;-4.9534;
214.2000;1.1762;-4.9483;
214.5000;1.1746;-4.9457;
214.8000;1.1738;-4.9483;
215.1000;1.1746;-4.9508;
215.4000;1.1754;-4.9586;
215.7000;1.1762;-4.9534;
216.0000;1.1754;-4.9638;
216.3000;1.1746;-4.9664;
216.6000;1.1746;-4.9612;
216.9000;1.1746;-4.9612;
217.2000;1.1722;-4.9742;
217.5000;1.1746;-4.9690;
217.8000;1.1730;-4.9664;
218.1000;1.1738;-4.9612;
218.4000;1.1738;-4.9612;
218.7000;1.1665;-4.9768;
219.0000;1.1738;-4.9664;
219.3000;1.1754;-4.9638;
219.6000;1.1754;-4.9612;
219.9000;1.1746;-4.9612;
220.2000;1.1746;-4.9560;
220.5000;1.1770;-4.9534;
220.8000;1.1722;-4.9586;
221.1000;1.1746;-4.9638;
221.4000;1.1722;-4.9716;
221.7000;1.1754;-4.9664;
222.0000;1.1746;-4.9534;
222.3000;1.1730;-4.9560;
222.6000;1.1754;-4.9457;
222.9000;1.1738;-4.9483;
223.2000;1.1746;-4.9508;
223.5000;1.1738;-4.9483;
223.8000;1.1730;-4.9534;
224.1000;1.1738;-4.9534;
224.4000;1.1746;-4.9534;
224.7000;1.1730;-4.9560;
225.0000;1.1722;-4.9534;
225.3000;1.1713;-4.9508;
225.6000;1.1697;-4.9586;
225.9000;1.1762;-4.9405;
226.2000;1.1746;-4.9457;
226.5000;1.1746;-4.9483;
226.8000;1.1730;-4.9483;
227.1000;1.1738;-4.9508;
227.4000;1.1738;-4.9586;
227.7000;1.1730;-4.9534;
228.0000;1.1754;-4.9534;
228.3000;1.1746;-4.9508;
228.6000;1.1689;-4.9586;
228.9000;1.1713;-4.9508;
229.2000;1.1738;-4.9457;
229.5000;1.1738;-4.9508;
229.8000;1.1722;-4.9483;
230.1000;1.1738;-4.9534;
230.4000;1.1730;-4.9534;
230.7000;1.1754;-4.9457;
231.0000;1.1746;-4.9431;
231.3000;1.1738;-4.9379;
231.6000;1.1754;-4.9379;
231.9000;1.1730;-4.9353;
232.2000;1.1746;-4.9353;
232.5000;1.1730;-4.9405;
232.8000;1.1738;-4.9405;
233.1000;1.1754;-4.9353;
233.4000;1.1746;-4.9327;
233.7000;1.1746;-4.9353;
234.0000;1.1705;-4.9483;
234.3000;1.1705;-4.9457;
234.6000;1.1738;-4.9379;
234.9000;1.1738;-4.9405;
235.2000;1.1730;-4.9431;
235.5000;1.1738;-4.9483;
235.8000;1.1730;-4.9379;
236.1000;1.1746;-4.9353;
236.4000;1.1738;-4.9327;
236.7000;1.1746;-4.9249;
237.0000;1.1746;-4.9275;
237.3000;1.1746;-4.9327;
237.6000;1.1746;-4.9353;
237.9000;1.1730;-4.9353;
238.2000;1.1730;-4.9379;
238.5000;1.1730;-4.9353;
238.8000;1.1722;-4.9431;
239.1000;1.1762;-4.9327;
239.4000;1.1730;-4.9405;
239.7000;1.1746;-4.9483;
240.0000;1.1730;-4.9508;
240.3000;1.1730;-4.9457;
240.6000;1.1746;-4.9405;
240.9000;1.1738;-4.9353;
241.2000;1.1746;-4.9379;
241.5000;1.1713;-4.9457;
241.8000;1.1746;-4.9431;
242.1000;1.1738;-4.9457;
242.4000;1.1746;-4.9431;
242.7000;1.1762;-4.9508;
243.0000;1.1722;-4.9716;
243.3000;1.1779;-4.9664;
243.6000;1.1754;-4.9716;
243.9000;1.1713;-4.9846;
244.2000;1.1673;-4.9820;
244.5000;1.1738;-4.9534;
244.8000;1.1738;-4.9560;
245.1000;1.1730;-4.9612;
245.4000;1.1738;-4.9560;
245.7000;1.1730;-4.9560;
246.0000;1.1738;-4.9560;
246.3000;1.1746;-4.9534;
246.6000;1.1746;-4.9638;
246.9000;1.1738;-4.9612;
247.2000;1.1811;-4.9457;
247.5000;1.1746;-4.9742;
247.8000;1.1730;-4.9768;
248.1000;1.1746;-4.9742;
248.4000;1.1705;-4.9820;
248.7000;1.1738;-4.9664;
249.0000;1.1746;-4.9612;
249.3000;1.1795;-4.9301;
249.6000;1.1754;-4.9353;
249.9000;1.1738;-4.9327;
250.2000;1.1746;-4.9405;
250.5000;1.1738;-4.9534;
250.8000;1.1730;-4.9638;
251.1000;1.1746;-4.9612;
251.4000;1.1746;-4.9508;
251.7000;1.1738;-4.9534;
252.0000;1.1746;-4.9560;
252.3000;1.1762;-4.9612;
252.6000;1.1746;-4.9638;
252.9000;1.1738;-4.9560;
253.2000;1.1754;-4.9483;
253.5000;1.1746;-4.9457;
253.8000;1.1730;-4.9534;
254.1000;1.1738;-4.9534;
254.4000;1.1722;-4.9483;
254.7000;1.1787;-4.9431;
255.0000;1.1738;-4.9483;
255.3000;1.1730;-4.9431;
255.6000;1.1722;-4.9483;
255.9000;1.1730;-4.9508;
256.2000;1.1722;-4.9534;
256.5000;1.1689;-4.9638;
256.8000;1.1722;-4.9431;
257.1000;1.1738;-4.9508;
257.4000;1.1738;-4.9534;
257.7000;1.1738;-4.9534;
258.0000;1.1730;-4.9638;
258.3000;1.1746;-4.9586;
258.6000;1.1746;-4.9534;
258.9000;1.1746;-4.9560;
259.2000;1.1705;-4.9820;
259.5000;1.1746;-4.9742;
259.8000;1.1746;-4.9664;
260.1000;1.1754;-4.9612;
260.4000;1.1738;-4.9664;
260.7000;1.1722;-4.9638;
261.0000;1.1713;-4.9612;
261.3000;1.1770;-4.9457;
261.6000;1.1754;-4.9508;
261.9000;1.1697;-4.9612;
262.2000;1.1730;-4.9560;
262.5000;1.1722;-4.9586;
262.8000;1.1746;-4.9534;
263.1000;1.1738;-4.9586;
263.4000;1.1722;-4.9586;
263.7000;1.1787;-4.9457;
264.0000;1.1738;-4.9612;
264.3000;1.1722;-4.9716;
264.6000;1.1738;-4.9638;
264.9000;1.1738;-4.9690;
265.2000;1.1738;-4.9690;
265.5000;1.1722;-4.9794;
265.8000;1.1722;-4.9768;
266.1000;1.1803;-4.9612;
266.4000;1.1746;-4.9768;
266.7000;1.1770;-4.9638;
267.0000;1.1738;-4.9768;
267.3000;1.1738;-4.9794;
267.6000;1.1730;-4.9820;
267.9000;1.1819;-4.9560;
268.2000;1.1722;-4.9794;
268.5000;1.1713;-4.9794;
268.8000;1.1713;-4.9820;
269.1000;1.1738;-4.9846;
269.4000;1.1754;-4.9742;
269.7000;1.1746;-4.9664;
270.0000;1.1746;-4.9612;
270.3000;1.1697;-4.9768;
270.6000;1.1738;-4.9690;
270.9000;1.1746;-4.9664;
271.2000;1.1746;-4.9742;
271.5000;1.1762;-4.9716;
271.8000;1.1746;-4.9742;
272.1000;1.1738;-4.9820;
272.4000;1.1730;-4.9820;
272.7000;1.1754;-4.9820;
273.0000;1.1762;-4.9768;
273.3000;1.1746;-4.9768;
273.6000;1.1738;-4.9742;
273.9000;1.1730;-4.9716;
274.2000;1.1827;-4.9534;
274.5000;1.1738;-4.9742;
274.8000;1.1754;-4.9768;
275.1000;1.1746;-4.9897;
275.4000;1.1746;-4.9949;
275.7000;1.1738;-4.9872;
276.0000;1.1738;-4.9872;
276.3000;1.1730;-4.9923;
276.6000;1.1730;-4.9897;
276.9000;1.1730;-4.9897;
277.2000;1.1730;-4.9820;
277.5000;1.1746;-4.9716;
277.8000;1.1722;-4.9768;
278.1000;1.1738;-4.9768;
278.4000;1.1730;-4.9768;
278.7000;1.1722;-4.9794;
279.0000;1.1722;-4.9794;
279.3000;1.1705;-4.9794;
279.6000;1.1738;-4.9716;
279.9000;1.1722;-4.9794;
280.2000;1.1705;-4.9820;
280.5000;1.1819;-4.9534;
280.8000;1.1836;-4.9457;
281.1000;1.1713;-4.9768;
281.4000;1.1730;-4.9794;
281.7000;1.1722;-4.9716;
282.0000;1.1730;-4.9716;
282.3000;1.1713;-4.9638;
282.6000;1.1738;-4.9638;
282.9000;1.1746;-4.9716;
283.2000;1.1705;-4.9664;
283.5000;1.1738;-4.9534;
283.8000;1.1730;-4.9560;
284.1000;1.1754;-4.9560;
284.4000;1.1746;-4.9586;
284.7000;1.1738;-4.9638;
285.0000;1.1746;-4.9664;
285.3000;1.1746;-4.9690;
285.6000;1.1770;-4.9716;
285.9000;1.1738;-4.9716;
286.2000;1.1730;-4.9742;
286.5000;1.1713;-4.9768;
286.8000;1.1795;-4.9664;
287.1000;1.1738;-4.9716;
287.4000;1.1738;-4.9794;
287.7000;1.1738;-4.9716;
288.0000;1.1746;-4.9534;
288.3000;1.1746;-4.9379;
288.6000;1.1730;-4.9508;
288.9000;1.1722;-4.9560;
289.2000;1.1738;-4.9534;
289.5000;1.1746;-4.9534;
289.8000;1.1730;-4.9560;
290.1000;1.1722;-4.9534;
290.4000;1.1730;-4.9560;
290.7000;1.1730;-4.9612;
291.0000;1.1746;-4.9560;
291.3000;1.1705;-4.9690;
291.6000;1.1722;-4.9690;
291.9000;1.1754;-4.9664;
292.2000;1.1738;-4.9638;
292.5000;1.1787;-4.9457;
292.8000;1.1673;-4.9716;
293.1000;1.1722;-4.9534;
293.4000;1.1762;-4.9457;
293.7000;1.1746;-4.9508;
294.0000;1.1713;-4.9560;
294.3000;1.1738;-4.9534;
294.6000;1.1730;-4.9483;
294.9000;1.1738;-4.9457;
295.2000;1.1738;-4.9379;
295.5000;1.1738;-4.9353;
295.8000;1.1770;-4.9353;
296.1000;1.1722;-4.9483;
296.4000;1.1738;-4.9508;
296.7000;1.1722;-4.9586;
297.0000;1.1754;-4.9483;
297.3000;1.1738;-4.9534;
297.6000;1.1722;-4.9560;
297.9000;1.1722;-4.9664;
298.2000;1.1738;-4.9560;
298.5000;1.1722;-4.9612;
298.8000;1.1738;-4.9534;
299.1000;1.1738;-4.9534;
299.4000;1.1730;-4.9534;
299.7000;1.1665;-4.9586;
300.0000;1.1762;-4.9483;
300.3000;1.1754;-4.9508;
300.6000;1.1730;-4.9638;
300.9000;1.1722;-4.9612;
301.2000;1.1746;-4.9508;
301.5000;1.1770;-4.9483;
301.8000;1.1697;-4.9664;
302.1000;1.1730;-4.9664;
302.4000;1.1738;-4.9690;
302.7000;1.1730;-4.9664;
303.0000;1.1722;-4.9638;
303.3000;1.1738;-4.9560;
303.6000;1.1746;-4.9431;
303.9000;1.1787;-4.9327;
304.2000;1.1738;-4.9457;
304.5000;1.1811;-4.9223;
304.8000;1.1738;-4.9405;
305.1000;1.1746;-4.9405;
305.4000;1.1746;-4.9275;
305.7000;1.1722;-4.9379;
306.0000;1.1722;-4.9353;
306.3000;1.1730;-4.9431;
306.6000;1.1722;-4.9483;
306.9000;1.1722;-4.9534;
307.2000;1.1722;-4.9586;
307.5000;1.1738;-4.9560;
307.8000;1.1730;-4.9586;
308.1000;1.1730;-4.9690;
308.4000;1.1738;-4.9794;
308.7000;1.1746;-4.9794;
309.0000;1.1738;-4.9820;
309.3000;1.1770;-4.9638;
309.6000;1.1738;-4.9560;
309.9000;1.1738;-4.9483;
310.2000;1.1738;-4.9457;
310.5000;1.1722;-4.9508;
310.8000;1.1705;-4.9560;
311.1000;1.1746;-4.9457;
311.4000;1.1722;-4.9534;
311.7000;1.1673;-4.9690;
312.0000;1.1656;-4.9612;
312.3000;1.1730;-4.9560;
312.6000;1.1681;-4.9690;
312.9000;1.1705;-4.9690;
313.2000;1.1738;-4.9612;
313.5000;1.1722;-4.9612;
313.8000;1.1722;-4.9612;
314.1000;1.1705;-4.9586;
314.4000;1.1730;-4.9508;
314.7000;1.1730;-4.9457;
315.0000;1.1722;-4.9431;
315.3000;1.1713;-4.9457;
315.6000;1.1713;-4.9483;
315.9000;1.1705;-4.9534;
316.2000;1.1722;-4.9353;
316.5000;1.1713;-4.9379;
316.8000;1.1722;-4.9327;
317.1000;1.1689;-4.9431;
317.4000;1.1705;-4.9457;
317.7000;1.1730;-4.9353;
318.0000;1.1746;-4.9327;
318.3000;1.1722;-4.9301;
318.6000;1.1722;-4.9301;
318.9000;1.1722;-4.9301;
319.2000;1.1730;-4.9249;
319.5000;1.1722;-4.9327;
319.8000;1.1730;-4.9353;
320.1000;1.1746;-4.9353;
320.4000;1.1787;-4.9275;
320.7000;1.1738;-4.9327;
321.0000;1.1730;-4.9327;
321.3000;1.1730;-4.9275;
321.6000;1.1730;-4.9301;
321.9000;1.1722;-4.9483;
322.2000;1.1681;-4.9638;
322.5000;1.1648;-4.9742;
322.8000;1.1738;-4.9457;
323.1000;1.1746;-4.9431;
323.4000;1.1722;-4.9534;
323.7000;1.1738;-4.9457;
324.0000;1.1730;-4.9379;
324.3000;1.1730;-4.9353;
324.6000;1.1730;-4.9353;
324.9000;1.1738;-4.9327;
325.2000;1.1754;-4.9379;
325.5000;1.1730;-4.9431;
325.8000;1.1713;-4.9379;
326.1000;1.1713;-4.9379;
326.4000;1.1722;-4.9405;
326.7000;1.1730;-4.9405;
327.0000;1.1730;-4.9405;
327.3000;1.1738;-4.9405;
327.6000;1.1738;-4.9457;
327.9000;1.1730;-4.9534;
328.2000;1.1722;-4.9534;
328.5000;1.1713;-4.9508;
328.8000;1.1713;-4.9560;
329.1000;1.1730;-4.9560;
329.4000;1.1746;-4.9457;
329.7000;1.1730;-4.9534;
330.0000;1.1722;-4.9534;
330.3000;1.1730;-4.9483;
330.6000;1.1738;-4.9483;
330.9000;1.1730;-4.9483;
331.2000;1.1705;-4.9457;
331.5000;1.1738;-4.9379;
331.8000;1.1689;-4.9508;
332.1000;1.1722;-4.9508;
332.4000;1.1730;-4.9431;
332.7000;1.1697;-4.9612;
333.0000;1.1746;-4.9508;
333.3000;1.1697;-4.9638;
333.6000;1.1722;-4.9534;
333.9000;1.1722;-4.9586;
334.2000;1.1730;-4.9534;
334.5000;1.1738;-4.9483;
334.8000;1.1722;-4.9457;
335.1000;1.1705;-4.9327;
335.4000;1.1730;-4.9275;
335.7000;1.1754;-4.9301;
336.0000;1.1730;-4.9431;
336.3000;1.1730;-4.9457;
336.6000;1.1705;-4.9483;
336.9000;1.1730;-4.9405;
337.2000;1.1730;-4.9405;
337.5000;1.1705;-4.9431;
337.8000;1.1730;-4.9301;
338.1000;1.1730;-4.9327;
338.4000;1.1730;-4.9327;
338.7000;1.1722;-4.9379;
339.0000;1.1705;-4.9431;
339.3000;1.1713;-4.9457;
339.6000;1.1722;-4.9353;
339.9000;1.1722;-4.9405;
340.2000;1.1705;-4.9405;
340.5000;1.1722;-4.9301;
340.8000;1.1746;-4.9223;
341.1000;1.1730;-4.9327;
341.4000;1.1705;-4.9431;
341.7000;1.1713;-4.9379;
342.0000;1.1738;-4.9379;
342.3000;1.1738;-4.9508;
342.6000;1.1722;-4.9638;
342.9000;1.1713;-4.9534;
343.2000;1.1779;-4.9379;
343.5000;1.1722;-4.9431;
343.8000;1.1754;-4.9353;
344.1000;1.1738;-4.9353;
344.4000;1.1730;-4.9249;
344.7000;1.1730;-4.9197;
345.0000;1.1722;-4.9171;
345.3000;1.1722;-4.9145;
345.6000;1.1730;-4.9145;
345.9000;1.1730;-4.9223;
346.2000;1.1730;-4.9249;
346.5000;1.1770;-4.9119;
346.8000;1.1705;-4.9327;
347.1000;1.1738;-4.9327;
347.4000;1.1746;-4.9353;
347.7000;1.1730;-4.9379;
348.0000;1.1722;-4.9379;
348.3000;1.1673;-4.9379;
348.6000;1.1722;-4.9301;
348.9000;1.1730;-4.9301;
349.2000;1.1722;-4.9249;
349.5000;1.1713;-4.9275;
349.8000;1.1722;-4.9275;
350.1000;1.1762;-4.9223;
350.4000;1.1730;-4.9275;
350.7000;1.1705;-4.9301;
351.0000;1.1722;-4.9327;
351.3000;1.1738;-4.9275;
351.6000;1.1722;-4.9327;
351.9000;1.1730;-4.9327;
352.2000;1.1730;-4.9379;
352.5000;1.1705;-4.9431;
352.8000;1.1713;-4.9483;
353.1000;1.1730;-4.9379;
353.4000;1.1738;-4.9249;
353.7000;1.1738;-4.9275;
354.0000;1.1730;-4.9249;
354.3000;1.1705;-4.9249;
354.6000;1.1722;-4.9249;
354.9000;1.1713;-4.9275;
355.2000;1.1713;-4.9301;
355.5000;1.1722;-4.9275;
355.8000;1.1730;-4.9249;
356.1000;1.1754;-4.9197;
356.4000;1.1738;-4.9301;
356.7000;1.1705;-4.9275;
357.0000;1.1713;-4.9223;
357.3000;1.1738;-4.9171;
357.6000;1.1730;-4.9249;
357.9000;1.1722;-4.9249;
358.2000;1.1722;-4.9327;
358.5000;1.1722;-4.9301;
358.8000;1.1738;-4.9301;
359.1000;1.1730;-4.9353;
359.4000;1.1713;-4.9508;
359.7000;1.1713;-4.9508;
360.0000;1.1738;-4.9405;
360.3000;1.1697;-4.9483;
360.6000;1.1722;-4.9508;
360.9000;1.1713;-4.9508;
361.2000;1.1730;-4.9483;
361.5000;1.1722;-4.9560;
361.8000;1.1722;-4.9508;
362.1000;1.1738;-4.9508;
362.4000;1.1730;-4.9457;
362.7000;1.1730;-4.9457;
363.0000;1.1738;-4.9457;
363.3000;1.1730;-4.9431;
363.6000;1.1730;-4.9405;
363.9000;1.1713;-4.9405;
364.2000;1.1795;-4.9275;
364.5000;1.1722;-4.9508;
364.8000;1.1697;-4.9483;
365.1000;1.1730;-4.9379;
365.4000;1.1713;-4.9379;
365.7000;1.1730;-4.9301;
366.0000;1.1713;-4.9379;
366.3000;1.1730;-4.9405;
366.6000;1.1730;-4.9457;
366.9000;1.1722;-4.9508;
367.2000;1.1689;-4.9560;
367.5000;1.1713;-4.9457;
367.8000;1.1722;-4.9405;
368.1000;1.1689;-4.9405;
368.4000;1.1697;-4.9405;
368.7000;1.1689;-4.9379;
369.0000;1.1713;-4.9353;
369.3000;1.1705;-4.9379;
369.6000;1.1713;-4.9457;
369.9000;1.1705;-4.9379;
370.2000;1.1738;-4.9353;
370.5000;1.1722;-4.9405;
370.8000;1.1713;-4.9379;
371.1000;1.1705;-4.9405;
371.4000;1.1811;-4.9119;
371.7000;1.1730;-4.9197;
372.0000;1.1705;-4.9353;
372.3000;1.1722;-4.9301;
372.6000;1.1705;-4.9379;
372.9000;1.1681;-4.9405;
373.2000;1.1722;-4.9353;
373.5000;1.1689;-4.9534;
373.8000;1.1713;-4.9457;
374.1000;1.1697;-4.9483;
374.4000;1.1713;-4.9483;
374.7000;1.1722;-4.9457;
375.0000;1.1705;-4.9457;
375.3000;1.1705;-4.9508;
375.6000;1.1713;-4.9353;
375.9000;1.1713;-4.9353;
376.2000;1.1713;-4.9405;
376.5000;1.1705;-4.9534;
376.8000;1.1713;-4.9483;
377.1000;1.1730;-4.9405;
377.4000;1.1697;-4.9431;
377.7000;1.1722;-4.9431;
378.0000;1.1730;-4.9483;
378.3000;1.1722;-4.9508;
378.6000;1.1713;-4.9405;
378.9000;1.1738;-4.9379;
379.2000;1.1713;-4.9405;
379.5000;1.1730;-4.9379;
379.8000;1.1705;-4.9405;
380.1000;1.1713;-4.9353;
380.4000;1.1722;-4.9353;
380.7000;1.1730;-4.9301;
381.0000;1.1648;-4.9405;
381.3000;1.1722;-4.9171;
381.6000;1.1738;-4.9223;
381.9000;1.1722;-4.9249;
382.2000;1.1689;-4.9431;
382.5000;1.1713;-4.9405;
382.8000;1.1713;-4.9457;
383.1000;1.1713;-4.9431;
383.4000;1.1722;-4.9431;
383.7000;1.1705;-4.9457;
384.0000;1.1722;-4.9457;
384.3000;1.1722;-4.9379;
384.6000;1.1697;-4.9405;
384.9000;1.1713;-4.9457;
385.2000;1.1681;-4.9508;
385.5000;1.1730;-4.9457;
385.8000;1.1722;-4.9431;
386.1000;1.1713;-4.9508;
386.4000;1.1697;-4.9431;
386.7000;1.1730;-4.9405;
387.0000;1.1722;-4.9379;
387.3000;1.1746;-4.9275;
387.6000;1.1648;-4.9457;
387.9000;1.1713;-4.9223;
388.2000;1.1746;-4.8964;
388.5000;1.1713;-4.8990;
388.8000;1.1689;-4.8990;
389.1000;1.1713;-4.8990;
389.4000;1.1754;-4.8964;
389.7000;1.1689;-4.9171;
390.0000;1.1713;-4.9197;
390.3000;1.1722;-4.9301;
390.6000;1.1730;-4.9327;
390.9000;1.1730;-4.9275;
391.2000;1.1730;-4.9249;
391.5000;1.1722;-4.9249;
391.8000;1.1713;-4.9353;
392.1000;1.1713;-4.9301;
392.4000;1.1738;-4.9327;
392.7000;1.1697;-4.9431;
393.0000;1.1705;-4.9405;
393.3000;1.1746;-4.9301;
393.6000;1.1705;-4.9457;
393.9000;1.1713;-4.9457;
394.2000;1.1770;-4.9249;
394.5000;1.1722;-4.9457;
394.8000;1.1722;-4.9483;
395.1000;1.1705;-4.9560;
395.4000;1.1697;-4.9612;
395.7000;1.1697;-4.9508;
396.0000;1.1738;-4.9379;
396.3000;1.1713;-4.9405;
396.6000;1.1713;-4.9353;
396.9000;1.1730;-4.9327;
397.2000;1.1738;-4.9223;
397.5000;1.1730;-4.9327;
397.8000;1.1713;-4.9379;
398.1000;1.1689;-4.9379;
398.4000;1.1722;-4.9301;
398.7000;1.1722;-4.9249;
399.0000;1.1697;-4.9353;
399.3000;1.1722;-4.9249;
399.6000;1.1713;-4.9275;
399.9000;1.1697;-4.9353;
400.2000;1.1673;-4.9327;
400.5000;1.1697;-4.9327;
400.8000;1.1705;-4.9379;
401.1000;1.1697;-4.9379;
401.4000;1.1705;-4.9379;
401.7000;1.1713;-4.9327;
402.0000;1.1730;-4.9275;
402.3000;1.1722;-4.9327;
402.6000;1.1722;-4.9327;
402.9000;1.1705;-4.9379;
403.2000;1.1705;-4.9353;
403.5000;1.1722;-4.9301;
403.8000;1.1697;-4.9353;
404.1000;1.1697;-4.9457;
404.4000;1.1705;-4.9457;
404.7000;1.1722;-4.9457;
405.0000;1.1754;-4.9405;
405.3000;1.1705;-4.9534;
405.6000;1.1713;-4.9534;
405.9000;1.1713;-4.9534;
406.2000;1.1722;-4.9457;
406.5000;1.1722;-4.9327;
406.8000;1.1713;-4.9353;
407.1000;1.1713;-4.9249;
407.4000;1.1722;-4.9197;
407.7000;1.1722;-4.9353;
408.0000;1.1713;-4.9431;
408.3000;1.1713;-4.9405;
408.6000;1.1738;-4.9405;
408.9000;1.1713;-4.9431;
409.2000;1.1746;-4.9301;
409.5000;1.1713;-4.9327;
409.8000;1.1730;-4.9275;
410.1000;1.1738;-4.9379;
410.4000;1.1705;-4.9431;
410.7000;1.1697;-4.9483;
411.0000;1.1713;-4.9457;
411.3000;1.1746;-4.9353;
411.6000;1.1713;-4.9405;
411.9000;1.1648;-4.9560;
412.2000;1.1722;-4.9457;
412.5000;1.1656;-4.9664;
412.8000;1.1713;-4.9560;
413.1000;1.1705;-4.9638;
413.4000;1.1738;-4.9560;
413.7000;1.1738;-4.9560;
414.0000;1.1697;-4.9586;
414.3000;1.1730;-4.9483;
414.6000;1.1681;-4.9586;
414.9000;1.1730;-4.9560;
415.2000;1.1705;-4.9612;
415.5000;1.1640;-4.9716;
415.8000;1.1697;-4.9612;
416.1000;1.1705;-4.9716;
416.4000;1.1730;-4.9560;
416.7000;1.1713;-4.9586;
417.0000;1.1730;-4.9508;
417.3000;1.1713;-4.9612;
417.6000;1.1722;-4.9586;
417.9000;1.1722;-4.9612;
418.2000;1.1722;-4.9586;
418.5000;1.1713;-4.9508;
418.8000;1.1722;-4.9457;
419.1000;1.1697;-4.9457;
419.4000;1.1713;-4.9457;
419.7000;1.1705;-4.9483;
420.0000;1.1738;-4.9379;
420.3000;1.1705;-4.9379;
420.6000;1.1705;-4.9431;
420.9000;1.1722;-4.9431;
421.2000;1.1697;-4.9405;
421.5000;1.1730;-4.9405;
421.8000;1.1722;-4.9405;
422.1000;1.1713;-4.9431;
422.4000;1.1713;-4.9431;
422.7000;1.1730;-4.9431;
423.0000;1.1705;-4.9457;
423.3000;1.1713;-4.9353;
423.6000;1.1705;-4.9405;
423.9000;1.1713;-4.9379;
424.2000;1.1746;-4.9275;
424.5000;1.1722;-4.9353;
424.8000;1.1705;-4.9431;
425.1000;1.1754;-4.9275;
425.4000;1.1713;-4.9353;
425.7000;1.1730;-4.9405;
426.0000;1.1713;-4.9353;
426.3000;1.1730;-4.9379;
426.6000;1.1730;-4.9431;
426.9000;1.1730;-4.9301;
427.2000;1.1705;-4.9353;
427.5000;1.1697;-4.9379;
427.8000;1.1713;-4.9327;
428.1000;1.1779;-4.9119;
428.4000;1.1722;-4.9327;
428.7000;1.1681;-4.9405;
429.0000;1.1730;-4.9379;
429.3000;1.1722;-4.9379;
429.6000;1.1697;-4.9379;
429.9000;1.1681;-4.9353;
430.2000;1.1624;-4.9483;
430.5000;1.1705;-4.9379;
430.8000;1.1665;-4.9483;
431.1000;1.1697;-4.9483;
431.4000;1.1705;-4.9379;
431.7000;1.1705;-4.9301;
432.0000;1.1689;-4.9327;
432.3000;1.1705;-4.9223;
432.6000;1.1697;-4.9275;
432.9000;1.1673;-4.9379;
433.2000;1.1705;-4.9353;
433.5000;1.1697;-4.9405;
433.8000;1.1722;-4.9405;
434.1000;1.1722;-4.9431;
434.4000;1.1738;-4.9379;
434.7000;1.1713;-4.9483;
435.0000;1.1713;-4.9508;
435.3000;1.1689;-4.9560;
435.6000;1.1697;-4.9508;
435.9000;1.1705;-4.9508;
436.2000;1.1705;-4.9457;
436.5000;1.1746;-4.9327;
436.8000;1.1722;-4.9379;
437.1000;1.1722;-4.9405;
437.4000;1.1705;-4.9534;
437.7000;1.1705;-4.9560;
438.0000;1.1689;-4.9560;
438.3000;1.1713;-4.9534;
438.6000;1.1689;-4.9638;
438.9000;1.1681;-4.9586;
439.2000;1.1713;-4.9508;
439.5000;1.1705;-4.9664;
439.8000;1.1713;-4.9612;
440.1000;1.1705;-4.9534;
440.4000;1.1713;-4.9508;
440.7000;1.1713;-4.9483;
441.0000;1.1689;-4.9534;
441.3000;1.1705;-4.9508;
441.6000;1.1697;-4.9586;
441.9000;1.1697;-4.9560;
442.2000;1.1738;-4.9534;
442.5000;1.1787;-4.9353;
442.8000;1.1697;-4.9457;
443.1000;1.1648;-4.9534;
443.4000;1.1713;-4.9327;
443.7000;1.1689;-4.9431;
444.0000;1.1722;-4.9405;
444.3000;1.1697;-4.9405;
444.6000;1.1730;-4.9353;
444.9000;1.1689;-4.9457;
445.2000;1.1689;-4.9431;
445.5000;1.1722;-4.9275;
445.8000;1.1697;-4.9431;
446.1000;1.1713;-4.9483;
446.4000;1.1697;-4.9534;
446.7000;1.1705;-4.9612;
447.0000;1.1722;-4.9508;
447.3000;1.1705;-4.9560;
447.6000;1.1705;-4.9586;
447.9000;1.1713;-4.9586;
448.2000;1.1713;-4.9586;
448.5000;1.1705;-4.9508;
448.8000;1.1713;-4.9560;
449.1000;1.1746;-4.9483;
449.4000;1.1730;-4.9560;
449.7000;1.1705;-4.9612;
450.0000;1.1722;-4.9586;
450.3000;1.1705;-4.9612;
450.6000;1.1722;-4.9586;
450.9000;1.1697;-4.9638;
451.2000;1.1665;-4.9690;
451.5000;1.1697;-4.9560;
451.8000;1.1705;-4.9534;
452.1000;1.1795;-4.9327;
452.4000;1.1689;-4.9638;
452.7000;1.1705;-4.9664;
453.0000;1.1746;-4.9586;
453.3000;1.1673;-4.9768;
453.6000;1.1689;-4.9664;
453.9000;1.1722;-4.9586;
454.2000;1.1697;-4.9690;
454.5000;1.1697;-4.9586;
454.8000;1.1722;-4.9534;
455.1000;1.1730;-4.9534;
455.4000;1.1705;-4.9483;
455.7000;1.1722;-4.9483;
456.0000;1.1705;-4.9483;
456.3000;1.1722;-4.9457;
456.6000;1.1713;-4.9534;
456.9000;1.1722;-4.9560;
457.2000;1.1689;-4.9586;
457.5000;1.1705;-4.9483;
457.8000;1.1689;-4.9560;
458.1000;1.1730;-4.9586;
458.4000;1.1713;-4.9638;
458.7000;1.1705;-4.9690;
459.0000;1.1713;-4.9586;
459.3000;1.1697;-4.9560;
459.6000;1.1770;-4.9353;
459.9000;1.1713;-4.9586;
460.2000;1.1648;-4.9690;
460.5000;1.1713;-4.9638;
460.8000;1.1722;-4.9690;
461.1000;1.1713;-4.9768;
461.4000;1.1705;-4.9612;
461.7000;1.1713;-4.9586;
462.0000;1.1722;-4.9560;
462.3000;1.1689;-4.9664;
462.6000;1.1705;-4.9638;
462.9000;1.1705;-4.9716;
463.2000;1.1689;-4.9768;
463.5000;1.1689;-4.9716;
463.8000;1.1689;-4.9638;
464.1000;1.1681;-4.9612;
464.4000;1.1697;-4.9534;
464.7000;1.1713;-4.9560;
465.0000;1.1738;-4.9560;
465.3000;1.1746;-4.9534;
465.6000;1.1697;-4.9638;
465.9000;1.1705;-4.9612;
466.2000;1.1722;-4.9612;
466.5000;1.1697;-4.9560;
466.8000;1.1697;-4.9664;
467.1000;1.1713;-4.9560;
467.4000;1.1705;-4.9664;
467.7000;1.1697;-4.9560;
468.0000;1.1754;-4.9483;
468.3000;1.1673;-4.9690;
468.6000;1.1705;-4.9586;
468.9000;1.1705;-4.9586;
469.2000;1.1689;-4.9612;
469.5000;1.1713;-4.9560;
469.8000;1.1713;-4.9457;
470.1000;1.1722;-4.9405;
470.4000;1.1705;-4.9457;
470.7000;1.1697;-4.9483;
471.0000;1.1697;-4.9508;
471.3000;1.1730;-4.9457;
471.6000;1.1705;-4.9431;
471.9000;1.1673;-4.9457;
472.2000;1.1779;-4.9197;
472.5000;1.1705;-4.9327;
472.8000;1.1697;-4.9431;
473.1000;1.1689;-4.9483;
473.4000;1.1681;-4.9560;
473.7000;1.1673;-4.9560;
474.0000;1.1689;-4.9586;
474.3000;1.1697;-4.9560;
474.6000;1.1705;-4.9612;
474.9000;1.1713;-4.9534;
475.2000;1.1648;-4.9586;
475.5000;1.1697;-4.9431;
475.8000;1.1697;-4.9301;
476.1000;1.1713;-4.9353;
476.4000;1.1713;-4.9353;
476.7000;1.1697;-4.9483;
477.0000;1.1697;-4.9457;
477.3000;1.1689;-4.9379;
477.6000;1.1705;-4.9353;
477.9000;1.1705;-4.9327;
478.2000;1.1713;-4.9353;
478.5000;1.1697;-4.9379;
478.8000;1.1705;-4.9353;
479.1000;1.1713;-4.9405;
479.4000;1.1681;-4.9483;
479.7000;1.1697;-4.9508;
480.0000;1.1705;-4.9508;
480.3000;1.1697;-4.9483;
480.6000;1.1705;-4.9483;
480.9000;1.1697;-4.9586;
481.2000;1.1697;-4.9612;
481.5000;1.1697;-4.9612;
481.8000;1.1697;-4.9612;
482.1000;1.1697;-4.9586;
482.4000;1.1697;-4.9483;
482.7000;1.1705;-4.9483;
483.0000;1.1697;-4.9483;
483.3000;1.1705;-4.9457;
483.6000;1.1697;-4.9560;
483.9000;1.1697;-4.9560;
484.2000;1.1705;-4.9638;
484.5000;1.1722;-4.9586;
484.8000;1.1705;-4.9560;
485.1000;1.1697;-4.9508;
485.4000;1.1705;-4.9508;
485.7000;1.1705;-4.9508;
486.0000;1.1705;-4.9431;
486.3000;1.1673;-4.9483;
486.6000;1.1705;-4.9457;
486.9000;1.1713;-4.9457;
487.2000;1.1697;-4.9534;
487.5000;1.1689;-4.9508;
487.8000;1.1689;-4.9483;
488.1000;1.1713;-4.9457;
488.4000;1.1746;-4.9379;
488.7000;1.1697;-4.9508;
489.0000;1.1689;-4.9457;
489.3000;1.1738;-4.9379;
489.6000;1.1697;-4.9405;
489.9000;1.1697;-4.9379;
490.2000;1.1697;-4.9353;
490.5000;1.1713;-4.9327;
490.8000;1.1713;-4.9353;
491.1000;1.1697;-4.9457;
491.4000;1.1722;-4.9405;
491.7000;1.1705;-4.9483;
492.0000;1.1697;-4.9457;
492.3000;1.1697;-4.9508;
492.6000;1.1705;-4.9431;
492.9000;1.1705;-4.9405;
493.2000;1.1705;-4.9431;
493.5000;1.1705;-4.9379;
493.8000;1.1697;-4.9353;
494.1000;1.1705;-4.9327;
494.4000;1.1697;-4.9327;
494.7000;1.1689;-4.9353;
495.0000;1.1697;-4.9353;
495.3000;1.1697;-4.9301;
495.6000;1.1689;-4.9249;
495.9000;1.1697;-4.9223;
496.2000;1.1697;-4.9275;
496.5000;1.1697;-4.9275;
496.8000;1.1713;-4.9301;
497.1000;1.1722;-4.9301;
497.4000;1.1697;-4.9457;
497.7000;1.1681;-4.9483;
498.0000;1.1697;-4.9534;
498.3000;1.1697;-4.9483;
498.6000;1.1697;-4.9457;
498.9000;1.1689;-4.9405;
499.2000;1.1673;-4.9405;
499.5000;1.1681;-4.9431;
499.8000;1.1689;-4.9560;
500.1000;1.1697;-4.9664;
500.4000;1.1673;-4.9690;
500.7000;1.1705;-4.9690;
501.0000;1.1705;-4.9586;
501.3000;1.1689;-4.9690;
501.6000;1.1697;-4.9716;
501.9000;1.1705;-4.9742;
502.2000;1.1713;-4.9716;
502.5000;1.1697;-4.9690;
502.8000;1.1689;-4.9742;
503.1000;1.1697;-4.9612;
503.4000;1.1697;-4.9586;
503.7000;1.1697;-4.9586;
504.0000;1.1697;-4.9560;
504.3000;1.1681;-4.9560;
504.6000;1.1713;-4.9353;
504.9000;1.1697;-4.9431;
505.2000;1.1673;-4.9483;
505.5000;1.1705;-4.9534;
505.8000;1.1713;-4.9508;
506.1000;1.1705;-4.9483;
506.4000;1.1697;-4.9534;
506.7000;1.1600;-4.9742;
507.0000;1.1697;-4.9586;
507.3000;1.1705;-4.9560;
507.6000;1.1697;-4.9483;
507.9000;1.1705;-4.9457;
508.2000;1.1697;-4.9560;
508.5000;1.1713;-4.9534;
508.8000;1.1689;-4.9483;
509.1000;1.1689;-4.9457;
509.4000;1.1681;-4.9457;
509.7000;1.1656;-4.9560;
510.0000;1.1681;-4.9560;
510.3000;1.1689;-4.9560;
510.6000;1.1689;-4.9534;
510.9000;1.1705;-4.9457;
511.2000;1.1632;-4.9612;
511.5000;1.1689;-4.9457;
511.8000;1.1722;-4.9431;
512.1000;1.1730;-4.9483;
512.4000;1.1705;-4.9483;
512.7000;1.1738;-4.9379;
513.0000;1.1681;-4.9534;
513.3000;1.1689;-4.9431;
513.6000;1.1705;-4.9379;
513.9000;1.1713;-4.9379;
514.2000;1.1713;-4.9405;
514.5000;1.1705;-4.9353;
514.8000;1.1705;-4.9249;
515.1000;1.1713;-4.9275;
515.4000;1.1697;-4.9301;
515.7000;1.1713;-4.9249;
516.0000;1.1648;-4.9379;
516.3000;1.1713;-4.9353;
516.6000;1.1689;-4.9431;
516.9000;1.1697;-4.9353;
517.2000;1.1697;-4.9379;
517.5000;1.1697;-4.9327;
517.8000;1.1689;-4.9431;
518.1000;1.1705;-4.9483;
518.4000;1.1697;-4.9534;
518.7000;1.1689;-4.9431;
519.0000;1.1697;-4.9431;
519.3000;1.1681;-4.9483;
519.6000;1.1673;-4.9534;
519.9000;1.1689;-4.9457;
520.2000;1.1722;-4.9327;
520.5000;1.1697;-4.9379;
520.8000;1.1697;-4.9379;
521.1000;1.1681;-4.9457;
521.4000;1.1697;-4.9431;
521.7000;1.1697;-4.9431;
522.0000;1.1754;-4.9327;
522.3000;1.1689;-4.9431;
522.6000;1.1705;-4.9431;
522.9000;1.1713;-4.9457;
523.2000;1.1730;-4.9483;
523.5000;1.1705;-4.9612;
523.8000;1.1722;-4.9586;
524.1000;1.1713;-4.9612;
524.4000;1.1705;-4.9664;
524.7000;1.1705;-4.9560;
525.0000;1.1705;-4.9560;
525.3000;1.1689;-4.9483;
525.6000;1.1689;-4.9457;
525.9000;1.1697;-4.9457;
526.2000;1.1746;-4.9483;
526.5000;1.1705;-4.9560;
526.8000;1.1648;-4.9768;
527.1000;1.1697;-4.9638;
527.4000;1.1779;-4.9457;
527.7000;1.1689;-4.9560;
528.0000;1.1648;-4.9638;
528.3000;1.1689;-4.9483;
528.6000;1.1689;-4.9483;
528.9000;1.1730;-4.9379;
529.2000;1.1697;-4.9457;
529.5000;1.1681;-4.9457;
529.8000;1.1713;-4.9405;
530.1000;1.1713;-4.9405;
530.4000;1.1673;-4.9431;
530.7000;1.1697;-4.9405;
531.0000;1.1665;-4.9431;
531.3000;1.1697;-4.9275;
531.6000;1.1689;-4.9327;
531.9000;1.1681;-4.9327;
532.2000;1.1697;-4.9301;
532.5000;1.1689;-4.9301;
532.8000;1.1681;-4.9353;
533.1000;1.1673;-4.9379;
533.4000;1.1681;-4.9353;
533.7000;1.1689;-4.9405;
534.0000;1.1705;-4.9353;
534.3000;1.1705;-4.9275;
534.6000;1.1689;-4.9353;
534.9000;1.1673;-4.9353;
535.2000;1.1705;-4.9275;
535.5000;1.1705;-4.9275;
535.8000;1.1689;-4.9301;
536.1000;1.1673;-4.9275;
536.4000;1.1705;-4.9249;
536.7000;1.1705;-4.9275;
537.0000;1.1673;-4.9457;
537.3000;1.1689;-4.9353;
537.6000;1.1697;-4.9353;
537.9000;1.1697;-4.9301;
538.2000;1.1697;-4.9301;
538.5000;1.1673;-4.9301;
538.8000;1.1730;-4.9223;
539.1000;1.1689;-4.9249;
539.4000;1.1705;-4.9301;
539.7000;1.1689;-4.9405;
540.0000;1.1689;-4.9327;
540.3000;1.1697;-4.9327;
540.6000;1.1681;-4.9327;
540.9000;1.1648;-4.9483;
541.2000;1.1705;-4.9379;
541.5000;1.1697;-4.9327;
541.8000;1.1770;-4.9119;
542.1000;1.1681;-4.9327;
542.4000;1.1681;-4.9327;
542.7000;1.1705;-4.9301;
543.0000;1.1705;-4.9327;
543.3000;1.1697;-4.9301;
543.6000;1.1689;-4.9249;
543.9000;1.1681;-4.9223;
544.2000;1.1656;-4.9197;
544.5000;1.1689;-4.9145;
544.8000;1.1681;-4.9249;
545.1000;1.1689;-4.9301;
545.4000;1.1673;-4.9431;
545.7000;1.1689;-4.9275;
546.0000;1.1681;-4.9301;
546.3000;1.1689;-4.9301;
546.6000;1.1673;-4.9301;
546.9000;1.1722;-4.9223;
547.2000;1.1689;-4.9171;
547.5000;1.1713;-4.9171;
547.8000;1.1705;-4.9223;
548.1000;1.1689;-4.9301;
548.4000;1.1705;-4.9171;
548.7000;1.1697;-4.9119;
549.0000;1.1681;-4.9171;
549.3000;1.1722;-4.9094;
549.6000;1.1705;-4.9042;
549.9000;1.1624;-4.9301;
550.2000;1.1689;-4.9119;
550.5000;1.1673;-4.9223;
550.8000;1.1697;-4.9171;
551.1000;1.1681;-4.9223;
551.4000;1.1689;-4.9249;
551.7000;1.1697;-4.9223;
552.0000;1.1689;-4.9223;
552.3000;1.1673;-4.9275;
552.6000;1.1673;-4.9249;
552.9000;1.1656;-4.9379;
553.2000;1.1689;-4.9353;
553.5000;1.1697;-4.9327;
553.8000;1.1689;-4.9431;
554.1000;1.1689;-4.9457;
554.4000;1.1673;-4.9508;
554.7000;1.1681;-4.9534;
555.0000;1.1681;-4.9508;
555.3000;1.1665;-4.9483;
555.6000;1.1689;-4.9483;
555.9000;1.1689;-4.9483;
556.2000;1.1673;-4.9483;
556.5000;1.1681;-4.9379;
556.8000;1.1681;-4.9431;
557.1000;1.1697;-4.9301;
557.4000;1.1705;-4.9223;
557.7000;1.1689;-4.9301;
558.0000;1.1689;-4.9249;
558.3000;1.1632;-4.9405;
558.6000;1.1697;-4.9379;
558.9000;1.1779;-4.9145;
559.2000;1.1665;-4.9353;
559.5000;1.1713;-4.9301;
559.8000;1.1713;-4.9353;
560.1000;1.1665;-4.9431;
560.4000;1.1648;-4.9508;
560.7000;1.1697;-4.9353;
561.0000;1.1697;-4.9301;
561.3000;1.1689;-4.9353;
561.6000;1.1705;-4.9431;
561.9000;1.1681;-4.9483;
562.2000;1.1779;-4.9094;
562.5000;1.1681;-4.9353;
562.8000;1.1681;-4.9327;
563.1000;1.1673;-4.9405;
563.4000;1.1697;-4.9327;
563.7000;1.1697;-4.9353;
564.0000;1.1689;-4.9301;
564.3000;1.1705;-4.9353;
564.6000;1.1697;-4.9353;
564.9000;1.1705;-4.9327;
565.2000;1.1705;-4.9249;
565.5000;1.1697;-4.9275;
565.8000;1.1681;-4.9379;
566.1000;1.1681;-4.9457;
566.4000;1.1705;-4.9405;
566.7000;1.1689;-4.9327;
567.0000;1.1681;-4.9353;
567.3000;1.1689;-4.9275;
567.6000;1.1738;-4.9016;
567.9000;1.1673;-4.9197;
568.2000;1.1673;-4.9223;
568.5000;1.1689;-4.9223;
568.8000;1.1730;-4.9197;
569.1000;1.1681;-4.9275;
569.4000;1.1689;-4.9275;
569.7000;1.1673;-4.9327;
570.0000;1.1689;-4.9379;
570.3000;1.1697;-4.9405;
570.6000;1.1689;-4.9457;
570.9000;1.1681;-4.9483;
571.2000;1.1681;-4.9483;
571.5000;1.1673;-4.9508;
571.8000;1.1689;-4.9560;
572.1000;1.1665;-4.9586;
572.4000;1.1681;-4.9638;
572.7000;1.1697;-4.9560;
573.0000;1.1673;-4.9664;
573.3000;1.1665;-4.9638;
573.6000;1.1632;-4.9716;
573.9000;1.1681;-4.9508;
574.2000;1.1697;-4.9405;
574.5000;1.1648;-4.9457;
574.8000;1.1697;-4.9379;
575.1000;1.1689;-4.9353;
575.4000;1.1713;-4.9275;
575.7000;1.1689;-4.9327;
576.0000;1.1697;-4.9327;
576.3000;1.1697;-4.9353;
576.6000;1.1705;-4.9327;
576.9000;1.1673;-4.9483;
577.2000;1.1689;-4.9405;
577.5000;1.1673;-4.9353;
577.8000;1.1673;-4.9353;
578.1000;1.1673;-4.9301;
578.4000;1.1681;-4.9275;
578.7000;1.1689;-4.9379;
579.0000;1.1705;-4.9301;
579.3000;1.1673;-4.9431;
579.6000;1.1689;-4.9457;
579.9000;1.1697;-4.9431;
580.2000;1.1705;-4.9431;
580.5000;1.1673;-4.9483;
580.8000;1.1697;-4.9431;
581.1000;1.1665;-4.9457;
581.4000;1.1713;-4.9379;
581.7000;1.1681;-4.9457;
582.0000;1.1689;-4.9483;
582.3000;1.1673;-4.9457;
582.6000;1.1697;-4.9431;
582.9000;1.1697;-4.9327;
583.2000;1.1697;-4.9197;
583.5000;1.1681;-4.9301;
583.8000;1.1689;-4.9301;
584.1000;1.1705;-4.9223;
584.4000;1.1689;-4.9197;
584.7000;1.1697;-4.9249;
585.0000;1.1697;-4.9197;
585.3000;1.1697;-4.9275;
585.6000;1.1697;-4.9353;
585.9000;1.1697;-4.9353;
586.2000;1.1697;-4.9327;
586.5000;1.1705;-4.9223;
586.8000;1.1697;-4.9249;
587.1000;1.1673;-4.9249;
587.4000;1.1673;-4.9223;
587.7000;1.1681;-4.9327;
588.0000;1.1681;-4.9353;
588.3000;1.1673;-4.9301;
588.6000;1.1673;-4.9327;
588.9000;1.1681;-4.9301;
589.2000;1.1722;-4.9171;
589.5000;1.1689;-4.9249;
589.8000;1.1689;-4.9223;
590.1000;1.1681;-4.9301;
590.4000;1.1705;-4.9197;
590.7000;1.1689;-4.9171;
591.0000;1.1689;-4.9249;
591.3000;1.1713;-4.9145;
591.6000;1.1705;-4.9197;
591.9000;1.1673;-4.9301;
592.2000;1.1673;-4.9353;
592.5000;1.1656;-4.9457;
592.8000;1.1705;-4.9327;
593.1000;1.1681;-4.9327;
593.4000;1.1681;-4.9353;
593.7000;1.1673;-4.9327;
594.0000;1.1697;-4.9275;
594.3000;1.1689;-4.9275;
594.6000;1.1689;-4.9327;
594.9000;1.1673;-4.9379;
595.2000;1.1681;-4.9353;
595.5000;1.1705;-4.9327;
595.8000;1.1673;-4.9508;
596.1000;1.1697;-4.9379;
596.4000;1.1665;-4.9327;
596.7000;1.1681;-4.9353;
597.0000;1.1673;-4.9483;
597.3000;1.1673;-4.9379;
597.6000;1.1665;-4.9327;
597.9000;1.1681;-4.9327;
598.2000;1.1673;-4.9327;
598.5000;1.1689;-4.9275;
598.8000;1.1681;-4.9379;
599.1000;1.1705;-4.9353;
599.4000;1.1632;-4.9508;
599.7000;1.1681;-4.9379;
600.0000;1.1681;-4.9405;
600.3000;1.1656;-4.9483;
600.6000;1.1656;-4.9690;
600.9000;1.1608;-4.9872;
601.2000;1.1526;-5.0131;
601.5000;1.1429;-5.0416;
601.8000;1.1331;-5.0572;
602.1000;1.1241;-5.0831;
602.4000;1.1201;-5.0935;
602.7000;1.1046;-5.1272;
603.0000;1.0965;-5.1454;
603.3000;1.0908;-5.1687;
603.6000;1.0810;-5.1843;
603.9000;1.0712;-5.2076;
604.2000;1.0647;-5.2206;
604.5000;1.0590;-5.2335;
604.8000;1.0492;-5.2465;
605.1000;1.0484;-5.2361;
605.4000;1.0403;-5.2621;
605.7000;1.0338;-5.2621;
606.0000;1.0289;-5.2698;
606.3000;1.0224;-5.2854;
606.6000;1.0167;-5.2932;
606.9000;1.0118;-5.2984;
607.2000;1.0077;-5.3061;
607.5000;0.9980;-5.3165;
607.8000;1.0020;-5.3087;
608.1000;0.9931;-5.3321;
608.4000;0.9890;-5.3399;
608.7000;0.9760;-5.3554;
609.0000;0.9776;-5.3476;
609.3000;0.9752;-5.3528;
609.6000;0.9703;-5.3528;
609.9000;0.9670;-5.3502;
610.2000;0.9638;-5.3476;
610.5000;0.9565;-5.3554;
610.8000;0.9556;-5.3580;
611.1000;0.9508;-5.3684;
611.4000;0.9475;-5.3736;
611.7000;0.9426;-5.3865;
612.0000;0.9385;-5.3917;
612.3000;0.9361;-5.3865;
612.6000;0.9312;-5.3917;
612.9000;0.9271;-5.3891;
613.2000;0.9166;-5.4099;
613.5000;0.9198;-5.3917;
613.8000;0.9166;-5.3943;
614.1000;0.9141;-5.3969;
614.4000;0.9109;-5.3969;
614.7000;0.9092;-5.3995;
615.0000;0.9068;-5.3995;
615.3000;0.8954;-5.4177;
615.6000;0.9003;-5.4073;
615.9000;0.8987;-5.4099;
616.2000;0.8938;-5.4177;
616.5000;0.8921;-5.4280;
616.8000;0.8881;-5.4280;
617.1000;0.8864;-5.4254;
617.4000;0.8848;-5.4151;
617.7000;0.8807;-5.4177;
618.0000;0.8791;-5.4151;
618.3000;0.8775;-5.4151;
618.6000;0.8751;-5.4228;
618.9000;0.8726;-5.4280;
619.2000;0.8677;-5.4384;
619.5000;0.8669;-5.4410;
619.8000;0.8653;-5.4384;
620.1000;0.8563;-5.4592;
620.4000;0.8637;-5.4306;
620.7000;0.8555;-5.4436;
621.0000;0.8571;-5.4384;
621.3000;0.8580;-5.4384;
621.6000;0.8457;-5.4566;
621.9000;0.8523;-5.4384;
622.2000;0.8490;-5.4410;
622.5000;0.8482;-5.4488;
622.8000;0.8425;-5.4540;
623.1000;0.8392;-5.4592;
623.4000;0.8400;-5.4566;
623.7000;0.8376;-5.4618;
624.0000;0.8352;-5.4695;
624.3000;0.8311;-5.4721;
624.6000;0.8319;-5.4618;
624.9000;0.8311;-5.4592;
625.2000;0.8246;-5.4695;
625.5000;0.8262;-5.4695;
625.8000;0.8246;-5.4643;
626.1000;0.8254;-5.4618;
626.4000;0.8189;-5.4799;
626.7000;0.8213;-5.4695;
627.0000;0.8197;-5.4643;
627.3000;0.8181;-5.4566;
627.6000;0.8164;-5.4488;
627.9000;0.8156;-5.4514;
628.2000;0.8156;-5.4436;
628.5000;0.8124;-5.4566;
628.8000;0.8116;-5.4566;
629.1000;0.8091;-5.4540;
629.4000;0.8067;-5.4643;
629.7000;0.8067;-5.4643;
630.0000;0.8059;-5.4618;
630.3000;0.8026;-5.4669;
630.6000;0.8018;-5.4721;
630.9000;0.7928;-5.4929;
631.2000;0.8018;-5.4669;
631.5000;0.8002;-5.4643;
631.8000;0.7977;-5.4669;
632.1000;0.7928;-5.4695;
632.4000;0.7945;-5.4618;
632.7000;0.7928;-5.4695;
633.0000;0.7920;-5.4721;
633.3000;0.7904;-5.4721;
633.6000;0.7863;-5.4825;
633.9000;0.7945;-5.4592;
634.2000;0.7945;-5.4618;
634.5000;0.7847;-5.4825;
634.8000;0.7839;-5.4877;
635.1000;0.7798;-5.4955;
635.4000;0.7814;-5.4929;
635.7000;0.7798;-5.4929;
636.0000;0.7798;-5.4903;
636.3000;0.7814;-5.4799;
636.6000;0.7790;-5.4747;
636.9000;0.7790;-5.4773;
637.2000;0.7766;-5.4773;
637.5000;0.7749;-5.4799;
637.8000;0.7749;-5.4773;
638.1000;0.7782;-5.4643;
638.4000;0.7725;-5.4669;
638.7000;0.7709;-5.4721;
639.0000;0.7733;-5.4721;
639.3000;0.7717;-5.4799;
639.6000;0.7700;-5.4929;
639.9000;0.7668;-5.4955;
640.2000;0.7668;-5.4903;
640.5000;0.7652;-5.4799;
640.8000;0.7652;-5.4773;
641.1000;0.7643;-5.4851;
641.4000;0.7635;-5.4981;
641.7000;0.7643;-5.4851;
642.0000;0.7635;-5.4799;
642.3000;0.7611;-5.4929;
642.6000;0.7611;-5.4695;
642.9000;0.7627;-5.4566;
643.2000;0.7635;-5.4514;
643.5000;0.7619;-5.4566;
643.8000;0.7635;-5.4514;
644.1000;0.7562;-5.4695;
644.4000;0.7554;-5.4669;
644.7000;0.7521;-5.4747;
645.0000;0.7464;-5.4903;
645.3000;0.7530;-5.4773;
645.6000;0.7538;-5.4695;
645.9000;0.7505;-5.4799;
646.2000;0.7505;-5.4851;
646.5000;0.7505;-5.4929;
646.8000;0.7505;-5.4955;
647.1000;0.7489;-5.4929;
647.4000;0.7473;-5.4799;
647.7000;0.7489;-5.4773;
648.0000;0.7473;-5.4773;
648.3000;0.7456;-5.4799;
648.6000;0.7473;-5.4747;
648.9000;0.7440;-5.4877;
649.2000;0.7448;-5.4903;
649.5000;0.7440;-5.4955;
649.8000;0.7432;-5.4981;
650.1000;0.7416;-5.4981;
650.4000;0.7407;-5.5007;
650.7000;0.7416;-5.4955;
651.0000;0.7399;-5.5032;
651.3000;0.7383;-5.4955;
651.6000;0.7383;-5.4903;
651.9000;0.7383;-5.4851;
652.2000;0.7391;-5.4851;
652.5000;0.7326;-5.4981;
652.8000;0.7334;-5.4955;
653.1000;0.7391;-5.4825;
653.4000;0.7367;-5.4877;
653.7000;0.7342;-5.4955;
654.0000;0.7342;-5.4981;
654.3000;0.7318;-5.5007;
654.6000;0.7334;-5.4903;
654.9000;0.7342;-5.4825;
655.2000;0.7302;-5.4825;
655.5000;0.7302;-5.4877;
655.8000;0.7293;-5.4877;
656.1000;0.7310;-5.4825;
656.4000;0.7277;-5.4903;
656.7000;0.7269;-5.4903;
657.0000;0.7269;-5.4929;
657.3000;0.7285;-5.4877;
657.6000;0.7245;-5.4955;
657.9000;0.7245;-5.5007;
658.2000;0.7261;-5.4981;
658.5000;0.7253;-5.4955;
658.8000;0.7228;-5.4981;
659.1000;0.7228;-5.4981;
659.4000;0.7245;-5.4903;
659.7000;0.7171;-5.5032;
660.0000;0.7220;-5.4825;
660.3000;0.7220;-5.4851;
660.6000;0.7147;-5.5084;
660.9000;0.7220;-5.4929;
661.2000;0.7196;-5.4981;
661.5000;0.7196;-5.5007;
661.8000;0.7196;-5.5007;
662.1000;0.7236;-5.4851;
662.4000;0.7171;-5.5007;
662.7000;0.7188;-5.5007;
663.0000;0.7179;-5.4981;
663.3000;0.7188;-5.5007;
663.6000;0.7171;-5.5032;
663.9000;0.7147;-5.5084;
664.2000;0.7163;-5.5058;
664.5000;0.7163;-5.5084;
664.8000;0.7163;-5.5084;
665.1000;0.7155;-5.5084;
665.4000;0.7155;-5.5032;
665.7000;0.7139;-5.4955;
666.0000;0.7131;-5.5084;
666.3000;0.7114;-5.5214;
666.6000;0.7147;-5.5058;
666.9000;0.7131;-5.5110;
667.2000;0.7131;-5.5084;
667.5000;0.7082;-5.5110;
667.8000;0.7106;-5.5188;
668.1000;0.7106;-5.5110;
668.4000;0.7139;-5.5058;
668.7000;0.7098;-5.5136;
669.0000;0.7082;-5.5136;
669.3000;0.7090;-5.5136;
669.6000;0.7090;-5.5136;
669.9000;0.7066;-5.5162;
670.2000;0.7074;-5.5188;
670.5000;0.7057;-5.5162;
670.8000;0.7057;-5.5162;
671.1000;0.7066;-5.5110;
671.4000;0.7057;-5.5084;
671.7000;0.7057;-5.5058;
672.0000;0.7082;-5.4981;
672.3000;0.7049;-5.5007;
672.6000;0.7049;-5.4981;
672.9000;0.7098;-5.4877;
673.2000;0.7082;-5.4903;
673.5000;0.7074;-5.4929;
673.8000;0.7017;-5.5007;
674.1000;0.7033;-5.4903;
674.4000;0.7033;-5.4981;
674.7000;0.7066;-5.4929;
675.0000;0.7033;-5.5084;
675.3000;0.7033;-5.5007;
675.6000;0.7025;-5.5084;
675.9000;0.7017;-5.5136;
676.2000;0.7009;-5.5162;
676.5000;0.6960;-5.5188;
676.8000;0.6927;-5.5240;
677.1000;0.6943;-5.5162;
677.4000;0.7000;-5.5084;
677.7000;0.6976;-5.5110;
678.0000;0.7049;-5.4955;
678.3000;0.6968;-5.5188;
678.6000;0.6976;-5.5110;
678.9000;0.6952;-5.5110;
679.2000;0.6960;-5.5084;
679.5000;0.6952;-5.5110;
679.8000;0.6952;-5.5110;
680.1000;0.6968;-5.4981;
680.4000;0.6927;-5.5058;
680.7000;0.6903;-5.5084;
681.0000;0.6943;-5.4929;
681.3000;0.6943;-5.4981;
681.6000;0.6935;-5.4929;
681.9000;0.6919;-5.4955;
682.2000;0.6927;-5.4929;
682.5000;0.6927;-5.4955;
682.8000;0.6919;-5.4903;
683.1000;0.6935;-5.4877;
683.4000;0.6911;-5.4877;
683.7000;0.6919;-5.4903;
684.0000;0.6919;-5.4877;
684.3000;0.6911;-5.4903;
684.6000;0.6911;-5.4903;
684.9000;0.6903;-5.4929;
685.2000;0.6911;-5.4851;
685.5000;0.6903;-5.4877;
685.8000;0.6895;-5.4929;
686.1000;0.6878;-5.4903;
686.4000;0.6903;-5.4799;
686.7000;0.6878;-5.4799;
687.0000;0.6870;-5.4929;
687.3000;0.6862;-5.4981;
687.6000;0.6862;-5.4955;
687.9000;0.6862;-5.4929;
688.2000;0.6862;-5.4955;
688.5000;0.6870;-5.4799;
688.8000;0.6878;-5.4695;
689.1000;0.6862;-5.4695;
689.4000;0.6854;-5.4747;
689.7000;0.6846;-5.4747;
690.0000;0.6846;-5.4877;
690.3000;0.6846;-5.4825;
690.6000;0.6838;-5.4825;
690.9000;0.6813;-5.4851;
691.2000;0.6878;-5.4799;
691.5000;0.6886;-5.4747;
691.8000;0.6829;-5.4877;
692.1000;0.6813;-5.4981;
692.4000;0.6805;-5.5007;
692.7000;0.6821;-5.4955;
693.0000;0.6805;-5.4981;
693.3000;0.6813;-5.4955;
693.6000;0.6821;-5.4955;
693.9000;0.6813;-5.5007;
694.2000;0.6813;-5.5007;
694.5000;0.6821;-5.5032;
694.8000;0.6781;-5.5110;
695.1000;0.6797;-5.5007;
695.4000;0.6805;-5.5007;
695.7000;0.6805;-5.5032;
696.0000;0.6764;-5.5084;
696.3000;0.6781;-5.5084;
696.6000;0.6772;-5.5162;
696.9000;0.6781;-5.5136;
697.2000;0.6781;-5.5292;
697.5000;0.6789;-5.5214;
697.8000;0.6805;-5.5214;
698.1000;0.6789;-5.5162;
698.4000;0.6781;-5.5188;
698.7000;0.6789;-5.5110;
699.0000;0.6756;-5.5162;
699.3000;0.6740;-5.5084;
699.6000;0.6829;-5.4955;
699.9000;0.6716;-5.5266;
700.2000;0.6756;-5.5266;
700.5000;0.6748;-5.5344;
700.8000;0.6789;-5.5188;
701.1000;0.6724;-5.5240;
701.4000;0.6748;-5.5162;
701.7000;0.6764;-5.5136;
702.0000;0.6748;-5.5084;
702.3000;0.6740;-5.5084;
702.6000;0.6740;-5.5110;
702.9000;0.6748;-5.5136;
703.2000;0.6740;-5.5162;
703.5000;0.6740;-5.5162;
703.8000;0.6740;-5.5110;
704.1000;0.6724;-5.5084;
704.4000;0.6732;-5.5110;
704.7000;0.6732;-5.5058;
705.0000;0.6724;-5.5032;
705.3000;0.6748;-5.4981;
705.6000;0.6724;-5.5058;
705.9000;0.6732;-5.5084;
706.2000;0.6716;-5.5110;
706.5000;0.6691;-5.5110;
706.8000;0.6724;-5.5058;
707.1000;0.6707;-5.5214;
707.4000;0.6724;-5.5188;
707.7000;0.6716;-5.5162;
708.0000;0.6707;-5.5266;
708.3000;0.6732;-5.5136;
708.6000;0.6707;-5.5188;
708.9000;0.6659;-5.5240;
709.2000;0.6675;-5.5214;
709.5000;0.6699;-5.5214;
709.8000;0.6707;-5.5240;
710.1000;0.6691;-5.5266;
710.4000;0.6699;-5.5214;
710.7000;0.6683;-5.5162;
711.0000;0.6683;-5.5188;
711.3000;0.6683;-5.5084;
711.6000;0.6659;-5.5162;
711.9000;0.6691;-5.5084;
712.2000;0.6667;-5.5136;
712.5000;0.6659;-5.5032;
712.8000;0.6659;-5.5007;
713.1000;0.6675;-5.4929;
713.4000;0.6740;-5.4825;
713.7000;0.6675;-5.5032;
714.0000;0.6659;-5.5007;
714.3000;0.6642;-5.5032;
714.6000;0.6699;-5.4903;
714.9000;0.6553;-5.5214;
715.2000;0.6585;-5.5214;
715.5000;0.6585;-5.5110;
715.8000;0.6659;-5.4955;
716.1000;0.6650;-5.4929;
716.4000;0.6675;-5.4773;
716.7000;0.6650;-5.4877;
717.0000;0.6642;-5.4981;
717.3000;0.6707;-5.4929;
717.6000;0.6626;-5.5032;
717.9000;0.6618;-5.5007;
718.2000;0.6618;-5.5007;
718.5000;0.6642;-5.4903;
718.8000;0.6626;-5.4929;
719.1000;0.6585;-5.5084;
719.4000;0.6618;-5.5007;
719.7000;0.6642;-5.4981;
720.0000;0.6683;-5.4799;
720.3000;0.6626;-5.4903;
720.6000;0.6618;-5.4851;
720.9000;0.6642;-5.4773;
721.2000;0.6634;-5.4773;
721.5000;0.6618;-5.4747;
721.8000;0.6593;-5.4825;
722.1000;0.6618;-5.4747;
722.4000;0.6618;-5.4721;
722.7000;0.6618;-5.4747;
723.0000;0.6602;-5.4747;
723.3000;0.6610;-5.4747;
723.6000;0.6610;-5.4721;
723.9000;0.6602;-5.4773;
724.2000;0.6626;-5.4643;
724.5000;0.6593;-5.4643;
724.8000;0.6602;-5.4669;
725.1000;0.6585;-5.4643;
725.4000;0.6593;-5.4799;
725.7000;0.6602;-5.4825;
726.0000;0.6602;-5.4851;
726.3000;0.6585;-5.4825;
726.6000;0.6577;-5.4825;
726.9000;0.6585;-5.4851;
727.2000;0.6577;-5.4877;
727.5000;0.6593;-5.5058;
727.8000;0.6569;-5.5136;
728.1000;0.6577;-5.5162;
728.4000;0.6561;-5.5188;
728.7000;0.6569;-5.5084;
729.0000;0.6569;-5.4981;
729.3000;0.6618;-5.4851;
729.6000;0.6569;-5.5032;
729.9000;0.6577;-5.4903;
730.2000;0.6553;-5.4929;
730.5000;0.6561;-5.4903;
730.8000;0.6545;-5.4929;
731.1000;0.6512;-5.4981;
731.4000;0.6561;-5.4747;
731.7000;0.6553;-5.4799;
732.0000;0.6569;-5.4747;
732.3000;0.6553;-5.4825;
732.6000;0.6561;-5.4825;
732.9000;0.6569;-5.4773;
733.2000;0.6545;-5.4799;
733.5000;0.6545;-5.4799;
733.8000;0.6561;-5.4851;
734.1000;0.6545;-5.4877;
734.4000;0.6536;-5.4825;
734.7000;0.6545;-5.4747;
735.0000;0.6545;-5.4747;
735.3000;0.6536;-5.4799;
735.6000;0.6545;-5.4851;
735.9000;0.6528;-5.4825;
736.2000;0.6545;-5.4799;
736.5000;0.6545;-5.4799;
736.8000;0.6536;-5.4851;
737.1000;0.6545;-5.4851;
737.4000;0.6561;-5.4799;
737.7000;0.6528;-5.4981;
738.0000;0.6528;-5.4929;
738.3000;0.6512;-5.4981;
738.6000;0.6496;-5.5007;
738.9000;0.6536;-5.4903;
739.2000;0.6512;-5.4929;
739.5000;0.6496;-5.4981;
739.8000;0.6504;-5.4955;
740.1000;0.6512;-5.4955;
740.4000;0.6520;-5.4981;
740.7000;0.6512;-5.4929;
741.0000;0.6528;-5.4877;
741.3000;0.6504;-5.4929;
741.6000;0.6520;-5.4981;
741.9000;0.6520;-5.4903;
742.2000;0.6512;-5.5007;
742.5000;0.6512;-5.4981;
742.8000;0.6496;-5.5007;
743.1000;0.6496;-5.4877;
743.4000;0.6479;-5.4955;
743.7000;0.6504;-5.4929;
744.0000;0.6512;-5.4929;
744.3000;0.6504;-5.5032;
744.6000;0.6496;-5.5007;
744.9000;0.6504;-5.5007;
745.2000;0.6488;-5.5032;
745.5000;0.6496;-5.4955;
745.8000;0.6520;-5.4903;
746.1000;0.6488;-5.4955;
746.4000;0.6488;-5.4903;
746.7000;0.6488;-5.4929;
747.0000;0.6528;-5.4877;
747.3000;0.6479;-5.5032;
747.6000;0.6496;-5.4981;
747.9000;0.6479;-5.4955;
748.2000;0.6479;-5.4981;
748.5000;0.6471;-5.4903;
748.8000;0.6471;-5.4903;
749.1000;0.6479;-5.4903;
749.4000;0.6463;-5.4877;
749.7000;0.6463;-5.4877;
750.0000;0.6447;-5.4773;
750.3000;0.6471;-5.4695;
750.6000;0.6463;-5.4695;
750.9000;0.6488;-5.4669;
751.2000;0.6463;-5.4773;
751.5000;0.6471;-5.4773;
751.8000;0.6463;-5.4851;
752.1000;0.6463;-5.4903;
752.4000;0.6471;-5.4825;
752.7000;0.6463;-5.4773;
753.0000;0.6455;-5.4695;
753.3000;0.6431;-5.4799;
753.6000;0.6455;-5.4721;
753.9000;0.6439;-5.4695;
754.2000;0.6439;-5.4643;
754.5000;0.6455;-5.4721;
754.8000;0.6439;-5.4721;
755.1000;0.6447;-5.4721;
755.4000;0.6447;-5.4825;
755.7000;0.6439;-5.4903;
756.0000;0.6447;-5.4929;
756.3000;0.6455;-5.4877;
756.6000;0.6439;-5.4799;
756.9000;0.6455;-5.4721;
757.2000;0.6439;-5.4825;
757.5000;0.6447;-5.4851;
757.8000;0.6431;-5.4877;
758.1000;0.6439;-5.4877;
758.4000;0.6439;-5.4877;
758.7000;0.6422;-5.4851;
759.0000;0.6431;-5.4799;
759.3000;0.6431;-5.4695;
759.6000;0.6439;-5.4721;
759.9000;0.6463;-5.4669;
760.2000;0.6431;-5.4799;
760.5000;0.6479;-5.4695;
760.8000;0.6488;-5.4721;
761.1000;0.6439;-5.4747;
761.4000;0.6414;-5.4799;
761.7000;0.6431;-5.4799;
762.0000;0.6439;-5.4773;
762.3000;0.6414;-5.4799;
762.6000;0.6447;-5.4773;
762.9000;0.6414;-5.4851;
763.2000;0.6479;-5.4618;
763.5000;0.6406;-5.4773;
763.8000;0.6406;-5.4799;
764.1000;0.6414;-5.4877;
764.4000;0.6422;-5.4773;
764.7000;0.6406;-5.4747;
765.0000;0.6390;-5.4851;
765.3000;0.6414;-5.4851;
765.6000;0.6422;-5.4799;
765.9000;0.6422;-5.4799;
766.2000;0.6422;-5.4851;
766.5000;0.6414;-5.4877;
766.8000;0.6390;-5.4903;
767.1000;0.6382;-5.5007;
767.4000;0.6455;-5.4825;
767.7000;0.6406;-5.4955;
768.0000;0.6374;-5.4955;
768.3000;0.6406;-5.4773;
768.6000;0.6422;-5.4643;
768.9000;0.6422;-5.4643;
769.2000;0.6349;-5.4825;
769.5000;0.6447;-5.4643;
769.8000;0.6398;-5.4799;
770.1000;0.6390;-5.4851;
770.4000;0.6390;-5.4799;
770.7000;0.6398;-5.4721;
771.0000;0.6479;-5.4462;
771.3000;0.6398;-5.4747;
771.6000;0.6390;-5.4773;
771.9000;0.6406;-5.4721;
772.2000;0.6390;-5.4851;
772.5000;0.6374;-5.4825;
772.8000;0.6382;-5.4851;
773.1000;0.6390;-5.4877;
773.4000;0.6374;-5.4877;
773.7000;0.6390;-5.4825;
774.0000;0.6431;-5.4669;
774.3000;0.6382;-5.4825;
774.6000;0.6374;-5.4773;
774.9000;0.6365;-5.4877;
775.2000;0.6390;-5.4773;
775.5000;0.6357;-5.4799;
775.8000;0.6398;-5.4618;
776.1000;0.6406;-5.4669;
776.4000;0.6374;-5.4825;
776.7000;0.6382;-5.4747;
777.0000;0.6365;-5.4773;
777.3000;0.6365;-5.4721;
777.6000;0.6390;-5.4721;
777.9000;0.6357;-5.4773;
778.2000;0.6357;-5.4773;
778.5000;0.6357;-5.4721;
778.8000;0.6365;-5.4721;
779.1000;0.6374;-5.4669;
779.4000;0.6357;-5.4669;
779.7000;0.6357;-5.4669;
780.0000;0.6357;-5.4747;
780.3000;0.6349;-5.4695;
780.6000;0.6382;-5.4747;
780.9000;0.6357;-5.4799;
781.2000;0.6382;-5.4747;
781.5000;0.6349;-5.4877;
781.8000;0.6309;-5.4929;
782.1000;0.6325;-5.4851;
782.4000;0.6382;-5.4669;
782.7000;0.6349;-5.4747;
783.0000;0.6357;-5.4799;
783.3000;0.6365;-5.4799;
783.6000;0.6365;-5.4851;
783.9000;0.6374;-5.4851;
784.2000;0.6349;-5.4877;
784.5000;0.6341;-5.4929;
784.8000;0.6349;-5.4903;
785.1000;0.6357;-5.4903;
785.4000;0.6276;-5.5110;
785.7000;0.6349;-5.4955;
786.0000;0.6341;-5.4851;
786.3000;0.6333;-5.4877;
786.6000;0.6333;-5.4955;
786.9000;0.6349;-5.4903;
787.2000;0.6333;-5.4825;
787.5000;0.6333;-5.4851;
787.8000;0.6374;-5.4747;
788.1000;0.6357;-5.4851;
788.4000;0.6341;-5.4799;
788.7000;0.6341;-5.4747;
789.0000;0.6382;-5.4773;
789.3000;0.6357;-5.4773;
789.6000;0.6325;-5.4773;
789.9000;0.6325;-5.4747;
790.2000;0.6374;-5.4643;
790.5000;0.6317;-5.4825;
790.8000;0.6317;-5.4799;
791.1000;0.6333;-5.4721;
791.4000;0.6333;-5.4747;
791.7000;0.6406;-5.4566;
792.0000;0.6260;-5.4825;
792.3000;0.6309;-5.4773;
792.6000;0.6325;-5.4747;
792.9000;0.6325;-5.4669;
793.2000;0.6390;-5.4488;
793.5000;0.6300;-5.4721;
793.8000;0.6357;-5.4643;
794.1000;0.6349;-5.4618;
794.4000;0.6317;-5.4669;
794.7000;0.6325;-5.4643;
795.0000;0.6374;-5.4592;
795.3000;0.6325;-5.4825;
795.6000;0.6309;-5.4929;
795.9000;0.6317;-5.4955;
796.2000;0.6333;-5.4877;
796.5000;0.6309;-5.4903;
796.8000;0.6333;-5.4851;
797.1000;0.6333;-5.4929;
797.4000;0.6309;-5.4903;
797.7000;0.6292;-5.4851;
798.0000;0.6300;-5.4929;
798.3000;0.6260;-5.5110;
798.6000;0.6309;-5.4955;
798.9000;0.6309;-5.4903;
799.2000;0.6309;-5.4851;
799.5000;0.6300;-5.4825;
799.8000;0.6317;-5.4773;
800.1000;0.6341;-5.4669;
800.4000;0.6309;-5.4695;
800.7000;0.6300;-5.4618;
801.0000;0.6300;-5.4566;
801.3000;0.6374;-5.4436;
801.6000;0.6317;-5.4643;
801.9000;0.6309;-5.4669;
802.2000;0.6284;-5.4669;
802.5000;0.6276;-5.4773;
802.8000;0.6317;-5.4695;
803.1000;0.6284;-5.4773;
803.4000;0.6284;-5.4747;
803.7000;0.6309;-5.4721;
804.0000;0.6317;-5.4643;
804.3000;0.6309;-5.4618;
804.6000;0.6276;-5.4747;
804.9000;0.6292;-5.4825;
805.2000;0.6284;-5.4851;
805.5000;0.6260;-5.4851;
805.8000;0.6268;-5.4825;
806.1000;0.6268;-5.4851;
806.4000;0.6276;-5.4851;
806.7000;0.6292;-5.4799;
807.0000;0.6317;-5.4721;
807.3000;0.6325;-5.4643;
807.6000;0.6284;-5.4721;
807.9000;0.6341;-5.4592;
808.2000;0.6260;-5.4851;
808.5000;0.6268;-5.4799;
808.8000;0.6276;-5.4669;
809.1000;0.6276;-5.4618;
809.4000;0.6382;-5.4410;
809.7000;0.6284;-5.4566;
810.0000;0.6260;-5.4695;
810.3000;0.6325;-5.4592;
810.6000;0.6276;-5.4799;
810.9000;0.6317;-5.4721;
811.2000;0.6268;-5.4747;
811.5000;0.6284;-5.4669;
811.8000;0.6292;-5.4669;
812.1000;0.6284;-5.4721;
812.4000;0.6276;-5.4695;
812.7000;0.6268;-5.4592;
813.0000;0.6317;-5.4618;
813.3000;0.6276;-5.4695;
813.6000;0.6276;-5.4643;
813.9000;0.6260;-5.4643;
814.2000;0.6276;-5.4695;
814.5000;0.6260;-5.4773;
814.8000;0.6325;-5.4618;
815.1000;0.6268;-5.4695;
815.4000;0.6260;-5.4618;
815.7000;0.6276;-5.4643;
816.0000;0.6235;-5.4747;
816.3000;0.6227;-5.4773;
816.6000;0.6235;-5.4773;
816.9000;0.6243;-5.4721;
817.2000;0.6260;-5.4540;
817.5000;0.6195;-5.4747;
817.8000;0.6260;-5.4695;
818.1000;0.6268;-5.4643;
818.4000;0.6252;-5.4592;
818.7000;0.6260;-5.4592;
819.0000;0.6243;-5.4566;
819.3000;0.6260;-5.4592;
819.6000;0.6252;-5.4695;
819.9000;0.6252;-5.4799;
820.2000;0.6260;-5.4773;
820.5000;0.6260;-5.4747;
820.8000;0.6252;-5.4773;
821.1000;0.6252;-5.4799;
821.4000;0.6252;-5.4747;
821.7000;0.6268;-5.4721;
822.0000;0.6260;-5.4773;
822.3000;0.6252;-5.4721;
822.6000;0.6252;-5.4695;
822.9000;0.6268;-5.4592;
823.2000;0.6243;-5.4618;
823.5000;0.6243;-5.4592;
823.8000;0.6252;-5.4618;
824.1000;0.6178;-5.4773;
824.4000;0.6268;-5.4592;
824.7000;0.6252;-5.4669;
825.0000;0.6235;-5.4643;
825.3000;0.6243;-5.4669;
825.6000;0.6211;-5.4799;
825.9000;0.6252;-5.4669;
826.2000;0.6235;-5.4643;
826.5000;0.6219;-5.4643;
826.8000;0.6219;-5.4695;
827.1000;0.6243;-5.4721;
827.4000;0.6243;-5.4825;
827.7000;0.6243;-5.4877;
828.0000;0.6227;-5.4877;
828.3000;0.6243;-5.4929;
828.6000;0.6252;-5.4929;
828.9000;0.6203;-5.5007;
829.2000;0.6235;-5.4981;
829.5000;0.6235;-5.4903;
829.8000;0.6227;-5.4877;
830.1000;0.6219;-5.4851;
830.4000;0.6211;-5.4877;
830.7000;0.6219;-5.4747;
831.0000;0.6219;-5.4669;
831.3000;0.6219;-5.4695;
831.6000;0.6211;-5.4669;
831.9000;0.6219;-5.4721;
832.2000;0.6227;-5.4695;
832.5000;0.6243;-5.4721;
832.8000;0.6211;-5.4877;
833.1000;0.6227;-5.4825;
833.4000;0.6284;-5.4618;
833.7000;0.6243;-5.4721;
834.0000;0.6219;-5.4825;
834.3000;0.6219;-5.4877;
834.6000;0.6235;-5.4799;
834.9000;0.6252;-5.4773;
835.2000;0.6211;-5.4851;
835.5000;0.6227;-5.4877;
835.8000;0.6219;-5.4955;
836.1000;0.6243;-5.4903;
836.4000;0.6227;-5.4903;
836.7000;0.6219;-5.4877;
837.0000;0.6219;-5.4825;
837.3000;0.6227;-5.4825;
837.6000;0.6211;-5.4825;
837.9000;0.6219;-5.4799;
838.2000;0.6219;-5.4773;
838.5000;0.6211;-5.4747;
838.8000;0.6227;-5.4695;
839.1000;0.6203;-5.4747;
839.4000;0.6211;-5.4799;
839.7000;0.6219;-5.4799;
840.0000;0.6219;-5.4721;
840.3000;0.6235;-5.4747;
840.6000;0.6154;-5.4929;
840.9000;0.6219;-5.4747;
841.2000;0.6211;-5.4773;
841.5000;0.6203;-5.4877;
841.8000;0.6203;-5.4877;
842.1000;0.6186;-5.4877;
842.4000;0.6211;-5.4877;
842.7000;0.6219;-5.4903;
843.0000;0.6219;-5.4877;
843.3000;0.6195;-5.4877;
843.6000;0.6227;-5.4851;
843.9000;0.6235;-5.4825;
844.2000;0.6219;-5.4799;
844.5000;0.6203;-5.4903;
844.8000;0.6211;-5.4903;
845.1000;0.6186;-5.4955;
845.4000;0.6211;-5.4877;
845.7000;0.6203;-5.4903;
846.0000;0.6195;-5.4929;
846.3000;0.6195;-5.4825;
846.6000;0.6219;-5.4825;
846.9000;0.6203;-5.4825;
847.2000;0.6186;-5.4799;
847.5000;0.6203;-5.4643;
847.8000;0.6219;-5.4618;
848.1000;0.6203;-5.4695;
848.4000;0.6195;-5.4592;
848.7000;0.6211;-5.4514;
849.0000;0.6186;-5.4488;
849.3000;0.6186;-5.4436;
849.6000;0.6195;-5.4436;
849.9000;0.6195;-5.4436;
850.2000;0.6276;-5.4306;
850.5000;0.6203;-5.4514;
850.8000;0.6211;-5.4514;
851.1000;0.6219;-5.4514;
851.4000;0.6203;-5.4514;
851.7000;0.6203;-5.4592;
852.0000;0.6195;-5.4695;
852.3000;0.6195;-5.4721;
852.6000;0.6186;-5.4695;
852.9000;0.6195;-5.4747;
853.2000;0.6178;-5.4773;
853.5000;0.6186;-5.4851;
853.8000;0.6186;-5.4799;
854.1000;0.6154;-5.4851;
854.4000;0.6186;-5.4721;
854.7000;0.6186;-5.4825;
855.0000;0.6195;-5.4773;
855.3000;0.6203;-5.4721;
855.6000;0.6195;-5.4669;
855.9000;0.6203;-5.4669;
856.2000;0.6195;-5.4669;
856.5000;0.6195;-5.4669;
856.8000;0.6186;-5.4695;
857.1000;0.6186;-5.4773;
857.4000;0.6186;-5.4695;
857.7000;0.6252;-5.4669;
858.0000;0.6203;-5.4721;
858.3000;0.6186;-5.4747;
858.6000;0.6219;-5.4721;
858.9000;0.6195;-5.4851;
859.2000;0.6195;-5.4851;
859.5000;0.6186;-5.4877;
859.8000;0.6178;-5.4851;
860.1000;0.6211;-5.4747;
860.4000;0.6178;-5.4877;
860.7000;0.6235;-5.4695;
861.0000;0.6129;-5.4929;
861.3000;0.6170;-5.4747;
861.6000;0.6186;-5.4643;
861.9000;0.6178;-5.4721;
862.2000;0.6211;-5.4618;
862.5000;0.6186;-5.4799;
862.8000;0.6178;-5.4877;
863.1000;0.6178;-5.4877;
863.4000;0.6178;-5.4929;
863.7000;0.6154;-5.4877;
864.0000;0.6170;-5.4825;
864.3000;0.6186;-5.4825;
864.6000;0.6170;-5.5007;
864.9000;0.6162;-5.5007;
865.2000;0.6186;-5.4877;
865.5000;0.6195;-5.4799;
865.8000;0.6170;-5.4851;
866.1000;0.6097;-5.5032;
866.4000;0.6178;-5.4799;
866.7000;0.6170;-5.4773;
867.0000;0.6178;-5.4721;
867.3000;0.6162;-5.4851;
867.6000;0.6170;-5.4773;
867.9000;0.6178;-5.4799;
868.2000;0.6186;-5.4825;
868.5000;0.6162;-5.4773;
868.8000;0.6146;-5.4747;
869.1000;0.6162;-5.4721;
869.4000;0.6227;-5.4566;
869.7000;0.6162;-5.4747;
870.0000;0.6170;-5.4721;
870.3000;0.6138;-5.4773;
870.6000;0.6170;-5.4773;
870.9000;0.6154;-5.4799;
871.2000;0.6170;-5.4825;
871.5000;0.6154;-5.4851;
871.8000;0.6178;-5.4747;
872.1000;0.6170;-5.4721;
872.4000;0.6162;-5.4695;
872.7000;0.6154;-5.4592;
873.0000;0.6162;-5.4540;
873.3000;0.6162;-5.4592;
873.6000;0.6146;-5.4643;
873.9000;0.6138;-5.4592;
874.2000;0.6154;-5.4540;
874.5000;0.6146;-5.4566;
874.8000;0.6146;-5.4514;
875.1000;0.6146;-5.4618;
875.4000;0.6154;-5.4566;
875.7000;0.6178;-5.4514;
876.0000;0.6154;-5.4514;
876.3000;0.6146;-5.4566;
876.6000;0.6170;-5.4488;
876.9000;0.6138;-5.4436;
877.2000;0.6146;-5.4462;
877.5000;0.6146;-5.4540;
877.8000;0.6154;-5.4592;
878.1000;0.6121;-5.4643;
878.4000;0.6129;-5.4695;
878.7000;0.6146;-5.4592;
879.0000;0.6162;-5.4540;
879.3000;0.6170;-5.4618;
879.6000;0.6178;-5.4566;
879.9000;0.6203;-5.4566;
880.2000;0.6154;-5.4721;
880.5000;0.6146;-5.4695;
880.8000;0.6146;-5.4514;
881.1000;0.6170;-5.4488;
881.4000;0.6105;-5.4514;
881.7000;0.6105;-5.4462;
882.0000;0.6162;-5.4306;
882.3000;0.6162;-5.4358;
882.6000;0.6138;-5.4462;
882.9000;0.6072;-5.4721;
883.2000;0.6138;-5.4540;
883.5000;0.6138;-5.4514;
883.8000;0.6105;-5.4669;
884.1000;0.6138;-5.4618;
884.4000;0.6138;-5.4643;
884.7000;0.6146;-5.4592;
885.0000;0.6162;-5.4592;
885.3000;0.6138;-5.4618;
885.6000;0.6138;-5.4566;
885.9000;0.6138;-5.4514;
886.2000;0.6154;-5.4410;
886.5000;0.6138;-5.4514;
886.8000;0.6146;-5.4384;
887.1000;0.6170;-5.4306;
887.4000;0.6138;-5.4410;
887.7000;0.6129;-5.4436;
888.0000;0.6129;-5.4358;
888.3000;0.6162;-5.4254;
888.6000;0.6154;-5.4306;
888.9000;0.6146;-5.4332;
889.2000;0.6154;-5.4384;
889.5000;0.6138;-5.4514;
889.8000;0.6146;-5.4514;
890.1000;0.6138;-5.4514;
890.4000;0.6138;-5.4514;
890.7000;0.6146;-5.4410;
891.0000;0.6129;-5.4488;
891.3000;0.6129;-5.4488;
891.6000;0.6154;-5.4462;
891.9000;0.6129;-5.4618;
892.2000;0.6138;-5.4669;
892.5000;0.6154;-5.4721;
892.8000;0.6195;-5.4721;
893.1000;0.6138;-5.4877;
893.4000;0.6138;-5.4799;
893.7000;0.6121;-5.4721;
894.0000;0.6121;-5.4695;
894.3000;0.6121;-5.4695;
894.6000;0.6138;-5.4566;
894.9000;0.6154;-5.4514;
895.2000;0.6146;-5.4514;
895.5000;0.6138;-5.4540;
895.8000;0.6121;-5.4618;
896.1000;0.6138;-5.4592;
896.4000;0.6113;-5.4695;
896.7000;0.6129;-5.4695;
897.0000;0.6089;-5.4825;
897.3000;0.6121;-5.4669;
897.6000;0.6138;-5.4773;
897.9000;0.6121;-5.4825;
898.2000;0.6121;-5.4825;
898.5000;0.6129;-5.4773;
898.8000;0.6081;-5.4851;
899.1000;0.6146;-5.4747;
899.4000;0.6154;-5.4592;
899.7000;0.6129;-5.4721;
900.0000;0.6138;-5.4669;
900.3000;0.6138;-5.4643;
900.6000;0.6138;-5.4669;
900.9000;0.6113;-5.4643;
901.2000;0.6138;-5.4540;
901.5000;0.6129;-5.4540;
901.8000;0.6138;-5.4462;
902.1000;0.6138;-5.4436;
902.4000;0.6129;-5.4462;
902.7000;0.6146;-5.4566;
903.0000;0.6138;-5.4566;
903.3000;0.6138;-5.4566;
903.6000;0.6138;-5.4669;
903.9000;0.6146;-5.4540;
904.2000;0.6146;-5.4566;
904.5000;0.6121;-5.4618;
904.8000;0.6146;-5.4488;
905.1000;0.6129;-5.4540;
905.4000;0.6129;-5.4540;
905.7000;0.6170;-5.4488;
906.0000;0.6129;-5.4695;
906.3000;0.6121;-5.4747;
906.6000;0.6121;-5.4695;
906.9000;0.6064;-5.4773;
907.2000;0.6105;-5.4695;
907.5000;0.6121;-5.4643;
907.8000;0.6170;-5.4436;
908.1000;0.6146;-5.4566;
908.4000;0.6105;-5.4618;
908.7000;0.6105;-5.4514;
909.0000;0.6121;-5.4540;
909.3000;0.6113;-5.4462;
909.6000;0.6113;-5.4462;
909.9000;0.6105;-5.4462;
910.2000;0.6113;-5.4488;
910.5000;0.6113;-5.4514;
910.8000;0.6097;-5.4514;
911.1000;0.6105;-5.4592;
911.4000;0.6113;-5.4540;
911.7000;0.6121;-5.4566;
912.0000;0.6113;-5.4566;
912.3000;0.6097;-5.4592;
912.6000;0.6129;-5.4540;
912.9000;0.6113;-5.4540;
913.2000;0.6121;-5.4462;
913.5000;0.6105;-5.4462;
913.8000;0.6097;-5.4488;
914.1000;0.6105;-5.4462;
914.4000;0.6121;-5.4436;
914.7000;0.6105;-5.4592;
915.0000;0.6121;-5.4540;
915.3000;0.6129;-5.4592;
915.6000;0.6113;-5.4566;
915.9000;0.6105;-5.4540;
916.2000;0.6064;-5.4695;
916.5000;0.6113;-5.4721;
916.8000;0.6105;-5.4669;
917.1000;0.6105;-5.4592;
917.4000;0.6113;-5.4488;
917.7000;0.6113;-5.4410;
918.0000;0.6089;-5.4410;
918.3000;0.6138;-5.4358;
918.6000;0.6121;-5.4488;
918.9000;0.6105;-5.4462;
919.2000;0.6081;-5.4540;
919.5000;0.6105;-5.4540;
919.8000;0.6097;-5.4540;
920.1000;0.6113;-5.4462;
920.4000;0.6105;-5.4462;
920.7000;0.6105;-5.4488;
921.0000;0.6105;-5.4540;
921.3000;0.6097;-5.4618;
921.6000;0.6113;-5.4566;
921.9000;0.6113;-5.4566;
922.2000;0.6105;-5.4514;
922.5000;0.6097;-5.4514;
922.8000;0.6113;-5.4514;
923.1000;0.6105;-5.4514;
923.4000;0.6146;-5.4488;
923.7000;0.6097;-5.4566;
924.0000;0.6105;-5.4540;
924.3000;0.6089;-5.4566;
924.6000;0.6097;-5.4514;
924.9000;0.6097;-5.4592;
925.2000;0.6064;-5.4643;
925.5000;0.6121;-5.4643;
925.8000;0.6121;-5.4695;
926.1000;0.6097;-5.4592;
926.4000;0.6089;-5.4618;
926.7000;0.6105;-5.4488;
927.0000;0.6097;-5.4488;
927.3000;0.6105;-5.4566;
927.6000;0.6089;-5.4514;
927.9000;0.6129;-5.4436;
928.2000;0.6113;-5.4514;
928.5000;0.6105;-5.4514;
928.8000;0.6097;-5.4436;
929.1000;0.6105;-5.4410;
929.4000;0.6097;-5.4410;
929.7000;0.6097;-5.4332;
930.0000;0.6113;-5.4280;
930.3000;0.6064;-5.4358;
930.6000;0.6081;-5.4306;
930.9000;0.6089;-5.4280;
931.2000;0.6097;-5.4306;
931.5000;0.6105;-5.4280;
931.8000;0.6089;-5.4280;
932.1000;0.6089;-5.4306;
932.4000;0.6097;-5.4306;
932.7000;0.6089;-5.4228;
933.0000;0.6097;-5.4306;
933.3000;0.6129;-5.4203;
933.6000;0.6081;-5.4332;
933.9000;0.6105;-5.4384;
934.2000;0.6097;-5.4410;
934.5000;0.6113;-5.4384;
934.8000;0.6097;-5.4306;
935.1000;0.6081;-5.4358;
935.4000;0.6081;-5.4462;
935.7000;0.6097;-5.4410;
936.0000;0.6105;-5.4384;
936.3000;0.6089;-5.4410;
936.6000;0.6089;-5.4462;
936.9000;0.6081;-5.4488;
937.2000;0.6113;-5.4436;
937.5000;0.6089;-5.4488;
937.8000;0.6121;-5.4462;
938.1000;0.6097;-5.4540;
938.4000;0.6097;-5.4514;
938.7000;0.6121;-5.4462;
939.0000;0.6097;-5.4514;
939.3000;0.6072;-5.4488;
939.6000;0.6089;-5.4436;
939.9000;0.6072;-5.4462;
940.2000;0.6097;-5.4384;
940.5000;0.6097;-5.4332;
940.8000;0.6089;-5.4358;
941.1000;0.6195;-5.4151;
941.4000;0.6089;-5.4436;
941.7000;0.6081;-5.4358;
942.0000;0.6089;-5.4306;
942.3000;0.6097;-5.4254;
942.6000;0.6081;-5.4358;
942.9000;0.6032;-5.4514;
943.2000;0.6089;-5.4384;
943.5000;0.6089;-5.4462;
943.8000;0.6048;-5.4566;
944.1000;0.6072;-5.4462;
944.4000;0.6097;-5.4540;
944.7000;0.6081;-5.4540;
945.0000;0.6097;-5.4488;
945.3000;0.6089;-5.4540;
945.6000;0.6081;-5.4514;
945.9000;0.6072;-5.4462;
946.2000;0.6081;-5.4462;
946.5000;0.6081;-5.4488;
946.8000;0.6064;-5.4462;
947.1000;0.6081;-5.4332;
947.4000;0.6097;-5.4358;
947.7000;0.6089;-5.4384;
948.0000;0.6040;-5.4514;
948.3000;0.6056;-5.4436;
948.6000;0.6072;-5.4436;
948.9000;0.6072;-5.4514;
949.2000;0.6072;-5.4514;
949.5000;0.6081;-5.4462;
949.8000;0.6072;-5.4488;
950.1000;0.6081;-5.4540;
950.4000;0.6105;-5.4488;
950.7000;0.6081;-5.4618;
951.0000;0.6081;-5.4618;
951.3000;0.6072;-5.4618;
951.6000;0.6072;-5.4669;
951.9000;0.6064;-5.4721;
952.2000;0.6064;-5.4695;
952.5000;0.6064;-5.4773;
952.8000;0.6081;-5.4695;
953.1000;0.6081;-5.4669;
953.4000;0.6072;-5.4592;
953.7000;0.6081;-5.4566;
954.0000;0.6089;-5.4514;
954.3000;0.6081;-5.4488;
954.6000;0.6064;-5.4488;
954.9000;0.6081;-5.4436;
955.2000;0.6072;-5.4436;
955.5000;0.6081;-5.4462;
955.8000;0.6064;-5.4488;
956.1000;0.6072;-5.4462;
956.4000;0.6081;-5.4358;
956.7000;0.6081;-5.4384;
957.0000;0.6064;-5.4436;
957.3000;0.6081;-5.4462;
957.6000;0.6072;-5.4462;
957.9000;0.6089;-5.4332;
958.2000;0.5991;-5.4592;
958.5000;0.6056;-5.4462;
958.8000;0.6064;-5.4540;
959.1000;0.6056;-5.4618;
959.4000;0.6072;-5.4592;
959.7000;0.6072;-5.4643;
960.0000;0.6072;-5.4592;
960.3000;0.6072;-5.4566;
960.6000;0.6072;-5.4514;
960.9000;0.6072;-5.4462;
961.2000;0.6081;-5.4384;
961.5000;0.6081;-5.4332;
961.8000;0.6064;-5.4410;
962.1000;0.6040;-5.4540;
962.4000;0.6064;-5.4488;
962.7000;0.6064;-5.4462;
963.0000;0.6072;-5.4384;
963.3000;0.6024;-5.4488;
963.6000;0.6056;-5.4358;
963.9000;0.6072;-5.4358;
964.2000;0.6032;-5.4384;
964.5000;0.6056;-5.4254;
964.8000;0.6064;-5.4280;
965.1000;0.6056;-5.4203;
965.4000;0.6072;-5.4254;
965.7000;0.6064;-5.4384;
966.0000;0.6064;-5.4358;
966.3000;0.6007;-5.4592;
966.6000;0.6064;-5.4514;
966.9000;0.6056;-5.4514;
967.2000;0.6048;-5.4462;
967.5000;0.6072;-5.4306;
967.8000;0.6072;-5.4306;
968.1000;0.6048;-5.4436;
968.4000;0.6064;-5.4384;
968.7000;0.6056;-5.4384;
969.0000;0.6081;-5.4306;
969.3000;0.6072;-5.4410;
969.6000;0.6056;-5.4410;
969.9000;0.6089;-5.4254;
970.2000;0.6081;-5.4306;
970.5000;0.6081;-5.4436;
970.8000;0.6081;-5.4410;
971.1000;0.6056;-5.4514;
971.4000;0.6064;-5.4384;
971.7000;0.6072;-5.4280;
972.0000;0.6056;-5.4306;
972.3000;0.6072;-5.4280;
972.6000;0.6064;-5.4254;
972.9000;0.6072;-5.4280;
973.2000;0.6056;-5.4332;
973.5000;0.6056;-5.4384;
973.8000;0.6064;-5.4306;
974.1000;0.6064;-5.4254;
974.4000;0.6081;-5.4280;
974.7000;0.6064;-5.4306;
975.0000;0.6072;-5.4332;
975.3000;0.6072;-5.4306;
975.6000;0.6024;-5.4462;
975.9000;0.6007;-5.4488;
976.2000;0.6081;-5.4228;
976.5000;0.6048;-5.4332;
976.8000;0.6097;-5.4254;
977.1000;0.6064;-5.4358;
977.4000;0.6056;-5.4306;
977.7000;0.6040;-5.4280;
978.0000;0.6015;-5.4306;
978.3000;0.6048;-5.4254;
978.6000;0.6048;-5.4228;
978.9000;0.6056;-5.4203;
979.2000;0.6056;-5.4306;
979.5000;0.6048;-5.4306;
979.8000;0.6064;-5.4254;
980.1000;0.6056;-5.4203;
980.4000;0.6040;-5.4280;
980.7000;0.6064;-5.4228;
981.0000;0.6064;-5.4228;
981.3000;0.6056;-5.4254;
981.6000;0.6072;-5.4228;
981.9000;0.6048;-5.4254;
982.2000;0.6032;-5.4306;
982.5000;0.6064;-5.4332;
982.8000;0.6056;-5.4384;
983.1000;0.6048;-5.4332;
983.4000;0.6024;-5.4358;
983.7000;0.6032;-5.4280;
984.0000;0.6032;-5.4254;
984.3000;0.6040;-5.4306;
984.6000;0.6056;-5.4280;
984.9000;0.6040;-5.4280;
985.2000;0.6072;-5.4203;
985.5000;0.6064;-5.4306;
985.8000;0.6048;-5.4280;
986.1000;0.6032;-5.4332;
986.4000;0.6032;-5.4384;
986.7000;0.6048;-5.4358;
987.0000;0.6072;-5.4332;
987.3000;0.6056;-5.4358;
987.6000;0.6032;-5.4436;
987.9000;0.6089;-5.4306;
988.2000;0.6072;-5.4332;
988.5000;0.6040;-5.4384;
988.8000;0.6040;-5.4410;
989.1000;0.6056;-5.4358;
989.4000;0.6040;-5.4410;
989.7000;0.6032;-5.4358;
990.0000;0.6032;-5.4436;
990.3000;0.6032;-5.4384;
990.6000;0.6040;-5.4384;
990.9000;0.6040;-5.4410;
991.2000;0.6056;-5.4436;
991.5000;0.6040;-5.4410;
991.8000;0.6048;-5.4462;
992.1000;0.6056;-5.4488;
992.4000;0.6056;-5.4410;
992.7000;0.6040;-5.4410;
993.0000;0.6040;-5.4462;
993.3000;0.6048;-5.4462;
993.6000;0.6040;-5.4488;
993.9000;0.6081;-5.4384;
994.2000;0.6056;-5.4358;
994.5000;0.6048;-5.4514;
994.8000;0.6056;-5.4358;
995.1000;0.6048;-5.4332;
995.4000;0.6064;-5.4306;
995.7000;0.6056;-5.4358;
996.0000;0.6056;-5.4410;
996.3000;0.6032;-5.4436;
996.6000;0.6040;-5.4462;
996.9000;0.6032;-5.4540;
997.2000;0.6032;-5.4514;
997.5000;0.6048;-5.4488;
997.8000;0.6032;-5.4488;
998.1000;0.6024;-5.4514;
998.4000;0.6056;-5.4358;
998.7000;0.6129;-5.4151;
999.0000;0.6048;-5.4384;
999.3000;0.6048;-5.4436;
999.6000;0.6024;-5.4384;
999.9000;0.6048;-5.4384;
1000.2000;0.6040;-5.4462;
1000.5000;0.6048;-5.4436;
1000.8000;0.6056;-5.4358;
1001.1000;0.6048;-5.4384;
1001.4000;0.6040;-5.4384;
1001.7000;0.6048;-5.4306;
1002.0000;0.6032;-5.4332;
1002.3000;0.6056;-5.4280;
1002.6000;0.6040;-5.4358;
1002.9000;0.6048;-5.4332;
1003.2000;0.5991;-5.4488;
1003.5000;0.6032;-5.4358;
1003.8000;0.6024;-5.4358;
1004.1000;0.6032;-5.4462;
1004.4000;0.6032;-5.4436;
1004.7000;0.6040;-5.4410;
1005.0000;0.6048;-5.4306;
1005.3000;0.6048;-5.4332;
1005.6000;0.6048;-5.4280;
1005.9000;0.6024;-5.4254;
1006.2000;0.6048;-5.4177;
1006.5000;0.6048;-5.4151;
1006.8000;0.6032;-5.4254;
1007.1000;0.6024;-5.4254;
1007.4000;0.6024;-5.4203;
1007.7000;0.6040;-5.4254;
1008.0000;0.6048;-5.4306;
1008.3000;0.6048;-5.4306;
1008.6000;0.6032;-5.4358;
1008.9000;0.6015;-5.4462;
1009.2000;0.6032;-5.4540;
1009.5000;0.6007;-5.4618;
1009.8000;0.6007;-5.4695;
1010.1000;0.6015;-5.4643;
1010.4000;0.6015;-5.4566;
1010.7000;0.6024;-5.4514;
1011.0000;0.6040;-5.4410;
1011.3000;0.6015;-5.4384;
1011.6000;0.6032;-5.4410;
1011.9000;0.6024;-5.4462;
1012.2000;0.6032;-5.4436;
1012.5000;0.6081;-5.4436;
1012.8000;0.6097;-5.4436;
1013.1000;0.6024;-5.4566;
1013.4000;0.6015;-5.4540;
1013.7000;0.6024;-5.4488;
1014.0000;0.6024;-5.4436;
1014.3000;0.6024;-5.4410;
1014.6000;0.6024;-5.4280;
1014.9000;0.6015;-5.4306;
1015.2000;0.6024;-5.4462;
1015.5000;0.6032;-5.4410;
1015.8000;0.6032;-5.4358;
1016.1000;0.6024;-5.4488;
1016.4000;0.6032;-5.4436;
1016.7000;0.6040;-5.4410;
1017.0000;0.6024;-5.4436;
1017.3000;0.6048;-5.4358;
1017.6000;0.6056;-5.4306;
1017.9000;0.6048;-5.4332;
1018.2000;0.6040;-5.4436;
1018.5000;0.6032;-5.4384;
1018.8000;0.6024;-5.4436;
1019.1000;0.6113;-5.4125;
1019.4000;0.6040;-5.4358;
1019.7000;0.6024;-5.4410;
1020.0000;0.6040;-5.4358;
1020.3000;0.6032;-5.4410;
1020.6000;0.6040;-5.4358;
1020.9000;0.6024;-5.4384;
1021.2000;0.6040;-5.4462;
1021.5000;0.6024;-5.4488;
1021.8000;0.6040;-5.4436;
1022.1000;0.6040;-5.4384;
1022.4000;0.6032;-5.4410;
1022.7000;0.6024;-5.4358;
1023.0000;0.6032;-5.4306;
1023.3000;0.6015;-5.4332;
1023.6000;0.6007;-5.4358;
1023.9000;0.6032;-5.4332;
1024.2000;0.6024;-5.4384;
1024.5000;0.5934;-5.4566;
1024.8000;0.6015;-5.4384;
1025.1000;0.6015;-5.4254;
1025.4000;0.6024;-5.4280;
1025.7000;0.6032;-5.4306;
1026.0000;0.5975;-5.4488;
1026.3000;0.6024;-5.4384;
1026.6000;0.6007;-5.4384;
1026.9000;0.6032;-5.4280;
1027.2000;0.6032;-5.4332;
1027.5000;0.6032;-5.4358;
1027.8000;0.5975;-5.4462;
1028.1000;0.6032;-5.4306;
1028.4000;0.6015;-5.4203;
1028.7000;0.6024;-5.4177;
1029.0000;0.6007;-5.4177;
1029.3000;0.6024;-5.4203;
1029.6000;0.6015;-5.4254;
1029.9000;0.6032;-5.4203;
1030.2000;0.6032;-5.4099;
1030.5000;0.6015;-5.4125;
1030.8000;0.6032;-5.4125;
1031.1000;0.6024;-5.4151;
1031.4000;0.6056;-5.4099;
1031.7000;0.6032;-5.4228;
1032.0000;0.6015;-5.4228;
1032.3000;0.6097;-5.4047;
1032.6000;0.6007;-5.4228;
1032.9000;0.6015;-5.4177;
1033.2000;0.6056;-5.4151;
1033.5000;0.6056;-5.4151;
1033.8000;0.6015;-5.4254;
1034.1000;0.6032;-5.4177;
1034.4000;0.6007;-5.4228;
1034.7000;0.6024;-5.4280;
1035.0000;0.6032;-5.4177;
1035.3000;0.6007;-5.4177;
1035.6000;0.6024;-5.4203;
1035.9000;0.6007;-5.4306;
1036.2000;0.6007;-5.4306;
1036.5000;0.6015;-5.4280;
1036.8000;0.6032;-5.4228;
1037.1000;0.6032;-5.4254;
1037.4000;0.6024;-5.4228;
1037.7000;0.6024;-5.4228;
1038.0000;0.6064;-5.4125;
1038.3000;0.6040;-5.4228;
1038.6000;0.6040;-5.4254;
1038.9000;0.6032;-5.4254;
1039.2000;0.6015;-5.4280;
1039.5000;0.6007;-5.4280;
1039.8000;0.6007;-5.4306;
1040.1000;0.6015;-5.4306;
1040.4000;0.6024;-5.4306;
1040.7000;0.6007;-5.4358;
1041.0000;0.6024;-5.4306;
1041.3000;0.6015;-5.4280;
1041.6000;0.6007;-5.4306;
1041.9000;0.6015;-5.4332;
1042.2000;0.6024;-5.4410;
1042.5000;0.6015;-5.4462;
1042.8000;0.6024;-5.4410;
1043.1000;0.6015;-5.4436;
1043.4000;0.6040;-5.4358;
1043.7000;0.6024;-5.4332;
1044.0000;0.6007;-5.4358;
1044.3000;0.6007;-5.4332;
1044.6000;0.6015;-5.4332;
1044.9000;0.6024;-5.4384;
1045.2000;0.6007;-5.4384;
1045.5000;0.5983;-5.4436;
1045.8000;0.6015;-5.4332;
1046.1000;0.6015;-5.4306;
1046.4000;0.6007;-5.4384;
1046.7000;0.6007;-5.4358;
1047.0000;0.6015;-5.4332;
1047.3000;0.6024;-5.4358;
1047.6000;0.5999;-5.4436;
1047.9000;0.5999;-5.4332;
1048.2000;0.5958;-5.4410;
1048.5000;0.6007;-5.4254;
1048.8000;0.6007;-5.4254;
1049.1000;0.5967;-5.4436;
1049.4000;0.5999;-5.4306;
1049.7000;0.6040;-5.4306;
1050.0000;0.5999;-5.4410;
1050.3000;0.6007;-5.4488;
1050.6000;0.5991;-5.4540;
1050.9000;0.5999;-5.4643;
1051.2000;0.6048;-5.4462;
1051.5000;0.6024;-5.4410;
1051.8000;0.6032;-5.4462;
1052.1000;0.5999;-5.4540;
1052.4000;0.6007;-5.4462;
1052.7000;0.6015;-5.4488;
1053.0000;0.6024;-5.4410;
1053.3000;0.5975;-5.4514;
1053.6000;0.6015;-5.4384;
1053.9000;0.6007;-5.4358;
1054.2000;0.6007;-5.4358;
1054.5000;0.6007;-5.4280;
1054.8000;0.5983;-5.4332;
1055.1000;0.5975;-5.4462;
1055.4000;0.5991;-5.4410;
1055.7000;0.6007;-5.4358;
1056.0000;0.6032;-5.4358;
1056.3000;0.6024;-5.4306;
1056.6000;0.6024;-5.4332;
1056.9000;0.6007;-5.4306;
1057.2000;0.5975;-5.4358;
1057.5000;0.6032;-5.4151;
1057.8000;0.6064;-5.4073;
1058.1000;0.6032;-5.4203;
1058.4000;0.6007;-5.4125;
1058.7000;0.6015;-5.4125;
1059.0000;0.6024;-5.4177;
1059.3000;0.5999;-5.4228;
1059.6000;0.5999;-5.4254;
1059.9000;0.6015;-5.4228;
1060.2000;0.6007;-5.4177;
1060.5000;0.5999;-5.4306;
1060.8000;0.5991;-5.4306;
1061.1000;0.6015;-5.4177;
1061.4000;0.6015;-5.4254;
1061.7000;0.5999;-5.4228;
1062.0000;0.5975;-5.4280;
1062.3000;0.5999;-5.4125;
1062.6000;0.6007;-5.4203;
1062.9000;0.5999;-5.4358;
1063.2000;0.5991;-5.4384;
1063.5000;0.5999;-5.4306;
1063.8000;0.5999;-5.4306;
1064.1000;0.5942;-5.4540;
1064.4000;0.6007;-5.4358;
1064.7000;0.6007;-5.4358;
1065.0000;0.6048;-5.4280;
1065.3000;0.5999;-5.4436;
1065.6000;0.5999;-5.4436;
1065.9000;0.6007;-5.4358;
1066.2000;0.5991;-5.4332;
1066.5000;0.5983;-5.4332;
1066.8000;0.5975;-5.4332;
1067.1000;0.5983;-5.4332;
1067.4000;0.5991;-5.4306;
1067.7000;0.5999;-5.4254;
1068.0000;0.6015;-5.4151;
1068.3000;0.5991;-5.4203;
1068.6000;0.6007;-5.4177;
1068.9000;0.5999;-5.4254;
1069.2000;0.6032;-5.4151;
1069.5000;0.6024;-5.4228;
1069.8000;0.6015;-5.4306;
1070.1000;0.6048;-5.4151;
1070.4000;0.5999;-5.4332;
1070.7000;0.5999;-5.4306;
1071.0000;0.5991;-5.4306;
1071.3000;0.5991;-5.4280;
1071.6000;0.5999;-5.4332;
1071.9000;0.5975;-5.4254;
1072.2000;0.5999;-5.4151;
1072.5000;0.5967;-5.4151;
1072.8000;0.5991;-5.4047;
1073.1000;0.5999;-5.3969;
1073.4000;0.5999;-5.3969;
1073.7000;0.6032;-5.3865;
1074.0000;0.6040;-5.3839;
1074.3000;0.6015;-5.4073;
1074.6000;0.5991;-5.4177;
1074.9000;0.5999;-5.4203;
1075.2000;0.5999;-5.4151;
1075.5000;0.6015;-5.4099;
1075.8000;0.6007;-5.4021;
1076.1000;0.6056;-5.3943;
1076.4000;0.5983;-5.4125;
1076.7000;0.5999;-5.4021;
1077.0000;0.6007;-5.4021;
1077.3000;0.5999;-5.3943;
1077.6000;0.5950;-5.4099;
1077.9000;0.5991;-5.4073;
1078.2000;0.6015;-5.4099;
1078.5000;0.6032;-5.4073;
1078.8000;0.5999;-5.4125;
1079.1000;0.5975;-5.4203;
1079.4000;0.5999;-5.4099;
1079.7000;0.5983;-5.4099;
1080.0000;0.5999;-5.4099;
1080.3000;0.5975;-5.4073;
1080.6000;0.5967;-5.4125;
1080.9000;0.5983;-5.4099;
1081.2000;0.5991;-5.4099;
1081.5000;0.5999;-5.4099;
1081.8000;0.6048;-5.3995;
1082.1000;0.5975;-5.4177;
1082.4000;0.5926;-5.4280;
1082.7000;0.5983;-5.4151;
1083.0000;0.5999;-5.4125;
1083.3000;0.6007;-5.4125;
1083.6000;0.5991;-5.4203;
1083.9000;0.5991;-5.4203;
1084.2000;0.6015;-5.4151;
1084.5000;0.5950;-5.4306;
1084.8000;0.5991;-5.4228;
1085.1000;0.6015;-5.4203;
1085.4000;0.5991;-5.4254;
1085.7000;0.6007;-5.4151;
1086.0000;0.5999;-5.4151;
1086.3000;0.5999;-5.4125;
1086.6000;0.5983;-5.4151;
1086.9000;0.5958;-5.4228;
1087.2000;0.5991;-5.4073;
1087.5000;0.6056;-5.3943;
1087.8000;0.6015;-5.4047;
1088.1000;0.5991;-5.4073;
1088.4000;0.6007;-5.3995;
1088.7000;0.5983;-5.4099;
1089.0000;0.5950;-5.4203;
1089.3000;0.6048;-5.3969;
1089.6000;0.6015;-5.4125;
1089.9000;0.6024;-5.4099;
1090.2000;0.6007;-5.4125;
1090.5000;0.6007;-5.4099;
1090.8000;0.5942;-5.4177;
1091.1000;0.5999;-5.4073;
1091.4000;0.6015;-5.4073;
1091.7000;0.5983;-5.4203;
1092.0000;0.5999;-5.4203;
1092.3000;0.6024;-5.4099;
1092.6000;0.5975;-5.4254;
1092.9000;0.6032;-5.4151;
1093.2000;0.6007;-5.4177;
1093.5000;0.5991;-5.4177;
1093.8000;0.5999;-5.4177;
1094.1000;0.5983;-5.4280;
1094.4000;0.5991;-5.4177;
1094.7000;0.5999;-5.4203;
1095.0000;0.5991;-5.4280;
1095.3000;0.5999;-5.4177;
1095.6000;0.5991;-5.4151;
1095.9000;0.5967;-5.4203;
1096.2000;0.5983;-5.4203;
1096.5000;0.6007;-5.4177;
1096.8000;0.5958;-5.4280;
1097.1000;0.5975;-5.4332;
1097.4000;0.6007;-5.4332;
1097.7000;0.5983;-5.4358;
1098.0000;0.5983;-5.4332;
1098.3000;0.5999;-5.4384;
1098.6000;0.6007;-5.4410;
1098.9000;0.5991;-5.4436;
1099.2000;0.5991;-5.4410;
1099.5000;0.5991;-5.4384;
1099.8000;0.5991;-5.4332;
1100.1000;0.5991;-5.4384;
1100.4000;0.5983;-5.4410;
1100.7000;0.5975;-5.4436;
1101.0000;0.5999;-5.4358;
1101.3000;0.5975;-5.4436;
1101.6000;0.5975;-5.4488;
1101.9000;0.5975;-5.4514;
1102.2000;0.5983;-5.4514;
1102.5000;0.5991;-5.4488;
1102.8000;0.5975;-5.4488;
1103.1000;0.5975;-5.4566;
1103.4000;0.5991;-5.4514;
1103.7000;0.6007;-5.4566;
1104.0000;0.5999;-5.4566;
1104.3000;0.5999;-5.4488;
1104.6000;0.5999;-5.4462;
1104.9000;0.6007;-5.4410;
1105.2000;0.5991;-5.4488;
1105.5000;0.5975;-5.4514;
1105.8000;0.5991;-5.4514;
1106.1000;0.5991;-5.4462;
1106.4000;0.5983;-5.4540;
1106.7000;0.5983;-5.4462;
1107.0000;0.5983;-5.4436;
1107.3000;0.5975;-5.4488;
1107.6000;0.6015;-5.4410;
1107.9000;0.5958;-5.4540;
1108.2000;0.6007;-5.4462;
1108.5000;0.5991;-5.4462;
1108.8000;0.6024;-5.4254;
1109.1000;0.5999;-5.4384;
1109.4000;0.5975;-5.4358;
1109.7000;0.6007;-5.4306;
1110.0000;0.5999;-5.4358;
1110.3000;0.6007;-5.4254;
1110.6000;0.5975;-5.4332;
1110.9000;0.5967;-5.4306;
1111.2000;0.5902;-5.4488;
1111.5000;0.6040;-5.4254;
1111.8000;0.5983;-5.4280;
1112.1000;0.5983;-5.4228;
1112.4000;0.5950;-5.4254;
1112.7000;0.5942;-5.4358;
1113.0000;0.5983;-5.4203;
1113.3000;0.5983;-5.4254;
1113.6000;0.5983;-5.4177;
1113.9000;0.5983;-5.4151;
1114.2000;0.5958;-5.4177;
1114.5000;0.5983;-5.4177;
1114.8000;0.5999;-5.4125;
1115.1000;0.6007;-5.4125;
1115.4000;0.5991;-5.4177;
1115.7000;0.5934;-5.4332;
1116.0000;0.5983;-5.4203;
1116.3000;0.6007;-5.4151;
1116.6000;0.5967;-5.4228;
1116.9000;0.5950;-5.4177;
1117.2000;0.5991;-5.4151;
1117.5000;0.5975;-5.4177;
1117.8000;0.5999;-5.4177;
1118.1000;0.5991;-5.4254;
1118.4000;0.5983;-5.4254;
1118.7000;0.5991;-5.4151;
1119.0000;0.5918;-5.4384;
1119.3000;0.5975;-5.4177;
1119.6000;0.5983;-5.4228;
1119.9000;0.5999;-5.4228;
1120.2000;0.5999;-5.4254;
1120.5000;0.5967;-5.4332;
1120.8000;0.5975;-5.4410;
1121.1000;0.5983;-5.4358;
1121.4000;0.5975;-5.4436;
1121.7000;0.6032;-5.4254;
1122.0000;0.6007;-5.4280;
1122.3000;0.5983;-5.4254;
1122.6000;0.5967;-5.4254;
1122.9000;0.5991;-5.4280;
1123.2000;0.5999;-5.4254;
1123.5000;0.5934;-5.4306;
1123.8000;0.5975;-5.4254;
1124.1000;0.5958;-5.4280;
1124.4000;0.5967;-5.4254;
1124.7000;0.6007;-5.4073;
1125.0000;0.5967;-5.4151;
1125.3000;0.5983;-5.4203;
1125.6000;0.5999;-5.4151;
1125.9000;0.5983;-5.4125;
1126.2000;0.5991;-5.4151;
1126.5000;0.5983;-5.4203;
1126.8000;0.5991;-5.4228;
1127.1000;0.5967;-5.4254;
1127.4000;0.5983;-5.4254;
1127.7000;0.6015;-5.4177;
1128.0000;0.6015;-5.4228;
1128.3000;0.5999;-5.4280;
1128.6000;0.6007;-5.4254;
1128.9000;0.6007;-5.4228;
1129.2000;0.5983;-5.4306;
1129.5000;0.5975;-5.4306;
1129.8000;0.5983;-5.4280;
1130.1000;0.5975;-5.4254;
1130.4000;0.5975;-5.4254;
1130.7000;0.5991;-5.4254;
1131.0000;0.5942;-5.4384;
1131.3000;0.5958;-5.4254;
1131.6000;0.5975;-5.4151;
1131.9000;0.5967;-5.4125;
1132.2000;0.5967;-5.4125;
1132.5000;0.5975;-5.3995;
1132.8000;0.6032;-5.3891;
1133.1000;0.5991;-5.4047;
1133.4000;0.5975;-5.4073;
1133.7000;0.5975;-5.4073;
1134.0000;0.5975;-5.4047;
1134.3000;0.5983;-5.4047;
1134.6000;0.6032;-5.3917;
1134.9000;0.5967;-5.3969;
1135.2000;0.5918;-5.4021;
1135.5000;0.5983;-5.3943;
1135.8000;0.5975;-5.4073;
1136.1000;0.6007;-5.3995;
1136.4000;0.6024;-5.4073;
1136.7000;0.5983;-5.4125;
1137.0000;0.5967;-5.4125;
1137.3000;0.5958;-5.4151;
1137.6000;0.5999;-5.3995;
1137.9000;0.5975;-5.4073;
1138.2000;0.5983;-5.4125;
1138.5000;0.5934;-5.4228;
1138.8000;0.5967;-5.4151;
1139.1000;0.5950;-5.4254;
1139.4000;0.5983;-5.4177;
1139.7000;0.5983;-5.4177;
1140.0000;0.5991;-5.4280;
1140.3000;0.5983;-5.4203;
1140.6000;0.5983;-5.4125;
1140.9000;0.5975;-5.4047;
1141.2000;0.5983;-5.4073;
1141.5000;0.5958;-5.4177;
1141.8000;0.5975;-5.4125;
1142.1000;0.5975;-5.4151;
1142.4000;0.5975;-5.4228;
1142.7000;0.5958;-5.4358;
1143.0000;0.5926;-5.4358;
1143.3000;0.5983;-5.4203;
1143.6000;0.5958;-5.4280;
1143.9000;0.5958;-5.4280;
1144.2000;0.5967;-5.4280;
1144.5000;0.5958;-5.4228;
1144.8000;0.5950;-5.4228;
1145.1000;0.5967;-5.4254;
1145.4000;0.5958;-5.4228;
1145.7000;0.5942;-5.4254;
1146.0000;0.5975;-5.4073;
1146.3000;0.5967;-5.4125;
1146.6000;0.5991;-5.4021;
1146.9000;0.5983;-5.4151;
1147.2000;0.5942;-5.4306;
1147.5000;0.5934;-5.4332;
1147.8000;0.5983;-5.4177;
1148.1000;0.5983;-5.4151;
1148.4000;0.5983;-5.4177;
1148.7000;0.5975;-5.4203;
1149.0000;0.5975;-5.4203;
1149.3000;0.5975;-5.4254;
1149.6000;0.5942;-5.4358;
1149.9000;0.5991;-5.4228;
1150.2000;0.5958;-5.4306;
1150.5000;0.5958;-5.4358;
1150.8000;0.6015;-5.4254;
1151.1000;0.6015;-5.4203;
1151.4000;0.5975;-5.4306;
1151.7000;0.6040;-5.4073;
1152.0000;0.5967;-5.4384;
1152.3000;0.6024;-5.4280;
1152.6000;0.6024;-5.4358;
1152.9000;0.5999;-5.4358;
1153.2000;0.5950;-5.4488;
1153.5000;0.5983;-5.4410;
1153.8000;0.5958;-5.4384;
1154.1000;0.5975;-5.4306;
1154.4000;0.5975;-5.4203;
1154.7000;0.5991;-5.4280;
1155.0000;0.5983;-5.4306;
1155.3000;0.5983;-5.4384;
1155.6000;0.5983;-5.4384;
1155.9000;0.5983;-5.4332;
1156.2000;0.5991;-5.4280;
1156.5000;0.5958;-5.4306;
1156.8000;0.6024;-5.4203;
1157.1000;0.5975;-5.4332;
1157.4000;0.5926;-5.4462;
1157.7000;0.5975;-5.4332;
1158.0000;0.5958;-5.4332;
1158.3000;0.5967;-5.4306;
1158.6000;0.5958;-5.4410;
1158.9000;0.5975;-5.4332;
1159.2000;0.5958;-5.4332;
1159.5000;0.5958;-5.4358;
1159.8000;0.5958;-5.4306;
1160.1000;0.5958;-5.4358;
1160.4000;0.5958;-5.4358;
1160.7000;0.5967;-5.4384;
1161.0000;0.5950;-5.4384;
1161.3000;0.5950;-5.4384;
1161.6000;0.5958;-5.4280;
1161.9000;0.5950;-5.4228;
1162.2000;0.5958;-5.4280;
1162.5000;0.5958;-5.4228;
1162.8000;0.5967;-5.4280;
1163.1000;0.5958;-5.4306;
1163.4000;0.5991;-5.4203;
1163.7000;0.5958;-5.4306;
1164.0000;0.5991;-5.4151;
1164.3000;0.5983;-5.4203;
1164.6000;0.5967;-5.4203;
1164.9000;0.5967;-5.4228;
1165.2000;0.5983;-5.4254;
1165.5000;0.5967;-5.4228;
1165.8000;0.5958;-5.4280;
1166.1000;0.5958;-5.4306;
1166.4000;0.5975;-5.4280;
1166.7000;0.5958;-5.4280;
1167.0000;0.5958;-5.4280;
1167.3000;0.5958;-5.4280;
1167.6000;0.5983;-5.4177;
1167.9000;0.5967;-5.4151;
1168.2000;0.5950;-5.4203;
1168.5000;0.5958;-5.4228;
1168.8000;0.5967;-5.4151;
1169.1000;0.5975;-5.4151;
1169.4000;0.5967;-5.4099;
1169.7000;0.5950;-5.4125;
1170.0000;0.5958;-5.4021;
1170.3000;0.5967;-5.4073;
1170.6000;0.5967;-5.4073;
1170.9000;0.5958;-5.4177;
1171.2000;0.5967;-5.4151;
1171.5000;0.5967;-5.4203;
1171.8000;0.5958;-5.4203;
1172.1000;0.5991;-5.4177;
1172.4000;0.5950;-5.4332;
1172.7000;0.6024;-5.4099;
1173.0000;0.5975;-5.4203;
1173.3000;0.5975;-5.4099;
1173.6000;0.5975;-5.4125;
1173.9000;0.5918;-5.4254;
1174.2000;0.5967;-5.4177;
1174.5000;0.5958;-5.4203;
1174.8000;0.5926;-5.4358;
1175.1000;0.5975;-5.4306;
1175.4000;0.5967;-5.4358;
1175.7000;0.5958;-5.4384;
1176.0000;0.5958;-5.4384;
1176.3000;0.5942;-5.4358;
1176.6000;0.5958;-5.4280;
1176.9000;0.5950;-5.4332;
1177.2000;0.5958;-5.4254;
1177.5000;0.6015;-5.4125;
1177.8000;0.5893;-5.4514;
1178.1000;0.5942;-5.4410;
1178.4000;0.5967;-5.4254;
1178.7000;0.5958;-5.4384;
1179.0000;0.5967;-5.4280;
1179.3000;0.5942;-5.4332;
1179.6000;0.5950;-5.4280;
1179.9000;0.5958;-5.4332;
1180.2000;0.5958;-5.4254;
1180.5000;0.5958;-5.4203;
1180.8000;0.5958;-5.4306;
1181.1000;0.5950;-5.4358;
1181.4000;0.5967;-5.4332;
1181.7000;0.5958;-5.4384;
1182.0000;0.5975;-5.4306;
1182.3000;0.5950;-5.4332;
1182.6000;0.5999;-5.4177;
1182.9000;0.5967;-5.4099;
1183.2000;0.5942;-5.4254;
1183.5000;0.5958;-5.4125;
1183.8000;0.5958;-5.4073;
1184.1000;0.5942;-5.4125;
1184.4000;0.5967;-5.4047;
1184.7000;0.5958;-5.4228;
1185.0000;0.5983;-5.4125;
1185.3000;0.5958;-5.4203;
1185.6000;0.5991;-5.4151;
1185.9000;0.5942;-5.4203;
1186.2000;0.5950;-5.4151;
1186.5000;0.5958;-5.4228;
1186.8000;0.5967;-5.4151;
1187.1000;0.5967;-5.4177;
1187.4000;0.5950;-5.4151;
1187.7000;0.5942;-5.4177;
1188.0000;0.5958;-5.4177;
1188.3000;0.5942;-5.4203;
1188.6000;0.5967;-5.4203;
1188.9000;0.5942;-5.4177;
1189.2000;0.5958;-5.4125;
1189.5000;0.5983;-5.4125;
1189.8000;0.5942;-5.4228;
1190.1000;0.5967;-5.4254;
1190.4000;0.5967;-5.4254;
1190.7000;0.5967;-5.4280;
1191.0000;0.5967;-5.4358;
1191.3000;0.5950;-5.4332;
1191.6000;0.5958;-5.4384;
1191.9000;0.5975;-5.4332;
1192.2000;0.5967;-5.4306;
1192.5000;0.5942;-5.4384;
1192.8000;0.5967;-5.4254;
1193.1000;0.5950;-5.4280;
1193.4000;0.5950;-5.4151;
1193.7000;0.5958;-5.4177;
1194.0000;0.5967;-5.4125;
1194.3000;0.5975;-5.4177;
1194.6000;0.5950;-5.4177;
1194.9000;0.5950;-5.4254;
1195.2000;0.5950;-5.4228;
1195.5000;0.5991;-5.4021;
1195.8000;0.5958;-5.4099;
1196.1000;0.5958;-5.4099;
1196.4000;0.5991;-5.3995;
1196.7000;0.5967;-5.4099;
1197.0000;0.5967;-5.4073;
1197.3000;0.5958;-5.3995;
1197.6000;0.5967;-5.3969;
1197.9000;0.5942;-5.4047;
1198.2000;0.5975;-5.3917;
1198.5000;0.5950;-5.3891;
1198.8000;0.5958;-5.3995;
1199.1000;0.5950;-5.4073;
1199.4000;0.5975;-5.4047;
1199.7000;0.5942;-5.4073;
1200.0000;0.5958;-5.4047;
1200.3000;0.5950;-5.4151;
1200.6000;0.5958;-5.4099;
1200.9000;0.5958;-5.4125;
1201.2000;0.5967;-5.4125;
1201.5000;0.5950;-5.4228;
1201.8000;0.5967;-5.4254;
1202.1000;0.5967;-5.4306;
1202.4000;0.5934;-5.4410;
1202.7000;0.5942;-5.4358;
1203.0000;0.6032;-5.4177;
1203.3000;0.5958;-5.4306;
1203.6000;0.5958;-5.4358;
1203.9000;0.5950;-5.4384;
1204.2000;0.5958;-5.4410;
1204.5000;0.5967;-5.4462;
1204.8000;0.5975;-5.4436;
1205.1000;0.5958;-5.4436;
1205.4000;0.5950;-5.4436;
1205.7000;0.5958;-5.4462;
1206.0000;0.5958;-5.4410;
1206.3000;0.5958;-5.4358;
1206.6000;0.5942;-5.4358;
1206.9000;0.5950;-5.4332;
1207.2000;0.5958;-5.4280;
1207.5000;0.5958;-5.4280;
1207.8000;0.5950;-5.4203;
1208.1000;0.5991;-5.4177;
1208.4000;0.5975;-5.4203;
1208.7000;0.5958;-5.4254;
1209.0000;0.5967;-5.4125;
1209.3000;0.5958;-5.4151;
1209.6000;0.5958;-5.4228;
1209.9000;0.5950;-5.4332;
1210.2000;0.5958;-5.4306;
1210.5000;0.5958;-5.4228;
1210.8000;0.5958;-5.4151;
1211.1000;0.5999;-5.4099;
1211.4000;0.5926;-5.4254;
1211.7000;0.5967;-5.4125;
1212.0000;0.5950;-5.4151;
1212.3000;0.5950;-5.4125;
1212.6000;0.6040;-5.3891;
1212.9000;0.5942;-5.4047;
1213.2000;0.5958;-5.3969;
1213.5000;0.5950;-5.4073;
1213.8000;0.5975;-5.4021;
1214.1000;0.5893;-5.4306;
1214.4000;0.5926;-5.4177;
1214.7000;0.5950;-5.4021;
1215.0000;0.5958;-5.4073;
1215.3000;0.5934;-5.4203;
1215.6000;0.5942;-5.4203;
1215.9000;0.5950;-5.4228;
1216.2000;0.5958;-5.4177;
1216.5000;0.5958;-5.4280;
1216.8000;0.5967;-5.4280;
1217.1000;0.5967;-5.4254;
1217.4000;0.5958;-5.4203;
1217.7000;0.5967;-5.4280;
1218.0000;0.5950;-5.4358;
1218.3000;0.5958;-5.4306;
1218.6000;0.5967;-5.4203;
1218.9000;0.5950;-5.4203;
1219.2000;0.5958;-5.4203;
1219.5000;0.5942;-5.4228;
1219.8000;0.5958;-5.4047;
1220.1000;0.5958;-5.4047;
1220.4000;0.5950;-5.4073;
1220.7000;0.5983;-5.3995;
1221.0000;0.5942;-5.4151;
1221.3000;0.5950;-5.4177;
1221.6000;0.5967;-5.4125;
1221.9000;0.5942;-5.4203;
1222.2000;0.5967;-5.4177;
1222.5000;0.5934;-5.4254;
1222.8000;0.5950;-5.4151;
1223.1000;0.5942;-5.4177;
1223.4000;0.5942;-5.4151;
1223.7000;0.5967;-5.4125;
1224.0000;0.5967;-5.4125;
1224.3000;0.5958;-5.4099;
1224.6000;0.5975;-5.4073;
1224.9000;0.5942;-5.4125;
1225.2000;0.5967;-5.4125;
1225.5000;0.5902;-5.4306;
1225.8000;0.5942;-5.4228;
1226.1000;0.5950;-5.4228;
1226.4000;0.5991;-5.4125;
1226.7000;0.5983;-5.4125;
1227.0000;0.5950;-5.4203;
1227.3000;0.5950;-5.4228;
1227.6000;0.5942;-5.4228;
1227.9000;0.5950;-5.4203;
1228.2000;0.5958;-5.4177;
1228.5000;0.5926;-5.4332;
1228.8000;0.5950;-5.4280;
1229.1000;0.5950;-5.4306;
1229.4000;0.5958;-5.4306;
1229.7000;0.5934;-5.4358;
1230.0000;0.5942;-5.4332;
1230.3000;0.5958;-5.4306;
1230.6000;0.5934;-5.4410;
1230.9000;0.5926;-5.4410;
1231.2000;0.5910;-5.4514;
1231.5000;0.5950;-5.4358;
1231.8000;0.5926;-5.4436;
1232.1000;0.5926;-5.4488;
1232.4000;0.5991;-5.4306;
1232.7000;0.5950;-5.4358;
1233.0000;0.5942;-5.4358;
1233.3000;0.5950;-5.4410;
1233.6000;0.5934;-5.4436;
1233.9000;0.5950;-5.4358;
1234.2000;0.5950;-5.4332;
1234.5000;0.5942;-5.4332;
1234.8000;0.5958;-5.4306;
1235.1000;0.5918;-5.4228;
1235.4000;0.5942;-5.4228;
1235.7000;0.6015;-5.4073;
1236.0000;0.5918;-5.4332;
1236.3000;0.5942;-5.4358;
1236.6000;0.5950;-5.4358;
1236.9000;0.5934;-5.4436;
1237.2000;0.5950;-5.4358;
1237.5000;0.5934;-5.4332;
1237.8000;0.5950;-5.4228;
1238.1000;0.5942;-5.4151;
1238.4000;0.5950;-5.4151;
1238.7000;0.5902;-5.4306;
1239.0000;0.5942;-5.4254;
1239.3000;0.5958;-5.4177;
1239.6000;0.5967;-5.4125;
1239.9000;0.5958;-5.4151;
1240.2000;0.5967;-5.4228;
1240.5000;0.5942;-5.4254;
1240.8000;0.5926;-5.4384;
1241.1000;0.5942;-5.4332;
1241.4000;0.5934;-5.4358;
1241.7000;0.5934;-5.4410;
1242.0000;0.5934;-5.4436;
1242.3000;0.5942;-5.4306;
1242.6000;0.5942;-5.4280;
1242.9000;0.5942;-5.4280;
1243.2000;0.5926;-5.4410;
1243.5000;0.5950;-5.4462;
1243.8000;0.5910;-5.4488;
1244.1000;0.5893;-5.4540;
1244.4000;0.5967;-5.4332;
1244.7000;0.5999;-5.4203;
1245.0000;0.5950;-5.4358;
1245.3000;0.5983;-5.4306;
1245.6000;0.5942;-5.4358;
1245.9000;0.5950;-5.4332;
1246.2000;0.5958;-5.4306;
1246.5000;0.5950;-5.4306;
1246.8000;0.5934;-5.4280;
1247.1000;0.5975;-5.4151;
1247.4000;0.5950;-5.4151;
1247.7000;0.5950;-5.4151;
1248.0000;0.5934;-5.4203;
1248.3000;0.5958;-5.4177;
1248.6000;0.5934;-5.4151;
1248.9000;0.5918;-5.4099;
1249.2000;0.5950;-5.4125;
1249.5000;0.5950;-5.4177;
1249.8000;0.5950;-5.4177;
1250.1000;0.5942;-5.4203;
1250.4000;0.5934;-5.4177;
1250.7000;0.5967;-5.4177;
1251.0000;0.5918;-5.4306;
1251.3000;0.5942;-5.4151;
1251.6000;0.5950;-5.4203;
1251.9000;0.5942;-5.4073;
1252.2000;0.5967;-5.4047;
1252.5000;0.5934;-5.4151;
1252.8000;0.5934;-5.4228;
1253.1000;0.5926;-5.4228;
1253.4000;0.5934;-5.4177;
1253.7000;0.5926;-5.4228;
1254.0000;0.5950;-5.4125;
1254.3000;0.5942;-5.4125;
1254.6000;0.5958;-5.4073;
1254.9000;0.5934;-5.4125;
1255.2000;0.5950;-5.4073;
1255.5000;0.5958;-5.4047;
1255.8000;0.5958;-5.4073;
1256.1000;0.5942;-5.4125;
1256.4000;0.5942;-5.4151;
1256.7000;0.5950;-5.4151;
1257.0000;0.5950;-5.4177;
1257.3000;0.5950;-5.4228;
1257.6000;0.5950;-5.4254;
1257.9000;0.5942;-5.4306;
1258.2000;0.5934;-5.4280;
1258.5000;0.5958;-5.4228;
1258.8000;0.5950;-5.4254;
1259.1000;0.5958;-5.4228;
1259.4000;0.5942;-5.4203;
1259.7000;0.5967;-5.4073;
1260.0000;0.5942;-5.4203;
1260.3000;0.5934;-5.4203;
1260.6000;0.5958;-5.4099;
1260.9000;0.5942;-5.4151;
1261.2000;0.5942;-5.4151;
1261.5000;0.5958;-5.4177;
1261.8000;0.5934;-5.4228;
1262.1000;0.5950;-5.4099;
1262.4000;0.5942;-5.4203;
1262.7000;0.5934;-5.4228;
1263.0000;0.5918;-5.4203;
1263.3000;0.5958;-5.4203;
1263.6000;0.5942;-5.4280;
1263.9000;0.5950;-5.4203;
1264.2000;0.5942;-5.4151;
1264.5000;0.5942;-5.4125;
1264.8000;0.5934;-5.4151;
1265.1000;0.5942;-5.4099;
1265.4000;0.5910;-5.4125;
1265.7000;0.5934;-5.4099;
1266.0000;0.5926;-5.4151;
1266.3000;0.5942;-5.4099;
1266.6000;0.5934;-5.4047;
1266.9000;0.5942;-5.4073;
1267.2000;0.5893;-5.4177;
1267.5000;0.5934;-5.4073;
1267.8000;0.5934;-5.4073;
1268.1000;0.5950;-5.4047;
1268.4000;0.5958;-5.4073;
1268.7000;0.5942;-5.4099;
1269.0000;0.5967;-5.4099;
1269.3000;0.5934;-5.4099;
1269.6000;0.5950;-5.4047;
1269.9000;0.5950;-5.4047;
1270.2000;0.6007;-5.3943;
1270.5000;0.5942;-5.4099;
1270.8000;0.5926;-5.4125;
1271.1000;0.5958;-5.3969;
1271.4000;0.5926;-5.4047;
1271.7000;0.5950;-5.4021;
1272.0000;0.5926;-5.3995;
1272.3000;0.5950;-5.4021;
1272.6000;0.5942;-5.4073;
1272.9000;0.6015;-5.3943;
1273.2000;0.5942;-5.4177;
1273.5000;0.5950;-5.4099;
1273.8000;0.5958;-5.4125;
1274.1000;0.5950;-5.4151;
1274.4000;0.5934;-5.4177;
1274.7000;0.5942;-5.4125;
1275.0000;0.5942;-5.4151;
1275.3000;0.5950;-5.4254;
1275.6000;0.5950;-5.4228;
1275.9000;0.5950;-5.4280;
1276.2000;0.5950;-5.4151;
1276.5000;0.6015;-5.3969;
1276.8000;0.5942;-5.4099;
1277.1000;0.5926;-5.4125;
1277.4000;0.5942;-5.4125;
1277.7000;0.5950;-5.4151;
1278.0000;0.5934;-5.4177;
1278.3000;0.5934;-5.4228;
1278.6000;0.5950;-5.4254;
1278.9000;0.5934;-5.4254;
1279.2000;0.5950;-5.4254;
1279.5000;0.5934;-5.4280;
1279.8000;0.5910;-5.4254;
1280.1000;0.5902;-5.4151;
1280.4000;0.5942;-5.4047;
1280.7000;0.5934;-5.4073;
1281.0000;0.5910;-5.4125;
1281.3000;0.5950;-5.4073;
1281.6000;0.5950;-5.4177;
1281.9000;0.5950;-5.4228;
1282.2000;0.5942;-5.4177;
1282.5000;0.5950;-5.4073;
1282.8000;0.5975;-5.3995;
1283.1000;0.5958;-5.4099;
1283.4000;0.5934;-5.4254;
1283.7000;0.5950;-5.4280;
1284.0000;0.5926;-5.4228;
1284.3000;0.5942;-5.4254;
1284.6000;0.5934;-5.4228;
1284.9000;0.5926;-5.4228;
1285.2000;0.5934;-5.4151;
1285.5000;0.5934;-5.4099;
1285.8000;0.5934;-5.4099;
1286.1000;0.5910;-5.4203;
1286.4000;0.5918;-5.4099;
1286.7000;0.5934;-5.4073;
1287.0000;0.5918;-5.4125;
1287.3000;0.5942;-5.4203;
1287.6000;0.5942;-5.4177;
1287.9000;0.5950;-5.4151;
1288.2000;0.5999;-5.4047;
1288.5000;0.5926;-5.4125;
1288.8000;0.5934;-5.4125;
1289.1000;0.5942;-5.4151;
1289.4000;0.5893;-5.4332;
1289.7000;0.5926;-5.4203;
1290.0000;0.5942;-5.4099;
1290.3000;0.5934;-5.4073;
1290.6000;0.6024;-5.3865;
1290.9000;0.5926;-5.4073;
1291.2000;0.5991;-5.3969;
1291.5000;0.5999;-5.4047;
1291.8000;0.5934;-5.4125;
1292.1000;0.5942;-5.4125;
1292.4000;0.5950;-5.4177;
1292.7000;0.5958;-5.4099;
1293.0000;0.5926;-5.4099;
1293.3000;0.5942;-5.3969;
1293.6000;0.5926;-5.4073;
1293.9000;0.5991;-5.3917;
1294.2000;0.5950;-5.4021;
1294.5000;0.5926;-5.4021;
1294.8000;0.5942;-5.4047;
1295.1000;0.5958;-5.3969;
1295.4000;0.5934;-5.4073;
1295.7000;0.5942;-5.4047;
1296.0000;0.5926;-5.4021;
1296.3000;0.5934;-5.3969;
1296.6000;0.5926;-5.4047;
1296.9000;0.5918;-5.4151;
1297.2000;0.5934;-5.4151;
1297.5000;0.5934;-5.4151;
1297.8000;0.5926;-5.4228;
1298.1000;0.5942;-5.4177;
1298.4000;0.5942;-5.4177;
1298.7000;0.5934;-5.4228;
1299.0000;0.5958;-5.4125;
1299.3000;0.5958;-5.4177;
1299.6000;0.5967;-5.4151;
1299.9000;0.5885;-5.4384;
1300.2000;0.5926;-5.4280;
1300.5000;0.5934;-5.4203;
1300.8000;0.5918;-5.4177;
1301.1000;0.5926;-5.4151;
1301.4000;0.5910;-5.4151;
1301.7000;0.5950;-5.3995;
1302.0000;0.5942;-5.4047;
1302.3000;0.5926;-5.4177;
1302.6000;0.5926;-5.4203;
1302.9000;0.5918;-5.4228;
1303.2000;0.5926;-5.4254;
1303.5000;0.5942;-5.4177;
1303.8000;0.5950;-5.4125;
1304.1000;0.5958;-5.4099;
1304.4000;0.5942;-5.4228;
1304.7000;0.5983;-5.4125;
1305.0000;0.5902;-5.4203;
1305.3000;0.5910;-5.4021;
1305.6000;0.5902;-5.4073;
1305.9000;0.5950;-5.4047;
1306.2000;0.5877;-5.4151;
1306.5000;0.5934;-5.4073;
1306.8000;0.5926;-5.4125;
1307.1000;0.5934;-5.4125;
1307.4000;0.5942;-5.4125;
1307.7000;0.5934;-5.4177;
1308.0000;0.5918;-5.4254;
1308.3000;0.5942;-5.4177;
1308.6000;0.5910;-5.4228;
1308.9000;0.5926;-5.4228;
1309.2000;0.5918;-5.4228;
1309.5000;0.5902;-5.4254;
1309.8000;0.5934;-5.4280;
1310.1000;0.5942;-5.4332;
1310.4000;0.5942;-5.4332;
1310.7000;0.5934;-5.4306;
1311.0000;0.5934;-5.4177;
1311.3000;0.5934;-5.4073;
1311.6000;0.5934;-5.4021;
1311.9000;0.5934;-5.4047;
1312.2000;0.5950;-5.3917;
1312.5000;0.5910;-5.3969;
1312.8000;0.5926;-5.3943;
1313.1000;0.5934;-5.3891;
1313.4000;0.5942;-5.3943;
1313.7000;0.5942;-5.3969;
1314.0000;0.5869;-5.4203;
1314.3000;0.5918;-5.4073;
1314.6000;0.5934;-5.3995;
1314.9000;0.5958;-5.3943;
1315.2000;0.5926;-5.4047;
1315.5000;0.5926;-5.3969;
1315.8000;0.5934;-5.3969;
1316.1000;0.5934;-5.4047;
1316.4000;0.5918;-5.4073;
1316.7000;0.5934;-5.4073;
1317.0000;0.5934;-5.4073;
1317.3000;0.5950;-5.4047;
1317.6000;0.5934;-5.4125;
1317.9000;0.5991;-5.3995;
1318.2000;0.5950;-5.4073;
1318.5000;0.5942;-5.3969;
1318.8000;0.5934;-5.3969;
1319.1000;0.5934;-5.4021;
1319.4000;0.5918;-5.4047;
1319.7000;0.5926;-5.4099;
1320.0000;0.5967;-5.4047;
1320.3000;0.5902;-5.4228;
1320.6000;0.5910;-5.4177;
1320.9000;0.5942;-5.4073;
1321.2000;0.5926;-5.4021;
1321.5000;0.6015;-5.3788;
1321.8000;0.5910;-5.3943;
1322.1000;0.5918;-5.3943;
1322.4000;0.5942;-5.3943;
1322.7000;0.5934;-5.4021;
1323.0000;0.5934;-5.4073;
1323.3000;0.5926;-5.4099;
1323.6000;0.5950;-5.4021;
1323.9000;0.5942;-5.4073;
1324.2000;0.5950;-5.4073;
1324.5000;0.5942;-5.4021;
1324.8000;0.5942;-5.3969;
1325.1000;0.5926;-5.3969;
1325.4000;0.5942;-5.3995;
1325.7000;0.5926;-5.4073;
1326.0000;0.5958;-5.3943;
1326.3000;0.5991;-5.3865;
1326.6000;0.5902;-5.4125;
1326.9000;0.5926;-5.4073;
1327.2000;0.5926;-5.4099;
1327.5000;0.5934;-5.4099;
1327.8000;0.5950;-5.4047;
1328.1000;0.5942;-5.4099;
1328.4000;0.5934;-5.4073;
1328.7000;0.5910;-5.4073;
1329.0000;0.5950;-5.3995;
1329.3000;0.5950;-5.3969;
1329.6000;0.5934;-5.3969;
1329.9000;0.5942;-5.4047;
1330.2000;0.5934;-5.3969;
1330.5000;0.5926;-5.4047;
1330.8000;0.5967;-5.3969;
1331.1000;0.5942;-5.4021;
1331.4000;0.5918;-5.4125;
1331.7000;0.5934;-5.4125;
1332.0000;0.5918;-5.4151;
1332.3000;0.5926;-5.4047;
1332.6000;0.5942;-5.4073;
1332.9000;0.5926;-5.4125;
1333.2000;0.5918;-5.4177;
1333.5000;0.5918;-5.4203;
1333.8000;0.5910;-5.4254;
1334.1000;0.5926;-5.4151;
1334.4000;0.5926;-5.4151;
1334.7000;0.5934;-5.4099;
1335.0000;0.5934;-5.4073;
1335.3000;0.5893;-5.4306;
1335.6000;0.5934;-5.4254;
1335.9000;0.5926;-5.4280;
1336.2000;0.5934;-5.4228;
1336.5000;0.5910;-5.4306;
1336.8000;0.5942;-5.4177;
1337.1000;0.5918;-5.4099;
1337.4000;0.5910;-5.4073;
1337.7000;0.5918;-5.4021;
1338.0000;0.5958;-5.3943;
1338.3000;0.5926;-5.4021;
1338.6000;0.5918;-5.4021;
1338.9000;0.5934;-5.4021;
1339.2000;0.5926;-5.3969;
1339.5000;0.5926;-5.3891;
1339.8000;0.5975;-5.3788;
1340.1000;0.5934;-5.3969;
1340.4000;0.5942;-5.3969;
1340.7000;0.5934;-5.4047;
1341.0000;0.5918;-5.4073;
1341.3000;0.5934;-5.4021;
1341.6000;0.5902;-5.4073;
1341.9000;0.5918;-5.4099;
1342.2000;0.5918;-5.4151;
1342.5000;0.5918;-5.4047;
1342.8000;0.5942;-5.3969;
1343.1000;0.5942;-5.3917;
1343.4000;0.5934;-5.3969;
1343.7000;0.5918;-5.3995;
1344.0000;0.5934;-5.4021;
1344.3000;0.5934;-5.3943;
1344.6000;0.5934;-5.3969;
1344.9000;0.5926;-5.3943;
1345.2000;0.5910;-5.3995;
1345.5000;0.5926;-5.3969;
1345.8000;0.5910;-5.4099;
1346.1000;0.5918;-5.4099;
1346.4000;0.5902;-5.4151;
1346.7000;0.5926;-5.4151;
1347.0000;0.5926;-5.4203;
1347.3000;0.5926;-5.4203;
1347.6000;0.5902;-5.4177;
1347.9000;0.5934;-5.4047;
1348.2000;0.5934;-5.3995;
1348.5000;0.5910;-5.3995;
1348.8000;0.5918;-5.4125;
1349.1000;0.5926;-5.4125;
1349.4000;0.5934;-5.4125;
1349.7000;0.5918;-5.4203;
1350.0000;0.5918;-5.4203;
1350.3000;0.5918;-5.4151;
1350.6000;0.5934;-5.4177;
1350.9000;0.5934;-5.4203;
1351.2000;0.5934;-5.4125;
1351.5000;0.5926;-5.4099;
1351.8000;0.5942;-5.4021;
1352.1000;0.5885;-5.4228;
1352.4000;0.5934;-5.3995;
1352.7000;0.5942;-5.3943;
1353.0000;0.5942;-5.3969;
1353.3000;0.5926;-5.3969;
1353.6000;0.5926;-5.3917;
1353.9000;0.5918;-5.3891;
1354.2000;0.5926;-5.3891;
1354.5000;0.5918;-5.3917;
1354.8000;0.5918;-5.4099;
1355.1000;0.5918;-5.4099;
1355.4000;0.5918;-5.4099;
1355.7000;0.5991;-5.3917;
1356.0000;0.5918;-5.4099;
1356.3000;0.5918;-5.4099;
1356.6000;0.5885;-5.4306;
1356.9000;0.5926;-5.4203;
1357.2000;0.5910;-5.4280;
1357.5000;0.5926;-5.4306;
1357.8000;0.5926;-5.4358;
1358.1000;0.5934;-5.4280;
1358.4000;0.5893;-5.4306;
1358.7000;0.5902;-5.4306;
1359.0000;0.5950;-5.4177;
1359.3000;0.5942;-5.4228;
1359.6000;0.5926;-5.4203;
1359.9000;0.5942;-5.4125;
1360.2000;0.5910;-5.4177;
1360.5000;0.5950;-5.4073;
1360.8000;0.5942;-5.4099;
1361.1000;0.5926;-5.4151;
1361.4000;0.5918;-5.4125;
1361.7000;0.5926;-5.4151;
1362.0000;0.5926;-5.4073;
1362.3000;0.5926;-5.4047;
1362.6000;0.5918;-5.4073;
1362.9000;0.5950;-5.3943;
1363.2000;0.5942;-5.3917;
1363.5000;0.5967;-5.3814;
1363.8000;0.5934;-5.3917;
1364.1000;0.5926;-5.4021;
1364.4000;0.5934;-5.4073;
1364.7000;0.5926;-5.4073;
1365.0000;0.5950;-5.3995;
1365.3000;0.5918;-5.4099;
1365.6000;0.5918;-5.4125;
1365.9000;0.5934;-5.4177;
1366.2000;0.5926;-5.4177;
1366.5000;0.5910;-5.4151;
1366.8000;0.5910;-5.4254;
1367.1000;0.5918;-5.4306;
1367.4000;0.5869;-5.4384;
1367.7000;0.5926;-5.4306;
1368.0000;0.5902;-5.4177;
1368.3000;0.5910;-5.4203;
1368.6000;0.5918;-5.4151;
1368.9000;0.5918;-5.4151;
1369.2000;0.5918;-5.4151;
1369.5000;0.5918;-5.4177;
1369.8000;0.5942;-5.4125;
1370.1000;0.5918;-5.4203;
1370.4000;0.5934;-5.4125;
1370.7000;0.5918;-5.4228;
1371.0000;0.5934;-5.4151;
1371.3000;0.5934;-5.4047;
1371.6000;0.5926;-5.4047;
1371.9000;0.5926;-5.4099;
1372.2000;0.5926;-5.4099;
1372.5000;0.5910;-5.4228;
1372.8000;0.5893;-5.4254;
1373.1000;0.5893;-5.4203;
1373.4000;0.5926;-5.4047;
1373.7000;0.5934;-5.4021;
1374.0000;0.5926;-5.4047;
1374.3000;0.5926;-5.4047;
1374.6000;0.5902;-5.4151;
1374.9000;0.5893;-5.4177;
1375.2000;0.5902;-5.4125;
1375.5000;0.5918;-5.4073;
1375.8000;0.5918;-5.4151;
1376.1000;0.5942;-5.4125;
1376.4000;0.5926;-5.4177;
1376.7000;0.5934;-5.4151;
1377.0000;0.5950;-5.4099;
1377.3000;0.5926;-5.4177;
1377.6000;0.5893;-5.4254;
1377.9000;0.5926;-5.4177;
1378.2000;0.5918;-5.4073;
1378.5000;0.5926;-5.3943;
1378.8000;0.5910;-5.3969;
1379.1000;0.5918;-5.3865;
1379.4000;0.5902;-5.3917;
1379.7000;0.5950;-5.3839;
1380.0000;0.5910;-5.3917;
1380.3000;0.5902;-5.3969;
1380.6000;0.5910;-5.3969;
1380.9000;0.5910;-5.3943;
1381.2000;0.5958;-5.3891;
1381.5000;0.5926;-5.4021;
1381.8000;0.5934;-5.4021;
1382.1000;0.5910;-5.4021;
1382.4000;0.5926;-5.4021;
1382.7000;0.5918;-5.4073;
1383.0000;0.5918;-5.4203;
1383.3000;0.5910;-5.4203;
1383.6000;0.5918;-5.4203;
1383.9000;0.5918;-5.4151;
1384.2000;0.5918;-5.4228;
1384.5000;0.5934;-5.4203;
1384.8000;0.5934;-5.4280;
1385.1000;0.5934;-5.4177;
1385.4000;0.5934;-5.4203;
1385.7000;0.5934;-5.4099;
1386.0000;0.5934;-5.4073;
1386.3000;0.5942;-5.4177;
1386.6000;0.5926;-5.4125;
1386.9000;0.5926;-5.4125;
1387.2000;0.5910;-5.4099;
1387.5000;0.5910;-5.4151;
1387.8000;0.5918;-5.4151;
1388.1000;0.5918;-5.4177;
1388.4000;0.5877;-5.4306;
1388.7000;0.5926;-5.4203;
1389.0000;0.5975;-5.3995;
1389.3000;0.5942;-5.4073;
1389.6000;0.5918;-5.4073;
1389.9000;0.5893;-5.4228;
1390.2000;0.5918;-5.4203;
1390.5000;0.5918;-5.4203;
1390.8000;0.5926;-5.4099;
1391.1000;0.5918;-5.4047;
1391.4000;0.5926;-5.4073;
1391.7000;0.5910;-5.4177;
1392.0000;0.5926;-5.4151;
1392.3000;0.5885;-5.4151;
1392.6000;0.5918;-5.3969;
1392.9000;0.5926;-5.3917;
1393.2000;0.5934;-5.3943;
1393.5000;0.5910;-5.3969;
1393.8000;0.5934;-5.4021;
1394.1000;0.5934;-5.3995;
1394.4000;0.5902;-5.4073;
1394.7000;0.5934;-5.3969;
1395.0000;0.5934;-5.4047;
1395.3000;0.5942;-5.3995;
1395.6000;0.5934;-5.3995;
1395.9000;0.5934;-5.4021;
1396.2000;0.5934;-5.4047;
1396.5000;0.5934;-5.3891;
1396.8000;0.5942;-5.3865;
1397.1000;0.5918;-5.3917;
1397.4000;0.5926;-5.3917;
1397.7000;0.5926;-5.3943;
1398.0000;0.5910;-5.3995;
1398.3000;0.6007;-5.3762;
1398.6000;0.5926;-5.4073;
1398.9000;0.5910;-5.4099;
1399.2000;0.5934;-5.4151;
1399.5000;0.5910;-5.4177;
1399.8000;0.5918;-5.4099;
