time/ms;Fluo/V;P700 deltaI/I x10³;
-199.8000;0.8368;-5.3658;
-199.5000;0.8384;-5.3684;
-199.2000;0.8360;-5.3710;
-198.9000;0.8360;-5.3658;
-198.6000;0.8352;-5.3606;
-198.3000;0.8327;-5.3658;
-198.0000;0.8360;-5.3606;
-197.7000;0.8352;-5.3684;
-197.4000;0.8360;-5.3736;
-197.1000;0.8352;-5.3788;
-196.8000;0.8368;-5.3762;
-196.5000;0.8360;-5.3814;
-196.2000;0.8335;-5.3839;
-195.9000;0.8344;-5.3891;
-195.6000;0.8384;-5.3814;
-195.3000;0.8360;-5.3839;
-195.0000;0.8352;-5.3917;
-194.7000;0.8368;-5.3839;
-194.4000;0.8360;-5.3814;
-194.1000;0.8368;-5.3788;
-193.8000;0.8368;-5.3788;
-193.5000;0.8352;-5.3839;
-193.2000;0.8360;-5.3891;
-192.9000;0.8368;-5.3891;
-192.6000;0.8360;-5.3891;
-192.3000;0.8352;-5.3865;
-192.0000;0.8335;-5.3917;
-191.7000;0.8344;-5.3839;
-191.4000;0.8368;-5.3839;
-191.1000;0.8360;-5.3814;
-190.8000;0.8360;-5.3814;
-190.5000;0.8352;-5.3788;
-190.2000;0.8376;-5.3736;
-189.9000;0.8368;-5.3788;
-189.6000;0.8376;-5.3736;
-189.3000;0.8376;-5.3658;
-189.0000;0.8417;-5.3606;
-188.7000;0.8360;-5.3736;
-188.4000;0.8344;-5.3814;
-188.1000;0.8344;-5.3788;
-187.8000;0.8344;-5.3865;
-187.5000;0.8319;-5.3943;
-187.2000;0.8344;-5.3943;
-186.9000;0.8344;-5.3839;
-186.6000;0.8352;-5.3788;
-186.3000;0.8360;-5.3684;
-186.0000;0.8360;-5.3606;
-185.7000;0.8376;-5.3658;
-185.4000;0.8360;-5.3658;
-185.1000;0.8376;-5.3710;
-184.8000;0.8376;-5.3606;
-184.5000;0.8376;-5.3632;
-184.2000;0.8368;-5.3632;
-183.9000;0.8360;-5.3580;
-183.6000;0.8360;-5.3502;
-183.3000;0.8352;-5.3450;
-183.0000;0.8352;-5.3502;
-182.7000;0.8360;-5.3476;
-182.4000;0.8368;-5.3450;
-182.1000;0.8352;-5.3528;
-181.8000;0.8352;-5.3580;
-181.5000;0.8352;-5.3632;
-181.2000;0.8352;-5.3606;
-180.9000;0.8368;-5.3580;
-180.6000;0.8352;-5.3658;
-180.3000;0.8352;-5.3684;
-180.0000;0.8352;-5.3684;
-179.7000;0.8368;-5.3580;
-179.4000;0.8360;-5.3606;
-179.1000;0.8360;-5.3684;
-178.8000;0.8376;-5.3606;
-178.5000;0.8368;-5.3658;
-178.2000;0.8368;-5.3736;
-177.9000;0.8368;-5.3762;
-177.6000;0.8376;-5.3684;
-177.3000;0.8360;-5.3710;
-177.0000;0.8360;-5.3736;
-176.7000;0.8344;-5.3762;
-176.4000;0.8368;-5.3684;
-176.1000;0.8360;-5.3684;
-175.8000;0.8344;-5.3710;
-175.5000;0.8360;-5.3658;
-175.2000;0.8360;-5.3554;
-174.9000;0.8384;-5.3554;
-174.6000;0.8376;-5.3554;
-174.3000;0.8368;-5.3476;
-174.0000;0.8368;-5.3528;
-173.7000;0.8376;-5.3554;
-173.4000;0.8368;-5.3632;
-173.1000;0.8360;-5.3684;
-172.8000;0.8360;-5.3710;
-172.5000;0.8352;-5.3710;
-172.2000;0.8368;-5.3658;
-171.9000;0.8360;-5.3684;
-171.6000;0.8352;-5.3632;
-171.3000;0.8368;-5.3606;
-171.0000;0.8368;-5.3606;
-170.7000;0.8376;-5.3632;
-170.4000;0.8352;-5.3684;
-170.1000;0.8352;-5.3658;
-169.8000;0.8360;-5.3632;
-169.5000;0.8384;-5.3684;
-169.2000;0.8368;-5.3684;
-168.9000;0.8384;-5.3658;
-168.6000;0.8368;-5.3632;
-168.3000;0.8360;-5.3606;
-168.0000;0.8352;-5.3632;
-167.7000;0.8360;-5.3762;
-167.4000;0.8360;-5.3788;
-167.1000;0.8360;-5.3814;
-166.8000;0.8352;-5.3865;
-166.5000;0.8335;-5.3891;
-166.2000;0.8352;-5.3891;
-165.9000;0.8368;-5.3891;
-165.6000;0.8360;-5.3839;
-165.3000;0.8352;-5.3762;
-165.0000;0.8368;-5.3839;
-164.7000;0.8376;-5.3736;
-164.4000;0.8327;-5.3814;
-164.1000;0.8368;-5.3839;
-163.8000;0.8360;-5.3865;
-163.5000;0.8368;-5.3891;
-163.2000;0.8360;-5.3865;
-162.9000;0.8368;-5.3839;
-162.6000;0.8360;-5.3839;
-162.3000;0.8368;-5.3865;
-162.0000;0.8360;-5.3943;
-161.7000;0.8360;-5.3865;
-161.4000;0.8352;-5.3865;
-161.1000;0.8360;-5.3865;
-160.8000;0.8360;-5.3917;
-160.5000;0.8360;-5.3891;
-160.2000;0.8368;-5.3839;
-159.9000;0.8352;-5.3814;
-159.6000;0.8368;-5.3839;
-159.3000;0.8384;-5.3788;
-159.0000;0.8360;-5.3839;
-158.7000;0.8352;-5.3788;
-158.4000;0.8376;-5.3762;
-158.1000;0.8368;-5.3814;
-157.8000;0.8352;-5.3891;
-157.5000;0.8352;-5.3891;
-157.2000;0.8360;-5.3917;
-156.9000;0.8360;-5.3788;
-156.6000;0.8360;-5.3762;
-156.3000;0.8352;-5.3814;
-156.0000;0.8352;-5.3788;
-155.7000;0.8352;-5.3788;
-155.4000;0.8360;-5.3839;
-155.1000;0.8368;-5.3865;
-154.8000;0.8360;-5.3839;
-154.5000;0.8368;-5.3814;
-154.2000;0.8376;-5.3762;
-153.9000;0.8360;-5.3839;
-153.6000;0.8352;-5.3762;
-153.3000;0.8368;-5.3762;
-153.0000;0.8360;-5.3762;
-152.7000;0.8360;-5.3839;
-152.4000;0.8352;-5.3891;
-152.1000;0.8360;-5.3891;
-151.8000;0.8360;-5.3839;
-151.5000;0.8352;-5.3917;
-151.2000;0.8352;-5.3891;
-150.9000;0.8352;-5.3917;
-150.6000;0.8352;-5.3891;
-150.3000;0.8352;-5.3839;
-150.0000;0.8352;-5.3865;
-149.7000;0.8352;-5.3865;
-149.4000;0.8360;-5.3814;
-149.1000;0.8376;-5.3814;
-148.8000;0.8360;-5.3736;
-148.5000;0.8376;-5.3814;
-148.2000;0.8368;-5.3865;
-147.9000;0.8384;-5.3839;
-147.6000;0.8376;-5.3943;
-147.3000;0.8368;-5.3943;
-147.0000;0.8368;-5.3839;
-146.7000;0.8287;-5.4047;
-146.4000;0.8368;-5.3969;
-146.1000;0.8360;-5.3995;
-145.8000;0.8360;-5.3917;
-145.5000;0.8360;-5.3839;
-145.2000;0.8376;-5.3865;
-144.9000;0.8360;-5.3865;
-144.6000;0.8360;-5.3891;
-144.3000;0.8352;-5.3814;
-144.0000;0.8368;-5.3839;
-143.7000;0.8360;-5.3969;
-143.4000;0.8368;-5.3943;
-143.1000;0.8368;-5.3917;
-142.8000;0.8368;-5.3995;
-142.5000;0.8368;-5.3943;
-142.2000;0.8368;-5.3891;
-141.9000;0.8360;-5.3814;
-141.6000;0.8368;-5.3762;
-141.3000;0.8409;-5.3632;
-141.0000;0.8344;-5.3762;
-140.7000;0.8352;-5.3658;
-140.4000;0.8344;-5.3658;
-140.1000;0.8360;-5.3632;
-139.8000;0.8360;-5.3684;
-139.5000;0.8360;-5.3762;
-139.2000;0.8360;-5.3736;
-138.9000;0.8311;-5.3865;
-138.6000;0.8360;-5.3814;
-138.3000;0.8352;-5.3839;
-138.0000;0.8360;-5.3788;
-137.7000;0.8376;-5.3658;
-137.4000;0.8368;-5.3684;
-137.1000;0.8344;-5.3684;
-136.8000;0.8360;-5.3580;
-136.5000;0.8360;-5.3580;
-136.2000;0.8352;-5.3658;
-135.9000;0.8368;-5.3658;
-135.6000;0.8352;-5.3762;
-135.3000;0.8303;-5.3943;
-135.0000;0.8360;-5.3839;
-134.7000;0.8352;-5.3839;
-134.4000;0.8384;-5.3891;
-134.1000;0.8384;-5.3865;
-133.8000;0.8360;-5.3865;
-133.5000;0.8352;-5.3969;
-133.2000;0.8400;-5.3814;
-132.9000;0.8409;-5.3710;
-132.6000;0.8368;-5.3839;
-132.3000;0.8368;-5.3788;
-132.0000;0.8368;-5.3762;
-131.7000;0.8262;-5.4047;
-131.4000;0.8352;-5.3788;
-131.1000;0.8360;-5.3788;
-130.8000;0.8368;-5.3684;
-130.5000;0.8384;-5.3606;
-130.2000;0.8368;-5.3632;
-129.9000;0.8360;-5.3632;
-129.6000;0.8360;-5.3632;
-129.3000;0.8344;-5.3658;
-129.0000;0.8368;-5.3658;
-128.7000;0.8368;-5.3658;
-128.4000;0.8344;-5.3710;
-128.1000;0.8425;-5.3502;
-127.8000;0.8360;-5.3632;
-127.5000;0.8368;-5.3762;
-127.2000;0.8368;-5.3736;
-126.9000;0.8352;-5.3788;
-126.6000;0.8327;-5.3788;
-126.3000;0.8352;-5.3710;
-126.0000;0.8441;-5.3450;
-125.7000;0.8360;-5.3736;
-125.4000;0.8352;-5.3736;
-125.1000;0.8270;-5.3969;
-124.8000;0.8352;-5.3736;
-124.5000;0.8344;-5.3684;
-124.2000;0.8417;-5.3580;
-123.9000;0.8384;-5.3710;
-123.6000;0.8352;-5.3710;
-123.3000;0.8360;-5.3710;
-123.0000;0.8344;-5.3762;
-122.7000;0.8376;-5.3736;
-122.4000;0.8392;-5.3632;
-122.1000;0.8417;-5.3606;
-121.8000;0.8376;-5.3658;
-121.5000;0.8360;-5.3762;
-121.2000;0.8368;-5.3762;
-120.9000;0.8376;-5.3684;
-120.6000;0.8360;-5.3684;
-120.3000;0.8352;-5.3710;
-120.0000;0.8376;-5.3684;
-119.7000;0.8368;-5.3710;
-119.4000;0.8335;-5.3736;
-119.1000;0.8409;-5.3606;
-118.8000;0.8376;-5.3684;
-118.5000;0.8376;-5.3658;
-118.2000;0.8319;-5.3788;
-117.9000;0.8352;-5.3736;
-117.6000;0.8376;-5.3632;
-117.3000;0.8384;-5.3554;
-117.0000;0.8368;-5.3632;
-116.7000;0.8368;-5.3684;
-116.4000;0.8360;-5.3606;
-116.1000;0.8384;-5.3554;
-115.8000;0.8376;-5.3554;
-115.5000;0.8368;-5.3580;
-115.2000;0.8352;-5.3684;
-114.9000;0.8344;-5.3710;
-114.6000;0.8360;-5.3632;
-114.3000;0.8352;-5.3684;
-114.0000;0.8360;-5.3736;
-113.7000;0.8376;-5.3658;
-113.4000;0.8368;-5.3762;
-113.1000;0.8384;-5.3788;
-112.8000;0.8344;-5.3891;
-112.5000;0.8376;-5.3762;
-112.2000;0.8376;-5.3710;
-111.9000;0.8352;-5.3606;
-111.6000;0.8384;-5.3502;
-111.3000;0.8352;-5.3528;
-111.0000;0.8344;-5.3632;
-110.7000;0.8360;-5.3606;
-110.4000;0.8376;-5.3606;
-110.1000;0.8352;-5.3658;
-109.8000;0.8287;-5.3736;
-109.5000;0.8376;-5.3502;
-109.2000;0.8344;-5.3502;
-108.9000;0.8352;-5.3502;
-108.6000;0.8376;-5.3425;
-108.3000;0.8352;-5.3554;
-108.0000;0.8360;-5.3606;
-107.7000;0.8392;-5.3554;
-107.4000;0.8368;-5.3580;
-107.1000;0.8360;-5.3606;
-106.8000;0.8360;-5.3658;
-106.5000;0.8368;-5.3684;
-106.2000;0.8360;-5.3710;
-105.9000;0.8360;-5.3710;
-105.6000;0.8376;-5.3658;
-105.3000;0.8376;-5.3658;
-105.0000;0.8352;-5.3606;
-104.7000;0.8360;-5.3606;
-104.4000;0.8352;-5.3658;
-104.1000;0.8352;-5.3710;
-103.8000;0.8352;-5.3762;
-103.5000;0.8368;-5.3710;
-103.2000;0.8368;-5.3788;
-102.9000;0.8400;-5.3710;
-102.6000;0.8392;-5.3762;
-102.3000;0.8360;-5.3865;
-102.0000;0.8376;-5.3788;
-101.7000;0.8368;-5.3814;
-101.4000;0.8360;-5.3891;
-101.1000;0.8360;-5.3943;
-100.8000;0.8441;-5.3736;
-100.5000;0.8376;-5.4021;
-100.2000;0.8344;-5.4021;
-99.9000;0.8360;-5.3891;
-99.6000;0.8352;-5.3891;
-99.3000;0.8352;-5.3865;
-99.0000;0.8327;-5.3865;
-98.7000;0.8360;-5.3710;
-98.4000;0.8360;-5.3788;
-98.1000;0.8352;-5.3632;
-97.8000;0.8311;-5.3736;
-97.5000;0.8360;-5.3684;
-97.2000;0.8344;-5.3684;
-96.9000;0.8360;-5.3684;
-96.6000;0.8360;-5.3762;
-96.3000;0.8384;-5.3632;
-96.0000;0.8303;-5.3736;
-95.7000;0.8368;-5.3554;
-95.4000;0.8360;-5.3658;
-95.1000;0.8360;-5.3658;
-94.8000;0.8344;-5.3632;
-94.5000;0.8360;-5.3658;
-94.2000;0.8360;-5.3684;
-93.9000;0.8352;-5.3736;
-93.6000;0.8344;-5.3814;
-93.3000;0.8278;-5.3943;
-93.0000;0.8433;-5.3580;
-92.7000;0.8344;-5.3762;
-92.4000;0.8352;-5.3736;
-92.1000;0.8352;-5.3788;
-91.8000;0.8384;-5.3710;
-91.5000;0.8368;-5.3839;
-91.2000;0.8376;-5.3839;
-90.9000;0.8384;-5.3839;
-90.6000;0.8360;-5.3943;
-90.3000;0.8368;-5.3865;
-90.0000;0.8352;-5.3839;
-89.7000;0.8335;-5.3839;
-89.4000;0.8311;-5.3969;
-89.1000;0.8368;-5.3917;
-88.8000;0.8335;-5.3943;
-88.5000;0.8360;-5.3839;
-88.2000;0.8344;-5.3788;
-87.9000;0.8368;-5.3658;
-87.6000;0.8360;-5.3710;
-87.3000;0.8352;-5.3684;
-87.0000;0.8368;-5.3632;
-86.7000;0.8352;-5.3710;
-86.4000;0.8368;-5.3658;
-86.1000;0.8376;-5.3710;
-85.8000;0.8360;-5.3762;
-85.5000;0.8376;-5.3658;
-85.2000;0.8368;-5.3710;
-84.9000;0.8360;-5.3710;
-84.6000;0.8344;-5.3684;
-84.3000;0.8360;-5.3736;
-84.0000;0.8352;-5.3788;
-83.7000;0.8352;-5.3736;
-83.4000;0.8352;-5.3710;
-83.1000;0.8344;-5.3684;
-82.8000;0.8368;-5.3684;
-82.5000;0.8360;-5.3788;
-82.2000;0.8344;-5.3710;
-81.9000;0.8376;-5.3606;
-81.6000;0.8376;-5.3658;
-81.3000;0.8368;-5.3632;
-81.0000;0.8352;-5.3736;
-80.7000;0.8295;-5.3917;
-80.4000;0.8352;-5.3788;
-80.1000;0.8352;-5.3736;
-79.8000;0.8360;-5.3658;
-79.5000;0.8352;-5.3710;
-79.2000;0.8352;-5.3762;
-78.9000;0.8335;-5.3788;
-78.6000;0.8352;-5.3788;
-78.3000;0.8344;-5.3762;
-78.0000;0.8344;-5.3710;
-77.7000;0.8303;-5.3788;
-77.4000;0.8360;-5.3606;
-77.1000;0.8352;-5.3658;
-76.8000;0.8360;-5.3684;
-76.5000;0.8352;-5.3736;
-76.2000;0.8368;-5.3814;
-75.9000;0.8344;-5.3865;
-75.6000;0.8344;-5.3865;
-75.3000;0.8400;-5.3762;
-75.0000;0.8360;-5.3814;
-74.7000;0.8368;-5.3865;
-74.4000;0.8352;-5.3917;
-74.1000;0.8360;-5.3788;
-73.8000;0.8360;-5.3762;
-73.5000;0.8311;-5.3943;
-73.2000;0.8344;-5.3969;
-72.9000;0.8368;-5.3814;
-72.6000;0.8368;-5.3762;
-72.3000;0.8376;-5.3684;
-72.0000;0.8384;-5.3632;
-71.7000;0.8360;-5.3684;
-71.4000;0.8425;-5.3450;
-71.1000;0.8360;-5.3684;
-70.8000;0.8360;-5.3762;
-70.5000;0.8352;-5.3865;
-70.2000;0.8360;-5.3995;
-69.9000;0.8376;-5.3969;
-69.6000;0.8368;-5.3891;
-69.3000;0.8392;-5.3865;
-69.0000;0.8441;-5.3684;
-68.7000;0.8360;-5.3943;
-68.4000;0.8384;-5.3917;
-68.1000;0.8368;-5.3891;
-67.8000;0.8344;-5.3839;
-67.5000;0.8368;-5.3736;
-67.2000;0.8368;-5.3788;
-66.9000;0.8352;-5.3839;
-66.6000;0.8376;-5.3710;
-66.3000;0.8360;-5.3736;
-66.0000;0.8303;-5.3814;
-65.7000;0.8360;-5.3710;
-65.4000;0.8344;-5.3736;
-65.1000;0.8360;-5.3684;
-64.8000;0.8409;-5.3580;
-64.5000;0.8295;-5.3788;
-64.2000;0.8319;-5.3658;
-63.9000;0.8311;-5.3658;
-63.6000;0.8335;-5.3606;
-63.3000;0.8335;-5.3528;
-63.0000;0.8360;-5.3476;
-62.7000;0.8417;-5.3450;
-62.4000;0.8368;-5.3606;
-62.1000;0.8376;-5.3580;
-61.8000;0.8352;-5.3554;
-61.5000;0.8344;-5.3684;
-61.2000;0.8376;-5.3736;
-60.9000;0.8360;-5.3736;
-60.6000;0.8376;-5.3762;
-60.3000;0.8376;-5.3710;
-60.0000;0.8376;-5.3684;
-59.7000;0.8368;-5.3658;
-59.4000;0.8368;-5.3528;
-59.1000;0.8360;-5.3580;
-58.8000;0.8360;-5.3632;
-58.5000;0.8360;-5.3710;
-58.2000;0.8352;-5.3788;
-57.9000;0.8352;-5.3814;
-57.6000;0.8352;-5.3788;
-57.3000;0.8360;-5.3658;
-57.0000;0.8392;-5.3580;
-56.7000;0.8384;-5.3528;
-56.4000;0.8368;-5.3580;
-56.1000;0.8368;-5.3528;
-55.8000;0.8360;-5.3606;
-55.5000;0.8376;-5.3606;
-55.2000;0.8352;-5.3632;
-54.9000;0.8360;-5.3684;
-54.6000;0.8376;-5.3632;
-54.3000;0.8376;-5.3762;
-54.0000;0.8335;-5.3814;
-53.7000;0.8360;-5.3814;
-53.4000;0.8368;-5.3736;
-53.1000;0.8376;-5.3710;
-52.8000;0.8376;-5.3606;
-52.5000;0.8352;-5.3632;
-52.2000;0.8360;-5.3736;
-51.9000;0.8344;-5.3891;
-51.6000;0.8344;-5.3865;
-51.3000;0.8360;-5.3839;
-51.0000;0.8368;-5.3788;
-50.7000;0.8384;-5.3736;
-50.4000;0.8376;-5.3658;
-50.1000;0.8360;-5.3710;
-49.8000;0.8335;-5.3658;
-49.5000;0.8344;-5.3684;
-49.2000;0.8287;-5.3865;
-48.9000;0.8360;-5.3736;
-48.6000;0.8392;-5.3554;
-48.3000;0.8384;-5.3684;
-48.0000;0.8360;-5.3710;
-47.7000;0.8360;-5.3658;
-47.4000;0.8344;-5.3684;
-47.1000;0.8360;-5.3606;
-46.8000;0.8344;-5.3684;
-46.5000;0.8344;-5.3684;
-46.2000;0.8352;-5.3684;
-45.9000;0.8335;-5.3684;
-45.6000;0.8344;-5.3814;
-45.3000;0.8368;-5.3736;
-45.0000;0.8319;-5.3814;
-44.7000;0.8352;-5.3839;
-44.4000;0.8360;-5.3891;
-44.1000;0.8368;-5.3814;
-43.8000;0.8368;-5.3891;
-43.5000;0.8352;-5.3865;
-43.2000;0.8384;-5.3762;
-42.9000;0.8368;-5.3684;
-42.6000;0.8360;-5.3658;
-42.3000;0.8352;-5.3658;
-42.0000;0.8368;-5.3606;
-41.7000;0.8352;-5.3606;
-41.4000;0.8344;-5.3710;
-41.1000;0.8352;-5.3710;
-40.8000;0.8360;-5.3632;
-40.5000;0.8360;-5.3632;
-40.2000;0.8368;-5.3606;
-39.9000;0.8360;-5.3658;
-39.6000;0.8360;-5.3528;
-39.3000;0.8360;-5.3528;
-39.0000;0.8368;-5.3502;
-38.7000;0.8344;-5.3528;
-38.4000;0.8360;-5.3606;
-38.1000;0.8352;-5.3632;
-37.8000;0.8376;-5.3606;
-37.5000;0.8360;-5.3606;
-37.2000;0.8368;-5.3580;
-36.9000;0.8368;-5.3580;
-36.6000;0.8352;-5.3632;
-36.3000;0.8352;-5.3606;
-36.0000;0.8344;-5.3554;
-35.7000;0.8392;-5.3425;
-35.4000;0.8360;-5.3580;
-35.1000;0.8360;-5.3658;
-34.8000;0.8360;-5.3736;
-34.5000;0.8368;-5.3762;
-34.2000;0.8376;-5.3684;
-33.9000;0.8360;-5.3788;
-33.6000;0.8376;-5.3814;
-33.3000;0.8360;-5.3762;
-33.0000;0.8360;-5.3710;
-32.7000;0.8368;-5.3684;
-32.4000;0.8368;-5.3736;
-32.1000;0.8368;-5.3710;
-31.8000;0.8360;-5.3762;
-31.5000;0.8384;-5.3684;
-31.2000;0.8352;-5.3736;
-30.9000;0.8352;-5.3788;
-30.6000;0.8344;-5.3788;
-30.3000;0.8368;-5.3736;
-30.0000;0.8360;-5.3710;
-29.7000;0.8360;-5.3710;
-29.4000;0.8352;-5.3736;
-29.1000;0.8352;-5.3710;
-28.8000;0.8352;-5.3710;
-28.5000;0.8368;-5.3684;
-28.2000;0.8327;-5.3814;
-27.9000;0.8335;-5.3736;
-27.6000;0.8368;-5.3710;
-27.3000;0.8360;-5.3839;
-27.0000;0.8311;-5.3891;
-26.7000;0.8344;-5.3839;
-26.4000;0.8352;-5.3788;
-26.1000;0.8352;-5.3788;
-25.8000;0.8368;-5.3788;
-25.5000;0.8352;-5.3788;
-25.2000;0.8344;-5.3762;
-24.9000;0.8409;-5.3554;
-24.6000;0.8360;-5.3606;
-24.3000;0.8360;-5.3736;
-24.0000;0.8384;-5.3684;
-23.7000;0.8376;-5.3554;
-23.4000;0.8368;-5.3606;
-23.1000;0.8376;-5.3476;
-22.8000;0.8425;-5.3321;
-22.5000;0.8368;-5.3347;
-22.2000;0.8368;-5.3399;
-21.9000;0.8376;-5.3373;
-21.6000;0.8368;-5.3399;
-21.3000;0.8360;-5.3373;
-21.0000;0.8360;-5.3425;
-20.7000;0.8295;-5.3580;
-20.4000;0.8360;-5.3502;
-20.1000;0.8352;-5.3528;
-19.8000;0.8368;-5.3502;
-19.5000;0.8360;-5.3425;
-19.2000;0.8352;-5.3476;
-18.9000;0.8368;-5.3476;
-18.6000;0.8376;-5.3399;
-18.3000;0.8425;-5.3217;
-18.0000;0.8352;-5.3450;
-17.7000;0.8368;-5.3425;
-17.4000;0.8376;-5.3450;
-17.1000;0.8352;-5.3476;
-16.8000;0.8352;-5.3373;
-16.5000;0.8352;-5.3450;
-16.2000;0.8352;-5.3502;
-15.9000;0.8360;-5.3528;
-15.6000;0.8352;-5.3606;
-15.3000;0.8360;-5.3606;
-15.0000;0.8368;-5.3580;
-14.7000;0.8368;-5.3606;
-14.4000;0.8344;-5.3580;
-14.1000;0.8344;-5.3658;
-13.8000;0.8368;-5.3684;
-13.5000;0.8352;-5.3658;
-13.2000;0.8360;-5.3606;
-12.9000;0.8360;-5.3554;
-12.6000;0.8384;-5.3450;
-12.3000;0.8384;-5.3476;
-12.0000;0.8368;-5.3554;
-11.7000;0.8360;-5.3658;
-11.4000;0.8344;-5.3632;
-11.1000;0.8352;-5.3606;
-10.8000;0.8352;-5.3606;
-10.5000;0.8344;-5.3684;
-10.2000;0.8344;-5.3632;
-9.9000;0.8368;-5.3658;
-9.6000;0.8360;-5.3658;
-9.3000;0.8360;-5.3606;
-9.0000;0.8360;-5.3606;
-8.7000;0.8425;-5.3476;
-8.4000;0.8392;-5.3528;
-8.1000;0.8335;-5.3684;
-7.8000;0.8352;-5.3762;
-7.5000;0.8368;-5.3814;
-7.2000;0.8376;-5.3788;
-6.9000;0.8360;-5.3762;
-6.6000;0.8400;-5.3658;
-6.3000;0.8360;-5.3762;
-6.0000;0.8368;-5.3710;
-5.7000;0.8344;-5.3736;
-5.4000;0.8360;-5.3632;
-5.1000;0.8352;-5.3710;
-4.8000;0.8360;-5.3736;
-4.5000;0.8360;-5.3710;
-4.2000;0.8360;-5.3684;
-3.9000;0.8344;-5.3658;
-3.6000;0.8360;-5.3658;
-3.3000;0.8376;-5.3632;
-3.0000;0.8360;-5.3632;
-2.7000;0.8368;-5.3580;
-2.4000;0.8368;-5.3580;
-2.1000;0.8376;-5.3580;
-1.8000;0.8368;-5.3684;
-1.5000;0.8376;-5.3684;
-1.2000;0.8352;-5.3736;
-0.9000;0.8360;-5.3788;
-0.6000;0.8368;-5.3788;
-0.3000;0.8376;-5.3762;
0.0000;0.8376;-5.3762;
0.3000;0.8563;-5.3528;
0.6000;0.8970;-5.2828;
0.9000;0.9296;-5.2206;
1.2000;0.9548;-5.1739;
1.5000;0.9719;-5.1298;
1.8000;0.9906;-5.0883;
2.1000;1.0037;-5.0624;
2.4000;1.0118;-5.0364;
2.7000;1.0232;-4.9975;
3.0000;1.0297;-4.9820;
3.3000;1.0362;-4.9638;
3.6000;1.0403;-4.9534;
3.9000;1.0444;-4.9483;
4.2000;1.0517;-4.9275;
4.5000;1.0549;-4.9197;
4.8000;1.0582;-4.9197;
5.1000;1.0623;-4.9275;
5.4000;1.0672;-4.9223;
5.7000;1.0696;-4.9171;
6.0000;1.0720;-4.9119;
6.3000;1.0753;-4.9042;
6.6000;1.0794;-4.9042;
6.9000;1.0818;-4.9042;
7.2000;1.0851;-4.9171;
7.5000;1.0834;-4.9223;
7.8000;1.0908;-4.9119;
8.1000;1.0948;-4.9094;
8.4000;1.0948;-4.9197;
8.7000;1.0973;-4.9223;
9.0000;1.0989;-4.9171;
9.3000;1.0989;-4.9145;
9.6000;1.1046;-4.9068;
9.9000;1.1046;-4.9068;
10.2000;1.1079;-4.8964;
10.5000;1.1160;-4.8834;
10.8000;1.1136;-4.8964;
11.1000;1.1152;-4.8990;
11.4000;1.1176;-4.8990;
11.7000;1.1274;-4.8834;
12.0000;1.1217;-4.9016;
12.3000;1.1217;-4.9042;
12.6000;1.1241;-4.8990;
12.9000;1.1266;-4.9145;
13.2000;1.1282;-4.9068;
13.5000;1.1306;-4.9042;
13.8000;1.1290;-4.9042;
14.1000;1.1306;-4.8938;
14.4000;1.1315;-4.8938;
14.7000;1.1347;-4.8912;
15.0000;1.1363;-4.8990;
15.3000;1.1372;-4.8990;
15.6000;1.1380;-4.8990;
15.9000;1.1396;-4.8990;
16.2000;1.1412;-4.9016;
16.5000;1.1420;-4.9171;
16.8000;1.1420;-4.9249;
17.1000;1.1445;-4.9197;
17.4000;1.1477;-4.9068;
17.7000;1.1477;-4.9016;
18.0000;1.1486;-4.9068;
18.3000;1.1543;-4.9042;
18.6000;1.1494;-4.9145;
18.9000;1.1469;-4.9197;
19.2000;1.1510;-4.9068;
19.5000;1.1453;-4.9223;
19.8000;1.1551;-4.9042;
20.1000;1.1534;-4.9094;
20.4000;1.1559;-4.9119;
20.7000;1.1551;-4.9145;
21.0000;1.1575;-4.9119;
21.3000;1.1600;-4.9068;
21.6000;1.1583;-4.9145;
21.9000;1.1575;-4.9145;
22.2000;1.1600;-4.9119;
22.5000;1.1600;-4.9042;
22.8000;1.1616;-4.8990;
23.1000;1.1608;-4.9016;
23.4000;1.1616;-4.8990;
23.7000;1.1640;-4.9068;
24.0000;1.1656;-4.8990;
24.3000;1.1656;-4.9042;
24.6000;1.1624;-4.9094;
24.9000;1.1648;-4.9119;
25.2000;1.1632;-4.9223;
25.5000;1.1640;-4.9197;
25.8000;1.1681;-4.9068;
26.1000;1.1656;-4.9197;
26.4000;1.1697;-4.9094;
26.7000;1.1656;-4.9197;
27.0000;1.1673;-4.9171;
27.3000;1.1697;-4.9042;
27.6000;1.1697;-4.9145;
27.9000;1.1697;-4.9094;
28.2000;1.1697;-4.9016;
28.5000;1.1705;-4.9016;
28.8000;1.1705;-4.9016;
29.1000;1.1689;-4.9094;
29.4000;1.1705;-4.9094;
29.7000;1.1697;-4.9094;
30.0000;1.1738;-4.8990;
30.3000;1.1697;-4.9145;
30.6000;1.1746;-4.8938;
30.9000;1.1722;-4.9119;
31.2000;1.1722;-4.9145;
31.5000;1.1705;-4.9223;
31.8000;1.1738;-4.9223;
32.1000;1.1754;-4.9094;
32.4000;1.1722;-4.9197;
32.7000;1.1746;-4.9145;
33.0000;1.1738;-4.9197;
33.3000;1.1754;-4.9119;
33.6000;1.1754;-4.9094;
33.9000;1.1746;-4.9223;
34.2000;1.1730;-4.9301;
34.5000;1.1762;-4.9223;
34.8000;1.1754;-4.9275;
35.1000;1.1770;-4.9301;
35.4000;1.1770;-4.9301;
35.7000;1.1730;-4.9353;
36.0000;1.1713;-4.9405;
36.3000;1.1787;-4.9379;
36.6000;1.1770;-4.9353;
36.9000;1.1787;-4.9353;
37.2000;1.1787;-4.9327;
37.5000;1.1803;-4.9223;
37.8000;1.1787;-4.9249;
38.1000;1.1795;-4.9197;
38.4000;1.1779;-4.9171;
38.7000;1.1803;-4.9145;
39.0000;1.1795;-4.9119;
39.3000;1.1803;-4.9094;
39.6000;1.1795;-4.9171;
39.9000;1.1787;-4.9249;
40.2000;1.1811;-4.9094;
40.5000;1.1795;-4.9119;
40.8000;1.1795;-4.9119;
41.1000;1.1795;-4.9119;
41.4000;1.1803;-4.9119;
41.7000;1.1803;-4.9171;
42.0000;1.1770;-4.9353;
42.3000;1.1860;-4.9197;
42.6000;1.1819;-4.9301;
42.9000;1.1827;-4.9249;
43.2000;1.1803;-4.9223;
43.5000;1.1811;-4.9249;
43.8000;1.1819;-4.9249;
44.1000;1.1819;-4.9301;
44.4000;1.1730;-4.9560;
44.7000;1.1819;-4.9301;
45.0000;1.1819;-4.9301;
45.3000;1.1836;-4.9301;
45.6000;1.1770;-4.9431;
45.9000;1.1819;-4.9353;
46.2000;1.1827;-4.9249;
46.5000;1.1836;-4.9249;
46.8000;1.1819;-4.9301;
47.1000;1.1844;-4.9379;
47.4000;1.1844;-4.9405;
47.7000;1.1836;-4.9301;
48.0000;1.1893;-4.9197;
48.3000;1.1844;-4.9275;
48.6000;1.1852;-4.9249;
48.9000;1.1844;-4.9249;
49.2000;1.1852;-4.9275;
49.5000;1.1819;-4.9353;
49.8000;1.1819;-4.9405;
50.1000;1.1836;-4.9379;
50.4000;1.1844;-4.9405;
50.7000;1.1844;-4.9379;
51.0000;1.1754;-4.9534;
51.3000;1.1836;-4.9301;
51.6000;1.1844;-4.9223;
51.9000;1.1852;-4.9249;
52.2000;1.1844;-4.9327;
52.5000;1.1836;-4.9327;
52.8000;1.1844;-4.9379;
53.1000;1.1844;-4.9405;
53.4000;1.1852;-4.9405;
53.7000;1.1836;-4.9431;
54.0000;1.1844;-4.9483;
54.3000;1.1852;-4.9483;
54.6000;1.1827;-4.9483;
54.9000;1.1860;-4.9353;
55.2000;1.1868;-4.9275;
55.5000;1.1868;-4.9327;
55.8000;1.1860;-4.9405;
56.1000;1.1860;-4.9405;
56.4000;1.1836;-4.9353;
56.7000;1.1868;-4.9197;
57.0000;1.1852;-4.9223;
57.3000;1.1844;-4.9249;
57.6000;1.1844;-4.9249;
57.9000;1.1844;-4.9275;
58.2000;1.1844;-4.9327;
58.5000;1.1844;-4.9327;
58.8000;1.1819;-4.9327;
59.1000;1.1852;-4.9275;
59.4000;1.1852;-4.9275;
59.7000;1.1860;-4.9275;
60.0000;1.1860;-4.9249;
60.3000;1.1941;-4.9119;
60.6000;1.1860;-4.9197;
60.9000;1.1860;-4.9223;
61.2000;1.1860;-4.9223;
61.5000;1.1819;-4.9327;
61.8000;1.1884;-4.9223;
62.1000;1.1868;-4.9353;
62.4000;1.1852;-4.9301;
62.7000;1.1860;-4.9249;
63.0000;1.1876;-4.9197;
63.3000;1.1884;-4.9275;
63.6000;1.1836;-4.9405;
63.9000;1.1876;-4.9301;
64.2000;1.1884;-4.9301;
64.5000;1.1868;-4.9249;
64.8000;1.1893;-4.9249;
65.1000;1.1876;-4.9327;
65.4000;1.1860;-4.9327;
65.7000;1.1868;-4.9275;
66.0000;1.1844;-4.9353;
66.3000;1.1876;-4.9301;
66.6000;1.1827;-4.9379;
66.9000;1.1884;-4.9327;
67.2000;1.1852;-4.9457;
67.5000;1.1884;-4.9327;
67.8000;1.1933;-4.9275;
68.1000;1.1819;-4.9586;
68.4000;1.1868;-4.9483;
68.7000;1.1876;-4.9483;
69.0000;1.1876;-4.9457;
69.3000;1.1852;-4.9405;
69.6000;1.1884;-4.9275;
69.9000;1.1876;-4.9301;
70.2000;1.1876;-4.9327;
70.5000;1.1876;-4.9431;
70.8000;1.1884;-4.9405;
71.1000;1.1876;-4.9431;
71.4000;1.1860;-4.9405;
71.7000;1.1876;-4.9353;
72.0000;1.1884;-4.9249;
72.3000;1.1876;-4.9275;
72.6000;1.1860;-4.9327;
72.9000;1.1868;-4.9431;
73.2000;1.1868;-4.9457;
73.5000;1.1893;-4.9405;
73.8000;1.1884;-4.9457;
74.1000;1.1876;-4.9405;
74.4000;1.1876;-4.9327;
74.7000;1.1901;-4.9301;
75.0000;1.1893;-4.9275;
75.3000;1.1901;-4.9327;
75.6000;1.1884;-4.9431;
75.9000;1.1884;-4.9405;
76.2000;1.1868;-4.9405;
76.5000;1.1876;-4.9353;
76.8000;1.1884;-4.9249;
77.1000;1.1925;-4.9249;
77.4000;1.1893;-4.9327;
77.7000;1.1860;-4.9457;
78.0000;1.1876;-4.9431;
78.3000;1.1868;-4.9431;
78.6000;1.1868;-4.9483;
78.9000;1.1868;-4.9405;
79.2000;1.1868;-4.9483;
79.5000;1.1860;-4.9508;
79.8000;1.1909;-4.9405;
80.1000;1.1893;-4.9379;
80.4000;1.1925;-4.9301;
80.7000;1.1901;-4.9327;
81.0000;1.1876;-4.9379;
81.3000;1.1884;-4.9353;
81.6000;1.1876;-4.9431;
81.9000;1.1884;-4.9431;
82.2000;1.1876;-4.9483;
82.5000;1.1844;-4.9431;
82.8000;1.1884;-4.9353;
83.1000;1.1884;-4.9353;
83.4000;1.1876;-4.9457;
83.7000;1.1893;-4.9431;
84.0000;1.1901;-4.9431;
84.3000;1.1925;-4.9301;
84.6000;1.1893;-4.9431;
84.9000;1.1868;-4.9457;
85.2000;1.1901;-4.9379;
85.5000;1.1868;-4.9483;
85.8000;1.1901;-4.9353;
86.1000;1.1884;-4.9405;
86.4000;1.1901;-4.9431;
86.7000;1.1868;-4.9483;
87.0000;1.1884;-4.9534;
87.3000;1.1884;-4.9483;
87.6000;1.1884;-4.9457;
87.9000;1.1884;-4.9379;
88.2000;1.1909;-4.9197;
88.5000;1.1876;-4.9353;
88.8000;1.1884;-4.9249;
89.1000;1.1884;-4.9301;
89.4000;1.1884;-4.9197;
89.7000;1.1884;-4.9223;
90.0000;1.1909;-4.9327;
90.3000;1.1884;-4.9301;
90.6000;1.1876;-4.9249;
90.9000;1.1893;-4.9171;
91.2000;1.1884;-4.9223;
91.5000;1.1893;-4.9171;
91.8000;1.1860;-4.9275;
92.1000;1.1876;-4.9249;
92.4000;1.1884;-4.9197;
92.7000;1.1901;-4.9275;
93.0000;1.1852;-4.9379;
93.3000;1.1909;-4.9301;
93.6000;1.1884;-4.9353;
93.9000;1.1901;-4.9327;
94.2000;1.1893;-4.9327;
94.5000;1.1884;-4.9301;
94.8000;1.1893;-4.9249;
95.1000;1.1909;-4.9171;
95.4000;1.1901;-4.9068;
95.7000;1.1901;-4.8938;
96.0000;1.1901;-4.8990;
96.3000;1.1893;-4.9068;
96.6000;1.1893;-4.9094;
96.9000;1.1901;-4.9197;
97.2000;1.1901;-4.9197;
97.5000;1.1884;-4.9223;
97.8000;1.1884;-4.9327;
98.1000;1.1901;-4.9223;
98.4000;1.1909;-4.9145;
98.7000;1.1909;-4.9171;
99.0000;1.1909;-4.9249;
99.3000;1.1909;-4.9223;
99.6000;1.1909;-4.9301;
99.9000;1.1917;-4.9275;
100.2000;1.1917;-4.9379;
100.5000;1.1909;-4.9405;
100.8000;1.1901;-4.9431;
101.1000;1.1901;-4.9431;
101.4000;1.1876;-4.9508;
101.7000;1.1901;-4.9353;
102.0000;1.1901;-4.9379;
102.3000;1.1876;-4.9405;
102.6000;1.1901;-4.9353;
102.9000;1.1884;-4.9431;
103.2000;1.1884;-4.9431;
103.5000;1.1893;-4.9508;
103.8000;1.1884;-4.9508;
104.1000;1.1893;-4.9379;
104.4000;1.1917;-4.9301;
104.7000;1.1876;-4.9431;
105.0000;1.1901;-4.9379;
105.3000;1.1860;-4.9405;
105.6000;1.1876;-4.9379;
105.9000;1.1884;-4.9431;
106.2000;1.1925;-4.9379;
106.5000;1.1901;-4.9431;
106.8000;1.1893;-4.9483;
107.1000;1.1884;-4.9534;
107.4000;1.1884;-4.9586;
107.7000;1.1884;-4.9664;
108.0000;1.1893;-4.9638;
108.3000;1.1901;-4.9716;
108.6000;1.1860;-4.9690;
108.9000;1.1884;-4.9638;
109.2000;1.1933;-4.9612;
109.5000;1.1901;-4.9664;
109.8000;1.1909;-4.9638;
110.1000;1.1868;-4.9716;
110.4000;1.1893;-4.9612;
110.7000;1.1933;-4.9534;
111.0000;1.1876;-4.9612;
111.3000;1.1884;-4.9560;
111.6000;1.1893;-4.9560;
111.9000;1.1901;-4.9534;
112.2000;1.1901;-4.9586;
112.5000;1.1893;-4.9586;
112.8000;1.1884;-4.9638;
113.1000;1.1909;-4.9612;
113.4000;1.1901;-4.9586;
113.7000;1.1901;-4.9586;
114.0000;1.1884;-4.9560;
114.3000;1.1909;-4.9534;
114.6000;1.1909;-4.9560;
114.9000;1.1884;-4.9586;
115.2000;1.1893;-4.9638;
115.5000;1.1893;-4.9586;
115.8000;1.1909;-4.9534;
116.1000;1.1901;-4.9457;
116.4000;1.1893;-4.9534;
116.7000;1.1893;-4.9560;
117.0000;1.1974;-4.9431;
117.3000;1.1901;-4.9690;
117.6000;1.1884;-4.9742;
117.9000;1.1909;-4.9612;
118.2000;1.1901;-4.9664;
118.5000;1.1884;-4.9664;
118.8000;1.1868;-4.9690;
119.1000;1.1950;-4.9534;
119.4000;1.1852;-4.9612;
119.7000;1.1901;-4.9508;
120.0000;1.1966;-4.9405;
120.3000;1.1950;-4.9405;
120.6000;1.1933;-4.9483;
120.9000;1.1925;-4.9483;
121.2000;1.1909;-4.9483;
121.5000;1.1917;-4.9483;
121.8000;1.1909;-4.9560;
122.1000;1.1917;-4.9534;
122.4000;1.1925;-4.9560;
122.7000;1.1917;-4.9560;
123.0000;1.1909;-4.9483;
123.3000;1.1917;-4.9483;
123.6000;1.1917;-4.9560;
123.9000;1.1901;-4.9586;
124.2000;1.1893;-4.9534;
124.5000;1.1917;-4.9508;
124.8000;1.1909;-4.9405;
125.1000;1.1893;-4.9379;
125.4000;1.1852;-4.9508;
125.7000;1.1901;-4.9379;
126.0000;1.1909;-4.9405;
126.3000;1.1893;-4.9405;
126.6000;1.1901;-4.9353;
126.9000;1.1901;-4.9327;
127.2000;1.1901;-4.9327;
127.5000;1.1909;-4.9327;
127.8000;1.1901;-4.9405;
128.1000;1.1901;-4.9431;
128.4000;1.1876;-4.9483;
128.7000;1.1901;-4.9353;
129.0000;1.1901;-4.9327;
129.3000;1.1893;-4.9379;
129.6000;1.1950;-4.9301;
129.9000;1.1884;-4.9508;
130.2000;1.1884;-4.9508;
130.5000;1.1884;-4.9534;
130.8000;1.1884;-4.9560;
131.1000;1.1884;-4.9508;
131.4000;1.1852;-4.9560;
131.7000;1.1901;-4.9483;
132.0000;1.1909;-4.9483;
132.3000;1.1901;-4.9431;
132.6000;1.1893;-4.9457;
132.9000;1.1893;-4.9457;
133.2000;1.1893;-4.9457;
133.5000;1.1901;-4.9534;
133.8000;1.1901;-4.9483;
134.1000;1.1901;-4.9508;
134.4000;1.1909;-4.9483;
134.7000;1.1901;-4.9560;
135.0000;1.1917;-4.9508;
135.3000;1.1966;-4.9431;
135.6000;1.1893;-4.9586;
135.9000;1.1901;-4.9586;
136.2000;1.1917;-4.9534;
136.5000;1.1901;-4.9483;
136.8000;1.1933;-4.9405;
137.1000;1.1901;-4.9483;
137.4000;1.1909;-4.9483;
137.7000;1.1901;-4.9534;
138.0000;1.1893;-4.9508;
138.3000;1.1884;-4.9560;
138.6000;1.1917;-4.9379;
138.9000;1.1917;-4.9353;
139.2000;1.1893;-4.9457;
139.5000;1.1884;-4.9457;
139.8000;1.1884;-4.9405;
140.1000;1.1901;-4.9405;
140.4000;1.1893;-4.9405;
140.7000;1.1893;-4.9431;
141.0000;1.1917;-4.9431;
141.3000;1.1893;-4.9483;
141.6000;1.1893;-4.9405;
141.9000;1.1876;-4.9353;
142.2000;1.1909;-4.9119;
142.5000;1.1909;-4.9171;
142.8000;1.1901;-4.9145;
143.1000;1.1917;-4.9119;
143.4000;1.1933;-4.9094;
143.7000;1.1917;-4.9094;
144.0000;1.1925;-4.9145;
144.3000;1.1893;-4.9301;
144.6000;1.1893;-4.9353;
144.9000;1.1893;-4.9301;
145.2000;1.1901;-4.9275;
145.5000;1.1917;-4.9301;
145.8000;1.1884;-4.9379;
146.1000;1.1901;-4.9249;
146.4000;1.1901;-4.9275;
146.7000;1.1909;-4.9327;
147.0000;1.1884;-4.9379;
147.3000;1.1893;-4.9275;
147.6000;1.1909;-4.9275;
147.9000;1.1917;-4.9327;
148.2000;1.1893;-4.9327;
148.5000;1.1876;-4.9327;
148.8000;1.1941;-4.9223;
149.1000;1.1893;-4.9327;
149.4000;1.1868;-4.9379;
149.7000;1.1876;-4.9353;
150.0000;1.1901;-4.9379;
150.3000;1.1909;-4.9483;
150.6000;1.1901;-4.9508;
150.9000;1.1884;-4.9457;
151.2000;1.1884;-4.9534;
151.5000;1.1982;-4.9379;
151.8000;1.1893;-4.9560;
152.1000;1.1884;-4.9560;
152.4000;1.1868;-4.9560;
152.7000;1.1901;-4.9586;
153.0000;1.1893;-4.9560;
153.3000;1.1827;-4.9638;
153.6000;1.1893;-4.9508;
153.9000;1.1909;-4.9483;
154.2000;1.1876;-4.9586;
154.5000;1.1893;-4.9508;
154.8000;1.1884;-4.9457;
155.1000;1.1901;-4.9379;
155.4000;1.1893;-4.9353;
155.7000;1.1884;-4.9483;
156.0000;1.1901;-4.9508;
156.3000;1.1917;-4.9534;
156.6000;1.1893;-4.9560;
156.9000;1.1893;-4.9612;
157.2000;1.1901;-4.9560;
157.5000;1.1893;-4.9586;
157.8000;1.1901;-4.9534;
158.1000;1.1893;-4.9586;
158.4000;1.1909;-4.9457;
158.7000;1.1901;-4.9560;
159.0000;1.1893;-4.9612;
159.3000;1.1860;-4.9638;
159.6000;1.1909;-4.9508;
159.9000;1.1893;-4.9560;
160.2000;1.1884;-4.9638;
160.5000;1.1966;-4.9431;
160.8000;1.1893;-4.9638;
161.1000;1.1917;-4.9586;
161.4000;1.1893;-4.9690;
161.7000;1.1893;-4.9716;
162.0000;1.1893;-4.9768;
162.3000;1.1876;-4.9820;
162.6000;1.1950;-4.9638;
162.9000;1.1893;-4.9716;
163.2000;1.1901;-4.9612;
163.5000;1.1909;-4.9586;
163.8000;1.1901;-4.9612;
164.1000;1.1893;-4.9560;
164.4000;1.1901;-4.9508;
164.7000;1.1893;-4.9508;
165.0000;1.1933;-4.9431;
165.3000;1.1893;-4.9560;
165.6000;1.1893;-4.9612;
165.9000;1.1917;-4.9638;
166.2000;1.1893;-4.9638;
166.5000;1.1893;-4.9664;
166.8000;1.1893;-4.9664;
167.1000;1.1893;-4.9612;
167.4000;1.1901;-4.9664;
167.7000;1.1884;-4.9664;
168.0000;1.1893;-4.9664;
168.3000;1.1901;-4.9664;
168.6000;1.1876;-4.9690;
168.9000;1.1893;-4.9690;
169.2000;1.1909;-4.9716;
169.5000;1.1941;-4.9638;
169.8000;1.1917;-4.9716;
170.1000;1.1893;-4.9820;
170.4000;1.1901;-4.9638;
170.7000;1.1884;-4.9690;
171.0000;1.1884;-4.9768;
171.3000;1.1876;-4.9716;
171.6000;1.1884;-4.9716;
171.9000;1.1893;-4.9768;
172.2000;1.1884;-4.9768;
172.5000;1.1860;-4.9872;
172.8000;1.1884;-4.9768;
173.1000;1.1893;-4.9742;
173.4000;1.1901;-4.9716;
173.7000;1.1901;-4.9690;
174.0000;1.1893;-4.9638;
174.3000;1.1884;-4.9638;
174.6000;1.1884;-4.9716;
174.9000;1.1884;-4.9742;
175.2000;1.1868;-4.9742;
175.5000;1.1844;-4.9794;
175.8000;1.1884;-4.9768;
176.1000;1.1876;-4.9794;
176.4000;1.1893;-4.9820;
176.7000;1.1860;-4.9975;
177.0000;1.1884;-4.9872;
177.3000;1.1893;-4.9872;
177.6000;1.1893;-4.9923;
177.9000;1.1974;-4.9664;
178.2000;1.1901;-4.9872;
178.5000;1.1893;-4.9846;
178.8000;1.1893;-4.9820;
179.1000;1.1868;-4.9872;
179.4000;1.1909;-4.9846;
179.7000;1.1901;-4.9820;
180.0000;1.1901;-4.9742;
180.3000;1.1884;-4.9768;
180.6000;1.1901;-4.9664;
180.9000;1.1909;-4.9664;
181.2000;1.1909;-4.9534;
181.5000;1.1884;-4.9638;
181.8000;1.1901;-4.9560;
182.1000;1.1941;-4.9431;
182.4000;1.1933;-4.9431;
182.7000;1.1901;-4.9560;
183.0000;1.1909;-4.9560;
183.3000;1.1884;-4.9560;
183.6000;1.1917;-4.9534;
183.9000;1.1901;-4.9586;
184.2000;1.1901;-4.9664;
184.5000;1.1868;-4.9690;
184.8000;1.1917;-4.9612;
185.1000;1.1901;-4.9638;
185.4000;1.1876;-4.9742;
185.7000;1.1893;-4.9716;
186.0000;1.1893;-4.9716;
186.3000;1.1909;-4.9638;
186.6000;1.1909;-4.9664;
186.9000;1.1884;-4.9612;
187.2000;1.1884;-4.9638;
187.5000;1.1909;-4.9508;
187.8000;1.1893;-4.9483;
188.1000;1.1909;-4.9431;
188.4000;1.1909;-4.9379;
188.7000;1.1893;-4.9457;
189.0000;1.1901;-4.9457;
189.3000;1.1901;-4.9560;
189.6000;1.1901;-4.9483;
189.9000;1.1901;-4.9457;
190.2000;1.1917;-4.9483;
190.5000;1.1901;-4.9483;
190.8000;1.1893;-4.9457;
191.1000;1.1893;-4.9457;
191.4000;1.1909;-4.9560;
191.7000;1.1884;-4.9586;
192.0000;1.1884;-4.9612;
192.3000;1.1860;-4.9690;
192.6000;1.1901;-4.9560;
192.9000;1.1893;-4.9664;
193.2000;1.1884;-4.9742;
193.5000;1.1893;-4.9612;
193.8000;1.1893;-4.9664;
194.1000;1.1884;-4.9716;
194.4000;1.1893;-4.9716;
194.7000;1.1884;-4.9716;
195.0000;1.1901;-4.9690;
195.3000;1.1893;-4.9742;
195.6000;1.1901;-4.9742;
195.9000;1.1868;-4.9846;
196.2000;1.1893;-4.9820;
196.5000;1.1909;-4.9742;
196.8000;1.1901;-4.9690;
197.1000;1.1893;-4.9664;
197.4000;1.1909;-4.9612;
197.7000;1.1901;-4.9664;
198.0000;1.1876;-4.9742;
198.3000;1.1909;-4.9742;
198.6000;1.1884;-4.9794;
198.9000;1.1901;-4.9638;
199.2000;1.1893;-4.9612;
199.5000;1.1893;-4.9560;
199.8000;1.1893;-4.9638;
200.1000;1.1884;-4.9664;
200.4000;1.1893;-4.9742;
200.7000;1.1876;-4.9872;
201.0000;1.1893;-4.9742;
201.3000;1.1909;-4.9638;
201.6000;1.1901;-4.9586;
201.9000;1.1876;-4.9664;
202.2000;1.1827;-4.9768;
202.5000;1.1884;-4.9560;
202.8000;1.1909;-4.9560;
203.1000;1.1884;-4.9690;
203.4000;1.1893;-4.9768;
203.7000;1.1884;-4.9690;
204.0000;1.1860;-4.9768;
204.3000;1.1909;-4.9690;
204.6000;1.1893;-4.9664;
204.9000;1.1852;-4.9716;
205.2000;1.1901;-4.9716;
205.5000;1.1901;-4.9612;
205.8000;1.1884;-4.9690;
206.1000;1.1893;-4.9742;
206.4000;1.1884;-4.9742;
206.7000;1.1876;-4.9742;
207.0000;1.1884;-4.9690;
207.3000;1.1876;-4.9742;
207.6000;1.1893;-4.9742;
207.9000;1.1901;-4.9690;
208.2000;1.1950;-4.9586;
208.5000;1.1884;-4.9690;
208.8000;1.1884;-4.9690;
209.1000;1.1844;-4.9664;
209.4000;1.1884;-4.9586;
209.7000;1.1876;-4.9664;
210.0000;1.1884;-4.9690;
210.3000;1.1901;-4.9716;
210.6000;1.1893;-4.9716;
210.9000;1.1893;-4.9742;
211.2000;1.1893;-4.9742;
211.5000;1.1901;-4.9716;
211.8000;1.1901;-4.9664;
212.1000;1.1901;-4.9638;
212.4000;1.1884;-4.9638;
212.7000;1.1893;-4.9508;
213.0000;1.1901;-4.9508;
213.3000;1.1909;-4.9483;
213.6000;1.1884;-4.9534;
213.9000;1.1876;-4.9586;
214.2000;1.1868;-4.9638;
214.5000;1.1893;-4.9457;
214.8000;1.1868;-4.9483;
215.1000;1.1876;-4.9405;
215.4000;1.1901;-4.9353;
215.7000;1.1884;-4.9457;
216.0000;1.1893;-4.9405;
216.3000;1.1893;-4.9405;
216.6000;1.1909;-4.9457;
216.9000;1.1884;-4.9457;
217.2000;1.1884;-4.9483;
217.5000;1.1893;-4.9379;
217.8000;1.1884;-4.9534;
218.1000;1.1901;-4.9508;
218.4000;1.1876;-4.9586;
218.7000;1.1876;-4.9638;
219.0000;1.1868;-4.9664;
219.3000;1.1860;-4.9742;
219.6000;1.1893;-4.9638;
219.9000;1.1884;-4.9664;
220.2000;1.1884;-4.9690;
220.5000;1.1917;-4.9508;
220.8000;1.1884;-4.9664;
221.1000;1.1901;-4.9534;
221.4000;1.1893;-4.9664;
221.7000;1.1876;-4.9664;
222.0000;1.1884;-4.9690;
222.3000;1.1893;-4.9742;
222.6000;1.1876;-4.9664;
222.9000;1.1893;-4.9690;
223.2000;1.1884;-4.9664;
223.5000;1.1836;-4.9872;
223.8000;1.1868;-4.9794;
224.1000;1.1876;-4.9742;
224.4000;1.1893;-4.9768;
224.7000;1.1868;-4.9872;
225.0000;1.1852;-4.9949;
225.3000;1.1884;-4.9846;
225.6000;1.1884;-4.9820;
225.9000;1.1884;-4.9820;
226.2000;1.1901;-4.9768;
226.5000;1.1884;-4.9820;
226.8000;1.1884;-4.9846;
227.1000;1.1868;-4.9897;
227.4000;1.1876;-4.9768;
227.7000;1.1893;-4.9768;
228.0000;1.1884;-4.9742;
228.3000;1.1901;-4.9768;
228.6000;1.1884;-4.9820;
228.9000;1.1917;-4.9794;
229.2000;1.1868;-4.9768;
229.5000;1.1884;-4.9716;
229.8000;1.1901;-4.9716;
230.1000;1.1884;-4.9716;
230.4000;1.1884;-4.9638;
230.7000;1.1884;-4.9690;
231.0000;1.1893;-4.9612;
231.3000;1.1909;-4.9638;
231.6000;1.1893;-4.9716;
231.9000;1.1884;-4.9690;
232.2000;1.1901;-4.9664;
232.5000;1.1893;-4.9664;
232.8000;1.1876;-4.9768;
233.1000;1.1844;-4.9820;
233.4000;1.1884;-4.9742;
233.7000;1.1884;-4.9742;
234.0000;1.1950;-4.9612;
234.3000;1.1884;-4.9742;
234.6000;1.1876;-4.9664;
234.9000;1.1893;-4.9690;
235.2000;1.1876;-4.9690;
235.5000;1.1893;-4.9742;
235.8000;1.1893;-4.9794;
236.1000;1.1925;-4.9716;
236.4000;1.1876;-4.9846;
236.7000;1.1884;-4.9716;
237.0000;1.1884;-4.9742;
237.3000;1.1893;-4.9742;
237.6000;1.1901;-4.9794;
237.9000;1.1909;-4.9820;
238.2000;1.1884;-4.9794;
238.5000;1.1884;-4.9716;
238.8000;1.1884;-4.9690;
239.1000;1.1893;-4.9638;
239.4000;1.1893;-4.9586;
239.7000;1.1884;-4.9612;
240.0000;1.1884;-4.9560;
240.3000;1.1876;-4.9612;
240.6000;1.1876;-4.9612;
240.9000;1.1884;-4.9612;
241.2000;1.1860;-4.9690;
241.5000;1.1876;-4.9638;
241.8000;1.1901;-4.9586;
242.1000;1.1901;-4.9638;
242.4000;1.1901;-4.9690;
242.7000;1.1884;-4.9690;
243.0000;1.1876;-4.9768;
243.3000;1.1884;-4.9742;
243.6000;1.1868;-4.9794;
243.9000;1.1901;-4.9690;
244.2000;1.1893;-4.9716;
244.5000;1.1925;-4.9690;
244.8000;1.1950;-4.9586;
245.1000;1.1884;-4.9716;
245.4000;1.1884;-4.9742;
245.7000;1.1893;-4.9846;
246.0000;1.1901;-4.9820;
246.3000;1.1893;-4.9846;
246.6000;1.1860;-4.9923;
246.9000;1.1876;-4.9923;
247.2000;1.1893;-4.9897;
247.5000;1.1933;-4.9768;
247.8000;1.1884;-4.9820;
248.1000;1.1876;-4.9742;
248.4000;1.1884;-4.9664;
248.7000;1.1876;-4.9586;
249.0000;1.1860;-4.9664;
249.3000;1.1868;-4.9638;
249.6000;1.1876;-4.9716;
249.9000;1.1827;-4.9872;
250.2000;1.1909;-4.9664;
250.5000;1.1868;-4.9794;
250.8000;1.1844;-4.9846;
251.1000;1.1884;-4.9794;
251.4000;1.1827;-4.9923;
251.7000;1.1884;-4.9820;
252.0000;1.1893;-4.9768;
252.3000;1.1860;-4.9820;
252.6000;1.1901;-4.9690;
252.9000;1.1876;-4.9690;
253.2000;1.1876;-4.9664;
253.5000;1.1876;-4.9664;
253.8000;1.1884;-4.9612;
254.1000;1.1860;-4.9716;
254.4000;1.1795;-4.9897;
254.7000;1.1876;-4.9820;
255.0000;1.1852;-4.9846;
255.3000;1.1884;-4.9768;
255.6000;1.1884;-4.9820;
255.9000;1.1868;-4.9846;
256.2000;1.1893;-4.9768;
256.5000;1.1901;-4.9716;
256.8000;1.1893;-4.9716;
257.1000;1.1860;-4.9768;
257.4000;1.1868;-4.9664;
257.7000;1.1893;-4.9586;
258.0000;1.1852;-4.9690;
258.3000;1.1868;-4.9586;
258.6000;1.1876;-4.9612;
258.9000;1.1876;-4.9690;
259.2000;1.1884;-4.9716;
259.5000;1.1868;-4.9716;
259.8000;1.1876;-4.9716;
260.1000;1.1876;-4.9716;
260.4000;1.1966;-4.9534;
260.7000;1.1876;-4.9690;
261.0000;1.1884;-4.9612;
261.3000;1.1893;-4.9534;
261.6000;1.1901;-4.9534;
261.9000;1.1893;-4.9560;
262.2000;1.1876;-4.9690;
262.5000;1.1884;-4.9586;
262.8000;1.1852;-4.9690;
263.1000;1.1876;-4.9690;
263.4000;1.1852;-4.9768;
263.7000;1.1868;-4.9742;
264.0000;1.1876;-4.9716;
264.3000;1.1884;-4.9716;
264.6000;1.1876;-4.9638;
264.9000;1.1868;-4.9716;
265.2000;1.1868;-4.9794;
265.5000;1.1901;-4.9690;
265.8000;1.1827;-4.9846;
266.1000;1.1868;-4.9742;
266.4000;1.1893;-4.9612;
266.7000;1.1925;-4.9405;
267.0000;1.1884;-4.9508;
267.3000;1.1884;-4.9560;
267.6000;1.1909;-4.9586;
267.9000;1.1909;-4.9742;
268.2000;1.1893;-4.9768;
268.5000;1.1876;-4.9768;
268.8000;1.1884;-4.9794;
269.1000;1.1884;-4.9768;
269.4000;1.1844;-4.9846;
269.7000;1.1860;-4.9820;
270.0000;1.1958;-4.9612;
270.3000;1.1860;-4.9897;
270.6000;1.1884;-4.9820;
270.9000;1.1860;-4.9949;
271.2000;1.1860;-4.9820;
271.5000;1.1852;-4.9820;
271.8000;1.1893;-4.9716;
272.1000;1.1876;-4.9664;
272.4000;1.1893;-4.9586;
272.7000;1.1884;-4.9638;
273.0000;1.1884;-4.9638;
273.3000;1.1901;-4.9638;
273.6000;1.1893;-4.9664;
273.9000;1.1876;-4.9768;
274.2000;1.1893;-4.9794;
274.5000;1.1884;-4.9768;
274.8000;1.1909;-4.9794;
275.1000;1.1876;-4.9820;
275.4000;1.1925;-4.9690;
275.7000;1.1884;-4.9768;
276.0000;1.1876;-4.9872;
276.3000;1.1819;-5.0105;
276.6000;1.1884;-4.9949;
276.9000;1.1893;-4.9923;
277.2000;1.1876;-4.9923;
277.5000;1.1876;-4.9923;
277.8000;1.1876;-4.9949;
278.1000;1.1941;-4.9742;
278.4000;1.1884;-4.9897;
278.7000;1.1852;-4.9949;
279.0000;1.1868;-4.9872;
279.3000;1.1876;-4.9846;
279.6000;1.1876;-4.9923;
279.9000;1.1860;-4.9872;
280.2000;1.1876;-4.9768;
280.5000;1.1876;-4.9794;
280.8000;1.1876;-4.9820;
281.1000;1.1868;-4.9872;
281.4000;1.1860;-4.9897;
281.7000;1.1868;-4.9846;
282.0000;1.1884;-4.9768;
282.3000;1.1909;-4.9716;
282.6000;1.1884;-4.9742;
282.9000;1.1876;-4.9846;
283.2000;1.1876;-4.9820;
283.5000;1.1884;-4.9742;
283.8000;1.1868;-4.9768;
284.1000;1.1860;-4.9742;
284.4000;1.1876;-4.9742;
284.7000;1.1884;-4.9872;
285.0000;1.1884;-4.9846;
285.3000;1.1836;-4.9846;
285.6000;1.1860;-4.9872;
285.9000;1.1876;-4.9768;
286.2000;1.1868;-4.9872;
286.5000;1.1868;-4.9820;
286.8000;1.1876;-4.9716;
287.1000;1.1868;-4.9690;
287.4000;1.1868;-4.9638;
287.7000;1.1893;-4.9612;
288.0000;1.1884;-4.9534;
288.3000;1.1901;-4.9560;
288.6000;1.1909;-4.9508;
288.9000;1.1876;-4.9612;
289.2000;1.1868;-4.9664;
289.5000;1.1884;-4.9586;
289.8000;1.1860;-4.9690;
290.1000;1.1852;-4.9794;
290.4000;1.1901;-4.9716;
290.7000;1.1941;-4.9664;
291.0000;1.1893;-4.9716;
291.3000;1.1884;-4.9690;
291.6000;1.1868;-4.9716;
291.9000;1.1876;-4.9690;
292.2000;1.1868;-4.9638;
292.5000;1.1860;-4.9716;
292.8000;1.1868;-4.9716;
293.1000;1.1876;-4.9664;
293.4000;1.1884;-4.9716;
293.7000;1.1884;-4.9872;
294.0000;1.1868;-4.9820;
294.3000;1.1868;-4.9872;
294.6000;1.1884;-4.9794;
294.9000;1.1901;-4.9768;
295.2000;1.1925;-4.9586;
295.5000;1.1876;-4.9664;
295.8000;1.1941;-4.9457;
296.1000;1.1876;-4.9483;
296.4000;1.1868;-4.9508;
296.7000;1.1868;-4.9508;
297.0000;1.1860;-4.9534;
297.3000;1.1860;-4.9560;
297.6000;1.1876;-4.9508;
297.9000;1.1884;-4.9612;
298.2000;1.1966;-4.9405;
298.5000;1.1868;-4.9612;
298.8000;1.1868;-4.9612;
299.1000;1.1860;-4.9586;
299.4000;1.1901;-4.9586;
299.7000;1.1884;-4.9638;
300.0000;1.1868;-4.9560;
300.3000;1.1884;-4.9534;
300.6000;1.1876;-4.9586;
300.9000;1.1868;-4.9534;
301.2000;1.1909;-4.9431;
301.5000;1.1884;-4.9405;
301.8000;1.1876;-4.9483;
302.1000;1.1884;-4.9405;
302.4000;1.1884;-4.9431;
302.7000;1.1868;-4.9508;
303.0000;1.1876;-4.9560;
303.3000;1.1893;-4.9457;
303.6000;1.1860;-4.9560;
303.9000;1.1884;-4.9534;
304.2000;1.1876;-4.9560;
304.5000;1.1876;-4.9664;
304.8000;1.1876;-4.9638;
305.1000;1.1884;-4.9690;
305.4000;1.1876;-4.9716;
305.7000;1.1917;-4.9612;
306.0000;1.1876;-4.9768;
306.3000;1.1950;-4.9457;
306.6000;1.1884;-4.9560;
306.9000;1.1860;-4.9508;
307.2000;1.1860;-4.9483;
307.5000;1.1868;-4.9457;
307.8000;1.1827;-4.9560;
308.1000;1.1884;-4.9379;
308.4000;1.1876;-4.9431;
308.7000;1.1868;-4.9353;
309.0000;1.1876;-4.9275;
309.3000;1.1852;-4.9301;
309.6000;1.1876;-4.9197;
309.9000;1.1876;-4.9275;
310.2000;1.1876;-4.9405;
310.5000;1.1884;-4.9483;
310.8000;1.1884;-4.9483;
311.1000;1.1876;-4.9353;
311.4000;1.1884;-4.9353;
311.7000;1.1876;-4.9431;
312.0000;1.1868;-4.9405;
312.3000;1.1868;-4.9431;
312.6000;1.1844;-4.9483;
312.9000;1.1852;-4.9586;
313.2000;1.1860;-4.9612;
313.5000;1.1868;-4.9586;
313.8000;1.1876;-4.9612;
314.1000;1.1884;-4.9560;
314.4000;1.1860;-4.9586;
314.7000;1.1868;-4.9534;
315.0000;1.1868;-4.9508;
315.3000;1.1884;-4.9457;
315.6000;1.1884;-4.9379;
315.9000;1.1860;-4.9405;
316.2000;1.1860;-4.9457;
316.5000;1.1901;-4.9301;
316.8000;1.1876;-4.9457;
317.1000;1.1868;-4.9664;
317.4000;1.1852;-4.9690;
317.7000;1.1909;-4.9586;
318.0000;1.1893;-4.9534;
318.3000;1.1876;-4.9612;
318.6000;1.1876;-4.9586;
318.9000;1.1860;-4.9612;
319.2000;1.1876;-4.9586;
319.5000;1.1860;-4.9664;
319.8000;1.1860;-4.9716;
320.1000;1.1844;-4.9742;
320.4000;1.1860;-4.9586;
320.7000;1.1868;-4.9638;
321.0000;1.1868;-4.9690;
321.3000;1.1868;-4.9690;
321.6000;1.1876;-4.9716;
321.9000;1.1884;-4.9664;
322.2000;1.1893;-4.9768;
322.5000;1.1876;-4.9794;
322.8000;1.1933;-4.9612;
323.1000;1.1893;-4.9638;
323.4000;1.1884;-4.9586;
323.7000;1.1876;-4.9534;
324.0000;1.1876;-4.9586;
324.3000;1.1958;-4.9534;
324.6000;1.1876;-4.9664;
324.9000;1.1819;-4.9768;
325.2000;1.1868;-4.9690;
325.5000;1.1876;-4.9612;
325.8000;1.1868;-4.9664;
326.1000;1.1876;-4.9716;
326.4000;1.1860;-4.9820;
326.7000;1.1876;-4.9638;
327.0000;1.1876;-4.9483;
327.3000;1.1876;-4.9483;
327.6000;1.1868;-4.9534;
327.9000;1.1884;-4.9508;
328.2000;1.1844;-4.9534;
328.5000;1.1876;-4.9483;
328.8000;1.1876;-4.9431;
329.1000;1.1868;-4.9483;
329.4000;1.1893;-4.9508;
329.7000;1.1901;-4.9534;
330.0000;1.1876;-4.9508;
330.3000;1.1868;-4.9457;
330.6000;1.1893;-4.9431;
330.9000;1.1884;-4.9483;
331.2000;1.1852;-4.9534;
331.5000;1.1860;-4.9560;
331.8000;1.1827;-4.9638;
332.1000;1.1876;-4.9508;
332.4000;1.1827;-4.9664;
332.7000;1.1860;-4.9638;
333.0000;1.1868;-4.9586;
333.3000;1.1868;-4.9586;
333.6000;1.1876;-4.9534;
333.9000;1.1852;-4.9534;
334.2000;1.1852;-4.9508;
334.5000;1.1893;-4.9508;
334.8000;1.1860;-4.9534;
335.1000;1.1860;-4.9483;
335.4000;1.1860;-4.9508;
335.7000;1.1860;-4.9457;
336.0000;1.1868;-4.9379;
336.3000;1.1868;-4.9457;
336.6000;1.1860;-4.9534;
336.9000;1.1860;-4.9534;
337.2000;1.1860;-4.9534;
337.5000;1.1868;-4.9508;
337.8000;1.1852;-4.9534;
338.1000;1.1884;-4.9483;
338.4000;1.1860;-4.9508;
338.7000;1.1868;-4.9508;
339.0000;1.1868;-4.9508;
339.3000;1.1868;-4.9560;
339.6000;1.1876;-4.9560;
339.9000;1.1893;-4.9508;
340.2000;1.1868;-4.9534;
340.5000;1.1909;-4.9431;
340.8000;1.1860;-4.9483;
341.1000;1.1901;-4.9405;
341.4000;1.1884;-4.9483;
341.7000;1.1876;-4.9508;
342.0000;1.1868;-4.9483;
342.3000;1.1876;-4.9508;
342.6000;1.1868;-4.9534;
342.9000;1.1860;-4.9534;
343.2000;1.1795;-4.9664;
343.5000;1.1868;-4.9534;
343.8000;1.1860;-4.9560;
344.1000;1.1860;-4.9560;
344.4000;1.1852;-4.9560;
344.7000;1.1876;-4.9483;
345.0000;1.1868;-4.9534;
345.3000;1.1876;-4.9534;
345.6000;1.1860;-4.9508;
345.9000;1.1868;-4.9586;
346.2000;1.1876;-4.9612;
346.5000;1.1860;-4.9690;
346.8000;1.1868;-4.9768;
347.1000;1.1876;-4.9716;
347.4000;1.1868;-4.9690;
347.7000;1.1868;-4.9690;
348.0000;1.1860;-4.9638;
348.3000;1.1852;-4.9612;
348.6000;1.1860;-4.9508;
348.9000;1.1876;-4.9405;
349.2000;1.1860;-4.9379;
349.5000;1.1852;-4.9301;
349.8000;1.1884;-4.9197;
350.1000;1.1884;-4.9171;
350.4000;1.1844;-4.9353;
350.7000;1.1844;-4.9431;
351.0000;1.1876;-4.9353;
351.3000;1.1876;-4.9405;
351.6000;1.1860;-4.9483;
351.9000;1.1868;-4.9483;
352.2000;1.1852;-4.9457;
352.5000;1.1868;-4.9483;
352.8000;1.1860;-4.9586;
353.1000;1.1884;-4.9508;
353.4000;1.1884;-4.9457;
353.7000;1.1860;-4.9508;
354.0000;1.1868;-4.9405;
354.3000;1.1860;-4.9431;
354.6000;1.1844;-4.9457;
354.9000;1.1860;-4.9457;
355.2000;1.1868;-4.9612;
355.5000;1.1844;-4.9742;
355.8000;1.1868;-4.9742;
356.1000;1.1868;-4.9664;
356.4000;1.1860;-4.9690;
356.7000;1.1876;-4.9638;
357.0000;1.1860;-4.9664;
357.3000;1.1860;-4.9716;
357.6000;1.1876;-4.9664;
357.9000;1.1819;-4.9742;
358.2000;1.1868;-4.9612;
358.5000;1.1868;-4.9586;
358.8000;1.1876;-4.9457;
359.1000;1.1876;-4.9457;
359.4000;1.1852;-4.9431;
359.7000;1.1819;-4.9534;
360.0000;1.1860;-4.9405;
360.3000;1.1860;-4.9483;
360.6000;1.1876;-4.9560;
360.9000;1.1860;-4.9586;
361.2000;1.1884;-4.9457;
361.5000;1.1868;-4.9483;
361.8000;1.1860;-4.9457;
362.1000;1.1868;-4.9405;
362.4000;1.1860;-4.9483;
362.7000;1.1876;-4.9508;
363.0000;1.1868;-4.9534;
363.3000;1.1868;-4.9560;
363.6000;1.1836;-4.9534;
363.9000;1.1868;-4.9534;
364.2000;1.1868;-4.9612;
364.5000;1.1941;-4.9431;
364.8000;1.1860;-4.9664;
365.1000;1.1827;-4.9638;
365.4000;1.1876;-4.9483;
365.7000;1.1860;-4.9560;
366.0000;1.1795;-4.9716;
366.3000;1.1860;-4.9586;
366.6000;1.1868;-4.9586;
366.9000;1.1860;-4.9638;
367.2000;1.1909;-4.9508;
367.5000;1.1868;-4.9560;
367.8000;1.1868;-4.9612;
368.1000;1.1787;-4.9742;
368.4000;1.1868;-4.9690;
368.7000;1.1852;-4.9768;
369.0000;1.1901;-4.9664;
369.3000;1.1844;-4.9768;
369.6000;1.1860;-4.9742;
369.9000;1.1852;-4.9794;
370.2000;1.1852;-4.9742;
370.5000;1.1884;-4.9560;
370.8000;1.1876;-4.9508;
371.1000;1.1868;-4.9483;
371.4000;1.1860;-4.9483;
371.7000;1.1901;-4.9457;
372.0000;1.1868;-4.9612;
372.3000;1.1868;-4.9664;
372.6000;1.1852;-4.9664;
372.9000;1.1868;-4.9612;
373.2000;1.1811;-4.9716;
373.5000;1.1852;-4.9534;
373.8000;1.1811;-4.9638;
374.1000;1.1860;-4.9560;
374.4000;1.1844;-4.9690;
374.7000;1.1868;-4.9638;
375.0000;1.1852;-4.9560;
375.3000;1.1876;-4.9508;
375.6000;1.1868;-4.9508;
375.9000;1.1868;-4.9508;
376.2000;1.1852;-4.9508;
376.5000;1.1868;-4.9586;
376.8000;1.1852;-4.9638;
377.1000;1.1860;-4.9664;
377.4000;1.1860;-4.9690;
377.7000;1.1868;-4.9586;
378.0000;1.1876;-4.9534;
378.3000;1.1860;-4.9586;
378.6000;1.1860;-4.9534;
378.9000;1.1852;-4.9483;
379.2000;1.1868;-4.9483;
379.5000;1.1852;-4.9508;
379.8000;1.1852;-4.9560;
380.1000;1.1868;-4.9586;
380.4000;1.1876;-4.9560;
380.7000;1.1876;-4.9586;
381.0000;1.1876;-4.9508;
381.3000;1.1868;-4.9560;
381.6000;1.1852;-4.9664;
381.9000;1.1860;-4.9690;
382.2000;1.1852;-4.9560;
382.5000;1.1876;-4.9508;
382.8000;1.1852;-4.9664;
383.1000;1.1868;-4.9560;
383.4000;1.1901;-4.9483;
383.7000;1.1860;-4.9560;
384.0000;1.1852;-4.9664;
384.3000;1.1860;-4.9638;
384.6000;1.1836;-4.9612;
384.9000;1.1844;-4.9638;
385.2000;1.1860;-4.9586;
385.5000;1.1876;-4.9612;
385.8000;1.1860;-4.9690;
386.1000;1.1860;-4.9742;
386.4000;1.1770;-4.9949;
386.7000;1.1950;-4.9508;
387.0000;1.1860;-4.9664;
387.3000;1.1876;-4.9612;
387.6000;1.1868;-4.9664;
387.9000;1.1860;-4.9742;
388.2000;1.1884;-4.9690;
388.5000;1.1876;-4.9716;
388.8000;1.1860;-4.9768;
389.1000;1.1925;-4.9664;
389.4000;1.1941;-4.9638;
389.7000;1.1876;-4.9820;
390.0000;1.1901;-4.9768;
390.3000;1.1868;-4.9768;
390.6000;1.1868;-4.9690;
390.9000;1.1876;-4.9664;
391.2000;1.1836;-4.9768;
391.5000;1.1860;-4.9716;
391.8000;1.1852;-4.9716;
392.1000;1.1868;-4.9690;
392.4000;1.1876;-4.9560;
392.7000;1.1876;-4.9560;
393.0000;1.1860;-4.9586;
393.3000;1.1860;-4.9534;
393.6000;1.1876;-4.9534;
393.9000;1.1860;-4.9586;
394.2000;1.1819;-4.9716;
394.5000;1.1876;-4.9534;
394.8000;1.1901;-4.9560;
395.1000;1.1868;-4.9664;
395.4000;1.1860;-4.9638;
395.7000;1.1868;-4.9560;
396.0000;1.1860;-4.9560;
396.3000;1.1876;-4.9560;
396.6000;1.1884;-4.9560;
396.9000;1.1876;-4.9560;
397.2000;1.1876;-4.9586;
397.5000;1.1860;-4.9742;
397.8000;1.1884;-4.9716;
398.1000;1.1860;-4.9638;
398.4000;1.1868;-4.9560;
398.7000;1.1876;-4.9483;
399.0000;1.1876;-4.9560;
399.3000;1.1884;-4.9508;
399.6000;1.1860;-4.9560;
399.9000;1.1876;-4.9612;
400.2000;1.1868;-4.9612;
400.5000;1.1844;-4.9638;
400.8000;1.1860;-4.9638;
401.1000;1.1868;-4.9664;
401.4000;1.1868;-4.9586;
401.7000;1.1876;-4.9483;
402.0000;1.1868;-4.9483;
402.3000;1.1909;-4.9534;
402.6000;1.1884;-4.9534;
402.9000;1.1819;-4.9716;
403.2000;1.1852;-4.9586;
403.5000;1.1844;-4.9586;
403.8000;1.1868;-4.9560;
404.1000;1.1852;-4.9560;
404.4000;1.1868;-4.9560;
404.7000;1.1884;-4.9457;
405.0000;1.1852;-4.9560;
405.3000;1.1876;-4.9431;
405.6000;1.1868;-4.9560;
405.9000;1.1868;-4.9586;
406.2000;1.1876;-4.9508;
406.5000;1.1852;-4.9664;
406.8000;1.1860;-4.9690;
407.1000;1.1860;-4.9768;
407.4000;1.1876;-4.9742;
407.7000;1.1868;-4.9716;
408.0000;1.1860;-4.9664;
408.3000;1.1827;-4.9716;
408.6000;1.1860;-4.9664;
408.9000;1.1884;-4.9586;
409.2000;1.1876;-4.9612;
409.5000;1.1852;-4.9742;
409.8000;1.1852;-4.9690;
410.1000;1.1860;-4.9690;
410.4000;1.1852;-4.9716;
410.7000;1.1941;-4.9534;
411.0000;1.1876;-4.9638;
411.3000;1.1836;-4.9716;
411.6000;1.1852;-4.9742;
411.9000;1.1852;-4.9638;
412.2000;1.1860;-4.9612;
412.5000;1.1844;-4.9638;
412.8000;1.1868;-4.9586;
413.1000;1.1860;-4.9664;
413.4000;1.1876;-4.9586;
413.7000;1.1868;-4.9612;
414.0000;1.1876;-4.9612;
414.3000;1.1868;-4.9690;
414.6000;1.1860;-4.9716;
414.9000;1.1868;-4.9638;
415.2000;1.1876;-4.9664;
415.5000;1.1860;-4.9690;
415.8000;1.1852;-4.9716;
416.1000;1.1860;-4.9742;
416.4000;1.1868;-4.9716;
416.7000;1.1884;-4.9690;
417.0000;1.1868;-4.9716;
417.3000;1.1852;-4.9690;
417.6000;1.1860;-4.9586;
417.9000;1.1868;-4.9534;
418.2000;1.1868;-4.9560;
418.5000;1.1876;-4.9457;
418.8000;1.1868;-4.9457;
419.1000;1.1852;-4.9508;
419.4000;1.1860;-4.9534;
419.7000;1.1852;-4.9638;
420.0000;1.1868;-4.9664;
420.3000;1.1868;-4.9612;
420.6000;1.1852;-4.9586;
420.9000;1.1860;-4.9534;
421.2000;1.1844;-4.9560;
421.5000;1.1827;-4.9508;
421.8000;1.1844;-4.9508;
422.1000;1.1844;-4.9560;
422.4000;1.1876;-4.9586;
422.7000;1.1852;-4.9612;
423.0000;1.1868;-4.9638;
423.3000;1.1819;-4.9768;
423.6000;1.1860;-4.9690;
423.9000;1.1852;-4.9612;
424.2000;1.1884;-4.9638;
424.5000;1.1860;-4.9638;
424.8000;1.1860;-4.9638;
425.1000;1.1868;-4.9483;
425.4000;1.1901;-4.9405;
425.7000;1.1876;-4.9457;
426.0000;1.1860;-4.9534;
426.3000;1.1860;-4.9560;
426.6000;1.1852;-4.9560;
426.9000;1.1868;-4.9508;
427.2000;1.1860;-4.9457;
427.5000;1.1893;-4.9457;
427.8000;1.1852;-4.9612;
428.1000;1.1876;-4.9534;
428.4000;1.1868;-4.9483;
428.7000;1.1819;-4.9586;
429.0000;1.1852;-4.9560;
429.3000;1.1860;-4.9534;
429.6000;1.1868;-4.9534;
429.9000;1.1860;-4.9612;
430.2000;1.1852;-4.9664;
430.5000;1.1827;-4.9742;
430.8000;1.1852;-4.9716;
431.1000;1.1852;-4.9742;
431.4000;1.1852;-4.9794;
431.7000;1.1811;-4.9872;
432.0000;1.1860;-4.9716;
432.3000;1.1852;-4.9664;
432.6000;1.1844;-4.9690;
432.9000;1.1819;-4.9742;
433.2000;1.1868;-4.9638;
433.5000;1.1860;-4.9716;
433.8000;1.1844;-4.9664;
434.1000;1.1852;-4.9690;
434.4000;1.1868;-4.9560;
434.7000;1.1860;-4.9534;
435.0000;1.1852;-4.9638;
435.3000;1.1852;-4.9638;
435.6000;1.1868;-4.9560;
435.9000;1.1860;-4.9690;
436.2000;1.1868;-4.9612;
436.5000;1.1852;-4.9586;
436.8000;1.1860;-4.9586;
437.1000;1.1852;-4.9690;
437.4000;1.1852;-4.9690;
437.7000;1.1844;-4.9690;
438.0000;1.1844;-4.9690;
438.3000;1.1836;-4.9794;
438.6000;1.1868;-4.9612;
438.9000;1.1852;-4.9612;
439.2000;1.1844;-4.9690;
439.5000;1.1852;-4.9586;
439.8000;1.1860;-4.9534;
440.1000;1.1844;-4.9586;
440.4000;1.1860;-4.9560;
440.7000;1.1901;-4.9508;
441.0000;1.1852;-4.9560;
441.3000;1.1860;-4.9586;
441.6000;1.1893;-4.9534;
441.9000;1.1844;-4.9560;
442.2000;1.1860;-4.9638;
442.5000;1.1836;-4.9612;
442.8000;1.1827;-4.9612;
443.1000;1.1852;-4.9612;
443.4000;1.1836;-4.9690;
443.7000;1.1860;-4.9560;
444.0000;1.1836;-4.9664;
444.3000;1.1811;-4.9664;
444.6000;1.1860;-4.9508;
444.9000;1.1868;-4.9431;
445.2000;1.1836;-4.9560;
445.5000;1.1836;-4.9534;
445.8000;1.1852;-4.9457;
446.1000;1.1893;-4.9327;
446.4000;1.1836;-4.9508;
446.7000;1.1844;-4.9586;
447.0000;1.1827;-4.9664;
447.3000;1.1844;-4.9768;
447.6000;1.1860;-4.9716;
447.9000;1.1844;-4.9742;
448.2000;1.1901;-4.9664;
448.5000;1.1876;-4.9664;
448.8000;1.1852;-4.9742;
449.1000;1.1852;-4.9768;
449.4000;1.1836;-4.9794;
449.7000;1.1860;-4.9820;
450.0000;1.1868;-4.9690;
450.3000;1.1836;-4.9716;
450.6000;1.1852;-4.9742;
450.9000;1.1868;-4.9664;
451.2000;1.1852;-4.9716;
451.5000;1.1868;-4.9612;
451.8000;1.1844;-4.9664;
452.1000;1.1860;-4.9612;
452.4000;1.1852;-4.9560;
452.7000;1.1893;-4.9534;
453.0000;1.1844;-4.9742;
453.3000;1.1868;-4.9664;
453.6000;1.1860;-4.9638;
453.9000;1.1868;-4.9638;
454.2000;1.1868;-4.9664;
454.5000;1.1868;-4.9586;
454.8000;1.1860;-4.9664;
455.1000;1.1844;-4.9690;
455.4000;1.1852;-4.9612;
455.7000;1.1795;-4.9664;
456.0000;1.1836;-4.9534;
456.3000;1.1844;-4.9560;
456.6000;1.1795;-4.9690;
456.9000;1.1844;-4.9560;
457.2000;1.1852;-4.9508;
457.5000;1.1852;-4.9534;
457.8000;1.1852;-4.9534;
458.1000;1.1819;-4.9690;
458.4000;1.1844;-4.9768;
458.7000;1.1868;-4.9690;
459.0000;1.1860;-4.9716;
459.3000;1.1852;-4.9820;
459.6000;1.1860;-4.9820;
459.9000;1.1860;-4.9768;
460.2000;1.1852;-4.9794;
460.5000;1.1852;-4.9768;
460.8000;1.1852;-4.9768;
461.1000;1.1868;-4.9664;
461.4000;1.1860;-4.9638;
461.7000;1.1852;-4.9560;
462.0000;1.1844;-4.9534;
462.3000;1.1844;-4.9560;
462.6000;1.1860;-4.9638;
462.9000;1.1844;-4.9690;
463.2000;1.1819;-4.9716;
463.5000;1.1852;-4.9716;
463.8000;1.1868;-4.9716;
464.1000;1.1852;-4.9716;
464.4000;1.1860;-4.9664;
464.7000;1.1852;-4.9664;
465.0000;1.1860;-4.9690;
465.3000;1.1876;-4.9612;
465.6000;1.1868;-4.9638;
465.9000;1.1852;-4.9612;
466.2000;1.1868;-4.9586;
466.5000;1.1852;-4.9534;
466.8000;1.1844;-4.9534;
467.1000;1.1852;-4.9457;
467.4000;1.1852;-4.9508;
467.7000;1.1860;-4.9483;
468.0000;1.1852;-4.9483;
468.3000;1.1860;-4.9508;
468.6000;1.1836;-4.9560;
468.9000;1.1884;-4.9457;
469.2000;1.1852;-4.9612;
469.5000;1.1836;-4.9638;
469.8000;1.1844;-4.9664;
470.1000;1.1901;-4.9534;
470.4000;1.1852;-4.9560;
470.7000;1.1860;-4.9534;
471.0000;1.1844;-4.9508;
471.3000;1.1844;-4.9508;
471.6000;1.1836;-4.9560;
471.9000;1.1852;-4.9508;
472.2000;1.1836;-4.9508;
472.5000;1.1844;-4.9534;
472.8000;1.1852;-4.9508;
473.1000;1.1860;-4.9560;
473.4000;1.1893;-4.9508;
473.7000;1.1827;-4.9742;
474.0000;1.1852;-4.9690;
474.3000;1.1852;-4.9690;
474.6000;1.1852;-4.9690;
474.9000;1.1852;-4.9690;
475.2000;1.1860;-4.9560;
475.5000;1.1860;-4.9586;
475.8000;1.1852;-4.9560;
476.1000;1.1844;-4.9586;
476.4000;1.1852;-4.9638;
476.7000;1.1852;-4.9586;
477.0000;1.1860;-4.9664;
477.3000;1.1860;-4.9612;
477.6000;1.1827;-4.9612;
477.9000;1.1852;-4.9586;
478.2000;1.1860;-4.9612;
478.5000;1.1868;-4.9508;
478.8000;1.1844;-4.9560;
479.1000;1.1836;-4.9483;
479.4000;1.1860;-4.9483;
479.7000;1.1852;-4.9379;
480.0000;1.1868;-4.9405;
480.3000;1.1836;-4.9534;
480.6000;1.1860;-4.9431;
480.9000;1.1860;-4.9457;
481.2000;1.1893;-4.9353;
481.5000;1.1852;-4.9431;
481.8000;1.1836;-4.9534;
482.1000;1.1884;-4.9483;
482.4000;1.1844;-4.9534;
482.7000;1.1827;-4.9638;
483.0000;1.1868;-4.9612;
483.3000;1.1844;-4.9638;
483.6000;1.1827;-4.9690;
483.9000;1.1827;-4.9664;
484.2000;1.1827;-4.9742;
484.5000;1.1836;-4.9872;
484.8000;1.1836;-5.0027;
485.1000;1.1836;-4.9949;
485.4000;1.1860;-4.9923;
485.7000;1.1852;-4.9846;
486.0000;1.1852;-4.9742;
486.3000;1.1860;-4.9664;
486.6000;1.1852;-4.9690;
486.9000;1.1917;-4.9508;
487.2000;1.1860;-4.9690;
487.5000;1.1852;-4.9716;
487.8000;1.1844;-4.9768;
488.1000;1.1876;-4.9768;
488.4000;1.1860;-4.9897;
488.7000;1.1836;-4.9897;
489.0000;1.1844;-4.9794;
489.3000;1.1836;-4.9794;
489.6000;1.1876;-4.9742;
489.9000;1.1852;-4.9768;
490.2000;1.1852;-4.9742;
490.5000;1.1860;-4.9638;
490.8000;1.1876;-4.9586;
491.1000;1.1803;-4.9794;
491.4000;1.1852;-4.9690;
491.7000;1.1844;-4.9664;
492.0000;1.1852;-4.9612;
492.3000;1.1852;-4.9664;
492.6000;1.1844;-4.9690;
492.9000;1.1827;-4.9768;
493.2000;1.1836;-4.9742;
493.5000;1.1836;-4.9768;
493.8000;1.1836;-4.9872;
494.1000;1.1844;-4.9949;
494.4000;1.1836;-4.9975;
494.7000;1.1852;-4.9923;
495.0000;1.1852;-4.9923;
495.3000;1.1844;-4.9872;
495.6000;1.1860;-4.9846;
495.9000;1.1844;-4.9897;
496.2000;1.1868;-4.9872;
496.5000;1.1852;-5.0001;
496.8000;1.1860;-4.9846;
497.1000;1.1852;-4.9872;
497.4000;1.1844;-4.9949;
497.7000;1.1852;-4.9820;
498.0000;1.1827;-4.9872;
498.3000;1.1860;-4.9846;
498.6000;1.1852;-4.9846;
498.9000;1.1876;-4.9742;
499.2000;1.1836;-4.9794;
499.5000;1.1844;-4.9846;
499.8000;1.1909;-4.9742;
500.1000;1.1876;-4.9820;
500.4000;1.1811;-4.9975;
500.7000;1.1819;-4.9897;
501.0000;1.1852;-4.9794;
501.3000;1.1876;-4.9820;
501.6000;1.1836;-4.9949;
501.9000;1.1811;-5.0027;
502.2000;1.1868;-4.9897;
502.5000;1.1795;-5.0053;
502.8000;1.1836;-4.9820;
503.1000;1.1836;-4.9820;
503.4000;1.1811;-4.9846;
503.7000;1.1852;-4.9716;
504.0000;1.1844;-4.9768;
504.3000;1.1893;-4.9768;
504.6000;1.1779;-5.0001;
504.9000;1.1844;-4.9794;
505.2000;1.1827;-4.9742;
505.5000;1.1844;-4.9612;
505.8000;1.1852;-4.9638;
506.1000;1.1860;-4.9690;
506.4000;1.1844;-4.9716;
506.7000;1.1836;-4.9664;
507.0000;1.1901;-4.9431;
507.3000;1.1852;-4.9483;
507.6000;1.1852;-4.9560;
507.9000;1.1852;-4.9534;
508.2000;1.1844;-4.9534;
508.5000;1.1844;-4.9534;
508.8000;1.1868;-4.9742;
509.1000;1.1827;-4.9846;
509.4000;1.1836;-4.9846;
509.7000;1.1836;-4.9846;
510.0000;1.1844;-4.9794;
510.3000;1.1836;-4.9768;
510.6000;1.1860;-4.9690;
510.9000;1.1860;-4.9716;
511.2000;1.1860;-4.9794;
511.5000;1.1868;-4.9794;
511.8000;1.1852;-4.9846;
512.1000;1.1852;-4.9872;
512.4000;1.1860;-4.9820;
512.7000;1.1852;-4.9820;
513.0000;1.1811;-4.9975;
513.3000;1.1844;-4.9923;
513.6000;1.1860;-4.9820;
513.9000;1.1795;-5.0001;
514.2000;1.1852;-4.9923;
514.5000;1.1827;-4.9975;
514.8000;1.1852;-4.9923;
515.1000;1.1827;-4.9949;
515.4000;1.1852;-4.9820;
515.7000;1.1844;-4.9949;
516.0000;1.1860;-4.9923;
516.3000;1.1836;-4.9975;
516.6000;1.1827;-4.9949;
516.9000;1.1901;-4.9768;
517.2000;1.1787;-5.0027;
517.5000;1.1836;-4.9949;
517.8000;1.1844;-4.9872;
518.1000;1.1852;-4.9768;
518.4000;1.1844;-4.9872;
518.7000;1.1819;-4.9742;
519.0000;1.1762;-4.9872;
519.3000;1.1844;-4.9794;
519.6000;1.1836;-4.9897;
519.9000;1.1852;-4.9742;
520.2000;1.1868;-4.9794;
520.5000;1.1860;-4.9872;
520.8000;1.1860;-4.9846;
521.1000;1.1852;-4.9794;
521.4000;1.1933;-4.9560;
521.7000;1.1860;-4.9794;
522.0000;1.1868;-4.9690;
522.3000;1.1836;-4.9638;
522.6000;1.1852;-4.9638;
522.9000;1.1876;-4.9664;
523.2000;1.1844;-4.9742;
523.5000;1.1860;-4.9716;
523.8000;1.1803;-4.9794;
524.1000;1.1852;-4.9638;
524.4000;1.1876;-4.9638;
524.7000;1.1770;-4.9897;
525.0000;1.1795;-4.9846;
525.3000;1.1844;-4.9690;
525.6000;1.1819;-4.9690;
525.9000;1.1827;-4.9716;
526.2000;1.1852;-4.9794;
526.5000;1.1876;-4.9664;
526.8000;1.1795;-4.9923;
527.1000;1.1860;-4.9794;
527.4000;1.1844;-4.9794;
527.7000;1.1844;-4.9768;
528.0000;1.1844;-4.9794;
528.3000;1.1836;-4.9794;
528.6000;1.1844;-4.9794;
528.9000;1.1836;-4.9846;
529.2000;1.1852;-4.9794;
529.5000;1.1868;-4.9742;
529.8000;1.1836;-4.9794;
530.1000;1.1876;-4.9742;
530.4000;1.1844;-4.9742;
530.7000;1.1844;-4.9742;
531.0000;1.1819;-4.9846;
531.3000;1.1803;-4.9794;
531.6000;1.1836;-4.9742;
531.9000;1.1836;-4.9794;
532.2000;1.1827;-4.9690;
532.5000;1.1844;-4.9664;
532.8000;1.1844;-4.9664;
533.1000;1.1836;-4.9664;
533.4000;1.1844;-4.9638;
533.7000;1.1836;-4.9742;
534.0000;1.1836;-4.9742;
534.3000;1.1860;-4.9716;
534.6000;1.1852;-4.9742;
534.9000;1.1827;-4.9768;
535.2000;1.1844;-4.9716;
535.5000;1.1844;-4.9690;
535.8000;1.1836;-4.9716;
536.1000;1.1827;-4.9768;
536.4000;1.1827;-4.9716;
536.7000;1.1836;-4.9716;
537.0000;1.1852;-4.9742;
537.3000;1.1836;-4.9794;
537.6000;1.1836;-4.9820;
537.9000;1.1844;-4.9923;
538.2000;1.1860;-4.9846;
538.5000;1.1844;-4.9897;
538.8000;1.1844;-4.9872;
539.1000;1.1852;-4.9768;
539.4000;1.1884;-4.9690;
539.7000;1.1836;-4.9742;
540.0000;1.1787;-4.9846;
540.3000;1.1844;-4.9716;
540.6000;1.1893;-4.9586;
540.9000;1.1844;-4.9716;
541.2000;1.1827;-4.9768;
541.5000;1.1876;-4.9690;
541.8000;1.1844;-4.9742;
542.1000;1.1868;-4.9612;
542.4000;1.1852;-4.9638;
542.7000;1.1819;-4.9716;
543.0000;1.1836;-4.9716;
543.3000;1.1901;-4.9560;
543.6000;1.1852;-4.9742;
543.9000;1.1844;-4.9638;
544.2000;1.1844;-4.9586;
544.5000;1.1844;-4.9560;
544.8000;1.1844;-4.9638;
545.1000;1.1836;-4.9794;
545.4000;1.1811;-4.9897;
545.7000;1.1844;-4.9923;
546.0000;1.1827;-4.9923;
546.3000;1.1844;-4.9872;
546.6000;1.1836;-4.9820;
546.9000;1.1852;-4.9716;
547.2000;1.1844;-4.9690;
547.5000;1.1836;-4.9638;
547.8000;1.1836;-4.9716;
548.1000;1.1844;-4.9742;
548.4000;1.1844;-4.9742;
548.7000;1.1852;-4.9742;
549.0000;1.1876;-4.9664;
549.3000;1.1836;-4.9794;
549.6000;1.1836;-4.9794;
549.9000;1.1844;-4.9768;
550.2000;1.1827;-4.9820;
550.5000;1.1836;-4.9820;
550.8000;1.1819;-4.9846;
551.1000;1.1836;-4.9742;
551.4000;1.1836;-4.9664;
551.7000;1.1811;-4.9768;
552.0000;1.1819;-4.9742;
552.3000;1.1836;-4.9872;
552.6000;1.1827;-4.9872;
552.9000;1.1836;-4.9820;
553.2000;1.1852;-4.9716;
553.5000;1.1852;-4.9742;
553.8000;1.1836;-4.9768;
554.1000;1.1819;-4.9794;
554.4000;1.1827;-4.9820;
554.7000;1.1836;-4.9794;
555.0000;1.1819;-4.9872;
555.3000;1.1811;-4.9872;
555.6000;1.1811;-4.9949;
555.9000;1.1844;-4.9846;
556.2000;1.1819;-4.9897;
556.5000;1.1836;-4.9846;
556.8000;1.1836;-4.9690;
557.1000;1.1836;-4.9664;
557.4000;1.1836;-4.9612;
557.7000;1.1852;-4.9612;
558.0000;1.1836;-4.9664;
558.3000;1.1852;-4.9664;
558.6000;1.1844;-4.9716;
558.9000;1.1770;-4.9949;
559.2000;1.1860;-4.9742;
559.5000;1.1836;-4.9846;
559.8000;1.1860;-4.9794;
560.1000;1.1844;-4.9794;
560.4000;1.1836;-4.9794;
560.7000;1.1836;-4.9768;
561.0000;1.1860;-4.9690;
561.3000;1.1901;-4.9586;
561.6000;1.1852;-4.9742;
561.9000;1.1836;-4.9820;
562.2000;1.1860;-4.9742;
562.5000;1.1844;-4.9716;
562.8000;1.1884;-4.9638;
563.1000;1.1827;-4.9716;
563.4000;1.1844;-4.9638;
563.7000;1.1844;-4.9638;
564.0000;1.1844;-4.9612;
564.3000;1.1868;-4.9560;
564.6000;1.1844;-4.9534;
564.9000;1.1844;-4.9431;
565.2000;1.1868;-4.9301;
565.5000;1.1836;-4.9353;
565.8000;1.1819;-4.9405;
566.1000;1.1844;-4.9353;
566.4000;1.1827;-4.9301;
566.7000;1.1836;-4.9275;
567.0000;1.1819;-4.9431;
567.3000;1.1836;-4.9483;
567.6000;1.1827;-4.9483;
567.9000;1.1844;-4.9431;
568.2000;1.1836;-4.9508;
568.5000;1.1827;-4.9483;
568.8000;1.1836;-4.9405;
569.1000;1.1836;-4.9457;
569.4000;1.1836;-4.9457;
569.7000;1.1844;-4.9534;
570.0000;1.1836;-4.9612;
570.3000;1.1836;-4.9560;
570.6000;1.1852;-4.9431;
570.9000;1.1827;-4.9612;
571.2000;1.1795;-4.9664;
571.5000;1.1827;-4.9612;
571.8000;1.1819;-4.9612;
572.1000;1.1819;-4.9560;
572.4000;1.1827;-4.9586;
572.7000;1.1836;-4.9586;
573.0000;1.1844;-4.9690;
573.3000;1.1893;-4.9690;
573.6000;1.1811;-4.9897;
573.9000;1.1827;-4.9768;
574.2000;1.1827;-4.9742;
574.5000;1.1876;-4.9638;
574.8000;1.1827;-4.9820;
575.1000;1.1844;-4.9846;
575.4000;1.1827;-4.9794;
575.7000;1.1844;-4.9742;
576.0000;1.1852;-4.9690;
576.3000;1.1827;-4.9794;
576.6000;1.1844;-4.9690;
576.9000;1.1827;-4.9560;
577.2000;1.1795;-4.9638;
577.5000;1.1827;-4.9560;
577.8000;1.1827;-4.9534;
578.1000;1.1827;-4.9508;
578.4000;1.1836;-4.9483;
578.7000;1.1844;-4.9431;
579.0000;1.1836;-4.9483;
579.3000;1.1844;-4.9508;
579.6000;1.1852;-4.9483;
579.9000;1.1925;-4.9301;
580.2000;1.1852;-4.9483;
580.5000;1.1868;-4.9405;
580.8000;1.1819;-4.9457;
581.1000;1.1836;-4.9534;
581.4000;1.1836;-4.9431;
581.7000;1.1827;-4.9508;
582.0000;1.1819;-4.9560;
582.3000;1.1827;-4.9586;
582.6000;1.1827;-4.9483;
582.9000;1.1836;-4.9379;
583.2000;1.1852;-4.9379;
583.5000;1.1844;-4.9457;
583.8000;1.1836;-4.9483;
584.1000;1.1836;-4.9379;
584.4000;1.1876;-4.9431;
584.7000;1.1827;-4.9534;
585.0000;1.1852;-4.9508;
585.3000;1.1836;-4.9612;
585.6000;1.1852;-4.9560;
585.9000;1.1844;-4.9612;
586.2000;1.1844;-4.9534;
586.5000;1.1876;-4.9508;
586.8000;1.1852;-4.9508;
587.1000;1.1836;-4.9457;
587.4000;1.1827;-4.9508;
587.7000;1.1827;-4.9431;
588.0000;1.1844;-4.9405;
588.3000;1.1827;-4.9457;
588.6000;1.1819;-4.9457;
588.9000;1.1819;-4.9560;
589.2000;1.1787;-4.9690;
589.5000;1.1860;-4.9508;
589.8000;1.1844;-4.9508;
590.1000;1.1827;-4.9534;
590.4000;1.1852;-4.9483;
590.7000;1.1827;-4.9508;
591.0000;1.1819;-4.9457;
591.3000;1.1819;-4.9534;
591.6000;1.1836;-4.9508;
591.9000;1.1836;-4.9457;
592.2000;1.1827;-4.9405;
592.5000;1.1827;-4.9405;
592.8000;1.1819;-4.9534;
593.1000;1.1827;-4.9560;
593.4000;1.1819;-4.9457;
593.7000;1.1827;-4.9405;
594.0000;1.1836;-4.9327;
594.3000;1.1762;-4.9508;
594.6000;1.1827;-4.9275;
594.9000;1.1844;-4.9275;
595.2000;1.1827;-4.9327;
595.5000;1.1852;-4.9301;
595.8000;1.1852;-4.9405;
596.1000;1.1852;-4.9379;
596.4000;1.1884;-4.9327;
596.7000;1.1836;-4.9353;
597.0000;1.1811;-4.9457;
597.3000;1.1868;-4.9379;
597.6000;1.1819;-4.9483;
597.9000;1.1819;-4.9508;
598.2000;1.1836;-4.9534;
598.5000;1.1827;-4.9664;
598.8000;1.1795;-4.9846;
599.1000;1.1827;-4.9820;
599.4000;1.1844;-4.9742;
599.7000;1.1852;-4.9690;
600.0000;1.1884;-4.9483;
600.3000;1.1827;-4.9768;
600.6000;1.1819;-4.9923;
600.9000;1.1762;-5.0209;
601.2000;1.1681;-5.0546;
601.5000;1.1583;-5.0831;
601.8000;1.1510;-5.1013;
602.1000;1.1355;-5.1479;
602.4000;1.1306;-5.1557;
602.7000;1.1176;-5.1843;
603.0000;1.1127;-5.2050;
603.3000;1.1038;-5.2154;
603.6000;1.0956;-5.2309;
603.9000;1.0875;-5.2413;
604.2000;1.0786;-5.2543;
604.5000;1.0720;-5.2647;
604.8000;1.0696;-5.2698;
605.1000;1.0590;-5.2932;
605.4000;1.0525;-5.2958;
605.7000;1.0476;-5.3010;
606.0000;1.0427;-5.3061;
606.3000;1.0354;-5.3087;
606.6000;1.0297;-5.3139;
606.9000;1.0281;-5.3165;
607.2000;1.0199;-5.3425;
607.5000;1.0151;-5.3476;
607.8000;1.0077;-5.3658;
608.1000;1.0020;-5.3606;
608.4000;0.9996;-5.3554;
608.7000;0.9955;-5.3476;
609.0000;0.9906;-5.3606;
609.3000;0.9849;-5.3632;
609.6000;0.9817;-5.3606;
609.9000;0.9776;-5.3632;
610.2000;0.9768;-5.3606;
610.5000;0.9678;-5.3762;
610.8000;0.9670;-5.3788;
611.1000;0.9597;-5.3891;
611.4000;0.9556;-5.3969;
611.7000;0.9524;-5.4073;
612.0000;0.9483;-5.4151;
612.3000;0.9483;-5.4099;
612.6000;0.9426;-5.4151;
612.9000;0.9459;-5.4073;
613.2000;0.9369;-5.4151;
613.5000;0.9320;-5.4151;
613.8000;0.9304;-5.4073;
614.1000;0.9247;-5.4254;
614.4000;0.9223;-5.4228;
614.7000;0.9214;-5.4228;
615.0000;0.9182;-5.4177;
615.3000;0.9125;-5.4332;
615.6000;0.9076;-5.4410;
615.9000;0.9052;-5.4384;
616.2000;0.9044;-5.4358;
616.5000;0.9011;-5.4410;
616.8000;0.8987;-5.4462;
617.1000;0.8954;-5.4462;
617.4000;0.8921;-5.4488;
617.7000;0.8905;-5.4618;
618.0000;0.8889;-5.4643;
618.3000;0.8864;-5.4695;
618.6000;0.8832;-5.4721;
618.9000;0.8840;-5.4721;
619.2000;0.8791;-5.4747;
619.5000;0.8718;-5.4903;
619.8000;0.8726;-5.4877;
620.1000;0.8710;-5.4903;
620.4000;0.8694;-5.4877;
620.7000;0.8645;-5.4955;
621.0000;0.8637;-5.4903;
621.3000;0.8620;-5.4825;
621.6000;0.8645;-5.4747;
621.9000;0.8571;-5.4799;
622.2000;0.8563;-5.4747;
622.5000;0.8539;-5.4773;
622.8000;0.8514;-5.4747;
623.1000;0.8490;-5.4695;
623.4000;0.8482;-5.4695;
623.7000;0.8457;-5.4695;
624.0000;0.8400;-5.4825;
624.3000;0.8400;-5.4825;
624.6000;0.8400;-5.4825;
624.9000;0.8368;-5.4825;
625.2000;0.8344;-5.4929;
625.5000;0.8368;-5.4903;
625.8000;0.8335;-5.4929;
626.1000;0.8327;-5.4825;
626.4000;0.8311;-5.4799;
626.7000;0.8295;-5.4747;
627.0000;0.8270;-5.4825;
627.3000;0.8254;-5.4877;
627.6000;0.8254;-5.4799;
627.9000;0.8181;-5.4929;
628.2000;0.8205;-5.4773;
628.5000;0.8205;-5.4877;
628.8000;0.8173;-5.4903;
629.1000;0.8181;-5.4929;
629.4000;0.8148;-5.4929;
629.7000;0.8124;-5.4981;
630.0000;0.8116;-5.4903;
630.3000;0.8132;-5.4825;
630.6000;0.8034;-5.4903;
630.9000;0.8132;-5.4643;
631.2000;0.8050;-5.4851;
631.5000;0.8067;-5.4877;
631.8000;0.8034;-5.4851;
632.1000;0.8034;-5.4851;
632.4000;0.8026;-5.4877;
632.7000;0.8010;-5.4799;
633.0000;0.8010;-5.4903;
633.3000;0.7977;-5.5007;
633.6000;0.7977;-5.5032;
633.9000;0.7945;-5.5058;
634.2000;0.7896;-5.5136;
634.5000;0.7904;-5.5007;
634.8000;0.7912;-5.4929;
635.1000;0.7920;-5.4903;
635.4000;0.7896;-5.5058;
635.7000;0.7896;-5.5007;
636.0000;0.7888;-5.4981;
636.3000;0.7871;-5.5007;
636.6000;0.7863;-5.5032;
636.9000;0.7871;-5.4981;
637.2000;0.7806;-5.5188;
637.5000;0.7831;-5.5188;
637.8000;0.7839;-5.5162;
638.1000;0.7831;-5.5058;
638.4000;0.7790;-5.5110;
638.7000;0.7790;-5.5084;
639.0000;0.7766;-5.5084;
639.3000;0.7774;-5.5058;
639.6000;0.7782;-5.4903;
639.9000;0.7749;-5.4955;
640.2000;0.7725;-5.4929;
640.5000;0.7709;-5.4929;
640.8000;0.7733;-5.4929;
641.1000;0.7709;-5.4981;
641.4000;0.7692;-5.4955;
641.7000;0.7700;-5.5032;
642.0000;0.7700;-5.4981;
642.3000;0.7684;-5.4955;
642.6000;0.7676;-5.4929;
642.9000;0.7684;-5.5058;
643.2000;0.7652;-5.5136;
643.5000;0.7635;-5.5136;
643.8000;0.7635;-5.5110;
644.1000;0.7627;-5.5110;
644.4000;0.7619;-5.5136;
644.7000;0.7619;-5.5136;
645.0000;0.7595;-5.5162;
645.3000;0.7595;-5.5214;
645.6000;0.7595;-5.5162;
645.9000;0.7562;-5.5266;
646.2000;0.7586;-5.5162;
646.5000;0.7562;-5.5188;
646.8000;0.7562;-5.5136;
647.1000;0.7530;-5.5136;
647.4000;0.7554;-5.5032;
647.7000;0.7481;-5.5162;
648.0000;0.7595;-5.4747;
648.3000;0.7538;-5.4903;
648.6000;0.7521;-5.4955;
648.9000;0.7497;-5.5058;
649.2000;0.7473;-5.5136;
649.5000;0.7473;-5.5136;
649.8000;0.7489;-5.5214;
650.1000;0.7473;-5.5084;
650.4000;0.7464;-5.5032;
650.7000;0.7456;-5.5007;
651.0000;0.7481;-5.5058;
651.3000;0.7464;-5.5058;
651.6000;0.7448;-5.5084;
651.9000;0.7456;-5.5007;
652.2000;0.7440;-5.5007;
652.5000;0.7432;-5.5084;
652.8000;0.7407;-5.5188;
653.1000;0.7424;-5.5110;
653.4000;0.7407;-5.5136;
653.7000;0.7391;-5.5136;
654.0000;0.7399;-5.5007;
654.3000;0.7383;-5.5058;
654.6000;0.7359;-5.5058;
654.9000;0.7350;-5.5162;
655.2000;0.7359;-5.5136;
655.5000;0.7440;-5.5032;
655.8000;0.7342;-5.5110;
656.1000;0.7350;-5.5136;
656.4000;0.7391;-5.5032;
656.7000;0.7350;-5.5084;
657.0000;0.7359;-5.5058;
657.3000;0.7359;-5.5084;
657.6000;0.7318;-5.5188;
657.9000;0.7269;-5.5318;
658.2000;0.7293;-5.5240;
658.5000;0.7277;-5.5084;
658.8000;0.7302;-5.4981;
659.1000;0.7293;-5.5084;
659.4000;0.7285;-5.5032;
659.7000;0.7269;-5.5084;
660.0000;0.7293;-5.4981;
660.3000;0.7261;-5.5084;
660.6000;0.7245;-5.5136;
660.9000;0.7269;-5.5058;
661.2000;0.7261;-5.5110;
661.5000;0.7261;-5.5058;
661.8000;0.7236;-5.5188;
662.1000;0.7261;-5.5214;
662.4000;0.7261;-5.5136;
662.7000;0.7285;-5.5058;
663.0000;0.7236;-5.5136;
663.3000;0.7253;-5.5214;
663.6000;0.7228;-5.5214;
663.9000;0.7228;-5.5214;
664.2000;0.7220;-5.5162;
664.5000;0.7212;-5.5110;
664.8000;0.7196;-5.5058;
665.1000;0.7196;-5.5110;
665.4000;0.7188;-5.5110;
665.7000;0.7196;-5.5136;
666.0000;0.7220;-5.4981;
666.3000;0.7179;-5.5058;
666.6000;0.7179;-5.5058;
666.9000;0.7171;-5.5032;
667.2000;0.7188;-5.5007;
667.5000;0.7171;-5.4981;
667.8000;0.7155;-5.5007;
668.1000;0.7155;-5.5007;
668.4000;0.7147;-5.4981;
668.7000;0.7163;-5.5032;
669.0000;0.7155;-5.5032;
669.3000;0.7123;-5.4955;
669.6000;0.7114;-5.4851;
669.9000;0.7131;-5.4877;
670.2000;0.7098;-5.4929;
670.5000;0.7098;-5.4929;
670.8000;0.7106;-5.4955;
671.1000;0.7090;-5.4955;
671.4000;0.7106;-5.5007;
671.7000;0.7106;-5.5032;
672.0000;0.7098;-5.5110;
672.3000;0.7057;-5.5240;
672.6000;0.7106;-5.5110;
672.9000;0.7090;-5.5084;
673.2000;0.7066;-5.5084;
673.5000;0.7082;-5.5058;
673.8000;0.7082;-5.5136;
674.1000;0.7041;-5.5292;
674.4000;0.7066;-5.5110;
674.7000;0.7057;-5.5110;
675.0000;0.7114;-5.4955;
675.3000;0.7057;-5.5084;
675.6000;0.7057;-5.5162;
675.9000;0.6984;-5.5421;
676.2000;0.7033;-5.5266;
676.5000;0.7033;-5.5214;
676.8000;0.7025;-5.5214;
677.1000;0.7033;-5.5188;
677.4000;0.7033;-5.5162;
677.7000;0.7033;-5.5084;
678.0000;0.7009;-5.5032;
678.3000;0.7025;-5.5007;
678.6000;0.7017;-5.5110;
678.9000;0.6992;-5.5110;
679.2000;0.7017;-5.5007;
679.5000;0.7000;-5.5032;
679.8000;0.7000;-5.5007;
680.1000;0.7000;-5.4955;
680.4000;0.7009;-5.4981;
680.7000;0.6976;-5.5136;
681.0000;0.6976;-5.5110;
681.3000;0.6976;-5.5084;
681.6000;0.7000;-5.5110;
681.9000;0.7025;-5.5162;
682.2000;0.6960;-5.5188;
682.5000;0.6960;-5.5162;
682.8000;0.6960;-5.5136;
683.1000;0.6943;-5.5162;
683.4000;0.6943;-5.5110;
683.7000;0.6903;-5.5188;
684.0000;0.6960;-5.5084;
684.3000;0.6960;-5.5084;
684.6000;0.6952;-5.5110;
684.9000;0.6935;-5.5084;
685.2000;0.6943;-5.5084;
685.5000;0.6935;-5.5058;
685.8000;0.6952;-5.5032;
686.1000;0.6919;-5.5110;
686.4000;0.6919;-5.5162;
686.7000;0.6878;-5.5188;
687.0000;0.6911;-5.5110;
687.3000;0.6919;-5.5136;
687.6000;0.6911;-5.5188;
687.9000;0.6919;-5.5162;
688.2000;0.6903;-5.5214;
688.5000;0.6903;-5.5266;
688.8000;0.6895;-5.5188;
689.1000;0.6895;-5.5162;
689.4000;0.6911;-5.5162;
689.7000;0.6943;-5.5007;
690.0000;0.6903;-5.5058;
690.3000;0.6878;-5.5084;
690.6000;0.6886;-5.5058;
690.9000;0.6870;-5.5084;
691.2000;0.6870;-5.5084;
691.5000;0.6870;-5.5110;
691.8000;0.6870;-5.5136;
692.1000;0.6854;-5.5188;
692.4000;0.6870;-5.5162;
692.7000;0.6838;-5.5214;
693.0000;0.6870;-5.5136;
693.3000;0.6854;-5.5162;
693.6000;0.6829;-5.5162;
693.9000;0.6846;-5.5136;
694.2000;0.6829;-5.5136;
694.5000;0.6870;-5.5058;
694.8000;0.6895;-5.4877;
695.1000;0.6829;-5.5058;
695.4000;0.6838;-5.5110;
695.7000;0.6789;-5.5240;
696.0000;0.6829;-5.5136;
696.3000;0.6838;-5.5136;
696.6000;0.6829;-5.5162;
696.9000;0.6838;-5.5136;
697.2000;0.6854;-5.5058;
697.5000;0.6829;-5.5162;
697.8000;0.6838;-5.5214;
698.1000;0.6821;-5.5136;
698.4000;0.6838;-5.5162;
698.7000;0.6813;-5.5214;
699.0000;0.6862;-5.5162;
699.3000;0.6838;-5.5266;
699.6000;0.6764;-5.5499;
699.9000;0.6805;-5.5318;
700.2000;0.6789;-5.5266;
700.5000;0.6805;-5.5240;
700.8000;0.6797;-5.5188;
701.1000;0.6797;-5.5240;
701.4000;0.6789;-5.5266;
701.7000;0.6789;-5.5136;
702.0000;0.6789;-5.5162;
702.3000;0.6789;-5.5136;
702.6000;0.6781;-5.5188;
702.9000;0.6838;-5.5084;
703.2000;0.6789;-5.5110;
703.5000;0.6781;-5.5110;
703.8000;0.6789;-5.4981;
704.1000;0.6764;-5.5084;
704.4000;0.6748;-5.5058;
704.7000;0.6764;-5.5084;
705.0000;0.6756;-5.5058;
705.3000;0.6748;-5.5032;
705.6000;0.6740;-5.5136;
705.9000;0.6740;-5.5136;
706.2000;0.6740;-5.5136;
706.5000;0.6789;-5.4981;
706.8000;0.6756;-5.4981;
707.1000;0.6764;-5.5007;
707.4000;0.6740;-5.5084;
707.7000;0.6724;-5.5110;
708.0000;0.6732;-5.5084;
708.3000;0.6740;-5.5058;
708.6000;0.6764;-5.4955;
708.9000;0.6740;-5.5007;
709.2000;0.6732;-5.5058;
709.5000;0.6732;-5.4981;
709.8000;0.6732;-5.4955;
710.1000;0.6732;-5.4981;
710.4000;0.6732;-5.5007;
710.7000;0.6716;-5.5084;
711.0000;0.6716;-5.5110;
711.3000;0.6716;-5.5136;
711.6000;0.6699;-5.5084;
711.9000;0.6707;-5.5084;
712.2000;0.6699;-5.5084;
712.5000;0.6699;-5.5110;
712.8000;0.6675;-5.5110;
713.1000;0.6707;-5.5032;
713.4000;0.6691;-5.5058;
713.7000;0.6732;-5.5058;
714.0000;0.6691;-5.5032;
714.3000;0.6691;-5.5084;
714.6000;0.6683;-5.5136;
714.9000;0.6691;-5.5110;
715.2000;0.6683;-5.5188;
715.5000;0.6675;-5.5188;
715.8000;0.6683;-5.5136;
716.1000;0.6610;-5.5292;
716.4000;0.6691;-5.5110;
716.7000;0.6634;-5.5240;
717.0000;0.6675;-5.5162;
717.3000;0.6667;-5.5162;
717.6000;0.6675;-5.5136;
717.9000;0.6667;-5.5214;
718.2000;0.6659;-5.5110;
718.5000;0.6650;-5.5110;
718.8000;0.6667;-5.5032;
719.1000;0.6667;-5.4981;
719.4000;0.6585;-5.5214;
719.7000;0.6634;-5.5058;
720.0000;0.6650;-5.5007;
720.3000;0.6650;-5.4955;
720.6000;0.6650;-5.4981;
720.9000;0.6642;-5.4955;
721.2000;0.6650;-5.4903;
721.5000;0.6683;-5.4877;
721.8000;0.6634;-5.4981;
722.1000;0.6642;-5.4929;
722.4000;0.6650;-5.4851;
722.7000;0.6642;-5.4903;
723.0000;0.6634;-5.4929;
723.3000;0.6650;-5.4903;
723.6000;0.6642;-5.4981;
723.9000;0.6642;-5.4955;
724.2000;0.6634;-5.5032;
724.5000;0.6618;-5.5084;
724.8000;0.6626;-5.4981;
725.1000;0.6634;-5.5032;
725.4000;0.6650;-5.4981;
725.7000;0.6626;-5.4955;
726.0000;0.6618;-5.5058;
726.3000;0.6626;-5.4955;
726.6000;0.6626;-5.4981;
726.9000;0.6659;-5.4955;
727.2000;0.6585;-5.5084;
727.5000;0.6577;-5.5058;
727.8000;0.6593;-5.5058;
728.1000;0.6626;-5.4955;
728.4000;0.6593;-5.4929;
728.7000;0.6610;-5.4903;
729.0000;0.6618;-5.4799;
729.3000;0.6545;-5.4903;
729.6000;0.6610;-5.4773;
729.9000;0.6650;-5.4669;
730.2000;0.6602;-5.4825;
730.5000;0.6593;-5.4825;
730.8000;0.6618;-5.4799;
731.1000;0.6618;-5.4903;
731.4000;0.6593;-5.4903;
731.7000;0.6602;-5.4981;
732.0000;0.6585;-5.5032;
732.3000;0.6593;-5.5084;
732.6000;0.6569;-5.5188;
732.9000;0.6667;-5.4955;
733.2000;0.6585;-5.4981;
733.5000;0.6585;-5.4929;
733.8000;0.6593;-5.4981;
734.1000;0.6593;-5.4955;
734.4000;0.6585;-5.4929;
734.7000;0.6585;-5.4929;
735.0000;0.6585;-5.4955;
735.3000;0.6585;-5.4955;
735.6000;0.6561;-5.4981;
735.9000;0.6593;-5.4825;
736.2000;0.6569;-5.4903;
736.5000;0.6585;-5.4903;
736.8000;0.6528;-5.4981;
737.1000;0.6553;-5.4851;
737.4000;0.6545;-5.4929;
737.7000;0.6553;-5.4981;
738.0000;0.6553;-5.5007;
738.3000;0.6545;-5.5007;
738.6000;0.6553;-5.4955;
738.9000;0.6553;-5.4955;
739.2000;0.6561;-5.4903;
739.5000;0.6545;-5.4981;
739.8000;0.6545;-5.4955;
740.1000;0.6561;-5.4825;
740.4000;0.6528;-5.4877;
740.7000;0.6536;-5.4773;
741.0000;0.6545;-5.4851;
741.3000;0.6553;-5.4825;
741.6000;0.6545;-5.4825;
741.9000;0.6528;-5.4825;
742.2000;0.6528;-5.4799;
742.5000;0.6536;-5.4773;
742.8000;0.6528;-5.4825;
743.1000;0.6585;-5.4747;
743.4000;0.6520;-5.4877;
743.7000;0.6512;-5.4877;
744.0000;0.6520;-5.4903;
744.3000;0.6488;-5.5058;
744.6000;0.6536;-5.4903;
744.9000;0.6512;-5.5007;
745.2000;0.6569;-5.4903;
745.5000;0.6520;-5.5084;
745.8000;0.6528;-5.5084;
746.1000;0.6528;-5.5110;
746.4000;0.6496;-5.5058;
746.7000;0.6536;-5.5032;
747.0000;0.6536;-5.4981;
747.3000;0.6504;-5.4981;
747.6000;0.6520;-5.4903;
747.9000;0.6520;-5.4851;
748.2000;0.6504;-5.4955;
748.5000;0.6504;-5.4929;
748.8000;0.6504;-5.4955;
749.1000;0.6504;-5.4955;
749.4000;0.6553;-5.4799;
749.7000;0.6504;-5.4981;
750.0000;0.6504;-5.5084;
750.3000;0.6520;-5.5058;
750.6000;0.6496;-5.5084;
750.9000;0.6512;-5.4981;
751.2000;0.6455;-5.5032;
751.5000;0.6406;-5.5110;
751.8000;0.6488;-5.4903;
752.1000;0.6496;-5.4825;
752.4000;0.6479;-5.4773;
752.7000;0.6512;-5.4799;
753.0000;0.6504;-5.4851;
753.3000;0.6512;-5.4877;
753.6000;0.6496;-5.4825;
753.9000;0.6496;-5.4825;
754.2000;0.6479;-5.4799;
754.5000;0.6528;-5.4825;
754.8000;0.6488;-5.4799;
755.1000;0.6496;-5.4799;
755.4000;0.6496;-5.4773;
755.7000;0.6488;-5.4773;
756.0000;0.6479;-5.4721;
756.3000;0.6488;-5.4747;
756.6000;0.6488;-5.4721;
756.9000;0.6479;-5.4799;
757.2000;0.6504;-5.4851;
757.5000;0.6463;-5.5007;
757.8000;0.6463;-5.5007;
758.1000;0.6471;-5.4877;
758.4000;0.6479;-5.4903;
758.7000;0.6471;-5.4929;
759.0000;0.6471;-5.5007;
759.3000;0.6447;-5.4903;
759.6000;0.6455;-5.4903;
759.9000;0.6463;-5.4851;
760.2000;0.6463;-5.4877;
760.5000;0.6471;-5.4877;
760.8000;0.6455;-5.4877;
761.1000;0.6447;-5.4955;
761.4000;0.6471;-5.4929;
761.7000;0.6390;-5.5162;
762.0000;0.6431;-5.4903;
762.3000;0.6455;-5.4851;
762.6000;0.6447;-5.4877;
762.9000;0.6447;-5.4903;
763.2000;0.6496;-5.4773;
763.5000;0.6455;-5.4903;
763.8000;0.6439;-5.4955;
764.1000;0.6455;-5.4851;
764.4000;0.6463;-5.4825;
764.7000;0.6455;-5.4825;
765.0000;0.6479;-5.4825;
765.3000;0.6463;-5.4825;
765.6000;0.6439;-5.4929;
765.9000;0.6455;-5.4877;
766.2000;0.6431;-5.4955;
766.5000;0.6447;-5.4955;
766.8000;0.6439;-5.4903;
767.1000;0.6447;-5.4877;
767.4000;0.6439;-5.4825;
767.7000;0.6447;-5.4903;
768.0000;0.6422;-5.4981;
768.3000;0.6471;-5.4981;
768.6000;0.6455;-5.4955;
768.9000;0.6431;-5.5058;
769.2000;0.6382;-5.5136;
769.5000;0.6357;-5.5162;
769.8000;0.6447;-5.4981;
770.1000;0.6439;-5.4955;
770.4000;0.6422;-5.4981;
770.7000;0.6431;-5.4929;
771.0000;0.6422;-5.4877;
771.3000;0.6406;-5.4903;
771.6000;0.6422;-5.4877;
771.9000;0.6414;-5.4825;
772.2000;0.6422;-5.4799;
772.5000;0.6431;-5.4877;
772.8000;0.6422;-5.4929;
773.1000;0.6431;-5.4851;
773.4000;0.6422;-5.4929;
773.7000;0.6422;-5.4929;
774.0000;0.6422;-5.4903;
774.3000;0.6382;-5.4929;
774.6000;0.6365;-5.4929;
774.9000;0.6414;-5.4799;
775.2000;0.6406;-5.4877;
775.5000;0.6390;-5.4825;
775.8000;0.6406;-5.4825;
776.1000;0.6382;-5.4929;
776.4000;0.6398;-5.4903;
776.7000;0.6398;-5.4877;
777.0000;0.6414;-5.4851;
777.3000;0.6414;-5.4877;
777.6000;0.6390;-5.4929;
777.9000;0.6414;-5.4877;
778.2000;0.6398;-5.4903;
778.5000;0.6406;-5.4929;
778.8000;0.6406;-5.4929;
779.1000;0.6398;-5.4981;
779.4000;0.6398;-5.4955;
779.7000;0.6439;-5.4773;
780.0000;0.6398;-5.4851;
780.3000;0.6382;-5.4877;
780.6000;0.6333;-5.4981;
780.9000;0.6390;-5.4903;
781.2000;0.6406;-5.4929;
781.5000;0.6390;-5.4929;
781.8000;0.6382;-5.4903;
782.1000;0.6398;-5.4851;
782.4000;0.6406;-5.4799;
782.7000;0.6398;-5.4773;
783.0000;0.6422;-5.4669;
783.3000;0.6357;-5.4799;
783.6000;0.6390;-5.4747;
783.9000;0.6382;-5.4799;
784.2000;0.6390;-5.4773;
784.5000;0.6390;-5.4747;
784.8000;0.6374;-5.4851;
785.1000;0.6325;-5.4981;
785.4000;0.6365;-5.4877;
785.7000;0.6365;-5.4825;
786.0000;0.6325;-5.4877;
786.3000;0.6406;-5.4669;
786.6000;0.6374;-5.4825;
786.9000;0.6382;-5.4773;
787.2000;0.6382;-5.4799;
787.5000;0.6406;-5.4825;
787.8000;0.6374;-5.4877;
788.1000;0.6406;-5.4877;
788.4000;0.6365;-5.4851;
788.7000;0.6357;-5.4981;
789.0000;0.6374;-5.5007;
789.3000;0.6374;-5.5084;
789.6000;0.6349;-5.5110;
789.9000;0.6357;-5.5058;
790.2000;0.6374;-5.5032;
790.5000;0.6374;-5.4903;
790.8000;0.6365;-5.4851;
791.1000;0.6357;-5.4877;
791.4000;0.6431;-5.4669;
791.7000;0.6365;-5.4851;
792.0000;0.6357;-5.4851;
792.3000;0.6357;-5.4877;
792.6000;0.6374;-5.4721;
792.9000;0.6382;-5.4721;
793.2000;0.6357;-5.4747;
793.5000;0.6374;-5.4773;
793.8000;0.6374;-5.4747;
794.1000;0.6365;-5.4747;
794.4000;0.6357;-5.4851;
794.7000;0.6357;-5.4903;
795.0000;0.6341;-5.4929;
795.3000;0.6357;-5.4825;
795.6000;0.6374;-5.4747;
795.9000;0.6349;-5.4799;
796.2000;0.6365;-5.4747;
796.5000;0.6357;-5.4747;
796.8000;0.6349;-5.4825;
797.1000;0.6349;-5.4773;
797.4000;0.6349;-5.4721;
797.7000;0.6333;-5.4747;
798.0000;0.6365;-5.4695;
798.3000;0.6365;-5.4773;
798.6000;0.6357;-5.4773;
798.9000;0.6341;-5.4747;
799.2000;0.6325;-5.4695;
799.5000;0.6341;-5.4721;
799.8000;0.6317;-5.4825;
800.1000;0.6292;-5.4851;
800.4000;0.6325;-5.4799;
800.7000;0.6317;-5.4799;
801.0000;0.6317;-5.4851;
801.3000;0.6333;-5.4825;
801.6000;0.6309;-5.4877;
801.9000;0.6284;-5.4903;
802.2000;0.6333;-5.4799;
802.5000;0.6333;-5.4747;
802.8000;0.6325;-5.4773;
803.1000;0.6349;-5.4747;
803.4000;0.6349;-5.4669;
803.7000;0.6349;-5.4592;
804.0000;0.6341;-5.4643;
804.3000;0.6341;-5.4747;
804.6000;0.6333;-5.4799;
804.9000;0.6333;-5.4825;
805.2000;0.6309;-5.4877;
805.5000;0.6317;-5.4877;
805.8000;0.6317;-5.4877;
806.1000;0.6341;-5.4799;
806.4000;0.6341;-5.4903;
806.7000;0.6341;-5.4981;
807.0000;0.6333;-5.4955;
807.3000;0.6325;-5.5007;
807.6000;0.6325;-5.4955;
807.9000;0.6317;-5.4981;
808.2000;0.6390;-5.4773;
808.5000;0.6300;-5.5007;
808.8000;0.6309;-5.4929;
809.1000;0.6309;-5.5007;
809.4000;0.6325;-5.4903;
809.7000;0.6317;-5.5084;
810.0000;0.6325;-5.5058;
810.3000;0.6252;-5.5084;
810.6000;0.6284;-5.4955;
810.9000;0.6309;-5.4877;
811.2000;0.6300;-5.4877;
811.5000;0.6300;-5.4825;
811.8000;0.6317;-5.4825;
812.1000;0.6406;-5.4618;
812.4000;0.6317;-5.4851;
812.7000;0.6333;-5.4877;
813.0000;0.6325;-5.4903;
813.3000;0.6309;-5.4929;
813.6000;0.6309;-5.5007;
813.9000;0.6309;-5.5032;
814.2000;0.6317;-5.5007;
814.5000;0.6365;-5.4877;
814.8000;0.6292;-5.4981;
815.1000;0.6309;-5.4851;
815.4000;0.6300;-5.4851;
815.7000;0.6325;-5.4747;
816.0000;0.6341;-5.4721;
816.3000;0.6333;-5.4773;
816.6000;0.6309;-5.4851;
816.9000;0.6300;-5.4877;
817.2000;0.6300;-5.4773;
817.5000;0.6292;-5.4825;
817.8000;0.6309;-5.4851;
818.1000;0.6292;-5.4877;
818.4000;0.6333;-5.4747;
818.7000;0.6325;-5.4721;
819.0000;0.6317;-5.4721;
819.3000;0.6292;-5.4825;
819.6000;0.6325;-5.4721;
819.9000;0.6309;-5.4747;
820.2000;0.6276;-5.4825;
820.5000;0.6252;-5.4721;
820.8000;0.6284;-5.4721;
821.1000;0.6252;-5.4747;
821.4000;0.6268;-5.4747;
821.7000;0.6276;-5.4773;
822.0000;0.6276;-5.4851;
822.3000;0.6300;-5.4825;
822.6000;0.6284;-5.4877;
822.9000;0.6317;-5.4903;
823.2000;0.6292;-5.4929;
823.5000;0.6300;-5.4825;
823.8000;0.6284;-5.4799;
824.1000;0.6300;-5.4877;
824.4000;0.6309;-5.4825;
824.7000;0.6276;-5.4929;
825.0000;0.6276;-5.4851;
825.3000;0.6252;-5.4955;
825.6000;0.6268;-5.4929;
825.9000;0.6252;-5.4851;
826.2000;0.6309;-5.4799;
826.5000;0.6268;-5.4877;
826.8000;0.6260;-5.4955;
827.1000;0.6292;-5.4955;
827.4000;0.6292;-5.4955;
827.7000;0.6276;-5.5007;
828.0000;0.6268;-5.4955;
828.3000;0.6268;-5.4955;
828.6000;0.6284;-5.4877;
828.9000;0.6284;-5.4773;
829.2000;0.6292;-5.4721;
829.5000;0.6276;-5.4721;
829.8000;0.6268;-5.4799;
830.1000;0.6243;-5.4877;
830.4000;0.6268;-5.4851;
830.7000;0.6260;-5.4851;
831.0000;0.6260;-5.4903;
831.3000;0.6260;-5.4929;
831.6000;0.6252;-5.4929;
831.9000;0.6252;-5.4877;
832.2000;0.6235;-5.4877;
832.5000;0.6252;-5.4799;
832.8000;0.6235;-5.4851;
833.1000;0.6260;-5.4773;
833.4000;0.6243;-5.4747;
833.7000;0.6252;-5.4747;
834.0000;0.6252;-5.4592;
834.3000;0.6235;-5.4592;
834.6000;0.6252;-5.4488;
834.9000;0.6260;-5.4462;
835.2000;0.6252;-5.4514;
835.5000;0.6252;-5.4540;
835.8000;0.6243;-5.4618;
836.1000;0.6243;-5.4592;
836.4000;0.6235;-5.4695;
836.7000;0.6341;-5.4436;
837.0000;0.6252;-5.4721;
837.3000;0.6260;-5.4695;
837.6000;0.6268;-5.4669;
837.9000;0.6260;-5.4643;
838.2000;0.6235;-5.4695;
838.5000;0.6219;-5.4773;
838.8000;0.6252;-5.4695;
839.1000;0.6252;-5.4695;
839.4000;0.6243;-5.4695;
839.7000;0.6260;-5.4669;
840.0000;0.6252;-5.4618;
840.3000;0.6268;-5.4540;
840.6000;0.6252;-5.4566;
840.9000;0.6252;-5.4643;
841.2000;0.6243;-5.4643;
841.5000;0.6235;-5.4721;
841.8000;0.6252;-5.4747;
842.1000;0.6276;-5.4799;
842.4000;0.6260;-5.4851;
842.7000;0.6260;-5.4773;
843.0000;0.6252;-5.4825;
843.3000;0.6203;-5.4903;
843.6000;0.6243;-5.4773;
843.9000;0.6243;-5.4773;
844.2000;0.6235;-5.4825;
844.5000;0.6227;-5.4825;
844.8000;0.6235;-5.4721;
845.1000;0.6235;-5.4669;
845.4000;0.6276;-5.4566;
845.7000;0.6219;-5.4773;
846.0000;0.6292;-5.4643;
846.3000;0.6203;-5.4825;
846.6000;0.6235;-5.4721;
846.9000;0.6235;-5.4695;
847.2000;0.6219;-5.4695;
847.5000;0.6219;-5.4669;
847.8000;0.6219;-5.4721;
848.1000;0.6235;-5.4721;
848.4000;0.6227;-5.4721;
848.7000;0.6227;-5.4773;
849.0000;0.6235;-5.4669;
849.3000;0.6235;-5.4643;
849.6000;0.6219;-5.4669;
849.9000;0.6235;-5.4695;
850.2000;0.6235;-5.4695;
850.5000;0.6235;-5.4747;
850.8000;0.6235;-5.4773;
851.1000;0.6219;-5.4799;
851.4000;0.6243;-5.4669;
851.7000;0.6227;-5.4669;
852.0000;0.6243;-5.4488;
852.3000;0.6235;-5.4669;
852.6000;0.6235;-5.4566;
852.9000;0.6235;-5.4592;
853.2000;0.6252;-5.4462;
853.5000;0.6227;-5.4540;
853.8000;0.6227;-5.4514;
854.1000;0.6227;-5.4488;
854.4000;0.6227;-5.4462;
854.7000;0.6219;-5.4436;
855.0000;0.6260;-5.4384;
855.3000;0.6252;-5.4332;
855.6000;0.6219;-5.4566;
855.9000;0.6227;-5.4514;
856.2000;0.6252;-5.4514;
856.5000;0.6211;-5.4618;
856.8000;0.6219;-5.4540;
857.1000;0.6186;-5.4618;
857.4000;0.6211;-5.4514;
857.7000;0.6203;-5.4566;
858.0000;0.6211;-5.4540;
858.3000;0.6252;-5.4410;
858.6000;0.6203;-5.4488;
858.9000;0.6211;-5.4410;
859.2000;0.6178;-5.4436;
859.5000;0.6211;-5.4332;
859.8000;0.6211;-5.4384;
860.1000;0.6195;-5.4488;
860.4000;0.6162;-5.4643;
860.7000;0.6276;-5.4514;
861.0000;0.6235;-5.4592;
861.3000;0.6178;-5.4695;
861.6000;0.6227;-5.4540;
861.9000;0.6211;-5.4514;
862.2000;0.6211;-5.4462;
862.5000;0.6227;-5.4436;
862.8000;0.6203;-5.4488;
863.1000;0.6203;-5.4436;
863.4000;0.6219;-5.4488;
863.7000;0.6211;-5.4488;
864.0000;0.6211;-5.4462;
864.3000;0.6203;-5.4592;
864.6000;0.6227;-5.4514;
864.9000;0.6219;-5.4514;
865.2000;0.6195;-5.4514;
865.5000;0.6162;-5.4592;
865.8000;0.6211;-5.4462;
866.1000;0.6195;-5.4488;
866.4000;0.6186;-5.4436;
866.7000;0.6186;-5.4488;
867.0000;0.6203;-5.4488;
867.3000;0.6219;-5.4488;
867.6000;0.6162;-5.4669;
867.9000;0.6203;-5.4592;
868.2000;0.6186;-5.4669;
868.5000;0.6170;-5.4643;
868.8000;0.6170;-5.4592;
869.1000;0.6203;-5.4540;
869.4000;0.6178;-5.4695;
869.7000;0.6203;-5.4618;
870.0000;0.6203;-5.4669;
870.3000;0.6195;-5.4695;
870.6000;0.6203;-5.4669;
870.9000;0.6195;-5.4618;
871.2000;0.6203;-5.4618;
871.5000;0.6170;-5.4669;
871.8000;0.6195;-5.4669;
872.1000;0.6203;-5.4618;
872.4000;0.6186;-5.4643;
872.7000;0.6211;-5.4618;
873.0000;0.6178;-5.4747;
873.3000;0.6186;-5.4721;
873.6000;0.6186;-5.4773;
873.9000;0.6186;-5.4799;
874.2000;0.6170;-5.4799;
874.5000;0.6186;-5.4618;
874.8000;0.6195;-5.4643;
875.1000;0.6178;-5.4695;
875.4000;0.6203;-5.4643;
875.7000;0.6195;-5.4721;
876.0000;0.6195;-5.4643;
876.3000;0.6211;-5.4592;
876.6000;0.6211;-5.4643;
876.9000;0.6195;-5.4592;
877.2000;0.6203;-5.4514;
877.5000;0.6195;-5.4540;
877.8000;0.6170;-5.4721;
878.1000;0.6195;-5.4592;
878.4000;0.6178;-5.4592;
878.7000;0.6186;-5.4514;
879.0000;0.6154;-5.4695;
879.3000;0.6186;-5.4643;
879.6000;0.6186;-5.4618;
879.9000;0.6178;-5.4669;
880.2000;0.6162;-5.4747;
880.5000;0.6121;-5.4877;
880.8000;0.6178;-5.4747;
881.1000;0.6178;-5.4695;
881.4000;0.6162;-5.4695;
881.7000;0.6178;-5.4540;
882.0000;0.6170;-5.4643;
882.3000;0.6170;-5.4643;
882.6000;0.6178;-5.4669;
882.9000;0.6170;-5.4721;
883.2000;0.6138;-5.4721;
883.5000;0.6162;-5.4643;
883.8000;0.6170;-5.4566;
884.1000;0.6178;-5.4462;
884.4000;0.6154;-5.4436;
884.7000;0.6162;-5.4488;
885.0000;0.6186;-5.4488;
885.3000;0.6195;-5.4488;
885.6000;0.6195;-5.4566;
885.9000;0.6186;-5.4618;
886.2000;0.6195;-5.4643;
886.5000;0.6186;-5.4747;
886.8000;0.6178;-5.4747;
887.1000;0.6178;-5.4747;
887.4000;0.6186;-5.4618;
887.7000;0.6178;-5.4695;
888.0000;0.6146;-5.4851;
888.3000;0.6170;-5.4799;
888.6000;0.6178;-5.4747;
888.9000;0.6195;-5.4721;
889.2000;0.6178;-5.4721;
889.5000;0.6170;-5.4773;
889.8000;0.6178;-5.4747;
890.1000;0.6186;-5.4721;
890.4000;0.6170;-5.4695;
890.7000;0.6170;-5.4721;
891.0000;0.6178;-5.4721;
891.3000;0.6170;-5.4669;
891.6000;0.6178;-5.4618;
891.9000;0.6170;-5.4592;
892.2000;0.6162;-5.4514;
892.5000;0.6154;-5.4540;
892.8000;0.6170;-5.4384;
893.1000;0.6178;-5.4436;
893.4000;0.6162;-5.4488;
893.7000;0.6162;-5.4514;
894.0000;0.6170;-5.4566;
894.3000;0.6162;-5.4618;
894.6000;0.6170;-5.4618;
894.9000;0.6154;-5.4643;
895.2000;0.6138;-5.4721;
895.5000;0.6162;-5.4721;
895.8000;0.6178;-5.4643;
896.1000;0.6162;-5.4669;
896.4000;0.6186;-5.4592;
896.7000;0.6170;-5.4695;
897.0000;0.6138;-5.4747;
897.3000;0.6154;-5.4669;
897.6000;0.6162;-5.4721;
897.9000;0.6170;-5.4721;
898.2000;0.6162;-5.4799;
898.5000;0.6162;-5.4851;
898.8000;0.6178;-5.4851;
899.1000;0.6170;-5.4825;
899.4000;0.6186;-5.4799;
899.7000;0.6170;-5.4773;
900.0000;0.6162;-5.4721;
900.3000;0.6162;-5.4773;
900.6000;0.6138;-5.4825;
900.9000;0.6170;-5.4799;
901.2000;0.6162;-5.4825;
901.5000;0.6154;-5.4877;
901.8000;0.6154;-5.4929;
902.1000;0.6146;-5.4903;
902.4000;0.6154;-5.4877;
902.7000;0.6162;-5.4955;
903.0000;0.6186;-5.4903;
903.3000;0.6154;-5.4929;
903.6000;0.6146;-5.4955;
903.9000;0.6146;-5.4799;
904.2000;0.6105;-5.4903;
904.5000;0.6162;-5.4825;
904.8000;0.6154;-5.4747;
905.1000;0.6154;-5.4747;
905.4000;0.6178;-5.4669;
905.7000;0.6154;-5.4695;
906.0000;0.6146;-5.4773;
906.3000;0.6121;-5.4851;
906.6000;0.6138;-5.4851;
906.9000;0.6162;-5.4721;
907.2000;0.6162;-5.4618;
907.5000;0.6162;-5.4540;
907.8000;0.6162;-5.4592;
908.1000;0.6170;-5.4695;
908.4000;0.6170;-5.4747;
908.7000;0.6154;-5.4851;
909.0000;0.6162;-5.4903;
909.3000;0.6154;-5.4981;
909.6000;0.6235;-5.4747;
909.9000;0.6154;-5.4877;
910.2000;0.6146;-5.4903;
910.5000;0.6170;-5.4851;
910.8000;0.6170;-5.4825;
911.1000;0.6146;-5.4903;
911.4000;0.6146;-5.4773;
911.7000;0.6162;-5.4669;
912.0000;0.6146;-5.4669;
912.3000;0.6146;-5.4721;
912.6000;0.6178;-5.4669;
912.9000;0.6154;-5.4721;
913.2000;0.6154;-5.4721;
913.5000;0.6146;-5.4618;
913.8000;0.6146;-5.4695;
914.1000;0.6105;-5.4773;
914.4000;0.6211;-5.4540;
914.7000;0.6129;-5.4695;
915.0000;0.6138;-5.4695;
915.3000;0.6162;-5.4669;
915.6000;0.6129;-5.4695;
915.9000;0.6195;-5.4462;
916.2000;0.6129;-5.4618;
916.5000;0.6121;-5.4643;
916.8000;0.6154;-5.4669;
917.1000;0.6154;-5.4566;
917.4000;0.6170;-5.4488;
917.7000;0.6081;-5.4773;
918.0000;0.6146;-5.4747;
918.3000;0.6154;-5.4773;
918.6000;0.6146;-5.4851;
918.9000;0.6154;-5.4851;
919.2000;0.6129;-5.4929;
919.5000;0.6129;-5.4981;
919.8000;0.6211;-5.4825;
920.1000;0.6138;-5.4981;
920.4000;0.6138;-5.4955;
920.7000;0.6138;-5.4903;
921.0000;0.6146;-5.4955;
921.3000;0.6138;-5.5007;
921.6000;0.6154;-5.4929;
921.9000;0.6129;-5.4929;
922.2000;0.6129;-5.4799;
922.5000;0.6162;-5.4695;
922.8000;0.6154;-5.4799;
923.1000;0.6129;-5.4825;
923.4000;0.6154;-5.4747;
923.7000;0.6129;-5.4721;
924.0000;0.6129;-5.4773;
924.3000;0.6138;-5.4721;
924.6000;0.6113;-5.4747;
924.9000;0.6129;-5.4747;
925.2000;0.6056;-5.4903;
925.5000;0.6129;-5.4669;
925.8000;0.6129;-5.4695;
926.1000;0.6154;-5.4566;
926.4000;0.6129;-5.4592;
926.7000;0.6097;-5.4669;
927.0000;0.6129;-5.4566;
927.3000;0.6138;-5.4592;
927.6000;0.6162;-5.4566;
927.9000;0.6138;-5.4721;
928.2000;0.6072;-5.4851;
928.5000;0.6162;-5.4669;
928.8000;0.6138;-5.4747;
929.1000;0.6113;-5.4825;
929.4000;0.6121;-5.4773;
929.7000;0.6121;-5.4669;
930.0000;0.6129;-5.4695;
930.3000;0.6113;-5.4747;
930.6000;0.6097;-5.4747;
930.9000;0.6097;-5.4825;
931.2000;0.6113;-5.4747;
931.5000;0.6129;-5.4669;
931.8000;0.6121;-5.4747;
932.1000;0.6129;-5.4747;
932.4000;0.6146;-5.4695;
932.7000;0.6129;-5.4747;
933.0000;0.6121;-5.4747;
933.3000;0.6203;-5.4514;
933.6000;0.6138;-5.4540;
933.9000;0.6138;-5.4643;
934.2000;0.6146;-5.4721;
934.5000;0.6146;-5.4721;
934.8000;0.6121;-5.4721;
935.1000;0.6138;-5.4721;
935.4000;0.6040;-5.4825;
935.7000;0.6113;-5.4592;
936.0000;0.6081;-5.4695;
936.3000;0.6072;-5.4773;
936.6000;0.6129;-5.4618;
936.9000;0.6129;-5.4618;
937.2000;0.6089;-5.4643;
937.5000;0.6154;-5.4488;
937.8000;0.6138;-5.4592;
938.1000;0.6089;-5.4721;
938.4000;0.6048;-5.4799;
938.7000;0.6113;-5.4618;
939.0000;0.6121;-5.4566;
939.3000;0.6113;-5.4540;
939.6000;0.6105;-5.4514;
939.9000;0.6121;-5.4462;
940.2000;0.6105;-5.4540;
940.5000;0.6105;-5.4643;
940.8000;0.6048;-5.4747;
941.1000;0.6113;-5.4669;
941.4000;0.6146;-5.4488;
941.7000;0.6097;-5.4669;
942.0000;0.6097;-5.4695;
942.3000;0.6113;-5.4695;
942.6000;0.6121;-5.4773;
942.9000;0.6097;-5.4799;
943.2000;0.6129;-5.4643;
943.5000;0.6121;-5.4618;
943.8000;0.6178;-5.4514;
944.1000;0.6121;-5.4669;
944.4000;0.6129;-5.4747;
944.7000;0.6113;-5.4825;
945.0000;0.6121;-5.4799;
945.3000;0.6089;-5.4851;
945.6000;0.6113;-5.4799;
945.9000;0.6121;-5.4721;
946.2000;0.6121;-5.4721;
946.5000;0.6138;-5.4747;
946.8000;0.6138;-5.4695;
947.1000;0.6105;-5.4773;
947.4000;0.6081;-5.4877;
947.7000;0.6129;-5.4747;
948.0000;0.6121;-5.4825;
948.3000;0.6089;-5.4851;
948.6000;0.6097;-5.4747;
948.9000;0.6129;-5.4695;
949.2000;0.6113;-5.4669;
949.5000;0.6089;-5.4721;
949.8000;0.6105;-5.4695;
950.1000;0.6154;-5.4488;
950.4000;0.6113;-5.4618;
950.7000;0.6105;-5.4747;
951.0000;0.6089;-5.4669;
951.3000;0.6113;-5.4592;
951.6000;0.6105;-5.4721;
951.9000;0.6089;-5.4695;
952.2000;0.6089;-5.4721;
952.5000;0.6105;-5.4618;
952.8000;0.6113;-5.4566;
953.1000;0.6040;-5.4799;
953.4000;0.6089;-5.4747;
953.7000;0.6113;-5.4747;
954.0000;0.6129;-5.4747;
954.3000;0.6195;-5.4488;
954.6000;0.6121;-5.4721;
954.9000;0.6097;-5.4799;
955.2000;0.6105;-5.4773;
955.5000;0.6113;-5.4721;
955.8000;0.6105;-5.4643;
956.1000;0.6097;-5.4669;
956.4000;0.6113;-5.4618;
956.7000;0.6113;-5.4669;
957.0000;0.6129;-5.4566;
957.3000;0.6089;-5.4669;
957.6000;0.6129;-5.4514;
957.9000;0.6121;-5.4566;
958.2000;0.6121;-5.4669;
958.5000;0.6113;-5.4669;
958.8000;0.6105;-5.4540;
959.1000;0.6113;-5.4462;
959.4000;0.6178;-5.4384;
959.7000;0.6081;-5.4592;
960.0000;0.6089;-5.4592;
960.3000;0.6089;-5.4540;
960.6000;0.6048;-5.4566;
960.9000;0.6097;-5.4540;
961.2000;0.6097;-5.4643;
961.5000;0.6129;-5.4566;
961.8000;0.6105;-5.4592;
962.1000;0.6121;-5.4540;
962.4000;0.6146;-5.4462;
962.7000;0.6105;-5.4618;
963.0000;0.6089;-5.4721;
963.3000;0.6097;-5.4721;
963.6000;0.6113;-5.4618;
963.9000;0.6081;-5.4669;
964.2000;0.6113;-5.4566;
964.5000;0.6113;-5.4566;
964.8000;0.6072;-5.4669;
965.1000;0.6089;-5.4669;
965.4000;0.6138;-5.4566;
965.7000;0.6089;-5.4695;
966.0000;0.6072;-5.4669;
966.3000;0.6072;-5.4721;
966.6000;0.6089;-5.4747;
966.9000;0.6089;-5.4799;
967.2000;0.6105;-5.4825;
967.5000;0.6097;-5.4955;
967.8000;0.6097;-5.4929;
968.1000;0.6089;-5.4955;
968.4000;0.6064;-5.4929;
968.7000;0.6089;-5.4877;
969.0000;0.6105;-5.4799;
969.3000;0.6089;-5.4825;
969.6000;0.6105;-5.4799;
969.9000;0.6105;-5.4799;
970.2000;0.6113;-5.4773;
970.5000;0.6064;-5.4851;
970.8000;0.6105;-5.4747;
971.1000;0.6089;-5.4721;
971.4000;0.6097;-5.4643;
971.7000;0.6072;-5.4669;
972.0000;0.6097;-5.4695;
972.3000;0.6113;-5.4643;
972.6000;0.6072;-5.4695;
972.9000;0.6081;-5.4592;
973.2000;0.6064;-5.4669;
973.5000;0.6072;-5.4669;
973.8000;0.6089;-5.4669;
974.1000;0.6072;-5.4825;
974.4000;0.6097;-5.4825;
974.7000;0.6081;-5.4825;
975.0000;0.6105;-5.4773;
975.3000;0.6048;-5.4929;
975.6000;0.6064;-5.4877;
975.9000;0.6089;-5.4903;
976.2000;0.6056;-5.4929;
976.5000;0.6121;-5.4773;
976.8000;0.6081;-5.4851;
977.1000;0.6089;-5.4851;
977.4000;0.6105;-5.4903;
977.7000;0.6089;-5.4981;
978.0000;0.6089;-5.5032;
978.3000;0.6089;-5.5110;
978.6000;0.6113;-5.4929;
978.9000;0.6081;-5.5032;
979.2000;0.6089;-5.5032;
979.5000;0.6064;-5.5110;
979.8000;0.6097;-5.4851;
980.1000;0.6089;-5.5058;
980.4000;0.6089;-5.5032;
980.7000;0.6089;-5.5007;
981.0000;0.6089;-5.4955;
981.3000;0.6072;-5.4981;
981.6000;0.6081;-5.4981;
981.9000;0.6064;-5.5007;
982.2000;0.6064;-5.4955;
982.5000;0.6056;-5.5032;
982.8000;0.6081;-5.4929;
983.1000;0.6064;-5.4955;
983.4000;0.6081;-5.4903;
983.7000;0.6072;-5.4903;
984.0000;0.6040;-5.5007;
984.3000;0.6064;-5.5007;
984.6000;0.6056;-5.5007;
984.9000;0.6089;-5.5007;
985.2000;0.6089;-5.4903;
985.5000;0.6072;-5.4877;
985.8000;0.6097;-5.4903;
986.1000;0.6072;-5.5007;
986.4000;0.6097;-5.4981;
986.7000;0.6081;-5.4981;
987.0000;0.6089;-5.4903;
987.3000;0.6097;-5.4929;
987.6000;0.6105;-5.4903;
987.9000;0.6072;-5.4929;
988.2000;0.6089;-5.4929;
988.5000;0.6081;-5.5007;
988.8000;0.6089;-5.5058;
989.1000;0.6089;-5.5136;
989.4000;0.6081;-5.5188;
989.7000;0.6089;-5.5110;
990.0000;0.6089;-5.5162;
990.3000;0.6081;-5.5110;
990.6000;0.6081;-5.5110;
990.9000;0.6081;-5.5110;
991.2000;0.6081;-5.5032;
991.5000;0.6072;-5.4929;
991.8000;0.6081;-5.4877;
992.1000;0.6072;-5.4825;
992.4000;0.6081;-5.4825;
992.7000;0.6081;-5.4825;
993.0000;0.6072;-5.4851;
993.3000;0.6072;-5.4799;
993.6000;0.6072;-5.4747;
993.9000;0.6089;-5.4799;
994.2000;0.6072;-5.4851;
994.5000;0.6064;-5.4825;
994.8000;0.6072;-5.4825;
995.1000;0.6072;-5.4851;
995.4000;0.6072;-5.4851;
995.7000;0.6064;-5.4825;
996.0000;0.6072;-5.4721;
996.3000;0.6081;-5.4747;
996.6000;0.6072;-5.4747;
996.9000;0.6072;-5.4695;
997.2000;0.6064;-5.4669;
997.5000;0.6072;-5.4695;
997.8000;0.6072;-5.4799;
998.1000;0.6064;-5.4773;
998.4000;0.6072;-5.4669;
998.7000;0.6072;-5.4643;
999.0000;0.6081;-5.4618;
999.3000;0.6040;-5.4799;
999.6000;0.6064;-5.4773;
999.9000;0.6072;-5.4747;
1000.2000;0.6072;-5.4721;
1000.5000;0.6097;-5.4773;
1000.8000;0.6081;-5.4799;
1001.1000;0.6089;-5.4747;
1001.4000;0.6072;-5.4669;
1001.7000;0.6081;-5.4669;
1002.0000;0.6081;-5.4695;
1002.3000;0.6064;-5.4825;
1002.6000;0.6081;-5.4851;
1002.9000;0.6072;-5.4825;
1003.2000;0.6072;-5.4877;
1003.5000;0.6072;-5.4903;
1003.8000;0.6081;-5.4929;
1004.1000;0.6081;-5.4955;
1004.4000;0.6089;-5.4955;
1004.7000;0.6072;-5.4851;
1005.0000;0.6056;-5.4877;
1005.3000;0.6089;-5.4773;
1005.6000;0.6097;-5.4773;
1005.9000;0.6081;-5.4721;
1006.2000;0.6072;-5.4747;
1006.5000;0.6138;-5.4540;
1006.8000;0.6081;-5.4695;
1007.1000;0.6072;-5.4695;
1007.4000;0.6072;-5.4799;
1007.7000;0.6064;-5.4851;
1008.0000;0.6007;-5.4903;
1008.3000;0.6048;-5.4695;
1008.6000;0.6048;-5.4721;
1008.9000;0.6056;-5.4695;
1009.2000;0.6064;-5.4669;
1009.5000;0.6056;-5.4695;
1009.8000;0.6072;-5.4747;
1010.1000;0.6072;-5.4773;
1010.4000;0.6064;-5.4773;
1010.7000;0.6072;-5.4825;
1011.0000;0.6072;-5.4799;
1011.3000;0.6064;-5.4799;
1011.6000;0.6072;-5.4799;
1011.9000;0.6081;-5.4825;
1012.2000;0.6072;-5.4721;
1012.5000;0.6072;-5.4669;
1012.8000;0.6072;-5.4618;
1013.1000;0.6072;-5.4695;
1013.4000;0.6072;-5.4747;
1013.7000;0.6048;-5.4773;
1014.0000;0.6064;-5.4773;
1014.3000;0.6089;-5.4799;
1014.6000;0.6081;-5.4799;
1014.9000;0.6064;-5.4799;
1015.2000;0.6072;-5.4773;
1015.5000;0.6064;-5.4773;
1015.8000;0.6072;-5.4773;
1016.1000;0.6032;-5.4825;
1016.4000;0.6064;-5.4851;
1016.7000;0.6064;-5.4773;
1017.0000;0.6129;-5.4566;
1017.3000;0.6064;-5.4825;
1017.6000;0.6056;-5.4877;
1017.9000;0.6072;-5.4825;
1018.2000;0.6064;-5.4903;
1018.5000;0.6064;-5.4825;
1018.8000;0.6056;-5.4825;
1019.1000;0.6072;-5.4773;
1019.4000;0.6064;-5.4721;
1019.7000;0.6056;-5.4695;
1020.0000;0.6048;-5.4669;
1020.3000;0.6064;-5.4643;
1020.6000;0.6064;-5.4592;
1020.9000;0.6064;-5.4592;
1021.2000;0.6056;-5.4592;
1021.5000;0.6048;-5.4643;
1021.8000;0.6040;-5.4721;
1022.1000;0.6048;-5.4695;
1022.4000;0.6048;-5.4721;
1022.7000;0.6056;-5.4773;
1023.0000;0.6056;-5.4851;
1023.3000;0.6089;-5.4721;
1023.6000;0.6056;-5.4773;
1023.9000;0.6056;-5.4773;
1024.2000;0.6056;-5.4669;
1024.5000;0.6048;-5.4618;
1024.8000;0.6064;-5.4540;
1025.1000;0.6015;-5.4618;
1025.4000;0.6032;-5.4566;
1025.7000;0.6056;-5.4540;
1026.0000;0.6056;-5.4514;
1026.3000;0.6048;-5.4566;
1026.6000;0.5999;-5.4799;
1026.9000;0.6072;-5.4695;
1027.2000;0.6056;-5.4695;
1027.5000;0.6015;-5.4799;
1027.8000;0.6064;-5.4669;
1028.1000;0.6040;-5.4799;
1028.4000;0.6056;-5.4669;
1028.7000;0.6056;-5.4643;
1029.0000;0.6072;-5.4643;
1029.3000;0.6048;-5.4747;
1029.6000;0.6048;-5.4747;
1029.9000;0.6064;-5.4695;
1030.2000;0.6048;-5.4799;
1030.5000;0.6040;-5.4877;
1030.8000;0.6015;-5.4955;
1031.1000;0.6081;-5.4721;
1031.4000;0.6081;-5.4592;
1031.7000;0.6048;-5.4773;
1032.0000;0.6056;-5.4799;
1032.3000;0.6064;-5.4643;
1032.6000;0.6081;-5.4592;
1032.9000;0.6048;-5.4695;
1033.2000;0.6048;-5.4721;
1033.5000;0.6097;-5.4592;
1033.8000;0.6040;-5.4721;
1034.1000;0.6040;-5.4592;
1034.4000;0.6040;-5.4643;
1034.7000;0.6040;-5.4618;
1035.0000;0.6056;-5.4618;
1035.3000;0.6056;-5.4540;
1035.6000;0.6097;-5.4488;
1035.9000;0.6072;-5.4514;
1036.2000;0.6056;-5.4514;
1036.5000;0.6048;-5.4540;
1036.8000;0.6113;-5.4410;
1037.1000;0.6064;-5.4436;
1037.4000;0.6064;-5.4436;
1037.7000;0.6048;-5.4540;
1038.0000;0.6064;-5.4592;
1038.3000;0.6056;-5.4643;
1038.6000;0.6015;-5.4747;
1038.9000;0.6048;-5.4721;
1039.2000;0.6121;-5.4462;
1039.5000;0.6048;-5.4747;
1039.8000;0.6056;-5.4747;
1040.1000;0.6064;-5.4721;
1040.4000;0.6040;-5.4747;
1040.7000;0.6024;-5.4799;
1041.0000;0.6097;-5.4669;
1041.3000;0.6048;-5.4747;
1041.6000;0.6056;-5.4721;
1041.9000;0.6048;-5.4721;
1042.2000;0.6056;-5.4695;
1042.5000;0.6048;-5.4540;
1042.8000;0.6048;-5.4592;
1043.1000;0.6048;-5.4540;
1043.4000;0.6048;-5.4540;
1043.7000;0.6048;-5.4462;
1044.0000;0.6056;-5.4410;
1044.3000;0.6032;-5.4462;
1044.6000;0.6048;-5.4384;
1044.9000;0.6040;-5.4384;
1045.2000;0.6040;-5.4436;
1045.5000;0.6040;-5.4436;
1045.8000;0.6024;-5.4410;
1046.1000;0.6040;-5.4436;
1046.4000;0.6056;-5.4384;
1046.7000;0.6048;-5.4462;
1047.0000;0.6040;-5.4410;
1047.3000;0.6040;-5.4436;
1047.6000;0.6056;-5.4488;
1047.9000;0.6040;-5.4462;
1048.2000;0.6040;-5.4488;
1048.5000;0.6040;-5.4410;
1048.8000;0.6040;-5.4436;
1049.1000;0.6024;-5.4436;
1049.4000;0.6040;-5.4410;
1049.7000;0.5999;-5.4488;
1050.0000;0.6089;-5.4306;
1050.3000;0.6040;-5.4462;
1050.6000;0.6032;-5.4488;
1050.9000;0.6032;-5.4488;
1051.2000;0.6040;-5.4540;
1051.5000;0.6040;-5.4592;
1051.8000;0.6015;-5.4643;
1052.1000;0.6048;-5.4566;
1052.4000;0.5975;-5.4721;
1052.7000;0.6040;-5.4462;
1053.0000;0.6032;-5.4436;
1053.3000;0.6032;-5.4384;
1053.6000;0.6024;-5.4436;
1053.9000;0.6056;-5.4306;
1054.2000;0.6048;-5.4410;
1054.5000;0.6024;-5.4514;
1054.8000;0.6032;-5.4410;
1055.1000;0.6032;-5.4436;
1055.4000;0.6081;-5.4332;
1055.7000;0.6032;-5.4488;
1056.0000;0.6024;-5.4514;
1056.3000;0.6048;-5.4332;
1056.6000;0.6032;-5.4384;
1056.9000;0.6032;-5.4384;
1057.2000;0.6040;-5.4358;
1057.5000;0.6097;-5.4306;
1057.8000;0.6040;-5.4462;
1058.1000;0.6056;-5.4462;
1058.4000;0.6040;-5.4462;
1058.7000;0.6040;-5.4358;
1059.0000;0.6048;-5.4358;
1059.3000;0.6032;-5.4436;
1059.6000;0.6081;-5.4358;
1059.9000;0.6048;-5.4462;
1060.2000;0.6056;-5.4384;
1060.5000;0.6056;-5.4358;
1060.8000;0.6064;-5.4384;
1061.1000;0.6048;-5.4488;
1061.4000;0.6056;-5.4618;
1061.7000;0.6064;-5.4566;
1062.0000;0.6048;-5.4643;
1062.3000;0.6040;-5.4695;
1062.6000;0.5983;-5.4747;
1062.9000;0.6032;-5.4695;
1063.2000;0.6032;-5.4618;
1063.5000;0.6040;-5.4488;
1063.8000;0.6064;-5.4436;
1064.1000;0.6024;-5.4488;
1064.4000;0.6032;-5.4436;
1064.7000;0.6024;-5.4410;
1065.0000;0.6024;-5.4436;
1065.3000;0.6040;-5.4436;
1065.6000;0.6032;-5.4410;
1065.9000;0.6032;-5.4436;
1066.2000;0.6056;-5.4462;
1066.5000;0.6048;-5.4462;
1066.8000;0.6048;-5.4436;
1067.1000;0.6048;-5.4514;
1067.4000;0.6032;-5.4462;
1067.7000;0.6032;-5.4488;
1068.0000;0.6056;-5.4488;
1068.3000;0.6040;-5.4462;
1068.6000;0.6048;-5.4462;
1068.9000;0.6032;-5.4462;
1069.2000;0.6040;-5.4462;
1069.5000;0.6032;-5.4410;
1069.8000;0.6015;-5.4488;
1070.1000;0.6040;-5.4514;
1070.4000;0.6121;-5.4254;
1070.7000;0.6040;-5.4488;
1071.0000;0.6032;-5.4462;
1071.3000;0.6032;-5.4384;
1071.6000;0.6040;-5.4462;
1071.9000;0.6032;-5.4462;
1072.2000;0.6040;-5.4410;
1072.5000;0.6048;-5.4410;
1072.8000;0.6024;-5.4410;
1073.1000;0.6007;-5.4514;
1073.4000;0.6040;-5.4462;
1073.7000;0.6015;-5.4540;
1074.0000;0.6007;-5.4488;
1074.3000;0.6032;-5.4436;
1074.6000;0.6032;-5.4462;
1074.9000;0.6072;-5.4332;
1075.2000;0.6007;-5.4514;
1075.5000;0.6040;-5.4488;
1075.8000;0.6032;-5.4488;
1076.1000;0.6048;-5.4566;
1076.4000;0.6040;-5.4540;
1076.7000;0.6032;-5.4592;
1077.0000;0.6040;-5.4592;
1077.3000;0.5999;-5.4747;
1077.6000;0.6015;-5.4592;
1077.9000;0.5991;-5.4618;
1078.2000;0.6032;-5.4540;
1078.5000;0.5991;-5.4669;
1078.8000;0.6024;-5.4618;
1079.1000;0.6015;-5.4566;
1079.4000;0.6032;-5.4540;
1079.7000;0.6032;-5.4488;
1080.0000;0.6024;-5.4462;
1080.3000;0.6024;-5.4514;
1080.6000;0.6015;-5.4514;
1080.9000;0.6015;-5.4618;
1081.2000;0.6015;-5.4618;
1081.5000;0.6024;-5.4592;
1081.8000;0.6015;-5.4592;
1082.1000;0.6032;-5.4540;
1082.4000;0.6048;-5.4384;
1082.7000;0.6040;-5.4436;
1083.0000;0.6032;-5.4410;
1083.3000;0.6015;-5.4436;
1083.6000;0.6032;-5.4462;
1083.9000;0.6007;-5.4618;
1084.2000;0.6032;-5.4618;
1084.5000;0.6015;-5.4618;
1084.8000;0.6032;-5.4618;
1085.1000;0.6040;-5.4643;
1085.4000;0.6040;-5.4540;
1085.7000;0.6007;-5.4540;
1086.0000;0.6024;-5.4384;
1086.3000;0.6024;-5.4384;
1086.6000;0.6032;-5.4384;
1086.9000;0.6032;-5.4514;
1087.2000;0.6048;-5.4540;
1087.5000;0.5999;-5.4592;
1087.8000;0.6015;-5.4514;
1088.1000;0.5991;-5.4488;
1088.4000;0.6015;-5.4332;
1088.7000;0.6015;-5.4410;
1089.0000;0.6048;-5.4384;
1089.3000;0.6015;-5.4436;
1089.6000;0.6032;-5.4488;
1089.9000;0.6032;-5.4643;
1090.2000;0.6024;-5.4643;
1090.5000;0.6056;-5.4436;
1090.8000;0.6015;-5.4540;
1091.1000;0.5975;-5.4618;
1091.4000;0.6032;-5.4410;
1091.7000;0.6024;-5.4436;
1092.0000;0.6032;-5.4358;
1092.3000;0.6024;-5.4410;
1092.6000;0.6032;-5.4384;
1092.9000;0.6024;-5.4488;
1093.2000;0.6024;-5.4514;
1093.5000;0.6015;-5.4436;
1093.8000;0.6040;-5.4462;
1094.1000;0.6032;-5.4410;
1094.4000;0.6024;-5.4488;
1094.7000;0.6064;-5.4436;
1095.0000;0.6040;-5.4436;
1095.3000;0.6105;-5.4358;
1095.6000;0.6015;-5.4462;
1095.9000;0.6040;-5.4462;
1096.2000;0.6024;-5.4488;
1096.5000;0.6032;-5.4592;
1096.8000;0.6032;-5.4592;
1097.1000;0.6015;-5.4643;
1097.4000;0.6040;-5.4540;
1097.7000;0.6048;-5.4566;
1098.0000;0.6024;-5.4592;
1098.3000;0.6032;-5.4540;
1098.6000;0.6040;-5.4514;
1098.9000;0.6040;-5.4514;
1099.2000;0.6024;-5.4488;
1099.5000;0.6032;-5.4436;
1099.8000;0.6040;-5.4462;
1100.1000;0.6072;-5.4384;
1100.4000;0.6040;-5.4410;
1100.7000;0.6024;-5.4436;
1101.0000;0.6056;-5.4462;
1101.3000;0.6121;-5.4358;
1101.6000;0.6040;-5.4592;
1101.9000;0.6024;-5.4592;
1102.2000;0.6024;-5.4410;
1102.5000;0.5999;-5.4488;
1102.8000;0.6015;-5.4488;
1103.1000;0.6015;-5.4514;
1103.4000;0.6015;-5.4540;
1103.7000;0.6007;-5.4514;
1104.0000;0.6032;-5.4514;
1104.3000;0.6024;-5.4540;
1104.6000;0.6015;-5.4566;
1104.9000;0.5999;-5.4566;
1105.2000;0.6048;-5.4436;
1105.5000;0.6007;-5.4514;
1105.8000;0.6007;-5.4488;
1106.1000;0.6032;-5.4488;
1106.4000;0.6097;-5.4384;
1106.7000;0.6032;-5.4592;
1107.0000;0.6032;-5.4566;
1107.3000;0.6032;-5.4488;
1107.6000;0.6032;-5.4514;
1107.9000;0.6040;-5.4540;
1108.2000;0.6015;-5.4643;
1108.5000;0.6032;-5.4566;
1108.8000;0.6024;-5.4514;
1109.1000;0.6064;-5.4436;
1109.4000;0.5999;-5.4592;
1109.7000;0.6024;-5.4566;
1110.0000;0.6024;-5.4540;
1110.3000;0.6032;-5.4540;
1110.6000;0.6032;-5.4643;
1110.9000;0.6064;-5.4488;
1111.2000;0.6015;-5.4566;
1111.5000;0.6024;-5.4514;
1111.8000;0.6015;-5.4618;
1112.1000;0.6048;-5.4592;
1112.4000;0.6032;-5.4592;
1112.7000;0.6007;-5.4566;
1113.0000;0.6032;-5.4540;
1113.3000;0.6015;-5.4540;
1113.6000;0.6015;-5.4514;
1113.9000;0.5983;-5.4488;
1114.2000;0.6015;-5.4436;
1114.5000;0.6056;-5.4332;
1114.8000;0.6015;-5.4332;
1115.1000;0.6056;-5.4332;
1115.4000;0.6015;-5.4436;
1115.7000;0.6007;-5.4410;
1116.0000;0.6007;-5.4462;
1116.3000;0.6024;-5.4462;
1116.6000;0.6015;-5.4514;
1116.9000;0.6007;-5.4540;
1117.2000;0.6024;-5.4488;
1117.5000;0.6007;-5.4488;
1117.8000;0.6015;-5.4488;
1118.1000;0.6024;-5.4436;
1118.4000;0.6007;-5.4540;
1118.7000;0.5983;-5.4566;
1119.0000;0.6024;-5.4488;
1119.3000;0.6024;-5.4488;
1119.6000;0.6024;-5.4540;
1119.9000;0.6024;-5.4540;
1120.2000;0.6024;-5.4566;
1120.5000;0.6032;-5.4488;
1120.8000;0.6015;-5.4488;
1121.1000;0.5999;-5.4566;
1121.4000;0.5999;-5.4514;
1121.7000;0.6007;-5.4540;
1122.0000;0.6015;-5.4488;
1122.3000;0.5999;-5.4540;
1122.6000;0.6007;-5.4618;
1122.9000;0.5958;-5.4721;
1123.2000;0.6007;-5.4488;
1123.5000;0.6007;-5.4592;
1123.8000;0.5991;-5.4618;
1124.1000;0.6007;-5.4592;
1124.4000;0.5991;-5.4669;
1124.7000;0.6007;-5.4618;
1125.0000;0.5999;-5.4566;
1125.3000;0.6015;-5.4436;
1125.6000;0.6007;-5.4462;
1125.9000;0.6007;-5.4540;
1126.2000;0.5999;-5.4436;
1126.5000;0.6007;-5.4410;
1126.8000;0.6007;-5.4462;
1127.1000;0.5999;-5.4514;
1127.4000;0.6007;-5.4566;
1127.7000;0.5999;-5.4695;
1128.0000;0.5999;-5.4618;
1128.3000;0.5999;-5.4540;
1128.6000;0.6007;-5.4488;
1128.9000;0.5991;-5.4462;
1129.2000;0.6007;-5.4436;
1129.5000;0.6032;-5.4358;
1129.8000;0.5967;-5.4410;
1130.1000;0.5999;-5.4332;
1130.4000;0.5983;-5.4410;
1130.7000;0.6024;-5.4358;
1131.0000;0.6015;-5.4410;
1131.3000;0.6015;-5.4436;
1131.6000;0.6007;-5.4384;
1131.9000;0.6024;-5.4410;
1132.2000;0.6015;-5.4436;
1132.5000;0.6007;-5.4566;
1132.8000;0.6007;-5.4592;
1133.1000;0.6007;-5.4540;
1133.4000;0.6040;-5.4514;
1133.7000;0.5999;-5.4618;
1134.0000;0.5999;-5.4592;
1134.3000;0.6015;-5.4514;
1134.6000;0.5991;-5.4514;
1134.9000;0.6015;-5.4462;
1135.2000;0.6007;-5.4488;
1135.5000;0.5999;-5.4540;
1135.8000;0.6032;-5.4436;
1136.1000;0.5967;-5.4566;
1136.4000;0.5991;-5.4540;
1136.7000;0.6015;-5.4462;
1137.0000;0.5999;-5.4488;
1137.3000;0.5991;-5.4514;
1137.6000;0.6007;-5.4540;
1137.9000;0.6015;-5.4566;
1138.2000;0.6015;-5.4618;
1138.5000;0.6015;-5.4618;
1138.8000;0.6015;-5.4540;
1139.1000;0.6007;-5.4669;
1139.4000;0.5983;-5.4825;
1139.7000;0.6015;-5.4721;
1140.0000;0.6007;-5.4695;
1140.3000;0.5999;-5.4592;
1140.6000;0.5999;-5.4592;
1140.9000;0.6007;-5.4566;
1141.2000;0.6015;-5.4540;
1141.5000;0.6007;-5.4566;
1141.8000;0.6015;-5.4514;
1142.1000;0.6007;-5.4514;
1142.4000;0.5999;-5.4592;
1142.7000;0.5999;-5.4618;
1143.0000;0.5999;-5.4592;
1143.3000;0.5999;-5.4566;
1143.6000;0.6007;-5.4566;
1143.9000;0.6056;-5.4514;
1144.2000;0.5991;-5.4566;
1144.5000;0.6007;-5.4592;
1144.8000;0.6007;-5.4643;
1145.1000;0.5999;-5.4514;
1145.4000;0.5942;-5.4618;
1145.7000;0.6048;-5.4410;
1146.0000;0.5999;-5.4488;
1146.3000;0.6007;-5.4436;
1146.6000;0.5991;-5.4514;
1146.9000;0.5991;-5.4514;
1147.2000;0.6007;-5.4566;
1147.5000;0.6007;-5.4540;
1147.8000;0.6056;-5.4436;
1148.1000;0.5934;-5.4669;
1148.4000;0.6007;-5.4488;
1148.7000;0.5999;-5.4436;
1149.0000;0.6007;-5.4436;
1149.3000;0.5999;-5.4410;
1149.6000;0.6007;-5.4436;
1149.9000;0.5991;-5.4436;
1150.2000;0.5991;-5.4358;
1150.5000;0.6015;-5.4332;
1150.8000;0.6007;-5.4358;
1151.1000;0.6024;-5.4228;
1151.4000;0.6007;-5.4280;
1151.7000;0.6024;-5.4306;
1152.0000;0.6007;-5.4358;
1152.3000;0.6015;-5.4358;
1152.6000;0.6007;-5.4410;
1152.9000;0.5999;-5.4332;
1153.2000;0.6015;-5.4358;
1153.5000;0.5999;-5.4436;
1153.8000;0.5999;-5.4514;
1154.1000;0.5991;-5.4514;
1154.4000;0.5983;-5.4462;
1154.7000;0.5967;-5.4566;
1155.0000;0.5999;-5.4462;
1155.3000;0.6007;-5.4488;
1155.6000;0.6072;-5.4358;
1155.9000;0.5991;-5.4514;
1156.2000;0.6015;-5.4566;
1156.5000;0.5999;-5.4514;
1156.8000;0.5983;-5.4514;
1157.1000;0.5958;-5.4514;
1157.4000;0.5942;-5.4566;
1157.7000;0.6007;-5.4514;
1158.0000;0.6007;-5.4566;
1158.3000;0.6007;-5.4488;
1158.6000;0.6015;-5.4436;
1158.9000;0.6007;-5.4358;
1159.2000;0.5999;-5.4384;
1159.5000;0.6015;-5.4410;
1159.8000;0.6032;-5.4254;
1160.1000;0.5999;-5.4384;
1160.4000;0.5999;-5.4488;
1160.7000;0.5991;-5.4669;
1161.0000;0.5999;-5.4643;
1161.3000;0.6015;-5.4540;
1161.6000;0.6007;-5.4514;
1161.9000;0.5999;-5.4566;
1162.2000;0.5999;-5.4514;
1162.5000;0.5999;-5.4436;
1162.8000;0.5983;-5.4384;
1163.1000;0.6032;-5.4228;
1163.4000;0.5991;-5.4384;
1163.7000;0.5991;-5.4384;
1164.0000;0.5999;-5.4436;
1164.3000;0.5999;-5.4540;
1164.6000;0.5983;-5.4540;
1164.9000;0.6007;-5.4384;
1165.2000;0.5999;-5.4384;
1165.5000;0.5991;-5.4410;
1165.8000;0.5975;-5.4306;
1166.1000;0.5991;-5.4410;
1166.4000;0.6040;-5.4254;
1166.7000;0.5991;-5.4384;
1167.0000;0.5975;-5.4384;
1167.3000;0.5991;-5.4410;
1167.6000;0.6007;-5.4306;
1167.9000;0.6007;-5.4228;
1168.2000;0.5991;-5.4306;
1168.5000;0.5983;-5.4410;
1168.8000;0.5991;-5.4358;
1169.1000;0.5999;-5.4384;
1169.4000;0.5983;-5.4436;
1169.7000;0.5991;-5.4436;
1170.0000;0.5999;-5.4566;
1170.3000;0.5999;-5.4514;
1170.6000;0.5983;-5.4514;
1170.9000;0.5999;-5.4540;
1171.2000;0.5999;-5.4540;
1171.5000;0.5991;-5.4488;
1171.8000;0.6015;-5.4410;
1172.1000;0.5999;-5.4436;
1172.4000;0.6007;-5.4462;
1172.7000;0.6007;-5.4514;
1173.0000;0.6024;-5.4488;
1173.3000;0.5983;-5.4488;
1173.6000;0.5991;-5.4462;
1173.9000;0.5999;-5.4436;
1174.2000;0.5991;-5.4488;
1174.5000;0.6024;-5.4462;
1174.8000;0.6007;-5.4514;
1175.1000;0.6007;-5.4462;
1175.4000;0.6015;-5.4358;
1175.7000;0.5975;-5.4410;
1176.0000;0.6007;-5.4254;
1176.3000;0.5991;-5.4280;
1176.6000;0.5991;-5.4203;
1176.9000;0.6032;-5.4254;
1177.2000;0.6015;-5.4410;
1177.5000;0.6007;-5.4436;
1177.8000;0.6007;-5.4410;
1178.1000;0.6007;-5.4358;
1178.4000;0.5999;-5.4410;
1178.7000;0.6056;-5.4280;
1179.0000;0.5975;-5.4436;
1179.3000;0.6007;-5.4306;
1179.6000;0.5975;-5.4358;
1179.9000;0.5991;-5.4306;
1180.2000;0.5975;-5.4306;
1180.5000;0.5991;-5.4306;
1180.8000;0.6007;-5.4280;
1181.1000;0.5918;-5.4566;
1181.4000;0.5999;-5.4436;
1181.7000;0.5999;-5.4410;
1182.0000;0.5958;-5.4566;
1182.3000;0.5983;-5.4436;
1182.6000;0.5999;-5.4462;
1182.9000;0.6007;-5.4358;
1183.2000;0.5967;-5.4410;
1183.5000;0.6007;-5.4280;
1183.8000;0.5991;-5.4358;
1184.1000;0.6015;-5.4332;
1184.4000;0.5950;-5.4384;
1184.7000;0.5983;-5.4332;
1185.0000;0.5991;-5.4306;
1185.3000;0.5983;-5.4228;
1185.6000;0.6015;-5.4177;
1185.9000;0.5991;-5.4280;
1186.2000;0.5967;-5.4410;
1186.5000;0.5926;-5.4436;
1186.8000;0.5991;-5.4280;
1187.1000;0.5958;-5.4410;
1187.4000;0.6032;-5.4203;
1187.7000;0.5983;-5.4358;
1188.0000;0.5999;-5.4280;
1188.3000;0.5999;-5.4358;
1188.6000;0.5999;-5.4358;
1188.9000;0.5999;-5.4436;
1189.2000;0.5958;-5.4592;
1189.5000;0.5967;-5.4618;
1189.8000;0.5991;-5.4540;
1190.1000;0.5999;-5.4436;
1190.4000;0.5991;-5.4436;
1190.7000;0.6015;-5.4514;
1191.0000;0.6007;-5.4540;
1191.3000;0.5991;-5.4488;
1191.6000;0.5991;-5.4410;
1191.9000;0.6032;-5.4306;
1192.2000;0.6007;-5.4306;
1192.5000;0.5967;-5.4488;
1192.8000;0.5991;-5.4488;
1193.1000;0.5999;-5.4488;
1193.4000;0.5999;-5.4540;
1193.7000;0.6007;-5.4488;
1194.0000;0.5991;-5.4514;
1194.3000;0.5983;-5.4488;
1194.6000;0.5983;-5.4592;
1194.9000;0.6056;-5.4410;
1195.2000;0.5991;-5.4592;
1195.5000;0.5991;-5.4643;
1195.8000;0.5999;-5.4592;
1196.1000;0.6064;-5.4384;
1196.4000;0.5991;-5.4462;
1196.7000;0.5975;-5.4462;
1197.0000;0.5983;-5.4462;
1197.3000;0.5999;-5.4384;
1197.6000;0.5999;-5.4384;
1197.9000;0.5999;-5.4514;
1198.2000;0.5991;-5.4488;
1198.5000;0.5991;-5.4514;
1198.8000;0.5999;-5.4488;
1199.1000;0.5983;-5.4436;
1199.4000;0.6007;-5.4436;
1199.7000;0.5991;-5.4540;
1200.0000;0.5991;-5.4540;
1200.3000;0.5983;-5.4540;
1200.6000;0.5991;-5.4514;
1200.9000;0.5991;-5.4436;
1201.2000;0.5967;-5.4462;
1201.5000;0.5991;-5.4488;
1201.8000;0.5991;-5.4540;
1202.1000;0.5991;-5.4462;
1202.4000;0.5975;-5.4384;
1202.7000;0.5999;-5.4332;
1203.0000;0.6007;-5.4306;
1203.3000;0.5991;-5.4358;
1203.6000;0.5991;-5.4306;
1203.9000;0.6007;-5.4358;
1204.2000;0.5999;-5.4462;
1204.5000;0.6032;-5.4358;
1204.8000;0.6007;-5.4462;
1205.1000;0.6007;-5.4488;
1205.4000;0.5910;-5.4695;
1205.7000;0.5983;-5.4540;
1206.0000;0.5991;-5.4566;
1206.3000;0.5926;-5.4618;
1206.6000;0.5983;-5.4514;
1206.9000;0.5975;-5.4488;
1207.2000;0.5967;-5.4540;
1207.5000;0.5983;-5.4436;
1207.8000;0.5983;-5.4410;
1208.1000;0.5983;-5.4436;
1208.4000;0.5991;-5.4514;
1208.7000;0.5983;-5.4540;
1209.0000;0.5983;-5.4592;
1209.3000;0.5991;-5.4566;
1209.6000;0.5983;-5.4540;
1209.9000;0.5999;-5.4566;
1210.2000;0.5991;-5.4669;
1210.5000;0.6032;-5.4514;
1210.8000;0.5983;-5.4566;
1211.1000;0.5991;-5.4592;
1211.4000;0.5991;-5.4643;
1211.7000;0.5991;-5.4618;
1212.0000;0.5975;-5.4592;
1212.3000;0.5991;-5.4592;
1212.6000;0.6024;-5.4592;
1212.9000;0.6015;-5.4514;
1213.2000;0.5999;-5.4540;
1213.5000;0.5991;-5.4540;
1213.8000;0.5999;-5.4514;
1214.1000;0.5975;-5.4488;
1214.4000;0.5999;-5.4540;
1214.7000;0.5991;-5.4540;
1215.0000;0.5999;-5.4540;
1215.3000;0.5975;-5.4592;
1215.6000;0.5991;-5.4540;
1215.9000;0.5983;-5.4540;
1216.2000;0.5983;-5.4669;
1216.5000;0.5983;-5.4643;
1216.8000;0.5967;-5.4643;
1217.1000;0.5975;-5.4540;
1217.4000;0.5999;-5.4566;
1217.7000;0.6007;-5.4488;
1218.0000;0.5975;-5.4566;
1218.3000;0.5999;-5.4592;
1218.6000;0.5983;-5.4566;
1218.9000;0.5999;-5.4462;
1219.2000;0.5991;-5.4488;
1219.5000;0.5983;-5.4540;
1219.8000;0.5926;-5.4695;
1220.1000;0.5983;-5.4462;
1220.4000;0.5983;-5.4462;
1220.7000;0.5983;-5.4436;
1221.0000;0.5999;-5.4540;
1221.3000;0.5999;-5.4566;
1221.6000;0.5975;-5.4566;
1221.9000;0.5983;-5.4566;
1222.2000;0.5983;-5.4592;
1222.5000;0.5983;-5.4592;
1222.8000;0.5983;-5.4488;
1223.1000;0.6007;-5.4462;
1223.4000;0.5999;-5.4488;
1223.7000;0.5999;-5.4540;
1224.0000;0.5999;-5.4436;
1224.3000;0.5975;-5.4488;
1224.6000;0.5983;-5.4488;
1224.9000;0.5991;-5.4488;
1225.2000;0.6032;-5.4384;
1225.5000;0.5999;-5.4462;
1225.8000;0.5991;-5.4462;
1226.1000;0.5975;-5.4436;
1226.4000;0.5983;-5.4436;
1226.7000;0.5999;-5.4410;
1227.0000;0.5983;-5.4384;
1227.3000;0.5975;-5.4436;
1227.6000;0.5991;-5.4488;
1227.9000;0.5975;-5.4488;
1228.2000;0.5975;-5.4488;
1228.5000;0.5967;-5.4540;
1228.8000;0.5983;-5.4488;
1229.1000;0.5991;-5.4436;
1229.4000;0.5991;-5.4462;
1229.7000;0.5967;-5.4462;
1230.0000;0.5991;-5.4410;
1230.3000;0.6048;-5.4228;
1230.6000;0.5983;-5.4436;
1230.9000;0.5975;-5.4410;
1231.2000;0.5967;-5.4436;
1231.5000;0.6007;-5.4410;
1231.8000;0.5991;-5.4462;
1232.1000;0.5983;-5.4566;
1232.4000;0.5975;-5.4488;
1232.7000;0.5999;-5.4514;
1233.0000;0.5991;-5.4540;
1233.3000;0.5975;-5.4618;
1233.6000;0.5991;-5.4540;
1233.9000;0.5983;-5.4462;
1234.2000;0.5999;-5.4410;
1234.5000;0.5983;-5.4488;
1234.8000;0.5983;-5.4436;
1235.1000;0.5975;-5.4462;
1235.4000;0.6089;-5.4228;
1235.7000;0.5975;-5.4436;
1236.0000;0.5958;-5.4540;
1236.3000;0.5983;-5.4540;
1236.6000;0.5983;-5.4540;
1236.9000;0.5975;-5.4488;
1237.2000;0.5975;-5.4566;
1237.5000;0.5958;-5.4618;
1237.8000;0.5967;-5.4618;
1238.1000;0.5983;-5.4669;
1238.4000;0.5991;-5.4618;
1238.7000;0.5991;-5.4618;
1239.0000;0.5975;-5.4514;
1239.3000;0.5991;-5.4488;
1239.6000;0.5983;-5.4540;
1239.9000;0.5983;-5.4488;
1240.2000;0.5967;-5.4410;
1240.5000;0.5975;-5.4384;
1240.8000;0.5983;-5.4436;
1241.1000;0.5967;-5.4384;
1241.4000;0.5967;-5.4436;
1241.7000;0.5975;-5.4410;
1242.0000;0.5991;-5.4462;
1242.3000;0.5975;-5.4462;
1242.6000;0.5958;-5.4436;
1242.9000;0.5975;-5.4436;
1243.2000;0.5975;-5.4436;
1243.5000;0.5983;-5.4488;
1243.8000;0.5942;-5.4566;
1244.1000;0.5975;-5.4540;
1244.4000;0.5999;-5.4514;
1244.7000;0.5975;-5.4618;
1245.0000;0.5983;-5.4618;
1245.3000;0.5975;-5.4643;
1245.6000;0.6015;-5.4514;
1245.9000;0.5958;-5.4618;
1246.2000;0.6024;-5.4488;
1246.5000;0.5958;-5.4618;
1246.8000;0.5975;-5.4566;
1247.1000;0.5975;-5.4514;
1247.4000;0.5975;-5.4540;
1247.7000;0.5991;-5.4410;
1248.0000;0.5975;-5.4462;
1248.3000;0.5983;-5.4410;
1248.6000;0.5991;-5.4332;
1248.9000;0.5975;-5.4410;
1249.2000;0.5975;-5.4436;
1249.5000;0.5991;-5.4358;
1249.8000;0.5983;-5.4462;
1250.1000;0.5975;-5.4436;
1250.4000;0.5975;-5.4514;
1250.7000;0.5967;-5.4592;
1251.0000;0.5991;-5.4566;
1251.3000;0.5975;-5.4643;
1251.6000;0.6007;-5.4540;
1251.9000;0.5975;-5.4592;
1252.2000;0.6007;-5.4540;
1252.5000;0.5991;-5.4514;
1252.8000;0.5983;-5.4540;
1253.1000;0.5983;-5.4514;
1253.4000;0.5975;-5.4358;
1253.7000;0.5983;-5.4306;
1254.0000;0.6015;-5.4203;
1254.3000;0.6015;-5.4228;
1254.6000;0.5983;-5.4280;
1254.9000;0.5983;-5.4410;
1255.2000;0.5983;-5.4332;
1255.5000;0.5942;-5.4436;
1255.8000;0.5975;-5.4254;
1256.1000;0.5991;-5.4228;
1256.4000;0.5942;-5.4358;
1256.7000;0.5967;-5.4280;
1257.0000;0.5975;-5.4358;
1257.3000;0.5999;-5.4280;
1257.6000;0.6015;-5.4203;
1257.9000;0.5967;-5.4280;
1258.2000;0.5975;-5.4280;
1258.5000;0.5950;-5.4384;
1258.8000;0.5975;-5.4358;
1259.1000;0.5975;-5.4332;
1259.4000;0.6007;-5.4254;
1259.7000;0.5967;-5.4358;
1260.0000;0.5975;-5.4306;
1260.3000;0.5999;-5.4280;
1260.6000;0.5991;-5.4332;
1260.9000;0.5991;-5.4384;
1261.2000;0.5999;-5.4410;
1261.5000;0.5950;-5.4514;
1261.8000;0.5975;-5.4462;
1262.1000;0.5958;-5.4514;
1262.4000;0.5991;-5.4488;
1262.7000;0.5934;-5.4540;
1263.0000;0.5975;-5.4384;
1263.3000;0.5967;-5.4410;
1263.6000;0.5983;-5.4358;
1263.9000;0.6024;-5.4228;
1264.2000;0.5967;-5.4358;
1264.5000;0.5967;-5.4332;
1264.8000;0.5983;-5.4332;
1265.1000;0.5975;-5.4488;
1265.4000;0.5991;-5.4462;
1265.7000;0.5983;-5.4410;
1266.0000;0.5967;-5.4436;
1266.3000;0.5991;-5.4462;
1266.6000;0.5999;-5.4488;
1266.9000;0.5958;-5.4618;
1267.2000;0.5967;-5.4592;
1267.5000;0.5983;-5.4566;
1267.8000;0.5958;-5.4592;
1268.1000;0.5967;-5.4592;
1268.4000;0.5958;-5.4643;
1268.7000;0.5975;-5.4618;
1269.0000;0.5983;-5.4514;
1269.3000;0.5975;-5.4540;
1269.6000;0.5950;-5.4618;
1269.9000;0.5934;-5.4618;
1270.2000;0.5991;-5.4540;
1270.5000;0.5967;-5.4669;
1270.8000;0.6024;-5.4592;
1271.1000;0.5975;-5.4643;
1271.4000;0.6007;-5.4540;
1271.7000;0.5983;-5.4488;
1272.0000;0.5967;-5.4566;
1272.3000;0.5958;-5.4540;
1272.6000;0.5967;-5.4514;
1272.9000;0.5975;-5.4488;
1273.2000;0.5999;-5.4358;
1273.5000;0.5983;-5.4436;
1273.8000;0.5983;-5.4358;
1274.1000;0.5967;-5.4410;
1274.4000;0.5991;-5.4410;
1274.7000;0.5983;-5.4436;
1275.0000;0.5991;-5.4384;
1275.3000;0.5958;-5.4462;
1275.6000;0.5999;-5.4410;
1275.9000;0.5975;-5.4462;
1276.2000;0.5967;-5.4462;
1276.5000;0.5991;-5.4384;
1276.8000;0.5983;-5.4384;
1277.1000;0.5991;-5.4358;
1277.4000;0.5967;-5.4410;
1277.7000;0.5975;-5.4462;
1278.0000;0.5983;-5.4462;
1278.3000;0.5950;-5.4643;
1278.6000;0.5926;-5.4669;
1278.9000;0.5975;-5.4540;
1279.2000;0.5918;-5.4669;
1279.5000;0.5926;-5.4566;
1279.8000;0.5999;-5.4514;
1280.1000;0.5958;-5.4643;
1280.4000;0.5975;-5.4643;
1280.7000;0.5950;-5.4669;
1281.0000;0.5967;-5.4592;
1281.3000;0.5958;-5.4566;
1281.6000;0.6048;-5.4410;
1281.9000;0.5950;-5.4618;
1282.2000;0.5967;-5.4514;
1282.5000;0.5975;-5.4514;
1282.8000;0.5983;-5.4540;
1283.1000;0.5975;-5.4566;
1283.4000;0.5975;-5.4592;
1283.7000;0.5983;-5.4540;
1284.0000;0.5958;-5.4514;
1284.3000;0.5967;-5.4436;
1284.6000;0.5975;-5.4436;
1284.9000;0.5958;-5.4462;
1285.2000;0.5983;-5.4358;
1285.5000;0.5983;-5.4384;
1285.8000;0.5975;-5.4410;
1286.1000;0.5983;-5.4358;
1286.4000;0.5983;-5.4462;
1286.7000;0.5934;-5.4669;
1287.0000;0.5991;-5.4592;
1287.3000;0.5958;-5.4566;
1287.6000;0.5967;-5.4436;
1287.9000;0.5967;-5.4384;
1288.2000;0.5958;-5.4410;
1288.5000;0.5950;-5.4488;
1288.8000;0.5958;-5.4488;
1289.1000;0.5967;-5.4462;
1289.4000;0.5975;-5.4358;
1289.7000;0.5967;-5.4280;
1290.0000;0.5975;-5.4228;
1290.3000;0.5991;-5.4203;
1290.6000;0.5991;-5.4280;
1290.9000;0.5983;-5.4306;
1291.2000;0.5967;-5.4306;
1291.5000;0.5958;-5.4358;
1291.8000;0.5950;-5.4358;
1292.1000;0.5958;-5.4332;
1292.4000;0.5975;-5.4280;
1292.7000;0.5999;-5.4254;
1293.0000;0.5975;-5.4280;
1293.3000;0.5983;-5.4280;
1293.6000;0.5967;-5.4228;
1293.9000;0.5967;-5.4254;
1294.2000;0.5958;-5.4254;
1294.5000;0.5967;-5.4203;
1294.8000;0.5926;-5.4358;
1295.1000;0.5950;-5.4306;
1295.4000;0.5975;-5.4332;
1295.7000;0.5983;-5.4254;
1296.0000;0.5967;-5.4306;
1296.3000;0.5975;-5.4384;
1296.6000;0.5942;-5.4410;
1296.9000;0.5975;-5.4332;
1297.2000;0.5991;-5.4306;
1297.5000;0.5975;-5.4358;
1297.8000;0.5975;-5.4384;
1298.1000;0.5967;-5.4358;
1298.4000;0.5967;-5.4410;
1298.7000;0.5999;-5.4410;
1299.0000;0.5983;-5.4488;
1299.3000;0.5942;-5.4514;
1299.6000;0.5958;-5.4514;
1299.9000;0.5958;-5.4332;
1300.2000;0.5983;-5.4254;
1300.5000;0.5967;-5.4410;
1300.8000;0.5958;-5.4436;
1301.1000;0.5942;-5.4410;
1301.4000;0.5926;-5.4540;
1301.7000;0.5975;-5.4462;
1302.0000;0.5942;-5.4540;
1302.3000;0.5958;-5.4566;
1302.6000;0.5942;-5.4566;
1302.9000;0.5950;-5.4436;
1303.2000;0.5950;-5.4332;
1303.5000;0.5983;-5.4306;
1303.8000;0.5950;-5.4410;
1304.1000;0.5999;-5.4254;
1304.4000;0.5967;-5.4332;
1304.7000;0.5967;-5.4332;
1305.0000;0.5967;-5.4254;
1305.3000;0.5958;-5.4332;
1305.6000;0.5967;-5.4177;
1305.9000;0.5967;-5.4203;
1306.2000;0.5967;-5.4280;
1306.5000;0.5983;-5.4280;
1306.8000;0.5983;-5.4254;
1307.1000;0.5967;-5.4306;
1307.4000;0.5983;-5.4358;
1307.7000;0.5967;-5.4358;
1308.0000;0.5975;-5.4306;
1308.3000;0.5967;-5.4280;
1308.6000;0.5983;-5.4254;
1308.9000;0.5942;-5.4280;
1309.2000;0.5950;-5.4306;
1309.5000;0.5958;-5.4358;
1309.8000;0.5958;-5.4384;
1310.1000;0.5967;-5.4254;
1310.4000;0.5958;-5.4203;
1310.7000;0.5958;-5.4151;
1311.0000;0.5967;-5.4177;
1311.3000;0.5983;-5.4203;
1311.6000;0.5967;-5.4177;
1311.9000;0.5958;-5.4177;
1312.2000;0.5967;-5.4177;
1312.5000;0.5991;-5.4151;
1312.8000;0.5967;-5.4177;
1313.1000;0.5975;-5.4151;
1313.4000;0.5975;-5.4099;
1313.7000;0.5950;-5.4177;
1314.0000;0.5958;-5.4125;
1314.3000;0.5958;-5.4177;
1314.6000;0.5942;-5.4203;
1314.9000;0.5942;-5.4254;
1315.2000;0.5975;-5.4125;
1315.5000;0.5958;-5.4254;
1315.8000;0.5958;-5.4228;
1316.1000;0.5975;-5.4177;
1316.4000;0.6015;-5.4099;
1316.7000;0.5975;-5.4228;
1317.0000;0.5983;-5.4254;
1317.3000;0.5991;-5.4280;
1317.6000;0.5991;-5.4332;
1317.9000;0.6024;-5.4203;
1318.2000;0.5958;-5.4384;
1318.5000;0.5967;-5.4358;
1318.8000;0.5975;-5.4332;
1319.1000;0.5983;-5.4306;
1319.4000;0.5967;-5.4306;
1319.7000;0.5975;-5.4358;
1320.0000;0.5983;-5.4358;
1320.3000;0.5983;-5.4410;
1320.6000;0.5983;-5.4358;
1320.9000;0.5967;-5.4384;
1321.2000;0.5967;-5.4436;
1321.5000;0.5958;-5.4514;
1321.8000;0.5958;-5.4540;
1322.1000;0.5926;-5.4592;
1322.4000;0.5958;-5.4566;
1322.7000;0.5975;-5.4488;
1323.0000;0.5975;-5.4540;
1323.3000;0.5975;-5.4436;
1323.6000;0.5975;-5.4384;
1323.9000;0.5975;-5.4358;
1324.2000;0.5958;-5.4384;
1324.5000;0.5958;-5.4436;
1324.8000;0.5967;-5.4436;
1325.1000;0.5975;-5.4488;
1325.4000;0.5975;-5.4462;
1325.7000;0.5967;-5.4462;
1326.0000;0.5950;-5.4436;
1326.3000;0.5975;-5.4358;
1326.6000;0.5967;-5.4358;
1326.9000;0.5967;-5.4228;
1327.2000;0.5958;-5.4203;
1327.5000;0.5975;-5.4099;
1327.8000;0.5983;-5.4047;
1328.1000;0.5967;-5.4021;
1328.4000;0.5958;-5.4073;
1328.7000;0.5967;-5.4125;
1329.0000;0.5967;-5.4125;
1329.3000;0.5950;-5.4254;
1329.6000;0.5950;-5.4306;
1329.9000;0.5958;-5.4332;
1330.2000;0.5958;-5.4332;
1330.5000;0.5975;-5.4254;
1330.8000;0.5934;-5.4358;
1331.1000;0.5950;-5.4436;
1331.4000;0.5975;-5.4280;
1331.7000;0.5950;-5.4254;
1332.0000;0.5975;-5.4254;
1332.3000;0.5967;-5.4384;
1332.6000;0.5967;-5.4358;
1332.9000;0.5975;-5.4306;
1333.2000;0.5975;-5.4410;
1333.5000;0.5967;-5.4462;
1333.8000;0.5967;-5.4436;
1334.1000;0.5958;-5.4410;
1334.4000;0.5967;-5.4332;
1334.7000;0.5958;-5.4306;
1335.0000;0.5942;-5.4332;
1335.3000;0.5958;-5.4332;
1335.6000;0.5958;-5.4384;
1335.9000;0.5967;-5.4306;
1336.2000;0.5950;-5.4280;
1336.5000;0.5942;-5.4358;
1336.8000;0.5950;-5.4306;
1337.1000;0.5950;-5.4254;
1337.4000;0.5918;-5.4410;
1337.7000;0.5958;-5.4358;
1338.0000;0.5967;-5.4228;
1338.3000;0.5975;-5.4177;
1338.6000;0.5950;-5.4177;
1338.9000;0.5958;-5.4203;
1339.2000;0.5991;-5.4125;
1339.5000;0.5967;-5.4254;
1339.8000;0.5975;-5.4254;
1340.1000;0.5967;-5.4306;
1340.4000;0.5975;-5.4280;
1340.7000;0.5967;-5.4280;
1341.0000;0.5975;-5.4254;
1341.3000;0.5958;-5.4254;
1341.6000;0.5975;-5.4228;
1341.9000;0.5958;-5.4228;
1342.2000;0.5950;-5.4384;
1342.5000;0.5975;-5.4280;
1342.8000;0.5967;-5.4332;
1343.1000;0.5975;-5.4254;
1343.4000;0.5967;-5.4306;
1343.7000;0.6024;-5.4203;
1344.0000;0.5967;-5.4254;
1344.3000;0.5983;-5.4306;
1344.6000;0.5958;-5.4254;
1344.9000;0.5975;-5.4254;
1345.2000;0.5910;-5.4436;
1345.5000;0.5967;-5.4332;
1345.8000;0.5958;-5.4280;
1346.1000;0.5967;-5.4358;
1346.4000;0.5958;-5.4384;
1346.7000;0.5967;-5.4410;
1347.0000;0.6015;-5.4203;
1347.3000;0.5967;-5.4332;
1347.6000;0.5950;-5.4358;
1347.9000;0.5967;-5.4384;
1348.2000;0.5967;-5.4280;
1348.5000;0.5967;-5.4306;
1348.8000;0.5958;-5.4306;
1349.1000;0.5958;-5.4228;
1349.4000;0.5967;-5.4306;
1349.7000;0.5950;-5.4332;
1350.0000;0.5934;-5.4332;
1350.3000;0.5967;-5.4332;
1350.6000;0.5926;-5.4410;
1350.9000;0.5950;-5.4306;
1351.2000;0.5958;-5.4384;
1351.5000;0.5950;-5.4358;
1351.8000;0.5958;-5.4280;
1352.1000;0.5983;-5.4228;
1352.4000;0.5950;-5.4280;
1352.7000;0.5958;-5.4358;
1353.0000;0.5950;-5.4332;
1353.3000;0.5942;-5.4384;
1353.6000;0.5926;-5.4514;
1353.9000;0.5967;-5.4254;
1354.2000;0.5958;-5.4280;
1354.5000;0.5967;-5.4332;
1354.8000;0.5967;-5.4410;
1355.1000;0.5934;-5.4540;
1355.4000;0.5950;-5.4384;
1355.7000;0.5958;-5.4436;
1356.0000;0.6007;-5.4332;
1356.3000;0.5967;-5.4358;
1356.6000;0.5942;-5.4462;
1356.9000;0.5975;-5.4384;
1357.2000;0.5967;-5.4462;
1357.5000;0.5958;-5.4488;
1357.8000;0.5950;-5.4540;
1358.1000;0.5958;-5.4488;
1358.4000;0.5958;-5.4462;
1358.7000;0.5967;-5.4384;
1359.0000;0.5950;-5.4332;
1359.3000;0.5950;-5.4332;
1359.6000;0.5950;-5.4332;
1359.9000;0.5950;-5.4177;
1360.2000;0.5958;-5.4151;
1360.5000;0.5950;-5.4203;
1360.8000;0.5950;-5.4306;
1361.1000;0.5967;-5.4280;
1361.4000;0.5967;-5.4280;
1361.7000;0.5942;-5.4332;
1362.0000;0.5958;-5.4177;
1362.3000;0.5950;-5.4228;
1362.6000;0.5950;-5.4177;
1362.9000;0.5934;-5.4254;
1363.2000;0.5967;-5.4254;
1363.5000;0.5975;-5.4254;
1363.8000;0.5967;-5.4254;
1364.1000;0.5950;-5.4306;
1364.4000;0.5910;-5.4384;
1364.7000;0.5967;-5.4203;
1365.0000;0.5967;-5.4203;
1365.3000;0.5975;-5.4203;
1365.6000;0.5967;-5.4099;
1365.9000;0.6007;-5.4099;
1366.2000;0.5975;-5.4177;
1366.5000;0.5975;-5.4151;
1366.8000;0.5950;-5.4228;
1367.1000;0.5958;-5.4203;
1367.4000;0.5958;-5.4332;
1367.7000;0.5967;-5.4332;
1368.0000;0.5950;-5.4384;
1368.3000;0.5958;-5.4384;
1368.6000;0.5967;-5.4332;
1368.9000;0.5975;-5.4358;
1369.2000;0.5942;-5.4436;
1369.5000;0.5967;-5.4306;
1369.8000;0.5958;-5.4151;
1370.1000;0.5967;-5.4177;
1370.4000;0.5983;-5.4125;
1370.7000;0.5958;-5.4073;
1371.0000;0.5958;-5.4151;
1371.3000;0.5975;-5.4099;
1371.6000;0.5967;-5.4125;
1371.9000;0.5942;-5.4151;
1372.2000;0.5958;-5.4203;
1372.5000;0.5975;-5.4228;
1372.8000;0.5950;-5.4332;
1373.1000;0.5942;-5.4306;
1373.4000;0.5950;-5.4280;
1373.7000;0.5950;-5.4332;
1374.0000;0.5950;-5.4332;
1374.3000;0.5975;-5.4332;
1374.6000;0.5975;-5.4384;
1374.9000;0.5958;-5.4332;
1375.2000;0.5967;-5.4332;
1375.5000;0.5958;-5.4332;
1375.8000;0.5999;-5.4254;
1376.1000;0.5958;-5.4358;
1376.4000;0.6007;-5.4228;
1376.7000;0.5942;-5.4332;
1377.0000;0.5950;-5.4306;
1377.3000;0.5942;-5.4332;
1377.6000;0.5950;-5.4280;
1377.9000;0.5958;-5.4203;
1378.2000;0.5975;-5.4177;
1378.5000;0.5999;-5.4125;
1378.8000;0.5967;-5.4306;
1379.1000;0.5967;-5.4306;
1379.4000;0.5967;-5.4254;
1379.7000;0.5958;-5.4228;
1380.0000;0.5983;-5.4332;
1380.3000;0.5967;-5.4410;
1380.6000;0.6032;-5.4177;
1380.9000;0.5934;-5.4410;
1381.2000;0.5934;-5.4436;
1381.5000;0.5958;-5.4462;
1381.8000;0.5975;-5.4358;
1382.1000;0.5942;-5.4410;
1382.4000;0.5934;-5.4384;
1382.7000;0.5967;-5.4358;
1383.0000;0.5975;-5.4306;
1383.3000;0.5958;-5.4332;
1383.6000;0.5967;-5.4228;
1383.9000;0.5967;-5.4306;
1384.2000;0.5967;-5.4306;
1384.5000;0.5967;-5.4280;
1384.8000;0.5991;-5.4151;
1385.1000;0.5967;-5.4280;
1385.4000;0.5999;-5.4280;
1385.7000;0.5942;-5.4306;
1386.0000;0.5950;-5.4332;
1386.3000;0.5950;-5.4332;
1386.6000;0.5950;-5.4384;
1386.9000;0.5934;-5.4384;
1387.2000;0.5926;-5.4436;
1387.5000;0.5934;-5.4436;
1387.8000;0.5950;-5.4410;
1388.1000;0.5942;-5.4436;
1388.4000;0.5967;-5.4462;
1388.7000;0.5975;-5.4410;
1389.0000;0.5983;-5.4384;
1389.3000;0.5902;-5.4566;
1389.6000;0.5967;-5.4488;
1389.9000;0.5958;-5.4488;
1390.2000;0.5942;-5.4384;
1390.5000;0.5958;-5.4358;
1390.8000;0.5950;-5.4384;
1391.1000;0.5942;-5.4410;
1391.4000;0.5950;-5.4410;
1391.7000;0.5975;-5.4384;
1392.0000;0.5958;-5.4358;
1392.3000;0.5967;-5.4306;
1392.6000;0.5950;-5.4280;
1392.9000;0.5958;-5.4254;
1393.2000;0.5934;-5.4280;
1393.5000;0.5958;-5.4203;
1393.8000;0.5942;-5.4203;
1394.1000;0.5950;-5.4203;
1394.4000;0.5950;-5.4177;
1394.7000;0.5942;-5.4177;
1395.0000;0.5958;-5.4228;
1395.3000;0.5958;-5.4203;
1395.6000;0.5967;-5.4125;
1395.9000;0.5967;-5.4125;
1396.2000;0.5958;-5.4125;
1396.5000;0.5942;-5.4151;
1396.8000;0.5958;-5.4073;
1397.1000;0.5958;-5.4073;
1397.4000;0.5950;-5.4125;
1397.7000;0.5958;-5.4151;
1398.0000;0.5893;-5.4280;
1398.3000;0.5967;-5.4047;
1398.6000;0.5958;-5.4021;
1398.9000;0.5983;-5.3891;
1399.2000;0.5958;-5.3865;
1399.5000;0.5958;-5.3917;
1399.8000;0.5950;-5.3917;
