time/ms;Fluo/V;P700 deltaI/I x10³;
-199.8000;0.9483;-5.3269;
-199.5000;0.9475;-5.3295;
-199.2000;0.9483;-5.3321;
-198.9000;0.9475;-5.3295;
-198.6000;0.9451;-5.3399;
-198.3000;0.9483;-5.3295;
-198.0000;0.9475;-5.3217;
-197.7000;0.9459;-5.3295;
-197.4000;0.9467;-5.3217;
-197.1000;0.9467;-5.3191;
-196.8000;0.9467;-5.3269;
-196.5000;0.9459;-5.3269;
-196.2000;0.9475;-5.3269;
-195.9000;0.9475;-5.3321;
-195.6000;0.9475;-5.3243;
-195.3000;0.9491;-5.3217;
-195.0000;0.9491;-5.3113;
-194.7000;0.9467;-5.3191;
-194.4000;0.9491;-5.3139;
-194.1000;0.9483;-5.3087;
-193.8000;0.9418;-5.3269;
-193.5000;0.9467;-5.3087;
-193.2000;0.9491;-5.3036;
-192.9000;0.9491;-5.3061;
-192.6000;0.9491;-5.3165;
-192.3000;0.9459;-5.3243;
-192.0000;0.9467;-5.3165;
-191.7000;0.9483;-5.3165;
-191.4000;0.9467;-5.3269;
-191.1000;0.9491;-5.3347;
-190.8000;0.9475;-5.3450;
-190.5000;0.9491;-5.3450;
-190.2000;0.9508;-5.3425;
-189.9000;0.9475;-5.3476;
-189.6000;0.9475;-5.3425;
-189.3000;0.9491;-5.3217;
-189.0000;0.9475;-5.3191;
-188.7000;0.9532;-5.3010;
-188.4000;0.9491;-5.3113;
-188.1000;0.9467;-5.3191;
-187.8000;0.9491;-5.3087;
-187.5000;0.9499;-5.3061;
-187.2000;0.9467;-5.3087;
-186.9000;0.9475;-5.3165;
-186.6000;0.9483;-5.3113;
-186.3000;0.9483;-5.3217;
-186.0000;0.9475;-5.3347;
-185.7000;0.9475;-5.3243;
-185.4000;0.9475;-5.3217;
-185.1000;0.9475;-5.3217;
-184.8000;0.9459;-5.3217;
-184.5000;0.9483;-5.3113;
-184.2000;0.9499;-5.3139;
-183.9000;0.9499;-5.3113;
-183.6000;0.9483;-5.3036;
-183.3000;0.9475;-5.3139;
-183.0000;0.9426;-5.3139;
-182.7000;0.9483;-5.3010;
-182.4000;0.9491;-5.3010;
-182.1000;0.9475;-5.3113;
-181.8000;0.9467;-5.3191;
-181.5000;0.9475;-5.3139;
-181.2000;0.9475;-5.3139;
-180.9000;0.9483;-5.3113;
-180.6000;0.9483;-5.3113;
-180.3000;0.9483;-5.3113;
-180.0000;0.9508;-5.3087;
-179.7000;0.9508;-5.3010;
-179.4000;0.9475;-5.3087;
-179.1000;0.9491;-5.3061;
-178.8000;0.9491;-5.3036;
-178.5000;0.9483;-5.3036;
-178.2000;0.9475;-5.3087;
-177.9000;0.9483;-5.3217;
-177.6000;0.9483;-5.3165;
-177.3000;0.9467;-5.3243;
-177.0000;0.9475;-5.3295;
-176.7000;0.9475;-5.3295;
-176.4000;0.9483;-5.3321;
-176.1000;0.9475;-5.3321;
-175.8000;0.9483;-5.3321;
-175.5000;0.9475;-5.3321;
-175.2000;0.9483;-5.3321;
-174.9000;0.9491;-5.3243;
-174.6000;0.9491;-5.3321;
-174.3000;0.9491;-5.3347;
-174.0000;0.9499;-5.3321;
-173.7000;0.9499;-5.3347;
-173.4000;0.9499;-5.3399;
-173.1000;0.9483;-5.3347;
-172.8000;0.9483;-5.3373;
-172.5000;0.9467;-5.3347;
-172.2000;0.9508;-5.3295;
-171.9000;0.9483;-5.3321;
-171.6000;0.9491;-5.3295;
-171.3000;0.9467;-5.3425;
-171.0000;0.9491;-5.3347;
-170.7000;0.9483;-5.3321;
-170.4000;0.9483;-5.3269;
-170.1000;0.9483;-5.3269;
-169.8000;0.9499;-5.3295;
-169.5000;0.9483;-5.3295;
-169.2000;0.9467;-5.3321;
-168.9000;0.9475;-5.3295;
-168.6000;0.9491;-5.3269;
-168.3000;0.9475;-5.3321;
-168.0000;0.9483;-5.3373;
-167.7000;0.9467;-5.3399;
-167.4000;0.9475;-5.3295;
-167.1000;0.9475;-5.3321;
-166.8000;0.9475;-5.3165;
-166.5000;0.9475;-5.3191;
-166.2000;0.9467;-5.3139;
-165.9000;0.9475;-5.3191;
-165.6000;0.9467;-5.3191;
-165.3000;0.9491;-5.3061;
-165.0000;0.9475;-5.3113;
-164.7000;0.9475;-5.3165;
-164.4000;0.9483;-5.3113;
-164.1000;0.9483;-5.3217;
-163.8000;0.9483;-5.3243;
-163.5000;0.9491;-5.3243;
-163.2000;0.9475;-5.3217;
-162.9000;0.9475;-5.3217;
-162.6000;0.9459;-5.3217;
-162.3000;0.9491;-5.3165;
-162.0000;0.9475;-5.3139;
-161.7000;0.9467;-5.3191;
-161.4000;0.9475;-5.3191;
-161.1000;0.9483;-5.3113;
-160.8000;0.9483;-5.3139;
-160.5000;0.9475;-5.3061;
-160.2000;0.9475;-5.3061;
-159.9000;0.9467;-5.3165;
-159.6000;0.9491;-5.3010;
-159.3000;0.9475;-5.3061;
-159.0000;0.9556;-5.2828;
-158.7000;0.9475;-5.3010;
-158.4000;0.9475;-5.3087;
-158.1000;0.9483;-5.3113;
-157.8000;0.9475;-5.3191;
-157.5000;0.9475;-5.3165;
-157.2000;0.9483;-5.3087;
-156.9000;0.9483;-5.3087;
-156.6000;0.9475;-5.3036;
-156.3000;0.9475;-5.3113;
-156.0000;0.9467;-5.3010;
-155.7000;0.9483;-5.3010;
-155.4000;0.9467;-5.3010;
-155.1000;0.9475;-5.3087;
-154.8000;0.9475;-5.3087;
-154.5000;0.9483;-5.3113;
-154.2000;0.9491;-5.3191;
-153.9000;0.9491;-5.3139;
-153.6000;0.9499;-5.3087;
-153.3000;0.9499;-5.3036;
-153.0000;0.9475;-5.3061;
-152.7000;0.9483;-5.3061;
-152.4000;0.9467;-5.2984;
-152.1000;0.9475;-5.2958;
-151.8000;0.9483;-5.3036;
-151.5000;0.9540;-5.2984;
-151.2000;0.9475;-5.3113;
-150.9000;0.9475;-5.3113;
-150.6000;0.9467;-5.3165;
-150.3000;0.9467;-5.3087;
-150.0000;0.9483;-5.2984;
-149.7000;0.9532;-5.2828;
-149.4000;0.9491;-5.2932;
-149.1000;0.9475;-5.2958;
-148.8000;0.9483;-5.2984;
-148.5000;0.9491;-5.2984;
-148.2000;0.9459;-5.3087;
-147.9000;0.9491;-5.3113;
-147.6000;0.9475;-5.3165;
-147.3000;0.9491;-5.3113;
-147.0000;0.9483;-5.3191;
-146.7000;0.9499;-5.3165;
-146.4000;0.9475;-5.3191;
-146.1000;0.9491;-5.3165;
-145.8000;0.9483;-5.3139;
-145.5000;0.9483;-5.3191;
-145.2000;0.9475;-5.3243;
-144.9000;0.9467;-5.3243;
-144.6000;0.9475;-5.3243;
-144.3000;0.9499;-5.3010;
-144.0000;0.9499;-5.3010;
-143.7000;0.9475;-5.3139;
-143.4000;0.9475;-5.3217;
-143.1000;0.9491;-5.3269;
-142.8000;0.9491;-5.3217;
-142.5000;0.9475;-5.3269;
-142.2000;0.9499;-5.3217;
-141.9000;0.9475;-5.3139;
-141.6000;0.9442;-5.3243;
-141.3000;0.9475;-5.3243;
-141.0000;0.9483;-5.3269;
-140.7000;0.9475;-5.3217;
-140.4000;0.9483;-5.3061;
-140.1000;0.9459;-5.3113;
-139.8000;0.9467;-5.3113;
-139.5000;0.9499;-5.2984;
-139.2000;0.9491;-5.3036;
-138.9000;0.9459;-5.3087;
-138.6000;0.9524;-5.2932;
-138.3000;0.9475;-5.3217;
-138.0000;0.9499;-5.3165;
-137.7000;0.9483;-5.3165;
-137.4000;0.9524;-5.3061;
-137.1000;0.9475;-5.3191;
-136.8000;0.9491;-5.3165;
-136.5000;0.9491;-5.3217;
-136.2000;0.9483;-5.3191;
-135.9000;0.9475;-5.3295;
-135.6000;0.9483;-5.3243;
-135.3000;0.9475;-5.3217;
-135.0000;0.9483;-5.3165;
-134.7000;0.9532;-5.3036;
-134.4000;0.9475;-5.3217;
-134.1000;0.9483;-5.3217;
-133.8000;0.9434;-5.3295;
-133.5000;0.9475;-5.3243;
-133.2000;0.9475;-5.3295;
-132.9000;0.9475;-5.3295;
-132.6000;0.9540;-5.3191;
-132.3000;0.9483;-5.3321;
-132.0000;0.9483;-5.3321;
-131.7000;0.9459;-5.3373;
-131.4000;0.9508;-5.3295;
-131.1000;0.9475;-5.3399;
-130.8000;0.9475;-5.3347;
-130.5000;0.9467;-5.3373;
-130.2000;0.9483;-5.3269;
-129.9000;0.9467;-5.3295;
-129.6000;0.9483;-5.3347;
-129.3000;0.9475;-5.3347;
-129.0000;0.9459;-5.3399;
-128.7000;0.9483;-5.3243;
-128.4000;0.9434;-5.3347;
-128.1000;0.9532;-5.3165;
-127.8000;0.9475;-5.3269;
-127.5000;0.9475;-5.3243;
-127.2000;0.9475;-5.3165;
-126.9000;0.9475;-5.3243;
-126.6000;0.9459;-5.3269;
-126.3000;0.9475;-5.3243;
-126.0000;0.9483;-5.3295;
-125.7000;0.9467;-5.3295;
-125.4000;0.9459;-5.3269;
-125.1000;0.9532;-5.3165;
-124.8000;0.9483;-5.3321;
-124.5000;0.9475;-5.3295;
-124.2000;0.9475;-5.3399;
-123.9000;0.9467;-5.3373;
-123.6000;0.9475;-5.3347;
-123.3000;0.9483;-5.3347;
-123.0000;0.9491;-5.3425;
-122.7000;0.9508;-5.3295;
-122.4000;0.9499;-5.3373;
-122.1000;0.9475;-5.3554;
-121.8000;0.9499;-5.3554;
-121.5000;0.9483;-5.3580;
-121.2000;0.9483;-5.3502;
-120.9000;0.9467;-5.3502;
-120.6000;0.9475;-5.3450;
-120.3000;0.9483;-5.3347;
-120.0000;0.9475;-5.3347;
-119.7000;0.9467;-5.3321;
-119.4000;0.9475;-5.3321;
-119.1000;0.9475;-5.3373;
-118.8000;0.9491;-5.3347;
-118.5000;0.9491;-5.3425;
-118.2000;0.9467;-5.3580;
-117.9000;0.9467;-5.3476;
-117.6000;0.9402;-5.3580;
-117.3000;0.9491;-5.3425;
-117.0000;0.9483;-5.3295;
-116.7000;0.9491;-5.3217;
-116.4000;0.9483;-5.3217;
-116.1000;0.9491;-5.3217;
-115.8000;0.9491;-5.3217;
-115.5000;0.9418;-5.3347;
-115.2000;0.9475;-5.3243;
-114.9000;0.9467;-5.3217;
-114.6000;0.9483;-5.3087;
-114.3000;0.9459;-5.3087;
-114.0000;0.9475;-5.3165;
-113.7000;0.9475;-5.3243;
-113.4000;0.9475;-5.3217;
-113.1000;0.9483;-5.3139;
-112.8000;0.9475;-5.3139;
-112.5000;0.9508;-5.3036;
-112.2000;0.9499;-5.3139;
-111.9000;0.9491;-5.3217;
-111.6000;0.9499;-5.3087;
-111.3000;0.9491;-5.3087;
-111.0000;0.9499;-5.3061;
-110.7000;0.9483;-5.3061;
-110.4000;0.9475;-5.3061;
-110.1000;0.9467;-5.3165;
-109.8000;0.9491;-5.3061;
-109.5000;0.9483;-5.3217;
-109.2000;0.9467;-5.3243;
-108.9000;0.9475;-5.3269;
-108.6000;0.9483;-5.3217;
-108.3000;0.9475;-5.3191;
-108.0000;0.9475;-5.3139;
-107.7000;0.9548;-5.3010;
-107.4000;0.9491;-5.3269;
-107.1000;0.9491;-5.3217;
-106.8000;0.9483;-5.3269;
-106.5000;0.9467;-5.3269;
-106.2000;0.9491;-5.3191;
-105.9000;0.9475;-5.3243;
-105.6000;0.9491;-5.3217;
-105.3000;0.9483;-5.3269;
-105.0000;0.9459;-5.3243;
-104.7000;0.9483;-5.3217;
-104.4000;0.9475;-5.3295;
-104.1000;0.9483;-5.3295;
-103.8000;0.9475;-5.3399;
-103.5000;0.9467;-5.3425;
-103.2000;0.9548;-5.3087;
-102.9000;0.9467;-5.3243;
-102.6000;0.9475;-5.3217;
-102.3000;0.9410;-5.3347;
-102.0000;0.9475;-5.3217;
-101.7000;0.9426;-5.3399;
-101.4000;0.9483;-5.3269;
-101.1000;0.9467;-5.3217;
-100.8000;0.9475;-5.3217;
-100.5000;0.9459;-5.3243;
-100.2000;0.9459;-5.3243;
-99.9000;0.9459;-5.3269;
-99.6000;0.9483;-5.3269;
-99.3000;0.9499;-5.3399;
-99.0000;0.9475;-5.3425;
-98.7000;0.9532;-5.3373;
-98.4000;0.9483;-5.3502;
-98.1000;0.9483;-5.3476;
-97.8000;0.9483;-5.3450;
-97.5000;0.9499;-5.3321;
-97.2000;0.9491;-5.3347;
-96.9000;0.9483;-5.3321;
-96.6000;0.9508;-5.3217;
-96.3000;0.9508;-5.3139;
-96.0000;0.9491;-5.3165;
-95.7000;0.9451;-5.3295;
-95.4000;0.9475;-5.3191;
-95.1000;0.9483;-5.3113;
-94.8000;0.9467;-5.3217;
-94.5000;0.9499;-5.3139;
-94.2000;0.9491;-5.3113;
-93.9000;0.9475;-5.3217;
-93.6000;0.9434;-5.3347;
-93.3000;0.9491;-5.3269;
-93.0000;0.9483;-5.3269;
-92.7000;0.9475;-5.3399;
-92.4000;0.9475;-5.3347;
-92.1000;0.9483;-5.3269;
-91.8000;0.9475;-5.3269;
-91.5000;0.9475;-5.3191;
-91.2000;0.9475;-5.3191;
-90.9000;0.9483;-5.3113;
-90.6000;0.9499;-5.3113;
-90.3000;0.9483;-5.3139;
-90.0000;0.9483;-5.3165;
-89.7000;0.9483;-5.3217;
-89.4000;0.9467;-5.3295;
-89.1000;0.9475;-5.3295;
-88.8000;0.9467;-5.3269;
-88.5000;0.9467;-5.3295;
-88.2000;0.9499;-5.3295;
-87.9000;0.9483;-5.3269;
-87.6000;0.9508;-5.3217;
-87.3000;0.9475;-5.3321;
-87.0000;0.9483;-5.3191;
-86.7000;0.9483;-5.3217;
-86.4000;0.9483;-5.3269;
-86.1000;0.9483;-5.3191;
-85.8000;0.9491;-5.3165;
-85.5000;0.9483;-5.3165;
-85.2000;0.9491;-5.3087;
-84.9000;0.9467;-5.3087;
-84.6000;0.9483;-5.3061;
-84.3000;0.9491;-5.3036;
-84.0000;0.9483;-5.3113;
-83.7000;0.9483;-5.3165;
-83.4000;0.9467;-5.3165;
-83.1000;0.9499;-5.3113;
-82.8000;0.9491;-5.3191;
-82.5000;0.9491;-5.3217;
-82.2000;0.9459;-5.3321;
-81.9000;0.9491;-5.3217;
-81.6000;0.9508;-5.3191;
-81.3000;0.9459;-5.3321;
-81.0000;0.9483;-5.3295;
-80.7000;0.9483;-5.3191;
-80.4000;0.9499;-5.3269;
-80.1000;0.9565;-5.3010;
-79.8000;0.9402;-5.3373;
-79.5000;0.9459;-5.3243;
-79.2000;0.9467;-5.3243;
-78.9000;0.9467;-5.3243;
-78.6000;0.9508;-5.3061;
-78.3000;0.9475;-5.3087;
-78.0000;0.9475;-5.3113;
-77.7000;0.9475;-5.3113;
-77.4000;0.9483;-5.3139;
-77.1000;0.9459;-5.3243;
-76.8000;0.9451;-5.3321;
-76.5000;0.9491;-5.3191;
-76.2000;0.9483;-5.3217;
-75.9000;0.9483;-5.3165;
-75.6000;0.9475;-5.3243;
-75.3000;0.9475;-5.3165;
-75.0000;0.9483;-5.3165;
-74.7000;0.9475;-5.3165;
-74.4000;0.9459;-5.3165;
-74.1000;0.9467;-5.3191;
-73.8000;0.9442;-5.3269;
-73.5000;0.9483;-5.3243;
-73.2000;0.9483;-5.3243;
-72.9000;0.9475;-5.3347;
-72.6000;0.9508;-5.3191;
-72.3000;0.9491;-5.3139;
-72.0000;0.9467;-5.3191;
-71.7000;0.9483;-5.3191;
-71.4000;0.9483;-5.3165;
-71.1000;0.9475;-5.3113;
-70.8000;0.9491;-5.3061;
-70.5000;0.9499;-5.3061;
-70.2000;0.9426;-5.3321;
-69.9000;0.9475;-5.3269;
-69.6000;0.9483;-5.3295;
-69.3000;0.9451;-5.3295;
-69.0000;0.9483;-5.3139;
-68.7000;0.9467;-5.3139;
-68.4000;0.9499;-5.3113;
-68.1000;0.9475;-5.3295;
-67.8000;0.9467;-5.3217;
-67.5000;0.9475;-5.3165;
-67.2000;0.9483;-5.3087;
-66.9000;0.9475;-5.3139;
-66.6000;0.9483;-5.3165;
-66.3000;0.9483;-5.3165;
-66.0000;0.9483;-5.3139;
-65.7000;0.9475;-5.3139;
-65.4000;0.9483;-5.3061;
-65.1000;0.9491;-5.3113;
-64.8000;0.9483;-5.3165;
-64.5000;0.9508;-5.3191;
-64.2000;0.9475;-5.3269;
-63.9000;0.9499;-5.3139;
-63.6000;0.9491;-5.3139;
-63.3000;0.9475;-5.3139;
-63.0000;0.9459;-5.3165;
-62.7000;0.9532;-5.2880;
-62.4000;0.9491;-5.3036;
-62.1000;0.9475;-5.3113;
-61.8000;0.9467;-5.3113;
-61.5000;0.9475;-5.3113;
-61.2000;0.9483;-5.3113;
-60.9000;0.9491;-5.3139;
-60.6000;0.9483;-5.3113;
-60.3000;0.9467;-5.3113;
-60.0000;0.9483;-5.3036;
-59.7000;0.9475;-5.3061;
-59.4000;0.9499;-5.3061;
-59.1000;0.9475;-5.3061;
-58.8000;0.9499;-5.3061;
-58.5000;0.9491;-5.3165;
-58.2000;0.9451;-5.3243;
-57.9000;0.9483;-5.3139;
-57.6000;0.9483;-5.3113;
-57.3000;0.9483;-5.3217;
-57.0000;0.9491;-5.3217;
-56.7000;0.9467;-5.3269;
-56.4000;0.9499;-5.3217;
-56.1000;0.9483;-5.3295;
-55.8000;0.9491;-5.3243;
-55.5000;0.9475;-5.3217;
-55.2000;0.9467;-5.3347;
-54.9000;0.9499;-5.3269;
-54.6000;0.9483;-5.3295;
-54.3000;0.9491;-5.3347;
-54.0000;0.9483;-5.3347;
-53.7000;0.9483;-5.3321;
-53.4000;0.9483;-5.3243;
-53.1000;0.9491;-5.3373;
-52.8000;0.9475;-5.3450;
-52.5000;0.9524;-5.3321;
-52.2000;0.9459;-5.3450;
-51.9000;0.9467;-5.3450;
-51.6000;0.9459;-5.3502;
-51.3000;0.9451;-5.3502;
-51.0000;0.9483;-5.3502;
-50.7000;0.9483;-5.3476;
-50.4000;0.9475;-5.3373;
-50.1000;0.9475;-5.3373;
-49.8000;0.9483;-5.3321;
-49.5000;0.9483;-5.3269;
-49.2000;0.9483;-5.3321;
-48.9000;0.9483;-5.3269;
-48.6000;0.9508;-5.3191;
-48.3000;0.9491;-5.3243;
-48.0000;0.9475;-5.3217;
-47.7000;0.9491;-5.3243;
-47.4000;0.9483;-5.3295;
-47.1000;0.9491;-5.3347;
-46.8000;0.9483;-5.3321;
-46.5000;0.9483;-5.3295;
-46.2000;0.9483;-5.3269;
-45.9000;0.9483;-5.3243;
-45.6000;0.9475;-5.3243;
-45.3000;0.9483;-5.3321;
-45.0000;0.9467;-5.3450;
-44.7000;0.9475;-5.3321;
-44.4000;0.9499;-5.3269;
-44.1000;0.9483;-5.3243;
-43.8000;0.9483;-5.3243;
-43.5000;0.9499;-5.3217;
-43.2000;0.9491;-5.3321;
-42.9000;0.9475;-5.3425;
-42.6000;0.9524;-5.3269;
-42.3000;0.9459;-5.3399;
-42.0000;0.9491;-5.3321;
-41.7000;0.9475;-5.3243;
-41.4000;0.9475;-5.3295;
-41.1000;0.9483;-5.3217;
-40.8000;0.9499;-5.3113;
-40.5000;0.9467;-5.3217;
-40.2000;0.9483;-5.3113;
-39.9000;0.9483;-5.3087;
-39.6000;0.9491;-5.3113;
-39.3000;0.9475;-5.3243;
-39.0000;0.9483;-5.3191;
-38.7000;0.9491;-5.3217;
-38.4000;0.9491;-5.3191;
-38.1000;0.9499;-5.3217;
-37.8000;0.9491;-5.3217;
-37.5000;0.9451;-5.3321;
-37.2000;0.9467;-5.3243;
-36.9000;0.9467;-5.3295;
-36.6000;0.9483;-5.3269;
-36.3000;0.9475;-5.3295;
-36.0000;0.9491;-5.3321;
-35.7000;0.9491;-5.3295;
-35.4000;0.9459;-5.3425;
-35.1000;0.9483;-5.3399;
-34.8000;0.9475;-5.3373;
-34.5000;0.9475;-5.3321;
-34.2000;0.9516;-5.3217;
-33.9000;0.9483;-5.3425;
-33.6000;0.9483;-5.3373;
-33.3000;0.9483;-5.3217;
-33.0000;0.9418;-5.3347;
-32.7000;0.9483;-5.3243;
-32.4000;0.9459;-5.3321;
-32.1000;0.9475;-5.3217;
-31.8000;0.9475;-5.3243;
-31.5000;0.9475;-5.3191;
-31.2000;0.9475;-5.3295;
-30.9000;0.9475;-5.3321;
-30.6000;0.9516;-5.3139;
-30.3000;0.9483;-5.3295;
-30.0000;0.9491;-5.3269;
-29.7000;0.9499;-5.3217;
-29.4000;0.9483;-5.3243;
-29.1000;0.9499;-5.3191;
-28.8000;0.9491;-5.3243;
-28.5000;0.9491;-5.3295;
-28.2000;0.9483;-5.3295;
-27.9000;0.9483;-5.3373;
-27.6000;0.9475;-5.3373;
-27.3000;0.9491;-5.3373;
-27.0000;0.9475;-5.3269;
-26.7000;0.9483;-5.3243;
-26.4000;0.9499;-5.3191;
-26.1000;0.9483;-5.3269;
-25.8000;0.9491;-5.3321;
-25.5000;0.9410;-5.3450;
-25.2000;0.9491;-5.3295;
-24.9000;0.9499;-5.3295;
-24.6000;0.9508;-5.3295;
-24.3000;0.9467;-5.3450;
-24.0000;0.9483;-5.3450;
-23.7000;0.9483;-5.3399;
-23.4000;0.9483;-5.3295;
-23.1000;0.9483;-5.3295;
-22.8000;0.9483;-5.3269;
-22.5000;0.9483;-5.3399;
-22.2000;0.9483;-5.3425;
-21.9000;0.9475;-5.3295;
-21.6000;0.9483;-5.3399;
-21.3000;0.9499;-5.3321;
-21.0000;0.9475;-5.3399;
-20.7000;0.9475;-5.3321;
-20.4000;0.9499;-5.3243;
-20.1000;0.9491;-5.3243;
-19.8000;0.9483;-5.3217;
-19.5000;0.9475;-5.3295;
-19.2000;0.9475;-5.3295;
-18.9000;0.9483;-5.3269;
-18.6000;0.9475;-5.3321;
-18.3000;0.9508;-5.3269;
-18.0000;0.9475;-5.3269;
-17.7000;0.9483;-5.3191;
-17.4000;0.9508;-5.3165;
-17.1000;0.9475;-5.3217;
-16.8000;0.9467;-5.3243;
-16.5000;0.9516;-5.3139;
-16.2000;0.9483;-5.3269;
-15.9000;0.9508;-5.3139;
-15.6000;0.9475;-5.3269;
-15.3000;0.9467;-5.3243;
-15.0000;0.9491;-5.3269;
-14.7000;0.9410;-5.3321;
-14.4000;0.9475;-5.3295;
-14.1000;0.9475;-5.3295;
-13.8000;0.9483;-5.3217;
-13.5000;0.9491;-5.3269;
-13.2000;0.9467;-5.3295;
-12.9000;0.9483;-5.3347;
-12.6000;0.9475;-5.3321;
-12.3000;0.9475;-5.3243;
-12.0000;0.9467;-5.3269;
-11.7000;0.9475;-5.3295;
-11.4000;0.9483;-5.3321;
-11.1000;0.9475;-5.3321;
-10.8000;0.9459;-5.3347;
-10.5000;0.9475;-5.3399;
-10.2000;0.9394;-5.3606;
-9.9000;0.9459;-5.3373;
-9.6000;0.9467;-5.3373;
-9.3000;0.9434;-5.3425;
-9.0000;0.9483;-5.3321;
-8.7000;0.9483;-5.3269;
-8.4000;0.9467;-5.3243;
-8.1000;0.9467;-5.3295;
-7.8000;0.9483;-5.3269;
-7.5000;0.9475;-5.3295;
-7.2000;0.9434;-5.3399;
-6.9000;0.9475;-5.3295;
-6.6000;0.9467;-5.3321;
-6.3000;0.9475;-5.3399;
-6.0000;0.9475;-5.3399;
-5.7000;0.9475;-5.3399;
-5.4000;0.9483;-5.3373;
-5.1000;0.9475;-5.3476;
-4.8000;0.9483;-5.3450;
-4.5000;0.9491;-5.3399;
-4.2000;0.9491;-5.3399;
-3.9000;0.9491;-5.3321;
-3.6000;0.9508;-5.3217;
-3.3000;0.9491;-5.3217;
-3.0000;0.9491;-5.3217;
-2.7000;0.9483;-5.3295;
-2.4000;0.9516;-5.3321;
-2.1000;0.9483;-5.3373;
-1.8000;0.9475;-5.3399;
-1.5000;0.9499;-5.3269;
-1.2000;0.9491;-5.3295;
-0.9000;0.9475;-5.3399;
-0.6000;0.9556;-5.3139;
-0.3000;0.9719;-5.2828;
0.0000;0.9719;-5.2828;
0.3000;0.9621;-5.3243;
0.6000;0.9866;-5.2672;
0.9000;1.0069;-5.2154;
1.2000;1.0216;-5.1765;
1.5000;1.0313;-5.1505;
1.8000;1.0444;-5.1013;
2.1000;1.0533;-5.0753;
2.4000;1.0582;-5.0494;
2.7000;1.0663;-5.0261;
3.0000;1.0712;-5.0209;
3.3000;1.0745;-5.0157;
3.6000;1.0777;-5.0027;
3.9000;1.0834;-4.9897;
4.2000;1.0851;-4.9768;
4.5000;1.0867;-4.9690;
4.8000;1.0883;-4.9664;
5.1000;1.0981;-4.9431;
5.4000;1.0948;-4.9508;
5.7000;1.0997;-4.9431;
6.0000;1.0981;-4.9508;
6.3000;1.1022;-4.9508;
6.6000;1.1030;-4.9586;
6.9000;1.1070;-4.9560;
7.2000;1.1095;-4.9483;
7.5000;1.1111;-4.9405;
7.8000;1.1127;-4.9431;
8.1000;1.1119;-4.9483;
8.4000;1.1119;-4.9483;
8.7000;1.1152;-4.9483;
9.0000;1.1168;-4.9483;
9.3000;1.1184;-4.9405;
9.6000;1.1201;-4.9353;
9.9000;1.1193;-4.9483;
10.2000;1.1217;-4.9483;
10.5000;1.1225;-4.9534;
10.8000;1.1241;-4.9508;
11.1000;1.1241;-4.9534;
11.4000;1.1258;-4.9534;
11.7000;1.1258;-4.9508;
12.0000;1.1233;-4.9560;
12.3000;1.1274;-4.9457;
12.6000;1.1274;-4.9534;
12.9000;1.1323;-4.9457;
13.2000;1.1315;-4.9560;
13.5000;1.1323;-4.9483;
13.8000;1.1331;-4.9457;
14.1000;1.1323;-4.9457;
14.4000;1.1355;-4.9483;
14.7000;1.1347;-4.9560;
15.0000;1.1347;-4.9638;
15.3000;1.1363;-4.9638;
15.6000;1.1380;-4.9638;
15.9000;1.1388;-4.9612;
16.2000;1.1380;-4.9586;
16.5000;1.1388;-4.9534;
16.8000;1.1412;-4.9457;
17.1000;1.1412;-4.9405;
17.4000;1.1420;-4.9431;
17.7000;1.1404;-4.9483;
18.0000;1.1412;-4.9379;
18.3000;1.1412;-4.9379;
18.6000;1.1420;-4.9327;
18.9000;1.1420;-4.9249;
19.2000;1.1429;-4.9301;
19.5000;1.1437;-4.9431;
19.8000;1.1445;-4.9353;
20.1000;1.1437;-4.9353;
20.4000;1.1453;-4.9405;
20.7000;1.1477;-4.9405;
21.0000;1.1469;-4.9534;
21.3000;1.1477;-4.9534;
21.6000;1.1412;-4.9690;
21.9000;1.1486;-4.9457;
22.2000;1.1486;-4.9534;
22.5000;1.1453;-4.9586;
22.8000;1.1518;-4.9508;
23.1000;1.1494;-4.9586;
23.4000;1.1510;-4.9612;
23.7000;1.1502;-4.9664;
24.0000;1.1502;-4.9586;
24.3000;1.1502;-4.9612;
24.6000;1.1486;-4.9690;
24.9000;1.1526;-4.9508;
25.2000;1.1510;-4.9431;
25.5000;1.1502;-4.9534;
25.8000;1.1518;-4.9534;
26.1000;1.1510;-4.9508;
26.4000;1.1510;-4.9379;
26.7000;1.1526;-4.9301;
27.0000;1.1534;-4.9353;
27.3000;1.1534;-4.9327;
27.6000;1.1583;-4.9301;
27.9000;1.1526;-4.9508;
28.2000;1.1551;-4.9534;
28.5000;1.1543;-4.9586;
28.8000;1.1551;-4.9560;
29.1000;1.1543;-4.9508;
29.4000;1.1543;-4.9534;
29.7000;1.1567;-4.9483;
30.0000;1.1551;-4.9508;
30.3000;1.1551;-4.9508;
30.6000;1.1543;-4.9534;
30.9000;1.1600;-4.9327;
31.2000;1.1575;-4.9431;
31.5000;1.1567;-4.9560;
31.8000;1.1543;-4.9560;
32.1000;1.1583;-4.9560;
32.4000;1.1583;-4.9534;
32.7000;1.1518;-4.9638;
33.0000;1.1567;-4.9534;
33.3000;1.1559;-4.9534;
33.6000;1.1575;-4.9638;
33.9000;1.1559;-4.9690;
34.2000;1.1551;-4.9716;
34.5000;1.1583;-4.9638;
34.8000;1.1608;-4.9483;
35.1000;1.1600;-4.9457;
35.4000;1.1591;-4.9508;
35.7000;1.1575;-4.9534;
36.0000;1.1591;-4.9560;
36.3000;1.1591;-4.9560;
36.6000;1.1583;-4.9586;
36.9000;1.1567;-4.9638;
37.2000;1.1591;-4.9612;
37.5000;1.1575;-4.9560;
37.8000;1.1583;-4.9508;
38.1000;1.1575;-4.9586;
38.4000;1.1591;-4.9534;
38.7000;1.1608;-4.9457;
39.0000;1.1583;-4.9508;
39.3000;1.1591;-4.9483;
39.6000;1.1591;-4.9483;
39.9000;1.1600;-4.9457;
40.2000;1.1583;-4.9483;
40.5000;1.1583;-4.9508;
40.8000;1.1591;-4.9457;
41.1000;1.1608;-4.9405;
41.4000;1.1608;-4.9431;
41.7000;1.1591;-4.9431;
42.0000;1.1583;-4.9379;
42.3000;1.1591;-4.9379;
42.6000;1.1616;-4.9353;
42.9000;1.1608;-4.9353;
43.2000;1.1583;-4.9379;
43.5000;1.1608;-4.9431;
43.8000;1.1616;-4.9431;
44.1000;1.1600;-4.9431;
44.4000;1.1583;-4.9508;
44.7000;1.1600;-4.9483;
45.0000;1.1624;-4.9379;
45.3000;1.1600;-4.9327;
45.6000;1.1600;-4.9301;
45.9000;1.1583;-4.9301;
46.2000;1.1600;-4.9249;
46.5000;1.1608;-4.9145;
46.8000;1.1616;-4.9068;
47.1000;1.1600;-4.9249;
47.4000;1.1616;-4.9353;
47.7000;1.1624;-4.9327;
48.0000;1.1559;-4.9560;
48.3000;1.1616;-4.9379;
48.6000;1.1616;-4.9379;
48.9000;1.1616;-4.9431;
49.2000;1.1616;-4.9405;
49.5000;1.1608;-4.9379;
49.8000;1.1616;-4.9379;
50.1000;1.1624;-4.9405;
50.4000;1.1608;-4.9405;
50.7000;1.1600;-4.9483;
51.0000;1.1583;-4.9483;
51.3000;1.1608;-4.9405;
51.6000;1.1616;-4.9353;
51.9000;1.1616;-4.9327;
52.2000;1.1608;-4.9327;
52.5000;1.1608;-4.9353;
52.8000;1.1608;-4.9379;
53.1000;1.1616;-4.9327;
53.4000;1.1608;-4.9405;
53.7000;1.1518;-4.9483;
54.0000;1.1608;-4.9301;
54.3000;1.1632;-4.9301;
54.6000;1.1608;-4.9327;
54.9000;1.1600;-4.9353;
55.2000;1.1616;-4.9327;
55.5000;1.1673;-4.9171;
55.8000;1.1624;-4.9275;
56.1000;1.1600;-4.9275;
56.4000;1.1608;-4.9327;
56.7000;1.1616;-4.9353;
57.0000;1.1624;-4.9327;
57.3000;1.1656;-4.9197;
57.6000;1.1648;-4.9275;
57.9000;1.1624;-4.9353;
58.2000;1.1616;-4.9327;
58.5000;1.1616;-4.9353;
58.8000;1.1608;-4.9457;
59.1000;1.1616;-4.9457;
59.4000;1.1632;-4.9431;
59.7000;1.1624;-4.9483;
60.0000;1.1600;-4.9560;
60.3000;1.1591;-4.9534;
60.6000;1.1616;-4.9431;
60.9000;1.1591;-4.9508;
61.2000;1.1616;-4.9431;
61.5000;1.1616;-4.9431;
61.8000;1.1681;-4.9223;
62.1000;1.1616;-4.9534;
62.4000;1.1608;-4.9534;
62.7000;1.1648;-4.9405;
63.0000;1.1608;-4.9457;
63.3000;1.1567;-4.9612;
63.6000;1.1624;-4.9457;
63.9000;1.1640;-4.9457;
64.2000;1.1624;-4.9534;
64.5000;1.1624;-4.9483;
64.8000;1.1616;-4.9405;
65.1000;1.1624;-4.9379;
65.4000;1.1624;-4.9353;
65.7000;1.1624;-4.9301;
66.0000;1.1616;-4.9431;
66.3000;1.1616;-4.9405;
66.6000;1.1616;-4.9457;
66.9000;1.1624;-4.9431;
67.2000;1.1632;-4.9457;
67.5000;1.1624;-4.9483;
67.8000;1.1632;-4.9405;
68.1000;1.1640;-4.9353;
68.4000;1.1656;-4.9301;
68.7000;1.1640;-4.9327;
69.0000;1.1640;-4.9353;
69.3000;1.1624;-4.9301;
69.6000;1.1632;-4.9327;
69.9000;1.1624;-4.9327;
70.2000;1.1624;-4.9353;
70.5000;1.1632;-4.9327;
70.8000;1.1608;-4.9457;
71.1000;1.1608;-4.9405;
71.4000;1.1632;-4.9301;
71.7000;1.1632;-4.9353;
72.0000;1.1632;-4.9301;
72.3000;1.1705;-4.9171;
72.6000;1.1600;-4.9353;
72.9000;1.1616;-4.9197;
73.2000;1.1624;-4.9197;
73.5000;1.1624;-4.9275;
73.8000;1.1591;-4.9405;
74.1000;1.1632;-4.9327;
74.4000;1.1624;-4.9405;
74.7000;1.1616;-4.9457;
75.0000;1.1632;-4.9483;
75.3000;1.1656;-4.9431;
75.6000;1.1624;-4.9405;
75.9000;1.1640;-4.9353;
76.2000;1.1616;-4.9353;
76.5000;1.1608;-4.9327;
76.8000;1.1624;-4.9379;
77.1000;1.1616;-4.9405;
77.4000;1.1632;-4.9379;
77.7000;1.1551;-4.9508;
78.0000;1.1632;-4.9327;
78.3000;1.1640;-4.9275;
78.6000;1.1632;-4.9275;
78.9000;1.1656;-4.9249;
79.2000;1.1624;-4.9353;
79.5000;1.1632;-4.9301;
79.8000;1.1624;-4.9301;
80.1000;1.1624;-4.9301;
80.4000;1.1632;-4.9353;
80.7000;1.1591;-4.9405;
81.0000;1.1624;-4.9275;
81.3000;1.1616;-4.9327;
81.6000;1.1624;-4.9275;
81.9000;1.1673;-4.9223;
82.2000;1.1632;-4.9405;
82.5000;1.1624;-4.9405;
82.8000;1.1673;-4.9301;
83.1000;1.1624;-4.9405;
83.4000;1.1640;-4.9431;
83.7000;1.1600;-4.9560;
84.0000;1.1551;-4.9638;
84.3000;1.1632;-4.9508;
84.6000;1.1632;-4.9483;
84.9000;1.1624;-4.9508;
85.2000;1.1624;-4.9508;
85.5000;1.1640;-4.9483;
85.8000;1.1632;-4.9405;
86.1000;1.1624;-4.9405;
86.4000;1.1640;-4.9327;
86.7000;1.1616;-4.9431;
87.0000;1.1624;-4.9353;
87.3000;1.1632;-4.9327;
87.6000;1.1624;-4.9353;
87.9000;1.1616;-4.9379;
88.2000;1.1640;-4.9301;
88.5000;1.1616;-4.9431;
88.8000;1.1608;-4.9534;
89.1000;1.1608;-4.9534;
89.4000;1.1600;-4.9586;
89.7000;1.1616;-4.9508;
90.0000;1.1616;-4.9534;
90.3000;1.1616;-4.9534;
90.6000;1.1616;-4.9508;
90.9000;1.1632;-4.9353;
91.2000;1.1624;-4.9353;
91.5000;1.1616;-4.9301;
91.8000;1.1640;-4.9145;
92.1000;1.1624;-4.9327;
92.4000;1.1648;-4.9353;
92.7000;1.1640;-4.9353;
93.0000;1.1608;-4.9431;
93.3000;1.1624;-4.9353;
93.6000;1.1722;-4.9094;
93.9000;1.1640;-4.9353;
94.2000;1.1632;-4.9431;
94.5000;1.1624;-4.9379;
94.8000;1.1632;-4.9327;
95.1000;1.1632;-4.9379;
95.4000;1.1624;-4.9405;
95.7000;1.1624;-4.9508;
96.0000;1.1624;-4.9534;
96.3000;1.1656;-4.9379;
96.6000;1.1632;-4.9431;
96.9000;1.1624;-4.9483;
97.2000;1.1624;-4.9405;
97.5000;1.1648;-4.9327;
97.8000;1.1640;-4.9431;
98.1000;1.1608;-4.9508;
98.4000;1.1616;-4.9457;
98.7000;1.1673;-4.9379;
99.0000;1.1624;-4.9457;
99.3000;1.1624;-4.9457;
99.6000;1.1608;-4.9508;
99.9000;1.1640;-4.9379;
100.2000;1.1632;-4.9405;
100.5000;1.1624;-4.9405;
100.8000;1.1665;-4.9379;
101.1000;1.1640;-4.9431;
101.4000;1.1616;-4.9483;
101.7000;1.1616;-4.9457;
102.0000;1.1616;-4.9508;
102.3000;1.1608;-4.9405;
102.6000;1.1616;-4.9379;
102.9000;1.1624;-4.9353;
103.2000;1.1640;-4.9301;
103.5000;1.1632;-4.9379;
103.8000;1.1640;-4.9405;
104.1000;1.1648;-4.9431;
104.4000;1.1624;-4.9483;
104.7000;1.1616;-4.9483;
105.0000;1.1640;-4.9431;
105.3000;1.1640;-4.9431;
105.6000;1.1632;-4.9379;
105.9000;1.1632;-4.9379;
106.2000;1.1632;-4.9431;
106.5000;1.1591;-4.9586;
106.8000;1.1616;-4.9508;
107.1000;1.1624;-4.9638;
107.4000;1.1608;-4.9690;
107.7000;1.1624;-4.9612;
108.0000;1.1624;-4.9612;
108.3000;1.1624;-4.9508;
108.6000;1.1648;-4.9405;
108.9000;1.1624;-4.9483;
109.2000;1.1616;-4.9483;
109.5000;1.1624;-4.9405;
109.8000;1.1616;-4.9405;
110.1000;1.1608;-4.9405;
110.4000;1.1640;-4.9379;
110.7000;1.1624;-4.9457;
111.0000;1.1616;-4.9612;
111.3000;1.1624;-4.9560;
111.6000;1.1624;-4.9457;
111.9000;1.1632;-4.9457;
112.2000;1.1624;-4.9560;
112.5000;1.1608;-4.9560;
112.8000;1.1616;-4.9457;
113.1000;1.1616;-4.9457;
113.4000;1.1656;-4.9405;
113.7000;1.1608;-4.9431;
114.0000;1.1608;-4.9405;
114.3000;1.1624;-4.9353;
114.6000;1.1583;-4.9379;
114.9000;1.1600;-4.9379;
115.2000;1.1624;-4.9327;
115.5000;1.1640;-4.9379;
115.8000;1.1616;-4.9534;
116.1000;1.1616;-4.9638;
116.4000;1.1624;-4.9638;
116.7000;1.1632;-4.9560;
117.0000;1.1632;-4.9534;
117.3000;1.1624;-4.9483;
117.6000;1.1632;-4.9483;
117.9000;1.1624;-4.9560;
118.2000;1.1624;-4.9560;
118.5000;1.1624;-4.9560;
118.8000;1.1583;-4.9664;
119.1000;1.1616;-4.9534;
119.4000;1.1656;-4.9431;
119.7000;1.1591;-4.9560;
120.0000;1.1600;-4.9508;
120.3000;1.1632;-4.9431;
120.6000;1.1616;-4.9508;
120.9000;1.1632;-4.9431;
121.2000;1.1616;-4.9457;
121.5000;1.1616;-4.9457;
121.8000;1.1713;-4.9249;
122.1000;1.1632;-4.9457;
122.4000;1.1583;-4.9560;
122.7000;1.1608;-4.9534;
123.0000;1.1616;-4.9534;
123.3000;1.1616;-4.9664;
123.6000;1.1608;-4.9664;
123.9000;1.1616;-4.9664;
124.2000;1.1648;-4.9612;
124.5000;1.1632;-4.9508;
124.8000;1.1632;-4.9508;
125.1000;1.1616;-4.9431;
125.4000;1.1616;-4.9483;
125.7000;1.1640;-4.9457;
126.0000;1.1632;-4.9405;
126.3000;1.1632;-4.9405;
126.6000;1.1624;-4.9431;
126.9000;1.1632;-4.9405;
127.2000;1.1600;-4.9483;
127.5000;1.1616;-4.9457;
127.8000;1.1616;-4.9483;
128.1000;1.1632;-4.9431;
128.4000;1.1648;-4.9379;
128.7000;1.1624;-4.9405;
129.0000;1.1616;-4.9405;
129.3000;1.1616;-4.9379;
129.6000;1.1624;-4.9275;
129.9000;1.1583;-4.9301;
130.2000;1.1624;-4.9197;
130.5000;1.1616;-4.9119;
130.8000;1.1648;-4.9042;
131.1000;1.1681;-4.9042;
131.4000;1.1600;-4.9249;
131.7000;1.1616;-4.9145;
132.0000;1.1567;-4.9275;
132.3000;1.1640;-4.9119;
132.6000;1.1648;-4.9145;
132.9000;1.1616;-4.9171;
133.2000;1.1559;-4.9379;
133.5000;1.1624;-4.9145;
133.8000;1.1616;-4.9119;
134.1000;1.1608;-4.9145;
134.4000;1.1640;-4.9145;
134.7000;1.1624;-4.9223;
135.0000;1.1600;-4.9301;
135.3000;1.1608;-4.9275;
135.6000;1.1591;-4.9275;
135.9000;1.1648;-4.9171;
136.2000;1.1616;-4.9223;
136.5000;1.1608;-4.9197;
136.8000;1.1608;-4.9171;
137.1000;1.1624;-4.9197;
137.4000;1.1640;-4.9197;
137.7000;1.1616;-4.9275;
138.0000;1.1616;-4.9249;
138.3000;1.1600;-4.9327;
138.6000;1.1575;-4.9301;
138.9000;1.1608;-4.9249;
139.2000;1.1608;-4.9275;
139.5000;1.1624;-4.9249;
139.8000;1.1608;-4.9275;
140.1000;1.1616;-4.9249;
140.4000;1.1600;-4.9145;
140.7000;1.1600;-4.9145;
141.0000;1.1616;-4.9197;
141.3000;1.1624;-4.9197;
141.6000;1.1624;-4.9197;
141.9000;1.1575;-4.9405;
142.2000;1.1616;-4.9223;
142.5000;1.1616;-4.9223;
142.8000;1.1600;-4.9301;
143.1000;1.1600;-4.9249;
143.4000;1.1608;-4.9197;
143.7000;1.1632;-4.9197;
144.0000;1.1600;-4.9275;
144.3000;1.1608;-4.9301;
144.6000;1.1608;-4.9353;
144.9000;1.1616;-4.9405;
145.2000;1.1624;-4.9301;
145.5000;1.1624;-4.9353;
145.8000;1.1616;-4.9327;
146.1000;1.1616;-4.9379;
146.4000;1.1648;-4.9275;
146.7000;1.1632;-4.9249;
147.0000;1.1608;-4.9171;
147.3000;1.1624;-4.9171;
147.6000;1.1624;-4.9145;
147.9000;1.1600;-4.9197;
148.2000;1.1616;-4.9223;
148.5000;1.1624;-4.9249;
148.8000;1.1632;-4.9275;
149.1000;1.1616;-4.9353;
149.4000;1.1632;-4.9379;
149.7000;1.1616;-4.9353;
150.0000;1.1616;-4.9353;
150.3000;1.1640;-4.9275;
150.6000;1.1600;-4.9327;
150.9000;1.1624;-4.9223;
151.2000;1.1616;-4.9353;
151.5000;1.1640;-4.9353;
151.8000;1.1616;-4.9405;
152.1000;1.1624;-4.9379;
152.4000;1.1624;-4.9405;
152.7000;1.1608;-4.9483;
153.0000;1.1656;-4.9405;
153.3000;1.1616;-4.9508;
153.6000;1.1608;-4.9612;
153.9000;1.1608;-4.9586;
154.2000;1.1526;-4.9716;
154.5000;1.1526;-4.9638;
154.8000;1.1722;-4.9145;
155.1000;1.1624;-4.9405;
155.4000;1.1591;-4.9431;
155.7000;1.1616;-4.9379;
156.0000;1.1616;-4.9353;
156.3000;1.1616;-4.9379;
156.6000;1.1600;-4.9405;
156.9000;1.1616;-4.9379;
157.2000;1.1624;-4.9353;
157.5000;1.1608;-4.9353;
157.8000;1.1608;-4.9327;
158.1000;1.1616;-4.9353;
158.4000;1.1616;-4.9353;
158.7000;1.1632;-4.9327;
159.0000;1.1673;-4.9249;
159.3000;1.1608;-4.9327;
159.6000;1.1583;-4.9431;
159.9000;1.1616;-4.9431;
160.2000;1.1624;-4.9431;
160.5000;1.1632;-4.9457;
160.8000;1.1616;-4.9457;
161.1000;1.1616;-4.9560;
161.4000;1.1616;-4.9586;
161.7000;1.1608;-4.9483;
162.0000;1.1616;-4.9457;
162.3000;1.1608;-4.9431;
162.6000;1.1616;-4.9457;
162.9000;1.1632;-4.9508;
163.2000;1.1624;-4.9508;
163.5000;1.1616;-4.9457;
163.8000;1.1616;-4.9405;
164.1000;1.1616;-4.9457;
164.4000;1.1600;-4.9534;
164.7000;1.1608;-4.9483;
165.0000;1.1616;-4.9483;
165.3000;1.1624;-4.9431;
165.6000;1.1616;-4.9353;
165.9000;1.1616;-4.9379;
166.2000;1.1616;-4.9379;
166.5000;1.1624;-4.9379;
166.8000;1.1616;-4.9353;
167.1000;1.1608;-4.9405;
167.4000;1.1608;-4.9457;
167.7000;1.1518;-4.9664;
168.0000;1.1616;-4.9483;
168.3000;1.1600;-4.9534;
168.6000;1.1600;-4.9405;
168.9000;1.1608;-4.9353;
169.2000;1.1624;-4.9327;
169.5000;1.1616;-4.9223;
169.8000;1.1608;-4.9405;
170.1000;1.1559;-4.9457;
170.4000;1.1624;-4.9301;
170.7000;1.1616;-4.9327;
171.0000;1.1616;-4.9275;
171.3000;1.1616;-4.9249;
171.6000;1.1591;-4.9301;
171.9000;1.1616;-4.9249;
172.2000;1.1624;-4.9301;
172.5000;1.1632;-4.9275;
172.8000;1.1616;-4.9431;
173.1000;1.1624;-4.9379;
173.4000;1.1632;-4.9379;
173.7000;1.1616;-4.9379;
174.0000;1.1608;-4.9353;
174.3000;1.1681;-4.9171;
174.6000;1.1575;-4.9508;
174.9000;1.1632;-4.9405;
175.2000;1.1591;-4.9534;
175.5000;1.1648;-4.9327;
175.8000;1.1632;-4.9353;
176.1000;1.1616;-4.9431;
176.4000;1.1600;-4.9457;
176.7000;1.1624;-4.9327;
177.0000;1.1608;-4.9327;
177.3000;1.1616;-4.9405;
177.6000;1.1583;-4.9534;
177.9000;1.1656;-4.9353;
178.2000;1.1600;-4.9508;
178.5000;1.1616;-4.9431;
178.8000;1.1624;-4.9379;
179.1000;1.1624;-4.9431;
179.4000;1.1624;-4.9405;
179.7000;1.1608;-4.9431;
180.0000;1.1616;-4.9405;
180.3000;1.1608;-4.9353;
180.6000;1.1600;-4.9353;
180.9000;1.1608;-4.9431;
181.2000;1.1591;-4.9508;
181.5000;1.1608;-4.9457;
181.8000;1.1608;-4.9431;
182.1000;1.1567;-4.9586;
182.4000;1.1575;-4.9586;
182.7000;1.1608;-4.9457;
183.0000;1.1600;-4.9483;
183.3000;1.1656;-4.9405;
183.6000;1.1600;-4.9457;
183.9000;1.1600;-4.9457;
184.2000;1.1600;-4.9405;
184.5000;1.1616;-4.9379;
184.8000;1.1616;-4.9431;
185.1000;1.1600;-4.9534;
185.4000;1.1616;-4.9483;
185.7000;1.1591;-4.9457;
186.0000;1.1624;-4.9301;
186.3000;1.1600;-4.9353;
186.6000;1.1591;-4.9275;
186.9000;1.1616;-4.9249;
187.2000;1.1616;-4.9223;
187.5000;1.1600;-4.9275;
187.8000;1.1608;-4.9301;
188.1000;1.1600;-4.9327;
188.4000;1.1624;-4.9301;
188.7000;1.1608;-4.9301;
189.0000;1.1608;-4.9249;
189.3000;1.1616;-4.9171;
189.6000;1.1600;-4.9301;
189.9000;1.1567;-4.9431;
190.2000;1.1608;-4.9431;
190.5000;1.1608;-4.9457;
190.8000;1.1591;-4.9534;
191.1000;1.1608;-4.9586;
191.4000;1.1583;-4.9586;
191.7000;1.1600;-4.9534;
192.0000;1.1600;-4.9508;
192.3000;1.1608;-4.9612;
192.6000;1.1591;-4.9716;
192.9000;1.1591;-4.9664;
193.2000;1.1600;-4.9690;
193.5000;1.1591;-4.9716;
193.8000;1.1608;-4.9690;
194.1000;1.1616;-4.9742;
194.4000;1.1600;-4.9742;
194.7000;1.1616;-4.9768;
195.0000;1.1624;-4.9690;
195.3000;1.1600;-4.9768;
195.6000;1.1624;-4.9794;
195.9000;1.1616;-4.9742;
196.2000;1.1616;-4.9664;
196.5000;1.1624;-4.9638;
196.8000;1.1608;-4.9690;
197.1000;1.1624;-4.9612;
197.4000;1.1640;-4.9638;
197.7000;1.1608;-4.9690;
198.0000;1.1632;-4.9638;
198.3000;1.1583;-4.9742;
198.6000;1.1608;-4.9664;
198.9000;1.1616;-4.9664;
199.2000;1.1608;-4.9612;
199.5000;1.1616;-4.9508;
199.8000;1.1608;-4.9508;
200.1000;1.1608;-4.9508;
200.4000;1.1575;-4.9586;
200.7000;1.1608;-4.9560;
201.0000;1.1534;-4.9664;
201.3000;1.1616;-4.9534;
201.6000;1.1608;-4.9483;
201.9000;1.1600;-4.9508;
202.2000;1.1608;-4.9508;
202.5000;1.1608;-4.9483;
202.8000;1.1600;-4.9534;
203.1000;1.1600;-4.9508;
203.4000;1.1600;-4.9560;
203.7000;1.1600;-4.9534;
204.0000;1.1600;-4.9586;
204.3000;1.1600;-4.9716;
204.6000;1.1600;-4.9716;
204.9000;1.1608;-4.9768;
205.2000;1.1608;-4.9768;
205.5000;1.1591;-4.9768;
205.8000;1.1600;-4.9716;
206.1000;1.1616;-4.9690;
206.4000;1.1616;-4.9690;
206.7000;1.1608;-4.9612;
207.0000;1.1608;-4.9612;
207.3000;1.1591;-4.9664;
207.6000;1.1624;-4.9560;
207.9000;1.1600;-4.9638;
208.2000;1.1616;-4.9586;
208.5000;1.1616;-4.9612;
208.8000;1.1616;-4.9586;
209.1000;1.1624;-4.9612;
209.4000;1.1624;-4.9457;
209.7000;1.1616;-4.9483;
210.0000;1.1608;-4.9508;
210.3000;1.1608;-4.9534;
210.6000;1.1583;-4.9508;
210.9000;1.1583;-4.9457;
211.2000;1.1608;-4.9431;
211.5000;1.1600;-4.9457;
211.8000;1.1600;-4.9405;
212.1000;1.1591;-4.9431;
212.4000;1.1608;-4.9483;
212.7000;1.1600;-4.9483;
213.0000;1.1600;-4.9457;
213.3000;1.1616;-4.9353;
213.6000;1.1575;-4.9431;
213.9000;1.1624;-4.9405;
214.2000;1.1608;-4.9483;
214.5000;1.1616;-4.9508;
214.8000;1.1600;-4.9483;
215.1000;1.1600;-4.9483;
215.4000;1.1624;-4.9508;
215.7000;1.1600;-4.9612;
216.0000;1.1591;-4.9690;
216.3000;1.1608;-4.9612;
216.6000;1.1608;-4.9586;
216.9000;1.1591;-4.9560;
217.2000;1.1600;-4.9560;
217.5000;1.1600;-4.9586;
217.8000;1.1600;-4.9612;
218.1000;1.1583;-4.9664;
218.4000;1.1600;-4.9612;
218.7000;1.1608;-4.9638;
219.0000;1.1608;-4.9638;
219.3000;1.1656;-4.9483;
219.6000;1.1591;-4.9638;
219.9000;1.1591;-4.9586;
220.2000;1.1583;-4.9534;
220.5000;1.1608;-4.9534;
220.8000;1.1616;-4.9560;
221.1000;1.1567;-4.9690;
221.4000;1.1575;-4.9768;
221.7000;1.1600;-4.9664;
222.0000;1.1591;-4.9716;
222.3000;1.1608;-4.9586;
222.6000;1.1608;-4.9612;
222.9000;1.1600;-4.9742;
223.2000;1.1575;-4.9716;
223.5000;1.1567;-4.9872;
223.8000;1.1591;-4.9820;
224.1000;1.1616;-4.9768;
224.4000;1.1608;-4.9716;
224.7000;1.1608;-4.9664;
225.0000;1.1648;-4.9508;
225.3000;1.1591;-4.9716;
225.6000;1.1608;-4.9716;
225.9000;1.1600;-4.9690;
226.2000;1.1567;-4.9716;
226.5000;1.1656;-4.9508;
226.8000;1.1600;-4.9638;
227.1000;1.1591;-4.9638;
227.4000;1.1600;-4.9716;
227.7000;1.1600;-4.9742;
228.0000;1.1600;-4.9716;
228.3000;1.1583;-4.9664;
228.6000;1.1608;-4.9638;
228.9000;1.1583;-4.9690;
229.2000;1.1591;-4.9586;
229.5000;1.1624;-4.9508;
229.8000;1.1591;-4.9586;
230.1000;1.1591;-4.9534;
230.4000;1.1534;-4.9664;
230.7000;1.1600;-4.9586;
231.0000;1.1608;-4.9690;
231.3000;1.1600;-4.9664;
231.6000;1.1600;-4.9690;
231.9000;1.1624;-4.9612;
232.2000;1.1600;-4.9690;
232.5000;1.1583;-4.9742;
232.8000;1.1591;-4.9716;
233.1000;1.1591;-4.9716;
233.4000;1.1583;-4.9716;
233.7000;1.1591;-4.9664;
234.0000;1.1583;-4.9690;
234.3000;1.1600;-4.9690;
234.6000;1.1600;-4.9586;
234.9000;1.1608;-4.9638;
235.2000;1.1608;-4.9690;
235.5000;1.1600;-4.9716;
235.8000;1.1600;-4.9612;
236.1000;1.1591;-4.9560;
236.4000;1.1591;-4.9586;
236.7000;1.1616;-4.9534;
237.0000;1.1608;-4.9612;
237.3000;1.1608;-4.9508;
237.6000;1.1583;-4.9560;
237.9000;1.1583;-4.9638;
238.2000;1.1551;-4.9716;
238.5000;1.1600;-4.9716;
238.8000;1.1608;-4.9534;
239.1000;1.1600;-4.9612;
239.4000;1.1600;-4.9612;
239.7000;1.1583;-4.9638;
240.0000;1.1583;-4.9690;
240.3000;1.1600;-4.9638;
240.6000;1.1600;-4.9664;
240.9000;1.1583;-4.9716;
241.2000;1.1656;-4.9534;
241.5000;1.1600;-4.9612;
241.8000;1.1591;-4.9612;
242.1000;1.1608;-4.9508;
242.4000;1.1600;-4.9508;
242.7000;1.1600;-4.9560;
243.0000;1.1583;-4.9612;
243.3000;1.1575;-4.9690;
243.6000;1.1575;-4.9690;
243.9000;1.1583;-4.9768;
244.2000;1.1567;-4.9794;
244.5000;1.1608;-4.9742;
244.8000;1.1600;-4.9768;
245.1000;1.1591;-4.9664;
245.4000;1.1583;-4.9664;
245.7000;1.1534;-4.9768;
246.0000;1.1583;-4.9664;
246.3000;1.1575;-4.9690;
246.6000;1.1583;-4.9768;
246.9000;1.1567;-4.9820;
247.2000;1.1575;-4.9794;
247.5000;1.1591;-4.9638;
247.8000;1.1551;-4.9690;
248.1000;1.1567;-4.9638;
248.4000;1.1591;-4.9664;
248.7000;1.1616;-4.9690;
249.0000;1.1526;-4.9846;
249.3000;1.1591;-4.9716;
249.6000;1.1591;-4.9690;
249.9000;1.1591;-4.9716;
250.2000;1.1583;-4.9716;
250.5000;1.1591;-4.9716;
250.8000;1.1583;-4.9664;
251.1000;1.1632;-4.9508;
251.4000;1.1591;-4.9612;
251.7000;1.1608;-4.9586;
252.0000;1.1600;-4.9534;
252.3000;1.1608;-4.9560;
252.6000;1.1648;-4.9457;
252.9000;1.1600;-4.9664;
253.2000;1.1624;-4.9612;
253.5000;1.1600;-4.9534;
253.8000;1.1600;-4.9508;
254.1000;1.1591;-4.9457;
254.4000;1.1616;-4.9405;
254.7000;1.1600;-4.9405;
255.0000;1.1600;-4.9457;
255.3000;1.1591;-4.9560;
255.6000;1.1591;-4.9534;
255.9000;1.1608;-4.9586;
256.2000;1.1616;-4.9560;
256.5000;1.1616;-4.9638;
256.8000;1.1600;-4.9690;
257.1000;1.1600;-4.9690;
257.4000;1.1608;-4.9716;
257.7000;1.1608;-4.9716;
258.0000;1.1534;-4.9923;
258.3000;1.1567;-4.9716;
258.6000;1.1583;-4.9560;
258.9000;1.1583;-4.9534;
259.2000;1.1583;-4.9586;
259.5000;1.1583;-4.9612;
259.8000;1.1567;-4.9664;
260.1000;1.1583;-4.9586;
260.4000;1.1551;-4.9690;
260.7000;1.1559;-4.9664;
261.0000;1.1575;-4.9586;
261.3000;1.1608;-4.9534;
261.6000;1.1673;-4.9379;
261.9000;1.1608;-4.9534;
262.2000;1.1591;-4.9508;
262.5000;1.1608;-4.9534;
262.8000;1.1591;-4.9560;
263.1000;1.1591;-4.9457;
263.4000;1.1591;-4.9508;
263.7000;1.1518;-4.9664;
264.0000;1.1591;-4.9508;
264.3000;1.1583;-4.9483;
264.6000;1.1591;-4.9483;
264.9000;1.1534;-4.9586;
265.2000;1.1600;-4.9431;
265.5000;1.1616;-4.9405;
265.8000;1.1583;-4.9431;
266.1000;1.1591;-4.9405;
266.4000;1.1600;-4.9431;
266.7000;1.1624;-4.9405;
267.0000;1.1591;-4.9405;
267.3000;1.1591;-4.9483;
267.6000;1.1575;-4.9534;
267.9000;1.1600;-4.9534;
268.2000;1.1600;-4.9612;
268.5000;1.1591;-4.9690;
268.8000;1.1616;-4.9690;
269.1000;1.1608;-4.9690;
269.4000;1.1608;-4.9768;
269.7000;1.1591;-4.9794;
270.0000;1.1461;-5.0001;
270.3000;1.1567;-4.9638;
270.6000;1.1575;-4.9612;
270.9000;1.1575;-4.9638;
271.2000;1.1583;-4.9586;
271.5000;1.1591;-4.9483;
271.8000;1.1551;-4.9534;
272.1000;1.1567;-4.9534;
272.4000;1.1583;-4.9560;
272.7000;1.1624;-4.9457;
273.0000;1.1575;-4.9508;
273.3000;1.1575;-4.9534;
273.6000;1.1600;-4.9508;
273.9000;1.1600;-4.9560;
274.2000;1.1608;-4.9534;
274.5000;1.1600;-4.9534;
274.8000;1.1591;-4.9560;
275.1000;1.1600;-4.9586;
275.4000;1.1600;-4.9612;
275.7000;1.1583;-4.9612;
276.0000;1.1583;-4.9508;
276.3000;1.1600;-4.9431;
276.6000;1.1591;-4.9431;
276.9000;1.1600;-4.9301;
277.2000;1.1591;-4.9379;
277.5000;1.1608;-4.9457;
277.8000;1.1600;-4.9431;
278.1000;1.1616;-4.9508;
278.4000;1.1591;-4.9560;
278.7000;1.1567;-4.9586;
279.0000;1.1600;-4.9586;
279.3000;1.1591;-4.9612;
279.6000;1.1591;-4.9586;
279.9000;1.1600;-4.9560;
280.2000;1.1575;-4.9534;
280.5000;1.1616;-4.9483;
280.8000;1.1575;-4.9560;
281.1000;1.1600;-4.9612;
281.4000;1.1583;-4.9690;
281.7000;1.1575;-4.9820;
282.0000;1.1591;-4.9716;
282.3000;1.1591;-4.9638;
282.6000;1.1583;-4.9638;
282.9000;1.1559;-4.9716;
283.2000;1.1600;-4.9612;
283.5000;1.1583;-4.9716;
283.8000;1.1567;-4.9716;
284.1000;1.1591;-4.9586;
284.4000;1.1583;-4.9586;
284.7000;1.1591;-4.9586;
285.0000;1.1567;-4.9664;
285.3000;1.1583;-4.9638;
285.6000;1.1591;-4.9560;
285.9000;1.1632;-4.9379;
286.2000;1.1575;-4.9586;
286.5000;1.1551;-4.9638;
286.8000;1.1665;-4.9353;
287.1000;1.1591;-4.9560;
287.4000;1.1551;-4.9690;
287.7000;1.1600;-4.9612;
288.0000;1.1608;-4.9742;
288.3000;1.1608;-4.9664;
288.6000;1.1600;-4.9690;
288.9000;1.1575;-4.9690;
289.2000;1.1510;-4.9897;
289.5000;1.1591;-4.9638;
289.8000;1.1583;-4.9612;
290.1000;1.1591;-4.9508;
290.4000;1.1575;-4.9612;
290.7000;1.1600;-4.9612;
291.0000;1.1591;-4.9586;
291.3000;1.1461;-4.9846;
291.6000;1.1591;-4.9586;
291.9000;1.1648;-4.9457;
292.2000;1.1608;-4.9508;
292.5000;1.1575;-4.9534;
292.8000;1.1591;-4.9508;
293.1000;1.1583;-4.9457;
293.4000;1.1608;-4.9405;
293.7000;1.1591;-4.9508;
294.0000;1.1591;-4.9534;
294.3000;1.1583;-4.9508;
294.6000;1.1583;-4.9353;
294.9000;1.1567;-4.9379;
295.2000;1.1543;-4.9508;
295.5000;1.1575;-4.9483;
295.8000;1.1665;-4.9223;
296.1000;1.1567;-4.9431;
296.4000;1.1559;-4.9431;
296.7000;1.1567;-4.9483;
297.0000;1.1632;-4.9405;
297.3000;1.1591;-4.9508;
297.6000;1.1583;-4.9586;
297.9000;1.1583;-4.9638;
298.2000;1.1583;-4.9742;
298.5000;1.1600;-4.9690;
298.8000;1.1600;-4.9638;
299.1000;1.1600;-4.9586;
299.4000;1.1608;-4.9483;
299.7000;1.1600;-4.9534;
300.0000;1.1600;-4.9483;
300.3000;1.1608;-4.9483;
300.6000;1.1600;-4.9534;
300.9000;1.1600;-4.9457;
301.2000;1.1591;-4.9431;
301.5000;1.1551;-4.9483;
301.8000;1.1567;-4.9353;
302.1000;1.1616;-4.9275;
302.4000;1.1583;-4.9327;
302.7000;1.1575;-4.9353;
303.0000;1.1591;-4.9327;
303.3000;1.1583;-4.9327;
303.6000;1.1591;-4.9197;
303.9000;1.1583;-4.9327;
304.2000;1.1608;-4.9301;
304.5000;1.1559;-4.9508;
304.8000;1.1591;-4.9431;
305.1000;1.1600;-4.9457;
305.4000;1.1600;-4.9405;
305.7000;1.1600;-4.9457;
306.0000;1.1583;-4.9457;
306.3000;1.1591;-4.9457;
306.6000;1.1543;-4.9534;
306.9000;1.1575;-4.9612;
307.2000;1.1591;-4.9508;
307.5000;1.1632;-4.9431;
307.8000;1.1583;-4.9431;
308.1000;1.1591;-4.9353;
308.4000;1.1600;-4.9353;
308.7000;1.1600;-4.9353;
309.0000;1.1600;-4.9379;
309.3000;1.1583;-4.9379;
309.6000;1.1575;-4.9353;
309.9000;1.1600;-4.9327;
310.2000;1.1583;-4.9275;
310.5000;1.1575;-4.9249;
310.8000;1.1567;-4.9379;
311.1000;1.1575;-4.9327;
311.4000;1.1575;-4.9353;
311.7000;1.1567;-4.9405;
312.0000;1.1583;-4.9301;
312.3000;1.1575;-4.9275;
312.6000;1.1591;-4.9223;
312.9000;1.1591;-4.9197;
313.2000;1.1591;-4.9223;
313.5000;1.1583;-4.9197;
313.8000;1.1591;-4.9223;
314.1000;1.1583;-4.9223;
314.4000;1.1575;-4.9249;
314.7000;1.1575;-4.9275;
315.0000;1.1575;-4.9249;
315.3000;1.1624;-4.9042;
315.6000;1.1575;-4.9171;
315.9000;1.1567;-4.9171;
316.2000;1.1575;-4.9223;
316.5000;1.1575;-4.9353;
316.8000;1.1559;-4.9457;
317.1000;1.1567;-4.9457;
317.4000;1.1575;-4.9379;
317.7000;1.1583;-4.9379;
318.0000;1.1632;-4.9171;
318.3000;1.1681;-4.9094;
318.6000;1.1600;-4.9327;
318.9000;1.1551;-4.9431;
319.2000;1.1575;-4.9353;
319.5000;1.1583;-4.9431;
319.8000;1.1567;-4.9534;
320.1000;1.1575;-4.9560;
320.4000;1.1624;-4.9353;
320.7000;1.1632;-4.9379;
321.0000;1.1575;-4.9508;
321.3000;1.1575;-4.9483;
321.6000;1.1600;-4.9483;
321.9000;1.1567;-4.9508;
322.2000;1.1591;-4.9431;
322.5000;1.1559;-4.9405;
322.8000;1.1583;-4.9379;
323.1000;1.1575;-4.9379;
323.4000;1.1559;-4.9379;
323.7000;1.1559;-4.9275;
324.0000;1.1583;-4.9197;
324.3000;1.1591;-4.9171;
324.6000;1.1559;-4.9275;
324.9000;1.1583;-4.9353;
325.2000;1.1591;-4.9405;
325.5000;1.1591;-4.9431;
325.8000;1.1567;-4.9405;
326.1000;1.1567;-4.9483;
326.4000;1.1632;-4.9405;
326.7000;1.1567;-4.9431;
327.0000;1.1575;-4.9405;
327.3000;1.1559;-4.9379;
327.6000;1.1575;-4.9275;
327.9000;1.1575;-4.9275;
328.2000;1.1600;-4.9275;
328.5000;1.1583;-4.9431;
328.8000;1.1591;-4.9431;
329.1000;1.1591;-4.9405;
329.4000;1.1608;-4.9457;
329.7000;1.1681;-4.9249;
330.0000;1.1575;-4.9508;
330.3000;1.1591;-4.9483;
330.6000;1.1583;-4.9457;
330.9000;1.1591;-4.9508;
331.2000;1.1567;-4.9483;
331.5000;1.1600;-4.9379;
331.8000;1.1543;-4.9534;
332.1000;1.1575;-4.9457;
332.4000;1.1591;-4.9379;
332.7000;1.1583;-4.9405;
333.0000;1.1600;-4.9301;
333.3000;1.1583;-4.9379;
333.6000;1.1583;-4.9327;
333.9000;1.1559;-4.9353;
334.2000;1.1583;-4.9327;
334.5000;1.1616;-4.9301;
334.8000;1.1600;-4.9249;
335.1000;1.1583;-4.9249;
335.4000;1.1632;-4.9145;
335.7000;1.1591;-4.9327;
336.0000;1.1567;-4.9431;
336.3000;1.1543;-4.9431;
336.6000;1.1583;-4.9275;
336.9000;1.1600;-4.9327;
337.2000;1.1575;-4.9405;
337.5000;1.1567;-4.9457;
337.8000;1.1575;-4.9508;
338.1000;1.1591;-4.9483;
338.4000;1.1608;-4.9301;
338.7000;1.1583;-4.9405;
339.0000;1.1591;-4.9353;
339.3000;1.1551;-4.9379;
339.6000;1.1583;-4.9327;
339.9000;1.1583;-4.9327;
340.2000;1.1559;-4.9405;
340.5000;1.1591;-4.9275;
340.8000;1.1551;-4.9275;
341.1000;1.1559;-4.9249;
341.4000;1.1526;-4.9431;
341.7000;1.1583;-4.9275;
342.0000;1.1591;-4.9275;
342.3000;1.1510;-4.9379;
342.6000;1.1551;-4.9275;
342.9000;1.1567;-4.9327;
343.2000;1.1583;-4.9327;
343.5000;1.1575;-4.9379;
343.8000;1.1575;-4.9405;
344.1000;1.1608;-4.9405;
344.4000;1.1575;-4.9431;
344.7000;1.1583;-4.9379;
345.0000;1.1567;-4.9405;
345.3000;1.1583;-4.9223;
345.6000;1.1543;-4.9249;
345.9000;1.1551;-4.9301;
346.2000;1.1575;-4.9249;
346.5000;1.1567;-4.9353;
346.8000;1.1583;-4.9353;
347.1000;1.1583;-4.9327;
347.4000;1.1567;-4.9327;
347.7000;1.1551;-4.9327;
348.0000;1.1583;-4.9275;
348.3000;1.1583;-4.9249;
348.6000;1.1591;-4.9249;
348.9000;1.1583;-4.9249;
349.2000;1.1583;-4.9249;
349.5000;1.1575;-4.9197;
349.8000;1.1591;-4.9223;
350.1000;1.1583;-4.9197;
350.4000;1.1583;-4.9145;
350.7000;1.1567;-4.9197;
351.0000;1.1583;-4.9249;
351.3000;1.1559;-4.9249;
351.6000;1.1567;-4.9275;
351.9000;1.1567;-4.9301;
352.2000;1.1575;-4.9197;
352.5000;1.1583;-4.9171;
352.8000;1.1567;-4.9171;
353.1000;1.1583;-4.9145;
353.4000;1.1583;-4.9094;
353.7000;1.1600;-4.9042;
354.0000;1.1591;-4.9094;
354.3000;1.1551;-4.9223;
354.6000;1.1583;-4.9094;
354.9000;1.1600;-4.9094;
355.2000;1.1583;-4.9145;
355.5000;1.1632;-4.8990;
355.8000;1.1575;-4.9145;
356.1000;1.1591;-4.9145;
356.4000;1.1583;-4.9145;
356.7000;1.1591;-4.9171;
357.0000;1.1583;-4.9197;
357.3000;1.1575;-4.9249;
357.6000;1.1600;-4.9197;
357.9000;1.1575;-4.9275;
358.2000;1.1559;-4.9301;
358.5000;1.1575;-4.9275;
358.8000;1.1567;-4.9353;
359.1000;1.1559;-4.9353;
359.4000;1.1559;-4.9405;
359.7000;1.1575;-4.9379;
360.0000;1.1575;-4.9405;
360.3000;1.1591;-4.9327;
360.6000;1.1583;-4.9379;
360.9000;1.1591;-4.9405;
361.2000;1.1567;-4.9379;
361.5000;1.1567;-4.9353;
361.8000;1.1567;-4.9379;
362.1000;1.1575;-4.9405;
362.4000;1.1616;-4.9275;
362.7000;1.1591;-4.9379;
363.0000;1.1567;-4.9379;
363.3000;1.1591;-4.9249;
363.6000;1.1575;-4.9249;
363.9000;1.1575;-4.9223;
364.2000;1.1575;-4.9301;
364.5000;1.1567;-4.9327;
364.8000;1.1583;-4.9275;
365.1000;1.1600;-4.9249;
365.4000;1.1591;-4.9249;
365.7000;1.1583;-4.9275;
366.0000;1.1567;-4.9275;
366.3000;1.1632;-4.9145;
366.6000;1.1551;-4.9379;
366.9000;1.1567;-4.9249;
367.2000;1.1559;-4.9197;
367.5000;1.1591;-4.9197;
367.8000;1.1591;-4.9249;
368.1000;1.1591;-4.9275;
368.4000;1.1567;-4.9379;
368.7000;1.1575;-4.9353;
369.0000;1.1575;-4.9249;
369.3000;1.1559;-4.9353;
369.6000;1.1567;-4.9327;
369.9000;1.1567;-4.9275;
370.2000;1.1567;-4.9353;
370.5000;1.1575;-4.9405;
370.8000;1.1534;-4.9431;
371.1000;1.1608;-4.9327;
371.4000;1.1583;-4.9379;
371.7000;1.1575;-4.9431;
372.0000;1.1567;-4.9457;
372.3000;1.1567;-4.9483;
372.6000;1.1567;-4.9560;
372.9000;1.1575;-4.9534;
373.2000;1.1559;-4.9560;
373.5000;1.1648;-4.9301;
373.8000;1.1575;-4.9534;
374.1000;1.1567;-4.9431;
374.4000;1.1575;-4.9353;
374.7000;1.1559;-4.9379;
375.0000;1.1543;-4.9405;
375.3000;1.1567;-4.9353;
375.6000;1.1600;-4.9275;
375.9000;1.1567;-4.9405;
376.2000;1.1567;-4.9327;
376.5000;1.1591;-4.9301;
376.8000;1.1559;-4.9353;
377.1000;1.1583;-4.9327;
377.4000;1.1575;-4.9405;
377.7000;1.1551;-4.9534;
378.0000;1.1616;-4.9327;
378.3000;1.1583;-4.9353;
378.6000;1.1559;-4.9457;
378.9000;1.1543;-4.9431;
379.2000;1.1567;-4.9405;
379.5000;1.1567;-4.9431;
379.8000;1.1526;-4.9560;
380.1000;1.1551;-4.9457;
380.4000;1.1583;-4.9431;
380.7000;1.1575;-4.9405;
381.0000;1.1567;-4.9405;
381.3000;1.1543;-4.9483;
381.6000;1.1616;-4.9353;
381.9000;1.1567;-4.9431;
382.2000;1.1591;-4.9405;
382.5000;1.1559;-4.9379;
382.8000;1.1575;-4.9353;
383.1000;1.1534;-4.9379;
383.4000;1.1600;-4.9249;
383.7000;1.1575;-4.9379;
384.0000;1.1559;-4.9379;
384.3000;1.1583;-4.9327;
384.6000;1.1575;-4.9405;
384.9000;1.1567;-4.9431;
385.2000;1.1583;-4.9327;
385.5000;1.1591;-4.9249;
385.8000;1.1616;-4.9068;
386.1000;1.1632;-4.9094;
386.4000;1.1591;-4.9249;
386.7000;1.1591;-4.9223;
387.0000;1.1575;-4.9223;
387.3000;1.1624;-4.9171;
387.6000;1.1559;-4.9327;
387.9000;1.1575;-4.9249;
388.2000;1.1567;-4.9197;
388.5000;1.1559;-4.9197;
388.8000;1.1559;-4.9301;
389.1000;1.1616;-4.9094;
389.4000;1.1543;-4.9275;
389.7000;1.1575;-4.9249;
390.0000;1.1575;-4.9275;
390.3000;1.1600;-4.9301;
390.6000;1.1575;-4.9275;
390.9000;1.1591;-4.9275;
391.2000;1.1575;-4.9275;
391.5000;1.1567;-4.9249;
391.8000;1.1567;-4.9223;
392.1000;1.1583;-4.9223;
392.4000;1.1543;-4.9249;
392.7000;1.1567;-4.9197;
393.0000;1.1559;-4.9223;
393.3000;1.1575;-4.9171;
393.6000;1.1648;-4.9119;
393.9000;1.1551;-4.9275;
394.2000;1.1567;-4.9249;
394.5000;1.1567;-4.9301;
394.8000;1.1575;-4.9301;
395.1000;1.1575;-4.9301;
395.4000;1.1624;-4.9197;
395.7000;1.1486;-4.9586;
396.0000;1.1575;-4.9353;
396.3000;1.1543;-4.9353;
396.6000;1.1608;-4.9275;
396.9000;1.1575;-4.9353;
397.2000;1.1575;-4.9301;
397.5000;1.1551;-4.9379;
397.8000;1.1575;-4.9327;
398.1000;1.1575;-4.9249;
398.4000;1.1551;-4.9275;
398.7000;1.1551;-4.9301;
399.0000;1.1551;-4.9249;
399.3000;1.1543;-4.9275;
399.6000;1.1543;-4.9275;
399.9000;1.1559;-4.9223;
400.2000;1.1559;-4.9249;
400.5000;1.1551;-4.9327;
400.8000;1.1543;-4.9379;
401.1000;1.1534;-4.9431;
401.4000;1.1543;-4.9483;
401.7000;1.1534;-4.9483;
402.0000;1.1534;-4.9379;
402.3000;1.1575;-4.9249;
402.6000;1.1567;-4.9275;
402.9000;1.1534;-4.9457;
403.2000;1.1567;-4.9405;
403.5000;1.1559;-4.9405;
403.8000;1.1559;-4.9379;
404.1000;1.1583;-4.9327;
404.4000;1.1559;-4.9379;
404.7000;1.1575;-4.9327;
405.0000;1.1567;-4.9353;
405.3000;1.1559;-4.9301;
405.6000;1.1551;-4.9353;
405.9000;1.1575;-4.9327;
406.2000;1.1575;-4.9353;
406.5000;1.1559;-4.9327;
406.8000;1.1551;-4.9275;
407.1000;1.1616;-4.9171;
407.4000;1.1575;-4.9197;
407.7000;1.1567;-4.9223;
408.0000;1.1575;-4.9197;
408.3000;1.1591;-4.9094;
408.6000;1.1583;-4.9068;
408.9000;1.1559;-4.9119;
409.2000;1.1559;-4.9171;
409.5000;1.1575;-4.9094;
409.8000;1.1575;-4.9094;
410.1000;1.1559;-4.9171;
410.4000;1.1551;-4.9068;
410.7000;1.1559;-4.8990;
411.0000;1.1608;-4.8938;
411.3000;1.1600;-4.8912;
411.6000;1.1567;-4.9068;
411.9000;1.1567;-4.9145;
412.2000;1.1575;-4.9094;
412.5000;1.1591;-4.9094;
412.8000;1.1583;-4.9145;
413.1000;1.1591;-4.9197;
413.4000;1.1559;-4.9197;
413.7000;1.1567;-4.9171;
414.0000;1.1567;-4.9145;
414.3000;1.1559;-4.9197;
414.6000;1.1575;-4.9197;
414.9000;1.1559;-4.9249;
415.2000;1.1567;-4.9301;
415.5000;1.1567;-4.9405;
415.8000;1.1543;-4.9431;
416.1000;1.1567;-4.9379;
416.4000;1.1575;-4.9405;
416.7000;1.1583;-4.9379;
417.0000;1.1591;-4.9327;
417.3000;1.1567;-4.9327;
417.6000;1.1616;-4.9301;
417.9000;1.1567;-4.9301;
418.2000;1.1567;-4.9275;
418.5000;1.1567;-4.9327;
418.8000;1.1591;-4.9405;
419.1000;1.1583;-4.9353;
419.4000;1.1583;-4.9301;
419.7000;1.1559;-4.9405;
420.0000;1.1567;-4.9457;
420.3000;1.1567;-4.9431;
420.6000;1.1583;-4.9353;
420.9000;1.1632;-4.9223;
421.2000;1.1567;-4.9379;
421.5000;1.1591;-4.9275;
421.8000;1.1551;-4.9353;
422.1000;1.1575;-4.9353;
422.4000;1.1575;-4.9405;
422.7000;1.1559;-4.9379;
423.0000;1.1567;-4.9327;
423.3000;1.1551;-4.9353;
423.6000;1.1575;-4.9327;
423.9000;1.1575;-4.9327;
424.2000;1.1567;-4.9431;
424.5000;1.1551;-4.9431;
424.8000;1.1583;-4.9327;
425.1000;1.1575;-4.9145;
425.4000;1.1575;-4.9171;
425.7000;1.1567;-4.9145;
426.0000;1.1567;-4.9171;
426.3000;1.1559;-4.9223;
426.6000;1.1551;-4.9301;
426.9000;1.1534;-4.9405;
427.2000;1.1559;-4.9301;
427.5000;1.1583;-4.9249;
427.8000;1.1575;-4.9197;
428.1000;1.1567;-4.9275;
428.4000;1.1559;-4.9275;
428.7000;1.1624;-4.9171;
429.0000;1.1494;-4.9457;
429.3000;1.1559;-4.9327;
429.6000;1.1559;-4.9353;
429.9000;1.1575;-4.9379;
430.2000;1.1559;-4.9327;
430.5000;1.1567;-4.9353;
430.8000;1.1559;-4.9379;
431.1000;1.1567;-4.9327;
431.4000;1.1543;-4.9249;
431.7000;1.1551;-4.9275;
432.0000;1.1567;-4.9301;
432.3000;1.1575;-4.9379;
432.6000;1.1551;-4.9431;
432.9000;1.1583;-4.9457;
433.2000;1.1583;-4.9560;
433.5000;1.1567;-4.9483;
433.8000;1.1600;-4.9483;
434.1000;1.1567;-4.9534;
434.4000;1.1591;-4.9457;
434.7000;1.1583;-4.9353;
435.0000;1.1567;-4.9327;
435.3000;1.1575;-4.9379;
435.6000;1.1567;-4.9508;
435.9000;1.1575;-4.9483;
436.2000;1.1559;-4.9483;
436.5000;1.1543;-4.9431;
436.8000;1.1551;-4.9431;
437.1000;1.1559;-4.9353;
437.4000;1.1559;-4.9379;
437.7000;1.1583;-4.9327;
438.0000;1.1567;-4.9353;
438.3000;1.1567;-4.9301;
438.6000;1.1543;-4.9483;
438.9000;1.1575;-4.9431;
439.2000;1.1567;-4.9534;
439.5000;1.1567;-4.9560;
439.8000;1.1559;-4.9560;
440.1000;1.1583;-4.9457;
440.4000;1.1559;-4.9483;
440.7000;1.1534;-4.9457;
441.0000;1.1551;-4.9379;
441.3000;1.1551;-4.9405;
441.6000;1.1551;-4.9379;
441.9000;1.1591;-4.9275;
442.2000;1.1575;-4.9353;
442.5000;1.1518;-4.9483;
442.8000;1.1518;-4.9379;
443.1000;1.1567;-4.9249;
443.4000;1.1575;-4.9249;
443.7000;1.1559;-4.9249;
444.0000;1.1551;-4.9301;
444.3000;1.1567;-4.9275;
444.6000;1.1559;-4.9275;
444.9000;1.1551;-4.9249;
445.2000;1.1559;-4.9223;
445.5000;1.1567;-4.9171;
445.8000;1.1567;-4.9301;
446.1000;1.1494;-4.9457;
446.4000;1.1559;-4.9249;
446.7000;1.1559;-4.9249;
447.0000;1.1567;-4.9171;
447.3000;1.1567;-4.9197;
447.6000;1.1567;-4.9223;
447.9000;1.1575;-4.9249;
448.2000;1.1583;-4.9197;
448.5000;1.1559;-4.9301;
448.8000;1.1591;-4.9223;
449.1000;1.1575;-4.9275;
449.4000;1.1567;-4.9249;
449.7000;1.1567;-4.9249;
450.0000;1.1567;-4.9249;
450.3000;1.1583;-4.9249;
450.6000;1.1575;-4.9301;
450.9000;1.1559;-4.9249;
451.2000;1.1567;-4.9145;
451.5000;1.1543;-4.9068;
451.8000;1.1551;-4.9042;
452.1000;1.1543;-4.9119;
452.4000;1.1551;-4.9171;
452.7000;1.1591;-4.9171;
453.0000;1.1575;-4.9197;
453.3000;1.1567;-4.9197;
453.6000;1.1575;-4.9197;
453.9000;1.1567;-4.9223;
454.2000;1.1551;-4.9301;
454.5000;1.1543;-4.9197;
454.8000;1.1567;-4.9145;
455.1000;1.1543;-4.9223;
455.4000;1.1534;-4.9223;
455.7000;1.1559;-4.9197;
456.0000;1.1608;-4.9171;
456.3000;1.1494;-4.9457;
456.6000;1.1567;-4.9327;
456.9000;1.1534;-4.9327;
457.2000;1.1559;-4.9223;
457.5000;1.1575;-4.9197;
457.8000;1.1551;-4.9249;
458.1000;1.1543;-4.9249;
458.4000;1.1559;-4.9353;
458.7000;1.1583;-4.9483;
459.0000;1.1534;-4.9586;
459.3000;1.1551;-4.9560;
459.6000;1.1559;-4.9457;
459.9000;1.1543;-4.9534;
460.2000;1.1551;-4.9457;
460.5000;1.1551;-4.9508;
460.8000;1.1559;-4.9457;
461.1000;1.1551;-4.9560;
461.4000;1.1559;-4.9560;
461.7000;1.1551;-4.9586;
462.0000;1.1543;-4.9638;
462.3000;1.1543;-4.9586;
462.6000;1.1567;-4.9612;
462.9000;1.1567;-4.9586;
463.2000;1.1559;-4.9664;
463.5000;1.1567;-4.9716;
463.8000;1.1559;-4.9690;
464.1000;1.1575;-4.9560;
464.4000;1.1559;-4.9560;
464.7000;1.1551;-4.9560;
465.0000;1.1583;-4.9457;
465.3000;1.1551;-4.9483;
465.6000;1.1543;-4.9457;
465.9000;1.1534;-4.9457;
466.2000;1.1551;-4.9534;
466.5000;1.1543;-4.9534;
466.8000;1.1567;-4.9508;
467.1000;1.1534;-4.9586;
467.4000;1.1543;-4.9457;
467.7000;1.1543;-4.9379;
468.0000;1.1551;-4.9405;
468.3000;1.1600;-4.9275;
468.6000;1.1543;-4.9353;
468.9000;1.1551;-4.9379;
469.2000;1.1551;-4.9431;
469.5000;1.1543;-4.9431;
469.8000;1.1575;-4.9405;
470.1000;1.1567;-4.9353;
470.4000;1.1559;-4.9327;
470.7000;1.1551;-4.9275;
471.0000;1.1567;-4.9301;
471.3000;1.1567;-4.9353;
471.6000;1.1551;-4.9327;
471.9000;1.1559;-4.9353;
472.2000;1.1543;-4.9431;
472.5000;1.1567;-4.9301;
472.8000;1.1567;-4.9301;
473.1000;1.1551;-4.9379;
473.4000;1.1551;-4.9379;
473.7000;1.1534;-4.9379;
474.0000;1.1551;-4.9353;
474.3000;1.1551;-4.9327;
474.6000;1.1559;-4.9249;
474.9000;1.1559;-4.9249;
475.2000;1.1559;-4.9249;
475.5000;1.1559;-4.9353;
475.8000;1.1559;-4.9405;
476.1000;1.1575;-4.9353;
476.4000;1.1575;-4.9301;
476.7000;1.1567;-4.9275;
477.0000;1.1559;-4.9275;
477.3000;1.1583;-4.9223;
477.6000;1.1551;-4.9301;
477.9000;1.1567;-4.9301;
478.2000;1.1543;-4.9353;
478.5000;1.1575;-4.9275;
478.8000;1.1559;-4.9249;
479.1000;1.1583;-4.9197;
479.4000;1.1591;-4.9171;
479.7000;1.1567;-4.9223;
480.0000;1.1608;-4.9042;
480.3000;1.1567;-4.9119;
480.6000;1.1543;-4.9145;
480.9000;1.1567;-4.9068;
481.2000;1.1559;-4.9119;
481.5000;1.1559;-4.9197;
481.8000;1.1559;-4.9197;
482.1000;1.1575;-4.9119;
482.4000;1.1608;-4.8990;
482.7000;1.1559;-4.9171;
483.0000;1.1567;-4.9171;
483.3000;1.1559;-4.9171;
483.6000;1.1559;-4.9171;
483.9000;1.1559;-4.9197;
484.2000;1.1567;-4.9197;
484.5000;1.1567;-4.9197;
484.8000;1.1559;-4.9197;
485.1000;1.1543;-4.9197;
485.4000;1.1559;-4.9197;
485.7000;1.1543;-4.9171;
486.0000;1.1534;-4.9171;
486.3000;1.1543;-4.9145;
486.6000;1.1559;-4.9171;
486.9000;1.1567;-4.9145;
487.2000;1.1543;-4.9171;
487.5000;1.1551;-4.9223;
487.8000;1.1510;-4.9405;
488.1000;1.1551;-4.9327;
488.4000;1.1559;-4.9301;
488.7000;1.1551;-4.9353;
489.0000;1.1534;-4.9457;
489.3000;1.1559;-4.9457;
489.6000;1.1583;-4.9353;
489.9000;1.1551;-4.9483;
490.2000;1.1575;-4.9431;
490.5000;1.1543;-4.9457;
490.8000;1.1559;-4.9327;
491.1000;1.1575;-4.9327;
491.4000;1.1543;-4.9457;
491.7000;1.1567;-4.9327;
492.0000;1.1551;-4.9327;
492.3000;1.1543;-4.9379;
492.6000;1.1510;-4.9483;
492.9000;1.1534;-4.9405;
493.2000;1.1591;-4.9171;
493.5000;1.1518;-4.9405;
493.8000;1.1534;-4.9275;
494.1000;1.1608;-4.9094;
494.4000;1.1559;-4.9301;
494.7000;1.1632;-4.9119;
495.0000;1.1583;-4.9249;
495.3000;1.1551;-4.9379;
495.6000;1.1575;-4.9249;
495.9000;1.1510;-4.9457;
496.2000;1.1567;-4.9379;
496.5000;1.1575;-4.9301;
496.8000;1.1559;-4.9327;
497.1000;1.1534;-4.9327;
497.4000;1.1526;-4.9327;
497.7000;1.1534;-4.9379;
498.0000;1.1534;-4.9379;
498.3000;1.1616;-4.9301;
498.6000;1.1543;-4.9457;
498.9000;1.1534;-4.9483;
499.2000;1.1510;-4.9560;
499.5000;1.1567;-4.9353;
499.8000;1.1518;-4.9431;
500.1000;1.1551;-4.9353;
500.4000;1.1534;-4.9379;
500.7000;1.1551;-4.9379;
501.0000;1.1559;-4.9275;
501.3000;1.1591;-4.9275;
501.6000;1.1543;-4.9353;
501.9000;1.1551;-4.9275;
502.2000;1.1551;-4.9249;
502.5000;1.1559;-4.9145;
502.8000;1.1551;-4.9301;
503.1000;1.1551;-4.9249;
503.4000;1.1510;-4.9457;
503.7000;1.1543;-4.9353;
504.0000;1.1551;-4.9353;
504.3000;1.1526;-4.9457;
504.6000;1.1551;-4.9405;
504.9000;1.1543;-4.9405;
505.2000;1.1534;-4.9431;
505.5000;1.1559;-4.9353;
505.8000;1.1559;-4.9327;
506.1000;1.1559;-4.9327;
506.4000;1.1551;-4.9431;
506.7000;1.1551;-4.9353;
507.0000;1.1526;-4.9405;
507.3000;1.1575;-4.9249;
507.6000;1.1567;-4.9275;
507.9000;1.1551;-4.9327;
508.2000;1.1567;-4.9327;
508.5000;1.1559;-4.9327;
508.8000;1.1510;-4.9483;
509.1000;1.1518;-4.9560;
509.4000;1.1543;-4.9560;
509.7000;1.1559;-4.9483;
510.0000;1.1543;-4.9431;
510.3000;1.1534;-4.9405;
510.6000;1.1477;-4.9508;
510.9000;1.1534;-4.9379;
511.2000;1.1526;-4.9301;
511.5000;1.1534;-4.9327;
511.8000;1.1526;-4.9457;
512.1000;1.1567;-4.9353;
512.4000;1.1543;-4.9508;
512.7000;1.1567;-4.9508;
513.0000;1.1543;-4.9508;
513.3000;1.1551;-4.9534;
513.6000;1.1559;-4.9457;
513.9000;1.1551;-4.9457;
514.2000;1.1551;-4.9431;
514.5000;1.1543;-4.9483;
514.8000;1.1567;-4.9405;
515.1000;1.1526;-4.9405;
515.4000;1.1534;-4.9431;
515.7000;1.1559;-4.9431;
516.0000;1.1551;-4.9405;
516.3000;1.1559;-4.9379;
516.6000;1.1583;-4.9379;
516.9000;1.1543;-4.9483;
517.2000;1.1583;-4.9301;
517.5000;1.1551;-4.9327;
517.8000;1.1551;-4.9353;
518.1000;1.1543;-4.9457;
518.4000;1.1551;-4.9586;
518.7000;1.1534;-4.9612;
519.0000;1.1559;-4.9508;
519.3000;1.1543;-4.9508;
519.6000;1.1534;-4.9457;
519.9000;1.1543;-4.9353;
520.2000;1.1543;-4.9275;
520.5000;1.1534;-4.9327;
520.8000;1.1551;-4.9327;
521.1000;1.1543;-4.9301;
521.4000;1.1543;-4.9327;
521.7000;1.1583;-4.9327;
522.0000;1.1518;-4.9508;
522.3000;1.1543;-4.9405;
522.6000;1.1551;-4.9379;
522.9000;1.1551;-4.9457;
523.2000;1.1575;-4.9353;
523.5000;1.1534;-4.9353;
523.8000;1.1559;-4.9353;
524.1000;1.1551;-4.9327;
524.4000;1.1534;-4.9353;
524.7000;1.1543;-4.9327;
525.0000;1.1543;-4.9327;
525.3000;1.1534;-4.9379;
525.6000;1.1543;-4.9353;
525.9000;1.1534;-4.9249;
526.2000;1.1551;-4.9223;
526.5000;1.1551;-4.9353;
526.8000;1.1551;-4.9405;
527.1000;1.1543;-4.9353;
527.4000;1.1575;-4.9223;
527.7000;1.1575;-4.9223;
528.0000;1.1551;-4.9327;
528.3000;1.1551;-4.9379;
528.6000;1.1559;-4.9379;
528.9000;1.1575;-4.9275;
529.2000;1.1559;-4.9327;
529.5000;1.1543;-4.9353;
529.8000;1.1551;-4.9301;
530.1000;1.1551;-4.9353;
530.4000;1.1534;-4.9327;
530.7000;1.1551;-4.9301;
531.0000;1.1543;-4.9327;
531.3000;1.1559;-4.9353;
531.6000;1.1567;-4.9457;
531.9000;1.1551;-4.9483;
532.2000;1.1543;-4.9483;
532.5000;1.1559;-4.9457;
532.8000;1.1567;-4.9379;
533.1000;1.1510;-4.9457;
533.4000;1.1477;-4.9534;
533.7000;1.1575;-4.9197;
534.0000;1.1543;-4.9197;
534.3000;1.1551;-4.9223;
534.6000;1.1486;-4.9301;
534.9000;1.1551;-4.9197;
535.2000;1.1559;-4.9275;
535.5000;1.1445;-4.9534;
535.8000;1.1543;-4.9353;
536.1000;1.1526;-4.9353;
536.4000;1.1559;-4.9249;
536.7000;1.1567;-4.9249;
537.0000;1.1543;-4.9275;
537.3000;1.1534;-4.9249;
537.6000;1.1543;-4.9171;
537.9000;1.1551;-4.9197;
538.2000;1.1551;-4.9275;
538.5000;1.1551;-4.9223;
538.8000;1.1534;-4.9171;
539.1000;1.1551;-4.9145;
539.4000;1.1551;-4.9197;
539.7000;1.1543;-4.9171;
540.0000;1.1543;-4.9197;
540.3000;1.1559;-4.9223;
540.6000;1.1543;-4.9171;
540.9000;1.1543;-4.9145;
541.2000;1.1551;-4.9197;
541.5000;1.1551;-4.9145;
541.8000;1.1543;-4.9145;
542.1000;1.1534;-4.9171;
542.4000;1.1526;-4.9223;
542.7000;1.1551;-4.9249;
543.0000;1.1543;-4.9223;
543.3000;1.1543;-4.9119;
543.6000;1.1543;-4.9068;
543.9000;1.1551;-4.9068;
544.2000;1.1526;-4.9068;
544.5000;1.1543;-4.9042;
544.8000;1.1567;-4.9016;
545.1000;1.1543;-4.9042;
545.4000;1.1559;-4.9042;
545.7000;1.1551;-4.9016;
546.0000;1.1543;-4.9119;
546.3000;1.1477;-4.9275;
546.6000;1.1534;-4.9197;
546.9000;1.1551;-4.9275;
547.2000;1.1534;-4.9249;
547.5000;1.1543;-4.9249;
547.8000;1.1551;-4.9223;
548.1000;1.1543;-4.9197;
548.4000;1.1559;-4.9171;
548.7000;1.1559;-4.9119;
549.0000;1.1534;-4.9171;
549.3000;1.1543;-4.9249;
549.6000;1.1534;-4.9197;
549.9000;1.1534;-4.9119;
550.2000;1.1518;-4.9197;
550.5000;1.1543;-4.9145;
550.8000;1.1559;-4.9249;
551.1000;1.1526;-4.9405;
551.4000;1.1624;-4.9223;
551.7000;1.1534;-4.9457;
552.0000;1.1526;-4.9534;
552.3000;1.1551;-4.9405;
552.6000;1.1534;-4.9379;
552.9000;1.1559;-4.9327;
553.2000;1.1567;-4.9249;
553.5000;1.1559;-4.9249;
553.8000;1.1534;-4.9353;
554.1000;1.1526;-4.9405;
554.4000;1.1543;-4.9379;
554.7000;1.1502;-4.9431;
555.0000;1.1518;-4.9379;
555.3000;1.1543;-4.9353;
555.6000;1.1534;-4.9379;
555.9000;1.1534;-4.9327;
556.2000;1.1551;-4.9249;
556.5000;1.1551;-4.9301;
556.8000;1.1575;-4.9301;
557.1000;1.1551;-4.9379;
557.4000;1.1543;-4.9353;
557.7000;1.1461;-4.9638;
558.0000;1.1543;-4.9405;
558.3000;1.1543;-4.9379;
558.6000;1.1543;-4.9405;
558.9000;1.1526;-4.9457;
559.2000;1.1534;-4.9483;
559.5000;1.1543;-4.9508;
559.8000;1.1551;-4.9457;
560.1000;1.1559;-4.9431;
560.4000;1.1518;-4.9560;
560.7000;1.1543;-4.9612;
561.0000;1.1534;-4.9534;
561.3000;1.1494;-4.9534;
561.6000;1.1543;-4.9483;
561.9000;1.1534;-4.9508;
562.2000;1.1551;-4.9457;
562.5000;1.1510;-4.9560;
562.8000;1.1543;-4.9508;
563.1000;1.1559;-4.9457;
563.4000;1.1551;-4.9405;
563.7000;1.1534;-4.9483;
564.0000;1.1551;-4.9483;
564.3000;1.1551;-4.9534;
564.6000;1.1543;-4.9508;
564.9000;1.1583;-4.9405;
565.2000;1.1551;-4.9457;
565.5000;1.1551;-4.9483;
565.8000;1.1534;-4.9483;
566.1000;1.1543;-4.9534;
566.4000;1.1518;-4.9483;
566.7000;1.1526;-4.9457;
567.0000;1.1534;-4.9405;
567.3000;1.1543;-4.9457;
567.6000;1.1534;-4.9483;
567.9000;1.1551;-4.9457;
568.2000;1.1486;-4.9612;
568.5000;1.1559;-4.9379;
568.8000;1.1510;-4.9431;
569.1000;1.1534;-4.9405;
569.4000;1.1510;-4.9508;
569.7000;1.1526;-4.9508;
570.0000;1.1526;-4.9483;
570.3000;1.1510;-4.9457;
570.6000;1.1510;-4.9508;
570.9000;1.1526;-4.9405;
571.2000;1.1469;-4.9586;
571.5000;1.1534;-4.9379;
571.8000;1.1534;-4.9405;
572.1000;1.1559;-4.9405;
572.4000;1.1559;-4.9327;
572.7000;1.1543;-4.9327;
573.0000;1.1551;-4.9379;
573.3000;1.1518;-4.9457;
573.6000;1.1534;-4.9405;
573.9000;1.1551;-4.9275;
574.2000;1.1534;-4.9301;
574.5000;1.1510;-4.9457;
574.8000;1.1567;-4.9353;
575.1000;1.1543;-4.9353;
575.4000;1.1551;-4.9405;
575.7000;1.1543;-4.9379;
576.0000;1.1534;-4.9431;
576.3000;1.1526;-4.9405;
576.6000;1.1526;-4.9508;
576.9000;1.1534;-4.9457;
577.2000;1.1551;-4.9405;
577.5000;1.1534;-4.9379;
577.8000;1.1526;-4.9353;
578.1000;1.1543;-4.9301;
578.4000;1.1551;-4.9379;
578.7000;1.1534;-4.9405;
579.0000;1.1534;-4.9379;
579.3000;1.1543;-4.9379;
579.6000;1.1534;-4.9431;
579.9000;1.1477;-4.9586;
580.2000;1.1510;-4.9508;
580.5000;1.1510;-4.9560;
580.8000;1.1591;-4.9508;
581.1000;1.1534;-4.9586;
581.4000;1.1526;-4.9534;
581.7000;1.1543;-4.9612;
582.0000;1.1534;-4.9534;
582.3000;1.1551;-4.9431;
582.6000;1.1543;-4.9379;
582.9000;1.1420;-4.9638;
583.2000;1.1526;-4.9353;
583.5000;1.1543;-4.9379;
583.8000;1.1551;-4.9379;
584.1000;1.1567;-4.9353;
584.4000;1.1543;-4.9457;
584.7000;1.1543;-4.9405;
585.0000;1.1559;-4.9405;
585.3000;1.1567;-4.9508;
585.6000;1.1534;-4.9664;
585.9000;1.1551;-4.9690;
586.2000;1.1518;-4.9690;
586.5000;1.1559;-4.9586;
586.8000;1.1534;-4.9586;
587.1000;1.1567;-4.9483;
587.4000;1.1526;-4.9612;
587.7000;1.1510;-4.9612;
588.0000;1.1575;-4.9431;
588.3000;1.1543;-4.9405;
588.6000;1.1534;-4.9327;
588.9000;1.1551;-4.9327;
589.2000;1.1526;-4.9275;
589.5000;1.1543;-4.9249;
589.8000;1.1494;-4.9327;
590.1000;1.1534;-4.9249;
590.4000;1.1543;-4.9249;
590.7000;1.1600;-4.9119;
591.0000;1.1567;-4.9223;
591.3000;1.1559;-4.9171;
591.6000;1.1559;-4.9171;
591.9000;1.1632;-4.9016;
592.2000;1.1526;-4.9301;
592.5000;1.1534;-4.9171;
592.8000;1.1526;-4.9275;
593.1000;1.1534;-4.9145;
593.4000;1.1526;-4.9223;
593.7000;1.1510;-4.9301;
594.0000;1.1494;-4.9327;
594.3000;1.1518;-4.9249;
594.6000;1.1510;-4.9275;
594.9000;1.1526;-4.9275;
595.2000;1.1534;-4.9275;
595.5000;1.1551;-4.9301;
595.8000;1.1534;-4.9379;
596.1000;1.1453;-4.9534;
596.4000;1.1534;-4.9431;
596.7000;1.1526;-4.9431;
597.0000;1.1543;-4.9327;
597.3000;1.1461;-4.9457;
597.6000;1.1518;-4.9327;
597.9000;1.1534;-4.9301;
598.2000;1.1543;-4.9353;
598.5000;1.1534;-4.9327;
598.8000;1.1518;-4.9327;
599.1000;1.1559;-4.9275;
599.4000;1.1559;-4.9327;
599.7000;1.1575;-4.9405;
600.0000;1.1534;-4.9534;
600.3000;1.1551;-4.9638;
600.6000;1.1543;-4.9872;
600.9000;1.1469;-5.0105;
601.2000;1.1396;-5.0338;
601.5000;1.1323;-5.0572;
601.8000;1.1184;-5.0961;
602.1000;1.1103;-5.1350;
602.4000;1.1022;-5.1557;
602.7000;1.0932;-5.1739;
603.0000;1.0851;-5.1920;
603.3000;1.0777;-5.2024;
603.6000;1.0729;-5.2024;
603.9000;1.0582;-5.2257;
604.2000;1.0533;-5.2283;
604.5000;1.0452;-5.2491;
604.8000;1.0403;-5.2517;
605.1000;1.0330;-5.2569;
605.4000;1.0256;-5.2698;
605.7000;1.0216;-5.2880;
606.0000;1.0183;-5.2906;
606.3000;1.0094;-5.2984;
606.6000;1.0037;-5.3061;
606.9000;0.9963;-5.3139;
607.2000;0.9923;-5.3139;
607.5000;0.9882;-5.3113;
607.8000;0.9841;-5.3269;
608.1000;0.9792;-5.3399;
608.4000;0.9760;-5.3476;
608.7000;0.9711;-5.3554;
609.0000;0.9670;-5.3658;
609.3000;0.9638;-5.3658;
609.6000;0.9581;-5.3788;
609.9000;0.9556;-5.3736;
610.2000;0.9483;-5.3814;
610.5000;0.9508;-5.3684;
610.8000;0.9385;-5.3917;
611.1000;0.9385;-5.3891;
611.4000;0.9337;-5.3943;
611.7000;0.9271;-5.4021;
612.0000;0.9271;-5.3891;
612.3000;0.9263;-5.3814;
612.6000;0.9214;-5.3865;
612.9000;0.9182;-5.3969;
613.2000;0.9141;-5.4021;
613.5000;0.9052;-5.4228;
613.8000;0.9052;-5.4151;
614.1000;0.9044;-5.4073;
614.4000;0.9019;-5.4125;
614.7000;0.9044;-5.4099;
615.0000;0.8946;-5.4280;
615.3000;0.8930;-5.4254;
615.6000;0.8889;-5.4332;
615.9000;0.8881;-5.4254;
616.2000;0.8848;-5.4228;
616.5000;0.8832;-5.4306;
616.8000;0.8783;-5.4332;
617.1000;0.8767;-5.4410;
617.4000;0.8791;-5.4332;
617.7000;0.8718;-5.4540;
618.0000;0.8669;-5.4592;
618.3000;0.8677;-5.4514;
618.6000;0.8653;-5.4488;
618.9000;0.8620;-5.4488;
619.2000;0.8612;-5.4358;
619.5000;0.8580;-5.4462;
619.8000;0.8580;-5.4488;
620.1000;0.8547;-5.4514;
620.4000;0.8523;-5.4540;
620.7000;0.8506;-5.4436;
621.0000;0.8474;-5.4540;
621.3000;0.8441;-5.4488;
621.6000;0.8457;-5.4436;
621.9000;0.8433;-5.4358;
622.2000;0.8409;-5.4436;
622.5000;0.8376;-5.4488;
622.8000;0.8344;-5.4592;
623.1000;0.8319;-5.4643;
623.4000;0.8319;-5.4592;
623.7000;0.8303;-5.4643;
624.0000;0.8287;-5.4669;
624.3000;0.8270;-5.4721;
624.6000;0.8246;-5.4669;
624.9000;0.8246;-5.4695;
625.2000;0.8221;-5.4747;
625.5000;0.8238;-5.4773;
625.8000;0.8197;-5.4851;
626.1000;0.8197;-5.4825;
626.4000;0.8164;-5.4773;
626.7000;0.8140;-5.4773;
627.0000;0.8140;-5.4851;
627.3000;0.8132;-5.4851;
627.6000;0.8124;-5.4825;
627.9000;0.8099;-5.4799;
628.2000;0.8059;-5.4825;
628.5000;0.8059;-5.4877;
628.8000;0.8050;-5.4929;
629.1000;0.8034;-5.4929;
629.4000;0.8010;-5.5007;
629.7000;0.8002;-5.4929;
630.0000;0.8002;-5.4955;
630.3000;0.7985;-5.4877;
630.6000;0.7977;-5.4799;
630.9000;0.7953;-5.4799;
631.2000;0.7953;-5.4773;
631.5000;0.7920;-5.4877;
631.8000;0.7904;-5.4877;
632.1000;0.7888;-5.4929;
632.4000;0.7896;-5.4929;
632.7000;0.7871;-5.4955;
633.0000;0.7880;-5.4903;
633.3000;0.7839;-5.5058;
633.6000;0.7839;-5.5032;
633.9000;0.7855;-5.5032;
634.2000;0.7814;-5.5084;
634.5000;0.7806;-5.5110;
634.8000;0.7806;-5.5110;
635.1000;0.7798;-5.5162;
635.4000;0.7790;-5.5136;
635.7000;0.7774;-5.5110;
636.0000;0.7733;-5.5188;
636.3000;0.7709;-5.5292;
636.6000;0.7741;-5.5084;
636.9000;0.7725;-5.5136;
637.2000;0.7717;-5.5084;
637.5000;0.7717;-5.5084;
637.8000;0.7700;-5.5084;
638.1000;0.7692;-5.5084;
638.4000;0.7684;-5.5110;
638.7000;0.7668;-5.5058;
639.0000;0.7652;-5.5058;
639.3000;0.7627;-5.5032;
639.6000;0.7627;-5.5084;
639.9000;0.7619;-5.5007;
640.2000;0.7611;-5.5058;
640.5000;0.7627;-5.5058;
640.8000;0.7603;-5.5032;
641.1000;0.7578;-5.5058;
641.4000;0.7595;-5.5007;
641.7000;0.7578;-5.5007;
642.0000;0.7578;-5.5007;
642.3000;0.7546;-5.5084;
642.6000;0.7570;-5.4981;
642.9000;0.7546;-5.4981;
643.2000;0.7530;-5.5058;
643.5000;0.7521;-5.5084;
643.8000;0.7505;-5.5188;
644.1000;0.7521;-5.5188;
644.4000;0.7530;-5.5188;
644.7000;0.7505;-5.5136;
645.0000;0.7497;-5.5162;
645.3000;0.7489;-5.5136;
645.6000;0.7489;-5.5084;
645.9000;0.7473;-5.5058;
646.2000;0.7448;-5.5110;
646.5000;0.7473;-5.4955;
646.8000;0.7473;-5.4929;
647.1000;0.7432;-5.5007;
647.4000;0.7432;-5.5007;
647.7000;0.7416;-5.4903;
648.0000;0.7416;-5.4903;
648.3000;0.7489;-5.4773;
648.6000;0.7407;-5.4981;
648.9000;0.7399;-5.4981;
649.2000;0.7375;-5.5032;
649.5000;0.7391;-5.5058;
649.8000;0.7391;-5.5058;
650.1000;0.7448;-5.4981;
650.4000;0.7407;-5.5110;
650.7000;0.7342;-5.5188;
651.0000;0.7334;-5.5084;
651.3000;0.7359;-5.4929;
651.6000;0.7334;-5.5032;
651.9000;0.7391;-5.4955;
652.2000;0.7293;-5.5214;
652.5000;0.7326;-5.5162;
652.8000;0.7326;-5.5110;
653.1000;0.7302;-5.5007;
653.4000;0.7293;-5.5110;
653.7000;0.7285;-5.5058;
654.0000;0.7269;-5.5084;
654.3000;0.7277;-5.5110;
654.6000;0.7285;-5.5162;
654.9000;0.7269;-5.5292;
655.2000;0.7277;-5.5214;
655.5000;0.7285;-5.5162;
655.8000;0.7285;-5.5084;
656.1000;0.7261;-5.5110;
656.4000;0.7261;-5.5058;
656.7000;0.7269;-5.5136;
657.0000;0.7261;-5.5058;
657.3000;0.7261;-5.5110;
657.6000;0.7245;-5.5292;
657.9000;0.7245;-5.5240;
658.2000;0.7236;-5.5162;
658.5000;0.7228;-5.5162;
658.8000;0.7220;-5.5214;
659.1000;0.7220;-5.5214;
659.4000;0.7204;-5.5318;
659.7000;0.7204;-5.5214;
660.0000;0.7188;-5.5188;
660.3000;0.7155;-5.5240;
660.6000;0.7188;-5.5058;
660.9000;0.7147;-5.5188;
661.2000;0.7179;-5.5058;
661.5000;0.7155;-5.5084;
661.8000;0.7155;-5.5136;
662.1000;0.7155;-5.5058;
662.4000;0.7220;-5.4903;
662.7000;0.7155;-5.5058;
663.0000;0.7147;-5.5058;
663.3000;0.7147;-5.5084;
663.6000;0.7147;-5.5058;
663.9000;0.7131;-5.5032;
664.2000;0.7123;-5.5032;
664.5000;0.7139;-5.4981;
664.8000;0.7114;-5.5136;
665.1000;0.7114;-5.5110;
665.4000;0.7106;-5.5032;
665.7000;0.7106;-5.5032;
666.0000;0.7106;-5.5032;
666.3000;0.7098;-5.4955;
666.6000;0.7098;-5.5032;
666.9000;0.7106;-5.5084;
667.2000;0.7114;-5.4981;
667.5000;0.7090;-5.5058;
667.8000;0.7082;-5.5110;
668.1000;0.7066;-5.5110;
668.4000;0.7139;-5.4929;
668.7000;0.7057;-5.5188;
669.0000;0.7041;-5.5136;
669.3000;0.7066;-5.5110;
669.6000;0.7049;-5.5162;
669.9000;0.7041;-5.5240;
670.2000;0.7049;-5.5266;
670.5000;0.7049;-5.5136;
670.8000;0.7041;-5.5162;
671.1000;0.7041;-5.5240;
671.4000;0.7025;-5.5188;
671.7000;0.7000;-5.5214;
672.0000;0.7025;-5.5136;
672.3000;0.7009;-5.5162;
672.6000;0.7000;-5.5162;
672.9000;0.7009;-5.5136;
673.2000;0.6968;-5.5110;
673.5000;0.7033;-5.5032;
673.8000;0.7000;-5.5110;
674.1000;0.7033;-5.5007;
674.4000;0.7000;-5.5162;
674.7000;0.6992;-5.5136;
675.0000;0.6984;-5.5162;
675.3000;0.6984;-5.5214;
675.6000;0.6992;-5.5214;
675.9000;0.6984;-5.5084;
676.2000;0.6984;-5.5032;
676.5000;0.6968;-5.5084;
676.8000;0.6952;-5.5084;
677.1000;0.6968;-5.5058;
677.4000;0.6968;-5.5032;
677.7000;0.6952;-5.5214;
678.0000;0.6935;-5.5318;
678.3000;0.6952;-5.5188;
678.6000;0.6952;-5.5266;
678.9000;0.6911;-5.5370;
679.2000;0.6952;-5.5214;
679.5000;0.6952;-5.5188;
679.8000;0.6935;-5.5136;
680.1000;0.6935;-5.5058;
680.4000;0.6903;-5.5110;
680.7000;0.6895;-5.5110;
681.0000;0.6919;-5.5058;
681.3000;0.6927;-5.4981;
681.6000;0.6911;-5.4981;
681.9000;0.6903;-5.4929;
682.2000;0.6911;-5.4981;
682.5000;0.6903;-5.5058;
682.8000;0.6895;-5.5188;
683.1000;0.6886;-5.5188;
683.4000;0.6903;-5.5058;
683.7000;0.6903;-5.5007;
684.0000;0.6870;-5.4981;
684.3000;0.6878;-5.4877;
684.6000;0.6878;-5.4929;
684.9000;0.6854;-5.4955;
685.2000;0.6854;-5.4981;
685.5000;0.6854;-5.4955;
685.8000;0.6878;-5.4955;
686.1000;0.6862;-5.5032;
686.4000;0.6846;-5.5058;
686.7000;0.6838;-5.5032;
687.0000;0.6854;-5.4955;
687.3000;0.6813;-5.4981;
687.6000;0.6854;-5.4851;
687.9000;0.6838;-5.4903;
688.2000;0.6838;-5.5007;
688.5000;0.6846;-5.5084;
688.8000;0.6846;-5.5084;
689.1000;0.6813;-5.5084;
689.4000;0.6829;-5.5058;
689.7000;0.6829;-5.5058;
690.0000;0.6838;-5.5032;
690.3000;0.6846;-5.5007;
690.6000;0.6813;-5.4955;
690.9000;0.6821;-5.4981;
691.2000;0.6821;-5.4981;
691.5000;0.6846;-5.4877;
691.8000;0.6797;-5.4929;
692.1000;0.6797;-5.5007;
692.4000;0.6797;-5.5058;
692.7000;0.6797;-5.5032;
693.0000;0.6789;-5.5058;
693.3000;0.6805;-5.5058;
693.6000;0.6789;-5.5110;
693.9000;0.6846;-5.5007;
694.2000;0.6813;-5.5058;
694.5000;0.6781;-5.5084;
694.8000;0.6789;-5.5032;
695.1000;0.6781;-5.4981;
695.4000;0.6781;-5.4929;
695.7000;0.6772;-5.4955;
696.0000;0.6772;-5.4929;
696.3000;0.6781;-5.4929;
696.6000;0.6781;-5.5058;
696.9000;0.6732;-5.5214;
697.2000;0.6756;-5.5110;
697.5000;0.6764;-5.5007;
697.8000;0.6764;-5.4981;
698.1000;0.6772;-5.4955;
698.4000;0.6748;-5.5058;
698.7000;0.6764;-5.5162;
699.0000;0.6764;-5.5162;
699.3000;0.6707;-5.5344;
699.6000;0.6772;-5.4981;
699.9000;0.6764;-5.4981;
700.2000;0.6740;-5.5007;
700.5000;0.6748;-5.5007;
700.8000;0.6732;-5.5032;
701.1000;0.6691;-5.5110;
701.4000;0.6732;-5.4877;
701.7000;0.6716;-5.4877;
702.0000;0.6724;-5.4929;
702.3000;0.6724;-5.4851;
702.6000;0.6724;-5.4929;
702.9000;0.6716;-5.4981;
703.2000;0.6716;-5.5007;
703.5000;0.6716;-5.5032;
703.8000;0.6716;-5.5032;
704.1000;0.6716;-5.5110;
704.4000;0.6716;-5.5032;
704.7000;0.6707;-5.5084;
705.0000;0.6699;-5.5084;
705.3000;0.6683;-5.5032;
705.6000;0.6707;-5.4981;
705.9000;0.6707;-5.5007;
706.2000;0.6699;-5.5032;
706.5000;0.6683;-5.5084;
706.8000;0.6691;-5.5032;
707.1000;0.6683;-5.4955;
707.4000;0.6675;-5.4877;
707.7000;0.6683;-5.4903;
708.0000;0.6683;-5.4877;
708.3000;0.6683;-5.4903;
708.6000;0.6683;-5.4929;
708.9000;0.6683;-5.4981;
709.2000;0.6659;-5.5032;
709.5000;0.6667;-5.5032;
709.8000;0.6659;-5.5032;
710.1000;0.6650;-5.5032;
710.4000;0.6585;-5.5084;
710.7000;0.6675;-5.4903;
711.0000;0.6650;-5.4955;
711.3000;0.6740;-5.4669;
711.6000;0.6634;-5.5032;
711.9000;0.6650;-5.5058;
712.2000;0.6642;-5.5032;
712.5000;0.6642;-5.5032;
712.8000;0.6659;-5.5084;
713.1000;0.6642;-5.5058;
713.4000;0.6618;-5.4981;
713.7000;0.6585;-5.5162;
714.0000;0.6626;-5.5007;
714.3000;0.6650;-5.4825;
714.6000;0.6642;-5.4773;
714.9000;0.6642;-5.4773;
715.2000;0.6618;-5.4773;
715.5000;0.6610;-5.4799;
715.8000;0.6650;-5.4721;
716.1000;0.6618;-5.4825;
716.4000;0.6602;-5.4825;
716.7000;0.6634;-5.4747;
717.0000;0.6618;-5.4799;
717.3000;0.6610;-5.4825;
717.6000;0.6610;-5.4929;
717.9000;0.6618;-5.4877;
718.2000;0.6618;-5.4877;
718.5000;0.6618;-5.4825;
718.8000;0.6618;-5.4825;
719.1000;0.6650;-5.4851;
719.4000;0.6577;-5.5007;
719.7000;0.6553;-5.5136;
720.0000;0.6602;-5.5007;
720.3000;0.6602;-5.4929;
720.6000;0.6626;-5.4903;
720.9000;0.6602;-5.4981;
721.2000;0.6602;-5.4903;
721.5000;0.6577;-5.4955;
721.8000;0.6577;-5.4955;
722.1000;0.6610;-5.4929;
722.4000;0.6561;-5.5032;
722.7000;0.6553;-5.5058;
723.0000;0.6593;-5.5032;
723.3000;0.6593;-5.4981;
723.6000;0.6577;-5.5007;
723.9000;0.6561;-5.4955;
724.2000;0.6569;-5.4929;
724.5000;0.6569;-5.4929;
724.8000;0.6585;-5.4981;
725.1000;0.6577;-5.5007;
725.4000;0.6577;-5.4981;
725.7000;0.6561;-5.5084;
726.0000;0.6569;-5.5110;
726.3000;0.6561;-5.5058;
726.6000;0.6561;-5.5058;
726.9000;0.6569;-5.5007;
727.2000;0.6577;-5.4981;
727.5000;0.6577;-5.4955;
727.8000;0.6569;-5.5136;
728.1000;0.6545;-5.5214;
728.4000;0.6569;-5.5162;
728.7000;0.6569;-5.5136;
729.0000;0.6545;-5.5084;
729.3000;0.6545;-5.5032;
729.6000;0.6561;-5.5007;
729.9000;0.6553;-5.4981;
730.2000;0.6553;-5.4955;
730.5000;0.6545;-5.4955;
730.8000;0.6536;-5.4903;
731.1000;0.6520;-5.5007;
731.4000;0.6553;-5.4877;
731.7000;0.6528;-5.4929;
732.0000;0.6528;-5.4981;
732.3000;0.6528;-5.5007;
732.6000;0.6553;-5.4903;
732.9000;0.6520;-5.5032;
733.2000;0.6528;-5.5058;
733.5000;0.6545;-5.4929;
733.8000;0.6520;-5.4955;
734.1000;0.6520;-5.5058;
734.4000;0.6528;-5.4981;
734.7000;0.6536;-5.4955;
735.0000;0.6520;-5.4981;
735.3000;0.6528;-5.4981;
735.6000;0.6512;-5.5007;
735.9000;0.6528;-5.4955;
736.2000;0.6520;-5.4903;
736.5000;0.6512;-5.4903;
736.8000;0.6496;-5.4903;
737.1000;0.6520;-5.4799;
737.4000;0.6496;-5.4825;
737.7000;0.6488;-5.4851;
738.0000;0.6536;-5.4747;
738.3000;0.6512;-5.4877;
738.6000;0.6512;-5.4929;
738.9000;0.6528;-5.4903;
739.2000;0.6479;-5.4955;
739.5000;0.6536;-5.4773;
739.8000;0.6504;-5.4903;
740.1000;0.6512;-5.4851;
740.4000;0.6488;-5.4877;
740.7000;0.6471;-5.4851;
741.0000;0.6488;-5.4877;
741.3000;0.6488;-5.4877;
741.6000;0.6496;-5.4877;
741.9000;0.6488;-5.4929;
742.2000;0.6512;-5.4877;
742.5000;0.6463;-5.4981;
742.8000;0.6479;-5.4955;
743.1000;0.6479;-5.4903;
743.4000;0.6512;-5.4721;
743.7000;0.6479;-5.4825;
744.0000;0.6471;-5.4773;
744.3000;0.6463;-5.4799;
744.6000;0.6463;-5.4825;
744.9000;0.6447;-5.4877;
745.2000;0.6479;-5.4929;
745.5000;0.6422;-5.5058;
745.8000;0.6463;-5.5058;
746.1000;0.6455;-5.5058;
746.4000;0.6455;-5.4981;
746.7000;0.6471;-5.4955;
747.0000;0.6463;-5.5007;
747.3000;0.6447;-5.4955;
747.6000;0.6463;-5.4877;
747.9000;0.6463;-5.4877;
748.2000;0.6463;-5.4929;
748.5000;0.6447;-5.4903;
748.8000;0.6398;-5.4903;
749.1000;0.6479;-5.4799;
749.4000;0.6447;-5.4825;
749.7000;0.6463;-5.4851;
750.0000;0.6447;-5.4903;
750.3000;0.6431;-5.4903;
750.6000;0.6447;-5.4825;
750.9000;0.6422;-5.4851;
751.2000;0.6439;-5.4851;
751.5000;0.6431;-5.4929;
751.8000;0.6439;-5.4929;
752.1000;0.6431;-5.4903;
752.4000;0.6463;-5.4825;
752.7000;0.6439;-5.4903;
753.0000;0.6422;-5.4903;
753.3000;0.6431;-5.4799;
753.6000;0.6431;-5.4721;
753.9000;0.6431;-5.4721;
754.2000;0.6439;-5.4695;
754.5000;0.6422;-5.4825;
754.8000;0.6398;-5.4903;
755.1000;0.6431;-5.4851;
755.4000;0.6398;-5.4825;
755.7000;0.6439;-5.4721;
756.0000;0.6422;-5.4877;
756.3000;0.6422;-5.4825;
756.6000;0.6414;-5.4773;
756.9000;0.6398;-5.4903;
757.2000;0.6398;-5.4955;
757.5000;0.6398;-5.4955;
757.8000;0.6422;-5.4929;
758.1000;0.6422;-5.4981;
758.4000;0.6471;-5.4877;
758.7000;0.6398;-5.5032;
759.0000;0.6406;-5.4981;
759.3000;0.6447;-5.4825;
759.6000;0.6390;-5.4955;
759.9000;0.6414;-5.4981;
760.2000;0.6414;-5.4877;
760.5000;0.6447;-5.4747;
760.8000;0.6398;-5.4799;
761.1000;0.6414;-5.4825;
761.4000;0.6455;-5.4721;
761.7000;0.6414;-5.4903;
762.0000;0.6422;-5.4929;
762.3000;0.6414;-5.5007;
762.6000;0.6406;-5.5058;
762.9000;0.6398;-5.5058;
763.2000;0.6414;-5.5007;
763.5000;0.6398;-5.5058;
763.8000;0.6390;-5.5084;
764.1000;0.6406;-5.4981;
764.4000;0.6406;-5.4981;
764.7000;0.6398;-5.5007;
765.0000;0.6398;-5.4981;
765.3000;0.6365;-5.5007;
765.6000;0.6439;-5.4851;
765.9000;0.6398;-5.4955;
766.2000;0.6414;-5.5007;
766.5000;0.6398;-5.5058;
766.8000;0.6398;-5.5058;
767.1000;0.6398;-5.5058;
767.4000;0.6390;-5.5032;
767.7000;0.6390;-5.4981;
768.0000;0.6382;-5.4955;
768.3000;0.6365;-5.4929;
768.6000;0.6414;-5.4825;
768.9000;0.6365;-5.4929;
769.2000;0.6382;-5.4955;
769.5000;0.6447;-5.4903;
769.8000;0.6382;-5.5084;
770.1000;0.6431;-5.5032;
770.4000;0.6365;-5.5214;
770.7000;0.6365;-5.5162;
771.0000;0.6357;-5.5162;
771.3000;0.6390;-5.5162;
771.6000;0.6357;-5.5136;
771.9000;0.6365;-5.5136;
772.2000;0.6382;-5.5110;
772.5000;0.6349;-5.5136;
772.8000;0.6365;-5.5058;
773.1000;0.6374;-5.5084;
773.4000;0.6382;-5.5084;
773.7000;0.6382;-5.4981;
774.0000;0.6365;-5.5058;
774.3000;0.6374;-5.5058;
774.6000;0.6374;-5.5058;
774.9000;0.6349;-5.5162;
775.2000;0.6341;-5.5188;
775.5000;0.6365;-5.5188;
775.8000;0.6463;-5.4877;
776.1000;0.6349;-5.5162;
776.4000;0.6349;-5.5162;
776.7000;0.6357;-5.5136;
777.0000;0.6349;-5.5162;
777.3000;0.6365;-5.5214;
777.6000;0.6357;-5.5214;
777.9000;0.6349;-5.5188;
778.2000;0.6341;-5.5162;
778.5000;0.6349;-5.5084;
778.8000;0.6357;-5.5032;
779.1000;0.6317;-5.5007;
779.4000;0.6309;-5.4981;
779.7000;0.6300;-5.5007;
780.0000;0.6333;-5.4955;
780.3000;0.6333;-5.4981;
780.6000;0.6349;-5.5007;
780.9000;0.6333;-5.4903;
781.2000;0.6349;-5.4799;
781.5000;0.6365;-5.4825;
781.8000;0.6341;-5.4825;
782.1000;0.6341;-5.4851;
782.4000;0.6374;-5.4799;
782.7000;0.6333;-5.4877;
783.0000;0.6341;-5.4877;
783.3000;0.6374;-5.4773;
783.6000;0.6341;-5.4851;
783.9000;0.6333;-5.4851;
784.2000;0.6341;-5.4877;
784.5000;0.6357;-5.4721;
784.8000;0.6349;-5.4643;
785.1000;0.6349;-5.4721;
785.4000;0.6325;-5.4747;
785.7000;0.6333;-5.4851;
786.0000;0.6325;-5.4903;
786.3000;0.6333;-5.5007;
786.6000;0.6317;-5.5007;
786.9000;0.6341;-5.4955;
787.2000;0.6341;-5.4903;
787.5000;0.6349;-5.4903;
787.8000;0.6333;-5.4981;
788.1000;0.6325;-5.5007;
788.4000;0.6325;-5.4929;
788.7000;0.6325;-5.4851;
789.0000;0.6317;-5.4851;
789.3000;0.6309;-5.4903;
789.6000;0.6333;-5.4825;
789.9000;0.6325;-5.4799;
790.2000;0.6292;-5.4877;
790.5000;0.6325;-5.4825;
790.8000;0.6349;-5.4773;
791.1000;0.6325;-5.4747;
791.4000;0.6309;-5.4825;
791.7000;0.6317;-5.4903;
792.0000;0.6300;-5.4903;
792.3000;0.6325;-5.4825;
792.6000;0.6325;-5.4799;
792.9000;0.6300;-5.4851;
793.2000;0.6309;-5.4799;
793.5000;0.6292;-5.4773;
793.8000;0.6309;-5.4721;
794.1000;0.6284;-5.4825;
794.4000;0.6300;-5.4721;
794.7000;0.6300;-5.4773;
795.0000;0.6309;-5.4773;
795.3000;0.6292;-5.4825;
795.6000;0.6300;-5.4825;
795.9000;0.6300;-5.4799;
796.2000;0.6325;-5.4721;
796.5000;0.6300;-5.4799;
796.8000;0.6309;-5.4773;
797.1000;0.6276;-5.4747;
797.4000;0.6309;-5.4747;
797.7000;0.6300;-5.4721;
798.0000;0.6309;-5.4747;
798.3000;0.6284;-5.4799;
798.6000;0.6300;-5.4747;
798.9000;0.6268;-5.4903;
799.2000;0.6300;-5.4773;
799.5000;0.6284;-5.4747;
799.8000;0.6333;-5.4669;
800.1000;0.6292;-5.4799;
800.4000;0.6300;-5.4851;
800.7000;0.6300;-5.4851;
801.0000;0.6292;-5.4903;
801.3000;0.6292;-5.4851;
801.6000;0.6300;-5.4799;
801.9000;0.6300;-5.4747;
802.2000;0.6284;-5.4799;
802.5000;0.6268;-5.4825;
802.8000;0.6260;-5.4825;
803.1000;0.6268;-5.4903;
803.4000;0.6252;-5.4929;
803.7000;0.6268;-5.4799;
804.0000;0.6268;-5.4799;
804.3000;0.6260;-5.4799;
804.6000;0.6268;-5.4773;
804.9000;0.6260;-5.4799;
805.2000;0.6284;-5.4695;
805.5000;0.6284;-5.4747;
805.8000;0.6252;-5.4695;
806.1000;0.6276;-5.4721;
806.4000;0.6268;-5.4747;
806.7000;0.6284;-5.4825;
807.0000;0.6268;-5.4851;
807.3000;0.6276;-5.4695;
807.6000;0.6268;-5.4669;
807.9000;0.6268;-5.4618;
808.2000;0.6276;-5.4592;
808.5000;0.6260;-5.4643;
808.8000;0.6276;-5.4695;
809.1000;0.6243;-5.4747;
809.4000;0.6260;-5.4773;
809.7000;0.6243;-5.4825;
810.0000;0.6260;-5.4825;
810.3000;0.6260;-5.4721;
810.6000;0.6252;-5.4721;
810.9000;0.6260;-5.4721;
811.2000;0.6252;-5.4721;
811.5000;0.6268;-5.4721;
811.8000;0.6300;-5.4618;
812.1000;0.6252;-5.4721;
812.4000;0.6260;-5.4747;
812.7000;0.6276;-5.4669;
813.0000;0.6235;-5.4773;
813.3000;0.6260;-5.4773;
813.6000;0.6235;-5.4851;
813.9000;0.6243;-5.4851;
814.2000;0.6260;-5.4773;
814.5000;0.6227;-5.4903;
814.8000;0.6235;-5.4903;
815.1000;0.6268;-5.4929;
815.4000;0.6252;-5.4851;
815.7000;0.6252;-5.4825;
816.0000;0.6219;-5.4929;
816.3000;0.6260;-5.4799;
816.6000;0.6146;-5.5058;
816.9000;0.6235;-5.4877;
817.2000;0.6235;-5.4851;
817.5000;0.6235;-5.4903;
817.8000;0.6195;-5.5032;
818.1000;0.6252;-5.4929;
818.4000;0.6243;-5.4903;
818.7000;0.6243;-5.5007;
819.0000;0.6235;-5.4981;
819.3000;0.6227;-5.4955;
819.6000;0.6268;-5.4825;
819.9000;0.6276;-5.4825;
820.2000;0.6227;-5.4877;
820.5000;0.6243;-5.4825;
820.8000;0.6243;-5.4825;
821.1000;0.6227;-5.4825;
821.4000;0.6243;-5.4877;
821.7000;0.6260;-5.4851;
822.0000;0.6235;-5.4825;
822.3000;0.6243;-5.4851;
822.6000;0.6235;-5.4955;
822.9000;0.6219;-5.5007;
823.2000;0.6243;-5.4851;
823.5000;0.6235;-5.4747;
823.8000;0.6243;-5.4851;
824.1000;0.6243;-5.4929;
824.4000;0.6235;-5.4929;
824.7000;0.6243;-5.4877;
825.0000;0.6227;-5.4799;
825.3000;0.6235;-5.4877;
825.6000;0.6211;-5.4955;
825.9000;0.6235;-5.4955;
826.2000;0.6235;-5.4903;
826.5000;0.6219;-5.4929;
826.8000;0.6227;-5.4851;
827.1000;0.6235;-5.4877;
827.4000;0.6211;-5.4903;
827.7000;0.6203;-5.4877;
828.0000;0.6292;-5.4695;
828.3000;0.6178;-5.4955;
828.6000;0.6219;-5.4773;
828.9000;0.6211;-5.4747;
829.2000;0.6219;-5.4773;
829.5000;0.6211;-5.4799;
829.8000;0.6219;-5.4773;
830.1000;0.6211;-5.4747;
830.4000;0.6219;-5.4747;
830.7000;0.6227;-5.4747;
831.0000;0.6227;-5.4747;
831.3000;0.6219;-5.4773;
831.6000;0.6186;-5.4877;
831.9000;0.6219;-5.4799;
832.2000;0.6211;-5.4773;
832.5000;0.6235;-5.4851;
832.8000;0.6219;-5.4851;
833.1000;0.6211;-5.4799;
833.4000;0.6219;-5.4825;
833.7000;0.6227;-5.4851;
834.0000;0.6195;-5.4851;
834.3000;0.6195;-5.4799;
834.6000;0.6227;-5.4669;
834.9000;0.6235;-5.4747;
835.2000;0.6186;-5.4877;
835.5000;0.6195;-5.4851;
835.8000;0.6211;-5.4851;
836.1000;0.6203;-5.4799;
836.4000;0.6211;-5.4721;
836.7000;0.6186;-5.4695;
837.0000;0.6203;-5.4540;
837.3000;0.6195;-5.4618;
837.6000;0.6178;-5.4669;
837.9000;0.6195;-5.4566;
838.2000;0.6195;-5.4592;
838.5000;0.6243;-5.4514;
838.8000;0.6276;-5.4462;
839.1000;0.6243;-5.4592;
839.4000;0.6195;-5.4721;
839.7000;0.6195;-5.4773;
840.0000;0.6203;-5.4773;
840.3000;0.6203;-5.4825;
840.6000;0.6195;-5.4799;
840.9000;0.6186;-5.4799;
841.2000;0.6203;-5.4851;
841.5000;0.6195;-5.4825;
841.8000;0.6186;-5.4747;
842.1000;0.6186;-5.4721;
842.4000;0.6195;-5.4799;
842.7000;0.6203;-5.4851;
843.0000;0.6195;-5.4825;
843.3000;0.6211;-5.4721;
843.6000;0.6211;-5.4721;
843.9000;0.6203;-5.4773;
844.2000;0.6186;-5.4747;
844.5000;0.6195;-5.4799;
844.8000;0.6195;-5.4799;
845.1000;0.6195;-5.4747;
845.4000;0.6178;-5.4695;
845.7000;0.6203;-5.4669;
846.0000;0.6186;-5.4618;
846.3000;0.6203;-5.4643;
846.6000;0.6203;-5.4695;
846.9000;0.6178;-5.4721;
847.2000;0.6203;-5.4643;
847.5000;0.6203;-5.4643;
847.8000;0.6178;-5.4747;
848.1000;0.6186;-5.4695;
848.4000;0.6178;-5.4747;
848.7000;0.6211;-5.4695;
849.0000;0.6195;-5.4695;
849.3000;0.6203;-5.4695;
849.6000;0.6178;-5.4669;
849.9000;0.6178;-5.4643;
850.2000;0.6186;-5.4669;
850.5000;0.6178;-5.4669;
850.8000;0.6162;-5.4695;
851.1000;0.6154;-5.4747;
851.4000;0.6121;-5.4799;
851.7000;0.6170;-5.4669;
852.0000;0.6195;-5.4669;
852.3000;0.6178;-5.4747;
852.6000;0.6162;-5.4669;
852.9000;0.6170;-5.4669;
853.2000;0.6178;-5.4669;
853.5000;0.6154;-5.4773;
853.8000;0.6195;-5.4721;
854.1000;0.6186;-5.4747;
854.4000;0.6170;-5.4721;
854.7000;0.6162;-5.4695;
855.0000;0.6186;-5.4618;
855.3000;0.6186;-5.4566;
855.6000;0.6154;-5.4669;
855.9000;0.6162;-5.4592;
856.2000;0.6170;-5.4566;
856.5000;0.6138;-5.4488;
856.8000;0.6162;-5.4436;
857.1000;0.6146;-5.4436;
857.4000;0.6146;-5.4436;
857.7000;0.6162;-5.4436;
858.0000;0.6170;-5.4384;
858.3000;0.6162;-5.4436;
858.6000;0.6146;-5.4436;
858.9000;0.6170;-5.4436;
859.2000;0.6162;-5.4540;
859.5000;0.6178;-5.4566;
859.8000;0.6146;-5.4540;
860.1000;0.6162;-5.4566;
860.4000;0.6146;-5.4669;
860.7000;0.6170;-5.4566;
861.0000;0.6138;-5.4618;
861.3000;0.6113;-5.4695;
861.6000;0.6072;-5.4799;
861.9000;0.6154;-5.4643;
862.2000;0.6138;-5.4695;
862.5000;0.6129;-5.4695;
862.8000;0.6211;-5.4566;
863.1000;0.6146;-5.4669;
863.4000;0.6146;-5.4721;
863.7000;0.6154;-5.4721;
864.0000;0.6146;-5.4721;
864.3000;0.6162;-5.4721;
864.6000;0.6138;-5.4669;
864.9000;0.6154;-5.4669;
865.2000;0.6154;-5.4669;
865.5000;0.6154;-5.4695;
865.8000;0.6138;-5.4721;
866.1000;0.6146;-5.4669;
866.4000;0.6170;-5.4643;
866.7000;0.6154;-5.4643;
867.0000;0.6146;-5.4618;
867.3000;0.6146;-5.4488;
867.6000;0.6138;-5.4566;
867.9000;0.6186;-5.4540;
868.2000;0.6138;-5.4721;
868.5000;0.6154;-5.4643;
868.8000;0.6138;-5.4721;
869.1000;0.6146;-5.4618;
869.4000;0.6162;-5.4643;
869.7000;0.6162;-5.4618;
870.0000;0.6146;-5.4643;
870.3000;0.6154;-5.4721;
870.6000;0.6162;-5.4721;
870.9000;0.6154;-5.4643;
871.2000;0.6154;-5.4592;
871.5000;0.6146;-5.4618;
871.8000;0.6138;-5.4592;
872.1000;0.6146;-5.4566;
872.4000;0.6129;-5.4514;
872.7000;0.6203;-5.4410;
873.0000;0.6146;-5.4566;
873.3000;0.6154;-5.4618;
873.6000;0.6170;-5.4566;
873.9000;0.6129;-5.4643;
874.2000;0.6089;-5.4773;
874.5000;0.6081;-5.4721;
874.8000;0.6146;-5.4540;
875.1000;0.6146;-5.4669;
875.4000;0.6186;-5.4566;
875.7000;0.6154;-5.4618;
876.0000;0.6138;-5.4592;
876.3000;0.6138;-5.4514;
876.6000;0.6105;-5.4488;
876.9000;0.6121;-5.4436;
877.2000;0.6129;-5.4462;
877.5000;0.6129;-5.4462;
877.8000;0.6129;-5.4514;
878.1000;0.6138;-5.4566;
878.4000;0.6129;-5.4540;
878.7000;0.6146;-5.4488;
879.0000;0.6146;-5.4566;
879.3000;0.6121;-5.4618;
879.6000;0.6138;-5.4566;
879.9000;0.6154;-5.4566;
880.2000;0.6146;-5.4540;
880.5000;0.6097;-5.4695;
880.8000;0.6129;-5.4618;
881.1000;0.6154;-5.4592;
881.4000;0.6154;-5.4540;
881.7000;0.6146;-5.4514;
882.0000;0.6129;-5.4514;
882.3000;0.6121;-5.4514;
882.6000;0.6129;-5.4514;
882.9000;0.6121;-5.4540;
883.2000;0.6129;-5.4488;
883.5000;0.6138;-5.4514;
883.8000;0.6097;-5.4669;
884.1000;0.6121;-5.4618;
884.4000;0.6121;-5.4592;
884.7000;0.6121;-5.4436;
885.0000;0.6138;-5.4358;
885.3000;0.6203;-5.4177;
885.6000;0.6146;-5.4332;
885.9000;0.6129;-5.4358;
886.2000;0.6105;-5.4436;
886.5000;0.6129;-5.4410;
886.8000;0.6113;-5.4488;
887.1000;0.6121;-5.4488;
887.4000;0.6121;-5.4462;
887.7000;0.6097;-5.4462;
888.0000;0.6121;-5.4540;
888.3000;0.6064;-5.4695;
888.6000;0.6113;-5.4540;
888.9000;0.6121;-5.4436;
889.2000;0.6113;-5.4462;
889.5000;0.6113;-5.4462;
889.8000;0.6178;-5.4306;
890.1000;0.6121;-5.4514;
890.4000;0.6129;-5.4436;
890.7000;0.6129;-5.4436;
891.0000;0.6113;-5.4384;
891.3000;0.6121;-5.4488;
891.6000;0.6138;-5.4384;
891.9000;0.6105;-5.4410;
892.2000;0.6113;-5.4410;
892.5000;0.6097;-5.4462;
892.8000;0.6105;-5.4384;
893.1000;0.6113;-5.4436;
893.4000;0.6097;-5.4488;
893.7000;0.6113;-5.4488;
894.0000;0.6105;-5.4436;
894.3000;0.6105;-5.4462;
894.6000;0.6121;-5.4410;
894.9000;0.6113;-5.4384;
895.2000;0.6113;-5.4410;
895.5000;0.6138;-5.4488;
895.8000;0.6113;-5.4514;
896.1000;0.6097;-5.4488;
896.4000;0.6121;-5.4436;
896.7000;0.6097;-5.4436;
897.0000;0.6105;-5.4410;
897.3000;0.6113;-5.4410;
897.6000;0.6105;-5.4410;
897.9000;0.6089;-5.4436;
898.2000;0.6105;-5.4488;
898.5000;0.6081;-5.4618;
898.8000;0.6138;-5.4488;
899.1000;0.6105;-5.4618;
899.4000;0.6105;-5.4695;
899.7000;0.6072;-5.4747;
900.0000;0.6113;-5.4566;
900.3000;0.6105;-5.4592;
900.6000;0.6081;-5.4592;
900.9000;0.6113;-5.4566;
901.2000;0.6113;-5.4592;
901.5000;0.6121;-5.4540;
901.8000;0.6081;-5.4618;
902.1000;0.6089;-5.4592;
902.4000;0.6105;-5.4566;
902.7000;0.6081;-5.4540;
903.0000;0.6097;-5.4540;
903.3000;0.6097;-5.4592;
903.6000;0.6113;-5.4566;
903.9000;0.6097;-5.4540;
904.2000;0.6105;-5.4514;
904.5000;0.6113;-5.4384;
904.8000;0.6121;-5.4384;
905.1000;0.6121;-5.4436;
905.4000;0.6113;-5.4540;
905.7000;0.6105;-5.4566;
906.0000;0.6089;-5.4540;
906.3000;0.6113;-5.4488;
906.6000;0.6121;-5.4488;
906.9000;0.6097;-5.4514;
907.2000;0.6056;-5.4540;
907.5000;0.6089;-5.4514;
907.8000;0.6097;-5.4540;
908.1000;0.6089;-5.4566;
908.4000;0.6097;-5.4514;
908.7000;0.6097;-5.4566;
909.0000;0.6072;-5.4618;
909.3000;0.6089;-5.4643;
909.6000;0.6081;-5.4669;
909.9000;0.6032;-5.4799;
910.2000;0.6089;-5.4643;
910.5000;0.6089;-5.4669;
910.8000;0.6048;-5.4851;
911.1000;0.6129;-5.4592;
911.4000;0.6097;-5.4721;
911.7000;0.6089;-5.4773;
912.0000;0.6097;-5.4695;
912.3000;0.6081;-5.4695;
912.6000;0.6064;-5.4669;
912.9000;0.6081;-5.4695;
913.2000;0.6089;-5.4643;
913.5000;0.6081;-5.4488;
913.8000;0.6170;-5.4254;
914.1000;0.6138;-5.4280;
914.4000;0.6081;-5.4384;
914.7000;0.6081;-5.4358;
915.0000;0.6024;-5.4436;
915.3000;0.6089;-5.4306;
915.6000;0.6097;-5.4410;
915.9000;0.6105;-5.4384;
916.2000;0.6089;-5.4462;
916.5000;0.6097;-5.4566;
916.8000;0.6121;-5.4540;
917.1000;0.6105;-5.4566;
917.4000;0.6072;-5.4695;
917.7000;0.6105;-5.4747;
918.0000;0.6089;-5.4851;
918.3000;0.6072;-5.4851;
918.6000;0.6081;-5.4825;
918.9000;0.6081;-5.4877;
919.2000;0.6089;-5.4877;
919.5000;0.6089;-5.4851;
919.8000;0.6089;-5.4929;
920.1000;0.6081;-5.4851;
920.4000;0.6072;-5.4799;
920.7000;0.6089;-5.4721;
921.0000;0.6097;-5.4747;
921.3000;0.6138;-5.4669;
921.6000;0.6081;-5.4747;
921.9000;0.6064;-5.4825;
922.2000;0.6081;-5.4721;
922.5000;0.6081;-5.4747;
922.8000;0.6032;-5.4799;
923.1000;0.6064;-5.4695;
923.4000;0.6032;-5.4799;
923.7000;0.6015;-5.4903;
924.0000;0.6048;-5.4825;
924.3000;0.6040;-5.4851;
924.6000;0.6089;-5.4721;
924.9000;0.6072;-5.4695;
925.2000;0.6064;-5.4773;
925.5000;0.6081;-5.4721;
925.8000;0.6072;-5.4695;
926.1000;0.6081;-5.4669;
926.4000;0.6089;-5.4669;
926.7000;0.6089;-5.4695;
927.0000;0.6089;-5.4695;
927.3000;0.6105;-5.4747;
927.6000;0.6081;-5.4747;
927.9000;0.6097;-5.4669;
928.2000;0.6105;-5.4669;
928.5000;0.6081;-5.4618;
928.8000;0.6162;-5.4514;
929.1000;0.6097;-5.4592;
929.4000;0.6129;-5.4540;
929.7000;0.6121;-5.4592;
930.0000;0.6048;-5.4643;
930.3000;0.6113;-5.4436;
930.6000;0.6056;-5.4566;
930.9000;0.6089;-5.4592;
931.2000;0.6056;-5.4643;
931.5000;0.6072;-5.4592;
931.8000;0.6064;-5.4540;
932.1000;0.6072;-5.4514;
932.4000;0.6113;-5.4410;
932.7000;0.6072;-5.4514;
933.0000;0.6032;-5.4592;
933.3000;0.6081;-5.4540;
933.6000;0.6072;-5.4566;
933.9000;0.6113;-5.4540;
934.2000;0.6081;-5.4540;
934.5000;0.6072;-5.4592;
934.8000;0.6048;-5.4566;
935.1000;0.6040;-5.4643;
935.4000;0.6056;-5.4566;
935.7000;0.6064;-5.4488;
936.0000;0.6072;-5.4436;
936.3000;0.6056;-5.4488;
936.6000;0.6064;-5.4514;
936.9000;0.6056;-5.4514;
937.2000;0.6089;-5.4592;
937.5000;0.6056;-5.4618;
937.8000;0.6064;-5.4592;
938.1000;0.6072;-5.4566;
938.4000;0.6081;-5.4566;
938.7000;0.6081;-5.4592;
939.0000;0.6064;-5.4540;
939.3000;0.6072;-5.4618;
939.6000;0.6064;-5.4695;
939.9000;0.6072;-5.4695;
940.2000;0.6056;-5.4643;
940.5000;0.6072;-5.4618;
940.8000;0.6048;-5.4643;
941.1000;0.6064;-5.4488;
941.4000;0.6056;-5.4488;
941.7000;0.6072;-5.4488;
942.0000;0.5999;-5.4618;
942.3000;0.6064;-5.4332;
942.6000;0.6081;-5.4332;
942.9000;0.6064;-5.4462;
943.2000;0.6072;-5.4436;
943.5000;0.6056;-5.4540;
943.8000;0.6097;-5.4358;
944.1000;0.6040;-5.4566;
944.4000;0.6040;-5.4540;
944.7000;0.6056;-5.4488;
945.0000;0.6072;-5.4566;
945.3000;0.6064;-5.4592;
945.6000;0.6072;-5.4514;
945.9000;0.6072;-5.4462;
946.2000;0.6072;-5.4462;
946.5000;0.6072;-5.4384;
946.8000;0.6064;-5.4436;
947.1000;0.6056;-5.4332;
947.4000;0.5991;-5.4462;
947.7000;0.6064;-5.4306;
948.0000;0.6056;-5.4384;
948.3000;0.6064;-5.4358;
948.6000;0.6064;-5.4332;
948.9000;0.6056;-5.4358;
949.2000;0.6064;-5.4306;
949.5000;0.6040;-5.4358;
949.8000;0.6089;-5.4332;
950.1000;0.6064;-5.4358;
950.4000;0.6056;-5.4436;
950.7000;0.6040;-5.4488;
951.0000;0.6040;-5.4540;
951.3000;0.6064;-5.4540;
951.6000;0.6040;-5.4592;
951.9000;0.6064;-5.4540;
952.2000;0.6064;-5.4514;
952.5000;0.6040;-5.4592;
952.8000;0.6064;-5.4566;
953.1000;0.6064;-5.4462;
953.4000;0.6072;-5.4436;
953.7000;0.6056;-5.4514;
954.0000;0.6056;-5.4488;
954.3000;0.6056;-5.4462;
954.6000;0.6007;-5.4514;
954.9000;0.6040;-5.4410;
955.2000;0.6040;-5.4462;
955.5000;0.6048;-5.4410;
955.8000;0.6024;-5.4514;
956.1000;0.6032;-5.4540;
956.4000;0.6056;-5.4566;
956.7000;0.6032;-5.4643;
957.0000;0.6040;-5.4592;
957.3000;0.6048;-5.4643;
957.6000;0.6056;-5.4669;
957.9000;0.6064;-5.4669;
958.2000;0.6040;-5.4721;
958.5000;0.6048;-5.4721;
958.8000;0.6056;-5.4643;
959.1000;0.6056;-5.4592;
959.4000;0.6032;-5.4669;
959.7000;0.6056;-5.4669;
960.0000;0.6056;-5.4669;
960.3000;0.6048;-5.4669;
960.6000;0.6032;-5.4669;
960.9000;0.6048;-5.4695;
961.2000;0.6032;-5.4695;
961.5000;0.6064;-5.4566;
961.8000;0.6048;-5.4540;
962.1000;0.6040;-5.4514;
962.4000;0.6048;-5.4436;
962.7000;0.6064;-5.4462;
963.0000;0.6056;-5.4540;
963.3000;0.6072;-5.4514;
963.6000;0.6056;-5.4514;
963.9000;0.6064;-5.4514;
964.2000;0.6056;-5.4514;
964.5000;0.6048;-5.4514;
964.8000;0.6048;-5.4540;
965.1000;0.6056;-5.4488;
965.4000;0.6040;-5.4462;
965.7000;0.6040;-5.4540;
966.0000;0.6040;-5.4592;
966.3000;0.6015;-5.4643;
966.6000;0.6024;-5.4592;
966.9000;0.6040;-5.4592;
967.2000;0.6007;-5.4566;
967.5000;0.5999;-5.4436;
967.8000;0.6040;-5.4436;
968.1000;0.6040;-5.4358;
968.4000;0.6024;-5.4436;
968.7000;0.6097;-5.4203;
969.0000;0.6040;-5.4410;
969.3000;0.6081;-5.4306;
969.6000;0.6097;-5.4280;
969.9000;0.6015;-5.4540;
970.2000;0.6024;-5.4540;
970.5000;0.6138;-5.4332;
970.8000;0.6024;-5.4540;
971.1000;0.6032;-5.4488;
971.4000;0.6032;-5.4436;
971.7000;0.6048;-5.4384;
972.0000;0.6040;-5.4358;
972.3000;0.5991;-5.4462;
972.6000;0.6040;-5.4384;
972.9000;0.6032;-5.4462;
973.2000;0.6040;-5.4384;
973.5000;0.6040;-5.4384;
973.8000;0.6040;-5.4358;
974.1000;0.6040;-5.4436;
974.4000;0.6048;-5.4410;
974.7000;0.6040;-5.4462;
975.0000;0.6032;-5.4462;
975.3000;0.6007;-5.4462;
975.6000;0.6048;-5.4306;
975.9000;0.6040;-5.4306;
976.2000;0.6032;-5.4384;
976.5000;0.6032;-5.4410;
976.8000;0.6040;-5.4384;
977.1000;0.6040;-5.4332;
977.4000;0.6015;-5.4384;
977.7000;0.6024;-5.4358;
978.0000;0.6032;-5.4332;
978.3000;0.6040;-5.4280;
978.6000;0.6032;-5.4203;
978.9000;0.6024;-5.4228;
979.2000;0.6015;-5.4280;
979.5000;0.6048;-5.4254;
979.8000;0.6024;-5.4332;
980.1000;0.6007;-5.4384;
980.4000;0.6015;-5.4332;
980.7000;0.6024;-5.4306;
981.0000;0.6007;-5.4332;
981.3000;0.6024;-5.4306;
981.6000;0.6007;-5.4332;
981.9000;0.6015;-5.4254;
982.2000;0.6024;-5.4228;
982.5000;0.6007;-5.4306;
982.8000;0.6024;-5.4462;
983.1000;0.6032;-5.4462;
983.4000;0.6040;-5.4436;
983.7000;0.6040;-5.4410;
984.0000;0.6048;-5.4332;
984.3000;0.6040;-5.4228;
984.6000;0.6032;-5.4254;
984.9000;0.6007;-5.4332;
985.2000;0.6032;-5.4306;
985.5000;0.6032;-5.4384;
985.8000;0.6040;-5.4436;
986.1000;0.6024;-5.4462;
986.4000;0.6024;-5.4514;
986.7000;0.6040;-5.4540;
987.0000;0.6024;-5.4566;
987.3000;0.6040;-5.4514;
987.6000;0.6015;-5.4592;
987.9000;0.6040;-5.4358;
988.2000;0.5991;-5.4436;
988.5000;0.6007;-5.4436;
988.8000;0.6048;-5.4254;
989.1000;0.6015;-5.4358;
989.4000;0.6056;-5.4254;
989.7000;0.6048;-5.4306;
990.0000;0.6032;-5.4358;
990.3000;0.5999;-5.4384;
990.6000;0.6024;-5.4332;
990.9000;0.5983;-5.4410;
991.2000;0.6007;-5.4488;
991.5000;0.6007;-5.4488;
991.8000;0.5991;-5.4540;
992.1000;0.6032;-5.4488;
992.4000;0.6015;-5.4566;
992.7000;0.6007;-5.4488;
993.0000;0.6015;-5.4540;
993.3000;0.6007;-5.4540;
993.6000;0.6024;-5.4566;
993.9000;0.6015;-5.4514;
994.2000;0.6015;-5.4410;
994.5000;0.6015;-5.4358;
994.8000;0.6024;-5.4332;
995.1000;0.6015;-5.4306;
995.4000;0.6015;-5.4332;
995.7000;0.6040;-5.4254;
996.0000;0.6024;-5.4306;
996.3000;0.6007;-5.4280;
996.6000;0.6024;-5.4306;
996.9000;0.6015;-5.4384;
997.2000;0.6032;-5.4410;
997.5000;0.6024;-5.4462;
997.8000;0.6015;-5.4462;
998.1000;0.6015;-5.4384;
998.4000;0.6040;-5.4306;
998.7000;0.6032;-5.4384;
999.0000;0.6015;-5.4332;
999.3000;0.6024;-5.4306;
999.6000;0.6015;-5.4177;
999.9000;0.6024;-5.4254;
1000.2000;0.6024;-5.4332;
1000.5000;0.5999;-5.4332;
1000.8000;0.5950;-5.4488;
1001.1000;0.5999;-5.4332;
1001.4000;0.6015;-5.4410;
1001.7000;0.5983;-5.4514;
1002.0000;0.6007;-5.4410;
1002.3000;0.6032;-5.4358;
1002.6000;0.6015;-5.4332;
1002.9000;0.6007;-5.4384;
1003.2000;0.5999;-5.4436;
1003.5000;0.6015;-5.4384;
1003.8000;0.6024;-5.4462;
1004.1000;0.6015;-5.4410;
1004.4000;0.6015;-5.4436;
1004.7000;0.6007;-5.4332;
1005.0000;0.6007;-5.4332;
1005.3000;0.6015;-5.4332;
1005.6000;0.5999;-5.4358;
1005.9000;0.6024;-5.4358;
1006.2000;0.6024;-5.4410;
1006.5000;0.6007;-5.4358;
1006.8000;0.6032;-5.4203;
1007.1000;0.6007;-5.4228;
1007.4000;0.6024;-5.4203;
1007.7000;0.6024;-5.4280;
1008.0000;0.6015;-5.4332;
1008.3000;0.6015;-5.4358;
1008.6000;0.6024;-5.4384;
1008.9000;0.6024;-5.4280;
1009.2000;0.6024;-5.4254;
1009.5000;0.6032;-5.4280;
1009.8000;0.6032;-5.4228;
1010.1000;0.6024;-5.4228;
1010.4000;0.6015;-5.4280;
1010.7000;0.6015;-5.4254;
1011.0000;0.6015;-5.4254;
1011.3000;0.6015;-5.4280;
1011.6000;0.6007;-5.4203;
1011.9000;0.6024;-5.4125;
1012.2000;0.5975;-5.4306;
1012.5000;0.5999;-5.4280;
1012.8000;0.5999;-5.4254;
1013.1000;0.5991;-5.4228;
1013.4000;0.5991;-5.4228;
1013.7000;0.6007;-5.4177;
1014.0000;0.6007;-5.4203;
1014.3000;0.6024;-5.4228;
1014.6000;0.5983;-5.4332;
1014.9000;0.5999;-5.4254;
1015.2000;0.6015;-5.4280;
1015.5000;0.5999;-5.4332;
1015.8000;0.5999;-5.4384;
1016.1000;0.6007;-5.4306;
1016.4000;0.6007;-5.4254;
1016.7000;0.6007;-5.4254;
1017.0000;0.6015;-5.4125;
1017.3000;0.6007;-5.4125;
1017.6000;0.6015;-5.4099;
1017.9000;0.6007;-5.4203;
1018.2000;0.6007;-5.4254;
1018.5000;0.5999;-5.4203;
1018.8000;0.6007;-5.4177;
1019.1000;0.6007;-5.4203;
1019.4000;0.5999;-5.4203;
1019.7000;0.6032;-5.4177;
1020.0000;0.5991;-5.4177;
1020.3000;0.6089;-5.3891;
1020.6000;0.6081;-5.3943;
1020.9000;0.6007;-5.4099;
1021.2000;0.6024;-5.4125;
1021.5000;0.6024;-5.4151;
1021.8000;0.6032;-5.4177;
1022.1000;0.5999;-5.4228;
1022.4000;0.5999;-5.4099;
1022.7000;0.5991;-5.4177;
1023.0000;0.6007;-5.4151;
1023.3000;0.6032;-5.4177;
1023.6000;0.5950;-5.4358;
1023.9000;0.5999;-5.4254;
1024.2000;0.5999;-5.4254;
1024.5000;0.6007;-5.4332;
1024.8000;0.6007;-5.4280;
1025.1000;0.6040;-5.4228;
1025.4000;0.6015;-5.4228;
1025.7000;0.5991;-5.4280;
1026.0000;0.5999;-5.4280;
1026.3000;0.6007;-5.4306;
1026.6000;0.5983;-5.4254;
1026.9000;0.5967;-5.4280;
1027.2000;0.5975;-5.4280;
1027.5000;0.5999;-5.4228;
1027.8000;0.5991;-5.4280;
1028.1000;0.6015;-5.4306;
1028.4000;0.5983;-5.4514;
1028.7000;0.6007;-5.4384;
1029.0000;0.5999;-5.4384;
1029.3000;0.5999;-5.4280;
1029.6000;0.6007;-5.4203;
1029.9000;0.5999;-5.4177;
1030.2000;0.6007;-5.4254;
1030.5000;0.6015;-5.4254;
1030.8000;0.5975;-5.4358;
1031.1000;0.6007;-5.4280;
1031.4000;0.5991;-5.4332;
1031.7000;0.6007;-5.4280;
1032.0000;0.5999;-5.4228;
1032.3000;0.5991;-5.4177;
1032.6000;0.5999;-5.4099;
1032.9000;0.5918;-5.4203;
1033.2000;0.5991;-5.4047;
1033.5000;0.5999;-5.4073;
1033.8000;0.5991;-5.4099;
1034.1000;0.6007;-5.4125;
1034.4000;0.5999;-5.4177;
1034.7000;0.5999;-5.4254;
1035.0000;0.5975;-5.4203;
1035.3000;0.5999;-5.4280;
1035.6000;0.5991;-5.4280;
1035.9000;0.5991;-5.4332;
1036.2000;0.6015;-5.4254;
1036.5000;0.6007;-5.4177;
1036.8000;0.5991;-5.4151;
1037.1000;0.5991;-5.4228;
1037.4000;0.5983;-5.4203;
1037.7000;0.5983;-5.4177;
1038.0000;0.5999;-5.4228;
1038.3000;0.5991;-5.4228;
1038.6000;0.5991;-5.4203;
1038.9000;0.6007;-5.4203;
1039.2000;0.5999;-5.4073;
1039.5000;0.5991;-5.4073;
1039.8000;0.5975;-5.4151;
1040.1000;0.5991;-5.4125;
1040.4000;0.5942;-5.4280;
1040.7000;0.6056;-5.4047;
1041.0000;0.6015;-5.4203;
1041.3000;0.6064;-5.4073;
1041.6000;0.5999;-5.4125;
1041.9000;0.6015;-5.4099;
1042.2000;0.5983;-5.4228;
1042.5000;0.5991;-5.4203;
1042.8000;0.5983;-5.4254;
1043.1000;0.5991;-5.4228;
1043.4000;0.5999;-5.4228;
1043.7000;0.5991;-5.4306;
1044.0000;0.5991;-5.4384;
1044.3000;0.5983;-5.4358;
1044.6000;0.5983;-5.4280;
1044.9000;0.5958;-5.4410;
1045.2000;0.5999;-5.4254;
1045.5000;0.6007;-5.4228;
1045.8000;0.6024;-5.4099;
1046.1000;0.6015;-5.4099;
1046.4000;0.5983;-5.4203;
1046.7000;0.6007;-5.4151;
1047.0000;0.5991;-5.4254;
1047.3000;0.5975;-5.4254;
1047.6000;0.5967;-5.4228;
1047.9000;0.5983;-5.4228;
1048.2000;0.5983;-5.4332;
1048.5000;0.5991;-5.4332;
1048.8000;0.5999;-5.4384;
1049.1000;0.5975;-5.4462;
1049.4000;0.5991;-5.4332;
1049.7000;0.6015;-5.4280;
1050.0000;0.5983;-5.4332;
1050.3000;0.5983;-5.4306;
1050.6000;0.5999;-5.4306;
1050.9000;0.5991;-5.4306;
1051.2000;0.5999;-5.4254;
1051.5000;0.5999;-5.4203;
1051.8000;0.5999;-5.4177;
1052.1000;0.6007;-5.4203;
1052.4000;0.5958;-5.4280;
1052.7000;0.5983;-5.4254;
1053.0000;0.5983;-5.4280;
1053.3000;0.5991;-5.4280;
1053.6000;0.5983;-5.4332;
1053.9000;0.5958;-5.4410;
1054.2000;0.5967;-5.4358;
1054.5000;0.5975;-5.4332;
1054.8000;0.5967;-5.4332;
1055.1000;0.5975;-5.4332;
1055.4000;0.6007;-5.4358;
1055.7000;0.5975;-5.4306;
1056.0000;0.5983;-5.4332;
1056.3000;0.6007;-5.4358;
1056.6000;0.5975;-5.4436;
1056.9000;0.5975;-5.4306;
1057.2000;0.5983;-5.4280;
1057.5000;0.5991;-5.4254;
1057.8000;0.5991;-5.4306;
1058.1000;0.5983;-5.4306;
1058.4000;0.5975;-5.4306;
1058.7000;0.5958;-5.4332;
1059.0000;0.5958;-5.4332;
1059.3000;0.5942;-5.4410;
1059.6000;0.5967;-5.4358;
1059.9000;0.5967;-5.4332;
1060.2000;0.5983;-5.4228;
1060.5000;0.5967;-5.4177;
1060.8000;0.5983;-5.4073;
1061.1000;0.5991;-5.4073;
1061.4000;0.5983;-5.4151;
1061.7000;0.5975;-5.4125;
1062.0000;0.5983;-5.4228;
1062.3000;0.5991;-5.4254;
1062.6000;0.5983;-5.4306;
1062.9000;0.6015;-5.4306;
1063.2000;0.5958;-5.4384;
1063.5000;0.5902;-5.4488;
1063.8000;0.5991;-5.4332;
1064.1000;0.5967;-5.4462;
1064.4000;0.5942;-5.4540;
1064.7000;0.5926;-5.4592;
1065.0000;0.5983;-5.4514;
1065.3000;0.5958;-5.4436;
1065.6000;0.5983;-5.4436;
1065.9000;0.5991;-5.4358;
1066.2000;0.5999;-5.4332;
1066.5000;0.5983;-5.4358;
1066.8000;0.5999;-5.4203;
1067.1000;0.5967;-5.4203;
1067.4000;0.5991;-5.4151;
1067.7000;0.5975;-5.4073;
1068.0000;0.5958;-5.4099;
1068.3000;0.5958;-5.4073;
1068.6000;0.5967;-5.4151;
1068.9000;0.5991;-5.4228;
1069.2000;0.5983;-5.4306;
1069.5000;0.5975;-5.4358;
1069.8000;0.5958;-5.4358;
1070.1000;0.6040;-5.4228;
1070.4000;0.5975;-5.4384;
1070.7000;0.5967;-5.4280;
1071.0000;0.5958;-5.4280;
1071.3000;0.5975;-5.4306;
1071.6000;0.5983;-5.4280;
1071.9000;0.5975;-5.4306;
1072.2000;0.5991;-5.4151;
1072.5000;0.5999;-5.4099;
1072.8000;0.5983;-5.4177;
1073.1000;0.5991;-5.4254;
1073.4000;0.5999;-5.4203;
1073.7000;0.5975;-5.4228;
1074.0000;0.5975;-5.4177;
1074.3000;0.5983;-5.4177;
1074.6000;0.5975;-5.4099;
1074.9000;0.5983;-5.4099;
1075.2000;0.5975;-5.4177;
1075.5000;0.5967;-5.4177;
1075.8000;0.5983;-5.4177;
1076.1000;0.5926;-5.4254;
1076.4000;0.5975;-5.4125;
1076.7000;0.5991;-5.4099;
1077.0000;0.5967;-5.4203;
1077.3000;0.5967;-5.4203;
1077.6000;0.6007;-5.4125;
1077.9000;0.6024;-5.4021;
1078.2000;0.5991;-5.4099;
1078.5000;0.5958;-5.4177;
1078.8000;0.5999;-5.4125;
1079.1000;0.5983;-5.4125;
1079.4000;0.6032;-5.3943;
1079.7000;0.5975;-5.4125;
1080.0000;0.5975;-5.4177;
1080.3000;0.5975;-5.4177;
1080.6000;0.5958;-5.4254;
1080.9000;0.5983;-5.4177;
1081.2000;0.5983;-5.4099;
1081.5000;0.5983;-5.4073;
1081.8000;0.5991;-5.4125;
1082.1000;0.5991;-5.4099;
1082.4000;0.6024;-5.4021;
1082.7000;0.5991;-5.4047;
1083.0000;0.5983;-5.4125;
1083.3000;0.5910;-5.4332;
1083.6000;0.5983;-5.4177;
1083.9000;0.5958;-5.4306;
1084.2000;0.5958;-5.4254;
1084.5000;0.5967;-5.4177;
1084.8000;0.5967;-5.4203;
1085.1000;0.6015;-5.4099;
1085.4000;0.5991;-5.4151;
1085.7000;0.5893;-5.4410;
1086.0000;0.5950;-5.4332;
1086.3000;0.5942;-5.4306;
1086.6000;0.5950;-5.4332;
1086.9000;0.5983;-5.4254;
1087.2000;0.5983;-5.4228;
1087.5000;0.5967;-5.4254;
1087.8000;0.5975;-5.4125;
1088.1000;0.5958;-5.4177;
1088.4000;0.5967;-5.4177;
1088.7000;0.6015;-5.3995;
1089.0000;0.5975;-5.3995;
1089.3000;0.5967;-5.4099;
1089.6000;0.5975;-5.4099;
1089.9000;0.5958;-5.4099;
1090.2000;0.5991;-5.4073;
1090.5000;0.5975;-5.4073;
1090.8000;0.6015;-5.3943;
1091.1000;0.5967;-5.4099;
1091.4000;0.5967;-5.4099;
1091.7000;0.5967;-5.4125;
1092.0000;0.5983;-5.4073;
1092.3000;0.5975;-5.4073;
1092.6000;0.5975;-5.4125;
1092.9000;0.5958;-5.4073;
1093.2000;0.5991;-5.3995;
1093.5000;0.5975;-5.4047;
1093.8000;0.5910;-5.4099;
1094.1000;0.6015;-5.3788;
1094.4000;0.5991;-5.3788;
1094.7000;0.5967;-5.3762;
1095.0000;0.5958;-5.3891;
1095.3000;0.5975;-5.3943;
1095.6000;0.5958;-5.3917;
1095.9000;0.5958;-5.3995;
1096.2000;0.5950;-5.4073;
1096.5000;0.5958;-5.4047;
1096.8000;0.5958;-5.4047;
1097.1000;0.6024;-5.3865;
1097.4000;0.5975;-5.3969;
1097.7000;0.5983;-5.3969;
1098.0000;0.5967;-5.3995;
1098.3000;0.5975;-5.4021;
1098.6000;0.5975;-5.3943;
1098.9000;0.5975;-5.3969;
1099.2000;0.5967;-5.4047;
1099.5000;0.5967;-5.4151;
1099.8000;0.5983;-5.4073;
1100.1000;0.5934;-5.4203;
1100.4000;0.5967;-5.4073;
1100.7000;0.5942;-5.4073;
1101.0000;0.5967;-5.4047;
1101.3000;0.5967;-5.4047;
1101.6000;0.5967;-5.4021;
1101.9000;0.5967;-5.4073;
1102.2000;0.5967;-5.3995;
1102.5000;0.5902;-5.4099;
1102.8000;0.5958;-5.4125;
1103.1000;0.5967;-5.4099;
1103.4000;0.5958;-5.4151;
1103.7000;0.5991;-5.4047;
1104.0000;0.5967;-5.4047;
1104.3000;0.5934;-5.4099;
1104.6000;0.5934;-5.4073;
1104.9000;0.6007;-5.3788;
1105.2000;0.5934;-5.3969;
1105.5000;0.5950;-5.4021;
1105.8000;0.5967;-5.3917;
1106.1000;0.5958;-5.4021;
1106.4000;0.5893;-5.4254;
1106.7000;0.5942;-5.4047;
1107.0000;0.5967;-5.4073;
1107.3000;0.5958;-5.4151;
1107.6000;0.5950;-5.4203;
1107.9000;0.5926;-5.4254;
1108.2000;0.5958;-5.4125;
1108.5000;0.5967;-5.4125;
1108.8000;0.5967;-5.4203;
1109.1000;0.5999;-5.4021;
1109.4000;0.5950;-5.4073;
1109.7000;0.5958;-5.4099;
1110.0000;0.5958;-5.4021;
1110.3000;0.5950;-5.4047;
1110.6000;0.5958;-5.4047;
1110.9000;0.5983;-5.3995;
1111.2000;0.5958;-5.4073;
1111.5000;0.5942;-5.4099;
1111.8000;0.5942;-5.3969;
1112.1000;0.5967;-5.3891;
1112.4000;0.5958;-5.3891;
1112.7000;0.5902;-5.4125;
1113.0000;0.5958;-5.3995;
1113.3000;0.5967;-5.4073;
1113.6000;0.5958;-5.4125;
1113.9000;0.5910;-5.4280;
1114.2000;0.5958;-5.4228;
1114.5000;0.5967;-5.4151;
1114.8000;0.5950;-5.4228;
1115.1000;0.5950;-5.4203;
1115.4000;0.5950;-5.4151;
1115.7000;0.5942;-5.4254;
1116.0000;0.5967;-5.4151;
1116.3000;0.5967;-5.4099;
1116.6000;0.5950;-5.4099;
1116.9000;0.5967;-5.4099;
1117.2000;0.5967;-5.4125;
1117.5000;0.5950;-5.4151;
1117.8000;0.5958;-5.4125;
1118.1000;0.5967;-5.4177;
1118.4000;0.5967;-5.4047;
1118.7000;0.5967;-5.4047;
1119.0000;0.5950;-5.4099;
1119.3000;0.5942;-5.4099;
1119.6000;0.5958;-5.4125;
1119.9000;0.5950;-5.4280;
1120.2000;0.5991;-5.4125;
1120.5000;0.5950;-5.4280;
1120.8000;0.5999;-5.4280;
1121.1000;0.5958;-5.4306;
1121.4000;0.5942;-5.4332;
1121.7000;0.5934;-5.4332;
1122.0000;0.5958;-5.4228;
1122.3000;0.5950;-5.4306;
1122.6000;0.5942;-5.4280;
1122.9000;0.5967;-5.4332;
1123.2000;0.5942;-5.4384;
1123.5000;0.5942;-5.4462;
1123.8000;0.5967;-5.4436;
1124.1000;0.5967;-5.4410;
1124.4000;0.5934;-5.4462;
1124.7000;0.5934;-5.4384;
1125.0000;0.5958;-5.4254;
1125.3000;0.5942;-5.4203;
1125.6000;0.5967;-5.4203;
1125.9000;0.5934;-5.4203;
1126.2000;0.5967;-5.4099;
1126.5000;0.5958;-5.4125;
1126.8000;0.5950;-5.4151;
1127.1000;0.5958;-5.4125;
1127.4000;0.5934;-5.4099;
1127.7000;0.5967;-5.4073;
1128.0000;0.5967;-5.4021;
1128.3000;0.5950;-5.4099;
1128.6000;0.5926;-5.4125;
1128.9000;0.5967;-5.4021;
1129.2000;0.5950;-5.3995;
1129.5000;0.5934;-5.4203;
1129.8000;0.5942;-5.4177;
1130.1000;0.5958;-5.4280;
1130.4000;0.5958;-5.4358;
1130.7000;0.5950;-5.4358;
1131.0000;0.5942;-5.4358;
1131.3000;0.5950;-5.4280;
1131.6000;0.5934;-5.4280;
1131.9000;0.5950;-5.4177;
1132.2000;0.5958;-5.4125;
1132.5000;0.5950;-5.4151;
1132.8000;0.5958;-5.4151;
1133.1000;0.5958;-5.4125;
1133.4000;0.5958;-5.4177;
1133.7000;0.5958;-5.4177;
1134.0000;0.5958;-5.4177;
1134.3000;0.5950;-5.4203;
1134.6000;0.5958;-5.4228;
1134.9000;0.5934;-5.4280;
1135.2000;0.5950;-5.4306;
1135.5000;0.5967;-5.4254;
1135.8000;0.5958;-5.4332;
1136.1000;0.5958;-5.4410;
1136.4000;0.5958;-5.4436;
1136.7000;0.5999;-5.4280;
1137.0000;0.5934;-5.4332;
1137.3000;0.5942;-5.4358;
1137.6000;0.5958;-5.4280;
1137.9000;0.5950;-5.4254;
1138.2000;0.5950;-5.4228;
1138.5000;0.5942;-5.4280;
1138.8000;0.5967;-5.4228;
1139.1000;0.5975;-5.4203;
1139.4000;0.5950;-5.4125;
1139.7000;0.5975;-5.4021;
1140.0000;0.5942;-5.4047;
1140.3000;0.6015;-5.3865;
1140.6000;0.5950;-5.4047;
1140.9000;0.5934;-5.4047;
1141.2000;0.5934;-5.4125;
1141.5000;0.5950;-5.4099;
1141.8000;0.5958;-5.4073;
1142.1000;0.5918;-5.4151;
1142.4000;0.5958;-5.4151;
1142.7000;0.5918;-5.4306;
1143.0000;0.5958;-5.4203;
1143.3000;0.5975;-5.4151;
1143.6000;0.5958;-5.4254;
1143.9000;0.5926;-5.4254;
1144.2000;0.5942;-5.4254;
1144.5000;0.5942;-5.4203;
1144.8000;0.5934;-5.4125;
1145.1000;0.5934;-5.4125;
1145.4000;0.5926;-5.4228;
1145.7000;0.5950;-5.4203;
1146.0000;0.5958;-5.4280;
1146.3000;0.5950;-5.4280;
1146.6000;0.5942;-5.4306;
1146.9000;0.5950;-5.4254;
1147.2000;0.5958;-5.4177;
1147.5000;0.5950;-5.4125;
1147.8000;0.5958;-5.4125;
1148.1000;0.5999;-5.3969;
1148.4000;0.5999;-5.4047;
1148.7000;0.5950;-5.4151;
1149.0000;0.5934;-5.4151;
1149.3000;0.5950;-5.4125;
1149.6000;0.5967;-5.4099;
1149.9000;0.5958;-5.4021;
1150.2000;0.5958;-5.3995;
1150.5000;0.5950;-5.3995;
1150.8000;0.5950;-5.3943;
1151.1000;0.5975;-5.3969;
1151.4000;0.5958;-5.4099;
1151.7000;0.5942;-5.4021;
1152.0000;0.5942;-5.3969;
1152.3000;0.5869;-5.3969;
1152.6000;0.5958;-5.3839;
1152.9000;0.5934;-5.3891;
1153.2000;0.5958;-5.3891;
1153.5000;0.5958;-5.3891;
1153.8000;0.5918;-5.4099;
1154.1000;0.5926;-5.4151;
1154.4000;0.5983;-5.3943;
1154.7000;0.5942;-5.4047;
1155.0000;0.5950;-5.4099;
1155.3000;0.5885;-5.4203;
1155.6000;0.5942;-5.4073;
1155.9000;0.5942;-5.4047;
1156.2000;0.5942;-5.4099;
1156.5000;0.5942;-5.4125;
1156.8000;0.5950;-5.4177;
1157.1000;0.5975;-5.4073;
1157.4000;0.5958;-5.4099;
1157.7000;0.5950;-5.4228;
1158.0000;0.5950;-5.4228;
1158.3000;0.5934;-5.4228;
1158.6000;0.5942;-5.4203;
1158.9000;0.5950;-5.4228;
1159.2000;0.5934;-5.4306;
1159.5000;0.5942;-5.4203;
1159.8000;0.5975;-5.4177;
1160.1000;0.5942;-5.4254;
1160.4000;0.5958;-5.4125;
1160.7000;0.5934;-5.4228;
1161.0000;0.5950;-5.4254;
1161.3000;0.5942;-5.4228;
1161.6000;0.5950;-5.4203;
1161.9000;0.5975;-5.4151;
1162.2000;0.5942;-5.4228;
1162.5000;0.5958;-5.4280;
1162.8000;0.5991;-5.4306;
1163.1000;0.5934;-5.4332;
1163.4000;0.5950;-5.4306;
1163.7000;0.5950;-5.4410;
1164.0000;0.5942;-5.4358;
1164.3000;0.5942;-5.4306;
1164.6000;0.5942;-5.4332;
1164.9000;0.5991;-5.4203;
1165.2000;0.5926;-5.4358;
1165.5000;0.5934;-5.4358;
1165.8000;0.5934;-5.4306;
1166.1000;0.5950;-5.4177;
1166.4000;0.5950;-5.4151;
1166.7000;0.5950;-5.4151;
1167.0000;0.5942;-5.4151;
1167.3000;0.5942;-5.4125;
1167.6000;0.5950;-5.4228;
1167.9000;0.5942;-5.4254;
1168.2000;0.5950;-5.4177;
1168.5000;0.5983;-5.4047;
1168.8000;0.5950;-5.4151;
1169.1000;0.5942;-5.4280;
1169.4000;0.5942;-5.4280;
1169.7000;0.5942;-5.4280;
1170.0000;0.5950;-5.4306;
1170.3000;0.5942;-5.4228;
1170.6000;0.5950;-5.4125;
1170.9000;0.5934;-5.4203;
1171.2000;0.5958;-5.4254;
1171.5000;0.5942;-5.4280;
1171.8000;0.5942;-5.4254;
1172.1000;0.5950;-5.4254;
1172.4000;0.5958;-5.4228;
1172.7000;0.5918;-5.4254;
1173.0000;0.5926;-5.4177;
1173.3000;0.5918;-5.4177;
1173.6000;0.5934;-5.4099;
1173.9000;0.5950;-5.4073;
1174.2000;0.5950;-5.4073;
1174.5000;0.5942;-5.4125;
1174.8000;0.5967;-5.4099;
1175.1000;0.5958;-5.4125;
1175.4000;0.5942;-5.4099;
1175.7000;0.5950;-5.4073;
1176.0000;0.5934;-5.4125;
1176.3000;0.5950;-5.4099;
1176.6000;0.5975;-5.4099;
1176.9000;0.5950;-5.4228;
1177.2000;0.6015;-5.4177;
1177.5000;0.5902;-5.4488;
1177.8000;0.5934;-5.4332;
1178.1000;0.5918;-5.4332;
1178.4000;0.5934;-5.4410;
1178.7000;0.5910;-5.4384;
1179.0000;0.5926;-5.4280;
1179.3000;0.5918;-5.4280;
1179.6000;0.5918;-5.4332;
1179.9000;0.5926;-5.4332;
1180.2000;0.5942;-5.4254;
1180.5000;0.5950;-5.4306;
1180.8000;0.5942;-5.4358;
1181.1000;0.5926;-5.4384;
1181.4000;0.5958;-5.4306;
1181.7000;0.5958;-5.4358;
1182.0000;0.5942;-5.4462;
1182.3000;0.5942;-5.4488;
1182.6000;0.5934;-5.4462;
1182.9000;0.5942;-5.4488;
1183.2000;0.5942;-5.4514;
1183.5000;0.5950;-5.4540;
1183.8000;0.5934;-5.4436;
1184.1000;0.5967;-5.4358;
1184.4000;0.5950;-5.4332;
1184.7000;0.6007;-5.4203;
1185.0000;0.5967;-5.4306;
1185.3000;0.5942;-5.4358;
1185.6000;0.5967;-5.4332;
1185.9000;0.5942;-5.4462;
1186.2000;0.5942;-5.4488;
1186.5000;0.5958;-5.4462;
1186.8000;0.5950;-5.4436;
1187.1000;0.5926;-5.4384;
1187.4000;0.5926;-5.4306;
1187.7000;0.5902;-5.4358;
1188.0000;0.5942;-5.4254;
1188.3000;0.5934;-5.4203;
1188.6000;0.5934;-5.4254;
1188.9000;0.5926;-5.4228;
1189.2000;0.5958;-5.4099;
1189.5000;0.5910;-5.4254;
1189.8000;0.5926;-5.4254;
1190.1000;0.5958;-5.4151;
1190.4000;0.5926;-5.4280;
1190.7000;0.5934;-5.4151;
1191.0000;0.5934;-5.4151;
1191.3000;0.5926;-5.4177;
1191.6000;0.5967;-5.4073;
1191.9000;0.5934;-5.4203;
1192.2000;0.6024;-5.4021;
1192.5000;0.5926;-5.4228;
1192.8000;0.5934;-5.4254;
1193.1000;0.5934;-5.4254;
1193.4000;0.5934;-5.4228;
1193.7000;0.5918;-5.4280;
1194.0000;0.5942;-5.4254;
1194.3000;0.5934;-5.4151;
1194.6000;0.5958;-5.4099;
1194.9000;0.5934;-5.4177;
1195.2000;0.5934;-5.4254;
1195.5000;0.5934;-5.4177;
1195.8000;0.5958;-5.4125;
1196.1000;0.5942;-5.4203;
1196.4000;0.5934;-5.4151;
1196.7000;0.5926;-5.4151;
1197.0000;0.5942;-5.4125;
1197.3000;0.5975;-5.4021;
1197.6000;0.5934;-5.4177;
1197.9000;0.5942;-5.4099;
1198.2000;0.5885;-5.4203;
1198.5000;0.5950;-5.4099;
1198.8000;0.5934;-5.4021;
1199.1000;0.5934;-5.4125;
1199.4000;0.5958;-5.4073;
1199.7000;0.5934;-5.4125;
1200.0000;0.5934;-5.4151;
1200.3000;0.5934;-5.4177;
1200.6000;0.5942;-5.4203;
1200.9000;0.5958;-5.4151;
1201.2000;0.5926;-5.4203;
1201.5000;0.5950;-5.4177;
1201.8000;0.5942;-5.4177;
1202.1000;0.5942;-5.4125;
1202.4000;0.5942;-5.4125;
1202.7000;0.5910;-5.4099;
1203.0000;0.5942;-5.4047;
1203.3000;0.5918;-5.3995;
1203.6000;0.5958;-5.3891;
1203.9000;0.5902;-5.3995;
1204.2000;0.5926;-5.3943;
1204.5000;0.5926;-5.3943;
1204.8000;0.5934;-5.3943;
1205.1000;0.5942;-5.3943;
1205.4000;0.5942;-5.3995;
1205.7000;0.5950;-5.3995;
1206.0000;0.5942;-5.4021;
1206.3000;0.5942;-5.3995;
1206.6000;0.5934;-5.3969;
1206.9000;0.5950;-5.3995;
1207.2000;0.5950;-5.3995;
1207.5000;0.5926;-5.4047;
1207.8000;0.5926;-5.4177;
1208.1000;0.5942;-5.4177;
1208.4000;0.5926;-5.4228;
1208.7000;0.5926;-5.4254;
1209.0000;0.5918;-5.4254;
1209.3000;0.5893;-5.4228;
1209.6000;0.5934;-5.4151;
1209.9000;0.5942;-5.4099;
1210.2000;0.5926;-5.4099;
1210.5000;0.5934;-5.4177;
1210.8000;0.5942;-5.4151;
1211.1000;0.5934;-5.4125;
1211.4000;0.5934;-5.4151;
1211.7000;0.5910;-5.4177;
1212.0000;0.5950;-5.4099;
1212.3000;0.5942;-5.4073;
1212.6000;0.5942;-5.4047;
1212.9000;0.5958;-5.4047;
1213.2000;0.5877;-5.4203;
1213.5000;0.5934;-5.4021;
1213.8000;0.5918;-5.3969;
1214.1000;0.5934;-5.3943;
1214.4000;0.5926;-5.4021;
1214.7000;0.5926;-5.3943;
1215.0000;0.5902;-5.4047;
1215.3000;0.5934;-5.4125;
1215.6000;0.5902;-5.4306;
1215.9000;0.5926;-5.4306;
1216.2000;0.5942;-5.4203;
1216.5000;0.5926;-5.4203;
1216.8000;0.5918;-5.4280;
1217.1000;0.5918;-5.4228;
1217.4000;0.5934;-5.4151;
1217.7000;0.5934;-5.4125;
1218.0000;0.5950;-5.4177;
1218.3000;0.5934;-5.4203;
1218.6000;0.5893;-5.4384;
1218.9000;0.5926;-5.4254;
1219.2000;0.5926;-5.4203;
1219.5000;0.5893;-5.4254;
1219.8000;0.5926;-5.4177;
1220.1000;0.5934;-5.4177;
1220.4000;0.5958;-5.4177;
1220.7000;0.5926;-5.4228;
1221.0000;0.5934;-5.4280;
1221.3000;0.5950;-5.4177;
1221.6000;0.5926;-5.4280;
1221.9000;0.5926;-5.4306;
1222.2000;0.5926;-5.4306;
1222.5000;0.5934;-5.4203;
1222.8000;0.5926;-5.4203;
1223.1000;0.5918;-5.4151;
1223.4000;0.5845;-5.4280;
1223.7000;0.5918;-5.4073;
1224.0000;0.5926;-5.4047;
1224.3000;0.5918;-5.4125;
1224.6000;0.5902;-5.4203;
1224.9000;0.5918;-5.4125;
1225.2000;0.5942;-5.4151;
1225.5000;0.5910;-5.4177;
1225.8000;0.5918;-5.4203;
1226.1000;0.5918;-5.4254;
1226.4000;0.5918;-5.4228;
1226.7000;0.5885;-5.4332;
1227.0000;0.5926;-5.4254;
1227.3000;0.5934;-5.4203;
1227.6000;0.5975;-5.4099;
1227.9000;0.5934;-5.4151;
1228.2000;0.5926;-5.4151;
1228.5000;0.5926;-5.4203;
1228.8000;0.5950;-5.4228;
1229.1000;0.5934;-5.4177;
1229.4000;0.5934;-5.4177;
1229.7000;0.5934;-5.4228;
1230.0000;0.5934;-5.4306;
1230.3000;0.5926;-5.4280;
1230.6000;0.5934;-5.4384;
1230.9000;0.5934;-5.4332;
1231.2000;0.5942;-5.4332;
1231.5000;0.5926;-5.4358;
1231.8000;0.5926;-5.4410;
1232.1000;0.5950;-5.4384;
1232.4000;0.5926;-5.4306;
1232.7000;0.5918;-5.4306;
1233.0000;0.5934;-5.4358;
1233.3000;0.5869;-5.4488;
1233.6000;0.5967;-5.4332;
1233.9000;0.5942;-5.4306;
1234.2000;0.5983;-5.4177;
1234.5000;0.5910;-5.4306;
1234.8000;0.5869;-5.4358;
1235.1000;0.5983;-5.4073;
1235.4000;0.5926;-5.4151;
1235.7000;0.5836;-5.4384;
1236.0000;0.5926;-5.4125;
1236.3000;0.5926;-5.4203;
1236.6000;0.5934;-5.4254;
1236.9000;0.5926;-5.4228;
1237.2000;0.5926;-5.4228;
1237.5000;0.5918;-5.4177;
1237.8000;0.5926;-5.4125;
1238.1000;0.5975;-5.4073;
1238.4000;0.5910;-5.4332;
1238.7000;0.5918;-5.4384;
1239.0000;0.5926;-5.4332;
1239.3000;0.5934;-5.4254;
1239.6000;0.5934;-5.4177;
1239.9000;0.5926;-5.4151;
1240.2000;0.5918;-5.4125;
1240.5000;0.5926;-5.4177;
1240.8000;0.5918;-5.4203;
1241.1000;0.5910;-5.4254;
1241.4000;0.5877;-5.4332;
1241.7000;0.5918;-5.4254;
1242.0000;0.5926;-5.4228;
1242.3000;0.5926;-5.4332;
1242.6000;0.5918;-5.4384;
1242.9000;0.5950;-5.4177;
1243.2000;0.5934;-5.4254;
1243.5000;0.5910;-5.4306;
1243.8000;0.5918;-5.4280;
1244.1000;0.5934;-5.4228;
1244.4000;0.5893;-5.4306;
1244.7000;0.5926;-5.4203;
1245.0000;0.5910;-5.4099;
1245.3000;0.5918;-5.4073;
1245.6000;0.5885;-5.4125;
1245.9000;0.5910;-5.4099;
1246.2000;0.5926;-5.4125;
1246.5000;0.5926;-5.4047;
1246.8000;0.5942;-5.3995;
1247.1000;0.5926;-5.4047;
1247.4000;0.5926;-5.4021;
1247.7000;0.5885;-5.4047;
1248.0000;0.5926;-5.3943;
1248.3000;0.5926;-5.3969;
1248.6000;0.5926;-5.3891;
1248.9000;0.5967;-5.3865;
1249.2000;0.5926;-5.4073;
1249.5000;0.5934;-5.4151;
1249.8000;0.5926;-5.4177;
1250.1000;0.5902;-5.4254;
1250.4000;0.5918;-5.4254;
1250.7000;0.5861;-5.4384;
1251.0000;0.5918;-5.4254;
1251.3000;0.5918;-5.4125;
1251.6000;0.5910;-5.4151;
1251.9000;0.5918;-5.4099;
1252.2000;0.5910;-5.4125;
1252.5000;0.5950;-5.3943;
1252.8000;0.5926;-5.4021;
1253.1000;0.5934;-5.4021;
1253.4000;0.5934;-5.4073;
1253.7000;0.5869;-5.4203;
1254.0000;0.5918;-5.4099;
1254.3000;0.5934;-5.4073;
1254.6000;0.5893;-5.4151;
1254.9000;0.5934;-5.4099;
1255.2000;0.5934;-5.4099;
1255.5000;0.5926;-5.4203;
1255.8000;0.5918;-5.4177;
1256.1000;0.5934;-5.4099;
1256.4000;0.5910;-5.4151;
1256.7000;0.5918;-5.4073;
1257.0000;0.5910;-5.4125;
1257.3000;0.5950;-5.4021;
1257.6000;0.5918;-5.4125;
1257.9000;0.5942;-5.4099;
1258.2000;0.5975;-5.3917;
1258.5000;0.5934;-5.4073;
1258.8000;0.5910;-5.4073;
1259.1000;0.5910;-5.4073;
1259.4000;0.5918;-5.3943;
1259.7000;0.5926;-5.3917;
1260.0000;0.5934;-5.3839;
1260.3000;0.5893;-5.3917;
1260.6000;0.5926;-5.3814;
1260.9000;0.5910;-5.3839;
1261.2000;0.5918;-5.3917;
1261.5000;0.5918;-5.3943;
1261.8000;0.5902;-5.3891;
1262.1000;0.5926;-5.3839;
1262.4000;0.5910;-5.3814;
1262.7000;0.5926;-5.3839;
1263.0000;0.5918;-5.3839;
1263.3000;0.5926;-5.3891;
1263.6000;0.5975;-5.3839;
1263.9000;0.5934;-5.3917;
1264.2000;0.5893;-5.3917;
1264.5000;0.5934;-5.3891;
1264.8000;0.5918;-5.3891;
1265.1000;0.5934;-5.3891;
1265.4000;0.5918;-5.3917;
1265.7000;0.5918;-5.3865;
1266.0000;0.5910;-5.3917;
1266.3000;0.5918;-5.3917;
1266.6000;0.5918;-5.4047;
1266.9000;0.5902;-5.4099;
1267.2000;0.5958;-5.3891;
1267.5000;0.5926;-5.4073;
1267.8000;0.5918;-5.4099;
1268.1000;0.5910;-5.4047;
1268.4000;0.5950;-5.3839;
1268.7000;0.5918;-5.3943;
1269.0000;0.5902;-5.3995;
1269.3000;0.5910;-5.3995;
1269.6000;0.5926;-5.3917;
1269.9000;0.5926;-5.3943;
1270.2000;0.5942;-5.3788;
1270.5000;0.5926;-5.3839;
1270.8000;0.5934;-5.3917;
1271.1000;0.5926;-5.3917;
1271.4000;0.5910;-5.3943;
1271.7000;0.5942;-5.3891;
1272.0000;0.5918;-5.3995;
1272.3000;0.5934;-5.3969;
1272.6000;0.5942;-5.3969;
1272.9000;0.5861;-5.4099;
1273.2000;0.5910;-5.3995;
1273.5000;0.5958;-5.3865;
1273.8000;0.5910;-5.4021;
1274.1000;0.5902;-5.4099;
1274.4000;0.5885;-5.4073;
1274.7000;0.5885;-5.4099;
1275.0000;0.5910;-5.4021;
1275.3000;0.5902;-5.4099;
1275.6000;0.5926;-5.3995;
1275.9000;0.5918;-5.3969;
1276.2000;0.5910;-5.3969;
1276.5000;0.5902;-5.3969;
1276.8000;0.5910;-5.3995;
1277.1000;0.5902;-5.3969;
1277.4000;0.5926;-5.3943;
1277.7000;0.5918;-5.3917;
1278.0000;0.5893;-5.3917;
1278.3000;0.5910;-5.3891;
1278.6000;0.5918;-5.3814;
1278.9000;0.5926;-5.3839;
1279.2000;0.5950;-5.3814;
1279.5000;0.5918;-5.3839;
1279.8000;0.5902;-5.3788;
1280.1000;0.5950;-5.3736;
1280.4000;0.5918;-5.3917;
1280.7000;0.5910;-5.3943;
1281.0000;0.5902;-5.4073;
1281.3000;0.5902;-5.3943;
1281.6000;0.5902;-5.3917;
1281.9000;0.5983;-5.3684;
1282.2000;0.5902;-5.3839;
1282.5000;0.5910;-5.3736;
1282.8000;0.5926;-5.3762;
1283.1000;0.5902;-5.3943;
1283.4000;0.5893;-5.3943;
1283.7000;0.5910;-5.3891;
1284.0000;0.5934;-5.3891;
1284.3000;0.5926;-5.3995;
1284.6000;0.5910;-5.4047;
1284.9000;0.5918;-5.3995;
1285.2000;0.5918;-5.4047;
1285.5000;0.5902;-5.4047;
1285.8000;0.5918;-5.3917;
1286.1000;0.5934;-5.3814;
1286.4000;0.5934;-5.3891;
1286.7000;0.5902;-5.4047;
1287.0000;0.5910;-5.4073;
1287.3000;0.5893;-5.4073;
1287.6000;0.5918;-5.3943;
1287.9000;0.5926;-5.3891;
1288.2000;0.5902;-5.3943;
1288.5000;0.5877;-5.3943;
1288.8000;0.5926;-5.3814;
1289.1000;0.5918;-5.3788;
1289.4000;0.5958;-5.3762;
1289.7000;0.5934;-5.3891;
1290.0000;0.5910;-5.4021;
1290.3000;0.5926;-5.3995;
1290.6000;0.5934;-5.3995;
1290.9000;0.5877;-5.4177;
1291.2000;0.5958;-5.4099;
1291.5000;0.5958;-5.4021;
1291.8000;0.5975;-5.3814;
1292.1000;0.5918;-5.3943;
1292.4000;0.5910;-5.3943;
1292.7000;0.5926;-5.3891;
1293.0000;0.5926;-5.3839;
1293.3000;0.5934;-5.3839;
1293.6000;0.5926;-5.3969;
1293.9000;0.5910;-5.4099;
1294.2000;0.5991;-5.3917;
1294.5000;0.5910;-5.3995;
1294.8000;0.5918;-5.3865;
1295.1000;0.5926;-5.3814;
1295.4000;0.5950;-5.3762;
1295.7000;0.5902;-5.3917;
1296.0000;0.5902;-5.3891;
1296.3000;0.5910;-5.3917;
1296.6000;0.5877;-5.4047;
1296.9000;0.5918;-5.3917;
1297.2000;0.5902;-5.3943;
1297.5000;0.5877;-5.3995;
1297.8000;0.5902;-5.4073;
1298.1000;0.5893;-5.4073;
1298.4000;0.5902;-5.4021;
1298.7000;0.5958;-5.3891;
1299.0000;0.5910;-5.4151;
1299.3000;0.5934;-5.4151;
1299.6000;0.5910;-5.4177;
1299.9000;0.5910;-5.4099;
1300.2000;0.5918;-5.4099;
1300.5000;0.5910;-5.4151;
1300.8000;0.5918;-5.3995;
1301.1000;0.5926;-5.4021;
1301.4000;0.5902;-5.4099;
1301.7000;0.5910;-5.4073;
1302.0000;0.5926;-5.4099;
1302.3000;0.5918;-5.3995;
1302.6000;0.5893;-5.4099;
1302.9000;0.5967;-5.3865;
1303.2000;0.5902;-5.3917;
1303.5000;0.5918;-5.3917;
1303.8000;0.5893;-5.4073;
1304.1000;0.5926;-5.4125;
1304.4000;0.5926;-5.4125;
1304.7000;0.5918;-5.4125;
1305.0000;0.5918;-5.4203;
1305.3000;0.5926;-5.4177;
1305.6000;0.5918;-5.4047;
1305.9000;0.5918;-5.3995;
1306.2000;0.5910;-5.4073;
1306.5000;0.5910;-5.4099;
1306.8000;0.5910;-5.3969;
1307.1000;0.5902;-5.3917;
1307.4000;0.5893;-5.3969;
1307.7000;0.5918;-5.3917;
1308.0000;0.5918;-5.3839;
1308.3000;0.5910;-5.3865;
1308.6000;0.5918;-5.3839;
1308.9000;0.5926;-5.3891;
1309.2000;0.5910;-5.3917;
1309.5000;0.5902;-5.3943;
1309.8000;0.5918;-5.3891;
1310.1000;0.5893;-5.3917;
1310.4000;0.5869;-5.3891;
1310.7000;0.5902;-5.3839;
1311.0000;0.5918;-5.3762;
1311.3000;0.5918;-5.3710;
1311.6000;0.5918;-5.3684;
1311.9000;0.5910;-5.3658;
1312.2000;0.5910;-5.3632;
1312.5000;0.5885;-5.3632;
1312.8000;0.5902;-5.3684;
1313.1000;0.5926;-5.3736;
1313.4000;0.5910;-5.3814;
1313.7000;0.5942;-5.3839;
1314.0000;0.5885;-5.3917;
1314.3000;0.5893;-5.3839;
1314.6000;0.5918;-5.3839;
1314.9000;0.5885;-5.3891;
1315.2000;0.5902;-5.3839;
1315.5000;0.5893;-5.3865;
1315.8000;0.5926;-5.3839;
1316.1000;0.5902;-5.3891;
1316.4000;0.5902;-5.3917;
1316.7000;0.5958;-5.3788;
1317.0000;0.5918;-5.3917;
1317.3000;0.5893;-5.3995;
1317.6000;0.5893;-5.4021;
1317.9000;0.5893;-5.4047;
1318.2000;0.5967;-5.3943;
1318.5000;0.5902;-5.4073;
1318.8000;0.5861;-5.4073;
1319.1000;0.5877;-5.3995;
1319.4000;0.5869;-5.4021;
1319.7000;0.5902;-5.4047;
1320.0000;0.5902;-5.3995;
1320.3000;0.5893;-5.4021;
1320.6000;0.5910;-5.3943;
1320.9000;0.5885;-5.4021;
1321.2000;0.5902;-5.3917;
1321.5000;0.5942;-5.3710;
1321.8000;0.5902;-5.3788;
1322.1000;0.5918;-5.3710;
1322.4000;0.5926;-5.3580;
1322.7000;0.5910;-5.3632;
1323.0000;0.5893;-5.3658;
1323.3000;0.5918;-5.3658;
1323.6000;0.5942;-5.3658;
1323.9000;0.5893;-5.3788;
1324.2000;0.5910;-5.3710;
1324.5000;0.5934;-5.3658;
1324.8000;0.5893;-5.3710;
1325.1000;0.5934;-5.3658;
1325.4000;0.5910;-5.3606;
1325.7000;0.5893;-5.3632;
1326.0000;0.5910;-5.3658;
1326.3000;0.5885;-5.3736;
1326.6000;0.5910;-5.3736;
1326.9000;0.5902;-5.3684;
1327.2000;0.5902;-5.3658;
1327.5000;0.5910;-5.3684;
1327.8000;0.5910;-5.3710;
1328.1000;0.5910;-5.3684;
1328.4000;0.5918;-5.3762;
1328.7000;0.5918;-5.3788;
1329.0000;0.5893;-5.3788;
1329.3000;0.5902;-5.3736;
1329.6000;0.5902;-5.3710;
1329.9000;0.5893;-5.3710;
1330.2000;0.5910;-5.3814;
1330.5000;0.5893;-5.3788;
1330.8000;0.5926;-5.3710;
1331.1000;0.5910;-5.3684;
1331.4000;0.5918;-5.3710;
1331.7000;0.5910;-5.3788;
1332.0000;0.5902;-5.3814;
1332.3000;0.5926;-5.3814;
1332.6000;0.5861;-5.3943;
1332.9000;0.5918;-5.3814;
1333.2000;0.5902;-5.3710;
1333.5000;0.5885;-5.3839;
1333.8000;0.5902;-5.3762;
1334.1000;0.5893;-5.3762;
1334.4000;0.5910;-5.3839;
1334.7000;0.5902;-5.3710;
1335.0000;0.5910;-5.3736;
1335.3000;0.5902;-5.3788;
1335.6000;0.5902;-5.3762;
1335.9000;0.5942;-5.3684;
1336.2000;0.5926;-5.3788;
1336.5000;0.5942;-5.3788;
1336.8000;0.5926;-5.3839;
1337.1000;0.5893;-5.3865;
1337.4000;0.5926;-5.3865;
1337.7000;0.5893;-5.3917;
1338.0000;0.5918;-5.3814;
1338.3000;0.5918;-5.3839;
1338.6000;0.5926;-5.3865;
1338.9000;0.5926;-5.3917;
1339.2000;0.5918;-5.3891;
1339.5000;0.5918;-5.3865;
1339.8000;0.5893;-5.3865;
1340.1000;0.5918;-5.3839;
1340.4000;0.5910;-5.3762;
1340.7000;0.5877;-5.3839;
1341.0000;0.5893;-5.3788;
1341.3000;0.5910;-5.3684;
1341.6000;0.5893;-5.3736;
1341.9000;0.5893;-5.3736;
1342.2000;0.5893;-5.3710;
1342.5000;0.5910;-5.3788;
1342.8000;0.5902;-5.3710;
1343.1000;0.5902;-5.3736;
1343.4000;0.5910;-5.3684;
1343.7000;0.5910;-5.3658;
1344.0000;0.5902;-5.3580;
1344.3000;0.5902;-5.3554;
1344.6000;0.5934;-5.3502;
1344.9000;0.5902;-5.3554;
1345.2000;0.5902;-5.3684;
1345.5000;0.5902;-5.3710;
1345.8000;0.5893;-5.3788;
1346.1000;0.5910;-5.3762;
1346.4000;0.5902;-5.3839;
1346.7000;0.5902;-5.3839;
1347.0000;0.5902;-5.3891;
1347.3000;0.5902;-5.3969;
1347.6000;0.5918;-5.3969;
1347.9000;0.5983;-5.3788;
1348.2000;0.5902;-5.3891;
1348.5000;0.5910;-5.3865;
1348.8000;0.5918;-5.3865;
1349.1000;0.5942;-5.3865;
1349.4000;0.5893;-5.3917;
1349.7000;0.5918;-5.3865;
1350.0000;0.5902;-5.3891;
1350.3000;0.5910;-5.3865;
1350.6000;0.5958;-5.3762;
1350.9000;0.5910;-5.3839;
1351.2000;0.5918;-5.3710;
1351.5000;0.5910;-5.3658;
1351.8000;0.5893;-5.3710;
1352.1000;0.5910;-5.3736;
1352.4000;0.5918;-5.3762;
1352.7000;0.5918;-5.3788;
1353.0000;0.5910;-5.3814;
1353.3000;0.5910;-5.3788;
1353.6000;0.5999;-5.3502;
1353.9000;0.5918;-5.3658;
1354.2000;0.5918;-5.3684;
1354.5000;0.5885;-5.3684;
1354.8000;0.5893;-5.3788;
1355.1000;0.5885;-5.3865;
1355.4000;0.5893;-5.3865;
1355.7000;0.5869;-5.3917;
1356.0000;0.5893;-5.3814;
1356.3000;0.5934;-5.3762;
1356.6000;0.5885;-5.3891;
1356.9000;0.5918;-5.3969;
1357.2000;0.5902;-5.4047;
1357.5000;0.5877;-5.4151;
1357.8000;0.5902;-5.4073;
1358.1000;0.5910;-5.4047;
1358.4000;0.5902;-5.3995;
1358.7000;0.5902;-5.3917;
1359.0000;0.5958;-5.3814;
1359.3000;0.5910;-5.3917;
1359.6000;0.5902;-5.3839;
1359.9000;0.5893;-5.3891;
1360.2000;0.5918;-5.3814;
1360.5000;0.5910;-5.3891;
1360.8000;0.5918;-5.3891;
1361.1000;0.5885;-5.3943;
1361.4000;0.5918;-5.3839;
1361.7000;0.5902;-5.3891;
1362.0000;0.5893;-5.3839;
1362.3000;0.5893;-5.3814;
1362.6000;0.5893;-5.3762;
1362.9000;0.5902;-5.3814;
1363.2000;0.5910;-5.3762;
1363.5000;0.5885;-5.3891;
1363.8000;0.5885;-5.3943;
1364.1000;0.5885;-5.3865;
1364.4000;0.5893;-5.3943;
1364.7000;0.5893;-5.3995;
1365.0000;0.5934;-5.3995;
1365.3000;0.5877;-5.4047;
1365.6000;0.5893;-5.4099;
1365.9000;0.5910;-5.4021;
1366.2000;0.5893;-5.4073;
1366.5000;0.5893;-5.4099;
1366.8000;0.5893;-5.4125;
1367.1000;0.5902;-5.4125;
1367.4000;0.5885;-5.4151;
1367.7000;0.5885;-5.4151;
1368.0000;0.5902;-5.4073;
1368.3000;0.5918;-5.3995;
1368.6000;0.5861;-5.4125;
1368.9000;0.5910;-5.3995;
1369.2000;0.5910;-5.3995;
1369.5000;0.5893;-5.3995;
1369.8000;0.5910;-5.3917;
1370.1000;0.5902;-5.3839;
1370.4000;0.5893;-5.3865;
1370.7000;0.5885;-5.3943;
1371.0000;0.5893;-5.3865;
1371.3000;0.5885;-5.3891;
1371.6000;0.5885;-5.3943;
1371.9000;0.5893;-5.3969;
1372.2000;0.5926;-5.3943;
1372.5000;0.5910;-5.4021;
1372.8000;0.5893;-5.3995;
1373.1000;0.5910;-5.3917;
1373.4000;0.5910;-5.3969;
1373.7000;0.5869;-5.4021;
1374.0000;0.5902;-5.3917;
1374.3000;0.5934;-5.3814;
1374.6000;0.5877;-5.4021;
1374.9000;0.5893;-5.3943;
1375.2000;0.5885;-5.3995;
1375.5000;0.5877;-5.4073;
1375.8000;0.5877;-5.4099;
1376.1000;0.5902;-5.4047;
1376.4000;0.5910;-5.4047;
1376.7000;0.5918;-5.4021;
1377.0000;0.5910;-5.3995;
1377.3000;0.5902;-5.3969;
1377.6000;0.5893;-5.3943;
1377.9000;0.5902;-5.3943;
1378.2000;0.5893;-5.4021;
1378.5000;0.5845;-5.4047;
1378.8000;0.5893;-5.3917;
1379.1000;0.5893;-5.4021;
1379.4000;0.5902;-5.3943;
1379.7000;0.5861;-5.4021;
1380.0000;0.5902;-5.3943;
1380.3000;0.5893;-5.3995;
1380.6000;0.5893;-5.3995;
1380.9000;0.5902;-5.4073;
1381.2000;0.5902;-5.4047;
1381.5000;0.5893;-5.4073;
1381.8000;0.5885;-5.4099;
1382.1000;0.5893;-5.4151;
1382.4000;0.5910;-5.4099;
1382.7000;0.5885;-5.4099;
1383.0000;0.5910;-5.4099;
1383.3000;0.5893;-5.4151;
1383.6000;0.5934;-5.4125;
1383.9000;0.5910;-5.4151;
1384.2000;0.5869;-5.4280;
1384.5000;0.5893;-5.4151;
1384.8000;0.5893;-5.4125;
1385.1000;0.5893;-5.4151;
1385.4000;0.5845;-5.4228;
1385.7000;0.5893;-5.4125;
1386.0000;0.5885;-5.4228;
1386.3000;0.5934;-5.4099;
1386.6000;0.5877;-5.4280;
1386.9000;0.5877;-5.4254;
1387.2000;0.5861;-5.4332;
1387.5000;0.5918;-5.4099;
1387.8000;0.5893;-5.4125;
1388.1000;0.5885;-5.4177;
1388.4000;0.5893;-5.4099;
1388.7000;0.5893;-5.4125;
1389.0000;0.5893;-5.4177;
1389.3000;0.5893;-5.4099;
1389.6000;0.5893;-5.4125;
1389.9000;0.5885;-5.4177;
1390.2000;0.5877;-5.4203;
1390.5000;0.5893;-5.4151;
1390.8000;0.5885;-5.4151;
1391.1000;0.5893;-5.4125;
1391.4000;0.5934;-5.4047;
1391.7000;0.5893;-5.4125;
1392.0000;0.5885;-5.4021;
1392.3000;0.5910;-5.3995;
1392.6000;0.5910;-5.4073;
1392.9000;0.5893;-5.4073;
1393.2000;0.5910;-5.3995;
1393.5000;0.5893;-5.3969;
1393.8000;0.5918;-5.3865;
1394.1000;0.5869;-5.3917;
1394.4000;0.5893;-5.3865;
1394.7000;0.5910;-5.3865;
1395.0000;0.5885;-5.3814;
1395.3000;0.5877;-5.3788;
1395.6000;0.5902;-5.3814;
1395.9000;0.5885;-5.3917;
1396.2000;0.5893;-5.3969;
1396.5000;0.5910;-5.3917;
1396.8000;0.5893;-5.3943;
1397.1000;0.5877;-5.3969;
1397.4000;0.5902;-5.3839;
1397.7000;0.5893;-5.3891;
1398.0000;0.5885;-5.3943;
1398.3000;0.5885;-5.3995;
1398.6000;0.5877;-5.3969;
1398.9000;0.5885;-5.4047;
1399.2000;0.5893;-5.3917;
1399.5000;0.5893;-5.3917;
1399.8000;0.5902;-5.3891;
