time/ms;Fluo/V;P700 deltaI/I x10³;
-199.8000;0.5242;-5.4955;
-199.5000;0.5218;-5.5058;
-199.2000;0.5218;-5.5058;
-198.9000;0.5210;-5.5058;
-198.6000;0.5226;-5.5032;
-198.3000;0.5226;-5.5110;
-198.0000;0.5226;-5.5032;
-197.7000;0.5242;-5.4929;
-197.4000;0.5218;-5.4981;
-197.1000;0.5315;-5.4799;
-196.8000;0.5226;-5.5032;
-196.5000;0.5234;-5.5032;
-196.2000;0.5234;-5.5007;
-195.9000;0.5307;-5.4877;
-195.6000;0.5234;-5.5110;
-195.3000;0.5234;-5.5058;
-195.0000;0.5210;-5.5110;
-194.7000;0.5234;-5.5058;
-194.4000;0.5242;-5.4981;
-194.1000;0.5250;-5.5032;
-193.8000;0.5234;-5.5136;
-193.5000;0.5201;-5.5240;
-193.2000;0.5283;-5.4981;
-192.9000;0.5226;-5.5007;
-192.6000;0.5250;-5.4929;
-192.3000;0.5258;-5.4903;
-192.0000;0.5250;-5.4851;
-191.7000;0.5250;-5.4851;
-191.4000;0.5275;-5.4721;
-191.1000;0.5267;-5.4747;
-190.8000;0.5250;-5.4825;
-190.5000;0.5210;-5.4929;
-190.2000;0.5275;-5.4825;
-189.9000;0.5267;-5.4877;
-189.6000;0.5258;-5.4929;
-189.3000;0.5267;-5.5007;
-189.0000;0.5258;-5.5058;
-188.7000;0.5250;-5.5058;
-188.4000;0.5267;-5.5058;
-188.1000;0.5234;-5.5032;
-187.8000;0.5299;-5.4903;
-187.5000;0.5267;-5.4981;
-187.2000;0.5242;-5.5032;
-186.9000;0.5315;-5.4799;
-186.6000;0.5291;-5.4877;
-186.3000;0.5242;-5.4955;
-186.0000;0.5258;-5.4929;
-185.7000;0.5267;-5.4929;
-185.4000;0.5185;-5.5136;
-185.1000;0.5242;-5.5058;
-184.8000;0.5267;-5.5007;
-184.5000;0.5258;-5.5032;
-184.2000;0.5275;-5.4955;
-183.9000;0.5283;-5.4903;
-183.6000;0.5226;-5.4981;
-183.3000;0.5258;-5.4825;
-183.0000;0.5291;-5.4929;
-182.7000;0.5267;-5.4955;
-182.4000;0.5283;-5.4981;
-182.1000;0.5267;-5.5084;
-181.8000;0.5275;-5.5136;
-181.5000;0.5275;-5.5188;
-181.2000;0.5267;-5.5214;
-180.9000;0.5218;-5.5396;
-180.6000;0.5267;-5.5292;
-180.3000;0.5258;-5.5344;
-180.0000;0.5242;-5.5396;
-179.7000;0.5275;-5.5240;
-179.4000;0.5267;-5.5266;
-179.1000;0.5275;-5.5266;
-178.8000;0.5267;-5.5240;
-178.5000;0.5275;-5.5214;
-178.2000;0.5291;-5.5188;
-177.9000;0.5242;-5.5266;
-177.6000;0.5250;-5.5240;
-177.3000;0.5258;-5.5136;
-177.0000;0.5283;-5.5110;
-176.7000;0.5275;-5.5084;
-176.4000;0.5242;-5.5136;
-176.1000;0.5234;-5.5058;
-175.8000;0.5283;-5.5032;
-175.5000;0.5315;-5.4955;
-175.2000;0.5250;-5.5007;
-174.9000;0.5258;-5.4981;
-174.6000;0.5267;-5.4903;
-174.3000;0.5267;-5.5007;
-174.0000;0.5258;-5.5084;
-173.7000;0.5258;-5.5007;
-173.4000;0.5275;-5.4955;
-173.1000;0.5299;-5.4955;
-172.8000;0.5283;-5.4929;
-172.5000;0.5275;-5.4929;
-172.2000;0.5275;-5.4981;
-171.9000;0.5250;-5.4955;
-171.6000;0.5291;-5.4929;
-171.3000;0.5250;-5.5032;
-171.0000;0.5258;-5.5084;
-170.7000;0.5218;-5.5162;
-170.4000;0.5340;-5.4877;
-170.1000;0.5283;-5.5007;
-169.8000;0.5275;-5.5084;
-169.5000;0.5275;-5.5058;
-169.2000;0.5283;-5.5110;
-168.9000;0.5267;-5.5084;
-168.6000;0.5258;-5.5084;
-168.3000;0.5226;-5.5162;
-168.0000;0.5283;-5.5007;
-167.7000;0.5283;-5.5007;
-167.4000;0.5315;-5.5007;
-167.1000;0.5283;-5.5110;
-166.8000;0.5283;-5.5110;
-166.5000;0.5291;-5.5058;
-166.2000;0.5275;-5.5162;
-165.9000;0.5275;-5.5136;
-165.6000;0.5275;-5.5162;
-165.3000;0.5283;-5.5110;
-165.0000;0.5275;-5.5188;
-164.7000;0.5291;-5.5240;
-164.4000;0.5291;-5.5162;
-164.1000;0.5291;-5.5214;
-163.8000;0.5283;-5.5370;
-163.5000;0.5283;-5.5318;
-163.2000;0.5291;-5.5240;
-162.9000;0.5291;-5.5136;
-162.6000;0.5283;-5.5058;
-162.3000;0.5275;-5.5110;
-162.0000;0.5291;-5.5058;
-161.7000;0.5291;-5.5007;
-161.4000;0.5307;-5.4981;
-161.1000;0.5291;-5.5110;
-160.8000;0.5291;-5.5162;
-160.5000;0.5299;-5.5214;
-160.2000;0.5258;-5.5396;
-159.9000;0.5299;-5.5240;
-159.6000;0.5340;-5.5240;
-159.3000;0.5226;-5.5473;
-159.0000;0.5315;-5.5318;
-158.7000;0.5307;-5.5292;
-158.4000;0.5364;-5.5032;
-158.1000;0.5299;-5.5240;
-157.8000;0.5299;-5.5292;
-157.5000;0.5299;-5.5266;
-157.2000;0.5299;-5.5344;
-156.9000;0.5283;-5.5396;
-156.6000;0.5299;-5.5240;
-156.3000;0.5291;-5.5214;
-156.0000;0.5315;-5.5214;
-155.7000;0.5315;-5.5266;
-155.4000;0.5299;-5.5188;
-155.1000;0.5315;-5.5136;
-154.8000;0.5275;-5.5292;
-154.5000;0.5267;-5.5344;
-154.2000;0.5315;-5.5266;
-153.9000;0.5258;-5.5396;
-153.6000;0.5299;-5.5318;
-153.3000;0.5348;-5.5292;
-153.0000;0.5315;-5.5318;
-152.7000;0.5307;-5.5318;
-152.4000;0.5315;-5.5370;
-152.1000;0.5307;-5.5421;
-151.8000;0.5299;-5.5447;
-151.5000;0.5324;-5.5396;
-151.2000;0.5315;-5.5447;
-150.9000;0.5315;-5.5499;
-150.6000;0.5291;-5.5499;
-150.3000;0.5307;-5.5447;
-150.0000;0.5307;-5.5318;
-149.7000;0.5315;-5.5292;
-149.4000;0.5307;-5.5344;
-149.1000;0.5315;-5.5292;
-148.8000;0.5307;-5.5292;
-148.5000;0.5324;-5.5292;
-148.2000;0.5307;-5.5292;
-147.9000;0.5324;-5.5292;
-147.6000;0.5267;-5.5473;
-147.3000;0.5324;-5.5188;
-147.0000;0.5275;-5.5318;
-146.7000;0.5315;-5.5188;
-146.4000;0.5324;-5.5240;
-146.1000;0.5324;-5.5266;
-145.8000;0.5324;-5.5240;
-145.5000;0.5307;-5.5266;
-145.2000;0.5315;-5.5188;
-144.9000;0.5324;-5.5136;
-144.6000;0.5315;-5.5084;
-144.3000;0.5315;-5.5162;
-144.0000;0.5348;-5.4981;
-143.7000;0.5324;-5.5032;
-143.4000;0.5332;-5.5084;
-143.1000;0.5291;-5.5136;
-142.8000;0.5348;-5.4981;
-142.5000;0.5299;-5.5188;
-142.2000;0.5340;-5.5162;
-141.9000;0.5324;-5.5162;
-141.6000;0.5324;-5.5162;
-141.3000;0.5340;-5.5110;
-141.0000;0.5332;-5.5110;
-140.7000;0.5307;-5.5188;
-140.4000;0.5324;-5.5214;
-140.1000;0.5324;-5.5266;
-139.8000;0.5340;-5.5240;
-139.5000;0.5332;-5.5214;
-139.2000;0.5332;-5.5240;
-138.9000;0.5356;-5.5214;
-138.6000;0.5372;-5.5136;
-138.3000;0.5413;-5.5058;
-138.0000;0.5348;-5.5188;
-137.7000;0.5332;-5.5188;
-137.4000;0.5372;-5.5084;
-137.1000;0.5348;-5.5162;
-136.8000;0.5332;-5.5188;
-136.5000;0.5315;-5.5292;
-136.2000;0.5364;-5.5188;
-135.9000;0.5340;-5.5292;
-135.6000;0.5315;-5.5370;
-135.3000;0.5315;-5.5344;
-135.0000;0.5340;-5.5266;
-134.7000;0.5332;-5.5292;
-134.4000;0.5356;-5.5266;
-134.1000;0.5324;-5.5396;
-133.8000;0.5307;-5.5344;
-133.5000;0.5348;-5.5240;
-133.2000;0.5348;-5.5292;
-132.9000;0.5356;-5.5318;
-132.6000;0.5340;-5.5344;
-132.3000;0.5364;-5.5292;
-132.0000;0.5340;-5.5370;
-131.7000;0.5356;-5.5292;
-131.4000;0.5348;-5.5292;
-131.1000;0.5340;-5.5344;
-130.8000;0.5372;-5.5266;
-130.5000;0.5324;-5.5318;
-130.2000;0.5332;-5.5214;
-129.9000;0.5364;-5.5136;
-129.6000;0.5332;-5.5162;
-129.3000;0.5356;-5.5162;
-129.0000;0.5340;-5.5214;
-128.7000;0.5340;-5.5318;
-128.4000;0.5356;-5.5266;
-128.1000;0.5356;-5.5292;
-127.8000;0.5348;-5.5318;
-127.5000;0.5332;-5.5344;
-127.2000;0.5283;-5.5499;
-126.9000;0.5340;-5.5318;
-126.6000;0.5348;-5.5292;
-126.3000;0.5356;-5.5318;
-126.0000;0.5364;-5.5240;
-125.7000;0.5405;-5.5032;
-125.4000;0.5364;-5.5162;
-125.1000;0.5364;-5.5162;
-124.8000;0.5356;-5.5188;
-124.5000;0.5364;-5.5162;
-124.2000;0.5372;-5.5188;
-123.9000;0.5372;-5.5292;
-123.6000;0.5364;-5.5344;
-123.3000;0.5389;-5.5318;
-123.0000;0.5421;-5.5188;
-122.7000;0.5413;-5.5240;
-122.4000;0.5364;-5.5396;
-122.1000;0.5381;-5.5370;
-121.8000;0.5381;-5.5292;
-121.5000;0.5381;-5.5240;
-121.2000;0.5364;-5.5188;
-120.9000;0.5372;-5.5136;
-120.6000;0.5381;-5.5058;
-120.3000;0.5364;-5.5188;
-120.0000;0.5364;-5.5188;
-119.7000;0.5364;-5.5188;
-119.4000;0.5372;-5.5240;
-119.1000;0.5364;-5.5214;
-118.8000;0.5356;-5.5266;
-118.5000;0.5372;-5.5266;
-118.2000;0.5421;-5.5136;
-117.9000;0.5381;-5.5162;
-117.6000;0.5381;-5.5240;
-117.3000;0.5372;-5.5214;
-117.0000;0.5381;-5.5240;
-116.7000;0.5381;-5.5292;
-116.4000;0.5389;-5.5292;
-116.1000;0.5381;-5.5396;
-115.8000;0.5397;-5.5344;
-115.5000;0.5470;-5.5188;
-115.2000;0.5405;-5.5318;
-114.9000;0.5389;-5.5396;
-114.6000;0.5389;-5.5421;
-114.3000;0.5405;-5.5396;
-114.0000;0.5397;-5.5370;
-113.7000;0.5372;-5.5551;
-113.4000;0.5381;-5.5473;
-113.1000;0.5381;-5.5370;
-112.8000;0.5405;-5.5318;
-112.5000;0.5389;-5.5318;
-112.2000;0.5413;-5.5266;
-111.9000;0.5405;-5.5240;
-111.6000;0.5495;-5.5110;
-111.3000;0.5405;-5.5396;
-111.0000;0.5429;-5.5396;
-110.7000;0.5438;-5.5447;
-110.4000;0.5405;-5.5473;
-110.1000;0.5421;-5.5370;
-109.8000;0.5405;-5.5421;
-109.5000;0.5413;-5.5421;
-109.2000;0.5429;-5.5344;
-108.9000;0.5413;-5.5318;
-108.6000;0.5389;-5.5396;
-108.3000;0.5421;-5.5396;
-108.0000;0.5421;-5.5421;
-107.7000;0.5397;-5.5473;
-107.4000;0.5397;-5.5499;
-107.1000;0.5413;-5.5525;
-106.8000;0.5421;-5.5499;
-106.5000;0.5413;-5.5370;
-106.2000;0.5389;-5.5473;
-105.9000;0.5405;-5.5447;
-105.6000;0.5429;-5.5447;
-105.3000;0.5413;-5.5447;
-105.0000;0.5429;-5.5473;
-104.7000;0.5446;-5.5292;
-104.4000;0.5421;-5.5266;
-104.1000;0.5429;-5.5292;
-103.8000;0.5413;-5.5266;
-103.5000;0.5429;-5.5292;
-103.2000;0.5470;-5.5058;
-102.9000;0.5429;-5.5292;
-102.6000;0.5429;-5.5344;
-102.3000;0.5413;-5.5370;
-102.0000;0.5413;-5.5396;
-101.7000;0.5438;-5.5396;
-101.4000;0.5438;-5.5447;
-101.1000;0.5405;-5.5551;
-100.8000;0.5429;-5.5577;
-100.5000;0.5413;-5.5499;
-100.2000;0.5446;-5.5421;
-99.9000;0.5438;-5.5396;
-99.6000;0.5454;-5.5396;
-99.3000;0.5454;-5.5421;
-99.0000;0.5421;-5.5525;
-98.7000;0.5446;-5.5473;
-98.4000;0.5429;-5.5525;
-98.1000;0.5429;-5.5473;
-97.8000;0.5438;-5.5499;
-97.5000;0.5446;-5.5473;
-97.2000;0.5446;-5.5447;
-96.9000;0.5438;-5.5551;
-96.6000;0.5429;-5.5525;
-96.3000;0.5454;-5.5370;
-96.0000;0.5446;-5.5473;
-95.7000;0.5429;-5.5551;
-95.4000;0.5454;-5.5499;
-95.1000;0.5446;-5.5421;
-94.8000;0.5454;-5.5473;
-94.5000;0.5446;-5.5396;
-94.2000;0.5446;-5.5344;
-93.9000;0.5462;-5.5370;
-93.6000;0.5446;-5.5421;
-93.3000;0.5454;-5.5499;
-93.0000;0.5446;-5.5499;
-92.7000;0.5438;-5.5499;
-92.4000;0.5462;-5.5421;
-92.1000;0.5454;-5.5370;
-91.8000;0.5446;-5.5370;
-91.5000;0.5495;-5.5188;
-91.2000;0.5470;-5.5396;
-90.9000;0.5462;-5.5421;
-90.6000;0.5462;-5.5473;
-90.3000;0.5470;-5.5447;
-90.0000;0.5478;-5.5525;
-89.7000;0.5462;-5.5551;
-89.4000;0.5470;-5.5499;
-89.1000;0.5462;-5.5499;
-88.8000;0.5470;-5.5421;
-88.5000;0.5470;-5.5447;
-88.2000;0.5470;-5.5473;
-87.9000;0.5470;-5.5551;
-87.6000;0.5470;-5.5629;
-87.3000;0.5462;-5.5655;
-87.0000;0.5470;-5.5577;
-86.7000;0.5511;-5.5447;
-86.4000;0.5454;-5.5603;
-86.1000;0.5470;-5.5473;
-85.8000;0.5429;-5.5603;
-85.5000;0.5454;-5.5525;
-85.2000;0.5478;-5.5421;
-84.9000;0.5486;-5.5421;
-84.6000;0.5543;-5.5344;
-84.3000;0.5486;-5.5473;
-84.0000;0.5495;-5.5499;
-83.7000;0.5495;-5.5473;
-83.4000;0.5495;-5.5447;
-83.1000;0.5486;-5.5447;
-82.8000;0.5478;-5.5396;
-82.5000;0.5503;-5.5421;
-82.2000;0.5503;-5.5318;
-81.9000;0.5527;-5.5292;
-81.6000;0.5503;-5.5318;
-81.3000;0.5527;-5.5266;
-81.0000;0.5478;-5.5447;
-80.7000;0.5511;-5.5447;
-80.4000;0.5527;-5.5447;
-80.1000;0.5543;-5.5447;
-79.8000;0.5543;-5.5421;
-79.5000;0.5535;-5.5421;
-79.2000;0.5527;-5.5447;
-78.9000;0.5511;-5.5473;
-78.6000;0.5527;-5.5499;
-78.3000;0.5527;-5.5473;
-78.0000;0.5527;-5.5447;
-77.7000;0.5519;-5.5421;
-77.4000;0.5535;-5.5370;
-77.1000;0.5535;-5.5447;
-76.8000;0.5527;-5.5603;
-76.5000;0.5543;-5.5655;
-76.2000;0.5543;-5.5733;
-75.9000;0.5608;-5.5603;
-75.6000;0.5560;-5.5707;
-75.3000;0.5535;-5.5810;
-75.0000;0.5543;-5.5759;
-74.7000;0.5584;-5.5603;
-74.4000;0.5551;-5.5707;
-74.1000;0.5535;-5.5810;
-73.8000;0.5543;-5.5810;
-73.5000;0.5551;-5.5785;
-73.2000;0.5560;-5.5759;
-72.9000;0.5519;-5.5888;
-72.6000;0.5568;-5.5681;
-72.3000;0.5535;-5.5733;
-72.0000;0.5560;-5.5707;
-71.7000;0.5576;-5.5577;
-71.4000;0.5576;-5.5499;
-71.1000;0.5551;-5.5577;
-70.8000;0.5568;-5.5629;
-70.5000;0.5527;-5.5733;
-70.2000;0.5543;-5.5759;
-69.9000;0.5576;-5.5707;
-69.6000;0.5576;-5.5759;
-69.3000;0.5568;-5.5862;
-69.0000;0.5568;-5.5940;
-68.7000;0.5560;-5.5992;
-68.4000;0.5584;-5.5966;
-68.1000;0.5576;-5.5992;
-67.8000;0.5584;-5.5992;
-67.5000;0.5543;-5.6070;
-67.2000;0.5584;-5.5966;
-66.9000;0.5584;-5.5888;
-66.6000;0.5584;-5.5862;
-66.3000;0.5535;-5.5940;
-66.0000;0.5592;-5.5862;
-65.7000;0.5600;-5.5810;
-65.4000;0.5600;-5.5785;
-65.1000;0.5592;-5.5810;
-64.8000;0.5584;-5.5733;
-64.5000;0.5568;-5.5810;
-64.2000;0.5608;-5.5733;
-63.9000;0.5600;-5.5785;
-63.6000;0.5600;-5.5733;
-63.3000;0.5592;-5.5759;
-63.0000;0.5608;-5.5759;
-62.7000;0.5608;-5.5759;
-62.4000;0.5608;-5.5707;
-62.1000;0.5600;-5.5733;
-61.8000;0.5608;-5.5759;
-61.5000;0.5560;-5.5836;
-61.2000;0.5608;-5.5707;
-60.9000;0.5617;-5.5759;
-60.6000;0.5608;-5.5681;
-60.3000;0.5608;-5.5733;
-60.0000;0.5625;-5.5681;
-59.7000;0.5649;-5.5603;
-59.4000;0.5625;-5.5707;
-59.1000;0.5625;-5.5681;
-58.8000;0.5600;-5.5577;
-58.5000;0.5617;-5.5499;
-58.2000;0.5625;-5.5473;
-57.9000;0.5633;-5.5421;
-57.6000;0.5625;-5.5421;
-57.3000;0.5633;-5.5447;
-57.0000;0.5649;-5.5421;
-56.7000;0.5649;-5.5499;
-56.4000;0.5665;-5.5525;
-56.1000;0.5617;-5.5629;
-55.8000;0.5633;-5.5603;
-55.5000;0.5641;-5.5629;
-55.2000;0.5608;-5.5785;
-54.9000;0.5641;-5.5707;
-54.6000;0.5649;-5.5785;
-54.3000;0.5665;-5.5888;
-54.0000;0.5617;-5.5966;
-53.7000;0.5706;-5.5733;
-53.4000;0.5665;-5.5759;
-53.1000;0.5649;-5.5733;
-52.8000;0.5674;-5.5603;
-52.5000;0.5665;-5.5629;
-52.2000;0.5657;-5.5629;
-51.9000;0.5690;-5.5551;
-51.6000;0.5665;-5.5655;
-51.3000;0.5657;-5.5655;
-51.0000;0.5649;-5.5655;
-50.7000;0.5649;-5.5681;
-50.4000;0.5690;-5.5603;
-50.1000;0.5657;-5.5733;
-49.8000;0.5665;-5.5759;
-49.5000;0.5674;-5.5759;
-49.2000;0.5722;-5.5551;
-48.9000;0.5690;-5.5655;
-48.6000;0.5706;-5.5655;
-48.3000;0.5690;-5.5733;
-48.0000;0.5690;-5.5785;
-47.7000;0.5682;-5.5836;
-47.4000;0.5698;-5.5707;
-47.1000;0.5698;-5.5707;
-46.8000;0.5682;-5.5785;
-46.5000;0.5706;-5.5810;
-46.2000;0.5706;-5.5836;
-45.9000;0.5698;-5.5888;
-45.6000;0.5706;-5.5940;
-45.3000;0.5731;-5.5888;
-45.0000;0.5731;-5.5862;
-44.7000;0.5714;-5.5914;
-44.4000;0.5706;-5.5940;
-44.1000;0.5714;-5.5914;
-43.8000;0.5706;-5.5914;
-43.5000;0.5706;-5.5992;
-43.2000;0.5731;-5.5836;
-42.9000;0.5739;-5.5759;
-42.6000;0.5739;-5.5733;
-42.3000;0.5771;-5.5655;
-42.0000;0.5739;-5.5681;
-41.7000;0.5771;-5.5577;
-41.4000;0.5755;-5.5655;
-41.1000;0.5763;-5.5577;
-40.8000;0.5779;-5.5577;
-40.5000;0.5739;-5.5629;
-40.2000;0.5739;-5.5629;
-39.9000;0.5763;-5.5577;
-39.6000;0.5739;-5.5603;
-39.3000;0.5747;-5.5603;
-39.0000;0.5771;-5.5551;
-38.7000;0.5739;-5.5603;
-38.4000;0.5731;-5.5603;
-38.1000;0.5771;-5.5603;
-37.8000;0.5747;-5.5655;
-37.5000;0.5779;-5.5577;
-37.2000;0.5788;-5.5681;
-36.9000;0.5779;-5.5785;
-36.6000;0.5763;-5.5888;
-36.3000;0.5771;-5.5862;
-36.0000;0.5763;-5.5862;
-35.7000;0.5796;-5.5836;
-35.4000;0.5779;-5.5914;
-35.1000;0.5788;-5.5888;
-34.8000;0.5779;-5.5914;
-34.5000;0.5796;-5.5759;
-34.2000;0.5771;-5.5785;
-33.9000;0.5812;-5.5681;
-33.6000;0.5763;-5.5785;
-33.3000;0.5804;-5.5733;
-33.0000;0.5804;-5.5707;
-32.7000;0.5796;-5.5681;
-32.4000;0.5812;-5.5733;
-32.1000;0.5812;-5.5759;
-31.8000;0.5812;-5.5707;
-31.5000;0.5804;-5.5759;
-31.2000;0.5812;-5.5733;
-30.9000;0.5763;-5.5888;
-30.6000;0.5828;-5.5655;
-30.3000;0.5812;-5.5707;
-30.0000;0.5747;-5.5888;
-29.7000;0.5820;-5.5707;
-29.4000;0.5836;-5.5655;
-29.1000;0.5812;-5.5603;
-28.8000;0.5836;-5.5525;
-28.5000;0.5836;-5.5551;
-28.2000;0.5820;-5.5655;
-27.9000;0.5845;-5.5655;
-27.6000;0.5828;-5.5681;
-27.3000;0.5828;-5.5655;
-27.0000;0.5812;-5.5681;
-26.7000;0.5820;-5.5707;
-26.4000;0.5836;-5.5707;
-26.1000;0.5796;-5.5733;
-25.8000;0.5853;-5.5603;
-25.5000;0.5836;-5.5577;
-25.2000;0.5820;-5.5655;
-24.9000;0.5845;-5.5655;
-24.6000;0.5853;-5.5733;
-24.3000;0.5877;-5.5629;
-24.0000;0.5861;-5.5629;
-23.7000;0.5869;-5.5655;
-23.4000;0.5853;-5.5629;
-23.1000;0.5885;-5.5499;
-22.8000;0.5861;-5.5681;
-22.5000;0.5885;-5.5629;
-22.2000;0.5902;-5.5733;
-21.9000;0.5885;-5.5810;
-21.6000;0.5958;-5.5681;
-21.3000;0.5893;-5.5888;
-21.0000;0.5902;-5.5914;
-20.7000;0.5877;-5.5966;
-20.4000;0.5902;-5.5862;
-20.1000;0.5893;-5.5966;
-19.8000;0.5877;-5.5914;
-19.5000;0.5902;-5.5914;
-19.2000;0.5910;-5.5914;
-18.9000;0.5910;-5.5914;
-18.6000;0.5910;-5.6044;
-18.3000;0.5942;-5.5914;
-18.0000;0.5918;-5.5888;
-17.7000;0.5918;-5.5888;
-17.4000;0.5967;-5.5785;
-17.1000;0.5918;-5.5810;
-16.8000;0.5918;-5.5862;
-16.5000;0.5918;-5.5862;
-16.2000;0.5918;-5.5836;
-15.9000;0.5910;-5.5862;
-15.6000;0.5910;-5.5810;
-15.3000;0.5926;-5.5785;
-15.0000;0.5926;-5.5836;
-14.7000;0.5942;-5.5810;
-14.4000;0.5983;-5.5655;
-14.1000;0.5926;-5.5836;
-13.8000;0.5942;-5.5862;
-13.5000;0.5958;-5.5785;
-13.2000;0.5967;-5.5785;
-12.9000;0.5958;-5.5810;
-12.6000;0.5958;-5.5862;
-12.3000;0.5950;-5.5966;
-12.0000;0.5942;-5.5888;
-11.7000;0.5958;-5.5759;
-11.4000;0.5958;-5.5810;
-11.1000;0.5950;-5.5836;
-10.8000;0.5942;-5.5914;
-10.5000;0.5975;-5.5940;
-10.2000;0.5967;-5.5966;
-9.9000;0.5975;-5.6018;
-9.6000;0.5975;-5.6148;
-9.3000;0.5983;-5.6096;
-9.0000;0.5975;-5.6070;
-8.7000;0.5967;-5.6044;
-8.4000;0.5983;-5.6018;
-8.1000;0.5991;-5.5992;
-7.8000;0.5999;-5.5940;
-7.5000;0.5983;-5.5914;
-7.2000;0.5999;-5.5914;
-6.9000;0.5999;-5.5888;
-6.6000;0.5975;-5.5966;
-6.3000;0.5983;-5.5862;
-6.0000;0.5999;-5.5759;
-5.7000;0.5999;-5.5681;
-5.4000;0.6007;-5.5785;
-5.1000;0.6007;-5.5888;
-4.8000;0.6015;-5.5966;
-4.5000;0.6007;-5.6044;
-4.2000;0.6024;-5.6044;
-3.9000;0.6040;-5.6018;
-3.6000;0.6015;-5.6018;
-3.3000;0.6024;-5.6018;
-3.0000;0.6032;-5.6018;
-2.7000;0.6032;-5.5966;
-2.4000;0.6032;-5.5862;
-2.1000;0.6024;-5.5888;
-1.8000;0.6048;-5.5810;
-1.5000;0.6072;-5.5681;
-1.2000;0.6048;-5.5862;
-0.9000;0.6040;-5.5966;
-0.6000;0.6048;-5.5966;
-0.3000;0.6032;-5.6018;
0.0000;0.6032;-5.6018;
0.3000;0.6357;-5.5914;
0.6000;0.6976;-5.5162;
0.9000;0.7489;-5.4462;
1.2000;0.7904;-5.3839;
1.5000;0.8197;-5.3321;
1.8000;0.8466;-5.2828;
2.1000;0.8677;-5.2465;
2.4000;0.8816;-5.2309;
2.7000;0.8962;-5.2154;
3.0000;0.9084;-5.1998;
3.3000;0.9166;-5.1791;
3.6000;0.9263;-5.1661;
3.9000;0.9328;-5.1557;
4.2000;0.9402;-5.1505;
4.5000;0.9483;-5.1428;
4.8000;0.9540;-5.1324;
5.1000;0.9573;-5.1402;
5.4000;0.9621;-5.1324;
5.7000;0.9687;-5.1402;
6.0000;0.9695;-5.1428;
6.3000;0.9744;-5.1298;
6.6000;0.9833;-5.1142;
6.9000;0.9858;-5.1246;
7.2000;0.9947;-5.1142;
7.5000;0.9898;-5.1324;
7.8000;0.9996;-5.1376;
8.1000;1.0045;-5.1479;
8.4000;1.0077;-5.1557;
8.7000;1.0118;-5.1531;
9.0000;1.0142;-5.1609;
9.3000;1.0199;-5.1531;
9.6000;1.0224;-5.1661;
9.9000;1.0265;-5.1661;
10.2000;1.0297;-5.1765;
10.5000;1.0330;-5.1791;
10.8000;1.0370;-5.1791;
11.1000;1.0419;-5.1739;
11.4000;1.0419;-5.1765;
11.7000;1.0476;-5.1817;
12.0000;1.0517;-5.1817;
12.3000;1.0541;-5.1713;
12.6000;1.0590;-5.1609;
12.9000;1.0615;-5.1557;
13.2000;1.0631;-5.1661;
13.5000;1.0672;-5.1531;
13.8000;1.0704;-5.1454;
14.1000;1.0729;-5.1505;
14.4000;1.0745;-5.1557;
14.7000;1.0794;-5.1479;
15.0000;1.0810;-5.1454;
15.3000;1.0851;-5.1505;
15.6000;1.0867;-5.1505;
15.9000;1.0883;-5.1609;
16.2000;1.0891;-5.1661;
16.5000;1.0948;-5.1635;
16.8000;1.0997;-5.1557;
17.1000;1.0997;-5.1609;
17.4000;1.1022;-5.1531;
17.7000;1.1046;-5.1505;
18.0000;1.1070;-5.1609;
18.3000;1.1079;-5.1765;
18.6000;1.1095;-5.1817;
18.9000;1.1136;-5.1765;
19.2000;1.1160;-5.1791;
19.5000;1.1160;-5.1972;
19.8000;1.1184;-5.1946;
20.1000;1.1201;-5.1920;
20.4000;1.1290;-5.1687;
20.7000;1.1233;-5.1894;
21.0000;1.1249;-5.1998;
21.3000;1.1258;-5.2102;
21.6000;1.1282;-5.2076;
21.9000;1.1396;-5.1817;
22.2000;1.1315;-5.1894;
22.5000;1.1355;-5.1946;
22.8000;1.1363;-5.1894;
23.1000;1.1388;-5.1920;
23.4000;1.1429;-5.1868;
23.7000;1.1412;-5.1998;
24.0000;1.1404;-5.1998;
24.3000;1.1445;-5.1946;
24.6000;1.1453;-5.1972;
24.9000;1.1461;-5.1894;
25.2000;1.1494;-5.1998;
25.5000;1.1510;-5.2102;
25.8000;1.1543;-5.1998;
26.1000;1.1502;-5.2154;
26.4000;1.1534;-5.2076;
26.7000;1.1551;-5.2050;
27.0000;1.1551;-5.2050;
27.3000;1.1567;-5.2050;
27.6000;1.1591;-5.2050;
27.9000;1.1591;-5.1998;
28.2000;1.1600;-5.2024;
28.5000;1.1600;-5.2050;
28.8000;1.1632;-5.1998;
29.1000;1.1697;-5.1894;
29.4000;1.1681;-5.1972;
29.7000;1.1648;-5.2076;
30.0000;1.1673;-5.2050;
30.3000;1.1656;-5.2309;
30.6000;1.1681;-5.2283;
30.9000;1.1754;-5.2076;
31.2000;1.1697;-5.2180;
31.5000;1.1689;-5.2128;
31.8000;1.1730;-5.2076;
32.1000;1.1730;-5.2024;
32.4000;1.1738;-5.2024;
32.7000;1.1770;-5.2024;
33.0000;1.1754;-5.2180;
33.3000;1.1762;-5.2180;
33.6000;1.1787;-5.2206;
33.9000;1.1779;-5.2232;
34.2000;1.1803;-5.2335;
34.5000;1.1819;-5.2439;
34.8000;1.1819;-5.2465;
35.1000;1.1836;-5.2439;
35.4000;1.1852;-5.2491;
35.7000;1.1852;-5.2491;
36.0000;1.1852;-5.2569;
36.3000;1.1852;-5.2543;
36.6000;1.1868;-5.2517;
36.9000;1.1868;-5.2543;
37.2000;1.1876;-5.2569;
37.5000;1.1893;-5.2647;
37.8000;1.1909;-5.2621;
38.1000;1.1909;-5.2595;
38.4000;1.1884;-5.2672;
38.7000;1.1909;-5.2569;
39.0000;1.1925;-5.2543;
39.3000;1.1933;-5.2569;
39.6000;1.1950;-5.2647;
39.9000;1.1933;-5.2698;
40.2000;1.1966;-5.2672;
40.5000;1.1958;-5.2647;
40.8000;1.1958;-5.2621;
41.1000;1.1974;-5.2647;
41.4000;1.1958;-5.2698;
41.7000;1.1974;-5.2672;
42.0000;1.1990;-5.2724;
42.3000;1.2015;-5.2750;
42.6000;1.1990;-5.2724;
42.9000;1.2015;-5.2621;
43.2000;1.2015;-5.2672;
43.5000;1.1998;-5.2750;
43.8000;1.2023;-5.2776;
44.1000;1.2015;-5.2750;
44.4000;1.2023;-5.2776;
44.7000;1.2023;-5.2776;
45.0000;1.2039;-5.2802;
45.3000;1.2039;-5.2854;
45.6000;1.2055;-5.2932;
45.9000;1.2072;-5.2854;
46.2000;1.2063;-5.2776;
46.5000;1.2039;-5.2802;
46.8000;1.2072;-5.2828;
47.1000;1.2072;-5.2854;
47.4000;1.2063;-5.2880;
47.7000;1.2080;-5.2828;
48.0000;1.2088;-5.2828;
48.3000;1.2112;-5.2854;
48.6000;1.2177;-5.2750;
48.9000;1.2096;-5.2932;
49.2000;1.2112;-5.2958;
49.5000;1.2129;-5.2906;
49.8000;1.2120;-5.2932;
50.1000;1.2129;-5.3036;
50.4000;1.2120;-5.2984;
50.7000;1.2112;-5.2984;
51.0000;1.2096;-5.3010;
51.3000;1.2104;-5.3061;
51.6000;1.2153;-5.2958;
51.9000;1.2145;-5.3010;
52.2000;1.2153;-5.3010;
52.5000;1.2145;-5.3061;
52.8000;1.2169;-5.3036;
53.1000;1.2161;-5.3036;
53.4000;1.2169;-5.3191;
53.7000;1.2177;-5.3191;
54.0000;1.2161;-5.3269;
54.3000;1.2186;-5.3217;
54.6000;1.2210;-5.3165;
54.9000;1.2202;-5.3139;
55.2000;1.2210;-5.3139;
55.5000;1.2194;-5.3217;
55.8000;1.2210;-5.3191;
56.1000;1.2177;-5.3191;
56.4000;1.2210;-5.3010;
56.7000;1.2186;-5.3087;
57.0000;1.2218;-5.3061;
57.3000;1.2234;-5.3087;
57.6000;1.2210;-5.3061;
57.9000;1.2226;-5.3036;
58.2000;1.2234;-5.3061;
58.5000;1.2251;-5.3036;
58.8000;1.2243;-5.3139;
59.1000;1.2243;-5.3217;
59.4000;1.2251;-5.3295;
59.7000;1.2267;-5.3269;
60.0000;1.2259;-5.3321;
60.3000;1.2259;-5.3450;
60.6000;1.2275;-5.3347;
60.9000;1.2267;-5.3425;
61.2000;1.2357;-5.3243;
61.5000;1.2275;-5.3399;
61.8000;1.2267;-5.3399;
62.1000;1.2291;-5.3347;
62.4000;1.2300;-5.3450;
62.7000;1.2332;-5.3425;
63.0000;1.2275;-5.3528;
63.3000;1.2275;-5.3580;
63.6000;1.2308;-5.3554;
63.9000;1.2300;-5.3580;
64.2000;1.2332;-5.3399;
64.5000;1.2332;-5.3399;
64.8000;1.2291;-5.3450;
65.1000;1.2308;-5.3399;
65.4000;1.2316;-5.3399;
65.7000;1.2332;-5.3425;
66.0000;1.2340;-5.3450;
66.3000;1.2324;-5.3502;
66.6000;1.2324;-5.3450;
66.9000;1.2340;-5.3580;
67.2000;1.2340;-5.3450;
67.5000;1.2357;-5.3373;
67.8000;1.2340;-5.3347;
68.1000;1.2340;-5.3399;
68.4000;1.2340;-5.3425;
68.7000;1.2357;-5.3373;
69.0000;1.2340;-5.3321;
69.3000;1.2348;-5.3425;
69.6000;1.2324;-5.3554;
69.9000;1.2300;-5.3710;
70.2000;1.2373;-5.3554;
70.5000;1.2373;-5.3450;
70.8000;1.2373;-5.3502;
71.1000;1.2389;-5.3373;
71.4000;1.2397;-5.3450;
71.7000;1.2397;-5.3373;
72.0000;1.2405;-5.3399;
72.3000;1.2381;-5.3528;
72.6000;1.2397;-5.3606;
72.9000;1.2397;-5.3658;
73.2000;1.2405;-5.3554;
73.5000;1.2389;-5.3632;
73.8000;1.2422;-5.3580;
74.1000;1.2405;-5.3632;
74.4000;1.2414;-5.3632;
74.7000;1.2397;-5.3684;
75.0000;1.2397;-5.3736;
75.3000;1.2414;-5.3736;
75.6000;1.2397;-5.3658;
75.9000;1.2381;-5.3736;
76.2000;1.2414;-5.3736;
76.5000;1.2422;-5.3684;
76.8000;1.2414;-5.3710;
77.1000;1.2397;-5.3710;
77.4000;1.2357;-5.3891;
77.7000;1.2422;-5.3684;
78.0000;1.2405;-5.3684;
78.3000;1.2414;-5.3710;
78.6000;1.2438;-5.3710;
78.9000;1.2454;-5.3736;
79.2000;1.2454;-5.3762;
79.5000;1.2454;-5.3814;
79.8000;1.2438;-5.3814;
80.1000;1.2446;-5.3762;
80.4000;1.2438;-5.3762;
80.7000;1.2430;-5.3839;
81.0000;1.2446;-5.3891;
81.3000;1.2454;-5.3917;
81.6000;1.2438;-5.3891;
81.9000;1.2462;-5.3839;
82.2000;1.2470;-5.3762;
82.5000;1.2454;-5.3917;
82.8000;1.2495;-5.3917;
83.1000;1.2430;-5.4021;
83.4000;1.2462;-5.4021;
83.7000;1.2479;-5.3917;
84.0000;1.2479;-5.3865;
84.3000;1.2495;-5.3865;
84.6000;1.2487;-5.3814;
84.9000;1.2470;-5.3788;
85.2000;1.2470;-5.3917;
85.5000;1.2511;-5.3891;
85.8000;1.2487;-5.4047;
86.1000;1.2462;-5.4099;
86.4000;1.2560;-5.3943;
86.7000;1.2503;-5.4073;
87.0000;1.2495;-5.4125;
87.3000;1.2503;-5.4073;
87.6000;1.2495;-5.4073;
87.9000;1.2503;-5.3995;
88.2000;1.2511;-5.3891;
88.5000;1.2487;-5.3917;
88.8000;1.2584;-5.3710;
89.1000;1.2503;-5.3917;
89.4000;1.2487;-5.3995;
89.7000;1.2519;-5.3995;
90.0000;1.2511;-5.3995;
90.3000;1.2527;-5.3969;
90.6000;1.2527;-5.3969;
90.9000;1.2527;-5.3943;
91.2000;1.2519;-5.3995;
91.5000;1.2536;-5.3917;
91.8000;1.2544;-5.3943;
92.1000;1.2536;-5.3891;
92.4000;1.2527;-5.3995;
92.7000;1.2527;-5.3943;
93.0000;1.2519;-5.4073;
93.3000;1.2552;-5.3969;
93.6000;1.2544;-5.4073;
93.9000;1.2552;-5.4125;
94.2000;1.2560;-5.4151;
94.5000;1.2560;-5.4073;
94.8000;1.2544;-5.4203;
95.1000;1.2544;-5.4203;
95.4000;1.2560;-5.4073;
95.7000;1.2568;-5.4047;
96.0000;1.2568;-5.4047;
96.3000;1.2552;-5.4073;
96.6000;1.2576;-5.3995;
96.9000;1.2576;-5.3995;
97.2000;1.2584;-5.4073;
97.5000;1.2568;-5.4047;
97.8000;1.2593;-5.4047;
98.1000;1.2593;-5.4021;
98.4000;1.2601;-5.3969;
98.7000;1.2568;-5.4073;
99.0000;1.2568;-5.4047;
99.3000;1.2576;-5.3995;
99.6000;1.2576;-5.4047;
99.9000;1.2576;-5.4099;
100.2000;1.2576;-5.4177;
100.5000;1.2584;-5.4099;
100.8000;1.2601;-5.4099;
101.1000;1.2552;-5.4073;
101.4000;1.2503;-5.4151;
101.7000;1.2609;-5.3995;
102.0000;1.2568;-5.4125;
102.3000;1.2601;-5.4073;
102.6000;1.2601;-5.4151;
102.9000;1.2576;-5.4332;
103.2000;1.2593;-5.4332;
103.5000;1.2601;-5.4384;
103.8000;1.2601;-5.4358;
104.1000;1.2584;-5.4384;
104.4000;1.2601;-5.4228;
104.7000;1.2584;-5.4228;
105.0000;1.2609;-5.4203;
105.3000;1.2601;-5.4203;
105.6000;1.2601;-5.4228;
105.9000;1.2617;-5.4177;
106.2000;1.2625;-5.4177;
106.5000;1.2609;-5.4254;
106.8000;1.2560;-5.4358;
107.1000;1.2617;-5.4306;
107.4000;1.2609;-5.4358;
107.7000;1.2609;-5.4306;
108.0000;1.2609;-5.4280;
108.3000;1.2625;-5.4332;
108.6000;1.2609;-5.4306;
108.9000;1.2617;-5.4280;
109.2000;1.2609;-5.4254;
109.5000;1.2609;-5.4254;
109.8000;1.2633;-5.4228;
110.1000;1.2609;-5.4254;
110.4000;1.2625;-5.4254;
110.7000;1.2650;-5.4099;
111.0000;1.2625;-5.4177;
111.3000;1.2625;-5.4151;
111.6000;1.2617;-5.4177;
111.9000;1.2674;-5.4125;
112.2000;1.2633;-5.4228;
112.5000;1.2633;-5.4203;
112.8000;1.2625;-5.4203;
113.1000;1.2633;-5.4177;
113.4000;1.2625;-5.4332;
113.7000;1.2633;-5.4332;
114.0000;1.2633;-5.4358;
114.3000;1.2658;-5.4384;
114.6000;1.2650;-5.4436;
114.9000;1.2641;-5.4462;
115.2000;1.2658;-5.4462;
115.5000;1.2641;-5.4514;
115.8000;1.2641;-5.4488;
116.1000;1.2666;-5.4488;
116.4000;1.2650;-5.4514;
116.7000;1.2658;-5.4566;
117.0000;1.2666;-5.4462;
117.3000;1.2666;-5.4488;
117.6000;1.2650;-5.4488;
117.9000;1.2658;-5.4436;
118.2000;1.2666;-5.4436;
118.5000;1.2666;-5.4332;
118.8000;1.2666;-5.4436;
119.1000;1.2666;-5.4410;
119.4000;1.2674;-5.4332;
119.7000;1.2658;-5.4436;
120.0000;1.2609;-5.4592;
120.3000;1.2666;-5.4410;
120.6000;1.2674;-5.4462;
120.9000;1.2698;-5.4358;
121.2000;1.2690;-5.4462;
121.5000;1.2682;-5.4410;
121.8000;1.2666;-5.4384;
122.1000;1.2674;-5.4306;
122.4000;1.2747;-5.4125;
122.7000;1.2698;-5.4203;
123.0000;1.2723;-5.4151;
123.3000;1.2633;-5.4358;
123.6000;1.2666;-5.4228;
123.9000;1.2666;-5.4228;
124.2000;1.2658;-5.4280;
124.5000;1.2658;-5.4254;
124.8000;1.2650;-5.4280;
125.1000;1.2682;-5.4228;
125.4000;1.2666;-5.4228;
125.7000;1.2674;-5.4254;
126.0000;1.2690;-5.4177;
126.3000;1.2698;-5.4254;
126.6000;1.2658;-5.4306;
126.9000;1.2690;-5.4254;
127.2000;1.2682;-5.4280;
127.5000;1.2698;-5.4280;
127.8000;1.2682;-5.4358;
128.1000;1.2666;-5.4332;
128.4000;1.2674;-5.4306;
128.7000;1.2674;-5.4332;
129.0000;1.2674;-5.4358;
129.3000;1.2674;-5.4436;
129.6000;1.2674;-5.4358;
129.9000;1.2690;-5.4332;
130.2000;1.2690;-5.4384;
130.5000;1.2690;-5.4332;
130.8000;1.2682;-5.4384;
131.1000;1.2690;-5.4410;
131.4000;1.2715;-5.4306;
131.7000;1.2707;-5.4332;
132.0000;1.2698;-5.4306;
132.3000;1.2690;-5.4228;
132.6000;1.2698;-5.4177;
132.9000;1.2707;-5.4177;
133.2000;1.2682;-5.4177;
133.5000;1.2698;-5.4203;
133.8000;1.2690;-5.4151;
134.1000;1.2723;-5.4099;
134.4000;1.2707;-5.4151;
134.7000;1.2707;-5.4177;
135.0000;1.2698;-5.4280;
135.3000;1.2690;-5.4254;
135.6000;1.2698;-5.4280;
135.9000;1.2690;-5.4306;
136.2000;1.2666;-5.4280;
136.5000;1.2698;-5.4228;
136.8000;1.2715;-5.4228;
137.1000;1.2682;-5.4384;
137.4000;1.2723;-5.4358;
137.7000;1.2698;-5.4436;
138.0000;1.2698;-5.4410;
138.3000;1.2780;-5.4332;
138.6000;1.2707;-5.4436;
138.9000;1.2715;-5.4384;
139.2000;1.2723;-5.4358;
139.5000;1.2747;-5.4306;
139.8000;1.2682;-5.4358;
140.1000;1.2707;-5.4410;
140.4000;1.2707;-5.4384;
140.7000;1.2698;-5.4384;
141.0000;1.2698;-5.4306;
141.3000;1.2707;-5.4280;
141.6000;1.2707;-5.4254;
141.9000;1.2707;-5.4280;
142.2000;1.2739;-5.4228;
142.5000;1.2723;-5.4358;
142.8000;1.2755;-5.4177;
143.1000;1.2731;-5.4332;
143.4000;1.2755;-5.4254;
143.7000;1.2731;-5.4332;
144.0000;1.2715;-5.4280;
144.3000;1.2690;-5.4384;
144.6000;1.2731;-5.4254;
144.9000;1.2641;-5.4643;
145.2000;1.2731;-5.4540;
145.5000;1.2731;-5.4540;
145.8000;1.2715;-5.4592;
146.1000;1.2723;-5.4695;
146.4000;1.2707;-5.4773;
146.7000;1.2731;-5.4592;
147.0000;1.2731;-5.4436;
147.3000;1.2715;-5.4358;
147.6000;1.2715;-5.4280;
147.9000;1.2731;-5.4228;
148.2000;1.2747;-5.4203;
148.5000;1.2731;-5.4280;
148.8000;1.2723;-5.4332;
149.1000;1.2731;-5.4306;
149.4000;1.2715;-5.4306;
149.7000;1.2739;-5.4177;
150.0000;1.2723;-5.4228;
150.3000;1.2715;-5.4254;
150.6000;1.2731;-5.4151;
150.9000;1.2731;-5.4151;
151.2000;1.2715;-5.4228;
151.5000;1.2707;-5.4151;
151.8000;1.2723;-5.4151;
152.1000;1.2747;-5.4125;
152.4000;1.2731;-5.4254;
152.7000;1.2731;-5.4280;
153.0000;1.2755;-5.4203;
153.3000;1.2747;-5.4228;
153.6000;1.2731;-5.4384;
153.9000;1.2739;-5.4306;
154.2000;1.2723;-5.4358;
154.5000;1.2755;-5.4332;
154.8000;1.2731;-5.4410;
155.1000;1.2707;-5.4436;
155.4000;1.2731;-5.4384;
155.7000;1.2747;-5.4436;
156.0000;1.2747;-5.4410;
156.3000;1.2747;-5.4306;
156.6000;1.2715;-5.4332;
156.9000;1.2731;-5.4332;
157.2000;1.2739;-5.4306;
157.5000;1.2739;-5.4280;
157.8000;1.2731;-5.4332;
158.1000;1.2747;-5.4306;
158.4000;1.2739;-5.4228;
158.7000;1.2747;-5.4228;
159.0000;1.2755;-5.4228;
159.3000;1.2747;-5.4254;
159.6000;1.2755;-5.4228;
159.9000;1.2764;-5.4254;
160.2000;1.2755;-5.4358;
160.5000;1.2739;-5.4306;
160.8000;1.2739;-5.4306;
161.1000;1.2739;-5.4358;
161.4000;1.2739;-5.4436;
161.7000;1.2731;-5.4436;
162.0000;1.2666;-5.4592;
162.3000;1.2739;-5.4462;
162.6000;1.2747;-5.4514;
162.9000;1.2747;-5.4436;
163.2000;1.2755;-5.4462;
163.5000;1.2715;-5.4566;
163.8000;1.2755;-5.4514;
164.1000;1.2731;-5.4514;
164.4000;1.2780;-5.4384;
164.7000;1.2739;-5.4462;
165.0000;1.2747;-5.4488;
165.3000;1.2715;-5.4488;
165.6000;1.2747;-5.4488;
165.9000;1.2788;-5.4436;
166.2000;1.2747;-5.4462;
166.5000;1.2755;-5.4514;
166.8000;1.2764;-5.4410;
167.1000;1.2755;-5.4462;
167.4000;1.2780;-5.4410;
167.7000;1.2772;-5.4462;
168.0000;1.2731;-5.4514;
168.3000;1.2764;-5.4410;
168.6000;1.2804;-5.4332;
168.9000;1.2812;-5.4306;
169.2000;1.2739;-5.4410;
169.5000;1.2764;-5.4384;
169.8000;1.2764;-5.4462;
170.1000;1.2780;-5.4410;
170.4000;1.2764;-5.4592;
170.7000;1.2764;-5.4488;
171.0000;1.2780;-5.4306;
171.3000;1.2723;-5.4566;
171.6000;1.2772;-5.4488;
171.9000;1.2764;-5.4540;
172.2000;1.2772;-5.4514;
172.5000;1.2764;-5.4514;
172.8000;1.2772;-5.4514;
173.1000;1.2755;-5.4462;
173.4000;1.2772;-5.4410;
173.7000;1.2772;-5.4384;
174.0000;1.2772;-5.4462;
174.3000;1.2764;-5.4540;
174.6000;1.2772;-5.4566;
174.9000;1.2739;-5.4643;
175.2000;1.2780;-5.4566;
175.5000;1.2764;-5.4669;
175.8000;1.2772;-5.4669;
176.1000;1.2755;-5.4799;
176.4000;1.2780;-5.4747;
176.7000;1.2772;-5.4825;
177.0000;1.2747;-5.4799;
177.3000;1.2764;-5.4773;
177.6000;1.2764;-5.4747;
177.9000;1.2764;-5.4721;
178.2000;1.2739;-5.4773;
178.5000;1.2755;-5.4721;
178.8000;1.2764;-5.4643;
179.1000;1.2755;-5.4643;
179.4000;1.2755;-5.4669;
179.7000;1.2755;-5.4643;
180.0000;1.2780;-5.4592;
180.3000;1.2780;-5.4592;
180.6000;1.2764;-5.4618;
180.9000;1.2755;-5.4669;
181.2000;1.2780;-5.4592;
181.5000;1.2780;-5.4540;
181.8000;1.2772;-5.4514;
182.1000;1.2772;-5.4566;
182.4000;1.2780;-5.4592;
182.7000;1.2772;-5.4618;
183.0000;1.2772;-5.4643;
183.3000;1.2772;-5.4618;
183.6000;1.2780;-5.4669;
183.9000;1.2772;-5.4618;
184.2000;1.2747;-5.4618;
184.5000;1.2772;-5.4566;
184.8000;1.2772;-5.4618;
185.1000;1.2772;-5.4592;
185.4000;1.2788;-5.4566;
185.7000;1.2731;-5.4747;
186.0000;1.2731;-5.4799;
186.3000;1.2764;-5.4669;
186.6000;1.2764;-5.4669;
186.9000;1.2788;-5.4618;
187.2000;1.2772;-5.4721;
187.5000;1.2780;-5.4695;
187.8000;1.2772;-5.4721;
188.1000;1.2780;-5.4799;
188.4000;1.2780;-5.4851;
188.7000;1.2772;-5.4903;
189.0000;1.2796;-5.4825;
189.3000;1.2780;-5.4877;
189.6000;1.2772;-5.4903;
189.9000;1.2755;-5.4955;
190.2000;1.2780;-5.4955;
190.5000;1.2788;-5.4903;
190.8000;1.2780;-5.4877;
191.1000;1.2764;-5.4929;
191.4000;1.2772;-5.4877;
191.7000;1.2788;-5.4747;
192.0000;1.2772;-5.4825;
192.3000;1.2764;-5.4929;
192.6000;1.2772;-5.4929;
192.9000;1.2772;-5.4903;
193.2000;1.2772;-5.4825;
193.5000;1.2731;-5.4877;
193.8000;1.2780;-5.4799;
194.1000;1.2747;-5.4773;
194.4000;1.2739;-5.4747;
194.7000;1.2764;-5.4669;
195.0000;1.2755;-5.4747;
195.3000;1.2755;-5.4825;
195.6000;1.2845;-5.4618;
195.9000;1.2780;-5.4695;
196.2000;1.2764;-5.4799;
196.5000;1.2780;-5.4799;
196.8000;1.2780;-5.4799;
197.1000;1.2772;-5.4747;
197.4000;1.2796;-5.4721;
197.7000;1.2764;-5.4851;
198.0000;1.2755;-5.4877;
198.3000;1.2780;-5.4799;
198.6000;1.2755;-5.4877;
198.9000;1.2764;-5.4851;
199.2000;1.2772;-5.4955;
199.5000;1.2764;-5.4929;
199.8000;1.2780;-5.4851;
200.1000;1.2780;-5.4877;
200.4000;1.2780;-5.4825;
200.7000;1.2788;-5.4721;
201.0000;1.2804;-5.4747;
201.3000;1.2796;-5.4721;
201.6000;1.2780;-5.4773;
201.9000;1.2796;-5.4695;
202.2000;1.2780;-5.4799;
202.5000;1.2788;-5.4721;
202.8000;1.2788;-5.4695;
203.1000;1.2796;-5.4643;
203.4000;1.2788;-5.4721;
203.7000;1.2772;-5.4773;
204.0000;1.2764;-5.4747;
204.3000;1.2780;-5.4669;
204.6000;1.2804;-5.4592;
204.9000;1.2796;-5.4618;
205.2000;1.2788;-5.4618;
205.5000;1.2796;-5.4643;
205.8000;1.2780;-5.4695;
206.1000;1.2780;-5.4825;
206.4000;1.2764;-5.4903;
206.7000;1.2788;-5.4825;
207.0000;1.2788;-5.4773;
207.3000;1.2788;-5.4721;
207.6000;1.2788;-5.4721;
207.9000;1.2780;-5.4747;
208.2000;1.2804;-5.4695;
208.5000;1.2788;-5.4721;
208.8000;1.2780;-5.4825;
209.1000;1.2796;-5.4721;
209.4000;1.2796;-5.4643;
209.7000;1.2788;-5.4669;
210.0000;1.2796;-5.4669;
210.3000;1.2715;-5.4877;
210.6000;1.2796;-5.4747;
210.9000;1.2780;-5.4955;
211.2000;1.2772;-5.4903;
211.5000;1.2788;-5.4851;
211.8000;1.2780;-5.4877;
212.1000;1.2788;-5.4929;
212.4000;1.2804;-5.4851;
212.7000;1.2780;-5.4877;
213.0000;1.2804;-5.4773;
213.3000;1.2804;-5.4721;
213.6000;1.2788;-5.4721;
213.9000;1.2772;-5.4799;
214.2000;1.2780;-5.4825;
214.5000;1.2780;-5.4721;
214.8000;1.2804;-5.4566;
215.1000;1.2788;-5.4514;
215.4000;1.2796;-5.4514;
215.7000;1.2796;-5.4410;
216.0000;1.2796;-5.4514;
216.3000;1.2804;-5.4488;
216.6000;1.2788;-5.4488;
216.9000;1.2755;-5.4618;
217.2000;1.2739;-5.4618;
217.5000;1.2739;-5.4618;
217.8000;1.2780;-5.4462;
218.1000;1.2780;-5.4514;
218.4000;1.2829;-5.4462;
218.7000;1.2796;-5.4514;
219.0000;1.2780;-5.4488;
219.3000;1.2780;-5.4618;
219.6000;1.2845;-5.4462;
219.9000;1.2788;-5.4540;
220.2000;1.2796;-5.4618;
220.5000;1.2788;-5.4566;
220.8000;1.2788;-5.4566;
221.1000;1.2796;-5.4462;
221.4000;1.2804;-5.4462;
221.7000;1.2796;-5.4514;
222.0000;1.2812;-5.4488;
222.3000;1.2764;-5.4643;
222.6000;1.2796;-5.4592;
222.9000;1.2780;-5.4618;
223.2000;1.2796;-5.4643;
223.5000;1.2796;-5.4566;
223.8000;1.2812;-5.4566;
224.1000;1.2796;-5.4540;
224.4000;1.2788;-5.4540;
224.7000;1.2788;-5.4566;
225.0000;1.2796;-5.4566;
225.3000;1.2780;-5.4618;
225.6000;1.2804;-5.4566;
225.9000;1.2788;-5.4721;
226.2000;1.2837;-5.4618;
226.5000;1.2821;-5.4721;
226.8000;1.2804;-5.4695;
227.1000;1.2804;-5.4669;
227.4000;1.2812;-5.4643;
227.7000;1.2812;-5.4618;
228.0000;1.2788;-5.4669;
228.3000;1.2796;-5.4669;
228.6000;1.2788;-5.4695;
228.9000;1.2788;-5.4695;
229.2000;1.2821;-5.4618;
229.5000;1.2780;-5.4618;
229.8000;1.2796;-5.4514;
230.1000;1.2788;-5.4488;
230.4000;1.2788;-5.4566;
230.7000;1.2780;-5.4540;
231.0000;1.2739;-5.4618;
231.3000;1.2780;-5.4540;
231.6000;1.2780;-5.4488;
231.9000;1.2796;-5.4514;
232.2000;1.2780;-5.4618;
232.5000;1.2796;-5.4488;
232.8000;1.2780;-5.4540;
233.1000;1.2780;-5.4514;
233.4000;1.2723;-5.4669;
233.7000;1.2788;-5.4618;
234.0000;1.2910;-5.4306;
234.3000;1.2886;-5.4436;
234.6000;1.2804;-5.4747;
234.9000;1.2812;-5.4747;
235.2000;1.2796;-5.4721;
235.5000;1.2796;-5.4721;
235.8000;1.2861;-5.4618;
236.1000;1.2707;-5.5007;
236.4000;1.2804;-5.4799;
236.7000;1.2812;-5.4721;
237.0000;1.2829;-5.4721;
237.3000;1.2788;-5.4773;
237.6000;1.2788;-5.4721;
237.9000;1.2739;-5.4877;
238.2000;1.2796;-5.4799;
238.5000;1.2796;-5.4903;
238.8000;1.2812;-5.4903;
239.1000;1.2780;-5.4903;
239.4000;1.2804;-5.4877;
239.7000;1.2788;-5.4929;
240.0000;1.2804;-5.4851;
240.3000;1.2788;-5.4903;
240.6000;1.2796;-5.4929;
240.9000;1.2772;-5.5084;
241.2000;1.2788;-5.5007;
241.5000;1.2772;-5.5032;
241.8000;1.2796;-5.4877;
242.1000;1.2796;-5.4903;
242.4000;1.2788;-5.4851;
242.7000;1.2821;-5.4643;
243.0000;1.2788;-5.4592;
243.3000;1.2788;-5.4618;
243.6000;1.2780;-5.4592;
243.9000;1.2788;-5.4618;
244.2000;1.2780;-5.4592;
244.5000;1.2788;-5.4566;
244.8000;1.2804;-5.4618;
245.1000;1.2804;-5.4618;
245.4000;1.2821;-5.4592;
245.7000;1.2804;-5.4618;
246.0000;1.2796;-5.4669;
246.3000;1.2804;-5.4618;
246.6000;1.2796;-5.4669;
246.9000;1.2812;-5.4643;
247.2000;1.2796;-5.4695;
247.5000;1.2804;-5.4695;
247.8000;1.2796;-5.4643;
248.1000;1.2780;-5.4669;
248.4000;1.2812;-5.4566;
248.7000;1.2788;-5.4592;
249.0000;1.2788;-5.4566;
249.3000;1.2804;-5.4514;
249.6000;1.2796;-5.4566;
249.9000;1.2788;-5.4540;
250.2000;1.2796;-5.4462;
250.5000;1.2796;-5.4514;
250.8000;1.2796;-5.4540;
251.1000;1.2772;-5.4695;
251.4000;1.2788;-5.4669;
251.7000;1.2804;-5.4618;
252.0000;1.2780;-5.4566;
252.3000;1.2755;-5.4592;
252.6000;1.2788;-5.4488;
252.9000;1.2804;-5.4514;
253.2000;1.2812;-5.4618;
253.5000;1.2796;-5.4669;
253.8000;1.2796;-5.4669;
254.1000;1.2780;-5.4566;
254.4000;1.2812;-5.4540;
254.7000;1.2788;-5.4643;
255.0000;1.2845;-5.4462;
255.3000;1.2772;-5.4540;
255.6000;1.2788;-5.4540;
255.9000;1.2780;-5.4618;
256.2000;1.2772;-5.4695;
256.5000;1.2780;-5.4721;
256.8000;1.2804;-5.4721;
257.1000;1.2755;-5.4799;
257.4000;1.2894;-5.4566;
257.7000;1.2796;-5.4773;
258.0000;1.2739;-5.4877;
258.3000;1.2796;-5.4695;
258.6000;1.2804;-5.4695;
258.9000;1.2796;-5.4618;
259.2000;1.2812;-5.4592;
259.5000;1.2804;-5.4643;
259.8000;1.2788;-5.4643;
260.1000;1.2829;-5.4514;
260.4000;1.2780;-5.4695;
260.7000;1.2796;-5.4618;
261.0000;1.2780;-5.4669;
261.3000;1.2788;-5.4695;
261.6000;1.2812;-5.4592;
261.9000;1.2755;-5.4669;
262.2000;1.2764;-5.4669;
262.5000;1.2796;-5.4592;
262.8000;1.2829;-5.4514;
263.1000;1.2804;-5.4566;
263.4000;1.2804;-5.4721;
263.7000;1.2796;-5.4643;
264.0000;1.2804;-5.4540;
264.3000;1.2796;-5.4566;
264.6000;1.2812;-5.4566;
264.9000;1.2796;-5.4618;
265.2000;1.2715;-5.4851;
265.5000;1.2780;-5.4695;
265.8000;1.2780;-5.4747;
266.1000;1.2788;-5.4799;
266.4000;1.2780;-5.4695;
266.7000;1.2780;-5.4721;
267.0000;1.2788;-5.4618;
267.3000;1.2796;-5.4540;
267.6000;1.2780;-5.4540;
267.9000;1.2772;-5.4514;
268.2000;1.2796;-5.4514;
268.5000;1.2796;-5.4566;
268.8000;1.2796;-5.4643;
269.1000;1.2796;-5.4592;
269.4000;1.2788;-5.4643;
269.7000;1.2796;-5.4514;
270.0000;1.2796;-5.4514;
270.3000;1.2788;-5.4566;
270.6000;1.2788;-5.4540;
270.9000;1.2804;-5.4566;
271.2000;1.2747;-5.4695;
271.5000;1.2804;-5.4566;
271.8000;1.2788;-5.4669;
272.1000;1.2788;-5.4695;
272.4000;1.2812;-5.4643;
272.7000;1.2812;-5.4695;
273.0000;1.2804;-5.4669;
273.3000;1.2829;-5.4566;
273.6000;1.2869;-5.4540;
273.9000;1.2788;-5.4643;
274.2000;1.2788;-5.4566;
274.5000;1.2804;-5.4514;
274.8000;1.2715;-5.4643;
275.1000;1.2796;-5.4410;
275.4000;1.2788;-5.4488;
275.7000;1.2772;-5.4566;
276.0000;1.2788;-5.4566;
276.3000;1.2837;-5.4462;
276.6000;1.2796;-5.4540;
276.9000;1.2812;-5.4514;
277.2000;1.2812;-5.4540;
277.5000;1.2812;-5.4514;
277.8000;1.2796;-5.4488;
278.1000;1.2780;-5.4566;
278.4000;1.2821;-5.4462;
278.7000;1.2812;-5.4514;
279.0000;1.2812;-5.4566;
279.3000;1.2780;-5.4643;
279.6000;1.2788;-5.4669;
279.9000;1.2780;-5.4695;
280.2000;1.2788;-5.4566;
280.5000;1.2796;-5.4566;
280.8000;1.2780;-5.4618;
281.1000;1.2796;-5.4618;
281.4000;1.2780;-5.4695;
281.7000;1.2772;-5.4799;
282.0000;1.2780;-5.4695;
282.3000;1.2796;-5.4669;
282.6000;1.2796;-5.4669;
282.9000;1.2772;-5.4799;
283.2000;1.2788;-5.4825;
283.5000;1.2804;-5.4721;
283.8000;1.2796;-5.4618;
284.1000;1.2780;-5.4618;
284.4000;1.2796;-5.4514;
284.7000;1.2764;-5.4488;
285.0000;1.2764;-5.4488;
285.3000;1.2780;-5.4514;
285.6000;1.2804;-5.4436;
285.9000;1.2739;-5.4643;
286.2000;1.2796;-5.4540;
286.5000;1.2821;-5.4462;
286.8000;1.2788;-5.4514;
287.1000;1.2707;-5.4514;
287.4000;1.2780;-5.4332;
287.7000;1.2780;-5.4306;
288.0000;1.2812;-5.4280;
288.3000;1.2812;-5.4410;
288.6000;1.2739;-5.4643;
288.9000;1.2804;-5.4540;
289.2000;1.2755;-5.4592;
289.5000;1.2788;-5.4514;
289.8000;1.2788;-5.4514;
290.1000;1.2812;-5.4488;
290.4000;1.2804;-5.4488;
290.7000;1.2780;-5.4488;
291.0000;1.2780;-5.4410;
291.3000;1.2772;-5.4332;
291.6000;1.2780;-5.4332;
291.9000;1.2772;-5.4306;
292.2000;1.2780;-5.4358;
292.5000;1.2780;-5.4384;
292.8000;1.2796;-5.4203;
293.1000;1.2780;-5.4280;
293.4000;1.2837;-5.4203;
293.7000;1.2804;-5.4203;
294.0000;1.2804;-5.4203;
294.3000;1.2812;-5.4203;
294.6000;1.2821;-5.4306;
294.9000;1.2804;-5.4436;
295.2000;1.2796;-5.4462;
295.5000;1.2804;-5.4280;
295.8000;1.2788;-5.4280;
296.1000;1.2804;-5.4280;
296.4000;1.2804;-5.4358;
296.7000;1.2788;-5.4358;
297.0000;1.2788;-5.4332;
297.3000;1.2804;-5.4332;
297.6000;1.2804;-5.4410;
297.9000;1.2812;-5.4488;
298.2000;1.2796;-5.4566;
298.5000;1.2796;-5.4514;
298.8000;1.2796;-5.4566;
299.1000;1.2796;-5.4410;
299.4000;1.2812;-5.4410;
299.7000;1.2804;-5.4436;
300.0000;1.2796;-5.4462;
300.3000;1.2764;-5.4514;
300.6000;1.2812;-5.4410;
300.9000;1.2788;-5.4436;
301.2000;1.2796;-5.4462;
301.5000;1.2764;-5.4436;
301.8000;1.2788;-5.4384;
302.1000;1.2788;-5.4332;
302.4000;1.2804;-5.4280;
302.7000;1.2731;-5.4436;
303.0000;1.2829;-5.4280;
303.3000;1.2788;-5.4462;
303.6000;1.2698;-5.4566;
303.9000;1.2812;-5.4306;
304.2000;1.2812;-5.4280;
304.5000;1.2698;-5.4592;
304.8000;1.2739;-5.4566;
305.1000;1.2755;-5.4488;
305.4000;1.2772;-5.4332;
305.7000;1.2788;-5.4332;
306.0000;1.2731;-5.4514;
306.3000;1.2772;-5.4488;
306.6000;1.2821;-5.4280;
306.9000;1.2788;-5.4410;
307.2000;1.2780;-5.4384;
307.5000;1.2804;-5.4254;
307.8000;1.2780;-5.4358;
308.1000;1.2780;-5.4306;
308.4000;1.2780;-5.4332;
308.7000;1.2780;-5.4332;
309.0000;1.2780;-5.4410;
309.3000;1.2837;-5.4306;
309.6000;1.2804;-5.4384;
309.9000;1.2772;-5.4436;
310.2000;1.2804;-5.4332;
310.5000;1.2772;-5.4358;
310.8000;1.2796;-5.4306;
311.1000;1.2747;-5.4436;
311.4000;1.2747;-5.4488;
311.7000;1.2755;-5.4514;
312.0000;1.2796;-5.4384;
312.3000;1.2764;-5.4514;
312.6000;1.2772;-5.4436;
312.9000;1.2764;-5.4514;
313.2000;1.2788;-5.4488;
313.5000;1.2764;-5.4540;
313.8000;1.2772;-5.4462;
314.1000;1.2780;-5.4514;
314.4000;1.2772;-5.4436;
314.7000;1.2772;-5.4488;
315.0000;1.2804;-5.4384;
315.3000;1.2796;-5.4410;
315.6000;1.2796;-5.4462;
315.9000;1.2804;-5.4436;
316.2000;1.2804;-5.4384;
316.5000;1.2788;-5.4410;
316.8000;1.2796;-5.4462;
317.1000;1.2780;-5.4488;
317.4000;1.2780;-5.4540;
317.7000;1.2780;-5.4592;
318.0000;1.2780;-5.4540;
318.3000;1.2764;-5.4540;
318.6000;1.2788;-5.4514;
318.9000;1.2796;-5.4514;
319.2000;1.2788;-5.4566;
319.5000;1.2804;-5.4462;
319.8000;1.2853;-5.4358;
320.1000;1.2804;-5.4592;
320.4000;1.2788;-5.4643;
320.7000;1.2796;-5.4669;
321.0000;1.2788;-5.4592;
321.3000;1.2780;-5.4566;
321.6000;1.2788;-5.4566;
321.9000;1.2796;-5.4488;
322.2000;1.2788;-5.4462;
322.5000;1.2812;-5.4384;
322.8000;1.2788;-5.4410;
323.1000;1.2772;-5.4462;
323.4000;1.2788;-5.4514;
323.7000;1.2788;-5.4462;
324.0000;1.2780;-5.4462;
324.3000;1.2780;-5.4514;
324.6000;1.2796;-5.4488;
324.9000;1.2796;-5.4436;
325.2000;1.2788;-5.4462;
325.5000;1.2796;-5.4514;
325.8000;1.2780;-5.4462;
326.1000;1.2853;-5.4177;
326.4000;1.2755;-5.4514;
326.7000;1.2780;-5.4488;
327.0000;1.2812;-5.4488;
327.3000;1.2812;-5.4410;
327.6000;1.2788;-5.4488;
327.9000;1.2788;-5.4514;
328.2000;1.2780;-5.4514;
328.5000;1.2796;-5.4514;
328.8000;1.2780;-5.4540;
329.1000;1.2804;-5.4462;
329.4000;1.2812;-5.4384;
329.7000;1.2796;-5.4436;
330.0000;1.2764;-5.4436;
330.3000;1.2796;-5.4306;
330.6000;1.2796;-5.4332;
330.9000;1.2780;-5.4410;
331.2000;1.2780;-5.4436;
331.5000;1.2804;-5.4410;
331.8000;1.2796;-5.4436;
332.1000;1.2804;-5.4488;
332.4000;1.2788;-5.4436;
332.7000;1.2764;-5.4488;
333.0000;1.2788;-5.4436;
333.3000;1.2723;-5.4566;
333.6000;1.2772;-5.4566;
333.9000;1.2788;-5.4540;
334.2000;1.2796;-5.4540;
334.5000;1.2780;-5.4540;
334.8000;1.2796;-5.4462;
335.1000;1.2796;-5.4540;
335.4000;1.2796;-5.4540;
335.7000;1.2772;-5.4592;
336.0000;1.2804;-5.4514;
336.3000;1.2796;-5.4540;
336.6000;1.2796;-5.4488;
336.9000;1.2796;-5.4514;
337.2000;1.2780;-5.4618;
337.5000;1.2788;-5.4643;
337.8000;1.2788;-5.4540;
338.1000;1.2788;-5.4514;
338.4000;1.2788;-5.4436;
338.7000;1.2772;-5.4514;
339.0000;1.2788;-5.4514;
339.3000;1.2780;-5.4514;
339.6000;1.2772;-5.4540;
339.9000;1.2780;-5.4514;
340.2000;1.2780;-5.4514;
340.5000;1.2796;-5.4488;
340.8000;1.2788;-5.4488;
341.1000;1.2772;-5.4436;
341.4000;1.2804;-5.4436;
341.7000;1.2845;-5.4358;
342.0000;1.2788;-5.4566;
342.3000;1.2804;-5.4566;
342.6000;1.2804;-5.4540;
342.9000;1.2796;-5.4566;
343.2000;1.2788;-5.4618;
343.5000;1.2788;-5.4618;
343.8000;1.2780;-5.4695;
344.1000;1.2788;-5.4643;
344.4000;1.2747;-5.4695;
344.7000;1.2764;-5.4669;
345.0000;1.2780;-5.4566;
345.3000;1.2804;-5.4540;
345.6000;1.2796;-5.4540;
345.9000;1.2772;-5.4592;
346.2000;1.2755;-5.4618;
346.5000;1.2723;-5.4669;
346.8000;1.2788;-5.4540;
347.1000;1.2731;-5.4695;
347.4000;1.2747;-5.4618;
347.7000;1.2764;-5.4643;
348.0000;1.2707;-5.4669;
348.3000;1.2772;-5.4514;
348.6000;1.2764;-5.4514;
348.9000;1.2788;-5.4332;
349.2000;1.2796;-5.4280;
349.5000;1.2739;-5.4436;
349.8000;1.2772;-5.4358;
350.1000;1.2755;-5.4332;
350.4000;1.2772;-5.4332;
350.7000;1.2772;-5.4332;
351.0000;1.2764;-5.4410;
351.3000;1.2764;-5.4436;
351.6000;1.2780;-5.4384;
351.9000;1.2788;-5.4384;
352.2000;1.2772;-5.4306;
352.5000;1.2755;-5.4358;
352.8000;1.2780;-5.4306;
353.1000;1.2780;-5.4254;
353.4000;1.2796;-5.4203;
353.7000;1.2780;-5.4306;
354.0000;1.2780;-5.4332;
354.3000;1.2861;-5.4177;
354.6000;1.2788;-5.4384;
354.9000;1.2747;-5.4410;
355.2000;1.2788;-5.4358;
355.5000;1.2772;-5.4410;
355.8000;1.2780;-5.4514;
356.1000;1.2707;-5.4695;
356.4000;1.2780;-5.4592;
356.7000;1.2755;-5.4695;
357.0000;1.2772;-5.4566;
357.3000;1.2739;-5.4773;
357.6000;1.2772;-5.4669;
357.9000;1.2731;-5.4721;
358.2000;1.2755;-5.4643;
358.5000;1.2780;-5.4488;
358.8000;1.2764;-5.4514;
359.1000;1.2772;-5.4540;
359.4000;1.2772;-5.4566;
359.7000;1.2764;-5.4566;
360.0000;1.2780;-5.4618;
360.3000;1.2788;-5.4592;
360.6000;1.2772;-5.4695;
360.9000;1.2772;-5.4643;
361.2000;1.2755;-5.4592;
361.5000;1.2772;-5.4618;
361.8000;1.2772;-5.4618;
362.1000;1.2796;-5.4566;
362.4000;1.2764;-5.4669;
362.7000;1.2788;-5.4695;
363.0000;1.2804;-5.4592;
363.3000;1.2853;-5.4410;
363.6000;1.2812;-5.4462;
363.9000;1.2772;-5.4436;
364.2000;1.2764;-5.4436;
364.5000;1.2804;-5.4384;
364.8000;1.2764;-5.4514;
365.1000;1.2764;-5.4488;
365.4000;1.2772;-5.4514;
365.7000;1.2780;-5.4462;
366.0000;1.2796;-5.4488;
366.3000;1.2796;-5.4436;
366.6000;1.2796;-5.4462;
366.9000;1.2861;-5.4280;
367.2000;1.2845;-5.4280;
367.5000;1.2796;-5.4332;
367.8000;1.2804;-5.4384;
368.1000;1.2796;-5.4410;
368.4000;1.2755;-5.4514;
368.7000;1.2780;-5.4410;
369.0000;1.2764;-5.4410;
369.3000;1.2780;-5.4358;
369.6000;1.2796;-5.4384;
369.9000;1.2764;-5.4410;
370.2000;1.2780;-5.4332;
370.5000;1.2804;-5.4384;
370.8000;1.2780;-5.4540;
371.1000;1.2780;-5.4592;
371.4000;1.2812;-5.4488;
371.7000;1.2788;-5.4643;
372.0000;1.2780;-5.4488;
372.3000;1.2764;-5.4488;
372.6000;1.2796;-5.4488;
372.9000;1.2772;-5.4488;
373.2000;1.2780;-5.4488;
373.5000;1.2731;-5.4592;
373.8000;1.2788;-5.4462;
374.1000;1.2772;-5.4410;
374.4000;1.2796;-5.4332;
374.7000;1.2780;-5.4358;
375.0000;1.2780;-5.4410;
375.3000;1.2772;-5.4488;
375.6000;1.2772;-5.4488;
375.9000;1.2780;-5.4514;
376.2000;1.2707;-5.4695;
376.5000;1.2755;-5.4618;
376.8000;1.2772;-5.4488;
377.1000;1.2772;-5.4462;
377.4000;1.2788;-5.4462;
377.7000;1.2796;-5.4488;
378.0000;1.2772;-5.4592;
378.3000;1.2780;-5.4514;
378.6000;1.2788;-5.4540;
378.9000;1.2764;-5.4695;
379.2000;1.2788;-5.4618;
379.5000;1.2788;-5.4643;
379.8000;1.2772;-5.4592;
380.1000;1.2755;-5.4618;
380.4000;1.2772;-5.4618;
380.7000;1.2764;-5.4592;
381.0000;1.2772;-5.4669;
381.3000;1.2755;-5.4669;
381.6000;1.2780;-5.4618;
381.9000;1.2764;-5.4566;
382.2000;1.2764;-5.4540;
382.5000;1.2780;-5.4462;
382.8000;1.2772;-5.4540;
383.1000;1.2764;-5.4540;
383.4000;1.2772;-5.4514;
383.7000;1.2780;-5.4462;
384.0000;1.2821;-5.4410;
384.3000;1.2764;-5.4540;
384.6000;1.2764;-5.4540;
384.9000;1.2780;-5.4540;
385.2000;1.2739;-5.4592;
385.5000;1.2764;-5.4514;
385.8000;1.2764;-5.4514;
386.1000;1.2755;-5.4592;
386.4000;1.2772;-5.4566;
386.7000;1.2755;-5.4669;
387.0000;1.2764;-5.4695;
387.3000;1.2723;-5.4721;
387.6000;1.2772;-5.4566;
387.9000;1.2755;-5.4643;
388.2000;1.2747;-5.4643;
388.5000;1.2755;-5.4566;
388.8000;1.2772;-5.4514;
389.1000;1.2764;-5.4358;
389.4000;1.2755;-5.4436;
389.7000;1.2755;-5.4436;
390.0000;1.2804;-5.4410;
390.3000;1.2780;-5.4514;
390.6000;1.2747;-5.4566;
390.9000;1.2747;-5.4488;
391.2000;1.2755;-5.4410;
391.5000;1.2755;-5.4436;
391.8000;1.2764;-5.4384;
392.1000;1.2772;-5.4358;
392.4000;1.2764;-5.4462;
392.7000;1.2780;-5.4436;
393.0000;1.2772;-5.4436;
393.3000;1.2764;-5.4410;
393.6000;1.2755;-5.4436;
393.9000;1.2772;-5.4488;
394.2000;1.2796;-5.4514;
394.5000;1.2755;-5.4488;
394.8000;1.2772;-5.4410;
395.1000;1.2764;-5.4384;
395.4000;1.2739;-5.4540;
395.7000;1.2764;-5.4514;
396.0000;1.2780;-5.4384;
396.3000;1.2747;-5.4384;
396.6000;1.2780;-5.4384;
396.9000;1.2764;-5.4332;
397.2000;1.2772;-5.4280;
397.5000;1.2755;-5.4280;
397.8000;1.2772;-5.4228;
398.1000;1.2788;-5.4254;
398.4000;1.2755;-5.4280;
398.7000;1.2764;-5.4177;
399.0000;1.2780;-5.4151;
399.3000;1.2772;-5.4254;
399.6000;1.2772;-5.4358;
399.9000;1.2861;-5.4203;
400.2000;1.2764;-5.4384;
400.5000;1.2747;-5.4410;
400.8000;1.2804;-5.4306;
401.1000;1.2764;-5.4384;
401.4000;1.2764;-5.4410;
401.7000;1.2772;-5.4384;
402.0000;1.2641;-5.4618;
402.3000;1.2812;-5.4177;
402.6000;1.2772;-5.4177;
402.9000;1.2715;-5.4332;
403.2000;1.2788;-5.4228;
403.5000;1.2764;-5.4384;
403.8000;1.2764;-5.4410;
404.1000;1.2731;-5.4488;
404.4000;1.2772;-5.4306;
404.7000;1.2739;-5.4384;
405.0000;1.2731;-5.4410;
405.3000;1.2747;-5.4384;
405.6000;1.2772;-5.4332;
405.9000;1.2772;-5.4306;
406.2000;1.2731;-5.4306;
406.5000;1.2747;-5.4203;
406.8000;1.2755;-5.4203;
407.1000;1.2764;-5.4332;
407.4000;1.2772;-5.4306;
407.7000;1.2747;-5.4358;
408.0000;1.2764;-5.4254;
408.3000;1.2739;-5.4410;
408.6000;1.2755;-5.4358;
408.9000;1.2772;-5.4410;
409.2000;1.2780;-5.4410;
409.5000;1.2772;-5.4410;
409.8000;1.2698;-5.4540;
410.1000;1.2755;-5.4410;
410.4000;1.2780;-5.4358;
410.7000;1.2772;-5.4280;
411.0000;1.2764;-5.4228;
411.3000;1.2747;-5.4280;
411.6000;1.2755;-5.4306;
411.9000;1.2755;-5.4228;
412.2000;1.2764;-5.4177;
412.5000;1.2731;-5.4358;
412.8000;1.2755;-5.4306;
413.1000;1.2755;-5.4332;
413.4000;1.2755;-5.4306;
413.7000;1.2755;-5.4306;
414.0000;1.2723;-5.4436;
414.3000;1.2772;-5.4306;
414.6000;1.2715;-5.4540;
414.9000;1.2747;-5.4436;
415.2000;1.2731;-5.4462;
415.5000;1.2764;-5.4410;
415.8000;1.2755;-5.4410;
416.1000;1.2764;-5.4410;
416.4000;1.2796;-5.4306;
416.7000;1.2747;-5.4358;
417.0000;1.2804;-5.4254;
417.3000;1.2755;-5.4306;
417.6000;1.2755;-5.4306;
417.9000;1.2780;-5.4306;
418.2000;1.2755;-5.4254;
418.5000;1.2707;-5.4462;
418.8000;1.2747;-5.4410;
419.1000;1.2739;-5.4488;
419.4000;1.2747;-5.4410;
419.7000;1.2837;-5.4151;
420.0000;1.2780;-5.4280;
420.3000;1.2788;-5.4332;
420.6000;1.2739;-5.4436;
420.9000;1.2764;-5.4384;
421.2000;1.2747;-5.4462;
421.5000;1.2747;-5.4488;
421.8000;1.2772;-5.4514;
422.1000;1.2796;-5.4462;
422.4000;1.2764;-5.4488;
422.7000;1.2731;-5.4514;
423.0000;1.2698;-5.4566;
423.3000;1.2739;-5.4384;
423.6000;1.2747;-5.4358;
423.9000;1.2747;-5.4358;
424.2000;1.2755;-5.4254;
424.5000;1.2764;-5.4203;
424.8000;1.2739;-5.4280;
425.1000;1.2780;-5.4151;
425.4000;1.2764;-5.4177;
425.7000;1.2755;-5.4228;
426.0000;1.2804;-5.4073;
426.3000;1.2715;-5.4332;
426.6000;1.2747;-5.4280;
426.9000;1.2723;-5.4332;
427.2000;1.2764;-5.4151;
427.5000;1.2755;-5.4151;
427.8000;1.2747;-5.4203;
428.1000;1.2755;-5.4228;
428.4000;1.2780;-5.4254;
428.7000;1.2772;-5.4228;
429.0000;1.2821;-5.4151;
429.3000;1.2755;-5.4384;
429.6000;1.2764;-5.4358;
429.9000;1.2755;-5.4306;
430.2000;1.2780;-5.4358;
430.5000;1.2772;-5.4306;
430.8000;1.2739;-5.4280;
431.1000;1.2747;-5.4306;
431.4000;1.2755;-5.4332;
431.7000;1.2755;-5.4410;
432.0000;1.2739;-5.4436;
432.3000;1.2739;-5.4436;
432.6000;1.2747;-5.4488;
432.9000;1.2747;-5.4540;
433.2000;1.2739;-5.4566;
433.5000;1.2747;-5.4592;
433.8000;1.2764;-5.4436;
434.1000;1.2755;-5.4384;
434.4000;1.2755;-5.4358;
434.7000;1.2764;-5.4358;
435.0000;1.2739;-5.4358;
435.3000;1.2755;-5.4280;
435.6000;1.2755;-5.4203;
435.9000;1.2731;-5.4306;
436.2000;1.2788;-5.4203;
436.5000;1.2755;-5.4228;
436.8000;1.2747;-5.4254;
437.1000;1.2755;-5.4254;
437.4000;1.2723;-5.4384;
437.7000;1.2739;-5.4384;
438.0000;1.2739;-5.4410;
438.3000;1.2747;-5.4514;
438.6000;1.2747;-5.4540;
438.9000;1.2755;-5.4540;
439.2000;1.2747;-5.4540;
439.5000;1.2731;-5.4566;
439.8000;1.2747;-5.4462;
440.1000;1.2747;-5.4436;
440.4000;1.2764;-5.4436;
440.7000;1.2739;-5.4410;
441.0000;1.2739;-5.4332;
441.3000;1.2772;-5.4280;
441.6000;1.2747;-5.4358;
441.9000;1.2723;-5.4410;
442.2000;1.2731;-5.4332;
442.5000;1.2821;-5.4203;
442.8000;1.2731;-5.4384;
443.1000;1.2707;-5.4514;
443.4000;1.2715;-5.4462;
443.7000;1.2747;-5.4410;
444.0000;1.2755;-5.4332;
444.3000;1.2723;-5.4384;
444.6000;1.2747;-5.4280;
444.9000;1.2755;-5.4280;
445.2000;1.2772;-5.4280;
445.5000;1.2755;-5.4332;
445.8000;1.2780;-5.4280;
446.1000;1.2747;-5.4332;
446.4000;1.2764;-5.4306;
446.7000;1.2772;-5.4280;
447.0000;1.2764;-5.4280;
447.3000;1.2739;-5.4306;
447.6000;1.2747;-5.4358;
447.9000;1.2739;-5.4332;
448.2000;1.2764;-5.4358;
448.5000;1.2731;-5.4488;
448.8000;1.2747;-5.4384;
449.1000;1.2747;-5.4280;
449.4000;1.2755;-5.4254;
449.7000;1.2764;-5.4254;
450.0000;1.2747;-5.4306;
450.3000;1.2764;-5.4332;
450.6000;1.2755;-5.4358;
450.9000;1.2739;-5.4436;
451.2000;1.2755;-5.4384;
451.5000;1.2755;-5.4358;
451.8000;1.2764;-5.4306;
452.1000;1.2739;-5.4306;
452.4000;1.2731;-5.4280;
452.7000;1.2755;-5.4280;
453.0000;1.2764;-5.4358;
453.3000;1.2731;-5.4436;
453.6000;1.2739;-5.4462;
453.9000;1.2739;-5.4488;
454.2000;1.2747;-5.4410;
454.5000;1.2747;-5.4488;
454.8000;1.2755;-5.4540;
455.1000;1.2747;-5.4514;
455.4000;1.2739;-5.4488;
455.7000;1.2747;-5.4514;
456.0000;1.2739;-5.4514;
456.3000;1.2739;-5.4592;
456.6000;1.2755;-5.4410;
456.9000;1.2764;-5.4384;
457.2000;1.2755;-5.4254;
457.5000;1.2739;-5.4306;
457.8000;1.2731;-5.4254;
458.1000;1.2747;-5.4306;
458.4000;1.2804;-5.4254;
458.7000;1.2739;-5.4462;
459.0000;1.2739;-5.4488;
459.3000;1.2812;-5.4280;
459.6000;1.2755;-5.4358;
459.9000;1.2747;-5.4384;
460.2000;1.2755;-5.4436;
460.5000;1.2747;-5.4462;
460.8000;1.2755;-5.4462;
461.1000;1.2731;-5.4436;
461.4000;1.2747;-5.4358;
461.7000;1.2804;-5.4125;
462.0000;1.2747;-5.4332;
462.3000;1.2723;-5.4410;
462.6000;1.2739;-5.4514;
462.9000;1.2731;-5.4566;
463.2000;1.2731;-5.4592;
463.5000;1.2747;-5.4618;
463.8000;1.2739;-5.4643;
464.1000;1.2723;-5.4592;
464.4000;1.2747;-5.4514;
464.7000;1.2739;-5.4566;
465.0000;1.2747;-5.4643;
465.3000;1.2731;-5.4618;
465.6000;1.2739;-5.4566;
465.9000;1.2764;-5.4566;
466.2000;1.2747;-5.4540;
466.5000;1.2788;-5.4410;
466.8000;1.2747;-5.4488;
467.1000;1.2755;-5.4514;
467.4000;1.2747;-5.4436;
467.7000;1.2739;-5.4410;
468.0000;1.2788;-5.4280;
468.3000;1.2739;-5.4384;
468.6000;1.2755;-5.4358;
468.9000;1.2747;-5.4462;
469.2000;1.2755;-5.4488;
469.5000;1.2755;-5.4384;
469.8000;1.2755;-5.4410;
470.1000;1.2755;-5.4462;
470.4000;1.2747;-5.4488;
470.7000;1.2755;-5.4462;
471.0000;1.2747;-5.4540;
471.3000;1.2755;-5.4592;
471.6000;1.2747;-5.4618;
471.9000;1.2739;-5.4462;
472.2000;1.2739;-5.4514;
472.5000;1.2747;-5.4540;
472.8000;1.2731;-5.4514;
473.1000;1.2731;-5.4540;
473.4000;1.2723;-5.4540;
473.7000;1.2731;-5.4514;
474.0000;1.2723;-5.4540;
474.3000;1.2772;-5.4436;
474.6000;1.2747;-5.4540;
474.9000;1.2747;-5.4514;
475.2000;1.2755;-5.4488;
475.5000;1.2747;-5.4540;
475.8000;1.2747;-5.4566;
476.1000;1.2739;-5.4540;
476.4000;1.2731;-5.4540;
476.7000;1.2764;-5.4410;
477.0000;1.2747;-5.4488;
477.3000;1.2764;-5.4514;
477.6000;1.2723;-5.4592;
477.9000;1.2739;-5.4592;
478.2000;1.2747;-5.4540;
478.5000;1.2764;-5.4540;
478.8000;1.2739;-5.4540;
479.1000;1.2755;-5.4488;
479.4000;1.2755;-5.4410;
479.7000;1.2731;-5.4410;
480.0000;1.2764;-5.4410;
480.3000;1.2739;-5.4488;
480.6000;1.2755;-5.4410;
480.9000;1.2747;-5.4410;
481.2000;1.2780;-5.4358;
481.5000;1.2658;-5.4540;
481.8000;1.2772;-5.4332;
482.1000;1.2747;-5.4332;
482.4000;1.2812;-5.4177;
482.7000;1.2747;-5.4280;
483.0000;1.2723;-5.4332;
483.3000;1.2747;-5.4306;
483.6000;1.2747;-5.4358;
483.9000;1.2739;-5.4436;
484.2000;1.2731;-5.4462;
484.5000;1.2715;-5.4488;
484.8000;1.2739;-5.4462;
485.1000;1.2755;-5.4462;
485.4000;1.2731;-5.4514;
485.7000;1.2723;-5.4540;
486.0000;1.2739;-5.4462;
486.3000;1.2755;-5.4462;
486.6000;1.2747;-5.4436;
486.9000;1.2747;-5.4488;
487.2000;1.2772;-5.4436;
487.5000;1.2764;-5.4462;
487.8000;1.2731;-5.4462;
488.1000;1.2731;-5.4488;
488.4000;1.2723;-5.4462;
488.7000;1.2747;-5.4462;
489.0000;1.2723;-5.4488;
489.3000;1.2731;-5.4514;
489.6000;1.2747;-5.4540;
489.9000;1.2747;-5.4514;
490.2000;1.2739;-5.4488;
490.5000;1.2739;-5.4540;
490.8000;1.2731;-5.4592;
491.1000;1.2747;-5.4592;
491.4000;1.2747;-5.4488;
491.7000;1.2739;-5.4462;
492.0000;1.2731;-5.4540;
492.3000;1.2731;-5.4462;
492.6000;1.2739;-5.4514;
492.9000;1.2821;-5.4384;
493.2000;1.2731;-5.4540;
493.5000;1.2731;-5.4540;
493.8000;1.2715;-5.4566;
494.1000;1.2731;-5.4488;
494.4000;1.2723;-5.4436;
494.7000;1.2731;-5.4462;
495.0000;1.2731;-5.4410;
495.3000;1.2690;-5.4410;
495.6000;1.2731;-5.4254;
495.9000;1.2723;-5.4280;
496.2000;1.2731;-5.4228;
496.5000;1.2731;-5.4177;
496.8000;1.2731;-5.4254;
497.1000;1.2739;-5.4332;
497.4000;1.2739;-5.4358;
497.7000;1.2739;-5.4332;
498.0000;1.2739;-5.4228;
498.3000;1.2731;-5.4306;
498.6000;1.2731;-5.4358;
498.9000;1.2731;-5.4332;
499.2000;1.2747;-5.4384;
499.5000;1.2723;-5.4306;
499.8000;1.2731;-5.4306;
500.1000;1.2723;-5.4384;
500.4000;1.2772;-5.4280;
500.7000;1.2731;-5.4358;
501.0000;1.2715;-5.4488;
501.3000;1.2739;-5.4540;
501.6000;1.2755;-5.4592;
501.9000;1.2739;-5.4592;
502.2000;1.2747;-5.4566;
502.5000;1.2739;-5.4566;
502.8000;1.2715;-5.4566;
503.1000;1.2731;-5.4462;
503.4000;1.2731;-5.4540;
503.7000;1.2731;-5.4643;
504.0000;1.2739;-5.4643;
504.3000;1.2764;-5.4566;
504.6000;1.2731;-5.4592;
504.9000;1.2739;-5.4566;
505.2000;1.2804;-5.4410;
505.5000;1.2723;-5.4592;
505.8000;1.2723;-5.4566;
506.1000;1.2723;-5.4540;
506.4000;1.2723;-5.4566;
506.7000;1.2731;-5.4618;
507.0000;1.2723;-5.4566;
507.3000;1.2723;-5.4514;
507.6000;1.2723;-5.4488;
507.9000;1.2755;-5.4410;
508.2000;1.2747;-5.4410;
508.5000;1.2764;-5.4358;
508.8000;1.2731;-5.4410;
509.1000;1.2723;-5.4384;
509.4000;1.2739;-5.4332;
509.7000;1.2747;-5.4384;
510.0000;1.2731;-5.4358;
510.3000;1.2739;-5.4358;
510.6000;1.2731;-5.4436;
510.9000;1.2739;-5.4410;
511.2000;1.2804;-5.4203;
511.5000;1.2731;-5.4436;
511.8000;1.2723;-5.4384;
512.1000;1.2739;-5.4332;
512.4000;1.2731;-5.4280;
512.7000;1.2739;-5.4254;
513.0000;1.2739;-5.4280;
513.3000;1.2755;-5.4280;
513.6000;1.2731;-5.4306;
513.9000;1.2731;-5.4203;
514.2000;1.2739;-5.4125;
514.5000;1.2715;-5.4254;
514.8000;1.2723;-5.4280;
515.1000;1.2731;-5.4228;
515.4000;1.2731;-5.4151;
515.7000;1.2739;-5.4203;
516.0000;1.2698;-5.4254;
516.3000;1.2723;-5.4125;
516.6000;1.2731;-5.4099;
516.9000;1.2731;-5.4099;
517.2000;1.2739;-5.4021;
517.5000;1.2723;-5.4125;
517.8000;1.2715;-5.4151;
518.1000;1.2739;-5.4125;
518.4000;1.2723;-5.4151;
518.7000;1.2731;-5.4099;
519.0000;1.2739;-5.4099;
519.3000;1.2731;-5.4177;
519.6000;1.2739;-5.4203;
519.9000;1.2731;-5.4203;
520.2000;1.2739;-5.4254;
520.5000;1.2723;-5.4280;
520.8000;1.2723;-5.4280;
521.1000;1.2723;-5.4332;
521.4000;1.2723;-5.4306;
521.7000;1.2731;-5.4177;
522.0000;1.2715;-5.4203;
522.3000;1.2723;-5.4177;
522.6000;1.2731;-5.4099;
522.9000;1.2715;-5.4099;
523.2000;1.2731;-5.4125;
523.5000;1.2707;-5.4047;
523.8000;1.2715;-5.4047;
524.1000;1.2715;-5.4073;
524.4000;1.2723;-5.3995;
524.7000;1.2707;-5.4125;
525.0000;1.2739;-5.4047;
525.3000;1.2674;-5.4203;
525.6000;1.2731;-5.3995;
525.9000;1.2739;-5.3943;
526.2000;1.2723;-5.4125;
526.5000;1.2723;-5.4047;
526.8000;1.2739;-5.3943;
527.1000;1.2731;-5.3995;
527.4000;1.2731;-5.4047;
527.7000;1.2715;-5.3943;
528.0000;1.2698;-5.4021;
528.3000;1.2707;-5.4073;
528.6000;1.2707;-5.3969;
528.9000;1.2715;-5.3995;
529.2000;1.2715;-5.3995;
529.5000;1.2707;-5.3995;
529.8000;1.2739;-5.3995;
530.1000;1.2723;-5.3995;
530.4000;1.2739;-5.3995;
530.7000;1.2715;-5.4099;
531.0000;1.2698;-5.4228;
531.3000;1.2723;-5.4151;
531.6000;1.2723;-5.4099;
531.9000;1.2812;-5.3891;
532.2000;1.2739;-5.4073;
532.5000;1.2731;-5.3995;
532.8000;1.2723;-5.3917;
533.1000;1.2625;-5.4228;
533.4000;1.2739;-5.3995;
533.7000;1.2731;-5.3917;
534.0000;1.2731;-5.3995;
534.3000;1.2812;-5.3788;
534.6000;1.2764;-5.3788;
534.9000;1.2731;-5.3865;
535.2000;1.2739;-5.3891;
535.5000;1.2666;-5.4125;
535.8000;1.2731;-5.4047;
536.1000;1.2723;-5.4177;
536.4000;1.2715;-5.4228;
536.7000;1.2715;-5.4125;
537.0000;1.2731;-5.4099;
537.3000;1.2723;-5.4021;
537.6000;1.2723;-5.3917;
537.9000;1.2682;-5.4047;
538.2000;1.2715;-5.4047;
538.5000;1.2723;-5.4047;
538.8000;1.2682;-5.4228;
539.1000;1.2731;-5.4047;
539.4000;1.2731;-5.3995;
539.7000;1.2723;-5.3917;
540.0000;1.2723;-5.3891;
540.3000;1.2747;-5.3891;
540.6000;1.2723;-5.3891;
540.9000;1.2747;-5.3891;
541.2000;1.2723;-5.3917;
541.5000;1.2747;-5.3917;
541.8000;1.2723;-5.3917;
542.1000;1.2682;-5.4151;
542.4000;1.2723;-5.4073;
542.7000;1.2723;-5.4099;
543.0000;1.2707;-5.4151;
543.3000;1.2715;-5.4047;
543.6000;1.2723;-5.3917;
543.9000;1.2723;-5.3814;
544.2000;1.2731;-5.3891;
544.5000;1.2715;-5.3969;
544.8000;1.2715;-5.3917;
545.1000;1.2715;-5.3839;
545.4000;1.2731;-5.3891;
545.7000;1.2715;-5.3865;
546.0000;1.2715;-5.3891;
546.3000;1.2707;-5.3917;
546.6000;1.2715;-5.3943;
546.9000;1.2723;-5.3917;
547.2000;1.2723;-5.3995;
547.5000;1.2731;-5.4021;
547.8000;1.2715;-5.4125;
548.1000;1.2731;-5.3995;
548.4000;1.2690;-5.4125;
548.7000;1.2715;-5.3995;
549.0000;1.2731;-5.3891;
549.3000;1.2723;-5.3943;
549.6000;1.2731;-5.3917;
549.9000;1.2715;-5.3995;
550.2000;1.2731;-5.4047;
550.5000;1.2731;-5.4047;
550.8000;1.2690;-5.4047;
551.1000;1.2739;-5.3891;
551.4000;1.2698;-5.3917;
551.7000;1.2707;-5.3865;
552.0000;1.2682;-5.3865;
552.3000;1.2707;-5.3891;
552.6000;1.2723;-5.3891;
552.9000;1.2674;-5.4099;
553.2000;1.2723;-5.3917;
553.5000;1.2715;-5.3943;
553.8000;1.2723;-5.3814;
554.1000;1.2723;-5.3839;
554.4000;1.2698;-5.3943;
554.7000;1.2715;-5.3943;
555.0000;1.2723;-5.3969;
555.3000;1.2723;-5.3943;
555.6000;1.2731;-5.3995;
555.9000;1.2723;-5.3917;
556.2000;1.2731;-5.3995;
556.5000;1.2723;-5.4021;
556.8000;1.2715;-5.3969;
557.1000;1.2690;-5.4073;
557.4000;1.2690;-5.4021;
557.7000;1.2707;-5.3995;
558.0000;1.2658;-5.4125;
558.3000;1.2707;-5.3865;
558.6000;1.2723;-5.3865;
558.9000;1.2731;-5.3891;
559.2000;1.2739;-5.3865;
559.5000;1.2739;-5.3865;
559.8000;1.2723;-5.3917;
560.1000;1.2764;-5.3865;
560.4000;1.2747;-5.3891;
560.7000;1.2731;-5.3917;
561.0000;1.2707;-5.3995;
561.3000;1.2723;-5.3995;
561.6000;1.2755;-5.3995;
561.9000;1.2739;-5.4021;
562.2000;1.2707;-5.4125;
562.5000;1.2715;-5.4125;
562.8000;1.2731;-5.4073;
563.1000;1.2731;-5.4021;
563.4000;1.2715;-5.3943;
563.7000;1.2715;-5.4047;
564.0000;1.2731;-5.3969;
564.3000;1.2698;-5.4047;
564.6000;1.2666;-5.4203;
564.9000;1.2682;-5.3943;
565.2000;1.2698;-5.3943;
565.5000;1.2698;-5.3943;
565.8000;1.2707;-5.3917;
566.1000;1.2723;-5.3969;
566.4000;1.2698;-5.3969;
566.7000;1.2707;-5.3891;
567.0000;1.2715;-5.3917;
567.3000;1.2707;-5.3943;
567.6000;1.2707;-5.3891;
567.9000;1.2723;-5.3839;
568.2000;1.2715;-5.3814;
568.5000;1.2690;-5.3865;
568.8000;1.2707;-5.3788;
569.1000;1.2707;-5.3762;
569.4000;1.2715;-5.3658;
569.7000;1.2715;-5.3684;
570.0000;1.2715;-5.3736;
570.3000;1.2715;-5.3762;
570.6000;1.2723;-5.3736;
570.9000;1.2739;-5.3736;
571.2000;1.2698;-5.3839;
571.5000;1.2682;-5.3891;
571.8000;1.2715;-5.3762;
572.1000;1.2715;-5.3762;
572.4000;1.2707;-5.3788;
572.7000;1.2731;-5.3762;
573.0000;1.2723;-5.3814;
573.3000;1.2780;-5.3710;
573.6000;1.2723;-5.3814;
573.9000;1.2723;-5.3839;
574.2000;1.2707;-5.3814;
574.5000;1.2731;-5.3762;
574.8000;1.2747;-5.3658;
575.1000;1.2698;-5.3710;
575.4000;1.2715;-5.3762;
575.7000;1.2715;-5.3814;
576.0000;1.2755;-5.3762;
576.3000;1.2747;-5.3839;
576.6000;1.2698;-5.3891;
576.9000;1.2772;-5.3788;
577.2000;1.2715;-5.3943;
577.5000;1.2707;-5.4047;
577.8000;1.2698;-5.4047;
578.1000;1.2731;-5.3969;
578.4000;1.2650;-5.4177;
578.7000;1.2723;-5.3943;
579.0000;1.2682;-5.4047;
579.3000;1.2715;-5.3943;
579.6000;1.2666;-5.3943;
579.9000;1.2715;-5.3788;
580.2000;1.2682;-5.3891;
580.5000;1.2682;-5.3891;
580.8000;1.2723;-5.3788;
581.1000;1.2723;-5.3865;
581.4000;1.2715;-5.3917;
581.7000;1.2715;-5.3865;
582.0000;1.2723;-5.3814;
582.3000;1.2731;-5.3814;
582.6000;1.2715;-5.3891;
582.9000;1.2698;-5.3788;
583.2000;1.2698;-5.3788;
583.5000;1.2674;-5.3762;
583.8000;1.2666;-5.3788;
584.1000;1.2707;-5.3658;
584.4000;1.2698;-5.3788;
584.7000;1.2723;-5.3736;
585.0000;1.2715;-5.3736;
585.3000;1.2707;-5.3762;
585.6000;1.2723;-5.3762;
585.9000;1.2715;-5.3788;
586.2000;1.2690;-5.3865;
586.5000;1.2690;-5.3865;
586.8000;1.2690;-5.3839;
587.1000;1.2715;-5.3762;
587.4000;1.2715;-5.3788;
587.7000;1.2715;-5.3839;
588.0000;1.2698;-5.3865;
588.3000;1.2690;-5.3839;
588.6000;1.2723;-5.3865;
588.9000;1.2707;-5.3865;
589.2000;1.2666;-5.3995;
589.5000;1.2674;-5.3995;
589.8000;1.2715;-5.3891;
590.1000;1.2682;-5.3943;
590.4000;1.2690;-5.4047;
590.7000;1.2690;-5.4099;
591.0000;1.2707;-5.4099;
591.3000;1.2723;-5.4099;
591.6000;1.2690;-5.4228;
591.9000;1.2707;-5.4203;
592.2000;1.2707;-5.4203;
592.5000;1.2731;-5.4099;
592.8000;1.2690;-5.4125;
593.1000;1.2715;-5.4125;
593.4000;1.2739;-5.3995;
593.7000;1.2739;-5.3917;
594.0000;1.2731;-5.3917;
594.3000;1.2707;-5.4047;
594.6000;1.2698;-5.4073;
594.9000;1.2723;-5.4021;
595.2000;1.2690;-5.4073;
595.5000;1.2690;-5.4047;
595.8000;1.2682;-5.4125;
596.1000;1.2682;-5.4047;
596.4000;1.2707;-5.3943;
596.7000;1.2690;-5.3917;
597.0000;1.2698;-5.3891;
597.3000;1.2698;-5.3891;
597.6000;1.2715;-5.3865;
597.9000;1.2715;-5.3839;
598.2000;1.2666;-5.3969;
598.5000;1.2698;-5.3943;
598.8000;1.2723;-5.3917;
599.1000;1.2658;-5.4047;
599.4000;1.2698;-5.3917;
599.7000;1.2698;-5.3891;
600.0000;1.2674;-5.3995;
600.3000;1.2707;-5.4073;
600.6000;1.2666;-5.4306;
600.9000;1.2625;-5.4488;
601.2000;1.2544;-5.4747;
601.5000;1.2446;-5.5058;
601.8000;1.2357;-5.5188;
602.1000;1.2243;-5.5421;
602.4000;1.2177;-5.5499;
602.7000;1.2112;-5.5551;
603.0000;1.1966;-5.5785;
603.3000;1.1925;-5.5759;
603.6000;1.1852;-5.5914;
603.9000;1.1762;-5.6148;
604.2000;1.1681;-5.6225;
604.5000;1.1640;-5.6277;
604.8000;1.1534;-5.6329;
605.1000;1.1518;-5.6329;
605.4000;1.1453;-5.6329;
605.7000;1.1396;-5.6303;
606.0000;1.1339;-5.6277;
606.3000;1.1290;-5.6199;
606.6000;1.1249;-5.6225;
606.9000;1.1209;-5.6277;
607.2000;1.1168;-5.6355;
607.5000;1.1144;-5.6355;
607.8000;1.1038;-5.6511;
608.1000;1.1062;-5.6459;
608.4000;1.1013;-5.6459;
608.7000;1.0981;-5.6537;
609.0000;1.0956;-5.6511;
609.3000;1.0908;-5.6511;
609.6000;1.0883;-5.6511;
609.9000;1.0842;-5.6589;
610.2000;1.0834;-5.6589;
610.5000;1.0818;-5.6614;
610.8000;1.0786;-5.6718;
611.1000;1.0720;-5.6796;
611.4000;1.0729;-5.6640;
611.7000;1.0696;-5.6640;
612.0000;1.0688;-5.6589;
612.3000;1.0631;-5.6666;
612.6000;1.0606;-5.6589;
612.9000;1.0598;-5.6537;
613.2000;1.0549;-5.6640;
613.5000;1.0566;-5.6563;
613.8000;1.0541;-5.6614;
614.1000;1.0590;-5.6407;
614.4000;1.0501;-5.6692;
614.7000;1.0492;-5.6692;
615.0000;1.0460;-5.6692;
615.3000;1.0452;-5.6770;
615.6000;1.0427;-5.6666;
615.9000;1.0403;-5.6744;
616.2000;1.0435;-5.6537;
616.5000;1.0387;-5.6640;
616.8000;1.0379;-5.6718;
617.1000;1.0354;-5.6692;
617.4000;1.0346;-5.6718;
617.7000;1.0330;-5.6744;
618.0000;1.0338;-5.6770;
618.3000;1.0289;-5.6796;
618.6000;1.0281;-5.6770;
618.9000;1.0265;-5.6744;
619.2000;1.0256;-5.6796;
619.5000;1.0256;-5.6848;
619.8000;1.0224;-5.6926;
620.1000;1.0224;-5.6874;
620.4000;1.0167;-5.6978;
620.7000;1.0199;-5.6848;
621.0000;1.0175;-5.6926;
621.3000;1.0167;-5.7003;
621.6000;1.0175;-5.7055;
621.9000;1.0142;-5.7055;
622.2000;1.0102;-5.7133;
622.5000;1.0142;-5.6952;
622.8000;1.0085;-5.7029;
623.1000;1.0118;-5.6978;
623.4000;1.0085;-5.7081;
623.7000;1.0069;-5.6978;
624.0000;1.0053;-5.6952;
624.3000;1.0053;-5.6978;
624.6000;1.0045;-5.6978;
624.9000;1.0028;-5.6952;
625.2000;1.0028;-5.6952;
625.5000;1.0012;-5.7003;
625.8000;0.9996;-5.6978;
626.1000;1.0061;-5.6796;
626.4000;0.9955;-5.6952;
626.7000;0.9972;-5.6796;
627.0000;0.9996;-5.6692;
627.3000;0.9980;-5.6666;
627.6000;0.9947;-5.6770;
627.9000;0.9931;-5.6770;
628.2000;0.9955;-5.6718;
628.5000;0.9931;-5.6692;
628.8000;0.9906;-5.6718;
629.1000;0.9906;-5.6718;
629.4000;0.9898;-5.6796;
629.7000;0.9890;-5.6796;
630.0000;0.9841;-5.6874;
630.3000;0.9882;-5.6848;
630.6000;0.9849;-5.6900;
630.9000;0.9817;-5.6926;
631.2000;0.9825;-5.6874;
631.5000;0.9817;-5.6874;
631.8000;0.9841;-5.6848;
632.1000;0.9841;-5.6900;
632.4000;0.9768;-5.6952;
632.7000;0.9776;-5.6952;
633.0000;0.9817;-5.6822;
633.3000;0.9776;-5.6848;
633.6000;0.9776;-5.6770;
633.9000;0.9752;-5.6770;
634.2000;0.9735;-5.6848;
634.5000;0.9727;-5.6822;
634.8000;0.9801;-5.6640;
635.1000;0.9727;-5.6796;
635.4000;0.9801;-5.6614;
635.7000;0.9703;-5.6822;
636.0000;0.9711;-5.6718;
636.3000;0.9695;-5.6796;
636.6000;0.9646;-5.6900;
636.9000;0.9670;-5.6796;
637.2000;0.9597;-5.6978;
637.5000;0.9638;-5.6900;
637.8000;0.9646;-5.6874;
638.1000;0.9630;-5.6900;
638.4000;0.9613;-5.6848;
638.7000;0.9630;-5.6692;
639.0000;0.9621;-5.6692;
639.3000;0.9621;-5.6640;
639.6000;0.9621;-5.6692;
639.9000;0.9613;-5.6744;
640.2000;0.9597;-5.6770;
640.5000;0.9524;-5.7003;
640.8000;0.9573;-5.6874;
641.1000;0.9573;-5.6848;
641.4000;0.9589;-5.6770;
641.7000;0.9556;-5.6744;
642.0000;0.9540;-5.6770;
642.3000;0.9540;-5.6666;
642.6000;0.9524;-5.6666;
642.9000;0.9532;-5.6640;
643.2000;0.9524;-5.6666;
643.5000;0.9451;-5.6770;
643.8000;0.9516;-5.6589;
644.1000;0.9491;-5.6614;
644.4000;0.9475;-5.6614;
644.7000;0.9548;-5.6355;
645.0000;0.9467;-5.6407;
645.3000;0.9532;-5.6277;
645.6000;0.9451;-5.6485;
645.9000;0.9459;-5.6511;
646.2000;0.9442;-5.6563;
646.5000;0.9467;-5.6537;
646.8000;0.9475;-5.6511;
647.1000;0.9410;-5.6666;
647.4000;0.9402;-5.6666;
647.7000;0.9426;-5.6614;
648.0000;0.9402;-5.6666;
648.3000;0.9394;-5.6666;
648.6000;0.9394;-5.6640;
648.9000;0.9377;-5.6589;
649.2000;0.9369;-5.6511;
649.5000;0.9361;-5.6537;
649.8000;0.9361;-5.6433;
650.1000;0.9231;-5.6666;
650.4000;0.9361;-5.6303;
650.7000;0.9328;-5.6407;
651.0000;0.9312;-5.6459;
651.3000;0.9255;-5.6589;
651.6000;0.9304;-5.6433;
651.9000;0.9288;-5.6511;
652.2000;0.9271;-5.6433;
652.5000;0.9271;-5.6485;
652.8000;0.9304;-5.6433;
653.1000;0.9280;-5.6459;
653.4000;0.9247;-5.6537;
653.7000;0.9271;-5.6433;
654.0000;0.9263;-5.6433;
654.3000;0.9280;-5.6407;
654.6000;0.9231;-5.6433;
654.9000;0.9247;-5.6407;
655.2000;0.9214;-5.6407;
655.5000;0.9198;-5.6433;
655.8000;0.9190;-5.6459;
656.1000;0.9190;-5.6563;
656.4000;0.9158;-5.6511;
656.7000;0.9182;-5.6355;
657.0000;0.9174;-5.6459;
657.3000;0.9174;-5.6407;
657.6000;0.9190;-5.6381;
657.9000;0.9149;-5.6485;
658.2000;0.9158;-5.6563;
658.5000;0.9166;-5.6589;
658.8000;0.9198;-5.6511;
659.1000;0.9133;-5.6666;
659.4000;0.9149;-5.6640;
659.7000;0.9133;-5.6718;
660.0000;0.9117;-5.6770;
660.3000;0.9117;-5.6718;
660.6000;0.9084;-5.6848;
660.9000;0.9109;-5.6822;
661.2000;0.9117;-5.6848;
661.5000;0.9109;-5.6796;
661.8000;0.9092;-5.6848;
662.1000;0.9084;-5.6796;
662.4000;0.9076;-5.6770;
662.7000;0.9084;-5.6848;
663.0000;0.9060;-5.6848;
663.3000;0.9052;-5.6848;
663.6000;0.9060;-5.6796;
663.9000;0.9060;-5.6770;
664.2000;0.9035;-5.6770;
664.5000;0.9035;-5.6796;
664.8000;0.9052;-5.6874;
665.1000;0.9027;-5.6822;
665.4000;0.9027;-5.6770;
665.7000;0.9019;-5.6744;
666.0000;0.8987;-5.6796;
666.3000;0.8987;-5.6770;
666.6000;0.8987;-5.6718;
666.9000;0.8987;-5.6640;
667.2000;0.9060;-5.6407;
667.5000;0.8970;-5.6614;
667.8000;0.8978;-5.6537;
668.1000;0.9011;-5.6433;
668.4000;0.8946;-5.6537;
668.7000;0.8930;-5.6485;
669.0000;0.8938;-5.6511;
669.3000;0.8930;-5.6563;
669.6000;0.8938;-5.6485;
669.9000;0.8938;-5.6485;
670.2000;0.8930;-5.6459;
670.5000;0.8930;-5.6511;
670.8000;0.8897;-5.6563;
671.1000;0.8897;-5.6511;
671.4000;0.8889;-5.6563;
671.7000;0.8897;-5.6537;
672.0000;0.8913;-5.6511;
672.3000;0.8856;-5.6666;
672.6000;0.8873;-5.6589;
672.9000;0.8873;-5.6589;
673.2000;0.8873;-5.6511;
673.5000;0.8889;-5.6511;
673.8000;0.8856;-5.6537;
674.1000;0.8905;-5.6381;
674.4000;0.8799;-5.6614;
674.7000;0.8848;-5.6563;
675.0000;0.8848;-5.6692;
675.3000;0.8848;-5.6666;
675.6000;0.8864;-5.6640;
675.9000;0.8824;-5.6692;
676.2000;0.8807;-5.6744;
676.5000;0.8799;-5.6770;
676.8000;0.8816;-5.6666;
677.1000;0.8807;-5.6640;
677.4000;0.8848;-5.6485;
677.7000;0.8791;-5.6692;
678.0000;0.8791;-5.6640;
678.3000;0.8791;-5.6640;
678.6000;0.8791;-5.6640;
678.9000;0.8767;-5.6640;
679.2000;0.8775;-5.6666;
679.5000;0.8799;-5.6589;
679.8000;0.8775;-5.6666;
680.1000;0.8742;-5.6692;
680.4000;0.8751;-5.6614;
680.7000;0.8751;-5.6589;
681.0000;0.8734;-5.6666;
681.3000;0.8710;-5.6563;
681.6000;0.8718;-5.6589;
681.9000;0.8734;-5.6589;
682.2000;0.8734;-5.6537;
682.5000;0.8637;-5.6796;
682.8000;0.8669;-5.6614;
683.1000;0.8694;-5.6537;
683.4000;0.8685;-5.6640;
683.7000;0.8685;-5.6640;
684.0000;0.8685;-5.6666;
684.3000;0.8694;-5.6563;
684.6000;0.8694;-5.6589;
684.9000;0.8702;-5.6537;
685.2000;0.8677;-5.6589;
685.5000;0.8661;-5.6563;
685.8000;0.8669;-5.6614;
686.1000;0.8669;-5.6589;
686.4000;0.8628;-5.6718;
686.7000;0.8661;-5.6666;
687.0000;0.8653;-5.6692;
687.3000;0.8637;-5.6640;
687.6000;0.8637;-5.6614;
687.9000;0.8620;-5.6692;
688.2000;0.8637;-5.6718;
688.5000;0.8677;-5.6511;
688.8000;0.8604;-5.6640;
689.1000;0.8612;-5.6614;
689.4000;0.8645;-5.6511;
689.7000;0.8628;-5.6511;
690.0000;0.8620;-5.6459;
690.3000;0.8637;-5.6459;
690.6000;0.8596;-5.6511;
690.9000;0.8620;-5.6433;
691.2000;0.8596;-5.6511;
691.5000;0.8580;-5.6614;
691.8000;0.8580;-5.6563;
692.1000;0.8580;-5.6614;
692.4000;0.8571;-5.6640;
692.7000;0.8612;-5.6589;
693.0000;0.8539;-5.6796;
693.3000;0.8571;-5.6666;
693.6000;0.8547;-5.6718;
693.9000;0.8563;-5.6666;
694.2000;0.8555;-5.6718;
694.5000;0.8539;-5.6666;
694.8000;0.8547;-5.6692;
695.1000;0.8539;-5.6666;
695.4000;0.8523;-5.6666;
695.7000;0.8457;-5.6718;
696.0000;0.8523;-5.6563;
696.3000;0.8523;-5.6589;
696.6000;0.8514;-5.6589;
696.9000;0.8506;-5.6589;
697.2000;0.8506;-5.6614;
697.5000;0.8523;-5.6537;
697.8000;0.8490;-5.6563;
698.1000;0.8482;-5.6589;
698.4000;0.8490;-5.6614;
698.7000;0.8498;-5.6718;
699.0000;0.8539;-5.6640;
699.3000;0.8466;-5.6718;
699.6000;0.8466;-5.6692;
699.9000;0.8441;-5.6744;
700.2000;0.8474;-5.6614;
700.5000;0.8466;-5.6640;
700.8000;0.8466;-5.6614;
701.1000;0.8449;-5.6692;
701.4000;0.8466;-5.6666;
701.7000;0.8441;-5.6692;
702.0000;0.8425;-5.6692;
702.3000;0.8417;-5.6744;
702.6000;0.8417;-5.6718;
702.9000;0.8417;-5.6614;
703.2000;0.8417;-5.6563;
703.5000;0.8425;-5.6485;
703.8000;0.8433;-5.6459;
704.1000;0.8433;-5.6485;
704.4000;0.8425;-5.6459;
704.7000;0.8417;-5.6433;
705.0000;0.8409;-5.6537;
705.3000;0.8425;-5.6459;
705.6000;0.8400;-5.6563;
705.9000;0.8384;-5.6614;
706.2000;0.8360;-5.6614;
706.5000;0.8466;-5.6303;
706.8000;0.8368;-5.6459;
707.1000;0.8335;-5.6485;
707.4000;0.8376;-5.6381;
707.7000;0.8376;-5.6433;
708.0000;0.8376;-5.6485;
708.3000;0.8327;-5.6537;
708.6000;0.8344;-5.6459;
708.9000;0.8384;-5.6407;
709.2000;0.8360;-5.6459;
709.5000;0.8360;-5.6381;
709.8000;0.8368;-5.6355;
710.1000;0.8344;-5.6355;
710.4000;0.8344;-5.6407;
710.7000;0.8344;-5.6433;
711.0000;0.8335;-5.6433;
711.3000;0.8344;-5.6459;
711.6000;0.8335;-5.6563;
711.9000;0.8344;-5.6563;
712.2000;0.8335;-5.6563;
712.5000;0.8344;-5.6589;
712.8000;0.8335;-5.6640;
713.1000;0.8327;-5.6666;
713.4000;0.8319;-5.6770;
713.7000;0.8335;-5.6718;
714.0000;0.8335;-5.6666;
714.3000;0.8295;-5.6692;
714.6000;0.8270;-5.6744;
714.9000;0.8311;-5.6666;
715.2000;0.8303;-5.6614;
715.5000;0.8303;-5.6589;
715.8000;0.8303;-5.6589;
716.1000;0.8287;-5.6666;
716.4000;0.8287;-5.6666;
716.7000;0.8278;-5.6614;
717.0000;0.8262;-5.6614;
717.3000;0.8262;-5.6563;
717.6000;0.8270;-5.6459;
717.9000;0.8270;-5.6563;
718.2000;0.8295;-5.6485;
718.5000;0.8270;-5.6589;
718.8000;0.8262;-5.6537;
719.1000;0.8287;-5.6511;
719.4000;0.8254;-5.6563;
719.7000;0.8238;-5.6511;
720.0000;0.8230;-5.6589;
720.3000;0.8230;-5.6563;
720.6000;0.8246;-5.6511;
720.9000;0.8221;-5.6589;
721.2000;0.8213;-5.6537;
721.5000;0.8246;-5.6381;
721.8000;0.8254;-5.6381;
722.1000;0.8221;-5.6355;
722.4000;0.8213;-5.6355;
722.7000;0.8213;-5.6355;
723.0000;0.8230;-5.6381;
723.3000;0.8221;-5.6303;
723.6000;0.8213;-5.6277;
723.9000;0.8221;-5.6148;
724.2000;0.8221;-5.6148;
724.5000;0.8205;-5.6174;
724.8000;0.8270;-5.6018;
725.1000;0.8205;-5.6225;
725.4000;0.8197;-5.6303;
725.7000;0.8197;-5.6199;
726.0000;0.8197;-5.6225;
726.3000;0.8181;-5.6303;
726.6000;0.8173;-5.6329;
726.9000;0.8189;-5.6355;
727.2000;0.8173;-5.6407;
727.5000;0.8164;-5.6459;
727.8000;0.8164;-5.6459;
728.1000;0.8164;-5.6511;
728.4000;0.8156;-5.6459;
728.7000;0.8164;-5.6407;
729.0000;0.8156;-5.6433;
729.3000;0.8164;-5.6459;
729.6000;0.8164;-5.6355;
729.9000;0.8140;-5.6459;
730.2000;0.8148;-5.6433;
730.5000;0.8148;-5.6407;
730.8000;0.8132;-5.6381;
731.1000;0.8140;-5.6485;
731.4000;0.8148;-5.6459;
731.7000;0.8140;-5.6511;
732.0000;0.8140;-5.6563;
732.3000;0.8148;-5.6666;
732.6000;0.8124;-5.6614;
732.9000;0.8140;-5.6485;
733.2000;0.8132;-5.6303;
733.5000;0.8116;-5.6277;
733.8000;0.8116;-5.6277;
734.1000;0.8099;-5.6329;
734.4000;0.8124;-5.6303;
734.7000;0.8099;-5.6407;
735.0000;0.8116;-5.6303;
735.3000;0.8140;-5.6303;
735.6000;0.8099;-5.6407;
735.9000;0.8099;-5.6329;
736.2000;0.8107;-5.6225;
736.5000;0.8091;-5.6277;
736.8000;0.8107;-5.6251;
737.1000;0.8091;-5.6303;
737.4000;0.8099;-5.6329;
737.7000;0.8107;-5.6303;
738.0000;0.8083;-5.6381;
738.3000;0.8091;-5.6329;
738.6000;0.8091;-5.6303;
738.9000;0.8083;-5.6329;
739.2000;0.8083;-5.6407;
739.5000;0.8091;-5.6407;
739.8000;0.8067;-5.6407;
740.1000;0.8083;-5.6277;
740.4000;0.8042;-5.6303;
740.7000;0.8067;-5.6174;
741.0000;0.8091;-5.6070;
741.3000;0.8034;-5.6303;
741.6000;0.8091;-5.6225;
741.9000;0.8050;-5.6174;
742.2000;0.8034;-5.6277;
742.5000;0.8075;-5.6225;
742.8000;0.8042;-5.6277;
743.1000;0.8034;-5.6277;
743.4000;0.8034;-5.6277;
743.7000;0.8042;-5.6329;
744.0000;0.8034;-5.6251;
744.3000;0.8010;-5.6303;
744.6000;0.8026;-5.6329;
744.9000;0.8018;-5.6407;
745.2000;0.8010;-5.6381;
745.5000;0.8042;-5.6277;
745.8000;0.8018;-5.6225;
746.1000;0.8002;-5.6174;
746.4000;0.8034;-5.6070;
746.7000;0.8010;-5.6148;
747.0000;0.7953;-5.6329;
747.3000;0.8018;-5.6225;
747.6000;0.8010;-5.6174;
747.9000;0.8010;-5.6174;
748.2000;0.8002;-5.6225;
748.5000;0.8002;-5.6225;
748.8000;0.8034;-5.6174;
749.1000;0.7985;-5.6199;
749.4000;0.7993;-5.6225;
749.7000;0.8010;-5.6174;
750.0000;0.7977;-5.6225;
750.3000;0.7977;-5.6122;
750.6000;0.7969;-5.6070;
750.9000;0.7953;-5.6070;
751.2000;0.7977;-5.6122;
751.5000;0.7969;-5.6199;
751.8000;0.7961;-5.6174;
752.1000;0.7969;-5.6199;
752.4000;0.7985;-5.6199;
752.7000;0.7969;-5.6251;
753.0000;0.7937;-5.6303;
753.3000;0.7969;-5.6303;
753.6000;0.7977;-5.6225;
753.9000;0.7977;-5.6251;
754.2000;0.7969;-5.6251;
754.5000;0.7953;-5.6199;
754.8000;0.7961;-5.6148;
755.1000;0.7969;-5.6070;
755.4000;0.7961;-5.6148;
755.7000;0.7945;-5.6148;
756.0000;0.7945;-5.6199;
756.3000;0.7937;-5.6174;
756.6000;0.7969;-5.6174;
756.9000;0.7953;-5.6225;
757.2000;0.7928;-5.6303;
757.5000;0.7953;-5.6251;
757.8000;0.7928;-5.6303;
758.1000;0.7961;-5.6277;
758.4000;0.7920;-5.6329;
758.7000;0.8002;-5.6096;
759.0000;0.7945;-5.6251;
759.3000;0.7912;-5.6225;
759.6000;0.7912;-5.6225;
759.9000;0.7904;-5.6329;
760.2000;0.7912;-5.6303;
760.5000;0.7928;-5.6329;
760.8000;0.7920;-5.6329;
761.1000;0.7937;-5.6174;
761.4000;0.7912;-5.6303;
761.7000;0.7912;-5.6277;
762.0000;0.7937;-5.6122;
762.3000;0.7896;-5.6199;
762.6000;0.7871;-5.6277;
762.9000;0.7896;-5.6122;
763.2000;0.7896;-5.6174;
763.5000;0.7896;-5.6199;
763.8000;0.7904;-5.6225;
764.1000;0.7912;-5.6277;
764.4000;0.7871;-5.6303;
764.7000;0.7888;-5.6225;
765.0000;0.7863;-5.6225;
765.3000;0.7888;-5.6148;
765.6000;0.7880;-5.6251;
765.9000;0.7880;-5.6251;
766.2000;0.7888;-5.6122;
766.5000;0.7888;-5.6122;
766.8000;0.7871;-5.6148;
767.1000;0.7871;-5.6122;
767.4000;0.7928;-5.5940;
767.7000;0.7880;-5.6096;
768.0000;0.7912;-5.6070;
768.3000;0.7880;-5.6251;
768.6000;0.7871;-5.6303;
768.9000;0.7871;-5.6277;
769.2000;0.7880;-5.6174;
769.5000;0.7806;-5.6277;
769.8000;0.7855;-5.6096;
770.1000;0.7847;-5.6225;
770.4000;0.7937;-5.5992;
770.7000;0.7839;-5.6225;
771.0000;0.7831;-5.6251;
771.3000;0.7839;-5.6225;
771.6000;0.7855;-5.6199;
771.9000;0.7847;-5.6225;
772.2000;0.7863;-5.6148;
772.5000;0.7806;-5.6225;
772.8000;0.7839;-5.6251;
773.1000;0.7839;-5.6277;
773.4000;0.7831;-5.6355;
773.7000;0.7814;-5.6329;
774.0000;0.7823;-5.6329;
774.3000;0.7831;-5.6355;
774.6000;0.7814;-5.6329;
774.9000;0.7814;-5.6303;
775.2000;0.7806;-5.6407;
775.5000;0.7774;-5.6537;
775.8000;0.7814;-5.6433;
776.1000;0.7814;-5.6355;
776.4000;0.7806;-5.6303;
776.7000;0.7814;-5.6225;
777.0000;0.7814;-5.6199;
777.3000;0.7814;-5.6251;
777.6000;0.7831;-5.6148;
777.9000;0.7798;-5.6096;
778.2000;0.7814;-5.6122;
778.5000;0.7847;-5.6174;
778.8000;0.7806;-5.6251;
779.1000;0.7823;-5.6199;
779.4000;0.7782;-5.6225;
779.7000;0.7782;-5.6199;
780.0000;0.7790;-5.6122;
780.3000;0.7790;-5.6070;
780.6000;0.7798;-5.6096;
780.9000;0.7798;-5.6122;
781.2000;0.7766;-5.6199;
781.5000;0.7806;-5.6174;
781.8000;0.7806;-5.6148;
782.1000;0.7790;-5.6148;
782.4000;0.7741;-5.6381;
782.7000;0.7766;-5.6251;
783.0000;0.7782;-5.6277;
783.3000;0.7782;-5.6251;
783.6000;0.7782;-5.6225;
783.9000;0.7798;-5.6174;
784.2000;0.7798;-5.6174;
784.5000;0.7782;-5.6225;
784.8000;0.7798;-5.6122;
785.1000;0.7757;-5.6148;
785.4000;0.7839;-5.5992;
785.7000;0.7733;-5.6329;
786.0000;0.7798;-5.6199;
786.3000;0.7766;-5.6303;
786.6000;0.7692;-5.6511;
786.9000;0.7774;-5.6329;
787.2000;0.7766;-5.6355;
787.5000;0.7757;-5.6355;
787.8000;0.7733;-5.6381;
788.1000;0.7733;-5.6459;
788.4000;0.7774;-5.6277;
788.7000;0.7749;-5.6303;
789.0000;0.7831;-5.6044;
789.3000;0.7741;-5.6277;
789.6000;0.7749;-5.6329;
789.9000;0.7741;-5.6381;
790.2000;0.7766;-5.6251;
790.5000;0.7741;-5.6251;
790.8000;0.7733;-5.6277;
791.1000;0.7660;-5.6433;
791.4000;0.7749;-5.6277;
791.7000;0.7733;-5.6251;
792.0000;0.7733;-5.6277;
792.3000;0.7733;-5.6251;
792.6000;0.7733;-5.6329;
792.9000;0.7717;-5.6381;
793.2000;0.7766;-5.6199;
793.5000;0.7749;-5.6225;
793.8000;0.7741;-5.6225;
794.1000;0.7709;-5.6433;
794.4000;0.7725;-5.6329;
794.7000;0.7709;-5.6329;
795.0000;0.7684;-5.6407;
795.3000;0.7717;-5.6355;
795.6000;0.7717;-5.6251;
795.9000;0.7717;-5.6148;
796.2000;0.7717;-5.6122;
796.5000;0.7692;-5.6148;
796.8000;0.7684;-5.6122;
797.1000;0.7700;-5.6070;
797.4000;0.7692;-5.6148;
797.7000;0.7709;-5.6174;
798.0000;0.7692;-5.6174;
798.3000;0.7709;-5.6096;
798.6000;0.7692;-5.6070;
798.9000;0.7692;-5.6096;
799.2000;0.7635;-5.6225;
799.5000;0.7700;-5.6044;
799.8000;0.7709;-5.6122;
800.1000;0.7684;-5.6225;
800.4000;0.7660;-5.6433;
800.7000;0.7660;-5.6407;
801.0000;0.7668;-5.6329;
801.3000;0.7676;-5.6329;
801.6000;0.7660;-5.6329;
801.9000;0.7684;-5.6251;
802.2000;0.7643;-5.6329;
802.5000;0.7676;-5.6303;
802.8000;0.7668;-5.6303;
803.1000;0.7668;-5.6355;
803.4000;0.7692;-5.6251;
803.7000;0.7652;-5.6433;
804.0000;0.7668;-5.6355;
804.3000;0.7684;-5.6407;
804.6000;0.7660;-5.6511;
804.9000;0.7676;-5.6433;
805.2000;0.7660;-5.6407;
805.5000;0.7611;-5.6511;
805.8000;0.7684;-5.6277;
806.1000;0.7676;-5.6355;
806.4000;0.7619;-5.6459;
806.7000;0.7692;-5.6355;
807.0000;0.7652;-5.6433;
807.3000;0.7709;-5.6303;
807.6000;0.7676;-5.6355;
807.9000;0.7643;-5.6433;
808.2000;0.7733;-5.6251;
808.5000;0.7660;-5.6329;
808.8000;0.7660;-5.6277;
809.1000;0.7643;-5.6277;
809.4000;0.7660;-5.6251;
809.7000;0.7652;-5.6251;
810.0000;0.7684;-5.6199;
810.3000;0.7627;-5.6277;
810.6000;0.7635;-5.6277;
810.9000;0.7652;-5.6251;
811.2000;0.7652;-5.6303;
811.5000;0.7635;-5.6407;
811.8000;0.7595;-5.6563;
812.1000;0.7627;-5.6511;
812.4000;0.7611;-5.6537;
812.7000;0.7635;-5.6537;
813.0000;0.7611;-5.6614;
813.3000;0.7611;-5.6614;
813.6000;0.7619;-5.6589;
813.9000;0.7652;-5.6485;
814.2000;0.7643;-5.6511;
814.5000;0.7611;-5.6589;
814.8000;0.7619;-5.6511;
815.1000;0.7603;-5.6537;
815.4000;0.7619;-5.6459;
815.7000;0.7627;-5.6433;
816.0000;0.7619;-5.6459;
816.3000;0.7611;-5.6485;
816.6000;0.7619;-5.6459;
816.9000;0.7603;-5.6537;
817.2000;0.7619;-5.6407;
817.5000;0.7619;-5.6277;
817.8000;0.7619;-5.6381;
818.1000;0.7627;-5.6355;
818.4000;0.7611;-5.6407;
818.7000;0.7611;-5.6407;
819.0000;0.7611;-5.6355;
819.3000;0.7627;-5.6329;
819.6000;0.7643;-5.6277;
819.9000;0.7586;-5.6407;
820.2000;0.7643;-5.6329;
820.5000;0.7603;-5.6277;
820.8000;0.7595;-5.6277;
821.1000;0.7586;-5.6199;
821.4000;0.7586;-5.6225;
821.7000;0.7603;-5.6225;
822.0000;0.7603;-5.6225;
822.3000;0.7627;-5.6277;
822.6000;0.7578;-5.6277;
822.9000;0.7603;-5.6251;
823.2000;0.7595;-5.6251;
823.5000;0.7586;-5.6329;
823.8000;0.7578;-5.6355;
824.1000;0.7611;-5.6277;
824.4000;0.7595;-5.6303;
824.7000;0.7554;-5.6381;
825.0000;0.7586;-5.6329;
825.3000;0.7570;-5.6355;
825.6000;0.7603;-5.6329;
825.9000;0.7586;-5.6433;
826.2000;0.7578;-5.6511;
826.5000;0.7521;-5.6692;
826.8000;0.7578;-5.6563;
827.1000;0.7595;-5.6537;
827.4000;0.7578;-5.6459;
827.7000;0.7570;-5.6433;
828.0000;0.7562;-5.6407;
828.3000;0.7570;-5.6407;
828.6000;0.7570;-5.6355;
828.9000;0.7562;-5.6355;
829.2000;0.7554;-5.6407;
829.5000;0.7578;-5.6355;
829.8000;0.7603;-5.6251;
830.1000;0.7554;-5.6303;
830.4000;0.7570;-5.6199;
830.7000;0.7562;-5.6251;
831.0000;0.7554;-5.6355;
831.3000;0.7578;-5.6277;
831.6000;0.7570;-5.6381;
831.9000;0.7538;-5.6459;
832.2000;0.7538;-5.6485;
832.5000;0.7554;-5.6459;
832.8000;0.7538;-5.6407;
833.1000;0.7530;-5.6355;
833.4000;0.7546;-5.6355;
833.7000;0.7530;-5.6433;
834.0000;0.7530;-5.6537;
834.3000;0.7530;-5.6485;
834.6000;0.7546;-5.6459;
834.9000;0.7530;-5.6459;
835.2000;0.7530;-5.6459;
835.5000;0.7538;-5.6433;
835.8000;0.7554;-5.6381;
836.1000;0.7521;-5.6433;
836.4000;0.7538;-5.6355;
836.7000;0.7546;-5.6407;
837.0000;0.7538;-5.6407;
837.3000;0.7538;-5.6355;
837.6000;0.7538;-5.6329;
837.9000;0.7513;-5.6459;
838.2000;0.7538;-5.6381;
838.5000;0.7521;-5.6433;
838.8000;0.7513;-5.6355;
839.1000;0.7513;-5.6407;
839.4000;0.7530;-5.6329;
839.7000;0.7538;-5.6329;
840.0000;0.7489;-5.6459;
840.3000;0.7538;-5.6303;
840.6000;0.7489;-5.6407;
840.9000;0.7538;-5.6303;
841.2000;0.7513;-5.6277;
841.5000;0.7513;-5.6277;
841.8000;0.7521;-5.6329;
842.1000;0.7521;-5.6355;
842.4000;0.7538;-5.6303;
842.7000;0.7513;-5.6407;
843.0000;0.7513;-5.6459;
843.3000;0.7530;-5.6407;
843.6000;0.7505;-5.6407;
843.9000;0.7505;-5.6303;
844.2000;0.7489;-5.6355;
844.5000;0.7521;-5.6174;
844.8000;0.7521;-5.6251;
845.1000;0.7530;-5.6225;
845.4000;0.7497;-5.6329;
845.7000;0.7505;-5.6303;
846.0000;0.7505;-5.6329;
846.3000;0.7481;-5.6355;
846.6000;0.7489;-5.6329;
846.9000;0.7505;-5.6277;
847.2000;0.7497;-5.6174;
847.5000;0.7513;-5.6251;
847.8000;0.7505;-5.6355;
848.1000;0.7505;-5.6329;
848.4000;0.7521;-5.6329;
848.7000;0.7497;-5.6355;
849.0000;0.7481;-5.6329;
849.3000;0.7497;-5.6329;
849.6000;0.7513;-5.6277;
849.9000;0.7505;-5.6277;
850.2000;0.7505;-5.6174;
850.5000;0.7497;-5.6225;
850.8000;0.7505;-5.6225;
851.1000;0.7505;-5.6225;
851.4000;0.7521;-5.6199;
851.7000;0.7473;-5.6303;
852.0000;0.7456;-5.6485;
852.3000;0.7481;-5.6433;
852.6000;0.7505;-5.6277;
852.9000;0.7505;-5.6277;
853.2000;0.7481;-5.6329;
853.5000;0.7497;-5.6277;
853.8000;0.7489;-5.6251;
854.1000;0.7456;-5.6381;
854.4000;0.7407;-5.6511;
854.7000;0.7473;-5.6355;
855.0000;0.7473;-5.6355;
855.3000;0.7481;-5.6355;
855.6000;0.7473;-5.6329;
855.9000;0.7489;-5.6225;
856.2000;0.7440;-5.6329;
856.5000;0.7538;-5.6070;
856.8000;0.7432;-5.6381;
857.1000;0.7432;-5.6303;
857.4000;0.7464;-5.6303;
857.7000;0.7497;-5.6355;
858.0000;0.7440;-5.6511;
858.3000;0.7448;-5.6459;
858.6000;0.7464;-5.6381;
858.9000;0.7448;-5.6355;
859.2000;0.7399;-5.6407;
859.5000;0.7456;-5.6303;
859.8000;0.7448;-5.6199;
860.1000;0.7489;-5.6096;
860.4000;0.7456;-5.6199;
860.7000;0.7464;-5.6199;
861.0000;0.7481;-5.6199;
861.3000;0.7473;-5.6277;
861.6000;0.7432;-5.6407;
861.9000;0.7448;-5.6303;
862.2000;0.7383;-5.6355;
862.5000;0.7448;-5.6277;
862.8000;0.7456;-5.6303;
863.1000;0.7489;-5.6199;
863.4000;0.7432;-5.6329;
863.7000;0.7416;-5.6355;
864.0000;0.7456;-5.6251;
864.3000;0.7440;-5.6329;
864.6000;0.7448;-5.6329;
864.9000;0.7448;-5.6277;
865.2000;0.7448;-5.6199;
865.5000;0.7448;-5.6199;
865.8000;0.7440;-5.6199;
866.1000;0.7448;-5.6199;
866.4000;0.7448;-5.6096;
866.7000;0.7440;-5.6070;
867.0000;0.7424;-5.6148;
867.3000;0.7473;-5.6044;
867.6000;0.7448;-5.6070;
867.9000;0.7440;-5.6070;
868.2000;0.7456;-5.6044;
868.5000;0.7383;-5.6251;
868.8000;0.7432;-5.6174;
869.1000;0.7416;-5.6251;
869.4000;0.7416;-5.6174;
869.7000;0.7416;-5.6148;
870.0000;0.7440;-5.5992;
870.3000;0.7432;-5.6070;
870.6000;0.7456;-5.5992;
870.9000;0.7432;-5.6018;
871.2000;0.7505;-5.5940;
871.5000;0.7432;-5.6122;
871.8000;0.7440;-5.6018;
872.1000;0.7416;-5.6096;
872.4000;0.7432;-5.6148;
872.7000;0.7521;-5.5862;
873.0000;0.7416;-5.6044;
873.3000;0.7407;-5.5992;
873.6000;0.7432;-5.5914;
873.9000;0.7416;-5.5940;
874.2000;0.7391;-5.5992;
874.5000;0.7399;-5.5966;
874.8000;0.7391;-5.6044;
875.1000;0.7416;-5.6070;
875.4000;0.7440;-5.6096;
875.7000;0.7424;-5.6122;
876.0000;0.7383;-5.6355;
876.3000;0.7407;-5.6303;
876.6000;0.7416;-5.6329;
876.9000;0.7416;-5.6329;
877.2000;0.7359;-5.6459;
877.5000;0.7424;-5.6303;
877.8000;0.7375;-5.6407;
878.1000;0.7407;-5.6303;
878.4000;0.7367;-5.6485;
878.7000;0.7391;-5.6433;
879.0000;0.7440;-5.6329;
879.3000;0.7399;-5.6329;
879.6000;0.7383;-5.6277;
879.9000;0.7407;-5.6251;
880.2000;0.7440;-5.6148;
880.5000;0.7399;-5.6225;
880.8000;0.7448;-5.6096;
881.1000;0.7350;-5.6329;
881.4000;0.7407;-5.6199;
881.7000;0.7399;-5.6303;
882.0000;0.7383;-5.6303;
882.3000;0.7391;-5.6251;
882.6000;0.7383;-5.6199;
882.9000;0.7391;-5.6148;
883.2000;0.7416;-5.6044;
883.5000;0.7391;-5.6199;
883.8000;0.7383;-5.6148;
884.1000;0.7383;-5.6018;
884.4000;0.7383;-5.5992;
884.7000;0.7383;-5.6044;
885.0000;0.7391;-5.5992;
885.3000;0.7383;-5.5966;
885.6000;0.7375;-5.5914;
885.9000;0.7383;-5.5940;
886.2000;0.7367;-5.6018;
886.5000;0.7359;-5.6148;
886.8000;0.7383;-5.6148;
887.1000;0.7359;-5.6148;
887.4000;0.7375;-5.6096;
887.7000;0.7383;-5.6096;
888.0000;0.7391;-5.6148;
888.3000;0.7391;-5.6174;
888.6000;0.7383;-5.6199;
888.9000;0.7359;-5.6303;
889.2000;0.7391;-5.6199;
889.5000;0.7375;-5.6225;
889.8000;0.7367;-5.6148;
890.1000;0.7375;-5.6251;
890.4000;0.7350;-5.6251;
890.7000;0.7350;-5.6174;
891.0000;0.7359;-5.6122;
891.3000;0.7350;-5.6070;
891.6000;0.7432;-5.5992;
891.9000;0.7359;-5.6174;
892.2000;0.7383;-5.6096;
892.5000;0.7367;-5.6122;
892.8000;0.7375;-5.6096;
893.1000;0.7416;-5.6018;
893.4000;0.7383;-5.6148;
893.7000;0.7367;-5.6148;
894.0000;0.7350;-5.6070;
894.3000;0.7359;-5.6096;
894.6000;0.7302;-5.6174;
894.9000;0.7350;-5.6018;
895.2000;0.7359;-5.5966;
895.5000;0.7367;-5.5914;
895.8000;0.7326;-5.6044;
896.1000;0.7342;-5.6044;
896.4000;0.7350;-5.6122;
896.7000;0.7359;-5.6122;
897.0000;0.7350;-5.6148;
897.3000;0.7367;-5.6070;
897.6000;0.7350;-5.6096;
897.9000;0.7326;-5.6251;
898.2000;0.7350;-5.6199;
898.5000;0.7350;-5.6277;
898.8000;0.7350;-5.6225;
899.1000;0.7359;-5.6303;
899.4000;0.7367;-5.6277;
899.7000;0.7359;-5.6225;
900.0000;0.7391;-5.6148;
900.3000;0.7326;-5.6277;
900.6000;0.7350;-5.6251;
900.9000;0.7399;-5.6148;
901.2000;0.7310;-5.6303;
901.5000;0.7342;-5.6225;
901.8000;0.7342;-5.6277;
902.1000;0.7350;-5.6225;
902.4000;0.7350;-5.6174;
902.7000;0.7318;-5.6225;
903.0000;0.7367;-5.6122;
903.3000;0.7342;-5.6148;
903.6000;0.7342;-5.6096;
903.9000;0.7326;-5.6199;
904.2000;0.7326;-5.6122;
904.5000;0.7334;-5.6096;
904.8000;0.7383;-5.5992;
905.1000;0.7302;-5.6251;
905.4000;0.7310;-5.6303;
905.7000;0.7318;-5.6329;
906.0000;0.7334;-5.6277;
906.3000;0.7326;-5.6303;
906.6000;0.7302;-5.6277;
906.9000;0.7334;-5.6225;
907.2000;0.7302;-5.6381;
907.5000;0.7326;-5.6355;
907.8000;0.7326;-5.6381;
908.1000;0.7334;-5.6329;
908.4000;0.7318;-5.6355;
908.7000;0.7334;-5.6329;
909.0000;0.7342;-5.6277;
909.3000;0.7334;-5.6199;
909.6000;0.7318;-5.6251;
909.9000;0.7326;-5.6148;
910.2000;0.7326;-5.6148;
910.5000;0.7310;-5.6148;
910.8000;0.7318;-5.6122;
911.1000;0.7310;-5.6199;
911.4000;0.7293;-5.6225;
911.7000;0.7375;-5.6096;
912.0000;0.7318;-5.6174;
912.3000;0.7285;-5.6329;
912.6000;0.7334;-5.6174;
912.9000;0.7310;-5.6251;
913.2000;0.7277;-5.6277;
913.5000;0.7310;-5.6251;
913.8000;0.7326;-5.6225;
914.1000;0.7285;-5.6381;
914.4000;0.7302;-5.6381;
914.7000;0.7318;-5.6433;
915.0000;0.7318;-5.6485;
915.3000;0.7318;-5.6355;
915.6000;0.7293;-5.6303;
915.9000;0.7310;-5.6355;
916.2000;0.7302;-5.6381;
916.5000;0.7318;-5.6329;
916.8000;0.7302;-5.6329;
917.1000;0.7318;-5.6251;
917.4000;0.7302;-5.6277;
917.7000;0.7310;-5.6277;
918.0000;0.7367;-5.6225;
918.3000;0.7359;-5.6303;
918.6000;0.7310;-5.6355;
918.9000;0.7318;-5.6277;
919.2000;0.7310;-5.6251;
919.5000;0.7293;-5.6303;
919.8000;0.7310;-5.6277;
920.1000;0.7302;-5.6277;
920.4000;0.7285;-5.6303;
920.7000;0.7277;-5.6277;
921.0000;0.7285;-5.6225;
921.3000;0.7302;-5.6174;
921.6000;0.7302;-5.6251;
921.9000;0.7302;-5.6199;
922.2000;0.7302;-5.6122;
922.5000;0.7318;-5.6148;
922.8000;0.7277;-5.6277;
923.1000;0.7285;-5.6199;
923.4000;0.7293;-5.6225;
923.7000;0.7285;-5.6225;
924.0000;0.7293;-5.6174;
924.3000;0.7285;-5.6174;
924.6000;0.7310;-5.6018;
924.9000;0.7277;-5.6044;
925.2000;0.7277;-5.6096;
925.5000;0.7293;-5.6122;
925.8000;0.7277;-5.6225;
926.1000;0.7253;-5.6277;
926.4000;0.7261;-5.6251;
926.7000;0.7302;-5.6148;
927.0000;0.7253;-5.6277;
927.3000;0.7269;-5.6251;
927.6000;0.7285;-5.6148;
927.9000;0.7261;-5.6122;
928.2000;0.7261;-5.6148;
928.5000;0.7261;-5.6070;
928.8000;0.7269;-5.5992;
929.1000;0.7277;-5.5940;
929.4000;0.7269;-5.6044;
929.7000;0.7261;-5.6018;
930.0000;0.7245;-5.6096;
930.3000;0.7277;-5.6070;
930.6000;0.7261;-5.6174;
930.9000;0.7253;-5.6148;
931.2000;0.7245;-5.6199;
931.5000;0.7269;-5.6148;
931.8000;0.7277;-5.6122;
932.1000;0.7342;-5.5888;
932.4000;0.7245;-5.6174;
932.7000;0.7285;-5.6044;
933.0000;0.7261;-5.6070;
933.3000;0.7293;-5.6070;
933.6000;0.7293;-5.6148;
933.9000;0.7277;-5.6148;
934.2000;0.7261;-5.6174;
934.5000;0.7277;-5.6018;
934.8000;0.7261;-5.6044;
935.1000;0.7269;-5.5914;
935.4000;0.7285;-5.5733;
935.7000;0.7277;-5.5759;
936.0000;0.7261;-5.5836;
936.3000;0.7236;-5.5914;
936.6000;0.7253;-5.5836;
936.9000;0.7245;-5.5785;
937.2000;0.7245;-5.5862;
937.5000;0.7245;-5.5940;
937.8000;0.7261;-5.5810;
938.1000;0.7261;-5.5810;
938.4000;0.7253;-5.5836;
938.7000;0.7245;-5.5836;
939.0000;0.7253;-5.5862;
939.3000;0.7269;-5.5836;
939.6000;0.7285;-5.5940;
939.9000;0.7245;-5.6044;
940.2000;0.7236;-5.6044;
940.5000;0.7285;-5.6044;
940.8000;0.7261;-5.6018;
941.1000;0.7245;-5.6070;
941.4000;0.7245;-5.6044;
941.7000;0.7245;-5.5992;
942.0000;0.7261;-5.5966;
942.3000;0.7236;-5.6044;
942.6000;0.7245;-5.6018;
942.9000;0.7220;-5.6070;
943.2000;0.7245;-5.6044;
943.5000;0.7245;-5.6070;
943.8000;0.7261;-5.6044;
944.1000;0.7236;-5.6122;
944.4000;0.7245;-5.5992;
944.7000;0.7245;-5.6122;
945.0000;0.7236;-5.6148;
945.3000;0.7220;-5.6199;
945.6000;0.7245;-5.6070;
945.9000;0.7245;-5.6018;
946.2000;0.7236;-5.6070;
946.5000;0.7212;-5.6044;
946.8000;0.7253;-5.5914;
947.1000;0.7236;-5.6018;
947.4000;0.7245;-5.6018;
947.7000;0.7228;-5.6044;
948.0000;0.7236;-5.6044;
948.3000;0.7236;-5.6044;
948.6000;0.7236;-5.6070;
948.9000;0.7236;-5.6070;
949.2000;0.7245;-5.6070;
949.5000;0.7245;-5.6018;
949.8000;0.7228;-5.5940;
950.1000;0.7236;-5.5862;
950.4000;0.7220;-5.5992;
950.7000;0.7228;-5.6018;
951.0000;0.7236;-5.5966;
951.3000;0.7236;-5.5966;
951.6000;0.7220;-5.6044;
951.9000;0.7204;-5.6044;
952.2000;0.7236;-5.5966;
952.5000;0.7220;-5.5940;
952.8000;0.7228;-5.5940;
953.1000;0.7220;-5.5862;
953.4000;0.7245;-5.5810;
953.7000;0.7212;-5.5836;
954.0000;0.7228;-5.5810;
954.3000;0.7285;-5.5655;
954.6000;0.7204;-5.5862;
954.9000;0.7204;-5.5888;
955.2000;0.7204;-5.5992;
955.5000;0.7220;-5.5914;
955.8000;0.7212;-5.6018;
956.1000;0.7236;-5.6044;
956.4000;0.7204;-5.6148;
956.7000;0.7212;-5.6122;
957.0000;0.7196;-5.6148;
957.3000;0.7204;-5.6044;
957.6000;0.7204;-5.6018;
957.9000;0.7204;-5.5966;
958.2000;0.7188;-5.6096;
958.5000;0.7204;-5.6070;
958.8000;0.7204;-5.6096;
959.1000;0.7212;-5.6018;
959.4000;0.7220;-5.6044;
959.7000;0.7204;-5.6018;
960.0000;0.7204;-5.6070;
960.3000;0.7228;-5.6070;
960.6000;0.7204;-5.6096;
960.9000;0.7220;-5.6096;
961.2000;0.7228;-5.6122;
961.5000;0.7228;-5.6174;
961.8000;0.7245;-5.6174;
962.1000;0.7220;-5.6277;
962.4000;0.7228;-5.6277;
962.7000;0.7196;-5.6329;
963.0000;0.7179;-5.6277;
963.3000;0.7155;-5.6251;
963.6000;0.7188;-5.6122;
963.9000;0.7196;-5.6122;
964.2000;0.7179;-5.6096;
964.5000;0.7188;-5.6122;
964.8000;0.7212;-5.6122;
965.1000;0.7196;-5.6070;
965.4000;0.7179;-5.6148;
965.7000;0.7204;-5.6199;
966.0000;0.7196;-5.6174;
966.3000;0.7204;-5.6174;
966.6000;0.7188;-5.6096;
966.9000;0.7171;-5.6018;
967.2000;0.7196;-5.6070;
967.5000;0.7196;-5.6096;
967.8000;0.7196;-5.6070;
968.1000;0.7188;-5.6122;
968.4000;0.7196;-5.5966;
968.7000;0.7196;-5.5966;
969.0000;0.7204;-5.5836;
969.3000;0.7179;-5.5914;
969.6000;0.7220;-5.5914;
969.9000;0.7196;-5.5966;
970.2000;0.7196;-5.5992;
970.5000;0.7204;-5.5992;
970.8000;0.7179;-5.6018;
971.1000;0.7171;-5.5992;
971.4000;0.7196;-5.5940;
971.7000;0.7188;-5.5940;
972.0000;0.7179;-5.6018;
972.3000;0.7188;-5.5992;
972.6000;0.7196;-5.5966;
972.9000;0.7188;-5.5992;
973.2000;0.7155;-5.6122;
973.5000;0.7163;-5.5992;
973.8000;0.7179;-5.6070;
974.1000;0.7188;-5.6018;
974.4000;0.7204;-5.5966;
974.7000;0.7179;-5.5992;
975.0000;0.7171;-5.6070;
975.3000;0.7179;-5.5992;
975.6000;0.7179;-5.5966;
975.9000;0.7171;-5.6018;
976.2000;0.7179;-5.5966;
976.5000;0.7179;-5.5966;
976.8000;0.7179;-5.6044;
977.1000;0.7236;-5.5940;
977.4000;0.7179;-5.5992;
977.7000;0.7171;-5.6018;
978.0000;0.7163;-5.6096;
978.3000;0.7171;-5.6096;
978.6000;0.7171;-5.6018;
978.9000;0.7163;-5.6070;
979.2000;0.7171;-5.6018;
979.5000;0.7155;-5.6148;
979.8000;0.7131;-5.6199;
980.1000;0.7179;-5.6096;
980.4000;0.7114;-5.6329;
980.7000;0.7171;-5.6174;
981.0000;0.7163;-5.6225;
981.3000;0.7171;-5.6303;
981.6000;0.7171;-5.6277;
981.9000;0.7179;-5.6199;
982.2000;0.7179;-5.6174;
982.5000;0.7171;-5.6174;
982.8000;0.7179;-5.6199;
983.1000;0.7163;-5.6225;
983.4000;0.7171;-5.6174;
983.7000;0.7179;-5.6096;
984.0000;0.7179;-5.6018;
984.3000;0.7188;-5.6122;
984.6000;0.7171;-5.6096;
984.9000;0.7163;-5.6174;
985.2000;0.7163;-5.6044;
985.5000;0.7196;-5.6044;
985.8000;0.7163;-5.6122;
986.1000;0.7147;-5.6122;
986.4000;0.7163;-5.6096;
986.7000;0.7139;-5.6174;
987.0000;0.7163;-5.6148;
987.3000;0.7163;-5.6096;
987.6000;0.7155;-5.6096;
987.9000;0.7155;-5.6122;
988.2000;0.7188;-5.5992;
988.5000;0.7139;-5.5992;
988.8000;0.7155;-5.6018;
989.1000;0.7163;-5.6018;
989.4000;0.7155;-5.6070;
989.7000;0.7147;-5.6018;
990.0000;0.7155;-5.5966;
990.3000;0.7147;-5.5862;
990.6000;0.7155;-5.5888;
990.9000;0.7155;-5.5888;
991.2000;0.7155;-5.5914;
991.5000;0.7147;-5.5940;
991.8000;0.7163;-5.5992;
992.1000;0.7155;-5.6070;
992.4000;0.7090;-5.6199;
992.7000;0.7171;-5.5940;
993.0000;0.7131;-5.6070;
993.3000;0.7139;-5.5992;
993.6000;0.7236;-5.5707;
993.9000;0.7220;-5.5759;
994.2000;0.7163;-5.5862;
994.5000;0.7139;-5.5992;
994.8000;0.7139;-5.6096;
995.1000;0.7139;-5.6122;
995.4000;0.7139;-5.6122;
995.7000;0.7139;-5.6174;
996.0000;0.7147;-5.6122;
996.3000;0.7147;-5.6148;
996.6000;0.7066;-5.6277;
996.9000;0.7155;-5.6044;
997.2000;0.7163;-5.6148;
997.5000;0.7147;-5.6122;
997.8000;0.7155;-5.6018;
998.1000;0.7114;-5.6070;
998.4000;0.7139;-5.5992;
998.7000;0.7139;-5.6018;
999.0000;0.7155;-5.5940;
999.3000;0.7139;-5.5940;
999.6000;0.7171;-5.5785;
999.9000;0.7123;-5.5966;
1000.2000;0.7123;-5.5940;
1000.5000;0.7131;-5.5914;
1000.8000;0.7139;-5.5914;
1001.1000;0.7147;-5.5862;
1001.4000;0.7131;-5.5914;
1001.7000;0.7090;-5.6018;
1002.0000;0.7131;-5.5940;
1002.3000;0.7155;-5.6018;
1002.6000;0.7147;-5.6044;
1002.9000;0.7106;-5.6044;
1003.2000;0.7196;-5.5862;
1003.5000;0.7139;-5.5992;
1003.8000;0.7114;-5.6018;
1004.1000;0.7114;-5.6096;
1004.4000;0.7123;-5.6096;
1004.7000;0.7123;-5.5992;
1005.0000;0.7123;-5.5966;
1005.3000;0.7131;-5.5966;
1005.6000;0.7131;-5.5940;
1005.9000;0.7114;-5.5992;
1006.2000;0.7114;-5.6096;
1006.5000;0.7139;-5.6174;
1006.8000;0.7131;-5.6303;
1007.1000;0.7155;-5.6148;
1007.4000;0.7131;-5.6251;
1007.7000;0.7106;-5.6251;
1008.0000;0.7114;-5.6148;
1008.3000;0.7139;-5.6018;
1008.6000;0.7131;-5.6018;
1008.9000;0.7123;-5.6044;
1009.2000;0.7049;-5.6148;
1009.5000;0.7123;-5.6018;
1009.8000;0.7131;-5.5940;
1010.1000;0.7163;-5.5914;
1010.4000;0.7106;-5.6070;
1010.7000;0.7131;-5.5992;
1011.0000;0.7179;-5.5810;
1011.3000;0.7147;-5.5914;
1011.6000;0.7123;-5.5966;
1011.9000;0.7123;-5.6018;
1012.2000;0.7106;-5.6018;
1012.5000;0.7114;-5.5966;
1012.8000;0.7082;-5.6070;
1013.1000;0.7114;-5.5992;
1013.4000;0.7106;-5.5966;
1013.7000;0.7123;-5.5914;
1014.0000;0.7106;-5.5992;
1014.3000;0.7098;-5.6018;
1014.6000;0.7106;-5.6044;
1014.9000;0.7114;-5.6044;
1015.2000;0.7106;-5.6070;
1015.5000;0.7106;-5.6096;
1015.8000;0.7090;-5.6070;
1016.1000;0.7114;-5.6044;
1016.4000;0.7106;-5.6096;
1016.7000;0.7106;-5.6096;
1017.0000;0.7090;-5.6044;
1017.3000;0.7114;-5.5940;
1017.6000;0.7123;-5.5940;
1017.9000;0.7163;-5.5759;
1018.2000;0.7114;-5.5862;
1018.5000;0.7106;-5.5862;
1018.8000;0.7139;-5.5810;
1019.1000;0.7106;-5.5940;
1019.4000;0.7114;-5.5992;
1019.7000;0.7106;-5.6070;
1020.0000;0.7098;-5.6070;
1020.3000;0.7106;-5.6044;
1020.6000;0.7074;-5.6044;
1020.9000;0.7114;-5.5940;
1021.2000;0.7114;-5.5940;
1021.5000;0.7098;-5.6018;
1021.8000;0.7163;-5.5810;
1022.1000;0.7057;-5.6044;
1022.4000;0.7074;-5.5992;
1022.7000;0.7114;-5.5966;
1023.0000;0.7114;-5.5836;
1023.3000;0.7090;-5.5888;
1023.6000;0.7082;-5.5888;
1023.9000;0.7098;-5.5914;
1024.2000;0.7082;-5.6044;
1024.5000;0.7000;-5.6148;
1024.8000;0.7098;-5.5940;
1025.1000;0.7098;-5.5966;
1025.4000;0.7082;-5.5940;
1025.7000;0.7090;-5.5862;
1026.0000;0.7106;-5.5836;
1026.3000;0.7082;-5.5888;
1026.6000;0.7082;-5.5836;
1026.9000;0.7082;-5.5862;
1027.2000;0.7098;-5.5785;
1027.5000;0.7098;-5.5733;
1027.8000;0.7098;-5.5785;
1028.1000;0.7074;-5.5810;
1028.4000;0.7041;-5.5966;
1028.7000;0.7098;-5.5810;
1029.0000;0.7123;-5.5836;
1029.3000;0.7090;-5.5966;
1029.6000;0.7082;-5.6096;
1029.9000;0.7082;-5.6044;
1030.2000;0.7106;-5.6018;
1030.5000;0.7082;-5.6018;
1030.8000;0.7033;-5.6018;
1031.1000;0.7106;-5.5862;
1031.4000;0.7098;-5.5940;
1031.7000;0.7090;-5.5914;
1032.0000;0.7090;-5.5862;
1032.3000;0.7131;-5.5707;
1032.6000;0.7082;-5.5914;
1032.9000;0.7098;-5.5966;
1033.2000;0.7123;-5.5785;
1033.5000;0.7090;-5.5836;
1033.8000;0.7082;-5.5914;
1034.1000;0.7155;-5.5681;
1034.4000;0.7074;-5.5836;
1034.7000;0.7057;-5.5940;
1035.0000;0.7139;-5.5733;
1035.3000;0.7082;-5.5862;
1035.6000;0.7082;-5.5966;
1035.9000;0.7066;-5.6018;
1036.2000;0.7066;-5.5966;
1036.5000;0.7066;-5.6018;
1036.8000;0.7066;-5.6096;
1037.1000;0.7074;-5.6096;
1037.4000;0.7074;-5.6122;
1037.7000;0.7106;-5.6096;
1038.0000;0.7082;-5.6096;
1038.3000;0.7074;-5.6122;
1038.6000;0.7074;-5.6018;
1038.9000;0.7090;-5.5914;
1039.2000;0.7074;-5.5966;
1039.5000;0.7098;-5.5992;
1039.8000;0.7082;-5.6044;
1040.1000;0.7074;-5.6044;
1040.4000;0.7131;-5.5966;
1040.7000;0.7147;-5.5966;
1041.0000;0.7057;-5.6199;
1041.3000;0.7066;-5.6199;
1041.6000;0.7066;-5.6174;
1041.9000;0.7082;-5.6096;
1042.2000;0.7074;-5.6122;
1042.5000;0.7082;-5.6018;
1042.8000;0.7090;-5.5940;
1043.1000;0.7074;-5.5966;
1043.4000;0.7114;-5.5862;
1043.7000;0.7123;-5.5862;
1044.0000;0.7074;-5.6096;
1044.3000;0.7057;-5.6044;
1044.6000;0.7057;-5.6070;
1044.9000;0.7000;-5.6199;
1045.2000;0.7041;-5.6096;
1045.5000;0.7090;-5.5940;
1045.8000;0.7066;-5.6122;
1046.1000;0.7057;-5.6122;
1046.4000;0.7049;-5.6070;
1046.7000;0.7074;-5.6018;
1047.0000;0.7033;-5.6096;
1047.3000;0.7057;-5.5992;
1047.6000;0.7082;-5.5992;
1047.9000;0.7066;-5.6018;
1048.2000;0.7123;-5.5862;
1048.5000;0.7082;-5.5914;
1048.8000;0.7057;-5.6018;
1049.1000;0.7049;-5.6018;
1049.4000;0.7074;-5.5810;
1049.7000;0.7066;-5.5810;
1050.0000;0.7057;-5.5759;
1050.3000;0.7057;-5.5785;
1050.6000;0.7049;-5.5836;
1050.9000;0.7041;-5.5888;
1051.2000;0.7074;-5.5836;
1051.5000;0.7082;-5.5759;
1051.8000;0.7057;-5.5862;
1052.1000;0.7066;-5.5836;
1052.4000;0.7033;-5.5888;
1052.7000;0.7057;-5.5836;
1053.0000;0.7057;-5.5888;
1053.3000;0.7066;-5.5966;
1053.6000;0.7057;-5.6044;
1053.9000;0.7049;-5.6044;
1054.2000;0.7049;-5.5992;
1054.5000;0.7074;-5.5914;
1054.8000;0.7098;-5.5810;
1055.1000;0.7057;-5.5940;
1055.4000;0.7033;-5.5966;
1055.7000;0.7057;-5.5862;
1056.0000;0.7025;-5.5992;
1056.3000;0.7041;-5.5966;
1056.6000;0.7049;-5.5940;
1056.9000;0.7057;-5.5914;
1057.2000;0.7114;-5.5785;
1057.5000;0.7066;-5.5810;
1057.8000;0.7049;-5.5888;
1058.1000;0.7033;-5.5862;
1058.4000;0.7033;-5.5836;
1058.7000;0.7025;-5.5914;
1059.0000;0.7041;-5.5914;
1059.3000;0.7041;-5.5992;
1059.6000;0.7114;-5.5785;
1059.9000;0.7082;-5.5810;
1060.2000;0.7033;-5.5914;
1060.5000;0.7049;-5.5966;
1060.8000;0.7041;-5.6070;
1061.1000;0.7049;-5.6044;
1061.4000;0.7041;-5.6044;
1061.7000;0.7041;-5.6044;
1062.0000;0.7033;-5.6018;
1062.3000;0.7049;-5.6018;
1062.6000;0.7009;-5.6174;
1062.9000;0.7041;-5.6044;
1063.2000;0.7041;-5.6044;
1063.5000;0.7066;-5.5966;
1063.8000;0.7049;-5.5914;
1064.1000;0.7025;-5.5914;
1064.4000;0.7082;-5.5785;
1064.7000;0.7049;-5.5862;
1065.0000;0.7009;-5.5940;
1065.3000;0.7033;-5.5785;
1065.6000;0.7025;-5.5810;
1065.9000;0.7033;-5.5733;
1066.2000;0.7049;-5.5733;
1066.5000;0.7033;-5.5810;
1066.8000;0.7025;-5.5759;
1067.1000;0.7033;-5.5759;
1067.4000;0.7066;-5.5707;
1067.7000;0.7033;-5.5785;
1068.0000;0.7017;-5.5888;
1068.3000;0.7033;-5.5785;
1068.6000;0.7033;-5.5707;
1068.9000;0.7041;-5.5707;
1069.2000;0.6992;-5.5785;
1069.5000;0.7017;-5.5785;
1069.8000;0.7025;-5.5759;
1070.1000;0.7114;-5.5473;
1070.4000;0.7033;-5.5759;
1070.7000;0.7025;-5.5733;
1071.0000;0.7000;-5.5836;
1071.3000;0.7025;-5.5733;
1071.6000;0.7025;-5.5836;
1071.9000;0.6992;-5.5888;
1072.2000;0.7025;-5.5940;
1072.5000;0.7033;-5.5914;
1072.8000;0.7025;-5.5862;
1073.1000;0.7025;-5.5810;
1073.4000;0.6992;-5.5810;
1073.7000;0.7033;-5.5733;
1074.0000;0.7025;-5.5733;
1074.3000;0.7057;-5.5655;
1074.6000;0.7025;-5.5759;
1074.9000;0.7017;-5.5681;
1075.2000;0.7033;-5.5707;
1075.5000;0.7033;-5.5681;
1075.8000;0.7017;-5.5707;
1076.1000;0.7098;-5.5551;
1076.4000;0.6992;-5.5836;
1076.7000;0.7017;-5.5681;
1077.0000;0.7017;-5.5759;
1077.3000;0.7041;-5.5707;
1077.6000;0.7033;-5.5810;
1077.9000;0.7057;-5.5759;
1078.2000;0.7033;-5.5707;
1078.5000;0.7017;-5.5785;
1078.8000;0.6984;-5.5888;
1079.1000;0.7017;-5.5759;
1079.4000;0.7025;-5.5707;
1079.7000;0.7009;-5.5733;
1080.0000;0.7009;-5.5681;
1080.3000;0.7033;-5.5655;
1080.6000;0.7009;-5.5759;
1080.9000;0.7000;-5.5733;
1081.2000;0.7009;-5.5759;
1081.5000;0.7009;-5.5733;
1081.8000;0.7000;-5.5759;
1082.1000;0.7009;-5.5759;
1082.4000;0.7009;-5.5810;
1082.7000;0.7025;-5.5862;
1083.0000;0.7017;-5.5888;
1083.3000;0.7017;-5.5810;
1083.6000;0.7000;-5.5862;
1083.9000;0.7025;-5.5836;
1084.2000;0.7009;-5.5810;
1084.5000;0.7017;-5.5810;
1084.8000;0.7025;-5.5759;
1085.1000;0.7025;-5.5785;
1085.4000;0.6984;-5.5940;
1085.7000;0.6984;-5.5810;
1086.0000;0.7000;-5.5785;
1086.3000;0.7009;-5.5759;
1086.6000;0.7025;-5.5707;
1086.9000;0.6992;-5.5785;
1087.2000;0.7017;-5.5707;
1087.5000;0.7000;-5.5707;
1087.8000;0.7057;-5.5603;
1088.1000;0.7017;-5.5733;
1088.4000;0.7041;-5.5681;
1088.7000;0.6976;-5.5785;
1089.0000;0.7009;-5.5707;
1089.3000;0.7017;-5.5707;
1089.6000;0.6968;-5.5862;
1089.9000;0.6968;-5.5836;
1090.2000;0.7025;-5.5733;
1090.5000;0.7009;-5.5785;
1090.8000;0.7017;-5.5707;
1091.1000;0.7000;-5.5707;
1091.4000;0.7009;-5.5655;
1091.7000;0.6992;-5.5810;
1092.0000;0.6984;-5.5810;
1092.3000;0.6984;-5.5888;
1092.6000;0.6992;-5.5914;
1092.9000;0.6992;-5.5888;
1093.2000;0.6984;-5.5914;
1093.5000;0.6976;-5.5940;
1093.8000;0.6984;-5.5940;
1094.1000;0.7000;-5.5862;
1094.4000;0.7017;-5.5759;
1094.7000;0.7000;-5.5785;
1095.0000;0.7000;-5.5836;
1095.3000;0.7009;-5.5862;
1095.6000;0.7000;-5.5888;
1095.9000;0.7009;-5.5836;
1096.2000;0.6960;-5.5914;
1096.5000;0.7000;-5.5836;
1096.8000;0.7000;-5.5810;
1097.1000;0.6984;-5.5862;
1097.4000;0.6992;-5.5836;
1097.7000;0.7000;-5.5836;
1098.0000;0.6992;-5.5940;
1098.3000;0.6992;-5.5966;
1098.6000;0.6984;-5.5992;
1098.9000;0.6968;-5.6044;
1099.2000;0.6992;-5.5992;
1099.5000;0.7000;-5.5914;
1099.8000;0.6984;-5.5914;
1100.1000;0.6992;-5.5810;
1100.4000;0.7009;-5.5810;
1100.7000;0.7000;-5.5836;
1101.0000;0.7025;-5.5836;
1101.3000;0.6992;-5.5888;
1101.6000;0.7000;-5.5888;
1101.9000;0.7000;-5.5836;
1102.2000;0.6984;-5.5914;
1102.5000;0.6976;-5.5888;
1102.8000;0.6984;-5.5862;
1103.1000;0.6984;-5.5862;
1103.4000;0.6984;-5.5914;
1103.7000;0.6976;-5.5810;
1104.0000;0.6952;-5.5810;
1104.3000;0.6927;-5.5785;
1104.6000;0.6984;-5.5681;
1104.9000;0.6976;-5.5733;
1105.2000;0.6992;-5.5707;
1105.5000;0.6992;-5.5759;
1105.8000;0.6976;-5.5862;
1106.1000;0.6984;-5.5707;
1106.4000;0.6976;-5.5810;
1106.7000;0.6976;-5.5836;
1107.0000;0.6976;-5.5862;
1107.3000;0.6992;-5.5759;
1107.6000;0.6992;-5.5810;
1107.9000;0.6968;-5.5862;
1108.2000;0.6919;-5.5966;
1108.5000;0.7000;-5.5785;
1108.8000;0.6968;-5.5862;
1109.1000;0.6976;-5.5862;
1109.4000;0.6960;-5.5940;
1109.7000;0.6976;-5.5966;
1110.0000;0.6968;-5.5992;
1110.3000;0.6976;-5.5966;
1110.6000;0.6952;-5.6018;
1110.9000;0.6976;-5.5862;
1111.2000;0.6968;-5.5836;
1111.5000;0.6984;-5.5785;
1111.8000;0.7000;-5.5785;
1112.1000;0.7025;-5.5759;
1112.4000;0.6976;-5.5888;
1112.7000;0.6968;-5.5914;
1113.0000;0.7009;-5.5785;
1113.3000;0.6976;-5.5836;
1113.6000;0.6992;-5.5733;
1113.9000;0.6960;-5.5836;
1114.2000;0.6968;-5.5836;
1114.5000;0.6968;-5.5888;
1114.8000;0.6984;-5.5836;
1115.1000;0.6968;-5.5914;
1115.4000;0.6976;-5.5940;
1115.7000;0.6943;-5.5914;
1116.0000;0.6968;-5.5888;
1116.3000;0.6976;-5.5836;
1116.6000;0.6968;-5.5862;
1116.9000;0.6960;-5.5914;
1117.2000;0.6968;-5.5940;
1117.5000;0.6968;-5.5888;
1117.8000;0.6952;-5.5862;
1118.1000;0.6927;-5.5940;
1118.4000;0.6976;-5.5759;
1118.7000;0.6976;-5.5759;
1119.0000;0.6968;-5.5733;
1119.3000;0.6968;-5.5810;
1119.6000;0.6960;-5.5810;
1119.9000;0.6976;-5.5888;
1120.2000;0.6968;-5.5810;
1120.5000;0.7000;-5.5577;
1120.8000;0.6952;-5.5681;
1121.1000;0.6976;-5.5655;
1121.4000;0.6960;-5.5655;
1121.7000;0.6992;-5.5655;
1122.0000;0.6960;-5.5733;
1122.3000;0.6960;-5.5733;
1122.6000;0.6976;-5.5785;
1122.9000;0.6984;-5.5836;
1123.2000;0.7000;-5.5810;
1123.5000;0.6976;-5.5914;
1123.8000;0.6968;-5.5810;
1124.1000;0.6952;-5.5836;
1124.4000;0.6943;-5.5785;
1124.7000;0.6960;-5.5785;
1125.0000;0.6960;-5.5862;
1125.3000;0.6992;-5.5836;
1125.6000;0.6976;-5.5914;
1125.9000;0.6984;-5.5810;
1126.2000;0.6903;-5.5940;
1126.5000;0.6952;-5.5733;
1126.8000;0.6976;-5.5655;
1127.1000;0.6960;-5.5577;
1127.4000;0.6976;-5.5655;
1127.7000;0.6960;-5.5707;
1128.0000;0.6952;-5.5759;
1128.3000;0.6968;-5.5707;
1128.6000;0.6952;-5.5681;
1128.9000;0.6976;-5.5681;
1129.2000;0.6952;-5.5707;
1129.5000;0.6935;-5.5655;
1129.8000;0.6968;-5.5577;
1130.1000;0.6960;-5.5525;
1130.4000;0.6935;-5.5603;
1130.7000;0.6968;-5.5655;
1131.0000;0.6943;-5.5681;
1131.3000;0.6960;-5.5681;
1131.6000;0.6952;-5.5707;
1131.9000;0.6968;-5.5603;
1132.2000;0.6943;-5.5681;
1132.5000;0.6943;-5.5733;
1132.8000;0.6968;-5.5629;
1133.1000;0.6935;-5.5707;
1133.4000;0.6943;-5.5655;
1133.7000;0.6992;-5.5525;
1134.0000;0.6952;-5.5681;
1134.3000;0.6903;-5.5810;
1134.6000;0.6927;-5.5836;
1134.9000;0.6935;-5.5785;
1135.2000;0.7017;-5.5655;
1135.5000;0.6960;-5.5810;
1135.8000;0.6952;-5.5785;
1136.1000;0.6952;-5.5810;
1136.4000;0.6960;-5.5707;
1136.7000;0.6935;-5.5810;
1137.0000;0.7009;-5.5577;
1137.3000;0.6952;-5.5655;
1137.6000;0.6976;-5.5655;
1137.9000;0.6943;-5.5707;
1138.2000;0.6919;-5.5810;
1138.5000;0.6935;-5.5785;
1138.8000;0.6935;-5.5733;
1139.1000;0.6968;-5.5707;
1139.4000;0.6935;-5.5810;
1139.7000;0.6952;-5.5759;
1140.0000;0.6935;-5.5810;
1140.3000;0.6935;-5.5836;
1140.6000;0.6935;-5.5862;
1140.9000;0.6927;-5.5888;
1141.2000;0.6903;-5.5940;
1141.5000;0.6903;-5.5888;
1141.8000;0.6960;-5.5707;
1142.1000;0.6919;-5.5785;
1142.4000;0.6952;-5.5785;
1142.7000;0.7017;-5.5629;
1143.0000;0.6952;-5.5707;
1143.3000;0.6935;-5.5733;
1143.6000;0.6935;-5.5733;
1143.9000;0.6935;-5.5810;
1144.2000;0.6952;-5.5862;
1144.5000;0.6935;-5.5836;
1144.8000;0.6943;-5.5733;
1145.1000;0.6960;-5.5733;
1145.4000;0.6960;-5.5707;
1145.7000;0.6935;-5.5836;
1146.0000;0.6935;-5.5836;
1146.3000;0.6919;-5.5966;
1146.6000;0.6943;-5.5914;
1146.9000;0.6952;-5.5836;
1147.2000;0.6935;-5.5940;
1147.5000;0.6927;-5.5914;
1147.8000;0.6943;-5.5810;
1148.1000;0.6935;-5.5785;
1148.4000;0.6935;-5.5836;
1148.7000;0.6927;-5.5888;
1149.0000;0.6952;-5.5759;
1149.3000;0.6903;-5.5810;
1149.6000;0.6919;-5.5733;
1149.9000;0.6854;-5.5914;
1150.2000;0.6992;-5.5603;
1150.5000;0.6952;-5.5629;
1150.8000;0.7000;-5.5473;
1151.1000;0.6927;-5.5655;
1151.4000;0.6927;-5.5759;
1151.7000;0.6952;-5.5655;
1152.0000;0.6943;-5.5577;
1152.3000;0.6919;-5.5733;
1152.6000;0.6919;-5.5810;
1152.9000;0.6927;-5.5733;
1153.2000;0.6952;-5.5629;
1153.5000;0.6927;-5.5707;
1153.8000;0.6927;-5.5681;
1154.1000;0.6935;-5.5655;
1154.4000;0.6952;-5.5603;
1154.7000;0.6911;-5.5759;
1155.0000;0.6927;-5.5759;
1155.3000;0.6927;-5.5862;
1155.6000;0.6943;-5.5862;
1155.9000;0.6927;-5.5862;
1156.2000;0.6927;-5.5888;
1156.5000;0.6927;-5.5810;
1156.8000;0.6927;-5.5836;
1157.1000;0.6943;-5.5759;
1157.4000;0.6984;-5.5629;
1157.7000;0.6943;-5.5733;
1158.0000;0.6935;-5.5759;
1158.3000;0.6935;-5.5785;
1158.6000;0.6943;-5.5759;
1158.9000;0.6919;-5.5759;
1159.2000;0.6919;-5.5759;
1159.5000;0.6927;-5.5733;
1159.8000;0.6927;-5.5707;
1160.1000;0.6919;-5.5707;
1160.4000;0.6935;-5.5733;
1160.7000;0.6943;-5.5655;
1161.0000;0.6927;-5.5707;
1161.3000;0.6911;-5.5785;
1161.6000;0.6952;-5.5785;
1161.9000;0.6870;-5.6044;
1162.2000;0.6919;-5.5862;
1162.5000;0.7000;-5.5707;
1162.8000;0.6911;-5.5836;
1163.1000;0.6935;-5.5733;
1163.4000;0.6935;-5.5733;
1163.7000;0.6935;-5.5681;
1164.0000;0.6919;-5.5629;
1164.3000;0.6927;-5.5655;
1164.6000;0.6919;-5.5759;
1164.9000;0.6919;-5.5733;
1165.2000;0.6903;-5.5733;
1165.5000;0.6878;-5.5862;
1165.8000;0.6903;-5.5785;
1166.1000;0.6903;-5.5810;
1166.4000;0.6895;-5.5836;
1166.7000;0.6895;-5.5862;
1167.0000;0.6903;-5.5940;
1167.3000;0.6895;-5.6044;
1167.6000;0.6895;-5.5966;
1167.9000;0.6911;-5.5992;
1168.2000;0.6911;-5.5888;
1168.5000;0.6935;-5.5785;
1168.8000;0.6919;-5.5785;
1169.1000;0.6935;-5.5862;
1169.4000;0.6935;-5.5810;
1169.7000;0.6919;-5.5810;
1170.0000;0.6927;-5.5733;
1170.3000;0.6895;-5.5733;
1170.6000;0.6943;-5.5603;
1170.9000;0.6927;-5.5603;
1171.2000;0.6927;-5.5681;
1171.5000;0.6911;-5.5810;
1171.8000;0.6895;-5.5862;
1172.1000;0.6903;-5.5759;
1172.4000;0.6911;-5.5733;
1172.7000;0.6911;-5.5733;
1173.0000;0.6911;-5.5733;
1173.3000;0.6919;-5.5733;
1173.6000;0.6911;-5.5707;
1173.9000;0.6935;-5.5681;
1174.2000;0.6895;-5.5733;
1174.5000;0.6935;-5.5785;
1174.8000;0.6927;-5.5940;
1175.1000;0.6911;-5.5992;
1175.4000;0.6895;-5.5888;
1175.7000;0.6886;-5.5888;
1176.0000;0.6903;-5.5810;
1176.3000;0.6862;-5.5914;
1176.6000;0.6886;-5.5862;
1176.9000;0.6911;-5.5836;
1177.2000;0.6911;-5.5888;
1177.5000;0.6886;-5.6044;
1177.8000;0.6895;-5.6044;
1178.1000;0.6911;-5.5992;
1178.4000;0.6911;-5.5836;
1178.7000;0.6919;-5.5810;
1179.0000;0.6919;-5.5707;
1179.3000;0.6862;-5.5785;
1179.6000;0.6911;-5.5733;
1179.9000;0.6903;-5.5785;
1180.2000;0.6911;-5.5836;
1180.5000;0.6919;-5.5759;
1180.8000;0.6943;-5.5733;
1181.1000;0.6895;-5.5785;
1181.4000;0.6911;-5.5759;
1181.7000;0.6838;-5.5914;
1182.0000;0.6862;-5.5810;
1182.3000;0.6911;-5.5629;
1182.6000;0.6903;-5.5733;
1182.9000;0.6846;-5.5966;
1183.2000;0.6895;-5.5862;
1183.5000;0.6927;-5.5759;
1183.8000;0.6927;-5.5810;
1184.1000;0.6886;-5.5940;
1184.4000;0.6903;-5.5888;
1184.7000;0.6895;-5.5888;
1185.0000;0.6895;-5.5914;
1185.3000;0.6911;-5.5810;
1185.6000;0.6919;-5.5785;
1185.9000;0.6878;-5.5862;
1186.2000;0.6886;-5.5914;
1186.5000;0.6895;-5.5940;
1186.8000;0.6886;-5.5940;
1187.1000;0.6886;-5.5966;
1187.4000;0.6903;-5.5862;
1187.7000;0.6911;-5.5862;
1188.0000;0.6903;-5.5888;
1188.3000;0.6886;-5.5914;
1188.6000;0.6862;-5.6018;
1188.9000;0.6919;-5.5940;
1189.2000;0.6952;-5.5888;
1189.5000;0.6886;-5.6044;
1189.8000;0.6911;-5.5966;
1190.1000;0.6903;-5.5992;
1190.4000;0.6895;-5.5914;
1190.7000;0.6903;-5.5810;
1191.0000;0.6878;-5.5940;
1191.3000;0.6886;-5.5888;
1191.6000;0.6895;-5.5914;
1191.9000;0.6903;-5.5888;
1192.2000;0.6886;-5.5914;
1192.5000;0.6919;-5.5836;
1192.8000;0.6895;-5.5888;
1193.1000;0.6903;-5.5862;
1193.4000;0.6886;-5.5862;
1193.7000;0.6895;-5.5836;
1194.0000;0.6903;-5.5862;
1194.3000;0.6911;-5.5810;
1194.6000;0.6886;-5.5914;
1194.9000;0.6911;-5.5759;
1195.2000;0.6886;-5.5836;
1195.5000;0.6895;-5.5785;
1195.8000;0.6903;-5.5810;
1196.1000;0.6903;-5.5836;
1196.4000;0.6878;-5.5810;
1196.7000;0.6895;-5.5759;
1197.0000;0.6935;-5.5603;
1197.3000;0.6878;-5.5733;
1197.6000;0.6886;-5.5759;
1197.9000;0.6854;-5.5733;
1198.2000;0.6886;-5.5759;
1198.5000;0.6878;-5.5836;
1198.8000;0.6878;-5.5836;
1199.1000;0.6878;-5.5785;
1199.4000;0.6878;-5.5836;
1199.7000;0.6878;-5.5810;
1200.0000;0.6878;-5.5836;
1200.3000;0.6895;-5.5810;
1200.6000;0.6886;-5.5733;
1200.9000;0.6886;-5.5733;
1201.2000;0.6886;-5.5785;
1201.5000;0.6895;-5.5785;
1201.8000;0.6886;-5.5810;
1202.1000;0.6886;-5.5836;
1202.4000;0.6870;-5.5810;
1202.7000;0.6862;-5.5785;
1203.0000;0.6878;-5.5785;
1203.3000;0.6886;-5.5836;
1203.6000;0.6895;-5.5862;
1203.9000;0.6903;-5.5810;
1204.2000;0.6895;-5.5888;
1204.5000;0.6878;-5.5836;
1204.8000;0.6886;-5.5862;
1205.1000;0.6772;-5.6070;
1205.4000;0.6886;-5.5785;
1205.7000;0.6821;-5.5914;
1206.0000;0.6870;-5.5759;
1206.3000;0.6878;-5.5810;
1206.6000;0.6838;-5.5836;
1206.9000;0.6878;-5.5733;
1207.2000;0.6870;-5.5888;
1207.5000;0.6870;-5.5914;
1207.8000;0.6919;-5.5785;
1208.1000;0.6878;-5.5810;
1208.4000;0.6886;-5.5733;
1208.7000;0.6886;-5.5759;
1209.0000;0.6870;-5.5810;
1209.3000;0.6862;-5.5785;
1209.6000;0.6878;-5.5810;
1209.9000;0.6854;-5.5862;
1210.2000;0.6870;-5.5759;
1210.5000;0.6829;-5.5836;
1210.8000;0.6870;-5.5836;
1211.1000;0.6878;-5.5836;
1211.4000;0.6846;-5.5940;
1211.7000;0.6854;-5.5914;
1212.0000;0.6878;-5.5836;
1212.3000;0.6878;-5.5914;
1212.6000;0.6895;-5.5862;
1212.9000;0.6870;-5.5810;
1213.2000;0.6862;-5.5655;
1213.5000;0.6878;-5.5603;
1213.8000;0.6878;-5.5655;
1214.1000;0.6862;-5.5629;
1214.4000;0.6870;-5.5655;
1214.7000;0.6886;-5.5577;
1215.0000;0.6862;-5.5681;
1215.3000;0.6862;-5.5629;
1215.6000;0.6911;-5.5499;
1215.9000;0.6886;-5.5525;
1216.2000;0.6862;-5.5629;
1216.5000;0.6862;-5.5681;
1216.8000;0.6862;-5.5603;
1217.1000;0.6886;-5.5629;
1217.4000;0.6854;-5.5655;
1217.7000;0.6862;-5.5629;
1218.0000;0.6862;-5.5577;
1218.3000;0.6838;-5.5603;
1218.6000;0.6870;-5.5655;
1218.9000;0.6862;-5.5551;
1219.2000;0.6862;-5.5525;
1219.5000;0.6870;-5.5525;
1219.8000;0.6903;-5.5396;
1220.1000;0.6903;-5.5447;
1220.4000;0.6862;-5.5525;
1220.7000;0.6878;-5.5396;
1221.0000;0.6870;-5.5421;
1221.3000;0.6870;-5.5370;
1221.6000;0.6854;-5.5525;
1221.9000;0.6878;-5.5525;
1222.2000;0.6862;-5.5655;
1222.5000;0.6862;-5.5603;
1222.8000;0.6862;-5.5577;
1223.1000;0.6854;-5.5551;
1223.4000;0.6862;-5.5551;
1223.7000;0.6854;-5.5681;
1224.0000;0.6846;-5.5707;
1224.3000;0.6838;-5.5759;
1224.6000;0.6878;-5.5655;
1224.9000;0.6854;-5.5681;
1225.2000;0.6854;-5.5577;
1225.5000;0.6862;-5.5551;
1225.8000;0.6846;-5.5603;
1226.1000;0.6862;-5.5551;
1226.4000;0.6862;-5.5603;
1226.7000;0.6805;-5.5759;
1227.0000;0.6838;-5.5733;
1227.3000;0.6862;-5.5603;
1227.6000;0.6886;-5.5525;
1227.9000;0.6854;-5.5551;
1228.2000;0.6854;-5.5499;
1228.5000;0.6862;-5.5525;
1228.8000;0.6854;-5.5577;
1229.1000;0.6870;-5.5499;
1229.4000;0.6838;-5.5655;
1229.7000;0.6854;-5.5655;
1230.0000;0.6878;-5.5603;
1230.3000;0.6862;-5.5655;
1230.6000;0.6862;-5.5577;
1230.9000;0.6846;-5.5681;
1231.2000;0.6854;-5.5577;
1231.5000;0.6846;-5.5603;
1231.8000;0.6846;-5.5551;
1232.1000;0.6846;-5.5577;
1232.4000;0.6886;-5.5447;
1232.7000;0.6805;-5.5681;
1233.0000;0.6854;-5.5603;
1233.3000;0.6862;-5.5577;
1233.6000;0.6846;-5.5681;
1233.9000;0.6862;-5.5629;
1234.2000;0.6846;-5.5681;
1234.5000;0.6821;-5.5785;
1234.8000;0.6838;-5.5629;
1235.1000;0.6846;-5.5577;
1235.4000;0.6846;-5.5603;
1235.7000;0.6862;-5.5603;
1236.0000;0.6846;-5.5629;
1236.3000;0.6854;-5.5655;
1236.6000;0.6838;-5.5655;
1236.9000;0.6846;-5.5629;
1237.2000;0.6838;-5.5655;
1237.5000;0.6846;-5.5629;
1237.8000;0.6846;-5.5681;
1238.1000;0.6821;-5.5836;
1238.4000;0.6846;-5.5759;
1238.7000;0.6846;-5.5785;
1239.0000;0.6870;-5.5655;
1239.3000;0.6813;-5.5759;
1239.6000;0.6838;-5.5707;
1239.9000;0.6854;-5.5629;
1240.2000;0.6862;-5.5655;
1240.5000;0.6846;-5.5707;
1240.8000;0.6886;-5.5577;
1241.1000;0.6829;-5.5785;
1241.4000;0.6854;-5.5733;
1241.7000;0.6838;-5.5759;
1242.0000;0.6805;-5.5759;
1242.3000;0.6838;-5.5733;
1242.6000;0.6838;-5.5707;
1242.9000;0.6813;-5.5707;
1243.2000;0.6870;-5.5577;
1243.5000;0.6878;-5.5525;
1243.8000;0.6878;-5.5473;
1244.1000;0.6829;-5.5551;
1244.4000;0.6829;-5.5525;
1244.7000;0.6838;-5.5551;
1245.0000;0.6862;-5.5525;
1245.3000;0.6813;-5.5733;
1245.6000;0.6838;-5.5759;
1245.9000;0.6846;-5.5759;
1246.2000;0.6838;-5.5655;
1246.5000;0.6838;-5.5707;
1246.8000;0.6838;-5.5629;
1247.1000;0.6829;-5.5707;
1247.4000;0.6838;-5.5681;
1247.7000;0.6846;-5.5733;
1248.0000;0.6813;-5.5759;
1248.3000;0.6878;-5.5603;
1248.6000;0.6838;-5.5681;
1248.9000;0.6838;-5.5707;
1249.2000;0.6846;-5.5733;
1249.5000;0.6846;-5.5733;
1249.8000;0.6829;-5.5810;
1250.1000;0.6838;-5.5810;
1250.4000;0.6846;-5.5836;
1250.7000;0.6854;-5.5733;
1251.0000;0.6846;-5.5733;
1251.3000;0.6838;-5.5655;
1251.6000;0.6854;-5.5681;
1251.9000;0.6854;-5.5733;
1252.2000;0.6854;-5.5733;
1252.5000;0.6862;-5.5785;
1252.8000;0.6821;-5.5836;
1253.1000;0.6870;-5.5629;
1253.4000;0.6829;-5.5681;
1253.7000;0.6821;-5.5655;
1254.0000;0.6821;-5.5603;
1254.3000;0.6846;-5.5499;
1254.6000;0.6862;-5.5447;
1254.9000;0.6813;-5.5577;
1255.2000;0.6829;-5.5577;
1255.5000;0.6838;-5.5551;
1255.8000;0.6838;-5.5577;
1256.1000;0.6838;-5.5499;
1256.4000;0.6846;-5.5473;
1256.7000;0.6862;-5.5421;
1257.0000;0.6764;-5.5707;
1257.3000;0.6838;-5.5525;
1257.6000;0.6829;-5.5525;
1257.9000;0.6821;-5.5551;
1258.2000;0.6813;-5.5525;
1258.5000;0.6846;-5.5551;
1258.8000;0.6813;-5.5655;
1259.1000;0.6895;-5.5655;
1259.4000;0.6862;-5.5655;
1259.7000;0.6838;-5.5733;
1260.0000;0.6813;-5.5836;
1260.3000;0.6886;-5.5681;
1260.6000;0.6821;-5.5836;
1260.9000;0.6846;-5.5759;
1261.2000;0.6805;-5.5655;
1261.5000;0.6838;-5.5525;
1261.8000;0.6821;-5.5499;
1262.1000;0.6829;-5.5396;
1262.4000;0.6846;-5.5344;
1262.7000;0.6829;-5.5396;
1263.0000;0.6813;-5.5344;
1263.3000;0.6838;-5.5370;
1263.6000;0.6805;-5.5370;
1263.9000;0.6813;-5.5318;
1264.2000;0.6813;-5.5318;
1264.5000;0.6846;-5.5396;
1264.8000;0.6813;-5.5370;
1265.1000;0.6805;-5.5370;
1265.4000;0.6813;-5.5318;
1265.7000;0.6805;-5.5318;
1266.0000;0.6789;-5.5499;
1266.3000;0.6829;-5.5447;
1266.6000;0.6829;-5.5525;
1266.9000;0.6829;-5.5499;
1267.2000;0.6829;-5.5551;
1267.5000;0.6813;-5.5629;
1267.8000;0.6797;-5.5629;
1268.1000;0.6821;-5.5473;
1268.4000;0.6821;-5.5421;
1268.7000;0.6797;-5.5447;
1269.0000;0.6805;-5.5447;
1269.3000;0.6797;-5.5551;
1269.6000;0.6821;-5.5473;
1269.9000;0.6813;-5.5421;
1270.2000;0.6805;-5.5421;
1270.5000;0.6781;-5.5473;
1270.8000;0.6821;-5.5370;
1271.1000;0.6821;-5.5344;
1271.4000;0.6732;-5.5525;
1271.7000;0.6821;-5.5292;
1272.0000;0.6829;-5.5292;
1272.3000;0.6838;-5.5292;
1272.6000;0.6829;-5.5473;
1272.9000;0.6829;-5.5447;
1273.2000;0.6813;-5.5370;
1273.5000;0.6846;-5.5318;
1273.8000;0.6829;-5.5370;
1274.1000;0.6805;-5.5318;
1274.4000;0.6813;-5.5292;
1274.7000;0.6821;-5.5188;
1275.0000;0.6821;-5.5214;
1275.3000;0.6805;-5.5188;
1275.6000;0.6813;-5.5214;
1275.9000;0.6821;-5.5240;
1276.2000;0.6772;-5.5421;
1276.5000;0.6813;-5.5240;
1276.8000;0.6797;-5.5214;
1277.1000;0.6756;-5.5266;
1277.4000;0.6813;-5.5188;
1277.7000;0.6821;-5.5266;
1278.0000;0.6813;-5.5266;
1278.3000;0.6813;-5.5266;
1278.6000;0.6829;-5.5266;
1278.9000;0.6838;-5.5292;
1279.2000;0.6797;-5.5318;
1279.5000;0.6813;-5.5344;
1279.8000;0.6821;-5.5370;
1280.1000;0.6789;-5.5318;
1280.4000;0.6821;-5.5292;
1280.7000;0.6813;-5.5292;
1281.0000;0.6772;-5.5344;
1281.3000;0.6797;-5.5292;
1281.6000;0.6764;-5.5421;
1281.9000;0.6813;-5.5318;
1282.2000;0.6813;-5.5344;
1282.5000;0.6854;-5.5214;
1282.8000;0.6813;-5.5344;
1283.1000;0.6781;-5.5396;
1283.4000;0.6829;-5.5318;
1283.7000;0.6829;-5.5318;
1284.0000;0.6821;-5.5318;
1284.3000;0.6805;-5.5318;
1284.6000;0.6813;-5.5370;
1284.9000;0.6821;-5.5370;
1285.2000;0.6846;-5.5292;
1285.5000;0.6789;-5.5447;
1285.8000;0.6789;-5.5499;
1286.1000;0.6821;-5.5421;
1286.4000;0.6829;-5.5370;
1286.7000;0.6829;-5.5344;
1287.0000;0.6813;-5.5370;
1287.3000;0.6805;-5.5292;
1287.6000;0.6846;-5.5292;
1287.9000;0.6821;-5.5344;
1288.2000;0.6805;-5.5396;
1288.5000;0.6829;-5.5292;
1288.8000;0.6813;-5.5318;
1289.1000;0.6813;-5.5318;
1289.4000;0.6821;-5.5266;
1289.7000;0.6821;-5.5292;
1290.0000;0.6805;-5.5396;
1290.3000;0.6797;-5.5266;
1290.6000;0.6821;-5.5318;
1290.9000;0.6821;-5.5447;
1291.2000;0.6829;-5.5421;
1291.5000;0.6829;-5.5447;
1291.8000;0.6838;-5.5396;
1292.1000;0.6862;-5.5370;
1292.4000;0.6813;-5.5421;
1292.7000;0.6813;-5.5421;
1293.0000;0.6805;-5.5396;
1293.3000;0.6805;-5.5344;
1293.6000;0.6821;-5.5266;
1293.9000;0.6838;-5.5292;
1294.2000;0.6797;-5.5344;
1294.5000;0.6813;-5.5266;
1294.8000;0.6797;-5.5318;
1295.1000;0.6813;-5.5318;
1295.4000;0.6813;-5.5318;
1295.7000;0.6821;-5.5318;
1296.0000;0.6813;-5.5370;
1296.3000;0.6789;-5.5499;
1296.6000;0.6813;-5.5370;
1296.9000;0.6797;-5.5447;
1297.2000;0.6821;-5.5370;
1297.5000;0.6821;-5.5396;
1297.8000;0.6805;-5.5473;
1298.1000;0.6789;-5.5525;
1298.4000;0.6805;-5.5577;
1298.7000;0.6829;-5.5499;
1299.0000;0.6797;-5.5681;
1299.3000;0.6797;-5.5707;
1299.6000;0.6789;-5.5707;
1299.9000;0.6797;-5.5733;
1300.2000;0.6789;-5.5707;
1300.5000;0.6797;-5.5733;
1300.8000;0.6805;-5.5681;
1301.1000;0.6772;-5.5629;
1301.4000;0.6789;-5.5551;
1301.7000;0.6797;-5.5499;
1302.0000;0.6789;-5.5629;
1302.3000;0.6854;-5.5396;
1302.6000;0.6805;-5.5551;
1302.9000;0.6805;-5.5525;
1303.2000;0.6805;-5.5577;
1303.5000;0.6805;-5.5525;
1303.8000;0.6789;-5.5473;
1304.1000;0.6805;-5.5396;
1304.4000;0.6813;-5.5344;
1304.7000;0.6805;-5.5266;
1305.0000;0.6789;-5.5292;
1305.3000;0.6846;-5.5188;
1305.6000;0.6789;-5.5318;
1305.9000;0.6797;-5.5421;
1306.2000;0.6789;-5.5421;
1306.5000;0.6797;-5.5447;
1306.8000;0.6797;-5.5447;
1307.1000;0.6805;-5.5473;
1307.4000;0.6797;-5.5525;
1307.7000;0.6813;-5.5473;
1308.0000;0.6813;-5.5551;
1308.3000;0.6805;-5.5551;
1308.6000;0.6821;-5.5447;
1308.9000;0.6789;-5.5499;
1309.2000;0.6813;-5.5421;
1309.5000;0.6813;-5.5447;
1309.8000;0.6781;-5.5499;
1310.1000;0.6805;-5.5396;
1310.4000;0.6789;-5.5421;
1310.7000;0.6797;-5.5344;
1311.0000;0.6781;-5.5499;
1311.3000;0.6789;-5.5525;
1311.6000;0.6805;-5.5421;
1311.9000;0.6797;-5.5473;
1312.2000;0.6789;-5.5499;
1312.5000;0.6781;-5.5525;
1312.8000;0.6813;-5.5421;
1313.1000;0.6797;-5.5525;
1313.4000;0.6797;-5.5499;
1313.7000;0.6789;-5.5551;
1314.0000;0.6772;-5.5603;
1314.3000;0.6821;-5.5370;
1314.6000;0.6781;-5.5421;
1314.9000;0.6789;-5.5396;
1315.2000;0.6813;-5.5318;
1315.5000;0.6789;-5.5344;
1315.8000;0.6789;-5.5396;
1316.1000;0.6789;-5.5447;
1316.4000;0.6748;-5.5681;
1316.7000;0.6781;-5.5551;
1317.0000;0.6805;-5.5525;
1317.3000;0.6805;-5.5473;
1317.6000;0.6789;-5.5551;
1317.9000;0.6789;-5.5577;
1318.2000;0.6789;-5.5473;
1318.5000;0.6829;-5.5344;
1318.8000;0.6772;-5.5447;
1319.1000;0.6781;-5.5473;
1319.4000;0.6764;-5.5551;
1319.7000;0.6789;-5.5525;
1320.0000;0.6772;-5.5473;
1320.3000;0.6772;-5.5499;
1320.6000;0.6829;-5.5318;
1320.9000;0.6772;-5.5551;
1321.2000;0.6781;-5.5603;
1321.5000;0.6813;-5.5551;
1321.8000;0.6813;-5.5525;
1322.1000;0.6764;-5.5577;
1322.4000;0.6781;-5.5525;
1322.7000;0.6838;-5.5421;
1323.0000;0.6797;-5.5577;
1323.3000;0.6781;-5.5525;
1323.6000;0.6740;-5.5499;
1323.9000;0.6789;-5.5447;
1324.2000;0.6772;-5.5421;
1324.5000;0.6781;-5.5370;
1324.8000;0.6789;-5.5344;
1325.1000;0.6772;-5.5421;
1325.4000;0.6781;-5.5344;
1325.7000;0.6789;-5.5318;
1326.0000;0.6772;-5.5266;
1326.3000;0.6789;-5.5318;
1326.6000;0.6764;-5.5318;
1326.9000;0.6764;-5.5240;
1327.2000;0.6748;-5.5266;
1327.5000;0.6805;-5.5162;
1327.8000;0.6781;-5.5188;
1328.1000;0.6805;-5.5058;
1328.4000;0.6789;-5.4981;
1328.7000;0.6772;-5.5162;
1329.0000;0.6764;-5.5214;
1329.3000;0.6764;-5.5188;
1329.6000;0.6764;-5.5162;
1329.9000;0.6764;-5.5188;
1330.2000;0.6756;-5.5292;
1330.5000;0.6772;-5.5318;
1330.8000;0.6764;-5.5318;
1331.1000;0.6781;-5.5318;
1331.4000;0.6772;-5.5318;
1331.7000;0.6772;-5.5266;
1332.0000;0.6740;-5.5318;
1332.3000;0.6781;-5.5266;
1332.6000;0.6764;-5.5421;
1332.9000;0.6789;-5.5473;
1333.2000;0.6772;-5.5473;
1333.5000;0.6789;-5.5396;
1333.8000;0.6732;-5.5525;
1334.1000;0.6772;-5.5370;
1334.4000;0.6764;-5.5499;
1334.7000;0.6781;-5.5525;
1335.0000;0.6772;-5.5551;
1335.3000;0.6781;-5.5447;
1335.6000;0.6764;-5.5396;
1335.9000;0.6781;-5.5396;
1336.2000;0.6805;-5.5370;
1336.5000;0.6781;-5.5318;
1336.8000;0.6854;-5.5162;
1337.1000;0.6772;-5.5421;
1337.4000;0.6805;-5.5318;
1337.7000;0.6781;-5.5396;
1338.0000;0.6789;-5.5396;
1338.3000;0.6764;-5.5447;
1338.6000;0.6805;-5.5318;
1338.9000;0.6781;-5.5344;
1339.2000;0.6781;-5.5318;
1339.5000;0.6772;-5.5240;
1339.8000;0.6789;-5.5292;
1340.1000;0.6781;-5.5318;
1340.4000;0.6789;-5.5370;
1340.7000;0.6781;-5.5396;
1341.0000;0.6781;-5.5421;
1341.3000;0.6781;-5.5344;
1341.6000;0.6772;-5.5370;
1341.9000;0.6764;-5.5344;
1342.2000;0.6764;-5.5266;
1342.5000;0.6772;-5.5214;
1342.8000;0.6772;-5.5266;
1343.1000;0.6764;-5.5370;
1343.4000;0.6772;-5.5344;
1343.7000;0.6740;-5.5421;
1344.0000;0.6764;-5.5396;
1344.3000;0.6748;-5.5370;
1344.6000;0.6756;-5.5318;
1344.9000;0.6805;-5.5136;
1345.2000;0.6772;-5.5110;
1345.5000;0.6772;-5.5110;
1345.8000;0.6764;-5.5084;
1346.1000;0.6764;-5.5136;
1346.4000;0.6772;-5.5136;
1346.7000;0.6772;-5.5136;
1347.0000;0.6748;-5.5162;
1347.3000;0.6764;-5.5084;
1347.6000;0.6789;-5.5084;
1347.9000;0.6781;-5.5162;
1348.2000;0.6772;-5.5136;
1348.5000;0.6772;-5.5084;
1348.8000;0.6764;-5.5162;
1349.1000;0.6691;-5.5292;
1349.4000;0.6772;-5.4981;
1349.7000;0.6764;-5.5110;
1350.0000;0.6756;-5.5188;
1350.3000;0.6772;-5.5188;
1350.6000;0.6764;-5.5162;
1350.9000;0.6756;-5.5214;
1351.2000;0.6675;-5.5499;
1351.5000;0.6772;-5.5240;
1351.8000;0.6781;-5.5214;
1352.1000;0.6821;-5.5110;
1352.4000;0.6764;-5.5240;
1352.7000;0.6748;-5.5266;
1353.0000;0.6838;-5.5032;
1353.3000;0.6756;-5.5188;
1353.6000;0.6764;-5.5162;
1353.9000;0.6772;-5.5266;
1354.2000;0.6772;-5.5344;
1354.5000;0.6764;-5.5370;
1354.8000;0.6772;-5.5318;
1355.1000;0.6781;-5.5318;
1355.4000;0.6764;-5.5370;
1355.7000;0.6781;-5.5292;
1356.0000;0.6772;-5.5344;
1356.3000;0.6724;-5.5473;
1356.6000;0.6797;-5.5240;
1356.9000;0.6764;-5.5292;
1357.2000;0.6772;-5.5318;
1357.5000;0.6764;-5.5344;
1357.8000;0.6772;-5.5318;
1358.1000;0.6740;-5.5370;
1358.4000;0.6772;-5.5318;
1358.7000;0.6756;-5.5370;
1359.0000;0.6756;-5.5240;
1359.3000;0.6772;-5.5214;
1359.6000;0.6748;-5.5318;
1359.9000;0.6756;-5.5344;
1360.2000;0.6781;-5.5266;
1360.5000;0.6748;-5.5421;
1360.8000;0.6740;-5.5447;
1361.1000;0.6740;-5.5292;
1361.4000;0.6805;-5.5110;
1361.7000;0.6756;-5.5266;
1362.0000;0.6764;-5.5240;
1362.3000;0.6748;-5.5266;
1362.6000;0.6732;-5.5214;
1362.9000;0.6756;-5.5214;
1363.2000;0.6764;-5.5214;
1363.5000;0.6724;-5.5370;
1363.8000;0.6748;-5.5292;
1364.1000;0.6756;-5.5266;
1364.4000;0.6748;-5.5318;
1364.7000;0.6772;-5.5266;
1365.0000;0.6748;-5.5370;
1365.3000;0.6797;-5.5318;
1365.6000;0.6764;-5.5370;
1365.9000;0.6764;-5.5396;
1366.2000;0.6756;-5.5473;
1366.5000;0.6764;-5.5421;
1366.8000;0.6756;-5.5499;
1367.1000;0.6756;-5.5421;
1367.4000;0.6813;-5.5318;
1367.7000;0.6748;-5.5499;
1368.0000;0.6748;-5.5447;
1368.3000;0.6748;-5.5421;
1368.6000;0.6748;-5.5370;
1368.9000;0.6756;-5.5370;
1369.2000;0.6756;-5.5370;
1369.5000;0.6772;-5.5292;
1369.8000;0.6732;-5.5421;
1370.1000;0.6691;-5.5577;
1370.4000;0.6732;-5.5447;
1370.7000;0.6781;-5.5292;
1371.0000;0.6829;-5.5136;
1371.3000;0.6740;-5.5370;
1371.6000;0.6748;-5.5318;
1371.9000;0.6748;-5.5266;
1372.2000;0.6756;-5.5240;
1372.5000;0.6756;-5.5266;
1372.8000;0.6740;-5.5188;
1373.1000;0.6756;-5.5136;
1373.4000;0.6740;-5.5110;
1373.7000;0.6772;-5.5032;
1374.0000;0.6813;-5.4929;
1374.3000;0.6772;-5.5084;
1374.6000;0.6748;-5.5162;
1374.9000;0.6740;-5.5162;
1375.2000;0.6772;-5.5136;
1375.5000;0.6805;-5.5032;
1375.8000;0.6756;-5.5136;
1376.1000;0.6862;-5.4929;
1376.4000;0.6748;-5.5292;
1376.7000;0.6756;-5.5344;
1377.0000;0.6772;-5.5344;
1377.3000;0.6740;-5.5344;
1377.6000;0.6764;-5.5292;
1377.9000;0.6748;-5.5292;
1378.2000;0.6764;-5.5188;
1378.5000;0.6764;-5.5240;
1378.8000;0.6748;-5.5214;
1379.1000;0.6764;-5.5292;
1379.4000;0.6748;-5.5318;
1379.7000;0.6756;-5.5318;
1380.0000;0.6732;-5.5396;
1380.3000;0.6756;-5.5344;
1380.6000;0.6748;-5.5370;
1380.9000;0.6740;-5.5370;
1381.2000;0.6683;-5.5473;
1381.5000;0.6740;-5.5370;
1381.8000;0.6756;-5.5344;
1382.1000;0.6764;-5.5421;
1382.4000;0.6756;-5.5473;
1382.7000;0.6756;-5.5396;
1383.0000;0.6756;-5.5396;
1383.3000;0.6724;-5.5447;
1383.6000;0.6732;-5.5396;
1383.9000;0.6740;-5.5344;
1384.2000;0.6789;-5.5266;
1384.5000;0.6724;-5.5499;
1384.8000;0.6748;-5.5525;
1385.1000;0.6740;-5.5499;
1385.4000;0.6756;-5.5396;
1385.7000;0.6732;-5.5551;
1386.0000;0.6732;-5.5473;
1386.3000;0.6707;-5.5603;
1386.6000;0.6724;-5.5525;
1386.9000;0.6724;-5.5447;
1387.2000;0.6789;-5.5292;
1387.5000;0.6781;-5.5396;
1387.8000;0.6748;-5.5577;
1388.1000;0.6724;-5.5681;
1388.4000;0.6764;-5.5551;
1388.7000;0.6740;-5.5681;
1389.0000;0.6732;-5.5681;
1389.3000;0.6740;-5.5707;
1389.6000;0.6724;-5.5759;
1389.9000;0.6748;-5.5603;
1390.2000;0.6724;-5.5681;
1390.5000;0.6781;-5.5577;
1390.8000;0.6732;-5.5655;
1391.1000;0.6675;-5.5707;
1391.4000;0.6691;-5.5681;
1391.7000;0.6748;-5.5525;
1392.0000;0.6740;-5.5473;
1392.3000;0.6740;-5.5447;
1392.6000;0.6716;-5.5577;
1392.9000;0.6748;-5.5525;
1393.2000;0.6829;-5.5318;
1393.5000;0.6732;-5.5421;
1393.8000;0.6732;-5.5421;
1394.1000;0.6699;-5.5473;
1394.4000;0.6724;-5.5447;
1394.7000;0.6732;-5.5447;
1395.0000;0.6740;-5.5525;
1395.3000;0.6732;-5.5499;
1395.6000;0.6732;-5.5473;
1395.9000;0.6716;-5.5396;
1396.2000;0.6732;-5.5318;
1396.5000;0.6732;-5.5370;
1396.8000;0.6740;-5.5318;
1397.1000;0.6732;-5.5344;
1397.4000;0.6789;-5.5188;
1397.7000;0.6732;-5.5396;
1398.0000;0.6716;-5.5447;
1398.3000;0.6691;-5.5499;
1398.6000;0.6740;-5.5318;
1398.9000;0.6740;-5.5214;
1399.2000;0.6732;-5.5266;
1399.5000;0.6732;-5.5318;
1399.8000;0.6732;-5.5318;
