time/ms;Fluo/V;P700 deltaI/I x10³;
-199.8000;0.7098;-5.5344;
-199.5000;0.7114;-5.5421;
-199.2000;0.7106;-5.5473;
-198.9000;0.7106;-5.5499;
-198.6000;0.7114;-5.5447;
-198.3000;0.7106;-5.5421;
-198.0000;0.7098;-5.5370;
-197.7000;0.7098;-5.5344;
-197.4000;0.7106;-5.5344;
-197.1000;0.7090;-5.5344;
-196.8000;0.7106;-5.5396;
-196.5000;0.7098;-5.5421;
-196.2000;0.7098;-5.5370;
-195.9000;0.7123;-5.5240;
-195.6000;0.7123;-5.5240;
-195.3000;0.7131;-5.5240;
-195.0000;0.7074;-5.5370;
-194.7000;0.7139;-5.5214;
-194.4000;0.7114;-5.5292;
-194.1000;0.7139;-5.5214;
-193.8000;0.7114;-5.5214;
-193.5000;0.7123;-5.5162;
-193.2000;0.7123;-5.5188;
-192.9000;0.7082;-5.5292;
-192.6000;0.7106;-5.5292;
-192.3000;0.7131;-5.5266;
-192.0000;0.7114;-5.5240;
-191.7000;0.7155;-5.5162;
-191.4000;0.7114;-5.5266;
-191.1000;0.7123;-5.5344;
-190.8000;0.7106;-5.5318;
-190.5000;0.7123;-5.5318;
-190.2000;0.7106;-5.5292;
-189.9000;0.7106;-5.5188;
-189.6000;0.7123;-5.5136;
-189.3000;0.7106;-5.5162;
-189.0000;0.7106;-5.5188;
-188.7000;0.7106;-5.5240;
-188.4000;0.7106;-5.5214;
-188.1000;0.7098;-5.5240;
-187.8000;0.7106;-5.5292;
-187.5000;0.7114;-5.5266;
-187.2000;0.7123;-5.5266;
-186.9000;0.7114;-5.5266;
-186.6000;0.7114;-5.5266;
-186.3000;0.7114;-5.5292;
-186.0000;0.7114;-5.5370;
-185.7000;0.7106;-5.5370;
-185.4000;0.7147;-5.5240;
-185.1000;0.7114;-5.5370;
-184.8000;0.7131;-5.5318;
-184.5000;0.7106;-5.5370;
-184.2000;0.7114;-5.5266;
-183.9000;0.7098;-5.5240;
-183.6000;0.7098;-5.5240;
-183.3000;0.7106;-5.5240;
-183.0000;0.7106;-5.5214;
-182.7000;0.7131;-5.5240;
-182.4000;0.7114;-5.5188;
-182.1000;0.7106;-5.5266;
-181.8000;0.7114;-5.5266;
-181.5000;0.7123;-5.5318;
-181.2000;0.7123;-5.5318;
-180.9000;0.7106;-5.5292;
-180.6000;0.7114;-5.5318;
-180.3000;0.7098;-5.5344;
-180.0000;0.7090;-5.5344;
-179.7000;0.7106;-5.5266;
-179.4000;0.7098;-5.5318;
-179.1000;0.7114;-5.5188;
-178.8000;0.7106;-5.5162;
-178.5000;0.7163;-5.5007;
-178.2000;0.7066;-5.5214;
-177.9000;0.7114;-5.5188;
-177.6000;0.7090;-5.5266;
-177.3000;0.7090;-5.5214;
-177.0000;0.7098;-5.5188;
-176.7000;0.7114;-5.5136;
-176.4000;0.7098;-5.5214;
-176.1000;0.7098;-5.5214;
-175.8000;0.7106;-5.5292;
-175.5000;0.7049;-5.5396;
-175.2000;0.7106;-5.5292;
-174.9000;0.7106;-5.5344;
-174.6000;0.7123;-5.5344;
-174.3000;0.7098;-5.5396;
-174.0000;0.7106;-5.5421;
-173.7000;0.7123;-5.5396;
-173.4000;0.7106;-5.5447;
-173.1000;0.7106;-5.5396;
-172.8000;0.7098;-5.5421;
-172.5000;0.7106;-5.5370;
-172.2000;0.7123;-5.5292;
-171.9000;0.7114;-5.5344;
-171.6000;0.7066;-5.5396;
-171.3000;0.7106;-5.5344;
-171.0000;0.7106;-5.5318;
-170.7000;0.7090;-5.5292;
-170.4000;0.7123;-5.5188;
-170.1000;0.7098;-5.5292;
-169.8000;0.7098;-5.5240;
-169.5000;0.7114;-5.5214;
-169.2000;0.7131;-5.5162;
-168.9000;0.7106;-5.5214;
-168.6000;0.7106;-5.5240;
-168.3000;0.7082;-5.5344;
-168.0000;0.7090;-5.5292;
-167.7000;0.7106;-5.5240;
-167.4000;0.7106;-5.5162;
-167.1000;0.7098;-5.5136;
-166.8000;0.7106;-5.5136;
-166.5000;0.7114;-5.5214;
-166.2000;0.7114;-5.5266;
-165.9000;0.7106;-5.5292;
-165.6000;0.7171;-5.5084;
-165.3000;0.7123;-5.5344;
-165.0000;0.7106;-5.5396;
-164.7000;0.7098;-5.5421;
-164.4000;0.7131;-5.5370;
-164.1000;0.7131;-5.5292;
-163.8000;0.7114;-5.5318;
-163.5000;0.7106;-5.5292;
-163.2000;0.7114;-5.5318;
-162.9000;0.7131;-5.5318;
-162.6000;0.7114;-5.5292;
-162.3000;0.7098;-5.5318;
-162.0000;0.7106;-5.5266;
-161.7000;0.7123;-5.5240;
-161.4000;0.7131;-5.5266;
-161.1000;0.7106;-5.5396;
-160.8000;0.7098;-5.5370;
-160.5000;0.7106;-5.5318;
-160.2000;0.7114;-5.5292;
-159.9000;0.7114;-5.5292;
-159.6000;0.7098;-5.5292;
-159.3000;0.7123;-5.5240;
-159.0000;0.7106;-5.5266;
-158.7000;0.7114;-5.5266;
-158.4000;0.7106;-5.5292;
-158.1000;0.7098;-5.5344;
-157.8000;0.7106;-5.5344;
-157.5000;0.7147;-5.5318;
-157.2000;0.7114;-5.5266;
-156.9000;0.7106;-5.5240;
-156.6000;0.7090;-5.5266;
-156.3000;0.7098;-5.5214;
-156.0000;0.7114;-5.5318;
-155.7000;0.7114;-5.5318;
-155.4000;0.7123;-5.5292;
-155.1000;0.7123;-5.5344;
-154.8000;0.7131;-5.5292;
-154.5000;0.7155;-5.5162;
-154.2000;0.7106;-5.5292;
-153.9000;0.7123;-5.5266;
-153.6000;0.7163;-5.5162;
-153.3000;0.7131;-5.5162;
-153.0000;0.7114;-5.5266;
-152.7000;0.7098;-5.5266;
-152.4000;0.7098;-5.5266;
-152.1000;0.7066;-5.5370;
-151.8000;0.7114;-5.5344;
-151.5000;0.7123;-5.5318;
-151.2000;0.7106;-5.5266;
-150.9000;0.7098;-5.5266;
-150.6000;0.7090;-5.5214;
-150.3000;0.7114;-5.5188;
-150.0000;0.7114;-5.5266;
-149.7000;0.7106;-5.5266;
-149.4000;0.7106;-5.5344;
-149.1000;0.7090;-5.5240;
-148.8000;0.7098;-5.5266;
-148.5000;0.7090;-5.5266;
-148.2000;0.7106;-5.5266;
-147.9000;0.7106;-5.5292;
-147.6000;0.7114;-5.5318;
-147.3000;0.7098;-5.5318;
-147.0000;0.7098;-5.5266;
-146.7000;0.7106;-5.5292;
-146.4000;0.7123;-5.5240;
-146.1000;0.7106;-5.5318;
-145.8000;0.7106;-5.5396;
-145.5000;0.7106;-5.5318;
-145.2000;0.7131;-5.5214;
-144.9000;0.7123;-5.5214;
-144.6000;0.7106;-5.5292;
-144.3000;0.7025;-5.5473;
-144.0000;0.7098;-5.5292;
-143.7000;0.7106;-5.5214;
-143.4000;0.7106;-5.5292;
-143.1000;0.7090;-5.5318;
-142.8000;0.7106;-5.5292;
-142.5000;0.7106;-5.5240;
-142.2000;0.7114;-5.5188;
-141.9000;0.7098;-5.5318;
-141.6000;0.7066;-5.5344;
-141.3000;0.7090;-5.5318;
-141.0000;0.7057;-5.5370;
-140.7000;0.7106;-5.5214;
-140.4000;0.7098;-5.5266;
-140.1000;0.7106;-5.5188;
-139.8000;0.7114;-5.5292;
-139.5000;0.7106;-5.5214;
-139.2000;0.7074;-5.5396;
-138.9000;0.7114;-5.5370;
-138.6000;0.7139;-5.5344;
-138.3000;0.7123;-5.5292;
-138.0000;0.7066;-5.5396;
-137.7000;0.7106;-5.5344;
-137.4000;0.7090;-5.5292;
-137.1000;0.7106;-5.5240;
-136.8000;0.7114;-5.5214;
-136.5000;0.7066;-5.5292;
-136.2000;0.7106;-5.5266;
-135.9000;0.7106;-5.5318;
-135.6000;0.7098;-5.5396;
-135.3000;0.7066;-5.5473;
-135.0000;0.7114;-5.5473;
-134.7000;0.7123;-5.5344;
-134.4000;0.7106;-5.5370;
-134.1000;0.7106;-5.5370;
-133.8000;0.7123;-5.5344;
-133.5000;0.7098;-5.5344;
-133.2000;0.7106;-5.5344;
-132.9000;0.7090;-5.5344;
-132.6000;0.7074;-5.5447;
-132.3000;0.7098;-5.5344;
-132.0000;0.7131;-5.5266;
-131.7000;0.7090;-5.5318;
-131.4000;0.7106;-5.5318;
-131.1000;0.7131;-5.5240;
-130.8000;0.7171;-5.5136;
-130.5000;0.7106;-5.5240;
-130.2000;0.7106;-5.5292;
-129.9000;0.7139;-5.5188;
-129.6000;0.7123;-5.5344;
-129.3000;0.7123;-5.5370;
-129.0000;0.7106;-5.5396;
-128.7000;0.7098;-5.5421;
-128.4000;0.7123;-5.5292;
-128.1000;0.7123;-5.5396;
-127.8000;0.7114;-5.5421;
-127.5000;0.7114;-5.5370;
-127.2000;0.7114;-5.5447;
-126.9000;0.7123;-5.5370;
-126.6000;0.7090;-5.5396;
-126.3000;0.7106;-5.5421;
-126.0000;0.7106;-5.5370;
-125.7000;0.7106;-5.5396;
-125.4000;0.7106;-5.5396;
-125.1000;0.7123;-5.5318;
-124.8000;0.7106;-5.5370;
-124.5000;0.7123;-5.5344;
-124.2000;0.7114;-5.5344;
-123.9000;0.7098;-5.5447;
-123.6000;0.7098;-5.5525;
-123.3000;0.7106;-5.5551;
-123.0000;0.7114;-5.5681;
-122.7000;0.7098;-5.5785;
-122.4000;0.7114;-5.5785;
-122.1000;0.7106;-5.5759;
-121.8000;0.7074;-5.5810;
-121.5000;0.7114;-5.5707;
-121.2000;0.7066;-5.5785;
-120.9000;0.7114;-5.5707;
-120.6000;0.7074;-5.5810;
-120.3000;0.7106;-5.5629;
-120.0000;0.7074;-5.5681;
-119.7000;0.7098;-5.5473;
-119.4000;0.7098;-5.5447;
-119.1000;0.7114;-5.5318;
-118.8000;0.7098;-5.5370;
-118.5000;0.7098;-5.5344;
-118.2000;0.7098;-5.5370;
-117.9000;0.7106;-5.5344;
-117.6000;0.7106;-5.5344;
-117.3000;0.7106;-5.5318;
-117.0000;0.7155;-5.5240;
-116.7000;0.7147;-5.5240;
-116.4000;0.7106;-5.5344;
-116.1000;0.7098;-5.5396;
-115.8000;0.7090;-5.5370;
-115.5000;0.7131;-5.5266;
-115.2000;0.7123;-5.5266;
-114.9000;0.7123;-5.5318;
-114.6000;0.7139;-5.5214;
-114.3000;0.7114;-5.5266;
-114.0000;0.7098;-5.5292;
-113.7000;0.7114;-5.5292;
-113.4000;0.7106;-5.5396;
-113.1000;0.7114;-5.5421;
-112.8000;0.7106;-5.5447;
-112.5000;0.7106;-5.5473;
-112.2000;0.7106;-5.5421;
-111.9000;0.7098;-5.5370;
-111.6000;0.7114;-5.5292;
-111.3000;0.7114;-5.5266;
-111.0000;0.7082;-5.5370;
-110.7000;0.7090;-5.5344;
-110.4000;0.7114;-5.5318;
-110.1000;0.7098;-5.5447;
-109.8000;0.7098;-5.5421;
-109.5000;0.7090;-5.5447;
-109.2000;0.7098;-5.5447;
-108.9000;0.7098;-5.5396;
-108.6000;0.7090;-5.5396;
-108.3000;0.7098;-5.5370;
-108.0000;0.7106;-5.5370;
-107.7000;0.7098;-5.5499;
-107.4000;0.7114;-5.5499;
-107.1000;0.7106;-5.5603;
-106.8000;0.7106;-5.5707;
-106.5000;0.7106;-5.5707;
-106.2000;0.7114;-5.5785;
-105.9000;0.7090;-5.5759;
-105.6000;0.7090;-5.5681;
-105.3000;0.7106;-5.5577;
-105.0000;0.7098;-5.5577;
-104.7000;0.7057;-5.5603;
-104.4000;0.7106;-5.5551;
-104.1000;0.7106;-5.5577;
-103.8000;0.7114;-5.5447;
-103.5000;0.7106;-5.5499;
-103.2000;0.7114;-5.5525;
-102.9000;0.7106;-5.5499;
-102.6000;0.7123;-5.5473;
-102.3000;0.7114;-5.5525;
-102.0000;0.7114;-5.5421;
-101.7000;0.7098;-5.5525;
-101.4000;0.7114;-5.5421;
-101.1000;0.7106;-5.5447;
-100.8000;0.7090;-5.5421;
-100.5000;0.7114;-5.5396;
-100.2000;0.7139;-5.5421;
-99.9000;0.7098;-5.5447;
-99.6000;0.7114;-5.5370;
-99.3000;0.7049;-5.5499;
-99.0000;0.7106;-5.5396;
-98.7000;0.7123;-5.5421;
-98.4000;0.7098;-5.5421;
-98.1000;0.7066;-5.5577;
-97.8000;0.7106;-5.5473;
-97.5000;0.7106;-5.5396;
-97.2000;0.7106;-5.5344;
-96.9000;0.7114;-5.5266;
-96.6000;0.7123;-5.5318;
-96.3000;0.7098;-5.5370;
-96.0000;0.7114;-5.5421;
-95.7000;0.7098;-5.5551;
-95.4000;0.7106;-5.5525;
-95.1000;0.7114;-5.5577;
-94.8000;0.7106;-5.5603;
-94.5000;0.7106;-5.5525;
-94.2000;0.7106;-5.5499;
-93.9000;0.7114;-5.5447;
-93.6000;0.7114;-5.5473;
-93.3000;0.7098;-5.5551;
-93.0000;0.7106;-5.5551;
-92.7000;0.7139;-5.5370;
-92.4000;0.7131;-5.5447;
-92.1000;0.7123;-5.5447;
-91.8000;0.7098;-5.5421;
-91.5000;0.7131;-5.5447;
-91.2000;0.7123;-5.5370;
-90.9000;0.7106;-5.5344;
-90.6000;0.7057;-5.5499;
-90.3000;0.7098;-5.5370;
-90.0000;0.7098;-5.5344;
-89.7000;0.7090;-5.5240;
-89.4000;0.7106;-5.5162;
-89.1000;0.7098;-5.5188;
-88.8000;0.7114;-5.5188;
-88.5000;0.7098;-5.5188;
-88.2000;0.7106;-5.5084;
-87.9000;0.7074;-5.5136;
-87.6000;0.7106;-5.5136;
-87.3000;0.7114;-5.5188;
-87.0000;0.7147;-5.5084;
-86.7000;0.7106;-5.5214;
-86.4000;0.7082;-5.5344;
-86.1000;0.7106;-5.5370;
-85.8000;0.7106;-5.5370;
-85.5000;0.7082;-5.5421;
-85.2000;0.7090;-5.5344;
-84.9000;0.7098;-5.5292;
-84.6000;0.7082;-5.5318;
-84.3000;0.7098;-5.5266;
-84.0000;0.7090;-5.5318;
-83.7000;0.7155;-5.5162;
-83.4000;0.7090;-5.5318;
-83.1000;0.7098;-5.5240;
-82.8000;0.7106;-5.5266;
-82.5000;0.7123;-5.5421;
-82.2000;0.7098;-5.5473;
-81.9000;0.7106;-5.5525;
-81.6000;0.7139;-5.5396;
-81.3000;0.7106;-5.5525;
-81.0000;0.7123;-5.5499;
-80.7000;0.7098;-5.5499;
-80.4000;0.7106;-5.5473;
-80.1000;0.7106;-5.5499;
-79.8000;0.7123;-5.5447;
-79.5000;0.7114;-5.5370;
-79.2000;0.7106;-5.5447;
-78.9000;0.7090;-5.5499;
-78.6000;0.7090;-5.5473;
-78.3000;0.7106;-5.5421;
-78.0000;0.7114;-5.5370;
-77.7000;0.7114;-5.5292;
-77.4000;0.7098;-5.5266;
-77.1000;0.7066;-5.5266;
-76.8000;0.7123;-5.5188;
-76.5000;0.7106;-5.5240;
-76.2000;0.7114;-5.5266;
-75.9000;0.7106;-5.5370;
-75.6000;0.7049;-5.5551;
-75.3000;0.7090;-5.5447;
-75.0000;0.7123;-5.5266;
-74.7000;0.7114;-5.5240;
-74.4000;0.7098;-5.5240;
-74.1000;0.7041;-5.5318;
-73.8000;0.7114;-5.5188;
-73.5000;0.7090;-5.5188;
-73.2000;0.7114;-5.5188;
-72.9000;0.7098;-5.5214;
-72.6000;0.7098;-5.5188;
-72.3000;0.7114;-5.5240;
-72.0000;0.7106;-5.5292;
-71.7000;0.7106;-5.5396;
-71.4000;0.7123;-5.5370;
-71.1000;0.7123;-5.5473;
-70.8000;0.7106;-5.5551;
-70.5000;0.7106;-5.5551;
-70.2000;0.7098;-5.5603;
-69.9000;0.7106;-5.5577;
-69.6000;0.7106;-5.5473;
-69.3000;0.7114;-5.5396;
-69.0000;0.7074;-5.5499;
-68.7000;0.7090;-5.5421;
-68.4000;0.7106;-5.5396;
-68.1000;0.7106;-5.5344;
-67.8000;0.7114;-5.5266;
-67.5000;0.7106;-5.5240;
-67.2000;0.7114;-5.5266;
-66.9000;0.7123;-5.5188;
-66.6000;0.7098;-5.5188;
-66.3000;0.7114;-5.5188;
-66.0000;0.7098;-5.5136;
-65.7000;0.7155;-5.5084;
-65.4000;0.7114;-5.5266;
-65.1000;0.7106;-5.5370;
-64.8000;0.7114;-5.5421;
-64.5000;0.7098;-5.5344;
-64.2000;0.7106;-5.5396;
-63.9000;0.7098;-5.5370;
-63.6000;0.7106;-5.5447;
-63.3000;0.7098;-5.5473;
-63.0000;0.7106;-5.5370;
-62.7000;0.7106;-5.5370;
-62.4000;0.7082;-5.5473;
-62.1000;0.7114;-5.5370;
-61.8000;0.7090;-5.5525;
-61.5000;0.7098;-5.5396;
-61.2000;0.7098;-5.5370;
-60.9000;0.7106;-5.5344;
-60.6000;0.7123;-5.5318;
-60.3000;0.7114;-5.5344;
-60.0000;0.7114;-5.5266;
-59.7000;0.7090;-5.5318;
-59.4000;0.7082;-5.5292;
-59.1000;0.7114;-5.5214;
-58.8000;0.7106;-5.5214;
-58.5000;0.7163;-5.5084;
-58.2000;0.7106;-5.5292;
-57.9000;0.7098;-5.5318;
-57.6000;0.7179;-5.5110;
-57.3000;0.7123;-5.5318;
-57.0000;0.7106;-5.5292;
-56.7000;0.7114;-5.5318;
-56.4000;0.7106;-5.5292;
-56.1000;0.7106;-5.5318;
-55.8000;0.7098;-5.5318;
-55.5000;0.7106;-5.5188;
-55.2000;0.7106;-5.5110;
-54.9000;0.7123;-5.5136;
-54.6000;0.7106;-5.5214;
-54.3000;0.7098;-5.5188;
-54.0000;0.7106;-5.5188;
-53.7000;0.7066;-5.5240;
-53.4000;0.7098;-5.5188;
-53.1000;0.7123;-5.5136;
-52.8000;0.7106;-5.5240;
-52.5000;0.7106;-5.5266;
-52.2000;0.7147;-5.5214;
-51.9000;0.7106;-5.5318;
-51.6000;0.7114;-5.5266;
-51.3000;0.7114;-5.5292;
-51.0000;0.7090;-5.5292;
-50.7000;0.7090;-5.5266;
-50.4000;0.7106;-5.5162;
-50.1000;0.7106;-5.5188;
-49.8000;0.7106;-5.5240;
-49.5000;0.7106;-5.5266;
-49.2000;0.7106;-5.5292;
-48.9000;0.7114;-5.5188;
-48.6000;0.7106;-5.5188;
-48.3000;0.7098;-5.5136;
-48.0000;0.7090;-5.5188;
-47.7000;0.7123;-5.5162;
-47.4000;0.7098;-5.5318;
-47.1000;0.7098;-5.5240;
-46.8000;0.7082;-5.5344;
-46.5000;0.7123;-5.5318;
-46.2000;0.7082;-5.5421;
-45.9000;0.7106;-5.5396;
-45.6000;0.7098;-5.5421;
-45.3000;0.7114;-5.5318;
-45.0000;0.7123;-5.5240;
-44.7000;0.7106;-5.5292;
-44.4000;0.7098;-5.5344;
-44.1000;0.7106;-5.5370;
-43.8000;0.7114;-5.5473;
-43.5000;0.7025;-5.5629;
-43.2000;0.7090;-5.5370;
-42.9000;0.7098;-5.5344;
-42.6000;0.7090;-5.5266;
-42.3000;0.7106;-5.5318;
-42.0000;0.7098;-5.5318;
-41.7000;0.7131;-5.5214;
-41.4000;0.7098;-5.5240;
-41.1000;0.7106;-5.5110;
-40.8000;0.7114;-5.5136;
-40.5000;0.7131;-5.5110;
-40.2000;0.7106;-5.5214;
-39.9000;0.7090;-5.5240;
-39.6000;0.7123;-5.5162;
-39.3000;0.7090;-5.5136;
-39.0000;0.7041;-5.5240;
-38.7000;0.7090;-5.5214;
-38.4000;0.7090;-5.5292;
-38.1000;0.7082;-5.5240;
-37.8000;0.7106;-5.5214;
-37.5000;0.7114;-5.5240;
-37.2000;0.7114;-5.5266;
-36.9000;0.7114;-5.5162;
-36.6000;0.7082;-5.5318;
-36.3000;0.7106;-5.5162;
-36.0000;0.7082;-5.5136;
-35.7000;0.7114;-5.4981;
-35.4000;0.7082;-5.5136;
-35.1000;0.7123;-5.5084;
-34.8000;0.7123;-5.5058;
-34.5000;0.7098;-5.5136;
-34.2000;0.7090;-5.5110;
-33.9000;0.7098;-5.5084;
-33.6000;0.7106;-5.5084;
-33.3000;0.7114;-5.5084;
-33.0000;0.7106;-5.5240;
-32.7000;0.7123;-5.5110;
-32.4000;0.7114;-5.5136;
-32.1000;0.7098;-5.5292;
-31.8000;0.7131;-5.5188;
-31.5000;0.7106;-5.5214;
-31.2000;0.7139;-5.5240;
-30.9000;0.7114;-5.5266;
-30.6000;0.7098;-5.5318;
-30.3000;0.7098;-5.5447;
-30.0000;0.7106;-5.5344;
-29.7000;0.7114;-5.5266;
-29.4000;0.7114;-5.5292;
-29.1000;0.7106;-5.5292;
-28.8000;0.7090;-5.5318;
-28.5000;0.7106;-5.5318;
-28.2000;0.7123;-5.5240;
-27.9000;0.7082;-5.5214;
-27.6000;0.7066;-5.5240;
-27.3000;0.7106;-5.5162;
-27.0000;0.7098;-5.5214;
-26.7000;0.7098;-5.5214;
-26.4000;0.7098;-5.5240;
-26.1000;0.7106;-5.5188;
-25.8000;0.7139;-5.5084;
-25.5000;0.7090;-5.5162;
-25.2000;0.7106;-5.5240;
-24.9000;0.7114;-5.5214;
-24.6000;0.7123;-5.5162;
-24.3000;0.7106;-5.5318;
-24.0000;0.7098;-5.5370;
-23.7000;0.7114;-5.5370;
-23.4000;0.7106;-5.5318;
-23.1000;0.7082;-5.5370;
-22.8000;0.7123;-5.5292;
-22.5000;0.7074;-5.5499;
-22.2000;0.7106;-5.5447;
-21.9000;0.7114;-5.5370;
-21.6000;0.7131;-5.5344;
-21.3000;0.7106;-5.5421;
-21.0000;0.7155;-5.5318;
-20.7000;0.7106;-5.5370;
-20.4000;0.7106;-5.5447;
-20.1000;0.7057;-5.5499;
-19.8000;0.7123;-5.5318;
-19.5000;0.7163;-5.5188;
-19.2000;0.7106;-5.5292;
-18.9000;0.7033;-5.5447;
-18.6000;0.7106;-5.5162;
-18.3000;0.7106;-5.5188;
-18.0000;0.7114;-5.5344;
-17.7000;0.7041;-5.5473;
-17.4000;0.7074;-5.5396;
-17.1000;0.7106;-5.5370;
-16.8000;0.7106;-5.5318;
-16.5000;0.7090;-5.5370;
-16.2000;0.7098;-5.5473;
-15.9000;0.7114;-5.5421;
-15.6000;0.7106;-5.5370;
-15.3000;0.7106;-5.5421;
-15.0000;0.7098;-5.5447;
-14.7000;0.7098;-5.5499;
-14.4000;0.7090;-5.5577;
-14.1000;0.7106;-5.5551;
-13.8000;0.7090;-5.5473;
-13.5000;0.7106;-5.5370;
-13.2000;0.7123;-5.5318;
-12.9000;0.7106;-5.5292;
-12.6000;0.7090;-5.5318;
-12.3000;0.7082;-5.5370;
-12.0000;0.7106;-5.5292;
-11.7000;0.7098;-5.5292;
-11.4000;0.7098;-5.5240;
-11.1000;0.7082;-5.5370;
-10.8000;0.7114;-5.5370;
-10.5000;0.7106;-5.5292;
-10.2000;0.7106;-5.5266;
-9.9000;0.7114;-5.5318;
-9.6000;0.7114;-5.5318;
-9.3000;0.7114;-5.5318;
-9.0000;0.7066;-5.5370;
-8.7000;0.7123;-5.5240;
-8.4000;0.7098;-5.5318;
-8.1000;0.7106;-5.5318;
-7.8000;0.7106;-5.5266;
-7.5000;0.7114;-5.5214;
-7.2000;0.7090;-5.5240;
-6.9000;0.7139;-5.5136;
-6.6000;0.7114;-5.5188;
-6.3000;0.7090;-5.5188;
-6.0000;0.7082;-5.5136;
-5.7000;0.7114;-5.5032;
-5.4000;0.7114;-5.5058;
-5.1000;0.7155;-5.5007;
-4.8000;0.7179;-5.4981;
-4.5000;0.7114;-5.5214;
-4.2000;0.7098;-5.5318;
-3.9000;0.7106;-5.5344;
-3.6000;0.7098;-5.5370;
-3.3000;0.7098;-5.5473;
-3.0000;0.7106;-5.5396;
-2.7000;0.7106;-5.5370;
-2.4000;0.7098;-5.5370;
-2.1000;0.7106;-5.5292;
-1.8000;0.7041;-5.5370;
-1.5000;0.7123;-5.5240;
-1.2000;0.7106;-5.5318;
-0.9000;0.7090;-5.5344;
-0.6000;0.7098;-5.5344;
-0.3000;0.7106;-5.5396;
0.0000;0.7106;-5.5396;
0.3000;0.7416;-5.5525;
0.6000;0.8050;-5.4540;
0.9000;0.8466;-5.3839;
1.2000;0.8840;-5.3139;
1.5000;0.9133;-5.2569;
1.8000;0.9345;-5.2102;
2.1000;0.9516;-5.1739;
2.4000;0.9670;-5.1479;
2.7000;0.9849;-5.1039;
3.0000;0.9898;-5.0961;
3.3000;0.9996;-5.0701;
3.6000;1.0110;-5.0494;
3.9000;1.0126;-5.0494;
4.2000;1.0216;-5.0416;
4.5000;1.0273;-5.0468;
4.8000;1.0330;-5.0364;
5.1000;1.0362;-5.0364;
5.4000;1.0419;-5.0286;
5.7000;1.0476;-5.0261;
6.0000;1.0549;-5.0183;
6.3000;1.0590;-5.0209;
6.6000;1.0680;-5.0105;
6.9000;1.0704;-5.0157;
7.2000;1.0729;-5.0183;
7.5000;1.0753;-5.0183;
7.8000;1.0802;-5.0183;
8.1000;1.0834;-5.0131;
8.4000;1.0883;-5.0079;
8.7000;1.0916;-5.0131;
9.0000;1.0940;-5.0157;
9.3000;1.0981;-5.0157;
9.6000;1.1030;-5.0105;
9.9000;1.1070;-5.0053;
10.2000;1.1103;-5.0183;
10.5000;1.1136;-5.0209;
10.8000;1.1176;-5.0209;
11.1000;1.1217;-5.0209;
11.4000;1.1233;-5.0131;
11.7000;1.1274;-5.0053;
12.0000;1.1306;-5.0079;
12.3000;1.1331;-5.0053;
12.6000;1.1363;-5.0001;
12.9000;1.1404;-5.0001;
13.2000;1.1412;-5.0105;
13.5000;1.1453;-5.0131;
13.8000;1.1477;-5.0105;
14.1000;1.1502;-5.0105;
14.4000;1.1526;-5.0079;
14.7000;1.1543;-5.0053;
15.0000;1.1567;-5.0105;
15.3000;1.1543;-5.0261;
15.6000;1.1600;-5.0079;
15.9000;1.1665;-4.9975;
16.2000;1.1632;-5.0131;
16.5000;1.1689;-4.9897;
16.8000;1.1689;-4.9949;
17.1000;1.1689;-5.0053;
17.4000;1.1787;-5.0001;
17.7000;1.1754;-5.0157;
18.0000;1.1787;-5.0183;
18.3000;1.1779;-5.0286;
18.6000;1.1803;-5.0235;
18.9000;1.1779;-5.0286;
19.2000;1.1819;-5.0105;
19.5000;1.1827;-5.0183;
19.8000;1.1860;-5.0131;
20.1000;1.1876;-5.0079;
20.4000;1.1917;-5.0053;
20.7000;1.1901;-5.0183;
21.0000;1.1925;-5.0157;
21.3000;1.1925;-5.0183;
21.6000;1.1958;-5.0157;
21.9000;1.1958;-5.0183;
22.2000;1.2031;-5.0131;
22.5000;1.1966;-5.0286;
22.8000;1.2015;-5.0209;
23.1000;1.2007;-5.0261;
23.4000;1.1966;-5.0416;
23.7000;1.2039;-5.0312;
24.0000;1.2047;-5.0235;
24.3000;1.2031;-5.0312;
24.6000;1.2047;-5.0261;
24.9000;1.2088;-5.0286;
25.2000;1.2080;-5.0338;
25.5000;1.2120;-5.0312;
25.8000;1.2096;-5.0364;
26.1000;1.2104;-5.0261;
26.4000;1.2112;-5.0338;
26.7000;1.2153;-5.0157;
27.0000;1.2145;-5.0183;
27.3000;1.2137;-5.0261;
27.6000;1.2120;-5.0390;
27.9000;1.2161;-5.0312;
28.2000;1.2153;-5.0338;
28.5000;1.2169;-5.0261;
28.8000;1.2161;-5.0312;
29.1000;1.2177;-5.0261;
29.4000;1.2186;-5.0261;
29.7000;1.2186;-5.0235;
30.0000;1.2202;-5.0286;
30.3000;1.2194;-5.0338;
30.6000;1.2226;-5.0286;
30.9000;1.2202;-5.0468;
31.2000;1.2243;-5.0390;
31.5000;1.2234;-5.0390;
31.8000;1.2251;-5.0312;
32.1000;1.2243;-5.0364;
32.4000;1.2243;-5.0442;
32.7000;1.2259;-5.0416;
33.0000;1.2267;-5.0390;
33.3000;1.2267;-5.0520;
33.6000;1.2300;-5.0364;
33.9000;1.2267;-5.0494;
34.2000;1.2259;-5.0520;
34.5000;1.2283;-5.0442;
34.8000;1.2218;-5.0572;
35.1000;1.2291;-5.0468;
35.4000;1.2300;-5.0442;
35.7000;1.2316;-5.0312;
36.0000;1.2300;-5.0312;
36.3000;1.2300;-5.0312;
36.6000;1.2308;-5.0390;
36.9000;1.2332;-5.0390;
37.2000;1.2308;-5.0546;
37.5000;1.2340;-5.0416;
37.8000;1.2324;-5.0442;
38.1000;1.2340;-5.0338;
38.4000;1.2340;-5.0338;
38.7000;1.2332;-5.0338;
39.0000;1.2332;-5.0364;
39.3000;1.2340;-5.0442;
39.6000;1.2340;-5.0416;
39.9000;1.2308;-5.0546;
40.2000;1.2357;-5.0416;
40.5000;1.2348;-5.0416;
40.8000;1.2300;-5.0546;
41.1000;1.2316;-5.0546;
41.4000;1.2332;-5.0546;
41.7000;1.2357;-5.0416;
42.0000;1.2357;-5.0338;
42.3000;1.2373;-5.0390;
42.6000;1.2365;-5.0364;
42.9000;1.2430;-5.0338;
43.2000;1.2397;-5.0442;
43.5000;1.2397;-5.0520;
43.8000;1.2381;-5.0650;
44.1000;1.2373;-5.0624;
44.4000;1.2397;-5.0598;
44.7000;1.2381;-5.0676;
45.0000;1.2405;-5.0727;
45.3000;1.2389;-5.0779;
45.6000;1.2414;-5.0727;
45.9000;1.2397;-5.0727;
46.2000;1.2381;-5.0753;
46.5000;1.2397;-5.0753;
46.8000;1.2405;-5.0701;
47.1000;1.2405;-5.0650;
47.4000;1.2414;-5.0598;
47.7000;1.2414;-5.0572;
48.0000;1.2511;-5.0416;
48.3000;1.2357;-5.0805;
48.6000;1.2422;-5.0598;
48.9000;1.2397;-5.0701;
49.2000;1.2430;-5.0650;
49.5000;1.2430;-5.0624;
49.8000;1.2430;-5.0676;
50.1000;1.2422;-5.0727;
50.4000;1.2454;-5.0727;
50.7000;1.2438;-5.0753;
51.0000;1.2438;-5.0701;
51.3000;1.2414;-5.0727;
51.6000;1.2438;-5.0624;
51.9000;1.2430;-5.0546;
52.2000;1.2446;-5.0520;
52.5000;1.2422;-5.0572;
52.8000;1.2422;-5.0546;
53.1000;1.2438;-5.0572;
53.4000;1.2438;-5.0572;
53.7000;1.2446;-5.0572;
54.0000;1.2446;-5.0598;
54.3000;1.2454;-5.0598;
54.6000;1.2462;-5.0546;
54.9000;1.2470;-5.0520;
55.2000;1.2446;-5.0598;
55.5000;1.2487;-5.0598;
55.8000;1.2462;-5.0598;
56.1000;1.2479;-5.0520;
56.4000;1.2414;-5.0598;
56.7000;1.2446;-5.0494;
57.0000;1.2454;-5.0624;
57.3000;1.2470;-5.0624;
57.6000;1.2470;-5.0624;
57.9000;1.2454;-5.0676;
58.2000;1.2470;-5.0753;
58.5000;1.2487;-5.0676;
58.8000;1.2479;-5.0701;
59.1000;1.2487;-5.0753;
59.4000;1.2479;-5.0676;
59.7000;1.2479;-5.0676;
60.0000;1.2495;-5.0701;
60.3000;1.2479;-5.0727;
60.6000;1.2495;-5.0753;
60.9000;1.2503;-5.0753;
61.2000;1.2503;-5.0650;
61.5000;1.2495;-5.0650;
61.8000;1.2495;-5.0598;
62.1000;1.2487;-5.0650;
62.4000;1.2495;-5.0701;
62.7000;1.2536;-5.0650;
63.0000;1.2495;-5.0753;
63.3000;1.2495;-5.0676;
63.6000;1.2511;-5.0676;
63.9000;1.2479;-5.0805;
64.2000;1.2495;-5.0805;
64.5000;1.2487;-5.0805;
64.8000;1.2495;-5.0883;
65.1000;1.2519;-5.0753;
65.4000;1.2479;-5.0883;
65.7000;1.2527;-5.0727;
66.0000;1.2511;-5.0805;
66.3000;1.2495;-5.0753;
66.6000;1.2503;-5.0753;
66.9000;1.2503;-5.0857;
67.2000;1.2511;-5.0779;
67.5000;1.2503;-5.0779;
67.8000;1.2519;-5.0753;
68.1000;1.2503;-5.0701;
68.4000;1.2495;-5.0701;
68.7000;1.2519;-5.0701;
69.0000;1.2511;-5.0701;
69.3000;1.2519;-5.0624;
69.6000;1.2519;-5.0624;
69.9000;1.2519;-5.0624;
70.2000;1.2511;-5.0701;
70.5000;1.2495;-5.0727;
70.8000;1.2519;-5.0805;
71.1000;1.2527;-5.0909;
71.4000;1.2527;-5.0961;
71.7000;1.2511;-5.0961;
72.0000;1.2519;-5.0935;
72.3000;1.2519;-5.0909;
72.6000;1.2536;-5.0805;
72.9000;1.2527;-5.0883;
73.2000;1.2519;-5.0857;
73.5000;1.2511;-5.0935;
73.8000;1.2552;-5.0831;
74.1000;1.2544;-5.0831;
74.4000;1.2527;-5.0961;
74.7000;1.2536;-5.0909;
75.0000;1.2544;-5.0935;
75.3000;1.2552;-5.0831;
75.6000;1.2552;-5.0831;
75.9000;1.2536;-5.0805;
76.2000;1.2511;-5.0831;
76.5000;1.2519;-5.0779;
76.8000;1.2519;-5.0753;
77.1000;1.2527;-5.0753;
77.4000;1.2568;-5.0727;
77.7000;1.2552;-5.0857;
78.0000;1.2536;-5.0857;
78.3000;1.2544;-5.0831;
78.6000;1.2527;-5.0805;
78.9000;1.2552;-5.0779;
79.2000;1.2576;-5.0650;
79.5000;1.2544;-5.0753;
79.8000;1.2544;-5.0779;
80.1000;1.2544;-5.0831;
80.4000;1.2560;-5.0779;
80.7000;1.2552;-5.0753;
81.0000;1.2536;-5.0857;
81.3000;1.2560;-5.0779;
81.6000;1.2601;-5.0727;
81.9000;1.2568;-5.0857;
82.2000;1.2536;-5.0883;
82.5000;1.2560;-5.0857;
82.8000;1.2552;-5.0909;
83.1000;1.2560;-5.0935;
83.4000;1.2568;-5.1013;
83.7000;1.2576;-5.0935;
84.0000;1.2584;-5.0805;
84.3000;1.2552;-5.0753;
84.6000;1.2576;-5.0753;
84.9000;1.2560;-5.0805;
85.2000;1.2560;-5.0805;
85.5000;1.2560;-5.0753;
85.8000;1.2568;-5.0805;
86.1000;1.2544;-5.0883;
86.4000;1.2568;-5.0961;
86.7000;1.2576;-5.0987;
87.0000;1.2576;-5.1039;
87.3000;1.2601;-5.1013;
87.6000;1.2576;-5.1065;
87.9000;1.2593;-5.1013;
88.2000;1.2593;-5.0987;
88.5000;1.2568;-5.1039;
88.8000;1.2576;-5.1039;
89.1000;1.2576;-5.0935;
89.4000;1.2601;-5.0935;
89.7000;1.2576;-5.1039;
90.0000;1.2601;-5.0935;
90.3000;1.2584;-5.0987;
90.6000;1.2576;-5.0909;
90.9000;1.2568;-5.0935;
91.2000;1.2544;-5.0857;
91.5000;1.2593;-5.0831;
91.8000;1.2584;-5.0831;
92.1000;1.2576;-5.0909;
92.4000;1.2568;-5.0909;
92.7000;1.2568;-5.0987;
93.0000;1.2560;-5.1013;
93.3000;1.2576;-5.0987;
93.6000;1.2576;-5.1039;
93.9000;1.2593;-5.0961;
94.2000;1.2593;-5.0935;
94.5000;1.2584;-5.0987;
94.8000;1.2584;-5.0883;
95.1000;1.2560;-5.0961;
95.4000;1.2544;-5.0987;
95.7000;1.2625;-5.0831;
96.0000;1.2584;-5.0909;
96.3000;1.2593;-5.0909;
96.6000;1.2560;-5.0935;
96.9000;1.2584;-5.0831;
97.2000;1.2576;-5.0935;
97.5000;1.2560;-5.0987;
97.8000;1.2576;-5.0935;
98.1000;1.2576;-5.0987;
98.4000;1.2584;-5.0883;
98.7000;1.2593;-5.0883;
99.0000;1.2593;-5.0935;
99.3000;1.2593;-5.1013;
99.6000;1.2593;-5.0909;
99.9000;1.2609;-5.0779;
100.2000;1.2609;-5.0753;
100.5000;1.2584;-5.0805;
100.8000;1.2593;-5.0805;
101.1000;1.2584;-5.0883;
101.4000;1.2593;-5.0883;
101.7000;1.2584;-5.1039;
102.0000;1.2617;-5.0909;
102.3000;1.2601;-5.0909;
102.6000;1.2609;-5.0883;
102.9000;1.2593;-5.0909;
103.2000;1.2584;-5.0961;
103.5000;1.2593;-5.0909;
103.8000;1.2584;-5.1013;
104.1000;1.2593;-5.0987;
104.4000;1.2601;-5.0961;
104.7000;1.2601;-5.0961;
105.0000;1.2601;-5.0961;
105.3000;1.2593;-5.0987;
105.6000;1.2601;-5.1013;
105.9000;1.2609;-5.0961;
106.2000;1.2617;-5.0883;
106.5000;1.2609;-5.0909;
106.8000;1.2593;-5.0883;
107.1000;1.2609;-5.0805;
107.4000;1.2609;-5.0883;
107.7000;1.2617;-5.0883;
108.0000;1.2593;-5.0935;
108.3000;1.2593;-5.0961;
108.6000;1.2601;-5.0987;
108.9000;1.2601;-5.1039;
109.2000;1.2601;-5.0987;
109.5000;1.2601;-5.0961;
109.8000;1.2536;-5.1168;
110.1000;1.2593;-5.1039;
110.4000;1.2593;-5.0987;
110.7000;1.2617;-5.1013;
111.0000;1.2641;-5.1013;
111.3000;1.2633;-5.1116;
111.6000;1.2576;-5.1272;
111.9000;1.2593;-5.1324;
112.2000;1.2617;-5.1272;
112.5000;1.2601;-5.1350;
112.8000;1.2617;-5.1298;
113.1000;1.2560;-5.1376;
113.4000;1.2625;-5.1194;
113.7000;1.2609;-5.1298;
114.0000;1.2601;-5.1324;
114.3000;1.2593;-5.1350;
114.6000;1.2601;-5.1428;
114.9000;1.2641;-5.1298;
115.2000;1.2601;-5.1428;
115.5000;1.2593;-5.1428;
115.8000;1.2609;-5.1324;
116.1000;1.2650;-5.1220;
116.4000;1.2601;-5.1220;
116.7000;1.2617;-5.1168;
117.0000;1.2633;-5.1168;
117.3000;1.2658;-5.1142;
117.6000;1.2625;-5.1272;
117.9000;1.2617;-5.1298;
118.2000;1.2617;-5.1272;
118.5000;1.2584;-5.1272;
118.8000;1.2625;-5.1220;
119.1000;1.2625;-5.1168;
119.4000;1.2609;-5.1298;
119.7000;1.2641;-5.1246;
120.0000;1.2641;-5.1272;
120.3000;1.2609;-5.1220;
120.6000;1.2650;-5.1116;
120.9000;1.2609;-5.1220;
121.2000;1.2609;-5.1324;
121.5000;1.2625;-5.1220;
121.8000;1.2617;-5.1298;
122.1000;1.2641;-5.1168;
122.4000;1.2625;-5.1246;
122.7000;1.2633;-5.1168;
123.0000;1.2633;-5.1272;
123.3000;1.2593;-5.1298;
123.6000;1.2609;-5.1246;
123.9000;1.2568;-5.1479;
124.2000;1.2601;-5.1402;
124.5000;1.2584;-5.1505;
124.8000;1.2617;-5.1376;
125.1000;1.2617;-5.1479;
125.4000;1.2601;-5.1531;
125.7000;1.2617;-5.1428;
126.0000;1.2617;-5.1376;
126.3000;1.2625;-5.1324;
126.6000;1.2674;-5.1272;
126.9000;1.2625;-5.1272;
127.2000;1.2625;-5.1246;
127.5000;1.2625;-5.1194;
127.8000;1.2617;-5.1246;
128.1000;1.2641;-5.1168;
128.4000;1.2617;-5.1168;
128.7000;1.2633;-5.1194;
129.0000;1.2625;-5.1246;
129.3000;1.2625;-5.1246;
129.6000;1.2633;-5.1272;
129.9000;1.2609;-5.1324;
130.2000;1.2674;-5.1220;
130.5000;1.2625;-5.1376;
130.8000;1.2617;-5.1376;
131.1000;1.2617;-5.1272;
131.4000;1.2625;-5.1220;
131.7000;1.2625;-5.1272;
132.0000;1.2658;-5.1194;
132.3000;1.2625;-5.1298;
132.6000;1.2625;-5.1350;
132.9000;1.2625;-5.1402;
133.2000;1.2625;-5.1350;
133.5000;1.2617;-5.1350;
133.8000;1.2601;-5.1402;
134.1000;1.2609;-5.1376;
134.4000;1.2625;-5.1272;
134.7000;1.2601;-5.1298;
135.0000;1.2576;-5.1376;
135.3000;1.2617;-5.1298;
135.6000;1.2625;-5.1246;
135.9000;1.2625;-5.1324;
136.2000;1.2601;-5.1350;
136.5000;1.2609;-5.1298;
136.8000;1.2641;-5.1350;
137.1000;1.2633;-5.1402;
137.4000;1.2650;-5.1402;
137.7000;1.2641;-5.1350;
138.0000;1.2633;-5.1298;
138.3000;1.2617;-5.1376;
138.6000;1.2609;-5.1324;
138.9000;1.2633;-5.1194;
139.2000;1.2633;-5.1194;
139.5000;1.2625;-5.1194;
139.8000;1.2625;-5.1194;
140.1000;1.2625;-5.1142;
140.4000;1.2641;-5.1168;
140.7000;1.2633;-5.1194;
141.0000;1.2609;-5.1220;
141.3000;1.2609;-5.1298;
141.6000;1.2641;-5.1246;
141.9000;1.2633;-5.1350;
142.2000;1.2641;-5.1454;
142.5000;1.2641;-5.1531;
142.8000;1.2625;-5.1454;
143.1000;1.2633;-5.1428;
143.4000;1.2641;-5.1402;
143.7000;1.2601;-5.1454;
144.0000;1.2633;-5.1505;
144.3000;1.2633;-5.1479;
144.6000;1.2641;-5.1376;
144.9000;1.2609;-5.1428;
145.2000;1.2617;-5.1376;
145.5000;1.2625;-5.1402;
145.8000;1.2633;-5.1428;
146.1000;1.2633;-5.1479;
146.4000;1.2625;-5.1505;
146.7000;1.2633;-5.1454;
147.0000;1.2633;-5.1376;
147.3000;1.2641;-5.1272;
147.6000;1.2625;-5.1272;
147.9000;1.2633;-5.1350;
148.2000;1.2633;-5.1402;
148.5000;1.2658;-5.1402;
148.8000;1.2641;-5.1583;
149.1000;1.2617;-5.1583;
149.4000;1.2650;-5.1454;
149.7000;1.2625;-5.1428;
150.0000;1.2625;-5.1428;
150.3000;1.2609;-5.1479;
150.6000;1.2568;-5.1583;
150.9000;1.2658;-5.1324;
151.2000;1.2650;-5.1272;
151.5000;1.2568;-5.1428;
151.8000;1.2658;-5.1246;
152.1000;1.2641;-5.1298;
152.4000;1.2617;-5.1402;
152.7000;1.2633;-5.1402;
153.0000;1.2633;-5.1428;
153.3000;1.2650;-5.1376;
153.6000;1.2641;-5.1479;
153.9000;1.2641;-5.1428;
154.2000;1.2633;-5.1531;
154.5000;1.2633;-5.1479;
154.8000;1.2641;-5.1428;
155.1000;1.2609;-5.1531;
155.4000;1.2633;-5.1428;
155.7000;1.2641;-5.1350;
156.0000;1.2633;-5.1298;
156.3000;1.2658;-5.1220;
156.6000;1.2633;-5.1350;
156.9000;1.2650;-5.1298;
157.2000;1.2633;-5.1402;
157.5000;1.2633;-5.1324;
157.8000;1.2625;-5.1272;
158.1000;1.2617;-5.1324;
158.4000;1.2650;-5.1272;
158.7000;1.2633;-5.1324;
159.0000;1.2625;-5.1298;
159.3000;1.2617;-5.1376;
159.6000;1.2641;-5.1350;
159.9000;1.2625;-5.1402;
160.2000;1.2633;-5.1376;
160.5000;1.2641;-5.1428;
160.8000;1.2641;-5.1428;
161.1000;1.2650;-5.1428;
161.4000;1.2650;-5.1298;
161.7000;1.2658;-5.1376;
162.0000;1.2641;-5.1402;
162.3000;1.2641;-5.1350;
162.6000;1.2633;-5.1298;
162.9000;1.2641;-5.1298;
163.2000;1.2641;-5.1298;
163.5000;1.2658;-5.1272;
163.8000;1.2641;-5.1324;
164.1000;1.2641;-5.1376;
164.4000;1.2633;-5.1298;
164.7000;1.2633;-5.1324;
165.0000;1.2650;-5.1402;
165.3000;1.2690;-5.1324;
165.6000;1.2650;-5.1402;
165.9000;1.2650;-5.1324;
166.2000;1.2650;-5.1376;
166.5000;1.2633;-5.1298;
166.8000;1.2641;-5.1350;
167.1000;1.2633;-5.1376;
167.4000;1.2650;-5.1350;
167.7000;1.2633;-5.1428;
168.0000;1.2625;-5.1454;
168.3000;1.2625;-5.1428;
168.6000;1.2658;-5.1376;
168.9000;1.2641;-5.1350;
169.2000;1.2633;-5.1350;
169.5000;1.2625;-5.1350;
169.8000;1.2641;-5.1324;
170.1000;1.2674;-5.1168;
170.4000;1.2617;-5.1272;
170.7000;1.2625;-5.1272;
171.0000;1.2633;-5.1168;
171.3000;1.2641;-5.1090;
171.6000;1.2601;-5.1246;
171.9000;1.2633;-5.1220;
172.2000;1.2650;-5.1116;
172.5000;1.2633;-5.1168;
172.8000;1.2650;-5.1194;
173.1000;1.2650;-5.1246;
173.4000;1.2641;-5.1220;
173.7000;1.2658;-5.1142;
174.0000;1.2650;-5.1194;
174.3000;1.2666;-5.1272;
174.6000;1.2617;-5.1376;
174.9000;1.2650;-5.1272;
175.2000;1.2641;-5.1246;
175.5000;1.2650;-5.1272;
175.8000;1.2641;-5.1246;
176.1000;1.2650;-5.1246;
176.4000;1.2650;-5.1194;
176.7000;1.2650;-5.1194;
177.0000;1.2641;-5.1194;
177.3000;1.2650;-5.1194;
177.6000;1.2666;-5.1168;
177.9000;1.2650;-5.1168;
178.2000;1.2625;-5.1168;
178.5000;1.2650;-5.1142;
178.8000;1.2650;-5.1116;
179.1000;1.2650;-5.1116;
179.4000;1.2650;-5.1116;
179.7000;1.2625;-5.1194;
180.0000;1.2641;-5.1220;
180.3000;1.2641;-5.1220;
180.6000;1.2633;-5.1272;
180.9000;1.2633;-5.1324;
181.2000;1.2617;-5.1402;
181.5000;1.2625;-5.1402;
181.8000;1.2641;-5.1402;
182.1000;1.2633;-5.1376;
182.4000;1.2633;-5.1298;
182.7000;1.2641;-5.1324;
183.0000;1.2658;-5.1194;
183.3000;1.2633;-5.1246;
183.6000;1.2633;-5.1194;
183.9000;1.2641;-5.1246;
184.2000;1.2658;-5.1220;
184.5000;1.2641;-5.1324;
184.8000;1.2650;-5.1272;
185.1000;1.2641;-5.1298;
185.4000;1.2658;-5.1324;
185.7000;1.2633;-5.1350;
186.0000;1.2633;-5.1220;
186.3000;1.2617;-5.1220;
186.6000;1.2650;-5.1220;
186.9000;1.2625;-5.1272;
187.2000;1.2601;-5.1428;
187.5000;1.2641;-5.1246;
187.8000;1.2650;-5.1220;
188.1000;1.2641;-5.1194;
188.4000;1.2593;-5.1350;
188.7000;1.2633;-5.1220;
189.0000;1.2641;-5.1116;
189.3000;1.2633;-5.1116;
189.6000;1.2633;-5.1194;
189.9000;1.2625;-5.1168;
190.2000;1.2641;-5.1090;
190.5000;1.2609;-5.1272;
190.8000;1.2609;-5.1272;
191.1000;1.2641;-5.1194;
191.4000;1.2633;-5.1168;
191.7000;1.2617;-5.1298;
192.0000;1.2633;-5.1298;
192.3000;1.2625;-5.1194;
192.6000;1.2633;-5.1194;
192.9000;1.2625;-5.1246;
193.2000;1.2658;-5.1168;
193.5000;1.2633;-5.1065;
193.8000;1.2650;-5.1013;
194.1000;1.2658;-5.0961;
194.4000;1.2641;-5.1013;
194.7000;1.2641;-5.0987;
195.0000;1.2650;-5.0987;
195.3000;1.2650;-5.0987;
195.6000;1.2650;-5.1065;
195.9000;1.2666;-5.1116;
196.2000;1.2625;-5.1324;
196.5000;1.2641;-5.1220;
196.8000;1.2666;-5.1168;
197.1000;1.2658;-5.1246;
197.4000;1.2625;-5.1220;
197.7000;1.2641;-5.1246;
198.0000;1.2650;-5.1272;
198.3000;1.2625;-5.1324;
198.6000;1.2633;-5.1324;
198.9000;1.2650;-5.1168;
199.2000;1.2641;-5.1168;
199.5000;1.2650;-5.1142;
199.8000;1.2650;-5.1090;
200.1000;1.2674;-5.1013;
200.4000;1.2641;-5.1065;
200.7000;1.2650;-5.1090;
201.0000;1.2633;-5.1090;
201.3000;1.2650;-5.0987;
201.6000;1.2641;-5.0935;
201.9000;1.2641;-5.1013;
202.2000;1.2650;-5.1090;
202.5000;1.2593;-5.1220;
202.8000;1.2617;-5.1194;
203.1000;1.2650;-5.1194;
203.4000;1.2641;-5.1168;
203.7000;1.2633;-5.1168;
204.0000;1.2641;-5.1168;
204.3000;1.2658;-5.1168;
204.6000;1.2650;-5.1246;
204.9000;1.2650;-5.1272;
205.2000;1.2723;-5.1065;
205.5000;1.2650;-5.1246;
205.8000;1.2650;-5.1350;
206.1000;1.2641;-5.1376;
206.4000;1.2617;-5.1376;
206.7000;1.2650;-5.1246;
207.0000;1.2650;-5.1272;
207.3000;1.2650;-5.1350;
207.6000;1.2650;-5.1272;
207.9000;1.2584;-5.1402;
208.2000;1.2641;-5.1272;
208.5000;1.2633;-5.1324;
208.8000;1.2633;-5.1376;
209.1000;1.2658;-5.1324;
209.4000;1.2650;-5.1272;
209.7000;1.2658;-5.1272;
210.0000;1.2650;-5.1246;
210.3000;1.2641;-5.1246;
210.6000;1.2641;-5.1298;
210.9000;1.2641;-5.1220;
211.2000;1.2658;-5.1194;
211.5000;1.2658;-5.1116;
211.8000;1.2658;-5.1065;
212.1000;1.2658;-5.1065;
212.4000;1.2625;-5.1246;
212.7000;1.2650;-5.1272;
213.0000;1.2650;-5.1324;
213.3000;1.2690;-5.1220;
213.6000;1.2641;-5.1298;
213.9000;1.2658;-5.1350;
214.2000;1.2617;-5.1428;
214.5000;1.2658;-5.1246;
214.8000;1.2641;-5.1298;
215.1000;1.2658;-5.1116;
215.4000;1.2641;-5.1116;
215.7000;1.2690;-5.1065;
216.0000;1.2633;-5.1298;
216.3000;1.2641;-5.1272;
216.6000;1.2633;-5.1298;
216.9000;1.2625;-5.1350;
217.2000;1.2674;-5.1272;
217.5000;1.2650;-5.1298;
217.8000;1.2641;-5.1220;
218.1000;1.2650;-5.1116;
218.4000;1.2650;-5.1168;
218.7000;1.2658;-5.1116;
219.0000;1.2650;-5.1142;
219.3000;1.2641;-5.1220;
219.6000;1.2666;-5.1220;
219.9000;1.2625;-5.1350;
220.2000;1.2658;-5.1350;
220.5000;1.2641;-5.1324;
220.8000;1.2650;-5.1376;
221.1000;1.2641;-5.1324;
221.4000;1.2633;-5.1428;
221.7000;1.2641;-5.1428;
222.0000;1.2641;-5.1298;
222.3000;1.2658;-5.1142;
222.6000;1.2633;-5.1246;
222.9000;1.2641;-5.1168;
223.2000;1.2633;-5.1142;
223.5000;1.2625;-5.1168;
223.8000;1.2650;-5.1090;
224.1000;1.2633;-5.1065;
224.4000;1.2650;-5.1142;
224.7000;1.2658;-5.1116;
225.0000;1.2617;-5.1246;
225.3000;1.2650;-5.1065;
225.6000;1.2650;-5.1013;
225.9000;1.2625;-5.1065;
226.2000;1.2641;-5.1090;
226.5000;1.2658;-5.1065;
226.8000;1.2641;-5.1013;
227.1000;1.2641;-5.0987;
227.4000;1.2641;-5.0961;
227.7000;1.2650;-5.0909;
228.0000;1.2658;-5.1039;
228.3000;1.2650;-5.1065;
228.6000;1.2650;-5.1039;
228.9000;1.2625;-5.1116;
229.2000;1.2641;-5.1065;
229.5000;1.2658;-5.0961;
229.8000;1.2650;-5.0935;
230.1000;1.2641;-5.0987;
230.4000;1.2641;-5.1039;
230.7000;1.2658;-5.1065;
231.0000;1.2641;-5.1090;
231.3000;1.2633;-5.1065;
231.6000;1.2633;-5.1013;
231.9000;1.2641;-5.1013;
232.2000;1.2617;-5.1090;
232.5000;1.2633;-5.1090;
232.8000;1.2650;-5.1065;
233.1000;1.2633;-5.1065;
233.4000;1.2633;-5.1013;
233.7000;1.2731;-5.0857;
234.0000;1.2650;-5.1039;
234.3000;1.2674;-5.0909;
234.6000;1.2633;-5.1039;
234.9000;1.2609;-5.1142;
235.2000;1.2658;-5.1090;
235.5000;1.2641;-5.1220;
235.8000;1.2658;-5.1246;
236.1000;1.2641;-5.1298;
236.4000;1.2641;-5.1298;
236.7000;1.2731;-5.1039;
237.0000;1.2641;-5.1350;
237.3000;1.2650;-5.1298;
237.6000;1.2650;-5.1246;
237.9000;1.2658;-5.1194;
238.2000;1.2650;-5.1246;
238.5000;1.2674;-5.1168;
238.8000;1.2658;-5.1142;
239.1000;1.2658;-5.1246;
239.4000;1.2641;-5.1220;
239.7000;1.2658;-5.1350;
240.0000;1.2617;-5.1376;
240.3000;1.2658;-5.1246;
240.6000;1.2658;-5.1246;
240.9000;1.2666;-5.1194;
241.2000;1.2658;-5.1194;
241.5000;1.2584;-5.1376;
241.8000;1.2658;-5.1324;
242.1000;1.2658;-5.1376;
242.4000;1.2682;-5.1376;
242.7000;1.2658;-5.1428;
243.0000;1.2641;-5.1402;
243.3000;1.2633;-5.1402;
243.6000;1.2617;-5.1402;
243.9000;1.2641;-5.1272;
244.2000;1.2658;-5.1324;
244.5000;1.2650;-5.1298;
244.8000;1.2650;-5.1324;
245.1000;1.2650;-5.1272;
245.4000;1.2650;-5.1246;
245.7000;1.2650;-5.1194;
246.0000;1.2650;-5.1220;
246.3000;1.2650;-5.1246;
246.6000;1.2650;-5.1194;
246.9000;1.2641;-5.1272;
247.2000;1.2650;-5.1194;
247.5000;1.2650;-5.1194;
247.8000;1.2633;-5.1194;
248.1000;1.2641;-5.1324;
248.4000;1.2650;-5.1402;
248.7000;1.2617;-5.1376;
249.0000;1.2658;-5.1350;
249.3000;1.2641;-5.1428;
249.6000;1.2641;-5.1454;
249.9000;1.2650;-5.1428;
250.2000;1.2707;-5.1298;
250.5000;1.2650;-5.1246;
250.8000;1.2658;-5.1142;
251.1000;1.2666;-5.1194;
251.4000;1.2641;-5.1220;
251.7000;1.2650;-5.1246;
252.0000;1.2658;-5.1194;
252.3000;1.2650;-5.1220;
252.6000;1.2650;-5.1272;
252.9000;1.2690;-5.1246;
253.2000;1.2625;-5.1402;
253.5000;1.2650;-5.1402;
253.8000;1.2601;-5.1505;
254.1000;1.2641;-5.1350;
254.4000;1.2625;-5.1272;
254.7000;1.2658;-5.1272;
255.0000;1.2609;-5.1324;
255.3000;1.2650;-5.1272;
255.6000;1.2641;-5.1194;
255.9000;1.2650;-5.1168;
256.2000;1.2658;-5.1194;
256.5000;1.2658;-5.1220;
256.8000;1.2650;-5.1324;
257.1000;1.2650;-5.1350;
257.4000;1.2698;-5.1298;
257.7000;1.2625;-5.1454;
258.0000;1.2641;-5.1428;
258.3000;1.2625;-5.1505;
258.6000;1.2641;-5.1428;
258.9000;1.2625;-5.1350;
259.2000;1.2658;-5.1272;
259.5000;1.2747;-5.0987;
259.8000;1.2633;-5.1298;
260.1000;1.2625;-5.1272;
260.4000;1.2650;-5.1246;
260.7000;1.2658;-5.1324;
261.0000;1.2658;-5.1194;
261.3000;1.2641;-5.1168;
261.6000;1.2633;-5.1168;
261.9000;1.2641;-5.1065;
262.2000;1.2650;-5.1142;
262.5000;1.2641;-5.1142;
262.8000;1.2625;-5.1168;
263.1000;1.2650;-5.1142;
263.4000;1.2666;-5.1116;
263.7000;1.2658;-5.1168;
264.0000;1.2674;-5.1116;
264.3000;1.2650;-5.1142;
264.6000;1.2650;-5.1194;
264.9000;1.2633;-5.1194;
265.2000;1.2609;-5.1402;
265.5000;1.2674;-5.1350;
265.8000;1.2658;-5.1428;
266.1000;1.2650;-5.1454;
266.4000;1.2650;-5.1376;
266.7000;1.2633;-5.1298;
267.0000;1.2650;-5.1194;
267.3000;1.2650;-5.1194;
267.6000;1.2650;-5.1220;
267.9000;1.2633;-5.1298;
268.2000;1.2650;-5.1298;
268.5000;1.2650;-5.1350;
268.8000;1.2641;-5.1350;
269.1000;1.2633;-5.1298;
269.4000;1.2625;-5.1376;
269.7000;1.2633;-5.1324;
270.0000;1.2666;-5.1298;
270.3000;1.2617;-5.1376;
270.6000;1.2633;-5.1350;
270.9000;1.2641;-5.1324;
271.2000;1.2633;-5.1324;
271.5000;1.2633;-5.1324;
271.8000;1.2625;-5.1298;
272.1000;1.2633;-5.1324;
272.4000;1.2666;-5.1324;
272.7000;1.2650;-5.1350;
273.0000;1.2625;-5.1376;
273.3000;1.2633;-5.1402;
273.6000;1.2641;-5.1402;
273.9000;1.2666;-5.1324;
274.2000;1.2633;-5.1402;
274.5000;1.2641;-5.1479;
274.8000;1.2650;-5.1505;
275.1000;1.2650;-5.1479;
275.4000;1.2698;-5.1428;
275.7000;1.2633;-5.1583;
276.0000;1.2650;-5.1609;
276.3000;1.2641;-5.1557;
276.6000;1.2641;-5.1531;
276.9000;1.2625;-5.1505;
277.2000;1.2641;-5.1402;
277.5000;1.2658;-5.1246;
277.8000;1.2641;-5.1324;
278.1000;1.2625;-5.1350;
278.4000;1.2650;-5.1298;
278.7000;1.2633;-5.1298;
279.0000;1.2674;-5.1272;
279.3000;1.2641;-5.1324;
279.6000;1.2650;-5.1272;
279.9000;1.2641;-5.1324;
280.2000;1.2666;-5.1324;
280.5000;1.2658;-5.1350;
280.8000;1.2633;-5.1428;
281.1000;1.2633;-5.1376;
281.4000;1.2650;-5.1324;
281.7000;1.2641;-5.1350;
282.0000;1.2731;-5.1090;
282.3000;1.2650;-5.1350;
282.6000;1.2625;-5.1376;
282.9000;1.2650;-5.1298;
283.2000;1.2650;-5.1350;
283.5000;1.2682;-5.1324;
283.8000;1.2641;-5.1479;
284.1000;1.2666;-5.1376;
284.4000;1.2641;-5.1479;
284.7000;1.2625;-5.1428;
285.0000;1.2650;-5.1376;
285.3000;1.2641;-5.1402;
285.6000;1.2633;-5.1402;
285.9000;1.2617;-5.1376;
286.2000;1.2633;-5.1428;
286.5000;1.2633;-5.1402;
286.8000;1.2625;-5.1479;
287.1000;1.2641;-5.1479;
287.4000;1.2641;-5.1479;
287.7000;1.2650;-5.1402;
288.0000;1.2641;-5.1402;
288.3000;1.2666;-5.1350;
288.6000;1.2641;-5.1454;
288.9000;1.2666;-5.1479;
289.2000;1.2698;-5.1298;
289.5000;1.2641;-5.1402;
289.8000;1.2633;-5.1350;
290.1000;1.2625;-5.1402;
290.4000;1.2641;-5.1272;
290.7000;1.2641;-5.1298;
291.0000;1.2633;-5.1324;
291.3000;1.2650;-5.1298;
291.6000;1.2617;-5.1402;
291.9000;1.2641;-5.1428;
292.2000;1.2641;-5.1428;
292.5000;1.2633;-5.1350;
292.8000;1.2641;-5.1376;
293.1000;1.2658;-5.1324;
293.4000;1.2658;-5.1298;
293.7000;1.2625;-5.1428;
294.0000;1.2666;-5.1376;
294.3000;1.2658;-5.1428;
294.6000;1.2641;-5.1505;
294.9000;1.2641;-5.1557;
295.2000;1.2731;-5.1402;
295.5000;1.2650;-5.1454;
295.8000;1.2641;-5.1402;
296.1000;1.2650;-5.1402;
296.4000;1.2650;-5.1376;
296.7000;1.2641;-5.1350;
297.0000;1.2650;-5.1350;
297.3000;1.2641;-5.1454;
297.6000;1.2641;-5.1428;
297.9000;1.2682;-5.1350;
298.2000;1.2650;-5.1376;
298.5000;1.2633;-5.1402;
298.8000;1.2641;-5.1324;
299.1000;1.2650;-5.1298;
299.4000;1.2617;-5.1298;
299.7000;1.2633;-5.1298;
300.0000;1.2641;-5.1272;
300.3000;1.2641;-5.1272;
300.6000;1.2650;-5.1220;
300.9000;1.2633;-5.1324;
301.2000;1.2641;-5.1324;
301.5000;1.2658;-5.1272;
301.8000;1.2650;-5.1220;
302.1000;1.2658;-5.1220;
302.4000;1.2641;-5.1298;
302.7000;1.2641;-5.1246;
303.0000;1.2650;-5.1246;
303.3000;1.2674;-5.1220;
303.6000;1.2650;-5.1272;
303.9000;1.2650;-5.1298;
304.2000;1.2641;-5.1298;
304.5000;1.2658;-5.1324;
304.8000;1.2625;-5.1350;
305.1000;1.2625;-5.1350;
305.4000;1.2633;-5.1376;
305.7000;1.2650;-5.1298;
306.0000;1.2666;-5.1272;
306.3000;1.2690;-5.1194;
306.6000;1.2650;-5.1272;
306.9000;1.2641;-5.1324;
307.2000;1.2641;-5.1272;
307.5000;1.2650;-5.1220;
307.8000;1.2641;-5.1116;
308.1000;1.2650;-5.1090;
308.4000;1.2658;-5.1039;
308.7000;1.2625;-5.1168;
309.0000;1.2641;-5.1142;
309.3000;1.2641;-5.1142;
309.6000;1.2650;-5.1272;
309.9000;1.2633;-5.1350;
310.2000;1.2650;-5.1324;
310.5000;1.2641;-5.1402;
310.8000;1.2658;-5.1454;
311.1000;1.2650;-5.1428;
311.4000;1.2633;-5.1428;
311.7000;1.2650;-5.1350;
312.0000;1.2666;-5.1376;
312.3000;1.2650;-5.1324;
312.6000;1.2650;-5.1350;
312.9000;1.2650;-5.1298;
313.2000;1.2593;-5.1428;
313.5000;1.2641;-5.1324;
313.8000;1.2658;-5.1324;
314.1000;1.2650;-5.1220;
314.4000;1.2601;-5.1376;
314.7000;1.2650;-5.1272;
315.0000;1.2650;-5.1194;
315.3000;1.2641;-5.1324;
315.6000;1.2641;-5.1324;
315.9000;1.2658;-5.1272;
316.2000;1.2641;-5.1298;
316.5000;1.2641;-5.1298;
316.8000;1.2658;-5.1220;
317.1000;1.2641;-5.1246;
317.4000;1.2658;-5.1324;
317.7000;1.2698;-5.1246;
318.0000;1.2617;-5.1402;
318.3000;1.2666;-5.1194;
318.6000;1.2650;-5.1272;
318.9000;1.2650;-5.1220;
319.2000;1.2633;-5.1272;
319.5000;1.2633;-5.1298;
319.8000;1.2633;-5.1402;
320.1000;1.2641;-5.1350;
320.4000;1.2633;-5.1376;
320.7000;1.2641;-5.1350;
321.0000;1.2633;-5.1324;
321.3000;1.2650;-5.1324;
321.6000;1.2633;-5.1350;
321.9000;1.2641;-5.1402;
322.2000;1.2666;-5.1324;
322.5000;1.2658;-5.1324;
322.8000;1.2641;-5.1402;
323.1000;1.2650;-5.1376;
323.4000;1.2650;-5.1272;
323.7000;1.2641;-5.1272;
324.0000;1.2633;-5.1298;
324.3000;1.2641;-5.1246;
324.6000;1.2641;-5.1194;
324.9000;1.2650;-5.1194;
325.2000;1.2625;-5.1246;
325.5000;1.2650;-5.1168;
325.8000;1.2641;-5.1194;
326.1000;1.2633;-5.1220;
326.4000;1.2617;-5.1168;
326.7000;1.2601;-5.1272;
327.0000;1.2641;-5.1246;
327.3000;1.2625;-5.1298;
327.6000;1.2601;-5.1350;
327.9000;1.2593;-5.1324;
328.2000;1.2617;-5.1272;
328.5000;1.2617;-5.1246;
328.8000;1.2625;-5.1168;
329.1000;1.2584;-5.1428;
329.4000;1.2625;-5.1402;
329.7000;1.2609;-5.1505;
330.0000;1.2641;-5.1454;
330.3000;1.2641;-5.1402;
330.6000;1.2650;-5.1376;
330.9000;1.2641;-5.1402;
331.2000;1.2633;-5.1479;
331.5000;1.2641;-5.1350;
331.8000;1.2633;-5.1324;
332.1000;1.2609;-5.1350;
332.4000;1.2625;-5.1350;
332.7000;1.2625;-5.1376;
333.0000;1.2666;-5.1272;
333.3000;1.2617;-5.1402;
333.6000;1.2633;-5.1350;
333.9000;1.2633;-5.1350;
334.2000;1.2609;-5.1324;
334.5000;1.2593;-5.1428;
334.8000;1.2625;-5.1324;
335.1000;1.2641;-5.1272;
335.4000;1.2641;-5.1194;
335.7000;1.2625;-5.1246;
336.0000;1.2633;-5.1298;
336.3000;1.2625;-5.1350;
336.6000;1.2625;-5.1402;
336.9000;1.2609;-5.1324;
337.2000;1.2633;-5.1246;
337.5000;1.2633;-5.1246;
337.8000;1.2633;-5.1324;
338.1000;1.2658;-5.1220;
338.4000;1.2658;-5.1220;
338.7000;1.2666;-5.1168;
339.0000;1.2641;-5.1220;
339.3000;1.2625;-5.1246;
339.6000;1.2625;-5.1246;
339.9000;1.2641;-5.1246;
340.2000;1.2641;-5.1324;
340.5000;1.2625;-5.1246;
340.8000;1.2674;-5.1168;
341.1000;1.2641;-5.1220;
341.4000;1.2625;-5.1324;
341.7000;1.2593;-5.1454;
342.0000;1.2633;-5.1376;
342.3000;1.2601;-5.1505;
342.6000;1.2641;-5.1324;
342.9000;1.2641;-5.1454;
343.2000;1.2576;-5.1609;
343.5000;1.2625;-5.1298;
343.8000;1.2641;-5.1194;
344.1000;1.2633;-5.1142;
344.4000;1.2641;-5.1090;
344.7000;1.2633;-5.1116;
345.0000;1.2641;-5.1116;
345.3000;1.2641;-5.1090;
345.6000;1.2658;-5.1116;
345.9000;1.2641;-5.1142;
346.2000;1.2576;-5.1246;
346.5000;1.2641;-5.1142;
346.8000;1.2633;-5.1194;
347.1000;1.2625;-5.1246;
347.4000;1.2633;-5.1194;
347.7000;1.2633;-5.1194;
348.0000;1.2625;-5.1272;
348.3000;1.2641;-5.1168;
348.6000;1.2641;-5.1246;
348.9000;1.2633;-5.1246;
349.2000;1.2641;-5.1220;
349.5000;1.2641;-5.1220;
349.8000;1.2633;-5.1298;
350.1000;1.2641;-5.1272;
350.4000;1.2633;-5.1220;
350.7000;1.2641;-5.1142;
351.0000;1.2666;-5.1065;
351.3000;1.2625;-5.1142;
351.6000;1.2625;-5.1090;
351.9000;1.2625;-5.1194;
352.2000;1.2633;-5.1116;
352.5000;1.2617;-5.1090;
352.8000;1.2633;-5.1065;
353.1000;1.2633;-5.1039;
353.4000;1.2633;-5.1168;
353.7000;1.2617;-5.1220;
354.0000;1.2633;-5.1298;
354.3000;1.2666;-5.1246;
354.6000;1.2609;-5.1505;
354.9000;1.2625;-5.1376;
355.2000;1.2625;-5.1376;
355.5000;1.2641;-5.1350;
355.8000;1.2650;-5.1402;
356.1000;1.2617;-5.1454;
356.4000;1.2633;-5.1402;
356.7000;1.2641;-5.1298;
357.0000;1.2650;-5.1246;
357.3000;1.2625;-5.1272;
357.6000;1.2625;-5.1194;
357.9000;1.2625;-5.1168;
358.2000;1.2650;-5.1194;
358.5000;1.2625;-5.1272;
358.8000;1.2633;-5.1220;
359.1000;1.2682;-5.1168;
359.4000;1.2593;-5.1531;
359.7000;1.2650;-5.1402;
360.0000;1.2641;-5.1428;
360.3000;1.2723;-5.1194;
360.6000;1.2641;-5.1428;
360.9000;1.2650;-5.1428;
361.2000;1.2633;-5.1454;
361.5000;1.2674;-5.1402;
361.8000;1.2641;-5.1505;
362.1000;1.2625;-5.1479;
362.4000;1.2698;-5.1220;
362.7000;1.2650;-5.1220;
363.0000;1.2641;-5.1298;
363.3000;1.2625;-5.1298;
363.6000;1.2609;-5.1220;
363.9000;1.2625;-5.1194;
364.2000;1.2625;-5.1142;
364.5000;1.2633;-5.1116;
364.8000;1.2625;-5.1142;
365.1000;1.2609;-5.1246;
365.4000;1.2641;-5.1298;
365.7000;1.2633;-5.1324;
366.0000;1.2633;-5.1298;
366.3000;1.2641;-5.1298;
366.6000;1.2625;-5.1324;
366.9000;1.2658;-5.1298;
367.2000;1.2650;-5.1246;
367.5000;1.2625;-5.1220;
367.8000;1.2633;-5.1168;
368.1000;1.2633;-5.1090;
368.4000;1.2641;-5.1013;
368.7000;1.2633;-5.1013;
369.0000;1.2650;-5.1065;
369.3000;1.2633;-5.1116;
369.6000;1.2650;-5.1116;
369.9000;1.2641;-5.1116;
370.2000;1.2633;-5.1194;
370.5000;1.2633;-5.1168;
370.8000;1.2641;-5.1116;
371.1000;1.2641;-5.1090;
371.4000;1.2625;-5.1142;
371.7000;1.2633;-5.1090;
372.0000;1.2674;-5.0935;
372.3000;1.2650;-5.1039;
372.6000;1.2617;-5.1142;
372.9000;1.2625;-5.1168;
373.2000;1.2641;-5.1116;
373.5000;1.2682;-5.0935;
373.8000;1.2658;-5.1013;
374.1000;1.2617;-5.1168;
374.4000;1.2633;-5.1142;
374.7000;1.2658;-5.1116;
375.0000;1.2650;-5.1116;
375.3000;1.2641;-5.1194;
375.6000;1.2641;-5.1142;
375.9000;1.2650;-5.1142;
376.2000;1.2641;-5.1116;
376.5000;1.2650;-5.1194;
376.8000;1.2633;-5.1220;
377.1000;1.2650;-5.1194;
377.4000;1.2658;-5.1194;
377.7000;1.2641;-5.1246;
378.0000;1.2641;-5.1298;
378.3000;1.2609;-5.1324;
378.6000;1.2641;-5.1298;
378.9000;1.2641;-5.1324;
379.2000;1.2633;-5.1298;
379.5000;1.2641;-5.1324;
379.8000;1.2650;-5.1350;
380.1000;1.2641;-5.1298;
380.4000;1.2625;-5.1246;
380.7000;1.2625;-5.1298;
381.0000;1.2690;-5.1116;
381.3000;1.2666;-5.1168;
381.6000;1.2674;-5.1142;
381.9000;1.2633;-5.1220;
382.2000;1.2625;-5.1324;
382.5000;1.2633;-5.1324;
382.8000;1.2609;-5.1428;
383.1000;1.2625;-5.1454;
383.4000;1.2633;-5.1376;
383.7000;1.2641;-5.1194;
384.0000;1.2641;-5.1065;
384.3000;1.2633;-5.1116;
384.6000;1.2674;-5.1116;
384.9000;1.2633;-5.1194;
385.2000;1.2641;-5.1116;
385.5000;1.2625;-5.1065;
385.8000;1.2625;-5.1039;
386.1000;1.2674;-5.0883;
386.4000;1.2641;-5.0961;
386.7000;1.2633;-5.0935;
387.0000;1.2674;-5.0857;
387.3000;1.2617;-5.0961;
387.6000;1.2625;-5.0987;
387.9000;1.2650;-5.1039;
388.2000;1.2576;-5.1090;
388.5000;1.2625;-5.1039;
388.8000;1.2617;-5.1065;
389.1000;1.2625;-5.0987;
389.4000;1.2633;-5.0935;
389.7000;1.2625;-5.0857;
390.0000;1.2633;-5.0779;
390.3000;1.2641;-5.0805;
390.6000;1.2633;-5.0857;
390.9000;1.2625;-5.0961;
391.2000;1.2641;-5.0961;
391.5000;1.2641;-5.0883;
391.8000;1.2633;-5.0935;
392.1000;1.2633;-5.0961;
392.4000;1.2633;-5.0961;
392.7000;1.2633;-5.0961;
393.0000;1.2641;-5.0961;
393.3000;1.2625;-5.0935;
393.6000;1.2633;-5.0909;
393.9000;1.2650;-5.0883;
394.2000;1.2658;-5.0883;
394.5000;1.2633;-5.0961;
394.8000;1.2625;-5.1013;
395.1000;1.2625;-5.1013;
395.4000;1.2625;-5.0935;
395.7000;1.2576;-5.1013;
396.0000;1.2625;-5.0935;
396.3000;1.2617;-5.0961;
396.6000;1.2625;-5.1039;
396.9000;1.2625;-5.0961;
397.2000;1.2625;-5.0935;
397.5000;1.2707;-5.0831;
397.8000;1.2633;-5.0909;
398.1000;1.2625;-5.0961;
398.4000;1.2633;-5.1013;
398.7000;1.2544;-5.1194;
399.0000;1.2625;-5.1013;
399.3000;1.2625;-5.0987;
399.6000;1.2633;-5.0935;
399.9000;1.2625;-5.0935;
400.2000;1.2641;-5.0909;
400.5000;1.2625;-5.0987;
400.8000;1.2641;-5.0935;
401.1000;1.2593;-5.0987;
401.4000;1.2650;-5.0779;
401.7000;1.2666;-5.0805;
402.0000;1.2641;-5.0909;
402.3000;1.2625;-5.0909;
402.6000;1.2633;-5.0883;
402.9000;1.2641;-5.0883;
403.2000;1.2584;-5.1090;
403.5000;1.2633;-5.0961;
403.8000;1.2641;-5.0987;
404.1000;1.2641;-5.0961;
404.4000;1.2625;-5.0961;
404.7000;1.2641;-5.1065;
405.0000;1.2584;-5.1142;
405.3000;1.2633;-5.1090;
405.6000;1.2633;-5.1065;
405.9000;1.2625;-5.1090;
406.2000;1.2641;-5.0935;
406.5000;1.2641;-5.0909;
406.8000;1.2641;-5.0883;
407.1000;1.2625;-5.0961;
407.4000;1.2641;-5.0987;
407.7000;1.2617;-5.1013;
408.0000;1.2625;-5.0987;
408.3000;1.2625;-5.0987;
408.6000;1.2617;-5.1065;
408.9000;1.2609;-5.1116;
409.2000;1.2625;-5.1142;
409.5000;1.2633;-5.1168;
409.8000;1.2617;-5.1246;
410.1000;1.2625;-5.1194;
410.4000;1.2641;-5.1168;
410.7000;1.2641;-5.1142;
411.0000;1.2617;-5.1246;
411.3000;1.2625;-5.1246;
411.6000;1.2625;-5.1272;
411.9000;1.2674;-5.1220;
412.2000;1.2625;-5.1376;
412.5000;1.2641;-5.1428;
412.8000;1.2633;-5.1454;
413.1000;1.2641;-5.1324;
413.4000;1.2633;-5.1220;
413.7000;1.2625;-5.1272;
414.0000;1.2633;-5.1272;
414.3000;1.2625;-5.1298;
414.6000;1.2625;-5.1350;
414.9000;1.2625;-5.1402;
415.2000;1.2617;-5.1402;
415.5000;1.2625;-5.1350;
415.8000;1.2641;-5.1246;
416.1000;1.2625;-5.1194;
416.4000;1.2625;-5.1142;
416.7000;1.2641;-5.1039;
417.0000;1.2633;-5.1090;
417.3000;1.2633;-5.1142;
417.6000;1.2633;-5.1065;
417.9000;1.2633;-5.1090;
418.2000;1.2633;-5.1090;
418.5000;1.2641;-5.1090;
418.8000;1.2544;-5.1376;
419.1000;1.2617;-5.1246;
419.4000;1.2617;-5.1272;
419.7000;1.2650;-5.1194;
420.0000;1.2617;-5.1272;
420.3000;1.2625;-5.1142;
420.6000;1.2568;-5.1324;
420.9000;1.2609;-5.1065;
421.2000;1.2625;-5.1013;
421.5000;1.2609;-5.1039;
421.8000;1.2641;-5.1039;
422.1000;1.2625;-5.1065;
422.4000;1.2641;-5.1116;
422.7000;1.2617;-5.1220;
423.0000;1.2650;-5.1039;
423.3000;1.2633;-5.1090;
423.6000;1.2633;-5.1039;
423.9000;1.2625;-5.1168;
424.2000;1.2633;-5.1220;
424.5000;1.2633;-5.1220;
424.8000;1.2650;-5.1116;
425.1000;1.2625;-5.1065;
425.4000;1.2625;-5.1142;
425.7000;1.2625;-5.1194;
426.0000;1.2641;-5.1116;
426.3000;1.2633;-5.1142;
426.6000;1.2633;-5.1065;
426.9000;1.2625;-5.1116;
427.2000;1.2641;-5.0987;
427.5000;1.2633;-5.0961;
427.8000;1.2633;-5.0961;
428.1000;1.2641;-5.0935;
428.4000;1.2609;-5.1090;
428.7000;1.2617;-5.1039;
429.0000;1.2601;-5.1116;
429.3000;1.2617;-5.1142;
429.6000;1.2617;-5.1090;
429.9000;1.2625;-5.1065;
430.2000;1.2658;-5.1039;
430.5000;1.2609;-5.1090;
430.8000;1.2617;-5.1065;
431.1000;1.2617;-5.1013;
431.4000;1.2617;-5.1039;
431.7000;1.2617;-5.0987;
432.0000;1.2617;-5.1039;
432.3000;1.2609;-5.1116;
432.6000;1.2625;-5.1065;
432.9000;1.2609;-5.1116;
433.2000;1.2617;-5.1142;
433.5000;1.2633;-5.1194;
433.8000;1.2625;-5.1220;
434.1000;1.2601;-5.1272;
434.4000;1.2617;-5.1220;
434.7000;1.2625;-5.1246;
435.0000;1.2633;-5.1194;
435.3000;1.2617;-5.1246;
435.6000;1.2633;-5.1168;
435.9000;1.2617;-5.1168;
436.2000;1.2625;-5.1142;
436.5000;1.2625;-5.1194;
436.8000;1.2617;-5.1350;
437.1000;1.2625;-5.1298;
437.4000;1.2633;-5.1220;
437.7000;1.2650;-5.1168;
438.0000;1.2625;-5.1272;
438.3000;1.2666;-5.1220;
438.6000;1.2617;-5.1246;
438.9000;1.2650;-5.1142;
439.2000;1.2625;-5.1194;
439.5000;1.2625;-5.1220;
439.8000;1.2650;-5.1116;
440.1000;1.2617;-5.1142;
440.4000;1.2617;-5.1142;
440.7000;1.2601;-5.1220;
441.0000;1.2658;-5.1168;
441.3000;1.2617;-5.1246;
441.6000;1.2617;-5.1272;
441.9000;1.2609;-5.1324;
442.2000;1.2593;-5.1454;
442.5000;1.2633;-5.1350;
442.8000;1.2617;-5.1324;
443.1000;1.2641;-5.1246;
443.4000;1.2633;-5.1272;
443.7000;1.2633;-5.1246;
444.0000;1.2641;-5.1168;
444.3000;1.2633;-5.1246;
444.6000;1.2617;-5.1298;
444.9000;1.2650;-5.1090;
445.2000;1.2633;-5.1194;
445.5000;1.2633;-5.1298;
445.8000;1.2625;-5.1324;
446.1000;1.2723;-5.1142;
446.4000;1.2650;-5.1402;
446.7000;1.2641;-5.1454;
447.0000;1.2625;-5.1454;
447.3000;1.2617;-5.1324;
447.6000;1.2633;-5.1194;
447.9000;1.2633;-5.1194;
448.2000;1.2641;-5.1142;
448.5000;1.2633;-5.1142;
448.8000;1.2633;-5.1039;
449.1000;1.2650;-5.0935;
449.4000;1.2617;-5.0961;
449.7000;1.2609;-5.0987;
450.0000;1.2617;-5.1065;
450.3000;1.2625;-5.1090;
450.6000;1.2617;-5.1142;
450.9000;1.2552;-5.1272;
451.2000;1.2601;-5.1272;
451.5000;1.2576;-5.1402;
451.8000;1.2609;-5.1272;
452.1000;1.2674;-5.1116;
452.4000;1.2625;-5.1142;
452.7000;1.2633;-5.1116;
453.0000;1.2633;-5.1194;
453.3000;1.2601;-5.1298;
453.6000;1.2625;-5.1324;
453.9000;1.2658;-5.1272;
454.2000;1.2617;-5.1479;
454.5000;1.2633;-5.1479;
454.8000;1.2617;-5.1479;
455.1000;1.2625;-5.1505;
455.4000;1.2633;-5.1376;
455.7000;1.2609;-5.1350;
456.0000;1.2601;-5.1350;
456.3000;1.2609;-5.1350;
456.6000;1.2609;-5.1324;
456.9000;1.2536;-5.1376;
457.2000;1.2601;-5.1272;
457.5000;1.2601;-5.1220;
457.8000;1.2617;-5.1272;
458.1000;1.2617;-5.1324;
458.4000;1.2641;-5.1272;
458.7000;1.2617;-5.1220;
459.0000;1.2625;-5.1194;
459.3000;1.2633;-5.1220;
459.6000;1.2625;-5.1194;
459.9000;1.2609;-5.1220;
460.2000;1.2633;-5.1220;
460.5000;1.2625;-5.1246;
460.8000;1.2633;-5.1168;
461.1000;1.2617;-5.1194;
461.4000;1.2625;-5.1116;
461.7000;1.2617;-5.1142;
462.0000;1.2625;-5.1142;
462.3000;1.2617;-5.1168;
462.6000;1.2617;-5.1116;
462.9000;1.2666;-5.1039;
463.2000;1.2641;-5.1116;
463.5000;1.2633;-5.1090;
463.8000;1.2617;-5.1220;
464.1000;1.2625;-5.1194;
464.4000;1.2625;-5.1220;
464.7000;1.2650;-5.1116;
465.0000;1.2633;-5.1168;
465.3000;1.2593;-5.1272;
465.6000;1.2625;-5.1116;
465.9000;1.2601;-5.1194;
466.2000;1.2617;-5.1142;
466.5000;1.2609;-5.1194;
466.8000;1.2617;-5.1116;
467.1000;1.2650;-5.0987;
467.4000;1.2568;-5.1116;
467.7000;1.2617;-5.1090;
468.0000;1.2584;-5.1116;
468.3000;1.2658;-5.1039;
468.6000;1.2609;-5.1220;
468.9000;1.2641;-5.1090;
469.2000;1.2633;-5.1116;
469.5000;1.2723;-5.0909;
469.8000;1.2625;-5.1090;
470.1000;1.2625;-5.0987;
470.4000;1.2633;-5.1013;
470.7000;1.2568;-5.1142;
471.0000;1.2617;-5.0987;
471.3000;1.2633;-5.0909;
471.6000;1.2617;-5.0935;
471.9000;1.2576;-5.1090;
472.2000;1.2593;-5.1142;
472.5000;1.2593;-5.1246;
472.8000;1.2568;-5.1350;
473.1000;1.2666;-5.1090;
473.4000;1.2633;-5.1168;
473.7000;1.2609;-5.1168;
474.0000;1.2617;-5.1194;
474.3000;1.2625;-5.1194;
474.6000;1.2625;-5.1194;
474.9000;1.2650;-5.1090;
475.2000;1.2641;-5.1116;
475.5000;1.2584;-5.1194;
475.8000;1.2617;-5.1116;
476.1000;1.2584;-5.1246;
476.4000;1.2576;-5.1272;
476.7000;1.2617;-5.1194;
477.0000;1.2625;-5.1116;
477.3000;1.2617;-5.1090;
477.6000;1.2625;-5.1039;
477.9000;1.2609;-5.1039;
478.2000;1.2617;-5.0987;
478.5000;1.2609;-5.0935;
478.8000;1.2625;-5.0987;
479.1000;1.2609;-5.1039;
479.4000;1.2633;-5.0935;
479.7000;1.2601;-5.1013;
480.0000;1.2625;-5.1065;
480.3000;1.2625;-5.1220;
480.6000;1.2617;-5.1272;
480.9000;1.2617;-5.1194;
481.2000;1.2633;-5.1116;
481.5000;1.2625;-5.1013;
481.8000;1.2617;-5.1090;
482.1000;1.2633;-5.1090;
482.4000;1.2625;-5.1194;
482.7000;1.2633;-5.1090;
483.0000;1.2617;-5.1090;
483.3000;1.2625;-5.1039;
483.6000;1.2625;-5.1065;
483.9000;1.2625;-5.0961;
484.2000;1.2625;-5.0935;
484.5000;1.2625;-5.0883;
484.8000;1.2625;-5.0935;
485.1000;1.2633;-5.0987;
485.4000;1.2609;-5.1090;
485.7000;1.2617;-5.1039;
486.0000;1.2617;-5.1039;
486.3000;1.2609;-5.1090;
486.6000;1.2601;-5.1039;
486.9000;1.2633;-5.1013;
487.2000;1.2609;-5.1116;
487.5000;1.2625;-5.1090;
487.8000;1.2609;-5.1142;
488.1000;1.2609;-5.1116;
488.4000;1.2609;-5.1065;
488.7000;1.2617;-5.1065;
489.0000;1.2609;-5.1039;
489.3000;1.2617;-5.1039;
489.6000;1.2576;-5.1246;
489.9000;1.2609;-5.1168;
490.2000;1.2609;-5.1142;
490.5000;1.2601;-5.1116;
490.8000;1.2609;-5.1116;
491.1000;1.2593;-5.1220;
491.4000;1.2617;-5.1116;
491.7000;1.2593;-5.1220;
492.0000;1.2617;-5.1090;
492.3000;1.2617;-5.1090;
492.6000;1.2641;-5.0987;
492.9000;1.2617;-5.0909;
493.2000;1.2682;-5.0779;
493.5000;1.2617;-5.0935;
493.8000;1.2617;-5.0961;
494.1000;1.2625;-5.0909;
494.4000;1.2625;-5.1039;
494.7000;1.2625;-5.1090;
495.0000;1.2625;-5.1090;
495.3000;1.2609;-5.1116;
495.6000;1.2633;-5.1090;
495.9000;1.2625;-5.1142;
496.2000;1.2641;-5.1116;
496.5000;1.2633;-5.1039;
496.8000;1.2617;-5.1065;
497.1000;1.2609;-5.1013;
497.4000;1.2601;-5.1013;
497.7000;1.2625;-5.0987;
498.0000;1.2617;-5.1013;
498.3000;1.2617;-5.1116;
498.6000;1.2593;-5.1272;
498.9000;1.2625;-5.1168;
499.2000;1.2658;-5.0987;
499.5000;1.2617;-5.1142;
499.8000;1.2601;-5.1168;
500.1000;1.2625;-5.1168;
500.4000;1.2601;-5.1220;
500.7000;1.2601;-5.1246;
501.0000;1.2584;-5.1324;
501.3000;1.2617;-5.1272;
501.6000;1.2617;-5.1246;
501.9000;1.2609;-5.1194;
502.2000;1.2536;-5.1350;
502.5000;1.2601;-5.1246;
502.8000;1.2617;-5.1168;
503.1000;1.2609;-5.1116;
503.4000;1.2609;-5.1090;
503.7000;1.2601;-5.1039;
504.0000;1.2625;-5.1039;
504.3000;1.2609;-5.1065;
504.6000;1.2601;-5.1116;
504.9000;1.2601;-5.1142;
505.2000;1.2609;-5.1090;
505.5000;1.2625;-5.1065;
505.8000;1.2601;-5.1065;
506.1000;1.2625;-5.1090;
506.4000;1.2625;-5.1142;
506.7000;1.2625;-5.1142;
507.0000;1.2609;-5.1116;
507.3000;1.2666;-5.0987;
507.6000;1.2609;-5.1168;
507.9000;1.2617;-5.1116;
508.2000;1.2633;-5.1065;
508.5000;1.2617;-5.1065;
508.8000;1.2617;-5.1065;
509.1000;1.2625;-5.1116;
509.4000;1.2601;-5.1116;
509.7000;1.2593;-5.1116;
510.0000;1.2633;-5.1013;
510.3000;1.2576;-5.1194;
510.6000;1.2625;-5.0987;
510.9000;1.2633;-5.1013;
511.2000;1.2617;-5.1065;
511.5000;1.2609;-5.1065;
511.8000;1.2633;-5.1039;
512.1000;1.2633;-5.1065;
512.4000;1.2641;-5.1039;
512.7000;1.2609;-5.1142;
513.0000;1.2641;-5.1039;
513.3000;1.2633;-5.1116;
513.6000;1.2601;-5.1246;
513.9000;1.2601;-5.1220;
514.2000;1.2576;-5.1324;
514.5000;1.2601;-5.1142;
514.8000;1.2601;-5.1168;
515.1000;1.2584;-5.1220;
515.4000;1.2593;-5.1142;
515.7000;1.2576;-5.1142;
516.0000;1.2601;-5.0987;
516.3000;1.2633;-5.0987;
516.6000;1.2625;-5.1013;
516.9000;1.2617;-5.0987;
517.2000;1.2633;-5.0909;
517.5000;1.2625;-5.0935;
517.8000;1.2625;-5.0909;
518.1000;1.2666;-5.0701;
518.4000;1.2617;-5.0805;
518.7000;1.2617;-5.0805;
519.0000;1.2617;-5.0857;
519.3000;1.2609;-5.0935;
519.6000;1.2609;-5.0857;
519.9000;1.2617;-5.0935;
520.2000;1.2617;-5.0961;
520.5000;1.2617;-5.1039;
520.8000;1.2617;-5.1065;
521.1000;1.2609;-5.1090;
521.4000;1.2625;-5.1039;
521.7000;1.2633;-5.1013;
522.0000;1.2617;-5.0961;
522.3000;1.2625;-5.0961;
522.6000;1.2609;-5.0935;
522.9000;1.2609;-5.0935;
523.2000;1.2625;-5.0987;
523.5000;1.2617;-5.0961;
523.8000;1.2609;-5.0987;
524.1000;1.2609;-5.1013;
524.4000;1.2617;-5.1039;
524.7000;1.2593;-5.1090;
525.0000;1.2617;-5.1116;
525.3000;1.2593;-5.1090;
525.6000;1.2609;-5.1065;
525.9000;1.2617;-5.1065;
526.2000;1.2601;-5.0987;
526.5000;1.2609;-5.0987;
526.8000;1.2609;-5.1039;
527.1000;1.2609;-5.1039;
527.4000;1.2601;-5.1013;
527.7000;1.2601;-5.1039;
528.0000;1.2601;-5.1039;
528.3000;1.2584;-5.1013;
528.6000;1.2625;-5.0883;
528.9000;1.2609;-5.0935;
529.2000;1.2658;-5.0831;
529.5000;1.2601;-5.0883;
529.8000;1.2625;-5.0805;
530.1000;1.2601;-5.0909;
530.4000;1.2609;-5.0935;
530.7000;1.2576;-5.0987;
531.0000;1.2609;-5.0831;
531.3000;1.2601;-5.0883;
531.6000;1.2601;-5.0935;
531.9000;1.2601;-5.0961;
532.2000;1.2584;-5.1065;
532.5000;1.2617;-5.1039;
532.8000;1.2617;-5.1090;
533.1000;1.2601;-5.0987;
533.4000;1.2625;-5.0935;
533.7000;1.2617;-5.0909;
534.0000;1.2609;-5.0961;
534.3000;1.2609;-5.0935;
534.6000;1.2617;-5.1013;
534.9000;1.2609;-5.1013;
535.2000;1.2584;-5.1116;
535.5000;1.2584;-5.1065;
535.8000;1.2609;-5.1116;
536.1000;1.2609;-5.1090;
536.4000;1.2609;-5.1194;
536.7000;1.2674;-5.0961;
537.0000;1.2690;-5.0857;
537.3000;1.2593;-5.1090;
537.6000;1.2576;-5.1090;
537.9000;1.2617;-5.1013;
538.2000;1.2601;-5.0987;
538.5000;1.2617;-5.0961;
538.8000;1.2617;-5.0961;
539.1000;1.2617;-5.0857;
539.4000;1.2609;-5.0857;
539.7000;1.2617;-5.0909;
540.0000;1.2625;-5.0935;
540.3000;1.2601;-5.0987;
540.6000;1.2617;-5.1039;
540.9000;1.2601;-5.1039;
541.2000;1.2625;-5.0883;
541.5000;1.2625;-5.0857;
541.8000;1.2601;-5.0909;
542.1000;1.2617;-5.0883;
542.4000;1.2625;-5.0857;
542.7000;1.2625;-5.0883;
543.0000;1.2617;-5.0987;
543.3000;1.2601;-5.0935;
543.6000;1.2617;-5.1039;
543.9000;1.2609;-5.1116;
544.2000;1.2593;-5.1090;
544.5000;1.2601;-5.1039;
544.8000;1.2601;-5.1013;
545.1000;1.2617;-5.1039;
545.4000;1.2601;-5.1116;
545.7000;1.2601;-5.1168;
546.0000;1.2601;-5.1142;
546.3000;1.2617;-5.1065;
546.6000;1.2609;-5.1142;
546.9000;1.2609;-5.1168;
547.2000;1.2641;-5.1039;
547.5000;1.2625;-5.1039;
547.8000;1.2617;-5.1039;
548.1000;1.2609;-5.1039;
548.4000;1.2601;-5.1013;
548.7000;1.2601;-5.0987;
549.0000;1.2601;-5.1065;
549.3000;1.2593;-5.1168;
549.6000;1.2617;-5.1142;
549.9000;1.2609;-5.1220;
550.2000;1.2609;-5.1246;
550.5000;1.2625;-5.1142;
550.8000;1.2617;-5.1090;
551.1000;1.2609;-5.1168;
551.4000;1.2601;-5.1194;
551.7000;1.2625;-5.1142;
552.0000;1.2601;-5.1168;
552.3000;1.2584;-5.1298;
552.6000;1.2609;-5.1220;
552.9000;1.2601;-5.1194;
553.2000;1.2601;-5.1065;
553.5000;1.2609;-5.1039;
553.8000;1.2625;-5.1090;
554.1000;1.2625;-5.1116;
554.4000;1.2625;-5.1246;
554.7000;1.2584;-5.1272;
555.0000;1.2609;-5.1246;
555.3000;1.2658;-5.1142;
555.6000;1.2601;-5.1220;
555.9000;1.2601;-5.1246;
556.2000;1.2601;-5.1272;
556.5000;1.2609;-5.1298;
556.8000;1.2584;-5.1298;
557.1000;1.2625;-5.1065;
557.4000;1.2617;-5.1039;
557.7000;1.2625;-5.1039;
558.0000;1.2617;-5.1039;
558.3000;1.2609;-5.1039;
558.6000;1.2666;-5.0909;
558.9000;1.2593;-5.0935;
559.2000;1.2625;-5.0831;
559.5000;1.2617;-5.0909;
559.8000;1.2601;-5.0987;
560.1000;1.2576;-5.1039;
560.4000;1.2609;-5.0987;
560.7000;1.2633;-5.0987;
561.0000;1.2609;-5.1039;
561.3000;1.2601;-5.1116;
561.6000;1.2641;-5.1039;
561.9000;1.2609;-5.1013;
562.2000;1.2601;-5.1090;
562.5000;1.2650;-5.0935;
562.8000;1.2609;-5.1065;
563.1000;1.2601;-5.1142;
563.4000;1.2707;-5.0857;
563.7000;1.2625;-5.1065;
564.0000;1.2609;-5.1065;
564.3000;1.2617;-5.1013;
564.6000;1.2625;-5.0961;
564.9000;1.2593;-5.1039;
565.2000;1.2576;-5.1116;
565.5000;1.2601;-5.1116;
565.8000;1.2601;-5.1065;
566.1000;1.2593;-5.1065;
566.4000;1.2593;-5.1013;
566.7000;1.2666;-5.0753;
567.0000;1.2609;-5.0779;
567.3000;1.2625;-5.0701;
567.6000;1.2617;-5.0805;
567.9000;1.2617;-5.0753;
568.2000;1.2601;-5.0831;
568.5000;1.2609;-5.0805;
568.8000;1.2584;-5.0753;
569.1000;1.2601;-5.0727;
569.4000;1.2593;-5.0753;
569.7000;1.2584;-5.0805;
570.0000;1.2593;-5.0753;
570.3000;1.2593;-5.0805;
570.6000;1.2601;-5.0779;
570.9000;1.2601;-5.0805;
571.2000;1.2617;-5.0753;
571.5000;1.2617;-5.0857;
571.8000;1.2601;-5.0779;
572.1000;1.2625;-5.0779;
572.4000;1.2601;-5.0883;
572.7000;1.2641;-5.0779;
573.0000;1.2609;-5.0805;
573.3000;1.2609;-5.0805;
573.6000;1.2601;-5.0779;
573.9000;1.2601;-5.0831;
574.2000;1.2609;-5.0779;
574.5000;1.2617;-5.0805;
574.8000;1.2617;-5.0857;
575.1000;1.2593;-5.1013;
575.4000;1.2601;-5.0987;
575.7000;1.2601;-5.1013;
576.0000;1.2625;-5.0909;
576.3000;1.2584;-5.0935;
576.6000;1.2601;-5.0883;
576.9000;1.2601;-5.0909;
577.2000;1.2601;-5.0909;
577.5000;1.2617;-5.0857;
577.8000;1.2503;-5.1065;
578.1000;1.2601;-5.0805;
578.4000;1.2584;-5.0909;
578.7000;1.2682;-5.0650;
579.0000;1.2593;-5.0831;
579.3000;1.2609;-5.0805;
579.6000;1.2601;-5.0805;
579.9000;1.2617;-5.0831;
580.2000;1.2593;-5.0857;
580.5000;1.2617;-5.0909;
580.8000;1.2593;-5.1013;
581.1000;1.2609;-5.1013;
581.4000;1.2601;-5.0935;
581.7000;1.2633;-5.0831;
582.0000;1.2601;-5.0883;
582.3000;1.2609;-5.0779;
582.6000;1.2601;-5.0779;
582.9000;1.2601;-5.0883;
583.2000;1.2625;-5.0779;
583.5000;1.2625;-5.0805;
583.8000;1.2593;-5.0909;
584.1000;1.2682;-5.0753;
584.4000;1.2601;-5.0831;
584.7000;1.2641;-5.0805;
585.0000;1.2617;-5.0753;
585.3000;1.2544;-5.0935;
585.6000;1.2601;-5.0857;
585.9000;1.2601;-5.0779;
586.2000;1.2593;-5.0727;
586.5000;1.2601;-5.0779;
586.8000;1.2601;-5.0857;
587.1000;1.2584;-5.0857;
587.4000;1.2609;-5.0805;
587.7000;1.2609;-5.0753;
588.0000;1.2601;-5.0753;
588.3000;1.2609;-5.0883;
588.6000;1.2609;-5.0857;
588.9000;1.2576;-5.0961;
589.2000;1.2617;-5.0883;
589.5000;1.2633;-5.0831;
589.8000;1.2641;-5.0805;
590.1000;1.2609;-5.0831;
590.4000;1.2625;-5.0727;
590.7000;1.2609;-5.0753;
591.0000;1.2625;-5.0650;
591.3000;1.2625;-5.0650;
591.6000;1.2601;-5.0650;
591.9000;1.2609;-5.0650;
592.2000;1.2617;-5.0701;
592.5000;1.2617;-5.0624;
592.8000;1.2609;-5.0701;
593.1000;1.2617;-5.0701;
593.4000;1.2609;-5.0701;
593.7000;1.2617;-5.0779;
594.0000;1.2601;-5.0857;
594.3000;1.2617;-5.0883;
594.6000;1.2609;-5.0961;
594.9000;1.2625;-5.1013;
595.2000;1.2609;-5.1065;
595.5000;1.2601;-5.1090;
595.8000;1.2609;-5.1090;
596.1000;1.2609;-5.1013;
596.4000;1.2593;-5.1065;
596.7000;1.2593;-5.1039;
597.0000;1.2584;-5.1039;
597.3000;1.2584;-5.1039;
597.6000;1.2617;-5.0961;
597.9000;1.2601;-5.0909;
598.2000;1.2593;-5.0857;
598.5000;1.2593;-5.0753;
598.8000;1.2601;-5.0753;
599.1000;1.2609;-5.0753;
599.4000;1.2633;-5.0779;
599.7000;1.2601;-5.0909;
600.0000;1.2584;-5.0935;
600.3000;1.2617;-5.1090;
600.6000;1.2601;-5.1298;
600.9000;1.2593;-5.1531;
601.2000;1.2495;-5.1739;
601.5000;1.2389;-5.2128;
601.8000;1.2316;-5.2335;
602.1000;1.2226;-5.2595;
602.4000;1.2120;-5.2854;
602.7000;1.2080;-5.3010;
603.0000;1.1982;-5.3243;
603.3000;1.1893;-5.3476;
603.6000;1.1811;-5.3606;
603.9000;1.1762;-5.3658;
604.2000;1.1681;-5.3788;
604.5000;1.1624;-5.3814;
604.8000;1.1559;-5.3839;
605.1000;1.1510;-5.3891;
605.4000;1.1469;-5.3995;
605.7000;1.1420;-5.4073;
606.0000;1.1363;-5.4203;
606.3000;1.1306;-5.4306;
606.6000;1.1274;-5.4358;
606.9000;1.1209;-5.4462;
607.2000;1.1160;-5.4566;
607.5000;1.1184;-5.4514;
607.8000;1.1070;-5.4669;
608.1000;1.1038;-5.4695;
608.4000;1.0940;-5.4773;
608.7000;1.0867;-5.4903;
609.0000;1.0883;-5.4773;
609.3000;1.0859;-5.4721;
609.6000;1.0826;-5.4669;
609.9000;1.0786;-5.4695;
610.2000;1.0680;-5.4955;
610.5000;1.0769;-5.4669;
610.8000;1.0680;-5.4851;
611.1000;1.0655;-5.4903;
611.4000;1.0623;-5.4903;
611.7000;1.0590;-5.5058;
612.0000;1.0533;-5.5058;
612.3000;1.0517;-5.5007;
612.6000;1.0476;-5.5007;
612.9000;1.0452;-5.4929;
613.2000;1.0395;-5.5110;
613.5000;1.0370;-5.5084;
613.8000;1.0370;-5.5058;
614.1000;1.0362;-5.5032;
614.4000;1.0313;-5.5084;
614.7000;1.0289;-5.5136;
615.0000;1.0265;-5.5162;
615.3000;1.0232;-5.5214;
615.6000;1.0191;-5.5266;
615.9000;1.0183;-5.5188;
616.2000;1.0134;-5.5240;
616.5000;1.0118;-5.5240;
616.8000;1.0102;-5.5292;
617.1000;1.0061;-5.5421;
617.4000;1.0028;-5.5396;
617.7000;1.0004;-5.5370;
618.0000;0.9980;-5.5318;
618.3000;0.9972;-5.5344;
618.6000;0.9947;-5.5318;
618.9000;0.9923;-5.5318;
619.2000;0.9906;-5.5370;
619.5000;0.9890;-5.5447;
619.8000;0.9858;-5.5421;
620.1000;0.9825;-5.5396;
620.4000;0.9825;-5.5370;
620.7000;0.9825;-5.5344;
621.0000;0.9801;-5.5370;
621.3000;0.9752;-5.5318;
621.6000;0.9825;-5.5136;
621.9000;0.9719;-5.5370;
622.2000;0.9687;-5.5318;
622.5000;0.9670;-5.5370;
622.8000;0.9654;-5.5396;
623.1000;0.9646;-5.5396;
623.4000;0.9565;-5.5525;
623.7000;0.9581;-5.5473;
624.0000;0.9573;-5.5499;
624.3000;0.9621;-5.5447;
624.6000;0.9548;-5.5577;
624.9000;0.9508;-5.5577;
625.2000;0.9491;-5.5603;
625.5000;0.9491;-5.5499;
625.8000;0.9491;-5.5473;
626.1000;0.9467;-5.5473;
626.4000;0.9426;-5.5473;
626.7000;0.9434;-5.5525;
627.0000;0.9385;-5.5577;
627.3000;0.9410;-5.5473;
627.6000;0.9369;-5.5525;
627.9000;0.9353;-5.5603;
628.2000;0.9320;-5.5603;
628.5000;0.9320;-5.5551;
628.8000;0.9304;-5.5603;
629.1000;0.9296;-5.5577;
629.4000;0.9296;-5.5499;
629.7000;0.9280;-5.5577;
630.0000;0.9263;-5.5551;
630.3000;0.9231;-5.5577;
630.6000;0.9239;-5.5603;
630.9000;0.9231;-5.5577;
631.2000;0.9198;-5.5629;
631.5000;0.9198;-5.5577;
631.8000;0.9182;-5.5577;
632.1000;0.9166;-5.5629;
632.4000;0.9149;-5.5603;
632.7000;0.9158;-5.5603;
633.0000;0.9109;-5.5733;
633.3000;0.9117;-5.5603;
633.6000;0.9101;-5.5603;
633.9000;0.9027;-5.5759;
634.2000;0.9068;-5.5655;
634.5000;0.9068;-5.5733;
634.8000;0.9060;-5.5681;
635.1000;0.9035;-5.5785;
635.4000;0.9027;-5.5733;
635.7000;0.9019;-5.5759;
636.0000;0.9011;-5.5681;
636.3000;0.9011;-5.5655;
636.6000;0.8970;-5.5629;
636.9000;0.8970;-5.5629;
637.2000;0.8970;-5.5707;
637.5000;0.8954;-5.5733;
637.8000;0.8946;-5.5707;
638.1000;0.8930;-5.5862;
638.4000;0.8921;-5.5836;
638.7000;0.8905;-5.5785;
639.0000;0.8881;-5.5810;
639.3000;0.8864;-5.5862;
639.6000;0.8856;-5.5862;
639.9000;0.8864;-5.5785;
640.2000;0.8832;-5.5836;
640.5000;0.8816;-5.5862;
640.8000;0.8816;-5.5940;
641.1000;0.8807;-5.5914;
641.4000;0.8816;-5.5862;
641.7000;0.8791;-5.5888;
642.0000;0.8799;-5.5785;
642.3000;0.8807;-5.5810;
642.6000;0.8775;-5.5810;
642.9000;0.8759;-5.5785;
643.2000;0.8734;-5.5785;
643.5000;0.8710;-5.5836;
643.8000;0.8742;-5.5759;
644.1000;0.8710;-5.5785;
644.4000;0.8726;-5.5785;
644.7000;0.8718;-5.5862;
645.0000;0.8710;-5.5862;
645.3000;0.8702;-5.5940;
645.6000;0.8677;-5.5992;
645.9000;0.8677;-5.5940;
646.2000;0.8710;-5.5733;
646.5000;0.8661;-5.5810;
646.8000;0.8661;-5.5785;
647.1000;0.8645;-5.5707;
647.4000;0.8580;-5.5992;
647.7000;0.8628;-5.5836;
648.0000;0.8620;-5.5785;
648.3000;0.8555;-5.5914;
648.6000;0.8612;-5.5810;
648.9000;0.8604;-5.5810;
649.2000;0.8604;-5.5810;
649.5000;0.8571;-5.5836;
649.8000;0.8596;-5.5810;
650.1000;0.8588;-5.5810;
650.4000;0.8596;-5.5759;
650.7000;0.8580;-5.5785;
651.0000;0.8547;-5.5888;
651.3000;0.8547;-5.5836;
651.6000;0.8539;-5.5836;
651.9000;0.8531;-5.5862;
652.2000;0.8506;-5.5862;
652.5000;0.8514;-5.5862;
652.8000;0.8539;-5.5759;
653.1000;0.8490;-5.5836;
653.4000;0.8482;-5.5733;
653.7000;0.8482;-5.5733;
654.0000;0.8482;-5.5707;
654.3000;0.8474;-5.5785;
654.6000;0.8474;-5.5681;
654.9000;0.8466;-5.5785;
655.2000;0.8474;-5.5707;
655.5000;0.8457;-5.5785;
655.8000;0.8449;-5.5836;
656.1000;0.8441;-5.5785;
656.4000;0.8449;-5.5733;
656.7000;0.8425;-5.5733;
657.0000;0.8449;-5.5681;
657.3000;0.8417;-5.5733;
657.6000;0.8417;-5.5707;
657.9000;0.8449;-5.5629;
658.2000;0.8400;-5.5707;
658.5000;0.8368;-5.5759;
658.8000;0.8433;-5.5577;
659.1000;0.8384;-5.5707;
659.4000;0.8384;-5.5785;
659.7000;0.8368;-5.5862;
660.0000;0.8425;-5.5733;
660.3000;0.8352;-5.5836;
660.6000;0.8352;-5.5940;
660.9000;0.8344;-5.5966;
661.2000;0.8335;-5.5914;
661.5000;0.8352;-5.5836;
661.8000;0.8335;-5.5914;
662.1000;0.8303;-5.5940;
662.4000;0.8319;-5.5810;
662.7000;0.8319;-5.5785;
663.0000;0.8303;-5.5759;
663.3000;0.8311;-5.5759;
663.6000;0.8295;-5.5862;
663.9000;0.8254;-5.5966;
664.2000;0.8295;-5.5862;
664.5000;0.8287;-5.5785;
664.8000;0.8270;-5.5759;
665.1000;0.8262;-5.5785;
665.4000;0.8287;-5.5733;
665.7000;0.8262;-5.5888;
666.0000;0.8230;-5.5888;
666.3000;0.8238;-5.5785;
666.6000;0.8262;-5.5759;
666.9000;0.8246;-5.5785;
667.2000;0.8197;-5.5914;
667.5000;0.8238;-5.5810;
667.8000;0.8238;-5.5759;
668.1000;0.8230;-5.5759;
668.4000;0.8262;-5.5655;
668.7000;0.8197;-5.5836;
669.0000;0.8205;-5.5862;
669.3000;0.8221;-5.5888;
669.6000;0.8156;-5.5992;
669.9000;0.8189;-5.5759;
670.2000;0.8221;-5.5655;
670.5000;0.8197;-5.5836;
670.8000;0.8181;-5.5785;
671.1000;0.8173;-5.5914;
671.4000;0.8230;-5.5759;
671.7000;0.8156;-5.5836;
672.0000;0.8164;-5.5888;
672.3000;0.8164;-5.5785;
672.6000;0.8148;-5.5785;
672.9000;0.8164;-5.5785;
673.2000;0.8132;-5.5862;
673.5000;0.8124;-5.5888;
673.8000;0.8124;-5.5914;
674.1000;0.8124;-5.5940;
674.4000;0.8140;-5.5966;
674.7000;0.8099;-5.6096;
675.0000;0.8099;-5.6070;
675.3000;0.8091;-5.6122;
675.6000;0.8099;-5.5914;
675.9000;0.8132;-5.5785;
676.2000;0.8107;-5.5862;
676.5000;0.8091;-5.5940;
676.8000;0.8091;-5.5810;
677.1000;0.8107;-5.5759;
677.4000;0.8091;-5.5862;
677.7000;0.8107;-5.5966;
678.0000;0.8091;-5.5914;
678.3000;0.8116;-5.5785;
678.6000;0.8091;-5.5862;
678.9000;0.8075;-5.5940;
679.2000;0.8067;-5.5940;
679.5000;0.8132;-5.5862;
679.8000;0.8067;-5.5992;
680.1000;0.8050;-5.6044;
680.4000;0.8050;-5.5940;
680.7000;0.8075;-5.5888;
681.0000;0.8075;-5.5836;
681.3000;0.8034;-5.5992;
681.6000;0.8034;-5.6044;
681.9000;0.8018;-5.6070;
682.2000;0.8026;-5.5992;
682.5000;0.8026;-5.5940;
682.8000;0.8099;-5.5733;
683.1000;0.7969;-5.6018;
683.4000;0.8018;-5.5940;
683.7000;0.8002;-5.6018;
684.0000;0.8002;-5.5914;
684.3000;0.8059;-5.5707;
684.6000;0.8018;-5.5785;
684.9000;0.8002;-5.5733;
685.2000;0.7920;-5.5862;
685.5000;0.8002;-5.5733;
685.8000;0.7985;-5.5759;
686.1000;0.7993;-5.5707;
686.4000;0.7969;-5.5733;
686.7000;0.7961;-5.5707;
687.0000;0.7985;-5.5681;
687.3000;0.7977;-5.5681;
687.6000;0.7945;-5.5785;
687.9000;0.7953;-5.5914;
688.2000;0.7969;-5.5888;
688.5000;0.7961;-5.5785;
688.8000;0.7945;-5.5810;
689.1000;0.7961;-5.5655;
689.4000;0.7945;-5.5759;
689.7000;0.7953;-5.5759;
690.0000;0.7945;-5.5759;
690.3000;0.7961;-5.5733;
690.6000;0.7937;-5.5707;
690.9000;0.7928;-5.5707;
691.2000;0.7945;-5.5759;
691.5000;0.7953;-5.5733;
691.8000;0.7920;-5.5810;
692.1000;0.7928;-5.5785;
692.4000;0.7953;-5.5681;
692.7000;0.7888;-5.5810;
693.0000;0.7896;-5.5810;
693.3000;0.7912;-5.5759;
693.6000;0.7920;-5.5759;
693.9000;0.7896;-5.5785;
694.2000;0.7904;-5.5810;
694.5000;0.7904;-5.5759;
694.8000;0.7888;-5.5759;
695.1000;0.7888;-5.5785;
695.4000;0.7888;-5.5759;
695.7000;0.7888;-5.5836;
696.0000;0.7880;-5.5810;
696.3000;0.7896;-5.5810;
696.6000;0.7888;-5.5810;
696.9000;0.7855;-5.5914;
697.2000;0.7855;-5.5966;
697.5000;0.7880;-5.5914;
697.8000;0.7855;-5.5992;
698.1000;0.7871;-5.5836;
698.4000;0.7880;-5.5862;
698.7000;0.7871;-5.5810;
699.0000;0.7896;-5.5785;
699.3000;0.7863;-5.5888;
699.6000;0.7855;-5.5940;
699.9000;0.7831;-5.5966;
700.2000;0.7839;-5.5862;
700.5000;0.7871;-5.5810;
700.8000;0.7831;-5.5940;
701.1000;0.7839;-5.5914;
701.4000;0.7790;-5.5992;
701.7000;0.7798;-5.5862;
702.0000;0.7782;-5.5888;
702.3000;0.7798;-5.5862;
702.6000;0.7823;-5.5759;
702.9000;0.7806;-5.5655;
703.2000;0.7823;-5.5577;
703.5000;0.7863;-5.5499;
703.8000;0.7806;-5.5681;
704.1000;0.7798;-5.5629;
704.4000;0.7782;-5.5681;
704.7000;0.7798;-5.5707;
705.0000;0.7814;-5.5603;
705.3000;0.7798;-5.5681;
705.6000;0.7782;-5.5681;
705.9000;0.7782;-5.5603;
706.2000;0.7782;-5.5603;
706.5000;0.7766;-5.5551;
706.8000;0.7774;-5.5551;
707.1000;0.7757;-5.5551;
707.4000;0.7774;-5.5551;
707.7000;0.7782;-5.5551;
708.0000;0.7782;-5.5577;
708.3000;0.7757;-5.5655;
708.6000;0.7757;-5.5551;
708.9000;0.7774;-5.5577;
709.2000;0.7774;-5.5655;
709.5000;0.7766;-5.5733;
709.8000;0.7757;-5.5733;
710.1000;0.7774;-5.5785;
710.4000;0.7733;-5.5914;
710.7000;0.7757;-5.5810;
711.0000;0.7749;-5.5862;
711.3000;0.7766;-5.5759;
711.6000;0.7757;-5.5733;
711.9000;0.7749;-5.5759;
712.2000;0.7741;-5.5810;
712.5000;0.7741;-5.5759;
712.8000;0.7749;-5.5733;
713.1000;0.7741;-5.5785;
713.4000;0.7725;-5.5759;
713.7000;0.7741;-5.5655;
714.0000;0.7741;-5.5629;
714.3000;0.7717;-5.5655;
714.6000;0.7733;-5.5681;
714.9000;0.7741;-5.5655;
715.2000;0.7782;-5.5629;
715.5000;0.7725;-5.5759;
715.8000;0.7700;-5.5733;
716.1000;0.7700;-5.5810;
716.4000;0.7709;-5.5836;
716.7000;0.7717;-5.5785;
717.0000;0.7700;-5.5759;
717.3000;0.7619;-5.5914;
717.6000;0.7700;-5.5759;
717.9000;0.7709;-5.5733;
718.2000;0.7717;-5.5785;
718.5000;0.7692;-5.5862;
718.8000;0.7684;-5.5785;
719.1000;0.7692;-5.5785;
719.4000;0.7684;-5.5707;
719.7000;0.7676;-5.5681;
720.0000;0.7692;-5.5655;
720.3000;0.7692;-5.5733;
720.6000;0.7692;-5.5733;
720.9000;0.7643;-5.5785;
721.2000;0.7676;-5.5681;
721.5000;0.7652;-5.5810;
721.8000;0.7676;-5.5759;
722.1000;0.7684;-5.5733;
722.4000;0.7725;-5.5551;
722.7000;0.7676;-5.5785;
723.0000;0.7717;-5.5707;
723.3000;0.7660;-5.5785;
723.6000;0.7684;-5.5810;
723.9000;0.7684;-5.5836;
724.2000;0.7660;-5.5810;
724.5000;0.7676;-5.5759;
724.8000;0.7668;-5.5836;
725.1000;0.7611;-5.5914;
725.4000;0.7660;-5.5785;
725.7000;0.7668;-5.5681;
726.0000;0.7611;-5.5733;
726.3000;0.7652;-5.5681;
726.6000;0.7660;-5.5577;
726.9000;0.7643;-5.5655;
727.2000;0.7643;-5.5733;
727.5000;0.7627;-5.5733;
727.8000;0.7643;-5.5707;
728.1000;0.7627;-5.5733;
728.4000;0.7643;-5.5681;
728.7000;0.7627;-5.5707;
729.0000;0.7643;-5.5655;
729.3000;0.7635;-5.5707;
729.6000;0.7635;-5.5655;
729.9000;0.7635;-5.5655;
730.2000;0.7627;-5.5707;
730.5000;0.7627;-5.5681;
730.8000;0.7627;-5.5681;
731.1000;0.7635;-5.5681;
731.4000;0.7603;-5.5759;
731.7000;0.7692;-5.5551;
732.0000;0.7611;-5.5733;
732.3000;0.7586;-5.5836;
732.6000;0.7586;-5.5836;
732.9000;0.7611;-5.5785;
733.2000;0.7611;-5.5785;
733.5000;0.7619;-5.5785;
733.8000;0.7595;-5.5862;
734.1000;0.7554;-5.5888;
734.4000;0.7595;-5.5785;
734.7000;0.7595;-5.5862;
735.0000;0.7603;-5.5836;
735.3000;0.7603;-5.5888;
735.6000;0.7586;-5.5836;
735.9000;0.7619;-5.5836;
736.2000;0.7562;-5.5966;
736.5000;0.7627;-5.5810;
736.8000;0.7578;-5.5785;
737.1000;0.7586;-5.5810;
737.4000;0.7578;-5.5836;
737.7000;0.7578;-5.5836;
738.0000;0.7586;-5.5759;
738.3000;0.7586;-5.5733;
738.6000;0.7570;-5.5836;
738.9000;0.7586;-5.5862;
739.2000;0.7586;-5.5914;
739.5000;0.7578;-5.5914;
739.8000;0.7578;-5.5836;
740.1000;0.7578;-5.5888;
740.4000;0.7554;-5.5940;
740.7000;0.7595;-5.5888;
741.0000;0.7570;-5.5862;
741.3000;0.7627;-5.5733;
741.6000;0.7562;-5.5836;
741.9000;0.7570;-5.5785;
742.2000;0.7497;-5.5914;
742.5000;0.7562;-5.5629;
742.8000;0.7546;-5.5733;
743.1000;0.7570;-5.5862;
743.4000;0.7562;-5.5914;
743.7000;0.7554;-5.5888;
744.0000;0.7578;-5.5785;
744.3000;0.7546;-5.5810;
744.6000;0.7570;-5.5733;
744.9000;0.7562;-5.5707;
745.2000;0.7513;-5.5810;
745.5000;0.7562;-5.5759;
745.8000;0.7554;-5.5836;
746.1000;0.7562;-5.5785;
746.4000;0.7562;-5.5810;
746.7000;0.7546;-5.5810;
747.0000;0.7554;-5.5862;
747.3000;0.7554;-5.5836;
747.6000;0.7546;-5.5785;
747.9000;0.7538;-5.5810;
748.2000;0.7513;-5.5810;
748.5000;0.7530;-5.5810;
748.8000;0.7538;-5.5707;
749.1000;0.7530;-5.5681;
749.4000;0.7530;-5.5655;
749.7000;0.7521;-5.5629;
750.0000;0.7530;-5.5681;
750.3000;0.7521;-5.5655;
750.6000;0.7538;-5.5733;
750.9000;0.7521;-5.5759;
751.2000;0.7546;-5.5785;
751.5000;0.7521;-5.5810;
751.8000;0.7521;-5.5707;
752.1000;0.7538;-5.5733;
752.4000;0.7530;-5.5785;
752.7000;0.7521;-5.5862;
753.0000;0.7521;-5.5785;
753.3000;0.7521;-5.5681;
753.6000;0.7513;-5.5733;
753.9000;0.7505;-5.5681;
754.2000;0.7505;-5.5733;
754.5000;0.7505;-5.5681;
754.8000;0.7513;-5.5707;
755.1000;0.7497;-5.5810;
755.4000;0.7505;-5.5810;
755.7000;0.7505;-5.5862;
756.0000;0.7521;-5.5785;
756.3000;0.7513;-5.5733;
756.6000;0.7521;-5.5655;
756.9000;0.7513;-5.5603;
757.2000;0.7497;-5.5629;
757.5000;0.7521;-5.5603;
757.8000;0.7505;-5.5551;
758.1000;0.7489;-5.5629;
758.4000;0.7481;-5.5629;
758.7000;0.7497;-5.5681;
759.0000;0.7497;-5.5681;
759.3000;0.7489;-5.5681;
759.6000;0.7489;-5.5655;
759.9000;0.7481;-5.5525;
760.2000;0.7489;-5.5499;
760.5000;0.7497;-5.5421;
760.8000;0.7481;-5.5499;
761.1000;0.7489;-5.5577;
761.4000;0.7505;-5.5655;
761.7000;0.7481;-5.5629;
762.0000;0.7489;-5.5603;
762.3000;0.7497;-5.5577;
762.6000;0.7489;-5.5603;
762.9000;0.7481;-5.5707;
763.2000;0.7464;-5.5733;
763.5000;0.7473;-5.5759;
763.8000;0.7481;-5.5759;
764.1000;0.7464;-5.5785;
764.4000;0.7481;-5.5629;
764.7000;0.7464;-5.5681;
765.0000;0.7481;-5.5707;
765.3000;0.7464;-5.5733;
765.6000;0.7481;-5.5733;
765.9000;0.7464;-5.5759;
766.2000;0.7481;-5.5629;
766.5000;0.7481;-5.5681;
766.8000;0.7481;-5.5681;
767.1000;0.7521;-5.5629;
767.4000;0.7473;-5.5707;
767.7000;0.7456;-5.5759;
768.0000;0.7391;-5.5914;
768.3000;0.7464;-5.5707;
768.6000;0.7456;-5.5759;
768.9000;0.7391;-5.5862;
769.2000;0.7473;-5.5707;
769.5000;0.7456;-5.5733;
769.8000;0.7473;-5.5655;
770.1000;0.7448;-5.5655;
770.4000;0.7464;-5.5681;
770.7000;0.7473;-5.5681;
771.0000;0.7424;-5.5733;
771.3000;0.7473;-5.5681;
771.6000;0.7464;-5.5785;
771.9000;0.7448;-5.5862;
772.2000;0.7521;-5.5603;
772.5000;0.7456;-5.5810;
772.8000;0.7456;-5.5785;
773.1000;0.7448;-5.5681;
773.4000;0.7440;-5.5681;
773.7000;0.7448;-5.5629;
774.0000;0.7399;-5.5759;
774.3000;0.7432;-5.5681;
774.6000;0.7407;-5.5707;
774.9000;0.7375;-5.5785;
775.2000;0.7440;-5.5551;
775.5000;0.7432;-5.5629;
775.8000;0.7375;-5.5836;
776.1000;0.7424;-5.5759;
776.4000;0.7440;-5.5733;
776.7000;0.7440;-5.5759;
777.0000;0.7407;-5.5810;
777.3000;0.7456;-5.5733;
777.6000;0.7432;-5.5785;
777.9000;0.7440;-5.5707;
778.2000;0.7407;-5.5862;
778.5000;0.7424;-5.5785;
778.8000;0.7432;-5.5785;
779.1000;0.7481;-5.5655;
779.4000;0.7432;-5.5759;
779.7000;0.7424;-5.5836;
780.0000;0.7440;-5.5759;
780.3000;0.7464;-5.5707;
780.6000;0.7440;-5.5759;
780.9000;0.7440;-5.5785;
781.2000;0.7424;-5.5759;
781.5000;0.7424;-5.5785;
781.8000;0.7416;-5.5810;
782.1000;0.7440;-5.5733;
782.4000;0.7399;-5.5733;
782.7000;0.7432;-5.5759;
783.0000;0.7416;-5.5759;
783.3000;0.7432;-5.5655;
783.6000;0.7407;-5.5733;
783.9000;0.7399;-5.5707;
784.2000;0.7391;-5.5810;
784.5000;0.7375;-5.5836;
784.8000;0.7407;-5.5785;
785.1000;0.7399;-5.5810;
785.4000;0.7399;-5.5888;
785.7000;0.7407;-5.5836;
786.0000;0.7407;-5.5785;
786.3000;0.7424;-5.5629;
786.6000;0.7399;-5.5681;
786.9000;0.7416;-5.5681;
787.2000;0.7399;-5.5707;
787.5000;0.7407;-5.5733;
787.8000;0.7383;-5.5785;
788.1000;0.7416;-5.5681;
788.4000;0.7399;-5.5707;
788.7000;0.7383;-5.5733;
789.0000;0.7375;-5.5759;
789.3000;0.7399;-5.5759;
789.6000;0.7432;-5.5810;
789.9000;0.7391;-5.5836;
790.2000;0.7326;-5.5992;
790.5000;0.7399;-5.5810;
790.8000;0.7399;-5.5785;
791.1000;0.7391;-5.5836;
791.4000;0.7407;-5.5862;
791.7000;0.7399;-5.5888;
792.0000;0.7416;-5.5810;
792.3000;0.7350;-5.5966;
792.6000;0.7383;-5.5836;
792.9000;0.7383;-5.5810;
793.2000;0.7391;-5.5810;
793.5000;0.7383;-5.5759;
793.8000;0.7383;-5.5759;
794.1000;0.7391;-5.5681;
794.4000;0.7383;-5.5733;
794.7000;0.7391;-5.5733;
795.0000;0.7383;-5.5888;
795.3000;0.7473;-5.5681;
795.6000;0.7407;-5.5810;
795.9000;0.7359;-5.5888;
796.2000;0.7383;-5.5810;
796.5000;0.7399;-5.5733;
796.8000;0.7375;-5.5785;
797.1000;0.7383;-5.5785;
797.4000;0.7383;-5.5810;
797.7000;0.7440;-5.5681;
798.0000;0.7367;-5.5914;
798.3000;0.7375;-5.5810;
798.6000;0.7375;-5.5785;
798.9000;0.7367;-5.5759;
799.2000;0.7375;-5.5810;
799.5000;0.7367;-5.5785;
799.8000;0.7318;-5.5862;
800.1000;0.7359;-5.5785;
800.4000;0.7391;-5.5759;
800.7000;0.7375;-5.5836;
801.0000;0.7407;-5.5551;
801.3000;0.7310;-5.5707;
801.6000;0.7367;-5.5551;
801.9000;0.7391;-5.5525;
802.2000;0.7399;-5.5421;
802.5000;0.7367;-5.5551;
802.8000;0.7383;-5.5473;
803.1000;0.7424;-5.5396;
803.4000;0.7375;-5.5447;
803.7000;0.7416;-5.5421;
804.0000;0.7367;-5.5525;
804.3000;0.7367;-5.5473;
804.6000;0.7375;-5.5551;
804.9000;0.7367;-5.5525;
805.2000;0.7359;-5.5525;
805.5000;0.7375;-5.5551;
805.8000;0.7367;-5.5577;
806.1000;0.7367;-5.5473;
806.4000;0.7359;-5.5551;
806.7000;0.7375;-5.5447;
807.0000;0.7367;-5.5525;
807.3000;0.7342;-5.5577;
807.6000;0.7310;-5.5681;
807.9000;0.7342;-5.5655;
808.2000;0.7359;-5.5577;
808.5000;0.7342;-5.5629;
808.8000;0.7359;-5.5577;
809.1000;0.7342;-5.5629;
809.4000;0.7359;-5.5603;
809.7000;0.7367;-5.5551;
810.0000;0.7350;-5.5577;
810.3000;0.7342;-5.5629;
810.6000;0.7375;-5.5499;
810.9000;0.7334;-5.5551;
811.2000;0.7359;-5.5525;
811.5000;0.7367;-5.5551;
811.8000;0.7350;-5.5629;
812.1000;0.7334;-5.5629;
812.4000;0.7350;-5.5603;
812.7000;0.7367;-5.5447;
813.0000;0.7342;-5.5499;
813.3000;0.7359;-5.5551;
813.6000;0.7350;-5.5577;
813.9000;0.7350;-5.5551;
814.2000;0.7359;-5.5655;
814.5000;0.7350;-5.5707;
814.8000;0.7359;-5.5681;
815.1000;0.7350;-5.5577;
815.4000;0.7350;-5.5499;
815.7000;0.7342;-5.5629;
816.0000;0.7359;-5.5603;
816.3000;0.7375;-5.5603;
816.6000;0.7326;-5.5785;
816.9000;0.7359;-5.5707;
817.2000;0.7350;-5.5759;
817.5000;0.7310;-5.5759;
817.8000;0.7350;-5.5603;
818.1000;0.7342;-5.5577;
818.4000;0.7326;-5.5499;
818.7000;0.7350;-5.5447;
819.0000;0.7326;-5.5473;
819.3000;0.7399;-5.5318;
819.6000;0.7318;-5.5551;
819.9000;0.7334;-5.5473;
820.2000;0.7326;-5.5577;
820.5000;0.7334;-5.5655;
820.8000;0.7367;-5.5551;
821.1000;0.7334;-5.5681;
821.4000;0.7318;-5.5655;
821.7000;0.7334;-5.5577;
822.0000;0.7318;-5.5577;
822.3000;0.7318;-5.5655;
822.6000;0.7326;-5.5681;
822.9000;0.7334;-5.5655;
823.2000;0.7359;-5.5603;
823.5000;0.7326;-5.5577;
823.8000;0.7326;-5.5551;
824.1000;0.7310;-5.5577;
824.4000;0.7342;-5.5499;
824.7000;0.7367;-5.5473;
825.0000;0.7318;-5.5525;
825.3000;0.7342;-5.5525;
825.6000;0.7326;-5.5629;
825.9000;0.7318;-5.5707;
826.2000;0.7318;-5.5681;
826.5000;0.7318;-5.5629;
826.8000;0.7285;-5.5603;
827.1000;0.7310;-5.5551;
827.4000;0.7302;-5.5577;
827.7000;0.7318;-5.5525;
828.0000;0.7326;-5.5577;
828.3000;0.7302;-5.5603;
828.6000;0.7302;-5.5603;
828.9000;0.7318;-5.5577;
829.2000;0.7318;-5.5603;
829.5000;0.7318;-5.5603;
829.8000;0.7326;-5.5655;
830.1000;0.7326;-5.5655;
830.4000;0.7318;-5.5603;
830.7000;0.7302;-5.5707;
831.0000;0.7310;-5.5655;
831.3000;0.7375;-5.5473;
831.6000;0.7310;-5.5551;
831.9000;0.7293;-5.5655;
832.2000;0.7277;-5.5707;
832.5000;0.7293;-5.5681;
832.8000;0.7318;-5.5681;
833.1000;0.7318;-5.5733;
833.4000;0.7228;-5.5940;
833.7000;0.7293;-5.5759;
834.0000;0.7334;-5.5681;
834.3000;0.7318;-5.5733;
834.6000;0.7302;-5.5629;
834.9000;0.7342;-5.5551;
835.2000;0.7310;-5.5551;
835.5000;0.7326;-5.5603;
835.8000;0.7318;-5.5733;
836.1000;0.7342;-5.5577;
836.4000;0.7302;-5.5681;
836.7000;0.7293;-5.5681;
837.0000;0.7302;-5.5603;
837.3000;0.7310;-5.5577;
837.6000;0.7293;-5.5629;
837.9000;0.7302;-5.5603;
838.2000;0.7326;-5.5603;
838.5000;0.7310;-5.5629;
838.8000;0.7302;-5.5707;
839.1000;0.7310;-5.5655;
839.4000;0.7318;-5.5681;
839.7000;0.7310;-5.5629;
840.0000;0.7293;-5.5629;
840.3000;0.7302;-5.5603;
840.6000;0.7293;-5.5655;
840.9000;0.7302;-5.5681;
841.2000;0.7302;-5.5733;
841.5000;0.7285;-5.5785;
841.8000;0.7293;-5.5759;
842.1000;0.7293;-5.5759;
842.4000;0.7293;-5.5836;
842.7000;0.7293;-5.5785;
843.0000;0.7285;-5.5836;
843.3000;0.7293;-5.5888;
843.6000;0.7302;-5.5836;
843.9000;0.7285;-5.5966;
844.2000;0.7302;-5.5914;
844.5000;0.7310;-5.5966;
844.8000;0.7302;-5.5888;
845.1000;0.7277;-5.5940;
845.4000;0.7318;-5.6044;
845.7000;0.7293;-5.6096;
846.0000;0.7334;-5.5940;
846.3000;0.7293;-5.5940;
846.6000;0.7277;-5.5914;
846.9000;0.7293;-5.5785;
847.2000;0.7285;-5.5733;
847.5000;0.7277;-5.5681;
847.8000;0.7277;-5.5655;
848.1000;0.7269;-5.5551;
848.4000;0.7285;-5.5525;
848.7000;0.7293;-5.5655;
849.0000;0.7277;-5.5655;
849.3000;0.7236;-5.5681;
849.6000;0.7310;-5.5577;
849.9000;0.7269;-5.5603;
850.2000;0.7261;-5.5629;
850.5000;0.7302;-5.5447;
850.8000;0.7293;-5.5447;
851.1000;0.7285;-5.5551;
851.4000;0.7269;-5.5629;
851.7000;0.7277;-5.5577;
852.0000;0.7261;-5.5681;
852.3000;0.7269;-5.5759;
852.6000;0.7277;-5.5862;
852.9000;0.7269;-5.5914;
853.2000;0.7285;-5.5862;
853.5000;0.7302;-5.5810;
853.8000;0.7302;-5.5759;
854.1000;0.7269;-5.5914;
854.4000;0.7285;-5.5759;
854.7000;0.7285;-5.5707;
855.0000;0.7285;-5.5707;
855.3000;0.7293;-5.5655;
855.6000;0.7285;-5.5810;
855.9000;0.7269;-5.5836;
856.2000;0.7285;-5.5785;
856.5000;0.7310;-5.5759;
856.8000;0.7261;-5.5914;
857.1000;0.7277;-5.5888;
857.4000;0.7269;-5.5888;
857.7000;0.7269;-5.5940;
858.0000;0.7261;-5.5862;
858.3000;0.7253;-5.5888;
858.6000;0.7350;-5.5655;
858.9000;0.7269;-5.5862;
859.2000;0.7253;-5.5836;
859.5000;0.7277;-5.5810;
859.8000;0.7269;-5.5759;
860.1000;0.7285;-5.5836;
860.4000;0.7269;-5.5836;
860.7000;0.7293;-5.5785;
861.0000;0.7269;-5.5785;
861.3000;0.7277;-5.5759;
861.6000;0.7285;-5.5681;
861.9000;0.7285;-5.5655;
862.2000;0.7285;-5.5707;
862.5000;0.7269;-5.5759;
862.8000;0.7285;-5.5759;
863.1000;0.7261;-5.5862;
863.4000;0.7269;-5.5862;
863.7000;0.7261;-5.5888;
864.0000;0.7269;-5.5836;
864.3000;0.7261;-5.5862;
864.6000;0.7196;-5.5888;
864.9000;0.7277;-5.5681;
865.2000;0.7277;-5.5707;
865.5000;0.7261;-5.5733;
865.8000;0.7261;-5.5707;
866.1000;0.7293;-5.5551;
866.4000;0.7334;-5.5421;
866.7000;0.7228;-5.5681;
867.0000;0.7253;-5.5681;
867.3000;0.7269;-5.5629;
867.6000;0.7261;-5.5681;
867.9000;0.7245;-5.5759;
868.2000;0.7253;-5.5733;
868.5000;0.7253;-5.5681;
868.8000;0.7261;-5.5603;
869.1000;0.7285;-5.5499;
869.4000;0.7261;-5.5577;
869.7000;0.7253;-5.5525;
870.0000;0.7261;-5.5551;
870.3000;0.7269;-5.5577;
870.6000;0.7277;-5.5551;
870.9000;0.7253;-5.5577;
871.2000;0.7261;-5.5577;
871.5000;0.7310;-5.5525;
871.8000;0.7261;-5.5577;
872.1000;0.7245;-5.5733;
872.4000;0.7245;-5.5707;
872.7000;0.7245;-5.5707;
873.0000;0.7253;-5.5629;
873.3000;0.7245;-5.5707;
873.6000;0.7245;-5.5759;
873.9000;0.7261;-5.5759;
874.2000;0.7277;-5.5707;
874.5000;0.7245;-5.5733;
874.8000;0.7245;-5.5707;
875.1000;0.7261;-5.5603;
875.4000;0.7253;-5.5577;
875.7000;0.7220;-5.5759;
876.0000;0.7245;-5.5655;
876.3000;0.7245;-5.5603;
876.6000;0.7245;-5.5655;
876.9000;0.7253;-5.5603;
877.2000;0.7245;-5.5629;
877.5000;0.7253;-5.5681;
877.8000;0.7310;-5.5577;
878.1000;0.7261;-5.5655;
878.4000;0.7236;-5.5707;
878.7000;0.7236;-5.5655;
879.0000;0.7253;-5.5681;
879.3000;0.7253;-5.5629;
879.6000;0.7228;-5.5785;
879.9000;0.7236;-5.5785;
880.2000;0.7253;-5.5681;
880.5000;0.7261;-5.5733;
880.8000;0.7245;-5.5733;
881.1000;0.7245;-5.5733;
881.4000;0.7245;-5.5681;
881.7000;0.7228;-5.5681;
882.0000;0.7253;-5.5603;
882.3000;0.7228;-5.5707;
882.6000;0.7261;-5.5655;
882.9000;0.7212;-5.5810;
883.2000;0.7228;-5.5707;
883.5000;0.7310;-5.5629;
883.8000;0.7261;-5.5629;
884.1000;0.7228;-5.5577;
884.4000;0.7261;-5.5525;
884.7000;0.7228;-5.5551;
885.0000;0.7179;-5.5577;
885.3000;0.7236;-5.5396;
885.6000;0.7245;-5.5396;
885.9000;0.7253;-5.5370;
886.2000;0.7245;-5.5396;
886.5000;0.7236;-5.5525;
886.8000;0.7277;-5.5396;
887.1000;0.7245;-5.5499;
887.4000;0.7236;-5.5499;
887.7000;0.7236;-5.5551;
888.0000;0.7228;-5.5551;
888.3000;0.7236;-5.5551;
888.6000;0.7220;-5.5603;
888.9000;0.7228;-5.5629;
889.2000;0.7245;-5.5707;
889.5000;0.7228;-5.5785;
889.8000;0.7236;-5.5707;
890.1000;0.7220;-5.5655;
890.4000;0.7253;-5.5655;
890.7000;0.7228;-5.5655;
891.0000;0.7228;-5.5551;
891.3000;0.7253;-5.5421;
891.6000;0.7253;-5.5525;
891.9000;0.7245;-5.5577;
892.2000;0.7220;-5.5707;
892.5000;0.7228;-5.5681;
892.8000;0.7253;-5.5629;
893.1000;0.7220;-5.5655;
893.4000;0.7220;-5.5733;
893.7000;0.7236;-5.5603;
894.0000;0.7228;-5.5733;
894.3000;0.7220;-5.5681;
894.6000;0.7220;-5.5577;
894.9000;0.7212;-5.5577;
895.2000;0.7196;-5.5603;
895.5000;0.7236;-5.5473;
895.8000;0.7212;-5.5447;
896.1000;0.7236;-5.5473;
896.4000;0.7147;-5.5810;
896.7000;0.7220;-5.5629;
897.0000;0.7220;-5.5629;
897.3000;0.7220;-5.5655;
897.6000;0.7212;-5.5733;
897.9000;0.7228;-5.5681;
898.2000;0.7228;-5.5707;
898.5000;0.7123;-5.5966;
898.8000;0.7212;-5.5759;
899.1000;0.7220;-5.5810;
899.4000;0.7212;-5.5785;
899.7000;0.7220;-5.5733;
900.0000;0.7220;-5.5655;
900.3000;0.7212;-5.5707;
900.6000;0.7228;-5.5551;
900.9000;0.7228;-5.5525;
901.2000;0.7220;-5.5525;
901.5000;0.7253;-5.5396;
901.8000;0.7228;-5.5396;
902.1000;0.7220;-5.5499;
902.4000;0.7220;-5.5499;
902.7000;0.7228;-5.5447;
903.0000;0.7228;-5.5396;
903.3000;0.7220;-5.5396;
903.6000;0.7212;-5.5344;
903.9000;0.7204;-5.5396;
904.2000;0.7228;-5.5344;
904.5000;0.7220;-5.5344;
904.8000;0.7236;-5.5240;
905.1000;0.7245;-5.5292;
905.4000;0.7220;-5.5396;
905.7000;0.7236;-5.5370;
906.0000;0.7285;-5.5240;
906.3000;0.7228;-5.5396;
906.6000;0.7236;-5.5370;
906.9000;0.7236;-5.5318;
907.2000;0.7228;-5.5421;
907.5000;0.7220;-5.5396;
907.8000;0.7220;-5.5370;
908.1000;0.7212;-5.5447;
908.4000;0.7220;-5.5499;
908.7000;0.7204;-5.5577;
909.0000;0.7196;-5.5577;
909.3000;0.7220;-5.5499;
909.6000;0.7245;-5.5499;
909.9000;0.7212;-5.5499;
910.2000;0.7212;-5.5551;
910.5000;0.7220;-5.5577;
910.8000;0.7228;-5.5473;
911.1000;0.7253;-5.5292;
911.4000;0.7204;-5.5370;
911.7000;0.7212;-5.5421;
912.0000;0.7220;-5.5421;
912.3000;0.7220;-5.5447;
912.6000;0.7236;-5.5473;
912.9000;0.7228;-5.5447;
913.2000;0.7212;-5.5447;
913.5000;0.7245;-5.5370;
913.8000;0.7236;-5.5344;
914.1000;0.7220;-5.5421;
914.4000;0.7220;-5.5525;
914.7000;0.7228;-5.5447;
915.0000;0.7212;-5.5344;
915.3000;0.7220;-5.5266;
915.6000;0.7196;-5.5318;
915.9000;0.7236;-5.5266;
916.2000;0.7228;-5.5240;
916.5000;0.7236;-5.5344;
916.8000;0.7204;-5.5499;
917.1000;0.7212;-5.5525;
917.4000;0.7212;-5.5499;
917.7000;0.7220;-5.5525;
918.0000;0.7236;-5.5473;
918.3000;0.7204;-5.5473;
918.6000;0.7212;-5.5473;
918.9000;0.7212;-5.5447;
919.2000;0.7212;-5.5447;
919.5000;0.7228;-5.5292;
919.8000;0.7179;-5.5473;
920.1000;0.7204;-5.5525;
920.4000;0.7196;-5.5499;
920.7000;0.7204;-5.5396;
921.0000;0.7220;-5.5370;
921.3000;0.7196;-5.5421;
921.6000;0.7196;-5.5447;
921.9000;0.7212;-5.5396;
922.2000;0.7196;-5.5473;
922.5000;0.7212;-5.5370;
922.8000;0.7236;-5.5344;
923.1000;0.7204;-5.5396;
923.4000;0.7188;-5.5499;
923.7000;0.7179;-5.5655;
924.0000;0.7179;-5.5577;
924.3000;0.7228;-5.5421;
924.6000;0.7236;-5.5370;
924.9000;0.7196;-5.5396;
925.2000;0.7196;-5.5344;
925.5000;0.7188;-5.5396;
925.8000;0.7253;-5.5266;
926.1000;0.7188;-5.5396;
926.4000;0.7220;-5.5318;
926.7000;0.7147;-5.5499;
927.0000;0.7204;-5.5396;
927.3000;0.7179;-5.5421;
927.6000;0.7196;-5.5318;
927.9000;0.7188;-5.5370;
928.2000;0.7196;-5.5396;
928.5000;0.7212;-5.5396;
928.8000;0.7204;-5.5396;
929.1000;0.7188;-5.5473;
929.4000;0.7188;-5.5421;
929.7000;0.7188;-5.5370;
930.0000;0.7204;-5.5344;
930.3000;0.7212;-5.5370;
930.6000;0.7188;-5.5447;
930.9000;0.7188;-5.5629;
931.2000;0.7188;-5.5629;
931.5000;0.7204;-5.5551;
931.8000;0.7188;-5.5525;
932.1000;0.7220;-5.5473;
932.4000;0.7196;-5.5551;
932.7000;0.7204;-5.5473;
933.0000;0.7188;-5.5473;
933.3000;0.7188;-5.5396;
933.6000;0.7171;-5.5396;
933.9000;0.7204;-5.5318;
934.2000;0.7220;-5.5266;
934.5000;0.7155;-5.5473;
934.8000;0.7188;-5.5370;
935.1000;0.7220;-5.5292;
935.4000;0.7171;-5.5396;
935.7000;0.7171;-5.5421;
936.0000;0.7179;-5.5421;
936.3000;0.7179;-5.5473;
936.6000;0.7204;-5.5447;
936.9000;0.7188;-5.5447;
937.2000;0.7188;-5.5447;
937.5000;0.7204;-5.5551;
937.8000;0.7204;-5.5473;
938.1000;0.7196;-5.5447;
938.4000;0.7188;-5.5525;
938.7000;0.7212;-5.5447;
939.0000;0.7220;-5.5396;
939.3000;0.7147;-5.5473;
939.6000;0.7204;-5.5396;
939.9000;0.7204;-5.5292;
940.2000;0.7188;-5.5344;
940.5000;0.7245;-5.5214;
940.8000;0.7212;-5.5370;
941.1000;0.7147;-5.5577;
941.4000;0.7131;-5.5681;
941.7000;0.7196;-5.5473;
942.0000;0.7179;-5.5551;
942.3000;0.7179;-5.5525;
942.6000;0.7204;-5.5525;
942.9000;0.7204;-5.5525;
943.2000;0.7277;-5.5396;
943.5000;0.7179;-5.5655;
943.8000;0.7196;-5.5577;
944.1000;0.7179;-5.5629;
944.4000;0.7179;-5.5603;
944.7000;0.7204;-5.5525;
945.0000;0.7179;-5.5577;
945.3000;0.7163;-5.5681;
945.6000;0.7204;-5.5577;
945.9000;0.7171;-5.5655;
946.2000;0.7204;-5.5603;
946.5000;0.7171;-5.5603;
946.8000;0.7171;-5.5499;
947.1000;0.7188;-5.5473;
947.4000;0.7204;-5.5370;
947.7000;0.7171;-5.5396;
948.0000;0.7188;-5.5318;
948.3000;0.7228;-5.5266;
948.6000;0.7204;-5.5318;
948.9000;0.7171;-5.5370;
949.2000;0.7171;-5.5370;
949.5000;0.7179;-5.5344;
949.8000;0.7171;-5.5396;
950.1000;0.7179;-5.5292;
950.4000;0.7188;-5.5318;
950.7000;0.7163;-5.5473;
951.0000;0.7196;-5.5396;
951.3000;0.7179;-5.5421;
951.6000;0.7163;-5.5447;
951.9000;0.7179;-5.5473;
952.2000;0.7204;-5.5473;
952.5000;0.7179;-5.5551;
952.8000;0.7196;-5.5499;
953.1000;0.7179;-5.5499;
953.4000;0.7188;-5.5370;
953.7000;0.7179;-5.5396;
954.0000;0.7171;-5.5344;
954.3000;0.7179;-5.5318;
954.6000;0.7220;-5.5188;
954.9000;0.7188;-5.5292;
955.2000;0.7163;-5.5344;
955.5000;0.7163;-5.5421;
955.8000;0.7236;-5.5318;
956.1000;0.7155;-5.5447;
956.4000;0.7171;-5.5344;
956.7000;0.7155;-5.5370;
957.0000;0.7179;-5.5318;
957.3000;0.7188;-5.5292;
957.6000;0.7188;-5.5344;
957.9000;0.7188;-5.5370;
958.2000;0.7179;-5.5318;
958.5000;0.7204;-5.5344;
958.8000;0.7220;-5.5292;
959.1000;0.7188;-5.5344;
959.4000;0.7163;-5.5370;
959.7000;0.7196;-5.5370;
960.0000;0.7188;-5.5396;
960.3000;0.7179;-5.5370;
960.6000;0.7188;-5.5499;
960.9000;0.7212;-5.5473;
961.2000;0.7204;-5.5499;
961.5000;0.7171;-5.5577;
961.8000;0.7171;-5.5577;
962.1000;0.7188;-5.5499;
962.4000;0.7196;-5.5577;
962.7000;0.7171;-5.5681;
963.0000;0.7179;-5.5629;
963.3000;0.7188;-5.5525;
963.6000;0.7171;-5.5473;
963.9000;0.7188;-5.5421;
964.2000;0.7179;-5.5421;
964.5000;0.7171;-5.5499;
964.8000;0.7171;-5.5499;
965.1000;0.7236;-5.5292;
965.4000;0.7188;-5.5447;
965.7000;0.7139;-5.5681;
966.0000;0.7204;-5.5525;
966.3000;0.7196;-5.5603;
966.6000;0.7163;-5.5836;
966.9000;0.7171;-5.5759;
967.2000;0.7179;-5.5707;
967.5000;0.7171;-5.5707;
967.8000;0.7171;-5.5603;
968.1000;0.7155;-5.5655;
968.4000;0.7171;-5.5603;
968.7000;0.7188;-5.5603;
969.0000;0.7171;-5.5733;
969.3000;0.7171;-5.5655;
969.6000;0.7171;-5.5551;
969.9000;0.7179;-5.5603;
970.2000;0.7188;-5.5603;
970.5000;0.7171;-5.5603;
970.8000;0.7171;-5.5681;
971.1000;0.7179;-5.5707;
971.4000;0.7188;-5.5759;
971.7000;0.7163;-5.5759;
972.0000;0.7171;-5.5681;
972.3000;0.7171;-5.5603;
972.6000;0.7171;-5.5577;
972.9000;0.7171;-5.5681;
973.2000;0.7139;-5.5707;
973.5000;0.7155;-5.5681;
973.8000;0.7179;-5.5629;
974.1000;0.7171;-5.5525;
974.4000;0.7155;-5.5707;
974.7000;0.7155;-5.5629;
975.0000;0.7123;-5.5655;
975.3000;0.7139;-5.5551;
975.6000;0.7171;-5.5499;
975.9000;0.7139;-5.5577;
976.2000;0.7179;-5.5525;
976.5000;0.7155;-5.5655;
976.8000;0.7179;-5.5629;
977.1000;0.7147;-5.5681;
977.4000;0.7163;-5.5707;
977.7000;0.7155;-5.5733;
978.0000;0.7163;-5.5785;
978.3000;0.7171;-5.5733;
978.6000;0.7147;-5.5785;
978.9000;0.7212;-5.5655;
979.2000;0.7171;-5.5733;
979.5000;0.7179;-5.5733;
979.8000;0.7196;-5.5551;
980.1000;0.7155;-5.5551;
980.4000;0.7196;-5.5421;
980.7000;0.7228;-5.5318;
981.0000;0.7155;-5.5629;
981.3000;0.7155;-5.5577;
981.6000;0.7147;-5.5707;
981.9000;0.7155;-5.5707;
982.2000;0.7098;-5.5862;
982.5000;0.7171;-5.5707;
982.8000;0.7163;-5.5681;
983.1000;0.7163;-5.5707;
983.4000;0.7155;-5.5629;
983.7000;0.7147;-5.5603;
984.0000;0.7131;-5.5603;
984.3000;0.7155;-5.5525;
984.6000;0.7139;-5.5655;
984.9000;0.7155;-5.5707;
985.2000;0.7155;-5.5681;
985.5000;0.7163;-5.5733;
985.8000;0.7155;-5.5810;
986.1000;0.7155;-5.5785;
986.4000;0.7139;-5.5810;
986.7000;0.7098;-5.5940;
987.0000;0.7147;-5.5759;
987.3000;0.7147;-5.5810;
987.6000;0.7155;-5.5836;
987.9000;0.7155;-5.5810;
988.2000;0.7163;-5.5785;
988.5000;0.7147;-5.5733;
988.8000;0.7147;-5.5655;
989.1000;0.7188;-5.5551;
989.4000;0.7253;-5.5473;
989.7000;0.7155;-5.5681;
990.0000;0.7163;-5.5707;
990.3000;0.7171;-5.5707;
990.6000;0.7179;-5.5629;
990.9000;0.7147;-5.5707;
991.2000;0.7155;-5.5785;
991.5000;0.7147;-5.5862;
991.8000;0.7171;-5.5836;
992.1000;0.7171;-5.5888;
992.4000;0.7155;-5.5940;
992.7000;0.7155;-5.5940;
993.0000;0.7163;-5.5888;
993.3000;0.7171;-5.5759;
993.6000;0.7155;-5.5785;
993.9000;0.7155;-5.5785;
994.2000;0.7155;-5.5733;
994.5000;0.7155;-5.5707;
994.8000;0.7155;-5.5759;
995.1000;0.7139;-5.5733;
995.4000;0.7098;-5.5836;
995.7000;0.7147;-5.5655;
996.0000;0.7155;-5.5629;
996.3000;0.7147;-5.5681;
996.6000;0.7147;-5.5707;
996.9000;0.7155;-5.5733;
997.2000;0.7139;-5.5759;
997.5000;0.7139;-5.5655;
997.8000;0.7147;-5.5629;
998.1000;0.7155;-5.5707;
998.4000;0.7155;-5.5681;
998.7000;0.7163;-5.5681;
999.0000;0.7147;-5.5629;
999.3000;0.7147;-5.5681;
999.6000;0.7171;-5.5681;
999.9000;0.7188;-5.5577;
1000.2000;0.7155;-5.5681;
1000.5000;0.7171;-5.5681;
1000.8000;0.7253;-5.5499;
1001.1000;0.7123;-5.5785;
1001.4000;0.7139;-5.5836;
1001.7000;0.7163;-5.5759;
1002.0000;0.7171;-5.5785;
1002.3000;0.7147;-5.5888;
1002.6000;0.7139;-5.5836;
1002.9000;0.7155;-5.5862;
1003.2000;0.7114;-5.5966;
1003.5000;0.7139;-5.5992;
1003.8000;0.7155;-5.5888;
1004.1000;0.7155;-5.5966;
1004.4000;0.7147;-5.5940;
1004.7000;0.7163;-5.5810;
1005.0000;0.7163;-5.5733;
1005.3000;0.7147;-5.5655;
1005.6000;0.7155;-5.5733;
1005.9000;0.7155;-5.5681;
1006.2000;0.7188;-5.5681;
1006.5000;0.7147;-5.5733;
1006.8000;0.7220;-5.5499;
1007.1000;0.7147;-5.5629;
1007.4000;0.7155;-5.5551;
1007.7000;0.7131;-5.5629;
1008.0000;0.7090;-5.5681;
1008.3000;0.7139;-5.5577;
1008.6000;0.7139;-5.5525;
1008.9000;0.7139;-5.5525;
1009.2000;0.7139;-5.5551;
1009.5000;0.7179;-5.5447;
1009.8000;0.7163;-5.5473;
1010.1000;0.7131;-5.5577;
1010.4000;0.7155;-5.5577;
1010.7000;0.7114;-5.5629;
1011.0000;0.7155;-5.5603;
1011.3000;0.7139;-5.5577;
1011.6000;0.7139;-5.5629;
1011.9000;0.7155;-5.5603;
1012.2000;0.7163;-5.5551;
1012.5000;0.7188;-5.5525;
1012.8000;0.7139;-5.5629;
1013.1000;0.7139;-5.5577;
1013.4000;0.7155;-5.5525;
1013.7000;0.7155;-5.5499;
1014.0000;0.7155;-5.5473;
1014.3000;0.7204;-5.5318;
1014.6000;0.7106;-5.5499;
1014.9000;0.7163;-5.5447;
1015.2000;0.7147;-5.5525;
1015.5000;0.7179;-5.5473;
1015.8000;0.7155;-5.5473;
1016.1000;0.7147;-5.5447;
1016.4000;0.7155;-5.5473;
1016.7000;0.7163;-5.5499;
1017.0000;0.7139;-5.5525;
1017.3000;0.7139;-5.5577;
1017.6000;0.7163;-5.5421;
1017.9000;0.7131;-5.5447;
1018.2000;0.7139;-5.5447;
1018.5000;0.7123;-5.5396;
1018.8000;0.7139;-5.5396;
1019.1000;0.7139;-5.5447;
1019.4000;0.7163;-5.5447;
1019.7000;0.7147;-5.5499;
1020.0000;0.7155;-5.5370;
1020.3000;0.7139;-5.5447;
1020.6000;0.7090;-5.5577;
1020.9000;0.7147;-5.5370;
1021.2000;0.7139;-5.5421;
1021.5000;0.7147;-5.5447;
1021.8000;0.7139;-5.5447;
1022.1000;0.7049;-5.5655;
1022.4000;0.7139;-5.5473;
1022.7000;0.7131;-5.5525;
1023.0000;0.7163;-5.5396;
1023.3000;0.7139;-5.5447;
1023.6000;0.7131;-5.5447;
1023.9000;0.7131;-5.5499;
1024.2000;0.7147;-5.5499;
1024.5000;0.7131;-5.5551;
1024.8000;0.7147;-5.5525;
1025.1000;0.7131;-5.5551;
1025.4000;0.7163;-5.5499;
1025.7000;0.7131;-5.5577;
1026.0000;0.7147;-5.5603;
1026.3000;0.7147;-5.5551;
1026.6000;0.7123;-5.5577;
1026.9000;0.7155;-5.5525;
1027.2000;0.7139;-5.5577;
1027.5000;0.7131;-5.5577;
1027.8000;0.7139;-5.5629;
1028.1000;0.7204;-5.5473;
1028.4000;0.7131;-5.5525;
1028.7000;0.7139;-5.5525;
1029.0000;0.7155;-5.5447;
1029.3000;0.7171;-5.5421;
1029.6000;0.7139;-5.5473;
1029.9000;0.7147;-5.5551;
1030.2000;0.7163;-5.5525;
1030.5000;0.7139;-5.5499;
1030.8000;0.7155;-5.5473;
1031.1000;0.7131;-5.5551;
1031.4000;0.7147;-5.5525;
1031.7000;0.7139;-5.5577;
1032.0000;0.7131;-5.5629;
1032.3000;0.7090;-5.5785;
1032.6000;0.7171;-5.5421;
1032.9000;0.7139;-5.5473;
1033.2000;0.7123;-5.5473;
1033.5000;0.7171;-5.5370;
1033.8000;0.7131;-5.5421;
1034.1000;0.7131;-5.5499;
1034.4000;0.7131;-5.5551;
1034.7000;0.7139;-5.5525;
1035.0000;0.7147;-5.5473;
1035.3000;0.7171;-5.5370;
1035.6000;0.7163;-5.5396;
1035.9000;0.7139;-5.5447;
1036.2000;0.7131;-5.5396;
1036.5000;0.7131;-5.5370;
1036.8000;0.7155;-5.5370;
1037.1000;0.7131;-5.5421;
1037.4000;0.7131;-5.5421;
1037.7000;0.7131;-5.5447;
1038.0000;0.7139;-5.5421;
1038.3000;0.7163;-5.5396;
1038.6000;0.7123;-5.5525;
1038.9000;0.7147;-5.5525;
1039.2000;0.7147;-5.5577;
1039.5000;0.7131;-5.5629;
1039.8000;0.7147;-5.5577;
1040.1000;0.7131;-5.5551;
1040.4000;0.7171;-5.5447;
1040.7000;0.7179;-5.5447;
1041.0000;0.7139;-5.5525;
1041.3000;0.7131;-5.5499;
1041.6000;0.7155;-5.5499;
1041.9000;0.7139;-5.5577;
1042.2000;0.7155;-5.5499;
1042.5000;0.7123;-5.5603;
1042.8000;0.7131;-5.5499;
1043.1000;0.7131;-5.5525;
1043.4000;0.7074;-5.5629;
1043.7000;0.7123;-5.5473;
1044.0000;0.7131;-5.5396;
1044.3000;0.7123;-5.5370;
1044.6000;0.7131;-5.5344;
1044.9000;0.7090;-5.5396;
1045.2000;0.7123;-5.5370;
1045.5000;0.7163;-5.5344;
1045.8000;0.7147;-5.5344;
1046.1000;0.7123;-5.5344;
1046.4000;0.7220;-5.5266;
1046.7000;0.7139;-5.5499;
1047.0000;0.7139;-5.5447;
1047.3000;0.7131;-5.5499;
1047.6000;0.7131;-5.5525;
1047.9000;0.7139;-5.5473;
1048.2000;0.7147;-5.5421;
1048.5000;0.7123;-5.5473;
1048.8000;0.7123;-5.5447;
1049.1000;0.7114;-5.5499;
1049.4000;0.7131;-5.5499;
1049.7000;0.7131;-5.5421;
1050.0000;0.7114;-5.5421;
1050.3000;0.7123;-5.5499;
1050.6000;0.7123;-5.5551;
1050.9000;0.7123;-5.5629;
1051.2000;0.7139;-5.5603;
1051.5000;0.7131;-5.5655;
1051.8000;0.7155;-5.5629;
1052.1000;0.7139;-5.5551;
1052.4000;0.7114;-5.5525;
1052.7000;0.7131;-5.5421;
1053.0000;0.7131;-5.5396;
1053.3000;0.7131;-5.5447;
1053.6000;0.7123;-5.5447;
1053.9000;0.7123;-5.5499;
1054.2000;0.7123;-5.5473;
1054.5000;0.7147;-5.5421;
1054.8000;0.7131;-5.5421;
1055.1000;0.7131;-5.5421;
1055.4000;0.7123;-5.5473;
1055.7000;0.7123;-5.5396;
1056.0000;0.7139;-5.5396;
1056.3000;0.7139;-5.5370;
1056.6000;0.7155;-5.5344;
1056.9000;0.7131;-5.5396;
1057.2000;0.7123;-5.5447;
1057.5000;0.7131;-5.5499;
1057.8000;0.7131;-5.5499;
1058.1000;0.7139;-5.5447;
1058.4000;0.7074;-5.5707;
1058.7000;0.7131;-5.5577;
1059.0000;0.7114;-5.5577;
1059.3000;0.7212;-5.5266;
1059.6000;0.7139;-5.5473;
1059.9000;0.7139;-5.5447;
1060.2000;0.7131;-5.5473;
1060.5000;0.7106;-5.5551;
1060.8000;0.7131;-5.5551;
1061.1000;0.7131;-5.5473;
1061.4000;0.7171;-5.5370;
1061.7000;0.7139;-5.5421;
1062.0000;0.7139;-5.5421;
1062.3000;0.7131;-5.5499;
1062.6000;0.7139;-5.5447;
1062.9000;0.7106;-5.5499;
1063.2000;0.7098;-5.5525;
1063.5000;0.7066;-5.5525;
1063.8000;0.7163;-5.5214;
1064.1000;0.7114;-5.5292;
1064.4000;0.7147;-5.5240;
1064.7000;0.7131;-5.5240;
1065.0000;0.7123;-5.5292;
1065.3000;0.7139;-5.5214;
1065.6000;0.7131;-5.5266;
1065.9000;0.7123;-5.5240;
1066.2000;0.7131;-5.5162;
1066.5000;0.7131;-5.5188;
1066.8000;0.7114;-5.5214;
1067.1000;0.7123;-5.5136;
1067.4000;0.7098;-5.5188;
1067.7000;0.7114;-5.5214;
1068.0000;0.7114;-5.5292;
1068.3000;0.7123;-5.5396;
1068.6000;0.7123;-5.5396;
1068.9000;0.7131;-5.5421;
1069.2000;0.7123;-5.5447;
1069.5000;0.7114;-5.5525;
1069.8000;0.7123;-5.5525;
1070.1000;0.7131;-5.5499;
1070.4000;0.7123;-5.5447;
1070.7000;0.7098;-5.5499;
1071.0000;0.7066;-5.5551;
1071.3000;0.7106;-5.5525;
1071.6000;0.7106;-5.5525;
1071.9000;0.7114;-5.5447;
1072.2000;0.7114;-5.5447;
1072.5000;0.7139;-5.5421;
1072.8000;0.7114;-5.5525;
1073.1000;0.7123;-5.5525;
1073.4000;0.7139;-5.5473;
1073.7000;0.7155;-5.5447;
1074.0000;0.7139;-5.5370;
1074.3000;0.7131;-5.5292;
1074.6000;0.7123;-5.5240;
1074.9000;0.7114;-5.5266;
1075.2000;0.7114;-5.5292;
1075.5000;0.7106;-5.5318;
1075.8000;0.7114;-5.5318;
1076.1000;0.7106;-5.5266;
1076.4000;0.7106;-5.5266;
1076.7000;0.7114;-5.5292;
1077.0000;0.7139;-5.5266;
1077.3000;0.7139;-5.5188;
1077.6000;0.7123;-5.5214;
1077.9000;0.7106;-5.5266;
1078.2000;0.7106;-5.5292;
1078.5000;0.7123;-5.5266;
1078.8000;0.7147;-5.5188;
1079.1000;0.7131;-5.5292;
1079.4000;0.7131;-5.5396;
1079.7000;0.7123;-5.5447;
1080.0000;0.7139;-5.5396;
1080.3000;0.7114;-5.5370;
1080.6000;0.7131;-5.5370;
1080.9000;0.7114;-5.5318;
1081.2000;0.7114;-5.5344;
1081.5000;0.7163;-5.5214;
1081.8000;0.7114;-5.5318;
1082.1000;0.7106;-5.5318;
1082.4000;0.7114;-5.5318;
1082.7000;0.7123;-5.5318;
1083.0000;0.7106;-5.5370;
1083.3000;0.7114;-5.5421;
1083.6000;0.7123;-5.5370;
1083.9000;0.7131;-5.5344;
1084.2000;0.7114;-5.5421;
1084.5000;0.7106;-5.5396;
1084.8000;0.7123;-5.5370;
1085.1000;0.7114;-5.5370;
1085.4000;0.7114;-5.5370;
1085.7000;0.7123;-5.5396;
1086.0000;0.7114;-5.5370;
1086.3000;0.7114;-5.5292;
1086.6000;0.7131;-5.5240;
1086.9000;0.7131;-5.5214;
1087.2000;0.7098;-5.5344;
1087.5000;0.7131;-5.5292;
1087.8000;0.7131;-5.5344;
1088.1000;0.7131;-5.5318;
1088.4000;0.7041;-5.5577;
1088.7000;0.7106;-5.5473;
1089.0000;0.7131;-5.5370;
1089.3000;0.7114;-5.5447;
1089.6000;0.7090;-5.5421;
1089.9000;0.7106;-5.5370;
1090.2000;0.7114;-5.5421;
1090.5000;0.7098;-5.5447;
1090.8000;0.7114;-5.5447;
1091.1000;0.7131;-5.5421;
1091.4000;0.7106;-5.5473;
1091.7000;0.7114;-5.5499;
1092.0000;0.7106;-5.5473;
1092.3000;0.7106;-5.5447;
1092.6000;0.7098;-5.5370;
1092.9000;0.7123;-5.5318;
1093.2000;0.7114;-5.5344;
1093.5000;0.7106;-5.5421;
1093.8000;0.7114;-5.5473;
1094.1000;0.7123;-5.5396;
1094.4000;0.7114;-5.5396;
1094.7000;0.7114;-5.5473;
1095.0000;0.7082;-5.5577;
1095.3000;0.7106;-5.5525;
1095.6000;0.7123;-5.5447;
1095.9000;0.7123;-5.5421;
1096.2000;0.7179;-5.5318;
1096.5000;0.7123;-5.5473;
1096.8000;0.7114;-5.5421;
1097.1000;0.7123;-5.5447;
1097.4000;0.7114;-5.5396;
1097.7000;0.7114;-5.5344;
1098.0000;0.7139;-5.5240;
1098.3000;0.7139;-5.5266;
1098.6000;0.7106;-5.5344;
1098.9000;0.7114;-5.5344;
1099.2000;0.7131;-5.5396;
1099.5000;0.7106;-5.5447;
1099.8000;0.7114;-5.5396;
1100.1000;0.7147;-5.5370;
1100.4000;0.7114;-5.5370;
1100.7000;0.7114;-5.5447;
1101.0000;0.7114;-5.5421;
1101.3000;0.7131;-5.5396;
1101.6000;0.7106;-5.5344;
1101.9000;0.7106;-5.5318;
1102.2000;0.7106;-5.5266;
1102.5000;0.7098;-5.5188;
1102.8000;0.7131;-5.5136;
1103.1000;0.7098;-5.5318;
1103.4000;0.7147;-5.5240;
1103.7000;0.7106;-5.5396;
1104.0000;0.7098;-5.5447;
1104.3000;0.7114;-5.5421;
1104.6000;0.7131;-5.5396;
1104.9000;0.7123;-5.5421;
1105.2000;0.7090;-5.5447;
1105.5000;0.7114;-5.5421;
1105.8000;0.7114;-5.5370;
1106.1000;0.7106;-5.5318;
1106.4000;0.7098;-5.5396;
1106.7000;0.7098;-5.5447;
1107.0000;0.7188;-5.5240;
1107.3000;0.7106;-5.5447;
1107.6000;0.7098;-5.5447;
1107.9000;0.7106;-5.5370;
1108.2000;0.7123;-5.5370;
1108.5000;0.7114;-5.5396;
1108.8000;0.7114;-5.5421;
1109.1000;0.7114;-5.5525;
1109.4000;0.7106;-5.5499;
1109.7000;0.7131;-5.5499;
1110.0000;0.7114;-5.5473;
1110.3000;0.7123;-5.5421;
1110.6000;0.7114;-5.5473;
1110.9000;0.7114;-5.5421;
1111.2000;0.7123;-5.5447;
1111.5000;0.7074;-5.5525;
1111.8000;0.7123;-5.5421;
1112.1000;0.7131;-5.5499;
1112.4000;0.7090;-5.5499;
1112.7000;0.7106;-5.5525;
1113.0000;0.7106;-5.5551;
1113.3000;0.7114;-5.5499;
1113.6000;0.7106;-5.5473;
1113.9000;0.7098;-5.5473;
1114.2000;0.7066;-5.5577;
1114.5000;0.7106;-5.5421;
1114.8000;0.7114;-5.5396;
1115.1000;0.7049;-5.5551;
1115.4000;0.7098;-5.5447;
1115.7000;0.7114;-5.5370;
1116.0000;0.7106;-5.5344;
1116.3000;0.7106;-5.5344;
1116.6000;0.7114;-5.5370;
1116.9000;0.7090;-5.5396;
1117.2000;0.7106;-5.5396;
1117.5000;0.7114;-5.5344;
1117.8000;0.7098;-5.5396;
1118.1000;0.7123;-5.5318;
1118.4000;0.7082;-5.5447;
1118.7000;0.7123;-5.5421;
1119.0000;0.7106;-5.5525;
1119.3000;0.7098;-5.5551;
1119.6000;0.7090;-5.5551;
1119.9000;0.7106;-5.5473;
1120.2000;0.7090;-5.5447;
1120.5000;0.7098;-5.5499;
1120.8000;0.7114;-5.5421;
1121.1000;0.7139;-5.5318;
1121.4000;0.7082;-5.5396;
1121.7000;0.7098;-5.5421;
1122.0000;0.7106;-5.5421;
1122.3000;0.7123;-5.5421;
1122.6000;0.7098;-5.5447;
1122.9000;0.7106;-5.5396;
1123.2000;0.7106;-5.5396;
1123.5000;0.7114;-5.5292;
1123.8000;0.7098;-5.5292;
1124.1000;0.7082;-5.5344;
1124.4000;0.7106;-5.5240;
1124.7000;0.7090;-5.5318;
1125.0000;0.7114;-5.5292;
1125.3000;0.7106;-5.5318;
1125.6000;0.7114;-5.5292;
1125.9000;0.7090;-5.5318;
1126.2000;0.7106;-5.5396;
1126.5000;0.7098;-5.5396;
1126.8000;0.7090;-5.5370;
1127.1000;0.7074;-5.5396;
1127.4000;0.7123;-5.5292;
1127.7000;0.7074;-5.5473;
1128.0000;0.7090;-5.5421;
1128.3000;0.7066;-5.5551;
1128.6000;0.7106;-5.5499;
1128.9000;0.7098;-5.5473;
1129.2000;0.7082;-5.5551;
1129.5000;0.7106;-5.5473;
1129.8000;0.7098;-5.5499;
1130.1000;0.7114;-5.5447;
1130.4000;0.7090;-5.5396;
1130.7000;0.7098;-5.5318;
1131.0000;0.7106;-5.5240;
1131.3000;0.7106;-5.5214;
1131.6000;0.7074;-5.5344;
1131.9000;0.7106;-5.5188;
1132.2000;0.7090;-5.5318;
1132.5000;0.7123;-5.5240;
1132.8000;0.7106;-5.5214;
1133.1000;0.7114;-5.5240;
1133.4000;0.7123;-5.5214;
1133.7000;0.7114;-5.5214;
1134.0000;0.7123;-5.5188;
1134.3000;0.7131;-5.5318;
1134.6000;0.7033;-5.5629;
1134.9000;0.7098;-5.5421;
1135.2000;0.7139;-5.5344;
1135.5000;0.7090;-5.5344;
1135.8000;0.7114;-5.5266;
1136.1000;0.7114;-5.5318;
1136.4000;0.7171;-5.5162;
1136.7000;0.7131;-5.5214;
1137.0000;0.7090;-5.5292;
1137.3000;0.7106;-5.5292;
1137.6000;0.7098;-5.5292;
1137.9000;0.7106;-5.5292;
1138.2000;0.7082;-5.5318;
1138.5000;0.7082;-5.5292;
1138.8000;0.7049;-5.5370;
1139.1000;0.7090;-5.5344;
1139.4000;0.7082;-5.5396;
1139.7000;0.7147;-5.5266;
1140.0000;0.7090;-5.5370;
1140.3000;0.7123;-5.5240;
1140.6000;0.7082;-5.5396;
1140.9000;0.7106;-5.5344;
1141.2000;0.7171;-5.5110;
1141.5000;0.7098;-5.5266;
1141.8000;0.7090;-5.5240;
1142.1000;0.7098;-5.5292;
1142.4000;0.7098;-5.5344;
1142.7000;0.7098;-5.5370;
1143.0000;0.7066;-5.5447;
1143.3000;0.7106;-5.5318;
1143.6000;0.7098;-5.5344;
1143.9000;0.7106;-5.5318;
1144.2000;0.7106;-5.5292;
1144.5000;0.7090;-5.5344;
1144.8000;0.7098;-5.5396;
1145.1000;0.7114;-5.5292;
1145.4000;0.7114;-5.5344;
1145.7000;0.7114;-5.5396;
1146.0000;0.7098;-5.5499;
1146.3000;0.7098;-5.5525;
1146.6000;0.7098;-5.5525;
1146.9000;0.7098;-5.5473;
1147.2000;0.7098;-5.5499;
1147.5000;0.7098;-5.5551;
1147.8000;0.7098;-5.5525;
1148.1000;0.7106;-5.5499;
1148.4000;0.7098;-5.5421;
1148.7000;0.7106;-5.5396;
1149.0000;0.7098;-5.5396;
1149.3000;0.7114;-5.5370;
1149.6000;0.7090;-5.5447;
1149.9000;0.7082;-5.5396;
1150.2000;0.7098;-5.5344;
1150.5000;0.7098;-5.5396;
1150.8000;0.7131;-5.5370;
1151.1000;0.7098;-5.5525;
1151.4000;0.7090;-5.5473;
1151.7000;0.7098;-5.5447;
1152.0000;0.7131;-5.5421;
1152.3000;0.7106;-5.5421;
1152.6000;0.7074;-5.5499;
1152.9000;0.7098;-5.5421;
1153.2000;0.7163;-5.5266;
1153.5000;0.7082;-5.5499;
1153.8000;0.7074;-5.5525;
1154.1000;0.7163;-5.5396;
1154.4000;0.7057;-5.5629;
1154.7000;0.7090;-5.5473;
1155.0000;0.7090;-5.5421;
1155.3000;0.7082;-5.5370;
1155.6000;0.7098;-5.5344;
1155.9000;0.7106;-5.5344;
1156.2000;0.7082;-5.5396;
1156.5000;0.7082;-5.5447;
1156.8000;0.7114;-5.5318;
1157.1000;0.7082;-5.5421;
1157.4000;0.7082;-5.5396;
1157.7000;0.7057;-5.5396;
1158.0000;0.7082;-5.5344;
1158.3000;0.7098;-5.5318;
1158.6000;0.7090;-5.5188;
1158.9000;0.7090;-5.5292;
1159.2000;0.7090;-5.5240;
1159.5000;0.7074;-5.5214;
1159.8000;0.7082;-5.5318;
1160.1000;0.7090;-5.5318;
1160.4000;0.7098;-5.5292;
1160.7000;0.7106;-5.5318;
1161.0000;0.7114;-5.5292;
1161.3000;0.7082;-5.5447;
1161.6000;0.7090;-5.5396;
1161.9000;0.7098;-5.5318;
1162.2000;0.7106;-5.5396;
1162.5000;0.7098;-5.5370;
1162.8000;0.7090;-5.5214;
1163.1000;0.7106;-5.5162;
1163.4000;0.7090;-5.5110;
1163.7000;0.7090;-5.5032;
1164.0000;0.7074;-5.5136;
1164.3000;0.7098;-5.5214;
1164.6000;0.7074;-5.5292;
1164.9000;0.7082;-5.5266;
1165.2000;0.7090;-5.5240;
1165.5000;0.7098;-5.5162;
1165.8000;0.7106;-5.5240;
1166.1000;0.7082;-5.5318;
1166.4000;0.7090;-5.5421;
1166.7000;0.7074;-5.5473;
1167.0000;0.7082;-5.5577;
1167.3000;0.7106;-5.5525;
1167.6000;0.7090;-5.5447;
1167.9000;0.7082;-5.5396;
1168.2000;0.7074;-5.5396;
1168.5000;0.7090;-5.5396;
1168.8000;0.7074;-5.5447;
1169.1000;0.7066;-5.5421;
1169.4000;0.7074;-5.5447;
1169.7000;0.7106;-5.5421;
1170.0000;0.7082;-5.5473;
1170.3000;0.7098;-5.5499;
1170.6000;0.7074;-5.5577;
1170.9000;0.7106;-5.5525;
1171.2000;0.7090;-5.5551;
1171.5000;0.7090;-5.5577;
1171.8000;0.7082;-5.5655;
1172.1000;0.7106;-5.5655;
1172.4000;0.7106;-5.5629;
1172.7000;0.7106;-5.5629;
1173.0000;0.7090;-5.5577;
1173.3000;0.7082;-5.5551;
1173.6000;0.7082;-5.5577;
1173.9000;0.7098;-5.5447;
1174.2000;0.7074;-5.5499;
1174.5000;0.7090;-5.5396;
1174.8000;0.7074;-5.5396;
1175.1000;0.7074;-5.5473;
1175.4000;0.7074;-5.5551;
1175.7000;0.7066;-5.5525;
1176.0000;0.7082;-5.5525;
1176.3000;0.7098;-5.5473;
1176.6000;0.7098;-5.5499;
1176.9000;0.7090;-5.5499;
1177.2000;0.7074;-5.5525;
1177.5000;0.7082;-5.5447;
1177.8000;0.7090;-5.5344;
1178.1000;0.7098;-5.5421;
1178.4000;0.7057;-5.5447;
1178.7000;0.7090;-5.5370;
1179.0000;0.7066;-5.5421;
1179.3000;0.7074;-5.5344;
1179.6000;0.7074;-5.5344;
1179.9000;0.7090;-5.5344;
1180.2000;0.7090;-5.5473;
1180.5000;0.7098;-5.5551;
1180.8000;0.7082;-5.5525;
1181.1000;0.7106;-5.5577;
1181.4000;0.7098;-5.5551;
1181.7000;0.7098;-5.5629;
1182.0000;0.7098;-5.5681;
1182.3000;0.7098;-5.5655;
1182.6000;0.7057;-5.5733;
1182.9000;0.7106;-5.5551;
1183.2000;0.7090;-5.5473;
1183.5000;0.7090;-5.5525;
1183.8000;0.7090;-5.5447;
1184.1000;0.7090;-5.5473;
1184.4000;0.7098;-5.5396;
1184.7000;0.7074;-5.5370;
1185.0000;0.7114;-5.5292;
1185.3000;0.7066;-5.5551;
1185.6000;0.7082;-5.5525;
1185.9000;0.7139;-5.5344;
1186.2000;0.7066;-5.5396;
1186.5000;0.7090;-5.5396;
1186.8000;0.7074;-5.5421;
1187.1000;0.7074;-5.5292;
1187.4000;0.7082;-5.5084;
1187.7000;0.7106;-5.5084;
1188.0000;0.7131;-5.4929;
1188.3000;0.7074;-5.5136;
1188.6000;0.7033;-5.5292;
1188.9000;0.7106;-5.5110;
1189.2000;0.7049;-5.5240;
1189.5000;0.7074;-5.5188;
1189.8000;0.7090;-5.5136;
1190.1000;0.7106;-5.5058;
1190.4000;0.7090;-5.5188;
1190.7000;0.7098;-5.5292;
1191.0000;0.7074;-5.5318;
1191.3000;0.7098;-5.5240;
1191.6000;0.7082;-5.5162;
1191.9000;0.7066;-5.5266;
1192.2000;0.7074;-5.5266;
1192.5000;0.7106;-5.5162;
1192.8000;0.7082;-5.5214;
1193.1000;0.7066;-5.5240;
1193.4000;0.7074;-5.5214;
1193.7000;0.7114;-5.5110;
1194.0000;0.7057;-5.5240;
1194.3000;0.7090;-5.5188;
1194.6000;0.7082;-5.5214;
1194.9000;0.7041;-5.5396;
1195.2000;0.7066;-5.5292;
1195.5000;0.7090;-5.5188;
1195.8000;0.7082;-5.5188;
1196.1000;0.7066;-5.5214;
1196.4000;0.7066;-5.5188;
1196.7000;0.7106;-5.5136;
1197.0000;0.7057;-5.5214;
1197.3000;0.7049;-5.5292;
1197.6000;0.7074;-5.5214;
1197.9000;0.7057;-5.5214;
1198.2000;0.7114;-5.5058;
1198.5000;0.7082;-5.5136;
1198.8000;0.7114;-5.5032;
1199.1000;0.7098;-5.5084;
1199.4000;0.7057;-5.5188;
1199.7000;0.7041;-5.5162;
1200.0000;0.7090;-5.5032;
1200.3000;0.7074;-5.4929;
1200.6000;0.7090;-5.4929;
1200.9000;0.7082;-5.5007;
1201.2000;0.7057;-5.5084;
1201.5000;0.7082;-5.5058;
1201.8000;0.7041;-5.5084;
1202.1000;0.7090;-5.5032;
1202.4000;0.7074;-5.5136;
1202.7000;0.7082;-5.5084;
1203.0000;0.7082;-5.5007;
1203.3000;0.7090;-5.5007;
1203.6000;0.7163;-5.4929;
1203.9000;0.7082;-5.5162;
1204.2000;0.7098;-5.5084;
1204.5000;0.7106;-5.4955;
1204.8000;0.7090;-5.5084;
1205.1000;0.7098;-5.5136;
1205.4000;0.7090;-5.5162;
1205.7000;0.7098;-5.5162;
1206.0000;0.7082;-5.5136;
1206.3000;0.7082;-5.5110;
1206.6000;0.7025;-5.5110;
1206.9000;0.7082;-5.4955;
1207.2000;0.7066;-5.5058;
1207.5000;0.7090;-5.5058;
1207.8000;0.7090;-5.4981;
1208.1000;0.7082;-5.4929;
1208.4000;0.7098;-5.4955;
1208.7000;0.7082;-5.4981;
1209.0000;0.7074;-5.5110;
1209.3000;0.7098;-5.5110;
1209.6000;0.7066;-5.5136;
1209.9000;0.7114;-5.5110;
1210.2000;0.7082;-5.5214;
1210.5000;0.7057;-5.5214;
1210.8000;0.7057;-5.5188;
1211.1000;0.7082;-5.5110;
1211.4000;0.7066;-5.5110;
1211.7000;0.7057;-5.5110;
1212.0000;0.7090;-5.5084;
1212.3000;0.7074;-5.5084;
1212.6000;0.7131;-5.5007;
1212.9000;0.7066;-5.5110;
1213.2000;0.7082;-5.5110;
1213.5000;0.7090;-5.5188;
1213.8000;0.7082;-5.5188;
1214.1000;0.7066;-5.5214;
1214.4000;0.7082;-5.5188;
1214.7000;0.7098;-5.5214;
1215.0000;0.7114;-5.5058;
1215.3000;0.7082;-5.5110;
1215.6000;0.7090;-5.5136;
1215.9000;0.7098;-5.5162;
1216.2000;0.7074;-5.5188;
1216.5000;0.7074;-5.5110;
1216.8000;0.7074;-5.5007;
1217.1000;0.7123;-5.4903;
1217.4000;0.7090;-5.4929;
1217.7000;0.7066;-5.4929;
1218.0000;0.7082;-5.4981;
1218.3000;0.7082;-5.5084;
1218.6000;0.7082;-5.5058;
1218.9000;0.7155;-5.5007;
1219.2000;0.7082;-5.5214;
1219.5000;0.7090;-5.5188;
1219.8000;0.7098;-5.5136;
1220.1000;0.7066;-5.5162;
1220.4000;0.7049;-5.5162;
1220.7000;0.7074;-5.5032;
1221.0000;0.7033;-5.5136;
1221.3000;0.7066;-5.5058;
1221.6000;0.7066;-5.5058;
1221.9000;0.7057;-5.5058;
1222.2000;0.7049;-5.5032;
1222.5000;0.7017;-5.5214;
1222.8000;0.7074;-5.5084;
1223.1000;0.7057;-5.5084;
1223.4000;0.7074;-5.5110;
1223.7000;0.7041;-5.5240;
1224.0000;0.7057;-5.5214;
1224.3000;0.7082;-5.5136;
1224.6000;0.7025;-5.5318;
1224.9000;0.7066;-5.5162;
1225.2000;0.7074;-5.5058;
1225.5000;0.7074;-5.5110;
1225.8000;0.7090;-5.5136;
1226.1000;0.7082;-5.5110;
1226.4000;0.7074;-5.5058;
1226.7000;0.7074;-5.5058;
1227.0000;0.7090;-5.4955;
1227.3000;0.7114;-5.4851;
1227.6000;0.7074;-5.4929;
1227.9000;0.7082;-5.4981;
1228.2000;0.7082;-5.4981;
1228.5000;0.7090;-5.5032;
1228.8000;0.7090;-5.5032;
1229.1000;0.7098;-5.5007;
1229.4000;0.7106;-5.5084;
1229.7000;0.7041;-5.5266;
1230.0000;0.7082;-5.5084;
1230.3000;0.7090;-5.5136;
1230.6000;0.7066;-5.5162;
1230.9000;0.7082;-5.5214;
1231.2000;0.7066;-5.5240;
1231.5000;0.7074;-5.5214;
1231.8000;0.7066;-5.5292;
1232.1000;0.7057;-5.5292;
1232.4000;0.7066;-5.5214;
1232.7000;0.7066;-5.5188;
1233.0000;0.7074;-5.5214;
1233.3000;0.7066;-5.5188;
1233.6000;0.7057;-5.5292;
1233.9000;0.7066;-5.5318;
1234.2000;0.7082;-5.5188;
1234.5000;0.7049;-5.5266;
1234.8000;0.7066;-5.5266;
1235.1000;0.7074;-5.5162;
1235.4000;0.7074;-5.5188;
1235.7000;0.7066;-5.5214;
1236.0000;0.7114;-5.5188;
1236.3000;0.7074;-5.5266;
1236.6000;0.7074;-5.5266;
1236.9000;0.7082;-5.5214;
1237.2000;0.7082;-5.5162;
1237.5000;0.7066;-5.5110;
1237.8000;0.7082;-5.5058;
1238.1000;0.7049;-5.5162;
1238.4000;0.7082;-5.5084;
1238.7000;0.7098;-5.5110;
1239.0000;0.7066;-5.5162;
1239.3000;0.7074;-5.5240;
1239.6000;0.7066;-5.5370;
1239.9000;0.7082;-5.5266;
1240.2000;0.7098;-5.5188;
1240.5000;0.7090;-5.5188;
1240.8000;0.7082;-5.5318;
1241.1000;0.7074;-5.5214;
1241.4000;0.7123;-5.5162;
1241.7000;0.7147;-5.5084;
1242.0000;0.7057;-5.5266;
1242.3000;0.7066;-5.5240;
1242.6000;0.7066;-5.5188;
1242.9000;0.7066;-5.5110;
1243.2000;0.7057;-5.5136;
1243.5000;0.7066;-5.5214;
1243.8000;0.7066;-5.5136;
1244.1000;0.7074;-5.5136;
1244.4000;0.7049;-5.5188;
1244.7000;0.7074;-5.5084;
1245.0000;0.7082;-5.5058;
1245.3000;0.7098;-5.4981;
1245.6000;0.7082;-5.5007;
1245.9000;0.7049;-5.5084;
1246.2000;0.7049;-5.5058;
1246.5000;0.7082;-5.5032;
1246.8000;0.7090;-5.5007;
1247.1000;0.7074;-5.4955;
1247.4000;0.7066;-5.5007;
1247.7000;0.7090;-5.4981;
1248.0000;0.7106;-5.4981;
1248.3000;0.7090;-5.5058;
1248.6000;0.7066;-5.5162;
1248.9000;0.7098;-5.5136;
1249.2000;0.7098;-5.5110;
1249.5000;0.7090;-5.5084;
1249.8000;0.7025;-5.5188;
1250.1000;0.7082;-5.5032;
1250.4000;0.7082;-5.4981;
1250.7000;0.7082;-5.4981;
1251.0000;0.7066;-5.4981;
1251.3000;0.7057;-5.4981;
1251.6000;0.7066;-5.5032;
1251.9000;0.7074;-5.5032;
1252.2000;0.7074;-5.5007;
1252.5000;0.7066;-5.5058;
1252.8000;0.7066;-5.5110;
1253.1000;0.7074;-5.5084;
1253.4000;0.7049;-5.5162;
1253.7000;0.7057;-5.5240;
1254.0000;0.7041;-5.5292;
1254.3000;0.7074;-5.5162;
1254.6000;0.7066;-5.5136;
1254.9000;0.7000;-5.5266;
1255.2000;0.7057;-5.5162;
1255.5000;0.7074;-5.5136;
1255.8000;0.7057;-5.5058;
1256.1000;0.7090;-5.4955;
1256.4000;0.7082;-5.5007;
1256.7000;0.7057;-5.5058;
1257.0000;0.7033;-5.5110;
1257.3000;0.7049;-5.5110;
1257.6000;0.7041;-5.5136;
1257.9000;0.7049;-5.5084;
1258.2000;0.7057;-5.4981;
1258.5000;0.7049;-5.5058;
1258.8000;0.7057;-5.5007;
1259.1000;0.7066;-5.5110;
1259.4000;0.7066;-5.5058;
1259.7000;0.7066;-5.5032;
1260.0000;0.7082;-5.4929;
1260.3000;0.7066;-5.5007;
1260.6000;0.7066;-5.4903;
1260.9000;0.7049;-5.4955;
1261.2000;0.7066;-5.4955;
1261.5000;0.7066;-5.4929;
1261.8000;0.7082;-5.4955;
1262.1000;0.7041;-5.5032;
1262.4000;0.7057;-5.5007;
1262.7000;0.7049;-5.5007;
1263.0000;0.7082;-5.4981;
1263.3000;0.7066;-5.5058;
1263.6000;0.7057;-5.5058;
1263.9000;0.7057;-5.4981;
1264.2000;0.7074;-5.4877;
1264.5000;0.7057;-5.4903;
1264.8000;0.7066;-5.4929;
1265.1000;0.7090;-5.4799;
1265.4000;0.7025;-5.5007;
1265.7000;0.7074;-5.4851;
1266.0000;0.7082;-5.4877;
1266.3000;0.7090;-5.4851;
1266.6000;0.7066;-5.4903;
1266.9000;0.7082;-5.4825;
1267.2000;0.7057;-5.4851;
1267.5000;0.7033;-5.4903;
1267.8000;0.7049;-5.4929;
1268.1000;0.7057;-5.5007;
1268.4000;0.7057;-5.5058;
1268.7000;0.7066;-5.5084;
1269.0000;0.7057;-5.5084;
1269.3000;0.7074;-5.5084;
1269.6000;0.7057;-5.5162;
1269.9000;0.7066;-5.5084;
1270.2000;0.7114;-5.4929;
1270.5000;0.7066;-5.5058;
1270.8000;0.7066;-5.5007;
1271.1000;0.7082;-5.5007;
1271.4000;0.7057;-5.5058;
1271.7000;0.7057;-5.5058;
1272.0000;0.7066;-5.5084;
1272.3000;0.7057;-5.5110;
1272.6000;0.7049;-5.5188;
1272.9000;0.7049;-5.5214;
1273.2000;0.7074;-5.5188;
1273.5000;0.7090;-5.5110;
1273.8000;0.7074;-5.5058;
1274.1000;0.7090;-5.5032;
1274.4000;0.7057;-5.5032;
1274.7000;0.7074;-5.4877;
1275.0000;0.7074;-5.4877;
1275.3000;0.7074;-5.4799;
1275.6000;0.7066;-5.4825;
1275.9000;0.7066;-5.4903;
1276.2000;0.7066;-5.4929;
1276.5000;0.7066;-5.4981;
1276.8000;0.7041;-5.5084;
1277.1000;0.7041;-5.5084;
1277.4000;0.7033;-5.5136;
1277.7000;0.7041;-5.5084;
1278.0000;0.7049;-5.5110;
1278.3000;0.7106;-5.4955;
1278.6000;0.7066;-5.5084;
1278.9000;0.7131;-5.5084;
1279.2000;0.7066;-5.5214;
1279.5000;0.7066;-5.5214;
1279.8000;0.7082;-5.5188;
1280.1000;0.7057;-5.5266;
1280.4000;0.7049;-5.5214;
1280.7000;0.7057;-5.5136;
1281.0000;0.7082;-5.5136;
1281.3000;0.7057;-5.5214;
1281.6000;0.7057;-5.5240;
1281.9000;0.7041;-5.5240;
1282.2000;0.7066;-5.5188;
1282.5000;0.7066;-5.5188;
1282.8000;0.7057;-5.5266;
1283.1000;0.7057;-5.5266;
1283.4000;0.7082;-5.5188;
1283.7000;0.7074;-5.5240;
1284.0000;0.7155;-5.5007;
1284.3000;0.7057;-5.5032;
1284.6000;0.7057;-5.4955;
1284.9000;0.7057;-5.4903;
1285.2000;0.7057;-5.4877;
1285.5000;0.7057;-5.4851;
1285.8000;0.7057;-5.4825;
1286.1000;0.7074;-5.4799;
1286.4000;0.7074;-5.4851;
1286.7000;0.7033;-5.4981;
1287.0000;0.7057;-5.4955;
1287.3000;0.7074;-5.5058;
1287.6000;0.7074;-5.5110;
1287.9000;0.7049;-5.5058;
1288.2000;0.7033;-5.5162;
1288.5000;0.7017;-5.5162;
1288.8000;0.7057;-5.4981;
1289.1000;0.7098;-5.4877;
1289.4000;0.7041;-5.5058;
1289.7000;0.7066;-5.5084;
1290.0000;0.7074;-5.5136;
1290.3000;0.7033;-5.5240;
1290.6000;0.7074;-5.5032;
1290.9000;0.7074;-5.5084;
1291.2000;0.7074;-5.5032;
1291.5000;0.7057;-5.5007;
1291.8000;0.7000;-5.5188;
1292.1000;0.7049;-5.4981;
1292.4000;0.7049;-5.4903;
1292.7000;0.7017;-5.5007;
1293.0000;0.7106;-5.4747;
1293.3000;0.7041;-5.4955;
1293.6000;0.7066;-5.5032;
1293.9000;0.7057;-5.5084;
1294.2000;0.7017;-5.5188;
1294.5000;0.7066;-5.5084;
1294.8000;0.7049;-5.5007;
1295.1000;0.7057;-5.4981;
1295.4000;0.7049;-5.4903;
1295.7000;0.7074;-5.4877;
1296.0000;0.7057;-5.4903;
1296.3000;0.7057;-5.4851;
1296.6000;0.7090;-5.4825;
1296.9000;0.7057;-5.5007;
1297.2000;0.7057;-5.5110;
1297.5000;0.7074;-5.5136;
1297.8000;0.7082;-5.5188;
1298.1000;0.7082;-5.5188;
1298.4000;0.7041;-5.5240;
1298.7000;0.7057;-5.5136;
1299.0000;0.7057;-5.5110;
1299.3000;0.7066;-5.5084;
1299.6000;0.7074;-5.5058;
1299.9000;0.7049;-5.5007;
1300.2000;0.7057;-5.4929;
1300.5000;0.7082;-5.4903;
1300.8000;0.7033;-5.5084;
1301.1000;0.7049;-5.5058;
1301.4000;0.7057;-5.5032;
1301.7000;0.7066;-5.5032;
1302.0000;0.7082;-5.5058;
1302.3000;0.7074;-5.5058;
1302.6000;0.7082;-5.5032;
1302.9000;0.7074;-5.5032;
1303.2000;0.7074;-5.5058;
1303.5000;0.7066;-5.5110;
1303.8000;0.7049;-5.5162;
1304.1000;0.7009;-5.5214;
1304.4000;0.7066;-5.5110;
1304.7000;0.7049;-5.5162;
1305.0000;0.7057;-5.5188;
1305.3000;0.7057;-5.5188;
1305.6000;0.7066;-5.5162;
1305.9000;0.7066;-5.5136;
1306.2000;0.7041;-5.5136;
1306.5000;0.7082;-5.5110;
1306.8000;0.7066;-5.5110;
1307.1000;0.7066;-5.5136;
1307.4000;0.7041;-5.5084;
1307.7000;0.7057;-5.5058;
1308.0000;0.7057;-5.4981;
1308.3000;0.7066;-5.5007;
1308.6000;0.7057;-5.5058;
1308.9000;0.7057;-5.5110;
1309.2000;0.7074;-5.5058;
1309.5000;0.7090;-5.4955;
1309.8000;0.7049;-5.5058;
1310.1000;0.7057;-5.5058;
1310.4000;0.7074;-5.5058;
1310.7000;0.7074;-5.4981;
1311.0000;0.7041;-5.4955;
1311.3000;0.7041;-5.4929;
1311.6000;0.7057;-5.4851;
1311.9000;0.7066;-5.4877;
1312.2000;0.7098;-5.4903;
1312.5000;0.7090;-5.5007;
1312.8000;0.7033;-5.5084;
1313.1000;0.7025;-5.5058;
1313.4000;0.7106;-5.4851;
1313.7000;0.7049;-5.4929;
1314.0000;0.7049;-5.4929;
1314.3000;0.7049;-5.4877;
1314.6000;0.7049;-5.4877;
1314.9000;0.7057;-5.4747;
1315.2000;0.7033;-5.4721;
1315.5000;0.7114;-5.4669;
1315.8000;0.7057;-5.4851;
1316.1000;0.7049;-5.4929;
1316.4000;0.7057;-5.4903;
1316.7000;0.7082;-5.4851;
1317.0000;0.7074;-5.4877;
1317.3000;0.7049;-5.4929;
1317.6000;0.7049;-5.4955;
1317.9000;0.7057;-5.4955;
1318.2000;0.7057;-5.4903;
1318.5000;0.7041;-5.4903;
1318.8000;0.7066;-5.4825;
1319.1000;0.7041;-5.4903;
1319.4000;0.7066;-5.4877;
1319.7000;0.7066;-5.4929;
1320.0000;0.7066;-5.4981;
1320.3000;0.7066;-5.5058;
1320.6000;0.7066;-5.5084;
1320.9000;0.7049;-5.5110;
1321.2000;0.7057;-5.5162;
1321.5000;0.7057;-5.5214;
1321.8000;0.7057;-5.5188;
1322.1000;0.7074;-5.5136;
1322.4000;0.7049;-5.5214;
1322.7000;0.7049;-5.5162;
1323.0000;0.7033;-5.5162;
1323.3000;0.7057;-5.5084;
1323.6000;0.7049;-5.5162;
1323.9000;0.7041;-5.5162;
1324.2000;0.7025;-5.5266;
1324.5000;0.7049;-5.5214;
1324.8000;0.7057;-5.5188;
1325.1000;0.7082;-5.5058;
1325.4000;0.7041;-5.5110;
1325.7000;0.7057;-5.5162;
1326.0000;0.7041;-5.5084;
1326.3000;0.7066;-5.4955;
1326.6000;0.7057;-5.5032;
1326.9000;0.7049;-5.5058;
1327.2000;0.7074;-5.5084;
1327.5000;0.7033;-5.5162;
1327.8000;0.7033;-5.5084;
1328.1000;0.7106;-5.4955;
1328.4000;0.7049;-5.5136;
1328.7000;0.7033;-5.5188;
1329.0000;0.7082;-5.5110;
1329.3000;0.7057;-5.5188;
1329.6000;0.7041;-5.5214;
1329.9000;0.7041;-5.5240;
1330.2000;0.7033;-5.5136;
1330.5000;0.7049;-5.5084;
1330.8000;0.7049;-5.4955;
1331.1000;0.7082;-5.4825;
1331.4000;0.7057;-5.4903;
1331.7000;0.7049;-5.4929;
1332.0000;0.7074;-5.4981;
1332.3000;0.7057;-5.5032;
1332.6000;0.7066;-5.5110;
1332.9000;0.7057;-5.5110;
1333.2000;0.7074;-5.5032;
1333.5000;0.7057;-5.5007;
1333.8000;0.7057;-5.5084;
1334.1000;0.7082;-5.5084;
1334.4000;0.7074;-5.5136;
1334.7000;0.7066;-5.5188;
1335.0000;0.7057;-5.5084;
1335.3000;0.7033;-5.5084;
1335.6000;0.7033;-5.5110;
1335.9000;0.7049;-5.5032;
1336.2000;0.7057;-5.5058;
1336.5000;0.6992;-5.5240;
1336.8000;0.7033;-5.5188;
1337.1000;0.7041;-5.5162;
1337.4000;0.7041;-5.5162;
1337.7000;0.7057;-5.5162;
1338.0000;0.7033;-5.5240;
1338.3000;0.7009;-5.5266;
1338.6000;0.7049;-5.5136;
1338.9000;0.7123;-5.4981;
1339.2000;0.7049;-5.5214;
1339.5000;0.7090;-5.5110;
1339.8000;0.7057;-5.5162;
1340.1000;0.7057;-5.5136;
1340.4000;0.7049;-5.5292;
1340.7000;0.7041;-5.5292;
1341.0000;0.7057;-5.5240;
1341.3000;0.7049;-5.5240;
1341.6000;0.7049;-5.5162;
1341.9000;0.7057;-5.5188;
1342.2000;0.7033;-5.5214;
1342.5000;0.7074;-5.5110;
1342.8000;0.7066;-5.5110;
1343.1000;0.7057;-5.5214;
1343.4000;0.7066;-5.5136;
1343.7000;0.7057;-5.5240;
1344.0000;0.7057;-5.5214;
1344.3000;0.7057;-5.5188;
1344.6000;0.7057;-5.5240;
1344.9000;0.7049;-5.5214;
1345.2000;0.7066;-5.5188;
1345.5000;0.7066;-5.5188;
1345.8000;0.7049;-5.5188;
1346.1000;0.7057;-5.5188;
1346.4000;0.7066;-5.5162;
1346.7000;0.7033;-5.5214;
1347.0000;0.7017;-5.5162;
1347.3000;0.7057;-5.5058;
1347.6000;0.7057;-5.5007;
1347.9000;0.7041;-5.5084;
1348.2000;0.7025;-5.5110;
1348.5000;0.7033;-5.5162;
1348.8000;0.7066;-5.5136;
1349.1000;0.7041;-5.5162;
1349.4000;0.7049;-5.5162;
1349.7000;0.7033;-5.5214;
1350.0000;0.7049;-5.5136;
1350.3000;0.7057;-5.5084;
1350.6000;0.7057;-5.5110;
1350.9000;0.7049;-5.5188;
1351.2000;0.7009;-5.5214;
1351.5000;0.7057;-5.5084;
1351.8000;0.7041;-5.5136;
1352.1000;0.7033;-5.5188;
1352.4000;0.7066;-5.5058;
1352.7000;0.7057;-5.5058;
1353.0000;0.7025;-5.5084;
1353.3000;0.7017;-5.5058;
1353.6000;0.7074;-5.4955;
1353.9000;0.7057;-5.5032;
1354.2000;0.7090;-5.4955;
1354.5000;0.7049;-5.5084;
1354.8000;0.7049;-5.5188;
1355.1000;0.7057;-5.5162;
1355.4000;0.7057;-5.5214;
1355.7000;0.7057;-5.5136;
1356.0000;0.7049;-5.5110;
1356.3000;0.7049;-5.5007;
1356.6000;0.7049;-5.4981;
1356.9000;0.7066;-5.4955;
1357.2000;0.7057;-5.5007;
1357.5000;0.7041;-5.4955;
1357.8000;0.7033;-5.4903;
1358.1000;0.7057;-5.4877;
1358.4000;0.7049;-5.4903;
1358.7000;0.7033;-5.4903;
1359.0000;0.7009;-5.5007;
1359.3000;0.7057;-5.4929;
1359.6000;0.7074;-5.4903;
1359.9000;0.7041;-5.4981;
1360.2000;0.7041;-5.5007;
1360.5000;0.7057;-5.5058;
1360.8000;0.7033;-5.5084;
1361.1000;0.7033;-5.5162;
1361.4000;0.7098;-5.5007;
1361.7000;0.7049;-5.5162;
1362.0000;0.7041;-5.5266;
1362.3000;0.7066;-5.5136;
1362.6000;0.7033;-5.5214;
1362.9000;0.7041;-5.5188;
1363.2000;0.7041;-5.5188;
1363.5000;0.7057;-5.5110;
1363.8000;0.7041;-5.5058;
1364.1000;0.7057;-5.4981;
1364.4000;0.7041;-5.5007;
1364.7000;0.7049;-5.5007;
1365.0000;0.7049;-5.5084;
1365.3000;0.7033;-5.5136;
1365.6000;0.7049;-5.5110;
1365.9000;0.7049;-5.5162;
1366.2000;0.7033;-5.5214;
1366.5000;0.7041;-5.5266;
1366.8000;0.7033;-5.5318;
1367.1000;0.7033;-5.5344;
1367.4000;0.7049;-5.5318;
1367.7000;0.7041;-5.5370;
1368.0000;0.7049;-5.5344;
1368.3000;0.7049;-5.5473;
1368.6000;0.7057;-5.5447;
1368.9000;0.7049;-5.5447;
1369.2000;0.7041;-5.5473;
1369.5000;0.7057;-5.5499;
1369.8000;0.7049;-5.5551;
1370.1000;0.7025;-5.5603;
1370.4000;0.7041;-5.5577;
1370.7000;0.7033;-5.5473;
1371.0000;0.6992;-5.5551;
1371.3000;0.7057;-5.5473;
1371.6000;0.6984;-5.5629;
1371.9000;0.7025;-5.5473;
1372.2000;0.7033;-5.5473;
1372.5000;0.7098;-5.5292;
1372.8000;0.7025;-5.5525;
1373.1000;0.7025;-5.5525;
1373.4000;0.7041;-5.5499;
1373.7000;0.7049;-5.5421;
1374.0000;0.7066;-5.5396;
1374.3000;0.7041;-5.5292;
1374.6000;0.7049;-5.5266;
1374.9000;0.7041;-5.5162;
1375.2000;0.7033;-5.5110;
1375.5000;0.7049;-5.5032;
1375.8000;0.7057;-5.5084;
1376.1000;0.7017;-5.5240;
1376.4000;0.7041;-5.5162;
1376.7000;0.7049;-5.5214;
1377.0000;0.7074;-5.5084;
1377.3000;0.7049;-5.5058;
1377.6000;0.7066;-5.5058;
1377.9000;0.7017;-5.5110;
1378.2000;0.7082;-5.4981;
1378.5000;0.7090;-5.4929;
1378.8000;0.7033;-5.5162;
1379.1000;0.7049;-5.5007;
1379.4000;0.7049;-5.5007;
1379.7000;0.7066;-5.4903;
1380.0000;0.7049;-5.4903;
1380.3000;0.7033;-5.5007;
1380.6000;0.7049;-5.4981;
1380.9000;0.7033;-5.4981;
1381.2000;0.7066;-5.5032;
1381.5000;0.7033;-5.5136;
1381.8000;0.7033;-5.5162;
1382.1000;0.7082;-5.5084;
1382.4000;0.7049;-5.5162;
1382.7000;0.7057;-5.5136;
1383.0000;0.7049;-5.5214;
1383.3000;0.6984;-5.5318;
1383.6000;0.7000;-5.5266;
1383.9000;0.7090;-5.4955;
1384.2000;0.6952;-5.5318;
1384.5000;0.7009;-5.5188;
1384.8000;0.7049;-5.5136;
1385.1000;0.7041;-5.5162;
1385.4000;0.7033;-5.5136;
1385.7000;0.7041;-5.5188;
1386.0000;0.7057;-5.5136;
1386.3000;0.7090;-5.5058;
1386.6000;0.7033;-5.5240;
1386.9000;0.7033;-5.5188;
1387.2000;0.7033;-5.5266;
1387.5000;0.7049;-5.5266;
1387.8000;0.7041;-5.5266;
1388.1000;0.7033;-5.5292;
1388.4000;0.7049;-5.5292;
1388.7000;0.7041;-5.5370;
1389.0000;0.7033;-5.5292;
1389.3000;0.7025;-5.5318;
1389.6000;0.7041;-5.5188;
1389.9000;0.7041;-5.5188;
1390.2000;0.7049;-5.5136;
1390.5000;0.7041;-5.5188;
1390.8000;0.7049;-5.5136;
1391.1000;0.7033;-5.5266;
1391.4000;0.7049;-5.5240;
1391.7000;0.7057;-5.5188;
1392.0000;0.7033;-5.5344;
1392.3000;0.7049;-5.5318;
1392.6000;0.7041;-5.5318;
1392.9000;0.7049;-5.5292;
1393.2000;0.7057;-5.5266;
1393.5000;0.7066;-5.5162;
1393.8000;0.7033;-5.5240;
1394.1000;0.7066;-5.5240;
1394.4000;0.7049;-5.5240;
1394.7000;0.7025;-5.5292;
1395.0000;0.7025;-5.5266;
1395.3000;0.7033;-5.5162;
1395.6000;0.7049;-5.5188;
1395.9000;0.7057;-5.5188;
1396.2000;0.7049;-5.5136;
1396.5000;0.7057;-5.5136;
1396.8000;0.7041;-5.5136;
1397.1000;0.7017;-5.5162;
1397.4000;0.7041;-5.5110;
1397.7000;0.7049;-5.5136;
1398.0000;0.7025;-5.5084;
1398.3000;0.7041;-5.5058;
1398.6000;0.7049;-5.5058;
1398.9000;0.7041;-5.5058;
1399.2000;0.7049;-5.5110;
1399.5000;0.7123;-5.4955;
1399.8000;0.7057;-5.5110;
