time/ms;Fluo/V;P700 deltaI/I x10³;
-199.8000;0.1302;-0.7962;
-199.5000;0.1302;-0.7862;
-199.2000;0.1294;-0.7862;
-198.9000;0.1311;-0.7912;
-198.6000;0.1302;-0.7937;
-198.3000;0.1319;-0.7761;
-198.0000;0.1319;-0.7686;
-197.7000;0.1286;-0.7586;
-197.4000;0.1278;-0.7510;
-197.1000;0.1294;-0.7611;
-196.8000;0.1392;-0.7360;
-196.5000;0.1327;-0.7586;
-196.2000;0.1343;-0.7661;
-195.9000;0.1327;-0.7761;
-195.6000;0.1278;-0.7862;
-195.3000;0.1311;-0.7686;
-195.0000;0.1278;-0.7711;
-194.7000;0.1286;-0.7661;
-194.4000;0.1278;-0.7736;
-194.1000;0.1278;-0.7686;
-193.8000;0.1221;-0.7912;
-193.5000;0.1270;-0.7711;
-193.2000;0.1311;-0.7611;
-192.9000;0.1294;-0.7636;
-192.6000;0.1302;-0.7611;
-192.3000;0.1302;-0.7686;
-192.0000;0.1302;-0.7661;
-191.7000;0.1294;-0.7661;
-191.4000;0.1294;-0.7611;
-191.1000;0.1294;-0.7586;
-190.8000;0.1311;-0.7611;
-190.5000;0.1294;-0.7510;
-190.2000;0.1286;-0.7535;
-189.9000;0.1319;-0.7460;
-189.6000;0.1302;-0.7535;
-189.3000;0.1270;-0.7686;
-189.0000;0.1270;-0.7611;
-188.7000;0.1311;-0.7485;
-188.4000;0.1278;-0.7385;
-188.1000;0.1278;-0.7460;
-187.8000;0.1319;-0.7360;
-187.5000;0.1286;-0.7284;
-187.2000;0.1294;-0.7334;
-186.9000;0.1270;-0.7510;
-186.6000;0.1294;-0.7510;
-186.3000;0.1319;-0.7560;
-186.0000;0.1278;-0.7711;
-185.7000;0.1294;-0.7636;
-185.4000;0.1286;-0.7736;
-185.1000;0.1294;-0.7711;
-184.8000;0.1294;-0.7586;
-184.5000;0.1302;-0.7535;
-184.2000;0.1294;-0.7460;
-183.9000;0.1351;-0.7284;
-183.6000;0.1311;-0.7510;
-183.3000;0.1262;-0.7611;
-183.0000;0.1254;-0.7661;
-182.7000;0.1294;-0.7611;
-182.4000;0.1335;-0.7586;
-182.1000;0.1302;-0.7736;
-181.8000;0.1302;-0.7661;
-181.5000;0.1311;-0.7711;
-181.2000;0.1294;-0.7711;
-180.9000;0.1278;-0.7686;
-180.6000;0.1302;-0.7636;
-180.3000;0.1294;-0.7686;
-180.0000;0.1294;-0.7611;
-179.7000;0.1335;-0.7535;
-179.4000;0.1286;-0.7711;
-179.1000;0.1311;-0.7711;
-178.8000;0.1311;-0.7686;
-178.5000;0.1302;-0.7586;
-178.2000;0.1319;-0.7485;
-177.9000;0.1302;-0.7586;
-177.6000;0.1270;-0.7636;
-177.3000;0.1294;-0.7560;
-177.0000;0.1311;-0.7510;
-176.7000;0.1335;-0.7435;
-176.4000;0.1319;-0.7460;
-176.1000;0.1294;-0.7510;
-175.8000;0.1262;-0.7535;
-175.5000;0.1327;-0.7410;
-175.2000;0.1302;-0.7510;
-174.9000;0.1286;-0.7535;
-174.6000;0.1286;-0.7611;
-174.3000;0.1359;-0.7535;
-174.0000;0.1262;-0.7761;
-173.7000;0.1278;-0.7812;
-173.4000;0.1294;-0.7686;
-173.1000;0.1319;-0.7686;
-172.8000;0.1294;-0.7711;
-172.5000;0.1278;-0.7837;
-172.2000;0.1294;-0.7761;
-171.9000;0.1278;-0.7787;
-171.6000;0.1368;-0.7686;
-171.3000;0.1302;-0.7761;
-171.0000;0.1286;-0.7736;
-170.7000;0.1262;-0.7636;
-170.4000;0.1294;-0.7460;
-170.1000;0.1319;-0.7410;
-169.8000;0.1254;-0.7636;
-169.5000;0.1319;-0.7535;
-169.2000;0.1302;-0.7485;
-168.9000;0.1294;-0.7535;
-168.6000;0.1319;-0.7385;
-168.3000;0.1294;-0.7410;
-168.0000;0.1335;-0.7410;
-167.7000;0.1311;-0.7410;
-167.4000;0.1327;-0.7435;
-167.1000;0.1319;-0.7385;
-166.8000;0.1302;-0.7410;
-166.5000;0.1294;-0.7385;
-166.2000;0.1319;-0.7309;
-165.9000;0.1286;-0.7560;
-165.6000;0.1278;-0.7636;
-165.3000;0.1343;-0.7435;
-165.0000;0.1286;-0.7560;
-164.7000;0.1270;-0.7586;
-164.4000;0.1311;-0.7460;
-164.1000;0.1319;-0.7385;
-163.8000;0.1294;-0.7435;
-163.5000;0.1311;-0.7460;
-163.2000;0.1278;-0.7535;
-162.9000;0.1302;-0.7510;
-162.6000;0.1270;-0.7560;
-162.3000;0.1294;-0.7535;
-162.0000;0.1311;-0.7460;
-161.7000;0.1278;-0.7586;
-161.4000;0.1278;-0.7586;
-161.1000;0.1327;-0.7535;
-160.8000;0.1270;-0.7761;
-160.5000;0.1319;-0.7686;
-160.2000;0.1278;-0.7686;
-159.9000;0.1286;-0.7736;
-159.6000;0.1286;-0.7711;
-159.3000;0.1294;-0.7736;
-159.0000;0.1319;-0.7686;
-158.7000;0.1311;-0.7711;
-158.4000;0.1319;-0.7661;
-158.1000;0.1302;-0.7736;
-157.8000;0.1294;-0.7686;
-157.5000;0.1270;-0.7787;
-157.2000;0.1270;-0.7736;
-156.9000;0.1311;-0.7736;
-156.6000;0.1351;-0.7686;
-156.3000;0.1237;-0.7887;
-156.0000;0.1294;-0.7686;
-155.7000;0.1278;-0.7787;
-155.4000;0.1294;-0.7661;
-155.1000;0.1368;-0.7410;
-154.8000;0.1286;-0.7611;
-154.5000;0.1302;-0.7435;
-154.2000;0.1311;-0.7435;
-153.9000;0.1294;-0.7435;
-153.6000;0.1294;-0.7510;
-153.3000;0.1302;-0.7535;
-153.0000;0.1302;-0.7586;
-152.7000;0.1311;-0.7510;
-152.4000;0.1294;-0.7611;
-152.1000;0.1294;-0.7711;
-151.8000;0.1286;-0.7761;
-151.5000;0.1294;-0.7711;
-151.2000;0.1302;-0.7611;
-150.9000;0.1286;-0.7535;
-150.6000;0.1311;-0.7460;
-150.3000;0.1278;-0.7586;
-150.0000;0.1294;-0.7535;
-149.7000;0.1286;-0.7485;
-149.4000;0.1278;-0.7586;
-149.1000;0.1286;-0.7636;
-148.8000;0.1294;-0.7686;
-148.5000;0.1294;-0.7611;
-148.2000;0.1294;-0.7586;
-147.9000;0.1294;-0.7636;
-147.6000;0.1311;-0.7611;
-147.3000;0.1319;-0.7611;
-147.0000;0.1254;-0.7686;
-146.7000;0.1302;-0.7560;
-146.4000;0.1319;-0.7535;
-146.1000;0.1294;-0.7636;
-145.8000;0.1302;-0.7586;
-145.5000;0.1286;-0.7661;
-145.2000;0.1319;-0.7586;
-144.9000;0.1286;-0.7560;
-144.6000;0.1278;-0.7535;
-144.3000;0.1294;-0.7560;
-144.0000;0.1311;-0.7560;
-143.7000;0.1294;-0.7510;
-143.4000;0.1262;-0.7560;
-143.1000;0.1294;-0.7385;
-142.8000;0.1311;-0.7360;
-142.5000;0.1351;-0.7209;
-142.2000;0.1294;-0.7334;
-141.9000;0.1311;-0.7334;
-141.6000;0.1311;-0.7435;
-141.3000;0.1278;-0.7560;
-141.0000;0.1311;-0.7510;
-140.7000;0.1311;-0.7586;
-140.4000;0.1286;-0.7586;
-140.1000;0.1197;-0.7837;
-139.8000;0.1278;-0.7560;
-139.5000;0.1262;-0.7586;
-139.2000;0.1319;-0.7385;
-138.9000;0.1311;-0.7360;
-138.6000;0.1294;-0.7410;
-138.3000;0.1278;-0.7485;
-138.0000;0.1270;-0.7560;
-137.7000;0.1319;-0.7485;
-137.4000;0.1262;-0.7636;
-137.1000;0.1302;-0.7535;
-136.8000;0.1343;-0.7460;
-136.5000;0.1335;-0.7385;
-136.2000;0.1319;-0.7410;
-135.9000;0.1311;-0.7460;
-135.6000;0.1319;-0.7435;
-135.3000;0.1302;-0.7460;
-135.0000;0.1262;-0.7535;
-134.7000;0.1262;-0.7485;
-134.4000;0.1302;-0.7284;
-134.1000;0.1302;-0.7410;
-133.8000;0.1311;-0.7410;
-133.5000;0.1302;-0.7410;
-133.2000;0.1311;-0.7485;
-132.9000;0.1294;-0.7510;
-132.6000;0.1294;-0.7410;
-132.3000;0.1302;-0.7334;
-132.0000;0.1286;-0.7435;
-131.7000;0.1294;-0.7460;
-131.4000;0.1286;-0.7535;
-131.1000;0.1311;-0.7435;
-130.8000;0.1294;-0.7485;
-130.5000;0.1286;-0.7485;
-130.2000;0.1254;-0.7535;
-129.9000;0.1278;-0.7485;
-129.6000;0.1270;-0.7560;
-129.3000;0.1311;-0.7535;
-129.0000;0.1294;-0.7435;
-128.7000;0.1294;-0.7385;
-128.4000;0.1278;-0.7460;
-128.1000;0.1294;-0.7435;
-127.8000;0.1294;-0.7535;
-127.5000;0.1254;-0.7611;
-127.2000;0.1311;-0.7485;
-126.9000;0.1294;-0.7510;
-126.6000;0.1262;-0.7661;
-126.3000;0.1294;-0.7636;
-126.0000;0.1302;-0.7535;
-125.7000;0.1302;-0.7435;
-125.4000;0.1213;-0.7636;
-125.1000;0.1311;-0.7309;
-124.8000;0.1294;-0.7334;
-124.5000;0.1294;-0.7360;
-124.2000;0.1294;-0.7334;
-123.9000;0.1302;-0.7259;
-123.6000;0.1327;-0.7259;
-123.3000;0.1319;-0.7259;
-123.0000;0.1294;-0.7234;
-122.7000;0.1302;-0.7159;
-122.4000;0.1302;-0.7209;
-122.1000;0.1302;-0.7284;
-121.8000;0.1286;-0.7309;
-121.5000;0.1286;-0.7334;
-121.2000;0.1286;-0.7360;
-120.9000;0.1294;-0.7309;
-120.6000;0.1311;-0.7334;
-120.3000;0.1286;-0.7410;
-120.0000;0.1294;-0.7460;
-119.7000;0.1302;-0.7510;
-119.4000;0.1343;-0.7334;
-119.1000;0.1286;-0.7360;
-118.8000;0.1286;-0.7259;
-118.5000;0.1351;-0.7133;
-118.2000;0.1319;-0.7259;
-117.9000;0.1302;-0.7435;
-117.6000;0.1270;-0.7560;
-117.3000;0.1286;-0.7460;
-117.0000;0.1294;-0.7460;
-116.7000;0.1294;-0.7611;
-116.4000;0.1254;-0.7736;
-116.1000;0.1302;-0.7611;
-115.8000;0.1311;-0.7661;
-115.5000;0.1197;-0.7887;
-115.2000;0.1294;-0.7611;
-114.9000;0.1205;-0.7812;
-114.6000;0.1286;-0.7560;
-114.3000;0.1278;-0.7485;
-114.0000;0.1278;-0.7586;
-113.7000;0.1278;-0.7560;
-113.4000;0.1319;-0.7410;
-113.1000;0.1213;-0.7636;
-112.8000;0.1197;-0.7736;
-112.5000;0.1294;-0.7636;
-112.2000;0.1351;-0.7410;
-111.9000;0.1286;-0.7586;
-111.6000;0.1278;-0.7686;
-111.3000;0.1311;-0.7661;
-111.0000;0.1327;-0.7535;
-110.7000;0.1311;-0.7510;
-110.4000;0.1294;-0.7611;
-110.1000;0.1302;-0.7611;
-109.8000;0.1270;-0.7686;
-109.5000;0.1311;-0.7435;
-109.2000;0.1302;-0.7510;
-108.9000;0.1294;-0.7435;
-108.6000;0.1294;-0.7435;
-108.3000;0.1302;-0.7334;
-108.0000;0.1311;-0.7284;
-107.7000;0.1302;-0.7284;
-107.4000;0.1278;-0.7435;
-107.1000;0.1302;-0.7460;
-106.8000;0.1294;-0.7510;
-106.5000;0.1286;-0.7560;
-106.2000;0.1294;-0.7485;
-105.9000;0.1335;-0.7460;
-105.6000;0.1302;-0.7586;
-105.3000;0.1278;-0.7636;
-105.0000;0.1286;-0.7636;
-104.7000;0.1294;-0.7586;
-104.4000;0.1302;-0.7460;
-104.1000;0.1408;-0.7108;
-103.8000;0.1302;-0.7435;
-103.5000;0.1311;-0.7535;
-103.2000;0.1327;-0.7410;
-102.9000;0.1311;-0.7435;
-102.6000;0.1245;-0.7636;
-102.3000;0.1335;-0.7385;
-102.0000;0.1327;-0.7485;
-101.7000;0.1302;-0.7510;
-101.4000;0.1311;-0.7586;
-101.1000;0.1311;-0.7611;
-100.8000;0.1319;-0.7636;
-100.5000;0.1302;-0.7661;
-100.2000;0.1302;-0.7636;
-99.9000;0.1311;-0.7686;
-99.6000;0.1319;-0.7711;
-99.3000;0.1327;-0.7510;
-99.0000;0.1294;-0.7611;
-98.7000;0.1302;-0.7586;
-98.4000;0.1311;-0.7485;
-98.1000;0.1311;-0.7460;
-97.8000;0.1302;-0.7485;
-97.5000;0.1286;-0.7485;
-97.2000;0.1294;-0.7460;
-96.9000;0.1327;-0.7485;
-96.6000;0.1302;-0.7636;
-96.3000;0.1302;-0.7661;
-96.0000;0.1278;-0.7787;
-95.7000;0.1294;-0.7761;
-95.4000;0.1286;-0.7761;
-95.1000;0.1294;-0.7711;
-94.8000;0.1286;-0.7711;
-94.5000;0.1302;-0.7686;
-94.2000;0.1311;-0.7711;
-93.9000;0.1294;-0.7661;
-93.6000;0.1286;-0.7711;
-93.3000;0.1278;-0.7761;
-93.0000;0.1311;-0.7711;
-92.7000;0.1294;-0.7661;
-92.4000;0.1278;-0.7711;
-92.1000;0.1286;-0.7560;
-91.8000;0.1278;-0.7611;
-91.5000;0.1286;-0.7611;
-91.2000;0.1270;-0.7560;
-90.9000;0.1294;-0.7485;
-90.6000;0.1311;-0.7510;
-90.3000;0.1319;-0.7435;
-90.0000;0.1286;-0.7460;
-89.7000;0.1311;-0.7485;
-89.4000;0.1262;-0.7611;
-89.1000;0.1335;-0.7485;
-88.8000;0.1262;-0.7686;
-88.5000;0.1294;-0.7510;
-88.2000;0.1294;-0.7485;
-87.9000;0.1327;-0.7535;
-87.6000;0.1311;-0.7611;
-87.3000;0.1302;-0.7636;
-87.0000;0.1286;-0.7611;
-86.7000;0.1311;-0.7586;
-86.4000;0.1351;-0.7535;
-86.1000;0.1302;-0.7636;
-85.8000;0.1311;-0.7611;
-85.5000;0.1311;-0.7485;
-85.2000;0.1302;-0.7510;
-84.9000;0.1302;-0.7510;
-84.6000;0.1278;-0.7611;
-84.3000;0.1286;-0.7586;
-84.0000;0.1294;-0.7485;
-83.7000;0.1286;-0.7636;
-83.4000;0.1270;-0.7761;
-83.1000;0.1294;-0.7711;
-82.8000;0.1286;-0.7686;
-82.5000;0.1311;-0.7636;
-82.2000;0.1286;-0.7661;
-81.9000;0.1286;-0.7636;
-81.6000;0.1302;-0.7510;
-81.3000;0.1294;-0.7510;
-81.0000;0.1286;-0.7586;
-80.7000;0.1270;-0.7686;
-80.4000;0.1343;-0.7510;
-80.1000;0.1286;-0.7711;
-79.8000;0.1286;-0.7736;
-79.5000;0.1213;-0.7887;
-79.2000;0.1294;-0.7510;
-78.9000;0.1311;-0.7435;
-78.6000;0.1302;-0.7510;
-78.3000;0.1311;-0.7460;
-78.0000;0.1302;-0.7485;
-77.7000;0.1311;-0.7485;
-77.4000;0.1319;-0.7485;
-77.1000;0.1254;-0.7636;
-76.8000;0.1351;-0.7485;
-76.5000;0.1302;-0.7535;
-76.2000;0.1311;-0.7485;
-75.9000;0.1254;-0.7636;
-75.6000;0.1302;-0.7560;
-75.3000;0.1392;-0.7360;
-75.0000;0.1302;-0.7636;
-74.7000;0.1229;-0.7761;
-74.4000;0.1294;-0.7510;
-74.1000;0.1302;-0.7485;
-73.8000;0.1311;-0.7435;
-73.5000;0.1311;-0.7510;
-73.2000;0.1319;-0.7460;
-72.9000;0.1270;-0.7560;
-72.6000;0.1302;-0.7485;
-72.3000;0.1294;-0.7485;
-72.0000;0.1319;-0.7460;
-71.7000;0.1319;-0.7485;
-71.4000;0.1286;-0.7560;
-71.1000;0.1294;-0.7586;
-70.8000;0.1302;-0.7586;
-70.5000;0.1286;-0.7535;
-70.2000;0.1294;-0.7485;
-69.9000;0.1319;-0.7535;
-69.6000;0.1278;-0.7661;
-69.3000;0.1302;-0.7636;
-69.0000;0.1302;-0.7510;
-68.7000;0.1311;-0.7385;
-68.4000;0.1302;-0.7435;
-68.1000;0.1302;-0.7485;
-67.8000;0.1302;-0.7460;
-67.5000;0.1302;-0.7535;
-67.2000;0.1294;-0.7535;
-66.9000;0.1400;-0.7309;
-66.6000;0.1302;-0.7661;
-66.3000;0.1319;-0.7586;
-66.0000;0.1327;-0.7636;
-65.7000;0.1302;-0.7761;
-65.4000;0.1302;-0.7787;
-65.1000;0.1327;-0.7787;
-64.8000;0.1294;-0.7887;
-64.5000;0.1311;-0.7736;
-64.2000;0.1302;-0.7812;
-63.9000;0.1294;-0.7862;
-63.6000;0.1311;-0.7812;
-63.3000;0.1294;-0.7787;
-63.0000;0.1286;-0.7837;
-62.7000;0.1302;-0.7812;
-62.4000;0.1294;-0.7761;
-62.1000;0.1311;-0.7611;
-61.8000;0.1319;-0.7586;
-61.5000;0.1294;-0.7711;
-61.2000;0.1311;-0.7611;
-60.9000;0.1319;-0.7560;
-60.6000;0.1286;-0.7586;
-60.3000;0.1278;-0.7510;
-60.0000;0.1311;-0.7510;
-59.7000;0.1286;-0.7560;
-59.4000;0.1278;-0.7636;
-59.1000;0.1286;-0.7636;
-58.8000;0.1294;-0.7686;
-58.5000;0.1319;-0.7736;
-58.2000;0.1311;-0.7711;
-57.9000;0.1327;-0.7611;
-57.6000;0.1270;-0.7736;
-57.3000;0.1319;-0.7636;
-57.0000;0.1302;-0.7661;
-56.7000;0.1302;-0.7636;
-56.4000;0.1262;-0.7686;
-56.1000;0.1335;-0.7510;
-55.8000;0.1213;-0.7787;
-55.5000;0.1294;-0.7535;
-55.2000;0.1311;-0.7510;
-54.9000;0.1302;-0.7636;
-54.6000;0.1327;-0.7485;
-54.3000;0.1302;-0.7560;
-54.0000;0.1294;-0.7586;
-53.7000;0.1278;-0.7711;
-53.4000;0.1294;-0.7636;
-53.1000;0.1311;-0.7560;
-52.8000;0.1343;-0.7510;
-52.5000;0.1302;-0.7586;
-52.2000;0.1319;-0.7535;
-51.9000;0.1286;-0.7611;
-51.6000;0.1351;-0.7435;
-51.3000;0.1351;-0.7309;
-51.0000;0.1302;-0.7334;
-50.7000;0.1188;-0.7636;
-50.4000;0.1294;-0.7284;
-50.1000;0.1286;-0.7385;
-49.8000;0.1221;-0.7510;
-49.5000;0.1294;-0.7410;
-49.2000;0.1286;-0.7510;
-48.9000;0.1278;-0.7510;
-48.6000;0.1311;-0.7435;
-48.3000;0.1278;-0.7435;
-48.0000;0.1286;-0.7460;
-47.7000;0.1294;-0.7485;
-47.4000;0.1302;-0.7485;
-47.1000;0.1319;-0.7435;
-46.8000;0.1270;-0.7560;
-46.5000;0.1294;-0.7360;
-46.2000;0.1286;-0.7460;
-45.9000;0.1294;-0.7385;
-45.6000;0.1311;-0.7460;
-45.3000;0.1311;-0.7435;
-45.0000;0.1294;-0.7510;
-44.7000;0.1311;-0.7460;
-44.4000;0.1351;-0.7435;
-44.1000;0.1294;-0.7560;
-43.8000;0.1278;-0.7711;
-43.5000;0.1302;-0.7661;
-43.2000;0.1359;-0.7510;
-42.9000;0.1278;-0.7736;
-42.6000;0.1302;-0.7611;
-42.3000;0.1319;-0.7586;
-42.0000;0.1294;-0.7711;
-41.7000;0.1319;-0.7661;
-41.4000;0.1286;-0.7686;
-41.1000;0.1294;-0.7686;
-40.8000;0.1302;-0.7711;
-40.5000;0.1302;-0.7611;
-40.2000;0.1294;-0.7636;
-39.9000;0.1319;-0.7636;
-39.6000;0.1311;-0.7661;
-39.3000;0.1294;-0.7611;
-39.0000;0.1302;-0.7510;
-38.7000;0.1294;-0.7485;
-38.4000;0.1278;-0.7485;
-38.1000;0.1311;-0.7410;
-37.8000;0.1278;-0.7485;
-37.5000;0.1311;-0.7485;
-37.2000;0.1294;-0.7535;
-36.9000;0.1302;-0.7535;
-36.6000;0.1311;-0.7510;
-36.3000;0.1286;-0.7636;
-36.0000;0.1270;-0.7586;
-35.7000;0.1311;-0.7485;
-35.4000;0.1343;-0.7485;
-35.1000;0.1311;-0.7560;
-34.8000;0.1270;-0.7686;
-34.5000;0.1278;-0.7611;
-34.2000;0.1311;-0.7586;
-33.9000;0.1278;-0.7611;
-33.6000;0.1302;-0.7586;
-33.3000;0.1302;-0.7586;
-33.0000;0.1311;-0.7560;
-32.7000;0.1311;-0.7510;
-32.4000;0.1319;-0.7460;
-32.1000;0.1294;-0.7510;
-31.8000;0.1319;-0.7510;
-31.5000;0.1302;-0.7586;
-31.2000;0.1302;-0.7611;
-30.9000;0.1319;-0.7661;
-30.6000;0.1327;-0.7611;
-30.3000;0.1327;-0.7661;
-30.0000;0.1294;-0.7711;
-29.7000;0.1319;-0.7586;
-29.4000;0.1311;-0.7510;
-29.1000;0.1311;-0.7460;
-28.8000;0.1286;-0.7535;
-28.5000;0.1302;-0.7485;
-28.2000;0.1302;-0.7485;
-27.9000;0.1319;-0.7435;
-27.6000;0.1278;-0.7435;
-27.3000;0.1302;-0.7385;
-27.0000;0.1294;-0.7435;
-26.7000;0.1286;-0.7535;
-26.4000;0.1335;-0.7460;
-26.1000;0.1311;-0.7510;
-25.8000;0.1294;-0.7560;
-25.5000;0.1286;-0.7485;
-25.2000;0.1254;-0.7661;
-24.9000;0.1294;-0.7586;
-24.6000;0.1302;-0.7535;
-24.3000;0.1327;-0.7485;
-24.0000;0.1376;-0.7334;
-23.7000;0.1278;-0.7661;
-23.4000;0.1262;-0.7686;
-23.1000;0.1311;-0.7560;
-22.8000;0.1327;-0.7460;
-22.5000;0.1286;-0.7560;
-22.2000;0.1286;-0.7586;
-21.9000;0.1302;-0.7535;
-21.6000;0.1302;-0.7586;
-21.3000;0.1319;-0.7560;
-21.0000;0.1302;-0.7611;
-20.7000;0.1311;-0.7535;
-20.4000;0.1359;-0.7410;
-20.1000;0.1302;-0.7510;
-19.8000;0.1302;-0.7510;
-19.5000;0.1302;-0.7535;
-19.2000;0.1221;-0.7736;
-18.9000;0.1221;-0.7736;
-18.6000;0.1294;-0.7636;
-18.3000;0.1327;-0.7510;
-18.0000;0.1294;-0.7535;
-17.7000;0.1270;-0.7535;
-17.4000;0.1319;-0.7334;
-17.1000;0.1278;-0.7535;
-16.8000;0.1302;-0.7560;
-16.5000;0.1286;-0.7535;
-16.2000;0.1286;-0.7661;
-15.9000;0.1294;-0.7736;
-15.6000;0.1294;-0.7711;
-15.3000;0.1278;-0.7736;
-15.0000;0.1311;-0.7761;
-14.7000;0.1286;-0.7862;
-14.4000;0.1278;-0.7937;
-14.1000;0.1286;-0.7962;
-13.8000;0.1286;-0.7962;
-13.5000;0.1294;-0.7962;
-13.2000;0.1286;-0.8013;
-12.9000;0.1302;-0.7837;
-12.6000;0.1335;-0.7686;
-12.3000;0.1302;-0.7611;
-12.0000;0.1311;-0.7686;
-11.7000;0.1311;-0.7711;
-11.4000;0.1335;-0.7686;
-11.1000;0.1302;-0.7787;
-10.8000;0.1270;-0.7862;
-10.5000;0.1245;-0.7912;
-10.2000;0.1294;-0.7837;
-9.9000;0.1294;-0.7862;
-9.6000;0.1311;-0.7837;
-9.3000;0.1294;-0.7912;
-9.0000;0.1302;-0.7761;
-8.7000;0.1294;-0.7761;
-8.4000;0.1262;-0.7887;
-8.1000;0.1294;-0.7761;
-7.8000;0.1286;-0.7812;
-7.5000;0.1319;-0.7837;
-7.2000;0.1294;-0.7912;
-6.9000;0.1302;-0.7887;
-6.6000;0.1311;-0.7761;
-6.3000;0.1319;-0.7787;
-6.0000;0.1311;-0.7812;
-5.7000;0.1294;-0.7812;
-5.4000;0.1294;-0.7812;
-5.1000;0.1311;-0.7837;
-4.8000;0.1278;-0.7962;
-4.5000;0.1302;-0.7887;
-4.2000;0.1302;-0.7937;
-3.9000;0.1270;-0.7962;
-3.6000;0.1302;-0.7887;
-3.3000;0.1327;-0.7812;
-3.0000;0.1286;-0.7937;
-2.7000;0.1327;-0.7837;
-2.4000;0.1294;-0.7837;
-2.1000;0.1294;-0.7837;
-1.8000;0.1302;-0.7711;
-1.5000;0.1302;-0.7812;
-1.2000;0.1343;-0.7787;
-0.9000;0.1311;-0.7736;
-0.6000;0.1302;-0.7761;
-0.3000;0.1294;-0.7761;
0.0000;0.1294;-0.7761;
0.3000;0.1311;-0.7862;
0.6000;0.1327;-0.7761;
0.9000;0.1351;-0.7535;
1.2000;0.1368;-0.7209;
1.5000;0.1376;-0.6983;
1.8000;0.1368;-0.6832;
2.1000;0.1400;-0.6656;
2.4000;0.1408;-0.6430;
2.7000;0.1416;-0.6254;
3.0000;0.1408;-0.6204;
3.3000;0.1416;-0.6154;
3.6000;0.1392;-0.6229;
3.9000;0.1441;-0.6028;
4.2000;0.1449;-0.6154;
4.5000;0.1433;-0.6028;
4.8000;0.1449;-0.5928;
5.1000;0.1457;-0.5928;
5.4000;0.1433;-0.5878;
5.7000;0.1433;-0.5777;
6.0000;0.1457;-0.5652;
6.3000;0.1473;-0.5601;
6.6000;0.1449;-0.5601;
6.9000;0.1449;-0.5476;
7.2000;0.1441;-0.5451;
7.5000;0.1449;-0.5325;
7.8000;0.1449;-0.5400;
8.1000;0.1457;-0.5425;
8.4000;0.1473;-0.5400;
8.7000;0.1441;-0.5451;
9.0000;0.1457;-0.5551;
9.3000;0.1457;-0.5476;
9.6000;0.1449;-0.5425;
9.9000;0.1457;-0.5400;
10.2000;0.1465;-0.5350;
10.5000;0.1457;-0.5250;
10.8000;0.1441;-0.5375;
11.1000;0.1465;-0.5300;
11.4000;0.1457;-0.5300;
11.7000;0.1425;-0.5375;
12.0000;0.1457;-0.5350;
12.3000;0.1449;-0.5400;
12.6000;0.1457;-0.5325;
12.9000;0.1465;-0.5199;
13.2000;0.1449;-0.5149;
13.5000;0.1473;-0.5049;
13.8000;0.1457;-0.5124;
14.1000;0.1473;-0.5099;
14.4000;0.1514;-0.4898;
14.7000;0.1433;-0.5049;
15.0000;0.1473;-0.4998;
15.3000;0.1457;-0.5024;
15.6000;0.1441;-0.5024;
15.9000;0.1425;-0.5049;
16.2000;0.1457;-0.4923;
16.5000;0.1457;-0.4973;
16.8000;0.1457;-0.5024;
17.1000;0.1457;-0.5024;
17.4000;0.1449;-0.4973;
17.7000;0.1457;-0.4948;
18.0000;0.1457;-0.4898;
18.3000;0.1441;-0.4948;
18.6000;0.1457;-0.4898;
18.9000;0.1587;-0.4571;
19.2000;0.1481;-0.4848;
19.5000;0.1457;-0.4873;
19.8000;0.1425;-0.4998;
20.1000;0.1465;-0.4973;
20.4000;0.1433;-0.5024;
20.7000;0.1449;-0.4998;
21.0000;0.1441;-0.5024;
21.3000;0.1465;-0.4973;
21.6000;0.1473;-0.5024;
21.9000;0.1481;-0.4998;
22.2000;0.1465;-0.5124;
22.5000;0.1506;-0.5049;
22.8000;0.1433;-0.5199;
23.1000;0.1441;-0.5174;
23.4000;0.1457;-0.5225;
23.7000;0.1449;-0.5275;
24.0000;0.1522;-0.5049;
24.3000;0.1465;-0.5049;
24.6000;0.1441;-0.5099;
24.9000;0.1449;-0.5149;
25.2000;0.1465;-0.5174;
25.5000;0.1465;-0.5174;
25.8000;0.1465;-0.5149;
26.1000;0.1563;-0.4873;
26.4000;0.1449;-0.5124;
26.7000;0.1457;-0.5149;
27.0000;0.1449;-0.5124;
27.3000;0.1449;-0.5124;
27.6000;0.1465;-0.4973;
27.9000;0.1481;-0.4948;
28.2000;0.1473;-0.5024;
28.5000;0.1457;-0.4998;
28.8000;0.1481;-0.4848;
29.1000;0.1441;-0.4948;
29.4000;0.1449;-0.4998;
29.7000;0.1449;-0.4973;
30.0000;0.1416;-0.4973;
30.3000;0.1408;-0.4923;
30.6000;0.1457;-0.4923;
30.9000;0.1457;-0.4923;
31.2000;0.1425;-0.4998;
31.5000;0.1449;-0.5024;
31.8000;0.1457;-0.4948;
32.1000;0.1425;-0.5024;
32.4000;0.1449;-0.4948;
32.7000;0.1449;-0.4998;
33.0000;0.1465;-0.5049;
33.3000;0.1465;-0.5149;
33.6000;0.1433;-0.5199;
33.9000;0.1465;-0.5074;
34.2000;0.1473;-0.5049;
34.5000;0.1457;-0.5099;
34.8000;0.1449;-0.5099;
35.1000;0.1457;-0.5074;
35.4000;0.1433;-0.5024;
35.7000;0.1498;-0.4898;
36.0000;0.1457;-0.4948;
36.3000;0.1465;-0.4973;
36.6000;0.1465;-0.4873;
36.9000;0.1425;-0.4998;
37.2000;0.1449;-0.4998;
37.5000;0.1449;-0.4973;
37.8000;0.1457;-0.4898;
38.1000;0.1481;-0.4798;
38.4000;0.1465;-0.5024;
38.7000;0.1425;-0.5174;
39.0000;0.1457;-0.4998;
39.3000;0.1457;-0.5024;
39.6000;0.1457;-0.4948;
39.9000;0.1416;-0.4998;
40.2000;0.1408;-0.5049;
40.5000;0.1441;-0.5074;
40.8000;0.1481;-0.5024;
41.1000;0.1449;-0.5174;
41.4000;0.1425;-0.5225;
41.7000;0.1473;-0.4998;
42.0000;0.1465;-0.4998;
42.3000;0.1384;-0.5174;
42.6000;0.1449;-0.4823;
42.9000;0.1441;-0.4823;
43.2000;0.1465;-0.4747;
43.5000;0.1465;-0.4848;
43.8000;0.1433;-0.4998;
44.1000;0.1473;-0.4998;
44.4000;0.1449;-0.5099;
44.7000;0.1441;-0.5024;
45.0000;0.1441;-0.5049;
45.3000;0.1449;-0.5124;
45.6000;0.1400;-0.5174;
45.9000;0.1441;-0.5049;
46.2000;0.1441;-0.5124;
46.5000;0.1441;-0.5124;
46.8000;0.1522;-0.4948;
47.1000;0.1441;-0.5099;
47.4000;0.1441;-0.5124;
47.7000;0.1433;-0.5074;
48.0000;0.1465;-0.5099;
48.3000;0.1457;-0.5074;
48.6000;0.1465;-0.5049;
48.9000;0.1457;-0.5049;
49.2000;0.1441;-0.5099;
49.5000;0.1465;-0.5099;
49.8000;0.1457;-0.5149;
50.1000;0.1465;-0.5149;
50.4000;0.1481;-0.5124;
50.7000;0.1465;-0.5124;
51.0000;0.1457;-0.4973;
51.3000;0.1457;-0.4998;
51.6000;0.1473;-0.4948;
51.9000;0.1457;-0.4973;
52.2000;0.1449;-0.4973;
52.5000;0.1457;-0.4948;
52.8000;0.1449;-0.5024;
53.1000;0.1449;-0.5024;
53.4000;0.1457;-0.5099;
53.7000;0.1465;-0.5124;
54.0000;0.1441;-0.5149;
54.3000;0.1522;-0.4998;
54.6000;0.1465;-0.5149;
54.9000;0.1506;-0.4998;
55.2000;0.1457;-0.4998;
55.5000;0.1449;-0.5124;
55.8000;0.1473;-0.5124;
56.1000;0.1457;-0.5149;
56.4000;0.1457;-0.5225;
56.7000;0.1465;-0.5174;
57.0000;0.1457;-0.5325;
57.3000;0.1473;-0.5225;
57.6000;0.1441;-0.5275;
57.9000;0.1481;-0.5250;
58.2000;0.1449;-0.5300;
58.5000;0.1457;-0.5250;
58.8000;0.1457;-0.5250;
59.1000;0.1465;-0.5225;
59.4000;0.1490;-0.5174;
59.7000;0.1457;-0.5275;
60.0000;0.1457;-0.5199;
60.3000;0.1441;-0.5099;
60.6000;0.1433;-0.5149;
60.9000;0.1481;-0.4948;
61.2000;0.1441;-0.5049;
61.5000;0.1457;-0.4998;
61.8000;0.1449;-0.4873;
62.1000;0.1425;-0.4948;
62.4000;0.1457;-0.4898;
62.7000;0.1449;-0.4998;
63.0000;0.1433;-0.4923;
63.3000;0.1465;-0.4898;
63.6000;0.1465;-0.4948;
63.9000;0.1506;-0.4873;
64.2000;0.1457;-0.4948;
64.5000;0.1465;-0.4948;
64.8000;0.1449;-0.5049;
65.1000;0.1449;-0.5149;
65.4000;0.1433;-0.5149;
65.7000;0.1498;-0.4948;
66.0000;0.1473;-0.5074;
66.3000;0.1571;-0.4772;
66.6000;0.1457;-0.5074;
66.9000;0.1490;-0.5024;
67.2000;0.1481;-0.4898;
67.5000;0.1449;-0.4948;
67.8000;0.1449;-0.4948;
68.1000;0.1433;-0.4948;
68.4000;0.1457;-0.4923;
68.7000;0.1449;-0.4848;
69.0000;0.1457;-0.4873;
69.3000;0.1449;-0.4873;
69.6000;0.1465;-0.4823;
69.9000;0.1481;-0.4823;
70.2000;0.1449;-0.4823;
70.5000;0.1465;-0.4672;
70.8000;0.1457;-0.4747;
71.1000;0.1425;-0.4873;
71.4000;0.1465;-0.4772;
71.7000;0.1441;-0.4848;
72.0000;0.1465;-0.4948;
72.3000;0.1400;-0.5074;
72.6000;0.1425;-0.5049;
72.9000;0.1465;-0.4898;
73.2000;0.1473;-0.4798;
73.5000;0.1449;-0.4923;
73.8000;0.1408;-0.4998;
74.1000;0.1481;-0.4873;
74.4000;0.1465;-0.4923;
74.7000;0.1473;-0.4948;
75.0000;0.1457;-0.4873;
75.3000;0.1416;-0.4898;
75.6000;0.1457;-0.4848;
75.9000;0.1416;-0.4848;
76.2000;0.1449;-0.4798;
76.5000;0.1449;-0.4722;
76.8000;0.1457;-0.4722;
77.1000;0.1457;-0.4747;
77.4000;0.1433;-0.4772;
77.7000;0.1441;-0.4697;
78.0000;0.1441;-0.4823;
78.3000;0.1433;-0.5024;
78.6000;0.1449;-0.4948;
78.9000;0.1400;-0.5074;
79.2000;0.1425;-0.4973;
79.5000;0.1449;-0.4973;
79.8000;0.1441;-0.4948;
80.1000;0.1457;-0.4973;
80.4000;0.1449;-0.5099;
80.7000;0.1441;-0.5074;
81.0000;0.1433;-0.5099;
81.3000;0.1449;-0.4998;
81.6000;0.1514;-0.4772;
81.9000;0.1441;-0.4898;
82.2000;0.1441;-0.4898;
82.5000;0.1441;-0.4923;
82.8000;0.1449;-0.4948;
83.1000;0.1465;-0.4998;
83.4000;0.1465;-0.4923;
83.7000;0.1449;-0.4923;
84.0000;0.1465;-0.4848;
84.3000;0.1449;-0.4923;
84.6000;0.1457;-0.4823;
84.9000;0.1473;-0.4823;
85.2000;0.1449;-0.4923;
85.5000;0.1473;-0.4923;
85.8000;0.1449;-0.5049;
86.1000;0.1473;-0.5024;
86.4000;0.1465;-0.4998;
86.7000;0.1433;-0.5124;
87.0000;0.1441;-0.4973;
87.3000;0.1441;-0.4998;
87.6000;0.1433;-0.5099;
87.9000;0.1465;-0.5024;
88.2000;0.1465;-0.4998;
88.5000;0.1457;-0.4998;
88.8000;0.1481;-0.4923;
89.1000;0.1465;-0.4923;
89.4000;0.1457;-0.4973;
89.7000;0.1359;-0.5124;
90.0000;0.1433;-0.4848;
90.3000;0.1473;-0.4722;
90.6000;0.1449;-0.4848;
90.9000;0.1425;-0.4923;
91.2000;0.1571;-0.4597;
91.5000;0.1457;-0.4998;
91.8000;0.1441;-0.4948;
92.1000;0.1400;-0.4998;
92.4000;0.1441;-0.4948;
92.7000;0.1449;-0.4973;
93.0000;0.1449;-0.4898;
93.3000;0.1449;-0.4998;
93.6000;0.1425;-0.5024;
93.9000;0.1465;-0.4923;
94.2000;0.1457;-0.4898;
94.5000;0.1441;-0.4973;
94.8000;0.1433;-0.5024;
95.1000;0.1408;-0.5174;
95.4000;0.1441;-0.5124;
95.7000;0.1392;-0.5300;
96.0000;0.1449;-0.5275;
96.3000;0.1465;-0.5225;
96.6000;0.1506;-0.5099;
96.9000;0.1449;-0.5149;
97.2000;0.1425;-0.5250;
97.5000;0.1465;-0.5074;
97.8000;0.1473;-0.4998;
98.1000;0.1490;-0.4873;
98.4000;0.1457;-0.4898;
98.7000;0.1351;-0.5225;
99.0000;0.1449;-0.4973;
99.3000;0.1473;-0.4948;
99.6000;0.1465;-0.4948;
99.9000;0.1457;-0.4998;
100.2000;0.1457;-0.4898;
100.5000;0.1457;-0.4923;
100.8000;0.1433;-0.4973;
101.1000;0.1449;-0.4973;
101.4000;0.1449;-0.5124;
101.7000;0.1457;-0.5024;
102.0000;0.1433;-0.5199;
102.3000;0.1425;-0.5174;
102.6000;0.1449;-0.5174;
102.9000;0.1457;-0.5074;
103.2000;0.1449;-0.5049;
103.5000;0.1457;-0.5024;
103.8000;0.1433;-0.5049;
104.1000;0.1457;-0.5049;
104.4000;0.1498;-0.4923;
104.7000;0.1449;-0.4973;
105.0000;0.1441;-0.4923;
105.3000;0.1449;-0.4923;
105.6000;0.1441;-0.4873;
105.9000;0.1392;-0.5099;
106.2000;0.1433;-0.4898;
106.5000;0.1449;-0.4948;
106.8000;0.1441;-0.5049;
107.1000;0.1457;-0.4973;
107.4000;0.1465;-0.4973;
107.7000;0.1457;-0.4948;
108.0000;0.1433;-0.4973;
108.3000;0.1457;-0.4973;
108.6000;0.1457;-0.5024;
108.9000;0.1457;-0.5074;
109.2000;0.1449;-0.5074;
109.5000;0.1473;-0.5024;
109.8000;0.1457;-0.5049;
110.1000;0.1441;-0.5049;
110.4000;0.1457;-0.4923;
110.7000;0.1457;-0.4923;
111.0000;0.1449;-0.4998;
111.3000;0.1433;-0.5074;
111.6000;0.1433;-0.5074;
111.9000;0.1441;-0.4998;
112.2000;0.1490;-0.4948;
112.5000;0.1425;-0.5149;
112.8000;0.1457;-0.5024;
113.1000;0.1457;-0.4923;
113.4000;0.1441;-0.4873;
113.7000;0.1490;-0.4848;
114.0000;0.1465;-0.5024;
114.3000;0.1457;-0.4998;
114.6000;0.1441;-0.4948;
114.9000;0.1441;-0.5049;
115.2000;0.1449;-0.5024;
115.5000;0.1449;-0.4973;
115.8000;0.1465;-0.4948;
116.1000;0.1433;-0.5024;
116.4000;0.1425;-0.5074;
116.7000;0.1400;-0.5124;
117.0000;0.1506;-0.4873;
117.3000;0.1425;-0.5124;
117.6000;0.1457;-0.5124;
117.9000;0.1441;-0.5199;
118.2000;0.1457;-0.5149;
118.5000;0.1449;-0.5199;
118.8000;0.1449;-0.5225;
119.1000;0.1457;-0.5199;
119.4000;0.1457;-0.5149;
119.7000;0.1449;-0.5099;
120.0000;0.1457;-0.5099;
120.3000;0.1441;-0.5099;
120.6000;0.1457;-0.5124;
120.9000;0.1473;-0.5049;
121.2000;0.1457;-0.5074;
121.5000;0.1441;-0.5049;
121.8000;0.1465;-0.4973;
122.1000;0.1441;-0.5024;
122.4000;0.1449;-0.4998;
122.7000;0.1441;-0.5049;
123.0000;0.1449;-0.5049;
123.3000;0.1481;-0.4948;
123.6000;0.1465;-0.4998;
123.9000;0.1449;-0.5049;
124.2000;0.1441;-0.5074;
124.5000;0.1457;-0.4973;
124.8000;0.1441;-0.5049;
125.1000;0.1449;-0.5074;
125.4000;0.1433;-0.5149;
125.7000;0.1449;-0.5124;
126.0000;0.1433;-0.5149;
126.3000;0.1425;-0.5124;
126.6000;0.1441;-0.5049;
126.9000;0.1441;-0.4973;
127.2000;0.1457;-0.4898;
127.5000;0.1457;-0.4898;
127.8000;0.1465;-0.4848;
128.1000;0.1457;-0.4898;
128.4000;0.1449;-0.4823;
128.7000;0.1441;-0.4848;
129.0000;0.1441;-0.4998;
129.3000;0.1449;-0.5049;
129.6000;0.1392;-0.5149;
129.9000;0.1465;-0.4873;
130.2000;0.1465;-0.4873;
130.5000;0.1449;-0.4923;
130.8000;0.1465;-0.4823;
131.1000;0.1465;-0.4722;
131.4000;0.1457;-0.4697;
131.7000;0.1481;-0.4647;
132.0000;0.1441;-0.4798;
132.3000;0.1457;-0.4798;
132.6000;0.1441;-0.4873;
132.9000;0.1441;-0.4848;
133.2000;0.1498;-0.4697;
133.5000;0.1465;-0.4948;
133.8000;0.1457;-0.4948;
134.1000;0.1441;-0.4923;
134.4000;0.1449;-0.4873;
134.7000;0.1457;-0.4873;
135.0000;0.1441;-0.4973;
135.3000;0.1449;-0.4973;
135.6000;0.1441;-0.5049;
135.9000;0.1457;-0.4973;
136.2000;0.1457;-0.4948;
136.5000;0.1449;-0.4973;
136.8000;0.1433;-0.5024;
137.1000;0.1449;-0.4898;
137.4000;0.1433;-0.4998;
137.7000;0.1441;-0.4923;
138.0000;0.1441;-0.4923;
138.3000;0.1457;-0.4823;
138.6000;0.1449;-0.4848;
138.9000;0.1416;-0.4923;
139.2000;0.1441;-0.4998;
139.5000;0.1441;-0.5149;
139.8000;0.1457;-0.5174;
140.1000;0.1433;-0.5174;
140.4000;0.1449;-0.5074;
140.7000;0.1433;-0.5049;
141.0000;0.1441;-0.5124;
141.3000;0.1449;-0.5124;
141.6000;0.1441;-0.5124;
141.9000;0.1449;-0.5049;
142.2000;0.1425;-0.5149;
142.5000;0.1441;-0.5124;
142.8000;0.1449;-0.5124;
143.1000;0.1416;-0.5124;
143.4000;0.1433;-0.5049;
143.7000;0.1457;-0.4948;
144.0000;0.1408;-0.5049;
144.3000;0.1490;-0.4873;
144.6000;0.1465;-0.4898;
144.9000;0.1481;-0.4798;
145.2000;0.1522;-0.4672;
145.5000;0.1457;-0.4948;
145.8000;0.1433;-0.4898;
146.1000;0.1359;-0.5149;
146.4000;0.1449;-0.4973;
146.7000;0.1449;-0.4998;
147.0000;0.1506;-0.4848;
147.3000;0.1457;-0.4923;
147.6000;0.1441;-0.4873;
147.9000;0.1408;-0.5049;
148.2000;0.1441;-0.4998;
148.5000;0.1465;-0.4873;
148.8000;0.1433;-0.4998;
149.1000;0.1506;-0.4898;
149.4000;0.1481;-0.4948;
149.7000;0.1457;-0.5049;
150.0000;0.1571;-0.4798;
150.3000;0.1433;-0.5074;
150.6000;0.1392;-0.5124;
150.9000;0.1490;-0.4848;
151.2000;0.1368;-0.5250;
151.5000;0.1408;-0.5049;
151.8000;0.1433;-0.4948;
152.1000;0.1449;-0.4973;
152.4000;0.1473;-0.4923;
152.7000;0.1441;-0.4998;
153.0000;0.1433;-0.4998;
153.3000;0.1433;-0.5024;
153.6000;0.1441;-0.4923;
153.9000;0.1457;-0.4798;
154.2000;0.1457;-0.4722;
154.5000;0.1433;-0.4772;
154.8000;0.1433;-0.4798;
155.1000;0.1465;-0.4697;
155.4000;0.1481;-0.4747;
155.7000;0.1473;-0.4798;
156.0000;0.1449;-0.4923;
156.3000;0.1465;-0.4923;
156.6000;0.1441;-0.4923;
156.9000;0.1433;-0.4898;
157.2000;0.1425;-0.4848;
157.5000;0.1473;-0.4747;
157.8000;0.1457;-0.4747;
158.1000;0.1465;-0.4697;
158.4000;0.1441;-0.4873;
158.7000;0.1490;-0.4747;
159.0000;0.1457;-0.4772;
159.3000;0.1449;-0.4722;
159.6000;0.1465;-0.4722;
159.9000;0.1441;-0.4823;
160.2000;0.1465;-0.4722;
160.5000;0.1441;-0.4848;
160.8000;0.1498;-0.4672;
161.1000;0.1449;-0.4848;
161.4000;0.1490;-0.4697;
161.7000;0.1481;-0.4697;
162.0000;0.1441;-0.4798;
162.3000;0.1359;-0.5049;
162.6000;0.1490;-0.4747;
162.9000;0.1384;-0.5099;
163.2000;0.1425;-0.5074;
163.5000;0.1547;-0.4722;
163.8000;0.1449;-0.5024;
164.1000;0.1433;-0.4973;
164.4000;0.1465;-0.4923;
164.7000;0.1433;-0.5049;
165.0000;0.1441;-0.5099;
165.3000;0.1457;-0.5049;
165.6000;0.1425;-0.5149;
165.9000;0.1457;-0.5124;
166.2000;0.1416;-0.5225;
166.5000;0.1555;-0.4998;
166.8000;0.1547;-0.5049;
167.1000;0.1400;-0.5350;
167.4000;0.1433;-0.5174;
167.7000;0.1481;-0.5074;
168.0000;0.1449;-0.5199;
168.3000;0.1359;-0.5400;
168.6000;0.1465;-0.5124;
168.9000;0.1465;-0.4998;
169.2000;0.1547;-0.4747;
169.5000;0.1441;-0.5124;
169.8000;0.1368;-0.5149;
170.1000;0.1449;-0.4998;
170.4000;0.1441;-0.5149;
170.7000;0.1449;-0.5124;
171.0000;0.1457;-0.5074;
171.3000;0.1465;-0.5024;
171.6000;0.1457;-0.4998;
171.9000;0.1457;-0.4848;
172.2000;0.1449;-0.4772;
172.5000;0.1457;-0.4747;
172.8000;0.1449;-0.4772;
173.1000;0.1441;-0.4848;
173.4000;0.1457;-0.4873;
173.7000;0.1457;-0.4923;
174.0000;0.1416;-0.5124;
174.3000;0.1441;-0.4973;
174.6000;0.1457;-0.5049;
174.9000;0.1449;-0.5124;
175.2000;0.1441;-0.5099;
175.5000;0.1465;-0.5049;
175.8000;0.1457;-0.5074;
176.1000;0.1433;-0.5099;
176.4000;0.1433;-0.5074;
176.7000;0.1441;-0.5049;
177.0000;0.1441;-0.4998;
177.3000;0.1441;-0.4973;
177.6000;0.1400;-0.4998;
177.9000;0.1441;-0.4898;
178.2000;0.1457;-0.4923;
178.5000;0.1433;-0.5049;
178.8000;0.1441;-0.4998;
179.1000;0.1457;-0.5024;
179.4000;0.1441;-0.5124;
179.7000;0.1449;-0.5099;
180.0000;0.1441;-0.5149;
180.3000;0.1441;-0.5149;
180.6000;0.1457;-0.5074;
180.9000;0.1449;-0.5124;
181.2000;0.1400;-0.5149;
181.5000;0.1449;-0.5024;
181.8000;0.1473;-0.4973;
182.1000;0.1433;-0.5049;
182.4000;0.1416;-0.5049;
182.7000;0.1425;-0.5099;
183.0000;0.1522;-0.4923;
183.3000;0.1449;-0.5199;
183.6000;0.1433;-0.5199;
183.9000;0.1457;-0.5049;
184.2000;0.1473;-0.4973;
184.5000;0.1441;-0.5099;
184.8000;0.1481;-0.4948;
185.1000;0.1441;-0.5074;
185.4000;0.1449;-0.5124;
185.7000;0.1465;-0.5124;
186.0000;0.1384;-0.5300;
186.3000;0.1449;-0.5074;
186.6000;0.1465;-0.5149;
186.9000;0.1465;-0.5174;
187.2000;0.1473;-0.5099;
187.5000;0.1473;-0.5024;
187.8000;0.1473;-0.4973;
188.1000;0.1498;-0.4848;
188.4000;0.1441;-0.4998;
188.7000;0.1457;-0.4973;
189.0000;0.1506;-0.4873;
189.3000;0.1481;-0.4923;
189.6000;0.1465;-0.4948;
189.9000;0.1449;-0.4948;
190.2000;0.1449;-0.4948;
190.5000;0.1465;-0.4948;
190.8000;0.1481;-0.4948;
191.1000;0.1408;-0.5225;
191.4000;0.1433;-0.5124;
191.7000;0.1286;-0.5476;
192.0000;0.1473;-0.4998;
192.3000;0.1384;-0.5149;
192.6000;0.1441;-0.5024;
192.9000;0.1408;-0.5124;
193.2000;0.1522;-0.4873;
193.5000;0.1449;-0.5024;
193.8000;0.1449;-0.5024;
194.1000;0.1441;-0.5049;
194.4000;0.1449;-0.4973;
194.7000;0.1441;-0.5024;
195.0000;0.1449;-0.4948;
195.3000;0.1425;-0.4998;
195.6000;0.1441;-0.4898;
195.9000;0.1465;-0.4973;
196.2000;0.1425;-0.5074;
196.5000;0.1416;-0.5074;
196.8000;0.1433;-0.5024;
197.1000;0.1457;-0.5049;
197.4000;0.1449;-0.4973;
197.7000;0.1465;-0.4998;
198.0000;0.1433;-0.5024;
198.3000;0.1449;-0.4898;
198.6000;0.1457;-0.4923;
198.9000;0.1392;-0.5124;
199.2000;0.1449;-0.5024;
199.5000;0.1441;-0.4973;
199.8000;0.1465;-0.4948;
200.1000;0.1465;-0.4948;
200.4000;0.1425;-0.4998;
200.7000;0.1465;-0.4973;
201.0000;0.1457;-0.4998;
201.3000;0.1441;-0.5074;
201.6000;0.1473;-0.5024;
201.9000;0.1449;-0.5225;
202.2000;0.1433;-0.5199;
202.5000;0.1449;-0.5199;
202.8000;0.1441;-0.5099;
203.1000;0.1457;-0.4998;
203.4000;0.1457;-0.4873;
203.7000;0.1449;-0.4873;
204.0000;0.1433;-0.5049;
204.3000;0.1441;-0.4973;
204.6000;0.1441;-0.4973;
204.9000;0.1457;-0.4823;
205.2000;0.1392;-0.5049;
205.5000;0.1481;-0.4772;
205.8000;0.1449;-0.4798;
206.1000;0.1441;-0.4898;
206.4000;0.1433;-0.5074;
206.7000;0.1457;-0.5049;
207.0000;0.1433;-0.5099;
207.3000;0.1506;-0.4898;
207.6000;0.1457;-0.5024;
207.9000;0.1433;-0.5124;
208.2000;0.1465;-0.5074;
208.5000;0.1490;-0.5024;
208.8000;0.1449;-0.5074;
209.1000;0.1449;-0.5149;
209.4000;0.1449;-0.5099;
209.7000;0.1473;-0.5074;
210.0000;0.1465;-0.5049;
210.3000;0.1449;-0.5074;
210.6000;0.1449;-0.5124;
210.9000;0.1449;-0.5149;
211.2000;0.1457;-0.5149;
211.5000;0.1441;-0.5149;
211.8000;0.1457;-0.5074;
212.1000;0.1449;-0.5049;
212.4000;0.1441;-0.5024;
212.7000;0.1449;-0.4973;
213.0000;0.1449;-0.5024;
213.3000;0.1441;-0.5024;
213.6000;0.1449;-0.4998;
213.9000;0.1457;-0.5049;
214.2000;0.1457;-0.5074;
214.5000;0.1473;-0.5099;
214.8000;0.1457;-0.5074;
215.1000;0.1449;-0.5149;
215.4000;0.1449;-0.4998;
215.7000;0.1457;-0.4973;
216.0000;0.1457;-0.4998;
216.3000;0.1441;-0.5024;
216.6000;0.1441;-0.5124;
216.9000;0.1457;-0.4998;
217.2000;0.1441;-0.4998;
217.5000;0.1457;-0.5049;
217.8000;0.1441;-0.5074;
218.1000;0.1449;-0.5049;
218.4000;0.1425;-0.5149;
218.7000;0.1425;-0.5074;
219.0000;0.1465;-0.4973;
219.3000;0.1449;-0.5149;
219.6000;0.1457;-0.5049;
219.9000;0.1433;-0.5124;
220.2000;0.1473;-0.5024;
220.5000;0.1449;-0.5099;
220.8000;0.1449;-0.5024;
221.1000;0.1457;-0.4998;
221.4000;0.1465;-0.4998;
221.7000;0.1449;-0.5024;
222.0000;0.1433;-0.5149;
222.3000;0.1433;-0.5099;
222.6000;0.1441;-0.5099;
222.9000;0.1441;-0.5099;
223.2000;0.1433;-0.5124;
223.5000;0.1506;-0.4923;
223.8000;0.1457;-0.5049;
224.1000;0.1449;-0.5049;
224.4000;0.1441;-0.5024;
224.7000;0.1457;-0.5124;
225.0000;0.1457;-0.5099;
225.3000;0.1441;-0.5049;
225.6000;0.1449;-0.5074;
225.9000;0.1441;-0.5024;
226.2000;0.1449;-0.4923;
226.5000;0.1449;-0.4898;
226.8000;0.1433;-0.4923;
227.1000;0.1441;-0.4873;
227.4000;0.1449;-0.4873;
227.7000;0.1441;-0.4923;
228.0000;0.1441;-0.4898;
228.3000;0.1392;-0.5049;
228.6000;0.1449;-0.4923;
228.9000;0.1457;-0.4873;
229.2000;0.1473;-0.4873;
229.5000;0.1449;-0.5049;
229.8000;0.1457;-0.4923;
230.1000;0.1457;-0.4898;
230.4000;0.1449;-0.4973;
230.7000;0.1490;-0.4973;
231.0000;0.1465;-0.5074;
231.3000;0.1449;-0.5074;
231.6000;0.1449;-0.5074;
231.9000;0.1425;-0.5174;
232.2000;0.1441;-0.5124;
232.5000;0.1425;-0.5024;
232.8000;0.1457;-0.4923;
233.1000;0.1449;-0.4948;
233.4000;0.1416;-0.5024;
233.7000;0.1457;-0.5024;
234.0000;0.1457;-0.4998;
234.3000;0.1457;-0.5024;
234.6000;0.1457;-0.5049;
234.9000;0.1465;-0.4973;
235.2000;0.1449;-0.4998;
235.5000;0.1433;-0.5024;
235.8000;0.1441;-0.4998;
236.1000;0.1425;-0.4948;
236.4000;0.1465;-0.4948;
236.7000;0.1425;-0.5074;
237.0000;0.1433;-0.5074;
237.3000;0.1441;-0.5049;
237.6000;0.1441;-0.5074;
237.9000;0.1425;-0.5099;
238.2000;0.1441;-0.4873;
238.5000;0.1449;-0.4772;
238.8000;0.1449;-0.4722;
239.1000;0.1473;-0.4722;
239.4000;0.1441;-0.4898;
239.7000;0.1433;-0.4973;
240.0000;0.1425;-0.4973;
240.3000;0.1465;-0.4898;
240.6000;0.1441;-0.4948;
240.9000;0.1433;-0.4973;
241.2000;0.1465;-0.4848;
241.5000;0.1441;-0.4848;
241.8000;0.1433;-0.4848;
242.1000;0.1425;-0.4923;
242.4000;0.1449;-0.4898;
242.7000;0.1433;-0.4998;
243.0000;0.1457;-0.4923;
243.3000;0.1441;-0.4973;
243.6000;0.1433;-0.5024;
243.9000;0.1449;-0.5049;
244.2000;0.1441;-0.5149;
244.5000;0.1457;-0.5074;
244.8000;0.1416;-0.5199;
245.1000;0.1457;-0.5174;
245.4000;0.1457;-0.5199;
245.7000;0.1441;-0.5199;
246.0000;0.1449;-0.5124;
246.3000;0.1433;-0.5124;
246.6000;0.1359;-0.5225;
246.9000;0.1514;-0.4898;
247.2000;0.1441;-0.4998;
247.5000;0.1335;-0.5350;
247.8000;0.1384;-0.5199;
248.1000;0.1408;-0.5124;
248.4000;0.1441;-0.4998;
248.7000;0.1449;-0.5099;
249.0000;0.1449;-0.5149;
249.3000;0.1449;-0.5074;
249.6000;0.1441;-0.4973;
249.9000;0.1441;-0.4973;
250.2000;0.1416;-0.5049;
250.5000;0.1457;-0.4948;
250.8000;0.1433;-0.4973;
251.1000;0.1425;-0.5024;
251.4000;0.1425;-0.5024;
251.7000;0.1449;-0.4923;
252.0000;0.1425;-0.5049;
252.3000;0.1416;-0.5199;
252.6000;0.1449;-0.5149;
252.9000;0.1433;-0.5225;
253.2000;0.1441;-0.5124;
253.5000;0.1449;-0.5049;
253.8000;0.1433;-0.5074;
254.1000;0.1473;-0.5049;
254.4000;0.1441;-0.5124;
254.7000;0.1449;-0.5149;
255.0000;0.1449;-0.5174;
255.3000;0.1457;-0.5225;
255.6000;0.1449;-0.5199;
255.9000;0.1465;-0.5124;
256.2000;0.1433;-0.5199;
256.5000;0.1441;-0.5124;
256.8000;0.1449;-0.5124;
257.1000;0.1538;-0.4823;
257.4000;0.1433;-0.5074;
257.7000;0.1433;-0.5074;
258.0000;0.1433;-0.5099;
258.3000;0.1441;-0.5074;
258.6000;0.1441;-0.5074;
258.9000;0.1416;-0.5149;
259.2000;0.1449;-0.5049;
259.5000;0.1498;-0.4973;
259.8000;0.1449;-0.5124;
260.1000;0.1441;-0.5074;
260.4000;0.1433;-0.5124;
260.7000;0.1457;-0.5074;
261.0000;0.1457;-0.4998;
261.3000;0.1449;-0.5074;
261.6000;0.1425;-0.5049;
261.9000;0.1465;-0.5049;
262.2000;0.1457;-0.5024;
262.5000;0.1433;-0.5024;
262.8000;0.1433;-0.5099;
263.1000;0.1433;-0.5099;
263.4000;0.1465;-0.4998;
263.7000;0.1441;-0.5149;
264.0000;0.1400;-0.5174;
264.3000;0.1506;-0.4948;
264.6000;0.1433;-0.5149;
264.9000;0.1433;-0.5225;
265.2000;0.1465;-0.5174;
265.5000;0.1449;-0.5199;
265.8000;0.1449;-0.5225;
266.1000;0.1359;-0.5501;
266.4000;0.1408;-0.5375;
266.7000;0.1449;-0.5350;
267.0000;0.1465;-0.5300;
267.3000;0.1441;-0.5375;
267.6000;0.1449;-0.5225;
267.9000;0.1465;-0.5174;
268.2000;0.1473;-0.5124;
268.5000;0.1441;-0.5149;
268.8000;0.1441;-0.5149;
269.1000;0.1425;-0.5225;
269.4000;0.1457;-0.5074;
269.7000;0.1359;-0.5325;
270.0000;0.1449;-0.5024;
270.3000;0.1441;-0.5024;
270.6000;0.1416;-0.5049;
270.9000;0.1449;-0.4998;
271.2000;0.1449;-0.4973;
271.5000;0.1433;-0.5024;
271.8000;0.1449;-0.4973;
272.1000;0.1441;-0.5024;
272.4000;0.1433;-0.4998;
272.7000;0.1425;-0.5024;
273.0000;0.1457;-0.4948;
273.3000;0.1425;-0.5074;
273.6000;0.1449;-0.5049;
273.9000;0.1441;-0.4998;
274.2000;0.1514;-0.4697;
274.5000;0.1457;-0.4923;
274.8000;0.1441;-0.4973;
275.1000;0.1433;-0.5074;
275.4000;0.1441;-0.4998;
275.7000;0.1441;-0.5049;
276.0000;0.1555;-0.4798;
276.3000;0.1441;-0.4973;
276.6000;0.1473;-0.4898;
276.9000;0.1400;-0.5149;
277.2000;0.1465;-0.5024;
277.5000;0.1441;-0.5074;
277.8000;0.1441;-0.5099;
278.1000;0.1376;-0.5350;
278.4000;0.1457;-0.5099;
278.7000;0.1441;-0.5124;
279.0000;0.1457;-0.5074;
279.3000;0.1449;-0.5049;
279.6000;0.1506;-0.4948;
279.9000;0.1457;-0.5074;
280.2000;0.1441;-0.5199;
280.5000;0.1538;-0.4948;
280.8000;0.1473;-0.5174;
281.1000;0.1465;-0.5174;
281.4000;0.1457;-0.4948;
281.7000;0.1441;-0.5049;
282.0000;0.1400;-0.5074;
282.3000;0.1441;-0.4948;
282.6000;0.1351;-0.5174;
282.9000;0.1441;-0.4973;
283.2000;0.1473;-0.4973;
283.5000;0.1457;-0.5024;
283.8000;0.1473;-0.4948;
284.1000;0.1441;-0.5074;
284.4000;0.1481;-0.5099;
284.7000;0.1457;-0.5124;
285.0000;0.1449;-0.5124;
285.3000;0.1433;-0.5174;
285.6000;0.1441;-0.5149;
285.9000;0.1425;-0.5225;
286.2000;0.1441;-0.5099;
286.5000;0.1441;-0.5099;
286.8000;0.1408;-0.5124;
287.1000;0.1441;-0.5049;
287.4000;0.1449;-0.5124;
287.7000;0.1449;-0.5124;
288.0000;0.1441;-0.5149;
288.3000;0.1441;-0.5174;
288.6000;0.1449;-0.5199;
288.9000;0.1449;-0.5149;
289.2000;0.1441;-0.5124;
289.5000;0.1457;-0.5074;
289.8000;0.1457;-0.4998;
290.1000;0.1449;-0.5099;
290.4000;0.1441;-0.5099;
290.7000;0.1441;-0.5049;
291.0000;0.1473;-0.5124;
291.3000;0.1449;-0.5225;
291.6000;0.1449;-0.5275;
291.9000;0.1441;-0.5300;
292.2000;0.1441;-0.5375;
292.5000;0.1433;-0.5375;
292.8000;0.1457;-0.5300;
293.1000;0.1449;-0.5425;
293.4000;0.1449;-0.5425;
293.7000;0.1441;-0.5400;
294.0000;0.1400;-0.5551;
294.3000;0.1433;-0.5451;
294.6000;0.1457;-0.5375;
294.9000;0.1473;-0.5300;
295.2000;0.1457;-0.5250;
295.5000;0.1433;-0.5250;
295.8000;0.1449;-0.5199;
296.1000;0.1481;-0.5049;
296.4000;0.1449;-0.5124;
296.7000;0.1433;-0.5250;
297.0000;0.1400;-0.5425;
297.3000;0.1416;-0.5501;
297.6000;0.1425;-0.5501;
297.9000;0.1441;-0.5425;
298.2000;0.1392;-0.5526;
298.5000;0.1449;-0.5501;
298.8000;0.1425;-0.5501;
299.1000;0.1449;-0.5400;
299.4000;0.1481;-0.5350;
299.7000;0.1449;-0.5325;
300.0000;0.1449;-0.5250;
300.3000;0.1457;-0.5275;
300.6000;0.1433;-0.5300;
300.9000;0.1441;-0.5325;
301.2000;0.1449;-0.5275;
301.5000;0.1449;-0.5199;
301.8000;0.1441;-0.5225;
302.1000;0.1433;-0.5250;
302.4000;0.1368;-0.5375;
302.7000;0.1416;-0.5174;
303.0000;0.1441;-0.5149;
303.3000;0.1425;-0.5174;
303.6000;0.1506;-0.4998;
303.9000;0.1433;-0.5074;
304.2000;0.1425;-0.5049;
304.5000;0.1433;-0.5024;
304.8000;0.1441;-0.5149;
305.1000;0.1408;-0.5149;
305.4000;0.1449;-0.5024;
305.7000;0.1425;-0.5099;
306.0000;0.1441;-0.5099;
306.3000;0.1441;-0.5049;
306.6000;0.1433;-0.5049;
306.9000;0.1400;-0.5124;
307.2000;0.1433;-0.5049;
307.5000;0.1441;-0.4898;
307.8000;0.1441;-0.4923;
308.1000;0.1441;-0.4923;
308.4000;0.1441;-0.4923;
308.7000;0.1449;-0.5024;
309.0000;0.1465;-0.5024;
309.3000;0.1441;-0.4973;
309.6000;0.1400;-0.5074;
309.9000;0.1433;-0.4998;
310.2000;0.1465;-0.4898;
310.5000;0.1441;-0.4948;
310.8000;0.1433;-0.4948;
311.1000;0.1449;-0.4923;
311.4000;0.1441;-0.5024;
311.7000;0.1425;-0.5099;
312.0000;0.1441;-0.5124;
312.3000;0.1449;-0.5149;
312.6000;0.1441;-0.5300;
312.9000;0.1522;-0.5024;
313.2000;0.1449;-0.5300;
313.5000;0.1433;-0.5350;
313.8000;0.1449;-0.5325;
314.1000;0.1457;-0.5250;
314.4000;0.1473;-0.5174;
314.7000;0.1441;-0.5300;
315.0000;0.1449;-0.5275;
315.3000;0.1473;-0.5199;
315.6000;0.1441;-0.5250;
315.9000;0.1441;-0.5350;
316.2000;0.1441;-0.5275;
316.5000;0.1490;-0.5225;
316.8000;0.1441;-0.5300;
317.1000;0.1473;-0.5174;
317.4000;0.1425;-0.5250;
317.7000;0.1441;-0.5174;
318.0000;0.1449;-0.5099;
318.3000;0.1425;-0.5275;
318.6000;0.1416;-0.5350;
318.9000;0.1449;-0.5225;
319.2000;0.1449;-0.5250;
319.5000;0.1433;-0.5275;
319.8000;0.1392;-0.5400;
320.1000;0.1465;-0.5225;
320.4000;0.1416;-0.5250;
320.7000;0.1457;-0.5149;
321.0000;0.1481;-0.5099;
321.3000;0.1457;-0.5199;
321.6000;0.1465;-0.5225;
321.9000;0.1408;-0.5451;
322.2000;0.1408;-0.5451;
322.5000;0.1441;-0.5300;
322.8000;0.1359;-0.5400;
323.1000;0.1498;-0.4973;
323.4000;0.1449;-0.5024;
323.7000;0.1441;-0.4998;
324.0000;0.1425;-0.5124;
324.3000;0.1441;-0.5174;
324.6000;0.1425;-0.5199;
324.9000;0.1449;-0.5074;
325.2000;0.1392;-0.5199;
325.5000;0.1441;-0.4998;
325.8000;0.1408;-0.5099;
326.1000;0.1449;-0.5149;
326.4000;0.1408;-0.5199;
326.7000;0.1433;-0.5099;
327.0000;0.1441;-0.5174;
327.3000;0.1449;-0.5250;
327.6000;0.1433;-0.5350;
327.9000;0.1441;-0.5425;
328.2000;0.1425;-0.5451;
328.5000;0.1441;-0.5425;
328.8000;0.1441;-0.5325;
329.1000;0.1441;-0.5325;
329.4000;0.1449;-0.5199;
329.7000;0.1449;-0.5275;
330.0000;0.1441;-0.5225;
330.3000;0.1465;-0.5275;
330.6000;0.1481;-0.5250;
330.9000;0.1457;-0.5300;
331.2000;0.1433;-0.5325;
331.5000;0.1465;-0.5174;
331.8000;0.1457;-0.5174;
332.1000;0.1457;-0.5149;
332.4000;0.1449;-0.5199;
332.7000;0.1433;-0.5174;
333.0000;0.1457;-0.5049;
333.3000;0.1498;-0.4873;
333.6000;0.1449;-0.4973;
333.9000;0.1441;-0.4948;
334.2000;0.1449;-0.4898;
334.5000;0.1441;-0.4823;
334.8000;0.1441;-0.4848;
335.1000;0.1433;-0.4948;
335.4000;0.1481;-0.4848;
335.7000;0.1457;-0.4923;
336.0000;0.1433;-0.4973;
336.3000;0.1441;-0.4998;
336.6000;0.1481;-0.4973;
336.9000;0.1433;-0.5124;
337.2000;0.1441;-0.5074;
337.5000;0.1433;-0.5099;
337.8000;0.1441;-0.5174;
338.1000;0.1408;-0.5300;
338.4000;0.1433;-0.5325;
338.7000;0.1425;-0.5325;
339.0000;0.1449;-0.5350;
339.3000;0.1538;-0.5099;
339.6000;0.1473;-0.5199;
339.9000;0.1384;-0.5425;
340.2000;0.1425;-0.5425;
340.5000;0.1465;-0.5275;
340.8000;0.1441;-0.5199;
341.1000;0.1538;-0.4823;
341.4000;0.1465;-0.5024;
341.7000;0.1449;-0.5149;
342.0000;0.1425;-0.5199;
342.3000;0.1465;-0.5149;
342.6000;0.1514;-0.5099;
342.9000;0.1433;-0.5275;
343.2000;0.1481;-0.5024;
343.5000;0.1425;-0.4998;
343.8000;0.1457;-0.4873;
344.1000;0.1457;-0.4848;
344.4000;0.1449;-0.4772;
344.7000;0.1449;-0.4873;
345.0000;0.1392;-0.5149;
345.3000;0.1376;-0.5149;
345.6000;0.1433;-0.4898;
345.9000;0.1441;-0.4898;
346.2000;0.1457;-0.4848;
346.5000;0.1441;-0.4848;
346.8000;0.1449;-0.4823;
347.1000;0.1441;-0.4923;
347.4000;0.1416;-0.5099;
347.7000;0.1449;-0.5049;
348.0000;0.1416;-0.5074;
348.3000;0.1441;-0.5024;
348.6000;0.1433;-0.5124;
348.9000;0.1384;-0.5199;
349.2000;0.1441;-0.4948;
349.5000;0.1416;-0.4973;
349.8000;0.1441;-0.4923;
350.1000;0.1441;-0.4873;
350.4000;0.1425;-0.4948;
350.7000;0.1425;-0.4998;
351.0000;0.1441;-0.4973;
351.3000;0.1449;-0.4998;
351.6000;0.1449;-0.5024;
351.9000;0.1465;-0.4998;
352.2000;0.1433;-0.5024;
352.5000;0.1457;-0.5024;
352.8000;0.1433;-0.4998;
353.1000;0.1457;-0.4948;
353.4000;0.1457;-0.4923;
353.7000;0.1449;-0.4923;
354.0000;0.1449;-0.4898;
354.3000;0.1441;-0.4973;
354.6000;0.1465;-0.4973;
354.9000;0.1449;-0.4973;
355.2000;0.1449;-0.5024;
355.5000;0.1441;-0.5174;
355.8000;0.1449;-0.5124;
356.1000;0.1449;-0.5124;
356.4000;0.1433;-0.5024;
356.7000;0.1441;-0.5024;
357.0000;0.1457;-0.4973;
357.3000;0.1449;-0.5049;
357.6000;0.1425;-0.5074;
357.9000;0.1441;-0.4973;
358.2000;0.1449;-0.4998;
358.5000;0.1416;-0.5074;
358.8000;0.1441;-0.4948;
359.1000;0.1416;-0.4998;
359.4000;0.1433;-0.4998;
359.7000;0.1457;-0.4973;
360.0000;0.1465;-0.4998;
360.3000;0.1449;-0.5049;
360.6000;0.1449;-0.5049;
360.9000;0.1425;-0.5049;
361.2000;0.1457;-0.5024;
361.5000;0.1400;-0.5250;
361.8000;0.1449;-0.5099;
362.1000;0.1473;-0.5049;
362.4000;0.1457;-0.5074;
362.7000;0.1449;-0.5049;
363.0000;0.1449;-0.5024;
363.3000;0.1400;-0.4998;
363.6000;0.1408;-0.4973;
363.9000;0.1449;-0.4747;
364.2000;0.1449;-0.4722;
364.5000;0.1457;-0.4848;
364.8000;0.1449;-0.4948;
365.1000;0.1457;-0.4873;
365.4000;0.1473;-0.4873;
365.7000;0.1441;-0.4948;
366.0000;0.1433;-0.4898;
366.3000;0.1416;-0.4948;
366.6000;0.1441;-0.4948;
366.9000;0.1425;-0.4973;
367.2000;0.1441;-0.4898;
367.5000;0.1441;-0.4948;
367.8000;0.1449;-0.4973;
368.1000;0.1400;-0.5099;
368.4000;0.1433;-0.4998;
368.7000;0.1465;-0.4923;
369.0000;0.1441;-0.5124;
369.3000;0.1530;-0.4873;
369.6000;0.1457;-0.5074;
369.9000;0.1433;-0.5074;
370.2000;0.1457;-0.4973;
370.5000;0.1441;-0.4923;
370.8000;0.1457;-0.4772;
371.1000;0.1433;-0.4848;
371.4000;0.1359;-0.5074;
371.7000;0.1441;-0.4873;
372.0000;0.1441;-0.4923;
372.3000;0.1555;-0.4622;
372.6000;0.1449;-0.4898;
372.9000;0.1465;-0.4873;
373.2000;0.1441;-0.4923;
373.5000;0.1425;-0.4898;
373.8000;0.1457;-0.4823;
374.1000;0.1473;-0.4747;
374.4000;0.1416;-0.4823;
374.7000;0.1441;-0.4823;
375.0000;0.1457;-0.4848;
375.3000;0.1433;-0.4898;
375.6000;0.1473;-0.4747;
375.9000;0.1433;-0.4823;
376.2000;0.1449;-0.4772;
376.5000;0.1449;-0.4873;
376.8000;0.1449;-0.4873;
377.1000;0.1522;-0.4672;
377.4000;0.1441;-0.4823;
377.7000;0.1465;-0.4823;
378.0000;0.1425;-0.4948;
378.3000;0.1433;-0.4948;
378.6000;0.1441;-0.5024;
378.9000;0.1449;-0.4998;
379.2000;0.1425;-0.4998;
379.5000;0.1449;-0.4998;
379.8000;0.1538;-0.4873;
380.1000;0.1457;-0.5149;
380.4000;0.1457;-0.5124;
380.7000;0.1449;-0.5074;
381.0000;0.1449;-0.5099;
381.3000;0.1457;-0.4998;
381.6000;0.1506;-0.4798;
381.9000;0.1449;-0.4973;
382.2000;0.1449;-0.5074;
382.5000;0.1441;-0.4998;
382.8000;0.1441;-0.4948;
383.1000;0.1449;-0.4998;
383.4000;0.1449;-0.4998;
383.7000;0.1400;-0.5049;
384.0000;0.1457;-0.4948;
384.3000;0.1449;-0.5049;
384.6000;0.1449;-0.5074;
384.9000;0.1465;-0.5099;
385.2000;0.1457;-0.5099;
385.5000;0.1490;-0.5074;
385.8000;0.1449;-0.5099;
386.1000;0.1449;-0.5049;
386.4000;0.1457;-0.5024;
386.7000;0.1481;-0.5024;
387.0000;0.1473;-0.4873;
387.3000;0.1457;-0.4898;
387.6000;0.1449;-0.5074;
387.9000;0.1465;-0.5024;
388.2000;0.1408;-0.5024;
388.5000;0.1433;-0.4998;
388.8000;0.1538;-0.4647;
389.1000;0.1457;-0.4873;
389.4000;0.1441;-0.4948;
389.7000;0.1425;-0.4898;
390.0000;0.1441;-0.4973;
390.3000;0.1473;-0.4923;
390.6000;0.1457;-0.4998;
390.9000;0.1441;-0.5074;
391.2000;0.1433;-0.5124;
391.5000;0.1449;-0.5049;
391.8000;0.1457;-0.5099;
392.1000;0.1392;-0.5225;
392.4000;0.1441;-0.5174;
392.7000;0.1441;-0.5124;
393.0000;0.1433;-0.5124;
393.3000;0.1433;-0.4998;
393.6000;0.1449;-0.5049;
393.9000;0.1433;-0.5024;
394.2000;0.1522;-0.4873;
394.5000;0.1449;-0.5074;
394.8000;0.1441;-0.5049;
395.1000;0.1384;-0.5124;
395.4000;0.1449;-0.4923;
395.7000;0.1416;-0.4973;
396.0000;0.1449;-0.4898;
396.3000;0.1449;-0.4873;
396.6000;0.1425;-0.4973;
396.9000;0.1473;-0.4823;
397.2000;0.1457;-0.4823;
397.5000;0.1457;-0.4873;
397.8000;0.1449;-0.4873;
398.1000;0.1416;-0.4948;
398.4000;0.1433;-0.4948;
398.7000;0.1408;-0.5024;
399.0000;0.1457;-0.4973;
399.3000;0.1441;-0.5049;
399.6000;0.1441;-0.5124;
399.9000;0.1449;-0.5199;
400.2000;0.1449;-0.5149;
400.5000;0.1433;-0.5174;
400.8000;0.1449;-0.5124;
401.1000;0.1465;-0.4973;
401.4000;0.1457;-0.4973;
401.7000;0.1433;-0.4998;
402.0000;0.1441;-0.4873;
402.3000;0.1441;-0.4823;
402.6000;0.1449;-0.4798;
402.9000;0.1498;-0.4622;
403.2000;0.1457;-0.4722;
403.5000;0.1441;-0.4873;
403.8000;0.1425;-0.4973;
404.1000;0.1441;-0.4948;
404.4000;0.1441;-0.4948;
404.7000;0.1433;-0.5024;
405.0000;0.1433;-0.4923;
405.3000;0.1457;-0.4948;
405.6000;0.1433;-0.4973;
405.9000;0.1449;-0.4923;
406.2000;0.1473;-0.4823;
406.5000;0.1449;-0.4898;
406.8000;0.1465;-0.4848;
407.1000;0.1457;-0.4898;
407.4000;0.1441;-0.4973;
407.7000;0.1449;-0.4948;
408.0000;0.1433;-0.4898;
408.3000;0.1441;-0.4848;
408.6000;0.1359;-0.5099;
408.9000;0.1433;-0.4948;
409.2000;0.1425;-0.4923;
409.5000;0.1433;-0.4923;
409.8000;0.1433;-0.4973;
410.1000;0.1449;-0.4923;
410.4000;0.1490;-0.4873;
410.7000;0.1449;-0.4923;
411.0000;0.1457;-0.4848;
411.3000;0.1481;-0.4798;
411.6000;0.1465;-0.4923;
411.9000;0.1441;-0.4923;
412.2000;0.1490;-0.4898;
412.5000;0.1457;-0.4973;
412.8000;0.1433;-0.5049;
413.1000;0.1433;-0.5074;
413.4000;0.1449;-0.4998;
413.7000;0.1433;-0.4998;
414.0000;0.1449;-0.5049;
414.3000;0.1441;-0.5074;
414.6000;0.1538;-0.4923;
414.9000;0.1449;-0.5149;
415.2000;0.1498;-0.4948;
415.5000;0.1441;-0.4998;
415.8000;0.1457;-0.5049;
416.1000;0.1473;-0.4973;
416.4000;0.1449;-0.4973;
416.7000;0.1457;-0.4923;
417.0000;0.1335;-0.5225;
417.3000;0.1433;-0.5049;
417.6000;0.1457;-0.4973;
417.9000;0.1433;-0.4948;
418.2000;0.1408;-0.5074;
418.5000;0.1457;-0.4923;
418.8000;0.1433;-0.4998;
419.1000;0.1400;-0.5099;
419.4000;0.1441;-0.4998;
419.7000;0.1433;-0.5049;
420.0000;0.1441;-0.4998;
420.3000;0.1425;-0.5074;
420.6000;0.1449;-0.5124;
420.9000;0.1457;-0.5124;
421.2000;0.1416;-0.5149;
421.5000;0.1449;-0.5099;
421.8000;0.1441;-0.5124;
422.1000;0.1425;-0.5199;
422.4000;0.1441;-0.5124;
422.7000;0.1441;-0.5024;
423.0000;0.1433;-0.4998;
423.3000;0.1416;-0.4948;
423.6000;0.1433;-0.4898;
423.9000;0.1441;-0.4823;
424.2000;0.1433;-0.4873;
424.5000;0.1433;-0.4923;
424.8000;0.1441;-0.4898;
425.1000;0.1441;-0.4973;
425.4000;0.1449;-0.5049;
425.7000;0.1441;-0.5074;
426.0000;0.1425;-0.5074;
426.3000;0.1465;-0.5099;
426.6000;0.1473;-0.5074;
426.9000;0.1449;-0.5074;
427.2000;0.1473;-0.4973;
427.5000;0.1457;-0.4948;
427.8000;0.1425;-0.4973;
428.1000;0.1425;-0.5074;
428.4000;0.1433;-0.5149;
428.7000;0.1449;-0.5124;
429.0000;0.1433;-0.5199;
429.3000;0.1449;-0.5250;
429.6000;0.1384;-0.5425;
429.9000;0.1465;-0.5250;
430.2000;0.1449;-0.5325;
430.5000;0.1449;-0.5250;
430.8000;0.1449;-0.5174;
431.1000;0.1449;-0.5049;
431.4000;0.1473;-0.4948;
431.7000;0.1473;-0.4998;
432.0000;0.1441;-0.5099;
432.3000;0.1530;-0.4722;
432.6000;0.1400;-0.5149;
432.9000;0.1449;-0.4973;
433.2000;0.1449;-0.4973;
433.5000;0.1465;-0.4948;
433.8000;0.1384;-0.5124;
434.1000;0.1425;-0.4873;
434.4000;0.1449;-0.4798;
434.7000;0.1465;-0.4772;
435.0000;0.1433;-0.4823;
435.3000;0.1449;-0.4772;
435.6000;0.1400;-0.4923;
435.9000;0.1408;-0.4948;
436.2000;0.1465;-0.4798;
436.5000;0.1481;-0.4772;
436.8000;0.1465;-0.4848;
437.1000;0.1457;-0.4873;
437.4000;0.1416;-0.4973;
437.7000;0.1408;-0.4973;
438.0000;0.1449;-0.4948;
438.3000;0.1457;-0.5024;
438.6000;0.1457;-0.5099;
438.9000;0.1449;-0.5124;
439.2000;0.1433;-0.5074;
439.5000;0.1441;-0.5024;
439.8000;0.1433;-0.5074;
440.1000;0.1384;-0.5149;
440.4000;0.1465;-0.4948;
440.7000;0.1433;-0.5149;
441.0000;0.1457;-0.5024;
441.3000;0.1555;-0.4898;
441.6000;0.1449;-0.5124;
441.9000;0.1441;-0.5099;
442.2000;0.1449;-0.5124;
442.5000;0.1449;-0.5049;
442.8000;0.1433;-0.5124;
443.1000;0.1465;-0.5024;
443.4000;0.1449;-0.5049;
443.7000;0.1449;-0.5124;
444.0000;0.1449;-0.5124;
444.3000;0.1433;-0.5099;
444.6000;0.1433;-0.5024;
444.9000;0.1457;-0.4948;
445.2000;0.1473;-0.4873;
445.5000;0.1433;-0.4998;
445.8000;0.1425;-0.5074;
446.1000;0.1441;-0.4998;
446.4000;0.1441;-0.4998;
446.7000;0.1441;-0.5024;
447.0000;0.1465;-0.4998;
447.3000;0.1441;-0.4998;
447.6000;0.1433;-0.4998;
447.9000;0.1425;-0.4998;
448.2000;0.1433;-0.5099;
448.5000;0.1441;-0.5099;
448.8000;0.1449;-0.5074;
449.1000;0.1449;-0.5149;
449.4000;0.1441;-0.5149;
449.7000;0.1457;-0.5049;
450.0000;0.1441;-0.5074;
450.3000;0.1449;-0.5074;
450.6000;0.1441;-0.5074;
450.9000;0.1457;-0.4998;
451.2000;0.1441;-0.4948;
451.5000;0.1449;-0.4923;
451.8000;0.1441;-0.4923;
452.1000;0.1449;-0.4898;
452.4000;0.1449;-0.4898;
452.7000;0.1441;-0.4873;
453.0000;0.1441;-0.4998;
453.3000;0.1449;-0.5049;
453.6000;0.1433;-0.5074;
453.9000;0.1433;-0.5149;
454.2000;0.1449;-0.5099;
454.5000;0.1416;-0.5199;
454.8000;0.1530;-0.4973;
455.1000;0.1441;-0.5149;
455.4000;0.1441;-0.5124;
455.7000;0.1441;-0.5099;
456.0000;0.1449;-0.4998;
456.3000;0.1416;-0.5099;
456.6000;0.1498;-0.4998;
456.9000;0.1433;-0.5199;
457.2000;0.1433;-0.5225;
457.5000;0.1441;-0.5149;
457.8000;0.1400;-0.5250;
458.1000;0.1457;-0.5049;
458.4000;0.1481;-0.5024;
458.7000;0.1522;-0.4948;
459.0000;0.1433;-0.5199;
459.3000;0.1530;-0.4873;
459.6000;0.1465;-0.5049;
459.9000;0.1433;-0.5049;
460.2000;0.1441;-0.5074;
460.5000;0.1433;-0.5174;
460.8000;0.1416;-0.5199;
461.1000;0.1441;-0.5149;
461.4000;0.1433;-0.5099;
461.7000;0.1481;-0.4998;
462.0000;0.1449;-0.5099;
462.3000;0.1441;-0.5149;
462.6000;0.1449;-0.5124;
462.9000;0.1449;-0.4998;
463.2000;0.1433;-0.5074;
463.5000;0.1433;-0.5074;
463.8000;0.1457;-0.5024;
464.1000;0.1457;-0.5049;
464.4000;0.1416;-0.5124;
464.7000;0.1433;-0.5049;
465.0000;0.1449;-0.5099;
465.3000;0.1449;-0.4998;
465.6000;0.1376;-0.5199;
465.9000;0.1465;-0.4998;
466.2000;0.1441;-0.5074;
466.5000;0.1457;-0.5049;
466.8000;0.1416;-0.5225;
467.1000;0.1433;-0.5149;
467.4000;0.1441;-0.5074;
467.7000;0.1449;-0.5074;
468.0000;0.1449;-0.5049;
468.3000;0.1457;-0.4998;
468.6000;0.1441;-0.4973;
468.9000;0.1449;-0.4923;
469.2000;0.1457;-0.4898;
469.5000;0.1441;-0.4898;
469.8000;0.1449;-0.4798;
470.1000;0.1425;-0.4823;
470.4000;0.1473;-0.4747;
470.7000;0.1465;-0.4848;
471.0000;0.1433;-0.4948;
471.3000;0.1449;-0.4923;
471.6000;0.1473;-0.4923;
471.9000;0.1441;-0.5049;
472.2000;0.1449;-0.5149;
472.5000;0.1449;-0.5149;
472.8000;0.1465;-0.5199;
473.1000;0.1481;-0.5049;
473.4000;0.1433;-0.5124;
473.7000;0.1449;-0.5049;
474.0000;0.1449;-0.5074;
474.3000;0.1449;-0.5049;
474.6000;0.1449;-0.5149;
474.9000;0.1416;-0.5199;
475.2000;0.1441;-0.5199;
475.5000;0.1457;-0.5149;
475.8000;0.1441;-0.5099;
476.1000;0.1473;-0.4948;
476.4000;0.1433;-0.4973;
476.7000;0.1481;-0.4798;
477.0000;0.1425;-0.4923;
477.3000;0.1473;-0.4873;
477.6000;0.1433;-0.5024;
477.9000;0.1425;-0.5049;
478.2000;0.1449;-0.4948;
478.5000;0.1433;-0.5024;
478.8000;0.1441;-0.5099;
479.1000;0.1441;-0.5199;
479.4000;0.1416;-0.5250;
479.7000;0.1433;-0.5225;
480.0000;0.1392;-0.5375;
480.3000;0.1392;-0.5325;
480.6000;0.1433;-0.5149;
480.9000;0.1441;-0.5199;
481.2000;0.1441;-0.5174;
481.5000;0.1465;-0.5199;
481.8000;0.1538;-0.4998;
482.1000;0.1433;-0.5199;
482.4000;0.1408;-0.5325;
482.7000;0.1408;-0.5300;
483.0000;0.1425;-0.5250;
483.3000;0.1433;-0.5275;
483.6000;0.1433;-0.5250;
483.9000;0.1433;-0.5275;
484.2000;0.1449;-0.5174;
484.5000;0.1441;-0.5174;
484.8000;0.1416;-0.5250;
485.1000;0.1408;-0.5174;
485.4000;0.1408;-0.5149;
485.7000;0.1473;-0.4948;
486.0000;0.1457;-0.4923;
486.3000;0.1425;-0.5049;
486.6000;0.1449;-0.4998;
486.9000;0.1449;-0.4973;
487.2000;0.1449;-0.5049;
487.5000;0.1433;-0.5099;
487.8000;0.1425;-0.5049;
488.1000;0.1441;-0.4973;
488.4000;0.1425;-0.4948;
488.7000;0.1506;-0.4722;
489.0000;0.1433;-0.4973;
489.3000;0.1449;-0.4898;
489.6000;0.1457;-0.4772;
489.9000;0.1425;-0.4848;
490.2000;0.1392;-0.5049;
490.5000;0.1490;-0.4798;
490.8000;0.1449;-0.4948;
491.1000;0.1441;-0.4923;
491.4000;0.1441;-0.4948;
491.7000;0.1449;-0.4898;
492.0000;0.1441;-0.4923;
492.3000;0.1449;-0.5024;
492.6000;0.1449;-0.5024;
492.9000;0.1473;-0.4898;
493.2000;0.1473;-0.4873;
493.5000;0.1449;-0.4973;
493.8000;0.1441;-0.5049;
494.1000;0.1425;-0.5024;
494.4000;0.1449;-0.4948;
494.7000;0.1433;-0.5099;
495.0000;0.1441;-0.5024;
495.3000;0.1449;-0.4998;
495.6000;0.1433;-0.5099;
495.9000;0.1449;-0.5074;
496.2000;0.1457;-0.5024;
496.5000;0.1441;-0.5049;
496.8000;0.1433;-0.4948;
497.1000;0.1433;-0.4948;
497.4000;0.1441;-0.4998;
497.7000;0.1425;-0.5099;
498.0000;0.1416;-0.5099;
498.3000;0.1433;-0.5024;
498.6000;0.1441;-0.4973;
498.9000;0.1433;-0.4998;
499.2000;0.1449;-0.5049;
499.5000;0.1416;-0.5174;
499.8000;0.1433;-0.5124;
500.1000;0.1490;-0.4923;
500.4000;0.1457;-0.4973;
500.7000;0.1425;-0.4923;
501.0000;0.1457;-0.4823;
501.3000;0.1481;-0.4772;
501.6000;0.1425;-0.4898;
501.9000;0.1441;-0.4873;
502.2000;0.1425;-0.4848;
502.5000;0.1449;-0.4772;
502.8000;0.1449;-0.4722;
503.1000;0.1481;-0.4697;
503.4000;0.1433;-0.4823;
503.7000;0.1433;-0.4848;
504.0000;0.1425;-0.4898;
504.3000;0.1547;-0.4647;
504.6000;0.1384;-0.5074;
504.9000;0.1416;-0.5024;
505.2000;0.1392;-0.5024;
505.5000;0.1425;-0.4998;
505.8000;0.1449;-0.4948;
506.1000;0.1441;-0.4873;
506.4000;0.1441;-0.4873;
506.7000;0.1408;-0.4823;
507.0000;0.1457;-0.4697;
507.3000;0.1449;-0.4772;
507.6000;0.1449;-0.4798;
507.9000;0.1441;-0.4848;
508.2000;0.1433;-0.4873;
508.5000;0.1441;-0.4848;
508.8000;0.1449;-0.4848;
509.1000;0.1449;-0.4923;
509.4000;0.1433;-0.4973;
509.7000;0.1433;-0.5024;
510.0000;0.1449;-0.4948;
510.3000;0.1433;-0.4973;
510.6000;0.1449;-0.4873;
510.9000;0.1449;-0.4848;
511.2000;0.1384;-0.5049;
511.5000;0.1449;-0.4898;
511.8000;0.1441;-0.4923;
512.1000;0.1498;-0.4848;
512.4000;0.1400;-0.5024;
512.7000;0.1425;-0.4998;
513.0000;0.1441;-0.4973;
513.3000;0.1441;-0.4898;
513.6000;0.1441;-0.4898;
513.9000;0.1416;-0.4973;
514.2000;0.1441;-0.4973;
514.5000;0.1441;-0.4923;
514.8000;0.1522;-0.4772;
515.1000;0.1425;-0.4998;
515.4000;0.1425;-0.4948;
515.7000;0.1384;-0.5124;
516.0000;0.1425;-0.4973;
516.3000;0.1425;-0.4998;
516.6000;0.1416;-0.5024;
516.9000;0.1449;-0.4873;
517.2000;0.1441;-0.4923;
517.5000;0.1449;-0.5049;
517.8000;0.1465;-0.5074;
518.1000;0.1441;-0.5199;
518.4000;0.1425;-0.5250;
518.7000;0.1441;-0.5174;
519.0000;0.1449;-0.5074;
519.3000;0.1433;-0.5099;
519.6000;0.1441;-0.5049;
519.9000;0.1433;-0.5149;
520.2000;0.1441;-0.5049;
520.5000;0.1441;-0.5074;
520.8000;0.1457;-0.5049;
521.1000;0.1416;-0.5174;
521.4000;0.1449;-0.5099;
521.7000;0.1425;-0.5174;
522.0000;0.1441;-0.5149;
522.3000;0.1425;-0.5174;
522.6000;0.1449;-0.5149;
522.9000;0.1457;-0.5124;
523.2000;0.1433;-0.5124;
523.5000;0.1433;-0.5174;
523.8000;0.1457;-0.5099;
524.1000;0.1433;-0.5124;
524.4000;0.1441;-0.5074;
524.7000;0.1433;-0.5074;
525.0000;0.1400;-0.5124;
525.3000;0.1384;-0.5149;
525.6000;0.1433;-0.5074;
525.9000;0.1449;-0.5074;
526.2000;0.1425;-0.5049;
526.5000;0.1433;-0.5124;
526.8000;0.1465;-0.4998;
527.1000;0.1425;-0.5049;
527.4000;0.1416;-0.5049;
527.7000;0.1457;-0.4998;
528.0000;0.1441;-0.5049;
528.3000;0.1457;-0.5124;
528.6000;0.1441;-0.5124;
528.9000;0.1441;-0.5149;
529.2000;0.1433;-0.5174;
529.5000;0.1441;-0.5174;
529.8000;0.1416;-0.5225;
530.1000;0.1408;-0.5275;
530.4000;0.1465;-0.5049;
530.7000;0.1400;-0.5250;
531.0000;0.1433;-0.5074;
531.3000;0.1498;-0.4923;
531.6000;0.1457;-0.4973;
531.9000;0.1449;-0.4923;
532.2000;0.1457;-0.4873;
532.5000;0.1441;-0.4923;
532.8000;0.1425;-0.5024;
533.1000;0.1457;-0.4923;
533.4000;0.1441;-0.5024;
533.7000;0.1416;-0.5024;
534.0000;0.1441;-0.4998;
534.3000;0.1425;-0.5024;
534.6000;0.1425;-0.4998;
534.9000;0.1408;-0.5099;
535.2000;0.1408;-0.5124;
535.5000;0.1449;-0.5074;
535.8000;0.1433;-0.5099;
536.1000;0.1498;-0.4873;
536.4000;0.1433;-0.5099;
536.7000;0.1441;-0.4973;
537.0000;0.1433;-0.4923;
537.3000;0.1449;-0.4898;
537.6000;0.1384;-0.5049;
537.9000;0.1449;-0.5049;
538.2000;0.1425;-0.5124;
538.5000;0.1449;-0.5049;
538.8000;0.1506;-0.4823;
539.1000;0.1441;-0.4873;
539.4000;0.1449;-0.4923;
539.7000;0.1433;-0.5049;
540.0000;0.1425;-0.5049;
540.3000;0.1441;-0.5049;
540.6000;0.1441;-0.4973;
540.9000;0.1416;-0.5074;
541.2000;0.1416;-0.5099;
541.5000;0.1441;-0.5024;
541.8000;0.1449;-0.5099;
542.1000;0.1457;-0.5099;
542.4000;0.1465;-0.5099;
542.7000;0.1449;-0.5099;
543.0000;0.1473;-0.5124;
543.3000;0.1433;-0.5174;
543.6000;0.1449;-0.5099;
543.9000;0.1425;-0.5049;
544.2000;0.1441;-0.5099;
544.5000;0.1416;-0.5199;
544.8000;0.1457;-0.5149;
545.1000;0.1425;-0.5275;
545.4000;0.1441;-0.5325;
545.7000;0.1425;-0.5275;
546.0000;0.1441;-0.5199;
546.3000;0.1425;-0.5149;
546.6000;0.1449;-0.5074;
546.9000;0.1425;-0.5049;
547.2000;0.1449;-0.4948;
547.5000;0.1490;-0.4898;
547.8000;0.1457;-0.5074;
548.1000;0.1457;-0.5024;
548.4000;0.1433;-0.5049;
548.7000;0.1473;-0.4923;
549.0000;0.1473;-0.4898;
549.3000;0.1547;-0.4722;
549.6000;0.1416;-0.5049;
549.9000;0.1473;-0.4873;
550.2000;0.1449;-0.4973;
550.5000;0.1425;-0.5024;
550.8000;0.1433;-0.5074;
551.1000;0.1416;-0.5099;
551.4000;0.1327;-0.5375;
551.7000;0.1425;-0.5149;
552.0000;0.1457;-0.5174;
552.3000;0.1384;-0.5350;
552.6000;0.1376;-0.5425;
552.9000;0.1433;-0.5275;
553.2000;0.1433;-0.5225;
553.5000;0.1441;-0.5225;
553.8000;0.1425;-0.5300;
554.1000;0.1465;-0.5124;
554.4000;0.1408;-0.5225;
554.7000;0.1441;-0.5049;
555.0000;0.1392;-0.5149;
555.3000;0.1433;-0.5024;
555.6000;0.1441;-0.4923;
555.9000;0.1425;-0.4948;
556.2000;0.1441;-0.4923;
556.5000;0.1416;-0.5074;
556.8000;0.1408;-0.5149;
557.1000;0.1449;-0.5024;
557.4000;0.1433;-0.5074;
557.7000;0.1425;-0.5174;
558.0000;0.1449;-0.5174;
558.3000;0.1457;-0.5199;
558.6000;0.1433;-0.5250;
558.9000;0.1425;-0.5350;
559.2000;0.1425;-0.5375;
559.5000;0.1441;-0.5425;
559.8000;0.1441;-0.5425;
560.1000;0.1433;-0.5451;
560.4000;0.1408;-0.5501;
560.7000;0.1433;-0.5476;
561.0000;0.1433;-0.5350;
561.3000;0.1457;-0.5275;
561.6000;0.1425;-0.5300;
561.9000;0.1449;-0.5124;
562.2000;0.1457;-0.5074;
562.5000;0.1441;-0.5124;
562.8000;0.1441;-0.5099;
563.1000;0.1425;-0.5149;
563.4000;0.1449;-0.5149;
563.7000;0.1441;-0.5074;
564.0000;0.1449;-0.5149;
564.3000;0.1416;-0.5250;
564.6000;0.1465;-0.5049;
564.9000;0.1425;-0.5099;
565.2000;0.1433;-0.5174;
565.5000;0.1465;-0.5049;
565.8000;0.1441;-0.5124;
566.1000;0.1441;-0.5124;
566.4000;0.1433;-0.5199;
566.7000;0.1433;-0.5174;
567.0000;0.1449;-0.5074;
567.3000;0.1408;-0.5225;
567.6000;0.1433;-0.5199;
567.9000;0.1457;-0.5225;
568.2000;0.1425;-0.5350;
568.5000;0.1408;-0.5400;
568.8000;0.1441;-0.5325;
569.1000;0.1457;-0.5325;
569.4000;0.1433;-0.5375;
569.7000;0.1514;-0.5199;
570.0000;0.1416;-0.5451;
570.3000;0.1465;-0.5174;
570.6000;0.1425;-0.5225;
570.9000;0.1433;-0.5099;
571.2000;0.1473;-0.5074;
571.5000;0.1441;-0.5174;
571.8000;0.1441;-0.5174;
572.1000;0.1441;-0.5199;
572.4000;0.1465;-0.5124;
572.7000;0.1425;-0.5199;
573.0000;0.1392;-0.5250;
573.3000;0.1384;-0.5275;
573.6000;0.1449;-0.5225;
573.9000;0.1384;-0.5300;
574.2000;0.1441;-0.5149;
574.5000;0.1425;-0.5174;
574.8000;0.1433;-0.5124;
575.1000;0.1416;-0.5174;
575.4000;0.1416;-0.5174;
575.7000;0.1441;-0.5174;
576.0000;0.1441;-0.5124;
576.3000;0.1441;-0.5174;
576.6000;0.1457;-0.5099;
576.9000;0.1449;-0.5049;
577.2000;0.1457;-0.4973;
577.5000;0.1449;-0.5024;
577.8000;0.1457;-0.4998;
578.1000;0.1449;-0.4998;
578.4000;0.1457;-0.4973;
578.7000;0.1441;-0.5024;
579.0000;0.1433;-0.5124;
579.3000;0.1425;-0.5124;
579.6000;0.1433;-0.5199;
579.9000;0.1441;-0.5149;
580.2000;0.1425;-0.5149;
580.5000;0.1433;-0.5099;
580.8000;0.1408;-0.5199;
581.1000;0.1416;-0.5124;
581.4000;0.1416;-0.5174;
581.7000;0.1425;-0.5199;
582.0000;0.1425;-0.5174;
582.3000;0.1449;-0.5099;
582.6000;0.1433;-0.5174;
582.9000;0.1408;-0.5225;
583.2000;0.1449;-0.5199;
583.5000;0.1449;-0.5300;
583.8000;0.1433;-0.5250;
584.1000;0.1425;-0.5199;
584.4000;0.1425;-0.5149;
584.7000;0.1449;-0.5099;
585.0000;0.1441;-0.5074;
585.3000;0.1465;-0.4973;
585.6000;0.1425;-0.5099;
585.9000;0.1408;-0.5074;
586.2000;0.1433;-0.5049;
586.5000;0.1449;-0.5024;
586.8000;0.1441;-0.4973;
587.1000;0.1433;-0.4923;
587.4000;0.1433;-0.4923;
587.7000;0.1449;-0.4823;
588.0000;0.1433;-0.4772;
588.3000;0.1449;-0.4747;
588.6000;0.1449;-0.4873;
588.9000;0.1457;-0.4873;
589.2000;0.1449;-0.4923;
589.5000;0.1425;-0.4973;
589.8000;0.1425;-0.4923;
590.1000;0.1473;-0.4973;
590.4000;0.1425;-0.5074;
590.7000;0.1433;-0.4948;
591.0000;0.1441;-0.4873;
591.3000;0.1441;-0.4798;
591.6000;0.1441;-0.4848;
591.9000;0.1514;-0.4672;
592.2000;0.1433;-0.4848;
592.5000;0.1441;-0.4873;
592.8000;0.1433;-0.4873;
593.1000;0.1425;-0.4848;
593.4000;0.1441;-0.4823;
593.7000;0.1449;-0.4798;
594.0000;0.1425;-0.4898;
594.3000;0.1441;-0.4923;
594.6000;0.1433;-0.4948;
594.9000;0.1425;-0.4973;
595.2000;0.1433;-0.4848;
595.5000;0.1425;-0.4873;
595.8000;0.1449;-0.4747;
596.1000;0.1449;-0.4798;
596.4000;0.1441;-0.4873;
596.7000;0.1457;-0.4873;
597.0000;0.1457;-0.4823;
597.3000;0.1384;-0.4998;
597.6000;0.1449;-0.4697;
597.9000;0.1433;-0.4697;
598.2000;0.1400;-0.4973;
598.5000;0.1351;-0.5174;
598.8000;0.1449;-0.4923;
599.1000;0.1441;-0.4923;
599.4000;0.1416;-0.4948;
599.7000;0.1425;-0.5049;
600.0000;0.1425;-0.5174;
600.3000;0.1449;-0.5149;
600.6000;0.1416;-0.5199;
600.9000;0.1425;-0.5225;
601.2000;0.1400;-0.5250;
601.5000;0.1416;-0.5350;
601.8000;0.1416;-0.5451;
602.1000;0.1400;-0.5576;
602.4000;0.1376;-0.5802;
602.7000;0.1368;-0.6104;
603.0000;0.1359;-0.6279;
603.3000;0.1327;-0.6455;
603.6000;0.1311;-0.6631;
603.9000;0.1351;-0.6631;
604.2000;0.1335;-0.6606;
604.5000;0.1384;-0.6606;
604.8000;0.1343;-0.6706;
605.1000;0.1319;-0.6807;
605.4000;0.1311;-0.6958;
605.7000;0.1335;-0.6933;
606.0000;0.1302;-0.7058;
606.3000;0.1327;-0.6983;
606.6000;0.1327;-0.6983;
606.9000;0.1319;-0.7083;
607.2000;0.1319;-0.7184;
607.5000;0.1327;-0.7234;
607.8000;0.1311;-0.7159;
608.1000;0.1343;-0.7184;
608.4000;0.1302;-0.7259;
608.7000;0.1327;-0.7209;
609.0000;0.1335;-0.7284;
609.3000;0.1327;-0.7209;
609.6000;0.1343;-0.7259;
609.9000;0.1302;-0.7334;
610.2000;0.1302;-0.7410;
610.5000;0.1319;-0.7460;
610.8000;0.1245;-0.7586;
611.1000;0.1221;-0.7611;
611.4000;0.1327;-0.7360;
611.7000;0.1311;-0.7385;
612.0000;0.1262;-0.7510;
612.3000;0.1319;-0.7410;
612.6000;0.1311;-0.7435;
612.9000;0.1335;-0.7460;
613.2000;0.1302;-0.7435;
613.5000;0.1327;-0.7435;
613.8000;0.1294;-0.7485;
614.1000;0.1311;-0.7435;
614.4000;0.1302;-0.7334;
614.7000;0.1294;-0.7360;
615.0000;0.1311;-0.7360;
615.3000;0.1311;-0.7485;
615.6000;0.1311;-0.7360;
615.9000;0.1302;-0.7360;
616.2000;0.1278;-0.7385;
616.5000;0.1311;-0.7284;
616.8000;0.1327;-0.7334;
617.1000;0.1319;-0.7410;
617.4000;0.1254;-0.7611;
617.7000;0.1294;-0.7611;
618.0000;0.1319;-0.7586;
618.3000;0.1278;-0.7711;
618.6000;0.1302;-0.7560;
618.9000;0.1237;-0.7636;
619.2000;0.1294;-0.7410;
619.5000;0.1302;-0.7485;
619.8000;0.1294;-0.7510;
620.1000;0.1188;-0.7812;
620.4000;0.1278;-0.7560;
620.7000;0.1286;-0.7535;
621.0000;0.1286;-0.7460;
621.3000;0.1343;-0.7334;
621.6000;0.1319;-0.7410;
621.9000;0.1254;-0.7485;
622.2000;0.1302;-0.7259;
622.5000;0.1294;-0.7234;
622.8000;0.1278;-0.7234;
623.1000;0.1319;-0.7133;
623.4000;0.1311;-0.7133;
623.7000;0.1311;-0.7159;
624.0000;0.1319;-0.7309;
624.3000;0.1270;-0.7510;
624.6000;0.1311;-0.7234;
624.9000;0.1319;-0.7259;
625.2000;0.1286;-0.7360;
625.5000;0.1294;-0.7460;
625.8000;0.1294;-0.7510;
626.1000;0.1278;-0.7586;
626.4000;0.1278;-0.7535;
626.7000;0.1311;-0.7435;
627.0000;0.1205;-0.7686;
627.3000;0.1311;-0.7410;
627.6000;0.1302;-0.7485;
627.9000;0.1270;-0.7485;
628.2000;0.1311;-0.7360;
628.5000;0.1294;-0.7360;
628.8000;0.1319;-0.7309;
629.1000;0.1311;-0.7385;
629.4000;0.1302;-0.7410;
629.7000;0.1286;-0.7435;
630.0000;0.1286;-0.7410;
630.3000;0.1286;-0.7360;
630.6000;0.1302;-0.7259;
630.9000;0.1294;-0.7259;
631.2000;0.1278;-0.7259;
631.5000;0.1302;-0.7234;
631.8000;0.1319;-0.7184;
632.1000;0.1286;-0.7259;
632.4000;0.1254;-0.7284;
632.7000;0.1278;-0.7284;
633.0000;0.1286;-0.7309;
633.3000;0.1278;-0.7360;
633.6000;0.1286;-0.7259;
633.9000;0.1311;-0.7159;
634.2000;0.1294;-0.7234;
634.5000;0.1343;-0.7133;
634.8000;0.1302;-0.7284;
635.1000;0.1335;-0.7083;
635.4000;0.1286;-0.7284;
635.7000;0.1294;-0.7334;
636.0000;0.1294;-0.7309;
636.3000;0.1294;-0.7334;
636.6000;0.1237;-0.7435;
636.9000;0.1278;-0.7385;
637.2000;0.1294;-0.7385;
637.5000;0.1278;-0.7385;
637.8000;0.1302;-0.7385;
638.1000;0.1319;-0.7259;
638.4000;0.1294;-0.7360;
638.7000;0.1278;-0.7334;
639.0000;0.1254;-0.7334;
639.3000;0.1270;-0.7309;
639.6000;0.1319;-0.7209;
639.9000;0.1286;-0.7360;
640.2000;0.1286;-0.7360;
640.5000;0.1286;-0.7385;
640.8000;0.1278;-0.7410;
641.1000;0.1343;-0.7209;
641.4000;0.1302;-0.7133;
641.7000;0.1302;-0.7159;
642.0000;0.1351;-0.7133;
642.3000;0.1327;-0.7133;
642.6000;0.1237;-0.7460;
642.9000;0.1327;-0.7209;
643.2000;0.1270;-0.7334;
643.5000;0.1302;-0.7259;
643.8000;0.1302;-0.7184;
644.1000;0.1254;-0.7159;
644.4000;0.1335;-0.6907;
644.7000;0.1286;-0.7033;
645.0000;0.1302;-0.7083;
645.3000;0.1319;-0.7108;
645.6000;0.1278;-0.7184;
645.9000;0.1221;-0.7385;
646.2000;0.1254;-0.7385;
646.5000;0.1302;-0.7309;
646.8000;0.1302;-0.7360;
647.1000;0.1294;-0.7385;
647.4000;0.1262;-0.7410;
647.7000;0.1286;-0.7360;
648.0000;0.1302;-0.7259;
648.3000;0.1286;-0.7234;
648.6000;0.1302;-0.7209;
648.9000;0.1302;-0.7334;
649.2000;0.1294;-0.7460;
649.5000;0.1294;-0.7435;
649.8000;0.1294;-0.7435;
650.1000;0.1278;-0.7435;
650.4000;0.1262;-0.7410;
650.7000;0.1270;-0.7485;
651.0000;0.1294;-0.7560;
651.3000;0.1278;-0.7636;
651.6000;0.1262;-0.7812;
651.9000;0.1376;-0.7360;
652.2000;0.1311;-0.7485;
652.5000;0.1302;-0.7560;
652.8000;0.1294;-0.7636;
653.1000;0.1302;-0.7611;
653.4000;0.1294;-0.7636;
653.7000;0.1327;-0.7510;
654.0000;0.1286;-0.7661;
654.3000;0.1294;-0.7535;
654.6000;0.1302;-0.7510;
654.9000;0.1302;-0.7435;
655.2000;0.1294;-0.7435;
655.5000;0.1278;-0.7485;
655.8000;0.1294;-0.7510;
656.1000;0.1302;-0.7460;
656.4000;0.1286;-0.7460;
656.7000;0.1270;-0.7435;
657.0000;0.1286;-0.7410;
657.3000;0.1302;-0.7385;
657.6000;0.1278;-0.7435;
657.9000;0.1302;-0.7360;
658.2000;0.1327;-0.7209;
658.5000;0.1286;-0.7334;
658.8000;0.1311;-0.7234;
659.1000;0.1319;-0.7284;
659.4000;0.1262;-0.7435;
659.7000;0.1343;-0.7159;
660.0000;0.1254;-0.7360;
660.3000;0.1311;-0.7234;
660.6000;0.1335;-0.7184;
660.9000;0.1262;-0.7309;
661.2000;0.1294;-0.7184;
661.5000;0.1286;-0.7209;
661.8000;0.1294;-0.7159;
662.1000;0.1286;-0.7159;
662.4000;0.1278;-0.7234;
662.7000;0.1286;-0.7209;
663.0000;0.1286;-0.7234;
663.3000;0.1294;-0.7234;
663.6000;0.1311;-0.7184;
663.9000;0.1294;-0.7284;
664.2000;0.1302;-0.7309;
664.5000;0.1262;-0.7460;
664.8000;0.1270;-0.7410;
665.1000;0.1302;-0.7334;
665.4000;0.1286;-0.7435;
665.7000;0.1221;-0.7485;
666.0000;0.1286;-0.7385;
666.3000;0.1286;-0.7435;
666.6000;0.1343;-0.7284;
666.9000;0.1270;-0.7560;
667.2000;0.1262;-0.7560;
667.5000;0.1286;-0.7560;
667.8000;0.1302;-0.7435;
668.1000;0.1302;-0.7385;
668.4000;0.1188;-0.7661;
668.7000;0.1302;-0.7385;
669.0000;0.1286;-0.7535;
669.3000;0.1270;-0.7636;
669.6000;0.1294;-0.7560;
669.9000;0.1254;-0.7636;
670.2000;0.1286;-0.7535;
670.5000;0.1286;-0.7485;
670.8000;0.1270;-0.7460;
671.1000;0.1294;-0.7385;
671.4000;0.1278;-0.7360;
671.7000;0.1278;-0.7385;
672.0000;0.1262;-0.7460;
672.3000;0.1302;-0.7309;
672.6000;0.1286;-0.7410;
672.9000;0.1294;-0.7360;
673.2000;0.1286;-0.7460;
673.5000;0.1270;-0.7560;
673.8000;0.1294;-0.7485;
674.1000;0.1294;-0.7385;
674.4000;0.1278;-0.7385;
674.7000;0.1262;-0.7460;
675.0000;0.1294;-0.7435;
675.3000;0.1311;-0.7460;
675.6000;0.1286;-0.7485;
675.9000;0.1286;-0.7535;
676.2000;0.1270;-0.7535;
676.5000;0.1311;-0.7485;
676.8000;0.1278;-0.7510;
677.1000;0.1286;-0.7586;
677.4000;0.1294;-0.7586;
677.7000;0.1278;-0.7661;
678.0000;0.1302;-0.7560;
678.3000;0.1286;-0.7535;
678.6000;0.1254;-0.7636;
678.9000;0.1294;-0.7636;
679.2000;0.1319;-0.7686;
679.5000;0.1302;-0.7761;
679.8000;0.1278;-0.7787;
680.1000;0.1229;-0.7962;
680.4000;0.1286;-0.7862;
680.7000;0.1311;-0.7837;
681.0000;0.1311;-0.7837;
681.3000;0.1286;-0.7887;
681.6000;0.1270;-0.7937;
681.9000;0.1302;-0.7787;
682.2000;0.1294;-0.7812;
682.5000;0.1294;-0.7761;
682.8000;0.1278;-0.7736;
683.1000;0.1343;-0.7385;
683.4000;0.1286;-0.7460;
683.7000;0.1294;-0.7385;
684.0000;0.1286;-0.7410;
684.3000;0.1294;-0.7510;
684.6000;0.1286;-0.7611;
684.9000;0.1302;-0.7560;
685.2000;0.1319;-0.7586;
685.5000;0.1278;-0.7761;
685.8000;0.1343;-0.7560;
686.1000;0.1278;-0.7686;
686.4000;0.1270;-0.7586;
686.7000;0.1294;-0.7510;
687.0000;0.1294;-0.7485;
687.3000;0.1245;-0.7661;
687.6000;0.1311;-0.7586;
687.9000;0.1294;-0.7611;
688.2000;0.1311;-0.7510;
688.5000;0.1319;-0.7560;
688.8000;0.1335;-0.7560;
689.1000;0.1302;-0.7560;
689.4000;0.1335;-0.7535;
689.7000;0.1278;-0.7661;
690.0000;0.1278;-0.7736;
690.3000;0.1262;-0.7812;
690.6000;0.1286;-0.7736;
690.9000;0.1278;-0.7711;
691.2000;0.1392;-0.7435;
691.5000;0.1270;-0.7761;
691.8000;0.1311;-0.7686;
692.1000;0.1294;-0.7711;
692.4000;0.1254;-0.7787;
692.7000;0.1311;-0.7636;
693.0000;0.1302;-0.7686;
693.3000;0.1294;-0.7636;
693.6000;0.1311;-0.7611;
693.9000;0.1294;-0.7560;
694.2000;0.1286;-0.7510;
694.5000;0.1286;-0.7485;
694.8000;0.1294;-0.7560;
695.1000;0.1262;-0.7510;
695.4000;0.1294;-0.7410;
695.7000;0.1286;-0.7460;
696.0000;0.1278;-0.7535;
696.3000;0.1270;-0.7586;
696.6000;0.1245;-0.7611;
696.9000;0.1302;-0.7510;
697.2000;0.1254;-0.7611;
697.5000;0.1286;-0.7560;
697.8000;0.1294;-0.7510;
698.1000;0.1302;-0.7560;
698.4000;0.1270;-0.7586;
698.7000;0.1237;-0.7661;
699.0000;0.1262;-0.7560;
699.3000;0.1294;-0.7485;
699.6000;0.1294;-0.7560;
699.9000;0.1278;-0.7636;
700.2000;0.1278;-0.7611;
700.5000;0.1302;-0.7586;
700.8000;0.1286;-0.7611;
701.1000;0.1254;-0.7636;
701.4000;0.1294;-0.7586;
701.7000;0.1270;-0.7510;
702.0000;0.1294;-0.7435;
702.3000;0.1278;-0.7485;
702.6000;0.1311;-0.7334;
702.9000;0.1245;-0.7586;
703.2000;0.1302;-0.7410;
703.5000;0.1278;-0.7510;
703.8000;0.1286;-0.7611;
704.1000;0.1294;-0.7636;
704.4000;0.1302;-0.7586;
704.7000;0.1294;-0.7586;
705.0000;0.1254;-0.7560;
705.3000;0.1286;-0.7410;
705.6000;0.1311;-0.7360;
705.9000;0.1294;-0.7560;
706.2000;0.1262;-0.7535;
706.5000;0.1286;-0.7460;
706.8000;0.1294;-0.7435;
707.1000;0.1294;-0.7334;
707.4000;0.1278;-0.7309;
707.7000;0.1205;-0.7510;
708.0000;0.1286;-0.7284;
708.3000;0.1302;-0.7259;
708.6000;0.1294;-0.7284;
708.9000;0.1270;-0.7284;
709.2000;0.1270;-0.7259;
709.5000;0.1245;-0.7309;
709.8000;0.1270;-0.7284;
710.1000;0.1319;-0.7209;
710.4000;0.1286;-0.7234;
710.7000;0.1278;-0.7234;
711.0000;0.1343;-0.6958;
711.3000;0.1294;-0.7033;
711.6000;0.1270;-0.7033;
711.9000;0.1294;-0.7083;
712.2000;0.1286;-0.7159;
712.5000;0.1294;-0.7209;
712.8000;0.1270;-0.7309;
713.1000;0.1278;-0.7309;
713.4000;0.1302;-0.7259;
713.7000;0.1294;-0.7209;
714.0000;0.1286;-0.7309;
714.3000;0.1376;-0.7159;
714.6000;0.1294;-0.7385;
714.9000;0.1294;-0.7360;
715.2000;0.1294;-0.7360;
715.5000;0.1286;-0.7460;
715.8000;0.1294;-0.7435;
716.1000;0.1286;-0.7410;
716.4000;0.1270;-0.7485;
716.7000;0.1335;-0.7385;
717.0000;0.1286;-0.7611;
717.3000;0.1229;-0.7761;
717.6000;0.1286;-0.7736;
717.9000;0.1400;-0.7510;
718.2000;0.1408;-0.7535;
718.5000;0.1311;-0.7812;
718.8000;0.1294;-0.7711;
719.1000;0.1311;-0.7636;
719.4000;0.1294;-0.7485;
719.7000;0.1311;-0.7435;
720.0000;0.1343;-0.7259;
720.3000;0.1262;-0.7560;
720.6000;0.1286;-0.7485;
720.9000;0.1302;-0.7385;
721.2000;0.1180;-0.7686;
721.5000;0.1286;-0.7510;
721.8000;0.1294;-0.7535;
722.1000;0.1302;-0.7535;
722.4000;0.1392;-0.7410;
722.7000;0.1302;-0.7636;
723.0000;0.1237;-0.7761;
723.3000;0.1286;-0.7686;
723.6000;0.1294;-0.7686;
723.9000;0.1286;-0.7611;
724.2000;0.1302;-0.7460;
724.5000;0.1294;-0.7485;
724.8000;0.1302;-0.7385;
725.1000;0.1294;-0.7385;
725.4000;0.1286;-0.7510;
725.7000;0.1311;-0.7460;
726.0000;0.1294;-0.7510;
726.3000;0.1294;-0.7560;
726.6000;0.1294;-0.7586;
726.9000;0.1294;-0.7510;
727.2000;0.1327;-0.7510;
727.5000;0.1302;-0.7460;
727.8000;0.1294;-0.7460;
728.1000;0.1286;-0.7410;
728.4000;0.1286;-0.7410;
728.7000;0.1294;-0.7334;
729.0000;0.1270;-0.7460;
729.3000;0.1294;-0.7360;
729.6000;0.1294;-0.7460;
729.9000;0.1302;-0.7560;
730.2000;0.1254;-0.7686;
730.5000;0.1278;-0.7586;
730.8000;0.1286;-0.7510;
731.1000;0.1270;-0.7586;
731.4000;0.1278;-0.7560;
731.7000;0.1237;-0.7661;
732.0000;0.1286;-0.7560;
732.3000;0.1302;-0.7535;
732.6000;0.1327;-0.7435;
732.9000;0.1286;-0.7686;
733.2000;0.1294;-0.7661;
733.5000;0.1294;-0.7560;
733.8000;0.1302;-0.7636;
734.1000;0.1245;-0.7837;
734.4000;0.1294;-0.7661;
734.7000;0.1278;-0.7661;
735.0000;0.1335;-0.7535;
735.3000;0.1278;-0.7661;
735.6000;0.1262;-0.7560;
735.9000;0.1237;-0.7661;
736.2000;0.1270;-0.7586;
736.5000;0.1294;-0.7535;
736.8000;0.1294;-0.7485;
737.1000;0.1286;-0.7510;
737.4000;0.1278;-0.7535;
737.7000;0.1327;-0.7435;
738.0000;0.1237;-0.7661;
738.3000;0.1294;-0.7410;
738.6000;0.1311;-0.7410;
738.9000;0.1294;-0.7460;
739.2000;0.1302;-0.7360;
739.5000;0.1343;-0.7360;
739.8000;0.1237;-0.7611;
740.1000;0.1286;-0.7460;
740.4000;0.1302;-0.7360;
740.7000;0.1294;-0.7435;
741.0000;0.1294;-0.7460;
741.3000;0.1294;-0.7510;
741.6000;0.1302;-0.7485;
741.9000;0.1270;-0.7636;
742.2000;0.1302;-0.7560;
742.5000;0.1294;-0.7535;
742.8000;0.1294;-0.7410;
743.1000;0.1286;-0.7460;
743.4000;0.1286;-0.7410;
743.7000;0.1286;-0.7460;
744.0000;0.1294;-0.7510;
744.3000;0.1302;-0.7535;
744.6000;0.1262;-0.7636;
744.9000;0.1294;-0.7586;
745.2000;0.1408;-0.7209;
745.5000;0.1286;-0.7535;
745.8000;0.1262;-0.7636;
746.1000;0.1302;-0.7586;
746.4000;0.1278;-0.7661;
746.7000;0.1319;-0.7661;
747.0000;0.1270;-0.7736;
747.3000;0.1286;-0.7711;
747.6000;0.1294;-0.7761;
747.9000;0.1278;-0.7661;
748.2000;0.1294;-0.7636;
748.5000;0.1286;-0.7761;
748.8000;0.1359;-0.7560;
749.1000;0.1311;-0.7711;
749.4000;0.1286;-0.7711;
749.7000;0.1205;-0.7862;
750.0000;0.1278;-0.7636;
750.3000;0.1286;-0.7636;
750.6000;0.1294;-0.7711;
750.9000;0.1286;-0.7586;
751.2000;0.1286;-0.7560;
751.5000;0.1294;-0.7560;
751.8000;0.1294;-0.7560;
752.1000;0.1286;-0.7611;
752.4000;0.1294;-0.7661;
752.7000;0.1270;-0.7611;
753.0000;0.1327;-0.7485;
753.3000;0.1343;-0.7485;
753.6000;0.1302;-0.7535;
753.9000;0.1368;-0.7360;
754.2000;0.1302;-0.7535;
754.5000;0.1302;-0.7560;
754.8000;0.1302;-0.7661;
755.1000;0.1286;-0.7837;
755.4000;0.1302;-0.7812;
755.7000;0.1286;-0.7862;
756.0000;0.1278;-0.7837;
756.3000;0.1302;-0.7761;
756.6000;0.1262;-0.7837;
756.9000;0.1270;-0.7862;
757.2000;0.1286;-0.7812;
757.5000;0.1278;-0.7787;
757.8000;0.1294;-0.7711;
758.1000;0.1302;-0.7736;
758.4000;0.1229;-0.7987;
758.7000;0.1286;-0.7812;
759.0000;0.1245;-0.7812;
759.3000;0.1294;-0.7636;
759.6000;0.1351;-0.7435;
759.9000;0.1140;-0.8013;
760.2000;0.1294;-0.7535;
760.5000;0.1294;-0.7535;
760.8000;0.1278;-0.7611;
761.1000;0.1205;-0.7837;
761.4000;0.1278;-0.7535;
761.7000;0.1302;-0.7435;
762.0000;0.1319;-0.7485;
762.3000;0.1286;-0.7535;
762.6000;0.1270;-0.7636;
762.9000;0.1311;-0.7485;
763.2000;0.1286;-0.7435;
763.5000;0.1294;-0.7460;
763.8000;0.1270;-0.7510;
764.1000;0.1286;-0.7510;
764.4000;0.1302;-0.7510;
764.7000;0.1262;-0.7535;
765.0000;0.1278;-0.7485;
765.3000;0.1278;-0.7410;
765.6000;0.1294;-0.7360;
765.9000;0.1278;-0.7360;
766.2000;0.1302;-0.7334;
766.5000;0.1294;-0.7435;
766.8000;0.1278;-0.7485;
767.1000;0.1302;-0.7360;
767.4000;0.1319;-0.7259;
767.7000;0.1294;-0.7284;
768.0000;0.1294;-0.7284;
768.3000;0.1302;-0.7334;
768.6000;0.1254;-0.7410;
768.9000;0.1319;-0.7385;
769.2000;0.1311;-0.7460;
769.5000;0.1294;-0.7460;
769.8000;0.1270;-0.7385;
770.1000;0.1294;-0.7360;
770.4000;0.1368;-0.7234;
770.7000;0.1319;-0.7309;
771.0000;0.1286;-0.7234;
771.3000;0.1286;-0.7209;
771.6000;0.1302;-0.7159;
771.9000;0.1302;-0.7159;
772.2000;0.1311;-0.7108;
772.5000;0.1286;-0.7159;
772.8000;0.1311;-0.7108;
773.1000;0.1286;-0.7184;
773.4000;0.1294;-0.7209;
773.7000;0.1343;-0.7159;
774.0000;0.1319;-0.7284;
774.3000;0.1286;-0.7209;
774.6000;0.1262;-0.7334;
774.9000;0.1319;-0.7184;
775.2000;0.1286;-0.7334;
775.5000;0.1368;-0.7133;
775.8000;0.1294;-0.7334;
776.1000;0.1311;-0.7334;
776.4000;0.1302;-0.7485;
776.7000;0.1237;-0.7761;
777.0000;0.1262;-0.7686;
777.3000;0.1294;-0.7560;
777.6000;0.1254;-0.7586;
777.9000;0.1229;-0.7611;
778.2000;0.1294;-0.7435;
778.5000;0.1311;-0.7309;
778.8000;0.1302;-0.7435;
779.1000;0.1262;-0.7485;
779.4000;0.1311;-0.7334;
779.7000;0.1213;-0.7535;
780.0000;0.1278;-0.7309;
780.3000;0.1254;-0.7309;
780.6000;0.1294;-0.7284;
780.9000;0.1294;-0.7334;
781.2000;0.1245;-0.7460;
781.5000;0.1286;-0.7485;
781.8000;0.1286;-0.7586;
782.1000;0.1286;-0.7510;
782.4000;0.1237;-0.7560;
782.7000;0.1286;-0.7385;
783.0000;0.1278;-0.7410;
783.3000;0.1278;-0.7360;
783.6000;0.1376;-0.7159;
783.9000;0.1294;-0.7360;
784.2000;0.1294;-0.7334;
784.5000;0.1294;-0.7360;
784.8000;0.1278;-0.7309;
785.1000;0.1294;-0.7259;
785.4000;0.1278;-0.7360;
785.7000;0.1294;-0.7334;
786.0000;0.1286;-0.7284;
786.3000;0.1254;-0.7435;
786.6000;0.1302;-0.7435;
786.9000;0.1302;-0.7510;
787.2000;0.1302;-0.7460;
787.5000;0.1286;-0.7510;
787.8000;0.1294;-0.7435;
788.1000;0.1302;-0.7435;
788.4000;0.1368;-0.7209;
788.7000;0.1286;-0.7385;
789.0000;0.1294;-0.7410;
789.3000;0.1294;-0.7460;
789.6000;0.1286;-0.7460;
789.9000;0.1302;-0.7410;
790.2000;0.1343;-0.7284;
790.5000;0.1294;-0.7460;
790.8000;0.1319;-0.7410;
791.1000;0.1294;-0.7460;
791.4000;0.1278;-0.7410;
791.7000;0.1278;-0.7360;
792.0000;0.1335;-0.7133;
792.3000;0.1302;-0.7184;
792.6000;0.1270;-0.7284;
792.9000;0.1311;-0.7259;
793.2000;0.1286;-0.7435;
793.5000;0.1294;-0.7410;
793.8000;0.1294;-0.7460;
794.1000;0.1294;-0.7535;
794.4000;0.1302;-0.7460;
794.7000;0.1278;-0.7460;
795.0000;0.1278;-0.7510;
795.3000;0.1302;-0.7435;
795.6000;0.1286;-0.7485;
795.9000;0.1294;-0.7435;
796.2000;0.1229;-0.7661;
796.5000;0.1262;-0.7686;
796.8000;0.1262;-0.7661;
797.1000;0.1278;-0.7636;
797.4000;0.1286;-0.7560;
797.7000;0.1278;-0.7611;
798.0000;0.1311;-0.7535;
798.3000;0.1270;-0.7686;
798.6000;0.1294;-0.7661;
798.9000;0.1286;-0.7560;
799.2000;0.1270;-0.7586;
799.5000;0.1294;-0.7510;
799.8000;0.1237;-0.7611;
800.1000;0.1278;-0.7586;
800.4000;0.1294;-0.7636;
800.7000;0.1302;-0.7510;
801.0000;0.1262;-0.7636;
801.3000;0.1311;-0.7435;
801.6000;0.1294;-0.7385;
801.9000;0.1302;-0.7385;
802.2000;0.1294;-0.7234;
802.5000;0.1294;-0.7108;
802.8000;0.1294;-0.7008;
803.1000;0.1286;-0.7108;
803.4000;0.1302;-0.7083;
803.7000;0.1311;-0.7159;
804.0000;0.1294;-0.7284;
804.3000;0.1286;-0.7435;
804.6000;0.1294;-0.7460;
804.9000;0.1294;-0.7485;
805.2000;0.1278;-0.7435;
805.5000;0.1294;-0.7435;
805.8000;0.1286;-0.7360;
806.1000;0.1319;-0.7410;
806.4000;0.1254;-0.7535;
806.7000;0.1294;-0.7485;
807.0000;0.1262;-0.7535;
807.3000;0.1327;-0.7309;
807.6000;0.1311;-0.7334;
807.9000;0.1286;-0.7309;
808.2000;0.1286;-0.7360;
808.5000;0.1294;-0.7309;
808.8000;0.1311;-0.7284;
809.1000;0.1286;-0.7410;
809.4000;0.1302;-0.7334;
809.7000;0.1286;-0.7334;
810.0000;0.1302;-0.7259;
810.3000;0.1278;-0.7360;
810.6000;0.1335;-0.7209;
810.9000;0.1278;-0.7385;
811.2000;0.1270;-0.7435;
811.5000;0.1359;-0.7184;
811.8000;0.1278;-0.7460;
812.1000;0.1286;-0.7410;
812.4000;0.1254;-0.7460;
812.7000;0.1237;-0.7460;
813.0000;0.1278;-0.7284;
813.3000;0.1286;-0.7234;
813.6000;0.1278;-0.7259;
813.9000;0.1302;-0.7284;
814.2000;0.1286;-0.7410;
814.5000;0.1286;-0.7435;
814.8000;0.1278;-0.7334;
815.1000;0.1286;-0.7234;
815.4000;0.1205;-0.7460;
815.7000;0.1294;-0.7234;
816.0000;0.1311;-0.7184;
816.3000;0.1319;-0.7108;
816.6000;0.1197;-0.7485;
816.9000;0.1278;-0.7309;
817.2000;0.1286;-0.7309;
817.5000;0.1351;-0.7159;
817.8000;0.1294;-0.7309;
818.1000;0.1302;-0.7209;
818.4000;0.1294;-0.7159;
818.7000;0.1319;-0.7108;
819.0000;0.1294;-0.7309;
819.3000;0.1286;-0.7360;
819.6000;0.1311;-0.7385;
819.9000;0.1294;-0.7360;
820.2000;0.1311;-0.7360;
820.5000;0.1311;-0.7360;
820.8000;0.1302;-0.7284;
821.1000;0.1311;-0.7309;
821.4000;0.1278;-0.7360;
821.7000;0.1294;-0.7360;
822.0000;0.1270;-0.7360;
822.3000;0.1286;-0.7334;
822.6000;0.1286;-0.7309;
822.9000;0.1237;-0.7535;
823.2000;0.1286;-0.7334;
823.5000;0.1294;-0.7410;
823.8000;0.1286;-0.7385;
824.1000;0.1286;-0.7360;
824.4000;0.1311;-0.7259;
824.7000;0.1294;-0.7259;
825.0000;0.1311;-0.7259;
825.3000;0.1229;-0.7435;
825.6000;0.1294;-0.7334;
825.9000;0.1270;-0.7360;
826.2000;0.1302;-0.7209;
826.5000;0.1294;-0.7108;
826.8000;0.1302;-0.7159;
827.1000;0.1262;-0.7133;
827.4000;0.1278;-0.7083;
827.7000;0.1302;-0.7133;
828.0000;0.1302;-0.7184;
828.3000;0.1286;-0.7259;
828.6000;0.1294;-0.7309;
828.9000;0.1278;-0.7410;
829.2000;0.1311;-0.7360;
829.5000;0.1311;-0.7410;
829.8000;0.1294;-0.7410;
830.1000;0.1294;-0.7284;
830.4000;0.1270;-0.7385;
830.7000;0.1213;-0.7611;
831.0000;0.1278;-0.7460;
831.3000;0.1278;-0.7435;
831.6000;0.1262;-0.7385;
831.9000;0.1286;-0.7410;
832.2000;0.1294;-0.7410;
832.5000;0.1286;-0.7410;
832.8000;0.1294;-0.7410;
833.1000;0.1294;-0.7410;
833.4000;0.1294;-0.7385;
833.7000;0.1286;-0.7410;
834.0000;0.1237;-0.7560;
834.3000;0.1311;-0.7360;
834.6000;0.1302;-0.7410;
834.9000;0.1278;-0.7435;
835.2000;0.1286;-0.7284;
835.5000;0.1302;-0.7309;
835.8000;0.1278;-0.7410;
836.1000;0.1278;-0.7410;
836.4000;0.1286;-0.7410;
836.7000;0.1311;-0.7435;
837.0000;0.1294;-0.7435;
837.3000;0.1286;-0.7510;
837.6000;0.1294;-0.7510;
837.9000;0.1294;-0.7485;
838.2000;0.1270;-0.7560;
838.5000;0.1294;-0.7510;
838.8000;0.1278;-0.7535;
839.1000;0.1286;-0.7510;
839.4000;0.1302;-0.7435;
839.7000;0.1302;-0.7435;
840.0000;0.1294;-0.7460;
840.3000;0.1302;-0.7460;
840.6000;0.1294;-0.7535;
840.9000;0.1286;-0.7560;
841.2000;0.1302;-0.7611;
841.5000;0.1270;-0.7636;
841.8000;0.1294;-0.7586;
842.1000;0.1286;-0.7586;
842.4000;0.1278;-0.7611;
842.7000;0.1294;-0.7611;
843.0000;0.1294;-0.7611;
843.3000;0.1278;-0.7485;
843.6000;0.1294;-0.7385;
843.9000;0.1245;-0.7435;
844.2000;0.1319;-0.7209;
844.5000;0.1262;-0.7410;
844.8000;0.1278;-0.7385;
845.1000;0.1213;-0.7560;
845.4000;0.1294;-0.7334;
845.7000;0.1286;-0.7460;
846.0000;0.1286;-0.7410;
846.3000;0.1278;-0.7410;
846.6000;0.1278;-0.7460;
846.9000;0.1294;-0.7460;
847.2000;0.1384;-0.7159;
847.5000;0.1262;-0.7460;
847.8000;0.1270;-0.7535;
848.1000;0.1302;-0.7535;
848.4000;0.1294;-0.7535;
848.7000;0.1351;-0.7435;
849.0000;0.1286;-0.7535;
849.3000;0.1262;-0.7636;
849.6000;0.1294;-0.7485;
849.9000;0.1311;-0.7385;
850.2000;0.1278;-0.7410;
850.5000;0.1278;-0.7510;
850.8000;0.1270;-0.7636;
851.1000;0.1335;-0.7485;
851.4000;0.1278;-0.7560;
851.7000;0.1294;-0.7510;
852.0000;0.1368;-0.7259;
852.3000;0.1335;-0.7284;
852.6000;0.1262;-0.7360;
852.9000;0.1278;-0.7309;
853.2000;0.1302;-0.7284;
853.5000;0.1311;-0.7309;
853.8000;0.1302;-0.7360;
854.1000;0.1286;-0.7334;
854.4000;0.1319;-0.7259;
854.7000;0.1270;-0.7510;
855.0000;0.1286;-0.7460;
855.3000;0.1245;-0.7586;
855.6000;0.1278;-0.7410;
855.9000;0.1294;-0.7309;
856.2000;0.1311;-0.7334;
856.5000;0.1164;-0.7711;
856.8000;0.1270;-0.7460;
857.1000;0.1302;-0.7460;
857.4000;0.1335;-0.7360;
857.7000;0.1311;-0.7460;
858.0000;0.1286;-0.7510;
858.3000;0.1311;-0.7435;
858.6000;0.1335;-0.7360;
858.9000;0.1278;-0.7636;
859.2000;0.1343;-0.7460;
859.5000;0.1294;-0.7510;
859.8000;0.1278;-0.7535;
860.1000;0.1302;-0.7560;
860.4000;0.1302;-0.7586;
860.7000;0.1294;-0.7611;
861.0000;0.1278;-0.7586;
861.3000;0.1294;-0.7535;
861.6000;0.1319;-0.7485;
861.9000;0.1278;-0.7510;
862.2000;0.1294;-0.7485;
862.5000;0.1302;-0.7560;
862.8000;0.1278;-0.7611;
863.1000;0.1294;-0.7510;
863.4000;0.1278;-0.7510;
863.7000;0.1343;-0.7410;
864.0000;0.1319;-0.7460;
864.3000;0.1286;-0.7485;
864.6000;0.1311;-0.7435;
864.9000;0.1319;-0.7410;
865.2000;0.1294;-0.7410;
865.5000;0.1311;-0.7410;
865.8000;0.1294;-0.7435;
866.1000;0.1302;-0.7435;
866.4000;0.1319;-0.7435;
866.7000;0.1302;-0.7586;
867.0000;0.1270;-0.7661;
867.3000;0.1294;-0.7661;
867.6000;0.1294;-0.7686;
867.9000;0.1302;-0.7686;
868.2000;0.1270;-0.7787;
868.5000;0.1311;-0.7736;
868.8000;0.1262;-0.7736;
869.1000;0.1302;-0.7586;
869.4000;0.1294;-0.7661;
869.7000;0.1294;-0.7560;
870.0000;0.1262;-0.7636;
870.3000;0.1286;-0.7711;
870.6000;0.1278;-0.7711;
870.9000;0.1262;-0.7736;
871.2000;0.1286;-0.7611;
871.5000;0.1262;-0.7686;
871.8000;0.1286;-0.7661;
872.1000;0.1302;-0.7611;
872.4000;0.1278;-0.7661;
872.7000;0.1294;-0.7510;
873.0000;0.1327;-0.7435;
873.3000;0.1286;-0.7535;
873.6000;0.1294;-0.7736;
873.9000;0.1302;-0.7661;
874.2000;0.1294;-0.7661;
874.5000;0.1278;-0.7661;
874.8000;0.1262;-0.7686;
875.1000;0.1311;-0.7560;
875.4000;0.1294;-0.7535;
875.7000;0.1294;-0.7460;
876.0000;0.1343;-0.7259;
876.3000;0.1376;-0.7133;
876.6000;0.1294;-0.7410;
876.9000;0.1254;-0.7535;
877.2000;0.1278;-0.7460;
877.5000;0.1294;-0.7460;
877.8000;0.1278;-0.7535;
878.1000;0.1270;-0.7510;
878.4000;0.1262;-0.7611;
878.7000;0.1278;-0.7535;
879.0000;0.1335;-0.7385;
879.3000;0.1221;-0.7787;
879.6000;0.1270;-0.7711;
879.9000;0.1286;-0.7736;
880.2000;0.1294;-0.7661;
880.5000;0.1302;-0.7586;
880.8000;0.1294;-0.7510;
881.1000;0.1311;-0.7485;
881.4000;0.1294;-0.7435;
881.7000;0.1278;-0.7460;
882.0000;0.1278;-0.7460;
882.3000;0.1335;-0.7309;
882.6000;0.1294;-0.7485;
882.9000;0.1286;-0.7460;
883.2000;0.1286;-0.7435;
883.5000;0.1286;-0.7360;
883.8000;0.1302;-0.7360;
884.1000;0.1302;-0.7410;
884.4000;0.1311;-0.7360;
884.7000;0.1294;-0.7309;
885.0000;0.1294;-0.7309;
885.3000;0.1302;-0.7334;
885.6000;0.1294;-0.7385;
885.9000;0.1294;-0.7510;
886.2000;0.1286;-0.7410;
886.5000;0.1302;-0.7460;
886.8000;0.1302;-0.7510;
887.1000;0.1294;-0.7510;
887.4000;0.1286;-0.7560;
887.7000;0.1286;-0.7485;
888.0000;0.1254;-0.7535;
888.3000;0.1302;-0.7309;
888.6000;0.1278;-0.7334;
888.9000;0.1262;-0.7334;
889.2000;0.1278;-0.7309;
889.5000;0.1262;-0.7360;
889.8000;0.1343;-0.7159;
890.1000;0.1286;-0.7234;
890.4000;0.1302;-0.7334;
890.7000;0.1262;-0.7586;
891.0000;0.1262;-0.7636;
891.3000;0.1302;-0.7435;
891.6000;0.1278;-0.7435;
891.9000;0.1319;-0.7435;
892.2000;0.1286;-0.7510;
892.5000;0.1294;-0.7485;
892.8000;0.1197;-0.7560;
893.1000;0.1270;-0.7385;
893.4000;0.1278;-0.7385;
893.7000;0.1237;-0.7560;
894.0000;0.1335;-0.7410;
894.3000;0.1294;-0.7460;
894.6000;0.1319;-0.7410;
894.9000;0.1286;-0.7510;
895.2000;0.1335;-0.7410;
895.5000;0.1311;-0.7510;
895.8000;0.1237;-0.7661;
896.1000;0.1262;-0.7535;
896.4000;0.1294;-0.7485;
896.7000;0.1311;-0.7560;
897.0000;0.1278;-0.7560;
897.3000;0.1278;-0.7560;
897.6000;0.1262;-0.7535;
897.9000;0.1262;-0.7510;
898.2000;0.1270;-0.7535;
898.5000;0.1286;-0.7435;
898.8000;0.1294;-0.7460;
899.1000;0.1335;-0.7360;
899.4000;0.1286;-0.7460;
899.7000;0.1278;-0.7510;
900.0000;0.1294;-0.7535;
900.3000;0.1262;-0.7611;
900.6000;0.1302;-0.7435;
900.9000;0.1294;-0.7460;
901.2000;0.1302;-0.7385;
901.5000;0.1294;-0.7460;
901.8000;0.1327;-0.7334;
902.1000;0.1294;-0.7460;
902.4000;0.1278;-0.7485;
902.7000;0.1294;-0.7360;
903.0000;0.1278;-0.7385;
903.3000;0.1294;-0.7410;
903.6000;0.1278;-0.7510;
903.9000;0.1302;-0.7485;
904.2000;0.1270;-0.7611;
904.5000;0.1294;-0.7586;
904.8000;0.1294;-0.7535;
905.1000;0.1294;-0.7535;
905.4000;0.1368;-0.7435;
905.7000;0.1294;-0.7586;
906.0000;0.1294;-0.7535;
906.3000;0.1294;-0.7460;
906.6000;0.1302;-0.7435;
906.9000;0.1278;-0.7460;
907.2000;0.1221;-0.7636;
907.5000;0.1270;-0.7485;
907.8000;0.1286;-0.7334;
908.1000;0.1302;-0.7385;
908.4000;0.1254;-0.7460;
908.7000;0.1286;-0.7460;
909.0000;0.1286;-0.7385;
909.3000;0.1270;-0.7460;
909.6000;0.1311;-0.7385;
909.9000;0.1270;-0.7485;
910.2000;0.1286;-0.7510;
910.5000;0.1270;-0.7586;
910.8000;0.1302;-0.7485;
911.1000;0.1262;-0.7611;
911.4000;0.1327;-0.7410;
911.7000;0.1294;-0.7510;
912.0000;0.1311;-0.7460;
912.3000;0.1286;-0.7435;
912.6000;0.1254;-0.7535;
912.9000;0.1237;-0.7460;
913.2000;0.1343;-0.7234;
913.5000;0.1286;-0.7385;
913.8000;0.1286;-0.7360;
914.1000;0.1278;-0.7309;
914.4000;0.1319;-0.7259;
914.7000;0.1270;-0.7460;
915.0000;0.1343;-0.7259;
915.3000;0.1286;-0.7435;
915.6000;0.1327;-0.7410;
915.9000;0.1294;-0.7435;
916.2000;0.1319;-0.7460;
916.5000;0.1278;-0.7586;
916.8000;0.1262;-0.7636;
917.1000;0.1302;-0.7586;
917.4000;0.1384;-0.7360;
917.7000;0.1343;-0.7485;
918.0000;0.1245;-0.7761;
918.3000;0.1327;-0.7510;
918.6000;0.1286;-0.7586;
918.9000;0.1294;-0.7535;
919.2000;0.1270;-0.7636;
919.5000;0.1294;-0.7586;
919.8000;0.1311;-0.7611;
920.1000;0.1302;-0.7586;
920.4000;0.1294;-0.7560;
920.7000;0.1311;-0.7485;
921.0000;0.1286;-0.7460;
921.3000;0.1311;-0.7385;
921.6000;0.1286;-0.7410;
921.9000;0.1294;-0.7435;
922.2000;0.1278;-0.7460;
922.5000;0.1254;-0.7485;
922.8000;0.1270;-0.7510;
923.1000;0.1343;-0.7309;
923.4000;0.1262;-0.7410;
923.7000;0.1335;-0.7234;
924.0000;0.1286;-0.7385;
924.3000;0.1286;-0.7510;
924.6000;0.1286;-0.7560;
924.9000;0.1302;-0.7611;
925.2000;0.1294;-0.7535;
925.5000;0.1262;-0.7560;
925.8000;0.1302;-0.7485;
926.1000;0.1343;-0.7360;
926.4000;0.1294;-0.7460;
926.7000;0.1302;-0.7510;
927.0000;0.1311;-0.7460;
927.3000;0.1278;-0.7510;
927.6000;0.1311;-0.7460;
927.9000;0.1286;-0.7460;
928.2000;0.1245;-0.7586;
928.5000;0.1311;-0.7435;
928.8000;0.1294;-0.7410;
929.1000;0.1302;-0.7435;
929.4000;0.1302;-0.7460;
929.7000;0.1319;-0.7460;
930.0000;0.1319;-0.7460;
930.3000;0.1302;-0.7460;
930.6000;0.1335;-0.7360;
930.9000;0.1302;-0.7535;
931.2000;0.1286;-0.7535;
931.5000;0.1286;-0.7560;
931.8000;0.1351;-0.7435;
932.1000;0.1327;-0.7535;
932.4000;0.1343;-0.7535;
932.7000;0.1262;-0.7711;
933.0000;0.1294;-0.7711;
933.3000;0.1286;-0.7661;
933.6000;0.1286;-0.7586;
933.9000;0.1278;-0.7485;
934.2000;0.1294;-0.7510;
934.5000;0.1302;-0.7485;
934.8000;0.1286;-0.7535;
935.1000;0.1286;-0.7560;
935.4000;0.1286;-0.7510;
935.7000;0.1286;-0.7435;
936.0000;0.1311;-0.7435;
936.3000;0.1294;-0.7485;
936.6000;0.1278;-0.7636;
936.9000;0.1262;-0.7661;
937.2000;0.1319;-0.7636;
937.5000;0.1302;-0.7611;
937.8000;0.1254;-0.7761;
938.1000;0.1270;-0.7686;
938.4000;0.1278;-0.7636;
938.7000;0.1237;-0.7736;
939.0000;0.1294;-0.7611;
939.3000;0.1294;-0.7686;
939.6000;0.1311;-0.7560;
939.9000;0.1278;-0.7535;
940.2000;0.1319;-0.7410;
940.5000;0.1294;-0.7535;
940.8000;0.1278;-0.7611;
941.1000;0.1302;-0.7611;
941.4000;0.1278;-0.7661;
941.7000;0.1270;-0.7686;
942.0000;0.1286;-0.7586;
942.3000;0.1294;-0.7586;
942.6000;0.1262;-0.7611;
942.9000;0.1270;-0.7586;
943.2000;0.1294;-0.7611;
943.5000;0.1286;-0.7711;
943.8000;0.1294;-0.7560;
944.1000;0.1327;-0.7535;
944.4000;0.1294;-0.7535;
944.7000;0.1311;-0.7485;
945.0000;0.1302;-0.7435;
945.3000;0.1319;-0.7460;
945.6000;0.1294;-0.7510;
945.9000;0.1302;-0.7560;
946.2000;0.1359;-0.7435;
946.5000;0.1286;-0.7586;
946.8000;0.1270;-0.7611;
947.1000;0.1343;-0.7334;
947.4000;0.1286;-0.7510;
947.7000;0.1286;-0.7535;
948.0000;0.1286;-0.7535;
948.3000;0.1294;-0.7586;
948.6000;0.1302;-0.7636;
948.9000;0.1278;-0.7711;
949.2000;0.1245;-0.7787;
949.5000;0.1278;-0.7711;
949.8000;0.1262;-0.7661;
950.1000;0.1327;-0.7485;
950.4000;0.1311;-0.7460;
950.7000;0.1286;-0.7535;
951.0000;0.1302;-0.7435;
951.3000;0.1245;-0.7611;
951.6000;0.1311;-0.7586;
951.9000;0.1286;-0.7661;
952.2000;0.1294;-0.7586;
952.5000;0.1294;-0.7686;
952.8000;0.1319;-0.7636;
953.1000;0.1286;-0.7711;
953.4000;0.1319;-0.7661;
953.7000;0.1302;-0.7535;
954.0000;0.1294;-0.7611;
954.3000;0.1229;-0.7787;
954.6000;0.1392;-0.7485;
954.9000;0.1302;-0.7761;
955.2000;0.1368;-0.7611;
955.5000;0.1294;-0.7787;
955.8000;0.1245;-0.7912;
956.1000;0.1294;-0.7761;
956.4000;0.1302;-0.7686;
956.7000;0.1294;-0.7636;
957.0000;0.1286;-0.7711;
957.3000;0.1278;-0.7761;
957.6000;0.1294;-0.7736;
957.9000;0.1278;-0.7711;
958.2000;0.1311;-0.7611;
958.5000;0.1294;-0.7686;
958.8000;0.1343;-0.7485;
959.1000;0.1286;-0.7510;
959.4000;0.1294;-0.7560;
959.7000;0.1311;-0.7661;
960.0000;0.1294;-0.7711;
960.3000;0.1302;-0.7661;
960.6000;0.1286;-0.7736;
960.9000;0.1343;-0.7711;
961.2000;0.1286;-0.7787;
961.5000;0.1278;-0.7837;
961.8000;0.1376;-0.7510;
962.1000;0.1302;-0.7812;
962.4000;0.1302;-0.7812;
962.7000;0.1302;-0.7862;
963.0000;0.1335;-0.7761;
963.3000;0.1270;-0.7987;
963.6000;0.1294;-0.7862;
963.9000;0.1245;-0.7812;
964.2000;0.1270;-0.7787;
964.5000;0.1294;-0.7736;
964.8000;0.1286;-0.7686;
965.1000;0.1278;-0.7761;
965.4000;0.1302;-0.7711;
965.7000;0.1188;-0.8038;
966.0000;0.1205;-0.8088;
966.3000;0.1311;-0.7787;
966.6000;0.1286;-0.7787;
966.9000;0.1294;-0.7837;
967.2000;0.1335;-0.7761;
967.5000;0.1294;-0.7812;
967.8000;0.1311;-0.7837;
968.1000;0.1286;-0.7862;
968.4000;0.1319;-0.7761;
968.7000;0.1262;-0.7837;
969.0000;0.1286;-0.7761;
969.3000;0.1311;-0.7686;
969.6000;0.1302;-0.7711;
969.9000;0.1286;-0.7711;
970.2000;0.1294;-0.7761;
970.5000;0.1343;-0.7636;
970.8000;0.1311;-0.7761;
971.1000;0.1311;-0.7787;
971.4000;0.1311;-0.7787;
971.7000;0.1343;-0.7736;
972.0000;0.1270;-0.8063;
972.3000;0.1294;-0.7962;
972.6000;0.1278;-0.7912;
972.9000;0.1302;-0.7862;
973.2000;0.1278;-0.7962;
973.5000;0.1294;-0.7987;
973.8000;0.1335;-0.7812;
974.1000;0.1294;-0.7787;
974.4000;0.1311;-0.7787;
974.7000;0.1262;-0.7837;
975.0000;0.1294;-0.7611;
975.3000;0.1311;-0.7611;
975.6000;0.1294;-0.7611;
975.9000;0.1302;-0.7761;
976.2000;0.1335;-0.7636;
976.5000;0.1302;-0.7661;
976.8000;0.1286;-0.7686;
977.1000;0.1286;-0.7661;
977.4000;0.1294;-0.7661;
977.7000;0.1335;-0.7460;
978.0000;0.1302;-0.7460;
978.3000;0.1311;-0.7485;
978.6000;0.1286;-0.7560;
978.9000;0.1311;-0.7485;
979.2000;0.1262;-0.7611;
979.5000;0.1311;-0.7435;
979.8000;0.1270;-0.7560;
980.1000;0.1294;-0.7560;
980.4000;0.1311;-0.7586;
980.7000;0.1359;-0.7435;
981.0000;0.1368;-0.7485;
981.3000;0.1302;-0.7661;
981.6000;0.1302;-0.7611;
981.9000;0.1294;-0.7510;
982.2000;0.1294;-0.7560;
982.5000;0.1286;-0.7611;
982.8000;0.1278;-0.7711;
983.1000;0.1294;-0.7711;
983.4000;0.1286;-0.7736;
983.7000;0.1278;-0.7812;
984.0000;0.1302;-0.7636;
984.3000;0.1311;-0.7510;
984.6000;0.1294;-0.7535;
984.9000;0.1262;-0.7611;
985.2000;0.1237;-0.7636;
985.5000;0.1311;-0.7385;
985.8000;0.1351;-0.7284;
986.1000;0.1351;-0.7334;
986.4000;0.1286;-0.7485;
986.7000;0.1286;-0.7535;
987.0000;0.1254;-0.7661;
987.3000;0.1286;-0.7611;
987.6000;0.1286;-0.7611;
987.9000;0.1262;-0.7636;
988.2000;0.1302;-0.7535;
988.5000;0.1262;-0.7611;
988.8000;0.1286;-0.7636;
989.1000;0.1278;-0.7560;
989.4000;0.1294;-0.7535;
989.7000;0.1311;-0.7435;
990.0000;0.1245;-0.7535;
990.3000;0.1302;-0.7385;
990.6000;0.1302;-0.7410;
990.9000;0.1302;-0.7510;
991.2000;0.1302;-0.7560;
991.5000;0.1262;-0.7711;
991.8000;0.1286;-0.7611;
992.1000;0.1262;-0.7686;
992.4000;0.1327;-0.7560;
992.7000;0.1270;-0.7636;
993.0000;0.1294;-0.7560;
993.3000;0.1213;-0.7711;
993.6000;0.1302;-0.7510;
993.9000;0.1278;-0.7586;
994.2000;0.1278;-0.7535;
994.5000;0.1278;-0.7535;
994.8000;0.1294;-0.7460;
995.1000;0.1278;-0.7485;
995.4000;0.1245;-0.7510;
995.7000;0.1286;-0.7435;
996.0000;0.1278;-0.7535;
996.3000;0.1278;-0.7661;
996.6000;0.1286;-0.7586;
996.9000;0.1302;-0.7510;
997.2000;0.1302;-0.7485;
997.5000;0.1294;-0.7586;
997.8000;0.1237;-0.7686;
998.1000;0.1319;-0.7586;
998.4000;0.1327;-0.7611;
998.7000;0.1286;-0.7661;
999.0000;0.1278;-0.7736;
999.3000;0.1311;-0.7736;
999.6000;0.1302;-0.7636;
999.9000;0.1302;-0.7686;
1000.2000;0.1327;-0.7586;
1000.5000;0.1302;-0.7560;
1000.8000;0.1286;-0.7586;
1001.1000;0.1294;-0.7485;
1001.4000;0.1335;-0.7385;
1001.7000;0.1286;-0.7535;
1002.0000;0.1245;-0.7711;
1002.3000;0.1278;-0.7611;
1002.6000;0.1262;-0.7611;
1002.9000;0.1294;-0.7485;
1003.2000;0.1368;-0.7334;
1003.5000;0.1302;-0.7485;
1003.8000;0.1270;-0.7611;
1004.1000;0.1302;-0.7535;
1004.4000;0.1294;-0.7560;
1004.7000;0.1294;-0.7586;
1005.0000;0.1294;-0.7711;
1005.3000;0.1294;-0.7736;
1005.6000;0.1294;-0.7787;
1005.9000;0.1294;-0.7812;
1006.2000;0.1245;-0.7912;
1006.5000;0.1278;-0.7787;
1006.8000;0.1286;-0.7787;
1007.1000;0.1302;-0.7686;
1007.4000;0.1286;-0.7686;
1007.7000;0.1278;-0.7636;
1008.0000;0.1294;-0.7611;
1008.3000;0.1311;-0.7510;
1008.6000;0.1302;-0.7535;
1008.9000;0.1319;-0.7485;
1009.2000;0.1278;-0.7535;
1009.5000;0.1294;-0.7460;
1009.8000;0.1294;-0.7435;
1010.1000;0.1294;-0.7435;
1010.4000;0.1294;-0.7410;
1010.7000;0.1302;-0.7385;
1011.0000;0.1294;-0.7385;
1011.3000;0.1302;-0.7435;
1011.6000;0.1188;-0.7787;
1011.9000;0.1294;-0.7535;
1012.2000;0.1294;-0.7586;
1012.5000;0.1302;-0.7535;
1012.8000;0.1286;-0.7636;
1013.1000;0.1270;-0.7611;
1013.4000;0.1286;-0.7636;
1013.7000;0.1294;-0.7661;
1014.0000;0.1237;-0.7937;
1014.3000;0.1270;-0.7887;
1014.6000;0.1286;-0.7887;
1014.9000;0.1294;-0.7862;
1015.2000;0.1278;-0.7862;
1015.5000;0.1335;-0.7837;
1015.8000;0.1254;-0.7937;
1016.1000;0.1294;-0.7686;
1016.4000;0.1229;-0.7862;
1016.7000;0.1278;-0.7787;
1017.0000;0.1270;-0.7862;
1017.3000;0.1254;-0.7887;
1017.6000;0.1278;-0.7787;
1017.9000;0.1286;-0.7787;
1018.2000;0.1278;-0.7787;
1018.5000;0.1278;-0.7761;
1018.8000;0.1327;-0.7636;
1019.1000;0.1254;-0.7837;
1019.4000;0.1278;-0.7837;
1019.7000;0.1302;-0.7787;
1020.0000;0.1286;-0.7812;
1020.3000;0.1278;-0.7787;
1020.6000;0.1278;-0.7787;
1020.9000;0.1278;-0.7686;
1021.2000;0.1270;-0.7711;
1021.5000;0.1294;-0.7837;
1021.8000;0.1302;-0.7937;
1022.1000;0.1286;-0.7937;
1022.4000;0.1294;-0.7937;
1022.7000;0.1229;-0.8038;
1023.0000;0.1270;-0.7837;
1023.3000;0.1294;-0.7736;
1023.6000;0.1302;-0.7812;
1023.9000;0.1278;-0.7862;
1024.2000;0.1262;-0.7862;
1024.5000;0.1278;-0.7787;
1024.8000;0.1311;-0.7736;
1025.1000;0.1286;-0.7787;
1025.4000;0.1278;-0.7862;
1025.7000;0.1237;-0.7912;
1026.0000;0.1335;-0.7636;
1026.3000;0.1294;-0.7686;
1026.6000;0.1335;-0.7435;
1026.9000;0.1368;-0.7510;
1027.2000;0.1262;-0.7761;
1027.5000;0.1294;-0.7560;
1027.8000;0.1286;-0.7510;
1028.1000;0.1278;-0.7636;
1028.4000;0.1294;-0.7560;
1028.7000;0.1302;-0.7435;
1029.0000;0.1327;-0.7435;
1029.3000;0.1278;-0.7560;
1029.6000;0.1278;-0.7586;
1029.9000;0.1294;-0.7560;
1030.2000;0.1302;-0.7611;
1030.5000;0.1294;-0.7636;
1030.8000;0.1376;-0.7385;
1031.1000;0.1368;-0.7460;
1031.4000;0.1286;-0.7611;
1031.7000;0.1294;-0.7560;
1032.0000;0.1286;-0.7460;
1032.3000;0.1262;-0.7510;
1032.6000;0.1286;-0.7435;
1032.9000;0.1278;-0.7460;
1033.2000;0.1286;-0.7485;
1033.5000;0.1286;-0.7510;
1033.8000;0.1302;-0.7560;
1034.1000;0.1294;-0.7686;
1034.4000;0.1302;-0.7711;
1034.7000;0.1286;-0.7711;
1035.0000;0.1294;-0.7686;
1035.3000;0.1262;-0.7686;
1035.6000;0.1294;-0.7661;
1035.9000;0.1221;-0.7787;
1036.2000;0.1286;-0.7611;
1036.5000;0.1286;-0.7636;
1036.8000;0.1286;-0.7686;
1037.1000;0.1302;-0.7611;
1037.4000;0.1286;-0.7711;
1037.7000;0.1286;-0.7611;
1038.0000;0.1286;-0.7711;
1038.3000;0.1294;-0.7736;
1038.6000;0.1278;-0.7661;
1038.9000;0.1294;-0.7611;
1039.2000;0.1286;-0.7686;
1039.5000;0.1286;-0.7761;
1039.8000;0.1286;-0.7736;
1040.1000;0.1254;-0.7736;
1040.4000;0.1302;-0.7611;
1040.7000;0.1278;-0.7686;
1041.0000;0.1278;-0.7686;
1041.3000;0.1294;-0.7611;
1041.6000;0.1286;-0.7535;
1041.9000;0.1278;-0.7535;
1042.2000;0.1302;-0.7435;
1042.5000;0.1319;-0.7435;
1042.8000;0.1294;-0.7460;
1043.1000;0.1294;-0.7360;
1043.4000;0.1278;-0.7435;
1043.7000;0.1245;-0.7560;
1044.0000;0.1294;-0.7460;
1044.3000;0.1302;-0.7360;
1044.6000;0.1319;-0.7410;
1044.9000;0.1270;-0.7485;
1045.2000;0.1302;-0.7535;
1045.5000;0.1294;-0.7560;
1045.8000;0.1294;-0.7611;
1046.1000;0.1311;-0.7586;
1046.4000;0.1278;-0.7686;
1046.7000;0.1197;-0.7912;
1047.0000;0.1294;-0.7611;
1047.3000;0.1294;-0.7510;
1047.6000;0.1286;-0.7586;
1047.9000;0.1262;-0.7611;
1048.2000;0.1286;-0.7611;
1048.5000;0.1270;-0.7661;
1048.8000;0.1286;-0.7560;
1049.1000;0.1302;-0.7485;
1049.4000;0.1294;-0.7410;
1049.7000;0.1335;-0.7284;
1050.0000;0.1229;-0.7611;
1050.3000;0.1262;-0.7510;
1050.6000;0.1294;-0.7460;
1050.9000;0.1294;-0.7435;
1051.2000;0.1294;-0.7435;
1051.5000;0.1311;-0.7435;
1051.8000;0.1294;-0.7435;
1052.1000;0.1311;-0.7284;
1052.4000;0.1302;-0.7284;
1052.7000;0.1286;-0.7410;
1053.0000;0.1294;-0.7460;
1053.3000;0.1278;-0.7535;
1053.6000;0.1302;-0.7586;
1053.9000;0.1270;-0.7686;
1054.2000;0.1294;-0.7611;
1054.5000;0.1286;-0.7510;
1054.8000;0.1270;-0.7435;
1055.1000;0.1278;-0.7435;
1055.4000;0.1294;-0.7385;
1055.7000;0.1302;-0.7385;
1056.0000;0.1294;-0.7385;
1056.3000;0.1319;-0.7410;
1056.6000;0.1311;-0.7435;
1056.9000;0.1294;-0.7460;
1057.2000;0.1262;-0.7560;
1057.5000;0.1245;-0.7661;
1057.8000;0.1286;-0.7586;
1058.1000;0.1286;-0.7586;
1058.4000;0.1294;-0.7636;
1058.7000;0.1278;-0.7686;
1059.0000;0.1294;-0.7661;
1059.3000;0.1302;-0.7560;
1059.6000;0.1302;-0.7560;
1059.9000;0.1302;-0.7535;
1060.2000;0.1302;-0.7560;
1060.5000;0.1327;-0.7460;
1060.8000;0.1359;-0.7360;
1061.1000;0.1286;-0.7560;
1061.4000;0.1294;-0.7510;
1061.7000;0.1311;-0.7510;
1062.0000;0.1294;-0.7611;
1062.3000;0.1335;-0.7460;
1062.6000;0.1278;-0.7510;
1062.9000;0.1294;-0.7560;
1063.2000;0.1286;-0.7510;
1063.5000;0.1294;-0.7535;
1063.8000;0.1327;-0.7460;
1064.1000;0.1270;-0.7611;
1064.4000;0.1327;-0.7485;
1064.7000;0.1270;-0.7611;
1065.0000;0.1302;-0.7586;
1065.3000;0.1286;-0.7586;
1065.6000;0.1302;-0.7510;
1065.9000;0.1319;-0.7485;
1066.2000;0.1213;-0.7787;
1066.5000;0.1302;-0.7560;
1066.8000;0.1319;-0.7510;
1067.1000;0.1278;-0.7711;
1067.4000;0.1286;-0.7736;
1067.7000;0.1294;-0.7636;
1068.0000;0.1294;-0.7586;
1068.3000;0.1270;-0.7611;
1068.6000;0.1262;-0.7661;
1068.9000;0.1294;-0.7560;
1069.2000;0.1237;-0.7736;
1069.5000;0.1286;-0.7510;
1069.8000;0.1302;-0.7535;
1070.1000;0.1278;-0.7560;
1070.4000;0.1302;-0.7535;
1070.7000;0.1294;-0.7535;
1071.0000;0.1278;-0.7611;
1071.3000;0.1278;-0.7661;
1071.6000;0.1302;-0.7611;
1071.9000;0.1319;-0.7586;
1072.2000;0.1270;-0.7686;
1072.5000;0.1302;-0.7485;
1072.8000;0.1294;-0.7435;
1073.1000;0.1384;-0.7209;
1073.4000;0.1302;-0.7435;
1073.7000;0.1335;-0.7410;
1074.0000;0.1294;-0.7485;
1074.3000;0.1368;-0.7184;
1074.6000;0.1294;-0.7410;
1074.9000;0.1327;-0.7360;
1075.2000;0.1294;-0.7485;
1075.5000;0.1294;-0.7510;
1075.8000;0.1278;-0.7535;
1076.1000;0.1286;-0.7535;
1076.4000;0.1278;-0.7560;
1076.7000;0.1286;-0.7560;
1077.0000;0.1359;-0.7435;
1077.3000;0.1286;-0.7636;
1077.6000;0.1270;-0.7661;
1077.9000;0.1270;-0.7560;
1078.2000;0.1311;-0.7410;
1078.5000;0.1286;-0.7485;
1078.8000;0.1262;-0.7535;
1079.1000;0.1205;-0.7661;
1079.4000;0.1286;-0.7586;
1079.7000;0.1286;-0.7611;
1080.0000;0.1237;-0.7711;
1080.3000;0.1286;-0.7586;
1080.6000;0.1294;-0.7711;
1080.9000;0.1327;-0.7686;
1081.2000;0.1376;-0.7711;
1081.5000;0.1294;-0.7987;
1081.8000;0.1221;-0.8138;
1082.1000;0.1254;-0.8063;
1082.4000;0.1294;-0.7862;
1082.7000;0.1319;-0.7736;
1083.0000;0.1262;-0.7887;
1083.3000;0.1278;-0.7887;
1083.6000;0.1294;-0.7761;
1083.9000;0.1311;-0.7736;
1084.2000;0.1302;-0.7837;
1084.5000;0.1343;-0.7636;
1084.8000;0.1335;-0.7611;
1085.1000;0.1229;-0.7912;
1085.4000;0.1294;-0.7812;
1085.7000;0.1286;-0.7812;
1086.0000;0.1294;-0.7736;
1086.3000;0.1311;-0.7661;
1086.6000;0.1311;-0.7611;
1086.9000;0.1319;-0.7510;
1087.2000;0.1245;-0.7736;
1087.5000;0.1319;-0.7535;
1087.8000;0.1311;-0.7485;
1088.1000;0.1294;-0.7586;
1088.4000;0.1278;-0.7661;
1088.7000;0.1294;-0.7661;
1089.0000;0.1270;-0.7787;
1089.3000;0.1286;-0.7812;
1089.6000;0.1294;-0.7787;
1089.9000;0.1286;-0.7686;
1090.2000;0.1368;-0.7410;
1090.5000;0.1311;-0.7611;
1090.8000;0.1302;-0.7661;
1091.1000;0.1302;-0.7636;
1091.4000;0.1294;-0.7761;
1091.7000;0.1286;-0.7912;
1092.0000;0.1270;-0.7962;
1092.3000;0.1294;-0.7837;
1092.6000;0.1286;-0.7937;
1092.9000;0.1311;-0.7912;
1093.2000;0.1335;-0.7787;
1093.5000;0.1294;-0.7837;
1093.8000;0.1302;-0.7812;
1094.1000;0.1278;-0.7937;
1094.4000;0.1286;-0.7912;
1094.7000;0.1302;-0.7937;
1095.0000;0.1335;-0.7862;
1095.3000;0.1286;-0.7962;
1095.6000;0.1286;-0.7862;
1095.9000;0.1311;-0.7837;
1096.2000;0.1376;-0.7485;
1096.5000;0.1311;-0.7761;
1096.8000;0.1302;-0.7761;
1097.1000;0.1286;-0.7812;
1097.4000;0.1302;-0.7887;
1097.7000;0.1286;-0.7962;
1098.0000;0.1302;-0.7862;
1098.3000;0.1294;-0.7837;
1098.6000;0.1286;-0.7787;
1098.9000;0.1278;-0.7661;
1099.2000;0.1302;-0.7586;
1099.5000;0.1311;-0.7611;
1099.8000;0.1278;-0.7560;
1100.1000;0.1237;-0.7736;
1100.4000;0.1286;-0.7661;
1100.7000;0.1294;-0.7636;
1101.0000;0.1368;-0.7435;
1101.3000;0.1327;-0.7661;
1101.6000;0.1294;-0.7761;
1101.9000;0.1286;-0.7711;
1102.2000;0.1278;-0.7787;
1102.5000;0.1294;-0.7686;
1102.8000;0.1286;-0.7761;
1103.1000;0.1302;-0.7787;
1103.4000;0.1294;-0.7862;
1103.7000;0.1319;-0.7736;
1104.0000;0.1262;-0.7837;
1104.3000;0.1278;-0.7736;
1104.6000;0.1294;-0.7686;
1104.9000;0.1294;-0.7661;
1105.2000;0.1262;-0.7711;
1105.5000;0.1311;-0.7636;
1105.8000;0.1213;-0.7862;
1106.1000;0.1351;-0.7611;
1106.4000;0.1302;-0.7736;
1106.7000;0.1286;-0.7837;
1107.0000;0.1302;-0.7812;
1107.3000;0.1262;-0.7862;
1107.6000;0.1302;-0.7711;
1107.9000;0.1286;-0.7686;
1108.2000;0.1262;-0.7787;
1108.5000;0.1278;-0.7661;
1108.8000;0.1278;-0.7636;
1109.1000;0.1335;-0.7460;
1109.4000;0.1286;-0.7611;
1109.7000;0.1286;-0.7636;
1110.0000;0.1294;-0.7510;
1110.3000;0.1229;-0.7560;
1110.6000;0.1270;-0.7560;
1110.9000;0.1311;-0.7510;
1111.2000;0.1237;-0.7661;
1111.5000;0.1343;-0.7460;
1111.8000;0.1294;-0.7535;
1112.1000;0.1319;-0.7560;
1112.4000;0.1311;-0.7611;
1112.7000;0.1294;-0.7711;
1113.0000;0.1286;-0.7686;
1113.3000;0.1302;-0.7711;
1113.6000;0.1311;-0.7611;
1113.9000;0.1302;-0.7761;
1114.2000;0.1286;-0.7787;
1114.5000;0.1302;-0.7862;
1114.8000;0.1302;-0.7862;
1115.1000;0.1351;-0.7686;
1115.4000;0.1302;-0.7787;
1115.7000;0.1302;-0.7736;
1116.0000;0.1311;-0.7736;
1116.3000;0.1278;-0.7837;
1116.6000;0.1319;-0.7661;
1116.9000;0.1254;-0.7837;
1117.2000;0.1278;-0.7812;
1117.5000;0.1286;-0.7862;
1117.8000;0.1294;-0.7887;
1118.1000;0.1294;-0.7761;
1118.4000;0.1278;-0.7787;
1118.7000;0.1270;-0.7812;
1119.0000;0.1237;-0.7912;
1119.3000;0.1278;-0.7787;
1119.6000;0.1311;-0.7787;
1119.9000;0.1294;-0.7812;
1120.2000;0.1311;-0.7711;
1120.5000;0.1302;-0.7711;
1120.8000;0.1319;-0.7686;
1121.1000;0.1294;-0.7686;
1121.4000;0.1294;-0.7661;
1121.7000;0.1286;-0.7686;
1122.0000;0.1286;-0.7711;
1122.3000;0.1270;-0.7736;
1122.6000;0.1286;-0.7611;
1122.9000;0.1286;-0.7586;
1123.2000;0.1270;-0.7510;
1123.5000;0.1278;-0.7535;
1123.8000;0.1294;-0.7586;
1124.1000;0.1294;-0.7636;
1124.4000;0.1302;-0.7736;
1124.7000;0.1343;-0.7661;
1125.0000;0.1262;-0.7862;
1125.3000;0.1294;-0.7661;
1125.6000;0.1294;-0.7661;
1125.9000;0.1302;-0.7636;
1126.2000;0.1294;-0.7736;
1126.5000;0.1286;-0.7887;
1126.8000;0.1327;-0.7761;
1127.1000;0.1262;-0.7862;
1127.4000;0.1286;-0.7912;
1127.7000;0.1262;-0.7987;
1128.0000;0.1302;-0.7887;
1128.3000;0.1278;-0.7862;
1128.6000;0.1286;-0.7661;
1128.9000;0.1262;-0.7686;
1129.2000;0.1270;-0.7611;
1129.5000;0.1294;-0.7510;
1129.8000;0.1286;-0.7586;
1130.1000;0.1286;-0.7686;
1130.4000;0.1294;-0.7636;
1130.7000;0.1302;-0.7736;
1131.0000;0.1286;-0.7711;
1131.3000;0.1278;-0.7736;
1131.6000;0.1270;-0.7837;
1131.9000;0.1294;-0.7812;
1132.2000;0.1278;-0.7736;
1132.5000;0.1278;-0.7711;
1132.8000;0.1294;-0.7661;
1133.1000;0.1278;-0.7686;
1133.4000;0.1286;-0.7611;
1133.7000;0.1270;-0.7560;
1134.0000;0.1278;-0.7510;
1134.3000;0.1302;-0.7385;
1134.6000;0.1286;-0.7410;
1134.9000;0.1302;-0.7460;
1135.2000;0.1294;-0.7385;
1135.5000;0.1286;-0.7385;
1135.8000;0.1302;-0.7259;
1136.1000;0.1311;-0.7284;
1136.4000;0.1270;-0.7460;
1136.7000;0.1294;-0.7435;
1137.0000;0.1278;-0.7485;
1137.3000;0.1294;-0.7485;
1137.6000;0.1286;-0.7460;
1137.9000;0.1302;-0.7410;
1138.2000;0.1294;-0.7485;
1138.5000;0.1294;-0.7510;
1138.8000;0.1294;-0.7510;
1139.1000;0.1278;-0.7510;
1139.4000;0.1351;-0.7309;
1139.7000;0.1294;-0.7460;
1140.0000;0.1278;-0.7510;
1140.3000;0.1311;-0.7485;
1140.6000;0.1311;-0.7535;
1140.9000;0.1335;-0.7460;
1141.2000;0.1302;-0.7410;
1141.5000;0.1302;-0.7535;
1141.8000;0.1294;-0.7661;
1142.1000;0.1294;-0.7787;
1142.4000;0.1262;-0.7887;
1142.7000;0.1270;-0.7837;
1143.0000;0.1302;-0.7711;
1143.3000;0.1302;-0.7661;
1143.6000;0.1286;-0.7736;
1143.9000;0.1237;-0.7937;
1144.2000;0.1286;-0.7862;
1144.5000;0.1286;-0.7912;
1144.8000;0.1270;-0.7937;
1145.1000;0.1270;-0.7912;
1145.4000;0.1278;-0.7887;
1145.7000;0.1294;-0.7812;
1146.0000;0.1294;-0.7937;
1146.3000;0.1302;-0.7862;
1146.6000;0.1294;-0.7787;
1146.9000;0.1294;-0.7812;
1147.2000;0.1245;-0.7887;
1147.5000;0.1270;-0.7761;
1147.8000;0.1286;-0.7812;
1148.1000;0.1302;-0.7787;
1148.4000;0.1286;-0.7761;
1148.7000;0.1278;-0.7686;
1149.0000;0.1286;-0.7535;
1149.3000;0.1286;-0.7560;
1149.6000;0.1294;-0.7611;
1149.9000;0.1294;-0.7686;
1150.2000;0.1294;-0.7837;
1150.5000;0.1278;-0.7787;
1150.8000;0.1286;-0.7787;
1151.1000;0.1335;-0.7686;
1151.4000;0.1286;-0.7912;
1151.7000;0.1302;-0.7887;
1152.0000;0.1302;-0.7812;
1152.3000;0.1278;-0.7862;
1152.6000;0.1311;-0.7837;
1152.9000;0.1286;-0.7812;
1153.2000;0.1335;-0.7761;
1153.5000;0.1294;-0.7837;
1153.8000;0.1311;-0.7937;
1154.1000;0.1294;-0.8063;
1154.4000;0.1286;-0.8013;
1154.7000;0.1278;-0.8038;
1155.0000;0.1278;-0.7937;
1155.3000;0.1302;-0.7887;
1155.6000;0.1302;-0.7862;
1155.9000;0.1311;-0.7736;
1156.2000;0.1262;-0.7711;
1156.5000;0.1294;-0.7636;
1156.8000;0.1286;-0.7761;
1157.1000;0.1237;-0.7962;
1157.4000;0.1311;-0.7736;
1157.7000;0.1302;-0.7736;
1158.0000;0.1286;-0.7761;
1158.3000;0.1294;-0.7736;
1158.6000;0.1343;-0.7611;
1158.9000;0.1286;-0.7787;
1159.2000;0.1311;-0.7736;
1159.5000;0.1294;-0.7736;
1159.8000;0.1302;-0.7636;
1160.1000;0.1278;-0.7636;
1160.4000;0.1327;-0.7560;
1160.7000;0.1311;-0.7686;
1161.0000;0.1262;-0.7837;
1161.3000;0.1286;-0.7787;
1161.6000;0.1302;-0.7736;
1161.9000;0.1302;-0.7736;
1162.2000;0.1302;-0.7736;
1162.5000;0.1319;-0.7761;
1162.8000;0.1302;-0.7661;
1163.1000;0.1302;-0.7686;
1163.4000;0.1294;-0.7711;
1163.7000;0.1351;-0.7560;
1164.0000;0.1294;-0.7661;
1164.3000;0.1278;-0.7636;
1164.6000;0.1294;-0.7560;
1164.9000;0.1319;-0.7535;
1165.2000;0.1229;-0.7686;
1165.5000;0.1286;-0.7661;
1165.8000;0.1294;-0.7686;
1166.1000;0.1302;-0.7661;
1166.4000;0.1311;-0.7661;
1166.7000;0.1311;-0.7661;
1167.0000;0.1294;-0.7661;
1167.3000;0.1294;-0.7636;
1167.6000;0.1302;-0.7586;
1167.9000;0.1278;-0.7711;
1168.2000;0.1302;-0.7736;
1168.5000;0.1302;-0.7736;
1168.8000;0.1286;-0.7686;
1169.1000;0.1319;-0.7736;
1169.4000;0.1294;-0.7837;
1169.7000;0.1311;-0.7711;
1170.0000;0.1294;-0.7611;
1170.3000;0.1278;-0.7661;
1170.6000;0.1286;-0.7611;
1170.9000;0.1294;-0.7535;
1171.2000;0.1294;-0.7560;
1171.5000;0.1311;-0.7535;
1171.8000;0.1286;-0.7711;
1172.1000;0.1286;-0.7711;
1172.4000;0.1302;-0.7636;
1172.7000;0.1294;-0.7586;
1173.0000;0.1327;-0.7560;
1173.3000;0.1286;-0.7636;
1173.6000;0.1286;-0.7460;
1173.9000;0.1319;-0.7334;
1174.2000;0.1278;-0.7435;
1174.5000;0.1311;-0.7460;
1174.8000;0.1286;-0.7586;
1175.1000;0.1262;-0.7711;
1175.4000;0.1270;-0.7711;
1175.7000;0.1278;-0.7787;
1176.0000;0.1278;-0.7787;
1176.3000;0.1270;-0.7837;
1176.6000;0.1302;-0.7711;
1176.9000;0.1286;-0.7636;
1177.2000;0.1294;-0.7636;
1177.5000;0.1294;-0.7661;
1177.8000;0.1254;-0.7761;
1178.1000;0.1270;-0.7761;
1178.4000;0.1278;-0.7761;
1178.7000;0.1302;-0.7686;
1179.0000;0.1294;-0.7711;
1179.3000;0.1278;-0.7711;
1179.6000;0.1302;-0.7661;
1179.9000;0.1302;-0.7611;
1180.2000;0.1302;-0.7560;
1180.5000;0.1311;-0.7410;
1180.8000;0.1302;-0.7510;
1181.1000;0.1286;-0.7661;
1181.4000;0.1286;-0.7686;
1181.7000;0.1294;-0.7787;
1182.0000;0.1278;-0.7787;
1182.3000;0.1278;-0.7686;
1182.6000;0.1286;-0.7736;
1182.9000;0.1302;-0.7711;
1183.2000;0.1278;-0.7686;
1183.5000;0.1359;-0.7460;
1183.8000;0.1302;-0.7611;
1184.1000;0.1302;-0.7560;
1184.4000;0.1311;-0.7636;
1184.7000;0.1294;-0.7661;
1185.0000;0.1302;-0.7636;
1185.3000;0.1294;-0.7661;
1185.6000;0.1302;-0.7611;
1185.9000;0.1286;-0.7686;
1186.2000;0.1294;-0.7686;
1186.5000;0.1319;-0.7686;
1186.8000;0.1229;-0.7837;
1187.1000;0.1294;-0.7736;
1187.4000;0.1302;-0.7611;
1187.7000;0.1294;-0.7611;
1188.0000;0.1294;-0.7586;
1188.3000;0.1302;-0.7586;
1188.6000;0.1319;-0.7485;
1188.9000;0.1368;-0.7410;
1189.2000;0.1311;-0.7485;
1189.5000;0.1262;-0.7586;
1189.8000;0.1311;-0.7435;
1190.1000;0.1302;-0.7385;
1190.4000;0.1302;-0.7360;
1190.7000;0.1229;-0.7586;
1191.0000;0.1368;-0.7360;
1191.3000;0.1286;-0.7560;
1191.6000;0.1311;-0.7535;
1191.9000;0.1294;-0.7661;
1192.2000;0.1294;-0.7787;
1192.5000;0.1311;-0.7812;
1192.8000;0.1286;-0.7887;
1193.1000;0.1294;-0.7837;
1193.4000;0.1286;-0.7862;
1193.7000;0.1286;-0.7862;
1194.0000;0.1270;-0.7862;
1194.3000;0.1278;-0.7736;
1194.6000;0.1254;-0.7862;
1194.9000;0.1270;-0.7887;
1195.2000;0.1278;-0.7812;
1195.5000;0.1294;-0.7812;
1195.8000;0.1188;-0.7987;
1196.1000;0.1343;-0.7560;
1196.4000;0.1286;-0.7661;
1196.7000;0.1294;-0.7761;
1197.0000;0.1335;-0.7686;
1197.3000;0.1294;-0.7887;
1197.6000;0.1278;-0.7912;
1197.9000;0.1327;-0.7862;
1198.2000;0.1278;-0.7912;
1198.5000;0.1351;-0.7812;
1198.8000;0.1311;-0.7912;
1199.1000;0.1294;-0.7837;
1199.4000;0.1327;-0.7736;
1199.7000;0.1286;-0.7837;
1200.0000;0.1294;-0.7837;
1200.3000;0.1294;-0.7711;
1200.6000;0.1376;-0.7435;
1200.9000;0.1286;-0.7711;
1201.2000;0.1278;-0.7636;
1201.5000;0.1286;-0.7586;
1201.8000;0.1286;-0.7611;
1202.1000;0.1319;-0.7560;
1202.4000;0.1311;-0.7586;
1202.7000;0.1294;-0.7535;
1203.0000;0.1302;-0.7435;
1203.3000;0.1286;-0.7460;
1203.6000;0.1286;-0.7586;
1203.9000;0.1286;-0.7611;
1204.2000;0.1294;-0.7636;
1204.5000;0.1286;-0.7711;
1204.8000;0.1335;-0.7535;
1205.1000;0.1294;-0.7686;
1205.4000;0.1286;-0.7761;
1205.7000;0.1278;-0.7787;
1206.0000;0.1294;-0.7711;
1206.3000;0.1254;-0.7686;
1206.6000;0.1294;-0.7485;
1206.9000;0.1286;-0.7535;
1207.2000;0.1311;-0.7535;
1207.5000;0.1262;-0.7661;
1207.8000;0.1286;-0.7661;
1208.1000;0.1294;-0.7661;
1208.4000;0.1270;-0.7761;
1208.7000;0.1327;-0.7611;
1209.0000;0.1286;-0.7636;
1209.3000;0.1294;-0.7787;
1209.6000;0.1278;-0.7837;
1209.9000;0.1262;-0.7837;
1210.2000;0.1294;-0.7787;
1210.5000;0.1311;-0.7761;
1210.8000;0.1286;-0.7711;
1211.1000;0.1294;-0.7636;
1211.4000;0.1335;-0.7485;
1211.7000;0.1319;-0.7560;
1212.0000;0.1278;-0.7661;
1212.3000;0.1302;-0.7611;
1212.6000;0.1335;-0.7485;
1212.9000;0.1343;-0.7485;
1213.2000;0.1302;-0.7560;
1213.5000;0.1294;-0.7686;
1213.8000;0.1286;-0.7686;
1214.1000;0.1327;-0.7611;
1214.4000;0.1286;-0.7761;
1214.7000;0.1294;-0.7686;
1215.0000;0.1311;-0.7686;
1215.3000;0.1311;-0.7636;
1215.6000;0.1327;-0.7686;
1215.9000;0.1294;-0.7761;
1216.2000;0.1335;-0.7711;
1216.5000;0.1294;-0.7711;
1216.8000;0.1311;-0.7686;
1217.1000;0.1302;-0.7686;
1217.4000;0.1294;-0.7686;
1217.7000;0.1327;-0.7611;
1218.0000;0.1294;-0.7661;
1218.3000;0.1311;-0.7686;
1218.6000;0.1302;-0.7761;
1218.9000;0.1278;-0.7787;
1219.2000;0.1286;-0.7736;
1219.5000;0.1302;-0.7761;
1219.8000;0.1254;-0.7887;
1220.1000;0.1286;-0.7761;
1220.4000;0.1270;-0.7711;
1220.7000;0.1286;-0.7661;
1221.0000;0.1286;-0.7686;
1221.3000;0.1294;-0.7711;
1221.6000;0.1294;-0.7761;
1221.9000;0.1294;-0.7711;
1222.2000;0.1294;-0.7736;
1222.5000;0.1302;-0.7837;
1222.8000;0.1278;-0.7937;
1223.1000;0.1311;-0.7837;
1223.4000;0.1294;-0.7937;
1223.7000;0.1302;-0.7912;
1224.0000;0.1302;-0.7962;
1224.3000;0.1294;-0.7862;
1224.6000;0.1302;-0.7887;
1224.9000;0.1294;-0.7912;
1225.2000;0.1319;-0.7862;
1225.5000;0.1286;-0.7862;
1225.8000;0.1319;-0.7787;
1226.1000;0.1278;-0.7912;
1226.4000;0.1294;-0.7812;
1226.7000;0.1311;-0.7787;
1227.0000;0.1311;-0.7812;
1227.3000;0.1302;-0.7761;
1227.6000;0.1302;-0.7686;
1227.9000;0.1294;-0.7611;
1228.2000;0.1294;-0.7586;
1228.5000;0.1302;-0.7560;
1228.8000;0.1294;-0.7736;
1229.1000;0.1294;-0.7736;
1229.4000;0.1302;-0.7736;
1229.7000;0.1286;-0.7636;
1230.0000;0.1294;-0.7636;
1230.3000;0.1278;-0.7736;
1230.6000;0.1286;-0.7711;
1230.9000;0.1278;-0.7636;
1231.2000;0.1319;-0.7535;
1231.5000;0.1286;-0.7586;
1231.8000;0.1294;-0.7661;
1232.1000;0.1311;-0.7661;
1232.4000;0.1311;-0.7761;
1232.7000;0.1262;-0.7887;
1233.0000;0.1351;-0.7711;
1233.3000;0.1359;-0.7661;
1233.6000;0.1327;-0.7837;
1233.9000;0.1311;-0.7787;
1234.2000;0.1302;-0.7761;
1234.5000;0.1278;-0.7912;
1234.8000;0.1245;-0.7912;
1235.1000;0.1302;-0.7787;
1235.4000;0.1286;-0.7837;
1235.7000;0.1392;-0.7560;
1236.0000;0.1302;-0.7787;
1236.3000;0.1359;-0.7661;
1236.6000;0.1278;-0.7937;
1236.9000;0.1302;-0.7987;
1237.2000;0.1286;-0.8063;
1237.5000;0.1294;-0.7962;
1237.8000;0.1335;-0.7761;
1238.1000;0.1188;-0.8138;
1238.4000;0.1286;-0.7862;
1238.7000;0.1302;-0.7761;
1239.0000;0.1262;-0.7812;
1239.3000;0.1270;-0.7761;
1239.6000;0.1270;-0.7812;
1239.9000;0.1294;-0.7636;
1240.2000;0.1278;-0.7711;
1240.5000;0.1278;-0.7636;
1240.8000;0.1262;-0.7686;
1241.1000;0.1302;-0.7661;
1241.4000;0.1294;-0.7761;
1241.7000;0.1319;-0.7736;
1242.0000;0.1286;-0.7812;
1242.3000;0.1278;-0.7812;
1242.6000;0.1311;-0.7736;
1242.9000;0.1294;-0.7787;
1243.2000;0.1359;-0.7661;
1243.5000;0.1319;-0.7812;
1243.8000;0.1294;-0.7937;
1244.1000;0.1270;-0.7912;
1244.4000;0.1286;-0.7837;
1244.7000;0.1254;-0.7887;
1245.0000;0.1286;-0.7837;
1245.3000;0.1270;-0.7812;
1245.6000;0.1270;-0.7787;
1245.9000;0.1294;-0.7736;
1246.2000;0.1294;-0.7787;
1246.5000;0.1302;-0.7736;
1246.8000;0.1311;-0.7711;
1247.1000;0.1286;-0.7736;
1247.4000;0.1294;-0.7636;
1247.7000;0.1188;-0.7937;
1248.0000;0.1311;-0.7636;
1248.3000;0.1294;-0.7787;
1248.6000;0.1311;-0.7661;
1248.9000;0.1294;-0.7611;
1249.2000;0.1294;-0.7636;
1249.5000;0.1286;-0.7661;
1249.8000;0.1335;-0.7510;
1250.1000;0.1294;-0.7560;
1250.4000;0.1351;-0.7510;
1250.7000;0.1319;-0.7661;
1251.0000;0.1270;-0.7787;
1251.3000;0.1286;-0.7711;
1251.6000;0.1302;-0.7711;
1251.9000;0.1319;-0.7736;
1252.2000;0.1278;-0.7837;
1252.5000;0.1294;-0.7837;
1252.8000;0.1302;-0.7812;
1253.1000;0.1327;-0.7711;
1253.4000;0.1302;-0.7862;
1253.7000;0.1262;-0.7862;
1254.0000;0.1311;-0.7787;
1254.3000;0.1294;-0.7887;
1254.6000;0.1262;-0.7837;
1254.9000;0.1294;-0.7812;
1255.2000;0.1278;-0.7837;
1255.5000;0.1294;-0.7736;
1255.8000;0.1254;-0.7787;
1256.1000;0.1335;-0.7686;
1256.4000;0.1327;-0.7661;
1256.7000;0.1335;-0.7636;
1257.0000;0.1311;-0.7686;
1257.3000;0.1327;-0.7460;
1257.6000;0.1311;-0.7460;
1257.9000;0.1302;-0.7410;
1258.2000;0.1286;-0.7460;
1258.5000;0.1294;-0.7435;
1258.8000;0.1237;-0.7586;
1259.1000;0.1294;-0.7485;
1259.4000;0.1294;-0.7611;
1259.7000;0.1351;-0.7510;
1260.0000;0.1294;-0.7711;
1260.3000;0.1294;-0.7736;
1260.6000;0.1302;-0.7636;
1260.9000;0.1294;-0.7586;
1261.2000;0.1294;-0.7586;
1261.5000;0.1311;-0.7535;
1261.8000;0.1270;-0.7661;
1262.1000;0.1302;-0.7560;
1262.4000;0.1319;-0.7535;
1262.7000;0.1311;-0.7485;
1263.0000;0.1286;-0.7435;
1263.3000;0.1286;-0.7460;
1263.6000;0.1294;-0.7485;
1263.9000;0.1286;-0.7485;
1264.2000;0.1302;-0.7460;
1264.5000;0.1278;-0.7586;
1264.8000;0.1278;-0.7636;
1265.1000;0.1294;-0.7711;
1265.4000;0.1302;-0.7586;
1265.7000;0.1368;-0.7435;
1266.0000;0.1286;-0.7636;
1266.3000;0.1294;-0.7586;
1266.6000;0.1302;-0.7485;
1266.9000;0.1302;-0.7485;
1267.2000;0.1302;-0.7535;
1267.5000;0.1302;-0.7485;
1267.8000;0.1319;-0.7385;
1268.1000;0.1286;-0.7385;
1268.4000;0.1294;-0.7435;
1268.7000;0.1294;-0.7510;
1269.0000;0.1302;-0.7460;
1269.3000;0.1294;-0.7485;
1269.6000;0.1311;-0.7435;
1269.9000;0.1278;-0.7460;
1270.2000;0.1278;-0.7510;
1270.5000;0.1302;-0.7435;
1270.8000;0.1400;-0.7184;
1271.1000;0.1254;-0.7611;
1271.4000;0.1294;-0.7535;
1271.7000;0.1302;-0.7535;
1272.0000;0.1294;-0.7586;
1272.3000;0.1245;-0.7686;
1272.6000;0.1311;-0.7560;
1272.9000;0.1302;-0.7485;
1273.2000;0.1335;-0.7460;
1273.5000;0.1294;-0.7611;
1273.8000;0.1278;-0.7686;
1274.1000;0.1254;-0.7761;
1274.4000;0.1294;-0.7636;
1274.7000;0.1294;-0.7686;
1275.0000;0.1278;-0.7661;
1275.3000;0.1294;-0.7535;
1275.6000;0.1376;-0.7360;
1275.9000;0.1294;-0.7636;
1276.2000;0.1294;-0.7636;
1276.5000;0.1286;-0.7686;
1276.8000;0.1286;-0.7661;
1277.1000;0.1286;-0.7787;
1277.4000;0.1302;-0.7761;
1277.7000;0.1294;-0.7787;
1278.0000;0.1302;-0.7711;
1278.3000;0.1278;-0.7787;
1278.6000;0.1286;-0.7812;
1278.9000;0.1286;-0.7736;
1279.2000;0.1294;-0.7661;
1279.5000;0.1286;-0.7686;
1279.8000;0.1245;-0.7761;
1280.1000;0.1286;-0.7636;
1280.4000;0.1294;-0.7661;
1280.7000;0.1278;-0.7560;
1281.0000;0.1311;-0.7611;
1281.3000;0.1302;-0.7636;
1281.6000;0.1286;-0.7586;
1281.9000;0.1311;-0.7435;
1282.2000;0.1245;-0.7510;
1282.5000;0.1294;-0.7460;
1282.8000;0.1270;-0.7510;
1283.1000;0.1302;-0.7485;
1283.4000;0.1294;-0.7435;
1283.7000;0.1270;-0.7560;
1284.0000;0.1343;-0.7360;
1284.3000;0.1221;-0.7636;
1284.6000;0.1294;-0.7460;
1284.9000;0.1270;-0.7611;
1285.2000;0.1311;-0.7586;
1285.5000;0.1286;-0.7636;
1285.8000;0.1278;-0.7560;
1286.1000;0.1286;-0.7586;
1286.4000;0.1278;-0.7560;
1286.7000;0.1294;-0.7510;
1287.0000;0.1286;-0.7485;
1287.3000;0.1286;-0.7535;
1287.6000;0.1262;-0.7636;
1287.9000;0.1286;-0.7460;
1288.2000;0.1294;-0.7410;
1288.5000;0.1311;-0.7435;
1288.8000;0.1286;-0.7535;
1289.1000;0.1278;-0.7611;
1289.4000;0.1286;-0.7535;
1289.7000;0.1270;-0.7560;
1290.0000;0.1384;-0.7234;
1290.3000;0.1294;-0.7560;
1290.6000;0.1286;-0.7560;
1290.9000;0.1302;-0.7560;
1291.2000;0.1262;-0.7661;
1291.5000;0.1286;-0.7636;
1291.8000;0.1286;-0.7611;
1292.1000;0.1294;-0.7586;
1292.4000;0.1286;-0.7535;
1292.7000;0.1294;-0.7485;
1293.0000;0.1311;-0.7485;
1293.3000;0.1319;-0.7510;
1293.6000;0.1302;-0.7535;
1293.9000;0.1302;-0.7586;
1294.2000;0.1311;-0.7560;
1294.5000;0.1311;-0.7586;
1294.8000;0.1302;-0.7636;
1295.1000;0.1335;-0.7636;
1295.4000;0.1286;-0.7661;
1295.7000;0.1311;-0.7636;
1296.0000;0.1294;-0.7761;
1296.3000;0.1286;-0.7761;
1296.6000;0.1294;-0.7761;
1296.9000;0.1270;-0.7736;
1297.2000;0.1286;-0.7661;
1297.5000;0.1294;-0.7736;
1297.8000;0.1294;-0.7736;
1298.1000;0.1294;-0.7711;
1298.4000;0.1294;-0.7636;
1298.7000;0.1286;-0.7611;
1299.0000;0.1278;-0.7611;
1299.3000;0.1262;-0.7611;
1299.6000;0.1286;-0.7460;
1299.9000;0.1278;-0.7611;
1300.2000;0.1278;-0.7560;
1300.5000;0.1278;-0.7560;
1300.8000;0.1319;-0.7535;
1301.1000;0.1302;-0.7485;
1301.4000;0.1294;-0.7385;
1301.7000;0.1319;-0.7385;
1302.0000;0.1286;-0.7485;
1302.3000;0.1302;-0.7510;
1302.6000;0.1286;-0.7510;
1302.9000;0.1319;-0.7535;
1303.2000;0.1286;-0.7636;
1303.5000;0.1327;-0.7535;
1303.8000;0.1376;-0.7259;
1304.1000;0.1294;-0.7410;
1304.4000;0.1311;-0.7334;
1304.7000;0.1302;-0.7309;
1305.0000;0.1294;-0.7309;
1305.3000;0.1278;-0.7360;
1305.6000;0.1294;-0.7360;
1305.9000;0.1254;-0.7385;
1306.2000;0.1254;-0.7334;
1306.5000;0.1270;-0.7309;
1306.8000;0.1278;-0.7334;
1307.1000;0.1294;-0.7410;
1307.4000;0.1319;-0.7284;
1307.7000;0.1286;-0.7460;
1308.0000;0.1319;-0.7385;
1308.3000;0.1294;-0.7510;
1308.6000;0.1286;-0.7586;
1308.9000;0.1286;-0.7560;
1309.2000;0.1270;-0.7535;
1309.5000;0.1286;-0.7586;
1309.8000;0.1302;-0.7510;
1310.1000;0.1302;-0.7510;
1310.4000;0.1254;-0.7560;
1310.7000;0.1286;-0.7535;
1311.0000;0.1294;-0.7460;
1311.3000;0.1286;-0.7560;
1311.6000;0.1302;-0.7510;
1311.9000;0.1270;-0.7535;
1312.2000;0.1213;-0.7736;
1312.5000;0.1294;-0.7485;
1312.8000;0.1278;-0.7535;
1313.1000;0.1392;-0.7184;
1313.4000;0.1311;-0.7460;
1313.7000;0.1286;-0.7560;
1314.0000;0.1294;-0.7586;
1314.3000;0.1286;-0.7586;
1314.6000;0.1294;-0.7560;
1314.9000;0.1327;-0.7535;
1315.2000;0.1278;-0.7636;
1315.5000;0.1294;-0.7611;
1315.8000;0.1278;-0.7661;
1316.1000;0.1286;-0.7586;
1316.4000;0.1302;-0.7636;
1316.7000;0.1351;-0.7460;
1317.0000;0.1294;-0.7560;
1317.3000;0.1335;-0.7460;
1317.6000;0.1245;-0.7736;
1317.9000;0.1302;-0.7535;
1318.2000;0.1302;-0.7535;
1318.5000;0.1327;-0.7510;
1318.8000;0.1302;-0.7535;
1319.1000;0.1311;-0.7535;
1319.4000;0.1302;-0.7611;
1319.7000;0.1270;-0.7661;
1320.0000;0.1245;-0.7736;
1320.3000;0.1278;-0.7661;
1320.6000;0.1294;-0.7611;
1320.9000;0.1302;-0.7661;
1321.2000;0.1327;-0.7661;
1321.5000;0.1294;-0.7812;
1321.8000;0.1311;-0.7611;
1322.1000;0.1319;-0.7485;
1322.4000;0.1311;-0.7435;
1322.7000;0.1302;-0.7485;
1323.0000;0.1286;-0.7535;
1323.3000;0.1319;-0.7485;
1323.6000;0.1245;-0.7661;
1323.9000;0.1319;-0.7485;
1324.2000;0.1335;-0.7510;
1324.5000;0.1254;-0.7636;
1324.8000;0.1270;-0.7560;
1325.1000;0.1286;-0.7560;
1325.4000;0.1262;-0.7661;
1325.7000;0.1245;-0.7686;
1326.0000;0.1294;-0.7485;
1326.3000;0.1270;-0.7535;
1326.6000;0.1262;-0.7611;
1326.9000;0.1294;-0.7560;
1327.2000;0.1376;-0.7410;
1327.5000;0.1302;-0.7636;
1327.8000;0.1311;-0.7535;
1328.1000;0.1213;-0.7711;
1328.4000;0.1302;-0.7560;
1328.7000;0.1351;-0.7460;
1329.0000;0.1319;-0.7636;
1329.3000;0.1302;-0.7686;
1329.6000;0.1302;-0.7686;
1329.9000;0.1294;-0.7686;
1330.2000;0.1400;-0.7360;
1330.5000;0.1286;-0.7636;
1330.8000;0.1270;-0.7686;
1331.1000;0.1294;-0.7560;
1331.4000;0.1286;-0.7535;
1331.7000;0.1270;-0.7611;
1332.0000;0.1294;-0.7560;
1332.3000;0.1254;-0.7535;
1332.6000;0.1278;-0.7410;
1332.9000;0.1294;-0.7385;
1333.2000;0.1270;-0.7560;
1333.5000;0.1278;-0.7661;
1333.8000;0.1278;-0.7686;
1334.1000;0.1294;-0.7636;
1334.4000;0.1270;-0.7636;
1334.7000;0.1286;-0.7686;
1335.0000;0.1302;-0.7586;
1335.3000;0.1294;-0.7586;
1335.6000;0.1270;-0.7560;
1335.9000;0.1262;-0.7611;
1336.2000;0.1229;-0.7736;
1336.5000;0.1302;-0.7586;
1336.8000;0.1286;-0.7686;
1337.1000;0.1311;-0.7586;
1337.4000;0.1294;-0.7560;
1337.7000;0.1294;-0.7435;
1338.0000;0.1262;-0.7535;
1338.3000;0.1302;-0.7485;
1338.6000;0.1302;-0.7485;
1338.9000;0.1294;-0.7611;
1339.2000;0.1311;-0.7611;
1339.5000;0.1343;-0.7435;
1339.8000;0.1294;-0.7460;
1340.1000;0.1294;-0.7586;
1340.4000;0.1319;-0.7435;
1340.7000;0.1311;-0.7385;
1341.0000;0.1302;-0.7485;
1341.3000;0.1262;-0.7611;
1341.6000;0.1311;-0.7510;
1341.9000;0.1327;-0.7460;
1342.2000;0.1262;-0.7510;
1342.5000;0.1319;-0.7410;
1342.8000;0.1302;-0.7410;
1343.1000;0.1262;-0.7360;
1343.4000;0.1262;-0.7385;
1343.7000;0.1302;-0.7360;
1344.0000;0.1311;-0.7435;
1344.3000;0.1221;-0.7686;
1344.6000;0.1286;-0.7535;
1344.9000;0.1286;-0.7611;
1345.2000;0.1254;-0.7686;
1345.5000;0.1302;-0.7586;
1345.8000;0.1278;-0.7661;
1346.1000;0.1335;-0.7435;
1346.4000;0.1286;-0.7661;
1346.7000;0.1294;-0.7586;
1347.0000;0.1286;-0.7535;
1347.3000;0.1311;-0.7460;
1347.6000;0.1270;-0.7560;
1347.9000;0.1262;-0.7460;
1348.2000;0.1294;-0.7460;
1348.5000;0.1302;-0.7510;
1348.8000;0.1254;-0.7686;
1349.1000;0.1270;-0.7661;
1349.4000;0.1254;-0.7711;
1349.7000;0.1254;-0.7661;
1350.0000;0.1278;-0.7636;
1350.3000;0.1262;-0.7686;
1350.6000;0.1327;-0.7611;
1350.9000;0.1351;-0.7636;
1351.2000;0.1319;-0.7736;
1351.5000;0.1262;-0.7912;
1351.8000;0.1270;-0.7787;
1352.1000;0.1294;-0.7812;
1352.4000;0.1205;-0.8013;
1352.7000;0.1286;-0.7812;
1353.0000;0.1302;-0.7787;
1353.3000;0.1286;-0.7837;
1353.6000;0.1302;-0.7812;
1353.9000;0.1294;-0.7761;
1354.2000;0.1319;-0.7661;
1354.5000;0.1286;-0.7761;
1354.8000;0.1302;-0.7711;
1355.1000;0.1294;-0.7761;
1355.4000;0.1302;-0.7711;
1355.7000;0.1302;-0.7661;
1356.0000;0.1286;-0.7711;
1356.3000;0.1286;-0.7761;
1356.6000;0.1302;-0.7611;
1356.9000;0.1278;-0.7686;
1357.2000;0.1262;-0.7611;
1357.5000;0.1262;-0.7661;
1357.8000;0.1270;-0.7787;
1358.1000;0.1286;-0.7837;
1358.4000;0.1294;-0.7887;
1358.7000;0.1286;-0.7912;
1359.0000;0.1286;-0.7711;
1359.3000;0.1286;-0.7711;
1359.6000;0.1294;-0.7787;
1359.9000;0.1286;-0.7787;
1360.2000;0.1278;-0.7812;
1360.5000;0.1351;-0.7661;
1360.8000;0.1278;-0.7837;
1361.1000;0.1286;-0.7787;
1361.4000;0.1270;-0.7711;
1361.7000;0.1254;-0.7761;
1362.0000;0.1286;-0.7736;
1362.3000;0.1278;-0.7736;
1362.6000;0.1294;-0.7787;
1362.9000;0.1278;-0.7837;
1363.2000;0.1286;-0.7937;
1363.5000;0.1302;-0.8038;
1363.8000;0.1311;-0.8138;
1364.1000;0.1270;-0.8113;
1364.4000;0.1294;-0.7987;
1364.7000;0.1278;-0.8038;
1365.0000;0.1286;-0.8013;
1365.3000;0.1311;-0.7962;
1365.6000;0.1319;-0.7987;
1365.9000;0.1286;-0.7912;
1366.2000;0.1286;-0.7787;
1366.5000;0.1286;-0.7887;
1366.8000;0.1311;-0.7812;
1367.1000;0.1278;-0.7812;
1367.4000;0.1286;-0.7736;
1367.7000;0.1270;-0.7812;
1368.0000;0.1286;-0.7812;
1368.3000;0.1205;-0.7987;
1368.6000;0.1286;-0.7787;
1368.9000;0.1286;-0.7837;
1369.2000;0.1359;-0.7736;
1369.5000;0.1302;-0.7987;
1369.8000;0.1286;-0.7912;
1370.1000;0.1286;-0.7912;
1370.4000;0.1286;-0.7812;
1370.7000;0.1286;-0.7837;
1371.0000;0.1319;-0.7837;
1371.3000;0.1262;-0.7862;
1371.6000;0.1286;-0.7837;
1371.9000;0.1278;-0.8038;
1372.2000;0.1311;-0.7962;
1372.5000;0.1294;-0.8038;
1372.8000;0.1302;-0.7987;
1373.1000;0.1327;-0.7912;
1373.4000;0.1343;-0.7912;
1373.7000;0.1286;-0.8063;
1374.0000;0.1286;-0.8113;
1374.3000;0.1294;-0.8138;
1374.6000;0.1286;-0.8163;
1374.9000;0.1245;-0.8314;
1375.2000;0.1270;-0.8188;
1375.5000;0.1302;-0.8013;
1375.8000;0.1278;-0.8113;
1376.1000;0.1302;-0.8063;
1376.4000;0.1278;-0.8088;
1376.7000;0.1270;-0.8063;
1377.0000;0.1302;-0.7937;
1377.3000;0.1286;-0.7987;
1377.6000;0.1286;-0.7937;
1377.9000;0.1343;-0.7812;
1378.2000;0.1286;-0.7912;
1378.5000;0.1286;-0.7862;
1378.8000;0.1302;-0.7761;
1379.1000;0.1286;-0.7812;
1379.4000;0.1294;-0.7862;
1379.7000;0.1302;-0.7862;
1380.0000;0.1343;-0.7686;
1380.3000;0.1294;-0.7887;
1380.6000;0.1286;-0.7887;
1380.9000;0.1278;-0.7887;
1381.2000;0.1270;-0.7912;
1381.5000;0.1278;-0.7937;
1381.8000;0.1294;-0.7862;
1382.1000;0.1294;-0.7837;
1382.4000;0.1302;-0.7711;
1382.7000;0.1278;-0.7661;
1383.0000;0.1270;-0.7787;
1383.3000;0.1294;-0.7736;
1383.6000;0.1311;-0.7736;
1383.9000;0.1302;-0.7711;
1384.2000;0.1213;-0.7912;
1384.5000;0.1302;-0.7787;
1384.8000;0.1343;-0.7711;
1385.1000;0.1286;-0.7812;
1385.4000;0.1278;-0.7812;
1385.7000;0.1278;-0.7837;
1386.0000;0.1286;-0.7736;
1386.3000;0.1286;-0.7761;
1386.6000;0.1180;-0.8214;
1386.9000;0.1262;-0.7987;
1387.2000;0.1294;-0.7887;
1387.5000;0.1294;-0.7812;
1387.8000;0.1270;-0.7862;
1388.1000;0.1213;-0.8038;
1388.4000;0.1286;-0.7912;
1388.7000;0.1302;-0.7912;
1389.0000;0.1294;-0.7787;
1389.3000;0.1294;-0.7862;
1389.6000;0.1294;-0.7812;
1389.9000;0.1294;-0.7912;
1390.2000;0.1278;-0.7962;
1390.5000;0.1270;-0.8013;
1390.8000;0.1294;-0.7987;
1391.1000;0.1294;-0.7962;
1391.4000;0.1319;-0.7987;
1391.7000;0.1294;-0.8013;
1392.0000;0.1294;-0.8063;
1392.3000;0.1302;-0.7962;
1392.6000;0.1302;-0.7887;
1392.9000;0.1327;-0.7787;
1393.2000;0.1302;-0.7837;
1393.5000;0.1302;-0.7912;
1393.8000;0.1302;-0.7937;
1394.1000;0.1327;-0.7862;
1394.4000;0.1302;-0.7912;
1394.7000;0.1302;-0.7887;
1395.0000;0.1335;-0.7787;
1395.3000;0.1294;-0.7962;
1395.6000;0.1294;-0.7987;
1395.9000;0.1335;-0.7862;
1396.2000;0.1319;-0.7987;
1396.5000;0.1311;-0.7912;
1396.8000;0.1294;-0.8013;
1397.1000;0.1286;-0.8088;
1397.4000;0.1286;-0.7987;
1397.7000;0.1278;-0.8038;
1398.0000;0.1245;-0.8113;
1398.3000;0.1270;-0.8063;
1398.6000;0.1294;-0.7987;
1398.9000;0.1294;-0.7937;
1399.2000;0.1302;-0.7937;
1399.5000;0.1294;-0.7962;
1399.8000;0.1311;-0.7937;
