time/ms;Fluo/V;P700 deltaI/I x10³;
-199.8000;0.1376;-0.7410;
-199.5000;0.1368;-0.7460;
-199.2000;0.1392;-0.7435;
-198.9000;0.1400;-0.7510;
-198.6000;0.1400;-0.7485;
-198.3000;0.1384;-0.7435;
-198.0000;0.1416;-0.7410;
-197.7000;0.1376;-0.7510;
-197.4000;0.1376;-0.7460;
-197.1000;0.1400;-0.7410;
-196.8000;0.1384;-0.7460;
-196.5000;0.1376;-0.7611;
-196.2000;0.1400;-0.7611;
-195.9000;0.1392;-0.7586;
-195.6000;0.1408;-0.7535;
-195.3000;0.1416;-0.7510;
-195.0000;0.1416;-0.7460;
-194.7000;0.1400;-0.7510;
-194.4000;0.1457;-0.7360;
-194.1000;0.1392;-0.7460;
-193.8000;0.1384;-0.7410;
-193.5000;0.1392;-0.7410;
-193.2000;0.1384;-0.7485;
-192.9000;0.1384;-0.7410;
-192.6000;0.1441;-0.7234;
-192.3000;0.1359;-0.7410;
-192.0000;0.1343;-0.7485;
-191.7000;0.1400;-0.7284;
-191.4000;0.1376;-0.7360;
-191.1000;0.1384;-0.7410;
-190.8000;0.1392;-0.7360;
-190.5000;0.1384;-0.7284;
-190.2000;0.1368;-0.7385;
-189.9000;0.1392;-0.7410;
-189.6000;0.1416;-0.7435;
-189.3000;0.1368;-0.7510;
-189.0000;0.1400;-0.7410;
-188.7000;0.1392;-0.7334;
-188.4000;0.1376;-0.7334;
-188.1000;0.1433;-0.7209;
-187.8000;0.1392;-0.7334;
-187.5000;0.1384;-0.7284;
-187.2000;0.1408;-0.7284;
-186.9000;0.1481;-0.7133;
-186.6000;0.1400;-0.7460;
-186.3000;0.1376;-0.7485;
-186.0000;0.1392;-0.7535;
-185.7000;0.1408;-0.7510;
-185.4000;0.1384;-0.7560;
-185.1000;0.1384;-0.7460;
-184.8000;0.1408;-0.7410;
-184.5000;0.1376;-0.7334;
-184.2000;0.1384;-0.7234;
-183.9000;0.1368;-0.7334;
-183.6000;0.1368;-0.7334;
-183.3000;0.1416;-0.7209;
-183.0000;0.1368;-0.7435;
-182.7000;0.1376;-0.7410;
-182.4000;0.1392;-0.7410;
-182.1000;0.1384;-0.7385;
-181.8000;0.1376;-0.7385;
-181.5000;0.1376;-0.7410;
-181.2000;0.1392;-0.7385;
-180.9000;0.1384;-0.7410;
-180.6000;0.1392;-0.7410;
-180.3000;0.1384;-0.7334;
-180.0000;0.1392;-0.7309;
-179.7000;0.1368;-0.7410;
-179.4000;0.1392;-0.7410;
-179.1000;0.1392;-0.7435;
-178.8000;0.1384;-0.7535;
-178.5000;0.1400;-0.7435;
-178.2000;0.1368;-0.7636;
-177.9000;0.1359;-0.7736;
-177.6000;0.1376;-0.7686;
-177.3000;0.1368;-0.7661;
-177.0000;0.1351;-0.7711;
-176.7000;0.1368;-0.7611;
-176.4000;0.1384;-0.7460;
-176.1000;0.1368;-0.7435;
-175.8000;0.1368;-0.7435;
-175.5000;0.1376;-0.7460;
-175.2000;0.1400;-0.7510;
-174.9000;0.1384;-0.7460;
-174.6000;0.1359;-0.7560;
-174.3000;0.1441;-0.7360;
-174.0000;0.1384;-0.7460;
-173.7000;0.1384;-0.7435;
-173.4000;0.1376;-0.7560;
-173.1000;0.1376;-0.7586;
-172.8000;0.1368;-0.7586;
-172.5000;0.1384;-0.7510;
-172.2000;0.1368;-0.7535;
-171.9000;0.1376;-0.7485;
-171.6000;0.1384;-0.7410;
-171.3000;0.1384;-0.7435;
-171.0000;0.1368;-0.7309;
-170.7000;0.1384;-0.7309;
-170.4000;0.1384;-0.7284;
-170.1000;0.1384;-0.7309;
-169.8000;0.1392;-0.7259;
-169.5000;0.1376;-0.7385;
-169.2000;0.1408;-0.7410;
-168.9000;0.1384;-0.7410;
-168.6000;0.1392;-0.7410;
-168.3000;0.1368;-0.7485;
-168.0000;0.1351;-0.7485;
-167.7000;0.1376;-0.7435;
-167.4000;0.1384;-0.7435;
-167.1000;0.1376;-0.7385;
-166.8000;0.1384;-0.7385;
-166.5000;0.1392;-0.7410;
-166.2000;0.1384;-0.7410;
-165.9000;0.1392;-0.7485;
-165.6000;0.1384;-0.7510;
-165.3000;0.1392;-0.7460;
-165.0000;0.1416;-0.7435;
-164.7000;0.1400;-0.7460;
-164.4000;0.1384;-0.7485;
-164.1000;0.1400;-0.7560;
-163.8000;0.1384;-0.7636;
-163.5000;0.1376;-0.7636;
-163.2000;0.1368;-0.7736;
-162.9000;0.1384;-0.7761;
-162.6000;0.1376;-0.7736;
-162.3000;0.1319;-0.7912;
-162.0000;0.1359;-0.7887;
-161.7000;0.1368;-0.7912;
-161.4000;0.1368;-0.7937;
-161.1000;0.1392;-0.7937;
-160.8000;0.1376;-0.7887;
-160.5000;0.1384;-0.7837;
-160.2000;0.1384;-0.7761;
-159.9000;0.1384;-0.7736;
-159.6000;0.1392;-0.7661;
-159.3000;0.1368;-0.7736;
-159.0000;0.1368;-0.7661;
-158.7000;0.1376;-0.7560;
-158.4000;0.1392;-0.7510;
-158.1000;0.1408;-0.7360;
-157.8000;0.1368;-0.7410;
-157.5000;0.1376;-0.7435;
-157.2000;0.1376;-0.7435;
-156.9000;0.1400;-0.7410;
-156.6000;0.1376;-0.7485;
-156.3000;0.1400;-0.7410;
-156.0000;0.1359;-0.7485;
-155.7000;0.1384;-0.7485;
-155.4000;0.1376;-0.7460;
-155.1000;0.1376;-0.7435;
-154.8000;0.1384;-0.7360;
-154.5000;0.1392;-0.7234;
-154.2000;0.1286;-0.7611;
-153.9000;0.1384;-0.7334;
-153.6000;0.1384;-0.7385;
-153.3000;0.1392;-0.7385;
-153.0000;0.1392;-0.7385;
-152.7000;0.1384;-0.7435;
-152.4000;0.1392;-0.7284;
-152.1000;0.1425;-0.7309;
-151.8000;0.1392;-0.7460;
-151.5000;0.1376;-0.7535;
-151.2000;0.1384;-0.7560;
-150.9000;0.1384;-0.7586;
-150.6000;0.1384;-0.7560;
-150.3000;0.1392;-0.7510;
-150.0000;0.1376;-0.7485;
-149.7000;0.1376;-0.7460;
-149.4000;0.1400;-0.7410;
-149.1000;0.1376;-0.7435;
-148.8000;0.1368;-0.7410;
-148.5000;0.1457;-0.7108;
-148.2000;0.1392;-0.7284;
-147.9000;0.1376;-0.7284;
-147.6000;0.1384;-0.7309;
-147.3000;0.1392;-0.7184;
-147.0000;0.1392;-0.7083;
-146.7000;0.1384;-0.7108;
-146.4000;0.1376;-0.7133;
-146.1000;0.1311;-0.7360;
-145.8000;0.1294;-0.7510;
-145.5000;0.1376;-0.7209;
-145.2000;0.1376;-0.7159;
-144.9000;0.1376;-0.7133;
-144.6000;0.1392;-0.7159;
-144.3000;0.1400;-0.7209;
-144.0000;0.1384;-0.7259;
-143.7000;0.1400;-0.7284;
-143.4000;0.1384;-0.7259;
-143.1000;0.1368;-0.7435;
-142.8000;0.1392;-0.7385;
-142.5000;0.1384;-0.7385;
-142.2000;0.1392;-0.7410;
-141.9000;0.1384;-0.7410;
-141.6000;0.1376;-0.7460;
-141.3000;0.1368;-0.7435;
-141.0000;0.1392;-0.7435;
-140.7000;0.1384;-0.7360;
-140.4000;0.1319;-0.7560;
-140.1000;0.1384;-0.7485;
-139.8000;0.1400;-0.7485;
-139.5000;0.1384;-0.7535;
-139.2000;0.1400;-0.7535;
-138.9000;0.1368;-0.7560;
-138.6000;0.1368;-0.7460;
-138.3000;0.1392;-0.7360;
-138.0000;0.1384;-0.7410;
-137.7000;0.1392;-0.7410;
-137.4000;0.1376;-0.7435;
-137.1000;0.1376;-0.7435;
-136.8000;0.1270;-0.7761;
-136.5000;0.1384;-0.7485;
-136.2000;0.1376;-0.7410;
-135.9000;0.1392;-0.7410;
-135.6000;0.1384;-0.7485;
-135.3000;0.1384;-0.7485;
-135.0000;0.1392;-0.7485;
-134.7000;0.1286;-0.7711;
-134.4000;0.1392;-0.7385;
-134.1000;0.1376;-0.7460;
-133.8000;0.1376;-0.7460;
-133.5000;0.1376;-0.7485;
-133.2000;0.1408;-0.7360;
-132.9000;0.1392;-0.7435;
-132.6000;0.1376;-0.7410;
-132.3000;0.1441;-0.7184;
-132.0000;0.1384;-0.7284;
-131.7000;0.1376;-0.7284;
-131.4000;0.1400;-0.7184;
-131.1000;0.1400;-0.7184;
-130.8000;0.1392;-0.7083;
-130.5000;0.1392;-0.7159;
-130.2000;0.1392;-0.7209;
-129.9000;0.1376;-0.7284;
-129.6000;0.1392;-0.7334;
-129.3000;0.1408;-0.7334;
-129.0000;0.1392;-0.7234;
-128.7000;0.1400;-0.7209;
-128.4000;0.1392;-0.7360;
-128.1000;0.1384;-0.7259;
-127.8000;0.1392;-0.7309;
-127.5000;0.1343;-0.7510;
-127.2000;0.1392;-0.7460;
-126.9000;0.1400;-0.7410;
-126.6000;0.1408;-0.7410;
-126.3000;0.1368;-0.7460;
-126.0000;0.1400;-0.7334;
-125.7000;0.1376;-0.7284;
-125.4000;0.1376;-0.7234;
-125.1000;0.1384;-0.7234;
-124.8000;0.1368;-0.7184;
-124.5000;0.1457;-0.6933;
-124.2000;0.1376;-0.7159;
-123.9000;0.1392;-0.7184;
-123.6000;0.1368;-0.7309;
-123.3000;0.1351;-0.7309;
-123.0000;0.1368;-0.7234;
-122.7000;0.1368;-0.7234;
-122.4000;0.1359;-0.7234;
-122.1000;0.1400;-0.7309;
-121.8000;0.1368;-0.7410;
-121.5000;0.1400;-0.7360;
-121.2000;0.1376;-0.7309;
-120.9000;0.1376;-0.7259;
-120.6000;0.1392;-0.7259;
-120.3000;0.1416;-0.7234;
-120.0000;0.1384;-0.7259;
-119.7000;0.1384;-0.7234;
-119.4000;0.1384;-0.7234;
-119.1000;0.1384;-0.7234;
-118.8000;0.1376;-0.7284;
-118.5000;0.1384;-0.7334;
-118.2000;0.1376;-0.7334;
-117.9000;0.1327;-0.7485;
-117.6000;0.1384;-0.7360;
-117.3000;0.1392;-0.7360;
-117.0000;0.1368;-0.7284;
-116.7000;0.1384;-0.7284;
-116.4000;0.1384;-0.7259;
-116.1000;0.1359;-0.7334;
-115.8000;0.1376;-0.7259;
-115.5000;0.1392;-0.7259;
-115.2000;0.1368;-0.7284;
-114.9000;0.1376;-0.7259;
-114.6000;0.1351;-0.7360;
-114.3000;0.1376;-0.7385;
-114.0000;0.1425;-0.7259;
-113.7000;0.1368;-0.7410;
-113.4000;0.1376;-0.7360;
-113.1000;0.1392;-0.7309;
-112.8000;0.1384;-0.7360;
-112.5000;0.1392;-0.7309;
-112.2000;0.1408;-0.7360;
-111.9000;0.1384;-0.7385;
-111.6000;0.1400;-0.7334;
-111.3000;0.1408;-0.7334;
-111.0000;0.1327;-0.7560;
-110.7000;0.1425;-0.7284;
-110.4000;0.1400;-0.7234;
-110.1000;0.1400;-0.7209;
-109.8000;0.1400;-0.7159;
-109.5000;0.1392;-0.7159;
-109.2000;0.1425;-0.7083;
-108.9000;0.1400;-0.7058;
-108.6000;0.1376;-0.7159;
-108.3000;0.1408;-0.7184;
-108.0000;0.1376;-0.7259;
-107.7000;0.1359;-0.7360;
-107.4000;0.1376;-0.7334;
-107.1000;0.1376;-0.7284;
-106.8000;0.1368;-0.7385;
-106.5000;0.1392;-0.7284;
-106.2000;0.1465;-0.7133;
-105.9000;0.1376;-0.7309;
-105.6000;0.1359;-0.7309;
-105.3000;0.1359;-0.7284;
-105.0000;0.1400;-0.7209;
-104.7000;0.1384;-0.7259;
-104.4000;0.1392;-0.7284;
-104.1000;0.1408;-0.7284;
-103.8000;0.1384;-0.7309;
-103.5000;0.1311;-0.7586;
-103.2000;0.1376;-0.7410;
-102.9000;0.1449;-0.7284;
-102.6000;0.1376;-0.7385;
-102.3000;0.1392;-0.7385;
-102.0000;0.1392;-0.7410;
-101.7000;0.1408;-0.7309;
-101.4000;0.1351;-0.7360;
-101.1000;0.1400;-0.7309;
-100.8000;0.1465;-0.7058;
-100.5000;0.1327;-0.7385;
-100.2000;0.1384;-0.7234;
-99.9000;0.1408;-0.7184;
-99.6000;0.1416;-0.7133;
-99.3000;0.1368;-0.7259;
-99.0000;0.1400;-0.7234;
-98.7000;0.1392;-0.7284;
-98.4000;0.1376;-0.7410;
-98.1000;0.1327;-0.7586;
-97.8000;0.1376;-0.7385;
-97.5000;0.1449;-0.7159;
-97.2000;0.1351;-0.7410;
-96.9000;0.1351;-0.7385;
-96.6000;0.1368;-0.7309;
-96.3000;0.1384;-0.7234;
-96.0000;0.1400;-0.7259;
-95.7000;0.1392;-0.7360;
-95.4000;0.1351;-0.7535;
-95.1000;0.1408;-0.7410;
-94.8000;0.1376;-0.7535;
-94.5000;0.1392;-0.7435;
-94.2000;0.1408;-0.7209;
-93.9000;0.1473;-0.7058;
-93.6000;0.1343;-0.7385;
-93.3000;0.1368;-0.7360;
-93.0000;0.1319;-0.7510;
-92.7000;0.1400;-0.7385;
-92.4000;0.1481;-0.7133;
-92.1000;0.1392;-0.7360;
-91.8000;0.1392;-0.7360;
-91.5000;0.1392;-0.7334;
-91.2000;0.1408;-0.7360;
-90.9000;0.1359;-0.7560;
-90.6000;0.1376;-0.7485;
-90.3000;0.1368;-0.7460;
-90.0000;0.1384;-0.7460;
-89.7000;0.1343;-0.7586;
-89.4000;0.1384;-0.7535;
-89.1000;0.1384;-0.7535;
-88.8000;0.1400;-0.7535;
-88.5000;0.1384;-0.7560;
-88.2000;0.1368;-0.7586;
-87.9000;0.1392;-0.7560;
-87.6000;0.1368;-0.7586;
-87.3000;0.1441;-0.7510;
-87.0000;0.1392;-0.7636;
-86.7000;0.1376;-0.7586;
-86.4000;0.1400;-0.7535;
-86.1000;0.1392;-0.7460;
-85.8000;0.1368;-0.7435;
-85.5000;0.1376;-0.7485;
-85.2000;0.1376;-0.7485;
-84.9000;0.1376;-0.7460;
-84.6000;0.1384;-0.7485;
-84.3000;0.1384;-0.7485;
-84.0000;0.1384;-0.7535;
-83.7000;0.1376;-0.7661;
-83.4000;0.1384;-0.7636;
-83.1000;0.1392;-0.7661;
-82.8000;0.1376;-0.7636;
-82.5000;0.1392;-0.7560;
-82.2000;0.1359;-0.7611;
-81.9000;0.1392;-0.7510;
-81.6000;0.1384;-0.7535;
-81.3000;0.1384;-0.7535;
-81.0000;0.1384;-0.7510;
-80.7000;0.1433;-0.7385;
-80.4000;0.1376;-0.7510;
-80.1000;0.1408;-0.7460;
-79.8000;0.1392;-0.7485;
-79.5000;0.1400;-0.7410;
-79.2000;0.1400;-0.7360;
-78.9000;0.1384;-0.7435;
-78.6000;0.1384;-0.7410;
-78.3000;0.1473;-0.7309;
-78.0000;0.1359;-0.7636;
-77.7000;0.1359;-0.7636;
-77.4000;0.1392;-0.7535;
-77.1000;0.1392;-0.7485;
-76.8000;0.1392;-0.7485;
-76.5000;0.1368;-0.7485;
-76.2000;0.1408;-0.7510;
-75.9000;0.1376;-0.7510;
-75.6000;0.1392;-0.7510;
-75.3000;0.1368;-0.7586;
-75.0000;0.1368;-0.7686;
-74.7000;0.1392;-0.7485;
-74.4000;0.1425;-0.7410;
-74.1000;0.1376;-0.7535;
-73.8000;0.1368;-0.7560;
-73.5000;0.1392;-0.7410;
-73.2000;0.1311;-0.7636;
-72.9000;0.1311;-0.7535;
-72.6000;0.1400;-0.7360;
-72.3000;0.1368;-0.7385;
-72.0000;0.1376;-0.7334;
-71.7000;0.1392;-0.7334;
-71.4000;0.1392;-0.7309;
-71.1000;0.1359;-0.7410;
-70.8000;0.1368;-0.7360;
-70.5000;0.1351;-0.7410;
-70.2000;0.1392;-0.7284;
-69.9000;0.1359;-0.7385;
-69.6000;0.1392;-0.7385;
-69.3000;0.1368;-0.7460;
-69.0000;0.1408;-0.7410;
-68.7000;0.1359;-0.7435;
-68.4000;0.1449;-0.7159;
-68.1000;0.1368;-0.7410;
-67.8000;0.1359;-0.7460;
-67.5000;0.1384;-0.7510;
-67.2000;0.1400;-0.7535;
-66.9000;0.1392;-0.7586;
-66.6000;0.1384;-0.7611;
-66.3000;0.1384;-0.7586;
-66.0000;0.1400;-0.7586;
-65.7000;0.1392;-0.7560;
-65.4000;0.1400;-0.7586;
-65.1000;0.1384;-0.7611;
-64.8000;0.1400;-0.7586;
-64.5000;0.1392;-0.7586;
-64.2000;0.1392;-0.7586;
-63.9000;0.1392;-0.7661;
-63.6000;0.1473;-0.7460;
-63.3000;0.1408;-0.7611;
-63.0000;0.1400;-0.7711;
-62.7000;0.1400;-0.7661;
-62.4000;0.1376;-0.7636;
-62.1000;0.1376;-0.7711;
-61.8000;0.1392;-0.7586;
-61.5000;0.1416;-0.7560;
-61.2000;0.1400;-0.7711;
-60.9000;0.1408;-0.7736;
-60.6000;0.1376;-0.7736;
-60.3000;0.1384;-0.7761;
-60.0000;0.1376;-0.7711;
-59.7000;0.1400;-0.7636;
-59.4000;0.1400;-0.7611;
-59.1000;0.1392;-0.7686;
-58.8000;0.1408;-0.7636;
-58.5000;0.1376;-0.7636;
-58.2000;0.1392;-0.7586;
-57.9000;0.1400;-0.7586;
-57.6000;0.1400;-0.7611;
-57.3000;0.1384;-0.7661;
-57.0000;0.1400;-0.7661;
-56.7000;0.1400;-0.7761;
-56.4000;0.1473;-0.7586;
-56.1000;0.1392;-0.7812;
-55.8000;0.1400;-0.7761;
-55.5000;0.1408;-0.7761;
-55.2000;0.1384;-0.7862;
-54.9000;0.1392;-0.7862;
-54.6000;0.1384;-0.7761;
-54.3000;0.1392;-0.7787;
-54.0000;0.1433;-0.7761;
-53.7000;0.1425;-0.7787;
-53.4000;0.1376;-0.7862;
-53.1000;0.1433;-0.7636;
-52.8000;0.1376;-0.7636;
-52.5000;0.1392;-0.7535;
-52.2000;0.1384;-0.7636;
-51.9000;0.1433;-0.7535;
-51.6000;0.1376;-0.7736;
-51.3000;0.1376;-0.7686;
-51.0000;0.1400;-0.7686;
-50.7000;0.1392;-0.7736;
-50.4000;0.1392;-0.7761;
-50.1000;0.1384;-0.7761;
-49.8000;0.1376;-0.7787;
-49.5000;0.1392;-0.7711;
-49.2000;0.1408;-0.7686;
-48.9000;0.1408;-0.7661;
-48.6000;0.1384;-0.7661;
-48.3000;0.1384;-0.7636;
-48.0000;0.1425;-0.7560;
-47.7000;0.1376;-0.7611;
-47.4000;0.1392;-0.7535;
-47.1000;0.1376;-0.7586;
-46.8000;0.1392;-0.7560;
-46.5000;0.1384;-0.7611;
-46.2000;0.1368;-0.7636;
-45.9000;0.1368;-0.7661;
-45.6000;0.1392;-0.7611;
-45.3000;0.1400;-0.7636;
-45.0000;0.1441;-0.7385;
-44.7000;0.1392;-0.7360;
-44.4000;0.1400;-0.7284;
-44.1000;0.1392;-0.7360;
-43.8000;0.1400;-0.7385;
-43.5000;0.1392;-0.7410;
-43.2000;0.1400;-0.7284;
-42.9000;0.1400;-0.7284;
-42.6000;0.1384;-0.7309;
-42.3000;0.1408;-0.7334;
-42.0000;0.1376;-0.7360;
-41.7000;0.1384;-0.7385;
-41.4000;0.1368;-0.7460;
-41.1000;0.1343;-0.7460;
-40.8000;0.1376;-0.7360;
-40.5000;0.1376;-0.7334;
-40.2000;0.1392;-0.7309;
-39.9000;0.1441;-0.7184;
-39.6000;0.1376;-0.7385;
-39.3000;0.1392;-0.7460;
-39.0000;0.1408;-0.7385;
-38.7000;0.1400;-0.7385;
-38.4000;0.1376;-0.7360;
-38.1000;0.1384;-0.7309;
-37.8000;0.1392;-0.7284;
-37.5000;0.1376;-0.7410;
-37.2000;0.1368;-0.7435;
-36.9000;0.1384;-0.7360;
-36.6000;0.1376;-0.7360;
-36.3000;0.1368;-0.7410;
-36.0000;0.1294;-0.7711;
-35.7000;0.1384;-0.7460;
-35.4000;0.1392;-0.7435;
-35.1000;0.1408;-0.7510;
-34.8000;0.1368;-0.7560;
-34.5000;0.1376;-0.7586;
-34.2000;0.1376;-0.7535;
-33.9000;0.1425;-0.7410;
-33.6000;0.1368;-0.7510;
-33.3000;0.1359;-0.7560;
-33.0000;0.1400;-0.7586;
-32.7000;0.1441;-0.7435;
-32.4000;0.1384;-0.7560;
-32.1000;0.1376;-0.7611;
-31.8000;0.1384;-0.7586;
-31.5000;0.1408;-0.7485;
-31.2000;0.1425;-0.7586;
-30.9000;0.1384;-0.7787;
-30.6000;0.1400;-0.7711;
-30.3000;0.1384;-0.7837;
-30.0000;0.1376;-0.7837;
-29.7000;0.1384;-0.7711;
-29.4000;0.1392;-0.7636;
-29.1000;0.1392;-0.7611;
-28.8000;0.1368;-0.7686;
-28.5000;0.1384;-0.7711;
-28.2000;0.1368;-0.7711;
-27.9000;0.1392;-0.7686;
-27.6000;0.1392;-0.7686;
-27.3000;0.1376;-0.7761;
-27.0000;0.1384;-0.7636;
-26.7000;0.1384;-0.7510;
-26.4000;0.1376;-0.7560;
-26.1000;0.1384;-0.7636;
-25.8000;0.1368;-0.7611;
-25.5000;0.1392;-0.7586;
-25.2000;0.1376;-0.7761;
-24.9000;0.1384;-0.7787;
-24.6000;0.1368;-0.7761;
-24.3000;0.1384;-0.7661;
-24.0000;0.1384;-0.7661;
-23.7000;0.1392;-0.7636;
-23.4000;0.1376;-0.7586;
-23.1000;0.1392;-0.7510;
-22.8000;0.1392;-0.7560;
-22.5000;0.1392;-0.7661;
-22.2000;0.1425;-0.7636;
-21.9000;0.1376;-0.7736;
-21.6000;0.1392;-0.7787;
-21.3000;0.1400;-0.7711;
-21.0000;0.1368;-0.7711;
-20.7000;0.1384;-0.7686;
-20.4000;0.1376;-0.7636;
-20.1000;0.1392;-0.7636;
-19.8000;0.1368;-0.7711;
-19.5000;0.1384;-0.7686;
-19.2000;0.1416;-0.7510;
-18.9000;0.1286;-0.7812;
-18.6000;0.1400;-0.7510;
-18.3000;0.1384;-0.7510;
-18.0000;0.1384;-0.7460;
-17.7000;0.1376;-0.7535;
-17.4000;0.1376;-0.7661;
-17.1000;0.1351;-0.7736;
-16.8000;0.1368;-0.7761;
-16.5000;0.1384;-0.7736;
-16.2000;0.1351;-0.7837;
-15.9000;0.1376;-0.7837;
-15.6000;0.1376;-0.7887;
-15.3000;0.1359;-0.7912;
-15.0000;0.1433;-0.7736;
-14.7000;0.1384;-0.7937;
-14.4000;0.1376;-0.7887;
-14.1000;0.1384;-0.7812;
-13.8000;0.1359;-0.7837;
-13.5000;0.1368;-0.7761;
-13.2000;0.1400;-0.7586;
-12.9000;0.1368;-0.7736;
-12.6000;0.1384;-0.7611;
-12.3000;0.1408;-0.7510;
-12.0000;0.1384;-0.7485;
-11.7000;0.1400;-0.7485;
-11.4000;0.1441;-0.7435;
-11.1000;0.1359;-0.7686;
-10.8000;0.1368;-0.7686;
-10.5000;0.1376;-0.7711;
-10.2000;0.1368;-0.7661;
-9.9000;0.1392;-0.7636;
-9.6000;0.1376;-0.7611;
-9.3000;0.1376;-0.7611;
-9.0000;0.1408;-0.7586;
-8.7000;0.1376;-0.7661;
-8.4000;0.1384;-0.7611;
-8.1000;0.1384;-0.7510;
-7.8000;0.1351;-0.7661;
-7.5000;0.1392;-0.7535;
-7.2000;0.1384;-0.7686;
-6.9000;0.1384;-0.7686;
-6.6000;0.1376;-0.7686;
-6.3000;0.1376;-0.7611;
-6.0000;0.1359;-0.7686;
-5.7000;0.1384;-0.7736;
-5.4000;0.1384;-0.7586;
-5.1000;0.1400;-0.7510;
-4.8000;0.1408;-0.7460;
-4.5000;0.1376;-0.7636;
-4.2000;0.1376;-0.7636;
-3.9000;0.1384;-0.7560;
-3.6000;0.1416;-0.7535;
-3.3000;0.1400;-0.7636;
-3.0000;0.1359;-0.7761;
-2.7000;0.1384;-0.7837;
-2.4000;0.1384;-0.7787;
-2.1000;0.1400;-0.7761;
-1.8000;0.1376;-0.7787;
-1.5000;0.1359;-0.7736;
-1.2000;0.1384;-0.7711;
-0.9000;0.1359;-0.7761;
-0.6000;0.1392;-0.7661;
-0.3000;0.1392;-0.7686;
0.0000;0.1392;-0.7686;
0.3000;0.1400;-0.7937;
0.6000;0.1392;-0.7736;
0.9000;0.1408;-0.7460;
1.2000;0.1392;-0.7309;
1.5000;0.1425;-0.7058;
1.8000;0.1441;-0.6933;
2.1000;0.1433;-0.6782;
2.4000;0.1433;-0.6681;
2.7000;0.1425;-0.6631;
3.0000;0.1457;-0.6455;
3.3000;0.1473;-0.6279;
3.6000;0.1433;-0.6254;
3.9000;0.1441;-0.6204;
4.2000;0.1441;-0.6179;
4.5000;0.1441;-0.6179;
4.8000;0.1490;-0.6129;
5.1000;0.1457;-0.6079;
5.4000;0.1457;-0.6053;
5.7000;0.1473;-0.6079;
6.0000;0.1465;-0.6053;
6.3000;0.1465;-0.6003;
6.6000;0.1481;-0.5978;
6.9000;0.1506;-0.6003;
7.2000;0.1481;-0.6028;
7.5000;0.1449;-0.6003;
7.8000;0.1465;-0.5852;
8.1000;0.1473;-0.5928;
8.4000;0.1449;-0.6003;
8.7000;0.1449;-0.6003;
9.0000;0.1449;-0.5978;
9.3000;0.1465;-0.5878;
9.6000;0.1449;-0.5928;
9.9000;0.1457;-0.5827;
10.2000;0.1441;-0.5878;
10.5000;0.1457;-0.5878;
10.8000;0.1481;-0.5852;
11.1000;0.1433;-0.6028;
11.4000;0.1425;-0.6028;
11.7000;0.1441;-0.6129;
12.0000;0.1457;-0.5978;
12.3000;0.1481;-0.5978;
12.6000;0.1449;-0.6053;
12.9000;0.1465;-0.5978;
13.2000;0.1473;-0.5978;
13.5000;0.1498;-0.5978;
13.8000;0.1465;-0.6028;
14.1000;0.1457;-0.6079;
14.4000;0.1465;-0.6079;
14.7000;0.1449;-0.5978;
15.0000;0.1441;-0.5878;
15.3000;0.1441;-0.5827;
15.6000;0.1481;-0.5752;
15.9000;0.1441;-0.5827;
16.2000;0.1465;-0.5852;
16.5000;0.1425;-0.5928;
16.8000;0.1481;-0.5953;
17.1000;0.1392;-0.6229;
17.4000;0.1449;-0.6053;
17.7000;0.1481;-0.5953;
18.0000;0.1465;-0.5903;
18.3000;0.1457;-0.5928;
18.6000;0.1465;-0.5953;
18.9000;0.1441;-0.6003;
19.2000;0.1449;-0.5953;
19.5000;0.1449;-0.5928;
19.8000;0.1384;-0.6028;
20.1000;0.1441;-0.5928;
20.4000;0.1457;-0.6003;
20.7000;0.1465;-0.5953;
21.0000;0.1465;-0.5978;
21.3000;0.1449;-0.5928;
21.6000;0.1457;-0.5802;
21.9000;0.1457;-0.5878;
22.2000;0.1490;-0.5777;
22.5000;0.1465;-0.5903;
22.8000;0.1473;-0.5802;
23.1000;0.1457;-0.5852;
23.4000;0.1457;-0.5878;
23.7000;0.1449;-0.5878;
24.0000;0.1465;-0.5777;
24.3000;0.1473;-0.5727;
24.6000;0.1449;-0.5777;
24.9000;0.1457;-0.5777;
25.2000;0.1433;-0.5852;
25.5000;0.1481;-0.5802;
25.8000;0.1457;-0.5827;
26.1000;0.1441;-0.5903;
26.4000;0.1457;-0.5802;
26.7000;0.1465;-0.5727;
27.0000;0.1465;-0.5777;
27.3000;0.1473;-0.5802;
27.6000;0.1433;-0.5852;
27.9000;0.1449;-0.5777;
28.2000;0.1473;-0.5677;
28.5000;0.1449;-0.5677;
28.8000;0.1441;-0.5827;
29.1000;0.1481;-0.5702;
29.4000;0.1425;-0.5802;
29.7000;0.1457;-0.5702;
30.0000;0.1433;-0.5752;
30.3000;0.1433;-0.5702;
30.6000;0.1441;-0.5802;
30.9000;0.1433;-0.5827;
31.2000;0.1457;-0.5903;
31.5000;0.1441;-0.6028;
31.8000;0.1457;-0.5878;
32.1000;0.1481;-0.5903;
32.4000;0.1498;-0.5878;
32.7000;0.1433;-0.5852;
33.0000;0.1441;-0.5802;
33.3000;0.1441;-0.5802;
33.6000;0.1441;-0.5802;
33.9000;0.1465;-0.5752;
34.2000;0.1408;-0.5928;
34.5000;0.1368;-0.5953;
34.8000;0.1449;-0.5777;
35.1000;0.1449;-0.5626;
35.4000;0.1400;-0.5702;
35.7000;0.1441;-0.5677;
36.0000;0.1473;-0.5652;
36.3000;0.1408;-0.5802;
36.6000;0.1400;-0.5878;
36.9000;0.1481;-0.5727;
37.2000;0.1449;-0.5827;
37.5000;0.1416;-0.6003;
37.8000;0.1416;-0.6003;
38.1000;0.1441;-0.5978;
38.4000;0.1473;-0.5953;
38.7000;0.1473;-0.5953;
39.0000;0.1473;-0.5903;
39.3000;0.1465;-0.5852;
39.6000;0.1449;-0.5903;
39.9000;0.1457;-0.5852;
40.2000;0.1433;-0.5928;
40.5000;0.1449;-0.5903;
40.8000;0.1441;-0.5928;
41.1000;0.1481;-0.5852;
41.4000;0.1433;-0.5827;
41.7000;0.1465;-0.5802;
42.0000;0.1465;-0.5752;
42.3000;0.1441;-0.5802;
42.6000;0.1449;-0.5702;
42.9000;0.1376;-0.5978;
43.2000;0.1425;-0.5903;
43.5000;0.1441;-0.5852;
43.8000;0.1400;-0.5978;
44.1000;0.1416;-0.5978;
44.4000;0.1449;-0.6003;
44.7000;0.1449;-0.6079;
45.0000;0.1465;-0.6129;
45.3000;0.1457;-0.6154;
45.6000;0.1441;-0.6104;
45.9000;0.1433;-0.6028;
46.2000;0.1473;-0.5878;
46.5000;0.1457;-0.5903;
46.8000;0.1465;-0.5928;
47.1000;0.1481;-0.5903;
47.4000;0.1473;-0.5852;
47.7000;0.1473;-0.5878;
48.0000;0.1457;-0.5777;
48.3000;0.1433;-0.5702;
48.6000;0.1457;-0.5626;
48.9000;0.1465;-0.5576;
49.2000;0.1457;-0.5576;
49.5000;0.1433;-0.5677;
49.8000;0.1441;-0.5727;
50.1000;0.1490;-0.5626;
50.4000;0.1465;-0.5752;
50.7000;0.1449;-0.5802;
51.0000;0.1457;-0.5852;
51.3000;0.1449;-0.5928;
51.6000;0.1473;-0.5827;
51.9000;0.1425;-0.5827;
52.2000;0.1465;-0.5752;
52.5000;0.1465;-0.5727;
52.8000;0.1465;-0.5752;
53.1000;0.1441;-0.5802;
53.4000;0.1449;-0.5752;
53.7000;0.1449;-0.5601;
54.0000;0.1441;-0.5752;
54.3000;0.1490;-0.5677;
54.6000;0.1425;-0.5777;
54.9000;0.1498;-0.5601;
55.2000;0.1473;-0.5702;
55.5000;0.1465;-0.5702;
55.8000;0.1457;-0.5702;
56.1000;0.1351;-0.6053;
56.4000;0.1441;-0.5652;
56.7000;0.1441;-0.5626;
57.0000;0.1433;-0.5551;
57.3000;0.1449;-0.5451;
57.6000;0.1441;-0.5526;
57.9000;0.1449;-0.5526;
58.2000;0.1449;-0.5501;
58.5000;0.1563;-0.5225;
58.8000;0.1473;-0.5501;
59.1000;0.1473;-0.5526;
59.4000;0.1408;-0.5626;
59.7000;0.1441;-0.5526;
60.0000;0.1441;-0.5626;
60.3000;0.1441;-0.5677;
60.6000;0.1441;-0.5752;
60.9000;0.1465;-0.5752;
61.2000;0.1473;-0.5752;
61.5000;0.1481;-0.5652;
61.8000;0.1449;-0.5727;
62.1000;0.1473;-0.5677;
62.4000;0.1457;-0.5677;
62.7000;0.1465;-0.5677;
63.0000;0.1465;-0.5777;
63.3000;0.1571;-0.5451;
63.6000;0.1457;-0.5852;
63.9000;0.1473;-0.5827;
64.2000;0.1522;-0.5727;
64.5000;0.1425;-0.5928;
64.8000;0.1449;-0.5852;
65.1000;0.1457;-0.5827;
65.4000;0.1457;-0.5852;
65.7000;0.1457;-0.5878;
66.0000;0.1457;-0.5777;
66.3000;0.1449;-0.5752;
66.6000;0.1473;-0.5752;
66.9000;0.1449;-0.5802;
67.2000;0.1457;-0.5727;
67.5000;0.1457;-0.5677;
67.8000;0.1473;-0.5777;
68.1000;0.1457;-0.5777;
68.4000;0.1457;-0.6003;
68.7000;0.1465;-0.5928;
69.0000;0.1441;-0.5802;
69.3000;0.1441;-0.5852;
69.6000;0.1449;-0.5802;
69.9000;0.1441;-0.5802;
70.2000;0.1473;-0.5777;
70.5000;0.1457;-0.5878;
70.8000;0.1457;-0.5903;
71.1000;0.1473;-0.5802;
71.4000;0.1441;-0.5827;
71.7000;0.1449;-0.5802;
72.0000;0.1457;-0.5777;
72.3000;0.1473;-0.5777;
72.6000;0.1473;-0.5727;
72.9000;0.1449;-0.5777;
73.2000;0.1449;-0.5677;
73.5000;0.1457;-0.5752;
73.8000;0.1449;-0.5677;
74.1000;0.1465;-0.5626;
74.4000;0.1416;-0.5727;
74.7000;0.1441;-0.5677;
75.0000;0.1449;-0.5727;
75.3000;0.1465;-0.5601;
75.6000;0.1449;-0.5601;
75.9000;0.1449;-0.5702;
76.2000;0.1359;-0.5852;
76.5000;0.1481;-0.5451;
76.8000;0.1457;-0.5501;
77.1000;0.1441;-0.5451;
77.4000;0.1441;-0.5425;
77.7000;0.1465;-0.5425;
78.0000;0.1473;-0.5451;
78.3000;0.1408;-0.5551;
78.6000;0.1433;-0.5501;
78.9000;0.1490;-0.5425;
79.2000;0.1465;-0.5576;
79.5000;0.1433;-0.5727;
79.8000;0.1441;-0.5777;
80.1000;0.1449;-0.5802;
80.4000;0.1473;-0.5727;
80.7000;0.1457;-0.5777;
81.0000;0.1465;-0.5652;
81.3000;0.1425;-0.5626;
81.6000;0.1449;-0.5601;
81.9000;0.1457;-0.5601;
82.2000;0.1506;-0.5526;
82.5000;0.1481;-0.5551;
82.8000;0.1457;-0.5551;
83.1000;0.1457;-0.5626;
83.4000;0.1457;-0.5652;
83.7000;0.1498;-0.5601;
84.0000;0.1449;-0.5777;
84.3000;0.1457;-0.5727;
84.6000;0.1514;-0.5677;
84.9000;0.1449;-0.5878;
85.2000;0.1449;-0.5953;
85.5000;0.1449;-0.5727;
85.8000;0.1441;-0.5802;
86.1000;0.1514;-0.5652;
86.4000;0.1457;-0.5802;
86.7000;0.1449;-0.5752;
87.0000;0.1449;-0.5626;
87.3000;0.1425;-0.5626;
87.6000;0.1465;-0.5526;
87.9000;0.1473;-0.5476;
88.2000;0.1465;-0.5501;
88.5000;0.1457;-0.5476;
88.8000;0.1433;-0.5576;
89.1000;0.1441;-0.5677;
89.4000;0.1449;-0.5777;
89.7000;0.1433;-0.5802;
90.0000;0.1538;-0.5576;
90.3000;0.1449;-0.5727;
90.6000;0.1465;-0.5526;
90.9000;0.1449;-0.5576;
91.2000;0.1449;-0.5576;
91.5000;0.1465;-0.5526;
91.8000;0.1457;-0.5526;
92.1000;0.1465;-0.5576;
92.4000;0.1441;-0.5727;
92.7000;0.1449;-0.5652;
93.0000;0.1530;-0.5526;
93.3000;0.1433;-0.5802;
93.6000;0.1473;-0.5727;
93.9000;0.1441;-0.5777;
94.2000;0.1481;-0.5727;
94.5000;0.1473;-0.5802;
94.8000;0.1449;-0.5852;
95.1000;0.1465;-0.5802;
95.4000;0.1457;-0.5727;
95.7000;0.1481;-0.5677;
96.0000;0.1457;-0.5802;
96.3000;0.1473;-0.5702;
96.6000;0.1416;-0.5852;
96.9000;0.1441;-0.5777;
97.2000;0.1490;-0.5727;
97.5000;0.1433;-0.5802;
97.8000;0.1449;-0.5727;
98.1000;0.1408;-0.5777;
98.4000;0.1416;-0.5802;
98.7000;0.1425;-0.5777;
99.0000;0.1425;-0.5827;
99.3000;0.1400;-0.6003;
99.6000;0.1408;-0.6003;
99.9000;0.1498;-0.5777;
100.2000;0.1465;-0.5852;
100.5000;0.1449;-0.5852;
100.8000;0.1425;-0.5953;
101.1000;0.1449;-0.5802;
101.4000;0.1441;-0.5852;
101.7000;0.1481;-0.5827;
102.0000;0.1465;-0.5802;
102.3000;0.1481;-0.5752;
102.6000;0.1441;-0.5752;
102.9000;0.1465;-0.5777;
103.2000;0.1465;-0.5752;
103.5000;0.1433;-0.5852;
103.8000;0.1449;-0.5802;
104.1000;0.1457;-0.5802;
104.4000;0.1449;-0.5928;
104.7000;0.1441;-0.5928;
105.0000;0.1449;-0.5903;
105.3000;0.1408;-0.5978;
105.6000;0.1457;-0.5878;
105.9000;0.1457;-0.5827;
106.2000;0.1457;-0.5852;
106.5000;0.1425;-0.5903;
106.8000;0.1449;-0.5827;
107.1000;0.1465;-0.5752;
107.4000;0.1465;-0.5802;
107.7000;0.1449;-0.5827;
108.0000;0.1457;-0.5752;
108.3000;0.1473;-0.5677;
108.6000;0.1481;-0.5752;
108.9000;0.1416;-0.5878;
109.2000;0.1449;-0.5752;
109.5000;0.1465;-0.5702;
109.8000;0.1416;-0.5827;
110.1000;0.1465;-0.5677;
110.4000;0.1441;-0.5727;
110.7000;0.1506;-0.5526;
111.0000;0.1433;-0.5777;
111.3000;0.1457;-0.5702;
111.6000;0.1449;-0.5652;
111.9000;0.1555;-0.5350;
112.2000;0.1449;-0.5576;
112.5000;0.1465;-0.5526;
112.8000;0.1449;-0.5501;
113.1000;0.1433;-0.5727;
113.4000;0.1433;-0.5802;
113.7000;0.1465;-0.5702;
114.0000;0.1449;-0.5777;
114.3000;0.1425;-0.5802;
114.6000;0.1441;-0.5777;
114.9000;0.1368;-0.5953;
115.2000;0.1449;-0.5652;
115.5000;0.1449;-0.5626;
115.8000;0.1449;-0.5601;
116.1000;0.1473;-0.5652;
116.4000;0.1490;-0.5677;
116.7000;0.1441;-0.5727;
117.0000;0.1457;-0.5677;
117.3000;0.1449;-0.5652;
117.6000;0.1457;-0.5677;
117.9000;0.1465;-0.5727;
118.2000;0.1449;-0.5852;
118.5000;0.1473;-0.5903;
118.8000;0.1473;-0.5903;
119.1000;0.1473;-0.5928;
119.4000;0.1449;-0.5953;
119.7000;0.1449;-0.5978;
120.0000;0.1441;-0.6079;
120.3000;0.1449;-0.6003;
120.6000;0.1457;-0.6053;
120.9000;0.1465;-0.6053;
121.2000;0.1473;-0.6028;
121.5000;0.1449;-0.6053;
121.8000;0.1465;-0.6003;
122.1000;0.1441;-0.6028;
122.4000;0.1449;-0.5928;
122.7000;0.1473;-0.5903;
123.0000;0.1457;-0.5978;
123.3000;0.1481;-0.6003;
123.6000;0.1465;-0.6003;
123.9000;0.1457;-0.6003;
124.2000;0.1481;-0.5928;
124.5000;0.1441;-0.6079;
124.8000;0.1465;-0.6003;
125.1000;0.1514;-0.5953;
125.4000;0.1441;-0.6104;
125.7000;0.1441;-0.5978;
126.0000;0.1457;-0.6003;
126.3000;0.1465;-0.5953;
126.6000;0.1433;-0.6028;
126.9000;0.1441;-0.6079;
127.2000;0.1441;-0.6179;
127.5000;0.1449;-0.6129;
127.8000;0.1441;-0.6179;
128.1000;0.1473;-0.6129;
128.4000;0.1473;-0.6129;
128.7000;0.1481;-0.6053;
129.0000;0.1441;-0.6204;
129.3000;0.1457;-0.6079;
129.6000;0.1457;-0.6129;
129.9000;0.1481;-0.6053;
130.2000;0.1457;-0.6053;
130.5000;0.1449;-0.5978;
130.8000;0.1433;-0.6053;
131.1000;0.1457;-0.5978;
131.4000;0.1384;-0.6204;
131.7000;0.1392;-0.6028;
132.0000;0.1416;-0.5978;
132.3000;0.1441;-0.5903;
132.6000;0.1441;-0.5978;
132.9000;0.1473;-0.5903;
133.2000;0.1473;-0.5827;
133.5000;0.1433;-0.5953;
133.8000;0.1433;-0.5978;
134.1000;0.1449;-0.5953;
134.4000;0.1498;-0.5802;
134.7000;0.1441;-0.5903;
135.0000;0.1449;-0.5802;
135.3000;0.1441;-0.5878;
135.6000;0.1449;-0.5928;
135.9000;0.1457;-0.5903;
136.2000;0.1449;-0.5953;
136.5000;0.1433;-0.5978;
136.8000;0.1441;-0.6053;
137.1000;0.1441;-0.6003;
137.4000;0.1457;-0.6003;
137.7000;0.1465;-0.5953;
138.0000;0.1457;-0.5878;
138.3000;0.1449;-0.5928;
138.6000;0.1473;-0.5903;
138.9000;0.1473;-0.5928;
139.2000;0.1465;-0.5928;
139.5000;0.1481;-0.5978;
139.8000;0.1473;-0.6028;
140.1000;0.1457;-0.6003;
140.4000;0.1449;-0.6003;
140.7000;0.1473;-0.5953;
141.0000;0.1457;-0.5953;
141.3000;0.1473;-0.5928;
141.6000;0.1498;-0.5852;
141.9000;0.1465;-0.5928;
142.2000;0.1547;-0.5727;
142.5000;0.1465;-0.5978;
142.8000;0.1457;-0.5953;
143.1000;0.1481;-0.5852;
143.4000;0.1449;-0.5953;
143.7000;0.1441;-0.5878;
144.0000;0.1425;-0.5953;
144.3000;0.1457;-0.5752;
144.6000;0.1457;-0.5752;
144.9000;0.1441;-0.5827;
145.2000;0.1441;-0.5878;
145.5000;0.1473;-0.5802;
145.8000;0.1449;-0.5878;
146.1000;0.1449;-0.5752;
146.4000;0.1441;-0.5802;
146.7000;0.1457;-0.5827;
147.0000;0.1465;-0.5827;
147.3000;0.1433;-0.5928;
147.6000;0.1498;-0.5677;
147.9000;0.1408;-0.6053;
148.2000;0.1563;-0.5652;
148.5000;0.1408;-0.6028;
148.8000;0.1457;-0.5852;
149.1000;0.1465;-0.5878;
149.4000;0.1441;-0.5928;
149.7000;0.1441;-0.5852;
150.0000;0.1441;-0.5802;
150.3000;0.1392;-0.5928;
150.6000;0.1433;-0.5802;
150.9000;0.1449;-0.5702;
151.2000;0.1441;-0.5727;
151.5000;0.1465;-0.5702;
151.8000;0.1457;-0.5802;
152.1000;0.1514;-0.5652;
152.4000;0.1449;-0.5852;
152.7000;0.1465;-0.5777;
153.0000;0.1481;-0.5702;
153.3000;0.1449;-0.5802;
153.6000;0.1473;-0.5727;
153.9000;0.1465;-0.5752;
154.2000;0.1473;-0.5903;
154.5000;0.1481;-0.5928;
154.8000;0.1457;-0.6003;
155.1000;0.1465;-0.6028;
155.4000;0.1506;-0.5928;
155.7000;0.1506;-0.5827;
156.0000;0.1473;-0.5878;
156.3000;0.1481;-0.5928;
156.6000;0.1457;-0.6003;
156.9000;0.1425;-0.5878;
157.2000;0.1376;-0.6003;
157.5000;0.1449;-0.5777;
157.8000;0.1433;-0.5777;
158.1000;0.1457;-0.5677;
158.4000;0.1449;-0.5652;
158.7000;0.1441;-0.5752;
159.0000;0.1465;-0.5677;
159.3000;0.1457;-0.5777;
159.6000;0.1441;-0.5878;
159.9000;0.1457;-0.5777;
160.2000;0.1433;-0.5777;
160.5000;0.1449;-0.5677;
160.8000;0.1408;-0.5777;
161.1000;0.1433;-0.5777;
161.4000;0.1433;-0.5777;
161.7000;0.1457;-0.5727;
162.0000;0.1465;-0.5702;
162.3000;0.1449;-0.5752;
162.6000;0.1449;-0.5777;
162.9000;0.1449;-0.5827;
163.2000;0.1481;-0.5727;
163.5000;0.1441;-0.5878;
163.8000;0.1449;-0.5928;
164.1000;0.1457;-0.5903;
164.4000;0.1441;-0.5878;
164.7000;0.1473;-0.5878;
165.0000;0.1449;-0.5928;
165.3000;0.1433;-0.5928;
165.6000;0.1465;-0.5878;
165.9000;0.1449;-0.5928;
166.2000;0.1457;-0.5878;
166.5000;0.1449;-0.5827;
166.8000;0.1465;-0.5827;
167.1000;0.1473;-0.5827;
167.4000;0.1433;-0.5827;
167.7000;0.1425;-0.5878;
168.0000;0.1441;-0.5827;
168.3000;0.1441;-0.5903;
168.6000;0.1457;-0.5878;
168.9000;0.1457;-0.5802;
169.2000;0.1490;-0.5677;
169.5000;0.1457;-0.5727;
169.8000;0.1457;-0.5802;
170.1000;0.1457;-0.5878;
170.4000;0.1449;-0.5878;
170.7000;0.1384;-0.6079;
171.0000;0.1441;-0.5878;
171.3000;0.1433;-0.5928;
171.6000;0.1433;-0.5928;
171.9000;0.1457;-0.5752;
172.2000;0.1449;-0.5802;
172.5000;0.1457;-0.5878;
172.8000;0.1433;-0.5903;
173.1000;0.1465;-0.5752;
173.4000;0.1416;-0.5878;
173.7000;0.1465;-0.5777;
174.0000;0.1457;-0.5777;
174.3000;0.1604;-0.5375;
174.6000;0.1416;-0.5903;
174.9000;0.1449;-0.5777;
175.2000;0.1433;-0.5852;
175.5000;0.1400;-0.5978;
175.8000;0.1449;-0.5878;
176.1000;0.1449;-0.5827;
176.4000;0.1449;-0.5827;
176.7000;0.1506;-0.5626;
177.0000;0.1449;-0.5677;
177.3000;0.1481;-0.5576;
177.6000;0.1481;-0.5551;
177.9000;0.1449;-0.5752;
178.2000;0.1433;-0.5727;
178.5000;0.1449;-0.5727;
178.8000;0.1433;-0.5752;
179.1000;0.1441;-0.5802;
179.4000;0.1465;-0.5827;
179.7000;0.1441;-0.5903;
180.0000;0.1465;-0.5928;
180.3000;0.1408;-0.6079;
180.6000;0.1457;-0.5953;
180.9000;0.1473;-0.5928;
181.2000;0.1490;-0.5903;
181.5000;0.1449;-0.6053;
181.8000;0.1457;-0.6028;
182.1000;0.1473;-0.5953;
182.4000;0.1457;-0.5953;
182.7000;0.1449;-0.5978;
183.0000;0.1425;-0.6104;
183.3000;0.1425;-0.6179;
183.6000;0.1441;-0.6129;
183.9000;0.1433;-0.6053;
184.2000;0.1433;-0.5953;
184.5000;0.1441;-0.5953;
184.8000;0.1425;-0.6028;
185.1000;0.1433;-0.6028;
185.4000;0.1457;-0.6003;
185.7000;0.1433;-0.6129;
186.0000;0.1441;-0.6079;
186.3000;0.1449;-0.6053;
186.6000;0.1465;-0.5928;
186.9000;0.1449;-0.5978;
187.2000;0.1465;-0.5852;
187.5000;0.1465;-0.5827;
187.8000;0.1465;-0.5827;
188.1000;0.1465;-0.5852;
188.4000;0.1457;-0.5978;
188.7000;0.1457;-0.5928;
189.0000;0.1481;-0.5878;
189.3000;0.1441;-0.6028;
189.6000;0.1457;-0.5953;
189.9000;0.1441;-0.5953;
190.2000;0.1449;-0.5878;
190.5000;0.1457;-0.5852;
190.8000;0.1441;-0.5903;
191.1000;0.1465;-0.5852;
191.4000;0.1425;-0.5978;
191.7000;0.1425;-0.6028;
192.0000;0.1449;-0.5903;
192.3000;0.1384;-0.6003;
192.6000;0.1457;-0.5802;
192.9000;0.1457;-0.5777;
193.2000;0.1498;-0.5727;
193.5000;0.1457;-0.5878;
193.8000;0.1465;-0.5928;
194.1000;0.1441;-0.6028;
194.4000;0.1465;-0.5978;
194.7000;0.1481;-0.5928;
195.0000;0.1384;-0.6179;
195.3000;0.1433;-0.5978;
195.6000;0.1425;-0.5928;
195.9000;0.1416;-0.6003;
196.2000;0.1441;-0.5978;
196.5000;0.1416;-0.6079;
196.8000;0.1416;-0.5953;
197.1000;0.1441;-0.6028;
197.4000;0.1449;-0.6079;
197.7000;0.1449;-0.6003;
198.0000;0.1441;-0.6003;
198.3000;0.1457;-0.6079;
198.6000;0.1433;-0.6154;
198.9000;0.1457;-0.6179;
199.2000;0.1449;-0.6154;
199.5000;0.1473;-0.5978;
199.8000;0.1433;-0.5928;
200.1000;0.1441;-0.5903;
200.4000;0.1441;-0.5827;
200.7000;0.1449;-0.5752;
201.0000;0.1392;-0.5928;
201.3000;0.1449;-0.5878;
201.6000;0.1425;-0.6028;
201.9000;0.1449;-0.6003;
202.2000;0.1433;-0.5978;
202.5000;0.1514;-0.5852;
202.8000;0.1449;-0.6053;
203.1000;0.1473;-0.6003;
203.4000;0.1416;-0.6053;
203.7000;0.1441;-0.6104;
204.0000;0.1441;-0.6104;
204.3000;0.1449;-0.5953;
204.6000;0.1441;-0.5978;
204.9000;0.1449;-0.5928;
205.2000;0.1449;-0.6003;
205.5000;0.1449;-0.6003;
205.8000;0.1359;-0.6254;
206.1000;0.1449;-0.5953;
206.4000;0.1457;-0.5903;
206.7000;0.1433;-0.5928;
207.0000;0.1433;-0.5928;
207.3000;0.1441;-0.5777;
207.6000;0.1465;-0.5752;
207.9000;0.1441;-0.5777;
208.2000;0.1457;-0.5777;
208.5000;0.1441;-0.5852;
208.8000;0.1457;-0.5928;
209.1000;0.1473;-0.5903;
209.4000;0.1441;-0.5928;
209.7000;0.1441;-0.5903;
210.0000;0.1465;-0.5852;
210.3000;0.1433;-0.5928;
210.6000;0.1481;-0.5903;
210.9000;0.1433;-0.6003;
211.2000;0.1441;-0.6053;
211.5000;0.1465;-0.5978;
211.8000;0.1457;-0.5978;
212.1000;0.1425;-0.6079;
212.4000;0.1441;-0.5978;
212.7000;0.1441;-0.5978;
213.0000;0.1465;-0.5928;
213.3000;0.1506;-0.5928;
213.6000;0.1457;-0.5953;
213.9000;0.1449;-0.5928;
214.2000;0.1441;-0.6003;
214.5000;0.1457;-0.6028;
214.8000;0.1441;-0.6079;
215.1000;0.1457;-0.6028;
215.4000;0.1449;-0.5953;
215.7000;0.1441;-0.6104;
216.0000;0.1416;-0.6204;
216.3000;0.1481;-0.6028;
216.6000;0.1408;-0.6129;
216.9000;0.1433;-0.5978;
217.2000;0.1384;-0.6129;
217.5000;0.1425;-0.6028;
217.8000;0.1449;-0.6003;
218.1000;0.1425;-0.6053;
218.4000;0.1400;-0.6104;
218.7000;0.1425;-0.5978;
219.0000;0.1457;-0.5852;
219.3000;0.1473;-0.5777;
219.6000;0.1392;-0.6003;
219.9000;0.1465;-0.5953;
220.2000;0.1490;-0.5903;
220.5000;0.1441;-0.6129;
220.8000;0.1473;-0.6053;
221.1000;0.1433;-0.6104;
221.4000;0.1465;-0.5953;
221.7000;0.1441;-0.5903;
222.0000;0.1449;-0.5878;
222.3000;0.1457;-0.5827;
222.6000;0.1465;-0.5827;
222.9000;0.1473;-0.5852;
223.2000;0.1481;-0.5878;
223.5000;0.1465;-0.5827;
223.8000;0.1465;-0.5878;
224.1000;0.1457;-0.5903;
224.4000;0.1441;-0.6053;
224.7000;0.1433;-0.6154;
225.0000;0.1441;-0.6079;
225.3000;0.1433;-0.6204;
225.6000;0.1449;-0.6204;
225.9000;0.1400;-0.6229;
226.2000;0.1441;-0.6204;
226.5000;0.1481;-0.6028;
226.8000;0.1441;-0.6179;
227.1000;0.1433;-0.6229;
227.4000;0.1433;-0.6254;
227.7000;0.1441;-0.6179;
228.0000;0.1433;-0.6179;
228.3000;0.1441;-0.6229;
228.6000;0.1449;-0.6129;
228.9000;0.1441;-0.6129;
229.2000;0.1457;-0.6053;
229.5000;0.1425;-0.6179;
229.8000;0.1433;-0.6179;
230.1000;0.1433;-0.6104;
230.4000;0.1425;-0.6053;
230.7000;0.1433;-0.6053;
231.0000;0.1490;-0.5903;
231.3000;0.1449;-0.6003;
231.6000;0.1441;-0.6003;
231.9000;0.1449;-0.5978;
232.2000;0.1441;-0.6104;
232.5000;0.1449;-0.6104;
232.8000;0.1481;-0.6003;
233.1000;0.1481;-0.5978;
233.4000;0.1457;-0.6053;
233.7000;0.1457;-0.5978;
234.0000;0.1457;-0.6028;
234.3000;0.1449;-0.5953;
234.6000;0.1465;-0.5978;
234.9000;0.1457;-0.5827;
235.2000;0.1433;-0.5852;
235.5000;0.1457;-0.5727;
235.8000;0.1457;-0.5777;
236.1000;0.1449;-0.5852;
236.4000;0.1498;-0.5903;
236.7000;0.1457;-0.5978;
237.0000;0.1457;-0.5928;
237.3000;0.1449;-0.5928;
237.6000;0.1457;-0.6003;
237.9000;0.1473;-0.6003;
238.2000;0.1457;-0.6028;
238.5000;0.1465;-0.5978;
238.8000;0.1490;-0.5852;
239.1000;0.1433;-0.5953;
239.4000;0.1449;-0.5878;
239.7000;0.1457;-0.5953;
240.0000;0.1441;-0.6003;
240.3000;0.1425;-0.6079;
240.6000;0.1449;-0.5953;
240.9000;0.1449;-0.5953;
241.2000;0.1433;-0.6028;
241.5000;0.1449;-0.5953;
241.8000;0.1457;-0.5928;
242.1000;0.1457;-0.5903;
242.4000;0.1449;-0.5978;
242.7000;0.1441;-0.6154;
243.0000;0.1449;-0.6129;
243.3000;0.1457;-0.6053;
243.6000;0.1473;-0.6079;
243.9000;0.1449;-0.6003;
244.2000;0.1376;-0.6129;
244.5000;0.1473;-0.5928;
244.8000;0.1441;-0.5928;
245.1000;0.1441;-0.5878;
245.4000;0.1433;-0.5928;
245.7000;0.1449;-0.5827;
246.0000;0.1433;-0.5852;
246.3000;0.1433;-0.5878;
246.6000;0.1392;-0.6028;
246.9000;0.1457;-0.5903;
247.2000;0.1457;-0.5802;
247.5000;0.1481;-0.5802;
247.8000;0.1449;-0.5878;
248.1000;0.1441;-0.5928;
248.4000;0.1433;-0.5903;
248.7000;0.1408;-0.6003;
249.0000;0.1416;-0.6028;
249.3000;0.1481;-0.5953;
249.6000;0.1408;-0.6129;
249.9000;0.1400;-0.6179;
250.2000;0.1416;-0.6079;
250.5000;0.1441;-0.6003;
250.8000;0.1441;-0.6003;
251.1000;0.1441;-0.6028;
251.4000;0.1441;-0.6028;
251.7000;0.1449;-0.5903;
252.0000;0.1441;-0.5903;
252.3000;0.1449;-0.5978;
252.6000;0.1441;-0.6053;
252.9000;0.1441;-0.6028;
253.2000;0.1449;-0.6079;
253.5000;0.1433;-0.6079;
253.8000;0.1457;-0.6053;
254.1000;0.1416;-0.6229;
254.4000;0.1408;-0.6305;
254.7000;0.1457;-0.6129;
255.0000;0.1425;-0.6129;
255.3000;0.1441;-0.6129;
255.6000;0.1465;-0.6003;
255.9000;0.1457;-0.6053;
256.2000;0.1457;-0.5978;
256.5000;0.1433;-0.6003;
256.8000;0.1433;-0.6053;
257.1000;0.1481;-0.5928;
257.4000;0.1449;-0.5903;
257.7000;0.1441;-0.5852;
258.0000;0.1433;-0.5827;
258.3000;0.1457;-0.5827;
258.6000;0.1433;-0.5928;
258.9000;0.1441;-0.5928;
259.2000;0.1441;-0.5928;
259.5000;0.1441;-0.5928;
259.8000;0.1457;-0.5827;
260.1000;0.1392;-0.6104;
260.4000;0.1425;-0.6053;
260.7000;0.1433;-0.6104;
261.0000;0.1498;-0.5953;
261.3000;0.1441;-0.6053;
261.6000;0.1425;-0.6053;
261.9000;0.1449;-0.5978;
262.2000;0.1473;-0.5878;
262.5000;0.1441;-0.5953;
262.8000;0.1449;-0.5903;
263.1000;0.1457;-0.5852;
263.4000;0.1522;-0.5626;
263.7000;0.1425;-0.5878;
264.0000;0.1457;-0.5777;
264.3000;0.1465;-0.5727;
264.6000;0.1457;-0.5903;
264.9000;0.1400;-0.6053;
265.2000;0.1441;-0.6079;
265.5000;0.1376;-0.6305;
265.8000;0.1457;-0.6129;
266.1000;0.1441;-0.6179;
266.4000;0.1449;-0.6179;
266.7000;0.1441;-0.6129;
267.0000;0.1441;-0.6028;
267.3000;0.1457;-0.5953;
267.6000;0.1473;-0.5953;
267.9000;0.1449;-0.6028;
268.2000;0.1449;-0.5978;
268.5000;0.1465;-0.5978;
268.8000;0.1457;-0.6079;
269.1000;0.1449;-0.6028;
269.4000;0.1433;-0.6179;
269.7000;0.1457;-0.6204;
270.0000;0.1441;-0.6254;
270.3000;0.1441;-0.6229;
270.6000;0.1425;-0.6254;
270.9000;0.1457;-0.6179;
271.2000;0.1449;-0.6204;
271.5000;0.1490;-0.6003;
271.8000;0.1425;-0.6179;
272.1000;0.1457;-0.6053;
272.4000;0.1457;-0.5978;
272.7000;0.1449;-0.6003;
273.0000;0.1465;-0.5978;
273.3000;0.1400;-0.6003;
273.6000;0.1433;-0.5928;
273.9000;0.1457;-0.5903;
274.2000;0.1449;-0.5928;
274.5000;0.1449;-0.5928;
274.8000;0.1473;-0.5777;
275.1000;0.1449;-0.5777;
275.4000;0.1441;-0.5777;
275.7000;0.1433;-0.5827;
276.0000;0.1490;-0.5652;
276.3000;0.1449;-0.5752;
276.6000;0.1441;-0.5601;
276.9000;0.1441;-0.5551;
277.2000;0.1433;-0.5526;
277.5000;0.1441;-0.5476;
277.8000;0.1441;-0.5526;
278.1000;0.1425;-0.5551;
278.4000;0.1449;-0.5526;
278.7000;0.1465;-0.5476;
279.0000;0.1441;-0.5626;
279.3000;0.1433;-0.5702;
279.6000;0.1433;-0.5652;
279.9000;0.1457;-0.5576;
280.2000;0.1490;-0.5476;
280.5000;0.1416;-0.5677;
280.8000;0.1449;-0.5626;
281.1000;0.1433;-0.5677;
281.4000;0.1449;-0.5601;
281.7000;0.1449;-0.5626;
282.0000;0.1433;-0.5601;
282.3000;0.1457;-0.5652;
282.6000;0.1449;-0.5601;
282.9000;0.1449;-0.5576;
283.2000;0.1449;-0.5501;
283.5000;0.1457;-0.5375;
283.8000;0.1408;-0.5551;
284.1000;0.1441;-0.5526;
284.4000;0.1416;-0.5601;
284.7000;0.1457;-0.5576;
285.0000;0.1425;-0.5677;
285.3000;0.1457;-0.5752;
285.6000;0.1433;-0.5802;
285.9000;0.1425;-0.5852;
286.2000;0.1490;-0.5677;
286.5000;0.1433;-0.5702;
286.8000;0.1473;-0.5677;
287.1000;0.1449;-0.5752;
287.4000;0.1441;-0.5878;
287.7000;0.1506;-0.5702;
288.0000;0.1457;-0.5777;
288.3000;0.1506;-0.5727;
288.6000;0.1384;-0.5953;
288.9000;0.1433;-0.5677;
289.2000;0.1457;-0.5702;
289.5000;0.1441;-0.5752;
289.8000;0.1457;-0.5752;
290.1000;0.1457;-0.5802;
290.4000;0.1465;-0.5752;
290.7000;0.1473;-0.5752;
291.0000;0.1400;-0.5903;
291.3000;0.1441;-0.5928;
291.6000;0.1359;-0.6129;
291.9000;0.1465;-0.5802;
292.2000;0.1449;-0.5777;
292.5000;0.1465;-0.5727;
292.8000;0.1465;-0.5677;
293.1000;0.1449;-0.5752;
293.4000;0.1441;-0.5702;
293.7000;0.1449;-0.5677;
294.0000;0.1449;-0.5551;
294.3000;0.1441;-0.5652;
294.6000;0.1433;-0.5601;
294.9000;0.1441;-0.5576;
295.2000;0.1457;-0.5526;
295.5000;0.1449;-0.5576;
295.8000;0.1457;-0.5677;
296.1000;0.1425;-0.5852;
296.4000;0.1449;-0.5852;
296.7000;0.1441;-0.5777;
297.0000;0.1441;-0.5777;
297.3000;0.1457;-0.5752;
297.6000;0.1465;-0.5727;
297.9000;0.1457;-0.5702;
298.2000;0.1425;-0.5702;
298.5000;0.1449;-0.5526;
298.8000;0.1457;-0.5501;
299.1000;0.1449;-0.5551;
299.4000;0.1441;-0.5551;
299.7000;0.1449;-0.5601;
300.0000;0.1433;-0.5601;
300.3000;0.1433;-0.5626;
300.6000;0.1449;-0.5551;
300.9000;0.1416;-0.5601;
301.2000;0.1473;-0.5375;
301.5000;0.1449;-0.5476;
301.8000;0.1457;-0.5652;
302.1000;0.1425;-0.5626;
302.4000;0.1433;-0.5652;
302.7000;0.1457;-0.5626;
303.0000;0.1465;-0.5576;
303.3000;0.1465;-0.5652;
303.6000;0.1449;-0.5702;
303.9000;0.1449;-0.5702;
304.2000;0.1449;-0.5677;
304.5000;0.1449;-0.5777;
304.8000;0.1441;-0.5852;
305.1000;0.1433;-0.5827;
305.4000;0.1465;-0.5802;
305.7000;0.1490;-0.5777;
306.0000;0.1449;-0.5953;
306.3000;0.1425;-0.5928;
306.6000;0.1433;-0.5802;
306.9000;0.1449;-0.5727;
307.2000;0.1449;-0.5702;
307.5000;0.1490;-0.5551;
307.8000;0.1465;-0.5677;
308.1000;0.1449;-0.5626;
308.4000;0.1457;-0.5702;
308.7000;0.1457;-0.5626;
309.0000;0.1449;-0.5626;
309.3000;0.1449;-0.5652;
309.6000;0.1457;-0.5727;
309.9000;0.1465;-0.5727;
310.2000;0.1449;-0.5777;
310.5000;0.1457;-0.5752;
310.8000;0.1465;-0.5777;
311.1000;0.1498;-0.5752;
311.4000;0.1425;-0.5802;
311.7000;0.1465;-0.5802;
312.0000;0.1522;-0.5677;
312.3000;0.1465;-0.5752;
312.6000;0.1473;-0.5727;
312.9000;0.1441;-0.5727;
313.2000;0.1457;-0.5652;
313.5000;0.1473;-0.5601;
313.8000;0.1441;-0.5601;
314.1000;0.1473;-0.5551;
314.4000;0.1465;-0.5652;
314.7000;0.1449;-0.5727;
315.0000;0.1465;-0.5702;
315.3000;0.1457;-0.5752;
315.6000;0.1449;-0.5777;
315.9000;0.1449;-0.5903;
316.2000;0.1465;-0.5852;
316.5000;0.1457;-0.5777;
316.8000;0.1465;-0.5752;
317.1000;0.1441;-0.5752;
317.4000;0.1449;-0.5802;
317.7000;0.1449;-0.5777;
318.0000;0.1465;-0.5727;
318.3000;0.1457;-0.5878;
318.6000;0.1457;-0.5777;
318.9000;0.1457;-0.5827;
319.2000;0.1449;-0.5852;
319.5000;0.1465;-0.5802;
319.8000;0.1449;-0.5827;
320.1000;0.1433;-0.5878;
320.4000;0.1490;-0.5852;
320.7000;0.1465;-0.5852;
321.0000;0.1441;-0.5953;
321.3000;0.1433;-0.5928;
321.6000;0.1433;-0.5953;
321.9000;0.1433;-0.5878;
322.2000;0.1457;-0.5777;
322.5000;0.1449;-0.5903;
322.8000;0.1433;-0.5903;
323.1000;0.1449;-0.5752;
323.4000;0.1457;-0.5777;
323.7000;0.1433;-0.5802;
324.0000;0.1465;-0.5702;
324.3000;0.1400;-0.5903;
324.6000;0.1465;-0.5852;
324.9000;0.1441;-0.5953;
325.2000;0.1408;-0.6028;
325.5000;0.1449;-0.5903;
325.8000;0.1457;-0.5903;
326.1000;0.1425;-0.5953;
326.4000;0.1425;-0.5953;
326.7000;0.1433;-0.5928;
327.0000;0.1449;-0.5802;
327.3000;0.1416;-0.5928;
327.6000;0.1433;-0.5777;
327.9000;0.1449;-0.5777;
328.2000;0.1441;-0.5827;
328.5000;0.1473;-0.5727;
328.8000;0.1425;-0.5827;
329.1000;0.1457;-0.5903;
329.4000;0.1465;-0.5852;
329.7000;0.1481;-0.5777;
330.0000;0.1457;-0.5802;
330.3000;0.1473;-0.5802;
330.6000;0.1449;-0.5852;
330.9000;0.1473;-0.5802;
331.2000;0.1473;-0.5827;
331.5000;0.1416;-0.5852;
331.8000;0.1449;-0.5677;
332.1000;0.1457;-0.5727;
332.4000;0.1457;-0.5802;
332.7000;0.1433;-0.5827;
333.0000;0.1449;-0.5727;
333.3000;0.1449;-0.5752;
333.6000;0.1514;-0.5576;
333.9000;0.1425;-0.5878;
334.2000;0.1449;-0.5802;
334.5000;0.1457;-0.5702;
334.8000;0.1473;-0.5677;
335.1000;0.1457;-0.5677;
335.4000;0.1457;-0.5752;
335.7000;0.1441;-0.5777;
336.0000;0.1449;-0.5752;
336.3000;0.1449;-0.5802;
336.6000;0.1433;-0.5802;
336.9000;0.1449;-0.5777;
337.2000;0.1449;-0.5777;
337.5000;0.1457;-0.5827;
337.8000;0.1457;-0.5878;
338.1000;0.1449;-0.5903;
338.4000;0.1384;-0.6003;
338.7000;0.1457;-0.5852;
339.0000;0.1457;-0.5827;
339.3000;0.1457;-0.5752;
339.6000;0.1441;-0.5752;
339.9000;0.1465;-0.5752;
340.2000;0.1457;-0.5727;
340.5000;0.1441;-0.5802;
340.8000;0.1441;-0.5777;
341.1000;0.1400;-0.5827;
341.4000;0.1441;-0.5702;
341.7000;0.1481;-0.5601;
342.0000;0.1449;-0.5702;
342.3000;0.1441;-0.5601;
342.6000;0.1473;-0.5526;
342.9000;0.1441;-0.5677;
343.2000;0.1441;-0.5752;
343.5000;0.1506;-0.5752;
343.8000;0.1449;-0.5928;
344.1000;0.1449;-0.5928;
344.4000;0.1465;-0.5878;
344.7000;0.1490;-0.5827;
345.0000;0.1498;-0.5827;
345.3000;0.1449;-0.5978;
345.6000;0.1441;-0.6028;
345.9000;0.1433;-0.6104;
346.2000;0.1449;-0.6003;
346.5000;0.1449;-0.5953;
346.8000;0.1441;-0.5903;
347.1000;0.1441;-0.5878;
347.4000;0.1441;-0.5878;
347.7000;0.1441;-0.5852;
348.0000;0.1441;-0.5878;
348.3000;0.1457;-0.5852;
348.6000;0.1465;-0.5802;
348.9000;0.1465;-0.5777;
349.2000;0.1498;-0.5702;
349.5000;0.1465;-0.5752;
349.8000;0.1465;-0.5878;
350.1000;0.1481;-0.5677;
350.4000;0.1465;-0.5652;
350.7000;0.1449;-0.5677;
351.0000;0.1506;-0.5476;
351.3000;0.1465;-0.5576;
351.6000;0.1457;-0.5601;
351.9000;0.1433;-0.5626;
352.2000;0.1441;-0.5652;
352.5000;0.1441;-0.5652;
352.8000;0.1449;-0.5601;
353.1000;0.1449;-0.5652;
353.4000;0.1441;-0.5702;
353.7000;0.1457;-0.5626;
354.0000;0.1465;-0.5576;
354.3000;0.1441;-0.5601;
354.6000;0.1441;-0.5777;
354.9000;0.1457;-0.5827;
355.2000;0.1433;-0.5852;
355.5000;0.1457;-0.5802;
355.8000;0.1441;-0.5802;
356.1000;0.1530;-0.5576;
356.4000;0.1408;-0.5827;
356.7000;0.1457;-0.5626;
357.0000;0.1441;-0.5576;
357.3000;0.1425;-0.5652;
357.6000;0.1465;-0.5501;
357.9000;0.1441;-0.5652;
358.2000;0.1449;-0.5702;
358.5000;0.1433;-0.5777;
358.8000;0.1465;-0.5752;
359.1000;0.1473;-0.5702;
359.4000;0.1457;-0.5752;
359.7000;0.1457;-0.5827;
360.0000;0.1441;-0.5827;
360.3000;0.1465;-0.5727;
360.6000;0.1457;-0.5802;
360.9000;0.1441;-0.5852;
361.2000;0.1441;-0.5827;
361.5000;0.1449;-0.5827;
361.8000;0.1425;-0.5878;
362.1000;0.1465;-0.5852;
362.4000;0.1351;-0.6154;
362.7000;0.1457;-0.5827;
363.0000;0.1457;-0.5777;
363.3000;0.1457;-0.5802;
363.6000;0.1433;-0.5802;
363.9000;0.1449;-0.5677;
364.2000;0.1416;-0.5777;
364.5000;0.1400;-0.5802;
364.8000;0.1514;-0.5576;
365.1000;0.1465;-0.5727;
365.4000;0.1465;-0.5727;
365.7000;0.1408;-0.5878;
366.0000;0.1449;-0.5777;
366.3000;0.1433;-0.5777;
366.6000;0.1425;-0.5752;
366.9000;0.1449;-0.5727;
367.2000;0.1408;-0.5802;
367.5000;0.1457;-0.5752;
367.8000;0.1449;-0.5827;
368.1000;0.1441;-0.5852;
368.4000;0.1465;-0.5827;
368.7000;0.1441;-0.5953;
369.0000;0.1449;-0.6028;
369.3000;0.1457;-0.5903;
369.6000;0.1441;-0.5978;
369.9000;0.1433;-0.5903;
370.2000;0.1481;-0.5777;
370.5000;0.1433;-0.5928;
370.8000;0.1457;-0.5827;
371.1000;0.1449;-0.5702;
371.4000;0.1449;-0.5652;
371.7000;0.1441;-0.5652;
372.0000;0.1433;-0.5727;
372.3000;0.1449;-0.5777;
372.6000;0.1441;-0.5727;
372.9000;0.1441;-0.5652;
373.2000;0.1441;-0.5576;
373.5000;0.1449;-0.5576;
373.8000;0.1441;-0.5652;
374.1000;0.1416;-0.5551;
374.4000;0.1522;-0.5250;
374.7000;0.1425;-0.5727;
375.0000;0.1311;-0.6179;
375.3000;0.1441;-0.5802;
375.6000;0.1408;-0.5878;
375.9000;0.1433;-0.5827;
376.2000;0.1441;-0.5878;
376.5000;0.1457;-0.5903;
376.8000;0.1433;-0.5953;
377.1000;0.1441;-0.5878;
377.4000;0.1473;-0.5752;
377.7000;0.1441;-0.5802;
378.0000;0.1433;-0.5727;
378.3000;0.1465;-0.5727;
378.6000;0.1457;-0.5802;
378.9000;0.1465;-0.5852;
379.2000;0.1449;-0.5978;
379.5000;0.1457;-0.5928;
379.8000;0.1498;-0.5777;
380.1000;0.1457;-0.5953;
380.4000;0.1498;-0.5852;
380.7000;0.1408;-0.6079;
381.0000;0.1449;-0.5878;
381.3000;0.1449;-0.5852;
381.6000;0.1400;-0.5953;
381.9000;0.1449;-0.5928;
382.2000;0.1408;-0.6028;
382.5000;0.1441;-0.5928;
382.8000;0.1506;-0.5727;
383.1000;0.1449;-0.5827;
383.4000;0.1441;-0.5953;
383.7000;0.1441;-0.5928;
384.0000;0.1473;-0.5827;
384.3000;0.1465;-0.5903;
384.6000;0.1514;-0.5727;
384.9000;0.1465;-0.5752;
385.2000;0.1441;-0.5752;
385.5000;0.1465;-0.5777;
385.8000;0.1449;-0.5752;
386.1000;0.1465;-0.5777;
386.4000;0.1441;-0.5852;
386.7000;0.1506;-0.5727;
387.0000;0.1481;-0.5601;
387.3000;0.1481;-0.5626;
387.6000;0.1522;-0.5576;
387.9000;0.1465;-0.5626;
388.2000;0.1530;-0.5451;
388.5000;0.1506;-0.5526;
388.8000;0.1441;-0.5702;
389.1000;0.1473;-0.5702;
389.4000;0.1481;-0.5652;
389.7000;0.1457;-0.5727;
390.0000;0.1465;-0.5752;
390.3000;0.1457;-0.5727;
390.6000;0.1547;-0.5350;
390.9000;0.1449;-0.5601;
391.2000;0.1457;-0.5652;
391.5000;0.1441;-0.5752;
391.8000;0.1457;-0.5677;
392.1000;0.1441;-0.5777;
392.4000;0.1433;-0.5827;
392.7000;0.1457;-0.5752;
393.0000;0.1425;-0.5777;
393.3000;0.1465;-0.5702;
393.6000;0.1449;-0.5752;
393.9000;0.1465;-0.5652;
394.2000;0.1441;-0.5727;
394.5000;0.1449;-0.5652;
394.8000;0.1441;-0.5652;
395.1000;0.1433;-0.5677;
395.4000;0.1408;-0.5727;
395.7000;0.1457;-0.5752;
396.0000;0.1457;-0.5727;
396.3000;0.1449;-0.5852;
396.6000;0.1441;-0.5727;
396.9000;0.1433;-0.5652;
397.2000;0.1441;-0.5652;
397.5000;0.1441;-0.5626;
397.8000;0.1425;-0.5626;
398.1000;0.1514;-0.5451;
398.4000;0.1481;-0.5476;
398.7000;0.1481;-0.5476;
399.0000;0.1481;-0.5576;
399.3000;0.1449;-0.5777;
399.6000;0.1498;-0.5652;
399.9000;0.1506;-0.5551;
400.2000;0.1514;-0.5576;
400.5000;0.1465;-0.5677;
400.8000;0.1490;-0.5677;
401.1000;0.1465;-0.5727;
401.4000;0.1441;-0.5752;
401.7000;0.1441;-0.5727;
402.0000;0.1481;-0.5576;
402.3000;0.1457;-0.5702;
402.6000;0.1457;-0.5752;
402.9000;0.1481;-0.5677;
403.2000;0.1498;-0.5601;
403.5000;0.1416;-0.5727;
403.8000;0.1425;-0.5677;
404.1000;0.1425;-0.5702;
404.4000;0.1522;-0.5476;
404.7000;0.1465;-0.5626;
405.0000;0.1441;-0.5702;
405.3000;0.1416;-0.5802;
405.6000;0.1449;-0.5752;
405.9000;0.1457;-0.5752;
406.2000;0.1530;-0.5476;
406.5000;0.1425;-0.5827;
406.8000;0.1449;-0.5752;
407.1000;0.1441;-0.5727;
407.4000;0.1441;-0.5852;
407.7000;0.1506;-0.5677;
408.0000;0.1392;-0.5953;
408.3000;0.1433;-0.5827;
408.6000;0.1441;-0.5802;
408.9000;0.1449;-0.5777;
409.2000;0.1425;-0.5777;
409.5000;0.1449;-0.5777;
409.8000;0.1465;-0.5802;
410.1000;0.1441;-0.5802;
410.4000;0.1449;-0.5802;
410.7000;0.1384;-0.5953;
411.0000;0.1449;-0.5802;
411.3000;0.1433;-0.5928;
411.6000;0.1449;-0.5752;
411.9000;0.1433;-0.5752;
412.2000;0.1441;-0.5702;
412.5000;0.1449;-0.5777;
412.8000;0.1425;-0.5827;
413.1000;0.1433;-0.5852;
413.4000;0.1473;-0.5777;
413.7000;0.1481;-0.5777;
414.0000;0.1457;-0.5953;
414.3000;0.1457;-0.5903;
414.6000;0.1506;-0.5677;
414.9000;0.1449;-0.5752;
415.2000;0.1449;-0.5827;
415.5000;0.1441;-0.5878;
415.8000;0.1506;-0.5601;
416.1000;0.1465;-0.5777;
416.4000;0.1433;-0.5802;
416.7000;0.1465;-0.5777;
417.0000;0.1433;-0.5827;
417.3000;0.1425;-0.5802;
417.6000;0.1441;-0.5752;
417.9000;0.1449;-0.5903;
418.2000;0.1441;-0.5878;
418.5000;0.1441;-0.5777;
418.8000;0.1441;-0.5727;
419.1000;0.1449;-0.5727;
419.4000;0.1416;-0.5827;
419.7000;0.1449;-0.5777;
420.0000;0.1465;-0.5677;
420.3000;0.1498;-0.5576;
420.6000;0.1441;-0.5702;
420.9000;0.1457;-0.5677;
421.2000;0.1465;-0.5752;
421.5000;0.1433;-0.5752;
421.8000;0.1335;-0.6079;
422.1000;0.1490;-0.5852;
422.4000;0.1457;-0.5878;
422.7000;0.1441;-0.5953;
423.0000;0.1449;-0.5827;
423.3000;0.1433;-0.5802;
423.6000;0.1465;-0.5626;
423.9000;0.1481;-0.5601;
424.2000;0.1441;-0.5702;
424.5000;0.1473;-0.5626;
424.8000;0.1441;-0.5626;
425.1000;0.1433;-0.5652;
425.4000;0.1433;-0.5626;
425.7000;0.1449;-0.5576;
426.0000;0.1449;-0.5576;
426.3000;0.1449;-0.5551;
426.6000;0.1449;-0.5476;
426.9000;0.1481;-0.5576;
427.2000;0.1376;-0.5903;
427.5000;0.1449;-0.5626;
427.8000;0.1465;-0.5677;
428.1000;0.1449;-0.5626;
428.4000;0.1449;-0.5652;
428.7000;0.1392;-0.5878;
429.0000;0.1449;-0.5752;
429.3000;0.1457;-0.5727;
429.6000;0.1449;-0.5802;
429.9000;0.1449;-0.5827;
430.2000;0.1498;-0.5727;
430.5000;0.1441;-0.5802;
430.8000;0.1441;-0.5827;
431.1000;0.1441;-0.5903;
431.4000;0.1449;-0.5852;
431.7000;0.1400;-0.5978;
432.0000;0.1441;-0.5852;
432.3000;0.1433;-0.5802;
432.6000;0.1506;-0.5501;
432.9000;0.1433;-0.5576;
433.2000;0.1433;-0.5576;
433.5000;0.1425;-0.5526;
433.8000;0.1449;-0.5476;
434.1000;0.1449;-0.5601;
434.4000;0.1457;-0.5551;
434.7000;0.1449;-0.5626;
435.0000;0.1457;-0.5652;
435.3000;0.1457;-0.5576;
435.6000;0.1441;-0.5702;
435.9000;0.1433;-0.5702;
436.2000;0.1433;-0.5652;
436.5000;0.1441;-0.5551;
436.8000;0.1449;-0.5526;
437.1000;0.1465;-0.5400;
437.4000;0.1433;-0.5501;
437.7000;0.1441;-0.5451;
438.0000;0.1416;-0.5551;
438.3000;0.1433;-0.5652;
438.6000;0.1441;-0.5576;
438.9000;0.1441;-0.5551;
439.2000;0.1473;-0.5526;
439.5000;0.1449;-0.5551;
439.8000;0.1433;-0.5626;
440.1000;0.1392;-0.5802;
440.4000;0.1425;-0.5752;
440.7000;0.1457;-0.5802;
441.0000;0.1457;-0.5827;
441.3000;0.1433;-0.5878;
441.6000;0.1473;-0.5827;
441.9000;0.1441;-0.5852;
442.2000;0.1465;-0.5978;
442.5000;0.1449;-0.6003;
442.8000;0.1465;-0.5953;
443.1000;0.1425;-0.6003;
443.4000;0.1433;-0.5928;
443.7000;0.1441;-0.5878;
444.0000;0.1441;-0.5852;
444.3000;0.1433;-0.5827;
444.6000;0.1408;-0.5978;
444.9000;0.1441;-0.5978;
445.2000;0.1441;-0.5903;
445.5000;0.1465;-0.5903;
445.8000;0.1433;-0.5928;
446.1000;0.1449;-0.5878;
446.4000;0.1416;-0.5852;
446.7000;0.1457;-0.5727;
447.0000;0.1433;-0.5702;
447.3000;0.1441;-0.5551;
447.6000;0.1473;-0.5501;
447.9000;0.1433;-0.5551;
448.2000;0.1449;-0.5526;
448.5000;0.1449;-0.5451;
448.8000;0.1449;-0.5476;
449.1000;0.1465;-0.5501;
449.4000;0.1465;-0.5501;
449.7000;0.1465;-0.5576;
450.0000;0.1449;-0.5677;
450.3000;0.1457;-0.5727;
450.6000;0.1449;-0.5802;
450.9000;0.1473;-0.5802;
451.2000;0.1449;-0.5827;
451.5000;0.1441;-0.5802;
451.8000;0.1449;-0.5727;
452.1000;0.1457;-0.5727;
452.4000;0.1457;-0.5652;
452.7000;0.1449;-0.5652;
453.0000;0.1473;-0.5601;
453.3000;0.1433;-0.5677;
453.6000;0.1490;-0.5576;
453.9000;0.1449;-0.5652;
454.2000;0.1408;-0.5777;
454.5000;0.1441;-0.5702;
454.8000;0.1433;-0.5827;
455.1000;0.1441;-0.5777;
455.4000;0.1457;-0.5752;
455.7000;0.1416;-0.5928;
456.0000;0.1441;-0.5827;
456.3000;0.1441;-0.5827;
456.6000;0.1400;-0.5903;
456.9000;0.1441;-0.5852;
457.2000;0.1449;-0.5802;
457.5000;0.1449;-0.5777;
457.8000;0.1441;-0.5752;
458.1000;0.1449;-0.5702;
458.4000;0.1449;-0.5702;
458.7000;0.1514;-0.5576;
459.0000;0.1465;-0.5677;
459.3000;0.1449;-0.5702;
459.6000;0.1433;-0.5702;
459.9000;0.1457;-0.5727;
460.2000;0.1465;-0.5752;
460.5000;0.1457;-0.5752;
460.8000;0.1473;-0.5752;
461.1000;0.1449;-0.5802;
461.4000;0.1449;-0.5777;
461.7000;0.1457;-0.5827;
462.0000;0.1465;-0.5752;
462.3000;0.1441;-0.5752;
462.6000;0.1441;-0.5677;
462.9000;0.1433;-0.5702;
463.2000;0.1441;-0.5702;
463.5000;0.1457;-0.5702;
463.8000;0.1433;-0.5802;
464.1000;0.1465;-0.5752;
464.4000;0.1425;-0.5802;
464.7000;0.1433;-0.5852;
465.0000;0.1441;-0.5802;
465.3000;0.1433;-0.5827;
465.6000;0.1449;-0.5727;
465.9000;0.1449;-0.5727;
466.2000;0.1416;-0.5777;
466.5000;0.1425;-0.5777;
466.8000;0.1433;-0.5852;
467.1000;0.1441;-0.5752;
467.4000;0.1441;-0.5752;
467.7000;0.1441;-0.5827;
468.0000;0.1425;-0.5752;
468.3000;0.1457;-0.5677;
468.6000;0.1441;-0.5752;
468.9000;0.1433;-0.5802;
469.2000;0.1441;-0.5777;
469.5000;0.1457;-0.5777;
469.8000;0.1465;-0.5777;
470.1000;0.1449;-0.5802;
470.4000;0.1425;-0.5802;
470.7000;0.1449;-0.5752;
471.0000;0.1449;-0.5677;
471.3000;0.1433;-0.5677;
471.6000;0.1441;-0.5652;
471.9000;0.1425;-0.5677;
472.2000;0.1343;-0.5928;
472.5000;0.1514;-0.5476;
472.8000;0.1465;-0.5777;
473.1000;0.1449;-0.5777;
473.4000;0.1457;-0.5752;
473.7000;0.1441;-0.5852;
474.0000;0.1457;-0.5802;
474.3000;0.1481;-0.5727;
474.6000;0.1473;-0.5752;
474.9000;0.1425;-0.5802;
475.2000;0.1351;-0.6028;
475.5000;0.1441;-0.5777;
475.8000;0.1441;-0.5752;
476.1000;0.1457;-0.5777;
476.4000;0.1473;-0.5752;
476.7000;0.1433;-0.5953;
477.0000;0.1425;-0.5978;
477.3000;0.1449;-0.5777;
477.6000;0.1441;-0.5802;
477.9000;0.1416;-0.5953;
478.2000;0.1359;-0.6154;
478.5000;0.1376;-0.6079;
478.8000;0.1457;-0.5802;
479.1000;0.1473;-0.5802;
479.4000;0.1441;-0.5852;
479.7000;0.1449;-0.5677;
480.0000;0.1457;-0.5576;
480.3000;0.1425;-0.5601;
480.6000;0.1400;-0.5677;
480.9000;0.1457;-0.5576;
481.2000;0.1433;-0.5551;
481.5000;0.1416;-0.5626;
481.8000;0.1416;-0.5626;
482.1000;0.1465;-0.5476;
482.4000;0.1425;-0.5551;
482.7000;0.1441;-0.5526;
483.0000;0.1449;-0.5526;
483.3000;0.1449;-0.5501;
483.6000;0.1506;-0.5375;
483.9000;0.1449;-0.5601;
484.2000;0.1457;-0.5601;
484.5000;0.1449;-0.5576;
484.8000;0.1473;-0.5526;
485.1000;0.1425;-0.5652;
485.4000;0.1425;-0.5601;
485.7000;0.1457;-0.5652;
486.0000;0.1514;-0.5551;
486.3000;0.1433;-0.5702;
486.6000;0.1449;-0.5752;
486.9000;0.1449;-0.5802;
487.2000;0.1425;-0.5802;
487.5000;0.1449;-0.5652;
487.8000;0.1425;-0.5677;
488.1000;0.1449;-0.5702;
488.4000;0.1441;-0.5727;
488.7000;0.1457;-0.5677;
489.0000;0.1457;-0.5752;
489.3000;0.1384;-0.5852;
489.6000;0.1441;-0.5727;
489.9000;0.1449;-0.5727;
490.2000;0.1425;-0.5752;
490.5000;0.1473;-0.5576;
490.8000;0.1441;-0.5677;
491.1000;0.1449;-0.5752;
491.4000;0.1359;-0.5978;
491.7000;0.1457;-0.5677;
492.0000;0.1449;-0.5752;
492.3000;0.1416;-0.5852;
492.6000;0.1457;-0.5852;
492.9000;0.1433;-0.6003;
493.2000;0.1555;-0.5777;
493.5000;0.1457;-0.6053;
493.8000;0.1473;-0.6079;
494.1000;0.1449;-0.6104;
494.4000;0.1473;-0.6028;
494.7000;0.1392;-0.6229;
495.0000;0.1473;-0.6104;
495.3000;0.1433;-0.6129;
495.6000;0.1457;-0.5978;
495.9000;0.1465;-0.5928;
496.2000;0.1547;-0.5652;
496.5000;0.1425;-0.5878;
496.8000;0.1457;-0.5727;
497.1000;0.1425;-0.5777;
497.4000;0.1425;-0.5727;
497.7000;0.1465;-0.5526;
498.0000;0.1376;-0.5852;
498.3000;0.1392;-0.5903;
498.6000;0.1441;-0.5802;
498.9000;0.1408;-0.5978;
499.2000;0.1425;-0.5903;
499.5000;0.1433;-0.5878;
499.8000;0.1425;-0.5827;
500.1000;0.1465;-0.5626;
500.4000;0.1473;-0.5626;
500.7000;0.1449;-0.5652;
501.0000;0.1457;-0.5652;
501.3000;0.1457;-0.5752;
501.6000;0.1473;-0.5802;
501.9000;0.1425;-0.5852;
502.2000;0.1449;-0.5827;
502.5000;0.1449;-0.5878;
502.8000;0.1433;-0.5928;
503.1000;0.1433;-0.5878;
503.4000;0.1441;-0.5953;
503.7000;0.1457;-0.5928;
504.0000;0.1449;-0.5928;
504.3000;0.1449;-0.5878;
504.6000;0.1441;-0.5953;
504.9000;0.1465;-0.5903;
505.2000;0.1465;-0.5852;
505.5000;0.1457;-0.5827;
505.8000;0.1441;-0.5878;
506.1000;0.1457;-0.5702;
506.4000;0.1449;-0.5727;
506.7000;0.1449;-0.5777;
507.0000;0.1441;-0.5852;
507.3000;0.1433;-0.5752;
507.6000;0.1449;-0.5727;
507.9000;0.1457;-0.5702;
508.2000;0.1449;-0.5652;
508.5000;0.1408;-0.5777;
508.8000;0.1441;-0.5752;
509.1000;0.1457;-0.5752;
509.4000;0.1433;-0.5802;
509.7000;0.1473;-0.5702;
510.0000;0.1441;-0.5752;
510.3000;0.1457;-0.5677;
510.6000;0.1457;-0.5677;
510.9000;0.1441;-0.5677;
511.2000;0.1465;-0.5626;
511.5000;0.1400;-0.5752;
511.8000;0.1425;-0.5677;
512.1000;0.1441;-0.5727;
512.4000;0.1441;-0.5802;
512.7000;0.1433;-0.5903;
513.0000;0.1449;-0.5878;
513.3000;0.1433;-0.5827;
513.6000;0.1465;-0.5752;
513.9000;0.1506;-0.5652;
514.2000;0.1433;-0.5777;
514.5000;0.1433;-0.5878;
514.8000;0.1408;-0.5928;
515.1000;0.1449;-0.5802;
515.4000;0.1441;-0.5752;
515.7000;0.1498;-0.5777;
516.0000;0.1433;-0.5903;
516.3000;0.1441;-0.5878;
516.6000;0.1441;-0.5953;
516.9000;0.1425;-0.5953;
517.2000;0.1473;-0.5852;
517.5000;0.1416;-0.5953;
517.8000;0.1449;-0.5903;
518.1000;0.1433;-0.5953;
518.4000;0.1449;-0.5953;
518.7000;0.1384;-0.6129;
519.0000;0.1449;-0.6003;
519.3000;0.1457;-0.5928;
519.6000;0.1498;-0.5928;
519.9000;0.1498;-0.5903;
520.2000;0.1481;-0.5903;
520.5000;0.1433;-0.6003;
520.8000;0.1530;-0.5827;
521.1000;0.1506;-0.5978;
521.4000;0.1449;-0.6079;
521.7000;0.1449;-0.6003;
522.0000;0.1392;-0.6129;
522.3000;0.1441;-0.5978;
522.6000;0.1490;-0.5928;
522.9000;0.1449;-0.6003;
523.2000;0.1465;-0.5928;
523.5000;0.1425;-0.5978;
523.8000;0.1449;-0.5878;
524.1000;0.1441;-0.5903;
524.4000;0.1449;-0.5878;
524.7000;0.1376;-0.6053;
525.0000;0.1457;-0.5878;
525.3000;0.1449;-0.5878;
525.6000;0.1441;-0.5802;
525.9000;0.1449;-0.5852;
526.2000;0.1506;-0.5551;
526.5000;0.1473;-0.5652;
526.8000;0.1449;-0.5777;
527.1000;0.1441;-0.5903;
527.4000;0.1425;-0.5903;
527.7000;0.1449;-0.5852;
528.0000;0.1441;-0.5903;
528.3000;0.1449;-0.5878;
528.6000;0.1449;-0.5878;
528.9000;0.1441;-0.6079;
529.2000;0.1433;-0.6053;
529.5000;0.1457;-0.5978;
529.8000;0.1441;-0.6129;
530.1000;0.1433;-0.6229;
530.4000;0.1457;-0.6129;
530.7000;0.1425;-0.6154;
531.0000;0.1473;-0.6028;
531.3000;0.1416;-0.6104;
531.6000;0.1449;-0.5978;
531.9000;0.1457;-0.5928;
532.2000;0.1449;-0.5978;
532.5000;0.1449;-0.6028;
532.8000;0.1457;-0.6053;
533.1000;0.1465;-0.6003;
533.4000;0.1433;-0.6104;
533.7000;0.1530;-0.5802;
534.0000;0.1433;-0.6079;
534.3000;0.1457;-0.6028;
534.6000;0.1441;-0.5978;
534.9000;0.1449;-0.5928;
535.2000;0.1416;-0.6053;
535.5000;0.1441;-0.5777;
535.8000;0.1449;-0.5752;
536.1000;0.1506;-0.5601;
536.4000;0.1481;-0.5727;
536.7000;0.1441;-0.5802;
537.0000;0.1465;-0.5752;
537.3000;0.1425;-0.5852;
537.6000;0.1449;-0.5827;
537.9000;0.1449;-0.5777;
538.2000;0.1481;-0.5702;
538.5000;0.1433;-0.5878;
538.8000;0.1441;-0.5903;
539.1000;0.1449;-0.5777;
539.4000;0.1465;-0.5752;
539.7000;0.1465;-0.5727;
540.0000;0.1465;-0.5702;
540.3000;0.1433;-0.5928;
540.6000;0.1457;-0.5903;
540.9000;0.1449;-0.5928;
541.2000;0.1441;-0.5978;
541.5000;0.1457;-0.5928;
541.8000;0.1441;-0.5878;
542.1000;0.1457;-0.5827;
542.4000;0.1441;-0.5802;
542.7000;0.1457;-0.5752;
543.0000;0.1457;-0.5752;
543.3000;0.1465;-0.5802;
543.6000;0.1457;-0.5827;
543.9000;0.1441;-0.5903;
544.2000;0.1449;-0.5953;
544.5000;0.1465;-0.5928;
544.8000;0.1473;-0.5852;
545.1000;0.1457;-0.5752;
545.4000;0.1392;-0.5928;
545.7000;0.1433;-0.5928;
546.0000;0.1449;-0.5978;
546.3000;0.1441;-0.6003;
546.6000;0.1433;-0.5928;
546.9000;0.1441;-0.5827;
547.2000;0.1441;-0.5827;
547.5000;0.1433;-0.5827;
547.8000;0.1400;-0.5878;
548.1000;0.1433;-0.5752;
548.4000;0.1433;-0.5852;
548.7000;0.1425;-0.5878;
549.0000;0.1449;-0.5777;
549.3000;0.1433;-0.5752;
549.6000;0.1441;-0.5752;
549.9000;0.1465;-0.5752;
550.2000;0.1449;-0.5727;
550.5000;0.1457;-0.5702;
550.8000;0.1441;-0.5802;
551.1000;0.1457;-0.5777;
551.4000;0.1449;-0.5802;
551.7000;0.1490;-0.5852;
552.0000;0.1449;-0.5978;
552.3000;0.1457;-0.5928;
552.6000;0.1449;-0.5953;
552.9000;0.1473;-0.5928;
553.2000;0.1449;-0.5978;
553.5000;0.1465;-0.5953;
553.8000;0.1465;-0.5903;
554.1000;0.1465;-0.5878;
554.4000;0.1441;-0.5903;
554.7000;0.1457;-0.5878;
555.0000;0.1457;-0.5852;
555.3000;0.1408;-0.5953;
555.6000;0.1457;-0.5903;
555.9000;0.1449;-0.5852;
556.2000;0.1506;-0.5601;
556.5000;0.1433;-0.5727;
556.8000;0.1441;-0.5727;
557.1000;0.1400;-0.5878;
557.4000;0.1449;-0.5777;
557.7000;0.1425;-0.5903;
558.0000;0.1441;-0.5928;
558.3000;0.1449;-0.5852;
558.6000;0.1457;-0.5777;
558.9000;0.1449;-0.5727;
559.2000;0.1465;-0.5652;
559.5000;0.1457;-0.5802;
559.8000;0.1481;-0.5852;
560.1000;0.1457;-0.5827;
560.4000;0.1425;-0.6053;
560.7000;0.1441;-0.6028;
561.0000;0.1457;-0.6028;
561.3000;0.1441;-0.6129;
561.6000;0.1433;-0.6079;
561.9000;0.1441;-0.6104;
562.2000;0.1514;-0.5852;
562.5000;0.1416;-0.6028;
562.8000;0.1441;-0.5978;
563.1000;0.1449;-0.5978;
563.4000;0.1441;-0.6028;
563.7000;0.1441;-0.6053;
564.0000;0.1441;-0.6154;
564.3000;0.1449;-0.6079;
564.6000;0.1449;-0.6053;
564.9000;0.1449;-0.6003;
565.2000;0.1449;-0.6003;
565.5000;0.1433;-0.5953;
565.8000;0.1441;-0.5802;
566.1000;0.1449;-0.5727;
566.4000;0.1465;-0.5601;
566.7000;0.1441;-0.5677;
567.0000;0.1457;-0.5677;
567.3000;0.1449;-0.5802;
567.6000;0.1449;-0.5777;
567.9000;0.1449;-0.5878;
568.2000;0.1449;-0.5978;
568.5000;0.1433;-0.5978;
568.8000;0.1498;-0.5878;
569.1000;0.1481;-0.5852;
569.4000;0.1408;-0.6028;
569.7000;0.1457;-0.5852;
570.0000;0.1433;-0.5878;
570.3000;0.1400;-0.6079;
570.6000;0.1473;-0.5827;
570.9000;0.1457;-0.5852;
571.2000;0.1425;-0.5903;
571.5000;0.1449;-0.5878;
571.8000;0.1449;-0.5928;
572.1000;0.1433;-0.5953;
572.4000;0.1425;-0.5903;
572.7000;0.1441;-0.5852;
573.0000;0.1400;-0.5903;
573.3000;0.1433;-0.5827;
573.6000;0.1441;-0.5727;
573.9000;0.1400;-0.5852;
574.2000;0.1441;-0.5727;
574.5000;0.1433;-0.5777;
574.8000;0.1449;-0.5752;
575.1000;0.1465;-0.5576;
575.4000;0.1465;-0.5601;
575.7000;0.1343;-0.5878;
576.0000;0.1441;-0.5652;
576.3000;0.1465;-0.5677;
576.6000;0.1449;-0.5727;
576.9000;0.1457;-0.5727;
577.2000;0.1457;-0.5752;
577.5000;0.1449;-0.5752;
577.8000;0.1514;-0.5652;
578.1000;0.1441;-0.5878;
578.4000;0.1441;-0.5928;
578.7000;0.1449;-0.5928;
579.0000;0.1449;-0.5928;
579.3000;0.1408;-0.5978;
579.6000;0.1441;-0.5827;
579.9000;0.1441;-0.5827;
580.2000;0.1441;-0.5827;
580.5000;0.1449;-0.5727;
580.8000;0.1441;-0.5727;
581.1000;0.1441;-0.5727;
581.4000;0.1425;-0.5677;
581.7000;0.1433;-0.5626;
582.0000;0.1433;-0.5677;
582.3000;0.1465;-0.5677;
582.6000;0.1449;-0.5727;
582.9000;0.1425;-0.5827;
583.2000;0.1457;-0.5852;
583.5000;0.1408;-0.5978;
583.8000;0.1538;-0.5576;
584.1000;0.1441;-0.5903;
584.4000;0.1441;-0.5802;
584.7000;0.1433;-0.5777;
585.0000;0.1433;-0.5727;
585.3000;0.1376;-0.5903;
585.6000;0.1449;-0.5752;
585.9000;0.1449;-0.5777;
586.2000;0.1433;-0.5802;
586.5000;0.1433;-0.5802;
586.8000;0.1457;-0.5752;
587.1000;0.1457;-0.5752;
587.4000;0.1441;-0.6003;
587.7000;0.1449;-0.6104;
588.0000;0.1465;-0.6079;
588.3000;0.1433;-0.6079;
588.6000;0.1441;-0.6028;
588.9000;0.1473;-0.5903;
589.2000;0.1514;-0.5802;
589.5000;0.1433;-0.5928;
589.8000;0.1416;-0.5878;
590.1000;0.1449;-0.5802;
590.4000;0.1481;-0.5827;
590.7000;0.1449;-0.6003;
591.0000;0.1449;-0.5928;
591.3000;0.1506;-0.5752;
591.6000;0.1457;-0.5777;
591.9000;0.1465;-0.5702;
592.2000;0.1530;-0.5551;
592.5000;0.1408;-0.5852;
592.8000;0.1547;-0.5451;
593.1000;0.1457;-0.5652;
593.4000;0.1538;-0.5526;
593.7000;0.1441;-0.5852;
594.0000;0.1490;-0.5802;
594.3000;0.1457;-0.5777;
594.6000;0.1449;-0.5777;
594.9000;0.1425;-0.5928;
595.2000;0.1449;-0.5852;
595.5000;0.1425;-0.5903;
595.8000;0.1498;-0.5727;
596.1000;0.1465;-0.5777;
596.4000;0.1425;-0.5827;
596.7000;0.1392;-0.5903;
597.0000;0.1473;-0.5677;
597.3000;0.1433;-0.5652;
597.6000;0.1400;-0.5827;
597.9000;0.1449;-0.5652;
598.2000;0.1425;-0.5702;
598.5000;0.1457;-0.5626;
598.8000;0.1433;-0.5576;
599.1000;0.1425;-0.5601;
599.4000;0.1433;-0.5576;
599.7000;0.1416;-0.5702;
600.0000;0.1473;-0.5601;
600.3000;0.1449;-0.5677;
600.6000;0.1490;-0.5576;
600.9000;0.1416;-0.5928;
601.2000;0.1408;-0.6079;
601.5000;0.1392;-0.6254;
601.8000;0.1392;-0.6455;
602.1000;0.1384;-0.6732;
602.4000;0.1400;-0.6832;
602.7000;0.1490;-0.6706;
603.0000;0.1376;-0.7184;
603.3000;0.1368;-0.7435;
603.6000;0.1368;-0.7535;
603.9000;0.1351;-0.7636;
604.2000;0.1351;-0.7636;
604.5000;0.1376;-0.7560;
604.8000;0.1343;-0.7686;
605.1000;0.1327;-0.7711;
605.4000;0.1359;-0.7711;
605.7000;0.1343;-0.7862;
606.0000;0.1327;-0.7962;
606.3000;0.1335;-0.7862;
606.6000;0.1327;-0.7962;
606.9000;0.1319;-0.7937;
607.2000;0.1302;-0.7962;
607.5000;0.1327;-0.8013;
607.8000;0.1294;-0.8063;
608.1000;0.1376;-0.7887;
608.4000;0.1335;-0.7937;
608.7000;0.1351;-0.7987;
609.0000;0.1392;-0.7837;
609.3000;0.1343;-0.8013;
609.6000;0.1302;-0.8163;
609.9000;0.1335;-0.8088;
610.2000;0.1311;-0.8188;
610.5000;0.1311;-0.8163;
610.8000;0.1327;-0.8163;
611.1000;0.1351;-0.8163;
611.4000;0.1327;-0.8289;
611.7000;0.1286;-0.8314;
612.0000;0.1335;-0.8264;
612.3000;0.1278;-0.8490;
612.6000;0.1311;-0.8465;
612.9000;0.1278;-0.8490;
613.2000;0.1286;-0.8440;
613.5000;0.1400;-0.8088;
613.8000;0.1270;-0.8440;
614.1000;0.1327;-0.8214;
614.4000;0.1294;-0.8214;
614.7000;0.1311;-0.8214;
615.0000;0.1278;-0.8339;
615.3000;0.1270;-0.8314;
615.6000;0.1343;-0.8188;
615.9000;0.1327;-0.8214;
616.2000;0.1262;-0.8414;
616.5000;0.1262;-0.8414;
616.8000;0.1311;-0.8339;
617.1000;0.1302;-0.8339;
617.4000;0.1270;-0.8389;
617.7000;0.1302;-0.8239;
618.0000;0.1319;-0.8264;
618.3000;0.1294;-0.8239;
618.6000;0.1351;-0.8138;
618.9000;0.1311;-0.8239;
619.2000;0.1302;-0.8289;
619.5000;0.1294;-0.8239;
619.8000;0.1302;-0.8264;
620.1000;0.1311;-0.8264;
620.4000;0.1270;-0.8289;
620.7000;0.1286;-0.8314;
621.0000;0.1302;-0.8289;
621.3000;0.1311;-0.8264;
621.6000;0.1311;-0.8214;
621.9000;0.1311;-0.8239;
622.2000;0.1319;-0.8239;
622.5000;0.1294;-0.8239;
622.8000;0.1286;-0.8239;
623.1000;0.1294;-0.8188;
623.4000;0.1286;-0.8188;
623.7000;0.1351;-0.7987;
624.0000;0.1294;-0.8188;
624.3000;0.1311;-0.8088;
624.6000;0.1319;-0.8163;
624.9000;0.1302;-0.8163;
625.2000;0.1294;-0.8163;
625.5000;0.1294;-0.8188;
625.8000;0.1270;-0.8339;
626.1000;0.1319;-0.8264;
626.4000;0.1286;-0.8389;
626.7000;0.1327;-0.8264;
627.0000;0.1286;-0.8314;
627.3000;0.1302;-0.8264;
627.6000;0.1302;-0.8314;
627.9000;0.1294;-0.8389;
628.2000;0.1254;-0.8389;
628.5000;0.1294;-0.8289;
628.8000;0.1237;-0.8440;
629.1000;0.1327;-0.8138;
629.4000;0.1319;-0.8088;
629.7000;0.1311;-0.8163;
630.0000;0.1294;-0.8214;
630.3000;0.1335;-0.8088;
630.6000;0.1311;-0.8188;
630.9000;0.1294;-0.8239;
631.2000;0.1294;-0.8289;
631.5000;0.1327;-0.8188;
631.8000;0.1311;-0.8264;
632.1000;0.1286;-0.8314;
632.4000;0.1319;-0.8264;
632.7000;0.1319;-0.8314;
633.0000;0.1319;-0.8264;
633.3000;0.1302;-0.8364;
633.6000;0.1343;-0.8188;
633.9000;0.1286;-0.8289;
634.2000;0.1254;-0.8414;
634.5000;0.1229;-0.8339;
634.8000;0.1392;-0.7962;
635.1000;0.1302;-0.8289;
635.4000;0.1319;-0.8239;
635.7000;0.1302;-0.8314;
636.0000;0.1311;-0.8188;
636.3000;0.1294;-0.8239;
636.6000;0.1294;-0.8314;
636.9000;0.1302;-0.8364;
637.2000;0.1311;-0.8389;
637.5000;0.1311;-0.8389;
637.8000;0.1302;-0.8440;
638.1000;0.1302;-0.8465;
638.4000;0.1286;-0.8465;
638.7000;0.1302;-0.8440;
639.0000;0.1294;-0.8414;
639.3000;0.1270;-0.8490;
639.6000;0.1270;-0.8364;
639.9000;0.1302;-0.8289;
640.2000;0.1270;-0.8389;
640.5000;0.1286;-0.8264;
640.8000;0.1262;-0.8339;
641.1000;0.1302;-0.8239;
641.4000;0.1294;-0.8188;
641.7000;0.1270;-0.8314;
642.0000;0.1302;-0.8239;
642.3000;0.1286;-0.8289;
642.6000;0.1408;-0.7962;
642.9000;0.1278;-0.8289;
643.2000;0.1286;-0.8163;
643.5000;0.1294;-0.8239;
643.8000;0.1319;-0.8113;
644.1000;0.1311;-0.8113;
644.4000;0.1302;-0.8188;
644.7000;0.1294;-0.8163;
645.0000;0.1286;-0.8138;
645.3000;0.1302;-0.8038;
645.6000;0.1302;-0.8163;
645.9000;0.1270;-0.8214;
646.2000;0.1302;-0.8188;
646.5000;0.1311;-0.8163;
646.8000;0.1319;-0.8038;
647.1000;0.1302;-0.8138;
647.4000;0.1311;-0.8214;
647.7000;0.1286;-0.8214;
648.0000;0.1294;-0.8163;
648.3000;0.1286;-0.8239;
648.6000;0.1278;-0.8138;
648.9000;0.1278;-0.8138;
649.2000;0.1254;-0.8264;
649.5000;0.1294;-0.8214;
649.8000;0.1311;-0.8214;
650.1000;0.1311;-0.8188;
650.4000;0.1302;-0.8038;
650.7000;0.1278;-0.8063;
651.0000;0.1270;-0.8088;
651.3000;0.1294;-0.7962;
651.6000;0.1278;-0.8013;
651.9000;0.1270;-0.8113;
652.2000;0.1286;-0.8063;
652.5000;0.1262;-0.8138;
652.8000;0.1294;-0.8063;
653.1000;0.1294;-0.8163;
653.4000;0.1245;-0.8289;
653.7000;0.1286;-0.8163;
654.0000;0.1294;-0.8088;
654.3000;0.1335;-0.7987;
654.6000;0.1286;-0.8163;
654.9000;0.1213;-0.8389;
655.2000;0.1278;-0.8163;
655.5000;0.1278;-0.8188;
655.8000;0.1319;-0.8063;
656.1000;0.1278;-0.8214;
656.4000;0.1327;-0.8063;
656.7000;0.1294;-0.8214;
657.0000;0.1286;-0.8339;
657.3000;0.1294;-0.8364;
657.6000;0.1311;-0.8339;
657.9000;0.1294;-0.8414;
658.2000;0.1278;-0.8364;
658.5000;0.1343;-0.8264;
658.8000;0.1286;-0.8414;
659.1000;0.1286;-0.8314;
659.4000;0.1294;-0.8339;
659.7000;0.1311;-0.8314;
660.0000;0.1286;-0.8314;
660.3000;0.1311;-0.8163;
660.6000;0.1311;-0.8088;
660.9000;0.1294;-0.8138;
661.2000;0.1294;-0.8188;
661.5000;0.1319;-0.8214;
661.8000;0.1311;-0.8314;
662.1000;0.1319;-0.8214;
662.4000;0.1302;-0.8364;
662.7000;0.1278;-0.8440;
663.0000;0.1302;-0.8490;
663.3000;0.1302;-0.8465;
663.6000;0.1278;-0.8590;
663.9000;0.1327;-0.8490;
664.2000;0.1294;-0.8590;
664.5000;0.1319;-0.8465;
664.8000;0.1254;-0.8490;
665.1000;0.1327;-0.8389;
665.4000;0.1286;-0.8364;
665.7000;0.1278;-0.8389;
666.0000;0.1294;-0.8414;
666.3000;0.1286;-0.8440;
666.6000;0.1400;-0.8214;
666.9000;0.1286;-0.8540;
667.2000;0.1335;-0.8389;
667.5000;0.1311;-0.8414;
667.8000;0.1302;-0.8389;
668.1000;0.1294;-0.8440;
668.4000;0.1302;-0.8440;
668.7000;0.1294;-0.8364;
669.0000;0.1254;-0.8440;
669.3000;0.1294;-0.8239;
669.6000;0.1351;-0.8088;
669.9000;0.1302;-0.8264;
670.2000;0.1294;-0.8314;
670.5000;0.1270;-0.8389;
670.8000;0.1319;-0.8239;
671.1000;0.1294;-0.8364;
671.4000;0.1302;-0.8314;
671.7000;0.1319;-0.8239;
672.0000;0.1294;-0.8163;
672.3000;0.1270;-0.8264;
672.6000;0.1278;-0.8289;
672.9000;0.1286;-0.8289;
673.2000;0.1286;-0.8289;
673.5000;0.1319;-0.8239;
673.8000;0.1270;-0.8364;
674.1000;0.1286;-0.8389;
674.4000;0.1262;-0.8515;
674.7000;0.1294;-0.8515;
675.0000;0.1278;-0.8440;
675.3000;0.1343;-0.8214;
675.6000;0.1294;-0.8289;
675.9000;0.1262;-0.8339;
676.2000;0.1294;-0.8314;
676.5000;0.1254;-0.8490;
676.8000;0.1294;-0.8289;
677.1000;0.1286;-0.8389;
677.4000;0.1319;-0.8264;
677.7000;0.1278;-0.8314;
678.0000;0.1294;-0.8214;
678.3000;0.1319;-0.8138;
678.6000;0.1278;-0.8289;
678.9000;0.1270;-0.8339;
679.2000;0.1302;-0.8314;
679.5000;0.1294;-0.8239;
679.8000;0.1237;-0.8490;
680.1000;0.1262;-0.8389;
680.4000;0.1302;-0.8339;
680.7000;0.1278;-0.8389;
681.0000;0.1302;-0.8389;
681.3000;0.1286;-0.8465;
681.6000;0.1302;-0.8490;
681.9000;0.1286;-0.8565;
682.2000;0.1286;-0.8414;
682.5000;0.1278;-0.8364;
682.8000;0.1278;-0.8364;
683.1000;0.1278;-0.8389;
683.4000;0.1278;-0.8339;
683.7000;0.1294;-0.8239;
684.0000;0.1302;-0.8239;
684.3000;0.1294;-0.8214;
684.6000;0.1254;-0.8339;
684.9000;0.1311;-0.8289;
685.2000;0.1286;-0.8364;
685.5000;0.1368;-0.8188;
685.8000;0.1311;-0.8440;
686.1000;0.1286;-0.8364;
686.4000;0.1286;-0.8389;
686.7000;0.1319;-0.8414;
687.0000;0.1311;-0.8389;
687.3000;0.1294;-0.8440;
687.6000;0.1278;-0.8490;
687.9000;0.1278;-0.8515;
688.2000;0.1302;-0.8440;
688.5000;0.1319;-0.8339;
688.8000;0.1319;-0.8389;
689.1000;0.1286;-0.8465;
689.4000;0.1311;-0.8339;
689.7000;0.1302;-0.8339;
690.0000;0.1278;-0.8465;
690.3000;0.1311;-0.8289;
690.6000;0.1311;-0.8314;
690.9000;0.1262;-0.8490;
691.2000;0.1319;-0.8440;
691.5000;0.1319;-0.8364;
691.8000;0.1229;-0.8540;
692.1000;0.1262;-0.8389;
692.4000;0.1294;-0.8264;
692.7000;0.1294;-0.8339;
693.0000;0.1286;-0.8389;
693.3000;0.1302;-0.8314;
693.6000;0.1172;-0.8540;
693.9000;0.1294;-0.8214;
694.2000;0.1294;-0.8214;
694.5000;0.1278;-0.8214;
694.8000;0.1302;-0.8163;
695.1000;0.1302;-0.8239;
695.4000;0.1302;-0.8239;
695.7000;0.1294;-0.8314;
696.0000;0.1302;-0.8264;
696.3000;0.1302;-0.8314;
696.6000;0.1302;-0.8339;
696.9000;0.1294;-0.8339;
697.2000;0.1302;-0.8339;
697.5000;0.1311;-0.8339;
697.8000;0.1302;-0.8314;
698.1000;0.1286;-0.8389;
698.4000;0.1286;-0.8414;
698.7000;0.1262;-0.8440;
699.0000;0.1262;-0.8440;
699.3000;0.1270;-0.8389;
699.6000;0.1319;-0.8289;
699.9000;0.1294;-0.8339;
700.2000;0.1286;-0.8364;
700.5000;0.1302;-0.8289;
700.8000;0.1270;-0.8414;
701.1000;0.1188;-0.8691;
701.4000;0.1302;-0.8490;
701.7000;0.1286;-0.8540;
702.0000;0.1311;-0.8465;
702.3000;0.1351;-0.8364;
702.6000;0.1311;-0.8440;
702.9000;0.1286;-0.8414;
703.2000;0.1286;-0.8465;
703.5000;0.1302;-0.8565;
703.8000;0.1286;-0.8615;
704.1000;0.1278;-0.8590;
704.4000;0.1335;-0.8465;
704.7000;0.1302;-0.8515;
705.0000;0.1319;-0.8364;
705.3000;0.1302;-0.8389;
705.6000;0.1294;-0.8440;
705.9000;0.1294;-0.8540;
706.2000;0.1294;-0.8590;
706.5000;0.1294;-0.8590;
706.8000;0.1311;-0.8465;
707.1000;0.1311;-0.8440;
707.4000;0.1286;-0.8389;
707.7000;0.1270;-0.8364;
708.0000;0.1335;-0.8214;
708.3000;0.1294;-0.8364;
708.6000;0.1286;-0.8289;
708.9000;0.1286;-0.8264;
709.2000;0.1302;-0.8264;
709.5000;0.1294;-0.8264;
709.8000;0.1302;-0.8239;
710.1000;0.1286;-0.8339;
710.4000;0.1270;-0.8490;
710.7000;0.1286;-0.8414;
711.0000;0.1327;-0.8214;
711.3000;0.1302;-0.8188;
711.6000;0.1205;-0.8389;
711.9000;0.1278;-0.8163;
712.2000;0.1294;-0.8163;
712.5000;0.1311;-0.8113;
712.8000;0.1311;-0.8163;
713.1000;0.1286;-0.8264;
713.4000;0.1270;-0.8389;
713.7000;0.1286;-0.8314;
714.0000;0.1294;-0.8364;
714.3000;0.1302;-0.8289;
714.6000;0.1302;-0.8264;
714.9000;0.1294;-0.8214;
715.2000;0.1294;-0.8239;
715.5000;0.1294;-0.8289;
715.8000;0.1286;-0.8314;
716.1000;0.1286;-0.8113;
716.4000;0.1278;-0.8188;
716.7000;0.1262;-0.8264;
717.0000;0.1392;-0.7962;
717.3000;0.1286;-0.8188;
717.6000;0.1302;-0.8188;
717.9000;0.1286;-0.8314;
718.2000;0.1327;-0.8188;
718.5000;0.1302;-0.8239;
718.8000;0.1278;-0.8239;
719.1000;0.1311;-0.8188;
719.4000;0.1302;-0.8314;
719.7000;0.1270;-0.8515;
720.0000;0.1311;-0.8465;
720.3000;0.1286;-0.8440;
720.6000;0.1294;-0.8465;
720.9000;0.1286;-0.8540;
721.2000;0.1286;-0.8440;
721.5000;0.1294;-0.8465;
721.8000;0.1286;-0.8440;
722.1000;0.1278;-0.8440;
722.4000;0.1311;-0.8163;
722.7000;0.1286;-0.8138;
723.0000;0.1278;-0.8188;
723.3000;0.1319;-0.8113;
723.6000;0.1286;-0.8188;
723.9000;0.1262;-0.8163;
724.2000;0.1262;-0.8088;
724.5000;0.1311;-0.7962;
724.8000;0.1286;-0.8038;
725.1000;0.1172;-0.8264;
725.4000;0.1302;-0.7937;
725.7000;0.1294;-0.7962;
726.0000;0.1311;-0.7937;
726.3000;0.1286;-0.7937;
726.6000;0.1302;-0.7987;
726.9000;0.1311;-0.7987;
727.2000;0.1278;-0.8013;
727.5000;0.1286;-0.7962;
727.8000;0.1311;-0.7912;
728.1000;0.1302;-0.7887;
728.4000;0.1302;-0.7862;
728.7000;0.1302;-0.7887;
729.0000;0.1278;-0.8063;
729.3000;0.1294;-0.7937;
729.6000;0.1278;-0.7912;
729.9000;0.1294;-0.7912;
730.2000;0.1311;-0.7937;
730.5000;0.1294;-0.7937;
730.8000;0.1311;-0.7837;
731.1000;0.1286;-0.7887;
731.4000;0.1319;-0.7761;
731.7000;0.1311;-0.7736;
732.0000;0.1302;-0.7761;
732.3000;0.1302;-0.7736;
732.6000;0.1286;-0.7736;
732.9000;0.1302;-0.7787;
733.2000;0.1319;-0.7812;
733.5000;0.1294;-0.7887;
733.8000;0.1278;-0.8038;
734.1000;0.1311;-0.8038;
734.4000;0.1294;-0.8113;
734.7000;0.1262;-0.8264;
735.0000;0.1294;-0.8163;
735.3000;0.1319;-0.8088;
735.6000;0.1335;-0.7962;
735.9000;0.1237;-0.8113;
736.2000;0.1286;-0.7987;
736.5000;0.1294;-0.7962;
736.8000;0.1302;-0.7912;
737.1000;0.1302;-0.7987;
737.4000;0.1294;-0.8113;
737.7000;0.1286;-0.8038;
738.0000;0.1302;-0.7962;
738.3000;0.1311;-0.8013;
738.6000;0.1278;-0.8088;
738.9000;0.1294;-0.8063;
739.2000;0.1278;-0.8013;
739.5000;0.1278;-0.8013;
739.8000;0.1302;-0.7912;
740.1000;0.1302;-0.7837;
740.4000;0.1286;-0.7962;
740.7000;0.1311;-0.7987;
741.0000;0.1254;-0.8163;
741.3000;0.1262;-0.8088;
741.6000;0.1302;-0.8038;
741.9000;0.1294;-0.8038;
742.2000;0.1319;-0.8163;
742.5000;0.1294;-0.8264;
742.8000;0.1302;-0.8239;
743.1000;0.1294;-0.8289;
743.4000;0.1311;-0.8314;
743.7000;0.1294;-0.8364;
744.0000;0.1278;-0.8364;
744.3000;0.1343;-0.8188;
744.6000;0.1294;-0.8339;
744.9000;0.1294;-0.8389;
745.2000;0.1286;-0.8389;
745.5000;0.1302;-0.8364;
745.8000;0.1302;-0.8389;
746.1000;0.1302;-0.8364;
746.4000;0.1262;-0.8440;
746.7000;0.1286;-0.8264;
747.0000;0.1319;-0.8239;
747.3000;0.1278;-0.8364;
747.6000;0.1286;-0.8364;
747.9000;0.1311;-0.8264;
748.2000;0.1278;-0.8339;
748.5000;0.1294;-0.8188;
748.8000;0.1294;-0.8264;
749.1000;0.1376;-0.7987;
749.4000;0.1335;-0.8088;
749.7000;0.1286;-0.8188;
750.0000;0.1319;-0.8188;
750.3000;0.1302;-0.8163;
750.6000;0.1286;-0.8163;
750.9000;0.1327;-0.8138;
751.2000;0.1302;-0.8239;
751.5000;0.1319;-0.8239;
751.8000;0.1311;-0.8289;
752.1000;0.1302;-0.8289;
752.4000;0.1302;-0.8264;
752.7000;0.1286;-0.8314;
753.0000;0.1302;-0.8214;
753.3000;0.1302;-0.8188;
753.6000;0.1278;-0.8264;
753.9000;0.1278;-0.8314;
754.2000;0.1278;-0.8289;
754.5000;0.1302;-0.8239;
754.8000;0.1286;-0.8314;
755.1000;0.1335;-0.8188;
755.4000;0.1302;-0.8264;
755.7000;0.1294;-0.8138;
756.0000;0.1311;-0.8113;
756.3000;0.1311;-0.8088;
756.6000;0.1302;-0.8214;
756.9000;0.1311;-0.8163;
757.2000;0.1286;-0.8264;
757.5000;0.1302;-0.8188;
757.8000;0.1327;-0.8138;
758.1000;0.1286;-0.8214;
758.4000;0.1302;-0.8163;
758.7000;0.1237;-0.8389;
759.0000;0.1270;-0.8440;
759.3000;0.1286;-0.8440;
759.6000;0.1311;-0.8289;
759.9000;0.1311;-0.8264;
760.2000;0.1278;-0.8364;
760.5000;0.1311;-0.8339;
760.8000;0.1311;-0.8314;
761.1000;0.1392;-0.8063;
761.4000;0.1319;-0.8163;
761.7000;0.1311;-0.8138;
762.0000;0.1343;-0.7987;
762.3000;0.1311;-0.8063;
762.6000;0.1245;-0.8138;
762.9000;0.1302;-0.7987;
763.2000;0.1278;-0.7987;
763.5000;0.1294;-0.8013;
763.8000;0.1294;-0.8163;
764.1000;0.1221;-0.8364;
764.4000;0.1302;-0.8188;
764.7000;0.1294;-0.8188;
765.0000;0.1286;-0.8214;
765.3000;0.1262;-0.8163;
765.6000;0.1270;-0.8214;
765.9000;0.1254;-0.8314;
766.2000;0.1294;-0.8289;
766.5000;0.1262;-0.8414;
766.8000;0.1311;-0.8188;
767.1000;0.1311;-0.8188;
767.4000;0.1335;-0.8088;
767.7000;0.1302;-0.8188;
768.0000;0.1294;-0.8214;
768.3000;0.1311;-0.8113;
768.6000;0.1311;-0.8214;
768.9000;0.1294;-0.8289;
769.2000;0.1302;-0.8289;
769.5000;0.1319;-0.8264;
769.8000;0.1311;-0.8289;
770.1000;0.1302;-0.8239;
770.4000;0.1302;-0.8163;
770.7000;0.1311;-0.8113;
771.0000;0.1311;-0.8113;
771.3000;0.1245;-0.8289;
771.6000;0.1286;-0.8214;
771.9000;0.1302;-0.8138;
772.2000;0.1294;-0.8163;
772.5000;0.1327;-0.8113;
772.8000;0.1294;-0.8188;
773.1000;0.1270;-0.8264;
773.4000;0.1302;-0.8214;
773.7000;0.1327;-0.8113;
774.0000;0.1294;-0.8113;
774.3000;0.1302;-0.8214;
774.6000;0.1319;-0.8264;
774.9000;0.1302;-0.8314;
775.2000;0.1311;-0.8289;
775.5000;0.1294;-0.8264;
775.8000;0.1302;-0.8214;
776.1000;0.1311;-0.8163;
776.4000;0.1311;-0.8239;
776.7000;0.1294;-0.8214;
777.0000;0.1286;-0.8339;
777.3000;0.1302;-0.8214;
777.6000;0.1302;-0.8163;
777.9000;0.1311;-0.8314;
778.2000;0.1302;-0.8264;
778.5000;0.1302;-0.8214;
778.8000;0.1302;-0.8239;
779.1000;0.1302;-0.8239;
779.4000;0.1294;-0.8364;
779.7000;0.1311;-0.8339;
780.0000;0.1302;-0.8339;
780.3000;0.1278;-0.8465;
780.6000;0.1327;-0.8339;
780.9000;0.1294;-0.8490;
781.2000;0.1311;-0.8440;
781.5000;0.1311;-0.8414;
781.8000;0.1286;-0.8490;
782.1000;0.1294;-0.8515;
782.4000;0.1294;-0.8490;
782.7000;0.1278;-0.8515;
783.0000;0.1335;-0.8339;
783.3000;0.1302;-0.8440;
783.6000;0.1311;-0.8465;
783.9000;0.1294;-0.8490;
784.2000;0.1278;-0.8565;
784.5000;0.1384;-0.8339;
784.8000;0.1294;-0.8691;
785.1000;0.1221;-0.8867;
785.4000;0.1278;-0.8615;
785.7000;0.1262;-0.8641;
786.0000;0.1237;-0.8766;
786.3000;0.1294;-0.8565;
786.6000;0.1302;-0.8565;
786.9000;0.1294;-0.8540;
787.2000;0.1254;-0.8590;
787.5000;0.1286;-0.8515;
787.8000;0.1286;-0.8565;
788.1000;0.1302;-0.8540;
788.4000;0.1311;-0.8490;
788.7000;0.1400;-0.8289;
789.0000;0.1294;-0.8615;
789.3000;0.1319;-0.8465;
789.6000;0.1270;-0.8590;
789.9000;0.1327;-0.8364;
790.2000;0.1262;-0.8440;
790.5000;0.1286;-0.8364;
790.8000;0.1343;-0.8289;
791.1000;0.1294;-0.8414;
791.4000;0.1302;-0.8440;
791.7000;0.1311;-0.8465;
792.0000;0.1270;-0.8615;
792.3000;0.1294;-0.8540;
792.6000;0.1302;-0.8465;
792.9000;0.1302;-0.8440;
793.2000;0.1294;-0.8339;
793.5000;0.1302;-0.8314;
793.8000;0.1302;-0.8364;
794.1000;0.1302;-0.8314;
794.4000;0.1278;-0.8289;
794.7000;0.1286;-0.8314;
795.0000;0.1311;-0.8188;
795.3000;0.1294;-0.8113;
795.6000;0.1294;-0.8063;
795.9000;0.1319;-0.8013;
796.2000;0.1286;-0.8088;
796.5000;0.1286;-0.8013;
796.8000;0.1286;-0.8163;
797.1000;0.1311;-0.8163;
797.4000;0.1286;-0.8264;
797.7000;0.1302;-0.8339;
798.0000;0.1286;-0.8264;
798.3000;0.1311;-0.8163;
798.6000;0.1302;-0.8239;
798.9000;0.1302;-0.8289;
799.2000;0.1311;-0.8364;
799.5000;0.1302;-0.8339;
799.8000;0.1302;-0.8289;
800.1000;0.1286;-0.8389;
800.4000;0.1262;-0.8490;
800.7000;0.1302;-0.8414;
801.0000;0.1221;-0.8590;
801.3000;0.1294;-0.8389;
801.6000;0.1278;-0.8565;
801.9000;0.1286;-0.8565;
802.2000;0.1302;-0.8590;
802.5000;0.1302;-0.8565;
802.8000;0.1229;-0.8741;
803.1000;0.1294;-0.8540;
803.4000;0.1286;-0.8490;
803.7000;0.1286;-0.8289;
804.0000;0.1286;-0.8314;
804.3000;0.1294;-0.8339;
804.6000;0.1311;-0.8339;
804.9000;0.1278;-0.8515;
805.2000;0.1286;-0.8641;
805.5000;0.1311;-0.8565;
805.8000;0.1302;-0.8414;
806.1000;0.1286;-0.8339;
806.4000;0.1343;-0.8264;
806.7000;0.1302;-0.8389;
807.0000;0.1302;-0.8389;
807.3000;0.1343;-0.8289;
807.6000;0.1302;-0.8414;
807.9000;0.1311;-0.8414;
808.2000;0.1335;-0.8389;
808.5000;0.1319;-0.8414;
808.8000;0.1294;-0.8465;
809.1000;0.1319;-0.8289;
809.4000;0.1327;-0.8188;
809.7000;0.1286;-0.8339;
810.0000;0.1294;-0.8289;
810.3000;0.1286;-0.8364;
810.6000;0.1302;-0.8314;
810.9000;0.1286;-0.8339;
811.2000;0.1327;-0.8138;
811.5000;0.1302;-0.8314;
811.8000;0.1286;-0.8188;
812.1000;0.1278;-0.8239;
812.4000;0.1294;-0.8163;
812.7000;0.1302;-0.8038;
813.0000;0.1278;-0.8113;
813.3000;0.1286;-0.8138;
813.6000;0.1286;-0.8088;
813.9000;0.1311;-0.8113;
814.2000;0.1327;-0.8063;
814.5000;0.1302;-0.8138;
814.8000;0.1302;-0.8163;
815.1000;0.1327;-0.8038;
815.4000;0.1294;-0.8113;
815.7000;0.1302;-0.8163;
816.0000;0.1237;-0.8314;
816.3000;0.1294;-0.8214;
816.6000;0.1319;-0.8138;
816.9000;0.1294;-0.8214;
817.2000;0.1311;-0.8214;
817.5000;0.1286;-0.8364;
817.8000;0.1311;-0.8289;
818.1000;0.1343;-0.8138;
818.4000;0.1311;-0.8188;
818.7000;0.1286;-0.8314;
819.0000;0.1302;-0.8214;
819.3000;0.1286;-0.8314;
819.6000;0.1302;-0.8264;
819.9000;0.1278;-0.8339;
820.2000;0.1270;-0.8414;
820.5000;0.1294;-0.8364;
820.8000;0.1294;-0.8314;
821.1000;0.1254;-0.8440;
821.4000;0.1294;-0.8364;
821.7000;0.1286;-0.8364;
822.0000;0.1327;-0.8214;
822.3000;0.1286;-0.8239;
822.6000;0.1245;-0.8339;
822.9000;0.1294;-0.8364;
823.2000;0.1294;-0.8314;
823.5000;0.1278;-0.8389;
823.8000;0.1286;-0.8414;
824.1000;0.1319;-0.8264;
824.4000;0.1270;-0.8440;
824.7000;0.1286;-0.8540;
825.0000;0.1294;-0.8565;
825.3000;0.1278;-0.8565;
825.6000;0.1286;-0.8565;
825.9000;0.1311;-0.8540;
826.2000;0.1302;-0.8540;
826.5000;0.1286;-0.8540;
826.8000;0.1286;-0.8590;
827.1000;0.1302;-0.8565;
827.4000;0.1286;-0.8465;
827.7000;0.1302;-0.8440;
828.0000;0.1294;-0.8389;
828.3000;0.1302;-0.8239;
828.6000;0.1294;-0.8239;
828.9000;0.1286;-0.8239;
829.2000;0.1270;-0.8314;
829.5000;0.1286;-0.8163;
829.8000;0.1286;-0.8289;
830.1000;0.1327;-0.8264;
830.4000;0.1278;-0.8364;
830.7000;0.1294;-0.8214;
831.0000;0.1294;-0.8214;
831.3000;0.1351;-0.8138;
831.6000;0.1302;-0.8264;
831.9000;0.1286;-0.8364;
832.2000;0.1286;-0.8289;
832.5000;0.1278;-0.8339;
832.8000;0.1294;-0.8289;
833.1000;0.1294;-0.8264;
833.4000;0.1245;-0.8289;
833.7000;0.1270;-0.8264;
834.0000;0.1278;-0.8239;
834.3000;0.1335;-0.8163;
834.6000;0.1270;-0.8188;
834.9000;0.1286;-0.8214;
835.2000;0.1359;-0.8013;
835.5000;0.1270;-0.8264;
835.8000;0.1286;-0.8239;
836.1000;0.1278;-0.8163;
836.4000;0.1319;-0.8038;
836.7000;0.1286;-0.8113;
837.0000;0.1302;-0.8088;
837.3000;0.1302;-0.8214;
837.6000;0.1302;-0.8214;
837.9000;0.1302;-0.8214;
838.2000;0.1311;-0.8163;
838.5000;0.1327;-0.8239;
838.8000;0.1294;-0.8289;
839.1000;0.1343;-0.8088;
839.4000;0.1221;-0.8364;
839.7000;0.1302;-0.8314;
840.0000;0.1278;-0.8414;
840.3000;0.1205;-0.8540;
840.6000;0.1294;-0.8339;
840.9000;0.1270;-0.8389;
841.2000;0.1311;-0.8239;
841.5000;0.1213;-0.8389;
841.8000;0.1294;-0.8163;
842.1000;0.1319;-0.8113;
842.4000;0.1319;-0.8113;
842.7000;0.1294;-0.8113;
843.0000;0.1302;-0.8163;
843.3000;0.1302;-0.8214;
843.6000;0.1311;-0.8163;
843.9000;0.1286;-0.8289;
844.2000;0.1262;-0.8465;
844.5000;0.1278;-0.8440;
844.8000;0.1302;-0.8389;
845.1000;0.1343;-0.8264;
845.4000;0.1270;-0.8440;
845.7000;0.1286;-0.8389;
846.0000;0.1384;-0.8063;
846.3000;0.1278;-0.8364;
846.6000;0.1294;-0.8314;
846.9000;0.1311;-0.8264;
847.2000;0.1286;-0.8339;
847.5000;0.1294;-0.8339;
847.8000;0.1294;-0.8264;
848.1000;0.1286;-0.8289;
848.4000;0.1302;-0.8314;
848.7000;0.1302;-0.8289;
849.0000;0.1311;-0.8214;
849.3000;0.1294;-0.8364;
849.6000;0.1351;-0.8113;
849.9000;0.1302;-0.8289;
850.2000;0.1278;-0.8314;
850.5000;0.1294;-0.8339;
850.8000;0.1302;-0.8239;
851.1000;0.1319;-0.8138;
851.4000;0.1302;-0.8113;
851.7000;0.1302;-0.8088;
852.0000;0.1319;-0.8138;
852.3000;0.1327;-0.8239;
852.6000;0.1294;-0.8264;
852.9000;0.1294;-0.8138;
853.2000;0.1229;-0.8339;
853.5000;0.1270;-0.8239;
853.8000;0.1229;-0.8389;
854.1000;0.1270;-0.8339;
854.4000;0.1270;-0.8314;
854.7000;0.1286;-0.8364;
855.0000;0.1286;-0.8364;
855.3000;0.1286;-0.8389;
855.6000;0.1270;-0.8414;
855.9000;0.1327;-0.8314;
856.2000;0.1311;-0.8314;
856.5000;0.1294;-0.8289;
856.8000;0.1311;-0.8264;
857.1000;0.1302;-0.8239;
857.4000;0.1245;-0.8314;
857.7000;0.1229;-0.8414;
858.0000;0.1278;-0.8364;
858.3000;0.1302;-0.8389;
858.6000;0.1294;-0.8339;
858.9000;0.1335;-0.8289;
859.2000;0.1302;-0.8465;
859.5000;0.1311;-0.8414;
859.8000;0.1294;-0.8364;
860.1000;0.1311;-0.8364;
860.4000;0.1302;-0.8389;
860.7000;0.1311;-0.8339;
861.0000;0.1294;-0.8364;
861.3000;0.1262;-0.8465;
861.6000;0.1311;-0.8339;
861.9000;0.1286;-0.8414;
862.2000;0.1278;-0.8414;
862.5000;0.1286;-0.8339;
862.8000;0.1294;-0.8314;
863.1000;0.1294;-0.8239;
863.4000;0.1302;-0.8339;
863.7000;0.1302;-0.8414;
864.0000;0.1302;-0.8389;
864.3000;0.1229;-0.8590;
864.6000;0.1294;-0.8465;
864.9000;0.1302;-0.8389;
865.2000;0.1311;-0.8364;
865.5000;0.1278;-0.8414;
865.8000;0.1286;-0.8339;
866.1000;0.1294;-0.8314;
866.4000;0.1286;-0.8389;
866.7000;0.1294;-0.8364;
867.0000;0.1311;-0.8289;
867.3000;0.1294;-0.8364;
867.6000;0.1278;-0.8389;
867.9000;0.1302;-0.8389;
868.2000;0.1302;-0.8440;
868.5000;0.1294;-0.8440;
868.8000;0.1302;-0.8440;
869.1000;0.1319;-0.8414;
869.4000;0.1327;-0.8188;
869.7000;0.1278;-0.8289;
870.0000;0.1311;-0.8188;
870.3000;0.1319;-0.8188;
870.6000;0.1294;-0.8188;
870.9000;0.1302;-0.8188;
871.2000;0.1311;-0.8188;
871.5000;0.1294;-0.8214;
871.8000;0.1302;-0.8188;
872.1000;0.1294;-0.8239;
872.4000;0.1286;-0.8239;
872.7000;0.1311;-0.8214;
873.0000;0.1319;-0.8264;
873.3000;0.1311;-0.8339;
873.6000;0.1311;-0.8289;
873.9000;0.1237;-0.8389;
874.2000;0.1278;-0.8314;
874.5000;0.1384;-0.8063;
874.8000;0.1294;-0.8289;
875.1000;0.1294;-0.8239;
875.4000;0.1294;-0.8239;
875.7000;0.1286;-0.8214;
876.0000;0.1286;-0.8289;
876.3000;0.1319;-0.8214;
876.6000;0.1278;-0.8389;
876.9000;0.1294;-0.8314;
877.2000;0.1278;-0.8364;
877.5000;0.1245;-0.8414;
877.8000;0.1311;-0.8264;
878.1000;0.1286;-0.8264;
878.4000;0.1286;-0.8239;
878.7000;0.1294;-0.8239;
879.0000;0.1237;-0.8314;
879.3000;0.1343;-0.8063;
879.6000;0.1294;-0.8163;
879.9000;0.1302;-0.8138;
880.2000;0.1302;-0.8188;
880.5000;0.1286;-0.8239;
880.8000;0.1278;-0.8138;
881.1000;0.1286;-0.8163;
881.4000;0.1286;-0.8188;
881.7000;0.1278;-0.8239;
882.0000;0.1294;-0.8339;
882.3000;0.1262;-0.8364;
882.6000;0.1327;-0.8289;
882.9000;0.1302;-0.8214;
883.2000;0.1286;-0.8264;
883.5000;0.1302;-0.8314;
883.8000;0.1294;-0.8364;
884.1000;0.1319;-0.8264;
884.4000;0.1302;-0.8239;
884.7000;0.1311;-0.8038;
885.0000;0.1311;-0.8013;
885.3000;0.1294;-0.8013;
885.6000;0.1311;-0.7887;
885.9000;0.1286;-0.8113;
886.2000;0.1278;-0.8289;
886.5000;0.1302;-0.8289;
886.8000;0.1302;-0.8314;
887.1000;0.1294;-0.8389;
887.4000;0.1286;-0.8314;
887.7000;0.1270;-0.8339;
888.0000;0.1286;-0.8289;
888.3000;0.1294;-0.8289;
888.6000;0.1302;-0.8314;
888.9000;0.1302;-0.8239;
889.2000;0.1302;-0.8188;
889.5000;0.1278;-0.8339;
889.8000;0.1245;-0.8515;
890.1000;0.1294;-0.8339;
890.4000;0.1245;-0.8515;
890.7000;0.1278;-0.8264;
891.0000;0.1286;-0.8314;
891.3000;0.1294;-0.8289;
891.6000;0.1286;-0.8314;
891.9000;0.1286;-0.8239;
892.2000;0.1294;-0.8214;
892.5000;0.1335;-0.8088;
892.8000;0.1286;-0.8188;
893.1000;0.1327;-0.8163;
893.4000;0.1245;-0.8465;
893.7000;0.1311;-0.8214;
894.0000;0.1286;-0.8239;
894.3000;0.1311;-0.8239;
894.6000;0.1302;-0.8188;
894.9000;0.1319;-0.8113;
895.2000;0.1286;-0.8339;
895.5000;0.1311;-0.8389;
895.8000;0.1294;-0.8414;
896.1000;0.1278;-0.8615;
896.4000;0.1286;-0.8615;
896.7000;0.1302;-0.8515;
897.0000;0.1311;-0.8465;
897.3000;0.1335;-0.8339;
897.6000;0.1302;-0.8440;
897.9000;0.1286;-0.8490;
898.2000;0.1335;-0.8389;
898.5000;0.1302;-0.8389;
898.8000;0.1286;-0.8364;
899.1000;0.1343;-0.8214;
899.4000;0.1270;-0.8264;
899.7000;0.1286;-0.8038;
900.0000;0.1319;-0.8013;
900.3000;0.1286;-0.8088;
900.6000;0.1245;-0.8289;
900.9000;0.1278;-0.8188;
901.2000;0.1286;-0.8214;
901.5000;0.1294;-0.8113;
901.8000;0.1294;-0.8063;
902.1000;0.1286;-0.8113;
902.4000;0.1245;-0.8289;
902.7000;0.1302;-0.8214;
903.0000;0.1302;-0.8214;
903.3000;0.1286;-0.8163;
903.6000;0.1294;-0.8113;
903.9000;0.1302;-0.8063;
904.2000;0.1245;-0.8163;
904.5000;0.1286;-0.8063;
904.8000;0.1286;-0.8163;
905.1000;0.1278;-0.8113;
905.4000;0.1270;-0.8163;
905.7000;0.1286;-0.8138;
906.0000;0.1294;-0.8038;
906.3000;0.1278;-0.8038;
906.6000;0.1286;-0.7962;
906.9000;0.1302;-0.8013;
907.2000;0.1302;-0.7962;
907.5000;0.1311;-0.8038;
907.8000;0.1302;-0.8038;
908.1000;0.1311;-0.8038;
908.4000;0.1327;-0.8063;
908.7000;0.1294;-0.8113;
909.0000;0.1294;-0.8138;
909.3000;0.1294;-0.8163;
909.6000;0.1302;-0.8239;
909.9000;0.1319;-0.8214;
910.2000;0.1278;-0.8214;
910.5000;0.1278;-0.8214;
910.8000;0.1270;-0.8163;
911.1000;0.1270;-0.8163;
911.4000;0.1262;-0.8264;
911.7000;0.1278;-0.8339;
912.0000;0.1294;-0.8289;
912.3000;0.1294;-0.8239;
912.6000;0.1286;-0.8264;
912.9000;0.1302;-0.8163;
913.2000;0.1278;-0.8239;
913.5000;0.1294;-0.8239;
913.8000;0.1286;-0.8264;
914.1000;0.1213;-0.8465;
914.4000;0.1286;-0.8339;
914.7000;0.1262;-0.8364;
915.0000;0.1286;-0.8314;
915.3000;0.1278;-0.8339;
915.6000;0.1270;-0.8490;
915.9000;0.1294;-0.8490;
916.2000;0.1278;-0.8565;
916.5000;0.1229;-0.8716;
916.8000;0.1262;-0.8490;
917.1000;0.1294;-0.8364;
917.4000;0.1359;-0.8138;
917.7000;0.1294;-0.8364;
918.0000;0.1302;-0.8389;
918.3000;0.1278;-0.8364;
918.6000;0.1302;-0.8339;
918.9000;0.1302;-0.8364;
919.2000;0.1294;-0.8389;
919.5000;0.1311;-0.8364;
919.8000;0.1294;-0.8389;
920.1000;0.1286;-0.8389;
920.4000;0.1351;-0.8264;
920.7000;0.1286;-0.8565;
921.0000;0.1311;-0.8515;
921.3000;0.1294;-0.8565;
921.6000;0.1294;-0.8590;
921.9000;0.1286;-0.8565;
922.2000;0.1302;-0.8440;
922.5000;0.1294;-0.8364;
922.8000;0.1237;-0.8465;
923.1000;0.1286;-0.8214;
923.4000;0.1286;-0.8188;
923.7000;0.1302;-0.8239;
924.0000;0.1294;-0.8314;
924.3000;0.1294;-0.8389;
924.6000;0.1327;-0.8314;
924.9000;0.1302;-0.8414;
925.2000;0.1302;-0.8314;
925.5000;0.1278;-0.8440;
925.8000;0.1286;-0.8515;
926.1000;0.1302;-0.8490;
926.4000;0.1270;-0.8691;
926.7000;0.1286;-0.8590;
927.0000;0.1294;-0.8565;
927.3000;0.1302;-0.8490;
927.6000;0.1294;-0.8440;
927.9000;0.1294;-0.8414;
928.2000;0.1294;-0.8389;
928.5000;0.1286;-0.8440;
928.8000;0.1311;-0.8414;
929.1000;0.1311;-0.8389;
929.4000;0.1286;-0.8440;
929.7000;0.1302;-0.8414;
930.0000;0.1319;-0.8389;
930.3000;0.1343;-0.8314;
930.6000;0.1302;-0.8389;
930.9000;0.1319;-0.8389;
931.2000;0.1294;-0.8364;
931.5000;0.1302;-0.8239;
931.8000;0.1311;-0.8138;
932.1000;0.1319;-0.8188;
932.4000;0.1286;-0.8264;
932.7000;0.1311;-0.8214;
933.0000;0.1294;-0.8264;
933.3000;0.1376;-0.8188;
933.6000;0.1294;-0.8289;
933.9000;0.1343;-0.8188;
934.2000;0.1262;-0.8314;
934.5000;0.1270;-0.8264;
934.8000;0.1294;-0.8264;
935.1000;0.1278;-0.8314;
935.4000;0.1294;-0.8339;
935.7000;0.1286;-0.8465;
936.0000;0.1254;-0.8565;
936.3000;0.1294;-0.8389;
936.6000;0.1245;-0.8515;
936.9000;0.1262;-0.8414;
937.2000;0.1294;-0.8465;
937.5000;0.1278;-0.8440;
937.8000;0.1311;-0.8389;
938.1000;0.1229;-0.8490;
938.4000;0.1294;-0.8289;
938.7000;0.1286;-0.8289;
939.0000;0.1294;-0.8314;
939.3000;0.1302;-0.8339;
939.6000;0.1278;-0.8414;
939.9000;0.1286;-0.8364;
940.2000;0.1311;-0.8264;
940.5000;0.1311;-0.8339;
940.8000;0.1359;-0.8138;
941.1000;0.1294;-0.8389;
941.4000;0.1311;-0.8314;
941.7000;0.1311;-0.8339;
942.0000;0.1286;-0.8339;
942.3000;0.1311;-0.8314;
942.6000;0.1319;-0.8214;
942.9000;0.1302;-0.8214;
943.2000;0.1319;-0.8188;
943.5000;0.1286;-0.8188;
943.8000;0.1294;-0.8163;
944.1000;0.1286;-0.8239;
944.4000;0.1294;-0.8264;
944.7000;0.1302;-0.8214;
945.0000;0.1302;-0.8188;
945.3000;0.1270;-0.8264;
945.6000;0.1294;-0.8314;
945.9000;0.1408;-0.7987;
946.2000;0.1278;-0.8264;
946.5000;0.1327;-0.8188;
946.8000;0.1319;-0.8138;
947.1000;0.1278;-0.8289;
947.4000;0.1294;-0.8264;
947.7000;0.1262;-0.8339;
948.0000;0.1327;-0.8214;
948.3000;0.1319;-0.8264;
948.6000;0.1294;-0.8364;
948.9000;0.1311;-0.8314;
949.2000;0.1286;-0.8289;
949.5000;0.1278;-0.8339;
949.8000;0.1278;-0.8289;
950.1000;0.1327;-0.8239;
950.4000;0.1311;-0.8264;
950.7000;0.1294;-0.8214;
951.0000;0.1286;-0.8239;
951.3000;0.1319;-0.8138;
951.6000;0.1270;-0.8389;
951.9000;0.1286;-0.8314;
952.2000;0.1229;-0.8490;
952.5000;0.1319;-0.8289;
952.8000;0.1294;-0.8264;
953.1000;0.1327;-0.8214;
953.4000;0.1319;-0.8239;
953.7000;0.1302;-0.8264;
954.0000;0.1311;-0.8214;
954.3000;0.1327;-0.8138;
954.6000;0.1286;-0.8138;
954.9000;0.1302;-0.8138;
955.2000;0.1254;-0.8264;
955.5000;0.1327;-0.8113;
955.8000;0.1302;-0.8289;
956.1000;0.1335;-0.8264;
956.4000;0.1294;-0.8389;
956.7000;0.1294;-0.8364;
957.0000;0.1302;-0.8414;
957.3000;0.1286;-0.8540;
957.6000;0.1278;-0.8490;
957.9000;0.1302;-0.8490;
958.2000;0.1262;-0.8540;
958.5000;0.1311;-0.8440;
958.8000;0.1294;-0.8515;
959.1000;0.1294;-0.8440;
959.4000;0.1302;-0.8465;
959.7000;0.1286;-0.8490;
960.0000;0.1294;-0.8440;
960.3000;0.1286;-0.8465;
960.6000;0.1311;-0.8339;
960.9000;0.1294;-0.8364;
961.2000;0.1294;-0.8364;
961.5000;0.1286;-0.8314;
961.8000;0.1286;-0.8214;
962.1000;0.1270;-0.8264;
962.4000;0.1294;-0.8239;
962.7000;0.1286;-0.8239;
963.0000;0.1294;-0.8314;
963.3000;0.1270;-0.8339;
963.6000;0.1311;-0.8239;
963.9000;0.1302;-0.8214;
964.2000;0.1311;-0.8214;
964.5000;0.1294;-0.8239;
964.8000;0.1302;-0.8364;
965.1000;0.1294;-0.8414;
965.4000;0.1319;-0.8364;
965.7000;0.1278;-0.8414;
966.0000;0.1311;-0.8364;
966.3000;0.1294;-0.8364;
966.6000;0.1302;-0.8264;
966.9000;0.1327;-0.8163;
967.2000;0.1311;-0.8314;
967.5000;0.1286;-0.8314;
967.8000;0.1286;-0.8214;
968.1000;0.1270;-0.8239;
968.4000;0.1294;-0.8163;
968.7000;0.1286;-0.8163;
969.0000;0.1319;-0.8063;
969.3000;0.1302;-0.8013;
969.6000;0.1278;-0.8113;
969.9000;0.1294;-0.8063;
970.2000;0.1294;-0.8138;
970.5000;0.1294;-0.8188;
970.8000;0.1286;-0.8113;
971.1000;0.1368;-0.7912;
971.4000;0.1278;-0.8239;
971.7000;0.1392;-0.7887;
972.0000;0.1433;-0.7912;
972.3000;0.1286;-0.8289;
972.6000;0.1245;-0.8440;
972.9000;0.1302;-0.8214;
973.2000;0.1262;-0.8214;
973.5000;0.1302;-0.8138;
973.8000;0.1302;-0.8188;
974.1000;0.1286;-0.8314;
974.4000;0.1302;-0.8389;
974.7000;0.1294;-0.8364;
975.0000;0.1278;-0.8414;
975.3000;0.1286;-0.8389;
975.6000;0.1294;-0.8364;
975.9000;0.1294;-0.8314;
976.2000;0.1286;-0.8339;
976.5000;0.1311;-0.8314;
976.8000;0.1286;-0.8414;
977.1000;0.1302;-0.8364;
977.4000;0.1294;-0.8414;
977.7000;0.1294;-0.8440;
978.0000;0.1245;-0.8565;
978.3000;0.1278;-0.8465;
978.6000;0.1294;-0.8465;
978.9000;0.1286;-0.8490;
979.2000;0.1278;-0.8465;
979.5000;0.1335;-0.8264;
979.8000;0.1294;-0.8289;
980.1000;0.1294;-0.8239;
980.4000;0.1302;-0.8113;
980.7000;0.1302;-0.8163;
981.0000;0.1286;-0.8188;
981.3000;0.1286;-0.8188;
981.6000;0.1286;-0.8264;
981.9000;0.1294;-0.8239;
982.2000;0.1302;-0.8339;
982.5000;0.1270;-0.8339;
982.8000;0.1286;-0.8264;
983.1000;0.1294;-0.8214;
983.4000;0.1294;-0.8289;
983.7000;0.1294;-0.8264;
984.0000;0.1311;-0.8314;
984.3000;0.1286;-0.8440;
984.6000;0.1319;-0.8364;
984.9000;0.1302;-0.8364;
985.2000;0.1302;-0.8364;
985.5000;0.1319;-0.8314;
985.8000;0.1302;-0.8264;
986.1000;0.1286;-0.8314;
986.4000;0.1188;-0.8515;
986.7000;0.1294;-0.8440;
987.0000;0.1302;-0.8364;
987.3000;0.1286;-0.8314;
987.6000;0.1392;-0.8063;
987.9000;0.1286;-0.8389;
988.2000;0.1302;-0.8389;
988.5000;0.1294;-0.8389;
988.8000;0.1376;-0.8188;
989.1000;0.1311;-0.8414;
989.4000;0.1294;-0.8515;
989.7000;0.1335;-0.8364;
990.0000;0.1294;-0.8364;
990.3000;0.1302;-0.8314;
990.6000;0.1311;-0.8364;
990.9000;0.1302;-0.8414;
991.2000;0.1302;-0.8389;
991.5000;0.1294;-0.8440;
991.8000;0.1286;-0.8414;
992.1000;0.1278;-0.8339;
992.4000;0.1319;-0.8188;
992.7000;0.1319;-0.8188;
993.0000;0.1319;-0.8264;
993.3000;0.1319;-0.8339;
993.6000;0.1302;-0.8289;
993.9000;0.1278;-0.8389;
994.2000;0.1327;-0.8314;
994.5000;0.1302;-0.8414;
994.8000;0.1319;-0.8364;
995.1000;0.1302;-0.8364;
995.4000;0.1286;-0.8389;
995.7000;0.1311;-0.8339;
996.0000;0.1368;-0.8163;
996.3000;0.1262;-0.8389;
996.6000;0.1262;-0.8414;
996.9000;0.1278;-0.8389;
997.2000;0.1205;-0.8565;
997.5000;0.1302;-0.8389;
997.8000;0.1311;-0.8414;
998.1000;0.1286;-0.8465;
998.4000;0.1311;-0.8414;
998.7000;0.1302;-0.8364;
999.0000;0.1311;-0.8364;
999.3000;0.1302;-0.8440;
999.6000;0.1294;-0.8414;
999.9000;0.1327;-0.8339;
1000.2000;0.1311;-0.8414;
1000.5000;0.1294;-0.8490;
1000.8000;0.1311;-0.8490;
1001.1000;0.1311;-0.8414;
1001.4000;0.1311;-0.8490;
1001.7000;0.1302;-0.8515;
1002.0000;0.1278;-0.8540;
1002.3000;0.1294;-0.8389;
1002.6000;0.1294;-0.8414;
1002.9000;0.1302;-0.8364;
1003.2000;0.1302;-0.8414;
1003.5000;0.1294;-0.8389;
1003.8000;0.1294;-0.8465;
1004.1000;0.1286;-0.8414;
1004.4000;0.1294;-0.8440;
1004.7000;0.1294;-0.8440;
1005.0000;0.1302;-0.8389;
1005.3000;0.1302;-0.8414;
1005.6000;0.1311;-0.8314;
1005.9000;0.1294;-0.8389;
1006.2000;0.1294;-0.8414;
1006.5000;0.1335;-0.8389;
1006.8000;0.1294;-0.8515;
1007.1000;0.1311;-0.8565;
1007.4000;0.1335;-0.8590;
1007.7000;0.1302;-0.8590;
1008.0000;0.1319;-0.8565;
1008.3000;0.1294;-0.8565;
1008.6000;0.1319;-0.8490;
1008.9000;0.1319;-0.8440;
1009.2000;0.1302;-0.8414;
1009.5000;0.1237;-0.8565;
1009.8000;0.1302;-0.8364;
1010.1000;0.1319;-0.8314;
1010.4000;0.1311;-0.8314;
1010.7000;0.1302;-0.8339;
1011.0000;0.1294;-0.8440;
1011.3000;0.1302;-0.8540;
1011.6000;0.1254;-0.8615;
1011.9000;0.1286;-0.8590;
1012.2000;0.1294;-0.8590;
1012.5000;0.1311;-0.8515;
1012.8000;0.1302;-0.8389;
1013.1000;0.1286;-0.8339;
1013.4000;0.1327;-0.8264;
1013.7000;0.1311;-0.8239;
1014.0000;0.1302;-0.8113;
1014.3000;0.1302;-0.8138;
1014.6000;0.1302;-0.8113;
1014.9000;0.1343;-0.8013;
1015.2000;0.1294;-0.8138;
1015.5000;0.1286;-0.8138;
1015.8000;0.1278;-0.8113;
1016.1000;0.1286;-0.8088;
1016.4000;0.1311;-0.7887;
1016.7000;0.1294;-0.7987;
1017.0000;0.1376;-0.7962;
1017.3000;0.1270;-0.8264;
1017.6000;0.1294;-0.8214;
1017.9000;0.1311;-0.8314;
1018.2000;0.1294;-0.8440;
1018.5000;0.1311;-0.8414;
1018.8000;0.1286;-0.8465;
1019.1000;0.1359;-0.8314;
1019.4000;0.1302;-0.8414;
1019.7000;0.1294;-0.8364;
1020.0000;0.1278;-0.8339;
1020.3000;0.1343;-0.8113;
1020.6000;0.1286;-0.8364;
1020.9000;0.1294;-0.8314;
1021.2000;0.1302;-0.8364;
1021.5000;0.1311;-0.8314;
1021.8000;0.1302;-0.8239;
1022.1000;0.1286;-0.8289;
1022.4000;0.1294;-0.8214;
1022.7000;0.1294;-0.8163;
1023.0000;0.1302;-0.8113;
1023.3000;0.1270;-0.8214;
1023.6000;0.1302;-0.8163;
1023.9000;0.1294;-0.8063;
1024.2000;0.1327;-0.8038;
1024.5000;0.1294;-0.8239;
1024.8000;0.1311;-0.8214;
1025.1000;0.1319;-0.8264;
1025.4000;0.1262;-0.8490;
1025.7000;0.1302;-0.8314;
1026.0000;0.1286;-0.8414;
1026.3000;0.1335;-0.8339;
1026.6000;0.1311;-0.8414;
1026.9000;0.1302;-0.8389;
1027.2000;0.1294;-0.8314;
1027.5000;0.1294;-0.8239;
1027.8000;0.1302;-0.8264;
1028.1000;0.1294;-0.8188;
1028.4000;0.1294;-0.8138;
1028.7000;0.1311;-0.8163;
1029.0000;0.1294;-0.8163;
1029.3000;0.1278;-0.8214;
1029.6000;0.1294;-0.8239;
1029.9000;0.1294;-0.8239;
1030.2000;0.1294;-0.8239;
1030.5000;0.1278;-0.8188;
1030.8000;0.1302;-0.8314;
1031.1000;0.1286;-0.8364;
1031.4000;0.1286;-0.8314;
1031.7000;0.1286;-0.8239;
1032.0000;0.1392;-0.8013;
1032.3000;0.1302;-0.8264;
1032.6000;0.1294;-0.8239;
1032.9000;0.1311;-0.8088;
1033.2000;0.1311;-0.8013;
1033.5000;0.1286;-0.8138;
1033.8000;0.1311;-0.7962;
1034.1000;0.1302;-0.8088;
1034.4000;0.1311;-0.8214;
1034.7000;0.1302;-0.8138;
1035.0000;0.1294;-0.8264;
1035.3000;0.1278;-0.8289;
1035.6000;0.1270;-0.8364;
1035.9000;0.1302;-0.8264;
1036.2000;0.1262;-0.8364;
1036.5000;0.1286;-0.8364;
1036.8000;0.1294;-0.8414;
1037.1000;0.1368;-0.8314;
1037.4000;0.1270;-0.8565;
1037.7000;0.1294;-0.8490;
1038.0000;0.1311;-0.8465;
1038.3000;0.1311;-0.8465;
1038.6000;0.1278;-0.8440;
1038.9000;0.1351;-0.8264;
1039.2000;0.1327;-0.8389;
1039.5000;0.1302;-0.8440;
1039.8000;0.1294;-0.8314;
1040.1000;0.1294;-0.8188;
1040.4000;0.1311;-0.8239;
1040.7000;0.1311;-0.8113;
1041.0000;0.1294;-0.8163;
1041.3000;0.1302;-0.8138;
1041.6000;0.1302;-0.8314;
1041.9000;0.1294;-0.8264;
1042.2000;0.1302;-0.8188;
1042.5000;0.1254;-0.8239;
1042.8000;0.1302;-0.8113;
1043.1000;0.1262;-0.8163;
1043.4000;0.1286;-0.8138;
1043.7000;0.1270;-0.8063;
1044.0000;0.1262;-0.8289;
1044.3000;0.1327;-0.8188;
1044.6000;0.1392;-0.7887;
1044.9000;0.1294;-0.8113;
1045.2000;0.1302;-0.8138;
1045.5000;0.1302;-0.8113;
1045.8000;0.1302;-0.8038;
1046.1000;0.1278;-0.8138;
1046.4000;0.1294;-0.8163;
1046.7000;0.1311;-0.8264;
1047.0000;0.1302;-0.8289;
1047.3000;0.1270;-0.8239;
1047.6000;0.1302;-0.8188;
1047.9000;0.1286;-0.8163;
1048.2000;0.1302;-0.8113;
1048.5000;0.1311;-0.8063;
1048.8000;0.1302;-0.8138;
1049.1000;0.1294;-0.8163;
1049.4000;0.1262;-0.8314;
1049.7000;0.1311;-0.8113;
1050.0000;0.1294;-0.8063;
1050.3000;0.1294;-0.8088;
1050.6000;0.1311;-0.8138;
1050.9000;0.1302;-0.8264;
1051.2000;0.1294;-0.8214;
1051.5000;0.1294;-0.8239;
1051.8000;0.1311;-0.8163;
1052.1000;0.1294;-0.8113;
1052.4000;0.1392;-0.7937;
1052.7000;0.1294;-0.8214;
1053.0000;0.1294;-0.8214;
1053.3000;0.1270;-0.8314;
1053.6000;0.1278;-0.8264;
1053.9000;0.1302;-0.8264;
1054.2000;0.1302;-0.8239;
1054.5000;0.1286;-0.8289;
1054.8000;0.1294;-0.8314;
1055.1000;0.1294;-0.8339;
1055.4000;0.1286;-0.8389;
1055.7000;0.1311;-0.8440;
1056.0000;0.1302;-0.8264;
1056.3000;0.1286;-0.8188;
1056.6000;0.1302;-0.8163;
1056.9000;0.1311;-0.8113;
1057.2000;0.1319;-0.8088;
1057.5000;0.1294;-0.8188;
1057.8000;0.1294;-0.8264;
1058.1000;0.1302;-0.8264;
1058.4000;0.1302;-0.8239;
1058.7000;0.1327;-0.8138;
1059.0000;0.1286;-0.8138;
1059.3000;0.1335;-0.8038;
1059.6000;0.1311;-0.8113;
1059.9000;0.1311;-0.8088;
1060.2000;0.1294;-0.8063;
1060.5000;0.1335;-0.8013;
1060.8000;0.1311;-0.8088;
1061.1000;0.1311;-0.8138;
1061.4000;0.1302;-0.8088;
1061.7000;0.1286;-0.8063;
1062.0000;0.1351;-0.7937;
1062.3000;0.1359;-0.8013;
1062.6000;0.1286;-0.8314;
1062.9000;0.1294;-0.8264;
1063.2000;0.1311;-0.8239;
1063.5000;0.1294;-0.8264;
1063.8000;0.1416;-0.7987;
1064.1000;0.1311;-0.8264;
1064.4000;0.1302;-0.8264;
1064.7000;0.1302;-0.8163;
1065.0000;0.1245;-0.8264;
1065.3000;0.1351;-0.7987;
1065.6000;0.1294;-0.8188;
1065.9000;0.1302;-0.8188;
1066.2000;0.1302;-0.8214;
1066.5000;0.1335;-0.8088;
1066.8000;0.1278;-0.8289;
1067.1000;0.1294;-0.8264;
1067.4000;0.1319;-0.8163;
1067.7000;0.1327;-0.8138;
1068.0000;0.1294;-0.8364;
1068.3000;0.1311;-0.8339;
1068.6000;0.1302;-0.8414;
1068.9000;0.1302;-0.8389;
1069.2000;0.1302;-0.8389;
1069.5000;0.1327;-0.8339;
1069.8000;0.1319;-0.8339;
1070.1000;0.1311;-0.8364;
1070.4000;0.1311;-0.8264;
1070.7000;0.1262;-0.8389;
1071.0000;0.1221;-0.8440;
1071.3000;0.1254;-0.8364;
1071.6000;0.1294;-0.8188;
1071.9000;0.1311;-0.8113;
1072.2000;0.1278;-0.8214;
1072.5000;0.1302;-0.8264;
1072.8000;0.1400;-0.7962;
1073.1000;0.1302;-0.8188;
1073.4000;0.1376;-0.7937;
1073.7000;0.1400;-0.7887;
1074.0000;0.1343;-0.8038;
1074.3000;0.1302;-0.8163;
1074.6000;0.1311;-0.8163;
1074.9000;0.1294;-0.8163;
1075.2000;0.1278;-0.8163;
1075.5000;0.1286;-0.8239;
1075.8000;0.1286;-0.8239;
1076.1000;0.1302;-0.8239;
1076.4000;0.1302;-0.8214;
1076.7000;0.1302;-0.8113;
1077.0000;0.1343;-0.8013;
1077.3000;0.1286;-0.8163;
1077.6000;0.1302;-0.8188;
1077.9000;0.1294;-0.8163;
1078.2000;0.1294;-0.8188;
1078.5000;0.1205;-0.8414;
1078.8000;0.1294;-0.8188;
1079.1000;0.1294;-0.8188;
1079.4000;0.1327;-0.8188;
1079.7000;0.1286;-0.8364;
1080.0000;0.1351;-0.8264;
1080.3000;0.1376;-0.8188;
1080.6000;0.1311;-0.8289;
1080.9000;0.1302;-0.8239;
1081.2000;0.1335;-0.8163;
1081.5000;0.1343;-0.8188;
1081.8000;0.1311;-0.8264;
1082.1000;0.1302;-0.8264;
1082.4000;0.1311;-0.8188;
1082.7000;0.1294;-0.8289;
1083.0000;0.1294;-0.8339;
1083.3000;0.1302;-0.8289;
1083.6000;0.1294;-0.8389;
1083.9000;0.1311;-0.8239;
1084.2000;0.1294;-0.8289;
1084.5000;0.1294;-0.8188;
1084.8000;0.1311;-0.8113;
1085.1000;0.1359;-0.7987;
1085.4000;0.1311;-0.8188;
1085.7000;0.1311;-0.8163;
1086.0000;0.1302;-0.8188;
1086.3000;0.1286;-0.8239;
1086.6000;0.1286;-0.8214;
1086.9000;0.1286;-0.8239;
1087.2000;0.1319;-0.8138;
1087.5000;0.1278;-0.8188;
1087.8000;0.1302;-0.8188;
1088.1000;0.1254;-0.8239;
1088.4000;0.1286;-0.8113;
1088.7000;0.1351;-0.7987;
1089.0000;0.1302;-0.8013;
1089.3000;0.1311;-0.8063;
1089.6000;0.1270;-0.8188;
1089.9000;0.1302;-0.8113;
1090.2000;0.1286;-0.8214;
1090.5000;0.1262;-0.8264;
1090.8000;0.1294;-0.8188;
1091.1000;0.1343;-0.7937;
1091.4000;0.1311;-0.8063;
1091.7000;0.1294;-0.8188;
1092.0000;0.1270;-0.8088;
1092.3000;0.1319;-0.7937;
1092.6000;0.1286;-0.7937;
1092.9000;0.1286;-0.8013;
1093.2000;0.1302;-0.7987;
1093.5000;0.1294;-0.8113;
1093.8000;0.1311;-0.8088;
1094.1000;0.1335;-0.8063;
1094.4000;0.1302;-0.8214;
1094.7000;0.1294;-0.8239;
1095.0000;0.1302;-0.8214;
1095.3000;0.1302;-0.8138;
1095.6000;0.1270;-0.8163;
1095.9000;0.1294;-0.8113;
1096.2000;0.1302;-0.8138;
1096.5000;0.1335;-0.8239;
1096.8000;0.1294;-0.8264;
1097.1000;0.1302;-0.8163;
1097.4000;0.1286;-0.8163;
1097.7000;0.1294;-0.8138;
1098.0000;0.1294;-0.8138;
1098.3000;0.1278;-0.8188;
1098.6000;0.1286;-0.8088;
1098.9000;0.1278;-0.8113;
1099.2000;0.1302;-0.8188;
1099.5000;0.1302;-0.8314;
1099.8000;0.1311;-0.8188;
1100.1000;0.1294;-0.8163;
1100.4000;0.1294;-0.8088;
1100.7000;0.1311;-0.8113;
1101.0000;0.1286;-0.8214;
1101.3000;0.1278;-0.8264;
1101.6000;0.1319;-0.8264;
1101.9000;0.1294;-0.8239;
1102.2000;0.1286;-0.8188;
1102.5000;0.1205;-0.8364;
1102.8000;0.1302;-0.8188;
1103.1000;0.1294;-0.8239;
1103.4000;0.1302;-0.8289;
1103.7000;0.1302;-0.8289;
1104.0000;0.1327;-0.8289;
1104.3000;0.1327;-0.8339;
1104.6000;0.1311;-0.8339;
1104.9000;0.1319;-0.8339;
1105.2000;0.1270;-0.8389;
1105.5000;0.1270;-0.8389;
1105.8000;0.1311;-0.8289;
1106.1000;0.1270;-0.8440;
1106.4000;0.1311;-0.8389;
1106.7000;0.1294;-0.8389;
1107.0000;0.1270;-0.8440;
1107.3000;0.1311;-0.8264;
1107.6000;0.1302;-0.8339;
1107.9000;0.1311;-0.8289;
1108.2000;0.1327;-0.8239;
1108.5000;0.1319;-0.8214;
1108.8000;0.1294;-0.8214;
1109.1000;0.1294;-0.8088;
1109.4000;0.1270;-0.8188;
1109.7000;0.1302;-0.8289;
1110.0000;0.1311;-0.8314;
1110.3000;0.1286;-0.8314;
1110.6000;0.1319;-0.8188;
1110.9000;0.1278;-0.8264;
1111.2000;0.1294;-0.8339;
1111.5000;0.1278;-0.8364;
1111.8000;0.1302;-0.8314;
1112.1000;0.1311;-0.8440;
1112.4000;0.1294;-0.8364;
1112.7000;0.1278;-0.8214;
1113.0000;0.1335;-0.8038;
1113.3000;0.1229;-0.8264;
1113.6000;0.1245;-0.8214;
1113.9000;0.1286;-0.8163;
1114.2000;0.1286;-0.8138;
1114.5000;0.1319;-0.8088;
1114.8000;0.1302;-0.8163;
1115.1000;0.1311;-0.8163;
1115.4000;0.1294;-0.8289;
1115.7000;0.1302;-0.8339;
1116.0000;0.1302;-0.8364;
1116.3000;0.1311;-0.8314;
1116.6000;0.1294;-0.8289;
1116.9000;0.1319;-0.8264;
1117.2000;0.1302;-0.8314;
1117.5000;0.1286;-0.8339;
1117.8000;0.1286;-0.8239;
1118.1000;0.1294;-0.8214;
1118.4000;0.1294;-0.8264;
1118.7000;0.1294;-0.8339;
1119.0000;0.1278;-0.8414;
1119.3000;0.1311;-0.8289;
1119.6000;0.1302;-0.8264;
1119.9000;0.1286;-0.8289;
1120.2000;0.1278;-0.8239;
1120.5000;0.1286;-0.8188;
1120.8000;0.1302;-0.8289;
1121.1000;0.1302;-0.8364;
1121.4000;0.1327;-0.8289;
1121.7000;0.1294;-0.8339;
1122.0000;0.1294;-0.8289;
1122.3000;0.1270;-0.8414;
1122.6000;0.1294;-0.8264;
1122.9000;0.1286;-0.8239;
1123.2000;0.1286;-0.8214;
1123.5000;0.1294;-0.8264;
1123.8000;0.1205;-0.8465;
1124.1000;0.1286;-0.8364;
1124.4000;0.1302;-0.8264;
1124.7000;0.1311;-0.8214;
1125.0000;0.1294;-0.8163;
1125.3000;0.1278;-0.8163;
1125.6000;0.1237;-0.8389;
1125.9000;0.1286;-0.8364;
1126.2000;0.1278;-0.8264;
1126.5000;0.1286;-0.8289;
1126.8000;0.1294;-0.8239;
1127.1000;0.1335;-0.8088;
1127.4000;0.1286;-0.8314;
1127.7000;0.1286;-0.8188;
1128.0000;0.1311;-0.8088;
1128.3000;0.1294;-0.8113;
1128.6000;0.1311;-0.8163;
1128.9000;0.1351;-0.8063;
1129.2000;0.1302;-0.8214;
1129.5000;0.1392;-0.7937;
1129.8000;0.1302;-0.8188;
1130.1000;0.1254;-0.8364;
1130.4000;0.1302;-0.8314;
1130.7000;0.1368;-0.8188;
1131.0000;0.1294;-0.8389;
1131.3000;0.1311;-0.8314;
1131.6000;0.1286;-0.8414;
1131.9000;0.1343;-0.8188;
1132.2000;0.1319;-0.8163;
1132.5000;0.1302;-0.8289;
1132.8000;0.1294;-0.8264;
1133.1000;0.1278;-0.8264;
1133.4000;0.1286;-0.8163;
1133.7000;0.1270;-0.8188;
1134.0000;0.1302;-0.8013;
1134.3000;0.1294;-0.7987;
1134.6000;0.1319;-0.7987;
1134.9000;0.1302;-0.8063;
1135.2000;0.1286;-0.8113;
1135.5000;0.1294;-0.8163;
1135.8000;0.1302;-0.8138;
1136.1000;0.1311;-0.8063;
1136.4000;0.1302;-0.8138;
1136.7000;0.1286;-0.8264;
1137.0000;0.1286;-0.8339;
1137.3000;0.1319;-0.8314;
1137.6000;0.1270;-0.8389;
1137.9000;0.1302;-0.8214;
1138.2000;0.1449;-0.7862;
1138.5000;0.1254;-0.8339;
1138.8000;0.1302;-0.8188;
1139.1000;0.1294;-0.8239;
1139.4000;0.1294;-0.8214;
1139.7000;0.1311;-0.8214;
1140.0000;0.1319;-0.8214;
1140.3000;0.1286;-0.8264;
1140.6000;0.1311;-0.8214;
1140.9000;0.1319;-0.8264;
1141.2000;0.1294;-0.8239;
1141.5000;0.1311;-0.8188;
1141.8000;0.1245;-0.8239;
1142.1000;0.1294;-0.8138;
1142.4000;0.1294;-0.8138;
1142.7000;0.1311;-0.8163;
1143.0000;0.1302;-0.8113;
1143.3000;0.1368;-0.8038;
1143.6000;0.1319;-0.8188;
1143.9000;0.1294;-0.8239;
1144.2000;0.1270;-0.8289;
1144.5000;0.1270;-0.8289;
1144.8000;0.1311;-0.8214;
1145.1000;0.1294;-0.8314;
1145.4000;0.1286;-0.8289;
1145.7000;0.1294;-0.8289;
1146.0000;0.1302;-0.8188;
1146.3000;0.1311;-0.8163;
1146.6000;0.1294;-0.8214;
1146.9000;0.1221;-0.8339;
1147.2000;0.1294;-0.8088;
1147.5000;0.1302;-0.8113;
1147.8000;0.1270;-0.8163;
1148.1000;0.1302;-0.8088;
1148.4000;0.1302;-0.8138;
1148.7000;0.1294;-0.8188;
1149.0000;0.1286;-0.8163;
1149.3000;0.1294;-0.8138;
1149.6000;0.1302;-0.8163;
1149.9000;0.1294;-0.8188;
1150.2000;0.1319;-0.8239;
1150.5000;0.1311;-0.8339;
1150.8000;0.1286;-0.8289;
1151.1000;0.1294;-0.8289;
1151.4000;0.1302;-0.8264;
1151.7000;0.1302;-0.8314;
1152.0000;0.1278;-0.8414;
1152.3000;0.1294;-0.8364;
1152.6000;0.1302;-0.8339;
1152.9000;0.1286;-0.8364;
1153.2000;0.1278;-0.8490;
1153.5000;0.1302;-0.8414;
1153.8000;0.1294;-0.8440;
1154.1000;0.1254;-0.8490;
1154.4000;0.1294;-0.8440;
1154.7000;0.1319;-0.8389;
1155.0000;0.1311;-0.8389;
1155.3000;0.1319;-0.8339;
1155.6000;0.1302;-0.8339;
1155.9000;0.1311;-0.8239;
1156.2000;0.1311;-0.8289;
1156.5000;0.1311;-0.8088;
1156.8000;0.1335;-0.8013;
1157.1000;0.1286;-0.8138;
1157.4000;0.1237;-0.8264;
1157.7000;0.1376;-0.8013;
1158.0000;0.1311;-0.8163;
1158.3000;0.1294;-0.8088;
1158.6000;0.1327;-0.8013;
1158.9000;0.1319;-0.8088;
1159.2000;0.1213;-0.8314;
1159.5000;0.1294;-0.8264;
1159.8000;0.1302;-0.8289;
1160.1000;0.1294;-0.8289;
1160.4000;0.1286;-0.8239;
1160.7000;0.1327;-0.8138;
1161.0000;0.1229;-0.8440;
1161.3000;0.1319;-0.8264;
1161.6000;0.1302;-0.8339;
1161.9000;0.1302;-0.8440;
1162.2000;0.1229;-0.8540;
1162.5000;0.1294;-0.8289;
1162.8000;0.1319;-0.8138;
1163.1000;0.1294;-0.8163;
1163.4000;0.1294;-0.8113;
1163.7000;0.1311;-0.8013;
1164.0000;0.1302;-0.8063;
1164.3000;0.1319;-0.8113;
1164.6000;0.1319;-0.8088;
1164.9000;0.1302;-0.8214;
1165.2000;0.1286;-0.8289;
1165.5000;0.1400;-0.8013;
1165.8000;0.1319;-0.8214;
1166.1000;0.1302;-0.8264;
1166.4000;0.1319;-0.8289;
1166.7000;0.1302;-0.8314;
1167.0000;0.1302;-0.8364;
1167.3000;0.1270;-0.8440;
1167.6000;0.1294;-0.8314;
1167.9000;0.1286;-0.8289;
1168.2000;0.1294;-0.8264;
1168.5000;0.1286;-0.8264;
1168.8000;0.1278;-0.8264;
1169.1000;0.1270;-0.8364;
1169.4000;0.1319;-0.8188;
1169.7000;0.1311;-0.8188;
1170.0000;0.1302;-0.8214;
1170.3000;0.1254;-0.8239;
1170.6000;0.1311;-0.7987;
1170.9000;0.1294;-0.8088;
1171.2000;0.1278;-0.8214;
1171.5000;0.1286;-0.8239;
1171.8000;0.1302;-0.8188;
1172.1000;0.1286;-0.8314;
1172.4000;0.1294;-0.8314;
1172.7000;0.1294;-0.8264;
1173.0000;0.1294;-0.8188;
1173.3000;0.1286;-0.8264;
1173.6000;0.1245;-0.8289;
1173.9000;0.1286;-0.8188;
1174.2000;0.1270;-0.8214;
1174.5000;0.1319;-0.8264;
1174.8000;0.1302;-0.8239;
1175.1000;0.1278;-0.8339;
1175.4000;0.1302;-0.8339;
1175.7000;0.1311;-0.8289;
1176.0000;0.1294;-0.8239;
1176.3000;0.1311;-0.8289;
1176.6000;0.1311;-0.8264;
1176.9000;0.1302;-0.8264;
1177.2000;0.1327;-0.8264;
1177.5000;0.1302;-0.8339;
1177.8000;0.1311;-0.8289;
1178.1000;0.1311;-0.8239;
1178.4000;0.1278;-0.8314;
1178.7000;0.1294;-0.8314;
1179.0000;0.1335;-0.8138;
1179.3000;0.1335;-0.8163;
1179.6000;0.1262;-0.8214;
1179.9000;0.1311;-0.8013;
1180.2000;0.1286;-0.8188;
1180.5000;0.1311;-0.8264;
1180.8000;0.1311;-0.8289;
1181.1000;0.1359;-0.8163;
1181.4000;0.1311;-0.8239;
1181.7000;0.1311;-0.8289;
1182.0000;0.1359;-0.8138;
1182.3000;0.1319;-0.8163;
1182.6000;0.1286;-0.8188;
1182.9000;0.1311;-0.8138;
1183.2000;0.1278;-0.8239;
1183.5000;0.1343;-0.7937;
1183.8000;0.1286;-0.8113;
1184.1000;0.1262;-0.8163;
1184.4000;0.1294;-0.8063;
1184.7000;0.1319;-0.8013;
1185.0000;0.1302;-0.8138;
1185.3000;0.1302;-0.8138;
1185.6000;0.1302;-0.8214;
1185.9000;0.1294;-0.8239;
1186.2000;0.1237;-0.8465;
1186.5000;0.1262;-0.8239;
1186.8000;0.1302;-0.8013;
1187.1000;0.1286;-0.7987;
1187.4000;0.1262;-0.8113;
1187.7000;0.1270;-0.8214;
1188.0000;0.1254;-0.8314;
1188.3000;0.1302;-0.8163;
1188.6000;0.1294;-0.8264;
1188.9000;0.1302;-0.8264;
1189.2000;0.1319;-0.8264;
1189.5000;0.1343;-0.8264;
1189.8000;0.1286;-0.8465;
1190.1000;0.1302;-0.8440;
1190.4000;0.1319;-0.8339;
1190.7000;0.1319;-0.8414;
1191.0000;0.1302;-0.8440;
1191.3000;0.1302;-0.8465;
1191.6000;0.1311;-0.8490;
1191.9000;0.1327;-0.8339;
1192.2000;0.1311;-0.8364;
1192.5000;0.1294;-0.8364;
1192.8000;0.1278;-0.8364;
1193.1000;0.1286;-0.8239;
1193.4000;0.1278;-0.8264;
1193.7000;0.1270;-0.8264;
1194.0000;0.1278;-0.8264;
1194.3000;0.1311;-0.8264;
1194.6000;0.1311;-0.8163;
1194.9000;0.1286;-0.8163;
1195.2000;0.1286;-0.8239;
1195.5000;0.1302;-0.8138;
1195.8000;0.1302;-0.8113;
1196.1000;0.1343;-0.8088;
1196.4000;0.1229;-0.8389;
1196.7000;0.1294;-0.8264;
1197.0000;0.1254;-0.8364;
1197.3000;0.1327;-0.8239;
1197.6000;0.1311;-0.8339;
1197.9000;0.1254;-0.8414;
1198.2000;0.1302;-0.8314;
1198.5000;0.1286;-0.8339;
1198.8000;0.1294;-0.8389;
1199.1000;0.1302;-0.8364;
1199.4000;0.1351;-0.8239;
1199.7000;0.1319;-0.8465;
1200.0000;0.1294;-0.8440;
1200.3000;0.1294;-0.8389;
1200.6000;0.1302;-0.8264;
1200.9000;0.1368;-0.8013;
1201.2000;0.1302;-0.8214;
1201.5000;0.1311;-0.8214;
1201.8000;0.1416;-0.8038;
1202.1000;0.1302;-0.8389;
1202.4000;0.1205;-0.8741;
1202.7000;0.1302;-0.8465;
1203.0000;0.1278;-0.8540;
1203.3000;0.1262;-0.8515;
1203.6000;0.1294;-0.8440;
1203.9000;0.1286;-0.8414;
1204.2000;0.1262;-0.8440;
1204.5000;0.1302;-0.8289;
1204.8000;0.1294;-0.8364;
1205.1000;0.1327;-0.8339;
1205.4000;0.1343;-0.8264;
1205.7000;0.1359;-0.8188;
1206.0000;0.1335;-0.8314;
1206.3000;0.1311;-0.8414;
1206.6000;0.1302;-0.8389;
1206.9000;0.1319;-0.8339;
1207.2000;0.1286;-0.8339;
1207.5000;0.1286;-0.8364;
1207.8000;0.1262;-0.8364;
1208.1000;0.1278;-0.8314;
1208.4000;0.1302;-0.8264;
1208.7000;0.1368;-0.8113;
1209.0000;0.1294;-0.8264;
1209.3000;0.1262;-0.8339;
1209.6000;0.1302;-0.8188;
1209.9000;0.1286;-0.8264;
1210.2000;0.1286;-0.8339;
1210.5000;0.1311;-0.8214;
1210.8000;0.1311;-0.8214;
1211.1000;0.1302;-0.8214;
1211.4000;0.1294;-0.8239;
1211.7000;0.1302;-0.8214;
1212.0000;0.1311;-0.8264;
1212.3000;0.1294;-0.8314;
1212.6000;0.1286;-0.8339;
1212.9000;0.1302;-0.8264;
1213.2000;0.1311;-0.8314;
1213.5000;0.1237;-0.8389;
1213.8000;0.1302;-0.8214;
1214.1000;0.1319;-0.8239;
1214.4000;0.1278;-0.8414;
1214.7000;0.1302;-0.8440;
1215.0000;0.1302;-0.8490;
1215.3000;0.1302;-0.8414;
1215.6000;0.1270;-0.8389;
1215.9000;0.1294;-0.8289;
1216.2000;0.1294;-0.8264;
1216.5000;0.1294;-0.8163;
1216.8000;0.1359;-0.7987;
1217.1000;0.1270;-0.8214;
1217.4000;0.1302;-0.8138;
1217.7000;0.1262;-0.8163;
1218.0000;0.1270;-0.8163;
1218.3000;0.1319;-0.7987;
1218.6000;0.1286;-0.7987;
1218.9000;0.1294;-0.7937;
1219.2000;0.1262;-0.8038;
1219.5000;0.1302;-0.7987;
1219.8000;0.1294;-0.8063;
1220.1000;0.1351;-0.7912;
1220.4000;0.1294;-0.8088;
1220.7000;0.1286;-0.8188;
1221.0000;0.1262;-0.8214;
1221.3000;0.1335;-0.8138;
1221.6000;0.1294;-0.8239;
1221.9000;0.1302;-0.8264;
1222.2000;0.1262;-0.8314;
1222.5000;0.1311;-0.8113;
1222.8000;0.1302;-0.8038;
1223.1000;0.1400;-0.7812;
1223.4000;0.1286;-0.8163;
1223.7000;0.1302;-0.8088;
1224.0000;0.1294;-0.8113;
1224.3000;0.1302;-0.8163;
1224.6000;0.1311;-0.8163;
1224.9000;0.1319;-0.8013;
1225.2000;0.1319;-0.8038;
1225.5000;0.1294;-0.8138;
1225.8000;0.1319;-0.8163;
1226.1000;0.1319;-0.8163;
1226.4000;0.1311;-0.8113;
1226.7000;0.1302;-0.8163;
1227.0000;0.1254;-0.8314;
1227.3000;0.1302;-0.8239;
1227.6000;0.1294;-0.8314;
1227.9000;0.1327;-0.8163;
1228.2000;0.1319;-0.8188;
1228.5000;0.1262;-0.8364;
1228.8000;0.1302;-0.8364;
1229.1000;0.1311;-0.8364;
1229.4000;0.1270;-0.8389;
1229.7000;0.1294;-0.8239;
1230.0000;0.1294;-0.8214;
1230.3000;0.1302;-0.8239;
1230.6000;0.1302;-0.8239;
1230.9000;0.1294;-0.8264;
1231.2000;0.1294;-0.8314;
1231.5000;0.1302;-0.8314;
1231.8000;0.1294;-0.8264;
1232.1000;0.1302;-0.8163;
1232.4000;0.1286;-0.8188;
1232.7000;0.1294;-0.8188;
1233.0000;0.1294;-0.8214;
1233.3000;0.1311;-0.8113;
1233.6000;0.1278;-0.8239;
1233.9000;0.1311;-0.8188;
1234.2000;0.1294;-0.8214;
1234.5000;0.1302;-0.8289;
1234.8000;0.1319;-0.8239;
1235.1000;0.1294;-0.8239;
1235.4000;0.1311;-0.8188;
1235.7000;0.1319;-0.8264;
1236.0000;0.1302;-0.8264;
1236.3000;0.1343;-0.8214;
1236.6000;0.1319;-0.8339;
1236.9000;0.1311;-0.8364;
1237.2000;0.1294;-0.8389;
1237.5000;0.1359;-0.8239;
1237.8000;0.1302;-0.8414;
1238.1000;0.1302;-0.8465;
1238.4000;0.1237;-0.8465;
1238.7000;0.1302;-0.8289;
1239.0000;0.1335;-0.8339;
1239.3000;0.1311;-0.8314;
1239.6000;0.1278;-0.8264;
1239.9000;0.1311;-0.8113;
1240.2000;0.1327;-0.8188;
1240.5000;0.1319;-0.8163;
1240.8000;0.1302;-0.8289;
1241.1000;0.1278;-0.8264;
1241.4000;0.1302;-0.8163;
1241.7000;0.1311;-0.8038;
1242.0000;0.1302;-0.8113;
1242.3000;0.1294;-0.8314;
1242.6000;0.1311;-0.8389;
1242.9000;0.1270;-0.8414;
1243.2000;0.1286;-0.8440;
1243.5000;0.1286;-0.8440;
1243.8000;0.1327;-0.8214;
1244.1000;0.1278;-0.8289;
1244.4000;0.1311;-0.8214;
1244.7000;0.1302;-0.8264;
1245.0000;0.1302;-0.8264;
1245.3000;0.1311;-0.8264;
1245.6000;0.1294;-0.8314;
1245.9000;0.1311;-0.8314;
1246.2000;0.1237;-0.8414;
1246.5000;0.1302;-0.8214;
1246.8000;0.1294;-0.8214;
1247.1000;0.1286;-0.8239;
1247.4000;0.1343;-0.8113;
1247.7000;0.1302;-0.8188;
1248.0000;0.1294;-0.8138;
1248.3000;0.1262;-0.8188;
1248.6000;0.1286;-0.8113;
1248.9000;0.1359;-0.8038;
1249.2000;0.1327;-0.8264;
1249.5000;0.1319;-0.8214;
1249.8000;0.1302;-0.8163;
1250.1000;0.1302;-0.8188;
1250.4000;0.1416;-0.7937;
1250.7000;0.1286;-0.8289;
1251.0000;0.1311;-0.8264;
1251.3000;0.1278;-0.8339;
1251.6000;0.1311;-0.8364;
1251.9000;0.1294;-0.8364;
1252.2000;0.1286;-0.8339;
1252.5000;0.1294;-0.8264;
1252.8000;0.1278;-0.8264;
1253.1000;0.1302;-0.8239;
1253.4000;0.1294;-0.8264;
1253.7000;0.1278;-0.8239;
1254.0000;0.1343;-0.8038;
1254.3000;0.1319;-0.8239;
1254.6000;0.1205;-0.8414;
1254.9000;0.1302;-0.8138;
1255.2000;0.1294;-0.8239;
1255.5000;0.1294;-0.8289;
1255.8000;0.1302;-0.8163;
1256.1000;0.1311;-0.8088;
1256.4000;0.1294;-0.8013;
1256.7000;0.1302;-0.8013;
1257.0000;0.1302;-0.8038;
1257.3000;0.1294;-0.8138;
1257.6000;0.1286;-0.8138;
1257.9000;0.1294;-0.8214;
1258.2000;0.1465;-0.7812;
1258.5000;0.1302;-0.8239;
1258.8000;0.1286;-0.8289;
1259.1000;0.1294;-0.8214;
1259.4000;0.1359;-0.8038;
1259.7000;0.1302;-0.8188;
1260.0000;0.1311;-0.8113;
1260.3000;0.1311;-0.8113;
1260.6000;0.1311;-0.8138;
1260.9000;0.1294;-0.8289;
1261.2000;0.1294;-0.8339;
1261.5000;0.1294;-0.8214;
1261.8000;0.1286;-0.8264;
1262.1000;0.1311;-0.8063;
1262.4000;0.1245;-0.8314;
1262.7000;0.1294;-0.8264;
1263.0000;0.1294;-0.8364;
1263.3000;0.1270;-0.8490;
1263.6000;0.1302;-0.8490;
1263.9000;0.1294;-0.8540;
1264.2000;0.1294;-0.8389;
1264.5000;0.1286;-0.8414;
1264.8000;0.1286;-0.8414;
1265.1000;0.1294;-0.8389;
1265.4000;0.1311;-0.8389;
1265.7000;0.1311;-0.8314;
1266.0000;0.1294;-0.8239;
1266.3000;0.1286;-0.8214;
1266.6000;0.1302;-0.8113;
1266.9000;0.1311;-0.8063;
1267.2000;0.1311;-0.8138;
1267.5000;0.1294;-0.8163;
1267.8000;0.1286;-0.8239;
1268.1000;0.1302;-0.8289;
1268.4000;0.1294;-0.8264;
1268.7000;0.1286;-0.8314;
1269.0000;0.1319;-0.8214;
1269.3000;0.1294;-0.8289;
1269.6000;0.1311;-0.8339;
1269.9000;0.1302;-0.8314;
1270.2000;0.1294;-0.8389;
1270.5000;0.1262;-0.8414;
1270.8000;0.1311;-0.8264;
1271.1000;0.1311;-0.8264;
1271.4000;0.1294;-0.8264;
1271.7000;0.1319;-0.8163;
1272.0000;0.1302;-0.8188;
1272.3000;0.1302;-0.8138;
1272.6000;0.1302;-0.8163;
1272.9000;0.1294;-0.8239;
1273.2000;0.1278;-0.8364;
1273.5000;0.1278;-0.8264;
1273.8000;0.1302;-0.8188;
1274.1000;0.1286;-0.8264;
1274.4000;0.1335;-0.8188;
1274.7000;0.1302;-0.8339;
1275.0000;0.1294;-0.8389;
1275.3000;0.1254;-0.8414;
1275.6000;0.1237;-0.8314;
1275.9000;0.1311;-0.8239;
1276.2000;0.1294;-0.8339;
1276.5000;0.1294;-0.8289;
1276.8000;0.1278;-0.8389;
1277.1000;0.1294;-0.8440;
1277.4000;0.1351;-0.8214;
1277.7000;0.1368;-0.8088;
1278.0000;0.1302;-0.8314;
1278.3000;0.1343;-0.8163;
1278.6000;0.1245;-0.8364;
1278.9000;0.1286;-0.8314;
1279.2000;0.1327;-0.8289;
1279.5000;0.1311;-0.8264;
1279.8000;0.1311;-0.8289;
1280.1000;0.1311;-0.8339;
1280.4000;0.1319;-0.8289;
1280.7000;0.1311;-0.8314;
1281.0000;0.1294;-0.8264;
1281.3000;0.1311;-0.8264;
1281.6000;0.1319;-0.8289;
1281.9000;0.1286;-0.8314;
1282.2000;0.1294;-0.8314;
1282.5000;0.1286;-0.8389;
1282.8000;0.1286;-0.8414;
1283.1000;0.1286;-0.8465;
1283.4000;0.1302;-0.8490;
1283.7000;0.1294;-0.8565;
1284.0000;0.1302;-0.8540;
1284.3000;0.1254;-0.8515;
1284.6000;0.1286;-0.8490;
1284.9000;0.1302;-0.8440;
1285.2000;0.1294;-0.8465;
1285.5000;0.1286;-0.8364;
1285.8000;0.1319;-0.8440;
1286.1000;0.1302;-0.8440;
1286.4000;0.1302;-0.8389;
1286.7000;0.1311;-0.8364;
1287.0000;0.1311;-0.8414;
1287.3000;0.1278;-0.8465;
1287.6000;0.1294;-0.8389;
1287.9000;0.1327;-0.8239;
1288.2000;0.1286;-0.8214;
1288.5000;0.1286;-0.8264;
1288.8000;0.1319;-0.8239;
1289.1000;0.1319;-0.8289;
1289.4000;0.1294;-0.8364;
1289.7000;0.1311;-0.8364;
1290.0000;0.1302;-0.8389;
1290.3000;0.1302;-0.8364;
1290.6000;0.1302;-0.8414;
1290.9000;0.1302;-0.8440;
1291.2000;0.1343;-0.8339;
1291.5000;0.1327;-0.8440;
1291.8000;0.1311;-0.8540;
1292.1000;0.1302;-0.8515;
1292.4000;0.1311;-0.8540;
1292.7000;0.1302;-0.8540;
1293.0000;0.1335;-0.8364;
1293.3000;0.1311;-0.8389;
1293.6000;0.1311;-0.8389;
1293.9000;0.1384;-0.8214;
1294.2000;0.1286;-0.8364;
1294.5000;0.1302;-0.8364;
1294.8000;0.1335;-0.8339;
1295.1000;0.1254;-0.8465;
1295.4000;0.1311;-0.8214;
1295.7000;0.1311;-0.8214;
1296.0000;0.1319;-0.8163;
1296.3000;0.1278;-0.8239;
1296.6000;0.1327;-0.8214;
1296.9000;0.1262;-0.8364;
1297.2000;0.1294;-0.8289;
1297.5000;0.1262;-0.8490;
1297.8000;0.1343;-0.8389;
1298.1000;0.1302;-0.8515;
1298.4000;0.1327;-0.8465;
1298.7000;0.1359;-0.8414;
1299.0000;0.1294;-0.8565;
1299.3000;0.1294;-0.8565;
1299.6000;0.1254;-0.8565;
1299.9000;0.1294;-0.8289;
1300.2000;0.1270;-0.8289;
1300.5000;0.1262;-0.8339;
1300.8000;0.1294;-0.8264;
1301.1000;0.1262;-0.8389;
1301.4000;0.1286;-0.8214;
1301.7000;0.1286;-0.8289;
1302.0000;0.1302;-0.8440;
1302.3000;0.1286;-0.8565;
1302.6000;0.1286;-0.8565;
1302.9000;0.1294;-0.8590;
1303.2000;0.1286;-0.8615;
1303.5000;0.1302;-0.8565;
1303.8000;0.1294;-0.8590;
1304.1000;0.1302;-0.8590;
1304.4000;0.1294;-0.8490;
1304.7000;0.1319;-0.8440;
1305.0000;0.1311;-0.8440;
1305.3000;0.1311;-0.8440;
1305.6000;0.1311;-0.8465;
1305.9000;0.1311;-0.8465;
1306.2000;0.1302;-0.8515;
1306.5000;0.1311;-0.8540;
1306.8000;0.1311;-0.8565;
1307.1000;0.1294;-0.8565;
1307.4000;0.1270;-0.8565;
1307.7000;0.1311;-0.8389;
1308.0000;0.1319;-0.8339;
1308.3000;0.1229;-0.8515;
1308.6000;0.1286;-0.8389;
1308.9000;0.1311;-0.8188;
1309.2000;0.1294;-0.8239;
1309.5000;0.1302;-0.8214;
1309.8000;0.1270;-0.8239;
1310.1000;0.1302;-0.8214;
1310.4000;0.1245;-0.8389;
1310.7000;0.1319;-0.8339;
1311.0000;0.1294;-0.8465;
1311.3000;0.1319;-0.8339;
1311.6000;0.1311;-0.8389;
1311.9000;0.1278;-0.8414;
1312.2000;0.1294;-0.8314;
1312.5000;0.1311;-0.8239;
1312.8000;0.1311;-0.8289;
1313.1000;0.1294;-0.8389;
1313.4000;0.1294;-0.8440;
1313.7000;0.1294;-0.8490;
1314.0000;0.1319;-0.8364;
1314.3000;0.1311;-0.8314;
1314.6000;0.1278;-0.8440;
1314.9000;0.1294;-0.8364;
1315.2000;0.1376;-0.8214;
1315.5000;0.1319;-0.8188;
1315.8000;0.1302;-0.8214;
1316.1000;0.1319;-0.8188;
1316.4000;0.1384;-0.8038;
1316.7000;0.1294;-0.8289;
1317.0000;0.1278;-0.8339;
1317.3000;0.1311;-0.8339;
1317.6000;0.1311;-0.8364;
1317.9000;0.1335;-0.8163;
1318.2000;0.1311;-0.8214;
1318.5000;0.1302;-0.8239;
1318.8000;0.1311;-0.8239;
1319.1000;0.1343;-0.8239;
1319.4000;0.1311;-0.8188;
1319.7000;0.1294;-0.8314;
1320.0000;0.1286;-0.8314;
1320.3000;0.1302;-0.8214;
1320.6000;0.1319;-0.8163;
1320.9000;0.1270;-0.8289;
1321.2000;0.1302;-0.8188;
1321.5000;0.1294;-0.8188;
1321.8000;0.1294;-0.8138;
1322.1000;0.1311;-0.8113;
1322.4000;0.1294;-0.8163;
1322.7000;0.1302;-0.8314;
1323.0000;0.1286;-0.8289;
1323.3000;0.1286;-0.8389;
1323.6000;0.1278;-0.8389;
1323.9000;0.1286;-0.8339;
1324.2000;0.1278;-0.8314;
1324.5000;0.1278;-0.8364;
1324.8000;0.1294;-0.8264;
1325.1000;0.1286;-0.8239;
1325.4000;0.1311;-0.8138;
1325.7000;0.1302;-0.7987;
1326.0000;0.1302;-0.8038;
1326.3000;0.1294;-0.8013;
1326.6000;0.1302;-0.8113;
1326.9000;0.1294;-0.8214;
1327.2000;0.1319;-0.8188;
1327.5000;0.1302;-0.8314;
1327.8000;0.1302;-0.8364;
1328.1000;0.1319;-0.8389;
1328.4000;0.1294;-0.8339;
1328.7000;0.1294;-0.8389;
1329.0000;0.1311;-0.8339;
1329.3000;0.1302;-0.8339;
1329.6000;0.1294;-0.8339;
1329.9000;0.1302;-0.8339;
1330.2000;0.1302;-0.8239;
1330.5000;0.1351;-0.8063;
1330.8000;0.1302;-0.8113;
1331.1000;0.1286;-0.8214;
1331.4000;0.1392;-0.7862;
1331.7000;0.1302;-0.8088;
1332.0000;0.1311;-0.8163;
1332.3000;0.1319;-0.8088;
1332.6000;0.1278;-0.8113;
1332.9000;0.1294;-0.8013;
1333.2000;0.1319;-0.7987;
1333.5000;0.1343;-0.7937;
1333.8000;0.1294;-0.8163;
1334.1000;0.1311;-0.8188;
1334.4000;0.1262;-0.8314;
1334.7000;0.1302;-0.8264;
1335.0000;0.1311;-0.8314;
1335.3000;0.1294;-0.8339;
1335.6000;0.1229;-0.8414;
1335.9000;0.1278;-0.8239;
1336.2000;0.1286;-0.8188;
1336.5000;0.1286;-0.8214;
1336.8000;0.1294;-0.8138;
1337.1000;0.1302;-0.8088;
1337.4000;0.1368;-0.7912;
1337.7000;0.1294;-0.8163;
1338.0000;0.1302;-0.8188;
1338.3000;0.1294;-0.8214;
1338.6000;0.1286;-0.8239;
1338.9000;0.1294;-0.8188;
1339.2000;0.1294;-0.8214;
1339.5000;0.1294;-0.8289;
1339.8000;0.1286;-0.8163;
1340.1000;0.1294;-0.8138;
1340.4000;0.1302;-0.8163;
1340.7000;0.1311;-0.8214;
1341.0000;0.1311;-0.8214;
1341.3000;0.1311;-0.8163;
1341.6000;0.1311;-0.8188;
1341.9000;0.1278;-0.8364;
1342.2000;0.1294;-0.8264;
1342.5000;0.1286;-0.8289;
1342.8000;0.1270;-0.8414;
1343.1000;0.1343;-0.8239;
1343.4000;0.1286;-0.8239;
1343.7000;0.1302;-0.8214;
1344.0000;0.1302;-0.8314;
1344.3000;0.1294;-0.8314;
1344.6000;0.1302;-0.8264;
1344.9000;0.1286;-0.8264;
1345.2000;0.1302;-0.8289;
1345.5000;0.1311;-0.8339;
1345.8000;0.1319;-0.8364;
1346.1000;0.1302;-0.8440;
1346.4000;0.1319;-0.8414;
1346.7000;0.1311;-0.8339;
1347.0000;0.1302;-0.8339;
1347.3000;0.1359;-0.8264;
1347.6000;0.1302;-0.8414;
1347.9000;0.1311;-0.8465;
1348.2000;0.1294;-0.8440;
1348.5000;0.1311;-0.8364;
1348.8000;0.1294;-0.8364;
1349.1000;0.1286;-0.8364;
1349.4000;0.1262;-0.8314;
1349.7000;0.1294;-0.8289;
1350.0000;0.1302;-0.8239;
1350.3000;0.1270;-0.8339;
1350.6000;0.1294;-0.8364;
1350.9000;0.1319;-0.8264;
1351.2000;0.1311;-0.8339;
1351.5000;0.1319;-0.8314;
1351.8000;0.1294;-0.8339;
1352.1000;0.1311;-0.8163;
1352.4000;0.1278;-0.8314;
1352.7000;0.1302;-0.8214;
1353.0000;0.1294;-0.8214;
1353.3000;0.1319;-0.8214;
1353.6000;0.1302;-0.8188;
1353.9000;0.1278;-0.8239;
1354.2000;0.1286;-0.8264;
1354.5000;0.1311;-0.8289;
1354.8000;0.1302;-0.8364;
1355.1000;0.1302;-0.8339;
1355.4000;0.1254;-0.8465;
1355.7000;0.1286;-0.8414;
1356.0000;0.1319;-0.8314;
1356.3000;0.1302;-0.8364;
1356.6000;0.1294;-0.8414;
1356.9000;0.1351;-0.8138;
1357.2000;0.1319;-0.8088;
1357.5000;0.1302;-0.8113;
1357.8000;0.1294;-0.8214;
1358.1000;0.1302;-0.8239;
1358.4000;0.1278;-0.8314;
1358.7000;0.1311;-0.8264;
1359.0000;0.1302;-0.8214;
1359.3000;0.1302;-0.8264;
1359.6000;0.1294;-0.8339;
1359.9000;0.1294;-0.8389;
1360.2000;0.1278;-0.8465;
1360.5000;0.1278;-0.8389;
1360.8000;0.1294;-0.8414;
1361.1000;0.1270;-0.8364;
1361.4000;0.1286;-0.8490;
1361.7000;0.1302;-0.8490;
1362.0000;0.1302;-0.8339;
1362.3000;0.1294;-0.8264;
1362.6000;0.1311;-0.8188;
1362.9000;0.1319;-0.8163;
1363.2000;0.1302;-0.8264;
1363.5000;0.1327;-0.8264;
1363.8000;0.1311;-0.8289;
1364.1000;0.1286;-0.8264;
1364.4000;0.1294;-0.8188;
1364.7000;0.1311;-0.8113;
1365.0000;0.1302;-0.8163;
1365.3000;0.1294;-0.8289;
1365.6000;0.1311;-0.8465;
1365.9000;0.1294;-0.8465;
1366.2000;0.1319;-0.8465;
1366.5000;0.1368;-0.8314;
1366.8000;0.1302;-0.8389;
1367.1000;0.1351;-0.8214;
1367.4000;0.1302;-0.8389;
1367.7000;0.1302;-0.8490;
1368.0000;0.1302;-0.8540;
1368.3000;0.1302;-0.8490;
1368.6000;0.1302;-0.8465;
1368.9000;0.1319;-0.8389;
1369.2000;0.1294;-0.8414;
1369.5000;0.1294;-0.8414;
1369.8000;0.1311;-0.8314;
1370.1000;0.1294;-0.8465;
1370.4000;0.1327;-0.8314;
1370.7000;0.1302;-0.8465;
1371.0000;0.1294;-0.8440;
1371.3000;0.1278;-0.8490;
1371.6000;0.1294;-0.8364;
1371.9000;0.1302;-0.8364;
1372.2000;0.1319;-0.8389;
1372.5000;0.1302;-0.8465;
1372.8000;0.1311;-0.8440;
1373.1000;0.1319;-0.8364;
1373.4000;0.1302;-0.8389;
1373.7000;0.1319;-0.8314;
1374.0000;0.1294;-0.8289;
1374.3000;0.1302;-0.8314;
1374.6000;0.1294;-0.8289;
1374.9000;0.1302;-0.8138;
1375.2000;0.1286;-0.8163;
1375.5000;0.1286;-0.8264;
1375.8000;0.1311;-0.8289;
1376.1000;0.1302;-0.8264;
1376.4000;0.1311;-0.8239;
1376.7000;0.1302;-0.8264;
1377.0000;0.1311;-0.8314;
1377.3000;0.1311;-0.8239;
1377.6000;0.1311;-0.8214;
1377.9000;0.1294;-0.8314;
1378.2000;0.1327;-0.8188;
1378.5000;0.1302;-0.8264;
1378.8000;0.1270;-0.8364;
1379.1000;0.1311;-0.8314;
1379.4000;0.1294;-0.8339;
1379.7000;0.1302;-0.8289;
1380.0000;0.1221;-0.8414;
1380.3000;0.1302;-0.8314;
1380.6000;0.1311;-0.8314;
1380.9000;0.1286;-0.8364;
1381.2000;0.1311;-0.8389;
1381.5000;0.1286;-0.8490;
1381.8000;0.1286;-0.8440;
1382.1000;0.1319;-0.8364;
1382.4000;0.1262;-0.8440;
1382.7000;0.1294;-0.8339;
1383.0000;0.1270;-0.8389;
1383.3000;0.1245;-0.8389;
1383.6000;0.1311;-0.8188;
1383.9000;0.1286;-0.8214;
1384.2000;0.1319;-0.8314;
1384.5000;0.1302;-0.8289;
1384.8000;0.1392;-0.8038;
1385.1000;0.1311;-0.8239;
1385.4000;0.1351;-0.8239;
1385.7000;0.1262;-0.8465;
1386.0000;0.1335;-0.8339;
1386.3000;0.1302;-0.8414;
1386.6000;0.1311;-0.8414;
1386.9000;0.1319;-0.8440;
1387.2000;0.1294;-0.8465;
1387.5000;0.1286;-0.8389;
1387.8000;0.1294;-0.8414;
1388.1000;0.1302;-0.8440;
1388.4000;0.1278;-0.8465;
1388.7000;0.1286;-0.8440;
1389.0000;0.1278;-0.8314;
1389.3000;0.1270;-0.8264;
1389.6000;0.1294;-0.8264;
1389.9000;0.1286;-0.8264;
1390.2000;0.1302;-0.8264;
1390.5000;0.1302;-0.8364;
1390.8000;0.1319;-0.8364;
1391.1000;0.1302;-0.8364;
1391.4000;0.1311;-0.8339;
1391.7000;0.1302;-0.8314;
1392.0000;0.1335;-0.8239;
1392.3000;0.1302;-0.8214;
1392.6000;0.1335;-0.8239;
1392.9000;0.1335;-0.8314;
1393.2000;0.1319;-0.8414;
1393.5000;0.1343;-0.8364;
1393.8000;0.1319;-0.8389;
1394.1000;0.1319;-0.8414;
1394.4000;0.1302;-0.8414;
1394.7000;0.1286;-0.8465;
1395.0000;0.1245;-0.8565;
1395.3000;0.1319;-0.8389;
1395.6000;0.1302;-0.8414;
1395.9000;0.1302;-0.8490;
1396.2000;0.1311;-0.8389;
1396.5000;0.1302;-0.8389;
1396.8000;0.1392;-0.8239;
1397.1000;0.1302;-0.8465;
1397.4000;0.1327;-0.8490;
1397.7000;0.1319;-0.8515;
1398.0000;0.1302;-0.8515;
1398.3000;0.1311;-0.8465;
1398.6000;0.1311;-0.8590;
1398.9000;0.1319;-0.8515;
1399.2000;0.1311;-0.8465;
1399.5000;0.1270;-0.8641;
1399.8000;0.1302;-0.8666;
