time/ms;Fluo/V;P700 deltaI/I x10³;
-199.8000;0.1384;-0.7661;
-199.5000;0.1457;-0.7485;
-199.2000;0.1368;-0.7787;
-198.9000;0.1368;-0.7812;
-198.6000;0.1359;-0.7937;
-198.3000;0.1359;-0.7837;
-198.0000;0.1359;-0.7962;
-197.7000;0.1376;-0.7987;
-197.4000;0.1376;-0.7912;
-197.1000;0.1327;-0.8063;
-196.8000;0.1376;-0.7887;
-196.5000;0.1368;-0.7812;
-196.2000;0.1343;-0.7912;
-195.9000;0.1368;-0.7862;
-195.6000;0.1384;-0.7887;
-195.3000;0.1392;-0.7812;
-195.0000;0.1376;-0.7887;
-194.7000;0.1400;-0.7711;
-194.4000;0.1376;-0.7711;
-194.1000;0.1392;-0.7636;
-193.8000;0.1343;-0.7736;
-193.5000;0.1449;-0.7485;
-193.2000;0.1368;-0.7837;
-192.9000;0.1384;-0.7812;
-192.6000;0.1368;-0.7962;
-192.3000;0.1376;-0.7912;
-192.0000;0.1392;-0.7912;
-191.7000;0.1392;-0.7862;
-191.4000;0.1376;-0.7787;
-191.1000;0.1400;-0.7736;
-190.8000;0.1384;-0.7736;
-190.5000;0.1433;-0.7535;
-190.2000;0.1384;-0.7761;
-189.9000;0.1376;-0.7736;
-189.6000;0.1359;-0.7736;
-189.3000;0.1335;-0.7812;
-189.0000;0.1457;-0.7510;
-188.7000;0.1384;-0.7736;
-188.4000;0.1392;-0.7812;
-188.1000;0.1368;-0.7962;
-187.8000;0.1368;-0.7887;
-187.5000;0.1400;-0.7812;
-187.2000;0.1400;-0.7837;
-186.9000;0.1368;-0.7912;
-186.6000;0.1376;-0.7887;
-186.3000;0.1392;-0.7837;
-186.0000;0.1359;-0.7987;
-185.7000;0.1392;-0.7912;
-185.4000;0.1376;-0.7962;
-185.1000;0.1376;-0.7862;
-184.8000;0.1376;-0.7887;
-184.5000;0.1368;-0.7937;
-184.2000;0.1392;-0.7787;
-183.9000;0.1359;-0.7787;
-183.6000;0.1343;-0.7812;
-183.3000;0.1400;-0.7736;
-183.0000;0.1400;-0.7661;
-182.7000;0.1384;-0.7661;
-182.4000;0.1327;-0.7837;
-182.1000;0.1343;-0.7887;
-181.8000;0.1368;-0.7937;
-181.5000;0.1376;-0.7887;
-181.2000;0.1376;-0.7937;
-180.9000;0.1376;-0.7937;
-180.6000;0.1368;-0.7862;
-180.3000;0.1376;-0.7837;
-180.0000;0.1400;-0.7837;
-179.7000;0.1376;-0.7937;
-179.4000;0.1368;-0.7912;
-179.1000;0.1408;-0.7736;
-178.8000;0.1368;-0.7862;
-178.5000;0.1392;-0.7761;
-178.2000;0.1384;-0.7711;
-177.9000;0.1376;-0.7736;
-177.6000;0.1392;-0.7761;
-177.3000;0.1384;-0.7736;
-177.0000;0.1368;-0.7787;
-176.7000;0.1384;-0.7736;
-176.4000;0.1384;-0.7812;
-176.1000;0.1359;-0.7837;
-175.8000;0.1376;-0.7887;
-175.5000;0.1368;-0.7937;
-175.2000;0.1376;-0.7862;
-174.9000;0.1392;-0.7787;
-174.6000;0.1359;-0.7912;
-174.3000;0.1368;-0.7862;
-174.0000;0.1384;-0.7812;
-173.7000;0.1351;-0.8063;
-173.4000;0.1368;-0.8088;
-173.1000;0.1359;-0.8113;
-172.8000;0.1351;-0.8138;
-172.5000;0.1368;-0.8188;
-172.2000;0.1384;-0.8188;
-171.9000;0.1384;-0.8138;
-171.6000;0.1400;-0.7962;
-171.3000;0.1400;-0.7862;
-171.0000;0.1392;-0.7887;
-170.7000;0.1384;-0.7862;
-170.4000;0.1384;-0.7862;
-170.1000;0.1392;-0.7887;
-169.8000;0.1376;-0.7937;
-169.5000;0.1376;-0.7887;
-169.2000;0.1392;-0.7837;
-168.9000;0.1449;-0.7661;
-168.6000;0.1351;-0.7787;
-168.3000;0.1359;-0.7812;
-168.0000;0.1359;-0.7862;
-167.7000;0.1327;-0.7937;
-167.4000;0.1368;-0.7787;
-167.1000;0.1376;-0.7812;
-166.8000;0.1400;-0.7711;
-166.5000;0.1359;-0.7787;
-166.2000;0.1368;-0.7787;
-165.9000;0.1376;-0.7812;
-165.6000;0.1359;-0.7912;
-165.3000;0.1294;-0.8163;
-165.0000;0.1384;-0.7937;
-164.7000;0.1368;-0.7937;
-164.4000;0.1384;-0.7887;
-164.1000;0.1384;-0.7787;
-163.8000;0.1384;-0.7912;
-163.5000;0.1376;-0.7912;
-163.2000;0.1359;-0.7912;
-162.9000;0.1368;-0.7862;
-162.6000;0.1359;-0.7937;
-162.3000;0.1384;-0.7937;
-162.0000;0.1368;-0.7962;
-161.7000;0.1376;-0.7987;
-161.4000;0.1384;-0.8063;
-161.1000;0.1376;-0.7962;
-160.8000;0.1351;-0.8038;
-160.5000;0.1376;-0.7987;
-160.2000;0.1359;-0.7937;
-159.9000;0.1376;-0.7987;
-159.6000;0.1368;-0.7987;
-159.3000;0.1376;-0.8063;
-159.0000;0.1376;-0.8113;
-158.7000;0.1368;-0.8138;
-158.4000;0.1359;-0.8163;
-158.1000;0.1376;-0.8088;
-157.8000;0.1376;-0.8163;
-157.5000;0.1368;-0.8138;
-157.2000;0.1376;-0.8063;
-156.9000;0.1368;-0.7987;
-156.6000;0.1376;-0.8038;
-156.3000;0.1376;-0.8088;
-156.0000;0.1384;-0.8013;
-155.7000;0.1384;-0.7937;
-155.4000;0.1376;-0.8013;
-155.1000;0.1376;-0.8013;
-154.8000;0.1376;-0.8013;
-154.5000;0.1384;-0.8013;
-154.2000;0.1359;-0.8088;
-153.9000;0.1384;-0.7912;
-153.6000;0.1392;-0.7937;
-153.3000;0.1351;-0.8038;
-153.0000;0.1368;-0.8063;
-152.7000;0.1376;-0.8088;
-152.4000;0.1376;-0.8038;
-152.1000;0.1384;-0.8063;
-151.8000;0.1384;-0.8063;
-151.5000;0.1392;-0.8138;
-151.2000;0.1384;-0.8063;
-150.9000;0.1392;-0.7987;
-150.6000;0.1384;-0.7812;
-150.3000;0.1368;-0.7787;
-150.0000;0.1368;-0.7812;
-149.7000;0.1384;-0.7736;
-149.4000;0.1335;-0.7887;
-149.1000;0.1286;-0.8038;
-148.8000;0.1376;-0.7787;
-148.5000;0.1376;-0.7812;
-148.2000;0.1368;-0.7761;
-147.9000;0.1376;-0.7711;
-147.6000;0.1359;-0.7686;
-147.3000;0.1376;-0.7686;
-147.0000;0.1441;-0.7611;
-146.7000;0.1368;-0.7736;
-146.4000;0.1376;-0.7711;
-146.1000;0.1343;-0.7736;
-145.8000;0.1384;-0.7736;
-145.5000;0.1376;-0.7736;
-145.2000;0.1384;-0.7761;
-144.9000;0.1368;-0.7812;
-144.6000;0.1384;-0.7862;
-144.3000;0.1376;-0.7862;
-144.0000;0.1376;-0.7812;
-143.7000;0.1384;-0.7761;
-143.4000;0.1376;-0.7761;
-143.1000;0.1384;-0.7686;
-142.8000;0.1368;-0.7787;
-142.5000;0.1368;-0.7787;
-142.2000;0.1376;-0.7787;
-141.9000;0.1368;-0.7937;
-141.6000;0.1359;-0.7962;
-141.3000;0.1392;-0.7812;
-141.0000;0.1376;-0.7862;
-140.7000;0.1368;-0.7862;
-140.4000;0.1376;-0.7887;
-140.1000;0.1416;-0.7912;
-139.8000;0.1376;-0.7887;
-139.5000;0.1376;-0.7862;
-139.2000;0.1335;-0.8063;
-138.9000;0.1368;-0.8013;
-138.6000;0.1376;-0.7987;
-138.3000;0.1384;-0.7862;
-138.0000;0.1368;-0.7837;
-137.7000;0.1368;-0.7862;
-137.4000;0.1368;-0.7937;
-137.1000;0.1343;-0.8063;
-136.8000;0.1384;-0.7987;
-136.5000;0.1343;-0.8063;
-136.2000;0.1368;-0.8113;
-135.9000;0.1376;-0.8113;
-135.6000;0.1384;-0.8088;
-135.3000;0.1359;-0.8138;
-135.0000;0.1368;-0.8013;
-134.7000;0.1311;-0.8138;
-134.4000;0.1376;-0.7987;
-134.1000;0.1368;-0.8063;
-133.8000;0.1359;-0.7987;
-133.5000;0.1343;-0.8013;
-133.2000;0.1368;-0.7912;
-132.9000;0.1368;-0.7887;
-132.6000;0.1384;-0.7862;
-132.3000;0.1368;-0.7887;
-132.0000;0.1376;-0.7887;
-131.7000;0.1376;-0.7837;
-131.4000;0.1368;-0.7812;
-131.1000;0.1384;-0.7812;
-130.8000;0.1384;-0.7711;
-130.5000;0.1343;-0.7761;
-130.2000;0.1368;-0.7787;
-129.9000;0.1376;-0.7686;
-129.6000;0.1368;-0.7787;
-129.3000;0.1343;-0.7887;
-129.0000;0.1384;-0.7837;
-128.7000;0.1359;-0.7887;
-128.4000;0.1368;-0.7887;
-128.1000;0.1343;-0.7887;
-127.8000;0.1392;-0.7812;
-127.5000;0.1368;-0.7887;
-127.2000;0.1376;-0.7837;
-126.9000;0.1327;-0.7962;
-126.6000;0.1392;-0.7912;
-126.3000;0.1376;-0.7862;
-126.0000;0.1368;-0.7812;
-125.7000;0.1384;-0.7787;
-125.4000;0.1376;-0.7761;
-125.1000;0.1359;-0.7736;
-124.8000;0.1351;-0.7761;
-124.5000;0.1376;-0.7761;
-124.2000;0.1384;-0.7787;
-123.9000;0.1408;-0.7686;
-123.6000;0.1376;-0.7787;
-123.3000;0.1368;-0.7787;
-123.0000;0.1262;-0.8013;
-122.7000;0.1368;-0.7812;
-122.4000;0.1392;-0.7761;
-122.1000;0.1384;-0.7736;
-121.8000;0.1392;-0.7711;
-121.5000;0.1368;-0.7812;
-121.2000;0.1319;-0.7912;
-120.9000;0.1335;-0.7962;
-120.6000;0.1400;-0.7761;
-120.3000;0.1416;-0.7711;
-120.0000;0.1376;-0.7736;
-119.7000;0.1376;-0.7787;
-119.4000;0.1408;-0.7686;
-119.1000;0.1384;-0.7686;
-118.8000;0.1368;-0.7636;
-118.5000;0.1359;-0.7611;
-118.2000;0.1327;-0.7711;
-117.9000;0.1368;-0.7686;
-117.6000;0.1368;-0.7761;
-117.3000;0.1376;-0.7761;
-117.0000;0.1376;-0.7937;
-116.7000;0.1392;-0.7962;
-116.4000;0.1368;-0.8063;
-116.1000;0.1335;-0.8063;
-115.8000;0.1384;-0.7787;
-115.5000;0.1376;-0.7812;
-115.2000;0.1384;-0.7862;
-114.9000;0.1311;-0.8063;
-114.6000;0.1359;-0.7912;
-114.3000;0.1392;-0.7736;
-114.0000;0.1392;-0.7711;
-113.7000;0.1368;-0.7837;
-113.4000;0.1359;-0.7937;
-113.1000;0.1376;-0.7812;
-112.8000;0.1351;-0.7862;
-112.5000;0.1400;-0.7711;
-112.2000;0.1368;-0.7787;
-111.9000;0.1335;-0.7912;
-111.6000;0.1376;-0.7862;
-111.3000;0.1384;-0.7912;
-111.0000;0.1384;-0.7862;
-110.7000;0.1392;-0.7862;
-110.4000;0.1384;-0.7887;
-110.1000;0.1359;-0.7912;
-109.8000;0.1351;-0.7862;
-109.5000;0.1392;-0.7812;
-109.2000;0.1384;-0.7862;
-108.9000;0.1384;-0.7787;
-108.6000;0.1376;-0.7812;
-108.3000;0.1392;-0.7661;
-108.0000;0.1359;-0.7761;
-107.7000;0.1359;-0.7812;
-107.4000;0.1368;-0.7736;
-107.1000;0.1376;-0.7736;
-106.8000;0.1368;-0.7736;
-106.5000;0.1384;-0.7686;
-106.2000;0.1376;-0.7586;
-105.9000;0.1376;-0.7636;
-105.6000;0.1425;-0.7560;
-105.3000;0.1343;-0.7761;
-105.0000;0.1384;-0.7761;
-104.7000;0.1384;-0.7787;
-104.4000;0.1368;-0.7761;
-104.1000;0.1376;-0.7761;
-103.8000;0.1368;-0.7812;
-103.5000;0.1376;-0.7837;
-103.2000;0.1392;-0.7787;
-102.9000;0.1376;-0.7887;
-102.6000;0.1392;-0.7912;
-102.3000;0.1376;-0.7887;
-102.0000;0.1376;-0.7812;
-101.7000;0.1416;-0.7736;
-101.4000;0.1368;-0.7787;
-101.1000;0.1368;-0.7837;
-100.8000;0.1384;-0.7787;
-100.5000;0.1392;-0.7887;
-100.2000;0.1408;-0.7887;
-99.9000;0.1400;-0.7837;
-99.6000;0.1490;-0.7510;
-99.3000;0.1368;-0.7837;
-99.0000;0.1384;-0.7862;
-98.7000;0.1457;-0.7560;
-98.4000;0.1384;-0.7862;
-98.1000;0.1368;-0.7837;
-97.8000;0.1376;-0.7812;
-97.5000;0.1368;-0.7862;
-97.2000;0.1376;-0.7862;
-96.9000;0.1376;-0.7887;
-96.6000;0.1294;-0.8113;
-96.3000;0.1433;-0.7711;
-96.0000;0.1392;-0.7912;
-95.7000;0.1384;-0.7912;
-95.4000;0.1400;-0.7862;
-95.1000;0.1351;-0.7937;
-94.8000;0.1392;-0.7812;
-94.5000;0.1376;-0.7812;
-94.2000;0.1351;-0.7912;
-93.9000;0.1359;-0.7787;
-93.6000;0.1359;-0.7761;
-93.3000;0.1351;-0.7711;
-93.0000;0.1368;-0.7736;
-92.7000;0.1359;-0.7787;
-92.4000;0.1376;-0.7736;
-92.1000;0.1368;-0.7761;
-91.8000;0.1384;-0.7586;
-91.5000;0.1376;-0.7586;
-91.2000;0.1359;-0.7661;
-90.9000;0.1368;-0.7636;
-90.6000;0.1368;-0.7761;
-90.3000;0.1384;-0.7812;
-90.0000;0.1376;-0.7761;
-89.7000;0.1400;-0.7711;
-89.4000;0.1368;-0.7812;
-89.1000;0.1376;-0.7761;
-88.8000;0.1416;-0.7686;
-88.5000;0.1392;-0.7686;
-88.2000;0.1359;-0.7812;
-87.9000;0.1368;-0.7812;
-87.6000;0.1376;-0.7812;
-87.3000;0.1400;-0.7812;
-87.0000;0.1425;-0.7736;
-86.7000;0.1392;-0.7912;
-86.4000;0.1343;-0.8113;
-86.1000;0.1465;-0.7812;
-85.8000;0.1376;-0.7987;
-85.5000;0.1376;-0.8013;
-85.2000;0.1416;-0.7912;
-84.9000;0.1392;-0.7837;
-84.6000;0.1351;-0.7887;
-84.3000;0.1376;-0.7761;
-84.0000;0.1416;-0.7636;
-83.7000;0.1376;-0.7736;
-83.4000;0.1359;-0.7736;
-83.1000;0.1449;-0.7535;
-82.8000;0.1343;-0.7812;
-82.5000;0.1376;-0.7862;
-82.2000;0.1359;-0.8013;
-81.9000;0.1368;-0.7937;
-81.6000;0.1351;-0.7962;
-81.3000;0.1376;-0.7812;
-81.0000;0.1351;-0.7636;
-80.7000;0.1368;-0.7661;
-80.4000;0.1392;-0.7736;
-80.1000;0.1368;-0.7862;
-79.8000;0.1384;-0.7812;
-79.5000;0.1351;-0.7837;
-79.2000;0.1359;-0.7887;
-78.9000;0.1384;-0.7787;
-78.6000;0.1441;-0.7636;
-78.3000;0.1376;-0.7887;
-78.0000;0.1384;-0.7862;
-77.7000;0.1368;-0.7887;
-77.4000;0.1376;-0.7862;
-77.1000;0.1359;-0.7761;
-76.8000;0.1368;-0.7686;
-76.5000;0.1343;-0.7611;
-76.2000;0.1368;-0.7636;
-75.9000;0.1392;-0.7711;
-75.6000;0.1368;-0.7787;
-75.3000;0.1359;-0.7686;
-75.0000;0.1400;-0.7535;
-74.7000;0.1384;-0.7535;
-74.4000;0.1368;-0.7586;
-74.1000;0.1384;-0.7611;
-73.8000;0.1376;-0.7686;
-73.5000;0.1368;-0.7736;
-73.2000;0.1416;-0.7686;
-72.9000;0.1368;-0.7837;
-72.6000;0.1359;-0.7862;
-72.3000;0.1351;-0.7862;
-72.0000;0.1400;-0.7761;
-71.7000;0.1335;-0.7912;
-71.4000;0.1327;-0.7962;
-71.1000;0.1368;-0.7887;
-70.8000;0.1351;-0.7912;
-70.5000;0.1359;-0.7837;
-70.2000;0.1368;-0.7887;
-69.9000;0.1351;-0.7912;
-69.6000;0.1376;-0.7887;
-69.3000;0.1376;-0.7812;
-69.0000;0.1376;-0.7787;
-68.7000;0.1359;-0.7812;
-68.4000;0.1384;-0.7636;
-68.1000;0.1384;-0.7736;
-67.8000;0.1343;-0.7862;
-67.5000;0.1392;-0.7812;
-67.2000;0.1286;-0.8063;
-66.9000;0.1302;-0.8038;
-66.6000;0.1376;-0.7837;
-66.3000;0.1343;-0.7887;
-66.0000;0.1392;-0.7787;
-65.7000;0.1400;-0.7711;
-65.4000;0.1384;-0.7736;
-65.1000;0.1311;-0.7912;
-64.8000;0.1327;-0.7862;
-64.5000;0.1384;-0.7711;
-64.2000;0.1327;-0.7862;
-63.9000;0.1343;-0.7812;
-63.6000;0.1368;-0.7787;
-63.3000;0.1368;-0.7787;
-63.0000;0.1376;-0.7711;
-62.7000;0.1384;-0.7661;
-62.4000;0.1368;-0.7686;
-62.1000;0.1416;-0.7611;
-61.8000;0.1368;-0.7686;
-61.5000;0.1368;-0.7586;
-61.2000;0.1351;-0.7611;
-60.9000;0.1343;-0.7686;
-60.6000;0.1351;-0.7611;
-60.3000;0.1294;-0.7862;
-60.0000;0.1335;-0.7711;
-59.7000;0.1384;-0.7611;
-59.4000;0.1368;-0.7761;
-59.1000;0.1457;-0.7560;
-58.8000;0.1368;-0.7812;
-58.5000;0.1384;-0.7787;
-58.2000;0.1384;-0.7787;
-57.9000;0.1384;-0.7812;
-57.6000;0.1359;-0.7862;
-57.3000;0.1376;-0.7787;
-57.0000;0.1327;-0.7837;
-56.7000;0.1384;-0.7686;
-56.4000;0.1384;-0.7636;
-56.1000;0.1376;-0.7636;
-55.8000;0.1392;-0.7636;
-55.5000;0.1384;-0.7611;
-55.2000;0.1384;-0.7611;
-54.9000;0.1392;-0.7611;
-54.6000;0.1376;-0.7711;
-54.3000;0.1392;-0.7661;
-54.0000;0.1376;-0.7636;
-53.7000;0.1376;-0.7711;
-53.4000;0.1359;-0.7761;
-53.1000;0.1359;-0.7686;
-52.8000;0.1384;-0.7636;
-52.5000;0.1359;-0.7711;
-52.2000;0.1433;-0.7510;
-51.9000;0.1368;-0.7611;
-51.6000;0.1368;-0.7636;
-51.3000;0.1359;-0.7611;
-51.0000;0.1368;-0.7535;
-50.7000;0.1368;-0.7586;
-50.4000;0.1368;-0.7636;
-50.1000;0.1359;-0.7686;
-49.8000;0.1368;-0.7661;
-49.5000;0.1384;-0.7611;
-49.2000;0.1392;-0.7560;
-48.9000;0.1441;-0.7385;
-48.6000;0.1376;-0.7611;
-48.3000;0.1408;-0.7636;
-48.0000;0.1327;-0.7962;
-47.7000;0.1359;-0.7761;
-47.4000;0.1473;-0.7510;
-47.1000;0.1449;-0.7560;
-46.8000;0.1384;-0.7661;
-46.5000;0.1392;-0.7736;
-46.2000;0.1376;-0.7636;
-45.9000;0.1376;-0.7611;
-45.6000;0.1376;-0.7686;
-45.3000;0.1400;-0.7535;
-45.0000;0.1351;-0.7611;
-44.7000;0.1400;-0.7460;
-44.4000;0.1392;-0.7410;
-44.1000;0.1473;-0.7385;
-43.8000;0.1368;-0.7611;
-43.5000;0.1392;-0.7485;
-43.2000;0.1392;-0.7535;
-42.9000;0.1416;-0.7510;
-42.6000;0.1368;-0.7636;
-42.3000;0.1376;-0.7661;
-42.0000;0.1368;-0.7661;
-41.7000;0.1392;-0.7611;
-41.4000;0.1392;-0.7586;
-41.1000;0.1376;-0.7661;
-40.8000;0.1368;-0.7686;
-40.5000;0.1376;-0.7661;
-40.2000;0.1384;-0.7711;
-39.9000;0.1400;-0.7611;
-39.6000;0.1359;-0.7711;
-39.3000;0.1368;-0.7761;
-39.0000;0.1376;-0.7686;
-38.7000;0.1359;-0.7636;
-38.4000;0.1416;-0.7535;
-38.1000;0.1368;-0.7661;
-37.8000;0.1376;-0.7686;
-37.5000;0.1384;-0.7761;
-37.2000;0.1368;-0.7812;
-36.9000;0.1392;-0.7761;
-36.6000;0.1384;-0.7787;
-36.3000;0.1359;-0.7812;
-36.0000;0.1376;-0.7711;
-35.7000;0.1368;-0.7736;
-35.4000;0.1376;-0.7761;
-35.1000;0.1368;-0.7787;
-34.8000;0.1376;-0.7711;
-34.5000;0.1368;-0.7586;
-34.2000;0.1376;-0.7586;
-33.9000;0.1368;-0.7535;
-33.6000;0.1376;-0.7560;
-33.3000;0.1359;-0.7686;
-33.0000;0.1392;-0.7611;
-32.7000;0.1392;-0.7736;
-32.4000;0.1384;-0.7761;
-32.1000;0.1376;-0.7837;
-31.8000;0.1392;-0.7862;
-31.5000;0.1368;-0.7787;
-31.2000;0.1400;-0.7812;
-30.9000;0.1376;-0.7862;
-30.6000;0.1384;-0.7812;
-30.3000;0.1408;-0.7837;
-30.0000;0.1376;-0.7837;
-29.7000;0.1392;-0.7837;
-29.4000;0.1376;-0.7837;
-29.1000;0.1400;-0.7862;
-28.8000;0.1392;-0.7837;
-28.5000;0.1376;-0.7887;
-28.2000;0.1376;-0.7937;
-27.9000;0.1376;-0.7962;
-27.6000;0.1368;-0.7887;
-27.3000;0.1368;-0.7937;
-27.0000;0.1343;-0.7987;
-26.7000;0.1376;-0.7937;
-26.4000;0.1368;-0.7962;
-26.1000;0.1400;-0.7862;
-25.8000;0.1368;-0.7887;
-25.5000;0.1384;-0.7812;
-25.2000;0.1392;-0.7837;
-24.9000;0.1376;-0.7887;
-24.6000;0.1384;-0.7837;
-24.3000;0.1384;-0.7686;
-24.0000;0.1359;-0.7686;
-23.7000;0.1376;-0.7636;
-23.4000;0.1368;-0.7736;
-23.1000;0.1384;-0.7636;
-22.8000;0.1376;-0.7736;
-22.5000;0.1368;-0.7686;
-22.2000;0.1343;-0.7761;
-21.9000;0.1262;-0.7987;
-21.6000;0.1376;-0.7661;
-21.3000;0.1433;-0.7510;
-21.0000;0.1376;-0.7586;
-20.7000;0.1376;-0.7586;
-20.4000;0.1392;-0.7686;
-20.1000;0.1376;-0.7661;
-19.8000;0.1392;-0.7661;
-19.5000;0.1384;-0.7711;
-19.2000;0.1400;-0.7711;
-18.9000;0.1392;-0.7787;
-18.6000;0.1392;-0.7761;
-18.3000;0.1376;-0.7787;
-18.0000;0.1351;-0.7812;
-17.7000;0.1376;-0.7636;
-17.4000;0.1376;-0.7686;
-17.1000;0.1376;-0.7711;
-16.8000;0.1376;-0.7736;
-16.5000;0.1384;-0.7736;
-16.2000;0.1400;-0.7711;
-15.9000;0.1376;-0.7761;
-15.6000;0.1368;-0.7560;
-15.3000;0.1335;-0.7711;
-15.0000;0.1384;-0.7661;
-14.7000;0.1481;-0.7460;
-14.4000;0.1384;-0.7736;
-14.1000;0.1376;-0.7812;
-13.8000;0.1351;-0.7962;
-13.5000;0.1408;-0.7812;
-13.2000;0.1384;-0.7812;
-12.9000;0.1376;-0.7787;
-12.6000;0.1392;-0.7736;
-12.3000;0.1327;-0.7887;
-12.0000;0.1359;-0.7761;
-11.7000;0.1359;-0.7787;
-11.4000;0.1392;-0.7636;
-11.1000;0.1376;-0.7736;
-10.8000;0.1359;-0.7787;
-10.5000;0.1384;-0.7736;
-10.2000;0.1368;-0.7736;
-9.9000;0.1392;-0.7711;
-9.6000;0.1368;-0.7711;
-9.3000;0.1376;-0.7711;
-9.0000;0.1351;-0.7736;
-8.7000;0.1392;-0.7661;
-8.4000;0.1376;-0.7711;
-8.1000;0.1392;-0.7736;
-7.8000;0.1368;-0.7812;
-7.5000;0.1376;-0.7736;
-7.2000;0.1392;-0.7761;
-6.9000;0.1392;-0.7686;
-6.6000;0.1376;-0.7686;
-6.3000;0.1400;-0.7761;
-6.0000;0.1400;-0.7837;
-5.7000;0.1384;-0.7862;
-5.4000;0.1433;-0.7736;
-5.1000;0.1392;-0.7761;
-4.8000;0.1392;-0.7736;
-4.5000;0.1376;-0.7611;
-4.2000;0.1327;-0.7686;
-3.9000;0.1392;-0.7410;
-3.6000;0.1376;-0.7535;
-3.3000;0.1368;-0.7535;
-3.0000;0.1465;-0.7360;
-2.7000;0.1368;-0.7636;
-2.4000;0.1384;-0.7586;
-2.1000;0.1368;-0.7560;
-1.8000;0.1343;-0.7586;
-1.5000;0.1368;-0.7510;
-1.2000;0.1392;-0.7510;
-0.9000;0.1359;-0.7485;
-0.6000;0.1384;-0.7510;
-0.3000;0.1392;-0.7535;
0.0000;0.1392;-0.7535;
0.3000;0.1368;-0.7812;
0.6000;0.1408;-0.7586;
0.9000;0.1400;-0.7360;
1.2000;0.1416;-0.7133;
1.5000;0.1441;-0.6983;
1.8000;0.1425;-0.6757;
2.1000;0.1425;-0.6606;
2.4000;0.1425;-0.6405;
2.7000;0.1449;-0.6204;
3.0000;0.1449;-0.6179;
3.3000;0.1449;-0.6179;
3.6000;0.1449;-0.6154;
3.9000;0.1473;-0.6003;
4.2000;0.1490;-0.5903;
4.5000;0.1498;-0.5802;
4.8000;0.1481;-0.5752;
5.1000;0.1473;-0.5802;
5.4000;0.1481;-0.5777;
5.7000;0.1481;-0.5752;
6.0000;0.1425;-0.5852;
6.3000;0.1595;-0.5400;
6.6000;0.1473;-0.5777;
6.9000;0.1506;-0.5652;
7.2000;0.1433;-0.5852;
7.5000;0.1457;-0.5802;
7.8000;0.1465;-0.5802;
8.1000;0.1449;-0.5702;
8.4000;0.1449;-0.5652;
8.7000;0.1457;-0.5652;
9.0000;0.1481;-0.5601;
9.3000;0.1530;-0.5551;
9.6000;0.1538;-0.5526;
9.9000;0.1473;-0.5702;
10.2000;0.1465;-0.5752;
10.5000;0.1473;-0.5752;
10.8000;0.1481;-0.5677;
11.1000;0.1473;-0.5652;
11.4000;0.1449;-0.5727;
11.7000;0.1473;-0.5626;
12.0000;0.1465;-0.5677;
12.3000;0.1449;-0.5702;
12.6000;0.1441;-0.5827;
12.9000;0.1473;-0.5727;
13.2000;0.1514;-0.5652;
13.5000;0.1449;-0.5727;
13.8000;0.1465;-0.5677;
14.1000;0.1465;-0.5677;
14.4000;0.1433;-0.5702;
14.7000;0.1457;-0.5702;
15.0000;0.1465;-0.5752;
15.3000;0.1449;-0.5727;
15.6000;0.1473;-0.5702;
15.9000;0.1473;-0.5702;
16.2000;0.1425;-0.5852;
16.5000;0.1473;-0.5677;
16.8000;0.1498;-0.5601;
17.1000;0.1481;-0.5601;
17.4000;0.1530;-0.5451;
17.7000;0.1457;-0.5702;
18.0000;0.1457;-0.5626;
18.3000;0.1384;-0.5878;
18.6000;0.1481;-0.5677;
18.9000;0.1481;-0.5752;
19.2000;0.1481;-0.5752;
19.5000;0.1490;-0.5702;
19.8000;0.1481;-0.5652;
20.1000;0.1465;-0.5752;
20.4000;0.1449;-0.5752;
20.7000;0.1457;-0.5752;
21.0000;0.1465;-0.5777;
21.3000;0.1384;-0.6053;
21.6000;0.1481;-0.5777;
21.9000;0.1514;-0.5702;
22.2000;0.1514;-0.5626;
22.5000;0.1473;-0.5702;
22.8000;0.1465;-0.5752;
23.1000;0.1465;-0.5827;
23.4000;0.1481;-0.5852;
23.7000;0.1457;-0.5928;
24.0000;0.1465;-0.5903;
24.3000;0.1473;-0.5903;
24.6000;0.1449;-0.5903;
24.9000;0.1311;-0.6254;
25.2000;0.1473;-0.5777;
25.5000;0.1498;-0.5777;
25.8000;0.1481;-0.5827;
26.1000;0.1359;-0.6129;
26.4000;0.1441;-0.5827;
26.7000;0.1481;-0.5727;
27.0000;0.1481;-0.5827;
27.3000;0.1425;-0.5878;
27.6000;0.1465;-0.5752;
27.9000;0.1490;-0.5802;
28.2000;0.1465;-0.5852;
28.5000;0.1473;-0.5827;
28.8000;0.1465;-0.5903;
29.1000;0.1457;-0.5978;
29.4000;0.1449;-0.5903;
29.7000;0.1465;-0.5802;
30.0000;0.1473;-0.5752;
30.3000;0.1465;-0.5827;
30.6000;0.1481;-0.5752;
30.9000;0.1465;-0.5752;
31.2000;0.1473;-0.5752;
31.5000;0.1506;-0.5702;
31.8000;0.1473;-0.5777;
32.1000;0.1465;-0.5878;
32.4000;0.1490;-0.5752;
32.7000;0.1514;-0.5727;
33.0000;0.1465;-0.5903;
33.3000;0.1490;-0.5727;
33.6000;0.1481;-0.5752;
33.9000;0.1425;-0.5903;
34.2000;0.1457;-0.5802;
34.5000;0.1473;-0.5727;
34.8000;0.1465;-0.5752;
35.1000;0.1457;-0.5802;
35.4000;0.1481;-0.5878;
35.7000;0.1473;-0.5802;
36.0000;0.1473;-0.5827;
36.3000;0.1425;-0.6028;
36.6000;0.1449;-0.5953;
36.9000;0.1457;-0.5978;
37.2000;0.1425;-0.5953;
37.5000;0.1457;-0.5928;
37.8000;0.1490;-0.5802;
38.1000;0.1465;-0.5777;
38.4000;0.1506;-0.5652;
38.7000;0.1400;-0.6028;
39.0000;0.1465;-0.5953;
39.3000;0.1449;-0.5953;
39.6000;0.1465;-0.5827;
39.9000;0.1457;-0.5953;
40.2000;0.1441;-0.5878;
40.5000;0.1465;-0.5827;
40.8000;0.1465;-0.5752;
41.1000;0.1498;-0.5677;
41.4000;0.1530;-0.5652;
41.7000;0.1465;-0.5852;
42.0000;0.1473;-0.5878;
42.3000;0.1433;-0.5903;
42.6000;0.1514;-0.5626;
42.9000;0.1457;-0.5702;
43.2000;0.1481;-0.5652;
43.5000;0.1490;-0.5677;
43.8000;0.1457;-0.5802;
44.1000;0.1441;-0.5802;
44.4000;0.1490;-0.5827;
44.7000;0.1506;-0.5677;
45.0000;0.1457;-0.5777;
45.3000;0.1490;-0.5702;
45.6000;0.1481;-0.5802;
45.9000;0.1457;-0.5878;
46.2000;0.1530;-0.5727;
46.5000;0.1490;-0.5878;
46.8000;0.1481;-0.5928;
47.1000;0.1465;-0.5852;
47.4000;0.1473;-0.5777;
47.7000;0.1473;-0.5752;
48.0000;0.1457;-0.5752;
48.3000;0.1465;-0.5777;
48.6000;0.1473;-0.5777;
48.9000;0.1481;-0.5928;
49.2000;0.1465;-0.5928;
49.5000;0.1514;-0.5752;
49.8000;0.1473;-0.5777;
50.1000;0.1490;-0.5727;
50.4000;0.1449;-0.5777;
50.7000;0.1465;-0.5752;
51.0000;0.1481;-0.5752;
51.3000;0.1506;-0.5702;
51.6000;0.1473;-0.5878;
51.9000;0.1449;-0.5903;
52.2000;0.1465;-0.5777;
52.5000;0.1530;-0.5626;
52.8000;0.1473;-0.5652;
53.1000;0.1481;-0.5576;
53.4000;0.1473;-0.5601;
53.7000;0.1481;-0.5626;
54.0000;0.1473;-0.5576;
54.3000;0.1465;-0.5601;
54.6000;0.1490;-0.5476;
54.9000;0.1465;-0.5526;
55.2000;0.1473;-0.5526;
55.5000;0.1506;-0.5501;
55.8000;0.1449;-0.5626;
56.1000;0.1473;-0.5601;
56.4000;0.1457;-0.5677;
56.7000;0.1465;-0.5752;
57.0000;0.1465;-0.5652;
57.3000;0.1481;-0.5652;
57.6000;0.1481;-0.5626;
57.9000;0.1449;-0.5652;
58.2000;0.1457;-0.5702;
58.5000;0.1490;-0.5626;
58.8000;0.1481;-0.5677;
59.1000;0.1473;-0.5677;
59.4000;0.1481;-0.5626;
59.7000;0.1498;-0.5551;
60.0000;0.1465;-0.5626;
60.3000;0.1473;-0.5576;
60.6000;0.1457;-0.5626;
60.9000;0.1473;-0.5601;
61.2000;0.1498;-0.5526;
61.5000;0.1473;-0.5677;
61.8000;0.1506;-0.5677;
62.1000;0.1465;-0.5702;
62.4000;0.1473;-0.5652;
62.7000;0.1465;-0.5677;
63.0000;0.1465;-0.5702;
63.3000;0.1441;-0.5802;
63.6000;0.1481;-0.5752;
63.9000;0.1441;-0.5903;
64.2000;0.1481;-0.5802;
64.5000;0.1465;-0.5827;
64.8000;0.1473;-0.5827;
65.1000;0.1465;-0.5802;
65.4000;0.1457;-0.5878;
65.7000;0.1457;-0.5727;
66.0000;0.1514;-0.5501;
66.3000;0.1465;-0.5652;
66.6000;0.1449;-0.5677;
66.9000;0.1473;-0.5652;
67.2000;0.1457;-0.5702;
67.5000;0.1441;-0.5752;
67.8000;0.1408;-0.5702;
68.1000;0.1506;-0.5451;
68.4000;0.1457;-0.5526;
68.7000;0.1465;-0.5576;
69.0000;0.1441;-0.5702;
69.3000;0.1449;-0.5752;
69.6000;0.1530;-0.5501;
69.9000;0.1506;-0.5601;
70.2000;0.1490;-0.5652;
70.5000;0.1473;-0.5727;
70.8000;0.1433;-0.5878;
71.1000;0.1457;-0.5827;
71.4000;0.1473;-0.5852;
71.7000;0.1433;-0.5953;
72.0000;0.1449;-0.5903;
72.3000;0.1473;-0.5827;
72.6000;0.1449;-0.5852;
72.9000;0.1473;-0.5777;
73.2000;0.1457;-0.5852;
73.5000;0.1457;-0.5928;
73.8000;0.1457;-0.5903;
74.1000;0.1425;-0.5928;
74.4000;0.1457;-0.5802;
74.7000;0.1416;-0.5903;
75.0000;0.1465;-0.5752;
75.3000;0.1457;-0.5727;
75.6000;0.1473;-0.5727;
75.9000;0.1465;-0.5852;
76.2000;0.1473;-0.5827;
76.5000;0.1449;-0.5827;
76.8000;0.1473;-0.5752;
77.1000;0.1465;-0.5727;
77.4000;0.1465;-0.5752;
77.7000;0.1481;-0.5777;
78.0000;0.1465;-0.5852;
78.3000;0.1473;-0.5827;
78.6000;0.1457;-0.5752;
78.9000;0.1465;-0.5802;
79.2000;0.1473;-0.5727;
79.5000;0.1465;-0.5802;
79.8000;0.1441;-0.5852;
80.1000;0.1473;-0.5852;
80.4000;0.1481;-0.5827;
80.7000;0.1457;-0.5827;
81.0000;0.1457;-0.5802;
81.3000;0.1473;-0.5802;
81.6000;0.1465;-0.5903;
81.9000;0.1481;-0.5827;
82.2000;0.1457;-0.5852;
82.5000;0.1473;-0.5827;
82.8000;0.1465;-0.5928;
83.1000;0.1506;-0.5752;
83.4000;0.1465;-0.5802;
83.7000;0.1457;-0.5852;
84.0000;0.1465;-0.5827;
84.3000;0.1481;-0.5852;
84.6000;0.1441;-0.6003;
84.9000;0.1490;-0.5852;
85.2000;0.1473;-0.5852;
85.5000;0.1473;-0.5802;
85.8000;0.1473;-0.5852;
86.1000;0.1457;-0.5827;
86.4000;0.1433;-0.5802;
86.7000;0.1490;-0.5702;
87.0000;0.1457;-0.5802;
87.3000;0.1473;-0.5802;
87.6000;0.1441;-0.5727;
87.9000;0.1457;-0.5677;
88.2000;0.1473;-0.5626;
88.5000;0.1449;-0.5802;
88.8000;0.1425;-0.5852;
89.1000;0.1465;-0.5777;
89.4000;0.1473;-0.5752;
89.7000;0.1416;-0.5878;
90.0000;0.1465;-0.5827;
90.3000;0.1465;-0.5802;
90.6000;0.1473;-0.5777;
90.9000;0.1465;-0.5677;
91.2000;0.1433;-0.5827;
91.5000;0.1457;-0.5752;
91.8000;0.1416;-0.5903;
92.1000;0.1457;-0.5802;
92.4000;0.1449;-0.5752;
92.7000;0.1530;-0.5501;
93.0000;0.1441;-0.5777;
93.3000;0.1457;-0.5652;
93.6000;0.1465;-0.5601;
93.9000;0.1416;-0.5702;
94.2000;0.1457;-0.5652;
94.5000;0.1465;-0.5601;
94.8000;0.1473;-0.5576;
95.1000;0.1433;-0.5702;
95.4000;0.1449;-0.5677;
95.7000;0.1555;-0.5350;
96.0000;0.1555;-0.5400;
96.3000;0.1465;-0.5652;
96.6000;0.1433;-0.5677;
96.9000;0.1481;-0.5626;
97.2000;0.1473;-0.5677;
97.5000;0.1449;-0.5702;
97.8000;0.1465;-0.5626;
98.1000;0.1457;-0.5652;
98.4000;0.1465;-0.5702;
98.7000;0.1465;-0.5752;
99.0000;0.1400;-0.5903;
99.3000;0.1465;-0.5777;
99.6000;0.1457;-0.5802;
99.9000;0.1473;-0.5827;
100.2000;0.1425;-0.5928;
100.5000;0.1457;-0.5802;
100.8000;0.1465;-0.5802;
101.1000;0.1457;-0.5802;
101.4000;0.1465;-0.5802;
101.7000;0.1441;-0.5827;
102.0000;0.1457;-0.5802;
102.3000;0.1457;-0.5878;
102.6000;0.1457;-0.5928;
102.9000;0.1473;-0.6003;
103.2000;0.1449;-0.6104;
103.5000;0.1473;-0.6053;
103.8000;0.1457;-0.6079;
104.1000;0.1433;-0.6229;
104.4000;0.1457;-0.6179;
104.7000;0.1441;-0.6154;
105.0000;0.1441;-0.6079;
105.3000;0.1465;-0.6053;
105.6000;0.1457;-0.6079;
105.9000;0.1457;-0.5978;
106.2000;0.1473;-0.5878;
106.5000;0.1473;-0.5953;
106.8000;0.1457;-0.5978;
107.1000;0.1465;-0.5852;
107.4000;0.1465;-0.5827;
107.7000;0.1465;-0.5852;
108.0000;0.1441;-0.5953;
108.3000;0.1473;-0.5978;
108.6000;0.1457;-0.5978;
108.9000;0.1538;-0.5702;
109.2000;0.1449;-0.5928;
109.5000;0.1457;-0.5852;
109.8000;0.1449;-0.5878;
110.1000;0.1400;-0.5903;
110.4000;0.1425;-0.5928;
110.7000;0.1473;-0.5777;
111.0000;0.1457;-0.5852;
111.3000;0.1473;-0.5802;
111.6000;0.1457;-0.5802;
111.9000;0.1457;-0.5777;
112.2000;0.1473;-0.5702;
112.5000;0.1457;-0.5601;
112.8000;0.1465;-0.5626;
113.1000;0.1514;-0.5551;
113.4000;0.1465;-0.5802;
113.7000;0.1498;-0.5802;
114.0000;0.1441;-0.5978;
114.3000;0.1473;-0.5827;
114.6000;0.1481;-0.5752;
114.9000;0.1481;-0.5702;
115.2000;0.1433;-0.5852;
115.5000;0.1449;-0.5827;
115.8000;0.1490;-0.5702;
116.1000;0.1498;-0.5702;
116.4000;0.1473;-0.5802;
116.7000;0.1473;-0.5827;
117.0000;0.1416;-0.5903;
117.3000;0.1465;-0.5752;
117.6000;0.1473;-0.5827;
117.9000;0.1376;-0.6053;
118.2000;0.1449;-0.5827;
118.5000;0.1441;-0.5878;
118.8000;0.1457;-0.5752;
119.1000;0.1449;-0.5727;
119.4000;0.1457;-0.5626;
119.7000;0.1530;-0.5526;
120.0000;0.1359;-0.5953;
120.3000;0.1449;-0.5702;
120.6000;0.1457;-0.5777;
120.9000;0.1449;-0.5827;
121.2000;0.1481;-0.5777;
121.5000;0.1457;-0.5777;
121.8000;0.1465;-0.5777;
122.1000;0.1465;-0.5727;
122.4000;0.1473;-0.5752;
122.7000;0.1481;-0.5752;
123.0000;0.1465;-0.5752;
123.3000;0.1465;-0.5727;
123.6000;0.1441;-0.5727;
123.9000;0.1465;-0.5702;
124.2000;0.1416;-0.5727;
124.5000;0.1490;-0.5601;
124.8000;0.1465;-0.5677;
125.1000;0.1465;-0.5802;
125.4000;0.1490;-0.5777;
125.7000;0.1465;-0.5802;
126.0000;0.1490;-0.5727;
126.3000;0.1481;-0.5852;
126.6000;0.1465;-0.5878;
126.9000;0.1457;-0.5878;
127.2000;0.1490;-0.5852;
127.5000;0.1384;-0.5928;
127.8000;0.1473;-0.5752;
128.1000;0.1481;-0.5702;
128.4000;0.1473;-0.5752;
128.7000;0.1473;-0.5827;
129.0000;0.1530;-0.5652;
129.3000;0.1465;-0.5827;
129.6000;0.1441;-0.5878;
129.9000;0.1457;-0.5852;
130.2000;0.1465;-0.5903;
130.5000;0.1441;-0.5928;
130.8000;0.1457;-0.5953;
131.1000;0.1490;-0.5878;
131.4000;0.1457;-0.5978;
131.7000;0.1457;-0.5953;
132.0000;0.1449;-0.5953;
132.3000;0.1449;-0.5928;
132.6000;0.1449;-0.5953;
132.9000;0.1449;-0.5903;
133.2000;0.1441;-0.5903;
133.5000;0.1457;-0.5953;
133.8000;0.1481;-0.5903;
134.1000;0.1457;-0.5928;
134.4000;0.1425;-0.6053;
134.7000;0.1449;-0.5978;
135.0000;0.1457;-0.5978;
135.3000;0.1498;-0.5827;
135.6000;0.1465;-0.5802;
135.9000;0.1473;-0.5752;
136.2000;0.1498;-0.5727;
136.5000;0.1481;-0.5777;
136.8000;0.1481;-0.5852;
137.1000;0.1449;-0.6053;
137.4000;0.1473;-0.5903;
137.7000;0.1449;-0.5953;
138.0000;0.1506;-0.5752;
138.3000;0.1473;-0.5802;
138.6000;0.1465;-0.5752;
138.9000;0.1457;-0.5727;
139.2000;0.1457;-0.5677;
139.5000;0.1449;-0.5752;
139.8000;0.1465;-0.5626;
140.1000;0.1473;-0.5677;
140.4000;0.1473;-0.5576;
140.7000;0.1498;-0.5501;
141.0000;0.1473;-0.5576;
141.3000;0.1498;-0.5601;
141.6000;0.1465;-0.5727;
141.9000;0.1547;-0.5601;
142.2000;0.1319;-0.6154;
142.5000;0.1449;-0.5727;
142.8000;0.1457;-0.5652;
143.1000;0.1449;-0.5652;
143.4000;0.1433;-0.5727;
143.7000;0.1473;-0.5752;
144.0000;0.1425;-0.5878;
144.3000;0.1457;-0.5827;
144.6000;0.1465;-0.5953;
144.9000;0.1457;-0.5978;
145.2000;0.1481;-0.5827;
145.5000;0.1473;-0.5752;
145.8000;0.1481;-0.5777;
146.1000;0.1481;-0.5802;
146.4000;0.1473;-0.5802;
146.7000;0.1465;-0.5827;
147.0000;0.1449;-0.5852;
147.3000;0.1473;-0.5903;
147.6000;0.1506;-0.5777;
147.9000;0.1465;-0.5903;
148.2000;0.1473;-0.5802;
148.5000;0.1465;-0.5777;
148.8000;0.1465;-0.5752;
149.1000;0.1441;-0.5852;
149.4000;0.1481;-0.5752;
149.7000;0.1457;-0.5802;
150.0000;0.1441;-0.5802;
150.3000;0.1449;-0.5827;
150.6000;0.1441;-0.5827;
150.9000;0.1522;-0.5551;
151.2000;0.1465;-0.5677;
151.5000;0.1457;-0.5652;
151.8000;0.1441;-0.5677;
152.1000;0.1449;-0.5752;
152.4000;0.1449;-0.5852;
152.7000;0.1449;-0.5827;
153.0000;0.1490;-0.5677;
153.3000;0.1481;-0.5702;
153.6000;0.1457;-0.5827;
153.9000;0.1473;-0.5802;
154.2000;0.1481;-0.5752;
154.5000;0.1449;-0.5702;
154.8000;0.1457;-0.5702;
155.1000;0.1465;-0.5752;
155.4000;0.1473;-0.5677;
155.7000;0.1465;-0.5652;
156.0000;0.1465;-0.5601;
156.3000;0.1457;-0.5677;
156.6000;0.1473;-0.5652;
156.9000;0.1481;-0.5752;
157.2000;0.1473;-0.5827;
157.5000;0.1465;-0.5903;
157.8000;0.1490;-0.5827;
158.1000;0.1473;-0.5827;
158.4000;0.1465;-0.5827;
158.7000;0.1457;-0.5878;
159.0000;0.1473;-0.5802;
159.3000;0.1457;-0.5852;
159.6000;0.1490;-0.5852;
159.9000;0.1441;-0.5978;
160.2000;0.1465;-0.5827;
160.5000;0.1481;-0.5702;
160.8000;0.1530;-0.5476;
161.1000;0.1465;-0.5727;
161.4000;0.1473;-0.5727;
161.7000;0.1481;-0.5626;
162.0000;0.1473;-0.5677;
162.3000;0.1514;-0.5652;
162.6000;0.1457;-0.5777;
162.9000;0.1465;-0.5752;
163.2000;0.1481;-0.5752;
163.5000;0.1473;-0.5777;
163.8000;0.1490;-0.5727;
164.1000;0.1465;-0.5727;
164.4000;0.1538;-0.5576;
164.7000;0.1441;-0.5777;
165.0000;0.1457;-0.5727;
165.3000;0.1465;-0.5677;
165.6000;0.1481;-0.5601;
165.9000;0.1384;-0.5827;
166.2000;0.1441;-0.5652;
166.5000;0.1465;-0.5626;
166.8000;0.1473;-0.5551;
167.1000;0.1481;-0.5526;
167.4000;0.1538;-0.5425;
167.7000;0.1481;-0.5626;
168.0000;0.1481;-0.5626;
168.3000;0.1473;-0.5777;
168.6000;0.1457;-0.5777;
168.9000;0.1457;-0.5827;
169.2000;0.1481;-0.5727;
169.5000;0.1465;-0.5652;
169.8000;0.1465;-0.5777;
170.1000;0.1473;-0.5727;
170.4000;0.1457;-0.5802;
170.7000;0.1457;-0.5777;
171.0000;0.1457;-0.5777;
171.3000;0.1449;-0.5601;
171.6000;0.1441;-0.5752;
171.9000;0.1465;-0.5777;
172.2000;0.1449;-0.5827;
172.5000;0.1465;-0.5852;
172.8000;0.1449;-0.5852;
173.1000;0.1481;-0.5802;
173.4000;0.1465;-0.5777;
173.7000;0.1457;-0.5852;
174.0000;0.1457;-0.5878;
174.3000;0.1449;-0.5852;
174.6000;0.1400;-0.5928;
174.9000;0.1465;-0.5752;
175.2000;0.1473;-0.5752;
175.5000;0.1473;-0.5777;
175.8000;0.1490;-0.5677;
176.1000;0.1481;-0.5827;
176.4000;0.1465;-0.5928;
176.7000;0.1473;-0.5852;
177.0000;0.1481;-0.5752;
177.3000;0.1449;-0.5752;
177.6000;0.1465;-0.5727;
177.9000;0.1457;-0.5752;
178.2000;0.1490;-0.5601;
178.5000;0.1473;-0.5501;
178.8000;0.1457;-0.5551;
179.1000;0.1449;-0.5576;
179.4000;0.1441;-0.5652;
179.7000;0.1457;-0.5652;
180.0000;0.1457;-0.5601;
180.3000;0.1433;-0.5677;
180.6000;0.1465;-0.5652;
180.9000;0.1530;-0.5476;
181.2000;0.1465;-0.5652;
181.5000;0.1473;-0.5601;
181.8000;0.1465;-0.5551;
182.1000;0.1473;-0.5501;
182.4000;0.1473;-0.5501;
182.7000;0.1481;-0.5476;
183.0000;0.1457;-0.5551;
183.3000;0.1473;-0.5526;
183.6000;0.1481;-0.5526;
183.9000;0.1433;-0.5652;
184.2000;0.1457;-0.5576;
184.5000;0.1465;-0.5652;
184.8000;0.1408;-0.5802;
185.1000;0.1473;-0.5626;
185.4000;0.1457;-0.5576;
185.7000;0.1449;-0.5601;
186.0000;0.1490;-0.5476;
186.3000;0.1465;-0.5576;
186.6000;0.1473;-0.5626;
186.9000;0.1514;-0.5551;
187.2000;0.1449;-0.5702;
187.5000;0.1473;-0.5677;
187.8000;0.1498;-0.5576;
188.1000;0.1449;-0.5702;
188.4000;0.1441;-0.5576;
188.7000;0.1449;-0.5601;
189.0000;0.1465;-0.5626;
189.3000;0.1457;-0.5677;
189.6000;0.1465;-0.5677;
189.9000;0.1506;-0.5526;
190.2000;0.1449;-0.5601;
190.5000;0.1425;-0.5702;
190.8000;0.1433;-0.5601;
191.1000;0.1465;-0.5601;
191.4000;0.1449;-0.5601;
191.7000;0.1473;-0.5576;
192.0000;0.1465;-0.5626;
192.3000;0.1457;-0.5652;
192.6000;0.1465;-0.5601;
192.9000;0.1449;-0.5652;
193.2000;0.1449;-0.5576;
193.5000;0.1490;-0.5576;
193.8000;0.1473;-0.5551;
194.1000;0.1457;-0.5626;
194.4000;0.1449;-0.5626;
194.7000;0.1449;-0.5601;
195.0000;0.1457;-0.5526;
195.3000;0.1449;-0.5526;
195.6000;0.1457;-0.5526;
195.9000;0.1449;-0.5652;
196.2000;0.1473;-0.5601;
196.5000;0.1465;-0.5601;
196.8000;0.1473;-0.5526;
197.1000;0.1473;-0.5476;
197.4000;0.1465;-0.5601;
197.7000;0.1473;-0.5626;
198.0000;0.1473;-0.5601;
198.3000;0.1441;-0.5652;
198.6000;0.1506;-0.5451;
198.9000;0.1465;-0.5551;
199.2000;0.1457;-0.5626;
199.5000;0.1465;-0.5626;
199.8000;0.1473;-0.5677;
200.1000;0.1473;-0.5626;
200.4000;0.1473;-0.5677;
200.7000;0.1441;-0.5777;
201.0000;0.1465;-0.5777;
201.3000;0.1457;-0.5802;
201.6000;0.1465;-0.5752;
201.9000;0.1514;-0.5652;
202.2000;0.1473;-0.5677;
202.5000;0.1522;-0.5501;
202.8000;0.1481;-0.5576;
203.1000;0.1457;-0.5601;
203.4000;0.1416;-0.5702;
203.7000;0.1465;-0.5601;
204.0000;0.1514;-0.5350;
204.3000;0.1441;-0.5576;
204.6000;0.1449;-0.5601;
204.9000;0.1457;-0.5626;
205.2000;0.1473;-0.5626;
205.5000;0.1530;-0.5425;
205.8000;0.1416;-0.5702;
206.1000;0.1457;-0.5626;
206.4000;0.1481;-0.5601;
206.7000;0.1473;-0.5677;
207.0000;0.1465;-0.5777;
207.3000;0.1481;-0.5752;
207.6000;0.1465;-0.5777;
207.9000;0.1465;-0.5878;
208.2000;0.1473;-0.5953;
208.5000;0.1473;-0.5928;
208.8000;0.1449;-0.5903;
209.1000;0.1481;-0.5727;
209.4000;0.1457;-0.5677;
209.7000;0.1449;-0.5626;
210.0000;0.1473;-0.5551;
210.3000;0.1473;-0.5576;
210.6000;0.1465;-0.5652;
210.9000;0.1465;-0.5677;
211.2000;0.1473;-0.5677;
211.5000;0.1481;-0.5702;
211.8000;0.1490;-0.5702;
212.1000;0.1506;-0.5727;
212.4000;0.1457;-0.5777;
212.7000;0.1473;-0.5852;
213.0000;0.1481;-0.5878;
213.3000;0.1465;-0.5928;
213.6000;0.1490;-0.5878;
213.9000;0.1473;-0.5852;
214.2000;0.1457;-0.5852;
214.5000;0.1441;-0.5852;
214.8000;0.1457;-0.5827;
215.1000;0.1481;-0.5702;
215.4000;0.1473;-0.5727;
215.7000;0.1449;-0.5702;
216.0000;0.1457;-0.5752;
216.3000;0.1473;-0.5727;
216.6000;0.1473;-0.5727;
216.9000;0.1522;-0.5576;
217.2000;0.1514;-0.5501;
217.5000;0.1416;-0.5827;
217.8000;0.1465;-0.5677;
218.1000;0.1457;-0.5601;
218.4000;0.1433;-0.5576;
218.7000;0.1473;-0.5576;
219.0000;0.1416;-0.5777;
219.3000;0.1457;-0.5677;
219.6000;0.1457;-0.5727;
219.9000;0.1441;-0.5777;
220.2000;0.1457;-0.5702;
220.5000;0.1384;-0.5978;
220.8000;0.1490;-0.5652;
221.1000;0.1465;-0.5752;
221.4000;0.1457;-0.5626;
221.7000;0.1449;-0.5626;
222.0000;0.1433;-0.5702;
222.3000;0.1457;-0.5626;
222.6000;0.1449;-0.5626;
222.9000;0.1465;-0.5551;
223.2000;0.1449;-0.5501;
223.5000;0.1449;-0.5476;
223.8000;0.1465;-0.5451;
224.1000;0.1465;-0.5451;
224.4000;0.1473;-0.5425;
224.7000;0.1441;-0.5551;
225.0000;0.1473;-0.5476;
225.3000;0.1506;-0.5451;
225.6000;0.1465;-0.5626;
225.9000;0.1457;-0.5702;
226.2000;0.1457;-0.5752;
226.5000;0.1473;-0.5702;
226.8000;0.1449;-0.5702;
227.1000;0.1441;-0.5677;
227.4000;0.1441;-0.5652;
227.7000;0.1457;-0.5652;
228.0000;0.1449;-0.5652;
228.3000;0.1441;-0.5501;
228.6000;0.1457;-0.5501;
228.9000;0.1481;-0.5576;
229.2000;0.1498;-0.5601;
229.5000;0.1457;-0.5652;
229.8000;0.1465;-0.5626;
230.1000;0.1457;-0.5601;
230.4000;0.1441;-0.5777;
230.7000;0.1425;-0.5802;
231.0000;0.1457;-0.5702;
231.3000;0.1449;-0.5677;
231.6000;0.1465;-0.5626;
231.9000;0.1465;-0.5677;
232.2000;0.1465;-0.5677;
232.5000;0.1457;-0.5652;
232.8000;0.1473;-0.5626;
233.1000;0.1449;-0.5702;
233.4000;0.1441;-0.5677;
233.7000;0.1457;-0.5626;
234.0000;0.1457;-0.5601;
234.3000;0.1449;-0.5626;
234.6000;0.1457;-0.5626;
234.9000;0.1481;-0.5476;
235.2000;0.1465;-0.5501;
235.5000;0.1441;-0.5601;
235.8000;0.1457;-0.5526;
236.1000;0.1457;-0.5576;
236.4000;0.1457;-0.5702;
236.7000;0.1449;-0.5702;
237.0000;0.1441;-0.5727;
237.3000;0.1457;-0.5727;
237.6000;0.1449;-0.5777;
237.9000;0.1473;-0.5626;
238.2000;0.1457;-0.5601;
238.5000;0.1473;-0.5576;
238.8000;0.1449;-0.5576;
239.1000;0.1425;-0.5677;
239.4000;0.1473;-0.5652;
239.7000;0.1449;-0.5626;
240.0000;0.1449;-0.5551;
240.3000;0.1490;-0.5526;
240.6000;0.1449;-0.5626;
240.9000;0.1465;-0.5626;
241.2000;0.1457;-0.5551;
241.5000;0.1555;-0.5225;
241.8000;0.1457;-0.5576;
242.1000;0.1376;-0.5727;
242.4000;0.1457;-0.5551;
242.7000;0.1457;-0.5601;
243.0000;0.1490;-0.5576;
243.3000;0.1465;-0.5601;
243.6000;0.1441;-0.5677;
243.9000;0.1465;-0.5702;
244.2000;0.1457;-0.5727;
244.5000;0.1449;-0.5727;
244.8000;0.1457;-0.5677;
245.1000;0.1522;-0.5476;
245.4000;0.1449;-0.5626;
245.7000;0.1449;-0.5601;
246.0000;0.1465;-0.5626;
246.3000;0.1457;-0.5677;
246.6000;0.1457;-0.5652;
246.9000;0.1481;-0.5626;
247.2000;0.1457;-0.5677;
247.5000;0.1465;-0.5727;
247.8000;0.1441;-0.5802;
248.1000;0.1457;-0.5727;
248.4000;0.1441;-0.5752;
248.7000;0.1457;-0.5752;
249.0000;0.1392;-0.5903;
249.3000;0.1449;-0.5802;
249.6000;0.1457;-0.5752;
249.9000;0.1441;-0.5777;
250.2000;0.1465;-0.5777;
250.5000;0.1538;-0.5601;
250.8000;0.1441;-0.5878;
251.1000;0.1473;-0.5727;
251.4000;0.1473;-0.5626;
251.7000;0.1441;-0.5702;
252.0000;0.1490;-0.5551;
252.3000;0.1473;-0.5601;
252.6000;0.1457;-0.5652;
252.9000;0.1465;-0.5652;
253.2000;0.1465;-0.5702;
253.5000;0.1449;-0.5777;
253.8000;0.1473;-0.5702;
254.1000;0.1465;-0.5752;
254.4000;0.1457;-0.5777;
254.7000;0.1473;-0.5727;
255.0000;0.1465;-0.5652;
255.3000;0.1481;-0.5526;
255.6000;0.1449;-0.5652;
255.9000;0.1473;-0.5576;
256.2000;0.1465;-0.5576;
256.5000;0.1457;-0.5626;
256.8000;0.1506;-0.5476;
257.1000;0.1490;-0.5501;
257.4000;0.1457;-0.5601;
257.7000;0.1392;-0.5702;
258.0000;0.1441;-0.5476;
258.3000;0.1522;-0.5300;
258.6000;0.1449;-0.5425;
258.9000;0.1416;-0.5476;
259.2000;0.1392;-0.5476;
259.5000;0.1441;-0.5400;
259.8000;0.1433;-0.5425;
260.1000;0.1408;-0.5501;
260.4000;0.1449;-0.5501;
260.7000;0.1457;-0.5551;
261.0000;0.1457;-0.5626;
261.3000;0.1473;-0.5626;
261.6000;0.1457;-0.5702;
261.9000;0.1465;-0.5702;
262.2000;0.1433;-0.5677;
262.5000;0.1473;-0.5576;
262.8000;0.1457;-0.5576;
263.1000;0.1490;-0.5576;
263.4000;0.1473;-0.5652;
263.7000;0.1490;-0.5601;
264.0000;0.1465;-0.5601;
264.3000;0.1481;-0.5526;
264.6000;0.1490;-0.5501;
264.9000;0.1481;-0.5501;
265.2000;0.1457;-0.5576;
265.5000;0.1465;-0.5626;
265.8000;0.1465;-0.5601;
266.1000;0.1465;-0.5601;
266.4000;0.1481;-0.5626;
266.7000;0.1392;-0.5878;
267.0000;0.1473;-0.5652;
267.3000;0.1457;-0.5652;
267.6000;0.1473;-0.5526;
267.9000;0.1465;-0.5576;
268.2000;0.1457;-0.5626;
268.5000;0.1465;-0.5601;
268.8000;0.1449;-0.5626;
269.1000;0.1441;-0.5626;
269.4000;0.1457;-0.5677;
269.7000;0.1457;-0.5626;
270.0000;0.1514;-0.5451;
270.3000;0.1416;-0.5752;
270.6000;0.1441;-0.5702;
270.9000;0.1465;-0.5626;
271.2000;0.1457;-0.5601;
271.5000;0.1457;-0.5576;
271.8000;0.1473;-0.5551;
272.1000;0.1457;-0.5576;
272.4000;0.1538;-0.5451;
272.7000;0.1457;-0.5652;
273.0000;0.1498;-0.5576;
273.3000;0.1441;-0.5677;
273.6000;0.1490;-0.5652;
273.9000;0.1473;-0.5777;
274.2000;0.1490;-0.5652;
274.5000;0.1441;-0.5802;
274.8000;0.1465;-0.5601;
275.1000;0.1473;-0.5626;
275.4000;0.1408;-0.5727;
275.7000;0.1433;-0.5677;
276.0000;0.1465;-0.5576;
276.3000;0.1433;-0.5601;
276.6000;0.1449;-0.5451;
276.9000;0.1457;-0.5375;
277.2000;0.1465;-0.5476;
277.5000;0.1465;-0.5526;
277.8000;0.1408;-0.5752;
278.1000;0.1457;-0.5626;
278.4000;0.1433;-0.5652;
278.7000;0.1490;-0.5501;
279.0000;0.1473;-0.5476;
279.3000;0.1473;-0.5526;
279.6000;0.1457;-0.5576;
279.9000;0.1481;-0.5526;
280.2000;0.1498;-0.5601;
280.5000;0.1449;-0.5752;
280.8000;0.1498;-0.5677;
281.1000;0.1465;-0.5677;
281.4000;0.1449;-0.5677;
281.7000;0.1449;-0.5727;
282.0000;0.1465;-0.5652;
282.3000;0.1425;-0.5702;
282.6000;0.1465;-0.5526;
282.9000;0.1465;-0.5526;
283.2000;0.1457;-0.5476;
283.5000;0.1465;-0.5425;
283.8000;0.1481;-0.5400;
284.1000;0.1457;-0.5451;
284.4000;0.1433;-0.5526;
284.7000;0.1465;-0.5476;
285.0000;0.1473;-0.5526;
285.3000;0.1481;-0.5476;
285.6000;0.1457;-0.5526;
285.9000;0.1490;-0.5501;
286.2000;0.1465;-0.5576;
286.5000;0.1473;-0.5526;
286.8000;0.1473;-0.5526;
287.1000;0.1457;-0.5501;
287.4000;0.1449;-0.5551;
287.7000;0.1481;-0.5501;
288.0000;0.1490;-0.5476;
288.3000;0.1465;-0.5501;
288.6000;0.1441;-0.5677;
288.9000;0.1449;-0.5652;
289.2000;0.1449;-0.5677;
289.5000;0.1457;-0.5601;
289.8000;0.1441;-0.5626;
290.1000;0.1457;-0.5551;
290.4000;0.1465;-0.5652;
290.7000;0.1465;-0.5802;
291.0000;0.1441;-0.5852;
291.3000;0.1465;-0.5702;
291.6000;0.1473;-0.5752;
291.9000;0.1465;-0.5802;
292.2000;0.1449;-0.5752;
292.5000;0.1481;-0.5576;
292.8000;0.1473;-0.5576;
293.1000;0.1457;-0.5677;
293.4000;0.1408;-0.5777;
293.7000;0.1441;-0.5777;
294.0000;0.1449;-0.5827;
294.3000;0.1441;-0.5953;
294.6000;0.1441;-0.5953;
294.9000;0.1490;-0.5878;
295.2000;0.1465;-0.5953;
295.5000;0.1457;-0.5852;
295.8000;0.1392;-0.5978;
296.1000;0.1441;-0.5777;
296.4000;0.1449;-0.5802;
296.7000;0.1457;-0.5802;
297.0000;0.1514;-0.5677;
297.3000;0.1457;-0.5827;
297.6000;0.1465;-0.5727;
297.9000;0.1449;-0.5677;
298.2000;0.1481;-0.5601;
298.5000;0.1473;-0.5601;
298.8000;0.1481;-0.5601;
299.1000;0.1473;-0.5551;
299.4000;0.1465;-0.5576;
299.7000;0.1563;-0.5325;
300.0000;0.1457;-0.5576;
300.3000;0.1449;-0.5652;
300.6000;0.1473;-0.5576;
300.9000;0.1457;-0.5576;
301.2000;0.1449;-0.5576;
301.5000;0.1465;-0.5476;
301.8000;0.1473;-0.5425;
302.1000;0.1449;-0.5451;
302.4000;0.1465;-0.5501;
302.7000;0.1465;-0.5501;
303.0000;0.1473;-0.5476;
303.3000;0.1457;-0.5576;
303.6000;0.1481;-0.5476;
303.9000;0.1473;-0.5451;
304.2000;0.1481;-0.5425;
304.5000;0.1465;-0.5576;
304.8000;0.1457;-0.5601;
305.1000;0.1449;-0.5677;
305.4000;0.1465;-0.5601;
305.7000;0.1392;-0.5878;
306.0000;0.1449;-0.5702;
306.3000;0.1457;-0.5626;
306.6000;0.1457;-0.5601;
306.9000;0.1465;-0.5526;
307.2000;0.1465;-0.5526;
307.5000;0.1457;-0.5576;
307.8000;0.1457;-0.5601;
308.1000;0.1465;-0.5626;
308.4000;0.1465;-0.5626;
308.7000;0.1441;-0.5652;
309.0000;0.1408;-0.5802;
309.3000;0.1473;-0.5626;
309.6000;0.1457;-0.5727;
309.9000;0.1465;-0.5777;
310.2000;0.1449;-0.5852;
310.5000;0.1441;-0.5802;
310.8000;0.1465;-0.5652;
311.1000;0.1457;-0.5702;
311.4000;0.1465;-0.5626;
311.7000;0.1481;-0.5551;
312.0000;0.1457;-0.5626;
312.3000;0.1473;-0.5576;
312.6000;0.1449;-0.5702;
312.9000;0.1473;-0.5652;
313.2000;0.1473;-0.5652;
313.5000;0.1376;-0.5928;
313.8000;0.1441;-0.5802;
314.1000;0.1433;-0.5802;
314.4000;0.1449;-0.5727;
314.7000;0.1465;-0.5752;
315.0000;0.1449;-0.5652;
315.3000;0.1449;-0.5526;
315.6000;0.1465;-0.5526;
315.9000;0.1457;-0.5501;
316.2000;0.1465;-0.5476;
316.5000;0.1449;-0.5350;
316.8000;0.1465;-0.5375;
317.1000;0.1465;-0.5425;
317.4000;0.1376;-0.5727;
317.7000;0.1473;-0.5526;
318.0000;0.1481;-0.5526;
318.3000;0.1490;-0.5476;
318.6000;0.1449;-0.5551;
318.9000;0.1441;-0.5601;
319.2000;0.1457;-0.5576;
319.5000;0.1506;-0.5325;
319.8000;0.1465;-0.5400;
320.1000;0.1457;-0.5400;
320.4000;0.1441;-0.5501;
320.7000;0.1473;-0.5501;
321.0000;0.1392;-0.5752;
321.3000;0.1441;-0.5526;
321.6000;0.1465;-0.5501;
321.9000;0.1457;-0.5526;
322.2000;0.1457;-0.5501;
322.5000;0.1441;-0.5526;
322.8000;0.1441;-0.5601;
323.1000;0.1449;-0.5626;
323.4000;0.1457;-0.5551;
323.7000;0.1425;-0.5626;
324.0000;0.1441;-0.5601;
324.3000;0.1457;-0.5601;
324.6000;0.1457;-0.5652;
324.9000;0.1457;-0.5601;
325.2000;0.1473;-0.5501;
325.5000;0.1473;-0.5576;
325.8000;0.1449;-0.5601;
326.1000;0.1425;-0.5652;
326.4000;0.1465;-0.5576;
326.7000;0.1457;-0.5526;
327.0000;0.1498;-0.5501;
327.3000;0.1481;-0.5526;
327.6000;0.1465;-0.5601;
327.9000;0.1449;-0.5551;
328.2000;0.1465;-0.5652;
328.5000;0.1481;-0.5551;
328.8000;0.1449;-0.5576;
329.1000;0.1457;-0.5576;
329.4000;0.1457;-0.5576;
329.7000;0.1490;-0.5526;
330.0000;0.1481;-0.5576;
330.3000;0.1449;-0.5601;
330.6000;0.1441;-0.5702;
330.9000;0.1465;-0.5551;
331.2000;0.1449;-0.5526;
331.5000;0.1425;-0.5551;
331.8000;0.1481;-0.5375;
332.1000;0.1465;-0.5526;
332.4000;0.1465;-0.5400;
332.7000;0.1490;-0.5250;
333.0000;0.1457;-0.5275;
333.3000;0.1441;-0.5300;
333.6000;0.1490;-0.5275;
333.9000;0.1449;-0.5350;
334.2000;0.1457;-0.5300;
334.5000;0.1473;-0.5275;
334.8000;0.1473;-0.5250;
335.1000;0.1481;-0.5275;
335.4000;0.1449;-0.5425;
335.7000;0.1400;-0.5702;
336.0000;0.1506;-0.5375;
336.3000;0.1473;-0.5501;
336.6000;0.1473;-0.5476;
336.9000;0.1441;-0.5526;
337.2000;0.1457;-0.5451;
337.5000;0.1473;-0.5451;
337.8000;0.1465;-0.5451;
338.1000;0.1457;-0.5425;
338.4000;0.1457;-0.5476;
338.7000;0.1433;-0.5476;
339.0000;0.1465;-0.5451;
339.3000;0.1465;-0.5476;
339.6000;0.1465;-0.5325;
339.9000;0.1457;-0.5400;
340.2000;0.1457;-0.5400;
340.5000;0.1457;-0.5400;
340.8000;0.1514;-0.5300;
341.1000;0.1473;-0.5476;
341.4000;0.1465;-0.5526;
341.7000;0.1449;-0.5451;
342.0000;0.1465;-0.5375;
342.3000;0.1457;-0.5425;
342.6000;0.1457;-0.5425;
342.9000;0.1481;-0.5300;
343.2000;0.1473;-0.5325;
343.5000;0.1457;-0.5375;
343.8000;0.1538;-0.5099;
344.1000;0.1457;-0.5375;
344.4000;0.1465;-0.5350;
344.7000;0.1473;-0.5350;
345.0000;0.1449;-0.5476;
345.3000;0.1457;-0.5526;
345.6000;0.1433;-0.5576;
345.9000;0.1441;-0.5576;
346.2000;0.1441;-0.5576;
346.5000;0.1457;-0.5551;
346.8000;0.1449;-0.5677;
347.1000;0.1425;-0.5727;
347.4000;0.1481;-0.5501;
347.7000;0.1457;-0.5551;
348.0000;0.1441;-0.5551;
348.3000;0.1441;-0.5501;
348.6000;0.1481;-0.5476;
348.9000;0.1465;-0.5476;
349.2000;0.1433;-0.5526;
349.5000;0.1465;-0.5476;
349.8000;0.1481;-0.5425;
350.1000;0.1457;-0.5551;
350.4000;0.1457;-0.5626;
350.7000;0.1433;-0.5601;
351.0000;0.1449;-0.5576;
351.3000;0.1465;-0.5677;
351.6000;0.1473;-0.5677;
351.9000;0.1457;-0.5652;
352.2000;0.1481;-0.5652;
352.5000;0.1465;-0.5652;
352.8000;0.1473;-0.5626;
353.1000;0.1481;-0.5576;
353.4000;0.1457;-0.5551;
353.7000;0.1473;-0.5476;
354.0000;0.1465;-0.5501;
354.3000;0.1457;-0.5601;
354.6000;0.1490;-0.5652;
354.9000;0.1457;-0.5677;
355.2000;0.1498;-0.5526;
355.5000;0.1441;-0.5576;
355.8000;0.1457;-0.5576;
356.1000;0.1433;-0.5501;
356.4000;0.1457;-0.5425;
356.7000;0.1416;-0.5526;
357.0000;0.1465;-0.5476;
357.3000;0.1522;-0.5501;
357.6000;0.1473;-0.5601;
357.9000;0.1481;-0.5476;
358.2000;0.1555;-0.5225;
358.5000;0.1465;-0.5476;
358.8000;0.1457;-0.5551;
359.1000;0.1457;-0.5526;
359.4000;0.1441;-0.5551;
359.7000;0.1514;-0.5425;
360.0000;0.1465;-0.5526;
360.3000;0.1416;-0.5601;
360.6000;0.1449;-0.5501;
360.9000;0.1449;-0.5425;
361.2000;0.1457;-0.5425;
361.5000;0.1457;-0.5451;
361.8000;0.1465;-0.5476;
362.1000;0.1441;-0.5576;
362.4000;0.1473;-0.5526;
362.7000;0.1481;-0.5451;
363.0000;0.1465;-0.5451;
363.3000;0.1449;-0.5451;
363.6000;0.1457;-0.5425;
363.9000;0.1473;-0.5501;
364.2000;0.1457;-0.5677;
364.5000;0.1457;-0.5677;
364.8000;0.1506;-0.5476;
365.1000;0.1449;-0.5652;
365.4000;0.1449;-0.5626;
365.7000;0.1449;-0.5677;
366.0000;0.1514;-0.5501;
366.3000;0.1481;-0.5551;
366.6000;0.1473;-0.5501;
366.9000;0.1449;-0.5626;
367.2000;0.1449;-0.5626;
367.5000;0.1392;-0.5827;
367.8000;0.1449;-0.5601;
368.1000;0.1538;-0.5275;
368.4000;0.1465;-0.5425;
368.7000;0.1465;-0.5476;
369.0000;0.1465;-0.5425;
369.3000;0.1481;-0.5375;
369.6000;0.1465;-0.5400;
369.9000;0.1449;-0.5451;
370.2000;0.1457;-0.5476;
370.5000;0.1457;-0.5551;
370.8000;0.1408;-0.5752;
371.1000;0.1441;-0.5652;
371.4000;0.1465;-0.5652;
371.7000;0.1465;-0.5702;
372.0000;0.1425;-0.5827;
372.3000;0.1400;-0.5903;
372.6000;0.1441;-0.5802;
372.9000;0.1506;-0.5601;
373.2000;0.1441;-0.5827;
373.5000;0.1465;-0.5727;
373.8000;0.1465;-0.5702;
374.1000;0.1457;-0.5727;
374.4000;0.1465;-0.5777;
374.7000;0.1473;-0.5702;
375.0000;0.1473;-0.5777;
375.3000;0.1441;-0.5928;
375.6000;0.1473;-0.5852;
375.9000;0.1457;-0.5827;
376.2000;0.1490;-0.5802;
376.5000;0.1473;-0.5777;
376.8000;0.1457;-0.5752;
377.1000;0.1473;-0.5702;
377.4000;0.1457;-0.5727;
377.7000;0.1473;-0.5727;
378.0000;0.1465;-0.5677;
378.3000;0.1498;-0.5526;
378.6000;0.1498;-0.5476;
378.9000;0.1481;-0.5601;
379.2000;0.1465;-0.5576;
379.5000;0.1433;-0.5601;
379.8000;0.1473;-0.5576;
380.1000;0.1425;-0.5777;
380.4000;0.1465;-0.5702;
380.7000;0.1473;-0.5626;
381.0000;0.1473;-0.5652;
381.3000;0.1449;-0.5802;
381.6000;0.1457;-0.5802;
381.9000;0.1490;-0.5777;
382.2000;0.1465;-0.5827;
382.5000;0.1473;-0.5777;
382.8000;0.1490;-0.5702;
383.1000;0.1457;-0.5802;
383.4000;0.1449;-0.5878;
383.7000;0.1457;-0.5827;
384.0000;0.1481;-0.5727;
384.3000;0.1449;-0.5727;
384.6000;0.1457;-0.5677;
384.9000;0.1530;-0.5476;
385.2000;0.1465;-0.5576;
385.5000;0.1465;-0.5526;
385.8000;0.1498;-0.5325;
386.1000;0.1465;-0.5476;
386.4000;0.1449;-0.5626;
386.7000;0.1441;-0.5702;
387.0000;0.1449;-0.5626;
387.3000;0.1506;-0.5451;
387.6000;0.1465;-0.5501;
387.9000;0.1441;-0.5501;
388.2000;0.1465;-0.5451;
388.5000;0.1457;-0.5526;
388.8000;0.1514;-0.5375;
389.1000;0.1400;-0.5652;
389.4000;0.1522;-0.5300;
389.7000;0.1416;-0.5576;
390.0000;0.1449;-0.5501;
390.3000;0.1408;-0.5601;
390.6000;0.1408;-0.5652;
390.9000;0.1457;-0.5476;
391.2000;0.1449;-0.5526;
391.5000;0.1457;-0.5476;
391.8000;0.1441;-0.5551;
392.1000;0.1473;-0.5526;
392.4000;0.1473;-0.5501;
392.7000;0.1457;-0.5476;
393.0000;0.1498;-0.5425;
393.3000;0.1506;-0.5501;
393.6000;0.1408;-0.5827;
393.9000;0.1465;-0.5626;
394.2000;0.1473;-0.5702;
394.5000;0.1473;-0.5752;
394.8000;0.1457;-0.5777;
395.1000;0.1555;-0.5526;
395.4000;0.1465;-0.5702;
395.7000;0.1425;-0.5727;
396.0000;0.1457;-0.5752;
396.3000;0.1457;-0.5727;
396.6000;0.1457;-0.5727;
396.9000;0.1457;-0.5752;
397.2000;0.1465;-0.5727;
397.5000;0.1449;-0.5727;
397.8000;0.1457;-0.5652;
398.1000;0.1449;-0.5626;
398.4000;0.1465;-0.5601;
398.7000;0.1457;-0.5526;
399.0000;0.1457;-0.5576;
399.3000;0.1449;-0.5576;
399.6000;0.1481;-0.5425;
399.9000;0.1473;-0.5451;
400.2000;0.1457;-0.5400;
400.5000;0.1457;-0.5451;
400.8000;0.1457;-0.5425;
401.1000;0.1465;-0.5375;
401.4000;0.1441;-0.5476;
401.7000;0.1449;-0.5451;
402.0000;0.1457;-0.5325;
402.3000;0.1473;-0.5325;
402.6000;0.1441;-0.5400;
402.9000;0.1457;-0.5350;
403.2000;0.1441;-0.5451;
403.5000;0.1449;-0.5476;
403.8000;0.1457;-0.5425;
404.1000;0.1465;-0.5375;
404.4000;0.1555;-0.5124;
404.7000;0.1473;-0.5501;
405.0000;0.1457;-0.5501;
405.3000;0.1433;-0.5526;
405.6000;0.1465;-0.5375;
405.9000;0.1490;-0.5275;
406.2000;0.1465;-0.5375;
406.5000;0.1457;-0.5425;
406.8000;0.1465;-0.5400;
407.1000;0.1441;-0.5501;
407.4000;0.1481;-0.5476;
407.7000;0.1408;-0.5727;
408.0000;0.1433;-0.5702;
408.3000;0.1457;-0.5652;
408.6000;0.1481;-0.5626;
408.9000;0.1433;-0.5752;
409.2000;0.1457;-0.5652;
409.5000;0.1465;-0.5576;
409.8000;0.1498;-0.5501;
410.1000;0.1473;-0.5702;
410.4000;0.1457;-0.5752;
410.7000;0.1441;-0.5777;
411.0000;0.1449;-0.5727;
411.3000;0.1449;-0.5677;
411.6000;0.1465;-0.5526;
411.9000;0.1530;-0.5325;
412.2000;0.1465;-0.5551;
412.5000;0.1522;-0.5425;
412.8000;0.1473;-0.5601;
413.1000;0.1465;-0.5652;
413.4000;0.1465;-0.5727;
413.7000;0.1465;-0.5677;
414.0000;0.1441;-0.5727;
414.3000;0.1425;-0.5702;
414.6000;0.1457;-0.5551;
414.9000;0.1457;-0.5601;
415.2000;0.1441;-0.5626;
415.5000;0.1441;-0.5677;
415.8000;0.1416;-0.5727;
416.1000;0.1457;-0.5576;
416.4000;0.1457;-0.5677;
416.7000;0.1449;-0.5752;
417.0000;0.1457;-0.5576;
417.3000;0.1457;-0.5601;
417.6000;0.1457;-0.5526;
417.9000;0.1457;-0.5576;
418.2000;0.1473;-0.5526;
418.5000;0.1465;-0.5526;
418.8000;0.1465;-0.5576;
419.1000;0.1457;-0.5626;
419.4000;0.1449;-0.5702;
419.7000;0.1457;-0.5652;
420.0000;0.1465;-0.5652;
420.3000;0.1441;-0.5727;
420.6000;0.1441;-0.5752;
420.9000;0.1457;-0.5601;
421.2000;0.1441;-0.5601;
421.5000;0.1449;-0.5626;
421.8000;0.1457;-0.5626;
422.1000;0.1473;-0.5551;
422.4000;0.1457;-0.5601;
422.7000;0.1465;-0.5652;
423.0000;0.1457;-0.5601;
423.3000;0.1473;-0.5526;
423.6000;0.1498;-0.5451;
423.9000;0.1465;-0.5476;
424.2000;0.1433;-0.5526;
424.5000;0.1449;-0.5476;
424.8000;0.1490;-0.5451;
425.1000;0.1457;-0.5576;
425.4000;0.1465;-0.5576;
425.7000;0.1457;-0.5677;
426.0000;0.1457;-0.5702;
426.3000;0.1481;-0.5626;
426.6000;0.1473;-0.5652;
426.9000;0.1449;-0.5727;
427.2000;0.1465;-0.5702;
427.5000;0.1473;-0.5652;
427.8000;0.1473;-0.5752;
428.1000;0.1481;-0.5752;
428.4000;0.1425;-0.5878;
428.7000;0.1490;-0.5677;
429.0000;0.1473;-0.5601;
429.3000;0.1465;-0.5601;
429.6000;0.1449;-0.5576;
429.9000;0.1457;-0.5501;
430.2000;0.1571;-0.5199;
430.5000;0.1449;-0.5526;
430.8000;0.1457;-0.5501;
431.1000;0.1473;-0.5526;
431.4000;0.1449;-0.5551;
431.7000;0.1457;-0.5601;
432.0000;0.1457;-0.5601;
432.3000;0.1449;-0.5576;
432.6000;0.1457;-0.5626;
432.9000;0.1473;-0.5727;
433.2000;0.1465;-0.5777;
433.5000;0.1473;-0.5777;
433.8000;0.1441;-0.5727;
434.1000;0.1457;-0.5702;
434.4000;0.1465;-0.5677;
434.7000;0.1457;-0.5601;
435.0000;0.1449;-0.5601;
435.3000;0.1465;-0.5551;
435.6000;0.1449;-0.5652;
435.9000;0.1449;-0.5702;
436.2000;0.1457;-0.5677;
436.5000;0.1506;-0.5551;
436.8000;0.1465;-0.5576;
437.1000;0.1449;-0.5702;
437.4000;0.1481;-0.5677;
437.7000;0.1465;-0.5727;
438.0000;0.1351;-0.5978;
438.3000;0.1457;-0.5802;
438.6000;0.1457;-0.5752;
438.9000;0.1457;-0.5802;
439.2000;0.1473;-0.5702;
439.5000;0.1473;-0.5652;
439.8000;0.1457;-0.5677;
440.1000;0.1465;-0.5551;
440.4000;0.1457;-0.5476;
440.7000;0.1433;-0.5626;
441.0000;0.1457;-0.5702;
441.3000;0.1449;-0.5752;
441.6000;0.1465;-0.5727;
441.9000;0.1473;-0.5652;
442.2000;0.1425;-0.5802;
442.5000;0.1457;-0.5677;
442.8000;0.1473;-0.5626;
443.1000;0.1547;-0.5375;
443.4000;0.1441;-0.5626;
443.7000;0.1441;-0.5626;
444.0000;0.1498;-0.5526;
444.3000;0.1457;-0.5702;
444.6000;0.1433;-0.5752;
444.9000;0.1441;-0.5702;
445.2000;0.1449;-0.5652;
445.5000;0.1473;-0.5727;
445.8000;0.1449;-0.5777;
446.1000;0.1490;-0.5652;
446.4000;0.1449;-0.5702;
446.7000;0.1425;-0.5626;
447.0000;0.1457;-0.5526;
447.3000;0.1465;-0.5551;
447.6000;0.1425;-0.5551;
447.9000;0.1465;-0.5451;
448.2000;0.1473;-0.5501;
448.5000;0.1425;-0.5601;
448.8000;0.1473;-0.5451;
449.1000;0.1490;-0.5350;
449.4000;0.1433;-0.5526;
449.7000;0.1457;-0.5400;
450.0000;0.1433;-0.5476;
450.3000;0.1457;-0.5626;
450.6000;0.1457;-0.5626;
450.9000;0.1457;-0.5601;
451.2000;0.1441;-0.5677;
451.5000;0.1465;-0.5526;
451.8000;0.1433;-0.5601;
452.1000;0.1457;-0.5551;
452.4000;0.1473;-0.5526;
452.7000;0.1481;-0.5526;
453.0000;0.1473;-0.5576;
453.3000;0.1449;-0.5702;
453.6000;0.1441;-0.5777;
453.9000;0.1449;-0.5802;
454.2000;0.1457;-0.5752;
454.5000;0.1449;-0.5677;
454.8000;0.1449;-0.5576;
455.1000;0.1449;-0.5652;
455.4000;0.1473;-0.5601;
455.7000;0.1571;-0.5250;
456.0000;0.1457;-0.5476;
456.3000;0.1473;-0.5451;
456.6000;0.1449;-0.5626;
456.9000;0.1425;-0.5702;
457.2000;0.1457;-0.5526;
457.5000;0.1490;-0.5425;
457.8000;0.1465;-0.5526;
458.1000;0.1481;-0.5551;
458.4000;0.1425;-0.5702;
458.7000;0.1465;-0.5576;
459.0000;0.1457;-0.5677;
459.3000;0.1498;-0.5551;
459.6000;0.1457;-0.5551;
459.9000;0.1490;-0.5425;
460.2000;0.1465;-0.5526;
460.5000;0.1514;-0.5400;
460.8000;0.1481;-0.5551;
461.1000;0.1514;-0.5551;
461.4000;0.1441;-0.5752;
461.7000;0.1449;-0.5727;
462.0000;0.1465;-0.5576;
462.3000;0.1335;-0.5903;
462.6000;0.1433;-0.5601;
462.9000;0.1441;-0.5576;
463.2000;0.1457;-0.5501;
463.5000;0.1465;-0.5476;
463.8000;0.1441;-0.5526;
464.1000;0.1449;-0.5526;
464.4000;0.1449;-0.5576;
464.7000;0.1449;-0.5601;
465.0000;0.1490;-0.5576;
465.3000;0.1449;-0.5576;
465.6000;0.1498;-0.5350;
465.9000;0.1514;-0.5300;
466.2000;0.1441;-0.5551;
466.5000;0.1449;-0.5626;
466.8000;0.1449;-0.5677;
467.1000;0.1465;-0.5727;
467.4000;0.1481;-0.5802;
467.7000;0.1563;-0.5601;
468.0000;0.1449;-0.5777;
468.3000;0.1465;-0.5702;
468.6000;0.1473;-0.5652;
468.9000;0.1506;-0.5425;
469.2000;0.1473;-0.5400;
469.5000;0.1481;-0.5375;
469.8000;0.1441;-0.5375;
470.1000;0.1473;-0.5400;
470.4000;0.1449;-0.5526;
470.7000;0.1449;-0.5501;
471.0000;0.1457;-0.5451;
471.3000;0.1473;-0.5451;
471.6000;0.1449;-0.5476;
471.9000;0.1506;-0.5350;
472.2000;0.1343;-0.5727;
472.5000;0.1457;-0.5451;
472.8000;0.1449;-0.5551;
473.1000;0.1473;-0.5425;
473.4000;0.1465;-0.5375;
473.7000;0.1425;-0.5451;
474.0000;0.1457;-0.5350;
474.3000;0.1490;-0.5325;
474.6000;0.1441;-0.5350;
474.9000;0.1473;-0.5325;
475.2000;0.1441;-0.5350;
475.5000;0.1449;-0.5325;
475.8000;0.1449;-0.5375;
476.1000;0.1449;-0.5375;
476.4000;0.1449;-0.5425;
476.7000;0.1465;-0.5425;
477.0000;0.1449;-0.5526;
477.3000;0.1465;-0.5425;
477.6000;0.1457;-0.5400;
477.9000;0.1449;-0.5400;
478.2000;0.1425;-0.5526;
478.5000;0.1490;-0.5501;
478.8000;0.1457;-0.5601;
479.1000;0.1465;-0.5601;
479.4000;0.1449;-0.5752;
479.7000;0.1465;-0.5727;
480.0000;0.1522;-0.5526;
480.3000;0.1449;-0.5652;
480.6000;0.1441;-0.5626;
480.9000;0.1465;-0.5601;
481.2000;0.1449;-0.5551;
481.5000;0.1473;-0.5526;
481.8000;0.1522;-0.5375;
482.1000;0.1473;-0.5551;
482.4000;0.1473;-0.5526;
482.7000;0.1441;-0.5576;
483.0000;0.1433;-0.5652;
483.3000;0.1547;-0.5400;
483.6000;0.1481;-0.5501;
483.9000;0.1449;-0.5576;
484.2000;0.1449;-0.5476;
484.5000;0.1465;-0.5451;
484.8000;0.1457;-0.5476;
485.1000;0.1457;-0.5526;
485.4000;0.1457;-0.5476;
485.7000;0.1457;-0.5476;
486.0000;0.1449;-0.5476;
486.3000;0.1465;-0.5350;
486.6000;0.1425;-0.5451;
486.9000;0.1457;-0.5425;
487.2000;0.1416;-0.5652;
487.5000;0.1465;-0.5626;
487.8000;0.1538;-0.5476;
488.1000;0.1465;-0.5652;
488.4000;0.1457;-0.5677;
488.7000;0.1425;-0.5702;
489.0000;0.1449;-0.5451;
489.3000;0.1449;-0.5425;
489.6000;0.1400;-0.5601;
489.9000;0.1449;-0.5626;
490.2000;0.1449;-0.5601;
490.5000;0.1465;-0.5626;
490.8000;0.1441;-0.5677;
491.1000;0.1449;-0.5677;
491.4000;0.1457;-0.5702;
491.7000;0.1449;-0.5852;
492.0000;0.1473;-0.5752;
492.3000;0.1457;-0.5802;
492.6000;0.1457;-0.5777;
492.9000;0.1473;-0.5677;
493.2000;0.1465;-0.5652;
493.5000;0.1473;-0.5601;
493.8000;0.1498;-0.5476;
494.1000;0.1481;-0.5601;
494.4000;0.1465;-0.5576;
494.7000;0.1449;-0.5677;
495.0000;0.1473;-0.5626;
495.3000;0.1481;-0.5702;
495.6000;0.1465;-0.5677;
495.9000;0.1473;-0.5677;
496.2000;0.1416;-0.5827;
496.5000;0.1465;-0.5802;
496.8000;0.1449;-0.5777;
497.1000;0.1457;-0.5727;
497.4000;0.1449;-0.5652;
497.7000;0.1457;-0.5652;
498.0000;0.1449;-0.5677;
498.3000;0.1457;-0.5601;
498.6000;0.1457;-0.5551;
498.9000;0.1441;-0.5576;
499.2000;0.1457;-0.5526;
499.5000;0.1457;-0.5576;
499.8000;0.1481;-0.5526;
500.1000;0.1481;-0.5476;
500.4000;0.1457;-0.5476;
500.7000;0.1433;-0.5677;
501.0000;0.1449;-0.5702;
501.3000;0.1506;-0.5727;
501.6000;0.1473;-0.5777;
501.9000;0.1441;-0.5777;
502.2000;0.1473;-0.5702;
502.5000;0.1481;-0.5677;
502.8000;0.1449;-0.5702;
503.1000;0.1392;-0.5802;
503.4000;0.1408;-0.5752;
503.7000;0.1457;-0.5652;
504.0000;0.1481;-0.5652;
504.3000;0.1457;-0.5601;
504.6000;0.1441;-0.5601;
504.9000;0.1490;-0.5501;
505.2000;0.1416;-0.5727;
505.5000;0.1457;-0.5652;
505.8000;0.1506;-0.5476;
506.1000;0.1457;-0.5652;
506.4000;0.1481;-0.5551;
506.7000;0.1457;-0.5576;
507.0000;0.1457;-0.5626;
507.3000;0.1457;-0.5501;
507.6000;0.1490;-0.5375;
507.9000;0.1449;-0.5526;
508.2000;0.1384;-0.5727;
508.5000;0.1449;-0.5501;
508.8000;0.1457;-0.5476;
509.1000;0.1481;-0.5425;
509.4000;0.1457;-0.5501;
509.7000;0.1457;-0.5626;
510.0000;0.1465;-0.5551;
510.3000;0.1457;-0.5425;
510.6000;0.1449;-0.5526;
510.9000;0.1433;-0.5652;
511.2000;0.1457;-0.5601;
511.5000;0.1457;-0.5677;
511.8000;0.1400;-0.5852;
512.1000;0.1441;-0.5677;
512.4000;0.1449;-0.5551;
512.7000;0.1416;-0.5601;
513.0000;0.1441;-0.5526;
513.3000;0.1473;-0.5451;
513.6000;0.1449;-0.5400;
513.9000;0.1449;-0.5501;
514.2000;0.1457;-0.5476;
514.5000;0.1465;-0.5501;
514.8000;0.1425;-0.5601;
515.1000;0.1473;-0.5576;
515.4000;0.1457;-0.5576;
515.7000;0.1441;-0.5677;
516.0000;0.1449;-0.5752;
516.3000;0.1457;-0.5727;
516.6000;0.1481;-0.5626;
516.9000;0.1473;-0.5601;
517.2000;0.1449;-0.5677;
517.5000;0.1457;-0.5626;
517.8000;0.1465;-0.5626;
518.1000;0.1465;-0.5551;
518.4000;0.1473;-0.5626;
518.7000;0.1465;-0.5626;
519.0000;0.1465;-0.5526;
519.3000;0.1449;-0.5551;
519.6000;0.1433;-0.5526;
519.9000;0.1465;-0.5476;
520.2000;0.1481;-0.5476;
520.5000;0.1433;-0.5576;
520.8000;0.1457;-0.5501;
521.1000;0.1449;-0.5526;
521.4000;0.1457;-0.5626;
521.7000;0.1465;-0.5601;
522.0000;0.1457;-0.5576;
522.3000;0.1408;-0.5501;
522.6000;0.1449;-0.5400;
522.9000;0.1522;-0.5250;
523.2000;0.1465;-0.5476;
523.5000;0.1490;-0.5501;
523.8000;0.1441;-0.5626;
524.1000;0.1457;-0.5677;
524.4000;0.1473;-0.5752;
524.7000;0.1351;-0.5978;
525.0000;0.1441;-0.5626;
525.3000;0.1473;-0.5576;
525.6000;0.1425;-0.5727;
525.9000;0.1408;-0.5652;
526.2000;0.1457;-0.5476;
526.5000;0.1481;-0.5601;
526.8000;0.1425;-0.5652;
527.1000;0.1433;-0.5601;
527.4000;0.1441;-0.5526;
527.7000;0.1433;-0.5526;
528.0000;0.1433;-0.5551;
528.3000;0.1449;-0.5501;
528.6000;0.1457;-0.5451;
528.9000;0.1473;-0.5476;
529.2000;0.1506;-0.5526;
529.5000;0.1425;-0.5727;
529.8000;0.1465;-0.5652;
530.1000;0.1465;-0.5601;
530.4000;0.1449;-0.5576;
530.7000;0.1473;-0.5601;
531.0000;0.1441;-0.5727;
531.3000;0.1408;-0.5802;
531.6000;0.1449;-0.5601;
531.9000;0.1457;-0.5601;
532.2000;0.1441;-0.5576;
532.5000;0.1506;-0.5350;
532.8000;0.1490;-0.5425;
533.1000;0.1457;-0.5501;
533.4000;0.1449;-0.5677;
533.7000;0.1449;-0.5702;
534.0000;0.1457;-0.5702;
534.3000;0.1481;-0.5702;
534.6000;0.1465;-0.5752;
534.9000;0.1441;-0.5802;
535.2000;0.1433;-0.5852;
535.5000;0.1457;-0.5752;
535.8000;0.1441;-0.5777;
536.1000;0.1441;-0.5702;
536.4000;0.1441;-0.5677;
536.7000;0.1449;-0.5601;
537.0000;0.1457;-0.5601;
537.3000;0.1457;-0.5576;
537.6000;0.1441;-0.5702;
537.9000;0.1449;-0.5601;
538.2000;0.1457;-0.5576;
538.5000;0.1457;-0.5652;
538.8000;0.1481;-0.5601;
539.1000;0.1465;-0.5727;
539.4000;0.1465;-0.5727;
539.7000;0.1457;-0.5777;
540.0000;0.1457;-0.5777;
540.3000;0.1457;-0.5626;
540.6000;0.1457;-0.5652;
540.9000;0.1465;-0.5677;
541.2000;0.1457;-0.5727;
541.5000;0.1441;-0.5752;
541.8000;0.1449;-0.5752;
542.1000;0.1465;-0.5727;
542.4000;0.1457;-0.5727;
542.7000;0.1441;-0.5677;
543.0000;0.1457;-0.5626;
543.3000;0.1457;-0.5601;
543.6000;0.1481;-0.5501;
543.9000;0.1473;-0.5576;
544.2000;0.1490;-0.5576;
544.5000;0.1506;-0.5501;
544.8000;0.1473;-0.5626;
545.1000;0.1473;-0.5551;
545.4000;0.1433;-0.5626;
545.7000;0.1449;-0.5451;
546.0000;0.1457;-0.5476;
546.3000;0.1465;-0.5375;
546.6000;0.1465;-0.5425;
546.9000;0.1449;-0.5451;
547.2000;0.1473;-0.5425;
547.5000;0.1514;-0.5300;
547.8000;0.1408;-0.5677;
548.1000;0.1416;-0.5677;
548.4000;0.1449;-0.5702;
548.7000;0.1473;-0.5601;
549.0000;0.1441;-0.5601;
549.3000;0.1441;-0.5601;
549.6000;0.1465;-0.5526;
549.9000;0.1433;-0.5576;
550.2000;0.1465;-0.5526;
550.5000;0.1457;-0.5501;
550.8000;0.1457;-0.5526;
551.1000;0.1449;-0.5551;
551.4000;0.1441;-0.5652;
551.7000;0.1457;-0.5551;
552.0000;0.1441;-0.5526;
552.3000;0.1465;-0.5652;
552.6000;0.1449;-0.5677;
552.9000;0.1465;-0.5727;
553.2000;0.1465;-0.5752;
553.5000;0.1449;-0.5752;
553.8000;0.1473;-0.5727;
554.1000;0.1457;-0.5727;
554.4000;0.1465;-0.5752;
554.7000;0.1522;-0.5601;
555.0000;0.1465;-0.5702;
555.3000;0.1457;-0.5777;
555.6000;0.1449;-0.5802;
555.9000;0.1457;-0.5777;
556.2000;0.1457;-0.5677;
556.5000;0.1449;-0.5802;
556.8000;0.1433;-0.5852;
557.1000;0.1441;-0.5677;
557.4000;0.1465;-0.5677;
557.7000;0.1449;-0.5727;
558.0000;0.1449;-0.5752;
558.3000;0.1457;-0.5677;
558.6000;0.1441;-0.5652;
558.9000;0.1481;-0.5551;
559.2000;0.1473;-0.5601;
559.5000;0.1457;-0.5727;
559.8000;0.1457;-0.5702;
560.1000;0.1490;-0.5601;
560.4000;0.1441;-0.5677;
560.7000;0.1465;-0.5626;
561.0000;0.1465;-0.5626;
561.3000;0.1457;-0.5626;
561.6000;0.1457;-0.5702;
561.9000;0.1449;-0.5677;
562.2000;0.1457;-0.5576;
562.5000;0.1457;-0.5702;
562.8000;0.1506;-0.5501;
563.1000;0.1457;-0.5626;
563.4000;0.1449;-0.5526;
563.7000;0.1449;-0.5451;
564.0000;0.1465;-0.5476;
564.3000;0.1449;-0.5501;
564.6000;0.1425;-0.5626;
564.9000;0.1473;-0.5526;
565.2000;0.1449;-0.5601;
565.5000;0.1473;-0.5576;
565.8000;0.1465;-0.5576;
566.1000;0.1441;-0.5576;
566.4000;0.1506;-0.5400;
566.7000;0.1433;-0.5576;
567.0000;0.1441;-0.5576;
567.3000;0.1441;-0.5501;
567.6000;0.1449;-0.5425;
567.9000;0.1457;-0.5425;
568.2000;0.1441;-0.5551;
568.5000;0.1449;-0.5551;
568.8000;0.1473;-0.5501;
569.1000;0.1457;-0.5551;
569.4000;0.1416;-0.5652;
569.7000;0.1481;-0.5626;
570.0000;0.1441;-0.5802;
570.3000;0.1449;-0.5752;
570.6000;0.1416;-0.5852;
570.9000;0.1441;-0.5827;
571.2000;0.1449;-0.5727;
571.5000;0.1498;-0.5526;
571.8000;0.1449;-0.5601;
572.1000;0.1449;-0.5601;
572.4000;0.1335;-0.5903;
572.7000;0.1506;-0.5425;
573.0000;0.1473;-0.5576;
573.3000;0.1457;-0.5576;
573.6000;0.1457;-0.5551;
573.9000;0.1457;-0.5551;
574.2000;0.1449;-0.5551;
574.5000;0.1457;-0.5526;
574.8000;0.1449;-0.5526;
575.1000;0.1465;-0.5501;
575.4000;0.1465;-0.5425;
575.7000;0.1538;-0.5250;
576.0000;0.1457;-0.5425;
576.3000;0.1473;-0.5476;
576.6000;0.1457;-0.5626;
576.9000;0.1441;-0.5677;
577.2000;0.1384;-0.5878;
577.5000;0.1449;-0.5827;
577.8000;0.1449;-0.5852;
578.1000;0.1506;-0.5677;
578.4000;0.1433;-0.5777;
578.7000;0.1449;-0.5777;
579.0000;0.1490;-0.5702;
579.3000;0.1425;-0.5827;
579.6000;0.1425;-0.5777;
579.9000;0.1449;-0.5752;
580.2000;0.1441;-0.5702;
580.5000;0.1457;-0.5777;
580.8000;0.1506;-0.5777;
581.1000;0.1473;-0.5752;
581.4000;0.1449;-0.5677;
581.7000;0.1408;-0.5802;
582.0000;0.1433;-0.5752;
582.3000;0.1441;-0.5752;
582.6000;0.1465;-0.5777;
582.9000;0.1457;-0.5727;
583.2000;0.1441;-0.5878;
583.5000;0.1465;-0.5777;
583.8000;0.1514;-0.5752;
584.1000;0.1465;-0.5802;
584.4000;0.1490;-0.5702;
584.7000;0.1465;-0.5727;
585.0000;0.1473;-0.5702;
585.3000;0.1457;-0.5601;
585.6000;0.1457;-0.5626;
585.9000;0.1457;-0.5626;
586.2000;0.1449;-0.5576;
586.5000;0.1441;-0.5677;
586.8000;0.1457;-0.5677;
587.1000;0.1465;-0.5702;
587.4000;0.1449;-0.5777;
587.7000;0.1457;-0.5677;
588.0000;0.1490;-0.5626;
588.3000;0.1433;-0.5727;
588.6000;0.1473;-0.5652;
588.9000;0.1481;-0.5677;
589.2000;0.1473;-0.5652;
589.5000;0.1465;-0.5702;
589.8000;0.1481;-0.5576;
590.1000;0.1457;-0.5576;
590.4000;0.1449;-0.5576;
590.7000;0.1441;-0.5476;
591.0000;0.1465;-0.5400;
591.3000;0.1449;-0.5425;
591.6000;0.1465;-0.5425;
591.9000;0.1481;-0.5300;
592.2000;0.1465;-0.5400;
592.5000;0.1457;-0.5400;
592.8000;0.1465;-0.5425;
593.1000;0.1449;-0.5375;
593.4000;0.1425;-0.5526;
593.7000;0.1449;-0.5375;
594.0000;0.1449;-0.5400;
594.3000;0.1449;-0.5375;
594.6000;0.1457;-0.5425;
594.9000;0.1449;-0.5476;
595.2000;0.1530;-0.5275;
595.5000;0.1465;-0.5375;
595.8000;0.1457;-0.5300;
596.1000;0.1473;-0.5225;
596.4000;0.1433;-0.5400;
596.7000;0.1457;-0.5425;
597.0000;0.1457;-0.5375;
597.3000;0.1425;-0.5400;
597.6000;0.1441;-0.5375;
597.9000;0.1408;-0.5501;
598.2000;0.1465;-0.5425;
598.5000;0.1481;-0.5425;
598.8000;0.1425;-0.5576;
599.1000;0.1441;-0.5551;
599.4000;0.1465;-0.5551;
599.7000;0.1449;-0.5677;
600.0000;0.1571;-0.5375;
600.3000;0.1473;-0.5551;
600.6000;0.1449;-0.5626;
600.9000;0.1457;-0.5802;
601.2000;0.1408;-0.6028;
601.5000;0.1384;-0.6229;
601.8000;0.1457;-0.6154;
602.1000;0.1490;-0.6179;
602.4000;0.1400;-0.6631;
602.7000;0.1376;-0.6757;
603.0000;0.1392;-0.6857;
603.3000;0.1425;-0.6933;
603.6000;0.1368;-0.7209;
603.9000;0.1376;-0.7234;
604.2000;0.1376;-0.7284;
604.5000;0.1351;-0.7360;
604.8000;0.1392;-0.7234;
605.1000;0.1294;-0.7560;
605.4000;0.1335;-0.7460;
605.7000;0.1319;-0.7485;
606.0000;0.1376;-0.7435;
606.3000;0.1327;-0.7761;
606.6000;0.1335;-0.7736;
606.9000;0.1286;-0.7862;
607.2000;0.1343;-0.7787;
607.5000;0.1335;-0.7862;
607.8000;0.1392;-0.7761;
608.1000;0.1335;-0.7937;
608.4000;0.1343;-0.7987;
608.7000;0.1335;-0.8013;
609.0000;0.1327;-0.8038;
609.3000;0.1335;-0.7962;
609.6000;0.1335;-0.7912;
609.9000;0.1319;-0.7962;
610.2000;0.1278;-0.8113;
610.5000;0.1319;-0.7987;
610.8000;0.1335;-0.7987;
611.1000;0.1359;-0.7962;
611.4000;0.1319;-0.8013;
611.7000;0.1327;-0.8063;
612.0000;0.1311;-0.8013;
612.3000;0.1335;-0.7937;
612.6000;0.1319;-0.7987;
612.9000;0.1302;-0.7962;
613.2000;0.1311;-0.7962;
613.5000;0.1335;-0.7937;
613.8000;0.1302;-0.8013;
614.1000;0.1262;-0.8113;
614.4000;0.1278;-0.8113;
614.7000;0.1311;-0.8088;
615.0000;0.1335;-0.8038;
615.3000;0.1311;-0.8013;
615.6000;0.1368;-0.7887;
615.9000;0.1384;-0.7862;
616.2000;0.1294;-0.8113;
616.5000;0.1319;-0.8138;
616.8000;0.1327;-0.8163;
617.1000;0.1319;-0.8088;
617.4000;0.1311;-0.8063;
617.7000;0.1327;-0.8138;
618.0000;0.1302;-0.8339;
618.3000;0.1294;-0.8414;
618.6000;0.1311;-0.8364;
618.9000;0.1278;-0.8314;
619.2000;0.1270;-0.8289;
619.5000;0.1294;-0.8314;
619.8000;0.1343;-0.8163;
620.1000;0.1327;-0.8113;
620.4000;0.1319;-0.8113;
620.7000;0.1302;-0.8163;
621.0000;0.1311;-0.8063;
621.3000;0.1237;-0.8264;
621.6000;0.1302;-0.8188;
621.9000;0.1319;-0.8239;
622.2000;0.1311;-0.8214;
622.5000;0.1343;-0.8088;
622.8000;0.1319;-0.8138;
623.1000;0.1319;-0.8163;
623.4000;0.1327;-0.8163;
623.7000;0.1278;-0.8163;
624.0000;0.1311;-0.8113;
624.3000;0.1392;-0.7837;
624.6000;0.1302;-0.8063;
624.9000;0.1319;-0.8113;
625.2000;0.1294;-0.8214;
625.5000;0.1311;-0.8163;
625.8000;0.1319;-0.8188;
626.1000;0.1376;-0.8088;
626.4000;0.1294;-0.8289;
626.7000;0.1286;-0.8440;
627.0000;0.1294;-0.8389;
627.3000;0.1311;-0.8364;
627.6000;0.1286;-0.8364;
627.9000;0.1302;-0.8440;
628.2000;0.1302;-0.8414;
628.5000;0.1311;-0.8314;
628.8000;0.1302;-0.8339;
629.1000;0.1302;-0.8339;
629.4000;0.1302;-0.8214;
629.7000;0.1327;-0.8088;
630.0000;0.1294;-0.8138;
630.3000;0.1302;-0.8188;
630.6000;0.1286;-0.8214;
630.9000;0.1311;-0.8138;
631.2000;0.1319;-0.8188;
631.5000;0.1311;-0.8264;
631.8000;0.1286;-0.8339;
632.1000;0.1278;-0.8264;
632.4000;0.1311;-0.8214;
632.7000;0.1294;-0.8163;
633.0000;0.1294;-0.8188;
633.3000;0.1302;-0.8188;
633.6000;0.1311;-0.8063;
633.9000;0.1319;-0.7962;
634.2000;0.1286;-0.8013;
634.5000;0.1311;-0.7937;
634.8000;0.1319;-0.8013;
635.1000;0.1319;-0.8063;
635.4000;0.1270;-0.8239;
635.7000;0.1286;-0.8214;
636.0000;0.1311;-0.8038;
636.3000;0.1311;-0.8163;
636.6000;0.1343;-0.8088;
636.9000;0.1311;-0.8214;
637.2000;0.1286;-0.8214;
637.5000;0.1319;-0.8088;
637.8000;0.1286;-0.8214;
638.1000;0.1319;-0.8214;
638.4000;0.1302;-0.8188;
638.7000;0.1335;-0.8063;
639.0000;0.1311;-0.8088;
639.3000;0.1311;-0.8138;
639.6000;0.1400;-0.7887;
639.9000;0.1311;-0.8214;
640.2000;0.1302;-0.8289;
640.5000;0.1270;-0.8314;
640.8000;0.1311;-0.8163;
641.1000;0.1302;-0.8188;
641.4000;0.1343;-0.8038;
641.7000;0.1294;-0.8163;
642.0000;0.1286;-0.8088;
642.3000;0.1319;-0.8038;
642.6000;0.1311;-0.8063;
642.9000;0.1278;-0.8113;
643.2000;0.1294;-0.8088;
643.5000;0.1294;-0.8113;
643.8000;0.1311;-0.8138;
644.1000;0.1302;-0.8239;
644.4000;0.1286;-0.8314;
644.7000;0.1302;-0.8214;
645.0000;0.1319;-0.8188;
645.3000;0.1311;-0.8214;
645.6000;0.1302;-0.8063;
645.9000;0.1319;-0.8038;
646.2000;0.1311;-0.8038;
646.5000;0.1311;-0.8063;
646.8000;0.1302;-0.8163;
647.1000;0.1319;-0.8214;
647.4000;0.1311;-0.8188;
647.7000;0.1319;-0.8264;
648.0000;0.1311;-0.8264;
648.3000;0.1311;-0.8389;
648.6000;0.1311;-0.8440;
648.9000;0.1319;-0.8364;
649.2000;0.1302;-0.8414;
649.5000;0.1302;-0.8389;
649.8000;0.1319;-0.8314;
650.1000;0.1335;-0.8364;
650.4000;0.1294;-0.8414;
650.7000;0.1302;-0.8440;
651.0000;0.1286;-0.8414;
651.3000;0.1359;-0.8214;
651.6000;0.1319;-0.8314;
651.9000;0.1294;-0.8364;
652.2000;0.1302;-0.8339;
652.5000;0.1302;-0.8314;
652.8000;0.1311;-0.8339;
653.1000;0.1294;-0.8440;
653.4000;0.1302;-0.8414;
653.7000;0.1311;-0.8414;
654.0000;0.1294;-0.8465;
654.3000;0.1319;-0.8339;
654.6000;0.1327;-0.8314;
654.9000;0.1311;-0.8289;
655.2000;0.1311;-0.8314;
655.5000;0.1327;-0.8289;
655.8000;0.1311;-0.8289;
656.1000;0.1286;-0.8339;
656.4000;0.1319;-0.8314;
656.7000;0.1302;-0.8289;
657.0000;0.1286;-0.8314;
657.3000;0.1319;-0.8214;
657.6000;0.1286;-0.8239;
657.9000;0.1294;-0.8239;
658.2000;0.1311;-0.8339;
658.5000;0.1302;-0.8314;
658.8000;0.1311;-0.8289;
659.1000;0.1302;-0.8289;
659.4000;0.1319;-0.8214;
659.7000;0.1294;-0.8289;
660.0000;0.1319;-0.8239;
660.3000;0.1319;-0.8239;
660.6000;0.1278;-0.8364;
660.9000;0.1327;-0.8314;
661.2000;0.1311;-0.8314;
661.5000;0.1319;-0.8264;
661.8000;0.1319;-0.8339;
662.1000;0.1311;-0.8314;
662.4000;0.1294;-0.8264;
662.7000;0.1311;-0.8214;
663.0000;0.1302;-0.8264;
663.3000;0.1278;-0.8314;
663.6000;0.1327;-0.8214;
663.9000;0.1294;-0.8163;
664.2000;0.1311;-0.8063;
664.5000;0.1319;-0.8013;
664.8000;0.1311;-0.8113;
665.1000;0.1319;-0.8138;
665.4000;0.1311;-0.8264;
665.7000;0.1359;-0.8239;
666.0000;0.1311;-0.8289;
666.3000;0.1302;-0.8214;
666.6000;0.1311;-0.8188;
666.9000;0.1262;-0.8289;
667.2000;0.1278;-0.8264;
667.5000;0.1384;-0.8088;
667.8000;0.1294;-0.8364;
668.1000;0.1327;-0.8188;
668.4000;0.1311;-0.8188;
668.7000;0.1302;-0.8188;
669.0000;0.1311;-0.8088;
669.3000;0.1302;-0.8063;
669.6000;0.1294;-0.8063;
669.9000;0.1294;-0.7987;
670.2000;0.1302;-0.8013;
670.5000;0.1262;-0.8163;
670.8000;0.1286;-0.8113;
671.1000;0.1311;-0.8138;
671.4000;0.1302;-0.8138;
671.7000;0.1302;-0.8138;
672.0000;0.1302;-0.8138;
672.3000;0.1302;-0.8214;
672.6000;0.1302;-0.8188;
672.9000;0.1319;-0.8188;
673.2000;0.1294;-0.8264;
673.5000;0.1302;-0.8214;
673.8000;0.1294;-0.8264;
674.1000;0.1294;-0.8289;
674.4000;0.1311;-0.8289;
674.7000;0.1302;-0.8389;
675.0000;0.1286;-0.8414;
675.3000;0.1311;-0.8339;
675.6000;0.1311;-0.8289;
675.9000;0.1319;-0.8188;
676.2000;0.1294;-0.8339;
676.5000;0.1302;-0.8364;
676.8000;0.1302;-0.8364;
677.1000;0.1294;-0.8465;
677.4000;0.1302;-0.8440;
677.7000;0.1286;-0.8440;
678.0000;0.1311;-0.8364;
678.3000;0.1319;-0.8389;
678.6000;0.1319;-0.8289;
678.9000;0.1294;-0.8364;
679.2000;0.1311;-0.8314;
679.5000;0.1311;-0.8239;
679.8000;0.1302;-0.8314;
680.1000;0.1278;-0.8389;
680.4000;0.1327;-0.8314;
680.7000;0.1327;-0.8364;
681.0000;0.1319;-0.8364;
681.3000;0.1302;-0.8414;
681.6000;0.1302;-0.8364;
681.9000;0.1254;-0.8389;
682.2000;0.1311;-0.8264;
682.5000;0.1311;-0.8214;
682.8000;0.1311;-0.8264;
683.1000;0.1302;-0.8264;
683.4000;0.1302;-0.8214;
683.7000;0.1302;-0.8239;
684.0000;0.1221;-0.8490;
684.3000;0.1302;-0.8264;
684.6000;0.1311;-0.8188;
684.9000;0.1302;-0.8138;
685.2000;0.1311;-0.8188;
685.5000;0.1311;-0.8163;
685.8000;0.1327;-0.8113;
686.1000;0.1319;-0.8113;
686.4000;0.1188;-0.8414;
686.7000;0.1351;-0.7987;
687.0000;0.1286;-0.8088;
687.3000;0.1302;-0.7962;
687.6000;0.1237;-0.8239;
687.9000;0.1278;-0.8063;
688.2000;0.1302;-0.8088;
688.5000;0.1302;-0.8088;
688.8000;0.1294;-0.8214;
689.1000;0.1278;-0.8314;
689.4000;0.1311;-0.8214;
689.7000;0.1351;-0.8038;
690.0000;0.1294;-0.8113;
690.3000;0.1319;-0.8113;
690.6000;0.1311;-0.8138;
690.9000;0.1302;-0.8214;
691.2000;0.1311;-0.8214;
691.5000;0.1286;-0.8214;
691.8000;0.1302;-0.8163;
692.1000;0.1319;-0.8163;
692.4000;0.1400;-0.7837;
692.7000;0.1294;-0.8214;
693.0000;0.1302;-0.8239;
693.3000;0.1311;-0.8314;
693.6000;0.1311;-0.8163;
693.9000;0.1335;-0.8113;
694.2000;0.1278;-0.8188;
694.5000;0.1319;-0.8088;
694.8000;0.1311;-0.8138;
695.1000;0.1319;-0.8188;
695.4000;0.1319;-0.8163;
695.7000;0.1327;-0.8163;
696.0000;0.1294;-0.8188;
696.3000;0.1302;-0.8038;
696.6000;0.1294;-0.8038;
696.9000;0.1245;-0.8088;
697.2000;0.1319;-0.7837;
697.5000;0.1302;-0.7987;
697.8000;0.1302;-0.7987;
698.1000;0.1262;-0.8113;
698.4000;0.1286;-0.8013;
698.7000;0.1286;-0.7987;
699.0000;0.1254;-0.7962;
699.3000;0.1311;-0.7862;
699.6000;0.1311;-0.7987;
699.9000;0.1286;-0.8038;
700.2000;0.1311;-0.8063;
700.5000;0.1286;-0.8188;
700.8000;0.1286;-0.8163;
701.1000;0.1376;-0.7887;
701.4000;0.1294;-0.8063;
701.7000;0.1302;-0.7987;
702.0000;0.1294;-0.7962;
702.3000;0.1311;-0.7937;
702.6000;0.1302;-0.7837;
702.9000;0.1327;-0.7887;
703.2000;0.1311;-0.7962;
703.5000;0.1294;-0.8063;
703.8000;0.1294;-0.7987;
704.1000;0.1294;-0.8113;
704.4000;0.1302;-0.8063;
704.7000;0.1311;-0.7937;
705.0000;0.1311;-0.7837;
705.3000;0.1311;-0.7787;
705.6000;0.1294;-0.7837;
705.9000;0.1229;-0.8038;
706.2000;0.1319;-0.7761;
706.5000;0.1286;-0.7912;
706.8000;0.1302;-0.7912;
707.1000;0.1294;-0.7937;
707.4000;0.1302;-0.7962;
707.7000;0.1302;-0.7987;
708.0000;0.1294;-0.8013;
708.3000;0.1270;-0.7962;
708.6000;0.1286;-0.7962;
708.9000;0.1286;-0.8088;
709.2000;0.1335;-0.8013;
709.5000;0.1311;-0.8138;
709.8000;0.1294;-0.8289;
710.1000;0.1319;-0.8239;
710.4000;0.1335;-0.8214;
710.7000;0.1327;-0.8214;
711.0000;0.1335;-0.8188;
711.3000;0.1270;-0.8289;
711.6000;0.1311;-0.8188;
711.9000;0.1245;-0.8364;
712.2000;0.1302;-0.8113;
712.5000;0.1270;-0.8188;
712.8000;0.1351;-0.8013;
713.1000;0.1302;-0.8163;
713.4000;0.1327;-0.8013;
713.7000;0.1319;-0.8113;
714.0000;0.1302;-0.8163;
714.3000;0.1335;-0.8214;
714.6000;0.1294;-0.8264;
714.9000;0.1294;-0.8188;
715.2000;0.1286;-0.8063;
715.5000;0.1278;-0.8038;
715.8000;0.1262;-0.8113;
716.1000;0.1311;-0.7962;
716.4000;0.1294;-0.8063;
716.7000;0.1319;-0.8163;
717.0000;0.1335;-0.8038;
717.3000;0.1335;-0.7987;
717.6000;0.1302;-0.8088;
717.9000;0.1311;-0.8113;
718.2000;0.1311;-0.8088;
718.5000;0.1302;-0.8138;
718.8000;0.1319;-0.8113;
719.1000;0.1302;-0.8138;
719.4000;0.1294;-0.8138;
719.7000;0.1294;-0.8188;
720.0000;0.1327;-0.8088;
720.3000;0.1286;-0.8138;
720.6000;0.1302;-0.8038;
720.9000;0.1319;-0.8038;
721.2000;0.1311;-0.8038;
721.5000;0.1294;-0.8138;
721.8000;0.1311;-0.8038;
722.1000;0.1278;-0.8088;
722.4000;0.1270;-0.8038;
722.7000;0.1278;-0.8013;
723.0000;0.1278;-0.7962;
723.3000;0.1286;-0.7937;
723.6000;0.1302;-0.8013;
723.9000;0.1294;-0.8013;
724.2000;0.1319;-0.7987;
724.5000;0.1302;-0.8163;
724.8000;0.1302;-0.8163;
725.1000;0.1319;-0.8088;
725.4000;0.1286;-0.8163;
725.7000;0.1286;-0.8163;
726.0000;0.1327;-0.8163;
726.3000;0.1408;-0.7962;
726.6000;0.1400;-0.8038;
726.9000;0.1254;-0.8314;
727.2000;0.1311;-0.8163;
727.5000;0.1319;-0.8063;
727.8000;0.1319;-0.8038;
728.1000;0.1302;-0.8113;
728.4000;0.1286;-0.8188;
728.7000;0.1327;-0.8138;
729.0000;0.1327;-0.8163;
729.3000;0.1302;-0.8289;
729.6000;0.1302;-0.8289;
729.9000;0.1286;-0.8264;
730.2000;0.1294;-0.8113;
730.5000;0.1327;-0.8113;
730.8000;0.1376;-0.8088;
731.1000;0.1311;-0.8314;
731.4000;0.1302;-0.8364;
731.7000;0.1286;-0.8364;
732.0000;0.1416;-0.7937;
732.3000;0.1343;-0.8188;
732.6000;0.1359;-0.8113;
732.9000;0.1319;-0.8138;
733.2000;0.1237;-0.8364;
733.5000;0.1262;-0.8314;
733.8000;0.1286;-0.8214;
734.1000;0.1319;-0.8138;
734.4000;0.1286;-0.8188;
734.7000;0.1286;-0.8188;
735.0000;0.1335;-0.8188;
735.3000;0.1270;-0.8389;
735.6000;0.1302;-0.8465;
735.9000;0.1270;-0.8440;
736.2000;0.1359;-0.8264;
736.5000;0.1302;-0.8414;
736.8000;0.1270;-0.8440;
737.1000;0.1302;-0.8364;
737.4000;0.1311;-0.8389;
737.7000;0.1327;-0.8339;
738.0000;0.1335;-0.8364;
738.3000;0.1302;-0.8540;
738.6000;0.1302;-0.8515;
738.9000;0.1302;-0.8615;
739.2000;0.1343;-0.8540;
739.5000;0.1294;-0.8540;
739.8000;0.1311;-0.8515;
740.1000;0.1319;-0.8465;
740.4000;0.1311;-0.8490;
740.7000;0.1286;-0.8615;
741.0000;0.1294;-0.8490;
741.3000;0.1343;-0.8364;
741.6000;0.1294;-0.8440;
741.9000;0.1376;-0.8239;
742.2000;0.1302;-0.8414;
742.5000;0.1286;-0.8414;
742.8000;0.1311;-0.8440;
743.1000;0.1294;-0.8515;
743.4000;0.1302;-0.8414;
743.7000;0.1327;-0.8339;
744.0000;0.1302;-0.8389;
744.3000;0.1319;-0.8364;
744.6000;0.1294;-0.8490;
744.9000;0.1278;-0.8465;
745.2000;0.1294;-0.8239;
745.5000;0.1311;-0.8264;
745.8000;0.1294;-0.8364;
746.1000;0.1311;-0.8414;
746.4000;0.1294;-0.8465;
746.7000;0.1302;-0.8490;
747.0000;0.1286;-0.8565;
747.3000;0.1278;-0.8666;
747.6000;0.1294;-0.8641;
747.9000;0.1302;-0.8691;
748.2000;0.1302;-0.8641;
748.5000;0.1286;-0.8590;
748.8000;0.1286;-0.8490;
749.1000;0.1302;-0.8515;
749.4000;0.1294;-0.8615;
749.7000;0.1302;-0.8641;
750.0000;0.1294;-0.8716;
750.3000;0.1311;-0.8716;
750.6000;0.1319;-0.8716;
750.9000;0.1294;-0.8766;
751.2000;0.1319;-0.8666;
751.5000;0.1286;-0.8741;
751.8000;0.1302;-0.8716;
752.1000;0.1319;-0.8666;
752.4000;0.1262;-0.8791;
752.7000;0.1302;-0.8716;
753.0000;0.1278;-0.8816;
753.3000;0.1327;-0.8716;
753.6000;0.1311;-0.8741;
753.9000;0.1294;-0.8766;
754.2000;0.1302;-0.8766;
754.5000;0.1302;-0.8741;
754.8000;0.1311;-0.8791;
755.1000;0.1278;-0.8816;
755.4000;0.1286;-0.8716;
755.7000;0.1311;-0.8615;
756.0000;0.1359;-0.8490;
756.3000;0.1319;-0.8565;
756.6000;0.1343;-0.8565;
756.9000;0.1294;-0.8691;
757.2000;0.1188;-0.8766;
757.5000;0.1262;-0.8440;
757.8000;0.1278;-0.8389;
758.1000;0.1351;-0.8188;
758.4000;0.1384;-0.8188;
758.7000;0.1286;-0.8414;
759.0000;0.1335;-0.8389;
759.3000;0.1245;-0.8540;
759.6000;0.1254;-0.8465;
759.9000;0.1302;-0.8389;
760.2000;0.1278;-0.8414;
760.5000;0.1376;-0.8163;
760.8000;0.1286;-0.8440;
761.1000;0.1294;-0.8490;
761.4000;0.1311;-0.8465;
761.7000;0.1302;-0.8465;
762.0000;0.1311;-0.8414;
762.3000;0.1294;-0.8440;
762.6000;0.1278;-0.8440;
762.9000;0.1294;-0.8239;
763.2000;0.1286;-0.8239;
763.5000;0.1294;-0.8389;
763.8000;0.1286;-0.8414;
764.1000;0.1270;-0.8339;
764.4000;0.1286;-0.8214;
764.7000;0.1302;-0.8163;
765.0000;0.1294;-0.8289;
765.3000;0.1311;-0.8239;
765.6000;0.1302;-0.8289;
765.9000;0.1311;-0.8239;
766.2000;0.1294;-0.8314;
766.5000;0.1311;-0.8289;
766.8000;0.1302;-0.8239;
767.1000;0.1294;-0.8289;
767.4000;0.1294;-0.8214;
767.7000;0.1278;-0.8264;
768.0000;0.1286;-0.8188;
768.3000;0.1302;-0.8113;
768.6000;0.1319;-0.8113;
768.9000;0.1294;-0.8339;
769.2000;0.1294;-0.8339;
769.5000;0.1327;-0.8289;
769.8000;0.1311;-0.8440;
770.1000;0.1327;-0.8414;
770.4000;0.1311;-0.8440;
770.7000;0.1335;-0.8314;
771.0000;0.1311;-0.8188;
771.3000;0.1302;-0.8214;
771.6000;0.1335;-0.8163;
771.9000;0.1302;-0.8289;
772.2000;0.1270;-0.8239;
772.5000;0.1294;-0.8138;
772.8000;0.1302;-0.8163;
773.1000;0.1278;-0.8138;
773.4000;0.1343;-0.8138;
773.7000;0.1262;-0.8389;
774.0000;0.1229;-0.8465;
774.3000;0.1343;-0.8163;
774.6000;0.1302;-0.8264;
774.9000;0.1302;-0.8339;
775.2000;0.1384;-0.8138;
775.5000;0.1319;-0.8239;
775.8000;0.1311;-0.8264;
776.1000;0.1311;-0.8239;
776.4000;0.1302;-0.8214;
776.7000;0.1319;-0.8163;
777.0000;0.1302;-0.8314;
777.3000;0.1294;-0.8364;
777.6000;0.1311;-0.8440;
777.9000;0.1343;-0.8414;
778.2000;0.1286;-0.8666;
778.5000;0.1278;-0.8641;
778.8000;0.1302;-0.8540;
779.1000;0.1311;-0.8565;
779.4000;0.1311;-0.8590;
779.7000;0.1302;-0.8540;
780.0000;0.1319;-0.8540;
780.3000;0.1270;-0.8490;
780.6000;0.1311;-0.8264;
780.9000;0.1294;-0.8239;
781.2000;0.1311;-0.8214;
781.5000;0.1335;-0.8163;
781.8000;0.1302;-0.8163;
782.1000;0.1286;-0.8188;
782.4000;0.1286;-0.8138;
782.7000;0.1311;-0.8138;
783.0000;0.1286;-0.8138;
783.3000;0.1294;-0.8163;
783.6000;0.1311;-0.8239;
783.9000;0.1262;-0.8440;
784.2000;0.1278;-0.8440;
784.5000;0.1302;-0.8440;
784.8000;0.1229;-0.8615;
785.1000;0.1278;-0.8440;
785.4000;0.1286;-0.8440;
785.7000;0.1302;-0.8389;
786.0000;0.1302;-0.8364;
786.3000;0.1294;-0.8314;
786.6000;0.1302;-0.8364;
786.9000;0.1286;-0.8414;
787.2000;0.1286;-0.8440;
787.5000;0.1270;-0.8565;
787.8000;0.1294;-0.8465;
788.1000;0.1311;-0.8515;
788.4000;0.1311;-0.8615;
788.7000;0.1311;-0.8641;
789.0000;0.1311;-0.8666;
789.3000;0.1302;-0.8615;
789.6000;0.1294;-0.8691;
789.9000;0.1286;-0.8791;
790.2000;0.1302;-0.8741;
790.5000;0.1302;-0.8615;
790.8000;0.1319;-0.8615;
791.1000;0.1278;-0.8641;
791.4000;0.1319;-0.8540;
791.7000;0.1327;-0.8490;
792.0000;0.1302;-0.8490;
792.3000;0.1262;-0.8540;
792.6000;0.1294;-0.8414;
792.9000;0.1294;-0.8389;
793.2000;0.1302;-0.8239;
793.5000;0.1302;-0.8188;
793.8000;0.1254;-0.8364;
794.1000;0.1245;-0.8389;
794.4000;0.1302;-0.8188;
794.7000;0.1302;-0.8214;
795.0000;0.1294;-0.8239;
795.3000;0.1294;-0.8214;
795.6000;0.1270;-0.8389;
795.9000;0.1286;-0.8364;
796.2000;0.1286;-0.8339;
796.5000;0.1302;-0.8239;
796.8000;0.1311;-0.8239;
797.1000;0.1294;-0.8188;
797.4000;0.1302;-0.8138;
797.7000;0.1237;-0.8339;
798.0000;0.1270;-0.8214;
798.3000;0.1270;-0.8314;
798.6000;0.1286;-0.8314;
798.9000;0.1384;-0.8063;
799.2000;0.1311;-0.8289;
799.5000;0.1311;-0.8239;
799.8000;0.1270;-0.8465;
800.1000;0.1311;-0.8264;
800.4000;0.1278;-0.8339;
800.7000;0.1294;-0.8264;
801.0000;0.1286;-0.8163;
801.3000;0.1319;-0.8138;
801.6000;0.1286;-0.8188;
801.9000;0.1294;-0.8239;
802.2000;0.1319;-0.8188;
802.5000;0.1302;-0.8188;
802.8000;0.1302;-0.8163;
803.1000;0.1302;-0.8138;
803.4000;0.1286;-0.8113;
803.7000;0.1294;-0.8188;
804.0000;0.1302;-0.8113;
804.3000;0.1294;-0.8163;
804.6000;0.1294;-0.8264;
804.9000;0.1302;-0.8289;
805.2000;0.1302;-0.8289;
805.5000;0.1319;-0.8314;
805.8000;0.1294;-0.8289;
806.1000;0.1311;-0.8289;
806.4000;0.1319;-0.8239;
806.7000;0.1294;-0.8314;
807.0000;0.1286;-0.8339;
807.3000;0.1311;-0.8214;
807.6000;0.1294;-0.8138;
807.9000;0.1262;-0.8163;
808.2000;0.1302;-0.8138;
808.5000;0.1286;-0.8188;
808.8000;0.1254;-0.8239;
809.1000;0.1311;-0.8063;
809.4000;0.1254;-0.8289;
809.7000;0.1302;-0.8163;
810.0000;0.1302;-0.8264;
810.3000;0.1237;-0.8615;
810.6000;0.1311;-0.8515;
810.9000;0.1278;-0.8590;
811.2000;0.1294;-0.8590;
811.5000;0.1319;-0.8465;
811.8000;0.1319;-0.8440;
812.1000;0.1294;-0.8414;
812.4000;0.1302;-0.8389;
812.7000;0.1376;-0.8214;
813.0000;0.1408;-0.8138;
813.3000;0.1311;-0.8414;
813.6000;0.1278;-0.8414;
813.9000;0.1286;-0.8389;
814.2000;0.1327;-0.8188;
814.5000;0.1311;-0.8264;
814.8000;0.1311;-0.8314;
815.1000;0.1262;-0.8389;
815.4000;0.1311;-0.8314;
815.7000;0.1311;-0.8339;
816.0000;0.1319;-0.8214;
816.3000;0.1311;-0.8138;
816.6000;0.1319;-0.8264;
816.9000;0.1311;-0.8289;
817.2000;0.1286;-0.8289;
817.5000;0.1294;-0.8289;
817.8000;0.1343;-0.8113;
818.1000;0.1286;-0.8188;
818.4000;0.1294;-0.8239;
818.7000;0.1294;-0.8339;
819.0000;0.1302;-0.8339;
819.3000;0.1294;-0.8364;
819.6000;0.1286;-0.8389;
819.9000;0.1302;-0.8414;
820.2000;0.1302;-0.8314;
820.5000;0.1302;-0.8214;
820.8000;0.1302;-0.8163;
821.1000;0.1319;-0.8138;
821.4000;0.1327;-0.8214;
821.7000;0.1319;-0.8163;
822.0000;0.1319;-0.8088;
822.3000;0.1311;-0.8163;
822.6000;0.1302;-0.8188;
822.9000;0.1311;-0.8063;
823.2000;0.1278;-0.8214;
823.5000;0.1311;-0.8188;
823.8000;0.1294;-0.8163;
824.1000;0.1286;-0.8188;
824.4000;0.1294;-0.8314;
824.7000;0.1294;-0.8339;
825.0000;0.1335;-0.8264;
825.3000;0.1327;-0.8314;
825.6000;0.1319;-0.8289;
825.9000;0.1302;-0.8339;
826.2000;0.1302;-0.8289;
826.5000;0.1311;-0.8214;
826.8000;0.1311;-0.8264;
827.1000;0.1351;-0.8088;
827.4000;0.1302;-0.8188;
827.7000;0.1302;-0.8163;
828.0000;0.1278;-0.8214;
828.3000;0.1294;-0.8264;
828.6000;0.1311;-0.8289;
828.9000;0.1302;-0.8289;
829.2000;0.1302;-0.8264;
829.5000;0.1319;-0.8239;
829.8000;0.1294;-0.8314;
830.1000;0.1302;-0.8339;
830.4000;0.1229;-0.8440;
830.7000;0.1311;-0.8214;
831.0000;0.1327;-0.8088;
831.3000;0.1302;-0.8088;
831.6000;0.1302;-0.8163;
831.9000;0.1311;-0.8163;
832.2000;0.1327;-0.8188;
832.5000;0.1237;-0.8490;
832.8000;0.1294;-0.8339;
833.1000;0.1254;-0.8414;
833.4000;0.1351;-0.8163;
833.7000;0.1319;-0.8214;
834.0000;0.1327;-0.8264;
834.3000;0.1319;-0.8239;
834.6000;0.1302;-0.8239;
834.9000;0.1302;-0.8314;
835.2000;0.1278;-0.8339;
835.5000;0.1311;-0.8239;
835.8000;0.1319;-0.8289;
836.1000;0.1311;-0.8314;
836.4000;0.1319;-0.8314;
836.7000;0.1302;-0.8339;
837.0000;0.1311;-0.8364;
837.3000;0.1286;-0.8364;
837.6000;0.1302;-0.8389;
837.9000;0.1286;-0.8414;
838.2000;0.1311;-0.8314;
838.5000;0.1302;-0.8264;
838.8000;0.1294;-0.8389;
839.1000;0.1319;-0.8314;
839.4000;0.1311;-0.8289;
839.7000;0.1319;-0.8214;
840.0000;0.1286;-0.8289;
840.3000;0.1294;-0.8264;
840.6000;0.1302;-0.8264;
840.9000;0.1335;-0.8188;
841.2000;0.1343;-0.8113;
841.5000;0.1335;-0.8138;
841.8000;0.1262;-0.8264;
842.1000;0.1311;-0.8214;
842.4000;0.1311;-0.8239;
842.7000;0.1254;-0.8440;
843.0000;0.1311;-0.8289;
843.3000;0.1343;-0.8214;
843.6000;0.1245;-0.8465;
843.9000;0.1294;-0.8389;
844.2000;0.1351;-0.8264;
844.5000;0.1343;-0.8364;
844.8000;0.1302;-0.8440;
845.1000;0.1327;-0.8339;
845.4000;0.1311;-0.8364;
845.7000;0.1286;-0.8465;
846.0000;0.1343;-0.8339;
846.3000;0.1319;-0.8490;
846.6000;0.1294;-0.8615;
846.9000;0.1294;-0.8565;
847.2000;0.1359;-0.8414;
847.5000;0.1229;-0.8615;
847.8000;0.1294;-0.8515;
848.1000;0.1400;-0.8239;
848.4000;0.1359;-0.8239;
848.7000;0.1254;-0.8490;
849.0000;0.1286;-0.8465;
849.3000;0.1270;-0.8515;
849.6000;0.1327;-0.8264;
849.9000;0.1302;-0.8314;
850.2000;0.1172;-0.8590;
850.5000;0.1278;-0.8239;
850.8000;0.1302;-0.8264;
851.1000;0.1278;-0.8264;
851.4000;0.1319;-0.8188;
851.7000;0.1286;-0.8239;
852.0000;0.1302;-0.8314;
852.3000;0.1319;-0.8314;
852.6000;0.1327;-0.8188;
852.9000;0.1294;-0.8314;
853.2000;0.1286;-0.8339;
853.5000;0.1237;-0.8414;
853.8000;0.1302;-0.8289;
854.1000;0.1286;-0.8339;
854.4000;0.1368;-0.8088;
854.7000;0.1294;-0.8264;
855.0000;0.1311;-0.8163;
855.3000;0.1311;-0.8163;
855.6000;0.1302;-0.8214;
855.9000;0.1294;-0.8239;
856.2000;0.1319;-0.8163;
856.5000;0.1319;-0.8214;
856.8000;0.1302;-0.8339;
857.1000;0.1319;-0.8364;
857.4000;0.1319;-0.8389;
857.7000;0.1302;-0.8364;
858.0000;0.1294;-0.8314;
858.3000;0.1376;-0.8088;
858.6000;0.1302;-0.8239;
858.9000;0.1319;-0.8188;
859.2000;0.1319;-0.8214;
859.5000;0.1286;-0.8239;
859.8000;0.1359;-0.8038;
860.1000;0.1327;-0.7962;
860.4000;0.1311;-0.8013;
860.7000;0.1319;-0.8038;
861.0000;0.1319;-0.8038;
861.3000;0.1359;-0.8038;
861.6000;0.1311;-0.8138;
861.9000;0.1392;-0.8013;
862.2000;0.1311;-0.8314;
862.5000;0.1311;-0.8264;
862.8000;0.1286;-0.8314;
863.1000;0.1319;-0.8239;
863.4000;0.1302;-0.8364;
863.7000;0.1302;-0.8314;
864.0000;0.1302;-0.8339;
864.3000;0.1294;-0.8214;
864.6000;0.1262;-0.8339;
864.9000;0.1319;-0.8264;
865.2000;0.1254;-0.8389;
865.5000;0.1270;-0.8389;
865.8000;0.1270;-0.8389;
866.1000;0.1311;-0.8314;
866.4000;0.1302;-0.8389;
866.7000;0.1262;-0.8414;
867.0000;0.1327;-0.8289;
867.3000;0.1335;-0.8289;
867.6000;0.1294;-0.8339;
867.9000;0.1302;-0.8339;
868.2000;0.1319;-0.8389;
868.5000;0.1278;-0.8465;
868.8000;0.1302;-0.8414;
869.1000;0.1294;-0.8389;
869.4000;0.1319;-0.8239;
869.7000;0.1359;-0.8138;
870.0000;0.1319;-0.8138;
870.3000;0.1335;-0.8138;
870.6000;0.1302;-0.8239;
870.9000;0.1294;-0.8214;
871.2000;0.1327;-0.8138;
871.5000;0.1335;-0.8113;
871.8000;0.1311;-0.8188;
872.1000;0.1343;-0.8088;
872.4000;0.1327;-0.8138;
872.7000;0.1319;-0.8113;
873.0000;0.1286;-0.8239;
873.3000;0.1294;-0.8314;
873.6000;0.1294;-0.8389;
873.9000;0.1311;-0.8314;
874.2000;0.1278;-0.8314;
874.5000;0.1270;-0.8239;
874.8000;0.1335;-0.8138;
875.1000;0.1335;-0.8163;
875.4000;0.1359;-0.8138;
875.7000;0.1327;-0.8389;
876.0000;0.1278;-0.8490;
876.3000;0.1319;-0.8440;
876.6000;0.1229;-0.8716;
876.9000;0.1294;-0.8590;
877.2000;0.1302;-0.8590;
877.5000;0.1294;-0.8615;
877.8000;0.1311;-0.8565;
878.1000;0.1294;-0.8465;
878.4000;0.1294;-0.8440;
878.7000;0.1302;-0.8364;
879.0000;0.1302;-0.8364;
879.3000;0.1319;-0.8264;
879.6000;0.1294;-0.8339;
879.9000;0.1294;-0.8339;
880.2000;0.1302;-0.8339;
880.5000;0.1319;-0.8264;
880.8000;0.1302;-0.8339;
881.1000;0.1311;-0.8214;
881.4000;0.1327;-0.8188;
881.7000;0.1302;-0.8289;
882.0000;0.1311;-0.8339;
882.3000;0.1327;-0.8314;
882.6000;0.1311;-0.8214;
882.9000;0.1311;-0.8138;
883.2000;0.1311;-0.8163;
883.5000;0.1376;-0.8063;
883.8000;0.1335;-0.8138;
884.1000;0.1311;-0.8264;
884.4000;0.1327;-0.8163;
884.7000;0.1302;-0.8264;
885.0000;0.1294;-0.8314;
885.3000;0.1302;-0.8314;
885.6000;0.1294;-0.8364;
885.9000;0.1302;-0.8440;
886.2000;0.1311;-0.8490;
886.5000;0.1311;-0.8465;
886.8000;0.1286;-0.8414;
887.1000;0.1311;-0.8490;
887.4000;0.1302;-0.8540;
887.7000;0.1319;-0.8615;
888.0000;0.1311;-0.8666;
888.3000;0.1294;-0.8741;
888.6000;0.1294;-0.8641;
888.9000;0.1319;-0.8691;
889.2000;0.1327;-0.8590;
889.5000;0.1319;-0.8515;
889.8000;0.1278;-0.8490;
890.1000;0.1302;-0.8339;
890.4000;0.1302;-0.8440;
890.7000;0.1286;-0.8414;
891.0000;0.1294;-0.8239;
891.3000;0.1302;-0.8163;
891.6000;0.1294;-0.8138;
891.9000;0.1311;-0.8038;
892.2000;0.1278;-0.8163;
892.5000;0.1294;-0.8188;
892.8000;0.1294;-0.8163;
893.1000;0.1294;-0.8113;
893.4000;0.1286;-0.8038;
893.7000;0.1302;-0.8038;
894.0000;0.1302;-0.8088;
894.3000;0.1351;-0.8038;
894.6000;0.1302;-0.8113;
894.9000;0.1302;-0.8239;
895.2000;0.1311;-0.8264;
895.5000;0.1343;-0.8163;
895.8000;0.1302;-0.8239;
896.1000;0.1302;-0.8239;
896.4000;0.1327;-0.8264;
896.7000;0.1302;-0.8339;
897.0000;0.1237;-0.8515;
897.3000;0.1302;-0.8289;
897.6000;0.1327;-0.8113;
897.9000;0.1294;-0.8163;
898.2000;0.1311;-0.8138;
898.5000;0.1359;-0.7887;
898.8000;0.1311;-0.7912;
899.1000;0.1294;-0.8013;
899.4000;0.1294;-0.8038;
899.7000;0.1302;-0.8188;
900.0000;0.1302;-0.8264;
900.3000;0.1311;-0.8239;
900.6000;0.1302;-0.8264;
900.9000;0.1229;-0.8414;
901.2000;0.1319;-0.8289;
901.5000;0.1302;-0.8364;
901.8000;0.1262;-0.8565;
902.1000;0.1319;-0.8414;
902.4000;0.1270;-0.8565;
902.7000;0.1302;-0.8490;
903.0000;0.1302;-0.8465;
903.3000;0.1245;-0.8641;
903.6000;0.1327;-0.8465;
903.9000;0.1294;-0.8414;
904.2000;0.1319;-0.8389;
904.5000;0.1302;-0.8364;
904.8000;0.1327;-0.8314;
905.1000;0.1311;-0.8314;
905.4000;0.1213;-0.8590;
905.7000;0.1302;-0.8339;
906.0000;0.1327;-0.8289;
906.3000;0.1302;-0.8314;
906.6000;0.1327;-0.8188;
906.9000;0.1327;-0.8239;
907.2000;0.1335;-0.8239;
907.5000;0.1319;-0.8314;
907.8000;0.1311;-0.8314;
908.1000;0.1343;-0.8188;
908.4000;0.1311;-0.8188;
908.7000;0.1294;-0.8239;
909.0000;0.1343;-0.8063;
909.3000;0.1319;-0.8113;
909.6000;0.1286;-0.8214;
909.9000;0.1302;-0.8214;
910.2000;0.1302;-0.8214;
910.5000;0.1302;-0.8239;
910.8000;0.1319;-0.8188;
911.1000;0.1302;-0.8188;
911.4000;0.1311;-0.8163;
911.7000;0.1294;-0.8339;
912.0000;0.1319;-0.8264;
912.3000;0.1294;-0.8188;
912.6000;0.1237;-0.8239;
912.9000;0.1294;-0.8214;
913.2000;0.1302;-0.8163;
913.5000;0.1311;-0.8138;
913.8000;0.1319;-0.8264;
914.1000;0.1327;-0.8188;
914.4000;0.1343;-0.8138;
914.7000;0.1311;-0.8264;
915.0000;0.1384;-0.7987;
915.3000;0.1302;-0.8239;
915.6000;0.1319;-0.8214;
915.9000;0.1311;-0.8188;
916.2000;0.1311;-0.8188;
916.5000;0.1311;-0.8214;
916.8000;0.1319;-0.8339;
917.1000;0.1311;-0.8264;
917.4000;0.1351;-0.8214;
917.7000;0.1311;-0.8289;
918.0000;0.1278;-0.8389;
918.3000;0.1343;-0.8239;
918.6000;0.1311;-0.8314;
918.9000;0.1319;-0.8264;
919.2000;0.1270;-0.8138;
919.5000;0.1294;-0.8138;
919.8000;0.1335;-0.8063;
920.1000;0.1311;-0.8138;
920.4000;0.1278;-0.8214;
920.7000;0.1302;-0.8188;
921.0000;0.1416;-0.7937;
921.3000;0.1392;-0.7962;
921.6000;0.1311;-0.8214;
921.9000;0.1319;-0.8138;
922.2000;0.1327;-0.8088;
922.5000;0.1311;-0.8088;
922.8000;0.1302;-0.8113;
923.1000;0.1327;-0.7987;
923.4000;0.1311;-0.8088;
923.7000;0.1270;-0.8239;
924.0000;0.1286;-0.8188;
924.3000;0.1294;-0.8214;
924.6000;0.1327;-0.8163;
924.9000;0.1311;-0.8214;
925.2000;0.1286;-0.8214;
925.5000;0.1262;-0.8264;
925.8000;0.1327;-0.8113;
926.1000;0.1294;-0.8188;
926.4000;0.1302;-0.8214;
926.7000;0.1286;-0.8264;
927.0000;0.1311;-0.8264;
927.3000;0.1311;-0.8339;
927.6000;0.1311;-0.8289;
927.9000;0.1262;-0.8314;
928.2000;0.1286;-0.8314;
928.5000;0.1416;-0.7912;
928.8000;0.1311;-0.8163;
929.1000;0.1302;-0.8163;
929.4000;0.1294;-0.8214;
929.7000;0.1311;-0.8214;
930.0000;0.1359;-0.8113;
930.3000;0.1319;-0.8289;
930.6000;0.1302;-0.8314;
930.9000;0.1294;-0.8389;
931.2000;0.1327;-0.8239;
931.5000;0.1319;-0.8138;
931.8000;0.1311;-0.8188;
932.1000;0.1319;-0.8138;
932.4000;0.1294;-0.8188;
932.7000;0.1311;-0.8063;
933.0000;0.1319;-0.8013;
933.3000;0.1294;-0.8088;
933.6000;0.1302;-0.8113;
933.9000;0.1278;-0.8113;
934.2000;0.1294;-0.8138;
934.5000;0.1294;-0.8188;
934.8000;0.1278;-0.8289;
935.1000;0.1335;-0.8188;
935.4000;0.1311;-0.8264;
935.7000;0.1311;-0.8239;
936.0000;0.1311;-0.8163;
936.3000;0.1319;-0.8163;
936.6000;0.1351;-0.8013;
936.9000;0.1343;-0.8163;
937.2000;0.1311;-0.8214;
937.5000;0.1319;-0.8188;
937.8000;0.1319;-0.8113;
938.1000;0.1254;-0.8214;
938.4000;0.1302;-0.8188;
938.7000;0.1278;-0.8214;
939.0000;0.1311;-0.8138;
939.3000;0.1197;-0.8364;
939.6000;0.1294;-0.8113;
939.9000;0.1327;-0.8038;
940.2000;0.1286;-0.8163;
940.5000;0.1286;-0.8163;
940.8000;0.1294;-0.8163;
941.1000;0.1294;-0.8163;
941.4000;0.1327;-0.8063;
941.7000;0.1327;-0.8088;
942.0000;0.1368;-0.7912;
942.3000;0.1262;-0.8188;
942.6000;0.1319;-0.8013;
942.9000;0.1254;-0.8214;
943.2000;0.1319;-0.8038;
943.5000;0.1302;-0.8113;
943.8000;0.1302;-0.8088;
944.1000;0.1319;-0.7987;
944.4000;0.1278;-0.8163;
944.7000;0.1327;-0.8063;
945.0000;0.1302;-0.8063;
945.3000;0.1384;-0.7862;
945.6000;0.1311;-0.8088;
945.9000;0.1262;-0.8163;
946.2000;0.1294;-0.8038;
946.5000;0.1229;-0.8264;
946.8000;0.1302;-0.8113;
947.1000;0.1262;-0.8113;
947.4000;0.1254;-0.8188;
947.7000;0.1368;-0.7987;
948.0000;0.1286;-0.8239;
948.3000;0.1294;-0.8214;
948.6000;0.1319;-0.8163;
948.9000;0.1302;-0.8188;
949.2000;0.1294;-0.8314;
949.5000;0.1286;-0.8339;
949.8000;0.1302;-0.8239;
950.1000;0.1343;-0.8138;
950.4000;0.1327;-0.8113;
950.7000;0.1335;-0.8113;
951.0000;0.1286;-0.8289;
951.3000;0.1351;-0.7987;
951.6000;0.1311;-0.8163;
951.9000;0.1319;-0.8088;
952.2000;0.1286;-0.8214;
952.5000;0.1302;-0.8239;
952.8000;0.1319;-0.8188;
953.1000;0.1294;-0.8389;
953.4000;0.1302;-0.8239;
953.7000;0.1311;-0.8163;
954.0000;0.1343;-0.8038;
954.3000;0.1286;-0.8138;
954.6000;0.1286;-0.8113;
954.9000;0.1311;-0.8088;
955.2000;0.1302;-0.8138;
955.5000;0.1327;-0.8163;
955.8000;0.1351;-0.8138;
956.1000;0.1319;-0.8188;
956.4000;0.1294;-0.8239;
956.7000;0.1311;-0.8138;
957.0000;0.1302;-0.8188;
957.3000;0.1302;-0.8188;
957.6000;0.1270;-0.8289;
957.9000;0.1311;-0.8138;
958.2000;0.1319;-0.8188;
958.5000;0.1302;-0.8239;
958.8000;0.1278;-0.8314;
959.1000;0.1327;-0.8239;
959.4000;0.1327;-0.8289;
959.7000;0.1311;-0.8414;
960.0000;0.1319;-0.8490;
960.3000;0.1302;-0.8540;
960.6000;0.1368;-0.8264;
960.9000;0.1311;-0.8364;
961.2000;0.1294;-0.8289;
961.5000;0.1311;-0.8214;
961.8000;0.1319;-0.8163;
962.1000;0.1319;-0.8113;
962.4000;0.1319;-0.8138;
962.7000;0.1302;-0.8214;
963.0000;0.1311;-0.8214;
963.3000;0.1319;-0.8289;
963.6000;0.1319;-0.8414;
963.9000;0.1327;-0.8414;
964.2000;0.1294;-0.8364;
964.5000;0.1302;-0.8314;
964.8000;0.1302;-0.8364;
965.1000;0.1294;-0.8414;
965.4000;0.1311;-0.8364;
965.7000;0.1302;-0.8314;
966.0000;0.1286;-0.8214;
966.3000;0.1262;-0.8314;
966.6000;0.1311;-0.8138;
966.9000;0.1319;-0.8113;
967.2000;0.1311;-0.8264;
967.5000;0.1351;-0.8113;
967.8000;0.1302;-0.8314;
968.1000;0.1278;-0.8339;
968.4000;0.1351;-0.8214;
968.7000;0.1311;-0.8364;
969.0000;0.1286;-0.8414;
969.3000;0.1319;-0.8289;
969.6000;0.1359;-0.8264;
969.9000;0.1294;-0.8339;
970.2000;0.1302;-0.8490;
970.5000;0.1351;-0.8314;
970.8000;0.1319;-0.8364;
971.1000;0.1302;-0.8339;
971.4000;0.1286;-0.8414;
971.7000;0.1327;-0.8289;
972.0000;0.1302;-0.8239;
972.3000;0.1311;-0.8239;
972.6000;0.1311;-0.8264;
972.9000;0.1294;-0.8214;
973.2000;0.1311;-0.8188;
973.5000;0.1302;-0.8264;
973.8000;0.1384;-0.7987;
974.1000;0.1311;-0.8138;
974.4000;0.1254;-0.8264;
974.7000;0.1286;-0.8214;
975.0000;0.1286;-0.8214;
975.3000;0.1302;-0.8214;
975.6000;0.1311;-0.8188;
975.9000;0.1302;-0.8239;
976.2000;0.1319;-0.8188;
976.5000;0.1254;-0.8264;
976.8000;0.1311;-0.8113;
977.1000;0.1286;-0.8214;
977.4000;0.1302;-0.8214;
977.7000;0.1278;-0.8314;
978.0000;0.1302;-0.8214;
978.3000;0.1319;-0.8239;
978.6000;0.1278;-0.8289;
978.9000;0.1327;-0.8188;
979.2000;0.1335;-0.8138;
979.5000;0.1311;-0.8113;
979.8000;0.1319;-0.8088;
980.1000;0.1254;-0.8239;
980.4000;0.1319;-0.8113;
980.7000;0.1319;-0.8138;
981.0000;0.1416;-0.7912;
981.3000;0.1319;-0.8214;
981.6000;0.1302;-0.8239;
981.9000;0.1351;-0.8038;
982.2000;0.1302;-0.8038;
982.5000;0.1319;-0.7987;
982.8000;0.1302;-0.8063;
983.1000;0.1302;-0.8038;
983.4000;0.1294;-0.8188;
983.7000;0.1245;-0.8440;
984.0000;0.1294;-0.8289;
984.3000;0.1294;-0.8289;
984.6000;0.1278;-0.8414;
984.9000;0.1278;-0.8339;
985.2000;0.1302;-0.8264;
985.5000;0.1311;-0.8314;
985.8000;0.1319;-0.8264;
986.1000;0.1294;-0.8239;
986.4000;0.1319;-0.8214;
986.7000;0.1294;-0.8339;
987.0000;0.1392;-0.8113;
987.3000;0.1302;-0.8088;
987.6000;0.1311;-0.8138;
987.9000;0.1302;-0.8239;
988.2000;0.1311;-0.8214;
988.5000;0.1359;-0.8138;
988.8000;0.1302;-0.8264;
989.1000;0.1302;-0.8163;
989.4000;0.1270;-0.8264;
989.7000;0.1311;-0.8163;
990.0000;0.1254;-0.8314;
990.3000;0.1302;-0.8163;
990.6000;0.1286;-0.8113;
990.9000;0.1294;-0.8163;
991.2000;0.1311;-0.8188;
991.5000;0.1351;-0.8063;
991.8000;0.1294;-0.8214;
992.1000;0.1311;-0.8163;
992.4000;0.1286;-0.8163;
992.7000;0.1294;-0.8188;
993.0000;0.1294;-0.8214;
993.3000;0.1302;-0.8339;
993.6000;0.1254;-0.8440;
993.9000;0.1384;-0.8163;
994.2000;0.1311;-0.8364;
994.5000;0.1294;-0.8389;
994.8000;0.1302;-0.8364;
995.1000;0.1327;-0.8339;
995.4000;0.1311;-0.8440;
995.7000;0.1319;-0.8440;
996.0000;0.1319;-0.8414;
996.3000;0.1294;-0.8465;
996.6000;0.1311;-0.8389;
996.9000;0.1286;-0.8540;
997.2000;0.1335;-0.8364;
997.5000;0.1294;-0.8440;
997.8000;0.1311;-0.8440;
998.1000;0.1302;-0.8515;
998.4000;0.1311;-0.8515;
998.7000;0.1319;-0.8465;
999.0000;0.1286;-0.8515;
999.3000;0.1286;-0.8490;
999.6000;0.1278;-0.8339;
999.9000;0.1311;-0.8188;
1000.2000;0.1294;-0.8289;
1000.5000;0.1319;-0.8239;
1000.8000;0.1319;-0.8239;
1001.1000;0.1302;-0.8364;
1001.4000;0.1294;-0.8339;
1001.7000;0.1254;-0.8440;
1002.0000;0.1294;-0.8339;
1002.3000;0.1311;-0.8364;
1002.6000;0.1311;-0.8314;
1002.9000;0.1294;-0.8339;
1003.2000;0.1311;-0.8289;
1003.5000;0.1302;-0.8289;
1003.8000;0.1319;-0.8314;
1004.1000;0.1311;-0.8289;
1004.4000;0.1311;-0.8339;
1004.7000;0.1351;-0.8264;
1005.0000;0.1302;-0.8314;
1005.3000;0.1302;-0.8339;
1005.6000;0.1311;-0.8364;
1005.9000;0.1343;-0.8239;
1006.2000;0.1278;-0.8465;
1006.5000;0.1319;-0.8414;
1006.8000;0.1319;-0.8440;
1007.1000;0.1351;-0.8389;
1007.4000;0.1286;-0.8615;
1007.7000;0.1319;-0.8465;
1008.0000;0.1311;-0.8515;
1008.3000;0.1286;-0.8565;
1008.6000;0.1311;-0.8465;
1008.9000;0.1302;-0.8465;
1009.2000;0.1311;-0.8465;
1009.5000;0.1327;-0.8440;
1009.8000;0.1302;-0.8440;
1010.1000;0.1327;-0.8289;
1010.4000;0.1302;-0.8214;
1010.7000;0.1294;-0.8188;
1011.0000;0.1319;-0.8038;
1011.3000;0.1335;-0.7887;
1011.6000;0.1286;-0.8013;
1011.9000;0.1311;-0.7937;
1012.2000;0.1294;-0.8063;
1012.5000;0.1327;-0.8063;
1012.8000;0.1311;-0.8113;
1013.1000;0.1319;-0.8113;
1013.4000;0.1311;-0.8088;
1013.7000;0.1400;-0.7761;
1014.0000;0.1311;-0.8063;
1014.3000;0.1311;-0.8063;
1014.6000;0.1286;-0.8063;
1014.9000;0.1302;-0.8138;
1015.2000;0.1270;-0.8239;
1015.5000;0.1319;-0.8188;
1015.8000;0.1270;-0.8239;
1016.1000;0.1311;-0.8063;
1016.4000;0.1319;-0.7962;
1016.7000;0.1368;-0.7862;
1017.0000;0.1294;-0.8013;
1017.3000;0.1286;-0.8063;
1017.6000;0.1302;-0.8013;
1017.9000;0.1294;-0.8038;
1018.2000;0.1302;-0.8088;
1018.5000;0.1262;-0.8188;
1018.8000;0.1311;-0.8088;
1019.1000;0.1302;-0.8113;
1019.4000;0.1294;-0.8188;
1019.7000;0.1311;-0.8239;
1020.0000;0.1335;-0.8088;
1020.3000;0.1311;-0.8013;
1020.6000;0.1319;-0.8163;
1020.9000;0.1327;-0.8138;
1021.2000;0.1319;-0.8113;
1021.5000;0.1213;-0.8389;
1021.8000;0.1319;-0.8138;
1022.1000;0.1294;-0.8214;
1022.4000;0.1400;-0.7912;
1022.7000;0.1319;-0.8038;
1023.0000;0.1311;-0.8088;
1023.3000;0.1278;-0.8214;
1023.6000;0.1286;-0.8214;
1023.9000;0.1311;-0.8188;
1024.2000;0.1327;-0.8113;
1024.5000;0.1294;-0.8289;
1024.8000;0.1294;-0.8264;
1025.1000;0.1302;-0.8339;
1025.4000;0.1311;-0.8364;
1025.7000;0.1302;-0.8289;
1026.0000;0.1270;-0.8364;
1026.3000;0.1286;-0.8389;
1026.6000;0.1311;-0.8289;
1026.9000;0.1319;-0.8289;
1027.2000;0.1311;-0.8314;
1027.5000;0.1319;-0.8440;
1027.8000;0.1311;-0.8389;
1028.1000;0.1311;-0.8440;
1028.4000;0.1319;-0.8364;
1028.7000;0.1302;-0.8389;
1029.0000;0.1319;-0.8214;
1029.3000;0.1278;-0.8389;
1029.6000;0.1311;-0.8339;
1029.9000;0.1286;-0.8264;
1030.2000;0.1327;-0.8163;
1030.5000;0.1319;-0.8188;
1030.8000;0.1213;-0.8414;
1031.1000;0.1302;-0.8239;
1031.4000;0.1286;-0.8314;
1031.7000;0.1302;-0.8339;
1032.0000;0.1311;-0.8314;
1032.3000;0.1302;-0.8364;
1032.6000;0.1294;-0.8465;
1032.9000;0.1294;-0.8414;
1033.2000;0.1302;-0.8289;
1033.5000;0.1294;-0.8239;
1033.8000;0.1335;-0.8138;
1034.1000;0.1302;-0.8113;
1034.4000;0.1278;-0.8163;
1034.7000;0.1327;-0.8063;
1035.0000;0.1286;-0.8138;
1035.3000;0.1335;-0.8088;
1035.6000;0.1311;-0.8113;
1035.9000;0.1311;-0.8113;
1036.2000;0.1302;-0.8138;
1036.5000;0.1327;-0.8038;
1036.8000;0.1302;-0.8038;
1037.1000;0.1302;-0.8163;
1037.4000;0.1335;-0.8163;
1037.7000;0.1311;-0.8214;
1038.0000;0.1319;-0.8214;
1038.3000;0.1270;-0.8339;
1038.6000;0.1294;-0.8339;
1038.9000;0.1311;-0.8188;
1039.2000;0.1286;-0.8188;
1039.5000;0.1294;-0.8138;
1039.8000;0.1278;-0.8289;
1040.1000;0.1294;-0.8339;
1040.4000;0.1229;-0.8540;
1040.7000;0.1319;-0.8289;
1041.0000;0.1294;-0.8289;
1041.3000;0.1294;-0.8339;
1041.6000;0.1294;-0.8440;
1041.9000;0.1294;-0.8490;
1042.2000;0.1294;-0.8440;
1042.5000;0.1294;-0.8440;
1042.8000;0.1286;-0.8389;
1043.1000;0.1319;-0.8339;
1043.4000;0.1294;-0.8339;
1043.7000;0.1286;-0.8364;
1044.0000;0.1302;-0.8389;
1044.3000;0.1262;-0.8540;
1044.6000;0.1302;-0.8440;
1044.9000;0.1213;-0.8666;
1045.2000;0.1270;-0.8465;
1045.5000;0.1294;-0.8440;
1045.8000;0.1229;-0.8615;
1046.1000;0.1302;-0.8389;
1046.4000;0.1319;-0.8339;
1046.7000;0.1327;-0.8339;
1047.0000;0.1294;-0.8364;
1047.3000;0.1311;-0.8364;
1047.6000;0.1278;-0.8515;
1047.9000;0.1311;-0.8414;
1048.2000;0.1319;-0.8414;
1048.5000;0.1311;-0.8440;
1048.8000;0.1294;-0.8515;
1049.1000;0.1319;-0.8490;
1049.4000;0.1286;-0.8465;
1049.7000;0.1294;-0.8364;
1050.0000;0.1319;-0.8289;
1050.3000;0.1262;-0.8364;
1050.6000;0.1319;-0.8214;
1050.9000;0.1311;-0.8113;
1051.2000;0.1302;-0.8113;
1051.5000;0.1319;-0.8088;
1051.8000;0.1327;-0.8163;
1052.1000;0.1319;-0.8239;
1052.4000;0.1311;-0.8364;
1052.7000;0.1311;-0.8414;
1053.0000;0.1311;-0.8440;
1053.3000;0.1368;-0.8339;
1053.6000;0.1302;-0.8540;
1053.9000;0.1408;-0.8113;
1054.2000;0.1319;-0.8163;
1054.5000;0.1319;-0.8013;
1054.8000;0.1286;-0.8113;
1055.1000;0.1294;-0.8138;
1055.4000;0.1294;-0.8239;
1055.7000;0.1319;-0.8138;
1056.0000;0.1319;-0.8013;
1056.3000;0.1294;-0.8063;
1056.6000;0.1311;-0.8063;
1056.9000;0.1286;-0.8239;
1057.2000;0.1311;-0.8138;
1057.5000;0.1286;-0.8188;
1057.8000;0.1302;-0.8163;
1058.1000;0.1302;-0.8138;
1058.4000;0.1319;-0.7987;
1058.7000;0.1302;-0.7987;
1059.0000;0.1245;-0.8088;
1059.3000;0.1343;-0.7887;
1059.6000;0.1302;-0.8088;
1059.9000;0.1286;-0.8088;
1060.2000;0.1286;-0.8113;
1060.5000;0.1311;-0.8038;
1060.8000;0.1311;-0.8088;
1061.1000;0.1294;-0.8113;
1061.4000;0.1351;-0.7987;
1061.7000;0.1302;-0.8088;
1062.0000;0.1319;-0.7987;
1062.3000;0.1327;-0.8113;
1062.6000;0.1319;-0.8063;
1062.9000;0.1319;-0.8063;
1063.2000;0.1311;-0.7987;
1063.5000;0.1278;-0.8063;
1063.8000;0.1319;-0.8013;
1064.1000;0.1327;-0.8113;
1064.4000;0.1319;-0.8138;
1064.7000;0.1335;-0.8163;
1065.0000;0.1327;-0.8214;
1065.3000;0.1351;-0.8113;
1065.6000;0.1294;-0.8289;
1065.9000;0.1311;-0.8314;
1066.2000;0.1302;-0.8289;
1066.5000;0.1294;-0.8314;
1066.8000;0.1311;-0.8163;
1067.1000;0.1302;-0.8138;
1067.4000;0.1319;-0.8113;
1067.7000;0.1319;-0.8163;
1068.0000;0.1270;-0.8389;
1068.3000;0.1302;-0.8364;
1068.6000;0.1311;-0.8314;
1068.9000;0.1278;-0.8339;
1069.2000;0.1302;-0.8264;
1069.5000;0.1319;-0.8264;
1069.8000;0.1359;-0.8138;
1070.1000;0.1311;-0.8264;
1070.4000;0.1302;-0.8264;
1070.7000;0.1302;-0.8138;
1071.0000;0.1278;-0.8214;
1071.3000;0.1311;-0.8188;
1071.6000;0.1311;-0.8188;
1071.9000;0.1319;-0.8239;
1072.2000;0.1319;-0.8214;
1072.5000;0.1327;-0.8214;
1072.8000;0.1311;-0.8264;
1073.1000;0.1286;-0.8289;
1073.4000;0.1311;-0.8264;
1073.7000;0.1319;-0.8314;
1074.0000;0.1254;-0.8490;
1074.3000;0.1302;-0.8339;
1074.6000;0.1302;-0.8389;
1074.9000;0.1278;-0.8515;
1075.2000;0.1278;-0.8565;
1075.5000;0.1294;-0.8490;
1075.8000;0.1294;-0.8490;
1076.1000;0.1425;-0.8113;
1076.4000;0.1311;-0.8364;
1076.7000;0.1294;-0.8440;
1077.0000;0.1359;-0.8264;
1077.3000;0.1327;-0.8364;
1077.6000;0.1319;-0.8414;
1077.9000;0.1294;-0.8364;
1078.2000;0.1319;-0.8314;
1078.5000;0.1311;-0.8264;
1078.8000;0.1319;-0.8239;
1079.1000;0.1254;-0.8264;
1079.4000;0.1311;-0.8314;
1079.7000;0.1302;-0.8339;
1080.0000;0.1294;-0.8389;
1080.3000;0.1311;-0.8389;
1080.6000;0.1270;-0.8440;
1080.9000;0.1343;-0.8339;
1081.2000;0.1319;-0.8440;
1081.5000;0.1302;-0.8414;
1081.8000;0.1319;-0.8314;
1082.1000;0.1302;-0.8289;
1082.4000;0.1311;-0.8314;
1082.7000;0.1319;-0.8339;
1083.0000;0.1319;-0.8440;
1083.3000;0.1311;-0.8465;
1083.6000;0.1302;-0.8440;
1083.9000;0.1335;-0.8364;
1084.2000;0.1270;-0.8515;
1084.5000;0.1245;-0.8641;
1084.8000;0.1245;-0.8615;
1085.1000;0.1294;-0.8641;
1085.4000;0.1286;-0.8590;
1085.7000;0.1302;-0.8440;
1086.0000;0.1302;-0.8414;
1086.3000;0.1302;-0.8239;
1086.6000;0.1327;-0.7962;
1086.9000;0.1294;-0.8088;
1087.2000;0.1327;-0.8088;
1087.5000;0.1319;-0.8063;
1087.8000;0.1327;-0.8063;
1088.1000;0.1302;-0.8038;
1088.4000;0.1319;-0.8038;
1088.7000;0.1302;-0.8013;
1089.0000;0.1311;-0.8038;
1089.3000;0.1294;-0.8163;
1089.6000;0.1302;-0.8163;
1089.9000;0.1286;-0.8239;
1090.2000;0.1302;-0.8264;
1090.5000;0.1311;-0.8264;
1090.8000;0.1302;-0.8214;
1091.1000;0.1311;-0.8214;
1091.4000;0.1319;-0.8163;
1091.7000;0.1319;-0.8163;
1092.0000;0.1270;-0.8289;
1092.3000;0.1311;-0.8113;
1092.6000;0.1319;-0.8188;
1092.9000;0.1311;-0.8214;
1093.2000;0.1311;-0.8214;
1093.5000;0.1294;-0.8314;
1093.8000;0.1335;-0.8214;
1094.1000;0.1319;-0.8239;
1094.4000;0.1278;-0.8289;
1094.7000;0.1302;-0.8289;
1095.0000;0.1327;-0.8264;
1095.3000;0.1286;-0.8414;
1095.6000;0.1294;-0.8314;
1095.9000;0.1286;-0.8364;
1096.2000;0.1311;-0.8264;
1096.5000;0.1302;-0.8264;
1096.8000;0.1311;-0.8214;
1097.1000;0.1254;-0.8389;
1097.4000;0.1311;-0.8289;
1097.7000;0.1278;-0.8289;
1098.0000;0.1286;-0.8289;
1098.3000;0.1311;-0.8214;
1098.6000;0.1319;-0.8214;
1098.9000;0.1302;-0.8289;
1099.2000;0.1351;-0.8163;
1099.5000;0.1294;-0.8314;
1099.8000;0.1270;-0.8339;
1100.1000;0.1384;-0.8088;
1100.4000;0.1319;-0.8264;
1100.7000;0.1270;-0.8289;
1101.0000;0.1302;-0.8239;
1101.3000;0.1294;-0.8239;
1101.6000;0.1294;-0.8214;
1101.9000;0.1294;-0.8188;
1102.2000;0.1302;-0.8163;
1102.5000;0.1302;-0.8188;
1102.8000;0.1319;-0.8188;
1103.1000;0.1319;-0.8264;
1103.4000;0.1286;-0.8264;
1103.7000;0.1319;-0.8289;
1104.0000;0.1302;-0.8188;
1104.3000;0.1302;-0.8214;
1104.6000;0.1343;-0.8163;
1104.9000;0.1302;-0.8339;
1105.2000;0.1302;-0.8364;
1105.5000;0.1278;-0.8314;
1105.8000;0.1343;-0.8239;
1106.1000;0.1278;-0.8440;
1106.4000;0.1286;-0.8339;
1106.7000;0.1286;-0.8389;
1107.0000;0.1294;-0.8364;
1107.3000;0.1270;-0.8414;
1107.6000;0.1245;-0.8465;
1107.9000;0.1302;-0.8289;
1108.2000;0.1302;-0.8188;
1108.5000;0.1302;-0.8264;
1108.8000;0.1278;-0.8389;
1109.1000;0.1319;-0.8339;
1109.4000;0.1294;-0.8414;
1109.7000;0.1302;-0.8490;
1110.0000;0.1311;-0.8515;
1110.3000;0.1319;-0.8414;
1110.6000;0.1302;-0.8389;
1110.9000;0.1302;-0.8414;
1111.2000;0.1335;-0.8264;
1111.5000;0.1294;-0.8490;
1111.8000;0.1311;-0.8465;
1112.1000;0.1262;-0.8540;
1112.4000;0.1302;-0.8490;
1112.7000;0.1302;-0.8490;
1113.0000;0.1343;-0.8314;
1113.3000;0.1254;-0.8490;
1113.6000;0.1270;-0.8465;
1113.9000;0.1197;-0.8590;
1114.2000;0.1294;-0.8414;
1114.5000;0.1294;-0.8389;
1114.8000;0.1286;-0.8339;
1115.1000;0.1335;-0.8188;
1115.4000;0.1294;-0.8414;
1115.7000;0.1286;-0.8389;
1116.0000;0.1311;-0.8239;
1116.3000;0.1311;-0.8188;
1116.6000;0.1319;-0.8113;
1116.9000;0.1262;-0.8289;
1117.2000;0.1319;-0.8163;
1117.5000;0.1302;-0.8214;
1117.8000;0.1311;-0.8239;
1118.1000;0.1319;-0.8289;
1118.4000;0.1302;-0.8339;
1118.7000;0.1311;-0.8289;
1119.0000;0.1343;-0.8188;
1119.3000;0.1302;-0.8214;
1119.6000;0.1311;-0.8163;
1119.9000;0.1286;-0.8113;
1120.2000;0.1311;-0.8088;
1120.5000;0.1311;-0.8188;
1120.8000;0.1319;-0.8188;
1121.1000;0.1351;-0.8138;
1121.4000;0.1319;-0.8264;
1121.7000;0.1311;-0.8188;
1122.0000;0.1302;-0.8188;
1122.3000;0.1262;-0.8289;
1122.6000;0.1286;-0.8113;
1122.9000;0.1302;-0.7987;
1123.2000;0.1286;-0.8013;
1123.5000;0.1294;-0.7962;
1123.8000;0.1302;-0.8013;
1124.1000;0.1311;-0.8013;
1124.4000;0.1311;-0.8038;
1124.7000;0.1302;-0.8038;
1125.0000;0.1286;-0.8138;
1125.3000;0.1286;-0.8088;
1125.6000;0.1311;-0.8063;
1125.9000;0.1302;-0.8163;
1126.2000;0.1311;-0.8088;
1126.5000;0.1302;-0.8113;
1126.8000;0.1302;-0.8088;
1127.1000;0.1294;-0.8113;
1127.4000;0.1302;-0.8038;
1127.7000;0.1319;-0.7987;
1128.0000;0.1311;-0.7987;
1128.3000;0.1319;-0.8013;
1128.6000;0.1311;-0.8163;
1128.9000;0.1311;-0.8163;
1129.2000;0.1351;-0.8063;
1129.5000;0.1302;-0.8113;
1129.8000;0.1311;-0.8163;
1130.1000;0.1311;-0.8163;
1130.4000;0.1319;-0.8163;
1130.7000;0.1302;-0.8239;
1131.0000;0.1319;-0.8214;
1131.3000;0.1327;-0.8163;
1131.6000;0.1302;-0.8264;
1131.9000;0.1335;-0.8138;
1132.2000;0.1278;-0.8239;
1132.5000;0.1302;-0.8188;
1132.8000;0.1311;-0.8264;
1133.1000;0.1311;-0.8314;
1133.4000;0.1335;-0.8239;
1133.7000;0.1302;-0.8289;
1134.0000;0.1294;-0.8364;
1134.3000;0.1343;-0.8264;
1134.6000;0.1311;-0.8364;
1134.9000;0.1311;-0.8414;
1135.2000;0.1319;-0.8389;
1135.5000;0.1270;-0.8414;
1135.8000;0.1302;-0.8364;
1136.1000;0.1335;-0.8339;
1136.4000;0.1311;-0.8414;
1136.7000;0.1311;-0.8440;
1137.0000;0.1286;-0.8389;
1137.3000;0.1302;-0.8289;
1137.6000;0.1311;-0.8339;
1137.9000;0.1319;-0.8264;
1138.2000;0.1319;-0.8214;
1138.5000;0.1319;-0.8289;
1138.8000;0.1311;-0.8214;
1139.1000;0.1286;-0.8264;
1139.4000;0.1311;-0.8264;
1139.7000;0.1319;-0.8239;
1140.0000;0.1302;-0.8339;
1140.3000;0.1319;-0.8364;
1140.6000;0.1294;-0.8465;
1140.9000;0.1319;-0.8465;
1141.2000;0.1311;-0.8540;
1141.5000;0.1311;-0.8590;
1141.8000;0.1327;-0.8515;
1142.1000;0.1319;-0.8666;
1142.4000;0.1319;-0.8490;
1142.7000;0.1311;-0.8490;
1143.0000;0.1286;-0.8565;
1143.3000;0.1311;-0.8490;
1143.6000;0.1311;-0.8490;
1143.9000;0.1311;-0.8590;
1144.2000;0.1311;-0.8515;
1144.5000;0.1311;-0.8515;
1144.8000;0.1302;-0.8440;
1145.1000;0.1392;-0.8113;
1145.4000;0.1286;-0.8364;
1145.7000;0.1302;-0.8389;
1146.0000;0.1311;-0.8314;
1146.3000;0.1302;-0.8364;
1146.6000;0.1319;-0.8364;
1146.9000;0.1302;-0.8339;
1147.2000;0.1319;-0.8314;
1147.5000;0.1319;-0.8289;
1147.8000;0.1262;-0.8465;
1148.1000;0.1311;-0.8314;
1148.4000;0.1319;-0.8314;
1148.7000;0.1302;-0.8364;
1149.0000;0.1302;-0.8364;
1149.3000;0.1286;-0.8465;
1149.6000;0.1311;-0.8490;
1149.9000;0.1311;-0.8465;
1150.2000;0.1286;-0.8490;
1150.5000;0.1286;-0.8565;
1150.8000;0.1319;-0.8490;
1151.1000;0.1311;-0.8540;
1151.4000;0.1311;-0.8565;
1151.7000;0.1319;-0.8565;
1152.0000;0.1294;-0.8615;
1152.3000;0.1311;-0.8590;
1152.6000;0.1294;-0.8615;
1152.9000;0.1319;-0.8515;
1153.2000;0.1254;-0.8515;
1153.5000;0.1302;-0.8414;
1153.8000;0.1286;-0.8414;
1154.1000;0.1327;-0.8364;
1154.4000;0.1359;-0.8339;
1154.7000;0.1286;-0.8465;
1155.0000;0.1302;-0.8364;
1155.3000;0.1327;-0.8214;
1155.6000;0.1294;-0.8264;
1155.9000;0.1311;-0.8239;
1156.2000;0.1302;-0.8138;
1156.5000;0.1319;-0.7987;
1156.8000;0.1335;-0.8013;
1157.1000;0.1335;-0.8188;
1157.4000;0.1327;-0.8364;
1157.7000;0.1294;-0.8465;
1158.0000;0.1311;-0.8440;
1158.3000;0.1311;-0.8414;
1158.6000;0.1254;-0.8515;
1158.9000;0.1302;-0.8465;
1159.2000;0.1302;-0.8465;
1159.5000;0.1311;-0.8565;
1159.8000;0.1286;-0.8590;
1160.1000;0.1302;-0.8540;
1160.4000;0.1311;-0.8565;
1160.7000;0.1278;-0.8565;
1161.0000;0.1294;-0.8515;
1161.3000;0.1319;-0.8364;
1161.6000;0.1302;-0.8389;
1161.9000;0.1335;-0.8389;
1162.2000;0.1319;-0.8465;
1162.5000;0.1294;-0.8440;
1162.8000;0.1286;-0.8515;
1163.1000;0.1319;-0.8540;
1163.4000;0.1294;-0.8540;
1163.7000;0.1335;-0.8414;
1164.0000;0.1327;-0.8465;
1164.3000;0.1302;-0.8490;
1164.6000;0.1286;-0.8540;
1164.9000;0.1311;-0.8490;
1165.2000;0.1327;-0.8565;
1165.5000;0.1302;-0.8590;
1165.8000;0.1327;-0.8615;
1166.1000;0.1311;-0.8565;
1166.4000;0.1311;-0.8590;
1166.7000;0.1311;-0.8540;
1167.0000;0.1351;-0.8389;
1167.3000;0.1286;-0.8515;
1167.6000;0.1319;-0.8364;
1167.9000;0.1270;-0.8440;
1168.2000;0.1294;-0.8465;
1168.5000;0.1302;-0.8440;
1168.8000;0.1294;-0.8490;
1169.1000;0.1368;-0.8364;
1169.4000;0.1294;-0.8641;
1169.7000;0.1302;-0.8590;
1170.0000;0.1221;-0.8816;
1170.3000;0.1278;-0.8691;
1170.6000;0.1278;-0.8590;
1170.9000;0.1335;-0.8414;
1171.2000;0.1302;-0.8465;
1171.5000;0.1311;-0.8440;
1171.8000;0.1286;-0.8615;
1172.1000;0.1286;-0.8615;
1172.4000;0.1311;-0.8615;
1172.7000;0.1319;-0.8565;
1173.0000;0.1311;-0.8666;
1173.3000;0.1294;-0.8666;
1173.6000;0.1311;-0.8666;
1173.9000;0.1311;-0.8590;
1174.2000;0.1327;-0.8565;
1174.5000;0.1311;-0.8691;
1174.8000;0.1311;-0.8791;
1175.1000;0.1311;-0.8766;
1175.4000;0.1302;-0.8791;
1175.7000;0.1278;-0.8917;
1176.0000;0.1311;-0.8791;
1176.3000;0.1335;-0.8691;
1176.6000;0.1294;-0.8716;
1176.9000;0.1311;-0.8741;
1177.2000;0.1311;-0.8716;
1177.5000;0.1262;-0.8741;
1177.8000;0.1311;-0.8465;
1178.1000;0.1294;-0.8615;
1178.4000;0.1302;-0.8641;
1178.7000;0.1294;-0.8641;
1179.0000;0.1311;-0.8691;
1179.3000;0.1311;-0.8741;
1179.6000;0.1237;-0.8892;
1179.9000;0.1286;-0.8741;
1180.2000;0.1311;-0.8615;
1180.5000;0.1254;-0.8716;
1180.8000;0.1294;-0.8615;
1181.1000;0.1294;-0.8590;
1181.4000;0.1327;-0.8540;
1181.7000;0.1319;-0.8641;
1182.0000;0.1311;-0.8615;
1182.3000;0.1319;-0.8691;
1182.6000;0.1311;-0.8691;
1182.9000;0.1311;-0.8666;
1183.2000;0.1311;-0.8641;
1183.5000;0.1302;-0.8615;
1183.8000;0.1311;-0.8540;
1184.1000;0.1270;-0.8666;
1184.4000;0.1302;-0.8641;
1184.7000;0.1311;-0.8615;
1185.0000;0.1319;-0.8615;
1185.3000;0.1319;-0.8641;
1185.6000;0.1319;-0.8615;
1185.9000;0.1319;-0.8590;
1186.2000;0.1408;-0.8339;
1186.5000;0.1311;-0.8615;
1186.8000;0.1302;-0.8641;
1187.1000;0.1319;-0.8590;
1187.4000;0.1311;-0.8615;
1187.7000;0.1319;-0.8641;
1188.0000;0.1319;-0.8666;
1188.3000;0.1327;-0.8540;
1188.6000;0.1319;-0.8490;
1188.9000;0.1302;-0.8515;
1189.2000;0.1286;-0.8565;
1189.5000;0.1294;-0.8590;
1189.8000;0.1302;-0.8565;
1190.1000;0.1327;-0.8414;
1190.4000;0.1311;-0.8465;
1190.7000;0.1286;-0.8515;
1191.0000;0.1294;-0.8440;
1191.3000;0.1302;-0.8414;
1191.6000;0.1311;-0.8389;
1191.9000;0.1302;-0.8515;
1192.2000;0.1213;-0.8666;
1192.5000;0.1302;-0.8389;
1192.8000;0.1302;-0.8364;
1193.1000;0.1245;-0.8465;
1193.4000;0.1294;-0.8239;
1193.7000;0.1368;-0.8188;
1194.0000;0.1294;-0.8389;
1194.3000;0.1302;-0.8414;
1194.6000;0.1302;-0.8465;
1194.9000;0.1302;-0.8414;
1195.2000;0.1302;-0.8364;
1195.5000;0.1286;-0.8389;
1195.8000;0.1294;-0.8364;
1196.1000;0.1302;-0.8364;
1196.4000;0.1278;-0.8465;
1196.7000;0.1319;-0.8465;
1197.0000;0.1302;-0.8389;
1197.3000;0.1311;-0.8314;
1197.6000;0.1302;-0.8289;
1197.9000;0.1286;-0.8339;
1198.2000;0.1311;-0.8239;
1198.5000;0.1311;-0.8264;
1198.8000;0.1311;-0.8364;
1199.1000;0.1319;-0.8440;
1199.4000;0.1311;-0.8565;
1199.7000;0.1302;-0.8615;
1200.0000;0.1302;-0.8490;
1200.3000;0.1392;-0.8339;
1200.6000;0.1302;-0.8641;
1200.9000;0.1327;-0.8540;
1201.2000;0.1294;-0.8565;
1201.5000;0.1302;-0.8465;
1201.8000;0.1335;-0.8465;
1202.1000;0.1327;-0.8440;
1202.4000;0.1302;-0.8590;
1202.7000;0.1319;-0.8565;
1203.0000;0.1311;-0.8565;
1203.3000;0.1311;-0.8540;
1203.6000;0.1311;-0.8565;
1203.9000;0.1319;-0.8666;
1204.2000;0.1319;-0.8590;
1204.5000;0.1270;-0.8691;
1204.8000;0.1319;-0.8590;
1205.1000;0.1262;-0.8691;
1205.4000;0.1302;-0.8590;
1205.7000;0.1294;-0.8565;
1206.0000;0.1302;-0.8615;
1206.3000;0.1302;-0.8691;
1206.6000;0.1302;-0.8615;
1206.9000;0.1262;-0.8691;
1207.2000;0.1302;-0.8590;
1207.5000;0.1294;-0.8666;
1207.8000;0.1311;-0.8565;
1208.1000;0.1311;-0.8515;
1208.4000;0.1294;-0.8490;
1208.7000;0.1294;-0.8565;
1209.0000;0.1302;-0.8590;
1209.3000;0.1302;-0.8414;
1209.6000;0.1302;-0.8440;
1209.9000;0.1294;-0.8490;
1210.2000;0.1319;-0.8414;
1210.5000;0.1311;-0.8465;
1210.8000;0.1319;-0.8414;
1211.1000;0.1335;-0.8364;
1211.4000;0.1302;-0.8389;
1211.7000;0.1286;-0.8414;
1212.0000;0.1302;-0.8339;
1212.3000;0.1319;-0.8314;
1212.6000;0.1319;-0.8440;
1212.9000;0.1319;-0.8414;
1213.2000;0.1335;-0.8364;
1213.5000;0.1319;-0.8314;
1213.8000;0.1311;-0.8389;
1214.1000;0.1359;-0.8264;
1214.4000;0.1311;-0.8389;
1214.7000;0.1302;-0.8364;
1215.0000;0.1311;-0.8314;
1215.3000;0.1311;-0.8389;
1215.6000;0.1294;-0.8440;
1215.9000;0.1302;-0.8490;
1216.2000;0.1302;-0.8440;
1216.5000;0.1286;-0.8515;
1216.8000;0.1237;-0.8691;
1217.1000;0.1278;-0.8615;
1217.4000;0.1311;-0.8540;
1217.7000;0.1302;-0.8590;
1218.0000;0.1245;-0.8716;
1218.3000;0.1294;-0.8515;
1218.6000;0.1343;-0.8389;
1218.9000;0.1327;-0.8440;
1219.2000;0.1311;-0.8490;
1219.5000;0.1319;-0.8465;
1219.8000;0.1327;-0.8389;
1220.1000;0.1311;-0.8364;
1220.4000;0.1302;-0.8289;
1220.7000;0.1311;-0.8239;
1221.0000;0.1294;-0.8289;
1221.3000;0.1335;-0.8188;
1221.6000;0.1351;-0.8188;
1221.9000;0.1311;-0.8389;
1222.2000;0.1425;-0.8113;
1222.5000;0.1327;-0.8465;
1222.8000;0.1294;-0.8565;
1223.1000;0.1294;-0.8540;
1223.4000;0.1302;-0.8490;
1223.7000;0.1319;-0.8364;
1224.0000;0.1302;-0.8339;
1224.3000;0.1319;-0.8314;
1224.6000;0.1311;-0.8214;
1224.9000;0.1302;-0.8214;
1225.2000;0.1302;-0.8214;
1225.5000;0.1302;-0.8214;
1225.8000;0.1359;-0.8163;
1226.1000;0.1335;-0.8314;
1226.4000;0.1302;-0.8364;
1226.7000;0.1294;-0.8389;
1227.0000;0.1302;-0.8414;
1227.3000;0.1286;-0.8414;
1227.6000;0.1311;-0.8314;
1227.9000;0.1319;-0.8314;
1228.2000;0.1319;-0.8339;
1228.5000;0.1335;-0.8364;
1228.8000;0.1254;-0.8540;
1229.1000;0.1351;-0.8289;
1229.4000;0.1376;-0.8264;
1229.7000;0.1319;-0.8540;
1230.0000;0.1311;-0.8666;
1230.3000;0.1351;-0.8565;
1230.6000;0.1319;-0.8691;
1230.9000;0.1302;-0.8741;
1231.2000;0.1302;-0.8691;
1231.5000;0.1311;-0.8565;
1231.8000;0.1294;-0.8565;
1232.1000;0.1302;-0.8515;
1232.4000;0.1343;-0.8414;
1232.7000;0.1319;-0.8440;
1233.0000;0.1311;-0.8364;
1233.3000;0.1278;-0.8465;
1233.6000;0.1294;-0.8440;
1233.9000;0.1327;-0.8364;
1234.2000;0.1311;-0.8389;
1234.5000;0.1311;-0.8440;
1234.8000;0.1302;-0.8389;
1235.1000;0.1302;-0.8414;
1235.4000;0.1294;-0.8364;
1235.7000;0.1302;-0.8389;
1236.0000;0.1294;-0.8414;
1236.3000;0.1319;-0.8389;
1236.6000;0.1311;-0.8515;
1236.9000;0.1294;-0.8615;
1237.2000;0.1302;-0.8565;
1237.5000;0.1311;-0.8540;
1237.8000;0.1311;-0.8540;
1238.1000;0.1311;-0.8465;
1238.4000;0.1302;-0.8515;
1238.7000;0.1311;-0.8515;
1239.0000;0.1302;-0.8440;
1239.3000;0.1286;-0.8465;
1239.6000;0.1311;-0.8440;
1239.9000;0.1319;-0.8414;
1240.2000;0.1327;-0.8339;
1240.5000;0.1319;-0.8264;
1240.8000;0.1294;-0.8414;
1241.1000;0.1270;-0.8440;
1241.4000;0.1311;-0.8264;
1241.7000;0.1294;-0.8289;
1242.0000;0.1294;-0.8339;
1242.3000;0.1278;-0.8440;
1242.6000;0.1294;-0.8364;
1242.9000;0.1311;-0.8414;
1243.2000;0.1294;-0.8414;
1243.5000;0.1302;-0.8414;
1243.8000;0.1311;-0.8414;
1244.1000;0.1286;-0.8440;
1244.4000;0.1294;-0.8440;
1244.7000;0.1311;-0.8414;
1245.0000;0.1311;-0.8440;
1245.3000;0.1335;-0.8389;
1245.6000;0.1319;-0.8414;
1245.9000;0.1311;-0.8364;
1246.2000;0.1311;-0.8239;
1246.5000;0.1302;-0.8289;
1246.8000;0.1319;-0.8239;
1247.1000;0.1302;-0.8264;
1247.4000;0.1294;-0.8314;
1247.7000;0.1302;-0.8389;
1248.0000;0.1302;-0.8414;
1248.3000;0.1327;-0.8389;
1248.6000;0.1302;-0.8490;
1248.9000;0.1311;-0.8465;
1249.2000;0.1319;-0.8414;
1249.5000;0.1311;-0.8389;
1249.8000;0.1311;-0.8389;
1250.1000;0.1319;-0.8339;
1250.4000;0.1311;-0.8364;
1250.7000;0.1302;-0.8414;
1251.0000;0.1213;-0.8691;
1251.3000;0.1311;-0.8490;
1251.6000;0.1294;-0.8490;
1251.9000;0.1302;-0.8565;
1252.2000;0.1302;-0.8465;
1252.5000;0.1294;-0.8414;
1252.8000;0.1343;-0.8264;
1253.1000;0.1311;-0.8289;
1253.4000;0.1302;-0.8264;
1253.7000;0.1319;-0.8188;
1254.0000;0.1286;-0.8364;
1254.3000;0.1327;-0.8339;
1254.6000;0.1319;-0.8339;
1254.9000;0.1286;-0.8465;
1255.2000;0.1270;-0.8490;
1255.5000;0.1278;-0.8465;
1255.8000;0.1311;-0.8440;
1256.1000;0.1376;-0.8214;
1256.4000;0.1294;-0.8490;
1256.7000;0.1311;-0.8540;
1257.0000;0.1294;-0.8515;
1257.3000;0.1286;-0.8465;
1257.6000;0.1319;-0.8414;
1257.9000;0.1359;-0.8339;
1258.2000;0.1311;-0.8440;
1258.5000;0.1319;-0.8490;
1258.8000;0.1319;-0.8440;
1259.1000;0.1302;-0.8440;
1259.4000;0.1311;-0.8465;
1259.7000;0.1311;-0.8540;
1260.0000;0.1286;-0.8540;
1260.3000;0.1327;-0.8515;
1260.6000;0.1319;-0.8641;
1260.9000;0.1294;-0.8666;
1261.2000;0.1311;-0.8641;
1261.5000;0.1311;-0.8540;
1261.8000;0.1302;-0.8565;
1262.1000;0.1311;-0.8590;
1262.4000;0.1302;-0.8590;
1262.7000;0.1294;-0.8641;
1263.0000;0.1286;-0.8590;
1263.3000;0.1327;-0.8465;
1263.6000;0.1335;-0.8440;
1263.9000;0.1294;-0.8565;
1264.2000;0.1254;-0.8565;
1264.5000;0.1294;-0.8389;
1264.8000;0.1319;-0.8264;
1265.1000;0.1302;-0.8214;
1265.4000;0.1311;-0.8214;
1265.7000;0.1278;-0.8389;
1266.0000;0.1311;-0.8339;
1266.3000;0.1286;-0.8440;
1266.6000;0.1302;-0.8565;
1266.9000;0.1294;-0.8490;
1267.2000;0.1302;-0.8565;
1267.5000;0.1286;-0.8440;
1267.8000;0.1254;-0.8465;
1268.1000;0.1302;-0.8364;
1268.4000;0.1294;-0.8414;
1268.7000;0.1319;-0.8465;
1269.0000;0.1294;-0.8590;
1269.3000;0.1302;-0.8465;
1269.6000;0.1319;-0.8339;
1269.9000;0.1294;-0.8389;
1270.2000;0.1270;-0.8490;
1270.5000;0.1319;-0.8339;
1270.8000;0.1319;-0.8440;
1271.1000;0.1302;-0.8540;
1271.4000;0.1319;-0.8465;
1271.7000;0.1311;-0.8440;
1272.0000;0.1302;-0.8515;
1272.3000;0.1302;-0.8565;
1272.6000;0.1254;-0.8641;
1272.9000;0.1278;-0.8515;
1273.2000;0.1302;-0.8364;
1273.5000;0.1368;-0.8214;
1273.8000;0.1311;-0.8314;
1274.1000;0.1302;-0.8389;
1274.4000;0.1319;-0.8414;
1274.7000;0.1311;-0.8414;
1275.0000;0.1327;-0.8414;
1275.3000;0.1294;-0.8515;
1275.6000;0.1319;-0.8490;
1275.9000;0.1286;-0.8540;
1276.2000;0.1392;-0.8239;
1276.5000;0.1294;-0.8515;
1276.8000;0.1254;-0.8590;
1277.1000;0.1311;-0.8440;
1277.4000;0.1302;-0.8490;
1277.7000;0.1270;-0.8465;
1278.0000;0.1327;-0.8364;
1278.3000;0.1311;-0.8314;
1278.6000;0.1311;-0.8414;
1278.9000;0.1319;-0.8339;
1279.2000;0.1302;-0.8364;
1279.5000;0.1359;-0.8364;
1279.8000;0.1311;-0.8389;
1280.1000;0.1294;-0.8389;
1280.4000;0.1311;-0.8314;
1280.7000;0.1319;-0.8414;
1281.0000;0.1319;-0.8389;
1281.3000;0.1254;-0.8515;
1281.6000;0.1254;-0.8515;
1281.9000;0.1302;-0.8440;
1282.2000;0.1302;-0.8440;
1282.5000;0.1302;-0.8414;
1282.8000;0.1319;-0.8339;
1283.1000;0.1302;-0.8490;
1283.4000;0.1311;-0.8440;
1283.7000;0.1286;-0.8465;
1284.0000;0.1327;-0.8264;
1284.3000;0.1311;-0.8214;
1284.6000;0.1311;-0.8163;
1284.9000;0.1335;-0.8163;
1285.2000;0.1294;-0.8289;
1285.5000;0.1302;-0.8364;
1285.8000;0.1311;-0.8339;
1286.1000;0.1229;-0.8515;
1286.4000;0.1327;-0.8314;
1286.7000;0.1294;-0.8364;
1287.0000;0.1311;-0.8414;
1287.3000;0.1376;-0.8264;
1287.6000;0.1335;-0.8414;
1287.9000;0.1302;-0.8490;
1288.2000;0.1319;-0.8465;
1288.5000;0.1286;-0.8615;
1288.8000;0.1286;-0.8590;
1289.1000;0.1319;-0.8414;
1289.4000;0.1359;-0.8339;
1289.7000;0.1311;-0.8389;
1290.0000;0.1294;-0.8364;
1290.3000;0.1311;-0.8138;
1290.6000;0.1294;-0.8214;
1290.9000;0.1392;-0.8063;
1291.2000;0.1302;-0.8339;
1291.5000;0.1294;-0.8389;
1291.8000;0.1302;-0.8440;
1292.1000;0.1319;-0.8389;
1292.4000;0.1351;-0.8389;
1292.7000;0.1286;-0.8565;
1293.0000;0.1294;-0.8490;
1293.3000;0.1327;-0.8364;
1293.6000;0.1278;-0.8364;
1293.9000;0.1327;-0.8214;
1294.2000;0.1294;-0.8239;
1294.5000;0.1311;-0.8138;
1294.8000;0.1302;-0.8088;
1295.1000;0.1319;-0.8063;
1295.4000;0.1335;-0.7962;
1295.7000;0.1311;-0.8063;
1296.0000;0.1335;-0.7987;
1296.3000;0.1294;-0.8088;
1296.6000;0.1302;-0.8188;
1296.9000;0.1278;-0.8364;
1297.2000;0.1311;-0.8364;
1297.5000;0.1327;-0.8364;
1297.8000;0.1302;-0.8414;
1298.1000;0.1343;-0.8339;
1298.4000;0.1311;-0.8414;
1298.7000;0.1302;-0.8364;
1299.0000;0.1278;-0.8364;
1299.3000;0.1278;-0.8289;
1299.6000;0.1319;-0.8239;
1299.9000;0.1311;-0.8289;
1300.2000;0.1254;-0.8490;
1300.5000;0.1319;-0.8264;
1300.8000;0.1294;-0.8314;
1301.1000;0.1302;-0.8314;
1301.4000;0.1286;-0.8289;
1301.7000;0.1278;-0.8264;
1302.0000;0.1319;-0.8113;
1302.3000;0.1311;-0.8063;
1302.6000;0.1327;-0.8038;
1302.9000;0.1319;-0.8088;
1303.2000;0.1384;-0.7962;
1303.5000;0.1351;-0.8088;
1303.8000;0.1294;-0.8314;
1304.1000;0.1294;-0.8364;
1304.4000;0.1294;-0.8389;
1304.7000;0.1311;-0.8414;
1305.0000;0.1343;-0.8339;
1305.3000;0.1319;-0.8389;
1305.6000;0.1327;-0.8339;
1305.9000;0.1311;-0.8289;
1306.2000;0.1294;-0.8339;
1306.5000;0.1311;-0.8414;
1306.8000;0.1319;-0.8364;
1307.1000;0.1327;-0.8264;
1307.4000;0.1327;-0.8339;
1307.7000;0.1327;-0.8389;
1308.0000;0.1359;-0.8289;
1308.3000;0.1327;-0.8364;
1308.6000;0.1302;-0.8364;
1308.9000;0.1319;-0.8239;
1309.2000;0.1254;-0.8264;
1309.5000;0.1294;-0.8063;
1309.8000;0.1319;-0.8113;
1310.1000;0.1229;-0.8389;
1310.4000;0.1327;-0.8188;
1310.7000;0.1335;-0.8188;
1311.0000;0.1319;-0.8264;
1311.3000;0.1319;-0.8188;
1311.6000;0.1302;-0.8163;
1311.9000;0.1294;-0.8239;
1312.2000;0.1286;-0.8289;
1312.5000;0.1311;-0.8289;
1312.8000;0.1319;-0.8264;
1313.1000;0.1335;-0.8264;
1313.4000;0.1311;-0.8264;
1313.7000;0.1311;-0.8314;
1314.0000;0.1343;-0.8239;
1314.3000;0.1254;-0.8440;
1314.6000;0.1302;-0.8214;
1314.9000;0.1311;-0.8239;
1315.2000;0.1311;-0.8239;
1315.5000;0.1302;-0.8214;
1315.8000;0.1294;-0.8314;
1316.1000;0.1302;-0.8289;
1316.4000;0.1311;-0.8414;
1316.7000;0.1319;-0.8440;
1317.0000;0.1319;-0.8389;
1317.3000;0.1302;-0.8490;
1317.6000;0.1319;-0.8364;
1317.9000;0.1319;-0.8414;
1318.2000;0.1359;-0.8314;
1318.5000;0.1335;-0.8440;
1318.8000;0.1294;-0.8440;
1319.1000;0.1302;-0.8389;
1319.4000;0.1319;-0.8339;
1319.7000;0.1311;-0.8414;
1320.0000;0.1319;-0.8364;
1320.3000;0.1335;-0.8264;
1320.6000;0.1294;-0.8339;
1320.9000;0.1294;-0.8339;
1321.2000;0.1335;-0.8264;
1321.5000;0.1278;-0.8389;
1321.8000;0.1311;-0.8239;
1322.1000;0.1392;-0.7937;
1322.4000;0.1286;-0.8389;
1322.7000;0.1311;-0.8264;
1323.0000;0.1294;-0.8214;
1323.3000;0.1319;-0.8138;
1323.6000;0.1311;-0.8138;
1323.9000;0.1327;-0.8163;
1324.2000;0.1311;-0.8163;
1324.5000;0.1327;-0.8163;
1324.8000;0.1221;-0.8465;
1325.1000;0.1302;-0.8264;
1325.4000;0.1278;-0.8339;
1325.7000;0.1319;-0.8214;
1326.0000;0.1294;-0.8289;
1326.3000;0.1311;-0.8339;
1326.6000;0.1311;-0.8440;
1326.9000;0.1294;-0.8414;
1327.2000;0.1270;-0.8465;
1327.5000;0.1311;-0.8364;
1327.8000;0.1311;-0.8264;
1328.1000;0.1311;-0.8264;
1328.4000;0.1311;-0.8289;
1328.7000;0.1302;-0.8339;
1329.0000;0.1294;-0.8339;
1329.3000;0.1302;-0.8414;
1329.6000;0.1311;-0.8364;
1329.9000;0.1294;-0.8490;
1330.2000;0.1294;-0.8414;
1330.5000;0.1302;-0.8440;
1330.8000;0.1286;-0.8339;
1331.1000;0.1294;-0.8264;
1331.4000;0.1302;-0.8339;
1331.7000;0.1319;-0.8339;
1332.0000;0.1311;-0.8289;
1332.3000;0.1319;-0.8264;
1332.6000;0.1302;-0.8188;
1332.9000;0.1311;-0.8113;
1333.2000;0.1311;-0.8088;
1333.5000;0.1302;-0.8188;
1333.8000;0.1294;-0.8239;
1334.1000;0.1319;-0.8113;
1334.4000;0.1319;-0.8038;
1334.7000;0.1294;-0.8188;
1335.0000;0.1319;-0.8264;
1335.3000;0.1311;-0.8364;
1335.6000;0.1311;-0.8389;
1335.9000;0.1302;-0.8440;
1336.2000;0.1319;-0.8414;
1336.5000;0.1311;-0.8515;
1336.8000;0.1302;-0.8565;
1337.1000;0.1319;-0.8540;
1337.4000;0.1311;-0.8565;
1337.7000;0.1302;-0.8666;
1338.0000;0.1319;-0.8691;
1338.3000;0.1270;-0.8816;
1338.6000;0.1302;-0.8691;
1338.9000;0.1319;-0.8641;
1339.2000;0.1319;-0.8590;
1339.5000;0.1319;-0.8666;
1339.8000;0.1319;-0.8590;
1340.1000;0.1294;-0.8590;
1340.4000;0.1311;-0.8590;
1340.7000;0.1302;-0.8615;
1341.0000;0.1294;-0.8540;
1341.3000;0.1286;-0.8490;
1341.6000;0.1311;-0.8565;
1341.9000;0.1311;-0.8465;
1342.2000;0.1294;-0.8540;
1342.5000;0.1294;-0.8565;
1342.8000;0.1311;-0.8590;
1343.1000;0.1311;-0.8515;
1343.4000;0.1254;-0.8565;
1343.7000;0.1335;-0.8465;
1344.0000;0.1311;-0.8490;
1344.3000;0.1294;-0.8465;
1344.6000;0.1302;-0.8339;
1344.9000;0.1302;-0.8389;
1345.2000;0.1343;-0.8289;
1345.5000;0.1302;-0.8339;
1345.8000;0.1311;-0.8339;
1346.1000;0.1278;-0.8465;
1346.4000;0.1286;-0.8414;
1346.7000;0.1302;-0.8414;
1347.0000;0.1327;-0.8314;
1347.3000;0.1286;-0.8364;
1347.6000;0.1294;-0.8339;
1347.9000;0.1294;-0.8414;
1348.2000;0.1311;-0.8414;
1348.5000;0.1294;-0.8565;
1348.8000;0.1319;-0.8565;
1349.1000;0.1319;-0.8465;
1349.4000;0.1302;-0.8440;
1349.7000;0.1319;-0.8465;
1350.0000;0.1311;-0.8465;
1350.3000;0.1311;-0.8465;
1350.6000;0.1294;-0.8465;
1350.9000;0.1311;-0.8339;
1351.2000;0.1302;-0.8264;
1351.5000;0.1286;-0.8289;
1351.8000;0.1311;-0.8289;
1352.1000;0.1286;-0.8364;
1352.4000;0.1294;-0.8389;
1352.7000;0.1286;-0.8465;
1353.0000;0.1294;-0.8465;
1353.3000;0.1270;-0.8540;
1353.6000;0.1302;-0.8465;
1353.9000;0.1286;-0.8490;
1354.2000;0.1327;-0.8414;
1354.5000;0.1302;-0.8465;
1354.8000;0.1311;-0.8440;
1355.1000;0.1311;-0.8465;
1355.4000;0.1319;-0.8465;
1355.7000;0.1319;-0.8414;
1356.0000;0.1302;-0.8540;
1356.3000;0.1286;-0.8615;
1356.6000;0.1302;-0.8590;
1356.9000;0.1302;-0.8590;
1357.2000;0.1400;-0.8339;
1357.5000;0.1302;-0.8540;
1357.8000;0.1302;-0.8565;
1358.1000;0.1278;-0.8641;
1358.4000;0.1319;-0.8540;
1358.7000;0.1319;-0.8465;
1359.0000;0.1302;-0.8515;
1359.3000;0.1311;-0.8490;
1359.6000;0.1311;-0.8465;
1359.9000;0.1311;-0.8515;
1360.2000;0.1302;-0.8490;
1360.5000;0.1311;-0.8465;
1360.8000;0.1302;-0.8440;
1361.1000;0.1327;-0.8414;
1361.4000;0.1392;-0.8289;
1361.7000;0.1294;-0.8666;
1362.0000;0.1311;-0.8590;
1362.3000;0.1311;-0.8515;
1362.6000;0.1311;-0.8389;
1362.9000;0.1302;-0.8465;
1363.2000;0.1294;-0.8440;
1363.5000;0.1302;-0.8440;
1363.8000;0.1319;-0.8490;
1364.1000;0.1294;-0.8490;
1364.4000;0.1221;-0.8641;
1364.7000;0.1278;-0.8440;
1365.0000;0.1311;-0.8339;
1365.3000;0.1311;-0.8314;
1365.6000;0.1262;-0.8465;
1365.9000;0.1302;-0.8289;
1366.2000;0.1302;-0.8289;
1366.5000;0.1302;-0.8389;
1366.8000;0.1294;-0.8465;
1367.1000;0.1319;-0.8465;
1367.4000;0.1327;-0.8389;
1367.7000;0.1335;-0.8389;
1368.0000;0.1294;-0.8414;
1368.3000;0.1278;-0.8389;
1368.6000;0.1302;-0.8314;
1368.9000;0.1302;-0.8314;
1369.2000;0.1319;-0.8264;
1369.5000;0.1311;-0.8289;
1369.8000;0.1327;-0.8289;
1370.1000;0.1311;-0.8389;
1370.4000;0.1319;-0.8364;
1370.7000;0.1327;-0.8414;
1371.0000;0.1327;-0.8389;
1371.3000;0.1416;-0.8113;
1371.6000;0.1311;-0.8364;
1371.9000;0.1302;-0.8389;
1372.2000;0.1311;-0.8465;
1372.5000;0.1302;-0.8490;
1372.8000;0.1302;-0.8465;
1373.1000;0.1302;-0.8414;
1373.4000;0.1294;-0.8364;
1373.7000;0.1237;-0.8440;
1374.0000;0.1311;-0.8289;
1374.3000;0.1286;-0.8364;
1374.6000;0.1311;-0.8339;
1374.9000;0.1294;-0.8465;
1375.2000;0.1302;-0.8565;
1375.5000;0.1311;-0.8540;
1375.8000;0.1294;-0.8540;
1376.1000;0.1319;-0.8389;
1376.4000;0.1319;-0.8465;
1376.7000;0.1311;-0.8565;
1377.0000;0.1311;-0.8490;
1377.3000;0.1343;-0.8490;
1377.6000;0.1311;-0.8540;
1377.9000;0.1319;-0.8490;
1378.2000;0.1302;-0.8389;
1378.5000;0.1319;-0.8289;
1378.8000;0.1327;-0.8314;
1379.1000;0.1302;-0.8440;
1379.4000;0.1311;-0.8389;
1379.7000;0.1311;-0.8465;
1380.0000;0.1319;-0.8440;
1380.3000;0.1327;-0.8389;
1380.6000;0.1319;-0.8389;
1380.9000;0.1335;-0.8339;
1381.2000;0.1311;-0.8289;
1381.5000;0.1327;-0.8289;
1381.8000;0.1335;-0.8339;
1382.1000;0.1327;-0.8314;
1382.4000;0.1286;-0.8440;
1382.7000;0.1311;-0.8364;
1383.0000;0.1319;-0.8364;
1383.3000;0.1335;-0.8314;
1383.6000;0.1302;-0.8414;
1383.9000;0.1302;-0.8389;
1384.2000;0.1319;-0.8339;
1384.5000;0.1384;-0.8163;
1384.8000;0.1237;-0.8565;
1385.1000;0.1302;-0.8440;
1385.4000;0.1311;-0.8389;
1385.7000;0.1311;-0.8414;
1386.0000;0.1311;-0.8414;
1386.3000;0.1327;-0.8465;
1386.6000;0.1302;-0.8389;
1386.9000;0.1311;-0.8414;
1387.2000;0.1302;-0.8440;
1387.5000;0.1311;-0.8414;
1387.8000;0.1343;-0.8515;
1388.1000;0.1286;-0.8641;
1388.4000;0.1294;-0.8515;
1388.7000;0.1302;-0.8565;
1389.0000;0.1327;-0.8414;
1389.3000;0.1319;-0.8440;
1389.6000;0.1343;-0.8264;
1389.9000;0.1221;-0.8615;
1390.2000;0.1286;-0.8465;
1390.5000;0.1327;-0.8364;
1390.8000;0.1319;-0.8414;
1391.1000;0.1311;-0.8440;
1391.4000;0.1270;-0.8490;
1391.7000;0.1294;-0.8515;
1392.0000;0.1294;-0.8490;
1392.3000;0.1270;-0.8540;
1392.6000;0.1286;-0.8414;
1392.9000;0.1294;-0.8264;
1393.2000;0.1311;-0.8264;
1393.5000;0.1294;-0.8289;
1393.8000;0.1343;-0.8214;
1394.1000;0.1319;-0.8214;
1394.4000;0.1327;-0.8138;
1394.7000;0.1311;-0.8214;
1395.0000;0.1319;-0.8088;
1395.3000;0.1302;-0.8138;
1395.6000;0.1327;-0.8038;
1395.9000;0.1319;-0.8063;
1396.2000;0.1311;-0.8063;
1396.5000;0.1327;-0.8013;
1396.8000;0.1343;-0.8063;
1397.1000;0.1294;-0.8188;
1397.4000;0.1302;-0.8239;
1397.7000;0.1302;-0.8163;
1398.0000;0.1319;-0.8188;
1398.3000;0.1254;-0.8414;
1398.6000;0.1294;-0.8289;
1398.9000;0.1327;-0.8289;
1399.2000;0.1327;-0.8264;
1399.5000;0.1278;-0.8414;
1399.8000;0.1327;-0.8239;
