time/ms;Fluo/V;P700 deltaI/I x10³;
-199.8000;0.1376;-0.7360;
-199.5000;0.1384;-0.7284;
-199.2000;0.1392;-0.7284;
-198.9000;0.1368;-0.7184;
-198.6000;0.1408;-0.7008;
-198.3000;0.1384;-0.7033;
-198.0000;0.1376;-0.7108;
-197.7000;0.1384;-0.7133;
-197.4000;0.1433;-0.7108;
-197.1000;0.1384;-0.7108;
-196.8000;0.1384;-0.7184;
-196.5000;0.1384;-0.7184;
-196.2000;0.1392;-0.7159;
-195.9000;0.1425;-0.7083;
-195.6000;0.1392;-0.7083;
-195.3000;0.1392;-0.7184;
-195.0000;0.1376;-0.7209;
-194.7000;0.1400;-0.7209;
-194.4000;0.1400;-0.7259;
-194.1000;0.1384;-0.7385;
-193.8000;0.1392;-0.7360;
-193.5000;0.1384;-0.7309;
-193.2000;0.1392;-0.7309;
-192.9000;0.1376;-0.7234;
-192.6000;0.1376;-0.7309;
-192.3000;0.1384;-0.7309;
-192.0000;0.1368;-0.7410;
-191.7000;0.1384;-0.7284;
-191.4000;0.1400;-0.7309;
-191.1000;0.1392;-0.7334;
-190.8000;0.1408;-0.7234;
-190.5000;0.1376;-0.7259;
-190.2000;0.1392;-0.7259;
-189.9000;0.1384;-0.7184;
-189.6000;0.1376;-0.7159;
-189.3000;0.1384;-0.7133;
-189.0000;0.1376;-0.7108;
-188.7000;0.1368;-0.7083;
-188.4000;0.1449;-0.6907;
-188.1000;0.1392;-0.7083;
-187.8000;0.1376;-0.7184;
-187.5000;0.1384;-0.7184;
-187.2000;0.1408;-0.7133;
-186.9000;0.1400;-0.7159;
-186.6000;0.1400;-0.7184;
-186.3000;0.1392;-0.7209;
-186.0000;0.1392;-0.7133;
-185.7000;0.1400;-0.7133;
-185.4000;0.1376;-0.7209;
-185.1000;0.1384;-0.7234;
-184.8000;0.1392;-0.7284;
-184.5000;0.1376;-0.7309;
-184.2000;0.1384;-0.7234;
-183.9000;0.1392;-0.7159;
-183.6000;0.1368;-0.7108;
-183.3000;0.1376;-0.7108;
-183.0000;0.1376;-0.6983;
-182.7000;0.1376;-0.6933;
-182.4000;0.1368;-0.6958;
-182.1000;0.1392;-0.7033;
-181.8000;0.1392;-0.7159;
-181.5000;0.1376;-0.7259;
-181.2000;0.1376;-0.7259;
-180.9000;0.1376;-0.7309;
-180.6000;0.1376;-0.7334;
-180.3000;0.1384;-0.7334;
-180.0000;0.1368;-0.7410;
-179.7000;0.1384;-0.7360;
-179.4000;0.1368;-0.7360;
-179.1000;0.1359;-0.7284;
-178.8000;0.1368;-0.7159;
-178.5000;0.1359;-0.7184;
-178.2000;0.1376;-0.7209;
-177.9000;0.1359;-0.7284;
-177.6000;0.1351;-0.7209;
-177.3000;0.1384;-0.7058;
-177.0000;0.1392;-0.7058;
-176.7000;0.1368;-0.7083;
-176.4000;0.1392;-0.6958;
-176.1000;0.1392;-0.7033;
-175.8000;0.1392;-0.7133;
-175.5000;0.1400;-0.7184;
-175.2000;0.1392;-0.7209;
-174.9000;0.1433;-0.7159;
-174.6000;0.1384;-0.7309;
-174.3000;0.1400;-0.7284;
-174.0000;0.1384;-0.7259;
-173.7000;0.1376;-0.7234;
-173.4000;0.1359;-0.7184;
-173.1000;0.1376;-0.6983;
-172.8000;0.1368;-0.6983;
-172.5000;0.1384;-0.7008;
-172.2000;0.1384;-0.7008;
-171.9000;0.1376;-0.7033;
-171.6000;0.1400;-0.6983;
-171.3000;0.1384;-0.7083;
-171.0000;0.1376;-0.7133;
-170.7000;0.1384;-0.7008;
-170.4000;0.1392;-0.6907;
-170.1000;0.1433;-0.6832;
-169.8000;0.1376;-0.6933;
-169.5000;0.1376;-0.7108;
-169.2000;0.1384;-0.7133;
-168.9000;0.1384;-0.7133;
-168.6000;0.1384;-0.7234;
-168.3000;0.1392;-0.7209;
-168.0000;0.1368;-0.7259;
-167.7000;0.1416;-0.7133;
-167.4000;0.1359;-0.7259;
-167.1000;0.1408;-0.7133;
-166.8000;0.1392;-0.7184;
-166.5000;0.1392;-0.7184;
-166.2000;0.1384;-0.7209;
-165.9000;0.1392;-0.7209;
-165.6000;0.1400;-0.7159;
-165.3000;0.1384;-0.7159;
-165.0000;0.1400;-0.7108;
-164.7000;0.1392;-0.7133;
-164.4000;0.1400;-0.7133;
-164.1000;0.1376;-0.7133;
-163.8000;0.1368;-0.7083;
-163.5000;0.1359;-0.7058;
-163.2000;0.1368;-0.7033;
-162.9000;0.1376;-0.7108;
-162.6000;0.1433;-0.7083;
-162.3000;0.1376;-0.7259;
-162.0000;0.1416;-0.7234;
-161.7000;0.1400;-0.7360;
-161.4000;0.1384;-0.7309;
-161.1000;0.1392;-0.7259;
-160.8000;0.1376;-0.7334;
-160.5000;0.1400;-0.7284;
-160.2000;0.1425;-0.7234;
-159.9000;0.1400;-0.7259;
-159.6000;0.1392;-0.7309;
-159.3000;0.1368;-0.7309;
-159.0000;0.1384;-0.7309;
-158.7000;0.1400;-0.7234;
-158.4000;0.1384;-0.7184;
-158.1000;0.1441;-0.7008;
-157.8000;0.1376;-0.7209;
-157.5000;0.1384;-0.7184;
-157.2000;0.1376;-0.7234;
-156.9000;0.1376;-0.7209;
-156.6000;0.1376;-0.7159;
-156.3000;0.1384;-0.7159;
-156.0000;0.1392;-0.7133;
-155.7000;0.1392;-0.7108;
-155.4000;0.1392;-0.7108;
-155.1000;0.1392;-0.7159;
-154.8000;0.1376;-0.7209;
-154.5000;0.1392;-0.7159;
-154.2000;0.1457;-0.7033;
-153.9000;0.1400;-0.7159;
-153.6000;0.1368;-0.7234;
-153.3000;0.1376;-0.7159;
-153.0000;0.1392;-0.7008;
-152.7000;0.1416;-0.6907;
-152.4000;0.1368;-0.7083;
-152.1000;0.1384;-0.7108;
-151.8000;0.1376;-0.7133;
-151.5000;0.1359;-0.7058;
-151.2000;0.1368;-0.7008;
-150.9000;0.1376;-0.6983;
-150.6000;0.1368;-0.7133;
-150.3000;0.1384;-0.7108;
-150.0000;0.1384;-0.7184;
-149.7000;0.1368;-0.7284;
-149.4000;0.1384;-0.7309;
-149.1000;0.1384;-0.7259;
-148.8000;0.1368;-0.7334;
-148.5000;0.1384;-0.7209;
-148.2000;0.1392;-0.7133;
-147.9000;0.1400;-0.7058;
-147.6000;0.1384;-0.7083;
-147.3000;0.1384;-0.7184;
-147.0000;0.1392;-0.7159;
-146.7000;0.1384;-0.7259;
-146.4000;0.1408;-0.7058;
-146.1000;0.1400;-0.7033;
-145.8000;0.1490;-0.6882;
-145.5000;0.1343;-0.7159;
-145.2000;0.1400;-0.6933;
-144.9000;0.1392;-0.6933;
-144.6000;0.1351;-0.7008;
-144.3000;0.1376;-0.6958;
-144.0000;0.1400;-0.6933;
-143.7000;0.1384;-0.7058;
-143.4000;0.1343;-0.7234;
-143.1000;0.1368;-0.7209;
-142.8000;0.1359;-0.7209;
-142.5000;0.1384;-0.7209;
-142.2000;0.1376;-0.7234;
-141.9000;0.1359;-0.7259;
-141.6000;0.1376;-0.7309;
-141.3000;0.1384;-0.7184;
-141.0000;0.1376;-0.7234;
-140.7000;0.1376;-0.7159;
-140.4000;0.1376;-0.7108;
-140.1000;0.1359;-0.7159;
-139.8000;0.1376;-0.7108;
-139.5000;0.1384;-0.7184;
-139.2000;0.1368;-0.7209;
-138.9000;0.1319;-0.7334;
-138.6000;0.1384;-0.7083;
-138.3000;0.1376;-0.7033;
-138.0000;0.1359;-0.7108;
-137.7000;0.1392;-0.7008;
-137.4000;0.1376;-0.7008;
-137.1000;0.1376;-0.6983;
-136.8000;0.1376;-0.6958;
-136.5000;0.1384;-0.6907;
-136.2000;0.1351;-0.6983;
-135.9000;0.1368;-0.7058;
-135.6000;0.1392;-0.7033;
-135.3000;0.1392;-0.6983;
-135.0000;0.1384;-0.6958;
-134.7000;0.1384;-0.6983;
-134.4000;0.1343;-0.7058;
-134.1000;0.1392;-0.6958;
-133.8000;0.1384;-0.7058;
-133.5000;0.1368;-0.7133;
-133.2000;0.1384;-0.7159;
-132.9000;0.1392;-0.7033;
-132.6000;0.1384;-0.7083;
-132.3000;0.1384;-0.7159;
-132.0000;0.1400;-0.7058;
-131.7000;0.1376;-0.7008;
-131.4000;0.1392;-0.6933;
-131.1000;0.1384;-0.6958;
-130.8000;0.1376;-0.7108;
-130.5000;0.1376;-0.6983;
-130.2000;0.1400;-0.6882;
-129.9000;0.1384;-0.6882;
-129.6000;0.1368;-0.6983;
-129.3000;0.1351;-0.7058;
-129.0000;0.1368;-0.7083;
-128.7000;0.1384;-0.7058;
-128.4000;0.1368;-0.7133;
-128.1000;0.1408;-0.7083;
-127.8000;0.1384;-0.7033;
-127.5000;0.1376;-0.7108;
-127.2000;0.1376;-0.7159;
-126.9000;0.1384;-0.7133;
-126.6000;0.1433;-0.7058;
-126.3000;0.1392;-0.7234;
-126.0000;0.1376;-0.7209;
-125.7000;0.1335;-0.7159;
-125.4000;0.1368;-0.7083;
-125.1000;0.1392;-0.7008;
-124.8000;0.1392;-0.7008;
-124.5000;0.1392;-0.7008;
-124.2000;0.1368;-0.6958;
-123.9000;0.1376;-0.6933;
-123.6000;0.1368;-0.6907;
-123.3000;0.1368;-0.6882;
-123.0000;0.1368;-0.6983;
-122.7000;0.1368;-0.6983;
-122.4000;0.1384;-0.7058;
-122.1000;0.1392;-0.7159;
-121.8000;0.1498;-0.6882;
-121.5000;0.1400;-0.7108;
-121.2000;0.1408;-0.7058;
-120.9000;0.1416;-0.7108;
-120.6000;0.1408;-0.7083;
-120.3000;0.1376;-0.7159;
-120.0000;0.1359;-0.7234;
-119.7000;0.1392;-0.7058;
-119.4000;0.1368;-0.7108;
-119.1000;0.1392;-0.7159;
-118.8000;0.1384;-0.7259;
-118.5000;0.1392;-0.7209;
-118.2000;0.1359;-0.7234;
-117.9000;0.1392;-0.7184;
-117.6000;0.1359;-0.7360;
-117.3000;0.1384;-0.7284;
-117.0000;0.1400;-0.7209;
-116.7000;0.1368;-0.7259;
-116.4000;0.1359;-0.7209;
-116.1000;0.1368;-0.7133;
-115.8000;0.1392;-0.6958;
-115.5000;0.1392;-0.6983;
-115.2000;0.1400;-0.6958;
-114.9000;0.1408;-0.6933;
-114.6000;0.1400;-0.6983;
-114.3000;0.1416;-0.6907;
-114.0000;0.1376;-0.7083;
-113.7000;0.1294;-0.7435;
-113.4000;0.1392;-0.7184;
-113.1000;0.1359;-0.7259;
-112.8000;0.1392;-0.7184;
-112.5000;0.1400;-0.7209;
-112.2000;0.1392;-0.7234;
-111.9000;0.1408;-0.7083;
-111.6000;0.1392;-0.7184;
-111.3000;0.1392;-0.7184;
-111.0000;0.1384;-0.7159;
-110.7000;0.1384;-0.7159;
-110.4000;0.1441;-0.7033;
-110.1000;0.1384;-0.7234;
-109.8000;0.1376;-0.7234;
-109.5000;0.1376;-0.7234;
-109.2000;0.1368;-0.7234;
-108.9000;0.1400;-0.7159;
-108.6000;0.1376;-0.7209;
-108.3000;0.1416;-0.7108;
-108.0000;0.1392;-0.7334;
-107.7000;0.1384;-0.7309;
-107.4000;0.1343;-0.7460;
-107.1000;0.1392;-0.7259;
-106.8000;0.1384;-0.7234;
-106.5000;0.1384;-0.7334;
-106.2000;0.1376;-0.7435;
-105.9000;0.1384;-0.7410;
-105.6000;0.1400;-0.7410;
-105.3000;0.1400;-0.7334;
-105.0000;0.1376;-0.7334;
-104.7000;0.1376;-0.7284;
-104.4000;0.1368;-0.7184;
-104.1000;0.1384;-0.7083;
-103.8000;0.1368;-0.7133;
-103.5000;0.1392;-0.7058;
-103.2000;0.1392;-0.7133;
-102.9000;0.1368;-0.7159;
-102.6000;0.1376;-0.7184;
-102.3000;0.1400;-0.7184;
-102.0000;0.1416;-0.7133;
-101.7000;0.1408;-0.7108;
-101.4000;0.1384;-0.7058;
-101.1000;0.1392;-0.7083;
-100.8000;0.1408;-0.7108;
-100.5000;0.1400;-0.7234;
-100.2000;0.1376;-0.7334;
-99.9000;0.1376;-0.7234;
-99.6000;0.1376;-0.7184;
-99.3000;0.1384;-0.7184;
-99.0000;0.1392;-0.7184;
-98.7000;0.1392;-0.7234;
-98.4000;0.1425;-0.7184;
-98.1000;0.1392;-0.7159;
-97.8000;0.1425;-0.7033;
-97.5000;0.1384;-0.7058;
-97.2000;0.1368;-0.7184;
-96.9000;0.1400;-0.7108;
-96.6000;0.1376;-0.7159;
-96.3000;0.1359;-0.7209;
-96.0000;0.1400;-0.7058;
-95.7000;0.1392;-0.7083;
-95.4000;0.1392;-0.7159;
-95.1000;0.1392;-0.7234;
-94.8000;0.1368;-0.7159;
-94.5000;0.1376;-0.7108;
-94.2000;0.1392;-0.7033;
-93.9000;0.1392;-0.7008;
-93.6000;0.1384;-0.7058;
-93.3000;0.1376;-0.7108;
-93.0000;0.1368;-0.7108;
-92.7000;0.1473;-0.6807;
-92.4000;0.1319;-0.7234;
-92.1000;0.1359;-0.7133;
-91.8000;0.1384;-0.7008;
-91.5000;0.1384;-0.7058;
-91.2000;0.1473;-0.6832;
-90.9000;0.1416;-0.6983;
-90.6000;0.1376;-0.7008;
-90.3000;0.1384;-0.7033;
-90.0000;0.1433;-0.6907;
-89.7000;0.1384;-0.6983;
-89.4000;0.1384;-0.7008;
-89.1000;0.1416;-0.6907;
-88.8000;0.1392;-0.6933;
-88.5000;0.1368;-0.6983;
-88.2000;0.1368;-0.7033;
-87.9000;0.1376;-0.7033;
-87.6000;0.1392;-0.7108;
-87.3000;0.1408;-0.6983;
-87.0000;0.1368;-0.7058;
-86.7000;0.1392;-0.6983;
-86.4000;0.1368;-0.7008;
-86.1000;0.1376;-0.7008;
-85.8000;0.1384;-0.6983;
-85.5000;0.1400;-0.6782;
-85.2000;0.1392;-0.6807;
-84.9000;0.1376;-0.6907;
-84.6000;0.1335;-0.6983;
-84.3000;0.1351;-0.6933;
-84.0000;0.1416;-0.6807;
-83.7000;0.1392;-0.6857;
-83.4000;0.1392;-0.6933;
-83.1000;0.1368;-0.6983;
-82.8000;0.1425;-0.6857;
-82.5000;0.1376;-0.6958;
-82.2000;0.1359;-0.7033;
-81.9000;0.1449;-0.6732;
-81.6000;0.1384;-0.6882;
-81.3000;0.1384;-0.6983;
-81.0000;0.1376;-0.7008;
-80.7000;0.1392;-0.7058;
-80.4000;0.1408;-0.7083;
-80.1000;0.1384;-0.7108;
-79.8000;0.1359;-0.7083;
-79.5000;0.1368;-0.6958;
-79.2000;0.1384;-0.6933;
-78.9000;0.1376;-0.6882;
-78.6000;0.1376;-0.6983;
-78.3000;0.1376;-0.7033;
-78.0000;0.1400;-0.7058;
-77.7000;0.1384;-0.7108;
-77.4000;0.1408;-0.7108;
-77.1000;0.1384;-0.7033;
-76.8000;0.1368;-0.6882;
-76.5000;0.1400;-0.6857;
-76.2000;0.1384;-0.6958;
-75.9000;0.1384;-0.6958;
-75.6000;0.1392;-0.6907;
-75.3000;0.1400;-0.6958;
-75.0000;0.1400;-0.6983;
-74.7000;0.1384;-0.7033;
-74.4000;0.1416;-0.6958;
-74.1000;0.1384;-0.6983;
-73.8000;0.1368;-0.7083;
-73.5000;0.1392;-0.7008;
-73.2000;0.1392;-0.6983;
-72.9000;0.1376;-0.7108;
-72.6000;0.1359;-0.7159;
-72.3000;0.1400;-0.7108;
-72.0000;0.1384;-0.7209;
-71.7000;0.1368;-0.7184;
-71.4000;0.1376;-0.7159;
-71.1000;0.1400;-0.7083;
-70.8000;0.1351;-0.7159;
-70.5000;0.1384;-0.7033;
-70.2000;0.1368;-0.7033;
-69.9000;0.1376;-0.7083;
-69.6000;0.1392;-0.7058;
-69.3000;0.1311;-0.7184;
-69.0000;0.1425;-0.6857;
-68.7000;0.1400;-0.6933;
-68.4000;0.1384;-0.7008;
-68.1000;0.1376;-0.7083;
-67.8000;0.1384;-0.7008;
-67.5000;0.1368;-0.7083;
-67.2000;0.1359;-0.7083;
-66.9000;0.1359;-0.7058;
-66.6000;0.1384;-0.7058;
-66.3000;0.1392;-0.7008;
-66.0000;0.1376;-0.7058;
-65.7000;0.1270;-0.7435;
-65.4000;0.1384;-0.7159;
-65.1000;0.1343;-0.7284;
-64.8000;0.1392;-0.7083;
-64.5000;0.1368;-0.7133;
-64.2000;0.1408;-0.7008;
-63.9000;0.1384;-0.7108;
-63.6000;0.1376;-0.7083;
-63.3000;0.1368;-0.7209;
-63.0000;0.1368;-0.7259;
-62.7000;0.1376;-0.7133;
-62.4000;0.1376;-0.7234;
-62.1000;0.1376;-0.7159;
-61.8000;0.1376;-0.7108;
-61.5000;0.1376;-0.7108;
-61.2000;0.1400;-0.7133;
-60.9000;0.1376;-0.7259;
-60.6000;0.1368;-0.7334;
-60.3000;0.1457;-0.7108;
-60.0000;0.1392;-0.7334;
-59.7000;0.1376;-0.7360;
-59.4000;0.1368;-0.7309;
-59.1000;0.1384;-0.7309;
-58.8000;0.1376;-0.7259;
-58.5000;0.1384;-0.7209;
-58.2000;0.1392;-0.7184;
-57.9000;0.1376;-0.7184;
-57.6000;0.1392;-0.7234;
-57.3000;0.1384;-0.7284;
-57.0000;0.1384;-0.7234;
-56.7000;0.1392;-0.7184;
-56.4000;0.1384;-0.7159;
-56.1000;0.1392;-0.6983;
-55.8000;0.1392;-0.7008;
-55.5000;0.1376;-0.7058;
-55.2000;0.1400;-0.7008;
-54.9000;0.1425;-0.7033;
-54.6000;0.1392;-0.7033;
-54.3000;0.1408;-0.7033;
-54.0000;0.1400;-0.6983;
-53.7000;0.1408;-0.7008;
-53.4000;0.1400;-0.7058;
-53.1000;0.1384;-0.7058;
-52.8000;0.1376;-0.7033;
-52.5000;0.1384;-0.7008;
-52.2000;0.1384;-0.7083;
-51.9000;0.1384;-0.7083;
-51.6000;0.1433;-0.6983;
-51.3000;0.1392;-0.7083;
-51.0000;0.1384;-0.7083;
-50.7000;0.1408;-0.7033;
-50.4000;0.1392;-0.7058;
-50.1000;0.1384;-0.7008;
-49.8000;0.1400;-0.7033;
-49.5000;0.1286;-0.7410;
-49.2000;0.1425;-0.7058;
-48.9000;0.1392;-0.7108;
-48.6000;0.1400;-0.7008;
-48.3000;0.1400;-0.6933;
-48.0000;0.1376;-0.7033;
-47.7000;0.1368;-0.7133;
-47.4000;0.1384;-0.7133;
-47.1000;0.1408;-0.7159;
-46.8000;0.1392;-0.7209;
-46.5000;0.1368;-0.7234;
-46.2000;0.1441;-0.7108;
-45.9000;0.1376;-0.7284;
-45.6000;0.1384;-0.7184;
-45.3000;0.1384;-0.7159;
-45.0000;0.1384;-0.7083;
-44.7000;0.1368;-0.7058;
-44.4000;0.1408;-0.6958;
-44.1000;0.1384;-0.7108;
-43.8000;0.1359;-0.7209;
-43.5000;0.1384;-0.7184;
-43.2000;0.1351;-0.7159;
-42.9000;0.1384;-0.6983;
-42.6000;0.1327;-0.7058;
-42.3000;0.1433;-0.6832;
-42.0000;0.1392;-0.6958;
-41.7000;0.1376;-0.7083;
-41.4000;0.1376;-0.7058;
-41.1000;0.1441;-0.6882;
-40.8000;0.1392;-0.6882;
-40.5000;0.1392;-0.6857;
-40.2000;0.1376;-0.6882;
-39.9000;0.1392;-0.6907;
-39.6000;0.1384;-0.6907;
-39.3000;0.1376;-0.7008;
-39.0000;0.1376;-0.7083;
-38.7000;0.1384;-0.7108;
-38.4000;0.1416;-0.6958;
-38.1000;0.1392;-0.7033;
-37.8000;0.1392;-0.7033;
-37.5000;0.1384;-0.7058;
-37.2000;0.1433;-0.6958;
-36.9000;0.1416;-0.6907;
-36.6000;0.1416;-0.6958;
-36.3000;0.1368;-0.7008;
-36.0000;0.1335;-0.7033;
-35.7000;0.1408;-0.6933;
-35.4000;0.1376;-0.7008;
-35.1000;0.1416;-0.6958;
-34.8000;0.1425;-0.6958;
-34.5000;0.1400;-0.7058;
-34.2000;0.1449;-0.7008;
-33.9000;0.1408;-0.7159;
-33.6000;0.1392;-0.7184;
-33.3000;0.1376;-0.7159;
-33.0000;0.1376;-0.7159;
-32.7000;0.1376;-0.7058;
-32.4000;0.1359;-0.7108;
-32.1000;0.1400;-0.7008;
-31.8000;0.1400;-0.7008;
-31.5000;0.1392;-0.7058;
-31.2000;0.1392;-0.7108;
-30.9000;0.1392;-0.7159;
-30.6000;0.1384;-0.7083;
-30.3000;0.1392;-0.7033;
-30.0000;0.1376;-0.6933;
-29.7000;0.1376;-0.6933;
-29.4000;0.1400;-0.6882;
-29.1000;0.1359;-0.6933;
-28.8000;0.1376;-0.6933;
-28.5000;0.1376;-0.6958;
-28.2000;0.1425;-0.6907;
-27.9000;0.1441;-0.6832;
-27.6000;0.1392;-0.7008;
-27.3000;0.1384;-0.7083;
-27.0000;0.1376;-0.7008;
-26.7000;0.1384;-0.7008;
-26.4000;0.1384;-0.7083;
-26.1000;0.1384;-0.7133;
-25.8000;0.1392;-0.7133;
-25.5000;0.1400;-0.7058;
-25.2000;0.1376;-0.7133;
-24.9000;0.1376;-0.7108;
-24.6000;0.1408;-0.7058;
-24.3000;0.1376;-0.7083;
-24.0000;0.1392;-0.6983;
-23.7000;0.1400;-0.6983;
-23.4000;0.1376;-0.7033;
-23.1000;0.1335;-0.7108;
-22.8000;0.1384;-0.6832;
-22.5000;0.1343;-0.7033;
-22.2000;0.1392;-0.6933;
-21.9000;0.1392;-0.7033;
-21.6000;0.1425;-0.6958;
-21.3000;0.1376;-0.7008;
-21.0000;0.1368;-0.6983;
-20.7000;0.1368;-0.6983;
-20.4000;0.1384;-0.6933;
-20.1000;0.1392;-0.6958;
-19.8000;0.1376;-0.7083;
-19.5000;0.1408;-0.7058;
-19.2000;0.1335;-0.7209;
-18.9000;0.1392;-0.7008;
-18.6000;0.1368;-0.7234;
-18.3000;0.1465;-0.6983;
-18.0000;0.1400;-0.7108;
-17.7000;0.1392;-0.7133;
-17.4000;0.1392;-0.7159;
-17.1000;0.1376;-0.7184;
-16.8000;0.1384;-0.7184;
-16.5000;0.1368;-0.7184;
-16.2000;0.1408;-0.7108;
-15.9000;0.1384;-0.7108;
-15.6000;0.1384;-0.7083;
-15.3000;0.1351;-0.7133;
-15.0000;0.1368;-0.7133;
-14.7000;0.1392;-0.7033;
-14.4000;0.1400;-0.7008;
-14.1000;0.1441;-0.6882;
-13.8000;0.1392;-0.7008;
-13.5000;0.1368;-0.7133;
-13.2000;0.1400;-0.7058;
-12.9000;0.1408;-0.7033;
-12.6000;0.1384;-0.7083;
-12.3000;0.1368;-0.7033;
-12.0000;0.1335;-0.7184;
-11.7000;0.1376;-0.6983;
-11.4000;0.1368;-0.7033;
-11.1000;0.1343;-0.7209;
-10.8000;0.1359;-0.7108;
-10.5000;0.1408;-0.7033;
-10.2000;0.1408;-0.7058;
-9.9000;0.1425;-0.7033;
-9.6000;0.1368;-0.7083;
-9.3000;0.1400;-0.7033;
-9.0000;0.1416;-0.6933;
-8.7000;0.1384;-0.6882;
-8.4000;0.1384;-0.6857;
-8.1000;0.1376;-0.6933;
-7.8000;0.1400;-0.6958;
-7.5000;0.1368;-0.7008;
-7.2000;0.1359;-0.6958;
-6.9000;0.1392;-0.6857;
-6.6000;0.1368;-0.6958;
-6.3000;0.1384;-0.6857;
-6.0000;0.1473;-0.6606;
-5.7000;0.1376;-0.6832;
-5.4000;0.1351;-0.6832;
-5.1000;0.1384;-0.6782;
-4.8000;0.1343;-0.6983;
-4.5000;0.1376;-0.6983;
-4.2000;0.1368;-0.6933;
-3.9000;0.1465;-0.6732;
-3.6000;0.1376;-0.6882;
-3.3000;0.1376;-0.6832;
-3.0000;0.1481;-0.6556;
-2.7000;0.1376;-0.6882;
-2.4000;0.1359;-0.6933;
-2.1000;0.1368;-0.7033;
-1.8000;0.1376;-0.7033;
-1.5000;0.1384;-0.7108;
-1.2000;0.1408;-0.7133;
-0.9000;0.1376;-0.7259;
-0.6000;0.1359;-0.7309;
-0.3000;0.1368;-0.7234;
0.0000;0.1368;-0.7234;
0.3000;0.1392;-0.7234;
0.6000;0.1351;-0.7108;
0.9000;0.1441;-0.6807;
1.2000;0.1359;-0.6782;
1.5000;0.1441;-0.6480;
1.8000;0.1408;-0.6506;
2.1000;0.1400;-0.6506;
2.4000;0.1441;-0.6355;
2.7000;0.1433;-0.6305;
3.0000;0.1425;-0.6229;
3.3000;0.1433;-0.6053;
3.6000;0.1457;-0.5928;
3.9000;0.1384;-0.6028;
4.2000;0.1433;-0.5852;
4.5000;0.1416;-0.5852;
4.8000;0.1416;-0.5852;
5.1000;0.1408;-0.5802;
5.4000;0.1465;-0.5702;
5.7000;0.1416;-0.5777;
6.0000;0.1465;-0.5702;
6.3000;0.1457;-0.5752;
6.6000;0.1449;-0.5903;
6.9000;0.1490;-0.5752;
7.2000;0.1457;-0.5727;
7.5000;0.1449;-0.5677;
7.8000;0.1408;-0.5852;
8.1000;0.1465;-0.5652;
8.4000;0.1441;-0.5652;
8.7000;0.1416;-0.5777;
9.0000;0.1449;-0.5702;
9.3000;0.1441;-0.5752;
9.6000;0.1441;-0.5752;
9.9000;0.1408;-0.5802;
10.2000;0.1465;-0.5677;
10.5000;0.1425;-0.5702;
10.8000;0.1376;-0.5852;
11.1000;0.1457;-0.5702;
11.4000;0.1449;-0.5727;
11.7000;0.1441;-0.5702;
12.0000;0.1425;-0.5702;
12.3000;0.1433;-0.5601;
12.6000;0.1449;-0.5601;
12.9000;0.1490;-0.5576;
13.2000;0.1449;-0.5652;
13.5000;0.1441;-0.5652;
13.8000;0.1425;-0.5626;
14.1000;0.1359;-0.5827;
14.4000;0.1449;-0.5576;
14.7000;0.1441;-0.5501;
15.0000;0.1449;-0.5526;
15.3000;0.1433;-0.5451;
15.6000;0.1449;-0.5451;
15.9000;0.1498;-0.5325;
16.2000;0.1425;-0.5526;
16.5000;0.1433;-0.5526;
16.8000;0.1441;-0.5451;
17.1000;0.1416;-0.5526;
17.4000;0.1465;-0.5501;
17.7000;0.1433;-0.5551;
18.0000;0.1481;-0.5451;
18.3000;0.1400;-0.5626;
18.6000;0.1441;-0.5601;
18.9000;0.1441;-0.5702;
19.2000;0.1498;-0.5551;
19.5000;0.1441;-0.5526;
19.8000;0.1416;-0.5476;
20.1000;0.1449;-0.5400;
20.4000;0.1400;-0.5576;
20.7000;0.1416;-0.5526;
21.0000;0.1481;-0.5375;
21.3000;0.1441;-0.5501;
21.6000;0.1416;-0.5476;
21.9000;0.1457;-0.5501;
22.2000;0.1376;-0.5702;
22.5000;0.1441;-0.5501;
22.8000;0.1441;-0.5375;
23.1000;0.1449;-0.5325;
23.4000;0.1433;-0.5300;
23.7000;0.1400;-0.5350;
24.0000;0.1441;-0.5275;
24.3000;0.1457;-0.5300;
24.6000;0.1571;-0.4998;
24.9000;0.1481;-0.5250;
25.2000;0.1392;-0.5526;
25.5000;0.1481;-0.5375;
25.8000;0.1457;-0.5400;
26.1000;0.1530;-0.5250;
26.4000;0.1465;-0.5476;
26.7000;0.1449;-0.5476;
27.0000;0.1441;-0.5526;
27.3000;0.1441;-0.5551;
27.6000;0.1441;-0.5551;
27.9000;0.1433;-0.5576;
28.2000;0.1538;-0.5325;
28.5000;0.1416;-0.5626;
28.8000;0.1441;-0.5601;
29.1000;0.1449;-0.5526;
29.4000;0.1465;-0.5400;
29.7000;0.1457;-0.5350;
30.0000;0.1441;-0.5425;
30.3000;0.1457;-0.5350;
30.6000;0.1441;-0.5375;
30.9000;0.1473;-0.5225;
31.2000;0.1457;-0.5250;
31.5000;0.1457;-0.5225;
31.8000;0.1425;-0.5400;
32.1000;0.1449;-0.5451;
32.4000;0.1457;-0.5400;
32.7000;0.1441;-0.5526;
33.0000;0.1449;-0.5400;
33.3000;0.1433;-0.5451;
33.6000;0.1433;-0.5526;
33.9000;0.1441;-0.5526;
34.2000;0.1441;-0.5576;
34.5000;0.1433;-0.5677;
34.8000;0.1433;-0.5777;
35.1000;0.1457;-0.5702;
35.4000;0.1433;-0.5677;
35.7000;0.1457;-0.5551;
36.0000;0.1433;-0.5677;
36.3000;0.1457;-0.5601;
36.6000;0.1441;-0.5626;
36.9000;0.1425;-0.5626;
37.2000;0.1425;-0.5652;
37.5000;0.1425;-0.5702;
37.8000;0.1441;-0.5702;
38.1000;0.1457;-0.5652;
38.4000;0.1416;-0.5752;
38.7000;0.1441;-0.5652;
39.0000;0.1441;-0.5626;
39.3000;0.1449;-0.5652;
39.6000;0.1457;-0.5576;
39.9000;0.1441;-0.5576;
40.2000;0.1449;-0.5451;
40.5000;0.1465;-0.5375;
40.8000;0.1473;-0.5350;
41.1000;0.1416;-0.5476;
41.4000;0.1433;-0.5451;
41.7000;0.1425;-0.5501;
42.0000;0.1441;-0.5501;
42.3000;0.1433;-0.5626;
42.6000;0.1473;-0.5601;
42.9000;0.1449;-0.5551;
43.2000;0.1441;-0.5451;
43.5000;0.1433;-0.5425;
43.8000;0.1465;-0.5300;
44.1000;0.1465;-0.5350;
44.4000;0.1376;-0.5576;
44.7000;0.1449;-0.5400;
45.0000;0.1441;-0.5476;
45.3000;0.1449;-0.5400;
45.6000;0.1449;-0.5451;
45.9000;0.1441;-0.5451;
46.2000;0.1433;-0.5601;
46.5000;0.1457;-0.5576;
46.8000;0.1465;-0.5576;
47.1000;0.1449;-0.5652;
47.4000;0.1441;-0.5727;
47.7000;0.1441;-0.5777;
48.0000;0.1449;-0.5777;
48.3000;0.1481;-0.5702;
48.6000;0.1457;-0.5702;
48.9000;0.1441;-0.5777;
49.2000;0.1490;-0.5652;
49.5000;0.1441;-0.5626;
49.8000;0.1449;-0.5526;
50.1000;0.1433;-0.5476;
50.4000;0.1433;-0.5501;
50.7000;0.1547;-0.5275;
51.0000;0.1465;-0.5501;
51.3000;0.1449;-0.5576;
51.6000;0.1449;-0.5551;
51.9000;0.1433;-0.5652;
52.2000;0.1425;-0.5626;
52.5000;0.1433;-0.5476;
52.8000;0.1408;-0.5576;
53.1000;0.1425;-0.5526;
53.4000;0.1433;-0.5576;
53.7000;0.1441;-0.5526;
54.0000;0.1441;-0.5601;
54.3000;0.1441;-0.5551;
54.6000;0.1441;-0.5425;
54.9000;0.1441;-0.5375;
55.2000;0.1441;-0.5451;
55.5000;0.1441;-0.5526;
55.8000;0.1441;-0.5526;
56.1000;0.1400;-0.5652;
56.4000;0.1441;-0.5551;
56.7000;0.1449;-0.5551;
57.0000;0.1506;-0.5350;
57.3000;0.1425;-0.5451;
57.6000;0.1433;-0.5451;
57.9000;0.1433;-0.5375;
58.2000;0.1408;-0.5526;
58.5000;0.1433;-0.5350;
58.8000;0.1457;-0.5275;
59.1000;0.1441;-0.5350;
59.4000;0.1433;-0.5375;
59.7000;0.1457;-0.5400;
60.0000;0.1441;-0.5476;
60.3000;0.1449;-0.5451;
60.6000;0.1457;-0.5350;
60.9000;0.1449;-0.5400;
61.2000;0.1441;-0.5350;
61.5000;0.1457;-0.5325;
61.8000;0.1449;-0.5375;
62.1000;0.1449;-0.5375;
62.4000;0.1465;-0.5275;
62.7000;0.1449;-0.5375;
63.0000;0.1408;-0.5551;
63.3000;0.1473;-0.5375;
63.6000;0.1425;-0.5501;
63.9000;0.1441;-0.5400;
64.2000;0.1449;-0.5425;
64.5000;0.1392;-0.5526;
64.8000;0.1384;-0.5576;
65.1000;0.1441;-0.5375;
65.4000;0.1457;-0.5325;
65.7000;0.1457;-0.5325;
66.0000;0.1441;-0.5300;
66.3000;0.1433;-0.5225;
66.6000;0.1392;-0.5425;
66.9000;0.1351;-0.5576;
67.2000;0.1441;-0.5300;
67.5000;0.1408;-0.5375;
67.8000;0.1425;-0.5400;
68.1000;0.1416;-0.5400;
68.4000;0.1449;-0.5250;
68.7000;0.1449;-0.5199;
69.0000;0.1441;-0.5350;
69.3000;0.1441;-0.5400;
69.6000;0.1425;-0.5325;
69.9000;0.1433;-0.5400;
70.2000;0.1433;-0.5501;
70.5000;0.1441;-0.5425;
70.8000;0.1400;-0.5451;
71.1000;0.1433;-0.5375;
71.4000;0.1433;-0.5350;
71.7000;0.1433;-0.5400;
72.0000;0.1433;-0.5350;
72.3000;0.1416;-0.5501;
72.6000;0.1433;-0.5551;
72.9000;0.1433;-0.5576;
73.2000;0.1433;-0.5626;
73.5000;0.1441;-0.5601;
73.8000;0.1449;-0.5526;
74.1000;0.1425;-0.5576;
74.4000;0.1433;-0.5501;
74.7000;0.1441;-0.5601;
75.0000;0.1449;-0.5576;
75.3000;0.1449;-0.5526;
75.6000;0.1457;-0.5476;
75.9000;0.1481;-0.5425;
76.2000;0.1465;-0.5451;
76.5000;0.1449;-0.5501;
76.8000;0.1449;-0.5476;
77.1000;0.1457;-0.5476;
77.4000;0.1433;-0.5526;
77.7000;0.1457;-0.5501;
78.0000;0.1441;-0.5501;
78.3000;0.1441;-0.5526;
78.6000;0.1449;-0.5601;
78.9000;0.1433;-0.5551;
79.2000;0.1449;-0.5476;
79.5000;0.1449;-0.5476;
79.8000;0.1449;-0.5576;
80.1000;0.1449;-0.5501;
80.4000;0.1433;-0.5476;
80.7000;0.1441;-0.5400;
81.0000;0.1441;-0.5451;
81.3000;0.1433;-0.5526;
81.6000;0.1457;-0.5576;
81.9000;0.1441;-0.5501;
82.2000;0.1441;-0.5501;
82.5000;0.1433;-0.5476;
82.8000;0.1449;-0.5425;
83.1000;0.1441;-0.5551;
83.4000;0.1441;-0.5451;
83.7000;0.1441;-0.5375;
84.0000;0.1441;-0.5375;
84.3000;0.1449;-0.5425;
84.6000;0.1449;-0.5425;
84.9000;0.1425;-0.5400;
85.2000;0.1433;-0.5375;
85.5000;0.1441;-0.5375;
85.8000;0.1441;-0.5400;
86.1000;0.1441;-0.5400;
86.4000;0.1449;-0.5325;
86.7000;0.1449;-0.5400;
87.0000;0.1449;-0.5451;
87.3000;0.1449;-0.5425;
87.6000;0.1457;-0.5451;
87.9000;0.1425;-0.5526;
88.2000;0.1433;-0.5526;
88.5000;0.1457;-0.5526;
88.8000;0.1425;-0.5601;
89.1000;0.1441;-0.5601;
89.4000;0.1433;-0.5601;
89.7000;0.1522;-0.5174;
90.0000;0.1359;-0.5677;
90.3000;0.1441;-0.5451;
90.6000;0.1433;-0.5425;
90.9000;0.1425;-0.5451;
91.2000;0.1433;-0.5451;
91.5000;0.1433;-0.5425;
91.8000;0.1433;-0.5425;
92.1000;0.1400;-0.5626;
92.4000;0.1441;-0.5626;
92.7000;0.1400;-0.5802;
93.0000;0.1449;-0.5601;
93.3000;0.1433;-0.5652;
93.6000;0.1425;-0.5576;
93.9000;0.1433;-0.5677;
94.2000;0.1441;-0.5652;
94.5000;0.1433;-0.5677;
94.8000;0.1416;-0.5727;
95.1000;0.1368;-0.5827;
95.4000;0.1481;-0.5425;
95.7000;0.1441;-0.5576;
96.0000;0.1441;-0.5526;
96.3000;0.1481;-0.5325;
96.6000;0.1465;-0.5325;
96.9000;0.1449;-0.5375;
97.2000;0.1555;-0.5149;
97.5000;0.1441;-0.5476;
97.8000;0.1514;-0.5325;
98.1000;0.1498;-0.5375;
98.4000;0.1425;-0.5576;
98.7000;0.1416;-0.5576;
99.0000;0.1433;-0.5476;
99.3000;0.1433;-0.5476;
99.6000;0.1506;-0.5375;
99.9000;0.1465;-0.5350;
100.2000;0.1449;-0.5400;
100.5000;0.1449;-0.5451;
100.8000;0.1457;-0.5425;
101.1000;0.1449;-0.5451;
101.4000;0.1449;-0.5425;
101.7000;0.1473;-0.5425;
102.0000;0.1392;-0.5601;
102.3000;0.1433;-0.5501;
102.6000;0.1368;-0.5727;
102.9000;0.1465;-0.5551;
103.2000;0.1449;-0.5551;
103.5000;0.1408;-0.5626;
103.8000;0.1441;-0.5526;
104.1000;0.1449;-0.5501;
104.4000;0.1457;-0.5551;
104.7000;0.1433;-0.5626;
105.0000;0.1433;-0.5601;
105.3000;0.1457;-0.5526;
105.6000;0.1449;-0.5551;
105.9000;0.1425;-0.5601;
106.2000;0.1351;-0.5802;
106.5000;0.1433;-0.5576;
106.8000;0.1416;-0.5526;
107.1000;0.1441;-0.5501;
107.4000;0.1433;-0.5476;
107.7000;0.1433;-0.5551;
108.0000;0.1441;-0.5601;
108.3000;0.1433;-0.5702;
108.6000;0.1433;-0.5702;
108.9000;0.1441;-0.5601;
109.2000;0.1465;-0.5576;
109.5000;0.1433;-0.5652;
109.8000;0.1441;-0.5652;
110.1000;0.1449;-0.5526;
110.4000;0.1449;-0.5526;
110.7000;0.1457;-0.5551;
111.0000;0.1433;-0.5652;
111.3000;0.1449;-0.5677;
111.6000;0.1433;-0.5601;
111.9000;0.1433;-0.5601;
112.2000;0.1425;-0.5576;
112.5000;0.1433;-0.5476;
112.8000;0.1425;-0.5425;
113.1000;0.1522;-0.5074;
113.4000;0.1441;-0.5350;
113.7000;0.1376;-0.5400;
114.0000;0.1335;-0.5551;
114.3000;0.1457;-0.5325;
114.6000;0.1457;-0.5300;
114.9000;0.1425;-0.5325;
115.2000;0.1490;-0.5149;
115.5000;0.1368;-0.5375;
115.8000;0.1457;-0.5199;
116.1000;0.1425;-0.5275;
116.4000;0.1433;-0.5350;
116.7000;0.1433;-0.5350;
117.0000;0.1457;-0.5300;
117.3000;0.1335;-0.5652;
117.6000;0.1441;-0.5425;
117.9000;0.1473;-0.5350;
118.2000;0.1433;-0.5476;
118.5000;0.1449;-0.5400;
118.8000;0.1433;-0.5476;
119.1000;0.1490;-0.5325;
119.4000;0.1457;-0.5400;
119.7000;0.1400;-0.5551;
120.0000;0.1433;-0.5576;
120.3000;0.1449;-0.5501;
120.6000;0.1465;-0.5425;
120.9000;0.1425;-0.5601;
121.2000;0.1449;-0.5526;
121.5000;0.1425;-0.5601;
121.8000;0.1425;-0.5626;
122.1000;0.1514;-0.5425;
122.4000;0.1433;-0.5601;
122.7000;0.1376;-0.5752;
123.0000;0.1433;-0.5576;
123.3000;0.1425;-0.5551;
123.6000;0.1425;-0.5601;
123.9000;0.1400;-0.5601;
124.2000;0.1376;-0.5551;
124.5000;0.1425;-0.5451;
124.8000;0.1433;-0.5451;
125.1000;0.1449;-0.5325;
125.4000;0.1457;-0.5325;
125.7000;0.1473;-0.5300;
126.0000;0.1433;-0.5451;
126.3000;0.1425;-0.5375;
126.6000;0.1408;-0.5350;
126.9000;0.1433;-0.5250;
127.2000;0.1425;-0.5375;
127.5000;0.1433;-0.5400;
127.8000;0.1441;-0.5350;
128.1000;0.1441;-0.5350;
128.4000;0.1433;-0.5400;
128.7000;0.1441;-0.5425;
129.0000;0.1433;-0.5476;
129.3000;0.1425;-0.5526;
129.6000;0.1449;-0.5425;
129.9000;0.1441;-0.5501;
130.2000;0.1457;-0.5451;
130.5000;0.1433;-0.5400;
130.8000;0.1441;-0.5501;
131.1000;0.1449;-0.5551;
131.4000;0.1441;-0.5526;
131.7000;0.1441;-0.5425;
132.0000;0.1416;-0.5425;
132.3000;0.1433;-0.5425;
132.6000;0.1473;-0.5451;
132.9000;0.1449;-0.5476;
133.2000;0.1376;-0.5626;
133.5000;0.1416;-0.5501;
133.8000;0.1441;-0.5400;
134.1000;0.1465;-0.5350;
134.4000;0.1449;-0.5425;
134.7000;0.1441;-0.5451;
135.0000;0.1538;-0.5149;
135.3000;0.1457;-0.5275;
135.6000;0.1465;-0.5275;
135.9000;0.1441;-0.5225;
136.2000;0.1490;-0.5124;
136.5000;0.1433;-0.5375;
136.8000;0.1433;-0.5425;
137.1000;0.1457;-0.5325;
137.4000;0.1416;-0.5400;
137.7000;0.1481;-0.5250;
138.0000;0.1425;-0.5425;
138.3000;0.1449;-0.5451;
138.6000;0.1343;-0.5752;
138.9000;0.1416;-0.5576;
139.2000;0.1416;-0.5576;
139.5000;0.1457;-0.5551;
139.8000;0.1408;-0.5576;
140.1000;0.1441;-0.5451;
140.4000;0.1449;-0.5375;
140.7000;0.1465;-0.5275;
141.0000;0.1449;-0.5325;
141.3000;0.1465;-0.5325;
141.6000;0.1457;-0.5350;
141.9000;0.1441;-0.5400;
142.2000;0.1449;-0.5501;
142.5000;0.1441;-0.5526;
142.8000;0.1441;-0.5501;
143.1000;0.1433;-0.5551;
143.4000;0.1449;-0.5526;
143.7000;0.1449;-0.5400;
144.0000;0.1441;-0.5425;
144.3000;0.1425;-0.5451;
144.6000;0.1441;-0.5325;
144.9000;0.1400;-0.5400;
145.2000;0.1433;-0.5375;
145.5000;0.1449;-0.5350;
145.8000;0.1433;-0.5451;
146.1000;0.1441;-0.5476;
146.4000;0.1433;-0.5501;
146.7000;0.1433;-0.5526;
147.0000;0.1441;-0.5451;
147.3000;0.1449;-0.5425;
147.6000;0.1449;-0.5476;
147.9000;0.1441;-0.5476;
148.2000;0.1441;-0.5425;
148.5000;0.1425;-0.5451;
148.8000;0.1449;-0.5451;
149.1000;0.1433;-0.5551;
149.4000;0.1449;-0.5601;
149.7000;0.1433;-0.5727;
150.0000;0.1457;-0.5777;
150.3000;0.1416;-0.5827;
150.6000;0.1449;-0.5727;
150.9000;0.1465;-0.5727;
151.2000;0.1441;-0.5777;
151.5000;0.1441;-0.5652;
151.8000;0.1433;-0.5626;
152.1000;0.1449;-0.5526;
152.4000;0.1449;-0.5526;
152.7000;0.1457;-0.5626;
153.0000;0.1449;-0.5601;
153.3000;0.1433;-0.5601;
153.6000;0.1433;-0.5551;
153.9000;0.1433;-0.5576;
154.2000;0.1433;-0.5626;
154.5000;0.1449;-0.5576;
154.8000;0.1441;-0.5601;
155.1000;0.1449;-0.5576;
155.4000;0.1425;-0.5652;
155.7000;0.1457;-0.5576;
156.0000;0.1449;-0.5551;
156.3000;0.1490;-0.5501;
156.6000;0.1465;-0.5601;
156.9000;0.1465;-0.5576;
157.2000;0.1441;-0.5501;
157.5000;0.1449;-0.5501;
157.8000;0.1449;-0.5601;
158.1000;0.1498;-0.5576;
158.4000;0.1368;-0.5852;
158.7000;0.1416;-0.5652;
159.0000;0.1425;-0.5677;
159.3000;0.1441;-0.5652;
159.6000;0.1498;-0.5601;
159.9000;0.1481;-0.5476;
160.2000;0.1441;-0.5601;
160.5000;0.1408;-0.5601;
160.8000;0.1441;-0.5551;
161.1000;0.1449;-0.5526;
161.4000;0.1433;-0.5476;
161.7000;0.1425;-0.5551;
162.0000;0.1425;-0.5526;
162.3000;0.1441;-0.5501;
162.6000;0.1506;-0.5400;
162.9000;0.1392;-0.5626;
163.2000;0.1457;-0.5551;
163.5000;0.1530;-0.5275;
163.8000;0.1498;-0.5451;
164.1000;0.1433;-0.5702;
164.4000;0.1441;-0.5576;
164.7000;0.1392;-0.5727;
165.0000;0.1457;-0.5501;
165.3000;0.1376;-0.5601;
165.6000;0.1425;-0.5325;
165.9000;0.1433;-0.5300;
166.2000;0.1457;-0.5250;
166.5000;0.1449;-0.5325;
166.8000;0.1449;-0.5350;
167.1000;0.1441;-0.5375;
167.4000;0.1449;-0.5400;
167.7000;0.1457;-0.5400;
168.0000;0.1538;-0.5225;
168.3000;0.1441;-0.5425;
168.6000;0.1433;-0.5451;
168.9000;0.1433;-0.5300;
169.2000;0.1425;-0.5225;
169.5000;0.1433;-0.5225;
169.8000;0.1416;-0.5250;
170.1000;0.1433;-0.5225;
170.4000;0.1433;-0.5250;
170.7000;0.1441;-0.5199;
171.0000;0.1416;-0.5225;
171.3000;0.1449;-0.5199;
171.6000;0.1433;-0.5300;
171.9000;0.1457;-0.5275;
172.2000;0.1441;-0.5350;
172.5000;0.1433;-0.5375;
172.8000;0.1465;-0.5275;
173.1000;0.1457;-0.5325;
173.4000;0.1433;-0.5275;
173.7000;0.1441;-0.5250;
174.0000;0.1441;-0.5250;
174.3000;0.1433;-0.5350;
174.6000;0.1425;-0.5325;
174.9000;0.1433;-0.5350;
175.2000;0.1433;-0.5350;
175.5000;0.1465;-0.5425;
175.8000;0.1441;-0.5526;
176.1000;0.1441;-0.5501;
176.4000;0.1457;-0.5400;
176.7000;0.1449;-0.5425;
177.0000;0.1457;-0.5451;
177.3000;0.1449;-0.5501;
177.6000;0.1481;-0.5476;
177.9000;0.1490;-0.5425;
178.2000;0.1433;-0.5576;
178.5000;0.1416;-0.5526;
178.8000;0.1433;-0.5375;
179.1000;0.1449;-0.5350;
179.4000;0.1481;-0.5250;
179.7000;0.1449;-0.5300;
180.0000;0.1441;-0.5400;
180.3000;0.1368;-0.5601;
180.6000;0.1449;-0.5300;
180.9000;0.1457;-0.5275;
181.2000;0.1441;-0.5325;
181.5000;0.1473;-0.5149;
181.8000;0.1441;-0.5199;
182.1000;0.1359;-0.5476;
182.4000;0.1425;-0.5325;
182.7000;0.1433;-0.5250;
183.0000;0.1457;-0.5300;
183.3000;0.1392;-0.5451;
183.6000;0.1400;-0.5400;
183.9000;0.1425;-0.5451;
184.2000;0.1400;-0.5626;
184.5000;0.1457;-0.5551;
184.8000;0.1425;-0.5652;
185.1000;0.1433;-0.5501;
185.4000;0.1457;-0.5375;
185.7000;0.1416;-0.5400;
186.0000;0.1441;-0.5375;
186.3000;0.1327;-0.5652;
186.6000;0.1408;-0.5476;
186.9000;0.1400;-0.5601;
187.2000;0.1433;-0.5425;
187.5000;0.1425;-0.5400;
187.8000;0.1384;-0.5476;
188.1000;0.1449;-0.5250;
188.4000;0.1425;-0.5275;
188.7000;0.1408;-0.5325;
189.0000;0.1433;-0.5350;
189.3000;0.1547;-0.5099;
189.6000;0.1441;-0.5400;
189.9000;0.1433;-0.5375;
190.2000;0.1441;-0.5400;
190.5000;0.1441;-0.5425;
190.8000;0.1408;-0.5576;
191.1000;0.1408;-0.5551;
191.4000;0.1441;-0.5425;
191.7000;0.1449;-0.5425;
192.0000;0.1449;-0.5400;
192.3000;0.1441;-0.5451;
192.6000;0.1449;-0.5501;
192.9000;0.1481;-0.5350;
193.2000;0.1449;-0.5476;
193.5000;0.1425;-0.5501;
193.8000;0.1408;-0.5551;
194.1000;0.1425;-0.5526;
194.4000;0.1433;-0.5400;
194.7000;0.1425;-0.5375;
195.0000;0.1425;-0.5375;
195.3000;0.1416;-0.5375;
195.6000;0.1441;-0.5300;
195.9000;0.1457;-0.5375;
196.2000;0.1457;-0.5451;
196.5000;0.1425;-0.5451;
196.8000;0.1449;-0.5375;
197.1000;0.1449;-0.5275;
197.4000;0.1433;-0.5300;
197.7000;0.1433;-0.5250;
198.0000;0.1433;-0.5300;
198.3000;0.1433;-0.5250;
198.6000;0.1433;-0.5149;
198.9000;0.1441;-0.5174;
199.2000;0.1416;-0.5300;
199.5000;0.1441;-0.5275;
199.8000;0.1449;-0.5199;
200.1000;0.1441;-0.5275;
200.4000;0.1441;-0.5350;
200.7000;0.1449;-0.5451;
201.0000;0.1457;-0.5476;
201.3000;0.1457;-0.5400;
201.6000;0.1441;-0.5425;
201.9000;0.1384;-0.5576;
202.2000;0.1449;-0.5400;
202.5000;0.1425;-0.5425;
202.8000;0.1433;-0.5400;
203.1000;0.1441;-0.5375;
203.4000;0.1449;-0.5300;
203.7000;0.1441;-0.5325;
204.0000;0.1425;-0.5375;
204.3000;0.1441;-0.5400;
204.6000;0.1449;-0.5400;
204.9000;0.1441;-0.5501;
205.2000;0.1425;-0.5551;
205.5000;0.1408;-0.5551;
205.8000;0.1522;-0.5300;
206.1000;0.1441;-0.5526;
206.4000;0.1473;-0.5451;
206.7000;0.1441;-0.5526;
207.0000;0.1473;-0.5551;
207.3000;0.1433;-0.5626;
207.6000;0.1441;-0.5576;
207.9000;0.1359;-0.5677;
208.2000;0.1457;-0.5425;
208.5000;0.1457;-0.5425;
208.8000;0.1425;-0.5626;
209.1000;0.1457;-0.5451;
209.4000;0.1457;-0.5425;
209.7000;0.1433;-0.5476;
210.0000;0.1441;-0.5350;
210.3000;0.1433;-0.5325;
210.6000;0.1433;-0.5451;
210.9000;0.1457;-0.5476;
211.2000;0.1441;-0.5476;
211.5000;0.1433;-0.5451;
211.8000;0.1514;-0.5225;
212.1000;0.1498;-0.5199;
212.4000;0.1449;-0.5350;
212.7000;0.1441;-0.5350;
213.0000;0.1441;-0.5325;
213.3000;0.1425;-0.5325;
213.6000;0.1441;-0.5300;
213.9000;0.1449;-0.5300;
214.2000;0.1416;-0.5425;
214.5000;0.1441;-0.5350;
214.8000;0.1416;-0.5476;
215.1000;0.1425;-0.5425;
215.4000;0.1433;-0.5375;
215.7000;0.1425;-0.5400;
216.0000;0.1481;-0.5174;
216.3000;0.1441;-0.5400;
216.6000;0.1441;-0.5451;
216.9000;0.1408;-0.5551;
217.2000;0.1449;-0.5476;
217.5000;0.1433;-0.5451;
217.8000;0.1433;-0.5576;
218.1000;0.1392;-0.5727;
218.4000;0.1457;-0.5677;
218.7000;0.1457;-0.5727;
219.0000;0.1441;-0.5827;
219.3000;0.1449;-0.5677;
219.6000;0.1441;-0.5576;
219.9000;0.1441;-0.5526;
220.2000;0.1473;-0.5400;
220.5000;0.1449;-0.5576;
220.8000;0.1457;-0.5526;
221.1000;0.1465;-0.5501;
221.4000;0.1457;-0.5576;
221.7000;0.1441;-0.5551;
222.0000;0.1441;-0.5526;
222.3000;0.1433;-0.5526;
222.6000;0.1449;-0.5451;
222.9000;0.1441;-0.5350;
223.2000;0.1433;-0.5325;
223.5000;0.1441;-0.5350;
223.8000;0.1441;-0.5250;
224.1000;0.1441;-0.5325;
224.4000;0.1433;-0.5350;
224.7000;0.1433;-0.5325;
225.0000;0.1449;-0.5425;
225.3000;0.1425;-0.5526;
225.6000;0.1351;-0.5777;
225.9000;0.1449;-0.5576;
226.2000;0.1449;-0.5501;
226.5000;0.1408;-0.5551;
226.8000;0.1449;-0.5425;
227.1000;0.1449;-0.5501;
227.4000;0.1425;-0.5551;
227.7000;0.1433;-0.5501;
228.0000;0.1547;-0.5174;
228.3000;0.1457;-0.5325;
228.6000;0.1449;-0.5400;
228.9000;0.1441;-0.5375;
229.2000;0.1449;-0.5400;
229.5000;0.1473;-0.5325;
229.8000;0.1441;-0.5451;
230.1000;0.1433;-0.5451;
230.4000;0.1441;-0.5350;
230.7000;0.1441;-0.5300;
231.0000;0.1351;-0.5476;
231.3000;0.1449;-0.5199;
231.6000;0.1433;-0.5300;
231.9000;0.1425;-0.5350;
232.2000;0.1449;-0.5300;
232.5000;0.1465;-0.5225;
232.8000;0.1449;-0.5250;
233.1000;0.1425;-0.5300;
233.4000;0.1449;-0.5275;
233.7000;0.1425;-0.5400;
234.0000;0.1425;-0.5375;
234.3000;0.1433;-0.5325;
234.6000;0.1416;-0.5325;
234.9000;0.1514;-0.5074;
235.2000;0.1522;-0.5024;
235.5000;0.1433;-0.5300;
235.8000;0.1425;-0.5375;
236.1000;0.1433;-0.5375;
236.4000;0.1457;-0.5350;
236.7000;0.1441;-0.5375;
237.0000;0.1425;-0.5425;
237.3000;0.1416;-0.5526;
237.6000;0.1433;-0.5425;
237.9000;0.1465;-0.5300;
238.2000;0.1506;-0.5174;
238.5000;0.1425;-0.5375;
238.8000;0.1457;-0.5149;
239.1000;0.1416;-0.5174;
239.4000;0.1416;-0.5225;
239.7000;0.1425;-0.5400;
240.0000;0.1376;-0.5576;
240.3000;0.1433;-0.5476;
240.6000;0.1425;-0.5350;
240.9000;0.1433;-0.5325;
241.2000;0.1441;-0.5275;
241.5000;0.1465;-0.5099;
241.8000;0.1433;-0.5225;
242.1000;0.1400;-0.5425;
242.4000;0.1433;-0.5300;
242.7000;0.1441;-0.5250;
243.0000;0.1506;-0.5099;
243.3000;0.1449;-0.5275;
243.6000;0.1433;-0.5275;
243.9000;0.1449;-0.5199;
244.2000;0.1425;-0.5174;
244.5000;0.1425;-0.5174;
244.8000;0.1449;-0.5225;
245.1000;0.1425;-0.5250;
245.4000;0.1416;-0.5225;
245.7000;0.1416;-0.5300;
246.0000;0.1408;-0.5300;
246.3000;0.1408;-0.5149;
246.6000;0.1441;-0.5024;
246.9000;0.1522;-0.4898;
247.2000;0.1425;-0.5149;
247.5000;0.1441;-0.5124;
247.8000;0.1425;-0.5225;
248.1000;0.1425;-0.5350;
248.4000;0.1465;-0.5300;
248.7000;0.1441;-0.5325;
249.0000;0.1433;-0.5375;
249.3000;0.1441;-0.5350;
249.6000;0.1433;-0.5350;
249.9000;0.1376;-0.5526;
250.2000;0.1400;-0.5476;
250.5000;0.1425;-0.5476;
250.8000;0.1376;-0.5677;
251.1000;0.1498;-0.5451;
251.4000;0.1449;-0.5476;
251.7000;0.1449;-0.5501;
252.0000;0.1449;-0.5501;
252.3000;0.1351;-0.5727;
252.6000;0.1538;-0.5300;
252.9000;0.1465;-0.5501;
253.2000;0.1441;-0.5526;
253.5000;0.1449;-0.5526;
253.8000;0.1457;-0.5526;
254.1000;0.1522;-0.5350;
254.4000;0.1555;-0.5300;
254.7000;0.1441;-0.5576;
255.0000;0.1449;-0.5576;
255.3000;0.1457;-0.5551;
255.6000;0.1400;-0.5626;
255.9000;0.1433;-0.5526;
256.2000;0.1449;-0.5400;
256.5000;0.1449;-0.5375;
256.8000;0.1473;-0.5325;
257.1000;0.1457;-0.5400;
257.4000;0.1449;-0.5425;
257.7000;0.1433;-0.5526;
258.0000;0.1302;-0.5827;
258.3000;0.1457;-0.5400;
258.6000;0.1441;-0.5325;
258.9000;0.1433;-0.5375;
259.2000;0.1473;-0.5300;
259.5000;0.1465;-0.5325;
259.8000;0.1547;-0.5124;
260.1000;0.1433;-0.5425;
260.4000;0.1441;-0.5451;
260.7000;0.1441;-0.5526;
261.0000;0.1359;-0.5777;
261.3000;0.1433;-0.5526;
261.6000;0.1522;-0.5225;
261.9000;0.1392;-0.5677;
262.2000;0.1416;-0.5626;
262.5000;0.1441;-0.5551;
262.8000;0.1441;-0.5476;
263.1000;0.1473;-0.5425;
263.4000;0.1441;-0.5501;
263.7000;0.1441;-0.5526;
264.0000;0.1425;-0.5526;
264.3000;0.1449;-0.5526;
264.6000;0.1425;-0.5752;
264.9000;0.1449;-0.5702;
265.2000;0.1408;-0.5702;
265.5000;0.1425;-0.5652;
265.8000;0.1425;-0.5626;
266.1000;0.1441;-0.5526;
266.4000;0.1433;-0.5626;
266.7000;0.1465;-0.5526;
267.0000;0.1449;-0.5551;
267.3000;0.1441;-0.5601;
267.6000;0.1408;-0.5601;
267.9000;0.1465;-0.5400;
268.2000;0.1449;-0.5451;
268.5000;0.1441;-0.5476;
268.8000;0.1433;-0.5551;
269.1000;0.1433;-0.5551;
269.4000;0.1416;-0.5551;
269.7000;0.1449;-0.5501;
270.0000;0.1400;-0.5626;
270.3000;0.1425;-0.5551;
270.6000;0.1441;-0.5451;
270.9000;0.1449;-0.5451;
271.2000;0.1473;-0.5425;
271.5000;0.1408;-0.5576;
271.8000;0.1441;-0.5375;
272.1000;0.1457;-0.5350;
272.4000;0.1465;-0.5325;
272.7000;0.1449;-0.5375;
273.0000;0.1441;-0.5451;
273.3000;0.1449;-0.5375;
273.6000;0.1433;-0.5275;
273.9000;0.1425;-0.5425;
274.2000;0.1441;-0.5325;
274.5000;0.1400;-0.5375;
274.8000;0.1441;-0.5325;
275.1000;0.1425;-0.5350;
275.4000;0.1506;-0.5149;
275.7000;0.1449;-0.5375;
276.0000;0.1441;-0.5350;
276.3000;0.1433;-0.5400;
276.6000;0.1457;-0.5375;
276.9000;0.1498;-0.5325;
277.2000;0.1441;-0.5350;
277.5000;0.1433;-0.5375;
277.8000;0.1449;-0.5375;
278.1000;0.1473;-0.5325;
278.4000;0.1425;-0.5425;
278.7000;0.1416;-0.5425;
279.0000;0.1425;-0.5400;
279.3000;0.1425;-0.5526;
279.6000;0.1506;-0.5350;
279.9000;0.1457;-0.5501;
280.2000;0.1449;-0.5626;
280.5000;0.1425;-0.5601;
280.8000;0.1384;-0.5601;
281.1000;0.1416;-0.5601;
281.4000;0.1441;-0.5476;
281.7000;0.1400;-0.5601;
282.0000;0.1441;-0.5476;
282.3000;0.1433;-0.5476;
282.6000;0.1433;-0.5375;
282.9000;0.1368;-0.5451;
283.2000;0.1416;-0.5275;
283.5000;0.1408;-0.5300;
283.8000;0.1416;-0.5300;
284.1000;0.1425;-0.5325;
284.4000;0.1400;-0.5400;
284.7000;0.1481;-0.5300;
285.0000;0.1425;-0.5501;
285.3000;0.1416;-0.5551;
285.6000;0.1433;-0.5501;
285.9000;0.1433;-0.5501;
286.2000;0.1416;-0.5501;
286.5000;0.1425;-0.5526;
286.8000;0.1433;-0.5425;
287.1000;0.1441;-0.5425;
287.4000;0.1457;-0.5425;
287.7000;0.1433;-0.5375;
288.0000;0.1433;-0.5451;
288.3000;0.1441;-0.5425;
288.6000;0.1465;-0.5476;
288.9000;0.1457;-0.5501;
289.2000;0.1457;-0.5501;
289.5000;0.1457;-0.5551;
289.8000;0.1449;-0.5601;
290.1000;0.1441;-0.5601;
290.4000;0.1416;-0.5652;
290.7000;0.1441;-0.5601;
291.0000;0.1449;-0.5501;
291.3000;0.1449;-0.5551;
291.6000;0.1506;-0.5400;
291.9000;0.1441;-0.5551;
292.2000;0.1449;-0.5576;
292.5000;0.1457;-0.5526;
292.8000;0.1449;-0.5476;
293.1000;0.1457;-0.5400;
293.4000;0.1473;-0.5300;
293.7000;0.1449;-0.5400;
294.0000;0.1441;-0.5400;
294.3000;0.1416;-0.5526;
294.6000;0.1433;-0.5501;
294.9000;0.1457;-0.5451;
295.2000;0.1441;-0.5451;
295.5000;0.1449;-0.5526;
295.8000;0.1425;-0.5526;
296.1000;0.1384;-0.5576;
296.4000;0.1433;-0.5526;
296.7000;0.1425;-0.5501;
297.0000;0.1408;-0.5476;
297.3000;0.1465;-0.5350;
297.6000;0.1465;-0.5350;
297.9000;0.1441;-0.5476;
298.2000;0.1433;-0.5425;
298.5000;0.1449;-0.5350;
298.8000;0.1441;-0.5425;
299.1000;0.1400;-0.5626;
299.4000;0.1425;-0.5526;
299.7000;0.1425;-0.5601;
300.0000;0.1400;-0.5702;
300.3000;0.1441;-0.5551;
300.6000;0.1425;-0.5576;
300.9000;0.1433;-0.5576;
301.2000;0.1433;-0.5652;
301.5000;0.1392;-0.5677;
301.8000;0.1449;-0.5576;
302.1000;0.1522;-0.5300;
302.4000;0.1465;-0.5476;
302.7000;0.1433;-0.5626;
303.0000;0.1449;-0.5576;
303.3000;0.1425;-0.5677;
303.6000;0.1408;-0.5702;
303.9000;0.1441;-0.5576;
304.2000;0.1425;-0.5601;
304.5000;0.1408;-0.5652;
304.8000;0.1506;-0.5526;
305.1000;0.1425;-0.5702;
305.4000;0.1490;-0.5451;
305.7000;0.1392;-0.5702;
306.0000;0.1449;-0.5576;
306.3000;0.1514;-0.5425;
306.6000;0.1441;-0.5526;
306.9000;0.1433;-0.5526;
307.2000;0.1441;-0.5526;
307.5000;0.1433;-0.5652;
307.8000;0.1433;-0.5576;
308.1000;0.1457;-0.5526;
308.4000;0.1425;-0.5576;
308.7000;0.1457;-0.5476;
309.0000;0.1498;-0.5375;
309.3000;0.1416;-0.5576;
309.6000;0.1425;-0.5626;
309.9000;0.1408;-0.5677;
310.2000;0.1425;-0.5752;
310.5000;0.1416;-0.5652;
310.8000;0.1425;-0.5626;
311.1000;0.1408;-0.5677;
311.4000;0.1449;-0.5652;
311.7000;0.1425;-0.5752;
312.0000;0.1441;-0.5677;
312.3000;0.1441;-0.5652;
312.6000;0.1473;-0.5576;
312.9000;0.1433;-0.5576;
313.2000;0.1433;-0.5551;
313.5000;0.1449;-0.5601;
313.8000;0.1457;-0.5576;
314.1000;0.1433;-0.5551;
314.4000;0.1441;-0.5501;
314.7000;0.1433;-0.5501;
315.0000;0.1392;-0.5677;
315.3000;0.1433;-0.5451;
315.6000;0.1416;-0.5501;
315.9000;0.1433;-0.5476;
316.2000;0.1425;-0.5451;
316.5000;0.1408;-0.5551;
316.8000;0.1449;-0.5501;
317.1000;0.1433;-0.5576;
317.4000;0.1400;-0.5677;
317.7000;0.1433;-0.5601;
318.0000;0.1433;-0.5652;
318.3000;0.1408;-0.5626;
318.6000;0.1449;-0.5576;
318.9000;0.1425;-0.5601;
319.2000;0.1441;-0.5626;
319.5000;0.1441;-0.5652;
319.8000;0.1408;-0.5702;
320.1000;0.1416;-0.5752;
320.4000;0.1449;-0.5652;
320.7000;0.1433;-0.5702;
321.0000;0.1449;-0.5626;
321.3000;0.1433;-0.5702;
321.6000;0.1465;-0.5576;
321.9000;0.1433;-0.5626;
322.2000;0.1433;-0.5652;
322.5000;0.1408;-0.5702;
322.8000;0.1425;-0.5652;
323.1000;0.1392;-0.5827;
323.4000;0.1416;-0.5727;
323.7000;0.1441;-0.5576;
324.0000;0.1481;-0.5476;
324.3000;0.1416;-0.5576;
324.6000;0.1416;-0.5400;
324.9000;0.1433;-0.5350;
325.2000;0.1433;-0.5350;
325.5000;0.1441;-0.5400;
325.8000;0.1441;-0.5551;
326.1000;0.1392;-0.5727;
326.4000;0.1433;-0.5576;
326.7000;0.1449;-0.5626;
327.0000;0.1441;-0.5702;
327.3000;0.1481;-0.5601;
327.6000;0.1433;-0.5727;
327.9000;0.1433;-0.5777;
328.2000;0.1441;-0.5702;
328.5000;0.1433;-0.5727;
328.8000;0.1563;-0.5325;
329.1000;0.1449;-0.5601;
329.4000;0.1441;-0.5425;
329.7000;0.1465;-0.5350;
330.0000;0.1425;-0.5400;
330.3000;0.1441;-0.5425;
330.6000;0.1441;-0.5400;
330.9000;0.1441;-0.5350;
331.2000;0.1433;-0.5275;
331.5000;0.1441;-0.5250;
331.8000;0.1449;-0.5275;
332.1000;0.1498;-0.5199;
332.4000;0.1441;-0.5400;
332.7000;0.1449;-0.5350;
333.0000;0.1473;-0.5350;
333.3000;0.1449;-0.5350;
333.6000;0.1457;-0.5350;
333.9000;0.1465;-0.5400;
334.2000;0.1449;-0.5400;
334.5000;0.1425;-0.5451;
334.8000;0.1416;-0.5375;
335.1000;0.1441;-0.5300;
335.4000;0.1433;-0.5250;
335.7000;0.1441;-0.5350;
336.0000;0.1425;-0.5400;
336.3000;0.1441;-0.5451;
336.6000;0.1408;-0.5451;
336.9000;0.1392;-0.5501;
337.2000;0.1449;-0.5400;
337.5000;0.1457;-0.5350;
337.8000;0.1433;-0.5325;
338.1000;0.1481;-0.5149;
338.4000;0.1433;-0.5250;
338.7000;0.1473;-0.5099;
339.0000;0.1449;-0.5250;
339.3000;0.1465;-0.5350;
339.6000;0.1441;-0.5325;
339.9000;0.1449;-0.5174;
340.2000;0.1433;-0.5199;
340.5000;0.1327;-0.5425;
340.8000;0.1416;-0.5149;
341.1000;0.1416;-0.5099;
341.4000;0.1441;-0.4973;
341.7000;0.1425;-0.4998;
342.0000;0.1441;-0.5074;
342.3000;0.1441;-0.5124;
342.6000;0.1433;-0.5174;
342.9000;0.1433;-0.5300;
343.2000;0.1457;-0.5300;
343.5000;0.1441;-0.5350;
343.8000;0.1433;-0.5350;
344.1000;0.1433;-0.5400;
344.4000;0.1441;-0.5275;
344.7000;0.1433;-0.5149;
345.0000;0.1408;-0.5174;
345.3000;0.1481;-0.4998;
345.6000;0.1433;-0.5024;
345.9000;0.1441;-0.4998;
346.2000;0.1425;-0.5124;
346.5000;0.1433;-0.5074;
346.8000;0.1449;-0.5049;
347.1000;0.1441;-0.5124;
347.4000;0.1384;-0.5225;
347.7000;0.1441;-0.5149;
348.0000;0.1433;-0.5199;
348.3000;0.1465;-0.5174;
348.6000;0.1441;-0.5124;
348.9000;0.1425;-0.5174;
349.2000;0.1441;-0.5149;
349.5000;0.1449;-0.5124;
349.8000;0.1441;-0.5199;
350.1000;0.1457;-0.5149;
350.4000;0.1441;-0.5174;
350.7000;0.1425;-0.5225;
351.0000;0.1433;-0.5300;
351.3000;0.1441;-0.5350;
351.6000;0.1400;-0.5375;
351.9000;0.1449;-0.5250;
352.2000;0.1449;-0.5124;
352.5000;0.1425;-0.5149;
352.8000;0.1425;-0.5225;
353.1000;0.1433;-0.5199;
353.4000;0.1400;-0.5325;
353.7000;0.1425;-0.5325;
354.0000;0.1400;-0.5300;
354.3000;0.1441;-0.5250;
354.6000;0.1433;-0.5275;
354.9000;0.1457;-0.5174;
355.2000;0.1425;-0.5250;
355.5000;0.1408;-0.5300;
355.8000;0.1425;-0.5225;
356.1000;0.1425;-0.5199;
356.4000;0.1433;-0.5225;
356.7000;0.1416;-0.5325;
357.0000;0.1408;-0.5350;
357.3000;0.1433;-0.5325;
357.6000;0.1457;-0.5300;
357.9000;0.1408;-0.5476;
358.2000;0.1433;-0.5375;
358.5000;0.1441;-0.5250;
358.8000;0.1433;-0.5375;
359.1000;0.1400;-0.5476;
359.4000;0.1425;-0.5400;
359.7000;0.1441;-0.5275;
360.0000;0.1441;-0.5275;
360.3000;0.1449;-0.5275;
360.6000;0.1441;-0.5300;
360.9000;0.1441;-0.5325;
361.2000;0.1433;-0.5325;
361.5000;0.1441;-0.5225;
361.8000;0.1433;-0.5275;
362.1000;0.1441;-0.5099;
362.4000;0.1449;-0.5049;
362.7000;0.1416;-0.5149;
363.0000;0.1392;-0.5199;
363.3000;0.1449;-0.5124;
363.6000;0.1449;-0.5174;
363.9000;0.1433;-0.5275;
364.2000;0.1416;-0.5199;
364.5000;0.1449;-0.5099;
364.8000;0.1457;-0.5124;
365.1000;0.1441;-0.5225;
365.4000;0.1433;-0.5300;
365.7000;0.1441;-0.5300;
366.0000;0.1433;-0.5300;
366.3000;0.1465;-0.5174;
366.6000;0.1368;-0.5375;
366.9000;0.1433;-0.5250;
367.2000;0.1441;-0.5225;
367.5000;0.1473;-0.5124;
367.8000;0.1441;-0.5174;
368.1000;0.1514;-0.4923;
368.4000;0.1481;-0.5024;
368.7000;0.1457;-0.5124;
369.0000;0.1416;-0.5250;
369.3000;0.1433;-0.5199;
369.6000;0.1490;-0.5024;
369.9000;0.1433;-0.5275;
370.2000;0.1408;-0.5375;
370.5000;0.1530;-0.5124;
370.8000;0.1441;-0.5325;
371.1000;0.1473;-0.5149;
371.4000;0.1376;-0.5325;
371.7000;0.1449;-0.5149;
372.0000;0.1457;-0.5199;
372.3000;0.1400;-0.5325;
372.6000;0.1547;-0.4973;
372.9000;0.1433;-0.5325;
373.2000;0.1433;-0.5350;
373.5000;0.1400;-0.5451;
373.8000;0.1449;-0.5325;
374.1000;0.1416;-0.5375;
374.4000;0.1449;-0.5225;
374.7000;0.1441;-0.5149;
375.0000;0.1441;-0.5199;
375.3000;0.1441;-0.5225;
375.6000;0.1400;-0.5451;
375.9000;0.1433;-0.5400;
376.2000;0.1441;-0.5325;
376.5000;0.1416;-0.5225;
376.8000;0.1416;-0.5225;
377.1000;0.1425;-0.5199;
377.4000;0.1490;-0.4948;
377.7000;0.1433;-0.5199;
378.0000;0.1400;-0.5325;
378.3000;0.1425;-0.5300;
378.6000;0.1416;-0.5300;
378.9000;0.1384;-0.5400;
379.2000;0.1343;-0.5551;
379.5000;0.1425;-0.5350;
379.8000;0.1433;-0.5325;
380.1000;0.1441;-0.5350;
380.4000;0.1441;-0.5325;
380.7000;0.1425;-0.5425;
381.0000;0.1433;-0.5400;
381.3000;0.1416;-0.5275;
381.6000;0.1425;-0.5275;
381.9000;0.1449;-0.5275;
382.2000;0.1433;-0.5275;
382.5000;0.1441;-0.5225;
382.8000;0.1441;-0.5250;
383.1000;0.1449;-0.5275;
383.4000;0.1425;-0.5300;
383.7000;0.1359;-0.5501;
384.0000;0.1441;-0.5350;
384.3000;0.1433;-0.5425;
384.6000;0.1408;-0.5526;
384.9000;0.1441;-0.5501;
385.2000;0.1441;-0.5551;
385.5000;0.1433;-0.5526;
385.8000;0.1441;-0.5476;
386.1000;0.1441;-0.5526;
386.4000;0.1481;-0.5400;
386.7000;0.1473;-0.5375;
387.0000;0.1425;-0.5526;
387.3000;0.1416;-0.5476;
387.6000;0.1457;-0.5375;
387.9000;0.1441;-0.5501;
388.2000;0.1457;-0.5425;
388.5000;0.1449;-0.5476;
388.8000;0.1416;-0.5501;
389.1000;0.1441;-0.5476;
389.4000;0.1490;-0.5425;
389.7000;0.1433;-0.5677;
390.0000;0.1368;-0.5827;
390.3000;0.1400;-0.5652;
390.6000;0.1481;-0.5400;
390.9000;0.1441;-0.5476;
391.2000;0.1425;-0.5526;
391.5000;0.1425;-0.5501;
391.8000;0.1400;-0.5576;
392.1000;0.1441;-0.5601;
392.4000;0.1449;-0.5551;
392.7000;0.1433;-0.5576;
393.0000;0.1441;-0.5576;
393.3000;0.1400;-0.5702;
393.6000;0.1473;-0.5526;
393.9000;0.1449;-0.5576;
394.2000;0.1433;-0.5576;
394.5000;0.1481;-0.5476;
394.8000;0.1441;-0.5601;
395.1000;0.1457;-0.5576;
395.4000;0.1433;-0.5576;
395.7000;0.1441;-0.5425;
396.0000;0.1408;-0.5526;
396.3000;0.1376;-0.5677;
396.6000;0.1376;-0.5727;
396.9000;0.1441;-0.5451;
397.2000;0.1408;-0.5652;
397.5000;0.1359;-0.5777;
397.8000;0.1368;-0.5727;
398.1000;0.1425;-0.5626;
398.4000;0.1425;-0.5652;
398.7000;0.1433;-0.5677;
399.0000;0.1425;-0.5626;
399.3000;0.1433;-0.5601;
399.6000;0.1416;-0.5727;
399.9000;0.1433;-0.5702;
400.2000;0.1441;-0.5626;
400.5000;0.1433;-0.5626;
400.8000;0.1376;-0.5702;
401.1000;0.1433;-0.5626;
401.4000;0.1400;-0.5702;
401.7000;0.1416;-0.5601;
402.0000;0.1425;-0.5526;
402.3000;0.1425;-0.5501;
402.6000;0.1441;-0.5451;
402.9000;0.1441;-0.5425;
403.2000;0.1498;-0.5300;
403.5000;0.1433;-0.5451;
403.8000;0.1449;-0.5476;
404.1000;0.1433;-0.5526;
404.4000;0.1441;-0.5501;
404.7000;0.1408;-0.5551;
405.0000;0.1416;-0.5501;
405.3000;0.1441;-0.5476;
405.6000;0.1457;-0.5476;
405.9000;0.1433;-0.5526;
406.2000;0.1416;-0.5551;
406.5000;0.1457;-0.5476;
406.8000;0.1433;-0.5576;
407.1000;0.1433;-0.5451;
407.4000;0.1449;-0.5451;
407.7000;0.1400;-0.5626;
408.0000;0.1441;-0.5576;
408.3000;0.1433;-0.5576;
408.6000;0.1425;-0.5601;
408.9000;0.1433;-0.5576;
409.2000;0.1433;-0.5425;
409.5000;0.1433;-0.5451;
409.8000;0.1416;-0.5501;
410.1000;0.1433;-0.5501;
410.4000;0.1400;-0.5576;
410.7000;0.1400;-0.5601;
411.0000;0.1408;-0.5526;
411.3000;0.1433;-0.5576;
411.6000;0.1425;-0.5652;
411.9000;0.1441;-0.5576;
412.2000;0.1433;-0.5576;
412.5000;0.1441;-0.5551;
412.8000;0.1441;-0.5476;
413.1000;0.1408;-0.5576;
413.4000;0.1441;-0.5501;
413.7000;0.1441;-0.5451;
414.0000;0.1425;-0.5501;
414.3000;0.1425;-0.5526;
414.6000;0.1433;-0.5476;
414.9000;0.1416;-0.5526;
415.2000;0.1457;-0.5350;
415.5000;0.1416;-0.5476;
415.8000;0.1425;-0.5451;
416.1000;0.1368;-0.5576;
416.4000;0.1392;-0.5425;
416.7000;0.1416;-0.5526;
417.0000;0.1433;-0.5501;
417.3000;0.1441;-0.5526;
417.6000;0.1425;-0.5601;
417.9000;0.1433;-0.5501;
418.2000;0.1384;-0.5652;
418.5000;0.1425;-0.5576;
418.8000;0.1449;-0.5576;
419.1000;0.1441;-0.5601;
419.4000;0.1433;-0.5601;
419.7000;0.1400;-0.5626;
420.0000;0.1408;-0.5601;
420.3000;0.1457;-0.5551;
420.6000;0.1425;-0.5451;
420.9000;0.1433;-0.5551;
421.2000;0.1433;-0.5451;
421.5000;0.1433;-0.5400;
421.8000;0.1441;-0.5425;
422.1000;0.1563;-0.5124;
422.4000;0.1400;-0.5551;
422.7000;0.1449;-0.5425;
423.0000;0.1433;-0.5476;
423.3000;0.1490;-0.5350;
423.6000;0.1425;-0.5476;
423.9000;0.1400;-0.5501;
424.2000;0.1408;-0.5476;
424.5000;0.1449;-0.5451;
424.8000;0.1441;-0.5551;
425.1000;0.1433;-0.5476;
425.4000;0.1425;-0.5601;
425.7000;0.1408;-0.5576;
426.0000;0.1433;-0.5526;
426.3000;0.1376;-0.5677;
426.6000;0.1416;-0.5626;
426.9000;0.1441;-0.5576;
427.2000;0.1376;-0.5702;
427.5000;0.1416;-0.5626;
427.8000;0.1433;-0.5425;
428.1000;0.1441;-0.5425;
428.4000;0.1441;-0.5400;
428.7000;0.1433;-0.5451;
429.0000;0.1441;-0.5425;
429.3000;0.1441;-0.5476;
429.6000;0.1400;-0.5551;
429.9000;0.1449;-0.5400;
430.2000;0.1433;-0.5400;
430.5000;0.1400;-0.5476;
430.8000;0.1441;-0.5425;
431.1000;0.1416;-0.5576;
431.4000;0.1425;-0.5601;
431.7000;0.1416;-0.5652;
432.0000;0.1457;-0.5652;
432.3000;0.1441;-0.5576;
432.6000;0.1465;-0.5476;
432.9000;0.1425;-0.5375;
433.2000;0.1441;-0.5250;
433.5000;0.1384;-0.5400;
433.8000;0.1433;-0.5325;
434.1000;0.1433;-0.5275;
434.4000;0.1433;-0.5250;
434.7000;0.1433;-0.5250;
435.0000;0.1441;-0.5275;
435.3000;0.1425;-0.5174;
435.6000;0.1449;-0.5174;
435.9000;0.1425;-0.5199;
436.2000;0.1433;-0.5174;
436.5000;0.1416;-0.5174;
436.8000;0.1416;-0.5149;
437.1000;0.1359;-0.5250;
437.4000;0.1441;-0.5124;
437.7000;0.1416;-0.5250;
438.0000;0.1433;-0.5199;
438.3000;0.1425;-0.5325;
438.6000;0.1449;-0.5275;
438.9000;0.1441;-0.5325;
439.2000;0.1433;-0.5400;
439.5000;0.1425;-0.5400;
439.8000;0.1392;-0.5325;
440.1000;0.1384;-0.5425;
440.4000;0.1416;-0.5350;
440.7000;0.1433;-0.5275;
441.0000;0.1441;-0.5174;
441.3000;0.1425;-0.5174;
441.6000;0.1416;-0.5174;
441.9000;0.1433;-0.5225;
442.2000;0.1481;-0.5149;
442.5000;0.1433;-0.5275;
442.8000;0.1490;-0.5149;
443.1000;0.1481;-0.5225;
443.4000;0.1441;-0.5250;
443.7000;0.1449;-0.5225;
444.0000;0.1425;-0.5275;
444.3000;0.1441;-0.5325;
444.6000;0.1465;-0.5275;
444.9000;0.1441;-0.5250;
445.2000;0.1408;-0.5300;
445.5000;0.1416;-0.5325;
445.8000;0.1408;-0.5275;
446.1000;0.1441;-0.5199;
446.4000;0.1433;-0.5250;
446.7000;0.1433;-0.5174;
447.0000;0.1416;-0.5225;
447.3000;0.1408;-0.5124;
447.6000;0.1425;-0.5049;
447.9000;0.1425;-0.4998;
448.2000;0.1400;-0.5099;
448.5000;0.1433;-0.5049;
448.8000;0.1425;-0.5149;
449.1000;0.1408;-0.5225;
449.4000;0.1433;-0.5275;
449.7000;0.1433;-0.5325;
450.0000;0.1416;-0.5300;
450.3000;0.1433;-0.5325;
450.6000;0.1416;-0.5350;
450.9000;0.1384;-0.5451;
451.2000;0.1425;-0.5300;
451.5000;0.1441;-0.5174;
451.8000;0.1441;-0.5225;
452.1000;0.1457;-0.5174;
452.4000;0.1449;-0.5199;
452.7000;0.1425;-0.5325;
453.0000;0.1433;-0.5400;
453.3000;0.1449;-0.5325;
453.6000;0.1441;-0.5250;
453.9000;0.1425;-0.5300;
454.2000;0.1441;-0.5199;
454.5000;0.1449;-0.5250;
454.8000;0.1441;-0.5275;
455.1000;0.1449;-0.5199;
455.4000;0.1441;-0.5250;
455.7000;0.1433;-0.5300;
456.0000;0.1449;-0.5250;
456.3000;0.1433;-0.5300;
456.6000;0.1465;-0.5250;
456.9000;0.1481;-0.5275;
457.2000;0.1441;-0.5425;
457.5000;0.1433;-0.5400;
457.8000;0.1449;-0.5400;
458.1000;0.1498;-0.5300;
458.4000;0.1449;-0.5350;
458.7000;0.1441;-0.5275;
459.0000;0.1490;-0.5174;
459.3000;0.1433;-0.5350;
459.6000;0.1400;-0.5476;
459.9000;0.1441;-0.5350;
460.2000;0.1433;-0.5325;
460.5000;0.1416;-0.5300;
460.8000;0.1425;-0.5325;
461.1000;0.1506;-0.5124;
461.4000;0.1433;-0.5375;
461.7000;0.1441;-0.5425;
462.0000;0.1449;-0.5425;
462.3000;0.1473;-0.5300;
462.6000;0.1433;-0.5425;
462.9000;0.1359;-0.5727;
463.2000;0.1465;-0.5501;
463.5000;0.1449;-0.5425;
463.8000;0.1416;-0.5501;
464.1000;0.1441;-0.5501;
464.4000;0.1522;-0.5225;
464.7000;0.1408;-0.5451;
465.0000;0.1441;-0.5375;
465.3000;0.1441;-0.5350;
465.6000;0.1433;-0.5275;
465.9000;0.1457;-0.5350;
466.2000;0.1481;-0.5250;
466.5000;0.1408;-0.5451;
466.8000;0.1441;-0.5425;
467.1000;0.1425;-0.5476;
467.4000;0.1506;-0.5174;
467.7000;0.1465;-0.5174;
468.0000;0.1441;-0.5300;
468.3000;0.1441;-0.5325;
468.6000;0.1506;-0.5124;
468.9000;0.1400;-0.5451;
469.2000;0.1473;-0.5300;
469.5000;0.1425;-0.5400;
469.8000;0.1465;-0.5225;
470.1000;0.1384;-0.5451;
470.4000;0.1433;-0.5250;
470.7000;0.1425;-0.5350;
471.0000;0.1441;-0.5250;
471.3000;0.1425;-0.5325;
471.6000;0.1433;-0.5350;
471.9000;0.1425;-0.5400;
472.2000;0.1425;-0.5250;
472.5000;0.1416;-0.5250;
472.8000;0.1433;-0.5225;
473.1000;0.1408;-0.5375;
473.4000;0.1425;-0.5375;
473.7000;0.1416;-0.5425;
474.0000;0.1465;-0.5350;
474.3000;0.1433;-0.5451;
474.6000;0.1425;-0.5476;
474.9000;0.1392;-0.5601;
475.2000;0.1425;-0.5400;
475.5000;0.1457;-0.5300;
475.8000;0.1441;-0.5476;
476.1000;0.1441;-0.5476;
476.4000;0.1433;-0.5576;
476.7000;0.1441;-0.5526;
477.0000;0.1416;-0.5501;
477.3000;0.1425;-0.5350;
477.6000;0.1433;-0.5350;
477.9000;0.1392;-0.5451;
478.2000;0.1425;-0.5476;
478.5000;0.1408;-0.5601;
478.8000;0.1433;-0.5526;
479.1000;0.1481;-0.5451;
479.4000;0.1441;-0.5551;
479.7000;0.1425;-0.5551;
480.0000;0.1433;-0.5626;
480.3000;0.1441;-0.5526;
480.6000;0.1425;-0.5501;
480.9000;0.1449;-0.5451;
481.2000;0.1425;-0.5375;
481.5000;0.1408;-0.5425;
481.8000;0.1425;-0.5375;
482.1000;0.1408;-0.5451;
482.4000;0.1425;-0.5400;
482.7000;0.1425;-0.5375;
483.0000;0.1368;-0.5576;
483.3000;0.1498;-0.5375;
483.6000;0.1449;-0.5601;
483.9000;0.1425;-0.5677;
484.2000;0.1433;-0.5601;
484.5000;0.1416;-0.5526;
484.8000;0.1481;-0.5350;
485.1000;0.1416;-0.5476;
485.4000;0.1457;-0.5350;
485.7000;0.1457;-0.5225;
486.0000;0.1425;-0.5325;
486.3000;0.1441;-0.5350;
486.6000;0.1433;-0.5250;
486.9000;0.1449;-0.5250;
487.2000;0.1433;-0.5350;
487.5000;0.1408;-0.5400;
487.8000;0.1400;-0.5501;
488.1000;0.1457;-0.5425;
488.4000;0.1473;-0.5400;
488.7000;0.1433;-0.5476;
489.0000;0.1400;-0.5576;
489.3000;0.1392;-0.5576;
489.6000;0.1441;-0.5400;
489.9000;0.1425;-0.5400;
490.2000;0.1368;-0.5501;
490.5000;0.1384;-0.5501;
490.8000;0.1425;-0.5325;
491.1000;0.1425;-0.5275;
491.4000;0.1425;-0.5250;
491.7000;0.1400;-0.5325;
492.0000;0.1400;-0.5325;
492.3000;0.1441;-0.5275;
492.6000;0.1425;-0.5325;
492.9000;0.1433;-0.5250;
493.2000;0.1376;-0.5476;
493.5000;0.1441;-0.5250;
493.8000;0.1433;-0.5375;
494.1000;0.1441;-0.5275;
494.4000;0.1473;-0.5124;
494.7000;0.1481;-0.5124;
495.0000;0.1408;-0.5149;
495.3000;0.1425;-0.5074;
495.6000;0.1433;-0.5049;
495.9000;0.1465;-0.5074;
496.2000;0.1433;-0.5225;
496.5000;0.1433;-0.5225;
496.8000;0.1433;-0.5275;
497.1000;0.1433;-0.5275;
497.4000;0.1416;-0.5300;
497.7000;0.1425;-0.5325;
498.0000;0.1441;-0.5350;
498.3000;0.1457;-0.5375;
498.6000;0.1457;-0.5300;
498.9000;0.1441;-0.5375;
499.2000;0.1449;-0.5275;
499.5000;0.1425;-0.5425;
499.8000;0.1449;-0.5451;
500.1000;0.1441;-0.5400;
500.4000;0.1457;-0.5275;
500.7000;0.1457;-0.5250;
501.0000;0.1441;-0.5325;
501.3000;0.1425;-0.5400;
501.6000;0.1400;-0.5451;
501.9000;0.1441;-0.5451;
502.2000;0.1530;-0.5149;
502.5000;0.1433;-0.5375;
502.8000;0.1547;-0.5049;
503.1000;0.1457;-0.5300;
503.4000;0.1457;-0.5250;
503.7000;0.1416;-0.5375;
504.0000;0.1400;-0.5526;
504.3000;0.1433;-0.5451;
504.6000;0.1425;-0.5350;
504.9000;0.1449;-0.5375;
505.2000;0.1433;-0.5375;
505.5000;0.1441;-0.5350;
505.8000;0.1425;-0.5275;
506.1000;0.1433;-0.5124;
506.4000;0.1416;-0.5174;
506.7000;0.1416;-0.5225;
507.0000;0.1457;-0.5124;
507.3000;0.1416;-0.5250;
507.6000;0.1441;-0.5275;
507.9000;0.1433;-0.5250;
508.2000;0.1433;-0.5199;
508.5000;0.1465;-0.5074;
508.8000;0.1343;-0.5425;
509.1000;0.1473;-0.5099;
509.4000;0.1433;-0.5225;
509.7000;0.1408;-0.5350;
510.0000;0.1441;-0.5300;
510.3000;0.1449;-0.5375;
510.6000;0.1408;-0.5451;
510.9000;0.1416;-0.5350;
511.2000;0.1425;-0.5350;
511.5000;0.1449;-0.5451;
511.8000;0.1425;-0.5476;
512.1000;0.1433;-0.5400;
512.4000;0.1441;-0.5400;
512.7000;0.1408;-0.5451;
513.0000;0.1433;-0.5501;
513.3000;0.1416;-0.5501;
513.6000;0.1425;-0.5451;
513.9000;0.1441;-0.5375;
514.2000;0.1433;-0.5375;
514.5000;0.1433;-0.5375;
514.8000;0.1416;-0.5451;
515.1000;0.1425;-0.5350;
515.4000;0.1425;-0.5400;
515.7000;0.1449;-0.5375;
516.0000;0.1465;-0.5250;
516.3000;0.1490;-0.5199;
516.6000;0.1416;-0.5325;
516.9000;0.1433;-0.5250;
517.2000;0.1433;-0.5375;
517.5000;0.1449;-0.5250;
517.8000;0.1433;-0.5275;
518.1000;0.1425;-0.5350;
518.4000;0.1400;-0.5400;
518.7000;0.1441;-0.5174;
519.0000;0.1433;-0.5275;
519.3000;0.1441;-0.5275;
519.6000;0.1408;-0.5400;
519.9000;0.1441;-0.5501;
520.2000;0.1425;-0.5501;
520.5000;0.1449;-0.5350;
520.8000;0.1425;-0.5350;
521.1000;0.1425;-0.5425;
521.4000;0.1457;-0.5375;
521.7000;0.1425;-0.5400;
522.0000;0.1433;-0.5325;
522.3000;0.1465;-0.5325;
522.6000;0.1416;-0.5451;
522.9000;0.1433;-0.5451;
523.2000;0.1433;-0.5526;
523.5000;0.1416;-0.5601;
523.8000;0.1449;-0.5400;
524.1000;0.1425;-0.5375;
524.4000;0.1490;-0.5174;
524.7000;0.1425;-0.5350;
525.0000;0.1433;-0.5400;
525.3000;0.1433;-0.5375;
525.6000;0.1400;-0.5476;
525.9000;0.1408;-0.5451;
526.2000;0.1425;-0.5375;
526.5000;0.1498;-0.5275;
526.8000;0.1416;-0.5451;
527.1000;0.1441;-0.5451;
527.4000;0.1473;-0.5325;
527.7000;0.1441;-0.5325;
528.0000;0.1433;-0.5225;
528.3000;0.1433;-0.5199;
528.6000;0.1400;-0.5300;
528.9000;0.1433;-0.5174;
529.2000;0.1425;-0.5225;
529.5000;0.1538;-0.5074;
529.8000;0.1449;-0.5300;
530.1000;0.1441;-0.5275;
530.4000;0.1425;-0.5275;
530.7000;0.1441;-0.5325;
531.0000;0.1433;-0.5325;
531.3000;0.1441;-0.5250;
531.6000;0.1449;-0.5250;
531.9000;0.1433;-0.5199;
532.2000;0.1441;-0.5149;
532.5000;0.1433;-0.5149;
532.8000;0.1425;-0.5275;
533.1000;0.1425;-0.5275;
533.4000;0.1416;-0.5149;
533.7000;0.1441;-0.5124;
534.0000;0.1457;-0.5174;
534.3000;0.1433;-0.5275;
534.6000;0.1425;-0.5400;
534.9000;0.1441;-0.5400;
535.2000;0.1441;-0.5476;
535.5000;0.1457;-0.5375;
535.8000;0.1433;-0.5476;
536.1000;0.1433;-0.5501;
536.4000;0.1441;-0.5350;
536.7000;0.1538;-0.5049;
537.0000;0.1433;-0.5350;
537.3000;0.1416;-0.5300;
537.6000;0.1441;-0.5225;
537.9000;0.1449;-0.5199;
538.2000;0.1416;-0.5225;
538.5000;0.1481;-0.5199;
538.8000;0.1498;-0.5174;
539.1000;0.1433;-0.5300;
539.4000;0.1538;-0.5124;
539.7000;0.1425;-0.5425;
540.0000;0.1441;-0.5425;
540.3000;0.1481;-0.5300;
540.6000;0.1441;-0.5350;
540.9000;0.1530;-0.5074;
541.2000;0.1327;-0.5677;
541.5000;0.1416;-0.5400;
541.8000;0.1425;-0.5425;
542.1000;0.1433;-0.5400;
542.4000;0.1498;-0.5250;
542.7000;0.1449;-0.5400;
543.0000;0.1441;-0.5400;
543.3000;0.1433;-0.5526;
543.6000;0.1425;-0.5501;
543.9000;0.1400;-0.5626;
544.2000;0.1433;-0.5476;
544.5000;0.1433;-0.5551;
544.8000;0.1449;-0.5626;
545.1000;0.1441;-0.5677;
545.4000;0.1441;-0.5652;
545.7000;0.1514;-0.5400;
546.0000;0.1433;-0.5551;
546.3000;0.1457;-0.5576;
546.6000;0.1449;-0.5576;
546.9000;0.1408;-0.5652;
547.2000;0.1441;-0.5476;
547.5000;0.1433;-0.5526;
547.8000;0.1473;-0.5476;
548.1000;0.1400;-0.5702;
548.4000;0.1441;-0.5526;
548.7000;0.1530;-0.5225;
549.0000;0.1441;-0.5526;
549.3000;0.1449;-0.5501;
549.6000;0.1433;-0.5526;
549.9000;0.1449;-0.5526;
550.2000;0.1425;-0.5551;
550.5000;0.1441;-0.5526;
550.8000;0.1433;-0.5476;
551.1000;0.1441;-0.5425;
551.4000;0.1433;-0.5476;
551.7000;0.1481;-0.5400;
552.0000;0.1392;-0.5626;
552.3000;0.1408;-0.5626;
552.6000;0.1425;-0.5551;
552.9000;0.1416;-0.5451;
553.2000;0.1384;-0.5526;
553.5000;0.1465;-0.5275;
553.8000;0.1416;-0.5350;
554.1000;0.1441;-0.5325;
554.4000;0.1457;-0.5225;
554.7000;0.1433;-0.5325;
555.0000;0.1425;-0.5425;
555.3000;0.1449;-0.5350;
555.6000;0.1433;-0.5325;
555.9000;0.1441;-0.5325;
556.2000;0.1457;-0.5300;
556.5000;0.1416;-0.5325;
556.8000;0.1392;-0.5375;
557.1000;0.1441;-0.5275;
557.4000;0.1449;-0.5300;
557.7000;0.1490;-0.5400;
558.0000;0.1449;-0.5476;
558.3000;0.1425;-0.5601;
558.6000;0.1441;-0.5526;
558.9000;0.1433;-0.5576;
559.2000;0.1425;-0.5526;
559.5000;0.1400;-0.5677;
559.8000;0.1490;-0.5551;
560.1000;0.1441;-0.5551;
560.4000;0.1425;-0.5501;
560.7000;0.1433;-0.5451;
561.0000;0.1441;-0.5400;
561.3000;0.1433;-0.5350;
561.6000;0.1408;-0.5325;
561.9000;0.1425;-0.5275;
562.2000;0.1481;-0.5124;
562.5000;0.1416;-0.5325;
562.8000;0.1433;-0.5250;
563.1000;0.1425;-0.5199;
563.4000;0.1441;-0.5250;
563.7000;0.1416;-0.5250;
564.0000;0.1408;-0.5350;
564.3000;0.1425;-0.5400;
564.6000;0.1449;-0.5300;
564.9000;0.1433;-0.5375;
565.2000;0.1433;-0.5375;
565.5000;0.1441;-0.5375;
565.8000;0.1433;-0.5375;
566.1000;0.1433;-0.5300;
566.4000;0.1490;-0.5225;
566.7000;0.1408;-0.5425;
567.0000;0.1441;-0.5325;
567.3000;0.1425;-0.5375;
567.6000;0.1400;-0.5476;
567.9000;0.1425;-0.5400;
568.2000;0.1425;-0.5375;
568.5000;0.1441;-0.5325;
568.8000;0.1425;-0.5400;
569.1000;0.1441;-0.5350;
569.4000;0.1449;-0.5375;
569.7000;0.1441;-0.5375;
570.0000;0.1441;-0.5325;
570.3000;0.1441;-0.5375;
570.6000;0.1465;-0.5425;
570.9000;0.1457;-0.5400;
571.2000;0.1538;-0.5149;
571.5000;0.1359;-0.5652;
571.8000;0.1425;-0.5476;
572.1000;0.1425;-0.5325;
572.4000;0.1416;-0.5250;
572.7000;0.1351;-0.5451;
573.0000;0.1441;-0.5275;
573.3000;0.1449;-0.5300;
573.6000;0.1433;-0.5375;
573.9000;0.1384;-0.5451;
574.2000;0.1425;-0.5275;
574.5000;0.1416;-0.5275;
574.8000;0.1498;-0.5174;
575.1000;0.1433;-0.5275;
575.4000;0.1400;-0.5325;
575.7000;0.1433;-0.5275;
576.0000;0.1433;-0.5225;
576.3000;0.1449;-0.5174;
576.6000;0.1433;-0.5174;
576.9000;0.1449;-0.5099;
577.2000;0.1481;-0.5174;
577.5000;0.1433;-0.5275;
577.8000;0.1400;-0.5300;
578.1000;0.1433;-0.5199;
578.4000;0.1441;-0.5325;
578.7000;0.1433;-0.5375;
579.0000;0.1457;-0.5325;
579.3000;0.1449;-0.5325;
579.6000;0.1441;-0.5400;
579.9000;0.1425;-0.5501;
580.2000;0.1465;-0.5425;
580.5000;0.1425;-0.5425;
580.8000;0.1433;-0.5325;
581.1000;0.1490;-0.5275;
581.4000;0.1433;-0.5476;
581.7000;0.1441;-0.5501;
582.0000;0.1416;-0.5476;
582.3000;0.1490;-0.5325;
582.6000;0.1425;-0.5476;
582.9000;0.1441;-0.5425;
583.2000;0.1433;-0.5451;
583.5000;0.1425;-0.5325;
583.8000;0.1441;-0.5325;
584.1000;0.1547;-0.4973;
584.4000;0.1425;-0.5375;
584.7000;0.1441;-0.5400;
585.0000;0.1465;-0.5400;
585.3000;0.1433;-0.5576;
585.6000;0.1416;-0.5576;
585.9000;0.1416;-0.5501;
586.2000;0.1433;-0.5425;
586.5000;0.1400;-0.5551;
586.8000;0.1433;-0.5400;
587.1000;0.1416;-0.5425;
587.4000;0.1416;-0.5375;
587.7000;0.1425;-0.5400;
588.0000;0.1490;-0.5300;
588.3000;0.1400;-0.5451;
588.6000;0.1441;-0.5275;
588.9000;0.1400;-0.5400;
589.2000;0.1416;-0.5375;
589.5000;0.1408;-0.5451;
589.8000;0.1425;-0.5400;
590.1000;0.1425;-0.5425;
590.4000;0.1376;-0.5526;
590.7000;0.1449;-0.5275;
591.0000;0.1465;-0.5300;
591.3000;0.1425;-0.5551;
591.6000;0.1425;-0.5576;
591.9000;0.1433;-0.5576;
592.2000;0.1416;-0.5652;
592.5000;0.1441;-0.5652;
592.8000;0.1433;-0.5677;
593.1000;0.1425;-0.5626;
593.4000;0.1408;-0.5652;
593.7000;0.1449;-0.5601;
594.0000;0.1433;-0.5626;
594.3000;0.1433;-0.5576;
594.6000;0.1449;-0.5526;
594.9000;0.1441;-0.5576;
595.2000;0.1441;-0.5476;
595.5000;0.1441;-0.5425;
595.8000;0.1441;-0.5425;
596.1000;0.1425;-0.5451;
596.4000;0.1433;-0.5425;
596.7000;0.1400;-0.5526;
597.0000;0.1408;-0.5576;
597.3000;0.1400;-0.5601;
597.6000;0.1416;-0.5526;
597.9000;0.1425;-0.5626;
598.2000;0.1425;-0.5652;
598.5000;0.1416;-0.5702;
598.8000;0.1416;-0.5652;
599.1000;0.1433;-0.5626;
599.4000;0.1441;-0.5626;
599.7000;0.1433;-0.5601;
600.0000;0.1465;-0.5576;
600.3000;0.1457;-0.5476;
600.6000;0.1416;-0.5702;
600.9000;0.1433;-0.5802;
601.2000;0.1441;-0.5852;
601.5000;0.1400;-0.6028;
601.8000;0.1384;-0.6179;
602.1000;0.1368;-0.6305;
602.4000;0.1359;-0.6531;
602.7000;0.1376;-0.6631;
603.0000;0.1343;-0.6933;
603.3000;0.1294;-0.7184;
603.6000;0.1359;-0.7159;
603.9000;0.1343;-0.7284;
604.2000;0.1351;-0.7360;
604.5000;0.1384;-0.7309;
604.8000;0.1368;-0.7309;
605.1000;0.1327;-0.7435;
605.4000;0.1425;-0.7209;
605.7000;0.1335;-0.7435;
606.0000;0.1319;-0.7510;
606.3000;0.1311;-0.7535;
606.6000;0.1335;-0.7560;
606.9000;0.1311;-0.7636;
607.2000;0.1294;-0.7686;
607.5000;0.1302;-0.7787;
607.8000;0.1311;-0.7736;
608.1000;0.1319;-0.7812;
608.4000;0.1351;-0.7711;
608.7000;0.1343;-0.7686;
609.0000;0.1286;-0.7887;
609.3000;0.1319;-0.7837;
609.6000;0.1311;-0.7837;
609.9000;0.1343;-0.7761;
610.2000;0.1319;-0.7686;
610.5000;0.1319;-0.7686;
610.8000;0.1294;-0.7736;
611.1000;0.1270;-0.7812;
611.4000;0.1311;-0.7661;
611.7000;0.1294;-0.7736;
612.0000;0.1294;-0.7711;
612.3000;0.1286;-0.7761;
612.6000;0.1294;-0.7912;
612.9000;0.1294;-0.7937;
613.2000;0.1286;-0.8038;
613.5000;0.1294;-0.8088;
613.8000;0.1294;-0.8113;
614.1000;0.1286;-0.8063;
614.4000;0.1278;-0.8063;
614.7000;0.1302;-0.8088;
615.0000;0.1262;-0.8138;
615.3000;0.1327;-0.7862;
615.6000;0.1254;-0.8113;
615.9000;0.1319;-0.7862;
616.2000;0.1278;-0.7987;
616.5000;0.1229;-0.8188;
616.8000;0.1311;-0.7937;
617.1000;0.1262;-0.8088;
617.4000;0.1286;-0.8013;
617.7000;0.1270;-0.8013;
618.0000;0.1294;-0.7962;
618.3000;0.1286;-0.8063;
618.6000;0.1311;-0.8038;
618.9000;0.1319;-0.8038;
619.2000;0.1302;-0.7912;
619.5000;0.1294;-0.7912;
619.8000;0.1302;-0.8013;
620.1000;0.1262;-0.7987;
620.4000;0.1278;-0.7987;
620.7000;0.1294;-0.7987;
621.0000;0.1262;-0.8013;
621.3000;0.1286;-0.7937;
621.6000;0.1286;-0.7962;
621.9000;0.1270;-0.7937;
622.2000;0.1262;-0.7962;
622.5000;0.1270;-0.7887;
622.8000;0.1286;-0.7912;
623.1000;0.1294;-0.7962;
623.4000;0.1270;-0.8038;
623.7000;0.1278;-0.8013;
624.0000;0.1286;-0.8013;
624.3000;0.1294;-0.8013;
624.6000;0.1294;-0.7887;
624.9000;0.1294;-0.7862;
625.2000;0.1327;-0.7862;
625.5000;0.1302;-0.8013;
625.8000;0.1294;-0.8113;
626.1000;0.1286;-0.8063;
626.4000;0.1278;-0.8113;
626.7000;0.1286;-0.8188;
627.0000;0.1294;-0.8088;
627.3000;0.1286;-0.8113;
627.6000;0.1270;-0.8214;
627.9000;0.1286;-0.8188;
628.2000;0.1294;-0.8214;
628.5000;0.1294;-0.8264;
628.8000;0.1286;-0.8239;
629.1000;0.1286;-0.8264;
629.4000;0.1335;-0.8289;
629.7000;0.1400;-0.8113;
630.0000;0.1286;-0.8364;
630.3000;0.1237;-0.8540;
630.6000;0.1302;-0.8339;
630.9000;0.1294;-0.8314;
631.2000;0.1286;-0.8364;
631.5000;0.1294;-0.8289;
631.8000;0.1286;-0.8364;
632.1000;0.1278;-0.8239;
632.4000;0.1221;-0.8364;
632.7000;0.1270;-0.8314;
633.0000;0.1278;-0.8314;
633.3000;0.1368;-0.8038;
633.6000;0.1278;-0.8339;
633.9000;0.1286;-0.8339;
634.2000;0.1245;-0.8339;
634.5000;0.1294;-0.8264;
634.8000;0.1213;-0.8414;
635.1000;0.1286;-0.8214;
635.4000;0.1343;-0.8038;
635.7000;0.1302;-0.8188;
636.0000;0.1286;-0.8214;
636.3000;0.1278;-0.8163;
636.6000;0.1278;-0.8239;
636.9000;0.1294;-0.8214;
637.2000;0.1302;-0.8289;
637.5000;0.1278;-0.8289;
637.8000;0.1286;-0.8264;
638.1000;0.1294;-0.8264;
638.4000;0.1286;-0.8314;
638.7000;0.1302;-0.8314;
639.0000;0.1294;-0.8414;
639.3000;0.1302;-0.8314;
639.6000;0.1319;-0.8113;
639.9000;0.1278;-0.8239;
640.2000;0.1286;-0.8289;
640.5000;0.1294;-0.8264;
640.8000;0.1294;-0.8239;
641.1000;0.1270;-0.8339;
641.4000;0.1278;-0.8289;
641.7000;0.1278;-0.8264;
642.0000;0.1311;-0.8113;
642.3000;0.1294;-0.8113;
642.6000;0.1286;-0.8088;
642.9000;0.1278;-0.7987;
643.2000;0.1384;-0.7636;
643.5000;0.1254;-0.8038;
643.8000;0.1286;-0.7912;
644.1000;0.1408;-0.7611;
644.4000;0.1302;-0.7812;
644.7000;0.1262;-0.7987;
645.0000;0.1294;-0.7962;
645.3000;0.1294;-0.7937;
645.6000;0.1302;-0.7862;
645.9000;0.1286;-0.7987;
646.2000;0.1319;-0.7912;
646.5000;0.1270;-0.8063;
646.8000;0.1286;-0.8113;
647.1000;0.1262;-0.8188;
647.4000;0.1286;-0.8163;
647.7000;0.1294;-0.8113;
648.0000;0.1262;-0.8113;
648.3000;0.1278;-0.8214;
648.6000;0.1286;-0.8138;
648.9000;0.1327;-0.8038;
649.2000;0.1286;-0.8138;
649.5000;0.1294;-0.8214;
649.8000;0.1294;-0.8214;
650.1000;0.1270;-0.8214;
650.4000;0.1278;-0.8214;
650.7000;0.1286;-0.8188;
651.0000;0.1294;-0.8138;
651.3000;0.1278;-0.8138;
651.6000;0.1262;-0.8163;
651.9000;0.1180;-0.8414;
652.2000;0.1278;-0.8063;
652.5000;0.1278;-0.8113;
652.8000;0.1278;-0.8138;
653.1000;0.1286;-0.8088;
653.4000;0.1294;-0.7912;
653.7000;0.1286;-0.7962;
654.0000;0.1278;-0.7987;
654.3000;0.1278;-0.8038;
654.6000;0.1286;-0.8063;
654.9000;0.1294;-0.7987;
655.2000;0.1278;-0.7987;
655.5000;0.1294;-0.7987;
655.8000;0.1294;-0.8013;
656.1000;0.1270;-0.8113;
656.4000;0.1270;-0.8063;
656.7000;0.1278;-0.8063;
657.0000;0.1286;-0.8038;
657.3000;0.1245;-0.8113;
657.6000;0.1254;-0.8138;
657.9000;0.1278;-0.8138;
658.2000;0.1294;-0.8188;
658.5000;0.1278;-0.8214;
658.8000;0.1270;-0.8188;
659.1000;0.1294;-0.8088;
659.4000;0.1237;-0.8163;
659.7000;0.1294;-0.7962;
660.0000;0.1278;-0.7837;
660.3000;0.1213;-0.8063;
660.6000;0.1286;-0.7987;
660.9000;0.1294;-0.7962;
661.2000;0.1278;-0.8088;
661.5000;0.1262;-0.8188;
661.8000;0.1278;-0.8113;
662.1000;0.1262;-0.8138;
662.4000;0.1278;-0.8088;
662.7000;0.1278;-0.8038;
663.0000;0.1286;-0.8038;
663.3000;0.1245;-0.8063;
663.6000;0.1286;-0.7787;
663.9000;0.1302;-0.7761;
664.2000;0.1262;-0.7862;
664.5000;0.1270;-0.7761;
664.8000;0.1302;-0.7711;
665.1000;0.1294;-0.7711;
665.4000;0.1286;-0.7812;
665.7000;0.1294;-0.7736;
666.0000;0.1245;-0.7912;
666.3000;0.1262;-0.7937;
666.6000;0.1270;-0.7962;
666.9000;0.1270;-0.7937;
667.2000;0.1286;-0.7787;
667.5000;0.1270;-0.7837;
667.8000;0.1270;-0.7912;
668.1000;0.1262;-0.8038;
668.4000;0.1294;-0.7962;
668.7000;0.1319;-0.7912;
669.0000;0.1302;-0.7862;
669.3000;0.1294;-0.7862;
669.6000;0.1286;-0.7862;
669.9000;0.1286;-0.7862;
670.2000;0.1286;-0.7887;
670.5000;0.1278;-0.7962;
670.8000;0.1262;-0.7862;
671.1000;0.1270;-0.7787;
671.4000;0.1270;-0.7787;
671.7000;0.1262;-0.7787;
672.0000;0.1270;-0.7837;
672.3000;0.1294;-0.7761;
672.6000;0.1262;-0.7837;
672.9000;0.1245;-0.7912;
673.2000;0.1278;-0.7837;
673.5000;0.1294;-0.7912;
673.8000;0.1229;-0.8088;
674.1000;0.1311;-0.7987;
674.4000;0.1286;-0.8038;
674.7000;0.1278;-0.7937;
675.0000;0.1278;-0.8013;
675.3000;0.1286;-0.7962;
675.6000;0.1294;-0.7937;
675.9000;0.1278;-0.7987;
676.2000;0.1294;-0.7887;
676.5000;0.1221;-0.8088;
676.8000;0.1294;-0.7962;
677.1000;0.1294;-0.7987;
677.4000;0.1278;-0.8013;
677.7000;0.1254;-0.8088;
678.0000;0.1286;-0.8013;
678.3000;0.1245;-0.8138;
678.6000;0.1270;-0.8063;
678.9000;0.1351;-0.7837;
679.2000;0.1319;-0.7987;
679.5000;0.1302;-0.8013;
679.8000;0.1319;-0.7912;
680.1000;0.1270;-0.8013;
680.4000;0.1392;-0.7711;
680.7000;0.1278;-0.8113;
681.0000;0.1286;-0.8088;
681.3000;0.1245;-0.8138;
681.6000;0.1278;-0.8088;
681.9000;0.1270;-0.8138;
682.2000;0.1278;-0.8113;
682.5000;0.1286;-0.8038;
682.8000;0.1311;-0.7987;
683.1000;0.1294;-0.7937;
683.4000;0.1302;-0.7912;
683.7000;0.1286;-0.7837;
684.0000;0.1278;-0.7837;
684.3000;0.1286;-0.7837;
684.6000;0.1262;-0.7837;
684.9000;0.1302;-0.7761;
685.2000;0.1302;-0.7787;
685.5000;0.1286;-0.7837;
685.8000;0.1286;-0.7837;
686.1000;0.1302;-0.7736;
686.4000;0.1302;-0.7736;
686.7000;0.1302;-0.7812;
687.0000;0.1294;-0.7862;
687.3000;0.1302;-0.7812;
687.6000;0.1270;-0.7761;
687.9000;0.1278;-0.7787;
688.2000;0.1254;-0.7761;
688.5000;0.1327;-0.7686;
688.8000;0.1302;-0.7787;
689.1000;0.1197;-0.8113;
689.4000;0.1302;-0.7862;
689.7000;0.1278;-0.7937;
690.0000;0.1302;-0.7912;
690.3000;0.1294;-0.7987;
690.6000;0.1302;-0.7987;
690.9000;0.1294;-0.7987;
691.2000;0.1262;-0.8063;
691.5000;0.1278;-0.8013;
691.8000;0.1286;-0.8038;
692.1000;0.1302;-0.8038;
692.4000;0.1270;-0.8013;
692.7000;0.1278;-0.8038;
693.0000;0.1278;-0.8063;
693.3000;0.1286;-0.7987;
693.6000;0.1286;-0.7887;
693.9000;0.1270;-0.7912;
694.2000;0.1302;-0.7962;
694.5000;0.1294;-0.7937;
694.8000;0.1270;-0.7987;
695.1000;0.1286;-0.7987;
695.4000;0.1278;-0.8063;
695.7000;0.1286;-0.8088;
696.0000;0.1262;-0.8163;
696.3000;0.1270;-0.8138;
696.6000;0.1294;-0.8063;
696.9000;0.1262;-0.8013;
697.2000;0.1270;-0.7987;
697.5000;0.1286;-0.7987;
697.8000;0.1343;-0.7837;
698.1000;0.1302;-0.7887;
698.4000;0.1327;-0.7887;
698.7000;0.1270;-0.7937;
699.0000;0.1286;-0.7887;
699.3000;0.1278;-0.7837;
699.6000;0.1278;-0.7887;
699.9000;0.1294;-0.7912;
700.2000;0.1278;-0.7887;
700.5000;0.1270;-0.7887;
700.8000;0.1270;-0.7912;
701.1000;0.1270;-0.7962;
701.4000;0.1343;-0.7686;
701.7000;0.1254;-0.7987;
702.0000;0.1294;-0.7887;
702.3000;0.1245;-0.8013;
702.6000;0.1262;-0.8013;
702.9000;0.1254;-0.7962;
703.2000;0.1270;-0.7937;
703.5000;0.1278;-0.7937;
703.8000;0.1319;-0.7962;
704.1000;0.1294;-0.8063;
704.4000;0.1286;-0.7987;
704.7000;0.1335;-0.7837;
705.0000;0.1294;-0.7937;
705.3000;0.1278;-0.7987;
705.6000;0.1278;-0.7912;
705.9000;0.1311;-0.7887;
706.2000;0.1205;-0.8138;
706.5000;0.1270;-0.7962;
706.8000;0.1302;-0.7862;
707.1000;0.1302;-0.7837;
707.4000;0.1294;-0.7937;
707.7000;0.1286;-0.7962;
708.0000;0.1270;-0.8088;
708.3000;0.1294;-0.8113;
708.6000;0.1311;-0.8063;
708.9000;0.1343;-0.8013;
709.2000;0.1311;-0.8038;
709.5000;0.1302;-0.7987;
709.8000;0.1278;-0.8038;
710.1000;0.1302;-0.7987;
710.4000;0.1294;-0.7962;
710.7000;0.1294;-0.7962;
711.0000;0.1205;-0.8214;
711.3000;0.1302;-0.7962;
711.6000;0.1254;-0.7987;
711.9000;0.1262;-0.8063;
712.2000;0.1278;-0.8063;
712.5000;0.1237;-0.8188;
712.8000;0.1254;-0.8088;
713.1000;0.1270;-0.8063;
713.4000;0.1286;-0.8163;
713.7000;0.1278;-0.8163;
714.0000;0.1270;-0.8088;
714.3000;0.1302;-0.7937;
714.6000;0.1237;-0.8063;
714.9000;0.1270;-0.8013;
715.2000;0.1278;-0.7987;
715.5000;0.1286;-0.7962;
715.8000;0.1294;-0.7987;
716.1000;0.1262;-0.8063;
716.4000;0.1254;-0.8113;
716.7000;0.1278;-0.8063;
717.0000;0.1278;-0.8038;
717.3000;0.1262;-0.8063;
717.6000;0.1278;-0.8013;
717.9000;0.1245;-0.8163;
718.2000;0.1294;-0.8239;
718.5000;0.1302;-0.8138;
718.8000;0.1278;-0.8138;
719.1000;0.1278;-0.8188;
719.4000;0.1270;-0.8163;
719.7000;0.1294;-0.8163;
720.0000;0.1286;-0.8163;
720.3000;0.1262;-0.8314;
720.6000;0.1302;-0.8239;
720.9000;0.1213;-0.8389;
721.2000;0.1351;-0.8013;
721.5000;0.1229;-0.8264;
721.8000;0.1278;-0.8113;
722.1000;0.1278;-0.8138;
722.4000;0.1278;-0.8289;
722.7000;0.1302;-0.8214;
723.0000;0.1286;-0.8214;
723.3000;0.1245;-0.8239;
723.6000;0.1286;-0.8113;
723.9000;0.1270;-0.8138;
724.2000;0.1278;-0.8013;
724.5000;0.1286;-0.7987;
724.8000;0.1278;-0.7937;
725.1000;0.1270;-0.7937;
725.4000;0.1294;-0.7962;
725.7000;0.1376;-0.7812;
726.0000;0.1278;-0.8088;
726.3000;0.1278;-0.8063;
726.6000;0.1294;-0.8163;
726.9000;0.1270;-0.8214;
727.2000;0.1278;-0.8138;
727.5000;0.1311;-0.8088;
727.8000;0.1286;-0.8163;
728.1000;0.1270;-0.8239;
728.4000;0.1286;-0.8264;
728.7000;0.1294;-0.8188;
729.0000;0.1278;-0.8239;
729.3000;0.1294;-0.8214;
729.6000;0.1294;-0.8239;
729.9000;0.1311;-0.8138;
730.2000;0.1302;-0.8013;
730.5000;0.1294;-0.8038;
730.8000;0.1286;-0.8038;
731.1000;0.1286;-0.8038;
731.4000;0.1278;-0.8063;
731.7000;0.1237;-0.8188;
732.0000;0.1302;-0.7962;
732.3000;0.1302;-0.7812;
732.6000;0.1270;-0.7962;
732.9000;0.1270;-0.7987;
733.2000;0.1286;-0.8013;
733.5000;0.1262;-0.8138;
733.8000;0.1286;-0.8138;
734.1000;0.1319;-0.8038;
734.4000;0.1278;-0.8088;
734.7000;0.1286;-0.8013;
735.0000;0.1229;-0.8163;
735.3000;0.1262;-0.8113;
735.6000;0.1286;-0.8038;
735.9000;0.1294;-0.7937;
736.2000;0.1286;-0.8013;
736.5000;0.1286;-0.7987;
736.8000;0.1286;-0.7987;
737.1000;0.1262;-0.8138;
737.4000;0.1286;-0.8239;
737.7000;0.1278;-0.8314;
738.0000;0.1286;-0.8314;
738.3000;0.1278;-0.8414;
738.6000;0.1294;-0.8264;
738.9000;0.1262;-0.8239;
739.2000;0.1278;-0.8188;
739.5000;0.1278;-0.8239;
739.8000;0.1302;-0.8163;
740.1000;0.1254;-0.8289;
740.4000;0.1294;-0.8113;
740.7000;0.1294;-0.8113;
741.0000;0.1294;-0.8163;
741.3000;0.1286;-0.8188;
741.6000;0.1286;-0.8314;
741.9000;0.1245;-0.8364;
742.2000;0.1327;-0.8214;
742.5000;0.1286;-0.8314;
742.8000;0.1278;-0.8264;
743.1000;0.1294;-0.8138;
743.4000;0.1270;-0.8239;
743.7000;0.1278;-0.8214;
744.0000;0.1319;-0.8063;
744.3000;0.1245;-0.8239;
744.6000;0.1286;-0.8138;
744.9000;0.1286;-0.8163;
745.2000;0.1294;-0.8214;
745.5000;0.1278;-0.8264;
745.8000;0.1286;-0.8289;
746.1000;0.1278;-0.8339;
746.4000;0.1254;-0.8364;
746.7000;0.1254;-0.8465;
747.0000;0.1286;-0.8490;
747.3000;0.1294;-0.8414;
747.6000;0.1245;-0.8490;
747.9000;0.1278;-0.8414;
748.2000;0.1262;-0.8465;
748.5000;0.1286;-0.8414;
748.8000;0.1278;-0.8389;
749.1000;0.1286;-0.8389;
749.4000;0.1278;-0.8364;
749.7000;0.1302;-0.8314;
750.0000;0.1311;-0.8339;
750.3000;0.1294;-0.8339;
750.6000;0.1286;-0.8314;
750.9000;0.1286;-0.8289;
751.2000;0.1286;-0.8214;
751.5000;0.1286;-0.8188;
751.8000;0.1286;-0.8239;
752.1000;0.1294;-0.8239;
752.4000;0.1286;-0.8239;
752.7000;0.1278;-0.8264;
753.0000;0.1294;-0.8264;
753.3000;0.1302;-0.8214;
753.6000;0.1294;-0.8239;
753.9000;0.1286;-0.8264;
754.2000;0.1262;-0.8339;
754.5000;0.1302;-0.8314;
754.8000;0.1286;-0.8389;
755.1000;0.1319;-0.8289;
755.4000;0.1294;-0.8264;
755.7000;0.1294;-0.8289;
756.0000;0.1278;-0.8414;
756.3000;0.1294;-0.8364;
756.6000;0.1278;-0.8440;
756.9000;0.1262;-0.8515;
757.2000;0.1286;-0.8490;
757.5000;0.1294;-0.8540;
757.8000;0.1294;-0.8515;
758.1000;0.1311;-0.8465;
758.4000;0.1294;-0.8440;
758.7000;0.1294;-0.8364;
759.0000;0.1294;-0.8414;
759.3000;0.1245;-0.8641;
759.6000;0.1294;-0.8490;
759.9000;0.1278;-0.8364;
760.2000;0.1302;-0.8414;
760.5000;0.1278;-0.8440;
760.8000;0.1286;-0.8339;
761.1000;0.1311;-0.8364;
761.4000;0.1294;-0.8364;
761.7000;0.1327;-0.8339;
762.0000;0.1237;-0.8565;
762.3000;0.1286;-0.8515;
762.6000;0.1286;-0.8465;
762.9000;0.1286;-0.8465;
763.2000;0.1286;-0.8515;
763.5000;0.1286;-0.8515;
763.8000;0.1294;-0.8339;
764.1000;0.1302;-0.8289;
764.4000;0.1302;-0.8214;
764.7000;0.1302;-0.8239;
765.0000;0.1302;-0.8214;
765.3000;0.1286;-0.8289;
765.6000;0.1294;-0.8239;
765.9000;0.1286;-0.8239;
766.2000;0.1311;-0.8163;
766.5000;0.1294;-0.8214;
766.8000;0.1311;-0.8289;
767.1000;0.1213;-0.8590;
767.4000;0.1302;-0.8264;
767.7000;0.1278;-0.8364;
768.0000;0.1286;-0.8364;
768.3000;0.1213;-0.8515;
768.6000;0.1270;-0.8364;
768.9000;0.1270;-0.8314;
769.2000;0.1286;-0.8239;
769.5000;0.1278;-0.8289;
769.8000;0.1376;-0.8088;
770.1000;0.1286;-0.8239;
770.4000;0.1286;-0.8289;
770.7000;0.1311;-0.8163;
771.0000;0.1286;-0.8289;
771.3000;0.1254;-0.8264;
771.6000;0.1343;-0.7912;
771.9000;0.1205;-0.8339;
772.2000;0.1286;-0.8163;
772.5000;0.1270;-0.8188;
772.8000;0.1270;-0.8138;
773.1000;0.1327;-0.8088;
773.4000;0.1286;-0.8163;
773.7000;0.1262;-0.8163;
774.0000;0.1270;-0.8289;
774.3000;0.1286;-0.8289;
774.6000;0.1270;-0.8289;
774.9000;0.1262;-0.8239;
775.2000;0.1286;-0.8188;
775.5000;0.1286;-0.8163;
775.8000;0.1278;-0.8163;
776.1000;0.1286;-0.8214;
776.4000;0.1294;-0.8239;
776.7000;0.1319;-0.8289;
777.0000;0.1286;-0.8414;
777.3000;0.1294;-0.8414;
777.6000;0.1311;-0.8364;
777.9000;0.1294;-0.8339;
778.2000;0.1286;-0.8440;
778.5000;0.1278;-0.8389;
778.8000;0.1278;-0.8389;
779.1000;0.1286;-0.8414;
779.4000;0.1286;-0.8364;
779.7000;0.1286;-0.8264;
780.0000;0.1286;-0.8239;
780.3000;0.1286;-0.8188;
780.6000;0.1294;-0.8138;
780.9000;0.1286;-0.8214;
781.2000;0.1311;-0.8088;
781.5000;0.1270;-0.8163;
781.8000;0.1286;-0.8138;
782.1000;0.1286;-0.8214;
782.4000;0.1294;-0.8163;
782.7000;0.1270;-0.8214;
783.0000;0.1335;-0.8063;
783.3000;0.1311;-0.8138;
783.6000;0.1197;-0.8389;
783.9000;0.1294;-0.8138;
784.2000;0.1254;-0.8188;
784.5000;0.1270;-0.8163;
784.8000;0.1278;-0.8163;
785.1000;0.1302;-0.8063;
785.4000;0.1270;-0.8113;
785.7000;0.1278;-0.8113;
786.0000;0.1245;-0.8289;
786.3000;0.1270;-0.8314;
786.6000;0.1359;-0.8038;
786.9000;0.1270;-0.8264;
787.2000;0.1245;-0.8339;
787.5000;0.1286;-0.8314;
787.8000;0.1286;-0.8214;
788.1000;0.1294;-0.8113;
788.4000;0.1302;-0.8088;
788.7000;0.1278;-0.8188;
789.0000;0.1286;-0.8314;
789.3000;0.1294;-0.8314;
789.6000;0.1294;-0.8289;
789.9000;0.1245;-0.8389;
790.2000;0.1278;-0.8339;
790.5000;0.1270;-0.8264;
790.8000;0.1278;-0.8214;
791.1000;0.1270;-0.8214;
791.4000;0.1245;-0.8314;
791.7000;0.1278;-0.8063;
792.0000;0.1286;-0.8113;
792.3000;0.1302;-0.8038;
792.6000;0.1286;-0.8063;
792.9000;0.1254;-0.8188;
793.2000;0.1294;-0.8138;
793.5000;0.1302;-0.8138;
793.8000;0.1254;-0.8239;
794.1000;0.1245;-0.8314;
794.4000;0.1400;-0.7962;
794.7000;0.1351;-0.8264;
795.0000;0.1294;-0.8440;
795.3000;0.1294;-0.8440;
795.6000;0.1286;-0.8264;
795.9000;0.1286;-0.8239;
796.2000;0.1294;-0.8264;
796.5000;0.1270;-0.8389;
796.8000;0.1302;-0.8214;
797.1000;0.1302;-0.8214;
797.4000;0.1286;-0.8163;
797.7000;0.1278;-0.8138;
798.0000;0.1286;-0.8163;
798.3000;0.1262;-0.8264;
798.6000;0.1270;-0.8188;
798.9000;0.1286;-0.8138;
799.2000;0.1294;-0.8138;
799.5000;0.1294;-0.8239;
799.8000;0.1302;-0.8289;
800.1000;0.1278;-0.8289;
800.4000;0.1311;-0.8214;
800.7000;0.1278;-0.8314;
801.0000;0.1294;-0.8289;
801.3000;0.1286;-0.8414;
801.6000;0.1270;-0.8565;
801.9000;0.1351;-0.8339;
802.2000;0.1302;-0.8414;
802.5000;0.1311;-0.8264;
802.8000;0.1270;-0.8414;
803.1000;0.1286;-0.8364;
803.4000;0.1302;-0.8389;
803.7000;0.1286;-0.8289;
804.0000;0.1278;-0.8339;
804.3000;0.1270;-0.8264;
804.6000;0.1294;-0.8163;
804.9000;0.1197;-0.8440;
805.2000;0.1237;-0.8264;
805.5000;0.1286;-0.8239;
805.8000;0.1262;-0.8314;
806.1000;0.1278;-0.8214;
806.4000;0.1294;-0.8264;
806.7000;0.1302;-0.8289;
807.0000;0.1237;-0.8490;
807.3000;0.1302;-0.8264;
807.6000;0.1254;-0.8339;
807.9000;0.1270;-0.8239;
808.2000;0.1254;-0.8364;
808.5000;0.1278;-0.8364;
808.8000;0.1254;-0.8490;
809.1000;0.1278;-0.8339;
809.4000;0.1278;-0.8339;
809.7000;0.1311;-0.8239;
810.0000;0.1237;-0.8389;
810.3000;0.1286;-0.8264;
810.6000;0.1278;-0.8214;
810.9000;0.1286;-0.8188;
811.2000;0.1221;-0.8440;
811.5000;0.1262;-0.8339;
811.8000;0.1270;-0.8339;
812.1000;0.1319;-0.8289;
812.4000;0.1302;-0.8364;
812.7000;0.1286;-0.8465;
813.0000;0.1278;-0.8465;
813.3000;0.1286;-0.8490;
813.6000;0.1294;-0.8414;
813.9000;0.1286;-0.8414;
814.2000;0.1270;-0.8440;
814.5000;0.1270;-0.8465;
814.8000;0.1311;-0.8314;
815.1000;0.1294;-0.8239;
815.4000;0.1335;-0.8038;
815.7000;0.1286;-0.8138;
816.0000;0.1302;-0.8038;
816.3000;0.1302;-0.8063;
816.6000;0.1278;-0.8188;
816.9000;0.1278;-0.8239;
817.2000;0.1294;-0.8214;
817.5000;0.1286;-0.8239;
817.8000;0.1302;-0.8188;
818.1000;0.1286;-0.8314;
818.4000;0.1294;-0.8264;
818.7000;0.1311;-0.8289;
819.0000;0.1278;-0.8414;
819.3000;0.1286;-0.8289;
819.6000;0.1286;-0.8264;
819.9000;0.1294;-0.8264;
820.2000;0.1286;-0.8214;
820.5000;0.1286;-0.8239;
820.8000;0.1270;-0.8289;
821.1000;0.1286;-0.8264;
821.4000;0.1302;-0.8289;
821.7000;0.1302;-0.8214;
822.0000;0.1294;-0.8289;
822.3000;0.1213;-0.8440;
822.6000;0.1286;-0.8289;
822.9000;0.1270;-0.8389;
823.2000;0.1286;-0.8314;
823.5000;0.1286;-0.8214;
823.8000;0.1245;-0.8163;
824.1000;0.1286;-0.8188;
824.4000;0.1278;-0.8264;
824.7000;0.1278;-0.8289;
825.0000;0.1311;-0.8163;
825.3000;0.1286;-0.8188;
825.6000;0.1302;-0.8113;
825.9000;0.1302;-0.8163;
826.2000;0.1262;-0.8214;
826.5000;0.1286;-0.8163;
826.8000;0.1229;-0.8339;
827.1000;0.1229;-0.8264;
827.4000;0.1286;-0.8088;
827.7000;0.1311;-0.8013;
828.0000;0.1343;-0.8013;
828.3000;0.1294;-0.8188;
828.6000;0.1294;-0.8214;
828.9000;0.1294;-0.8163;
829.2000;0.1319;-0.8113;
829.5000;0.1294;-0.8188;
829.8000;0.1270;-0.8188;
830.1000;0.1327;-0.8038;
830.4000;0.1270;-0.8264;
830.7000;0.1302;-0.8113;
831.0000;0.1278;-0.8264;
831.3000;0.1294;-0.8188;
831.6000;0.1237;-0.8214;
831.9000;0.1286;-0.8138;
832.2000;0.1262;-0.8289;
832.5000;0.1294;-0.8239;
832.8000;0.1294;-0.8239;
833.1000;0.1286;-0.8264;
833.4000;0.1286;-0.8188;
833.7000;0.1180;-0.8465;
834.0000;0.1294;-0.8239;
834.3000;0.1302;-0.8214;
834.6000;0.1294;-0.8314;
834.9000;0.1286;-0.8314;
835.2000;0.1286;-0.8264;
835.5000;0.1286;-0.8239;
835.8000;0.1294;-0.8163;
836.1000;0.1302;-0.8163;
836.4000;0.1286;-0.8264;
836.7000;0.1294;-0.8214;
837.0000;0.1262;-0.8239;
837.3000;0.1278;-0.8289;
837.6000;0.1286;-0.8389;
837.9000;0.1286;-0.8414;
838.2000;0.1278;-0.8414;
838.5000;0.1294;-0.8289;
838.8000;0.1278;-0.8289;
839.1000;0.1302;-0.8239;
839.4000;0.1294;-0.8239;
839.7000;0.1302;-0.8138;
840.0000;0.1294;-0.8239;
840.3000;0.1294;-0.8188;
840.6000;0.1351;-0.8088;
840.9000;0.1294;-0.8239;
841.2000;0.1270;-0.8314;
841.5000;0.1302;-0.8239;
841.8000;0.1294;-0.8239;
842.1000;0.1294;-0.8339;
842.4000;0.1294;-0.8239;
842.7000;0.1278;-0.8214;
843.0000;0.1294;-0.8138;
843.3000;0.1343;-0.8063;
843.6000;0.1270;-0.8239;
843.9000;0.1302;-0.8163;
844.2000;0.1286;-0.8264;
844.5000;0.1302;-0.8214;
844.8000;0.1270;-0.8314;
845.1000;0.1229;-0.8440;
845.4000;0.1327;-0.8239;
845.7000;0.1294;-0.8239;
846.0000;0.1278;-0.8264;
846.3000;0.1270;-0.8364;
846.6000;0.1270;-0.8314;
846.9000;0.1302;-0.8163;
847.2000;0.1351;-0.7987;
847.5000;0.1270;-0.8214;
847.8000;0.1286;-0.8289;
848.1000;0.1254;-0.8264;
848.4000;0.1278;-0.8188;
848.7000;0.1270;-0.8214;
849.0000;0.1237;-0.8239;
849.3000;0.1294;-0.8038;
849.6000;0.1286;-0.7962;
849.9000;0.1270;-0.8013;
850.2000;0.1294;-0.7937;
850.5000;0.1278;-0.7937;
850.8000;0.1286;-0.7937;
851.1000;0.1343;-0.7887;
851.4000;0.1286;-0.7962;
851.7000;0.1294;-0.7962;
852.0000;0.1278;-0.7987;
852.3000;0.1262;-0.8113;
852.6000;0.1294;-0.8038;
852.9000;0.1286;-0.8038;
853.2000;0.1302;-0.8063;
853.5000;0.1286;-0.8038;
853.8000;0.1286;-0.7987;
854.1000;0.1302;-0.7937;
854.4000;0.1294;-0.7887;
854.7000;0.1278;-0.7962;
855.0000;0.1302;-0.7962;
855.3000;0.1286;-0.8013;
855.6000;0.1294;-0.8038;
855.9000;0.1286;-0.7987;
856.2000;0.1294;-0.8038;
856.5000;0.1294;-0.8038;
856.8000;0.1286;-0.8063;
857.1000;0.1311;-0.7987;
857.4000;0.1278;-0.8038;
857.7000;0.1294;-0.7962;
858.0000;0.1286;-0.8013;
858.3000;0.1270;-0.8088;
858.6000;0.1270;-0.8088;
858.9000;0.1270;-0.8138;
859.2000;0.1286;-0.8138;
859.5000;0.1294;-0.8188;
859.8000;0.1286;-0.8163;
860.1000;0.1278;-0.8188;
860.4000;0.1278;-0.8214;
860.7000;0.1302;-0.8188;
861.0000;0.1294;-0.8138;
861.3000;0.1270;-0.8138;
861.6000;0.1278;-0.8214;
861.9000;0.1294;-0.8188;
862.2000;0.1262;-0.8264;
862.5000;0.1294;-0.8239;
862.8000;0.1302;-0.8289;
863.1000;0.1294;-0.8289;
863.4000;0.1311;-0.8239;
863.7000;0.1270;-0.8314;
864.0000;0.1286;-0.8214;
864.3000;0.1294;-0.8188;
864.6000;0.1294;-0.8138;
864.9000;0.1302;-0.8188;
865.2000;0.1286;-0.8239;
865.5000;0.1294;-0.8239;
865.8000;0.1294;-0.8289;
866.1000;0.1335;-0.8138;
866.4000;0.1286;-0.8163;
866.7000;0.1302;-0.8038;
867.0000;0.1286;-0.8088;
867.3000;0.1294;-0.8163;
867.6000;0.1286;-0.8314;
867.9000;0.1278;-0.8314;
868.2000;0.1262;-0.8214;
868.5000;0.1286;-0.8239;
868.8000;0.1278;-0.8289;
869.1000;0.1286;-0.8314;
869.4000;0.1270;-0.8214;
869.7000;0.1278;-0.8188;
870.0000;0.1294;-0.8214;
870.3000;0.1221;-0.8339;
870.6000;0.1311;-0.8013;
870.9000;0.1302;-0.8088;
871.2000;0.1302;-0.8038;
871.5000;0.1294;-0.8138;
871.8000;0.1286;-0.8214;
872.1000;0.1302;-0.8163;
872.4000;0.1278;-0.8113;
872.7000;0.1254;-0.8163;
873.0000;0.1294;-0.8038;
873.3000;0.1302;-0.8088;
873.6000;0.1286;-0.8113;
873.9000;0.1278;-0.8088;
874.2000;0.1294;-0.8038;
874.5000;0.1278;-0.8013;
874.8000;0.1302;-0.8013;
875.1000;0.1286;-0.8163;
875.4000;0.1278;-0.8113;
875.7000;0.1294;-0.8138;
876.0000;0.1311;-0.8188;
876.3000;0.1270;-0.8214;
876.6000;0.1262;-0.8188;
876.9000;0.1294;-0.8239;
877.2000;0.1205;-0.8590;
877.5000;0.1286;-0.8289;
877.8000;0.1278;-0.8314;
878.1000;0.1262;-0.8339;
878.4000;0.1294;-0.8264;
878.7000;0.1286;-0.8239;
879.0000;0.1294;-0.8188;
879.3000;0.1294;-0.8063;
879.6000;0.1302;-0.8013;
879.9000;0.1302;-0.8013;
880.2000;0.1286;-0.8013;
880.5000;0.1286;-0.8038;
880.8000;0.1286;-0.8038;
881.1000;0.1278;-0.8138;
881.4000;0.1286;-0.8188;
881.7000;0.1302;-0.8188;
882.0000;0.1286;-0.8188;
882.3000;0.1294;-0.8239;
882.6000;0.1294;-0.8314;
882.9000;0.1286;-0.8314;
883.2000;0.1286;-0.8163;
883.5000;0.1278;-0.8163;
883.8000;0.1286;-0.8063;
884.1000;0.1302;-0.8088;
884.4000;0.1286;-0.8163;
884.7000;0.1294;-0.8214;
885.0000;0.1278;-0.8264;
885.3000;0.1254;-0.8239;
885.6000;0.1229;-0.8314;
885.9000;0.1270;-0.8188;
886.2000;0.1319;-0.8138;
886.5000;0.1302;-0.8138;
886.8000;0.1286;-0.8113;
887.1000;0.1286;-0.8163;
887.4000;0.1311;-0.8163;
887.7000;0.1278;-0.8214;
888.0000;0.1278;-0.8138;
888.3000;0.1286;-0.8038;
888.6000;0.1302;-0.7962;
888.9000;0.1294;-0.7962;
889.2000;0.1270;-0.8038;
889.5000;0.1278;-0.8038;
889.8000;0.1343;-0.7862;
890.1000;0.1294;-0.8038;
890.4000;0.1278;-0.8113;
890.7000;0.1294;-0.8013;
891.0000;0.1302;-0.7962;
891.3000;0.1302;-0.8113;
891.6000;0.1294;-0.8163;
891.9000;0.1302;-0.8088;
892.2000;0.1286;-0.8038;
892.5000;0.1294;-0.7987;
892.8000;0.1286;-0.8063;
893.1000;0.1294;-0.7987;
893.4000;0.1270;-0.7937;
893.7000;0.1278;-0.7862;
894.0000;0.1278;-0.7937;
894.3000;0.1278;-0.7962;
894.6000;0.1302;-0.7862;
894.9000;0.1286;-0.7987;
895.2000;0.1302;-0.7962;
895.5000;0.1286;-0.7987;
895.8000;0.1278;-0.7937;
896.1000;0.1294;-0.7887;
896.4000;0.1286;-0.7912;
896.7000;0.1294;-0.7837;
897.0000;0.1294;-0.7962;
897.3000;0.1286;-0.8088;
897.6000;0.1302;-0.8063;
897.9000;0.1205;-0.8339;
898.2000;0.1262;-0.8163;
898.5000;0.1286;-0.8063;
898.8000;0.1270;-0.8063;
899.1000;0.1294;-0.8013;
899.4000;0.1286;-0.8113;
899.7000;0.1270;-0.8264;
900.0000;0.1123;-0.8641;
900.3000;0.1286;-0.8214;
900.6000;0.1270;-0.8214;
900.9000;0.1294;-0.8163;
901.2000;0.1302;-0.8013;
901.5000;0.1294;-0.7987;
901.8000;0.1294;-0.8038;
902.1000;0.1278;-0.8063;
902.4000;0.1294;-0.7987;
902.7000;0.1286;-0.8038;
903.0000;0.1302;-0.8013;
903.3000;0.1319;-0.7812;
903.6000;0.1302;-0.7837;
903.9000;0.1294;-0.7912;
904.2000;0.1270;-0.7962;
904.5000;0.1294;-0.8063;
904.8000;0.1270;-0.8214;
905.1000;0.1278;-0.8113;
905.4000;0.1270;-0.8188;
905.7000;0.1278;-0.8214;
906.0000;0.1270;-0.8289;
906.3000;0.1270;-0.8163;
906.6000;0.1294;-0.8138;
906.9000;0.1205;-0.8289;
907.2000;0.1278;-0.8063;
907.5000;0.1286;-0.8038;
907.8000;0.1392;-0.7736;
908.1000;0.1327;-0.7887;
908.4000;0.1286;-0.8013;
908.7000;0.1286;-0.8088;
909.0000;0.1278;-0.8063;
909.3000;0.1302;-0.8113;
909.6000;0.1294;-0.8013;
909.9000;0.1286;-0.7912;
910.2000;0.1278;-0.7962;
910.5000;0.1286;-0.7987;
910.8000;0.1278;-0.8088;
911.1000;0.1302;-0.8088;
911.4000;0.1270;-0.8038;
911.7000;0.1245;-0.8088;
912.0000;0.1278;-0.7987;
912.3000;0.1270;-0.8013;
912.6000;0.1319;-0.7937;
912.9000;0.1343;-0.7912;
913.2000;0.1351;-0.7887;
913.5000;0.1262;-0.8038;
913.8000;0.1343;-0.7812;
914.1000;0.1286;-0.7962;
914.4000;0.1384;-0.7711;
914.7000;0.1278;-0.8038;
915.0000;0.1262;-0.8063;
915.3000;0.1294;-0.8013;
915.6000;0.1286;-0.8113;
915.9000;0.1254;-0.8239;
916.2000;0.1286;-0.8138;
916.5000;0.1286;-0.8214;
916.8000;0.1286;-0.8239;
917.1000;0.1384;-0.7912;
917.4000;0.1278;-0.8214;
917.7000;0.1270;-0.8163;
918.0000;0.1311;-0.8113;
918.3000;0.1278;-0.8239;
918.6000;0.1286;-0.8088;
918.9000;0.1221;-0.8163;
919.2000;0.1286;-0.7887;
919.5000;0.1286;-0.7862;
919.8000;0.1302;-0.7887;
920.1000;0.1302;-0.8088;
920.4000;0.1278;-0.8188;
920.7000;0.1311;-0.8188;
921.0000;0.1278;-0.8264;
921.3000;0.1302;-0.8289;
921.6000;0.1302;-0.8239;
921.9000;0.1376;-0.8013;
922.2000;0.1294;-0.8264;
922.5000;0.1294;-0.8289;
922.8000;0.1286;-0.8289;
923.1000;0.1221;-0.8440;
923.4000;0.1294;-0.8364;
923.7000;0.1286;-0.8314;
924.0000;0.1278;-0.8414;
924.3000;0.1302;-0.8364;
924.6000;0.1319;-0.8264;
924.9000;0.1278;-0.8389;
925.2000;0.1278;-0.8339;
925.5000;0.1343;-0.8239;
925.8000;0.1294;-0.8364;
926.1000;0.1302;-0.8364;
926.4000;0.1294;-0.8339;
926.7000;0.1237;-0.8389;
927.0000;0.1294;-0.8214;
927.3000;0.1270;-0.8214;
927.6000;0.1270;-0.8038;
927.9000;0.1245;-0.8214;
928.2000;0.1278;-0.8163;
928.5000;0.1278;-0.8188;
928.8000;0.1343;-0.8163;
929.1000;0.1311;-0.8264;
929.4000;0.1237;-0.8364;
929.7000;0.1278;-0.8289;
930.0000;0.1294;-0.8188;
930.3000;0.1262;-0.8188;
930.6000;0.1294;-0.8214;
930.9000;0.1245;-0.8289;
931.2000;0.1335;-0.8063;
931.5000;0.1286;-0.8188;
931.8000;0.1302;-0.8163;
932.1000;0.1294;-0.8138;
932.4000;0.1270;-0.8188;
932.7000;0.1286;-0.8239;
933.0000;0.1286;-0.8314;
933.3000;0.1262;-0.8389;
933.6000;0.1245;-0.8465;
933.9000;0.1262;-0.8440;
934.2000;0.1294;-0.8289;
934.5000;0.1286;-0.8339;
934.8000;0.1286;-0.8239;
935.1000;0.1294;-0.8188;
935.4000;0.1286;-0.8264;
935.7000;0.1319;-0.8214;
936.0000;0.1376;-0.8063;
936.3000;0.1286;-0.8314;
936.6000;0.1302;-0.8339;
936.9000;0.1335;-0.8138;
937.2000;0.1359;-0.8088;
937.5000;0.1294;-0.8214;
937.8000;0.1270;-0.8264;
938.1000;0.1270;-0.8264;
938.4000;0.1294;-0.8239;
938.7000;0.1286;-0.8239;
939.0000;0.1343;-0.8163;
939.3000;0.1294;-0.8339;
939.6000;0.1294;-0.8339;
939.9000;0.1294;-0.8339;
940.2000;0.1245;-0.8389;
940.5000;0.1294;-0.8264;
940.8000;0.1278;-0.8214;
941.1000;0.1302;-0.8088;
941.4000;0.1302;-0.8113;
941.7000;0.1262;-0.8264;
942.0000;0.1302;-0.8163;
942.3000;0.1294;-0.8163;
942.6000;0.1294;-0.8214;
942.9000;0.1286;-0.8239;
943.2000;0.1270;-0.8214;
943.5000;0.1286;-0.8138;
943.8000;0.1302;-0.8138;
944.1000;0.1343;-0.8113;
944.4000;0.1278;-0.8339;
944.7000;0.1384;-0.8138;
945.0000;0.1237;-0.8515;
945.3000;0.1270;-0.8314;
945.6000;0.1286;-0.8214;
945.9000;0.1294;-0.8113;
946.2000;0.1294;-0.8113;
946.5000;0.1286;-0.8163;
946.8000;0.1286;-0.8188;
947.1000;0.1294;-0.8138;
947.4000;0.1278;-0.8214;
947.7000;0.1311;-0.8264;
948.0000;0.1294;-0.8214;
948.3000;0.1262;-0.8289;
948.6000;0.1286;-0.8214;
948.9000;0.1278;-0.8163;
949.2000;0.1286;-0.8188;
949.5000;0.1302;-0.8188;
949.8000;0.1294;-0.8188;
950.1000;0.1286;-0.8113;
950.4000;0.1286;-0.8063;
950.7000;0.1205;-0.8239;
951.0000;0.1302;-0.8063;
951.3000;0.1270;-0.8138;
951.6000;0.1311;-0.7887;
951.9000;0.1278;-0.7987;
952.2000;0.1221;-0.8289;
952.5000;0.1327;-0.8138;
952.8000;0.1262;-0.8364;
953.1000;0.1229;-0.8314;
953.4000;0.1270;-0.8188;
953.7000;0.1286;-0.8163;
954.0000;0.1286;-0.8289;
954.3000;0.1294;-0.8239;
954.6000;0.1294;-0.8113;
954.9000;0.1294;-0.8138;
955.2000;0.1278;-0.8163;
955.5000;0.1286;-0.8138;
955.8000;0.1311;-0.8038;
956.1000;0.1294;-0.8013;
956.4000;0.1302;-0.8038;
956.7000;0.1286;-0.8063;
957.0000;0.1302;-0.7862;
957.3000;0.1294;-0.8063;
957.6000;0.1302;-0.8063;
957.9000;0.1286;-0.8113;
958.2000;0.1327;-0.7937;
958.5000;0.1286;-0.8063;
958.8000;0.1262;-0.8113;
959.1000;0.1294;-0.8138;
959.4000;0.1302;-0.8163;
959.7000;0.1319;-0.8088;
960.0000;0.1286;-0.8138;
960.3000;0.1278;-0.8188;
960.6000;0.1278;-0.8214;
960.9000;0.1286;-0.8163;
961.2000;0.1278;-0.8163;
961.5000;0.1311;-0.8013;
961.8000;0.1262;-0.8063;
962.1000;0.1294;-0.7862;
962.4000;0.1302;-0.7912;
962.7000;0.1286;-0.7962;
963.0000;0.1278;-0.8038;
963.3000;0.1262;-0.8088;
963.6000;0.1302;-0.7962;
963.9000;0.1294;-0.8063;
964.2000;0.1270;-0.8113;
964.5000;0.1278;-0.8063;
964.8000;0.1270;-0.8013;
965.1000;0.1286;-0.7987;
965.4000;0.1286;-0.8063;
965.7000;0.1278;-0.8013;
966.0000;0.1286;-0.7987;
966.3000;0.1311;-0.7937;
966.6000;0.1327;-0.7962;
966.9000;0.1302;-0.7987;
967.2000;0.1278;-0.8088;
967.5000;0.1278;-0.8088;
967.8000;0.1262;-0.8113;
968.1000;0.1278;-0.8163;
968.4000;0.1302;-0.8138;
968.7000;0.1302;-0.8163;
969.0000;0.1278;-0.8163;
969.3000;0.1294;-0.8188;
969.6000;0.1286;-0.8264;
969.9000;0.1254;-0.8339;
970.2000;0.1278;-0.8264;
970.5000;0.1286;-0.8264;
970.8000;0.1262;-0.8389;
971.1000;0.1286;-0.8264;
971.4000;0.1270;-0.8440;
971.7000;0.1286;-0.8364;
972.0000;0.1302;-0.8264;
972.3000;0.1286;-0.8163;
972.6000;0.1343;-0.7987;
972.9000;0.1302;-0.8063;
973.2000;0.1286;-0.8113;
973.5000;0.1286;-0.8088;
973.8000;0.1294;-0.8138;
974.1000;0.1319;-0.8063;
974.4000;0.1311;-0.8138;
974.7000;0.1278;-0.8214;
975.0000;0.1278;-0.8214;
975.3000;0.1294;-0.8264;
975.6000;0.1302;-0.8239;
975.9000;0.1294;-0.8364;
976.2000;0.1343;-0.8214;
976.5000;0.1294;-0.8364;
976.8000;0.1270;-0.8414;
977.1000;0.1302;-0.8314;
977.4000;0.1302;-0.8389;
977.7000;0.1262;-0.8440;
978.0000;0.1286;-0.8364;
978.3000;0.1221;-0.8590;
978.6000;0.1286;-0.8465;
978.9000;0.1294;-0.8414;
979.2000;0.1278;-0.8440;
979.5000;0.1270;-0.8414;
979.8000;0.1286;-0.8389;
980.1000;0.1335;-0.8264;
980.4000;0.1270;-0.8314;
980.7000;0.1302;-0.8289;
981.0000;0.1270;-0.8414;
981.3000;0.1302;-0.8414;
981.6000;0.1286;-0.8389;
981.9000;0.1294;-0.8389;
982.2000;0.1311;-0.8289;
982.5000;0.1311;-0.8289;
982.8000;0.1311;-0.8314;
983.1000;0.1319;-0.8239;
983.4000;0.1294;-0.8188;
983.7000;0.1294;-0.8113;
984.0000;0.1384;-0.8038;
984.3000;0.1286;-0.8239;
984.6000;0.1294;-0.8364;
984.9000;0.1237;-0.8364;
985.2000;0.1294;-0.8264;
985.5000;0.1311;-0.8188;
985.8000;0.1294;-0.8188;
986.1000;0.1245;-0.8339;
986.4000;0.1294;-0.8188;
986.7000;0.1294;-0.8188;
987.0000;0.1294;-0.8138;
987.3000;0.1270;-0.8214;
987.6000;0.1278;-0.8188;
987.9000;0.1311;-0.8063;
988.2000;0.1294;-0.8138;
988.5000;0.1278;-0.8289;
988.8000;0.1286;-0.8339;
989.1000;0.1302;-0.8289;
989.4000;0.1294;-0.8188;
989.7000;0.1294;-0.8113;
990.0000;0.1335;-0.7987;
990.3000;0.1278;-0.8239;
990.6000;0.1286;-0.8239;
990.9000;0.1188;-0.8440;
991.2000;0.1270;-0.8264;
991.5000;0.1254;-0.8289;
991.8000;0.1335;-0.8113;
992.1000;0.1294;-0.8163;
992.4000;0.1302;-0.8088;
992.7000;0.1302;-0.8163;
993.0000;0.1294;-0.8188;
993.3000;0.1294;-0.8188;
993.6000;0.1286;-0.8188;
993.9000;0.1278;-0.8113;
994.2000;0.1376;-0.7761;
994.5000;0.1294;-0.8063;
994.8000;0.1270;-0.8138;
995.1000;0.1278;-0.8163;
995.4000;0.1270;-0.8188;
995.7000;0.1302;-0.8163;
996.0000;0.1278;-0.8239;
996.3000;0.1270;-0.8188;
996.6000;0.1286;-0.8188;
996.9000;0.1302;-0.8214;
997.2000;0.1278;-0.8214;
997.5000;0.1327;-0.8063;
997.8000;0.1302;-0.8038;
998.1000;0.1286;-0.8088;
998.4000;0.1294;-0.8138;
998.7000;0.1270;-0.8239;
999.0000;0.1270;-0.8188;
999.3000;0.1262;-0.8163;
999.6000;0.1270;-0.7987;
999.9000;0.1286;-0.7987;
1000.2000;0.1278;-0.7962;
1000.5000;0.1294;-0.8013;
1000.8000;0.1278;-0.8138;
1001.1000;0.1270;-0.8239;
1001.4000;0.1294;-0.8239;
1001.7000;0.1278;-0.8239;
1002.0000;0.1294;-0.8163;
1002.3000;0.1335;-0.8038;
1002.6000;0.1278;-0.8188;
1002.9000;0.1294;-0.8163;
1003.2000;0.1286;-0.8214;
1003.5000;0.1294;-0.8214;
1003.8000;0.1278;-0.8214;
1004.1000;0.1311;-0.8214;
1004.4000;0.1278;-0.8364;
1004.7000;0.1278;-0.8465;
1005.0000;0.1270;-0.8465;
1005.3000;0.1286;-0.8364;
1005.6000;0.1270;-0.8490;
1005.9000;0.1286;-0.8389;
1006.2000;0.1319;-0.8414;
1006.5000;0.1278;-0.8389;
1006.8000;0.1294;-0.8364;
1007.1000;0.1319;-0.8188;
1007.4000;0.1294;-0.8289;
1007.7000;0.1294;-0.8339;
1008.0000;0.1254;-0.8414;
1008.3000;0.1278;-0.8364;
1008.6000;0.1286;-0.8389;
1008.9000;0.1286;-0.8339;
1009.2000;0.1286;-0.8414;
1009.5000;0.1278;-0.8239;
1009.8000;0.1237;-0.8414;
1010.1000;0.1237;-0.8289;
1010.4000;0.1278;-0.8264;
1010.7000;0.1278;-0.8214;
1011.0000;0.1286;-0.8138;
1011.3000;0.1294;-0.8138;
1011.6000;0.1270;-0.8163;
1011.9000;0.1278;-0.8038;
1012.2000;0.1278;-0.8038;
1012.5000;0.1286;-0.8113;
1012.8000;0.1262;-0.8063;
1013.1000;0.1229;-0.8188;
1013.4000;0.1294;-0.8063;
1013.7000;0.1270;-0.8138;
1014.0000;0.1262;-0.8138;
1014.3000;0.1270;-0.8088;
1014.6000;0.1278;-0.8163;
1014.9000;0.1343;-0.8038;
1015.2000;0.1237;-0.8414;
1015.5000;0.1278;-0.8289;
1015.8000;0.1270;-0.8264;
1016.1000;0.1302;-0.8163;
1016.4000;0.1294;-0.8138;
1016.7000;0.1294;-0.8188;
1017.0000;0.1286;-0.8113;
1017.3000;0.1294;-0.8088;
1017.6000;0.1278;-0.8113;
1017.9000;0.1270;-0.8163;
1018.2000;0.1351;-0.8013;
1018.5000;0.1311;-0.8088;
1018.8000;0.1294;-0.8163;
1019.1000;0.1311;-0.8113;
1019.4000;0.1311;-0.8063;
1019.7000;0.1319;-0.8113;
1020.0000;0.1286;-0.8264;
1020.3000;0.1302;-0.8188;
1020.6000;0.1278;-0.8188;
1020.9000;0.1294;-0.8013;
1021.2000;0.1294;-0.7987;
1021.5000;0.1319;-0.7962;
1021.8000;0.1270;-0.8113;
1022.1000;0.1270;-0.8138;
1022.4000;0.1286;-0.8113;
1022.7000;0.1270;-0.8063;
1023.0000;0.1294;-0.8013;
1023.3000;0.1205;-0.8214;
1023.6000;0.1286;-0.8063;
1023.9000;0.1376;-0.7812;
1024.2000;0.1270;-0.8138;
1024.5000;0.1245;-0.8188;
1024.8000;0.1294;-0.8088;
1025.1000;0.1319;-0.7987;
1025.4000;0.1286;-0.8063;
1025.7000;0.1278;-0.8088;
1026.0000;0.1286;-0.8113;
1026.3000;0.1262;-0.8214;
1026.6000;0.1302;-0.8214;
1026.9000;0.1294;-0.8188;
1027.2000;0.1294;-0.8113;
1027.5000;0.1311;-0.8113;
1027.8000;0.1302;-0.8163;
1028.1000;0.1278;-0.8289;
1028.4000;0.1302;-0.8264;
1028.7000;0.1311;-0.8113;
1029.0000;0.1278;-0.8163;
1029.3000;0.1270;-0.8239;
1029.6000;0.1262;-0.8239;
1029.9000;0.1262;-0.8163;
1030.2000;0.1294;-0.8138;
1030.5000;0.1262;-0.8113;
1030.8000;0.1254;-0.8239;
1031.1000;0.1294;-0.8088;
1031.4000;0.1286;-0.8088;
1031.7000;0.1294;-0.8013;
1032.0000;0.1270;-0.8063;
1032.3000;0.1335;-0.7887;
1032.6000;0.1294;-0.7987;
1032.9000;0.1335;-0.7912;
1033.2000;0.1351;-0.7736;
1033.5000;0.1302;-0.7837;
1033.8000;0.1270;-0.8038;
1034.1000;0.1294;-0.8038;
1034.4000;0.1286;-0.8088;
1034.7000;0.1302;-0.7987;
1035.0000;0.1311;-0.7912;
1035.3000;0.1319;-0.7912;
1035.6000;0.1294;-0.8063;
1035.9000;0.1286;-0.8214;
1036.2000;0.1270;-0.8163;
1036.5000;0.1302;-0.8013;
1036.8000;0.1270;-0.8088;
1037.1000;0.1221;-0.8188;
1037.4000;0.1286;-0.8013;
1037.7000;0.1351;-0.7962;
1038.0000;0.1278;-0.8163;
1038.3000;0.1270;-0.8214;
1038.6000;0.1294;-0.8138;
1038.9000;0.1311;-0.8063;
1039.2000;0.1302;-0.8063;
1039.5000;0.1270;-0.8163;
1039.8000;0.1319;-0.8038;
1040.1000;0.1286;-0.8239;
1040.4000;0.1254;-0.8289;
1040.7000;0.1278;-0.8188;
1041.0000;0.1359;-0.7962;
1041.3000;0.1302;-0.8138;
1041.6000;0.1286;-0.8239;
1041.9000;0.1262;-0.8289;
1042.2000;0.1294;-0.8188;
1042.5000;0.1278;-0.8138;
1042.8000;0.1319;-0.8113;
1043.1000;0.1294;-0.8113;
1043.4000;0.1286;-0.8239;
1043.7000;0.1327;-0.8138;
1044.0000;0.1294;-0.8188;
1044.3000;0.1294;-0.8188;
1044.6000;0.1294;-0.8113;
1044.9000;0.1262;-0.8138;
1045.2000;0.1311;-0.8038;
1045.5000;0.1286;-0.8163;
1045.8000;0.1262;-0.8163;
1046.1000;0.1302;-0.8113;
1046.4000;0.1302;-0.8063;
1046.7000;0.1286;-0.7987;
1047.0000;0.1286;-0.8063;
1047.3000;0.1213;-0.8289;
1047.6000;0.1286;-0.8063;
1047.9000;0.1254;-0.8289;
1048.2000;0.1286;-0.8289;
1048.5000;0.1286;-0.8314;
1048.8000;0.1294;-0.8364;
1049.1000;0.1302;-0.8314;
1049.4000;0.1278;-0.8389;
1049.7000;0.1278;-0.8364;
1050.0000;0.1254;-0.8314;
1050.3000;0.1278;-0.8314;
1050.6000;0.1286;-0.8440;
1050.9000;0.1286;-0.8490;
1051.2000;0.1302;-0.8440;
1051.5000;0.1302;-0.8314;
1051.8000;0.1302;-0.8364;
1052.1000;0.1294;-0.8440;
1052.4000;0.1262;-0.8440;
1052.7000;0.1286;-0.8364;
1053.0000;0.1278;-0.8289;
1053.3000;0.1294;-0.8239;
1053.6000;0.1302;-0.8214;
1053.9000;0.1245;-0.8239;
1054.2000;0.1270;-0.8239;
1054.5000;0.1286;-0.8289;
1054.8000;0.1327;-0.8239;
1055.1000;0.1286;-0.8289;
1055.4000;0.1270;-0.8339;
1055.7000;0.1286;-0.8364;
1056.0000;0.1205;-0.8565;
1056.3000;0.1319;-0.8214;
1056.6000;0.1302;-0.8264;
1056.9000;0.1286;-0.8414;
1057.2000;0.1311;-0.8339;
1057.5000;0.1302;-0.8465;
1057.8000;0.1286;-0.8490;
1058.1000;0.1278;-0.8565;
1058.4000;0.1245;-0.8565;
1058.7000;0.1270;-0.8465;
1059.0000;0.1286;-0.8364;
1059.3000;0.1311;-0.8389;
1059.6000;0.1278;-0.8440;
1059.9000;0.1302;-0.8414;
1060.2000;0.1245;-0.8565;
1060.5000;0.1302;-0.8289;
1060.8000;0.1286;-0.8214;
1061.1000;0.1278;-0.8138;
1061.4000;0.1286;-0.8088;
1061.7000;0.1294;-0.8038;
1062.0000;0.1278;-0.8038;
1062.3000;0.1286;-0.8038;
1062.6000;0.1311;-0.8013;
1062.9000;0.1294;-0.7987;
1063.2000;0.1286;-0.7962;
1063.5000;0.1286;-0.7862;
1063.8000;0.1294;-0.7887;
1064.1000;0.1359;-0.7711;
1064.4000;0.1286;-0.7987;
1064.7000;0.1294;-0.8013;
1065.0000;0.1278;-0.8038;
1065.3000;0.1278;-0.8063;
1065.6000;0.1311;-0.7987;
1065.9000;0.1262;-0.8113;
1066.2000;0.1351;-0.8038;
1066.5000;0.1311;-0.8038;
1066.8000;0.1311;-0.7962;
1067.1000;0.1311;-0.7987;
1067.4000;0.1270;-0.8063;
1067.7000;0.1286;-0.8063;
1068.0000;0.1311;-0.7987;
1068.3000;0.1254;-0.8088;
1068.6000;0.1311;-0.8088;
1068.9000;0.1286;-0.8063;
1069.2000;0.1270;-0.7962;
1069.5000;0.1294;-0.8013;
1069.8000;0.1302;-0.7987;
1070.1000;0.1237;-0.8214;
1070.4000;0.1278;-0.8038;
1070.7000;0.1286;-0.7937;
1071.0000;0.1302;-0.7987;
1071.3000;0.1197;-0.8239;
1071.6000;0.1376;-0.7787;
1071.9000;0.1237;-0.8138;
1072.2000;0.1302;-0.8063;
1072.5000;0.1319;-0.7887;
1072.8000;0.1311;-0.7987;
1073.1000;0.1302;-0.7862;
1073.4000;0.1302;-0.7962;
1073.7000;0.1302;-0.7987;
1074.0000;0.1278;-0.8013;
1074.3000;0.1335;-0.7812;
1074.6000;0.1278;-0.8013;
1074.9000;0.1286;-0.7962;
1075.2000;0.1270;-0.7987;
1075.5000;0.1294;-0.8038;
1075.8000;0.1311;-0.7962;
1076.1000;0.1221;-0.8188;
1076.4000;0.1286;-0.7962;
1076.7000;0.1278;-0.7912;
1077.0000;0.1392;-0.7661;
1077.3000;0.1286;-0.7987;
1077.6000;0.1278;-0.8138;
1077.9000;0.1278;-0.8163;
1078.2000;0.1302;-0.8063;
1078.5000;0.1311;-0.8063;
1078.8000;0.1262;-0.8138;
1079.1000;0.1294;-0.8063;
1079.4000;0.1254;-0.8138;
1079.7000;0.1286;-0.8013;
1080.0000;0.1294;-0.7937;
1080.3000;0.1294;-0.7987;
1080.6000;0.1302;-0.7937;
1080.9000;0.1286;-0.7987;
1081.2000;0.1278;-0.7987;
1081.5000;0.1294;-0.7962;
1081.8000;0.1343;-0.7862;
1082.1000;0.1294;-0.7962;
1082.4000;0.1302;-0.8063;
1082.7000;0.1294;-0.8038;
1083.0000;0.1294;-0.8038;
1083.3000;0.1294;-0.7987;
1083.6000;0.1286;-0.8088;
1083.9000;0.1278;-0.8063;
1084.2000;0.1286;-0.8138;
1084.5000;0.1286;-0.8214;
1084.8000;0.1311;-0.8088;
1085.1000;0.1286;-0.8314;
1085.4000;0.1278;-0.8314;
1085.7000;0.1311;-0.8163;
1086.0000;0.1262;-0.8214;
1086.3000;0.1262;-0.8314;
1086.6000;0.1205;-0.8440;
1086.9000;0.1213;-0.8414;
1087.2000;0.1294;-0.8138;
1087.5000;0.1294;-0.8088;
1087.8000;0.1286;-0.8163;
1088.1000;0.1302;-0.8163;
1088.4000;0.1319;-0.8138;
1088.7000;0.1254;-0.8264;
1089.0000;0.1270;-0.8264;
1089.3000;0.1270;-0.8264;
1089.6000;0.1245;-0.8364;
1089.9000;0.1270;-0.8314;
1090.2000;0.1270;-0.8389;
1090.5000;0.1262;-0.8440;
1090.8000;0.1286;-0.8364;
1091.1000;0.1254;-0.8490;
1091.4000;0.1262;-0.8515;
1091.7000;0.1286;-0.8389;
1092.0000;0.1286;-0.8414;
1092.3000;0.1343;-0.8239;
1092.6000;0.1302;-0.8339;
1092.9000;0.1286;-0.8389;
1093.2000;0.1278;-0.8465;
1093.5000;0.1270;-0.8515;
1093.8000;0.1294;-0.8414;
1094.1000;0.1311;-0.8314;
1094.4000;0.1294;-0.8389;
1094.7000;0.1286;-0.8364;
1095.0000;0.1278;-0.8414;
1095.3000;0.1343;-0.8289;
1095.6000;0.1286;-0.8389;
1095.9000;0.1286;-0.8339;
1096.2000;0.1286;-0.8314;
1096.5000;0.1294;-0.8314;
1096.8000;0.1302;-0.8264;
1097.1000;0.1278;-0.8339;
1097.4000;0.1294;-0.8339;
1097.7000;0.1319;-0.8289;
1098.0000;0.1262;-0.8414;
1098.3000;0.1302;-0.8339;
1098.6000;0.1294;-0.8264;
1098.9000;0.1286;-0.8264;
1099.2000;0.1278;-0.8264;
1099.5000;0.1392;-0.7962;
1099.8000;0.1278;-0.8214;
1100.1000;0.1278;-0.8163;
1100.4000;0.1278;-0.8239;
1100.7000;0.1294;-0.8163;
1101.0000;0.1237;-0.8188;
1101.3000;0.1294;-0.8013;
1101.6000;0.1294;-0.8013;
1101.9000;0.1294;-0.8013;
1102.2000;0.1278;-0.8113;
1102.5000;0.1302;-0.8038;
1102.8000;0.1245;-0.8339;
1103.1000;0.1254;-0.8214;
1103.4000;0.1294;-0.8163;
1103.7000;0.1311;-0.8239;
1104.0000;0.1286;-0.8214;
1104.3000;0.1254;-0.8339;
1104.6000;0.1286;-0.8364;
1104.9000;0.1302;-0.8364;
1105.2000;0.1286;-0.8389;
1105.5000;0.1270;-0.8364;
1105.8000;0.1278;-0.8314;
1106.1000;0.1278;-0.8163;
1106.4000;0.1286;-0.8188;
1106.7000;0.1302;-0.8214;
1107.0000;0.1286;-0.8188;
1107.3000;0.1278;-0.8188;
1107.6000;0.1294;-0.8163;
1107.9000;0.1302;-0.8163;
1108.2000;0.1302;-0.8239;
1108.5000;0.1278;-0.8339;
1108.8000;0.1302;-0.8264;
1109.1000;0.1278;-0.8339;
1109.4000;0.1286;-0.8314;
1109.7000;0.1294;-0.8289;
1110.0000;0.1221;-0.8515;
1110.3000;0.1294;-0.8314;
1110.6000;0.1294;-0.8264;
1110.9000;0.1294;-0.8389;
1111.2000;0.1180;-0.8641;
1111.5000;0.1278;-0.8314;
1111.8000;0.1335;-0.8138;
1112.1000;0.1286;-0.8289;
1112.4000;0.1302;-0.8113;
1112.7000;0.1294;-0.8188;
1113.0000;0.1286;-0.8088;
1113.3000;0.1319;-0.8038;
1113.6000;0.1294;-0.8188;
1113.9000;0.1286;-0.8289;
1114.2000;0.1286;-0.8314;
1114.5000;0.1278;-0.8289;
1114.8000;0.1294;-0.8339;
1115.1000;0.1343;-0.8188;
1115.4000;0.1302;-0.8314;
1115.7000;0.1294;-0.8314;
1116.0000;0.1294;-0.8314;
1116.3000;0.1294;-0.8264;
1116.6000;0.1294;-0.8239;
1116.9000;0.1302;-0.8214;
1117.2000;0.1294;-0.8289;
1117.5000;0.1221;-0.8540;
1117.8000;0.1311;-0.8339;
1118.1000;0.1286;-0.8440;
1118.4000;0.1278;-0.8465;
1118.7000;0.1286;-0.8465;
1119.0000;0.1278;-0.8465;
1119.3000;0.1286;-0.8440;
1119.6000;0.1278;-0.8540;
1119.9000;0.1262;-0.8565;
1120.2000;0.1294;-0.8414;
1120.5000;0.1286;-0.8515;
1120.8000;0.1270;-0.8515;
1121.1000;0.1311;-0.8440;
1121.4000;0.1294;-0.8389;
1121.7000;0.1294;-0.8314;
1122.0000;0.1302;-0.8314;
1122.3000;0.1270;-0.8339;
1122.6000;0.1302;-0.8163;
1122.9000;0.1311;-0.8088;
1123.2000;0.1294;-0.8113;
1123.5000;0.1294;-0.8113;
1123.8000;0.1327;-0.7987;
1124.1000;0.1343;-0.7962;
1124.4000;0.1286;-0.8264;
1124.7000;0.1294;-0.8214;
1125.0000;0.1335;-0.8188;
1125.3000;0.1294;-0.8314;
1125.6000;0.1302;-0.8339;
1125.9000;0.1278;-0.8339;
1126.2000;0.1302;-0.8214;
1126.5000;0.1294;-0.8264;
1126.8000;0.1319;-0.8314;
1127.1000;0.1278;-0.8389;
1127.4000;0.1286;-0.8389;
1127.7000;0.1270;-0.8364;
1128.0000;0.1302;-0.8214;
1128.3000;0.1294;-0.8364;
1128.6000;0.1278;-0.8364;
1128.9000;0.1286;-0.8339;
1129.2000;0.1245;-0.8414;
1129.5000;0.1286;-0.8465;
1129.8000;0.1286;-0.8490;
1130.1000;0.1286;-0.8565;
1130.4000;0.1286;-0.8590;
1130.7000;0.1254;-0.8540;
1131.0000;0.1286;-0.8490;
1131.3000;0.1294;-0.8515;
1131.6000;0.1302;-0.8440;
1131.9000;0.1262;-0.8314;
1132.2000;0.1270;-0.8289;
1132.5000;0.1286;-0.8188;
1132.8000;0.1278;-0.8113;
1133.1000;0.1245;-0.8188;
1133.4000;0.1286;-0.8113;
1133.7000;0.1286;-0.8038;
1134.0000;0.1286;-0.7962;
1134.3000;0.1294;-0.7912;
1134.6000;0.1294;-0.8013;
1134.9000;0.1278;-0.7987;
1135.2000;0.1302;-0.7987;
1135.5000;0.1294;-0.8038;
1135.8000;0.1286;-0.8088;
1136.1000;0.1302;-0.8138;
1136.4000;0.1319;-0.8088;
1136.7000;0.1286;-0.8163;
1137.0000;0.1254;-0.8239;
1137.3000;0.1311;-0.8163;
1137.6000;0.1302;-0.8314;
1137.9000;0.1286;-0.8440;
1138.2000;0.1286;-0.8364;
1138.5000;0.1302;-0.8264;
1138.8000;0.1270;-0.8239;
1139.1000;0.1302;-0.8188;
1139.4000;0.1294;-0.8264;
1139.7000;0.1311;-0.8239;
1140.0000;0.1294;-0.8239;
1140.3000;0.1286;-0.8289;
1140.6000;0.1286;-0.8314;
1140.9000;0.1351;-0.8088;
1141.2000;0.1294;-0.8188;
1141.5000;0.1343;-0.8038;
1141.8000;0.1278;-0.8163;
1142.1000;0.1286;-0.8113;
1142.4000;0.1262;-0.8214;
1142.7000;0.1278;-0.8264;
1143.0000;0.1302;-0.8264;
1143.3000;0.1294;-0.8314;
1143.6000;0.1270;-0.8440;
1143.9000;0.1311;-0.8289;
1144.2000;0.1294;-0.8314;
1144.5000;0.1286;-0.8314;
1144.8000;0.1278;-0.8264;
1145.1000;0.1302;-0.8364;
1145.4000;0.1302;-0.8440;
1145.7000;0.1286;-0.8314;
1146.0000;0.1262;-0.8389;
1146.3000;0.1270;-0.8339;
1146.6000;0.1294;-0.8364;
1146.9000;0.1294;-0.8289;
1147.2000;0.1384;-0.8013;
1147.5000;0.1319;-0.8214;
1147.8000;0.1294;-0.8214;
1148.1000;0.1302;-0.8214;
1148.4000;0.1213;-0.8314;
1148.7000;0.1294;-0.8264;
1149.0000;0.1294;-0.8364;
1149.3000;0.1335;-0.8163;
1149.6000;0.1294;-0.8414;
1149.9000;0.1254;-0.8490;
1150.2000;0.1270;-0.8389;
1150.5000;0.1335;-0.8239;
1150.8000;0.1294;-0.8364;
1151.1000;0.1278;-0.8339;
1151.4000;0.1302;-0.8239;
1151.7000;0.1311;-0.8188;
1152.0000;0.1319;-0.8013;
1152.3000;0.1311;-0.8063;
1152.6000;0.1294;-0.8138;
1152.9000;0.1311;-0.8214;
1153.2000;0.1270;-0.8239;
1153.5000;0.1294;-0.8188;
1153.8000;0.1327;-0.8138;
1154.1000;0.1278;-0.8214;
1154.4000;0.1302;-0.8264;
1154.7000;0.1302;-0.8214;
1155.0000;0.1335;-0.8138;
1155.3000;0.1294;-0.8364;
1155.6000;0.1254;-0.8515;
1155.9000;0.1286;-0.8389;
1156.2000;0.1294;-0.8364;
1156.5000;0.1294;-0.8364;
1156.8000;0.1311;-0.8314;
1157.1000;0.1278;-0.8339;
1157.4000;0.1294;-0.8264;
1157.7000;0.1221;-0.8490;
1158.0000;0.1294;-0.8414;
1158.3000;0.1302;-0.8364;
1158.6000;0.1237;-0.8490;
1158.9000;0.1311;-0.8314;
1159.2000;0.1286;-0.8314;
1159.5000;0.1302;-0.8289;
1159.8000;0.1294;-0.8364;
1160.1000;0.1302;-0.8289;
1160.4000;0.1294;-0.8289;
1160.7000;0.1278;-0.8314;
1161.0000;0.1278;-0.8339;
1161.3000;0.1286;-0.8314;
1161.6000;0.1286;-0.8339;
1161.9000;0.1294;-0.8339;
1162.2000;0.1327;-0.8339;
1162.5000;0.1319;-0.8214;
1162.8000;0.1278;-0.8339;
1163.1000;0.1294;-0.8364;
1163.4000;0.1286;-0.8414;
1163.7000;0.1302;-0.8339;
1164.0000;0.1286;-0.8339;
1164.3000;0.1140;-0.8666;
1164.6000;0.1286;-0.8339;
1164.9000;0.1327;-0.8264;
1165.2000;0.1286;-0.8465;
1165.5000;0.1376;-0.8113;
1165.8000;0.1286;-0.8339;
1166.1000;0.1359;-0.8138;
1166.4000;0.1294;-0.8289;
1166.7000;0.1302;-0.8264;
1167.0000;0.1319;-0.8264;
1167.3000;0.1311;-0.8214;
1167.6000;0.1286;-0.8289;
1167.9000;0.1270;-0.8264;
1168.2000;0.1286;-0.8188;
1168.5000;0.1294;-0.8113;
1168.8000;0.1270;-0.8188;
1169.1000;0.1294;-0.8214;
1169.4000;0.1245;-0.8289;
1169.7000;0.1286;-0.8138;
1170.0000;0.1262;-0.8163;
1170.3000;0.1278;-0.8138;
1170.6000;0.1286;-0.8138;
1170.9000;0.1262;-0.8214;
1171.2000;0.1327;-0.8113;
1171.5000;0.1294;-0.8214;
1171.8000;0.1302;-0.8188;
1172.1000;0.1278;-0.8138;
1172.4000;0.1270;-0.8264;
1172.7000;0.1278;-0.8188;
1173.0000;0.1294;-0.8138;
1173.3000;0.1302;-0.8113;
1173.6000;0.1327;-0.8138;
1173.9000;0.1278;-0.8188;
1174.2000;0.1286;-0.8138;
1174.5000;0.1294;-0.8163;
1174.8000;0.1302;-0.8088;
1175.1000;0.1302;-0.8088;
1175.4000;0.1286;-0.8163;
1175.7000;0.1286;-0.8188;
1176.0000;0.1270;-0.8289;
1176.3000;0.1294;-0.8314;
1176.6000;0.1294;-0.8339;
1176.9000;0.1270;-0.8339;
1177.2000;0.1286;-0.8264;
1177.5000;0.1286;-0.8239;
1177.8000;0.1294;-0.8163;
1178.1000;0.1294;-0.8163;
1178.4000;0.1286;-0.8163;
1178.7000;0.1294;-0.8188;
1179.0000;0.1294;-0.8163;
1179.3000;0.1270;-0.8214;
1179.6000;0.1286;-0.8214;
1179.9000;0.1294;-0.8188;
1180.2000;0.1221;-0.8490;
1180.5000;0.1302;-0.8314;
1180.8000;0.1294;-0.8364;
1181.1000;0.1270;-0.8389;
1181.4000;0.1286;-0.8364;
1181.7000;0.1286;-0.8389;
1182.0000;0.1335;-0.8264;
1182.3000;0.1311;-0.8264;
1182.6000;0.1294;-0.8364;
1182.9000;0.1319;-0.8314;
1183.2000;0.1302;-0.8264;
1183.5000;0.1359;-0.8063;
1183.8000;0.1302;-0.8239;
1184.1000;0.1302;-0.8163;
1184.4000;0.1311;-0.8239;
1184.7000;0.1302;-0.8264;
1185.0000;0.1302;-0.8264;
1185.3000;0.1221;-0.8465;
1185.6000;0.1286;-0.8239;
1185.9000;0.1278;-0.8214;
1186.2000;0.1359;-0.8063;
1186.5000;0.1384;-0.7987;
1186.8000;0.1302;-0.8264;
1187.1000;0.1302;-0.8214;
1187.4000;0.1294;-0.8314;
1187.7000;0.1327;-0.8314;
1188.0000;0.1286;-0.8314;
1188.3000;0.1351;-0.7987;
1188.6000;0.1302;-0.8113;
1188.9000;0.1302;-0.8188;
1189.2000;0.1319;-0.8214;
1189.5000;0.1311;-0.8264;
1189.8000;0.1245;-0.8440;
1190.1000;0.1343;-0.8138;
1190.4000;0.1294;-0.8339;
1190.7000;0.1311;-0.8239;
1191.0000;0.1302;-0.8239;
1191.3000;0.1286;-0.8188;
1191.6000;0.1270;-0.8113;
1191.9000;0.1294;-0.8013;
1192.2000;0.1294;-0.8038;
1192.5000;0.1311;-0.8013;
1192.8000;0.1294;-0.8013;
1193.1000;0.1270;-0.7987;
1193.4000;0.1294;-0.7912;
1193.7000;0.1311;-0.7837;
1194.0000;0.1400;-0.7711;
1194.3000;0.1294;-0.8063;
1194.6000;0.1278;-0.8188;
1194.9000;0.1302;-0.8138;
1195.2000;0.1294;-0.8113;
1195.5000;0.1278;-0.8214;
1195.8000;0.1311;-0.8138;
1196.1000;0.1302;-0.8163;
1196.4000;0.1262;-0.8264;
1196.7000;0.1302;-0.8214;
1197.0000;0.1270;-0.8364;
1197.3000;0.1286;-0.8289;
1197.6000;0.1278;-0.8289;
1197.9000;0.1245;-0.8414;
1198.2000;0.1286;-0.8339;
1198.5000;0.1294;-0.8364;
1198.8000;0.1294;-0.8389;
1199.1000;0.1278;-0.8414;
1199.4000;0.1302;-0.8239;
1199.7000;0.1286;-0.8239;
1200.0000;0.1221;-0.8465;
1200.3000;0.1278;-0.8364;
1200.6000;0.1270;-0.8364;
1200.9000;0.1294;-0.8239;
1201.2000;0.1237;-0.8289;
1201.5000;0.1302;-0.8163;
1201.8000;0.1278;-0.8214;
1202.1000;0.1286;-0.8113;
1202.4000;0.1286;-0.8113;
1202.7000;0.1302;-0.8113;
1203.0000;0.1319;-0.8113;
1203.3000;0.1262;-0.8314;
1203.6000;0.1286;-0.8289;
1203.9000;0.1278;-0.8364;
1204.2000;0.1278;-0.8440;
1204.5000;0.1278;-0.8414;
1204.8000;0.1327;-0.8214;
1205.1000;0.1302;-0.8314;
1205.4000;0.1278;-0.8314;
1205.7000;0.1270;-0.8364;
1206.0000;0.1245;-0.8389;
1206.3000;0.1278;-0.8264;
1206.6000;0.1302;-0.8188;
1206.9000;0.1319;-0.8163;
1207.2000;0.1294;-0.8188;
1207.5000;0.1270;-0.8314;
1207.8000;0.1311;-0.8264;
1208.1000;0.1311;-0.8289;
1208.4000;0.1245;-0.8440;
1208.7000;0.1278;-0.8289;
1209.0000;0.1286;-0.8214;
1209.3000;0.1384;-0.7937;
1209.6000;0.1302;-0.8113;
1209.9000;0.1278;-0.8113;
1210.2000;0.1278;-0.8113;
1210.5000;0.1294;-0.8113;
1210.8000;0.1278;-0.8214;
1211.1000;0.1270;-0.8264;
1211.4000;0.1294;-0.8163;
1211.7000;0.1294;-0.8113;
1212.0000;0.1311;-0.8038;
1212.3000;0.1359;-0.7862;
1212.6000;0.1302;-0.8088;
1212.9000;0.1286;-0.8163;
1213.2000;0.1278;-0.8113;
1213.5000;0.1368;-0.7862;
1213.8000;0.1286;-0.8214;
1214.1000;0.1278;-0.8264;
1214.4000;0.1302;-0.8239;
1214.7000;0.1278;-0.8163;
1215.0000;0.1327;-0.8013;
1215.3000;0.1294;-0.8088;
1215.6000;0.1302;-0.8188;
1215.9000;0.1270;-0.8339;
1216.2000;0.1294;-0.8289;
1216.5000;0.1294;-0.8264;
1216.8000;0.1278;-0.8214;
1217.1000;0.1294;-0.8138;
1217.4000;0.1286;-0.8113;
1217.7000;0.1278;-0.8113;
1218.0000;0.1294;-0.8138;
1218.3000;0.1311;-0.8088;
1218.6000;0.1311;-0.8038;
1218.9000;0.1294;-0.8013;
1219.2000;0.1319;-0.7987;
1219.5000;0.1302;-0.8038;
1219.8000;0.1286;-0.7962;
1220.1000;0.1278;-0.8038;
1220.4000;0.1278;-0.8088;
1220.7000;0.1286;-0.8063;
1221.0000;0.1286;-0.8038;
1221.3000;0.1262;-0.8138;
1221.6000;0.1278;-0.8088;
1221.9000;0.1254;-0.8113;
1222.2000;0.1278;-0.8038;
1222.5000;0.1294;-0.7987;
1222.8000;0.1302;-0.8013;
1223.1000;0.1294;-0.8138;
1223.4000;0.1302;-0.8113;
1223.7000;0.1294;-0.8063;
1224.0000;0.1294;-0.8163;
1224.3000;0.1278;-0.8264;
1224.6000;0.1278;-0.8239;
1224.9000;0.1294;-0.8188;
1225.2000;0.1302;-0.8163;
1225.5000;0.1302;-0.8188;
1225.8000;0.1311;-0.8113;
1226.1000;0.1286;-0.8088;
1226.4000;0.1270;-0.8163;
1226.7000;0.1294;-0.8264;
1227.0000;0.1294;-0.8239;
1227.3000;0.1278;-0.8264;
1227.6000;0.1302;-0.8188;
1227.9000;0.1286;-0.8138;
1228.2000;0.1262;-0.8214;
1228.5000;0.1294;-0.8088;
1228.8000;0.1245;-0.8314;
1229.1000;0.1278;-0.8264;
1229.4000;0.1294;-0.8188;
1229.7000;0.1311;-0.8188;
1230.0000;0.1237;-0.8289;
1230.3000;0.1270;-0.8264;
1230.6000;0.1302;-0.8188;
1230.9000;0.1294;-0.8239;
1231.2000;0.1286;-0.8264;
1231.5000;0.1302;-0.8289;
1231.8000;0.1319;-0.8239;
1232.1000;0.1278;-0.8314;
1232.4000;0.1294;-0.8339;
1232.7000;0.1392;-0.8113;
1233.0000;0.1286;-0.8465;
1233.3000;0.1302;-0.8465;
1233.6000;0.1319;-0.8339;
1233.9000;0.1294;-0.8389;
1234.2000;0.1294;-0.8214;
1234.5000;0.1262;-0.8314;
1234.8000;0.1302;-0.8188;
1235.1000;0.1278;-0.8264;
1235.4000;0.1270;-0.8239;
1235.7000;0.1278;-0.8264;
1236.0000;0.1311;-0.8214;
1236.3000;0.1286;-0.8264;
1236.6000;0.1286;-0.8239;
1236.9000;0.1286;-0.8188;
1237.2000;0.1294;-0.8264;
1237.5000;0.1294;-0.8264;
1237.8000;0.1286;-0.8339;
1238.1000;0.1278;-0.8264;
1238.4000;0.1302;-0.8163;
1238.7000;0.1294;-0.8214;
1239.0000;0.1294;-0.8289;
1239.3000;0.1294;-0.8314;
1239.6000;0.1302;-0.8289;
1239.9000;0.1294;-0.8188;
1240.2000;0.1286;-0.8239;
1240.5000;0.1286;-0.8163;
1240.8000;0.1294;-0.8138;
1241.1000;0.1319;-0.8013;
1241.4000;0.1286;-0.8138;
1241.7000;0.1286;-0.8113;
1242.0000;0.1262;-0.8239;
1242.3000;0.1286;-0.8188;
1242.6000;0.1302;-0.8138;
1242.9000;0.1286;-0.8188;
1243.2000;0.1311;-0.8163;
1243.5000;0.1311;-0.8163;
1243.8000;0.1278;-0.8289;
1244.1000;0.1294;-0.8214;
1244.4000;0.1302;-0.8163;
1244.7000;0.1294;-0.8088;
1245.0000;0.1286;-0.8088;
1245.3000;0.1311;-0.8088;
1245.6000;0.1262;-0.8138;
1245.9000;0.1254;-0.8239;
1246.2000;0.1294;-0.8138;
1246.5000;0.1270;-0.8163;
1246.8000;0.1302;-0.8113;
1247.1000;0.1302;-0.8163;
1247.4000;0.1278;-0.8239;
1247.7000;0.1245;-0.8364;
1248.0000;0.1327;-0.8138;
1248.3000;0.1294;-0.8138;
1248.6000;0.1286;-0.8088;
1248.9000;0.1286;-0.8063;
1249.2000;0.1278;-0.8088;
1249.5000;0.1302;-0.8063;
1249.8000;0.1294;-0.8088;
1250.1000;0.1278;-0.8138;
1250.4000;0.1302;-0.8063;
1250.7000;0.1286;-0.8188;
1251.0000;0.1327;-0.8113;
1251.3000;0.1294;-0.8088;
1251.6000;0.1327;-0.8063;
1251.9000;0.1278;-0.8239;
1252.2000;0.1294;-0.8188;
1252.5000;0.1278;-0.8264;
1252.8000;0.1302;-0.8188;
1253.1000;0.1286;-0.8188;
1253.4000;0.1302;-0.8188;
1253.7000;0.1302;-0.8113;
1254.0000;0.1302;-0.8188;
1254.3000;0.1319;-0.8138;
1254.6000;0.1311;-0.8088;
1254.9000;0.1302;-0.8138;
1255.2000;0.1294;-0.8188;
1255.5000;0.1286;-0.8088;
1255.8000;0.1294;-0.8113;
1256.1000;0.1376;-0.7912;
1256.4000;0.1294;-0.8163;
1256.7000;0.1294;-0.8138;
1257.0000;0.1302;-0.8138;
1257.3000;0.1302;-0.8163;
1257.6000;0.1351;-0.8013;
1257.9000;0.1294;-0.8038;
1258.2000;0.1294;-0.8013;
1258.5000;0.1262;-0.8113;
1258.8000;0.1286;-0.7987;
1259.1000;0.1294;-0.7962;
1259.4000;0.1270;-0.7987;
1259.7000;0.1262;-0.8013;
1260.0000;0.1286;-0.7937;
1260.3000;0.1254;-0.7962;
1260.6000;0.1262;-0.7787;
1260.9000;0.1286;-0.7787;
1261.2000;0.1294;-0.7736;
1261.5000;0.1270;-0.7812;
1261.8000;0.1376;-0.7686;
1262.1000;0.1270;-0.7937;
1262.4000;0.1286;-0.7837;
1262.7000;0.1229;-0.7962;
1263.0000;0.1254;-0.7912;
1263.3000;0.1286;-0.7862;
1263.6000;0.1384;-0.7586;
1263.9000;0.1351;-0.7736;
1264.2000;0.1294;-0.7812;
1264.5000;0.1294;-0.7812;
1264.8000;0.1254;-0.7912;
1265.1000;0.1278;-0.7937;
1265.4000;0.1286;-0.8013;
1265.7000;0.1286;-0.7987;
1266.0000;0.1286;-0.7937;
1266.3000;0.1286;-0.7937;
1266.6000;0.1270;-0.8063;
1266.9000;0.1294;-0.8063;
1267.2000;0.1270;-0.8163;
1267.5000;0.1392;-0.7787;
1267.8000;0.1302;-0.8038;
1268.1000;0.1278;-0.8138;
1268.4000;0.1286;-0.8163;
1268.7000;0.1286;-0.8113;
1269.0000;0.1278;-0.8063;
1269.3000;0.1278;-0.8013;
1269.6000;0.1294;-0.7962;
1269.9000;0.1262;-0.7937;
1270.2000;0.1302;-0.7862;
1270.5000;0.1286;-0.7862;
1270.8000;0.1278;-0.7937;
1271.1000;0.1319;-0.7862;
1271.4000;0.1302;-0.7912;
1271.7000;0.1319;-0.7962;
1272.0000;0.1278;-0.8113;
1272.3000;0.1294;-0.7912;
1272.6000;0.1319;-0.7962;
1272.9000;0.1294;-0.8138;
1273.2000;0.1311;-0.8138;
1273.5000;0.1302;-0.8188;
1273.8000;0.1302;-0.8239;
1274.1000;0.1319;-0.8214;
1274.4000;0.1311;-0.8163;
1274.7000;0.1368;-0.7912;
1275.0000;0.1319;-0.8038;
1275.3000;0.1294;-0.8188;
1275.6000;0.1278;-0.8214;
1275.9000;0.1302;-0.8188;
1276.2000;0.1302;-0.8214;
1276.5000;0.1286;-0.8289;
1276.8000;0.1294;-0.8414;
1277.1000;0.1335;-0.8364;
1277.4000;0.1278;-0.8490;
1277.7000;0.1302;-0.8440;
1278.0000;0.1319;-0.8364;
1278.3000;0.1311;-0.8339;
1278.6000;0.1278;-0.8339;
1278.9000;0.1327;-0.8239;
1279.2000;0.1294;-0.8188;
1279.5000;0.1294;-0.8214;
1279.8000;0.1319;-0.8289;
1280.1000;0.1286;-0.8414;
1280.4000;0.1237;-0.8540;
1280.7000;0.1327;-0.8214;
1281.0000;0.1286;-0.8239;
1281.3000;0.1400;-0.7787;
1281.6000;0.1302;-0.7962;
1281.9000;0.1254;-0.8113;
1282.2000;0.1286;-0.7912;
1282.5000;0.1270;-0.7987;
1282.8000;0.1319;-0.7937;
1283.1000;0.1311;-0.7987;
1283.4000;0.1302;-0.8113;
1283.7000;0.1335;-0.8063;
1284.0000;0.1286;-0.8113;
1284.3000;0.1302;-0.8038;
1284.6000;0.1311;-0.7987;
1284.9000;0.1278;-0.8088;
1285.2000;0.1294;-0.8138;
1285.5000;0.1286;-0.8138;
1285.8000;0.1286;-0.8063;
1286.1000;0.1294;-0.7937;
1286.4000;0.1294;-0.8088;
1286.7000;0.1302;-0.8088;
1287.0000;0.1311;-0.8163;
1287.3000;0.1302;-0.8138;
1287.6000;0.1286;-0.8214;
1287.9000;0.1254;-0.8289;
1288.2000;0.1302;-0.8088;
1288.5000;0.1294;-0.8138;
1288.8000;0.1278;-0.8188;
1289.1000;0.1294;-0.8113;
1289.4000;0.1302;-0.7962;
1289.7000;0.1294;-0.7962;
1290.0000;0.1302;-0.7962;
1290.3000;0.1286;-0.8063;
1290.6000;0.1278;-0.8163;
1290.9000;0.1270;-0.8138;
1291.2000;0.1294;-0.8113;
1291.5000;0.1294;-0.8038;
1291.8000;0.1294;-0.7987;
1292.1000;0.1311;-0.8063;
1292.4000;0.1286;-0.8113;
1292.7000;0.1302;-0.8013;
1293.0000;0.1294;-0.7987;
1293.3000;0.1262;-0.8113;
1293.6000;0.1286;-0.8038;
1293.9000;0.1302;-0.8038;
1294.2000;0.1302;-0.8088;
1294.5000;0.1278;-0.8113;
1294.8000;0.1278;-0.8088;
1295.1000;0.1302;-0.8013;
1295.4000;0.1278;-0.8088;
1295.7000;0.1286;-0.8013;
1296.0000;0.1262;-0.8088;
1296.3000;0.1294;-0.8113;
1296.6000;0.1278;-0.8214;
1296.9000;0.1302;-0.8088;
1297.2000;0.1294;-0.8063;
1297.5000;0.1294;-0.8063;
1297.8000;0.1294;-0.8063;
1298.1000;0.1416;-0.7812;
1298.4000;0.1302;-0.8088;
1298.7000;0.1286;-0.8163;
1299.0000;0.1286;-0.8163;
1299.3000;0.1294;-0.8138;
1299.6000;0.1245;-0.8239;
1299.9000;0.1294;-0.8138;
1300.2000;0.1327;-0.7987;
1300.5000;0.1311;-0.7987;
1300.8000;0.1278;-0.8113;
1301.1000;0.1286;-0.8088;
1301.4000;0.1351;-0.7937;
1301.7000;0.1327;-0.7962;
1302.0000;0.1286;-0.8038;
1302.3000;0.1278;-0.8113;
1302.6000;0.1286;-0.8138;
1302.9000;0.1408;-0.7761;
1303.2000;0.1343;-0.7912;
1303.5000;0.1156;-0.8490;
1303.8000;0.1294;-0.8163;
1304.1000;0.1270;-0.8138;
1304.4000;0.1278;-0.8113;
1304.7000;0.1302;-0.8063;
1305.0000;0.1294;-0.8038;
1305.3000;0.1262;-0.8063;
1305.6000;0.1286;-0.8088;
1305.9000;0.1286;-0.8088;
1306.2000;0.1286;-0.8063;
1306.5000;0.1278;-0.8063;
1306.8000;0.1311;-0.8013;
1307.1000;0.1294;-0.8063;
1307.4000;0.1278;-0.8063;
1307.7000;0.1278;-0.8138;
1308.0000;0.1286;-0.8138;
1308.3000;0.1286;-0.8188;
1308.6000;0.1302;-0.8088;
1308.9000;0.1294;-0.8063;
1309.2000;0.1278;-0.8138;
1309.5000;0.1294;-0.8138;
1309.8000;0.1278;-0.8188;
1310.1000;0.1294;-0.8113;
1310.4000;0.1278;-0.8063;
1310.7000;0.1294;-0.7987;
1311.0000;0.1294;-0.8063;
1311.3000;0.1302;-0.8113;
1311.6000;0.1286;-0.8188;
1311.9000;0.1294;-0.8188;
1312.2000;0.1286;-0.8289;
1312.5000;0.1278;-0.8239;
1312.8000;0.1270;-0.8188;
1313.1000;0.1286;-0.8113;
1313.4000;0.1302;-0.8088;
1313.7000;0.1286;-0.8013;
1314.0000;0.1294;-0.7987;
1314.3000;0.1302;-0.7962;
1314.6000;0.1302;-0.8038;
1314.9000;0.1286;-0.8138;
1315.2000;0.1278;-0.8188;
1315.5000;0.1294;-0.8214;
1315.8000;0.1311;-0.8163;
1316.1000;0.1319;-0.8038;
1316.4000;0.1294;-0.8088;
1316.7000;0.1311;-0.8088;
1317.0000;0.1294;-0.8038;
1317.3000;0.1319;-0.8088;
1317.6000;0.1278;-0.8113;
1317.9000;0.1286;-0.8088;
1318.2000;0.1302;-0.8063;
1318.5000;0.1286;-0.8138;
1318.8000;0.1294;-0.8088;
1319.1000;0.1270;-0.7987;
1319.4000;0.1286;-0.7937;
1319.7000;0.1278;-0.7937;
1320.0000;0.1286;-0.7837;
1320.3000;0.1302;-0.7912;
1320.6000;0.1294;-0.7937;
1320.9000;0.1302;-0.7862;
1321.2000;0.1286;-0.7937;
1321.5000;0.1286;-0.7962;
1321.8000;0.1278;-0.8013;
1322.1000;0.1294;-0.8038;
1322.4000;0.1278;-0.8038;
1322.7000;0.1278;-0.8013;
1323.0000;0.1278;-0.8088;
1323.3000;0.1294;-0.8038;
1323.6000;0.1294;-0.8063;
1323.9000;0.1311;-0.8013;
1324.2000;0.1262;-0.8138;
1324.5000;0.1270;-0.8063;
1324.8000;0.1327;-0.7987;
1325.1000;0.1311;-0.7987;
1325.4000;0.1302;-0.8088;
1325.7000;0.1408;-0.7812;
1326.0000;0.1319;-0.8113;
1326.3000;0.1254;-0.8239;
1326.6000;0.1302;-0.8063;
1326.9000;0.1294;-0.8113;
1327.2000;0.1311;-0.7937;
1327.5000;0.1262;-0.8063;
1327.8000;0.1294;-0.8038;
1328.1000;0.1302;-0.7937;
1328.4000;0.1311;-0.7837;
1328.7000;0.1286;-0.7787;
1329.0000;0.1262;-0.7937;
1329.3000;0.1294;-0.7887;
1329.6000;0.1237;-0.8038;
1329.9000;0.1278;-0.7912;
1330.2000;0.1294;-0.7837;
1330.5000;0.1278;-0.7912;
1330.8000;0.1270;-0.7887;
1331.1000;0.1262;-0.7887;
1331.4000;0.1270;-0.7937;
1331.7000;0.1262;-0.7937;
1332.0000;0.1311;-0.7912;
1332.3000;0.1286;-0.8013;
1332.6000;0.1294;-0.8038;
1332.9000;0.1262;-0.8088;
1333.2000;0.1311;-0.7962;
1333.5000;0.1278;-0.8063;
1333.8000;0.1270;-0.8113;
1334.1000;0.1286;-0.8113;
1334.4000;0.1311;-0.8063;
1334.7000;0.1286;-0.8188;
1335.0000;0.1311;-0.8188;
1335.3000;0.1286;-0.8264;
1335.6000;0.1286;-0.8239;
1335.9000;0.1294;-0.8214;
1336.2000;0.1286;-0.8188;
1336.5000;0.1294;-0.8188;
1336.8000;0.1294;-0.8163;
1337.1000;0.1286;-0.8163;
1337.4000;0.1311;-0.8113;
1337.7000;0.1311;-0.7987;
1338.0000;0.1188;-0.8264;
1338.3000;0.1294;-0.8038;
1338.6000;0.1294;-0.8088;
1338.9000;0.1294;-0.8063;
1339.2000;0.1294;-0.8113;
1339.5000;0.1302;-0.8163;
1339.8000;0.1327;-0.8063;
1340.1000;0.1294;-0.8138;
1340.4000;0.1294;-0.8138;
1340.7000;0.1278;-0.8138;
1341.0000;0.1294;-0.8113;
1341.3000;0.1351;-0.8063;
1341.6000;0.1254;-0.8314;
1341.9000;0.1270;-0.8339;
1342.2000;0.1286;-0.8339;
1342.5000;0.1302;-0.8364;
1342.8000;0.1286;-0.8364;
1343.1000;0.1294;-0.8214;
1343.4000;0.1286;-0.8163;
1343.7000;0.1294;-0.8163;
1344.0000;0.1302;-0.8188;
1344.3000;0.1311;-0.8188;
1344.6000;0.1294;-0.8188;
1344.9000;0.1302;-0.8163;
1345.2000;0.1294;-0.8088;
1345.5000;0.1302;-0.8138;
1345.8000;0.1286;-0.8188;
1346.1000;0.1351;-0.8063;
1346.4000;0.1302;-0.8214;
1346.7000;0.1270;-0.8314;
1347.0000;0.1270;-0.8264;
1347.3000;0.1286;-0.8214;
1347.6000;0.1294;-0.8188;
1347.9000;0.1302;-0.8163;
1348.2000;0.1294;-0.8214;
1348.5000;0.1327;-0.8188;
1348.8000;0.1392;-0.8038;
1349.1000;0.1286;-0.8239;
1349.4000;0.1286;-0.8339;
1349.7000;0.1254;-0.8440;
1350.0000;0.1302;-0.8339;
1350.3000;0.1311;-0.8364;
1350.6000;0.1294;-0.8389;
1350.9000;0.1286;-0.8339;
1351.2000;0.1294;-0.8314;
1351.5000;0.1327;-0.8088;
1351.8000;0.1311;-0.8138;
1352.1000;0.1286;-0.8188;
1352.4000;0.1294;-0.8163;
1352.7000;0.1286;-0.8214;
1353.0000;0.1254;-0.8188;
1353.3000;0.1278;-0.8088;
1353.6000;0.1262;-0.8163;
1353.9000;0.1213;-0.8289;
1354.2000;0.1286;-0.8163;
1354.5000;0.1286;-0.8188;
1354.8000;0.1278;-0.8214;
1355.1000;0.1278;-0.8188;
1355.4000;0.1302;-0.8163;
1355.7000;0.1294;-0.8163;
1356.0000;0.1286;-0.8163;
1356.3000;0.1270;-0.8188;
1356.6000;0.1302;-0.8113;
1356.9000;0.1254;-0.8214;
1357.2000;0.1270;-0.8239;
1357.5000;0.1294;-0.8239;
1357.8000;0.1278;-0.8239;
1358.1000;0.1302;-0.8138;
1358.4000;0.1286;-0.8188;
1358.7000;0.1302;-0.8088;
1359.0000;0.1237;-0.8289;
1359.3000;0.1294;-0.8138;
1359.6000;0.1302;-0.8088;
1359.9000;0.1286;-0.8163;
1360.2000;0.1262;-0.8239;
1360.5000;0.1302;-0.8163;
1360.8000;0.1270;-0.8188;
1361.1000;0.1302;-0.8163;
1361.4000;0.1319;-0.8038;
1361.7000;0.1294;-0.8013;
1362.0000;0.1270;-0.8088;
1362.3000;0.1270;-0.8013;
1362.6000;0.1278;-0.7962;
1362.9000;0.1343;-0.7711;
1363.2000;0.1278;-0.7962;
1363.5000;0.1286;-0.8013;
1363.8000;0.1286;-0.8038;
1364.1000;0.1278;-0.7937;
1364.4000;0.1335;-0.7887;
1364.7000;0.1302;-0.7962;
1365.0000;0.1286;-0.7912;
1365.3000;0.1270;-0.7887;
1365.6000;0.1286;-0.7761;
1365.9000;0.1286;-0.7787;
1366.2000;0.1286;-0.7812;
1366.5000;0.1294;-0.7912;
1366.8000;0.1319;-0.7812;
1367.1000;0.1294;-0.7761;
1367.4000;0.1286;-0.7887;
1367.7000;0.1278;-0.7987;
1368.0000;0.1294;-0.7912;
1368.3000;0.1262;-0.8013;
1368.6000;0.1294;-0.8038;
1368.9000;0.1278;-0.7987;
1369.2000;0.1311;-0.7987;
1369.5000;0.1302;-0.8038;
1369.8000;0.1294;-0.8063;
1370.1000;0.1270;-0.8138;
1370.4000;0.1302;-0.8013;
1370.7000;0.1286;-0.7962;
1371.0000;0.1278;-0.8013;
1371.3000;0.1311;-0.7962;
1371.6000;0.1311;-0.7887;
1371.9000;0.1343;-0.7711;
1372.2000;0.1286;-0.7887;
1372.5000;0.1302;-0.7962;
1372.8000;0.1213;-0.8188;
1373.1000;0.1294;-0.7912;
1373.4000;0.1335;-0.7761;
1373.7000;0.1262;-0.7962;
1374.0000;0.1327;-0.7812;
1374.3000;0.1262;-0.8013;
1374.6000;0.1302;-0.7962;
1374.9000;0.1294;-0.7962;
1375.2000;0.1270;-0.8063;
1375.5000;0.1416;-0.7711;
1375.8000;0.1286;-0.7962;
1376.1000;0.1286;-0.7987;
1376.4000;0.1262;-0.8138;
1376.7000;0.1302;-0.8113;
1377.0000;0.1278;-0.8214;
1377.3000;0.1278;-0.8188;
1377.6000;0.1294;-0.8188;
1377.9000;0.1221;-0.8289;
1378.2000;0.1270;-0.8138;
1378.5000;0.1286;-0.8214;
1378.8000;0.1286;-0.8163;
1379.1000;0.1286;-0.8239;
1379.4000;0.1294;-0.8163;
1379.7000;0.1400;-0.7862;
1380.0000;0.1311;-0.8063;
1380.3000;0.1302;-0.8063;
1380.6000;0.1335;-0.7862;
1380.9000;0.1319;-0.7987;
1381.2000;0.1319;-0.7987;
1381.5000;0.1286;-0.8063;
1381.8000;0.1294;-0.8088;
1382.1000;0.1302;-0.8063;
1382.4000;0.1286;-0.8138;
1382.7000;0.1270;-0.8264;
1383.0000;0.1302;-0.8163;
1383.3000;0.1270;-0.8264;
1383.6000;0.1311;-0.8214;
1383.9000;0.1278;-0.8414;
1384.2000;0.1270;-0.8465;
1384.5000;0.1254;-0.8515;
1384.8000;0.1294;-0.8314;
1385.1000;0.1270;-0.8314;
1385.4000;0.1286;-0.8339;
1385.7000;0.1278;-0.8289;
1386.0000;0.1294;-0.8239;
1386.3000;0.1278;-0.8289;
1386.6000;0.1335;-0.8138;
1386.9000;0.1294;-0.8188;
1387.2000;0.1302;-0.8163;
1387.5000;0.1294;-0.8214;
1387.8000;0.1278;-0.8289;
1388.1000;0.1270;-0.8214;
1388.4000;0.1311;-0.8214;
1388.7000;0.1286;-0.8289;
1389.0000;0.1286;-0.8465;
1389.3000;0.1327;-0.8289;
1389.6000;0.1311;-0.8289;
1389.9000;0.1302;-0.8188;
1390.2000;0.1319;-0.8138;
1390.5000;0.1302;-0.8163;
1390.8000;0.1294;-0.8239;
1391.1000;0.1270;-0.8188;
1391.4000;0.1294;-0.8088;
1391.7000;0.1311;-0.8063;
1392.0000;0.1294;-0.8113;
1392.3000;0.1270;-0.8214;
1392.6000;0.1294;-0.8163;
1392.9000;0.1278;-0.8138;
1393.2000;0.1302;-0.8138;
1393.5000;0.1294;-0.8063;
1393.8000;0.1302;-0.8013;
1394.1000;0.1302;-0.8063;
1394.4000;0.1294;-0.8113;
1394.7000;0.1319;-0.8013;
1395.0000;0.1302;-0.8038;
1395.3000;0.1286;-0.8163;
1395.6000;0.1294;-0.8163;
1395.9000;0.1294;-0.8113;
1396.2000;0.1286;-0.8088;
1396.5000;0.1278;-0.8113;
1396.8000;0.1278;-0.8038;
1397.1000;0.1278;-0.8038;
1397.4000;0.1311;-0.8063;
1397.7000;0.1359;-0.7862;
1398.0000;0.1286;-0.7962;
1398.3000;0.1311;-0.7987;
1398.6000;0.1302;-0.7962;
1398.9000;0.1278;-0.7912;
1399.2000;0.1286;-0.7812;
1399.5000;0.1302;-0.7736;
1399.8000;0.1319;-0.7736;
