time/ms;Fluo/V;P700 deltaI/I x10³;
-199.8000;0.1359;-0.6405;
-199.5000;0.1368;-0.6305;
-199.2000;0.1359;-0.6355;
-198.9000;0.1335;-0.6455;
-198.6000;0.1335;-0.6405;
-198.3000;0.1351;-0.6330;
-198.0000;0.1359;-0.6330;
-197.7000;0.1359;-0.6355;
-197.4000;0.1351;-0.6330;
-197.1000;0.1343;-0.6380;
-196.8000;0.1368;-0.6380;
-196.5000;0.1343;-0.6480;
-196.2000;0.1335;-0.6531;
-195.9000;0.1368;-0.6581;
-195.6000;0.1335;-0.6631;
-195.3000;0.1319;-0.6706;
-195.0000;0.1359;-0.6606;
-194.7000;0.1335;-0.6531;
-194.4000;0.1400;-0.6430;
-194.1000;0.1359;-0.6430;
-193.8000;0.1368;-0.6455;
-193.5000;0.1416;-0.6380;
-193.2000;0.1335;-0.6606;
-192.9000;0.1441;-0.6355;
-192.6000;0.1351;-0.6506;
-192.3000;0.1384;-0.6480;
-192.0000;0.1368;-0.6480;
-191.7000;0.1302;-0.6656;
-191.4000;0.1400;-0.6430;
-191.1000;0.1376;-0.6506;
-190.8000;0.1498;-0.6154;
-190.5000;0.1384;-0.6455;
-190.2000;0.1408;-0.6531;
-189.9000;0.1343;-0.6581;
-189.6000;0.1327;-0.6581;
-189.3000;0.1327;-0.6556;
-189.0000;0.1368;-0.6480;
-188.7000;0.1343;-0.6531;
-188.4000;0.1408;-0.6405;
-188.1000;0.1408;-0.6556;
-187.8000;0.1368;-0.6631;
-187.5000;0.1368;-0.6631;
-187.2000;0.1400;-0.6556;
-186.9000;0.1359;-0.6656;
-186.6000;0.1376;-0.6681;
-186.3000;0.1270;-0.6882;
-186.0000;0.1311;-0.6782;
-185.7000;0.1311;-0.6681;
-185.4000;0.1400;-0.6430;
-185.1000;0.1368;-0.6631;
-184.8000;0.1335;-0.6681;
-184.5000;0.1351;-0.6656;
-184.2000;0.1327;-0.6656;
-183.9000;0.1384;-0.6606;
-183.6000;0.1368;-0.6681;
-183.3000;0.1327;-0.6706;
-183.0000;0.1368;-0.6656;
-182.7000;0.1392;-0.6531;
-182.4000;0.1376;-0.6531;
-182.1000;0.1400;-0.6480;
-181.8000;0.1392;-0.6480;
-181.5000;0.1400;-0.6455;
-181.2000;0.1359;-0.6506;
-180.9000;0.1368;-0.6430;
-180.6000;0.1408;-0.6330;
-180.3000;0.1343;-0.6531;
-180.0000;0.1376;-0.6405;
-179.7000;0.1302;-0.6681;
-179.4000;0.1392;-0.6405;
-179.1000;0.1449;-0.6355;
-178.8000;0.1359;-0.6581;
-178.5000;0.1351;-0.6506;
-178.2000;0.1351;-0.6556;
-177.9000;0.1327;-0.6581;
-177.6000;0.1335;-0.6581;
-177.3000;0.1343;-0.6480;
-177.0000;0.1351;-0.6355;
-176.7000;0.1351;-0.6355;
-176.4000;0.1368;-0.6355;
-176.1000;0.1384;-0.6380;
-175.8000;0.1327;-0.6606;
-175.5000;0.1351;-0.6606;
-175.2000;0.1359;-0.6556;
-174.9000;0.1359;-0.6531;
-174.6000;0.1384;-0.6480;
-174.3000;0.1376;-0.6405;
-174.0000;0.1327;-0.6531;
-173.7000;0.1359;-0.6506;
-173.4000;0.1376;-0.6531;
-173.1000;0.1376;-0.6581;
-172.8000;0.1384;-0.6506;
-172.5000;0.1376;-0.6556;
-172.2000;0.1359;-0.6631;
-171.9000;0.1368;-0.6631;
-171.6000;0.1351;-0.6631;
-171.3000;0.1351;-0.6631;
-171.0000;0.1319;-0.6706;
-170.7000;0.1359;-0.6681;
-170.4000;0.1368;-0.6631;
-170.1000;0.1335;-0.6606;
-169.8000;0.1351;-0.6531;
-169.5000;0.1368;-0.6480;
-169.2000;0.1351;-0.6581;
-168.9000;0.1368;-0.6455;
-168.6000;0.1368;-0.6480;
-168.3000;0.1359;-0.6606;
-168.0000;0.1359;-0.6606;
-167.7000;0.1327;-0.6732;
-167.4000;0.1368;-0.6656;
-167.1000;0.1359;-0.6656;
-166.8000;0.1351;-0.6706;
-166.5000;0.1368;-0.6631;
-166.2000;0.1359;-0.6656;
-165.9000;0.1384;-0.6581;
-165.6000;0.1359;-0.6631;
-165.3000;0.1376;-0.6606;
-165.0000;0.1384;-0.6581;
-164.7000;0.1351;-0.6606;
-164.4000;0.1351;-0.6681;
-164.1000;0.1368;-0.6732;
-163.8000;0.1376;-0.6681;
-163.5000;0.1359;-0.6757;
-163.2000;0.1368;-0.6706;
-162.9000;0.1343;-0.6757;
-162.6000;0.1351;-0.6782;
-162.3000;0.1359;-0.6857;
-162.0000;0.1351;-0.6832;
-161.7000;0.1359;-0.6807;
-161.4000;0.1376;-0.6606;
-161.1000;0.1368;-0.6656;
-160.8000;0.1311;-0.6706;
-160.5000;0.1376;-0.6556;
-160.2000;0.1351;-0.6531;
-159.9000;0.1376;-0.6506;
-159.6000;0.1376;-0.6480;
-159.3000;0.1343;-0.6556;
-159.0000;0.1384;-0.6556;
-158.7000;0.1384;-0.6581;
-158.4000;0.1368;-0.6631;
-158.1000;0.1376;-0.6606;
-157.8000;0.1368;-0.6506;
-157.5000;0.1368;-0.6581;
-157.2000;0.1376;-0.6631;
-156.9000;0.1392;-0.6681;
-156.6000;0.1392;-0.6656;
-156.3000;0.1376;-0.6656;
-156.0000;0.1457;-0.6480;
-155.7000;0.1376;-0.6757;
-155.4000;0.1351;-0.6782;
-155.1000;0.1376;-0.6757;
-154.8000;0.1384;-0.6732;
-154.5000;0.1384;-0.6732;
-154.2000;0.1368;-0.6832;
-153.9000;0.1368;-0.6857;
-153.6000;0.1392;-0.6706;
-153.3000;0.1368;-0.6706;
-153.0000;0.1359;-0.6807;
-152.7000;0.1376;-0.6757;
-152.4000;0.1376;-0.6656;
-152.1000;0.1376;-0.6631;
-151.8000;0.1359;-0.6732;
-151.5000;0.1376;-0.6782;
-151.2000;0.1376;-0.6757;
-150.9000;0.1376;-0.6732;
-150.6000;0.1376;-0.6732;
-150.3000;0.1384;-0.6681;
-150.0000;0.1392;-0.6606;
-149.7000;0.1384;-0.6581;
-149.4000;0.1376;-0.6706;
-149.1000;0.1335;-0.6732;
-148.8000;0.1408;-0.6556;
-148.5000;0.1359;-0.6706;
-148.2000;0.1376;-0.6631;
-147.9000;0.1359;-0.6581;
-147.6000;0.1368;-0.6581;
-147.3000;0.1351;-0.6581;
-147.0000;0.1359;-0.6506;
-146.7000;0.1359;-0.6581;
-146.4000;0.1376;-0.6531;
-146.1000;0.1368;-0.6455;
-145.8000;0.1368;-0.6430;
-145.5000;0.1384;-0.6506;
-145.2000;0.1376;-0.6531;
-144.9000;0.1400;-0.6506;
-144.6000;0.1376;-0.6556;
-144.3000;0.1368;-0.6656;
-144.0000;0.1359;-0.6706;
-143.7000;0.1351;-0.6681;
-143.4000;0.1376;-0.6656;
-143.1000;0.1368;-0.6656;
-142.8000;0.1368;-0.6606;
-142.5000;0.1368;-0.6706;
-142.2000;0.1376;-0.6782;
-141.9000;0.1376;-0.6782;
-141.6000;0.1359;-0.6782;
-141.3000;0.1376;-0.6606;
-141.0000;0.1359;-0.6556;
-140.7000;0.1376;-0.6506;
-140.4000;0.1351;-0.6556;
-140.1000;0.1368;-0.6455;
-139.8000;0.1384;-0.6480;
-139.5000;0.1368;-0.6556;
-139.2000;0.1384;-0.6556;
-138.9000;0.1368;-0.6631;
-138.6000;0.1490;-0.6355;
-138.3000;0.1392;-0.6681;
-138.0000;0.1368;-0.6732;
-137.7000;0.1368;-0.6757;
-137.4000;0.1270;-0.7033;
-137.1000;0.1376;-0.6782;
-136.8000;0.1359;-0.6757;
-136.5000;0.1392;-0.6631;
-136.2000;0.1359;-0.6782;
-135.9000;0.1376;-0.6732;
-135.6000;0.1351;-0.6732;
-135.3000;0.1376;-0.6581;
-135.0000;0.1368;-0.6556;
-134.7000;0.1376;-0.6581;
-134.4000;0.1359;-0.6556;
-134.1000;0.1359;-0.6506;
-133.8000;0.1359;-0.6531;
-133.5000;0.1376;-0.6480;
-133.2000;0.1359;-0.6531;
-132.9000;0.1359;-0.6506;
-132.6000;0.1351;-0.6380;
-132.3000;0.1359;-0.6405;
-132.0000;0.1368;-0.6405;
-131.7000;0.1351;-0.6506;
-131.4000;0.1400;-0.6305;
-131.1000;0.1368;-0.6380;
-130.8000;0.1368;-0.6330;
-130.5000;0.1376;-0.6305;
-130.2000;0.1376;-0.6355;
-129.9000;0.1351;-0.6430;
-129.6000;0.1384;-0.6430;
-129.3000;0.1376;-0.6405;
-129.0000;0.1351;-0.6480;
-128.7000;0.1359;-0.6581;
-128.4000;0.1359;-0.6581;
-128.1000;0.1368;-0.6606;
-127.8000;0.1368;-0.6807;
-127.5000;0.1359;-0.6857;
-127.2000;0.1368;-0.6782;
-126.9000;0.1359;-0.6832;
-126.6000;0.1384;-0.6757;
-126.3000;0.1359;-0.6681;
-126.0000;0.1368;-0.6656;
-125.7000;0.1376;-0.6681;
-125.4000;0.1368;-0.6681;
-125.1000;0.1368;-0.6732;
-124.8000;0.1351;-0.6681;
-124.5000;0.1359;-0.6506;
-124.2000;0.1376;-0.6455;
-123.9000;0.1376;-0.6455;
-123.6000;0.1384;-0.6380;
-123.3000;0.1359;-0.6405;
-123.0000;0.1368;-0.6405;
-122.7000;0.1368;-0.6506;
-122.4000;0.1465;-0.6279;
-122.1000;0.1368;-0.6506;
-121.8000;0.1359;-0.6430;
-121.5000;0.1368;-0.6380;
-121.2000;0.1351;-0.6430;
-120.9000;0.1359;-0.6355;
-120.6000;0.1368;-0.6305;
-120.3000;0.1368;-0.6330;
-120.0000;0.1368;-0.6355;
-119.7000;0.1359;-0.6430;
-119.4000;0.1392;-0.6254;
-119.1000;0.1376;-0.6330;
-118.8000;0.1359;-0.6330;
-118.5000;0.1376;-0.6330;
-118.2000;0.1376;-0.6305;
-117.9000;0.1416;-0.6305;
-117.6000;0.1400;-0.6430;
-117.3000;0.1351;-0.6531;
-117.0000;0.1376;-0.6455;
-116.7000;0.1368;-0.6581;
-116.4000;0.1376;-0.6581;
-116.1000;0.1351;-0.6606;
-115.8000;0.1359;-0.6606;
-115.5000;0.1416;-0.6455;
-115.2000;0.1359;-0.6506;
-114.9000;0.1368;-0.6556;
-114.6000;0.1335;-0.6656;
-114.3000;0.1368;-0.6606;
-114.0000;0.1376;-0.6556;
-113.7000;0.1384;-0.6606;
-113.4000;0.1392;-0.6656;
-113.1000;0.1392;-0.6581;
-112.8000;0.1376;-0.6506;
-112.5000;0.1359;-0.6455;
-112.2000;0.1368;-0.6506;
-111.9000;0.1294;-0.6581;
-111.6000;0.1392;-0.6355;
-111.3000;0.1359;-0.6430;
-111.0000;0.1368;-0.6506;
-110.7000;0.1368;-0.6405;
-110.4000;0.1368;-0.6355;
-110.1000;0.1376;-0.6330;
-109.8000;0.1376;-0.6254;
-109.5000;0.1376;-0.6380;
-109.2000;0.1368;-0.6380;
-108.9000;0.1368;-0.6430;
-108.6000;0.1384;-0.6430;
-108.3000;0.1368;-0.6405;
-108.0000;0.1384;-0.6405;
-107.7000;0.1351;-0.6581;
-107.4000;0.1327;-0.6631;
-107.1000;0.1359;-0.6430;
-106.8000;0.1368;-0.6430;
-106.5000;0.1465;-0.6179;
-106.2000;0.1351;-0.6430;
-105.9000;0.1359;-0.6380;
-105.6000;0.1343;-0.6405;
-105.3000;0.1384;-0.6305;
-105.0000;0.1359;-0.6405;
-104.7000;0.1368;-0.6506;
-104.4000;0.1368;-0.6455;
-104.1000;0.1368;-0.6405;
-103.8000;0.1351;-0.6506;
-103.5000;0.1376;-0.6480;
-103.2000;0.1359;-0.6531;
-102.9000;0.1359;-0.6531;
-102.6000;0.1359;-0.6556;
-102.3000;0.1376;-0.6581;
-102.0000;0.1351;-0.6681;
-101.7000;0.1368;-0.6656;
-101.4000;0.1384;-0.6706;
-101.1000;0.1376;-0.6706;
-100.8000;0.1359;-0.6757;
-100.5000;0.1368;-0.6681;
-100.2000;0.1384;-0.6606;
-99.9000;0.1376;-0.6581;
-99.6000;0.1319;-0.6706;
-99.3000;0.1359;-0.6606;
-99.0000;0.1384;-0.6606;
-98.7000;0.1384;-0.6681;
-98.4000;0.1368;-0.6606;
-98.1000;0.1368;-0.6656;
-97.8000;0.1368;-0.6656;
-97.5000;0.1400;-0.6606;
-97.2000;0.1359;-0.6606;
-96.9000;0.1400;-0.6455;
-96.6000;0.1506;-0.6154;
-96.3000;0.1368;-0.6506;
-96.0000;0.1368;-0.6506;
-95.7000;0.1384;-0.6480;
-95.4000;0.1376;-0.6380;
-95.1000;0.1384;-0.6330;
-94.8000;0.1368;-0.6279;
-94.5000;0.1416;-0.6204;
-94.2000;0.1368;-0.6355;
-93.9000;0.1368;-0.6305;
-93.6000;0.1473;-0.6053;
-93.3000;0.1384;-0.6229;
-93.0000;0.1368;-0.6254;
-92.7000;0.1368;-0.6305;
-92.4000;0.1376;-0.6380;
-92.1000;0.1376;-0.6455;
-91.8000;0.1384;-0.6430;
-91.5000;0.1359;-0.6480;
-91.2000;0.1384;-0.6506;
-90.9000;0.1368;-0.6606;
-90.6000;0.1368;-0.6606;
-90.3000;0.1400;-0.6606;
-90.0000;0.1376;-0.6531;
-89.7000;0.1368;-0.6480;
-89.4000;0.1359;-0.6380;
-89.1000;0.1368;-0.6355;
-88.8000;0.1368;-0.6355;
-88.5000;0.1335;-0.6531;
-88.2000;0.1384;-0.6380;
-87.9000;0.1408;-0.6355;
-87.6000;0.1376;-0.6405;
-87.3000;0.1351;-0.6531;
-87.0000;0.1343;-0.6606;
-86.7000;0.1384;-0.6480;
-86.4000;0.1376;-0.6581;
-86.1000;0.1319;-0.6681;
-85.8000;0.1408;-0.6531;
-85.5000;0.1351;-0.6656;
-85.2000;0.1368;-0.6681;
-84.9000;0.1376;-0.6681;
-84.6000;0.1384;-0.6631;
-84.3000;0.1368;-0.6631;
-84.0000;0.1343;-0.6706;
-83.7000;0.1376;-0.6656;
-83.4000;0.1359;-0.6681;
-83.1000;0.1343;-0.6732;
-82.8000;0.1359;-0.6681;
-82.5000;0.1384;-0.6631;
-82.2000;0.1376;-0.6656;
-81.9000;0.1368;-0.6681;
-81.6000;0.1359;-0.6706;
-81.3000;0.1368;-0.6581;
-81.0000;0.1359;-0.6631;
-80.7000;0.1368;-0.6581;
-80.4000;0.1368;-0.6606;
-80.1000;0.1376;-0.6531;
-79.8000;0.1359;-0.6656;
-79.5000;0.1351;-0.6606;
-79.2000;0.1368;-0.6656;
-78.9000;0.1368;-0.6681;
-78.6000;0.1376;-0.6656;
-78.3000;0.1376;-0.6656;
-78.0000;0.1368;-0.6656;
-77.7000;0.1368;-0.6681;
-77.4000;0.1351;-0.6782;
-77.1000;0.1368;-0.6757;
-76.8000;0.1368;-0.6606;
-76.5000;0.1376;-0.6581;
-76.2000;0.1368;-0.6656;
-75.9000;0.1359;-0.6656;
-75.6000;0.1359;-0.6757;
-75.3000;0.1359;-0.6706;
-75.0000;0.1376;-0.6732;
-74.7000;0.1376;-0.6706;
-74.4000;0.1351;-0.6732;
-74.1000;0.1368;-0.6631;
-73.8000;0.1368;-0.6531;
-73.5000;0.1384;-0.6506;
-73.2000;0.1368;-0.6506;
-72.9000;0.1433;-0.6254;
-72.6000;0.1359;-0.6455;
-72.3000;0.1359;-0.6480;
-72.0000;0.1425;-0.6330;
-71.7000;0.1368;-0.6531;
-71.4000;0.1351;-0.6631;
-71.1000;0.1368;-0.6656;
-70.8000;0.1343;-0.6581;
-70.5000;0.1351;-0.6581;
-70.2000;0.1359;-0.6556;
-69.9000;0.1351;-0.6455;
-69.6000;0.1376;-0.6380;
-69.3000;0.1368;-0.6455;
-69.0000;0.1368;-0.6506;
-68.7000;0.1319;-0.6681;
-68.4000;0.1425;-0.6380;
-68.1000;0.1376;-0.6506;
-67.8000;0.1311;-0.6631;
-67.5000;0.1327;-0.6531;
-67.2000;0.1368;-0.6380;
-66.9000;0.1416;-0.6405;
-66.6000;0.1441;-0.6305;
-66.3000;0.1359;-0.6506;
-66.0000;0.1376;-0.6355;
-65.7000;0.1343;-0.6506;
-65.4000;0.1368;-0.6480;
-65.1000;0.1408;-0.6506;
-64.8000;0.1400;-0.6330;
-64.5000;0.1384;-0.6279;
-64.2000;0.1392;-0.6355;
-63.9000;0.1384;-0.6380;
-63.6000;0.1376;-0.6455;
-63.3000;0.1376;-0.6531;
-63.0000;0.1368;-0.6506;
-62.7000;0.1351;-0.6581;
-62.4000;0.1441;-0.6330;
-62.1000;0.1368;-0.6455;
-61.8000;0.1400;-0.6305;
-61.5000;0.1359;-0.6430;
-61.2000;0.1359;-0.6380;
-60.9000;0.1359;-0.6480;
-60.6000;0.1351;-0.6506;
-60.3000;0.1359;-0.6556;
-60.0000;0.1351;-0.6581;
-59.7000;0.1376;-0.6556;
-59.4000;0.1351;-0.6606;
-59.1000;0.1368;-0.6606;
-58.8000;0.1335;-0.6857;
-58.5000;0.1351;-0.6782;
-58.2000;0.1359;-0.6907;
-57.9000;0.1319;-0.7058;
-57.6000;0.1359;-0.6907;
-57.3000;0.1392;-0.6732;
-57.0000;0.1359;-0.6782;
-56.7000;0.1359;-0.6732;
-56.4000;0.1286;-0.6983;
-56.1000;0.1359;-0.6757;
-55.8000;0.1311;-0.6907;
-55.5000;0.1384;-0.6757;
-55.2000;0.1416;-0.6732;
-54.9000;0.1376;-0.6757;
-54.6000;0.1384;-0.6757;
-54.3000;0.1416;-0.6757;
-54.0000;0.1376;-0.6757;
-53.7000;0.1368;-0.6857;
-53.4000;0.1327;-0.6983;
-53.1000;0.1384;-0.6807;
-52.8000;0.1368;-0.6832;
-52.5000;0.1368;-0.6832;
-52.2000;0.1335;-0.6907;
-51.9000;0.1359;-0.6857;
-51.6000;0.1433;-0.6556;
-51.3000;0.1359;-0.6782;
-51.0000;0.1351;-0.6857;
-50.7000;0.1351;-0.6807;
-50.4000;0.1384;-0.6807;
-50.1000;0.1368;-0.6857;
-49.8000;0.1368;-0.6757;
-49.5000;0.1368;-0.6732;
-49.2000;0.1376;-0.6757;
-48.9000;0.1327;-0.6782;
-48.6000;0.1359;-0.6631;
-48.3000;0.1327;-0.6631;
-48.0000;0.1376;-0.6556;
-47.7000;0.1359;-0.6506;
-47.4000;0.1351;-0.6506;
-47.1000;0.1343;-0.6556;
-46.8000;0.1368;-0.6506;
-46.5000;0.1368;-0.6480;
-46.2000;0.1384;-0.6430;
-45.9000;0.1351;-0.6531;
-45.6000;0.1368;-0.6480;
-45.3000;0.1384;-0.6405;
-45.0000;0.1351;-0.6581;
-44.7000;0.1392;-0.6455;
-44.4000;0.1368;-0.6480;
-44.1000;0.1376;-0.6430;
-43.8000;0.1359;-0.6380;
-43.5000;0.1359;-0.6531;
-43.2000;0.1376;-0.6531;
-42.9000;0.1376;-0.6581;
-42.6000;0.1376;-0.6581;
-42.3000;0.1368;-0.6606;
-42.0000;0.1359;-0.6556;
-41.7000;0.1359;-0.6430;
-41.4000;0.1392;-0.6480;
-41.1000;0.1408;-0.6506;
-40.8000;0.1351;-0.6631;
-40.5000;0.1335;-0.6531;
-40.2000;0.1359;-0.6455;
-39.9000;0.1351;-0.6506;
-39.6000;0.1376;-0.6455;
-39.3000;0.1359;-0.6430;
-39.0000;0.1416;-0.6305;
-38.7000;0.1384;-0.6405;
-38.4000;0.1392;-0.6330;
-38.1000;0.1368;-0.6380;
-37.8000;0.1368;-0.6430;
-37.5000;0.1335;-0.6606;
-37.2000;0.1368;-0.6581;
-36.9000;0.1359;-0.6531;
-36.6000;0.1376;-0.6506;
-36.3000;0.1343;-0.6480;
-36.0000;0.1368;-0.6531;
-35.7000;0.1376;-0.6506;
-35.4000;0.1335;-0.6581;
-35.1000;0.1376;-0.6581;
-34.8000;0.1359;-0.6606;
-34.5000;0.1376;-0.6581;
-34.2000;0.1368;-0.6581;
-33.9000;0.1368;-0.6556;
-33.6000;0.1351;-0.6606;
-33.3000;0.1351;-0.6656;
-33.0000;0.1359;-0.6556;
-32.7000;0.1376;-0.6531;
-32.4000;0.1359;-0.6581;
-32.1000;0.1368;-0.6581;
-31.8000;0.1384;-0.6480;
-31.5000;0.1384;-0.6430;
-31.2000;0.1425;-0.6480;
-30.9000;0.1368;-0.6581;
-30.6000;0.1376;-0.6606;
-30.3000;0.1359;-0.6531;
-30.0000;0.1392;-0.6455;
-29.7000;0.1368;-0.6531;
-29.4000;0.1270;-0.6832;
-29.1000;0.1384;-0.6455;
-28.8000;0.1359;-0.6506;
-28.5000;0.1319;-0.6681;
-28.2000;0.1351;-0.6606;
-27.9000;0.1368;-0.6581;
-27.6000;0.1376;-0.6706;
-27.3000;0.1376;-0.6782;
-27.0000;0.1351;-0.6732;
-26.7000;0.1359;-0.6581;
-26.4000;0.1376;-0.6631;
-26.1000;0.1376;-0.6581;
-25.8000;0.1368;-0.6606;
-25.5000;0.1351;-0.6681;
-25.2000;0.1384;-0.6681;
-24.9000;0.1376;-0.6706;
-24.6000;0.1368;-0.6782;
-24.3000;0.1351;-0.6732;
-24.0000;0.1368;-0.6606;
-23.7000;0.1376;-0.6556;
-23.4000;0.1425;-0.6405;
-23.1000;0.1408;-0.6556;
-22.8000;0.1359;-0.6631;
-22.5000;0.1433;-0.6480;
-22.2000;0.1384;-0.6631;
-21.9000;0.1376;-0.6656;
-21.6000;0.1359;-0.6606;
-21.3000;0.1343;-0.6581;
-21.0000;0.1335;-0.6706;
-20.7000;0.1359;-0.6606;
-20.4000;0.1408;-0.6506;
-20.1000;0.1384;-0.6480;
-19.8000;0.1368;-0.6581;
-19.5000;0.1359;-0.6681;
-19.2000;0.1343;-0.6732;
-18.9000;0.1376;-0.6681;
-18.6000;0.1368;-0.6656;
-18.3000;0.1400;-0.6656;
-18.0000;0.1359;-0.6732;
-17.7000;0.1457;-0.6380;
-17.4000;0.1384;-0.6531;
-17.1000;0.1384;-0.6606;
-16.8000;0.1359;-0.6656;
-16.5000;0.1384;-0.6556;
-16.2000;0.1376;-0.6656;
-15.9000;0.1368;-0.6681;
-15.6000;0.1376;-0.6656;
-15.3000;0.1465;-0.6430;
-15.0000;0.1376;-0.6631;
-14.7000;0.1384;-0.6656;
-14.4000;0.1359;-0.6706;
-14.1000;0.1376;-0.6681;
-13.8000;0.1408;-0.6656;
-13.5000;0.1359;-0.6857;
-13.2000;0.1376;-0.6732;
-12.9000;0.1359;-0.6757;
-12.6000;0.1368;-0.6782;
-12.3000;0.1359;-0.6807;
-12.0000;0.1425;-0.6606;
-11.7000;0.1359;-0.6782;
-11.4000;0.1368;-0.6757;
-11.1000;0.1359;-0.6782;
-10.8000;0.1359;-0.6807;
-10.5000;0.1351;-0.6807;
-10.2000;0.1343;-0.6706;
-9.9000;0.1376;-0.6631;
-9.6000;0.1376;-0.6531;
-9.3000;0.1319;-0.6656;
-9.0000;0.1368;-0.6556;
-8.7000;0.1368;-0.6556;
-8.4000;0.1368;-0.6531;
-8.1000;0.1351;-0.6531;
-7.8000;0.1400;-0.6380;
-7.5000;0.1368;-0.6531;
-7.2000;0.1359;-0.6556;
-6.9000;0.1343;-0.6606;
-6.6000;0.1319;-0.6681;
-6.3000;0.1376;-0.6480;
-6.0000;0.1368;-0.6506;
-5.7000;0.1327;-0.6631;
-5.4000;0.1335;-0.6656;
-5.1000;0.1384;-0.6480;
-4.8000;0.1392;-0.6405;
-4.5000;0.1368;-0.6480;
-4.2000;0.1368;-0.6455;
-3.9000;0.1368;-0.6506;
-3.6000;0.1351;-0.6681;
-3.3000;0.1368;-0.6606;
-3.0000;0.1368;-0.6581;
-2.7000;0.1351;-0.6581;
-2.4000;0.1376;-0.6531;
-2.1000;0.1343;-0.6606;
-1.8000;0.1351;-0.6531;
-1.5000;0.1343;-0.6531;
-1.2000;0.1351;-0.6506;
-0.9000;0.1351;-0.6531;
-0.6000;0.1376;-0.6581;
-0.3000;0.1416;-0.6556;
0.0000;0.1416;-0.6556;
0.3000;0.1384;-0.6631;
0.6000;0.1368;-0.6430;
0.9000;0.1400;-0.6229;
1.2000;0.1481;-0.5978;
1.5000;0.1416;-0.6003;
1.8000;0.1416;-0.6003;
2.1000;0.1368;-0.6003;
2.4000;0.1416;-0.5852;
2.7000;0.1368;-0.5852;
3.0000;0.1416;-0.5677;
3.3000;0.1400;-0.5702;
3.6000;0.1449;-0.5451;
3.9000;0.1425;-0.5375;
4.2000;0.1392;-0.5300;
4.5000;0.1408;-0.5199;
4.8000;0.1416;-0.5199;
5.1000;0.1416;-0.5300;
5.4000;0.1400;-0.5300;
5.7000;0.1433;-0.5199;
6.0000;0.1408;-0.5225;
6.3000;0.1384;-0.5275;
6.6000;0.1433;-0.5199;
6.9000;0.1441;-0.5124;
7.2000;0.1425;-0.5074;
7.5000;0.1400;-0.5099;
7.8000;0.1425;-0.5049;
8.1000;0.1416;-0.5124;
8.4000;0.1400;-0.5124;
8.7000;0.1449;-0.4998;
9.0000;0.1416;-0.5024;
9.3000;0.1392;-0.4998;
9.6000;0.1359;-0.5049;
9.9000;0.1400;-0.5099;
10.2000;0.1400;-0.5099;
10.5000;0.1408;-0.4998;
10.8000;0.1400;-0.5049;
11.1000;0.1392;-0.5124;
11.4000;0.1416;-0.5174;
11.7000;0.1416;-0.5199;
12.0000;0.1416;-0.5199;
12.3000;0.1408;-0.5199;
12.6000;0.1408;-0.5124;
12.9000;0.1416;-0.5149;
13.2000;0.1408;-0.5149;
13.5000;0.1400;-0.5174;
13.8000;0.1400;-0.5149;
14.1000;0.1408;-0.5174;
14.4000;0.1473;-0.5024;
14.7000;0.1408;-0.5074;
15.0000;0.1408;-0.5099;
15.3000;0.1416;-0.5099;
15.6000;0.1416;-0.5225;
15.9000;0.1408;-0.5275;
16.2000;0.1400;-0.5400;
16.5000;0.1441;-0.5275;
16.8000;0.1425;-0.5275;
17.1000;0.1425;-0.5250;
17.4000;0.1416;-0.5275;
17.7000;0.1433;-0.5199;
18.0000;0.1441;-0.5225;
18.3000;0.1425;-0.5300;
18.6000;0.1408;-0.5250;
18.9000;0.1408;-0.5250;
19.2000;0.1384;-0.5225;
19.5000;0.1392;-0.5325;
19.8000;0.1522;-0.4973;
20.1000;0.1425;-0.5250;
20.4000;0.1351;-0.5476;
20.7000;0.1433;-0.5225;
21.0000;0.1392;-0.5350;
21.3000;0.1481;-0.5199;
21.6000;0.1425;-0.5425;
21.9000;0.1441;-0.5275;
22.2000;0.1441;-0.5300;
22.5000;0.1416;-0.5325;
22.8000;0.1433;-0.5250;
23.1000;0.1351;-0.5400;
23.4000;0.1433;-0.5225;
23.7000;0.1392;-0.5350;
24.0000;0.1392;-0.5451;
24.3000;0.1465;-0.5225;
24.6000;0.1359;-0.5451;
24.9000;0.1433;-0.5300;
25.2000;0.1416;-0.5425;
25.5000;0.1416;-0.5425;
25.8000;0.1400;-0.5325;
26.1000;0.1441;-0.5124;
26.4000;0.1400;-0.5250;
26.7000;0.1416;-0.5225;
27.0000;0.1408;-0.5275;
27.3000;0.1408;-0.5300;
27.6000;0.1465;-0.5124;
27.9000;0.1359;-0.5375;
28.2000;0.1408;-0.5225;
28.5000;0.1376;-0.5225;
28.8000;0.1400;-0.5124;
29.1000;0.1384;-0.5300;
29.4000;0.1400;-0.5275;
29.7000;0.1449;-0.5174;
30.0000;0.1416;-0.5300;
30.3000;0.1408;-0.5225;
30.6000;0.1441;-0.5024;
30.9000;0.1481;-0.4998;
31.2000;0.1425;-0.5174;
31.5000;0.1425;-0.5174;
31.8000;0.1425;-0.5199;
32.1000;0.1425;-0.5149;
32.4000;0.1441;-0.5250;
32.7000;0.1335;-0.5526;
33.0000;0.1416;-0.5300;
33.3000;0.1351;-0.5425;
33.6000;0.1408;-0.5250;
33.9000;0.1416;-0.5225;
34.2000;0.1400;-0.5300;
34.5000;0.1408;-0.5300;
34.8000;0.1416;-0.5199;
35.1000;0.1433;-0.5199;
35.4000;0.1416;-0.5250;
35.7000;0.1416;-0.5124;
36.0000;0.1425;-0.5074;
36.3000;0.1449;-0.5074;
36.6000;0.1416;-0.5124;
36.9000;0.1425;-0.5024;
37.2000;0.1416;-0.5149;
37.5000;0.1408;-0.5124;
37.8000;0.1400;-0.5124;
38.1000;0.1408;-0.5174;
38.4000;0.1425;-0.5099;
38.7000;0.1408;-0.5124;
39.0000;0.1384;-0.5250;
39.3000;0.1392;-0.5300;
39.6000;0.1433;-0.5124;
39.9000;0.1416;-0.5149;
40.2000;0.1400;-0.5174;
40.5000;0.1449;-0.5049;
40.8000;0.1359;-0.5149;
41.1000;0.1425;-0.5049;
41.4000;0.1441;-0.5049;
41.7000;0.1425;-0.5124;
42.0000;0.1408;-0.5149;
42.3000;0.1416;-0.5199;
42.6000;0.1416;-0.5250;
42.9000;0.1400;-0.5350;
43.2000;0.1368;-0.5476;
43.5000;0.1400;-0.5375;
43.8000;0.1408;-0.5325;
44.1000;0.1433;-0.5124;
44.4000;0.1416;-0.5225;
44.7000;0.1416;-0.5275;
45.0000;0.1408;-0.5325;
45.3000;0.1408;-0.5350;
45.6000;0.1384;-0.5425;
45.9000;0.1400;-0.5325;
46.2000;0.1441;-0.5199;
46.5000;0.1449;-0.5225;
46.8000;0.1408;-0.5375;
47.1000;0.1433;-0.5225;
47.4000;0.1408;-0.5149;
47.7000;0.1400;-0.5099;
48.0000;0.1425;-0.5074;
48.3000;0.1416;-0.5024;
48.6000;0.1343;-0.5225;
48.9000;0.1400;-0.5174;
49.2000;0.1400;-0.5199;
49.5000;0.1416;-0.5099;
49.8000;0.1433;-0.5124;
50.1000;0.1392;-0.5174;
50.4000;0.1408;-0.5099;
50.7000;0.1408;-0.5099;
51.0000;0.1416;-0.5024;
51.3000;0.1416;-0.5099;
51.6000;0.1400;-0.5124;
51.9000;0.1416;-0.5149;
52.2000;0.1400;-0.5199;
52.5000;0.1425;-0.5124;
52.8000;0.1425;-0.5149;
53.1000;0.1441;-0.5149;
53.4000;0.1416;-0.5149;
53.7000;0.1425;-0.5049;
54.0000;0.1408;-0.5099;
54.3000;0.1400;-0.5124;
54.6000;0.1392;-0.5199;
54.9000;0.1384;-0.5149;
55.2000;0.1400;-0.4973;
55.5000;0.1425;-0.4923;
55.8000;0.1319;-0.5225;
56.1000;0.1425;-0.4923;
56.4000;0.1449;-0.4873;
56.7000;0.1416;-0.4948;
57.0000;0.1416;-0.4973;
57.3000;0.1416;-0.4973;
57.6000;0.1408;-0.5024;
57.9000;0.1408;-0.5074;
58.2000;0.1408;-0.5124;
58.5000;0.1425;-0.5099;
58.8000;0.1416;-0.5024;
59.1000;0.1400;-0.5149;
59.4000;0.1400;-0.5174;
59.7000;0.1408;-0.5074;
60.0000;0.1376;-0.5074;
60.3000;0.1433;-0.4998;
60.6000;0.1392;-0.5124;
60.9000;0.1425;-0.5149;
61.2000;0.1441;-0.5124;
61.5000;0.1433;-0.5149;
61.8000;0.1416;-0.5250;
62.1000;0.1433;-0.5199;
62.4000;0.1465;-0.5124;
62.7000;0.1351;-0.5375;
63.0000;0.1416;-0.5174;
63.3000;0.1359;-0.5275;
63.6000;0.1433;-0.5099;
63.9000;0.1425;-0.5174;
64.2000;0.1408;-0.5199;
64.5000;0.1425;-0.5074;
64.8000;0.1376;-0.5199;
65.1000;0.1400;-0.5124;
65.4000;0.1433;-0.5074;
65.7000;0.1481;-0.4973;
66.0000;0.1416;-0.5174;
66.3000;0.1408;-0.5250;
66.6000;0.1425;-0.5300;
66.9000;0.1408;-0.5300;
67.2000;0.1392;-0.5250;
67.5000;0.1400;-0.5325;
67.8000;0.1408;-0.5325;
68.1000;0.1416;-0.5275;
68.4000;0.1400;-0.5350;
68.7000;0.1408;-0.5225;
69.0000;0.1408;-0.5174;
69.3000;0.1408;-0.5099;
69.6000;0.1392;-0.5199;
69.9000;0.1376;-0.5300;
70.2000;0.1408;-0.5275;
70.5000;0.1408;-0.5300;
70.8000;0.1408;-0.5300;
71.1000;0.1400;-0.5325;
71.4000;0.1416;-0.5199;
71.7000;0.1425;-0.5225;
72.0000;0.1408;-0.5149;
72.3000;0.1416;-0.5149;
72.6000;0.1416;-0.5199;
72.9000;0.1408;-0.5199;
73.2000;0.1384;-0.5199;
73.5000;0.1408;-0.5149;
73.8000;0.1392;-0.5225;
74.1000;0.1408;-0.5124;
74.4000;0.1376;-0.5250;
74.7000;0.1392;-0.5300;
75.0000;0.1408;-0.5325;
75.3000;0.1392;-0.5325;
75.6000;0.1408;-0.5325;
75.9000;0.1392;-0.5350;
76.2000;0.1416;-0.5250;
76.5000;0.1416;-0.5225;
76.8000;0.1425;-0.5250;
77.1000;0.1408;-0.5325;
77.4000;0.1416;-0.5300;
77.7000;0.1384;-0.5300;
78.0000;0.1433;-0.5250;
78.3000;0.1400;-0.5375;
78.6000;0.1400;-0.5350;
78.9000;0.1416;-0.5275;
79.2000;0.1400;-0.5225;
79.5000;0.1392;-0.5350;
79.8000;0.1400;-0.5199;
80.1000;0.1408;-0.5199;
80.4000;0.1392;-0.5275;
80.7000;0.1400;-0.5325;
81.0000;0.1408;-0.5225;
81.3000;0.1400;-0.5199;
81.6000;0.1416;-0.5250;
81.9000;0.1400;-0.5325;
82.2000;0.1416;-0.5225;
82.5000;0.1400;-0.5300;
82.8000;0.1441;-0.5199;
83.1000;0.1408;-0.5300;
83.4000;0.1457;-0.5325;
83.7000;0.1441;-0.5350;
84.0000;0.1408;-0.5400;
84.3000;0.1441;-0.5325;
84.6000;0.1425;-0.5375;
84.9000;0.1400;-0.5425;
85.2000;0.1416;-0.5425;
85.5000;0.1384;-0.5476;
85.8000;0.1400;-0.5425;
86.1000;0.1425;-0.5325;
86.4000;0.1408;-0.5375;
86.7000;0.1425;-0.5250;
87.0000;0.1416;-0.5199;
87.3000;0.1416;-0.5325;
87.6000;0.1441;-0.5300;
87.9000;0.1425;-0.5350;
88.2000;0.1408;-0.5425;
88.5000;0.1408;-0.5250;
88.8000;0.1400;-0.5275;
89.1000;0.1408;-0.5225;
89.4000;0.1441;-0.5199;
89.7000;0.1416;-0.5225;
90.0000;0.1433;-0.5199;
90.3000;0.1376;-0.5425;
90.6000;0.1408;-0.5350;
90.9000;0.1425;-0.5425;
91.2000;0.1441;-0.5375;
91.5000;0.1441;-0.5275;
91.8000;0.1416;-0.5250;
92.1000;0.1425;-0.5124;
92.4000;0.1416;-0.5099;
92.7000;0.1392;-0.5124;
93.0000;0.1416;-0.5099;
93.3000;0.1416;-0.5024;
93.6000;0.1416;-0.5049;
93.9000;0.1392;-0.5099;
94.2000;0.1408;-0.5074;
94.5000;0.1408;-0.4998;
94.8000;0.1400;-0.5124;
95.1000;0.1400;-0.5300;
95.4000;0.1425;-0.5300;
95.7000;0.1425;-0.5300;
96.0000;0.1392;-0.5325;
96.3000;0.1425;-0.5300;
96.6000;0.1311;-0.5601;
96.9000;0.1408;-0.5350;
97.2000;0.1408;-0.5250;
97.5000;0.1416;-0.5300;
97.8000;0.1408;-0.5350;
98.1000;0.1359;-0.5425;
98.4000;0.1408;-0.5174;
98.7000;0.1416;-0.5074;
99.0000;0.1408;-0.5099;
99.3000;0.1416;-0.4998;
99.6000;0.1343;-0.5225;
99.9000;0.1490;-0.4848;
100.2000;0.1416;-0.5149;
100.5000;0.1416;-0.5024;
100.8000;0.1384;-0.5099;
101.1000;0.1408;-0.5099;
101.4000;0.1408;-0.5074;
101.7000;0.1441;-0.5049;
102.0000;0.1433;-0.5049;
102.3000;0.1449;-0.4948;
102.6000;0.1400;-0.4973;
102.9000;0.1392;-0.5074;
103.2000;0.1441;-0.4948;
103.5000;0.1368;-0.5174;
103.8000;0.1400;-0.5049;
104.1000;0.1400;-0.5099;
104.4000;0.1425;-0.5074;
104.7000;0.1416;-0.5225;
105.0000;0.1400;-0.5250;
105.3000;0.1384;-0.5275;
105.6000;0.1400;-0.5400;
105.9000;0.1425;-0.5425;
106.2000;0.1408;-0.5400;
106.5000;0.1416;-0.5275;
106.8000;0.1416;-0.5225;
107.1000;0.1416;-0.5124;
107.4000;0.1416;-0.5049;
107.7000;0.1416;-0.5024;
108.0000;0.1416;-0.5074;
108.3000;0.1465;-0.4973;
108.6000;0.1408;-0.5149;
108.9000;0.1416;-0.5149;
109.2000;0.1465;-0.5049;
109.5000;0.1416;-0.5225;
109.8000;0.1416;-0.5199;
110.1000;0.1416;-0.5174;
110.4000;0.1400;-0.5174;
110.7000;0.1400;-0.5124;
111.0000;0.1425;-0.5174;
111.3000;0.1343;-0.5400;
111.6000;0.1408;-0.5300;
111.9000;0.1425;-0.5225;
112.2000;0.1449;-0.5199;
112.5000;0.1294;-0.5476;
112.8000;0.1400;-0.5099;
113.1000;0.1408;-0.5074;
113.4000;0.1408;-0.5074;
113.7000;0.1392;-0.5124;
114.0000;0.1359;-0.5199;
114.3000;0.1481;-0.4848;
114.6000;0.1457;-0.4948;
114.9000;0.1425;-0.4973;
115.2000;0.1400;-0.5024;
115.5000;0.1359;-0.5099;
115.8000;0.1400;-0.5074;
116.1000;0.1416;-0.5024;
116.4000;0.1416;-0.5049;
116.7000;0.1433;-0.5149;
117.0000;0.1400;-0.5325;
117.3000;0.1425;-0.5225;
117.6000;0.1465;-0.5149;
117.9000;0.1425;-0.5275;
118.2000;0.1425;-0.5275;
118.5000;0.1425;-0.5099;
118.8000;0.1433;-0.5049;
119.1000;0.1384;-0.5124;
119.4000;0.1425;-0.4898;
119.7000;0.1392;-0.4923;
120.0000;0.1408;-0.4973;
120.3000;0.1408;-0.5024;
120.6000;0.1473;-0.4998;
120.9000;0.1425;-0.5149;
121.2000;0.1408;-0.5149;
121.5000;0.1425;-0.5149;
121.8000;0.1481;-0.4998;
122.1000;0.1408;-0.5199;
122.4000;0.1416;-0.5199;
122.7000;0.1416;-0.5174;
123.0000;0.1400;-0.5174;
123.3000;0.1400;-0.5174;
123.6000;0.1425;-0.5124;
123.9000;0.1376;-0.5225;
124.2000;0.1400;-0.5174;
124.5000;0.1473;-0.5024;
124.8000;0.1416;-0.5199;
125.1000;0.1425;-0.5199;
125.4000;0.1425;-0.5250;
125.7000;0.1408;-0.5325;
126.0000;0.1408;-0.5350;
126.3000;0.1416;-0.5300;
126.6000;0.1392;-0.5300;
126.9000;0.1400;-0.5199;
127.2000;0.1425;-0.5099;
127.5000;0.1441;-0.5174;
127.8000;0.1376;-0.5300;
128.1000;0.1408;-0.5225;
128.4000;0.1416;-0.5124;
128.7000;0.1408;-0.5225;
129.0000;0.1416;-0.5199;
129.3000;0.1408;-0.5174;
129.6000;0.1408;-0.5350;
129.9000;0.1408;-0.5350;
130.2000;0.1416;-0.5325;
130.5000;0.1425;-0.5225;
130.8000;0.1392;-0.5275;
131.1000;0.1425;-0.5124;
131.4000;0.1392;-0.5199;
131.7000;0.1311;-0.5350;
132.0000;0.1400;-0.5149;
132.3000;0.1441;-0.5049;
132.6000;0.1433;-0.5099;
132.9000;0.1400;-0.5099;
133.2000;0.1400;-0.5049;
133.5000;0.1408;-0.4998;
133.8000;0.1392;-0.5074;
134.1000;0.1416;-0.5024;
134.4000;0.1359;-0.5275;
134.7000;0.1425;-0.5124;
135.0000;0.1400;-0.5250;
135.3000;0.1449;-0.5149;
135.6000;0.1311;-0.5576;
135.9000;0.1400;-0.5375;
136.2000;0.1408;-0.5375;
136.5000;0.1400;-0.5425;
136.8000;0.1416;-0.5325;
137.1000;0.1416;-0.5350;
137.4000;0.1400;-0.5375;
137.7000;0.1416;-0.5275;
138.0000;0.1408;-0.5300;
138.3000;0.1433;-0.5149;
138.6000;0.1416;-0.5149;
138.9000;0.1400;-0.5275;
139.2000;0.1449;-0.5275;
139.5000;0.1408;-0.5451;
139.8000;0.1433;-0.5425;
140.1000;0.1408;-0.5476;
140.4000;0.1416;-0.5400;
140.7000;0.1408;-0.5425;
141.0000;0.1392;-0.5451;
141.3000;0.1416;-0.5501;
141.6000;0.1416;-0.5425;
141.9000;0.1400;-0.5526;
142.2000;0.1392;-0.5476;
142.5000;0.1392;-0.5501;
142.8000;0.1408;-0.5451;
143.1000;0.1433;-0.5476;
143.4000;0.1449;-0.5350;
143.7000;0.1433;-0.5325;
144.0000;0.1408;-0.5350;
144.3000;0.1416;-0.5350;
144.6000;0.1416;-0.5350;
144.9000;0.1416;-0.5400;
145.2000;0.1498;-0.5174;
145.5000;0.1425;-0.5325;
145.8000;0.1384;-0.5375;
146.1000;0.1416;-0.5250;
146.4000;0.1425;-0.5350;
146.7000;0.1400;-0.5400;
147.0000;0.1416;-0.5425;
147.3000;0.1400;-0.5451;
147.6000;0.1433;-0.5425;
147.9000;0.1416;-0.5501;
148.2000;0.1425;-0.5476;
148.5000;0.1408;-0.5526;
148.8000;0.1416;-0.5501;
149.1000;0.1425;-0.5425;
149.4000;0.1416;-0.5425;
149.7000;0.1408;-0.5400;
150.0000;0.1408;-0.5375;
150.3000;0.1400;-0.5400;
150.6000;0.1294;-0.5677;
150.9000;0.1400;-0.5476;
151.2000;0.1408;-0.5425;
151.5000;0.1457;-0.5325;
151.8000;0.1433;-0.5400;
152.1000;0.1286;-0.5827;
152.4000;0.1408;-0.5476;
152.7000;0.1400;-0.5526;
153.0000;0.1400;-0.5526;
153.3000;0.1408;-0.5501;
153.6000;0.1416;-0.5425;
153.9000;0.1408;-0.5400;
154.2000;0.1392;-0.5350;
154.5000;0.1400;-0.5275;
154.8000;0.1408;-0.5225;
155.1000;0.1416;-0.5300;
155.4000;0.1400;-0.5300;
155.7000;0.1359;-0.5425;
156.0000;0.1400;-0.5350;
156.3000;0.1433;-0.5375;
156.6000;0.1368;-0.5526;
156.9000;0.1408;-0.5400;
157.2000;0.1425;-0.5275;
157.5000;0.1408;-0.5400;
157.8000;0.1465;-0.5250;
158.1000;0.1416;-0.5300;
158.4000;0.1522;-0.4973;
158.7000;0.1408;-0.5350;
159.0000;0.1408;-0.5375;
159.3000;0.1359;-0.5576;
159.6000;0.1400;-0.5476;
159.9000;0.1384;-0.5400;
160.2000;0.1425;-0.5325;
160.5000;0.1449;-0.5300;
160.8000;0.1408;-0.5375;
161.1000;0.1416;-0.5275;
161.4000;0.1408;-0.5300;
161.7000;0.1416;-0.5225;
162.0000;0.1376;-0.5275;
162.3000;0.1416;-0.5300;
162.6000;0.1400;-0.5275;
162.9000;0.1416;-0.5199;
163.2000;0.1416;-0.5225;
163.5000;0.1416;-0.5225;
163.8000;0.1425;-0.5250;
164.1000;0.1433;-0.5199;
164.4000;0.1384;-0.5350;
164.7000;0.1392;-0.5275;
165.0000;0.1400;-0.5375;
165.3000;0.1433;-0.5275;
165.6000;0.1408;-0.5199;
165.9000;0.1425;-0.5275;
166.2000;0.1400;-0.5425;
166.5000;0.1433;-0.5400;
166.8000;0.1433;-0.5325;
167.1000;0.1457;-0.5199;
167.4000;0.1408;-0.5350;
167.7000;0.1425;-0.5275;
168.0000;0.1408;-0.5350;
168.3000;0.1433;-0.5350;
168.6000;0.1416;-0.5325;
168.9000;0.1392;-0.5400;
169.2000;0.1376;-0.5375;
169.5000;0.1392;-0.5400;
169.8000;0.1368;-0.5501;
170.1000;0.1433;-0.5350;
170.4000;0.1400;-0.5325;
170.7000;0.1449;-0.5225;
171.0000;0.1441;-0.5300;
171.3000;0.1416;-0.5350;
171.6000;0.1416;-0.5300;
171.9000;0.1408;-0.5300;
172.2000;0.1408;-0.5300;
172.5000;0.1457;-0.5225;
172.8000;0.1400;-0.5350;
173.1000;0.1433;-0.5275;
173.4000;0.1416;-0.5275;
173.7000;0.1465;-0.5099;
174.0000;0.1425;-0.5275;
174.3000;0.1400;-0.5275;
174.6000;0.1384;-0.5300;
174.9000;0.1408;-0.5250;
175.2000;0.1376;-0.5325;
175.5000;0.1465;-0.5124;
175.8000;0.1416;-0.5325;
176.1000;0.1416;-0.5375;
176.4000;0.1400;-0.5476;
176.7000;0.1408;-0.5400;
177.0000;0.1416;-0.5400;
177.3000;0.1416;-0.5400;
177.6000;0.1376;-0.5551;
177.9000;0.1425;-0.5425;
178.2000;0.1408;-0.5501;
178.5000;0.1408;-0.5526;
178.8000;0.1376;-0.5601;
179.1000;0.1376;-0.5551;
179.4000;0.1400;-0.5501;
179.7000;0.1408;-0.5501;
180.0000;0.1400;-0.5451;
180.3000;0.1335;-0.5551;
180.6000;0.1368;-0.5526;
180.9000;0.1408;-0.5451;
181.2000;0.1425;-0.5425;
181.5000;0.1441;-0.5400;
181.8000;0.1416;-0.5350;
182.1000;0.1400;-0.5275;
182.4000;0.1408;-0.5375;
182.7000;0.1408;-0.5300;
183.0000;0.1408;-0.5199;
183.3000;0.1473;-0.5049;
183.6000;0.1425;-0.5325;
183.9000;0.1416;-0.5300;
184.2000;0.1408;-0.5275;
184.5000;0.1400;-0.5174;
184.8000;0.1408;-0.5124;
185.1000;0.1425;-0.5275;
185.4000;0.1425;-0.5275;
185.7000;0.1416;-0.5225;
186.0000;0.1441;-0.5099;
186.3000;0.1425;-0.5275;
186.6000;0.1408;-0.5300;
186.9000;0.1425;-0.5300;
187.2000;0.1408;-0.5275;
187.5000;0.1408;-0.5300;
187.8000;0.1416;-0.5425;
188.1000;0.1473;-0.5325;
188.4000;0.1400;-0.5375;
188.7000;0.1392;-0.5375;
189.0000;0.1400;-0.5350;
189.3000;0.1465;-0.5199;
189.6000;0.1400;-0.5375;
189.9000;0.1384;-0.5476;
190.2000;0.1416;-0.5425;
190.5000;0.1384;-0.5551;
190.8000;0.1392;-0.5551;
191.1000;0.1416;-0.5400;
191.4000;0.1416;-0.5375;
191.7000;0.1408;-0.5225;
192.0000;0.1376;-0.5199;
192.3000;0.1433;-0.5149;
192.6000;0.1416;-0.5174;
192.9000;0.1392;-0.5250;
193.2000;0.1416;-0.5174;
193.5000;0.1441;-0.5174;
193.8000;0.1416;-0.5199;
194.1000;0.1441;-0.5250;
194.4000;0.1425;-0.5400;
194.7000;0.1465;-0.5225;
195.0000;0.1376;-0.5400;
195.3000;0.1400;-0.5325;
195.6000;0.1400;-0.5375;
195.9000;0.1416;-0.5250;
196.2000;0.1392;-0.5199;
196.5000;0.1425;-0.5149;
196.8000;0.1400;-0.5250;
197.1000;0.1384;-0.5199;
197.4000;0.1416;-0.5074;
197.7000;0.1433;-0.5074;
198.0000;0.1425;-0.5174;
198.3000;0.1408;-0.5124;
198.6000;0.1425;-0.5199;
198.9000;0.1416;-0.5199;
199.2000;0.1400;-0.5275;
199.5000;0.1384;-0.5325;
199.8000;0.1441;-0.5225;
200.1000;0.1416;-0.5225;
200.4000;0.1416;-0.5174;
200.7000;0.1392;-0.5325;
201.0000;0.1408;-0.5350;
201.3000;0.1457;-0.5225;
201.6000;0.1400;-0.5325;
201.9000;0.1400;-0.5250;
202.2000;0.1408;-0.5199;
202.5000;0.1368;-0.5325;
202.8000;0.1425;-0.5149;
203.1000;0.1408;-0.5199;
203.4000;0.1408;-0.5149;
203.7000;0.1425;-0.5199;
204.0000;0.1425;-0.5199;
204.3000;0.1400;-0.5350;
204.6000;0.1416;-0.5325;
204.9000;0.1416;-0.5275;
205.2000;0.1506;-0.5149;
205.5000;0.1408;-0.5451;
205.8000;0.1400;-0.5526;
206.1000;0.1425;-0.5375;
206.4000;0.1441;-0.5275;
206.7000;0.1408;-0.5350;
207.0000;0.1408;-0.5275;
207.3000;0.1408;-0.5199;
207.6000;0.1416;-0.5149;
207.9000;0.1408;-0.5149;
208.2000;0.1416;-0.4998;
208.5000;0.1400;-0.5024;
208.8000;0.1408;-0.5024;
209.1000;0.1408;-0.5099;
209.4000;0.1457;-0.5024;
209.7000;0.1416;-0.5149;
210.0000;0.1416;-0.5149;
210.3000;0.1416;-0.5049;
210.6000;0.1433;-0.4948;
210.9000;0.1392;-0.5099;
211.2000;0.1408;-0.5124;
211.5000;0.1400;-0.5174;
211.8000;0.1376;-0.5225;
212.1000;0.1392;-0.5149;
212.4000;0.1400;-0.5049;
212.7000;0.1416;-0.5024;
213.0000;0.1368;-0.5225;
213.3000;0.1392;-0.5174;
213.6000;0.1392;-0.5174;
213.9000;0.1392;-0.5124;
214.2000;0.1368;-0.5199;
214.5000;0.1425;-0.5099;
214.8000;0.1376;-0.5124;
215.1000;0.1392;-0.5099;
215.4000;0.1311;-0.5375;
215.7000;0.1384;-0.5174;
216.0000;0.1408;-0.5225;
216.3000;0.1408;-0.5124;
216.6000;0.1433;-0.5149;
216.9000;0.1408;-0.5300;
217.2000;0.1441;-0.5174;
217.5000;0.1392;-0.5300;
217.8000;0.1490;-0.5074;
218.1000;0.1441;-0.5225;
218.4000;0.1416;-0.5300;
218.7000;0.1449;-0.5225;
219.0000;0.1400;-0.5350;
219.3000;0.1416;-0.5350;
219.6000;0.1400;-0.5400;
219.9000;0.1408;-0.5300;
220.2000;0.1400;-0.5350;
220.5000;0.1449;-0.5199;
220.8000;0.1400;-0.5325;
221.1000;0.1400;-0.5325;
221.4000;0.1400;-0.5325;
221.7000;0.1400;-0.5300;
222.0000;0.1392;-0.5375;
222.3000;0.1384;-0.5551;
222.6000;0.1408;-0.5451;
222.9000;0.1416;-0.5375;
223.2000;0.1441;-0.5250;
223.5000;0.1376;-0.5501;
223.8000;0.1416;-0.5300;
224.1000;0.1425;-0.5199;
224.4000;0.1408;-0.5174;
224.7000;0.1416;-0.5225;
225.0000;0.1400;-0.5300;
225.3000;0.1408;-0.5199;
225.6000;0.1392;-0.5199;
225.9000;0.1392;-0.5174;
226.2000;0.1392;-0.5199;
226.5000;0.1425;-0.5225;
226.8000;0.1416;-0.5250;
227.1000;0.1392;-0.5325;
227.4000;0.1392;-0.5375;
227.7000;0.1408;-0.5325;
228.0000;0.1416;-0.5174;
228.3000;0.1408;-0.5199;
228.6000;0.1416;-0.5199;
228.9000;0.1392;-0.5174;
229.2000;0.1433;-0.5074;
229.5000;0.1400;-0.5124;
229.8000;0.1416;-0.5174;
230.1000;0.1335;-0.5451;
230.4000;0.1408;-0.5300;
230.7000;0.1408;-0.5250;
231.0000;0.1400;-0.5350;
231.3000;0.1465;-0.5225;
231.6000;0.1408;-0.5325;
231.9000;0.1376;-0.5375;
232.2000;0.1392;-0.5250;
232.5000;0.1384;-0.5325;
232.8000;0.1416;-0.5300;
233.1000;0.1425;-0.5325;
233.4000;0.1368;-0.5350;
233.7000;0.1416;-0.5275;
234.0000;0.1416;-0.5350;
234.3000;0.1416;-0.5325;
234.6000;0.1416;-0.5250;
234.9000;0.1408;-0.5174;
235.2000;0.1441;-0.5024;
235.5000;0.1359;-0.5199;
235.8000;0.1425;-0.5149;
236.1000;0.1400;-0.5149;
236.4000;0.1408;-0.5149;
236.7000;0.1384;-0.5149;
237.0000;0.1392;-0.5149;
237.3000;0.1449;-0.4973;
237.6000;0.1465;-0.4973;
237.9000;0.1400;-0.5124;
238.2000;0.1384;-0.5174;
238.5000;0.1408;-0.5174;
238.8000;0.1416;-0.5149;
239.1000;0.1408;-0.5049;
239.4000;0.1392;-0.5049;
239.7000;0.1368;-0.5099;
240.0000;0.1351;-0.5300;
240.3000;0.1400;-0.5124;
240.6000;0.1425;-0.5049;
240.9000;0.1408;-0.5049;
241.2000;0.1384;-0.5099;
241.5000;0.1392;-0.5074;
241.8000;0.1425;-0.4998;
242.1000;0.1416;-0.4973;
242.4000;0.1400;-0.5024;
242.7000;0.1400;-0.4998;
243.0000;0.1416;-0.5024;
243.3000;0.1408;-0.5049;
243.6000;0.1425;-0.5049;
243.9000;0.1416;-0.5074;
244.2000;0.1384;-0.5124;
244.5000;0.1408;-0.5124;
244.8000;0.1408;-0.5149;
245.1000;0.1449;-0.5049;
245.4000;0.1416;-0.5174;
245.7000;0.1408;-0.5225;
246.0000;0.1416;-0.5250;
246.3000;0.1376;-0.5375;
246.6000;0.1400;-0.5225;
246.9000;0.1416;-0.5074;
247.2000;0.1408;-0.5074;
247.5000;0.1416;-0.5149;
247.8000;0.1416;-0.5099;
248.1000;0.1441;-0.4973;
248.4000;0.1425;-0.5024;
248.7000;0.1400;-0.5099;
249.0000;0.1416;-0.5099;
249.3000;0.1400;-0.5149;
249.6000;0.1408;-0.5124;
249.9000;0.1392;-0.5149;
250.2000;0.1433;-0.4998;
250.5000;0.1319;-0.5300;
250.8000;0.1400;-0.5099;
251.1000;0.1416;-0.5124;
251.4000;0.1392;-0.5225;
251.7000;0.1408;-0.5124;
252.0000;0.1441;-0.5074;
252.3000;0.1384;-0.5300;
252.6000;0.1400;-0.5300;
252.9000;0.1449;-0.5174;
253.2000;0.1416;-0.5250;
253.5000;0.1416;-0.5250;
253.8000;0.1416;-0.5275;
254.1000;0.1416;-0.5300;
254.4000;0.1384;-0.5400;
254.7000;0.1408;-0.5300;
255.0000;0.1408;-0.5476;
255.3000;0.1392;-0.5451;
255.6000;0.1416;-0.5425;
255.9000;0.1400;-0.5275;
256.2000;0.1400;-0.5174;
256.5000;0.1433;-0.5149;
256.8000;0.1400;-0.5250;
257.1000;0.1408;-0.5300;
257.4000;0.1433;-0.5275;
257.7000;0.1416;-0.5300;
258.0000;0.1408;-0.5325;
258.3000;0.1392;-0.5350;
258.6000;0.1425;-0.5325;
258.9000;0.1433;-0.5250;
259.2000;0.1392;-0.5300;
259.5000;0.1408;-0.5250;
259.8000;0.1408;-0.5250;
260.1000;0.1384;-0.5300;
260.4000;0.1457;-0.5174;
260.7000;0.1376;-0.5476;
261.0000;0.1400;-0.5451;
261.3000;0.1392;-0.5451;
261.6000;0.1408;-0.5425;
261.9000;0.1408;-0.5400;
262.2000;0.1416;-0.5350;
262.5000;0.1416;-0.5425;
262.8000;0.1425;-0.5400;
263.1000;0.1416;-0.5325;
263.4000;0.1416;-0.5250;
263.7000;0.1408;-0.5375;
264.0000;0.1400;-0.5400;
264.3000;0.1425;-0.5250;
264.6000;0.1425;-0.5124;
264.9000;0.1408;-0.5250;
265.2000;0.1416;-0.5275;
265.5000;0.1400;-0.5300;
265.8000;0.1457;-0.5225;
266.1000;0.1400;-0.5350;
266.4000;0.1408;-0.5225;
266.7000;0.1327;-0.5501;
267.0000;0.1376;-0.5451;
267.3000;0.1408;-0.5325;
267.6000;0.1400;-0.5300;
267.9000;0.1384;-0.5350;
268.2000;0.1400;-0.5275;
268.5000;0.1376;-0.5325;
268.8000;0.1433;-0.5250;
269.1000;0.1416;-0.5350;
269.4000;0.1425;-0.5325;
269.7000;0.1416;-0.5375;
270.0000;0.1400;-0.5325;
270.3000;0.1425;-0.5250;
270.6000;0.1408;-0.5325;
270.9000;0.1425;-0.5149;
271.2000;0.1392;-0.5149;
271.5000;0.1400;-0.5149;
271.8000;0.1392;-0.5174;
272.1000;0.1392;-0.5199;
272.4000;0.1433;-0.5225;
272.7000;0.1425;-0.5325;
273.0000;0.1416;-0.5400;
273.3000;0.1392;-0.5400;
273.6000;0.1400;-0.5400;
273.9000;0.1416;-0.5300;
274.2000;0.1425;-0.5300;
274.5000;0.1433;-0.5250;
274.8000;0.1400;-0.5350;
275.1000;0.1384;-0.5425;
275.4000;0.1359;-0.5501;
275.7000;0.1384;-0.5400;
276.0000;0.1408;-0.5400;
276.3000;0.1400;-0.5400;
276.6000;0.1392;-0.5476;
276.9000;0.1400;-0.5451;
277.2000;0.1416;-0.5400;
277.5000;0.1408;-0.5325;
277.8000;0.1408;-0.5225;
278.1000;0.1408;-0.5325;
278.4000;0.1351;-0.5400;
278.7000;0.1425;-0.5199;
279.0000;0.1408;-0.5250;
279.3000;0.1400;-0.5300;
279.6000;0.1400;-0.5225;
279.9000;0.1408;-0.5225;
280.2000;0.1416;-0.5300;
280.5000;0.1441;-0.5300;
280.8000;0.1400;-0.5325;
281.1000;0.1441;-0.5300;
281.4000;0.1433;-0.5225;
281.7000;0.1408;-0.5325;
282.0000;0.1392;-0.5300;
282.3000;0.1408;-0.5250;
282.6000;0.1408;-0.5124;
282.9000;0.1408;-0.5074;
283.2000;0.1425;-0.5074;
283.5000;0.1457;-0.5049;
283.8000;0.1449;-0.5074;
284.1000;0.1384;-0.5300;
284.4000;0.1416;-0.5225;
284.7000;0.1416;-0.5199;
285.0000;0.1392;-0.5225;
285.3000;0.1400;-0.5350;
285.6000;0.1400;-0.5425;
285.9000;0.1368;-0.5451;
286.2000;0.1408;-0.5451;
286.5000;0.1441;-0.5425;
286.8000;0.1408;-0.5501;
287.1000;0.1433;-0.5375;
287.4000;0.1400;-0.5451;
287.7000;0.1425;-0.5325;
288.0000;0.1425;-0.5350;
288.3000;0.1400;-0.5425;
288.6000;0.1449;-0.5275;
288.9000;0.1416;-0.5451;
289.2000;0.1425;-0.5425;
289.5000;0.1368;-0.5526;
289.8000;0.1392;-0.5375;
290.1000;0.1400;-0.5400;
290.4000;0.1416;-0.5350;
290.7000;0.1319;-0.5626;
291.0000;0.1408;-0.5375;
291.3000;0.1400;-0.5375;
291.6000;0.1368;-0.5425;
291.9000;0.1408;-0.5225;
292.2000;0.1400;-0.5199;
292.5000;0.1400;-0.5099;
292.8000;0.1425;-0.5149;
293.1000;0.1425;-0.5124;
293.4000;0.1416;-0.5174;
293.7000;0.1392;-0.5225;
294.0000;0.1400;-0.5174;
294.3000;0.1368;-0.5275;
294.6000;0.1392;-0.5225;
294.9000;0.1400;-0.5149;
295.2000;0.1416;-0.5174;
295.5000;0.1465;-0.5124;
295.8000;0.1400;-0.5375;
296.1000;0.1400;-0.5375;
296.4000;0.1473;-0.5149;
296.7000;0.1408;-0.5199;
297.0000;0.1392;-0.5275;
297.3000;0.1457;-0.5199;
297.6000;0.1400;-0.5275;
297.9000;0.1416;-0.5149;
298.2000;0.1457;-0.5099;
298.5000;0.1416;-0.5174;
298.8000;0.1400;-0.5199;
299.1000;0.1408;-0.5199;
299.4000;0.1408;-0.5300;
299.7000;0.1416;-0.5325;
300.0000;0.1400;-0.5300;
300.3000;0.1392;-0.5275;
300.6000;0.1425;-0.5225;
300.9000;0.1416;-0.5225;
301.2000;0.1384;-0.5300;
301.5000;0.1433;-0.5174;
301.8000;0.1441;-0.5074;
302.1000;0.1416;-0.5124;
302.4000;0.1392;-0.5124;
302.7000;0.1441;-0.4998;
303.0000;0.1408;-0.4998;
303.3000;0.1433;-0.4998;
303.6000;0.1408;-0.4973;
303.9000;0.1425;-0.4998;
304.2000;0.1416;-0.5099;
304.5000;0.1425;-0.5074;
304.8000;0.1425;-0.5049;
305.1000;0.1392;-0.5049;
305.4000;0.1408;-0.5024;
305.7000;0.1400;-0.4923;
306.0000;0.1400;-0.4873;
306.3000;0.1408;-0.4848;
306.6000;0.1490;-0.4722;
306.9000;0.1400;-0.5099;
307.2000;0.1408;-0.5049;
307.5000;0.1433;-0.4998;
307.8000;0.1392;-0.5124;
308.1000;0.1416;-0.5124;
308.4000;0.1441;-0.5099;
308.7000;0.1416;-0.5199;
309.0000;0.1416;-0.5174;
309.3000;0.1400;-0.5149;
309.6000;0.1408;-0.5275;
309.9000;0.1425;-0.5250;
310.2000;0.1408;-0.5275;
310.5000;0.1473;-0.5149;
310.8000;0.1425;-0.5149;
311.1000;0.1416;-0.5174;
311.4000;0.1425;-0.5174;
311.7000;0.1425;-0.5149;
312.0000;0.1441;-0.5124;
312.3000;0.1408;-0.5124;
312.6000;0.1449;-0.4973;
312.9000;0.1425;-0.4973;
313.2000;0.1416;-0.4898;
313.5000;0.1384;-0.5024;
313.8000;0.1425;-0.4998;
314.1000;0.1433;-0.4998;
314.4000;0.1416;-0.5024;
314.7000;0.1433;-0.4873;
315.0000;0.1425;-0.4948;
315.3000;0.1408;-0.5049;
315.6000;0.1425;-0.5074;
315.9000;0.1408;-0.5074;
316.2000;0.1408;-0.5250;
316.5000;0.1408;-0.5250;
316.8000;0.1400;-0.5124;
317.1000;0.1392;-0.5174;
317.4000;0.1392;-0.5174;
317.7000;0.1425;-0.5099;
318.0000;0.1408;-0.5199;
318.3000;0.1400;-0.5250;
318.6000;0.1408;-0.5049;
318.9000;0.1384;-0.5074;
319.2000;0.1400;-0.4973;
319.5000;0.1408;-0.5049;
319.8000;0.1416;-0.5099;
320.1000;0.1425;-0.5099;
320.4000;0.1368;-0.5275;
320.7000;0.1392;-0.5149;
321.0000;0.1400;-0.5174;
321.3000;0.1376;-0.5199;
321.6000;0.1400;-0.5174;
321.9000;0.1408;-0.5124;
322.2000;0.1400;-0.5199;
322.5000;0.1408;-0.5124;
322.8000;0.1408;-0.5199;
323.1000;0.1433;-0.5225;
323.4000;0.1441;-0.5225;
323.7000;0.1425;-0.5199;
324.0000;0.1416;-0.5225;
324.3000;0.1408;-0.5149;
324.6000;0.1449;-0.4998;
324.9000;0.1433;-0.5049;
325.2000;0.1400;-0.5099;
325.5000;0.1376;-0.5149;
325.8000;0.1416;-0.5199;
326.1000;0.1351;-0.5375;
326.4000;0.1400;-0.5199;
326.7000;0.1400;-0.5275;
327.0000;0.1433;-0.5199;
327.3000;0.1408;-0.5250;
327.6000;0.1416;-0.5225;
327.9000;0.1416;-0.5149;
328.2000;0.1416;-0.5049;
328.5000;0.1425;-0.5024;
328.8000;0.1376;-0.5199;
329.1000;0.1416;-0.5074;
329.4000;0.1384;-0.5074;
329.7000;0.1392;-0.4973;
330.0000;0.1400;-0.4923;
330.3000;0.1392;-0.4898;
330.6000;0.1416;-0.4923;
330.9000;0.1408;-0.4948;
331.2000;0.1408;-0.5024;
331.5000;0.1392;-0.5099;
331.8000;0.1408;-0.5099;
332.1000;0.1392;-0.5174;
332.4000;0.1408;-0.5149;
332.7000;0.1384;-0.5225;
333.0000;0.1392;-0.5300;
333.3000;0.1416;-0.5149;
333.6000;0.1416;-0.5199;
333.9000;0.1465;-0.5124;
334.2000;0.1449;-0.5174;
334.5000;0.1416;-0.5174;
334.8000;0.1408;-0.5049;
335.1000;0.1449;-0.4998;
335.4000;0.1408;-0.5124;
335.7000;0.1408;-0.5074;
336.0000;0.1433;-0.5024;
336.3000;0.1376;-0.5174;
336.6000;0.1408;-0.5074;
336.9000;0.1400;-0.5124;
337.2000;0.1408;-0.5124;
337.5000;0.1400;-0.5099;
337.8000;0.1408;-0.5099;
338.1000;0.1416;-0.5099;
338.4000;0.1376;-0.5225;
338.7000;0.1441;-0.5099;
339.0000;0.1327;-0.5425;
339.3000;0.1416;-0.5174;
339.6000;0.1400;-0.5174;
339.9000;0.1416;-0.5124;
340.2000;0.1449;-0.4998;
340.5000;0.1416;-0.5199;
340.8000;0.1416;-0.5325;
341.1000;0.1408;-0.5300;
341.4000;0.1400;-0.5350;
341.7000;0.1400;-0.5225;
342.0000;0.1384;-0.5300;
342.3000;0.1392;-0.5250;
342.6000;0.1400;-0.5250;
342.9000;0.1408;-0.5199;
343.2000;0.1416;-0.5174;
343.5000;0.1408;-0.5275;
343.8000;0.1441;-0.5275;
344.1000;0.1425;-0.5350;
344.4000;0.1408;-0.5425;
344.7000;0.1400;-0.5325;
345.0000;0.1408;-0.5375;
345.3000;0.1400;-0.5375;
345.6000;0.1376;-0.5451;
345.9000;0.1416;-0.5350;
346.2000;0.1416;-0.5325;
346.5000;0.1465;-0.5149;
346.8000;0.1384;-0.5149;
347.1000;0.1416;-0.5124;
347.4000;0.1359;-0.5275;
347.7000;0.1425;-0.5174;
348.0000;0.1408;-0.5149;
348.3000;0.1351;-0.5350;
348.6000;0.1425;-0.5225;
348.9000;0.1433;-0.5225;
349.2000;0.1408;-0.5174;
349.5000;0.1376;-0.5174;
349.8000;0.1425;-0.5074;
350.1000;0.1416;-0.5049;
350.4000;0.1449;-0.5024;
350.7000;0.1376;-0.5250;
351.0000;0.1408;-0.5225;
351.3000;0.1433;-0.5225;
351.6000;0.1416;-0.5225;
351.9000;0.1433;-0.5149;
352.2000;0.1400;-0.5199;
352.5000;0.1311;-0.5300;
352.8000;0.1384;-0.5049;
353.1000;0.1392;-0.5124;
353.4000;0.1376;-0.5174;
353.7000;0.1376;-0.5074;
354.0000;0.1408;-0.5049;
354.3000;0.1392;-0.5099;
354.6000;0.1392;-0.5099;
354.9000;0.1433;-0.5124;
355.2000;0.1433;-0.5174;
355.5000;0.1408;-0.5124;
355.8000;0.1392;-0.5124;
356.1000;0.1408;-0.5174;
356.4000;0.1416;-0.5174;
356.7000;0.1416;-0.5149;
357.0000;0.1425;-0.5124;
357.3000;0.1425;-0.5074;
357.6000;0.1408;-0.5124;
357.9000;0.1408;-0.5174;
358.2000;0.1359;-0.5250;
358.5000;0.1408;-0.5149;
358.8000;0.1425;-0.5124;
359.1000;0.1522;-0.4873;
359.4000;0.1408;-0.5174;
359.7000;0.1449;-0.4998;
360.0000;0.1416;-0.4998;
360.3000;0.1433;-0.5049;
360.6000;0.1433;-0.5174;
360.9000;0.1416;-0.5325;
361.2000;0.1400;-0.5375;
361.5000;0.1433;-0.5375;
361.8000;0.1400;-0.5476;
362.1000;0.1425;-0.5425;
362.4000;0.1416;-0.5375;
362.7000;0.1416;-0.5275;
363.0000;0.1416;-0.5199;
363.3000;0.1425;-0.5199;
363.6000;0.1408;-0.5199;
363.9000;0.1425;-0.5099;
364.2000;0.1416;-0.5049;
364.5000;0.1400;-0.5174;
364.8000;0.1408;-0.5199;
365.1000;0.1408;-0.5149;
365.4000;0.1416;-0.5225;
365.7000;0.1400;-0.5149;
366.0000;0.1416;-0.5099;
366.3000;0.1400;-0.5099;
366.6000;0.1408;-0.5049;
366.9000;0.1416;-0.5099;
367.2000;0.1416;-0.5049;
367.5000;0.1368;-0.5099;
367.8000;0.1416;-0.5099;
368.1000;0.1416;-0.5124;
368.4000;0.1433;-0.5174;
368.7000;0.1441;-0.5250;
369.0000;0.1408;-0.5325;
369.3000;0.1465;-0.5250;
369.6000;0.1376;-0.5526;
369.9000;0.1425;-0.5375;
370.2000;0.1433;-0.5300;
370.5000;0.1441;-0.5199;
370.8000;0.1425;-0.5300;
371.1000;0.1416;-0.5375;
371.4000;0.1384;-0.5425;
371.7000;0.1425;-0.5350;
372.0000;0.1433;-0.5275;
372.3000;0.1408;-0.5300;
372.6000;0.1433;-0.5250;
372.9000;0.1408;-0.5250;
373.2000;0.1425;-0.5250;
373.5000;0.1465;-0.5199;
373.8000;0.1400;-0.5300;
374.1000;0.1400;-0.5350;
374.4000;0.1384;-0.5501;
374.7000;0.1416;-0.5451;
375.0000;0.1416;-0.5526;
375.3000;0.1400;-0.5526;
375.6000;0.1384;-0.5476;
375.9000;0.1400;-0.5476;
376.2000;0.1408;-0.5400;
376.5000;0.1408;-0.5425;
376.8000;0.1392;-0.5375;
377.1000;0.1400;-0.5400;
377.4000;0.1400;-0.5300;
377.7000;0.1400;-0.5375;
378.0000;0.1416;-0.5425;
378.3000;0.1408;-0.5375;
378.6000;0.1425;-0.5425;
378.9000;0.1425;-0.5400;
379.2000;0.1392;-0.5375;
379.5000;0.1425;-0.5325;
379.8000;0.1408;-0.5375;
380.1000;0.1433;-0.5325;
380.4000;0.1400;-0.5425;
380.7000;0.1376;-0.5551;
381.0000;0.1351;-0.5576;
381.3000;0.1400;-0.5451;
381.6000;0.1416;-0.5375;
381.9000;0.1416;-0.5400;
382.2000;0.1368;-0.5551;
382.5000;0.1400;-0.5526;
382.8000;0.1416;-0.5476;
383.1000;0.1433;-0.5350;
383.4000;0.1400;-0.5425;
383.7000;0.1384;-0.5576;
384.0000;0.1449;-0.5325;
384.3000;0.1384;-0.5526;
384.6000;0.1514;-0.5199;
384.9000;0.1425;-0.5400;
385.2000;0.1408;-0.5350;
385.5000;0.1392;-0.5476;
385.8000;0.1416;-0.5501;
386.1000;0.1408;-0.5501;
386.4000;0.1425;-0.5476;
386.7000;0.1416;-0.5526;
387.0000;0.1416;-0.5551;
387.3000;0.1400;-0.5601;
387.6000;0.1319;-0.5827;
387.9000;0.1416;-0.5526;
388.2000;0.1384;-0.5425;
388.5000;0.1416;-0.5400;
388.8000;0.1416;-0.5350;
389.1000;0.1400;-0.5451;
389.4000;0.1408;-0.5375;
389.7000;0.1400;-0.5375;
390.0000;0.1368;-0.5526;
390.3000;0.1425;-0.5375;
390.6000;0.1416;-0.5325;
390.9000;0.1392;-0.5325;
391.2000;0.1400;-0.5400;
391.5000;0.1343;-0.5576;
391.8000;0.1400;-0.5501;
392.1000;0.1400;-0.5451;
392.4000;0.1465;-0.5174;
392.7000;0.1400;-0.5375;
393.0000;0.1425;-0.5300;
393.3000;0.1408;-0.5375;
393.6000;0.1416;-0.5375;
393.9000;0.1400;-0.5425;
394.2000;0.1425;-0.5400;
394.5000;0.1425;-0.5451;
394.8000;0.1441;-0.5375;
395.1000;0.1416;-0.5476;
395.4000;0.1425;-0.5551;
395.7000;0.1449;-0.5501;
396.0000;0.1400;-0.5702;
396.3000;0.1490;-0.5425;
396.6000;0.1376;-0.5727;
396.9000;0.1384;-0.5702;
397.2000;0.1400;-0.5702;
397.5000;0.1400;-0.5601;
397.8000;0.1400;-0.5652;
398.1000;0.1400;-0.5576;
398.4000;0.1416;-0.5476;
398.7000;0.1392;-0.5576;
399.0000;0.1416;-0.5476;
399.3000;0.1408;-0.5476;
399.6000;0.1408;-0.5476;
399.9000;0.1400;-0.5476;
400.2000;0.1384;-0.5526;
400.5000;0.1376;-0.5501;
400.8000;0.1392;-0.5501;
401.1000;0.1408;-0.5526;
401.4000;0.1384;-0.5626;
401.7000;0.1416;-0.5451;
402.0000;0.1441;-0.5451;
402.3000;0.1441;-0.5451;
402.6000;0.1400;-0.5551;
402.9000;0.1408;-0.5551;
403.2000;0.1408;-0.5451;
403.5000;0.1498;-0.5225;
403.8000;0.1416;-0.5501;
404.1000;0.1490;-0.5199;
404.4000;0.1416;-0.5350;
404.7000;0.1465;-0.5300;
405.0000;0.1400;-0.5375;
405.3000;0.1416;-0.5375;
405.6000;0.1457;-0.5325;
405.9000;0.1416;-0.5400;
406.2000;0.1408;-0.5375;
406.5000;0.1416;-0.5300;
406.8000;0.1392;-0.5425;
407.1000;0.1408;-0.5425;
407.4000;0.1408;-0.5526;
407.7000;0.1359;-0.5652;
408.0000;0.1368;-0.5576;
408.3000;0.1408;-0.5451;
408.6000;0.1384;-0.5551;
408.9000;0.1481;-0.5225;
409.2000;0.1425;-0.5375;
409.5000;0.1408;-0.5375;
409.8000;0.1416;-0.5375;
410.1000;0.1425;-0.5451;
410.4000;0.1408;-0.5451;
410.7000;0.1416;-0.5501;
411.0000;0.1416;-0.5526;
411.3000;0.1416;-0.5501;
411.6000;0.1425;-0.5375;
411.9000;0.1376;-0.5451;
412.2000;0.1408;-0.5350;
412.5000;0.1392;-0.5325;
412.8000;0.1392;-0.5325;
413.1000;0.1384;-0.5375;
413.4000;0.1400;-0.5400;
413.7000;0.1384;-0.5375;
414.0000;0.1400;-0.5451;
414.3000;0.1392;-0.5526;
414.6000;0.1425;-0.5400;
414.9000;0.1416;-0.5350;
415.2000;0.1408;-0.5375;
415.5000;0.1408;-0.5375;
415.8000;0.1408;-0.5325;
416.1000;0.1392;-0.5375;
416.4000;0.1416;-0.5250;
416.7000;0.1400;-0.5275;
417.0000;0.1400;-0.5250;
417.3000;0.1408;-0.5225;
417.6000;0.1416;-0.5174;
417.9000;0.1392;-0.5250;
418.2000;0.1408;-0.5275;
418.5000;0.1408;-0.5375;
418.8000;0.1433;-0.5425;
419.1000;0.1416;-0.5275;
419.4000;0.1433;-0.5174;
419.7000;0.1416;-0.5225;
420.0000;0.1425;-0.5199;
420.3000;0.1425;-0.5225;
420.6000;0.1408;-0.5250;
420.9000;0.1408;-0.5124;
421.2000;0.1416;-0.5149;
421.5000;0.1408;-0.5199;
421.8000;0.1392;-0.5300;
422.1000;0.1392;-0.5325;
422.4000;0.1408;-0.5300;
422.7000;0.1408;-0.5325;
423.0000;0.1392;-0.5350;
423.3000;0.1392;-0.5325;
423.6000;0.1416;-0.5250;
423.9000;0.1457;-0.5099;
424.2000;0.1416;-0.5199;
424.5000;0.1400;-0.5199;
424.8000;0.1408;-0.5199;
425.1000;0.1384;-0.5350;
425.4000;0.1400;-0.5325;
425.7000;0.1441;-0.5325;
426.0000;0.1416;-0.5476;
426.3000;0.1408;-0.5425;
426.6000;0.1408;-0.5425;
426.9000;0.1408;-0.5375;
427.2000;0.1425;-0.5250;
427.5000;0.1425;-0.5225;
427.8000;0.1433;-0.5275;
428.1000;0.1392;-0.5350;
428.4000;0.1400;-0.5400;
428.7000;0.1416;-0.5400;
429.0000;0.1416;-0.5375;
429.3000;0.1465;-0.5174;
429.6000;0.1408;-0.5250;
429.9000;0.1327;-0.5425;
430.2000;0.1433;-0.5174;
430.5000;0.1351;-0.5250;
430.8000;0.1416;-0.5024;
431.1000;0.1416;-0.5024;
431.4000;0.1376;-0.5174;
431.7000;0.1416;-0.5149;
432.0000;0.1408;-0.5149;
432.3000;0.1392;-0.5174;
432.6000;0.1425;-0.5149;
432.9000;0.1400;-0.5124;
433.2000;0.1408;-0.5124;
433.5000;0.1408;-0.5225;
433.8000;0.1416;-0.5124;
434.1000;0.1400;-0.5174;
434.4000;0.1416;-0.5124;
434.7000;0.1408;-0.5099;
435.0000;0.1408;-0.5049;
435.3000;0.1408;-0.4998;
435.6000;0.1376;-0.5149;
435.9000;0.1384;-0.5199;
436.2000;0.1416;-0.5124;
436.5000;0.1498;-0.4873;
436.8000;0.1400;-0.5074;
437.1000;0.1416;-0.5124;
437.4000;0.1416;-0.5149;
437.7000;0.1408;-0.5074;
438.0000;0.1416;-0.5024;
438.3000;0.1408;-0.5024;
438.6000;0.1416;-0.5024;
438.9000;0.1425;-0.5074;
439.2000;0.1425;-0.5099;
439.5000;0.1449;-0.5074;
439.8000;0.1416;-0.5174;
440.1000;0.1351;-0.5300;
440.4000;0.1425;-0.5074;
440.7000;0.1392;-0.5225;
441.0000;0.1392;-0.5199;
441.3000;0.1392;-0.5149;
441.6000;0.1384;-0.5199;
441.9000;0.1408;-0.5199;
442.2000;0.1343;-0.5425;
442.5000;0.1368;-0.5350;
442.8000;0.1441;-0.5174;
443.1000;0.1416;-0.5300;
443.4000;0.1400;-0.5325;
443.7000;0.1408;-0.5375;
444.0000;0.1416;-0.5300;
444.3000;0.1416;-0.5174;
444.6000;0.1465;-0.5124;
444.9000;0.1425;-0.5199;
445.2000;0.1408;-0.5049;
445.5000;0.1376;-0.5049;
445.8000;0.1392;-0.5024;
446.1000;0.1400;-0.5074;
446.4000;0.1425;-0.4973;
446.7000;0.1433;-0.4848;
447.0000;0.1384;-0.4998;
447.3000;0.1408;-0.4948;
447.6000;0.1319;-0.5124;
447.9000;0.1400;-0.4848;
448.2000;0.1425;-0.4948;
448.5000;0.1400;-0.4973;
448.8000;0.1408;-0.5049;
449.1000;0.1425;-0.4973;
449.4000;0.1425;-0.4948;
449.7000;0.1408;-0.4948;
450.0000;0.1416;-0.4948;
450.3000;0.1408;-0.4948;
450.6000;0.1408;-0.4923;
450.9000;0.1416;-0.4973;
451.2000;0.1408;-0.4973;
451.5000;0.1384;-0.4973;
451.8000;0.1416;-0.4898;
452.1000;0.1425;-0.4873;
452.4000;0.1359;-0.5099;
452.7000;0.1384;-0.5099;
453.0000;0.1425;-0.5049;
453.3000;0.1416;-0.5099;
453.6000;0.1408;-0.5024;
453.9000;0.1416;-0.5099;
454.2000;0.1441;-0.5149;
454.5000;0.1408;-0.5225;
454.8000;0.1498;-0.4898;
455.1000;0.1343;-0.5275;
455.4000;0.1400;-0.5225;
455.7000;0.1368;-0.5174;
456.0000;0.1400;-0.5049;
456.3000;0.1416;-0.5099;
456.6000;0.1392;-0.5174;
456.9000;0.1416;-0.5149;
457.2000;0.1400;-0.5099;
457.5000;0.1408;-0.5074;
457.8000;0.1408;-0.5074;
458.1000;0.1416;-0.5074;
458.4000;0.1465;-0.4998;
458.7000;0.1408;-0.5174;
459.0000;0.1408;-0.5225;
459.3000;0.1433;-0.5074;
459.6000;0.1408;-0.5099;
459.9000;0.1416;-0.5024;
460.2000;0.1400;-0.5024;
460.5000;0.1465;-0.4973;
460.8000;0.1416;-0.5049;
461.1000;0.1400;-0.5049;
461.4000;0.1368;-0.5174;
461.7000;0.1408;-0.5074;
462.0000;0.1408;-0.5024;
462.3000;0.1351;-0.5124;
462.6000;0.1400;-0.4923;
462.9000;0.1400;-0.4898;
463.2000;0.1408;-0.4923;
463.5000;0.1400;-0.5049;
463.8000;0.1400;-0.5074;
464.1000;0.1408;-0.5124;
464.4000;0.1416;-0.5049;
464.7000;0.1416;-0.4998;
465.0000;0.1425;-0.5099;
465.3000;0.1425;-0.5074;
465.6000;0.1408;-0.5024;
465.9000;0.1408;-0.4948;
466.2000;0.1392;-0.4948;
466.5000;0.1433;-0.4948;
466.8000;0.1400;-0.4998;
467.1000;0.1408;-0.5024;
467.4000;0.1392;-0.5124;
467.7000;0.1425;-0.5099;
468.0000;0.1400;-0.5225;
468.3000;0.1400;-0.5225;
468.6000;0.1400;-0.5149;
468.9000;0.1425;-0.5124;
469.2000;0.1400;-0.5199;
469.5000;0.1400;-0.5250;
469.8000;0.1416;-0.5149;
470.1000;0.1416;-0.5149;
470.4000;0.1376;-0.5199;
470.7000;0.1416;-0.5124;
471.0000;0.1408;-0.5149;
471.3000;0.1416;-0.5149;
471.6000;0.1408;-0.5325;
471.9000;0.1408;-0.5350;
472.2000;0.1368;-0.5350;
472.5000;0.1392;-0.5350;
472.8000;0.1384;-0.5375;
473.1000;0.1400;-0.5400;
473.4000;0.1408;-0.5350;
473.7000;0.1449;-0.5250;
474.0000;0.1433;-0.5300;
474.3000;0.1376;-0.5350;
474.6000;0.1416;-0.5275;
474.9000;0.1408;-0.5225;
475.2000;0.1433;-0.5225;
475.5000;0.1441;-0.5199;
475.8000;0.1416;-0.5275;
476.1000;0.1400;-0.5275;
476.4000;0.1400;-0.5350;
476.7000;0.1400;-0.5350;
477.0000;0.1408;-0.5350;
477.3000;0.1416;-0.5300;
477.6000;0.1408;-0.5350;
477.9000;0.1408;-0.5451;
478.2000;0.1392;-0.5425;
478.5000;0.1425;-0.5250;
478.8000;0.1359;-0.5350;
479.1000;0.1384;-0.5250;
479.4000;0.1400;-0.5250;
479.7000;0.1343;-0.5350;
480.0000;0.1400;-0.5049;
480.3000;0.1425;-0.5024;
480.6000;0.1408;-0.5124;
480.9000;0.1392;-0.5199;
481.2000;0.1392;-0.5225;
481.5000;0.1384;-0.5199;
481.8000;0.1392;-0.5199;
482.1000;0.1416;-0.5174;
482.4000;0.1400;-0.5149;
482.7000;0.1392;-0.5225;
483.0000;0.1408;-0.5225;
483.3000;0.1416;-0.5250;
483.6000;0.1433;-0.5199;
483.9000;0.1416;-0.5275;
484.2000;0.1392;-0.5225;
484.5000;0.1408;-0.5199;
484.8000;0.1392;-0.5225;
485.1000;0.1408;-0.5199;
485.4000;0.1481;-0.4948;
485.7000;0.1384;-0.5149;
486.0000;0.1416;-0.5124;
486.3000;0.1408;-0.5124;
486.6000;0.1400;-0.5074;
486.9000;0.1400;-0.5074;
487.2000;0.1384;-0.5099;
487.5000;0.1392;-0.5124;
487.8000;0.1384;-0.5149;
488.1000;0.1319;-0.5325;
488.4000;0.1392;-0.5199;
488.7000;0.1392;-0.5174;
489.0000;0.1392;-0.5074;
489.3000;0.1408;-0.5099;
489.6000;0.1416;-0.5099;
489.9000;0.1392;-0.5300;
490.2000;0.1408;-0.5325;
490.5000;0.1392;-0.5350;
490.8000;0.1392;-0.5375;
491.1000;0.1392;-0.5350;
491.4000;0.1392;-0.5350;
491.7000;0.1384;-0.5451;
492.0000;0.1408;-0.5425;
492.3000;0.1400;-0.5425;
492.6000;0.1400;-0.5425;
492.9000;0.1392;-0.5400;
493.2000;0.1416;-0.5400;
493.5000;0.1408;-0.5325;
493.8000;0.1416;-0.5225;
494.1000;0.1392;-0.5275;
494.4000;0.1408;-0.5275;
494.7000;0.1408;-0.5325;
495.0000;0.1400;-0.5300;
495.3000;0.1392;-0.5400;
495.6000;0.1408;-0.5350;
495.9000;0.1416;-0.5350;
496.2000;0.1481;-0.5199;
496.5000;0.1400;-0.5425;
496.8000;0.1416;-0.5425;
497.1000;0.1449;-0.5300;
497.4000;0.1408;-0.5250;
497.7000;0.1400;-0.5325;
498.0000;0.1392;-0.5325;
498.3000;0.1376;-0.5350;
498.6000;0.1465;-0.5024;
498.9000;0.1416;-0.5174;
499.2000;0.1416;-0.5149;
499.5000;0.1433;-0.5174;
499.8000;0.1392;-0.5199;
500.1000;0.1433;-0.5124;
500.4000;0.1408;-0.5199;
500.7000;0.1473;-0.5024;
501.0000;0.1400;-0.5199;
501.3000;0.1400;-0.5174;
501.6000;0.1490;-0.4998;
501.9000;0.1400;-0.5300;
502.2000;0.1400;-0.5325;
502.5000;0.1392;-0.5275;
502.8000;0.1400;-0.5250;
503.1000;0.1408;-0.5250;
503.4000;0.1384;-0.5476;
503.7000;0.1408;-0.5375;
504.0000;0.1449;-0.5250;
504.3000;0.1408;-0.5275;
504.6000;0.1376;-0.5350;
504.9000;0.1433;-0.5099;
505.2000;0.1441;-0.5024;
505.5000;0.1376;-0.5225;
505.8000;0.1400;-0.5275;
506.1000;0.1302;-0.5626;
506.4000;0.1408;-0.5425;
506.7000;0.1433;-0.5476;
507.0000;0.1425;-0.5576;
507.3000;0.1400;-0.5601;
507.6000;0.1441;-0.5501;
507.9000;0.1400;-0.5526;
508.2000;0.1392;-0.5476;
508.5000;0.1400;-0.5476;
508.8000;0.1433;-0.5350;
509.1000;0.1408;-0.5325;
509.4000;0.1400;-0.5275;
509.7000;0.1408;-0.5300;
510.0000;0.1433;-0.5275;
510.3000;0.1416;-0.5375;
510.6000;0.1400;-0.5451;
510.9000;0.1392;-0.5476;
511.2000;0.1408;-0.5451;
511.5000;0.1425;-0.5300;
511.8000;0.1400;-0.5300;
512.1000;0.1384;-0.5400;
512.4000;0.1384;-0.5375;
512.7000;0.1384;-0.5300;
513.0000;0.1400;-0.5174;
513.3000;0.1392;-0.5275;
513.6000;0.1376;-0.5250;
513.9000;0.1408;-0.5149;
514.2000;0.1416;-0.5099;
514.5000;0.1433;-0.5074;
514.8000;0.1392;-0.5174;
515.1000;0.1392;-0.5124;
515.4000;0.1408;-0.5099;
515.7000;0.1392;-0.5199;
516.0000;0.1465;-0.5074;
516.3000;0.1368;-0.5199;
516.6000;0.1441;-0.5124;
516.9000;0.1368;-0.5275;
517.2000;0.1416;-0.5199;
517.5000;0.1408;-0.5174;
517.8000;0.1376;-0.5174;
518.1000;0.1376;-0.5275;
518.4000;0.1392;-0.5174;
518.7000;0.1400;-0.5174;
519.0000;0.1408;-0.5174;
519.3000;0.1416;-0.5149;
519.6000;0.1400;-0.5250;
519.9000;0.1433;-0.5199;
520.2000;0.1400;-0.5199;
520.5000;0.1384;-0.5174;
520.8000;0.1400;-0.5149;
521.1000;0.1368;-0.5250;
521.4000;0.1400;-0.5174;
521.7000;0.1392;-0.5225;
522.0000;0.1400;-0.5250;
522.3000;0.1457;-0.5199;
522.6000;0.1408;-0.5250;
522.9000;0.1319;-0.5501;
523.2000;0.1400;-0.5300;
523.5000;0.1376;-0.5350;
523.8000;0.1327;-0.5501;
524.1000;0.1376;-0.5300;
524.4000;0.1408;-0.5325;
524.7000;0.1351;-0.5476;
525.0000;0.1400;-0.5300;
525.3000;0.1392;-0.5225;
525.6000;0.1400;-0.5275;
525.9000;0.1416;-0.5199;
526.2000;0.1400;-0.5225;
526.5000;0.1392;-0.5250;
526.8000;0.1416;-0.5124;
527.1000;0.1400;-0.5225;
527.4000;0.1400;-0.5225;
527.7000;0.1351;-0.5275;
528.0000;0.1392;-0.5225;
528.3000;0.1416;-0.5199;
528.6000;0.1392;-0.5225;
528.9000;0.1408;-0.5300;
529.2000;0.1400;-0.5325;
529.5000;0.1392;-0.5250;
529.8000;0.1384;-0.5250;
530.1000;0.1392;-0.5275;
530.4000;0.1416;-0.5199;
530.7000;0.1416;-0.5124;
531.0000;0.1408;-0.5099;
531.3000;0.1408;-0.5149;
531.6000;0.1400;-0.5149;
531.9000;0.1490;-0.4898;
532.2000;0.1400;-0.5149;
532.5000;0.1384;-0.5250;
532.8000;0.1376;-0.5250;
533.1000;0.1392;-0.5250;
533.4000;0.1400;-0.5174;
533.7000;0.1376;-0.5174;
534.0000;0.1392;-0.5149;
534.3000;0.1400;-0.5074;
534.6000;0.1392;-0.5024;
534.9000;0.1416;-0.5099;
535.2000;0.1392;-0.5099;
535.5000;0.1408;-0.5099;
535.8000;0.1416;-0.5124;
536.1000;0.1457;-0.5124;
536.4000;0.1408;-0.5250;
536.7000;0.1441;-0.5174;
537.0000;0.1465;-0.5099;
537.3000;0.1425;-0.5124;
537.6000;0.1481;-0.4948;
537.9000;0.1433;-0.5124;
538.2000;0.1400;-0.5199;
538.5000;0.1408;-0.5250;
538.8000;0.1449;-0.5099;
539.1000;0.1359;-0.5225;
539.4000;0.1376;-0.5300;
539.7000;0.1433;-0.5250;
540.0000;0.1408;-0.5400;
540.3000;0.1416;-0.5325;
540.6000;0.1384;-0.5375;
540.9000;0.1384;-0.5350;
541.2000;0.1400;-0.5350;
541.5000;0.1400;-0.5425;
541.8000;0.1400;-0.5526;
542.1000;0.1408;-0.5526;
542.4000;0.1425;-0.5501;
542.7000;0.1376;-0.5526;
543.0000;0.1400;-0.5526;
543.3000;0.1376;-0.5526;
543.6000;0.1392;-0.5425;
543.9000;0.1408;-0.5501;
544.2000;0.1392;-0.5501;
544.5000;0.1408;-0.5325;
544.8000;0.1498;-0.5174;
545.1000;0.1457;-0.5225;
545.4000;0.1441;-0.5350;
545.7000;0.1433;-0.5425;
546.0000;0.1408;-0.5425;
546.3000;0.1368;-0.5451;
546.6000;0.1408;-0.5325;
546.9000;0.1392;-0.5250;
547.2000;0.1351;-0.5526;
547.5000;0.1408;-0.5325;
547.8000;0.1400;-0.5350;
548.1000;0.1392;-0.5476;
548.4000;0.1416;-0.5425;
548.7000;0.1416;-0.5476;
549.0000;0.1400;-0.5526;
549.3000;0.1408;-0.5375;
549.6000;0.1416;-0.5375;
549.9000;0.1473;-0.5375;
550.2000;0.1400;-0.5601;
550.5000;0.1384;-0.5652;
550.8000;0.1408;-0.5551;
551.1000;0.1416;-0.5576;
551.4000;0.1449;-0.5501;
551.7000;0.1400;-0.5626;
552.0000;0.1384;-0.5626;
552.3000;0.1408;-0.5576;
552.6000;0.1384;-0.5626;
552.9000;0.1408;-0.5551;
553.2000;0.1408;-0.5576;
553.5000;0.1441;-0.5501;
553.8000;0.1392;-0.5601;
554.1000;0.1384;-0.5626;
554.4000;0.1433;-0.5451;
554.7000;0.1441;-0.5425;
555.0000;0.1425;-0.5425;
555.3000;0.1392;-0.5501;
555.6000;0.1400;-0.5325;
555.9000;0.1425;-0.5275;
556.2000;0.1416;-0.5225;
556.5000;0.1425;-0.5275;
556.8000;0.1425;-0.5350;
557.1000;0.1408;-0.5425;
557.4000;0.1400;-0.5400;
557.7000;0.1392;-0.5425;
558.0000;0.1416;-0.5425;
558.3000;0.1416;-0.5350;
558.6000;0.1400;-0.5350;
558.9000;0.1392;-0.5425;
559.2000;0.1392;-0.5375;
559.5000;0.1400;-0.5425;
559.8000;0.1400;-0.5526;
560.1000;0.1400;-0.5576;
560.4000;0.1400;-0.5526;
560.7000;0.1465;-0.5350;
561.0000;0.1416;-0.5551;
561.3000;0.1416;-0.5425;
561.6000;0.1400;-0.5476;
561.9000;0.1408;-0.5501;
562.2000;0.1416;-0.5451;
562.5000;0.1416;-0.5501;
562.8000;0.1368;-0.5652;
563.1000;0.1400;-0.5576;
563.4000;0.1416;-0.5551;
563.7000;0.1400;-0.5551;
564.0000;0.1384;-0.5551;
564.3000;0.1416;-0.5325;
564.6000;0.1425;-0.5400;
564.9000;0.1433;-0.5526;
565.2000;0.1408;-0.5576;
565.5000;0.1416;-0.5476;
565.8000;0.1425;-0.5576;
566.1000;0.1441;-0.5451;
566.4000;0.1433;-0.5400;
566.7000;0.1449;-0.5325;
567.0000;0.1416;-0.5275;
567.3000;0.1416;-0.5149;
567.6000;0.1425;-0.5250;
567.9000;0.1400;-0.5375;
568.2000;0.1408;-0.5400;
568.5000;0.1416;-0.5350;
568.8000;0.1408;-0.5275;
569.1000;0.1506;-0.4973;
569.4000;0.1384;-0.5325;
569.7000;0.1376;-0.5425;
570.0000;0.1449;-0.5250;
570.3000;0.1425;-0.5325;
570.6000;0.1408;-0.5325;
570.9000;0.1408;-0.5275;
571.2000;0.1392;-0.5400;
571.5000;0.1416;-0.5275;
571.8000;0.1416;-0.5325;
572.1000;0.1416;-0.5300;
572.4000;0.1384;-0.5451;
572.7000;0.1408;-0.5425;
573.0000;0.1408;-0.5501;
573.3000;0.1392;-0.5526;
573.6000;0.1392;-0.5476;
573.9000;0.1400;-0.5425;
574.2000;0.1408;-0.5476;
574.5000;0.1433;-0.5400;
574.8000;0.1392;-0.5501;
575.1000;0.1425;-0.5400;
575.4000;0.1425;-0.5375;
575.7000;0.1392;-0.5425;
576.0000;0.1400;-0.5325;
576.3000;0.1368;-0.5325;
576.6000;0.1408;-0.5099;
576.9000;0.1392;-0.5149;
577.2000;0.1392;-0.5124;
577.5000;0.1368;-0.5199;
577.8000;0.1416;-0.5074;
578.1000;0.1392;-0.5124;
578.4000;0.1392;-0.5199;
578.7000;0.1392;-0.5199;
579.0000;0.1408;-0.5174;
579.3000;0.1400;-0.5174;
579.6000;0.1416;-0.5225;
579.9000;0.1408;-0.5174;
580.2000;0.1416;-0.5149;
580.5000;0.1384;-0.5300;
580.8000;0.1408;-0.5199;
581.1000;0.1408;-0.5325;
581.4000;0.1416;-0.5300;
581.7000;0.1384;-0.5350;
582.0000;0.1400;-0.5149;
582.3000;0.1400;-0.5124;
582.6000;0.1408;-0.5099;
582.9000;0.1400;-0.5174;
583.2000;0.1400;-0.5149;
583.5000;0.1392;-0.5124;
583.8000;0.1416;-0.5149;
584.1000;0.1425;-0.5099;
584.4000;0.1392;-0.5174;
584.7000;0.1408;-0.5174;
585.0000;0.1376;-0.5225;
585.3000;0.1425;-0.5074;
585.6000;0.1416;-0.5099;
585.9000;0.1400;-0.5149;
586.2000;0.1400;-0.5124;
586.5000;0.1384;-0.5149;
586.8000;0.1416;-0.5099;
587.1000;0.1368;-0.5250;
587.4000;0.1400;-0.5199;
587.7000;0.1400;-0.5225;
588.0000;0.1400;-0.5225;
588.3000;0.1408;-0.5149;
588.6000;0.1408;-0.5174;
588.9000;0.1359;-0.5225;
589.2000;0.1400;-0.5124;
589.5000;0.1400;-0.4973;
589.8000;0.1408;-0.4923;
590.1000;0.1392;-0.4998;
590.4000;0.1416;-0.4973;
590.7000;0.1416;-0.5024;
591.0000;0.1408;-0.5124;
591.3000;0.1416;-0.5124;
591.6000;0.1416;-0.5049;
591.9000;0.1408;-0.5099;
592.2000;0.1359;-0.5149;
592.5000;0.1400;-0.4948;
592.8000;0.1400;-0.5074;
593.1000;0.1400;-0.5049;
593.4000;0.1400;-0.5099;
593.7000;0.1400;-0.5174;
594.0000;0.1400;-0.5225;
594.3000;0.1392;-0.5275;
594.6000;0.1384;-0.5300;
594.9000;0.1376;-0.5375;
595.2000;0.1400;-0.5400;
595.5000;0.1433;-0.5350;
595.8000;0.1441;-0.5149;
596.1000;0.1392;-0.5275;
596.4000;0.1408;-0.5225;
596.7000;0.1408;-0.5250;
597.0000;0.1408;-0.5325;
597.3000;0.1392;-0.5325;
597.6000;0.1384;-0.5425;
597.9000;0.1408;-0.5350;
598.2000;0.1392;-0.5300;
598.5000;0.1376;-0.5375;
598.8000;0.1384;-0.5400;
599.1000;0.1416;-0.5325;
599.4000;0.1416;-0.5325;
599.7000;0.1408;-0.5300;
600.0000;0.1392;-0.5275;
600.3000;0.1400;-0.5451;
600.6000;0.1392;-0.5476;
600.9000;0.1384;-0.5601;
601.2000;0.1392;-0.5727;
601.5000;0.1351;-0.5978;
601.8000;0.1335;-0.6079;
602.1000;0.1351;-0.6305;
602.4000;0.1319;-0.6606;
602.7000;0.1343;-0.6706;
603.0000;0.1335;-0.6832;
603.3000;0.1416;-0.6656;
603.6000;0.1237;-0.7234;
603.9000;0.1302;-0.7008;
604.2000;0.1311;-0.7083;
604.5000;0.1311;-0.7133;
604.8000;0.1302;-0.7058;
605.1000;0.1221;-0.7309;
605.4000;0.1278;-0.7184;
605.7000;0.1286;-0.7184;
606.0000;0.1294;-0.7209;
606.3000;0.1286;-0.7259;
606.6000;0.1270;-0.7385;
606.9000;0.1254;-0.7535;
607.2000;0.1237;-0.7535;
607.5000;0.1286;-0.7485;
607.8000;0.1286;-0.7510;
608.1000;0.1237;-0.7686;
608.4000;0.1286;-0.7535;
608.7000;0.1197;-0.7787;
609.0000;0.1262;-0.7560;
609.3000;0.1262;-0.7586;
609.6000;0.1262;-0.7686;
609.9000;0.1270;-0.7761;
610.2000;0.1286;-0.7837;
610.5000;0.1270;-0.7812;
610.8000;0.1294;-0.7636;
611.1000;0.1278;-0.7661;
611.4000;0.1319;-0.7611;
611.7000;0.1278;-0.7636;
612.0000;0.1311;-0.7460;
612.3000;0.1302;-0.7661;
612.6000;0.1254;-0.7711;
612.9000;0.1286;-0.7661;
613.2000;0.1229;-0.7812;
613.5000;0.1254;-0.7711;
613.8000;0.1221;-0.7812;
614.1000;0.1335;-0.7560;
614.4000;0.1205;-0.7987;
614.7000;0.1254;-0.7937;
615.0000;0.1213;-0.8088;
615.3000;0.1254;-0.7987;
615.6000;0.1245;-0.8013;
615.9000;0.1245;-0.8038;
616.2000;0.1254;-0.7912;
616.5000;0.1254;-0.7912;
616.8000;0.1254;-0.7887;
617.1000;0.1270;-0.7862;
617.4000;0.1237;-0.7912;
617.7000;0.1156;-0.8038;
618.0000;0.1262;-0.7736;
618.3000;0.1213;-0.7862;
618.6000;0.1270;-0.7812;
618.9000;0.1229;-0.7887;
619.2000;0.1221;-0.7887;
619.5000;0.1270;-0.7812;
619.8000;0.1245;-0.7937;
620.1000;0.1245;-0.7912;
620.4000;0.1245;-0.7837;
620.7000;0.1245;-0.7837;
621.0000;0.1262;-0.7862;
621.3000;0.1262;-0.7887;
621.6000;0.1254;-0.7837;
621.9000;0.1221;-0.7912;
622.2000;0.1262;-0.7887;
622.5000;0.1229;-0.7912;
622.8000;0.1213;-0.7987;
623.1000;0.1229;-0.7887;
623.4000;0.1245;-0.7837;
623.7000;0.1254;-0.7812;
624.0000;0.1245;-0.7812;
624.3000;0.1237;-0.7711;
624.6000;0.1188;-0.7862;
624.9000;0.1237;-0.7711;
625.2000;0.1254;-0.7686;
625.5000;0.1245;-0.7711;
625.8000;0.1262;-0.7586;
626.1000;0.1262;-0.7560;
626.4000;0.1294;-0.7586;
626.7000;0.1221;-0.7661;
627.0000;0.1237;-0.7611;
627.3000;0.1254;-0.7636;
627.6000;0.1254;-0.7611;
627.9000;0.1262;-0.7661;
628.2000;0.1245;-0.7711;
628.5000;0.1213;-0.7787;
628.8000;0.1262;-0.7736;
629.1000;0.1311;-0.7611;
629.4000;0.1237;-0.7837;
629.7000;0.1245;-0.7862;
630.0000;0.1262;-0.7837;
630.3000;0.1237;-0.7837;
630.6000;0.1254;-0.7711;
630.9000;0.1245;-0.7761;
631.2000;0.1245;-0.7636;
631.5000;0.1254;-0.7736;
631.8000;0.1262;-0.7761;
632.1000;0.1254;-0.7686;
632.4000;0.1278;-0.7636;
632.7000;0.1254;-0.7661;
633.0000;0.1140;-0.7962;
633.3000;0.1294;-0.7535;
633.6000;0.1229;-0.7711;
633.9000;0.1237;-0.7586;
634.2000;0.1221;-0.7636;
634.5000;0.1237;-0.7560;
634.8000;0.1197;-0.7636;
635.1000;0.1254;-0.7560;
635.4000;0.1221;-0.7636;
635.7000;0.1188;-0.7837;
636.0000;0.1262;-0.7661;
636.3000;0.1237;-0.7661;
636.6000;0.1254;-0.7787;
636.9000;0.1229;-0.7862;
637.2000;0.1245;-0.7812;
637.5000;0.1254;-0.7887;
637.8000;0.1286;-0.7812;
638.1000;0.1245;-0.7837;
638.4000;0.1237;-0.7787;
638.7000;0.1237;-0.7812;
639.0000;0.1262;-0.7736;
639.3000;0.1229;-0.7862;
639.6000;0.1245;-0.7812;
639.9000;0.1270;-0.7711;
640.2000;0.1245;-0.7711;
640.5000;0.1237;-0.7761;
640.8000;0.1221;-0.7837;
641.1000;0.1262;-0.7812;
641.4000;0.1245;-0.7787;
641.7000;0.1213;-0.7787;
642.0000;0.1237;-0.7686;
642.3000;0.1262;-0.7837;
642.6000;0.1237;-0.7887;
642.9000;0.1327;-0.7661;
643.2000;0.1262;-0.7887;
643.5000;0.1254;-0.7887;
643.8000;0.1254;-0.7912;
644.1000;0.1254;-0.7912;
644.4000;0.1262;-0.7812;
644.7000;0.1262;-0.7736;
645.0000;0.1294;-0.7711;
645.3000;0.1237;-0.7937;
645.6000;0.1270;-0.7912;
645.9000;0.1245;-0.8013;
646.2000;0.1245;-0.8013;
646.5000;0.1213;-0.8088;
646.8000;0.1245;-0.8063;
647.1000;0.1164;-0.8163;
647.4000;0.1254;-0.7987;
647.7000;0.1245;-0.7987;
648.0000;0.1229;-0.8013;
648.3000;0.1262;-0.7962;
648.6000;0.1270;-0.7962;
648.9000;0.1278;-0.7937;
649.2000;0.1245;-0.8038;
649.5000;0.1245;-0.7987;
649.8000;0.1229;-0.7962;
650.1000;0.1213;-0.7912;
650.4000;0.1229;-0.7837;
650.7000;0.1237;-0.7862;
651.0000;0.1237;-0.7862;
651.3000;0.1254;-0.7912;
651.6000;0.1197;-0.8038;
651.9000;0.1286;-0.7736;
652.2000;0.1245;-0.7862;
652.5000;0.1237;-0.7862;
652.8000;0.1245;-0.7837;
653.1000;0.1237;-0.7887;
653.4000;0.1205;-0.8013;
653.7000;0.1245;-0.7937;
654.0000;0.1245;-0.7987;
654.3000;0.1229;-0.8063;
654.6000;0.1286;-0.7987;
654.9000;0.1254;-0.8038;
655.2000;0.1278;-0.7987;
655.5000;0.1237;-0.8063;
655.8000;0.1254;-0.8013;
656.1000;0.1270;-0.7962;
656.4000;0.1188;-0.8088;
656.7000;0.1270;-0.7887;
657.0000;0.1262;-0.7862;
657.3000;0.1237;-0.7912;
657.6000;0.1254;-0.7812;
657.9000;0.1245;-0.7912;
658.2000;0.1327;-0.7736;
658.5000;0.1237;-0.8013;
658.8000;0.1229;-0.7937;
659.1000;0.1254;-0.7837;
659.4000;0.1237;-0.7837;
659.7000;0.1311;-0.7535;
660.0000;0.1229;-0.7761;
660.3000;0.1237;-0.7736;
660.6000;0.1262;-0.7686;
660.9000;0.1254;-0.7611;
661.2000;0.1343;-0.7309;
661.5000;0.1262;-0.7661;
661.8000;0.1245;-0.7711;
662.1000;0.1237;-0.7787;
662.4000;0.1254;-0.7787;
662.7000;0.1254;-0.7761;
663.0000;0.1229;-0.7862;
663.3000;0.1254;-0.7812;
663.6000;0.1229;-0.7937;
663.9000;0.1335;-0.7711;
664.2000;0.1237;-0.7887;
664.5000;0.1270;-0.7837;
664.8000;0.1254;-0.7912;
665.1000;0.1245;-0.7962;
665.4000;0.1254;-0.7962;
665.7000;0.1254;-0.7787;
666.0000;0.1245;-0.7812;
666.3000;0.1254;-0.7837;
666.6000;0.1221;-0.7862;
666.9000;0.1254;-0.7761;
667.2000;0.1164;-0.7937;
667.5000;0.1237;-0.7787;
667.8000;0.1254;-0.7736;
668.1000;0.1245;-0.7837;
668.4000;0.1205;-0.7937;
668.7000;0.1294;-0.7787;
669.0000;0.1221;-0.8013;
669.3000;0.1245;-0.7937;
669.6000;0.1237;-0.7887;
669.9000;0.1245;-0.7812;
670.2000;0.1245;-0.7862;
670.5000;0.1270;-0.7812;
670.8000;0.1262;-0.7761;
671.1000;0.1302;-0.7636;
671.4000;0.1237;-0.7787;
671.7000;0.1245;-0.7862;
672.0000;0.1205;-0.7937;
672.3000;0.1262;-0.7812;
672.6000;0.1213;-0.7862;
672.9000;0.1262;-0.7787;
673.2000;0.1278;-0.7837;
673.5000;0.1302;-0.7661;
673.8000;0.1254;-0.7761;
674.1000;0.1188;-0.8013;
674.4000;0.1262;-0.7761;
674.7000;0.1237;-0.7887;
675.0000;0.1254;-0.7962;
675.3000;0.1245;-0.7937;
675.6000;0.1254;-0.7912;
675.9000;0.1245;-0.7837;
676.2000;0.1229;-0.7761;
676.5000;0.1229;-0.7787;
676.8000;0.1245;-0.7812;
677.1000;0.1254;-0.7887;
677.4000;0.1245;-0.7912;
677.7000;0.1237;-0.8088;
678.0000;0.1262;-0.8038;
678.3000;0.1254;-0.8113;
678.6000;0.1311;-0.7987;
678.9000;0.1245;-0.8113;
679.2000;0.1270;-0.7912;
679.5000;0.1245;-0.7962;
679.8000;0.1245;-0.7962;
680.1000;0.1302;-0.7812;
680.4000;0.1262;-0.7812;
680.7000;0.1245;-0.7837;
681.0000;0.1245;-0.7812;
681.3000;0.1262;-0.7837;
681.6000;0.1270;-0.7736;
681.9000;0.1254;-0.7787;
682.2000;0.1294;-0.7761;
682.5000;0.1262;-0.7912;
682.8000;0.1237;-0.8038;
683.1000;0.1237;-0.8038;
683.4000;0.1237;-0.8088;
683.7000;0.1229;-0.7987;
684.0000;0.1245;-0.8013;
684.3000;0.1254;-0.7937;
684.6000;0.1229;-0.7887;
684.9000;0.1221;-0.7887;
685.2000;0.1270;-0.7736;
685.5000;0.1270;-0.7686;
685.8000;0.1262;-0.7661;
686.1000;0.1237;-0.7711;
686.4000;0.1245;-0.7736;
686.7000;0.1262;-0.7661;
687.0000;0.1262;-0.7661;
687.3000;0.1245;-0.7761;
687.6000;0.1245;-0.7736;
687.9000;0.1254;-0.7611;
688.2000;0.1172;-0.7812;
688.5000;0.1245;-0.7636;
688.8000;0.1205;-0.7812;
689.1000;0.1237;-0.7736;
689.4000;0.1270;-0.7711;
689.7000;0.1262;-0.7736;
690.0000;0.1245;-0.7862;
690.3000;0.1229;-0.7837;
690.6000;0.1254;-0.7736;
690.9000;0.1262;-0.7761;
691.2000;0.1278;-0.7686;
691.5000;0.1278;-0.7636;
691.8000;0.1270;-0.7736;
692.1000;0.1262;-0.7787;
692.4000;0.1254;-0.7787;
692.7000;0.1229;-0.7912;
693.0000;0.1294;-0.7711;
693.3000;0.1245;-0.7761;
693.6000;0.1262;-0.7711;
693.9000;0.1229;-0.7812;
694.2000;0.1229;-0.7862;
694.5000;0.1294;-0.7611;
694.8000;0.1221;-0.7761;
695.1000;0.1221;-0.7862;
695.4000;0.1221;-0.7787;
695.7000;0.1188;-0.7912;
696.0000;0.1262;-0.7736;
696.3000;0.1335;-0.7560;
696.6000;0.1254;-0.7787;
696.9000;0.1237;-0.7837;
697.2000;0.1213;-0.7862;
697.5000;0.1245;-0.7812;
697.8000;0.1229;-0.7812;
698.1000;0.1245;-0.7812;
698.4000;0.1245;-0.7812;
698.7000;0.1254;-0.7862;
699.0000;0.1254;-0.7837;
699.3000;0.1262;-0.7736;
699.6000;0.1286;-0.7686;
699.9000;0.1254;-0.7736;
700.2000;0.1245;-0.7787;
700.5000;0.1221;-0.7912;
700.8000;0.1254;-0.7837;
701.1000;0.1245;-0.7862;
701.4000;0.1245;-0.7837;
701.7000;0.1254;-0.7761;
702.0000;0.1229;-0.7862;
702.3000;0.1237;-0.7837;
702.6000;0.1229;-0.7862;
702.9000;0.1262;-0.7862;
703.2000;0.1229;-0.7837;
703.5000;0.1254;-0.7761;
703.8000;0.1278;-0.7837;
704.1000;0.1205;-0.7937;
704.4000;0.1237;-0.7987;
704.7000;0.1245;-0.7912;
705.0000;0.1254;-0.7837;
705.3000;0.1229;-0.7937;
705.6000;0.1254;-0.7862;
705.9000;0.1254;-0.7912;
706.2000;0.1262;-0.7862;
706.5000;0.1254;-0.7962;
706.8000;0.1262;-0.7912;
707.1000;0.1254;-0.7912;
707.4000;0.1254;-0.8013;
707.7000;0.1172;-0.8214;
708.0000;0.1237;-0.8063;
708.3000;0.1245;-0.8063;
708.6000;0.1262;-0.7937;
708.9000;0.1237;-0.8063;
709.2000;0.1286;-0.7962;
709.5000;0.1237;-0.7962;
709.8000;0.1237;-0.7887;
710.1000;0.1237;-0.7887;
710.4000;0.1221;-0.7937;
710.7000;0.1237;-0.7812;
711.0000;0.1270;-0.7787;
711.3000;0.1262;-0.7761;
711.6000;0.1237;-0.7837;
711.9000;0.1245;-0.7887;
712.2000;0.1245;-0.7887;
712.5000;0.1254;-0.7912;
712.8000;0.1254;-0.7912;
713.1000;0.1237;-0.7862;
713.4000;0.1278;-0.7837;
713.7000;0.1270;-0.7887;
714.0000;0.1262;-0.7787;
714.3000;0.1254;-0.7736;
714.6000;0.1254;-0.7736;
714.9000;0.1286;-0.7636;
715.2000;0.1245;-0.7736;
715.5000;0.1262;-0.7887;
715.8000;0.1278;-0.7787;
716.1000;0.1278;-0.7787;
716.4000;0.1254;-0.7887;
716.7000;0.1197;-0.8013;
717.0000;0.1245;-0.7862;
717.3000;0.1245;-0.7862;
717.6000;0.1213;-0.7937;
717.9000;0.1213;-0.7837;
718.2000;0.1237;-0.7686;
718.5000;0.1245;-0.7636;
718.8000;0.1270;-0.7510;
719.1000;0.1254;-0.7611;
719.4000;0.1237;-0.7711;
719.7000;0.1245;-0.7787;
720.0000;0.1343;-0.7636;
720.3000;0.1237;-0.7837;
720.6000;0.1245;-0.7837;
720.9000;0.1245;-0.7862;
721.2000;0.1245;-0.7962;
721.5000;0.1237;-0.7962;
721.8000;0.1262;-0.7862;
722.1000;0.1245;-0.7787;
722.4000;0.1262;-0.7736;
722.7000;0.1278;-0.7611;
723.0000;0.1254;-0.7611;
723.3000;0.1262;-0.7535;
723.6000;0.1245;-0.7611;
723.9000;0.1254;-0.7586;
724.2000;0.1245;-0.7586;
724.5000;0.1213;-0.7787;
724.8000;0.1262;-0.7761;
725.1000;0.1229;-0.7887;
725.4000;0.1376;-0.7586;
725.7000;0.1205;-0.8038;
726.0000;0.1245;-0.7837;
726.3000;0.1262;-0.7761;
726.6000;0.1197;-0.7862;
726.9000;0.1245;-0.7761;
727.2000;0.1245;-0.7736;
727.5000;0.1278;-0.7711;
727.8000;0.1237;-0.7962;
728.1000;0.1294;-0.7937;
728.4000;0.1245;-0.7987;
728.7000;0.1245;-0.7987;
729.0000;0.1270;-0.7937;
729.3000;0.1262;-0.8013;
729.6000;0.1229;-0.8113;
729.9000;0.1254;-0.7987;
730.2000;0.1294;-0.7862;
730.5000;0.1229;-0.7987;
730.8000;0.1245;-0.8013;
731.1000;0.1245;-0.8038;
731.4000;0.1245;-0.8013;
731.7000;0.1237;-0.7887;
732.0000;0.1254;-0.7787;
732.3000;0.1245;-0.7837;
732.6000;0.1270;-0.7787;
732.9000;0.1286;-0.7812;
733.2000;0.1237;-0.7912;
733.5000;0.1270;-0.7761;
733.8000;0.1270;-0.7736;
734.1000;0.1254;-0.7761;
734.4000;0.1237;-0.7661;
734.7000;0.1205;-0.7736;
735.0000;0.1237;-0.7736;
735.3000;0.1286;-0.7611;
735.6000;0.1254;-0.7661;
735.9000;0.1254;-0.7661;
736.2000;0.1254;-0.7736;
736.5000;0.1245;-0.7636;
736.8000;0.1302;-0.7611;
737.1000;0.1254;-0.7736;
737.4000;0.1245;-0.7686;
737.7000;0.1197;-0.7837;
738.0000;0.1262;-0.7812;
738.3000;0.1270;-0.7812;
738.6000;0.1237;-0.7962;
738.9000;0.1245;-0.7962;
739.2000;0.1229;-0.8013;
739.5000;0.1213;-0.8063;
739.8000;0.1302;-0.7837;
740.1000;0.1245;-0.8013;
740.4000;0.1245;-0.7962;
740.7000;0.1237;-0.7937;
741.0000;0.1237;-0.7812;
741.3000;0.1221;-0.7837;
741.6000;0.1237;-0.7837;
741.9000;0.1262;-0.7736;
742.2000;0.1205;-0.7862;
742.5000;0.1245;-0.7837;
742.8000;0.1302;-0.7661;
743.1000;0.1221;-0.7862;
743.4000;0.1213;-0.7962;
743.7000;0.1237;-0.7912;
744.0000;0.1237;-0.7937;
744.3000;0.1237;-0.7987;
744.6000;0.1254;-0.8013;
744.9000;0.1229;-0.7987;
745.2000;0.1229;-0.7937;
745.5000;0.1237;-0.7862;
745.8000;0.1262;-0.7711;
746.1000;0.1294;-0.7636;
746.4000;0.1278;-0.7686;
746.7000;0.1237;-0.7837;
747.0000;0.1254;-0.7837;
747.3000;0.1221;-0.7962;
747.6000;0.1270;-0.7962;
747.9000;0.1278;-0.7962;
748.2000;0.1245;-0.8013;
748.5000;0.1188;-0.8113;
748.8000;0.1245;-0.7987;
749.1000;0.1359;-0.7686;
749.4000;0.1245;-0.7937;
749.7000;0.1254;-0.7887;
750.0000;0.1270;-0.7837;
750.3000;0.1254;-0.7862;
750.6000;0.1359;-0.7560;
750.9000;0.1245;-0.7887;
751.2000;0.1188;-0.8063;
751.5000;0.1254;-0.7912;
751.8000;0.1311;-0.7636;
752.1000;0.1262;-0.7761;
752.4000;0.1254;-0.7686;
752.7000;0.1245;-0.7812;
753.0000;0.1245;-0.7837;
753.3000;0.1245;-0.7862;
753.6000;0.1229;-0.7837;
753.9000;0.1294;-0.7661;
754.2000;0.1205;-0.7937;
754.5000;0.1245;-0.7837;
754.8000;0.1221;-0.7912;
755.1000;0.1245;-0.7862;
755.4000;0.1221;-0.7962;
755.7000;0.1254;-0.7837;
756.0000;0.1245;-0.7787;
756.3000;0.1327;-0.7560;
756.6000;0.1245;-0.7686;
756.9000;0.1262;-0.7586;
757.2000;0.1245;-0.7661;
757.5000;0.1229;-0.7787;
757.8000;0.1245;-0.7761;
758.1000;0.1294;-0.7661;
758.4000;0.1245;-0.7736;
758.7000;0.1229;-0.7761;
759.0000;0.1237;-0.7761;
759.3000;0.1188;-0.7962;
759.6000;0.1245;-0.7912;
759.9000;0.1262;-0.7962;
760.2000;0.1245;-0.7912;
760.5000;0.1245;-0.7912;
760.8000;0.1286;-0.7912;
761.1000;0.1270;-0.7962;
761.4000;0.1237;-0.8063;
761.7000;0.1245;-0.7987;
762.0000;0.1286;-0.7937;
762.3000;0.1254;-0.7987;
762.6000;0.1229;-0.8063;
762.9000;0.1254;-0.8138;
763.2000;0.1237;-0.8163;
763.5000;0.1245;-0.8063;
763.8000;0.1245;-0.7937;
764.1000;0.1229;-0.7862;
764.4000;0.1286;-0.7686;
764.7000;0.1254;-0.7837;
765.0000;0.1197;-0.7962;
765.3000;0.1229;-0.7862;
765.6000;0.1262;-0.7711;
765.9000;0.1270;-0.7686;
766.2000;0.1221;-0.7787;
766.5000;0.1205;-0.7837;
766.8000;0.1254;-0.7586;
767.1000;0.1245;-0.7560;
767.4000;0.1213;-0.7736;
767.7000;0.1229;-0.7686;
768.0000;0.1229;-0.7736;
768.3000;0.1270;-0.7636;
768.6000;0.1286;-0.7586;
768.9000;0.1205;-0.7787;
769.2000;0.1237;-0.7636;
769.5000;0.1254;-0.7686;
769.8000;0.1245;-0.7736;
770.1000;0.1286;-0.7560;
770.4000;0.1237;-0.7711;
770.7000;0.1254;-0.7736;
771.0000;0.1254;-0.7787;
771.3000;0.1262;-0.7736;
771.6000;0.1270;-0.7711;
771.9000;0.1294;-0.7661;
772.2000;0.1262;-0.7736;
772.5000;0.1270;-0.7686;
772.8000;0.1188;-0.7812;
773.1000;0.1245;-0.7611;
773.4000;0.1197;-0.7761;
773.7000;0.1262;-0.7636;
774.0000;0.1270;-0.7661;
774.3000;0.1245;-0.7636;
774.6000;0.1229;-0.7686;
774.9000;0.1229;-0.7636;
775.2000;0.1262;-0.7586;
775.5000;0.1262;-0.7611;
775.8000;0.1270;-0.7661;
776.1000;0.1286;-0.7661;
776.4000;0.1254;-0.7837;
776.7000;0.1270;-0.7812;
777.0000;0.1205;-0.7987;
777.3000;0.1245;-0.7837;
777.6000;0.1286;-0.7787;
777.9000;0.1270;-0.7837;
778.2000;0.1294;-0.7937;
778.5000;0.1278;-0.8013;
778.8000;0.1254;-0.7987;
779.1000;0.1229;-0.8038;
779.4000;0.1245;-0.7987;
779.7000;0.1262;-0.7937;
780.0000;0.1229;-0.8013;
780.3000;0.1213;-0.8088;
780.6000;0.1229;-0.8038;
780.9000;0.1229;-0.8138;
781.2000;0.1254;-0.8063;
781.5000;0.1286;-0.7887;
781.8000;0.1237;-0.8013;
782.1000;0.1262;-0.7887;
782.4000;0.1262;-0.7987;
782.7000;0.1262;-0.7912;
783.0000;0.1262;-0.7862;
783.3000;0.1221;-0.7937;
783.6000;0.1262;-0.7812;
783.9000;0.1237;-0.7711;
784.2000;0.1229;-0.7711;
784.5000;0.1270;-0.7636;
784.8000;0.1262;-0.7560;
785.1000;0.1254;-0.7636;
785.4000;0.1237;-0.7711;
785.7000;0.1311;-0.7611;
786.0000;0.1237;-0.7736;
786.3000;0.1254;-0.7636;
786.6000;0.1278;-0.7661;
786.9000;0.1262;-0.7661;
787.2000;0.1245;-0.7787;
787.5000;0.1254;-0.7787;
787.8000;0.1245;-0.7787;
788.1000;0.1245;-0.7761;
788.4000;0.1140;-0.8138;
788.7000;0.1229;-0.7937;
789.0000;0.1229;-0.7962;
789.3000;0.1229;-0.7887;
789.6000;0.1213;-0.7736;
789.9000;0.1229;-0.7761;
790.2000;0.1254;-0.7686;
790.5000;0.1302;-0.7586;
790.8000;0.1254;-0.7736;
791.1000;0.1237;-0.7761;
791.4000;0.1197;-0.7887;
791.7000;0.1229;-0.7837;
792.0000;0.1229;-0.7837;
792.3000;0.1254;-0.7787;
792.6000;0.1229;-0.7787;
792.9000;0.1237;-0.7787;
793.2000;0.1213;-0.7862;
793.5000;0.1237;-0.7711;
793.8000;0.1245;-0.7661;
794.1000;0.1148;-0.7887;
794.4000;0.1237;-0.7611;
794.7000;0.1262;-0.7586;
795.0000;0.1237;-0.7661;
795.3000;0.1262;-0.7636;
795.6000;0.1213;-0.7787;
795.9000;0.1237;-0.7787;
796.2000;0.1270;-0.7812;
796.5000;0.1229;-0.7812;
796.8000;0.1237;-0.7736;
797.1000;0.1254;-0.7711;
797.4000;0.1245;-0.7636;
797.7000;0.1270;-0.7535;
798.0000;0.1237;-0.7661;
798.3000;0.1254;-0.7661;
798.6000;0.1237;-0.7586;
798.9000;0.1262;-0.7485;
799.2000;0.1294;-0.7460;
799.5000;0.1254;-0.7636;
799.8000;0.1270;-0.7661;
800.1000;0.1254;-0.7787;
800.4000;0.1262;-0.7736;
800.7000;0.1245;-0.7812;
801.0000;0.1254;-0.7787;
801.3000;0.1229;-0.7812;
801.6000;0.1262;-0.7787;
801.9000;0.1262;-0.7912;
802.2000;0.1262;-0.7937;
802.5000;0.1286;-0.7887;
802.8000;0.1270;-0.7962;
803.1000;0.1237;-0.8013;
803.4000;0.1245;-0.7987;
803.7000;0.1254;-0.7912;
804.0000;0.1254;-0.7937;
804.3000;0.1164;-0.8289;
804.6000;0.1221;-0.8264;
804.9000;0.1221;-0.8289;
805.2000;0.1229;-0.8188;
805.5000;0.1270;-0.8088;
805.8000;0.1302;-0.8038;
806.1000;0.1254;-0.8088;
806.4000;0.1262;-0.8088;
806.7000;0.1237;-0.8088;
807.0000;0.1221;-0.7987;
807.3000;0.1213;-0.7962;
807.6000;0.1229;-0.7912;
807.9000;0.1237;-0.7887;
808.2000;0.1278;-0.7812;
808.5000;0.1180;-0.8138;
808.8000;0.1245;-0.7987;
809.1000;0.1254;-0.8013;
809.4000;0.1245;-0.7862;
809.7000;0.1237;-0.7887;
810.0000;0.1237;-0.7812;
810.3000;0.1270;-0.7711;
810.6000;0.1262;-0.7711;
810.9000;0.1262;-0.7787;
811.2000;0.1245;-0.7812;
811.5000;0.1286;-0.7661;
811.8000;0.1221;-0.7837;
812.1000;0.1254;-0.7736;
812.4000;0.1254;-0.7686;
812.7000;0.1254;-0.7736;
813.0000;0.1254;-0.7736;
813.3000;0.1245;-0.7787;
813.6000;0.1254;-0.7837;
813.9000;0.1245;-0.7887;
814.2000;0.1262;-0.7837;
814.5000;0.1245;-0.7912;
814.8000;0.1278;-0.7812;
815.1000;0.1237;-0.7937;
815.4000;0.1245;-0.7837;
815.7000;0.1245;-0.7887;
816.0000;0.1245;-0.7862;
816.3000;0.1254;-0.7912;
816.6000;0.1245;-0.7837;
816.9000;0.1254;-0.7837;
817.2000;0.1254;-0.7837;
817.5000;0.1237;-0.7862;
817.8000;0.1254;-0.7711;
818.1000;0.1262;-0.7661;
818.4000;0.1245;-0.7761;
818.7000;0.1221;-0.7787;
819.0000;0.1229;-0.7837;
819.3000;0.1229;-0.7937;
819.6000;0.1245;-0.7912;
819.9000;0.1278;-0.7862;
820.2000;0.1254;-0.7962;
820.5000;0.1245;-0.8113;
820.8000;0.1237;-0.8038;
821.1000;0.1262;-0.8038;
821.4000;0.1254;-0.7987;
821.7000;0.1262;-0.7887;
822.0000;0.1262;-0.7837;
822.3000;0.1262;-0.7736;
822.6000;0.1229;-0.7812;
822.9000;0.1270;-0.7636;
823.2000;0.1254;-0.7736;
823.5000;0.1286;-0.7636;
823.8000;0.1270;-0.7787;
824.1000;0.1205;-0.7837;
824.4000;0.1262;-0.7837;
824.7000;0.1245;-0.7937;
825.0000;0.1237;-0.7912;
825.3000;0.1188;-0.8038;
825.6000;0.1262;-0.7862;
825.9000;0.1262;-0.7837;
826.2000;0.1229;-0.7912;
826.5000;0.1237;-0.7987;
826.8000;0.1213;-0.7962;
827.1000;0.1262;-0.7711;
827.4000;0.1245;-0.7661;
827.7000;0.1197;-0.7862;
828.0000;0.1254;-0.7686;
828.3000;0.1197;-0.7761;
828.6000;0.1237;-0.7586;
828.9000;0.1278;-0.7460;
829.2000;0.1245;-0.7560;
829.5000;0.1254;-0.7485;
829.8000;0.1286;-0.7485;
830.1000;0.1245;-0.7510;
830.4000;0.1229;-0.7611;
830.7000;0.1245;-0.7560;
831.0000;0.1245;-0.7560;
831.3000;0.1229;-0.7586;
831.6000;0.1254;-0.7611;
831.9000;0.1262;-0.7636;
832.2000;0.1254;-0.7686;
832.5000;0.1245;-0.7661;
832.8000;0.1254;-0.7787;
833.1000;0.1237;-0.7987;
833.4000;0.1262;-0.7937;
833.7000;0.1270;-0.7887;
834.0000;0.1237;-0.7912;
834.3000;0.1245;-0.7862;
834.6000;0.1254;-0.7812;
834.9000;0.1254;-0.7862;
835.2000;0.1270;-0.7837;
835.5000;0.1245;-0.7862;
835.8000;0.1262;-0.7787;
836.1000;0.1262;-0.7787;
836.4000;0.1262;-0.7862;
836.7000;0.1270;-0.7837;
837.0000;0.1254;-0.7887;
837.3000;0.1270;-0.7812;
837.6000;0.1294;-0.7686;
837.9000;0.1245;-0.7787;
838.2000;0.1254;-0.7812;
838.5000;0.1262;-0.7862;
838.8000;0.1245;-0.7837;
839.1000;0.1245;-0.7862;
839.4000;0.1319;-0.7711;
839.7000;0.1270;-0.7787;
840.0000;0.1237;-0.7837;
840.3000;0.1237;-0.7787;
840.6000;0.1262;-0.7761;
840.9000;0.1229;-0.7761;
841.2000;0.1213;-0.7812;
841.5000;0.1180;-0.7887;
841.8000;0.1245;-0.7611;
842.1000;0.1205;-0.7761;
842.4000;0.1197;-0.7787;
842.7000;0.1245;-0.7736;
843.0000;0.1245;-0.7686;
843.3000;0.1254;-0.7761;
843.6000;0.1221;-0.7887;
843.9000;0.1245;-0.7711;
844.2000;0.1245;-0.7862;
844.5000;0.1237;-0.7987;
844.8000;0.1262;-0.8013;
845.1000;0.1229;-0.8063;
845.4000;0.1278;-0.7987;
845.7000;0.1245;-0.8138;
846.0000;0.1319;-0.7862;
846.3000;0.1245;-0.7912;
846.6000;0.1245;-0.7937;
846.9000;0.1327;-0.7636;
847.2000;0.1229;-0.7862;
847.5000;0.1213;-0.7862;
847.8000;0.1229;-0.7761;
848.1000;0.1327;-0.7560;
848.4000;0.1262;-0.7862;
848.7000;0.1254;-0.7887;
849.0000;0.1229;-0.7987;
849.3000;0.1262;-0.7987;
849.6000;0.1254;-0.8013;
849.9000;0.1254;-0.8038;
850.2000;0.1237;-0.8088;
850.5000;0.1245;-0.8038;
850.8000;0.1286;-0.7937;
851.1000;0.1254;-0.7987;
851.4000;0.1343;-0.7661;
851.7000;0.1262;-0.7837;
852.0000;0.1237;-0.7812;
852.3000;0.1270;-0.7837;
852.6000;0.1237;-0.7887;
852.9000;0.1262;-0.7862;
853.2000;0.1254;-0.7761;
853.5000;0.1262;-0.7661;
853.8000;0.1254;-0.7711;
854.1000;0.1245;-0.7711;
854.4000;0.1270;-0.7661;
854.7000;0.1245;-0.7636;
855.0000;0.1262;-0.7611;
855.3000;0.1245;-0.7661;
855.6000;0.1237;-0.7586;
855.9000;0.1254;-0.7485;
856.2000;0.1245;-0.7510;
856.5000;0.1180;-0.7761;
856.8000;0.1237;-0.7711;
857.1000;0.1254;-0.7736;
857.4000;0.1254;-0.7661;
857.7000;0.1221;-0.7812;
858.0000;0.1245;-0.7761;
858.3000;0.1245;-0.7787;
858.6000;0.1278;-0.7661;
858.9000;0.1237;-0.7736;
859.2000;0.1270;-0.7586;
859.5000;0.1278;-0.7586;
859.8000;0.1294;-0.7661;
860.1000;0.1237;-0.7837;
860.4000;0.1237;-0.7862;
860.7000;0.1254;-0.7837;
861.0000;0.1245;-0.7837;
861.3000;0.1237;-0.7837;
861.6000;0.1270;-0.7711;
861.9000;0.1221;-0.7812;
862.2000;0.1188;-0.7887;
862.5000;0.1278;-0.7736;
862.8000;0.1237;-0.7837;
863.1000;0.1254;-0.7987;
863.4000;0.1254;-0.7962;
863.7000;0.1262;-0.7987;
864.0000;0.1254;-0.7912;
864.3000;0.1245;-0.7862;
864.6000;0.1294;-0.7761;
864.9000;0.1254;-0.7837;
865.2000;0.1270;-0.7761;
865.5000;0.1294;-0.7736;
865.8000;0.1229;-0.7962;
866.1000;0.1262;-0.7937;
866.4000;0.1229;-0.7987;
866.7000;0.1245;-0.7812;
867.0000;0.1229;-0.7862;
867.3000;0.1221;-0.7912;
867.6000;0.1254;-0.7812;
867.9000;0.1237;-0.7787;
868.2000;0.1254;-0.7736;
868.5000;0.1213;-0.7812;
868.8000;0.1245;-0.7761;
869.1000;0.1302;-0.7686;
869.4000;0.1237;-0.7912;
869.7000;0.1245;-0.7937;
870.0000;0.1237;-0.7937;
870.3000;0.1254;-0.7962;
870.6000;0.1245;-0.7962;
870.9000;0.1245;-0.7937;
871.2000;0.1319;-0.7711;
871.5000;0.1221;-0.7887;
871.8000;0.1245;-0.7887;
872.1000;0.1245;-0.7912;
872.4000;0.1254;-0.7912;
872.7000;0.1262;-0.7912;
873.0000;0.1237;-0.7912;
873.3000;0.1245;-0.7887;
873.6000;0.1229;-0.7912;
873.9000;0.1254;-0.7812;
874.2000;0.1245;-0.7812;
874.5000;0.1262;-0.7837;
874.8000;0.1237;-0.7962;
875.1000;0.1262;-0.7962;
875.4000;0.1262;-0.7937;
875.7000;0.1237;-0.8013;
876.0000;0.1286;-0.7962;
876.3000;0.1245;-0.8088;
876.6000;0.1254;-0.7962;
876.9000;0.1140;-0.8264;
877.2000;0.1245;-0.7862;
877.5000;0.1237;-0.7862;
877.8000;0.1254;-0.7787;
878.1000;0.1205;-0.7912;
878.4000;0.1245;-0.7837;
878.7000;0.1254;-0.7837;
879.0000;0.1237;-0.7812;
879.3000;0.1262;-0.7812;
879.6000;0.1221;-0.7887;
879.9000;0.1237;-0.7887;
880.2000;0.1245;-0.7962;
880.5000;0.1254;-0.7962;
880.8000;0.1245;-0.7987;
881.1000;0.1286;-0.7962;
881.4000;0.1262;-0.7987;
881.7000;0.1254;-0.8013;
882.0000;0.1270;-0.8088;
882.3000;0.1221;-0.8239;
882.6000;0.1245;-0.8038;
882.9000;0.1254;-0.8038;
883.2000;0.1245;-0.8138;
883.5000;0.1237;-0.8063;
883.8000;0.1245;-0.7912;
884.1000;0.1262;-0.7862;
884.4000;0.1254;-0.7987;
884.7000;0.1262;-0.7937;
885.0000;0.1270;-0.7887;
885.3000;0.1262;-0.7912;
885.6000;0.1254;-0.7887;
885.9000;0.1254;-0.7837;
886.2000;0.1205;-0.7887;
886.5000;0.1229;-0.7937;
886.8000;0.1229;-0.7912;
887.1000;0.1245;-0.7937;
887.4000;0.1294;-0.7787;
887.7000;0.1262;-0.7887;
888.0000;0.1213;-0.7912;
888.3000;0.1237;-0.7862;
888.6000;0.1245;-0.7887;
888.9000;0.1262;-0.7912;
889.2000;0.1213;-0.8063;
889.5000;0.1245;-0.7987;
889.8000;0.1229;-0.7937;
890.1000;0.1221;-0.7987;
890.4000;0.1262;-0.7887;
890.7000;0.1229;-0.8013;
891.0000;0.1262;-0.8013;
891.3000;0.1237;-0.8113;
891.6000;0.1237;-0.8138;
891.9000;0.1205;-0.8214;
892.2000;0.1245;-0.8013;
892.5000;0.1245;-0.8013;
892.8000;0.1254;-0.7887;
893.1000;0.1245;-0.7837;
893.4000;0.1245;-0.7787;
893.7000;0.1254;-0.7812;
894.0000;0.1245;-0.7837;
894.3000;0.1294;-0.7787;
894.6000;0.1262;-0.7837;
894.9000;0.1221;-0.7937;
895.2000;0.1197;-0.8113;
895.5000;0.1237;-0.7962;
895.8000;0.1237;-0.7912;
896.1000;0.1237;-0.7962;
896.4000;0.1254;-0.7937;
896.7000;0.1270;-0.7937;
897.0000;0.1229;-0.8038;
897.3000;0.1262;-0.7987;
897.6000;0.1245;-0.7937;
897.9000;0.1229;-0.7937;
898.2000;0.1180;-0.8063;
898.5000;0.1254;-0.7812;
898.8000;0.1237;-0.7837;
899.1000;0.1237;-0.7812;
899.4000;0.1319;-0.7711;
899.7000;0.1245;-0.7937;
900.0000;0.1221;-0.7987;
900.3000;0.1229;-0.7937;
900.6000;0.1237;-0.7962;
900.9000;0.1229;-0.8013;
901.2000;0.1213;-0.7987;
901.5000;0.1221;-0.8038;
901.8000;0.1254;-0.7937;
902.1000;0.1221;-0.7987;
902.4000;0.1197;-0.8063;
902.7000;0.1213;-0.7962;
903.0000;0.1245;-0.7912;
903.3000;0.1262;-0.7962;
903.6000;0.1278;-0.7912;
903.9000;0.1270;-0.7787;
904.2000;0.1245;-0.7837;
904.5000;0.1278;-0.7711;
904.8000;0.1245;-0.7787;
905.1000;0.1278;-0.7686;
905.4000;0.1278;-0.7711;
905.7000;0.1286;-0.7736;
906.0000;0.1213;-0.7987;
906.3000;0.1245;-0.7812;
906.6000;0.1245;-0.7837;
906.9000;0.1294;-0.7686;
907.2000;0.1237;-0.7787;
907.5000;0.1278;-0.7686;
907.8000;0.1254;-0.7787;
908.1000;0.1245;-0.7837;
908.4000;0.1270;-0.7837;
908.7000;0.1254;-0.7887;
909.0000;0.1254;-0.7962;
909.3000;0.1237;-0.7937;
909.6000;0.1262;-0.7862;
909.9000;0.1245;-0.7887;
910.2000;0.1245;-0.7912;
910.5000;0.1245;-0.8013;
910.8000;0.1392;-0.7636;
911.1000;0.1262;-0.8088;
911.4000;0.1270;-0.8088;
911.7000;0.1343;-0.7837;
912.0000;0.1254;-0.8063;
912.3000;0.1262;-0.8038;
912.6000;0.1245;-0.8063;
912.9000;0.1245;-0.7937;
913.2000;0.1254;-0.7962;
913.5000;0.1245;-0.7912;
913.8000;0.1262;-0.7787;
914.1000;0.1237;-0.7837;
914.4000;0.1254;-0.7812;
914.7000;0.1229;-0.8013;
915.0000;0.1245;-0.7962;
915.3000;0.1188;-0.8013;
915.6000;0.1237;-0.7862;
915.9000;0.1229;-0.7812;
916.2000;0.1245;-0.7887;
916.5000;0.1254;-0.7862;
916.8000;0.1245;-0.7912;
917.1000;0.1286;-0.7837;
917.4000;0.1262;-0.7937;
917.7000;0.1262;-0.7937;
918.0000;0.1262;-0.8013;
918.3000;0.1237;-0.8088;
918.6000;0.1270;-0.8038;
918.9000;0.1237;-0.8088;
919.2000;0.1237;-0.7987;
919.5000;0.1245;-0.8013;
919.8000;0.1270;-0.7887;
920.1000;0.1270;-0.7862;
920.4000;0.1237;-0.7912;
920.7000;0.1270;-0.7837;
921.0000;0.1221;-0.7912;
921.3000;0.1237;-0.7812;
921.6000;0.1237;-0.7837;
921.9000;0.1245;-0.7862;
922.2000;0.1245;-0.7837;
922.5000;0.1245;-0.7887;
922.8000;0.1245;-0.7912;
923.1000;0.1262;-0.7761;
923.4000;0.1286;-0.7661;
923.7000;0.1343;-0.7485;
924.0000;0.1245;-0.7761;
924.3000;0.1229;-0.7837;
924.6000;0.1254;-0.7736;
924.9000;0.1237;-0.7862;
925.2000;0.1237;-0.7761;
925.5000;0.1245;-0.7761;
925.8000;0.1229;-0.7912;
926.1000;0.1229;-0.7862;
926.4000;0.1245;-0.7887;
926.7000;0.1237;-0.7912;
927.0000;0.1229;-0.7862;
927.3000;0.1229;-0.7787;
927.6000;0.1254;-0.7812;
927.9000;0.1270;-0.7736;
928.2000;0.1278;-0.7711;
928.5000;0.1237;-0.7837;
928.8000;0.1270;-0.7837;
929.1000;0.1237;-0.7862;
929.4000;0.1245;-0.7862;
929.7000;0.1237;-0.7862;
930.0000;0.1245;-0.7812;
930.3000;0.1262;-0.7812;
930.6000;0.1254;-0.7787;
930.9000;0.1286;-0.7812;
931.2000;0.1221;-0.8088;
931.5000;0.1254;-0.8188;
931.8000;0.1262;-0.8138;
932.1000;0.1245;-0.8188;
932.4000;0.1262;-0.8163;
932.7000;0.1245;-0.8188;
933.0000;0.1270;-0.8088;
933.3000;0.1245;-0.8138;
933.6000;0.1254;-0.8113;
933.9000;0.1245;-0.8113;
934.2000;0.1278;-0.7962;
934.5000;0.1254;-0.8063;
934.8000;0.1335;-0.7812;
935.1000;0.1254;-0.8088;
935.4000;0.1262;-0.8038;
935.7000;0.1237;-0.8088;
936.0000;0.1229;-0.8163;
936.3000;0.1237;-0.8038;
936.6000;0.1205;-0.8188;
936.9000;0.1229;-0.8063;
937.2000;0.1270;-0.7962;
937.5000;0.1254;-0.7962;
937.8000;0.1229;-0.8163;
938.1000;0.1254;-0.8214;
938.4000;0.1245;-0.8188;
938.7000;0.1262;-0.8188;
939.0000;0.1254;-0.8188;
939.3000;0.1237;-0.8163;
939.6000;0.1245;-0.8088;
939.9000;0.1270;-0.8038;
940.2000;0.1254;-0.7987;
940.5000;0.1245;-0.8038;
940.8000;0.1278;-0.8013;
941.1000;0.1262;-0.7962;
941.4000;0.1262;-0.7912;
941.7000;0.1245;-0.7887;
942.0000;0.1229;-0.8013;
942.3000;0.1311;-0.7962;
942.6000;0.1270;-0.7987;
942.9000;0.1286;-0.8038;
943.2000;0.1245;-0.8138;
943.5000;0.1237;-0.8163;
943.8000;0.1270;-0.7987;
944.1000;0.1254;-0.8063;
944.4000;0.1245;-0.8038;
944.7000;0.1262;-0.8088;
945.0000;0.1237;-0.8163;
945.3000;0.1245;-0.8163;
945.6000;0.1237;-0.8163;
945.9000;0.1229;-0.8063;
946.2000;0.1245;-0.7912;
946.5000;0.1254;-0.7837;
946.8000;0.1392;-0.7535;
947.1000;0.1245;-0.7837;
947.4000;0.1245;-0.7812;
947.7000;0.1278;-0.7812;
948.0000;0.1262;-0.7862;
948.3000;0.1262;-0.7837;
948.6000;0.1237;-0.7837;
948.9000;0.1262;-0.7711;
949.2000;0.1237;-0.7736;
949.5000;0.1205;-0.7912;
949.8000;0.1245;-0.7837;
950.1000;0.1245;-0.7887;
950.4000;0.1254;-0.7837;
950.7000;0.1237;-0.7887;
951.0000;0.1205;-0.7987;
951.3000;0.1229;-0.7912;
951.6000;0.1286;-0.7736;
951.9000;0.1245;-0.7987;
952.2000;0.1245;-0.8038;
952.5000;0.1311;-0.7937;
952.8000;0.1262;-0.8113;
953.1000;0.1262;-0.7987;
953.4000;0.1254;-0.7962;
953.7000;0.1262;-0.8038;
954.0000;0.1262;-0.8013;
954.3000;0.1262;-0.8038;
954.6000;0.1262;-0.8113;
954.9000;0.1286;-0.8038;
955.2000;0.1262;-0.8038;
955.5000;0.1245;-0.8113;
955.8000;0.1237;-0.8138;
956.1000;0.1229;-0.8063;
956.4000;0.1213;-0.8038;
956.7000;0.1237;-0.7987;
957.0000;0.1245;-0.7937;
957.3000;0.1237;-0.7787;
957.6000;0.1254;-0.7761;
957.9000;0.1254;-0.7736;
958.2000;0.1237;-0.7736;
958.5000;0.1254;-0.7837;
958.8000;0.1237;-0.7812;
959.1000;0.1237;-0.7787;
959.4000;0.1229;-0.7787;
959.7000;0.1164;-0.7987;
960.0000;0.1237;-0.7812;
960.3000;0.1254;-0.7736;
960.6000;0.1270;-0.7837;
960.9000;0.1229;-0.8038;
961.2000;0.1254;-0.8088;
961.5000;0.1237;-0.8088;
961.8000;0.1254;-0.8113;
962.1000;0.1262;-0.8113;
962.4000;0.1229;-0.8138;
962.7000;0.1254;-0.8038;
963.0000;0.1254;-0.8063;
963.3000;0.1245;-0.8138;
963.6000;0.1245;-0.8013;
963.9000;0.1245;-0.8038;
964.2000;0.1245;-0.8038;
964.5000;0.1262;-0.7987;
964.8000;0.1254;-0.8013;
965.1000;0.1245;-0.8038;
965.4000;0.1254;-0.8063;
965.7000;0.1213;-0.8163;
966.0000;0.1245;-0.8038;
966.3000;0.1237;-0.7987;
966.6000;0.1245;-0.7987;
966.9000;0.1237;-0.7987;
967.2000;0.1254;-0.7912;
967.5000;0.1254;-0.7887;
967.8000;0.1254;-0.7837;
968.1000;0.1262;-0.7887;
968.4000;0.1188;-0.8063;
968.7000;0.1229;-0.8013;
969.0000;0.1197;-0.8163;
969.3000;0.1270;-0.7912;
969.6000;0.1262;-0.7987;
969.9000;0.1245;-0.8013;
970.2000;0.1254;-0.8113;
970.5000;0.1221;-0.8239;
970.8000;0.1262;-0.8214;
971.1000;0.1270;-0.8188;
971.4000;0.1245;-0.8264;
971.7000;0.1237;-0.8163;
972.0000;0.1237;-0.8113;
972.3000;0.1237;-0.8063;
972.6000;0.1254;-0.8013;
972.9000;0.1270;-0.8063;
973.2000;0.1278;-0.8038;
973.5000;0.1319;-0.7987;
973.8000;0.1254;-0.8138;
974.1000;0.1254;-0.8113;
974.4000;0.1311;-0.8038;
974.7000;0.1278;-0.8239;
975.0000;0.1221;-0.8364;
975.3000;0.1237;-0.8289;
975.6000;0.1286;-0.8214;
975.9000;0.1262;-0.8239;
976.2000;0.1245;-0.8239;
976.5000;0.1254;-0.8113;
976.8000;0.1245;-0.7962;
977.1000;0.1237;-0.7887;
977.4000;0.1229;-0.7887;
977.7000;0.1254;-0.7761;
978.0000;0.1262;-0.7736;
978.3000;0.1254;-0.7736;
978.6000;0.1286;-0.7711;
978.9000;0.1229;-0.7887;
979.2000;0.1254;-0.7912;
979.5000;0.1245;-0.7962;
979.8000;0.1254;-0.8013;
980.1000;0.1245;-0.8063;
980.4000;0.1237;-0.8038;
980.7000;0.1254;-0.7962;
981.0000;0.1262;-0.7987;
981.3000;0.1278;-0.7987;
981.6000;0.1237;-0.8088;
981.9000;0.1237;-0.8138;
982.2000;0.1270;-0.7987;
982.5000;0.1254;-0.8038;
982.8000;0.1237;-0.8013;
983.1000;0.1327;-0.7761;
983.4000;0.1245;-0.7987;
983.7000;0.1245;-0.8038;
984.0000;0.1245;-0.7987;
984.3000;0.1254;-0.7987;
984.6000;0.1270;-0.7962;
984.9000;0.1270;-0.7987;
985.2000;0.1254;-0.7962;
985.5000;0.1254;-0.8013;
985.8000;0.1254;-0.7987;
986.1000;0.1254;-0.8038;
986.4000;0.1229;-0.7937;
986.7000;0.1254;-0.7912;
987.0000;0.1262;-0.7937;
987.3000;0.1319;-0.7862;
987.6000;0.1245;-0.7962;
987.9000;0.1254;-0.8013;
988.2000;0.1229;-0.8113;
988.5000;0.1254;-0.8163;
988.8000;0.1254;-0.8188;
989.1000;0.1262;-0.8214;
989.4000;0.1229;-0.8339;
989.7000;0.1286;-0.8138;
990.0000;0.1262;-0.8088;
990.3000;0.1237;-0.8088;
990.6000;0.1245;-0.8138;
990.9000;0.1245;-0.8163;
991.2000;0.1205;-0.8188;
991.5000;0.1237;-0.8088;
991.8000;0.1245;-0.8163;
992.1000;0.1245;-0.8188;
992.4000;0.1229;-0.8163;
992.7000;0.1270;-0.8113;
993.0000;0.1237;-0.8088;
993.3000;0.1254;-0.8038;
993.6000;0.1254;-0.8038;
993.9000;0.1270;-0.7987;
994.2000;0.1262;-0.8063;
994.5000;0.1229;-0.8113;
994.8000;0.1262;-0.8038;
995.1000;0.1254;-0.8113;
995.4000;0.1213;-0.8214;
995.7000;0.1148;-0.8389;
996.0000;0.1254;-0.8038;
996.3000;0.1221;-0.8163;
996.6000;0.1294;-0.8013;
996.9000;0.1245;-0.8038;
997.2000;0.1270;-0.7987;
997.5000;0.1221;-0.8063;
997.8000;0.1245;-0.8063;
998.1000;0.1254;-0.8063;
998.4000;0.1270;-0.7937;
998.7000;0.1302;-0.7912;
999.0000;0.1262;-0.7987;
999.3000;0.1262;-0.7987;
999.6000;0.1254;-0.8038;
999.9000;0.1237;-0.8088;
1000.2000;0.1254;-0.7962;
1000.5000;0.1286;-0.7987;
1000.8000;0.1245;-0.8138;
1001.1000;0.1254;-0.8088;
1001.4000;0.1221;-0.8138;
1001.7000;0.1237;-0.8138;
1002.0000;0.1270;-0.8113;
1002.3000;0.1237;-0.8239;
1002.6000;0.1245;-0.8163;
1002.9000;0.1229;-0.8214;
1003.2000;0.1213;-0.8314;
1003.5000;0.1319;-0.8038;
1003.8000;0.1262;-0.8088;
1004.1000;0.1262;-0.8138;
1004.4000;0.1237;-0.8214;
1004.7000;0.1262;-0.8088;
1005.0000;0.1245;-0.8088;
1005.3000;0.1245;-0.8088;
1005.6000;0.1237;-0.8113;
1005.9000;0.1262;-0.8013;
1006.2000;0.1213;-0.8138;
1006.5000;0.1245;-0.8013;
1006.8000;0.1262;-0.8013;
1007.1000;0.1237;-0.8038;
1007.4000;0.1229;-0.7962;
1007.7000;0.1237;-0.7887;
1008.0000;0.1237;-0.7937;
1008.3000;0.1254;-0.7862;
1008.6000;0.1221;-0.7912;
1008.9000;0.1245;-0.7862;
1009.2000;0.1213;-0.8038;
1009.5000;0.1254;-0.8038;
1009.8000;0.1229;-0.8188;
1010.1000;0.1262;-0.8063;
1010.4000;0.1262;-0.8063;
1010.7000;0.1262;-0.8038;
1011.0000;0.1254;-0.8038;
1011.3000;0.1229;-0.8163;
1011.6000;0.1221;-0.8264;
1011.9000;0.1262;-0.8088;
1012.2000;0.1351;-0.7787;
1012.5000;0.1270;-0.8013;
1012.8000;0.1245;-0.7987;
1013.1000;0.1237;-0.7987;
1013.4000;0.1229;-0.8088;
1013.7000;0.1245;-0.8138;
1014.0000;0.1278;-0.8188;
1014.3000;0.1254;-0.8113;
1014.6000;0.1197;-0.8163;
1014.9000;0.1245;-0.7962;
1015.2000;0.1327;-0.7761;
1015.5000;0.1245;-0.7987;
1015.8000;0.1221;-0.8088;
1016.1000;0.1270;-0.8038;
1016.4000;0.1270;-0.8138;
1016.7000;0.1262;-0.8038;
1017.0000;0.1262;-0.8038;
1017.3000;0.1254;-0.8013;
1017.6000;0.1254;-0.7962;
1017.9000;0.1156;-0.8264;
1018.2000;0.1221;-0.8088;
1018.5000;0.1213;-0.8138;
1018.8000;0.1262;-0.8138;
1019.1000;0.1262;-0.8188;
1019.4000;0.1262;-0.8113;
1019.7000;0.1245;-0.8163;
1020.0000;0.1237;-0.8214;
1020.3000;0.1245;-0.8088;
1020.6000;0.1237;-0.8188;
1020.9000;0.1254;-0.8188;
1021.2000;0.1237;-0.8188;
1021.5000;0.1229;-0.8214;
1021.8000;0.1254;-0.8038;
1022.1000;0.1245;-0.8063;
1022.4000;0.1245;-0.8063;
1022.7000;0.1270;-0.8013;
1023.0000;0.1262;-0.8063;
1023.3000;0.1254;-0.8013;
1023.6000;0.1278;-0.7887;
1023.9000;0.1245;-0.7987;
1024.2000;0.1278;-0.7912;
1024.5000;0.1245;-0.8038;
1024.8000;0.1262;-0.8063;
1025.1000;0.1213;-0.8239;
1025.4000;0.1270;-0.8088;
1025.7000;0.1237;-0.8013;
1026.0000;0.1245;-0.7962;
1026.3000;0.1262;-0.7937;
1026.6000;0.1262;-0.7937;
1026.9000;0.1237;-0.7987;
1027.2000;0.1237;-0.7987;
1027.5000;0.1237;-0.7887;
1027.8000;0.1262;-0.7937;
1028.1000;0.1237;-0.7887;
1028.4000;0.1237;-0.7962;
1028.7000;0.1262;-0.7962;
1029.0000;0.1270;-0.7937;
1029.3000;0.1270;-0.7962;
1029.6000;0.1148;-0.8289;
1029.9000;0.1245;-0.8088;
1030.2000;0.1254;-0.8138;
1030.5000;0.1254;-0.8163;
1030.8000;0.1270;-0.8113;
1031.1000;0.1254;-0.8163;
1031.4000;0.1262;-0.8163;
1031.7000;0.1262;-0.8063;
1032.0000;0.1254;-0.8088;
1032.3000;0.1245;-0.8113;
1032.6000;0.1229;-0.8063;
1032.9000;0.1229;-0.8038;
1033.2000;0.1237;-0.8013;
1033.5000;0.1237;-0.8088;
1033.8000;0.1237;-0.8063;
1034.1000;0.1221;-0.7987;
1034.4000;0.1254;-0.7837;
1034.7000;0.1213;-0.7962;
1035.0000;0.1237;-0.7862;
1035.3000;0.1245;-0.7962;
1035.6000;0.1262;-0.8013;
1035.9000;0.1245;-0.7987;
1036.2000;0.1254;-0.7937;
1036.5000;0.1286;-0.7837;
1036.8000;0.1254;-0.7937;
1037.1000;0.1237;-0.7937;
1037.4000;0.1245;-0.7912;
1037.7000;0.1245;-0.7912;
1038.0000;0.1270;-0.7887;
1038.3000;0.1359;-0.7686;
1038.6000;0.1311;-0.7761;
1038.9000;0.1245;-0.7937;
1039.2000;0.1286;-0.7937;
1039.5000;0.1311;-0.7862;
1039.8000;0.1254;-0.8063;
1040.1000;0.1245;-0.8013;
1040.4000;0.1262;-0.8013;
1040.7000;0.1237;-0.8088;
1041.0000;0.1205;-0.8163;
1041.3000;0.1254;-0.8163;
1041.6000;0.1245;-0.8188;
1041.9000;0.1254;-0.8088;
1042.2000;0.1245;-0.8038;
1042.5000;0.1213;-0.8113;
1042.8000;0.1245;-0.8088;
1043.1000;0.1254;-0.8138;
1043.4000;0.1237;-0.8163;
1043.7000;0.1237;-0.8138;
1044.0000;0.1245;-0.8088;
1044.3000;0.1237;-0.8113;
1044.6000;0.1262;-0.8163;
1044.9000;0.1262;-0.8138;
1045.2000;0.1245;-0.8038;
1045.5000;0.1245;-0.7987;
1045.8000;0.1262;-0.7912;
1046.1000;0.1254;-0.7887;
1046.4000;0.1245;-0.7987;
1046.7000;0.1262;-0.7937;
1047.0000;0.1245;-0.7987;
1047.3000;0.1245;-0.7887;
1047.6000;0.1245;-0.7761;
1047.9000;0.1254;-0.7736;
1048.2000;0.1237;-0.7862;
1048.5000;0.1278;-0.7787;
1048.8000;0.1229;-0.7887;
1049.1000;0.1237;-0.7937;
1049.4000;0.1237;-0.7937;
1049.7000;0.1245;-0.7912;
1050.0000;0.1254;-0.7962;
1050.3000;0.1245;-0.7962;
1050.6000;0.1229;-0.7962;
1050.9000;0.1254;-0.8013;
1051.2000;0.1254;-0.8038;
1051.5000;0.1270;-0.7987;
1051.8000;0.1311;-0.7787;
1052.1000;0.1237;-0.7937;
1052.4000;0.1262;-0.7837;
1052.7000;0.1180;-0.7987;
1053.0000;0.1180;-0.8038;
1053.3000;0.1221;-0.7787;
1053.6000;0.1262;-0.7787;
1053.9000;0.1294;-0.7761;
1054.2000;0.1278;-0.7761;
1054.5000;0.1229;-0.7912;
1054.8000;0.1335;-0.7761;
1055.1000;0.1270;-0.7912;
1055.4000;0.1229;-0.7962;
1055.7000;0.1237;-0.7862;
1056.0000;0.1254;-0.7912;
1056.3000;0.1237;-0.7887;
1056.6000;0.1213;-0.7887;
1056.9000;0.1245;-0.7837;
1057.2000;0.1205;-0.7962;
1057.5000;0.1245;-0.7937;
1057.8000;0.1254;-0.7862;
1058.1000;0.1351;-0.7686;
1058.4000;0.1237;-0.8113;
1058.7000;0.1262;-0.7937;
1059.0000;0.1254;-0.7937;
1059.3000;0.1254;-0.7987;
1059.6000;0.1254;-0.8038;
1059.9000;0.1262;-0.8063;
1060.2000;0.1221;-0.8214;
1060.5000;0.1229;-0.8138;
1060.8000;0.1302;-0.7887;
1061.1000;0.1254;-0.7962;
1061.4000;0.1148;-0.8264;
1061.7000;0.1278;-0.7912;
1062.0000;0.1262;-0.7912;
1062.3000;0.1294;-0.7837;
1062.6000;0.1229;-0.8088;
1062.9000;0.1221;-0.8113;
1063.2000;0.1229;-0.8038;
1063.5000;0.1245;-0.7987;
1063.8000;0.1270;-0.7912;
1064.1000;0.1245;-0.7912;
1064.4000;0.1245;-0.7987;
1064.7000;0.1270;-0.7987;
1065.0000;0.1270;-0.7937;
1065.3000;0.1254;-0.7912;
1065.6000;0.1262;-0.7837;
1065.9000;0.1278;-0.7761;
1066.2000;0.1254;-0.7837;
1066.5000;0.1294;-0.7887;
1066.8000;0.1262;-0.7962;
1067.1000;0.1254;-0.8013;
1067.4000;0.1270;-0.7962;
1067.7000;0.1188;-0.8214;
1068.0000;0.1245;-0.8138;
1068.3000;0.1270;-0.8188;
1068.6000;0.1278;-0.8289;
1068.9000;0.1229;-0.8364;
1069.2000;0.1164;-0.8490;
1069.5000;0.1221;-0.8239;
1069.8000;0.1262;-0.8214;
1070.1000;0.1180;-0.8440;
1070.4000;0.1245;-0.8214;
1070.7000;0.1229;-0.8188;
1071.0000;0.1311;-0.7937;
1071.3000;0.1221;-0.8088;
1071.6000;0.1237;-0.7962;
1071.9000;0.1270;-0.7912;
1072.2000;0.1254;-0.7862;
1072.5000;0.1254;-0.7837;
1072.8000;0.1188;-0.8038;
1073.1000;0.1245;-0.7912;
1073.4000;0.1197;-0.8088;
1073.7000;0.1262;-0.8063;
1074.0000;0.1254;-0.8088;
1074.3000;0.1254;-0.7987;
1074.6000;0.1245;-0.7837;
1074.9000;0.1254;-0.7812;
1075.2000;0.1221;-0.7812;
1075.5000;0.1245;-0.7761;
1075.8000;0.1254;-0.7787;
1076.1000;0.1245;-0.7812;
1076.4000;0.1237;-0.7887;
1076.7000;0.1237;-0.7962;
1077.0000;0.1302;-0.7711;
1077.3000;0.1205;-0.7887;
1077.6000;0.1262;-0.7837;
1077.9000;0.1205;-0.7912;
1078.2000;0.1237;-0.7912;
1078.5000;0.1237;-0.7862;
1078.8000;0.1327;-0.7611;
1079.1000;0.1262;-0.7787;
1079.4000;0.1254;-0.7837;
1079.7000;0.1254;-0.7761;
1080.0000;0.1245;-0.7812;
1080.3000;0.1270;-0.7761;
1080.6000;0.1254;-0.7837;
1080.9000;0.1245;-0.7912;
1081.2000;0.1245;-0.7862;
1081.5000;0.1286;-0.7787;
1081.8000;0.1254;-0.7787;
1082.1000;0.1237;-0.7887;
1082.4000;0.1197;-0.8163;
1082.7000;0.1254;-0.7987;
1083.0000;0.1237;-0.8013;
1083.3000;0.1254;-0.8038;
1083.6000;0.1237;-0.8088;
1083.9000;0.1270;-0.7987;
1084.2000;0.1237;-0.8063;
1084.5000;0.1311;-0.7736;
1084.8000;0.1262;-0.7962;
1085.1000;0.1262;-0.7962;
1085.4000;0.1335;-0.7686;
1085.7000;0.1262;-0.7887;
1086.0000;0.1254;-0.7887;
1086.3000;0.1254;-0.7962;
1086.6000;0.1221;-0.8063;
1086.9000;0.1221;-0.8113;
1087.2000;0.1164;-0.8264;
1087.5000;0.1197;-0.8188;
1087.8000;0.1245;-0.8063;
1088.1000;0.1245;-0.8088;
1088.4000;0.1278;-0.8038;
1088.7000;0.1294;-0.7987;
1089.0000;0.1270;-0.8013;
1089.3000;0.1197;-0.8163;
1089.6000;0.1254;-0.8013;
1089.9000;0.1245;-0.8063;
1090.2000;0.1254;-0.8088;
1090.5000;0.1335;-0.7862;
1090.8000;0.1254;-0.7987;
1091.1000;0.1245;-0.8038;
1091.4000;0.1278;-0.7912;
1091.7000;0.1245;-0.8088;
1092.0000;0.1270;-0.7987;
1092.3000;0.1213;-0.8138;
1092.6000;0.1262;-0.8063;
1092.9000;0.1254;-0.8013;
1093.2000;0.1221;-0.8063;
1093.5000;0.1221;-0.8138;
1093.8000;0.1245;-0.7987;
1094.1000;0.1270;-0.7912;
1094.4000;0.1229;-0.7987;
1094.7000;0.1262;-0.7837;
1095.0000;0.1262;-0.7962;
1095.3000;0.1254;-0.7887;
1095.6000;0.1254;-0.7837;
1095.9000;0.1254;-0.7937;
1096.2000;0.1237;-0.7962;
1096.5000;0.1262;-0.7887;
1096.8000;0.1245;-0.7962;
1097.1000;0.1237;-0.7962;
1097.4000;0.1213;-0.8013;
1097.7000;0.1229;-0.7937;
1098.0000;0.1237;-0.7912;
1098.3000;0.1245;-0.7812;
1098.6000;0.1221;-0.7887;
1098.9000;0.1254;-0.7912;
1099.2000;0.1262;-0.7912;
1099.5000;0.1237;-0.7987;
1099.8000;0.1229;-0.7912;
1100.1000;0.1254;-0.7862;
1100.4000;0.1270;-0.7887;
1100.7000;0.1254;-0.7937;
1101.0000;0.1237;-0.7887;
1101.3000;0.1245;-0.7987;
1101.6000;0.1245;-0.8038;
1101.9000;0.1254;-0.7962;
1102.2000;0.1254;-0.8088;
1102.5000;0.1262;-0.8013;
1102.8000;0.1270;-0.8038;
1103.1000;0.1237;-0.8138;
1103.4000;0.1245;-0.8113;
1103.7000;0.1270;-0.8163;
1104.0000;0.1245;-0.8163;
1104.3000;0.1254;-0.8188;
1104.6000;0.1270;-0.8214;
1104.9000;0.1262;-0.8163;
1105.2000;0.1278;-0.8088;
1105.5000;0.1278;-0.8038;
1105.8000;0.1254;-0.8063;
1106.1000;0.1237;-0.8038;
1106.4000;0.1188;-0.8214;
1106.7000;0.1254;-0.8063;
1107.0000;0.1221;-0.8138;
1107.3000;0.1221;-0.8113;
1107.6000;0.1140;-0.8239;
1107.9000;0.1270;-0.7887;
1108.2000;0.1245;-0.7887;
1108.5000;0.1221;-0.7887;
1108.8000;0.1262;-0.7937;
1109.1000;0.1237;-0.7937;
1109.4000;0.1254;-0.7912;
1109.7000;0.1254;-0.7987;
1110.0000;0.1237;-0.8063;
1110.3000;0.1237;-0.8038;
1110.6000;0.1237;-0.8088;
1110.9000;0.1245;-0.8063;
1111.2000;0.1180;-0.8188;
1111.5000;0.1237;-0.8013;
1111.8000;0.1254;-0.8013;
1112.1000;0.1262;-0.7962;
1112.4000;0.1237;-0.7937;
1112.7000;0.1270;-0.7837;
1113.0000;0.1245;-0.7987;
1113.3000;0.1254;-0.7912;
1113.6000;0.1254;-0.7937;
1113.9000;0.1245;-0.8063;
1114.2000;0.1262;-0.8013;
1114.5000;0.1262;-0.7912;
1114.8000;0.1270;-0.7837;
1115.1000;0.1270;-0.7862;
1115.4000;0.1262;-0.7937;
1115.7000;0.1294;-0.7987;
1116.0000;0.1237;-0.8163;
1116.3000;0.1237;-0.8113;
1116.6000;0.1245;-0.8138;
1116.9000;0.1262;-0.8063;
1117.2000;0.1254;-0.8138;
1117.5000;0.1221;-0.8163;
1117.8000;0.1254;-0.8113;
1118.1000;0.1245;-0.8038;
1118.4000;0.1237;-0.8088;
1118.7000;0.1254;-0.8113;
1119.0000;0.1254;-0.8113;
1119.3000;0.1237;-0.8264;
1119.6000;0.1262;-0.8214;
1119.9000;0.1270;-0.8188;
1120.2000;0.1245;-0.8239;
1120.5000;0.1270;-0.8163;
1120.8000;0.1254;-0.8163;
1121.1000;0.1245;-0.8088;
1121.4000;0.1278;-0.8038;
1121.7000;0.1245;-0.8038;
1122.0000;0.1262;-0.8038;
1122.3000;0.1229;-0.8038;
1122.6000;0.1286;-0.7862;
1122.9000;0.1229;-0.7987;
1123.2000;0.1319;-0.7761;
1123.5000;0.1254;-0.7912;
1123.8000;0.1278;-0.7887;
1124.1000;0.1262;-0.8013;
1124.4000;0.1270;-0.7862;
1124.7000;0.1237;-0.7962;
1125.0000;0.1254;-0.7937;
1125.3000;0.1254;-0.7812;
1125.6000;0.1278;-0.7736;
1125.9000;0.1270;-0.7837;
1126.2000;0.1302;-0.7862;
1126.5000;0.1254;-0.7962;
1126.8000;0.1278;-0.7787;
1127.1000;0.1254;-0.7711;
1127.4000;0.1278;-0.7661;
1127.7000;0.1376;-0.7385;
1128.0000;0.1254;-0.7736;
1128.3000;0.1254;-0.7636;
1128.6000;0.1221;-0.7862;
1128.9000;0.1262;-0.7812;
1129.2000;0.1262;-0.7862;
1129.5000;0.1270;-0.7761;
1129.8000;0.1262;-0.7736;
1130.1000;0.1270;-0.7711;
1130.4000;0.1278;-0.7711;
1130.7000;0.1270;-0.7837;
1131.0000;0.1229;-0.7937;
1131.3000;0.1205;-0.7987;
1131.6000;0.1237;-0.7937;
1131.9000;0.1237;-0.7987;
1132.2000;0.1221;-0.8038;
1132.5000;0.1213;-0.8088;
1132.8000;0.1245;-0.8038;
1133.1000;0.1262;-0.8013;
1133.4000;0.1245;-0.8088;
1133.7000;0.1245;-0.7987;
1134.0000;0.1245;-0.8038;
1134.3000;0.1229;-0.7962;
1134.6000;0.1254;-0.7937;
1134.9000;0.1262;-0.7912;
1135.2000;0.1213;-0.8038;
1135.5000;0.1245;-0.7987;
1135.8000;0.1262;-0.7912;
1136.1000;0.1180;-0.8138;
1136.4000;0.1254;-0.7912;
1136.7000;0.1254;-0.7912;
1137.0000;0.1237;-0.7987;
1137.3000;0.1262;-0.8013;
1137.6000;0.1254;-0.8063;
1137.9000;0.1229;-0.8239;
1138.2000;0.1262;-0.8138;
1138.5000;0.1270;-0.8163;
1138.8000;0.1262;-0.8088;
1139.1000;0.1278;-0.8013;
1139.4000;0.1245;-0.8038;
1139.7000;0.1270;-0.7962;
1140.0000;0.1262;-0.7987;
1140.3000;0.1254;-0.7912;
1140.6000;0.1221;-0.8013;
1140.9000;0.1270;-0.7962;
1141.2000;0.1262;-0.7962;
1141.5000;0.1245;-0.7937;
1141.8000;0.1229;-0.8013;
1142.1000;0.1262;-0.7987;
1142.4000;0.1270;-0.8163;
1142.7000;0.1237;-0.8239;
1143.0000;0.1197;-0.8339;
1143.3000;0.1237;-0.8138;
1143.6000;0.1237;-0.8113;
1143.9000;0.1237;-0.8113;
1144.2000;0.1245;-0.8038;
1144.5000;0.1237;-0.8063;
1144.8000;0.1254;-0.8038;
1145.1000;0.1254;-0.8113;
1145.4000;0.1245;-0.8063;
1145.7000;0.1245;-0.8113;
1146.0000;0.1254;-0.8013;
1146.3000;0.1237;-0.8038;
1146.6000;0.1254;-0.8063;
1146.9000;0.1254;-0.8113;
1147.2000;0.1229;-0.8188;
1147.5000;0.1229;-0.8138;
1147.8000;0.1237;-0.8013;
1148.1000;0.1245;-0.8013;
1148.4000;0.1262;-0.7987;
1148.7000;0.1262;-0.8013;
1149.0000;0.1270;-0.8013;
1149.3000;0.1262;-0.8063;
1149.6000;0.1262;-0.7962;
1149.9000;0.1278;-0.7787;
1150.2000;0.1294;-0.7736;
1150.5000;0.1278;-0.7862;
1150.8000;0.1205;-0.8013;
1151.1000;0.1245;-0.7862;
1151.4000;0.1254;-0.7937;
1151.7000;0.1237;-0.8038;
1152.0000;0.1262;-0.8013;
1152.3000;0.1221;-0.8138;
1152.6000;0.1245;-0.8138;
1152.9000;0.1245;-0.8063;
1153.2000;0.1262;-0.8063;
1153.5000;0.1262;-0.8063;
1153.8000;0.1286;-0.7962;
1154.1000;0.1270;-0.7987;
1154.4000;0.1270;-0.7962;
1154.7000;0.1245;-0.7937;
1155.0000;0.1262;-0.7862;
1155.3000;0.1254;-0.7962;
1155.6000;0.1229;-0.8113;
1155.9000;0.1262;-0.8038;
1156.2000;0.1278;-0.7937;
1156.5000;0.1270;-0.7937;
1156.8000;0.1245;-0.7937;
1157.1000;0.1237;-0.7937;
1157.4000;0.1319;-0.7586;
1157.7000;0.1286;-0.7711;
1158.0000;0.1245;-0.7761;
1158.3000;0.1245;-0.7787;
1158.6000;0.1254;-0.7812;
1158.9000;0.1254;-0.7887;
1159.2000;0.1262;-0.7887;
1159.5000;0.1262;-0.7887;
1159.8000;0.1254;-0.7887;
1160.1000;0.1278;-0.7787;
1160.4000;0.1262;-0.7837;
1160.7000;0.1254;-0.7937;
1161.0000;0.1262;-0.7912;
1161.3000;0.1245;-0.7862;
1161.6000;0.1245;-0.7887;
1161.9000;0.1254;-0.7711;
1162.2000;0.1278;-0.7611;
1162.5000;0.1237;-0.7736;
1162.8000;0.1294;-0.7636;
1163.1000;0.1270;-0.7686;
1163.4000;0.1245;-0.7686;
1163.7000;0.1270;-0.7636;
1164.0000;0.1254;-0.7686;
1164.3000;0.1262;-0.7736;
1164.6000;0.1262;-0.7837;
1164.9000;0.1229;-0.7962;
1165.2000;0.1278;-0.7812;
1165.5000;0.1278;-0.7912;
1165.8000;0.1245;-0.7987;
1166.1000;0.1245;-0.7962;
1166.4000;0.1245;-0.8013;
1166.7000;0.1262;-0.8013;
1167.0000;0.1237;-0.8138;
1167.3000;0.1254;-0.7987;
1167.6000;0.1262;-0.7962;
1167.9000;0.1254;-0.7987;
1168.2000;0.1254;-0.7887;
1168.5000;0.1262;-0.7862;
1168.8000;0.1351;-0.7611;
1169.1000;0.1262;-0.7887;
1169.4000;0.1270;-0.7837;
1169.7000;0.1278;-0.7711;
1170.0000;0.1245;-0.7787;
1170.3000;0.1262;-0.7661;
1170.6000;0.1270;-0.7711;
1170.9000;0.1254;-0.7761;
1171.2000;0.1254;-0.7711;
1171.5000;0.1254;-0.7736;
1171.8000;0.1262;-0.7837;
1172.1000;0.1262;-0.7862;
1172.4000;0.1254;-0.7962;
1172.7000;0.1278;-0.7812;
1173.0000;0.1262;-0.7862;
1173.3000;0.1254;-0.7912;
1173.6000;0.1302;-0.7761;
1173.9000;0.1254;-0.7837;
1174.2000;0.1262;-0.7837;
1174.5000;0.1245;-0.7761;
1174.8000;0.1278;-0.7686;
1175.1000;0.1359;-0.7510;
1175.4000;0.1254;-0.7787;
1175.7000;0.1270;-0.7787;
1176.0000;0.1245;-0.7887;
1176.3000;0.1327;-0.7787;
1176.6000;0.1213;-0.8163;
1176.9000;0.1245;-0.8113;
1177.2000;0.1254;-0.8063;
1177.5000;0.1156;-0.8264;
1177.8000;0.1197;-0.8239;
1178.1000;0.1278;-0.7912;
1178.4000;0.1254;-0.7887;
1178.7000;0.1254;-0.7887;
1179.0000;0.1245;-0.8013;
1179.3000;0.1213;-0.8163;
1179.6000;0.1270;-0.7987;
1179.9000;0.1254;-0.7987;
1180.2000;0.1270;-0.7887;
1180.5000;0.1294;-0.7761;
1180.8000;0.1262;-0.7862;
1181.1000;0.1254;-0.8013;
1181.4000;0.1278;-0.7987;
1181.7000;0.1270;-0.7987;
1182.0000;0.1254;-0.8038;
1182.3000;0.1254;-0.7887;
1182.6000;0.1327;-0.7761;
1182.9000;0.1319;-0.7611;
1183.2000;0.1237;-0.7812;
1183.5000;0.1229;-0.7761;
1183.8000;0.1237;-0.7837;
1184.1000;0.1254;-0.7912;
1184.4000;0.1278;-0.7812;
1184.7000;0.1262;-0.7812;
1185.0000;0.1294;-0.7761;
1185.3000;0.1278;-0.7837;
1185.6000;0.1262;-0.7812;
1185.9000;0.1278;-0.7862;
1186.2000;0.1270;-0.7912;
1186.5000;0.1205;-0.7987;
1186.8000;0.1286;-0.7812;
1187.1000;0.1270;-0.7862;
1187.4000;0.1286;-0.7812;
1187.7000;0.1270;-0.7761;
1188.0000;0.1278;-0.7761;
1188.3000;0.1270;-0.7887;
1188.6000;0.1245;-0.7912;
1188.9000;0.1286;-0.7761;
1189.2000;0.1254;-0.7787;
1189.5000;0.1254;-0.7761;
1189.8000;0.1245;-0.7837;
1190.1000;0.1254;-0.7862;
1190.4000;0.1254;-0.7887;
1190.7000;0.1270;-0.7837;
1191.0000;0.1262;-0.7837;
1191.3000;0.1254;-0.7912;
1191.6000;0.1278;-0.7912;
1191.9000;0.1262;-0.7962;
1192.2000;0.1262;-0.7937;
1192.5000;0.1254;-0.7912;
1192.8000;0.1213;-0.7962;
1193.1000;0.1254;-0.7812;
1193.4000;0.1270;-0.7761;
1193.7000;0.1221;-0.7736;
1194.0000;0.1254;-0.7661;
1194.3000;0.1262;-0.7636;
1194.6000;0.1270;-0.7686;
1194.9000;0.1254;-0.7736;
1195.2000;0.1278;-0.7736;
1195.5000;0.1270;-0.7661;
1195.8000;0.1245;-0.7736;
1196.1000;0.1245;-0.7787;
1196.4000;0.1254;-0.7787;
1196.7000;0.1278;-0.7787;
1197.0000;0.1254;-0.7937;
1197.3000;0.1262;-0.7812;
1197.6000;0.1254;-0.7787;
1197.9000;0.1237;-0.7887;
1198.2000;0.1237;-0.7887;
1198.5000;0.1254;-0.7837;
1198.8000;0.1229;-0.7812;
1199.1000;0.1254;-0.7787;
1199.4000;0.1262;-0.7787;
1199.7000;0.1245;-0.7887;
1200.0000;0.1254;-0.7912;
1200.3000;0.1229;-0.7887;
1200.6000;0.1245;-0.7761;
1200.9000;0.1254;-0.7812;
1201.2000;0.1213;-0.7887;
1201.5000;0.1302;-0.7636;
1201.8000;0.1270;-0.7812;
1202.1000;0.1262;-0.7761;
1202.4000;0.1245;-0.7862;
1202.7000;0.1270;-0.7862;
1203.0000;0.1245;-0.7937;
1203.3000;0.1254;-0.7987;
1203.6000;0.1262;-0.7937;
1203.9000;0.1245;-0.7962;
1204.2000;0.1245;-0.7862;
1204.5000;0.1270;-0.7837;
1204.8000;0.1221;-0.7962;
1205.1000;0.1254;-0.7887;
1205.4000;0.1278;-0.7736;
1205.7000;0.1213;-0.7962;
1206.0000;0.1262;-0.7912;
1206.3000;0.1188;-0.8138;
1206.6000;0.1237;-0.7962;
1206.9000;0.1254;-0.7937;
1207.2000;0.1254;-0.7912;
1207.5000;0.1262;-0.7937;
1207.8000;0.1245;-0.7862;
1208.1000;0.1327;-0.7586;
1208.4000;0.1302;-0.7686;
1208.7000;0.1270;-0.7837;
1209.0000;0.1197;-0.8088;
1209.3000;0.1188;-0.8214;
1209.6000;0.1237;-0.8088;
1209.9000;0.1262;-0.7987;
1210.2000;0.1319;-0.7887;
1210.5000;0.1278;-0.7837;
1210.8000;0.1254;-0.7862;
1211.1000;0.1245;-0.7787;
1211.4000;0.1254;-0.7837;
1211.7000;0.1302;-0.7661;
1212.0000;0.1254;-0.7761;
1212.3000;0.1270;-0.7761;
1212.6000;0.1278;-0.7761;
1212.9000;0.1229;-0.7812;
1213.2000;0.1254;-0.7761;
1213.5000;0.1245;-0.7761;
1213.8000;0.1278;-0.7686;
1214.1000;0.1254;-0.7661;
1214.4000;0.1254;-0.7661;
1214.7000;0.1254;-0.7711;
1215.0000;0.1262;-0.7787;
1215.3000;0.1237;-0.7812;
1215.6000;0.1237;-0.7812;
1215.9000;0.1262;-0.7711;
1216.2000;0.1254;-0.7736;
1216.5000;0.1270;-0.7636;
1216.8000;0.1254;-0.7661;
1217.1000;0.1254;-0.7761;
1217.4000;0.1254;-0.7787;
1217.7000;0.1237;-0.7887;
1218.0000;0.1237;-0.7862;
1218.3000;0.1237;-0.7812;
1218.6000;0.1262;-0.7736;
1218.9000;0.1262;-0.7711;
1219.2000;0.1237;-0.7711;
1219.5000;0.1237;-0.7736;
1219.8000;0.1254;-0.7686;
1220.1000;0.1237;-0.7736;
1220.4000;0.1221;-0.7711;
1220.7000;0.1254;-0.7711;
1221.0000;0.1245;-0.7686;
1221.3000;0.1262;-0.7611;
1221.6000;0.1245;-0.7636;
1221.9000;0.1270;-0.7611;
1222.2000;0.1123;-0.8013;
1222.5000;0.1213;-0.7887;
1222.8000;0.1245;-0.7736;
1223.1000;0.1262;-0.7611;
1223.4000;0.1262;-0.7586;
1223.7000;0.1270;-0.7661;
1224.0000;0.1221;-0.7887;
1224.3000;0.1262;-0.7761;
1224.6000;0.1270;-0.7812;
1224.9000;0.1278;-0.7862;
1225.2000;0.1311;-0.7661;
1225.5000;0.1245;-0.7837;
1225.8000;0.1311;-0.7636;
1226.1000;0.1254;-0.7812;
1226.4000;0.1262;-0.7837;
1226.7000;0.1245;-0.7837;
1227.0000;0.1254;-0.7937;
1227.3000;0.1221;-0.8063;
1227.6000;0.1270;-0.7912;
1227.9000;0.1245;-0.7937;
1228.2000;0.1254;-0.7812;
1228.5000;0.1270;-0.7862;
1228.8000;0.1278;-0.7862;
1229.1000;0.1270;-0.7862;
1229.4000;0.1254;-0.7887;
1229.7000;0.1262;-0.8013;
1230.0000;0.1245;-0.8038;
1230.3000;0.1270;-0.7887;
1230.6000;0.1270;-0.7912;
1230.9000;0.1254;-0.7912;
1231.2000;0.1270;-0.7862;
1231.5000;0.1245;-0.7887;
1231.8000;0.1254;-0.7837;
1232.1000;0.1254;-0.7787;
1232.4000;0.1270;-0.7711;
1232.7000;0.1254;-0.7761;
1233.0000;0.1245;-0.7812;
1233.3000;0.1229;-0.7887;
1233.6000;0.1245;-0.7837;
1233.9000;0.1270;-0.7862;
1234.2000;0.1262;-0.7862;
1234.5000;0.1254;-0.7837;
1234.8000;0.1270;-0.7711;
1235.1000;0.1237;-0.7812;
1235.4000;0.1270;-0.7837;
1235.7000;0.1311;-0.7787;
1236.0000;0.1245;-0.7987;
1236.3000;0.1254;-0.7937;
1236.6000;0.1254;-0.7937;
1236.9000;0.1254;-0.7862;
1237.2000;0.1245;-0.7912;
1237.5000;0.1254;-0.7787;
1237.8000;0.1254;-0.7736;
1238.1000;0.1254;-0.7711;
1238.4000;0.1270;-0.7686;
1238.7000;0.1245;-0.7812;
1239.0000;0.1262;-0.7862;
1239.3000;0.1270;-0.7837;
1239.6000;0.1254;-0.7962;
1239.9000;0.1278;-0.7812;
1240.2000;0.1245;-0.7912;
1240.5000;0.1245;-0.7837;
1240.8000;0.1245;-0.7862;
1241.1000;0.1245;-0.7962;
1241.4000;0.1262;-0.7912;
1241.7000;0.1254;-0.7887;
1242.0000;0.1254;-0.8013;
1242.3000;0.1278;-0.7937;
1242.6000;0.1262;-0.7862;
1242.9000;0.1262;-0.7837;
1243.2000;0.1221;-0.7987;
1243.5000;0.1262;-0.7837;
1243.8000;0.1262;-0.7837;
1244.1000;0.1237;-0.7937;
1244.4000;0.1197;-0.8088;
1244.7000;0.1245;-0.7962;
1245.0000;0.1254;-0.7937;
1245.3000;0.1262;-0.7912;
1245.6000;0.1254;-0.7912;
1245.9000;0.1245;-0.7887;
1246.2000;0.1311;-0.7711;
1246.5000;0.1164;-0.8063;
1246.8000;0.1270;-0.7812;
1247.1000;0.1254;-0.7862;
1247.4000;0.1254;-0.7787;
1247.7000;0.1245;-0.7812;
1248.0000;0.1254;-0.7837;
1248.3000;0.1221;-0.7887;
1248.6000;0.1286;-0.7736;
1248.9000;0.1245;-0.7711;
1249.2000;0.1327;-0.7535;
1249.5000;0.1262;-0.7787;
1249.8000;0.1245;-0.7837;
1250.1000;0.1262;-0.7912;
1250.4000;0.1254;-0.8013;
1250.7000;0.1270;-0.7937;
1251.0000;0.1237;-0.7937;
1251.3000;0.1229;-0.7962;
1251.6000;0.1278;-0.7987;
1251.9000;0.1245;-0.8013;
1252.2000;0.1213;-0.8113;
1252.5000;0.1254;-0.7937;
1252.8000;0.1245;-0.7787;
1253.1000;0.1254;-0.7661;
1253.4000;0.1270;-0.7686;
1253.7000;0.1245;-0.7812;
1254.0000;0.1245;-0.7862;
1254.3000;0.1254;-0.7862;
1254.6000;0.1278;-0.7812;
1254.9000;0.1262;-0.7912;
1255.2000;0.1262;-0.7837;
1255.5000;0.1270;-0.7912;
1255.8000;0.1254;-0.7962;
1256.1000;0.1229;-0.8063;
1256.4000;0.1245;-0.8063;
1256.7000;0.1262;-0.8063;
1257.0000;0.1286;-0.8038;
1257.3000;0.1254;-0.8038;
1257.6000;0.1262;-0.8063;
1257.9000;0.1270;-0.7987;
1258.2000;0.1278;-0.7912;
1258.5000;0.1254;-0.7987;
1258.8000;0.1254;-0.7937;
1259.1000;0.1270;-0.7962;
1259.4000;0.1270;-0.7937;
1259.7000;0.1270;-0.7987;
1260.0000;0.1254;-0.7937;
1260.3000;0.1262;-0.7987;
1260.6000;0.1245;-0.8138;
1260.9000;0.1270;-0.8113;
1261.2000;0.1237;-0.8113;
1261.5000;0.1270;-0.7987;
1261.8000;0.1278;-0.7862;
1262.1000;0.1270;-0.7912;
1262.4000;0.1245;-0.7987;
1262.7000;0.1237;-0.7937;
1263.0000;0.1229;-0.7937;
1263.3000;0.1237;-0.7937;
1263.6000;0.1254;-0.7987;
1263.9000;0.1254;-0.8013;
1264.2000;0.1286;-0.7837;
1264.5000;0.1262;-0.7887;
1264.8000;0.1254;-0.7812;
1265.1000;0.1270;-0.7787;
1265.4000;0.1254;-0.7787;
1265.7000;0.1270;-0.7837;
1266.0000;0.1245;-0.7937;
1266.3000;0.1254;-0.7962;
1266.6000;0.1229;-0.8013;
1266.9000;0.1245;-0.7937;
1267.2000;0.1262;-0.7812;
1267.5000;0.1140;-0.8088;
1267.8000;0.1237;-0.7787;
1268.1000;0.1213;-0.7887;
1268.4000;0.1245;-0.7837;
1268.7000;0.1245;-0.7887;
1269.0000;0.1245;-0.7812;
1269.3000;0.1237;-0.7736;
1269.6000;0.1262;-0.7661;
1269.9000;0.1237;-0.7837;
1270.2000;0.1254;-0.7887;
1270.5000;0.1262;-0.7862;
1270.8000;0.1327;-0.7736;
1271.1000;0.1254;-0.7837;
1271.4000;0.1237;-0.7837;
1271.7000;0.1237;-0.7837;
1272.0000;0.1278;-0.7661;
1272.3000;0.1262;-0.7711;
1272.6000;0.1262;-0.7837;
1272.9000;0.1262;-0.7862;
1273.2000;0.1262;-0.7837;
1273.5000;0.1245;-0.7887;
1273.8000;0.1245;-0.7837;
1274.1000;0.1221;-0.7862;
1274.4000;0.1245;-0.7812;
1274.7000;0.1237;-0.7937;
1275.0000;0.1270;-0.7887;
1275.3000;0.1237;-0.7937;
1275.6000;0.1254;-0.7862;
1275.9000;0.1254;-0.7787;
1276.2000;0.1245;-0.7937;
1276.5000;0.1245;-0.7912;
1276.8000;0.1262;-0.7937;
1277.1000;0.1270;-0.7937;
1277.4000;0.1270;-0.7812;
1277.7000;0.1294;-0.7761;
1278.0000;0.1319;-0.7686;
1278.3000;0.1262;-0.7761;
1278.6000;0.1270;-0.7736;
1278.9000;0.1254;-0.7711;
1279.2000;0.1278;-0.7686;
1279.5000;0.1245;-0.7736;
1279.8000;0.1237;-0.7736;
1280.1000;0.1245;-0.7812;
1280.4000;0.1262;-0.7887;
1280.7000;0.1278;-0.7736;
1281.0000;0.1327;-0.7586;
1281.3000;0.1262;-0.7686;
1281.6000;0.1262;-0.7711;
1281.9000;0.1254;-0.7761;
1282.2000;0.1262;-0.7812;
1282.5000;0.1262;-0.7912;
1282.8000;0.1245;-0.7887;
1283.1000;0.1237;-0.7937;
1283.4000;0.1278;-0.7912;
1283.7000;0.1311;-0.7837;
1284.0000;0.1245;-0.7912;
1284.3000;0.1254;-0.7937;
1284.6000;0.1262;-0.7962;
1284.9000;0.1229;-0.8038;
1285.2000;0.1270;-0.7937;
1285.5000;0.1262;-0.7887;
1285.8000;0.1245;-0.7887;
1286.1000;0.1270;-0.7862;
1286.4000;0.1254;-0.7912;
1286.7000;0.1213;-0.7862;
1287.0000;0.1254;-0.7736;
1287.3000;0.1245;-0.7837;
1287.6000;0.1278;-0.7761;
1287.9000;0.1237;-0.7862;
1288.2000;0.1254;-0.7862;
1288.5000;0.1229;-0.7862;
1288.8000;0.1278;-0.7812;
1289.1000;0.1254;-0.7837;
1289.4000;0.1245;-0.7837;
1289.7000;0.1286;-0.7761;
1290.0000;0.1278;-0.7761;
1290.3000;0.1262;-0.7761;
1290.6000;0.1327;-0.7560;
1290.9000;0.1327;-0.7611;
1291.2000;0.1286;-0.7636;
1291.5000;0.1254;-0.7611;
1291.8000;0.1245;-0.7611;
1292.1000;0.1245;-0.7560;
1292.4000;0.1270;-0.7435;
1292.7000;0.1254;-0.7485;
1293.0000;0.1245;-0.7586;
1293.3000;0.1294;-0.7460;
1293.6000;0.1262;-0.7586;
1293.9000;0.1237;-0.7711;
1294.2000;0.1278;-0.7586;
1294.5000;0.1319;-0.7460;
1294.8000;0.1376;-0.7334;
1295.1000;0.1262;-0.7711;
1295.4000;0.1213;-0.7862;
1295.7000;0.1254;-0.7711;
1296.0000;0.1278;-0.7711;
1296.3000;0.1286;-0.7711;
1296.6000;0.1294;-0.7586;
1296.9000;0.1278;-0.7636;
1297.2000;0.1237;-0.7711;
1297.5000;0.1237;-0.7812;
1297.8000;0.1254;-0.7787;
1298.1000;0.1245;-0.7812;
1298.4000;0.1254;-0.7912;
1298.7000;0.1302;-0.7787;
1299.0000;0.1359;-0.7711;
1299.3000;0.1262;-0.7937;
1299.6000;0.1245;-0.8038;
1299.9000;0.1237;-0.8038;
1300.2000;0.1270;-0.7937;
1300.5000;0.1278;-0.7812;
1300.8000;0.1286;-0.7711;
1301.1000;0.1197;-0.7837;
1301.4000;0.1262;-0.7686;
1301.7000;0.1245;-0.7787;
1302.0000;0.1270;-0.7761;
1302.3000;0.1245;-0.7837;
1302.6000;0.1262;-0.7837;
1302.9000;0.1302;-0.7736;
1303.2000;0.1254;-0.7761;
1303.5000;0.1245;-0.7862;
1303.8000;0.1245;-0.7787;
1304.1000;0.1254;-0.7862;
1304.4000;0.1254;-0.7962;
1304.7000;0.1262;-0.8013;
1305.0000;0.1262;-0.7887;
1305.3000;0.1221;-0.7987;
1305.6000;0.1262;-0.7812;
1305.9000;0.1254;-0.7761;
1306.2000;0.1270;-0.7686;
1306.5000;0.1245;-0.7611;
1306.8000;0.1245;-0.7686;
1307.1000;0.1197;-0.7837;
1307.4000;0.1237;-0.7761;
1307.7000;0.1254;-0.7761;
1308.0000;0.1262;-0.7812;
1308.3000;0.1335;-0.7611;
1308.6000;0.1245;-0.7736;
1308.9000;0.1245;-0.7761;
1309.2000;0.1270;-0.7787;
1309.5000;0.1254;-0.7887;
1309.8000;0.1197;-0.7987;
1310.1000;0.1262;-0.7837;
1310.4000;0.1278;-0.7736;
1310.7000;0.1229;-0.7887;
1311.0000;0.1245;-0.7862;
1311.3000;0.1335;-0.7611;
1311.6000;0.1237;-0.7787;
1311.9000;0.1237;-0.7761;
1312.2000;0.1254;-0.7711;
1312.5000;0.1221;-0.7812;
1312.8000;0.1270;-0.7711;
1313.1000;0.1254;-0.7862;
1313.4000;0.1262;-0.7837;
1313.7000;0.1254;-0.7711;
1314.0000;0.1254;-0.7761;
1314.3000;0.1294;-0.7586;
1314.6000;0.1245;-0.7787;
1314.9000;0.1245;-0.7787;
1315.2000;0.1213;-0.7912;
1315.5000;0.1262;-0.7812;
1315.8000;0.1327;-0.7686;
1316.1000;0.1254;-0.7862;
1316.4000;0.1294;-0.7736;
1316.7000;0.1270;-0.7761;
1317.0000;0.1262;-0.7837;
1317.3000;0.1245;-0.7837;
1317.6000;0.1245;-0.7812;
1317.9000;0.1286;-0.7736;
1318.2000;0.1237;-0.7837;
1318.5000;0.1148;-0.8138;
1318.8000;0.1254;-0.7862;
1319.1000;0.1254;-0.7862;
1319.4000;0.1213;-0.8063;
1319.7000;0.1245;-0.8113;
1320.0000;0.1237;-0.8163;
1320.3000;0.1262;-0.8063;
1320.6000;0.1245;-0.8013;
1320.9000;0.1245;-0.8063;
1321.2000;0.1245;-0.8013;
1321.5000;0.1237;-0.7887;
1321.8000;0.1262;-0.7736;
1322.1000;0.1262;-0.7837;
1322.4000;0.1245;-0.7912;
1322.7000;0.1245;-0.7887;
1323.0000;0.1254;-0.7862;
1323.3000;0.1254;-0.7912;
1323.6000;0.1311;-0.7761;
1323.9000;0.1254;-0.7937;
1324.2000;0.1270;-0.7837;
1324.5000;0.1327;-0.7711;
1324.8000;0.1262;-0.8013;
1325.1000;0.1254;-0.7987;
1325.4000;0.1278;-0.8013;
1325.7000;0.1270;-0.8038;
1326.0000;0.1254;-0.8088;
1326.3000;0.1262;-0.8013;
1326.6000;0.1245;-0.8013;
1326.9000;0.1286;-0.7812;
1327.2000;0.1262;-0.7812;
1327.5000;0.1229;-0.7837;
1327.8000;0.1270;-0.7787;
1328.1000;0.1254;-0.7912;
1328.4000;0.1245;-0.8038;
1328.7000;0.1270;-0.7912;
1329.0000;0.1270;-0.7962;
1329.3000;0.1262;-0.7887;
1329.6000;0.1278;-0.7912;
1329.9000;0.1262;-0.7887;
1330.2000;0.1262;-0.7812;
1330.5000;0.1254;-0.7812;
1330.8000;0.1254;-0.7812;
1331.1000;0.1221;-0.7862;
1331.4000;0.1245;-0.7761;
1331.7000;0.1319;-0.7535;
1332.0000;0.1278;-0.7560;
1332.3000;0.1245;-0.7586;
1332.6000;0.1262;-0.7611;
1332.9000;0.1254;-0.7711;
1333.2000;0.1229;-0.7761;
1333.5000;0.1262;-0.7711;
1333.8000;0.1254;-0.7787;
1334.1000;0.1237;-0.7887;
1334.4000;0.1245;-0.7862;
1334.7000;0.1254;-0.7937;
1335.0000;0.1254;-0.7937;
1335.3000;0.1262;-0.7736;
1335.6000;0.1270;-0.7736;
1335.9000;0.1262;-0.7812;
1336.2000;0.1245;-0.7736;
1336.5000;0.1270;-0.7636;
1336.8000;0.1262;-0.7711;
1337.1000;0.1278;-0.7636;
1337.4000;0.1245;-0.7711;
1337.7000;0.1262;-0.7686;
1338.0000;0.1164;-0.7962;
1338.3000;0.1221;-0.7761;
1338.6000;0.1245;-0.7812;
1338.9000;0.1254;-0.7862;
1339.2000;0.1270;-0.7862;
1339.5000;0.1286;-0.7837;
1339.8000;0.1294;-0.7887;
1340.1000;0.1270;-0.7962;
1340.4000;0.1270;-0.7962;
1340.7000;0.1270;-0.7987;
1341.0000;0.1262;-0.7987;
1341.3000;0.1278;-0.7887;
1341.6000;0.1278;-0.7837;
1341.9000;0.1262;-0.7887;
1342.2000;0.1286;-0.7887;
1342.5000;0.1262;-0.7962;
1342.8000;0.1254;-0.7862;
1343.1000;0.1254;-0.7812;
1343.4000;0.1213;-0.7862;
1343.7000;0.1449;-0.7259;
1344.0000;0.1262;-0.7812;
1344.3000;0.1245;-0.7812;
1344.6000;0.1245;-0.7787;
1344.9000;0.1262;-0.7812;
1345.2000;0.1229;-0.7837;
1345.5000;0.1229;-0.7837;
1345.8000;0.1262;-0.7787;
1346.1000;0.1270;-0.7812;
1346.4000;0.1245;-0.7787;
1346.7000;0.1245;-0.7912;
1347.0000;0.1270;-0.7837;
1347.3000;0.1237;-0.7987;
1347.6000;0.1245;-0.8013;
1347.9000;0.1229;-0.8038;
1348.2000;0.1302;-0.7787;
1348.5000;0.1245;-0.7862;
1348.8000;0.1262;-0.7787;
1349.1000;0.1245;-0.7887;
1349.4000;0.1245;-0.7937;
1349.7000;0.1254;-0.7837;
1350.0000;0.1262;-0.7937;
1350.3000;0.1254;-0.7837;
1350.6000;0.1270;-0.7812;
1350.9000;0.1278;-0.7761;
1351.2000;0.1302;-0.7761;
1351.5000;0.1262;-0.7837;
1351.8000;0.1213;-0.7912;
1352.1000;0.1262;-0.7812;
1352.4000;0.1278;-0.7837;
1352.7000;0.1262;-0.8013;
1353.0000;0.1245;-0.8188;
1353.3000;0.1237;-0.8088;
1353.6000;0.1245;-0.8038;
1353.9000;0.1254;-0.7937;
1354.2000;0.1229;-0.7912;
1354.5000;0.1302;-0.7711;
1354.8000;0.1278;-0.7787;
1355.1000;0.1205;-0.7962;
1355.4000;0.1262;-0.7761;
1355.7000;0.1278;-0.7686;
1356.0000;0.1262;-0.7711;
1356.3000;0.1245;-0.7787;
1356.6000;0.1213;-0.7862;
1356.9000;0.1278;-0.7787;
1357.2000;0.1311;-0.7661;
1357.5000;0.1278;-0.7711;
1357.8000;0.1229;-0.7812;
1358.1000;0.1254;-0.7761;
1358.4000;0.1335;-0.7560;
1358.7000;0.1254;-0.7761;
1359.0000;0.1245;-0.7787;
1359.3000;0.1164;-0.8038;
1359.6000;0.1335;-0.7586;
1359.9000;0.1245;-0.7761;
1360.2000;0.1237;-0.7837;
1360.5000;0.1245;-0.7937;
1360.8000;0.1237;-0.8063;
1361.1000;0.1270;-0.7962;
1361.4000;0.1237;-0.7937;
1361.7000;0.1254;-0.7912;
1362.0000;0.1254;-0.7937;
1362.3000;0.1221;-0.7987;
1362.6000;0.1319;-0.7736;
1362.9000;0.1254;-0.7812;
1363.2000;0.1229;-0.7812;
1363.5000;0.1270;-0.7787;
1363.8000;0.1294;-0.7761;
1364.1000;0.1237;-0.7962;
1364.4000;0.1254;-0.7887;
1364.7000;0.1237;-0.7962;
1365.0000;0.1205;-0.8088;
1365.3000;0.1229;-0.8013;
1365.6000;0.1254;-0.7937;
1365.9000;0.1254;-0.7887;
1366.2000;0.1245;-0.7812;
1366.5000;0.1229;-0.7761;
1366.8000;0.1245;-0.7661;
1367.1000;0.1245;-0.7761;
1367.4000;0.1237;-0.7837;
1367.7000;0.1254;-0.7962;
1368.0000;0.1245;-0.8013;
1368.3000;0.1245;-0.8038;
1368.6000;0.1254;-0.8038;
1368.9000;0.1262;-0.8038;
1369.2000;0.1237;-0.7987;
1369.5000;0.1245;-0.7987;
1369.8000;0.1254;-0.7937;
1370.1000;0.1270;-0.7787;
1370.4000;0.1254;-0.7736;
1370.7000;0.1262;-0.7837;
1371.0000;0.1254;-0.7837;
1371.3000;0.1254;-0.7837;
1371.6000;0.1270;-0.7837;
1371.9000;0.1237;-0.7987;
1372.2000;0.1278;-0.7761;
1372.5000;0.1262;-0.7887;
1372.8000;0.1254;-0.7937;
1373.1000;0.1270;-0.7887;
1373.4000;0.1278;-0.7787;
1373.7000;0.1262;-0.7887;
1374.0000;0.1262;-0.7862;
1374.3000;0.1270;-0.7887;
1374.6000;0.1368;-0.7711;
1374.9000;0.1245;-0.8063;
1375.2000;0.1221;-0.8088;
1375.5000;0.1197;-0.8013;
1375.8000;0.1254;-0.7887;
1376.1000;0.1254;-0.7862;
1376.4000;0.1262;-0.7812;
1376.7000;0.1245;-0.7787;
1377.0000;0.1245;-0.7837;
1377.3000;0.1327;-0.7661;
1377.6000;0.1262;-0.7962;
1377.9000;0.1254;-0.8063;
1378.2000;0.1229;-0.8088;
1378.5000;0.1302;-0.8063;
1378.8000;0.1254;-0.8188;
1379.1000;0.1237;-0.8239;
1379.4000;0.1245;-0.8214;
1379.7000;0.1262;-0.8113;
1380.0000;0.1237;-0.8088;
1380.3000;0.1254;-0.7987;
1380.6000;0.1229;-0.8038;
1380.9000;0.1237;-0.8063;
1381.2000;0.1262;-0.7987;
1381.5000;0.1302;-0.7937;
1381.8000;0.1262;-0.8088;
1382.1000;0.1245;-0.8063;
1382.4000;0.1245;-0.8038;
1382.7000;0.1254;-0.7937;
1383.0000;0.1262;-0.7937;
1383.3000;0.1237;-0.8038;
1383.6000;0.1262;-0.8013;
1383.9000;0.1245;-0.8088;
1384.2000;0.1254;-0.8013;
1384.5000;0.1262;-0.8038;
1384.8000;0.1172;-0.8239;
1385.1000;0.1213;-0.8063;
1385.4000;0.1254;-0.7887;
1385.7000;0.1245;-0.7887;
1386.0000;0.1311;-0.7736;
1386.3000;0.1245;-0.7962;
1386.6000;0.1221;-0.8038;
1386.9000;0.1254;-0.7962;
1387.2000;0.1245;-0.8013;
1387.5000;0.1270;-0.7937;
1387.8000;0.1262;-0.7937;
1388.1000;0.1254;-0.7987;
1388.4000;0.1229;-0.8138;
1388.7000;0.1213;-0.8214;
1389.0000;0.1270;-0.8063;
1389.3000;0.1245;-0.8038;
1389.6000;0.1254;-0.8088;
1389.9000;0.1245;-0.8063;
1390.2000;0.1245;-0.8013;
1390.5000;0.1294;-0.7862;
1390.8000;0.1205;-0.8138;
1391.1000;0.1237;-0.8013;
1391.4000;0.1270;-0.7862;
1391.7000;0.1262;-0.7862;
1392.0000;0.1278;-0.7812;
1392.3000;0.1254;-0.7912;
1392.6000;0.1262;-0.7887;
1392.9000;0.1254;-0.7912;
1393.2000;0.1245;-0.7837;
1393.5000;0.1245;-0.7862;
1393.8000;0.1245;-0.7912;
1394.1000;0.1262;-0.7962;
1394.4000;0.1262;-0.7987;
1394.7000;0.1237;-0.8038;
1395.0000;0.1245;-0.7962;
1395.3000;0.1262;-0.7912;
1395.6000;0.1286;-0.7812;
1395.9000;0.1197;-0.8038;
1396.2000;0.1254;-0.7887;
1396.5000;0.1278;-0.7812;
1396.8000;0.1335;-0.7787;
1397.1000;0.1286;-0.7937;
1397.4000;0.1245;-0.7987;
1397.7000;0.1270;-0.7887;
1398.0000;0.1254;-0.7887;
1398.3000;0.1245;-0.7887;
1398.6000;0.1262;-0.7912;
1398.9000;0.1245;-0.7887;
1399.2000;0.1262;-0.7837;
1399.5000;0.1302;-0.7736;
1399.8000;0.1229;-0.7937;
