time/ms;Fluo/V;P700 deltaI/I x10³;
-199.8000;0.1368;-0.8339;
-199.5000;0.1359;-0.8364;
-199.2000;0.1376;-0.8289;
-198.9000;0.1311;-0.8465;
-198.6000;0.1270;-0.8515;
-198.3000;0.1376;-0.8364;
-198.0000;0.1302;-0.8490;
-197.7000;0.1481;-0.7962;
-197.4000;0.1368;-0.8289;
-197.1000;0.1368;-0.8289;
-196.8000;0.1384;-0.8239;
-196.5000;0.1392;-0.8163;
-196.2000;0.1368;-0.8239;
-195.9000;0.1343;-0.8314;
-195.6000;0.1351;-0.8364;
-195.3000;0.1335;-0.8490;
-195.0000;0.1400;-0.8364;
-194.7000;0.1392;-0.8389;
-194.4000;0.1368;-0.8465;
-194.1000;0.1368;-0.8440;
-193.8000;0.1368;-0.8314;
-193.5000;0.1376;-0.8264;
-193.2000;0.1368;-0.8239;
-192.9000;0.1368;-0.8214;
-192.6000;0.1384;-0.8138;
-192.3000;0.1343;-0.8339;
-192.0000;0.1359;-0.8289;
-191.7000;0.1335;-0.8389;
-191.4000;0.1441;-0.8188;
-191.1000;0.1384;-0.8364;
-190.8000;0.1343;-0.8440;
-190.5000;0.1351;-0.8414;
-190.2000;0.1400;-0.8264;
-189.9000;0.1416;-0.8188;
-189.6000;0.1376;-0.8339;
-189.3000;0.1400;-0.8389;
-189.0000;0.1376;-0.8389;
-188.7000;0.1392;-0.8364;
-188.4000;0.1327;-0.8540;
-188.1000;0.1359;-0.8364;
-187.8000;0.1368;-0.8389;
-187.5000;0.1351;-0.8465;
-187.2000;0.1384;-0.8440;
-186.9000;0.1425;-0.8389;
-186.6000;0.1392;-0.8540;
-186.3000;0.1384;-0.8540;
-186.0000;0.1392;-0.8440;
-185.7000;0.1335;-0.8565;
-185.4000;0.1384;-0.8440;
-185.1000;0.1441;-0.8163;
-184.8000;0.1368;-0.8389;
-184.5000;0.1368;-0.8339;
-184.2000;0.1368;-0.8264;
-183.9000;0.1408;-0.8188;
-183.6000;0.1376;-0.8264;
-183.3000;0.1384;-0.8289;
-183.0000;0.1327;-0.8540;
-182.7000;0.1359;-0.8490;
-182.4000;0.1368;-0.8490;
-182.1000;0.1392;-0.8414;
-181.8000;0.1416;-0.8239;
-181.5000;0.1376;-0.8289;
-181.2000;0.1368;-0.8289;
-180.9000;0.1392;-0.8088;
-180.6000;0.1425;-0.7987;
-180.3000;0.1359;-0.8138;
-180.0000;0.1359;-0.8138;
-179.7000;0.1384;-0.8163;
-179.4000;0.1416;-0.8138;
-179.1000;0.1384;-0.8163;
-178.8000;0.1376;-0.8239;
-178.5000;0.1359;-0.8264;
-178.2000;0.1416;-0.8163;
-177.9000;0.1392;-0.8239;
-177.6000;0.1343;-0.8389;
-177.3000;0.1368;-0.8289;
-177.0000;0.1376;-0.8364;
-176.7000;0.1457;-0.8113;
-176.4000;0.1425;-0.8239;
-176.1000;0.1368;-0.8414;
-175.8000;0.1359;-0.8465;
-175.5000;0.1351;-0.8440;
-175.2000;0.1408;-0.8314;
-174.9000;0.1343;-0.8364;
-174.6000;0.1400;-0.8214;
-174.3000;0.1368;-0.8214;
-174.0000;0.1351;-0.8214;
-173.7000;0.1376;-0.8214;
-173.4000;0.1351;-0.8214;
-173.1000;0.1302;-0.8490;
-172.8000;0.1368;-0.8440;
-172.5000;0.1400;-0.8364;
-172.2000;0.1376;-0.8314;
-171.9000;0.1392;-0.8264;
-171.6000;0.1408;-0.8239;
-171.3000;0.1368;-0.8414;
-171.0000;0.1376;-0.8364;
-170.7000;0.1359;-0.8515;
-170.4000;0.1343;-0.8414;
-170.1000;0.1400;-0.8239;
-169.8000;0.1351;-0.8314;
-169.5000;0.1441;-0.8063;
-169.2000;0.1368;-0.8239;
-168.9000;0.1335;-0.8264;
-168.6000;0.1359;-0.8239;
-168.3000;0.1368;-0.8289;
-168.0000;0.1400;-0.8214;
-167.7000;0.1351;-0.8364;
-167.4000;0.1368;-0.8364;
-167.1000;0.1351;-0.8339;
-166.8000;0.1368;-0.8289;
-166.5000;0.1425;-0.8138;
-166.2000;0.1384;-0.8214;
-165.9000;0.1359;-0.8239;
-165.6000;0.1376;-0.8289;
-165.3000;0.1384;-0.8314;
-165.0000;0.1343;-0.8414;
-164.7000;0.1343;-0.8389;
-164.4000;0.1376;-0.8314;
-164.1000;0.1392;-0.8264;
-163.8000;0.1368;-0.8314;
-163.5000;0.1384;-0.8339;
-163.2000;0.1392;-0.8239;
-162.9000;0.1392;-0.8239;
-162.6000;0.1384;-0.8239;
-162.3000;0.1392;-0.8163;
-162.0000;0.1392;-0.8188;
-161.7000;0.1359;-0.8289;
-161.4000;0.1368;-0.8239;
-161.1000;0.1368;-0.8188;
-160.8000;0.1384;-0.8264;
-160.5000;0.1384;-0.8314;
-160.2000;0.1384;-0.8364;
-159.9000;0.1392;-0.8214;
-159.6000;0.1368;-0.8239;
-159.3000;0.1392;-0.8113;
-159.0000;0.1359;-0.8239;
-158.7000;0.1359;-0.8289;
-158.4000;0.1376;-0.8113;
-158.1000;0.1359;-0.8239;
-157.8000;0.1376;-0.8163;
-157.5000;0.1433;-0.8088;
-157.2000;0.1376;-0.8214;
-156.9000;0.1368;-0.8364;
-156.6000;0.1384;-0.8440;
-156.3000;0.1368;-0.8540;
-156.0000;0.1384;-0.8490;
-155.7000;0.1368;-0.8465;
-155.4000;0.1392;-0.8490;
-155.1000;0.1376;-0.8389;
-154.8000;0.1392;-0.8289;
-154.5000;0.1335;-0.8414;
-154.2000;0.1384;-0.8264;
-153.9000;0.1368;-0.8339;
-153.6000;0.1481;-0.7987;
-153.3000;0.1368;-0.8414;
-153.0000;0.1359;-0.8364;
-152.7000;0.1384;-0.8264;
-152.4000;0.1351;-0.8239;
-152.1000;0.1441;-0.8138;
-151.8000;0.1368;-0.8314;
-151.5000;0.1368;-0.8314;
-151.2000;0.1359;-0.8389;
-150.9000;0.1368;-0.8490;
-150.6000;0.1368;-0.8515;
-150.3000;0.1368;-0.8465;
-150.0000;0.1408;-0.8389;
-149.7000;0.1376;-0.8465;
-149.4000;0.1384;-0.8490;
-149.1000;0.1384;-0.8490;
-148.8000;0.1384;-0.8465;
-148.5000;0.1359;-0.8540;
-148.2000;0.1368;-0.8440;
-147.9000;0.1368;-0.8339;
-147.6000;0.1376;-0.8188;
-147.3000;0.1351;-0.8314;
-147.0000;0.1384;-0.8314;
-146.7000;0.1392;-0.8314;
-146.4000;0.1392;-0.8314;
-146.1000;0.1368;-0.8490;
-145.8000;0.1368;-0.8465;
-145.5000;0.1384;-0.8364;
-145.2000;0.1368;-0.8389;
-144.9000;0.1376;-0.8465;
-144.6000;0.1351;-0.8490;
-144.3000;0.1343;-0.8515;
-144.0000;0.1359;-0.8515;
-143.7000;0.1368;-0.8465;
-143.4000;0.1376;-0.8490;
-143.1000;0.1351;-0.8565;
-142.8000;0.1359;-0.8515;
-142.5000;0.1376;-0.8465;
-142.2000;0.1359;-0.8440;
-141.9000;0.1368;-0.8440;
-141.6000;0.1343;-0.8565;
-141.3000;0.1376;-0.8490;
-141.0000;0.1368;-0.8389;
-140.7000;0.1368;-0.8414;
-140.4000;0.1351;-0.8389;
-140.1000;0.1351;-0.8389;
-139.8000;0.1359;-0.8314;
-139.5000;0.1376;-0.8239;
-139.2000;0.1351;-0.8264;
-138.9000;0.1376;-0.8214;
-138.6000;0.1359;-0.8339;
-138.3000;0.1359;-0.8389;
-138.0000;0.1368;-0.8364;
-137.7000;0.1441;-0.8289;
-137.4000;0.1351;-0.8565;
-137.1000;0.1351;-0.8565;
-136.8000;0.1376;-0.8465;
-136.5000;0.1376;-0.8389;
-136.2000;0.1384;-0.8314;
-135.9000;0.1416;-0.8113;
-135.6000;0.1376;-0.8188;
-135.3000;0.1359;-0.8214;
-135.0000;0.1376;-0.8214;
-134.7000;0.1359;-0.8339;
-134.4000;0.1343;-0.8314;
-134.1000;0.1400;-0.8188;
-133.8000;0.1368;-0.8289;
-133.5000;0.1376;-0.8289;
-133.2000;0.1359;-0.8289;
-132.9000;0.1343;-0.8314;
-132.6000;0.1343;-0.8264;
-132.3000;0.1376;-0.8214;
-132.0000;0.1359;-0.8239;
-131.7000;0.1343;-0.8239;
-131.4000;0.1384;-0.8163;
-131.1000;0.1343;-0.8289;
-130.8000;0.1368;-0.8188;
-130.5000;0.1359;-0.8339;
-130.2000;0.1368;-0.8339;
-129.9000;0.1376;-0.8289;
-129.6000;0.1384;-0.8264;
-129.3000;0.1368;-0.8364;
-129.0000;0.1351;-0.8414;
-128.7000;0.1368;-0.8364;
-128.4000;0.1376;-0.8289;
-128.1000;0.1359;-0.8239;
-127.8000;0.1376;-0.8188;
-127.5000;0.1368;-0.8214;
-127.2000;0.1384;-0.8163;
-126.9000;0.1368;-0.8214;
-126.6000;0.1392;-0.8163;
-126.3000;0.1392;-0.8163;
-126.0000;0.1400;-0.8138;
-125.7000;0.1376;-0.8214;
-125.4000;0.1400;-0.8389;
-125.1000;0.1384;-0.8465;
-124.8000;0.1392;-0.8389;
-124.5000;0.1392;-0.8339;
-124.2000;0.1392;-0.8414;
-123.9000;0.1416;-0.8389;
-123.6000;0.1392;-0.8465;
-123.3000;0.1433;-0.8364;
-123.0000;0.1384;-0.8490;
-122.7000;0.1376;-0.8490;
-122.4000;0.1359;-0.8490;
-122.1000;0.1425;-0.8339;
-121.8000;0.1384;-0.8389;
-121.5000;0.1376;-0.8339;
-121.2000;0.1490;-0.7987;
-120.9000;0.1359;-0.8239;
-120.6000;0.1392;-0.8264;
-120.3000;0.1392;-0.8289;
-120.0000;0.1351;-0.8264;
-119.7000;0.1376;-0.8239;
-119.4000;0.1359;-0.8289;
-119.1000;0.1368;-0.8214;
-118.8000;0.1368;-0.8163;
-118.5000;0.1359;-0.8239;
-118.2000;0.1376;-0.8214;
-117.9000;0.1368;-0.8289;
-117.6000;0.1359;-0.8239;
-117.3000;0.1384;-0.8138;
-117.0000;0.1311;-0.8264;
-116.7000;0.1376;-0.8163;
-116.4000;0.1408;-0.8063;
-116.1000;0.1392;-0.8113;
-115.8000;0.1376;-0.8188;
-115.5000;0.1392;-0.8214;
-115.2000;0.1368;-0.8389;
-114.9000;0.1376;-0.8339;
-114.6000;0.1368;-0.8414;
-114.3000;0.1400;-0.8314;
-114.0000;0.1384;-0.8339;
-113.7000;0.1368;-0.8414;
-113.4000;0.1384;-0.8465;
-113.1000;0.1359;-0.8540;
-112.8000;0.1384;-0.8389;
-112.5000;0.1335;-0.8490;
-112.2000;0.1368;-0.8289;
-111.9000;0.1376;-0.8239;
-111.6000;0.1376;-0.8314;
-111.3000;0.1400;-0.8289;
-111.0000;0.1359;-0.8364;
-110.7000;0.1392;-0.8289;
-110.4000;0.1368;-0.8364;
-110.1000;0.1384;-0.8239;
-109.8000;0.1400;-0.8289;
-109.5000;0.1351;-0.8414;
-109.2000;0.1368;-0.8339;
-108.9000;0.1327;-0.8440;
-108.6000;0.1376;-0.8440;
-108.3000;0.1368;-0.8414;
-108.0000;0.1319;-0.8540;
-107.7000;0.1416;-0.8239;
-107.4000;0.1368;-0.8339;
-107.1000;0.1359;-0.8289;
-106.8000;0.1319;-0.8440;
-106.5000;0.1368;-0.8264;
-106.2000;0.1359;-0.8364;
-105.9000;0.1408;-0.8239;
-105.6000;0.1368;-0.8440;
-105.3000;0.1384;-0.8364;
-105.0000;0.1376;-0.8490;
-104.7000;0.1368;-0.8515;
-104.4000;0.1376;-0.8465;
-104.1000;0.1392;-0.8540;
-103.8000;0.1359;-0.8615;
-103.5000;0.1368;-0.8666;
-103.2000;0.1384;-0.8666;
-102.9000;0.1376;-0.8741;
-102.6000;0.1368;-0.8691;
-102.3000;0.1376;-0.8540;
-102.0000;0.1376;-0.8465;
-101.7000;0.1376;-0.8389;
-101.4000;0.1368;-0.8414;
-101.1000;0.1384;-0.8389;
-100.8000;0.1368;-0.8364;
-100.5000;0.1384;-0.8239;
-100.2000;0.1368;-0.8264;
-99.9000;0.1368;-0.8364;
-99.6000;0.1368;-0.8389;
-99.3000;0.1376;-0.8414;
-99.0000;0.1376;-0.8465;
-98.7000;0.1343;-0.8590;
-98.4000;0.1384;-0.8414;
-98.1000;0.1368;-0.8339;
-97.8000;0.1392;-0.8314;
-97.5000;0.1368;-0.8440;
-97.2000;0.1359;-0.8490;
-96.9000;0.1425;-0.8339;
-96.6000;0.1359;-0.8565;
-96.3000;0.1351;-0.8590;
-96.0000;0.1359;-0.8615;
-95.7000;0.1384;-0.8615;
-95.4000;0.1384;-0.8641;
-95.1000;0.1408;-0.8540;
-94.8000;0.1384;-0.8490;
-94.5000;0.1376;-0.8540;
-94.2000;0.1392;-0.8490;
-93.9000;0.1376;-0.8490;
-93.6000;0.1408;-0.8364;
-93.3000;0.1368;-0.8490;
-93.0000;0.1392;-0.8515;
-92.7000;0.1368;-0.8590;
-92.4000;0.1368;-0.8565;
-92.1000;0.1368;-0.8565;
-91.8000;0.1368;-0.8490;
-91.5000;0.1376;-0.8414;
-91.2000;0.1351;-0.8364;
-90.9000;0.1359;-0.8314;
-90.6000;0.1433;-0.8163;
-90.3000;0.1400;-0.8264;
-90.0000;0.1384;-0.8339;
-89.7000;0.1278;-0.8490;
-89.4000;0.1368;-0.8188;
-89.1000;0.1384;-0.8138;
-88.8000;0.1302;-0.8339;
-88.5000;0.1351;-0.8239;
-88.2000;0.1400;-0.8088;
-87.9000;0.1359;-0.8214;
-87.6000;0.1343;-0.8364;
-87.3000;0.1335;-0.8414;
-87.0000;0.1368;-0.8214;
-86.7000;0.1359;-0.8239;
-86.4000;0.1359;-0.8239;
-86.1000;0.1254;-0.8590;
-85.8000;0.1368;-0.8239;
-85.5000;0.1416;-0.8038;
-85.2000;0.1376;-0.8138;
-84.9000;0.1368;-0.8364;
-84.6000;0.1384;-0.8339;
-84.3000;0.1384;-0.8339;
-84.0000;0.1384;-0.8264;
-83.7000;0.1368;-0.8339;
-83.4000;0.1351;-0.8465;
-83.1000;0.1368;-0.8565;
-82.8000;0.1392;-0.8465;
-82.5000;0.1368;-0.8515;
-82.2000;0.1368;-0.8515;
-81.9000;0.1376;-0.8414;
-81.6000;0.1359;-0.8339;
-81.3000;0.1343;-0.8339;
-81.0000;0.1368;-0.8389;
-80.7000;0.1376;-0.8364;
-80.4000;0.1376;-0.8465;
-80.1000;0.1376;-0.8490;
-79.8000;0.1359;-0.8515;
-79.5000;0.1359;-0.8490;
-79.2000;0.1368;-0.8490;
-78.9000;0.1351;-0.8490;
-78.6000;0.1351;-0.8490;
-78.3000;0.1359;-0.8490;
-78.0000;0.1368;-0.8465;
-77.7000;0.1302;-0.8540;
-77.4000;0.1384;-0.8389;
-77.1000;0.1343;-0.8440;
-76.8000;0.1343;-0.8440;
-76.5000;0.1351;-0.8490;
-76.2000;0.1368;-0.8465;
-75.9000;0.1376;-0.8490;
-75.6000;0.1441;-0.8289;
-75.3000;0.1376;-0.8490;
-75.0000;0.1376;-0.8490;
-74.7000;0.1384;-0.8465;
-74.4000;0.1319;-0.8590;
-74.1000;0.1376;-0.8465;
-73.8000;0.1425;-0.8389;
-73.5000;0.1359;-0.8515;
-73.2000;0.1376;-0.8515;
-72.9000;0.1351;-0.8490;
-72.6000;0.1368;-0.8314;
-72.3000;0.1384;-0.8314;
-72.0000;0.1416;-0.8214;
-71.7000;0.1392;-0.8214;
-71.4000;0.1368;-0.8339;
-71.1000;0.1384;-0.8364;
-70.8000;0.1376;-0.8440;
-70.5000;0.1384;-0.8389;
-70.2000;0.1376;-0.8289;
-69.9000;0.1376;-0.8314;
-69.6000;0.1400;-0.8389;
-69.3000;0.1368;-0.8490;
-69.0000;0.1327;-0.8515;
-68.7000;0.1384;-0.8414;
-68.4000;0.1376;-0.8389;
-68.1000;0.1376;-0.8389;
-67.8000;0.1319;-0.8565;
-67.5000;0.1359;-0.8590;
-67.2000;0.1368;-0.8590;
-66.9000;0.1376;-0.8540;
-66.6000;0.1335;-0.8590;
-66.3000;0.1368;-0.8540;
-66.0000;0.1335;-0.8540;
-65.7000;0.1376;-0.8490;
-65.4000;0.1351;-0.8515;
-65.1000;0.1384;-0.8414;
-64.8000;0.1368;-0.8414;
-64.5000;0.1473;-0.8113;
-64.2000;0.1368;-0.8389;
-63.9000;0.1368;-0.8440;
-63.6000;0.1368;-0.8414;
-63.3000;0.1376;-0.8440;
-63.0000;0.1359;-0.8314;
-62.7000;0.1359;-0.8339;
-62.4000;0.1368;-0.8339;
-62.1000;0.1368;-0.8414;
-61.8000;0.1359;-0.8465;
-61.5000;0.1368;-0.8440;
-61.2000;0.1392;-0.8364;
-60.9000;0.1416;-0.8364;
-60.6000;0.1392;-0.8314;
-60.3000;0.1368;-0.8289;
-60.0000;0.1408;-0.8038;
-59.7000;0.1376;-0.8113;
-59.4000;0.1384;-0.8038;
-59.1000;0.1368;-0.8088;
-58.8000;0.1359;-0.8188;
-58.5000;0.1376;-0.8188;
-58.2000;0.1416;-0.8239;
-57.9000;0.1408;-0.8314;
-57.6000;0.1376;-0.8389;
-57.3000;0.1384;-0.8389;
-57.0000;0.1368;-0.8515;
-56.7000;0.1384;-0.8540;
-56.4000;0.1368;-0.8590;
-56.1000;0.1384;-0.8490;
-55.8000;0.1359;-0.8440;
-55.5000;0.1384;-0.8414;
-55.2000;0.1343;-0.8440;
-54.9000;0.1408;-0.8289;
-54.6000;0.1384;-0.8289;
-54.3000;0.1416;-0.8214;
-54.0000;0.1294;-0.8515;
-53.7000;0.1376;-0.8188;
-53.4000;0.1392;-0.8138;
-53.1000;0.1359;-0.8163;
-52.8000;0.1359;-0.8188;
-52.5000;0.1368;-0.8138;
-52.2000;0.1416;-0.8063;
-51.9000;0.1457;-0.7987;
-51.6000;0.1392;-0.8214;
-51.3000;0.1376;-0.8239;
-51.0000;0.1384;-0.8163;
-50.7000;0.1376;-0.8214;
-50.4000;0.1368;-0.8214;
-50.1000;0.1368;-0.8214;
-49.8000;0.1441;-0.8013;
-49.5000;0.1368;-0.8264;
-49.2000;0.1368;-0.8414;
-48.9000;0.1368;-0.8465;
-48.6000;0.1359;-0.8490;
-48.3000;0.1400;-0.8389;
-48.0000;0.1351;-0.8515;
-47.7000;0.1302;-0.8590;
-47.4000;0.1351;-0.8414;
-47.1000;0.1368;-0.8364;
-46.8000;0.1343;-0.8364;
-46.5000;0.1376;-0.8364;
-46.2000;0.1392;-0.8314;
-45.9000;0.1368;-0.8339;
-45.6000;0.1376;-0.8314;
-45.3000;0.1359;-0.8239;
-45.0000;0.1351;-0.8314;
-44.7000;0.1343;-0.8339;
-44.4000;0.1359;-0.8289;
-44.1000;0.1376;-0.8364;
-43.8000;0.1425;-0.8264;
-43.5000;0.1416;-0.8314;
-43.2000;0.1392;-0.8440;
-42.9000;0.1376;-0.8389;
-42.6000;0.1335;-0.8440;
-42.3000;0.1368;-0.8188;
-42.0000;0.1384;-0.8264;
-41.7000;0.1368;-0.8389;
-41.4000;0.1368;-0.8440;
-41.1000;0.1368;-0.8314;
-40.8000;0.1376;-0.8339;
-40.5000;0.1416;-0.8239;
-40.2000;0.1359;-0.8490;
-39.9000;0.1335;-0.8590;
-39.6000;0.1368;-0.8515;
-39.3000;0.1408;-0.8440;
-39.0000;0.1384;-0.8414;
-38.7000;0.1359;-0.8465;
-38.4000;0.1359;-0.8465;
-38.1000;0.1335;-0.8465;
-37.8000;0.1343;-0.8465;
-37.5000;0.1311;-0.8490;
-37.2000;0.1368;-0.8314;
-36.9000;0.1368;-0.8289;
-36.6000;0.1384;-0.8314;
-36.3000;0.1376;-0.8389;
-36.0000;0.1376;-0.8440;
-35.7000;0.1416;-0.8214;
-35.4000;0.1392;-0.8214;
-35.1000;0.1359;-0.8289;
-34.8000;0.1384;-0.8188;
-34.5000;0.1343;-0.8414;
-34.2000;0.1384;-0.8314;
-33.9000;0.1368;-0.8440;
-33.6000;0.1359;-0.8440;
-33.3000;0.1384;-0.8440;
-33.0000;0.1376;-0.8414;
-32.7000;0.1392;-0.8314;
-32.4000;0.1351;-0.8264;
-32.1000;0.1368;-0.8289;
-31.8000;0.1368;-0.8314;
-31.5000;0.1359;-0.8339;
-31.2000;0.1359;-0.8264;
-30.9000;0.1368;-0.8239;
-30.6000;0.1392;-0.8214;
-30.3000;0.1384;-0.8188;
-30.0000;0.1351;-0.8289;
-29.7000;0.1368;-0.8239;
-29.4000;0.1384;-0.8163;
-29.1000;0.1351;-0.8214;
-28.8000;0.1384;-0.8088;
-28.5000;0.1351;-0.8214;
-28.2000;0.1351;-0.8239;
-27.9000;0.1384;-0.8214;
-27.6000;0.1359;-0.8214;
-27.3000;0.1368;-0.8138;
-27.0000;0.1368;-0.8063;
-26.7000;0.1368;-0.8088;
-26.4000;0.1368;-0.8214;
-26.1000;0.1368;-0.8138;
-25.8000;0.1376;-0.8088;
-25.5000;0.1376;-0.8088;
-25.2000;0.1359;-0.8113;
-24.9000;0.1368;-0.8038;
-24.6000;0.1368;-0.8013;
-24.3000;0.1368;-0.8013;
-24.0000;0.1343;-0.7987;
-23.7000;0.1384;-0.8013;
-23.4000;0.1368;-0.8063;
-23.1000;0.1368;-0.8063;
-22.8000;0.1392;-0.8063;
-22.5000;0.1376;-0.8088;
-22.2000;0.1368;-0.8113;
-21.9000;0.1376;-0.8088;
-21.6000;0.1376;-0.8038;
-21.3000;0.1408;-0.8038;
-21.0000;0.1384;-0.8188;
-20.7000;0.1425;-0.8188;
-20.4000;0.1376;-0.8314;
-20.1000;0.1408;-0.8264;
-19.8000;0.1368;-0.8289;
-19.5000;0.1376;-0.8188;
-19.2000;0.1368;-0.8113;
-18.9000;0.1368;-0.8163;
-18.6000;0.1335;-0.8314;
-18.3000;0.1368;-0.8214;
-18.0000;0.1473;-0.7862;
-17.7000;0.1384;-0.8088;
-17.4000;0.1351;-0.8138;
-17.1000;0.1384;-0.8088;
-16.8000;0.1465;-0.7887;
-16.5000;0.1384;-0.8038;
-16.2000;0.1302;-0.8314;
-15.9000;0.1359;-0.8239;
-15.6000;0.1376;-0.8188;
-15.3000;0.1368;-0.8188;
-15.0000;0.1384;-0.7987;
-14.7000;0.1400;-0.7912;
-14.4000;0.1400;-0.8038;
-14.1000;0.1359;-0.8138;
-13.8000;0.1392;-0.8038;
-13.5000;0.1384;-0.8063;
-13.2000;0.1368;-0.8038;
-12.9000;0.1343;-0.8138;
-12.6000;0.1392;-0.8063;
-12.3000;0.1343;-0.8188;
-12.0000;0.1343;-0.8239;
-11.7000;0.1376;-0.8264;
-11.4000;0.1359;-0.8389;
-11.1000;0.1376;-0.8364;
-10.8000;0.1368;-0.8440;
-10.5000;0.1359;-0.8440;
-10.2000;0.1384;-0.8339;
-9.9000;0.1359;-0.8364;
-9.6000;0.1368;-0.8289;
-9.3000;0.1384;-0.8264;
-9.0000;0.1376;-0.8289;
-8.7000;0.1384;-0.8264;
-8.4000;0.1359;-0.8364;
-8.1000;0.1368;-0.8364;
-7.8000;0.1384;-0.8339;
-7.5000;0.1368;-0.8414;
-7.2000;0.1384;-0.8389;
-6.9000;0.1368;-0.8465;
-6.6000;0.1368;-0.8465;
-6.3000;0.1335;-0.8565;
-6.0000;0.1368;-0.8440;
-5.7000;0.1368;-0.8339;
-5.4000;0.1319;-0.8364;
-5.1000;0.1376;-0.8239;
-4.8000;0.1433;-0.8013;
-4.5000;0.1359;-0.8163;
-4.2000;0.1359;-0.8138;
-3.9000;0.1376;-0.8188;
-3.6000;0.1351;-0.8289;
-3.3000;0.1368;-0.8264;
-3.0000;0.1376;-0.8264;
-2.7000;0.1359;-0.8314;
-2.4000;0.1433;-0.8113;
-2.1000;0.1368;-0.8239;
-1.8000;0.1294;-0.8389;
-1.5000;0.1376;-0.8214;
-1.2000;0.1359;-0.8239;
-0.9000;0.1368;-0.8214;
-0.6000;0.1343;-0.8339;
-0.3000;0.1343;-0.8364;
0.0000;0.1343;-0.8364;
0.3000;0.1457;-0.8088;
0.6000;0.1376;-0.8113;
0.9000;0.1376;-0.7962;
1.2000;0.1400;-0.7661;
1.5000;0.1416;-0.7360;
1.8000;0.1425;-0.7184;
2.1000;0.1441;-0.7033;
2.4000;0.1441;-0.6907;
2.7000;0.1425;-0.6933;
3.0000;0.1449;-0.6782;
3.3000;0.1457;-0.6631;
3.6000;0.1465;-0.6480;
3.9000;0.1457;-0.6405;
4.2000;0.1490;-0.6305;
4.5000;0.1473;-0.6355;
4.8000;0.1538;-0.6104;
5.1000;0.1490;-0.6129;
5.4000;0.1465;-0.6154;
5.7000;0.1408;-0.6330;
6.0000;0.1481;-0.6129;
6.3000;0.1514;-0.6053;
6.6000;0.1481;-0.6129;
6.9000;0.1481;-0.6079;
7.2000;0.1441;-0.6229;
7.5000;0.1473;-0.6204;
7.8000;0.1449;-0.6179;
8.1000;0.1473;-0.6028;
8.4000;0.1481;-0.5978;
8.7000;0.1473;-0.5928;
9.0000;0.1457;-0.5953;
9.3000;0.1481;-0.5903;
9.6000;0.1457;-0.5928;
9.9000;0.1473;-0.5878;
10.2000;0.1514;-0.5827;
10.5000;0.1465;-0.5978;
10.8000;0.1473;-0.5953;
11.1000;0.1481;-0.5852;
11.4000;0.1449;-0.5953;
11.7000;0.1473;-0.5953;
12.0000;0.1473;-0.5978;
12.3000;0.1514;-0.5953;
12.6000;0.1490;-0.5978;
12.9000;0.1498;-0.6003;
13.2000;0.1514;-0.5878;
13.5000;0.1481;-0.5978;
13.8000;0.1506;-0.5928;
14.1000;0.1522;-0.5978;
14.4000;0.1481;-0.6104;
14.7000;0.1473;-0.6154;
15.0000;0.1498;-0.6079;
15.3000;0.1490;-0.6028;
15.6000;0.1441;-0.6179;
15.9000;0.1465;-0.5978;
16.2000;0.1530;-0.5827;
16.5000;0.1481;-0.6028;
16.8000;0.1498;-0.5978;
17.1000;0.1408;-0.6129;
17.4000;0.1457;-0.6003;
17.7000;0.1473;-0.5953;
18.0000;0.1465;-0.5978;
18.3000;0.1465;-0.5953;
18.6000;0.1473;-0.5978;
18.9000;0.1481;-0.5953;
19.2000;0.1465;-0.6028;
19.5000;0.1473;-0.6028;
19.8000;0.1368;-0.6330;
20.1000;0.1481;-0.5978;
20.4000;0.1481;-0.5903;
20.7000;0.1473;-0.6003;
21.0000;0.1481;-0.6028;
21.3000;0.1481;-0.6104;
21.6000;0.1490;-0.6079;
21.9000;0.1498;-0.6154;
22.2000;0.1457;-0.6330;
22.5000;0.1457;-0.6380;
22.8000;0.1465;-0.6405;
23.1000;0.1473;-0.6279;
23.4000;0.1465;-0.6279;
23.7000;0.1490;-0.6305;
24.0000;0.1498;-0.6204;
24.3000;0.1498;-0.6154;
24.6000;0.1490;-0.6179;
24.9000;0.1481;-0.6204;
25.2000;0.1433;-0.6254;
25.5000;0.1481;-0.6179;
25.8000;0.1473;-0.6129;
26.1000;0.1473;-0.6154;
26.4000;0.1538;-0.5953;
26.7000;0.1433;-0.6305;
27.0000;0.1490;-0.6179;
27.3000;0.1530;-0.6053;
27.6000;0.1473;-0.6204;
27.9000;0.1481;-0.6229;
28.2000;0.1481;-0.6154;
28.5000;0.1481;-0.6204;
28.8000;0.1490;-0.6204;
29.1000;0.1473;-0.6179;
29.4000;0.1498;-0.6079;
29.7000;0.1425;-0.6204;
30.0000;0.1465;-0.6079;
30.3000;0.1457;-0.5953;
30.6000;0.1473;-0.5802;
30.9000;0.1473;-0.5852;
31.2000;0.1449;-0.6028;
31.5000;0.1457;-0.6053;
31.8000;0.1490;-0.6028;
32.1000;0.1473;-0.6079;
32.4000;0.1449;-0.6129;
32.7000;0.1473;-0.6129;
33.0000;0.1473;-0.6204;
33.3000;0.1465;-0.6279;
33.6000;0.1449;-0.6229;
33.9000;0.1449;-0.6179;
34.2000;0.1481;-0.6154;
34.5000;0.1490;-0.6179;
34.8000;0.1481;-0.6079;
35.1000;0.1481;-0.6079;
35.4000;0.1465;-0.6003;
35.7000;0.1498;-0.5903;
36.0000;0.1547;-0.5852;
36.3000;0.1481;-0.6053;
36.6000;0.1506;-0.5903;
36.9000;0.1490;-0.5978;
37.2000;0.1490;-0.5827;
37.5000;0.1481;-0.5852;
37.8000;0.1465;-0.5928;
38.1000;0.1473;-0.5928;
38.4000;0.1473;-0.5903;
38.7000;0.1441;-0.6003;
39.0000;0.1449;-0.5953;
39.3000;0.1490;-0.5802;
39.6000;0.1490;-0.5777;
39.9000;0.1457;-0.5852;
40.2000;0.1449;-0.5928;
40.5000;0.1490;-0.5953;
40.8000;0.1457;-0.6053;
41.1000;0.1498;-0.6079;
41.4000;0.1490;-0.6003;
41.7000;0.1481;-0.6079;
42.0000;0.1490;-0.6003;
42.3000;0.1538;-0.5827;
42.6000;0.1498;-0.5903;
42.9000;0.1481;-0.5978;
43.2000;0.1498;-0.6028;
43.5000;0.1457;-0.6053;
43.8000;0.1425;-0.6179;
44.1000;0.1465;-0.6053;
44.4000;0.1465;-0.6079;
44.7000;0.1490;-0.5978;
45.0000;0.1563;-0.5702;
45.3000;0.1481;-0.5953;
45.6000;0.1473;-0.5852;
45.9000;0.1481;-0.5827;
46.2000;0.1473;-0.5928;
46.5000;0.1473;-0.6079;
46.8000;0.1506;-0.6129;
47.1000;0.1587;-0.5903;
47.4000;0.1490;-0.6154;
47.7000;0.1490;-0.6179;
48.0000;0.1514;-0.6028;
48.3000;0.1465;-0.6129;
48.6000;0.1473;-0.6104;
48.9000;0.1449;-0.6254;
49.2000;0.1449;-0.6254;
49.5000;0.1457;-0.6179;
49.8000;0.1473;-0.6229;
50.1000;0.1465;-0.6204;
50.4000;0.1465;-0.6229;
50.7000;0.1498;-0.6028;
51.0000;0.1490;-0.6104;
51.3000;0.1457;-0.6104;
51.6000;0.1465;-0.6053;
51.9000;0.1490;-0.5978;
52.2000;0.1449;-0.6129;
52.5000;0.1481;-0.6053;
52.8000;0.1473;-0.6079;
53.1000;0.1449;-0.6154;
53.4000;0.1465;-0.6129;
53.7000;0.1481;-0.6053;
54.0000;0.1490;-0.6028;
54.3000;0.1465;-0.6079;
54.6000;0.1473;-0.6179;
54.9000;0.1465;-0.6154;
55.2000;0.1465;-0.6154;
55.5000;0.1465;-0.6129;
55.8000;0.1473;-0.6179;
56.1000;0.1481;-0.6154;
56.4000;0.1473;-0.6229;
56.7000;0.1465;-0.6229;
57.0000;0.1465;-0.6355;
57.3000;0.1490;-0.6305;
57.6000;0.1465;-0.6305;
57.9000;0.1465;-0.6330;
58.2000;0.1457;-0.6305;
58.5000;0.1481;-0.6229;
58.8000;0.1481;-0.6154;
59.1000;0.1490;-0.6279;
59.4000;0.1498;-0.6305;
59.7000;0.1490;-0.6254;
60.0000;0.1498;-0.6229;
60.3000;0.1490;-0.6279;
60.6000;0.1449;-0.6229;
60.9000;0.1465;-0.6154;
61.2000;0.1490;-0.6154;
61.5000;0.1457;-0.6204;
61.8000;0.1473;-0.6204;
62.1000;0.1473;-0.6154;
62.4000;0.1490;-0.6179;
62.7000;0.1473;-0.6204;
63.0000;0.1522;-0.6079;
63.3000;0.1481;-0.6154;
63.6000;0.1481;-0.6204;
63.9000;0.1514;-0.6154;
64.2000;0.1465;-0.6229;
64.5000;0.1473;-0.6179;
64.8000;0.1425;-0.6305;
65.1000;0.1498;-0.6079;
65.4000;0.1481;-0.6154;
65.7000;0.1473;-0.6204;
66.0000;0.1425;-0.6330;
66.3000;0.1530;-0.6028;
66.6000;0.1490;-0.6179;
66.9000;0.1481;-0.6154;
67.2000;0.1490;-0.6254;
67.5000;0.1498;-0.6229;
67.8000;0.1473;-0.6204;
68.1000;0.1490;-0.6179;
68.4000;0.1473;-0.6104;
68.7000;0.1473;-0.6229;
69.0000;0.1449;-0.6305;
69.3000;0.1498;-0.6254;
69.6000;0.1481;-0.6204;
69.9000;0.1449;-0.6305;
70.2000;0.1538;-0.6154;
70.5000;0.1425;-0.6430;
70.8000;0.1473;-0.6380;
71.1000;0.1498;-0.6305;
71.4000;0.1498;-0.6279;
71.7000;0.1473;-0.6355;
72.0000;0.1465;-0.6254;
72.3000;0.1481;-0.6179;
72.6000;0.1416;-0.6405;
72.9000;0.1465;-0.6355;
73.2000;0.1449;-0.6355;
73.5000;0.1490;-0.6330;
73.8000;0.1473;-0.6279;
74.1000;0.1490;-0.6129;
74.4000;0.1465;-0.6179;
74.7000;0.1481;-0.6154;
75.0000;0.1498;-0.6129;
75.3000;0.1416;-0.6330;
75.6000;0.1465;-0.6154;
75.9000;0.1457;-0.6129;
76.2000;0.1490;-0.6028;
76.5000;0.1490;-0.5978;
76.8000;0.1481;-0.5978;
77.1000;0.1490;-0.5953;
77.4000;0.1522;-0.5928;
77.7000;0.1506;-0.6003;
78.0000;0.1481;-0.6079;
78.3000;0.1473;-0.6254;
78.6000;0.1481;-0.6254;
78.9000;0.1481;-0.6279;
79.2000;0.1481;-0.6279;
79.5000;0.1506;-0.6129;
79.8000;0.1481;-0.6204;
80.1000;0.1481;-0.6229;
80.4000;0.1481;-0.6204;
80.7000;0.1522;-0.5978;
81.0000;0.1481;-0.6053;
81.3000;0.1481;-0.6028;
81.6000;0.1473;-0.5953;
81.9000;0.1473;-0.6028;
82.2000;0.1457;-0.6079;
82.5000;0.1473;-0.5953;
82.8000;0.1490;-0.5928;
83.1000;0.1498;-0.5953;
83.4000;0.1457;-0.6028;
83.7000;0.1473;-0.6003;
84.0000;0.1506;-0.6028;
84.3000;0.1481;-0.6053;
84.6000;0.1465;-0.6079;
84.9000;0.1481;-0.6129;
85.2000;0.1481;-0.6154;
85.5000;0.1498;-0.6104;
85.8000;0.1465;-0.6053;
86.1000;0.1481;-0.5953;
86.4000;0.1522;-0.5953;
86.7000;0.1473;-0.6028;
87.0000;0.1498;-0.5978;
87.3000;0.1425;-0.6179;
87.6000;0.1441;-0.6104;
87.9000;0.1473;-0.6003;
88.2000;0.1481;-0.5928;
88.5000;0.1490;-0.5928;
88.8000;0.1514;-0.5852;
89.1000;0.1441;-0.6028;
89.4000;0.1457;-0.6028;
89.7000;0.1457;-0.6079;
90.0000;0.1465;-0.6154;
90.3000;0.1465;-0.6204;
90.6000;0.1416;-0.6229;
90.9000;0.1473;-0.6028;
91.2000;0.1465;-0.6028;
91.5000;0.1498;-0.6028;
91.8000;0.1433;-0.6229;
92.1000;0.1473;-0.6279;
92.4000;0.1457;-0.6229;
92.7000;0.1449;-0.6129;
93.0000;0.1473;-0.5978;
93.3000;0.1530;-0.5903;
93.6000;0.1465;-0.6104;
93.9000;0.1465;-0.6129;
94.2000;0.1473;-0.6079;
94.5000;0.1465;-0.6079;
94.8000;0.1481;-0.6104;
95.1000;0.1425;-0.6279;
95.4000;0.1498;-0.6053;
95.7000;0.1473;-0.6129;
96.0000;0.1490;-0.6104;
96.3000;0.1465;-0.6079;
96.6000;0.1490;-0.6028;
96.9000;0.1490;-0.6003;
97.2000;0.1384;-0.6279;
97.5000;0.1465;-0.6003;
97.8000;0.1465;-0.5978;
98.1000;0.1481;-0.5978;
98.4000;0.1498;-0.5928;
98.7000;0.1490;-0.6003;
99.0000;0.1473;-0.6129;
99.3000;0.1481;-0.6104;
99.6000;0.1498;-0.6104;
99.9000;0.1416;-0.6204;
100.2000;0.1449;-0.6028;
100.5000;0.1481;-0.5978;
100.8000;0.1481;-0.6053;
101.1000;0.1473;-0.6003;
101.4000;0.1490;-0.6003;
101.7000;0.1490;-0.5978;
102.0000;0.1481;-0.6003;
102.3000;0.1506;-0.5928;
102.6000;0.1457;-0.6028;
102.9000;0.1457;-0.6053;
103.2000;0.1457;-0.6104;
103.5000;0.1473;-0.5978;
103.8000;0.1441;-0.6079;
104.1000;0.1473;-0.6079;
104.4000;0.1457;-0.6154;
104.7000;0.1441;-0.6129;
105.0000;0.1490;-0.6079;
105.3000;0.1465;-0.6154;
105.6000;0.1473;-0.6179;
105.9000;0.1514;-0.6053;
106.2000;0.1473;-0.6179;
106.5000;0.1473;-0.6204;
106.8000;0.1449;-0.6229;
107.1000;0.1498;-0.6204;
107.4000;0.1473;-0.6229;
107.7000;0.1465;-0.6229;
108.0000;0.1392;-0.6355;
108.3000;0.1481;-0.6279;
108.6000;0.1457;-0.6355;
108.9000;0.1473;-0.6129;
109.2000;0.1473;-0.6129;
109.5000;0.1457;-0.6204;
109.8000;0.1465;-0.6229;
110.1000;0.1481;-0.6154;
110.4000;0.1481;-0.6154;
110.7000;0.1457;-0.6154;
111.0000;0.1465;-0.6179;
111.3000;0.1465;-0.6204;
111.6000;0.1473;-0.6204;
111.9000;0.1481;-0.6179;
112.2000;0.1441;-0.6229;
112.5000;0.1449;-0.6254;
112.8000;0.1490;-0.6229;
113.1000;0.1498;-0.6179;
113.4000;0.1465;-0.6279;
113.7000;0.1457;-0.6254;
114.0000;0.1449;-0.6355;
114.3000;0.1449;-0.6330;
114.6000;0.1449;-0.6405;
114.9000;0.1481;-0.6279;
115.2000;0.1465;-0.6330;
115.5000;0.1481;-0.6355;
115.8000;0.1473;-0.6330;
116.1000;0.1425;-0.6531;
116.4000;0.1449;-0.6355;
116.7000;0.1457;-0.6279;
117.0000;0.1449;-0.6279;
117.3000;0.1457;-0.6279;
117.6000;0.1473;-0.6355;
117.9000;0.1465;-0.6430;
118.2000;0.1490;-0.6380;
118.5000;0.1514;-0.6305;
118.8000;0.1457;-0.6455;
119.1000;0.1465;-0.6531;
119.4000;0.1457;-0.6455;
119.7000;0.1473;-0.6330;
120.0000;0.1473;-0.6330;
120.3000;0.1457;-0.6355;
120.6000;0.1449;-0.6430;
120.9000;0.1498;-0.6279;
121.2000;0.1481;-0.6254;
121.5000;0.1449;-0.6229;
121.8000;0.1457;-0.6229;
122.1000;0.1441;-0.6254;
122.4000;0.1457;-0.6154;
122.7000;0.1465;-0.6254;
123.0000;0.1465;-0.6179;
123.3000;0.1530;-0.5978;
123.6000;0.1457;-0.6179;
123.9000;0.1457;-0.6053;
124.2000;0.1465;-0.6104;
124.5000;0.1465;-0.6179;
124.8000;0.1481;-0.6254;
125.1000;0.1498;-0.6129;
125.4000;0.1473;-0.6079;
125.7000;0.1481;-0.6104;
126.0000;0.1449;-0.6129;
126.3000;0.1465;-0.6053;
126.6000;0.1490;-0.6003;
126.9000;0.1441;-0.6104;
127.2000;0.1506;-0.5928;
127.5000;0.1473;-0.6003;
127.8000;0.1457;-0.6104;
128.1000;0.1465;-0.6129;
128.4000;0.1481;-0.6129;
128.7000;0.1465;-0.6179;
129.0000;0.1481;-0.6179;
129.3000;0.1457;-0.6229;
129.6000;0.1465;-0.6204;
129.9000;0.1481;-0.6154;
130.2000;0.1457;-0.6154;
130.5000;0.1465;-0.6129;
130.8000;0.1490;-0.6053;
131.1000;0.1473;-0.6079;
131.4000;0.1490;-0.6079;
131.7000;0.1465;-0.6053;
132.0000;0.1481;-0.6053;
132.3000;0.1465;-0.6104;
132.6000;0.1490;-0.6079;
132.9000;0.1465;-0.6179;
133.2000;0.1490;-0.6179;
133.5000;0.1465;-0.6229;
133.8000;0.1473;-0.6229;
134.1000;0.1465;-0.6330;
134.4000;0.1490;-0.6305;
134.7000;0.1481;-0.6179;
135.0000;0.1481;-0.6104;
135.3000;0.1473;-0.6079;
135.6000;0.1473;-0.6053;
135.9000;0.1425;-0.6229;
136.2000;0.1449;-0.6104;
136.5000;0.1457;-0.6079;
136.8000;0.1473;-0.6079;
137.1000;0.1506;-0.6003;
137.4000;0.1481;-0.6003;
137.7000;0.1490;-0.6028;
138.0000;0.1457;-0.6154;
138.3000;0.1481;-0.6154;
138.6000;0.1498;-0.6154;
138.9000;0.1465;-0.6204;
139.2000;0.1457;-0.6254;
139.5000;0.1498;-0.6229;
139.8000;0.1481;-0.6305;
140.1000;0.1498;-0.6179;
140.4000;0.1490;-0.6104;
140.7000;0.1481;-0.6104;
141.0000;0.1490;-0.6079;
141.3000;0.1481;-0.6129;
141.6000;0.1441;-0.6229;
141.9000;0.1465;-0.6129;
142.2000;0.1490;-0.6053;
142.5000;0.1457;-0.6129;
142.8000;0.1465;-0.6129;
143.1000;0.1465;-0.6129;
143.4000;0.1481;-0.6154;
143.7000;0.1481;-0.6129;
144.0000;0.1465;-0.6154;
144.3000;0.1473;-0.6204;
144.6000;0.1490;-0.6079;
144.9000;0.1481;-0.6104;
145.2000;0.1481;-0.6104;
145.5000;0.1465;-0.6154;
145.8000;0.1449;-0.6129;
146.1000;0.1473;-0.6129;
146.4000;0.1490;-0.6028;
146.7000;0.1457;-0.6154;
147.0000;0.1457;-0.6154;
147.3000;0.1465;-0.6129;
147.6000;0.1465;-0.6129;
147.9000;0.1465;-0.6179;
148.2000;0.1465;-0.6254;
148.5000;0.1481;-0.6254;
148.8000;0.1481;-0.6305;
149.1000;0.1490;-0.6305;
149.4000;0.1465;-0.6380;
149.7000;0.1473;-0.6355;
150.0000;0.1506;-0.6229;
150.3000;0.1449;-0.6279;
150.6000;0.1473;-0.6204;
150.9000;0.1465;-0.6204;
151.2000;0.1441;-0.6279;
151.5000;0.1481;-0.6204;
151.8000;0.1473;-0.6254;
152.1000;0.1473;-0.6279;
152.4000;0.1490;-0.6179;
152.7000;0.1490;-0.6079;
153.0000;0.1449;-0.6104;
153.3000;0.1498;-0.6053;
153.6000;0.1465;-0.6129;
153.9000;0.1457;-0.6104;
154.2000;0.1449;-0.6154;
154.5000;0.1465;-0.6154;
154.8000;0.1449;-0.6229;
155.1000;0.1433;-0.6305;
155.4000;0.1449;-0.6229;
155.7000;0.1473;-0.6154;
156.0000;0.1473;-0.6154;
156.3000;0.1490;-0.6104;
156.6000;0.1457;-0.6229;
156.9000;0.1481;-0.6129;
157.2000;0.1457;-0.6279;
157.5000;0.1481;-0.6279;
157.8000;0.1465;-0.6380;
158.1000;0.1481;-0.6279;
158.4000;0.1473;-0.6204;
158.7000;0.1392;-0.6405;
159.0000;0.1457;-0.6254;
159.3000;0.1465;-0.6330;
159.6000;0.1473;-0.6229;
159.9000;0.1449;-0.6279;
160.2000;0.1490;-0.6254;
160.5000;0.1473;-0.6355;
160.8000;0.1457;-0.6405;
161.1000;0.1449;-0.6405;
161.4000;0.1481;-0.6330;
161.7000;0.1457;-0.6254;
162.0000;0.1416;-0.6330;
162.3000;0.1465;-0.6154;
162.6000;0.1441;-0.6104;
162.9000;0.1473;-0.5978;
163.2000;0.1498;-0.5903;
163.5000;0.1473;-0.5978;
163.8000;0.1490;-0.6003;
164.1000;0.1481;-0.6003;
164.4000;0.1473;-0.6079;
164.7000;0.1473;-0.6179;
165.0000;0.1490;-0.6179;
165.3000;0.1441;-0.6305;
165.6000;0.1481;-0.6154;
165.9000;0.1465;-0.6053;
166.2000;0.1457;-0.6079;
166.5000;0.1481;-0.6079;
166.8000;0.1449;-0.6154;
167.1000;0.1473;-0.6104;
167.4000;0.1481;-0.6079;
167.7000;0.1481;-0.6104;
168.0000;0.1408;-0.6154;
168.3000;0.1490;-0.6028;
168.6000;0.1473;-0.6079;
168.9000;0.1457;-0.6079;
169.2000;0.1481;-0.6104;
169.5000;0.1465;-0.6254;
169.8000;0.1449;-0.6279;
170.1000;0.1457;-0.6179;
170.4000;0.1490;-0.6028;
170.7000;0.1490;-0.6079;
171.0000;0.1465;-0.6104;
171.3000;0.1457;-0.6079;
171.6000;0.1481;-0.6053;
171.9000;0.1481;-0.6028;
172.2000;0.1457;-0.6079;
172.5000;0.1481;-0.6028;
172.8000;0.1465;-0.6053;
173.1000;0.1498;-0.5978;
173.4000;0.1498;-0.6028;
173.7000;0.1465;-0.6053;
174.0000;0.1473;-0.6104;
174.3000;0.1571;-0.5878;
174.6000;0.1481;-0.6129;
174.9000;0.1490;-0.6204;
175.2000;0.1465;-0.6179;
175.5000;0.1481;-0.6003;
175.8000;0.1473;-0.5903;
176.1000;0.1473;-0.5878;
176.4000;0.1481;-0.5903;
176.7000;0.1514;-0.5928;
177.0000;0.1473;-0.6079;
177.3000;0.1449;-0.6079;
177.6000;0.1457;-0.6154;
177.9000;0.1481;-0.6053;
178.2000;0.1473;-0.6053;
178.5000;0.1465;-0.6104;
178.8000;0.1522;-0.6028;
179.1000;0.1490;-0.6204;
179.4000;0.1481;-0.6154;
179.7000;0.1465;-0.6079;
180.0000;0.1457;-0.6129;
180.3000;0.1408;-0.6254;
180.6000;0.1473;-0.6053;
180.9000;0.1481;-0.6079;
181.2000;0.1481;-0.6028;
181.5000;0.1490;-0.6028;
181.8000;0.1400;-0.6204;
182.1000;0.1473;-0.6003;
182.4000;0.1473;-0.6028;
182.7000;0.1368;-0.6330;
183.0000;0.1457;-0.6104;
183.3000;0.1473;-0.6053;
183.6000;0.1465;-0.6079;
183.9000;0.1465;-0.6104;
184.2000;0.1433;-0.6179;
184.5000;0.1441;-0.6129;
184.8000;0.1465;-0.6129;
185.1000;0.1457;-0.6229;
185.4000;0.1530;-0.6003;
185.7000;0.1465;-0.6229;
186.0000;0.1368;-0.6480;
186.3000;0.1481;-0.6204;
186.6000;0.1416;-0.6305;
186.9000;0.1490;-0.6129;
187.2000;0.1498;-0.6003;
187.5000;0.1425;-0.6330;
187.8000;0.1441;-0.6229;
188.1000;0.1506;-0.6028;
188.4000;0.1449;-0.6129;
188.7000;0.1449;-0.6028;
189.0000;0.1433;-0.6129;
189.3000;0.1465;-0.5928;
189.6000;0.1473;-0.5928;
189.9000;0.1465;-0.6028;
190.2000;0.1481;-0.6079;
190.5000;0.1441;-0.6229;
190.8000;0.1473;-0.6179;
191.1000;0.1465;-0.6179;
191.4000;0.1416;-0.6279;
191.7000;0.1473;-0.6104;
192.0000;0.1481;-0.6104;
192.3000;0.1498;-0.6129;
192.6000;0.1473;-0.6129;
192.9000;0.1473;-0.6129;
193.2000;0.1481;-0.6028;
193.5000;0.1473;-0.6028;
193.8000;0.1465;-0.5978;
194.1000;0.1473;-0.6003;
194.4000;0.1530;-0.5827;
194.7000;0.1465;-0.5953;
195.0000;0.1465;-0.5903;
195.3000;0.1465;-0.5928;
195.6000;0.1449;-0.5953;
195.9000;0.1490;-0.5878;
196.2000;0.1457;-0.5928;
196.5000;0.1441;-0.6028;
196.8000;0.1400;-0.6154;
197.1000;0.1465;-0.6003;
197.4000;0.1416;-0.5903;
197.7000;0.1473;-0.5702;
198.0000;0.1433;-0.5752;
198.3000;0.1481;-0.5727;
198.6000;0.1490;-0.5677;
198.9000;0.1441;-0.5903;
199.2000;0.1465;-0.5852;
199.5000;0.1530;-0.5827;
199.8000;0.1457;-0.6003;
200.1000;0.1457;-0.6104;
200.4000;0.1441;-0.6129;
200.7000;0.1465;-0.6028;
201.0000;0.1441;-0.6053;
201.3000;0.1514;-0.5903;
201.6000;0.1465;-0.6028;
201.9000;0.1473;-0.5953;
202.2000;0.1481;-0.5852;
202.5000;0.1457;-0.5953;
202.8000;0.1481;-0.5953;
203.1000;0.1465;-0.6003;
203.4000;0.1465;-0.6003;
203.7000;0.1457;-0.5978;
204.0000;0.1457;-0.6003;
204.3000;0.1465;-0.5928;
204.6000;0.1465;-0.5878;
204.9000;0.1433;-0.5953;
205.2000;0.1481;-0.5903;
205.5000;0.1457;-0.5928;
205.8000;0.1457;-0.5903;
206.1000;0.1465;-0.5928;
206.4000;0.1457;-0.6003;
206.7000;0.1514;-0.5802;
207.0000;0.1465;-0.5928;
207.3000;0.1433;-0.6079;
207.6000;0.1481;-0.5903;
207.9000;0.1481;-0.5903;
208.2000;0.1441;-0.6053;
208.5000;0.1473;-0.6053;
208.8000;0.1457;-0.6053;
209.1000;0.1457;-0.6104;
209.4000;0.1465;-0.6129;
209.7000;0.1514;-0.6053;
210.0000;0.1473;-0.6129;
210.3000;0.1481;-0.6028;
210.6000;0.1530;-0.5953;
210.9000;0.1465;-0.6154;
211.2000;0.1490;-0.6079;
211.5000;0.1457;-0.6129;
211.8000;0.1498;-0.6204;
212.1000;0.1473;-0.6104;
212.4000;0.1490;-0.6003;
212.7000;0.1490;-0.6053;
213.0000;0.1465;-0.6079;
213.3000;0.1473;-0.6104;
213.6000;0.1481;-0.6129;
213.9000;0.1473;-0.6179;
214.2000;0.1441;-0.6254;
214.5000;0.1465;-0.6279;
214.8000;0.1481;-0.6254;
215.1000;0.1506;-0.6330;
215.4000;0.1514;-0.6305;
215.7000;0.1457;-0.6305;
216.0000;0.1490;-0.6305;
216.3000;0.1449;-0.6330;
216.6000;0.1481;-0.6279;
216.9000;0.1481;-0.6405;
217.2000;0.1490;-0.6355;
217.5000;0.1490;-0.6254;
217.8000;0.1465;-0.6254;
218.1000;0.1465;-0.6229;
218.4000;0.1473;-0.6154;
218.7000;0.1490;-0.6079;
219.0000;0.1384;-0.6279;
219.3000;0.1441;-0.6129;
219.6000;0.1457;-0.6028;
219.9000;0.1490;-0.5953;
220.2000;0.1465;-0.5978;
220.5000;0.1538;-0.5827;
220.8000;0.1473;-0.6079;
221.1000;0.1465;-0.6079;
221.4000;0.1481;-0.5903;
221.7000;0.1473;-0.6028;
222.0000;0.1457;-0.5928;
222.3000;0.1457;-0.5903;
222.6000;0.1457;-0.5953;
222.9000;0.1498;-0.6028;
223.2000;0.1457;-0.6104;
223.5000;0.1465;-0.6154;
223.8000;0.1457;-0.6204;
224.1000;0.1457;-0.6204;
224.4000;0.1465;-0.6305;
224.7000;0.1449;-0.6330;
225.0000;0.1481;-0.6355;
225.3000;0.1473;-0.6380;
225.6000;0.1481;-0.6330;
225.9000;0.1457;-0.6380;
226.2000;0.1465;-0.6305;
226.5000;0.1473;-0.6330;
226.8000;0.1449;-0.6405;
227.1000;0.1457;-0.6430;
227.4000;0.1481;-0.6430;
227.7000;0.1498;-0.6380;
228.0000;0.1441;-0.6506;
228.3000;0.1400;-0.6656;
228.6000;0.1441;-0.6405;
228.9000;0.1465;-0.6355;
229.2000;0.1457;-0.6355;
229.5000;0.1473;-0.6279;
229.8000;0.1433;-0.6405;
230.1000;0.1481;-0.6355;
230.4000;0.1465;-0.6405;
230.7000;0.1481;-0.6380;
231.0000;0.1473;-0.6380;
231.3000;0.1555;-0.6104;
231.6000;0.1490;-0.6204;
231.9000;0.1449;-0.6430;
232.2000;0.1457;-0.6405;
232.5000;0.1473;-0.6480;
232.8000;0.1457;-0.6480;
233.1000;0.1465;-0.6556;
233.4000;0.1538;-0.6506;
233.7000;0.1490;-0.6631;
234.0000;0.1498;-0.6556;
234.3000;0.1514;-0.6455;
234.6000;0.1425;-0.6631;
234.9000;0.1481;-0.6556;
235.2000;0.1457;-0.6531;
235.5000;0.1465;-0.6581;
235.8000;0.1473;-0.6506;
236.1000;0.1473;-0.6531;
236.4000;0.1408;-0.6581;
236.7000;0.1481;-0.6430;
237.0000;0.1481;-0.6480;
237.3000;0.1449;-0.6606;
237.6000;0.1465;-0.6480;
237.9000;0.1473;-0.6405;
238.2000;0.1490;-0.6305;
238.5000;0.1465;-0.6405;
238.8000;0.1481;-0.6355;
239.1000;0.1457;-0.6430;
239.4000;0.1473;-0.6430;
239.7000;0.1465;-0.6480;
240.0000;0.1473;-0.6405;
240.3000;0.1465;-0.6405;
240.6000;0.1481;-0.6430;
240.9000;0.1465;-0.6405;
241.2000;0.1538;-0.6229;
241.5000;0.1481;-0.6229;
241.8000;0.1498;-0.6129;
242.1000;0.1441;-0.6254;
242.4000;0.1465;-0.6179;
242.7000;0.1473;-0.6229;
243.0000;0.1481;-0.6179;
243.3000;0.1457;-0.6254;
243.6000;0.1473;-0.6305;
243.9000;0.1547;-0.6129;
244.2000;0.1530;-0.6129;
244.5000;0.1465;-0.6204;
244.8000;0.1473;-0.6254;
245.1000;0.1473;-0.6229;
245.4000;0.1457;-0.6229;
245.7000;0.1465;-0.6104;
246.0000;0.1473;-0.6079;
246.3000;0.1490;-0.6053;
246.6000;0.1473;-0.6154;
246.9000;0.1473;-0.6154;
247.2000;0.1481;-0.6254;
247.5000;0.1490;-0.6229;
247.8000;0.1498;-0.6229;
248.1000;0.1465;-0.6229;
248.4000;0.1473;-0.6229;
248.7000;0.1376;-0.6531;
249.0000;0.1465;-0.6279;
249.3000;0.1457;-0.6305;
249.6000;0.1408;-0.6355;
249.9000;0.1522;-0.6053;
250.2000;0.1498;-0.6154;
250.5000;0.1465;-0.6154;
250.8000;0.1481;-0.6154;
251.1000;0.1433;-0.6305;
251.4000;0.1457;-0.6254;
251.7000;0.1473;-0.6279;
252.0000;0.1490;-0.6154;
252.3000;0.1441;-0.6279;
252.6000;0.1392;-0.6330;
252.9000;0.1473;-0.6129;
253.2000;0.1498;-0.6179;
253.5000;0.1449;-0.6279;
253.8000;0.1538;-0.6079;
254.1000;0.1490;-0.6079;
254.4000;0.1465;-0.6104;
254.7000;0.1571;-0.5802;
255.0000;0.1457;-0.6104;
255.3000;0.1408;-0.6279;
255.6000;0.1481;-0.6104;
255.9000;0.1473;-0.6179;
256.2000;0.1408;-0.6405;
256.5000;0.1571;-0.6003;
256.8000;0.1465;-0.6229;
257.1000;0.1473;-0.6129;
257.4000;0.1433;-0.6229;
257.7000;0.1473;-0.6028;
258.0000;0.1441;-0.6104;
258.3000;0.1465;-0.6079;
258.6000;0.1449;-0.6053;
258.9000;0.1490;-0.5978;
259.2000;0.1449;-0.5978;
259.5000;0.1481;-0.5978;
259.8000;0.1465;-0.6003;
260.1000;0.1490;-0.6053;
260.4000;0.1481;-0.6079;
260.7000;0.1465;-0.6104;
261.0000;0.1473;-0.6053;
261.3000;0.1465;-0.6104;
261.6000;0.1473;-0.6179;
261.9000;0.1473;-0.6179;
262.2000;0.1481;-0.6179;
262.5000;0.1481;-0.6204;
262.8000;0.1481;-0.6204;
263.1000;0.1506;-0.6079;
263.4000;0.1490;-0.6104;
263.7000;0.1457;-0.6079;
264.0000;0.1449;-0.6028;
264.3000;0.1481;-0.5953;
264.6000;0.1490;-0.5953;
264.9000;0.1473;-0.6028;
265.2000;0.1416;-0.6104;
265.5000;0.1465;-0.5953;
265.8000;0.1465;-0.5903;
266.1000;0.1425;-0.6028;
266.4000;0.1465;-0.5827;
266.7000;0.1465;-0.5878;
267.0000;0.1490;-0.5802;
267.3000;0.1473;-0.5852;
267.6000;0.1490;-0.5777;
267.9000;0.1465;-0.5827;
268.2000;0.1587;-0.5601;
268.5000;0.1465;-0.5852;
268.8000;0.1465;-0.5727;
269.1000;0.1473;-0.5727;
269.4000;0.1473;-0.5827;
269.7000;0.1498;-0.5852;
270.0000;0.1465;-0.5928;
270.3000;0.1506;-0.5752;
270.6000;0.1481;-0.5827;
270.9000;0.1449;-0.5903;
271.2000;0.1490;-0.5878;
271.5000;0.1481;-0.5903;
271.8000;0.1465;-0.5878;
272.1000;0.1490;-0.5752;
272.4000;0.1481;-0.5802;
272.7000;0.1473;-0.5852;
273.0000;0.1433;-0.5928;
273.3000;0.1490;-0.5777;
273.6000;0.1457;-0.5953;
273.9000;0.1465;-0.5852;
274.2000;0.1441;-0.6053;
274.5000;0.1490;-0.5953;
274.8000;0.1449;-0.6003;
275.1000;0.1465;-0.5953;
275.4000;0.1457;-0.5953;
275.7000;0.1555;-0.5652;
276.0000;0.1457;-0.5878;
276.3000;0.1481;-0.5827;
276.6000;0.1465;-0.5903;
276.9000;0.1538;-0.5727;
277.2000;0.1481;-0.6003;
277.5000;0.1481;-0.5953;
277.8000;0.1457;-0.6003;
278.1000;0.1473;-0.5953;
278.4000;0.1457;-0.6053;
278.7000;0.1457;-0.6079;
279.0000;0.1473;-0.6028;
279.3000;0.1408;-0.6279;
279.6000;0.1473;-0.6028;
279.9000;0.1490;-0.6028;
280.2000;0.1457;-0.6104;
280.5000;0.1465;-0.6079;
280.8000;0.1473;-0.6028;
281.1000;0.1490;-0.5953;
281.4000;0.1490;-0.6028;
281.7000;0.1490;-0.5953;
282.0000;0.1481;-0.5852;
282.3000;0.1441;-0.6028;
282.6000;0.1490;-0.5953;
282.9000;0.1465;-0.5978;
283.2000;0.1481;-0.6028;
283.5000;0.1498;-0.5903;
283.8000;0.1449;-0.6028;
284.1000;0.1481;-0.5852;
284.4000;0.1449;-0.5978;
284.7000;0.1481;-0.5928;
285.0000;0.1555;-0.5802;
285.3000;0.1465;-0.6079;
285.6000;0.1481;-0.5978;
285.9000;0.1465;-0.6003;
286.2000;0.1457;-0.6079;
286.5000;0.1449;-0.6003;
286.8000;0.1490;-0.5953;
287.1000;0.1473;-0.5978;
287.4000;0.1490;-0.6003;
287.7000;0.1473;-0.6053;
288.0000;0.1538;-0.5928;
288.3000;0.1571;-0.5878;
288.6000;0.1481;-0.6330;
288.9000;0.1457;-0.6430;
289.2000;0.1473;-0.6355;
289.5000;0.1473;-0.6330;
289.8000;0.1473;-0.6279;
290.1000;0.1425;-0.6455;
290.4000;0.1449;-0.6405;
290.7000;0.1449;-0.6279;
291.0000;0.1465;-0.6129;
291.3000;0.1425;-0.6229;
291.6000;0.1465;-0.6129;
291.9000;0.1465;-0.6028;
292.2000;0.1522;-0.5928;
292.5000;0.1481;-0.6003;
292.8000;0.1481;-0.5953;
293.1000;0.1481;-0.5903;
293.4000;0.1465;-0.5978;
293.7000;0.1490;-0.5928;
294.0000;0.1481;-0.6003;
294.3000;0.1457;-0.6053;
294.6000;0.1449;-0.6003;
294.9000;0.1441;-0.6028;
295.2000;0.1441;-0.6028;
295.5000;0.1465;-0.5953;
295.8000;0.1473;-0.6003;
296.1000;0.1506;-0.6003;
296.4000;0.1465;-0.6229;
296.7000;0.1490;-0.6254;
297.0000;0.1465;-0.6254;
297.3000;0.1473;-0.6204;
297.6000;0.1449;-0.6229;
297.9000;0.1498;-0.6104;
298.2000;0.1449;-0.6254;
298.5000;0.1473;-0.6204;
298.8000;0.1408;-0.6355;
299.1000;0.1473;-0.6229;
299.4000;0.1449;-0.6254;
299.7000;0.1522;-0.6053;
300.0000;0.1555;-0.5852;
300.3000;0.1473;-0.6028;
300.6000;0.1457;-0.6129;
300.9000;0.1457;-0.6154;
301.2000;0.1481;-0.6079;
301.5000;0.1481;-0.6079;
301.8000;0.1473;-0.6104;
302.1000;0.1465;-0.6079;
302.4000;0.1473;-0.6104;
302.7000;0.1465;-0.6079;
303.0000;0.1457;-0.6104;
303.3000;0.1473;-0.6104;
303.6000;0.1481;-0.6003;
303.9000;0.1441;-0.6154;
304.2000;0.1473;-0.6053;
304.5000;0.1408;-0.6279;
304.8000;0.1416;-0.6355;
305.1000;0.1449;-0.6154;
305.4000;0.1465;-0.6229;
305.7000;0.1457;-0.6204;
306.0000;0.1514;-0.6104;
306.3000;0.1498;-0.6204;
306.6000;0.1481;-0.6279;
306.9000;0.1481;-0.6330;
307.2000;0.1473;-0.6254;
307.5000;0.1506;-0.6079;
307.8000;0.1441;-0.6179;
308.1000;0.1465;-0.6129;
308.4000;0.1555;-0.5903;
308.7000;0.1481;-0.6129;
309.0000;0.1481;-0.6104;
309.3000;0.1506;-0.5953;
309.6000;0.1473;-0.5978;
309.9000;0.1465;-0.6028;
310.2000;0.1481;-0.5978;
310.5000;0.1465;-0.6079;
310.8000;0.1457;-0.6179;
311.1000;0.1457;-0.6154;
311.4000;0.1473;-0.6154;
311.7000;0.1481;-0.6154;
312.0000;0.1465;-0.6229;
312.3000;0.1490;-0.6154;
312.6000;0.1457;-0.6204;
312.9000;0.1481;-0.6179;
313.2000;0.1441;-0.6154;
313.5000;0.1449;-0.6154;
313.8000;0.1473;-0.6179;
314.1000;0.1433;-0.6154;
314.4000;0.1465;-0.5978;
314.7000;0.1449;-0.6053;
315.0000;0.1457;-0.6129;
315.3000;0.1457;-0.6129;
315.6000;0.1490;-0.6154;
315.9000;0.1465;-0.6204;
316.2000;0.1473;-0.6229;
316.5000;0.1457;-0.6355;
316.8000;0.1473;-0.6305;
317.1000;0.1465;-0.6179;
317.4000;0.1481;-0.6079;
317.7000;0.1465;-0.6154;
318.0000;0.1465;-0.6229;
318.3000;0.1473;-0.6330;
318.6000;0.1490;-0.6254;
318.9000;0.1465;-0.6279;
319.2000;0.1465;-0.6254;
319.5000;0.1473;-0.6179;
319.8000;0.1498;-0.6254;
320.1000;0.1392;-0.6480;
320.4000;0.1465;-0.6380;
320.7000;0.1506;-0.6229;
321.0000;0.1457;-0.6380;
321.3000;0.1449;-0.6355;
321.6000;0.1481;-0.6229;
321.9000;0.1441;-0.6305;
322.2000;0.1465;-0.6279;
322.5000;0.1465;-0.6330;
322.8000;0.1473;-0.6305;
323.1000;0.1416;-0.6380;
323.4000;0.1465;-0.6279;
323.7000;0.1457;-0.6279;
324.0000;0.1490;-0.6279;
324.3000;0.1490;-0.6330;
324.6000;0.1465;-0.6430;
324.9000;0.1473;-0.6405;
325.2000;0.1481;-0.6305;
325.5000;0.1490;-0.6330;
325.8000;0.1457;-0.6305;
326.1000;0.1481;-0.6179;
326.4000;0.1620;-0.5802;
326.7000;0.1481;-0.6129;
327.0000;0.1473;-0.6104;
327.3000;0.1457;-0.6330;
327.6000;0.1425;-0.6430;
327.9000;0.1490;-0.6330;
328.2000;0.1441;-0.6405;
328.5000;0.1416;-0.6480;
328.8000;0.1465;-0.6279;
329.1000;0.1457;-0.6430;
329.4000;0.1490;-0.6279;
329.7000;0.1457;-0.6355;
330.0000;0.1441;-0.6355;
330.3000;0.1449;-0.6330;
330.6000;0.1416;-0.6480;
330.9000;0.1481;-0.6254;
331.2000;0.1481;-0.6204;
331.5000;0.1465;-0.6204;
331.8000;0.1449;-0.6254;
332.1000;0.1473;-0.6229;
332.4000;0.1449;-0.6254;
332.7000;0.1481;-0.6229;
333.0000;0.1506;-0.6154;
333.3000;0.1490;-0.6179;
333.6000;0.1457;-0.6305;
333.9000;0.1441;-0.6405;
334.2000;0.1465;-0.6279;
334.5000;0.1449;-0.6355;
334.8000;0.1465;-0.6330;
335.1000;0.1465;-0.6330;
335.4000;0.1481;-0.6330;
335.7000;0.1481;-0.6305;
336.0000;0.1392;-0.6455;
336.3000;0.1465;-0.6254;
336.6000;0.1473;-0.6330;
336.9000;0.1457;-0.6355;
337.2000;0.1473;-0.6204;
337.5000;0.1465;-0.6204;
337.8000;0.1473;-0.6053;
338.1000;0.1490;-0.6003;
338.4000;0.1473;-0.6003;
338.7000;0.1449;-0.6028;
339.0000;0.1498;-0.6003;
339.3000;0.1441;-0.6204;
339.6000;0.1457;-0.6028;
339.9000;0.1563;-0.5652;
340.2000;0.1498;-0.5878;
340.5000;0.1473;-0.5953;
340.8000;0.1465;-0.5928;
341.1000;0.1481;-0.5953;
341.4000;0.1457;-0.6028;
341.7000;0.1473;-0.5978;
342.0000;0.1481;-0.5953;
342.3000;0.1473;-0.6053;
342.6000;0.1465;-0.6079;
342.9000;0.1457;-0.6104;
343.2000;0.1481;-0.6079;
343.5000;0.1473;-0.6104;
343.8000;0.1457;-0.6104;
344.1000;0.1449;-0.6154;
344.4000;0.1449;-0.6179;
344.7000;0.1465;-0.6179;
345.0000;0.1465;-0.6129;
345.3000;0.1473;-0.6204;
345.6000;0.1465;-0.6355;
345.9000;0.1473;-0.6405;
346.2000;0.1457;-0.6506;
346.5000;0.1457;-0.6556;
346.8000;0.1441;-0.6606;
347.1000;0.1547;-0.6179;
347.4000;0.1481;-0.6279;
347.7000;0.1465;-0.6305;
348.0000;0.1457;-0.6279;
348.3000;0.1457;-0.6279;
348.6000;0.1457;-0.6279;
348.9000;0.1416;-0.6330;
349.2000;0.1416;-0.6380;
349.5000;0.1506;-0.6179;
349.8000;0.1465;-0.6279;
350.1000;0.1449;-0.6254;
350.4000;0.1449;-0.6279;
350.7000;0.1490;-0.6129;
351.0000;0.1457;-0.6305;
351.3000;0.1457;-0.6279;
351.6000;0.1441;-0.6330;
351.9000;0.1449;-0.6279;
352.2000;0.1449;-0.6305;
352.5000;0.1473;-0.6330;
352.8000;0.1481;-0.6330;
353.1000;0.1449;-0.6355;
353.4000;0.1449;-0.6279;
353.7000;0.1473;-0.6079;
354.0000;0.1457;-0.6079;
354.3000;0.1457;-0.6104;
354.6000;0.1457;-0.5978;
354.9000;0.1425;-0.6053;
355.2000;0.1449;-0.6129;
355.5000;0.1457;-0.6104;
355.8000;0.1457;-0.6254;
356.1000;0.1457;-0.6305;
356.4000;0.1465;-0.6305;
356.7000;0.1498;-0.6179;
357.0000;0.1457;-0.6179;
357.3000;0.1473;-0.6154;
357.6000;0.1465;-0.6179;
357.9000;0.1473;-0.6179;
358.2000;0.1465;-0.6179;
358.5000;0.1473;-0.6179;
358.8000;0.1473;-0.6154;
359.1000;0.1457;-0.6104;
359.4000;0.1465;-0.6053;
359.7000;0.1506;-0.5928;
360.0000;0.1465;-0.6028;
360.3000;0.1473;-0.6053;
360.6000;0.1473;-0.6179;
360.9000;0.1473;-0.6179;
361.2000;0.1481;-0.6104;
361.5000;0.1473;-0.6079;
361.8000;0.1457;-0.6179;
362.1000;0.1465;-0.6129;
362.4000;0.1481;-0.6053;
362.7000;0.1481;-0.6079;
363.0000;0.1465;-0.6053;
363.3000;0.1457;-0.6204;
363.6000;0.1473;-0.6154;
363.9000;0.1465;-0.6204;
364.2000;0.1433;-0.6204;
364.5000;0.1473;-0.6154;
364.8000;0.1481;-0.6104;
365.1000;0.1473;-0.6154;
365.4000;0.1465;-0.6204;
365.7000;0.1465;-0.6129;
366.0000;0.1465;-0.6104;
366.3000;0.1441;-0.6254;
366.6000;0.1481;-0.6104;
366.9000;0.1457;-0.6179;
367.2000;0.1441;-0.6254;
367.5000;0.1481;-0.6254;
367.8000;0.1490;-0.6279;
368.1000;0.1441;-0.6355;
368.4000;0.1449;-0.6305;
368.7000;0.1473;-0.6279;
369.0000;0.1465;-0.6279;
369.3000;0.1449;-0.6355;
369.6000;0.1465;-0.6305;
369.9000;0.1457;-0.6254;
370.2000;0.1481;-0.6204;
370.5000;0.1481;-0.6129;
370.8000;0.1481;-0.6179;
371.1000;0.1457;-0.6129;
371.4000;0.1465;-0.6179;
371.7000;0.1465;-0.6179;
372.0000;0.1465;-0.6279;
372.3000;0.1441;-0.6229;
372.6000;0.1481;-0.6129;
372.9000;0.1457;-0.6154;
373.2000;0.1400;-0.6254;
373.5000;0.1465;-0.6079;
373.8000;0.1359;-0.6355;
374.1000;0.1457;-0.6053;
374.4000;0.1522;-0.5953;
374.7000;0.1457;-0.6179;
375.0000;0.1433;-0.6204;
375.3000;0.1457;-0.6179;
375.6000;0.1473;-0.6179;
375.9000;0.1465;-0.6104;
376.2000;0.1465;-0.6204;
376.5000;0.1481;-0.6179;
376.8000;0.1457;-0.6229;
377.1000;0.1465;-0.6104;
377.4000;0.1465;-0.6053;
377.7000;0.1449;-0.6104;
378.0000;0.1473;-0.6129;
378.3000;0.1465;-0.6179;
378.6000;0.1481;-0.6053;
378.9000;0.1506;-0.6053;
379.2000;0.1490;-0.6028;
379.5000;0.1465;-0.6053;
379.8000;0.1473;-0.6028;
380.1000;0.1481;-0.5978;
380.4000;0.1473;-0.5953;
380.7000;0.1425;-0.6104;
381.0000;0.1473;-0.6003;
381.3000;0.1457;-0.6053;
381.6000;0.1449;-0.6079;
381.9000;0.1457;-0.6028;
382.2000;0.1433;-0.6028;
382.5000;0.1465;-0.5978;
382.8000;0.1481;-0.6079;
383.1000;0.1425;-0.6229;
383.4000;0.1449;-0.6129;
383.7000;0.1449;-0.6179;
384.0000;0.1481;-0.6154;
384.3000;0.1457;-0.6204;
384.6000;0.1481;-0.6254;
384.9000;0.1457;-0.6229;
385.2000;0.1457;-0.6053;
385.5000;0.1481;-0.6053;
385.8000;0.1449;-0.6104;
386.1000;0.1465;-0.6154;
386.4000;0.1465;-0.6104;
386.7000;0.1473;-0.6204;
387.0000;0.1465;-0.6229;
387.3000;0.1465;-0.6179;
387.6000;0.1490;-0.6129;
387.9000;0.1490;-0.6028;
388.2000;0.1481;-0.6053;
388.5000;0.1449;-0.6079;
388.8000;0.1457;-0.6104;
389.1000;0.1473;-0.6204;
389.4000;0.1465;-0.6330;
389.7000;0.1498;-0.6229;
390.0000;0.1457;-0.6355;
390.3000;0.1506;-0.6254;
390.6000;0.1490;-0.6154;
390.9000;0.1481;-0.6129;
391.2000;0.1490;-0.6079;
391.5000;0.1490;-0.6129;
391.8000;0.1465;-0.6204;
392.1000;0.1465;-0.6279;
392.4000;0.1481;-0.6254;
392.7000;0.1473;-0.6179;
393.0000;0.1490;-0.6154;
393.3000;0.1481;-0.6179;
393.6000;0.1433;-0.6254;
393.9000;0.1457;-0.6254;
394.2000;0.1481;-0.6079;
394.5000;0.1473;-0.6053;
394.8000;0.1514;-0.5903;
395.1000;0.1547;-0.5852;
395.4000;0.1473;-0.6129;
395.7000;0.1481;-0.6179;
396.0000;0.1498;-0.6104;
396.3000;0.1465;-0.6154;
396.6000;0.1449;-0.6154;
396.9000;0.1538;-0.5903;
397.2000;0.1490;-0.6003;
397.5000;0.1465;-0.6179;
397.8000;0.1490;-0.6154;
398.1000;0.1465;-0.6179;
398.4000;0.1384;-0.6380;
398.7000;0.1457;-0.6129;
399.0000;0.1457;-0.6104;
399.3000;0.1441;-0.6229;
399.6000;0.1473;-0.6154;
399.9000;0.1359;-0.6480;
400.2000;0.1457;-0.6229;
400.5000;0.1465;-0.6179;
400.8000;0.1473;-0.6154;
401.1000;0.1433;-0.6204;
401.4000;0.1465;-0.6104;
401.7000;0.1481;-0.6129;
402.0000;0.1506;-0.6129;
402.3000;0.1465;-0.6179;
402.6000;0.1473;-0.6154;
402.9000;0.1473;-0.6129;
403.2000;0.1392;-0.6380;
403.5000;0.1473;-0.6204;
403.8000;0.1481;-0.6129;
404.1000;0.1473;-0.6129;
404.4000;0.1481;-0.6104;
404.7000;0.1465;-0.6079;
405.0000;0.1441;-0.6053;
405.3000;0.1465;-0.6003;
405.6000;0.1465;-0.5928;
405.9000;0.1473;-0.5852;
406.2000;0.1376;-0.6079;
406.5000;0.1449;-0.5953;
406.8000;0.1465;-0.6003;
407.1000;0.1514;-0.5878;
407.4000;0.1457;-0.5928;
407.7000;0.1465;-0.5928;
408.0000;0.1457;-0.6003;
408.3000;0.1481;-0.6003;
408.6000;0.1465;-0.6028;
408.9000;0.1481;-0.6003;
409.2000;0.1473;-0.6053;
409.5000;0.1473;-0.6079;
409.8000;0.1473;-0.6104;
410.1000;0.1506;-0.5978;
410.4000;0.1457;-0.6129;
410.7000;0.1457;-0.6154;
411.0000;0.1457;-0.6179;
411.3000;0.1473;-0.6154;
411.6000;0.1473;-0.6154;
411.9000;0.1579;-0.5827;
412.2000;0.1457;-0.6104;
412.5000;0.1473;-0.6079;
412.8000;0.1465;-0.6104;
413.1000;0.1481;-0.6129;
413.4000;0.1416;-0.6380;
413.7000;0.1490;-0.6204;
414.0000;0.1441;-0.6330;
414.3000;0.1506;-0.6154;
414.6000;0.1481;-0.6254;
414.9000;0.1457;-0.6279;
415.2000;0.1457;-0.6279;
415.5000;0.1473;-0.6179;
415.8000;0.1384;-0.6405;
416.1000;0.1473;-0.6129;
416.4000;0.1465;-0.6028;
416.7000;0.1457;-0.6053;
417.0000;0.1473;-0.5978;
417.3000;0.1481;-0.6053;
417.6000;0.1465;-0.6079;
417.9000;0.1441;-0.6229;
418.2000;0.1473;-0.6154;
418.5000;0.1481;-0.6079;
418.8000;0.1530;-0.5928;
419.1000;0.1457;-0.6104;
419.4000;0.1465;-0.6003;
419.7000;0.1473;-0.5978;
420.0000;0.1457;-0.6104;
420.3000;0.1457;-0.6204;
420.6000;0.1465;-0.6179;
420.9000;0.1359;-0.6380;
421.2000;0.1498;-0.5978;
421.5000;0.1514;-0.5928;
421.8000;0.1506;-0.5903;
422.1000;0.1481;-0.5903;
422.4000;0.1457;-0.5953;
422.7000;0.1449;-0.6053;
423.0000;0.1449;-0.6104;
423.3000;0.1514;-0.6003;
423.6000;0.1425;-0.6279;
423.9000;0.1449;-0.6204;
424.2000;0.1481;-0.6179;
424.5000;0.1530;-0.6053;
424.8000;0.1481;-0.6129;
425.1000;0.1449;-0.6154;
425.4000;0.1457;-0.5928;
425.7000;0.1481;-0.5953;
426.0000;0.1473;-0.6003;
426.3000;0.1457;-0.6053;
426.6000;0.1457;-0.6053;
426.9000;0.1465;-0.6028;
427.2000;0.1490;-0.5953;
427.5000;0.1481;-0.5878;
427.8000;0.1465;-0.5928;
428.1000;0.1408;-0.6028;
428.4000;0.1490;-0.5928;
428.7000;0.1473;-0.6028;
429.0000;0.1408;-0.6129;
429.3000;0.1449;-0.6028;
429.6000;0.1465;-0.6028;
429.9000;0.1490;-0.5953;
430.2000;0.1522;-0.5903;
430.5000;0.1465;-0.6028;
430.8000;0.1473;-0.5978;
431.1000;0.1481;-0.5978;
431.4000;0.1473;-0.6129;
431.7000;0.1457;-0.6204;
432.0000;0.1481;-0.6129;
432.3000;0.1506;-0.5978;
432.6000;0.1481;-0.6028;
432.9000;0.1449;-0.6079;
433.2000;0.1449;-0.6053;
433.5000;0.1498;-0.5978;
433.8000;0.1490;-0.6003;
434.1000;0.1490;-0.5903;
434.4000;0.1441;-0.5903;
434.7000;0.1441;-0.5802;
435.0000;0.1498;-0.5752;
435.3000;0.1449;-0.5852;
435.6000;0.1457;-0.5852;
435.9000;0.1555;-0.5551;
436.2000;0.1538;-0.5551;
436.5000;0.1514;-0.5702;
436.8000;0.1425;-0.5878;
437.1000;0.1416;-0.5903;
437.4000;0.1473;-0.5702;
437.7000;0.1481;-0.5652;
438.0000;0.1465;-0.5802;
438.3000;0.1441;-0.6003;
438.6000;0.1449;-0.6003;
438.9000;0.1384;-0.6079;
439.2000;0.1490;-0.5752;
439.5000;0.1514;-0.5601;
439.8000;0.1441;-0.5777;
440.1000;0.1457;-0.5827;
440.4000;0.1408;-0.5978;
440.7000;0.1457;-0.5903;
441.0000;0.1465;-0.5827;
441.3000;0.1457;-0.5852;
441.6000;0.1473;-0.5953;
441.9000;0.1465;-0.5928;
442.2000;0.1465;-0.5928;
442.5000;0.1441;-0.6053;
442.8000;0.1498;-0.5903;
443.1000;0.1433;-0.6003;
443.4000;0.1457;-0.5903;
443.7000;0.1425;-0.6053;
444.0000;0.1473;-0.5928;
444.3000;0.1473;-0.5953;
444.6000;0.1473;-0.6003;
444.9000;0.1465;-0.6003;
445.2000;0.1441;-0.6179;
445.5000;0.1441;-0.6129;
445.8000;0.1457;-0.6104;
446.1000;0.1465;-0.6053;
446.4000;0.1449;-0.6028;
446.7000;0.1481;-0.5903;
447.0000;0.1465;-0.6053;
447.3000;0.1457;-0.6104;
447.6000;0.1481;-0.6079;
447.9000;0.1449;-0.6104;
448.2000;0.1473;-0.6053;
448.5000;0.1465;-0.5928;
448.8000;0.1465;-0.6028;
449.1000;0.1433;-0.6154;
449.4000;0.1457;-0.6179;
449.7000;0.1457;-0.6229;
450.0000;0.1481;-0.6204;
450.3000;0.1465;-0.6229;
450.6000;0.1465;-0.6229;
450.9000;0.1449;-0.6154;
451.2000;0.1457;-0.6053;
451.5000;0.1465;-0.6053;
451.8000;0.1473;-0.6003;
452.1000;0.1433;-0.6154;
452.4000;0.1473;-0.6104;
452.7000;0.1481;-0.6179;
453.0000;0.1490;-0.6179;
453.3000;0.1449;-0.6229;
453.6000;0.1473;-0.6154;
453.9000;0.1490;-0.6154;
454.2000;0.1465;-0.6179;
454.5000;0.1425;-0.6254;
454.8000;0.1457;-0.6179;
455.1000;0.1522;-0.6053;
455.4000;0.1449;-0.6179;
455.7000;0.1457;-0.6079;
456.0000;0.1449;-0.6129;
456.3000;0.1481;-0.6079;
456.6000;0.1465;-0.6179;
456.9000;0.1473;-0.6154;
457.2000;0.1449;-0.6179;
457.5000;0.1465;-0.6179;
457.8000;0.1457;-0.6254;
458.1000;0.1441;-0.6305;
458.4000;0.1473;-0.6405;
458.7000;0.1481;-0.6380;
459.0000;0.1449;-0.6430;
459.3000;0.1481;-0.6330;
459.6000;0.1473;-0.6380;
459.9000;0.1490;-0.6405;
460.2000;0.1498;-0.6405;
460.5000;0.1481;-0.6405;
460.8000;0.1514;-0.6254;
461.1000;0.1506;-0.6229;
461.4000;0.1457;-0.6279;
461.7000;0.1473;-0.6330;
462.0000;0.1441;-0.6455;
462.3000;0.1408;-0.6681;
462.6000;0.1457;-0.6631;
462.9000;0.1473;-0.6556;
463.2000;0.1449;-0.6581;
463.5000;0.1522;-0.6380;
463.8000;0.1473;-0.6355;
464.1000;0.1481;-0.6279;
464.4000;0.1481;-0.6254;
464.7000;0.1465;-0.6330;
465.0000;0.1465;-0.6355;
465.3000;0.1449;-0.6330;
465.6000;0.1425;-0.6455;
465.9000;0.1481;-0.6254;
466.2000;0.1473;-0.6405;
466.5000;0.1473;-0.6380;
466.8000;0.1481;-0.6355;
467.1000;0.1465;-0.6355;
467.4000;0.1457;-0.6355;
467.7000;0.1457;-0.6305;
468.0000;0.1457;-0.6355;
468.3000;0.1481;-0.6204;
468.6000;0.1481;-0.6053;
468.9000;0.1465;-0.6028;
469.2000;0.1498;-0.5878;
469.5000;0.1416;-0.6028;
469.8000;0.1449;-0.6028;
470.1000;0.1449;-0.6104;
470.4000;0.1555;-0.5878;
470.7000;0.1457;-0.6179;
471.0000;0.1457;-0.6229;
471.3000;0.1465;-0.6204;
471.6000;0.1457;-0.6204;
471.9000;0.1481;-0.6129;
472.2000;0.1457;-0.6204;
472.5000;0.1457;-0.6229;
472.8000;0.1441;-0.6279;
473.1000;0.1498;-0.6053;
473.4000;0.1481;-0.6129;
473.7000;0.1481;-0.6179;
474.0000;0.1449;-0.6154;
474.3000;0.1457;-0.6129;
474.6000;0.1449;-0.6154;
474.9000;0.1457;-0.6104;
475.2000;0.1473;-0.6079;
475.5000;0.1481;-0.6179;
475.8000;0.1481;-0.6129;
476.1000;0.1506;-0.6053;
476.4000;0.1449;-0.6104;
476.7000;0.1457;-0.6129;
477.0000;0.1449;-0.6154;
477.3000;0.1473;-0.6154;
477.6000;0.1465;-0.6204;
477.9000;0.1457;-0.6079;
478.2000;0.1473;-0.6028;
478.5000;0.1465;-0.6053;
478.8000;0.1449;-0.6104;
479.1000;0.1481;-0.6154;
479.4000;0.1473;-0.6254;
479.7000;0.1425;-0.6355;
480.0000;0.1457;-0.6254;
480.3000;0.1514;-0.6079;
480.6000;0.1473;-0.6154;
480.9000;0.1481;-0.6154;
481.2000;0.1457;-0.6254;
481.5000;0.1457;-0.6179;
481.8000;0.1457;-0.6028;
482.1000;0.1490;-0.5953;
482.4000;0.1498;-0.5878;
482.7000;0.1465;-0.5928;
483.0000;0.1473;-0.5903;
483.3000;0.1473;-0.5928;
483.6000;0.1457;-0.6003;
483.9000;0.1433;-0.6104;
484.2000;0.1473;-0.6053;
484.5000;0.1530;-0.6028;
484.8000;0.1481;-0.6129;
485.1000;0.1465;-0.6254;
485.4000;0.1351;-0.6556;
485.7000;0.1481;-0.6229;
486.0000;0.1457;-0.6204;
486.3000;0.1433;-0.6279;
486.6000;0.1457;-0.6229;
486.9000;0.1400;-0.6480;
487.2000;0.1457;-0.6380;
487.5000;0.1465;-0.6330;
487.8000;0.1481;-0.6330;
488.1000;0.1449;-0.6305;
488.4000;0.1449;-0.6305;
488.7000;0.1449;-0.6254;
489.0000;0.1441;-0.6279;
489.3000;0.1490;-0.6179;
489.6000;0.1481;-0.6179;
489.9000;0.1481;-0.6154;
490.2000;0.1490;-0.6129;
490.5000;0.1481;-0.6154;
490.8000;0.1473;-0.6279;
491.1000;0.1465;-0.6355;
491.4000;0.1481;-0.6279;
491.7000;0.1457;-0.6330;
492.0000;0.1457;-0.6279;
492.3000;0.1457;-0.6279;
492.6000;0.1457;-0.6305;
492.9000;0.1449;-0.6355;
493.2000;0.1498;-0.6229;
493.5000;0.1457;-0.6355;
493.8000;0.1457;-0.6430;
494.1000;0.1465;-0.6480;
494.4000;0.1490;-0.6355;
494.7000;0.1465;-0.6355;
495.0000;0.1457;-0.6355;
495.3000;0.1449;-0.6380;
495.6000;0.1457;-0.6430;
495.9000;0.1473;-0.6380;
496.2000;0.1481;-0.6254;
496.5000;0.1457;-0.6279;
496.8000;0.1473;-0.6279;
497.1000;0.1465;-0.6305;
497.4000;0.1457;-0.6305;
497.7000;0.1457;-0.6254;
498.0000;0.1457;-0.6405;
498.3000;0.1449;-0.6430;
498.6000;0.1490;-0.6405;
498.9000;0.1481;-0.6430;
499.2000;0.1449;-0.6556;
499.5000;0.1481;-0.6405;
499.8000;0.1473;-0.6405;
500.1000;0.1465;-0.6430;
500.4000;0.1473;-0.6405;
500.7000;0.1449;-0.6506;
501.0000;0.1490;-0.6380;
501.3000;0.1473;-0.6430;
501.6000;0.1465;-0.6380;
501.9000;0.1473;-0.6330;
502.2000;0.1506;-0.6179;
502.5000;0.1441;-0.6355;
502.8000;0.1384;-0.6480;
503.1000;0.1441;-0.6330;
503.4000;0.1457;-0.6254;
503.7000;0.1530;-0.6129;
504.0000;0.1465;-0.6229;
504.3000;0.1449;-0.6204;
504.6000;0.1498;-0.6053;
504.9000;0.1473;-0.6179;
505.2000;0.1408;-0.6480;
505.5000;0.1457;-0.6380;
505.8000;0.1449;-0.6380;
506.1000;0.1457;-0.6254;
506.4000;0.1465;-0.6204;
506.7000;0.1449;-0.6330;
507.0000;0.1465;-0.6405;
507.3000;0.1481;-0.6506;
507.6000;0.1457;-0.6531;
507.9000;0.1473;-0.6455;
508.2000;0.1400;-0.6531;
508.5000;0.1481;-0.6330;
508.8000;0.1449;-0.6380;
509.1000;0.1457;-0.6254;
509.4000;0.1441;-0.6204;
509.7000;0.1465;-0.6154;
510.0000;0.1433;-0.6229;
510.3000;0.1457;-0.6154;
510.6000;0.1473;-0.6154;
510.9000;0.1490;-0.6104;
511.2000;0.1449;-0.6104;
511.5000;0.1449;-0.6204;
511.8000;0.1441;-0.6204;
512.1000;0.1473;-0.6179;
512.4000;0.1433;-0.6305;
512.7000;0.1563;-0.5978;
513.0000;0.1473;-0.6229;
513.3000;0.1449;-0.6305;
513.6000;0.1441;-0.6254;
513.9000;0.1473;-0.6179;
514.2000;0.1555;-0.5953;
514.5000;0.1465;-0.6204;
514.8000;0.1473;-0.6204;
515.1000;0.1473;-0.6154;
515.4000;0.1416;-0.6330;
515.7000;0.1465;-0.6179;
516.0000;0.1457;-0.6254;
516.3000;0.1473;-0.6204;
516.6000;0.1481;-0.6154;
516.9000;0.1465;-0.6204;
517.2000;0.1441;-0.6229;
517.5000;0.1481;-0.6204;
517.8000;0.1441;-0.6405;
518.1000;0.1449;-0.6405;
518.4000;0.1473;-0.6380;
518.7000;0.1481;-0.6355;
519.0000;0.1408;-0.6506;
519.3000;0.1465;-0.6330;
519.6000;0.1449;-0.6330;
519.9000;0.1473;-0.6305;
520.2000;0.1449;-0.6330;
520.5000;0.1449;-0.6330;
520.8000;0.1441;-0.6355;
521.1000;0.1473;-0.6279;
521.4000;0.1457;-0.6355;
521.7000;0.1457;-0.6355;
522.0000;0.1465;-0.6355;
522.3000;0.1449;-0.6380;
522.6000;0.1473;-0.6330;
522.9000;0.1457;-0.6305;
523.2000;0.1465;-0.6355;
523.5000;0.1457;-0.6380;
523.8000;0.1473;-0.6305;
524.1000;0.1457;-0.6229;
524.4000;0.1457;-0.6229;
524.7000;0.1465;-0.6204;
525.0000;0.1465;-0.6204;
525.3000;0.1449;-0.6204;
525.6000;0.1465;-0.6204;
525.9000;0.1392;-0.6355;
526.2000;0.1457;-0.6179;
526.5000;0.1457;-0.6305;
526.8000;0.1449;-0.6254;
527.1000;0.1522;-0.6079;
527.4000;0.1449;-0.6380;
527.7000;0.1465;-0.6330;
528.0000;0.1473;-0.6279;
528.3000;0.1465;-0.6305;
528.6000;0.1441;-0.6305;
528.9000;0.1481;-0.6179;
529.2000;0.1473;-0.6154;
529.5000;0.1465;-0.6179;
529.8000;0.1457;-0.6003;
530.1000;0.1571;-0.5727;
530.4000;0.1457;-0.6053;
530.7000;0.1449;-0.6154;
531.0000;0.1449;-0.6179;
531.3000;0.1465;-0.6254;
531.6000;0.1473;-0.6179;
531.9000;0.1514;-0.6129;
532.2000;0.1449;-0.6279;
532.5000;0.1449;-0.6179;
532.8000;0.1498;-0.5978;
533.1000;0.1457;-0.6129;
533.4000;0.1457;-0.6154;
533.7000;0.1481;-0.6154;
534.0000;0.1473;-0.6229;
534.3000;0.1498;-0.6179;
534.6000;0.1490;-0.6154;
534.9000;0.1441;-0.6305;
535.2000;0.1481;-0.6204;
535.5000;0.1481;-0.6079;
535.8000;0.1481;-0.6104;
536.1000;0.1473;-0.6129;
536.4000;0.1433;-0.6254;
536.7000;0.1465;-0.6229;
537.0000;0.1473;-0.6254;
537.3000;0.1457;-0.6279;
537.6000;0.1473;-0.6254;
537.9000;0.1473;-0.6405;
538.2000;0.1490;-0.6380;
538.5000;0.1473;-0.6405;
538.8000;0.1522;-0.6355;
539.1000;0.1400;-0.6606;
539.4000;0.1441;-0.6480;
539.7000;0.1457;-0.6380;
540.0000;0.1473;-0.6330;
540.3000;0.1473;-0.6279;
540.6000;0.1457;-0.6330;
540.9000;0.1465;-0.6330;
541.2000;0.1465;-0.6355;
541.5000;0.1449;-0.6229;
541.8000;0.1555;-0.5978;
542.1000;0.1457;-0.6279;
542.4000;0.1441;-0.6355;
542.7000;0.1465;-0.6380;
543.0000;0.1465;-0.6355;
543.3000;0.1457;-0.6330;
543.6000;0.1498;-0.6104;
543.9000;0.1473;-0.6154;
544.2000;0.1449;-0.6254;
544.5000;0.1465;-0.6305;
544.8000;0.1490;-0.6330;
545.1000;0.1433;-0.6405;
545.4000;0.1473;-0.6380;
545.7000;0.1465;-0.6330;
546.0000;0.1425;-0.6405;
546.3000;0.1457;-0.6355;
546.6000;0.1457;-0.6330;
546.9000;0.1408;-0.6305;
547.2000;0.1481;-0.6129;
547.5000;0.1457;-0.6229;
547.8000;0.1481;-0.6229;
548.1000;0.1481;-0.6079;
548.4000;0.1473;-0.6104;
548.7000;0.1498;-0.6079;
549.0000;0.1481;-0.6104;
549.3000;0.1506;-0.5978;
549.6000;0.1408;-0.6154;
549.9000;0.1457;-0.6003;
550.2000;0.1481;-0.6003;
550.5000;0.1481;-0.6003;
550.8000;0.1506;-0.6003;
551.1000;0.1449;-0.6154;
551.4000;0.1441;-0.6204;
551.7000;0.1449;-0.6254;
552.0000;0.1449;-0.6154;
552.3000;0.1498;-0.6003;
552.6000;0.1457;-0.6104;
552.9000;0.1465;-0.6028;
553.2000;0.1473;-0.6053;
553.5000;0.1416;-0.6204;
553.8000;0.1457;-0.6179;
554.1000;0.1473;-0.6079;
554.4000;0.1359;-0.6480;
554.7000;0.1465;-0.6254;
555.0000;0.1465;-0.6305;
555.3000;0.1425;-0.6380;
555.6000;0.1457;-0.6279;
555.9000;0.1473;-0.6305;
556.2000;0.1498;-0.6204;
556.5000;0.1465;-0.6229;
556.8000;0.1457;-0.6204;
557.1000;0.1465;-0.6305;
557.4000;0.1465;-0.6204;
557.7000;0.1498;-0.6229;
558.0000;0.1490;-0.6204;
558.3000;0.1498;-0.6104;
558.6000;0.1490;-0.6104;
558.9000;0.1481;-0.6229;
559.2000;0.1465;-0.6305;
559.5000;0.1465;-0.6229;
559.8000;0.1538;-0.6028;
560.1000;0.1449;-0.6229;
560.4000;0.1465;-0.6154;
560.7000;0.1465;-0.6204;
561.0000;0.1433;-0.6405;
561.3000;0.1457;-0.6355;
561.6000;0.1506;-0.6355;
561.9000;0.1457;-0.6455;
562.2000;0.1457;-0.6330;
562.5000;0.1473;-0.6330;
562.8000;0.1425;-0.6355;
563.1000;0.1538;-0.6154;
563.4000;0.1490;-0.6229;
563.7000;0.1465;-0.6204;
564.0000;0.1490;-0.6129;
564.3000;0.1449;-0.6204;
564.6000;0.1473;-0.6129;
564.9000;0.1449;-0.6229;
565.2000;0.1449;-0.6279;
565.5000;0.1465;-0.6330;
565.8000;0.1449;-0.6430;
566.1000;0.1465;-0.6380;
566.4000;0.1473;-0.6405;
566.7000;0.1473;-0.6380;
567.0000;0.1473;-0.6330;
567.3000;0.1457;-0.6254;
567.6000;0.1449;-0.6179;
567.9000;0.1457;-0.6229;
568.2000;0.1449;-0.6279;
568.5000;0.1473;-0.6229;
568.8000;0.1457;-0.6254;
569.1000;0.1473;-0.6204;
569.4000;0.1465;-0.6254;
569.7000;0.1490;-0.6204;
570.0000;0.1473;-0.6229;
570.3000;0.1473;-0.6279;
570.6000;0.1490;-0.6305;
570.9000;0.1490;-0.6355;
571.2000;0.1457;-0.6405;
571.5000;0.1457;-0.6330;
571.8000;0.1441;-0.6330;
572.1000;0.1416;-0.6380;
572.4000;0.1449;-0.6254;
572.7000;0.1465;-0.6229;
573.0000;0.1465;-0.6305;
573.3000;0.1457;-0.6279;
573.6000;0.1481;-0.6204;
573.9000;0.1465;-0.6279;
574.2000;0.1449;-0.6355;
574.5000;0.1473;-0.6380;
574.8000;0.1473;-0.6279;
575.1000;0.1449;-0.6229;
575.4000;0.1481;-0.6179;
575.7000;0.1473;-0.6154;
576.0000;0.1449;-0.6229;
576.3000;0.1506;-0.6079;
576.6000;0.1490;-0.6154;
576.9000;0.1449;-0.6330;
577.2000;0.1457;-0.6305;
577.5000;0.1449;-0.6330;
577.8000;0.1506;-0.6204;
578.1000;0.1473;-0.6279;
578.4000;0.1465;-0.6179;
578.7000;0.1457;-0.6204;
579.0000;0.1465;-0.6179;
579.3000;0.1457;-0.6204;
579.6000;0.1457;-0.6229;
579.9000;0.1457;-0.6254;
580.2000;0.1457;-0.6254;
580.5000;0.1465;-0.6179;
580.8000;0.1457;-0.6154;
581.1000;0.1465;-0.6154;
581.4000;0.1457;-0.6179;
581.7000;0.1359;-0.6355;
582.0000;0.1408;-0.6355;
582.3000;0.1473;-0.6179;
582.6000;0.1433;-0.6279;
582.9000;0.1490;-0.6204;
583.2000;0.1490;-0.6229;
583.5000;0.1457;-0.6229;
583.8000;0.1481;-0.6104;
584.1000;0.1481;-0.6053;
584.4000;0.1522;-0.5852;
584.7000;0.1481;-0.6028;
585.0000;0.1538;-0.5903;
585.3000;0.1465;-0.6104;
585.6000;0.1441;-0.6179;
585.9000;0.1449;-0.6229;
586.2000;0.1473;-0.6179;
586.5000;0.1457;-0.6179;
586.8000;0.1449;-0.6254;
587.1000;0.1441;-0.6305;
587.4000;0.1465;-0.6279;
587.7000;0.1457;-0.6254;
588.0000;0.1449;-0.6154;
588.3000;0.1465;-0.6179;
588.6000;0.1522;-0.6053;
588.9000;0.1457;-0.6279;
589.2000;0.1473;-0.6229;
589.5000;0.1457;-0.6330;
589.8000;0.1473;-0.6279;
590.1000;0.1457;-0.6305;
590.4000;0.1465;-0.6330;
590.7000;0.1441;-0.6330;
591.0000;0.1473;-0.6229;
591.3000;0.1465;-0.6179;
591.6000;0.1481;-0.6154;
591.9000;0.1457;-0.6204;
592.2000;0.1490;-0.6003;
592.5000;0.1481;-0.6028;
592.8000;0.1473;-0.6053;
593.1000;0.1473;-0.6003;
593.4000;0.1449;-0.6154;
593.7000;0.1465;-0.6154;
594.0000;0.1457;-0.6079;
594.3000;0.1465;-0.6129;
594.6000;0.1457;-0.6179;
594.9000;0.1449;-0.6053;
595.2000;0.1563;-0.5752;
595.5000;0.1481;-0.6053;
595.8000;0.1457;-0.6104;
596.1000;0.1457;-0.6053;
596.4000;0.1449;-0.6028;
596.7000;0.1457;-0.6028;
597.0000;0.1473;-0.6179;
597.3000;0.1506;-0.6053;
597.6000;0.1449;-0.6129;
597.9000;0.1457;-0.6179;
598.2000;0.1400;-0.6355;
598.5000;0.1433;-0.6204;
598.8000;0.1498;-0.5978;
599.1000;0.1457;-0.6079;
599.4000;0.1473;-0.6053;
599.7000;0.1473;-0.6053;
600.0000;0.1473;-0.6003;
600.3000;0.1457;-0.5978;
600.6000;0.1457;-0.6079;
600.9000;0.1449;-0.6254;
601.2000;0.1441;-0.6430;
601.5000;0.1473;-0.6606;
601.8000;0.1441;-0.6782;
602.1000;0.1425;-0.7033;
602.4000;0.1416;-0.7159;
602.7000;0.1457;-0.7159;
603.0000;0.1384;-0.7510;
603.3000;0.1335;-0.7636;
603.6000;0.1376;-0.7560;
603.9000;0.1392;-0.7586;
604.2000;0.1384;-0.7761;
604.5000;0.1376;-0.7837;
604.8000;0.1376;-0.7887;
605.1000;0.1368;-0.7962;
605.4000;0.1384;-0.7937;
605.7000;0.1270;-0.8339;
606.0000;0.1335;-0.8188;
606.3000;0.1343;-0.8163;
606.6000;0.1416;-0.8013;
606.9000;0.1343;-0.8163;
607.2000;0.1335;-0.8214;
607.5000;0.1335;-0.8214;
607.8000;0.1335;-0.8138;
608.1000;0.1343;-0.8188;
608.4000;0.1351;-0.8163;
608.7000;0.1319;-0.8264;
609.0000;0.1302;-0.8264;
609.3000;0.1319;-0.8314;
609.6000;0.1327;-0.8289;
609.9000;0.1327;-0.8339;
610.2000;0.1319;-0.8364;
610.5000;0.1294;-0.8515;
610.8000;0.1311;-0.8590;
611.1000;0.1319;-0.8615;
611.4000;0.1213;-0.8791;
611.7000;0.1311;-0.8540;
612.0000;0.1319;-0.8565;
612.3000;0.1327;-0.8615;
612.6000;0.1311;-0.8641;
612.9000;0.1311;-0.8540;
613.2000;0.1343;-0.8414;
613.5000;0.1319;-0.8389;
613.8000;0.1327;-0.8414;
614.1000;0.1327;-0.8414;
614.4000;0.1335;-0.8490;
614.7000;0.1319;-0.8565;
615.0000;0.1319;-0.8641;
615.3000;0.1335;-0.8540;
615.6000;0.1319;-0.8565;
615.9000;0.1319;-0.8565;
616.2000;0.1270;-0.8590;
616.5000;0.1319;-0.8440;
616.8000;0.1319;-0.8615;
617.1000;0.1319;-0.8641;
617.4000;0.1302;-0.8666;
617.7000;0.1319;-0.8615;
618.0000;0.1286;-0.8816;
618.3000;0.1311;-0.8741;
618.6000;0.1319;-0.8841;
618.9000;0.1319;-0.8791;
619.2000;0.1319;-0.8791;
619.5000;0.1319;-0.8791;
619.8000;0.1343;-0.8716;
620.1000;0.1286;-0.8766;
620.4000;0.1327;-0.8691;
620.7000;0.1302;-0.8691;
621.0000;0.1262;-0.8892;
621.3000;0.1302;-0.8816;
621.6000;0.1302;-0.8766;
621.9000;0.1368;-0.8741;
622.2000;0.1311;-0.8841;
622.5000;0.1302;-0.8816;
622.8000;0.1302;-0.8816;
623.1000;0.1311;-0.8841;
623.4000;0.1286;-0.8917;
623.7000;0.1319;-0.8816;
624.0000;0.1327;-0.8791;
624.3000;0.1319;-0.8741;
624.6000;0.1294;-0.8741;
624.9000;0.1294;-0.8741;
625.2000;0.1302;-0.8666;
625.5000;0.1302;-0.8691;
625.8000;0.1335;-0.8691;
626.1000;0.1319;-0.8791;
626.4000;0.1359;-0.8615;
626.7000;0.1311;-0.8741;
627.0000;0.1302;-0.8816;
627.3000;0.1286;-0.8867;
627.6000;0.1302;-0.8816;
627.9000;0.1286;-0.8791;
628.2000;0.1319;-0.8716;
628.5000;0.1286;-0.8791;
628.8000;0.1319;-0.8691;
629.1000;0.1278;-0.8841;
629.4000;0.1319;-0.8816;
629.7000;0.1376;-0.8691;
630.0000;0.1294;-0.8816;
630.3000;0.1351;-0.8641;
630.6000;0.1302;-0.8766;
630.9000;0.1343;-0.8741;
631.2000;0.1311;-0.8791;
631.5000;0.1319;-0.8766;
631.8000;0.1376;-0.8716;
632.1000;0.1335;-0.8841;
632.4000;0.1376;-0.8741;
632.7000;0.1319;-0.8867;
633.0000;0.1294;-0.8841;
633.3000;0.1237;-0.9042;
633.6000;0.1311;-0.8791;
633.9000;0.1278;-0.8841;
634.2000;0.1302;-0.8791;
634.5000;0.1302;-0.8816;
634.8000;0.1294;-0.8766;
635.1000;0.1319;-0.8791;
635.4000;0.1359;-0.8716;
635.7000;0.1441;-0.8440;
636.0000;0.1278;-0.8867;
636.3000;0.1311;-0.8766;
636.6000;0.1335;-0.8691;
636.9000;0.1294;-0.8766;
637.2000;0.1311;-0.8766;
637.5000;0.1286;-0.8741;
637.8000;0.1172;-0.9068;
638.1000;0.1319;-0.8741;
638.4000;0.1311;-0.8766;
638.7000;0.1311;-0.8766;
639.0000;0.1311;-0.8741;
639.3000;0.1311;-0.8615;
639.6000;0.1311;-0.8515;
639.9000;0.1311;-0.8540;
640.2000;0.1302;-0.8515;
640.5000;0.1302;-0.8540;
640.8000;0.1319;-0.8515;
641.1000;0.1319;-0.8615;
641.4000;0.1311;-0.8666;
641.7000;0.1302;-0.8691;
642.0000;0.1351;-0.8490;
642.3000;0.1319;-0.8565;
642.6000;0.1302;-0.8666;
642.9000;0.1311;-0.8691;
643.2000;0.1302;-0.8716;
643.5000;0.1319;-0.8741;
643.8000;0.1311;-0.8741;
644.1000;0.1286;-0.8841;
644.4000;0.1319;-0.8816;
644.7000;0.1335;-0.8766;
645.0000;0.1327;-0.8766;
645.3000;0.1302;-0.8791;
645.6000;0.1319;-0.8816;
645.9000;0.1343;-0.8766;
646.2000;0.1278;-0.8967;
646.5000;0.1286;-0.8992;
646.8000;0.1286;-0.9068;
647.1000;0.1327;-0.8892;
647.4000;0.1302;-0.8917;
647.7000;0.1294;-0.8841;
648.0000;0.1286;-0.8917;
648.3000;0.1408;-0.8615;
648.6000;0.1245;-0.9042;
648.9000;0.1278;-0.8917;
649.2000;0.1319;-0.8741;
649.5000;0.1327;-0.8716;
649.8000;0.1294;-0.8816;
650.1000;0.1286;-0.8892;
650.4000;0.1270;-0.8867;
650.7000;0.1294;-0.8841;
651.0000;0.1319;-0.8867;
651.3000;0.1319;-0.8867;
651.6000;0.1294;-0.8942;
651.9000;0.1286;-0.9017;
652.2000;0.1286;-0.9017;
652.5000;0.1302;-0.9017;
652.8000;0.1254;-0.9118;
653.1000;0.1278;-0.9143;
653.4000;0.1351;-0.8992;
653.7000;0.1335;-0.9093;
654.0000;0.1302;-0.9118;
654.3000;0.1351;-0.8992;
654.6000;0.1254;-0.9118;
654.9000;0.1327;-0.9017;
655.2000;0.1319;-0.9093;
655.5000;0.1311;-0.9193;
655.8000;0.1311;-0.9143;
656.1000;0.1319;-0.9143;
656.4000;0.1262;-0.9193;
656.7000;0.1311;-0.9093;
657.0000;0.1294;-0.9093;
657.3000;0.1302;-0.9042;
657.6000;0.1302;-0.8992;
657.9000;0.1270;-0.9068;
658.2000;0.1278;-0.9093;
658.5000;0.1302;-0.8892;
658.8000;0.1302;-0.8841;
659.1000;0.1294;-0.8892;
659.4000;0.1311;-0.8841;
659.7000;0.1327;-0.8741;
660.0000;0.1278;-0.8791;
660.3000;0.1311;-0.8691;
660.6000;0.1311;-0.8741;
660.9000;0.1302;-0.8766;
661.2000;0.1302;-0.8816;
661.5000;0.1302;-0.8867;
661.8000;0.1286;-0.8841;
662.1000;0.1286;-0.8841;
662.4000;0.1311;-0.8816;
662.7000;0.1302;-0.8841;
663.0000;0.1327;-0.8892;
663.3000;0.1311;-0.8841;
663.6000;0.1359;-0.8691;
663.9000;0.1311;-0.8791;
664.2000;0.1237;-0.8942;
664.5000;0.1343;-0.8691;
664.8000;0.1327;-0.8666;
665.1000;0.1319;-0.8741;
665.4000;0.1319;-0.8691;
665.7000;0.1302;-0.8691;
666.0000;0.1319;-0.8615;
666.3000;0.1278;-0.8741;
666.6000;0.1294;-0.8766;
666.9000;0.1343;-0.8691;
667.2000;0.1270;-0.8992;
667.5000;0.1278;-0.8967;
667.8000;0.1294;-0.8917;
668.1000;0.1286;-0.8942;
668.4000;0.1302;-0.8967;
668.7000;0.1319;-0.8917;
669.0000;0.1319;-0.9017;
669.3000;0.1343;-0.8942;
669.6000;0.1311;-0.8942;
669.9000;0.1302;-0.8816;
670.2000;0.1351;-0.8716;
670.5000;0.1335;-0.8641;
670.8000;0.1294;-0.8841;
671.1000;0.1262;-0.8942;
671.4000;0.1327;-0.8816;
671.7000;0.1286;-0.8816;
672.0000;0.1270;-0.8917;
672.3000;0.1368;-0.8741;
672.6000;0.1311;-0.8967;
672.9000;0.1319;-0.8917;
673.2000;0.1294;-0.8917;
673.5000;0.1319;-0.8841;
673.8000;0.1327;-0.8841;
674.1000;0.1302;-0.8816;
674.4000;0.1311;-0.8841;
674.7000;0.1343;-0.8741;
675.0000;0.1302;-0.8766;
675.3000;0.1229;-0.8967;
675.6000;0.1319;-0.8867;
675.9000;0.1294;-0.8867;
676.2000;0.1327;-0.8841;
676.5000;0.1254;-0.8967;
676.8000;0.1319;-0.8841;
677.1000;0.1286;-0.8917;
677.4000;0.1270;-0.8867;
677.7000;0.1311;-0.8816;
678.0000;0.1327;-0.8691;
678.3000;0.1311;-0.8741;
678.6000;0.1327;-0.8716;
678.9000;0.1302;-0.8766;
679.2000;0.1294;-0.8691;
679.5000;0.1327;-0.8641;
679.8000;0.1294;-0.8816;
680.1000;0.1311;-0.8766;
680.4000;0.1311;-0.8816;
680.7000;0.1327;-0.8766;
681.0000;0.1294;-0.8917;
681.3000;0.1327;-0.8716;
681.6000;0.1302;-0.8766;
681.9000;0.1286;-0.8892;
682.2000;0.1294;-0.8892;
682.5000;0.1311;-0.8942;
682.8000;0.1311;-0.8967;
683.1000;0.1327;-0.8841;
683.4000;0.1302;-0.8867;
683.7000;0.1359;-0.8741;
684.0000;0.1319;-0.8841;
684.3000;0.1319;-0.8917;
684.6000;0.1343;-0.8917;
684.9000;0.1302;-0.8942;
685.2000;0.1311;-0.8892;
685.5000;0.1319;-0.8892;
685.8000;0.1286;-0.8967;
686.1000;0.1368;-0.8766;
686.4000;0.1302;-0.8867;
686.7000;0.1302;-0.8791;
687.0000;0.1286;-0.8892;
687.3000;0.1278;-0.9017;
687.6000;0.1302;-0.8942;
687.9000;0.1294;-0.8992;
688.2000;0.1400;-0.8615;
688.5000;0.1302;-0.8816;
688.8000;0.1302;-0.8741;
689.1000;0.1311;-0.8615;
689.4000;0.1294;-0.8641;
689.7000;0.1302;-0.8716;
690.0000;0.1302;-0.8716;
690.3000;0.1319;-0.8615;
690.6000;0.1302;-0.8716;
690.9000;0.1311;-0.8691;
691.2000;0.1294;-0.8741;
691.5000;0.1319;-0.8641;
691.8000;0.1213;-0.8841;
692.1000;0.1294;-0.8666;
692.4000;0.1270;-0.8641;
692.7000;0.1294;-0.8590;
693.0000;0.1286;-0.8615;
693.3000;0.1294;-0.8766;
693.6000;0.1311;-0.8691;
693.9000;0.1278;-0.8766;
694.2000;0.1359;-0.8590;
694.5000;0.1343;-0.8666;
694.8000;0.1302;-0.8816;
695.1000;0.1294;-0.8741;
695.4000;0.1302;-0.8716;
695.7000;0.1286;-0.8741;
696.0000;0.1286;-0.8766;
696.3000;0.1335;-0.8741;
696.6000;0.1327;-0.8867;
696.9000;0.1270;-0.8917;
697.2000;0.1294;-0.8841;
697.5000;0.1311;-0.8892;
697.8000;0.1302;-0.8892;
698.1000;0.1327;-0.8816;
698.4000;0.1302;-0.8917;
698.7000;0.1319;-0.8867;
699.0000;0.1302;-0.8816;
699.3000;0.1327;-0.8816;
699.6000;0.1302;-0.8892;
699.9000;0.1302;-0.8841;
700.2000;0.1294;-0.8816;
700.5000;0.1319;-0.8766;
700.8000;0.1311;-0.8816;
701.1000;0.1302;-0.8816;
701.4000;0.1294;-0.8841;
701.7000;0.1302;-0.8841;
702.0000;0.1311;-0.8766;
702.3000;0.1302;-0.8816;
702.6000;0.1286;-0.8766;
702.9000;0.1302;-0.8766;
703.2000;0.1286;-0.8816;
703.5000;0.1319;-0.8766;
703.8000;0.1319;-0.8816;
704.1000;0.1294;-0.8791;
704.4000;0.1311;-0.8741;
704.7000;0.1294;-0.8766;
705.0000;0.1294;-0.8816;
705.3000;0.1302;-0.8816;
705.6000;0.1327;-0.8791;
705.9000;0.1286;-0.8892;
706.2000;0.1319;-0.8716;
706.5000;0.1294;-0.8816;
706.8000;0.1302;-0.8766;
707.1000;0.1343;-0.8615;
707.4000;0.1343;-0.8615;
707.7000;0.1302;-0.8766;
708.0000;0.1311;-0.8791;
708.3000;0.1319;-0.8691;
708.6000;0.1319;-0.8691;
708.9000;0.1311;-0.8741;
709.2000;0.1351;-0.8691;
709.5000;0.1327;-0.8766;
709.8000;0.1327;-0.8791;
710.1000;0.1302;-0.8791;
710.4000;0.1302;-0.8766;
710.7000;0.1311;-0.8741;
711.0000;0.1368;-0.8666;
711.3000;0.1294;-0.8867;
711.6000;0.1286;-0.8867;
711.9000;0.1294;-0.8867;
712.2000;0.1311;-0.8816;
712.5000;0.1302;-0.8892;
712.8000;0.1319;-0.8892;
713.1000;0.1302;-0.8841;
713.4000;0.1327;-0.8716;
713.7000;0.1302;-0.8841;
714.0000;0.1286;-0.8841;
714.3000;0.1327;-0.8766;
714.6000;0.1311;-0.8716;
714.9000;0.1302;-0.8741;
715.2000;0.1286;-0.8766;
715.5000;0.1294;-0.8666;
715.8000;0.1311;-0.8666;
716.1000;0.1294;-0.8716;
716.4000;0.1278;-0.8766;
716.7000;0.1286;-0.8791;
717.0000;0.1286;-0.8816;
717.3000;0.1302;-0.8816;
717.6000;0.1302;-0.8867;
717.9000;0.1319;-0.8816;
718.2000;0.1311;-0.8816;
718.5000;0.1254;-0.8967;
718.8000;0.1335;-0.8741;
719.1000;0.1302;-0.8766;
719.4000;0.1302;-0.8741;
719.7000;0.1327;-0.8716;
720.0000;0.1311;-0.8766;
720.3000;0.1302;-0.8867;
720.6000;0.1197;-0.9143;
720.9000;0.1319;-0.8841;
721.2000;0.1302;-0.8892;
721.5000;0.1302;-0.8867;
721.8000;0.1302;-0.8816;
722.1000;0.1319;-0.8892;
722.4000;0.1319;-0.8892;
722.7000;0.1302;-0.8942;
723.0000;0.1311;-0.8841;
723.3000;0.1319;-0.8791;
723.6000;0.1278;-0.8892;
723.9000;0.1278;-0.8967;
724.2000;0.1302;-0.8917;
724.5000;0.1343;-0.8816;
724.8000;0.1319;-0.8867;
725.1000;0.1311;-0.8841;
725.4000;0.1302;-0.8816;
725.7000;0.1270;-0.8841;
726.0000;0.1294;-0.8841;
726.3000;0.1286;-0.8841;
726.6000;0.1302;-0.8917;
726.9000;0.1294;-0.8992;
727.2000;0.1286;-0.9093;
727.5000;0.1294;-0.9118;
727.8000;0.1294;-0.8992;
728.1000;0.1294;-0.8967;
728.4000;0.1311;-0.8892;
728.7000;0.1294;-0.8841;
729.0000;0.1319;-0.8741;
729.3000;0.1286;-0.8867;
729.6000;0.1302;-0.8841;
729.9000;0.1311;-0.8917;
730.2000;0.1286;-0.9017;
730.5000;0.1319;-0.8967;
730.8000;0.1302;-0.8942;
731.1000;0.1302;-0.8892;
731.4000;0.1351;-0.8816;
731.7000;0.1302;-0.8766;
732.0000;0.1294;-0.8841;
732.3000;0.1311;-0.8942;
732.6000;0.1311;-0.8992;
732.9000;0.1319;-0.8917;
733.2000;0.1302;-0.8992;
733.5000;0.1319;-0.8967;
733.8000;0.1319;-0.8867;
734.1000;0.1254;-0.9042;
734.4000;0.1351;-0.8841;
734.7000;0.1327;-0.8917;
735.0000;0.1384;-0.8691;
735.3000;0.1327;-0.8766;
735.6000;0.1327;-0.8716;
735.9000;0.1294;-0.8791;
736.2000;0.1302;-0.8741;
736.5000;0.1311;-0.8691;
736.8000;0.1311;-0.8691;
737.1000;0.1327;-0.8716;
737.4000;0.1311;-0.8741;
737.7000;0.1311;-0.8641;
738.0000;0.1302;-0.8641;
738.3000;0.1270;-0.8741;
738.6000;0.1302;-0.8666;
738.9000;0.1262;-0.8766;
739.2000;0.1302;-0.8716;
739.5000;0.1294;-0.8741;
739.8000;0.1302;-0.8766;
740.1000;0.1311;-0.8766;
740.4000;0.1327;-0.8741;
740.7000;0.1286;-0.8841;
741.0000;0.1302;-0.8892;
741.3000;0.1311;-0.8867;
741.6000;0.1286;-0.8892;
741.9000;0.1311;-0.8917;
742.2000;0.1294;-0.9017;
742.5000;0.1319;-0.8867;
742.8000;0.1335;-0.8791;
743.1000;0.1278;-0.8892;
743.4000;0.1311;-0.8841;
743.7000;0.1319;-0.8841;
744.0000;0.1311;-0.8791;
744.3000;0.1302;-0.8791;
744.6000;0.1335;-0.8691;
744.9000;0.1335;-0.8716;
745.2000;0.1286;-0.8841;
745.5000;0.1294;-0.8867;
745.8000;0.1294;-0.8841;
746.1000;0.1286;-0.8791;
746.4000;0.1359;-0.8716;
746.7000;0.1294;-0.8867;
747.0000;0.1286;-0.8816;
747.3000;0.1278;-0.8867;
747.6000;0.1311;-0.8841;
747.9000;0.1286;-0.8967;
748.2000;0.1294;-0.8892;
748.5000;0.1278;-0.8942;
748.8000;0.1302;-0.8942;
749.1000;0.1262;-0.8892;
749.4000;0.1254;-0.8816;
749.7000;0.1319;-0.8641;
750.0000;0.1302;-0.8641;
750.3000;0.1270;-0.8716;
750.6000;0.1319;-0.8716;
750.9000;0.1302;-0.8716;
751.2000;0.1302;-0.8741;
751.5000;0.1319;-0.8691;
751.8000;0.1286;-0.8741;
752.1000;0.1327;-0.8615;
752.4000;0.1278;-0.8716;
752.7000;0.1294;-0.8691;
753.0000;0.1278;-0.8691;
753.3000;0.1302;-0.8691;
753.6000;0.1294;-0.8716;
753.9000;0.1286;-0.8791;
754.2000;0.1286;-0.8892;
754.5000;0.1302;-0.8867;
754.8000;0.1278;-0.8867;
755.1000;0.1311;-0.8741;
755.4000;0.1286;-0.8816;
755.7000;0.1237;-0.8942;
756.0000;0.1294;-0.8816;
756.3000;0.1262;-0.8917;
756.6000;0.1384;-0.8641;
756.9000;0.1294;-0.8741;
757.2000;0.1311;-0.8741;
757.5000;0.1302;-0.8867;
757.8000;0.1327;-0.8892;
758.1000;0.1302;-0.8917;
758.4000;0.1302;-0.8841;
758.7000;0.1286;-0.8816;
759.0000;0.1319;-0.8791;
759.3000;0.1319;-0.8791;
759.6000;0.1311;-0.8841;
759.9000;0.1343;-0.8741;
760.2000;0.1278;-0.8867;
760.5000;0.1286;-0.8992;
760.8000;0.1294;-0.9042;
761.1000;0.1278;-0.9017;
761.4000;0.1294;-0.8967;
761.7000;0.1294;-0.8942;
762.0000;0.1311;-0.8942;
762.3000;0.1327;-0.8867;
762.6000;0.1311;-0.8867;
762.9000;0.1311;-0.8992;
763.2000;0.1294;-0.9042;
763.5000;0.1294;-0.9042;
763.8000;0.1286;-0.9042;
764.1000;0.1278;-0.8892;
764.4000;0.1335;-0.8766;
764.7000;0.1319;-0.8791;
765.0000;0.1286;-0.8841;
765.3000;0.1286;-0.8892;
765.6000;0.1311;-0.8867;
765.9000;0.1286;-0.8942;
766.2000;0.1311;-0.8967;
766.5000;0.1359;-0.8816;
766.8000;0.1302;-0.8917;
767.1000;0.1302;-0.8867;
767.4000;0.1343;-0.8691;
767.7000;0.1311;-0.8716;
768.0000;0.1294;-0.8741;
768.3000;0.1311;-0.8741;
768.6000;0.1286;-0.8816;
768.9000;0.1319;-0.8741;
769.2000;0.1319;-0.8791;
769.5000;0.1311;-0.8867;
769.8000;0.1302;-0.8841;
770.1000;0.1294;-0.8867;
770.4000;0.1294;-0.8917;
770.7000;0.1302;-0.8967;
771.0000;0.1343;-0.8992;
771.3000;0.1278;-0.9118;
771.6000;0.1359;-0.8917;
771.9000;0.1286;-0.8992;
772.2000;0.1311;-0.8992;
772.5000;0.1311;-0.8967;
772.8000;0.1302;-0.9068;
773.1000;0.1319;-0.9042;
773.4000;0.1294;-0.9118;
773.7000;0.1278;-0.9268;
774.0000;0.1359;-0.8992;
774.3000;0.1327;-0.9068;
774.6000;0.1286;-0.9143;
774.9000;0.1311;-0.9068;
775.2000;0.1286;-0.9243;
775.5000;0.1302;-0.9093;
775.8000;0.1319;-0.8992;
776.1000;0.1319;-0.9068;
776.4000;0.1294;-0.9168;
776.7000;0.1319;-0.9243;
777.0000;0.1294;-0.9193;
777.3000;0.1319;-0.9193;
777.6000;0.1335;-0.9068;
777.9000;0.1286;-0.9193;
778.2000;0.1311;-0.9093;
778.5000;0.1311;-0.8967;
778.8000;0.1319;-0.8942;
779.1000;0.1311;-0.9017;
779.4000;0.1319;-0.8892;
779.7000;0.1335;-0.8942;
780.0000;0.1294;-0.9042;
780.3000;0.1311;-0.9068;
780.6000;0.1327;-0.9042;
780.9000;0.1319;-0.9042;
781.2000;0.1319;-0.9068;
781.5000;0.1302;-0.9093;
781.8000;0.1294;-0.9118;
782.1000;0.1311;-0.9093;
782.4000;0.1302;-0.9017;
782.7000;0.1311;-0.8992;
783.0000;0.1311;-0.8992;
783.3000;0.1311;-0.8892;
783.6000;0.1343;-0.8867;
783.9000;0.1302;-0.8942;
784.2000;0.1278;-0.8992;
784.5000;0.1302;-0.8917;
784.8000;0.1327;-0.8867;
785.1000;0.1270;-0.9017;
785.4000;0.1286;-0.9042;
785.7000;0.1302;-0.8992;
786.0000;0.1311;-0.8992;
786.3000;0.1294;-0.8917;
786.6000;0.1311;-0.8791;
786.9000;0.1302;-0.8791;
787.2000;0.1327;-0.8766;
787.5000;0.1311;-0.8766;
787.8000;0.1270;-0.8917;
788.1000;0.1270;-0.8892;
788.4000;0.1343;-0.8691;
788.7000;0.1319;-0.8791;
789.0000;0.1254;-0.8867;
789.3000;0.1302;-0.8816;
789.6000;0.1294;-0.8867;
789.9000;0.1278;-0.8967;
790.2000;0.1392;-0.8666;
790.5000;0.1302;-0.8867;
790.8000;0.1294;-0.8967;
791.1000;0.1319;-0.8867;
791.4000;0.1294;-0.8892;
791.7000;0.1294;-0.8917;
792.0000;0.1311;-0.8967;
792.3000;0.1319;-0.8967;
792.6000;0.1319;-0.8967;
792.9000;0.1319;-0.9017;
793.2000;0.1311;-0.8942;
793.5000;0.1245;-0.8992;
793.8000;0.1319;-0.8791;
794.1000;0.1294;-0.8791;
794.4000;0.1327;-0.8766;
794.7000;0.1311;-0.8816;
795.0000;0.1335;-0.8791;
795.3000;0.1319;-0.8867;
795.6000;0.1302;-0.8867;
795.9000;0.1327;-0.8766;
796.2000;0.1319;-0.8741;
796.5000;0.1302;-0.8841;
796.8000;0.1311;-0.8841;
797.1000;0.1311;-0.8917;
797.4000;0.1294;-0.8917;
797.7000;0.1302;-0.8892;
798.0000;0.1311;-0.8917;
798.3000;0.1294;-0.8967;
798.6000;0.1311;-0.8867;
798.9000;0.1221;-0.9143;
799.2000;0.1294;-0.8992;
799.5000;0.1294;-0.9017;
799.8000;0.1278;-0.9068;
800.1000;0.1319;-0.8967;
800.4000;0.1294;-0.9017;
800.7000;0.1302;-0.9042;
801.0000;0.1311;-0.9068;
801.3000;0.1278;-0.9093;
801.6000;0.1294;-0.9143;
801.9000;0.1302;-0.9068;
802.2000;0.1262;-0.9193;
802.5000;0.1294;-0.8992;
802.8000;0.1311;-0.8942;
803.1000;0.1351;-0.8942;
803.4000;0.1311;-0.9042;
803.7000;0.1311;-0.9118;
804.0000;0.1302;-0.9093;
804.3000;0.1311;-0.8917;
804.6000;0.1302;-0.8917;
804.9000;0.1392;-0.8766;
805.2000;0.1311;-0.9042;
805.5000;0.1311;-0.9168;
805.8000;0.1294;-0.9093;
806.1000;0.1270;-0.9143;
806.4000;0.1319;-0.8967;
806.7000;0.1311;-0.9042;
807.0000;0.1302;-0.9068;
807.3000;0.1319;-0.9017;
807.6000;0.1311;-0.9093;
807.9000;0.1327;-0.9017;
808.2000;0.1311;-0.8942;
808.5000;0.1294;-0.8992;
808.8000;0.1319;-0.8841;
809.1000;0.1294;-0.8816;
809.4000;0.1294;-0.8841;
809.7000;0.1302;-0.8791;
810.0000;0.1294;-0.8791;
810.3000;0.1351;-0.8615;
810.6000;0.1319;-0.8791;
810.9000;0.1311;-0.8816;
811.2000;0.1302;-0.8766;
811.5000;0.1327;-0.8892;
811.8000;0.1294;-0.9042;
812.1000;0.1254;-0.9118;
812.4000;0.1302;-0.8967;
812.7000;0.1286;-0.8917;
813.0000;0.1302;-0.8942;
813.3000;0.1311;-0.8942;
813.6000;0.1294;-0.8917;
813.9000;0.1302;-0.8992;
814.2000;0.1311;-0.9042;
814.5000;0.1319;-0.8992;
814.8000;0.1311;-0.9042;
815.1000;0.1302;-0.9118;
815.4000;0.1319;-0.9093;
815.7000;0.1262;-0.9218;
816.0000;0.1188;-0.9268;
816.3000;0.1302;-0.8917;
816.6000;0.1327;-0.8867;
816.9000;0.1335;-0.8741;
817.2000;0.1311;-0.8816;
817.5000;0.1302;-0.8816;
817.8000;0.1311;-0.8766;
818.1000;0.1311;-0.8791;
818.4000;0.1302;-0.8791;
818.7000;0.1327;-0.8867;
819.0000;0.1343;-0.8867;
819.3000;0.1294;-0.8892;
819.6000;0.1278;-0.8917;
819.9000;0.1319;-0.8816;
820.2000;0.1319;-0.8942;
820.5000;0.1302;-0.8942;
820.8000;0.1327;-0.8992;
821.1000;0.1311;-0.9017;
821.4000;0.1319;-0.8942;
821.7000;0.1319;-0.8942;
822.0000;0.1278;-0.8992;
822.3000;0.1302;-0.8942;
822.6000;0.1270;-0.8967;
822.9000;0.1302;-0.8942;
823.2000;0.1286;-0.9017;
823.5000;0.1302;-0.8967;
823.8000;0.1294;-0.9017;
824.1000;0.1302;-0.8942;
824.4000;0.1311;-0.8942;
824.7000;0.1311;-0.8967;
825.0000;0.1311;-0.8892;
825.3000;0.1319;-0.8917;
825.6000;0.1327;-0.8867;
825.9000;0.1311;-0.8942;
826.2000;0.1359;-0.8892;
826.5000;0.1311;-0.8992;
826.8000;0.1335;-0.8942;
827.1000;0.1311;-0.8992;
827.4000;0.1319;-0.8942;
827.7000;0.1327;-0.8967;
828.0000;0.1278;-0.8917;
828.3000;0.1302;-0.8766;
828.6000;0.1311;-0.8716;
828.9000;0.1311;-0.8741;
829.2000;0.1302;-0.8741;
829.5000;0.1319;-0.8741;
829.8000;0.1278;-0.8867;
830.1000;0.1319;-0.8816;
830.4000;0.1319;-0.8841;
830.7000;0.1319;-0.8841;
831.0000;0.1335;-0.8716;
831.3000;0.1311;-0.8741;
831.6000;0.1302;-0.8716;
831.9000;0.1319;-0.8641;
832.2000;0.1294;-0.8791;
832.5000;0.1302;-0.8741;
832.8000;0.1319;-0.8741;
833.1000;0.1319;-0.8791;
833.4000;0.1302;-0.8816;
833.7000;0.1302;-0.8867;
834.0000;0.1311;-0.8892;
834.3000;0.1319;-0.8967;
834.6000;0.1359;-0.8967;
834.9000;0.1302;-0.9017;
835.2000;0.1302;-0.9042;
835.5000;0.1335;-0.8967;
835.8000;0.1302;-0.9068;
836.1000;0.1302;-0.9017;
836.4000;0.1286;-0.9017;
836.7000;0.1311;-0.8942;
837.0000;0.1294;-0.8992;
837.3000;0.1302;-0.8967;
837.6000;0.1311;-0.9017;
837.9000;0.1311;-0.8992;
838.2000;0.1294;-0.9017;
838.5000;0.1311;-0.8967;
838.8000;0.1286;-0.8967;
839.1000;0.1302;-0.8892;
839.4000;0.1319;-0.8791;
839.7000;0.1286;-0.8841;
840.0000;0.1302;-0.8816;
840.3000;0.1319;-0.8741;
840.6000;0.1278;-0.8791;
840.9000;0.1311;-0.8766;
841.2000;0.1327;-0.8741;
841.5000;0.1319;-0.8791;
841.8000;0.1311;-0.8716;
842.1000;0.1335;-0.8691;
842.4000;0.1278;-0.8867;
842.7000;0.1302;-0.8816;
843.0000;0.1319;-0.8791;
843.3000;0.1286;-0.8867;
843.6000;0.1286;-0.8917;
843.9000;0.1343;-0.8766;
844.2000;0.1319;-0.8816;
844.5000;0.1335;-0.8841;
844.8000;0.1245;-0.9042;
845.1000;0.1286;-0.8967;
845.4000;0.1327;-0.8917;
845.7000;0.1327;-0.8892;
846.0000;0.1311;-0.8917;
846.3000;0.1327;-0.8841;
846.6000;0.1327;-0.8791;
846.9000;0.1327;-0.8766;
847.2000;0.1327;-0.8741;
847.5000;0.1311;-0.8741;
847.8000;0.1319;-0.8766;
848.1000;0.1294;-0.8816;
848.4000;0.1286;-0.8917;
848.7000;0.1351;-0.8766;
849.0000;0.1311;-0.8917;
849.3000;0.1319;-0.8892;
849.6000;0.1302;-0.8967;
849.9000;0.1302;-0.9017;
850.2000;0.1319;-0.8917;
850.5000;0.1311;-0.8917;
850.8000;0.1302;-0.8992;
851.1000;0.1311;-0.8917;
851.4000;0.1311;-0.8892;
851.7000;0.1319;-0.8967;
852.0000;0.1327;-0.8892;
852.3000;0.1319;-0.8867;
852.6000;0.1327;-0.8841;
852.9000;0.1294;-0.8892;
853.2000;0.1311;-0.8791;
853.5000;0.1294;-0.8791;
853.8000;0.1294;-0.8791;
854.1000;0.1286;-0.8791;
854.4000;0.1335;-0.8716;
854.7000;0.1270;-0.8892;
855.0000;0.1335;-0.8691;
855.3000;0.1286;-0.8816;
855.6000;0.1319;-0.8691;
855.9000;0.1311;-0.8666;
856.2000;0.1319;-0.8590;
856.5000;0.1335;-0.8641;
856.8000;0.1327;-0.8716;
857.1000;0.1359;-0.8641;
857.4000;0.1359;-0.8791;
857.7000;0.1302;-0.8917;
858.0000;0.1302;-0.8841;
858.3000;0.1262;-0.8892;
858.6000;0.1294;-0.8816;
858.9000;0.1335;-0.8741;
859.2000;0.1270;-0.8967;
859.5000;0.1335;-0.8816;
859.8000;0.1278;-0.8992;
860.1000;0.1286;-0.8967;
860.4000;0.1262;-0.8942;
860.7000;0.1311;-0.8791;
861.0000;0.1319;-0.8816;
861.3000;0.1302;-0.8917;
861.6000;0.1294;-0.8917;
861.9000;0.1311;-0.8841;
862.2000;0.1302;-0.8841;
862.5000;0.1327;-0.8741;
862.8000;0.1302;-0.8791;
863.1000;0.1302;-0.8841;
863.4000;0.1311;-0.8791;
863.7000;0.1302;-0.8917;
864.0000;0.1294;-0.8942;
864.3000;0.1294;-0.8942;
864.6000;0.1351;-0.8841;
864.9000;0.1245;-0.9093;
865.2000;0.1302;-0.8942;
865.5000;0.1286;-0.8867;
865.8000;0.1302;-0.8791;
866.1000;0.1270;-0.8741;
866.4000;0.1270;-0.8841;
866.7000;0.1311;-0.8791;
867.0000;0.1270;-0.8841;
867.3000;0.1327;-0.8716;
867.6000;0.1319;-0.8816;
867.9000;0.1302;-0.8867;
868.2000;0.1319;-0.8841;
868.5000;0.1294;-0.8917;
868.8000;0.1302;-0.8917;
869.1000;0.1335;-0.8917;
869.4000;0.1286;-0.8992;
869.7000;0.1302;-0.8942;
870.0000;0.1319;-0.8892;
870.3000;0.1327;-0.8892;
870.6000;0.1319;-0.8766;
870.9000;0.1327;-0.8691;
871.2000;0.1311;-0.8791;
871.5000;0.1327;-0.8641;
871.8000;0.1351;-0.8565;
872.1000;0.1327;-0.8666;
872.4000;0.1294;-0.8741;
872.7000;0.1319;-0.8741;
873.0000;0.1278;-0.8867;
873.3000;0.1311;-0.8791;
873.6000;0.1311;-0.8741;
873.9000;0.1319;-0.8716;
874.2000;0.1221;-0.8942;
874.5000;0.1302;-0.8816;
874.8000;0.1335;-0.8691;
875.1000;0.1278;-0.8791;
875.4000;0.1351;-0.8615;
875.7000;0.1302;-0.8816;
876.0000;0.1327;-0.8766;
876.3000;0.1311;-0.8992;
876.6000;0.1286;-0.9042;
876.9000;0.1294;-0.8992;
877.2000;0.1278;-0.8992;
877.5000;0.1319;-0.8791;
877.8000;0.1278;-0.8841;
878.1000;0.1278;-0.8841;
878.4000;0.1311;-0.8741;
878.7000;0.1311;-0.8766;
879.0000;0.1311;-0.8841;
879.3000;0.1270;-0.8816;
879.6000;0.1351;-0.8691;
879.9000;0.1294;-0.8766;
880.2000;0.1359;-0.8590;
880.5000;0.1319;-0.8766;
880.8000;0.1205;-0.8967;
881.1000;0.1286;-0.8741;
881.4000;0.1254;-0.8841;
881.7000;0.1294;-0.8766;
882.0000;0.1311;-0.8791;
882.3000;0.1368;-0.8641;
882.6000;0.1302;-0.8917;
882.9000;0.1286;-0.8892;
883.2000;0.1286;-0.8841;
883.5000;0.1302;-0.8791;
883.8000;0.1294;-0.8766;
884.1000;0.1319;-0.8841;
884.4000;0.1319;-0.8892;
884.7000;0.1319;-0.8917;
885.0000;0.1311;-0.8917;
885.3000;0.1311;-0.8992;
885.6000;0.1311;-0.8867;
885.9000;0.1327;-0.8892;
886.2000;0.1319;-0.8967;
886.5000;0.1294;-0.9017;
886.8000;0.1311;-0.8942;
887.1000;0.1302;-0.8892;
887.4000;0.1302;-0.8892;
887.7000;0.1302;-0.8992;
888.0000;0.1302;-0.8967;
888.3000;0.1311;-0.8992;
888.6000;0.1311;-0.9017;
888.9000;0.1278;-0.9017;
889.2000;0.1302;-0.8942;
889.5000;0.1302;-0.8992;
889.8000;0.1319;-0.9017;
890.1000;0.1319;-0.9042;
890.4000;0.1319;-0.9068;
890.7000;0.1327;-0.8967;
891.0000;0.1327;-0.8917;
891.3000;0.1327;-0.8967;
891.6000;0.1270;-0.9068;
891.9000;0.1311;-0.8992;
892.2000;0.1262;-0.9093;
892.5000;0.1278;-0.8967;
892.8000;0.1286;-0.8992;
893.1000;0.1294;-0.9042;
893.4000;0.1327;-0.8816;
893.7000;0.1311;-0.8816;
894.0000;0.1294;-0.8892;
894.3000;0.1302;-0.8841;
894.6000;0.1302;-0.8967;
894.9000;0.1278;-0.9017;
895.2000;0.1319;-0.8967;
895.5000;0.1319;-0.9093;
895.8000;0.1294;-0.9093;
896.1000;0.1302;-0.9042;
896.4000;0.1311;-0.9042;
896.7000;0.1311;-0.8967;
897.0000;0.1359;-0.8841;
897.3000;0.1294;-0.8992;
897.6000;0.1294;-0.9017;
897.9000;0.1302;-0.9093;
898.2000;0.1278;-0.9218;
898.5000;0.1302;-0.9017;
898.8000;0.1311;-0.9143;
899.1000;0.1311;-0.9093;
899.4000;0.1294;-0.9143;
899.7000;0.1327;-0.9143;
900.0000;0.1286;-0.9168;
900.3000;0.1311;-0.9042;
900.6000;0.1294;-0.9068;
900.9000;0.1302;-0.9068;
901.2000;0.1311;-0.9017;
901.5000;0.1311;-0.8942;
901.8000;0.1311;-0.8992;
902.1000;0.1286;-0.9068;
902.4000;0.1262;-0.9118;
902.7000;0.1270;-0.9118;
903.0000;0.1311;-0.9017;
903.3000;0.1311;-0.9042;
903.6000;0.1278;-0.9143;
903.9000;0.1302;-0.9118;
904.2000;0.1359;-0.8867;
904.5000;0.1311;-0.8992;
904.8000;0.1229;-0.9143;
905.1000;0.1311;-0.8892;
905.4000;0.1311;-0.8892;
905.7000;0.1286;-0.8967;
906.0000;0.1311;-0.8841;
906.3000;0.1286;-0.8867;
906.6000;0.1319;-0.8766;
906.9000;0.1384;-0.8465;
907.2000;0.1302;-0.8691;
907.5000;0.1327;-0.8666;
907.8000;0.1359;-0.8615;
908.1000;0.1311;-0.8791;
908.4000;0.1311;-0.8816;
908.7000;0.1311;-0.8741;
909.0000;0.1294;-0.8841;
909.3000;0.1311;-0.8841;
909.6000;0.1311;-0.8892;
909.9000;0.1311;-0.8942;
910.2000;0.1294;-0.8942;
910.5000;0.1294;-0.8892;
910.8000;0.1311;-0.8841;
911.1000;0.1311;-0.8867;
911.4000;0.1335;-0.8867;
911.7000;0.1311;-0.8967;
912.0000;0.1294;-0.8917;
912.3000;0.1319;-0.8892;
912.6000;0.1302;-0.8867;
912.9000;0.1327;-0.8766;
913.2000;0.1311;-0.8791;
913.5000;0.1205;-0.9143;
913.8000;0.1294;-0.8867;
914.1000;0.1302;-0.8892;
914.4000;0.1302;-0.8917;
914.7000;0.1302;-0.8816;
915.0000;0.1319;-0.8791;
915.3000;0.1327;-0.8741;
915.6000;0.1327;-0.8791;
915.9000;0.1319;-0.8741;
916.2000;0.1327;-0.8766;
916.5000;0.1319;-0.8816;
916.8000;0.1327;-0.8791;
917.1000;0.1335;-0.8841;
917.4000;0.1319;-0.8766;
917.7000;0.1302;-0.8716;
918.0000;0.1286;-0.8766;
918.3000;0.1245;-0.8942;
918.6000;0.1286;-0.8892;
918.9000;0.1286;-0.8841;
919.2000;0.1278;-0.8867;
919.5000;0.1311;-0.8892;
919.8000;0.1319;-0.8867;
920.1000;0.1294;-0.8816;
920.4000;0.1286;-0.8917;
920.7000;0.1319;-0.8816;
921.0000;0.1286;-0.8892;
921.3000;0.1286;-0.8917;
921.6000;0.1302;-0.8992;
921.9000;0.1335;-0.8917;
922.2000;0.1319;-0.8917;
922.5000;0.1302;-0.8992;
922.8000;0.1311;-0.8892;
923.1000;0.1311;-0.8917;
923.4000;0.1368;-0.8816;
923.7000;0.1294;-0.8967;
924.0000;0.1311;-0.8867;
924.3000;0.1311;-0.8791;
924.6000;0.1335;-0.8716;
924.9000;0.1278;-0.8841;
925.2000;0.1311;-0.8716;
925.5000;0.1311;-0.8741;
925.8000;0.1319;-0.8741;
926.1000;0.1319;-0.8716;
926.4000;0.1311;-0.8741;
926.7000;0.1294;-0.8766;
927.0000;0.1319;-0.8791;
927.3000;0.1319;-0.8867;
927.6000;0.1319;-0.8816;
927.9000;0.1319;-0.8791;
928.2000;0.1319;-0.8766;
928.5000;0.1327;-0.8791;
928.8000;0.1302;-0.8816;
929.1000;0.1302;-0.8791;
929.4000;0.1294;-0.8766;
929.7000;0.1327;-0.8791;
930.0000;0.1302;-0.8841;
930.3000;0.1311;-0.8841;
930.6000;0.1294;-0.8791;
930.9000;0.1229;-0.8892;
931.2000;0.1302;-0.8741;
931.5000;0.1294;-0.8766;
931.8000;0.1294;-0.8791;
932.1000;0.1343;-0.8716;
932.4000;0.1294;-0.8816;
932.7000;0.1327;-0.8791;
933.0000;0.1294;-0.8791;
933.3000;0.1335;-0.8791;
933.6000;0.1335;-0.8791;
933.9000;0.1286;-0.8841;
934.2000;0.1302;-0.8766;
934.5000;0.1311;-0.8716;
934.8000;0.1294;-0.8741;
935.1000;0.1335;-0.8691;
935.4000;0.1335;-0.8691;
935.7000;0.1319;-0.8766;
936.0000;0.1359;-0.8666;
936.3000;0.1335;-0.8766;
936.6000;0.1327;-0.8816;
936.9000;0.1270;-0.9017;
937.2000;0.1319;-0.8992;
937.5000;0.1319;-0.8917;
937.8000;0.1319;-0.8917;
938.1000;0.1311;-0.8917;
938.4000;0.1343;-0.8766;
938.7000;0.1302;-0.8892;
939.0000;0.1319;-0.8942;
939.3000;0.1368;-0.8766;
939.6000;0.1286;-0.8992;
939.9000;0.1311;-0.8917;
940.2000;0.1302;-0.8892;
940.5000;0.1319;-0.8841;
940.8000;0.1286;-0.8967;
941.1000;0.1335;-0.8892;
941.4000;0.1278;-0.9118;
941.7000;0.1302;-0.9042;
942.0000;0.1335;-0.8917;
942.3000;0.1319;-0.9017;
942.6000;0.1311;-0.9093;
942.9000;0.1311;-0.8992;
943.2000;0.1278;-0.8967;
943.5000;0.1311;-0.8942;
943.8000;0.1319;-0.8917;
944.1000;0.1302;-0.8967;
944.4000;0.1319;-0.8892;
944.7000;0.1311;-0.8942;
945.0000;0.1302;-0.8942;
945.3000;0.1286;-0.8791;
945.6000;0.1311;-0.8766;
945.9000;0.1319;-0.8666;
946.2000;0.1311;-0.8716;
946.5000;0.1319;-0.8691;
946.8000;0.1319;-0.8641;
947.1000;0.1319;-0.8716;
947.4000;0.1311;-0.8816;
947.7000;0.1319;-0.8816;
948.0000;0.1311;-0.8892;
948.3000;0.1327;-0.8867;
948.6000;0.1311;-0.8892;
948.9000;0.1311;-0.8841;
949.2000;0.1294;-0.8942;
949.5000;0.1319;-0.8892;
949.8000;0.1351;-0.8816;
950.1000;0.1311;-0.8967;
950.4000;0.1278;-0.9093;
950.7000;0.1286;-0.9042;
951.0000;0.1294;-0.8967;
951.3000;0.1311;-0.8741;
951.6000;0.1327;-0.8741;
951.9000;0.1286;-0.8967;
952.2000;0.1311;-0.9017;
952.5000;0.1311;-0.9068;
952.8000;0.1311;-0.9068;
953.1000;0.1311;-0.9118;
953.4000;0.1311;-0.8967;
953.7000;0.1327;-0.8841;
954.0000;0.1278;-0.8967;
954.3000;0.1302;-0.8867;
954.6000;0.1327;-0.8841;
954.9000;0.1343;-0.8816;
955.2000;0.1335;-0.8766;
955.5000;0.1270;-0.8942;
955.8000;0.1221;-0.8992;
956.1000;0.1294;-0.8766;
956.4000;0.1294;-0.8841;
956.7000;0.1237;-0.8892;
957.0000;0.1368;-0.8540;
957.3000;0.1302;-0.8691;
957.6000;0.1302;-0.8791;
957.9000;0.1359;-0.8666;
958.2000;0.1302;-0.8892;
958.5000;0.1319;-0.8841;
958.8000;0.1335;-0.8766;
959.1000;0.1286;-0.8867;
959.4000;0.1286;-0.8841;
959.7000;0.1311;-0.8841;
960.0000;0.1245;-0.8942;
960.3000;0.1286;-0.8841;
960.6000;0.1327;-0.8867;
960.9000;0.1343;-0.8741;
961.2000;0.1294;-0.8892;
961.5000;0.1319;-0.8791;
961.8000;0.1302;-0.8917;
962.1000;0.1302;-0.8992;
962.4000;0.1327;-0.8841;
962.7000;0.1327;-0.8816;
963.0000;0.1335;-0.8791;
963.3000;0.1294;-0.8791;
963.6000;0.1311;-0.8691;
963.9000;0.1311;-0.8741;
964.2000;0.1311;-0.8716;
964.5000;0.1294;-0.8741;
964.8000;0.1311;-0.8741;
965.1000;0.1302;-0.8741;
965.4000;0.1319;-0.8766;
965.7000;0.1311;-0.8741;
966.0000;0.1311;-0.8716;
966.3000;0.1237;-0.8942;
966.6000;0.1319;-0.8716;
966.9000;0.1311;-0.8666;
967.2000;0.1335;-0.8590;
967.5000;0.1294;-0.8691;
967.8000;0.1319;-0.8641;
968.1000;0.1327;-0.8666;
968.4000;0.1335;-0.8716;
968.7000;0.1302;-0.8841;
969.0000;0.1335;-0.8691;
969.3000;0.1311;-0.8766;
969.6000;0.1302;-0.8892;
969.9000;0.1311;-0.8867;
970.2000;0.1311;-0.8791;
970.5000;0.1376;-0.8615;
970.8000;0.1327;-0.8766;
971.1000;0.1327;-0.8766;
971.4000;0.1254;-0.8917;
971.7000;0.1302;-0.8716;
972.0000;0.1327;-0.8741;
972.3000;0.1327;-0.8867;
972.6000;0.1319;-0.8942;
972.9000;0.1311;-0.8917;
973.2000;0.1237;-0.9118;
973.5000;0.1327;-0.8992;
973.8000;0.1262;-0.9093;
974.1000;0.1319;-0.8917;
974.4000;0.1302;-0.8942;
974.7000;0.1262;-0.9042;
975.0000;0.1368;-0.8741;
975.3000;0.1311;-0.8816;
975.6000;0.1335;-0.8716;
975.9000;0.1286;-0.8791;
976.2000;0.1221;-0.8992;
976.5000;0.1311;-0.8741;
976.8000;0.1327;-0.8716;
977.1000;0.1327;-0.8766;
977.4000;0.1294;-0.8841;
977.7000;0.1294;-0.8867;
978.0000;0.1351;-0.8816;
978.3000;0.1327;-0.8942;
978.6000;0.1351;-0.8841;
978.9000;0.1384;-0.8666;
979.2000;0.1205;-0.9093;
979.5000;0.1188;-0.9243;
979.8000;0.1245;-0.9143;
980.1000;0.1254;-0.9193;
980.4000;0.1294;-0.9143;
980.7000;0.1302;-0.9143;
981.0000;0.1319;-0.9068;
981.3000;0.1335;-0.8942;
981.6000;0.1319;-0.9017;
981.9000;0.1327;-0.8917;
982.2000;0.1302;-0.8892;
982.5000;0.1237;-0.9017;
982.8000;0.1311;-0.8942;
983.1000;0.1311;-0.8992;
983.4000;0.1213;-0.9168;
983.7000;0.1311;-0.8917;
984.0000;0.1368;-0.8841;
984.3000;0.1319;-0.8942;
984.6000;0.1278;-0.9017;
984.9000;0.1376;-0.8841;
985.2000;0.1278;-0.9017;
985.5000;0.1294;-0.8917;
985.8000;0.1319;-0.8867;
986.1000;0.1294;-0.8867;
986.4000;0.1286;-0.8816;
986.7000;0.1327;-0.8791;
987.0000;0.1311;-0.8791;
987.3000;0.1286;-0.8841;
987.6000;0.1327;-0.8841;
987.9000;0.1311;-0.8841;
988.2000;0.1302;-0.8917;
988.5000;0.1294;-0.8992;
988.8000;0.1319;-0.8816;
989.1000;0.1335;-0.8816;
989.4000;0.1262;-0.8942;
989.7000;0.1245;-0.8992;
990.0000;0.1302;-0.8892;
990.3000;0.1343;-0.8841;
990.6000;0.1327;-0.8867;
990.9000;0.1311;-0.8892;
991.2000;0.1311;-0.8841;
991.5000;0.1294;-0.8867;
991.8000;0.1311;-0.8841;
992.1000;0.1327;-0.8791;
992.4000;0.1327;-0.8791;
992.7000;0.1319;-0.8867;
993.0000;0.1319;-0.8892;
993.3000;0.1311;-0.8967;
993.6000;0.1311;-0.8967;
993.9000;0.1327;-0.8841;
994.2000;0.1327;-0.8841;
994.5000;0.1319;-0.8791;
994.8000;0.1311;-0.8816;
995.1000;0.1384;-0.8766;
995.4000;0.1319;-0.8892;
995.7000;0.1270;-0.8992;
996.0000;0.1319;-0.8892;
996.3000;0.1286;-0.8892;
996.6000;0.1286;-0.8841;
996.9000;0.1286;-0.8841;
997.2000;0.1392;-0.8615;
997.5000;0.1311;-0.8816;
997.8000;0.1368;-0.8641;
998.1000;0.1278;-0.8867;
998.4000;0.1311;-0.8841;
998.7000;0.1294;-0.8816;
999.0000;0.1302;-0.8892;
999.3000;0.1311;-0.8942;
999.6000;0.1311;-0.8892;
999.9000;0.1319;-0.8892;
1000.2000;0.1368;-0.8841;
1000.5000;0.1319;-0.8867;
1000.8000;0.1327;-0.8841;
1001.1000;0.1270;-0.9042;
1001.4000;0.1327;-0.8867;
1001.7000;0.1294;-0.8892;
1002.0000;0.1319;-0.8766;
1002.3000;0.1294;-0.8841;
1002.6000;0.1286;-0.8892;
1002.9000;0.1302;-0.8841;
1003.2000;0.1319;-0.8816;
1003.5000;0.1188;-0.9118;
1003.8000;0.1302;-0.8791;
1004.1000;0.1294;-0.8791;
1004.4000;0.1294;-0.8841;
1004.7000;0.1335;-0.8816;
1005.0000;0.1294;-0.8841;
1005.3000;0.1286;-0.8967;
1005.6000;0.1343;-0.8841;
1005.9000;0.1311;-0.8841;
1006.2000;0.1319;-0.8867;
1006.5000;0.1335;-0.8867;
1006.8000;0.1311;-0.8992;
1007.1000;0.1327;-0.9017;
1007.4000;0.1245;-0.9118;
1007.7000;0.1327;-0.8841;
1008.0000;0.1302;-0.8892;
1008.3000;0.1302;-0.8942;
1008.6000;0.1311;-0.8892;
1008.9000;0.1311;-0.8992;
1009.2000;0.1311;-0.9068;
1009.5000;0.1408;-0.8766;
1009.8000;0.1311;-0.8967;
1010.1000;0.1286;-0.8942;
1010.4000;0.1302;-0.8992;
1010.7000;0.1311;-0.8867;
1011.0000;0.1311;-0.8867;
1011.3000;0.1319;-0.8766;
1011.6000;0.1319;-0.8816;
1011.9000;0.1302;-0.8942;
1012.2000;0.1319;-0.8917;
1012.5000;0.1335;-0.8816;
1012.8000;0.1294;-0.8917;
1013.1000;0.1286;-0.8942;
1013.4000;0.1294;-0.8791;
1013.7000;0.1294;-0.8816;
1014.0000;0.1294;-0.8892;
1014.3000;0.1286;-0.8841;
1014.6000;0.1302;-0.8841;
1014.9000;0.1343;-0.8716;
1015.2000;0.1294;-0.8917;
1015.5000;0.1311;-0.8917;
1015.8000;0.1319;-0.8942;
1016.1000;0.1327;-0.8892;
1016.4000;0.1319;-0.8892;
1016.7000;0.1319;-0.8841;
1017.0000;0.1319;-0.8741;
1017.3000;0.1302;-0.8816;
1017.6000;0.1311;-0.8741;
1017.9000;0.1335;-0.8741;
1018.2000;0.1294;-0.8766;
1018.5000;0.1294;-0.8766;
1018.8000;0.1311;-0.8766;
1019.1000;0.1335;-0.8766;
1019.4000;0.1294;-0.8791;
1019.7000;0.1286;-0.8816;
1020.0000;0.1302;-0.8791;
1020.3000;0.1302;-0.8741;
1020.6000;0.1302;-0.8766;
1020.9000;0.1327;-0.8716;
1021.2000;0.1319;-0.8791;
1021.5000;0.1286;-0.8867;
1021.8000;0.1302;-0.8791;
1022.1000;0.1302;-0.8816;
1022.4000;0.1311;-0.8741;
1022.7000;0.1302;-0.8691;
1023.0000;0.1286;-0.8766;
1023.3000;0.1311;-0.8791;
1023.6000;0.1319;-0.8741;
1023.9000;0.1302;-0.8791;
1024.2000;0.1294;-0.8841;
1024.5000;0.1311;-0.8816;
1024.8000;0.1302;-0.8892;
1025.1000;0.1302;-0.8917;
1025.4000;0.1278;-0.8942;
1025.7000;0.1278;-0.8892;
1026.0000;0.1311;-0.8841;
1026.3000;0.1294;-0.8942;
1026.6000;0.1311;-0.8892;
1026.9000;0.1311;-0.8816;
1027.2000;0.1311;-0.8791;
1027.5000;0.1311;-0.8766;
1027.8000;0.1343;-0.8741;
1028.1000;0.1311;-0.8816;
1028.4000;0.1351;-0.8791;
1028.7000;0.1294;-0.9068;
1029.0000;0.1311;-0.8942;
1029.3000;0.1311;-0.8917;
1029.6000;0.1311;-0.8967;
1029.9000;0.1311;-0.8942;
1030.2000;0.1311;-0.8967;
1030.5000;0.1359;-0.8867;
1030.8000;0.1319;-0.8967;
1031.1000;0.1327;-0.8892;
1031.4000;0.1319;-0.8917;
1031.7000;0.1278;-0.9042;
1032.0000;0.1294;-0.9017;
1032.3000;0.1319;-0.8942;
1032.6000;0.1311;-0.8867;
1032.9000;0.1319;-0.8791;
1033.2000;0.1319;-0.8816;
1033.5000;0.1302;-0.8766;
1033.8000;0.1286;-0.8791;
1034.1000;0.1286;-0.8816;
1034.4000;0.1311;-0.8867;
1034.7000;0.1254;-0.9093;
1035.0000;0.1294;-0.9068;
1035.3000;0.1311;-0.9017;
1035.6000;0.1302;-0.9042;
1035.9000;0.1294;-0.8917;
1036.2000;0.1278;-0.8992;
1036.5000;0.1327;-0.8967;
1036.8000;0.1245;-0.9068;
1037.1000;0.1302;-0.8917;
1037.4000;0.1294;-0.8917;
1037.7000;0.1319;-0.8841;
1038.0000;0.1327;-0.8816;
1038.3000;0.1335;-0.8791;
1038.6000;0.1286;-0.8992;
1038.9000;0.1302;-0.8967;
1039.2000;0.1302;-0.8917;
1039.5000;0.1302;-0.8942;
1039.8000;0.1327;-0.8892;
1040.1000;0.1311;-0.8892;
1040.4000;0.1302;-0.8942;
1040.7000;0.1294;-0.9042;
1041.0000;0.1294;-0.9068;
1041.3000;0.1319;-0.9068;
1041.6000;0.1311;-0.9068;
1041.9000;0.1319;-0.9068;
1042.2000;0.1327;-0.9017;
1042.5000;0.1302;-0.9093;
1042.8000;0.1311;-0.9093;
1043.1000;0.1311;-0.9118;
1043.4000;0.1294;-0.9143;
1043.7000;0.1311;-0.9093;
1044.0000;0.1319;-0.8992;
1044.3000;0.1311;-0.8992;
1044.6000;0.1311;-0.8992;
1044.9000;0.1278;-0.9143;
1045.2000;0.1311;-0.9118;
1045.5000;0.1335;-0.9042;
1045.8000;0.1286;-0.9118;
1046.1000;0.1319;-0.8992;
1046.4000;0.1319;-0.9017;
1046.7000;0.1302;-0.9068;
1047.0000;0.1302;-0.9042;
1047.3000;0.1319;-0.9093;
1047.6000;0.1302;-0.9143;
1047.9000;0.1319;-0.9042;
1048.2000;0.1311;-0.9017;
1048.5000;0.1311;-0.8992;
1048.8000;0.1327;-0.8917;
1049.1000;0.1311;-0.8967;
1049.4000;0.1286;-0.8992;
1049.7000;0.1311;-0.8892;
1050.0000;0.1254;-0.8967;
1050.3000;0.1302;-0.8841;
1050.6000;0.1319;-0.8841;
1050.9000;0.1319;-0.8992;
1051.2000;0.1311;-0.8992;
1051.5000;0.1343;-0.8942;
1051.8000;0.1311;-0.9017;
1052.1000;0.1351;-0.8967;
1052.4000;0.1343;-0.8867;
1052.7000;0.1311;-0.8892;
1053.0000;0.1278;-0.8917;
1053.3000;0.1311;-0.8892;
1053.6000;0.1278;-0.8867;
1053.9000;0.1245;-0.8967;
1054.2000;0.1286;-0.8841;
1054.5000;0.1302;-0.8892;
1054.8000;0.1278;-0.8816;
1055.1000;0.1302;-0.8867;
1055.4000;0.1294;-0.8791;
1055.7000;0.1213;-0.9093;
1056.0000;0.1286;-0.8892;
1056.3000;0.1294;-0.8892;
1056.6000;0.1302;-0.8867;
1056.9000;0.1302;-0.8917;
1057.2000;0.1294;-0.8942;
1057.5000;0.1302;-0.8967;
1057.8000;0.1311;-0.8892;
1058.1000;0.1319;-0.8867;
1058.4000;0.1286;-0.8841;
1058.7000;0.1286;-0.8892;
1059.0000;0.1302;-0.8942;
1059.3000;0.1302;-0.8967;
1059.6000;0.1311;-0.8917;
1059.9000;0.1302;-0.8841;
1060.2000;0.1311;-0.8841;
1060.5000;0.1302;-0.8867;
1060.8000;0.1302;-0.8867;
1061.1000;0.1262;-0.9042;
1061.4000;0.1302;-0.8841;
1061.7000;0.1368;-0.8691;
1062.0000;0.1319;-0.8741;
1062.3000;0.1294;-0.8766;
1062.6000;0.1319;-0.8766;
1062.9000;0.1311;-0.8741;
1063.2000;0.1294;-0.8741;
1063.5000;0.1278;-0.8841;
1063.8000;0.1302;-0.8791;
1064.1000;0.1278;-0.8791;
1064.4000;0.1311;-0.8816;
1064.7000;0.1327;-0.8841;
1065.0000;0.1294;-0.8867;
1065.3000;0.1278;-0.8791;
1065.6000;0.1311;-0.8766;
1065.9000;0.1245;-0.8992;
1066.2000;0.1294;-0.8867;
1066.5000;0.1319;-0.8766;
1066.8000;0.1286;-0.8791;
1067.1000;0.1327;-0.8816;
1067.4000;0.1311;-0.8766;
1067.7000;0.1343;-0.8741;
1068.0000;0.1327;-0.8716;
1068.3000;0.1311;-0.8716;
1068.6000;0.1286;-0.8791;
1068.9000;0.1311;-0.8816;
1069.2000;0.1319;-0.8816;
1069.5000;0.1302;-0.8791;
1069.8000;0.1254;-0.8967;
1070.1000;0.1302;-0.8967;
1070.4000;0.1294;-0.8992;
1070.7000;0.1319;-0.8867;
1071.0000;0.1319;-0.8841;
1071.3000;0.1294;-0.8816;
1071.6000;0.1286;-0.8741;
1071.9000;0.1270;-0.8942;
1072.2000;0.1294;-0.8867;
1072.5000;0.1286;-0.8942;
1072.8000;0.1270;-0.8942;
1073.1000;0.1311;-0.8841;
1073.4000;0.1270;-0.8967;
1073.7000;0.1294;-0.8967;
1074.0000;0.1311;-0.8967;
1074.3000;0.1408;-0.8766;
1074.6000;0.1302;-0.9042;
1074.9000;0.1294;-0.9118;
1075.2000;0.1302;-0.9118;
1075.5000;0.1311;-0.9017;
1075.8000;0.1311;-0.8967;
1076.1000;0.1311;-0.9017;
1076.4000;0.1286;-0.9042;
1076.7000;0.1294;-0.9042;
1077.0000;0.1319;-0.9068;
1077.3000;0.1302;-0.8992;
1077.6000;0.1311;-0.8917;
1077.9000;0.1302;-0.8992;
1078.2000;0.1294;-0.9017;
1078.5000;0.1311;-0.8867;
1078.8000;0.1302;-0.8917;
1079.1000;0.1302;-0.8841;
1079.4000;0.1302;-0.8917;
1079.7000;0.1286;-0.9042;
1080.0000;0.1302;-0.8942;
1080.3000;0.1294;-0.8841;
1080.6000;0.1311;-0.8791;
1080.9000;0.1335;-0.8766;
1081.2000;0.1311;-0.8791;
1081.5000;0.1286;-0.8892;
1081.8000;0.1302;-0.8791;
1082.1000;0.1302;-0.8766;
1082.4000;0.1311;-0.8741;
1082.7000;0.1294;-0.8791;
1083.0000;0.1302;-0.8917;
1083.3000;0.1319;-0.8892;
1083.6000;0.1302;-0.8992;
1083.9000;0.1294;-0.9093;
1084.2000;0.1311;-0.8992;
1084.5000;0.1302;-0.9017;
1084.8000;0.1384;-0.8892;
1085.1000;0.1319;-0.9042;
1085.4000;0.1302;-0.9068;
1085.7000;0.1294;-0.9017;
1086.0000;0.1302;-0.8992;
1086.3000;0.1302;-0.8917;
1086.6000;0.1302;-0.8992;
1086.9000;0.1351;-0.8917;
1087.2000;0.1278;-0.9042;
1087.5000;0.1294;-0.9042;
1087.8000;0.1302;-0.8992;
1088.1000;0.1294;-0.8942;
1088.4000;0.1311;-0.8942;
1088.7000;0.1319;-0.8892;
1089.0000;0.1286;-0.9017;
1089.3000;0.1270;-0.9143;
1089.6000;0.1302;-0.8917;
1089.9000;0.1311;-0.8917;
1090.2000;0.1311;-0.8967;
1090.5000;0.1270;-0.9068;
1090.8000;0.1327;-0.8942;
1091.1000;0.1319;-0.8992;
1091.4000;0.1302;-0.9042;
1091.7000;0.1302;-0.8942;
1092.0000;0.1294;-0.8942;
1092.3000;0.1327;-0.8892;
1092.6000;0.1319;-0.8892;
1092.9000;0.1311;-0.8841;
1093.2000;0.1294;-0.8892;
1093.5000;0.1416;-0.8590;
1093.8000;0.1302;-0.8892;
1094.1000;0.1286;-0.8942;
1094.4000;0.1294;-0.8841;
1094.7000;0.1294;-0.8867;
1095.0000;0.1262;-0.8841;
1095.3000;0.1294;-0.8741;
1095.6000;0.1286;-0.8841;
1095.9000;0.1302;-0.8816;
1096.2000;0.1302;-0.8942;
1096.5000;0.1311;-0.8816;
1096.8000;0.1311;-0.8892;
1097.1000;0.1286;-0.8917;
1097.4000;0.1319;-0.8816;
1097.7000;0.1311;-0.8867;
1098.0000;0.1335;-0.8766;
1098.3000;0.1335;-0.8791;
1098.6000;0.1302;-0.8867;
1098.9000;0.1319;-0.8716;
1099.2000;0.1286;-0.8841;
1099.5000;0.1327;-0.8841;
1099.8000;0.1335;-0.8766;
1100.1000;0.1319;-0.8791;
1100.4000;0.1302;-0.8917;
1100.7000;0.1302;-0.8791;
1101.0000;0.1311;-0.8666;
1101.3000;0.1319;-0.8741;
1101.6000;0.1327;-0.8716;
1101.9000;0.1311;-0.8867;
1102.2000;0.1311;-0.8917;
1102.5000;0.1302;-0.9017;
1102.8000;0.1319;-0.9017;
1103.1000;0.1311;-0.9068;
1103.4000;0.1319;-0.8967;
1103.7000;0.1327;-0.8892;
1104.0000;0.1311;-0.8892;
1104.3000;0.1335;-0.8841;
1104.6000;0.1311;-0.8892;
1104.9000;0.1319;-0.8892;
1105.2000;0.1343;-0.8766;
1105.5000;0.1311;-0.8741;
1105.8000;0.1294;-0.8816;
1106.1000;0.1343;-0.8615;
1106.4000;0.1286;-0.8716;
1106.7000;0.1311;-0.8641;
1107.0000;0.1286;-0.8716;
1107.3000;0.1343;-0.8615;
1107.6000;0.1327;-0.8666;
1107.9000;0.1335;-0.8641;
1108.2000;0.1327;-0.8565;
1108.5000;0.1311;-0.8666;
1108.8000;0.1327;-0.8691;
1109.1000;0.1335;-0.8716;
1109.4000;0.1302;-0.8867;
1109.7000;0.1319;-0.8867;
1110.0000;0.1311;-0.8691;
1110.3000;0.1311;-0.8641;
1110.6000;0.1311;-0.8691;
1110.9000;0.1294;-0.8791;
1111.2000;0.1376;-0.8565;
1111.5000;0.1311;-0.8791;
1111.8000;0.1319;-0.8691;
1112.1000;0.1302;-0.8741;
1112.4000;0.1311;-0.8816;
1112.7000;0.1335;-0.8666;
1113.0000;0.1311;-0.8741;
1113.3000;0.1294;-0.8791;
1113.6000;0.1302;-0.8766;
1113.9000;0.1319;-0.8791;
1114.2000;0.1311;-0.8816;
1114.5000;0.1319;-0.8766;
1114.8000;0.1368;-0.8641;
1115.1000;0.1294;-0.8766;
1115.4000;0.1359;-0.8565;
1115.7000;0.1302;-0.8741;
1116.0000;0.1311;-0.8716;
1116.3000;0.1286;-0.8791;
1116.6000;0.1319;-0.8691;
1116.9000;0.1286;-0.8791;
1117.2000;0.1311;-0.8816;
1117.5000;0.1311;-0.8791;
1117.8000;0.1311;-0.8741;
1118.1000;0.1311;-0.8766;
1118.4000;0.1286;-0.8791;
1118.7000;0.1327;-0.8791;
1119.0000;0.1319;-0.8841;
1119.3000;0.1294;-0.8992;
1119.6000;0.1270;-0.8967;
1119.9000;0.1311;-0.8791;
1120.2000;0.1294;-0.8791;
1120.5000;0.1302;-0.8741;
1120.8000;0.1311;-0.8691;
1121.1000;0.1311;-0.8766;
1121.4000;0.1302;-0.8691;
1121.7000;0.1294;-0.8615;
1122.0000;0.1376;-0.8414;
1122.3000;0.1270;-0.8666;
1122.6000;0.1302;-0.8615;
1122.9000;0.1302;-0.8716;
1123.2000;0.1343;-0.8691;
1123.5000;0.1311;-0.8816;
1123.8000;0.1335;-0.8841;
1124.1000;0.1302;-0.8841;
1124.4000;0.1319;-0.8741;
1124.7000;0.1343;-0.8716;
1125.0000;0.1319;-0.8741;
1125.3000;0.1319;-0.8766;
1125.6000;0.1319;-0.8791;
1125.9000;0.1294;-0.8841;
1126.2000;0.1302;-0.8867;
1126.5000;0.1327;-0.8867;
1126.8000;0.1302;-0.8942;
1127.1000;0.1270;-0.9093;
1127.4000;0.1294;-0.9118;
1127.7000;0.1294;-0.8992;
1128.0000;0.1311;-0.8867;
1128.3000;0.1327;-0.8867;
1128.6000;0.1205;-0.9218;
1128.9000;0.1294;-0.8917;
1129.2000;0.1302;-0.8942;
1129.5000;0.1319;-0.8992;
1129.8000;0.1286;-0.9042;
1130.1000;0.1335;-0.8841;
1130.4000;0.1254;-0.8942;
1130.7000;0.1302;-0.8892;
1131.0000;0.1262;-0.8942;
1131.3000;0.1286;-0.8892;
1131.6000;0.1319;-0.8892;
1131.9000;0.1302;-0.8942;
1132.2000;0.1286;-0.9017;
1132.5000;0.1368;-0.8867;
1132.8000;0.1302;-0.9068;
1133.1000;0.1294;-0.9017;
1133.4000;0.1286;-0.9168;
1133.7000;0.1302;-0.9218;
1134.0000;0.1319;-0.9218;
1134.3000;0.1335;-0.9068;
1134.6000;0.1311;-0.9143;
1134.9000;0.1311;-0.9143;
1135.2000;0.1359;-0.8867;
1135.5000;0.1311;-0.8967;
1135.8000;0.1311;-0.8967;
1136.1000;0.1327;-0.8892;
1136.4000;0.1311;-0.8967;
1136.7000;0.1311;-0.8992;
1137.0000;0.1319;-0.8942;
1137.3000;0.1327;-0.8867;
1137.6000;0.1311;-0.8867;
1137.9000;0.1392;-0.8590;
1138.2000;0.1335;-0.8766;
1138.5000;0.1319;-0.8841;
1138.8000;0.1384;-0.8741;
1139.1000;0.1286;-0.8917;
1139.4000;0.1302;-0.8716;
1139.7000;0.1351;-0.8691;
1140.0000;0.1286;-0.8766;
1140.3000;0.1311;-0.8716;
1140.6000;0.1311;-0.8791;
1140.9000;0.1262;-0.8867;
1141.2000;0.1311;-0.8791;
1141.5000;0.1302;-0.8841;
1141.8000;0.1311;-0.8816;
1142.1000;0.1311;-0.8816;
1142.4000;0.1302;-0.8816;
1142.7000;0.1335;-0.8816;
1143.0000;0.1270;-0.8992;
1143.3000;0.1335;-0.8841;
1143.6000;0.1319;-0.8917;
1143.9000;0.1327;-0.8867;
1144.2000;0.1302;-0.8942;
1144.5000;0.1311;-0.8816;
1144.8000;0.1270;-0.8942;
1145.1000;0.1343;-0.8816;
1145.4000;0.1327;-0.8841;
1145.7000;0.1327;-0.8917;
1146.0000;0.1327;-0.8892;
1146.3000;0.1302;-0.8892;
1146.6000;0.1302;-0.8867;
1146.9000;0.1311;-0.8892;
1147.2000;0.1351;-0.8791;
1147.5000;0.1319;-0.8841;
1147.8000;0.1319;-0.8841;
1148.1000;0.1302;-0.8841;
1148.4000;0.1294;-0.8892;
1148.7000;0.1302;-0.8766;
1149.0000;0.1319;-0.8741;
1149.3000;0.1335;-0.8691;
1149.6000;0.1319;-0.8716;
1149.9000;0.1302;-0.8741;
1150.2000;0.1286;-0.8867;
1150.5000;0.1319;-0.8741;
1150.8000;0.1311;-0.8766;
1151.1000;0.1286;-0.8841;
1151.4000;0.1311;-0.8741;
1151.7000;0.1302;-0.8741;
1152.0000;0.1302;-0.8766;
1152.3000;0.1368;-0.8641;
1152.6000;0.1319;-0.8741;
1152.9000;0.1311;-0.8741;
1153.2000;0.1278;-0.8816;
1153.5000;0.1327;-0.8766;
1153.8000;0.1327;-0.8791;
1154.1000;0.1286;-0.8867;
1154.4000;0.1311;-0.8766;
1154.7000;0.1319;-0.8741;
1155.0000;0.1294;-0.8766;
1155.3000;0.1343;-0.8666;
1155.6000;0.1245;-0.8892;
1155.9000;0.1286;-0.8741;
1156.2000;0.1302;-0.8716;
1156.5000;0.1311;-0.8741;
1156.8000;0.1302;-0.8791;
1157.1000;0.1319;-0.8791;
1157.4000;0.1302;-0.8892;
1157.7000;0.1302;-0.8967;
1158.0000;0.1319;-0.9118;
1158.3000;0.1311;-0.9093;
1158.6000;0.1319;-0.9118;
1158.9000;0.1294;-0.9093;
1159.2000;0.1335;-0.9017;
1159.5000;0.1311;-0.9042;
1159.8000;0.1327;-0.8892;
1160.1000;0.1302;-0.8917;
1160.4000;0.1311;-0.8942;
1160.7000;0.1302;-0.8942;
1161.0000;0.1327;-0.8917;
1161.3000;0.1286;-0.8892;
1161.6000;0.1319;-0.8791;
1161.9000;0.1302;-0.8867;
1162.2000;0.1311;-0.8967;
1162.5000;0.1327;-0.8942;
1162.8000;0.1294;-0.9042;
1163.1000;0.1302;-0.8992;
1163.4000;0.1319;-0.8892;
1163.7000;0.1327;-0.8892;
1164.0000;0.1302;-0.8992;
1164.3000;0.1294;-0.8917;
1164.6000;0.1319;-0.8917;
1164.9000;0.1408;-0.8716;
1165.2000;0.1343;-0.8892;
1165.5000;0.1302;-0.8917;
1165.8000;0.1319;-0.8892;
1166.1000;0.1335;-0.8867;
1166.4000;0.1302;-0.8867;
1166.7000;0.1294;-0.8967;
1167.0000;0.1237;-0.9143;
1167.3000;0.1294;-0.9068;
1167.6000;0.1294;-0.9168;
1167.9000;0.1302;-0.9168;
1168.2000;0.1302;-0.9118;
1168.5000;0.1311;-0.9042;
1168.8000;0.1311;-0.9093;
1169.1000;0.1270;-0.9068;
1169.4000;0.1311;-0.9118;
1169.7000;0.1319;-0.9068;
1170.0000;0.1302;-0.8967;
1170.3000;0.1311;-0.8892;
1170.6000;0.1311;-0.8992;
1170.9000;0.1319;-0.8942;
1171.2000;0.1302;-0.8967;
1171.5000;0.1294;-0.8992;
1171.8000;0.1311;-0.9068;
1172.1000;0.1311;-0.9068;
1172.4000;0.1327;-0.8992;
1172.7000;0.1319;-0.9042;
1173.0000;0.1311;-0.8992;
1173.3000;0.1319;-0.8992;
1173.6000;0.1311;-0.9068;
1173.9000;0.1335;-0.9017;
1174.2000;0.1327;-0.9042;
1174.5000;0.1286;-0.9168;
1174.8000;0.1311;-0.9042;
1175.1000;0.1327;-0.8967;
1175.4000;0.1351;-0.8967;
1175.7000;0.1311;-0.9042;
1176.0000;0.1319;-0.8892;
1176.3000;0.1311;-0.8791;
1176.6000;0.1294;-0.8816;
1176.9000;0.1343;-0.8691;
1177.2000;0.1294;-0.8791;
1177.5000;0.1327;-0.8816;
1177.8000;0.1302;-0.8867;
1178.1000;0.1302;-0.8967;
1178.4000;0.1262;-0.9042;
1178.7000;0.1327;-0.8917;
1179.0000;0.1319;-0.8917;
1179.3000;0.1319;-0.8942;
1179.6000;0.1278;-0.8967;
1179.9000;0.1319;-0.8841;
1180.2000;0.1311;-0.8917;
1180.5000;0.1311;-0.8917;
1180.8000;0.1302;-0.8917;
1181.1000;0.1311;-0.8816;
1181.4000;0.1335;-0.8816;
1181.7000;0.1311;-0.8992;
1182.0000;0.1319;-0.9042;
1182.3000;0.1286;-0.9218;
1182.6000;0.1311;-0.9193;
1182.9000;0.1311;-0.9243;
1183.2000;0.1335;-0.9118;
1183.5000;0.1302;-0.9118;
1183.8000;0.1327;-0.9093;
1184.1000;0.1327;-0.9118;
1184.4000;0.1294;-0.9168;
1184.7000;0.1327;-0.9017;
1185.0000;0.1302;-0.9042;
1185.3000;0.1237;-0.9243;
1185.6000;0.1302;-0.9168;
1185.9000;0.1270;-0.9243;
1186.2000;0.1286;-0.9168;
1186.5000;0.1302;-0.9017;
1186.8000;0.1262;-0.9093;
1187.1000;0.1302;-0.9017;
1187.4000;0.1311;-0.9093;
1187.7000;0.1311;-0.9143;
1188.0000;0.1319;-0.9118;
1188.3000;0.1302;-0.9168;
1188.6000;0.1311;-0.9068;
1188.9000;0.1433;-0.8741;
1189.2000;0.1294;-0.9042;
1189.5000;0.1294;-0.9017;
1189.8000;0.1311;-0.8992;
1190.1000;0.1311;-0.8967;
1190.4000;0.1311;-0.8942;
1190.7000;0.1327;-0.8942;
1191.0000;0.1311;-0.8942;
1191.3000;0.1319;-0.8841;
1191.6000;0.1270;-0.8992;
1191.9000;0.1335;-0.8917;
1192.2000;0.1270;-0.8967;
1192.5000;0.1302;-0.8892;
1192.8000;0.1319;-0.8942;
1193.1000;0.1359;-0.8841;
1193.4000;0.1311;-0.8867;
1193.7000;0.1311;-0.8867;
1194.0000;0.1237;-0.9017;
1194.3000;0.1319;-0.8791;
1194.6000;0.1302;-0.8892;
1194.9000;0.1302;-0.8867;
1195.2000;0.1294;-0.8841;
1195.5000;0.1351;-0.8766;
1195.8000;0.1286;-0.8867;
1196.1000;0.1294;-0.8917;
1196.4000;0.1302;-0.8967;
1196.7000;0.1319;-0.8892;
1197.0000;0.1319;-0.8917;
1197.3000;0.1351;-0.8741;
1197.6000;0.1335;-0.8816;
1197.9000;0.1327;-0.8816;
1198.2000;0.1368;-0.8716;
1198.5000;0.1311;-0.8942;
1198.8000;0.1327;-0.9042;
1199.1000;0.1311;-0.9017;
1199.4000;0.1319;-0.9017;
1199.7000;0.1311;-0.8992;
1200.0000;0.1343;-0.8992;
1200.3000;0.1311;-0.9118;
1200.6000;0.1319;-0.9068;
1200.9000;0.1286;-0.9093;
1201.2000;0.1229;-0.9193;
1201.5000;0.1302;-0.8967;
1201.8000;0.1311;-0.9017;
1202.1000;0.1302;-0.8992;
1202.4000;0.1302;-0.8892;
1202.7000;0.1327;-0.8791;
1203.0000;0.1319;-0.8741;
1203.3000;0.1229;-0.8816;
1203.6000;0.1302;-0.8641;
1203.9000;0.1302;-0.8791;
1204.2000;0.1319;-0.8766;
1204.5000;0.1327;-0.8791;
1204.8000;0.1286;-0.8841;
1205.1000;0.1311;-0.8766;
1205.4000;0.1311;-0.8816;
1205.7000;0.1311;-0.8867;
1206.0000;0.1286;-0.8917;
1206.3000;0.1286;-0.8967;
1206.6000;0.1319;-0.8841;
1206.9000;0.1327;-0.8892;
1207.2000;0.1294;-0.8942;
1207.5000;0.1286;-0.8992;
1207.8000;0.1302;-0.9017;
1208.1000;0.1327;-0.8867;
1208.4000;0.1319;-0.8892;
1208.7000;0.1327;-0.8942;
1209.0000;0.1319;-0.8967;
1209.3000;0.1294;-0.9068;
1209.6000;0.1319;-0.8942;
1209.9000;0.1311;-0.9017;
1210.2000;0.1302;-0.8942;
1210.5000;0.1327;-0.8816;
1210.8000;0.1327;-0.8892;
1211.1000;0.1302;-0.8967;
1211.4000;0.1319;-0.9017;
1211.7000;0.1302;-0.8967;
1212.0000;0.1294;-0.9068;
1212.3000;0.1294;-0.9042;
1212.6000;0.1311;-0.8967;
1212.9000;0.1254;-0.9068;
1213.2000;0.1327;-0.8841;
1213.5000;0.1254;-0.8942;
1213.8000;0.1286;-0.8841;
1214.1000;0.1302;-0.8741;
1214.4000;0.1302;-0.8741;
1214.7000;0.1327;-0.8741;
1215.0000;0.1294;-0.8867;
1215.3000;0.1319;-0.8942;
1215.6000;0.1319;-0.8867;
1215.9000;0.1302;-0.8917;
1216.2000;0.1311;-0.9017;
1216.5000;0.1278;-0.9068;
1216.8000;0.1302;-0.9093;
1217.1000;0.1319;-0.9068;
1217.4000;0.1311;-0.9042;
1217.7000;0.1302;-0.8967;
1218.0000;0.1294;-0.8942;
1218.3000;0.1302;-0.8942;
1218.6000;0.1319;-0.9017;
1218.9000;0.1327;-0.8967;
1219.2000;0.1311;-0.8967;
1219.5000;0.1335;-0.8892;
1219.8000;0.1319;-0.8967;
1220.1000;0.1327;-0.8992;
1220.4000;0.1311;-0.9068;
1220.7000;0.1327;-0.9017;
1221.0000;0.1319;-0.8967;
1221.3000;0.1302;-0.8992;
1221.6000;0.1311;-0.9093;
1221.9000;0.1302;-0.9068;
1222.2000;0.1368;-0.8942;
1222.5000;0.1294;-0.9143;
1222.8000;0.1302;-0.9042;
1223.1000;0.1327;-0.8967;
1223.4000;0.1327;-0.8992;
1223.7000;0.1302;-0.9118;
1224.0000;0.1327;-0.8992;
1224.3000;0.1327;-0.8917;
1224.6000;0.1302;-0.8917;
1224.9000;0.1302;-0.8967;
1225.2000;0.1270;-0.8942;
1225.5000;0.1278;-0.8867;
1225.8000;0.1319;-0.8766;
1226.1000;0.1384;-0.8666;
1226.4000;0.1302;-0.8816;
1226.7000;0.1302;-0.8841;
1227.0000;0.1319;-0.8791;
1227.3000;0.1319;-0.8766;
1227.6000;0.1302;-0.8841;
1227.9000;0.1262;-0.9017;
1228.2000;0.1311;-0.8942;
1228.5000;0.1319;-0.8942;
1228.8000;0.1302;-0.9042;
1229.1000;0.1302;-0.8992;
1229.4000;0.1294;-0.9042;
1229.7000;0.1319;-0.9042;
1230.0000;0.1327;-0.9017;
1230.3000;0.1302;-0.9017;
1230.6000;0.1311;-0.9017;
1230.9000;0.1327;-0.9017;
1231.2000;0.1311;-0.9068;
1231.5000;0.1311;-0.9093;
1231.8000;0.1319;-0.9143;
1232.1000;0.1319;-0.9093;
1232.4000;0.1319;-0.9143;
1232.7000;0.1294;-0.9118;
1233.0000;0.1335;-0.8917;
1233.3000;0.1319;-0.8942;
1233.6000;0.1335;-0.8942;
1233.9000;0.1286;-0.9093;
1234.2000;0.1294;-0.9168;
1234.5000;0.1327;-0.9118;
1234.8000;0.1327;-0.9068;
1235.1000;0.1286;-0.9193;
1235.4000;0.1311;-0.9143;
1235.7000;0.1319;-0.9068;
1236.0000;0.1319;-0.9042;
1236.3000;0.1343;-0.9068;
1236.6000;0.1302;-0.9168;
1236.9000;0.1302;-0.9068;
1237.2000;0.1319;-0.8992;
1237.5000;0.1302;-0.9042;
1237.8000;0.1319;-0.9017;
1238.1000;0.1294;-0.9068;
1238.4000;0.1302;-0.9068;
1238.7000;0.1319;-0.9017;
1239.0000;0.1302;-0.9068;
1239.3000;0.1311;-0.9042;
1239.6000;0.1335;-0.8967;
1239.9000;0.1343;-0.8917;
1240.2000;0.1327;-0.9017;
1240.5000;0.1319;-0.8992;
1240.8000;0.1319;-0.8892;
1241.1000;0.1351;-0.8867;
1241.4000;0.1286;-0.9118;
1241.7000;0.1294;-0.9118;
1242.0000;0.1327;-0.9017;
1242.3000;0.1311;-0.9017;
1242.6000;0.1302;-0.9017;
1242.9000;0.1335;-0.8917;
1243.2000;0.1278;-0.8992;
1243.5000;0.1286;-0.8917;
1243.8000;0.1302;-0.8841;
1244.1000;0.1302;-0.8816;
1244.4000;0.1245;-0.8867;
1244.7000;0.1368;-0.8641;
1245.0000;0.1286;-0.8841;
1245.3000;0.1319;-0.8766;
1245.6000;0.1294;-0.8766;
1245.9000;0.1302;-0.8816;
1246.2000;0.1294;-0.8841;
1246.5000;0.1311;-0.8892;
1246.8000;0.1302;-0.8892;
1247.1000;0.1319;-0.8816;
1247.4000;0.1384;-0.8590;
1247.7000;0.1319;-0.8691;
1248.0000;0.1262;-0.8867;
1248.3000;0.1302;-0.8716;
1248.6000;0.1327;-0.8666;
1248.9000;0.1311;-0.8691;
1249.2000;0.1408;-0.8440;
1249.5000;0.1311;-0.8691;
1249.8000;0.1319;-0.8666;
1250.1000;0.1294;-0.8741;
1250.4000;0.1302;-0.8766;
1250.7000;0.1302;-0.8816;
1251.0000;0.1319;-0.8716;
1251.3000;0.1294;-0.8766;
1251.6000;0.1302;-0.8841;
1251.9000;0.1294;-0.8841;
1252.2000;0.1302;-0.8892;
1252.5000;0.1319;-0.8917;
1252.8000;0.1319;-0.8967;
1253.1000;0.1319;-0.8992;
1253.4000;0.1311;-0.9017;
1253.7000;0.1270;-0.9168;
1254.0000;0.1327;-0.9068;
1254.3000;0.1311;-0.9017;
1254.6000;0.1319;-0.8892;
1254.9000;0.1327;-0.8867;
1255.2000;0.1327;-0.8791;
1255.5000;0.1319;-0.8942;
1255.8000;0.1343;-0.8791;
1256.1000;0.1311;-0.8766;
1256.4000;0.1302;-0.8766;
1256.7000;0.1302;-0.8791;
1257.0000;0.1302;-0.8766;
1257.3000;0.1319;-0.8716;
1257.6000;0.1343;-0.8691;
1257.9000;0.1302;-0.8741;
1258.2000;0.1335;-0.8590;
1258.5000;0.1302;-0.8641;
1258.8000;0.1335;-0.8590;
1259.1000;0.1327;-0.8666;
1259.4000;0.1294;-0.8691;
1259.7000;0.1294;-0.8641;
1260.0000;0.1327;-0.8565;
1260.3000;0.1294;-0.8766;
1260.6000;0.1343;-0.8741;
1260.9000;0.1254;-0.8867;
1261.2000;0.1294;-0.8741;
1261.5000;0.1286;-0.8766;
1261.8000;0.1343;-0.8666;
1262.1000;0.1286;-0.8816;
1262.4000;0.1319;-0.8791;
1262.7000;0.1335;-0.8791;
1263.0000;0.1311;-0.8841;
1263.3000;0.1294;-0.8816;
1263.6000;0.1286;-0.8841;
1263.9000;0.1286;-0.8716;
1264.2000;0.1319;-0.8641;
1264.5000;0.1343;-0.8615;
1264.8000;0.1311;-0.8716;
1265.1000;0.1311;-0.8766;
1265.4000;0.1335;-0.8766;
1265.7000;0.1302;-0.8816;
1266.0000;0.1302;-0.8766;
1266.3000;0.1294;-0.8867;
1266.6000;0.1335;-0.8816;
1266.9000;0.1302;-0.8816;
1267.2000;0.1302;-0.8766;
1267.5000;0.1319;-0.8741;
1267.8000;0.1294;-0.8716;
1268.1000;0.1319;-0.8615;
1268.4000;0.1368;-0.8515;
1268.7000;0.1311;-0.8766;
1269.0000;0.1319;-0.8741;
1269.3000;0.1262;-0.8816;
1269.6000;0.1302;-0.8741;
1269.9000;0.1319;-0.8741;
1270.2000;0.1319;-0.8741;
1270.5000;0.1311;-0.8691;
1270.8000;0.1311;-0.8716;
1271.1000;0.1319;-0.8841;
1271.4000;0.1302;-0.8942;
1271.7000;0.1319;-0.8841;
1272.0000;0.1311;-0.8766;
1272.3000;0.1311;-0.8716;
1272.6000;0.1311;-0.8741;
1272.9000;0.1302;-0.8766;
1273.2000;0.1286;-0.8816;
1273.5000;0.1302;-0.8841;
1273.8000;0.1311;-0.8841;
1274.1000;0.1294;-0.8841;
1274.4000;0.1294;-0.8892;
1274.7000;0.1319;-0.8791;
1275.0000;0.1311;-0.8766;
1275.3000;0.1311;-0.8766;
1275.6000;0.1302;-0.8816;
1275.9000;0.1311;-0.8766;
1276.2000;0.1294;-0.8766;
1276.5000;0.1302;-0.8816;
1276.8000;0.1319;-0.8741;
1277.1000;0.1327;-0.8766;
1277.4000;0.1319;-0.8791;
1277.7000;0.1311;-0.8841;
1278.0000;0.1343;-0.8867;
1278.3000;0.1343;-0.8841;
1278.6000;0.1302;-0.8942;
1278.9000;0.1311;-0.8942;
1279.2000;0.1294;-0.9042;
1279.5000;0.1400;-0.8942;
1279.8000;0.1319;-0.9168;
1280.1000;0.1311;-0.9168;
1280.4000;0.1311;-0.9143;
1280.7000;0.1319;-0.9093;
1281.0000;0.1278;-0.9168;
1281.3000;0.1302;-0.9093;
1281.6000;0.1311;-0.8967;
1281.9000;0.1237;-0.9093;
1282.2000;0.1294;-0.8867;
1282.5000;0.1286;-0.8841;
1282.8000;0.1319;-0.8741;
1283.1000;0.1302;-0.8841;
1283.4000;0.1335;-0.8841;
1283.7000;0.1302;-0.8892;
1284.0000;0.1286;-0.8917;
1284.3000;0.1311;-0.8841;
1284.6000;0.1302;-0.8841;
1284.9000;0.1302;-0.8917;
1285.2000;0.1278;-0.9017;
1285.5000;0.1294;-0.8992;
1285.8000;0.1294;-0.9093;
1286.1000;0.1245;-0.9243;
1286.4000;0.1286;-0.9093;
1286.7000;0.1319;-0.9068;
1287.0000;0.1327;-0.9118;
1287.3000;0.1254;-0.9268;
1287.6000;0.1302;-0.9168;
1287.9000;0.1286;-0.9143;
1288.2000;0.1319;-0.9042;
1288.5000;0.1294;-0.9093;
1288.8000;0.1286;-0.9093;
1289.1000;0.1311;-0.8967;
1289.4000;0.1327;-0.8841;
1289.7000;0.1319;-0.8917;
1290.0000;0.1311;-0.8942;
1290.3000;0.1319;-0.8992;
1290.6000;0.1311;-0.9017;
1290.9000;0.1319;-0.8942;
1291.2000;0.1302;-0.8992;
1291.5000;0.1302;-0.9068;
1291.8000;0.1302;-0.8992;
1292.1000;0.1335;-0.8892;
1292.4000;0.1311;-0.8967;
1292.7000;0.1311;-0.8816;
1293.0000;0.1319;-0.8816;
1293.3000;0.1311;-0.8791;
1293.6000;0.1335;-0.8791;
1293.9000;0.1319;-0.8942;
1294.2000;0.1327;-0.9017;
1294.5000;0.1351;-0.9017;
1294.8000;0.1319;-0.8992;
1295.1000;0.1294;-0.9068;
1295.4000;0.1311;-0.9093;
1295.7000;0.1319;-0.9168;
1296.0000;0.1327;-0.9168;
1296.3000;0.1278;-0.9193;
1296.6000;0.1286;-0.9093;
1296.9000;0.1270;-0.9093;
1297.2000;0.1319;-0.8942;
1297.5000;0.1302;-0.8942;
1297.8000;0.1294;-0.8892;
1298.1000;0.1327;-0.8791;
1298.4000;0.1327;-0.8816;
1298.7000;0.1319;-0.8942;
1299.0000;0.1319;-0.8917;
1299.3000;0.1294;-0.8992;
1299.6000;0.1359;-0.8917;
1299.9000;0.1327;-0.8917;
1300.2000;0.1327;-0.8816;
1300.5000;0.1286;-0.8942;
1300.8000;0.1319;-0.8867;
1301.1000;0.1319;-0.8892;
1301.4000;0.1278;-0.9017;
1301.7000;0.1311;-0.8791;
1302.0000;0.1311;-0.8841;
1302.3000;0.1319;-0.8841;
1302.6000;0.1311;-0.8741;
1302.9000;0.1319;-0.8841;
1303.2000;0.1311;-0.8917;
1303.5000;0.1327;-0.8816;
1303.8000;0.1302;-0.8841;
1304.1000;0.1327;-0.8791;
1304.4000;0.1319;-0.8741;
1304.7000;0.1302;-0.8766;
1305.0000;0.1335;-0.8716;
1305.3000;0.1311;-0.8816;
1305.6000;0.1311;-0.8841;
1305.9000;0.1302;-0.8917;
1306.2000;0.1294;-0.8967;
1306.5000;0.1302;-0.8942;
1306.8000;0.1302;-0.8917;
1307.1000;0.1302;-0.8942;
1307.4000;0.1286;-0.8992;
1307.7000;0.1294;-0.8992;
1308.0000;0.1294;-0.9017;
1308.3000;0.1294;-0.9042;
1308.6000;0.1311;-0.9017;
1308.9000;0.1319;-0.9017;
1309.2000;0.1262;-0.9093;
1309.5000;0.1311;-0.8967;
1309.8000;0.1311;-0.8967;
1310.1000;0.1302;-0.9017;
1310.4000;0.1335;-0.8917;
1310.7000;0.1302;-0.8942;
1311.0000;0.1359;-0.8816;
1311.3000;0.1335;-0.8892;
1311.6000;0.1302;-0.8992;
1311.9000;0.1327;-0.8917;
1312.2000;0.1335;-0.8841;
1312.5000;0.1294;-0.8992;
1312.8000;0.1302;-0.8942;
1313.1000;0.1311;-0.8917;
1313.4000;0.1384;-0.8867;
1313.7000;0.1327;-0.8967;
1314.0000;0.1302;-0.9042;
1314.3000;0.1327;-0.9093;
1314.6000;0.1311;-0.9042;
1314.9000;0.1319;-0.8917;
1315.2000;0.1302;-0.8892;
1315.5000;0.1311;-0.8816;
1315.8000;0.1311;-0.8841;
1316.1000;0.1286;-0.8867;
1316.4000;0.1311;-0.8791;
1316.7000;0.1376;-0.8666;
1317.0000;0.1254;-0.8992;
1317.3000;0.1221;-0.9017;
1317.6000;0.1335;-0.8741;
1317.9000;0.1286;-0.8892;
1318.2000;0.1188;-0.9193;
1318.5000;0.1311;-0.8917;
1318.8000;0.1270;-0.8992;
1319.1000;0.1351;-0.8816;
1319.4000;0.1327;-0.8867;
1319.7000;0.1359;-0.8791;
1320.0000;0.1311;-0.8816;
1320.3000;0.1302;-0.8741;
1320.6000;0.1311;-0.8766;
1320.9000;0.1311;-0.8766;
1321.2000;0.1335;-0.8841;
1321.5000;0.1359;-0.8741;
1321.8000;0.1311;-0.8766;
1322.1000;0.1319;-0.8716;
1322.4000;0.1254;-0.8841;
1322.7000;0.1302;-0.8816;
1323.0000;0.1302;-0.8816;
1323.3000;0.1278;-0.8841;
1323.6000;0.1294;-0.8766;
1323.9000;0.1327;-0.8791;
1324.2000;0.1319;-0.8841;
1324.5000;0.1319;-0.8867;
1324.8000;0.1376;-0.8691;
1325.1000;0.1335;-0.8892;
1325.4000;0.1319;-0.8917;
1325.7000;0.1294;-0.8942;
1326.0000;0.1327;-0.8892;
1326.3000;0.1335;-0.9042;
1326.6000;0.1302;-0.9168;
1326.9000;0.1302;-0.9168;
1327.2000;0.1311;-0.9294;
1327.5000;0.1343;-0.9168;
1327.8000;0.1311;-0.9193;
1328.1000;0.1311;-0.9168;
1328.4000;0.1302;-0.9118;
1328.7000;0.1311;-0.9093;
1329.0000;0.1327;-0.9143;
1329.3000;0.1311;-0.9268;
1329.6000;0.1311;-0.9268;
1329.9000;0.1327;-0.9168;
1330.2000;0.1311;-0.9093;
1330.5000;0.1294;-0.9068;
1330.8000;0.1302;-0.8992;
1331.1000;0.1286;-0.8967;
1331.4000;0.1302;-0.8917;
1331.7000;0.1302;-0.8867;
1332.0000;0.1294;-0.8917;
1332.3000;0.1319;-0.8892;
1332.6000;0.1302;-0.8917;
1332.9000;0.1311;-0.8816;
1333.2000;0.1286;-0.8892;
1333.5000;0.1302;-0.8766;
1333.8000;0.1319;-0.8816;
1334.1000;0.1335;-0.8841;
1334.4000;0.1311;-0.8967;
1334.7000;0.1335;-0.8967;
1335.0000;0.1270;-0.9017;
1335.3000;0.1229;-0.9093;
1335.6000;0.1311;-0.8841;
1335.9000;0.1319;-0.8917;
1336.2000;0.1294;-0.9042;
1336.5000;0.1319;-0.8917;
1336.8000;0.1302;-0.8867;
1337.1000;0.1319;-0.8791;
1337.4000;0.1294;-0.8841;
1337.7000;0.1319;-0.8741;
1338.0000;0.1294;-0.8816;
1338.3000;0.1302;-0.8791;
1338.6000;0.1327;-0.8816;
1338.9000;0.1311;-0.8816;
1339.2000;0.1327;-0.8841;
1339.5000;0.1335;-0.8841;
1339.8000;0.1327;-0.8967;
1340.1000;0.1368;-0.8917;
1340.4000;0.1343;-0.9017;
1340.7000;0.1311;-0.9118;
1341.0000;0.1270;-0.9243;
1341.3000;0.1319;-0.9118;
1341.6000;0.1294;-0.9143;
1341.9000;0.1311;-0.9068;
1342.2000;0.1294;-0.9118;
1342.5000;0.1319;-0.9118;
1342.8000;0.1319;-0.9143;
1343.1000;0.1327;-0.9193;
1343.4000;0.1368;-0.9093;
1343.7000;0.1319;-0.9268;
1344.0000;0.1311;-0.9218;
1344.3000;0.1286;-0.9268;
1344.6000;0.1311;-0.9218;
1344.9000;0.1311;-0.9243;
1345.2000;0.1343;-0.9093;
1345.5000;0.1335;-0.9068;
1345.8000;0.1319;-0.9068;
1346.1000;0.1319;-0.9017;
1346.4000;0.1311;-0.9042;
1346.7000;0.1319;-0.8917;
1347.0000;0.1319;-0.8917;
1347.3000;0.1294;-0.8967;
1347.6000;0.1319;-0.8967;
1347.9000;0.1319;-0.8967;
1348.2000;0.1335;-0.8892;
1348.5000;0.1327;-0.8967;
1348.8000;0.1319;-0.9042;
1349.1000;0.1319;-0.9118;
1349.4000;0.1327;-0.9143;
1349.7000;0.1319;-0.9143;
1350.0000;0.1351;-0.8992;
1350.3000;0.1319;-0.9143;
1350.6000;0.1327;-0.9093;
1350.9000;0.1368;-0.8867;
1351.2000;0.1327;-0.8967;
1351.5000;0.1335;-0.8967;
1351.8000;0.1343;-0.8942;
1352.1000;0.1286;-0.9118;
1352.4000;0.1319;-0.8992;
1352.7000;0.1302;-0.9093;
1353.0000;0.1294;-0.9093;
1353.3000;0.1286;-0.9193;
1353.6000;0.1302;-0.9143;
1353.9000;0.1286;-0.9143;
1354.2000;0.1311;-0.9068;
1354.5000;0.1302;-0.9042;
1354.8000;0.1311;-0.9017;
1355.1000;0.1319;-0.8917;
1355.4000;0.1335;-0.8791;
1355.7000;0.1327;-0.8791;
1356.0000;0.1327;-0.8766;
1356.3000;0.1368;-0.8565;
1356.6000;0.1302;-0.8716;
1356.9000;0.1254;-0.8841;
1357.2000;0.1319;-0.8691;
1357.5000;0.1302;-0.8766;
1357.8000;0.1311;-0.8766;
1358.1000;0.1408;-0.8565;
1358.4000;0.1311;-0.8766;
1358.7000;0.1311;-0.8816;
1359.0000;0.1368;-0.8716;
1359.3000;0.1294;-0.8917;
1359.6000;0.1319;-0.8816;
1359.9000;0.1343;-0.8791;
1360.2000;0.1311;-0.8942;
1360.5000;0.1311;-0.8942;
1360.8000;0.1302;-0.8867;
1361.1000;0.1311;-0.8942;
1361.4000;0.1294;-0.9017;
1361.7000;0.1311;-0.8967;
1362.0000;0.1311;-0.8992;
1362.3000;0.1294;-0.9093;
1362.6000;0.1294;-0.9017;
1362.9000;0.1311;-0.9017;
1363.2000;0.1327;-0.8992;
1363.5000;0.1319;-0.9042;
1363.8000;0.1376;-0.8841;
1364.1000;0.1311;-0.8816;
1364.4000;0.1286;-0.8867;
1364.7000;0.1327;-0.8741;
1365.0000;0.1311;-0.8766;
1365.3000;0.1319;-0.8766;
1365.6000;0.1327;-0.8791;
1365.9000;0.1319;-0.8791;
1366.2000;0.1311;-0.8841;
1366.5000;0.1286;-0.8867;
1366.8000;0.1278;-0.8967;
1367.1000;0.1294;-0.8967;
1367.4000;0.1286;-0.8942;
1367.7000;0.1294;-0.8992;
1368.0000;0.1302;-0.8967;
1368.3000;0.1302;-0.8942;
1368.6000;0.1319;-0.8892;
1368.9000;0.1302;-0.8992;
1369.2000;0.1319;-0.8967;
1369.5000;0.1286;-0.8867;
1369.8000;0.1302;-0.8917;
1370.1000;0.1302;-0.8892;
1370.4000;0.1302;-0.9017;
1370.7000;0.1294;-0.9093;
1371.0000;0.1335;-0.9042;
1371.3000;0.1278;-0.9143;
1371.6000;0.1311;-0.9143;
1371.9000;0.1319;-0.9118;
1372.2000;0.1311;-0.9093;
1372.5000;0.1213;-0.9344;
1372.8000;0.1302;-0.8942;
1373.1000;0.1311;-0.8917;
1373.4000;0.1302;-0.8917;
1373.7000;0.1319;-0.8816;
1374.0000;0.1278;-0.8867;
1374.3000;0.1286;-0.8917;
1374.6000;0.1319;-0.8942;
1374.9000;0.1335;-0.8942;
1375.2000;0.1319;-0.9068;
1375.5000;0.1302;-0.9118;
1375.8000;0.1262;-0.9168;
1376.1000;0.1302;-0.8917;
1376.4000;0.1286;-0.8967;
1376.7000;0.1294;-0.9017;
1377.0000;0.1213;-0.9143;
1377.3000;0.1294;-0.8841;
1377.6000;0.1286;-0.8816;
1377.9000;0.1384;-0.8691;
1378.2000;0.1302;-0.8816;
1378.5000;0.1311;-0.8816;
1378.8000;0.1302;-0.8766;
1379.1000;0.1319;-0.8791;
1379.4000;0.1294;-0.8791;
1379.7000;0.1311;-0.8816;
1380.0000;0.1278;-0.8867;
1380.3000;0.1262;-0.8942;
1380.6000;0.1311;-0.8892;
1380.9000;0.1302;-0.8942;
1381.2000;0.1302;-0.8967;
1381.5000;0.1311;-0.9068;
1381.8000;0.1294;-0.9093;
1382.1000;0.1302;-0.9093;
1382.4000;0.1327;-0.9042;
1382.7000;0.1319;-0.9017;
1383.0000;0.1262;-0.9118;
1383.3000;0.1286;-0.9118;
1383.6000;0.1311;-0.9042;
1383.9000;0.1302;-0.9068;
1384.2000;0.1311;-0.8992;
1384.5000;0.1327;-0.8942;
1384.8000;0.1311;-0.9042;
1385.1000;0.1327;-0.8967;
1385.4000;0.1351;-0.8892;
1385.7000;0.1302;-0.8967;
1386.0000;0.1335;-0.8816;
1386.3000;0.1368;-0.8766;
1386.6000;0.1319;-0.8967;
1386.9000;0.1294;-0.8967;
1387.2000;0.1294;-0.8917;
1387.5000;0.1302;-0.8917;
1387.8000;0.1311;-0.8992;
1388.1000;0.1294;-0.8992;
1388.4000;0.1335;-0.8942;
1388.7000;0.1327;-0.9042;
1389.0000;0.1319;-0.8967;
1389.3000;0.1302;-0.9068;
1389.6000;0.1311;-0.9017;
1389.9000;0.1311;-0.9017;
1390.2000;0.1319;-0.8967;
1390.5000;0.1311;-0.8992;
1390.8000;0.1319;-0.8892;
1391.1000;0.1294;-0.8992;
1391.4000;0.1286;-0.8917;
1391.7000;0.1302;-0.8967;
1392.0000;0.1294;-0.8917;
1392.3000;0.1311;-0.8841;
1392.6000;0.1311;-0.8917;
1392.9000;0.1311;-0.8942;
1393.2000;0.1319;-0.9017;
1393.5000;0.1311;-0.9017;
1393.8000;0.1302;-0.8967;
1394.1000;0.1302;-0.8892;
1394.4000;0.1294;-0.8816;
1394.7000;0.1302;-0.8766;
1395.0000;0.1278;-0.8741;
1395.3000;0.1335;-0.8716;
1395.6000;0.1302;-0.8741;
1395.9000;0.1294;-0.8816;
1396.2000;0.1408;-0.8590;
1396.5000;0.1319;-0.8741;
1396.8000;0.1311;-0.8816;
1397.1000;0.1343;-0.8791;
1397.4000;0.1294;-0.8816;
1397.7000;0.1319;-0.8816;
1398.0000;0.1294;-0.8867;
1398.3000;0.1319;-0.8917;
1398.6000;0.1319;-0.8992;
1398.9000;0.1351;-0.8917;
1399.2000;0.1319;-0.8992;
1399.5000;0.1302;-0.9017;
1399.8000;0.1319;-0.8942;
