time/ms;Fluo/V;P700 deltaI/I x10³;
-199.8000;0.1400;-0.8691;
-199.5000;0.1343;-0.8867;
-199.2000;0.1335;-0.8942;
-198.9000;0.1376;-0.9017;
-198.6000;0.1368;-0.8992;
-198.3000;0.1351;-0.9017;
-198.0000;0.1278;-0.9193;
-197.7000;0.1343;-0.9068;
-197.4000;0.1351;-0.9017;
-197.1000;0.1359;-0.8992;
-196.8000;0.1368;-0.8892;
-196.5000;0.1359;-0.8867;
-196.2000;0.1368;-0.8766;
-195.9000;0.1368;-0.8766;
-195.6000;0.1327;-0.8791;
-195.3000;0.1359;-0.8766;
-195.0000;0.1384;-0.8741;
-194.7000;0.1359;-0.8766;
-194.4000;0.1319;-0.8917;
-194.1000;0.1302;-0.8917;
-193.8000;0.1343;-0.8741;
-193.5000;0.1351;-0.8691;
-193.2000;0.1343;-0.8716;
-192.9000;0.1335;-0.8766;
-192.6000;0.1343;-0.8691;
-192.3000;0.1359;-0.8766;
-192.0000;0.1359;-0.8691;
-191.7000;0.1343;-0.8791;
-191.4000;0.1351;-0.8816;
-191.1000;0.1359;-0.8791;
-190.8000;0.1335;-0.8867;
-190.5000;0.1343;-0.8867;
-190.2000;0.1319;-0.8992;
-189.9000;0.1359;-0.8942;
-189.6000;0.1368;-0.8917;
-189.3000;0.1343;-0.8892;
-189.0000;0.1302;-0.8917;
-188.7000;0.1335;-0.8841;
-188.4000;0.1351;-0.8841;
-188.1000;0.1359;-0.8841;
-187.8000;0.1335;-0.8867;
-187.5000;0.1359;-0.8841;
-187.2000;0.1351;-0.8766;
-186.9000;0.1343;-0.8867;
-186.6000;0.1335;-0.8867;
-186.3000;0.1335;-0.8892;
-186.0000;0.1311;-0.8942;
-185.7000;0.1359;-0.8841;
-185.4000;0.1359;-0.8741;
-185.1000;0.1368;-0.8766;
-184.8000;0.1384;-0.8841;
-184.5000;0.1359;-0.8867;
-184.2000;0.1368;-0.8791;
-183.9000;0.1343;-0.8892;
-183.6000;0.1343;-0.8841;
-183.3000;0.1376;-0.8841;
-183.0000;0.1368;-0.8791;
-182.7000;0.1359;-0.8741;
-182.4000;0.1351;-0.8741;
-182.1000;0.1359;-0.8666;
-181.8000;0.1327;-0.8766;
-181.5000;0.1335;-0.8666;
-181.2000;0.1359;-0.8716;
-180.9000;0.1327;-0.8841;
-180.6000;0.1319;-0.8841;
-180.3000;0.1335;-0.8917;
-180.0000;0.1335;-0.8867;
-179.7000;0.1335;-0.8967;
-179.4000;0.1343;-0.8917;
-179.1000;0.1351;-0.8892;
-178.8000;0.1351;-0.8867;
-178.5000;0.1351;-0.8816;
-178.2000;0.1351;-0.8892;
-177.9000;0.1368;-0.8841;
-177.6000;0.1351;-0.8867;
-177.3000;0.1351;-0.8791;
-177.0000;0.1351;-0.8766;
-176.7000;0.1343;-0.8741;
-176.4000;0.1359;-0.8766;
-176.1000;0.1327;-0.8841;
-175.8000;0.1359;-0.8766;
-175.5000;0.1351;-0.8766;
-175.2000;0.1351;-0.8841;
-174.9000;0.1359;-0.8841;
-174.6000;0.1351;-0.8992;
-174.3000;0.1359;-0.8992;
-174.0000;0.1351;-0.8967;
-173.7000;0.1351;-0.8942;
-173.4000;0.1368;-0.8892;
-173.1000;0.1368;-0.8917;
-172.8000;0.1327;-0.8992;
-172.5000;0.1351;-0.9017;
-172.2000;0.1368;-0.8942;
-171.9000;0.1359;-0.8917;
-171.6000;0.1343;-0.9017;
-171.3000;0.1343;-0.9068;
-171.0000;0.1359;-0.8967;
-170.7000;0.1351;-0.8841;
-170.4000;0.1343;-0.8816;
-170.1000;0.1384;-0.8691;
-169.8000;0.1351;-0.8741;
-169.5000;0.1343;-0.8841;
-169.2000;0.1335;-0.8867;
-168.9000;0.1343;-0.8867;
-168.6000;0.1327;-0.8917;
-168.3000;0.1343;-0.8841;
-168.0000;0.1343;-0.8841;
-167.7000;0.1335;-0.8816;
-167.4000;0.1335;-0.8816;
-167.1000;0.1351;-0.8867;
-166.8000;0.1351;-0.8841;
-166.5000;0.1327;-0.8892;
-166.2000;0.1327;-0.8892;
-165.9000;0.1351;-0.8816;
-165.6000;0.1327;-0.8892;
-165.3000;0.1343;-0.8816;
-165.0000;0.1335;-0.8841;
-164.7000;0.1335;-0.8841;
-164.4000;0.1343;-0.8766;
-164.1000;0.1408;-0.8641;
-163.8000;0.1351;-0.8741;
-163.5000;0.1319;-0.8766;
-163.2000;0.1351;-0.8816;
-162.9000;0.1376;-0.8791;
-162.6000;0.1335;-0.8841;
-162.3000;0.1359;-0.8816;
-162.0000;0.1343;-0.8841;
-161.7000;0.1359;-0.8816;
-161.4000;0.1359;-0.8841;
-161.1000;0.1368;-0.8867;
-160.8000;0.1351;-0.8841;
-160.5000;0.1359;-0.8867;
-160.2000;0.1351;-0.8992;
-159.9000;0.1327;-0.9042;
-159.6000;0.1351;-0.8942;
-159.3000;0.1351;-0.8791;
-159.0000;0.1359;-0.8791;
-158.7000;0.1351;-0.8841;
-158.4000;0.1327;-0.8892;
-158.1000;0.1359;-0.8741;
-157.8000;0.1359;-0.8766;
-157.5000;0.1335;-0.8892;
-157.2000;0.1343;-0.8766;
-156.9000;0.1335;-0.8766;
-156.6000;0.1343;-0.8741;
-156.3000;0.1343;-0.8716;
-156.0000;0.1343;-0.8691;
-155.7000;0.1327;-0.8766;
-155.4000;0.1359;-0.8741;
-155.1000;0.1319;-0.8816;
-154.8000;0.1262;-0.9068;
-154.5000;0.1335;-0.8816;
-154.2000;0.1343;-0.8791;
-153.9000;0.1351;-0.8816;
-153.6000;0.1351;-0.8791;
-153.3000;0.1351;-0.8766;
-153.0000;0.1368;-0.8766;
-152.7000;0.1359;-0.8816;
-152.4000;0.1359;-0.8791;
-152.1000;0.1368;-0.8691;
-151.8000;0.1359;-0.8615;
-151.5000;0.1311;-0.8741;
-151.2000;0.1351;-0.8666;
-150.9000;0.1343;-0.8741;
-150.6000;0.1335;-0.8691;
-150.3000;0.1343;-0.8666;
-150.0000;0.1351;-0.8590;
-149.7000;0.1335;-0.8615;
-149.4000;0.1343;-0.8641;
-149.1000;0.1351;-0.8641;
-148.8000;0.1376;-0.8666;
-148.5000;0.1351;-0.8816;
-148.2000;0.1343;-0.8766;
-147.9000;0.1343;-0.8791;
-147.6000;0.1351;-0.8791;
-147.3000;0.1343;-0.8766;
-147.0000;0.1359;-0.8666;
-146.7000;0.1359;-0.8641;
-146.4000;0.1359;-0.8666;
-146.1000;0.1359;-0.8641;
-145.8000;0.1433;-0.8465;
-145.5000;0.1359;-0.8741;
-145.2000;0.1351;-0.8766;
-144.9000;0.1343;-0.8791;
-144.6000;0.1327;-0.8892;
-144.3000;0.1335;-0.8992;
-144.0000;0.1335;-0.8892;
-143.7000;0.1343;-0.8816;
-143.4000;0.1400;-0.8716;
-143.1000;0.1416;-0.8691;
-142.8000;0.1343;-0.8841;
-142.5000;0.1286;-0.9068;
-142.2000;0.1335;-0.8816;
-141.9000;0.1343;-0.8816;
-141.6000;0.1359;-0.8816;
-141.3000;0.1351;-0.8816;
-141.0000;0.1311;-0.8967;
-140.7000;0.1335;-0.8867;
-140.4000;0.1327;-0.8892;
-140.1000;0.1359;-0.8791;
-139.8000;0.1335;-0.8867;
-139.5000;0.1343;-0.8892;
-139.2000;0.1343;-0.8867;
-138.9000;0.1351;-0.8766;
-138.6000;0.1343;-0.8741;
-138.3000;0.1343;-0.8691;
-138.0000;0.1327;-0.8816;
-137.7000;0.1368;-0.8791;
-137.4000;0.1311;-0.8942;
-137.1000;0.1302;-0.8992;
-136.8000;0.1416;-0.8716;
-136.5000;0.1335;-0.8766;
-136.2000;0.1408;-0.8540;
-135.9000;0.1343;-0.8716;
-135.6000;0.1302;-0.8917;
-135.3000;0.1351;-0.8716;
-135.0000;0.1368;-0.8716;
-134.7000;0.1351;-0.8741;
-134.4000;0.1343;-0.8816;
-134.1000;0.1302;-0.8841;
-133.8000;0.1368;-0.8691;
-133.5000;0.1343;-0.8716;
-133.2000;0.1335;-0.8716;
-132.9000;0.1359;-0.8691;
-132.6000;0.1359;-0.8716;
-132.3000;0.1351;-0.8691;
-132.0000;0.1351;-0.8741;
-131.7000;0.1359;-0.8716;
-131.4000;0.1376;-0.8716;
-131.1000;0.1368;-0.8766;
-130.8000;0.1343;-0.8791;
-130.5000;0.1335;-0.8816;
-130.2000;0.1359;-0.8791;
-129.9000;0.1368;-0.8766;
-129.6000;0.1302;-0.8942;
-129.3000;0.1335;-0.8892;
-129.0000;0.1359;-0.8791;
-128.7000;0.1359;-0.8791;
-128.4000;0.1351;-0.8741;
-128.1000;0.1327;-0.8741;
-127.8000;0.1335;-0.8716;
-127.5000;0.1368;-0.8691;
-127.2000;0.1359;-0.8816;
-126.9000;0.1335;-0.8942;
-126.6000;0.1368;-0.8892;
-126.3000;0.1368;-0.8942;
-126.0000;0.1359;-0.9042;
-125.7000;0.1368;-0.9017;
-125.4000;0.1302;-0.9143;
-125.1000;0.1335;-0.9068;
-124.8000;0.1368;-0.8942;
-124.5000;0.1384;-0.8841;
-124.2000;0.1351;-0.8867;
-123.9000;0.1343;-0.8867;
-123.6000;0.1343;-0.8841;
-123.3000;0.1384;-0.8691;
-123.0000;0.1376;-0.8565;
-122.7000;0.1294;-0.8791;
-122.4000;0.1343;-0.8716;
-122.1000;0.1351;-0.8716;
-121.8000;0.1294;-0.8917;
-121.5000;0.1335;-0.8816;
-121.2000;0.1351;-0.8816;
-120.9000;0.1319;-0.8816;
-120.6000;0.1416;-0.8666;
-120.3000;0.1327;-0.8917;
-120.0000;0.1335;-0.8816;
-119.7000;0.1498;-0.8389;
-119.4000;0.1327;-0.8816;
-119.1000;0.1343;-0.8816;
-118.8000;0.1400;-0.8590;
-118.5000;0.1441;-0.8414;
-118.2000;0.1359;-0.8565;
-117.9000;0.1335;-0.8641;
-117.6000;0.1408;-0.8339;
-117.3000;0.1343;-0.8641;
-117.0000;0.1262;-0.8816;
-116.7000;0.1319;-0.8691;
-116.4000;0.1368;-0.8641;
-116.1000;0.1343;-0.8641;
-115.8000;0.1425;-0.8490;
-115.5000;0.1343;-0.8615;
-115.2000;0.1302;-0.8691;
-114.9000;0.1327;-0.8741;
-114.6000;0.1335;-0.8766;
-114.3000;0.1449;-0.8440;
-114.0000;0.1359;-0.8716;
-113.7000;0.1351;-0.8791;
-113.4000;0.1376;-0.8716;
-113.1000;0.1343;-0.8816;
-112.8000;0.1351;-0.8766;
-112.5000;0.1343;-0.8766;
-112.2000;0.1359;-0.8716;
-111.9000;0.1465;-0.8389;
-111.6000;0.1384;-0.8691;
-111.3000;0.1376;-0.8716;
-111.0000;0.1359;-0.8766;
-110.7000;0.1441;-0.8590;
-110.4000;0.1343;-0.8816;
-110.1000;0.1351;-0.8791;
-109.8000;0.1351;-0.8741;
-109.5000;0.1359;-0.8766;
-109.2000;0.1335;-0.8791;
-108.9000;0.1376;-0.8666;
-108.6000;0.1368;-0.8666;
-108.3000;0.1335;-0.8691;
-108.0000;0.1359;-0.8590;
-107.7000;0.1351;-0.8641;
-107.4000;0.1351;-0.8666;
-107.1000;0.1351;-0.8691;
-106.8000;0.1335;-0.8716;
-106.5000;0.1286;-0.8917;
-106.2000;0.1351;-0.8892;
-105.9000;0.1327;-0.8942;
-105.6000;0.1392;-0.8816;
-105.3000;0.1327;-0.8967;
-105.0000;0.1351;-0.8967;
-104.7000;0.1368;-0.8892;
-104.4000;0.1359;-0.8816;
-104.1000;0.1343;-0.8942;
-103.8000;0.1335;-0.8942;
-103.5000;0.1384;-0.8867;
-103.2000;0.1343;-0.8967;
-102.9000;0.1335;-0.8992;
-102.6000;0.1359;-0.8892;
-102.3000;0.1343;-0.8816;
-102.0000;0.1368;-0.8716;
-101.7000;0.1368;-0.8741;
-101.4000;0.1335;-0.8816;
-101.1000;0.1376;-0.8691;
-100.8000;0.1335;-0.8741;
-100.5000;0.1335;-0.8741;
-100.2000;0.1392;-0.8716;
-99.9000;0.1335;-0.8892;
-99.6000;0.1359;-0.8816;
-99.3000;0.1343;-0.8816;
-99.0000;0.1262;-0.8942;
-98.7000;0.1335;-0.8716;
-98.4000;0.1392;-0.8540;
-98.1000;0.1368;-0.8666;
-97.8000;0.1376;-0.8590;
-97.5000;0.1335;-0.8716;
-97.2000;0.1359;-0.8666;
-96.9000;0.1368;-0.8741;
-96.6000;0.1294;-0.8892;
-96.3000;0.1351;-0.8791;
-96.0000;0.1368;-0.8816;
-95.7000;0.1359;-0.8766;
-95.4000;0.1351;-0.8841;
-95.1000;0.1351;-0.8816;
-94.8000;0.1335;-0.8841;
-94.5000;0.1359;-0.8791;
-94.2000;0.1335;-0.8766;
-93.9000;0.1400;-0.8666;
-93.6000;0.1311;-0.8867;
-93.3000;0.1392;-0.8716;
-93.0000;0.1359;-0.8816;
-92.7000;0.1351;-0.8841;
-92.4000;0.1351;-0.8816;
-92.1000;0.1343;-0.8867;
-91.8000;0.1376;-0.8867;
-91.5000;0.1343;-0.8992;
-91.2000;0.1368;-0.9017;
-90.9000;0.1343;-0.8841;
-90.6000;0.1376;-0.8791;
-90.3000;0.1351;-0.8766;
-90.0000;0.1351;-0.8741;
-89.7000;0.1319;-0.8791;
-89.4000;0.1368;-0.8691;
-89.1000;0.1343;-0.8791;
-88.8000;0.1335;-0.8791;
-88.5000;0.1376;-0.8841;
-88.2000;0.1319;-0.9093;
-87.9000;0.1359;-0.8917;
-87.6000;0.1335;-0.8992;
-87.3000;0.1343;-0.8967;
-87.0000;0.1368;-0.8867;
-86.7000;0.1359;-0.8841;
-86.4000;0.1359;-0.8816;
-86.1000;0.1359;-0.8816;
-85.8000;0.1351;-0.8841;
-85.5000;0.1376;-0.8791;
-85.2000;0.1343;-0.8841;
-84.9000;0.1351;-0.8841;
-84.6000;0.1327;-0.8917;
-84.3000;0.1254;-0.9193;
-84.0000;0.1335;-0.8917;
-83.7000;0.1302;-0.8917;
-83.4000;0.1384;-0.8867;
-83.1000;0.1351;-0.8967;
-82.8000;0.1351;-0.8867;
-82.5000;0.1359;-0.8892;
-82.2000;0.1311;-0.9017;
-81.9000;0.1335;-0.8917;
-81.6000;0.1457;-0.8590;
-81.3000;0.1351;-0.8867;
-81.0000;0.1376;-0.8841;
-80.7000;0.1351;-0.8917;
-80.4000;0.1359;-0.8892;
-80.1000;0.1359;-0.8816;
-79.8000;0.1343;-0.8766;
-79.5000;0.1343;-0.8716;
-79.2000;0.1359;-0.8691;
-78.9000;0.1368;-0.8641;
-78.6000;0.1351;-0.8666;
-78.3000;0.1351;-0.8716;
-78.0000;0.1335;-0.8741;
-77.7000;0.1343;-0.8716;
-77.4000;0.1335;-0.8841;
-77.1000;0.1343;-0.8766;
-76.8000;0.1351;-0.8766;
-76.5000;0.1351;-0.8741;
-76.2000;0.1368;-0.8641;
-75.9000;0.1368;-0.8641;
-75.6000;0.1343;-0.8615;
-75.3000;0.1368;-0.8515;
-75.0000;0.1245;-0.8841;
-74.7000;0.1351;-0.8641;
-74.4000;0.1368;-0.8590;
-74.1000;0.1376;-0.8565;
-73.8000;0.1376;-0.8615;
-73.5000;0.1351;-0.8716;
-73.2000;0.1392;-0.8615;
-72.9000;0.1351;-0.8641;
-72.6000;0.1351;-0.8590;
-72.3000;0.1376;-0.8590;
-72.0000;0.1327;-0.8716;
-71.7000;0.1368;-0.8691;
-71.4000;0.1408;-0.8565;
-71.1000;0.1359;-0.8741;
-70.8000;0.1327;-0.8716;
-70.5000;0.1343;-0.8666;
-70.2000;0.1319;-0.8816;
-69.9000;0.1368;-0.8766;
-69.6000;0.1351;-0.8841;
-69.3000;0.1359;-0.8816;
-69.0000;0.1359;-0.8841;
-68.7000;0.1343;-0.8816;
-68.4000;0.1359;-0.8716;
-68.1000;0.1351;-0.8716;
-67.8000;0.1335;-0.8791;
-67.5000;0.1343;-0.8766;
-67.2000;0.1376;-0.8666;
-66.9000;0.1343;-0.8666;
-66.6000;0.1351;-0.8766;
-66.3000;0.1270;-0.8992;
-66.0000;0.1302;-0.8892;
-65.7000;0.1335;-0.8766;
-65.4000;0.1319;-0.8791;
-65.1000;0.1351;-0.8716;
-64.8000;0.1351;-0.8791;
-64.5000;0.1319;-0.8841;
-64.2000;0.1335;-0.8816;
-63.9000;0.1359;-0.8841;
-63.6000;0.1351;-0.8867;
-63.3000;0.1359;-0.8892;
-63.0000;0.1351;-0.8867;
-62.7000;0.1359;-0.8867;
-62.4000;0.1343;-0.8917;
-62.1000;0.1359;-0.8917;
-61.8000;0.1278;-0.9143;
-61.5000;0.1384;-0.8892;
-61.2000;0.1270;-0.9168;
-60.9000;0.1319;-0.8967;
-60.6000;0.1327;-0.8841;
-60.3000;0.1319;-0.8791;
-60.0000;0.1359;-0.8791;
-59.7000;0.1254;-0.8992;
-59.4000;0.1343;-0.8816;
-59.1000;0.1278;-0.8992;
-58.8000;0.1351;-0.8841;
-58.5000;0.1319;-0.8892;
-58.2000;0.1351;-0.8791;
-57.9000;0.1368;-0.8766;
-57.6000;0.1449;-0.8490;
-57.3000;0.1359;-0.8716;
-57.0000;0.1335;-0.8666;
-56.7000;0.1343;-0.8666;
-56.4000;0.1376;-0.8590;
-56.1000;0.1359;-0.8691;
-55.8000;0.1335;-0.8766;
-55.5000;0.1433;-0.8515;
-55.2000;0.1335;-0.8766;
-54.9000;0.1351;-0.8716;
-54.6000;0.1351;-0.8741;
-54.3000;0.1351;-0.8791;
-54.0000;0.1351;-0.8741;
-53.7000;0.1376;-0.8691;
-53.4000;0.1343;-0.8741;
-53.1000;0.1319;-0.8816;
-52.8000;0.1400;-0.8615;
-52.5000;0.1368;-0.8741;
-52.2000;0.1376;-0.8766;
-51.9000;0.1376;-0.8791;
-51.6000;0.1359;-0.8766;
-51.3000;0.1351;-0.8791;
-51.0000;0.1351;-0.8841;
-50.7000;0.1343;-0.8841;
-50.4000;0.1335;-0.8816;
-50.1000;0.1343;-0.8841;
-49.8000;0.1351;-0.8791;
-49.5000;0.1359;-0.8841;
-49.2000;0.1327;-0.8841;
-48.9000;0.1359;-0.8816;
-48.6000;0.1359;-0.8766;
-48.3000;0.1368;-0.8716;
-48.0000;0.1368;-0.8816;
-47.7000;0.1376;-0.8766;
-47.4000;0.1376;-0.8791;
-47.1000;0.1351;-0.8791;
-46.8000;0.1311;-0.8892;
-46.5000;0.1335;-0.8867;
-46.2000;0.1384;-0.8766;
-45.9000;0.1376;-0.8716;
-45.6000;0.1335;-0.8741;
-45.3000;0.1270;-0.8892;
-45.0000;0.1384;-0.8666;
-44.7000;0.1327;-0.8766;
-44.4000;0.1343;-0.8816;
-44.1000;0.1319;-0.8791;
-43.8000;0.1270;-0.8867;
-43.5000;0.1359;-0.8666;
-43.2000;0.1368;-0.8590;
-42.9000;0.1343;-0.8666;
-42.6000;0.1368;-0.8641;
-42.3000;0.1351;-0.8615;
-42.0000;0.1351;-0.8590;
-41.7000;0.1359;-0.8641;
-41.4000;0.1368;-0.8666;
-41.1000;0.1400;-0.8641;
-40.8000;0.1359;-0.8666;
-40.5000;0.1351;-0.8716;
-40.2000;0.1376;-0.8691;
-39.9000;0.1376;-0.8691;
-39.6000;0.1359;-0.8716;
-39.3000;0.1368;-0.8666;
-39.0000;0.1359;-0.8691;
-38.7000;0.1343;-0.8691;
-38.4000;0.1343;-0.8766;
-38.1000;0.1319;-0.8791;
-37.8000;0.1368;-0.8741;
-37.5000;0.1319;-0.8917;
-37.2000;0.1359;-0.8816;
-36.9000;0.1319;-0.8917;
-36.6000;0.1359;-0.8741;
-36.3000;0.1343;-0.8691;
-36.0000;0.1351;-0.8691;
-35.7000;0.1262;-0.8816;
-35.4000;0.1302;-0.8766;
-35.1000;0.1359;-0.8666;
-34.8000;0.1359;-0.8641;
-34.5000;0.1343;-0.8666;
-34.2000;0.1335;-0.8666;
-33.9000;0.1327;-0.8766;
-33.6000;0.1359;-0.8666;
-33.3000;0.1359;-0.8615;
-33.0000;0.1343;-0.8641;
-32.7000;0.1327;-0.8691;
-32.4000;0.1368;-0.8641;
-32.1000;0.1384;-0.8615;
-31.8000;0.1376;-0.8716;
-31.5000;0.1368;-0.8716;
-31.2000;0.1343;-0.8691;
-30.9000;0.1343;-0.8716;
-30.6000;0.1335;-0.8691;
-30.3000;0.1343;-0.8766;
-30.0000;0.1384;-0.8716;
-29.7000;0.1351;-0.8791;
-29.4000;0.1343;-0.8816;
-29.1000;0.1343;-0.8841;
-28.8000;0.1327;-0.8816;
-28.5000;0.1335;-0.8766;
-28.2000;0.1351;-0.8741;
-27.9000;0.1335;-0.8666;
-27.6000;0.1343;-0.8615;
-27.3000;0.1327;-0.8691;
-27.0000;0.1319;-0.8666;
-26.7000;0.1376;-0.8615;
-26.4000;0.1254;-0.8892;
-26.1000;0.1343;-0.8691;
-25.8000;0.1343;-0.8615;
-25.5000;0.1335;-0.8666;
-25.2000;0.1343;-0.8716;
-24.9000;0.1335;-0.8691;
-24.6000;0.1359;-0.8691;
-24.3000;0.1327;-0.8816;
-24.0000;0.1278;-0.8867;
-23.7000;0.1343;-0.8716;
-23.4000;0.1343;-0.8716;
-23.1000;0.1368;-0.8716;
-22.8000;0.1359;-0.8816;
-22.5000;0.1343;-0.8816;
-22.2000;0.1359;-0.8766;
-21.9000;0.1359;-0.8791;
-21.6000;0.1368;-0.8716;
-21.3000;0.1302;-0.8917;
-21.0000;0.1343;-0.8867;
-20.7000;0.1368;-0.8791;
-20.4000;0.1351;-0.8816;
-20.1000;0.1408;-0.8691;
-19.8000;0.1351;-0.8791;
-19.5000;0.1343;-0.8791;
-19.2000;0.1351;-0.8691;
-18.9000;0.1327;-0.8741;
-18.6000;0.1343;-0.8716;
-18.3000;0.1343;-0.8766;
-18.0000;0.1351;-0.8691;
-17.7000;0.1319;-0.8791;
-17.4000;0.1351;-0.8691;
-17.1000;0.1359;-0.8691;
-16.8000;0.1351;-0.8691;
-16.5000;0.1343;-0.8766;
-16.2000;0.1343;-0.8716;
-15.9000;0.1335;-0.8716;
-15.6000;0.1368;-0.8716;
-15.3000;0.1351;-0.8766;
-15.0000;0.1343;-0.8741;
-14.7000;0.1351;-0.8641;
-14.4000;0.1376;-0.8540;
-14.1000;0.1343;-0.8615;
-13.8000;0.1368;-0.8590;
-13.5000;0.1351;-0.8691;
-13.2000;0.1368;-0.8716;
-12.9000;0.1408;-0.8590;
-12.6000;0.1327;-0.8716;
-12.3000;0.1327;-0.8691;
-12.0000;0.1359;-0.8641;
-11.7000;0.1351;-0.8615;
-11.4000;0.1335;-0.8590;
-11.1000;0.1327;-0.8641;
-10.8000;0.1376;-0.8590;
-10.5000;0.1465;-0.8289;
-10.2000;0.1359;-0.8590;
-9.9000;0.1343;-0.8590;
-9.6000;0.1351;-0.8490;
-9.3000;0.1343;-0.8540;
-9.0000;0.1359;-0.8490;
-8.7000;0.1351;-0.8490;
-8.4000;0.1457;-0.8239;
-8.1000;0.1351;-0.8590;
-7.8000;0.1343;-0.8590;
-7.5000;0.1400;-0.8540;
-7.2000;0.1343;-0.8691;
-6.9000;0.1294;-0.8841;
-6.6000;0.1343;-0.8766;
-6.3000;0.1335;-0.8766;
-6.0000;0.1368;-0.8716;
-5.7000;0.1343;-0.8716;
-5.4000;0.1351;-0.8766;
-5.1000;0.1351;-0.8741;
-4.8000;0.1335;-0.8766;
-4.5000;0.1335;-0.8741;
-4.2000;0.1384;-0.8741;
-3.9000;0.1351;-0.8841;
-3.6000;0.1368;-0.8766;
-3.3000;0.1327;-0.8816;
-3.0000;0.1351;-0.8766;
-2.7000;0.1343;-0.8816;
-2.4000;0.1327;-0.8816;
-2.1000;0.1335;-0.8791;
-1.8000;0.1351;-0.8816;
-1.5000;0.1359;-0.8841;
-1.2000;0.1311;-0.9017;
-0.9000;0.1335;-0.8942;
-0.6000;0.1351;-0.8841;
-0.3000;0.1368;-0.8741;
0.0000;0.1368;-0.8741;
0.3000;0.1327;-0.8942;
0.6000;0.1351;-0.8666;
0.9000;0.1359;-0.8490;
1.2000;0.1400;-0.8239;
1.5000;0.1376;-0.8063;
1.8000;0.1416;-0.7787;
2.1000;0.1441;-0.7510;
2.4000;0.1449;-0.7334;
2.7000;0.1457;-0.7184;
3.0000;0.1481;-0.7033;
3.3000;0.1465;-0.6907;
3.6000;0.1473;-0.6732;
3.9000;0.1368;-0.6958;
4.2000;0.1473;-0.6656;
4.5000;0.1465;-0.6506;
4.8000;0.1473;-0.6355;
5.1000;0.1473;-0.6305;
5.4000;0.1490;-0.6204;
5.7000;0.1481;-0.6229;
6.0000;0.1481;-0.6254;
6.3000;0.1490;-0.6254;
6.6000;0.1498;-0.6254;
6.9000;0.1473;-0.6229;
7.2000;0.1490;-0.6179;
7.5000;0.1481;-0.6179;
7.8000;0.1481;-0.6254;
8.1000;0.1473;-0.6305;
8.4000;0.1490;-0.6330;
8.7000;0.1473;-0.6305;
9.0000;0.1481;-0.6204;
9.3000;0.1473;-0.6204;
9.6000;0.1490;-0.6129;
9.9000;0.1498;-0.6129;
10.2000;0.1457;-0.6179;
10.5000;0.1490;-0.6229;
10.8000;0.1604;-0.5878;
11.1000;0.1490;-0.6179;
11.4000;0.1490;-0.6129;
11.7000;0.1465;-0.6204;
12.0000;0.1457;-0.6229;
12.3000;0.1506;-0.6079;
12.6000;0.1490;-0.6028;
12.9000;0.1490;-0.6079;
13.2000;0.1514;-0.6154;
13.5000;0.1473;-0.6279;
13.8000;0.1490;-0.6305;
14.1000;0.1481;-0.6430;
14.4000;0.1522;-0.6279;
14.7000;0.1498;-0.6305;
15.0000;0.1506;-0.6355;
15.3000;0.1579;-0.6104;
15.6000;0.1538;-0.6279;
15.9000;0.1473;-0.6480;
16.2000;0.1514;-0.6531;
16.5000;0.1473;-0.6581;
16.8000;0.1473;-0.6480;
17.1000;0.1490;-0.6405;
17.4000;0.1490;-0.6455;
17.7000;0.1490;-0.6506;
18.0000;0.1498;-0.6455;
18.3000;0.1514;-0.6355;
18.6000;0.1490;-0.6405;
18.9000;0.1498;-0.6430;
19.2000;0.1498;-0.6355;
19.5000;0.1490;-0.6330;
19.8000;0.1530;-0.6305;
20.1000;0.1514;-0.6330;
20.4000;0.1481;-0.6405;
20.7000;0.1514;-0.6305;
21.0000;0.1473;-0.6305;
21.3000;0.1522;-0.6204;
21.6000;0.1498;-0.6204;
21.9000;0.1457;-0.6330;
22.2000;0.1490;-0.6204;
22.5000;0.1481;-0.6129;
22.8000;0.1490;-0.6229;
23.1000;0.1498;-0.6154;
23.4000;0.1481;-0.6129;
23.7000;0.1506;-0.6079;
24.0000;0.1506;-0.6229;
24.3000;0.1498;-0.6154;
24.6000;0.1481;-0.6129;
24.9000;0.1490;-0.6129;
25.2000;0.1514;-0.6079;
25.5000;0.1457;-0.6204;
25.8000;0.1441;-0.6204;
26.1000;0.1433;-0.6229;
26.4000;0.1555;-0.5852;
26.7000;0.1498;-0.5903;
27.0000;0.1498;-0.5903;
27.3000;0.1498;-0.5953;
27.6000;0.1498;-0.5928;
27.9000;0.1506;-0.5928;
28.2000;0.1498;-0.6003;
28.5000;0.1490;-0.6053;
28.8000;0.1506;-0.6104;
29.1000;0.1490;-0.6079;
29.4000;0.1498;-0.6028;
29.7000;0.1490;-0.6053;
30.0000;0.1506;-0.6104;
30.3000;0.1514;-0.6079;
30.6000;0.1498;-0.6129;
30.9000;0.1449;-0.6305;
31.2000;0.1481;-0.6079;
31.5000;0.1506;-0.6079;
31.8000;0.1538;-0.6053;
32.1000;0.1433;-0.6355;
32.4000;0.1481;-0.6154;
32.7000;0.1400;-0.6355;
33.0000;0.1498;-0.6079;
33.3000;0.1498;-0.6079;
33.6000;0.1498;-0.6129;
33.9000;0.1514;-0.6104;
34.2000;0.1457;-0.6330;
34.5000;0.1465;-0.6254;
34.8000;0.1498;-0.6204;
35.1000;0.1481;-0.6179;
35.4000;0.1481;-0.6204;
35.7000;0.1481;-0.6229;
36.0000;0.1490;-0.6179;
36.3000;0.1481;-0.6204;
36.6000;0.1498;-0.6154;
36.9000;0.1538;-0.5978;
37.2000;0.1481;-0.6104;
37.5000;0.1506;-0.6003;
37.8000;0.1522;-0.6079;
38.1000;0.1490;-0.6104;
38.4000;0.1490;-0.6104;
38.7000;0.1571;-0.5928;
39.0000;0.1481;-0.6154;
39.3000;0.1481;-0.6179;
39.6000;0.1563;-0.5978;
39.9000;0.1490;-0.6204;
40.2000;0.1490;-0.6254;
40.5000;0.1490;-0.6330;
40.8000;0.1490;-0.6330;
41.1000;0.1481;-0.6355;
41.4000;0.1498;-0.6179;
41.7000;0.1506;-0.6229;
42.0000;0.1498;-0.6204;
42.3000;0.1481;-0.6129;
42.6000;0.1506;-0.6003;
42.9000;0.1490;-0.5953;
43.2000;0.1481;-0.6028;
43.5000;0.1490;-0.6154;
43.8000;0.1481;-0.6179;
44.1000;0.1465;-0.6154;
44.4000;0.1506;-0.6053;
44.7000;0.1457;-0.6305;
45.0000;0.1490;-0.6254;
45.3000;0.1465;-0.6380;
45.6000;0.1490;-0.6305;
45.9000;0.1473;-0.6355;
46.2000;0.1490;-0.6355;
46.5000;0.1506;-0.6254;
46.8000;0.1498;-0.6254;
47.1000;0.1514;-0.6305;
47.4000;0.1506;-0.6279;
47.7000;0.1473;-0.6229;
48.0000;0.1498;-0.6179;
48.3000;0.1425;-0.6279;
48.6000;0.1473;-0.6204;
48.9000;0.1473;-0.6104;
49.2000;0.1441;-0.6330;
49.5000;0.1457;-0.6405;
49.8000;0.1571;-0.6053;
50.1000;0.1506;-0.6179;
50.4000;0.1506;-0.6154;
50.7000;0.1465;-0.6254;
51.0000;0.1465;-0.6355;
51.3000;0.1465;-0.6355;
51.6000;0.1498;-0.6229;
51.9000;0.1490;-0.6254;
52.2000;0.1514;-0.6204;
52.5000;0.1498;-0.6179;
52.8000;0.1498;-0.6204;
53.1000;0.1522;-0.6079;
53.4000;0.1465;-0.6229;
53.7000;0.1481;-0.6254;
54.0000;0.1490;-0.6279;
54.3000;0.1473;-0.6380;
54.6000;0.1506;-0.6279;
54.9000;0.1490;-0.6279;
55.2000;0.1514;-0.6053;
55.5000;0.1441;-0.6154;
55.8000;0.1498;-0.6028;
56.1000;0.1425;-0.6179;
56.4000;0.1481;-0.5953;
56.7000;0.1441;-0.6154;
57.0000;0.1506;-0.6003;
57.3000;0.1506;-0.5928;
57.6000;0.1498;-0.6003;
57.9000;0.1522;-0.6028;
58.2000;0.1530;-0.5978;
58.5000;0.1530;-0.5928;
58.8000;0.1498;-0.6104;
59.1000;0.1547;-0.5978;
59.4000;0.1547;-0.5928;
59.7000;0.1514;-0.6028;
60.0000;0.1514;-0.5978;
60.3000;0.1490;-0.6053;
60.6000;0.1457;-0.6229;
60.9000;0.1481;-0.6204;
61.2000;0.1481;-0.6179;
61.5000;0.1490;-0.6154;
61.8000;0.1490;-0.6104;
62.1000;0.1514;-0.6053;
62.4000;0.1481;-0.6129;
62.7000;0.1498;-0.6129;
63.0000;0.1490;-0.6129;
63.3000;0.1514;-0.6154;
63.6000;0.1498;-0.6154;
63.9000;0.1481;-0.6204;
64.2000;0.1490;-0.6104;
64.5000;0.1538;-0.5928;
64.8000;0.1498;-0.6003;
65.1000;0.1498;-0.6028;
65.4000;0.1481;-0.6053;
65.7000;0.1490;-0.6079;
66.0000;0.1481;-0.6129;
66.3000;0.1490;-0.6154;
66.6000;0.1498;-0.6154;
66.9000;0.1490;-0.6154;
67.2000;0.1498;-0.6179;
67.5000;0.1481;-0.6229;
67.8000;0.1490;-0.6254;
68.1000;0.1498;-0.6179;
68.4000;0.1506;-0.6053;
68.7000;0.1457;-0.6229;
69.0000;0.1506;-0.6079;
69.3000;0.1465;-0.6154;
69.6000;0.1498;-0.6104;
69.9000;0.1425;-0.6229;
70.2000;0.1465;-0.6154;
70.5000;0.1506;-0.6104;
70.8000;0.1490;-0.6179;
71.1000;0.1473;-0.6204;
71.4000;0.1457;-0.6229;
71.7000;0.1473;-0.6154;
72.0000;0.1481;-0.6104;
72.3000;0.1481;-0.6028;
72.6000;0.1384;-0.6305;
72.9000;0.1465;-0.6028;
73.2000;0.1498;-0.5928;
73.5000;0.1498;-0.5903;
73.8000;0.1490;-0.5978;
74.1000;0.1498;-0.5978;
74.4000;0.1522;-0.5953;
74.7000;0.1514;-0.6028;
75.0000;0.1481;-0.6079;
75.3000;0.1498;-0.6028;
75.6000;0.1481;-0.6028;
75.9000;0.1498;-0.5928;
76.2000;0.1473;-0.5953;
76.5000;0.1481;-0.5953;
76.8000;0.1506;-0.5978;
77.1000;0.1490;-0.5928;
77.4000;0.1473;-0.6003;
77.7000;0.1490;-0.6079;
78.0000;0.1498;-0.6053;
78.3000;0.1514;-0.5978;
78.6000;0.1481;-0.6129;
78.9000;0.1441;-0.6305;
79.2000;0.1506;-0.6154;
79.5000;0.1481;-0.6154;
79.8000;0.1490;-0.6129;
80.1000;0.1555;-0.5953;
80.4000;0.1481;-0.6079;
80.7000;0.1514;-0.6003;
81.0000;0.1490;-0.5978;
81.3000;0.1473;-0.6104;
81.6000;0.1481;-0.6129;
81.9000;0.1481;-0.6154;
82.2000;0.1490;-0.6129;
82.5000;0.1490;-0.6104;
82.8000;0.1522;-0.6003;
83.1000;0.1490;-0.6129;
83.4000;0.1498;-0.6154;
83.7000;0.1490;-0.6204;
84.0000;0.1441;-0.6380;
84.3000;0.1465;-0.6204;
84.6000;0.1506;-0.6003;
84.9000;0.1457;-0.6028;
85.2000;0.1506;-0.5878;
85.5000;0.1481;-0.5953;
85.8000;0.1481;-0.5928;
86.1000;0.1481;-0.5878;
86.4000;0.1490;-0.5852;
86.7000;0.1481;-0.5928;
87.0000;0.1490;-0.5852;
87.3000;0.1498;-0.5903;
87.6000;0.1555;-0.5802;
87.9000;0.1490;-0.5978;
88.2000;0.1506;-0.6028;
88.5000;0.1490;-0.6229;
88.8000;0.1490;-0.6229;
89.1000;0.1465;-0.6254;
89.4000;0.1498;-0.6129;
89.7000;0.1514;-0.6179;
90.0000;0.1400;-0.6556;
90.3000;0.1481;-0.6254;
90.6000;0.1481;-0.6229;
90.9000;0.1506;-0.6154;
91.2000;0.1490;-0.6154;
91.5000;0.1473;-0.6179;
91.8000;0.1473;-0.6179;
92.1000;0.1457;-0.6254;
92.4000;0.1498;-0.6053;
92.7000;0.1465;-0.6179;
93.0000;0.1498;-0.6104;
93.3000;0.1392;-0.6330;
93.6000;0.1473;-0.6154;
93.9000;0.1481;-0.6104;
94.2000;0.1498;-0.5978;
94.5000;0.1416;-0.6179;
94.8000;0.1416;-0.6305;
95.1000;0.1473;-0.6154;
95.4000;0.1481;-0.6129;
95.7000;0.1433;-0.6204;
96.0000;0.1530;-0.5978;
96.3000;0.1457;-0.6229;
96.6000;0.1457;-0.6229;
96.9000;0.1457;-0.6229;
97.2000;0.1490;-0.6154;
97.5000;0.1481;-0.6129;
97.8000;0.1522;-0.6003;
98.1000;0.1498;-0.6079;
98.4000;0.1473;-0.6129;
98.7000;0.1498;-0.6028;
99.0000;0.1490;-0.6079;
99.3000;0.1498;-0.6179;
99.6000;0.1498;-0.6154;
99.9000;0.1506;-0.6104;
100.2000;0.1498;-0.6104;
100.5000;0.1473;-0.6104;
100.8000;0.1465;-0.6154;
101.1000;0.1473;-0.6204;
101.4000;0.1498;-0.6154;
101.7000;0.1490;-0.6254;
102.0000;0.1506;-0.6305;
102.3000;0.1473;-0.6305;
102.6000;0.1473;-0.6254;
102.9000;0.1481;-0.6204;
103.2000;0.1490;-0.6204;
103.5000;0.1506;-0.6204;
103.8000;0.1514;-0.6179;
104.1000;0.1506;-0.6229;
104.4000;0.1490;-0.6229;
104.7000;0.1481;-0.6305;
105.0000;0.1555;-0.6154;
105.3000;0.1490;-0.6330;
105.6000;0.1481;-0.6330;
105.9000;0.1490;-0.6305;
106.2000;0.1441;-0.6380;
106.5000;0.1514;-0.6154;
106.8000;0.1473;-0.6330;
107.1000;0.1465;-0.6330;
107.4000;0.1433;-0.6480;
107.7000;0.1481;-0.6355;
108.0000;0.1465;-0.6279;
108.3000;0.1481;-0.6204;
108.6000;0.1408;-0.6455;
108.9000;0.1514;-0.6179;
109.2000;0.1498;-0.6305;
109.5000;0.1441;-0.6455;
109.8000;0.1490;-0.6305;
110.1000;0.1490;-0.6229;
110.4000;0.1498;-0.6254;
110.7000;0.1465;-0.6430;
111.0000;0.1465;-0.6455;
111.3000;0.1481;-0.6405;
111.6000;0.1449;-0.6531;
111.9000;0.1506;-0.6506;
112.2000;0.1506;-0.6455;
112.5000;0.1465;-0.6556;
112.8000;0.1506;-0.6405;
113.1000;0.1506;-0.6330;
113.4000;0.1490;-0.6330;
113.7000;0.1530;-0.6129;
114.0000;0.1514;-0.6154;
114.3000;0.1514;-0.6204;
114.6000;0.1490;-0.6254;
114.9000;0.1473;-0.6254;
115.2000;0.1481;-0.6154;
115.5000;0.1498;-0.6104;
115.8000;0.1490;-0.6129;
116.1000;0.1473;-0.6104;
116.4000;0.1498;-0.6028;
116.7000;0.1481;-0.6129;
117.0000;0.1481;-0.6254;
117.3000;0.1514;-0.6129;
117.6000;0.1490;-0.6079;
117.9000;0.1498;-0.6129;
118.2000;0.1490;-0.6104;
118.5000;0.1433;-0.6229;
118.8000;0.1490;-0.6003;
119.1000;0.1506;-0.5978;
119.4000;0.1498;-0.5978;
119.7000;0.1481;-0.6079;
120.0000;0.1498;-0.6129;
120.3000;0.1506;-0.6154;
120.6000;0.1465;-0.6129;
120.9000;0.1481;-0.6154;
121.2000;0.1481;-0.6104;
121.5000;0.1457;-0.6104;
121.8000;0.1506;-0.6003;
122.1000;0.1498;-0.6003;
122.4000;0.1473;-0.6229;
122.7000;0.1473;-0.6355;
123.0000;0.1490;-0.6305;
123.3000;0.1490;-0.6355;
123.6000;0.1514;-0.6330;
123.9000;0.1506;-0.6480;
124.2000;0.1506;-0.6455;
124.5000;0.1506;-0.6480;
124.8000;0.1498;-0.6430;
125.1000;0.1465;-0.6631;
125.4000;0.1563;-0.6355;
125.7000;0.1506;-0.6455;
126.0000;0.1490;-0.6430;
126.3000;0.1490;-0.6405;
126.6000;0.1530;-0.6330;
126.9000;0.1481;-0.6455;
127.2000;0.1498;-0.6430;
127.5000;0.1481;-0.6531;
127.8000;0.1481;-0.6531;
128.1000;0.1498;-0.6581;
128.4000;0.1457;-0.6656;
128.7000;0.1490;-0.6606;
129.0000;0.1506;-0.6430;
129.3000;0.1506;-0.6355;
129.6000;0.1506;-0.6279;
129.9000;0.1498;-0.6330;
130.2000;0.1498;-0.6254;
130.5000;0.1498;-0.6254;
130.8000;0.1481;-0.6330;
131.1000;0.1506;-0.6279;
131.4000;0.1425;-0.6430;
131.7000;0.1473;-0.6355;
132.0000;0.1473;-0.6380;
132.3000;0.1473;-0.6430;
132.6000;0.1425;-0.6506;
132.9000;0.1498;-0.6229;
133.2000;0.1498;-0.6129;
133.5000;0.1473;-0.6129;
133.8000;0.1514;-0.6104;
134.1000;0.1547;-0.5928;
134.4000;0.1498;-0.6129;
134.7000;0.1473;-0.6129;
135.0000;0.1481;-0.6179;
135.3000;0.1498;-0.6154;
135.6000;0.1498;-0.6129;
135.9000;0.1530;-0.6028;
136.2000;0.1498;-0.6079;
136.5000;0.1481;-0.6104;
136.8000;0.1498;-0.6053;
137.1000;0.1506;-0.6053;
137.4000;0.1522;-0.6003;
137.7000;0.1457;-0.6079;
138.0000;0.1506;-0.6079;
138.3000;0.1498;-0.6179;
138.6000;0.1473;-0.6204;
138.9000;0.1498;-0.6204;
139.2000;0.1506;-0.6154;
139.5000;0.1481;-0.6229;
139.8000;0.1490;-0.6104;
140.1000;0.1498;-0.6079;
140.4000;0.1449;-0.6254;
140.7000;0.1498;-0.6204;
141.0000;0.1481;-0.6204;
141.3000;0.1490;-0.6179;
141.6000;0.1481;-0.6154;
141.9000;0.1490;-0.6305;
142.2000;0.1498;-0.6279;
142.5000;0.1490;-0.6355;
142.8000;0.1481;-0.6380;
143.1000;0.1481;-0.6455;
143.4000;0.1473;-0.6430;
143.7000;0.1490;-0.6355;
144.0000;0.1481;-0.6279;
144.3000;0.1481;-0.6305;
144.6000;0.1498;-0.6204;
144.9000;0.1498;-0.6254;
145.2000;0.1490;-0.6254;
145.5000;0.1481;-0.6254;
145.8000;0.1579;-0.5928;
146.1000;0.1498;-0.6079;
146.4000;0.1490;-0.6028;
146.7000;0.1465;-0.6079;
147.0000;0.1481;-0.6028;
147.3000;0.1506;-0.5978;
147.6000;0.1522;-0.6028;
147.9000;0.1473;-0.6254;
148.2000;0.1587;-0.5978;
148.5000;0.1473;-0.6279;
148.8000;0.1481;-0.6305;
149.1000;0.1498;-0.6254;
149.4000;0.1506;-0.6279;
149.7000;0.1498;-0.6229;
150.0000;0.1498;-0.6279;
150.3000;0.1498;-0.6254;
150.6000;0.1441;-0.6305;
150.9000;0.1490;-0.6129;
151.2000;0.1498;-0.6154;
151.5000;0.1490;-0.6204;
151.8000;0.1473;-0.6229;
152.1000;0.1473;-0.6229;
152.4000;0.1457;-0.6254;
152.7000;0.1481;-0.6279;
153.0000;0.1490;-0.6330;
153.3000;0.1506;-0.6229;
153.6000;0.1490;-0.6204;
153.9000;0.1481;-0.6380;
154.2000;0.1490;-0.6380;
154.5000;0.1514;-0.6254;
154.8000;0.1490;-0.6380;
155.1000;0.1490;-0.6455;
155.4000;0.1490;-0.6455;
155.7000;0.1481;-0.6430;
156.0000;0.1481;-0.6480;
156.3000;0.1465;-0.6480;
156.6000;0.1481;-0.6380;
156.9000;0.1425;-0.6606;
157.2000;0.1490;-0.6405;
157.5000;0.1465;-0.6506;
157.8000;0.1506;-0.6531;
158.1000;0.1481;-0.6506;
158.4000;0.1481;-0.6480;
158.7000;0.1506;-0.6455;
159.0000;0.1498;-0.6380;
159.3000;0.1498;-0.6305;
159.6000;0.1490;-0.6430;
159.9000;0.1498;-0.6405;
160.2000;0.1490;-0.6405;
160.5000;0.1490;-0.6355;
160.8000;0.1481;-0.6380;
161.1000;0.1473;-0.6380;
161.4000;0.1506;-0.6229;
161.7000;0.1490;-0.6305;
162.0000;0.1506;-0.6204;
162.3000;0.1490;-0.6254;
162.6000;0.1498;-0.6154;
162.9000;0.1481;-0.6330;
163.2000;0.1498;-0.6254;
163.5000;0.1498;-0.6279;
163.8000;0.1433;-0.6380;
164.1000;0.1481;-0.6279;
164.4000;0.1514;-0.6129;
164.7000;0.1465;-0.6204;
165.0000;0.1506;-0.6104;
165.3000;0.1514;-0.6129;
165.6000;0.1416;-0.6305;
165.9000;0.1481;-0.6204;
166.2000;0.1514;-0.6179;
166.5000;0.1433;-0.6305;
166.8000;0.1473;-0.6179;
167.1000;0.1481;-0.6129;
167.4000;0.1522;-0.6079;
167.7000;0.1481;-0.6154;
168.0000;0.1490;-0.6053;
168.3000;0.1465;-0.6254;
168.6000;0.1506;-0.6154;
168.9000;0.1481;-0.6279;
169.2000;0.1490;-0.6305;
169.5000;0.1490;-0.6305;
169.8000;0.1498;-0.6330;
170.1000;0.1530;-0.6154;
170.4000;0.1547;-0.6028;
170.7000;0.1473;-0.6154;
171.0000;0.1425;-0.6380;
171.3000;0.1441;-0.6355;
171.6000;0.1481;-0.6279;
171.9000;0.1506;-0.6104;
172.2000;0.1433;-0.6305;
172.5000;0.1481;-0.6179;
172.8000;0.1490;-0.6129;
173.1000;0.1490;-0.6104;
173.4000;0.1498;-0.6154;
173.7000;0.1449;-0.6229;
174.0000;0.1481;-0.6053;
174.3000;0.1481;-0.6104;
174.6000;0.1481;-0.6154;
174.9000;0.1490;-0.6254;
175.2000;0.1547;-0.6104;
175.5000;0.1490;-0.6254;
175.8000;0.1457;-0.6380;
176.1000;0.1457;-0.6405;
176.4000;0.1506;-0.6305;
176.7000;0.1481;-0.6254;
177.0000;0.1490;-0.6229;
177.3000;0.1481;-0.6279;
177.6000;0.1506;-0.6279;
177.9000;0.1473;-0.6279;
178.2000;0.1481;-0.6229;
178.5000;0.1433;-0.6279;
178.8000;0.1473;-0.6179;
179.1000;0.1490;-0.6104;
179.4000;0.1498;-0.6028;
179.7000;0.1481;-0.6053;
180.0000;0.1490;-0.5953;
180.3000;0.1498;-0.5953;
180.6000;0.1490;-0.5953;
180.9000;0.1481;-0.6003;
181.2000;0.1514;-0.5953;
181.5000;0.1514;-0.6003;
181.8000;0.1506;-0.6028;
182.1000;0.1392;-0.6305;
182.4000;0.1473;-0.6079;
182.7000;0.1538;-0.5953;
183.0000;0.1392;-0.6380;
183.3000;0.1490;-0.6154;
183.6000;0.1506;-0.6028;
183.9000;0.1481;-0.6129;
184.2000;0.1481;-0.6204;
184.5000;0.1481;-0.6179;
184.8000;0.1465;-0.6229;
185.1000;0.1465;-0.6204;
185.4000;0.1481;-0.6079;
185.7000;0.1465;-0.6104;
186.0000;0.1465;-0.6104;
186.3000;0.1530;-0.5928;
186.6000;0.1498;-0.6079;
186.9000;0.1490;-0.6104;
187.2000;0.1457;-0.6179;
187.5000;0.1522;-0.6104;
187.8000;0.1465;-0.6154;
188.1000;0.1473;-0.6204;
188.4000;0.1481;-0.6254;
188.7000;0.1490;-0.6204;
189.0000;0.1514;-0.6129;
189.3000;0.1490;-0.6154;
189.6000;0.1465;-0.6129;
189.9000;0.1473;-0.6079;
190.2000;0.1473;-0.6003;
190.5000;0.1490;-0.5928;
190.8000;0.1465;-0.6053;
191.1000;0.1449;-0.6104;
191.4000;0.1498;-0.6003;
191.7000;0.1473;-0.6079;
192.0000;0.1498;-0.6053;
192.3000;0.1465;-0.6179;
192.6000;0.1490;-0.6129;
192.9000;0.1473;-0.6204;
193.2000;0.1465;-0.6330;
193.5000;0.1465;-0.6380;
193.8000;0.1579;-0.6129;
194.1000;0.1490;-0.6254;
194.4000;0.1498;-0.6229;
194.7000;0.1506;-0.6179;
195.0000;0.1465;-0.6380;
195.3000;0.1473;-0.6355;
195.6000;0.1481;-0.6279;
195.9000;0.1506;-0.6229;
196.2000;0.1490;-0.6279;
196.5000;0.1481;-0.6305;
196.8000;0.1498;-0.6279;
197.1000;0.1441;-0.6430;
197.4000;0.1522;-0.6355;
197.7000;0.1473;-0.6455;
198.0000;0.1498;-0.6330;
198.3000;0.1465;-0.6405;
198.6000;0.1433;-0.6506;
198.9000;0.1490;-0.6305;
199.2000;0.1473;-0.6279;
199.5000;0.1498;-0.6154;
199.8000;0.1490;-0.6154;
200.1000;0.1481;-0.6254;
200.4000;0.1465;-0.6305;
200.7000;0.1473;-0.6355;
201.0000;0.1465;-0.6279;
201.3000;0.1473;-0.6279;
201.6000;0.1481;-0.6305;
201.9000;0.1498;-0.6204;
202.2000;0.1490;-0.6204;
202.5000;0.1522;-0.6154;
202.8000;0.1490;-0.6254;
203.1000;0.1522;-0.6204;
203.4000;0.1490;-0.6305;
203.7000;0.1449;-0.6355;
204.0000;0.1498;-0.6154;
204.3000;0.1506;-0.6104;
204.6000;0.1481;-0.6204;
204.9000;0.1425;-0.6405;
205.2000;0.1498;-0.6330;
205.5000;0.1490;-0.6380;
205.8000;0.1514;-0.6355;
206.1000;0.1457;-0.6405;
206.4000;0.1490;-0.6355;
206.7000;0.1498;-0.6330;
207.0000;0.1481;-0.6305;
207.3000;0.1498;-0.6279;
207.6000;0.1473;-0.6279;
207.9000;0.1506;-0.6229;
208.2000;0.1506;-0.6229;
208.5000;0.1481;-0.6254;
208.8000;0.1425;-0.6355;
209.1000;0.1490;-0.6179;
209.4000;0.1490;-0.6204;
209.7000;0.1498;-0.6104;
210.0000;0.1490;-0.6079;
210.3000;0.1579;-0.5802;
210.6000;0.1530;-0.5928;
210.9000;0.1481;-0.6053;
211.2000;0.1498;-0.6129;
211.5000;0.1481;-0.6129;
211.8000;0.1490;-0.6079;
212.1000;0.1490;-0.6129;
212.4000;0.1457;-0.6305;
212.7000;0.1473;-0.6279;
213.0000;0.1465;-0.6330;
213.3000;0.1579;-0.6028;
213.6000;0.1449;-0.6506;
213.9000;0.1498;-0.6380;
214.2000;0.1473;-0.6405;
214.5000;0.1490;-0.6380;
214.8000;0.1498;-0.6355;
215.1000;0.1530;-0.6229;
215.4000;0.1498;-0.6279;
215.7000;0.1498;-0.6229;
216.0000;0.1490;-0.6254;
216.3000;0.1490;-0.6380;
216.6000;0.1490;-0.6330;
216.9000;0.1498;-0.6305;
217.2000;0.1506;-0.6305;
217.5000;0.1481;-0.6330;
217.8000;0.1490;-0.6355;
218.1000;0.1522;-0.6204;
218.4000;0.1490;-0.6229;
218.7000;0.1465;-0.6380;
219.0000;0.1473;-0.6380;
219.3000;0.1498;-0.6380;
219.6000;0.1571;-0.6279;
219.9000;0.1498;-0.6480;
220.2000;0.1498;-0.6480;
220.5000;0.1490;-0.6480;
220.8000;0.1473;-0.6455;
221.1000;0.1473;-0.6380;
221.4000;0.1490;-0.6355;
221.7000;0.1433;-0.6506;
222.0000;0.1481;-0.6430;
222.3000;0.1465;-0.6506;
222.6000;0.1481;-0.6506;
222.9000;0.1425;-0.6556;
223.2000;0.1514;-0.6405;
223.5000;0.1490;-0.6355;
223.8000;0.1587;-0.6154;
224.1000;0.1441;-0.6480;
224.4000;0.1481;-0.6330;
224.7000;0.1457;-0.6430;
225.0000;0.1465;-0.6380;
225.3000;0.1473;-0.6305;
225.6000;0.1538;-0.6254;
225.9000;0.1481;-0.6355;
226.2000;0.1538;-0.6154;
226.5000;0.1457;-0.6279;
226.8000;0.1465;-0.6330;
227.1000;0.1416;-0.6480;
227.4000;0.1473;-0.6330;
227.7000;0.1457;-0.6305;
228.0000;0.1490;-0.6179;
228.3000;0.1481;-0.6179;
228.6000;0.1473;-0.6229;
228.9000;0.1465;-0.6305;
229.2000;0.1481;-0.6279;
229.5000;0.1498;-0.6330;
229.8000;0.1490;-0.6355;
230.1000;0.1522;-0.6330;
230.4000;0.1490;-0.6279;
230.7000;0.1481;-0.6305;
231.0000;0.1498;-0.6305;
231.3000;0.1457;-0.6455;
231.6000;0.1490;-0.6380;
231.9000;0.1481;-0.6330;
232.2000;0.1473;-0.6305;
232.5000;0.1481;-0.6254;
232.8000;0.1473;-0.6305;
233.1000;0.1449;-0.6355;
233.4000;0.1481;-0.6254;
233.7000;0.1530;-0.6179;
234.0000;0.1498;-0.6305;
234.3000;0.1498;-0.6305;
234.6000;0.1490;-0.6279;
234.9000;0.1490;-0.6330;
235.2000;0.1490;-0.6279;
235.5000;0.1481;-0.6279;
235.8000;0.1473;-0.6254;
236.1000;0.1506;-0.6154;
236.4000;0.1481;-0.6204;
236.7000;0.1473;-0.6279;
237.0000;0.1547;-0.6129;
237.3000;0.1457;-0.6480;
237.6000;0.1465;-0.6355;
237.9000;0.1473;-0.6380;
238.2000;0.1481;-0.6380;
238.5000;0.1490;-0.6305;
238.8000;0.1490;-0.6179;
239.1000;0.1481;-0.6104;
239.4000;0.1465;-0.6154;
239.7000;0.1498;-0.6129;
240.0000;0.1473;-0.6204;
240.3000;0.1490;-0.6204;
240.6000;0.1481;-0.6254;
240.9000;0.1498;-0.6204;
241.2000;0.1506;-0.6003;
241.5000;0.1481;-0.6079;
241.8000;0.1490;-0.6003;
242.1000;0.1457;-0.6028;
242.4000;0.1481;-0.6053;
242.7000;0.1498;-0.6154;
243.0000;0.1506;-0.6204;
243.3000;0.1465;-0.6355;
243.6000;0.1490;-0.6279;
243.9000;0.1465;-0.6279;
244.2000;0.1563;-0.6079;
244.5000;0.1481;-0.6330;
244.8000;0.1522;-0.6229;
245.1000;0.1538;-0.6154;
245.4000;0.1498;-0.6154;
245.7000;0.1473;-0.6129;
246.0000;0.1473;-0.6129;
246.3000;0.1465;-0.6154;
246.6000;0.1506;-0.6104;
246.9000;0.1425;-0.6254;
247.2000;0.1628;-0.5727;
247.5000;0.1522;-0.6053;
247.8000;0.1538;-0.5978;
248.1000;0.1457;-0.6179;
248.4000;0.1490;-0.6028;
248.7000;0.1547;-0.5878;
249.0000;0.1522;-0.5953;
249.3000;0.1498;-0.6003;
249.6000;0.1473;-0.6028;
249.9000;0.1490;-0.5978;
250.2000;0.1547;-0.5827;
250.5000;0.1449;-0.6104;
250.8000;0.1465;-0.6104;
251.1000;0.1473;-0.6129;
251.4000;0.1490;-0.6104;
251.7000;0.1449;-0.6229;
252.0000;0.1481;-0.6104;
252.3000;0.1457;-0.6129;
252.6000;0.1473;-0.6053;
252.9000;0.1490;-0.6104;
253.2000;0.1490;-0.6028;
253.5000;0.1547;-0.5852;
253.8000;0.1481;-0.6104;
254.1000;0.1481;-0.6053;
254.4000;0.1490;-0.6104;
254.7000;0.1506;-0.6179;
255.0000;0.1506;-0.6179;
255.3000;0.1522;-0.6204;
255.6000;0.1514;-0.6229;
255.9000;0.1498;-0.6279;
256.2000;0.1498;-0.6330;
256.5000;0.1490;-0.6305;
256.8000;0.1481;-0.6204;
257.1000;0.1498;-0.6204;
257.4000;0.1473;-0.6279;
257.7000;0.1473;-0.6254;
258.0000;0.1473;-0.6129;
258.3000;0.1425;-0.6154;
258.6000;0.1465;-0.6104;
258.9000;0.1465;-0.6154;
259.2000;0.1490;-0.6204;
259.5000;0.1441;-0.6305;
259.8000;0.1481;-0.6279;
260.1000;0.1473;-0.6355;
260.4000;0.1490;-0.6355;
260.7000;0.1481;-0.6305;
261.0000;0.1490;-0.6179;
261.3000;0.1481;-0.6204;
261.6000;0.1473;-0.6229;
261.9000;0.1490;-0.6254;
262.2000;0.1473;-0.6330;
262.5000;0.1465;-0.6305;
262.8000;0.1457;-0.6380;
263.1000;0.1465;-0.6330;
263.4000;0.1457;-0.6405;
263.7000;0.1457;-0.6380;
264.0000;0.1473;-0.6330;
264.3000;0.1490;-0.6229;
264.6000;0.1498;-0.6229;
264.9000;0.1490;-0.6229;
265.2000;0.1465;-0.6229;
265.5000;0.1490;-0.6179;
265.8000;0.1441;-0.6355;
266.1000;0.1473;-0.6355;
266.4000;0.1514;-0.6204;
266.7000;0.1490;-0.6254;
267.0000;0.1490;-0.6204;
267.3000;0.1425;-0.6430;
267.6000;0.1392;-0.6506;
267.9000;0.1490;-0.6355;
268.2000;0.1481;-0.6279;
268.5000;0.1514;-0.6204;
268.8000;0.1555;-0.6053;
269.1000;0.1490;-0.6204;
269.4000;0.1490;-0.6229;
269.7000;0.1490;-0.6254;
270.0000;0.1473;-0.6254;
270.3000;0.1571;-0.6053;
270.6000;0.1506;-0.6129;
270.9000;0.1490;-0.6204;
271.2000;0.1490;-0.6179;
271.5000;0.1433;-0.6330;
271.8000;0.1498;-0.6229;
272.1000;0.1449;-0.6330;
272.4000;0.1522;-0.6104;
272.7000;0.1473;-0.6305;
273.0000;0.1506;-0.6229;
273.3000;0.1490;-0.6154;
273.6000;0.1498;-0.6154;
273.9000;0.1465;-0.6129;
274.2000;0.1473;-0.6129;
274.5000;0.1490;-0.6179;
274.8000;0.1473;-0.6229;
275.1000;0.1481;-0.6204;
275.4000;0.1506;-0.6154;
275.7000;0.1490;-0.6254;
276.0000;0.1490;-0.6229;
276.3000;0.1506;-0.6330;
276.6000;0.1481;-0.6355;
276.9000;0.1498;-0.6254;
277.2000;0.1441;-0.6430;
277.5000;0.1481;-0.6380;
277.8000;0.1481;-0.6480;
278.1000;0.1481;-0.6380;
278.4000;0.1514;-0.6254;
278.7000;0.1457;-0.6355;
279.0000;0.1498;-0.6330;
279.3000;0.1490;-0.6380;
279.6000;0.1555;-0.6204;
279.9000;0.1498;-0.6254;
280.2000;0.1498;-0.6229;
280.5000;0.1490;-0.6179;
280.8000;0.1522;-0.6104;
281.1000;0.1473;-0.6154;
281.4000;0.1490;-0.6254;
281.7000;0.1522;-0.6229;
282.0000;0.1465;-0.6279;
282.3000;0.1465;-0.6204;
282.6000;0.1449;-0.6229;
282.9000;0.1498;-0.6104;
283.2000;0.1465;-0.6053;
283.5000;0.1433;-0.6129;
283.8000;0.1490;-0.6129;
284.1000;0.1473;-0.6254;
284.4000;0.1498;-0.6254;
284.7000;0.1481;-0.6305;
285.0000;0.1481;-0.6305;
285.3000;0.1465;-0.6330;
285.6000;0.1498;-0.6330;
285.9000;0.1473;-0.6405;
286.2000;0.1481;-0.6355;
286.5000;0.1465;-0.6430;
286.8000;0.1498;-0.6330;
287.1000;0.1457;-0.6405;
287.4000;0.1490;-0.6279;
287.7000;0.1506;-0.6229;
288.0000;0.1481;-0.6330;
288.3000;0.1514;-0.6204;
288.6000;0.1481;-0.6305;
288.9000;0.1506;-0.6380;
289.2000;0.1498;-0.6405;
289.5000;0.1490;-0.6480;
289.8000;0.1481;-0.6581;
290.1000;0.1587;-0.6305;
290.4000;0.1498;-0.6606;
290.7000;0.1498;-0.6506;
291.0000;0.1481;-0.6455;
291.3000;0.1433;-0.6581;
291.6000;0.1481;-0.6455;
291.9000;0.1457;-0.6581;
292.2000;0.1490;-0.6430;
292.5000;0.1473;-0.6405;
292.8000;0.1473;-0.6380;
293.1000;0.1457;-0.6330;
293.4000;0.1481;-0.6229;
293.7000;0.1457;-0.6229;
294.0000;0.1473;-0.6254;
294.3000;0.1473;-0.6279;
294.6000;0.1473;-0.6204;
294.9000;0.1481;-0.6330;
295.2000;0.1547;-0.6179;
295.5000;0.1473;-0.6380;
295.8000;0.1449;-0.6305;
296.1000;0.1465;-0.6305;
296.4000;0.1465;-0.6305;
296.7000;0.1473;-0.6330;
297.0000;0.1587;-0.6079;
297.3000;0.1490;-0.6330;
297.6000;0.1481;-0.6279;
297.9000;0.1457;-0.6531;
298.2000;0.1473;-0.6430;
298.5000;0.1473;-0.6380;
298.8000;0.1490;-0.6330;
299.1000;0.1473;-0.6279;
299.4000;0.1481;-0.6330;
299.7000;0.1481;-0.6380;
300.0000;0.1498;-0.6330;
300.3000;0.1473;-0.6430;
300.6000;0.1490;-0.6430;
300.9000;0.1498;-0.6430;
301.2000;0.1563;-0.6330;
301.5000;0.1473;-0.6631;
301.8000;0.1490;-0.6506;
302.1000;0.1490;-0.6380;
302.4000;0.1449;-0.6405;
302.7000;0.1490;-0.6330;
303.0000;0.1465;-0.6480;
303.3000;0.1416;-0.6606;
303.6000;0.1490;-0.6455;
303.9000;0.1473;-0.6506;
304.2000;0.1522;-0.6380;
304.5000;0.1490;-0.6405;
304.8000;0.1481;-0.6355;
305.1000;0.1457;-0.6305;
305.4000;0.1457;-0.6279;
305.7000;0.1506;-0.6079;
306.0000;0.1506;-0.6053;
306.3000;0.1465;-0.6229;
306.6000;0.1473;-0.6154;
306.9000;0.1481;-0.6129;
307.2000;0.1481;-0.6204;
307.5000;0.1473;-0.6355;
307.8000;0.1473;-0.6430;
308.1000;0.1481;-0.6430;
308.4000;0.1490;-0.6405;
308.7000;0.1481;-0.6430;
309.0000;0.1481;-0.6506;
309.3000;0.1465;-0.6531;
309.6000;0.1473;-0.6455;
309.9000;0.1481;-0.6305;
310.2000;0.1481;-0.6305;
310.5000;0.1498;-0.6279;
310.8000;0.1481;-0.6355;
311.1000;0.1498;-0.6229;
311.4000;0.1465;-0.6355;
311.7000;0.1498;-0.6355;
312.0000;0.1441;-0.6506;
312.3000;0.1506;-0.6279;
312.6000;0.1481;-0.6380;
312.9000;0.1506;-0.6405;
313.2000;0.1441;-0.6606;
313.5000;0.1473;-0.6430;
313.8000;0.1473;-0.6430;
314.1000;0.1522;-0.6279;
314.4000;0.1481;-0.6430;
314.7000;0.1473;-0.6455;
315.0000;0.1490;-0.6405;
315.3000;0.1465;-0.6556;
315.6000;0.1481;-0.6531;
315.9000;0.1457;-0.6556;
316.2000;0.1490;-0.6430;
316.5000;0.1441;-0.6556;
316.8000;0.1490;-0.6380;
317.1000;0.1481;-0.6430;
317.4000;0.1498;-0.6355;
317.7000;0.1498;-0.6380;
318.0000;0.1457;-0.6506;
318.3000;0.1481;-0.6506;
318.6000;0.1465;-0.6556;
318.9000;0.1465;-0.6430;
319.2000;0.1473;-0.6380;
319.5000;0.1490;-0.6330;
319.8000;0.1490;-0.6279;
320.1000;0.1506;-0.6305;
320.4000;0.1490;-0.6305;
320.7000;0.1433;-0.6430;
321.0000;0.1490;-0.6279;
321.3000;0.1473;-0.6254;
321.6000;0.1481;-0.6305;
321.9000;0.1473;-0.6279;
322.2000;0.1433;-0.6380;
322.5000;0.1481;-0.6254;
322.8000;0.1473;-0.6229;
323.1000;0.1490;-0.6229;
323.4000;0.1481;-0.6330;
323.7000;0.1473;-0.6355;
324.0000;0.1465;-0.6330;
324.3000;0.1481;-0.6305;
324.6000;0.1457;-0.6305;
324.9000;0.1498;-0.6204;
325.2000;0.1490;-0.6154;
325.5000;0.1465;-0.6229;
325.8000;0.1481;-0.6204;
326.1000;0.1490;-0.6204;
326.4000;0.1465;-0.6305;
326.7000;0.1481;-0.6330;
327.0000;0.1473;-0.6355;
327.3000;0.1538;-0.6204;
327.6000;0.1481;-0.6355;
327.9000;0.1457;-0.6355;
328.2000;0.1465;-0.6355;
328.5000;0.1465;-0.6380;
328.8000;0.1465;-0.6506;
329.1000;0.1457;-0.6430;
329.4000;0.1481;-0.6405;
329.7000;0.1514;-0.6330;
330.0000;0.1490;-0.6405;
330.3000;0.1465;-0.6455;
330.6000;0.1490;-0.6305;
330.9000;0.1473;-0.6330;
331.2000;0.1481;-0.6355;
331.5000;0.1490;-0.6254;
331.8000;0.1481;-0.6330;
332.1000;0.1465;-0.6355;
332.4000;0.1465;-0.6330;
332.7000;0.1481;-0.6380;
333.0000;0.1473;-0.6430;
333.3000;0.1473;-0.6380;
333.6000;0.1392;-0.6556;
333.9000;0.1433;-0.6355;
334.2000;0.1473;-0.6179;
334.5000;0.1490;-0.6229;
334.8000;0.1465;-0.6305;
335.1000;0.1473;-0.6229;
335.4000;0.1498;-0.6254;
335.7000;0.1506;-0.6305;
336.0000;0.1465;-0.6380;
336.3000;0.1481;-0.6305;
336.6000;0.1481;-0.6355;
336.9000;0.1490;-0.6355;
337.2000;0.1498;-0.6305;
337.5000;0.1481;-0.6355;
337.8000;0.1481;-0.6254;
338.1000;0.1490;-0.6229;
338.4000;0.1465;-0.6305;
338.7000;0.1465;-0.6204;
339.0000;0.1473;-0.6229;
339.3000;0.1457;-0.6279;
339.6000;0.1506;-0.6179;
339.9000;0.1481;-0.6305;
340.2000;0.1473;-0.6279;
340.5000;0.1547;-0.6104;
340.8000;0.1473;-0.6254;
341.1000;0.1449;-0.6355;
341.4000;0.1490;-0.6254;
341.7000;0.1465;-0.6204;
342.0000;0.1490;-0.6204;
342.3000;0.1481;-0.6355;
342.6000;0.1579;-0.6104;
342.9000;0.1433;-0.6405;
343.2000;0.1481;-0.6254;
343.5000;0.1465;-0.6254;
343.8000;0.1457;-0.6179;
344.1000;0.1498;-0.5978;
344.4000;0.1465;-0.6154;
344.7000;0.1473;-0.6204;
345.0000;0.1514;-0.6104;
345.3000;0.1498;-0.6154;
345.6000;0.1490;-0.6229;
345.9000;0.1473;-0.6305;
346.2000;0.1490;-0.6405;
346.5000;0.1490;-0.6380;
346.8000;0.1498;-0.6330;
347.1000;0.1481;-0.6405;
347.4000;0.1481;-0.6405;
347.7000;0.1481;-0.6455;
348.0000;0.1481;-0.6455;
348.3000;0.1522;-0.6380;
348.6000;0.1490;-0.6506;
348.9000;0.1481;-0.6455;
349.2000;0.1490;-0.6380;
349.5000;0.1457;-0.6405;
349.8000;0.1465;-0.6355;
350.1000;0.1481;-0.6279;
350.4000;0.1465;-0.6355;
350.7000;0.1563;-0.6053;
351.0000;0.1490;-0.6355;
351.3000;0.1514;-0.6279;
351.6000;0.1465;-0.6330;
351.9000;0.1490;-0.6380;
352.2000;0.1473;-0.6506;
352.5000;0.1465;-0.6556;
352.8000;0.1490;-0.6506;
353.1000;0.1481;-0.6430;
353.4000;0.1481;-0.6556;
353.7000;0.1473;-0.6656;
354.0000;0.1433;-0.6681;
354.3000;0.1481;-0.6606;
354.6000;0.1465;-0.6556;
354.9000;0.1457;-0.6556;
355.2000;0.1473;-0.6556;
355.5000;0.1490;-0.6506;
355.8000;0.1498;-0.6506;
356.1000;0.1481;-0.6556;
356.4000;0.1473;-0.6531;
356.7000;0.1481;-0.6506;
357.0000;0.1465;-0.6531;
357.3000;0.1490;-0.6480;
357.6000;0.1498;-0.6531;
357.9000;0.1506;-0.6606;
358.2000;0.1490;-0.6581;
358.5000;0.1465;-0.6656;
358.8000;0.1481;-0.6606;
359.1000;0.1473;-0.6606;
359.4000;0.1457;-0.6531;
359.7000;0.1481;-0.6405;
360.0000;0.1465;-0.6380;
360.3000;0.1481;-0.6355;
360.6000;0.1465;-0.6430;
360.9000;0.1498;-0.6380;
361.2000;0.1490;-0.6455;
361.5000;0.1481;-0.6405;
361.8000;0.1498;-0.6405;
362.1000;0.1481;-0.6480;
362.4000;0.1465;-0.6506;
362.7000;0.1481;-0.6480;
363.0000;0.1465;-0.6631;
363.3000;0.1408;-0.6807;
363.6000;0.1465;-0.6606;
363.9000;0.1441;-0.6606;
364.2000;0.1465;-0.6405;
364.5000;0.1481;-0.6330;
364.8000;0.1473;-0.6305;
365.1000;0.1530;-0.6154;
365.4000;0.1457;-0.6430;
365.7000;0.1490;-0.6455;
366.0000;0.1498;-0.6380;
366.3000;0.1473;-0.6380;
366.6000;0.1457;-0.6330;
366.9000;0.1465;-0.6330;
367.2000;0.1481;-0.6179;
367.5000;0.1473;-0.6305;
367.8000;0.1481;-0.6330;
368.1000;0.1498;-0.6229;
368.4000;0.1498;-0.6279;
368.7000;0.1481;-0.6204;
369.0000;0.1457;-0.6305;
369.3000;0.1481;-0.6330;
369.6000;0.1490;-0.6279;
369.9000;0.1555;-0.6229;
370.2000;0.1481;-0.6430;
370.5000;0.1481;-0.6480;
370.8000;0.1498;-0.6355;
371.1000;0.1481;-0.6380;
371.4000;0.1457;-0.6430;
371.7000;0.1473;-0.6455;
372.0000;0.1490;-0.6405;
372.3000;0.1498;-0.6405;
372.6000;0.1498;-0.6330;
372.9000;0.1490;-0.6480;
373.2000;0.1481;-0.6631;
373.5000;0.1498;-0.6556;
373.8000;0.1473;-0.6581;
374.1000;0.1530;-0.6380;
374.4000;0.1530;-0.6355;
374.7000;0.1416;-0.6631;
375.0000;0.1473;-0.6405;
375.3000;0.1481;-0.6405;
375.6000;0.1490;-0.6355;
375.9000;0.1441;-0.6480;
376.2000;0.1465;-0.6380;
376.5000;0.1441;-0.6531;
376.8000;0.1441;-0.6581;
377.1000;0.1481;-0.6531;
377.4000;0.1473;-0.6606;
377.7000;0.1490;-0.6556;
378.0000;0.1449;-0.6606;
378.3000;0.1465;-0.6606;
378.6000;0.1473;-0.6556;
378.9000;0.1465;-0.6531;
379.2000;0.1481;-0.6480;
379.5000;0.1465;-0.6506;
379.8000;0.1490;-0.6430;
380.1000;0.1465;-0.6506;
380.4000;0.1498;-0.6556;
380.7000;0.1490;-0.6606;
381.0000;0.1481;-0.6631;
381.3000;0.1481;-0.6556;
381.6000;0.1506;-0.6506;
381.9000;0.1498;-0.6430;
382.2000;0.1465;-0.6606;
382.5000;0.1481;-0.6531;
382.8000;0.1481;-0.6581;
383.1000;0.1449;-0.6681;
383.4000;0.1473;-0.6556;
383.7000;0.1481;-0.6480;
384.0000;0.1498;-0.6430;
384.3000;0.1449;-0.6430;
384.6000;0.1473;-0.6405;
384.9000;0.1490;-0.6480;
385.2000;0.1481;-0.6506;
385.5000;0.1490;-0.6480;
385.8000;0.1473;-0.6506;
386.1000;0.1481;-0.6480;
386.4000;0.1449;-0.6581;
386.7000;0.1490;-0.6531;
387.0000;0.1465;-0.6631;
387.3000;0.1571;-0.6330;
387.6000;0.1514;-0.6330;
387.9000;0.1457;-0.6506;
388.2000;0.1473;-0.6506;
388.5000;0.1547;-0.6330;
388.8000;0.1473;-0.6480;
389.1000;0.1490;-0.6430;
389.4000;0.1481;-0.6330;
389.7000;0.1490;-0.6279;
390.0000;0.1481;-0.6254;
390.3000;0.1498;-0.6279;
390.6000;0.1473;-0.6254;
390.9000;0.1465;-0.6229;
391.2000;0.1481;-0.6254;
391.5000;0.1481;-0.6229;
391.8000;0.1457;-0.6330;
392.1000;0.1473;-0.6254;
392.4000;0.1473;-0.6355;
392.7000;0.1490;-0.6305;
393.0000;0.1473;-0.6305;
393.3000;0.1498;-0.6279;
393.6000;0.1465;-0.6455;
393.9000;0.1473;-0.6430;
394.2000;0.1449;-0.6480;
394.5000;0.1465;-0.6405;
394.8000;0.1506;-0.6330;
395.1000;0.1481;-0.6380;
395.4000;0.1490;-0.6430;
395.7000;0.1481;-0.6506;
396.0000;0.1498;-0.6455;
396.3000;0.1490;-0.6380;
396.6000;0.1473;-0.6480;
396.9000;0.1465;-0.6531;
397.2000;0.1473;-0.6455;
397.5000;0.1481;-0.6455;
397.8000;0.1498;-0.6430;
398.1000;0.1490;-0.6506;
398.4000;0.1530;-0.6405;
398.7000;0.1465;-0.6606;
399.0000;0.1473;-0.6606;
399.3000;0.1473;-0.6506;
399.6000;0.1425;-0.6531;
399.9000;0.1481;-0.6430;
400.2000;0.1498;-0.6430;
400.5000;0.1490;-0.6506;
400.8000;0.1465;-0.6581;
401.1000;0.1481;-0.6506;
401.4000;0.1498;-0.6355;
401.7000;0.1498;-0.6405;
402.0000;0.1490;-0.6405;
402.3000;0.1506;-0.6506;
402.6000;0.1473;-0.6606;
402.9000;0.1481;-0.6606;
403.2000;0.1473;-0.6556;
403.5000;0.1481;-0.6480;
403.8000;0.1481;-0.6480;
404.1000;0.1498;-0.6480;
404.4000;0.1481;-0.6606;
404.7000;0.1490;-0.6581;
405.0000;0.1433;-0.6732;
405.3000;0.1490;-0.6581;
405.6000;0.1538;-0.6455;
405.9000;0.1498;-0.6556;
406.2000;0.1481;-0.6656;
406.5000;0.1481;-0.6681;
406.8000;0.1441;-0.6732;
407.1000;0.1490;-0.6606;
407.4000;0.1490;-0.6606;
407.7000;0.1490;-0.6581;
408.0000;0.1416;-0.6656;
408.3000;0.1473;-0.6556;
408.6000;0.1465;-0.6581;
408.9000;0.1449;-0.6581;
409.2000;0.1506;-0.6430;
409.5000;0.1473;-0.6531;
409.8000;0.1457;-0.6581;
410.1000;0.1498;-0.6430;
410.4000;0.1481;-0.6531;
410.7000;0.1457;-0.6656;
411.0000;0.1473;-0.6506;
411.3000;0.1481;-0.6455;
411.6000;0.1490;-0.6330;
411.9000;0.1490;-0.6254;
412.2000;0.1473;-0.6279;
412.5000;0.1433;-0.6430;
412.8000;0.1481;-0.6279;
413.1000;0.1522;-0.6279;
413.4000;0.1473;-0.6455;
413.7000;0.1473;-0.6531;
414.0000;0.1514;-0.6506;
414.3000;0.1481;-0.6706;
414.6000;0.1481;-0.6681;
414.9000;0.1490;-0.6656;
415.2000;0.1481;-0.6631;
415.5000;0.1604;-0.6279;
415.8000;0.1490;-0.6455;
416.1000;0.1473;-0.6556;
416.4000;0.1498;-0.6480;
416.7000;0.1498;-0.6355;
417.0000;0.1490;-0.6355;
417.3000;0.1449;-0.6480;
417.6000;0.1498;-0.6405;
417.9000;0.1481;-0.6405;
418.2000;0.1473;-0.6330;
418.5000;0.1449;-0.6430;
418.8000;0.1465;-0.6430;
419.1000;0.1473;-0.6455;
419.4000;0.1465;-0.6506;
419.7000;0.1473;-0.6556;
420.0000;0.1473;-0.6506;
420.3000;0.1457;-0.6581;
420.6000;0.1481;-0.6480;
420.9000;0.1490;-0.6405;
421.2000;0.1490;-0.6405;
421.5000;0.1481;-0.6380;
421.8000;0.1368;-0.6631;
422.1000;0.1490;-0.6380;
422.4000;0.1522;-0.6305;
422.7000;0.1473;-0.6455;
423.0000;0.1473;-0.6430;
423.3000;0.1473;-0.6480;
423.6000;0.1457;-0.6531;
423.9000;0.1416;-0.6681;
424.2000;0.1481;-0.6506;
424.5000;0.1538;-0.6405;
424.8000;0.1481;-0.6581;
425.1000;0.1481;-0.6606;
425.4000;0.1490;-0.6656;
425.7000;0.1465;-0.6782;
426.0000;0.1490;-0.6631;
426.3000;0.1481;-0.6581;
426.6000;0.1498;-0.6556;
426.9000;0.1473;-0.6506;
427.2000;0.1481;-0.6430;
427.5000;0.1490;-0.6380;
427.8000;0.1506;-0.6405;
428.1000;0.1490;-0.6455;
428.4000;0.1490;-0.6380;
428.7000;0.1473;-0.6380;
429.0000;0.1473;-0.6330;
429.3000;0.1465;-0.6380;
429.6000;0.1498;-0.6380;
429.9000;0.1473;-0.6380;
430.2000;0.1465;-0.6355;
430.5000;0.1473;-0.6380;
430.8000;0.1498;-0.6380;
431.1000;0.1506;-0.6330;
431.4000;0.1506;-0.6305;
431.7000;0.1465;-0.6355;
432.0000;0.1465;-0.6305;
432.3000;0.1481;-0.6279;
432.6000;0.1465;-0.6305;
432.9000;0.1465;-0.6204;
433.2000;0.1490;-0.6079;
433.5000;0.1457;-0.6104;
433.8000;0.1465;-0.6028;
434.1000;0.1449;-0.6179;
434.4000;0.1481;-0.6154;
434.7000;0.1506;-0.6079;
435.0000;0.1473;-0.6229;
435.3000;0.1465;-0.6154;
435.6000;0.1465;-0.6154;
435.9000;0.1465;-0.6154;
436.2000;0.1547;-0.6104;
436.5000;0.1563;-0.6079;
436.8000;0.1465;-0.6330;
437.1000;0.1490;-0.6330;
437.4000;0.1465;-0.6330;
437.7000;0.1506;-0.6330;
438.0000;0.1481;-0.6455;
438.3000;0.1473;-0.6430;
438.6000;0.1368;-0.6757;
438.9000;0.1473;-0.6430;
439.2000;0.1465;-0.6506;
439.5000;0.1490;-0.6506;
439.8000;0.1481;-0.6506;
440.1000;0.1481;-0.6556;
440.4000;0.1481;-0.6556;
440.7000;0.1473;-0.6531;
441.0000;0.1490;-0.6455;
441.3000;0.1490;-0.6430;
441.6000;0.1465;-0.6405;
441.9000;0.1465;-0.6355;
442.2000;0.1498;-0.6330;
442.5000;0.1481;-0.6380;
442.8000;0.1481;-0.6380;
443.1000;0.1490;-0.6355;
443.4000;0.1481;-0.6455;
443.7000;0.1490;-0.6506;
444.0000;0.1473;-0.6455;
444.3000;0.1514;-0.6279;
444.6000;0.1481;-0.6405;
444.9000;0.1465;-0.6581;
445.2000;0.1457;-0.6506;
445.5000;0.1457;-0.6581;
445.8000;0.1481;-0.6405;
446.1000;0.1481;-0.6330;
446.4000;0.1441;-0.6355;
446.7000;0.1481;-0.6254;
447.0000;0.1473;-0.6279;
447.3000;0.1490;-0.6355;
447.6000;0.1473;-0.6405;
447.9000;0.1465;-0.6405;
448.2000;0.1473;-0.6430;
448.5000;0.1473;-0.6480;
448.8000;0.1465;-0.6455;
449.1000;0.1465;-0.6506;
449.4000;0.1457;-0.6506;
449.7000;0.1481;-0.6430;
450.0000;0.1481;-0.6480;
450.3000;0.1473;-0.6556;
450.6000;0.1481;-0.6606;
450.9000;0.1490;-0.6606;
451.2000;0.1481;-0.6656;
451.5000;0.1465;-0.6681;
451.8000;0.1506;-0.6606;
452.1000;0.1449;-0.6606;
452.4000;0.1473;-0.6506;
452.7000;0.1473;-0.6531;
453.0000;0.1465;-0.6531;
453.3000;0.1457;-0.6556;
453.6000;0.1473;-0.6606;
453.9000;0.1481;-0.6606;
454.2000;0.1514;-0.6480;
454.5000;0.1498;-0.6506;
454.8000;0.1465;-0.6581;
455.1000;0.1563;-0.6305;
455.4000;0.1457;-0.6581;
455.7000;0.1481;-0.6455;
456.0000;0.1481;-0.6480;
456.3000;0.1498;-0.6480;
456.6000;0.1490;-0.6455;
456.9000;0.1473;-0.6606;
457.2000;0.1473;-0.6556;
457.5000;0.1473;-0.6556;
457.8000;0.1473;-0.6480;
458.1000;0.1441;-0.6631;
458.4000;0.1473;-0.6531;
458.7000;0.1481;-0.6506;
459.0000;0.1465;-0.6531;
459.3000;0.1465;-0.6556;
459.6000;0.1473;-0.6430;
459.9000;0.1481;-0.6480;
460.2000;0.1481;-0.6480;
460.5000;0.1465;-0.6506;
460.8000;0.1457;-0.6581;
461.1000;0.1457;-0.6556;
461.4000;0.1481;-0.6606;
461.7000;0.1465;-0.6681;
462.0000;0.1473;-0.6631;
462.3000;0.1490;-0.6631;
462.6000;0.1473;-0.6631;
462.9000;0.1481;-0.6706;
463.2000;0.1481;-0.6656;
463.5000;0.1490;-0.6581;
463.8000;0.1481;-0.6480;
464.1000;0.1465;-0.6556;
464.4000;0.1473;-0.6480;
464.7000;0.1465;-0.6556;
465.0000;0.1481;-0.6556;
465.3000;0.1473;-0.6606;
465.6000;0.1449;-0.6656;
465.9000;0.1473;-0.6631;
466.2000;0.1490;-0.6455;
466.5000;0.1514;-0.6279;
466.8000;0.1481;-0.6305;
467.1000;0.1481;-0.6430;
467.4000;0.1498;-0.6455;
467.7000;0.1481;-0.6455;
468.0000;0.1490;-0.6606;
468.3000;0.1490;-0.6631;
468.6000;0.1465;-0.6732;
468.9000;0.1490;-0.6706;
469.2000;0.1465;-0.6757;
469.5000;0.1425;-0.6882;
469.8000;0.1481;-0.6757;
470.1000;0.1498;-0.6656;
470.4000;0.1449;-0.6807;
470.7000;0.1457;-0.6706;
471.0000;0.1449;-0.6732;
471.3000;0.1473;-0.6556;
471.6000;0.1498;-0.6531;
471.9000;0.1481;-0.6455;
472.2000;0.1465;-0.6430;
472.5000;0.1538;-0.6179;
472.8000;0.1498;-0.6204;
473.1000;0.1457;-0.6279;
473.4000;0.1473;-0.6380;
473.7000;0.1490;-0.6254;
474.0000;0.1490;-0.6229;
474.3000;0.1498;-0.6204;
474.6000;0.1425;-0.6480;
474.9000;0.1514;-0.6254;
475.2000;0.1490;-0.6405;
475.5000;0.1506;-0.6455;
475.8000;0.1481;-0.6455;
476.1000;0.1481;-0.6430;
476.4000;0.1498;-0.6405;
476.7000;0.1490;-0.6380;
477.0000;0.1490;-0.6355;
477.3000;0.1473;-0.6480;
477.6000;0.1481;-0.6430;
477.9000;0.1506;-0.6355;
478.2000;0.1425;-0.6581;
478.5000;0.1473;-0.6480;
478.8000;0.1481;-0.6330;
479.1000;0.1498;-0.6204;
479.4000;0.1481;-0.6330;
479.7000;0.1465;-0.6380;
480.0000;0.1473;-0.6254;
480.3000;0.1392;-0.6380;
480.6000;0.1490;-0.6179;
480.9000;0.1473;-0.6129;
481.2000;0.1579;-0.5903;
481.5000;0.1473;-0.6279;
481.8000;0.1481;-0.6330;
482.1000;0.1481;-0.6330;
482.4000;0.1465;-0.6355;
482.7000;0.1481;-0.6254;
483.0000;0.1490;-0.6305;
483.3000;0.1481;-0.6405;
483.6000;0.1490;-0.6506;
483.9000;0.1490;-0.6480;
484.2000;0.1465;-0.6405;
484.5000;0.1490;-0.6330;
484.8000;0.1490;-0.6405;
485.1000;0.1481;-0.6506;
485.4000;0.1457;-0.6455;
485.7000;0.1457;-0.6405;
486.0000;0.1376;-0.6631;
486.3000;0.1481;-0.6380;
486.6000;0.1506;-0.6355;
486.9000;0.1473;-0.6330;
487.2000;0.1457;-0.6305;
487.5000;0.1481;-0.6254;
487.8000;0.1481;-0.6154;
488.1000;0.1490;-0.6179;
488.4000;0.1481;-0.6154;
488.7000;0.1449;-0.6129;
489.0000;0.1457;-0.6104;
489.3000;0.1473;-0.6104;
489.6000;0.1481;-0.6154;
489.9000;0.1465;-0.6254;
490.2000;0.1473;-0.6229;
490.5000;0.1481;-0.6305;
490.8000;0.1457;-0.6430;
491.1000;0.1473;-0.6305;
491.4000;0.1449;-0.6305;
491.7000;0.1473;-0.6330;
492.0000;0.1457;-0.6330;
492.3000;0.1498;-0.6279;
492.6000;0.1473;-0.6355;
492.9000;0.1481;-0.6380;
493.2000;0.1490;-0.6355;
493.5000;0.1514;-0.6229;
493.8000;0.1506;-0.6305;
494.1000;0.1490;-0.6254;
494.4000;0.1506;-0.6129;
494.7000;0.1465;-0.6305;
495.0000;0.1457;-0.6330;
495.3000;0.1473;-0.6305;
495.6000;0.1473;-0.6279;
495.9000;0.1481;-0.6279;
496.2000;0.1514;-0.6204;
496.5000;0.1490;-0.6330;
496.8000;0.1481;-0.6380;
497.1000;0.1449;-0.6380;
497.4000;0.1481;-0.6330;
497.7000;0.1465;-0.6355;
498.0000;0.1465;-0.6355;
498.3000;0.1490;-0.6229;
498.6000;0.1481;-0.6179;
498.9000;0.1498;-0.6154;
499.2000;0.1465;-0.6229;
499.5000;0.1498;-0.6154;
499.8000;0.1481;-0.6154;
500.1000;0.1465;-0.6204;
500.4000;0.1465;-0.6179;
500.7000;0.1473;-0.6254;
501.0000;0.1514;-0.6154;
501.3000;0.1465;-0.6204;
501.6000;0.1473;-0.6204;
501.9000;0.1473;-0.6229;
502.2000;0.1449;-0.6405;
502.5000;0.1481;-0.6355;
502.8000;0.1392;-0.6430;
503.1000;0.1465;-0.6179;
503.4000;0.1481;-0.6079;
503.7000;0.1425;-0.6179;
504.0000;0.1465;-0.6104;
504.3000;0.1473;-0.6003;
504.6000;0.1433;-0.6204;
504.9000;0.1506;-0.6053;
505.2000;0.1441;-0.6279;
505.5000;0.1408;-0.6305;
505.8000;0.1481;-0.6179;
506.1000;0.1522;-0.6129;
506.4000;0.1490;-0.6229;
506.7000;0.1473;-0.6204;
507.0000;0.1473;-0.6204;
507.3000;0.1465;-0.6179;
507.6000;0.1400;-0.6279;
507.9000;0.1457;-0.6179;
508.2000;0.1481;-0.6129;
508.5000;0.1490;-0.6104;
508.8000;0.1449;-0.6104;
509.1000;0.1425;-0.6229;
509.4000;0.1457;-0.6305;
509.7000;0.1473;-0.6305;
510.0000;0.1506;-0.6254;
510.3000;0.1457;-0.6455;
510.6000;0.1473;-0.6405;
510.9000;0.1506;-0.6355;
511.2000;0.1498;-0.6380;
511.5000;0.1514;-0.6305;
511.8000;0.1490;-0.6330;
512.1000;0.1490;-0.6305;
512.4000;0.1465;-0.6355;
512.7000;0.1473;-0.6355;
513.0000;0.1498;-0.6305;
513.3000;0.1490;-0.6355;
513.6000;0.1465;-0.6355;
513.9000;0.1457;-0.6330;
514.2000;0.1457;-0.6430;
514.5000;0.1416;-0.6531;
514.8000;0.1433;-0.6581;
515.1000;0.1481;-0.6405;
515.4000;0.1400;-0.6556;
515.7000;0.1465;-0.6305;
516.0000;0.1506;-0.6254;
516.3000;0.1449;-0.6455;
516.6000;0.1481;-0.6279;
516.9000;0.1506;-0.6154;
517.2000;0.1498;-0.6279;
517.5000;0.1498;-0.6305;
517.8000;0.1530;-0.6254;
518.1000;0.1506;-0.6430;
518.4000;0.1490;-0.6405;
518.7000;0.1498;-0.6405;
519.0000;0.1490;-0.6430;
519.3000;0.1473;-0.6556;
519.6000;0.1481;-0.6405;
519.9000;0.1506;-0.6305;
520.2000;0.1498;-0.6430;
520.5000;0.1481;-0.6430;
520.8000;0.1514;-0.6455;
521.1000;0.1481;-0.6430;
521.4000;0.1498;-0.6330;
521.7000;0.1481;-0.6254;
522.0000;0.1506;-0.6129;
522.3000;0.1506;-0.6179;
522.6000;0.1481;-0.6229;
522.9000;0.1547;-0.6129;
523.2000;0.1449;-0.6330;
523.5000;0.1490;-0.6279;
523.8000;0.1457;-0.6405;
524.1000;0.1384;-0.6681;
524.4000;0.1441;-0.6506;
524.7000;0.1571;-0.6204;
525.0000;0.1481;-0.6506;
525.3000;0.1457;-0.6430;
525.6000;0.1473;-0.6330;
525.9000;0.1498;-0.6254;
526.2000;0.1449;-0.6305;
526.5000;0.1465;-0.6254;
526.8000;0.1392;-0.6405;
527.1000;0.1490;-0.6154;
527.4000;0.1490;-0.6079;
527.7000;0.1473;-0.6053;
528.0000;0.1465;-0.6028;
528.3000;0.1457;-0.6079;
528.6000;0.1514;-0.6003;
528.9000;0.1490;-0.6053;
529.2000;0.1473;-0.6129;
529.5000;0.1473;-0.6154;
529.8000;0.1481;-0.6204;
530.1000;0.1465;-0.6204;
530.4000;0.1465;-0.6305;
530.7000;0.1433;-0.6305;
531.0000;0.1514;-0.6003;
531.3000;0.1481;-0.6079;
531.6000;0.1449;-0.6229;
531.9000;0.1384;-0.6405;
532.2000;0.1441;-0.6154;
532.5000;0.1563;-0.5903;
532.8000;0.1457;-0.6129;
533.1000;0.1473;-0.6079;
533.4000;0.1449;-0.6154;
533.7000;0.1481;-0.6028;
534.0000;0.1473;-0.6028;
534.3000;0.1465;-0.6053;
534.6000;0.1465;-0.6129;
534.9000;0.1465;-0.6129;
535.2000;0.1473;-0.6179;
535.5000;0.1457;-0.6154;
535.8000;0.1457;-0.6254;
536.1000;0.1481;-0.6179;
536.4000;0.1490;-0.6179;
536.7000;0.1490;-0.6179;
537.0000;0.1457;-0.6254;
537.3000;0.1457;-0.6254;
537.6000;0.1506;-0.6104;
537.9000;0.1473;-0.6229;
538.2000;0.1490;-0.6204;
538.5000;0.1473;-0.6154;
538.8000;0.1473;-0.6104;
539.1000;0.1490;-0.6079;
539.4000;0.1465;-0.6104;
539.7000;0.1457;-0.6254;
540.0000;0.1465;-0.6330;
540.3000;0.1522;-0.6279;
540.6000;0.1473;-0.6355;
540.9000;0.1457;-0.6380;
541.2000;0.1490;-0.6405;
541.5000;0.1506;-0.6305;
541.8000;0.1498;-0.6405;
542.1000;0.1465;-0.6430;
542.4000;0.1473;-0.6455;
542.7000;0.1481;-0.6531;
543.0000;0.1506;-0.6430;
543.3000;0.1481;-0.6506;
543.6000;0.1490;-0.6556;
543.9000;0.1481;-0.6506;
544.2000;0.1481;-0.6455;
544.5000;0.1473;-0.6556;
544.8000;0.1441;-0.6681;
545.1000;0.1425;-0.6706;
545.4000;0.1473;-0.6556;
545.7000;0.1506;-0.6556;
546.0000;0.1457;-0.6656;
546.3000;0.1481;-0.6531;
546.6000;0.1506;-0.6480;
546.9000;0.1490;-0.6506;
547.2000;0.1457;-0.6531;
547.5000;0.1506;-0.6405;
547.8000;0.1490;-0.6405;
548.1000;0.1473;-0.6506;
548.4000;0.1457;-0.6480;
548.7000;0.1441;-0.6506;
549.0000;0.1481;-0.6405;
549.3000;0.1490;-0.6305;
549.6000;0.1481;-0.6355;
549.9000;0.1449;-0.6430;
550.2000;0.1498;-0.6305;
550.5000;0.1473;-0.6405;
550.8000;0.1481;-0.6355;
551.1000;0.1490;-0.6405;
551.4000;0.1465;-0.6355;
551.7000;0.1457;-0.6330;
552.0000;0.1473;-0.6330;
552.3000;0.1465;-0.6279;
552.6000;0.1473;-0.6355;
552.9000;0.1506;-0.6330;
553.2000;0.1498;-0.6355;
553.5000;0.1498;-0.6305;
553.8000;0.1473;-0.6355;
554.1000;0.1473;-0.6355;
554.4000;0.1490;-0.6380;
554.7000;0.1400;-0.6656;
555.0000;0.1457;-0.6531;
555.3000;0.1481;-0.6581;
555.6000;0.1473;-0.6556;
555.9000;0.1457;-0.6556;
556.2000;0.1490;-0.6506;
556.5000;0.1481;-0.6531;
556.8000;0.1473;-0.6581;
557.1000;0.1473;-0.6581;
557.4000;0.1481;-0.6581;
557.7000;0.1473;-0.6556;
558.0000;0.1481;-0.6430;
558.3000;0.1481;-0.6380;
558.6000;0.1490;-0.6380;
558.9000;0.1465;-0.6531;
559.2000;0.1481;-0.6405;
559.5000;0.1481;-0.6355;
559.8000;0.1425;-0.6430;
560.1000;0.1473;-0.6330;
560.4000;0.1481;-0.6355;
560.7000;0.1481;-0.6330;
561.0000;0.1465;-0.6430;
561.3000;0.1498;-0.6355;
561.6000;0.1465;-0.6430;
561.9000;0.1473;-0.6355;
562.2000;0.1457;-0.6405;
562.5000;0.1441;-0.6480;
562.8000;0.1457;-0.6254;
563.1000;0.1465;-0.6355;
563.4000;0.1490;-0.6229;
563.7000;0.1433;-0.6380;
564.0000;0.1457;-0.6279;
564.3000;0.1481;-0.6179;
564.6000;0.1457;-0.6305;
564.9000;0.1449;-0.6330;
565.2000;0.1441;-0.6330;
565.5000;0.1481;-0.6154;
565.8000;0.1481;-0.6179;
566.1000;0.1457;-0.6179;
566.4000;0.1473;-0.6129;
566.7000;0.1563;-0.5852;
567.0000;0.1457;-0.6204;
567.3000;0.1481;-0.6254;
567.6000;0.1473;-0.6229;
567.9000;0.1473;-0.6204;
568.2000;0.1514;-0.6104;
568.5000;0.1481;-0.6254;
568.8000;0.1498;-0.6355;
569.1000;0.1441;-0.6531;
569.4000;0.1498;-0.6355;
569.7000;0.1498;-0.6305;
570.0000;0.1481;-0.6254;
570.3000;0.1498;-0.6179;
570.6000;0.1490;-0.6154;
570.9000;0.1457;-0.6204;
571.2000;0.1449;-0.6179;
571.5000;0.1490;-0.6129;
571.8000;0.1465;-0.6254;
572.1000;0.1457;-0.6279;
572.4000;0.1481;-0.6279;
572.7000;0.1481;-0.6305;
573.0000;0.1490;-0.6330;
573.3000;0.1481;-0.6380;
573.6000;0.1481;-0.6355;
573.9000;0.1481;-0.6330;
574.2000;0.1563;-0.6154;
574.5000;0.1465;-0.6355;
574.8000;0.1506;-0.6305;
575.1000;0.1473;-0.6405;
575.4000;0.1457;-0.6355;
575.7000;0.1457;-0.6279;
576.0000;0.1473;-0.6129;
576.3000;0.1473;-0.6279;
576.6000;0.1481;-0.6229;
576.9000;0.1441;-0.6380;
577.2000;0.1473;-0.6179;
577.5000;0.1465;-0.6179;
577.8000;0.1473;-0.6129;
578.1000;0.1425;-0.6355;
578.4000;0.1506;-0.6154;
578.7000;0.1457;-0.6330;
579.0000;0.1473;-0.6254;
579.3000;0.1465;-0.6380;
579.6000;0.1490;-0.6330;
579.9000;0.1481;-0.6330;
580.2000;0.1473;-0.6330;
580.5000;0.1473;-0.6254;
580.8000;0.1465;-0.6279;
581.1000;0.1465;-0.6330;
581.4000;0.1473;-0.6330;
581.7000;0.1473;-0.6355;
582.0000;0.1473;-0.6430;
582.3000;0.1473;-0.6430;
582.6000;0.1457;-0.6506;
582.9000;0.1457;-0.6531;
583.2000;0.1481;-0.6506;
583.5000;0.1465;-0.6480;
583.8000;0.1465;-0.6581;
584.1000;0.1490;-0.6506;
584.4000;0.1490;-0.6480;
584.7000;0.1506;-0.6380;
585.0000;0.1481;-0.6380;
585.3000;0.1473;-0.6380;
585.6000;0.1481;-0.6380;
585.9000;0.1490;-0.6405;
586.2000;0.1465;-0.6405;
586.5000;0.1400;-0.6506;
586.8000;0.1449;-0.6355;
587.1000;0.1465;-0.6330;
587.4000;0.1490;-0.6279;
587.7000;0.1498;-0.6305;
588.0000;0.1498;-0.6355;
588.3000;0.1465;-0.6405;
588.6000;0.1490;-0.6430;
588.9000;0.1490;-0.6330;
589.2000;0.1457;-0.6380;
589.5000;0.1425;-0.6380;
589.8000;0.1433;-0.6355;
590.1000;0.1465;-0.6254;
590.4000;0.1449;-0.6305;
590.7000;0.1514;-0.6129;
591.0000;0.1465;-0.6380;
591.3000;0.1490;-0.6254;
591.6000;0.1490;-0.6254;
591.9000;0.1408;-0.6405;
592.2000;0.1498;-0.6129;
592.5000;0.1490;-0.6179;
592.8000;0.1465;-0.6279;
593.1000;0.1425;-0.6480;
593.4000;0.1465;-0.6305;
593.7000;0.1473;-0.6254;
594.0000;0.1465;-0.6154;
594.3000;0.1481;-0.6179;
594.6000;0.1473;-0.6355;
594.9000;0.1490;-0.6405;
595.2000;0.1506;-0.6430;
595.5000;0.1465;-0.6581;
595.8000;0.1481;-0.6581;
596.1000;0.1490;-0.6455;
596.4000;0.1506;-0.6330;
596.7000;0.1465;-0.6430;
597.0000;0.1481;-0.6455;
597.3000;0.1481;-0.6455;
597.6000;0.1490;-0.6355;
597.9000;0.1522;-0.6254;
598.2000;0.1514;-0.6305;
598.5000;0.1457;-0.6405;
598.8000;0.1473;-0.6430;
599.1000;0.1481;-0.6455;
599.4000;0.1473;-0.6430;
599.7000;0.1481;-0.6430;
600.0000;0.1449;-0.6480;
600.3000;0.1465;-0.6631;
600.6000;0.1457;-0.6757;
600.9000;0.1457;-0.6857;
601.2000;0.1449;-0.6958;
601.5000;0.1441;-0.7033;
601.8000;0.1441;-0.7108;
602.1000;0.1392;-0.7360;
602.4000;0.1400;-0.7360;
602.7000;0.1400;-0.7510;
603.0000;0.1384;-0.7611;
603.3000;0.1376;-0.7686;
603.6000;0.1408;-0.7686;
603.9000;0.1376;-0.7761;
604.2000;0.1368;-0.7887;
604.5000;0.1368;-0.8063;
604.8000;0.1368;-0.8088;
605.1000;0.1384;-0.8113;
605.4000;0.1359;-0.8163;
605.7000;0.1359;-0.8214;
606.0000;0.1376;-0.8264;
606.3000;0.1327;-0.8389;
606.6000;0.1335;-0.8440;
606.9000;0.1351;-0.8389;
607.2000;0.1351;-0.8364;
607.5000;0.1368;-0.8414;
607.8000;0.1343;-0.8490;
608.1000;0.1359;-0.8465;
608.4000;0.1343;-0.8490;
608.7000;0.1359;-0.8465;
609.0000;0.1335;-0.8565;
609.3000;0.1335;-0.8515;
609.6000;0.1343;-0.8615;
609.9000;0.1343;-0.8590;
610.2000;0.1343;-0.8565;
610.5000;0.1327;-0.8641;
610.8000;0.1311;-0.8716;
611.1000;0.1351;-0.8666;
611.4000;0.1327;-0.8741;
611.7000;0.1327;-0.8741;
612.0000;0.1319;-0.8841;
612.3000;0.1327;-0.8816;
612.6000;0.1335;-0.8867;
612.9000;0.1319;-0.8942;
613.2000;0.1327;-0.8917;
613.5000;0.1335;-0.8841;
613.8000;0.1343;-0.8816;
614.1000;0.1343;-0.8816;
614.4000;0.1319;-0.8841;
614.7000;0.1335;-0.8841;
615.0000;0.1351;-0.8766;
615.3000;0.1327;-0.8791;
615.6000;0.1327;-0.8716;
615.9000;0.1327;-0.8615;
616.2000;0.1327;-0.8615;
616.5000;0.1327;-0.8565;
616.8000;0.1311;-0.8691;
617.1000;0.1302;-0.8766;
617.4000;0.1311;-0.8691;
617.7000;0.1343;-0.8615;
618.0000;0.1319;-0.8791;
618.3000;0.1319;-0.8917;
618.6000;0.1327;-0.8967;
618.9000;0.1335;-0.8917;
619.2000;0.1335;-0.8816;
619.5000;0.1327;-0.8741;
619.8000;0.1368;-0.8615;
620.1000;0.1327;-0.8641;
620.4000;0.1376;-0.8515;
620.7000;0.1335;-0.8691;
621.0000;0.1319;-0.8867;
621.3000;0.1319;-0.8867;
621.6000;0.1319;-0.8867;
621.9000;0.1278;-0.8992;
622.2000;0.1327;-0.8816;
622.5000;0.1229;-0.9068;
622.8000;0.1319;-0.8791;
623.1000;0.1311;-0.8791;
623.4000;0.1408;-0.8515;
623.7000;0.1278;-0.8942;
624.0000;0.1343;-0.8666;
624.3000;0.1327;-0.8666;
624.6000;0.1294;-0.8766;
624.9000;0.1327;-0.8716;
625.2000;0.1270;-0.8917;
625.5000;0.1270;-0.8917;
625.8000;0.1302;-0.8791;
626.1000;0.1286;-0.8867;
626.4000;0.1319;-0.8741;
626.7000;0.1319;-0.8791;
627.0000;0.1311;-0.8741;
627.3000;0.1302;-0.8741;
627.6000;0.1311;-0.8766;
627.9000;0.1245;-0.8942;
628.2000;0.1311;-0.8791;
628.5000;0.1319;-0.8791;
628.8000;0.1351;-0.8766;
629.1000;0.1327;-0.8766;
629.4000;0.1311;-0.8841;
629.7000;0.1335;-0.8942;
630.0000;0.1319;-0.9068;
630.3000;0.1294;-0.9218;
630.6000;0.1311;-0.9193;
630.9000;0.1302;-0.9218;
631.2000;0.1327;-0.9193;
631.5000;0.1351;-0.9168;
631.8000;0.1359;-0.9168;
632.1000;0.1327;-0.9218;
632.4000;0.1286;-0.9268;
632.7000;0.1327;-0.9042;
633.0000;0.1302;-0.9118;
633.3000;0.1319;-0.9068;
633.6000;0.1302;-0.9017;
633.9000;0.1335;-0.8917;
634.2000;0.1319;-0.8917;
634.5000;0.1392;-0.8716;
634.8000;0.1311;-0.8841;
635.1000;0.1311;-0.8741;
635.4000;0.1335;-0.8741;
635.7000;0.1302;-0.8867;
636.0000;0.1302;-0.8867;
636.3000;0.1311;-0.8867;
636.6000;0.1311;-0.8816;
636.9000;0.1270;-0.8942;
637.2000;0.1311;-0.8892;
637.5000;0.1327;-0.8867;
637.8000;0.1311;-0.8892;
638.1000;0.1343;-0.8791;
638.4000;0.1311;-0.8791;
638.7000;0.1311;-0.8791;
639.0000;0.1302;-0.8867;
639.3000;0.1319;-0.8741;
639.6000;0.1327;-0.8841;
639.9000;0.1335;-0.8841;
640.2000;0.1335;-0.8816;
640.5000;0.1319;-0.8791;
640.8000;0.1449;-0.8540;
641.1000;0.1335;-0.8766;
641.4000;0.1311;-0.8841;
641.7000;0.1319;-0.8791;
642.0000;0.1343;-0.8841;
642.3000;0.1335;-0.8967;
642.6000;0.1262;-0.9168;
642.9000;0.1343;-0.8992;
643.2000;0.1351;-0.8917;
643.5000;0.1327;-0.8992;
643.8000;0.1327;-0.8992;
644.1000;0.1343;-0.8867;
644.4000;0.1270;-0.8992;
644.7000;0.1319;-0.8892;
645.0000;0.1286;-0.8967;
645.3000;0.1327;-0.8867;
645.6000;0.1319;-0.8917;
645.9000;0.1319;-0.8841;
646.2000;0.1311;-0.8816;
646.5000;0.1294;-0.8841;
646.8000;0.1327;-0.8766;
647.1000;0.1368;-0.8716;
647.4000;0.1327;-0.8841;
647.7000;0.1270;-0.9017;
648.0000;0.1294;-0.8942;
648.3000;0.1335;-0.8816;
648.6000;0.1254;-0.9068;
648.9000;0.1335;-0.8867;
649.2000;0.1319;-0.8892;
649.5000;0.1319;-0.8841;
649.8000;0.1319;-0.8841;
650.1000;0.1311;-0.8967;
650.4000;0.1302;-0.8841;
650.7000;0.1400;-0.8641;
651.0000;0.1311;-0.8867;
651.3000;0.1319;-0.8841;
651.6000;0.1319;-0.8841;
651.9000;0.1327;-0.8791;
652.2000;0.1335;-0.8816;
652.5000;0.1335;-0.8841;
652.8000;0.1327;-0.8892;
653.1000;0.1327;-0.8867;
653.4000;0.1359;-0.8741;
653.7000;0.1319;-0.8816;
654.0000;0.1302;-0.8917;
654.3000;0.1327;-0.8892;
654.6000;0.1319;-0.8841;
654.9000;0.1327;-0.8741;
655.2000;0.1311;-0.8791;
655.5000;0.1311;-0.8766;
655.8000;0.1319;-0.8691;
656.1000;0.1319;-0.8766;
656.4000;0.1302;-0.8841;
656.7000;0.1294;-0.8917;
657.0000;0.1319;-0.8867;
657.3000;0.1286;-0.8816;
657.6000;0.1294;-0.8892;
657.9000;0.1319;-0.8816;
658.2000;0.1319;-0.8816;
658.5000;0.1327;-0.8791;
658.8000;0.1311;-0.8892;
659.1000;0.1302;-0.8992;
659.4000;0.1302;-0.8942;
659.7000;0.1311;-0.8967;
660.0000;0.1311;-0.9017;
660.3000;0.1327;-0.8992;
660.6000;0.1311;-0.8992;
660.9000;0.1262;-0.9068;
661.2000;0.1311;-0.8892;
661.5000;0.1335;-0.8791;
661.8000;0.1335;-0.8766;
662.1000;0.1327;-0.8791;
662.4000;0.1319;-0.8816;
662.7000;0.1327;-0.8816;
663.0000;0.1294;-0.8841;
663.3000;0.1319;-0.8791;
663.6000;0.1335;-0.8841;
663.9000;0.1302;-0.8942;
664.2000;0.1351;-0.8892;
664.5000;0.1311;-0.8967;
664.8000;0.1319;-0.8992;
665.1000;0.1302;-0.9017;
665.4000;0.1311;-0.8917;
665.7000;0.1319;-0.8791;
666.0000;0.1368;-0.8641;
666.3000;0.1311;-0.8741;
666.6000;0.1319;-0.8841;
666.9000;0.1343;-0.8791;
667.2000;0.1319;-0.8816;
667.5000;0.1319;-0.8816;
667.8000;0.1302;-0.8841;
668.1000;0.1294;-0.8917;
668.4000;0.1319;-0.8841;
668.7000;0.1302;-0.8841;
669.0000;0.1311;-0.8841;
669.3000;0.1311;-0.8791;
669.6000;0.1302;-0.8791;
669.9000;0.1294;-0.8816;
670.2000;0.1327;-0.8766;
670.5000;0.1319;-0.8716;
670.8000;0.1319;-0.8741;
671.1000;0.1319;-0.8716;
671.4000;0.1319;-0.8741;
671.7000;0.1302;-0.8766;
672.0000;0.1319;-0.8691;
672.3000;0.1319;-0.8666;
672.6000;0.1327;-0.8666;
672.9000;0.1335;-0.8716;
673.2000;0.1327;-0.8741;
673.5000;0.1335;-0.8766;
673.8000;0.1319;-0.8816;
674.1000;0.1335;-0.8917;
674.4000;0.1302;-0.8992;
674.7000;0.1319;-0.8942;
675.0000;0.1343;-0.8942;
675.3000;0.1302;-0.8942;
675.6000;0.1335;-0.8841;
675.9000;0.1302;-0.8942;
676.2000;0.1327;-0.8841;
676.5000;0.1335;-0.8841;
676.8000;0.1319;-0.8967;
677.1000;0.1311;-0.8967;
677.4000;0.1319;-0.8992;
677.7000;0.1327;-0.8917;
678.0000;0.1294;-0.9042;
678.3000;0.1286;-0.9017;
678.6000;0.1302;-0.8917;
678.9000;0.1311;-0.8967;
679.2000;0.1311;-0.8867;
679.5000;0.1245;-0.8967;
679.8000;0.1245;-0.9042;
680.1000;0.1311;-0.8992;
680.4000;0.1262;-0.9093;
680.7000;0.1368;-0.8791;
681.0000;0.1294;-0.8867;
681.3000;0.1311;-0.8816;
681.6000;0.1327;-0.8816;
681.9000;0.1302;-0.8917;
682.2000;0.1319;-0.8892;
682.5000;0.1335;-0.8791;
682.8000;0.1311;-0.8791;
683.1000;0.1319;-0.8716;
683.4000;0.1302;-0.8791;
683.7000;0.1311;-0.8766;
684.0000;0.1270;-0.8942;
684.3000;0.1302;-0.8841;
684.6000;0.1327;-0.8816;
684.9000;0.1351;-0.8816;
685.2000;0.1262;-0.9143;
685.5000;0.1311;-0.9068;
685.8000;0.1327;-0.9118;
686.1000;0.1294;-0.9218;
686.4000;0.1327;-0.9168;
686.7000;0.1311;-0.9143;
687.0000;0.1270;-0.9218;
687.3000;0.1311;-0.9068;
687.6000;0.1319;-0.9143;
687.9000;0.1286;-0.9243;
688.2000;0.1319;-0.9068;
688.5000;0.1294;-0.9093;
688.8000;0.1294;-0.8992;
689.1000;0.1311;-0.8892;
689.4000;0.1311;-0.8942;
689.7000;0.1311;-0.8917;
690.0000;0.1319;-0.8942;
690.3000;0.1311;-0.8942;
690.6000;0.1311;-0.8992;
690.9000;0.1319;-0.8841;
691.2000;0.1302;-0.8841;
691.5000;0.1270;-0.8867;
691.8000;0.1319;-0.8741;
692.1000;0.1311;-0.8791;
692.4000;0.1302;-0.8691;
692.7000;0.1311;-0.8691;
693.0000;0.1319;-0.8666;
693.3000;0.1302;-0.8716;
693.6000;0.1319;-0.8791;
693.9000;0.1376;-0.8716;
694.2000;0.1254;-0.9042;
694.5000;0.1319;-0.8791;
694.8000;0.1294;-0.8791;
695.1000;0.1327;-0.8791;
695.4000;0.1302;-0.8942;
695.7000;0.1319;-0.9042;
696.0000;0.1327;-0.9093;
696.3000;0.1335;-0.9042;
696.6000;0.1302;-0.9093;
696.9000;0.1311;-0.9068;
697.2000;0.1319;-0.9118;
697.5000;0.1319;-0.9118;
697.8000;0.1311;-0.9143;
698.1000;0.1368;-0.9017;
698.4000;0.1311;-0.9168;
698.7000;0.1302;-0.9319;
699.0000;0.1311;-0.9268;
699.3000;0.1286;-0.9344;
699.6000;0.1302;-0.9319;
699.9000;0.1302;-0.9218;
700.2000;0.1319;-0.9093;
700.5000;0.1351;-0.8917;
700.8000;0.1319;-0.8892;
701.1000;0.1311;-0.8917;
701.4000;0.1254;-0.9042;
701.7000;0.1311;-0.8791;
702.0000;0.1327;-0.8766;
702.3000;0.1319;-0.8741;
702.6000;0.1286;-0.8816;
702.9000;0.1319;-0.8766;
703.2000;0.1311;-0.8766;
703.5000;0.1319;-0.8741;
703.8000;0.1327;-0.8716;
704.1000;0.1343;-0.8841;
704.4000;0.1327;-0.8841;
704.7000;0.1311;-0.8867;
705.0000;0.1302;-0.8841;
705.3000;0.1286;-0.8892;
705.6000;0.1327;-0.8841;
705.9000;0.1311;-0.8917;
706.2000;0.1302;-0.8841;
706.5000;0.1319;-0.8841;
706.8000;0.1311;-0.8917;
707.1000;0.1343;-0.8892;
707.4000;0.1302;-0.8967;
707.7000;0.1327;-0.8867;
708.0000;0.1311;-0.8867;
708.3000;0.1335;-0.8766;
708.6000;0.1319;-0.8741;
708.9000;0.1237;-0.8992;
709.2000;0.1311;-0.8917;
709.5000;0.1327;-0.8892;
709.8000;0.1319;-0.8892;
710.1000;0.1359;-0.8816;
710.4000;0.1319;-0.8841;
710.7000;0.1327;-0.8841;
711.0000;0.1302;-0.8967;
711.3000;0.1368;-0.8791;
711.6000;0.1335;-0.8917;
711.9000;0.1311;-0.8992;
712.2000;0.1311;-0.8967;
712.5000;0.1359;-0.8892;
712.8000;0.1319;-0.8917;
713.1000;0.1311;-0.8867;
713.4000;0.1327;-0.8841;
713.7000;0.1311;-0.8917;
714.0000;0.1327;-0.8892;
714.3000;0.1327;-0.8942;
714.6000;0.1319;-0.8867;
714.9000;0.1311;-0.8841;
715.2000;0.1294;-0.8942;
715.5000;0.1327;-0.8867;
715.8000;0.1311;-0.8841;
716.1000;0.1368;-0.8641;
716.4000;0.1302;-0.8791;
716.7000;0.1319;-0.8716;
717.0000;0.1311;-0.8641;
717.3000;0.1311;-0.8741;
717.6000;0.1294;-0.8867;
717.9000;0.1335;-0.8666;
718.2000;0.1302;-0.8816;
718.5000;0.1311;-0.8791;
718.8000;0.1327;-0.8791;
719.1000;0.1368;-0.8666;
719.4000;0.1327;-0.8791;
719.7000;0.1327;-0.8841;
720.0000;0.1319;-0.8841;
720.3000;0.1319;-0.8816;
720.6000;0.1302;-0.8816;
720.9000;0.1302;-0.8892;
721.2000;0.1327;-0.8867;
721.5000;0.1294;-0.8942;
721.8000;0.1302;-0.8766;
722.1000;0.1311;-0.8766;
722.4000;0.1294;-0.8791;
722.7000;0.1425;-0.8540;
723.0000;0.1319;-0.8766;
723.3000;0.1327;-0.8791;
723.6000;0.1311;-0.8741;
723.9000;0.1294;-0.8691;
724.2000;0.1311;-0.8615;
724.5000;0.1327;-0.8590;
724.8000;0.1294;-0.8716;
725.1000;0.1294;-0.8691;
725.4000;0.1286;-0.8615;
725.7000;0.1319;-0.8565;
726.0000;0.1270;-0.8716;
726.3000;0.1302;-0.8666;
726.6000;0.1294;-0.8766;
726.9000;0.1425;-0.8540;
727.2000;0.1311;-0.8867;
727.5000;0.1327;-0.8766;
727.8000;0.1311;-0.8892;
728.1000;0.1319;-0.8892;
728.4000;0.1319;-0.8942;
728.7000;0.1335;-0.8992;
729.0000;0.1327;-0.8967;
729.3000;0.1270;-0.9118;
729.6000;0.1311;-0.8892;
729.9000;0.1311;-0.8867;
730.2000;0.1311;-0.8917;
730.5000;0.1351;-0.8867;
730.8000;0.1351;-0.8917;
731.1000;0.1286;-0.9068;
731.4000;0.1302;-0.8967;
731.7000;0.1392;-0.8666;
732.0000;0.1368;-0.8791;
732.3000;0.1327;-0.8816;
732.6000;0.1359;-0.8766;
732.9000;0.1311;-0.8816;
733.2000;0.1311;-0.8917;
733.5000;0.1319;-0.8992;
733.8000;0.1343;-0.8892;
734.1000;0.1302;-0.9017;
734.4000;0.1327;-0.8967;
734.7000;0.1327;-0.9017;
735.0000;0.1376;-0.8766;
735.3000;0.1311;-0.8816;
735.6000;0.1278;-0.8892;
735.9000;0.1319;-0.8791;
736.2000;0.1351;-0.8666;
736.5000;0.1311;-0.8766;
736.8000;0.1311;-0.8766;
737.1000;0.1302;-0.8791;
737.4000;0.1400;-0.8515;
737.7000;0.1286;-0.8867;
738.0000;0.1294;-0.8917;
738.3000;0.1327;-0.8867;
738.6000;0.1311;-0.8892;
738.9000;0.1384;-0.8741;
739.2000;0.1311;-0.8892;
739.5000;0.1384;-0.8641;
739.8000;0.1335;-0.8791;
740.1000;0.1294;-0.8766;
740.4000;0.1368;-0.8691;
740.7000;0.1302;-0.8867;
741.0000;0.1278;-0.8992;
741.3000;0.1311;-0.8967;
741.6000;0.1319;-0.9017;
741.9000;0.1294;-0.8992;
742.2000;0.1311;-0.8816;
742.5000;0.1319;-0.8892;
742.8000;0.1294;-0.8917;
743.1000;0.1343;-0.8766;
743.4000;0.1311;-0.8791;
743.7000;0.1327;-0.8716;
744.0000;0.1286;-0.8841;
744.3000;0.1311;-0.8867;
744.6000;0.1368;-0.8816;
744.9000;0.1311;-0.8917;
745.2000;0.1319;-0.8917;
745.5000;0.1351;-0.8867;
745.8000;0.1319;-0.8942;
746.1000;0.1319;-0.8892;
746.4000;0.1294;-0.8967;
746.7000;0.1221;-0.9042;
747.0000;0.1278;-0.8867;
747.3000;0.1319;-0.8791;
747.6000;0.1237;-0.8992;
747.9000;0.1311;-0.8816;
748.2000;0.1319;-0.8841;
748.5000;0.1302;-0.8791;
748.8000;0.1302;-0.8791;
749.1000;0.1294;-0.8816;
749.4000;0.1311;-0.8892;
749.7000;0.1319;-0.8917;
750.0000;0.1278;-0.8992;
750.3000;0.1311;-0.8892;
750.6000;0.1302;-0.8967;
750.9000;0.1343;-0.8917;
751.2000;0.1286;-0.8992;
751.5000;0.1302;-0.8992;
751.8000;0.1286;-0.8917;
752.1000;0.1294;-0.8867;
752.4000;0.1335;-0.8691;
752.7000;0.1327;-0.8666;
753.0000;0.1311;-0.8741;
753.3000;0.1392;-0.8465;
753.6000;0.1311;-0.8666;
753.9000;0.1302;-0.8766;
754.2000;0.1294;-0.8791;
754.5000;0.1311;-0.8791;
754.8000;0.1311;-0.8816;
755.1000;0.1327;-0.8841;
755.4000;0.1319;-0.8942;
755.7000;0.1384;-0.8816;
756.0000;0.1278;-0.8942;
756.3000;0.1311;-0.8917;
756.6000;0.1294;-0.8967;
756.9000;0.1311;-0.8917;
757.2000;0.1237;-0.9093;
757.5000;0.1319;-0.8867;
757.8000;0.1302;-0.8841;
758.1000;0.1286;-0.8967;
758.4000;0.1278;-0.9068;
758.7000;0.1311;-0.8992;
759.0000;0.1392;-0.8841;
759.3000;0.1319;-0.9042;
759.6000;0.1311;-0.9093;
759.9000;0.1327;-0.8992;
760.2000;0.1319;-0.8942;
760.5000;0.1319;-0.8992;
760.8000;0.1335;-0.8942;
761.1000;0.1302;-0.9017;
761.4000;0.1327;-0.8967;
761.7000;0.1319;-0.8942;
762.0000;0.1327;-0.8992;
762.3000;0.1319;-0.8942;
762.6000;0.1302;-0.8917;
762.9000;0.1335;-0.8816;
763.2000;0.1302;-0.8942;
763.5000;0.1319;-0.8892;
763.8000;0.1343;-0.8841;
764.1000;0.1311;-0.8942;
764.4000;0.1311;-0.8942;
764.7000;0.1311;-0.8942;
765.0000;0.1311;-0.8892;
765.3000;0.1319;-0.8892;
765.6000;0.1327;-0.8917;
765.9000;0.1311;-0.8841;
766.2000;0.1327;-0.8816;
766.5000;0.1319;-0.8942;
766.8000;0.1294;-0.9017;
767.1000;0.1311;-0.9017;
767.4000;0.1294;-0.9017;
767.7000;0.1302;-0.8992;
768.0000;0.1311;-0.9017;
768.3000;0.1319;-0.8992;
768.6000;0.1327;-0.8942;
768.9000;0.1311;-0.8992;
769.2000;0.1327;-0.9068;
769.5000;0.1343;-0.9042;
769.8000;0.1343;-0.9093;
770.1000;0.1311;-0.9193;
770.4000;0.1335;-0.9042;
770.7000;0.1311;-0.9118;
771.0000;0.1368;-0.8967;
771.3000;0.1245;-0.9143;
771.6000;0.1311;-0.8816;
771.9000;0.1286;-0.8791;
772.2000;0.1311;-0.8766;
772.5000;0.1302;-0.8791;
772.8000;0.1319;-0.8791;
773.1000;0.1302;-0.8917;
773.4000;0.1302;-0.8967;
773.7000;0.1311;-0.9017;
774.0000;0.1384;-0.8791;
774.3000;0.1229;-0.9243;
774.6000;0.1302;-0.8892;
774.9000;0.1311;-0.8867;
775.2000;0.1319;-0.8917;
775.5000;0.1311;-0.8992;
775.8000;0.1392;-0.8917;
776.1000;0.1343;-0.8992;
776.4000;0.1302;-0.9118;
776.7000;0.1270;-0.9118;
777.0000;0.1319;-0.8992;
777.3000;0.1319;-0.8917;
777.6000;0.1311;-0.8992;
777.9000;0.1392;-0.8666;
778.2000;0.1319;-0.8816;
778.5000;0.1319;-0.8791;
778.8000;0.1311;-0.8892;
779.1000;0.1278;-0.9017;
779.4000;0.1319;-0.8967;
779.7000;0.1319;-0.9042;
780.0000;0.1327;-0.8992;
780.3000;0.1319;-0.8942;
780.6000;0.1327;-0.8892;
780.9000;0.1237;-0.9118;
781.2000;0.1245;-0.9143;
781.5000;0.1319;-0.8992;
781.8000;0.1319;-0.8942;
782.1000;0.1286;-0.9017;
782.4000;0.1302;-0.8942;
782.7000;0.1294;-0.8892;
783.0000;0.1319;-0.8967;
783.3000;0.1319;-0.8917;
783.6000;0.1221;-0.9143;
783.9000;0.1294;-0.8992;
784.2000;0.1311;-0.9068;
784.5000;0.1311;-0.9042;
784.8000;0.1311;-0.8942;
785.1000;0.1311;-0.8992;
785.4000;0.1311;-0.9042;
785.7000;0.1335;-0.8992;
786.0000;0.1319;-0.9042;
786.3000;0.1311;-0.9218;
786.6000;0.1343;-0.9168;
786.9000;0.1302;-0.9193;
787.2000;0.1319;-0.9068;
787.5000;0.1311;-0.9068;
787.8000;0.1359;-0.8942;
788.1000;0.1319;-0.9017;
788.4000;0.1302;-0.9093;
788.7000;0.1302;-0.9143;
789.0000;0.1335;-0.9017;
789.3000;0.1327;-0.9068;
789.6000;0.1319;-0.9042;
789.9000;0.1327;-0.9017;
790.2000;0.1319;-0.9093;
790.5000;0.1327;-0.9193;
790.8000;0.1319;-0.9193;
791.1000;0.1294;-0.9218;
791.4000;0.1294;-0.9218;
791.7000;0.1351;-0.9093;
792.0000;0.1335;-0.9017;
792.3000;0.1294;-0.8967;
792.6000;0.1311;-0.8841;
792.9000;0.1286;-0.8841;
793.2000;0.1327;-0.8791;
793.5000;0.1343;-0.8666;
793.8000;0.1327;-0.8791;
794.1000;0.1327;-0.8841;
794.4000;0.1368;-0.8791;
794.7000;0.1319;-0.8942;
795.0000;0.1311;-0.8942;
795.3000;0.1311;-0.9042;
795.6000;0.1319;-0.9042;
795.9000;0.1270;-0.9193;
796.2000;0.1294;-0.9168;
796.5000;0.1294;-0.9294;
796.8000;0.1311;-0.9218;
797.1000;0.1311;-0.9118;
797.4000;0.1311;-0.9193;
797.7000;0.1319;-0.9218;
798.0000;0.1359;-0.9093;
798.3000;0.1343;-0.9068;
798.6000;0.1319;-0.9118;
798.9000;0.1368;-0.8942;
799.2000;0.1327;-0.8967;
799.5000;0.1335;-0.8942;
799.8000;0.1327;-0.8917;
800.1000;0.1327;-0.8967;
800.4000;0.1311;-0.8992;
800.7000;0.1327;-0.8992;
801.0000;0.1327;-0.8992;
801.3000;0.1319;-0.9042;
801.6000;0.1335;-0.9017;
801.9000;0.1311;-0.9042;
802.2000;0.1319;-0.8967;
802.5000;0.1327;-0.8867;
802.8000;0.1302;-0.8942;
803.1000;0.1351;-0.8841;
803.4000;0.1327;-0.8841;
803.7000;0.1294;-0.8942;
804.0000;0.1302;-0.8967;
804.3000;0.1319;-0.8942;
804.6000;0.1335;-0.8992;
804.9000;0.1278;-0.9168;
805.2000;0.1302;-0.9118;
805.5000;0.1351;-0.8917;
805.8000;0.1302;-0.9017;
806.1000;0.1376;-0.8841;
806.4000;0.1302;-0.8967;
806.7000;0.1294;-0.8917;
807.0000;0.1311;-0.8917;
807.3000;0.1311;-0.8992;
807.6000;0.1359;-0.8841;
807.9000;0.1319;-0.8892;
808.2000;0.1311;-0.8967;
808.5000;0.1270;-0.9068;
808.8000;0.1302;-0.9068;
809.1000;0.1311;-0.8992;
809.4000;0.1311;-0.8992;
809.7000;0.1311;-0.8967;
810.0000;0.1327;-0.8942;
810.3000;0.1327;-0.8992;
810.6000;0.1302;-0.9042;
810.9000;0.1335;-0.8942;
811.2000;0.1335;-0.8967;
811.5000;0.1319;-0.9168;
811.8000;0.1319;-0.9193;
812.1000;0.1229;-0.9444;
812.4000;0.1327;-0.9218;
812.7000;0.1294;-0.9268;
813.0000;0.1319;-0.9118;
813.3000;0.1327;-0.9093;
813.6000;0.1311;-0.9143;
813.9000;0.1270;-0.9268;
814.2000;0.1335;-0.9093;
814.5000;0.1319;-0.9168;
814.8000;0.1343;-0.9042;
815.1000;0.1343;-0.9017;
815.4000;0.1351;-0.9068;
815.7000;0.1335;-0.9143;
816.0000;0.1302;-0.9243;
816.3000;0.1302;-0.9268;
816.6000;0.1213;-0.9545;
816.9000;0.1359;-0.9093;
817.2000;0.1294;-0.9268;
817.5000;0.1294;-0.9193;
817.8000;0.1319;-0.9243;
818.1000;0.1311;-0.9193;
818.4000;0.1376;-0.9017;
818.7000;0.1319;-0.9168;
819.0000;0.1213;-0.9444;
819.3000;0.1311;-0.9193;
819.6000;0.1302;-0.9218;
819.9000;0.1327;-0.9193;
820.2000;0.1335;-0.9168;
820.5000;0.1286;-0.9369;
820.8000;0.1384;-0.9143;
821.1000;0.1319;-0.9294;
821.4000;0.1311;-0.9243;
821.7000;0.1351;-0.9042;
822.0000;0.1311;-0.9268;
822.3000;0.1311;-0.9193;
822.6000;0.1319;-0.9268;
822.9000;0.1302;-0.9294;
823.2000;0.1319;-0.9168;
823.5000;0.1302;-0.9193;
823.8000;0.1335;-0.9143;
824.1000;0.1343;-0.9042;
824.4000;0.1319;-0.9068;
824.7000;0.1286;-0.9143;
825.0000;0.1327;-0.9068;
825.3000;0.1302;-0.9068;
825.6000;0.1294;-0.9068;
825.9000;0.1302;-0.9068;
826.2000;0.1343;-0.9118;
826.5000;0.1302;-0.9193;
826.8000;0.1286;-0.9093;
827.1000;0.1311;-0.9093;
827.4000;0.1343;-0.8967;
827.7000;0.1311;-0.9093;
828.0000;0.1351;-0.8992;
828.3000;0.1311;-0.9118;
828.6000;0.1302;-0.9268;
828.9000;0.1327;-0.9118;
829.2000;0.1319;-0.9093;
829.5000;0.1335;-0.8942;
829.8000;0.1327;-0.8917;
830.1000;0.1254;-0.9068;
830.4000;0.1245;-0.9093;
830.7000;0.1311;-0.8992;
831.0000;0.1302;-0.8917;
831.3000;0.1311;-0.8816;
831.6000;0.1327;-0.8766;
831.9000;0.1319;-0.8867;
832.2000;0.1294;-0.8841;
832.5000;0.1319;-0.8691;
832.8000;0.1294;-0.8741;
833.1000;0.1376;-0.8565;
833.4000;0.1319;-0.8766;
833.7000;0.1327;-0.8841;
834.0000;0.1311;-0.8867;
834.3000;0.1319;-0.8841;
834.6000;0.1311;-0.8892;
834.9000;0.1311;-0.9017;
835.2000;0.1359;-0.8867;
835.5000;0.1302;-0.8992;
835.8000;0.1327;-0.8967;
836.1000;0.1327;-0.8917;
836.4000;0.1327;-0.8867;
836.7000;0.1319;-0.8867;
837.0000;0.1302;-0.8892;
837.3000;0.1319;-0.8892;
837.6000;0.1319;-0.8867;
837.9000;0.1311;-0.8867;
838.2000;0.1351;-0.8816;
838.5000;0.1254;-0.8992;
838.8000;0.1270;-0.8917;
839.1000;0.1311;-0.8791;
839.4000;0.1335;-0.8791;
839.7000;0.1327;-0.8816;
840.0000;0.1302;-0.8791;
840.3000;0.1327;-0.8841;
840.6000;0.1319;-0.8816;
840.9000;0.1343;-0.8741;
841.2000;0.1302;-0.8892;
841.5000;0.1343;-0.8766;
841.8000;0.1327;-0.8917;
842.1000;0.1319;-0.8967;
842.4000;0.1319;-0.8892;
842.7000;0.1319;-0.8841;
843.0000;0.1294;-0.9017;
843.3000;0.1319;-0.9068;
843.6000;0.1262;-0.9168;
843.9000;0.1319;-0.8992;
844.2000;0.1319;-0.9068;
844.5000;0.1319;-0.9093;
844.8000;0.1311;-0.9143;
845.1000;0.1319;-0.9042;
845.4000;0.1327;-0.9068;
845.7000;0.1311;-0.9093;
846.0000;0.1278;-0.9168;
846.3000;0.1311;-0.9042;
846.6000;0.1327;-0.8892;
846.9000;0.1294;-0.8917;
847.2000;0.1302;-0.8867;
847.5000;0.1311;-0.8867;
847.8000;0.1302;-0.8841;
848.1000;0.1294;-0.8841;
848.4000;0.1319;-0.8841;
848.7000;0.1335;-0.8816;
849.0000;0.1392;-0.8791;
849.3000;0.1343;-0.8917;
849.6000;0.1335;-0.8841;
849.9000;0.1319;-0.8841;
850.2000;0.1327;-0.8791;
850.5000;0.1335;-0.8791;
850.8000;0.1335;-0.8766;
851.1000;0.1237;-0.9068;
851.4000;0.1319;-0.8942;
851.7000;0.1311;-0.9042;
852.0000;0.1319;-0.9068;
852.3000;0.1311;-0.9193;
852.6000;0.1327;-0.9168;
852.9000;0.1319;-0.9193;
853.2000;0.1319;-0.9168;
853.5000;0.1319;-0.9168;
853.8000;0.1311;-0.9143;
854.1000;0.1311;-0.9068;
854.4000;0.1384;-0.8867;
854.7000;0.1311;-0.8967;
855.0000;0.1319;-0.8992;
855.3000;0.1335;-0.9017;
855.6000;0.1270;-0.9143;
855.9000;0.1311;-0.8992;
856.2000;0.1311;-0.8967;
856.5000;0.1237;-0.9143;
856.8000;0.1335;-0.8867;
857.1000;0.1327;-0.9042;
857.4000;0.1311;-0.9093;
857.7000;0.1311;-0.9093;
858.0000;0.1302;-0.8992;
858.3000;0.1319;-0.8917;
858.6000;0.1221;-0.9168;
858.9000;0.1302;-0.8892;
859.2000;0.1286;-0.8917;
859.5000;0.1319;-0.8816;
859.8000;0.1368;-0.8691;
860.1000;0.1311;-0.8791;
860.4000;0.1311;-0.8791;
860.7000;0.1327;-0.8791;
861.0000;0.1327;-0.8766;
861.3000;0.1319;-0.8841;
861.6000;0.1294;-0.8917;
861.9000;0.1319;-0.8942;
862.2000;0.1327;-0.9017;
862.5000;0.1327;-0.9118;
862.8000;0.1319;-0.9042;
863.1000;0.1343;-0.8992;
863.4000;0.1327;-0.8917;
863.7000;0.1335;-0.8892;
864.0000;0.1327;-0.8816;
864.3000;0.1335;-0.8816;
864.6000;0.1319;-0.8867;
864.9000;0.1302;-0.8967;
865.2000;0.1319;-0.8892;
865.5000;0.1319;-0.8841;
865.8000;0.1376;-0.8716;
866.1000;0.1327;-0.8816;
866.4000;0.1311;-0.8791;
866.7000;0.1335;-0.8816;
867.0000;0.1311;-0.8841;
867.3000;0.1335;-0.8691;
867.6000;0.1319;-0.8716;
867.9000;0.1229;-0.8942;
868.2000;0.1294;-0.8942;
868.5000;0.1311;-0.8892;
868.8000;0.1351;-0.8892;
869.1000;0.1311;-0.8942;
869.4000;0.1327;-0.9017;
869.7000;0.1343;-0.8967;
870.0000;0.1368;-0.8942;
870.3000;0.1327;-0.8992;
870.6000;0.1327;-0.8992;
870.9000;0.1294;-0.9068;
871.2000;0.1327;-0.9042;
871.5000;0.1327;-0.9068;
871.8000;0.1376;-0.8917;
872.1000;0.1327;-0.9042;
872.4000;0.1327;-0.9168;
872.7000;0.1311;-0.9068;
873.0000;0.1359;-0.8942;
873.3000;0.1311;-0.9143;
873.6000;0.1327;-0.9193;
873.9000;0.1302;-0.9218;
874.2000;0.1311;-0.9118;
874.5000;0.1311;-0.9042;
874.8000;0.1343;-0.8841;
875.1000;0.1286;-0.8942;
875.4000;0.1319;-0.8841;
875.7000;0.1286;-0.8841;
876.0000;0.1327;-0.8741;
876.3000;0.1327;-0.8766;
876.6000;0.1343;-0.8892;
876.9000;0.1302;-0.8992;
877.2000;0.1327;-0.8917;
877.5000;0.1335;-0.8816;
877.8000;0.1302;-0.8892;
878.1000;0.1327;-0.8816;
878.4000;0.1319;-0.8892;
878.7000;0.1319;-0.8892;
879.0000;0.1343;-0.8942;
879.3000;0.1335;-0.9068;
879.6000;0.1319;-0.9168;
879.9000;0.1343;-0.9118;
880.2000;0.1319;-0.9168;
880.5000;0.1319;-0.9068;
880.8000;0.1319;-0.8992;
881.1000;0.1343;-0.8841;
881.4000;0.1319;-0.8841;
881.7000;0.1327;-0.8791;
882.0000;0.1335;-0.8791;
882.3000;0.1335;-0.8716;
882.6000;0.1319;-0.8791;
882.9000;0.1302;-0.8816;
883.2000;0.1327;-0.8766;
883.5000;0.1311;-0.8766;
883.8000;0.1351;-0.8741;
884.1000;0.1311;-0.8841;
884.4000;0.1311;-0.8892;
884.7000;0.1302;-0.8942;
885.0000;0.1319;-0.8867;
885.3000;0.1302;-0.8917;
885.6000;0.1359;-0.8791;
885.9000;0.1311;-0.8942;
886.2000;0.1311;-0.8917;
886.5000;0.1311;-0.8942;
886.8000;0.1286;-0.9042;
887.1000;0.1319;-0.8967;
887.4000;0.1262;-0.9193;
887.7000;0.1302;-0.9118;
888.0000;0.1319;-0.9042;
888.3000;0.1335;-0.8967;
888.6000;0.1302;-0.9042;
888.9000;0.1319;-0.8992;
889.2000;0.1302;-0.8942;
889.5000;0.1327;-0.8967;
889.8000;0.1319;-0.8942;
890.1000;0.1319;-0.8867;
890.4000;0.1294;-0.8967;
890.7000;0.1302;-0.8917;
891.0000;0.1311;-0.8917;
891.3000;0.1376;-0.8791;
891.6000;0.1302;-0.8967;
891.9000;0.1302;-0.8967;
892.2000;0.1302;-0.9017;
892.5000;0.1294;-0.9168;
892.8000;0.1311;-0.9093;
893.1000;0.1302;-0.9118;
893.4000;0.1319;-0.8992;
893.7000;0.1327;-0.8967;
894.0000;0.1335;-0.9017;
894.3000;0.1319;-0.9042;
894.6000;0.1327;-0.9143;
894.9000;0.1319;-0.9143;
895.2000;0.1327;-0.9093;
895.5000;0.1343;-0.9093;
895.8000;0.1311;-0.9068;
896.1000;0.1311;-0.9042;
896.4000;0.1327;-0.9017;
896.7000;0.1327;-0.9017;
897.0000;0.1319;-0.9068;
897.3000;0.1278;-0.9168;
897.6000;0.1319;-0.9143;
897.9000;0.1319;-0.9093;
898.2000;0.1254;-0.9193;
898.5000;0.1311;-0.9068;
898.8000;0.1262;-0.9118;
899.1000;0.1302;-0.9017;
899.4000;0.1319;-0.8942;
899.7000;0.1294;-0.8967;
900.0000;0.1311;-0.8942;
900.3000;0.1311;-0.8992;
900.6000;0.1319;-0.8992;
900.9000;0.1319;-0.8942;
901.2000;0.1311;-0.8892;
901.5000;0.1327;-0.8841;
901.8000;0.1327;-0.8816;
902.1000;0.1343;-0.8816;
902.4000;0.1319;-0.8892;
902.7000;0.1311;-0.8791;
903.0000;0.1311;-0.8816;
903.3000;0.1311;-0.8816;
903.6000;0.1286;-0.8867;
903.9000;0.1302;-0.8791;
904.2000;0.1302;-0.8816;
904.5000;0.1351;-0.8691;
904.8000;0.1302;-0.8816;
905.1000;0.1311;-0.8791;
905.4000;0.1302;-0.8967;
905.7000;0.1327;-0.8917;
906.0000;0.1270;-0.8942;
906.3000;0.1327;-0.8917;
906.6000;0.1359;-0.8867;
906.9000;0.1327;-0.8967;
907.2000;0.1311;-0.8917;
907.5000;0.1392;-0.8691;
907.8000;0.1343;-0.8841;
908.1000;0.1335;-0.8892;
908.4000;0.1343;-0.9017;
908.7000;0.1311;-0.9068;
909.0000;0.1294;-0.9093;
909.3000;0.1335;-0.8917;
909.6000;0.1294;-0.8917;
909.9000;0.1327;-0.8791;
910.2000;0.1327;-0.8791;
910.5000;0.1278;-0.8942;
910.8000;0.1335;-0.8841;
911.1000;0.1311;-0.8867;
911.4000;0.1319;-0.8816;
911.7000;0.1319;-0.8816;
912.0000;0.1302;-0.8867;
912.3000;0.1319;-0.8942;
912.6000;0.1311;-0.8942;
912.9000;0.1416;-0.8565;
913.2000;0.1319;-0.8791;
913.5000;0.1302;-0.8841;
913.8000;0.1327;-0.8816;
914.1000;0.1319;-0.8841;
914.4000;0.1302;-0.8992;
914.7000;0.1311;-0.8892;
915.0000;0.1311;-0.8892;
915.3000;0.1319;-0.8967;
915.6000;0.1319;-0.8992;
915.9000;0.1327;-0.8992;
916.2000;0.1319;-0.8917;
916.5000;0.1327;-0.8917;
916.8000;0.1327;-0.8992;
917.1000;0.1368;-0.8917;
917.4000;0.1294;-0.9042;
917.7000;0.1327;-0.8992;
918.0000;0.1294;-0.9042;
918.3000;0.1327;-0.8967;
918.6000;0.1311;-0.8942;
918.9000;0.1319;-0.8992;
919.2000;0.1294;-0.9068;
919.5000;0.1327;-0.8992;
919.8000;0.1319;-0.9017;
920.1000;0.1311;-0.9017;
920.4000;0.1343;-0.8942;
920.7000;0.1335;-0.8917;
921.0000;0.1319;-0.8967;
921.3000;0.1319;-0.8992;
921.6000;0.1368;-0.8867;
921.9000;0.1319;-0.8917;
922.2000;0.1335;-0.8892;
922.5000;0.1319;-0.8967;
922.8000;0.1302;-0.8967;
923.1000;0.1335;-0.8917;
923.4000;0.1302;-0.9093;
923.7000;0.1229;-0.9369;
924.0000;0.1319;-0.9143;
924.3000;0.1327;-0.9143;
924.6000;0.1254;-0.9344;
924.9000;0.1302;-0.9193;
925.2000;0.1319;-0.9218;
925.5000;0.1302;-0.9294;
925.8000;0.1311;-0.9218;
926.1000;0.1311;-0.9193;
926.4000;0.1286;-0.9218;
926.7000;0.1319;-0.9068;
927.0000;0.1327;-0.9118;
927.3000;0.1311;-0.9143;
927.6000;0.1294;-0.9193;
927.9000;0.1311;-0.9193;
928.2000;0.1254;-0.9218;
928.5000;0.1294;-0.9193;
928.8000;0.1294;-0.9193;
929.1000;0.1278;-0.9243;
929.4000;0.1311;-0.8992;
929.7000;0.1351;-0.8892;
930.0000;0.1262;-0.9118;
930.3000;0.1311;-0.8967;
930.6000;0.1278;-0.9042;
930.9000;0.1327;-0.8892;
931.2000;0.1319;-0.9068;
931.5000;0.1327;-0.9143;
931.8000;0.1270;-0.9268;
932.1000;0.1311;-0.9118;
932.4000;0.1343;-0.9017;
932.7000;0.1270;-0.9193;
933.0000;0.1319;-0.9168;
933.3000;0.1327;-0.9193;
933.6000;0.1302;-0.9168;
933.9000;0.1311;-0.9168;
934.2000;0.1311;-0.9268;
934.5000;0.1311;-0.9193;
934.8000;0.1319;-0.9218;
935.1000;0.1311;-0.9118;
935.4000;0.1270;-0.9218;
935.7000;0.1327;-0.9093;
936.0000;0.1327;-0.9118;
936.3000;0.1319;-0.9093;
936.6000;0.1327;-0.9093;
936.9000;0.1359;-0.8992;
937.2000;0.1319;-0.9042;
937.5000;0.1416;-0.8841;
937.8000;0.1302;-0.9118;
938.1000;0.1335;-0.9193;
938.4000;0.1319;-0.9218;
938.7000;0.1302;-0.9294;
939.0000;0.1319;-0.9168;
939.3000;0.1294;-0.9168;
939.6000;0.1302;-0.9042;
939.9000;0.1278;-0.9093;
940.2000;0.1311;-0.8992;
940.5000;0.1311;-0.8867;
940.8000;0.1311;-0.8816;
941.1000;0.1359;-0.8741;
941.4000;0.1319;-0.8791;
941.7000;0.1351;-0.8841;
942.0000;0.1319;-0.8816;
942.3000;0.1311;-0.8917;
942.6000;0.1319;-0.8992;
942.9000;0.1311;-0.9042;
943.2000;0.1327;-0.9017;
943.5000;0.1351;-0.8892;
943.8000;0.1311;-0.8967;
944.1000;0.1311;-0.9068;
944.4000;0.1302;-0.9168;
944.7000;0.1327;-0.9193;
945.0000;0.1286;-0.9168;
945.3000;0.1343;-0.9017;
945.6000;0.1319;-0.9068;
945.9000;0.1408;-0.8992;
946.2000;0.1327;-0.9168;
946.5000;0.1319;-0.9093;
946.8000;0.1343;-0.8942;
947.1000;0.1351;-0.8942;
947.4000;0.1302;-0.9017;
947.7000;0.1302;-0.8992;
948.0000;0.1327;-0.8942;
948.3000;0.1311;-0.8992;
948.6000;0.1376;-0.8867;
948.9000;0.1335;-0.9017;
949.2000;0.1302;-0.9193;
949.5000;0.1311;-0.9168;
949.8000;0.1343;-0.9068;
950.1000;0.1311;-0.9143;
950.4000;0.1319;-0.9118;
950.7000;0.1294;-0.9093;
951.0000;0.1319;-0.9042;
951.3000;0.1319;-0.9093;
951.6000;0.1302;-0.9093;
951.9000;0.1270;-0.9193;
952.2000;0.1245;-0.9193;
952.5000;0.1311;-0.8992;
952.8000;0.1319;-0.9042;
953.1000;0.1286;-0.9093;
953.4000;0.1327;-0.8942;
953.7000;0.1245;-0.9143;
954.0000;0.1302;-0.8967;
954.3000;0.1311;-0.9042;
954.6000;0.1319;-0.9093;
954.9000;0.1327;-0.9118;
955.2000;0.1311;-0.9218;
955.5000;0.1327;-0.9243;
955.8000;0.1327;-0.9193;
956.1000;0.1335;-0.9193;
956.4000;0.1319;-0.9193;
956.7000;0.1302;-0.9218;
957.0000;0.1302;-0.9218;
957.3000;0.1270;-0.9319;
957.6000;0.1278;-0.9319;
957.9000;0.1311;-0.9268;
958.2000;0.1319;-0.9268;
958.5000;0.1319;-0.9294;
958.8000;0.1319;-0.9218;
959.1000;0.1327;-0.9294;
959.4000;0.1319;-0.9268;
959.7000;0.1327;-0.9168;
960.0000;0.1335;-0.9118;
960.3000;0.1302;-0.9218;
960.6000;0.1335;-0.9118;
960.9000;0.1311;-0.9168;
961.2000;0.1327;-0.9093;
961.5000;0.1343;-0.9017;
961.8000;0.1302;-0.9068;
962.1000;0.1351;-0.9042;
962.4000;0.1327;-0.9319;
962.7000;0.1343;-0.9193;
963.0000;0.1335;-0.9344;
963.3000;0.1286;-0.9444;
963.6000;0.1335;-0.9319;
963.9000;0.1294;-0.9394;
964.2000;0.1262;-0.9495;
964.5000;0.1319;-0.9319;
964.8000;0.1229;-0.9545;
965.1000;0.1335;-0.9294;
965.4000;0.1302;-0.9268;
965.7000;0.1319;-0.9369;
966.0000;0.1327;-0.9243;
966.3000;0.1327;-0.9243;
966.6000;0.1311;-0.9344;
966.9000;0.1213;-0.9545;
967.2000;0.1237;-0.9495;
967.5000;0.1351;-0.9168;
967.8000;0.1327;-0.9218;
968.1000;0.1400;-0.9118;
968.4000;0.1311;-0.9268;
968.7000;0.1319;-0.9268;
969.0000;0.1311;-0.9294;
969.3000;0.1319;-0.9344;
969.6000;0.1335;-0.9344;
969.9000;0.1327;-0.9268;
970.2000;0.1335;-0.9218;
970.5000;0.1311;-0.9218;
970.8000;0.1278;-0.9294;
971.1000;0.1319;-0.9294;
971.4000;0.1327;-0.9294;
971.7000;0.1319;-0.9243;
972.0000;0.1302;-0.9294;
972.3000;0.1311;-0.9218;
972.6000;0.1294;-0.9218;
972.9000;0.1311;-0.9143;
973.2000;0.1302;-0.9193;
973.5000;0.1302;-0.9193;
973.8000;0.1311;-0.9218;
974.1000;0.1311;-0.9294;
974.4000;0.1286;-0.9344;
974.7000;0.1311;-0.9243;
975.0000;0.1311;-0.9168;
975.3000;0.1311;-0.9143;
975.6000;0.1311;-0.9093;
975.9000;0.1311;-0.9068;
976.2000;0.1319;-0.9143;
976.5000;0.1327;-0.9118;
976.8000;0.1294;-0.9218;
977.1000;0.1319;-0.9193;
977.4000;0.1254;-0.9444;
977.7000;0.1270;-0.9469;
978.0000;0.1319;-0.9344;
978.3000;0.1311;-0.9294;
978.6000;0.1327;-0.9168;
978.9000;0.1294;-0.9243;
979.2000;0.1311;-0.9243;
979.5000;0.1311;-0.9243;
979.8000;0.1262;-0.9495;
980.1000;0.1319;-0.9243;
980.4000;0.1327;-0.9193;
980.7000;0.1319;-0.9218;
981.0000;0.1359;-0.9068;
981.3000;0.1327;-0.9268;
981.6000;0.1319;-0.9319;
981.9000;0.1254;-0.9394;
982.2000;0.1319;-0.9168;
982.5000;0.1278;-0.9268;
982.8000;0.1311;-0.9143;
983.1000;0.1311;-0.9168;
983.4000;0.1376;-0.9068;
983.7000;0.1311;-0.9193;
984.0000;0.1319;-0.9168;
984.3000;0.1278;-0.9268;
984.6000;0.1294;-0.9093;
984.9000;0.1294;-0.9218;
985.2000;0.1335;-0.9143;
985.5000;0.1311;-0.9143;
985.8000;0.1327;-0.9093;
986.1000;0.1302;-0.9243;
986.4000;0.1327;-0.9268;
986.7000;0.1311;-0.9319;
987.0000;0.1311;-0.9268;
987.3000;0.1278;-0.9268;
987.6000;0.1319;-0.9218;
987.9000;0.1278;-0.9319;
988.2000;0.1302;-0.9168;
988.5000;0.1311;-0.9042;
988.8000;0.1335;-0.9068;
989.1000;0.1319;-0.9068;
989.4000;0.1319;-0.9042;
989.7000;0.1416;-0.8841;
990.0000;0.1319;-0.9042;
990.3000;0.1335;-0.8992;
990.6000;0.1327;-0.9017;
990.9000;0.1262;-0.9193;
991.2000;0.1294;-0.9068;
991.5000;0.1327;-0.9042;
991.8000;0.1351;-0.9068;
992.1000;0.1311;-0.9118;
992.4000;0.1311;-0.9093;
992.7000;0.1327;-0.8992;
993.0000;0.1302;-0.9093;
993.3000;0.1302;-0.9218;
993.6000;0.1327;-0.9168;
993.9000;0.1335;-0.9143;
994.2000;0.1327;-0.9143;
994.5000;0.1311;-0.9243;
994.8000;0.1311;-0.9268;
995.1000;0.1335;-0.9168;
995.4000;0.1311;-0.9118;
995.7000;0.1327;-0.9118;
996.0000;0.1319;-0.9193;
996.3000;0.1319;-0.9193;
996.6000;0.1319;-0.9193;
996.9000;0.1319;-0.9268;
997.2000;0.1302;-0.9268;
997.5000;0.1319;-0.9319;
997.8000;0.1311;-0.9394;
998.1000;0.1311;-0.9369;
998.4000;0.1319;-0.9319;
998.7000;0.1294;-0.9419;
999.0000;0.1311;-0.9344;
999.3000;0.1319;-0.9344;
999.6000;0.1319;-0.9294;
999.9000;0.1302;-0.9268;
1000.2000;0.1327;-0.9143;
1000.5000;0.1319;-0.9118;
1000.8000;0.1319;-0.9118;
1001.1000;0.1311;-0.9143;
1001.4000;0.1327;-0.9168;
1001.7000;0.1311;-0.9168;
1002.0000;0.1327;-0.9068;
1002.3000;0.1286;-0.9143;
1002.6000;0.1302;-0.9093;
1002.9000;0.1335;-0.9093;
1003.2000;0.1302;-0.9118;
1003.5000;0.1302;-0.9168;
1003.8000;0.1335;-0.9017;
1004.1000;0.1319;-0.9042;
1004.4000;0.1262;-0.9193;
1004.7000;0.1376;-0.8816;
1005.0000;0.1270;-0.9168;
1005.3000;0.1270;-0.9294;
1005.6000;0.1270;-0.9218;
1005.9000;0.1319;-0.9068;
1006.2000;0.1319;-0.9168;
1006.5000;0.1359;-0.9068;
1006.8000;0.1302;-0.9168;
1007.1000;0.1302;-0.9193;
1007.4000;0.1302;-0.9218;
1007.7000;0.1319;-0.9118;
1008.0000;0.1319;-0.9193;
1008.3000;0.1302;-0.9218;
1008.6000;0.1319;-0.9218;
1008.9000;0.1327;-0.9193;
1009.2000;0.1311;-0.9168;
1009.5000;0.1302;-0.9193;
1009.8000;0.1376;-0.9118;
1010.1000;0.1294;-0.9218;
1010.4000;0.1335;-0.9243;
1010.7000;0.1335;-0.9243;
1011.0000;0.1327;-0.9218;
1011.3000;0.1327;-0.9093;
1011.6000;0.1270;-0.9218;
1011.9000;0.1311;-0.9168;
1012.2000;0.1335;-0.9093;
1012.5000;0.1311;-0.9143;
1012.8000;0.1302;-0.9093;
1013.1000;0.1262;-0.9193;
1013.4000;0.1327;-0.9068;
1013.7000;0.1327;-0.9068;
1014.0000;0.1294;-0.9093;
1014.3000;0.1270;-0.9218;
1014.6000;0.1335;-0.9068;
1014.9000;0.1311;-0.9017;
1015.2000;0.1376;-0.8816;
1015.5000;0.1319;-0.8967;
1015.8000;0.1319;-0.8917;
1016.1000;0.1294;-0.9017;
1016.4000;0.1335;-0.8917;
1016.7000;0.1311;-0.8992;
1017.0000;0.1327;-0.8917;
1017.3000;0.1327;-0.8967;
1017.6000;0.1286;-0.9068;
1017.9000;0.1237;-0.9218;
1018.2000;0.1311;-0.8917;
1018.5000;0.1319;-0.8841;
1018.8000;0.1351;-0.8766;
1019.1000;0.1319;-0.8917;
1019.4000;0.1319;-0.8892;
1019.7000;0.1311;-0.8867;
1020.0000;0.1335;-0.8867;
1020.3000;0.1319;-0.8867;
1020.6000;0.1327;-0.8892;
1020.9000;0.1351;-0.8892;
1021.2000;0.1327;-0.8942;
1021.5000;0.1327;-0.8841;
1021.8000;0.1351;-0.8791;
1022.1000;0.1335;-0.8791;
1022.4000;0.1335;-0.8892;
1022.7000;0.1319;-0.8942;
1023.0000;0.1311;-0.8992;
1023.3000;0.1327;-0.8892;
1023.6000;0.1311;-0.8942;
1023.9000;0.1335;-0.8892;
1024.2000;0.1319;-0.8917;
1024.5000;0.1311;-0.9017;
1024.8000;0.1294;-0.9042;
1025.1000;0.1302;-0.8992;
1025.4000;0.1302;-0.9042;
1025.7000;0.1319;-0.9017;
1026.0000;0.1319;-0.9093;
1026.3000;0.1311;-0.9093;
1026.6000;0.1311;-0.9093;
1026.9000;0.1311;-0.9093;
1027.2000;0.1335;-0.8867;
1027.5000;0.1327;-0.8867;
1027.8000;0.1294;-0.8942;
1028.1000;0.1368;-0.8816;
1028.4000;0.1335;-0.8917;
1028.7000;0.1302;-0.9017;
1029.0000;0.1278;-0.8992;
1029.3000;0.1359;-0.8741;
1029.6000;0.1327;-0.8816;
1029.9000;0.1319;-0.8816;
1030.2000;0.1319;-0.8917;
1030.5000;0.1319;-0.8917;
1030.8000;0.1343;-0.8841;
1031.1000;0.1335;-0.8892;
1031.4000;0.1335;-0.8967;
1031.7000;0.1327;-0.9068;
1032.0000;0.1319;-0.9118;
1032.3000;0.1311;-0.9193;
1032.6000;0.1311;-0.9168;
1032.9000;0.1311;-0.9193;
1033.2000;0.1311;-0.9093;
1033.5000;0.1327;-0.9042;
1033.8000;0.1311;-0.9068;
1034.1000;0.1311;-0.9042;
1034.4000;0.1302;-0.8967;
1034.7000;0.1351;-0.8867;
1035.0000;0.1311;-0.8992;
1035.3000;0.1311;-0.8942;
1035.6000;0.1327;-0.8917;
1035.9000;0.1327;-0.8917;
1036.2000;0.1278;-0.8942;
1036.5000;0.1343;-0.8691;
1036.8000;0.1311;-0.8867;
1037.1000;0.1205;-0.9268;
1037.4000;0.1319;-0.9017;
1037.7000;0.1319;-0.9017;
1038.0000;0.1311;-0.9093;
1038.3000;0.1319;-0.9093;
1038.6000;0.1254;-0.9243;
1038.9000;0.1343;-0.8917;
1039.2000;0.1311;-0.9042;
1039.5000;0.1343;-0.8992;
1039.8000;0.1311;-0.9068;
1040.1000;0.1319;-0.8917;
1040.4000;0.1319;-0.8867;
1040.7000;0.1311;-0.8867;
1041.0000;0.1319;-0.8942;
1041.3000;0.1302;-0.8917;
1041.6000;0.1311;-0.8867;
1041.9000;0.1335;-0.8992;
1042.2000;0.1319;-0.9042;
1042.5000;0.1327;-0.9017;
1042.8000;0.1319;-0.8942;
1043.1000;0.1327;-0.8992;
1043.4000;0.1319;-0.8967;
1043.7000;0.1311;-0.8992;
1044.0000;0.1335;-0.8942;
1044.3000;0.1311;-0.8917;
1044.6000;0.1327;-0.8892;
1044.9000;0.1319;-0.8892;
1045.2000;0.1343;-0.8741;
1045.5000;0.1294;-0.8841;
1045.8000;0.1368;-0.8641;
1046.1000;0.1302;-0.8791;
1046.4000;0.1302;-0.8892;
1046.7000;0.1319;-0.8892;
1047.0000;0.1327;-0.8917;
1047.3000;0.1327;-0.8867;
1047.6000;0.1384;-0.8841;
1047.9000;0.1319;-0.8967;
1048.2000;0.1311;-0.8992;
1048.5000;0.1327;-0.8967;
1048.8000;0.1327;-0.9042;
1049.1000;0.1368;-0.8917;
1049.4000;0.1319;-0.8967;
1049.7000;0.1311;-0.8917;
1050.0000;0.1335;-0.8816;
1050.3000;0.1319;-0.8942;
1050.6000;0.1319;-0.8967;
1050.9000;0.1343;-0.8841;
1051.2000;0.1359;-0.8867;
1051.5000;0.1319;-0.8917;
1051.8000;0.1327;-0.8892;
1052.1000;0.1311;-0.8841;
1052.4000;0.1302;-0.8967;
1052.7000;0.1343;-0.8992;
1053.0000;0.1319;-0.9017;
1053.3000;0.1311;-0.9042;
1053.6000;0.1319;-0.9042;
1053.9000;0.1327;-0.8942;
1054.2000;0.1343;-0.8816;
1054.5000;0.1335;-0.8867;
1054.8000;0.1335;-0.8841;
1055.1000;0.1319;-0.8816;
1055.4000;0.1327;-0.8741;
1055.7000;0.1319;-0.8741;
1056.0000;0.1286;-0.8841;
1056.3000;0.1311;-0.8766;
1056.6000;0.1311;-0.8841;
1056.9000;0.1311;-0.8816;
1057.2000;0.1319;-0.8816;
1057.5000;0.1302;-0.8867;
1057.8000;0.1327;-0.8867;
1058.1000;0.1311;-0.8892;
1058.4000;0.1302;-0.8992;
1058.7000;0.1319;-0.9017;
1059.0000;0.1311;-0.9093;
1059.3000;0.1319;-0.9118;
1059.6000;0.1311;-0.9093;
1059.9000;0.1351;-0.8992;
1060.2000;0.1327;-0.9143;
1060.5000;0.1327;-0.9093;
1060.8000;0.1311;-0.8967;
1061.1000;0.1343;-0.9017;
1061.4000;0.1311;-0.8967;
1061.7000;0.1327;-0.8917;
1062.0000;0.1302;-0.9042;
1062.3000;0.1311;-0.9017;
1062.6000;0.1311;-0.8942;
1062.9000;0.1311;-0.8892;
1063.2000;0.1319;-0.8892;
1063.5000;0.1311;-0.9042;
1063.8000;0.1416;-0.8716;
1064.1000;0.1311;-0.8967;
1064.4000;0.1302;-0.9068;
1064.7000;0.1319;-0.8967;
1065.0000;0.1327;-0.9017;
1065.3000;0.1327;-0.8992;
1065.6000;0.1237;-0.9319;
1065.9000;0.1302;-0.9118;
1066.2000;0.1327;-0.9193;
1066.5000;0.1343;-0.9143;
1066.8000;0.1327;-0.9093;
1067.1000;0.1327;-0.9068;
1067.4000;0.1302;-0.9068;
1067.7000;0.1311;-0.9068;
1068.0000;0.1327;-0.9017;
1068.3000;0.1327;-0.8942;
1068.6000;0.1302;-0.8992;
1068.9000;0.1327;-0.8967;
1069.2000;0.1351;-0.8791;
1069.5000;0.1335;-0.8917;
1069.8000;0.1311;-0.9143;
1070.1000;0.1311;-0.9193;
1070.4000;0.1335;-0.9068;
1070.7000;0.1327;-0.8992;
1071.0000;0.1319;-0.9017;
1071.3000;0.1335;-0.9017;
1071.6000;0.1359;-0.8967;
1071.9000;0.1327;-0.9017;
1072.2000;0.1351;-0.9017;
1072.5000;0.1319;-0.9093;
1072.8000;0.1376;-0.8992;
1073.1000;0.1302;-0.9193;
1073.4000;0.1294;-0.9268;
1073.7000;0.1327;-0.9143;
1074.0000;0.1327;-0.9093;
1074.3000;0.1311;-0.9168;
1074.6000;0.1311;-0.9193;
1074.9000;0.1270;-0.9243;
1075.2000;0.1327;-0.9143;
1075.5000;0.1294;-0.9218;
1075.8000;0.1343;-0.8992;
1076.1000;0.1327;-0.8942;
1076.4000;0.1359;-0.8917;
1076.7000;0.1335;-0.9017;
1077.0000;0.1254;-0.9268;
1077.3000;0.1319;-0.8992;
1077.6000;0.1294;-0.9093;
1077.9000;0.1327;-0.9093;
1078.2000;0.1327;-0.9143;
1078.5000;0.1327;-0.9193;
1078.8000;0.1311;-0.9218;
1079.1000;0.1327;-0.9168;
1079.4000;0.1286;-0.9243;
1079.7000;0.1335;-0.9093;
1080.0000;0.1302;-0.9068;
1080.3000;0.1262;-0.9193;
1080.6000;0.1327;-0.9017;
1080.9000;0.1327;-0.8967;
1081.2000;0.1294;-0.9093;
1081.5000;0.1302;-0.9068;
1081.8000;0.1319;-0.9068;
1082.1000;0.1311;-0.9118;
1082.4000;0.1343;-0.9042;
1082.7000;0.1311;-0.9143;
1083.0000;0.1343;-0.9068;
1083.3000;0.1302;-0.9193;
1083.6000;0.1270;-0.9218;
1083.9000;0.1254;-0.9218;
1084.2000;0.1302;-0.9042;
1084.5000;0.1319;-0.8967;
1084.8000;0.1319;-0.8892;
1085.1000;0.1311;-0.8967;
1085.4000;0.1319;-0.8917;
1085.7000;0.1311;-0.8967;
1086.0000;0.1294;-0.9042;
1086.3000;0.1311;-0.8942;
1086.6000;0.1294;-0.9068;
1086.9000;0.1311;-0.9068;
1087.2000;0.1311;-0.8992;
1087.5000;0.1302;-0.9017;
1087.8000;0.1327;-0.8917;
1088.1000;0.1327;-0.8917;
1088.4000;0.1327;-0.8867;
1088.7000;0.1311;-0.8917;
1089.0000;0.1335;-0.8917;
1089.3000;0.1311;-0.8992;
1089.6000;0.1278;-0.9093;
1089.9000;0.1311;-0.8892;
1090.2000;0.1294;-0.8992;
1090.5000;0.1270;-0.9068;
1090.8000;0.1425;-0.8766;
1091.1000;0.1327;-0.9193;
1091.4000;0.1319;-0.9243;
1091.7000;0.1229;-0.9520;
1092.0000;0.1343;-0.9294;
1092.3000;0.1343;-0.9243;
1092.6000;0.1319;-0.9193;
1092.9000;0.1254;-0.9344;
1093.2000;0.1302;-0.9243;
1093.5000;0.1319;-0.9143;
1093.8000;0.1351;-0.9068;
1094.1000;0.1311;-0.9218;
1094.4000;0.1327;-0.9143;
1094.7000;0.1311;-0.9143;
1095.0000;0.1302;-0.9093;
1095.3000;0.1327;-0.9017;
1095.6000;0.1319;-0.9068;
1095.9000;0.1359;-0.8967;
1096.2000;0.1311;-0.9093;
1096.5000;0.1311;-0.9193;
1096.8000;0.1343;-0.9168;
1097.1000;0.1302;-0.9243;
1097.4000;0.1335;-0.9168;
1097.7000;0.1221;-0.9394;
1098.0000;0.1335;-0.9042;
1098.3000;0.1359;-0.9017;
1098.6000;0.1294;-0.9168;
1098.9000;0.1311;-0.9294;
1099.2000;0.1262;-0.9344;
1099.5000;0.1384;-0.8942;
1099.8000;0.1327;-0.9093;
1100.1000;0.1327;-0.9143;
1100.4000;0.1311;-0.9193;
1100.7000;0.1335;-0.9118;
1101.0000;0.1319;-0.9168;
1101.3000;0.1327;-0.9218;
1101.6000;0.1351;-0.9218;
1101.9000;0.1327;-0.9218;
1102.2000;0.1319;-0.9243;
1102.5000;0.1294;-0.9294;
1102.8000;0.1311;-0.9218;
1103.1000;0.1376;-0.9068;
1103.4000;0.1327;-0.9193;
1103.7000;0.1311;-0.9168;
1104.0000;0.1311;-0.9118;
1104.3000;0.1311;-0.9068;
1104.6000;0.1335;-0.8967;
1104.9000;0.1343;-0.8967;
1105.2000;0.1311;-0.9093;
1105.5000;0.1327;-0.9118;
1105.8000;0.1311;-0.9118;
1106.1000;0.1335;-0.9143;
1106.4000;0.1335;-0.9168;
1106.7000;0.1319;-0.9143;
1107.0000;0.1286;-0.9193;
1107.3000;0.1368;-0.8992;
1107.6000;0.1319;-0.9068;
1107.9000;0.1302;-0.9068;
1108.2000;0.1286;-0.9017;
1108.5000;0.1376;-0.8741;
1108.8000;0.1311;-0.8967;
1109.1000;0.1311;-0.9017;
1109.4000;0.1302;-0.9168;
1109.7000;0.1335;-0.9068;
1110.0000;0.1319;-0.9168;
1110.3000;0.1327;-0.9243;
1110.6000;0.1319;-0.9243;
1110.9000;0.1327;-0.9243;
1111.2000;0.1327;-0.9168;
1111.5000;0.1335;-0.9093;
1111.8000;0.1311;-0.9093;
1112.1000;0.1302;-0.9143;
1112.4000;0.1311;-0.9017;
1112.7000;0.1270;-0.9168;
1113.0000;0.1302;-0.9143;
1113.3000;0.1302;-0.9193;
1113.6000;0.1343;-0.9218;
1113.9000;0.1319;-0.9193;
1114.2000;0.1319;-0.9193;
1114.5000;0.1335;-0.9118;
1114.8000;0.1311;-0.9118;
1115.1000;0.1302;-0.9093;
1115.4000;0.1311;-0.9068;
1115.7000;0.1351;-0.8992;
1116.0000;0.1311;-0.9042;
1116.3000;0.1335;-0.8992;
1116.6000;0.1302;-0.9068;
1116.9000;0.1327;-0.8967;
1117.2000;0.1335;-0.8892;
1117.5000;0.1327;-0.8867;
1117.8000;0.1327;-0.8892;
1118.1000;0.1335;-0.8967;
1118.4000;0.1286;-0.9093;
1118.7000;0.1319;-0.8967;
1119.0000;0.1327;-0.9017;
1119.3000;0.1311;-0.9118;
1119.6000;0.1319;-0.9118;
1119.9000;0.1286;-0.9243;
1120.2000;0.1335;-0.9218;
1120.5000;0.1302;-0.9193;
1120.8000;0.1319;-0.9068;
1121.1000;0.1376;-0.8816;
1121.4000;0.1335;-0.8892;
1121.7000;0.1327;-0.8942;
1122.0000;0.1311;-0.8967;
1122.3000;0.1343;-0.8841;
1122.6000;0.1319;-0.8967;
1122.9000;0.1311;-0.8967;
1123.2000;0.1319;-0.8992;
1123.5000;0.1319;-0.8992;
1123.8000;0.1302;-0.9118;
1124.1000;0.1311;-0.9118;
1124.4000;0.1319;-0.9068;
1124.7000;0.1254;-0.9294;
1125.0000;0.1302;-0.9168;
1125.3000;0.1245;-0.9268;
1125.6000;0.1327;-0.9068;
1125.9000;0.1294;-0.9193;
1126.2000;0.1270;-0.9168;
1126.5000;0.1319;-0.9068;
1126.8000;0.1327;-0.8942;
1127.1000;0.1311;-0.9017;
1127.4000;0.1270;-0.9093;
1127.7000;0.1302;-0.8917;
1128.0000;0.1319;-0.8917;
1128.3000;0.1311;-0.8867;
1128.6000;0.1343;-0.8867;
1128.9000;0.1311;-0.8942;
1129.2000;0.1319;-0.8892;
1129.5000;0.1327;-0.8967;
1129.8000;0.1335;-0.8892;
1130.1000;0.1319;-0.8892;
1130.4000;0.1319;-0.8867;
1130.7000;0.1327;-0.8892;
1131.0000;0.1302;-0.8867;
1131.3000;0.1319;-0.8892;
1131.6000;0.1311;-0.8917;
1131.9000;0.1327;-0.8867;
1132.2000;0.1319;-0.8917;
1132.5000;0.1327;-0.8992;
1132.8000;0.1311;-0.9017;
1133.1000;0.1311;-0.8967;
1133.4000;0.1311;-0.9017;
1133.7000;0.1319;-0.8892;
1134.0000;0.1319;-0.8917;
1134.3000;0.1311;-0.8892;
1134.6000;0.1327;-0.8867;
1134.9000;0.1319;-0.8841;
1135.2000;0.1319;-0.8942;
1135.5000;0.1311;-0.8967;
1135.8000;0.1270;-0.9068;
1136.1000;0.1302;-0.8942;
1136.4000;0.1302;-0.8992;
1136.7000;0.1319;-0.8892;
1137.0000;0.1327;-0.8841;
1137.3000;0.1319;-0.8967;
1137.6000;0.1319;-0.8841;
1137.9000;0.1351;-0.8841;
1138.2000;0.1302;-0.8867;
1138.5000;0.1302;-0.8791;
1138.8000;0.1376;-0.8691;
1139.1000;0.1351;-0.8841;
1139.4000;0.1343;-0.8867;
1139.7000;0.1311;-0.9017;
1140.0000;0.1327;-0.9042;
1140.3000;0.1343;-0.8917;
1140.6000;0.1311;-0.8992;
1140.9000;0.1335;-0.8967;
1141.2000;0.1327;-0.8892;
1141.5000;0.1327;-0.8841;
1141.8000;0.1286;-0.8892;
1142.1000;0.1327;-0.8841;
1142.4000;0.1319;-0.8816;
1142.7000;0.1302;-0.8917;
1143.0000;0.1319;-0.8892;
1143.3000;0.1302;-0.9068;
1143.6000;0.1302;-0.8967;
1143.9000;0.1302;-0.8917;
1144.2000;0.1311;-0.8892;
1144.5000;0.1327;-0.8892;
1144.8000;0.1327;-0.8992;
1145.1000;0.1327;-0.9068;
1145.4000;0.1270;-0.9168;
1145.7000;0.1327;-0.8967;
1146.0000;0.1327;-0.8942;
1146.3000;0.1319;-0.8967;
1146.6000;0.1335;-0.8917;
1146.9000;0.1319;-0.8967;
1147.2000;0.1319;-0.9017;
1147.5000;0.1311;-0.8992;
1147.8000;0.1319;-0.8967;
1148.1000;0.1311;-0.8867;
1148.4000;0.1335;-0.8791;
1148.7000;0.1311;-0.8766;
1149.0000;0.1302;-0.8816;
1149.3000;0.1319;-0.8816;
1149.6000;0.1311;-0.8867;
1149.9000;0.1311;-0.8967;
1150.2000;0.1237;-0.9118;
1150.5000;0.1213;-0.9168;
1150.8000;0.1319;-0.8841;
1151.1000;0.1319;-0.8791;
1151.4000;0.1327;-0.8867;
1151.7000;0.1368;-0.8791;
1152.0000;0.1270;-0.9042;
1152.3000;0.1319;-0.8892;
1152.6000;0.1294;-0.8967;
1152.9000;0.1278;-0.9017;
1153.2000;0.1302;-0.8917;
1153.5000;0.1319;-0.8867;
1153.8000;0.1327;-0.8942;
1154.1000;0.1311;-0.8992;
1154.4000;0.1327;-0.8942;
1154.7000;0.1311;-0.8967;
1155.0000;0.1311;-0.8967;
1155.3000;0.1311;-0.8967;
1155.6000;0.1319;-0.9042;
1155.9000;0.1351;-0.9042;
1156.2000;0.1327;-0.9093;
1156.5000;0.1319;-0.9143;
1156.8000;0.1343;-0.9118;
1157.1000;0.1335;-0.9118;
1157.4000;0.1319;-0.9118;
1157.7000;0.1286;-0.9093;
1158.0000;0.1294;-0.8967;
1158.3000;0.1327;-0.8967;
1158.6000;0.1286;-0.9042;
1158.9000;0.1278;-0.9042;
1159.2000;0.1319;-0.8967;
1159.5000;0.1294;-0.9017;
1159.8000;0.1294;-0.8942;
1160.1000;0.1302;-0.8917;
1160.4000;0.1311;-0.8917;
1160.7000;0.1327;-0.8867;
1161.0000;0.1327;-0.8841;
1161.3000;0.1335;-0.8766;
1161.6000;0.1311;-0.8841;
1161.9000;0.1343;-0.8816;
1162.2000;0.1311;-0.8917;
1162.5000;0.1302;-0.8892;
1162.8000;0.1302;-0.8841;
1163.1000;0.1327;-0.8892;
1163.4000;0.1327;-0.8892;
1163.7000;0.1327;-0.8967;
1164.0000;0.1294;-0.9042;
1164.3000;0.1302;-0.8967;
1164.6000;0.1319;-0.8892;
1164.9000;0.1319;-0.8917;
1165.2000;0.1278;-0.8992;
1165.5000;0.1343;-0.8791;
1165.8000;0.1319;-0.8791;
1166.1000;0.1319;-0.8741;
1166.4000;0.1302;-0.8791;
1166.7000;0.1335;-0.8816;
1167.0000;0.1278;-0.8892;
1167.3000;0.1319;-0.8791;
1167.6000;0.1311;-0.8867;
1167.9000;0.1294;-0.8841;
1168.2000;0.1319;-0.8816;
1168.5000;0.1327;-0.8791;
1168.8000;0.1311;-0.8791;
1169.1000;0.1311;-0.8791;
1169.4000;0.1319;-0.8791;
1169.7000;0.1302;-0.8691;
1170.0000;0.1335;-0.8691;
1170.3000;0.1311;-0.8716;
1170.6000;0.1449;-0.8440;
1170.9000;0.1205;-0.9068;
1171.2000;0.1319;-0.8741;
1171.5000;0.1311;-0.8766;
1171.8000;0.1319;-0.8766;
1172.1000;0.1327;-0.8766;
1172.4000;0.1327;-0.8741;
1172.7000;0.1319;-0.8816;
1173.0000;0.1335;-0.8791;
1173.3000;0.1327;-0.8816;
1173.6000;0.1343;-0.8841;
1173.9000;0.1319;-0.8892;
1174.2000;0.1254;-0.9068;
1174.5000;0.1311;-0.8942;
1174.8000;0.1319;-0.8816;
1175.1000;0.1278;-0.8917;
1175.4000;0.1302;-0.8841;
1175.7000;0.1294;-0.8867;
1176.0000;0.1302;-0.8841;
1176.3000;0.1319;-0.8917;
1176.6000;0.1335;-0.8942;
1176.9000;0.1278;-0.9068;
1177.2000;0.1294;-0.8942;
1177.5000;0.1302;-0.8942;
1177.8000;0.1302;-0.8892;
1178.1000;0.1278;-0.8917;
1178.4000;0.1327;-0.8791;
1178.7000;0.1319;-0.8892;
1179.0000;0.1311;-0.8867;
1179.3000;0.1319;-0.8867;
1179.6000;0.1343;-0.8917;
1179.9000;0.1343;-0.8967;
1180.2000;0.1327;-0.9017;
1180.5000;0.1311;-0.9042;
1180.8000;0.1327;-0.8992;
1181.1000;0.1311;-0.9042;
1181.4000;0.1327;-0.8992;
1181.7000;0.1302;-0.9042;
1182.0000;0.1311;-0.9143;
1182.3000;0.1319;-0.9042;
1182.6000;0.1351;-0.8942;
1182.9000;0.1359;-0.8917;
1183.2000;0.1319;-0.8967;
1183.5000;0.1327;-0.8942;
1183.8000;0.1311;-0.8942;
1184.1000;0.1311;-0.8942;
1184.4000;0.1327;-0.8867;
1184.7000;0.1319;-0.8816;
1185.0000;0.1327;-0.8791;
1185.3000;0.1319;-0.8791;
1185.6000;0.1245;-0.8967;
1185.9000;0.1425;-0.8540;
1186.2000;0.1327;-0.8791;
1186.5000;0.1343;-0.8841;
1186.8000;0.1335;-0.8816;
1187.1000;0.1294;-0.8892;
1187.4000;0.1319;-0.8942;
1187.7000;0.1319;-0.8917;
1188.0000;0.1351;-0.8892;
1188.3000;0.1319;-0.9017;
1188.6000;0.1319;-0.8992;
1188.9000;0.1319;-0.9093;
1189.2000;0.1327;-0.9042;
1189.5000;0.1327;-0.9118;
1189.8000;0.1311;-0.9017;
1190.1000;0.1327;-0.9042;
1190.4000;0.1335;-0.8967;
1190.7000;0.1302;-0.9042;
1191.0000;0.1294;-0.9042;
1191.3000;0.1376;-0.8741;
1191.6000;0.1368;-0.8816;
1191.9000;0.1278;-0.9093;
1192.2000;0.1311;-0.9042;
1192.5000;0.1351;-0.8917;
1192.8000;0.1262;-0.9118;
1193.1000;0.1335;-0.8942;
1193.4000;0.1311;-0.9093;
1193.7000;0.1311;-0.8992;
1194.0000;0.1392;-0.8892;
1194.3000;0.1335;-0.9093;
1194.6000;0.1327;-0.9068;
1194.9000;0.1327;-0.8992;
1195.2000;0.1335;-0.8992;
1195.5000;0.1335;-0.8992;
1195.8000;0.1319;-0.9017;
1196.1000;0.1319;-0.9118;
1196.4000;0.1343;-0.9042;
1196.7000;0.1327;-0.8992;
1197.0000;0.1319;-0.8992;
1197.3000;0.1319;-0.8967;
1197.6000;0.1302;-0.8992;
1197.9000;0.1311;-0.9093;
1198.2000;0.1311;-0.9118;
1198.5000;0.1286;-0.9143;
1198.8000;0.1294;-0.9118;
1199.1000;0.1392;-0.8917;
1199.4000;0.1335;-0.8992;
1199.7000;0.1302;-0.8992;
1200.0000;0.1294;-0.9068;
1200.3000;0.1270;-0.9143;
1200.6000;0.1319;-0.9168;
1200.9000;0.1254;-0.9369;
1201.2000;0.1311;-0.9268;
1201.5000;0.1311;-0.9143;
1201.8000;0.1311;-0.9017;
1202.1000;0.1319;-0.9068;
1202.4000;0.1237;-0.9394;
1202.7000;0.1302;-0.9143;
1203.0000;0.1311;-0.9042;
1203.3000;0.1302;-0.9168;
1203.6000;0.1327;-0.9118;
1203.9000;0.1311;-0.9218;
1204.2000;0.1311;-0.9193;
1204.5000;0.1327;-0.9218;
1204.8000;0.1311;-0.9118;
1205.1000;0.1327;-0.9118;
1205.4000;0.1319;-0.9093;
1205.7000;0.1319;-0.9017;
1206.0000;0.1319;-0.9017;
1206.3000;0.1319;-0.9017;
1206.6000;0.1319;-0.9068;
1206.9000;0.1278;-0.9068;
1207.2000;0.1319;-0.8992;
1207.5000;0.1311;-0.9118;
1207.8000;0.1311;-0.9042;
1208.1000;0.1311;-0.9017;
1208.4000;0.1302;-0.8967;
1208.7000;0.1368;-0.8791;
1209.0000;0.1319;-0.8816;
1209.3000;0.1327;-0.8867;
1209.6000;0.1311;-0.8967;
1209.9000;0.1327;-0.8992;
1210.2000;0.1294;-0.8992;
1210.5000;0.1319;-0.8917;
1210.8000;0.1327;-0.8841;
1211.1000;0.1319;-0.8917;
1211.4000;0.1327;-0.9017;
1211.7000;0.1311;-0.9093;
1212.0000;0.1343;-0.8992;
1212.3000;0.1327;-0.9068;
1212.6000;0.1327;-0.9118;
1212.9000;0.1286;-0.9218;
1213.2000;0.1286;-0.9193;
1213.5000;0.1294;-0.9118;
1213.8000;0.1311;-0.8967;
1214.1000;0.1302;-0.8942;
1214.4000;0.1278;-0.8992;
1214.7000;0.1311;-0.8917;
1215.0000;0.1311;-0.8967;
1215.3000;0.1319;-0.9042;
1215.6000;0.1392;-0.8892;
1215.9000;0.1270;-0.9042;
1216.2000;0.1335;-0.8892;
1216.5000;0.1262;-0.9042;
1216.8000;0.1368;-0.8716;
1217.1000;0.1294;-0.8992;
1217.4000;0.1302;-0.9042;
1217.7000;0.1335;-0.9042;
1218.0000;0.1376;-0.8917;
1218.3000;0.1262;-0.9168;
1218.6000;0.1359;-0.8917;
1218.9000;0.1302;-0.9042;
1219.2000;0.1237;-0.9243;
1219.5000;0.1327;-0.9068;
1219.8000;0.1245;-0.9243;
1220.1000;0.1302;-0.8992;
1220.4000;0.1294;-0.9017;
1220.7000;0.1327;-0.8892;
1221.0000;0.1327;-0.8942;
1221.3000;0.1311;-0.9118;
1221.6000;0.1384;-0.8917;
1221.9000;0.1319;-0.9118;
1222.2000;0.1319;-0.9193;
1222.5000;0.1319;-0.9118;
1222.8000;0.1343;-0.9042;
1223.1000;0.1335;-0.9017;
1223.4000;0.1319;-0.9068;
1223.7000;0.1311;-0.8967;
1224.0000;0.1302;-0.8967;
1224.3000;0.1319;-0.9017;
1224.6000;0.1335;-0.8992;
1224.9000;0.1335;-0.9042;
1225.2000;0.1286;-0.9017;
1225.5000;0.1335;-0.8791;
1225.8000;0.1319;-0.8841;
1226.1000;0.1327;-0.8867;
1226.4000;0.1311;-0.8917;
1226.7000;0.1327;-0.8867;
1227.0000;0.1327;-0.8917;
1227.3000;0.1311;-0.8942;
1227.6000;0.1335;-0.8841;
1227.9000;0.1327;-0.8942;
1228.2000;0.1335;-0.8967;
1228.5000;0.1335;-0.9017;
1228.8000;0.1311;-0.9093;
1229.1000;0.1327;-0.9068;
1229.4000;0.1335;-0.9068;
1229.7000;0.1294;-0.9118;
1230.0000;0.1311;-0.9017;
1230.3000;0.1327;-0.8942;
1230.6000;0.1327;-0.8942;
1230.9000;0.1327;-0.8992;
1231.2000;0.1319;-0.9068;
1231.5000;0.1327;-0.9143;
1231.8000;0.1311;-0.9168;
1232.1000;0.1319;-0.9118;
1232.4000;0.1311;-0.9193;
1232.7000;0.1335;-0.9168;
1233.0000;0.1327;-0.9143;
1233.3000;0.1335;-0.9118;
1233.6000;0.1294;-0.9143;
1233.9000;0.1327;-0.9042;
1234.2000;0.1327;-0.9068;
1234.5000;0.1327;-0.9017;
1234.8000;0.1343;-0.8967;
1235.1000;0.1327;-0.8992;
1235.4000;0.1327;-0.8967;
1235.7000;0.1343;-0.8967;
1236.0000;0.1302;-0.9068;
1236.3000;0.1311;-0.9093;
1236.6000;0.1327;-0.9118;
1236.9000;0.1335;-0.9068;
1237.2000;0.1270;-0.9268;
1237.5000;0.1294;-0.9218;
1237.8000;0.1319;-0.9193;
1238.1000;0.1327;-0.9193;
1238.4000;0.1327;-0.9193;
1238.7000;0.1384;-0.9068;
1239.0000;0.1327;-0.9218;
1239.3000;0.1376;-0.9068;
1239.6000;0.1359;-0.9068;
1239.9000;0.1254;-0.9243;
1240.2000;0.1335;-0.8967;
1240.5000;0.1311;-0.9042;
1240.8000;0.1286;-0.9093;
1241.1000;0.1319;-0.9017;
1241.4000;0.1319;-0.9093;
1241.7000;0.1311;-0.9143;
1242.0000;0.1327;-0.9017;
1242.3000;0.1270;-0.9193;
1242.6000;0.1302;-0.9118;
1242.9000;0.1319;-0.9143;
1243.2000;0.1400;-0.8967;
1243.5000;0.1327;-0.9118;
1243.8000;0.1343;-0.9017;
1244.1000;0.1327;-0.9017;
1244.4000;0.1335;-0.8892;
1244.7000;0.1335;-0.8917;
1245.0000;0.1335;-0.8867;
1245.3000;0.1335;-0.8892;
1245.6000;0.1327;-0.8917;
1245.9000;0.1343;-0.8816;
1246.2000;0.1302;-0.8892;
1246.5000;0.1327;-0.8816;
1246.8000;0.1327;-0.8816;
1247.1000;0.1335;-0.8791;
1247.4000;0.1343;-0.8741;
1247.7000;0.1335;-0.8816;
1248.0000;0.1319;-0.8791;
1248.3000;0.1311;-0.8892;
1248.6000;0.1335;-0.8791;
1248.9000;0.1319;-0.8841;
1249.2000;0.1335;-0.8766;
1249.5000;0.1319;-0.8816;
1249.8000;0.1351;-0.8741;
1250.1000;0.1254;-0.8992;
1250.4000;0.1311;-0.8791;
1250.7000;0.1254;-0.8992;
1251.0000;0.1319;-0.8867;
1251.3000;0.1311;-0.8917;
1251.6000;0.1319;-0.8917;
1251.9000;0.1311;-0.8917;
1252.2000;0.1335;-0.8892;
1252.5000;0.1319;-0.8967;
1252.8000;0.1384;-0.8892;
1253.1000;0.1311;-0.9168;
1253.4000;0.1327;-0.9143;
1253.7000;0.1302;-0.9344;
1254.0000;0.1327;-0.9319;
1254.3000;0.1335;-0.9294;
1254.6000;0.1343;-0.9243;
1254.9000;0.1319;-0.9243;
1255.2000;0.1335;-0.9193;
1255.5000;0.1319;-0.9193;
1255.8000;0.1294;-0.9294;
1256.1000;0.1327;-0.9218;
1256.4000;0.1319;-0.9243;
1256.7000;0.1319;-0.9218;
1257.0000;0.1319;-0.9143;
1257.3000;0.1319;-0.9143;
1257.6000;0.1335;-0.9042;
1257.9000;0.1262;-0.9168;
1258.2000;0.1343;-0.8992;
1258.5000;0.1302;-0.9093;
1258.8000;0.1311;-0.9017;
1259.1000;0.1311;-0.9017;
1259.4000;0.1311;-0.8992;
1259.7000;0.1319;-0.8942;
1260.0000;0.1335;-0.8942;
1260.3000;0.1311;-0.8942;
1260.6000;0.1311;-0.8892;
1260.9000;0.1319;-0.8942;
1261.2000;0.1327;-0.8892;
1261.5000;0.1270;-0.9042;
1261.8000;0.1302;-0.8942;
1262.1000;0.1311;-0.8841;
1262.4000;0.1335;-0.8841;
1262.7000;0.1343;-0.8917;
1263.0000;0.1351;-0.8942;
1263.3000;0.1311;-0.8992;
1263.6000;0.1311;-0.8917;
1263.9000;0.1335;-0.8867;
1264.2000;0.1327;-0.8942;
1264.5000;0.1302;-0.9068;
1264.8000;0.1311;-0.9017;
1265.1000;0.1327;-0.8942;
1265.4000;0.1327;-0.8967;
1265.7000;0.1335;-0.8942;
1266.0000;0.1262;-0.9093;
1266.3000;0.1351;-0.8791;
1266.6000;0.1335;-0.8917;
1266.9000;0.1311;-0.9042;
1267.2000;0.1327;-0.9017;
1267.5000;0.1311;-0.9042;
1267.8000;0.1311;-0.9042;
1268.1000;0.1384;-0.8766;
1268.4000;0.1327;-0.8816;
1268.7000;0.1327;-0.8791;
1269.0000;0.1384;-0.8565;
1269.3000;0.1400;-0.8666;
1269.6000;0.1343;-0.8867;
1269.9000;0.1343;-0.8867;
1270.2000;0.1286;-0.9068;
1270.5000;0.1294;-0.9093;
1270.8000;0.1319;-0.8992;
1271.1000;0.1302;-0.9068;
1271.4000;0.1278;-0.8992;
1271.7000;0.1286;-0.9093;
1272.0000;0.1376;-0.8791;
1272.3000;0.1302;-0.8841;
1272.6000;0.1221;-0.8992;
1272.9000;0.1335;-0.8766;
1273.2000;0.1311;-0.8917;
1273.5000;0.1327;-0.8791;
1273.8000;0.1327;-0.8816;
1274.1000;0.1327;-0.8816;
1274.4000;0.1311;-0.8892;
1274.7000;0.1319;-0.8841;
1275.0000;0.1335;-0.8791;
1275.3000;0.1302;-0.8841;
1275.6000;0.1351;-0.8766;
1275.9000;0.1319;-0.8816;
1276.2000;0.1311;-0.8841;
1276.5000;0.1384;-0.8716;
1276.8000;0.1368;-0.8816;
1277.1000;0.1327;-0.8942;
1277.4000;0.1319;-0.8992;
1277.7000;0.1319;-0.9093;
1278.0000;0.1302;-0.9017;
1278.3000;0.1327;-0.8967;
1278.6000;0.1237;-0.9168;
1278.9000;0.1286;-0.8992;
1279.2000;0.1327;-0.8917;
1279.5000;0.1335;-0.8967;
1279.8000;0.1319;-0.9068;
1280.1000;0.1311;-0.9168;
1280.4000;0.1327;-0.9168;
1280.7000;0.1433;-0.8992;
1281.0000;0.1335;-0.9193;
1281.3000;0.1319;-0.9218;
1281.6000;0.1302;-0.9319;
1281.9000;0.1319;-0.9243;
1282.2000;0.1327;-0.9042;
1282.5000;0.1335;-0.8942;
1282.8000;0.1327;-0.9017;
1283.1000;0.1319;-0.9017;
1283.4000;0.1343;-0.9017;
1283.7000;0.1319;-0.9068;
1284.0000;0.1343;-0.8992;
1284.3000;0.1319;-0.8992;
1284.6000;0.1327;-0.8992;
1284.9000;0.1376;-0.8791;
1285.2000;0.1278;-0.9042;
1285.5000;0.1327;-0.8992;
1285.8000;0.1327;-0.8992;
1286.1000;0.1294;-0.9068;
1286.4000;0.1319;-0.9068;
1286.7000;0.1302;-0.9042;
1287.0000;0.1278;-0.9168;
1287.3000;0.1302;-0.9118;
1287.6000;0.1327;-0.9017;
1287.9000;0.1368;-0.8841;
1288.2000;0.1286;-0.9068;
1288.5000;0.1319;-0.8867;
1288.8000;0.1335;-0.8766;
1289.1000;0.1335;-0.8741;
1289.4000;0.1343;-0.8841;
1289.7000;0.1302;-0.8967;
1290.0000;0.1221;-0.9294;
1290.3000;0.1408;-0.8691;
1290.6000;0.1335;-0.8841;
1290.9000;0.1302;-0.8942;
1291.2000;0.1335;-0.8917;
1291.5000;0.1343;-0.8917;
1291.8000;0.1408;-0.8666;
1292.1000;0.1416;-0.8766;
1292.4000;0.1343;-0.8967;
1292.7000;0.1327;-0.8867;
1293.0000;0.1392;-0.8641;
1293.3000;0.1327;-0.8816;
1293.6000;0.1327;-0.8766;
1293.9000;0.1311;-0.8867;
1294.2000;0.1327;-0.8867;
1294.5000;0.1335;-0.8816;
1294.8000;0.1311;-0.8892;
1295.1000;0.1302;-0.8867;
1295.4000;0.1319;-0.8841;
1295.7000;0.1294;-0.8967;
1296.0000;0.1311;-0.8967;
1296.3000;0.1311;-0.8967;
1296.6000;0.1319;-0.9017;
1296.9000;0.1335;-0.8992;
1297.2000;0.1270;-0.9118;
1297.5000;0.1294;-0.8967;
1297.8000;0.1270;-0.9017;
1298.1000;0.1294;-0.8917;
1298.4000;0.1327;-0.8867;
1298.7000;0.1302;-0.8942;
1299.0000;0.1319;-0.8942;
1299.3000;0.1319;-0.8917;
1299.6000;0.1262;-0.9118;
1299.9000;0.1319;-0.8967;
1300.2000;0.1319;-0.8967;
1300.5000;0.1351;-0.8892;
1300.8000;0.1302;-0.8942;
1301.1000;0.1319;-0.8917;
1301.4000;0.1311;-0.8942;
1301.7000;0.1302;-0.8917;
1302.0000;0.1359;-0.8867;
1302.3000;0.1311;-0.8917;
1302.6000;0.1335;-0.8816;
1302.9000;0.1327;-0.8841;
1303.2000;0.1319;-0.8816;
1303.5000;0.1327;-0.8816;
1303.8000;0.1311;-0.8917;
1304.1000;0.1327;-0.8892;
1304.4000;0.1327;-0.8867;
1304.7000;0.1343;-0.8841;
1305.0000;0.1343;-0.8892;
1305.3000;0.1327;-0.9017;
1305.6000;0.1319;-0.9042;
1305.9000;0.1416;-0.8766;
1306.2000;0.1311;-0.9093;
1306.5000;0.1302;-0.9042;
1306.8000;0.1335;-0.8967;
1307.1000;0.1335;-0.8967;
1307.4000;0.1327;-0.9017;
1307.7000;0.1335;-0.8992;
1308.0000;0.1319;-0.8967;
1308.3000;0.1319;-0.8867;
1308.6000;0.1302;-0.8942;
1308.9000;0.1368;-0.8841;
1309.2000;0.1359;-0.8867;
1309.5000;0.1327;-0.8892;
1309.8000;0.1327;-0.8967;
1310.1000;0.1294;-0.9193;
1310.4000;0.1368;-0.9017;
1310.7000;0.1302;-0.9243;
1311.0000;0.1392;-0.9042;
1311.3000;0.1286;-0.9218;
1311.6000;0.1302;-0.9143;
1311.9000;0.1327;-0.9068;
1312.2000;0.1335;-0.8967;
1312.5000;0.1384;-0.8816;
1312.8000;0.1319;-0.8942;
1313.1000;0.1335;-0.8892;
1313.4000;0.1343;-0.8841;
1313.7000;0.1335;-0.8892;
1314.0000;0.1384;-0.8816;
1314.3000;0.1327;-0.8967;
1314.6000;0.1335;-0.9042;
1314.9000;0.1311;-0.9143;
1315.2000;0.1335;-0.9068;
1315.5000;0.1311;-0.9093;
1315.8000;0.1327;-0.9143;
1316.1000;0.1327;-0.9068;
1316.4000;0.1319;-0.9118;
1316.7000;0.1302;-0.9093;
1317.0000;0.1319;-0.9118;
1317.3000;0.1286;-0.9168;
1317.6000;0.1335;-0.9118;
1317.9000;0.1319;-0.9068;
1318.2000;0.1319;-0.9042;
1318.5000;0.1327;-0.8967;
1318.8000;0.1335;-0.8942;
1319.1000;0.1319;-0.8967;
1319.4000;0.1311;-0.8942;
1319.7000;0.1400;-0.8716;
1320.0000;0.1335;-0.9042;
1320.3000;0.1319;-0.9118;
1320.6000;0.1335;-0.9118;
1320.9000;0.1319;-0.9193;
1321.2000;0.1319;-0.9118;
1321.5000;0.1327;-0.9017;
1321.8000;0.1327;-0.8942;
1322.1000;0.1319;-0.8942;
1322.4000;0.1311;-0.9017;
1322.7000;0.1376;-0.8816;
1323.0000;0.1319;-0.8992;
1323.3000;0.1327;-0.8967;
1323.6000;0.1327;-0.8917;
1323.9000;0.1319;-0.8867;
1324.2000;0.1343;-0.8867;
1324.5000;0.1327;-0.8867;
1324.8000;0.1343;-0.8917;
1325.1000;0.1327;-0.8992;
1325.4000;0.1368;-0.8741;
1325.7000;0.1270;-0.8992;
1326.0000;0.1327;-0.8791;
1326.3000;0.1294;-0.8917;
1326.6000;0.1319;-0.8841;
1326.9000;0.1327;-0.8867;
1327.2000;0.1286;-0.9017;
1327.5000;0.1319;-0.8942;
1327.8000;0.1286;-0.9017;
1328.1000;0.1319;-0.8867;
1328.4000;0.1286;-0.8917;
1328.7000;0.1302;-0.8816;
1329.0000;0.1294;-0.8766;
1329.3000;0.1245;-0.8892;
1329.6000;0.1254;-0.8691;
1329.9000;0.1311;-0.8615;
1330.2000;0.1294;-0.8666;
1330.5000;0.1286;-0.8741;
1330.8000;0.1400;-0.8465;
1331.1000;0.1327;-0.8691;
1331.4000;0.1311;-0.8716;
1331.7000;0.1319;-0.8716;
1332.0000;0.1335;-0.8666;
1332.3000;0.1376;-0.8615;
1332.6000;0.1327;-0.8766;
1332.9000;0.1327;-0.8816;
1333.2000;0.1327;-0.8766;
1333.5000;0.1311;-0.8841;
1333.8000;0.1351;-0.8816;
1334.1000;0.1319;-0.8917;
1334.4000;0.1311;-0.8942;
1334.7000;0.1311;-0.8892;
1335.0000;0.1319;-0.8942;
1335.3000;0.1319;-0.8867;
1335.6000;0.1343;-0.8841;
1335.9000;0.1327;-0.8942;
1336.2000;0.1311;-0.8942;
1336.5000;0.1270;-0.9093;
1336.8000;0.1335;-0.8917;
1337.1000;0.1319;-0.8841;
1337.4000;0.1302;-0.8942;
1337.7000;0.1327;-0.8816;
1338.0000;0.1311;-0.8816;
1338.3000;0.1327;-0.8791;
1338.6000;0.1319;-0.8741;
1338.9000;0.1319;-0.8791;
1339.2000;0.1262;-0.8992;
1339.5000;0.1311;-0.8867;
1339.8000;0.1327;-0.8967;
1340.1000;0.1335;-0.9042;
1340.4000;0.1302;-0.9068;
1340.7000;0.1327;-0.8992;
1341.0000;0.1294;-0.9042;
1341.3000;0.1319;-0.8917;
1341.6000;0.1327;-0.8942;
1341.9000;0.1311;-0.8917;
1342.2000;0.1351;-0.8841;
1342.5000;0.1335;-0.8892;
1342.8000;0.1335;-0.8892;
1343.1000;0.1319;-0.8992;
1343.4000;0.1327;-0.8967;
1343.7000;0.1319;-0.9068;
1344.0000;0.1343;-0.8967;
1344.3000;0.1335;-0.9017;
1344.6000;0.1335;-0.8992;
1344.9000;0.1311;-0.9017;
1345.2000;0.1302;-0.9068;
1345.5000;0.1327;-0.9068;
1345.8000;0.1319;-0.9042;
1346.1000;0.1335;-0.9017;
1346.4000;0.1327;-0.8992;
1346.7000;0.1335;-0.8917;
1347.0000;0.1319;-0.8841;
1347.3000;0.1311;-0.8892;
1347.6000;0.1327;-0.8967;
1347.9000;0.1286;-0.9168;
1348.2000;0.1319;-0.9068;
1348.5000;0.1319;-0.9068;
1348.8000;0.1335;-0.8967;
1349.1000;0.1319;-0.8967;
1349.4000;0.1302;-0.8942;
1349.7000;0.1262;-0.9143;
1350.0000;0.1327;-0.8942;
1350.3000;0.1319;-0.8942;
1350.6000;0.1278;-0.9042;
1350.9000;0.1311;-0.8967;
1351.2000;0.1319;-0.8992;
1351.5000;0.1319;-0.9068;
1351.8000;0.1311;-0.9042;
1352.1000;0.1311;-0.9017;
1352.4000;0.1311;-0.9042;
1352.7000;0.1335;-0.8942;
1353.0000;0.1351;-0.8917;
1353.3000;0.1311;-0.9118;
1353.6000;0.1327;-0.9118;
1353.9000;0.1343;-0.9017;
1354.2000;0.1376;-0.8917;
1354.5000;0.1408;-0.8841;
1354.8000;0.1327;-0.8992;
1355.1000;0.1311;-0.9017;
1355.4000;0.1335;-0.9017;
1355.7000;0.1270;-0.9168;
1356.0000;0.1425;-0.8917;
1356.3000;0.1376;-0.9068;
1356.6000;0.1384;-0.9017;
1356.9000;0.1311;-0.9042;
1357.2000;0.1343;-0.8992;
1357.5000;0.1319;-0.9093;
1357.8000;0.1335;-0.9042;
1358.1000;0.1319;-0.9118;
1358.4000;0.1319;-0.8992;
1358.7000;0.1335;-0.8917;
1359.0000;0.1327;-0.8992;
1359.3000;0.1335;-0.8967;
1359.6000;0.1311;-0.8992;
1359.9000;0.1311;-0.9068;
1360.2000;0.1294;-0.9042;
1360.5000;0.1327;-0.8892;
1360.8000;0.1311;-0.8917;
1361.1000;0.1278;-0.9068;
1361.4000;0.1311;-0.9068;
1361.7000;0.1302;-0.9068;
1362.0000;0.1311;-0.9042;
1362.3000;0.1311;-0.8967;
1362.6000;0.1319;-0.8967;
1362.9000;0.1343;-0.8892;
1363.2000;0.1335;-0.8942;
1363.5000;0.1319;-0.8967;
1363.8000;0.1294;-0.9042;
1364.1000;0.1327;-0.8841;
1364.4000;0.1327;-0.8816;
1364.7000;0.1319;-0.8942;
1365.0000;0.1327;-0.8942;
1365.3000;0.1359;-0.8917;
1365.6000;0.1319;-0.8992;
1365.9000;0.1319;-0.8942;
1366.2000;0.1327;-0.9093;
1366.5000;0.1319;-0.9093;
1366.8000;0.1311;-0.9042;
1367.1000;0.1311;-0.8992;
1367.4000;0.1319;-0.8917;
1367.7000;0.1311;-0.8917;
1368.0000;0.1302;-0.8967;
1368.3000;0.1319;-0.8917;
1368.6000;0.1319;-0.8917;
1368.9000;0.1311;-0.8942;
1369.2000;0.1368;-0.8867;
1369.5000;0.1335;-0.8967;
1369.8000;0.1319;-0.8841;
1370.1000;0.1302;-0.8967;
1370.4000;0.1311;-0.8841;
1370.7000;0.1335;-0.8867;
1371.0000;0.1335;-0.8816;
1371.3000;0.1327;-0.8791;
1371.6000;0.1327;-0.8892;
1371.9000;0.1262;-0.8992;
1372.2000;0.1343;-0.8816;
1372.5000;0.1327;-0.8841;
1372.8000;0.1376;-0.8691;
1373.1000;0.1335;-0.8766;
1373.4000;0.1311;-0.8841;
1373.7000;0.1311;-0.8816;
1374.0000;0.1343;-0.8816;
1374.3000;0.1343;-0.8917;
1374.6000;0.1327;-0.8917;
1374.9000;0.1302;-0.8892;
1375.2000;0.1319;-0.8841;
1375.5000;0.1319;-0.8741;
1375.8000;0.1359;-0.8666;
1376.1000;0.1319;-0.8867;
1376.4000;0.1319;-0.8841;
1376.7000;0.1311;-0.8867;
1377.0000;0.1335;-0.8867;
1377.3000;0.1327;-0.8967;
1377.6000;0.1311;-0.8892;
1377.9000;0.1335;-0.8766;
1378.2000;0.1343;-0.8741;
1378.5000;0.1343;-0.8791;
1378.8000;0.1286;-0.8917;
1379.1000;0.1302;-0.8892;
1379.4000;0.1319;-0.8816;
1379.7000;0.1319;-0.8816;
1380.0000;0.1311;-0.8816;
1380.3000;0.1359;-0.8791;
1380.6000;0.1319;-0.8892;
1380.9000;0.1229;-0.9093;
1381.2000;0.1319;-0.8942;
1381.5000;0.1319;-0.8892;
1381.8000;0.1254;-0.9118;
1382.1000;0.1278;-0.9118;
1382.4000;0.1327;-0.9068;
1382.7000;0.1319;-0.9017;
1383.0000;0.1327;-0.8942;
1383.3000;0.1408;-0.8741;
1383.6000;0.1286;-0.8942;
1383.9000;0.1311;-0.8917;
1384.2000;0.1335;-0.8867;
1384.5000;0.1319;-0.8942;
1384.8000;0.1327;-0.8917;
1385.1000;0.1311;-0.8967;
1385.4000;0.1319;-0.8892;
1385.7000;0.1311;-0.8867;
1386.0000;0.1319;-0.8917;
1386.3000;0.1319;-0.9017;
1386.6000;0.1343;-0.9017;
1386.9000;0.1343;-0.8992;
1387.2000;0.1327;-0.8942;
1387.5000;0.1335;-0.8867;
1387.8000;0.1311;-0.8841;
1388.1000;0.1254;-0.8992;
1388.4000;0.1319;-0.8791;
1388.7000;0.1294;-0.8841;
1389.0000;0.1319;-0.8816;
1389.3000;0.1327;-0.8791;
1389.6000;0.1319;-0.8766;
1389.9000;0.1319;-0.8791;
1390.2000;0.1311;-0.8741;
1390.5000;0.1319;-0.8766;
1390.8000;0.1319;-0.8741;
1391.1000;0.1311;-0.8816;
1391.4000;0.1302;-0.8816;
1391.7000;0.1302;-0.8791;
1392.0000;0.1343;-0.8741;
1392.3000;0.1327;-0.8816;
1392.6000;0.1319;-0.8791;
1392.9000;0.1286;-0.8867;
1393.2000;0.1311;-0.8867;
1393.5000;0.1327;-0.8917;
1393.8000;0.1343;-0.8867;
1394.1000;0.1343;-0.8892;
1394.4000;0.1319;-0.8867;
1394.7000;0.1327;-0.8841;
1395.0000;0.1327;-0.8816;
1395.3000;0.1311;-0.8791;
1395.6000;0.1335;-0.8791;
1395.9000;0.1286;-0.8967;
1396.2000;0.1311;-0.8867;
1396.5000;0.1311;-0.8867;
1396.8000;0.1262;-0.8942;
1397.1000;0.1335;-0.8816;
1397.4000;0.1351;-0.8741;
1397.7000;0.1319;-0.8716;
1398.0000;0.1327;-0.8691;
1398.3000;0.1327;-0.8741;
1398.6000;0.1327;-0.8766;
1398.9000;0.1327;-0.8816;
1399.2000;0.1343;-0.8816;
1399.5000;0.1319;-0.8892;
1399.8000;0.1311;-0.9042;
