time/ms;Fluo/V;P700 deltaI/I x10³;
-199.8000;0.3867;1.8818;
-199.5000;0.3810;1.8646;
-199.2000;0.3842;1.8671;
-198.9000;0.3785;1.8597;
-198.6000;0.3801;1.8621;
-198.3000;0.3801;1.8621;
-198.0000;0.3785;1.8572;
-197.7000;0.3793;1.8597;
-197.4000;0.3826;1.8720;
-197.1000;0.3810;1.8720;
-196.8000;0.3810;1.8769;
-196.5000;0.3826;1.8794;
-196.2000;0.3810;1.8843;
-195.9000;0.3801;1.8867;
-195.6000;0.3810;1.9015;
-195.3000;0.3818;1.8966;
-195.0000;0.3842;1.9015;
-194.7000;0.3826;1.8917;
-194.4000;0.3801;1.8867;
-194.1000;0.3810;1.8917;
-193.8000;0.3801;1.8794;
-193.5000;0.3801;1.8744;
-193.2000;0.3801;1.8720;
-192.9000;0.3810;1.8818;
-192.6000;0.3826;1.8818;
-192.3000;0.3826;1.8794;
-192.0000;0.3818;1.8769;
-191.7000;0.3826;1.8794;
-191.4000;0.3818;1.8671;
-191.1000;0.3810;1.8646;
-190.8000;0.3858;1.8671;
-190.5000;0.3810;1.8572;
-190.2000;0.3810;1.8671;
-189.9000;0.3818;1.8621;
-189.6000;0.3818;1.8646;
-189.3000;0.3801;1.8695;
-189.0000;0.3810;1.8744;
-188.7000;0.3810;1.8744;
-188.4000;0.3810;1.8695;
-188.1000;0.3810;1.8695;
-187.8000;0.3834;1.8695;
-187.5000;0.3826;1.8646;
-187.2000;0.3810;1.8646;
-186.9000;0.3793;1.8597;
-186.6000;0.3801;1.8695;
-186.3000;0.3818;1.8671;
-186.0000;0.3793;1.8621;
-185.7000;0.3810;1.8621;
-185.4000;0.3801;1.8572;
-185.1000;0.3834;1.8597;
-184.8000;0.3801;1.8548;
-184.5000;0.3801;1.8597;
-184.2000;0.3810;1.8621;
-183.9000;0.3818;1.8597;
-183.6000;0.3810;1.8621;
-183.3000;0.3801;1.8671;
-183.0000;0.3810;1.8720;
-182.7000;0.3834;1.8744;
-182.4000;0.3875;1.8843;
-182.1000;0.3810;1.8794;
-181.8000;0.3810;1.8769;
-181.5000;0.3834;1.8892;
-181.2000;0.3826;1.8867;
-180.9000;0.3818;1.8794;
-180.6000;0.3810;1.8794;
-180.3000;0.3810;1.8744;
-180.0000;0.3777;1.8646;
-179.7000;0.3826;1.8720;
-179.4000;0.3785;1.8695;
-179.1000;0.3801;1.8744;
-178.8000;0.3818;1.8794;
-178.5000;0.3842;1.8794;
-178.2000;0.3818;1.8720;
-177.9000;0.3818;1.8769;
-177.6000;0.3875;1.8941;
-177.3000;0.3810;1.8744;
-177.0000;0.3826;1.8818;
-176.7000;0.3801;1.8744;
-176.4000;0.3826;1.8818;
-176.1000;0.3834;1.8843;
-175.8000;0.3777;1.8671;
-175.5000;0.3818;1.8720;
-175.2000;0.3818;1.8671;
-174.9000;0.3801;1.8695;
-174.6000;0.3818;1.8769;
-174.3000;0.3801;1.8671;
-174.0000;0.3793;1.8621;
-173.7000;0.3810;1.8695;
-173.4000;0.3793;1.8720;
-173.1000;0.3801;1.8769;
-172.8000;0.3736;1.8671;
-172.5000;0.3818;1.8695;
-172.2000;0.3810;1.8671;
-171.9000;0.3826;1.8646;
-171.6000;0.3818;1.8621;
-171.3000;0.3801;1.8597;
-171.0000;0.3818;1.8671;
-170.7000;0.3810;1.8695;
-170.4000;0.3777;1.8621;
-170.1000;0.3810;1.8646;
-169.8000;0.3736;1.8400;
-169.5000;0.3810;1.8474;
-169.2000;0.3761;1.8351;
-168.9000;0.3818;1.8523;
-168.6000;0.3850;1.8572;
-168.3000;0.3842;1.8548;
-168.0000;0.3818;1.8498;
-167.7000;0.3818;1.8498;
-167.4000;0.3826;1.8572;
-167.1000;0.3826;1.8548;
-166.8000;0.3867;1.8695;
-166.5000;0.3818;1.8572;
-166.2000;0.3810;1.8548;
-165.9000;0.3801;1.8548;
-165.6000;0.3826;1.8572;
-165.3000;0.3769;1.8400;
-165.0000;0.3826;1.8548;
-164.7000;0.3834;1.8523;
-164.4000;0.3810;1.8498;
-164.1000;0.3801;1.8498;
-163.8000;0.3810;1.8498;
-163.5000;0.3810;1.8523;
-163.2000;0.3801;1.8572;
-162.9000;0.3801;1.8548;
-162.6000;0.3818;1.8474;
-162.3000;0.3818;1.8498;
-162.0000;0.3818;1.8449;
-161.7000;0.3826;1.8523;
-161.4000;0.3801;1.8498;
-161.1000;0.3826;1.8597;
-160.8000;0.3834;1.8597;
-160.5000;0.3810;1.8621;
-160.2000;0.3793;1.8646;
-159.9000;0.3818;1.8720;
-159.6000;0.3801;1.8720;
-159.3000;0.3810;1.8744;
-159.0000;0.3826;1.8843;
-158.7000;0.3801;1.8794;
-158.4000;0.3818;1.8769;
-158.1000;0.3858;1.8892;
-157.8000;0.3818;1.8744;
-157.5000;0.3810;1.8818;
-157.2000;0.3834;1.8843;
-156.9000;0.3777;1.8744;
-156.6000;0.3818;1.8818;
-156.3000;0.3810;1.8818;
-156.0000;0.3834;1.8867;
-155.7000;0.3834;1.8867;
-155.4000;0.3818;1.8843;
-155.1000;0.3801;1.8867;
-154.8000;0.3818;1.8966;
-154.5000;0.3810;1.8990;
-154.2000;0.3810;1.9015;
-153.9000;0.3801;1.8941;
-153.6000;0.3875;1.9015;
-153.3000;0.3793;1.8769;
-153.0000;0.3810;1.8769;
-152.7000;0.3810;1.8720;
-152.4000;0.3769;1.8621;
-152.1000;0.3801;1.8621;
-151.8000;0.3818;1.8695;
-151.5000;0.3753;1.8597;
-151.2000;0.3801;1.8621;
-150.9000;0.3810;1.8621;
-150.6000;0.3793;1.8621;
-150.3000;0.3899;1.8818;
-150.0000;0.3826;1.8671;
-149.7000;0.3810;1.8671;
-149.4000;0.3810;1.8671;
-149.1000;0.3818;1.8720;
-148.8000;0.3801;1.8646;
-148.5000;0.3801;1.8671;
-148.2000;0.3810;1.8720;
-147.9000;0.3826;1.8646;
-147.6000;0.3810;1.8597;
-147.3000;0.3899;1.8794;
-147.0000;0.3818;1.8597;
-146.7000;0.3810;1.8621;
-146.4000;0.3826;1.8597;
-146.1000;0.3810;1.8572;
-145.8000;0.3883;1.8769;
-145.5000;0.3858;1.8695;
-145.2000;0.3801;1.8621;
-144.9000;0.3793;1.8597;
-144.6000;0.3842;1.8621;
-144.3000;0.3850;1.8671;
-144.0000;0.3810;1.8646;
-143.7000;0.3793;1.8621;
-143.4000;0.3761;1.8498;
-143.1000;0.3810;1.8695;
-142.8000;0.3793;1.8671;
-142.5000;0.3801;1.8646;
-142.2000;0.3834;1.8720;
-141.9000;0.3810;1.8744;
-141.6000;0.3810;1.8769;
-141.3000;0.3801;1.8720;
-141.0000;0.3810;1.8720;
-140.7000;0.3761;1.8671;
-140.4000;0.3818;1.8843;
-140.1000;0.3801;1.8818;
-139.8000;0.3810;1.8843;
-139.5000;0.3810;1.8843;
-139.2000;0.3867;1.8867;
-138.9000;0.3810;1.8720;
-138.6000;0.3810;1.8695;
-138.3000;0.3801;1.8720;
-138.0000;0.3810;1.8572;
-137.7000;0.3842;1.8572;
-137.4000;0.3810;1.8548;
-137.1000;0.3834;1.8646;
-136.8000;0.3834;1.8621;
-136.5000;0.3842;1.8646;
-136.2000;0.3834;1.8671;
-135.9000;0.3801;1.8572;
-135.6000;0.3810;1.8498;
-135.3000;0.3850;1.8671;
-135.0000;0.3850;1.8695;
-134.7000;0.3834;1.8572;
-134.4000;0.3826;1.8621;
-134.1000;0.3834;1.8621;
-133.8000;0.3826;1.8646;
-133.5000;0.3826;1.8597;
-133.2000;0.3818;1.8597;
-132.9000;0.3793;1.8523;
-132.6000;0.3818;1.8646;
-132.3000;0.3818;1.8695;
-132.0000;0.3834;1.8695;
-131.7000;0.3842;1.8769;
-131.4000;0.3810;1.8597;
-131.1000;0.3818;1.8597;
-130.8000;0.3826;1.8621;
-130.5000;0.3818;1.8621;
-130.2000;0.3801;1.8646;
-129.9000;0.3801;1.8523;
-129.6000;0.3891;1.8720;
-129.3000;0.3810;1.8523;
-129.0000;0.3826;1.8523;
-128.7000;0.3793;1.8474;
-128.4000;0.3818;1.8375;
-128.1000;0.3793;1.8375;
-127.8000;0.3826;1.8425;
-127.5000;0.3818;1.8523;
-127.2000;0.3810;1.8548;
-126.9000;0.3801;1.8572;
-126.6000;0.3818;1.8621;
-126.3000;0.3810;1.8621;
-126.0000;0.3810;1.8572;
-125.7000;0.3818;1.8597;
-125.4000;0.3810;1.8548;
-125.1000;0.3834;1.8720;
-124.8000;0.3801;1.8572;
-124.5000;0.3923;1.8892;
-124.2000;0.3842;1.8548;
-123.9000;0.3818;1.8572;
-123.6000;0.3818;1.8572;
-123.3000;0.3818;1.8498;
-123.0000;0.3801;1.8449;
-122.7000;0.3801;1.8449;
-122.4000;0.3826;1.8548;
-122.1000;0.3810;1.8425;
-121.8000;0.3818;1.8523;
-121.5000;0.3810;1.8425;
-121.2000;0.3842;1.8548;
-120.9000;0.3785;1.8400;
-120.6000;0.3810;1.8474;
-120.3000;0.3801;1.8449;
-120.0000;0.3801;1.8548;
-119.7000;0.3818;1.8646;
-119.4000;0.3793;1.8597;
-119.1000;0.3810;1.8597;
-118.8000;0.3818;1.8572;
-118.5000;0.3818;1.8548;
-118.2000;0.3842;1.8621;
-117.9000;0.3818;1.8548;
-117.6000;0.3834;1.8671;
-117.3000;0.3826;1.8671;
-117.0000;0.3842;1.8744;
-116.7000;0.3777;1.8695;
-116.4000;0.3875;1.8892;
-116.1000;0.3818;1.8744;
-115.8000;0.3826;1.8646;
-115.5000;0.3801;1.8695;
-115.2000;0.3834;1.8769;
-114.9000;0.3818;1.8744;
-114.6000;0.3818;1.8621;
-114.3000;0.3761;1.8597;
-114.0000;0.3826;1.8744;
-113.7000;0.3810;1.8695;
-113.4000;0.3810;1.8597;
-113.1000;0.3801;1.8523;
-112.8000;0.3785;1.8498;
-112.5000;0.3810;1.8548;
-112.2000;0.3818;1.8498;
-111.9000;0.3826;1.8498;
-111.6000;0.3826;1.8523;
-111.3000;0.3826;1.8572;
-111.0000;0.3818;1.8671;
-110.7000;0.3801;1.8695;
-110.4000;0.3785;1.8695;
-110.1000;0.3810;1.8744;
-109.8000;0.3810;1.8695;
-109.5000;0.3818;1.8646;
-109.2000;0.3810;1.8597;
-108.9000;0.3679;1.8228;
-108.6000;0.3826;1.8646;
-108.3000;0.3785;1.8621;
-108.0000;0.3810;1.8695;
-107.7000;0.3777;1.8621;
-107.4000;0.3777;1.8621;
-107.1000;0.3810;1.8695;
-106.8000;0.3810;1.8597;
-106.5000;0.3826;1.8646;
-106.2000;0.3810;1.8695;
-105.9000;0.3818;1.8695;
-105.6000;0.3858;1.8794;
-105.3000;0.3818;1.8646;
-105.0000;0.3793;1.8498;
-104.7000;0.3785;1.8474;
-104.4000;0.3826;1.8597;
-104.1000;0.3810;1.8498;
-103.8000;0.3826;1.8425;
-103.5000;0.3834;1.8548;
-103.2000;0.3818;1.8523;
-102.9000;0.3826;1.8572;
-102.6000;0.3793;1.8523;
-102.3000;0.3818;1.8597;
-102.0000;0.3826;1.8621;
-101.7000;0.3793;1.8548;
-101.4000;0.3801;1.8498;
-101.1000;0.3867;1.8769;
-100.8000;0.3801;1.8597;
-100.5000;0.3858;1.8744;
-100.2000;0.3826;1.8548;
-99.9000;0.3834;1.8597;
-99.6000;0.3834;1.8572;
-99.3000;0.3810;1.8449;
-99.0000;0.3810;1.8351;
-98.7000;0.3818;1.8351;
-98.4000;0.3810;1.8326;
-98.1000;0.3850;1.8400;
-97.8000;0.3801;1.8302;
-97.5000;0.3826;1.8400;
-97.2000;0.3810;1.8375;
-96.9000;0.3801;1.8523;
-96.6000;0.3801;1.8523;
-96.3000;0.3810;1.8523;
-96.0000;0.3801;1.8474;
-95.7000;0.3810;1.8474;
-95.4000;0.3818;1.8351;
-95.1000;0.3793;1.8351;
-94.8000;0.3801;1.8375;
-94.5000;0.3818;1.8375;
-94.2000;0.3777;1.8228;
-93.9000;0.3801;1.8326;
-93.6000;0.3793;1.8425;
-93.3000;0.3842;1.8498;
-93.0000;0.3818;1.8449;
-92.7000;0.3818;1.8375;
-92.4000;0.3818;1.8351;
-92.1000;0.3818;1.8302;
-91.8000;0.3834;1.8277;
-91.5000;0.3818;1.8179;
-91.2000;0.3826;1.8154;
-90.9000;0.3810;1.8129;
-90.6000;0.3842;1.8252;
-90.3000;0.3818;1.8154;
-90.0000;0.3826;1.8154;
-89.7000;0.3826;1.8203;
-89.4000;0.3826;1.8277;
-89.1000;0.3801;1.8351;
-88.8000;0.3818;1.8326;
-88.5000;0.3818;1.8375;
-88.2000;0.3826;1.8523;
-87.9000;0.3818;1.8572;
-87.6000;0.3769;1.8548;
-87.3000;0.3818;1.8597;
-87.0000;0.3818;1.8572;
-86.7000;0.3753;1.8400;
-86.4000;0.3801;1.8548;
-86.1000;0.3777;1.8523;
-85.8000;0.3810;1.8695;
-85.5000;0.3810;1.8744;
-85.2000;0.3818;1.8695;
-84.9000;0.3801;1.8695;
-84.6000;0.3769;1.8572;
-84.3000;0.3785;1.8572;
-84.0000;0.3810;1.8621;
-83.7000;0.3810;1.8548;
-83.4000;0.3801;1.8621;
-83.1000;0.3793;1.8671;
-82.8000;0.3769;1.8621;
-82.5000;0.3818;1.8597;
-82.2000;0.3785;1.8523;
-81.9000;0.3826;1.8621;
-81.6000;0.3801;1.8523;
-81.3000;0.3801;1.8548;
-81.0000;0.3818;1.8498;
-80.7000;0.3842;1.8548;
-80.4000;0.3818;1.8548;
-80.1000;0.3842;1.8646;
-79.8000;0.3834;1.8572;
-79.5000;0.3818;1.8498;
-79.2000;0.3810;1.8548;
-78.9000;0.3834;1.8597;
-78.6000;0.3818;1.8548;
-78.3000;0.3728;1.8400;
-78.0000;0.3818;1.8548;
-77.7000;0.3826;1.8548;
-77.4000;0.3810;1.8474;
-77.1000;0.3850;1.8572;
-76.8000;0.3834;1.8474;
-76.5000;0.3801;1.8425;
-76.2000;0.3834;1.8523;
-75.9000;0.3801;1.8326;
-75.6000;0.3826;1.8400;
-75.3000;0.3826;1.8498;
-75.0000;0.3818;1.8523;
-74.7000;0.3810;1.8548;
-74.4000;0.3810;1.8597;
-74.1000;0.3810;1.8597;
-73.8000;0.3736;1.8351;
-73.5000;0.3801;1.8548;
-73.2000;0.3801;1.8597;
-72.9000;0.3810;1.8720;
-72.6000;0.3810;1.8744;
-72.3000;0.3875;1.8818;
-72.0000;0.3801;1.8548;
-71.7000;0.3818;1.8498;
-71.4000;0.3810;1.8523;
-71.1000;0.3818;1.8425;
-70.8000;0.3793;1.8375;
-70.5000;0.3801;1.8400;
-70.2000;0.3826;1.8375;
-69.9000;0.3801;1.8277;
-69.6000;0.3777;1.8302;
-69.3000;0.3826;1.8375;
-69.0000;0.3834;1.8425;
-68.7000;0.3810;1.8425;
-68.4000;0.3801;1.8523;
-68.1000;0.3818;1.8548;
-67.8000;0.3834;1.8523;
-67.5000;0.3793;1.8498;
-67.2000;0.3826;1.8621;
-66.9000;0.3818;1.8548;
-66.6000;0.3842;1.8597;
-66.3000;0.3842;1.8523;
-66.0000;0.3810;1.8425;
-65.7000;0.3810;1.8498;
-65.4000;0.3810;1.8498;
-65.1000;0.3826;1.8498;
-64.8000;0.3818;1.8523;
-64.5000;0.3867;1.8621;
-64.2000;0.3842;1.8498;
-63.9000;0.3834;1.8548;
-63.6000;0.3785;1.8375;
-63.3000;0.3810;1.8425;
-63.0000;0.3810;1.8400;
-62.7000;0.3826;1.8375;
-62.4000;0.3810;1.8375;
-62.1000;0.3785;1.8302;
-61.8000;0.3818;1.8375;
-61.5000;0.3810;1.8351;
-61.2000;0.3875;1.8474;
-60.9000;0.3826;1.8449;
-60.6000;0.3818;1.8498;
-60.3000;0.3818;1.8548;
-60.0000;0.3826;1.8621;
-59.7000;0.3801;1.8474;
-59.4000;0.3818;1.8498;
-59.1000;0.3826;1.8523;
-58.8000;0.3834;1.8621;
-58.5000;0.3826;1.8572;
-58.2000;0.3818;1.8548;
-57.9000;0.3785;1.8425;
-57.6000;0.3818;1.8523;
-57.3000;0.3818;1.8474;
-57.0000;0.3810;1.8375;
-56.7000;0.3810;1.8474;
-56.4000;0.3818;1.8548;
-56.1000;0.3810;1.8523;
-55.8000;0.3801;1.8449;
-55.5000;0.3793;1.8449;
-55.2000;0.3818;1.8523;
-54.9000;0.3834;1.8498;
-54.6000;0.3810;1.8351;
-54.3000;0.3818;1.8302;
-54.0000;0.3810;1.8277;
-53.7000;0.3810;1.8351;
-53.4000;0.3899;1.8572;
-53.1000;0.3810;1.8326;
-52.8000;0.3867;1.8498;
-52.5000;0.3826;1.8425;
-52.2000;0.3793;1.8375;
-51.9000;0.3801;1.8400;
-51.6000;0.3810;1.8400;
-51.3000;0.3801;1.8400;
-51.0000;0.3793;1.8326;
-50.7000;0.3810;1.8449;
-50.4000;0.3793;1.8498;
-50.1000;0.3810;1.8474;
-49.8000;0.3793;1.8425;
-49.5000;0.3818;1.8474;
-49.2000;0.3801;1.8449;
-48.9000;0.3818;1.8523;
-48.6000;0.3826;1.8548;
-48.3000;0.3850;1.8720;
-48.0000;0.3810;1.8671;
-47.7000;0.3810;1.8621;
-47.4000;0.3801;1.8646;
-47.1000;0.3810;1.8646;
-46.8000;0.3696;1.8425;
-46.5000;0.3801;1.8671;
-46.2000;0.3793;1.8671;
-45.9000;0.3818;1.8646;
-45.6000;0.3826;1.8597;
-45.3000;0.3793;1.8523;
-45.0000;0.3818;1.8498;
-44.7000;0.3826;1.8498;
-44.4000;0.3818;1.8498;
-44.1000;0.3818;1.8449;
-43.8000;0.3801;1.8400;
-43.5000;0.3826;1.8548;
-43.2000;0.3818;1.8449;
-42.9000;0.3801;1.8400;
-42.6000;0.3810;1.8400;
-42.3000;0.3818;1.8375;
-42.0000;0.3818;1.8375;
-41.7000;0.3818;1.8498;
-41.4000;0.3801;1.8498;
-41.1000;0.3826;1.8548;
-40.8000;0.3842;1.8621;
-40.5000;0.3793;1.8498;
-40.2000;0.3810;1.8523;
-39.9000;0.3826;1.8621;
-39.6000;0.3785;1.8548;
-39.3000;0.3834;1.8572;
-39.0000;0.3826;1.8572;
-38.7000;0.3818;1.8572;
-38.4000;0.3818;1.8695;
-38.1000;0.3826;1.8720;
-37.8000;0.3801;1.8671;
-37.5000;0.3793;1.8597;
-37.2000;0.3810;1.8548;
-36.9000;0.3753;1.8425;
-36.6000;0.3810;1.8449;
-36.3000;0.3801;1.8449;
-36.0000;0.3801;1.8400;
-35.7000;0.3818;1.8523;
-35.4000;0.3810;1.8523;
-35.1000;0.3826;1.8498;
-34.8000;0.3875;1.8597;
-34.5000;0.3826;1.8523;
-34.2000;0.3801;1.8449;
-33.9000;0.3810;1.8498;
-33.6000;0.3818;1.8572;
-33.3000;0.3801;1.8498;
-33.0000;0.3818;1.8449;
-32.7000;0.3810;1.8523;
-32.4000;0.3793;1.8498;
-32.1000;0.3801;1.8548;
-31.8000;0.3834;1.8646;
-31.5000;0.3834;1.8671;
-31.2000;0.3810;1.8646;
-30.9000;0.3793;1.8695;
-30.6000;0.3834;1.8867;
-30.3000;0.3761;1.8695;
-30.0000;0.3810;1.8818;
-29.7000;0.3834;1.8843;
-29.4000;0.3801;1.8671;
-29.1000;0.3777;1.8621;
-28.8000;0.3810;1.8720;
-28.5000;0.3818;1.8769;
-28.2000;0.3842;1.8843;
-27.9000;0.3818;1.8769;
-27.6000;0.3810;1.8671;
-27.3000;0.3834;1.8621;
-27.0000;0.3826;1.8621;
-26.7000;0.3793;1.8597;
-26.4000;0.3801;1.8548;
-26.1000;0.3810;1.8597;
-25.8000;0.3826;1.8523;
-25.5000;0.3818;1.8498;
-25.2000;0.3818;1.8449;
-24.9000;0.3818;1.8572;
-24.6000;0.3818;1.8548;
-24.3000;0.3810;1.8474;
-24.0000;0.3801;1.8400;
-23.7000;0.3761;1.8351;
-23.4000;0.3801;1.8449;
-23.1000;0.3818;1.8498;
-22.8000;0.3818;1.8548;
-22.5000;0.3801;1.8523;
-22.2000;0.3785;1.8523;
-21.9000;0.3826;1.8597;
-21.6000;0.3810;1.8597;
-21.3000;0.3801;1.8597;
-21.0000;0.3810;1.8572;
-20.7000;0.3753;1.8425;
-20.4000;0.3818;1.8695;
-20.1000;0.3818;1.8621;
-19.8000;0.3842;1.8621;
-19.5000;0.3826;1.8548;
-19.2000;0.3826;1.8621;
-18.9000;0.3826;1.8695;
-18.6000;0.3818;1.8671;
-18.3000;0.3818;1.8646;
-18.0000;0.3834;1.8695;
-17.7000;0.3826;1.8621;
-17.4000;0.3834;1.8695;
-17.1000;0.3818;1.8646;
-16.8000;0.3826;1.8720;
-16.5000;0.3810;1.8621;
-16.2000;0.3801;1.8621;
-15.9000;0.3777;1.8597;
-15.6000;0.3801;1.8671;
-15.3000;0.3818;1.8646;
-15.0000;0.3818;1.8621;
-14.7000;0.3801;1.8671;
-14.4000;0.3818;1.8744;
-14.1000;0.3769;1.8572;
-13.8000;0.3826;1.8720;
-13.5000;0.3785;1.8671;
-13.2000;0.3801;1.8794;
-12.9000;0.3818;1.8818;
-12.6000;0.3810;1.8769;
-12.3000;0.3793;1.8794;
-12.0000;0.3818;1.8818;
-11.7000;0.3842;1.8818;
-11.4000;0.3810;1.8769;
-11.1000;0.3810;1.8818;
-10.8000;0.3793;1.8621;
-10.5000;0.3826;1.8671;
-10.2000;0.3810;1.8671;
-9.9000;0.3818;1.8621;
-9.6000;0.3801;1.8498;
-9.3000;0.3818;1.8572;
-9.0000;0.3826;1.8621;
-8.7000;0.3810;1.8671;
-8.4000;0.3793;1.8572;
-8.1000;0.3793;1.8597;
-7.8000;0.3818;1.8646;
-7.5000;0.3801;1.8695;
-7.2000;0.3867;1.8917;
-6.9000;0.3826;1.8794;
-6.6000;0.3834;1.8744;
-6.3000;0.3818;1.8794;
-6.0000;0.3818;1.8744;
-5.7000;0.3842;1.8794;
-5.4000;0.3810;1.8646;
-5.1000;0.3826;1.8646;
-4.8000;0.3810;1.8646;
-4.5000;0.3801;1.8671;
-4.2000;0.3810;1.8744;
-3.9000;0.3801;1.8671;
-3.6000;0.3810;1.8769;
-3.3000;0.3818;1.8769;
-3.0000;0.3810;1.8818;
-2.7000;0.3810;1.8843;
-2.4000;0.3818;1.8917;
-2.1000;0.3826;1.8941;
-1.8000;0.3810;1.8867;
-1.5000;0.3801;1.8818;
-1.2000;0.3818;1.8843;
-0.9000;0.3801;1.8867;
-0.6000;0.3761;1.8818;
-0.3000;0.3810;1.8892;
0.0000;0.3810;1.8892;
0.3000;0.3923;1.8892;
0.6000;0.4306;1.9482;
0.9000;0.4501;1.9704;
1.2000;0.4689;2.0097;
1.5000;0.4786;2.0171;
1.8000;0.4884;2.0442;
2.1000;0.4974;2.0663;
2.4000;0.5047;2.0909;
2.7000;0.5096;2.1106;
3.0000;0.5136;2.1204;
3.3000;0.5136;2.1253;
3.6000;0.5210;2.1475;
3.9000;0.5218;2.1549;
4.2000;0.5226;2.1573;
4.5000;0.5258;2.1573;
4.8000;0.5275;2.1598;
5.1000;0.5258;2.1524;
5.4000;0.5332;2.1696;
5.7000;0.5332;2.1696;
6.0000;0.5348;2.1721;
6.3000;0.5364;2.1672;
6.6000;0.5364;2.1573;
6.9000;0.5381;2.1696;
7.2000;0.5397;2.1696;
7.5000;0.5470;2.1868;
7.8000;0.5413;2.1622;
8.1000;0.5478;2.1672;
8.4000;0.5446;2.1573;
8.7000;0.5478;2.1622;
9.0000;0.5470;2.1549;
9.3000;0.5478;2.1573;
9.6000;0.5470;2.1573;
9.9000;0.5503;2.1598;
10.2000;0.5511;2.1524;
10.5000;0.5511;2.1524;
10.8000;0.5519;2.1549;
11.1000;0.5527;2.1647;
11.4000;0.5560;2.1696;
11.7000;0.5560;2.1598;
12.0000;0.5560;2.1475;
12.3000;0.5568;2.1524;
12.6000;0.5576;2.1549;
12.9000;0.5584;2.1499;
13.2000;0.5600;2.1549;
13.5000;0.5617;2.1549;
13.8000;0.5617;2.1524;
14.1000;0.5633;2.1499;
14.4000;0.5649;2.1450;
14.7000;0.5633;2.1303;
15.0000;0.5649;2.1352;
15.3000;0.5674;2.1401;
15.6000;0.5682;2.1376;
15.9000;0.5690;2.1327;
16.2000;0.5682;2.1204;
16.5000;0.5690;2.1180;
16.8000;0.5682;2.1106;
17.1000;0.5714;2.1229;
17.4000;0.5714;2.1155;
17.7000;0.5706;2.1106;
18.0000;0.5755;2.1229;
18.3000;0.5731;2.1155;
18.6000;0.5763;2.1180;
18.9000;0.5779;2.1130;
19.2000;0.5763;2.1081;
19.5000;0.5771;2.1032;
19.8000;0.5755;2.1081;
20.1000;0.5788;2.1229;
20.4000;0.5812;2.1327;
20.7000;0.5747;2.1180;
21.0000;0.5788;2.1327;
21.3000;0.5796;2.1303;
21.6000;0.5828;2.1352;
21.9000;0.5836;2.1376;
22.2000;0.5845;2.1352;
22.5000;0.5845;2.1352;
22.8000;0.5853;2.1376;
23.1000;0.5869;2.1327;
23.4000;0.5861;2.1278;
23.7000;0.5869;2.1204;
24.0000;0.5869;2.1081;
24.3000;0.5926;2.1253;
24.6000;0.5845;2.1032;
24.9000;0.5877;2.1155;
25.2000;0.5902;2.1253;
25.5000;0.5918;2.1278;
25.8000;0.5893;2.1180;
26.1000;0.5902;2.1130;
26.4000;0.5918;2.1253;
26.7000;0.5926;2.1180;
27.0000;0.5934;2.1180;
27.3000;0.5942;2.1180;
27.6000;0.5942;2.1130;
27.9000;0.5918;2.1057;
28.2000;0.5950;2.1180;
28.5000;0.5950;2.1253;
28.8000;0.5950;2.1204;
29.1000;0.5967;2.1130;
29.4000;0.5942;2.1057;
29.7000;0.5967;2.1155;
30.0000;0.5975;2.1081;
30.3000;0.5999;2.1180;
30.6000;0.5999;2.1229;
30.9000;0.5999;2.1155;
31.2000;0.5983;2.1204;
31.5000;0.5983;2.1204;
31.8000;0.5999;2.1180;
32.1000;0.5983;2.1130;
32.4000;0.5991;2.1106;
32.7000;0.6007;2.1106;
33.0000;0.6015;2.1106;
33.3000;0.6024;2.1007;
33.6000;0.6015;2.1032;
33.9000;0.6007;2.1007;
34.2000;0.6007;2.1106;
34.5000;0.6048;2.1204;
34.8000;0.6024;2.1278;
35.1000;0.6024;2.1327;
35.4000;0.6032;2.1376;
35.7000;0.6040;2.1376;
36.0000;0.6040;2.1352;
36.3000;0.6056;2.1278;
36.6000;0.6048;2.1229;
36.9000;0.6048;2.1204;
37.2000;0.6056;2.1278;
37.5000;0.6056;2.1229;
37.8000;0.6072;2.1204;
38.1000;0.6072;2.1278;
38.4000;0.6081;2.1352;
38.7000;0.6113;2.1376;
39.0000;0.6072;2.1303;
39.3000;0.6089;2.1278;
39.6000;0.6138;2.1450;
39.9000;0.6081;2.1303;
40.2000;0.6089;2.1253;
40.5000;0.6081;2.1204;
40.8000;0.6081;2.1180;
41.1000;0.6081;2.1204;
41.4000;0.6081;2.1253;
41.7000;0.6105;2.1253;
42.0000;0.6121;2.1426;
42.3000;0.6097;2.1253;
42.6000;0.6089;2.1155;
42.9000;0.6089;2.1130;
43.2000;0.6081;2.1081;
43.5000;0.6089;2.1130;
43.8000;0.6121;2.1155;
44.1000;0.6113;2.1032;
44.4000;0.6121;2.1007;
44.7000;0.6121;2.0958;
45.0000;0.6121;2.0983;
45.3000;0.6129;2.0958;
45.6000;0.6138;2.0983;
45.9000;0.6138;2.1007;
46.2000;0.6146;2.1032;
46.5000;0.6129;2.0983;
46.8000;0.6138;2.0958;
47.1000;0.6146;2.1032;
47.4000;0.6138;2.1057;
47.7000;0.6162;2.0983;
48.0000;0.6146;2.0909;
48.3000;0.6138;2.0811;
48.6000;0.6146;2.0934;
48.9000;0.6154;2.0934;
49.2000;0.6154;2.0983;
49.5000;0.6170;2.0983;
49.8000;0.6146;2.0909;
50.1000;0.6178;2.1007;
50.4000;0.6178;2.0983;
50.7000;0.6162;2.0958;
51.0000;0.6178;2.1032;
51.3000;0.6162;2.1032;
51.6000;0.6186;2.1057;
51.9000;0.6178;2.0983;
52.2000;0.6129;2.0835;
52.5000;0.6138;2.0835;
52.8000;0.6195;2.0958;
53.1000;0.6121;2.0712;
53.4000;0.6203;2.0934;
53.7000;0.6195;2.0983;
54.0000;0.6203;2.0983;
54.3000;0.6211;2.1032;
54.6000;0.6203;2.0958;
54.9000;0.6195;2.0860;
55.2000;0.6186;2.0884;
55.5000;0.6195;2.0884;
55.8000;0.6195;2.0909;
56.1000;0.6219;2.0934;
56.4000;0.6178;2.0860;
56.7000;0.6195;2.0909;
57.0000;0.6203;2.0909;
57.3000;0.6178;2.0835;
57.6000;0.6227;2.0958;
57.9000;0.6211;2.0884;
58.2000;0.6211;2.0860;
58.5000;0.6227;2.0860;
58.8000;0.6235;2.0786;
59.1000;0.6227;2.0638;
59.4000;0.6227;2.0663;
59.7000;0.6243;2.0737;
60.0000;0.6243;2.0688;
60.3000;0.6219;2.0688;
60.6000;0.6260;2.0688;
60.9000;0.6243;2.0589;
61.2000;0.6252;2.0589;
61.5000;0.6235;2.0565;
61.8000;0.6260;2.0515;
62.1000;0.6284;2.0688;
62.4000;0.6260;2.0663;
62.7000;0.6252;2.0712;
63.0000;0.6252;2.0712;
63.3000;0.6260;2.0761;
63.6000;0.6260;2.0786;
63.9000;0.6260;2.0737;
64.2000;0.6276;2.0712;
64.5000;0.6300;2.0688;
64.8000;0.6276;2.0565;
65.1000;0.6300;2.0589;
65.4000;0.6276;2.0565;
65.7000;0.6292;2.0565;
66.0000;0.6292;2.0565;
66.3000;0.6309;2.0466;
66.6000;0.6292;2.0466;
66.9000;0.6268;2.0417;
67.2000;0.6292;2.0417;
67.5000;0.6284;2.0491;
67.8000;0.6317;2.0540;
68.1000;0.6284;2.0565;
68.4000;0.6276;2.0688;
68.7000;0.6292;2.0688;
69.0000;0.6292;2.0663;
69.3000;0.6300;2.0712;
69.6000;0.6317;2.0761;
69.9000;0.6325;2.0761;
70.2000;0.6325;2.0737;
70.5000;0.6300;2.0663;
70.8000;0.6309;2.0614;
71.1000;0.6317;2.0638;
71.4000;0.6309;2.0712;
71.7000;0.6292;2.0638;
72.0000;0.6317;2.0737;
72.3000;0.6309;2.0761;
72.6000;0.6333;2.0786;
72.9000;0.6349;2.0712;
73.2000;0.6333;2.0712;
73.5000;0.6341;2.0737;
73.8000;0.6357;2.0737;
74.1000;0.6349;2.0761;
74.4000;0.6333;2.0712;
74.7000;0.6333;2.0614;
75.0000;0.6357;2.0614;
75.3000;0.6349;2.0614;
75.6000;0.6365;2.0638;
75.9000;0.6349;2.0638;
76.2000;0.6333;2.0614;
76.5000;0.6357;2.0786;
76.8000;0.6341;2.0712;
77.1000;0.6292;2.0638;
77.4000;0.6325;2.0540;
77.7000;0.6341;2.0638;
78.0000;0.6357;2.0638;
78.3000;0.6357;2.0614;
78.6000;0.6365;2.0663;
78.9000;0.6365;2.0638;
79.2000;0.6357;2.0737;
79.5000;0.6349;2.0712;
79.8000;0.6292;2.0540;
80.1000;0.6365;2.0811;
80.4000;0.6341;2.0761;
80.7000;0.6349;2.0737;
81.0000;0.6341;2.0712;
81.3000;0.6357;2.0712;
81.6000;0.6365;2.0737;
81.9000;0.6365;2.0712;
82.2000;0.6374;2.0761;
82.5000;0.6365;2.0712;
82.8000;0.6382;2.0811;
83.1000;0.6398;2.0811;
83.4000;0.6390;2.0712;
83.7000;0.6398;2.0712;
84.0000;0.6382;2.0688;
84.3000;0.6398;2.0712;
84.6000;0.6349;2.0540;
84.9000;0.6398;2.0688;
85.2000;0.6406;2.0663;
85.5000;0.6398;2.0565;
85.8000;0.6390;2.0638;
86.1000;0.6390;2.0663;
86.4000;0.6398;2.0688;
86.7000;0.6398;2.0638;
87.0000;0.6398;2.0688;
87.3000;0.6406;2.0712;
87.6000;0.6398;2.0786;
87.9000;0.6398;2.0761;
88.2000;0.6406;2.0737;
88.5000;0.6406;2.0786;
88.8000;0.6406;2.0860;
89.1000;0.6471;2.1007;
89.4000;0.6422;2.0835;
89.7000;0.6431;2.0835;
90.0000;0.6390;2.0712;
90.3000;0.6439;2.0811;
90.6000;0.6422;2.0835;
90.9000;0.6414;2.0786;
91.2000;0.6406;2.0786;
91.5000;0.6414;2.0712;
91.8000;0.6414;2.0737;
92.1000;0.6439;2.0860;
92.4000;0.6471;2.0983;
92.7000;0.6406;2.0737;
93.0000;0.6398;2.0835;
93.3000;0.6317;2.0663;
93.6000;0.6439;2.0909;
93.9000;0.6422;2.0835;
94.2000;0.6422;2.0786;
94.5000;0.6422;2.0663;
94.8000;0.6422;2.0565;
95.1000;0.6439;2.0589;
95.4000;0.6431;2.0565;
95.7000;0.6431;2.0614;
96.0000;0.6431;2.0491;
96.3000;0.6431;2.0442;
96.6000;0.6471;2.0491;
96.9000;0.6471;2.0466;
97.2000;0.6447;2.0442;
97.5000;0.6439;2.0491;
97.8000;0.6431;2.0417;
98.1000;0.6455;2.0540;
98.4000;0.6439;2.0515;
98.7000;0.6455;2.0540;
99.0000;0.6447;2.0540;
99.3000;0.6455;2.0663;
99.6000;0.6439;2.0663;
99.9000;0.6455;2.0712;
100.2000;0.6439;2.0638;
100.5000;0.6447;2.0737;
100.8000;0.6447;2.0737;
101.1000;0.6447;2.0663;
101.4000;0.6447;2.0614;
101.7000;0.6463;2.0638;
102.0000;0.6455;2.0638;
102.3000;0.6455;2.0565;
102.6000;0.6463;2.0540;
102.9000;0.6439;2.0491;
103.2000;0.6496;2.0540;
103.5000;0.6455;2.0343;
103.8000;0.6479;2.0368;
104.1000;0.6463;2.0442;
104.4000;0.6463;2.0466;
104.7000;0.6463;2.0540;
105.0000;0.6431;2.0442;
105.3000;0.6463;2.0491;
105.6000;0.6463;2.0515;
105.9000;0.6463;2.0515;
106.2000;0.6471;2.0466;
106.5000;0.6479;2.0442;
106.8000;0.6455;2.0343;
107.1000;0.6479;2.0417;
107.4000;0.6455;2.0319;
107.7000;0.6471;2.0269;
108.0000;0.6463;2.0269;
108.3000;0.6496;2.0368;
108.6000;0.6479;2.0319;
108.9000;0.6496;2.0417;
109.2000;0.6463;2.0319;
109.5000;0.6479;2.0392;
109.8000;0.6439;2.0319;
110.1000;0.6479;2.0442;
110.4000;0.6488;2.0466;
110.7000;0.6504;2.0515;
111.0000;0.6471;2.0319;
111.3000;0.6479;2.0319;
111.6000;0.6496;2.0343;
111.9000;0.6447;2.0220;
112.2000;0.6488;2.0368;
112.5000;0.6471;2.0343;
112.8000;0.6512;2.0368;
113.1000;0.6471;2.0319;
113.4000;0.6488;2.0269;
113.7000;0.6471;2.0245;
114.0000;0.6471;2.0269;
114.3000;0.6471;2.0196;
114.6000;0.6463;2.0220;
114.9000;0.6504;2.0343;
115.2000;0.6471;2.0269;
115.5000;0.6504;2.0368;
115.8000;0.6496;2.0343;
116.1000;0.6479;2.0319;
116.4000;0.6463;2.0343;
116.7000;0.6496;2.0442;
117.0000;0.6471;2.0368;
117.3000;0.6488;2.0466;
117.6000;0.6479;2.0515;
117.9000;0.6488;2.0392;
118.2000;0.6488;2.0466;
118.5000;0.6479;2.0540;
118.8000;0.6488;2.0565;
119.1000;0.6488;2.0540;
119.4000;0.6504;2.0565;
119.7000;0.6488;2.0417;
120.0000;0.6504;2.0491;
120.3000;0.6488;2.0417;
120.6000;0.6504;2.0417;
120.9000;0.6496;2.0417;
121.2000;0.6504;2.0442;
121.5000;0.6496;2.0392;
121.8000;0.6488;2.0392;
122.1000;0.6496;2.0368;
122.4000;0.6504;2.0343;
122.7000;0.6512;2.0417;
123.0000;0.6496;2.0392;
123.3000;0.6496;2.0368;
123.6000;0.6496;2.0442;
123.9000;0.6455;2.0392;
124.2000;0.6496;2.0540;
124.5000;0.6488;2.0417;
124.8000;0.6520;2.0515;
125.1000;0.6512;2.0589;
125.4000;0.6496;2.0638;
125.7000;0.6512;2.0589;
126.0000;0.6496;2.0540;
126.3000;0.6471;2.0442;
126.6000;0.6488;2.0540;
126.9000;0.6504;2.0540;
127.2000;0.6488;2.0491;
127.5000;0.6496;2.0515;
127.8000;0.6504;2.0466;
128.1000;0.6496;2.0368;
128.4000;0.6504;2.0294;
128.7000;0.6512;2.0269;
129.0000;0.6512;2.0294;
129.3000;0.6471;2.0146;
129.6000;0.6520;2.0269;
129.9000;0.6512;2.0343;
130.2000;0.6512;2.0392;
130.5000;0.6496;2.0343;
130.8000;0.6504;2.0392;
131.1000;0.6520;2.0466;
131.4000;0.6528;2.0515;
131.7000;0.6585;2.0737;
132.0000;0.6528;2.0565;
132.3000;0.6520;2.0589;
132.6000;0.6545;2.0638;
132.9000;0.6512;2.0565;
133.2000;0.6504;2.0614;
133.5000;0.6512;2.0565;
133.8000;0.6553;2.0638;
134.1000;0.6504;2.0491;
134.4000;0.6512;2.0589;
134.7000;0.6496;2.0663;
135.0000;0.6528;2.0712;
135.3000;0.6520;2.0663;
135.6000;0.6536;2.0712;
135.9000;0.6545;2.0761;
136.2000;0.6520;2.0688;
136.5000;0.6520;2.0638;
136.8000;0.6520;2.0589;
137.1000;0.6520;2.0565;
137.4000;0.6520;2.0614;
137.7000;0.6520;2.0638;
138.0000;0.6520;2.0614;
138.3000;0.6512;2.0589;
138.6000;0.6504;2.0589;
138.9000;0.6504;2.0491;
139.2000;0.6520;2.0417;
139.5000;0.6528;2.0392;
139.8000;0.6488;2.0319;
140.1000;0.6545;2.0491;
140.4000;0.6528;2.0392;
140.7000;0.6488;2.0220;
141.0000;0.6520;2.0294;
141.3000;0.6520;2.0319;
141.6000;0.6520;2.0368;
141.9000;0.6536;2.0466;
142.2000;0.6512;2.0442;
142.5000;0.6602;2.0712;
142.8000;0.6512;2.0589;
143.1000;0.6528;2.0565;
143.4000;0.6520;2.0614;
143.7000;0.6512;2.0589;
144.0000;0.6504;2.0515;
144.3000;0.6520;2.0466;
144.6000;0.6536;2.0540;
144.9000;0.6512;2.0515;
145.2000;0.6528;2.0515;
145.5000;0.6545;2.0614;
145.8000;0.6528;2.0614;
146.1000;0.6553;2.0688;
146.4000;0.6520;2.0540;
146.7000;0.6545;2.0515;
147.0000;0.6561;2.0663;
147.3000;0.6520;2.0638;
147.6000;0.6512;2.0540;
147.9000;0.6471;2.0417;
148.2000;0.6471;2.0392;
148.5000;0.6512;2.0466;
148.8000;0.6504;2.0466;
149.1000;0.6504;2.0466;
149.4000;0.6528;2.0540;
149.7000;0.6512;2.0565;
150.0000;0.6504;2.0540;
150.3000;0.6512;2.0491;
150.6000;0.6528;2.0515;
150.9000;0.6520;2.0442;
151.2000;0.6512;2.0417;
151.5000;0.6512;2.0392;
151.8000;0.6528;2.0417;
152.1000;0.6520;2.0392;
152.4000;0.6520;2.0343;
152.7000;0.6512;2.0368;
153.0000;0.6520;2.0417;
153.3000;0.6520;2.0466;
153.6000;0.6504;2.0491;
153.9000;0.6504;2.0540;
154.2000;0.6520;2.0515;
154.5000;0.6520;2.0565;
154.8000;0.6528;2.0663;
155.1000;0.6512;2.0663;
155.4000;0.6520;2.0712;
155.7000;0.6585;2.0835;
156.0000;0.6536;2.0761;
156.3000;0.6528;2.0737;
156.6000;0.6536;2.0688;
156.9000;0.6520;2.0638;
157.2000;0.6553;2.0565;
157.5000;0.6512;2.0466;
157.8000;0.6520;2.0466;
158.1000;0.6520;2.0392;
158.4000;0.6504;2.0294;
158.7000;0.6512;2.0319;
159.0000;0.6512;2.0319;
159.3000;0.6512;2.0319;
159.6000;0.6512;2.0319;
159.9000;0.6520;2.0269;
160.2000;0.6504;2.0220;
160.5000;0.6504;2.0245;
160.8000;0.6545;2.0417;
161.1000;0.6520;2.0319;
161.4000;0.6553;2.0392;
161.7000;0.6520;2.0294;
162.0000;0.6520;2.0319;
162.3000;0.6504;2.0269;
162.6000;0.6512;2.0319;
162.9000;0.6520;2.0368;
163.2000;0.6520;2.0417;
163.5000;0.6520;2.0466;
163.8000;0.6585;2.0589;
164.1000;0.6545;2.0540;
164.4000;0.6528;2.0540;
164.7000;0.6528;2.0515;
165.0000;0.6520;2.0565;
165.3000;0.6512;2.0589;
165.6000;0.6520;2.0540;
165.9000;0.6536;2.0515;
166.2000;0.6520;2.0442;
166.5000;0.6528;2.0392;
166.8000;0.6520;2.0417;
167.1000;0.6512;2.0442;
167.4000;0.6520;2.0442;
167.7000;0.6512;2.0417;
168.0000;0.6512;2.0368;
168.3000;0.6520;2.0466;
168.6000;0.6520;2.0442;
168.9000;0.6520;2.0392;
169.2000;0.6512;2.0319;
169.5000;0.6520;2.0294;
169.8000;0.6520;2.0294;
170.1000;0.6520;2.0392;
170.4000;0.6512;2.0417;
170.7000;0.6520;2.0392;
171.0000;0.6520;2.0442;
171.3000;0.6536;2.0515;
171.6000;0.6545;2.0466;
171.9000;0.6577;2.0491;
172.2000;0.6536;2.0392;
172.5000;0.6520;2.0343;
172.8000;0.6512;2.0319;
173.1000;0.6520;2.0368;
173.4000;0.6520;2.0368;
173.7000;0.6512;2.0343;
174.0000;0.6463;2.0146;
174.3000;0.6528;2.0319;
174.6000;0.6536;2.0392;
174.9000;0.6520;2.0343;
175.2000;0.6520;2.0343;
175.5000;0.6512;2.0319;
175.8000;0.6520;2.0343;
176.1000;0.6536;2.0343;
176.4000;0.6536;2.0392;
176.7000;0.6520;2.0392;
177.0000;0.6528;2.0392;
177.3000;0.6528;2.0442;
177.6000;0.6577;2.0540;
177.9000;0.6528;2.0417;
178.2000;0.6504;2.0343;
178.5000;0.6536;2.0368;
178.8000;0.6528;2.0196;
179.1000;0.6528;2.0220;
179.4000;0.6520;2.0269;
179.7000;0.6528;2.0245;
180.0000;0.6520;2.0245;
180.3000;0.6520;2.0245;
180.6000;0.6536;2.0368;
180.9000;0.6512;2.0368;
181.2000;0.6528;2.0466;
181.5000;0.6569;2.0565;
181.8000;0.6504;2.0392;
182.1000;0.6520;2.0368;
182.4000;0.6512;2.0417;
182.7000;0.6479;2.0368;
183.0000;0.6520;2.0392;
183.3000;0.6520;2.0466;
183.6000;0.6496;2.0392;
183.9000;0.6528;2.0466;
184.2000;0.6512;2.0491;
184.5000;0.6512;2.0491;
184.8000;0.6520;2.0515;
185.1000;0.6463;2.0368;
185.4000;0.6512;2.0565;
185.7000;0.6488;2.0466;
186.0000;0.6512;2.0540;
186.3000;0.6520;2.0589;
186.6000;0.6528;2.0515;
186.9000;0.6504;2.0368;
187.2000;0.6561;2.0392;
187.5000;0.6512;2.0245;
187.8000;0.6512;2.0220;
188.1000;0.6520;2.0097;
188.4000;0.6504;2.0122;
188.7000;0.6504;2.0220;
189.0000;0.6512;2.0319;
189.3000;0.6520;2.0319;
189.6000;0.6520;2.0220;
189.9000;0.6520;2.0220;
190.2000;0.6520;2.0245;
190.5000;0.6520;2.0196;
190.8000;0.6528;2.0146;
191.1000;0.6520;2.0196;
191.4000;0.6528;2.0343;
191.7000;0.6504;2.0343;
192.0000;0.6512;2.0368;
192.3000;0.6520;2.0392;
192.6000;0.6512;2.0368;
192.9000;0.6520;2.0294;
193.2000;0.6512;2.0368;
193.5000;0.6512;2.0343;
193.8000;0.6520;2.0417;
194.1000;0.6520;2.0466;
194.4000;0.6496;2.0368;
194.7000;0.6512;2.0392;
195.0000;0.6520;2.0368;
195.3000;0.6512;2.0417;
195.6000;0.6496;2.0392;
195.9000;0.6496;2.0368;
196.2000;0.6504;2.0392;
196.5000;0.6520;2.0392;
196.8000;0.6504;2.0343;
197.1000;0.6512;2.0368;
197.4000;0.6512;2.0368;
197.7000;0.6512;2.0343;
198.0000;0.6488;2.0294;
198.3000;0.6520;2.0343;
198.6000;0.6520;2.0343;
198.9000;0.6520;2.0392;
199.2000;0.6520;2.0269;
199.5000;0.6520;2.0294;
199.8000;0.6504;2.0269;
200.1000;0.6496;2.0269;
200.4000;0.6520;2.0294;
200.7000;0.6512;2.0245;
201.0000;0.6520;2.0319;
201.3000;0.6479;2.0343;
201.6000;0.6553;2.0663;
201.9000;0.6528;2.0515;
202.2000;0.6512;2.0466;
202.5000;0.6504;2.0442;
202.8000;0.6496;2.0442;
203.1000;0.6504;2.0466;
203.4000;0.6512;2.0442;
203.7000;0.6463;2.0319;
204.0000;0.6520;2.0368;
204.3000;0.6512;2.0442;
204.6000;0.6504;2.0392;
204.9000;0.6553;2.0565;
205.2000;0.6496;2.0442;
205.5000;0.6512;2.0392;
205.8000;0.6504;2.0343;
206.1000;0.6504;2.0343;
206.4000;0.6504;2.0417;
206.7000;0.6512;2.0442;
207.0000;0.6536;2.0417;
207.3000;0.6463;2.0220;
207.6000;0.6512;2.0417;
207.9000;0.6528;2.0540;
208.2000;0.6512;2.0442;
208.5000;0.6561;2.0515;
208.8000;0.6488;2.0343;
209.1000;0.6536;2.0491;
209.4000;0.6520;2.0466;
209.7000;0.6504;2.0491;
210.0000;0.6504;2.0442;
210.3000;0.6528;2.0540;
210.6000;0.6536;2.0515;
210.9000;0.6504;2.0392;
211.2000;0.6520;2.0368;
211.5000;0.6504;2.0368;
211.8000;0.6520;2.0343;
212.1000;0.6520;2.0368;
212.4000;0.6545;2.0466;
212.7000;0.6504;2.0343;
213.0000;0.6536;2.0392;
213.3000;0.6504;2.0245;
213.6000;0.6512;2.0220;
213.9000;0.6512;2.0294;
214.2000;0.6496;2.0220;
214.5000;0.6512;2.0245;
214.8000;0.6496;2.0097;
215.1000;0.6488;2.0073;
215.4000;0.6471;1.9925;
215.7000;0.6512;2.0171;
216.0000;0.6585;2.0392;
216.3000;0.6479;2.0171;
216.6000;0.6496;2.0245;
216.9000;0.6536;2.0294;
217.2000;0.6569;2.0466;
217.5000;0.6593;2.0614;
217.8000;0.6520;2.0417;
218.1000;0.6504;2.0368;
218.4000;0.6520;2.0392;
218.7000;0.6520;2.0368;
219.0000;0.6496;2.0368;
219.3000;0.6488;2.0417;
219.6000;0.6536;2.0565;
219.9000;0.6496;2.0442;
220.2000;0.6471;2.0392;
220.5000;0.6520;2.0540;
220.8000;0.6496;2.0515;
221.1000;0.6496;2.0417;
221.4000;0.6504;2.0442;
221.7000;0.6479;2.0343;
222.0000;0.6504;2.0343;
222.3000;0.6488;2.0343;
222.6000;0.6496;2.0368;
222.9000;0.6488;2.0392;
223.2000;0.6496;2.0442;
223.5000;0.6520;2.0442;
223.8000;0.6512;2.0466;
224.1000;0.6512;2.0417;
224.4000;0.6488;2.0392;
224.7000;0.6463;2.0319;
225.0000;0.6488;2.0368;
225.3000;0.6496;2.0319;
225.6000;0.6496;2.0368;
225.9000;0.6504;2.0368;
226.2000;0.6536;2.0466;
226.5000;0.6496;2.0368;
226.8000;0.6528;2.0343;
227.1000;0.6512;2.0368;
227.4000;0.6496;2.0319;
227.7000;0.6488;2.0343;
228.0000;0.6512;2.0343;
228.3000;0.6463;2.0294;
228.6000;0.6512;2.0491;
228.9000;0.6463;2.0343;
229.2000;0.6488;2.0491;
229.5000;0.6504;2.0491;
229.8000;0.6528;2.0515;
230.1000;0.6504;2.0442;
230.4000;0.6471;2.0392;
230.7000;0.6504;2.0540;
231.0000;0.6528;2.0589;
231.3000;0.6479;2.0515;
231.6000;0.6488;2.0491;
231.9000;0.6488;2.0442;
232.2000;0.6488;2.0491;
232.5000;0.6512;2.0589;
232.8000;0.6447;2.0466;
233.1000;0.6496;2.0589;
233.4000;0.6471;2.0466;
233.7000;0.6528;2.0663;
234.0000;0.6496;2.0540;
234.3000;0.6479;2.0491;
234.6000;0.6488;2.0515;
234.9000;0.6496;2.0540;
235.2000;0.6488;2.0515;
235.5000;0.6496;2.0540;
235.8000;0.6488;2.0515;
236.1000;0.6496;2.0565;
236.4000;0.6504;2.0565;
236.7000;0.6512;2.0663;
237.0000;0.6520;2.0761;
237.3000;0.6496;2.0663;
237.6000;0.6471;2.0663;
237.9000;0.6488;2.0761;
238.2000;0.6496;2.0688;
238.5000;0.6512;2.0761;
238.8000;0.6496;2.0712;
239.1000;0.6512;2.0614;
239.4000;0.6569;2.0737;
239.7000;0.6512;2.0515;
240.0000;0.6512;2.0515;
240.3000;0.6504;2.0491;
240.6000;0.6471;2.0442;
240.9000;0.6488;2.0491;
241.2000;0.6561;2.0663;
241.5000;0.6479;2.0491;
241.8000;0.6488;2.0515;
242.1000;0.6488;2.0491;
242.4000;0.6488;2.0442;
242.7000;0.6504;2.0392;
243.0000;0.6488;2.0294;
243.3000;0.6471;2.0294;
243.6000;0.6504;2.0392;
243.9000;0.6512;2.0392;
244.2000;0.6512;2.0368;
244.5000;0.6479;2.0343;
244.8000;0.6488;2.0368;
245.1000;0.6504;2.0442;
245.4000;0.6496;2.0515;
245.7000;0.6488;2.0491;
246.0000;0.6471;2.0491;
246.3000;0.6504;2.0515;
246.6000;0.6463;2.0515;
246.9000;0.6496;2.0565;
247.2000;0.6479;2.0540;
247.5000;0.6488;2.0442;
247.8000;0.6496;2.0515;
248.1000;0.6463;2.0442;
248.4000;0.6471;2.0491;
248.7000;0.6504;2.0466;
249.0000;0.6422;2.0368;
249.3000;0.6496;2.0565;
249.6000;0.6488;2.0515;
249.9000;0.6488;2.0540;
250.2000;0.6496;2.0589;
250.5000;0.6496;2.0565;
250.8000;0.6479;2.0663;
251.1000;0.6488;2.0761;
251.4000;0.6528;2.0811;
251.7000;0.6496;2.0712;
252.0000;0.6471;2.0663;
252.3000;0.6488;2.0589;
252.6000;0.6488;2.0589;
252.9000;0.6479;2.0565;
253.2000;0.6488;2.0589;
253.5000;0.6471;2.0540;
253.8000;0.6471;2.0442;
254.1000;0.6496;2.0417;
254.4000;0.6488;2.0515;
254.7000;0.6488;2.0491;
255.0000;0.6488;2.0442;
255.3000;0.6512;2.0515;
255.6000;0.6512;2.0638;
255.9000;0.6488;2.0565;
256.2000;0.6488;2.0663;
256.5000;0.6504;2.0638;
256.8000;0.6520;2.0638;
257.1000;0.6471;2.0540;
257.4000;0.6488;2.0540;
257.7000;0.6512;2.0515;
258.0000;0.6545;2.0589;
258.3000;0.6463;2.0417;
258.6000;0.6479;2.0491;
258.9000;0.6496;2.0515;
259.2000;0.6471;2.0565;
259.5000;0.6479;2.0565;
259.8000;0.6496;2.0565;
260.1000;0.6496;2.0589;
260.4000;0.6504;2.0663;
260.7000;0.6479;2.0540;
261.0000;0.6471;2.0589;
261.3000;0.6479;2.0565;
261.6000;0.6479;2.0565;
261.9000;0.6479;2.0589;
262.2000;0.6479;2.0638;
262.5000;0.6479;2.0712;
262.8000;0.6488;2.0761;
263.1000;0.6496;2.0737;
263.4000;0.6479;2.0638;
263.7000;0.6504;2.0638;
264.0000;0.6496;2.0712;
264.3000;0.6488;2.0737;
264.6000;0.6479;2.0712;
264.9000;0.6471;2.0663;
265.2000;0.6479;2.0638;
265.5000;0.6496;2.0712;
265.8000;0.6488;2.0688;
266.1000;0.6479;2.0614;
266.4000;0.6463;2.0565;
266.7000;0.6463;2.0565;
267.0000;0.6479;2.0589;
267.3000;0.6488;2.0638;
267.6000;0.6479;2.0638;
267.9000;0.6479;2.0589;
268.2000;0.6479;2.0614;
268.5000;0.6463;2.0638;
268.8000;0.6479;2.0663;
269.1000;0.6496;2.0737;
269.4000;0.6479;2.0737;
269.7000;0.6488;2.0712;
270.0000;0.6479;2.0663;
270.3000;0.6488;2.0712;
270.6000;0.6479;2.0712;
270.9000;0.6479;2.0712;
271.2000;0.6479;2.0761;
271.5000;0.6471;2.0638;
271.8000;0.6471;2.0614;
272.1000;0.6463;2.0638;
272.4000;0.6471;2.0663;
272.7000;0.6439;2.0540;
273.0000;0.6479;2.0638;
273.3000;0.6504;2.0638;
273.6000;0.6471;2.0663;
273.9000;0.6471;2.0688;
274.2000;0.6455;2.0614;
274.5000;0.6528;2.0761;
274.8000;0.6488;2.0663;
275.1000;0.6479;2.0638;
275.4000;0.6463;2.0565;
275.7000;0.6488;2.0737;
276.0000;0.6479;2.0761;
276.3000;0.6471;2.0761;
276.6000;0.6463;2.0688;
276.9000;0.6463;2.0712;
277.2000;0.6431;2.0614;
277.5000;0.6471;2.0688;
277.8000;0.6488;2.0663;
278.1000;0.6488;2.0638;
278.4000;0.6479;2.0565;
278.7000;0.6488;2.0589;
279.0000;0.6479;2.0614;
279.3000;0.6504;2.0663;
279.6000;0.6479;2.0565;
279.9000;0.6496;2.0614;
280.2000;0.6496;2.0540;
280.5000;0.6488;2.0589;
280.8000;0.6439;2.0491;
281.1000;0.6447;2.0565;
281.4000;0.6479;2.0614;
281.7000;0.6439;2.0638;
282.0000;0.6447;2.0663;
282.3000;0.6488;2.0811;
282.6000;0.6463;2.0786;
282.9000;0.6471;2.0786;
283.2000;0.6471;2.0761;
283.5000;0.6479;2.0761;
283.8000;0.6479;2.0737;
284.1000;0.6496;2.0811;
284.4000;0.6488;2.0884;
284.7000;0.6471;2.0835;
285.0000;0.6463;2.0786;
285.3000;0.6455;2.0737;
285.6000;0.6471;2.0737;
285.9000;0.6471;2.0860;
286.2000;0.6496;2.0958;
286.5000;0.6471;2.0934;
286.8000;0.6471;2.0983;
287.1000;0.6479;2.0983;
287.4000;0.6471;2.0934;
287.7000;0.6463;2.0786;
288.0000;0.6447;2.0712;
288.3000;0.6455;2.0663;
288.6000;0.6463;2.0761;
288.9000;0.6545;2.0983;
289.2000;0.6463;2.0761;
289.5000;0.6455;2.0786;
289.8000;0.6496;2.0860;
290.1000;0.6520;2.0958;
290.4000;0.6471;2.0884;
290.7000;0.6463;2.0835;
291.0000;0.6479;2.0909;
291.3000;0.6471;2.0786;
291.6000;0.6447;2.0737;
291.9000;0.6488;2.0786;
292.2000;0.6471;2.0761;
292.5000;0.6496;2.0835;
292.8000;0.6471;2.0688;
293.1000;0.6463;2.0688;
293.4000;0.6463;2.0663;
293.7000;0.6471;2.0688;
294.0000;0.6463;2.0688;
294.3000;0.6488;2.0737;
294.6000;0.6504;2.0811;
294.9000;0.6471;2.0688;
295.2000;0.6496;2.0761;
295.5000;0.6439;2.0638;
295.8000;0.6463;2.0688;
296.1000;0.6479;2.0737;
296.4000;0.6488;2.0761;
296.7000;0.6463;2.0614;
297.0000;0.6471;2.0663;
297.3000;0.6463;2.0663;
297.6000;0.6463;2.0712;
297.9000;0.6471;2.0761;
298.2000;0.6463;2.0737;
298.5000;0.6512;2.0860;
298.8000;0.6471;2.0737;
299.1000;0.6471;2.0737;
299.4000;0.6471;2.0737;
299.7000;0.6431;2.0663;
300.0000;0.6479;2.0737;
300.3000;0.6479;2.0712;
300.6000;0.6471;2.0761;
300.9000;0.6488;2.0712;
301.2000;0.6471;2.0737;
301.5000;0.6463;2.0712;
301.8000;0.6463;2.0737;
302.1000;0.6455;2.0761;
302.4000;0.6471;2.0737;
302.7000;0.6406;2.0565;
303.0000;0.6471;2.0638;
303.3000;0.6455;2.0688;
303.6000;0.6447;2.0737;
303.9000;0.6479;2.0811;
304.2000;0.6422;2.0638;
304.5000;0.6455;2.0737;
304.8000;0.6471;2.0737;
305.1000;0.6455;2.0737;
305.4000;0.6439;2.0663;
305.7000;0.6463;2.0638;
306.0000;0.6471;2.0712;
306.3000;0.6463;2.0712;
306.6000;0.6455;2.0712;
306.9000;0.6463;2.0712;
307.2000;0.6455;2.0712;
307.5000;0.6496;2.0811;
307.8000;0.6455;2.0761;
308.1000;0.6463;2.0811;
308.4000;0.6512;2.0934;
308.7000;0.6447;2.0811;
309.0000;0.6479;2.0835;
309.3000;0.6463;2.0737;
309.6000;0.6414;2.0688;
309.9000;0.6471;2.0884;
310.2000;0.6471;2.0909;
310.5000;0.6447;2.0934;
310.8000;0.6463;2.0934;
311.1000;0.6471;2.0958;
311.4000;0.6455;2.0909;
311.7000;0.6463;2.0958;
312.0000;0.6431;2.0909;
312.3000;0.6479;2.1007;
312.6000;0.6439;2.0909;
312.9000;0.6463;2.0909;
313.2000;0.6463;2.0811;
313.5000;0.6463;2.0860;
313.8000;0.6463;2.0884;
314.1000;0.6471;2.0934;
314.4000;0.6447;2.0884;
314.7000;0.6439;2.0934;
315.0000;0.6463;2.0958;
315.3000;0.6463;2.1007;
315.6000;0.6439;2.1007;
315.9000;0.6471;2.1081;
316.2000;0.6455;2.1057;
316.5000;0.6463;2.1007;
316.8000;0.6463;2.1081;
317.1000;0.6447;2.1032;
317.4000;0.6447;2.1057;
317.7000;0.6488;2.1155;
318.0000;0.6455;2.0983;
318.3000;0.6447;2.1007;
318.6000;0.6447;2.0983;
318.9000;0.6463;2.0983;
319.2000;0.6447;2.1081;
319.5000;0.6455;2.1057;
319.8000;0.6439;2.1007;
320.1000;0.6439;2.0934;
320.4000;0.6471;2.1007;
320.7000;0.6455;2.0983;
321.0000;0.6463;2.0860;
321.3000;0.6455;2.0860;
321.6000;0.6471;2.0958;
321.9000;0.6463;2.0983;
322.2000;0.6447;2.0958;
322.5000;0.6422;2.0884;
322.8000;0.6455;2.0934;
323.1000;0.6455;2.1007;
323.4000;0.6439;2.0983;
323.7000;0.6439;2.1032;
324.0000;0.6447;2.0983;
324.3000;0.6479;2.1032;
324.6000;0.6439;2.0884;
324.9000;0.6431;2.0934;
325.2000;0.6447;2.1032;
325.5000;0.6422;2.1032;
325.8000;0.6455;2.1081;
326.1000;0.6463;2.1155;
326.4000;0.6463;2.1155;
326.7000;0.6439;2.1057;
327.0000;0.6455;2.1081;
327.3000;0.6455;2.1032;
327.6000;0.6374;2.0835;
327.9000;0.6463;2.1057;
328.2000;0.6455;2.0958;
328.5000;0.6431;2.0909;
328.8000;0.6463;2.0958;
329.1000;0.6447;2.0934;
329.4000;0.6455;2.0934;
329.7000;0.6439;2.0983;
330.0000;0.6496;2.1081;
330.3000;0.6463;2.1007;
330.6000;0.6455;2.1081;
330.9000;0.6488;2.1130;
331.2000;0.6439;2.1007;
331.5000;0.6439;2.1057;
331.8000;0.6455;2.1155;
332.1000;0.6455;2.1106;
332.4000;0.6455;2.1032;
332.7000;0.6455;2.1081;
333.0000;0.6447;2.0983;
333.3000;0.6455;2.1007;
333.6000;0.6439;2.1007;
333.9000;0.6447;2.0958;
334.2000;0.6447;2.1007;
334.5000;0.6496;2.1057;
334.8000;0.6447;2.0909;
335.1000;0.6439;2.0884;
335.4000;0.6463;2.0983;
335.7000;0.6447;2.0934;
336.0000;0.6455;2.0909;
336.3000;0.6447;2.0909;
336.6000;0.6447;2.0958;
336.9000;0.6431;2.0934;
337.2000;0.6488;2.1057;
337.5000;0.6439;2.0909;
337.8000;0.6455;2.1007;
338.1000;0.6439;2.1057;
338.4000;0.6447;2.1106;
338.7000;0.6447;2.1155;
339.0000;0.6447;2.1106;
339.3000;0.6455;2.1180;
339.6000;0.6447;2.1155;
339.9000;0.6455;2.1057;
340.2000;0.6431;2.0958;
340.5000;0.6447;2.1007;
340.8000;0.6471;2.1057;
341.1000;0.6463;2.1007;
341.4000;0.6463;2.0909;
341.7000;0.6439;2.0835;
342.0000;0.6455;2.0934;
342.3000;0.6455;2.0860;
342.6000;0.6463;2.0811;
342.9000;0.6463;2.0934;
343.2000;0.6447;2.0909;
343.5000;0.6463;2.0934;
343.8000;0.6439;2.0934;
344.1000;0.6439;2.0884;
344.4000;0.6439;2.0860;
344.7000;0.6455;2.0860;
345.0000;0.6431;2.0884;
345.3000;0.6439;2.0884;
345.6000;0.6471;2.0909;
345.9000;0.6447;2.0884;
346.2000;0.6479;2.1032;
346.5000;0.6463;2.1007;
346.8000;0.6455;2.0983;
347.1000;0.6439;2.1007;
347.4000;0.6455;2.1007;
347.7000;0.6439;2.0934;
348.0000;0.6479;2.0934;
348.3000;0.6414;2.0835;
348.6000;0.6439;2.1032;
348.9000;0.6447;2.1032;
349.2000;0.6447;2.1032;
349.5000;0.6463;2.1081;
349.8000;0.6414;2.0860;
350.1000;0.6431;2.0835;
350.4000;0.6398;2.0835;
350.7000;0.6422;2.0835;
351.0000;0.6431;2.0884;
351.3000;0.6447;2.0884;
351.6000;0.6431;2.0835;
351.9000;0.6447;2.0909;
352.2000;0.6439;2.0884;
352.5000;0.6463;2.1007;
352.8000;0.6447;2.0934;
353.1000;0.6455;2.0983;
353.4000;0.6463;2.0983;
353.7000;0.6439;2.0958;
354.0000;0.6447;2.0983;
354.3000;0.6447;2.0958;
354.6000;0.6447;2.0909;
354.9000;0.6439;2.0958;
355.2000;0.6414;2.0884;
355.5000;0.6439;2.0934;
355.8000;0.6447;2.1106;
356.1000;0.6455;2.1155;
356.4000;0.6406;2.1032;
356.7000;0.6455;2.1180;
357.0000;0.6447;2.1130;
357.3000;0.6447;2.1130;
357.6000;0.6422;2.1057;
357.9000;0.6439;2.1130;
358.2000;0.6455;2.1130;
358.5000;0.6455;2.1130;
358.8000;0.6447;2.1057;
359.1000;0.6431;2.1032;
359.4000;0.6431;2.1130;
359.7000;0.6422;2.1155;
360.0000;0.6447;2.1106;
360.3000;0.6439;2.1007;
360.6000;0.6431;2.1032;
360.9000;0.6439;2.0958;
361.2000;0.6439;2.0835;
361.5000;0.6439;2.0786;
361.8000;0.6455;2.0811;
362.1000;0.6431;2.0811;
362.4000;0.6414;2.0761;
362.7000;0.6439;2.0811;
363.0000;0.6431;2.0835;
363.3000;0.6455;2.0934;
363.6000;0.6439;2.0958;
363.9000;0.6439;2.0983;
364.2000;0.6439;2.1007;
364.5000;0.6447;2.1007;
364.8000;0.6439;2.0958;
365.1000;0.6455;2.0958;
365.4000;0.6439;2.1081;
365.7000;0.6439;2.1081;
366.0000;0.6439;2.1081;
366.3000;0.6471;2.1204;
366.6000;0.6447;2.1081;
366.9000;0.6431;2.0909;
367.2000;0.6398;2.0786;
367.5000;0.6479;2.0958;
367.8000;0.6455;2.0860;
368.1000;0.6439;2.0835;
368.4000;0.6447;2.0909;
368.7000;0.6439;2.0934;
369.0000;0.6447;2.0934;
369.3000;0.6439;2.0835;
369.6000;0.6431;2.0835;
369.9000;0.6447;2.0909;
370.2000;0.6447;2.0934;
370.5000;0.6439;2.0958;
370.8000;0.6439;2.0909;
371.1000;0.6447;2.0884;
371.4000;0.6439;2.0884;
371.7000;0.6471;2.0983;
372.0000;0.6447;2.0884;
372.3000;0.6431;2.0786;
372.6000;0.6479;2.0958;
372.9000;0.6455;2.0934;
373.2000;0.6447;2.0835;
373.5000;0.6382;2.0663;
373.8000;0.6447;2.0811;
374.1000;0.6439;2.0835;
374.4000;0.6422;2.0737;
374.7000;0.6431;2.0688;
375.0000;0.6422;2.0663;
375.3000;0.6422;2.0712;
375.6000;0.6431;2.0737;
375.9000;0.6422;2.0688;
376.2000;0.6455;2.0835;
376.5000;0.6422;2.0712;
376.8000;0.6422;2.0663;
377.1000;0.6471;2.0811;
377.4000;0.6455;2.0811;
377.7000;0.6439;2.0712;
378.0000;0.6422;2.0737;
378.3000;0.6431;2.0712;
378.6000;0.6414;2.0712;
378.9000;0.6431;2.0712;
379.2000;0.6422;2.0712;
379.5000;0.6463;2.0811;
379.8000;0.6422;2.0737;
380.1000;0.6431;2.0811;
380.4000;0.6406;2.0761;
380.7000;0.6431;2.0811;
381.0000;0.6422;2.0786;
381.3000;0.6431;2.0761;
381.6000;0.6374;2.0663;
381.9000;0.6431;2.0761;
382.2000;0.6439;2.0811;
382.5000;0.6447;2.0884;
382.8000;0.6431;2.0934;
383.1000;0.6422;2.1007;
383.4000;0.6422;2.1007;
383.7000;0.6422;2.1032;
384.0000;0.6431;2.1081;
384.3000;0.6431;2.1081;
384.6000;0.6455;2.1032;
384.9000;0.6431;2.0884;
385.2000;0.6447;2.0934;
385.5000;0.6431;2.0909;
385.8000;0.6431;2.0958;
386.1000;0.6431;2.0983;
386.4000;0.6431;2.0983;
386.7000;0.6455;2.1081;
387.0000;0.6447;2.0909;
387.3000;0.6431;2.0909;
387.6000;0.6431;2.0884;
387.9000;0.6374;2.0663;
388.2000;0.6422;2.0761;
388.5000;0.6463;2.0934;
388.8000;0.6504;2.0958;
389.1000;0.6414;2.0761;
389.4000;0.6431;2.0811;
389.7000;0.6471;2.0934;
390.0000;0.6422;2.0884;
390.3000;0.6414;2.0884;
390.6000;0.6431;2.0983;
390.9000;0.6447;2.0884;
391.2000;0.6447;2.0909;
391.5000;0.6431;2.0909;
391.8000;0.6439;2.0909;
392.1000;0.6422;2.0860;
392.4000;0.6406;2.0786;
392.7000;0.6422;2.0811;
393.0000;0.6431;2.0786;
393.3000;0.6447;2.0860;
393.6000;0.6439;2.0884;
393.9000;0.6431;2.0860;
394.2000;0.6414;2.0712;
394.5000;0.6439;2.0811;
394.8000;0.6422;2.0860;
395.1000;0.6439;2.0884;
395.4000;0.6431;2.0884;
395.7000;0.6406;2.0884;
396.0000;0.6439;2.0983;
396.3000;0.6414;2.0934;
396.6000;0.6357;2.0835;
396.9000;0.6398;2.0909;
397.2000;0.6422;2.0909;
397.5000;0.6406;2.0835;
397.8000;0.6414;2.0909;
398.1000;0.6431;2.0958;
398.4000;0.6439;2.1057;
398.7000;0.6422;2.0983;
399.0000;0.6382;2.0835;
399.3000;0.6455;2.0983;
399.6000;0.6414;2.0934;
399.9000;0.6422;2.0884;
400.2000;0.6422;2.0835;
400.5000;0.6406;2.0737;
400.8000;0.6422;2.0761;
401.1000;0.6431;2.0712;
401.4000;0.6422;2.0663;
401.7000;0.6414;2.0688;
402.0000;0.6422;2.0811;
402.3000;0.6431;2.0786;
402.6000;0.6422;2.0761;
402.9000;0.6431;2.0761;
403.2000;0.6455;2.0860;
403.5000;0.6455;2.0909;
403.8000;0.6431;2.0835;
404.1000;0.6431;2.0835;
404.4000;0.6447;2.0860;
404.7000;0.6439;2.0835;
405.0000;0.6422;2.0761;
405.3000;0.6422;2.0811;
405.6000;0.6422;2.0909;
405.9000;0.6439;2.0835;
406.2000;0.6439;2.0712;
406.5000;0.6431;2.0761;
406.8000;0.6422;2.0737;
407.1000;0.6431;2.0835;
407.4000;0.6422;2.0884;
407.7000;0.6431;2.0884;
408.0000;0.6414;2.0786;
408.3000;0.6414;2.0761;
408.6000;0.6431;2.0712;
408.9000;0.6431;2.0884;
409.2000;0.6414;2.0835;
409.5000;0.6439;2.0761;
409.8000;0.6414;2.0737;
410.1000;0.6422;2.0811;
410.4000;0.6406;2.0761;
410.7000;0.6422;2.0811;
411.0000;0.6439;2.0860;
411.3000;0.6431;2.0860;
411.6000;0.6455;2.1057;
411.9000;0.6414;2.0737;
412.2000;0.6439;2.0811;
412.5000;0.6455;2.0983;
412.8000;0.6422;2.0884;
413.1000;0.6431;2.0909;
413.4000;0.6422;2.0884;
413.7000;0.6447;2.0909;
414.0000;0.6431;2.0909;
414.3000;0.6422;2.0958;
414.6000;0.6390;2.0860;
414.9000;0.6390;2.0884;
415.2000;0.6422;2.1007;
415.5000;0.6447;2.1032;
415.8000;0.6414;2.0835;
416.1000;0.6422;2.0934;
416.4000;0.6414;2.0884;
416.7000;0.6414;2.0860;
417.0000;0.6422;2.0958;
417.3000;0.6431;2.1057;
417.6000;0.6422;2.1007;
417.9000;0.6406;2.0958;
418.2000;0.6382;2.0786;
418.5000;0.6439;2.0909;
418.8000;0.6455;2.0958;
419.1000;0.6414;2.0934;
419.4000;0.6406;2.0958;
419.7000;0.6422;2.0958;
420.0000;0.6431;2.0835;
420.3000;0.6422;2.0737;
420.6000;0.6422;2.0811;
420.9000;0.6422;2.0811;
421.2000;0.6406;2.0835;
421.5000;0.6398;2.0909;
421.8000;0.6406;2.0786;
422.1000;0.6414;2.0761;
422.4000;0.6422;2.0835;
422.7000;0.6414;2.0761;
423.0000;0.6414;2.0737;
423.3000;0.6431;2.0786;
423.6000;0.6431;2.0811;
423.9000;0.6414;2.0761;
424.2000;0.6406;2.0811;
424.5000;0.6431;2.0860;
424.8000;0.6414;2.0786;
425.1000;0.6414;2.0786;
425.4000;0.6463;2.0934;
425.7000;0.6422;2.0958;
426.0000;0.6406;2.0909;
426.3000;0.6414;2.0884;
426.6000;0.6431;2.0958;
426.9000;0.6398;2.0860;
427.2000;0.6414;2.0934;
427.5000;0.6422;2.0983;
427.8000;0.6431;2.0958;
428.1000;0.6431;2.0934;
428.4000;0.6422;2.0934;
428.7000;0.6414;2.0983;
429.0000;0.6439;2.1081;
429.3000;0.6422;2.1032;
429.6000;0.6431;2.0983;
429.9000;0.6431;2.0884;
430.2000;0.6439;2.0934;
430.5000;0.6431;2.0860;
430.8000;0.6406;2.0786;
431.1000;0.6414;2.0688;
431.4000;0.6414;2.0712;
431.7000;0.6406;2.0663;
432.0000;0.6422;2.0663;
432.3000;0.6390;2.0565;
432.6000;0.6382;2.0540;
432.9000;0.6422;2.0638;
433.2000;0.6406;2.0638;
433.5000;0.6422;2.0712;
433.8000;0.6439;2.0811;
434.1000;0.6422;2.0835;
434.4000;0.6414;2.0884;
434.7000;0.6406;2.0934;
435.0000;0.6422;2.0909;
435.3000;0.6422;2.0860;
435.6000;0.6406;2.0884;
435.9000;0.6422;2.0860;
436.2000;0.6382;2.0712;
436.5000;0.6406;2.0811;
436.8000;0.6398;2.0835;
437.1000;0.6398;2.0835;
437.4000;0.6422;2.0884;
437.7000;0.6406;2.0860;
438.0000;0.6406;2.0884;
438.3000;0.6422;2.0884;
438.6000;0.6422;2.0835;
438.9000;0.6422;2.0786;
439.2000;0.6431;2.0835;
439.5000;0.6414;2.0737;
439.8000;0.6422;2.0737;
440.1000;0.6414;2.0761;
440.4000;0.6414;2.0786;
440.7000;0.6431;2.0786;
441.0000;0.6406;2.0638;
441.3000;0.6463;2.0761;
441.6000;0.6463;2.0860;
441.9000;0.6414;2.0811;
442.2000;0.6414;2.0860;
442.5000;0.6398;2.0860;
442.8000;0.6431;2.0835;
443.1000;0.6422;2.0835;
443.4000;0.6422;2.0786;
443.7000;0.6422;2.0761;
444.0000;0.6422;2.0737;
444.3000;0.6422;2.0712;
444.6000;0.6512;2.0934;
444.9000;0.6406;2.0614;
445.2000;0.6422;2.0638;
445.5000;0.6398;2.0663;
445.8000;0.6406;2.0663;
446.1000;0.6406;2.0688;
446.4000;0.6365;2.0565;
446.7000;0.6406;2.0589;
447.0000;0.6406;2.0614;
447.3000;0.6406;2.0638;
447.6000;0.6374;2.0515;
447.9000;0.6398;2.0589;
448.2000;0.6406;2.0589;
448.5000;0.6422;2.0638;
448.8000;0.6414;2.0565;
449.1000;0.6406;2.0565;
449.4000;0.6422;2.0614;
449.7000;0.6414;2.0712;
450.0000;0.6414;2.0688;
450.3000;0.6406;2.0688;
450.6000;0.6447;2.0811;
450.9000;0.6414;2.0761;
451.2000;0.6414;2.0614;
451.5000;0.6398;2.0565;
451.8000;0.6414;2.0614;
452.1000;0.6414;2.0663;
452.4000;0.6333;2.0442;
452.7000;0.6414;2.0638;
453.0000;0.6406;2.0688;
453.3000;0.6374;2.0614;
453.6000;0.6406;2.0688;
453.9000;0.6406;2.0737;
454.2000;0.6406;2.0811;
454.5000;0.6406;2.0884;
454.8000;0.6398;2.0835;
455.1000;0.6406;2.0811;
455.4000;0.6414;2.0712;
455.7000;0.6406;2.0761;
456.0000;0.6406;2.0786;
456.3000;0.6406;2.0811;
456.6000;0.6390;2.0884;
456.9000;0.6398;2.0860;
457.2000;0.6390;2.0884;
457.5000;0.6398;2.0909;
457.8000;0.6365;2.0835;
458.1000;0.6406;2.0860;
458.4000;0.6406;2.0860;
458.7000;0.6439;2.0835;
459.0000;0.6406;2.0712;
459.3000;0.6398;2.0737;
459.6000;0.6422;2.0761;
459.9000;0.6414;2.0712;
460.2000;0.6455;2.0761;
460.5000;0.6414;2.0614;
460.8000;0.6422;2.0638;
461.1000;0.6414;2.0712;
461.4000;0.6390;2.0688;
461.7000;0.6414;2.0761;
462.0000;0.6398;2.0786;
462.3000;0.6414;2.0934;
462.6000;0.6406;2.0983;
462.9000;0.6398;2.0983;
463.2000;0.6406;2.1032;
463.5000;0.6382;2.0958;
463.8000;0.6414;2.0983;
464.1000;0.6406;2.0958;
464.4000;0.6455;2.1057;
464.7000;0.6471;2.1155;
465.0000;0.6341;2.0712;
465.3000;0.6422;2.0811;
465.6000;0.6382;2.0786;
465.9000;0.6398;2.0712;
466.2000;0.6406;2.0688;
466.5000;0.6447;2.0786;
466.8000;0.6414;2.0811;
467.1000;0.6398;2.0811;
467.4000;0.6374;2.0786;
467.7000;0.6374;2.0688;
468.0000;0.6471;2.0934;
468.3000;0.6382;2.0638;
468.6000;0.6463;2.0835;
468.9000;0.6398;2.0737;
469.2000;0.6390;2.0786;
469.5000;0.6406;2.0786;
469.8000;0.6406;2.0860;
470.1000;0.6325;2.0663;
470.4000;0.6439;2.0884;
470.7000;0.6398;2.0909;
471.0000;0.6349;2.0786;
471.3000;0.6406;2.0934;
471.6000;0.6398;2.0909;
471.9000;0.6390;2.0958;
472.2000;0.6390;2.0934;
472.5000;0.6414;2.0934;
472.8000;0.6398;2.0860;
473.1000;0.6390;2.0835;
473.4000;0.6406;2.0835;
473.7000;0.6398;2.0761;
474.0000;0.6414;2.0835;
474.3000;0.6406;2.0884;
474.6000;0.6398;2.0860;
474.9000;0.6414;2.0860;
475.2000;0.6406;2.0860;
475.5000;0.6390;2.0835;
475.8000;0.6414;2.0958;
476.1000;0.6398;2.0884;
476.4000;0.6365;2.0786;
476.7000;0.6357;2.0860;
477.0000;0.6398;2.0909;
477.3000;0.6406;2.0761;
477.6000;0.6414;2.0860;
477.9000;0.6398;2.0811;
478.2000;0.6414;2.0786;
478.5000;0.6414;2.0835;
478.8000;0.6414;2.0884;
479.1000;0.6406;2.0860;
479.4000;0.6398;2.0835;
479.7000;0.6422;2.0835;
480.0000;0.6422;2.0860;
480.3000;0.6414;2.0860;
480.6000;0.6422;2.0860;
480.9000;0.6398;2.0835;
481.2000;0.6406;2.0884;
481.5000;0.6463;2.1032;
481.8000;0.6309;2.0663;
482.1000;0.6390;2.0786;
482.4000;0.6398;2.0811;
482.7000;0.6357;2.0737;
483.0000;0.6390;2.0909;
483.3000;0.6382;2.0934;
483.6000;0.6406;2.0860;
483.9000;0.6365;2.0786;
484.2000;0.6414;2.0934;
484.5000;0.6398;2.0909;
484.8000;0.6414;2.0958;
485.1000;0.6422;2.1007;
485.4000;0.6422;2.0909;
485.7000;0.6398;2.0909;
486.0000;0.6398;2.0958;
486.3000;0.6422;2.1032;
486.6000;0.6406;2.1057;
486.9000;0.6390;2.0983;
487.2000;0.6382;2.0934;
487.5000;0.6422;2.1032;
487.8000;0.6422;2.1081;
488.1000;0.6406;2.0958;
488.4000;0.6439;2.1007;
488.7000;0.6422;2.1032;
489.0000;0.6406;2.1032;
489.3000;0.6414;2.1081;
489.6000;0.6398;2.1032;
489.9000;0.6398;2.1081;
490.2000;0.6390;2.0983;
490.5000;0.6382;2.0958;
490.8000;0.6390;2.0958;
491.1000;0.6357;2.0934;
491.4000;0.6390;2.1007;
491.7000;0.6431;2.1032;
492.0000;0.6398;2.0934;
492.3000;0.6447;2.1032;
492.6000;0.6398;2.0958;
492.9000;0.6390;2.0983;
493.2000;0.6406;2.1057;
493.5000;0.6398;2.1081;
493.8000;0.6398;2.1032;
494.1000;0.6398;2.1057;
494.4000;0.6382;2.0958;
494.7000;0.6406;2.0983;
495.0000;0.6398;2.0958;
495.3000;0.6390;2.0934;
495.6000;0.6382;2.0983;
495.9000;0.6390;2.0909;
496.2000;0.6398;2.0983;
496.5000;0.6390;2.1057;
496.8000;0.6406;2.1032;
497.1000;0.6406;2.1032;
497.4000;0.6390;2.0958;
497.7000;0.6398;2.0983;
498.0000;0.6390;2.0958;
498.3000;0.6406;2.1032;
498.6000;0.6398;2.1106;
498.9000;0.6414;2.1204;
499.2000;0.6398;2.1229;
499.5000;0.6374;2.1106;
499.8000;0.6390;2.1032;
500.1000;0.6398;2.1057;
500.4000;0.6406;2.1032;
500.7000;0.6398;2.0958;
501.0000;0.6390;2.0983;
501.3000;0.6406;2.0983;
501.6000;0.6414;2.1032;
501.9000;0.6422;2.1057;
502.2000;0.6390;2.0934;
502.5000;0.6406;2.0934;
502.8000;0.6398;2.0934;
503.1000;0.6390;2.0909;
503.4000;0.6382;2.0909;
503.7000;0.6455;2.0958;
504.0000;0.6398;2.0884;
504.3000;0.6374;2.0909;
504.6000;0.6414;2.0983;
504.9000;0.6398;2.0983;
505.2000;0.6398;2.0983;
505.5000;0.6382;2.0934;
505.8000;0.6406;2.0958;
506.1000;0.6398;2.0958;
506.4000;0.6398;2.0934;
506.7000;0.6406;2.0983;
507.0000;0.6398;2.1007;
507.3000;0.6390;2.0983;
507.6000;0.6390;2.0958;
507.9000;0.6382;2.1081;
508.2000;0.6398;2.1180;
508.5000;0.6398;2.1180;
508.8000;0.6382;2.1106;
509.1000;0.6398;2.1130;
509.4000;0.6398;2.1057;
509.7000;0.6398;2.1032;
510.0000;0.6390;2.0958;
510.3000;0.6374;2.0909;
510.6000;0.6406;2.1155;
510.9000;0.6406;2.1180;
511.2000;0.6390;2.1155;
511.5000;0.6431;2.1180;
511.8000;0.6398;2.1081;
512.1000;0.6390;2.1106;
512.4000;0.6406;2.1155;
512.7000;0.6365;2.1106;
513.0000;0.6390;2.1106;
513.3000;0.6382;2.1106;
513.6000;0.6382;2.1081;
513.9000;0.6374;2.1057;
514.2000;0.6398;2.1081;
514.5000;0.6349;2.0958;
514.8000;0.6382;2.1057;
515.1000;0.6382;2.1057;
515.4000;0.6390;2.0983;
515.7000;0.6382;2.1007;
516.0000;0.6422;2.1180;
516.3000;0.6390;2.1130;
516.6000;0.6374;2.1106;
516.9000;0.6390;2.1155;
517.2000;0.6390;2.1180;
517.5000;0.6382;2.1155;
517.8000;0.6374;2.1106;
518.1000;0.6390;2.1032;
518.4000;0.6406;2.1081;
518.7000;0.6382;2.1057;
519.0000;0.6390;2.1032;
519.3000;0.6390;2.1057;
519.6000;0.6471;2.1253;
519.9000;0.6398;2.1032;
520.2000;0.6398;2.1007;
520.5000;0.6390;2.1007;
520.8000;0.6390;2.1081;
521.1000;0.6382;2.1081;
521.4000;0.6382;2.1081;
521.7000;0.6406;2.1081;
522.0000;0.6406;2.1081;
522.3000;0.6398;2.1057;
522.6000;0.6398;2.1007;
522.9000;0.6382;2.1032;
523.2000;0.6447;2.1352;
523.5000;0.6390;2.1081;
523.8000;0.6374;2.1032;
524.1000;0.6382;2.0860;
524.4000;0.6398;2.0934;
524.7000;0.6414;2.1007;
525.0000;0.6382;2.0983;
525.3000;0.6390;2.0835;
525.6000;0.6390;2.0884;
525.9000;0.6422;2.0934;
526.2000;0.6382;2.0860;
526.5000;0.6390;2.0909;
526.8000;0.6390;2.1007;
527.1000;0.6422;2.1155;
527.4000;0.6398;2.1057;
527.7000;0.6455;2.1180;
528.0000;0.6390;2.1057;
528.3000;0.6382;2.0958;
528.6000;0.6390;2.0983;
528.9000;0.6390;2.0934;
529.2000;0.6374;2.0884;
529.5000;0.6398;2.0983;
529.8000;0.6382;2.0934;
530.1000;0.6382;2.0958;
530.4000;0.6382;2.0983;
530.7000;0.6374;2.0909;
531.0000;0.6398;2.1007;
531.3000;0.6398;2.0983;
531.6000;0.6398;2.1007;
531.9000;0.6390;2.0958;
532.2000;0.6398;2.0983;
532.5000;0.6398;2.0958;
532.8000;0.6390;2.0909;
533.1000;0.6390;2.0811;
533.4000;0.6325;2.0761;
533.7000;0.6398;2.0909;
534.0000;0.6365;2.0786;
534.3000;0.6374;2.0884;
534.6000;0.6382;2.0958;
534.9000;0.6406;2.1032;
535.2000;0.6390;2.1155;
535.5000;0.6382;2.1081;
535.8000;0.6382;2.1130;
536.1000;0.6398;2.1204;
536.4000;0.6398;2.1229;
536.7000;0.6382;2.1229;
537.0000;0.6374;2.1106;
537.3000;0.6349;2.1007;
537.6000;0.6390;2.1081;
537.9000;0.6382;2.1032;
538.2000;0.6382;2.0983;
538.5000;0.6382;2.0934;
538.8000;0.6382;2.0958;
539.1000;0.6382;2.0934;
539.4000;0.6365;2.0909;
539.7000;0.6374;2.0909;
540.0000;0.6382;2.0934;
540.3000;0.6365;2.0884;
540.6000;0.6349;2.0811;
540.9000;0.6374;2.0835;
541.2000;0.6382;2.0884;
541.5000;0.6390;2.0860;
541.8000;0.6382;2.0835;
542.1000;0.6390;2.0835;
542.4000;0.6398;2.0860;
542.7000;0.6398;2.0884;
543.0000;0.6390;2.0835;
543.3000;0.6390;2.0884;
543.6000;0.6365;2.0909;
543.9000;0.6390;2.0983;
544.2000;0.6382;2.0958;
544.5000;0.6374;2.1057;
544.8000;0.6374;2.1007;
545.1000;0.6374;2.0958;
545.4000;0.6390;2.0934;
545.7000;0.6365;2.0835;
546.0000;0.6398;2.0860;
546.3000;0.6374;2.0909;
546.6000;0.6390;2.0909;
546.9000;0.6382;2.0909;
547.2000;0.6382;2.0958;
547.5000;0.6390;2.1057;
547.8000;0.6398;2.0983;
548.1000;0.6365;2.0958;
548.4000;0.6341;2.0835;
548.7000;0.6374;2.0860;
549.0000;0.6390;2.0860;
549.3000;0.6398;2.0860;
549.6000;0.6365;2.0835;
549.9000;0.6414;2.0934;
550.2000;0.6382;2.0909;
550.5000;0.6390;2.1007;
550.8000;0.6374;2.0983;
551.1000;0.6406;2.1057;
551.4000;0.6390;2.1106;
551.7000;0.6390;2.0983;
552.0000;0.6390;2.0835;
552.3000;0.6414;2.0909;
552.6000;0.6398;2.0786;
552.9000;0.6357;2.0663;
553.2000;0.6390;2.0737;
553.5000;0.6398;2.0737;
553.8000;0.6341;2.0688;
554.1000;0.6406;2.0934;
554.4000;0.6382;2.0835;
554.7000;0.6382;2.0884;
555.0000;0.6382;2.0909;
555.3000;0.6317;2.0712;
555.6000;0.6374;2.0884;
555.9000;0.6374;2.0811;
556.2000;0.6406;2.0884;
556.5000;0.6382;2.0884;
556.8000;0.6365;2.0786;
557.1000;0.6390;2.0811;
557.4000;0.6398;2.0884;
557.7000;0.6390;2.0909;
558.0000;0.6374;2.0909;
558.3000;0.6317;2.0737;
558.6000;0.6357;2.0860;
558.9000;0.6382;2.0884;
559.2000;0.6382;2.0884;
559.5000;0.6390;2.0958;
559.8000;0.6333;2.0786;
560.1000;0.6374;2.0884;
560.4000;0.6390;2.0934;
560.7000;0.6439;2.1180;
561.0000;0.6374;2.0958;
561.3000;0.6357;2.0958;
561.6000;0.6382;2.1057;
561.9000;0.6390;2.1081;
562.2000;0.6333;2.0909;
562.5000;0.6365;2.1057;
562.8000;0.6463;2.1376;
563.1000;0.6406;2.1204;
563.4000;0.6398;2.1155;
563.7000;0.6374;2.1057;
564.0000;0.6374;2.0958;
564.3000;0.6382;2.0983;
564.6000;0.6349;2.0983;
564.9000;0.6365;2.1032;
565.2000;0.6365;2.1081;
565.5000;0.6365;2.1106;
565.8000;0.6374;2.1106;
566.1000;0.6365;2.1106;
566.4000;0.6390;2.1130;
566.7000;0.6390;2.1081;
567.0000;0.6398;2.1032;
567.3000;0.6382;2.0983;
567.6000;0.6374;2.0884;
567.9000;0.6390;2.0958;
568.2000;0.6382;2.0983;
568.5000;0.6382;2.1007;
568.8000;0.6374;2.0958;
569.1000;0.6357;2.0860;
569.4000;0.6382;2.0835;
569.7000;0.6349;2.0835;
570.0000;0.6349;2.0909;
570.3000;0.6406;2.0983;
570.6000;0.6365;2.0909;
570.9000;0.6382;2.0934;
571.2000;0.6357;2.0835;
571.5000;0.6357;2.0860;
571.8000;0.6374;2.0860;
572.1000;0.6382;2.0958;
572.4000;0.6365;2.0934;
572.7000;0.6349;2.0786;
573.0000;0.6382;2.0860;
573.3000;0.6382;2.0835;
573.6000;0.6382;2.0786;
573.9000;0.6374;2.0860;
574.2000;0.6374;2.0761;
574.5000;0.6365;2.0835;
574.8000;0.6309;2.0761;
575.1000;0.6365;2.0884;
575.4000;0.6374;2.0909;
575.7000;0.6260;2.0491;
576.0000;0.6374;2.0761;
576.3000;0.6390;2.0786;
576.6000;0.6398;2.0909;
576.9000;0.6471;2.1057;
577.2000;0.6349;2.0786;
577.5000;0.6414;2.1032;
577.8000;0.6341;2.0860;
578.1000;0.6349;2.0884;
578.4000;0.6374;2.1007;
578.7000;0.6414;2.1130;
579.0000;0.6365;2.1007;
579.3000;0.6333;2.0958;
579.6000;0.6406;2.1081;
579.9000;0.6365;2.0983;
580.2000;0.6341;2.0958;
580.5000;0.6365;2.1007;
580.8000;0.6333;2.0958;
581.1000;0.6374;2.1032;
581.4000;0.6357;2.1032;
581.7000;0.6382;2.1007;
582.0000;0.6365;2.0958;
582.3000;0.6333;2.0860;
582.6000;0.6365;2.0958;
582.9000;0.6374;2.0860;
583.2000;0.6374;2.0909;
583.5000;0.6382;2.0884;
583.8000;0.6341;2.0786;
584.1000;0.6365;2.0761;
584.4000;0.6414;2.0835;
584.7000;0.6357;2.0737;
585.0000;0.6309;2.0688;
585.3000;0.6374;2.0860;
585.6000;0.6414;2.0958;
585.9000;0.6382;2.0884;
586.2000;0.6398;2.0934;
586.5000;0.6349;2.0884;
586.8000;0.6357;2.0958;
587.1000;0.6390;2.1057;
587.4000;0.6382;2.1032;
587.7000;0.6382;2.1057;
588.0000;0.6374;2.1032;
588.3000;0.6390;2.1057;
588.6000;0.6382;2.1081;
588.9000;0.6382;2.1081;
589.2000;0.6382;2.1130;
589.5000;0.6365;2.1106;
589.8000;0.6382;2.1180;
590.1000;0.6341;2.1057;
590.4000;0.6390;2.1081;
590.7000;0.6357;2.1007;
591.0000;0.6365;2.1032;
591.3000;0.6365;2.0983;
591.6000;0.6390;2.0983;
591.9000;0.6390;2.1007;
592.2000;0.6390;2.1081;
592.5000;0.6390;2.1081;
592.8000;0.6382;2.1057;
593.1000;0.6365;2.1032;
593.4000;0.6382;2.1057;
593.7000;0.6382;2.1032;
594.0000;0.6374;2.1032;
594.3000;0.6374;2.0983;
594.6000;0.6357;2.0909;
594.9000;0.6382;2.0983;
595.2000;0.6382;2.1007;
595.5000;0.6349;2.0983;
595.8000;0.6374;2.0983;
596.1000;0.6374;2.0884;
596.4000;0.6349;2.0860;
596.7000;0.6333;2.0860;
597.0000;0.6374;2.0958;
597.3000;0.6365;2.1007;
597.6000;0.6390;2.1032;
597.9000;0.6357;2.0909;
598.2000;0.6398;2.1057;
598.5000;0.6374;2.1007;
598.8000;0.6382;2.1032;
599.1000;0.6374;2.1007;
599.4000;0.6374;2.1007;
599.7000;0.6341;2.0958;
600.0000;0.6357;2.1081;
600.3000;0.6357;2.1032;
600.6000;0.6325;2.0811;
600.9000;0.6243;2.0663;
601.2000;0.6154;2.0491;
601.5000;0.6105;2.0442;
601.8000;0.5991;2.0122;
602.1000;0.5893;1.9925;
602.4000;0.5812;1.9851;
602.7000;0.5682;1.9532;
603.0000;0.5641;1.9482;
603.3000;0.5608;1.9458;
603.6000;0.5527;1.9409;
603.9000;0.5478;1.9335;
604.2000;0.5413;1.9212;
604.5000;0.5364;1.9212;
604.8000;0.5291;1.9212;
605.1000;0.5267;1.9138;
605.4000;0.5234;1.9113;
605.7000;0.5177;1.8917;
606.0000;0.5169;1.8867;
606.3000;0.5096;1.8769;
606.6000;0.5088;1.8720;
606.9000;0.5063;1.8720;
607.2000;0.5031;1.8621;
607.5000;0.4998;1.8523;
607.8000;0.4965;1.8498;
608.1000;0.4965;1.8498;
608.4000;0.4925;1.8400;
608.7000;0.4917;1.8375;
609.0000;0.4884;1.8302;
609.3000;0.4884;1.8302;
609.6000;0.4843;1.8302;
609.9000;0.4827;1.8228;
610.2000;0.4811;1.8252;
610.5000;0.4794;1.8252;
610.8000;0.4762;1.8277;
611.1000;0.4754;1.8302;
611.4000;0.4746;1.8277;
611.7000;0.4746;1.8203;
612.0000;0.4713;1.8154;
612.3000;0.4697;1.8105;
612.6000;0.4721;1.8179;
612.9000;0.4689;1.8129;
613.2000;0.4664;1.8080;
613.5000;0.4689;1.8129;
613.8000;0.4664;1.8105;
614.1000;0.4648;1.8031;
614.4000;0.4624;1.8031;
614.7000;0.4632;1.8006;
615.0000;0.4607;1.8006;
615.3000;0.4607;1.8056;
615.6000;0.4591;1.8031;
615.9000;0.4591;1.7982;
616.2000;0.4583;1.7957;
616.5000;0.4575;1.8006;
616.8000;0.4567;1.8080;
617.1000;0.4558;1.8154;
617.4000;0.4542;1.8080;
617.7000;0.4518;1.8080;
618.0000;0.4518;1.8179;
618.3000;0.4518;1.8228;
618.6000;0.4575;1.8326;
618.9000;0.4518;1.8179;
619.2000;0.4534;1.8203;
619.5000;0.4485;1.7957;
619.8000;0.4485;1.7933;
620.1000;0.4493;1.7982;
620.4000;0.4477;1.7982;
620.7000;0.4485;1.8006;
621.0000;0.4469;1.8080;
621.3000;0.4461;1.7982;
621.6000;0.4453;1.7982;
621.9000;0.4420;1.7982;
622.2000;0.4510;1.8105;
622.5000;0.4444;1.7933;
622.8000;0.4453;1.7859;
623.1000;0.4428;1.7908;
623.4000;0.4428;1.7908;
623.7000;0.4371;1.7736;
624.0000;0.4428;1.7859;
624.3000;0.4420;1.7883;
624.6000;0.4420;1.7859;
624.9000;0.4404;1.7810;
625.2000;0.4396;1.7810;
625.5000;0.4387;1.7859;
625.8000;0.4396;1.7810;
626.1000;0.4371;1.7760;
626.4000;0.4371;1.7711;
626.7000;0.4363;1.7736;
627.0000;0.4371;1.7834;
627.3000;0.4371;1.7908;
627.6000;0.4363;1.7883;
627.9000;0.4347;1.7810;
628.2000;0.4355;1.7810;
628.5000;0.4347;1.7760;
628.8000;0.4347;1.7760;
629.1000;0.4355;1.7736;
629.4000;0.4371;1.7760;
629.7000;0.4339;1.7760;
630.0000;0.4379;1.7933;
630.3000;0.4314;1.7810;
630.6000;0.4330;1.7859;
630.9000;0.4339;1.7859;
631.2000;0.4282;1.7711;
631.5000;0.4233;1.7613;
631.8000;0.4298;1.7883;
632.1000;0.4322;1.7982;
632.4000;0.4290;1.7883;
632.7000;0.4298;1.7957;
633.0000;0.4282;1.7933;
633.3000;0.4290;1.7908;
633.6000;0.4282;1.7859;
633.9000;0.4265;1.7883;
634.2000;0.4274;1.7908;
634.5000;0.4282;1.7933;
634.8000;0.4265;1.7908;
635.1000;0.4265;1.7933;
635.4000;0.4274;1.7883;
635.7000;0.4274;1.7957;
636.0000;0.4241;1.7883;
636.3000;0.4249;1.7883;
636.6000;0.4265;1.8031;
636.9000;0.4265;1.8031;
637.2000;0.4265;1.8006;
637.5000;0.4168;1.7760;
637.8000;0.4225;1.7883;
638.1000;0.4290;1.8105;
638.4000;0.4322;1.8351;
638.7000;0.4241;1.8056;
639.0000;0.4249;1.8031;
639.3000;0.4265;1.8154;
639.6000;0.4225;1.8129;
639.9000;0.4225;1.8129;
640.2000;0.4217;1.8080;
640.5000;0.4233;1.8080;
640.8000;0.4225;1.8105;
641.1000;0.4225;1.8080;
641.4000;0.4233;1.8154;
641.7000;0.4225;1.8154;
642.0000;0.4225;1.8080;
642.3000;0.4225;1.8031;
642.6000;0.4208;1.8006;
642.9000;0.4200;1.7957;
643.2000;0.4217;1.7982;
643.5000;0.4200;1.7957;
643.8000;0.4192;1.7883;
644.1000;0.4192;1.7908;
644.4000;0.4184;1.7908;
644.7000;0.4192;1.7908;
645.0000;0.4184;1.7810;
645.3000;0.4184;1.7785;
645.6000;0.4143;1.7687;
645.9000;0.4192;1.7834;
646.2000;0.4192;1.7810;
646.5000;0.4168;1.7736;
646.8000;0.4160;1.7810;
647.1000;0.4176;1.7859;
647.4000;0.4176;1.7933;
647.7000;0.4168;1.7785;
648.0000;0.4143;1.7810;
648.3000;0.4151;1.7810;
648.6000;0.4160;1.7810;
648.9000;0.4160;1.7810;
649.2000;0.4143;1.7736;
649.5000;0.4151;1.7810;
649.8000;0.4151;1.7883;
650.1000;0.4143;1.7760;
650.4000;0.4143;1.7711;
650.7000;0.4143;1.7687;
651.0000;0.4143;1.7564;
651.3000;0.4111;1.7564;
651.6000;0.4135;1.7588;
651.9000;0.4135;1.7637;
652.2000;0.4143;1.7637;
652.5000;0.4094;1.7564;
652.8000;0.4119;1.7662;
653.1000;0.4127;1.7637;
653.4000;0.4135;1.7711;
653.7000;0.4135;1.7859;
654.0000;0.4119;1.7933;
654.3000;0.4111;1.7957;
654.6000;0.4094;1.7933;
654.9000;0.4135;1.7883;
655.2000;0.4103;1.7760;
655.5000;0.4119;1.7662;
655.8000;0.4111;1.7613;
656.1000;0.4111;1.7613;
656.4000;0.4103;1.7539;
656.7000;0.4119;1.7539;
657.0000;0.4094;1.7539;
657.3000;0.4094;1.7465;
657.6000;0.4094;1.7465;
657.9000;0.4086;1.7588;
658.2000;0.4094;1.7637;
658.5000;0.4111;1.7687;
658.8000;0.4103;1.7662;
659.1000;0.4094;1.7687;
659.4000;0.4103;1.7637;
659.7000;0.4094;1.7662;
660.0000;0.4103;1.7760;
660.3000;0.4111;1.7859;
660.6000;0.4070;1.7810;
660.9000;0.4078;1.7785;
661.2000;0.4103;1.7785;
661.5000;0.4070;1.7785;
661.8000;0.4078;1.7859;
662.1000;0.4078;1.7834;
662.4000;0.4070;1.7859;
662.7000;0.4054;1.7760;
663.0000;0.4078;1.7834;
663.3000;0.4070;1.7908;
663.6000;0.4078;1.7883;
663.9000;0.4078;1.7859;
664.2000;0.4078;1.7859;
664.5000;0.4070;1.7883;
664.8000;0.4070;1.7908;
665.1000;0.4062;1.7933;
665.4000;0.4086;1.7908;
665.7000;0.4062;1.7834;
666.0000;0.4062;1.7785;
666.3000;0.4054;1.7810;
666.6000;0.4062;1.7834;
666.9000;0.4070;1.7760;
667.2000;0.4046;1.7736;
667.5000;0.4070;1.7834;
667.8000;0.4054;1.7711;
668.1000;0.4029;1.7711;
668.4000;0.4037;1.7662;
668.7000;0.4046;1.7564;
669.0000;0.4046;1.7662;
669.3000;0.4029;1.7637;
669.6000;0.3980;1.7465;
669.9000;0.4013;1.7637;
670.2000;0.4054;1.7760;
670.5000;0.4046;1.7810;
670.8000;0.4005;1.7711;
671.1000;0.4037;1.7760;
671.4000;0.4046;1.7736;
671.7000;0.4037;1.7687;
672.0000;0.4029;1.7662;
672.3000;0.4029;1.7760;
672.6000;0.4037;1.7883;
672.9000;0.4029;1.7957;
673.2000;0.4029;1.7933;
673.5000;0.4013;1.7883;
673.8000;0.4029;1.7859;
674.1000;0.4046;1.7933;
674.4000;0.4013;1.7908;
674.7000;0.3932;1.7711;
675.0000;0.4029;1.7957;
675.3000;0.4013;1.7933;
675.6000;0.4021;1.7859;
675.9000;0.4013;1.7834;
676.2000;0.3989;1.7760;
676.5000;0.4046;1.7908;
676.8000;0.3997;1.7834;
677.1000;0.4005;1.7736;
677.4000;0.4021;1.7736;
677.7000;0.4021;1.7760;
678.0000;0.3997;1.7613;
678.3000;0.4005;1.7564;
678.6000;0.4005;1.7588;
678.9000;0.3932;1.7514;
679.2000;0.4005;1.7810;
679.5000;0.4005;1.7883;
679.8000;0.4005;1.7933;
680.1000;0.4005;1.7933;
680.4000;0.4013;1.7982;
680.7000;0.4013;1.7982;
681.0000;0.3989;1.7859;
681.3000;0.3997;1.7859;
681.6000;0.4005;1.7957;
681.9000;0.3997;1.7982;
682.2000;0.3989;1.8006;
682.5000;0.3972;1.8031;
682.8000;0.3989;1.8006;
683.1000;0.4054;1.8154;
683.4000;0.4062;1.8129;
683.7000;0.3948;1.7859;
684.0000;0.3980;1.7933;
684.3000;0.4005;1.7933;
684.6000;0.3997;1.7908;
684.9000;0.3980;1.7785;
685.2000;0.3997;1.7883;
685.5000;0.3989;1.7908;
685.8000;0.3915;1.7736;
686.1000;0.3972;1.7760;
686.4000;0.3956;1.7613;
686.7000;0.3940;1.7662;
687.0000;0.3972;1.7736;
687.3000;0.3972;1.7711;
687.6000;0.3972;1.7736;
687.9000;0.3980;1.7810;
688.2000;0.3972;1.7834;
688.5000;0.3989;1.7859;
688.8000;0.3964;1.7908;
689.1000;0.3972;1.7834;
689.4000;0.3989;1.7834;
689.7000;0.3948;1.7760;
690.0000;0.3964;1.7810;
690.3000;0.3915;1.7637;
690.6000;0.3972;1.7760;
690.9000;0.3989;1.7859;
691.2000;0.3964;1.7785;
691.5000;0.3932;1.7760;
691.8000;0.3932;1.7859;
692.1000;0.3940;1.7908;
692.4000;0.3948;1.7908;
692.7000;0.3940;1.7908;
693.0000;0.3956;1.8006;
693.3000;0.3883;1.7810;
693.6000;0.3923;1.7933;
693.9000;0.3964;1.8006;
694.2000;0.3956;1.7933;
694.5000;0.3899;1.7834;
694.8000;0.3964;1.7933;
695.1000;0.3907;1.7834;
695.4000;0.3956;1.7933;
695.7000;0.3948;1.7982;
696.0000;0.3915;1.7859;
696.3000;0.3932;1.7810;
696.6000;0.3923;1.7711;
696.9000;0.3940;1.7736;
697.2000;0.3948;1.7711;
697.5000;0.3940;1.7711;
697.8000;0.3923;1.7662;
698.1000;0.3932;1.7662;
698.4000;0.3932;1.7662;
698.7000;0.3915;1.7662;
699.0000;0.3923;1.7711;
699.3000;0.3940;1.7736;
699.6000;0.3932;1.7662;
699.9000;0.3948;1.7736;
700.2000;0.3989;1.7908;
700.5000;0.3899;1.7760;
700.8000;0.3932;1.7859;
701.1000;0.3915;1.7834;
701.4000;0.3923;1.7834;
701.7000;0.3915;1.7908;
702.0000;0.3932;1.7908;
702.3000;0.3891;1.7736;
702.6000;0.3923;1.7711;
702.9000;0.3907;1.7736;
703.2000;0.3940;1.7711;
703.5000;0.3932;1.7662;
703.8000;0.3923;1.7662;
704.1000;0.3948;1.7687;
704.4000;0.3915;1.7613;
704.7000;0.3923;1.7637;
705.0000;0.3932;1.7711;
705.3000;0.3915;1.7687;
705.6000;0.3883;1.7662;
705.9000;0.3907;1.7859;
706.2000;0.3915;1.7908;
706.5000;0.3907;1.7834;
706.8000;0.3940;1.7933;
707.1000;0.3907;1.7982;
707.4000;0.3891;1.7957;
707.7000;0.3923;1.8031;
708.0000;0.3907;1.8006;
708.3000;0.3899;1.8006;
708.6000;0.3899;1.7957;
708.9000;0.3891;1.7933;
709.2000;0.3907;1.7883;
709.5000;0.3923;1.7859;
709.8000;0.3907;1.7711;
710.1000;0.3899;1.7785;
710.4000;0.3891;1.7834;
710.7000;0.3883;1.7785;
711.0000;0.3891;1.7785;
711.3000;0.3883;1.7834;
711.6000;0.3883;1.7883;
711.9000;0.3883;1.7834;
712.2000;0.3915;1.7883;
712.5000;0.3891;1.7859;
712.8000;0.3883;1.7785;
713.1000;0.3883;1.7785;
713.4000;0.3899;1.7736;
713.7000;0.3842;1.7588;
714.0000;0.3834;1.7588;
714.3000;0.3899;1.7760;
714.6000;0.3899;1.7736;
714.9000;0.3891;1.7834;
715.2000;0.3867;1.7736;
715.5000;0.3818;1.7687;
715.8000;0.3858;1.7736;
716.1000;0.3891;1.7810;
716.4000;0.3867;1.7810;
716.7000;0.3834;1.7760;
717.0000;0.3858;1.7810;
717.3000;0.3883;1.7933;
717.6000;0.3891;1.8031;
717.9000;0.3867;1.7982;
718.2000;0.3867;1.8006;
718.5000;0.3867;1.8006;
718.8000;0.3899;1.8080;
719.1000;0.3867;1.8056;
719.4000;0.3867;1.8080;
719.7000;0.3867;1.8080;
720.0000;0.3907;1.8154;
720.3000;0.3883;1.8105;
720.6000;0.3875;1.8080;
720.9000;0.3883;1.8154;
721.2000;0.3883;1.8105;
721.5000;0.3867;1.8031;
721.8000;0.3883;1.8129;
722.1000;0.3875;1.8031;
722.4000;0.3899;1.8056;
722.7000;0.3883;1.8056;
723.0000;0.3875;1.8056;
723.3000;0.3867;1.7982;
723.6000;0.3867;1.8080;
723.9000;0.3883;1.8129;
724.2000;0.3883;1.8080;
724.5000;0.3891;1.8080;
724.8000;0.3883;1.8031;
725.1000;0.3891;1.8056;
725.4000;0.3883;1.7982;
725.7000;0.3883;1.8006;
726.0000;0.3867;1.7957;
726.3000;0.3883;1.7957;
726.6000;0.3867;1.8031;
726.9000;0.3883;1.8080;
727.2000;0.3867;1.7982;
727.5000;0.3867;1.7982;
727.8000;0.3867;1.8105;
728.1000;0.3875;1.8129;
728.4000;0.3891;1.8154;
728.7000;0.3915;1.8179;
729.0000;0.3883;1.8105;
729.3000;0.3867;1.8080;
729.6000;0.3923;1.8179;
729.9000;0.3867;1.8080;
730.2000;0.3867;1.8179;
730.5000;0.3867;1.8179;
730.8000;0.3883;1.8129;
731.1000;0.3858;1.8179;
731.4000;0.3883;1.8228;
731.7000;0.3818;1.8129;
732.0000;0.3867;1.8105;
732.3000;0.3867;1.8056;
732.6000;0.3867;1.8056;
732.9000;0.3850;1.8006;
733.2000;0.3826;1.8031;
733.5000;0.3818;1.7883;
733.8000;0.3867;1.7933;
734.1000;0.3858;1.7810;
734.4000;0.3826;1.7834;
734.7000;0.3842;1.7957;
735.0000;0.3842;1.8006;
735.3000;0.3883;1.8056;
735.6000;0.3858;1.8031;
735.9000;0.3867;1.8031;
736.2000;0.3850;1.8006;
736.5000;0.3858;1.8056;
736.8000;0.3875;1.8080;
737.1000;0.3858;1.7982;
737.4000;0.3842;1.8056;
737.7000;0.3875;1.8154;
738.0000;0.3850;1.8105;
738.3000;0.3907;1.8302;
738.6000;0.3850;1.8228;
738.9000;0.3842;1.8203;
739.2000;0.3899;1.8375;
739.5000;0.3850;1.8203;
739.8000;0.3842;1.8154;
740.1000;0.3850;1.8179;
740.4000;0.3858;1.8203;
740.7000;0.3964;1.8498;
741.0000;0.3842;1.8203;
741.3000;0.3842;1.8252;
741.6000;0.3850;1.8375;
741.9000;0.3834;1.8351;
742.2000;0.3834;1.8351;
742.5000;0.3818;1.8326;
742.8000;0.3826;1.8351;
743.1000;0.3834;1.8326;
743.4000;0.3818;1.8228;
743.7000;0.3818;1.8129;
744.0000;0.3842;1.8228;
744.3000;0.3834;1.8129;
744.6000;0.3826;1.8080;
744.9000;0.3810;1.8105;
745.2000;0.3834;1.8228;
745.5000;0.3826;1.8277;
745.8000;0.3818;1.8252;
746.1000;0.3818;1.8179;
746.4000;0.3826;1.8129;
746.7000;0.3834;1.8179;
747.0000;0.3826;1.8105;
747.3000;0.3785;1.8080;
747.6000;0.3842;1.8179;
747.9000;0.3858;1.8277;
748.2000;0.3850;1.8277;
748.5000;0.3826;1.8179;
748.8000;0.3801;1.8252;
749.1000;0.3818;1.8326;
749.4000;0.3834;1.8326;
749.7000;0.3818;1.8326;
750.0000;0.3818;1.8302;
750.3000;0.3818;1.8302;
750.6000;0.3842;1.8203;
750.9000;0.3842;1.8154;
751.2000;0.3850;1.8129;
751.5000;0.3826;1.8006;
751.8000;0.3818;1.7883;
752.1000;0.3826;1.7957;
752.4000;0.3810;1.7933;
752.7000;0.3801;1.8006;
753.0000;0.3818;1.8080;
753.3000;0.3834;1.8129;
753.6000;0.3826;1.8080;
753.9000;0.3810;1.7957;
754.2000;0.3818;1.7933;
754.5000;0.3818;1.8056;
754.8000;0.3818;1.8031;
755.1000;0.3810;1.8031;
755.4000;0.3818;1.8105;
755.7000;0.3842;1.8203;
756.0000;0.3810;1.8154;
756.3000;0.3818;1.8129;
756.6000;0.3793;1.8080;
756.9000;0.3818;1.8105;
757.2000;0.3810;1.8154;
757.5000;0.3834;1.8277;
757.8000;0.3810;1.8154;
758.1000;0.3810;1.8154;
758.4000;0.3850;1.8326;
758.7000;0.3810;1.8080;
759.0000;0.3810;1.8129;
759.3000;0.3810;1.8154;
759.6000;0.3810;1.8154;
759.9000;0.3793;1.8056;
760.2000;0.3810;1.8056;
760.5000;0.3785;1.8006;
760.8000;0.3801;1.8105;
761.1000;0.3810;1.8105;
761.4000;0.3818;1.8080;
761.7000;0.3818;1.8105;
762.0000;0.3810;1.7957;
762.3000;0.3810;1.7933;
762.6000;0.3810;1.7859;
762.9000;0.3801;1.7908;
763.2000;0.3801;1.7933;
763.5000;0.3810;1.7933;
763.8000;0.3793;1.7908;
764.1000;0.3785;1.7982;
764.4000;0.3793;1.7957;
764.7000;0.3801;1.7908;
765.0000;0.3785;1.7908;
765.3000;0.3793;1.7957;
765.6000;0.3785;1.7859;
765.9000;0.3793;1.7933;
766.2000;0.3785;1.7933;
766.5000;0.3736;1.7834;
766.8000;0.3801;1.8006;
767.1000;0.3810;1.8006;
767.4000;0.3826;1.7982;
767.7000;0.3801;1.7982;
768.0000;0.3793;1.7982;
768.3000;0.3810;1.8031;
768.6000;0.3810;1.8056;
768.9000;0.3801;1.7957;
769.2000;0.3785;1.7933;
769.5000;0.3769;1.7859;
769.8000;0.3810;1.7933;
770.1000;0.3801;1.7957;
770.4000;0.3785;1.7834;
770.7000;0.3793;1.7883;
771.0000;0.3793;1.7883;
771.3000;0.3793;1.7933;
771.6000;0.3793;1.7957;
771.9000;0.3801;1.7982;
772.2000;0.3801;1.7982;
772.5000;0.3858;1.8154;
772.8000;0.3793;1.7933;
773.1000;0.3793;1.7933;
773.4000;0.3793;1.7957;
773.7000;0.3810;1.7957;
774.0000;0.3793;1.7883;
774.3000;0.3785;1.7834;
774.6000;0.3785;1.7859;
774.9000;0.3785;1.7834;
775.2000;0.3777;1.7933;
775.5000;0.3777;1.7908;
775.8000;0.3777;1.7957;
776.1000;0.3785;1.8031;
776.4000;0.3785;1.7957;
776.7000;0.3761;1.7883;
777.0000;0.3793;1.7957;
777.3000;0.3801;1.8056;
777.6000;0.3793;1.8105;
777.9000;0.3801;1.8228;
778.2000;0.3769;1.8129;
778.5000;0.3793;1.8179;
778.8000;0.3761;1.8154;
779.1000;0.3785;1.8080;
779.4000;0.3769;1.8056;
779.7000;0.3777;1.8129;
780.0000;0.3777;1.8154;
780.3000;0.3785;1.8203;
780.6000;0.3785;1.8105;
780.9000;0.3777;1.8105;
781.2000;0.3785;1.8105;
781.5000;0.3793;1.8105;
781.8000;0.3785;1.8006;
782.1000;0.3777;1.7933;
782.4000;0.3818;1.8080;
782.7000;0.3793;1.8080;
783.0000;0.3785;1.8154;
783.3000;0.3810;1.8154;
783.6000;0.3777;1.8056;
783.9000;0.3801;1.8080;
784.2000;0.3769;1.8056;
784.5000;0.3769;1.8080;
784.8000;0.3744;1.7957;
785.1000;0.3793;1.8031;
785.4000;0.3793;1.7957;
785.7000;0.3867;1.8056;
786.0000;0.3769;1.7834;
786.3000;0.3761;1.7883;
786.6000;0.3753;1.7957;
786.9000;0.3769;1.7982;
787.2000;0.3793;1.8006;
787.5000;0.3842;1.8228;
787.8000;0.3785;1.8080;
788.1000;0.3785;1.8129;
788.4000;0.3793;1.8203;
788.7000;0.3785;1.8203;
789.0000;0.3777;1.8179;
789.3000;0.3777;1.8179;
789.6000;0.3785;1.8203;
789.9000;0.3777;1.8129;
790.2000;0.3785;1.8154;
790.5000;0.3761;1.8154;
790.8000;0.3761;1.8228;
791.1000;0.3777;1.8302;
791.4000;0.3777;1.8277;
791.7000;0.3769;1.8105;
792.0000;0.3785;1.8031;
792.3000;0.3761;1.7982;
792.6000;0.3785;1.8056;
792.9000;0.3793;1.8056;
793.2000;0.3769;1.8105;
793.5000;0.3704;1.7982;
793.8000;0.3777;1.8203;
794.1000;0.3785;1.8252;
794.4000;0.3744;1.8179;
794.7000;0.3736;1.8154;
795.0000;0.3761;1.8179;
795.3000;0.3777;1.8154;
795.6000;0.3769;1.8154;
795.9000;0.3761;1.8129;
796.2000;0.3769;1.8105;
796.5000;0.3753;1.8129;
796.8000;0.3777;1.8252;
797.1000;0.3777;1.8351;
797.4000;0.3761;1.8302;
797.7000;0.3777;1.8375;
798.0000;0.3769;1.8351;
798.3000;0.3769;1.8400;
798.6000;0.3777;1.8302;
798.9000;0.3769;1.8351;
799.2000;0.3753;1.8351;
799.5000;0.3712;1.8154;
799.8000;0.3761;1.8351;
800.1000;0.3753;1.8326;
800.4000;0.3769;1.8326;
800.7000;0.3744;1.8326;
801.0000;0.3744;1.8351;
801.3000;0.3761;1.8375;
801.6000;0.3720;1.8302;
801.9000;0.3761;1.8425;
802.2000;0.3769;1.8449;
802.5000;0.3753;1.8326;
802.8000;0.3753;1.8302;
803.1000;0.3785;1.8302;
803.4000;0.3744;1.8302;
803.7000;0.3753;1.8351;
804.0000;0.3793;1.8474;
804.3000;0.3777;1.8400;
804.6000;0.3761;1.8351;
804.9000;0.3777;1.8400;
805.2000;0.3744;1.8375;
805.5000;0.3761;1.8523;
805.8000;0.3744;1.8351;
806.1000;0.3761;1.8400;
806.4000;0.3761;1.8351;
806.7000;0.3704;1.8277;
807.0000;0.3761;1.8326;
807.3000;0.3736;1.8351;
807.6000;0.3744;1.8252;
807.9000;0.3761;1.8179;
808.2000;0.3761;1.8154;
808.5000;0.3777;1.8228;
808.8000;0.3679;1.8105;
809.1000;0.3736;1.8252;
809.4000;0.3736;1.8228;
809.7000;0.3785;1.8474;
810.0000;0.3744;1.8302;
810.3000;0.3769;1.8326;
810.6000;0.3761;1.8326;
810.9000;0.3736;1.8302;
811.2000;0.3712;1.8203;
811.5000;0.3736;1.8203;
811.8000;0.3744;1.8302;
812.1000;0.3744;1.8351;
812.4000;0.3744;1.8375;
812.7000;0.3744;1.8351;
813.0000;0.3736;1.8351;
813.3000;0.3761;1.8351;
813.6000;0.3744;1.8375;
813.9000;0.3744;1.8351;
814.2000;0.3744;1.8351;
814.5000;0.3761;1.8351;
814.8000;0.3736;1.8375;
815.1000;0.3744;1.8375;
815.4000;0.3777;1.8400;
815.7000;0.3744;1.8375;
816.0000;0.3736;1.8326;
816.3000;0.3712;1.8277;
816.6000;0.3736;1.8302;
816.9000;0.3753;1.8277;
817.2000;0.3736;1.8228;
817.5000;0.3761;1.8203;
817.8000;0.3744;1.8154;
818.1000;0.3761;1.8277;
818.4000;0.3753;1.8326;
818.7000;0.3736;1.8277;
819.0000;0.3744;1.8277;
819.3000;0.3736;1.8277;
819.6000;0.3744;1.8203;
819.9000;0.3753;1.8179;
820.2000;0.3753;1.8179;
820.5000;0.3744;1.8179;
820.8000;0.3736;1.8154;
821.1000;0.3744;1.8203;
821.4000;0.3753;1.8154;
821.7000;0.3687;1.8006;
822.0000;0.3728;1.8154;
822.3000;0.3736;1.8252;
822.6000;0.3753;1.8228;
822.9000;0.3720;1.8179;
823.2000;0.3736;1.8252;
823.5000;0.3785;1.8375;
823.8000;0.3777;1.8351;
824.1000;0.3728;1.8302;
824.4000;0.3704;1.8252;
824.7000;0.3744;1.8375;
825.0000;0.3736;1.8302;
825.3000;0.3744;1.8351;
825.6000;0.3720;1.8351;
825.9000;0.3736;1.8400;
826.2000;0.3769;1.8425;
826.5000;0.3777;1.8351;
826.8000;0.3753;1.8375;
827.1000;0.3736;1.8326;
827.4000;0.3761;1.8326;
827.7000;0.3744;1.8277;
828.0000;0.3736;1.8302;
828.3000;0.3736;1.8277;
828.6000;0.3736;1.8302;
828.9000;0.3704;1.8228;
829.2000;0.3777;1.8425;
829.5000;0.3728;1.8252;
829.8000;0.3753;1.8351;
830.1000;0.3744;1.8302;
830.4000;0.3744;1.8375;
830.7000;0.3736;1.8400;
831.0000;0.3728;1.8425;
831.3000;0.3704;1.8302;
831.6000;0.3704;1.8252;
831.9000;0.3720;1.8228;
832.2000;0.3744;1.8228;
832.5000;0.3728;1.8179;
832.8000;0.3728;1.8277;
833.1000;0.3744;1.8400;
833.4000;0.3728;1.8425;
833.7000;0.3818;1.8720;
834.0000;0.3744;1.8548;
834.3000;0.3712;1.8425;
834.6000;0.3761;1.8474;
834.9000;0.3736;1.8375;
835.2000;0.3736;1.8400;
835.5000;0.3728;1.8351;
835.8000;0.3728;1.8302;
836.1000;0.3728;1.8277;
836.4000;0.3728;1.8326;
836.7000;0.3720;1.8375;
837.0000;0.3728;1.8400;
837.3000;0.3720;1.8351;
837.6000;0.3736;1.8351;
837.9000;0.3728;1.8351;
838.2000;0.3712;1.8375;
838.5000;0.3720;1.8449;
838.8000;0.3728;1.8498;
839.1000;0.3720;1.8449;
839.4000;0.3720;1.8425;
839.7000;0.3736;1.8523;
840.0000;0.3744;1.8474;
840.3000;0.3728;1.8425;
840.6000;0.3720;1.8351;
840.9000;0.3712;1.8425;
841.2000;0.3728;1.8449;
841.5000;0.3736;1.8449;
841.8000;0.3736;1.8498;
842.1000;0.3728;1.8523;
842.4000;0.3744;1.8548;
842.7000;0.3753;1.8621;
843.0000;0.3720;1.8572;
843.3000;0.3720;1.8498;
843.6000;0.3728;1.8548;
843.9000;0.3712;1.8548;
844.2000;0.3728;1.8597;
844.5000;0.3753;1.8572;
844.8000;0.3736;1.8498;
845.1000;0.3744;1.8572;
845.4000;0.3736;1.8548;
845.7000;0.3704;1.8498;
846.0000;0.3720;1.8597;
846.3000;0.3712;1.8621;
846.6000;0.3720;1.8646;
846.9000;0.3712;1.8621;
847.2000;0.3712;1.8621;
847.5000;0.3655;1.8523;
847.8000;0.3720;1.8720;
848.1000;0.3728;1.8720;
848.4000;0.3744;1.8769;
848.7000;0.3720;1.8794;
849.0000;0.3696;1.8695;
849.3000;0.3728;1.8671;
849.6000;0.3712;1.8548;
849.9000;0.3720;1.8572;
850.2000;0.3720;1.8523;
850.5000;0.3728;1.8498;
850.8000;0.3712;1.8548;
851.1000;0.3761;1.8597;
851.4000;0.3704;1.8498;
851.7000;0.3736;1.8548;
852.0000;0.3720;1.8597;
852.3000;0.3663;1.8449;
852.6000;0.3712;1.8646;
852.9000;0.3720;1.8646;
853.2000;0.3720;1.8671;
853.5000;0.3712;1.8646;
853.8000;0.3712;1.8646;
854.1000;0.3720;1.8572;
854.4000;0.3712;1.8523;
854.7000;0.3736;1.8597;
855.0000;0.3736;1.8671;
855.3000;0.3736;1.8572;
855.6000;0.3720;1.8597;
855.9000;0.3671;1.8375;
856.2000;0.3769;1.8671;
856.5000;0.3712;1.8646;
856.8000;0.3785;1.8769;
857.1000;0.3720;1.8523;
857.4000;0.3712;1.8498;
857.7000;0.3720;1.8597;
858.0000;0.3671;1.8498;
858.3000;0.3720;1.8621;
858.6000;0.3704;1.8597;
858.9000;0.3704;1.8720;
859.2000;0.3704;1.8720;
859.5000;0.3704;1.8572;
859.8000;0.3696;1.8621;
860.1000;0.3712;1.8621;
860.4000;0.3704;1.8572;
860.7000;0.3712;1.8498;
861.0000;0.3712;1.8523;
861.3000;0.3679;1.8449;
861.6000;0.3696;1.8523;
861.9000;0.3712;1.8597;
862.2000;0.3704;1.8597;
862.5000;0.3712;1.8646;
862.8000;0.3704;1.8597;
863.1000;0.3720;1.8646;
863.4000;0.3696;1.8720;
863.7000;0.3696;1.8720;
864.0000;0.3712;1.8769;
864.3000;0.3655;1.8671;
864.6000;0.3704;1.8769;
864.9000;0.3720;1.8744;
865.2000;0.3712;1.8744;
865.5000;0.3712;1.8769;
865.8000;0.3704;1.8720;
866.1000;0.3736;1.8720;
866.4000;0.3712;1.8621;
866.7000;0.3736;1.8597;
867.0000;0.3712;1.8597;
867.3000;0.3712;1.8621;
867.6000;0.3704;1.8671;
867.9000;0.3704;1.8646;
868.2000;0.3728;1.8572;
868.5000;0.3687;1.8523;
868.8000;0.3704;1.8498;
869.1000;0.3704;1.8498;
869.4000;0.3704;1.8498;
869.7000;0.3704;1.8449;
870.0000;0.3704;1.8498;
870.3000;0.3704;1.8449;
870.6000;0.3712;1.8498;
870.9000;0.3696;1.8498;
871.2000;0.3704;1.8498;
871.5000;0.3704;1.8498;
871.8000;0.3704;1.8498;
872.1000;0.3712;1.8474;
872.4000;0.3712;1.8474;
872.7000;0.3671;1.8302;
873.0000;0.3712;1.8326;
873.3000;0.3704;1.8302;
873.6000;0.3671;1.8252;
873.9000;0.3679;1.8302;
874.2000;0.3687;1.8351;
874.5000;0.3712;1.8375;
874.8000;0.3696;1.8326;
875.1000;0.3696;1.8375;
875.4000;0.3687;1.8375;
875.7000;0.3712;1.8498;
876.0000;0.3712;1.8425;
876.3000;0.3696;1.8498;
876.6000;0.3696;1.8572;
876.9000;0.3696;1.8523;
877.2000;0.3704;1.8400;
877.5000;0.3704;1.8425;
877.8000;0.3679;1.8277;
878.1000;0.3736;1.8425;
878.4000;0.3696;1.8326;
878.7000;0.3679;1.8277;
879.0000;0.3704;1.8302;
879.3000;0.3704;1.8252;
879.6000;0.3687;1.8252;
879.9000;0.3704;1.8326;
880.2000;0.3736;1.8425;
880.5000;0.3696;1.8228;
880.8000;0.3696;1.8252;
881.1000;0.3720;1.8277;
881.4000;0.3712;1.8179;
881.7000;0.3712;1.8203;
882.0000;0.3647;1.8154;
882.3000;0.3663;1.8203;
882.6000;0.3630;1.8154;
882.9000;0.3671;1.8228;
883.2000;0.3663;1.8203;
883.5000;0.3687;1.8277;
883.8000;0.3687;1.8252;
884.1000;0.3736;1.8351;
884.4000;0.3687;1.8228;
884.7000;0.3687;1.8277;
885.0000;0.3769;1.8498;
885.3000;0.3712;1.8351;
885.6000;0.3712;1.8326;
885.9000;0.3704;1.8326;
886.2000;0.3712;1.8425;
886.5000;0.3696;1.8400;
886.8000;0.3696;1.8375;
887.1000;0.3687;1.8375;
887.4000;0.3647;1.8375;
887.7000;0.3687;1.8449;
888.0000;0.3687;1.8474;
888.3000;0.3761;1.8621;
888.6000;0.3696;1.8572;
888.9000;0.3704;1.8498;
889.2000;0.3687;1.8498;
889.5000;0.3704;1.8548;
889.8000;0.3720;1.8523;
890.1000;0.3679;1.8375;
890.4000;0.3704;1.8400;
890.7000;0.3696;1.8326;
891.0000;0.3728;1.8449;
891.3000;0.3687;1.8375;
891.6000;0.3696;1.8400;
891.9000;0.3744;1.8572;
892.2000;0.3696;1.8375;
892.5000;0.3696;1.8425;
892.8000;0.3687;1.8400;
893.1000;0.3761;1.8572;
893.4000;0.3687;1.8252;
893.7000;0.3696;1.8326;
894.0000;0.3704;1.8425;
894.3000;0.3687;1.8375;
894.6000;0.3696;1.8523;
894.9000;0.3704;1.8523;
895.2000;0.3687;1.8523;
895.5000;0.3704;1.8572;
895.8000;0.3630;1.8425;
896.1000;0.3696;1.8597;
896.4000;0.3671;1.8523;
896.7000;0.3671;1.8498;
897.0000;0.3663;1.8351;
897.3000;0.3704;1.8425;
897.6000;0.3671;1.8277;
897.9000;0.3671;1.8203;
898.2000;0.3679;1.8179;
898.5000;0.3655;1.8105;
898.8000;0.3704;1.8179;
899.1000;0.3712;1.8203;
899.4000;0.3663;1.8056;
899.7000;0.3687;1.8080;
900.0000;0.3720;1.8179;
900.3000;0.3704;1.8154;
900.6000;0.3720;1.8228;
900.9000;0.3687;1.8228;
901.2000;0.3720;1.8449;
901.5000;0.3687;1.8375;
901.8000;0.3696;1.8375;
902.1000;0.3679;1.8302;
902.4000;0.3687;1.8326;
902.7000;0.3663;1.8179;
903.0000;0.3720;1.8302;
903.3000;0.3671;1.8179;
903.6000;0.3769;1.8351;
903.9000;0.3687;1.8105;
904.2000;0.3679;1.8203;
904.5000;0.3696;1.8326;
904.8000;0.3696;1.8400;
905.1000;0.3712;1.8449;
905.4000;0.3679;1.8425;
905.7000;0.3671;1.8351;
906.0000;0.3679;1.8498;
906.3000;0.3696;1.8548;
906.6000;0.3679;1.8474;
906.9000;0.3687;1.8523;
907.2000;0.3655;1.8474;
907.5000;0.3687;1.8548;
907.8000;0.3687;1.8498;
908.1000;0.3639;1.8302;
908.4000;0.3679;1.8351;
908.7000;0.3696;1.8326;
909.0000;0.3712;1.8474;
909.3000;0.3671;1.8326;
909.6000;0.3687;1.8302;
909.9000;0.3696;1.8375;
910.2000;0.3696;1.8425;
910.5000;0.3704;1.8326;
910.8000;0.3687;1.8252;
911.1000;0.3679;1.8228;
911.4000;0.3696;1.8375;
911.7000;0.3687;1.8351;
912.0000;0.3663;1.8252;
912.3000;0.3663;1.8252;
912.6000;0.3663;1.8277;
912.9000;0.3687;1.8277;
913.2000;0.3679;1.8228;
913.5000;0.3671;1.8203;
913.8000;0.3687;1.8203;
914.1000;0.3704;1.8252;
914.4000;0.3687;1.8228;
914.7000;0.3679;1.8252;
915.0000;0.3671;1.8252;
915.3000;0.3687;1.8326;
915.6000;0.3687;1.8351;
915.9000;0.3614;1.8105;
916.2000;0.3687;1.8302;
916.5000;0.3696;1.8375;
916.8000;0.3687;1.8302;
917.1000;0.3655;1.8203;
917.4000;0.3696;1.8252;
917.7000;0.3712;1.8375;
918.0000;0.3687;1.8400;
918.3000;0.3671;1.8375;
918.6000;0.3647;1.8277;
918.9000;0.3647;1.8179;
919.2000;0.3671;1.8228;
919.5000;0.3647;1.8228;
919.8000;0.3663;1.8302;
920.1000;0.3663;1.8375;
920.4000;0.3679;1.8425;
920.7000;0.3663;1.8351;
921.0000;0.3720;1.8474;
921.3000;0.3696;1.8400;
921.6000;0.3671;1.8400;
921.9000;0.3671;1.8400;
922.2000;0.3696;1.8400;
922.5000;0.3679;1.8375;
922.8000;0.3679;1.8449;
923.1000;0.3606;1.8302;
923.4000;0.3696;1.8548;
923.7000;0.3671;1.8597;
924.0000;0.3671;1.8621;
924.3000;0.3655;1.8449;
924.6000;0.3696;1.8548;
924.9000;0.3639;1.8375;
925.2000;0.3663;1.8375;
925.5000;0.3671;1.8400;
925.8000;0.3647;1.8449;
926.1000;0.3663;1.8548;
926.4000;0.3679;1.8646;
926.7000;0.3663;1.8548;
927.0000;0.3704;1.8695;
927.3000;0.3671;1.8523;
927.6000;0.3663;1.8326;
927.9000;0.3639;1.8252;
928.2000;0.3704;1.8425;
928.5000;0.3679;1.8449;
928.8000;0.3663;1.8400;
929.1000;0.3655;1.8351;
929.4000;0.3655;1.8302;
929.7000;0.3671;1.8326;
930.0000;0.3687;1.8449;
930.3000;0.3671;1.8425;
930.6000;0.3696;1.8523;
930.9000;0.3679;1.8474;
931.2000;0.3655;1.8498;
931.5000;0.3671;1.8572;
931.8000;0.3671;1.8646;
932.1000;0.3687;1.8646;
932.4000;0.3671;1.8449;
932.7000;0.3679;1.8425;
933.0000;0.3687;1.8425;
933.3000;0.3679;1.8498;
933.6000;0.3671;1.8351;
933.9000;0.3663;1.8302;
934.2000;0.3671;1.8326;
934.5000;0.3679;1.8400;
934.8000;0.3598;1.8179;
935.1000;0.3663;1.8326;
935.4000;0.3696;1.8425;
935.7000;0.3655;1.8277;
936.0000;0.3671;1.8375;
936.3000;0.3671;1.8302;
936.6000;0.3647;1.8351;
936.9000;0.3687;1.8400;
937.2000;0.3687;1.8425;
937.5000;0.3679;1.8375;
937.8000;0.3655;1.8277;
938.1000;0.3679;1.8375;
938.4000;0.3679;1.8425;
938.7000;0.3671;1.8351;
939.0000;0.3655;1.8252;
939.3000;0.3663;1.8351;
939.6000;0.3663;1.8252;
939.9000;0.3663;1.8154;
940.2000;0.3663;1.8129;
940.5000;0.3679;1.8154;
940.8000;0.3687;1.8154;
941.1000;0.3663;1.8154;
941.4000;0.3671;1.8179;
941.7000;0.3679;1.8302;
942.0000;0.3655;1.8228;
942.3000;0.3671;1.8277;
942.6000;0.3639;1.8252;
942.9000;0.3696;1.8375;
943.2000;0.3663;1.8203;
943.5000;0.3728;1.8326;
943.8000;0.3671;1.8154;
944.1000;0.3655;1.8203;
944.4000;0.3671;1.8252;
944.7000;0.3655;1.8203;
945.0000;0.3663;1.8277;
945.3000;0.3639;1.8277;
945.6000;0.3679;1.8351;
945.9000;0.3671;1.8375;
946.2000;0.3679;1.8351;
946.5000;0.3671;1.8228;
946.8000;0.3679;1.8277;
947.1000;0.3736;1.8449;
947.4000;0.3679;1.8375;
947.7000;0.3663;1.8252;
948.0000;0.3655;1.8203;
948.3000;0.3687;1.8203;
948.6000;0.3679;1.8252;
948.9000;0.3671;1.8252;
949.2000;0.3663;1.8179;
949.5000;0.3671;1.8326;
949.8000;0.3671;1.8351;
950.1000;0.3671;1.8326;
950.4000;0.3655;1.8277;
950.7000;0.3671;1.8351;
951.0000;0.3655;1.8400;
951.3000;0.3655;1.8498;
951.6000;0.3687;1.8572;
951.9000;0.3671;1.8523;
952.2000;0.3687;1.8474;
952.5000;0.3679;1.8375;
952.8000;0.3687;1.8400;
953.1000;0.3655;1.8326;
953.4000;0.3671;1.8351;
953.7000;0.3671;1.8277;
954.0000;0.3671;1.8252;
954.3000;0.3655;1.8252;
954.6000;0.3663;1.8252;
954.9000;0.3663;1.8277;
955.2000;0.3655;1.8326;
955.5000;0.3696;1.8326;
955.8000;0.3663;1.8228;
956.1000;0.3679;1.8277;
956.4000;0.3663;1.8154;
956.7000;0.3655;1.8154;
957.0000;0.3663;1.8179;
957.3000;0.3598;1.7957;
957.6000;0.3671;1.8129;
957.9000;0.3663;1.8080;
958.2000;0.3663;1.8080;
958.5000;0.3696;1.8129;
958.8000;0.3679;1.8056;
959.1000;0.3663;1.8056;
959.4000;0.3663;1.8129;
959.7000;0.3647;1.8105;
960.0000;0.3671;1.8080;
960.3000;0.3687;1.8277;
960.6000;0.3679;1.8252;
960.9000;0.3679;1.8252;
961.2000;0.3696;1.8179;
961.5000;0.3663;1.8105;
961.8000;0.3712;1.8179;
962.1000;0.3671;1.8179;
962.4000;0.3655;1.8228;
962.7000;0.3687;1.8375;
963.0000;0.3663;1.8351;
963.3000;0.3663;1.8375;
963.6000;0.3622;1.8129;
963.9000;0.3679;1.8277;
964.2000;0.3663;1.8277;
964.5000;0.3671;1.8326;
964.8000;0.3663;1.8326;
965.1000;0.3671;1.8375;
965.4000;0.3655;1.8375;
965.7000;0.3679;1.8425;
966.0000;0.3663;1.8351;
966.3000;0.3663;1.8351;
966.6000;0.3630;1.8252;
966.9000;0.3671;1.8351;
967.2000;0.3663;1.8302;
967.5000;0.3663;1.8449;
967.8000;0.3671;1.8523;
968.1000;0.3655;1.8375;
968.4000;0.3655;1.8351;
968.7000;0.3663;1.8326;
969.0000;0.3663;1.8326;
969.3000;0.3614;1.8203;
969.6000;0.3663;1.8277;
969.9000;0.3728;1.8523;
970.2000;0.3663;1.8302;
970.5000;0.3663;1.8326;
970.8000;0.3663;1.8302;
971.1000;0.3671;1.8252;
971.4000;0.3671;1.8252;
971.7000;0.3679;1.8277;
972.0000;0.3671;1.8326;
972.3000;0.3663;1.8326;
972.6000;0.3679;1.8375;
972.9000;0.3663;1.8400;
973.2000;0.3679;1.8523;
973.5000;0.3663;1.8548;
973.8000;0.3712;1.8597;
974.1000;0.3671;1.8425;
974.4000;0.3639;1.8425;
974.7000;0.3679;1.8425;
975.0000;0.3655;1.8326;
975.3000;0.3663;1.8400;
975.6000;0.3663;1.8375;
975.9000;0.3655;1.8400;
976.2000;0.3655;1.8425;
976.5000;0.3671;1.8498;
976.8000;0.3679;1.8474;
977.1000;0.3655;1.8498;
977.4000;0.3671;1.8572;
977.7000;0.3671;1.8548;
978.0000;0.3655;1.8523;
978.3000;0.3647;1.8548;
978.6000;0.3655;1.8548;
978.9000;0.3630;1.8548;
979.2000;0.3663;1.8548;
979.5000;0.3622;1.8523;
979.8000;0.3630;1.8597;
980.1000;0.3639;1.8523;
980.4000;0.3687;1.8572;
980.7000;0.3663;1.8548;
981.0000;0.3647;1.8548;
981.3000;0.3655;1.8548;
981.6000;0.3663;1.8597;
981.9000;0.3663;1.8572;
982.2000;0.3671;1.8548;
982.5000;0.3671;1.8523;
982.8000;0.3663;1.8548;
983.1000;0.3647;1.8498;
983.4000;0.3663;1.8572;
983.7000;0.3663;1.8548;
984.0000;0.3663;1.8597;
984.3000;0.3663;1.8597;
984.6000;0.3655;1.8597;
984.9000;0.3655;1.8646;
985.2000;0.3647;1.8621;
985.5000;0.3679;1.8720;
985.8000;0.3663;1.8695;
986.1000;0.3655;1.8572;
986.4000;0.3655;1.8498;
986.7000;0.3663;1.8548;
987.0000;0.3647;1.8572;
987.3000;0.3655;1.8597;
987.6000;0.3655;1.8597;
987.9000;0.3655;1.8597;
988.2000;0.3663;1.8597;
988.5000;0.3663;1.8671;
988.8000;0.3647;1.8695;
989.1000;0.3663;1.8646;
989.4000;0.3671;1.8597;
989.7000;0.3663;1.8548;
990.0000;0.3655;1.8597;
990.3000;0.3590;1.8425;
990.6000;0.3655;1.8646;
990.9000;0.3671;1.8646;
991.2000;0.3647;1.8498;
991.5000;0.3671;1.8597;
991.8000;0.3671;1.8572;
992.1000;0.3647;1.8597;
992.4000;0.3663;1.8695;
992.7000;0.3647;1.8597;
993.0000;0.3671;1.8646;
993.3000;0.3679;1.8523;
993.6000;0.3663;1.8474;
993.9000;0.3655;1.8375;
994.2000;0.3639;1.8326;
994.5000;0.3663;1.8425;
994.8000;0.3671;1.8375;
995.1000;0.3647;1.8449;
995.4000;0.3655;1.8498;
995.7000;0.3655;1.8523;
996.0000;0.3655;1.8523;
996.3000;0.3639;1.8474;
996.6000;0.3663;1.8498;
996.9000;0.3655;1.8548;
997.2000;0.3598;1.8400;
997.5000;0.3655;1.8523;
997.8000;0.3655;1.8449;
998.1000;0.3655;1.8498;
998.4000;0.3671;1.8498;
998.7000;0.3655;1.8523;
999.0000;0.3655;1.8621;
999.3000;0.3663;1.8720;
999.6000;0.3663;1.8744;
999.9000;0.3655;1.8646;
1000.2000;0.3655;1.8572;
1000.5000;0.3655;1.8548;
1000.8000;0.3663;1.8498;
1001.1000;0.3663;1.8375;
1001.4000;0.3671;1.8425;
1001.7000;0.3663;1.8375;
1002.0000;0.3655;1.8425;
1002.3000;0.3663;1.8523;
1002.6000;0.3655;1.8572;
1002.9000;0.3647;1.8474;
1003.2000;0.3671;1.8548;
1003.5000;0.3696;1.8720;
1003.8000;0.3647;1.8597;
1004.1000;0.3663;1.8597;
1004.4000;0.3655;1.8671;
1004.7000;0.3655;1.8720;
1005.0000;0.3647;1.8597;
1005.3000;0.3630;1.8548;
1005.6000;0.3655;1.8646;
1005.9000;0.3655;1.8621;
1006.2000;0.3663;1.8695;
1006.5000;0.3655;1.8597;
1006.8000;0.3663;1.8646;
1007.1000;0.3655;1.8621;
1007.4000;0.3655;1.8597;
1007.7000;0.3663;1.8597;
1008.0000;0.3647;1.8548;
1008.3000;0.3671;1.8523;
1008.6000;0.3671;1.8425;
1008.9000;0.3663;1.8326;
1009.2000;0.3647;1.8252;
1009.5000;0.3647;1.8277;
1009.8000;0.3663;1.8351;
1010.1000;0.3663;1.8425;
1010.4000;0.3671;1.8351;
1010.7000;0.3655;1.8326;
1011.0000;0.3655;1.8302;
1011.3000;0.3655;1.8302;
1011.6000;0.3630;1.8302;
1011.9000;0.3647;1.8326;
1012.2000;0.3663;1.8425;
1012.5000;0.3663;1.8302;
1012.8000;0.3647;1.8252;
1013.1000;0.3655;1.8252;
1013.4000;0.3655;1.8228;
1013.7000;0.3647;1.8228;
1014.0000;0.3655;1.8203;
1014.3000;0.3655;1.8277;
1014.6000;0.3622;1.8277;
1014.9000;0.3647;1.8326;
1015.2000;0.3671;1.8375;
1015.5000;0.3655;1.8351;
1015.8000;0.3630;1.8252;
1016.1000;0.3639;1.8326;
1016.4000;0.3630;1.8400;
1016.7000;0.3606;1.8228;
1017.0000;0.3655;1.8375;
1017.3000;0.3663;1.8375;
1017.6000;0.3655;1.8400;
1017.9000;0.3647;1.8400;
1018.2000;0.3655;1.8400;
1018.5000;0.3655;1.8326;
1018.8000;0.3663;1.8400;
1019.1000;0.3647;1.8326;
1019.4000;0.3598;1.8228;
1019.7000;0.3663;1.8375;
1020.0000;0.3647;1.8302;
1020.3000;0.3655;1.8252;
1020.6000;0.3647;1.8080;
1020.9000;0.3639;1.8080;
1021.2000;0.3663;1.8080;
1021.5000;0.3663;1.8056;
1021.8000;0.3655;1.8056;
1022.1000;0.3663;1.8105;
1022.4000;0.3647;1.8056;
1022.7000;0.3671;1.8129;
1023.0000;0.3655;1.8154;
1023.3000;0.3663;1.8203;
1023.6000;0.3679;1.8252;
1023.9000;0.3720;1.8302;
1024.2000;0.3647;1.8228;
1024.5000;0.3687;1.8203;
1024.8000;0.3696;1.8277;
1025.1000;0.3655;1.8154;
1025.4000;0.3663;1.8203;
1025.7000;0.3598;1.7957;
1026.0000;0.3647;1.8056;
1026.3000;0.3647;1.8179;
1026.6000;0.3663;1.8228;
1026.9000;0.3582;1.8056;
1027.2000;0.3630;1.8105;
1027.5000;0.3655;1.8252;
1027.8000;0.3639;1.8252;
1028.1000;0.3630;1.8326;
1028.4000;0.3647;1.8326;
1028.7000;0.3630;1.8351;
1029.0000;0.3655;1.8449;
1029.3000;0.3655;1.8474;
1029.6000;0.3655;1.8425;
1029.9000;0.3663;1.8400;
1030.2000;0.3663;1.8375;
1030.5000;0.3639;1.8302;
1030.8000;0.3647;1.8351;
1031.1000;0.3655;1.8302;
1031.4000;0.3647;1.8228;
1031.7000;0.3655;1.8252;
1032.0000;0.3655;1.8252;
1032.3000;0.3663;1.8252;
1032.6000;0.3647;1.8252;
1032.9000;0.3663;1.8277;
1033.2000;0.3647;1.8277;
1033.5000;0.3639;1.8252;
1033.8000;0.3630;1.8277;
1034.1000;0.3655;1.8302;
1034.4000;0.3647;1.8302;
1034.7000;0.3687;1.8375;
1035.0000;0.3704;1.8425;
1035.3000;0.3687;1.8228;
1035.6000;0.3622;1.8154;
1035.9000;0.3647;1.8277;
1036.2000;0.3639;1.8203;
1036.5000;0.3630;1.8154;
1036.8000;0.3655;1.8203;
1037.1000;0.3639;1.8203;
1037.4000;0.3639;1.8302;
1037.7000;0.3630;1.8203;
1038.0000;0.3647;1.8326;
1038.3000;0.3639;1.8302;
1038.6000;0.3606;1.8203;
1038.9000;0.3639;1.8351;
1039.2000;0.3655;1.8498;
1039.5000;0.3663;1.8498;
1039.8000;0.3647;1.8449;
1040.1000;0.3606;1.8400;
1040.4000;0.3655;1.8449;
1040.7000;0.3687;1.8498;
1041.0000;0.3630;1.8326;
1041.3000;0.3630;1.8277;
1041.6000;0.3655;1.8375;
1041.9000;0.3655;1.8326;
1042.2000;0.3647;1.8326;
1042.5000;0.3647;1.8326;
1042.8000;0.3639;1.8277;
1043.1000;0.3663;1.8252;
1043.4000;0.3647;1.8228;
1043.7000;0.3630;1.8326;
1044.0000;0.3647;1.8425;
1044.3000;0.3663;1.8523;
1044.6000;0.3647;1.8474;
1044.9000;0.3647;1.8400;
1045.2000;0.3663;1.8400;
1045.5000;0.3663;1.8375;
1045.8000;0.3647;1.8400;
1046.1000;0.3647;1.8425;
1046.4000;0.3655;1.8375;
1046.7000;0.3639;1.8425;
1047.0000;0.3663;1.8400;
1047.3000;0.3655;1.8351;
1047.6000;0.3647;1.8400;
1047.9000;0.3630;1.8375;
1048.2000;0.3663;1.8449;
1048.5000;0.3728;1.8572;
1048.8000;0.3630;1.8326;
1049.1000;0.3647;1.8425;
1049.4000;0.3598;1.8400;
1049.7000;0.3622;1.8523;
1050.0000;0.3647;1.8548;
1050.3000;0.3655;1.8548;
1050.6000;0.3663;1.8548;
1050.9000;0.3622;1.8449;
1051.2000;0.3647;1.8523;
1051.5000;0.3630;1.8498;
1051.8000;0.3639;1.8523;
1052.1000;0.3639;1.8449;
1052.4000;0.3647;1.8425;
1052.7000;0.3622;1.8449;
1053.0000;0.3663;1.8523;
1053.3000;0.3647;1.8449;
1053.6000;0.3639;1.8474;
1053.9000;0.3647;1.8474;
1054.2000;0.3647;1.8449;
1054.5000;0.3622;1.8351;
1054.8000;0.3622;1.8326;
1055.1000;0.3639;1.8425;
1055.4000;0.3679;1.8621;
1055.7000;0.3671;1.8695;
1056.0000;0.3655;1.8671;
1056.3000;0.3639;1.8597;
1056.6000;0.3655;1.8548;
1056.9000;0.3655;1.8498;
1057.2000;0.3655;1.8572;
1057.5000;0.3655;1.8548;
1057.8000;0.3696;1.8671;
1058.1000;0.3647;1.8498;
1058.4000;0.3655;1.8572;
1058.7000;0.3647;1.8523;
1059.0000;0.3614;1.8474;
1059.3000;0.3639;1.8498;
1059.6000;0.3663;1.8474;
1059.9000;0.3655;1.8425;
1060.2000;0.3647;1.8400;
1060.5000;0.3639;1.8375;
1060.8000;0.3679;1.8449;
1061.1000;0.3647;1.8400;
1061.4000;0.3647;1.8449;
1061.7000;0.3639;1.8523;
1062.0000;0.3639;1.8548;
1062.3000;0.3639;1.8523;
1062.6000;0.3647;1.8621;
1062.9000;0.3647;1.8572;
1063.2000;0.3630;1.8498;
1063.5000;0.3630;1.8449;
1063.8000;0.3622;1.8425;
1064.1000;0.3639;1.8400;
1064.4000;0.3622;1.8425;
1064.7000;0.3630;1.8425;
1065.0000;0.3655;1.8351;
1065.3000;0.3655;1.8351;
1065.6000;0.3639;1.8154;
1065.9000;0.3679;1.8277;
1066.2000;0.3647;1.8277;
1066.5000;0.3639;1.8302;
1066.8000;0.3630;1.8375;
1067.1000;0.3630;1.8400;
1067.4000;0.3647;1.8498;
1067.7000;0.3647;1.8523;
1068.0000;0.3614;1.8425;
1068.3000;0.3639;1.8449;
1068.6000;0.3663;1.8449;
1068.9000;0.3639;1.8375;
1069.2000;0.3647;1.8351;
1069.5000;0.3655;1.8400;
1069.8000;0.3655;1.8326;
1070.1000;0.3663;1.8302;
1070.4000;0.3639;1.8179;
1070.7000;0.3663;1.8228;
1071.0000;0.3663;1.8203;
1071.3000;0.3663;1.8228;
1071.6000;0.3647;1.8277;
1071.9000;0.3622;1.8277;
1072.2000;0.3639;1.8228;
1072.5000;0.3696;1.8351;
1072.8000;0.3630;1.8228;
1073.1000;0.3630;1.8228;
1073.4000;0.3622;1.8203;
1073.7000;0.3647;1.8252;
1074.0000;0.3696;1.8351;
1074.3000;0.3639;1.8228;
1074.6000;0.3647;1.8252;
1074.9000;0.3639;1.8252;
1075.2000;0.3630;1.8203;
1075.5000;0.3630;1.8277;
1075.8000;0.3647;1.8302;
1076.1000;0.3647;1.8277;
1076.4000;0.3630;1.8203;
1076.7000;0.3647;1.8129;
1077.0000;0.3639;1.8105;
1077.3000;0.3655;1.8203;
1077.6000;0.3655;1.8203;
1077.9000;0.3647;1.8105;
1078.2000;0.3647;1.8252;
1078.5000;0.3696;1.8400;
1078.8000;0.3687;1.8375;
1079.1000;0.3655;1.8326;
1079.4000;0.3639;1.8351;
1079.7000;0.3639;1.8302;
1080.0000;0.3655;1.8449;
1080.3000;0.3647;1.8400;
1080.6000;0.3663;1.8474;
1080.9000;0.3647;1.8498;
1081.2000;0.3663;1.8474;
1081.5000;0.3598;1.8351;
1081.8000;0.3671;1.8425;
1082.1000;0.3663;1.8400;
1082.4000;0.3630;1.8302;
1082.7000;0.3687;1.8400;
1083.0000;0.3647;1.8302;
1083.3000;0.3647;1.8351;
1083.6000;0.3647;1.8375;
1083.9000;0.3647;1.8302;
1084.2000;0.3655;1.8351;
1084.5000;0.3647;1.8302;
1084.8000;0.3630;1.8302;
1085.1000;0.3663;1.8351;
1085.4000;0.3647;1.8252;
1085.7000;0.3647;1.8326;
1086.0000;0.3639;1.8351;
1086.3000;0.3647;1.8400;
1086.6000;0.3630;1.8449;
1086.9000;0.3630;1.8400;
1087.2000;0.3663;1.8425;
1087.5000;0.3655;1.8425;
1087.8000;0.3639;1.8449;
1088.1000;0.3639;1.8425;
1088.4000;0.3639;1.8400;
1088.7000;0.3671;1.8498;
1089.0000;0.3647;1.8449;
1089.3000;0.3655;1.8400;
1089.6000;0.3639;1.8228;
1089.9000;0.3590;1.8129;
1090.2000;0.3655;1.8302;
1090.5000;0.3655;1.8375;
1090.8000;0.3647;1.8375;
1091.1000;0.3663;1.8375;
1091.4000;0.3647;1.8252;
1091.7000;0.3663;1.8326;
1092.0000;0.3663;1.8351;
1092.3000;0.3647;1.8277;
1092.6000;0.3647;1.8252;
1092.9000;0.3639;1.8228;
1093.2000;0.3630;1.8154;
1093.5000;0.3630;1.8105;
1093.8000;0.3639;1.8277;
1094.1000;0.3630;1.8302;
1094.4000;0.3647;1.8277;
1094.7000;0.3614;1.8302;
1095.0000;0.3655;1.8498;
1095.3000;0.3630;1.8548;
1095.6000;0.3630;1.8523;
1095.9000;0.3630;1.8597;
1096.2000;0.3687;1.8769;
1096.5000;0.3639;1.8597;
1096.8000;0.3622;1.8572;
1097.1000;0.3630;1.8548;
1097.4000;0.3655;1.8646;
1097.7000;0.3647;1.8646;
1098.0000;0.3606;1.8523;
1098.3000;0.3647;1.8671;
1098.6000;0.3630;1.8572;
1098.9000;0.3630;1.8474;
1099.2000;0.3647;1.8523;
1099.5000;0.3630;1.8375;
1099.8000;0.3622;1.8277;
1100.1000;0.3655;1.8351;
1100.4000;0.3639;1.8375;
1100.7000;0.3630;1.8302;
1101.0000;0.3647;1.8375;
1101.3000;0.3647;1.8449;
1101.6000;0.3647;1.8449;
1101.9000;0.3639;1.8375;
1102.2000;0.3647;1.8351;
1102.5000;0.3647;1.8351;
1102.8000;0.3655;1.8351;
1103.1000;0.3663;1.8425;
1103.4000;0.3639;1.8400;
1103.7000;0.3630;1.8375;
1104.0000;0.3639;1.8400;
1104.3000;0.3647;1.8449;
1104.6000;0.3647;1.8375;
1104.9000;0.3647;1.8351;
1105.2000;0.3647;1.8302;
1105.5000;0.3655;1.8351;
1105.8000;0.3598;1.8302;
1106.1000;0.3671;1.8548;
1106.4000;0.3663;1.8621;
1106.7000;0.3712;1.8744;
1107.0000;0.3663;1.8449;
1107.3000;0.3647;1.8326;
1107.6000;0.3655;1.8375;
1107.9000;0.3630;1.8425;
1108.2000;0.3639;1.8474;
1108.5000;0.3639;1.8474;
1108.8000;0.3630;1.8400;
1109.1000;0.3622;1.8375;
1109.4000;0.3663;1.8474;
1109.7000;0.3639;1.8572;
1110.0000;0.3582;1.8425;
1110.3000;0.3622;1.8523;
1110.6000;0.3647;1.8498;
1110.9000;0.3647;1.8474;
1111.2000;0.3663;1.8548;
1111.5000;0.3647;1.8572;
1111.8000;0.3663;1.8646;
1112.1000;0.3655;1.8597;
1112.4000;0.3630;1.8621;
1112.7000;0.3614;1.8400;
1113.0000;0.3639;1.8523;
1113.3000;0.3606;1.8449;
1113.6000;0.3630;1.8425;
1113.9000;0.3630;1.8351;
1114.2000;0.3687;1.8425;
1114.5000;0.3647;1.8351;
1114.8000;0.3647;1.8375;
1115.1000;0.3630;1.8351;
1115.4000;0.3655;1.8425;
1115.7000;0.3647;1.8400;
1116.0000;0.3606;1.8252;
1116.3000;0.3622;1.8425;
1116.6000;0.3655;1.8474;
1116.9000;0.3655;1.8425;
1117.2000;0.3663;1.8474;
1117.5000;0.3639;1.8449;
1117.8000;0.3647;1.8375;
1118.1000;0.3622;1.8400;
1118.4000;0.3639;1.8498;
1118.7000;0.3622;1.8498;
1119.0000;0.3606;1.8375;
1119.3000;0.3630;1.8523;
1119.6000;0.3696;1.8695;
1119.9000;0.3655;1.8498;
1120.2000;0.3622;1.8400;
1120.5000;0.3639;1.8425;
1120.8000;0.3639;1.8498;
1121.1000;0.3655;1.8523;
1121.4000;0.3647;1.8548;
1121.7000;0.3655;1.8523;
1122.0000;0.3647;1.8523;
1122.3000;0.3647;1.8572;
1122.6000;0.3565;1.8351;
1122.9000;0.3639;1.8474;
1123.2000;0.3663;1.8474;
1123.5000;0.3639;1.8474;
1123.8000;0.3647;1.8498;
1124.1000;0.3639;1.8498;
1124.4000;0.3647;1.8425;
1124.7000;0.3630;1.8277;
1125.0000;0.3630;1.8302;
1125.3000;0.3639;1.8302;
1125.6000;0.3622;1.8302;
1125.9000;0.3663;1.8351;
1126.2000;0.3639;1.8302;
1126.5000;0.3647;1.8302;
1126.8000;0.3655;1.8326;
1127.1000;0.3639;1.8375;
1127.4000;0.3598;1.8252;
1127.7000;0.3639;1.8351;
1128.0000;0.3622;1.8400;
1128.3000;0.3639;1.8474;
1128.6000;0.3614;1.8425;
1128.9000;0.3630;1.8400;
1129.2000;0.3614;1.8375;
1129.5000;0.3647;1.8375;
1129.8000;0.3655;1.8425;
1130.1000;0.3679;1.8474;
1130.4000;0.3655;1.8375;
1130.7000;0.3639;1.8252;
1131.0000;0.3647;1.8302;
1131.3000;0.3590;1.8154;
1131.6000;0.3647;1.8400;
1131.9000;0.3630;1.8425;
1132.2000;0.3671;1.8449;
1132.5000;0.3647;1.8375;
1132.8000;0.3639;1.8375;
1133.1000;0.3630;1.8400;
1133.4000;0.3655;1.8498;
1133.7000;0.3639;1.8425;
1134.0000;0.3647;1.8425;
1134.3000;0.3639;1.8400;
1134.6000;0.3639;1.8425;
1134.9000;0.3630;1.8400;
1135.2000;0.3622;1.8425;
1135.5000;0.3630;1.8523;
1135.8000;0.3639;1.8548;
1136.1000;0.3639;1.8548;
1136.4000;0.3712;1.8818;
1136.7000;0.3639;1.8597;
1137.0000;0.3647;1.8548;
1137.3000;0.3647;1.8572;
1137.6000;0.3647;1.8572;
1137.9000;0.3647;1.8572;
1138.2000;0.3639;1.8548;
1138.5000;0.3630;1.8548;
1138.8000;0.3647;1.8523;
1139.1000;0.3647;1.8523;
1139.4000;0.3655;1.8474;
1139.7000;0.3655;1.8474;
1140.0000;0.3639;1.8474;
1140.3000;0.3663;1.8572;
1140.6000;0.3639;1.8572;
1140.9000;0.3639;1.8572;
1141.2000;0.3663;1.8597;
1141.5000;0.3582;1.8425;
1141.8000;0.3622;1.8572;
1142.1000;0.3630;1.8548;
1142.4000;0.3639;1.8572;
1142.7000;0.3639;1.8523;
1143.0000;0.3630;1.8523;
1143.3000;0.3639;1.8498;
1143.6000;0.3639;1.8498;
1143.9000;0.3614;1.8474;
1144.2000;0.3647;1.8425;
1144.5000;0.3639;1.8375;
1144.8000;0.3639;1.8474;
1145.1000;0.3655;1.8449;
1145.4000;0.3647;1.8400;
1145.7000;0.3630;1.8400;
1146.0000;0.3622;1.8326;
1146.3000;0.3639;1.8351;
1146.6000;0.3606;1.8252;
1146.9000;0.3630;1.8351;
1147.2000;0.3728;1.8523;
1147.5000;0.3655;1.8375;
1147.8000;0.3622;1.8375;
1148.1000;0.3687;1.8523;
1148.4000;0.3614;1.8474;
1148.7000;0.3639;1.8498;
1149.0000;0.3598;1.8375;
1149.3000;0.3647;1.8498;
1149.6000;0.3671;1.8523;
1149.9000;0.3622;1.8449;
1150.2000;0.3639;1.8548;
1150.5000;0.3630;1.8548;
1150.8000;0.3606;1.8474;
1151.1000;0.3655;1.8621;
1151.4000;0.3582;1.8548;
1151.7000;0.3639;1.8695;
1152.0000;0.3565;1.8425;
1152.3000;0.3622;1.8572;
1152.6000;0.3647;1.8646;
1152.9000;0.3663;1.8695;
1153.2000;0.3704;1.8720;
1153.5000;0.3606;1.8498;
1153.8000;0.3647;1.8572;
1154.1000;0.3639;1.8572;
1154.4000;0.3630;1.8498;
1154.7000;0.3622;1.8351;
1155.0000;0.3647;1.8375;
1155.3000;0.3582;1.8179;
1155.6000;0.3622;1.8277;
1155.9000;0.3622;1.8351;
1156.2000;0.3655;1.8474;
1156.5000;0.3647;1.8400;
1156.8000;0.3614;1.8474;
1157.1000;0.3647;1.8597;
1157.4000;0.3639;1.8597;
1157.7000;0.3639;1.8621;
1158.0000;0.3630;1.8671;
1158.3000;0.3622;1.8646;
1158.6000;0.3647;1.8621;
1158.9000;0.3647;1.8597;
1159.2000;0.3582;1.8449;
1159.5000;0.3606;1.8474;
1159.8000;0.3630;1.8449;
1160.1000;0.3679;1.8523;
1160.4000;0.3647;1.8474;
1160.7000;0.3663;1.8498;
1161.0000;0.3647;1.8474;
1161.3000;0.3639;1.8449;
1161.6000;0.3630;1.8474;
1161.9000;0.3663;1.8597;
1162.2000;0.3655;1.8572;
1162.5000;0.3622;1.8474;
1162.8000;0.3655;1.8523;
1163.1000;0.3639;1.8425;
1163.4000;0.3647;1.8498;
1163.7000;0.3663;1.8572;
1164.0000;0.3590;1.8375;
1164.3000;0.3647;1.8597;
1164.6000;0.3687;1.8671;
1164.9000;0.3647;1.8548;
1165.2000;0.3639;1.8548;
1165.5000;0.3614;1.8523;
1165.8000;0.3630;1.8646;
1166.1000;0.3639;1.8646;
1166.4000;0.3663;1.8671;
1166.7000;0.3598;1.8474;
1167.0000;0.3655;1.8621;
1167.3000;0.3647;1.8523;
1167.6000;0.3647;1.8523;
1167.9000;0.3647;1.8572;
1168.2000;0.3647;1.8572;
1168.5000;0.3712;1.8671;
1168.8000;0.3647;1.8498;
1169.1000;0.3655;1.8474;
1169.4000;0.3606;1.8375;
1169.7000;0.3614;1.8326;
1170.0000;0.3590;1.8326;
1170.3000;0.3630;1.8498;
1170.6000;0.3639;1.8597;
1170.9000;0.3663;1.8621;
1171.2000;0.3630;1.8498;
1171.5000;0.3639;1.8498;
1171.8000;0.3639;1.8548;
1172.1000;0.3655;1.8646;
1172.4000;0.3639;1.8597;
1172.7000;0.3663;1.8646;
1173.0000;0.3630;1.8621;
1173.3000;0.3630;1.8720;
1173.6000;0.3647;1.8671;
1173.9000;0.3630;1.8572;
1174.2000;0.3647;1.8548;
1174.5000;0.3655;1.8621;
1174.8000;0.3639;1.8572;
1175.1000;0.3614;1.8474;
1175.4000;0.3630;1.8572;
1175.7000;0.3630;1.8548;
1176.0000;0.3606;1.8523;
1176.3000;0.3614;1.8597;
1176.6000;0.3671;1.8720;
1176.9000;0.3679;1.8744;
1177.2000;0.3663;1.8671;
1177.5000;0.3639;1.8548;
1177.8000;0.3663;1.8572;
1178.1000;0.3663;1.8548;
1178.4000;0.3622;1.8449;
1178.7000;0.3639;1.8523;
1179.0000;0.3622;1.8548;
1179.3000;0.3647;1.8572;
1179.6000;0.3639;1.8474;
1179.9000;0.3614;1.8400;
1180.2000;0.3630;1.8474;
1180.5000;0.3622;1.8351;
1180.8000;0.3639;1.8375;
1181.1000;0.3647;1.8277;
1181.4000;0.3630;1.8302;
1181.7000;0.3622;1.8277;
1182.0000;0.3647;1.8351;
1182.3000;0.3647;1.8449;
1182.6000;0.3647;1.8375;
1182.9000;0.3622;1.8375;
1183.2000;0.3639;1.8302;
1183.5000;0.3639;1.8203;
1183.8000;0.3639;1.8302;
1184.1000;0.3622;1.8277;
1184.4000;0.3647;1.8400;
1184.7000;0.3630;1.8351;
1185.0000;0.3630;1.8351;
1185.3000;0.3630;1.8375;
1185.6000;0.3630;1.8425;
1185.9000;0.3647;1.8474;
1186.2000;0.3647;1.8498;
1186.5000;0.3622;1.8498;
1186.8000;0.3647;1.8548;
1187.1000;0.3630;1.8548;
1187.4000;0.3639;1.8548;
1187.7000;0.3647;1.8474;
1188.0000;0.3630;1.8425;
1188.3000;0.3630;1.8375;
1188.6000;0.3655;1.8400;
1188.9000;0.3663;1.8449;
1189.2000;0.3622;1.8351;
1189.5000;0.3582;1.8252;
1189.8000;0.3614;1.8302;
1190.1000;0.3622;1.8326;
1190.4000;0.3614;1.8351;
1190.7000;0.3606;1.8351;
1191.0000;0.3606;1.8326;
1191.3000;0.3582;1.8277;
1191.6000;0.3639;1.8375;
1191.9000;0.3647;1.8498;
1192.2000;0.3647;1.8449;
1192.5000;0.3639;1.8523;
1192.8000;0.3639;1.8498;
1193.1000;0.3622;1.8425;
1193.4000;0.3622;1.8400;
1193.7000;0.3630;1.8400;
1194.0000;0.3639;1.8474;
1194.3000;0.3622;1.8449;
1194.6000;0.3655;1.8498;
1194.9000;0.3614;1.8351;
1195.2000;0.3630;1.8302;
1195.5000;0.3614;1.8277;
1195.8000;0.3655;1.8375;
1196.1000;0.3630;1.8375;
1196.4000;0.3639;1.8400;
1196.7000;0.3630;1.8375;
1197.0000;0.3630;1.8351;
1197.3000;0.3639;1.8375;
1197.6000;0.3647;1.8498;
1197.9000;0.3639;1.8498;
1198.2000;0.3598;1.8400;
1198.5000;0.3639;1.8523;
1198.8000;0.3647;1.8498;
1199.1000;0.3639;1.8548;
1199.4000;0.3622;1.8498;
1199.7000;0.3630;1.8523;
1200.0000;0.3639;1.8646;
1200.3000;0.3614;1.8548;
1200.6000;0.3606;1.8498;
1200.9000;0.3614;1.8523;
1201.2000;0.3630;1.8425;
1201.5000;0.3622;1.8351;
1201.8000;0.3639;1.8351;
1202.1000;0.3687;1.8425;
1202.4000;0.3630;1.8351;
1202.7000;0.3639;1.8400;
1203.0000;0.3630;1.8449;
1203.3000;0.3606;1.8425;
1203.6000;0.3639;1.8548;
1203.9000;0.3630;1.8548;
1204.2000;0.3639;1.8548;
1204.5000;0.3630;1.8621;
1204.8000;0.3622;1.8646;
1205.1000;0.3639;1.8597;
1205.4000;0.3622;1.8572;
1205.7000;0.3622;1.8523;
1206.0000;0.3622;1.8548;
1206.3000;0.3647;1.8548;
1206.6000;0.3630;1.8498;
1206.9000;0.3647;1.8474;
1207.2000;0.3639;1.8449;
1207.5000;0.3639;1.8474;
1207.8000;0.3639;1.8449;
1208.1000;0.3630;1.8474;
1208.4000;0.3639;1.8572;
1208.7000;0.3639;1.8523;
1209.0000;0.3655;1.8474;
1209.3000;0.3647;1.8474;
1209.6000;0.3671;1.8523;
1209.9000;0.3639;1.8449;
1210.2000;0.3696;1.8597;
1210.5000;0.3622;1.8375;
1210.8000;0.3639;1.8449;
1211.1000;0.3647;1.8425;
1211.4000;0.3647;1.8474;
1211.7000;0.3630;1.8474;
1212.0000;0.3639;1.8523;
1212.3000;0.3639;1.8449;
1212.6000;0.3647;1.8474;
1212.9000;0.3630;1.8548;
1213.2000;0.3622;1.8597;
1213.5000;0.3606;1.8523;
1213.8000;0.3639;1.8621;
1214.1000;0.3622;1.8572;
1214.4000;0.3639;1.8646;
1214.7000;0.3663;1.8646;
1215.0000;0.3630;1.8621;
1215.3000;0.3639;1.8671;
1215.6000;0.3647;1.8646;
1215.9000;0.3647;1.8621;
1216.2000;0.3622;1.8474;
1216.5000;0.3630;1.8498;
1216.8000;0.3639;1.8548;
1217.1000;0.3639;1.8474;
1217.4000;0.3622;1.8326;
1217.7000;0.3639;1.8400;
1218.0000;0.3639;1.8375;
1218.3000;0.3639;1.8351;
1218.6000;0.3622;1.8326;
1218.9000;0.3639;1.8326;
1219.2000;0.3647;1.8351;
1219.5000;0.3647;1.8302;
1219.8000;0.3622;1.8252;
1220.1000;0.3639;1.8326;
1220.4000;0.3647;1.8425;
1220.7000;0.3582;1.8277;
1221.0000;0.3622;1.8351;
1221.3000;0.3614;1.8375;
1221.6000;0.3630;1.8449;
1221.9000;0.3639;1.8425;
1222.2000;0.3647;1.8400;
1222.5000;0.3639;1.8375;
1222.8000;0.3696;1.8597;
1223.1000;0.3630;1.8523;
1223.4000;0.3647;1.8523;
1223.7000;0.3687;1.8597;
1224.0000;0.3639;1.8449;
1224.3000;0.3647;1.8498;
1224.6000;0.3647;1.8498;
1224.9000;0.3639;1.8474;
1225.2000;0.3679;1.8449;
1225.5000;0.3647;1.8449;
1225.8000;0.3655;1.8548;
1226.1000;0.3614;1.8474;
1226.4000;0.3639;1.8548;
1226.7000;0.3622;1.8523;
1227.0000;0.3614;1.8474;
1227.3000;0.3606;1.8523;
1227.6000;0.3630;1.8548;
1227.9000;0.3630;1.8548;
1228.2000;0.3614;1.8523;
1228.5000;0.3622;1.8523;
1228.8000;0.3598;1.8548;
1229.1000;0.3647;1.8744;
1229.4000;0.3598;1.8597;
1229.7000;0.3622;1.8597;
1230.0000;0.3630;1.8572;
1230.3000;0.3655;1.8646;
1230.6000;0.3622;1.8597;
1230.9000;0.3647;1.8621;
1231.2000;0.3639;1.8572;
1231.5000;0.3614;1.8597;
1231.8000;0.3630;1.8621;
1232.1000;0.3639;1.8572;
1232.4000;0.3630;1.8548;
1232.7000;0.3622;1.8523;
1233.0000;0.3647;1.8597;
1233.3000;0.3647;1.8621;
1233.6000;0.3655;1.8621;
1233.9000;0.3630;1.8572;
1234.2000;0.3647;1.8572;
1234.5000;0.3647;1.8548;
1234.8000;0.3647;1.8548;
1235.1000;0.3647;1.8572;
1235.4000;0.3647;1.8597;
1235.7000;0.3630;1.8572;
1236.0000;0.3639;1.8523;
1236.3000;0.3639;1.8597;
1236.6000;0.3630;1.8597;
1236.9000;0.3647;1.8597;
1237.2000;0.3614;1.8548;
1237.5000;0.3630;1.8548;
1237.8000;0.3606;1.8498;
1238.1000;0.3630;1.8572;
1238.4000;0.3614;1.8498;
1238.7000;0.3679;1.8646;
1239.0000;0.3622;1.8523;
1239.3000;0.3622;1.8400;
1239.6000;0.3704;1.8621;
1239.9000;0.3639;1.8474;
1240.2000;0.3622;1.8498;
1240.5000;0.3630;1.8449;
1240.8000;0.3671;1.8498;
1241.1000;0.3622;1.8400;
1241.4000;0.3630;1.8375;
1241.7000;0.3647;1.8425;
1242.0000;0.3639;1.8498;
1242.3000;0.3639;1.8474;
1242.6000;0.3639;1.8375;
1242.9000;0.3639;1.8449;
1243.2000;0.3622;1.8449;
1243.5000;0.3679;1.8597;
1243.8000;0.3663;1.8498;
1244.1000;0.3622;1.8302;
1244.4000;0.3663;1.8425;
1244.7000;0.3622;1.8326;
1245.0000;0.3630;1.8302;
1245.3000;0.3630;1.8228;
1245.6000;0.3639;1.8203;
1245.9000;0.3639;1.8277;
1246.2000;0.3639;1.8302;
1246.5000;0.3639;1.8302;
1246.8000;0.3639;1.8351;
1247.1000;0.3598;1.8277;
1247.4000;0.3655;1.8375;
1247.7000;0.3639;1.8375;
1248.0000;0.3598;1.8252;
1248.3000;0.3655;1.8228;
1248.6000;0.3622;1.8080;
1248.9000;0.3671;1.8154;
1249.2000;0.3614;1.8006;
1249.5000;0.3622;1.8056;
1249.8000;0.3647;1.8154;
1250.1000;0.3630;1.8105;
1250.4000;0.3614;1.8129;
1250.7000;0.3614;1.8154;
1251.0000;0.3614;1.8203;
1251.3000;0.3630;1.8302;
1251.6000;0.3630;1.8351;
1251.9000;0.3622;1.8375;
1252.2000;0.3622;1.8425;
1252.5000;0.3630;1.8375;
1252.8000;0.3630;1.8351;
1253.1000;0.3655;1.8449;
1253.4000;0.3614;1.8425;
1253.7000;0.3639;1.8375;
1254.0000;0.3614;1.8277;
1254.3000;0.3630;1.8351;
1254.6000;0.3647;1.8375;
1254.9000;0.3647;1.8351;
1255.2000;0.3614;1.8252;
1255.5000;0.3655;1.8277;
1255.8000;0.3630;1.8154;
1256.1000;0.3639;1.8326;
1256.4000;0.3655;1.8351;
1256.7000;0.3630;1.8277;
1257.0000;0.3614;1.8277;
1257.3000;0.3630;1.8375;
1257.6000;0.3647;1.8498;
1257.9000;0.3647;1.8572;
1258.2000;0.3630;1.8523;
1258.5000;0.3639;1.8572;
1258.8000;0.3582;1.8375;
1259.1000;0.3639;1.8425;
1259.4000;0.3598;1.8302;
1259.7000;0.3639;1.8474;
1260.0000;0.3606;1.8302;
1260.3000;0.3639;1.8375;
1260.6000;0.3622;1.8252;
1260.9000;0.3630;1.8326;
1261.2000;0.3598;1.8375;
1261.5000;0.3590;1.8375;
1261.8000;0.3622;1.8498;
1262.1000;0.3622;1.8474;
1262.4000;0.3639;1.8400;
1262.7000;0.3639;1.8400;
1263.0000;0.3647;1.8351;
1263.3000;0.3630;1.8326;
1263.6000;0.3622;1.8302;
1263.9000;0.3630;1.8375;
1264.2000;0.3655;1.8449;
1264.5000;0.3622;1.8400;
1264.8000;0.3630;1.8425;
1265.1000;0.3622;1.8449;
1265.4000;0.3622;1.8425;
1265.7000;0.3647;1.8474;
1266.0000;0.3647;1.8449;
1266.3000;0.3639;1.8498;
1266.6000;0.3630;1.8375;
1266.9000;0.3622;1.8326;
1267.2000;0.3630;1.8326;
1267.5000;0.3655;1.8425;
1267.8000;0.3622;1.8326;
1268.1000;0.3622;1.8375;
1268.4000;0.3630;1.8351;
1268.7000;0.3639;1.8400;
1269.0000;0.3630;1.8375;
1269.3000;0.3622;1.8375;
1269.6000;0.3639;1.8449;
1269.9000;0.3630;1.8498;
1270.2000;0.3655;1.8572;
1270.5000;0.3639;1.8597;
1270.8000;0.3639;1.8498;
1271.1000;0.3647;1.8548;
1271.4000;0.3630;1.8498;
1271.7000;0.3630;1.8498;
1272.0000;0.3630;1.8449;
1272.3000;0.3679;1.8548;
1272.6000;0.3647;1.8375;
1272.9000;0.3622;1.8252;
1273.2000;0.3614;1.8203;
1273.5000;0.3598;1.8203;
1273.8000;0.3639;1.8277;
1274.1000;0.3622;1.8302;
1274.4000;0.3622;1.8252;
1274.7000;0.3630;1.8252;
1275.0000;0.3639;1.8203;
1275.3000;0.3622;1.8179;
1275.6000;0.3630;1.8179;
1275.9000;0.3655;1.8228;
1276.2000;0.3630;1.8252;
1276.5000;0.3647;1.8252;
1276.8000;0.3639;1.8252;
1277.1000;0.3639;1.8228;
1277.4000;0.3663;1.8302;
1277.7000;0.3639;1.8375;
1278.0000;0.3647;1.8425;
1278.3000;0.3622;1.8326;
1278.6000;0.3614;1.8277;
1278.9000;0.3622;1.8326;
1279.2000;0.3639;1.8228;
1279.5000;0.3639;1.8228;
1279.8000;0.3622;1.8203;
1280.1000;0.3655;1.8302;
1280.4000;0.3655;1.8252;
1280.7000;0.3655;1.8203;
1281.0000;0.3630;1.8203;
1281.3000;0.3639;1.8228;
1281.6000;0.3647;1.8326;
1281.9000;0.3647;1.8375;
1282.2000;0.3630;1.8400;
1282.5000;0.3663;1.8400;
1282.8000;0.3655;1.8302;
1283.1000;0.3622;1.8326;
1283.4000;0.3639;1.8425;
1283.7000;0.3590;1.8302;
1284.0000;0.3663;1.8400;
1284.3000;0.3590;1.8351;
1284.6000;0.3630;1.8400;
1284.9000;0.3630;1.8375;
1285.2000;0.3639;1.8326;
1285.5000;0.3639;1.8375;
1285.8000;0.3647;1.8375;
1286.1000;0.3655;1.8400;
1286.4000;0.3622;1.8228;
1286.7000;0.3647;1.8375;
1287.0000;0.3647;1.8375;
1287.3000;0.3647;1.8425;
1287.6000;0.3630;1.8449;
1287.9000;0.3630;1.8474;
1288.2000;0.3622;1.8425;
1288.5000;0.3655;1.8400;
1288.8000;0.3630;1.8277;
1289.1000;0.3679;1.8400;
1289.4000;0.3622;1.8302;
1289.7000;0.3622;1.8228;
1290.0000;0.3630;1.8351;
1290.3000;0.3639;1.8400;
1290.6000;0.3663;1.8425;
1290.9000;0.3630;1.8277;
1291.2000;0.3622;1.8203;
1291.5000;0.3647;1.8252;
1291.8000;0.3655;1.8302;
1292.1000;0.3622;1.8228;
1292.4000;0.3606;1.8203;
1292.7000;0.3614;1.8228;
1293.0000;0.3630;1.8277;
1293.3000;0.3622;1.8375;
1293.6000;0.3630;1.8425;
1293.9000;0.3630;1.8449;
1294.2000;0.3606;1.8351;
1294.5000;0.3647;1.8523;
1294.8000;0.3622;1.8523;
1295.1000;0.3606;1.8523;
1295.4000;0.3639;1.8646;
1295.7000;0.3663;1.8621;
1296.0000;0.3655;1.8548;
1296.3000;0.3630;1.8548;
1296.6000;0.3614;1.8572;
1296.9000;0.3639;1.8646;
1297.2000;0.3647;1.8695;
1297.5000;0.3614;1.8572;
1297.8000;0.3614;1.8425;
1298.1000;0.3630;1.8351;
1298.4000;0.3639;1.8375;
1298.7000;0.3622;1.8425;
1299.0000;0.3630;1.8474;
1299.3000;0.3639;1.8449;
1299.6000;0.3639;1.8351;
1299.9000;0.3622;1.8302;
1300.2000;0.3590;1.8179;
1300.5000;0.3622;1.8252;
1300.8000;0.3639;1.8375;
1301.1000;0.3630;1.8523;
1301.4000;0.3606;1.8375;
1301.7000;0.3655;1.8523;
1302.0000;0.3630;1.8425;
1302.3000;0.3647;1.8523;
1302.6000;0.3622;1.8277;
1302.9000;0.3630;1.8203;
1303.2000;0.3630;1.8252;
1303.5000;0.3630;1.8179;
1303.8000;0.3622;1.8179;
1304.1000;0.3614;1.8105;
1304.4000;0.3647;1.8179;
1304.7000;0.3639;1.8302;
1305.0000;0.3647;1.8351;
1305.3000;0.3655;1.8449;
1305.6000;0.3647;1.8425;
1305.9000;0.3655;1.8449;
1306.2000;0.3647;1.8375;
1306.5000;0.3630;1.8400;
1306.8000;0.3639;1.8449;
1307.1000;0.3622;1.8400;
1307.4000;0.3598;1.8277;
1307.7000;0.3573;1.8154;
1308.0000;0.3557;1.8056;
1308.3000;0.3630;1.8228;
1308.6000;0.3696;1.8326;
1308.9000;0.3663;1.8302;
1309.2000;0.3630;1.8154;
1309.5000;0.3614;1.8080;
1309.8000;0.3606;1.8129;
1310.1000;0.3639;1.8105;
1310.4000;0.3630;1.8031;
1310.7000;0.3622;1.8129;
1311.0000;0.3614;1.8129;
1311.3000;0.3630;1.8228;
1311.6000;0.3630;1.8326;
1311.9000;0.3630;1.8351;
1312.2000;0.3655;1.8326;
1312.5000;0.3647;1.8252;
1312.8000;0.3647;1.8203;
1313.1000;0.3630;1.8252;
1313.4000;0.3630;1.8351;
1313.7000;0.3606;1.8326;
1314.0000;0.3639;1.8351;
1314.3000;0.3639;1.8474;
1314.6000;0.3647;1.8449;
1314.9000;0.3639;1.8425;
1315.2000;0.3647;1.8449;
1315.5000;0.3663;1.8449;
1315.8000;0.3647;1.8400;
1316.1000;0.3655;1.8474;
1316.4000;0.3663;1.8548;
1316.7000;0.3720;1.8671;
1317.0000;0.3639;1.8474;
1317.3000;0.3630;1.8425;
1317.6000;0.3630;1.8277;
1317.9000;0.3630;1.8203;
1318.2000;0.3671;1.8302;
1318.5000;0.3630;1.8228;
1318.8000;0.3639;1.8252;
1319.1000;0.3622;1.8252;
1319.4000;0.3647;1.8277;
1319.7000;0.3647;1.8302;
1320.0000;0.3639;1.8351;
1320.3000;0.3622;1.8449;
1320.6000;0.3614;1.8375;
1320.9000;0.3614;1.8375;
1321.2000;0.3647;1.8498;
1321.5000;0.3614;1.8498;
1321.8000;0.3639;1.8597;
1322.1000;0.3606;1.8548;
1322.4000;0.3630;1.8523;
1322.7000;0.3630;1.8572;
1323.0000;0.3614;1.8572;
1323.3000;0.3598;1.8523;
1323.6000;0.3622;1.8572;
1323.9000;0.3630;1.8548;
1324.2000;0.3639;1.8572;
1324.5000;0.3614;1.8498;
1324.8000;0.3622;1.8498;
1325.1000;0.3639;1.8523;
1325.4000;0.3639;1.8572;
1325.7000;0.3622;1.8572;
1326.0000;0.3598;1.8523;
1326.3000;0.3655;1.8646;
1326.6000;0.3655;1.8548;
1326.9000;0.3663;1.8548;
1327.2000;0.3647;1.8548;
1327.5000;0.3655;1.8548;
1327.8000;0.3639;1.8474;
1328.1000;0.3622;1.8474;
1328.4000;0.3639;1.8523;
1328.7000;0.3639;1.8474;
1329.0000;0.3647;1.8474;
1329.3000;0.3630;1.8498;
1329.6000;0.3639;1.8449;
1329.9000;0.3630;1.8449;
1330.2000;0.3647;1.8548;
1330.5000;0.3671;1.8548;
1330.8000;0.3622;1.8302;
1331.1000;0.3630;1.8375;
1331.4000;0.3614;1.8375;
1331.7000;0.3639;1.8351;
1332.0000;0.3639;1.8375;
1332.3000;0.3630;1.8302;
1332.6000;0.3647;1.8351;
1332.9000;0.3630;1.8252;
1333.2000;0.3639;1.8179;
1333.5000;0.3630;1.8203;
1333.8000;0.3647;1.8179;
1334.1000;0.3630;1.8228;
1334.4000;0.3630;1.8252;
1334.7000;0.3622;1.8252;
1335.0000;0.3639;1.8302;
1335.3000;0.3606;1.8179;
1335.6000;0.3630;1.8326;
1335.9000;0.3647;1.8228;
1336.2000;0.3639;1.8228;
1336.5000;0.3614;1.8203;
1336.8000;0.3647;1.8302;
1337.1000;0.3639;1.8351;
1337.4000;0.3630;1.8351;
1337.7000;0.3630;1.8425;
1338.0000;0.3639;1.8425;
1338.3000;0.3622;1.8400;
1338.6000;0.3655;1.8474;
1338.9000;0.3639;1.8400;
1339.2000;0.3647;1.8400;
1339.5000;0.3647;1.8400;
1339.8000;0.3655;1.8351;
1340.1000;0.3639;1.8375;
1340.4000;0.3647;1.8351;
1340.7000;0.3639;1.8351;
1341.0000;0.3614;1.8252;
1341.3000;0.3655;1.8425;
1341.6000;0.3647;1.8425;
1341.9000;0.3639;1.8449;
1342.2000;0.3630;1.8375;
1342.5000;0.3647;1.8302;
1342.8000;0.3622;1.8179;
1343.1000;0.3573;1.8105;
1343.4000;0.3696;1.8474;
1343.7000;0.3630;1.8351;
1344.0000;0.3639;1.8400;
1344.3000;0.3639;1.8425;
1344.6000;0.3630;1.8351;
1344.9000;0.3639;1.8375;
1345.2000;0.3630;1.8449;
1345.5000;0.3630;1.8474;
1345.8000;0.3639;1.8523;
1346.1000;0.3630;1.8498;
1346.4000;0.3622;1.8548;
1346.7000;0.3639;1.8498;
1347.0000;0.3639;1.8523;
1347.3000;0.3622;1.8548;
1347.6000;0.3622;1.8597;
1347.9000;0.3614;1.8523;
1348.2000;0.3687;1.8720;
1348.5000;0.3647;1.8572;
1348.8000;0.3630;1.8646;
1349.1000;0.3622;1.8671;
1349.4000;0.3639;1.8744;
1349.7000;0.3630;1.8769;
1350.0000;0.3639;1.8794;
1350.3000;0.3647;1.8794;
1350.6000;0.3630;1.8695;
1350.9000;0.3639;1.8769;
1351.2000;0.3630;1.8744;
1351.5000;0.3639;1.8769;
1351.8000;0.3655;1.8769;
1352.1000;0.3647;1.8843;
1352.4000;0.3647;1.8794;
1352.7000;0.3630;1.8769;
1353.0000;0.3647;1.8695;
1353.3000;0.3630;1.8597;
1353.6000;0.3663;1.8621;
1353.9000;0.3647;1.8597;
1354.2000;0.3639;1.8523;
1354.5000;0.3655;1.8572;
1354.8000;0.3630;1.8523;
1355.1000;0.3647;1.8621;
1355.4000;0.3655;1.8597;
1355.7000;0.3639;1.8621;
1356.0000;0.3704;1.8794;
1356.3000;0.3630;1.8548;
1356.6000;0.3630;1.8646;
1356.9000;0.3647;1.8597;
1357.2000;0.3712;1.8744;
1357.5000;0.3639;1.8621;
1357.8000;0.3630;1.8572;
1358.1000;0.3630;1.8597;
1358.4000;0.3655;1.8523;
1358.7000;0.3639;1.8375;
1359.0000;0.3630;1.8400;
1359.3000;0.3622;1.8375;
1359.6000;0.3639;1.8375;
1359.9000;0.3630;1.8400;
1360.2000;0.3622;1.8351;
1360.5000;0.3614;1.8425;
1360.8000;0.3630;1.8498;
1361.1000;0.3622;1.8498;
1361.4000;0.3622;1.8474;
1361.7000;0.3614;1.8498;
1362.0000;0.3630;1.8474;
1362.3000;0.3663;1.8523;
1362.6000;0.3639;1.8474;
1362.9000;0.3647;1.8523;
1363.2000;0.3639;1.8474;
1363.5000;0.3639;1.8400;
1363.8000;0.3647;1.8400;
1364.1000;0.3639;1.8375;
1364.4000;0.3655;1.8375;
1364.7000;0.3655;1.8351;
1365.0000;0.3639;1.8375;
1365.3000;0.3630;1.8351;
1365.6000;0.3639;1.8351;
1365.9000;0.3655;1.8425;
1366.2000;0.3639;1.8474;
1366.5000;0.3622;1.8548;
1366.8000;0.3647;1.8572;
1367.1000;0.3614;1.8523;
1367.4000;0.3614;1.8474;
1367.7000;0.3630;1.8498;
1368.0000;0.3606;1.8498;
1368.3000;0.3630;1.8572;
1368.6000;0.3590;1.8498;
1368.9000;0.3639;1.8621;
1369.2000;0.3630;1.8572;
1369.5000;0.3622;1.8523;
1369.8000;0.3639;1.8523;
1370.1000;0.3622;1.8400;
1370.4000;0.3622;1.8449;
1370.7000;0.3606;1.8351;
1371.0000;0.3639;1.8425;
1371.3000;0.3630;1.8498;
1371.6000;0.3622;1.8523;
1371.9000;0.3630;1.8572;
1372.2000;0.3606;1.8449;
1372.5000;0.3614;1.8523;
1372.8000;0.3639;1.8498;
1373.1000;0.3630;1.8400;
1373.4000;0.3630;1.8375;
1373.7000;0.3622;1.8302;
1374.0000;0.3647;1.8326;
1374.3000;0.3647;1.8326;
1374.6000;0.3622;1.8326;
1374.9000;0.3663;1.8425;
1375.2000;0.3622;1.8252;
1375.5000;0.3696;1.8474;
1375.8000;0.3630;1.8326;
1376.1000;0.3639;1.8425;
1376.4000;0.3639;1.8375;
1376.7000;0.3639;1.8400;
1377.0000;0.3630;1.8498;
1377.3000;0.3696;1.8671;
1377.6000;0.3712;1.8671;
1377.9000;0.3622;1.8449;
1378.2000;0.3630;1.8548;
1378.5000;0.3655;1.8572;
1378.8000;0.3647;1.8449;
1379.1000;0.3630;1.8400;
1379.4000;0.3630;1.8375;
1379.7000;0.3630;1.8302;
1380.0000;0.3582;1.8277;
1380.3000;0.3622;1.8302;
1380.6000;0.3647;1.8326;
1380.9000;0.3655;1.8400;
1381.2000;0.3687;1.8523;
1381.5000;0.3647;1.8449;
1381.8000;0.3614;1.8302;
1382.1000;0.3639;1.8400;
1382.4000;0.3647;1.8449;
1382.7000;0.3647;1.8449;
1383.0000;0.3639;1.8425;
1383.3000;0.3630;1.8425;
1383.6000;0.3655;1.8498;
1383.9000;0.3639;1.8400;
1384.2000;0.3639;1.8400;
1384.5000;0.3630;1.8326;
1384.8000;0.3598;1.8252;
1385.1000;0.3639;1.8400;
1385.4000;0.3630;1.8474;
1385.7000;0.3622;1.8498;
1386.0000;0.3639;1.8523;
1386.3000;0.3679;1.8646;
1386.6000;0.3647;1.8474;
1386.9000;0.3639;1.8425;
1387.2000;0.3639;1.8375;
1387.5000;0.3655;1.8425;
1387.8000;0.3598;1.8375;
1388.1000;0.3647;1.8498;
1388.4000;0.3647;1.8572;
1388.7000;0.3639;1.8572;
1389.0000;0.3598;1.8498;
1389.3000;0.3671;1.8720;
1389.6000;0.3614;1.8597;
1389.9000;0.3622;1.8646;
1390.2000;0.3630;1.8671;
1390.5000;0.3639;1.8548;
1390.8000;0.3614;1.8425;
1391.1000;0.3622;1.8523;
1391.4000;0.3647;1.8646;
1391.7000;0.3622;1.8671;
1392.0000;0.3630;1.8720;
1392.3000;0.3639;1.8744;
1392.6000;0.3630;1.8720;
1392.9000;0.3639;1.8769;
1393.2000;0.3622;1.8744;
1393.5000;0.3647;1.8794;
1393.8000;0.3630;1.8720;
1394.1000;0.3630;1.8597;
1394.4000;0.3622;1.8621;
1394.7000;0.3622;1.8572;
1395.0000;0.3639;1.8523;
1395.3000;0.3647;1.8449;
1395.6000;0.3639;1.8474;
1395.9000;0.3630;1.8400;
1396.2000;0.3622;1.8277;
1396.5000;0.3622;1.8302;
1396.8000;0.3647;1.8449;
1397.1000;0.3630;1.8400;
1397.4000;0.3639;1.8498;
1397.7000;0.3630;1.8498;
1398.0000;0.3639;1.8425;
1398.3000;0.3639;1.8302;
1398.6000;0.3630;1.8277;
1398.9000;0.3647;1.8351;
1399.2000;0.3655;1.8351;
1399.5000;0.3655;1.8400;
1399.8000;0.3647;1.8351;
