time/ms;Fluo/V;P700 deltaI/I x10³;
-199.8000;0.4567;0.8732;
-199.5000;0.4567;0.8802;
-199.2000;0.4534;0.8685;
-198.9000;0.4550;0.8614;
-198.6000;0.4575;0.8614;
-198.3000;0.4567;0.8638;
-198.0000;0.4567;0.8614;
-197.7000;0.4550;0.8638;
-197.4000;0.4558;0.8708;
-197.1000;0.4567;0.8732;
-196.8000;0.4567;0.8732;
-196.5000;0.4567;0.8638;
-196.2000;0.4550;0.8567;
-195.9000;0.4534;0.8567;
-195.6000;0.4550;0.8591;
-195.3000;0.4542;0.8544;
-195.0000;0.4518;0.8520;
-194.7000;0.4558;0.8685;
-194.4000;0.4558;0.8544;
-194.1000;0.4558;0.8544;
-193.8000;0.4558;0.8614;
-193.5000;0.4567;0.8685;
-193.2000;0.4567;0.8708;
-192.9000;0.4567;0.8708;
-192.6000;0.4567;0.8685;
-192.3000;0.4558;0.8614;
-192.0000;0.4567;0.8661;
-191.7000;0.4558;0.8638;
-191.4000;0.4567;0.8685;
-191.1000;0.4550;0.8685;
-190.8000;0.4567;0.8591;
-190.5000;0.4558;0.8567;
-190.2000;0.4567;0.8661;
-189.9000;0.4575;0.8661;
-189.6000;0.4558;0.8544;
-189.3000;0.4567;0.8591;
-189.0000;0.4558;0.8567;
-188.7000;0.4550;0.8544;
-188.4000;0.4542;0.8520;
-188.1000;0.4575;0.8614;
-187.8000;0.4558;0.8638;
-187.5000;0.4534;0.8638;
-187.2000;0.4534;0.8591;
-186.9000;0.4558;0.8685;
-186.6000;0.4558;0.8638;
-186.3000;0.4558;0.8661;
-186.0000;0.4542;0.8638;
-185.7000;0.4550;0.8520;
-185.4000;0.4550;0.8520;
-185.1000;0.4550;0.8450;
-184.8000;0.4550;0.8403;
-184.5000;0.4558;0.8520;
-184.2000;0.4583;0.8614;
-183.9000;0.4567;0.8544;
-183.6000;0.4558;0.8544;
-183.3000;0.4575;0.8567;
-183.0000;0.4567;0.8614;
-182.7000;0.4567;0.8567;
-182.4000;0.4558;0.8567;
-182.1000;0.4558;0.8591;
-181.8000;0.4567;0.8614;
-181.5000;0.4558;0.8591;
-181.2000;0.4567;0.8591;
-180.9000;0.4558;0.8544;
-180.6000;0.4558;0.8497;
-180.3000;0.4567;0.8497;
-180.0000;0.4567;0.8426;
-179.7000;0.4558;0.8403;
-179.4000;0.4567;0.8403;
-179.1000;0.4542;0.8379;
-178.8000;0.4558;0.8520;
-178.5000;0.4575;0.8473;
-178.2000;0.4567;0.8473;
-177.9000;0.4575;0.8567;
-177.6000;0.4558;0.8544;
-177.3000;0.4558;0.8497;
-177.0000;0.4567;0.8426;
-176.7000;0.4567;0.8403;
-176.4000;0.4567;0.8403;
-176.1000;0.4558;0.8426;
-175.8000;0.4575;0.8426;
-175.5000;0.4558;0.8403;
-175.2000;0.4558;0.8473;
-174.9000;0.4558;0.8567;
-174.6000;0.4558;0.8567;
-174.3000;0.4558;0.8614;
-174.0000;0.4575;0.8567;
-173.7000;0.4485;0.8332;
-173.4000;0.4558;0.8591;
-173.1000;0.4567;0.8544;
-172.8000;0.4575;0.8520;
-172.5000;0.4575;0.8497;
-172.2000;0.4567;0.8450;
-171.9000;0.4542;0.8426;
-171.6000;0.4575;0.8450;
-171.3000;0.4550;0.8450;
-171.0000;0.4558;0.8544;
-170.7000;0.4567;0.8520;
-170.4000;0.4550;0.8520;
-170.1000;0.4558;0.8520;
-169.8000;0.4550;0.8473;
-169.5000;0.4550;0.8473;
-169.2000;0.4542;0.8497;
-168.9000;0.4575;0.8638;
-168.6000;0.4567;0.8685;
-168.3000;0.4558;0.8614;
-168.0000;0.4567;0.8591;
-167.7000;0.4656;0.8966;
-167.4000;0.4550;0.8661;
-167.1000;0.4567;0.8661;
-166.8000;0.4567;0.8661;
-166.5000;0.4526;0.8591;
-166.2000;0.4599;0.8778;
-165.9000;0.4550;0.8638;
-165.6000;0.4550;0.8544;
-165.3000;0.4534;0.8497;
-165.0000;0.4567;0.8614;
-164.7000;0.4567;0.8661;
-164.4000;0.4567;0.8591;
-164.1000;0.4550;0.8544;
-163.8000;0.4567;0.8473;
-163.5000;0.4477;0.8192;
-163.2000;0.4558;0.8403;
-162.9000;0.4575;0.8426;
-162.6000;0.4534;0.8426;
-162.3000;0.4542;0.8379;
-162.0000;0.4550;0.8473;
-161.7000;0.4558;0.8520;
-161.4000;0.4567;0.8614;
-161.1000;0.4567;0.8661;
-160.8000;0.4567;0.8661;
-160.5000;0.4583;0.8638;
-160.2000;0.4575;0.8497;
-159.9000;0.4567;0.8544;
-159.6000;0.4558;0.8544;
-159.3000;0.4567;0.8473;
-159.0000;0.4550;0.8473;
-158.7000;0.4567;0.8520;
-158.4000;0.4550;0.8473;
-158.1000;0.4542;0.8591;
-157.8000;0.4558;0.8708;
-157.5000;0.4485;0.8497;
-157.2000;0.4558;0.8638;
-156.9000;0.4550;0.8544;
-156.6000;0.4567;0.8591;
-156.3000;0.4550;0.8614;
-156.0000;0.4575;0.8614;
-155.7000;0.4558;0.8591;
-155.4000;0.4558;0.8591;
-155.1000;0.4558;0.8614;
-154.8000;0.4575;0.8638;
-154.5000;0.4575;0.8614;
-154.2000;0.4567;0.8614;
-153.9000;0.4575;0.8567;
-153.6000;0.4567;0.8567;
-153.3000;0.4575;0.8614;
-153.0000;0.4493;0.8426;
-152.7000;0.4567;0.8732;
-152.4000;0.4575;0.8638;
-152.1000;0.4542;0.8497;
-151.8000;0.4550;0.8520;
-151.5000;0.4501;0.8309;
-151.2000;0.4510;0.8309;
-150.9000;0.4575;0.8497;
-150.6000;0.4558;0.8473;
-150.3000;0.4575;0.8544;
-150.0000;0.4640;0.8755;
-149.7000;0.4575;0.8591;
-149.4000;0.4607;0.8732;
-149.1000;0.4558;0.8544;
-148.8000;0.4518;0.8450;
-148.5000;0.4567;0.8544;
-148.2000;0.4567;0.8567;
-147.9000;0.4542;0.8544;
-147.6000;0.4567;0.8614;
-147.3000;0.4558;0.8567;
-147.0000;0.4542;0.8591;
-146.7000;0.4550;0.8567;
-146.4000;0.4624;0.8755;
-146.1000;0.4575;0.8661;
-145.8000;0.4575;0.8638;
-145.5000;0.4607;0.8732;
-145.2000;0.4542;0.8567;
-144.9000;0.4542;0.8520;
-144.6000;0.4591;0.8638;
-144.3000;0.4558;0.8520;
-144.0000;0.4567;0.8497;
-143.7000;0.4583;0.8567;
-143.4000;0.4567;0.8614;
-143.1000;0.4567;0.8685;
-142.8000;0.4550;0.8661;
-142.5000;0.4558;0.8685;
-142.2000;0.4501;0.8544;
-141.9000;0.4567;0.8755;
-141.6000;0.4550;0.8708;
-141.3000;0.4550;0.8614;
-141.0000;0.4550;0.8614;
-140.7000;0.4575;0.8614;
-140.4000;0.4542;0.8591;
-140.1000;0.4550;0.8591;
-139.8000;0.4567;0.8638;
-139.5000;0.4558;0.8567;
-139.2000;0.4550;0.8614;
-138.9000;0.4558;0.8755;
-138.6000;0.4542;0.8685;
-138.3000;0.4567;0.8708;
-138.0000;0.4583;0.8708;
-137.7000;0.4558;0.8732;
-137.4000;0.4575;0.8755;
-137.1000;0.4583;0.8802;
-136.8000;0.4550;0.8732;
-136.5000;0.4575;0.8732;
-136.2000;0.4550;0.8661;
-135.9000;0.4518;0.8520;
-135.6000;0.4542;0.8450;
-135.3000;0.4567;0.8544;
-135.0000;0.4567;0.8544;
-134.7000;0.4567;0.8614;
-134.4000;0.4558;0.8661;
-134.1000;0.4567;0.8661;
-133.8000;0.4550;0.8638;
-133.5000;0.4575;0.8778;
-133.2000;0.4575;0.8732;
-132.9000;0.4542;0.8708;
-132.6000;0.4558;0.8732;
-132.3000;0.4550;0.8802;
-132.0000;0.4567;0.8849;
-131.7000;0.4567;0.8778;
-131.4000;0.4567;0.8732;
-131.1000;0.4550;0.8685;
-130.8000;0.4591;0.8778;
-130.5000;0.4558;0.8685;
-130.2000;0.4567;0.8591;
-129.9000;0.4550;0.8591;
-129.6000;0.4575;0.8638;
-129.3000;0.4493;0.8497;
-129.0000;0.4510;0.8473;
-128.7000;0.4567;0.8732;
-128.4000;0.4518;0.8591;
-128.1000;0.4534;0.8638;
-127.8000;0.4575;0.8661;
-127.5000;0.4558;0.8708;
-127.2000;0.4542;0.8661;
-126.9000;0.4567;0.8708;
-126.6000;0.4567;0.8778;
-126.3000;0.4550;0.8755;
-126.0000;0.4550;0.8614;
-125.7000;0.4534;0.8614;
-125.4000;0.4567;0.8661;
-125.1000;0.4542;0.8638;
-124.8000;0.4501;0.8544;
-124.5000;0.4567;0.8755;
-124.2000;0.4550;0.8708;
-123.9000;0.4624;0.8872;
-123.6000;0.4558;0.8661;
-123.3000;0.4550;0.8614;
-123.0000;0.4558;0.8685;
-122.7000;0.4575;0.8685;
-122.4000;0.4550;0.8685;
-122.1000;0.4567;0.8732;
-121.8000;0.4567;0.8661;
-121.5000;0.4542;0.8567;
-121.2000;0.4526;0.8544;
-120.9000;0.4542;0.8520;
-120.6000;0.4567;0.8450;
-120.3000;0.4567;0.8450;
-120.0000;0.4550;0.8379;
-119.7000;0.4542;0.8497;
-119.4000;0.4567;0.8591;
-119.1000;0.4567;0.8638;
-118.8000;0.4558;0.8685;
-118.5000;0.4575;0.8708;
-118.2000;0.4575;0.8755;
-117.9000;0.4558;0.8778;
-117.6000;0.4550;0.8755;
-117.3000;0.4558;0.8802;
-117.0000;0.4591;0.8896;
-116.7000;0.4575;0.8849;
-116.4000;0.4542;0.8732;
-116.1000;0.4583;0.8708;
-115.8000;0.4550;0.8638;
-115.5000;0.4558;0.8778;
-115.2000;0.4583;0.8919;
-114.9000;0.4567;0.8755;
-114.6000;0.4575;0.8708;
-114.3000;0.4567;0.8661;
-114.0000;0.4550;0.8614;
-113.7000;0.4567;0.8661;
-113.4000;0.4567;0.8708;
-113.1000;0.4558;0.8732;
-112.8000;0.4558;0.8685;
-112.5000;0.4558;0.8685;
-112.2000;0.4550;0.8591;
-111.9000;0.4558;0.8661;
-111.6000;0.4558;0.8685;
-111.3000;0.4550;0.8708;
-111.0000;0.4534;0.8685;
-110.7000;0.4542;0.8778;
-110.4000;0.4583;0.8802;
-110.1000;0.4550;0.8708;
-109.8000;0.4550;0.8732;
-109.5000;0.4550;0.8685;
-109.2000;0.4591;0.8755;
-108.9000;0.4567;0.8755;
-108.6000;0.4550;0.8755;
-108.3000;0.4575;0.8778;
-108.0000;0.4558;0.8825;
-107.7000;0.4558;0.8872;
-107.4000;0.4542;0.8849;
-107.1000;0.4558;0.8849;
-106.8000;0.4567;0.8802;
-106.5000;0.4542;0.8708;
-106.2000;0.4575;0.8755;
-105.9000;0.4599;0.8755;
-105.6000;0.4550;0.8638;
-105.3000;0.4575;0.8685;
-105.0000;0.4575;0.8708;
-104.7000;0.4558;0.8755;
-104.4000;0.4558;0.8661;
-104.1000;0.4567;0.8802;
-103.8000;0.4550;0.8755;
-103.5000;0.4558;0.8638;
-103.2000;0.4550;0.8591;
-102.9000;0.4550;0.8567;
-102.6000;0.4526;0.8450;
-102.3000;0.4558;0.8473;
-102.0000;0.4461;0.8309;
-101.7000;0.4567;0.8520;
-101.4000;0.4558;0.8497;
-101.1000;0.4542;0.8520;
-100.8000;0.4550;0.8544;
-100.5000;0.4558;0.8591;
-100.2000;0.4534;0.8567;
-99.9000;0.4550;0.8661;
-99.6000;0.4542;0.8591;
-99.3000;0.4558;0.8661;
-99.0000;0.4550;0.8591;
-98.7000;0.4542;0.8591;
-98.4000;0.4550;0.8473;
-98.1000;0.4550;0.8520;
-97.8000;0.4591;0.8591;
-97.5000;0.4550;0.8497;
-97.2000;0.4550;0.8520;
-96.9000;0.4567;0.8591;
-96.6000;0.4558;0.8544;
-96.3000;0.4558;0.8544;
-96.0000;0.4558;0.8520;
-95.7000;0.4558;0.8544;
-95.4000;0.4542;0.8661;
-95.1000;0.4567;0.8755;
-94.8000;0.4542;0.8661;
-94.5000;0.4558;0.8732;
-94.2000;0.4558;0.8849;
-93.9000;0.4567;0.8825;
-93.6000;0.4550;0.8802;
-93.3000;0.4567;0.8802;
-93.0000;0.4558;0.8778;
-92.7000;0.4542;0.8755;
-92.4000;0.4558;0.8755;
-92.1000;0.4558;0.8755;
-91.8000;0.4542;0.8708;
-91.5000;0.4558;0.8778;
-91.2000;0.4558;0.8755;
-90.9000;0.4550;0.8732;
-90.6000;0.4558;0.8708;
-90.3000;0.4567;0.8638;
-90.0000;0.4567;0.8708;
-89.7000;0.4591;0.8802;
-89.4000;0.4558;0.8732;
-89.1000;0.4558;0.8732;
-88.8000;0.4550;0.8732;
-88.5000;0.4550;0.8802;
-88.2000;0.4542;0.8755;
-87.9000;0.4542;0.8802;
-87.6000;0.4558;0.8849;
-87.3000;0.4542;0.8849;
-87.0000;0.4558;0.8825;
-86.7000;0.4648;0.9037;
-86.4000;0.4550;0.8708;
-86.1000;0.4558;0.8732;
-85.8000;0.4558;0.8708;
-85.5000;0.4575;0.8685;
-85.2000;0.4542;0.8591;
-84.9000;0.4567;0.8614;
-84.6000;0.4542;0.8567;
-84.3000;0.4558;0.8638;
-84.0000;0.4558;0.8708;
-83.7000;0.4567;0.8802;
-83.4000;0.4542;0.8638;
-83.1000;0.4567;0.8732;
-82.8000;0.4550;0.8685;
-82.5000;0.4575;0.8708;
-82.2000;0.4477;0.8497;
-81.9000;0.4518;0.8661;
-81.6000;0.4550;0.8732;
-81.3000;0.4542;0.8778;
-81.0000;0.4542;0.8825;
-80.7000;0.4526;0.8825;
-80.4000;0.4558;0.8849;
-80.1000;0.4567;0.8755;
-79.8000;0.4558;0.8708;
-79.5000;0.4485;0.8544;
-79.2000;0.4550;0.8755;
-78.9000;0.4591;0.8849;
-78.6000;0.4526;0.8708;
-78.3000;0.4558;0.8802;
-78.0000;0.4550;0.8732;
-77.7000;0.4550;0.8778;
-77.4000;0.4518;0.8685;
-77.1000;0.4542;0.8755;
-76.8000;0.4526;0.8732;
-76.5000;0.4518;0.8778;
-76.2000;0.4550;0.8872;
-75.9000;0.4550;0.8872;
-75.6000;0.4542;0.8755;
-75.3000;0.4558;0.8755;
-75.0000;0.4542;0.8708;
-74.7000;0.4558;0.8802;
-74.4000;0.4526;0.8755;
-74.1000;0.4575;0.8778;
-73.8000;0.4469;0.8544;
-73.5000;0.4550;0.8755;
-73.2000;0.4550;0.8708;
-72.9000;0.4550;0.8708;
-72.6000;0.4567;0.8778;
-72.3000;0.4550;0.8778;
-72.0000;0.4469;0.8591;
-71.7000;0.4558;0.8849;
-71.4000;0.4534;0.8802;
-71.1000;0.4550;0.8849;
-70.8000;0.4558;0.8802;
-70.5000;0.4550;0.8732;
-70.2000;0.4599;0.8755;
-69.9000;0.4567;0.8778;
-69.6000;0.4575;0.8802;
-69.3000;0.4575;0.8778;
-69.0000;0.4526;0.8638;
-68.7000;0.4550;0.8755;
-68.4000;0.4575;0.8755;
-68.1000;0.4550;0.8778;
-67.8000;0.4542;0.8755;
-67.5000;0.4550;0.8638;
-67.2000;0.4575;0.8614;
-66.9000;0.4558;0.8544;
-66.6000;0.4567;0.8544;
-66.3000;0.4567;0.8544;
-66.0000;0.4550;0.8567;
-65.7000;0.4567;0.8614;
-65.4000;0.4534;0.8591;
-65.1000;0.4558;0.8614;
-64.8000;0.4567;0.8544;
-64.5000;0.4575;0.8544;
-64.2000;0.4567;0.8567;
-63.9000;0.4575;0.8685;
-63.6000;0.4558;0.8685;
-63.3000;0.4567;0.8661;
-63.0000;0.4558;0.8661;
-62.7000;0.4567;0.8591;
-62.4000;0.4575;0.8638;
-62.1000;0.4567;0.8591;
-61.8000;0.4591;0.8661;
-61.5000;0.4567;0.8544;
-61.2000;0.4567;0.8450;
-60.9000;0.4575;0.8426;
-60.6000;0.4567;0.8450;
-60.3000;0.4567;0.8520;
-60.0000;0.4558;0.8591;
-59.7000;0.4550;0.8614;
-59.4000;0.4575;0.8614;
-59.1000;0.4567;0.8614;
-58.8000;0.4558;0.8685;
-58.5000;0.4583;0.8778;
-58.2000;0.4558;0.8825;
-57.9000;0.4526;0.8708;
-57.6000;0.4558;0.8755;
-57.3000;0.4567;0.8661;
-57.0000;0.4493;0.8426;
-56.7000;0.4575;0.8544;
-56.4000;0.4542;0.8520;
-56.1000;0.4567;0.8567;
-55.8000;0.4567;0.8591;
-55.5000;0.4526;0.8497;
-55.2000;0.4567;0.8591;
-54.9000;0.4550;0.8591;
-54.6000;0.4534;0.8473;
-54.3000;0.4558;0.8638;
-54.0000;0.4558;0.8661;
-53.7000;0.4542;0.8708;
-53.4000;0.4526;0.8685;
-53.1000;0.4567;0.8732;
-52.8000;0.4542;0.8732;
-52.5000;0.4542;0.8708;
-52.2000;0.4567;0.8661;
-51.9000;0.4558;0.8614;
-51.6000;0.4550;0.8614;
-51.3000;0.4518;0.8591;
-51.0000;0.4550;0.8685;
-50.7000;0.4558;0.8708;
-50.4000;0.4550;0.8661;
-50.1000;0.4558;0.8638;
-49.8000;0.4558;0.8591;
-49.5000;0.4567;0.8638;
-49.2000;0.4477;0.8426;
-48.9000;0.4558;0.8591;
-48.6000;0.4526;0.8685;
-48.3000;0.4567;0.8732;
-48.0000;0.4534;0.8685;
-47.7000;0.4567;0.8755;
-47.4000;0.4567;0.8732;
-47.1000;0.4558;0.8661;
-46.8000;0.4542;0.8520;
-46.5000;0.4575;0.8520;
-46.2000;0.4558;0.8473;
-45.9000;0.4558;0.8520;
-45.6000;0.4599;0.8685;
-45.3000;0.4558;0.8591;
-45.0000;0.4567;0.8638;
-44.7000;0.4542;0.8661;
-44.4000;0.4567;0.8685;
-44.1000;0.4567;0.8708;
-43.8000;0.4542;0.8661;
-43.5000;0.4575;0.8755;
-43.2000;0.4567;0.8778;
-42.9000;0.4542;0.8732;
-42.6000;0.4558;0.8708;
-42.3000;0.4550;0.8732;
-42.0000;0.4542;0.8732;
-41.7000;0.4550;0.8896;
-41.4000;0.4550;0.8919;
-41.1000;0.4567;0.8919;
-40.8000;0.4550;0.8825;
-40.5000;0.4558;0.8825;
-40.2000;0.4550;0.8802;
-39.9000;0.4567;0.8825;
-39.6000;0.4656;0.8990;
-39.3000;0.4558;0.8638;
-39.0000;0.4575;0.8685;
-38.7000;0.4567;0.8778;
-38.4000;0.4550;0.8732;
-38.1000;0.4575;0.8732;
-37.8000;0.4550;0.8661;
-37.5000;0.4477;0.8426;
-37.2000;0.4558;0.8567;
-36.9000;0.4542;0.8450;
-36.6000;0.4558;0.8426;
-36.3000;0.4558;0.8497;
-36.0000;0.4567;0.8614;
-35.7000;0.4575;0.8638;
-35.4000;0.4575;0.8661;
-35.1000;0.4567;0.8732;
-34.8000;0.4558;0.8638;
-34.5000;0.4624;0.8778;
-34.2000;0.4575;0.8567;
-33.9000;0.4591;0.8638;
-33.6000;0.4583;0.8567;
-33.3000;0.4550;0.8567;
-33.0000;0.4567;0.8473;
-32.7000;0.4558;0.8450;
-32.4000;0.4567;0.8497;
-32.1000;0.4558;0.8520;
-31.8000;0.4526;0.8426;
-31.5000;0.4567;0.8591;
-31.2000;0.4542;0.8567;
-30.9000;0.4542;0.8544;
-30.6000;0.4567;0.8567;
-30.3000;0.4567;0.8497;
-30.0000;0.4558;0.8497;
-29.7000;0.4493;0.8262;
-29.4000;0.4558;0.8426;
-29.1000;0.4558;0.8426;
-28.8000;0.4542;0.8403;
-28.5000;0.4542;0.8520;
-28.2000;0.4558;0.8544;
-27.9000;0.4567;0.8614;
-27.6000;0.4550;0.8591;
-27.3000;0.4550;0.8520;
-27.0000;0.4558;0.8473;
-26.7000;0.4550;0.8473;
-26.4000;0.4558;0.8520;
-26.1000;0.4558;0.8544;
-25.8000;0.4575;0.8614;
-25.5000;0.4575;0.8638;
-25.2000;0.4558;0.8544;
-24.9000;0.4558;0.8473;
-24.6000;0.4567;0.8520;
-24.3000;0.4567;0.8544;
-24.0000;0.4558;0.8520;
-23.7000;0.4575;0.8544;
-23.4000;0.4558;0.8497;
-23.1000;0.4583;0.8567;
-22.8000;0.4453;0.8192;
-22.5000;0.4567;0.8497;
-22.2000;0.4583;0.8426;
-21.9000;0.4575;0.8450;
-21.6000;0.4567;0.8356;
-21.3000;0.4567;0.8309;
-21.0000;0.4542;0.8403;
-20.7000;0.4558;0.8544;
-20.4000;0.4558;0.8473;
-20.1000;0.4558;0.8497;
-19.8000;0.4542;0.8497;
-19.5000;0.4575;0.8520;
-19.2000;0.4567;0.8450;
-18.9000;0.4558;0.8473;
-18.6000;0.4640;0.8708;
-18.3000;0.4558;0.8403;
-18.0000;0.4567;0.8332;
-17.7000;0.4567;0.8426;
-17.4000;0.4526;0.8356;
-17.1000;0.4542;0.8450;
-16.8000;0.4542;0.8450;
-16.5000;0.4558;0.8544;
-16.2000;0.4558;0.8567;
-15.9000;0.4567;0.8755;
-15.6000;0.4615;0.8919;
-15.3000;0.4567;0.8732;
-15.0000;0.4567;0.8614;
-14.7000;0.4567;0.8614;
-14.4000;0.4461;0.8332;
-14.1000;0.4567;0.8685;
-13.8000;0.4558;0.8685;
-13.5000;0.4575;0.8591;
-13.2000;0.4542;0.8567;
-12.9000;0.4412;0.8262;
-12.6000;0.4567;0.8638;
-12.3000;0.4558;0.8591;
-12.0000;0.4591;0.8685;
-11.7000;0.4558;0.8614;
-11.4000;0.4550;0.8544;
-11.1000;0.4575;0.8614;
-10.8000;0.4550;0.8544;
-10.5000;0.4583;0.8638;
-10.2000;0.4567;0.8567;
-9.9000;0.4534;0.8497;
-9.6000;0.4550;0.8614;
-9.3000;0.4542;0.8614;
-9.0000;0.4567;0.8708;
-8.7000;0.4558;0.8685;
-8.4000;0.4550;0.8567;
-8.1000;0.4534;0.8708;
-7.8000;0.4567;0.8778;
-7.5000;0.4558;0.8685;
-7.2000;0.4558;0.8544;
-6.9000;0.4567;0.8544;
-6.6000;0.4575;0.8544;
-6.3000;0.4575;0.8497;
-6.0000;0.4558;0.8473;
-5.7000;0.4542;0.8473;
-5.4000;0.4550;0.8379;
-5.1000;0.4558;0.8379;
-4.8000;0.4567;0.8379;
-4.5000;0.4558;0.8356;
-4.2000;0.4575;0.8403;
-3.9000;0.4575;0.8379;
-3.6000;0.4550;0.8356;
-3.3000;0.4567;0.8403;
-3.0000;0.4575;0.8473;
-2.7000;0.4558;0.8379;
-2.4000;0.4558;0.8403;
-2.1000;0.4550;0.8403;
-1.8000;0.4567;0.8379;
-1.5000;0.4542;0.8403;
-1.2000;0.4550;0.8520;
-0.9000;0.4550;0.8497;
-0.6000;0.4542;0.8544;
-0.3000;0.4567;0.8591;
0.0000;0.4567;0.8591;
0.3000;0.4615;0.8262;
0.6000;0.4762;0.8356;
0.9000;0.4900;0.8520;
1.2000;0.5022;0.8638;
1.5000;0.5104;0.8802;
1.8000;0.5161;0.8943;
2.1000;0.5210;0.9084;
2.4000;0.5234;0.9201;
2.7000;0.5275;0.9318;
3.0000;0.5283;0.9483;
3.3000;0.5315;0.9670;
3.6000;0.5340;0.9835;
3.9000;0.5348;0.9858;
4.2000;0.5348;0.9929;
4.5000;0.5381;0.9905;
4.8000;0.5381;0.9999;
5.1000;0.5389;0.9929;
5.4000;0.5405;0.9929;
5.7000;0.5397;0.9976;
6.0000;0.5421;1.0022;
6.3000;0.5429;1.0022;
6.6000;0.5389;0.9882;
6.9000;0.5429;1.0022;
7.2000;0.5413;1.0069;
7.5000;0.5462;1.0163;
7.8000;0.5470;1.0116;
8.1000;0.5454;1.0116;
8.4000;0.5429;1.0069;
8.7000;0.5503;1.0187;
9.0000;0.5495;1.0093;
9.3000;0.5495;1.0140;
9.6000;0.5462;1.0046;
9.9000;0.5527;1.0257;
10.2000;0.5535;1.0187;
10.5000;0.5633;1.0398;
10.8000;0.5438;0.9929;
11.1000;0.5551;1.0093;
11.4000;0.5527;1.0093;
11.7000;0.5454;0.9858;
12.0000;0.5568;1.0093;
12.3000;0.5576;0.9976;
12.6000;0.5576;1.0046;
12.9000;0.5584;1.0022;
13.2000;0.5592;1.0116;
13.5000;0.5592;1.0210;
13.8000;0.5608;1.0163;
14.1000;0.5608;1.0187;
14.4000;0.5617;1.0187;
14.7000;0.5657;1.0304;
15.0000;0.5633;1.0210;
15.3000;0.5633;1.0234;
15.6000;0.5641;1.0234;
15.9000;0.5641;1.0187;
16.2000;0.5657;1.0234;
16.5000;0.5649;1.0210;
16.8000;0.5641;1.0140;
17.1000;0.5657;1.0234;
17.4000;0.5657;1.0234;
17.7000;0.5657;1.0257;
18.0000;0.5657;1.0210;
18.3000;0.5649;1.0210;
18.6000;0.5665;1.0187;
18.9000;0.5682;1.0187;
19.2000;0.5731;1.0304;
19.5000;0.5690;1.0210;
19.8000;0.5731;1.0304;
20.1000;0.5714;1.0351;
20.4000;0.5722;1.0328;
20.7000;0.5714;1.0210;
21.0000;0.5714;1.0187;
21.3000;0.5722;1.0234;
21.6000;0.5731;1.0281;
21.9000;0.5739;1.0257;
22.2000;0.5739;1.0187;
22.5000;0.5739;1.0140;
22.8000;0.5747;1.0187;
23.1000;0.5714;1.0140;
23.4000;0.5731;1.0187;
23.7000;0.5763;1.0234;
24.0000;0.5763;1.0187;
24.3000;0.5755;1.0163;
24.6000;0.5763;1.0234;
24.9000;0.5714;1.0022;
25.2000;0.5788;1.0234;
25.5000;0.5722;1.0069;
25.8000;0.5779;1.0210;
26.1000;0.5739;1.0140;
26.4000;0.5779;1.0187;
26.7000;0.5796;1.0210;
27.0000;0.5788;1.0234;
27.3000;0.5788;1.0163;
27.6000;0.5796;1.0187;
27.9000;0.5788;1.0210;
28.2000;0.5804;1.0281;
28.5000;0.5788;1.0281;
28.8000;0.5796;1.0328;
29.1000;0.5812;1.0281;
29.4000;0.5828;1.0304;
29.7000;0.5820;1.0116;
30.0000;0.5836;1.0046;
30.3000;0.5820;1.0093;
30.6000;0.5812;1.0116;
30.9000;0.5820;1.0187;
31.2000;0.5877;1.0375;
31.5000;0.5836;1.0281;
31.8000;0.5812;1.0210;
32.1000;0.5836;1.0210;
32.4000;0.5820;1.0163;
32.7000;0.5804;1.0116;
33.0000;0.5853;1.0163;
33.3000;0.5836;1.0140;
33.6000;0.5836;1.0093;
33.9000;0.5861;1.0116;
34.2000;0.5853;1.0187;
34.5000;0.5845;1.0093;
34.8000;0.5836;1.0069;
35.1000;0.5893;1.0187;
35.4000;0.5869;1.0022;
35.7000;0.5853;1.0022;
36.0000;0.5853;0.9929;
36.3000;0.5869;0.9952;
36.6000;0.5885;1.0163;
36.9000;0.5861;1.0187;
37.2000;0.5845;1.0163;
37.5000;0.5869;1.0187;
37.8000;0.5877;1.0234;
38.1000;0.5885;1.0257;
38.4000;0.5869;1.0257;
38.7000;0.5869;1.0328;
39.0000;0.5885;1.0421;
39.3000;0.5885;1.0468;
39.6000;0.5934;1.0586;
39.9000;0.5877;1.0421;
40.2000;0.5877;1.0375;
40.5000;0.5910;1.0328;
40.8000;0.5885;1.0257;
41.1000;0.5885;1.0234;
41.4000;0.5893;1.0187;
41.7000;0.5885;1.0163;
42.0000;0.5877;1.0163;
42.3000;0.5877;1.0116;
42.6000;0.5893;1.0116;
42.9000;0.5910;1.0140;
43.2000;0.5885;1.0069;
43.5000;0.5910;1.0140;
43.8000;0.5893;1.0140;
44.1000;0.5910;1.0187;
44.4000;0.5910;1.0140;
44.7000;0.5893;1.0046;
45.0000;0.5902;0.9952;
45.3000;0.5893;0.9999;
45.6000;0.5910;1.0069;
45.9000;0.5926;1.0163;
46.2000;0.5910;1.0116;
46.5000;0.5926;1.0140;
46.8000;0.5918;1.0140;
47.1000;0.5910;1.0140;
47.4000;0.5845;1.0022;
47.7000;0.5918;1.0163;
48.0000;0.5926;1.0140;
48.3000;0.5893;1.0140;
48.6000;0.5926;1.0187;
48.9000;0.6015;1.0468;
49.2000;0.5926;1.0257;
49.5000;0.5918;1.0234;
49.8000;0.5926;1.0234;
50.1000;0.5910;1.0046;
50.4000;0.5942;0.9999;
50.7000;0.5934;0.9952;
51.0000;0.5926;0.9952;
51.3000;0.5942;1.0046;
51.6000;0.5926;1.0046;
51.9000;0.5934;1.0116;
52.2000;0.5910;1.0187;
52.5000;0.5926;1.0187;
52.8000;0.5926;1.0093;
53.1000;0.5934;1.0046;
53.4000;0.5934;1.0046;
53.7000;0.5918;1.0069;
54.0000;0.5926;1.0069;
54.3000;0.5942;1.0093;
54.6000;0.5950;1.0140;
54.9000;0.5942;1.0116;
55.2000;0.5942;1.0069;
55.5000;0.5942;1.0140;
55.8000;0.5950;1.0069;
56.1000;0.5950;1.0093;
56.4000;0.5942;1.0210;
56.7000;0.5942;1.0163;
57.0000;0.5918;1.0210;
57.3000;0.5958;1.0257;
57.6000;0.5902;1.0140;
57.9000;0.5958;1.0234;
58.2000;0.5958;1.0210;
58.5000;0.5958;1.0163;
58.8000;0.5942;1.0116;
59.1000;0.5991;1.0210;
59.4000;0.5958;1.0163;
59.7000;0.5967;1.0234;
60.0000;0.5958;1.0257;
60.3000;0.5950;1.0257;
60.6000;0.5975;1.0257;
60.9000;0.5975;1.0187;
61.2000;0.5910;1.0022;
61.5000;0.5967;1.0140;
61.8000;0.5950;1.0069;
62.1000;0.5950;0.9929;
62.4000;0.5950;0.9929;
62.7000;0.5942;0.9905;
63.0000;0.5958;0.9929;
63.3000;0.5958;1.0022;
63.6000;0.5950;1.0046;
63.9000;0.5958;1.0093;
64.2000;0.5958;1.0116;
64.5000;0.5958;1.0140;
64.8000;0.5958;1.0046;
65.1000;0.5958;0.9999;
65.4000;0.5950;0.9976;
65.7000;0.5975;1.0022;
66.0000;0.5975;0.9976;
66.3000;0.5967;1.0069;
66.6000;0.5967;1.0140;
66.9000;0.5967;1.0187;
67.2000;0.5958;1.0093;
67.5000;0.5950;1.0022;
67.8000;0.5958;0.9952;
68.1000;0.5958;0.9952;
68.4000;0.6007;0.9929;
68.7000;0.5958;0.9905;
69.0000;0.6081;1.0210;
69.3000;0.5975;0.9952;
69.6000;0.5983;1.0046;
69.9000;0.5967;1.0093;
70.2000;0.5975;1.0116;
70.5000;0.5934;1.0022;
70.8000;0.5983;1.0140;
71.1000;0.5991;1.0140;
71.4000;0.5967;1.0163;
71.7000;0.5983;1.0163;
72.0000;0.5975;1.0093;
72.3000;0.5991;1.0069;
72.6000;0.5967;0.9999;
72.9000;0.5893;0.9788;
73.2000;0.6007;0.9999;
73.5000;0.5950;0.9905;
73.8000;0.5975;0.9905;
74.1000;0.6048;1.0046;
74.4000;0.5975;0.9905;
74.7000;0.5975;0.9882;
75.0000;0.5958;0.9882;
75.3000;0.5991;0.9952;
75.6000;0.5967;0.9999;
75.9000;0.5983;1.0093;
76.2000;0.5983;1.0116;
76.5000;0.5918;0.9905;
76.8000;0.5983;1.0069;
77.1000;0.5975;1.0022;
77.4000;0.5975;1.0022;
77.7000;0.5983;1.0093;
78.0000;0.5975;1.0116;
78.3000;0.5983;1.0187;
78.6000;0.5983;1.0234;
78.9000;0.5983;1.0304;
79.2000;0.5991;1.0281;
79.5000;0.5991;1.0257;
79.8000;0.5991;1.0281;
80.1000;0.5975;1.0234;
80.4000;0.5975;1.0140;
80.7000;0.5991;1.0140;
81.0000;0.5999;0.9976;
81.3000;0.5983;0.9905;
81.6000;0.6032;1.0046;
81.9000;0.5967;0.9952;
82.2000;0.5975;0.9999;
82.5000;0.5991;0.9929;
82.8000;0.5967;1.0022;
83.1000;0.5991;1.0140;
83.4000;0.6007;1.0069;
83.7000;0.5983;0.9999;
84.0000;0.5983;0.9952;
84.3000;0.5983;1.0022;
84.6000;0.5999;1.0022;
84.9000;0.5991;1.0022;
85.2000;0.5983;0.9999;
85.5000;0.5983;0.9929;
85.8000;0.5991;0.9905;
86.1000;0.5999;0.9999;
86.4000;0.5983;0.9882;
86.7000;0.5983;0.9858;
87.0000;0.6015;0.9952;
87.3000;0.5991;0.9929;
87.6000;0.5975;0.9835;
87.9000;0.5975;0.9882;
88.2000;0.6032;1.0187;
88.5000;0.5999;1.0116;
88.8000;0.5991;1.0093;
89.1000;0.5983;1.0093;
89.4000;0.5999;0.9999;
89.7000;0.5991;0.9976;
90.0000;0.6007;1.0022;
90.3000;0.5983;0.9999;
90.6000;0.5983;1.0116;
90.9000;0.5991;1.0093;
91.2000;0.5991;1.0140;
91.5000;0.6015;1.0210;
91.8000;0.5967;1.0140;
92.1000;0.5967;1.0163;
92.4000;0.5991;1.0140;
92.7000;0.5991;1.0163;
93.0000;0.6007;1.0281;
93.3000;0.5950;1.0210;
93.6000;0.5999;1.0257;
93.9000;0.5991;1.0234;
94.2000;0.5975;1.0210;
94.5000;0.6040;1.0210;
94.8000;0.5999;1.0069;
95.1000;0.6089;1.0281;
95.4000;0.5975;0.9905;
95.7000;0.5967;0.9952;
96.0000;0.5983;1.0022;
96.3000;0.5991;0.9999;
96.6000;0.5983;0.9952;
96.9000;0.5999;1.0022;
97.2000;0.6007;1.0093;
97.5000;0.5983;0.9999;
97.8000;0.5991;1.0022;
98.1000;0.5999;0.9999;
98.4000;0.5975;1.0046;
98.7000;0.5999;1.0140;
99.0000;0.6007;1.0163;
99.3000;0.5991;1.0140;
99.6000;0.6015;1.0257;
99.9000;0.6007;1.0304;
100.2000;0.6007;1.0351;
100.5000;0.6048;1.0445;
100.8000;0.5991;1.0328;
101.1000;0.5983;1.0281;
101.4000;0.5999;1.0375;
101.7000;0.5999;1.0445;
102.0000;0.5983;1.0398;
102.3000;0.5975;1.0375;
102.6000;0.5853;1.0093;
102.9000;0.5983;1.0304;
103.2000;0.5975;1.0351;
103.5000;0.5983;1.0351;
103.8000;0.5991;1.0421;
104.1000;0.5999;1.0351;
104.4000;0.5999;1.0304;
104.7000;0.6007;1.0398;
105.0000;0.5999;1.0351;
105.3000;0.6007;1.0375;
105.6000;0.6056;1.0445;
105.9000;0.6032;1.0351;
106.2000;0.5958;1.0210;
106.5000;0.5999;1.0304;
106.8000;0.5999;1.0281;
107.1000;0.5999;1.0304;
107.4000;0.5991;1.0257;
107.7000;0.5999;1.0281;
108.0000;0.5991;1.0257;
108.3000;0.5975;1.0140;
108.6000;0.5991;1.0163;
108.9000;0.5999;1.0140;
109.2000;0.5991;1.0116;
109.5000;0.5999;1.0140;
109.8000;0.5999;1.0234;
110.1000;0.6015;1.0328;
110.4000;0.6007;1.0351;
110.7000;0.6007;1.0351;
111.0000;0.5967;1.0210;
111.3000;0.6032;1.0281;
111.6000;0.6015;1.0257;
111.9000;0.5999;1.0187;
112.2000;0.5983;1.0257;
112.5000;0.5999;1.0281;
112.8000;0.5999;1.0281;
113.1000;0.5999;1.0281;
113.4000;0.5975;1.0257;
113.7000;0.6015;1.0351;
114.0000;0.5991;1.0375;
114.3000;0.6007;1.0375;
114.6000;0.5983;1.0257;
114.9000;0.6007;1.0304;
115.2000;0.6015;1.0257;
115.5000;0.5983;1.0163;
115.8000;0.6007;1.0187;
116.1000;0.5991;1.0116;
116.4000;0.6048;1.0257;
116.7000;0.6007;1.0116;
117.0000;0.5991;1.0046;
117.3000;0.6015;1.0140;
117.6000;0.5991;1.0046;
117.9000;0.6007;1.0069;
118.2000;0.6007;1.0093;
118.5000;0.5999;1.0116;
118.8000;0.5958;1.0022;
119.1000;0.6007;1.0140;
119.4000;0.5902;0.9741;
119.7000;0.5991;0.9952;
120.0000;0.5999;1.0046;
120.3000;0.6007;1.0163;
120.6000;0.5999;1.0187;
120.9000;0.6007;1.0187;
121.2000;0.6007;1.0187;
121.5000;0.5950;1.0069;
121.8000;0.5991;1.0187;
122.1000;0.5983;1.0163;
122.4000;0.5999;1.0163;
122.7000;0.5991;1.0163;
123.0000;0.6007;1.0234;
123.3000;0.5991;1.0257;
123.6000;0.5991;1.0234;
123.9000;0.5991;1.0281;
124.2000;0.6007;1.0351;
124.5000;0.6064;1.0468;
124.8000;0.5999;1.0351;
125.1000;0.6040;1.0492;
125.4000;0.6015;1.0468;
125.7000;0.6007;1.0421;
126.0000;0.5975;1.0328;
126.3000;0.5975;1.0328;
126.6000;0.6048;1.0398;
126.9000;0.5999;1.0234;
127.2000;0.6056;1.0398;
127.5000;0.5991;1.0281;
127.8000;0.5975;1.0234;
128.1000;0.6015;1.0281;
128.4000;0.5991;1.0140;
128.7000;0.5991;1.0163;
129.0000;0.5950;1.0022;
129.3000;0.5999;1.0210;
129.6000;0.6032;1.0281;
129.9000;0.5999;1.0163;
130.2000;0.5999;1.0140;
130.5000;0.6015;1.0187;
130.8000;0.6015;1.0210;
131.1000;0.6015;1.0210;
131.4000;0.5999;1.0116;
131.7000;0.6097;1.0492;
132.0000;0.5999;1.0257;
132.3000;0.5983;1.0140;
132.6000;0.5991;1.0163;
132.9000;0.5991;1.0304;
133.2000;0.5975;1.0375;
133.5000;0.6015;1.0351;
133.8000;0.5983;1.0281;
134.1000;0.5967;1.0304;
134.4000;0.5991;1.0375;
134.7000;0.5983;1.0304;
135.0000;0.5991;1.0375;
135.3000;0.5991;1.0375;
135.6000;0.5967;1.0375;
135.9000;0.5991;1.0398;
136.2000;0.5983;1.0375;
136.5000;0.6007;1.0492;
136.8000;0.6007;1.0562;
137.1000;0.5983;1.0492;
137.4000;0.5991;1.0562;
137.7000;0.5991;1.0515;
138.0000;0.5999;1.0539;
138.3000;0.6056;1.0656;
138.6000;0.5999;1.0375;
138.9000;0.5967;1.0375;
139.2000;0.6015;1.0468;
139.5000;0.6007;1.0421;
139.8000;0.5991;1.0445;
140.1000;0.5999;1.0421;
140.4000;0.6007;1.0421;
140.7000;0.6015;1.0468;
141.0000;0.5991;1.0468;
141.3000;0.5975;1.0375;
141.6000;0.5983;1.0421;
141.9000;0.5967;1.0398;
142.2000;0.5991;1.0304;
142.5000;0.5958;1.0234;
142.8000;0.6007;1.0328;
143.1000;0.5999;1.0398;
143.4000;0.5999;1.0351;
143.7000;0.5991;1.0351;
144.0000;0.6056;1.0539;
144.3000;0.6024;1.0445;
144.6000;0.5999;1.0398;
144.9000;0.6007;1.0398;
145.2000;0.5999;1.0351;
145.5000;0.6007;1.0375;
145.8000;0.6007;1.0281;
146.1000;0.5999;1.0281;
146.4000;0.5991;1.0351;
146.7000;0.5999;1.0398;
147.0000;0.6007;1.0398;
147.3000;0.5999;1.0351;
147.6000;0.5991;1.0257;
147.9000;0.5999;1.0328;
148.2000;0.5991;1.0375;
148.5000;0.6007;1.0328;
148.8000;0.5999;1.0375;
149.1000;0.6007;1.0421;
149.4000;0.6015;1.0421;
149.7000;0.5999;1.0421;
150.0000;0.5999;1.0468;
150.3000;0.5958;1.0468;
150.6000;0.5991;1.0515;
150.9000;0.5999;1.0492;
151.2000;0.5991;1.0515;
151.5000;0.5975;1.0375;
151.8000;0.6007;1.0328;
152.1000;0.5999;1.0351;
152.4000;0.5999;1.0421;
152.7000;0.5991;1.0515;
153.0000;0.5999;1.0468;
153.3000;0.5999;1.0468;
153.6000;0.5991;1.0445;
153.9000;0.5999;1.0445;
154.2000;0.5991;1.0492;
154.5000;0.6032;1.0586;
154.8000;0.6015;1.0539;
155.1000;0.5999;1.0468;
155.4000;0.5991;1.0468;
155.7000;0.6007;1.0609;
156.0000;0.6007;1.0562;
156.3000;0.6007;1.0562;
156.6000;0.5991;1.0515;
156.9000;0.5983;1.0492;
157.2000;0.5999;1.0445;
157.5000;0.5975;1.0375;
157.8000;0.6007;1.0351;
158.1000;0.5983;1.0398;
158.4000;0.5999;1.0445;
158.7000;0.5999;1.0398;
159.0000;0.5999;1.0351;
159.3000;0.6007;1.0398;
159.6000;0.6007;1.0375;
159.9000;0.6015;1.0445;
160.2000;0.6032;1.0445;
160.5000;0.6007;1.0398;
160.8000;0.5999;1.0375;
161.1000;0.5991;1.0304;
161.4000;0.5999;1.0304;
161.7000;0.5999;1.0304;
162.0000;0.6007;1.0351;
162.3000;0.6007;1.0304;
162.6000;0.5991;1.0257;
162.9000;0.6007;1.0304;
163.2000;0.6015;1.0351;
163.5000;0.6040;1.0421;
163.8000;0.6007;1.0328;
164.1000;0.5999;1.0398;
164.4000;0.6007;1.0421;
164.7000;0.5999;1.0515;
165.0000;0.5999;1.0468;
165.3000;0.5991;1.0398;
165.6000;0.6015;1.0398;
165.9000;0.6007;1.0304;
166.2000;0.6007;1.0281;
166.5000;0.6015;1.0398;
166.8000;0.5991;1.0351;
167.1000;0.6007;1.0351;
167.4000;0.5983;1.0257;
167.7000;0.5983;1.0234;
168.0000;0.5983;1.0257;
168.3000;0.5991;1.0375;
168.6000;0.6007;1.0351;
168.9000;0.5967;1.0257;
169.2000;0.5991;1.0210;
169.5000;0.6007;1.0234;
169.8000;0.5999;1.0304;
170.1000;0.5991;1.0328;
170.4000;0.5991;1.0281;
170.7000;0.6015;1.0351;
171.0000;0.5999;1.0328;
171.3000;0.6007;1.0328;
171.6000;0.5999;1.0163;
171.9000;0.5991;1.0234;
172.2000;0.5999;1.0281;
172.5000;0.6015;1.0304;
172.8000;0.5999;1.0257;
173.1000;0.6007;1.0234;
173.4000;0.6032;1.0304;
173.7000;0.6007;1.0257;
174.0000;0.6015;1.0187;
174.3000;0.5999;1.0116;
174.6000;0.6007;1.0116;
174.9000;0.6007;1.0069;
175.2000;0.6007;1.0022;
175.5000;0.6007;1.0022;
175.8000;0.5991;1.0069;
176.1000;0.6007;1.0116;
176.4000;0.5999;1.0046;
176.7000;0.6015;1.0069;
177.0000;0.6056;1.0187;
177.3000;0.6015;1.0093;
177.6000;0.6007;1.0093;
177.9000;0.5999;1.0140;
178.2000;0.6056;1.0257;
178.5000;0.5999;1.0210;
178.8000;0.5999;1.0234;
179.1000;0.6007;1.0281;
179.4000;0.5999;1.0281;
179.7000;0.5934;1.0163;
180.0000;0.6015;1.0351;
180.3000;0.5991;1.0351;
180.6000;0.5999;1.0304;
180.9000;0.6015;1.0257;
181.2000;0.5967;1.0234;
181.5000;0.5991;1.0187;
181.8000;0.5991;1.0210;
182.1000;0.5983;1.0187;
182.4000;0.5999;1.0328;
182.7000;0.5999;1.0351;
183.0000;0.5999;1.0234;
183.3000;0.5999;1.0281;
183.6000;0.6007;1.0234;
183.9000;0.5991;1.0257;
184.2000;0.5999;1.0257;
184.5000;0.5999;1.0304;
184.8000;0.5999;1.0257;
185.1000;0.6007;1.0281;
185.4000;0.6015;1.0375;
185.7000;0.5983;1.0375;
186.0000;0.5999;1.0398;
186.3000;0.5999;1.0445;
186.6000;0.5991;1.0492;
186.9000;0.6015;1.0492;
187.2000;0.5991;1.0398;
187.5000;0.6015;1.0421;
187.8000;0.6007;1.0445;
188.1000;0.6007;1.0421;
188.4000;0.6007;1.0421;
188.7000;0.6007;1.0421;
189.0000;0.6007;1.0421;
189.3000;0.6015;1.0398;
189.6000;0.6007;1.0375;
189.9000;0.6015;1.0445;
190.2000;0.6024;1.0468;
190.5000;0.6048;1.0562;
190.8000;0.5999;1.0421;
191.1000;0.5999;1.0375;
191.4000;0.5999;1.0398;
191.7000;0.5991;1.0281;
192.0000;0.5991;1.0281;
192.3000;0.5983;1.0304;
192.6000;0.5999;1.0304;
192.9000;0.5983;1.0210;
193.2000;0.5983;1.0281;
193.5000;0.5999;1.0351;
193.8000;0.6015;1.0468;
194.1000;0.6007;1.0492;
194.4000;0.6032;1.0515;
194.7000;0.6007;1.0445;
195.0000;0.5999;1.0421;
195.3000;0.5950;1.0210;
195.6000;0.5991;1.0375;
195.9000;0.5991;1.0304;
196.2000;0.5991;1.0304;
196.5000;0.5999;1.0351;
196.8000;0.5991;1.0281;
197.1000;0.5999;1.0234;
197.4000;0.5991;1.0257;
197.7000;0.5999;1.0328;
198.0000;0.5991;1.0257;
198.3000;0.5999;1.0304;
198.6000;0.6007;1.0351;
198.9000;0.6015;1.0375;
199.2000;0.6015;1.0351;
199.5000;0.6024;1.0351;
199.8000;0.5999;1.0257;
200.1000;0.6015;1.0281;
200.4000;0.6007;1.0281;
200.7000;0.5999;1.0281;
201.0000;0.5999;1.0234;
201.3000;0.5999;1.0210;
201.6000;0.5999;1.0234;
201.9000;0.5991;1.0210;
202.2000;0.5991;1.0257;
202.5000;0.6007;1.0257;
202.8000;0.6007;1.0234;
203.1000;0.5975;1.0163;
203.4000;0.5999;1.0234;
203.7000;0.6007;1.0281;
204.0000;0.5999;1.0398;
204.3000;0.6015;1.0421;
204.6000;0.5975;1.0398;
204.9000;0.5999;1.0445;
205.2000;0.5983;1.0468;
205.5000;0.5991;1.0515;
205.8000;0.5983;1.0421;
206.1000;0.5975;1.0351;
206.4000;0.6015;1.0375;
206.7000;0.5991;1.0257;
207.0000;0.5991;1.0304;
207.3000;0.5991;1.0304;
207.6000;0.6015;1.0328;
207.9000;0.6015;1.0375;
208.2000;0.6007;1.0375;
208.5000;0.5999;1.0328;
208.8000;0.6015;1.0421;
209.1000;0.5991;1.0398;
209.4000;0.5950;1.0281;
209.7000;0.6007;1.0351;
210.0000;0.6048;1.0398;
210.3000;0.5999;1.0328;
210.6000;0.5999;1.0304;
210.9000;0.6040;1.0351;
211.2000;0.5983;1.0163;
211.5000;0.6007;1.0210;
211.8000;0.6007;1.0187;
212.1000;0.5991;1.0163;
212.4000;0.5910;0.9952;
212.7000;0.6007;1.0210;
213.0000;0.5910;1.0022;
213.3000;0.6007;1.0281;
213.6000;0.5999;1.0304;
213.9000;0.6113;1.0562;
214.2000;0.6015;1.0304;
214.5000;0.5999;1.0304;
214.8000;0.5999;1.0421;
215.1000;0.6007;1.0515;
215.4000;0.6015;1.0492;
215.7000;0.6007;1.0468;
216.0000;0.5999;1.0468;
216.3000;0.6048;1.0562;
216.6000;0.6032;1.0445;
216.9000;0.6007;1.0445;
217.2000;0.5991;1.0445;
217.5000;0.5983;1.0445;
217.8000;0.6040;1.0562;
218.1000;0.6007;1.0515;
218.4000;0.5991;1.0515;
218.7000;0.6048;1.0609;
219.0000;0.6015;1.0609;
219.3000;0.6015;1.0609;
219.6000;0.6048;1.0633;
219.9000;0.5999;1.0562;
220.2000;0.5999;1.0515;
220.5000;0.6015;1.0468;
220.8000;0.6007;1.0398;
221.1000;0.5999;1.0304;
221.4000;0.5999;1.0445;
221.7000;0.5999;1.0375;
222.0000;0.5975;1.0351;
222.3000;0.5999;1.0421;
222.6000;0.5983;1.0351;
222.9000;0.6007;1.0398;
223.2000;0.6007;1.0328;
223.5000;0.6024;1.0304;
223.8000;0.6015;1.0328;
224.1000;0.6040;1.0421;
224.4000;0.6032;1.0445;
224.7000;0.6024;1.0468;
225.0000;0.6015;1.0398;
225.3000;0.6015;1.0421;
225.6000;0.5999;1.0304;
225.9000;0.6007;1.0351;
226.2000;0.5983;1.0210;
226.5000;0.6024;1.0281;
226.8000;0.6015;1.0328;
227.1000;0.5999;1.0304;
227.4000;0.5991;1.0375;
227.7000;0.5999;1.0398;
228.0000;0.6015;1.0539;
228.3000;0.5991;1.0468;
228.6000;0.6007;1.0445;
228.9000;0.5999;1.0421;
229.2000;0.6015;1.0421;
229.5000;0.6007;1.0421;
229.8000;0.6007;1.0375;
230.1000;0.5958;1.0328;
230.4000;0.5991;1.0351;
230.7000;0.5999;1.0375;
231.0000;0.6064;1.0609;
231.3000;0.5999;1.0445;
231.6000;0.5991;1.0398;
231.9000;0.5999;1.0304;
232.2000;0.5991;1.0234;
232.5000;0.5999;1.0234;
232.8000;0.5991;1.0234;
233.1000;0.5991;1.0304;
233.4000;0.6007;1.0398;
233.7000;0.5991;1.0421;
234.0000;0.6064;1.0492;
234.3000;0.6032;1.0445;
234.6000;0.6015;1.0375;
234.9000;0.6015;1.0328;
235.2000;0.5999;1.0304;
235.5000;0.5983;1.0328;
235.8000;0.6007;1.0351;
236.1000;0.5999;1.0375;
236.4000;0.5975;1.0281;
236.7000;0.5999;1.0281;
237.0000;0.6064;1.0468;
237.3000;0.5983;1.0281;
237.6000;0.5999;1.0257;
237.9000;0.5999;1.0351;
238.2000;0.5999;1.0281;
238.5000;0.6015;1.0304;
238.8000;0.5991;1.0328;
239.1000;0.6048;1.0492;
239.4000;0.6048;1.0609;
239.7000;0.5999;1.0515;
240.0000;0.6015;1.0492;
240.3000;0.5999;1.0421;
240.6000;0.6007;1.0421;
240.9000;0.5999;1.0328;
241.2000;0.5999;1.0281;
241.5000;0.5999;1.0281;
241.8000;0.5991;1.0398;
242.1000;0.5999;1.0421;
242.4000;0.6040;1.0586;
242.7000;0.6015;1.0515;
243.0000;0.6040;1.0609;
243.3000;0.6015;1.0492;
243.6000;0.6024;1.0421;
243.9000;0.5999;1.0375;
244.2000;0.5991;1.0375;
244.5000;0.6015;1.0398;
244.8000;0.6024;1.0421;
245.1000;0.6024;1.0398;
245.4000;0.5950;1.0163;
245.7000;0.6032;1.0351;
246.0000;0.5991;1.0304;
246.3000;0.5999;1.0445;
246.6000;0.5999;1.0445;
246.9000;0.6024;1.0468;
247.2000;0.6015;1.0468;
247.5000;0.6007;1.0468;
247.8000;0.6007;1.0445;
248.1000;0.6007;1.0328;
248.4000;0.6015;1.0328;
248.7000;0.6007;1.0375;
249.0000;0.6007;1.0421;
249.3000;0.6040;1.0562;
249.6000;0.6024;1.0633;
249.9000;0.6024;1.0609;
250.2000;0.6007;1.0609;
250.5000;0.6007;1.0562;
250.8000;0.6015;1.0609;
251.1000;0.6007;1.0633;
251.4000;0.5983;1.0562;
251.7000;0.6015;1.0562;
252.0000;0.6015;1.0492;
252.3000;0.6040;1.0586;
252.6000;0.5999;1.0468;
252.9000;0.6015;1.0445;
253.2000;0.5950;1.0328;
253.5000;0.6015;1.0398;
253.8000;0.5999;1.0421;
254.1000;0.6007;1.0351;
254.4000;0.6007;1.0375;
254.7000;0.6032;1.0351;
255.0000;0.6015;1.0281;
255.3000;0.5999;1.0210;
255.6000;0.6024;1.0163;
255.9000;0.6007;1.0069;
256.2000;0.5999;1.0069;
256.5000;0.6007;1.0093;
256.8000;0.6007;1.0093;
257.1000;0.6015;1.0210;
257.4000;0.5991;1.0116;
257.7000;0.6007;1.0210;
258.0000;0.5983;1.0093;
258.3000;0.6007;1.0187;
258.6000;0.5999;1.0093;
258.9000;0.6007;1.0140;
259.2000;0.6007;1.0163;
259.5000;0.6007;1.0187;
259.8000;0.6007;1.0140;
260.1000;0.5918;0.9952;
260.4000;0.5983;1.0116;
260.7000;0.5991;1.0140;
261.0000;0.6056;1.0375;
261.3000;0.6007;1.0257;
261.6000;0.6024;1.0328;
261.9000;0.6007;1.0328;
262.2000;0.6007;1.0351;
262.5000;0.6007;1.0421;
262.8000;0.6032;1.0421;
263.1000;0.6015;1.0421;
263.4000;0.6024;1.0492;
263.7000;0.6007;1.0539;
264.0000;0.6007;1.0445;
264.3000;0.6007;1.0421;
264.6000;0.5999;1.0398;
264.9000;0.6015;1.0351;
265.2000;0.6007;1.0304;
265.5000;0.5999;1.0304;
265.8000;0.6007;1.0351;
266.1000;0.6007;1.0210;
266.4000;0.6007;1.0187;
266.7000;0.5950;1.0140;
267.0000;0.5999;1.0234;
267.3000;0.6048;1.0328;
267.6000;0.6015;1.0421;
267.9000;0.5991;1.0421;
268.2000;0.5942;1.0304;
268.5000;0.6015;1.0492;
268.8000;0.6024;1.0539;
269.1000;0.6007;1.0539;
269.4000;0.6024;1.0609;
269.7000;0.6007;1.0633;
270.0000;0.6007;1.0680;
270.3000;0.6024;1.0656;
270.6000;0.6015;1.0586;
270.9000;0.6015;1.0539;
271.2000;0.6007;1.0562;
271.5000;0.6007;1.0586;
271.8000;0.6007;1.0492;
272.1000;0.6048;1.0539;
272.4000;0.5991;1.0375;
272.7000;0.6015;1.0445;
273.0000;0.6007;1.0398;
273.3000;0.6007;1.0351;
273.6000;0.6015;1.0398;
273.9000;0.6007;1.0351;
274.2000;0.6015;1.0281;
274.5000;0.6015;1.0398;
274.8000;0.6007;1.0398;
275.1000;0.6015;1.0445;
275.4000;0.6015;1.0375;
275.7000;0.6048;1.0375;
276.0000;0.6007;1.0304;
276.3000;0.6007;1.0328;
276.6000;0.5999;1.0351;
276.9000;0.5999;1.0375;
277.2000;0.6024;1.0445;
277.5000;0.5991;1.0468;
277.8000;0.5999;1.0468;
278.1000;0.5983;1.0468;
278.4000;0.5983;1.0468;
278.7000;0.6007;1.0445;
279.0000;0.6007;1.0421;
279.3000;0.5983;1.0375;
279.6000;0.6007;1.0351;
279.9000;0.6007;1.0375;
280.2000;0.6056;1.0421;
280.5000;0.5926;1.0234;
280.8000;0.6007;1.0468;
281.1000;0.5999;1.0468;
281.4000;0.6015;1.0445;
281.7000;0.5999;1.0328;
282.0000;0.5991;1.0281;
282.3000;0.5967;1.0257;
282.6000;0.6024;1.0351;
282.9000;0.6007;1.0304;
283.2000;0.6007;1.0375;
283.5000;0.5999;1.0398;
283.8000;0.5999;1.0398;
284.1000;0.5991;1.0351;
284.4000;0.6007;1.0351;
284.7000;0.5999;1.0328;
285.0000;0.6024;1.0328;
285.3000;0.6007;1.0328;
285.6000;0.5999;1.0304;
285.9000;0.5999;1.0281;
286.2000;0.5999;1.0304;
286.5000;0.5983;1.0328;
286.8000;0.5934;1.0069;
287.1000;0.5999;1.0304;
287.4000;0.6032;1.0351;
287.7000;0.5991;1.0257;
288.0000;0.6007;1.0257;
288.3000;0.6015;1.0351;
288.6000;0.5999;1.0328;
288.9000;0.6007;1.0398;
289.2000;0.6007;1.0492;
289.5000;0.5999;1.0398;
289.8000;0.6024;1.0492;
290.1000;0.6024;1.0421;
290.4000;0.5999;1.0445;
290.7000;0.6007;1.0468;
291.0000;0.5999;1.0398;
291.3000;0.5999;1.0468;
291.6000;0.6024;1.0492;
291.9000;0.6007;1.0421;
292.2000;0.6007;1.0445;
292.5000;0.6007;1.0398;
292.8000;0.6007;1.0375;
293.1000;0.6048;1.0515;
293.4000;0.6007;1.0375;
293.7000;0.6007;1.0398;
294.0000;0.6032;1.0445;
294.3000;0.6007;1.0468;
294.6000;0.5999;1.0421;
294.9000;0.5999;1.0445;
295.2000;0.6015;1.0515;
295.5000;0.6032;1.0562;
295.8000;0.5991;1.0492;
296.1000;0.6007;1.0421;
296.4000;0.5991;1.0421;
296.7000;0.6015;1.0468;
297.0000;0.5999;1.0445;
297.3000;0.6007;1.0468;
297.6000;0.6015;1.0468;
297.9000;0.6015;1.0515;
298.2000;0.5999;1.0539;
298.5000;0.6007;1.0680;
298.8000;0.6007;1.0703;
299.1000;0.6024;1.0586;
299.4000;0.6007;1.0492;
299.7000;0.6015;1.0468;
300.0000;0.5999;1.0468;
300.3000;0.6015;1.0492;
300.6000;0.6015;1.0421;
300.9000;0.5999;1.0304;
301.2000;0.6072;1.0375;
301.5000;0.6007;1.0163;
301.8000;0.6032;1.0116;
302.1000;0.6007;1.0116;
302.4000;0.6024;1.0140;
302.7000;0.6032;1.0187;
303.0000;0.6024;1.0234;
303.3000;0.6024;1.0234;
303.6000;0.6007;1.0187;
303.9000;0.6072;1.0445;
304.2000;0.6015;1.0375;
304.5000;0.5999;1.0421;
304.8000;0.6007;1.0445;
305.1000;0.6007;1.0562;
305.4000;0.6015;1.0656;
305.7000;0.6024;1.0633;
306.0000;0.5983;1.0586;
306.3000;0.5991;1.0656;
306.6000;0.5999;1.0703;
306.9000;0.5934;1.0515;
307.2000;0.6015;1.0586;
307.5000;0.6007;1.0492;
307.8000;0.6015;1.0492;
308.1000;0.6007;1.0492;
308.4000;0.6024;1.0492;
308.7000;0.6024;1.0539;
309.0000;0.6007;1.0492;
309.3000;0.6015;1.0515;
309.6000;0.6007;1.0421;
309.9000;0.5999;1.0398;
310.2000;0.5983;1.0375;
310.5000;0.6015;1.0398;
310.8000;0.6056;1.0421;
311.1000;0.6007;1.0421;
311.4000;0.6032;1.0445;
311.7000;0.6024;1.0398;
312.0000;0.6007;1.0351;
312.3000;0.5991;1.0281;
312.6000;0.6056;1.0445;
312.9000;0.5991;1.0234;
313.2000;0.6015;1.0234;
313.5000;0.6015;1.0281;
313.8000;0.6015;1.0257;
314.1000;0.6015;1.0257;
314.4000;0.6015;1.0328;
314.7000;0.6015;1.0421;
315.0000;0.5999;1.0492;
315.3000;0.6015;1.0492;
315.6000;0.6024;1.0492;
315.9000;0.6015;1.0445;
316.2000;0.6007;1.0421;
316.5000;0.6007;1.0398;
316.8000;0.6015;1.0468;
317.1000;0.6015;1.0421;
317.4000;0.6048;1.0515;
317.7000;0.6007;1.0375;
318.0000;0.6007;1.0257;
318.3000;0.6007;1.0257;
318.6000;0.6015;1.0257;
318.9000;0.5999;1.0257;
319.2000;0.6015;1.0210;
319.5000;0.6015;1.0234;
319.8000;0.6007;1.0281;
320.1000;0.5991;1.0281;
320.4000;0.5975;1.0234;
320.7000;0.6007;1.0304;
321.0000;0.6007;1.0304;
321.3000;0.5999;1.0351;
321.6000;0.5991;1.0398;
321.9000;0.6007;1.0468;
322.2000;0.6105;1.0750;
322.5000;0.6007;1.0445;
322.8000;0.5999;1.0515;
323.1000;0.6032;1.0633;
323.4000;0.6024;1.0609;
323.7000;0.6015;1.0609;
324.0000;0.5999;1.0539;
324.3000;0.6024;1.0515;
324.6000;0.6007;1.0445;
324.9000;0.5999;1.0398;
325.2000;0.6007;1.0304;
325.5000;0.6024;1.0421;
325.8000;0.5967;1.0398;
326.1000;0.6007;1.0515;
326.4000;0.5991;1.0421;
326.7000;0.6007;1.0468;
327.0000;0.6121;1.0703;
327.3000;0.6048;1.0445;
327.6000;0.6015;1.0398;
327.9000;0.6015;1.0421;
328.2000;0.6072;1.0539;
328.5000;0.6048;1.0492;
328.8000;0.6007;1.0328;
329.1000;0.6015;1.0304;
329.4000;0.6007;1.0210;
329.7000;0.6015;1.0257;
330.0000;0.5991;1.0116;
330.3000;0.6007;1.0234;
330.6000;0.6024;1.0304;
330.9000;0.6007;1.0304;
331.2000;0.6015;1.0281;
331.5000;0.6007;1.0210;
331.8000;0.5999;1.0116;
332.1000;0.6015;1.0210;
332.4000;0.6015;1.0163;
332.7000;0.6007;1.0210;
333.0000;0.6024;1.0210;
333.3000;0.6024;1.0234;
333.6000;0.6015;1.0116;
333.9000;0.6024;1.0116;
334.2000;0.5991;1.0140;
334.5000;0.6015;1.0210;
334.8000;0.6007;1.0163;
335.1000;0.5885;0.9882;
335.4000;0.5991;1.0187;
335.7000;0.5991;1.0140;
336.0000;0.6097;1.0445;
336.3000;0.6007;1.0257;
336.6000;0.5893;1.0022;
336.9000;0.6007;1.0210;
337.2000;0.6032;1.0281;
337.5000;0.6048;1.0281;
337.8000;0.6056;1.0304;
338.1000;0.5926;1.0046;
338.4000;0.6032;1.0304;
338.7000;0.6024;1.0234;
339.0000;0.5991;1.0187;
339.3000;0.5950;0.9999;
339.6000;0.6007;1.0116;
339.9000;0.6015;1.0116;
340.2000;0.5999;1.0093;
340.5000;0.5991;1.0022;
340.8000;0.6015;1.0140;
341.1000;0.6015;1.0210;
341.4000;0.6024;1.0163;
341.7000;0.6024;1.0116;
342.0000;0.6024;1.0187;
342.3000;0.5967;1.0163;
342.6000;0.6064;1.0468;
342.9000;0.6007;1.0304;
343.2000;0.6064;1.0421;
343.5000;0.6024;1.0304;
343.8000;0.6007;1.0304;
344.1000;0.5967;1.0375;
344.4000;0.6072;1.0609;
344.7000;0.6007;1.0539;
345.0000;0.6015;1.0539;
345.3000;0.5975;1.0398;
345.6000;0.5999;1.0445;
345.9000;0.6015;1.0468;
346.2000;0.6007;1.0515;
346.5000;0.6007;1.0539;
346.8000;0.5999;1.0445;
347.1000;0.6007;1.0492;
347.4000;0.5991;1.0445;
347.7000;0.5975;1.0468;
348.0000;0.5983;1.0468;
348.3000;0.6015;1.0539;
348.6000;0.5999;1.0515;
348.9000;0.6024;1.0562;
349.2000;0.5967;1.0351;
349.5000;0.6007;1.0375;
349.8000;0.5999;1.0421;
350.1000;0.5958;1.0398;
350.4000;0.5991;1.0515;
350.7000;0.5999;1.0421;
351.0000;0.5999;1.0398;
351.3000;0.6015;1.0421;
351.6000;0.5999;1.0351;
351.9000;0.6032;1.0351;
352.2000;0.6007;1.0281;
352.5000;0.6015;1.0304;
352.8000;0.5991;1.0234;
353.1000;0.6015;1.0328;
353.4000;0.6015;1.0351;
353.7000;0.6007;1.0328;
354.0000;0.5999;1.0281;
354.3000;0.5975;1.0234;
354.6000;0.5999;1.0304;
354.9000;0.6015;1.0375;
355.2000;0.5983;1.0328;
355.5000;0.5999;1.0281;
355.8000;0.5999;1.0304;
356.1000;0.6015;1.0375;
356.4000;0.5999;1.0328;
356.7000;0.5999;1.0328;
357.0000;0.5991;1.0234;
357.3000;0.5999;1.0210;
357.6000;0.5967;1.0140;
357.9000;0.6032;1.0257;
358.2000;0.5975;1.0069;
358.5000;0.6015;1.0163;
358.8000;0.6015;1.0210;
359.1000;0.6024;1.0187;
359.4000;0.5999;1.0046;
359.7000;0.6007;1.0069;
360.0000;0.6024;1.0093;
360.3000;0.6024;1.0069;
360.6000;0.6007;0.9999;
360.9000;0.6007;1.0022;
361.2000;0.5999;1.0046;
361.5000;0.6040;1.0116;
361.8000;0.6007;1.0046;
362.1000;0.5999;0.9999;
362.4000;0.6007;1.0022;
362.7000;0.6024;1.0140;
363.0000;0.5983;1.0022;
363.3000;0.5991;1.0140;
363.6000;0.6015;1.0163;
363.9000;0.5999;1.0163;
364.2000;0.6007;1.0187;
364.5000;0.5967;1.0140;
364.8000;0.6007;1.0257;
365.1000;0.6007;1.0187;
365.4000;0.6032;1.0210;
365.7000;0.5975;0.9929;
366.0000;0.5999;0.9976;
366.3000;0.6024;1.0093;
366.6000;0.5934;0.9952;
366.9000;0.5999;1.0093;
367.2000;0.6007;1.0069;
367.5000;0.5991;1.0140;
367.8000;0.6015;1.0257;
368.1000;0.5991;1.0234;
368.4000;0.6007;1.0281;
368.7000;0.6113;1.0539;
369.0000;0.6015;1.0351;
369.3000;0.6007;1.0328;
369.6000;0.6007;1.0375;
369.9000;0.6015;1.0445;
370.2000;0.6015;1.0445;
370.5000;0.6007;1.0375;
370.8000;0.6015;1.0351;
371.1000;0.6007;1.0281;
371.4000;0.6015;1.0328;
371.7000;0.5999;1.0304;
372.0000;0.6024;1.0375;
372.3000;0.5983;1.0210;
372.6000;0.6007;1.0187;
372.9000;0.6040;1.0328;
373.2000;0.5999;1.0210;
373.5000;0.6007;1.0116;
373.8000;0.6015;1.0116;
374.1000;0.6032;1.0187;
374.4000;0.6015;1.0257;
374.7000;0.5999;1.0210;
375.0000;0.6015;1.0187;
375.3000;0.5991;1.0140;
375.6000;0.5983;1.0163;
375.9000;0.5999;1.0187;
376.2000;0.6015;1.0210;
376.5000;0.6015;1.0187;
376.8000;0.6024;1.0187;
377.1000;0.6089;1.0328;
377.4000;0.6015;1.0163;
377.7000;0.6032;1.0351;
378.0000;0.6032;1.0421;
378.3000;0.6024;1.0398;
378.6000;0.6024;1.0421;
378.9000;0.6015;1.0375;
379.2000;0.5999;1.0304;
379.5000;0.6015;1.0234;
379.8000;0.5999;1.0210;
380.1000;0.5991;1.0210;
380.4000;0.6007;1.0234;
380.7000;0.5950;1.0093;
381.0000;0.5975;1.0140;
381.3000;0.6024;1.0187;
381.6000;0.5999;1.0140;
381.9000;0.5999;1.0163;
382.2000;0.6007;1.0210;
382.5000;0.5991;1.0187;
382.8000;0.6015;1.0304;
383.1000;0.6032;1.0328;
383.4000;0.6024;1.0234;
383.7000;0.6032;1.0163;
384.0000;0.5999;1.0163;
384.3000;0.6007;1.0163;
384.6000;0.6121;1.0328;
384.9000;0.6015;1.0187;
385.2000;0.6007;1.0234;
385.5000;0.6007;1.0210;
385.8000;0.5991;1.0163;
386.1000;0.6015;1.0234;
386.4000;0.6015;1.0210;
386.7000;0.6032;1.0163;
387.0000;0.6024;1.0187;
387.3000;0.6015;1.0187;
387.6000;0.6024;1.0234;
387.9000;0.6032;1.0328;
388.2000;0.6064;1.0398;
388.5000;0.6015;1.0328;
388.8000;0.6015;1.0304;
389.1000;0.6081;1.0445;
389.4000;0.6015;1.0281;
389.7000;0.6015;1.0257;
390.0000;0.6024;1.0163;
390.3000;0.6056;1.0281;
390.6000;0.6007;1.0257;
390.9000;0.6015;1.0234;
391.2000;0.5991;1.0210;
391.5000;0.6015;1.0304;
391.8000;0.5999;1.0304;
392.1000;0.6007;1.0328;
392.4000;0.5983;1.0257;
392.7000;0.6007;1.0257;
393.0000;0.6024;1.0281;
393.3000;0.6015;1.0257;
393.6000;0.5999;1.0257;
393.9000;0.6015;1.0281;
394.2000;0.6024;1.0257;
394.5000;0.6040;1.0281;
394.8000;0.6024;1.0163;
395.1000;0.6007;1.0234;
395.4000;0.6024;1.0257;
395.7000;0.6007;1.0210;
396.0000;0.6015;1.0234;
396.3000;0.6007;1.0257;
396.6000;0.6015;1.0304;
396.9000;0.6007;1.0351;
397.2000;0.6007;1.0375;
397.5000;0.5999;1.0304;
397.8000;0.6007;1.0281;
398.1000;0.6040;1.0398;
398.4000;0.6015;1.0398;
398.7000;0.6007;1.0351;
399.0000;0.6015;1.0421;
399.3000;0.5967;1.0304;
399.6000;0.6015;1.0398;
399.9000;0.6007;1.0351;
400.2000;0.6007;1.0398;
400.5000;0.6007;1.0398;
400.8000;0.6015;1.0468;
401.1000;0.6024;1.0539;
401.4000;0.6007;1.0492;
401.7000;0.6040;1.0562;
402.0000;0.5999;1.0398;
402.3000;0.5999;1.0351;
402.6000;0.6007;1.0445;
402.9000;0.6040;1.0492;
403.2000;0.6007;1.0421;
403.5000;0.6007;1.0515;
403.8000;0.6007;1.0445;
404.1000;0.6007;1.0492;
404.4000;0.6048;1.0539;
404.7000;0.6032;1.0468;
405.0000;0.6048;1.0515;
405.3000;0.6056;1.0562;
405.6000;0.6015;1.0468;
405.9000;0.6024;1.0492;
406.2000;0.6007;1.0351;
406.5000;0.6007;1.0375;
406.8000;0.5999;1.0375;
407.1000;0.6007;1.0398;
407.4000;0.6048;1.0445;
407.7000;0.6032;1.0304;
408.0000;0.6015;1.0304;
408.3000;0.6015;1.0328;
408.6000;0.6007;1.0375;
408.9000;0.5983;1.0281;
409.2000;0.6015;1.0375;
409.5000;0.6007;1.0281;
409.8000;0.6015;1.0328;
410.1000;0.6072;1.0515;
410.4000;0.5983;1.0234;
410.7000;0.6024;1.0328;
411.0000;0.6015;1.0445;
411.3000;0.6015;1.0375;
411.6000;0.6024;1.0398;
411.9000;0.6015;1.0328;
412.2000;0.6015;1.0375;
412.5000;0.6007;1.0351;
412.8000;0.6015;1.0375;
413.1000;0.6015;1.0468;
413.4000;0.6007;1.0492;
413.7000;0.5991;1.0492;
414.0000;0.5967;1.0445;
414.3000;0.6007;1.0398;
414.6000;0.5999;1.0351;
414.9000;0.6007;1.0304;
415.2000;0.6015;1.0351;
415.5000;0.6007;1.0304;
415.8000;0.5999;1.0398;
416.1000;0.6007;1.0398;
416.4000;0.5999;1.0375;
416.7000;0.6007;1.0421;
417.0000;0.6015;1.0398;
417.3000;0.6007;1.0421;
417.6000;0.5999;1.0468;
417.9000;0.6007;1.0492;
418.2000;0.6015;1.0492;
418.5000;0.6015;1.0421;
418.8000;0.5999;1.0304;
419.1000;0.5999;1.0234;
419.4000;0.6015;1.0304;
419.7000;0.6015;1.0351;
420.0000;0.6007;1.0304;
420.3000;0.6032;1.0375;
420.6000;0.6007;1.0281;
420.9000;0.6007;1.0257;
421.2000;0.5999;1.0351;
421.5000;0.6015;1.0398;
421.8000;0.6007;1.0375;
422.1000;0.6015;1.0375;
422.4000;0.6048;1.0421;
422.7000;0.6007;1.0257;
423.0000;0.6007;1.0257;
423.3000;0.6032;1.0351;
423.6000;0.6024;1.0257;
423.9000;0.6032;1.0257;
424.2000;0.6007;1.0304;
424.5000;0.6007;1.0304;
424.8000;0.6024;1.0375;
425.1000;0.5999;1.0375;
425.4000;0.5975;1.0421;
425.7000;0.6007;1.0468;
426.0000;0.6072;1.0492;
426.3000;0.5999;1.0328;
426.6000;0.5967;1.0234;
426.9000;0.6007;1.0328;
427.2000;0.6015;1.0375;
427.5000;0.6113;1.0586;
427.8000;0.6015;1.0351;
428.1000;0.6024;1.0398;
428.4000;0.6007;1.0304;
428.7000;0.6032;1.0351;
429.0000;0.6015;1.0351;
429.3000;0.5999;1.0375;
429.6000;0.6024;1.0375;
429.9000;0.6015;1.0375;
430.2000;0.6024;1.0421;
430.5000;0.6007;1.0351;
430.8000;0.6015;1.0351;
431.1000;0.6015;1.0421;
431.4000;0.6015;1.0421;
431.7000;0.6007;1.0398;
432.0000;0.6007;1.0398;
432.3000;0.6024;1.0492;
432.6000;0.6015;1.0398;
432.9000;0.6007;1.0375;
433.2000;0.6056;1.0445;
433.5000;0.6032;1.0445;
433.8000;0.6024;1.0468;
434.1000;0.6007;1.0398;
434.4000;0.6007;1.0421;
434.7000;0.5999;1.0468;
435.0000;0.5999;1.0398;
435.3000;0.6007;1.0445;
435.6000;0.6015;1.0328;
435.9000;0.5999;1.0187;
436.2000;0.6007;1.0116;
436.5000;0.6015;1.0046;
436.8000;0.6015;1.0046;
437.1000;0.6007;1.0046;
437.4000;0.6056;1.0046;
437.7000;0.5975;0.9811;
438.0000;0.6064;1.0163;
438.3000;0.5910;0.9929;
438.6000;0.6015;1.0187;
438.9000;0.6015;1.0281;
439.2000;0.6024;1.0304;
439.5000;0.6007;1.0234;
439.8000;0.6024;1.0187;
440.1000;0.6007;1.0187;
440.4000;0.5999;1.0304;
440.7000;0.6007;1.0281;
441.0000;0.6015;1.0257;
441.3000;0.6007;1.0281;
441.6000;0.5999;1.0187;
441.9000;0.5975;1.0210;
442.2000;0.5999;1.0281;
442.5000;0.6007;1.0257;
442.8000;0.6015;1.0281;
443.1000;0.5999;1.0375;
443.4000;0.6007;1.0398;
443.7000;0.6007;1.0445;
444.0000;0.6007;1.0375;
444.3000;0.6015;1.0398;
444.6000;0.6032;1.0328;
444.9000;0.6015;1.0328;
445.2000;0.6024;1.0375;
445.5000;0.6015;1.0375;
445.8000;0.6007;1.0375;
446.1000;0.5967;1.0328;
446.4000;0.6032;1.0539;
446.7000;0.5999;1.0445;
447.0000;0.5999;1.0375;
447.3000;0.6024;1.0375;
447.6000;0.6015;1.0304;
447.9000;0.6015;1.0304;
448.2000;0.6048;1.0421;
448.5000;0.6015;1.0398;
448.8000;0.5975;1.0328;
449.1000;0.6007;1.0421;
449.4000;0.6007;1.0421;
449.7000;0.6007;1.0398;
450.0000;0.6024;1.0421;
450.3000;0.5999;1.0304;
450.6000;0.6007;1.0398;
450.9000;0.6007;1.0445;
451.2000;0.6024;1.0445;
451.5000;0.6072;1.0609;
451.8000;0.6007;1.0304;
452.1000;0.5983;1.0210;
452.4000;0.6007;1.0234;
452.7000;0.6007;1.0257;
453.0000;0.6024;1.0234;
453.3000;0.6072;1.0304;
453.6000;0.6032;1.0187;
453.9000;0.6015;1.0210;
454.2000;0.5967;1.0116;
454.5000;0.6024;1.0163;
454.8000;0.6015;1.0069;
455.1000;0.6015;1.0022;
455.4000;0.5999;0.9929;
455.7000;0.6015;0.9882;
456.0000;0.5983;0.9858;
456.3000;0.6007;0.9905;
456.6000;0.6015;0.9882;
456.9000;0.5999;0.9858;
457.2000;0.5999;0.9858;
457.5000;0.5950;0.9741;
457.8000;0.6015;0.9952;
458.1000;0.6015;0.9976;
458.4000;0.6007;0.9905;
458.7000;0.6024;0.9905;
459.0000;0.6015;0.9882;
459.3000;0.6007;0.9905;
459.6000;0.6072;1.0093;
459.9000;0.5983;0.9858;
460.2000;0.6072;0.9929;
460.5000;0.6007;0.9741;
460.8000;0.6007;0.9788;
461.1000;0.5967;0.9764;
461.4000;0.6007;0.9858;
461.7000;0.5991;0.9882;
462.0000;0.6040;1.0069;
462.3000;0.6015;1.0046;
462.6000;0.6032;1.0069;
462.9000;0.6015;1.0046;
463.2000;0.6024;1.0116;
463.5000;0.6007;0.9999;
463.8000;0.5983;0.9882;
464.1000;0.6007;0.9976;
464.4000;0.5999;0.9929;
464.7000;0.6007;0.9952;
465.0000;0.6024;1.0022;
465.3000;0.6015;1.0022;
465.6000;0.5999;0.9976;
465.9000;0.6007;1.0022;
466.2000;0.5983;0.9976;
466.5000;0.5999;0.9999;
466.8000;0.6007;1.0022;
467.1000;0.6007;1.0046;
467.4000;0.6007;1.0046;
467.7000;0.5999;1.0093;
468.0000;0.5999;1.0116;
468.3000;0.5999;1.0069;
468.6000;0.5991;1.0046;
468.9000;0.5999;1.0093;
469.2000;0.6024;1.0069;
469.5000;0.6007;0.9952;
469.8000;0.5999;0.9858;
470.1000;0.6015;0.9952;
470.4000;0.6024;0.9905;
470.7000;0.5999;0.9858;
471.0000;0.6015;0.9905;
471.3000;0.5999;0.9976;
471.6000;0.6007;1.0022;
471.9000;0.6007;1.0069;
472.2000;0.5999;1.0069;
472.5000;0.6007;1.0093;
472.8000;0.6024;1.0093;
473.1000;0.6007;1.0163;
473.4000;0.5999;1.0069;
473.7000;0.6007;1.0069;
474.0000;0.6024;1.0093;
474.3000;0.6007;1.0140;
474.6000;0.5983;1.0140;
474.9000;0.6024;1.0257;
475.2000;0.5991;1.0116;
475.5000;0.5942;1.0046;
475.8000;0.5991;1.0140;
476.1000;0.6015;1.0140;
476.4000;0.5991;1.0069;
476.7000;0.5975;1.0116;
477.0000;0.6007;1.0163;
477.3000;0.6007;1.0210;
477.6000;0.5999;1.0163;
477.9000;0.6007;1.0187;
478.2000;0.5975;1.0140;
478.5000;0.5983;1.0093;
478.8000;0.6015;1.0093;
479.1000;0.6007;1.0022;
479.4000;0.6024;1.0140;
479.7000;0.6024;1.0116;
480.0000;0.6048;1.0093;
480.3000;0.5991;1.0022;
480.6000;0.6015;1.0069;
480.9000;0.6007;1.0116;
481.2000;0.5999;1.0046;
481.5000;0.6007;1.0069;
481.8000;0.6015;1.0093;
482.1000;0.6015;1.0093;
482.4000;0.6024;1.0187;
482.7000;0.6056;1.0234;
483.0000;0.6015;1.0093;
483.3000;0.6007;1.0093;
483.6000;0.5983;0.9976;
483.9000;0.5999;1.0093;
484.2000;0.6015;1.0046;
484.5000;0.5991;1.0022;
484.8000;0.6007;1.0022;
485.1000;0.6064;1.0234;
485.4000;0.5934;0.9929;
485.7000;0.5999;1.0163;
486.0000;0.5999;1.0116;
486.3000;0.6040;1.0210;
486.6000;0.6081;1.0187;
486.9000;0.6024;1.0069;
487.2000;0.5999;1.0046;
487.5000;0.5991;1.0022;
487.8000;0.6032;1.0163;
488.1000;0.6007;1.0163;
488.4000;0.6007;1.0116;
488.7000;0.6024;1.0140;
489.0000;0.6007;1.0140;
489.3000;0.6007;1.0093;
489.6000;0.6024;1.0093;
489.9000;0.6007;1.0093;
490.2000;0.6007;1.0116;
490.5000;0.6015;1.0140;
490.8000;0.6007;1.0187;
491.1000;0.6064;1.0281;
491.4000;0.6007;1.0210;
491.7000;0.6007;1.0210;
492.0000;0.6024;1.0234;
492.3000;0.6007;1.0187;
492.6000;0.6024;1.0257;
492.9000;0.6007;1.0281;
493.2000;0.6015;1.0328;
493.5000;0.5991;1.0304;
493.8000;0.6015;1.0304;
494.1000;0.6024;1.0328;
494.4000;0.6015;1.0257;
494.7000;0.6007;1.0234;
495.0000;0.5999;1.0163;
495.3000;0.6007;1.0163;
495.6000;0.6024;1.0234;
495.9000;0.6007;1.0210;
496.2000;0.6007;1.0210;
496.5000;0.6015;1.0187;
496.8000;0.6040;1.0187;
497.1000;0.6024;1.0140;
497.4000;0.6024;1.0187;
497.7000;0.6024;1.0210;
498.0000;0.6015;1.0140;
498.3000;0.6015;1.0140;
498.6000;0.6032;1.0187;
498.9000;0.5999;1.0093;
499.2000;0.6007;1.0093;
499.5000;0.6048;1.0281;
499.8000;0.6032;1.0281;
500.1000;0.6024;1.0210;
500.4000;0.6024;1.0163;
500.7000;0.5999;1.0140;
501.0000;0.6007;1.0163;
501.3000;0.6032;1.0187;
501.6000;0.5991;1.0116;
501.9000;0.6064;1.0281;
502.2000;0.6024;1.0234;
502.5000;0.6024;1.0163;
502.8000;0.5999;1.0140;
503.1000;0.6007;1.0163;
503.4000;0.6040;1.0234;
503.7000;0.5999;1.0281;
504.0000;0.6007;1.0304;
504.3000;0.6007;1.0281;
504.6000;0.6024;1.0210;
504.9000;0.6007;1.0187;
505.2000;0.5999;1.0116;
505.5000;0.6007;1.0140;
505.8000;0.6007;1.0187;
506.1000;0.5999;1.0234;
506.4000;0.6007;1.0281;
506.7000;0.5999;1.0281;
507.0000;0.6015;1.0375;
507.3000;0.6024;1.0421;
507.6000;0.6015;1.0351;
507.9000;0.5999;1.0328;
508.2000;0.6064;1.0445;
508.5000;0.6015;1.0257;
508.8000;0.6015;1.0304;
509.1000;0.6024;1.0375;
509.4000;0.6015;1.0304;
509.7000;0.6024;1.0304;
510.0000;0.6007;1.0234;
510.3000;0.6056;1.0445;
510.6000;0.5999;1.0375;
510.9000;0.6032;1.0421;
511.2000;0.6015;1.0421;
511.5000;0.6007;1.0468;
511.8000;0.6007;1.0492;
512.1000;0.6015;1.0539;
512.4000;0.6007;1.0492;
512.7000;0.6024;1.0468;
513.0000;0.6015;1.0421;
513.3000;0.6007;1.0375;
513.6000;0.6015;1.0421;
513.9000;0.6007;1.0375;
514.2000;0.6015;1.0398;
514.5000;0.6015;1.0445;
514.8000;0.6007;1.0468;
515.1000;0.5991;1.0445;
515.4000;0.5991;1.0398;
515.7000;0.6007;1.0375;
516.0000;0.5999;1.0304;
516.3000;0.6007;1.0281;
516.6000;0.6007;1.0234;
516.9000;0.5991;1.0234;
517.2000;0.6007;1.0234;
517.5000;0.5967;1.0140;
517.8000;0.6007;1.0187;
518.1000;0.5991;1.0116;
518.4000;0.6024;1.0093;
518.7000;0.5991;1.0116;
519.0000;0.5991;1.0140;
519.3000;0.5999;1.0187;
519.6000;0.6007;1.0187;
519.9000;0.6007;1.0140;
520.2000;0.5991;1.0140;
520.5000;0.6007;1.0140;
520.8000;0.6024;1.0140;
521.1000;0.6015;1.0140;
521.4000;0.6007;1.0187;
521.7000;0.5999;1.0163;
522.0000;0.6032;1.0234;
522.3000;0.5999;1.0234;
522.6000;0.5942;1.0163;
522.9000;0.6015;1.0328;
523.2000;0.6007;1.0304;
523.5000;0.6024;1.0375;
523.8000;0.6007;1.0375;
524.1000;0.6056;1.0492;
524.4000;0.5999;1.0351;
524.7000;0.5999;1.0351;
525.0000;0.6007;1.0398;
525.3000;0.5991;1.0281;
525.6000;0.6007;1.0234;
525.9000;0.6007;1.0281;
526.2000;0.5999;1.0257;
526.5000;0.6015;1.0328;
526.8000;0.6024;1.0328;
527.1000;0.6024;1.0281;
527.4000;0.6032;1.0328;
527.7000;0.6024;1.0328;
528.0000;0.6015;1.0281;
528.3000;0.6007;1.0234;
528.6000;0.6015;1.0281;
528.9000;0.6015;1.0257;
529.2000;0.5999;1.0351;
529.5000;0.5983;1.0351;
529.8000;0.6015;1.0398;
530.1000;0.6040;1.0468;
530.4000;0.6032;1.0468;
530.7000;0.6007;1.0421;
531.0000;0.6007;1.0351;
531.3000;0.6007;1.0304;
531.6000;0.6007;1.0351;
531.9000;0.6015;1.0421;
532.2000;0.6007;1.0468;
532.5000;0.6015;1.0515;
532.8000;0.6015;1.0421;
533.1000;0.6024;1.0375;
533.4000;0.6024;1.0375;
533.7000;0.6024;1.0375;
534.0000;0.6015;1.0304;
534.3000;0.6015;1.0281;
534.6000;0.6007;1.0234;
534.9000;0.5999;1.0210;
535.2000;0.6007;1.0116;
535.5000;0.6007;1.0281;
535.8000;0.5999;1.0234;
536.1000;0.6024;1.0210;
536.4000;0.5999;1.0116;
536.7000;0.5999;1.0093;
537.0000;0.6015;1.0163;
537.3000;0.6015;1.0210;
537.6000;0.6007;1.0257;
537.9000;0.5999;1.0257;
538.2000;0.6007;1.0210;
538.5000;0.6007;1.0257;
538.8000;0.6015;1.0304;
539.1000;0.6015;1.0187;
539.4000;0.6007;1.0116;
539.7000;0.6007;1.0140;
540.0000;0.6056;1.0304;
540.3000;0.6024;1.0234;
540.6000;0.5999;1.0210;
540.9000;0.6015;1.0281;
541.2000;0.6007;1.0257;
541.5000;0.6015;1.0187;
541.8000;0.6015;1.0163;
542.1000;0.6015;1.0116;
542.4000;0.5999;1.0022;
542.7000;0.6007;1.0069;
543.0000;0.6064;1.0187;
543.3000;0.6007;0.9999;
543.6000;0.5999;1.0069;
543.9000;0.6032;1.0140;
544.2000;0.6015;1.0163;
544.5000;0.6007;1.0210;
544.8000;0.6015;1.0187;
545.1000;0.6007;1.0163;
545.4000;0.6007;1.0163;
545.7000;0.6007;1.0116;
546.0000;0.6015;1.0187;
546.3000;0.6015;1.0210;
546.6000;0.6024;1.0163;
546.9000;0.6015;1.0140;
547.2000;0.5999;1.0069;
547.5000;0.6007;1.0116;
547.8000;0.6007;1.0116;
548.1000;0.6015;1.0140;
548.4000;0.6007;1.0281;
548.7000;0.6007;1.0281;
549.0000;0.5991;1.0210;
549.3000;0.6032;1.0304;
549.6000;0.5958;1.0140;
549.9000;0.5999;1.0257;
550.2000;0.6015;1.0116;
550.5000;0.6007;1.0069;
550.8000;0.6015;1.0069;
551.1000;0.6007;1.0069;
551.4000;0.5991;1.0093;
551.7000;0.6015;1.0093;
552.0000;0.6007;1.0093;
552.3000;0.5983;1.0069;
552.6000;0.6007;1.0069;
552.9000;0.6024;1.0140;
553.2000;0.6105;1.0281;
553.5000;0.6007;1.0116;
553.8000;0.6015;1.0163;
554.1000;0.5999;1.0116;
554.4000;0.6015;1.0140;
554.7000;0.6007;1.0022;
555.0000;0.5999;1.0069;
555.3000;0.5983;1.0046;
555.6000;0.6015;1.0140;
555.9000;0.6015;1.0140;
556.2000;0.5999;1.0116;
556.5000;0.6024;1.0234;
556.8000;0.6024;1.0234;
557.1000;0.6015;1.0163;
557.4000;0.6024;1.0140;
557.7000;0.6032;1.0187;
558.0000;0.6015;1.0234;
558.3000;0.6040;1.0304;
558.6000;0.6015;1.0257;
558.9000;0.6089;1.0492;
559.2000;0.5999;1.0163;
559.5000;0.5991;1.0140;
559.8000;0.6007;1.0234;
560.1000;0.6024;1.0234;
560.4000;0.6015;1.0210;
560.7000;0.6015;1.0281;
561.0000;0.6015;1.0257;
561.3000;0.6024;1.0234;
561.6000;0.6040;1.0210;
561.9000;0.5999;1.0116;
562.2000;0.5983;1.0210;
562.5000;0.6032;1.0351;
562.8000;0.6015;1.0304;
563.1000;0.6024;1.0328;
563.4000;0.6007;1.0187;
563.7000;0.5991;1.0163;
564.0000;0.5991;1.0210;
564.3000;0.5999;1.0187;
564.6000;0.6007;1.0187;
564.9000;0.5999;1.0163;
565.2000;0.6015;1.0093;
565.5000;0.6024;1.0046;
565.8000;0.6015;0.9999;
566.1000;0.5991;0.9952;
566.4000;0.6015;1.0116;
566.7000;0.6007;1.0163;
567.0000;0.6056;1.0257;
567.3000;0.6007;1.0187;
567.6000;0.6024;1.0140;
567.9000;0.6040;1.0163;
568.2000;0.6015;1.0140;
568.5000;0.6007;1.0093;
568.8000;0.5991;1.0022;
569.1000;0.6007;1.0069;
569.4000;0.6007;1.0069;
569.7000;0.6040;1.0234;
570.0000;0.6007;1.0187;
570.3000;0.6024;1.0234;
570.6000;0.6064;1.0445;
570.9000;0.6007;1.0257;
571.2000;0.5999;1.0210;
571.5000;0.6024;1.0210;
571.8000;0.6081;1.0351;
572.1000;0.6015;1.0140;
572.4000;0.5999;1.0116;
572.7000;0.6007;1.0022;
573.0000;0.6007;0.9999;
573.3000;0.6064;1.0187;
573.6000;0.6007;1.0093;
573.9000;0.5999;1.0046;
574.2000;0.6007;1.0069;
574.5000;0.6024;1.0069;
574.8000;0.6007;1.0069;
575.1000;0.6007;1.0022;
575.4000;0.5975;0.9999;
575.7000;0.5999;1.0093;
576.0000;0.5991;1.0093;
576.3000;0.5950;1.0046;
576.6000;0.6007;1.0187;
576.9000;0.6024;1.0234;
577.2000;0.6015;1.0281;
577.5000;0.6015;1.0281;
577.8000;0.5999;1.0257;
578.1000;0.6024;1.0351;
578.4000;0.6007;1.0304;
578.7000;0.6007;1.0304;
579.0000;0.6056;1.0445;
579.3000;0.6064;1.0539;
579.6000;0.6007;1.0304;
579.9000;0.6015;1.0304;
580.2000;0.6007;1.0234;
580.5000;0.6015;1.0257;
580.8000;0.6040;1.0234;
581.1000;0.6015;1.0234;
581.4000;0.5877;0.9952;
581.7000;0.6007;1.0234;
582.0000;0.6015;1.0187;
582.3000;0.6007;1.0187;
582.6000;0.5999;1.0187;
582.9000;0.6007;1.0187;
583.2000;0.6015;1.0116;
583.5000;0.6007;1.0046;
583.8000;0.6007;1.0093;
584.1000;0.6007;1.0163;
584.4000;0.6007;1.0069;
584.7000;0.6007;0.9952;
585.0000;0.5999;0.9905;
585.3000;0.6015;0.9952;
585.6000;0.6032;0.9929;
585.9000;0.6015;0.9952;
586.2000;0.6015;0.9976;
586.5000;0.6105;1.0210;
586.8000;0.6015;0.9929;
587.1000;0.6024;0.9952;
587.4000;0.6015;1.0022;
587.7000;0.6007;0.9999;
588.0000;0.5999;0.9999;
588.3000;0.6040;1.0116;
588.6000;0.6015;1.0093;
588.9000;0.6007;1.0116;
589.2000;0.6007;1.0093;
589.5000;0.6007;1.0093;
589.8000;0.5999;1.0069;
590.1000;0.6007;1.0163;
590.4000;0.5999;1.0093;
590.7000;0.5983;1.0022;
591.0000;0.6007;1.0116;
591.3000;0.5999;1.0093;
591.6000;0.6015;1.0093;
591.9000;0.6007;1.0140;
592.2000;0.6015;1.0022;
592.5000;0.5975;0.9952;
592.8000;0.6032;1.0069;
593.1000;0.6015;0.9999;
593.4000;0.6015;1.0069;
593.7000;0.6007;1.0022;
594.0000;0.5999;1.0116;
594.3000;0.6015;1.0093;
594.6000;0.6032;1.0187;
594.9000;0.6007;1.0163;
595.2000;0.6007;1.0069;
595.5000;0.6015;1.0069;
595.8000;0.6024;1.0116;
596.1000;0.5999;1.0140;
596.4000;0.5999;1.0163;
596.7000;0.6015;1.0210;
597.0000;0.6007;1.0257;
597.3000;0.5999;1.0257;
597.6000;0.6007;1.0281;
597.9000;0.5999;1.0257;
598.2000;0.6056;1.0375;
598.5000;0.6007;1.0187;
598.8000;0.5999;1.0210;
599.1000;0.5991;1.0187;
599.4000;0.6040;1.0328;
599.7000;0.6015;1.0140;
600.0000;0.5991;1.0093;
600.3000;0.6081;1.0187;
600.6000;0.6032;1.0046;
600.9000;0.6024;0.9976;
601.2000;0.6024;0.9905;
601.5000;0.5983;0.9835;
601.8000;0.5934;0.9717;
602.1000;0.5910;0.9670;
602.4000;0.5877;0.9553;
602.7000;0.5853;0.9459;
603.0000;0.5828;0.9412;
603.3000;0.5804;0.9342;
603.6000;0.5804;0.9295;
603.9000;0.5755;0.9224;
604.2000;0.5722;0.9248;
604.5000;0.5706;0.9318;
604.8000;0.5682;0.9248;
605.1000;0.5641;0.9131;
605.4000;0.5641;0.9107;
605.7000;0.5617;0.9060;
606.0000;0.5600;0.8966;
606.3000;0.5576;0.8990;
606.6000;0.5560;0.8966;
606.9000;0.5551;0.8919;
607.2000;0.5543;0.8896;
607.5000;0.5625;0.9107;
607.8000;0.5511;0.8872;
608.1000;0.5478;0.8778;
608.4000;0.5495;0.8825;
608.7000;0.5470;0.8849;
609.0000;0.5503;0.8919;
609.3000;0.5454;0.8755;
609.6000;0.5446;0.8755;
609.9000;0.5446;0.8802;
610.2000;0.5429;0.8802;
610.5000;0.5315;0.8544;
610.8000;0.5397;0.8732;
611.1000;0.5438;0.8966;
611.4000;0.5372;0.8825;
611.7000;0.5389;0.8896;
612.0000;0.5356;0.8966;
612.3000;0.5356;0.8896;
612.6000;0.5340;0.8825;
612.9000;0.5315;0.8708;
613.2000;0.5332;0.8778;
613.5000;0.5291;0.8732;
613.8000;0.5315;0.8732;
614.1000;0.5307;0.8872;
614.4000;0.5299;0.8896;
614.7000;0.5283;0.8849;
615.0000;0.5275;0.8778;
615.3000;0.5258;0.8825;
615.6000;0.5267;0.8896;
615.9000;0.5226;0.8802;
616.2000;0.5242;0.8802;
616.5000;0.5283;0.8849;
616.8000;0.5226;0.8778;
617.1000;0.5210;0.8661;
617.4000;0.5193;0.8614;
617.7000;0.5210;0.8661;
618.0000;0.5185;0.8638;
618.3000;0.5177;0.8685;
618.6000;0.5185;0.8685;
618.9000;0.5153;0.8591;
619.2000;0.5144;0.8520;
619.5000;0.5144;0.8544;
619.8000;0.5128;0.8591;
620.1000;0.5169;0.8661;
620.4000;0.5144;0.8497;
620.7000;0.5112;0.8403;
621.0000;0.5128;0.8473;
621.3000;0.5112;0.8426;
621.6000;0.5104;0.8403;
621.9000;0.5112;0.8450;
622.2000;0.5112;0.8450;
622.5000;0.5096;0.8450;
622.8000;0.5071;0.8473;
623.1000;0.5096;0.8567;
623.4000;0.5112;0.8661;
623.7000;0.5071;0.8567;
624.0000;0.5063;0.8591;
624.3000;0.5039;0.8544;
624.6000;0.5039;0.8567;
624.9000;0.5031;0.8544;
625.2000;0.4998;0.8520;
625.5000;0.4998;0.8567;
625.8000;0.5014;0.8591;
626.1000;0.5022;0.8661;
626.4000;0.5014;0.8638;
626.7000;0.4982;0.8661;
627.0000;0.4998;0.8638;
627.3000;0.5006;0.8614;
627.6000;0.4998;0.8661;
627.9000;0.4982;0.8591;
628.2000;0.4974;0.8473;
628.5000;0.4957;0.8450;
628.8000;0.4982;0.8450;
629.1000;0.4974;0.8426;
629.4000;0.4949;0.8497;
629.7000;0.4957;0.8450;
630.0000;0.4925;0.8544;
630.3000;0.4982;0.8638;
630.6000;0.4925;0.8567;
630.9000;0.4892;0.8497;
631.2000;0.4933;0.8591;
631.5000;0.4908;0.8567;
631.8000;0.4884;0.8520;
632.1000;0.4884;0.8591;
632.4000;0.4892;0.8661;
632.7000;0.4860;0.8661;
633.0000;0.4851;0.8661;
633.3000;0.4876;0.8732;
633.6000;0.4851;0.8732;
633.9000;0.4835;0.8661;
634.2000;0.4860;0.8614;
634.5000;0.4860;0.8591;
634.8000;0.4835;0.8638;
635.1000;0.4860;0.8661;
635.4000;0.4843;0.8708;
635.7000;0.4811;0.8614;
636.0000;0.4843;0.8685;
636.3000;0.4835;0.8638;
636.6000;0.4843;0.8638;
636.9000;0.4860;0.8708;
637.2000;0.4811;0.8544;
637.5000;0.4762;0.8450;
637.8000;0.4794;0.8591;
638.1000;0.4770;0.8544;
638.4000;0.4786;0.8614;
638.7000;0.4811;0.8638;
639.0000;0.4770;0.8591;
639.3000;0.4778;0.8614;
639.6000;0.4770;0.8544;
639.9000;0.4770;0.8520;
640.2000;0.4778;0.8520;
640.5000;0.4754;0.8450;
640.8000;0.4762;0.8450;
641.1000;0.4729;0.8379;
641.4000;0.4746;0.8379;
641.7000;0.4754;0.8403;
642.0000;0.4737;0.8497;
642.3000;0.4721;0.8520;
642.6000;0.4729;0.8544;
642.9000;0.4754;0.8685;
643.2000;0.4737;0.8732;
643.5000;0.4721;0.8708;
643.8000;0.4721;0.8802;
644.1000;0.4713;0.8755;
644.4000;0.4721;0.8802;
644.7000;0.4713;0.8849;
645.0000;0.4697;0.8896;
645.3000;0.4705;0.8872;
645.6000;0.4697;0.8896;
645.9000;0.4664;0.8778;
646.2000;0.4681;0.8872;
646.5000;0.4664;0.8896;
646.8000;0.4689;0.8896;
647.1000;0.4689;0.8919;
647.4000;0.4664;0.8849;
647.7000;0.4689;0.8919;
648.0000;0.4664;0.8896;
648.3000;0.4656;0.8872;
648.6000;0.4664;0.8872;
648.9000;0.4648;0.8872;
649.2000;0.4624;0.8778;
649.5000;0.4640;0.8872;
649.8000;0.4640;0.8849;
650.1000;0.4640;0.8896;
650.4000;0.4713;0.9013;
650.7000;0.4615;0.8755;
651.0000;0.4632;0.8732;
651.3000;0.4632;0.8755;
651.6000;0.4640;0.8943;
651.9000;0.4632;0.8919;
652.2000;0.4624;0.8872;
652.5000;0.4632;0.8849;
652.8000;0.4632;0.8732;
653.1000;0.4615;0.8778;
653.4000;0.4615;0.8802;
653.7000;0.4607;0.8825;
654.0000;0.4607;0.8802;
654.3000;0.4648;0.8825;
654.6000;0.4575;0.8567;
654.9000;0.4526;0.8473;
655.2000;0.4599;0.8591;
655.5000;0.4599;0.8544;
655.8000;0.4591;0.8591;
656.1000;0.4583;0.8591;
656.4000;0.4575;0.8497;
656.7000;0.4583;0.8473;
657.0000;0.4583;0.8497;
657.3000;0.4558;0.8403;
657.6000;0.4567;0.8473;
657.9000;0.4550;0.8473;
658.2000;0.4542;0.8426;
658.5000;0.4542;0.8450;
658.8000;0.4550;0.8473;
659.1000;0.4542;0.8379;
659.4000;0.4558;0.8473;
659.7000;0.4575;0.8426;
660.0000;0.4558;0.8403;
660.3000;0.4550;0.8497;
660.6000;0.4550;0.8544;
660.9000;0.4558;0.8591;
661.2000;0.4542;0.8591;
661.5000;0.4550;0.8544;
661.8000;0.4518;0.8450;
662.1000;0.4534;0.8497;
662.4000;0.4526;0.8473;
662.7000;0.4526;0.8520;
663.0000;0.4518;0.8520;
663.3000;0.4534;0.8591;
663.6000;0.4501;0.8567;
663.9000;0.4510;0.8567;
664.2000;0.4534;0.8661;
664.5000;0.4534;0.8661;
664.8000;0.4501;0.8591;
665.1000;0.4501;0.8544;
665.4000;0.4453;0.8426;
665.7000;0.4510;0.8614;
666.0000;0.4510;0.8661;
666.3000;0.4510;0.8732;
666.6000;0.4501;0.8685;
666.9000;0.4510;0.8685;
667.2000;0.4534;0.8638;
667.5000;0.4469;0.8473;
667.8000;0.4453;0.8450;
668.1000;0.4485;0.8591;
668.4000;0.4493;0.8614;
668.7000;0.4485;0.8591;
669.0000;0.4477;0.8614;
669.3000;0.4428;0.8450;
669.6000;0.4453;0.8426;
669.9000;0.4477;0.8473;
670.2000;0.4469;0.8403;
670.5000;0.4485;0.8450;
670.8000;0.4477;0.8473;
671.1000;0.4444;0.8426;
671.4000;0.4461;0.8450;
671.7000;0.4469;0.8426;
672.0000;0.4461;0.8450;
672.3000;0.4477;0.8567;
672.6000;0.4453;0.8450;
672.9000;0.4444;0.8497;
673.2000;0.4444;0.8497;
673.5000;0.4453;0.8544;
673.8000;0.4444;0.8450;
674.1000;0.4453;0.8450;
674.4000;0.4428;0.8450;
674.7000;0.4453;0.8567;
675.0000;0.4453;0.8520;
675.3000;0.4420;0.8450;
675.6000;0.4453;0.8520;
675.9000;0.4436;0.8520;
676.2000;0.4412;0.8544;
676.5000;0.4420;0.8732;
676.8000;0.4412;0.8732;
677.1000;0.4428;0.8778;
677.4000;0.4420;0.8755;
677.7000;0.4420;0.8825;
678.0000;0.4428;0.8872;
678.3000;0.4420;0.8802;
678.6000;0.4379;0.8614;
678.9000;0.4412;0.8732;
679.2000;0.4404;0.8708;
679.5000;0.4404;0.8708;
679.8000;0.4404;0.8661;
680.1000;0.4396;0.8591;
680.4000;0.4404;0.8661;
680.7000;0.4493;0.8825;
681.0000;0.4412;0.8685;
681.3000;0.4404;0.8638;
681.6000;0.4453;0.8661;
681.9000;0.4404;0.8520;
682.2000;0.4387;0.8450;
682.5000;0.4404;0.8450;
682.8000;0.4379;0.8450;
683.1000;0.4396;0.8567;
683.4000;0.4396;0.8567;
683.7000;0.4379;0.8567;
684.0000;0.4371;0.8544;
684.3000;0.4371;0.8473;
684.6000;0.4363;0.8450;
684.9000;0.4379;0.8450;
685.2000;0.4363;0.8426;
685.5000;0.4355;0.8379;
685.8000;0.4404;0.8567;
686.1000;0.4412;0.8638;
686.4000;0.4363;0.8520;
686.7000;0.4404;0.8661;
687.0000;0.4347;0.8544;
687.3000;0.4420;0.8802;
687.6000;0.4347;0.8497;
687.9000;0.4200;0.8145;
688.2000;0.4314;0.8426;
688.5000;0.4355;0.8638;
688.8000;0.4347;0.8520;
689.1000;0.4347;0.8567;
689.4000;0.4379;0.8638;
689.7000;0.4347;0.8614;
690.0000;0.4355;0.8591;
690.3000;0.4363;0.8661;
690.6000;0.4339;0.8708;
690.9000;0.4306;0.8614;
691.2000;0.4330;0.8614;
691.5000;0.4339;0.8520;
691.8000;0.4330;0.8497;
692.1000;0.4355;0.8497;
692.4000;0.4306;0.8426;
692.7000;0.4330;0.8403;
693.0000;0.4330;0.8473;
693.3000;0.4347;0.8450;
693.6000;0.4330;0.8426;
693.9000;0.4363;0.8473;
694.2000;0.4306;0.8332;
694.5000;0.4330;0.8356;
694.8000;0.4347;0.8426;
695.1000;0.4339;0.8403;
695.4000;0.4306;0.8356;
695.7000;0.4330;0.8520;
696.0000;0.4347;0.8544;
696.3000;0.4330;0.8614;
696.6000;0.4339;0.8567;
696.9000;0.4314;0.8567;
697.2000;0.4314;0.8567;
697.5000;0.4339;0.8614;
697.8000;0.4379;0.8708;
698.1000;0.4314;0.8497;
698.4000;0.4314;0.8450;
698.7000;0.4306;0.8403;
699.0000;0.4306;0.8403;
699.3000;0.4306;0.8403;
699.6000;0.4322;0.8403;
699.9000;0.4330;0.8544;
700.2000;0.4314;0.8450;
700.5000;0.4314;0.8379;
700.8000;0.4314;0.8356;
701.1000;0.4306;0.8286;
701.4000;0.4314;0.8262;
701.7000;0.4322;0.8332;
702.0000;0.4306;0.8356;
702.3000;0.4322;0.8379;
702.6000;0.4314;0.8356;
702.9000;0.4290;0.8332;
703.2000;0.4339;0.8473;
703.5000;0.4306;0.8473;
703.8000;0.4306;0.8544;
704.1000;0.4274;0.8450;
704.4000;0.4290;0.8497;
704.7000;0.4282;0.8497;
705.0000;0.4274;0.8473;
705.3000;0.4282;0.8450;
705.6000;0.4233;0.8309;
705.9000;0.4306;0.8426;
706.2000;0.4322;0.8497;
706.5000;0.4298;0.8356;
706.8000;0.4257;0.8286;
707.1000;0.4290;0.8309;
707.4000;0.4282;0.8286;
707.7000;0.4298;0.8286;
708.0000;0.4290;0.8262;
708.3000;0.4322;0.8332;
708.6000;0.4347;0.8450;
708.9000;0.4274;0.8309;
709.2000;0.4282;0.8356;
709.5000;0.4274;0.8356;
709.8000;0.4404;0.8567;
710.1000;0.4306;0.8309;
710.4000;0.4257;0.8215;
710.7000;0.4290;0.8309;
711.0000;0.4265;0.8332;
711.3000;0.4282;0.8332;
711.6000;0.4127;0.7980;
711.9000;0.4200;0.8121;
712.2000;0.4322;0.8379;
712.5000;0.4265;0.8215;
712.8000;0.4282;0.8309;
713.1000;0.4290;0.8403;
713.4000;0.4241;0.8356;
713.7000;0.4249;0.8286;
714.0000;0.4249;0.8215;
714.3000;0.4249;0.8192;
714.6000;0.4241;0.8239;
714.9000;0.4306;0.8426;
715.2000;0.4249;0.8332;
715.5000;0.4257;0.8450;
715.8000;0.4233;0.8379;
716.1000;0.4322;0.8567;
716.4000;0.4233;0.8379;
716.7000;0.4233;0.8403;
717.0000;0.4241;0.8379;
717.3000;0.4241;0.8356;
717.6000;0.4241;0.8262;
717.9000;0.4274;0.8403;
718.2000;0.4241;0.8309;
718.5000;0.4249;0.8403;
718.8000;0.4241;0.8403;
719.1000;0.4249;0.8544;
719.4000;0.4217;0.8614;
719.7000;0.4233;0.8638;
720.0000;0.4265;0.8732;
720.3000;0.4241;0.8732;
720.6000;0.4249;0.8732;
720.9000;0.4225;0.8732;
721.2000;0.4233;0.8638;
721.5000;0.4241;0.8614;
721.8000;0.4241;0.8638;
722.1000;0.4265;0.8708;
722.4000;0.4249;0.8708;
722.7000;0.4241;0.8685;
723.0000;0.4339;0.8896;
723.3000;0.4200;0.8708;
723.6000;0.4217;0.8755;
723.9000;0.4233;0.8732;
724.2000;0.4225;0.8732;
724.5000;0.4160;0.8544;
724.8000;0.4225;0.8661;
725.1000;0.4217;0.8638;
725.4000;0.4225;0.8497;
725.7000;0.4225;0.8450;
726.0000;0.4208;0.8450;
726.3000;0.4135;0.8286;
726.6000;0.4282;0.8591;
726.9000;0.4200;0.8379;
727.2000;0.4208;0.8356;
727.5000;0.4208;0.8473;
727.8000;0.4225;0.8473;
728.1000;0.4217;0.8473;
728.4000;0.4192;0.8450;
728.7000;0.4208;0.8426;
729.0000;0.4208;0.8450;
729.3000;0.4217;0.8567;
729.6000;0.4208;0.8638;
729.9000;0.4200;0.8661;
730.2000;0.4192;0.8614;
730.5000;0.4233;0.8732;
730.8000;0.4176;0.8614;
731.1000;0.4233;0.8661;
731.4000;0.4200;0.8591;
731.7000;0.4225;0.8544;
732.0000;0.4208;0.8544;
732.3000;0.4200;0.8614;
732.6000;0.4225;0.8591;
732.9000;0.4200;0.8614;
733.2000;0.4225;0.8661;
733.5000;0.4200;0.8685;
733.8000;0.4176;0.8638;
734.1000;0.4200;0.8708;
734.4000;0.4168;0.8591;
734.7000;0.4200;0.8685;
735.0000;0.4192;0.8591;
735.3000;0.4217;0.8614;
735.6000;0.4217;0.8591;
735.9000;0.4192;0.8520;
736.2000;0.4217;0.8520;
736.5000;0.4217;0.8567;
736.8000;0.4225;0.8544;
737.1000;0.4119;0.8379;
737.4000;0.4184;0.8614;
737.7000;0.4225;0.8708;
738.0000;0.4160;0.8497;
738.3000;0.4200;0.8544;
738.6000;0.4184;0.8520;
738.9000;0.4184;0.8567;
739.2000;0.4192;0.8544;
739.5000;0.4192;0.8403;
739.8000;0.4192;0.8403;
740.1000;0.4184;0.8379;
740.4000;0.4208;0.8473;
740.7000;0.4184;0.8544;
741.0000;0.4200;0.8661;
741.3000;0.4192;0.8614;
741.6000;0.4184;0.8614;
741.9000;0.4200;0.8661;
742.2000;0.4241;0.8872;
742.5000;0.4184;0.8755;
742.8000;0.4192;0.8732;
743.1000;0.4184;0.8638;
743.4000;0.4184;0.8708;
743.7000;0.4184;0.8755;
744.0000;0.4184;0.8755;
744.3000;0.4200;0.8872;
744.6000;0.4184;0.8849;
744.9000;0.4184;0.8825;
745.2000;0.4249;0.8943;
745.5000;0.4184;0.8802;
745.8000;0.4192;0.8732;
746.1000;0.4168;0.8708;
746.4000;0.4184;0.8638;
746.7000;0.4184;0.8661;
747.0000;0.4184;0.8708;
747.3000;0.4192;0.8638;
747.6000;0.4184;0.8567;
747.9000;0.4176;0.8638;
748.2000;0.4176;0.8591;
748.5000;0.4135;0.8497;
748.8000;0.4176;0.8638;
749.1000;0.4176;0.8638;
749.4000;0.4176;0.8685;
749.7000;0.4176;0.8661;
750.0000;0.4168;0.8638;
750.3000;0.4184;0.8732;
750.6000;0.4184;0.8732;
750.9000;0.4176;0.8661;
751.2000;0.4184;0.8732;
751.5000;0.4176;0.8778;
751.8000;0.4176;0.8755;
752.1000;0.4176;0.8802;
752.4000;0.4184;0.8802;
752.7000;0.4176;0.8755;
753.0000;0.4168;0.8732;
753.3000;0.4135;0.8732;
753.6000;0.4135;0.8732;
753.9000;0.4160;0.8755;
754.2000;0.4135;0.8755;
754.5000;0.4176;0.8849;
754.8000;0.4184;0.8872;
755.1000;0.4160;0.8802;
755.4000;0.4151;0.8849;
755.7000;0.4184;0.8943;
756.0000;0.4176;0.8802;
756.3000;0.4103;0.8685;
756.6000;0.4127;0.8802;
756.9000;0.4160;0.8849;
757.2000;0.4094;0.8614;
757.5000;0.4151;0.8732;
757.8000;0.4151;0.8661;
758.1000;0.4168;0.8732;
758.4000;0.4160;0.8732;
758.7000;0.4160;0.8708;
759.0000;0.4160;0.8802;
759.3000;0.4151;0.8825;
759.6000;0.4160;0.8778;
759.9000;0.4151;0.8661;
760.2000;0.4143;0.8614;
760.5000;0.4135;0.8614;
760.8000;0.4143;0.8591;
761.1000;0.4241;0.8825;
761.4000;0.4143;0.8544;
761.7000;0.4160;0.8638;
762.0000;0.4160;0.8708;
762.3000;0.4168;0.8638;
762.6000;0.4176;0.8661;
762.9000;0.4151;0.8614;
763.2000;0.4143;0.8614;
763.5000;0.4168;0.8685;
763.8000;0.4135;0.8614;
764.1000;0.4143;0.8638;
764.4000;0.4143;0.8544;
764.7000;0.4151;0.8544;
765.0000;0.4143;0.8591;
765.3000;0.4168;0.8638;
765.6000;0.4143;0.8567;
765.9000;0.4160;0.8614;
766.2000;0.4119;0.8567;
766.5000;0.4168;0.8567;
766.8000;0.4135;0.8567;
767.1000;0.4143;0.8497;
767.4000;0.4143;0.8520;
767.7000;0.4135;0.8567;
768.0000;0.4135;0.8638;
768.3000;0.4143;0.8638;
768.6000;0.4135;0.8544;
768.9000;0.4151;0.8544;
769.2000;0.4168;0.8567;
769.5000;0.4062;0.8403;
769.8000;0.4151;0.8567;
770.1000;0.4151;0.8591;
770.4000;0.4200;0.8778;
770.7000;0.4151;0.8614;
771.0000;0.4184;0.8708;
771.3000;0.4208;0.8732;
771.6000;0.4127;0.8544;
771.9000;0.4127;0.8591;
772.2000;0.4119;0.8567;
772.5000;0.4135;0.8591;
772.8000;0.4135;0.8591;
773.1000;0.4135;0.8544;
773.4000;0.4119;0.8544;
773.7000;0.4143;0.8567;
774.0000;0.4135;0.8544;
774.3000;0.4168;0.8614;
774.6000;0.4143;0.8567;
774.9000;0.4078;0.8379;
775.2000;0.4127;0.8497;
775.5000;0.4135;0.8591;
775.8000;0.4135;0.8614;
776.1000;0.4143;0.8614;
776.4000;0.4135;0.8567;
776.7000;0.4046;0.8379;
777.0000;0.4119;0.8544;
777.3000;0.4111;0.8497;
777.6000;0.4135;0.8520;
777.9000;0.4119;0.8473;
778.2000;0.4135;0.8473;
778.5000;0.4119;0.8450;
778.8000;0.4078;0.8356;
779.1000;0.4111;0.8497;
779.4000;0.4151;0.8614;
779.7000;0.4119;0.8614;
780.0000;0.4160;0.8661;
780.3000;0.4135;0.8614;
780.6000;0.4054;0.8450;
780.9000;0.4151;0.8661;
781.2000;0.4135;0.8544;
781.5000;0.4119;0.8403;
781.8000;0.4094;0.8356;
782.1000;0.4119;0.8520;
782.4000;0.4119;0.8591;
782.7000;0.4127;0.8567;
783.0000;0.4127;0.8591;
783.3000;0.4151;0.8638;
783.6000;0.4127;0.8614;
783.9000;0.4135;0.8685;
784.2000;0.4111;0.8638;
784.5000;0.4119;0.8778;
784.8000;0.4094;0.8567;
785.1000;0.4119;0.8661;
785.4000;0.4151;0.8708;
785.7000;0.4111;0.8661;
786.0000;0.4119;0.8685;
786.3000;0.4119;0.8661;
786.6000;0.4103;0.8614;
786.9000;0.4111;0.8685;
787.2000;0.4127;0.8685;
787.5000;0.4119;0.8497;
787.8000;0.4119;0.8473;
788.1000;0.4103;0.8426;
788.4000;0.4119;0.8520;
788.7000;0.4127;0.8591;
789.0000;0.4111;0.8591;
789.3000;0.4127;0.8685;
789.6000;0.4111;0.8567;
789.9000;0.4094;0.8520;
790.2000;0.4119;0.8520;
790.5000;0.4094;0.8497;
790.8000;0.4119;0.8520;
791.1000;0.4119;0.8544;
791.4000;0.4127;0.8497;
791.7000;0.4111;0.8544;
792.0000;0.4103;0.8567;
792.3000;0.4111;0.8661;
792.6000;0.4078;0.8497;
792.9000;0.4111;0.8544;
793.2000;0.4176;0.8708;
793.5000;0.4111;0.8591;
793.8000;0.4094;0.8544;
794.1000;0.4103;0.8591;
794.4000;0.4094;0.8708;
794.7000;0.4078;0.8567;
795.0000;0.4111;0.8544;
795.3000;0.4111;0.8544;
795.6000;0.4111;0.8520;
795.9000;0.4119;0.8591;
796.2000;0.4037;0.8473;
796.5000;0.4086;0.8450;
796.8000;0.4111;0.8520;
797.1000;0.4086;0.8497;
797.4000;0.4103;0.8520;
797.7000;0.4086;0.8544;
798.0000;0.4103;0.8614;
798.3000;0.4119;0.8708;
798.6000;0.4094;0.8638;
798.9000;0.4103;0.8567;
799.2000;0.4086;0.8450;
799.5000;0.4103;0.8473;
799.8000;0.4103;0.8520;
800.1000;0.4111;0.8661;
800.4000;0.4111;0.8614;
800.7000;0.4111;0.8567;
801.0000;0.4111;0.8614;
801.3000;0.4094;0.8614;
801.6000;0.4111;0.8661;
801.9000;0.4111;0.8732;
802.2000;0.4094;0.8567;
802.5000;0.4086;0.8544;
802.8000;0.4094;0.8614;
803.1000;0.4078;0.8591;
803.4000;0.4103;0.8638;
803.7000;0.4086;0.8544;
804.0000;0.4103;0.8520;
804.3000;0.4103;0.8520;
804.6000;0.4176;0.8755;
804.9000;0.4103;0.8591;
805.2000;0.4119;0.8661;
805.5000;0.4078;0.8614;
805.8000;0.4094;0.8685;
806.1000;0.4103;0.8732;
806.4000;0.4111;0.8708;
806.7000;0.4070;0.8567;
807.0000;0.4086;0.8614;
807.3000;0.4103;0.8614;
807.6000;0.4111;0.8661;
807.9000;0.4135;0.8638;
808.2000;0.4094;0.8520;
808.5000;0.4086;0.8520;
808.8000;0.4094;0.8638;
809.1000;0.4086;0.8685;
809.4000;0.4127;0.8708;
809.7000;0.4094;0.8732;
810.0000;0.4111;0.8778;
810.3000;0.4135;0.8825;
810.6000;0.4086;0.8685;
810.9000;0.4094;0.8732;
811.2000;0.4103;0.8685;
811.5000;0.4103;0.8661;
811.8000;0.4094;0.8661;
812.1000;0.4103;0.8591;
812.4000;0.4103;0.8591;
812.7000;0.4094;0.8685;
813.0000;0.4046;0.8638;
813.3000;0.4070;0.8638;
813.6000;0.4070;0.8591;
813.9000;0.4086;0.8638;
814.2000;0.4086;0.8638;
814.5000;0.4086;0.8708;
814.8000;0.4078;0.8685;
815.1000;0.4103;0.8638;
815.4000;0.4103;0.8638;
815.7000;0.4086;0.8638;
816.0000;0.4070;0.8685;
816.3000;0.4086;0.8732;
816.6000;0.4119;0.8802;
816.9000;0.4086;0.8685;
817.2000;0.4094;0.8755;
817.5000;0.4103;0.8732;
817.8000;0.4094;0.8638;
818.1000;0.4086;0.8685;
818.4000;0.4078;0.8685;
818.7000;0.4103;0.8732;
819.0000;0.4086;0.8685;
819.3000;0.4094;0.8825;
819.6000;0.4086;0.8802;
819.9000;0.4062;0.8732;
820.2000;0.4111;0.8755;
820.5000;0.4103;0.8732;
820.8000;0.4086;0.8755;
821.1000;0.4094;0.8755;
821.4000;0.4103;0.8732;
821.7000;0.4094;0.8685;
822.0000;0.4037;0.8497;
822.3000;0.4078;0.8614;
822.6000;0.4062;0.8567;
822.9000;0.4070;0.8614;
823.2000;0.4078;0.8567;
823.5000;0.4078;0.8544;
823.8000;0.4086;0.8567;
824.1000;0.4094;0.8544;
824.4000;0.4078;0.8520;
824.7000;0.4037;0.8403;
825.0000;0.4062;0.8473;
825.3000;0.4078;0.8497;
825.6000;0.4086;0.8520;
825.9000;0.4151;0.8685;
826.2000;0.4086;0.8544;
826.5000;0.4086;0.8567;
826.8000;0.4135;0.8685;
827.1000;0.4111;0.8567;
827.4000;0.4070;0.8473;
827.7000;0.4168;0.8614;
828.0000;0.4094;0.8473;
828.3000;0.4070;0.8450;
828.6000;0.4013;0.8426;
828.9000;0.4070;0.8591;
829.2000;0.4070;0.8614;
829.5000;0.4078;0.8614;
829.8000;0.4062;0.8614;
830.1000;0.4062;0.8567;
830.4000;0.4054;0.8520;
830.7000;0.4070;0.8591;
831.0000;0.4094;0.8708;
831.3000;0.4070;0.8661;
831.6000;0.4086;0.8732;
831.9000;0.4103;0.8732;
832.2000;0.4078;0.8708;
832.5000;0.4086;0.8708;
832.8000;0.4078;0.8708;
833.1000;0.4078;0.8708;
833.4000;0.4078;0.8778;
833.7000;0.4094;0.8708;
834.0000;0.4151;0.8825;
834.3000;0.4086;0.8591;
834.6000;0.4078;0.8591;
834.9000;0.4078;0.8638;
835.2000;0.4062;0.8544;
835.5000;0.4094;0.8591;
835.8000;0.4135;0.8708;
836.1000;0.4103;0.8732;
836.4000;0.4078;0.8638;
836.7000;0.4086;0.8661;
837.0000;0.4094;0.8591;
837.3000;0.4070;0.8567;
837.6000;0.4062;0.8520;
837.9000;0.4086;0.8591;
838.2000;0.4078;0.8567;
838.5000;0.4070;0.8426;
838.8000;0.4062;0.8332;
839.1000;0.4103;0.8497;
839.4000;0.4094;0.8544;
839.7000;0.4078;0.8544;
840.0000;0.4054;0.8497;
840.3000;0.4078;0.8473;
840.6000;0.4070;0.8473;
840.9000;0.4054;0.8426;
841.2000;0.4078;0.8544;
841.5000;0.4070;0.8520;
841.8000;0.4070;0.8544;
842.1000;0.4086;0.8450;
842.4000;0.4111;0.8450;
842.7000;0.4070;0.8356;
843.0000;0.4070;0.8356;
843.3000;0.4062;0.8309;
843.6000;0.4054;0.8356;
843.9000;0.4062;0.8426;
844.2000;0.4046;0.8473;
844.5000;0.3972;0.8309;
844.8000;0.4046;0.8473;
845.1000;0.4078;0.8473;
845.4000;0.4127;0.8567;
845.7000;0.4078;0.8473;
846.0000;0.4054;0.8473;
846.3000;0.4062;0.8426;
846.6000;0.4078;0.8450;
846.9000;0.4086;0.8403;
847.2000;0.4054;0.8426;
847.5000;0.4062;0.8567;
847.8000;0.4070;0.8638;
848.1000;0.4054;0.8567;
848.4000;0.4062;0.8591;
848.7000;0.4021;0.8403;
849.0000;0.4054;0.8473;
849.3000;0.4078;0.8497;
849.6000;0.4070;0.8450;
849.9000;0.4062;0.8403;
850.2000;0.4078;0.8450;
850.5000;0.4046;0.8403;
850.8000;0.4062;0.8450;
851.1000;0.3972;0.8332;
851.4000;0.4029;0.8567;
851.7000;0.4046;0.8591;
852.0000;0.4070;0.8661;
852.3000;0.4062;0.8732;
852.6000;0.4062;0.8661;
852.9000;0.4070;0.8708;
853.2000;0.4062;0.8638;
853.5000;0.4054;0.8544;
853.8000;0.4054;0.8567;
854.1000;0.4054;0.8661;
854.4000;0.4046;0.8661;
854.7000;0.4070;0.8685;
855.0000;0.4029;0.8567;
855.3000;0.4037;0.8614;
855.6000;0.4029;0.8614;
855.9000;0.4046;0.8661;
856.2000;0.4078;0.8638;
856.5000;0.4046;0.8614;
856.8000;0.4070;0.8708;
857.1000;0.4062;0.8708;
857.4000;0.4078;0.8732;
857.7000;0.4062;0.8708;
858.0000;0.4151;0.8849;
858.3000;0.4070;0.8614;
858.6000;0.4070;0.8473;
858.9000;0.4062;0.8473;
859.2000;0.4062;0.8473;
859.5000;0.4062;0.8497;
859.8000;0.4070;0.8520;
860.1000;0.4070;0.8520;
860.4000;0.4078;0.8567;
860.7000;0.4037;0.8450;
861.0000;0.4070;0.8544;
861.3000;0.4054;0.8567;
861.6000;0.4054;0.8544;
861.9000;0.4062;0.8473;
862.2000;0.4062;0.8473;
862.5000;0.4062;0.8403;
862.8000;0.4037;0.8332;
863.1000;0.4046;0.8403;
863.4000;0.4054;0.8332;
863.7000;0.4037;0.8262;
864.0000;0.4062;0.8286;
864.3000;0.4005;0.8121;
864.6000;0.4111;0.8426;
864.9000;0.4062;0.8403;
865.2000;0.4054;0.8403;
865.5000;0.4054;0.8450;
865.8000;0.4062;0.8473;
866.1000;0.4070;0.8426;
866.4000;0.4062;0.8426;
866.7000;0.4054;0.8497;
867.0000;0.4054;0.8497;
867.3000;0.4037;0.8520;
867.6000;0.4062;0.8544;
867.9000;0.4054;0.8544;
868.2000;0.4037;0.8520;
868.5000;0.4062;0.8497;
868.8000;0.4037;0.8379;
869.1000;0.4037;0.8473;
869.4000;0.4046;0.8497;
869.7000;0.4078;0.8473;
870.0000;0.4037;0.8426;
870.3000;0.4046;0.8426;
870.6000;0.4029;0.8356;
870.9000;0.4078;0.8473;
871.2000;0.3956;0.8286;
871.5000;0.4070;0.8614;
871.8000;0.4054;0.8591;
872.1000;0.3989;0.8450;
872.4000;0.4054;0.8544;
872.7000;0.4046;0.8567;
873.0000;0.4046;0.8567;
873.3000;0.4054;0.8591;
873.6000;0.4054;0.8614;
873.9000;0.4062;0.8661;
874.2000;0.4037;0.8661;
874.5000;0.4062;0.8732;
874.8000;0.4046;0.8755;
875.1000;0.4021;0.8661;
875.4000;0.4054;0.8638;
875.7000;0.4046;0.8638;
876.0000;0.4037;0.8614;
876.3000;0.4054;0.8638;
876.6000;0.4037;0.8755;
876.9000;0.4054;0.8755;
877.2000;0.4029;0.8732;
877.5000;0.4054;0.8661;
877.8000;0.4046;0.8661;
878.1000;0.4037;0.8591;
878.4000;0.4062;0.8591;
878.7000;0.4062;0.8614;
879.0000;0.4054;0.8614;
879.3000;0.4054;0.8614;
879.6000;0.4046;0.8591;
879.9000;0.4054;0.8614;
880.2000;0.4078;0.8685;
880.5000;0.4086;0.8614;
880.8000;0.4054;0.8544;
881.1000;0.4070;0.8567;
881.4000;0.4062;0.8591;
881.7000;0.4046;0.8638;
882.0000;0.4046;0.8614;
882.3000;0.4029;0.8520;
882.6000;0.4062;0.8661;
882.9000;0.4054;0.8614;
883.2000;0.4029;0.8544;
883.5000;0.4046;0.8591;
883.8000;0.4054;0.8567;
884.1000;0.4046;0.8520;
884.4000;0.4111;0.8732;
884.7000;0.4054;0.8638;
885.0000;0.4078;0.8732;
885.3000;0.4054;0.8708;
885.6000;0.4046;0.8685;
885.9000;0.4054;0.8755;
886.2000;0.4054;0.8755;
886.5000;0.4021;0.8591;
886.8000;0.4054;0.8614;
887.1000;0.4029;0.8567;
887.4000;0.4046;0.8567;
887.7000;0.4086;0.8638;
888.0000;0.4029;0.8520;
888.3000;0.4037;0.8450;
888.6000;0.4046;0.8426;
888.9000;0.4046;0.8450;
889.2000;0.4046;0.8473;
889.5000;0.4054;0.8403;
889.8000;0.4111;0.8497;
890.1000;0.4046;0.8403;
890.4000;0.4046;0.8426;
890.7000;0.4046;0.8473;
891.0000;0.4029;0.8544;
891.3000;0.4046;0.8708;
891.6000;0.4054;0.8708;
891.9000;0.4046;0.8708;
892.2000;0.4029;0.8567;
892.5000;0.4062;0.8661;
892.8000;0.4143;0.8896;
893.1000;0.4029;0.8567;
893.4000;0.4037;0.8567;
893.7000;0.4054;0.8544;
894.0000;0.4054;0.8544;
894.3000;0.4046;0.8567;
894.6000;0.4046;0.8614;
894.9000;0.4054;0.8614;
895.2000;0.4062;0.8638;
895.5000;0.4054;0.8638;
895.8000;0.4054;0.8638;
896.1000;0.4062;0.8708;
896.4000;0.4070;0.8755;
896.7000;0.4029;0.8614;
897.0000;0.4054;0.8638;
897.3000;0.4046;0.8614;
897.6000;0.4046;0.8567;
897.9000;0.4054;0.8544;
898.2000;0.4029;0.8544;
898.5000;0.4029;0.8614;
898.8000;0.4046;0.8567;
899.1000;0.4054;0.8567;
899.4000;0.4037;0.8473;
899.7000;0.4054;0.8450;
900.0000;0.4029;0.8379;
900.3000;0.4046;0.8403;
900.6000;0.4054;0.8450;
900.9000;0.4046;0.8497;
901.2000;0.4046;0.8544;
901.5000;0.4054;0.8661;
901.8000;0.4119;0.8755;
902.1000;0.4046;0.8614;
902.4000;0.4029;0.8567;
902.7000;0.4046;0.8614;
903.0000;0.4046;0.8520;
903.3000;0.4037;0.8379;
903.6000;0.4029;0.8426;
903.9000;0.4046;0.8497;
904.2000;0.4029;0.8473;
904.5000;0.4054;0.8497;
904.8000;0.4046;0.8426;
905.1000;0.4037;0.8426;
905.4000;0.4054;0.8497;
905.7000;0.4046;0.8497;
906.0000;0.4046;0.8450;
906.3000;0.4046;0.8403;
906.6000;0.4046;0.8426;
906.9000;0.4046;0.8379;
907.2000;0.4070;0.8403;
907.5000;0.4046;0.8403;
907.8000;0.4037;0.8426;
908.1000;0.4062;0.8497;
908.4000;0.4046;0.8403;
908.7000;0.4037;0.8286;
909.0000;0.3956;0.8168;
909.3000;0.4062;0.8473;
909.6000;0.4037;0.8426;
909.9000;0.4037;0.8426;
910.2000;0.4062;0.8450;
910.5000;0.4086;0.8520;
910.8000;0.4029;0.8332;
911.1000;0.4037;0.8379;
911.4000;0.4037;0.8403;
911.7000;0.4062;0.8403;
912.0000;0.4037;0.8379;
912.3000;0.4054;0.8403;
912.6000;0.4037;0.8403;
912.9000;0.4062;0.8544;
913.2000;0.4054;0.8544;
913.5000;0.4037;0.8426;
913.8000;0.4037;0.8544;
914.1000;0.4070;0.8685;
914.4000;0.4029;0.8638;
914.7000;0.4054;0.8732;
915.0000;0.4021;0.8685;
915.3000;0.4037;0.8661;
915.6000;0.4037;0.8685;
915.9000;0.4054;0.8708;
916.2000;0.4029;0.8614;
916.5000;0.4037;0.8614;
916.8000;0.4037;0.8638;
917.1000;0.4119;0.8755;
917.4000;0.3948;0.8450;
917.7000;0.4037;0.8614;
918.0000;0.4046;0.8661;
918.3000;0.4037;0.8732;
918.6000;0.4021;0.8708;
918.9000;0.4094;0.8896;
919.2000;0.4037;0.8661;
919.5000;0.4046;0.8661;
919.8000;0.4029;0.8638;
920.1000;0.4046;0.8567;
920.4000;0.4046;0.8544;
920.7000;0.4070;0.8638;
921.0000;0.4037;0.8591;
921.3000;0.4037;0.8638;
921.6000;0.4029;0.8591;
921.9000;0.4029;0.8567;
922.2000;0.4037;0.8614;
922.5000;0.4037;0.8591;
922.8000;0.4037;0.8450;
923.1000;0.4037;0.8497;
923.4000;0.4021;0.8426;
923.7000;0.4037;0.8544;
924.0000;0.4021;0.8567;
924.3000;0.4046;0.8544;
924.6000;0.4021;0.8497;
924.9000;0.4054;0.8567;
925.2000;0.4046;0.8520;
925.5000;0.4046;0.8520;
925.8000;0.4037;0.8567;
926.1000;0.4046;0.8567;
926.4000;0.4029;0.8591;
926.7000;0.4029;0.8567;
927.0000;0.4029;0.8614;
927.3000;0.4037;0.8638;
927.6000;0.4037;0.8614;
927.9000;0.4046;0.8567;
928.2000;0.4046;0.8520;
928.5000;0.4021;0.8473;
928.8000;0.4029;0.8544;
929.1000;0.4021;0.8567;
929.4000;0.4046;0.8685;
929.7000;0.4037;0.8685;
930.0000;0.4046;0.8661;
930.3000;0.4029;0.8685;
930.6000;0.4103;0.8919;
930.9000;0.4037;0.8755;
931.2000;0.4021;0.8732;
931.5000;0.4029;0.8591;
931.8000;0.4037;0.8567;
932.1000;0.4094;0.8638;
932.4000;0.4029;0.8520;
932.7000;0.4029;0.8544;
933.0000;0.4029;0.8473;
933.3000;0.4046;0.8426;
933.6000;0.4054;0.8497;
933.9000;0.4054;0.8450;
934.2000;0.4029;0.8379;
934.5000;0.4103;0.8497;
934.8000;0.4037;0.8332;
935.1000;0.4029;0.8379;
935.4000;0.4127;0.8661;
935.7000;0.4021;0.8426;
936.0000;0.4029;0.8450;
936.3000;0.3980;0.8309;
936.6000;0.3956;0.8239;
936.9000;0.4046;0.8520;
937.2000;0.4021;0.8497;
937.5000;0.4037;0.8614;
937.8000;0.4029;0.8567;
938.1000;0.4086;0.8778;
938.4000;0.4037;0.8661;
938.7000;0.4094;0.8708;
939.0000;0.4021;0.8567;
939.3000;0.4046;0.8732;
939.6000;0.4054;0.8802;
939.9000;0.4029;0.8708;
940.2000;0.4037;0.8708;
940.5000;0.4046;0.8732;
940.8000;0.4037;0.8732;
941.1000;0.4037;0.8685;
941.4000;0.4046;0.8685;
941.7000;0.4029;0.8661;
942.0000;0.4046;0.8732;
942.3000;0.4037;0.8661;
942.6000;0.4013;0.8614;
942.9000;0.4021;0.8638;
943.2000;0.4054;0.8755;
943.5000;0.4037;0.8732;
943.8000;0.4029;0.8685;
944.1000;0.4013;0.8661;
944.4000;0.4013;0.8638;
944.7000;0.3940;0.8544;
945.0000;0.4029;0.8755;
945.3000;0.4029;0.8708;
945.6000;0.4037;0.8661;
945.9000;0.4021;0.8638;
946.2000;0.4078;0.8778;
946.5000;0.4037;0.8661;
946.8000;0.3972;0.8497;
947.1000;0.4021;0.8591;
947.4000;0.4029;0.8520;
947.7000;0.4029;0.8450;
948.0000;0.4037;0.8497;
948.3000;0.4021;0.8450;
948.6000;0.4046;0.8544;
948.9000;0.4037;0.8520;
949.2000;0.4046;0.8638;
949.5000;0.4037;0.8567;
949.8000;0.4013;0.8497;
950.1000;0.4037;0.8591;
950.4000;0.4086;0.8638;
950.7000;0.4046;0.8567;
951.0000;0.4037;0.8567;
951.3000;0.4029;0.8544;
951.6000;0.4021;0.8544;
951.9000;0.4046;0.8614;
952.2000;0.4029;0.8567;
952.5000;0.4062;0.8661;
952.8000;0.4021;0.8567;
953.1000;0.4021;0.8544;
953.4000;0.3989;0.8497;
953.7000;0.4029;0.8732;
954.0000;0.4021;0.8685;
954.3000;0.4037;0.8708;
954.6000;0.4029;0.8732;
954.9000;0.4054;0.8802;
955.2000;0.4054;0.8802;
955.5000;0.4021;0.8755;
955.8000;0.4054;0.8778;
956.1000;0.4013;0.8638;
956.4000;0.4037;0.8567;
956.7000;0.4013;0.8591;
957.0000;0.4062;0.8614;
957.3000;0.4021;0.8591;
957.6000;0.4013;0.8591;
957.9000;0.4021;0.8614;
958.2000;0.4021;0.8614;
958.5000;0.4046;0.8567;
958.8000;0.3980;0.8520;
959.1000;0.4046;0.8591;
959.4000;0.4021;0.8614;
959.7000;0.4021;0.8708;
960.0000;0.4029;0.8708;
960.3000;0.4037;0.8708;
960.6000;0.4029;0.8708;
960.9000;0.4029;0.8685;
961.2000;0.4029;0.8685;
961.5000;0.3989;0.8520;
961.8000;0.4021;0.8661;
962.1000;0.3980;0.8473;
962.4000;0.4013;0.8544;
962.7000;0.4046;0.8614;
963.0000;0.4029;0.8520;
963.3000;0.4021;0.8520;
963.6000;0.4037;0.8567;
963.9000;0.4037;0.8567;
964.2000;0.4078;0.8591;
964.5000;0.4029;0.8473;
964.8000;0.4013;0.8450;
965.1000;0.4046;0.8544;
965.4000;0.4046;0.8638;
965.7000;0.4046;0.8685;
966.0000;0.4029;0.8661;
966.3000;0.4086;0.8849;
966.6000;0.4013;0.8755;
966.9000;0.4013;0.8685;
967.2000;0.4013;0.8732;
967.5000;0.4021;0.8732;
967.8000;0.4013;0.8661;
968.1000;0.4029;0.8661;
968.4000;0.4005;0.8567;
968.7000;0.4037;0.8567;
969.0000;0.4021;0.8567;
969.3000;0.4013;0.8520;
969.6000;0.4013;0.8567;
969.9000;0.4029;0.8661;
970.2000;0.4005;0.8591;
970.5000;0.4021;0.8661;
970.8000;0.4005;0.8708;
971.1000;0.4029;0.8802;
971.4000;0.4029;0.8778;
971.7000;0.4037;0.8778;
972.0000;0.4062;0.8872;
972.3000;0.4021;0.8755;
972.6000;0.4005;0.8661;
972.9000;0.4070;0.8778;
973.2000;0.4021;0.8708;
973.5000;0.4021;0.8708;
973.8000;0.4013;0.8708;
974.1000;0.4029;0.8732;
974.4000;0.4005;0.8661;
974.7000;0.4029;0.8755;
975.0000;0.4037;0.8802;
975.3000;0.4078;0.8872;
975.6000;0.4037;0.8755;
975.9000;0.4021;0.8732;
976.2000;0.4078;0.8896;
976.5000;0.4005;0.8708;
976.8000;0.4029;0.8778;
977.1000;0.4021;0.8685;
977.4000;0.4029;0.8732;
977.7000;0.4037;0.8708;
978.0000;0.4037;0.8661;
978.3000;0.4021;0.8614;
978.6000;0.3997;0.8708;
978.9000;0.4013;0.8802;
979.2000;0.4029;0.8802;
979.5000;0.4021;0.8708;
979.8000;0.4037;0.8778;
980.1000;0.4013;0.8755;
980.4000;0.4029;0.8755;
980.7000;0.4021;0.8778;
981.0000;0.4029;0.8849;
981.3000;0.4029;0.8825;
981.6000;0.4021;0.8685;
981.9000;0.4021;0.8661;
982.2000;0.4029;0.8732;
982.5000;0.4037;0.8802;
982.8000;0.4029;0.8778;
983.1000;0.4029;0.8825;
983.4000;0.4021;0.8802;
983.7000;0.3915;0.8473;
984.0000;0.4021;0.8708;
984.3000;0.4037;0.8708;
984.6000;0.4029;0.8638;
984.9000;0.4029;0.8708;
985.2000;0.4037;0.8732;
985.5000;0.4037;0.8708;
985.8000;0.4046;0.8732;
986.1000;0.4029;0.8685;
986.4000;0.4013;0.8661;
986.7000;0.4029;0.8732;
987.0000;0.4021;0.8685;
987.3000;0.4021;0.8732;
987.6000;0.4037;0.8708;
987.9000;0.4029;0.8708;
988.2000;0.4013;0.8755;
988.5000;0.4013;0.8661;
988.8000;0.3989;0.8638;
989.1000;0.4013;0.8732;
989.4000;0.4021;0.8708;
989.7000;0.4127;0.8919;
990.0000;0.4005;0.8638;
990.3000;0.4037;0.8708;
990.6000;0.4013;0.8591;
990.9000;0.4029;0.8638;
991.2000;0.4013;0.8661;
991.5000;0.4021;0.8614;
991.8000;0.4021;0.8614;
992.1000;0.4143;0.8896;
992.4000;0.4021;0.8638;
992.7000;0.4013;0.8732;
993.0000;0.4021;0.8755;
993.3000;0.4013;0.8732;
993.6000;0.4021;0.8708;
993.9000;0.4021;0.8661;
994.2000;0.4029;0.8614;
994.5000;0.4037;0.8708;
994.8000;0.4013;0.8591;
995.1000;0.4037;0.8614;
995.4000;0.4029;0.8591;
995.7000;0.4013;0.8567;
996.0000;0.4021;0.8638;
996.3000;0.4046;0.8778;
996.6000;0.4005;0.8778;
996.9000;0.4013;0.8778;
997.2000;0.4021;0.8802;
997.5000;0.4046;0.8849;
997.8000;0.4005;0.8638;
998.1000;0.4021;0.8638;
998.4000;0.4029;0.8614;
998.7000;0.4029;0.8567;
999.0000;0.4029;0.8614;
999.3000;0.4021;0.8685;
999.6000;0.4029;0.8685;
999.9000;0.4021;0.8638;
1000.2000;0.4029;0.8732;
1000.5000;0.4013;0.8708;
1000.8000;0.3940;0.8403;
1001.1000;0.3997;0.8450;
1001.4000;0.3997;0.8426;
1001.7000;0.4021;0.8450;
1002.0000;0.4021;0.8497;
1002.3000;0.3989;0.8426;
1002.6000;0.4013;0.8426;
1002.9000;0.4037;0.8473;
1003.2000;0.4013;0.8473;
1003.5000;0.4013;0.8403;
1003.8000;0.4005;0.8379;
1004.1000;0.3989;0.8332;
1004.4000;0.4021;0.8497;
1004.7000;0.4054;0.8567;
1005.0000;0.4021;0.8497;
1005.3000;0.4029;0.8473;
1005.6000;0.4021;0.8473;
1005.9000;0.3964;0.8403;
1006.2000;0.4013;0.8708;
1006.5000;0.4013;0.8755;
1006.8000;0.4013;0.8732;
1007.1000;0.4029;0.8778;
1007.4000;0.4013;0.8755;
1007.7000;0.4062;0.8825;
1008.0000;0.4021;0.8708;
1008.3000;0.4029;0.8732;
1008.6000;0.3997;0.8614;
1008.9000;0.3940;0.8332;
1009.2000;0.4062;0.8661;
1009.5000;0.3989;0.8520;
1009.8000;0.4013;0.8567;
1010.1000;0.4046;0.8638;
1010.4000;0.4029;0.8544;
1010.7000;0.4021;0.8544;
1011.0000;0.4029;0.8497;
1011.3000;0.4013;0.8544;
1011.6000;0.3997;0.8520;
1011.9000;0.4070;0.8567;
1012.2000;0.4021;0.8403;
1012.5000;0.4021;0.8544;
1012.8000;0.4013;0.8591;
1013.1000;0.4005;0.8591;
1013.4000;0.4021;0.8685;
1013.7000;0.4021;0.8685;
1014.0000;0.4013;0.8661;
1014.3000;0.4037;0.8614;
1014.6000;0.4013;0.8591;
1014.9000;0.4013;0.8497;
1015.2000;0.4029;0.8544;
1015.5000;0.4029;0.8520;
1015.8000;0.4029;0.8591;
1016.1000;0.4029;0.8591;
1016.4000;0.4013;0.8591;
1016.7000;0.4029;0.8638;
1017.0000;0.4021;0.8614;
1017.3000;0.4037;0.8567;
1017.6000;0.4013;0.8497;
1017.9000;0.4013;0.8520;
1018.2000;0.4013;0.8520;
1018.5000;0.4029;0.8567;
1018.8000;0.4054;0.8708;
1019.1000;0.4013;0.8591;
1019.4000;0.4013;0.8685;
1019.7000;0.4021;0.8685;
1020.0000;0.4021;0.8732;
1020.3000;0.4013;0.8732;
1020.6000;0.4078;0.8872;
1020.9000;0.4029;0.8685;
1021.2000;0.4021;0.8685;
1021.5000;0.4021;0.8567;
1021.8000;0.4021;0.8520;
1022.1000;0.4029;0.8591;
1022.4000;0.4005;0.8591;
1022.7000;0.4005;0.8661;
1023.0000;0.4013;0.8661;
1023.3000;0.4013;0.8685;
1023.6000;0.4013;0.8661;
1023.9000;0.4013;0.8614;
1024.2000;0.4021;0.8638;
1024.5000;0.4013;0.8614;
1024.8000;0.4046;0.8685;
1025.1000;0.4005;0.8520;
1025.4000;0.4013;0.8473;
1025.7000;0.4021;0.8379;
1026.0000;0.4029;0.8286;
1026.3000;0.4029;0.8286;
1026.6000;0.4013;0.8239;
1026.9000;0.4013;0.8332;
1027.2000;0.4021;0.8332;
1027.5000;0.4021;0.8309;
1027.8000;0.4021;0.8403;
1028.1000;0.4021;0.8473;
1028.4000;0.4013;0.8497;
1028.7000;0.3997;0.8473;
1029.0000;0.4013;0.8567;
1029.3000;0.4005;0.8544;
1029.6000;0.4021;0.8520;
1029.9000;0.4013;0.8497;
1030.2000;0.4005;0.8520;
1030.5000;0.3972;0.8403;
1030.8000;0.4029;0.8450;
1031.1000;0.4046;0.8520;
1031.4000;0.4021;0.8497;
1031.7000;0.4029;0.8567;
1032.0000;0.3997;0.8520;
1032.3000;0.3997;0.8520;
1032.6000;0.4013;0.8544;
1032.9000;0.4005;0.8567;
1033.2000;0.3997;0.8591;
1033.5000;0.4005;0.8591;
1033.8000;0.4013;0.8614;
1034.1000;0.4021;0.8802;
1034.4000;0.3980;0.8638;
1034.7000;0.4037;0.8685;
1035.0000;0.4029;0.8708;
1035.3000;0.4005;0.8638;
1035.6000;0.4005;0.8497;
1035.9000;0.4119;0.8685;
1036.2000;0.4021;0.8450;
1036.5000;0.4005;0.8403;
1036.8000;0.3980;0.8286;
1037.1000;0.4046;0.8426;
1037.4000;0.4021;0.8379;
1037.7000;0.4021;0.8403;
1038.0000;0.3997;0.8497;
1038.3000;0.4021;0.8473;
1038.6000;0.4021;0.8403;
1038.9000;0.4029;0.8403;
1039.2000;0.4078;0.8567;
1039.5000;0.4005;0.8356;
1039.8000;0.4021;0.8426;
1040.1000;0.4029;0.8450;
1040.4000;0.4005;0.8520;
1040.7000;0.4013;0.8473;
1041.0000;0.4037;0.8591;
1041.3000;0.4021;0.8638;
1041.6000;0.4021;0.8591;
1041.9000;0.3997;0.8520;
1042.2000;0.4021;0.8567;
1042.5000;0.4013;0.8497;
1042.8000;0.4005;0.8497;
1043.1000;0.4013;0.8403;
1043.4000;0.3989;0.8403;
1043.7000;0.4021;0.8567;
1044.0000;0.4029;0.8638;
1044.3000;0.4094;0.8778;
1044.6000;0.4046;0.8661;
1044.9000;0.4021;0.8685;
1045.2000;0.4029;0.8708;
1045.5000;0.4029;0.8708;
1045.8000;0.4021;0.8685;
1046.1000;0.4021;0.8708;
1046.4000;0.4021;0.8591;
1046.7000;0.4013;0.8614;
1047.0000;0.4021;0.8661;
1047.3000;0.4013;0.8638;
1047.6000;0.4029;0.8638;
1047.9000;0.3997;0.8567;
1048.2000;0.4013;0.8544;
1048.5000;0.4013;0.8591;
1048.8000;0.4029;0.8638;
1049.1000;0.4005;0.8567;
1049.4000;0.3980;0.8450;
1049.7000;0.4021;0.8544;
1050.0000;0.4062;0.8708;
1050.3000;0.4037;0.8685;
1050.6000;0.4005;0.8567;
1050.9000;0.4021;0.8591;
1051.2000;0.4013;0.8544;
1051.5000;0.4005;0.8426;
1051.8000;0.3997;0.8403;
1052.1000;0.4021;0.8450;
1052.4000;0.4005;0.8473;
1052.7000;0.4005;0.8473;
1053.0000;0.4094;0.8802;
1053.3000;0.4037;0.8638;
1053.6000;0.4005;0.8638;
1053.9000;0.3989;0.8614;
1054.2000;0.4013;0.8661;
1054.5000;0.3980;0.8520;
1054.8000;0.4005;0.8614;
1055.1000;0.4029;0.8567;
1055.4000;0.3964;0.8356;
1055.7000;0.4037;0.8497;
1056.0000;0.4054;0.8614;
1056.3000;0.4037;0.8497;
1056.6000;0.4005;0.8450;
1056.9000;0.4021;0.8497;
1057.2000;0.4005;0.8567;
1057.5000;0.4013;0.8544;
1057.8000;0.4005;0.8520;
1058.1000;0.4013;0.8591;
1058.4000;0.4005;0.8567;
1058.7000;0.4013;0.8591;
1059.0000;0.4029;0.8685;
1059.3000;0.4029;0.8732;
1059.6000;0.4005;0.8638;
1059.9000;0.4013;0.8614;
1060.2000;0.4037;0.8614;
1060.5000;0.4029;0.8661;
1060.8000;0.4013;0.8661;
1061.1000;0.4021;0.8614;
1061.4000;0.4013;0.8591;
1061.7000;0.4013;0.8685;
1062.0000;0.4005;0.8661;
1062.3000;0.3964;0.8638;
1062.6000;0.4013;0.8755;
1062.9000;0.4021;0.8685;
1063.2000;0.4021;0.8685;
1063.5000;0.4046;0.8708;
1063.8000;0.4054;0.8685;
1064.1000;0.4013;0.8591;
1064.4000;0.4013;0.8614;
1064.7000;0.4021;0.8661;
1065.0000;0.4013;0.8591;
1065.3000;0.4029;0.8520;
1065.6000;0.4013;0.8473;
1065.9000;0.4013;0.8520;
1066.2000;0.3997;0.8473;
1066.5000;0.3948;0.8262;
1066.8000;0.3989;0.8356;
1067.1000;0.4021;0.8450;
1067.4000;0.4013;0.8450;
1067.7000;0.4029;0.8520;
1068.0000;0.4021;0.8544;
1068.3000;0.4029;0.8567;
1068.6000;0.4062;0.8685;
1068.9000;0.4013;0.8567;
1069.2000;0.4013;0.8591;
1069.5000;0.4037;0.8614;
1069.8000;0.4013;0.8544;
1070.1000;0.4013;0.8614;
1070.4000;0.4037;0.8591;
1070.7000;0.4046;0.8591;
1071.0000;0.4013;0.8520;
1071.3000;0.4005;0.8520;
1071.6000;0.4013;0.8567;
1071.9000;0.3997;0.8638;
1072.2000;0.4021;0.8567;
1072.5000;0.4021;0.8544;
1072.8000;0.4013;0.8520;
1073.1000;0.4013;0.8520;
1073.4000;0.4005;0.8520;
1073.7000;0.4021;0.8614;
1074.0000;0.3989;0.8591;
1074.3000;0.3980;0.8450;
1074.6000;0.4013;0.8473;
1074.9000;0.4062;0.8591;
1075.2000;0.4021;0.8497;
1075.5000;0.4005;0.8567;
1075.8000;0.4021;0.8567;
1076.1000;0.4013;0.8450;
1076.4000;0.4013;0.8497;
1076.7000;0.4021;0.8520;
1077.0000;0.3997;0.8497;
1077.3000;0.4013;0.8520;
1077.6000;0.4021;0.8591;
1077.9000;0.4062;0.8685;
1078.2000;0.4005;0.8544;
1078.5000;0.4013;0.8497;
1078.8000;0.3997;0.8497;
1079.1000;0.3989;0.8450;
1079.4000;0.4005;0.8544;
1079.7000;0.4005;0.8544;
1080.0000;0.3997;0.8497;
1080.3000;0.4021;0.8497;
1080.6000;0.4029;0.8544;
1080.9000;0.4021;0.8426;
1081.2000;0.4013;0.8426;
1081.5000;0.4037;0.8497;
1081.8000;0.4013;0.8356;
1082.1000;0.4094;0.8638;
1082.4000;0.4005;0.8450;
1082.7000;0.4005;0.8403;
1083.0000;0.4005;0.8403;
1083.3000;0.4037;0.8473;
1083.6000;0.3989;0.8403;
1083.9000;0.4021;0.8520;
1084.2000;0.4021;0.8544;
1084.5000;0.4029;0.8567;
1084.8000;0.4029;0.8544;
1085.1000;0.4021;0.8614;
1085.4000;0.4029;0.8708;
1085.7000;0.4029;0.8708;
1086.0000;0.4005;0.8685;
1086.3000;0.4005;0.8638;
1086.6000;0.4029;0.8614;
1086.9000;0.4037;0.8661;
1087.2000;0.4013;0.8661;
1087.5000;0.4013;0.8591;
1087.8000;0.4005;0.8567;
1088.1000;0.4037;0.8567;
1088.4000;0.3980;0.8450;
1088.7000;0.4005;0.8520;
1089.0000;0.4013;0.8567;
1089.3000;0.4013;0.8520;
1089.6000;0.4021;0.8520;
1089.9000;0.4021;0.8497;
1090.2000;0.4013;0.8567;
1090.5000;0.4005;0.8661;
1090.8000;0.4021;0.8614;
1091.1000;0.4005;0.8614;
1091.4000;0.4070;0.8708;
1091.7000;0.4005;0.8591;
1092.0000;0.4013;0.8614;
1092.3000;0.3923;0.8497;
1092.6000;0.3948;0.8591;
1092.9000;0.4005;0.8708;
1093.2000;0.4013;0.8685;
1093.5000;0.4021;0.8685;
1093.8000;0.4013;0.8708;
1094.1000;0.4029;0.8685;
1094.4000;0.4013;0.8685;
1094.7000;0.3997;0.8638;
1095.0000;0.3980;0.8567;
1095.3000;0.4013;0.8497;
1095.6000;0.4021;0.8567;
1095.9000;0.4005;0.8567;
1096.2000;0.4005;0.8614;
1096.5000;0.4013;0.8614;
1096.8000;0.4021;0.8591;
1097.1000;0.4013;0.8591;
1097.4000;0.3989;0.8497;
1097.7000;0.4005;0.8661;
1098.0000;0.4013;0.8638;
1098.3000;0.4029;0.8591;
1098.6000;0.3980;0.8520;
1098.9000;0.4029;0.8544;
1099.2000;0.4029;0.8544;
1099.5000;0.4021;0.8450;
1099.8000;0.4029;0.8356;
1100.1000;0.4005;0.8262;
1100.4000;0.4005;0.8286;
1100.7000;0.4029;0.8286;
1101.0000;0.4005;0.8356;
1101.3000;0.3989;0.8309;
1101.6000;0.4013;0.8403;
1101.9000;0.4062;0.8567;
1102.2000;0.4005;0.8450;
1102.5000;0.3989;0.8450;
1102.8000;0.3997;0.8426;
1103.1000;0.4021;0.8497;
1103.4000;0.4021;0.8520;
1103.7000;0.4013;0.8403;
1104.0000;0.4021;0.8379;
1104.3000;0.4021;0.8332;
1104.6000;0.4021;0.8379;
1104.9000;0.4013;0.8356;
1105.2000;0.3997;0.8286;
1105.5000;0.4013;0.8403;
1105.8000;0.4021;0.8426;
1106.1000;0.3972;0.8309;
1106.4000;0.4005;0.8379;
1106.7000;0.3989;0.8450;
1107.0000;0.4021;0.8497;
1107.3000;0.4005;0.8450;
1107.6000;0.4005;0.8426;
1107.9000;0.4005;0.8473;
1108.2000;0.4013;0.8473;
1108.5000;0.3997;0.8450;
1108.8000;0.3997;0.8520;
1109.1000;0.4094;0.8825;
1109.4000;0.4029;0.8661;
1109.7000;0.4021;0.8591;
1110.0000;0.3980;0.8497;
1110.3000;0.4013;0.8497;
1110.6000;0.4013;0.8544;
1110.9000;0.4021;0.8614;
1111.2000;0.3997;0.8544;
1111.5000;0.4013;0.8473;
1111.8000;0.3940;0.8215;
1112.1000;0.3964;0.8309;
1112.4000;0.3997;0.8332;
1112.7000;0.4021;0.8379;
1113.0000;0.3940;0.8192;
1113.3000;0.4013;0.8403;
1113.6000;0.4005;0.8450;
1113.9000;0.3980;0.8497;
1114.2000;0.4013;0.8544;
1114.5000;0.4029;0.8567;
1114.8000;0.4037;0.8591;
1115.1000;0.4013;0.8567;
1115.4000;0.4005;0.8544;
1115.7000;0.4029;0.8591;
1116.0000;0.4029;0.8567;
1116.3000;0.4013;0.8450;
1116.6000;0.3997;0.8426;
1116.9000;0.4013;0.8403;
1117.2000;0.3997;0.8356;
1117.5000;0.3997;0.8426;
1117.8000;0.4013;0.8450;
1118.1000;0.4021;0.8497;
1118.4000;0.4013;0.8497;
1118.7000;0.4005;0.8426;
1119.0000;0.4005;0.8473;
1119.3000;0.4005;0.8403;
1119.6000;0.4021;0.8520;
1119.9000;0.4021;0.8520;
1120.2000;0.4013;0.8473;
1120.5000;0.4005;0.8450;
1120.8000;0.4005;0.8450;
1121.1000;0.3997;0.8497;
1121.4000;0.3989;0.8473;
1121.7000;0.3980;0.8473;
1122.0000;0.3997;0.8497;
1122.3000;0.4005;0.8567;
1122.6000;0.4005;0.8544;
1122.9000;0.4005;0.8473;
1123.2000;0.4005;0.8450;
1123.5000;0.4013;0.8497;
1123.8000;0.4013;0.8544;
1124.1000;0.4021;0.8567;
1124.4000;0.4021;0.8473;
1124.7000;0.4005;0.8497;
1125.0000;0.4013;0.8567;
1125.3000;0.4086;0.8825;
1125.6000;0.4005;0.8638;
1125.9000;0.4013;0.8638;
1126.2000;0.4005;0.8591;
1126.5000;0.4013;0.8661;
1126.8000;0.3997;0.8638;
1127.1000;0.3997;0.8685;
1127.4000;0.4005;0.8685;
1127.7000;0.3980;0.8614;
1128.0000;0.3997;0.8638;
1128.3000;0.4005;0.8591;
1128.6000;0.4005;0.8591;
1128.9000;0.4005;0.8520;
1129.2000;0.3989;0.8473;
1129.5000;0.4029;0.8591;
1129.8000;0.4013;0.8708;
1130.1000;0.4005;0.8685;
1130.4000;0.3997;0.8638;
1130.7000;0.3972;0.8497;
1131.0000;0.4005;0.8544;
1131.3000;0.3997;0.8567;
1131.6000;0.3972;0.8450;
1131.9000;0.4005;0.8520;
1132.2000;0.3997;0.8426;
1132.5000;0.3989;0.8356;
1132.8000;0.3997;0.8332;
1133.1000;0.3997;0.8332;
1133.4000;0.3997;0.8262;
1133.7000;0.4013;0.8286;
1134.0000;0.4021;0.8379;
1134.3000;0.3989;0.8379;
1134.6000;0.3989;0.8379;
1134.9000;0.4005;0.8473;
1135.2000;0.4013;0.8473;
1135.5000;0.4013;0.8544;
1135.8000;0.3997;0.8591;
1136.1000;0.4021;0.8638;
1136.4000;0.4005;0.8614;
1136.7000;0.3997;0.8591;
1137.0000;0.3997;0.8591;
1137.3000;0.3997;0.8567;
1137.6000;0.4021;0.8614;
1137.9000;0.4005;0.8567;
1138.2000;0.4005;0.8567;
1138.5000;0.3915;0.8239;
1138.8000;0.4021;0.8450;
1139.1000;0.4013;0.8497;
1139.4000;0.4021;0.8497;
1139.7000;0.4029;0.8403;
1140.0000;0.4005;0.8356;
1140.3000;0.4013;0.8426;
1140.6000;0.4005;0.8520;
1140.9000;0.4021;0.8450;
1141.2000;0.4013;0.8450;
1141.5000;0.4021;0.8473;
1141.8000;0.3989;0.8356;
1142.1000;0.4013;0.8379;
1142.4000;0.4005;0.8426;
1142.7000;0.4070;0.8473;
1143.0000;0.4013;0.8403;
1143.3000;0.4029;0.8497;
1143.6000;0.4005;0.8544;
1143.9000;0.4021;0.8567;
1144.2000;0.4013;0.8567;
1144.5000;0.4070;0.8591;
1144.8000;0.3997;0.8379;
1145.1000;0.4021;0.8379;
1145.4000;0.3997;0.8426;
1145.7000;0.4005;0.8403;
1146.0000;0.4021;0.8450;
1146.3000;0.3980;0.8262;
1146.6000;0.4005;0.8403;
1146.9000;0.3964;0.8332;
1147.2000;0.4005;0.8403;
1147.5000;0.3907;0.8215;
1147.8000;0.4029;0.8544;
1148.1000;0.4070;0.8732;
1148.4000;0.3907;0.8356;
1148.7000;0.4054;0.8685;
1149.0000;0.4005;0.8520;
1149.3000;0.4013;0.8544;
1149.6000;0.4013;0.8520;
1149.9000;0.4005;0.8473;
1150.2000;0.4021;0.8497;
1150.5000;0.4021;0.8497;
1150.8000;0.3997;0.8379;
1151.1000;0.4013;0.8356;
1151.4000;0.4005;0.8356;
1151.7000;0.4005;0.8356;
1152.0000;0.3972;0.8332;
1152.3000;0.4013;0.8426;
1152.6000;0.4005;0.8450;
1152.9000;0.3989;0.8403;
1153.2000;0.4005;0.8379;
1153.5000;0.3997;0.8426;
1153.8000;0.4005;0.8497;
1154.1000;0.3964;0.8426;
1154.4000;0.3997;0.8426;
1154.7000;0.3997;0.8450;
1155.0000;0.3989;0.8403;
1155.3000;0.3989;0.8473;
1155.6000;0.3989;0.8450;
1155.9000;0.3964;0.8403;
1156.2000;0.4005;0.8426;
1156.5000;0.4013;0.8403;
1156.8000;0.3989;0.8379;
1157.1000;0.4013;0.8426;
1157.4000;0.4029;0.8544;
1157.7000;0.4037;0.8473;
1158.0000;0.4021;0.8473;
1158.3000;0.4013;0.8520;
1158.6000;0.4005;0.8544;
1158.9000;0.3932;0.8356;
1159.2000;0.4005;0.8544;
1159.5000;0.3997;0.8520;
1159.8000;0.4005;0.8591;
1160.1000;0.3997;0.8473;
1160.4000;0.3964;0.8426;
1160.7000;0.3997;0.8638;
1161.0000;0.3989;0.8661;
1161.3000;0.3989;0.8591;
1161.6000;0.4021;0.8614;
1161.9000;0.3989;0.8544;
1162.2000;0.3972;0.8497;
1162.5000;0.4005;0.8473;
1162.8000;0.4029;0.8473;
1163.1000;0.4013;0.8379;
1163.4000;0.4021;0.8379;
1163.7000;0.3989;0.8262;
1164.0000;0.4021;0.8332;
1164.3000;0.4013;0.8379;
1164.6000;0.3997;0.8379;
1164.9000;0.3997;0.8356;
1165.2000;0.3997;0.8379;
1165.5000;0.4005;0.8403;
1165.8000;0.4005;0.8426;
1166.1000;0.3997;0.8426;
1166.4000;0.3997;0.8450;
1166.7000;0.4013;0.8567;
1167.0000;0.3989;0.8473;
1167.3000;0.3997;0.8426;
1167.6000;0.3997;0.8497;
1167.9000;0.4013;0.8473;
1168.2000;0.4021;0.8497;
1168.5000;0.3997;0.8450;
1168.8000;0.4013;0.8426;
1169.1000;0.4029;0.8497;
1169.4000;0.4013;0.8520;
1169.7000;0.3989;0.8591;
1170.0000;0.4021;0.8614;
1170.3000;0.3980;0.8497;
1170.6000;0.3989;0.8473;
1170.9000;0.4021;0.8567;
1171.2000;0.4005;0.8544;
1171.5000;0.3964;0.8426;
1171.8000;0.4005;0.8473;
1172.1000;0.3972;0.8403;
1172.4000;0.4005;0.8473;
1172.7000;0.4013;0.8567;
1173.0000;0.4021;0.8708;
1173.3000;0.4005;0.8708;
1173.6000;0.4005;0.8708;
1173.9000;0.3997;0.8685;
1174.2000;0.4013;0.8732;
1174.5000;0.4005;0.8708;
1174.8000;0.3989;0.8755;
1175.1000;0.3980;0.8825;
1175.4000;0.4005;0.8919;
1175.7000;0.3989;0.8849;
1176.0000;0.3923;0.8591;
1176.3000;0.3997;0.8849;
1176.6000;0.4021;0.8849;
1176.9000;0.3997;0.8732;
1177.2000;0.3997;0.8685;
1177.5000;0.3989;0.8614;
1177.8000;0.4070;0.8755;
1178.1000;0.3997;0.8450;
1178.4000;0.4013;0.8544;
1178.7000;0.3923;0.8450;
1179.0000;0.4021;0.8661;
1179.3000;0.4037;0.8685;
1179.6000;0.4070;0.8802;
1179.9000;0.4013;0.8614;
1180.2000;0.4005;0.8638;
1180.5000;0.3997;0.8638;
1180.8000;0.3989;0.8614;
1181.1000;0.4013;0.8567;
1181.4000;0.4013;0.8591;
1181.7000;0.3997;0.8567;
1182.0000;0.4021;0.8567;
1182.3000;0.4029;0.8614;
1182.6000;0.4013;0.8591;
1182.9000;0.3997;0.8591;
1183.2000;0.3989;0.8614;
1183.5000;0.4013;0.8614;
1183.8000;0.4021;0.8638;
1184.1000;0.4013;0.8685;
1184.4000;0.4070;0.8802;
1184.7000;0.3989;0.8685;
1185.0000;0.4021;0.8732;
1185.3000;0.4021;0.8802;
1185.6000;0.4029;0.8919;
1185.9000;0.3980;0.8872;
1186.2000;0.3907;0.8732;
1186.5000;0.3980;0.8825;
1186.8000;0.3997;0.8919;
1187.1000;0.4021;0.8919;
1187.4000;0.4029;0.8919;
1187.7000;0.4013;0.8849;
1188.0000;0.4013;0.8849;
1188.3000;0.4021;0.8825;
1188.6000;0.3997;0.8825;
1188.9000;0.4013;0.8825;
1189.2000;0.3907;0.8591;
1189.5000;0.4013;0.8825;
1189.8000;0.3997;0.8778;
1190.1000;0.4013;0.8778;
1190.4000;0.3989;0.8708;
1190.7000;0.4021;0.8755;
1191.0000;0.3989;0.8708;
1191.3000;0.4005;0.8825;
1191.6000;0.3964;0.8708;
1191.9000;0.4005;0.8825;
1192.2000;0.4013;0.8732;
1192.5000;0.4005;0.8755;
1192.8000;0.3997;0.8778;
1193.1000;0.4029;0.8778;
1193.4000;0.4021;0.8849;
1193.7000;0.4013;0.8849;
1194.0000;0.4005;0.8849;
1194.3000;0.4005;0.8896;
1194.6000;0.3972;0.8755;
1194.9000;0.4021;0.8708;
1195.2000;0.3997;0.8685;
1195.5000;0.4005;0.8802;
1195.8000;0.4021;0.8825;
1196.1000;0.3980;0.8685;
1196.4000;0.3989;0.8638;
1196.7000;0.4005;0.8661;
1197.0000;0.4013;0.8732;
1197.3000;0.4005;0.8708;
1197.6000;0.4005;0.8708;
1197.9000;0.4005;0.8778;
1198.2000;0.3956;0.8638;
1198.5000;0.4013;0.8778;
1198.8000;0.4021;0.8802;
1199.1000;0.4013;0.8802;
1199.4000;0.4013;0.8755;
1199.7000;0.3989;0.8708;
1200.0000;0.4062;0.8825;
1200.3000;0.3989;0.8544;
1200.6000;0.4005;0.8520;
1200.9000;0.4013;0.8520;
1201.2000;0.4005;0.8520;
1201.5000;0.3997;0.8591;
1201.8000;0.3980;0.8567;
1202.1000;0.4005;0.8685;
1202.4000;0.3989;0.8638;
1202.7000;0.3997;0.8708;
1203.0000;0.4013;0.8661;
1203.3000;0.4021;0.8778;
1203.6000;0.4013;0.8708;
1203.9000;0.3997;0.8708;
1204.2000;0.3980;0.8708;
1204.5000;0.3989;0.8802;
1204.8000;0.4013;0.8872;
1205.1000;0.3989;0.8825;
1205.4000;0.3989;0.8732;
1205.7000;0.4013;0.8825;
1206.0000;0.4005;0.8778;
1206.3000;0.4013;0.8802;
1206.6000;0.4021;0.8755;
1206.9000;0.3972;0.8661;
1207.2000;0.3997;0.8802;
1207.5000;0.4021;0.8755;
1207.8000;0.3989;0.8614;
1208.1000;0.4013;0.8614;
1208.4000;0.4005;0.8638;
1208.7000;0.4013;0.8755;
1209.0000;0.4005;0.8708;
1209.3000;0.3989;0.8708;
1209.6000;0.4005;0.8732;
1209.9000;0.4005;0.8661;
1210.2000;0.4037;0.8685;
1210.5000;0.4111;0.8849;
1210.8000;0.3972;0.8497;
1211.1000;0.3997;0.8544;
1211.4000;0.4029;0.8591;
1211.7000;0.4013;0.8591;
1212.0000;0.4013;0.8567;
1212.3000;0.4029;0.8614;
1212.6000;0.3997;0.8567;
1212.9000;0.3980;0.8520;
1213.2000;0.4013;0.8591;
1213.5000;0.4005;0.8661;
1213.8000;0.3980;0.8450;
1214.1000;0.4005;0.8544;
1214.4000;0.3997;0.8520;
1214.7000;0.4021;0.8544;
1215.0000;0.4029;0.8520;
1215.3000;0.4005;0.8520;
1215.6000;0.4005;0.8497;
1215.9000;0.4021;0.8567;
1216.2000;0.4005;0.8544;
1216.5000;0.4029;0.8591;
1216.8000;0.4005;0.8567;
1217.1000;0.4013;0.8520;
1217.4000;0.4021;0.8591;
1217.7000;0.4046;0.8638;
1218.0000;0.4021;0.8708;
1218.3000;0.4021;0.8685;
1218.6000;0.3972;0.8567;
1218.9000;0.4021;0.8778;
1219.2000;0.3997;0.8755;
1219.5000;0.3997;0.8802;
1219.8000;0.4013;0.8755;
1220.1000;0.3989;0.8685;
1220.4000;0.3980;0.8661;
1220.7000;0.4013;0.8732;
1221.0000;0.4054;0.8872;
1221.3000;0.4013;0.8685;
1221.6000;0.4005;0.8685;
1221.9000;0.3980;0.8638;
1222.2000;0.4013;0.8778;
1222.5000;0.4013;0.8755;
1222.8000;0.3980;0.8732;
1223.1000;0.3997;0.8732;
1223.4000;0.4021;0.8732;
1223.7000;0.4005;0.8685;
1224.0000;0.3980;0.8544;
1224.3000;0.4037;0.8614;
1224.6000;0.3989;0.8567;
1224.9000;0.4013;0.8661;
1225.2000;0.3980;0.8614;
1225.5000;0.3989;0.8591;
1225.8000;0.3989;0.8614;
1226.1000;0.3989;0.8567;
1226.4000;0.3989;0.8544;
1226.7000;0.3997;0.8473;
1227.0000;0.3980;0.8473;
1227.3000;0.4005;0.8473;
1227.6000;0.4037;0.8520;
1227.9000;0.3997;0.8426;
1228.2000;0.4005;0.8473;
1228.5000;0.4005;0.8520;
1228.8000;0.4005;0.8567;
1229.1000;0.3997;0.8520;
1229.4000;0.3980;0.8426;
1229.7000;0.3989;0.8520;
1230.0000;0.4013;0.8591;
1230.3000;0.3997;0.8638;
1230.6000;0.4062;0.8802;
1230.9000;0.3923;0.8426;
1231.2000;0.4013;0.8591;
1231.5000;0.4005;0.8520;
1231.8000;0.3997;0.8426;
1232.1000;0.4005;0.8450;
1232.4000;0.3980;0.8356;
1232.7000;0.4046;0.8544;
1233.0000;0.4013;0.8497;
1233.3000;0.3997;0.8544;
1233.6000;0.4037;0.8591;
1233.9000;0.4029;0.8567;
1234.2000;0.3997;0.8520;
1234.5000;0.4046;0.8685;
1234.8000;0.3997;0.8567;
1235.1000;0.4005;0.8661;
1235.4000;0.4005;0.8614;
1235.7000;0.4005;0.8591;
1236.0000;0.4005;0.8661;
1236.3000;0.4013;0.8544;
1236.6000;0.3989;0.8497;
1236.9000;0.3989;0.8520;
1237.2000;0.3980;0.8520;
1237.5000;0.4005;0.8614;
1237.8000;0.4029;0.8661;
1238.1000;0.4005;0.8591;
1238.4000;0.4005;0.8567;
1238.7000;0.3997;0.8520;
1239.0000;0.4005;0.8591;
1239.3000;0.4013;0.8591;
1239.6000;0.4005;0.8638;
1239.9000;0.4029;0.8591;
1240.2000;0.4013;0.8567;
1240.5000;0.4005;0.8497;
1240.8000;0.3972;0.8426;
1241.1000;0.3997;0.8520;
1241.4000;0.4094;0.8872;
1241.7000;0.3964;0.8591;
1242.0000;0.3980;0.8614;
1242.3000;0.4021;0.8732;
1242.6000;0.4021;0.8685;
1242.9000;0.4013;0.8708;
1243.2000;0.4013;0.8708;
1243.5000;0.4005;0.8732;
1243.8000;0.4005;0.8708;
1244.1000;0.4046;0.8778;
1244.4000;0.4029;0.8755;
1244.7000;0.4005;0.8778;
1245.0000;0.4005;0.8778;
1245.3000;0.3997;0.8755;
1245.6000;0.3997;0.8591;
1245.9000;0.3989;0.8544;
1246.2000;0.4013;0.8567;
1246.5000;0.4021;0.8591;
1246.8000;0.4029;0.8638;
1247.1000;0.3980;0.8520;
1247.4000;0.3899;0.8286;
1247.7000;0.4005;0.8497;
1248.0000;0.3989;0.8473;
1248.3000;0.3989;0.8473;
1248.6000;0.3997;0.8473;
1248.9000;0.4021;0.8520;
1249.2000;0.4013;0.8520;
1249.5000;0.4005;0.8591;
1249.8000;0.3972;0.8544;
1250.1000;0.4054;0.8732;
1250.4000;0.3997;0.8591;
1250.7000;0.4005;0.8614;
1251.0000;0.3956;0.8567;
1251.3000;0.3989;0.8567;
1251.6000;0.3997;0.8520;
1251.9000;0.4005;0.8473;
1252.2000;0.3980;0.8567;
1252.5000;0.3980;0.8544;
1252.8000;0.3997;0.8614;
1253.1000;0.3997;0.8591;
1253.4000;0.3997;0.8544;
1253.7000;0.4078;0.8778;
1254.0000;0.4013;0.8661;
1254.3000;0.4013;0.8708;
1254.6000;0.3989;0.8685;
1254.9000;0.3997;0.8732;
1255.2000;0.4013;0.8755;
1255.5000;0.4005;0.8802;
1255.8000;0.4013;0.8825;
1256.1000;0.4005;0.8778;
1256.4000;0.4005;0.8685;
1256.7000;0.4005;0.8708;
1257.0000;0.3989;0.8685;
1257.3000;0.4013;0.8685;
1257.6000;0.3989;0.8638;
1257.9000;0.4005;0.8755;
1258.2000;0.4005;0.8802;
1258.5000;0.4013;0.8778;
1258.8000;0.4005;0.8755;
1259.1000;0.4005;0.8732;
1259.4000;0.3997;0.8802;
1259.7000;0.4005;0.8849;
1260.0000;0.3997;0.8849;
1260.3000;0.4005;0.8919;
1260.6000;0.3989;0.8872;
1260.9000;0.3972;0.8755;
1261.2000;0.3997;0.8708;
1261.5000;0.4005;0.8755;
1261.8000;0.4013;0.8802;
1262.1000;0.3972;0.8661;
1262.4000;0.3989;0.8755;
1262.7000;0.3997;0.8708;
1263.0000;0.4013;0.8708;
1263.3000;0.4013;0.8708;
1263.6000;0.4005;0.8685;
1263.9000;0.3964;0.8520;
1264.2000;0.3997;0.8520;
1264.5000;0.3972;0.8520;
1264.8000;0.4005;0.8708;
1265.1000;0.3989;0.8685;
1265.4000;0.3989;0.8778;
1265.7000;0.3997;0.8778;
1266.0000;0.3989;0.8755;
1266.3000;0.3989;0.8732;
1266.6000;0.3997;0.8732;
1266.9000;0.4013;0.8755;
1267.2000;0.3997;0.8685;
1267.5000;0.4013;0.8591;
1267.8000;0.4021;0.8685;
1268.1000;0.4021;0.8685;
1268.4000;0.4013;0.8685;
1268.7000;0.4021;0.8755;
1269.0000;0.4013;0.8778;
1269.3000;0.4013;0.8825;
1269.6000;0.3997;0.8802;
1269.9000;0.4013;0.8849;
1270.2000;0.3997;0.8802;
1270.5000;0.4013;0.8849;
1270.8000;0.3997;0.8778;
1271.1000;0.4013;0.8755;
1271.4000;0.3989;0.8591;
1271.7000;0.3997;0.8591;
1272.0000;0.4005;0.8591;
1272.3000;0.4013;0.8708;
1272.6000;0.4013;0.8685;
1272.9000;0.4029;0.8732;
1273.2000;0.3997;0.8708;
1273.5000;0.4005;0.8685;
1273.8000;0.4021;0.8591;
1274.1000;0.3989;0.8685;
1274.4000;0.4062;0.8849;
1274.7000;0.4005;0.8708;
1275.0000;0.4005;0.8732;
1275.3000;0.3997;0.8755;
1275.6000;0.4005;0.8778;
1275.9000;0.4021;0.8802;
1276.2000;0.4013;0.8802;
1276.5000;0.3997;0.8732;
1276.8000;0.3997;0.8708;
1277.1000;0.4070;0.8872;
1277.4000;0.4005;0.8638;
1277.7000;0.4013;0.8591;
1278.0000;0.3997;0.8591;
1278.3000;0.3932;0.8426;
1278.6000;0.3997;0.8614;
1278.9000;0.4005;0.8661;
1279.2000;0.3980;0.8591;
1279.5000;0.4005;0.8708;
1279.8000;0.3915;0.8403;
1280.1000;0.4013;0.8567;
1280.4000;0.4070;0.8732;
1280.7000;0.4005;0.8614;
1281.0000;0.3997;0.8638;
1281.3000;0.4005;0.8661;
1281.6000;0.4021;0.8708;
1281.9000;0.3997;0.8661;
1282.2000;0.4021;0.8638;
1282.5000;0.4021;0.8567;
1282.8000;0.4013;0.8473;
1283.1000;0.3997;0.8520;
1283.4000;0.4013;0.8685;
1283.7000;0.4013;0.8732;
1284.0000;0.4013;0.8755;
1284.3000;0.4029;0.8802;
1284.6000;0.4021;0.8732;
1284.9000;0.4013;0.8802;
1285.2000;0.4013;0.8755;
1285.5000;0.3989;0.8685;
1285.8000;0.3997;0.8778;
1286.1000;0.3997;0.8755;
1286.4000;0.3989;0.8778;
1286.7000;0.3989;0.8802;
1287.0000;0.3989;0.8825;
1287.3000;0.4013;0.8872;
1287.6000;0.4013;0.8896;
1287.9000;0.4005;0.8849;
1288.2000;0.3997;0.8825;
1288.5000;0.4013;0.8943;
1288.8000;0.3997;0.8872;
1289.1000;0.3989;0.8919;
1289.4000;0.3997;0.8919;
1289.7000;0.4005;0.8966;
1290.0000;0.3997;0.8896;
1290.3000;0.3989;0.8849;
1290.6000;0.3980;0.8732;
1290.9000;0.4037;0.8825;
1291.2000;0.4078;0.8919;
1291.5000;0.4005;0.8755;
1291.8000;0.3997;0.8778;
1292.1000;0.4013;0.8802;
1292.4000;0.4005;0.8849;
1292.7000;0.4021;0.8872;
1293.0000;0.4005;0.8849;
1293.3000;0.4021;0.8849;
1293.6000;0.4021;0.8825;
1293.9000;0.3980;0.8708;
1294.2000;0.4021;0.8849;
1294.5000;0.4005;0.8755;
1294.8000;0.3989;0.8778;
1295.1000;0.4013;0.8802;
1295.4000;0.3891;0.8591;
1295.7000;0.3997;0.8872;
1296.0000;0.4013;0.8849;
1296.3000;0.3964;0.8802;
1296.6000;0.3956;0.8708;
1296.9000;0.4029;0.8825;
1297.2000;0.4094;0.8943;
1297.5000;0.4021;0.8755;
1297.8000;0.4013;0.8732;
1298.1000;0.3997;0.8778;
1298.4000;0.4005;0.8778;
1298.7000;0.4013;0.8732;
1299.0000;0.4013;0.8685;
1299.3000;0.3997;0.8614;
1299.6000;0.3997;0.8544;
1299.9000;0.3997;0.8520;
1300.2000;0.4021;0.8591;
1300.5000;0.3997;0.8520;
1300.8000;0.4013;0.8520;
1301.1000;0.4013;0.8591;
1301.4000;0.4005;0.8614;
1301.7000;0.3932;0.8520;
1302.0000;0.4013;0.8755;
1302.3000;0.4021;0.8919;
1302.6000;0.3997;0.8849;
1302.9000;0.4029;0.8825;
1303.2000;0.4005;0.8755;
1303.5000;0.4103;0.8990;
1303.8000;0.4037;0.8802;
1304.1000;0.4005;0.8778;
1304.4000;0.4086;0.8966;
1304.7000;0.4021;0.8802;
1305.0000;0.3997;0.8685;
1305.3000;0.3997;0.8732;
1305.6000;0.4021;0.8802;
1305.9000;0.4005;0.8802;
1306.2000;0.3997;0.8732;
1306.5000;0.3997;0.8778;
1306.8000;0.3989;0.8708;
1307.1000;0.4005;0.8755;
1307.4000;0.4013;0.8755;
1307.7000;0.3989;0.8755;
1308.0000;0.3997;0.8661;
1308.3000;0.4005;0.8614;
1308.6000;0.3997;0.8591;
1308.9000;0.4005;0.8544;
1309.2000;0.3997;0.8520;
1309.5000;0.3989;0.8544;
1309.8000;0.4013;0.8567;
1310.1000;0.4005;0.8591;
1310.4000;0.4005;0.8638;
1310.7000;0.4013;0.8567;
1311.0000;0.4005;0.8544;
1311.3000;0.3997;0.8567;
1311.6000;0.4005;0.8450;
1311.9000;0.4013;0.8450;
1312.2000;0.4013;0.8403;
1312.5000;0.4005;0.8473;
1312.8000;0.4013;0.8591;
1313.1000;0.4037;0.8708;
1313.4000;0.3989;0.8591;
1313.7000;0.4005;0.8614;
1314.0000;0.4046;0.8661;
1314.3000;0.4013;0.8520;
1314.6000;0.3997;0.8520;
1314.9000;0.4013;0.8638;
1315.2000;0.4037;0.8708;
1315.5000;0.4005;0.8708;
1315.8000;0.3980;0.8708;
1316.1000;0.4037;0.8825;
1316.4000;0.4013;0.8685;
1316.7000;0.4013;0.8638;
1317.0000;0.4013;0.8591;
1317.3000;0.4013;0.8614;
1317.6000;0.4029;0.8638;
1317.9000;0.4037;0.8661;
1318.2000;0.3997;0.8544;
1318.5000;0.3997;0.8544;
1318.8000;0.4013;0.8638;
1319.1000;0.4078;0.8849;
1319.4000;0.4005;0.8732;
1319.7000;0.4013;0.8708;
1320.0000;0.3997;0.8685;
1320.3000;0.3964;0.8591;
1320.6000;0.3989;0.8708;
1320.9000;0.3989;0.8661;
1321.2000;0.4005;0.8708;
1321.5000;0.4021;0.8732;
1321.8000;0.3980;0.8591;
1322.1000;0.3997;0.8520;
1322.4000;0.4021;0.8591;
1322.7000;0.4013;0.8638;
1323.0000;0.4005;0.8544;
1323.3000;0.4029;0.8497;
1323.6000;0.4005;0.8497;
1323.9000;0.4005;0.8520;
1324.2000;0.4005;0.8497;
1324.5000;0.4005;0.8473;
1324.8000;0.3980;0.8356;
1325.1000;0.4029;0.8473;
1325.4000;0.4021;0.8403;
1325.7000;0.4013;0.8379;
1326.0000;0.4021;0.8403;
1326.3000;0.4013;0.8403;
1326.6000;0.4029;0.8450;
1326.9000;0.4005;0.8426;
1327.2000;0.4005;0.8426;
1327.5000;0.4021;0.8497;
1327.8000;0.4078;0.8708;
1328.1000;0.4037;0.8473;
1328.4000;0.4021;0.8473;
1328.7000;0.4013;0.8379;
1329.0000;0.4005;0.8356;
1329.3000;0.3997;0.8356;
1329.6000;0.3989;0.8426;
1329.9000;0.3997;0.8497;
1330.2000;0.3997;0.8520;
1330.5000;0.4013;0.8591;
1330.8000;0.4054;0.8802;
1331.1000;0.4013;0.8638;
1331.4000;0.4013;0.8614;
1331.7000;0.3972;0.8450;
1332.0000;0.3989;0.8497;
1332.3000;0.3997;0.8567;
1332.6000;0.3997;0.8591;
1332.9000;0.4005;0.8591;
1333.2000;0.4021;0.8708;
1333.5000;0.3989;0.8708;
1333.8000;0.3997;0.8708;
1334.1000;0.3997;0.8638;
1334.4000;0.4005;0.8591;
1334.7000;0.4005;0.8497;
1335.0000;0.3997;0.8567;
1335.3000;0.4005;0.8591;
1335.6000;0.4005;0.8685;
1335.9000;0.3997;0.8685;
1336.2000;0.4013;0.8685;
1336.5000;0.3997;0.8614;
1336.8000;0.4013;0.8567;
1337.1000;0.3980;0.8520;
1337.4000;0.4013;0.8708;
1337.7000;0.3956;0.8638;
1338.0000;0.3956;0.8638;
1338.3000;0.4005;0.8732;
1338.6000;0.4005;0.8732;
1338.9000;0.4013;0.8732;
1339.2000;0.4021;0.8778;
1339.5000;0.4078;0.8943;
1339.8000;0.3997;0.8708;
1340.1000;0.4005;0.8708;
1340.4000;0.3997;0.8732;
1340.7000;0.4005;0.8708;
1341.0000;0.4005;0.8708;
1341.3000;0.3989;0.8661;
1341.6000;0.4013;0.8661;
1341.9000;0.4013;0.8638;
1342.2000;0.3907;0.8332;
1342.5000;0.3989;0.8520;
1342.8000;0.3997;0.8544;
1343.1000;0.4005;0.8614;
1343.4000;0.3997;0.8638;
1343.7000;0.4005;0.8614;
1344.0000;0.3997;0.8614;
1344.3000;0.3972;0.8591;
1344.6000;0.3989;0.8614;
1344.9000;0.3997;0.8591;
1345.2000;0.3997;0.8567;
1345.5000;0.3964;0.8497;
1345.8000;0.3997;0.8567;
1346.1000;0.3997;0.8614;
1346.4000;0.3989;0.8591;
1346.7000;0.3997;0.8614;
1347.0000;0.3997;0.8614;
1347.3000;0.3989;0.8591;
1347.6000;0.4062;0.8825;
1347.9000;0.3980;0.8661;
1348.2000;0.4013;0.8638;
1348.5000;0.4013;0.8661;
1348.8000;0.4005;0.8591;
1349.1000;0.3997;0.8591;
1349.4000;0.4013;0.8591;
1349.7000;0.3989;0.8567;
1350.0000;0.3989;0.8567;
1350.3000;0.4005;0.8591;
1350.6000;0.4021;0.8544;
1350.9000;0.4037;0.8567;
1351.2000;0.4021;0.8497;
1351.5000;0.4021;0.8567;
1351.8000;0.3964;0.8379;
1352.1000;0.4021;0.8567;
1352.4000;0.4021;0.8544;
1352.7000;0.4005;0.8544;
1353.0000;0.4046;0.8567;
1353.3000;0.4005;0.8544;
1353.6000;0.4005;0.8567;
1353.9000;0.4013;0.8685;
1354.2000;0.4005;0.8661;
1354.5000;0.4021;0.8685;
1354.8000;0.4029;0.8778;
1355.1000;0.3997;0.8638;
1355.4000;0.3989;0.8544;
1355.7000;0.3989;0.8497;
1356.0000;0.3989;0.8685;
1356.3000;0.3997;0.8685;
1356.6000;0.3980;0.8544;
1356.9000;0.3997;0.8520;
1357.2000;0.4021;0.8544;
1357.5000;0.3997;0.8638;
1357.8000;0.4005;0.8591;
1358.1000;0.3989;0.8567;
1358.4000;0.4005;0.8591;
1358.7000;0.4021;0.8638;
1359.0000;0.4005;0.8614;
1359.3000;0.4005;0.8685;
1359.6000;0.3972;0.8638;
1359.9000;0.3997;0.8591;
1360.2000;0.4029;0.8567;
1360.5000;0.4021;0.8544;
1360.8000;0.4005;0.8591;
1361.1000;0.4013;0.8685;
1361.4000;0.3989;0.8661;
1361.7000;0.4078;0.8872;
1362.0000;0.4021;0.8708;
1362.3000;0.3972;0.8755;
1362.6000;0.3997;0.8849;
1362.9000;0.4005;0.8825;
1363.2000;0.3997;0.8802;
1363.5000;0.4037;0.8825;
1363.8000;0.3915;0.8638;
1364.1000;0.4005;0.8849;
1364.4000;0.4029;0.8872;
1364.7000;0.4013;0.8802;
1365.0000;0.3997;0.8685;
1365.3000;0.3997;0.8732;
1365.6000;0.3980;0.8802;
1365.9000;0.3997;0.8849;
1366.2000;0.3948;0.8638;
1366.5000;0.4013;0.8825;
1366.8000;0.4005;0.8802;
1367.1000;0.4021;0.8872;
1367.4000;0.4005;0.8849;
1367.7000;0.4062;0.8966;
1368.0000;0.3997;0.8825;
1368.3000;0.4005;0.8802;
1368.6000;0.4005;0.8732;
1368.9000;0.3997;0.8755;
1369.2000;0.3980;0.8685;
1369.5000;0.3997;0.8638;
1369.8000;0.4029;0.8755;
1370.1000;0.3997;0.8591;
1370.4000;0.4021;0.8685;
1370.7000;0.4005;0.8661;
1371.0000;0.4005;0.8732;
1371.3000;0.3964;0.8685;
1371.6000;0.3997;0.8732;
1371.9000;0.3989;0.8708;
1372.2000;0.4013;0.8755;
1372.5000;0.4005;0.8685;
1372.8000;0.3997;0.8638;
1373.1000;0.3997;0.8685;
1373.4000;0.4029;0.8732;
1373.7000;0.3989;0.8661;
1374.0000;0.3989;0.8661;
1374.3000;0.4013;0.8732;
1374.6000;0.3980;0.8708;
1374.9000;0.4021;0.8778;
1375.2000;0.3997;0.8638;
1375.5000;0.3997;0.8567;
1375.8000;0.4005;0.8520;
1376.1000;0.3997;0.8497;
1376.4000;0.4005;0.8544;
1376.7000;0.4013;0.8567;
1377.0000;0.4021;0.8497;
1377.3000;0.3972;0.8426;
1377.6000;0.4037;0.8614;
1377.9000;0.3989;0.8567;
1378.2000;0.4021;0.8708;
1378.5000;0.4005;0.8708;
1378.8000;0.4037;0.8825;
1379.1000;0.3989;0.8732;
1379.4000;0.4005;0.8825;
1379.7000;0.4013;0.8825;
1380.0000;0.4013;0.8778;
1380.3000;0.3989;0.8708;
1380.6000;0.4054;0.8849;
1380.9000;0.3980;0.8708;
1381.2000;0.4005;0.8732;
1381.5000;0.4005;0.8685;
1381.8000;0.3980;0.8708;
1382.1000;0.4013;0.8755;
1382.4000;0.3997;0.8732;
1382.7000;0.3940;0.8685;
1383.0000;0.4005;0.8825;
1383.3000;0.3989;0.8849;
1383.6000;0.4013;0.8849;
1383.9000;0.4013;0.8755;
1384.2000;0.3997;0.8732;
1384.5000;0.4013;0.8638;
1384.8000;0.3989;0.8450;
1385.1000;0.4013;0.8520;
1385.4000;0.3989;0.8473;
1385.7000;0.4013;0.8614;
1386.0000;0.4013;0.8638;
1386.3000;0.4005;0.8638;
1386.6000;0.4013;0.8638;
1386.9000;0.4013;0.8567;
1387.2000;0.4029;0.8685;
1387.5000;0.4029;0.8778;
1387.8000;0.4005;0.8732;
1388.1000;0.4013;0.8708;
1388.4000;0.3997;0.8591;
1388.7000;0.4103;0.8849;
1389.0000;0.4013;0.8708;
1389.3000;0.3989;0.8778;
1389.6000;0.4005;0.8732;
1389.9000;0.4013;0.8732;
1390.2000;0.3997;0.8661;
1390.5000;0.3997;0.8661;
1390.8000;0.4005;0.8708;
1391.1000;0.3997;0.8755;
1391.4000;0.3997;0.8732;
1391.7000;0.4021;0.8755;
1392.0000;0.4005;0.8685;
1392.3000;0.3997;0.8732;
1392.6000;0.3997;0.8708;
1392.9000;0.3980;0.8661;
1393.2000;0.4005;0.8661;
1393.5000;0.4005;0.8614;
1393.8000;0.4005;0.8591;
1394.1000;0.3997;0.8520;
1394.4000;0.4005;0.8473;
1394.7000;0.3980;0.8473;
1395.0000;0.3997;0.8473;
1395.3000;0.4005;0.8497;
1395.6000;0.3980;0.8473;
1395.9000;0.3997;0.8520;
1396.2000;0.4005;0.8567;
1396.5000;0.3997;0.8638;
1396.8000;0.3997;0.8732;
1397.1000;0.3989;0.8778;
1397.4000;0.4005;0.8732;
1397.7000;0.3997;0.8732;
1398.0000;0.3997;0.8755;
1398.3000;0.3989;0.8708;
1398.6000;0.4013;0.8732;
1398.9000;0.4005;0.8732;
1399.2000;0.4005;0.8708;
1399.5000;0.3997;0.8685;
1399.8000;0.4005;0.8825;
