time/ms;Fluo/V;P700 deltaI/I x10³;
-199.8000;0.3166;0.8168;
-199.5000;0.3166;0.8121;
-199.2000;0.3158;0.8074;
-198.9000;0.3166;0.8098;
-198.6000;0.3166;0.8145;
-198.3000;0.3166;0.8098;
-198.0000;0.3158;0.8027;
-197.7000;0.3175;0.8004;
-197.4000;0.3166;0.8027;
-197.1000;0.3240;0.8145;
-196.8000;0.3175;0.7933;
-196.5000;0.3166;0.7933;
-196.2000;0.3175;0.7933;
-195.9000;0.3183;0.7957;
-195.6000;0.3199;0.7910;
-195.3000;0.3183;0.7910;
-195.0000;0.3207;0.7840;
-194.7000;0.3191;0.7887;
-194.4000;0.3191;0.7957;
-194.1000;0.3183;0.8098;
-193.8000;0.3199;0.8098;
-193.5000;0.3199;0.8051;
-193.2000;0.3199;0.8027;
-192.9000;0.3191;0.7980;
-192.6000;0.3166;0.7863;
-192.3000;0.3183;0.7887;
-192.0000;0.3183;0.7957;
-191.7000;0.3183;0.7933;
-191.4000;0.3183;0.7840;
-191.1000;0.3183;0.7840;
-190.8000;0.3191;0.7816;
-190.5000;0.3199;0.7816;
-190.2000;0.3191;0.7910;
-189.9000;0.3183;0.7863;
-189.6000;0.3199;0.7887;
-189.3000;0.3199;0.7887;
-189.0000;0.3158;0.7769;
-188.7000;0.3199;0.7816;
-188.4000;0.3183;0.7793;
-188.1000;0.3199;0.7933;
-187.8000;0.3191;0.7933;
-187.5000;0.3207;0.7980;
-187.2000;0.3248;0.8051;
-186.9000;0.3199;0.7887;
-186.6000;0.3207;0.7933;
-186.3000;0.3199;0.7933;
-186.0000;0.3175;0.7887;
-185.7000;0.3199;0.7933;
-185.4000;0.3215;0.7980;
-185.1000;0.3191;0.7933;
-184.8000;0.3207;0.7957;
-184.5000;0.3215;0.7980;
-184.2000;0.3232;0.8004;
-183.9000;0.3223;0.7933;
-183.6000;0.3199;0.7793;
-183.3000;0.3215;0.7840;
-183.0000;0.3232;0.7887;
-182.7000;0.3223;0.7933;
-182.4000;0.3223;0.8004;
-182.1000;0.3215;0.7933;
-181.8000;0.3223;0.7980;
-181.5000;0.3223;0.8027;
-181.2000;0.3215;0.8004;
-180.9000;0.3223;0.7910;
-180.6000;0.3223;0.7957;
-180.3000;0.3215;0.7957;
-180.0000;0.3158;0.7816;
-179.7000;0.3232;0.7910;
-179.4000;0.3223;0.7816;
-179.1000;0.3232;0.7816;
-178.8000;0.3223;0.7816;
-178.5000;0.3223;0.7769;
-178.2000;0.3232;0.7816;
-177.9000;0.3232;0.7816;
-177.6000;0.3248;0.7840;
-177.3000;0.3248;0.7887;
-177.0000;0.3232;0.7840;
-176.7000;0.3232;0.7887;
-176.4000;0.3248;0.7933;
-176.1000;0.3240;0.7863;
-175.8000;0.3207;0.7840;
-175.5000;0.3223;0.7933;
-175.2000;0.3256;0.8074;
-174.9000;0.3240;0.8098;
-174.6000;0.3240;0.8027;
-174.3000;0.3248;0.8004;
-174.0000;0.3264;0.7980;
-173.7000;0.3240;0.7887;
-173.4000;0.3240;0.7887;
-173.1000;0.3248;0.7957;
-172.8000;0.3248;0.8027;
-172.5000;0.3248;0.7933;
-172.2000;0.3248;0.8027;
-171.9000;0.3199;0.7816;
-171.6000;0.3264;0.8004;
-171.3000;0.3232;0.7957;
-171.0000;0.3256;0.8074;
-170.7000;0.3256;0.8027;
-170.4000;0.3256;0.8074;
-170.1000;0.3256;0.8121;
-169.8000;0.3248;0.8168;
-169.5000;0.3256;0.8215;
-169.2000;0.3264;0.8145;
-168.9000;0.3240;0.8145;
-168.6000;0.3240;0.8121;
-168.3000;0.3256;0.8168;
-168.0000;0.3264;0.8286;
-167.7000;0.3256;0.8192;
-167.4000;0.3240;0.8027;
-167.1000;0.3256;0.8004;
-166.8000;0.3272;0.7957;
-166.5000;0.3264;0.7980;
-166.2000;0.3289;0.7980;
-165.9000;0.3264;0.8004;
-165.6000;0.3272;0.7980;
-165.3000;0.3248;0.7910;
-165.0000;0.3280;0.7910;
-164.7000;0.3289;0.7980;
-164.4000;0.3264;0.7933;
-164.1000;0.3256;0.7957;
-163.8000;0.3256;0.7933;
-163.5000;0.3256;0.7910;
-163.2000;0.3272;0.7910;
-162.9000;0.3280;0.7887;
-162.6000;0.3272;0.7816;
-162.3000;0.3280;0.7675;
-162.0000;0.3280;0.7722;
-161.7000;0.3280;0.7746;
-161.4000;0.3280;0.7699;
-161.1000;0.3280;0.7699;
-160.8000;0.3289;0.7793;
-160.5000;0.3272;0.7699;
-160.2000;0.3297;0.7675;
-159.9000;0.3289;0.7675;
-159.6000;0.3289;0.7652;
-159.3000;0.3289;0.7652;
-159.0000;0.3313;0.7699;
-158.7000;0.3248;0.7675;
-158.4000;0.3305;0.7769;
-158.1000;0.3289;0.7722;
-157.8000;0.3313;0.7816;
-157.5000;0.3297;0.7722;
-157.2000;0.3305;0.7699;
-156.9000;0.3272;0.7675;
-156.6000;0.3289;0.7816;
-156.3000;0.3289;0.7840;
-156.0000;0.3297;0.7816;
-155.7000;0.3297;0.7816;
-155.4000;0.3305;0.7840;
-155.1000;0.3289;0.7816;
-154.8000;0.3297;0.7840;
-154.5000;0.3321;0.7863;
-154.2000;0.3289;0.7793;
-153.9000;0.3297;0.7816;
-153.6000;0.3313;0.7863;
-153.3000;0.3289;0.7816;
-153.0000;0.3403;0.8027;
-152.7000;0.3313;0.7840;
-152.4000;0.3297;0.7699;
-152.1000;0.3272;0.7628;
-151.8000;0.3297;0.7675;
-151.5000;0.3297;0.7675;
-151.2000;0.3313;0.7746;
-150.9000;0.3264;0.7605;
-150.6000;0.3411;0.8027;
-150.3000;0.3321;0.7793;
-150.0000;0.3321;0.7769;
-149.7000;0.3321;0.7699;
-149.4000;0.3321;0.7699;
-149.1000;0.3337;0.7769;
-148.8000;0.3354;0.7840;
-148.5000;0.3321;0.7793;
-148.2000;0.3305;0.7699;
-147.9000;0.3329;0.7816;
-147.6000;0.3346;0.7863;
-147.3000;0.3346;0.7980;
-147.0000;0.3346;0.7910;
-146.7000;0.3337;0.7816;
-146.4000;0.3272;0.7628;
-146.1000;0.3354;0.7722;
-145.8000;0.3346;0.7628;
-145.5000;0.3305;0.7558;
-145.2000;0.3362;0.7652;
-144.9000;0.3394;0.7769;
-144.6000;0.3370;0.7628;
-144.3000;0.3354;0.7652;
-144.0000;0.3346;0.7699;
-143.7000;0.3337;0.7675;
-143.4000;0.3362;0.7746;
-143.1000;0.3354;0.7769;
-142.8000;0.3378;0.7887;
-142.5000;0.3370;0.7933;
-142.2000;0.3370;0.7957;
-141.9000;0.3362;0.7933;
-141.6000;0.3354;0.7887;
-141.3000;0.3354;0.7863;
-141.0000;0.3370;0.7910;
-140.7000;0.3362;0.7910;
-140.4000;0.3329;0.7840;
-140.1000;0.3354;0.7769;
-139.8000;0.3378;0.7816;
-139.5000;0.3362;0.7863;
-139.2000;0.3354;0.7863;
-138.9000;0.3362;0.8004;
-138.6000;0.3370;0.7957;
-138.3000;0.3362;0.7910;
-138.0000;0.3354;0.7793;
-137.7000;0.3362;0.7863;
-137.4000;0.3362;0.7863;
-137.1000;0.3370;0.7840;
-136.8000;0.3386;0.7816;
-136.5000;0.3362;0.7769;
-136.2000;0.3362;0.7793;
-135.9000;0.3378;0.7769;
-135.6000;0.3313;0.7652;
-135.3000;0.3378;0.7722;
-135.0000;0.3370;0.7722;
-134.7000;0.3386;0.7816;
-134.4000;0.3394;0.7793;
-134.1000;0.3386;0.7769;
-133.8000;0.3411;0.7722;
-133.5000;0.3394;0.7699;
-133.2000;0.3386;0.7628;
-132.9000;0.3386;0.7699;
-132.6000;0.3403;0.7769;
-132.3000;0.3403;0.7840;
-132.0000;0.3378;0.7816;
-131.7000;0.3394;0.7722;
-131.4000;0.3378;0.7675;
-131.1000;0.3378;0.7652;
-130.8000;0.3419;0.7793;
-130.5000;0.3403;0.7769;
-130.2000;0.3419;0.7793;
-129.9000;0.3394;0.7675;
-129.6000;0.3337;0.7581;
-129.3000;0.3419;0.7840;
-129.0000;0.3419;0.7933;
-128.7000;0.3362;0.7863;
-128.4000;0.3419;0.8027;
-128.1000;0.3411;0.8051;
-127.8000;0.3403;0.7957;
-127.5000;0.3443;0.8074;
-127.2000;0.3427;0.8027;
-126.9000;0.3403;0.7933;
-126.6000;0.3427;0.7933;
-126.3000;0.3403;0.7910;
-126.0000;0.3394;0.7910;
-125.7000;0.3419;0.7980;
-125.4000;0.3427;0.7933;
-125.1000;0.3419;0.7840;
-124.8000;0.3443;0.7840;
-124.5000;0.3411;0.7722;
-124.2000;0.3427;0.7816;
-123.9000;0.3419;0.7793;
-123.6000;0.3427;0.7793;
-123.3000;0.3443;0.7746;
-123.0000;0.3443;0.7699;
-122.7000;0.3435;0.7722;
-122.4000;0.3435;0.7769;
-122.1000;0.3435;0.7652;
-121.8000;0.3451;0.7628;
-121.5000;0.3419;0.7581;
-121.2000;0.3443;0.7605;
-120.9000;0.3435;0.7605;
-120.6000;0.3435;0.7581;
-120.3000;0.3460;0.7652;
-120.0000;0.3435;0.7652;
-119.7000;0.3435;0.7581;
-119.4000;0.3460;0.7628;
-119.1000;0.3460;0.7581;
-118.8000;0.3451;0.7558;
-118.5000;0.3476;0.7652;
-118.2000;0.3468;0.7652;
-117.9000;0.3468;0.7628;
-117.6000;0.3476;0.7675;
-117.3000;0.3468;0.7511;
-117.0000;0.3468;0.7534;
-116.7000;0.3468;0.7581;
-116.4000;0.3484;0.7652;
-116.1000;0.3460;0.7558;
-115.8000;0.3460;0.7511;
-115.5000;0.3476;0.7511;
-115.2000;0.3476;0.7511;
-114.9000;0.3484;0.7464;
-114.6000;0.3468;0.7464;
-114.3000;0.3492;0.7581;
-114.0000;0.3484;0.7581;
-113.7000;0.3468;0.7558;
-113.4000;0.3484;0.7558;
-113.1000;0.3460;0.7534;
-112.8000;0.3443;0.7558;
-112.5000;0.3484;0.7652;
-112.2000;0.3476;0.7628;
-111.9000;0.3492;0.7558;
-111.6000;0.3468;0.7441;
-111.3000;0.3500;0.7464;
-111.0000;0.3590;0.7769;
-110.7000;0.3500;0.7558;
-110.4000;0.3508;0.7581;
-110.1000;0.3516;0.7558;
-109.8000;0.3533;0.7628;
-109.5000;0.3541;0.7675;
-109.2000;0.3557;0.7675;
-108.9000;0.3500;0.7628;
-108.6000;0.3500;0.7581;
-108.3000;0.3582;0.7887;
-108.0000;0.3508;0.7769;
-107.7000;0.3533;0.7816;
-107.4000;0.3549;0.7793;
-107.1000;0.3508;0.7722;
-106.8000;0.3549;0.7887;
-106.5000;0.3516;0.7746;
-106.2000;0.3590;0.7910;
-105.9000;0.3516;0.7652;
-105.6000;0.3525;0.7746;
-105.3000;0.3468;0.7628;
-105.0000;0.3525;0.7675;
-104.7000;0.3573;0.7840;
-104.4000;0.3565;0.7840;
-104.1000;0.3516;0.7699;
-103.8000;0.3557;0.7722;
-103.5000;0.3525;0.7628;
-103.2000;0.3541;0.7628;
-102.9000;0.3541;0.7605;
-102.6000;0.3460;0.7464;
-102.3000;0.3525;0.7558;
-102.0000;0.3525;0.7605;
-101.7000;0.3557;0.7581;
-101.4000;0.3549;0.7581;
-101.1000;0.3541;0.7605;
-100.8000;0.3557;0.7581;
-100.5000;0.3565;0.7675;
-100.2000;0.3557;0.7652;
-99.9000;0.3573;0.7652;
-99.6000;0.3565;0.7628;
-99.3000;0.3582;0.7675;
-99.0000;0.3582;0.7769;
-98.7000;0.3582;0.7840;
-98.4000;0.3557;0.7816;
-98.1000;0.3573;0.7840;
-97.8000;0.3573;0.7769;
-97.5000;0.3541;0.7675;
-97.2000;0.3557;0.7652;
-96.9000;0.3590;0.7793;
-96.6000;0.3557;0.7675;
-96.3000;0.3647;0.7816;
-96.0000;0.3590;0.7746;
-95.7000;0.3582;0.7699;
-95.4000;0.3679;0.7910;
-95.1000;0.3614;0.7699;
-94.8000;0.3573;0.7581;
-94.5000;0.3598;0.7699;
-94.2000;0.3598;0.7652;
-93.9000;0.3598;0.7628;
-93.6000;0.3582;0.7534;
-93.3000;0.3598;0.7464;
-93.0000;0.3630;0.7511;
-92.7000;0.3606;0.7488;
-92.4000;0.3590;0.7534;
-92.1000;0.3606;0.7534;
-91.8000;0.3622;0.7558;
-91.5000;0.3573;0.7347;
-91.2000;0.3630;0.7464;
-90.9000;0.3606;0.7464;
-90.6000;0.3639;0.7464;
-90.3000;0.3606;0.7441;
-90.0000;0.3622;0.7464;
-89.7000;0.3639;0.7581;
-89.4000;0.3614;0.7488;
-89.1000;0.3630;0.7511;
-88.8000;0.3639;0.7488;
-88.5000;0.3639;0.7534;
-88.2000;0.3614;0.7488;
-87.9000;0.3639;0.7534;
-87.6000;0.3622;0.7558;
-87.3000;0.3639;0.7722;
-87.0000;0.3622;0.7675;
-86.7000;0.3647;0.7746;
-86.4000;0.3639;0.7675;
-86.1000;0.3671;0.7722;
-85.8000;0.3630;0.7652;
-85.5000;0.3704;0.7746;
-85.2000;0.3639;0.7605;
-84.9000;0.3647;0.7699;
-84.6000;0.3687;0.7675;
-84.3000;0.3671;0.7652;
-84.0000;0.3663;0.7652;
-83.7000;0.3704;0.7675;
-83.4000;0.3647;0.7605;
-83.1000;0.3630;0.7581;
-82.8000;0.3671;0.7746;
-82.5000;0.3655;0.7769;
-82.2000;0.3720;0.7933;
-81.9000;0.3655;0.7793;
-81.6000;0.3647;0.7746;
-81.3000;0.3671;0.7675;
-81.0000;0.3671;0.7558;
-80.7000;0.3663;0.7534;
-80.4000;0.3663;0.7581;
-80.1000;0.3687;0.7605;
-79.8000;0.3687;0.7652;
-79.5000;0.3687;0.7793;
-79.2000;0.3679;0.7722;
-78.9000;0.3704;0.7675;
-78.6000;0.3679;0.7581;
-78.3000;0.3679;0.7558;
-78.0000;0.3704;0.7488;
-77.7000;0.3687;0.7464;
-77.4000;0.3687;0.7558;
-77.1000;0.3687;0.7488;
-76.8000;0.3679;0.7488;
-76.5000;0.3720;0.7605;
-76.2000;0.3720;0.7558;
-75.9000;0.3696;0.7464;
-75.6000;0.3704;0.7323;
-75.3000;0.3712;0.7323;
-75.0000;0.3720;0.7370;
-74.7000;0.3712;0.7394;
-74.4000;0.3736;0.7534;
-74.1000;0.3720;0.7534;
-73.8000;0.3736;0.7558;
-73.5000;0.3720;0.7511;
-73.2000;0.3720;0.7488;
-72.9000;0.3736;0.7488;
-72.6000;0.3736;0.7605;
-72.3000;0.3736;0.7558;
-72.0000;0.3736;0.7464;
-71.7000;0.3736;0.7534;
-71.4000;0.3736;0.7511;
-71.1000;0.3753;0.7488;
-70.8000;0.3761;0.7511;
-70.5000;0.3753;0.7488;
-70.2000;0.3744;0.7511;
-69.9000;0.3810;0.7581;
-69.6000;0.3744;0.7464;
-69.3000;0.3753;0.7534;
-69.0000;0.3777;0.7534;
-68.7000;0.3785;0.7558;
-68.4000;0.3761;0.7488;
-68.1000;0.3769;0.7370;
-67.8000;0.3793;0.7394;
-67.5000;0.3785;0.7347;
-67.2000;0.3801;0.7417;
-66.9000;0.3769;0.7347;
-66.6000;0.3753;0.7253;
-66.3000;0.3785;0.7370;
-66.0000;0.3785;0.7488;
-65.7000;0.3777;0.7488;
-65.4000;0.3769;0.7464;
-65.1000;0.3777;0.7534;
-64.8000;0.3842;0.7628;
-64.5000;0.3777;0.7534;
-64.2000;0.3785;0.7628;
-63.9000;0.3801;0.7581;
-63.6000;0.3793;0.7511;
-63.3000;0.3793;0.7464;
-63.0000;0.3801;0.7394;
-62.7000;0.3810;0.7417;
-62.4000;0.3818;0.7370;
-62.1000;0.3793;0.7300;
-61.8000;0.3801;0.7276;
-61.5000;0.3793;0.7300;
-61.2000;0.3842;0.7347;
-60.9000;0.3801;0.7300;
-60.6000;0.3761;0.7229;
-60.3000;0.3810;0.7323;
-60.0000;0.3842;0.7441;
-59.7000;0.3826;0.7347;
-59.4000;0.3818;0.7253;
-59.1000;0.3842;0.7300;
-58.8000;0.3834;0.7394;
-58.5000;0.3818;0.7370;
-58.2000;0.3842;0.7417;
-57.9000;0.3834;0.7370;
-57.6000;0.3850;0.7417;
-57.3000;0.3850;0.7394;
-57.0000;0.3834;0.7370;
-56.7000;0.3834;0.7370;
-56.4000;0.3850;0.7394;
-56.1000;0.3834;0.7300;
-55.8000;0.3842;0.7253;
-55.5000;0.3858;0.7229;
-55.2000;0.3858;0.7206;
-54.9000;0.3850;0.7253;
-54.6000;0.3948;0.7534;
-54.3000;0.3842;0.7394;
-54.0000;0.3858;0.7534;
-53.7000;0.3875;0.7558;
-53.4000;0.3891;0.7511;
-53.1000;0.3891;0.7511;
-52.8000;0.3858;0.7441;
-52.5000;0.3891;0.7441;
-52.2000;0.3883;0.7464;
-51.9000;0.3875;0.7488;
-51.6000;0.3858;0.7488;
-51.3000;0.3818;0.7394;
-51.0000;0.3883;0.7488;
-50.7000;0.3899;0.7581;
-50.4000;0.3899;0.7558;
-50.1000;0.3858;0.7488;
-49.8000;0.3883;0.7464;
-49.5000;0.3899;0.7441;
-49.2000;0.3899;0.7370;
-48.9000;0.3923;0.7370;
-48.6000;0.3915;0.7323;
-48.3000;0.3899;0.7253;
-48.0000;0.3907;0.7253;
-47.7000;0.3907;0.7276;
-47.4000;0.3907;0.7276;
-47.1000;0.3932;0.7276;
-46.8000;0.3915;0.7229;
-46.5000;0.3891;0.7206;
-46.2000;0.3915;0.7182;
-45.9000;0.3923;0.7112;
-45.6000;0.3915;0.7065;
-45.3000;0.3923;0.7159;
-45.0000;0.3932;0.7135;
-44.7000;0.3980;0.7253;
-44.4000;0.3940;0.7182;
-44.1000;0.3932;0.7253;
-43.8000;0.3932;0.7300;
-43.5000;0.3907;0.7300;
-43.2000;0.3940;0.7394;
-42.9000;0.3867;0.7182;
-42.6000;0.3932;0.7323;
-42.3000;0.3940;0.7394;
-42.0000;0.3875;0.7229;
-41.7000;0.4054;0.7628;
-41.4000;0.3940;0.7370;
-41.1000;0.3956;0.7347;
-40.8000;0.3980;0.7370;
-40.5000;0.3956;0.7370;
-40.2000;0.3956;0.7323;
-39.9000;0.3989;0.7323;
-39.6000;0.3997;0.7347;
-39.3000;0.3972;0.7159;
-39.0000;0.3980;0.7206;
-38.7000;0.4021;0.7347;
-38.4000;0.3989;0.7276;
-38.1000;0.3972;0.7182;
-37.8000;0.3972;0.7182;
-37.5000;0.3964;0.7182;
-37.2000;0.3972;0.7182;
-36.9000;0.3989;0.7253;
-36.6000;0.3989;0.7206;
-36.3000;0.3980;0.7229;
-36.0000;0.4005;0.7300;
-35.7000;0.3997;0.7276;
-35.4000;0.3907;0.6971;
-35.1000;0.3997;0.7206;
-34.8000;0.4013;0.7347;
-34.5000;0.4021;0.7394;
-34.2000;0.4005;0.7276;
-33.9000;0.3997;0.7323;
-33.6000;0.4005;0.7253;
-33.3000;0.4005;0.7229;
-33.0000;0.4029;0.7347;
-32.7000;0.3997;0.7253;
-32.4000;0.4029;0.7347;
-32.1000;0.4029;0.7347;
-31.8000;0.4021;0.7323;
-31.5000;0.4037;0.7394;
-31.2000;0.4013;0.7347;
-30.9000;0.4037;0.7464;
-30.6000;0.4046;0.7394;
-30.3000;0.4037;0.7370;
-30.0000;0.4037;0.7300;
-29.7000;0.4046;0.7394;
-29.4000;0.4029;0.7347;
-29.1000;0.4054;0.7347;
-28.8000;0.4062;0.7300;
-28.5000;0.4046;0.7323;
-28.2000;0.4062;0.7441;
-27.9000;0.4054;0.7464;
-27.6000;0.4046;0.7464;
-27.3000;0.4046;0.7511;
-27.0000;0.4070;0.7488;
-26.7000;0.4070;0.7441;
-26.4000;0.4070;0.7488;
-26.1000;0.4078;0.7511;
-25.8000;0.4094;0.7558;
-25.5000;0.4062;0.7511;
-25.2000;0.4078;0.7558;
-24.9000;0.4070;0.7488;
-24.6000;0.4078;0.7464;
-24.3000;0.4094;0.7488;
-24.0000;0.4078;0.7441;
-23.7000;0.4062;0.7488;
-23.4000;0.4070;0.7558;
-23.1000;0.4086;0.7581;
-22.8000;0.4094;0.7605;
-22.5000;0.4094;0.7605;
-22.2000;0.4078;0.7534;
-21.9000;0.4094;0.7605;
-21.6000;0.4103;0.7605;
-21.3000;0.4111;0.7628;
-21.0000;0.4037;0.7441;
-20.7000;0.4127;0.7652;
-20.4000;0.4119;0.7605;
-20.1000;0.4127;0.7675;
-19.8000;0.4119;0.7652;
-19.5000;0.4127;0.7722;
-19.2000;0.4119;0.7699;
-18.9000;0.4111;0.7699;
-18.6000;0.4143;0.7675;
-18.3000;0.4135;0.7675;
-18.0000;0.4111;0.7581;
-17.7000;0.4127;0.7628;
-17.4000;0.4127;0.7628;
-17.1000;0.4103;0.7558;
-16.8000;0.4143;0.7675;
-16.5000;0.4135;0.7628;
-16.2000;0.4151;0.7558;
-15.9000;0.4176;0.7652;
-15.6000;0.4151;0.7581;
-15.3000;0.4160;0.7675;
-15.0000;0.4160;0.7769;
-14.7000;0.4151;0.7652;
-14.4000;0.4160;0.7652;
-14.1000;0.4176;0.7652;
-13.8000;0.4168;0.7628;
-13.5000;0.4168;0.7652;
-13.2000;0.4160;0.7581;
-12.9000;0.4119;0.7488;
-12.6000;0.4208;0.7746;
-12.3000;0.4192;0.7581;
-12.0000;0.4168;0.7464;
-11.7000;0.4233;0.7699;
-11.4000;0.4225;0.7675;
-11.1000;0.4176;0.7605;
-10.8000;0.4225;0.7722;
-10.5000;0.4184;0.7558;
-10.2000;0.4217;0.7628;
-9.9000;0.4200;0.7675;
-9.6000;0.4192;0.7699;
-9.3000;0.4160;0.7511;
-9.0000;0.4208;0.7605;
-8.7000;0.4184;0.7534;
-8.4000;0.4160;0.7441;
-8.1000;0.4265;0.7699;
-7.8000;0.4225;0.7628;
-7.5000;0.4225;0.7558;
-7.2000;0.4208;0.7581;
-6.9000;0.4200;0.7628;
-6.6000;0.4208;0.7675;
-6.3000;0.4208;0.7699;
-6.0000;0.4233;0.7746;
-5.7000;0.4233;0.7699;
-5.4000;0.4241;0.7652;
-5.1000;0.4217;0.7628;
-4.8000;0.4249;0.7628;
-4.5000;0.4233;0.7558;
-4.2000;0.4298;0.7605;
-3.9000;0.4257;0.7441;
-3.6000;0.4249;0.7394;
-3.3000;0.4241;0.7370;
-3.0000;0.4184;0.7276;
-2.7000;0.4249;0.7558;
-2.4000;0.4233;0.7605;
-2.1000;0.4249;0.7581;
-1.8000;0.4257;0.7605;
-1.5000;0.4257;0.7581;
-1.2000;0.4257;0.7488;
-0.9000;0.4249;0.7417;
-0.6000;0.4265;0.7464;
-0.3000;0.4274;0.7464;
0.0000;0.4274;0.7464;
0.3000;0.4428;0.7441;
0.6000;0.4648;0.7581;
0.9000;0.4868;0.7793;
1.2000;0.5047;0.7980;
1.5000;0.5144;0.8074;
1.8000;0.5250;0.8192;
2.1000;0.5299;0.8215;
2.4000;0.5381;0.8426;
2.7000;0.5446;0.8520;
3.0000;0.5454;0.8544;
3.3000;0.5511;0.8685;
3.6000;0.5560;0.8802;
3.9000;0.5592;0.8778;
4.2000;0.5608;0.8896;
4.5000;0.5617;0.8919;
4.8000;0.5625;0.8896;
5.1000;0.5812;0.9271;
5.4000;0.5665;0.8896;
5.7000;0.5674;0.8802;
6.0000;0.5739;0.8872;
6.3000;0.5706;0.8755;
6.6000;0.5739;0.8802;
6.9000;0.5665;0.8567;
7.2000;0.5763;0.8825;
7.5000;0.5747;0.8896;
7.8000;0.5788;0.9013;
8.1000;0.5779;0.8966;
8.4000;0.5755;0.8919;
8.7000;0.5788;0.8990;
9.0000;0.5812;0.9060;
9.3000;0.5812;0.9037;
9.6000;0.5828;0.9084;
9.9000;0.5853;0.9084;
10.2000;0.5853;0.9013;
10.5000;0.5869;0.8896;
10.8000;0.5893;0.8966;
11.1000;0.5885;0.8919;
11.4000;0.5845;0.8685;
11.7000;0.5877;0.8732;
12.0000;0.5885;0.8708;
12.3000;0.5885;0.8708;
12.6000;0.5910;0.8732;
12.9000;0.5926;0.8778;
13.2000;0.5926;0.8802;
13.5000;0.5885;0.8661;
13.8000;0.5902;0.8661;
14.1000;0.5950;0.8755;
14.4000;0.5942;0.8732;
14.7000;0.5926;0.8591;
15.0000;0.5991;0.8755;
15.3000;0.5975;0.8849;
15.6000;0.5975;0.8802;
15.9000;0.5999;0.8849;
16.2000;0.5999;0.8896;
16.5000;0.5991;0.8825;
16.8000;0.6007;0.8802;
17.1000;0.6032;0.8849;
17.4000;0.6007;0.8755;
17.7000;0.5975;0.8638;
18.0000;0.6015;0.8802;
18.3000;0.6024;0.8849;
18.6000;0.6048;0.8802;
18.9000;0.6040;0.8802;
19.2000;0.6048;0.8732;
19.5000;0.6056;0.8732;
19.8000;0.6056;0.8732;
20.1000;0.6064;0.8661;
20.4000;0.6056;0.8614;
20.7000;0.6064;0.8567;
21.0000;0.6032;0.8473;
21.3000;0.6097;0.8544;
21.6000;0.6178;0.8732;
21.9000;0.6081;0.8473;
22.2000;0.6064;0.8473;
22.5000;0.6097;0.8591;
22.8000;0.6154;0.8708;
23.1000;0.6097;0.8591;
23.4000;0.6105;0.8614;
23.7000;0.6097;0.8567;
24.0000;0.6105;0.8614;
24.3000;0.6097;0.8520;
24.6000;0.6113;0.8614;
24.9000;0.6146;0.8732;
25.2000;0.6121;0.8685;
25.5000;0.6129;0.8685;
25.8000;0.6178;0.8802;
26.1000;0.6129;0.8755;
26.4000;0.6146;0.8872;
26.7000;0.6129;0.8802;
27.0000;0.6129;0.8732;
27.3000;0.6129;0.8802;
27.6000;0.6138;0.8802;
27.9000;0.6162;0.8778;
28.2000;0.6178;0.8802;
28.5000;0.6162;0.8802;
28.8000;0.6170;0.8872;
29.1000;0.6170;0.8849;
29.4000;0.6064;0.8591;
29.7000;0.6170;0.8872;
30.0000;0.6162;0.8849;
30.3000;0.6178;0.8732;
30.6000;0.6170;0.8685;
30.9000;0.6162;0.8497;
31.2000;0.6186;0.8544;
31.5000;0.6170;0.8567;
31.8000;0.6178;0.8544;
32.1000;0.6138;0.8473;
32.4000;0.6170;0.8520;
32.7000;0.6195;0.8520;
33.0000;0.6186;0.8497;
33.3000;0.6203;0.8520;
33.6000;0.6203;0.8520;
33.9000;0.6211;0.8591;
34.2000;0.6203;0.8638;
34.5000;0.6203;0.8614;
34.8000;0.6211;0.8661;
35.1000;0.6211;0.8661;
35.4000;0.6178;0.8567;
35.7000;0.6146;0.8426;
36.0000;0.6252;0.8638;
36.3000;0.6211;0.8473;
36.6000;0.6195;0.8450;
36.9000;0.6203;0.8473;
37.2000;0.6203;0.8544;
37.5000;0.6178;0.8497;
37.8000;0.6284;0.8778;
38.1000;0.6203;0.8520;
38.4000;0.6211;0.8450;
38.7000;0.6243;0.8450;
39.0000;0.6211;0.8356;
39.3000;0.6235;0.8473;
39.6000;0.6235;0.8450;
39.9000;0.6235;0.8544;
40.2000;0.6243;0.8567;
40.5000;0.6268;0.8661;
40.8000;0.6235;0.8614;
41.1000;0.6219;0.8661;
41.4000;0.6243;0.8778;
41.7000;0.6284;0.8802;
42.0000;0.6235;0.8802;
42.3000;0.6227;0.8802;
42.6000;0.6195;0.8614;
42.9000;0.6243;0.8661;
43.2000;0.6235;0.8638;
43.5000;0.6252;0.8732;
43.8000;0.6235;0.8778;
44.1000;0.6235;0.8778;
44.4000;0.6243;0.8732;
44.7000;0.6211;0.8661;
45.0000;0.6243;0.8708;
45.3000;0.6276;0.8732;
45.6000;0.6252;0.8755;
45.9000;0.6260;0.8755;
46.2000;0.6260;0.8778;
46.5000;0.6309;0.8919;
46.8000;0.6252;0.8849;
47.1000;0.6252;0.8872;
47.4000;0.6268;0.8896;
47.7000;0.6243;0.8825;
48.0000;0.6252;0.8755;
48.3000;0.6252;0.8685;
48.6000;0.6211;0.8591;
48.9000;0.6284;0.8872;
49.2000;0.6276;0.8943;
49.5000;0.6309;0.8990;
49.8000;0.6276;0.8896;
50.1000;0.6276;0.8896;
50.4000;0.6268;0.8872;
50.7000;0.6227;0.8802;
51.0000;0.6260;0.8802;
51.3000;0.6260;0.8825;
51.6000;0.6276;0.8778;
51.9000;0.6268;0.8778;
52.2000;0.6260;0.8825;
52.5000;0.6276;0.8778;
52.8000;0.6276;0.8732;
53.1000;0.6227;0.8685;
53.4000;0.6268;0.8732;
53.7000;0.6268;0.8755;
54.0000;0.6292;0.8755;
54.3000;0.6284;0.8755;
54.6000;0.6292;0.8685;
54.9000;0.6268;0.8614;
55.2000;0.6276;0.8661;
55.5000;0.6284;0.8661;
55.8000;0.6284;0.8685;
56.1000;0.6268;0.8755;
56.4000;0.6292;0.8755;
56.7000;0.6284;0.8732;
57.0000;0.6276;0.8567;
57.3000;0.6284;0.8567;
57.6000;0.6333;0.8685;
57.9000;0.6284;0.8567;
58.2000;0.6284;0.8614;
58.5000;0.6292;0.8544;
58.8000;0.6292;0.8473;
59.1000;0.6300;0.8544;
59.4000;0.6309;0.8708;
59.7000;0.6317;0.8732;
60.0000;0.6365;0.8919;
60.3000;0.6300;0.8849;
60.6000;0.6268;0.8849;
60.9000;0.6309;0.8872;
61.2000;0.6300;0.8872;
61.5000;0.6292;0.8919;
61.8000;0.6300;0.8825;
62.1000;0.6309;0.8825;
62.4000;0.6309;0.8802;
62.7000;0.6284;0.8778;
63.0000;0.6292;0.8825;
63.3000;0.6292;0.8919;
63.6000;0.6309;0.8896;
63.9000;0.6203;0.8567;
64.2000;0.6309;0.8849;
64.5000;0.6365;0.8849;
64.8000;0.6276;0.8685;
65.1000;0.6284;0.8732;
65.4000;0.6309;0.8755;
65.7000;0.6325;0.8802;
66.0000;0.6300;0.8708;
66.3000;0.6292;0.8755;
66.6000;0.6325;0.8755;
66.9000;0.6325;0.8825;
67.2000;0.6325;0.8755;
67.5000;0.6317;0.8732;
67.8000;0.6317;0.8755;
68.1000;0.6333;0.8825;
68.4000;0.6317;0.8802;
68.7000;0.6325;0.8849;
69.0000;0.6309;0.8825;
69.3000;0.6333;0.8849;
69.6000;0.6317;0.8825;
69.9000;0.6333;0.8872;
70.2000;0.6349;0.8896;
70.5000;0.6325;0.8802;
70.8000;0.6309;0.8732;
71.1000;0.6325;0.8732;
71.4000;0.6365;0.8802;
71.7000;0.6317;0.8755;
72.0000;0.6333;0.8778;
72.3000;0.6325;0.8755;
72.6000;0.6325;0.8802;
72.9000;0.6341;0.8778;
73.2000;0.6300;0.8638;
73.5000;0.6325;0.8732;
73.8000;0.6341;0.8708;
74.1000;0.6317;0.8638;
74.4000;0.6333;0.8685;
74.7000;0.6341;0.8685;
75.0000;0.6325;0.8638;
75.3000;0.6325;0.8708;
75.6000;0.6333;0.8732;
75.9000;0.6341;0.8732;
76.2000;0.6333;0.8685;
76.5000;0.6325;0.8685;
76.8000;0.6317;0.8685;
77.1000;0.6349;0.8778;
77.4000;0.6333;0.8732;
77.7000;0.6349;0.8755;
78.0000;0.6292;0.8685;
78.3000;0.6333;0.8778;
78.6000;0.6325;0.8802;
78.9000;0.6325;0.8802;
79.2000;0.6317;0.8778;
79.5000;0.6341;0.8778;
79.8000;0.6341;0.8919;
80.1000;0.6333;0.8896;
80.4000;0.6309;0.8778;
80.7000;0.6333;0.8825;
81.0000;0.6333;0.8755;
81.3000;0.6357;0.8755;
81.6000;0.6341;0.8802;
81.9000;0.6341;0.8825;
82.2000;0.6349;0.8872;
82.5000;0.6349;0.8825;
82.8000;0.6341;0.8755;
83.1000;0.6333;0.8661;
83.4000;0.6333;0.8732;
83.7000;0.6357;0.8732;
84.0000;0.6390;0.8778;
84.3000;0.6341;0.8708;
84.6000;0.6357;0.8685;
84.9000;0.6357;0.8685;
85.2000;0.6349;0.8778;
85.5000;0.6349;0.8778;
85.8000;0.6349;0.8778;
86.1000;0.6349;0.8732;
86.4000;0.6349;0.8755;
86.7000;0.6317;0.8708;
87.0000;0.6341;0.8755;
87.3000;0.6357;0.8778;
87.6000;0.6341;0.8732;
87.9000;0.6341;0.8708;
88.2000;0.6357;0.8732;
88.5000;0.6317;0.8638;
88.8000;0.6268;0.8544;
89.1000;0.6349;0.8825;
89.4000;0.6341;0.8825;
89.7000;0.6357;0.8896;
90.0000;0.6365;0.8896;
90.3000;0.6357;0.8943;
90.6000;0.6374;0.8966;
90.9000;0.6365;0.8943;
91.2000;0.6365;0.8919;
91.5000;0.6341;0.8872;
91.8000;0.6357;0.8802;
92.1000;0.6365;0.8872;
92.4000;0.6357;0.8802;
92.7000;0.6325;0.8708;
93.0000;0.6317;0.8614;
93.3000;0.6365;0.8732;
93.6000;0.6374;0.8685;
93.9000;0.6300;0.8426;
94.2000;0.6349;0.8567;
94.5000;0.6390;0.8661;
94.8000;0.6349;0.8614;
95.1000;0.6406;0.8802;
95.4000;0.6341;0.8638;
95.7000;0.6365;0.8685;
96.0000;0.6365;0.8708;
96.3000;0.6374;0.8708;
96.6000;0.6325;0.8661;
96.9000;0.6341;0.8708;
97.2000;0.6349;0.8661;
97.5000;0.6382;0.8732;
97.8000;0.6357;0.8638;
98.1000;0.6431;0.8825;
98.4000;0.6374;0.8591;
98.7000;0.6374;0.8661;
99.0000;0.6398;0.8708;
99.3000;0.6374;0.8661;
99.6000;0.6365;0.8661;
99.9000;0.6382;0.8755;
100.2000;0.6357;0.8755;
100.5000;0.6365;0.8661;
100.8000;0.6357;0.8732;
101.1000;0.6365;0.8849;
101.4000;0.6365;0.8802;
101.7000;0.6349;0.8872;
102.0000;0.6309;0.8825;
102.3000;0.6374;0.8896;
102.6000;0.6382;0.8825;
102.9000;0.6357;0.8732;
103.2000;0.6365;0.8685;
103.5000;0.6390;0.8638;
103.8000;0.6365;0.8732;
104.1000;0.6365;0.8708;
104.4000;0.6325;0.8638;
104.7000;0.6365;0.8732;
105.0000;0.6365;0.8732;
105.3000;0.6365;0.8755;
105.6000;0.6333;0.8661;
105.9000;0.6365;0.8732;
106.2000;0.6374;0.8778;
106.5000;0.6357;0.8661;
106.8000;0.6317;0.8520;
107.1000;0.6374;0.8685;
107.4000;0.6382;0.8614;
107.7000;0.6374;0.8638;
108.0000;0.6349;0.8614;
108.3000;0.6365;0.8638;
108.6000;0.6357;0.8685;
108.9000;0.6374;0.8755;
109.2000;0.6365;0.8755;
109.5000;0.6374;0.8802;
109.8000;0.6374;0.8802;
110.1000;0.6374;0.8802;
110.4000;0.6349;0.8732;
110.7000;0.6357;0.8708;
111.0000;0.6365;0.8708;
111.3000;0.6382;0.8732;
111.6000;0.6365;0.8708;
111.9000;0.6390;0.8802;
112.2000;0.6333;0.8708;
112.5000;0.6390;0.8755;
112.8000;0.6382;0.8778;
113.1000;0.6365;0.8802;
113.4000;0.6365;0.8778;
113.7000;0.6300;0.8591;
114.0000;0.6382;0.8825;
114.3000;0.6374;0.8732;
114.6000;0.6382;0.8732;
114.9000;0.6447;0.8896;
115.2000;0.6374;0.8708;
115.5000;0.6357;0.8732;
115.8000;0.6349;0.8638;
116.1000;0.6390;0.8825;
116.4000;0.6365;0.8755;
116.7000;0.6374;0.8732;
117.0000;0.6374;0.8732;
117.3000;0.6374;0.8755;
117.6000;0.6365;0.8802;
117.9000;0.6374;0.8872;
118.2000;0.6365;0.8849;
118.5000;0.6382;0.8825;
118.8000;0.6382;0.8755;
119.1000;0.6390;0.8755;
119.4000;0.6365;0.8685;
119.7000;0.6390;0.8685;
120.0000;0.6390;0.8661;
120.3000;0.6333;0.8497;
120.6000;0.6390;0.8567;
120.9000;0.6365;0.8567;
121.2000;0.6390;0.8685;
121.5000;0.6382;0.8755;
121.8000;0.6398;0.8825;
122.1000;0.6390;0.8825;
122.4000;0.6382;0.8802;
122.7000;0.6374;0.8849;
123.0000;0.6374;0.8849;
123.3000;0.6390;0.8825;
123.6000;0.6398;0.8778;
123.9000;0.6406;0.8825;
124.2000;0.6406;0.8778;
124.5000;0.6398;0.8732;
124.8000;0.6398;0.8755;
125.1000;0.6463;0.8966;
125.4000;0.6374;0.8755;
125.7000;0.6398;0.8778;
126.0000;0.6398;0.8732;
126.3000;0.6406;0.8708;
126.6000;0.6398;0.8685;
126.9000;0.6398;0.8732;
127.2000;0.6390;0.8825;
127.5000;0.6341;0.8778;
127.8000;0.6398;0.8849;
128.1000;0.6398;0.8872;
128.4000;0.6398;0.8849;
128.7000;0.6398;0.8755;
129.0000;0.6374;0.8685;
129.3000;0.6390;0.8732;
129.6000;0.6398;0.8732;
129.9000;0.6374;0.8614;
130.2000;0.6382;0.8661;
130.5000;0.6406;0.8708;
130.8000;0.6357;0.8708;
131.1000;0.6382;0.8685;
131.4000;0.6406;0.8685;
131.7000;0.6390;0.8638;
132.0000;0.6398;0.8685;
132.3000;0.6406;0.8685;
132.6000;0.6390;0.8685;
132.9000;0.6390;0.8708;
133.2000;0.6398;0.8755;
133.5000;0.6382;0.8685;
133.8000;0.6398;0.8755;
134.1000;0.6390;0.8755;
134.4000;0.6341;0.8567;
134.7000;0.6398;0.8755;
135.0000;0.6406;0.8732;
135.3000;0.6422;0.8778;
135.6000;0.6349;0.8591;
135.9000;0.6398;0.8685;
136.2000;0.6431;0.8755;
136.5000;0.6406;0.8708;
136.8000;0.6406;0.8802;
137.1000;0.6439;0.8990;
137.4000;0.6398;0.9013;
137.7000;0.6333;0.8872;
138.0000;0.6414;0.9060;
138.3000;0.6398;0.8966;
138.6000;0.6398;0.8943;
138.9000;0.6406;0.8943;
139.2000;0.6382;0.8825;
139.5000;0.6414;0.8849;
139.8000;0.6390;0.8802;
140.1000;0.6406;0.8872;
140.4000;0.6414;0.8802;
140.7000;0.6414;0.8802;
141.0000;0.6398;0.8732;
141.3000;0.6398;0.8802;
141.6000;0.6382;0.8755;
141.9000;0.6406;0.8755;
142.2000;0.6374;0.8732;
142.5000;0.6309;0.8544;
142.8000;0.6406;0.8708;
143.1000;0.6455;0.8778;
143.4000;0.6398;0.8638;
143.7000;0.6398;0.8567;
144.0000;0.6406;0.8732;
144.3000;0.6479;0.8849;
144.6000;0.6414;0.8614;
144.9000;0.6398;0.8567;
145.2000;0.6414;0.8567;
145.5000;0.6422;0.8567;
145.8000;0.6422;0.8685;
146.1000;0.6398;0.8708;
146.4000;0.6398;0.8708;
146.7000;0.6422;0.8778;
147.0000;0.6422;0.8825;
147.3000;0.6414;0.8778;
147.6000;0.6431;0.8802;
147.9000;0.6422;0.8708;
148.2000;0.6431;0.8638;
148.5000;0.6390;0.8544;
148.8000;0.6398;0.8661;
149.1000;0.6414;0.8755;
149.4000;0.6406;0.8708;
149.7000;0.6406;0.8685;
150.0000;0.6390;0.8661;
150.3000;0.6406;0.8614;
150.6000;0.6422;0.8567;
150.9000;0.6406;0.8497;
151.2000;0.6414;0.8497;
151.5000;0.6431;0.8638;
151.8000;0.6414;0.8591;
152.1000;0.6422;0.8614;
152.4000;0.6422;0.8567;
152.7000;0.6414;0.8520;
153.0000;0.6406;0.8567;
153.3000;0.6431;0.8685;
153.6000;0.6422;0.8685;
153.9000;0.6422;0.8661;
154.2000;0.6431;0.8755;
154.5000;0.6406;0.8755;
154.8000;0.6406;0.8778;
155.1000;0.6398;0.8732;
155.4000;0.6300;0.8473;
155.7000;0.6422;0.8708;
156.0000;0.6406;0.8732;
156.3000;0.6382;0.8685;
156.6000;0.6414;0.8755;
156.9000;0.6398;0.8778;
157.2000;0.6406;0.8802;
157.5000;0.6422;0.8802;
157.8000;0.6414;0.8685;
158.1000;0.6414;0.8732;
158.4000;0.6406;0.8661;
158.7000;0.6406;0.8638;
159.0000;0.6439;0.8638;
159.3000;0.6431;0.8638;
159.6000;0.6455;0.8661;
159.9000;0.6422;0.8638;
160.2000;0.6422;0.8614;
160.5000;0.6406;0.8567;
160.8000;0.6431;0.8638;
161.1000;0.6431;0.8661;
161.4000;0.6414;0.8661;
161.7000;0.6431;0.8638;
162.0000;0.6414;0.8567;
162.3000;0.6414;0.8473;
162.6000;0.6414;0.8473;
162.9000;0.6414;0.8426;
163.2000;0.6471;0.8638;
163.5000;0.6406;0.8497;
163.8000;0.6422;0.8520;
164.1000;0.6431;0.8520;
164.4000;0.6414;0.8473;
164.7000;0.6414;0.8497;
165.0000;0.6414;0.8450;
165.3000;0.6422;0.8450;
165.6000;0.6422;0.8450;
165.9000;0.6422;0.8450;
166.2000;0.6398;0.8403;
166.5000;0.6382;0.8286;
166.8000;0.6431;0.8403;
167.1000;0.6422;0.8497;
167.4000;0.6422;0.8497;
167.7000;0.6398;0.8450;
168.0000;0.6431;0.8450;
168.3000;0.6431;0.8450;
168.6000;0.6414;0.8497;
168.9000;0.6406;0.8544;
169.2000;0.6414;0.8544;
169.5000;0.6422;0.8614;
169.8000;0.6422;0.8591;
170.1000;0.6414;0.8544;
170.4000;0.6406;0.8473;
170.7000;0.6414;0.8450;
171.0000;0.6431;0.8473;
171.3000;0.6414;0.8473;
171.6000;0.6414;0.8473;
171.9000;0.6422;0.8473;
172.2000;0.6422;0.8473;
172.5000;0.6439;0.8426;
172.8000;0.6414;0.8262;
173.1000;0.6422;0.8309;
173.4000;0.6431;0.8286;
173.7000;0.6414;0.8332;
174.0000;0.6422;0.8379;
174.3000;0.6422;0.8309;
174.6000;0.6431;0.8426;
174.9000;0.6414;0.8403;
175.2000;0.6406;0.8379;
175.5000;0.6422;0.8426;
175.8000;0.6422;0.8473;
176.1000;0.6414;0.8497;
176.4000;0.6431;0.8450;
176.7000;0.6406;0.8403;
177.0000;0.6414;0.8379;
177.3000;0.6431;0.8379;
177.6000;0.6431;0.8450;
177.9000;0.6439;0.8497;
178.2000;0.6414;0.8426;
178.5000;0.6455;0.8544;
178.8000;0.6439;0.8497;
179.1000;0.6422;0.8379;
179.4000;0.6455;0.8403;
179.7000;0.6479;0.8426;
180.0000;0.6414;0.8286;
180.3000;0.6365;0.8215;
180.6000;0.6422;0.8403;
180.9000;0.6422;0.8520;
181.2000;0.6422;0.8520;
181.5000;0.6422;0.8567;
181.8000;0.6422;0.8520;
182.1000;0.6414;0.8520;
182.4000;0.6431;0.8638;
182.7000;0.6406;0.8638;
183.0000;0.6447;0.8755;
183.3000;0.6422;0.8708;
183.6000;0.6431;0.8685;
183.9000;0.6414;0.8708;
184.2000;0.6422;0.8732;
184.5000;0.6422;0.8708;
184.8000;0.6422;0.8591;
185.1000;0.6431;0.8567;
185.4000;0.6431;0.8614;
185.7000;0.6488;0.8685;
186.0000;0.6431;0.8520;
186.3000;0.6422;0.8473;
186.6000;0.6431;0.8591;
186.9000;0.6431;0.8638;
187.2000;0.6431;0.8661;
187.5000;0.6431;0.8708;
187.8000;0.6422;0.8661;
188.1000;0.6422;0.8614;
188.4000;0.6422;0.8567;
188.7000;0.6439;0.8614;
189.0000;0.6414;0.8638;
189.3000;0.6471;0.8732;
189.6000;0.6422;0.8661;
189.9000;0.6431;0.8685;
190.2000;0.6431;0.8661;
190.5000;0.6414;0.8591;
190.8000;0.6431;0.8567;
191.1000;0.6431;0.8591;
191.4000;0.6422;0.8567;
191.7000;0.6422;0.8591;
192.0000;0.6422;0.8544;
192.3000;0.6439;0.8497;
192.6000;0.6431;0.8356;
192.9000;0.6422;0.8426;
193.2000;0.6439;0.8403;
193.5000;0.6398;0.8332;
193.8000;0.6447;0.8426;
194.1000;0.6488;0.8497;
194.4000;0.6447;0.8356;
194.7000;0.6439;0.8356;
195.0000;0.6349;0.8262;
195.3000;0.6422;0.8473;
195.6000;0.6406;0.8403;
195.9000;0.6439;0.8473;
196.2000;0.6447;0.8450;
196.5000;0.6422;0.8497;
196.8000;0.6382;0.8379;
197.1000;0.6414;0.8520;
197.4000;0.6431;0.8638;
197.7000;0.6455;0.8638;
198.0000;0.6414;0.8544;
198.3000;0.6431;0.8520;
198.6000;0.6439;0.8520;
198.9000;0.6439;0.8591;
199.2000;0.6431;0.8473;
199.5000;0.6447;0.8520;
199.8000;0.6545;0.8825;
200.1000;0.6414;0.8567;
200.4000;0.6439;0.8567;
200.7000;0.6431;0.8450;
201.0000;0.6439;0.8544;
201.3000;0.6431;0.8520;
201.6000;0.6471;0.8591;
201.9000;0.6414;0.8497;
202.2000;0.6422;0.8426;
202.5000;0.6414;0.8379;
202.8000;0.6431;0.8356;
203.1000;0.6431;0.8403;
203.4000;0.6479;0.8591;
203.7000;0.6455;0.8544;
204.0000;0.6447;0.8614;
204.3000;0.6447;0.8567;
204.6000;0.6447;0.8520;
204.9000;0.6447;0.8544;
205.2000;0.6455;0.8544;
205.5000;0.6447;0.8497;
205.8000;0.6439;0.8473;
206.1000;0.6431;0.8426;
206.4000;0.6447;0.8450;
206.7000;0.6398;0.8379;
207.0000;0.6471;0.8473;
207.3000;0.6439;0.8379;
207.6000;0.6447;0.8450;
207.9000;0.6447;0.8426;
208.2000;0.6439;0.8403;
208.5000;0.6439;0.8614;
208.8000;0.6455;0.8661;
209.1000;0.6447;0.8614;
209.4000;0.6439;0.8567;
209.7000;0.6439;0.8497;
210.0000;0.6447;0.8567;
210.3000;0.6447;0.8614;
210.6000;0.6447;0.8567;
210.9000;0.6431;0.8638;
211.2000;0.6455;0.8567;
211.5000;0.6422;0.8567;
211.8000;0.6455;0.8708;
212.1000;0.6398;0.8591;
212.4000;0.6455;0.8685;
212.7000;0.6414;0.8544;
213.0000;0.6431;0.8661;
213.3000;0.6439;0.8685;
213.6000;0.6422;0.8638;
213.9000;0.6447;0.8732;
214.2000;0.6463;0.8732;
214.5000;0.6439;0.8591;
214.8000;0.6463;0.8567;
215.1000;0.6455;0.8497;
215.4000;0.6439;0.8450;
215.7000;0.6439;0.8497;
216.0000;0.6431;0.8497;
216.3000;0.6455;0.8520;
216.6000;0.6455;0.8473;
216.9000;0.6447;0.8497;
217.2000;0.6479;0.8520;
217.5000;0.6471;0.8426;
217.8000;0.6463;0.8497;
218.1000;0.6447;0.8450;
218.4000;0.6463;0.8450;
218.7000;0.6463;0.8403;
219.0000;0.6463;0.8473;
219.3000;0.6447;0.8497;
219.6000;0.6463;0.8567;
219.9000;0.6455;0.8544;
220.2000;0.6439;0.8473;
220.5000;0.6479;0.8567;
220.8000;0.6439;0.8473;
221.1000;0.6431;0.8520;
221.4000;0.6439;0.8520;
221.7000;0.6455;0.8567;
222.0000;0.6455;0.8520;
222.3000;0.6447;0.8450;
222.6000;0.6431;0.8473;
222.9000;0.6455;0.8591;
223.2000;0.6447;0.8614;
223.5000;0.6422;0.8544;
223.8000;0.6406;0.8450;
224.1000;0.6463;0.8544;
224.4000;0.6447;0.8473;
224.7000;0.6447;0.8473;
225.0000;0.6439;0.8520;
225.3000;0.6447;0.8520;
225.6000;0.6431;0.8520;
225.9000;0.6447;0.8497;
226.2000;0.6447;0.8450;
226.5000;0.6455;0.8403;
226.8000;0.6455;0.8356;
227.1000;0.6455;0.8379;
227.4000;0.6439;0.8286;
227.7000;0.6455;0.8309;
228.0000;0.6447;0.8379;
228.3000;0.6455;0.8426;
228.6000;0.6406;0.8239;
228.9000;0.6455;0.8309;
229.2000;0.6488;0.8262;
229.5000;0.6471;0.8332;
229.8000;0.6455;0.8215;
230.1000;0.6463;0.8286;
230.4000;0.6471;0.8262;
230.7000;0.6463;0.8239;
231.0000;0.6439;0.8215;
231.3000;0.6447;0.8239;
231.6000;0.6455;0.8239;
231.9000;0.6455;0.8286;
232.2000;0.6439;0.8286;
232.5000;0.6455;0.8332;
232.8000;0.6447;0.8262;
233.1000;0.6455;0.8262;
233.4000;0.6414;0.8192;
233.7000;0.6439;0.8332;
234.0000;0.6439;0.8379;
234.3000;0.6504;0.8450;
234.6000;0.6414;0.8356;
234.9000;0.6439;0.8520;
235.2000;0.6357;0.8309;
235.5000;0.6439;0.8426;
235.8000;0.6447;0.8356;
236.1000;0.6374;0.8239;
236.4000;0.6479;0.8403;
236.7000;0.6447;0.8309;
237.0000;0.6357;0.8074;
237.3000;0.6357;0.8121;
237.6000;0.6439;0.8309;
237.9000;0.6455;0.8239;
238.2000;0.6414;0.8215;
238.5000;0.6374;0.8074;
238.8000;0.6455;0.8332;
239.1000;0.6431;0.8286;
239.4000;0.6439;0.8286;
239.7000;0.6447;0.8332;
240.0000;0.6447;0.8356;
240.3000;0.6455;0.8332;
240.6000;0.6431;0.8286;
240.9000;0.6463;0.8403;
241.2000;0.6357;0.8098;
241.5000;0.6439;0.8356;
241.8000;0.6447;0.8379;
242.1000;0.6463;0.8473;
242.4000;0.6439;0.8403;
242.7000;0.6471;0.8520;
243.0000;0.6414;0.8403;
243.3000;0.6455;0.8450;
243.6000;0.6447;0.8332;
243.9000;0.6488;0.8309;
244.2000;0.6463;0.8192;
244.5000;0.6496;0.8309;
244.8000;0.6455;0.8192;
245.1000;0.6447;0.8192;
245.4000;0.6447;0.8192;
245.7000;0.6439;0.8168;
246.0000;0.6447;0.8168;
246.3000;0.6455;0.8121;
246.6000;0.6471;0.8098;
246.9000;0.6439;0.8027;
247.2000;0.6447;0.7980;
247.5000;0.6455;0.8027;
247.8000;0.6455;0.8121;
248.1000;0.6447;0.8145;
248.4000;0.6455;0.8168;
248.7000;0.6439;0.8215;
249.0000;0.6447;0.8192;
249.3000;0.6447;0.8192;
249.6000;0.6447;0.8192;
249.9000;0.6455;0.8168;
250.2000;0.6431;0.8121;
250.5000;0.6422;0.8145;
250.8000;0.6447;0.8215;
251.1000;0.6463;0.8309;
251.4000;0.6447;0.8262;
251.7000;0.6553;0.8450;
252.0000;0.6455;0.8215;
252.3000;0.6406;0.8098;
252.6000;0.6512;0.8379;
252.9000;0.6455;0.8379;
253.2000;0.6463;0.8426;
253.5000;0.6455;0.8450;
253.8000;0.6463;0.8450;
254.1000;0.6447;0.8286;
254.4000;0.6455;0.8215;
254.7000;0.6455;0.8168;
255.0000;0.6447;0.8121;
255.3000;0.6414;0.8027;
255.6000;0.6479;0.8239;
255.9000;0.6455;0.8215;
256.2000;0.6439;0.8262;
256.5000;0.6447;0.8262;
256.8000;0.6479;0.8309;
257.1000;0.6463;0.8286;
257.4000;0.6447;0.8286;
257.7000;0.6439;0.8309;
258.0000;0.6463;0.8262;
258.3000;0.6528;0.8497;
258.6000;0.6463;0.8262;
258.9000;0.6447;0.8215;
259.2000;0.6447;0.8239;
259.5000;0.6471;0.8215;
259.8000;0.6488;0.8286;
260.1000;0.6447;0.8192;
260.4000;0.6488;0.8309;
260.7000;0.6447;0.8286;
261.0000;0.6463;0.8379;
261.3000;0.6463;0.8379;
261.6000;0.6463;0.8403;
261.9000;0.6463;0.8520;
262.2000;0.6528;0.8661;
262.5000;0.6463;0.8567;
262.8000;0.6455;0.8497;
263.1000;0.6463;0.8497;
263.4000;0.6479;0.8473;
263.7000;0.6463;0.8403;
264.0000;0.6488;0.8379;
264.3000;0.6471;0.8356;
264.6000;0.6471;0.8356;
264.9000;0.6463;0.8379;
265.2000;0.6455;0.8379;
265.5000;0.6504;0.8520;
265.8000;0.6455;0.8403;
266.1000;0.6447;0.8497;
266.4000;0.6471;0.8544;
266.7000;0.6455;0.8403;
267.0000;0.6471;0.8379;
267.3000;0.6455;0.8309;
267.6000;0.6479;0.8332;
267.9000;0.6455;0.8356;
268.2000;0.6455;0.8426;
268.5000;0.6488;0.8426;
268.8000;0.6463;0.8379;
269.1000;0.6455;0.8379;
269.4000;0.6431;0.8356;
269.7000;0.6479;0.8450;
270.0000;0.6463;0.8356;
270.3000;0.6455;0.8426;
270.6000;0.6431;0.8309;
270.9000;0.6471;0.8332;
271.2000;0.6463;0.8332;
271.5000;0.6463;0.8356;
271.8000;0.6455;0.8356;
272.1000;0.6471;0.8356;
272.4000;0.6471;0.8356;
272.7000;0.6463;0.8286;
273.0000;0.6455;0.8168;
273.3000;0.6479;0.8168;
273.6000;0.6528;0.8332;
273.9000;0.6455;0.8262;
274.2000;0.6463;0.8286;
274.5000;0.6528;0.8450;
274.8000;0.6463;0.8262;
275.1000;0.6463;0.8286;
275.4000;0.6455;0.8262;
275.7000;0.6496;0.8356;
276.0000;0.6471;0.8403;
276.3000;0.6463;0.8426;
276.6000;0.6455;0.8309;
276.9000;0.6455;0.8286;
277.2000;0.6455;0.8309;
277.5000;0.6422;0.8215;
277.8000;0.6455;0.8262;
278.1000;0.6471;0.8309;
278.4000;0.6488;0.8262;
278.7000;0.6536;0.8450;
279.0000;0.6471;0.8309;
279.3000;0.6479;0.8262;
279.6000;0.6463;0.8215;
279.9000;0.6431;0.8145;
280.2000;0.6455;0.8239;
280.5000;0.6463;0.8215;
280.8000;0.6447;0.8098;
281.1000;0.6471;0.8192;
281.4000;0.6496;0.8262;
281.7000;0.6463;0.8145;
282.0000;0.6463;0.8168;
282.3000;0.6455;0.8215;
282.6000;0.6471;0.8332;
282.9000;0.6463;0.8332;
283.2000;0.6455;0.8262;
283.5000;0.6471;0.8332;
283.8000;0.6471;0.8262;
284.1000;0.6463;0.8286;
284.4000;0.6455;0.8309;
284.7000;0.6463;0.8262;
285.0000;0.6431;0.8215;
285.3000;0.6455;0.8239;
285.6000;0.6447;0.8192;
285.9000;0.6455;0.8168;
286.2000;0.6455;0.8145;
286.5000;0.6439;0.8098;
286.8000;0.6455;0.8074;
287.1000;0.6447;0.8098;
287.4000;0.6471;0.8192;
287.7000;0.6471;0.8286;
288.0000;0.6455;0.8356;
288.3000;0.6447;0.8286;
288.6000;0.6479;0.8309;
288.9000;0.6471;0.8426;
289.2000;0.6471;0.8497;
289.5000;0.6447;0.8473;
289.8000;0.6479;0.8450;
290.1000;0.6463;0.8450;
290.4000;0.6455;0.8403;
290.7000;0.6455;0.8356;
291.0000;0.6471;0.8356;
291.3000;0.6463;0.8332;
291.6000;0.6471;0.8356;
291.9000;0.6455;0.8239;
292.2000;0.6463;0.8309;
292.5000;0.6447;0.8286;
292.8000;0.6479;0.8426;
293.1000;0.6471;0.8473;
293.4000;0.6439;0.8332;
293.7000;0.6479;0.8403;
294.0000;0.6471;0.8356;
294.3000;0.6479;0.8379;
294.6000;0.6439;0.8262;
294.9000;0.6471;0.8332;
295.2000;0.6439;0.8262;
295.5000;0.6447;0.8262;
295.8000;0.6439;0.8168;
296.1000;0.6447;0.8192;
296.4000;0.6463;0.8192;
296.7000;0.6463;0.8121;
297.0000;0.6455;0.8145;
297.3000;0.6455;0.8192;
297.6000;0.6455;0.8192;
297.9000;0.6479;0.8168;
298.2000;0.6422;0.8004;
298.5000;0.6455;0.8121;
298.8000;0.6471;0.8192;
299.1000;0.6471;0.8239;
299.4000;0.6431;0.8121;
299.7000;0.6365;0.8004;
300.0000;0.6455;0.8215;
300.3000;0.6479;0.8239;
300.6000;0.6479;0.8262;
300.9000;0.6471;0.8262;
301.2000;0.6504;0.8379;
301.5000;0.6520;0.8473;
301.8000;0.6463;0.8286;
302.1000;0.6471;0.8262;
302.4000;0.6479;0.8356;
302.7000;0.6463;0.8309;
303.0000;0.6447;0.8192;
303.3000;0.6496;0.8239;
303.6000;0.6463;0.8168;
303.9000;0.6471;0.8286;
304.2000;0.6471;0.8286;
304.5000;0.6479;0.8286;
304.8000;0.6463;0.8215;
305.1000;0.6471;0.8215;
305.4000;0.6479;0.8286;
305.7000;0.6463;0.8286;
306.0000;0.6496;0.8332;
306.3000;0.6479;0.8356;
306.6000;0.6479;0.8286;
306.9000;0.6455;0.8145;
307.2000;0.6463;0.8215;
307.5000;0.6463;0.8192;
307.8000;0.6471;0.8145;
308.1000;0.6398;0.8027;
308.4000;0.6349;0.7840;
308.7000;0.6479;0.8168;
309.0000;0.6479;0.8168;
309.3000;0.6455;0.8168;
309.6000;0.6447;0.8168;
309.9000;0.6471;0.8192;
310.2000;0.6471;0.8145;
310.5000;0.6479;0.8192;
310.8000;0.6455;0.8192;
311.1000;0.6463;0.8192;
311.4000;0.6471;0.8215;
311.7000;0.6471;0.8168;
312.0000;0.6504;0.8262;
312.3000;0.6471;0.8192;
312.6000;0.6479;0.8239;
312.9000;0.6488;0.8262;
313.2000;0.6471;0.8215;
313.5000;0.6488;0.8286;
313.8000;0.6479;0.8215;
314.1000;0.6463;0.8215;
314.4000;0.6463;0.8168;
314.7000;0.6455;0.8168;
315.0000;0.6471;0.8192;
315.3000;0.6488;0.8286;
315.6000;0.6471;0.8332;
315.9000;0.6455;0.8332;
316.2000;0.6471;0.8379;
316.5000;0.6439;0.8309;
316.8000;0.6463;0.8286;
317.1000;0.6463;0.8309;
317.4000;0.6455;0.8403;
317.7000;0.6471;0.8379;
318.0000;0.6479;0.8403;
318.3000;0.6471;0.8450;
318.6000;0.6520;0.8614;
318.9000;0.6463;0.8450;
319.2000;0.6471;0.8473;
319.5000;0.6479;0.8450;
319.8000;0.6463;0.8450;
320.1000;0.6463;0.8450;
320.4000;0.6496;0.8544;
320.7000;0.6471;0.8497;
321.0000;0.6471;0.8497;
321.3000;0.6471;0.8473;
321.6000;0.6463;0.8379;
321.9000;0.6471;0.8403;
322.2000;0.6471;0.8450;
322.5000;0.6479;0.8473;
322.8000;0.6479;0.8403;
323.1000;0.6488;0.8450;
323.4000;0.6471;0.8403;
323.7000;0.6471;0.8426;
324.0000;0.6488;0.8403;
324.3000;0.6504;0.8403;
324.6000;0.6479;0.8356;
324.9000;0.6471;0.8286;
325.2000;0.6545;0.8450;
325.5000;0.6471;0.8286;
325.8000;0.6496;0.8262;
326.1000;0.6471;0.8262;
326.4000;0.6463;0.8262;
326.7000;0.6471;0.8239;
327.0000;0.6463;0.8215;
327.3000;0.6471;0.8192;
327.6000;0.6471;0.8262;
327.9000;0.6463;0.8262;
328.2000;0.6496;0.8332;
328.5000;0.6512;0.8356;
328.8000;0.6479;0.8309;
329.1000;0.6471;0.8332;
329.4000;0.6479;0.8356;
329.7000;0.6471;0.8356;
330.0000;0.6471;0.8332;
330.3000;0.6447;0.8239;
330.6000;0.6471;0.8286;
330.9000;0.6455;0.8286;
331.2000;0.6398;0.8121;
331.5000;0.6463;0.8239;
331.8000;0.6488;0.8309;
332.1000;0.6520;0.8497;
332.4000;0.6545;0.8379;
332.7000;0.6471;0.8239;
333.0000;0.6504;0.8332;
333.3000;0.6512;0.8450;
333.6000;0.6463;0.8356;
333.9000;0.6471;0.8309;
334.2000;0.6479;0.8309;
334.5000;0.6488;0.8332;
334.8000;0.6479;0.8379;
335.1000;0.6471;0.8473;
335.4000;0.6463;0.8450;
335.7000;0.6455;0.8450;
336.0000;0.6479;0.8426;
336.3000;0.6471;0.8379;
336.6000;0.6471;0.8356;
336.9000;0.6479;0.8497;
337.2000;0.6479;0.8426;
337.5000;0.6496;0.8379;
337.8000;0.6463;0.8262;
338.1000;0.6422;0.8215;
338.4000;0.6471;0.8332;
338.7000;0.6447;0.8262;
339.0000;0.6455;0.8332;
339.3000;0.6479;0.8473;
339.6000;0.6488;0.8544;
339.9000;0.6496;0.8426;
340.2000;0.6471;0.8332;
340.5000;0.6471;0.8356;
340.8000;0.6488;0.8426;
341.1000;0.6479;0.8450;
341.4000;0.6406;0.8239;
341.7000;0.6463;0.8356;
342.0000;0.6496;0.8426;
342.3000;0.6504;0.8379;
342.6000;0.6496;0.8379;
342.9000;0.6479;0.8332;
343.2000;0.6504;0.8379;
343.5000;0.6496;0.8379;
343.8000;0.6439;0.8215;
344.1000;0.6455;0.8192;
344.4000;0.6479;0.8192;
344.7000;0.6463;0.8192;
345.0000;0.6528;0.8379;
345.3000;0.6488;0.8215;
345.6000;0.6471;0.8239;
345.9000;0.6488;0.8239;
346.2000;0.6431;0.8121;
346.5000;0.6431;0.8168;
346.8000;0.6496;0.8356;
347.1000;0.6471;0.8309;
347.4000;0.6520;0.8450;
347.7000;0.6471;0.8332;
348.0000;0.6463;0.8356;
348.3000;0.6455;0.8309;
348.6000;0.6479;0.8309;
348.9000;0.6479;0.8332;
349.2000;0.6528;0.8473;
349.5000;0.6471;0.8356;
349.8000;0.6447;0.8332;
350.1000;0.6463;0.8332;
350.4000;0.6463;0.8356;
350.7000;0.6479;0.8403;
351.0000;0.6496;0.8450;
351.3000;0.6463;0.8332;
351.6000;0.6463;0.8332;
351.9000;0.6488;0.8403;
352.2000;0.6496;0.8520;
352.5000;0.6520;0.8614;
352.8000;0.6471;0.8497;
353.1000;0.6463;0.8403;
353.4000;0.6471;0.8426;
353.7000;0.6471;0.8473;
354.0000;0.6463;0.8473;
354.3000;0.6528;0.8661;
354.6000;0.6488;0.8591;
354.9000;0.6471;0.8638;
355.2000;0.6439;0.8497;
355.5000;0.6455;0.8497;
355.8000;0.6488;0.8426;
356.1000;0.6545;0.8544;
356.4000;0.6488;0.8379;
356.7000;0.6479;0.8403;
357.0000;0.6463;0.8379;
357.3000;0.6447;0.8379;
357.6000;0.6496;0.8379;
357.9000;0.6471;0.8356;
358.2000;0.6504;0.8379;
358.5000;0.6488;0.8332;
358.8000;0.6488;0.8332;
359.1000;0.6471;0.8309;
359.4000;0.6471;0.8403;
359.7000;0.6479;0.8544;
360.0000;0.6447;0.8450;
360.3000;0.6479;0.8403;
360.6000;0.6488;0.8379;
360.9000;0.6471;0.8356;
361.2000;0.6488;0.8379;
361.5000;0.6463;0.8309;
361.8000;0.6488;0.8309;
362.1000;0.6439;0.8168;
362.4000;0.6488;0.8239;
362.7000;0.6496;0.8262;
363.0000;0.6479;0.8286;
363.3000;0.6512;0.8309;
363.6000;0.6382;0.8051;
363.9000;0.6488;0.8239;
364.2000;0.6488;0.8262;
364.5000;0.6447;0.8192;
364.8000;0.6488;0.8262;
365.1000;0.6471;0.8192;
365.4000;0.6488;0.8098;
365.7000;0.6488;0.8145;
366.0000;0.6479;0.8192;
366.3000;0.6504;0.8262;
366.6000;0.6471;0.8239;
366.9000;0.6488;0.8286;
367.2000;0.6536;0.8379;
367.5000;0.6455;0.8286;
367.8000;0.6488;0.8286;
368.1000;0.6553;0.8567;
368.4000;0.6471;0.8473;
368.7000;0.6488;0.8544;
369.0000;0.6496;0.8544;
369.3000;0.6471;0.8473;
369.6000;0.6422;0.8356;
369.9000;0.6471;0.8450;
370.2000;0.6463;0.8403;
370.5000;0.6536;0.8614;
370.8000;0.6471;0.8450;
371.1000;0.6471;0.8497;
371.4000;0.6488;0.8520;
371.7000;0.6479;0.8473;
372.0000;0.6504;0.8544;
372.3000;0.6479;0.8544;
372.6000;0.6488;0.8567;
372.9000;0.6488;0.8591;
373.2000;0.6455;0.8473;
373.5000;0.6488;0.8426;
373.8000;0.6479;0.8332;
374.1000;0.6471;0.8332;
374.4000;0.6479;0.8426;
374.7000;0.6471;0.8426;
375.0000;0.6479;0.8473;
375.3000;0.6479;0.8450;
375.6000;0.6471;0.8473;
375.9000;0.6471;0.8473;
376.2000;0.6471;0.8544;
376.5000;0.6479;0.8544;
376.8000;0.6463;0.8497;
377.1000;0.6382;0.8403;
377.4000;0.6479;0.8638;
377.7000;0.6488;0.8638;
378.0000;0.6455;0.8591;
378.3000;0.6512;0.8638;
378.6000;0.6463;0.8567;
378.9000;0.6496;0.8661;
379.2000;0.6488;0.8638;
379.5000;0.6488;0.8614;
379.8000;0.6479;0.8638;
380.1000;0.6488;0.8732;
380.4000;0.6479;0.8661;
380.7000;0.6479;0.8708;
381.0000;0.6471;0.8638;
381.3000;0.6463;0.8567;
381.6000;0.6479;0.8544;
381.9000;0.6471;0.8567;
382.2000;0.6488;0.8497;
382.5000;0.6496;0.8473;
382.8000;0.6496;0.8473;
383.1000;0.6479;0.8473;
383.4000;0.6463;0.8497;
383.7000;0.6488;0.8520;
384.0000;0.6496;0.8473;
384.3000;0.6471;0.8403;
384.6000;0.6504;0.8497;
384.9000;0.6471;0.8403;
385.2000;0.6479;0.8450;
385.5000;0.6471;0.8497;
385.8000;0.6479;0.8567;
386.1000;0.6455;0.8473;
386.4000;0.6479;0.8567;
386.7000;0.6471;0.8544;
387.0000;0.6471;0.8591;
387.3000;0.6488;0.8591;
387.6000;0.6463;0.8567;
387.9000;0.6496;0.8591;
388.2000;0.6496;0.8544;
388.5000;0.6496;0.8567;
388.8000;0.6496;0.8473;
389.1000;0.6504;0.8497;
389.4000;0.6431;0.8309;
389.7000;0.6488;0.8497;
390.0000;0.6471;0.8520;
390.3000;0.6463;0.8450;
390.6000;0.6463;0.8473;
390.9000;0.6463;0.8426;
391.2000;0.6471;0.8497;
391.5000;0.6471;0.8450;
391.8000;0.6471;0.8520;
392.1000;0.6414;0.8286;
392.4000;0.6463;0.8450;
392.7000;0.6512;0.8567;
393.0000;0.6471;0.8450;
393.3000;0.6479;0.8403;
393.6000;0.6471;0.8379;
393.9000;0.6479;0.8379;
394.2000;0.6447;0.8379;
394.5000;0.6471;0.8450;
394.8000;0.6479;0.8426;
395.1000;0.6488;0.8426;
395.4000;0.6479;0.8426;
395.7000;0.6488;0.8544;
396.0000;0.6488;0.8567;
396.3000;0.6488;0.8497;
396.6000;0.6488;0.8497;
396.9000;0.6496;0.8591;
397.2000;0.6496;0.8591;
397.5000;0.6488;0.8567;
397.8000;0.6488;0.8473;
398.1000;0.6488;0.8473;
398.4000;0.6496;0.8567;
398.7000;0.6471;0.8520;
399.0000;0.6479;0.8520;
399.3000;0.6463;0.8520;
399.6000;0.6488;0.8497;
399.9000;0.6488;0.8520;
400.2000;0.6488;0.8544;
400.5000;0.6496;0.8614;
400.8000;0.6488;0.8614;
401.1000;0.6471;0.8614;
401.4000;0.6504;0.8591;
401.7000;0.6479;0.8450;
402.0000;0.6496;0.8473;
402.3000;0.6463;0.8403;
402.6000;0.6471;0.8426;
402.9000;0.6569;0.8661;
403.2000;0.6479;0.8450;
403.5000;0.6488;0.8520;
403.8000;0.6479;0.8450;
404.1000;0.6496;0.8567;
404.4000;0.6512;0.8567;
404.7000;0.6496;0.8591;
405.0000;0.6471;0.8567;
405.3000;0.6520;0.8638;
405.6000;0.6479;0.8544;
405.9000;0.6488;0.8638;
406.2000;0.6488;0.8685;
406.5000;0.6479;0.8544;
406.8000;0.6496;0.8544;
407.1000;0.6471;0.8473;
407.4000;0.6496;0.8520;
407.7000;0.6504;0.8591;
408.0000;0.6488;0.8638;
408.3000;0.6479;0.8567;
408.6000;0.6471;0.8567;
408.9000;0.6479;0.8520;
409.2000;0.6496;0.8567;
409.5000;0.6618;0.8778;
409.8000;0.6463;0.8403;
410.1000;0.6463;0.8332;
410.4000;0.6471;0.8309;
410.7000;0.6463;0.8332;
411.0000;0.6479;0.8450;
411.3000;0.6488;0.8450;
411.6000;0.6479;0.8332;
411.9000;0.6463;0.8286;
412.2000;0.6471;0.8215;
412.5000;0.6455;0.8192;
412.8000;0.6479;0.8262;
413.1000;0.6479;0.8332;
413.4000;0.6504;0.8426;
413.7000;0.6479;0.8426;
414.0000;0.6504;0.8426;
414.3000;0.6479;0.8332;
414.6000;0.6471;0.8356;
414.9000;0.6488;0.8450;
415.2000;0.6479;0.8497;
415.5000;0.6504;0.8520;
415.8000;0.6488;0.8450;
416.1000;0.6488;0.8567;
416.4000;0.6488;0.8520;
416.7000;0.6488;0.8591;
417.0000;0.6496;0.8614;
417.3000;0.6471;0.8567;
417.6000;0.6496;0.8567;
417.9000;0.6488;0.8591;
418.2000;0.6479;0.8638;
418.5000;0.6471;0.8661;
418.8000;0.6496;0.8685;
419.1000;0.6479;0.8685;
419.4000;0.6496;0.8661;
419.7000;0.6471;0.8591;
420.0000;0.6479;0.8567;
420.3000;0.6471;0.8591;
420.6000;0.6504;0.8614;
420.9000;0.6488;0.8591;
421.2000;0.6488;0.8567;
421.5000;0.6447;0.8473;
421.8000;0.6496;0.8708;
422.1000;0.6504;0.8732;
422.4000;0.6488;0.8591;
422.7000;0.6504;0.8567;
423.0000;0.6504;0.8520;
423.3000;0.6536;0.8591;
423.6000;0.6496;0.8450;
423.9000;0.6479;0.8450;
424.2000;0.6471;0.8497;
424.5000;0.6479;0.8520;
424.8000;0.6479;0.8544;
425.1000;0.6488;0.8473;
425.4000;0.6471;0.8544;
425.7000;0.6471;0.8450;
426.0000;0.6504;0.8497;
426.3000;0.6545;0.8544;
426.6000;0.6479;0.8450;
426.9000;0.6545;0.8544;
427.2000;0.6496;0.8403;
427.5000;0.6479;0.8403;
427.8000;0.6479;0.8403;
428.1000;0.6471;0.8332;
428.4000;0.6488;0.8426;
428.7000;0.6496;0.8450;
429.0000;0.6488;0.8450;
429.3000;0.6479;0.8497;
429.6000;0.6471;0.8426;
429.9000;0.6292;0.7980;
430.2000;0.6569;0.8661;
430.5000;0.6414;0.8121;
430.8000;0.6471;0.8262;
431.1000;0.6471;0.8379;
431.4000;0.6463;0.8332;
431.7000;0.6471;0.8332;
432.0000;0.6471;0.8379;
432.3000;0.6496;0.8356;
432.6000;0.6479;0.8379;
432.9000;0.6455;0.8332;
433.2000;0.6496;0.8497;
433.5000;0.6479;0.8520;
433.8000;0.6488;0.8567;
434.1000;0.6471;0.8497;
434.4000;0.6479;0.8426;
434.7000;0.6488;0.8473;
435.0000;0.6488;0.8544;
435.3000;0.6479;0.8473;
435.6000;0.6488;0.8426;
435.9000;0.6496;0.8450;
436.2000;0.6488;0.8544;
436.5000;0.6488;0.8567;
436.8000;0.6479;0.8544;
437.1000;0.6479;0.8544;
437.4000;0.6520;0.8638;
437.7000;0.6471;0.8520;
438.0000;0.6479;0.8497;
438.3000;0.6488;0.8661;
438.6000;0.6488;0.8802;
438.9000;0.6463;0.8755;
439.2000;0.6569;0.9037;
439.5000;0.6496;0.8708;
439.8000;0.6479;0.8638;
440.1000;0.6471;0.8567;
440.4000;0.6528;0.8638;
440.7000;0.6545;0.8685;
441.0000;0.6471;0.8426;
441.3000;0.6471;0.8473;
441.6000;0.6479;0.8497;
441.9000;0.6569;0.8778;
442.2000;0.6479;0.8520;
442.5000;0.6488;0.8614;
442.8000;0.6479;0.8661;
443.1000;0.6488;0.8755;
443.4000;0.6496;0.8802;
443.7000;0.6496;0.8778;
444.0000;0.6496;0.8755;
444.3000;0.6479;0.8614;
444.6000;0.6504;0.8614;
444.9000;0.6496;0.8638;
445.2000;0.6545;0.8778;
445.5000;0.6463;0.8567;
445.8000;0.6488;0.8591;
446.1000;0.6496;0.8567;
446.4000;0.6528;0.8685;
446.7000;0.6496;0.8685;
447.0000;0.6504;0.8638;
447.3000;0.6439;0.8520;
447.6000;0.6496;0.8685;
447.9000;0.6365;0.8356;
448.2000;0.6471;0.8567;
448.5000;0.6463;0.8520;
448.8000;0.6520;0.8661;
449.1000;0.6463;0.8520;
449.4000;0.6512;0.8567;
449.7000;0.6471;0.8567;
450.0000;0.6488;0.8614;
450.3000;0.6488;0.8591;
450.6000;0.6479;0.8520;
450.9000;0.6528;0.8685;
451.2000;0.6504;0.8614;
451.5000;0.6496;0.8544;
451.8000;0.6479;0.8544;
452.1000;0.6488;0.8591;
452.4000;0.6496;0.8591;
452.7000;0.6520;0.8591;
453.0000;0.6471;0.8591;
453.3000;0.6504;0.8614;
453.6000;0.6496;0.8567;
453.9000;0.6512;0.8591;
454.2000;0.6479;0.8520;
454.5000;0.6479;0.8473;
454.8000;0.6479;0.8450;
455.1000;0.6471;0.8473;
455.4000;0.6488;0.8544;
455.7000;0.6504;0.8638;
456.0000;0.6504;0.8638;
456.3000;0.6496;0.8638;
456.6000;0.6496;0.8638;
456.9000;0.6488;0.8591;
457.2000;0.6496;0.8638;
457.5000;0.6488;0.8661;
457.8000;0.6488;0.8661;
458.1000;0.6471;0.8732;
458.4000;0.6471;0.8896;
458.7000;0.6488;0.8990;
459.0000;0.6479;0.8872;
459.3000;0.6488;0.8825;
459.6000;0.6496;0.8732;
459.9000;0.6496;0.8685;
460.2000;0.6455;0.8544;
460.5000;0.6455;0.8544;
460.8000;0.6479;0.8614;
461.1000;0.6382;0.8403;
461.4000;0.6471;0.8661;
461.7000;0.6488;0.8825;
462.0000;0.6479;0.8708;
462.3000;0.6455;0.8544;
462.6000;0.6479;0.8638;
462.9000;0.6463;0.8591;
463.2000;0.6479;0.8520;
463.5000;0.6398;0.8356;
463.8000;0.6479;0.8567;
464.1000;0.6390;0.8332;
464.4000;0.6439;0.8591;
464.7000;0.6414;0.8450;
465.0000;0.6602;0.8825;
465.3000;0.6447;0.8403;
465.6000;0.6479;0.8497;
465.9000;0.6471;0.8403;
466.2000;0.6463;0.8379;
466.5000;0.6504;0.8450;
466.8000;0.6488;0.8473;
467.1000;0.6504;0.8567;
467.4000;0.6488;0.8614;
467.7000;0.6496;0.8614;
468.0000;0.6463;0.8661;
468.3000;0.6463;0.8497;
468.6000;0.6479;0.8520;
468.9000;0.6496;0.8638;
469.2000;0.6512;0.8591;
469.5000;0.6488;0.8544;
469.8000;0.6496;0.8520;
470.1000;0.6504;0.8520;
470.4000;0.6488;0.8614;
470.7000;0.6479;0.8567;
471.0000;0.6488;0.8591;
471.3000;0.6504;0.8591;
471.6000;0.6504;0.8638;
471.9000;0.6479;0.8591;
472.2000;0.6496;0.8708;
472.5000;0.6504;0.8708;
472.8000;0.6512;0.8732;
473.1000;0.6496;0.8661;
473.4000;0.6577;0.8896;
473.7000;0.6488;0.8685;
474.0000;0.6439;0.8473;
474.3000;0.6488;0.8450;
474.6000;0.6496;0.8356;
474.9000;0.6463;0.8379;
475.2000;0.6496;0.8426;
475.5000;0.6471;0.8403;
475.8000;0.6479;0.8426;
476.1000;0.6479;0.8379;
476.4000;0.6488;0.8403;
476.7000;0.6488;0.8426;
477.0000;0.6488;0.8379;
477.3000;0.6479;0.8450;
477.6000;0.6471;0.8473;
477.9000;0.6496;0.8520;
478.2000;0.6455;0.8426;
478.5000;0.6479;0.8497;
478.8000;0.6488;0.8520;
479.1000;0.6471;0.8497;
479.4000;0.6488;0.8520;
479.7000;0.6520;0.8638;
480.0000;0.6479;0.8473;
480.3000;0.6463;0.8473;
480.6000;0.6488;0.8473;
480.9000;0.6512;0.8544;
481.2000;0.6488;0.8497;
481.5000;0.6479;0.8544;
481.8000;0.6512;0.8567;
482.1000;0.6496;0.8497;
482.4000;0.6479;0.8497;
482.7000;0.6504;0.8544;
483.0000;0.6496;0.8544;
483.3000;0.6488;0.8544;
483.6000;0.6496;0.8591;
483.9000;0.6479;0.8473;
484.2000;0.6463;0.8497;
484.5000;0.6504;0.8591;
484.8000;0.6463;0.8473;
485.1000;0.6471;0.8567;
485.4000;0.6479;0.8567;
485.7000;0.6504;0.8638;
486.0000;0.6455;0.8567;
486.3000;0.6398;0.8473;
486.6000;0.6479;0.8661;
486.9000;0.6471;0.8685;
487.2000;0.6390;0.8473;
487.5000;0.6374;0.8332;
487.8000;0.6488;0.8638;
488.1000;0.6504;0.8732;
488.4000;0.6504;0.8732;
488.7000;0.6488;0.8778;
489.0000;0.6520;0.8778;
489.3000;0.6431;0.8638;
489.6000;0.6479;0.8685;
489.9000;0.6471;0.8614;
490.2000;0.6479;0.8544;
490.5000;0.6488;0.8567;
490.8000;0.6479;0.8591;
491.1000;0.6463;0.8544;
491.4000;0.6488;0.8614;
491.7000;0.6479;0.8661;
492.0000;0.6488;0.8591;
492.3000;0.6512;0.8638;
492.6000;0.6479;0.8638;
492.9000;0.6496;0.8732;
493.2000;0.6488;0.8755;
493.5000;0.6504;0.8732;
493.8000;0.6488;0.8708;
494.1000;0.6488;0.8802;
494.4000;0.6479;0.8802;
494.7000;0.6496;0.8872;
495.0000;0.6496;0.8802;
495.3000;0.6528;0.8802;
495.6000;0.6504;0.8685;
495.9000;0.6504;0.8685;
496.2000;0.6504;0.8708;
496.5000;0.6488;0.8685;
496.8000;0.6471;0.8661;
497.1000;0.6504;0.8802;
497.4000;0.6471;0.8755;
497.7000;0.6479;0.8849;
498.0000;0.6471;0.8755;
498.3000;0.6504;0.8755;
498.6000;0.6479;0.8638;
498.9000;0.6479;0.8708;
499.2000;0.6496;0.8708;
499.5000;0.6496;0.8732;
499.8000;0.6496;0.8685;
500.1000;0.6479;0.8614;
500.4000;0.6496;0.8661;
500.7000;0.6479;0.8661;
501.0000;0.6463;0.8638;
501.3000;0.6455;0.8614;
501.6000;0.6496;0.8732;
501.9000;0.6504;0.8825;
502.2000;0.6479;0.8778;
502.5000;0.6455;0.8685;
502.8000;0.6488;0.8685;
503.1000;0.6488;0.8708;
503.4000;0.6463;0.8544;
503.7000;0.6463;0.8591;
504.0000;0.6471;0.8567;
504.3000;0.6471;0.8591;
504.6000;0.6488;0.8497;
504.9000;0.6471;0.8520;
505.2000;0.6488;0.8567;
505.5000;0.6512;0.8638;
505.8000;0.6479;0.8544;
506.1000;0.6520;0.8685;
506.4000;0.6455;0.8473;
506.7000;0.6471;0.8497;
507.0000;0.6479;0.8497;
507.3000;0.6471;0.8379;
507.6000;0.6504;0.8426;
507.9000;0.6479;0.8403;
508.2000;0.6496;0.8309;
508.5000;0.6479;0.8286;
508.8000;0.6496;0.8379;
509.1000;0.6479;0.8403;
509.4000;0.6479;0.8356;
509.7000;0.6479;0.8332;
510.0000;0.6496;0.8403;
510.3000;0.6488;0.8497;
510.6000;0.6488;0.8473;
510.9000;0.6512;0.8497;
511.2000;0.6496;0.8426;
511.5000;0.6479;0.8426;
511.8000;0.6496;0.8497;
512.1000;0.6479;0.8426;
512.4000;0.6471;0.8356;
512.7000;0.6488;0.8379;
513.0000;0.6496;0.8403;
513.3000;0.6488;0.8332;
513.6000;0.6504;0.8379;
513.9000;0.6488;0.8286;
514.2000;0.6463;0.8239;
514.5000;0.6504;0.8309;
514.8000;0.6479;0.8309;
515.1000;0.6488;0.8356;
515.4000;0.6455;0.8262;
515.7000;0.6496;0.8332;
516.0000;0.6496;0.8356;
516.3000;0.6471;0.8379;
516.6000;0.6471;0.8403;
516.9000;0.6479;0.8450;
517.2000;0.6479;0.8403;
517.5000;0.6504;0.8426;
517.8000;0.6471;0.8379;
518.1000;0.6479;0.8426;
518.4000;0.6455;0.8356;
518.7000;0.6471;0.8356;
519.0000;0.6471;0.8426;
519.3000;0.6479;0.8426;
519.6000;0.6496;0.8473;
519.9000;0.6431;0.8426;
520.2000;0.6463;0.8497;
520.5000;0.6471;0.8520;
520.8000;0.6479;0.8520;
521.1000;0.6488;0.8591;
521.4000;0.6528;0.8708;
521.7000;0.6471;0.8520;
522.0000;0.6488;0.8591;
522.3000;0.6488;0.8638;
522.6000;0.6471;0.8638;
522.9000;0.6447;0.8614;
523.2000;0.6488;0.8685;
523.5000;0.6496;0.8708;
523.8000;0.6479;0.8661;
524.1000;0.6414;0.8473;
524.4000;0.6504;0.8661;
524.7000;0.6471;0.8544;
525.0000;0.6471;0.8497;
525.3000;0.6463;0.8567;
525.6000;0.6488;0.8520;
525.9000;0.6479;0.8403;
526.2000;0.6439;0.8403;
526.5000;0.6447;0.8379;
526.8000;0.6488;0.8426;
527.1000;0.6488;0.8473;
527.4000;0.6488;0.8379;
527.7000;0.6471;0.8332;
528.0000;0.6479;0.8309;
528.3000;0.6471;0.8332;
528.6000;0.6496;0.8379;
528.9000;0.6390;0.8145;
529.2000;0.6471;0.8356;
529.5000;0.6488;0.8450;
529.8000;0.6496;0.8473;
530.1000;0.6488;0.8497;
530.4000;0.6512;0.8591;
530.7000;0.6488;0.8544;
531.0000;0.6496;0.8614;
531.3000;0.6414;0.8286;
531.6000;0.6479;0.8379;
531.9000;0.6455;0.8379;
532.2000;0.6447;0.8379;
532.5000;0.6479;0.8520;
532.8000;0.6488;0.8473;
533.1000;0.6479;0.8473;
533.4000;0.6553;0.8638;
533.7000;0.6496;0.8497;
534.0000;0.6488;0.8450;
534.3000;0.6488;0.8379;
534.6000;0.6479;0.8403;
534.9000;0.6512;0.8426;
535.2000;0.6455;0.8309;
535.5000;0.6488;0.8356;
535.8000;0.6479;0.8379;
536.1000;0.6488;0.8450;
536.4000;0.6504;0.8473;
536.7000;0.6488;0.8450;
537.0000;0.6528;0.8567;
537.3000;0.6496;0.8450;
537.6000;0.6496;0.8403;
537.9000;0.6479;0.8403;
538.2000;0.6496;0.8426;
538.5000;0.6496;0.8403;
538.8000;0.6504;0.8520;
539.1000;0.6504;0.8567;
539.4000;0.6488;0.8497;
539.7000;0.6479;0.8544;
540.0000;0.6496;0.8638;
540.3000;0.6504;0.8708;
540.6000;0.6496;0.8661;
540.9000;0.6496;0.8591;
541.2000;0.6512;0.8661;
541.5000;0.6488;0.8544;
541.8000;0.6488;0.8544;
542.1000;0.6471;0.8520;
542.4000;0.6406;0.8286;
542.7000;0.6496;0.8567;
543.0000;0.6488;0.8614;
543.3000;0.6496;0.8591;
543.6000;0.6471;0.8544;
543.9000;0.6496;0.8567;
544.2000;0.6512;0.8638;
544.5000;0.6496;0.8591;
544.8000;0.6479;0.8638;
545.1000;0.6488;0.8567;
545.4000;0.6504;0.8520;
545.7000;0.6479;0.8473;
546.0000;0.6496;0.8403;
546.3000;0.6488;0.8473;
546.6000;0.6488;0.8591;
546.9000;0.6471;0.8591;
547.2000;0.6504;0.8614;
547.5000;0.6488;0.8567;
547.8000;0.6479;0.8661;
548.1000;0.6496;0.8614;
548.4000;0.6520;0.8638;
548.7000;0.6488;0.8614;
549.0000;0.6561;0.8778;
549.3000;0.6479;0.8591;
549.6000;0.6479;0.8567;
549.9000;0.6479;0.8544;
550.2000;0.6471;0.8544;
550.5000;0.6496;0.8567;
550.8000;0.6488;0.8567;
551.1000;0.6528;0.8661;
551.4000;0.6488;0.8638;
551.7000;0.6479;0.8614;
552.0000;0.6488;0.8708;
552.3000;0.6463;0.8755;
552.6000;0.6479;0.8755;
552.9000;0.6479;0.8778;
553.2000;0.6463;0.8778;
553.5000;0.6463;0.8825;
553.8000;0.6488;0.8825;
554.1000;0.6439;0.8614;
554.4000;0.6488;0.8591;
554.7000;0.6479;0.8520;
555.0000;0.6479;0.8520;
555.3000;0.6471;0.8567;
555.6000;0.6471;0.8614;
555.9000;0.6496;0.8638;
556.2000;0.6455;0.8450;
556.5000;0.6496;0.8520;
556.8000;0.6471;0.8544;
557.1000;0.6496;0.8520;
557.4000;0.6488;0.8591;
557.7000;0.6512;0.8638;
558.0000;0.6422;0.8403;
558.3000;0.6488;0.8638;
558.6000;0.6382;0.8356;
558.9000;0.6471;0.8567;
559.2000;0.6463;0.8591;
559.5000;0.6471;0.8661;
559.8000;0.6479;0.8755;
560.1000;0.6488;0.8661;
560.4000;0.6496;0.8567;
560.7000;0.6488;0.8544;
561.0000;0.6390;0.8262;
561.3000;0.6496;0.8473;
561.6000;0.6496;0.8567;
561.9000;0.6479;0.8567;
562.2000;0.6479;0.8591;
562.5000;0.6455;0.8497;
562.8000;0.6512;0.8567;
563.1000;0.6512;0.8638;
563.4000;0.6496;0.8685;
563.7000;0.6488;0.8708;
564.0000;0.6496;0.8638;
564.3000;0.6479;0.8591;
564.6000;0.6471;0.8591;
564.9000;0.6488;0.8708;
565.2000;0.6496;0.8755;
565.5000;0.6496;0.8825;
565.8000;0.6471;0.8849;
566.1000;0.6471;0.8825;
566.4000;0.6488;0.8778;
566.7000;0.6488;0.8825;
567.0000;0.6479;0.8778;
567.3000;0.6496;0.8872;
567.6000;0.6496;0.8966;
567.9000;0.6488;0.8943;
568.2000;0.6488;0.8896;
568.5000;0.6488;0.8919;
568.8000;0.6479;0.8849;
569.1000;0.6488;0.8802;
569.4000;0.6471;0.8778;
569.7000;0.6471;0.8732;
570.0000;0.6488;0.8732;
570.3000;0.6479;0.8825;
570.6000;0.6512;0.8896;
570.9000;0.6496;0.8849;
571.2000;0.6488;0.8872;
571.5000;0.6496;0.8872;
571.8000;0.6520;0.8919;
572.1000;0.6471;0.8778;
572.4000;0.6504;0.8802;
572.7000;0.6577;0.8990;
573.0000;0.6561;0.8919;
573.3000;0.6455;0.8591;
573.6000;0.6496;0.8755;
573.9000;0.6479;0.8732;
574.2000;0.6504;0.8732;
574.5000;0.6496;0.8755;
574.8000;0.6496;0.8802;
575.1000;0.6488;0.8778;
575.4000;0.6496;0.8778;
575.7000;0.6504;0.8755;
576.0000;0.6553;0.8849;
576.3000;0.6471;0.8732;
576.6000;0.6536;0.8778;
576.9000;0.6496;0.8732;
577.2000;0.6455;0.8661;
577.5000;0.6512;0.8825;
577.8000;0.6496;0.8778;
578.1000;0.6504;0.8872;
578.4000;0.6488;0.8872;
578.7000;0.6496;0.8849;
579.0000;0.6471;0.8802;
579.3000;0.6504;0.8825;
579.6000;0.6577;0.8990;
579.9000;0.6496;0.8732;
580.2000;0.6471;0.8708;
580.5000;0.6488;0.8802;
580.8000;0.6471;0.8872;
581.1000;0.6455;0.8755;
581.4000;0.6512;0.8896;
581.7000;0.6479;0.8802;
582.0000;0.6488;0.8849;
582.3000;0.6479;0.8802;
582.6000;0.6488;0.8825;
582.9000;0.6479;0.8802;
583.2000;0.6504;0.8802;
583.5000;0.6504;0.8778;
583.8000;0.6488;0.8614;
584.1000;0.6488;0.8638;
584.4000;0.6471;0.8638;
584.7000;0.6463;0.8638;
585.0000;0.6504;0.8732;
585.3000;0.6504;0.8732;
585.6000;0.6479;0.8708;
585.9000;0.6479;0.8732;
586.2000;0.6488;0.8708;
586.5000;0.6488;0.8825;
586.8000;0.6496;0.8919;
587.1000;0.6488;0.8896;
587.4000;0.6488;0.8849;
587.7000;0.6488;0.8778;
588.0000;0.6479;0.8732;
588.3000;0.6488;0.8778;
588.6000;0.6471;0.8732;
588.9000;0.6471;0.8685;
589.2000;0.6479;0.8685;
589.5000;0.6488;0.8732;
589.8000;0.6528;0.8872;
590.1000;0.6479;0.8732;
590.4000;0.6479;0.8591;
590.7000;0.6463;0.8544;
591.0000;0.6463;0.8591;
591.3000;0.6479;0.8661;
591.6000;0.6479;0.8638;
591.9000;0.6479;0.8708;
592.2000;0.6479;0.8708;
592.5000;0.6455;0.8614;
592.8000;0.6520;0.8708;
593.1000;0.6488;0.8567;
593.4000;0.6463;0.8450;
593.7000;0.6471;0.8520;
594.0000;0.6479;0.8497;
594.3000;0.6479;0.8450;
594.6000;0.6471;0.8426;
594.9000;0.6455;0.8403;
595.2000;0.6479;0.8450;
595.5000;0.6471;0.8403;
595.8000;0.6479;0.8403;
596.1000;0.6471;0.8426;
596.4000;0.6431;0.8403;
596.7000;0.6488;0.8473;
597.0000;0.6479;0.8379;
597.3000;0.6553;0.8638;
597.6000;0.6512;0.8591;
597.9000;0.6479;0.8567;
598.2000;0.6496;0.8591;
598.5000;0.6504;0.8520;
598.8000;0.6512;0.8403;
599.1000;0.6496;0.8450;
599.4000;0.6488;0.8497;
599.7000;0.6471;0.8497;
600.0000;0.6496;0.8450;
600.3000;0.6496;0.8450;
600.6000;0.6422;0.8215;
600.9000;0.6431;0.8098;
601.2000;0.6414;0.8051;
601.5000;0.6398;0.7957;
601.8000;0.6365;0.7957;
602.1000;0.6276;0.7910;
602.4000;0.6317;0.7980;
602.7000;0.6252;0.7840;
603.0000;0.6268;0.7863;
603.3000;0.6219;0.7722;
603.6000;0.6211;0.7722;
603.9000;0.6162;0.7675;
604.2000;0.6121;0.7558;
604.5000;0.6081;0.7441;
604.8000;0.6105;0.7558;
605.1000;0.6072;0.7394;
605.4000;0.6056;0.7394;
605.7000;0.6040;0.7394;
606.0000;0.6032;0.7417;
606.3000;0.6032;0.7323;
606.6000;0.6015;0.7347;
606.9000;0.5991;0.7347;
607.2000;0.5983;0.7276;
607.5000;0.5967;0.7253;
607.8000;0.5950;0.7253;
608.1000;0.5983;0.7370;
608.4000;0.5942;0.7253;
608.7000;0.5934;0.7300;
609.0000;0.5910;0.7347;
609.3000;0.5918;0.7441;
609.6000;0.5942;0.7488;
609.9000;0.5893;0.7441;
610.2000;0.5877;0.7441;
610.5000;0.5885;0.7488;
610.8000;0.5869;0.7488;
611.1000;0.5845;0.7417;
611.4000;0.5845;0.7417;
611.7000;0.5845;0.7511;
612.0000;0.5828;0.7441;
612.3000;0.5845;0.7488;
612.6000;0.5804;0.7323;
612.9000;0.5804;0.7229;
613.2000;0.5804;0.7229;
613.5000;0.5812;0.7253;
613.8000;0.5788;0.7206;
614.1000;0.5779;0.7229;
614.4000;0.5779;0.7276;
614.7000;0.5788;0.7323;
615.0000;0.5788;0.7300;
615.3000;0.5788;0.7300;
615.6000;0.5747;0.7229;
615.9000;0.5771;0.7300;
616.2000;0.5739;0.7253;
616.5000;0.5731;0.7229;
616.8000;0.5739;0.7159;
617.1000;0.5747;0.7253;
617.4000;0.5755;0.7229;
617.7000;0.5739;0.7229;
618.0000;0.5722;0.7182;
618.3000;0.5722;0.7206;
618.6000;0.5731;0.7300;
618.9000;0.5722;0.7300;
619.2000;0.5722;0.7394;
619.5000;0.5674;0.7253;
619.8000;0.5706;0.7300;
620.1000;0.5698;0.7253;
620.4000;0.5731;0.7300;
620.7000;0.5674;0.7088;
621.0000;0.5739;0.7182;
621.3000;0.5706;0.7088;
621.6000;0.5771;0.7323;
621.9000;0.5674;0.7042;
622.2000;0.5682;0.7135;
622.5000;0.5657;0.7112;
622.8000;0.5657;0.7135;
623.1000;0.5657;0.7135;
623.4000;0.5657;0.7088;
623.7000;0.5657;0.7065;
624.0000;0.5633;0.7159;
624.3000;0.5649;0.7159;
624.6000;0.5633;0.7229;
624.9000;0.5641;0.7253;
625.2000;0.5657;0.7253;
625.5000;0.5617;0.7300;
625.8000;0.5633;0.7323;
626.1000;0.5625;0.7347;
626.4000;0.5633;0.7370;
626.7000;0.5617;0.7253;
627.0000;0.5608;0.7182;
627.3000;0.5592;0.7159;
627.6000;0.5608;0.7206;
627.9000;0.5608;0.7088;
628.2000;0.5584;0.6995;
628.5000;0.5600;0.7018;
628.8000;0.5608;0.7018;
629.1000;0.5592;0.6901;
629.4000;0.5576;0.6830;
629.7000;0.5584;0.6901;
630.0000;0.5608;0.6948;
630.3000;0.5584;0.6877;
630.6000;0.5584;0.6807;
630.9000;0.5576;0.6854;
631.2000;0.5584;0.6971;
631.5000;0.5584;0.7018;
631.8000;0.5592;0.7135;
632.1000;0.5568;0.7018;
632.4000;0.5584;0.7088;
632.7000;0.5576;0.7065;
633.0000;0.5568;0.7065;
633.3000;0.5551;0.7065;
633.6000;0.5568;0.7065;
633.9000;0.5551;0.6971;
634.2000;0.5551;0.7135;
634.5000;0.5551;0.7229;
634.8000;0.5560;0.7300;
635.1000;0.5551;0.7253;
635.4000;0.5560;0.7182;
635.7000;0.5535;0.7159;
636.0000;0.5535;0.7112;
636.3000;0.5551;0.7182;
636.6000;0.5592;0.7229;
636.9000;0.5535;0.6995;
637.2000;0.5543;0.7042;
637.5000;0.5527;0.7042;
637.8000;0.5535;0.6971;
638.1000;0.5511;0.6924;
638.4000;0.5519;0.7018;
638.7000;0.5519;0.7042;
639.0000;0.5511;0.7065;
639.3000;0.5511;0.7112;
639.6000;0.5495;0.7088;
639.9000;0.5503;0.7018;
640.2000;0.5438;0.6689;
640.5000;0.5495;0.6854;
640.8000;0.5503;0.6924;
641.1000;0.5495;0.6948;
641.4000;0.5503;0.7018;
641.7000;0.5503;0.6948;
642.0000;0.5495;0.6854;
642.3000;0.5462;0.6783;
642.6000;0.5486;0.6830;
642.9000;0.5503;0.6854;
643.2000;0.5478;0.6783;
643.5000;0.5486;0.6854;
643.8000;0.5495;0.6901;
644.1000;0.5495;0.6971;
644.4000;0.5486;0.6948;
644.7000;0.5478;0.6854;
645.0000;0.5478;0.6901;
645.3000;0.5478;0.6901;
645.6000;0.5478;0.6971;
645.9000;0.5478;0.6995;
646.2000;0.5486;0.6995;
646.5000;0.5495;0.7018;
646.8000;0.5470;0.7018;
647.1000;0.5470;0.7042;
647.4000;0.5486;0.7088;
647.7000;0.5462;0.6948;
648.0000;0.5470;0.6948;
648.3000;0.5462;0.6971;
648.6000;0.5446;0.6971;
648.9000;0.5462;0.7042;
649.2000;0.5462;0.7042;
649.5000;0.5486;0.7135;
649.8000;0.5405;0.6924;
650.1000;0.5454;0.6995;
650.4000;0.5413;0.6783;
650.7000;0.5438;0.6783;
651.0000;0.5454;0.6877;
651.3000;0.5470;0.6995;
651.6000;0.5454;0.6995;
651.9000;0.5454;0.6948;
652.2000;0.5454;0.6995;
652.5000;0.5438;0.7065;
652.8000;0.5438;0.7065;
653.1000;0.5454;0.7088;
653.4000;0.5446;0.6995;
653.7000;0.5413;0.6948;
654.0000;0.5429;0.6971;
654.3000;0.5446;0.6948;
654.6000;0.5429;0.6971;
654.9000;0.5429;0.7065;
655.2000;0.5421;0.7088;
655.5000;0.5429;0.7112;
655.8000;0.5429;0.7065;
656.1000;0.5446;0.6948;
656.4000;0.5413;0.6948;
656.7000;0.5438;0.7112;
657.0000;0.5438;0.7112;
657.3000;0.5421;0.7206;
657.6000;0.5429;0.7229;
657.9000;0.5438;0.7276;
658.2000;0.5405;0.7253;
658.5000;0.5413;0.7229;
658.8000;0.5421;0.7276;
659.1000;0.5405;0.7323;
659.4000;0.5421;0.7347;
659.7000;0.5454;0.7323;
660.0000;0.5348;0.7042;
660.3000;0.5429;0.7253;
660.6000;0.5405;0.7159;
660.9000;0.5405;0.7159;
661.2000;0.5413;0.7135;
661.5000;0.5413;0.7253;
661.8000;0.5421;0.7253;
662.1000;0.5413;0.7253;
662.4000;0.5397;0.7182;
662.7000;0.5397;0.7159;
663.0000;0.5413;0.7159;
663.3000;0.5397;0.7112;
663.6000;0.5372;0.7018;
663.9000;0.5389;0.7088;
664.2000;0.5413;0.7229;
664.5000;0.5421;0.7229;
664.8000;0.5397;0.7112;
665.1000;0.5389;0.7112;
665.4000;0.5405;0.7182;
665.7000;0.5397;0.7159;
666.0000;0.5397;0.7253;
666.3000;0.5364;0.7276;
666.6000;0.5405;0.7370;
666.9000;0.5405;0.7370;
667.2000;0.5397;0.7300;
667.5000;0.5397;0.7300;
667.8000;0.5397;0.7300;
668.1000;0.5397;0.7323;
668.4000;0.5389;0.7276;
668.7000;0.5372;0.7206;
669.0000;0.5332;0.7042;
669.3000;0.5364;0.7018;
669.6000;0.5381;0.6971;
669.9000;0.5381;0.6971;
670.2000;0.5405;0.7042;
670.5000;0.5389;0.7018;
670.8000;0.5413;0.7042;
671.1000;0.5381;0.7088;
671.4000;0.5381;0.7088;
671.7000;0.5381;0.7112;
672.0000;0.5470;0.7253;
672.3000;0.5364;0.6901;
672.6000;0.5421;0.7042;
672.9000;0.5381;0.6995;
673.2000;0.5381;0.7065;
673.5000;0.5356;0.7088;
673.8000;0.5372;0.7018;
674.1000;0.5332;0.6901;
674.4000;0.5283;0.6643;
674.7000;0.5397;0.6877;
675.0000;0.5291;0.6478;
675.3000;0.5356;0.6713;
675.6000;0.5429;0.6971;
675.9000;0.5348;0.6783;
676.2000;0.5348;0.6807;
676.5000;0.5364;0.6854;
676.8000;0.5299;0.6713;
677.1000;0.5364;0.6901;
677.4000;0.5372;0.6924;
677.7000;0.5381;0.6924;
678.0000;0.5372;0.6971;
678.3000;0.5364;0.6948;
678.6000;0.5348;0.6924;
678.9000;0.5364;0.6924;
679.2000;0.5372;0.6877;
679.5000;0.5364;0.6877;
679.8000;0.5348;0.6901;
680.1000;0.5364;0.6948;
680.4000;0.5364;0.6830;
680.7000;0.5356;0.6783;
681.0000;0.5372;0.6877;
681.3000;0.5356;0.6854;
681.6000;0.5356;0.6854;
681.9000;0.5389;0.6901;
682.2000;0.5364;0.6901;
682.5000;0.5438;0.7018;
682.8000;0.5372;0.6783;
683.1000;0.5364;0.6807;
683.4000;0.5364;0.6760;
683.7000;0.5356;0.6807;
684.0000;0.5348;0.6760;
684.3000;0.5364;0.6830;
684.6000;0.5348;0.6807;
684.9000;0.5340;0.6807;
685.2000;0.5348;0.6854;
685.5000;0.5348;0.6901;
685.8000;0.5381;0.6971;
686.1000;0.5364;0.7018;
686.4000;0.5348;0.7042;
686.7000;0.5356;0.7135;
687.0000;0.5340;0.7135;
687.3000;0.5348;0.7229;
687.6000;0.5332;0.7206;
687.9000;0.5332;0.7182;
688.2000;0.5332;0.7276;
688.5000;0.5389;0.7347;
688.8000;0.5332;0.7135;
689.1000;0.5356;0.7159;
689.4000;0.5332;0.7229;
689.7000;0.5332;0.7182;
690.0000;0.5348;0.7229;
690.3000;0.5340;0.7276;
690.6000;0.5356;0.7300;
690.9000;0.5348;0.7300;
691.2000;0.5340;0.7276;
691.5000;0.5364;0.7276;
691.8000;0.5348;0.7276;
692.1000;0.5291;0.7065;
692.4000;0.5340;0.7229;
692.7000;0.5332;0.7182;
693.0000;0.5315;0.7182;
693.3000;0.5348;0.7229;
693.6000;0.5340;0.7206;
693.9000;0.5340;0.7206;
694.2000;0.5372;0.7276;
694.5000;0.5348;0.7253;
694.8000;0.5324;0.7159;
695.1000;0.5299;0.7135;
695.4000;0.5324;0.7182;
695.7000;0.5315;0.7206;
696.0000;0.5299;0.7229;
696.3000;0.5348;0.7347;
696.6000;0.5413;0.7511;
696.9000;0.5315;0.7300;
697.2000;0.5364;0.7276;
697.5000;0.5315;0.7159;
697.8000;0.5332;0.7182;
698.1000;0.5283;0.7182;
698.4000;0.5332;0.7253;
698.7000;0.5275;0.7088;
699.0000;0.5340;0.7182;
699.3000;0.5291;0.7018;
699.6000;0.5356;0.7088;
699.9000;0.5340;0.7112;
700.2000;0.5307;0.7065;
700.5000;0.5332;0.7112;
700.8000;0.5332;0.7065;
701.1000;0.5332;0.7065;
701.4000;0.5315;0.7135;
701.7000;0.5332;0.7112;
702.0000;0.5324;0.7088;
702.3000;0.5299;0.7065;
702.6000;0.5315;0.7159;
702.9000;0.5307;0.7229;
703.2000;0.5315;0.7206;
703.5000;0.5324;0.7229;
703.8000;0.5332;0.7229;
704.1000;0.5324;0.7229;
704.4000;0.5307;0.7135;
704.7000;0.5324;0.7088;
705.0000;0.5332;0.7088;
705.3000;0.5324;0.7065;
705.6000;0.5340;0.7018;
705.9000;0.5315;0.7065;
706.2000;0.5299;0.7112;
706.5000;0.5324;0.7065;
706.8000;0.5307;0.6995;
707.1000;0.5315;0.6995;
707.4000;0.5356;0.7088;
707.7000;0.5307;0.7018;
708.0000;0.5307;0.7065;
708.3000;0.5307;0.7112;
708.6000;0.5299;0.6995;
708.9000;0.5332;0.6971;
709.2000;0.5315;0.6971;
709.5000;0.5299;0.6948;
709.8000;0.5315;0.6901;
710.1000;0.5307;0.6948;
710.4000;0.5340;0.7018;
710.7000;0.5315;0.7042;
711.0000;0.5324;0.7112;
711.3000;0.5340;0.7088;
711.6000;0.5315;0.7018;
711.9000;0.5299;0.6948;
712.2000;0.5307;0.6971;
712.5000;0.5267;0.6901;
712.8000;0.5299;0.7042;
713.1000;0.5299;0.7065;
713.4000;0.5283;0.7018;
713.7000;0.5291;0.7065;
714.0000;0.5315;0.7135;
714.3000;0.5275;0.6971;
714.6000;0.5283;0.7042;
714.9000;0.5315;0.7135;
715.2000;0.5307;0.7182;
715.5000;0.5315;0.7135;
715.8000;0.5299;0.7088;
716.1000;0.5315;0.7088;
716.4000;0.5291;0.6995;
716.7000;0.5315;0.7088;
717.0000;0.5291;0.7112;
717.3000;0.5315;0.7229;
717.6000;0.5299;0.7276;
717.9000;0.5307;0.7323;
718.2000;0.5315;0.7253;
718.5000;0.5299;0.7229;
718.8000;0.5299;0.7206;
719.1000;0.5275;0.7065;
719.4000;0.5299;0.7065;
719.7000;0.5299;0.7135;
720.0000;0.5315;0.7135;
720.3000;0.5307;0.7206;
720.6000;0.5299;0.7088;
720.9000;0.5299;0.7159;
721.2000;0.5324;0.7182;
721.5000;0.5307;0.7159;
721.8000;0.5291;0.7112;
722.1000;0.5258;0.7042;
722.4000;0.5299;0.7229;
722.7000;0.5291;0.7276;
723.0000;0.5324;0.7323;
723.3000;0.5283;0.7159;
723.6000;0.5291;0.7206;
723.9000;0.5299;0.7229;
724.2000;0.5291;0.7206;
724.5000;0.5275;0.7135;
724.8000;0.5291;0.7065;
725.1000;0.5324;0.7135;
725.4000;0.5291;0.7088;
725.7000;0.5299;0.7042;
726.0000;0.5307;0.7042;
726.3000;0.5332;0.7065;
726.6000;0.5299;0.6995;
726.9000;0.5291;0.7018;
727.2000;0.5283;0.6948;
727.5000;0.5332;0.7088;
727.8000;0.5275;0.6924;
728.1000;0.5291;0.6995;
728.4000;0.5291;0.6877;
728.7000;0.5275;0.7042;
729.0000;0.5283;0.7088;
729.3000;0.5291;0.7112;
729.6000;0.5283;0.7065;
729.9000;0.5291;0.7159;
730.2000;0.5291;0.7182;
730.5000;0.5291;0.7159;
730.8000;0.5291;0.7065;
731.1000;0.5267;0.6948;
731.4000;0.5283;0.7018;
731.7000;0.5299;0.7018;
732.0000;0.5307;0.7018;
732.3000;0.5258;0.6995;
732.6000;0.5283;0.7065;
732.9000;0.5275;0.6995;
733.2000;0.5307;0.7042;
733.5000;0.5324;0.7065;
733.8000;0.5283;0.6901;
734.1000;0.5291;0.6854;
734.4000;0.5283;0.6948;
734.7000;0.5275;0.6901;
735.0000;0.5291;0.6948;
735.3000;0.5283;0.6995;
735.6000;0.5299;0.7065;
735.9000;0.5283;0.6948;
736.2000;0.5275;0.6901;
736.5000;0.5299;0.7042;
736.8000;0.5283;0.7065;
737.1000;0.5283;0.7042;
737.4000;0.5275;0.7042;
737.7000;0.5275;0.7088;
738.0000;0.5275;0.7065;
738.3000;0.5258;0.7018;
738.6000;0.5275;0.7018;
738.9000;0.5267;0.7042;
739.2000;0.5283;0.7206;
739.5000;0.5267;0.7159;
739.8000;0.5267;0.7135;
740.1000;0.5283;0.7088;
740.4000;0.5307;0.7088;
740.7000;0.5275;0.7065;
741.0000;0.5283;0.7112;
741.3000;0.5267;0.7159;
741.6000;0.5267;0.7112;
741.9000;0.5275;0.7206;
742.2000;0.5267;0.7253;
742.5000;0.5258;0.7229;
742.8000;0.5275;0.7276;
743.1000;0.5275;0.7229;
743.4000;0.5275;0.7112;
743.7000;0.5258;0.7018;
744.0000;0.5258;0.6948;
744.3000;0.5299;0.7065;
744.6000;0.5275;0.7018;
744.9000;0.5275;0.6948;
745.2000;0.5275;0.6924;
745.5000;0.5275;0.6948;
745.8000;0.5291;0.7042;
746.1000;0.5275;0.7042;
746.4000;0.5275;0.7065;
746.7000;0.5291;0.7182;
747.0000;0.5275;0.7229;
747.3000;0.5283;0.7229;
747.6000;0.5267;0.7112;
747.9000;0.5267;0.7042;
748.2000;0.5258;0.7018;
748.5000;0.5283;0.7018;
748.8000;0.5250;0.6924;
749.1000;0.5258;0.6948;
749.4000;0.5283;0.6995;
749.7000;0.5275;0.6995;
750.0000;0.5250;0.7065;
750.3000;0.5356;0.7464;
750.6000;0.5291;0.7276;
750.9000;0.5275;0.7253;
751.2000;0.5161;0.6948;
751.5000;0.5315;0.7347;
751.8000;0.5275;0.7253;
752.1000;0.5250;0.7206;
752.4000;0.5258;0.7182;
752.7000;0.5250;0.7229;
753.0000;0.5250;0.7229;
753.3000;0.5275;0.7229;
753.6000;0.5250;0.7206;
753.9000;0.5242;0.7182;
754.2000;0.5258;0.7253;
754.5000;0.5258;0.7159;
754.8000;0.5250;0.7088;
755.1000;0.5242;0.7112;
755.4000;0.5250;0.7112;
755.7000;0.5258;0.7112;
756.0000;0.5258;0.7112;
756.3000;0.5258;0.7088;
756.6000;0.5242;0.7065;
756.9000;0.5267;0.7159;
757.2000;0.5267;0.7182;
757.5000;0.5250;0.7088;
757.8000;0.5250;0.7088;
758.1000;0.5258;0.7065;
758.4000;0.5242;0.7112;
758.7000;0.5250;0.7088;
759.0000;0.5250;0.7206;
759.3000;0.5258;0.7229;
759.6000;0.5267;0.7159;
759.9000;0.5291;0.7229;
760.2000;0.5258;0.7159;
760.5000;0.5267;0.7229;
760.8000;0.5267;0.7229;
761.1000;0.5267;0.7229;
761.4000;0.5258;0.7253;
761.7000;0.5258;0.7182;
762.0000;0.5242;0.7206;
762.3000;0.5258;0.7112;
762.6000;0.5234;0.7065;
762.9000;0.5242;0.7088;
763.2000;0.5250;0.7042;
763.5000;0.5250;0.7159;
763.8000;0.5242;0.7112;
764.1000;0.5177;0.7088;
764.4000;0.5258;0.7276;
764.7000;0.5250;0.7229;
765.0000;0.5242;0.7159;
765.3000;0.5356;0.7394;
765.6000;0.5258;0.7112;
765.9000;0.5267;0.7159;
766.2000;0.5242;0.7206;
766.5000;0.5250;0.7229;
766.8000;0.5234;0.7206;
767.1000;0.5250;0.7159;
767.4000;0.5275;0.7182;
767.7000;0.5242;0.7088;
768.0000;0.5234;0.7112;
768.3000;0.5169;0.6924;
768.6000;0.5242;0.7229;
768.9000;0.5242;0.7229;
769.2000;0.5283;0.7276;
769.5000;0.5258;0.7182;
769.8000;0.5258;0.7159;
770.1000;0.5234;0.7182;
770.4000;0.5250;0.7206;
770.7000;0.5250;0.7253;
771.0000;0.5250;0.7300;
771.3000;0.5226;0.7300;
771.6000;0.5250;0.7347;
771.9000;0.5258;0.7229;
772.2000;0.5250;0.7229;
772.5000;0.5234;0.7112;
772.8000;0.5218;0.7088;
773.1000;0.5242;0.7018;
773.4000;0.5234;0.7065;
773.7000;0.5226;0.7088;
774.0000;0.5242;0.7135;
774.3000;0.5242;0.7065;
774.6000;0.5210;0.6971;
774.9000;0.5242;0.6924;
775.2000;0.5234;0.6924;
775.5000;0.5242;0.6995;
775.8000;0.5234;0.7018;
776.1000;0.5250;0.6948;
776.4000;0.5234;0.6877;
776.7000;0.5242;0.6877;
777.0000;0.5242;0.6830;
777.3000;0.5242;0.6971;
777.6000;0.5234;0.6971;
777.9000;0.5210;0.6877;
778.2000;0.5291;0.7112;
778.5000;0.5218;0.6924;
778.8000;0.5218;0.6901;
779.1000;0.5234;0.6948;
779.4000;0.5242;0.7042;
779.7000;0.5242;0.7112;
780.0000;0.5267;0.7159;
780.3000;0.5299;0.7206;
780.6000;0.5234;0.7088;
780.9000;0.5267;0.7135;
781.2000;0.5242;0.7065;
781.5000;0.5234;0.7088;
781.8000;0.5226;0.7088;
782.1000;0.5226;0.7018;
782.4000;0.5242;0.7088;
782.7000;0.5242;0.7088;
783.0000;0.5234;0.7135;
783.3000;0.5242;0.7088;
783.6000;0.5234;0.7018;
783.9000;0.5234;0.7042;
784.2000;0.5250;0.7159;
784.5000;0.5234;0.7065;
784.8000;0.5201;0.6948;
785.1000;0.5234;0.6971;
785.4000;0.5218;0.7018;
785.7000;0.5234;0.7065;
786.0000;0.5234;0.7088;
786.3000;0.5210;0.7088;
786.6000;0.5234;0.7088;
786.9000;0.5218;0.7065;
787.2000;0.5210;0.7088;
787.5000;0.5226;0.7088;
787.8000;0.5210;0.7042;
788.1000;0.5218;0.6971;
788.4000;0.5226;0.6948;
788.7000;0.5218;0.6901;
789.0000;0.5226;0.6948;
789.3000;0.5234;0.6971;
789.6000;0.5234;0.7042;
789.9000;0.5258;0.7159;
790.2000;0.5226;0.7088;
790.5000;0.5218;0.7088;
790.8000;0.5234;0.7065;
791.1000;0.5226;0.7065;
791.4000;0.5226;0.7065;
791.7000;0.5226;0.7065;
792.0000;0.5136;0.6783;
792.3000;0.5250;0.6971;
792.6000;0.5218;0.6901;
792.9000;0.5210;0.6924;
793.2000;0.5242;0.7042;
793.5000;0.5185;0.6948;
793.8000;0.5234;0.6995;
794.1000;0.5210;0.6901;
794.4000;0.5226;0.6971;
794.7000;0.5210;0.6995;
795.0000;0.5234;0.7042;
795.3000;0.5226;0.7018;
795.6000;0.5234;0.6948;
795.9000;0.5234;0.7018;
796.2000;0.5218;0.7065;
796.5000;0.5226;0.6924;
796.8000;0.5226;0.6971;
797.1000;0.5210;0.6971;
797.4000;0.5218;0.7065;
797.7000;0.5218;0.7018;
798.0000;0.5226;0.7042;
798.3000;0.5201;0.7018;
798.6000;0.5218;0.7135;
798.9000;0.5210;0.7159;
799.2000;0.5144;0.6877;
799.5000;0.5201;0.7065;
799.8000;0.5201;0.7042;
800.1000;0.5226;0.7112;
800.4000;0.5218;0.7112;
800.7000;0.5201;0.7065;
801.0000;0.5234;0.7159;
801.3000;0.5210;0.7112;
801.6000;0.5201;0.7112;
801.9000;0.5201;0.7088;
802.2000;0.5136;0.6924;
802.5000;0.5218;0.7088;
802.8000;0.5218;0.7112;
803.1000;0.5185;0.7088;
803.4000;0.5201;0.7112;
803.7000;0.5226;0.7159;
804.0000;0.5267;0.7229;
804.3000;0.5250;0.7229;
804.6000;0.5210;0.7112;
804.9000;0.5226;0.7112;
805.2000;0.5226;0.7088;
805.5000;0.5201;0.7065;
805.8000;0.5193;0.7018;
806.1000;0.5234;0.7112;
806.4000;0.5210;0.7042;
806.7000;0.5201;0.7018;
807.0000;0.5218;0.6924;
807.3000;0.5201;0.6948;
807.6000;0.5218;0.7042;
807.9000;0.5210;0.7018;
808.2000;0.5234;0.7065;
808.5000;0.5267;0.7135;
808.8000;0.5218;0.7065;
809.1000;0.5218;0.7182;
809.4000;0.5210;0.7182;
809.7000;0.5218;0.7182;
810.0000;0.5218;0.7135;
810.3000;0.5218;0.7135;
810.6000;0.5218;0.7159;
810.9000;0.5193;0.7088;
811.2000;0.5226;0.7088;
811.5000;0.5210;0.7088;
811.8000;0.5201;0.7182;
812.1000;0.5079;0.6830;
812.4000;0.5177;0.7088;
812.7000;0.5210;0.7042;
813.0000;0.5193;0.6995;
813.3000;0.5193;0.6995;
813.6000;0.5185;0.7065;
813.9000;0.5226;0.7112;
814.2000;0.5210;0.7112;
814.5000;0.5185;0.7042;
814.8000;0.5201;0.6948;
815.1000;0.5226;0.6948;
815.4000;0.5234;0.6971;
815.7000;0.5193;0.6854;
816.0000;0.5193;0.6854;
816.3000;0.5201;0.6995;
816.6000;0.5210;0.7088;
816.9000;0.5218;0.7018;
817.2000;0.5201;0.6901;
817.5000;0.5193;0.6830;
817.8000;0.5193;0.6783;
818.1000;0.5210;0.6760;
818.4000;0.5193;0.6619;
818.7000;0.5218;0.6596;
819.0000;0.5210;0.6549;
819.3000;0.5226;0.6619;
819.6000;0.5226;0.6713;
819.9000;0.5210;0.6666;
820.2000;0.5218;0.6713;
820.5000;0.5193;0.6760;
820.8000;0.5201;0.6807;
821.1000;0.5201;0.6783;
821.4000;0.5210;0.6901;
821.7000;0.5218;0.6948;
822.0000;0.5185;0.6901;
822.3000;0.5210;0.7042;
822.6000;0.5307;0.7300;
822.9000;0.5193;0.7042;
823.2000;0.5201;0.7065;
823.5000;0.5193;0.6995;
823.8000;0.5193;0.6971;
824.1000;0.5201;0.7042;
824.4000;0.5226;0.7065;
824.7000;0.5210;0.7065;
825.0000;0.5153;0.6995;
825.3000;0.5112;0.6948;
825.6000;0.5193;0.7135;
825.9000;0.5185;0.7065;
826.2000;0.5210;0.7135;
826.5000;0.5177;0.7088;
826.8000;0.5177;0.7065;
827.1000;0.5161;0.7018;
827.4000;0.5210;0.7042;
827.7000;0.5185;0.7018;
828.0000;0.5193;0.7065;
828.3000;0.5201;0.7065;
828.6000;0.5201;0.7112;
828.9000;0.5177;0.7112;
829.2000;0.5177;0.7135;
829.5000;0.5185;0.7135;
829.8000;0.5201;0.7135;
830.1000;0.5201;0.7253;
830.4000;0.5193;0.7229;
830.7000;0.5234;0.7276;
831.0000;0.5169;0.7112;
831.3000;0.5185;0.7042;
831.6000;0.5177;0.6948;
831.9000;0.5185;0.6995;
832.2000;0.5201;0.7088;
832.5000;0.5177;0.7018;
832.8000;0.5201;0.7112;
833.1000;0.5161;0.7088;
833.4000;0.5193;0.7182;
833.7000;0.5120;0.7042;
834.0000;0.5177;0.7229;
834.3000;0.5193;0.7276;
834.6000;0.5193;0.7253;
834.9000;0.5185;0.7206;
835.2000;0.5177;0.7135;
835.5000;0.5193;0.7112;
835.8000;0.5193;0.7042;
836.1000;0.5169;0.6948;
836.4000;0.5193;0.7018;
836.7000;0.5177;0.7042;
837.0000;0.5185;0.6995;
837.3000;0.5185;0.6924;
837.6000;0.5177;0.6995;
837.9000;0.5169;0.7042;
838.2000;0.5177;0.7042;
838.5000;0.5169;0.6995;
838.8000;0.5169;0.6971;
839.1000;0.5185;0.7042;
839.4000;0.5185;0.7042;
839.7000;0.5169;0.6948;
840.0000;0.5177;0.6995;
840.3000;0.5193;0.6995;
840.6000;0.5177;0.6924;
840.9000;0.5201;0.6995;
841.2000;0.5161;0.6877;
841.5000;0.5177;0.6971;
841.8000;0.5177;0.7042;
842.1000;0.5177;0.7042;
842.4000;0.5161;0.7088;
842.7000;0.5136;0.6924;
843.0000;0.5169;0.6995;
843.3000;0.5161;0.7042;
843.6000;0.5185;0.7065;
843.9000;0.5193;0.7065;
844.2000;0.5177;0.7088;
844.5000;0.5144;0.6995;
844.8000;0.5169;0.7112;
845.1000;0.5177;0.7065;
845.4000;0.5153;0.6995;
845.7000;0.5185;0.7088;
846.0000;0.5210;0.7065;
846.3000;0.5153;0.6948;
846.6000;0.5177;0.7018;
846.9000;0.5177;0.6995;
847.2000;0.5185;0.6995;
847.5000;0.5161;0.6877;
847.8000;0.5185;0.6995;
848.1000;0.5169;0.7042;
848.4000;0.5201;0.7065;
848.7000;0.5169;0.7018;
849.0000;0.5153;0.6948;
849.3000;0.5128;0.6877;
849.6000;0.5185;0.6995;
849.9000;0.5169;0.6901;
850.2000;0.5226;0.7042;
850.5000;0.5177;0.6971;
850.8000;0.5185;0.7112;
851.1000;0.5242;0.7229;
851.4000;0.5169;0.7042;
851.7000;0.5169;0.7088;
852.0000;0.5177;0.7065;
852.3000;0.5177;0.7042;
852.6000;0.5169;0.6948;
852.9000;0.5169;0.6995;
853.2000;0.5177;0.6995;
853.5000;0.5153;0.6995;
853.8000;0.5177;0.7018;
854.1000;0.5177;0.7065;
854.4000;0.5161;0.7042;
854.7000;0.5177;0.7112;
855.0000;0.5185;0.7135;
855.3000;0.5177;0.7159;
855.6000;0.5169;0.7206;
855.9000;0.5177;0.7206;
856.2000;0.5169;0.7135;
856.5000;0.5169;0.7229;
856.8000;0.5161;0.7253;
857.1000;0.5226;0.7370;
857.4000;0.5169;0.7159;
857.7000;0.5153;0.7135;
858.0000;0.5161;0.7159;
858.3000;0.5153;0.7182;
858.6000;0.5161;0.7276;
858.9000;0.5161;0.7253;
859.2000;0.5161;0.7300;
859.5000;0.5169;0.7394;
859.8000;0.5153;0.7347;
860.1000;0.5153;0.7323;
860.4000;0.5144;0.7323;
860.7000;0.5153;0.7253;
861.0000;0.5161;0.7300;
861.3000;0.5144;0.7229;
861.6000;0.5169;0.7253;
861.9000;0.5153;0.7135;
862.2000;0.5177;0.7206;
862.5000;0.5185;0.7159;
862.8000;0.5193;0.7206;
863.1000;0.5169;0.7182;
863.4000;0.5169;0.7159;
863.7000;0.5169;0.7159;
864.0000;0.5153;0.7065;
864.3000;0.5169;0.7088;
864.6000;0.5177;0.7182;
864.9000;0.5169;0.7135;
865.2000;0.5153;0.7206;
865.5000;0.5169;0.7253;
865.8000;0.5185;0.7300;
866.1000;0.5153;0.7229;
866.4000;0.5144;0.7088;
866.7000;0.5161;0.7112;
867.0000;0.5177;0.7088;
867.3000;0.5120;0.6901;
867.6000;0.5153;0.7018;
867.9000;0.5153;0.7018;
868.2000;0.5169;0.7042;
868.5000;0.5104;0.6971;
868.8000;0.5161;0.7135;
869.1000;0.5144;0.7159;
869.4000;0.5144;0.7065;
869.7000;0.5161;0.7018;
870.0000;0.5153;0.7018;
870.3000;0.5096;0.6877;
870.6000;0.5234;0.7206;
870.9000;0.5153;0.7042;
871.2000;0.5161;0.7018;
871.5000;0.5153;0.6948;
871.8000;0.5161;0.6901;
872.1000;0.5153;0.6971;
872.4000;0.5161;0.7042;
872.7000;0.5144;0.7112;
873.0000;0.5144;0.7112;
873.3000;0.5144;0.7112;
873.6000;0.5153;0.7182;
873.9000;0.5144;0.7182;
874.2000;0.5144;0.7206;
874.5000;0.5136;0.7135;
874.8000;0.5169;0.7206;
875.1000;0.5153;0.7088;
875.4000;0.5153;0.7088;
875.7000;0.5153;0.7135;
876.0000;0.5161;0.7088;
876.3000;0.5144;0.7112;
876.6000;0.5161;0.7135;
876.9000;0.5153;0.7065;
877.2000;0.5136;0.7018;
877.5000;0.5128;0.7112;
877.8000;0.5153;0.7065;
878.1000;0.5234;0.7347;
878.4000;0.5169;0.7253;
878.7000;0.5144;0.7253;
879.0000;0.5161;0.7300;
879.3000;0.5153;0.7323;
879.6000;0.5153;0.7276;
879.9000;0.5153;0.7276;
880.2000;0.5153;0.7229;
880.5000;0.5153;0.7347;
880.8000;0.5153;0.7323;
881.1000;0.5242;0.7558;
881.4000;0.5161;0.7206;
881.7000;0.5136;0.7112;
882.0000;0.5136;0.7135;
882.3000;0.5128;0.7135;
882.6000;0.5153;0.7112;
882.9000;0.5185;0.7229;
883.2000;0.5144;0.7182;
883.5000;0.5136;0.7182;
883.8000;0.5153;0.7229;
884.1000;0.5144;0.7159;
884.4000;0.5088;0.7018;
884.7000;0.5136;0.7159;
885.0000;0.5136;0.7112;
885.3000;0.5144;0.7088;
885.6000;0.5161;0.7135;
885.9000;0.5136;0.7135;
886.2000;0.5210;0.7229;
886.5000;0.5144;0.7065;
886.8000;0.5177;0.7135;
887.1000;0.5144;0.7065;
887.4000;0.5136;0.7088;
887.7000;0.5153;0.7088;
888.0000;0.5136;0.7042;
888.3000;0.5128;0.7065;
888.6000;0.5144;0.7206;
888.9000;0.5144;0.7159;
889.2000;0.5136;0.7135;
889.5000;0.5144;0.7182;
889.8000;0.5144;0.7253;
890.1000;0.5153;0.7300;
890.4000;0.5128;0.7159;
890.7000;0.5169;0.7135;
891.0000;0.5128;0.7018;
891.3000;0.5144;0.6995;
891.6000;0.5153;0.7018;
891.9000;0.5136;0.7065;
892.2000;0.5120;0.7088;
892.5000;0.5047;0.6924;
892.8000;0.5144;0.7135;
893.1000;0.5120;0.7018;
893.4000;0.5144;0.7065;
893.7000;0.5136;0.7018;
894.0000;0.5144;0.7135;
894.3000;0.5112;0.7065;
894.6000;0.5128;0.7112;
894.9000;0.5153;0.7088;
895.2000;0.5144;0.7159;
895.5000;0.5128;0.7112;
895.8000;0.5136;0.7065;
896.1000;0.5136;0.7088;
896.4000;0.5128;0.7065;
896.7000;0.5136;0.6995;
897.0000;0.5185;0.7182;
897.3000;0.5144;0.7159;
897.6000;0.5153;0.7206;
897.9000;0.5144;0.7182;
898.2000;0.5128;0.7159;
898.5000;0.5153;0.7276;
898.8000;0.5136;0.7323;
899.1000;0.5120;0.7347;
899.4000;0.5234;0.7675;
899.7000;0.5128;0.7300;
900.0000;0.5153;0.7347;
900.3000;0.5136;0.7206;
900.6000;0.5112;0.7253;
900.9000;0.5120;0.7229;
901.2000;0.5120;0.7182;
901.5000;0.5128;0.7182;
901.8000;0.5144;0.7229;
902.1000;0.5144;0.7323;
902.4000;0.5128;0.7370;
902.7000;0.5128;0.7347;
903.0000;0.5128;0.7253;
903.3000;0.5128;0.7276;
903.6000;0.5128;0.7300;
903.9000;0.5169;0.7370;
904.2000;0.5136;0.7276;
904.5000;0.5120;0.7206;
904.8000;0.5128;0.7253;
905.1000;0.5128;0.7206;
905.4000;0.5120;0.7253;
905.7000;0.5112;0.7229;
906.0000;0.5055;0.7112;
906.3000;0.5104;0.7229;
906.6000;0.5120;0.7229;
906.9000;0.5071;0.6995;
907.2000;0.5112;0.7088;
907.5000;0.5120;0.7135;
907.8000;0.5120;0.7182;
908.1000;0.5120;0.7229;
908.4000;0.5136;0.7276;
908.7000;0.5112;0.7206;
909.0000;0.5128;0.7229;
909.3000;0.5096;0.7182;
909.6000;0.5120;0.7300;
909.9000;0.5112;0.7229;
910.2000;0.5128;0.7229;
910.5000;0.5128;0.7253;
910.8000;0.5104;0.7182;
911.1000;0.5112;0.7229;
911.4000;0.5112;0.7135;
911.7000;0.5112;0.7088;
912.0000;0.5112;0.7088;
912.3000;0.5104;0.7112;
912.6000;0.5136;0.7206;
912.9000;0.5096;0.7135;
913.2000;0.5104;0.7253;
913.5000;0.5104;0.7253;
913.8000;0.5104;0.7135;
914.1000;0.5120;0.7159;
914.4000;0.5120;0.7088;
914.7000;0.5014;0.6971;
915.0000;0.5128;0.7276;
915.3000;0.5112;0.7323;
915.6000;0.5071;0.7206;
915.9000;0.5128;0.7323;
916.2000;0.5104;0.7276;
916.5000;0.5055;0.7042;
916.8000;0.5096;0.7135;
917.1000;0.5104;0.7135;
917.4000;0.5079;0.7135;
917.7000;0.5104;0.7135;
918.0000;0.5120;0.7135;
918.3000;0.5104;0.7159;
918.6000;0.5104;0.7182;
918.9000;0.5120;0.7112;
919.2000;0.5088;0.7065;
919.5000;0.5112;0.7135;
919.8000;0.5104;0.7112;
920.1000;0.5079;0.7018;
920.4000;0.5088;0.7088;
920.7000;0.5104;0.7253;
921.0000;0.5112;0.7206;
921.3000;0.5096;0.7229;
921.6000;0.5088;0.7182;
921.9000;0.5104;0.7276;
922.2000;0.5088;0.7276;
922.5000;0.5112;0.7276;
922.8000;0.5079;0.7206;
923.1000;0.5128;0.7206;
923.4000;0.5031;0.6995;
923.7000;0.5120;0.7182;
924.0000;0.5096;0.7300;
924.3000;0.5104;0.7323;
924.6000;0.5161;0.7464;
924.9000;0.5104;0.7276;
925.2000;0.5128;0.7300;
925.5000;0.5120;0.7347;
925.8000;0.5120;0.7347;
926.1000;0.5112;0.7300;
926.4000;0.5185;0.7417;
926.7000;0.5112;0.7253;
927.0000;0.5120;0.7323;
927.3000;0.5104;0.7300;
927.6000;0.5088;0.7347;
927.9000;0.5104;0.7488;
928.2000;0.5088;0.7488;
928.5000;0.5088;0.7417;
928.8000;0.5088;0.7417;
929.1000;0.5104;0.7370;
929.4000;0.5104;0.7370;
929.7000;0.5153;0.7464;
930.0000;0.5096;0.7323;
930.3000;0.5104;0.7370;
930.6000;0.5120;0.7441;
930.9000;0.5088;0.7347;
931.2000;0.5096;0.7417;
931.5000;0.5088;0.7394;
931.8000;0.5104;0.7488;
932.1000;0.5096;0.7464;
932.4000;0.5096;0.7417;
932.7000;0.5096;0.7417;
933.0000;0.5120;0.7511;
933.3000;0.5096;0.7558;
933.6000;0.5071;0.7581;
933.9000;0.5104;0.7581;
934.2000;0.5112;0.7605;
934.5000;0.5104;0.7605;
934.8000;0.5104;0.7534;
935.1000;0.5096;0.7534;
935.4000;0.5104;0.7534;
935.7000;0.5096;0.7441;
936.0000;0.5088;0.7417;
936.3000;0.5096;0.7511;
936.6000;0.5096;0.7652;
936.9000;0.5079;0.7605;
937.2000;0.5088;0.7581;
937.5000;0.5079;0.7581;
937.8000;0.5088;0.7605;
938.1000;0.5104;0.7675;
938.4000;0.5112;0.7558;
938.7000;0.5079;0.7534;
939.0000;0.5088;0.7605;
939.3000;0.5055;0.7511;
939.6000;0.5047;0.7441;
939.9000;0.5088;0.7464;
940.2000;0.5079;0.7511;
940.5000;0.5039;0.7417;
940.8000;0.5079;0.7534;
941.1000;0.5088;0.7534;
941.4000;0.5104;0.7605;
941.7000;0.5079;0.7605;
942.0000;0.5022;0.7441;
942.3000;0.5096;0.7628;
942.6000;0.5071;0.7511;
942.9000;0.5088;0.7605;
943.2000;0.5112;0.7628;
943.5000;0.5096;0.7581;
943.8000;0.5088;0.7605;
944.1000;0.4998;0.7300;
944.4000;0.5104;0.7511;
944.7000;0.5104;0.7488;
945.0000;0.5088;0.7511;
945.3000;0.5088;0.7511;
945.6000;0.5079;0.7441;
945.9000;0.5071;0.7488;
946.2000;0.5088;0.7581;
946.5000;0.5079;0.7488;
946.8000;0.5079;0.7534;
947.1000;0.5104;0.7558;
947.4000;0.5079;0.7464;
947.7000;0.5096;0.7581;
948.0000;0.5096;0.7488;
948.3000;0.5120;0.7488;
948.6000;0.5128;0.7417;
948.9000;0.5079;0.7276;
949.2000;0.5079;0.7276;
949.5000;0.5088;0.7417;
949.8000;0.5079;0.7323;
950.1000;0.5071;0.7417;
950.4000;0.5079;0.7441;
950.7000;0.5088;0.7464;
951.0000;0.5055;0.7370;
951.3000;0.5096;0.7511;
951.6000;0.5063;0.7323;
951.9000;0.5079;0.7182;
952.2000;0.5088;0.7159;
952.5000;0.5071;0.7159;
952.8000;0.5071;0.7088;
953.1000;0.5096;0.7323;
953.4000;0.5071;0.7300;
953.7000;0.5096;0.7300;
954.0000;0.5071;0.7323;
954.3000;0.5047;0.7253;
954.6000;0.5079;0.7370;
954.9000;0.5088;0.7276;
955.2000;0.5088;0.7276;
955.5000;0.5063;0.7229;
955.8000;0.5104;0.7300;
956.1000;0.5071;0.7206;
956.4000;0.5071;0.7229;
956.7000;0.5063;0.7276;
957.0000;0.5063;0.7276;
957.3000;0.5079;0.7323;
957.6000;0.5063;0.7323;
957.9000;0.5071;0.7394;
958.2000;0.5079;0.7464;
958.5000;0.5088;0.7464;
958.8000;0.5079;0.7394;
959.1000;0.5079;0.7417;
959.4000;0.5096;0.7370;
959.7000;0.5079;0.7323;
960.0000;0.5063;0.7276;
960.3000;0.5055;0.7182;
960.6000;0.5055;0.7182;
960.9000;0.5079;0.7253;
961.2000;0.5063;0.7229;
961.5000;0.5079;0.7229;
961.8000;0.5063;0.7182;
962.1000;0.5079;0.7182;
962.4000;0.5096;0.7206;
962.7000;0.4990;0.6924;
963.0000;0.5063;0.7206;
963.3000;0.5169;0.7511;
963.6000;0.5071;0.7276;
963.9000;0.5071;0.7300;
964.2000;0.5071;0.7300;
964.5000;0.5047;0.7159;
964.8000;0.5079;0.7182;
965.1000;0.5063;0.7159;
965.4000;0.5079;0.7159;
965.7000;0.5055;0.7182;
966.0000;0.5144;0.7229;
966.3000;0.5063;0.7112;
966.6000;0.5071;0.7065;
966.9000;0.5071;0.7042;
967.2000;0.5031;0.7065;
967.5000;0.5071;0.7135;
967.8000;0.5071;0.7135;
968.1000;0.5022;0.7042;
968.4000;0.5063;0.7088;
968.7000;0.5120;0.7159;
969.0000;0.5071;0.7065;
969.3000;0.5055;0.6924;
969.6000;0.5063;0.7018;
969.9000;0.5063;0.7065;
970.2000;0.5071;0.7112;
970.5000;0.5071;0.7159;
970.8000;0.4998;0.7018;
971.1000;0.5071;0.7135;
971.4000;0.5088;0.7159;
971.7000;0.5055;0.7088;
972.0000;0.5039;0.7042;
972.3000;0.5071;0.7159;
972.6000;0.5055;0.7159;
972.9000;0.5104;0.7347;
973.2000;0.5047;0.7253;
973.5000;0.5006;0.7065;
973.8000;0.5055;0.7276;
974.1000;0.5071;0.7229;
974.4000;0.5063;0.7206;
974.7000;0.5055;0.7182;
975.0000;0.5047;0.7182;
975.3000;0.5047;0.7182;
975.6000;0.5104;0.7253;
975.9000;0.5047;0.7159;
976.2000;0.5055;0.7112;
976.5000;0.5047;0.7159;
976.8000;0.5047;0.7229;
977.1000;0.5055;0.7300;
977.4000;0.5047;0.7253;
977.7000;0.5055;0.7182;
978.0000;0.5047;0.7065;
978.3000;0.5031;0.6924;
978.6000;0.5039;0.6948;
978.9000;0.5047;0.6995;
979.2000;0.5071;0.7135;
979.5000;0.5079;0.7088;
979.8000;0.5055;0.7135;
980.1000;0.5063;0.7182;
980.4000;0.5055;0.7159;
980.7000;0.5039;0.7088;
981.0000;0.5039;0.7182;
981.3000;0.5071;0.7300;
981.6000;0.5039;0.7206;
981.9000;0.5047;0.7253;
982.2000;0.5055;0.7182;
982.5000;0.5055;0.7182;
982.8000;0.5047;0.7135;
983.1000;0.5031;0.7042;
983.4000;0.5039;0.7065;
983.7000;0.5071;0.7135;
984.0000;0.5071;0.7182;
984.3000;0.5096;0.7276;
984.6000;0.5063;0.7253;
984.9000;0.5055;0.7206;
985.2000;0.5063;0.7135;
985.5000;0.5039;0.7065;
985.8000;0.5063;0.7112;
986.1000;0.5039;0.7065;
986.4000;0.5014;0.7018;
986.7000;0.5088;0.7112;
987.0000;0.5063;0.6995;
987.3000;0.5063;0.6995;
987.6000;0.5039;0.6877;
987.9000;0.5047;0.6901;
988.2000;0.5071;0.7018;
988.5000;0.5063;0.7042;
988.8000;0.5079;0.7182;
989.1000;0.5031;0.6971;
989.4000;0.5063;0.7088;
989.7000;0.5047;0.7018;
990.0000;0.5014;0.6995;
990.3000;0.5079;0.7065;
990.6000;0.5047;0.7088;
990.9000;0.5055;0.7135;
991.2000;0.5063;0.7206;
991.5000;0.5039;0.7206;
991.8000;0.5039;0.7206;
992.1000;0.5039;0.7159;
992.4000;0.5047;0.7182;
992.7000;0.5039;0.7229;
993.0000;0.5063;0.7276;
993.3000;0.5031;0.7253;
993.6000;0.5047;0.7253;
993.9000;0.5047;0.7253;
994.2000;0.4990;0.7135;
994.5000;0.5039;0.7300;
994.8000;0.5063;0.7347;
995.1000;0.5039;0.7206;
995.4000;0.5039;0.7206;
995.7000;0.5047;0.7159;
996.0000;0.5055;0.7182;
996.3000;0.5039;0.7159;
996.6000;0.5031;0.7159;
996.9000;0.5039;0.7206;
997.2000;0.5014;0.7300;
997.5000;0.5022;0.7464;
997.8000;0.5039;0.7558;
998.1000;0.4998;0.7464;
998.4000;0.5022;0.7441;
998.7000;0.5022;0.7441;
999.0000;0.5022;0.7394;
999.3000;0.5055;0.7417;
999.6000;0.5047;0.7417;
999.9000;0.5031;0.7323;
1000.2000;0.5047;0.7441;
1000.5000;0.5047;0.7417;
1000.8000;0.5047;0.7417;
1001.1000;0.5088;0.7464;
1001.4000;0.5031;0.7323;
1001.7000;0.5047;0.7323;
1002.0000;0.5022;0.7253;
1002.3000;0.4998;0.7112;
1002.6000;0.5031;0.7347;
1002.9000;0.5022;0.7370;
1003.2000;0.5031;0.7323;
1003.5000;0.5031;0.7323;
1003.8000;0.5088;0.7464;
1004.1000;0.5039;0.7394;
1004.4000;0.5031;0.7370;
1004.7000;0.5039;0.7394;
1005.0000;0.5039;0.7417;
1005.3000;0.5047;0.7441;
1005.6000;0.5031;0.7464;
1005.9000;0.5014;0.7488;
1006.2000;0.5022;0.7464;
1006.5000;0.5022;0.7417;
1006.8000;0.5071;0.7534;
1007.1000;0.5031;0.7488;
1007.4000;0.5031;0.7511;
1007.7000;0.5022;0.7581;
1008.0000;0.5039;0.7534;
1008.3000;0.5031;0.7464;
1008.6000;0.5039;0.7370;
1008.9000;0.5031;0.7347;
1009.2000;0.5022;0.7300;
1009.5000;0.5022;0.7417;
1009.8000;0.5031;0.7441;
1010.1000;0.5014;0.7417;
1010.4000;0.5047;0.7370;
1010.7000;0.5039;0.7347;
1011.0000;0.5031;0.7347;
1011.3000;0.5014;0.7323;
1011.6000;0.5039;0.7417;
1011.9000;0.5031;0.7488;
1012.2000;0.4990;0.7394;
1012.5000;0.5006;0.7441;
1012.8000;0.5006;0.7441;
1013.1000;0.5039;0.7464;
1013.4000;0.5022;0.7394;
1013.7000;0.5022;0.7488;
1014.0000;0.5055;0.7558;
1014.3000;0.5063;0.7558;
1014.6000;0.4998;0.7394;
1014.9000;0.5047;0.7394;
1015.2000;0.5022;0.7276;
1015.5000;0.4998;0.7300;
1015.8000;0.5006;0.7276;
1016.1000;0.5055;0.7347;
1016.4000;0.4998;0.7229;
1016.7000;0.4957;0.7065;
1017.0000;0.5014;0.7229;
1017.3000;0.5022;0.7276;
1017.6000;0.5006;0.7206;
1017.9000;0.5006;0.7300;
1018.2000;0.5006;0.7323;
1018.5000;0.4990;0.7276;
1018.8000;0.5014;0.7323;
1019.1000;0.5014;0.7323;
1019.4000;0.5006;0.7347;
1019.7000;0.5022;0.7417;
1020.0000;0.5014;0.7394;
1020.3000;0.5014;0.7323;
1020.6000;0.5006;0.7276;
1020.9000;0.5006;0.7253;
1021.2000;0.5014;0.7253;
1021.5000;0.4974;0.7135;
1021.8000;0.5006;0.7276;
1022.1000;0.4998;0.7182;
1022.4000;0.5031;0.7206;
1022.7000;0.5047;0.7300;
1023.0000;0.5039;0.7347;
1023.3000;0.5039;0.7370;
1023.6000;0.5006;0.7300;
1023.9000;0.5063;0.7464;
1024.2000;0.5022;0.7394;
1024.5000;0.5014;0.7323;
1024.8000;0.5055;0.7417;
1025.1000;0.5022;0.7370;
1025.4000;0.5022;0.7300;
1025.7000;0.5022;0.7276;
1026.0000;0.5014;0.7276;
1026.3000;0.4998;0.7206;
1026.6000;0.5014;0.7206;
1026.9000;0.5039;0.7229;
1027.2000;0.5006;0.7159;
1027.5000;0.5014;0.7135;
1027.8000;0.4990;0.7159;
1028.1000;0.5022;0.7300;
1028.4000;0.5022;0.7276;
1028.7000;0.5014;0.7253;
1029.0000;0.5031;0.7276;
1029.3000;0.4974;0.7253;
1029.6000;0.5006;0.7347;
1029.9000;0.5014;0.7323;
1030.2000;0.4998;0.7300;
1030.5000;0.5031;0.7347;
1030.8000;0.5014;0.7370;
1031.1000;0.5006;0.7441;
1031.4000;0.5014;0.7347;
1031.7000;0.5006;0.7347;
1032.0000;0.5039;0.7394;
1032.3000;0.4998;0.7323;
1032.6000;0.4990;0.7300;
1032.9000;0.5006;0.7276;
1033.2000;0.4998;0.7276;
1033.5000;0.5006;0.7300;
1033.8000;0.4957;0.7229;
1034.1000;0.5006;0.7347;
1034.4000;0.5006;0.7347;
1034.7000;0.5022;0.7394;
1035.0000;0.5047;0.7417;
1035.3000;0.5014;0.7276;
1035.6000;0.4982;0.7206;
1035.9000;0.5006;0.7347;
1036.2000;0.4982;0.7347;
1036.5000;0.5006;0.7441;
1036.8000;0.4998;0.7417;
1037.1000;0.5031;0.7464;
1037.4000;0.5055;0.7558;
1037.7000;0.5031;0.7441;
1038.0000;0.5006;0.7276;
1038.3000;0.5006;0.7300;
1038.6000;0.5006;0.7276;
1038.9000;0.5014;0.7323;
1039.2000;0.4998;0.7370;
1039.5000;0.5031;0.7488;
1039.8000;0.5006;0.7417;
1040.1000;0.5006;0.7394;
1040.4000;0.4990;0.7323;
1040.7000;0.5006;0.7276;
1041.0000;0.5014;0.7276;
1041.3000;0.4998;0.7253;
1041.6000;0.5006;0.7253;
1041.9000;0.5006;0.7300;
1042.2000;0.5006;0.7370;
1042.5000;0.5039;0.7370;
1042.8000;0.5014;0.7276;
1043.1000;0.5006;0.7206;
1043.4000;0.5006;0.7229;
1043.7000;0.5014;0.7253;
1044.0000;0.4998;0.7206;
1044.3000;0.5014;0.7253;
1044.6000;0.4998;0.7206;
1044.9000;0.5014;0.7253;
1045.2000;0.4990;0.7182;
1045.5000;0.4990;0.7182;
1045.8000;0.5014;0.7253;
1046.1000;0.4974;0.7276;
1046.4000;0.5088;0.7511;
1046.7000;0.4982;0.7253;
1047.0000;0.4990;0.7276;
1047.3000;0.5006;0.7323;
1047.6000;0.5006;0.7370;
1047.9000;0.5006;0.7441;
1048.2000;0.4941;0.7441;
1048.5000;0.4998;0.7464;
1048.8000;0.4998;0.7417;
1049.1000;0.4982;0.7417;
1049.4000;0.4998;0.7417;
1049.7000;0.4998;0.7394;
1050.0000;0.4990;0.7370;
1050.3000;0.4990;0.7394;
1050.6000;0.4990;0.7394;
1050.9000;0.4998;0.7441;
1051.2000;0.5006;0.7488;
1051.5000;0.4998;0.7464;
1051.8000;0.4982;0.7488;
1052.1000;0.4990;0.7511;
1052.4000;0.5006;0.7511;
1052.7000;0.4990;0.7417;
1053.0000;0.4998;0.7347;
1053.3000;0.4990;0.7323;
1053.6000;0.4990;0.7347;
1053.9000;0.5014;0.7394;
1054.2000;0.4990;0.7300;
1054.5000;0.4990;0.7370;
1054.8000;0.4998;0.7464;
1055.1000;0.4998;0.7464;
1055.4000;0.5014;0.7488;
1055.7000;0.4982;0.7347;
1056.0000;0.5014;0.7464;
1056.3000;0.4998;0.7394;
1056.6000;0.4982;0.7347;
1056.9000;0.5031;0.7394;
1057.2000;0.4957;0.7300;
1057.5000;0.4998;0.7394;
1057.8000;0.5071;0.7558;
1058.1000;0.4982;0.7347;
1058.4000;0.4974;0.7347;
1058.7000;0.4974;0.7347;
1059.0000;0.5055;0.7488;
1059.3000;0.4990;0.7253;
1059.6000;0.4990;0.7276;
1059.9000;0.4990;0.7253;
1060.2000;0.4965;0.7229;
1060.5000;0.4974;0.7300;
1060.8000;0.4982;0.7394;
1061.1000;0.4990;0.7347;
1061.4000;0.4974;0.7229;
1061.7000;0.4965;0.7182;
1062.0000;0.4982;0.7206;
1062.3000;0.4990;0.7182;
1062.6000;0.4982;0.7206;
1062.9000;0.4982;0.7206;
1063.2000;0.4965;0.7135;
1063.5000;0.4990;0.7229;
1063.8000;0.4982;0.7229;
1064.1000;0.4965;0.7182;
1064.4000;0.4998;0.7229;
1064.7000;0.4933;0.7018;
1065.0000;0.4990;0.7206;
1065.3000;0.4974;0.7182;
1065.6000;0.4982;0.7253;
1065.9000;0.4941;0.7182;
1066.2000;0.4982;0.7276;
1066.5000;0.4990;0.7276;
1066.8000;0.4957;0.7135;
1067.1000;0.4974;0.7159;
1067.4000;0.4982;0.7159;
1067.7000;0.4990;0.7159;
1068.0000;0.4982;0.7159;
1068.3000;0.4982;0.7112;
1068.6000;0.4990;0.7088;
1068.9000;0.4990;0.7135;
1069.2000;0.4974;0.7088;
1069.5000;0.4974;0.7042;
1069.8000;0.4982;0.7088;
1070.1000;0.4982;0.7159;
1070.4000;0.4982;0.7253;
1070.7000;0.4974;0.7276;
1071.0000;0.4990;0.7370;
1071.3000;0.4965;0.7441;
1071.6000;0.5071;0.7746;
1071.9000;0.4965;0.7534;
1072.2000;0.4941;0.7441;
1072.5000;0.4965;0.7511;
1072.8000;0.4949;0.7488;
1073.1000;0.4965;0.7511;
1073.4000;0.4965;0.7441;
1073.7000;0.4974;0.7394;
1074.0000;0.4965;0.7370;
1074.3000;0.4965;0.7370;
1074.6000;0.4965;0.7441;
1074.9000;0.4982;0.7417;
1075.2000;0.4965;0.7300;
1075.5000;0.4974;0.7276;
1075.8000;0.4990;0.7370;
1076.1000;0.4965;0.7323;
1076.4000;0.4957;0.7276;
1076.7000;0.4949;0.7370;
1077.0000;0.4965;0.7394;
1077.3000;0.4949;0.7300;
1077.6000;0.4965;0.7394;
1077.9000;0.4990;0.7370;
1078.2000;0.4965;0.7276;
1078.5000;0.4974;0.7229;
1078.8000;0.4965;0.7253;
1079.1000;0.4982;0.7276;
1079.4000;0.4949;0.7206;
1079.7000;0.4974;0.7229;
1080.0000;0.4965;0.7253;
1080.3000;0.4982;0.7276;
1080.6000;0.4892;0.7065;
1080.9000;0.4982;0.7182;
1081.2000;0.4982;0.7159;
1081.5000;0.4982;0.7135;
1081.8000;0.5014;0.7370;
1082.1000;0.4941;0.7206;
1082.4000;0.4974;0.7323;
1082.7000;0.4949;0.7229;
1083.0000;0.4990;0.7300;
1083.3000;0.4957;0.7276;
1083.6000;0.4974;0.7300;
1083.9000;0.4965;0.7253;
1084.2000;0.4974;0.7370;
1084.5000;0.4982;0.7323;
1084.8000;0.5055;0.7605;
1085.1000;0.4965;0.7370;
1085.4000;0.4982;0.7394;
1085.7000;0.4949;0.7417;
1086.0000;0.4949;0.7441;
1086.3000;0.4965;0.7441;
1086.6000;0.4957;0.7370;
1086.9000;0.4974;0.7370;
1087.2000;0.4957;0.7323;
1087.5000;0.4957;0.7300;
1087.8000;0.4974;0.7347;
1088.1000;0.4957;0.7323;
1088.4000;0.4957;0.7347;
1088.7000;0.4941;0.7300;
1089.0000;0.4957;0.7253;
1089.3000;0.4990;0.7300;
1089.6000;0.4949;0.7182;
1089.9000;0.4949;0.7206;
1090.2000;0.4974;0.7253;
1090.5000;0.4949;0.7276;
1090.8000;0.4957;0.7300;
1091.1000;0.4957;0.7347;
1091.4000;0.4949;0.7347;
1091.7000;0.4957;0.7300;
1092.0000;0.4957;0.7276;
1092.3000;0.4957;0.7253;
1092.6000;0.4965;0.7300;
1092.9000;0.4965;0.7347;
1093.2000;0.4957;0.7370;
1093.5000;0.4957;0.7347;
1093.8000;0.4949;0.7300;
1094.1000;0.4949;0.7253;
1094.4000;0.4998;0.7394;
1094.7000;0.4933;0.7347;
1095.0000;0.4957;0.7347;
1095.3000;0.4892;0.7042;
1095.6000;0.4941;0.7182;
1095.9000;0.4933;0.7135;
1096.2000;0.4957;0.7135;
1096.5000;0.4949;0.7206;
1096.8000;0.4990;0.7276;
1097.1000;0.4957;0.7253;
1097.4000;0.4884;0.7088;
1097.7000;0.4965;0.7276;
1098.0000;0.4949;0.7323;
1098.3000;0.4957;0.7417;
1098.6000;0.4965;0.7488;
1098.9000;0.5039;0.7652;
1099.2000;0.4965;0.7441;
1099.5000;0.4941;0.7464;
1099.8000;0.4957;0.7441;
1100.1000;0.4941;0.7347;
1100.4000;0.4949;0.7394;
1100.7000;0.4957;0.7394;
1101.0000;0.4949;0.7370;
1101.3000;0.4949;0.7370;
1101.6000;0.4868;0.7135;
1101.9000;0.4949;0.7370;
1102.2000;0.4941;0.7347;
1102.5000;0.4949;0.7370;
1102.8000;0.4949;0.7417;
1103.1000;0.4949;0.7347;
1103.4000;0.4933;0.7417;
1103.7000;0.4957;0.7441;
1104.0000;0.4957;0.7488;
1104.3000;0.4957;0.7511;
1104.6000;0.4957;0.7511;
1104.9000;0.4925;0.7464;
1105.2000;0.4933;0.7464;
1105.5000;0.4965;0.7534;
1105.8000;0.4933;0.7511;
1106.1000;0.4933;0.7441;
1106.4000;0.4941;0.7464;
1106.7000;0.4949;0.7441;
1107.0000;0.5006;0.7511;
1107.3000;0.4941;0.7347;
1107.6000;0.4957;0.7417;
1107.9000;0.4941;0.7464;
1108.2000;0.4949;0.7488;
1108.5000;0.4949;0.7417;
1108.8000;0.4925;0.7394;
1109.1000;0.4949;0.7394;
1109.4000;0.4957;0.7464;
1109.7000;0.4941;0.7488;
1110.0000;0.4965;0.7511;
1110.3000;0.4949;0.7464;
1110.6000;0.4892;0.7253;
1110.9000;0.4933;0.7370;
1111.2000;0.4941;0.7394;
1111.5000;0.4933;0.7417;
1111.8000;0.4941;0.7441;
1112.1000;0.5006;0.7652;
1112.4000;0.4933;0.7488;
1112.7000;0.4925;0.7417;
1113.0000;0.4949;0.7417;
1113.3000;0.4917;0.7300;
1113.6000;0.4933;0.7323;
1113.9000;0.4917;0.7370;
1114.2000;0.4957;0.7511;
1114.5000;0.4965;0.7534;
1114.8000;0.4925;0.7488;
1115.1000;0.4949;0.7558;
1115.4000;0.4933;0.7558;
1115.7000;0.4925;0.7534;
1116.0000;0.4941;0.7581;
1116.3000;0.4933;0.7511;
1116.6000;0.4908;0.7417;
1116.9000;0.4933;0.7441;
1117.2000;0.4941;0.7464;
1117.5000;0.4900;0.7441;
1117.8000;0.4998;0.7605;
1118.1000;0.4851;0.7253;
1118.4000;0.4917;0.7370;
1118.7000;0.4933;0.7394;
1119.0000;0.4835;0.7135;
1119.3000;0.4949;0.7464;
1119.6000;0.4941;0.7464;
1119.9000;0.4917;0.7511;
1120.2000;0.4917;0.7488;
1120.5000;0.4933;0.7558;
1120.8000;0.4933;0.7581;
1121.1000;0.4925;0.7605;
1121.4000;0.4908;0.7534;
1121.7000;0.4933;0.7441;
1122.0000;0.4941;0.7441;
1122.3000;0.4933;0.7464;
1122.6000;0.4941;0.7488;
1122.9000;0.4941;0.7464;
1123.2000;0.4933;0.7441;
1123.5000;0.4933;0.7464;
1123.8000;0.4974;0.7488;
1124.1000;0.4933;0.7370;
1124.4000;0.4925;0.7323;
1124.7000;0.4908;0.7253;
1125.0000;0.4933;0.7347;
1125.3000;0.4925;0.7300;
1125.6000;0.4925;0.7323;
1125.9000;0.4917;0.7347;
1126.2000;0.4917;0.7347;
1126.5000;0.4892;0.7253;
1126.8000;0.4925;0.7347;
1127.1000;0.4933;0.7441;
1127.4000;0.4908;0.7417;
1127.7000;0.4925;0.7441;
1128.0000;0.4949;0.7534;
1128.3000;0.4933;0.7464;
1128.6000;0.4949;0.7534;
1128.9000;0.4917;0.7417;
1129.2000;0.4908;0.7417;
1129.5000;0.4925;0.7464;
1129.8000;0.4925;0.7441;
1130.1000;0.4876;0.7276;
1130.4000;0.4908;0.7370;
1130.7000;0.4933;0.7394;
1131.0000;0.4925;0.7417;
1131.3000;0.4908;0.7370;
1131.6000;0.4925;0.7276;
1131.9000;0.4917;0.7182;
1132.2000;0.4917;0.7182;
1132.5000;0.4925;0.7229;
1132.8000;0.4908;0.7135;
1133.1000;0.4908;0.7135;
1133.4000;0.4941;0.7159;
1133.7000;0.4917;0.7159;
1134.0000;0.4908;0.7229;
1134.3000;0.4933;0.7300;
1134.6000;0.4941;0.7253;
1134.9000;0.4917;0.7182;
1135.2000;0.4868;0.7065;
1135.5000;0.4925;0.7182;
1135.8000;0.4917;0.7182;
1136.1000;0.4908;0.7300;
1136.4000;0.4908;0.7370;
1136.7000;0.4917;0.7417;
1137.0000;0.4925;0.7441;
1137.3000;0.4884;0.7417;
1137.6000;0.4925;0.7605;
1137.9000;0.4908;0.7511;
1138.2000;0.4917;0.7534;
1138.5000;0.4892;0.7417;
1138.8000;0.4908;0.7394;
1139.1000;0.4917;0.7370;
1139.4000;0.4900;0.7323;
1139.7000;0.4892;0.7323;
1140.0000;0.4908;0.7323;
1140.3000;0.4892;0.7229;
1140.6000;0.4900;0.7370;
1140.9000;0.4917;0.7394;
1141.2000;0.4917;0.7347;
1141.5000;0.4917;0.7276;
1141.8000;0.4917;0.7253;
1142.1000;0.4917;0.7206;
1142.4000;0.4827;0.6948;
1142.7000;0.4884;0.7135;
1143.0000;0.4900;0.7229;
1143.3000;0.4900;0.7229;
1143.6000;0.4827;0.7088;
1143.9000;0.4900;0.7253;
1144.2000;0.4908;0.7253;
1144.5000;0.4900;0.7206;
1144.8000;0.4917;0.7135;
1145.1000;0.4900;0.7206;
1145.4000;0.4892;0.7159;
1145.7000;0.4876;0.7182;
1146.0000;0.4900;0.7253;
1146.3000;0.4908;0.7276;
1146.6000;0.4900;0.7300;
1146.9000;0.4892;0.7323;
1147.2000;0.4892;0.7347;
1147.5000;0.4876;0.7323;
1147.8000;0.4827;0.7159;
1148.1000;0.4892;0.7253;
1148.4000;0.4835;0.7042;
1148.7000;0.4908;0.7253;
1149.0000;0.4908;0.7253;
1149.3000;0.4908;0.7300;
1149.6000;0.4917;0.7347;
1149.9000;0.4908;0.7347;
1150.2000;0.4900;0.7276;
1150.5000;0.4892;0.7229;
1150.8000;0.4908;0.7276;
1151.1000;0.4892;0.7182;
1151.4000;0.4917;0.7229;
1151.7000;0.4917;0.7300;
1152.0000;0.4917;0.7347;
1152.3000;0.4908;0.7441;
1152.6000;0.4860;0.7370;
1152.9000;0.4884;0.7464;
1153.2000;0.4900;0.7488;
1153.5000;0.4900;0.7558;
1153.8000;0.4957;0.7581;
1154.1000;0.4917;0.7417;
1154.4000;0.4900;0.7394;
1154.7000;0.4884;0.7300;
1155.0000;0.4892;0.7300;
1155.3000;0.4860;0.7276;
1155.6000;0.4884;0.7347;
1155.9000;0.4884;0.7441;
1156.2000;0.4876;0.7441;
1156.5000;0.4900;0.7488;
1156.8000;0.4900;0.7464;
1157.1000;0.4900;0.7394;
1157.4000;0.4925;0.7394;
1157.7000;0.4884;0.7370;
1158.0000;0.4892;0.7323;
1158.3000;0.4892;0.7300;
1158.6000;0.4908;0.7323;
1158.9000;0.4900;0.7347;
1159.2000;0.4933;0.7511;
1159.5000;0.4900;0.7464;
1159.8000;0.4900;0.7511;
1160.1000;0.4900;0.7511;
1160.4000;0.4884;0.7511;
1160.7000;0.4900;0.7534;
1161.0000;0.4900;0.7488;
1161.3000;0.4835;0.7229;
1161.6000;0.4908;0.7347;
1161.9000;0.4892;0.7276;
1162.2000;0.4917;0.7323;
1162.5000;0.4892;0.7229;
1162.8000;0.4908;0.7229;
1163.1000;0.4900;0.7182;
1163.4000;0.4908;0.7229;
1163.7000;0.4892;0.7182;
1164.0000;0.4900;0.7229;
1164.3000;0.4917;0.7229;
1164.6000;0.4884;0.7182;
1164.9000;0.4892;0.7206;
1165.2000;0.4884;0.7253;
1165.5000;0.4884;0.7253;
1165.8000;0.4884;0.7276;
1166.1000;0.4892;0.7323;
1166.4000;0.4900;0.7464;
1166.7000;0.4917;0.7534;
1167.0000;0.4900;0.7464;
1167.3000;0.4884;0.7488;
1167.6000;0.4892;0.7488;
1167.9000;0.4908;0.7558;
1168.2000;0.4876;0.7417;
1168.5000;0.4884;0.7464;
1168.8000;0.4900;0.7441;
1169.1000;0.4876;0.7347;
1169.4000;0.4851;0.7347;
1169.7000;0.4884;0.7511;
1170.0000;0.4884;0.7581;
1170.3000;0.4884;0.7558;
1170.6000;0.4851;0.7511;
1170.9000;0.4876;0.7534;
1171.2000;0.4892;0.7581;
1171.5000;0.4868;0.7605;
1171.8000;0.4868;0.7581;
1172.1000;0.4876;0.7534;
1172.4000;0.4884;0.7605;
1172.7000;0.4892;0.7699;
1173.0000;0.4900;0.7746;
1173.3000;0.4851;0.7628;
1173.6000;0.4868;0.7628;
1173.9000;0.4868;0.7628;
1174.2000;0.4876;0.7511;
1174.5000;0.4892;0.7581;
1174.8000;0.4876;0.7605;
1175.1000;0.4860;0.7511;
1175.4000;0.4876;0.7605;
1175.7000;0.4868;0.7534;
1176.0000;0.4860;0.7488;
1176.3000;0.4860;0.7394;
1176.6000;0.4876;0.7394;
1176.9000;0.4892;0.7441;
1177.2000;0.4892;0.7464;
1177.5000;0.4876;0.7417;
1177.8000;0.4900;0.7558;
1178.1000;0.4868;0.7441;
1178.4000;0.4876;0.7488;
1178.7000;0.4868;0.7488;
1179.0000;0.4868;0.7534;
1179.3000;0.4868;0.7534;
1179.6000;0.4876;0.7511;
1179.9000;0.4868;0.7464;
1180.2000;0.4851;0.7534;
1180.5000;0.4884;0.7534;
1180.8000;0.4876;0.7464;
1181.1000;0.4843;0.7370;
1181.4000;0.4876;0.7394;
1181.7000;0.4876;0.7488;
1182.0000;0.4892;0.7511;
1182.3000;0.4876;0.7441;
1182.6000;0.4876;0.7417;
1182.9000;0.4868;0.7394;
1183.2000;0.4860;0.7370;
1183.5000;0.4868;0.7300;
1183.8000;0.4884;0.7347;
1184.1000;0.4868;0.7347;
1184.4000;0.4860;0.7323;
1184.7000;0.4860;0.7323;
1185.0000;0.4868;0.7417;
1185.3000;0.4884;0.7347;
1185.6000;0.4892;0.7276;
1185.9000;0.4860;0.7300;
1186.2000;0.4851;0.7229;
1186.5000;0.4868;0.7300;
1186.8000;0.4884;0.7347;
1187.1000;0.4884;0.7417;
1187.4000;0.4811;0.7253;
1187.7000;0.4868;0.7370;
1188.0000;0.4876;0.7394;
1188.3000;0.4868;0.7394;
1188.6000;0.4876;0.7276;
1188.9000;0.4827;0.7206;
1189.2000;0.4876;0.7300;
1189.5000;0.4884;0.7347;
1189.8000;0.4876;0.7276;
1190.1000;0.4851;0.7229;
1190.4000;0.4876;0.7276;
1190.7000;0.4868;0.7300;
1191.0000;0.4851;0.7323;
1191.3000;0.4843;0.7347;
1191.6000;0.4876;0.7370;
1191.9000;0.4868;0.7394;
1192.2000;0.4860;0.7417;
1192.5000;0.4868;0.7581;
1192.8000;0.4851;0.7558;
1193.1000;0.4876;0.7534;
1193.4000;0.4868;0.7464;
1193.7000;0.4860;0.7441;
1194.0000;0.4868;0.7394;
1194.3000;0.4876;0.7464;
1194.6000;0.4884;0.7464;
1194.9000;0.4868;0.7464;
1195.2000;0.4876;0.7464;
1195.5000;0.4908;0.7534;
1195.8000;0.4884;0.7488;
1196.1000;0.4876;0.7488;
1196.4000;0.4860;0.7441;
1196.7000;0.4860;0.7441;
1197.0000;0.4868;0.7464;
1197.3000;0.4884;0.7558;
1197.6000;0.4868;0.7511;
1197.9000;0.4876;0.7488;
1198.2000;0.4868;0.7441;
1198.5000;0.4851;0.7417;
1198.8000;0.4851;0.7394;
1199.1000;0.4860;0.7464;
1199.4000;0.4860;0.7464;
1199.7000;0.4908;0.7581;
1200.0000;0.4860;0.7488;
1200.3000;0.4851;0.7464;
1200.6000;0.4860;0.7534;
1200.9000;0.4851;0.7581;
1201.2000;0.4851;0.7605;
1201.5000;0.4835;0.7581;
1201.8000;0.4860;0.7675;
1202.1000;0.4851;0.7628;
1202.4000;0.4868;0.7628;
1202.7000;0.4860;0.7581;
1203.0000;0.4868;0.7628;
1203.3000;0.4892;0.7746;
1203.6000;0.4851;0.7605;
1203.9000;0.4851;0.7722;
1204.2000;0.4803;0.7605;
1204.5000;0.4860;0.7628;
1204.8000;0.4851;0.7558;
1205.1000;0.4794;0.7417;
1205.4000;0.4827;0.7581;
1205.7000;0.4843;0.7581;
1206.0000;0.4835;0.7581;
1206.3000;0.4835;0.7417;
1206.6000;0.4835;0.7370;
1206.9000;0.4860;0.7488;
1207.2000;0.4860;0.7581;
1207.5000;0.4884;0.7722;
1207.8000;0.4851;0.7675;
1208.1000;0.4851;0.7628;
1208.4000;0.4843;0.7605;
1208.7000;0.4860;0.7652;
1209.0000;0.4851;0.7605;
1209.3000;0.4835;0.7605;
1209.6000;0.4827;0.7699;
1209.9000;0.4843;0.7699;
1210.2000;0.4908;0.7840;
1210.5000;0.4876;0.7722;
1210.8000;0.4860;0.7699;
1211.1000;0.4843;0.7722;
1211.4000;0.4884;0.7722;
1211.7000;0.4843;0.7605;
1212.0000;0.4876;0.7793;
1212.3000;0.4868;0.7722;
1212.6000;0.4908;0.7863;
1212.9000;0.4803;0.7558;
1213.2000;0.4860;0.7675;
1213.5000;0.4851;0.7652;
1213.8000;0.4843;0.7675;
1214.1000;0.4843;0.7581;
1214.4000;0.4860;0.7581;
1214.7000;0.4851;0.7581;
1215.0000;0.4843;0.7558;
1215.3000;0.4835;0.7534;
1215.6000;0.4843;0.7605;
1215.9000;0.4860;0.7769;
1216.2000;0.4851;0.7746;
1216.5000;0.4835;0.7722;
1216.8000;0.4860;0.7769;
1217.1000;0.4892;0.7863;
1217.4000;0.4851;0.7699;
1217.7000;0.4851;0.7675;
1218.0000;0.4851;0.7699;
1218.3000;0.4860;0.7675;
1218.6000;0.4868;0.7652;
1218.9000;0.4843;0.7534;
1219.2000;0.4835;0.7464;
1219.5000;0.4843;0.7464;
1219.8000;0.4835;0.7488;
1220.1000;0.4843;0.7558;
1220.4000;0.4860;0.7605;
1220.7000;0.4778;0.7394;
1221.0000;0.4835;0.7534;
1221.3000;0.4843;0.7534;
1221.6000;0.4835;0.7581;
1221.9000;0.4835;0.7488;
1222.2000;0.4851;0.7441;
1222.5000;0.4851;0.7394;
1222.8000;0.4860;0.7394;
1223.1000;0.4892;0.7417;
1223.4000;0.4868;0.7370;
1223.7000;0.4851;0.7347;
1224.0000;0.4794;0.7206;
1224.3000;0.4827;0.7370;
1224.6000;0.4884;0.7488;
1224.9000;0.4860;0.7417;
1225.2000;0.4900;0.7581;
1225.5000;0.4827;0.7347;
1225.8000;0.4843;0.7323;
1226.1000;0.4851;0.7347;
1226.4000;0.4860;0.7417;
1226.7000;0.4868;0.7441;
1227.0000;0.4851;0.7417;
1227.3000;0.4770;0.7229;
1227.6000;0.4851;0.7394;
1227.9000;0.4851;0.7370;
1228.2000;0.4851;0.7417;
1228.5000;0.4851;0.7441;
1228.8000;0.4851;0.7534;
1229.1000;0.4851;0.7558;
1229.4000;0.4835;0.7558;
1229.7000;0.4835;0.7581;
1230.0000;0.4827;0.7628;
1230.3000;0.4851;0.7652;
1230.6000;0.4827;0.7628;
1230.9000;0.4851;0.7652;
1231.2000;0.4827;0.7558;
1231.5000;0.4843;0.7652;
1231.8000;0.4811;0.7581;
1232.1000;0.4843;0.7699;
1232.4000;0.4884;0.7793;
1232.7000;0.4835;0.7746;
1233.0000;0.4819;0.7746;
1233.3000;0.4835;0.7746;
1233.6000;0.4835;0.7769;
1233.9000;0.4843;0.7769;
1234.2000;0.4835;0.7722;
1234.5000;0.4778;0.7605;
1234.8000;0.4835;0.7722;
1235.1000;0.4835;0.7769;
1235.4000;0.4794;0.7652;
1235.7000;0.4819;0.7675;
1236.0000;0.4835;0.7628;
1236.3000;0.4892;0.7746;
1236.6000;0.4835;0.7628;
1236.9000;0.4860;0.7699;
1237.2000;0.4827;0.7605;
1237.5000;0.4827;0.7581;
1237.8000;0.4827;0.7581;
1238.1000;0.4835;0.7628;
1238.4000;0.4835;0.7605;
1238.7000;0.4819;0.7558;
1239.0000;0.4827;0.7581;
1239.3000;0.4827;0.7605;
1239.6000;0.4827;0.7581;
1239.9000;0.4827;0.7534;
1240.2000;0.4835;0.7558;
1240.5000;0.4794;0.7534;
1240.8000;0.4827;0.7511;
1241.1000;0.4851;0.7558;
1241.4000;0.4843;0.7558;
1241.7000;0.4835;0.7581;
1242.0000;0.4827;0.7605;
1242.3000;0.4786;0.7464;
1242.6000;0.4835;0.7652;
1242.9000;0.4843;0.7699;
1243.2000;0.4811;0.7628;
1243.5000;0.4835;0.7605;
1243.8000;0.4827;0.7628;
1244.1000;0.4835;0.7628;
1244.4000;0.4884;0.7769;
1244.7000;0.4778;0.7488;
1245.0000;0.4770;0.7511;
1245.3000;0.4827;0.7605;
1245.6000;0.4827;0.7558;
1245.9000;0.4811;0.7394;
1246.2000;0.4819;0.7300;
1246.5000;0.4819;0.7300;
1246.8000;0.4819;0.7253;
1247.1000;0.4851;0.7417;
1247.4000;0.4827;0.7253;
1247.7000;0.4835;0.7417;
1248.0000;0.4843;0.7417;
1248.3000;0.4794;0.7347;
1248.6000;0.4811;0.7464;
1248.9000;0.4827;0.7534;
1249.2000;0.4835;0.7511;
1249.5000;0.4827;0.7534;
1249.8000;0.4835;0.7605;
1250.1000;0.4835;0.7558;
1250.4000;0.4827;0.7488;
1250.7000;0.4770;0.7253;
1251.0000;0.4811;0.7347;
1251.3000;0.4843;0.7464;
1251.6000;0.4819;0.7464;
1251.9000;0.4803;0.7417;
1252.2000;0.4925;0.7746;
1252.5000;0.4803;0.7417;
1252.8000;0.4827;0.7441;
1253.1000;0.4876;0.7628;
1253.4000;0.4827;0.7605;
1253.7000;0.4819;0.7581;
1254.0000;0.4835;0.7581;
1254.3000;0.4819;0.7534;
1254.6000;0.4835;0.7534;
1254.9000;0.4819;0.7441;
1255.2000;0.4835;0.7511;
1255.5000;0.4819;0.7511;
1255.8000;0.4827;0.7558;
1256.1000;0.4819;0.7581;
1256.4000;0.4827;0.7605;
1256.7000;0.4843;0.7628;
1257.0000;0.4843;0.7628;
1257.3000;0.4876;0.7722;
1257.6000;0.4803;0.7464;
1257.9000;0.4786;0.7370;
1258.2000;0.4737;0.7276;
1258.5000;0.4811;0.7534;
1258.8000;0.4811;0.7534;
1259.1000;0.4819;0.7652;
1259.4000;0.4819;0.7722;
1259.7000;0.4835;0.7816;
1260.0000;0.4819;0.7699;
1260.3000;0.4819;0.7699;
1260.6000;0.4827;0.7699;
1260.9000;0.4827;0.7628;
1261.2000;0.4811;0.7628;
1261.5000;0.4860;0.7746;
1261.8000;0.4843;0.7675;
1262.1000;0.4762;0.7464;
1262.4000;0.4835;0.7652;
1262.7000;0.4835;0.7652;
1263.0000;0.4803;0.7652;
1263.3000;0.4843;0.7793;
1263.6000;0.4811;0.7746;
1263.9000;0.4754;0.7581;
1264.2000;0.4819;0.7769;
1264.5000;0.4843;0.7769;
1264.8000;0.4803;0.7605;
1265.1000;0.4786;0.7628;
1265.4000;0.4794;0.7628;
1265.7000;0.4803;0.7628;
1266.0000;0.4737;0.7370;
1266.3000;0.4827;0.7581;
1266.6000;0.4803;0.7534;
1266.9000;0.4835;0.7605;
1267.2000;0.4794;0.7511;
1267.5000;0.4868;0.7675;
1267.8000;0.4819;0.7558;
1268.1000;0.4803;0.7534;
1268.4000;0.4794;0.7511;
1268.7000;0.4803;0.7534;
1269.0000;0.4762;0.7464;
1269.3000;0.4811;0.7488;
1269.6000;0.4827;0.7488;
1269.9000;0.4778;0.7417;
1270.2000;0.4819;0.7605;
1270.5000;0.4819;0.7558;
1270.8000;0.4803;0.7605;
1271.1000;0.4778;0.7558;
1271.4000;0.4803;0.7558;
1271.7000;0.4819;0.7652;
1272.0000;0.4803;0.7699;
1272.3000;0.4876;0.7863;
1272.6000;0.4811;0.7699;
1272.9000;0.4811;0.7699;
1273.2000;0.4827;0.7675;
1273.5000;0.4786;0.7558;
1273.8000;0.4794;0.7605;
1274.1000;0.4851;0.7746;
1274.4000;0.4803;0.7605;
1274.7000;0.4794;0.7605;
1275.0000;0.4803;0.7699;
1275.3000;0.4884;0.8027;
1275.6000;0.4811;0.7816;
1275.9000;0.4803;0.7816;
1276.2000;0.4803;0.7746;
1276.5000;0.4778;0.7699;
1276.8000;0.4803;0.7769;
1277.1000;0.4794;0.7840;
1277.4000;0.4786;0.7746;
1277.7000;0.4803;0.7793;
1278.0000;0.4803;0.7746;
1278.3000;0.4794;0.7675;
1278.6000;0.4803;0.7722;
1278.9000;0.4803;0.7722;
1279.2000;0.4803;0.7699;
1279.5000;0.4794;0.7628;
1279.8000;0.4778;0.7558;
1280.1000;0.4843;0.7722;
1280.4000;0.4786;0.7628;
1280.7000;0.4689;0.7370;
1281.0000;0.4803;0.7652;
1281.3000;0.4835;0.7628;
1281.6000;0.4754;0.7464;
1281.9000;0.4827;0.7581;
1282.2000;0.4794;0.7417;
1282.5000;0.4794;0.7488;
1282.8000;0.4811;0.7558;
1283.1000;0.4778;0.7511;
1283.4000;0.4737;0.7370;
1283.7000;0.4794;0.7534;
1284.0000;0.4803;0.7558;
1284.3000;0.4794;0.7581;
1284.6000;0.4770;0.7558;
1284.9000;0.4746;0.7464;
1285.2000;0.4770;0.7534;
1285.5000;0.4794;0.7534;
1285.8000;0.4770;0.7464;
1286.1000;0.4778;0.7488;
1286.4000;0.4778;0.7511;
1286.7000;0.4778;0.7581;
1287.0000;0.4794;0.7699;
1287.3000;0.4770;0.7652;
1287.6000;0.4778;0.7699;
1287.9000;0.4762;0.7628;
1288.2000;0.4811;0.7722;
1288.5000;0.4835;0.7722;
1288.8000;0.4803;0.7581;
1289.1000;0.4786;0.7558;
1289.4000;0.4794;0.7675;
1289.7000;0.4811;0.7746;
1290.0000;0.4803;0.7699;
1290.3000;0.4778;0.7699;
1290.6000;0.4794;0.7699;
1290.9000;0.4794;0.7652;
1291.2000;0.4786;0.7675;
1291.5000;0.4794;0.7675;
1291.8000;0.4835;0.7769;
1292.1000;0.4803;0.7746;
1292.4000;0.4786;0.7746;
1292.7000;0.4786;0.7652;
1293.0000;0.4794;0.7605;
1293.3000;0.4794;0.7558;
1293.6000;0.4786;0.7605;
1293.9000;0.4819;0.7699;
1294.2000;0.4803;0.7769;
1294.5000;0.4778;0.7816;
1294.8000;0.4778;0.7722;
1295.1000;0.4721;0.7581;
1295.4000;0.4770;0.7628;
1295.7000;0.4794;0.7581;
1296.0000;0.4786;0.7652;
1296.3000;0.4851;0.7840;
1296.6000;0.4778;0.7605;
1296.9000;0.4786;0.7628;
1297.2000;0.4794;0.7675;
1297.5000;0.4794;0.7746;
1297.8000;0.4786;0.7675;
1298.1000;0.4794;0.7652;
1298.4000;0.4786;0.7628;
1298.7000;0.4778;0.7675;
1299.0000;0.4794;0.7581;
1299.3000;0.4672;0.7229;
1299.6000;0.4819;0.7628;
1299.9000;0.4778;0.7581;
1300.2000;0.4786;0.7511;
1300.5000;0.4762;0.7464;
1300.8000;0.4746;0.7417;
1301.1000;0.4803;0.7581;
1301.4000;0.4794;0.7534;
1301.7000;0.4705;0.7394;
1302.0000;0.4794;0.7628;
1302.3000;0.4754;0.7558;
1302.6000;0.4770;0.7534;
1302.9000;0.4811;0.7581;
1303.2000;0.4754;0.7464;
1303.5000;0.4786;0.7464;
1303.8000;0.4778;0.7534;
1304.1000;0.4778;0.7581;
1304.4000;0.4803;0.7699;
1304.7000;0.4770;0.7628;
1305.0000;0.4794;0.7722;
1305.3000;0.4811;0.7746;
1305.6000;0.4786;0.7675;
1305.9000;0.4786;0.7675;
1306.2000;0.4770;0.7605;
1306.5000;0.4778;0.7652;
1306.8000;0.4778;0.7605;
1307.1000;0.4762;0.7605;
1307.4000;0.4721;0.7534;
1307.7000;0.4746;0.7511;
1308.0000;0.4754;0.7511;
1308.3000;0.4778;0.7605;
1308.6000;0.4794;0.7652;
1308.9000;0.4803;0.7605;
1309.2000;0.4762;0.7628;
1309.5000;0.4778;0.7605;
1309.8000;0.4778;0.7511;
1310.1000;0.4786;0.7488;
1310.4000;0.4762;0.7394;
1310.7000;0.4794;0.7441;
1311.0000;0.4786;0.7441;
1311.3000;0.4786;0.7417;
1311.6000;0.4762;0.7347;
1311.9000;0.4794;0.7464;
1312.2000;0.4794;0.7511;
1312.5000;0.4803;0.7628;
1312.8000;0.4794;0.7558;
1313.1000;0.4770;0.7558;
1313.4000;0.4803;0.7605;
1313.7000;0.4746;0.7558;
1314.0000;0.4786;0.7652;
1314.3000;0.4762;0.7675;
1314.6000;0.4794;0.7746;
1314.9000;0.4729;0.7558;
1315.2000;0.4762;0.7675;
1315.5000;0.4770;0.7793;
1315.8000;0.4786;0.7793;
1316.1000;0.4770;0.7793;
1316.4000;0.4778;0.7863;
1316.7000;0.4754;0.7840;
1317.0000;0.4762;0.7933;
1317.3000;0.4762;0.7887;
1317.6000;0.4778;0.7840;
1317.9000;0.4786;0.7816;
1318.2000;0.4721;0.7699;
1318.5000;0.4762;0.7840;
1318.8000;0.4770;0.7816;
1319.1000;0.4770;0.7769;
1319.4000;0.4770;0.7722;
1319.7000;0.4754;0.7605;
1320.0000;0.4754;0.7605;
1320.3000;0.4729;0.7488;
1320.6000;0.4762;0.7675;
1320.9000;0.4754;0.7746;
1321.2000;0.4786;0.7769;
1321.5000;0.4786;0.7746;
1321.8000;0.4770;0.7746;
1322.1000;0.4843;0.7933;
1322.4000;0.4754;0.7652;
1322.7000;0.4778;0.7699;
1323.0000;0.4778;0.7699;
1323.3000;0.4843;0.7887;
1323.6000;0.4754;0.7605;
1323.9000;0.4746;0.7628;
1324.2000;0.4762;0.7628;
1324.5000;0.4770;0.7722;
1324.8000;0.4819;0.7816;
1325.1000;0.4786;0.7699;
1325.4000;0.4713;0.7558;
1325.7000;0.4786;0.7722;
1326.0000;0.4770;0.7699;
1326.3000;0.4770;0.7746;
1326.6000;0.4754;0.7722;
1326.9000;0.4762;0.7769;
1327.2000;0.4746;0.7769;
1327.5000;0.4770;0.7863;
1327.8000;0.4762;0.7793;
1328.1000;0.4754;0.7769;
1328.4000;0.4729;0.7652;
1328.7000;0.4762;0.7722;
1329.0000;0.4778;0.7675;
1329.3000;0.4770;0.7628;
1329.6000;0.4754;0.7581;
1329.9000;0.4803;0.7769;
1330.2000;0.4746;0.7605;
1330.5000;0.4754;0.7605;
1330.8000;0.4770;0.7628;
1331.1000;0.4835;0.7816;
1331.4000;0.4770;0.7652;
1331.7000;0.4835;0.7793;
1332.0000;0.4770;0.7558;
1332.3000;0.4770;0.7558;
1332.6000;0.4786;0.7558;
1332.9000;0.4770;0.7534;
1333.2000;0.4762;0.7441;
1333.5000;0.4762;0.7441;
1333.8000;0.4746;0.7347;
1334.1000;0.4754;0.7370;
1334.4000;0.4762;0.7441;
1334.7000;0.4681;0.7253;
1335.0000;0.4762;0.7441;
1335.3000;0.4770;0.7511;
1335.6000;0.4746;0.7370;
1335.9000;0.4770;0.7441;
1336.2000;0.4778;0.7511;
1336.5000;0.4770;0.7558;
1336.8000;0.4762;0.7511;
1337.1000;0.4770;0.7534;
1337.4000;0.4705;0.7394;
1337.7000;0.4770;0.7605;
1338.0000;0.4762;0.7581;
1338.3000;0.4778;0.7558;
1338.6000;0.4762;0.7581;
1338.9000;0.4754;0.7558;
1339.2000;0.4754;0.7581;
1339.5000;0.4762;0.7534;
1339.8000;0.4746;0.7488;
1340.1000;0.4762;0.7605;
1340.4000;0.4762;0.7605;
1340.7000;0.4770;0.7628;
1341.0000;0.4762;0.7628;
1341.3000;0.4778;0.7628;
1341.6000;0.4746;0.7558;
1341.9000;0.4762;0.7652;
1342.2000;0.4746;0.7534;
1342.5000;0.4762;0.7581;
1342.8000;0.4770;0.7675;
1343.1000;0.4770;0.7699;
1343.4000;0.4754;0.7652;
1343.7000;0.4762;0.7628;
1344.0000;0.4746;0.7488;
1344.3000;0.4746;0.7488;
1344.6000;0.4737;0.7464;
1344.9000;0.4754;0.7511;
1345.2000;0.4770;0.7605;
1345.5000;0.4770;0.7675;
1345.8000;0.4754;0.7722;
1346.1000;0.4762;0.7769;
1346.4000;0.4762;0.7816;
1346.7000;0.4746;0.7769;
1347.0000;0.4762;0.7793;
1347.3000;0.4762;0.7769;
1347.6000;0.4794;0.7887;
1347.9000;0.4754;0.7816;
1348.2000;0.4746;0.7816;
1348.5000;0.4746;0.7816;
1348.8000;0.4746;0.7863;
1349.1000;0.4746;0.7863;
1349.4000;0.4681;0.7652;
1349.7000;0.4729;0.7793;
1350.0000;0.4737;0.7793;
1350.3000;0.4746;0.7722;
1350.6000;0.4729;0.7558;
1350.9000;0.4737;0.7558;
1351.2000;0.4770;0.7605;
1351.5000;0.4803;0.7628;
1351.8000;0.4729;0.7534;
1352.1000;0.4762;0.7628;
1352.4000;0.4737;0.7652;
1352.7000;0.4681;0.7558;
1353.0000;0.4746;0.7816;
1353.3000;0.4729;0.7910;
1353.6000;0.4729;0.8004;
1353.9000;0.4737;0.8027;
1354.2000;0.4754;0.8004;
1354.5000;0.4729;0.7840;
1354.8000;0.4737;0.7863;
1355.1000;0.4762;0.7910;
1355.4000;0.4762;0.7887;
1355.7000;0.4778;0.7863;
1356.0000;0.4754;0.7722;
1356.3000;0.4754;0.7769;
1356.6000;0.4746;0.7722;
1356.9000;0.4729;0.7722;
1357.2000;0.4762;0.7699;
1357.5000;0.4746;0.7675;
1357.8000;0.4762;0.7605;
1358.1000;0.4762;0.7652;
1358.4000;0.4697;0.7511;
1358.7000;0.4737;0.7699;
1359.0000;0.4762;0.7840;
1359.3000;0.4689;0.7652;
1359.6000;0.4737;0.7722;
1359.9000;0.4697;0.7605;
1360.2000;0.4737;0.7769;
1360.5000;0.4746;0.7699;
1360.8000;0.4754;0.7722;
1361.1000;0.4762;0.7793;
1361.4000;0.4737;0.7793;
1361.7000;0.4705;0.7816;
1362.0000;0.4656;0.7675;
1362.3000;0.4737;0.7840;
1362.6000;0.4713;0.7816;
1362.9000;0.4737;0.7863;
1363.2000;0.4770;0.7980;
1363.5000;0.4729;0.7863;
1363.8000;0.4835;0.8121;
1364.1000;0.4746;0.7863;
1364.4000;0.4729;0.7840;
1364.7000;0.4737;0.7863;
1365.0000;0.4705;0.7769;
1365.3000;0.4754;0.7840;
1365.6000;0.4754;0.7840;
1365.9000;0.4746;0.7840;
1366.2000;0.4737;0.7840;
1366.5000;0.4737;0.7746;
1366.8000;0.4754;0.7793;
1367.1000;0.4754;0.7769;
1367.4000;0.4713;0.7699;
1367.7000;0.4729;0.7887;
1368.0000;0.4746;0.7840;
1368.3000;0.4721;0.7793;
1368.6000;0.4737;0.7793;
1368.9000;0.4737;0.7746;
1369.2000;0.4632;0.7534;
1369.5000;0.4746;0.7816;
1369.8000;0.4713;0.7769;
1370.1000;0.4721;0.7840;
1370.4000;0.4705;0.7722;
1370.7000;0.4746;0.7957;
1371.0000;0.4737;0.7910;
1371.3000;0.4721;0.7793;
1371.6000;0.4729;0.7840;
1371.9000;0.4737;0.7863;
1372.2000;0.4737;0.7793;
1372.5000;0.4737;0.7746;
1372.8000;0.4737;0.7746;
1373.1000;0.4729;0.7793;
1373.4000;0.4721;0.7769;
1373.7000;0.4729;0.7769;
1374.0000;0.4713;0.7652;
1374.3000;0.4746;0.7722;
1374.6000;0.4672;0.7488;
1374.9000;0.4721;0.7581;
1375.2000;0.4811;0.7816;
1375.5000;0.4713;0.7464;
1375.8000;0.4737;0.7441;
1376.1000;0.4729;0.7464;
1376.4000;0.4786;0.7581;
1376.7000;0.4729;0.7441;
1377.0000;0.4713;0.7370;
1377.3000;0.4729;0.7464;
1377.6000;0.4746;0.7534;
1377.9000;0.4819;0.7746;
1378.2000;0.4721;0.7488;
1378.5000;0.4713;0.7511;
1378.8000;0.4729;0.7558;
1379.1000;0.4746;0.7488;
1379.4000;0.4721;0.7417;
1379.7000;0.4713;0.7534;
1380.0000;0.4713;0.7628;
1380.3000;0.4705;0.7652;
1380.6000;0.4729;0.7652;
1380.9000;0.4713;0.7652;
1381.2000;0.4721;0.7722;
1381.5000;0.4729;0.7722;
1381.8000;0.4737;0.7746;
1382.1000;0.4721;0.7722;
1382.4000;0.4721;0.7816;
1382.7000;0.4721;0.7746;
1383.0000;0.4729;0.7699;
1383.3000;0.4737;0.7675;
1383.6000;0.4721;0.7675;
1383.9000;0.4713;0.7675;
1384.2000;0.4721;0.7699;
1384.5000;0.4624;0.7488;
1384.8000;0.4746;0.7816;
1385.1000;0.4721;0.7769;
1385.4000;0.4721;0.7675;
1385.7000;0.4737;0.7675;
1386.0000;0.4746;0.7722;
1386.3000;0.4746;0.7699;
1386.6000;0.4729;0.7581;
1386.9000;0.4729;0.7581;
1387.2000;0.4729;0.7652;
1387.5000;0.4721;0.7699;
1387.8000;0.4721;0.7722;
1388.1000;0.4705;0.7675;
1388.4000;0.4721;0.7675;
1388.7000;0.4729;0.7699;
1389.0000;0.4721;0.7675;
1389.3000;0.4713;0.7628;
1389.6000;0.4713;0.7534;
1389.9000;0.4713;0.7605;
1390.2000;0.4729;0.7675;
1390.5000;0.4705;0.7628;
1390.8000;0.4737;0.7652;
1391.1000;0.4713;0.7675;
1391.4000;0.4705;0.7769;
1391.7000;0.4729;0.7840;
1392.0000;0.4721;0.7863;
1392.3000;0.4729;0.7863;
1392.6000;0.4729;0.7840;
1392.9000;0.4721;0.7769;
1393.2000;0.4721;0.7675;
1393.5000;0.4729;0.7652;
1393.8000;0.4705;0.7652;
1394.1000;0.4713;0.7675;
1394.4000;0.4713;0.7652;
1394.7000;0.4721;0.7722;
1395.0000;0.4713;0.7722;
1395.3000;0.4737;0.7769;
1395.6000;0.4721;0.7699;
1395.9000;0.4729;0.7675;
1396.2000;0.4729;0.7628;
1396.5000;0.4754;0.7699;
1396.8000;0.4713;0.7605;
1397.1000;0.4737;0.7605;
1397.4000;0.4697;0.7534;
1397.7000;0.4721;0.7652;
1398.0000;0.4721;0.7652;
1398.3000;0.4705;0.7699;
1398.6000;0.4705;0.7840;
1398.9000;0.4681;0.7793;
1399.2000;0.4713;0.7840;
1399.5000;0.4705;0.7840;
1399.8000;0.4713;0.7793;
