time/ms;Fluo/V;P700 deltaI/I x10³;
-199.8000;0.4322;0.8520;
-199.5000;0.4306;0.8473;
-199.2000;0.4339;0.8614;
-198.9000;0.4330;0.8567;
-198.6000;0.4290;0.8426;
-198.3000;0.4314;0.8426;
-198.0000;0.4330;0.8520;
-197.7000;0.4290;0.8379;
-197.4000;0.4339;0.8450;
-197.1000;0.4330;0.8450;
-196.8000;0.4330;0.8473;
-196.5000;0.4347;0.8473;
-196.2000;0.4339;0.8567;
-195.9000;0.4314;0.8497;
-195.6000;0.4355;0.8614;
-195.3000;0.4363;0.8591;
-195.0000;0.4355;0.8497;
-194.7000;0.4339;0.8403;
-194.4000;0.4322;0.8403;
-194.1000;0.4306;0.8403;
-193.8000;0.4404;0.8544;
-193.5000;0.4339;0.8403;
-193.2000;0.4330;0.8403;
-192.9000;0.4330;0.8450;
-192.6000;0.4330;0.8450;
-192.3000;0.4322;0.8520;
-192.0000;0.4314;0.8379;
-191.7000;0.4339;0.8379;
-191.4000;0.4355;0.8426;
-191.1000;0.4339;0.8403;
-190.8000;0.4339;0.8450;
-190.5000;0.4339;0.8426;
-190.2000;0.4355;0.8497;
-189.9000;0.4330;0.8473;
-189.6000;0.4339;0.8544;
-189.3000;0.4322;0.8450;
-189.0000;0.4322;0.8450;
-188.7000;0.4306;0.8426;
-188.4000;0.4330;0.8520;
-188.1000;0.4265;0.8356;
-187.8000;0.4314;0.8567;
-187.5000;0.4330;0.8520;
-187.2000;0.4306;0.8426;
-186.9000;0.4330;0.8450;
-186.6000;0.4339;0.8497;
-186.3000;0.4355;0.8520;
-186.0000;0.4330;0.8356;
-185.7000;0.4322;0.8332;
-185.4000;0.4330;0.8356;
-185.1000;0.4330;0.8426;
-184.8000;0.4330;0.8379;
-184.5000;0.4339;0.8356;
-184.2000;0.4347;0.8473;
-183.9000;0.4347;0.8520;
-183.6000;0.4330;0.8473;
-183.3000;0.4322;0.8426;
-183.0000;0.4322;0.8426;
-182.7000;0.4404;0.8497;
-182.4000;0.4330;0.8379;
-182.1000;0.4322;0.8286;
-181.8000;0.4339;0.8262;
-181.5000;0.4339;0.8239;
-181.2000;0.4371;0.8332;
-180.9000;0.4314;0.8192;
-180.6000;0.4330;0.8309;
-180.3000;0.4339;0.8332;
-180.0000;0.4339;0.8309;
-179.7000;0.4330;0.8332;
-179.4000;0.4330;0.8403;
-179.1000;0.4330;0.8379;
-178.8000;0.4330;0.8450;
-178.5000;0.4347;0.8567;
-178.2000;0.4347;0.8638;
-177.9000;0.4339;0.8638;
-177.6000;0.4347;0.8591;
-177.3000;0.4322;0.8497;
-177.0000;0.4330;0.8591;
-176.7000;0.4306;0.8426;
-176.4000;0.4314;0.8450;
-176.1000;0.4330;0.8497;
-175.8000;0.4322;0.8403;
-175.5000;0.4322;0.8379;
-175.2000;0.4371;0.8520;
-174.9000;0.4330;0.8497;
-174.6000;0.4306;0.8520;
-174.3000;0.4363;0.8591;
-174.0000;0.4314;0.8473;
-173.7000;0.4298;0.8450;
-173.4000;0.4322;0.8473;
-173.1000;0.4314;0.8426;
-172.8000;0.4339;0.8403;
-172.5000;0.4339;0.8262;
-172.2000;0.4290;0.8215;
-171.9000;0.4339;0.8309;
-171.6000;0.4314;0.8262;
-171.3000;0.4314;0.8215;
-171.0000;0.4322;0.8262;
-170.7000;0.4339;0.8262;
-170.4000;0.4298;0.8262;
-170.1000;0.4330;0.8332;
-169.8000;0.4265;0.8262;
-169.5000;0.4371;0.8520;
-169.2000;0.4330;0.8450;
-168.9000;0.4339;0.8473;
-168.6000;0.4379;0.8497;
-168.3000;0.4347;0.8450;
-168.0000;0.4347;0.8520;
-167.7000;0.4306;0.8520;
-167.4000;0.4322;0.8520;
-167.1000;0.4322;0.8614;
-166.8000;0.4347;0.8755;
-166.5000;0.4298;0.8614;
-166.2000;0.4347;0.8732;
-165.9000;0.4330;0.8708;
-165.6000;0.4347;0.8614;
-165.3000;0.4322;0.8497;
-165.0000;0.4339;0.8497;
-164.7000;0.4330;0.8567;
-164.4000;0.4330;0.8497;
-164.1000;0.4322;0.8403;
-163.8000;0.4322;0.8403;
-163.5000;0.4339;0.8426;
-163.2000;0.4322;0.8356;
-162.9000;0.4314;0.8356;
-162.6000;0.4355;0.8379;
-162.3000;0.4339;0.8356;
-162.0000;0.4347;0.8356;
-161.7000;0.4330;0.8379;
-161.4000;0.4347;0.8403;
-161.1000;0.4322;0.8379;
-160.8000;0.4330;0.8497;
-160.5000;0.4322;0.8497;
-160.2000;0.4355;0.8567;
-159.9000;0.4322;0.8497;
-159.6000;0.4322;0.8497;
-159.3000;0.4322;0.8473;
-159.0000;0.4322;0.8450;
-158.7000;0.4330;0.8473;
-158.4000;0.4339;0.8473;
-158.1000;0.4330;0.8403;
-157.8000;0.4330;0.8497;
-157.5000;0.4314;0.8426;
-157.2000;0.4347;0.8567;
-156.9000;0.4330;0.8544;
-156.6000;0.4306;0.8520;
-156.3000;0.4347;0.8497;
-156.0000;0.4339;0.8567;
-155.7000;0.4339;0.8544;
-155.4000;0.4306;0.8544;
-155.1000;0.4330;0.8497;
-154.8000;0.4322;0.8450;
-154.5000;0.4355;0.8473;
-154.2000;0.4347;0.8497;
-153.9000;0.4322;0.8497;
-153.6000;0.4330;0.8450;
-153.3000;0.4330;0.8497;
-153.0000;0.4330;0.8520;
-152.7000;0.4347;0.8497;
-152.4000;0.4347;0.8520;
-152.1000;0.4347;0.8638;
-151.8000;0.4306;0.8591;
-151.5000;0.4314;0.8661;
-151.2000;0.4322;0.8685;
-150.9000;0.4339;0.8638;
-150.6000;0.4339;0.8708;
-150.3000;0.4339;0.8638;
-150.0000;0.4330;0.8708;
-149.7000;0.4330;0.8685;
-149.4000;0.4330;0.8661;
-149.1000;0.4330;0.8685;
-148.8000;0.4330;0.8544;
-148.5000;0.4314;0.8497;
-148.2000;0.4339;0.8638;
-147.9000;0.4322;0.8638;
-147.6000;0.4330;0.8614;
-147.3000;0.4330;0.8638;
-147.0000;0.4347;0.8638;
-146.7000;0.4322;0.8567;
-146.4000;0.4330;0.8544;
-146.1000;0.4314;0.8473;
-145.8000;0.4347;0.8544;
-145.5000;0.4347;0.8591;
-145.2000;0.4298;0.8520;
-144.9000;0.4314;0.8567;
-144.6000;0.4314;0.8591;
-144.3000;0.4314;0.8591;
-144.0000;0.4330;0.8614;
-143.7000;0.4322;0.8685;
-143.4000;0.4322;0.8685;
-143.1000;0.4339;0.8638;
-142.8000;0.4339;0.8591;
-142.5000;0.4330;0.8567;
-142.2000;0.4339;0.8591;
-141.9000;0.4330;0.8567;
-141.6000;0.4330;0.8567;
-141.3000;0.4330;0.8497;
-141.0000;0.4322;0.8450;
-140.7000;0.4420;0.8732;
-140.4000;0.4339;0.8450;
-140.1000;0.4322;0.8473;
-139.8000;0.4347;0.8544;
-139.5000;0.4322;0.8520;
-139.2000;0.4330;0.8544;
-138.9000;0.4363;0.8544;
-138.6000;0.4355;0.8544;
-138.3000;0.4347;0.8497;
-138.0000;0.4347;0.8520;
-137.7000;0.4330;0.8497;
-137.4000;0.4298;0.8473;
-137.1000;0.4322;0.8497;
-136.8000;0.4339;0.8473;
-136.5000;0.4339;0.8403;
-136.2000;0.4339;0.8426;
-135.9000;0.4322;0.8450;
-135.6000;0.4339;0.8520;
-135.3000;0.4339;0.8497;
-135.0000;0.4314;0.8426;
-134.7000;0.4330;0.8379;
-134.4000;0.4322;0.8356;
-134.1000;0.4330;0.8379;
-133.8000;0.4322;0.8332;
-133.5000;0.4339;0.8286;
-133.2000;0.4339;0.8239;
-132.9000;0.4339;0.8356;
-132.6000;0.4347;0.8356;
-132.3000;0.4330;0.8403;
-132.0000;0.4322;0.8379;
-131.7000;0.4339;0.8450;
-131.4000;0.4339;0.8450;
-131.1000;0.4322;0.8473;
-130.8000;0.4306;0.8426;
-130.5000;0.4314;0.8473;
-130.2000;0.4330;0.8614;
-129.9000;0.4330;0.8614;
-129.6000;0.4330;0.8708;
-129.3000;0.4322;0.8614;
-129.0000;0.4339;0.8685;
-128.7000;0.4306;0.8591;
-128.4000;0.4322;0.8591;
-128.1000;0.4306;0.8614;
-127.8000;0.4412;0.8872;
-127.5000;0.4363;0.8661;
-127.2000;0.4339;0.8591;
-126.9000;0.4347;0.8614;
-126.6000;0.4314;0.8497;
-126.3000;0.4347;0.8567;
-126.0000;0.4371;0.8614;
-125.7000;0.4322;0.8403;
-125.4000;0.4314;0.8403;
-125.1000;0.4339;0.8403;
-124.8000;0.4314;0.8286;
-124.5000;0.4314;0.8168;
-124.2000;0.4339;0.8192;
-123.9000;0.4355;0.8168;
-123.6000;0.4314;0.8215;
-123.3000;0.4330;0.8403;
-123.0000;0.4322;0.8450;
-122.7000;0.4330;0.8591;
-122.4000;0.4330;0.8544;
-122.1000;0.4355;0.8638;
-121.8000;0.4322;0.8567;
-121.5000;0.4306;0.8473;
-121.2000;0.4355;0.8497;
-120.9000;0.4306;0.8356;
-120.6000;0.4322;0.8426;
-120.3000;0.4339;0.8497;
-120.0000;0.4330;0.8426;
-119.7000;0.4330;0.8450;
-119.4000;0.4363;0.8403;
-119.1000;0.4322;0.8286;
-118.8000;0.4339;0.8356;
-118.5000;0.4322;0.8332;
-118.2000;0.4322;0.8403;
-117.9000;0.4314;0.8426;
-117.6000;0.4306;0.8403;
-117.3000;0.4330;0.8426;
-117.0000;0.4322;0.8426;
-116.7000;0.4379;0.8591;
-116.4000;0.4322;0.8473;
-116.1000;0.4314;0.8497;
-115.8000;0.4314;0.8520;
-115.5000;0.4314;0.8473;
-115.2000;0.4233;0.8215;
-114.9000;0.4330;0.8309;
-114.6000;0.4314;0.8286;
-114.3000;0.4290;0.8356;
-114.0000;0.4347;0.8567;
-113.7000;0.4322;0.8473;
-113.4000;0.4339;0.8473;
-113.1000;0.4339;0.8450;
-112.8000;0.4322;0.8403;
-112.5000;0.4322;0.8426;
-112.2000;0.4322;0.8426;
-111.9000;0.4314;0.8403;
-111.6000;0.4339;0.8544;
-111.3000;0.4347;0.8473;
-111.0000;0.4347;0.8497;
-110.7000;0.4322;0.8450;
-110.4000;0.4322;0.8497;
-110.1000;0.4322;0.8567;
-109.8000;0.4330;0.8567;
-109.5000;0.4330;0.8520;
-109.2000;0.4330;0.8450;
-108.9000;0.4322;0.8379;
-108.6000;0.4322;0.8356;
-108.3000;0.4322;0.8379;
-108.0000;0.4314;0.8356;
-107.7000;0.4339;0.8379;
-107.4000;0.4347;0.8403;
-107.1000;0.4330;0.8403;
-106.8000;0.4322;0.8309;
-106.5000;0.4330;0.8379;
-106.2000;0.4330;0.8356;
-105.9000;0.4322;0.8403;
-105.6000;0.4282;0.8309;
-105.3000;0.4322;0.8497;
-105.0000;0.4322;0.8497;
-104.7000;0.4322;0.8403;
-104.4000;0.4322;0.8473;
-104.1000;0.4322;0.8567;
-103.8000;0.4306;0.8614;
-103.5000;0.4330;0.8638;
-103.2000;0.4339;0.8544;
-102.9000;0.4322;0.8497;
-102.6000;0.4347;0.8614;
-102.3000;0.4339;0.8614;
-102.0000;0.4282;0.8450;
-101.7000;0.4330;0.8544;
-101.4000;0.4322;0.8567;
-101.1000;0.4322;0.8544;
-100.8000;0.4387;0.8661;
-100.5000;0.4290;0.8614;
-100.2000;0.4339;0.8732;
-99.9000;0.4444;0.8919;
-99.6000;0.4330;0.8614;
-99.3000;0.4322;0.8638;
-99.0000;0.4339;0.8614;
-98.7000;0.4387;0.8661;
-98.4000;0.4330;0.8497;
-98.1000;0.4306;0.8403;
-97.8000;0.4306;0.8379;
-97.5000;0.4330;0.8473;
-97.2000;0.4371;0.8544;
-96.9000;0.4322;0.8450;
-96.6000;0.4347;0.8426;
-96.3000;0.4330;0.8356;
-96.0000;0.4355;0.8332;
-95.7000;0.4282;0.8145;
-95.4000;0.4339;0.8215;
-95.1000;0.4314;0.8286;
-94.8000;0.4322;0.8332;
-94.5000;0.4314;0.8309;
-94.2000;0.4347;0.8356;
-93.9000;0.4330;0.8403;
-93.6000;0.4330;0.8379;
-93.3000;0.4387;0.8520;
-93.0000;0.4322;0.8403;
-92.7000;0.4322;0.8450;
-92.4000;0.4330;0.8403;
-92.1000;0.4306;0.8473;
-91.8000;0.4404;0.8567;
-91.5000;0.4322;0.8286;
-91.2000;0.4322;0.8286;
-90.9000;0.4306;0.8309;
-90.6000;0.4347;0.8356;
-90.3000;0.4339;0.8379;
-90.0000;0.4314;0.8286;
-89.7000;0.4330;0.8309;
-89.4000;0.4330;0.8262;
-89.1000;0.4330;0.8262;
-88.8000;0.4330;0.8262;
-88.5000;0.4339;0.8356;
-88.2000;0.4314;0.8309;
-87.9000;0.4322;0.8403;
-87.6000;0.4330;0.8473;
-87.3000;0.4330;0.8403;
-87.0000;0.4322;0.8379;
-86.7000;0.4322;0.8379;
-86.4000;0.4330;0.8426;
-86.1000;0.4347;0.8567;
-85.8000;0.4339;0.8473;
-85.5000;0.4339;0.8450;
-85.2000;0.4314;0.8450;
-84.9000;0.4330;0.8497;
-84.6000;0.4322;0.8426;
-84.3000;0.4322;0.8356;
-84.0000;0.4322;0.8520;
-83.7000;0.4330;0.8520;
-83.4000;0.4330;0.8497;
-83.1000;0.4347;0.8497;
-82.8000;0.4339;0.8379;
-82.5000;0.4314;0.8473;
-82.2000;0.4314;0.8497;
-81.9000;0.4355;0.8544;
-81.6000;0.4330;0.8473;
-81.3000;0.4322;0.8450;
-81.0000;0.4233;0.8309;
-80.7000;0.4298;0.8473;
-80.4000;0.4322;0.8426;
-80.1000;0.4330;0.8544;
-79.8000;0.4330;0.8638;
-79.5000;0.4330;0.8591;
-79.2000;0.4339;0.8497;
-78.9000;0.4330;0.8544;
-78.6000;0.4347;0.8591;
-78.3000;0.4330;0.8591;
-78.0000;0.4339;0.8661;
-77.7000;0.4330;0.8638;
-77.4000;0.4322;0.8544;
-77.1000;0.4347;0.8591;
-76.8000;0.4322;0.8614;
-76.5000;0.4314;0.8638;
-76.2000;0.4330;0.8661;
-75.9000;0.4339;0.8661;
-75.6000;0.4493;0.9131;
-75.3000;0.4322;0.8661;
-75.0000;0.4314;0.8638;
-74.7000;0.4306;0.8661;
-74.4000;0.4290;0.8614;
-74.1000;0.4322;0.8732;
-73.8000;0.4314;0.8708;
-73.5000;0.4387;0.8896;
-73.2000;0.4314;0.8614;
-72.9000;0.4339;0.8591;
-72.6000;0.4322;0.8638;
-72.3000;0.4306;0.8591;
-72.0000;0.4322;0.8685;
-71.7000;0.4363;0.8825;
-71.4000;0.4379;0.8849;
-71.1000;0.4330;0.8708;
-70.8000;0.4355;0.8778;
-70.5000;0.4330;0.8778;
-70.2000;0.4274;0.8638;
-69.9000;0.4314;0.8685;
-69.6000;0.4322;0.8591;
-69.3000;0.4322;0.8614;
-69.0000;0.4322;0.8567;
-68.7000;0.4379;0.8685;
-68.4000;0.4322;0.8638;
-68.1000;0.4314;0.8638;
-67.8000;0.4314;0.8661;
-67.5000;0.4330;0.8708;
-67.2000;0.4322;0.8638;
-66.9000;0.4330;0.8732;
-66.6000;0.4339;0.8778;
-66.3000;0.4330;0.8825;
-66.0000;0.4330;0.8732;
-65.7000;0.4322;0.8685;
-65.4000;0.4339;0.8638;
-65.1000;0.4339;0.8685;
-64.8000;0.4322;0.8638;
-64.5000;0.4330;0.8732;
-64.2000;0.4330;0.8778;
-63.9000;0.4322;0.8708;
-63.6000;0.4322;0.8661;
-63.3000;0.4322;0.8661;
-63.0000;0.4330;0.8708;
-62.7000;0.4339;0.8708;
-62.4000;0.4339;0.8778;
-62.1000;0.4322;0.8732;
-61.8000;0.4339;0.8732;
-61.5000;0.4306;0.8732;
-61.2000;0.4322;0.8661;
-60.9000;0.4371;0.8732;
-60.6000;0.4322;0.8614;
-60.3000;0.4322;0.8614;
-60.0000;0.4330;0.8614;
-59.7000;0.4322;0.8567;
-59.4000;0.4412;0.8778;
-59.1000;0.4330;0.8614;
-58.8000;0.4371;0.8708;
-58.5000;0.4314;0.8473;
-58.2000;0.4363;0.8732;
-57.9000;0.4322;0.8638;
-57.6000;0.4330;0.8661;
-57.3000;0.4330;0.8685;
-57.0000;0.4347;0.8638;
-56.7000;0.4330;0.8591;
-56.4000;0.4339;0.8638;
-56.1000;0.4347;0.8661;
-55.8000;0.4330;0.8567;
-55.5000;0.4347;0.8638;
-55.2000;0.4363;0.8708;
-54.9000;0.4314;0.8591;
-54.6000;0.4330;0.8614;
-54.3000;0.4339;0.8638;
-54.0000;0.4322;0.8591;
-53.7000;0.4339;0.8614;
-53.4000;0.4339;0.8778;
-53.1000;0.4339;0.8708;
-52.8000;0.4339;0.8708;
-52.5000;0.4363;0.8802;
-52.2000;0.4363;0.8825;
-51.9000;0.4339;0.8755;
-51.6000;0.4420;0.8943;
-51.3000;0.4306;0.8661;
-51.0000;0.4339;0.8732;
-50.7000;0.4290;0.8614;
-50.4000;0.4330;0.8685;
-50.1000;0.4330;0.8661;
-49.8000;0.4322;0.8567;
-49.5000;0.4339;0.8520;
-49.2000;0.4322;0.8520;
-48.9000;0.4330;0.8544;
-48.6000;0.4396;0.8661;
-48.3000;0.4347;0.8544;
-48.0000;0.4330;0.8520;
-47.7000;0.4330;0.8497;
-47.4000;0.4306;0.8450;
-47.1000;0.4314;0.8520;
-46.8000;0.4330;0.8591;
-46.5000;0.4330;0.8591;
-46.2000;0.4330;0.8544;
-45.9000;0.4330;0.8567;
-45.6000;0.4355;0.8661;
-45.3000;0.4339;0.8520;
-45.0000;0.4347;0.8450;
-44.7000;0.4339;0.8473;
-44.4000;0.4355;0.8473;
-44.1000;0.4347;0.8520;
-43.8000;0.4322;0.8450;
-43.5000;0.4339;0.8520;
-43.2000;0.4339;0.8544;
-42.9000;0.4330;0.8544;
-42.6000;0.4339;0.8614;
-42.3000;0.4322;0.8591;
-42.0000;0.4347;0.8638;
-41.7000;0.4347;0.8614;
-41.4000;0.4339;0.8661;
-41.1000;0.4322;0.8591;
-40.8000;0.4322;0.8591;
-40.5000;0.4322;0.8544;
-40.2000;0.4330;0.8520;
-39.9000;0.4322;0.8426;
-39.6000;0.4314;0.8520;
-39.3000;0.4339;0.8614;
-39.0000;0.4339;0.8591;
-38.7000;0.4330;0.8614;
-38.4000;0.4322;0.8567;
-38.1000;0.4330;0.8520;
-37.8000;0.4330;0.8544;
-37.5000;0.4363;0.8638;
-37.2000;0.4265;0.8426;
-36.9000;0.4330;0.8497;
-36.6000;0.4355;0.8426;
-36.3000;0.4347;0.8379;
-36.0000;0.4330;0.8426;
-35.7000;0.4330;0.8544;
-35.4000;0.4306;0.8544;
-35.1000;0.4306;0.8497;
-34.8000;0.4306;0.8450;
-34.5000;0.4274;0.8426;
-34.2000;0.4330;0.8520;
-33.9000;0.4330;0.8450;
-33.6000;0.4339;0.8497;
-33.3000;0.4314;0.8450;
-33.0000;0.4322;0.8379;
-32.7000;0.4322;0.8450;
-32.4000;0.4298;0.8379;
-32.1000;0.4282;0.8379;
-31.8000;0.4322;0.8591;
-31.5000;0.4347;0.8638;
-31.2000;0.4249;0.8426;
-30.9000;0.4330;0.8544;
-30.6000;0.4339;0.8614;
-30.3000;0.4339;0.8567;
-30.0000;0.4330;0.8591;
-29.7000;0.4330;0.8685;
-29.4000;0.4314;0.8638;
-29.1000;0.4330;0.8544;
-28.8000;0.4339;0.8591;
-28.5000;0.4339;0.8638;
-28.2000;0.4339;0.8614;
-27.9000;0.4330;0.8614;
-27.6000;0.4339;0.8638;
-27.3000;0.4330;0.8638;
-27.0000;0.4322;0.8685;
-26.7000;0.4322;0.8614;
-26.4000;0.4322;0.8544;
-26.1000;0.4330;0.8520;
-25.8000;0.4306;0.8450;
-25.5000;0.4306;0.8426;
-25.2000;0.4322;0.8520;
-24.9000;0.4339;0.8520;
-24.6000;0.4330;0.8473;
-24.3000;0.4322;0.8450;
-24.0000;0.4330;0.8473;
-23.7000;0.4322;0.8567;
-23.4000;0.4322;0.8591;
-23.1000;0.4330;0.8685;
-22.8000;0.4322;0.8708;
-22.5000;0.4330;0.8661;
-22.2000;0.4314;0.8567;
-21.9000;0.4322;0.8567;
-21.6000;0.4314;0.8591;
-21.3000;0.4339;0.8685;
-21.0000;0.4330;0.8520;
-20.7000;0.4306;0.8591;
-20.4000;0.4339;0.8614;
-20.1000;0.4322;0.8567;
-19.8000;0.4322;0.8544;
-19.5000;0.4330;0.8638;
-19.2000;0.4339;0.8614;
-18.9000;0.4339;0.8638;
-18.6000;0.4322;0.8544;
-18.3000;0.4322;0.8520;
-18.0000;0.4330;0.8567;
-17.7000;0.4330;0.8614;
-17.4000;0.4330;0.8661;
-17.1000;0.4330;0.8614;
-16.8000;0.4314;0.8544;
-16.5000;0.4347;0.8661;
-16.2000;0.4314;0.8591;
-15.9000;0.4322;0.8567;
-15.6000;0.4314;0.8661;
-15.3000;0.4322;0.8661;
-15.0000;0.4290;0.8591;
-14.7000;0.4314;0.8708;
-14.4000;0.4330;0.8778;
-14.1000;0.4314;0.8708;
-13.8000;0.4241;0.8450;
-13.5000;0.4314;0.8708;
-13.2000;0.4330;0.8661;
-12.9000;0.4322;0.8638;
-12.6000;0.4339;0.8591;
-12.3000;0.4330;0.8473;
-12.0000;0.4339;0.8497;
-11.7000;0.4322;0.8520;
-11.4000;0.4330;0.8520;
-11.1000;0.4330;0.8661;
-10.8000;0.4330;0.8614;
-10.5000;0.4387;0.8802;
-10.2000;0.4330;0.8591;
-9.9000;0.4330;0.8567;
-9.6000;0.4314;0.8591;
-9.3000;0.4330;0.8661;
-9.0000;0.4322;0.8732;
-8.7000;0.4339;0.8708;
-8.4000;0.4314;0.8614;
-8.1000;0.4322;0.8591;
-7.8000;0.4330;0.8732;
-7.5000;0.4330;0.8661;
-7.2000;0.4306;0.8567;
-6.9000;0.4347;0.8591;
-6.6000;0.4314;0.8614;
-6.3000;0.4347;0.8708;
-6.0000;0.4363;0.8825;
-5.7000;0.4322;0.8802;
-5.4000;0.4330;0.8708;
-5.1000;0.4330;0.8708;
-4.8000;0.4330;0.8732;
-4.5000;0.4330;0.8755;
-4.2000;0.4330;0.8825;
-3.9000;0.4339;0.8849;
-3.6000;0.4379;0.8872;
-3.3000;0.4347;0.8755;
-3.0000;0.4339;0.8732;
-2.7000;0.4306;0.8732;
-2.4000;0.4314;0.8778;
-2.1000;0.4314;0.8778;
-1.8000;0.4330;0.8825;
-1.5000;0.4330;0.8778;
-1.2000;0.4347;0.8896;
-0.9000;0.4355;0.8943;
-0.6000;0.4379;0.8943;
-0.3000;0.4298;0.8732;
0.0000;0.4298;0.8732;
0.3000;0.4469;0.8473;
0.6000;0.4672;0.8638;
0.9000;0.4729;0.8591;
1.2000;0.4974;0.9013;
1.5000;0.5063;0.9248;
1.8000;0.5104;0.9177;
2.1000;0.5193;0.9248;
2.4000;0.5250;0.9389;
2.7000;0.5299;0.9530;
3.0000;0.5315;0.9576;
3.3000;0.5348;0.9670;
3.6000;0.5389;0.9741;
3.9000;0.5389;0.9670;
4.2000;0.5405;0.9764;
4.5000;0.5413;0.9811;
4.8000;0.5438;0.9905;
5.1000;0.5495;1.0093;
5.4000;0.5446;0.9999;
5.7000;0.5470;1.0093;
6.0000;0.5478;1.0140;
6.3000;0.5486;1.0116;
6.6000;0.5503;1.0210;
6.9000;0.5495;1.0116;
7.2000;0.5503;1.0069;
7.5000;0.5527;1.0046;
7.8000;0.5543;1.0140;
8.1000;0.5535;1.0116;
8.4000;0.5535;1.0093;
8.7000;0.5560;1.0187;
9.0000;0.5560;1.0281;
9.3000;0.5568;1.0351;
9.6000;0.5576;1.0421;
9.9000;0.5576;1.0351;
10.2000;0.5608;1.0328;
10.5000;0.5617;1.0281;
10.8000;0.5608;1.0187;
11.1000;0.5625;1.0163;
11.4000;0.5633;1.0163;
11.7000;0.5649;1.0210;
12.0000;0.5641;1.0210;
12.3000;0.5657;1.0281;
12.6000;0.5665;1.0281;
12.9000;0.5665;1.0257;
13.2000;0.5657;1.0140;
13.5000;0.5722;1.0210;
13.8000;0.5682;1.0069;
14.1000;0.5714;1.0304;
14.4000;0.5698;1.0351;
14.7000;0.5665;1.0140;
15.0000;0.5706;1.0210;
15.3000;0.5731;1.0281;
15.6000;0.5731;1.0234;
15.9000;0.5731;1.0210;
16.2000;0.5722;1.0187;
16.5000;0.5722;1.0093;
16.8000;0.5779;1.0234;
17.1000;0.5779;1.0257;
17.4000;0.5828;1.0328;
17.7000;0.5779;1.0234;
18.0000;0.5788;1.0328;
18.3000;0.5796;1.0375;
18.6000;0.5788;1.0328;
18.9000;0.5796;1.0304;
19.2000;0.5804;1.0328;
19.5000;0.5763;1.0304;
19.8000;0.5820;1.0328;
20.1000;0.5836;1.0375;
20.4000;0.5845;1.0468;
20.7000;0.5845;1.0445;
21.0000;0.5828;1.0398;
21.3000;0.5828;1.0257;
21.6000;0.5902;1.0492;
21.9000;0.5836;1.0398;
22.2000;0.5836;1.0398;
22.5000;0.5869;1.0421;
22.8000;0.5869;1.0421;
23.1000;0.5869;1.0375;
23.4000;0.5853;1.0281;
23.7000;0.5861;1.0328;
24.0000;0.5885;1.0328;
24.3000;0.5877;1.0210;
24.6000;0.5893;1.0234;
24.9000;0.5845;1.0187;
25.2000;0.5902;1.0304;
25.5000;0.5910;1.0328;
25.8000;0.5918;1.0398;
26.1000;0.5910;1.0210;
26.4000;0.5918;1.0187;
26.7000;0.5918;1.0210;
27.0000;0.5934;1.0257;
27.3000;0.5918;1.0234;
27.6000;0.5934;1.0187;
27.9000;0.5950;1.0187;
28.2000;0.5942;1.0210;
28.5000;0.5942;1.0257;
28.8000;0.5942;1.0281;
29.1000;0.5926;1.0328;
29.4000;0.5958;1.0421;
29.7000;0.5975;1.0421;
30.0000;0.5958;1.0445;
30.3000;0.5975;1.0421;
30.6000;0.5967;1.0421;
30.9000;0.5967;1.0468;
31.2000;0.5958;1.0492;
31.5000;0.5967;1.0445;
31.8000;0.5975;1.0539;
32.1000;0.5991;1.0492;
32.4000;0.5967;1.0515;
32.7000;0.5975;1.0492;
33.0000;0.5991;1.0445;
33.3000;0.5999;1.0398;
33.6000;0.6015;1.0492;
33.9000;0.6007;1.0375;
34.2000;0.5999;1.0375;
34.5000;0.6007;1.0445;
34.8000;0.5999;1.0304;
35.1000;0.5999;1.0328;
35.4000;0.6007;1.0421;
35.7000;0.6056;1.0562;
36.0000;0.5991;1.0398;
36.3000;0.6032;1.0539;
36.6000;0.6007;1.0492;
36.9000;0.6024;1.0492;
37.2000;0.6024;1.0445;
37.5000;0.6056;1.0468;
37.8000;0.5958;1.0234;
38.1000;0.6064;1.0445;
38.4000;0.6056;1.0421;
38.7000;0.6048;1.0492;
39.0000;0.6032;1.0515;
39.3000;0.5942;1.0328;
39.6000;0.6064;1.0609;
39.9000;0.6048;1.0609;
40.2000;0.6056;1.0562;
40.5000;0.6056;1.0468;
40.8000;0.6072;1.0421;
41.1000;0.6081;1.0468;
41.4000;0.6056;1.0328;
41.7000;0.6072;1.0375;
42.0000;0.6081;1.0398;
42.3000;0.6072;1.0398;
42.6000;0.6056;1.0304;
42.9000;0.6064;1.0351;
43.2000;0.6072;1.0328;
43.5000;0.6064;1.0375;
43.8000;0.6089;1.0375;
44.1000;0.6072;1.0351;
44.4000;0.6064;1.0328;
44.7000;0.6089;1.0375;
45.0000;0.6097;1.0398;
45.3000;0.6072;1.0304;
45.6000;0.6089;1.0304;
45.9000;0.6097;1.0304;
46.2000;0.6097;1.0281;
46.5000;0.6089;1.0187;
46.8000;0.6105;1.0140;
47.1000;0.6105;1.0187;
47.4000;0.6089;1.0116;
47.7000;0.6113;1.0187;
48.0000;0.6105;1.0140;
48.3000;0.6105;1.0140;
48.6000;0.6105;1.0234;
48.9000;0.6097;1.0257;
49.2000;0.6089;1.0234;
49.5000;0.6113;1.0187;
49.8000;0.6129;1.0210;
50.1000;0.6105;1.0210;
50.4000;0.6121;1.0281;
50.7000;0.6121;1.0351;
51.0000;0.6129;1.0351;
51.3000;0.6113;1.0304;
51.6000;0.6113;1.0351;
51.9000;0.6129;1.0375;
52.2000;0.6129;1.0421;
52.5000;0.6121;1.0351;
52.8000;0.6121;1.0351;
53.1000;0.6121;1.0304;
53.4000;0.6138;1.0328;
53.7000;0.6121;1.0328;
54.0000;0.6113;1.0375;
54.3000;0.6129;1.0445;
54.6000;0.6146;1.0515;
54.9000;0.6081;1.0398;
55.2000;0.6129;1.0562;
55.5000;0.6138;1.0562;
55.8000;0.6113;1.0468;
56.1000;0.6146;1.0445;
56.4000;0.6138;1.0445;
56.7000;0.6195;1.0445;
57.0000;0.6121;1.0328;
57.3000;0.6235;1.0656;
57.6000;0.6129;1.0398;
57.9000;0.6129;1.0421;
58.2000;0.6113;1.0375;
58.5000;0.6162;1.0398;
58.8000;0.6072;1.0234;
59.1000;0.6162;1.0421;
59.4000;0.6170;1.0351;
59.7000;0.6170;1.0281;
60.0000;0.6154;1.0210;
60.3000;0.6146;1.0234;
60.6000;0.6154;1.0375;
60.9000;0.6154;1.0375;
61.2000;0.6154;1.0375;
61.5000;0.6154;1.0304;
61.8000;0.6138;1.0257;
62.1000;0.6154;1.0281;
62.4000;0.6146;1.0281;
62.7000;0.6154;1.0234;
63.0000;0.6154;1.0304;
63.3000;0.6081;1.0210;
63.6000;0.6170;1.0328;
63.9000;0.6243;1.0492;
64.2000;0.6146;1.0234;
64.5000;0.6138;1.0304;
64.8000;0.6178;1.0445;
65.1000;0.6170;1.0492;
65.4000;0.6170;1.0421;
65.7000;0.6178;1.0398;
66.0000;0.6138;1.0281;
66.3000;0.6138;1.0234;
66.6000;0.6170;1.0281;
66.9000;0.6170;1.0210;
67.2000;0.6162;1.0234;
67.5000;0.6121;1.0140;
67.8000;0.6162;1.0304;
68.1000;0.6162;1.0257;
68.4000;0.6178;1.0257;
68.7000;0.6186;1.0257;
69.0000;0.6170;1.0163;
69.3000;0.6178;1.0187;
69.6000;0.6162;1.0187;
69.9000;0.6170;1.0210;
70.2000;0.6186;1.0234;
70.5000;0.6178;1.0234;
70.8000;0.6170;1.0163;
71.1000;0.6178;1.0163;
71.4000;0.6186;1.0187;
71.7000;0.6186;1.0140;
72.0000;0.6186;1.0140;
72.3000;0.6195;1.0116;
72.6000;0.6178;1.0093;
72.9000;0.6186;1.0116;
73.2000;0.6170;1.0069;
73.5000;0.6203;1.0022;
73.8000;0.6203;0.9999;
74.1000;0.6203;0.9999;
74.4000;0.6186;0.9976;
74.7000;0.6186;1.0022;
75.0000;0.6162;1.0022;
75.3000;0.6203;1.0069;
75.6000;0.6195;1.0046;
75.9000;0.6211;1.0069;
76.2000;0.6203;1.0140;
76.5000;0.6186;1.0069;
76.8000;0.6195;1.0046;
77.1000;0.6195;1.0022;
77.4000;0.6170;0.9952;
77.7000;0.6195;0.9999;
78.0000;0.6195;0.9999;
78.3000;0.6170;0.9811;
78.6000;0.6195;0.9811;
78.9000;0.6170;0.9764;
79.2000;0.6186;0.9858;
79.5000;0.6186;0.9835;
79.8000;0.6203;0.9952;
80.1000;0.6219;0.9999;
80.4000;0.6260;1.0069;
80.7000;0.6211;0.9976;
81.0000;0.6195;0.9976;
81.3000;0.6186;0.9976;
81.6000;0.6195;1.0046;
81.9000;0.6203;1.0046;
82.2000;0.6195;1.0093;
82.5000;0.6219;1.0140;
82.8000;0.6162;1.0046;
83.1000;0.6195;1.0116;
83.4000;0.6154;1.0069;
83.7000;0.6146;0.9976;
84.0000;0.6129;0.9929;
84.3000;0.6178;1.0046;
84.6000;0.6186;0.9999;
84.9000;0.6138;0.9882;
85.2000;0.6203;1.0116;
85.5000;0.6195;1.0116;
85.8000;0.6268;1.0257;
86.1000;0.6227;1.0163;
86.4000;0.6219;1.0187;
86.7000;0.6178;1.0069;
87.0000;0.6203;1.0187;
87.3000;0.6268;1.0375;
87.6000;0.6195;1.0163;
87.9000;0.6227;1.0210;
88.2000;0.6219;1.0234;
88.5000;0.6195;1.0140;
88.8000;0.6203;1.0163;
89.1000;0.6227;1.0163;
89.4000;0.6211;1.0140;
89.7000;0.6203;1.0093;
90.0000;0.6211;1.0116;
90.3000;0.6203;1.0163;
90.6000;0.6211;1.0140;
90.9000;0.6203;1.0163;
91.2000;0.6219;1.0163;
91.5000;0.6203;1.0069;
91.8000;0.6203;1.0022;
92.1000;0.6186;0.9952;
92.4000;0.6211;0.9999;
92.7000;0.6219;1.0046;
93.0000;0.6219;1.0046;
93.3000;0.6195;1.0022;
93.6000;0.6219;1.0093;
93.9000;0.6211;1.0069;
94.2000;0.6203;1.0116;
94.5000;0.6227;1.0163;
94.8000;0.6203;1.0163;
95.1000;0.6227;1.0116;
95.4000;0.6211;1.0093;
95.7000;0.6211;1.0093;
96.0000;0.6292;1.0375;
96.3000;0.6211;1.0187;
96.6000;0.6219;1.0187;
96.9000;0.6325;1.0421;
97.2000;0.6211;1.0116;
97.5000;0.6203;1.0163;
97.8000;0.6211;1.0257;
98.1000;0.6227;1.0210;
98.4000;0.6219;1.0163;
98.7000;0.6211;1.0116;
99.0000;0.6235;1.0069;
99.3000;0.6227;0.9999;
99.6000;0.6219;1.0022;
99.9000;0.6227;1.0116;
100.2000;0.6227;1.0116;
100.5000;0.6243;1.0187;
100.8000;0.6227;1.0116;
101.1000;0.6203;1.0022;
101.4000;0.6227;1.0069;
101.7000;0.6227;1.0116;
102.0000;0.6219;1.0022;
102.3000;0.6211;0.9999;
102.6000;0.6227;1.0069;
102.9000;0.6211;1.0069;
103.2000;0.6219;1.0069;
103.5000;0.6219;1.0069;
103.8000;0.6211;1.0093;
104.1000;0.6211;1.0116;
104.4000;0.6227;1.0093;
104.7000;0.6195;0.9952;
105.0000;0.6235;1.0022;
105.3000;0.6211;1.0093;
105.6000;0.6195;1.0116;
105.9000;0.6186;1.0093;
106.2000;0.6227;1.0187;
106.5000;0.6219;1.0187;
106.8000;0.6227;1.0234;
107.1000;0.6243;1.0234;
107.4000;0.6219;1.0281;
107.7000;0.6186;1.0116;
108.0000;0.6227;1.0210;
108.3000;0.6203;1.0116;
108.6000;0.6219;1.0163;
108.9000;0.6162;1.0116;
109.2000;0.6211;1.0257;
109.5000;0.6284;1.0468;
109.8000;0.6227;1.0304;
110.1000;0.6113;0.9999;
110.4000;0.6203;1.0257;
110.7000;0.6243;1.0257;
111.0000;0.6227;1.0210;
111.3000;0.6227;1.0116;
111.6000;0.6227;1.0116;
111.9000;0.6219;1.0187;
112.2000;0.6235;1.0234;
112.5000;0.6211;1.0234;
112.8000;0.6219;1.0234;
113.1000;0.6219;1.0281;
113.4000;0.6227;1.0187;
113.7000;0.6203;1.0140;
114.0000;0.6211;1.0210;
114.3000;0.6211;1.0163;
114.6000;0.6227;1.0210;
114.9000;0.6235;1.0210;
115.2000;0.6235;1.0210;
115.5000;0.6243;1.0234;
115.8000;0.6235;1.0234;
116.1000;0.6252;1.0328;
116.4000;0.6235;1.0281;
116.7000;0.6219;1.0234;
117.0000;0.6227;1.0210;
117.3000;0.6235;1.0187;
117.6000;0.6211;1.0163;
117.9000;0.6211;1.0140;
118.2000;0.6235;1.0187;
118.5000;0.6219;1.0163;
118.8000;0.6227;1.0234;
119.1000;0.6211;1.0163;
119.4000;0.6227;1.0093;
119.7000;0.6211;1.0046;
120.0000;0.6203;1.0046;
120.3000;0.6211;1.0069;
120.6000;0.6227;1.0116;
120.9000;0.6227;1.0069;
121.2000;0.6284;1.0163;
121.5000;0.6219;1.0093;
121.8000;0.6227;1.0069;
122.1000;0.6227;0.9999;
122.4000;0.6211;0.9952;
122.7000;0.6211;0.9952;
123.0000;0.6219;1.0022;
123.3000;0.6129;0.9858;
123.6000;0.6211;1.0093;
123.9000;0.6227;1.0093;
124.2000;0.6235;1.0116;
124.5000;0.6227;1.0140;
124.8000;0.6243;1.0234;
125.1000;0.6211;1.0234;
125.4000;0.6235;1.0210;
125.7000;0.6235;1.0281;
126.0000;0.6252;1.0210;
126.3000;0.6203;1.0187;
126.6000;0.6252;1.0351;
126.9000;0.6243;1.0328;
127.2000;0.6260;1.0375;
127.5000;0.6243;1.0375;
127.8000;0.6227;1.0375;
128.1000;0.6276;1.0375;
128.4000;0.6235;1.0328;
128.7000;0.6235;1.0328;
129.0000;0.6219;1.0304;
129.3000;0.6235;1.0281;
129.6000;0.6292;1.0351;
129.9000;0.6235;1.0140;
130.2000;0.6162;0.9999;
130.5000;0.6268;1.0187;
130.8000;0.6235;1.0116;
131.1000;0.6227;1.0140;
131.4000;0.6235;1.0257;
131.7000;0.6203;1.0140;
132.0000;0.6276;1.0328;
132.3000;0.6235;1.0234;
132.6000;0.6268;1.0304;
132.9000;0.6219;1.0234;
133.2000;0.6243;1.0257;
133.5000;0.6227;1.0210;
133.8000;0.6235;1.0187;
134.1000;0.6235;1.0163;
134.4000;0.6235;1.0140;
134.7000;0.6235;1.0163;
135.0000;0.6235;1.0093;
135.3000;0.6219;1.0022;
135.6000;0.6252;1.0093;
135.9000;0.6260;1.0116;
136.2000;0.6252;1.0116;
136.5000;0.6203;1.0093;
136.8000;0.6243;1.0234;
137.1000;0.6235;1.0304;
137.4000;0.6227;1.0351;
137.7000;0.6227;1.0351;
138.0000;0.6284;1.0492;
138.3000;0.6227;1.0328;
138.6000;0.6341;1.0562;
138.9000;0.6227;1.0304;
139.2000;0.6227;1.0351;
139.5000;0.6260;1.0445;
139.8000;0.6235;1.0328;
140.1000;0.6252;1.0398;
140.4000;0.6243;1.0351;
140.7000;0.6243;1.0351;
141.0000;0.6235;1.0304;
141.3000;0.6203;1.0328;
141.6000;0.6235;1.0375;
141.9000;0.6243;1.0468;
142.2000;0.6260;1.0492;
142.5000;0.6219;1.0468;
142.8000;0.6211;1.0398;
143.1000;0.6211;1.0304;
143.4000;0.6252;1.0351;
143.7000;0.6227;1.0351;
144.0000;0.6219;1.0351;
144.3000;0.6219;1.0351;
144.6000;0.6243;1.0421;
144.9000;0.6235;1.0398;
145.2000;0.6276;1.0539;
145.5000;0.6227;1.0468;
145.8000;0.6276;1.0586;
146.1000;0.6235;1.0468;
146.4000;0.6235;1.0398;
146.7000;0.6203;1.0304;
147.0000;0.6243;1.0375;
147.3000;0.6203;1.0281;
147.6000;0.6235;1.0328;
147.9000;0.6243;1.0281;
148.2000;0.6219;1.0234;
148.5000;0.6243;1.0234;
148.8000;0.6243;1.0210;
149.1000;0.6260;1.0257;
149.4000;0.6235;1.0257;
149.7000;0.6227;1.0234;
150.0000;0.6243;1.0187;
150.3000;0.6235;1.0116;
150.6000;0.6243;1.0210;
150.9000;0.6235;1.0257;
151.2000;0.6260;1.0281;
151.5000;0.6235;1.0187;
151.8000;0.6325;1.0421;
152.1000;0.6235;1.0257;
152.4000;0.6162;1.0163;
152.7000;0.6219;1.0187;
153.0000;0.6235;1.0210;
153.3000;0.6227;1.0116;
153.6000;0.6365;1.0421;
153.9000;0.6235;1.0187;
154.2000;0.6243;1.0210;
154.5000;0.6235;1.0281;
154.8000;0.6243;1.0328;
155.1000;0.6235;1.0304;
155.4000;0.6235;1.0328;
155.7000;0.6186;1.0304;
156.0000;0.6252;1.0304;
156.3000;0.6252;1.0375;
156.6000;0.6252;1.0375;
156.9000;0.6235;1.0304;
157.2000;0.6252;1.0210;
157.5000;0.6243;1.0210;
157.8000;0.6219;1.0257;
158.1000;0.6252;1.0328;
158.4000;0.6252;1.0421;
158.7000;0.6219;1.0304;
159.0000;0.6219;1.0375;
159.3000;0.6227;1.0445;
159.6000;0.6243;1.0468;
159.9000;0.6252;1.0492;
160.2000;0.6260;1.0445;
160.5000;0.6227;1.0375;
160.8000;0.6243;1.0328;
161.1000;0.6252;1.0468;
161.4000;0.6292;1.0492;
161.7000;0.6235;1.0351;
162.0000;0.6227;1.0351;
162.3000;0.6235;1.0328;
162.6000;0.6243;1.0304;
162.9000;0.6235;1.0328;
163.2000;0.6227;1.0281;
163.5000;0.6252;1.0328;
163.8000;0.6146;1.0116;
164.1000;0.6219;1.0351;
164.4000;0.6252;1.0398;
164.7000;0.6219;1.0304;
165.0000;0.6243;1.0421;
165.3000;0.6227;1.0304;
165.6000;0.6243;1.0398;
165.9000;0.6243;1.0421;
166.2000;0.6211;1.0304;
166.5000;0.6243;1.0351;
166.8000;0.6252;1.0351;
167.1000;0.6252;1.0398;
167.4000;0.6235;1.0304;
167.7000;0.6268;1.0468;
168.0000;0.6235;1.0421;
168.3000;0.6219;1.0351;
168.6000;0.6235;1.0304;
168.9000;0.6243;1.0234;
169.2000;0.6243;1.0281;
169.5000;0.6243;1.0304;
169.8000;0.6243;1.0281;
170.1000;0.6252;1.0304;
170.4000;0.6235;1.0328;
170.7000;0.6252;1.0445;
171.0000;0.6170;1.0187;
171.3000;0.6203;1.0281;
171.6000;0.6243;1.0281;
171.9000;0.6243;1.0257;
172.2000;0.6227;1.0210;
172.5000;0.6227;1.0210;
172.8000;0.6260;1.0234;
173.1000;0.6243;1.0116;
173.4000;0.6268;1.0116;
173.7000;0.6219;1.0069;
174.0000;0.6243;1.0210;
174.3000;0.6260;1.0163;
174.6000;0.6243;1.0163;
174.9000;0.6227;1.0163;
175.2000;0.6235;1.0163;
175.5000;0.6203;1.0163;
175.8000;0.6252;1.0187;
176.1000;0.6186;0.9999;
176.4000;0.6300;1.0257;
176.7000;0.6252;1.0187;
177.0000;0.6227;1.0210;
177.3000;0.6203;1.0116;
177.6000;0.6211;1.0187;
177.9000;0.6235;1.0375;
178.2000;0.6235;1.0398;
178.5000;0.6276;1.0468;
178.8000;0.6243;1.0445;
179.1000;0.6243;1.0445;
179.4000;0.6211;1.0281;
179.7000;0.6235;1.0375;
180.0000;0.6252;1.0351;
180.3000;0.6243;1.0421;
180.6000;0.6243;1.0421;
180.9000;0.6243;1.0304;
181.2000;0.6227;1.0234;
181.5000;0.6252;1.0281;
181.8000;0.6243;1.0328;
182.1000;0.6243;1.0351;
182.4000;0.6252;1.0351;
182.7000;0.6243;1.0281;
183.0000;0.6260;1.0328;
183.3000;0.6211;1.0421;
183.6000;0.6227;1.0515;
183.9000;0.6243;1.0515;
184.2000;0.6243;1.0515;
184.5000;0.6243;1.0562;
184.8000;0.6235;1.0515;
185.1000;0.6227;1.0515;
185.4000;0.6243;1.0445;
185.7000;0.6243;1.0492;
186.0000;0.6260;1.0539;
186.3000;0.6243;1.0492;
186.6000;0.6186;1.0304;
186.9000;0.6260;1.0515;
187.2000;0.6252;1.0468;
187.5000;0.6252;1.0492;
187.8000;0.6252;1.0421;
188.1000;0.6276;1.0445;
188.4000;0.6260;1.0445;
188.7000;0.6235;1.0304;
189.0000;0.6252;1.0281;
189.3000;0.6252;1.0281;
189.6000;0.6243;1.0281;
189.9000;0.6243;1.0304;
190.2000;0.6243;1.0328;
190.5000;0.6227;1.0421;
190.8000;0.6349;1.0656;
191.1000;0.6227;1.0468;
191.4000;0.6243;1.0515;
191.7000;0.6195;1.0492;
192.0000;0.6243;1.0562;
192.3000;0.6317;1.0703;
192.6000;0.6243;1.0468;
192.9000;0.6268;1.0586;
193.2000;0.6276;1.0656;
193.5000;0.6227;1.0468;
193.8000;0.6227;1.0421;
194.1000;0.6349;1.0680;
194.4000;0.6252;1.0351;
194.7000;0.6260;1.0351;
195.0000;0.6243;1.0304;
195.3000;0.6252;1.0281;
195.6000;0.6235;1.0234;
195.9000;0.6260;1.0281;
196.2000;0.6243;1.0281;
196.5000;0.6219;1.0234;
196.8000;0.6252;1.0351;
197.1000;0.6284;1.0375;
197.4000;0.6243;1.0351;
197.7000;0.6252;1.0304;
198.0000;0.6243;1.0234;
198.3000;0.6260;1.0210;
198.6000;0.6243;1.0116;
198.9000;0.6252;1.0069;
199.2000;0.6235;1.0069;
199.5000;0.6252;1.0187;
199.8000;0.6227;1.0187;
200.1000;0.6227;1.0187;
200.4000;0.6243;1.0163;
200.7000;0.6260;1.0257;
201.0000;0.6252;1.0281;
201.3000;0.6243;1.0304;
201.6000;0.6243;1.0257;
201.9000;0.6235;1.0210;
202.2000;0.6227;1.0163;
202.5000;0.6276;1.0328;
202.8000;0.6235;1.0257;
203.1000;0.6284;1.0328;
203.4000;0.6235;1.0140;
203.7000;0.6292;1.0234;
204.0000;0.6243;1.0116;
204.3000;0.6252;1.0069;
204.6000;0.6235;1.0022;
204.9000;0.6227;1.0046;
205.2000;0.6243;1.0093;
205.5000;0.6284;1.0163;
205.8000;0.6235;1.0093;
206.1000;0.6235;1.0069;
206.4000;0.6235;1.0140;
206.7000;0.6243;1.0210;
207.0000;0.6235;1.0210;
207.3000;0.6219;1.0210;
207.6000;0.6227;1.0234;
207.9000;0.6243;1.0281;
208.2000;0.6260;1.0281;
208.5000;0.6227;1.0234;
208.8000;0.6243;1.0257;
209.1000;0.6243;1.0163;
209.4000;0.6227;1.0116;
209.7000;0.6243;1.0116;
210.0000;0.6227;1.0140;
210.3000;0.6235;1.0140;
210.6000;0.6235;1.0069;
210.9000;0.6211;1.0046;
211.2000;0.6235;1.0116;
211.5000;0.6243;1.0093;
211.8000;0.6227;1.0163;
212.1000;0.6235;1.0163;
212.4000;0.6227;1.0210;
212.7000;0.6227;1.0210;
213.0000;0.6227;1.0304;
213.3000;0.6243;1.0398;
213.6000;0.6243;1.0375;
213.9000;0.6252;1.0375;
214.2000;0.6243;1.0328;
214.5000;0.6243;1.0328;
214.8000;0.6243;1.0234;
215.1000;0.6121;0.9952;
215.4000;0.6243;1.0328;
215.7000;0.6309;1.0492;
216.0000;0.6235;1.0257;
216.3000;0.6243;1.0234;
216.6000;0.6227;1.0093;
216.9000;0.6227;1.0069;
217.2000;0.6243;1.0163;
217.5000;0.6252;1.0140;
217.8000;0.6235;1.0116;
218.1000;0.6252;1.0140;
218.4000;0.6235;1.0069;
218.7000;0.6252;1.0093;
219.0000;0.6235;1.0116;
219.3000;0.6252;1.0187;
219.6000;0.6252;1.0187;
219.9000;0.6243;1.0210;
220.2000;0.6243;1.0163;
220.5000;0.6252;1.0093;
220.8000;0.6243;1.0116;
221.1000;0.6252;1.0140;
221.4000;0.6235;1.0163;
221.7000;0.6243;1.0140;
222.0000;0.6284;1.0069;
222.3000;0.6219;1.0069;
222.6000;0.6243;1.0140;
222.9000;0.6252;1.0163;
223.2000;0.6252;1.0163;
223.5000;0.6243;1.0069;
223.8000;0.6243;1.0069;
224.1000;0.6243;1.0069;
224.4000;0.6252;1.0069;
224.7000;0.6260;1.0116;
225.0000;0.6284;1.0163;
225.3000;0.6252;1.0187;
225.6000;0.6268;1.0257;
225.9000;0.6243;1.0304;
226.2000;0.6260;1.0281;
226.5000;0.6252;1.0257;
226.8000;0.6252;1.0210;
227.1000;0.6252;1.0187;
227.4000;0.6235;1.0234;
227.7000;0.6252;1.0257;
228.0000;0.6243;1.0234;
228.3000;0.6260;1.0187;
228.6000;0.6252;1.0187;
228.9000;0.6252;1.0187;
229.2000;0.6243;1.0281;
229.5000;0.6252;1.0351;
229.8000;0.6276;1.0468;
230.1000;0.6252;1.0351;
230.4000;0.6243;1.0375;
230.7000;0.6268;1.0375;
231.0000;0.6243;1.0234;
231.3000;0.6243;1.0163;
231.6000;0.6252;1.0163;
231.9000;0.6235;1.0328;
232.2000;0.6243;1.0421;
232.5000;0.6227;1.0375;
232.8000;0.6243;1.0375;
233.1000;0.6268;1.0445;
233.4000;0.6243;1.0351;
233.7000;0.6235;1.0375;
234.0000;0.6252;1.0445;
234.3000;0.6235;1.0375;
234.6000;0.6219;1.0328;
234.9000;0.6252;1.0375;
235.2000;0.6243;1.0304;
235.5000;0.6243;1.0210;
235.8000;0.6235;1.0257;
236.1000;0.6235;1.0281;
236.4000;0.6227;1.0210;
236.7000;0.6235;1.0257;
237.0000;0.6284;1.0398;
237.3000;0.6227;1.0281;
237.6000;0.6252;1.0257;
237.9000;0.6235;1.0281;
238.2000;0.6284;1.0492;
238.5000;0.6260;1.0421;
238.8000;0.6260;1.0304;
239.1000;0.6252;1.0304;
239.4000;0.6243;1.0210;
239.7000;0.6317;1.0304;
240.0000;0.6252;1.0210;
240.3000;0.6219;1.0140;
240.6000;0.6235;1.0116;
240.9000;0.6252;1.0069;
241.2000;0.6260;1.0046;
241.5000;0.6260;1.0140;
241.8000;0.6252;1.0163;
242.1000;0.6235;1.0093;
242.4000;0.6243;1.0140;
242.7000;0.6235;1.0163;
243.0000;0.6235;1.0140;
243.3000;0.6227;1.0163;
243.6000;0.6235;1.0210;
243.9000;0.6235;1.0281;
244.2000;0.6203;1.0116;
244.5000;0.6243;1.0163;
244.8000;0.6235;1.0210;
245.1000;0.6243;1.0257;
245.4000;0.6235;1.0210;
245.7000;0.6243;1.0187;
246.0000;0.6219;1.0234;
246.3000;0.6178;1.0163;
246.6000;0.6227;1.0257;
246.9000;0.6235;1.0304;
247.2000;0.6317;1.0421;
247.5000;0.6252;1.0304;
247.8000;0.6252;1.0328;
248.1000;0.6300;1.0375;
248.4000;0.6260;1.0234;
248.7000;0.6243;1.0351;
249.0000;0.6268;1.0351;
249.3000;0.6252;1.0281;
249.6000;0.6252;1.0304;
249.9000;0.6260;1.0328;
250.2000;0.6300;1.0398;
250.5000;0.6243;1.0281;
250.8000;0.6260;1.0281;
251.1000;0.6252;1.0257;
251.4000;0.6268;1.0257;
251.7000;0.6260;1.0281;
252.0000;0.6260;1.0304;
252.3000;0.6268;1.0421;
252.6000;0.6268;1.0328;
252.9000;0.6260;1.0257;
253.2000;0.6235;1.0187;
253.5000;0.6260;1.0257;
253.8000;0.6260;1.0281;
254.1000;0.6252;1.0210;
254.4000;0.6227;1.0163;
254.7000;0.6227;1.0116;
255.0000;0.6252;1.0116;
255.3000;0.6325;1.0351;
255.6000;0.6309;1.0351;
255.9000;0.6162;0.9976;
256.2000;0.6235;1.0234;
256.5000;0.6252;1.0257;
256.8000;0.6227;1.0234;
257.1000;0.6227;1.0234;
257.4000;0.6235;1.0116;
257.7000;0.6260;1.0116;
258.0000;0.6243;1.0093;
258.3000;0.6219;0.9999;
258.6000;0.6243;1.0116;
258.9000;0.6252;1.0116;
259.2000;0.6260;1.0140;
259.5000;0.6260;1.0116;
259.8000;0.6284;1.0281;
260.1000;0.6252;1.0281;
260.4000;0.6276;1.0351;
260.7000;0.6219;1.0234;
261.0000;0.6260;1.0257;
261.3000;0.6260;1.0281;
261.6000;0.6260;1.0281;
261.9000;0.6341;1.0468;
262.2000;0.6243;1.0351;
262.5000;0.6243;1.0328;
262.8000;0.6252;1.0304;
263.1000;0.6252;1.0281;
263.4000;0.6243;1.0187;
263.7000;0.6268;1.0351;
264.0000;0.6252;1.0304;
264.3000;0.6243;1.0187;
264.6000;0.6227;1.0210;
264.9000;0.6252;1.0210;
265.2000;0.6276;1.0210;
265.5000;0.6227;1.0116;
265.8000;0.6260;1.0210;
266.1000;0.6268;1.0328;
266.4000;0.6219;1.0210;
266.7000;0.6260;1.0351;
267.0000;0.6162;1.0187;
267.3000;0.6252;1.0398;
267.6000;0.6227;1.0351;
267.9000;0.6219;1.0304;
268.2000;0.6195;1.0234;
268.5000;0.6252;1.0351;
268.8000;0.6162;1.0093;
269.1000;0.6252;1.0281;
269.4000;0.6235;1.0210;
269.7000;0.6203;1.0234;
270.0000;0.6235;1.0281;
270.3000;0.6203;1.0257;
270.6000;0.6260;1.0328;
270.9000;0.6243;1.0234;
271.2000;0.6252;1.0140;
271.5000;0.6276;1.0210;
271.8000;0.6252;1.0257;
272.1000;0.6243;1.0304;
272.4000;0.6252;1.0351;
272.7000;0.6268;1.0375;
273.0000;0.6252;1.0351;
273.3000;0.6235;1.0375;
273.6000;0.6243;1.0328;
273.9000;0.6219;1.0234;
274.2000;0.6260;1.0351;
274.5000;0.6300;1.0562;
274.8000;0.6235;1.0398;
275.1000;0.6235;1.0351;
275.4000;0.6252;1.0351;
275.7000;0.6243;1.0328;
276.0000;0.6219;1.0351;
276.3000;0.6235;1.0351;
276.6000;0.6325;1.0515;
276.9000;0.6243;1.0281;
277.2000;0.6235;1.0281;
277.5000;0.6235;1.0375;
277.8000;0.6260;1.0468;
278.1000;0.6260;1.0609;
278.4000;0.6243;1.0609;
278.7000;0.6243;1.0539;
279.0000;0.6243;1.0468;
279.3000;0.6252;1.0468;
279.6000;0.6317;1.0750;
279.9000;0.6252;1.0515;
280.2000;0.6243;1.0515;
280.5000;0.6252;1.0539;
280.8000;0.6227;1.0468;
281.1000;0.6252;1.0609;
281.4000;0.6243;1.0586;
281.7000;0.6268;1.0656;
282.0000;0.6243;1.0586;
282.3000;0.6227;1.0515;
282.6000;0.6235;1.0562;
282.9000;0.6235;1.0492;
283.2000;0.6243;1.0539;
283.5000;0.6252;1.0468;
283.8000;0.6309;1.0562;
284.1000;0.6243;1.0328;
284.4000;0.6235;1.0187;
284.7000;0.6276;1.0234;
285.0000;0.6235;1.0140;
285.3000;0.6260;1.0163;
285.6000;0.6260;1.0163;
285.9000;0.6252;1.0163;
286.2000;0.6252;1.0093;
286.5000;0.6235;1.0046;
286.8000;0.6260;1.0163;
287.1000;0.6260;1.0257;
287.4000;0.6243;1.0257;
287.7000;0.6235;1.0140;
288.0000;0.6268;1.0234;
288.3000;0.6260;1.0257;
288.6000;0.6235;1.0187;
288.9000;0.6268;1.0257;
289.2000;0.6276;1.0257;
289.5000;0.6252;1.0187;
289.8000;0.6243;1.0187;
290.1000;0.6268;1.0210;
290.4000;0.6203;1.0116;
290.7000;0.6260;1.0281;
291.0000;0.6268;1.0351;
291.3000;0.6243;1.0398;
291.6000;0.6186;1.0328;
291.9000;0.6260;1.0515;
292.2000;0.6235;1.0468;
292.5000;0.6317;1.0633;
292.8000;0.6243;1.0398;
293.1000;0.6268;1.0445;
293.4000;0.6260;1.0421;
293.7000;0.6260;1.0445;
294.0000;0.6219;1.0398;
294.3000;0.6292;1.0562;
294.6000;0.6227;1.0375;
294.9000;0.6252;1.0398;
295.2000;0.6235;1.0375;
295.5000;0.6309;1.0586;
295.8000;0.6260;1.0539;
296.1000;0.6227;1.0468;
296.4000;0.6243;1.0562;
296.7000;0.6260;1.0539;
297.0000;0.6252;1.0445;
297.3000;0.6260;1.0445;
297.6000;0.6252;1.0398;
297.9000;0.6260;1.0375;
298.2000;0.6260;1.0351;
298.5000;0.6260;1.0257;
298.8000;0.6252;1.0328;
299.1000;0.6243;1.0304;
299.4000;0.6186;1.0234;
299.7000;0.6243;1.0445;
300.0000;0.6243;1.0398;
300.3000;0.6243;1.0351;
300.6000;0.6260;1.0328;
300.9000;0.6260;1.0304;
301.2000;0.6276;1.0351;
301.5000;0.6243;1.0328;
301.8000;0.6243;1.0375;
302.1000;0.6260;1.0375;
302.4000;0.6243;1.0257;
302.7000;0.6203;1.0093;
303.0000;0.6252;1.0210;
303.3000;0.6252;1.0210;
303.6000;0.6260;1.0140;
303.9000;0.6252;1.0140;
304.2000;0.6260;1.0234;
304.5000;0.6260;1.0234;
304.8000;0.6260;1.0375;
305.1000;0.6268;1.0351;
305.4000;0.6252;1.0304;
305.7000;0.6235;1.0328;
306.0000;0.6243;1.0375;
306.3000;0.6195;1.0234;
306.6000;0.6235;1.0328;
306.9000;0.6243;1.0281;
307.2000;0.6243;1.0304;
307.5000;0.6243;1.0281;
307.8000;0.6227;1.0187;
308.1000;0.6260;1.0187;
308.4000;0.6309;1.0468;
308.7000;0.6252;1.0304;
309.0000;0.6219;1.0210;
309.3000;0.6235;1.0234;
309.6000;0.6276;1.0351;
309.9000;0.6268;1.0328;
310.2000;0.6260;1.0328;
310.5000;0.6260;1.0281;
310.8000;0.6333;1.0398;
311.1000;0.6300;1.0375;
311.4000;0.6219;1.0210;
311.7000;0.6243;1.0257;
312.0000;0.6235;1.0304;
312.3000;0.6243;1.0328;
312.6000;0.6243;1.0398;
312.9000;0.6252;1.0421;
313.2000;0.6243;1.0445;
313.5000;0.6260;1.0562;
313.8000;0.6252;1.0609;
314.1000;0.6138;1.0304;
314.4000;0.6260;1.0633;
314.7000;0.6243;1.0609;
315.0000;0.6252;1.0680;
315.3000;0.6235;1.0656;
315.6000;0.6252;1.0586;
315.9000;0.6260;1.0633;
316.2000;0.6252;1.0609;
316.5000;0.6341;1.0797;
316.8000;0.6252;1.0562;
317.1000;0.6309;1.0703;
317.4000;0.6252;1.0398;
317.7000;0.6243;1.0351;
318.0000;0.6243;1.0210;
318.3000;0.6243;1.0210;
318.6000;0.6252;1.0187;
318.9000;0.6235;1.0116;
319.2000;0.6252;1.0187;
319.5000;0.6284;1.0210;
319.8000;0.6252;1.0140;
320.1000;0.6260;1.0163;
320.4000;0.6260;1.0140;
320.7000;0.6292;1.0281;
321.0000;0.6284;1.0304;
321.3000;0.6243;1.0234;
321.6000;0.6252;1.0163;
321.9000;0.6268;1.0234;
322.2000;0.6252;1.0210;
322.5000;0.6195;1.0163;
322.8000;0.6252;1.0375;
323.1000;0.6252;1.0375;
323.4000;0.6284;1.0515;
323.7000;0.6260;1.0515;
324.0000;0.6260;1.0492;
324.3000;0.6252;1.0398;
324.6000;0.6284;1.0492;
324.9000;0.6252;1.0351;
325.2000;0.6252;1.0351;
325.5000;0.6260;1.0421;
325.8000;0.6252;1.0398;
326.1000;0.6252;1.0351;
326.4000;0.6260;1.0328;
326.7000;0.6252;1.0304;
327.0000;0.6252;1.0375;
327.3000;0.6252;1.0257;
327.6000;0.6252;1.0328;
327.9000;0.6235;1.0281;
328.2000;0.6252;1.0281;
328.5000;0.6243;1.0351;
328.8000;0.6268;1.0445;
329.1000;0.6235;1.0375;
329.4000;0.6211;1.0398;
329.7000;0.6243;1.0421;
330.0000;0.6243;1.0421;
330.3000;0.6284;1.0539;
330.6000;0.6252;1.0468;
330.9000;0.6235;1.0398;
331.2000;0.6268;1.0539;
331.5000;0.6235;1.0445;
331.8000;0.6203;1.0304;
332.1000;0.6252;1.0421;
332.4000;0.6243;1.0421;
332.7000;0.6243;1.0468;
333.0000;0.6268;1.0492;
333.3000;0.6252;1.0445;
333.6000;0.6252;1.0398;
333.9000;0.6260;1.0421;
334.2000;0.6260;1.0328;
334.5000;0.6260;1.0398;
334.8000;0.6260;1.0328;
335.1000;0.6325;1.0515;
335.4000;0.6243;1.0304;
335.7000;0.6243;1.0304;
336.0000;0.6260;1.0257;
336.3000;0.6260;1.0281;
336.6000;0.6260;1.0304;
336.9000;0.6252;1.0328;
337.2000;0.6235;1.0328;
337.5000;0.6252;1.0375;
337.8000;0.6243;1.0445;
338.1000;0.6243;1.0398;
338.4000;0.6235;1.0328;
338.7000;0.6186;1.0163;
339.0000;0.6268;1.0351;
339.3000;0.6276;1.0234;
339.6000;0.6252;1.0210;
339.9000;0.6252;1.0281;
340.2000;0.6243;1.0281;
340.5000;0.6325;1.0445;
340.8000;0.6235;1.0234;
341.1000;0.6252;1.0281;
341.4000;0.6252;1.0351;
341.7000;0.6243;1.0328;
342.0000;0.6252;1.0375;
342.3000;0.6252;1.0421;
342.6000;0.6252;1.0468;
342.9000;0.6252;1.0398;
343.2000;0.6203;1.0257;
343.5000;0.6333;1.0562;
343.8000;0.6260;1.0398;
344.1000;0.6252;1.0398;
344.4000;0.6235;1.0468;
344.7000;0.6243;1.0445;
345.0000;0.6252;1.0468;
345.3000;0.6252;1.0445;
345.6000;0.6195;1.0257;
345.9000;0.6219;1.0351;
346.2000;0.6243;1.0421;
346.5000;0.6260;1.0492;
346.8000;0.6252;1.0445;
347.1000;0.6186;1.0304;
347.4000;0.6227;1.0398;
347.7000;0.6235;1.0351;
348.0000;0.6243;1.0398;
348.3000;0.6252;1.0445;
348.6000;0.6235;1.0468;
348.9000;0.6252;1.0445;
349.2000;0.6252;1.0468;
349.5000;0.6235;1.0445;
349.8000;0.6260;1.0492;
350.1000;0.6284;1.0539;
350.4000;0.6235;1.0328;
350.7000;0.6260;1.0257;
351.0000;0.6235;1.0210;
351.3000;0.6243;1.0281;
351.6000;0.6252;1.0328;
351.9000;0.6243;1.0304;
352.2000;0.6252;1.0351;
352.5000;0.6252;1.0398;
352.8000;0.6243;1.0375;
353.1000;0.6260;1.0351;
353.4000;0.6252;1.0281;
353.7000;0.6260;1.0304;
354.0000;0.6260;1.0234;
354.3000;0.6243;1.0257;
354.6000;0.6252;1.0304;
354.9000;0.6252;1.0304;
355.2000;0.6235;1.0328;
355.5000;0.6252;1.0281;
355.8000;0.6252;1.0304;
356.1000;0.6243;1.0257;
356.4000;0.6292;1.0398;
356.7000;0.6252;1.0375;
357.0000;0.6252;1.0281;
357.3000;0.6235;1.0163;
357.6000;0.6243;1.0093;
357.9000;0.6260;1.0093;
358.2000;0.6252;1.0069;
358.5000;0.6276;0.9999;
358.8000;0.6243;0.9976;
359.1000;0.6260;1.0069;
359.4000;0.6260;0.9999;
359.7000;0.6252;1.0022;
360.0000;0.6260;1.0116;
360.3000;0.6309;1.0210;
360.6000;0.6276;1.0163;
360.9000;0.6260;1.0140;
361.2000;0.6227;1.0022;
361.5000;0.6317;1.0257;
361.8000;0.6235;1.0163;
362.1000;0.6260;1.0281;
362.4000;0.6252;1.0257;
362.7000;0.6260;1.0281;
363.0000;0.6284;1.0421;
363.3000;0.6227;1.0304;
363.6000;0.6357;1.0656;
363.9000;0.6252;1.0445;
364.2000;0.6203;1.0210;
364.5000;0.6186;1.0210;
364.8000;0.6203;1.0351;
365.1000;0.6268;1.0515;
365.4000;0.6260;1.0445;
365.7000;0.6268;1.0468;
366.0000;0.6260;1.0445;
366.3000;0.6276;1.0445;
366.6000;0.6235;1.0375;
366.9000;0.6260;1.0421;
367.2000;0.6178;1.0257;
367.5000;0.6186;1.0210;
367.8000;0.6268;1.0304;
368.1000;0.6252;1.0234;
368.4000;0.6260;1.0257;
368.7000;0.6276;1.0351;
369.0000;0.6252;1.0375;
369.3000;0.6276;1.0351;
369.6000;0.6211;1.0163;
369.9000;0.6243;1.0257;
370.2000;0.6243;1.0328;
370.5000;0.6252;1.0421;
370.8000;0.6243;1.0375;
371.1000;0.6235;1.0351;
371.4000;0.6243;1.0281;
371.7000;0.6252;1.0328;
372.0000;0.6260;1.0421;
372.3000;0.6260;1.0398;
372.6000;0.6227;1.0281;
372.9000;0.6252;1.0398;
373.2000;0.6243;1.0398;
373.5000;0.6268;1.0398;
373.8000;0.6252;1.0328;
374.1000;0.6268;1.0421;
374.4000;0.6260;1.0398;
374.7000;0.6252;1.0398;
375.0000;0.6219;1.0351;
375.3000;0.6260;1.0398;
375.6000;0.6243;1.0421;
375.9000;0.6243;1.0351;
376.2000;0.6252;1.0281;
376.5000;0.6243;1.0375;
376.8000;0.6276;1.0421;
377.1000;0.6365;1.0680;
377.4000;0.6292;1.0515;
377.7000;0.6243;1.0351;
378.0000;0.6260;1.0445;
378.3000;0.6235;1.0375;
378.6000;0.6235;1.0375;
378.9000;0.6227;1.0351;
379.2000;0.6235;1.0421;
379.5000;0.6252;1.0445;
379.8000;0.6243;1.0468;
380.1000;0.6260;1.0492;
380.4000;0.6260;1.0468;
380.7000;0.6243;1.0445;
381.0000;0.6227;1.0421;
381.3000;0.6235;1.0421;
381.6000;0.6235;1.0398;
381.9000;0.6252;1.0445;
382.2000;0.6260;1.0421;
382.5000;0.6260;1.0468;
382.8000;0.6260;1.0492;
383.1000;0.6260;1.0421;
383.4000;0.6227;1.0351;
383.7000;0.6260;1.0328;
384.0000;0.6268;1.0304;
384.3000;0.6243;1.0069;
384.6000;0.6276;1.0234;
384.9000;0.6252;1.0140;
385.2000;0.6268;1.0140;
385.5000;0.6227;1.0046;
385.8000;0.6268;1.0116;
386.1000;0.6252;1.0140;
386.4000;0.6243;1.0234;
386.7000;0.6235;1.0163;
387.0000;0.6252;1.0210;
387.3000;0.6268;1.0187;
387.6000;0.6235;1.0069;
387.9000;0.6260;1.0116;
388.2000;0.6325;1.0234;
388.5000;0.6268;1.0304;
388.8000;0.6268;1.0257;
389.1000;0.6243;1.0257;
389.4000;0.6252;1.0281;
389.7000;0.6219;1.0187;
390.0000;0.6276;1.0445;
390.3000;0.6260;1.0375;
390.6000;0.6276;1.0328;
390.9000;0.6260;1.0304;
391.2000;0.6268;1.0328;
391.5000;0.6252;1.0328;
391.8000;0.6243;1.0398;
392.1000;0.6235;1.0351;
392.4000;0.6243;1.0375;
392.7000;0.6235;1.0304;
393.0000;0.6252;1.0375;
393.3000;0.6268;1.0398;
393.6000;0.6317;1.0375;
393.9000;0.6268;1.0328;
394.2000;0.6252;1.0375;
394.5000;0.6276;1.0468;
394.8000;0.6268;1.0468;
395.1000;0.6235;1.0351;
395.4000;0.6268;1.0375;
395.7000;0.6243;1.0398;
396.0000;0.6235;1.0375;
396.3000;0.6235;1.0351;
396.6000;0.6243;1.0234;
396.9000;0.6260;1.0304;
397.2000;0.6284;1.0304;
397.5000;0.6235;1.0140;
397.8000;0.6235;1.0140;
398.1000;0.6260;1.0210;
398.4000;0.6260;1.0234;
398.7000;0.6252;1.0257;
399.0000;0.6252;1.0304;
399.3000;0.6268;1.0375;
399.6000;0.6252;1.0375;
399.9000;0.6276;1.0398;
400.2000;0.6260;1.0304;
400.5000;0.6260;1.0328;
400.8000;0.6243;1.0328;
401.1000;0.6252;1.0328;
401.4000;0.6235;1.0210;
401.7000;0.6235;1.0163;
402.0000;0.6252;1.0187;
402.3000;0.6260;1.0187;
402.6000;0.6260;1.0257;
402.9000;0.6243;1.0304;
403.2000;0.6268;1.0375;
403.5000;0.6276;1.0304;
403.8000;0.6260;1.0234;
404.1000;0.6268;1.0210;
404.4000;0.6268;1.0187;
404.7000;0.6260;1.0234;
405.0000;0.6260;1.0281;
405.3000;0.6252;1.0281;
405.6000;0.6260;1.0234;
405.9000;0.6227;1.0187;
406.2000;0.6252;1.0210;
406.5000;0.6227;1.0187;
406.8000;0.6235;1.0187;
407.1000;0.6235;1.0257;
407.4000;0.6235;1.0257;
407.7000;0.6252;1.0304;
408.0000;0.6243;1.0281;
408.3000;0.6268;1.0328;
408.6000;0.6292;1.0398;
408.9000;0.6260;1.0328;
409.2000;0.6252;1.0304;
409.5000;0.6252;1.0304;
409.8000;0.6268;1.0304;
410.1000;0.6260;1.0281;
410.4000;0.6268;1.0304;
410.7000;0.6227;1.0187;
411.0000;0.6309;1.0421;
411.3000;0.6252;1.0351;
411.6000;0.6252;1.0328;
411.9000;0.6325;1.0421;
412.2000;0.6268;1.0304;
412.5000;0.6227;1.0304;
412.8000;0.6268;1.0398;
413.1000;0.6252;1.0445;
413.4000;0.6260;1.0445;
413.7000;0.6252;1.0304;
414.0000;0.6268;1.0375;
414.3000;0.6260;1.0328;
414.6000;0.6284;1.0375;
414.9000;0.6260;1.0281;
415.2000;0.6260;1.0304;
415.5000;0.6268;1.0328;
415.8000;0.6260;1.0351;
416.1000;0.6276;1.0421;
416.4000;0.6252;1.0492;
416.7000;0.6252;1.0468;
417.0000;0.6235;1.0445;
417.3000;0.6252;1.0445;
417.6000;0.6252;1.0468;
417.9000;0.6252;1.0445;
418.2000;0.6243;1.0421;
418.5000;0.6243;1.0398;
418.8000;0.6243;1.0328;
419.1000;0.6268;1.0328;
419.4000;0.6252;1.0351;
419.7000;0.6268;1.0281;
420.0000;0.6276;1.0421;
420.3000;0.6260;1.0421;
420.6000;0.6227;1.0351;
420.9000;0.6252;1.0351;
421.2000;0.6252;1.0328;
421.5000;0.6252;1.0375;
421.8000;0.6235;1.0304;
422.1000;0.6235;1.0351;
422.4000;0.6252;1.0351;
422.7000;0.6227;1.0257;
423.0000;0.6260;1.0328;
423.3000;0.6260;1.0328;
423.6000;0.6300;1.0492;
423.9000;0.6268;1.0492;
424.2000;0.6243;1.0468;
424.5000;0.6252;1.0421;
424.8000;0.6219;1.0375;
425.1000;0.6178;1.0281;
425.4000;0.6235;1.0468;
425.7000;0.6235;1.0375;
426.0000;0.6195;1.0234;
426.3000;0.6243;1.0257;
426.6000;0.6219;1.0163;
426.9000;0.6252;1.0210;
427.2000;0.6243;1.0328;
427.5000;0.6243;1.0328;
427.8000;0.6276;1.0445;
428.1000;0.6292;1.0468;
428.4000;0.6276;1.0492;
428.7000;0.6260;1.0468;
429.0000;0.6252;1.0515;
429.3000;0.6292;1.0609;
429.6000;0.6260;1.0609;
429.9000;0.6276;1.0609;
430.2000;0.6276;1.0468;
430.5000;0.6260;1.0468;
430.8000;0.6252;1.0398;
431.1000;0.6252;1.0351;
431.4000;0.6260;1.0328;
431.7000;0.6284;1.0328;
432.0000;0.6252;1.0234;
432.3000;0.6235;1.0234;
432.6000;0.6268;1.0375;
432.9000;0.6268;1.0398;
433.2000;0.6252;1.0375;
433.5000;0.6317;1.0445;
433.8000;0.6300;1.0445;
434.1000;0.6252;1.0375;
434.4000;0.6252;1.0351;
434.7000;0.6276;1.0351;
435.0000;0.6235;1.0304;
435.3000;0.6252;1.0421;
435.6000;0.6252;1.0375;
435.9000;0.6243;1.0375;
436.2000;0.6243;1.0375;
436.5000;0.6260;1.0492;
436.8000;0.6243;1.0515;
437.1000;0.6252;1.0539;
437.4000;0.6235;1.0515;
437.7000;0.6260;1.0421;
438.0000;0.6260;1.0375;
438.3000;0.6243;1.0375;
438.6000;0.6252;1.0351;
438.9000;0.6260;1.0351;
439.2000;0.6243;1.0304;
439.5000;0.6243;1.0281;
439.8000;0.6195;1.0116;
440.1000;0.6252;1.0234;
440.4000;0.6235;1.0210;
440.7000;0.6235;1.0281;
441.0000;0.6089;0.9882;
441.3000;0.6252;1.0375;
441.6000;0.6260;1.0398;
441.9000;0.6243;1.0281;
442.2000;0.6243;1.0257;
442.5000;0.6260;1.0257;
442.8000;0.6243;1.0281;
443.1000;0.6243;1.0234;
443.4000;0.6341;1.0468;
443.7000;0.6260;1.0140;
444.0000;0.6260;1.0234;
444.3000;0.6252;1.0304;
444.6000;0.6268;1.0351;
444.9000;0.6211;1.0187;
445.2000;0.6252;1.0421;
445.5000;0.6260;1.0421;
445.8000;0.6227;1.0398;
446.1000;0.6243;1.0421;
446.4000;0.6243;1.0421;
446.7000;0.6243;1.0515;
447.0000;0.6349;1.0703;
447.3000;0.6243;1.0375;
447.6000;0.6252;1.0351;
447.9000;0.6260;1.0328;
448.2000;0.6227;1.0328;
448.5000;0.6243;1.0304;
448.8000;0.6252;1.0281;
449.1000;0.6260;1.0257;
449.4000;0.6195;1.0046;
449.7000;0.6243;1.0187;
450.0000;0.6146;0.9976;
450.3000;0.6227;1.0140;
450.6000;0.6284;1.0163;
450.9000;0.6300;1.0257;
451.2000;0.6260;1.0163;
451.5000;0.6252;1.0210;
451.8000;0.6252;1.0234;
452.1000;0.6186;1.0140;
452.4000;0.6252;1.0304;
452.7000;0.6235;1.0257;
453.0000;0.6252;1.0234;
453.3000;0.6252;1.0210;
453.6000;0.6252;1.0163;
453.9000;0.6300;1.0281;
454.2000;0.6252;1.0163;
454.5000;0.6276;1.0257;
454.8000;0.6203;1.0069;
455.1000;0.6300;1.0257;
455.4000;0.6243;1.0093;
455.7000;0.6260;1.0093;
456.0000;0.6243;0.9976;
456.3000;0.6260;1.0069;
456.6000;0.6268;1.0116;
456.9000;0.6252;1.0093;
457.2000;0.6260;1.0069;
457.5000;0.6195;0.9929;
457.8000;0.6268;1.0046;
458.1000;0.6284;1.0116;
458.4000;0.6260;1.0187;
458.7000;0.6211;1.0116;
459.0000;0.6252;1.0328;
459.3000;0.6276;1.0351;
459.6000;0.6235;1.0234;
459.9000;0.6252;1.0187;
460.2000;0.6235;1.0234;
460.5000;0.6252;1.0234;
460.8000;0.6260;1.0304;
461.1000;0.6243;1.0328;
461.4000;0.6260;1.0421;
461.7000;0.6252;1.0375;
462.0000;0.6260;1.0421;
462.3000;0.6252;1.0375;
462.6000;0.6268;1.0421;
462.9000;0.6243;1.0304;
463.2000;0.6268;1.0398;
463.5000;0.6252;1.0421;
463.8000;0.6235;1.0304;
464.1000;0.6268;1.0351;
464.4000;0.6260;1.0421;
464.7000;0.6268;1.0328;
465.0000;0.6235;1.0328;
465.3000;0.6268;1.0421;
465.6000;0.6243;1.0375;
465.9000;0.6252;1.0351;
466.2000;0.6243;1.0328;
466.5000;0.6252;1.0328;
466.8000;0.6260;1.0351;
467.1000;0.6357;1.0562;
467.4000;0.6268;1.0281;
467.7000;0.6227;1.0257;
468.0000;0.6260;1.0304;
468.3000;0.6252;1.0281;
468.6000;0.6268;1.0304;
468.9000;0.6268;1.0304;
469.2000;0.6276;1.0304;
469.5000;0.6260;1.0375;
469.8000;0.6243;1.0328;
470.1000;0.6260;1.0421;
470.4000;0.6260;1.0351;
470.7000;0.6260;1.0328;
471.0000;0.6268;1.0351;
471.3000;0.6268;1.0351;
471.6000;0.6252;1.0304;
471.9000;0.6252;1.0304;
472.2000;0.6260;1.0210;
472.5000;0.6284;1.0257;
472.8000;0.6268;1.0116;
473.1000;0.6268;1.0163;
473.4000;0.6276;1.0210;
473.7000;0.6252;1.0163;
474.0000;0.6268;1.0257;
474.3000;0.6260;1.0304;
474.6000;0.6227;1.0304;
474.9000;0.6268;1.0398;
475.2000;0.6195;1.0281;
475.5000;0.6243;1.0398;
475.8000;0.6235;1.0421;
476.1000;0.6268;1.0468;
476.4000;0.6243;1.0445;
476.7000;0.6243;1.0328;
477.0000;0.6268;1.0375;
477.3000;0.6227;1.0304;
477.6000;0.6235;1.0304;
477.9000;0.6235;1.0328;
478.2000;0.6260;1.0328;
478.5000;0.6195;1.0093;
478.8000;0.6252;1.0163;
479.1000;0.6243;1.0140;
479.4000;0.6243;1.0163;
479.7000;0.6260;1.0163;
480.0000;0.6300;1.0234;
480.3000;0.6268;1.0187;
480.6000;0.6284;1.0140;
480.9000;0.6276;1.0163;
481.2000;0.6252;1.0187;
481.5000;0.6309;1.0398;
481.8000;0.6252;1.0257;
482.1000;0.6252;1.0257;
482.4000;0.6260;1.0187;
482.7000;0.6252;1.0210;
483.0000;0.6260;1.0257;
483.3000;0.6268;1.0234;
483.6000;0.6349;1.0468;
483.9000;0.6252;1.0281;
484.2000;0.6252;1.0351;
484.5000;0.6284;1.0492;
484.8000;0.6268;1.0421;
485.1000;0.6252;1.0328;
485.4000;0.6243;1.0351;
485.7000;0.6235;1.0281;
486.0000;0.6260;1.0375;
486.3000;0.6268;1.0328;
486.6000;0.6260;1.0304;
486.9000;0.6097;0.9882;
487.2000;0.6252;1.0328;
487.5000;0.6260;1.0351;
487.8000;0.6252;1.0398;
488.1000;0.6243;1.0375;
488.4000;0.6268;1.0375;
488.7000;0.6268;1.0281;
489.0000;0.6260;1.0281;
489.3000;0.6260;1.0257;
489.6000;0.6268;1.0234;
489.9000;0.6252;1.0234;
490.2000;0.6268;1.0375;
490.5000;0.6243;1.0304;
490.8000;0.6252;1.0398;
491.1000;0.6268;1.0492;
491.4000;0.6260;1.0421;
491.7000;0.6268;1.0398;
492.0000;0.6292;1.0398;
492.3000;0.6252;1.0328;
492.6000;0.6235;1.0304;
492.9000;0.6211;1.0328;
493.2000;0.6243;1.0445;
493.5000;0.6268;1.0445;
493.8000;0.6341;1.0633;
494.1000;0.6203;1.0257;
494.4000;0.6219;1.0304;
494.7000;0.6260;1.0445;
495.0000;0.6219;1.0328;
495.3000;0.6284;1.0351;
495.6000;0.6243;1.0351;
495.9000;0.6252;1.0328;
496.2000;0.6333;1.0515;
496.5000;0.6252;1.0328;
496.8000;0.6252;1.0398;
497.1000;0.6219;1.0328;
497.4000;0.6260;1.0421;
497.7000;0.6260;1.0468;
498.0000;0.6325;1.0515;
498.3000;0.6276;1.0468;
498.6000;0.6284;1.0492;
498.9000;0.6268;1.0562;
499.2000;0.6243;1.0609;
499.5000;0.6243;1.0562;
499.8000;0.6243;1.0656;
500.1000;0.6260;1.0727;
500.4000;0.6260;1.0703;
500.7000;0.6252;1.0680;
501.0000;0.6252;1.0633;
501.3000;0.6268;1.0562;
501.6000;0.6252;1.0468;
501.9000;0.6252;1.0375;
502.2000;0.6252;1.0398;
502.5000;0.6260;1.0304;
502.8000;0.6243;1.0304;
503.1000;0.6260;1.0351;
503.4000;0.6252;1.0281;
503.7000;0.6268;1.0281;
504.0000;0.6268;1.0257;
504.3000;0.6260;1.0234;
504.6000;0.6365;1.0539;
504.9000;0.6260;1.0351;
505.2000;0.6260;1.0421;
505.5000;0.6260;1.0445;
505.8000;0.6252;1.0445;
506.1000;0.6276;1.0445;
506.4000;0.6268;1.0375;
506.7000;0.6260;1.0328;
507.0000;0.6268;1.0398;
507.3000;0.6284;1.0468;
507.6000;0.6243;1.0375;
507.9000;0.6243;1.0375;
508.2000;0.6243;1.0398;
508.5000;0.6252;1.0398;
508.8000;0.6268;1.0421;
509.1000;0.6268;1.0421;
509.4000;0.6235;1.0304;
509.7000;0.6260;1.0328;
510.0000;0.6243;1.0328;
510.3000;0.6252;1.0234;
510.6000;0.6260;1.0281;
510.9000;0.6268;1.0163;
511.2000;0.6260;1.0116;
511.5000;0.6252;1.0140;
511.8000;0.6252;1.0022;
512.1000;0.6325;1.0210;
512.4000;0.6260;1.0046;
512.7000;0.6252;1.0069;
513.0000;0.6260;1.0163;
513.3000;0.6243;1.0163;
513.6000;0.6300;1.0281;
513.9000;0.6252;1.0234;
514.2000;0.6276;1.0234;
514.5000;0.6235;1.0187;
514.8000;0.6227;1.0163;
515.1000;0.6243;1.0210;
515.4000;0.6268;1.0351;
515.7000;0.6252;1.0375;
516.0000;0.6268;1.0398;
516.3000;0.6260;1.0375;
516.6000;0.6243;1.0257;
516.9000;0.6243;1.0210;
517.2000;0.6211;1.0022;
517.5000;0.6260;1.0163;
517.8000;0.6268;1.0140;
518.1000;0.6284;1.0163;
518.4000;0.6260;1.0210;
518.7000;0.6252;1.0281;
519.0000;0.6260;1.0398;
519.3000;0.6186;1.0163;
519.6000;0.6235;1.0281;
519.9000;0.6252;1.0328;
520.2000;0.6333;1.0398;
520.5000;0.6252;1.0328;
520.8000;0.6235;1.0257;
521.1000;0.6260;1.0257;
521.4000;0.6260;1.0234;
521.7000;0.6235;1.0234;
522.0000;0.6260;1.0257;
522.3000;0.6252;1.0257;
522.6000;0.6252;1.0187;
522.9000;0.6260;1.0187;
523.2000;0.6243;1.0210;
523.5000;0.6260;1.0234;
523.8000;0.6260;1.0257;
524.1000;0.6252;1.0257;
524.4000;0.6252;1.0421;
524.7000;0.6195;1.0281;
525.0000;0.6227;1.0328;
525.3000;0.6260;1.0351;
525.6000;0.6252;1.0187;
525.9000;0.6260;1.0093;
526.2000;0.6268;1.0093;
526.5000;0.6170;0.9835;
526.8000;0.6252;1.0069;
527.1000;0.6243;1.0069;
527.4000;0.6219;1.0046;
527.7000;0.6260;1.0116;
528.0000;0.6203;0.9905;
528.3000;0.6252;1.0093;
528.6000;0.6284;1.0281;
528.9000;0.6252;1.0234;
529.2000;0.6276;1.0281;
529.5000;0.6235;1.0187;
529.8000;0.6252;1.0234;
530.1000;0.6268;1.0304;
530.4000;0.6276;1.0445;
530.7000;0.6252;1.0398;
531.0000;0.6252;1.0351;
531.3000;0.6309;1.0398;
531.6000;0.6292;1.0375;
531.9000;0.6260;1.0375;
532.2000;0.6219;1.0234;
532.5000;0.6374;1.0633;
532.8000;0.6260;1.0281;
533.1000;0.6268;1.0304;
533.4000;0.6341;1.0468;
533.7000;0.6268;1.0304;
534.0000;0.6260;1.0421;
534.3000;0.6276;1.0492;
534.6000;0.6292;1.0515;
534.9000;0.6260;1.0421;
535.2000;0.6309;1.0539;
535.5000;0.6162;1.0163;
535.8000;0.6235;1.0257;
536.1000;0.6260;1.0304;
536.4000;0.6276;1.0304;
536.7000;0.6260;1.0421;
537.0000;0.6203;1.0304;
537.3000;0.6268;1.0375;
537.6000;0.6260;1.0445;
537.9000;0.6333;1.0586;
538.2000;0.6252;1.0445;
538.5000;0.6252;1.0398;
538.8000;0.6276;1.0328;
539.1000;0.6325;1.0515;
539.4000;0.6260;1.0445;
539.7000;0.6252;1.0421;
540.0000;0.6252;1.0351;
540.3000;0.6235;1.0304;
540.6000;0.6252;1.0351;
540.9000;0.6243;1.0281;
541.2000;0.6211;1.0234;
541.5000;0.6252;1.0375;
541.8000;0.6260;1.0351;
542.1000;0.6235;1.0257;
542.4000;0.6260;1.0187;
542.7000;0.6252;1.0187;
543.0000;0.6252;1.0140;
543.3000;0.6292;1.0093;
543.6000;0.6252;0.9976;
543.9000;0.6268;0.9976;
544.2000;0.6260;0.9976;
544.5000;0.6268;1.0069;
544.8000;0.6243;1.0046;
545.1000;0.6252;1.0163;
545.4000;0.6268;1.0257;
545.7000;0.6260;1.0187;
546.0000;0.6243;1.0210;
546.3000;0.6260;1.0281;
546.6000;0.6268;1.0281;
546.9000;0.6260;1.0304;
547.2000;0.6260;1.0234;
547.5000;0.6268;1.0234;
547.8000;0.6276;1.0210;
548.1000;0.6276;1.0234;
548.4000;0.6276;1.0257;
548.7000;0.6276;1.0210;
549.0000;0.6284;1.0257;
549.3000;0.6268;1.0281;
549.6000;0.6268;1.0234;
549.9000;0.6260;1.0163;
550.2000;0.6260;1.0257;
550.5000;0.6195;1.0140;
550.8000;0.6260;1.0281;
551.1000;0.6276;1.0328;
551.4000;0.6243;1.0234;
551.7000;0.6260;1.0187;
552.0000;0.6260;1.0163;
552.3000;0.6260;1.0140;
552.6000;0.6268;1.0069;
552.9000;0.6243;1.0163;
553.2000;0.6268;1.0281;
553.5000;0.6260;1.0257;
553.8000;0.6268;1.0257;
554.1000;0.6268;1.0304;
554.4000;0.6268;1.0421;
554.7000;0.6260;1.0445;
555.0000;0.6252;1.0375;
555.3000;0.6309;1.0445;
555.6000;0.6260;1.0257;
555.9000;0.6260;1.0163;
556.2000;0.6357;1.0421;
556.5000;0.6268;1.0163;
556.8000;0.6268;1.0234;
557.1000;0.6252;1.0210;
557.4000;0.6284;1.0328;
557.7000;0.6252;1.0281;
558.0000;0.6260;1.0234;
558.3000;0.6317;1.0492;
558.6000;0.6268;1.0375;
558.9000;0.6309;1.0398;
559.2000;0.6260;1.0351;
559.5000;0.6219;1.0281;
559.8000;0.6276;1.0351;
560.1000;0.6268;1.0398;
560.4000;0.6292;1.0468;
560.7000;0.6268;1.0398;
561.0000;0.6260;1.0375;
561.3000;0.6268;1.0468;
561.6000;0.6252;1.0421;
561.9000;0.6260;1.0398;
562.2000;0.6268;1.0351;
562.5000;0.6268;1.0328;
562.8000;0.6243;1.0304;
563.1000;0.6243;1.0257;
563.4000;0.6284;1.0328;
563.7000;0.6260;1.0281;
564.0000;0.6268;1.0304;
564.3000;0.6300;1.0375;
564.6000;0.6292;1.0351;
564.9000;0.6268;1.0234;
565.2000;0.6252;1.0304;
565.5000;0.6260;1.0281;
565.8000;0.6260;1.0304;
566.1000;0.6243;1.0328;
566.4000;0.6260;1.0351;
566.7000;0.6260;1.0257;
567.0000;0.6243;1.0163;
567.3000;0.6284;1.0304;
567.6000;0.6260;1.0210;
567.9000;0.6276;1.0281;
568.2000;0.6260;1.0257;
568.5000;0.6276;1.0281;
568.8000;0.6260;1.0304;
569.1000;0.6276;1.0328;
569.4000;0.6284;1.0421;
569.7000;0.6252;1.0421;
570.0000;0.6260;1.0398;
570.3000;0.6227;1.0351;
570.6000;0.6268;1.0304;
570.9000;0.6260;1.0281;
571.2000;0.6268;1.0257;
571.5000;0.6268;1.0187;
571.8000;0.6252;1.0116;
572.1000;0.6276;1.0187;
572.4000;0.6365;1.0468;
572.7000;0.6252;1.0163;
573.0000;0.6252;1.0140;
573.3000;0.6276;1.0163;
573.6000;0.6260;1.0210;
573.9000;0.6276;1.0281;
574.2000;0.6268;1.0210;
574.5000;0.6268;1.0257;
574.8000;0.6268;1.0328;
575.1000;0.6252;1.0257;
575.4000;0.6243;1.0328;
575.7000;0.6260;1.0351;
576.0000;0.6252;1.0398;
576.3000;0.6260;1.0281;
576.6000;0.6252;1.0304;
576.9000;0.6243;1.0234;
577.2000;0.6284;1.0328;
577.5000;0.6252;1.0281;
577.8000;0.6260;1.0304;
578.1000;0.6252;1.0281;
578.4000;0.6252;1.0257;
578.7000;0.6268;1.0351;
579.0000;0.6268;1.0421;
579.3000;0.6243;1.0351;
579.6000;0.6260;1.0398;
579.9000;0.6268;1.0398;
580.2000;0.6195;1.0281;
580.5000;0.6243;1.0351;
580.8000;0.6252;1.0421;
581.1000;0.6252;1.0421;
581.4000;0.6243;1.0421;
581.7000;0.6260;1.0328;
582.0000;0.6268;1.0257;
582.3000;0.6227;1.0210;
582.6000;0.6252;1.0257;
582.9000;0.6260;1.0234;
583.2000;0.6178;1.0187;
583.5000;0.6260;1.0375;
583.8000;0.6309;1.0515;
584.1000;0.6243;1.0421;
584.4000;0.6260;1.0445;
584.7000;0.6252;1.0398;
585.0000;0.6276;1.0492;
585.3000;0.6243;1.0445;
585.6000;0.6268;1.0398;
585.9000;0.6252;1.0398;
586.2000;0.6252;1.0398;
586.5000;0.6243;1.0375;
586.8000;0.6243;1.0351;
587.1000;0.6268;1.0351;
587.4000;0.6235;1.0304;
587.7000;0.6276;1.0421;
588.0000;0.6252;1.0375;
588.3000;0.6260;1.0398;
588.6000;0.6252;1.0328;
588.9000;0.6235;1.0304;
589.2000;0.6219;1.0210;
589.5000;0.6235;1.0304;
589.8000;0.6235;1.0257;
590.1000;0.6178;1.0093;
590.4000;0.6235;1.0351;
590.7000;0.6243;1.0351;
591.0000;0.6235;1.0304;
591.3000;0.6235;1.0375;
591.6000;0.6235;1.0351;
591.9000;0.6235;1.0328;
592.2000;0.6243;1.0304;
592.5000;0.6260;1.0328;
592.8000;0.6260;1.0304;
593.1000;0.6252;1.0281;
593.4000;0.6309;1.0492;
593.7000;0.6284;1.0515;
594.0000;0.6243;1.0468;
594.3000;0.6243;1.0398;
594.6000;0.6252;1.0328;
594.9000;0.6252;1.0304;
595.2000;0.6243;1.0187;
595.5000;0.6260;1.0116;
595.8000;0.6235;1.0140;
596.1000;0.6276;1.0257;
596.4000;0.6268;1.0351;
596.7000;0.6252;1.0304;
597.0000;0.6252;1.0257;
597.3000;0.6235;1.0234;
597.6000;0.6300;1.0304;
597.9000;0.6260;1.0093;
598.2000;0.6243;1.0069;
598.5000;0.6235;1.0046;
598.8000;0.6268;1.0140;
599.1000;0.6260;1.0187;
599.4000;0.6219;1.0046;
599.7000;0.6292;1.0234;
600.0000;0.6227;1.0046;
600.3000;0.6260;1.0069;
600.6000;0.6252;1.0046;
600.9000;0.6252;1.0093;
601.2000;0.6227;1.0022;
601.5000;0.6211;0.9976;
601.8000;0.6170;0.9835;
602.1000;0.6162;0.9788;
602.4000;0.6129;0.9670;
602.7000;0.6129;0.9530;
603.0000;0.6081;0.9365;
603.3000;0.6056;0.9342;
603.6000;0.6007;0.9224;
603.9000;0.6015;0.9201;
604.2000;0.5999;0.9201;
604.5000;0.5958;0.9177;
604.8000;0.5942;0.9177;
605.1000;0.5926;0.9084;
605.4000;0.5902;0.8966;
605.7000;0.5902;0.8943;
606.0000;0.5893;0.8990;
606.3000;0.5869;0.8990;
606.6000;0.5853;0.8966;
606.9000;0.5836;0.8943;
607.2000;0.5820;0.8943;
607.5000;0.5828;0.9037;
607.8000;0.5820;0.9013;
608.1000;0.5788;0.8872;
608.4000;0.5779;0.8849;
608.7000;0.5779;0.8872;
609.0000;0.5779;0.8966;
609.3000;0.5739;0.8849;
609.6000;0.5755;0.8849;
609.9000;0.5731;0.8896;
610.2000;0.5739;0.8919;
610.5000;0.5731;0.8825;
610.8000;0.5682;0.8755;
611.1000;0.5698;0.8778;
611.4000;0.5690;0.8755;
611.7000;0.5690;0.8778;
612.0000;0.5625;0.8591;
612.3000;0.5649;0.8708;
612.6000;0.5641;0.8638;
612.9000;0.5649;0.8591;
613.2000;0.5698;0.8778;
613.5000;0.5641;0.8638;
613.8000;0.5617;0.8685;
614.1000;0.5608;0.8708;
614.4000;0.5600;0.8755;
614.7000;0.5568;0.8638;
615.0000;0.5503;0.8403;
615.3000;0.5551;0.8614;
615.6000;0.5568;0.8661;
615.9000;0.5551;0.8567;
616.2000;0.5551;0.8567;
616.5000;0.5560;0.8685;
616.8000;0.5535;0.8638;
617.1000;0.5543;0.8614;
617.4000;0.5527;0.8685;
617.7000;0.5519;0.8591;
618.0000;0.5535;0.8708;
618.3000;0.5511;0.8732;
618.6000;0.5503;0.8661;
618.9000;0.5503;0.8732;
619.2000;0.5503;0.8708;
619.5000;0.5503;0.8685;
619.8000;0.5478;0.8732;
620.1000;0.5462;0.8685;
620.4000;0.5470;0.8661;
620.7000;0.5470;0.8708;
621.0000;0.5470;0.8732;
621.3000;0.5462;0.8708;
621.6000;0.5446;0.8614;
621.9000;0.5381;0.8520;
622.2000;0.5446;0.8638;
622.5000;0.5429;0.8614;
622.8000;0.5421;0.8591;
623.1000;0.5421;0.8567;
623.4000;0.5397;0.8567;
623.7000;0.5372;0.8544;
624.0000;0.5413;0.8661;
624.3000;0.5372;0.8638;
624.6000;0.5454;0.8919;
624.9000;0.5381;0.8755;
625.2000;0.5372;0.8778;
625.5000;0.5364;0.8778;
625.8000;0.5372;0.8732;
626.1000;0.5340;0.8567;
626.4000;0.5413;0.8685;
626.7000;0.5348;0.8661;
627.0000;0.5372;0.8755;
627.3000;0.5324;0.8685;
627.6000;0.5315;0.8685;
627.9000;0.5340;0.8685;
628.2000;0.5340;0.8685;
628.5000;0.5372;0.8685;
628.8000;0.5307;0.8614;
629.1000;0.5381;0.8755;
629.4000;0.5307;0.8544;
629.7000;0.5307;0.8544;
630.0000;0.5307;0.8544;
630.3000;0.5299;0.8591;
630.6000;0.5307;0.8685;
630.9000;0.5348;0.8872;
631.2000;0.5218;0.8473;
631.5000;0.5283;0.8567;
631.8000;0.5267;0.8544;
632.1000;0.5275;0.8591;
632.4000;0.5275;0.8638;
632.7000;0.5258;0.8638;
633.0000;0.5218;0.8567;
633.3000;0.5218;0.8708;
633.6000;0.5242;0.8825;
633.9000;0.5234;0.8849;
634.2000;0.5234;0.8802;
634.5000;0.5242;0.8872;
634.8000;0.5201;0.8872;
635.1000;0.5210;0.8943;
635.4000;0.5210;0.8919;
635.7000;0.5218;0.8990;
636.0000;0.5201;0.8849;
636.3000;0.5201;0.8778;
636.6000;0.5185;0.8802;
636.9000;0.5193;0.8802;
637.2000;0.5201;0.8849;
637.5000;0.5193;0.8896;
637.8000;0.5185;0.8849;
638.1000;0.5242;0.8966;
638.4000;0.5177;0.8778;
638.7000;0.5153;0.8685;
639.0000;0.5169;0.8708;
639.3000;0.5104;0.8638;
639.6000;0.5136;0.8732;
639.9000;0.5153;0.8708;
640.2000;0.5144;0.8708;
640.5000;0.5161;0.8825;
640.8000;0.5161;0.8802;
641.1000;0.5144;0.8802;
641.4000;0.5120;0.8755;
641.7000;0.5144;0.8755;
642.0000;0.5128;0.8661;
642.3000;0.5128;0.8638;
642.6000;0.5104;0.8638;
642.9000;0.5112;0.8661;
643.2000;0.5128;0.8591;
643.5000;0.5096;0.8544;
643.8000;0.5120;0.8661;
644.1000;0.5112;0.8661;
644.4000;0.5104;0.8638;
644.7000;0.5096;0.8567;
645.0000;0.5079;0.8614;
645.3000;0.5079;0.8614;
645.6000;0.5079;0.8661;
645.9000;0.5071;0.8567;
646.2000;0.5079;0.8661;
646.5000;0.5055;0.8614;
646.8000;0.5063;0.8638;
647.1000;0.5055;0.8614;
647.4000;0.5055;0.8638;
647.7000;0.5055;0.8638;
648.0000;0.5047;0.8708;
648.3000;0.5055;0.8708;
648.6000;0.5047;0.8708;
648.9000;0.5047;0.8755;
649.2000;0.4982;0.8544;
649.5000;0.5006;0.8638;
649.8000;0.5014;0.8708;
650.1000;0.5022;0.8755;
650.4000;0.5006;0.8849;
650.7000;0.5031;0.8943;
651.0000;0.5031;0.8896;
651.3000;0.4998;0.8755;
651.6000;0.4990;0.8638;
651.9000;0.5006;0.8708;
652.2000;0.5014;0.8708;
652.5000;0.4965;0.8614;
652.8000;0.5006;0.8638;
653.1000;0.4998;0.8661;
653.4000;0.5014;0.8732;
653.7000;0.4998;0.8708;
654.0000;0.4974;0.8661;
654.3000;0.4974;0.8708;
654.6000;0.4982;0.8755;
654.9000;0.4974;0.8778;
655.2000;0.4974;0.8802;
655.5000;0.4974;0.8825;
655.8000;0.4957;0.8755;
656.1000;0.4974;0.8802;
656.4000;0.4957;0.8778;
656.7000;0.4941;0.8755;
657.0000;0.5006;0.9060;
657.3000;0.4957;0.8943;
657.6000;0.4949;0.8825;
657.9000;0.4949;0.8802;
658.2000;0.4941;0.8825;
658.5000;0.4957;0.8872;
658.8000;0.4941;0.8755;
659.1000;0.4908;0.8755;
659.4000;0.4941;0.8896;
659.7000;0.4941;0.8872;
660.0000;0.4925;0.8872;
660.3000;0.4941;0.8825;
660.6000;0.4917;0.8755;
660.9000;0.4827;0.8450;
661.2000;0.4925;0.8755;
661.5000;0.4917;0.8685;
661.8000;0.4917;0.8732;
662.1000;0.4917;0.8685;
662.4000;0.4908;0.8661;
662.7000;0.4900;0.8591;
663.0000;0.4900;0.8638;
663.3000;0.4884;0.8661;
663.6000;0.4892;0.8732;
663.9000;0.4892;0.8825;
664.2000;0.4884;0.8872;
664.5000;0.4851;0.8825;
664.8000;0.4876;0.8825;
665.1000;0.4884;0.8802;
665.4000;0.4860;0.8732;
665.7000;0.4868;0.8755;
666.0000;0.4892;0.8778;
666.3000;0.4900;0.8825;
666.6000;0.4868;0.8755;
666.9000;0.4876;0.8802;
667.2000;0.4892;0.8872;
667.5000;0.4868;0.8755;
667.8000;0.4884;0.8755;
668.1000;0.4884;0.8732;
668.4000;0.4868;0.8755;
668.7000;0.4884;0.8755;
669.0000;0.4868;0.8732;
669.3000;0.4843;0.8614;
669.6000;0.4843;0.8591;
669.9000;0.4851;0.8638;
670.2000;0.4835;0.8591;
670.5000;0.4835;0.8685;
670.8000;0.4819;0.8661;
671.1000;0.4851;0.8755;
671.4000;0.4778;0.8591;
671.7000;0.4835;0.8778;
672.0000;0.4811;0.8778;
672.3000;0.4827;0.8825;
672.6000;0.4827;0.8825;
672.9000;0.4827;0.8778;
673.2000;0.4827;0.8802;
673.5000;0.4860;0.8896;
673.8000;0.4835;0.8849;
674.1000;0.4819;0.8896;
674.4000;0.4827;0.8919;
674.7000;0.4819;0.8896;
675.0000;0.4819;0.8825;
675.3000;0.4835;0.8872;
675.6000;0.4819;0.8872;
675.9000;0.4803;0.8825;
676.2000;0.4827;0.8896;
676.5000;0.4884;0.8943;
676.8000;0.4811;0.8802;
677.1000;0.4811;0.8849;
677.4000;0.4803;0.8825;
677.7000;0.4794;0.8802;
678.0000;0.4794;0.8802;
678.3000;0.4803;0.8732;
678.6000;0.4794;0.8638;
678.9000;0.4786;0.8614;
679.2000;0.4803;0.8567;
679.5000;0.4786;0.8520;
679.8000;0.4770;0.8544;
680.1000;0.4762;0.8614;
680.4000;0.4754;0.8685;
680.7000;0.4786;0.8732;
681.0000;0.4778;0.8755;
681.3000;0.4770;0.8755;
681.6000;0.4778;0.8802;
681.9000;0.4778;0.8943;
682.2000;0.4786;0.9013;
682.5000;0.4762;0.8896;
682.8000;0.4770;0.8943;
683.1000;0.4762;0.8896;
683.4000;0.4754;0.8896;
683.7000;0.4770;0.8943;
684.0000;0.4762;0.8966;
684.3000;0.4754;0.8966;
684.6000;0.4762;0.8896;
684.9000;0.4746;0.8943;
685.2000;0.4754;0.8943;
685.5000;0.4737;0.8919;
685.8000;0.4729;0.8778;
686.1000;0.4721;0.8849;
686.4000;0.4746;0.8802;
686.7000;0.4737;0.8849;
687.0000;0.4705;0.8685;
687.3000;0.4737;0.8825;
687.6000;0.4746;0.8896;
687.9000;0.4737;0.9013;
688.2000;0.4729;0.9013;
688.5000;0.4746;0.8990;
688.8000;0.4737;0.8966;
689.1000;0.4827;0.9084;
689.4000;0.4737;0.8802;
689.7000;0.4713;0.8732;
690.0000;0.4754;0.8872;
690.3000;0.4705;0.8872;
690.6000;0.4721;0.8966;
690.9000;0.4713;0.8966;
691.2000;0.4721;0.8966;
691.5000;0.4762;0.9107;
691.8000;0.4721;0.9037;
692.1000;0.4713;0.8943;
692.4000;0.4713;0.8872;
692.7000;0.4672;0.8732;
693.0000;0.4705;0.8802;
693.3000;0.4697;0.8778;
693.6000;0.4656;0.8732;
693.9000;0.4713;0.8919;
694.2000;0.4721;0.8919;
694.5000;0.4681;0.8825;
694.8000;0.4689;0.8802;
695.1000;0.4713;0.8802;
695.4000;0.4713;0.8708;
695.7000;0.4697;0.8778;
696.0000;0.4681;0.8802;
696.3000;0.4672;0.8802;
696.6000;0.4689;0.8943;
696.9000;0.4697;0.9013;
697.2000;0.4697;0.8943;
697.5000;0.4689;0.8919;
697.8000;0.4697;0.9060;
698.1000;0.4681;0.8919;
698.4000;0.4681;0.8872;
698.7000;0.4681;0.8990;
699.0000;0.4689;0.9060;
699.3000;0.4672;0.8990;
699.6000;0.4689;0.9013;
699.9000;0.4681;0.9013;
700.2000;0.4672;0.8990;
700.5000;0.4754;0.8990;
700.8000;0.4672;0.8849;
701.1000;0.4656;0.8872;
701.4000;0.4681;0.8919;
701.7000;0.4664;0.8802;
702.0000;0.4664;0.8849;
702.3000;0.4656;0.8849;
702.6000;0.4681;0.8966;
702.9000;0.4664;0.8990;
703.2000;0.4672;0.8872;
703.5000;0.4672;0.8849;
703.8000;0.4746;0.9084;
704.1000;0.4672;0.8849;
704.4000;0.4681;0.8896;
704.7000;0.4672;0.8943;
705.0000;0.4672;0.8990;
705.3000;0.4672;0.8966;
705.6000;0.4664;0.8872;
705.9000;0.4656;0.8896;
706.2000;0.4591;0.8732;
706.5000;0.4656;0.8919;
706.8000;0.4648;0.8872;
707.1000;0.4607;0.8732;
707.4000;0.4640;0.8708;
707.7000;0.4656;0.8755;
708.0000;0.4648;0.8685;
708.3000;0.4656;0.8708;
708.6000;0.4648;0.8661;
708.9000;0.4648;0.8708;
709.2000;0.4648;0.8638;
709.5000;0.4640;0.8732;
709.8000;0.4632;0.8708;
710.1000;0.4632;0.8732;
710.4000;0.4632;0.8732;
710.7000;0.4729;0.8943;
711.0000;0.4656;0.8849;
711.3000;0.4640;0.8849;
711.6000;0.4648;0.8849;
711.9000;0.4640;0.8872;
712.2000;0.4648;0.8778;
712.5000;0.4656;0.8778;
712.8000;0.4664;0.8802;
713.1000;0.4624;0.8732;
713.4000;0.4558;0.8450;
713.7000;0.4632;0.8755;
714.0000;0.4615;0.8732;
714.3000;0.4632;0.8755;
714.6000;0.4615;0.8825;
714.9000;0.4534;0.8638;
715.2000;0.4607;0.8755;
715.5000;0.4656;0.8802;
715.8000;0.4624;0.8849;
716.1000;0.4624;0.8896;
716.4000;0.4615;0.8849;
716.7000;0.4599;0.8825;
717.0000;0.4615;0.8825;
717.3000;0.4607;0.8802;
717.6000;0.4567;0.8755;
717.9000;0.4599;0.8825;
718.2000;0.4632;0.8825;
718.5000;0.4607;0.8802;
718.8000;0.4607;0.8825;
719.1000;0.4599;0.8778;
719.4000;0.4624;0.8778;
719.7000;0.4583;0.8614;
720.0000;0.4607;0.8755;
720.3000;0.4591;0.8685;
720.6000;0.4640;0.8825;
720.9000;0.4607;0.8732;
721.2000;0.4648;0.8896;
721.5000;0.4648;0.8825;
721.8000;0.4615;0.8732;
722.1000;0.4607;0.8614;
722.4000;0.4664;0.8778;
722.7000;0.4599;0.8685;
723.0000;0.4607;0.8732;
723.3000;0.4615;0.8778;
723.6000;0.4607;0.8661;
723.9000;0.4599;0.8591;
724.2000;0.4575;0.8567;
724.5000;0.4599;0.8638;
724.8000;0.4607;0.8755;
725.1000;0.4607;0.8778;
725.4000;0.4607;0.8849;
725.7000;0.4607;0.8825;
726.0000;0.4599;0.8849;
726.3000;0.4591;0.8896;
726.6000;0.4591;0.8872;
726.9000;0.4599;0.8896;
727.2000;0.4591;0.8778;
727.5000;0.4567;0.8708;
727.8000;0.4599;0.8755;
728.1000;0.4550;0.8638;
728.4000;0.4591;0.8732;
728.7000;0.4599;0.8708;
729.0000;0.4656;0.8919;
729.3000;0.4583;0.8638;
729.6000;0.4575;0.8685;
729.9000;0.4583;0.8638;
730.2000;0.4591;0.8778;
730.5000;0.4567;0.8708;
730.8000;0.4558;0.8708;
731.1000;0.4591;0.8755;
731.4000;0.4583;0.8708;
731.7000;0.4591;0.8778;
732.0000;0.4599;0.8825;
732.3000;0.4591;0.8825;
732.6000;0.4575;0.8778;
732.9000;0.4542;0.8755;
733.2000;0.4583;0.8966;
733.5000;0.4591;0.9060;
733.8000;0.4599;0.9107;
734.1000;0.4567;0.9060;
734.4000;0.4575;0.9084;
734.7000;0.4575;0.8990;
735.0000;0.4575;0.8966;
735.3000;0.4575;0.8943;
735.6000;0.4575;0.8919;
735.9000;0.4518;0.8708;
736.2000;0.4583;0.8755;
736.5000;0.4567;0.8708;
736.8000;0.4583;0.8755;
737.1000;0.4575;0.8708;
737.4000;0.4550;0.8661;
737.7000;0.4575;0.8661;
738.0000;0.4558;0.8708;
738.3000;0.4583;0.8732;
738.6000;0.4591;0.8755;
738.9000;0.4567;0.8685;
739.2000;0.4567;0.8708;
739.5000;0.4575;0.8778;
739.8000;0.4558;0.8755;
740.1000;0.4558;0.8732;
740.4000;0.4534;0.8732;
740.7000;0.4550;0.8732;
741.0000;0.4567;0.8778;
741.3000;0.4550;0.8825;
741.6000;0.4526;0.8802;
741.9000;0.4526;0.8825;
742.2000;0.4615;0.8966;
742.5000;0.4542;0.8685;
742.8000;0.4550;0.8685;
743.1000;0.4542;0.8685;
743.4000;0.4526;0.8732;
743.7000;0.4558;0.8755;
744.0000;0.4534;0.8778;
744.3000;0.4550;0.8825;
744.6000;0.4542;0.8778;
744.9000;0.4501;0.8591;
745.2000;0.4558;0.8755;
745.5000;0.4542;0.8755;
745.8000;0.4550;0.8778;
746.1000;0.4542;0.8661;
746.4000;0.4501;0.8473;
746.7000;0.4526;0.8520;
747.0000;0.4550;0.8520;
747.3000;0.4567;0.8614;
747.6000;0.4534;0.8473;
747.9000;0.4583;0.8614;
748.2000;0.4542;0.8567;
748.5000;0.4542;0.8591;
748.8000;0.4542;0.8614;
749.1000;0.4526;0.8614;
749.4000;0.4550;0.8732;
749.7000;0.4542;0.8732;
750.0000;0.4550;0.8778;
750.3000;0.4534;0.8778;
750.6000;0.4526;0.8849;
750.9000;0.4534;0.8849;
751.2000;0.4534;0.8896;
751.5000;0.4534;0.8802;
751.8000;0.4526;0.8732;
752.1000;0.4542;0.8755;
752.4000;0.4550;0.8732;
752.7000;0.4534;0.8732;
753.0000;0.4526;0.8732;
753.3000;0.4518;0.8732;
753.6000;0.4526;0.8685;
753.9000;0.4526;0.8778;
754.2000;0.4518;0.8685;
754.5000;0.4510;0.8708;
754.8000;0.4534;0.8825;
755.1000;0.4501;0.8896;
755.4000;0.4534;0.8919;
755.7000;0.4510;0.8825;
756.0000;0.4526;0.8849;
756.3000;0.4510;0.8802;
756.6000;0.4510;0.8872;
756.9000;0.4501;0.8896;
757.2000;0.4526;0.8896;
757.5000;0.4526;0.8872;
757.8000;0.4526;0.8849;
758.1000;0.4518;0.8825;
758.4000;0.4501;0.8802;
758.7000;0.4542;0.8872;
759.0000;0.4550;0.8872;
759.3000;0.4542;0.8802;
759.6000;0.4510;0.8755;
759.9000;0.4526;0.8778;
760.2000;0.4542;0.8825;
760.5000;0.4558;0.8849;
760.8000;0.4510;0.8708;
761.1000;0.4501;0.8755;
761.4000;0.4534;0.8849;
761.7000;0.4526;0.8849;
762.0000;0.4526;0.8825;
762.3000;0.4518;0.8849;
762.6000;0.4534;0.8849;
762.9000;0.4526;0.8825;
763.2000;0.4518;0.8778;
763.5000;0.4558;0.8849;
763.8000;0.4510;0.8708;
764.1000;0.4510;0.8708;
764.4000;0.4493;0.8661;
764.7000;0.4501;0.8638;
765.0000;0.4542;0.8755;
765.3000;0.4510;0.8685;
765.6000;0.4501;0.8661;
765.9000;0.4493;0.8591;
766.2000;0.4501;0.8544;
766.5000;0.4485;0.8473;
766.8000;0.4501;0.8614;
767.1000;0.4518;0.8732;
767.4000;0.4469;0.8614;
767.7000;0.4518;0.8755;
768.0000;0.4550;0.8849;
768.3000;0.4477;0.8638;
768.6000;0.4510;0.8708;
768.9000;0.4510;0.8685;
769.2000;0.4534;0.8778;
769.5000;0.4493;0.8614;
769.8000;0.4518;0.8614;
770.1000;0.4510;0.8591;
770.4000;0.4510;0.8614;
770.7000;0.4518;0.8708;
771.0000;0.4510;0.8708;
771.3000;0.4501;0.8732;
771.6000;0.4510;0.8732;
771.9000;0.4501;0.8778;
772.2000;0.4518;0.8778;
772.5000;0.4501;0.8802;
772.8000;0.4510;0.8755;
773.1000;0.4510;0.8825;
773.4000;0.4510;0.8872;
773.7000;0.4518;0.8919;
774.0000;0.4485;0.8919;
774.3000;0.4485;0.8872;
774.6000;0.4493;0.8802;
774.9000;0.4493;0.8778;
775.2000;0.4493;0.8732;
775.5000;0.4501;0.8708;
775.8000;0.4485;0.8661;
776.1000;0.4477;0.8685;
776.4000;0.4510;0.8685;
776.7000;0.4485;0.8614;
777.0000;0.4469;0.8685;
777.3000;0.4485;0.8778;
777.6000;0.4493;0.8872;
777.9000;0.4477;0.8849;
778.2000;0.4477;0.8919;
778.5000;0.4469;0.8919;
778.8000;0.4485;0.8966;
779.1000;0.4469;0.8872;
779.4000;0.4485;0.8825;
779.7000;0.4477;0.8778;
780.0000;0.4485;0.8778;
780.3000;0.4477;0.8685;
780.6000;0.4485;0.8661;
780.9000;0.4485;0.8755;
781.2000;0.4477;0.8778;
781.5000;0.4461;0.8732;
781.8000;0.4493;0.8872;
782.1000;0.4477;0.8755;
782.4000;0.4412;0.8567;
782.7000;0.4501;0.8825;
783.0000;0.4493;0.8919;
783.3000;0.4469;0.8849;
783.6000;0.4477;0.8872;
783.9000;0.4477;0.8802;
784.2000;0.4485;0.8778;
784.5000;0.4477;0.8755;
784.8000;0.4469;0.8755;
785.1000;0.4485;0.8802;
785.4000;0.4575;0.9084;
785.7000;0.4485;0.8872;
786.0000;0.4485;0.8896;
786.3000;0.4477;0.8943;
786.6000;0.4493;0.8943;
786.9000;0.4477;0.8896;
787.2000;0.4469;0.8849;
787.5000;0.4526;0.8966;
787.8000;0.4477;0.8849;
788.1000;0.4493;0.8919;
788.4000;0.4469;0.8802;
788.7000;0.4469;0.8849;
789.0000;0.4469;0.8825;
789.3000;0.4469;0.8755;
789.6000;0.4461;0.8755;
789.9000;0.4469;0.8825;
790.2000;0.4444;0.8849;
790.5000;0.4469;0.8872;
790.8000;0.4453;0.8755;
791.1000;0.4477;0.8802;
791.4000;0.4493;0.8872;
791.7000;0.4485;0.8849;
792.0000;0.4444;0.8872;
792.3000;0.4526;0.9037;
792.6000;0.4461;0.8872;
792.9000;0.4477;0.8849;
793.2000;0.4469;0.8732;
793.5000;0.4469;0.8755;
793.8000;0.4477;0.8778;
794.1000;0.4469;0.8802;
794.4000;0.4469;0.8849;
794.7000;0.4453;0.8802;
795.0000;0.4453;0.8755;
795.3000;0.4477;0.8708;
795.6000;0.4469;0.8825;
795.9000;0.4469;0.8872;
796.2000;0.4461;0.8802;
796.5000;0.4485;0.8849;
796.8000;0.4469;0.8802;
797.1000;0.4469;0.8849;
797.4000;0.4469;0.8708;
797.7000;0.4469;0.8732;
798.0000;0.4469;0.8825;
798.3000;0.4469;0.8778;
798.6000;0.4461;0.8708;
798.9000;0.4469;0.8755;
799.2000;0.4461;0.8755;
799.5000;0.4461;0.8685;
799.8000;0.4477;0.8755;
800.1000;0.4453;0.8708;
800.4000;0.4461;0.8708;
800.7000;0.4469;0.8802;
801.0000;0.4469;0.8849;
801.3000;0.4469;0.8802;
801.6000;0.4477;0.8755;
801.9000;0.4428;0.8708;
802.2000;0.4461;0.8849;
802.5000;0.4453;0.8825;
802.8000;0.4461;0.8732;
803.1000;0.4461;0.8778;
803.4000;0.4412;0.8802;
803.7000;0.4444;0.8896;
804.0000;0.4420;0.8825;
804.3000;0.4461;0.8896;
804.6000;0.4453;0.8778;
804.9000;0.4420;0.8708;
805.2000;0.4453;0.8778;
805.5000;0.4444;0.8708;
805.8000;0.4510;0.8849;
806.1000;0.4444;0.8732;
806.4000;0.4453;0.8732;
806.7000;0.4461;0.8802;
807.0000;0.4477;0.8872;
807.3000;0.4428;0.8778;
807.6000;0.4444;0.8755;
807.9000;0.4542;0.9060;
808.2000;0.4363;0.8497;
808.5000;0.4453;0.8755;
808.8000;0.4444;0.8685;
809.1000;0.4444;0.8732;
809.4000;0.4477;0.8708;
809.7000;0.4436;0.8661;
810.0000;0.4444;0.8732;
810.3000;0.4436;0.8732;
810.6000;0.4453;0.8708;
810.9000;0.4461;0.8825;
811.2000;0.4453;0.8802;
811.5000;0.4461;0.8825;
811.8000;0.4461;0.8755;
812.1000;0.4461;0.8802;
812.4000;0.4436;0.8732;
812.7000;0.4444;0.8755;
813.0000;0.4444;0.8755;
813.3000;0.4444;0.8732;
813.6000;0.4453;0.8755;
813.9000;0.4477;0.8849;
814.2000;0.4396;0.8638;
814.5000;0.4404;0.8708;
814.8000;0.4436;0.8755;
815.1000;0.4444;0.8732;
815.4000;0.4436;0.8614;
815.7000;0.4453;0.8614;
816.0000;0.4379;0.8544;
816.3000;0.4453;0.8708;
816.6000;0.4453;0.8661;
816.9000;0.4444;0.8614;
817.2000;0.4477;0.8685;
817.5000;0.4453;0.8614;
817.8000;0.4436;0.8567;
818.1000;0.4510;0.8825;
818.4000;0.4428;0.8614;
818.7000;0.4453;0.8614;
819.0000;0.4436;0.8638;
819.3000;0.4436;0.8638;
819.6000;0.4436;0.8544;
819.9000;0.4493;0.8614;
820.2000;0.4436;0.8591;
820.5000;0.4436;0.8638;
820.8000;0.4444;0.8802;
821.1000;0.4420;0.8755;
821.4000;0.4428;0.8778;
821.7000;0.4436;0.8778;
822.0000;0.4420;0.8802;
822.3000;0.4428;0.8825;
822.6000;0.4428;0.8849;
822.9000;0.4420;0.8872;
823.2000;0.4420;0.8872;
823.5000;0.4428;0.8919;
823.8000;0.4420;0.8943;
824.1000;0.4412;0.8919;
824.4000;0.4412;0.8919;
824.7000;0.4436;0.8919;
825.0000;0.4428;0.8872;
825.3000;0.4444;0.8872;
825.6000;0.4436;0.8943;
825.9000;0.4534;0.9224;
826.2000;0.4436;0.8896;
826.5000;0.4444;0.8966;
826.8000;0.4436;0.8919;
827.1000;0.4428;0.8732;
827.4000;0.4428;0.8732;
827.7000;0.4444;0.8802;
828.0000;0.4436;0.8825;
828.3000;0.4428;0.8919;
828.6000;0.4420;0.8872;
828.9000;0.4371;0.8732;
829.2000;0.4428;0.8849;
829.5000;0.4518;0.9084;
829.8000;0.4526;0.9013;
830.1000;0.4444;0.8872;
830.4000;0.4420;0.8755;
830.7000;0.4420;0.8778;
831.0000;0.4347;0.8638;
831.3000;0.4453;0.8872;
831.6000;0.4436;0.8849;
831.9000;0.4420;0.8825;
832.2000;0.4444;0.8849;
832.5000;0.4355;0.8708;
832.8000;0.4436;0.8990;
833.1000;0.4436;0.8943;
833.4000;0.4420;0.9013;
833.7000;0.4436;0.8919;
834.0000;0.4404;0.8825;
834.3000;0.4420;0.8896;
834.6000;0.4444;0.8919;
834.9000;0.4428;0.8825;
835.2000;0.4420;0.8778;
835.5000;0.4412;0.8732;
835.8000;0.4428;0.8778;
836.1000;0.4420;0.8755;
836.4000;0.4420;0.8708;
836.7000;0.4420;0.8755;
837.0000;0.4485;0.8966;
837.3000;0.4428;0.8802;
837.6000;0.4379;0.8685;
837.9000;0.4436;0.8802;
838.2000;0.4404;0.8732;
838.5000;0.4420;0.8732;
838.8000;0.4420;0.8755;
839.1000;0.4420;0.8872;
839.4000;0.4387;0.8802;
839.7000;0.4412;0.8872;
840.0000;0.4428;0.8802;
840.3000;0.4444;0.8896;
840.6000;0.4428;0.8732;
840.9000;0.4420;0.8732;
841.2000;0.4444;0.8755;
841.5000;0.4436;0.8732;
841.8000;0.4436;0.8685;
842.1000;0.4436;0.8685;
842.4000;0.4436;0.8755;
842.7000;0.4436;0.8802;
843.0000;0.4420;0.8778;
843.3000;0.4412;0.8802;
843.6000;0.4412;0.8732;
843.9000;0.4436;0.8778;
844.2000;0.4396;0.8732;
844.5000;0.4420;0.8802;
844.8000;0.4420;0.8778;
845.1000;0.4420;0.8732;
845.4000;0.4453;0.8802;
845.7000;0.4420;0.8755;
846.0000;0.4404;0.8661;
846.3000;0.4428;0.8732;
846.6000;0.4412;0.8825;
846.9000;0.4404;0.8778;
847.2000;0.4420;0.8872;
847.5000;0.4404;0.8896;
847.8000;0.4420;0.8825;
848.1000;0.4420;0.8825;
848.4000;0.4404;0.8802;
848.7000;0.4404;0.8825;
849.0000;0.4420;0.8825;
849.3000;0.4420;0.8778;
849.6000;0.4420;0.8849;
849.9000;0.4428;0.8896;
850.2000;0.4444;0.8943;
850.5000;0.4428;0.8872;
850.8000;0.4412;0.8849;
851.1000;0.4412;0.8896;
851.4000;0.4420;0.8872;
851.7000;0.4436;0.8943;
852.0000;0.4404;0.8966;
852.3000;0.4436;0.8990;
852.6000;0.4420;0.8919;
852.9000;0.4404;0.8919;
853.2000;0.4404;0.8943;
853.5000;0.4379;0.8896;
853.8000;0.4404;0.8943;
854.1000;0.4412;0.8990;
854.4000;0.4396;0.8943;
854.7000;0.4347;0.8802;
855.0000;0.4436;0.9037;
855.3000;0.4477;0.9107;
855.6000;0.4428;0.8919;
855.9000;0.4428;0.8849;
856.2000;0.4420;0.8849;
856.5000;0.4436;0.8919;
856.8000;0.4404;0.8966;
857.1000;0.4412;0.8990;
857.4000;0.4404;0.8966;
857.7000;0.4404;0.8966;
858.0000;0.4371;0.8896;
858.3000;0.4396;0.8966;
858.6000;0.4379;0.8896;
858.9000;0.4477;0.9107;
859.2000;0.4420;0.8919;
859.5000;0.4404;0.8896;
859.8000;0.4404;0.8849;
860.1000;0.4379;0.8802;
860.4000;0.4412;0.8849;
860.7000;0.4396;0.8778;
861.0000;0.4428;0.8896;
861.3000;0.4412;0.8849;
861.6000;0.4444;0.8896;
861.9000;0.4404;0.8872;
862.2000;0.4396;0.8896;
862.5000;0.4306;0.8661;
862.8000;0.4404;0.8896;
863.1000;0.4444;0.9013;
863.4000;0.4396;0.8825;
863.7000;0.4420;0.8872;
864.0000;0.4461;0.8990;
864.3000;0.4412;0.8990;
864.6000;0.4396;0.8943;
864.9000;0.4404;0.8919;
865.2000;0.4412;0.8966;
865.5000;0.4420;0.8919;
865.8000;0.4420;0.8943;
866.1000;0.4412;0.8990;
866.4000;0.4420;0.8990;
866.7000;0.4396;0.9013;
867.0000;0.4461;0.9084;
867.3000;0.4428;0.8966;
867.6000;0.4404;0.8966;
867.9000;0.4387;0.8919;
868.2000;0.4396;0.8966;
868.5000;0.4412;0.8966;
868.8000;0.4387;0.8919;
869.1000;0.4412;0.8825;
869.4000;0.4404;0.8802;
869.7000;0.4404;0.8825;
870.0000;0.4428;0.8943;
870.3000;0.4339;0.8778;
870.6000;0.4396;0.9013;
870.9000;0.4387;0.9037;
871.2000;0.4396;0.9060;
871.5000;0.4387;0.9131;
871.8000;0.4396;0.9177;
872.1000;0.4387;0.9177;
872.4000;0.4371;0.9131;
872.7000;0.4404;0.9177;
873.0000;0.4412;0.9131;
873.3000;0.4379;0.9060;
873.6000;0.4485;0.9295;
873.9000;0.4404;0.9060;
874.2000;0.4387;0.9013;
874.5000;0.4404;0.9013;
874.8000;0.4404;0.9060;
875.1000;0.4371;0.8966;
875.4000;0.4396;0.9060;
875.7000;0.4412;0.9060;
876.0000;0.4404;0.9013;
876.3000;0.4404;0.9060;
876.6000;0.4363;0.8990;
876.9000;0.4396;0.8943;
877.2000;0.4306;0.8755;
877.5000;0.4379;0.8896;
877.8000;0.4396;0.8872;
878.1000;0.4396;0.8872;
878.4000;0.4396;0.8896;
878.7000;0.4428;0.9037;
879.0000;0.4428;0.9037;
879.3000;0.4347;0.8802;
879.6000;0.4371;0.8872;
879.9000;0.4387;0.8825;
880.2000;0.4387;0.8943;
880.5000;0.4387;0.8896;
880.8000;0.4387;0.8872;
881.1000;0.4387;0.8943;
881.4000;0.4412;0.8919;
881.7000;0.4404;0.8919;
882.0000;0.4387;0.8849;
882.3000;0.4404;0.8919;
882.6000;0.4404;0.8919;
882.9000;0.4396;0.8990;
883.2000;0.4387;0.8943;
883.5000;0.4387;0.8966;
883.8000;0.4387;0.8966;
884.1000;0.4461;0.9084;
884.4000;0.4396;0.8943;
884.7000;0.4387;0.8849;
885.0000;0.4420;0.8966;
885.3000;0.4396;0.9013;
885.6000;0.4363;0.8966;
885.9000;0.4339;0.8919;
886.2000;0.4396;0.9060;
886.5000;0.4387;0.9084;
886.8000;0.4396;0.9060;
887.1000;0.4379;0.9037;
887.4000;0.4396;0.9084;
887.7000;0.4387;0.9060;
888.0000;0.4404;0.9107;
888.3000;0.4404;0.9013;
888.6000;0.4396;0.8966;
888.9000;0.4396;0.8966;
889.2000;0.4379;0.8872;
889.5000;0.4404;0.8849;
889.8000;0.4396;0.8802;
890.1000;0.4363;0.8732;
890.4000;0.4396;0.8849;
890.7000;0.4387;0.8872;
891.0000;0.4387;0.8849;
891.3000;0.4387;0.8849;
891.6000;0.4412;0.8825;
891.9000;0.4404;0.8802;
892.2000;0.4396;0.8778;
892.5000;0.4396;0.8802;
892.8000;0.4387;0.8849;
893.1000;0.4396;0.8849;
893.4000;0.4412;0.8872;
893.7000;0.4396;0.8849;
894.0000;0.4404;0.8896;
894.3000;0.4404;0.8872;
894.6000;0.4404;0.8849;
894.9000;0.4379;0.8825;
895.2000;0.4347;0.8755;
895.5000;0.4379;0.8849;
895.8000;0.4485;0.9131;
896.1000;0.4379;0.8966;
896.4000;0.4387;0.9084;
896.7000;0.4387;0.9107;
897.0000;0.4412;0.9177;
897.3000;0.4387;0.9037;
897.6000;0.4379;0.9037;
897.9000;0.4453;0.9201;
898.2000;0.4396;0.9037;
898.5000;0.4379;0.9037;
898.8000;0.4363;0.9037;
899.1000;0.4387;0.9084;
899.4000;0.4396;0.9037;
899.7000;0.4387;0.9037;
900.0000;0.4363;0.8896;
900.3000;0.4379;0.8990;
900.6000;0.4396;0.8919;
900.9000;0.4387;0.8943;
901.2000;0.4379;0.8896;
901.5000;0.4387;0.8943;
901.8000;0.4379;0.8849;
902.1000;0.4396;0.8966;
902.4000;0.4379;0.8943;
902.7000;0.4387;0.8896;
903.0000;0.4477;0.9131;
903.3000;0.4420;0.8896;
903.6000;0.4396;0.8825;
903.9000;0.4379;0.8896;
904.2000;0.4387;0.8872;
904.5000;0.4396;0.8825;
904.8000;0.4404;0.8896;
905.1000;0.4396;0.8943;
905.4000;0.4396;0.8943;
905.7000;0.4379;0.8896;
906.0000;0.4396;0.8896;
906.3000;0.4371;0.9037;
906.6000;0.4396;0.9131;
906.9000;0.4363;0.8966;
907.2000;0.4404;0.9037;
907.5000;0.4387;0.8990;
907.8000;0.4387;0.9037;
908.1000;0.4436;0.9177;
908.4000;0.4396;0.9084;
908.7000;0.4387;0.9060;
909.0000;0.4396;0.8990;
909.3000;0.4371;0.8919;
909.6000;0.4363;0.8990;
909.9000;0.4387;0.9084;
910.2000;0.4379;0.9037;
910.5000;0.4371;0.9013;
910.8000;0.4396;0.9084;
911.1000;0.4387;0.9154;
911.4000;0.4387;0.9060;
911.7000;0.4387;0.8943;
912.0000;0.4379;0.8990;
912.3000;0.4379;0.9013;
912.6000;0.4387;0.8919;
912.9000;0.4379;0.8755;
913.2000;0.4387;0.8755;
913.5000;0.4387;0.8732;
913.8000;0.4379;0.8755;
914.1000;0.4387;0.8661;
914.4000;0.4379;0.8567;
914.7000;0.4379;0.8591;
915.0000;0.4379;0.8567;
915.3000;0.4379;0.8544;
915.6000;0.4387;0.8520;
915.9000;0.4387;0.8497;
916.2000;0.4396;0.8520;
916.5000;0.4396;0.8450;
916.8000;0.4371;0.8497;
917.1000;0.4387;0.8567;
917.4000;0.4396;0.8638;
917.7000;0.4379;0.8591;
918.0000;0.4379;0.8638;
918.3000;0.4436;0.8802;
918.6000;0.4371;0.8732;
918.9000;0.4379;0.8755;
919.2000;0.4371;0.8778;
919.5000;0.4396;0.8849;
919.8000;0.4396;0.8802;
920.1000;0.4298;0.8567;
920.4000;0.4371;0.8896;
920.7000;0.4387;0.8990;
921.0000;0.4428;0.9037;
921.3000;0.4379;0.8872;
921.6000;0.4379;0.8896;
921.9000;0.4396;0.8943;
922.2000;0.4379;0.8919;
922.5000;0.4379;0.8872;
922.8000;0.4363;0.8755;
923.1000;0.4387;0.8778;
923.4000;0.4379;0.8755;
923.7000;0.4379;0.8778;
924.0000;0.4363;0.8732;
924.3000;0.4371;0.8755;
924.6000;0.4379;0.8825;
924.9000;0.4379;0.8825;
925.2000;0.4379;0.8825;
925.5000;0.4420;0.8896;
925.8000;0.4379;0.8778;
926.1000;0.4379;0.8778;
926.4000;0.4363;0.8825;
926.7000;0.4371;0.8778;
927.0000;0.4371;0.8825;
927.3000;0.4379;0.8849;
927.6000;0.4355;0.8802;
927.9000;0.4322;0.8755;
928.2000;0.4347;0.8919;
928.5000;0.4371;0.8872;
928.8000;0.4339;0.8708;
929.1000;0.4363;0.8685;
929.4000;0.4396;0.8685;
929.7000;0.4371;0.8685;
930.0000;0.4363;0.8661;
930.3000;0.4339;0.8685;
930.6000;0.4355;0.8778;
930.9000;0.4404;0.8825;
931.2000;0.4396;0.8825;
931.5000;0.4428;0.8943;
931.8000;0.4363;0.8825;
932.1000;0.4404;0.8919;
932.4000;0.4387;0.8778;
932.7000;0.4379;0.8778;
933.0000;0.4420;0.8872;
933.3000;0.4379;0.8685;
933.6000;0.4282;0.8426;
933.9000;0.4355;0.8661;
934.2000;0.4371;0.8638;
934.5000;0.4387;0.8708;
934.8000;0.4330;0.8708;
935.1000;0.4379;0.8849;
935.4000;0.4428;0.8872;
935.7000;0.4347;0.8732;
936.0000;0.4363;0.8919;
936.3000;0.4379;0.8825;
936.6000;0.4379;0.8896;
936.9000;0.4363;0.8778;
937.2000;0.4347;0.8872;
937.5000;0.4371;0.8966;
937.8000;0.4355;0.8872;
938.1000;0.4379;0.8943;
938.4000;0.4371;0.8896;
938.7000;0.4371;0.8919;
939.0000;0.4387;0.8896;
939.3000;0.4379;0.8943;
939.6000;0.4379;0.8872;
939.9000;0.4379;0.8849;
940.2000;0.4371;0.8919;
940.5000;0.4339;0.8802;
940.8000;0.4363;0.8778;
941.1000;0.4363;0.8778;
941.4000;0.4363;0.8896;
941.7000;0.4387;0.9037;
942.0000;0.4363;0.8896;
942.3000;0.4371;0.8966;
942.6000;0.4396;0.8943;
942.9000;0.4363;0.8778;
943.2000;0.4379;0.8755;
943.5000;0.4379;0.8732;
943.8000;0.4379;0.8732;
944.1000;0.4363;0.8661;
944.4000;0.4379;0.8755;
944.7000;0.4379;0.8755;
945.0000;0.4379;0.8802;
945.3000;0.4371;0.8872;
945.6000;0.4363;0.8872;
945.9000;0.4363;0.8872;
946.2000;0.4387;0.9013;
946.5000;0.4387;0.9037;
946.8000;0.4363;0.8919;
947.1000;0.4387;0.8872;
947.4000;0.4371;0.8825;
947.7000;0.4387;0.8849;
948.0000;0.4379;0.8825;
948.3000;0.4363;0.8802;
948.6000;0.4379;0.8896;
948.9000;0.4396;0.8943;
949.2000;0.4379;0.8919;
949.5000;0.4379;0.8943;
949.8000;0.4371;0.8919;
950.1000;0.4396;0.8943;
950.4000;0.4355;0.8966;
950.7000;0.4371;0.9013;
951.0000;0.4274;0.8755;
951.3000;0.4347;0.8872;
951.6000;0.4379;0.8919;
951.9000;0.4396;0.8966;
952.2000;0.4379;0.8966;
952.5000;0.4379;0.9131;
952.8000;0.4379;0.9271;
953.1000;0.4339;0.9131;
953.4000;0.4363;0.9154;
953.7000;0.4371;0.9177;
954.0000;0.4444;0.9271;
954.3000;0.4387;0.9037;
954.6000;0.4453;0.9177;
954.9000;0.4363;0.8919;
955.2000;0.4371;0.8966;
955.5000;0.4355;0.8966;
955.8000;0.4371;0.8966;
956.1000;0.4347;0.8849;
956.4000;0.4371;0.8919;
956.7000;0.4371;0.8872;
957.0000;0.4339;0.8825;
957.3000;0.4371;0.8896;
957.6000;0.4363;0.8825;
957.9000;0.4379;0.8943;
958.2000;0.4363;0.8966;
958.5000;0.4347;0.8943;
958.8000;0.4371;0.8990;
959.1000;0.4290;0.8778;
959.4000;0.4355;0.8896;
959.7000;0.4363;0.8849;
960.0000;0.4355;0.8825;
960.3000;0.4355;0.8755;
960.6000;0.4371;0.8802;
960.9000;0.4371;0.8825;
961.2000;0.4404;0.8919;
961.5000;0.4371;0.8802;
961.8000;0.4379;0.8825;
962.1000;0.4379;0.8849;
962.4000;0.4379;0.8919;
962.7000;0.4371;0.8872;
963.0000;0.4387;0.8755;
963.3000;0.4371;0.8685;
963.6000;0.4355;0.8685;
963.9000;0.4363;0.8732;
964.2000;0.4420;0.8872;
964.5000;0.4363;0.8778;
964.8000;0.4363;0.8825;
965.1000;0.4363;0.8872;
965.4000;0.4371;0.8872;
965.7000;0.4371;0.8872;
966.0000;0.4322;0.8732;
966.3000;0.4347;0.8708;
966.6000;0.4355;0.8685;
966.9000;0.4363;0.8708;
967.2000;0.4363;0.8778;
967.5000;0.4355;0.8732;
967.8000;0.4314;0.8591;
968.1000;0.4371;0.8802;
968.4000;0.4347;0.8755;
968.7000;0.4347;0.8732;
969.0000;0.4469;0.9013;
969.3000;0.4322;0.8591;
969.6000;0.4363;0.8778;
969.9000;0.4355;0.8825;
970.2000;0.4363;0.8872;
970.5000;0.4396;0.8966;
970.8000;0.4363;0.8896;
971.1000;0.4371;0.8919;
971.4000;0.4363;0.8849;
971.7000;0.4379;0.8849;
972.0000;0.4371;0.8825;
972.3000;0.4371;0.8825;
972.6000;0.4379;0.8778;
972.9000;0.4371;0.8685;
973.2000;0.4371;0.8708;
973.5000;0.4339;0.8638;
973.8000;0.4371;0.8755;
974.1000;0.4363;0.8778;
974.4000;0.4371;0.8825;
974.7000;0.4363;0.8802;
975.0000;0.4379;0.8872;
975.3000;0.4298;0.8638;
975.6000;0.4379;0.8896;
975.9000;0.4322;0.8755;
976.2000;0.4347;0.8872;
976.5000;0.4379;0.8896;
976.8000;0.4379;0.8872;
977.1000;0.4371;0.8778;
977.4000;0.4371;0.8825;
977.7000;0.4379;0.8919;
978.0000;0.4404;0.8990;
978.3000;0.4330;0.8802;
978.6000;0.4339;0.8802;
978.9000;0.4363;0.8919;
979.2000;0.4371;0.8825;
979.5000;0.4379;0.8849;
979.8000;0.4371;0.8896;
980.1000;0.4371;0.8825;
980.4000;0.4412;0.8990;
980.7000;0.4363;0.8802;
981.0000;0.4355;0.8638;
981.3000;0.4355;0.8685;
981.6000;0.4347;0.8732;
981.9000;0.4330;0.8708;
982.2000;0.4396;0.8778;
982.5000;0.4355;0.8685;
982.8000;0.4363;0.8685;
983.1000;0.4371;0.8778;
983.4000;0.4355;0.8778;
983.7000;0.4355;0.8825;
984.0000;0.4355;0.8825;
984.3000;0.4355;0.8872;
984.6000;0.4371;0.8872;
984.9000;0.4371;0.8825;
985.2000;0.4355;0.8872;
985.5000;0.4371;0.8919;
985.8000;0.4363;0.8896;
986.1000;0.4363;0.8872;
986.4000;0.4363;0.8802;
986.7000;0.4355;0.8896;
987.0000;0.4363;0.8849;
987.3000;0.4371;0.8896;
987.6000;0.4363;0.8872;
987.9000;0.4371;0.8872;
988.2000;0.4363;0.8802;
988.5000;0.4363;0.8825;
988.8000;0.4363;0.8732;
989.1000;0.4355;0.8778;
989.4000;0.4347;0.8849;
989.7000;0.4355;0.8825;
990.0000;0.4363;0.8896;
990.3000;0.4363;0.8966;
990.6000;0.4387;0.8896;
990.9000;0.4379;0.8849;
991.2000;0.4371;0.8778;
991.5000;0.4347;0.8732;
991.8000;0.4371;0.8825;
992.1000;0.4363;0.8849;
992.4000;0.4371;0.8872;
992.7000;0.4347;0.8825;
993.0000;0.4363;0.8778;
993.3000;0.4396;0.8849;
993.6000;0.4347;0.8778;
993.9000;0.4363;0.8802;
994.2000;0.4371;0.8825;
994.5000;0.4339;0.8778;
994.8000;0.4371;0.8825;
995.1000;0.4355;0.8778;
995.4000;0.4347;0.8755;
995.7000;0.4371;0.8755;
996.0000;0.4355;0.8825;
996.3000;0.4355;0.8849;
996.6000;0.4282;0.8685;
996.9000;0.4330;0.8802;
997.2000;0.4371;0.8825;
997.5000;0.4371;0.8849;
997.8000;0.4396;0.9013;
998.1000;0.4363;0.8943;
998.4000;0.4371;0.8919;
998.7000;0.4363;0.8849;
999.0000;0.4371;0.8896;
999.3000;0.4363;0.8872;
999.6000;0.4355;0.8943;
999.9000;0.4363;0.8966;
1000.2000;0.4379;0.8966;
1000.5000;0.4363;0.8872;
1000.8000;0.4404;0.8872;
1001.1000;0.4453;0.8919;
1001.4000;0.4387;0.8708;
1001.7000;0.4363;0.8685;
1002.0000;0.4371;0.8708;
1002.3000;0.4330;0.8638;
1002.6000;0.4355;0.8708;
1002.9000;0.4339;0.8708;
1003.2000;0.4363;0.8732;
1003.5000;0.4371;0.8778;
1003.8000;0.4371;0.8802;
1004.1000;0.4347;0.8778;
1004.4000;0.4379;0.8825;
1004.7000;0.4461;0.9084;
1005.0000;0.4355;0.8825;
1005.3000;0.4347;0.8872;
1005.6000;0.4363;0.8825;
1005.9000;0.4363;0.8872;
1006.2000;0.4355;0.8896;
1006.5000;0.4363;0.8849;
1006.8000;0.4363;0.8849;
1007.1000;0.4347;0.8802;
1007.4000;0.4363;0.8849;
1007.7000;0.4363;0.8849;
1008.0000;0.4347;0.8825;
1008.3000;0.4355;0.8872;
1008.6000;0.4347;0.8755;
1008.9000;0.4363;0.8755;
1009.2000;0.4363;0.8802;
1009.5000;0.4355;0.8778;
1009.8000;0.4363;0.8778;
1010.1000;0.4347;0.8849;
1010.4000;0.4347;0.8849;
1010.7000;0.4355;0.8896;
1011.0000;0.4363;0.8990;
1011.3000;0.4339;0.8943;
1011.6000;0.4355;0.8990;
1011.9000;0.4363;0.8943;
1012.2000;0.4363;0.8825;
1012.5000;0.4363;0.8872;
1012.8000;0.4355;0.8825;
1013.1000;0.4330;0.8755;
1013.4000;0.4355;0.8755;
1013.7000;0.4371;0.8849;
1014.0000;0.4363;0.8872;
1014.3000;0.4330;0.8872;
1014.6000;0.4355;0.8919;
1014.9000;0.4347;0.8802;
1015.2000;0.4355;0.8849;
1015.5000;0.4339;0.8802;
1015.8000;0.4355;0.8802;
1016.1000;0.4347;0.8708;
1016.4000;0.4371;0.8778;
1016.7000;0.4347;0.8685;
1017.0000;0.4339;0.8732;
1017.3000;0.4363;0.8732;
1017.6000;0.4355;0.8732;
1017.9000;0.4330;0.8755;
1018.2000;0.4330;0.8825;
1018.5000;0.4330;0.8825;
1018.8000;0.4387;0.9060;
1019.1000;0.4306;0.8966;
1019.4000;0.4347;0.8966;
1019.7000;0.4347;0.8896;
1020.0000;0.4379;0.8896;
1020.3000;0.4371;0.8825;
1020.6000;0.4355;0.8802;
1020.9000;0.4355;0.8849;
1021.2000;0.4347;0.8825;
1021.5000;0.4347;0.8778;
1021.8000;0.4355;0.8778;
1022.1000;0.4355;0.8755;
1022.4000;0.4347;0.8896;
1022.7000;0.4363;0.8966;
1023.0000;0.4339;0.8943;
1023.3000;0.4347;0.8990;
1023.6000;0.4339;0.9013;
1023.9000;0.4347;0.8943;
1024.2000;0.4387;0.9013;
1024.5000;0.4355;0.8872;
1024.8000;0.4371;0.8849;
1025.1000;0.4387;0.8966;
1025.4000;0.4339;0.8872;
1025.7000;0.4339;0.8919;
1026.0000;0.4396;0.8966;
1026.3000;0.4314;0.8825;
1026.6000;0.4347;0.8825;
1026.9000;0.4282;0.8732;
1027.2000;0.4444;0.9154;
1027.5000;0.4420;0.9154;
1027.8000;0.4355;0.8896;
1028.1000;0.4355;0.8802;
1028.4000;0.4347;0.8685;
1028.7000;0.4347;0.8825;
1029.0000;0.4371;0.8943;
1029.3000;0.4371;0.8990;
1029.6000;0.4347;0.8896;
1029.9000;0.4347;0.8872;
1030.2000;0.4363;0.8896;
1030.5000;0.4339;0.8778;
1030.8000;0.4347;0.8778;
1031.1000;0.4363;0.8849;
1031.4000;0.4379;0.8966;
1031.7000;0.4363;0.8943;
1032.0000;0.4347;0.8896;
1032.3000;0.4387;0.8919;
1032.6000;0.4363;0.8755;
1032.9000;0.4347;0.8732;
1033.2000;0.4330;0.8755;
1033.5000;0.4347;0.8896;
1033.8000;0.4371;0.9037;
1034.1000;0.4355;0.9037;
1034.4000;0.4444;0.9318;
1034.7000;0.4355;0.9084;
1035.0000;0.4371;0.8990;
1035.3000;0.4371;0.8896;
1035.6000;0.4363;0.8872;
1035.9000;0.4363;0.8919;
1036.2000;0.4363;0.8966;
1036.5000;0.4355;0.8943;
1036.8000;0.4363;0.8896;
1037.1000;0.4347;0.8896;
1037.4000;0.4355;0.8825;
1037.7000;0.4347;0.8755;
1038.0000;0.4355;0.8638;
1038.3000;0.4363;0.8685;
1038.6000;0.4339;0.8685;
1038.9000;0.4339;0.8778;
1039.2000;0.4347;0.8732;
1039.5000;0.4347;0.8638;
1039.8000;0.4355;0.8614;
1040.1000;0.4363;0.8591;
1040.4000;0.4322;0.8497;
1040.7000;0.4363;0.8497;
1041.0000;0.4314;0.8403;
1041.3000;0.4347;0.8520;
1041.6000;0.4412;0.8638;
1041.9000;0.4477;0.8685;
1042.2000;0.4322;0.8356;
1042.5000;0.4363;0.8497;
1042.8000;0.4355;0.8473;
1043.1000;0.4355;0.8614;
1043.4000;0.4322;0.8614;
1043.7000;0.4347;0.8614;
1044.0000;0.4355;0.8708;
1044.3000;0.4355;0.8685;
1044.6000;0.4339;0.8755;
1044.9000;0.4363;0.8825;
1045.2000;0.4371;0.8849;
1045.5000;0.4355;0.8708;
1045.8000;0.4371;0.8732;
1046.1000;0.4355;0.8708;
1046.4000;0.4379;0.8802;
1046.7000;0.4371;0.8778;
1047.0000;0.4339;0.8708;
1047.3000;0.4371;0.8685;
1047.6000;0.4330;0.8638;
1047.9000;0.4461;0.8896;
1048.2000;0.4306;0.8450;
1048.5000;0.4347;0.8614;
1048.8000;0.4339;0.8614;
1049.1000;0.4396;0.8755;
1049.4000;0.4241;0.8520;
1049.7000;0.4339;0.8778;
1050.0000;0.4355;0.8802;
1050.3000;0.4355;0.8778;
1050.6000;0.4355;0.8755;
1050.9000;0.4387;0.8849;
1051.2000;0.4322;0.8708;
1051.5000;0.4330;0.8732;
1051.8000;0.4387;0.8896;
1052.1000;0.4363;0.8849;
1052.4000;0.4339;0.8802;
1052.7000;0.4355;0.8802;
1053.0000;0.4355;0.8732;
1053.3000;0.4355;0.8778;
1053.6000;0.4339;0.8732;
1053.9000;0.4371;0.8825;
1054.2000;0.4355;0.8778;
1054.5000;0.4330;0.8755;
1054.8000;0.4355;0.8825;
1055.1000;0.4379;0.8966;
1055.4000;0.4371;0.8896;
1055.7000;0.4347;0.8896;
1056.0000;0.4355;0.8896;
1056.3000;0.4371;0.8943;
1056.6000;0.4363;0.8966;
1056.9000;0.4339;0.8966;
1057.2000;0.4363;0.9013;
1057.5000;0.4363;0.9013;
1057.8000;0.4347;0.8966;
1058.1000;0.4347;0.8990;
1058.4000;0.4347;0.8943;
1058.7000;0.4322;0.8943;
1059.0000;0.4347;0.8919;
1059.3000;0.4355;0.8896;
1059.6000;0.4363;0.8919;
1059.9000;0.4355;0.9037;
1060.2000;0.4339;0.9013;
1060.5000;0.4371;0.9060;
1060.8000;0.4347;0.8990;
1061.1000;0.4339;0.8872;
1061.4000;0.4347;0.8849;
1061.7000;0.4363;0.8849;
1062.0000;0.4339;0.8802;
1062.3000;0.4339;0.8755;
1062.6000;0.4347;0.8802;
1062.9000;0.4330;0.8872;
1063.2000;0.4355;0.8919;
1063.5000;0.4339;0.8825;
1063.8000;0.4330;0.8755;
1064.1000;0.4339;0.8755;
1064.4000;0.4355;0.8778;
1064.7000;0.4379;0.8825;
1065.0000;0.4339;0.8661;
1065.3000;0.4339;0.8708;
1065.6000;0.4371;0.8755;
1065.9000;0.4363;0.8825;
1066.2000;0.4355;0.8708;
1066.5000;0.4371;0.8708;
1066.8000;0.4363;0.8685;
1067.1000;0.4379;0.8685;
1067.4000;0.4339;0.8638;
1067.7000;0.4347;0.8567;
1068.0000;0.4306;0.8426;
1068.3000;0.4355;0.8638;
1068.6000;0.4355;0.8732;
1068.9000;0.4322;0.8755;
1069.2000;0.4322;0.8825;
1069.5000;0.4330;0.8872;
1069.8000;0.4347;0.8896;
1070.1000;0.4347;0.8872;
1070.4000;0.4347;0.8919;
1070.7000;0.4355;0.8802;
1071.0000;0.4355;0.8802;
1071.3000;0.4379;0.8896;
1071.6000;0.4330;0.8825;
1071.9000;0.4282;0.8661;
1072.2000;0.4363;0.8919;
1072.5000;0.4339;0.8802;
1072.8000;0.4330;0.8732;
1073.1000;0.4339;0.8708;
1073.4000;0.4282;0.8638;
1073.7000;0.4339;0.8732;
1074.0000;0.4314;0.8685;
1074.3000;0.4363;0.8872;
1074.6000;0.4396;0.8896;
1074.9000;0.4355;0.8778;
1075.2000;0.4363;0.8732;
1075.5000;0.4355;0.8732;
1075.8000;0.4371;0.8872;
1076.1000;0.4355;0.8849;
1076.4000;0.4347;0.8778;
1076.7000;0.4347;0.8755;
1077.0000;0.4363;0.8661;
1077.3000;0.4330;0.8544;
1077.6000;0.4322;0.8614;
1077.9000;0.4339;0.8708;
1078.2000;0.4355;0.8849;
1078.5000;0.4355;0.8943;
1078.8000;0.4355;0.8896;
1079.1000;0.4347;0.8849;
1079.4000;0.4379;0.8943;
1079.7000;0.4363;0.8896;
1080.0000;0.4355;0.8919;
1080.3000;0.4330;0.8919;
1080.6000;0.4355;0.8919;
1080.9000;0.4347;0.8825;
1081.2000;0.4347;0.8825;
1081.5000;0.4355;0.8896;
1081.8000;0.4339;0.8896;
1082.1000;0.4363;0.8943;
1082.4000;0.4347;0.8849;
1082.7000;0.4314;0.8732;
1083.0000;0.4355;0.8825;
1083.3000;0.4347;0.8802;
1083.6000;0.4347;0.8778;
1083.9000;0.4330;0.8825;
1084.2000;0.4322;0.8802;
1084.5000;0.4347;0.8849;
1084.8000;0.4355;0.8919;
1085.1000;0.4314;0.8778;
1085.4000;0.4339;0.8849;
1085.7000;0.4363;0.8849;
1086.0000;0.4355;0.8778;
1086.3000;0.4387;0.8825;
1086.6000;0.4339;0.8755;
1086.9000;0.4355;0.8732;
1087.2000;0.4347;0.8755;
1087.5000;0.4355;0.8825;
1087.8000;0.4330;0.8708;
1088.1000;0.4363;0.8755;
1088.4000;0.4355;0.8802;
1088.7000;0.4330;0.8802;
1089.0000;0.4314;0.8825;
1089.3000;0.4298;0.8849;
1089.6000;0.4363;0.8990;
1089.9000;0.4339;0.8943;
1090.2000;0.4363;0.8966;
1090.5000;0.4347;0.8896;
1090.8000;0.4347;0.8919;
1091.1000;0.4371;0.8872;
1091.4000;0.4371;0.8802;
1091.7000;0.4355;0.8778;
1092.0000;0.4363;0.8708;
1092.3000;0.4355;0.8732;
1092.6000;0.4339;0.8732;
1092.9000;0.4339;0.8755;
1093.2000;0.4330;0.8708;
1093.5000;0.4363;0.8825;
1093.8000;0.4339;0.8896;
1094.1000;0.4322;0.8943;
1094.4000;0.4339;0.8943;
1094.7000;0.4347;0.8919;
1095.0000;0.4347;0.8943;
1095.3000;0.4339;0.9037;
1095.6000;0.4347;0.9107;
1095.9000;0.4355;0.9084;
1096.2000;0.4404;0.9084;
1096.5000;0.4347;0.8896;
1096.8000;0.4355;0.8849;
1097.1000;0.4347;0.8849;
1097.4000;0.4355;0.8825;
1097.7000;0.4322;0.8778;
1098.0000;0.4347;0.8825;
1098.3000;0.4347;0.8802;
1098.6000;0.4347;0.8802;
1098.9000;0.4339;0.8825;
1099.2000;0.4347;0.8825;
1099.5000;0.4330;0.8708;
1099.8000;0.4363;0.8872;
1100.1000;0.4347;0.8849;
1100.4000;0.4347;0.8872;
1100.7000;0.4379;0.8966;
1101.0000;0.4363;0.8919;
1101.3000;0.4379;0.8872;
1101.6000;0.4355;0.8872;
1101.9000;0.4363;0.8872;
1102.2000;0.4444;0.9060;
1102.5000;0.4347;0.8919;
1102.8000;0.4355;0.8896;
1103.1000;0.4339;0.8919;
1103.4000;0.4339;0.8896;
1103.7000;0.4363;0.8966;
1104.0000;0.4330;0.8943;
1104.3000;0.4330;0.8896;
1104.6000;0.4347;0.8919;
1104.9000;0.4355;0.8919;
1105.2000;0.4355;0.8966;
1105.5000;0.4339;0.8919;
1105.8000;0.4330;0.8966;
1106.1000;0.4347;0.9060;
1106.4000;0.4347;0.9084;
1106.7000;0.4347;0.9013;
1107.0000;0.4339;0.8943;
1107.3000;0.4330;0.8919;
1107.6000;0.4355;0.8943;
1107.9000;0.4339;0.8849;
1108.2000;0.4314;0.8802;
1108.5000;0.4339;0.8872;
1108.8000;0.4347;0.8872;
1109.1000;0.4322;0.8849;
1109.4000;0.4322;0.8849;
1109.7000;0.4347;0.8849;
1110.0000;0.4339;0.8872;
1110.3000;0.4379;0.8990;
1110.6000;0.4355;0.9037;
1110.9000;0.4355;0.9060;
1111.2000;0.4347;0.9084;
1111.5000;0.4339;0.8966;
1111.8000;0.4347;0.8943;
1112.1000;0.4355;0.9037;
1112.4000;0.4298;0.8943;
1112.7000;0.4339;0.9084;
1113.0000;0.4339;0.9060;
1113.3000;0.4387;0.9107;
1113.6000;0.4339;0.8919;
1113.9000;0.4363;0.8990;
1114.2000;0.4347;0.9013;
1114.5000;0.4355;0.9037;
1114.8000;0.4330;0.9013;
1115.1000;0.4330;0.8990;
1115.4000;0.4339;0.8966;
1115.7000;0.4347;0.8966;
1116.0000;0.4371;0.8896;
1116.3000;0.4355;0.8896;
1116.6000;0.4363;0.8966;
1116.9000;0.4347;0.8825;
1117.2000;0.4339;0.8825;
1117.5000;0.4347;0.8849;
1117.8000;0.4355;0.8802;
1118.1000;0.4347;0.8778;
1118.4000;0.4347;0.8732;
1118.7000;0.4355;0.8802;
1119.0000;0.4363;0.8802;
1119.3000;0.4347;0.8778;
1119.6000;0.4330;0.8802;
1119.9000;0.4355;0.8802;
1120.2000;0.4363;0.8825;
1120.5000;0.4355;0.8849;
1120.8000;0.4347;0.8872;
1121.1000;0.4347;0.8849;
1121.4000;0.4355;0.8943;
1121.7000;0.4347;0.8896;
1122.0000;0.4339;0.8849;
1122.3000;0.4355;0.8872;
1122.6000;0.4363;0.8872;
1122.9000;0.4347;0.8849;
1123.2000;0.4306;0.8849;
1123.5000;0.4339;0.8919;
1123.8000;0.4363;0.8919;
1124.1000;0.4347;0.8966;
1124.4000;0.4347;0.8966;
1124.7000;0.4363;0.8872;
1125.0000;0.4355;0.8919;
1125.3000;0.4314;0.8896;
1125.6000;0.4355;0.8990;
1125.9000;0.4347;0.8943;
1126.2000;0.4355;0.9013;
1126.5000;0.4355;0.9084;
1126.8000;0.4355;0.9060;
1127.1000;0.4355;0.9060;
1127.4000;0.4322;0.8966;
1127.7000;0.4355;0.8990;
1128.0000;0.4355;0.9013;
1128.3000;0.4347;0.8919;
1128.6000;0.4339;0.8872;
1128.9000;0.4355;0.8943;
1129.2000;0.4363;0.9013;
1129.5000;0.4371;0.9060;
1129.8000;0.4339;0.9013;
1130.1000;0.4355;0.8990;
1130.4000;0.4355;0.8966;
1130.7000;0.4347;0.8896;
1131.0000;0.4330;0.8778;
1131.3000;0.4322;0.8755;
1131.6000;0.4339;0.8755;
1131.9000;0.4339;0.8825;
1132.2000;0.4363;0.8990;
1132.5000;0.4322;0.8943;
1132.8000;0.4347;0.8990;
1133.1000;0.4347;0.8966;
1133.4000;0.4363;0.9060;
1133.7000;0.4330;0.8943;
1134.0000;0.4371;0.8966;
1134.3000;0.4322;0.8919;
1134.6000;0.4347;0.9013;
1134.9000;0.4339;0.9084;
1135.2000;0.4339;0.9084;
1135.5000;0.4355;0.9084;
1135.8000;0.4355;0.9060;
1136.1000;0.4330;0.9013;
1136.4000;0.4339;0.9154;
1136.7000;0.4347;0.9084;
1137.0000;0.4330;0.9107;
1137.3000;0.4339;0.9037;
1137.6000;0.4339;0.9013;
1137.9000;0.4347;0.8943;
1138.2000;0.4363;0.8966;
1138.5000;0.4355;0.8919;
1138.8000;0.4355;0.8872;
1139.1000;0.4363;0.8896;
1139.4000;0.4347;0.8896;
1139.7000;0.4355;0.8966;
1140.0000;0.4371;0.9084;
1140.3000;0.4355;0.9060;
1140.6000;0.4347;0.9060;
1140.9000;0.4347;0.8966;
1141.2000;0.4347;0.9084;
1141.5000;0.4330;0.9107;
1141.8000;0.4330;0.9037;
1142.1000;0.4314;0.8966;
1142.4000;0.4339;0.9060;
1142.7000;0.4347;0.9013;
1143.0000;0.4347;0.9037;
1143.3000;0.4330;0.8943;
1143.6000;0.4339;0.8896;
1143.9000;0.4339;0.8872;
1144.2000;0.4322;0.8685;
1144.5000;0.4347;0.8755;
1144.8000;0.4282;0.8591;
1145.1000;0.4355;0.8825;
1145.4000;0.4339;0.8755;
1145.7000;0.4339;0.8825;
1146.0000;0.4339;0.8825;
1146.3000;0.4347;0.8825;
1146.6000;0.4355;0.8825;
1146.9000;0.4355;0.8802;
1147.2000;0.4387;0.8825;
1147.5000;0.4330;0.8732;
1147.8000;0.4347;0.8755;
1148.1000;0.4339;0.8661;
1148.4000;0.4355;0.8614;
1148.7000;0.4347;0.8591;
1149.0000;0.4355;0.8638;
1149.3000;0.4347;0.8544;
1149.6000;0.4379;0.8708;
1149.9000;0.4339;0.8638;
1150.2000;0.4355;0.8755;
1150.5000;0.4330;0.8732;
1150.8000;0.4330;0.8778;
1151.1000;0.4379;0.8825;
1151.4000;0.4363;0.8825;
1151.7000;0.4363;0.8802;
1152.0000;0.4355;0.8802;
1152.3000;0.4339;0.8802;
1152.6000;0.4330;0.8872;
1152.9000;0.4347;0.8872;
1153.2000;0.4347;0.8872;
1153.5000;0.4330;0.8755;
1153.8000;0.4330;0.8661;
1154.1000;0.4355;0.8708;
1154.4000;0.4330;0.8614;
1154.7000;0.4363;0.8638;
1155.0000;0.4339;0.8685;
1155.3000;0.4412;0.8919;
1155.6000;0.4339;0.8778;
1155.9000;0.4347;0.8778;
1156.2000;0.4322;0.8825;
1156.5000;0.4339;0.8849;
1156.8000;0.4322;0.8896;
1157.1000;0.4347;0.8943;
1157.4000;0.4330;0.8943;
1157.7000;0.4330;0.8943;
1158.0000;0.4404;0.9084;
1158.3000;0.4330;0.8825;
1158.6000;0.4330;0.8825;
1158.9000;0.4355;0.8919;
1159.2000;0.4347;0.8872;
1159.5000;0.4379;0.9013;
1159.8000;0.4330;0.8896;
1160.1000;0.4339;0.8896;
1160.4000;0.4322;0.8919;
1160.7000;0.4339;0.8943;
1161.0000;0.4265;0.8708;
1161.3000;0.4347;0.8802;
1161.6000;0.4347;0.8872;
1161.9000;0.4339;0.8896;
1162.2000;0.4347;0.8896;
1162.5000;0.4339;0.9060;
1162.8000;0.4404;0.9177;
1163.1000;0.4339;0.9013;
1163.4000;0.4347;0.8966;
1163.7000;0.4355;0.8966;
1164.0000;0.4436;0.9224;
1164.3000;0.4371;0.8990;
1164.6000;0.4355;0.9037;
1164.9000;0.4363;0.9013;
1165.2000;0.4347;0.8990;
1165.5000;0.4330;0.8966;
1165.8000;0.4355;0.8943;
1166.1000;0.4339;0.8966;
1166.4000;0.4322;0.8990;
1166.7000;0.4347;0.9013;
1167.0000;0.4347;0.9037;
1167.3000;0.4363;0.9013;
1167.6000;0.4330;0.8943;
1167.9000;0.4330;0.8872;
1168.2000;0.4347;0.8896;
1168.5000;0.4363;0.8896;
1168.8000;0.4330;0.8943;
1169.1000;0.4371;0.8802;
1169.4000;0.4363;0.8755;
1169.7000;0.4355;0.8778;
1170.0000;0.4355;0.8825;
1170.3000;0.4347;0.8943;
1170.6000;0.4339;0.9037;
1170.9000;0.4347;0.9013;
1171.2000;0.4314;0.8943;
1171.5000;0.4322;0.8896;
1171.8000;0.4347;0.8943;
1172.1000;0.4347;0.8872;
1172.4000;0.4339;0.8849;
1172.7000;0.4371;0.8849;
1173.0000;0.4347;0.8778;
1173.3000;0.4363;0.8755;
1173.6000;0.4363;0.8755;
1173.9000;0.4355;0.8778;
1174.2000;0.4363;0.8661;
1174.5000;0.4330;0.8614;
1174.8000;0.4339;0.8638;
1175.1000;0.4330;0.8614;
1175.4000;0.4339;0.8614;
1175.7000;0.4355;0.8591;
1176.0000;0.4339;0.8614;
1176.3000;0.4355;0.8708;
1176.6000;0.4339;0.8614;
1176.9000;0.4330;0.8497;
1177.2000;0.4347;0.8497;
1177.5000;0.4355;0.8497;
1177.8000;0.4347;0.8450;
1178.1000;0.4330;0.8567;
1178.4000;0.4371;0.8708;
1178.7000;0.4355;0.8732;
1179.0000;0.4339;0.8614;
1179.3000;0.4330;0.8614;
1179.6000;0.4412;0.8755;
1179.9000;0.4355;0.8661;
1180.2000;0.4347;0.8638;
1180.5000;0.4274;0.8473;
1180.8000;0.4363;0.8802;
1181.1000;0.4371;0.8802;
1181.4000;0.4339;0.8778;
1181.7000;0.4379;0.8919;
1182.0000;0.4339;0.8872;
1182.3000;0.4420;0.8919;
1182.6000;0.4339;0.8685;
1182.9000;0.4355;0.8708;
1183.2000;0.4347;0.8661;
1183.5000;0.4355;0.8685;
1183.8000;0.4347;0.8708;
1184.1000;0.4347;0.8755;
1184.4000;0.4347;0.8778;
1184.7000;0.4355;0.8778;
1185.0000;0.4339;0.8802;
1185.3000;0.4355;0.8872;
1185.6000;0.4322;0.8825;
1185.9000;0.4322;0.8919;
1186.2000;0.4347;0.8966;
1186.5000;0.4396;0.9107;
1186.8000;0.4330;0.8943;
1187.1000;0.4355;0.9013;
1187.4000;0.4330;0.8919;
1187.7000;0.4330;0.8755;
1188.0000;0.4330;0.8802;
1188.3000;0.4339;0.8802;
1188.6000;0.4339;0.8778;
1188.9000;0.4330;0.8778;
1189.2000;0.4257;0.8638;
1189.5000;0.4322;0.8849;
1189.8000;0.4363;0.8919;
1190.1000;0.4453;0.9084;
1190.4000;0.4363;0.8849;
1190.7000;0.4347;0.8849;
1191.0000;0.4347;0.8825;
1191.3000;0.4363;0.8778;
1191.6000;0.4330;0.8708;
1191.9000;0.4330;0.8755;
1192.2000;0.4355;0.8778;
1192.5000;0.4347;0.8802;
1192.8000;0.4347;0.8755;
1193.1000;0.4347;0.8755;
1193.4000;0.4355;0.8708;
1193.7000;0.4355;0.8685;
1194.0000;0.4339;0.8685;
1194.3000;0.4322;0.8708;
1194.6000;0.4387;0.8778;
1194.9000;0.4330;0.8755;
1195.2000;0.4339;0.8755;
1195.5000;0.4355;0.8755;
1195.8000;0.4347;0.8685;
1196.1000;0.4347;0.8685;
1196.4000;0.4330;0.8732;
1196.7000;0.4322;0.8708;
1197.0000;0.4322;0.8685;
1197.3000;0.4330;0.8732;
1197.6000;0.4241;0.8520;
1197.9000;0.4339;0.8849;
1198.2000;0.4290;0.8849;
1198.5000;0.4330;0.9013;
1198.8000;0.4339;0.8990;
1199.1000;0.4363;0.9037;
1199.4000;0.4322;0.8872;
1199.7000;0.4339;0.8849;
1200.0000;0.4355;0.8896;
1200.3000;0.4339;0.8943;
1200.6000;0.4330;0.8919;
1200.9000;0.4387;0.9037;
1201.2000;0.4330;0.8872;
1201.5000;0.4330;0.8872;
1201.8000;0.4322;0.8872;
1202.1000;0.4306;0.8825;
1202.4000;0.4363;0.8990;
1202.7000;0.4330;0.8966;
1203.0000;0.4347;0.9013;
1203.3000;0.4330;0.8990;
1203.6000;0.4339;0.8990;
1203.9000;0.4330;0.8990;
1204.2000;0.4339;0.8966;
1204.5000;0.4363;0.9037;
1204.8000;0.4339;0.8966;
1205.1000;0.4330;0.8943;
1205.4000;0.4290;0.8896;
1205.7000;0.4339;0.8896;
1206.0000;0.4347;0.8802;
1206.3000;0.4363;0.8872;
1206.6000;0.4330;0.8825;
1206.9000;0.4330;0.8872;
1207.2000;0.4355;0.8872;
1207.5000;0.4347;0.8990;
1207.8000;0.4330;0.8849;
1208.1000;0.4330;0.8802;
1208.4000;0.4339;0.8849;
1208.7000;0.4330;0.8755;
1209.0000;0.4363;0.8825;
1209.3000;0.4355;0.8802;
1209.6000;0.4355;0.8849;
1209.9000;0.4330;0.8778;
1210.2000;0.4339;0.8896;
1210.5000;0.4330;0.8825;
1210.8000;0.4330;0.8802;
1211.1000;0.4347;0.8732;
1211.4000;0.4322;0.8661;
1211.7000;0.4339;0.8591;
1212.0000;0.4347;0.8614;
1212.3000;0.4330;0.8661;
1212.6000;0.4347;0.8708;
1212.9000;0.4339;0.8732;
1213.2000;0.4355;0.8802;
1213.5000;0.4339;0.8896;
1213.8000;0.4330;0.8872;
1214.1000;0.4355;0.8943;
1214.4000;0.4355;0.8896;
1214.7000;0.4330;0.8919;
1215.0000;0.4347;0.8966;
1215.3000;0.4330;0.8943;
1215.6000;0.4339;0.8990;
1215.9000;0.4339;0.8990;
1216.2000;0.4330;0.8896;
1216.5000;0.4339;0.8919;
1216.8000;0.4322;0.8966;
1217.1000;0.4330;0.8943;
1217.4000;0.4355;0.8896;
1217.7000;0.4339;0.8872;
1218.0000;0.4339;0.8872;
1218.3000;0.4322;0.8872;
1218.6000;0.4314;0.8825;
1218.9000;0.4347;0.8919;
1219.2000;0.4347;0.8919;
1219.5000;0.4322;0.8943;
1219.8000;0.4322;0.8943;
1220.1000;0.4339;0.8966;
1220.4000;0.4355;0.8966;
1220.7000;0.4322;0.8919;
1221.0000;0.4330;0.8825;
1221.3000;0.4322;0.8755;
1221.6000;0.4330;0.8778;
1221.9000;0.4347;0.8872;
1222.2000;0.4322;0.8825;
1222.5000;0.4314;0.8872;
1222.8000;0.4322;0.8872;
1223.1000;0.4298;0.8778;
1223.4000;0.4339;0.8872;
1223.7000;0.4339;0.8849;
1224.0000;0.4363;0.8896;
1224.3000;0.4347;0.8896;
1224.6000;0.4322;0.8849;
1224.9000;0.4330;0.8872;
1225.2000;0.4339;0.8896;
1225.5000;0.4330;0.8778;
1225.8000;0.4339;0.8708;
1226.1000;0.4330;0.8661;
1226.4000;0.4314;0.8567;
1226.7000;0.4330;0.8732;
1227.0000;0.4330;0.8708;
1227.3000;0.4314;0.8685;
1227.6000;0.4339;0.8708;
1227.9000;0.4355;0.8755;
1228.2000;0.4347;0.8755;
1228.5000;0.4347;0.8755;
1228.8000;0.4330;0.8732;
1229.1000;0.4371;0.8825;
1229.4000;0.4339;0.8685;
1229.7000;0.4371;0.8755;
1230.0000;0.4355;0.8778;
1230.3000;0.4347;0.8755;
1230.6000;0.4355;0.8732;
1230.9000;0.4339;0.8755;
1231.2000;0.4355;0.8896;
1231.5000;0.4404;0.8966;
1231.8000;0.4322;0.8778;
1232.1000;0.4330;0.8708;
1232.4000;0.4322;0.8614;
1232.7000;0.4404;0.8755;
1233.0000;0.4347;0.8591;
1233.3000;0.4355;0.8708;
1233.6000;0.4322;0.8708;
1233.9000;0.4371;0.8802;
1234.2000;0.4265;0.8614;
1234.5000;0.4339;0.8802;
1234.8000;0.4330;0.8732;
1235.1000;0.4339;0.8778;
1235.4000;0.4347;0.8708;
1235.7000;0.4330;0.8638;
1236.0000;0.4339;0.8638;
1236.3000;0.4314;0.8567;
1236.6000;0.4339;0.8591;
1236.9000;0.4339;0.8497;
1237.2000;0.4339;0.8567;
1237.5000;0.4339;0.8544;
1237.8000;0.4330;0.8544;
1238.1000;0.4339;0.8591;
1238.4000;0.4339;0.8567;
1238.7000;0.4330;0.8567;
1239.0000;0.4339;0.8614;
1239.3000;0.4322;0.8567;
1239.6000;0.4347;0.8544;
1239.9000;0.4322;0.8567;
1240.2000;0.4330;0.8661;
1240.5000;0.4363;0.8685;
1240.8000;0.4339;0.8567;
1241.1000;0.4322;0.8567;
1241.4000;0.4330;0.8567;
1241.7000;0.4355;0.8638;
1242.0000;0.4330;0.8708;
1242.3000;0.4322;0.8685;
1242.6000;0.4339;0.8614;
1242.9000;0.4347;0.8614;
1243.2000;0.4355;0.8638;
1243.5000;0.4339;0.8661;
1243.8000;0.4339;0.8708;
1244.1000;0.4347;0.8825;
1244.4000;0.4330;0.8849;
1244.7000;0.4355;0.8943;
1245.0000;0.4330;0.8966;
1245.3000;0.4355;0.8919;
1245.6000;0.4330;0.8896;
1245.9000;0.4339;0.8872;
1246.2000;0.4339;0.8872;
1246.5000;0.4322;0.8755;
1246.8000;0.4330;0.8755;
1247.1000;0.4306;0.8732;
1247.4000;0.4322;0.8802;
1247.7000;0.4322;0.8872;
1248.0000;0.4322;0.8919;
1248.3000;0.4347;0.8872;
1248.6000;0.4363;0.8849;
1248.9000;0.4330;0.8825;
1249.2000;0.4355;0.8872;
1249.5000;0.4363;0.8825;
1249.8000;0.4330;0.8755;
1250.1000;0.4298;0.8567;
1250.4000;0.4347;0.8708;
1250.7000;0.4339;0.8732;
1251.0000;0.4355;0.8896;
1251.3000;0.4347;0.8943;
1251.6000;0.4339;0.8943;
1251.9000;0.4347;0.9013;
1252.2000;0.4339;0.9084;
1252.5000;0.4330;0.8990;
1252.8000;0.4339;0.8919;
1253.1000;0.4339;0.8872;
1253.4000;0.4363;0.8966;
1253.7000;0.4347;0.8896;
1254.0000;0.4339;0.8990;
1254.3000;0.4330;0.8943;
1254.6000;0.4379;0.9084;
1254.9000;0.4330;0.8966;
1255.2000;0.4322;0.8919;
1255.5000;0.4322;0.8943;
1255.8000;0.4347;0.8990;
1256.1000;0.4347;0.9013;
1256.4000;0.4339;0.9060;
1256.7000;0.4330;0.8990;
1257.0000;0.4330;0.8990;
1257.3000;0.4314;0.8919;
1257.6000;0.4330;0.8943;
1257.9000;0.4330;0.8943;
1258.2000;0.4363;0.8872;
1258.5000;0.4347;0.8778;
1258.8000;0.4339;0.8896;
1259.1000;0.4339;0.8943;
1259.4000;0.4355;0.8919;
1259.7000;0.4379;0.8896;
1260.0000;0.4339;0.8755;
1260.3000;0.4330;0.8825;
1260.6000;0.4339;0.8872;
1260.9000;0.4322;0.8943;
1261.2000;0.4314;0.8802;
1261.5000;0.4339;0.8825;
1261.8000;0.4330;0.8849;
1262.1000;0.4339;0.8755;
1262.4000;0.4347;0.8778;
1262.7000;0.4330;0.8778;
1263.0000;0.4355;0.8849;
1263.3000;0.4282;0.8614;
1263.6000;0.4347;0.8802;
1263.9000;0.4347;0.8849;
1264.2000;0.4363;0.8825;
1264.5000;0.4347;0.8943;
1264.8000;0.4347;0.8872;
1265.1000;0.4347;0.8896;
1265.4000;0.4363;0.8990;
1265.7000;0.4339;0.8943;
1266.0000;0.4347;0.9013;
1266.3000;0.4322;0.8919;
1266.6000;0.4306;0.8755;
1266.9000;0.4322;0.8872;
1267.2000;0.4339;0.8872;
1267.5000;0.4330;0.8896;
1267.8000;0.4339;0.8896;
1268.1000;0.4322;0.8872;
1268.4000;0.4412;0.9037;
1268.7000;0.4347;0.8849;
1269.0000;0.4322;0.8849;
1269.3000;0.4330;0.8919;
1269.6000;0.4339;0.9013;
1269.9000;0.4355;0.8990;
1270.2000;0.4322;0.8825;
1270.5000;0.4330;0.8755;
1270.8000;0.4330;0.8708;
1271.1000;0.4339;0.8661;
1271.4000;0.4274;0.8567;
1271.7000;0.4322;0.8732;
1272.0000;0.4290;0.8638;
1272.3000;0.4339;0.8685;
1272.6000;0.4330;0.8661;
1272.9000;0.4339;0.8708;
1273.2000;0.4330;0.8755;
1273.5000;0.4347;0.8755;
1273.8000;0.4339;0.8755;
1274.1000;0.4339;0.8708;
1274.4000;0.4290;0.8544;
1274.7000;0.4355;0.8685;
1275.0000;0.4371;0.8755;
1275.3000;0.4339;0.8778;
1275.6000;0.4339;0.8825;
1275.9000;0.4355;0.8872;
1276.2000;0.4265;0.8685;
1276.5000;0.4347;0.8825;
1276.8000;0.4330;0.8708;
1277.1000;0.4347;0.8755;
1277.4000;0.4355;0.8732;
1277.7000;0.4339;0.8708;
1278.0000;0.4330;0.8685;
1278.3000;0.4330;0.8638;
1278.6000;0.4339;0.8614;
1278.9000;0.4412;0.8802;
1279.2000;0.4347;0.8614;
1279.5000;0.4347;0.8661;
1279.8000;0.4339;0.8708;
1280.1000;0.4412;0.8966;
1280.4000;0.4322;0.8732;
1280.7000;0.4347;0.8825;
1281.0000;0.4274;0.8638;
1281.3000;0.4347;0.8825;
1281.6000;0.4330;0.8732;
1281.9000;0.4396;0.8849;
1282.2000;0.4363;0.8802;
1282.5000;0.4314;0.8708;
1282.8000;0.4322;0.8732;
1283.1000;0.4347;0.8732;
1283.4000;0.4355;0.8802;
1283.7000;0.4355;0.8778;
1284.0000;0.4322;0.8849;
1284.3000;0.4396;0.9013;
1284.6000;0.4330;0.8919;
1284.9000;0.4363;0.8990;
1285.2000;0.4330;0.8943;
1285.5000;0.4347;0.8919;
1285.8000;0.4339;0.8919;
1286.1000;0.4330;0.8849;
1286.4000;0.4347;0.8755;
1286.7000;0.4339;0.8661;
1287.0000;0.4330;0.8638;
1287.3000;0.4355;0.8732;
1287.6000;0.4363;0.8778;
1287.9000;0.4347;0.8802;
1288.2000;0.4347;0.8825;
1288.5000;0.4322;0.8872;
1288.8000;0.4347;0.8943;
1289.1000;0.4306;0.8872;
1289.4000;0.4347;0.8872;
1289.7000;0.4330;0.8896;
1290.0000;0.4347;0.8919;
1290.3000;0.4347;0.8849;
1290.6000;0.4265;0.8591;
1290.9000;0.4339;0.8732;
1291.2000;0.4322;0.8661;
1291.5000;0.4330;0.8591;
1291.8000;0.4355;0.8708;
1292.1000;0.4339;0.8755;
1292.4000;0.4322;0.8802;
1292.7000;0.4355;0.8825;
1293.0000;0.4330;0.8708;
1293.3000;0.4339;0.8755;
1293.6000;0.4355;0.8849;
1293.9000;0.4355;0.8778;
1294.2000;0.4355;0.8778;
1294.5000;0.4347;0.8755;
1294.8000;0.4339;0.8778;
1295.1000;0.4355;0.8732;
1295.4000;0.4339;0.8661;
1295.7000;0.4347;0.8638;
1296.0000;0.4363;0.8778;
1296.3000;0.4330;0.8732;
1296.6000;0.4355;0.8732;
1296.9000;0.4347;0.8802;
1297.2000;0.4396;0.8966;
1297.5000;0.4355;0.8755;
1297.8000;0.4347;0.8685;
1298.1000;0.4339;0.8638;
1298.4000;0.4387;0.8685;
1298.7000;0.4339;0.8591;
1299.0000;0.4339;0.8685;
1299.3000;0.4330;0.8661;
1299.6000;0.4339;0.8661;
1299.9000;0.4347;0.8685;
1300.2000;0.4355;0.8708;
1300.5000;0.4322;0.8661;
1300.8000;0.4306;0.8638;
1301.1000;0.4330;0.8685;
1301.4000;0.4347;0.8732;
1301.7000;0.4347;0.8661;
1302.0000;0.4355;0.8638;
1302.3000;0.4314;0.8591;
1302.6000;0.4339;0.8614;
1302.9000;0.4322;0.8614;
1303.2000;0.4314;0.8638;
1303.5000;0.4330;0.8614;
1303.8000;0.4322;0.8732;
1304.1000;0.4330;0.8685;
1304.4000;0.4330;0.8614;
1304.7000;0.4330;0.8591;
1305.0000;0.4339;0.8614;
1305.3000;0.4371;0.8755;
1305.6000;0.4322;0.8661;
1305.9000;0.4322;0.8732;
1306.2000;0.4314;0.8732;
1306.5000;0.4330;0.8708;
1306.8000;0.4314;0.8638;
1307.1000;0.4339;0.8755;
1307.4000;0.4298;0.8708;
1307.7000;0.4339;0.8872;
1308.0000;0.4322;0.8849;
1308.3000;0.4322;0.8896;
1308.6000;0.4339;0.8919;
1308.9000;0.4347;0.8943;
1309.2000;0.4347;0.8943;
1309.5000;0.4330;0.8990;
1309.8000;0.4330;0.8825;
1310.1000;0.4330;0.8802;
1310.4000;0.4355;0.8755;
1310.7000;0.4330;0.8708;
1311.0000;0.4347;0.8661;
1311.3000;0.4322;0.8685;
1311.6000;0.4339;0.8708;
1311.9000;0.4322;0.8638;
1312.2000;0.4347;0.8708;
1312.5000;0.4330;0.8708;
1312.8000;0.4339;0.8708;
1313.1000;0.4363;0.8755;
1313.4000;0.4274;0.8544;
1313.7000;0.4339;0.8685;
1314.0000;0.4347;0.8708;
1314.3000;0.4330;0.8614;
1314.6000;0.4330;0.8661;
1314.9000;0.4322;0.8732;
1315.2000;0.4339;0.8708;
1315.5000;0.4363;0.8755;
1315.8000;0.4322;0.8708;
1316.1000;0.4306;0.8614;
1316.4000;0.4339;0.8708;
1316.7000;0.4363;0.8802;
1317.0000;0.4363;0.8825;
1317.3000;0.4330;0.8708;
1317.6000;0.4330;0.8755;
1317.9000;0.4306;0.8708;
1318.2000;0.4339;0.8872;
1318.5000;0.4339;0.8872;
1318.8000;0.4330;0.8919;
1319.1000;0.4339;0.8896;
1319.4000;0.4322;0.8755;
1319.7000;0.4330;0.8708;
1320.0000;0.4322;0.8638;
1320.3000;0.4347;0.8708;
1320.6000;0.4347;0.8685;
1320.9000;0.4339;0.8661;
1321.2000;0.4330;0.8661;
1321.5000;0.4322;0.8661;
1321.8000;0.4339;0.8732;
1322.1000;0.4330;0.8708;
1322.4000;0.4330;0.8638;
1322.7000;0.4339;0.8591;
1323.0000;0.4322;0.8614;
1323.3000;0.4355;0.8732;
1323.6000;0.4355;0.8732;
1323.9000;0.4347;0.8661;
1324.2000;0.4347;0.8708;
1324.5000;0.4347;0.8732;
1324.8000;0.4330;0.8732;
1325.1000;0.4306;0.8708;
1325.4000;0.4355;0.8849;
1325.7000;0.4347;0.8802;
1326.0000;0.4330;0.8825;
1326.3000;0.4355;0.8872;
1326.6000;0.4330;0.8755;
1326.9000;0.4314;0.8778;
1327.2000;0.4330;0.8825;
1327.5000;0.4314;0.8825;
1327.8000;0.4339;0.8896;
1328.1000;0.4355;0.8872;
1328.4000;0.4339;0.8896;
1328.7000;0.4339;0.8778;
1329.0000;0.4347;0.8778;
1329.3000;0.4355;0.8825;
1329.6000;0.4347;0.8755;
1329.9000;0.4339;0.8802;
1330.2000;0.4330;0.8778;
1330.5000;0.4330;0.8661;
1330.8000;0.4355;0.8638;
1331.1000;0.4339;0.8614;
1331.4000;0.4339;0.8591;
1331.7000;0.4355;0.8732;
1332.0000;0.4355;0.8732;
1332.3000;0.4322;0.8755;
1332.6000;0.4347;0.8825;
1332.9000;0.4330;0.8802;
1333.2000;0.4339;0.8849;
1333.5000;0.4322;0.8849;
1333.8000;0.4347;0.8802;
1334.1000;0.4347;0.8872;
1334.4000;0.4355;0.8896;
1334.7000;0.4330;0.8872;
1335.0000;0.4339;0.8872;
1335.3000;0.4322;0.8825;
1335.6000;0.4339;0.8872;
1335.9000;0.4330;0.8849;
1336.2000;0.4379;0.8896;
1336.5000;0.4355;0.8943;
1336.8000;0.4339;0.8825;
1337.1000;0.4347;0.8802;
1337.4000;0.4387;0.8990;
1337.7000;0.4330;0.8872;
1338.0000;0.4330;0.8896;
1338.3000;0.4339;0.8872;
1338.6000;0.4339;0.8896;
1338.9000;0.4322;0.8872;
1339.2000;0.4347;0.8849;
1339.5000;0.4322;0.8661;
1339.8000;0.4339;0.8755;
1340.1000;0.4322;0.8755;
1340.4000;0.4330;0.8896;
1340.7000;0.4347;0.8990;
1341.0000;0.4355;0.9107;
1341.3000;0.4322;0.8872;
1341.6000;0.4355;0.8896;
1341.9000;0.4339;0.8919;
1342.2000;0.4355;0.8990;
1342.5000;0.4347;0.8943;
1342.8000;0.4347;0.8966;
1343.1000;0.4355;0.8966;
1343.4000;0.4330;0.8990;
1343.7000;0.4330;0.8896;
1344.0000;0.4290;0.8732;
1344.3000;0.4339;0.8802;
1344.6000;0.4339;0.8825;
1344.9000;0.4339;0.8919;
1345.2000;0.4339;0.8919;
1345.5000;0.4330;0.8872;
1345.8000;0.4339;0.8896;
1346.1000;0.4330;0.8825;
1346.4000;0.4330;0.8732;
1346.7000;0.4330;0.8755;
1347.0000;0.4339;0.8778;
1347.3000;0.4347;0.8755;
1347.6000;0.4339;0.8778;
1347.9000;0.4330;0.8896;
1348.2000;0.4347;0.8943;
1348.5000;0.4339;0.8896;
1348.8000;0.4330;0.8919;
1349.1000;0.4339;0.8966;
1349.4000;0.4322;0.8849;
1349.7000;0.4330;0.8778;
1350.0000;0.4347;0.8849;
1350.3000;0.4322;0.8802;
1350.6000;0.4355;0.8849;
1350.9000;0.4355;0.8872;
1351.2000;0.4339;0.8778;
1351.5000;0.4306;0.8685;
1351.8000;0.4330;0.8708;
1352.1000;0.4339;0.8732;
1352.4000;0.4347;0.8755;
1352.7000;0.4322;0.8778;
1353.0000;0.4339;0.8778;
1353.3000;0.4306;0.8685;
1353.6000;0.4339;0.8755;
1353.9000;0.4347;0.8732;
1354.2000;0.4330;0.8732;
1354.5000;0.4330;0.8755;
1354.8000;0.4347;0.8732;
1355.1000;0.4347;0.8755;
1355.4000;0.4339;0.8685;
1355.7000;0.4322;0.8614;
1356.0000;0.4339;0.8614;
1356.3000;0.4355;0.8638;
1356.6000;0.4330;0.8591;
1356.9000;0.4339;0.8614;
1357.2000;0.4371;0.8685;
1357.5000;0.4339;0.8661;
1357.8000;0.4339;0.8732;
1358.1000;0.4330;0.8661;
1358.4000;0.4330;0.8685;
1358.7000;0.4355;0.8685;
1359.0000;0.4330;0.8708;
1359.3000;0.4330;0.8638;
1359.6000;0.4355;0.8732;
1359.9000;0.4347;0.8708;
1360.2000;0.4233;0.8403;
1360.5000;0.4420;0.8755;
1360.8000;0.4330;0.8403;
1361.1000;0.4314;0.8403;
1361.4000;0.4265;0.8192;
1361.7000;0.4314;0.8309;
1362.0000;0.4347;0.8403;
1362.3000;0.4363;0.8497;
1362.6000;0.4355;0.8473;
1362.9000;0.4330;0.8403;
1363.2000;0.4322;0.8356;
1363.5000;0.4330;0.8332;
1363.8000;0.4339;0.8379;
1364.1000;0.4339;0.8426;
1364.4000;0.4330;0.8473;
1364.7000;0.4330;0.8520;
1365.0000;0.4339;0.8497;
1365.3000;0.4322;0.8520;
1365.6000;0.4314;0.8544;
1365.9000;0.4233;0.8332;
1366.2000;0.4347;0.8708;
1366.5000;0.4339;0.8708;
1366.8000;0.4339;0.8638;
1367.1000;0.4379;0.8755;
1367.4000;0.4412;0.8849;
1367.7000;0.4322;0.8567;
1368.0000;0.4339;0.8567;
1368.3000;0.4322;0.8567;
1368.6000;0.4339;0.8661;
1368.9000;0.4330;0.8755;
1369.2000;0.4339;0.8825;
1369.5000;0.4330;0.8849;
1369.8000;0.4330;0.8778;
1370.1000;0.4355;0.8755;
1370.4000;0.4322;0.8661;
1370.7000;0.4339;0.8685;
1371.0000;0.4282;0.8591;
1371.3000;0.4322;0.8638;
1371.6000;0.4290;0.8591;
1371.9000;0.4347;0.8732;
1372.2000;0.4339;0.8638;
1372.5000;0.4314;0.8708;
1372.8000;0.4339;0.8685;
1373.1000;0.4322;0.8544;
1373.4000;0.4322;0.8567;
1373.7000;0.4322;0.8591;
1374.0000;0.4241;0.8379;
1374.3000;0.4314;0.8544;
1374.6000;0.4339;0.8591;
1374.9000;0.4330;0.8614;
1375.2000;0.4330;0.8661;
1375.5000;0.4306;0.8614;
1375.8000;0.4330;0.8685;
1376.1000;0.4347;0.8614;
1376.4000;0.4330;0.8685;
1376.7000;0.4314;0.8708;
1377.0000;0.4322;0.8732;
1377.3000;0.4330;0.8685;
1377.6000;0.4339;0.8778;
1377.9000;0.4347;0.8825;
1378.2000;0.4322;0.8755;
1378.5000;0.4339;0.8732;
1378.8000;0.4339;0.8708;
1379.1000;0.4330;0.8802;
1379.4000;0.4330;0.8755;
1379.7000;0.4330;0.8825;
1380.0000;0.4363;0.8849;
1380.3000;0.4330;0.8732;
1380.6000;0.4330;0.8732;
1380.9000;0.4330;0.8638;
1381.2000;0.4322;0.8544;
1381.5000;0.4355;0.8567;
1381.8000;0.4339;0.8661;
1382.1000;0.4330;0.8544;
1382.4000;0.4347;0.8497;
1382.7000;0.4347;0.8473;
1383.0000;0.4330;0.8497;
1383.3000;0.4314;0.8473;
1383.6000;0.4330;0.8567;
1383.9000;0.4330;0.8638;
1384.2000;0.4330;0.8685;
1384.5000;0.4265;0.8520;
1384.8000;0.4322;0.8685;
1385.1000;0.4339;0.8708;
1385.4000;0.4282;0.8473;
1385.7000;0.4355;0.8614;
1386.0000;0.4330;0.8591;
1386.3000;0.4290;0.8473;
1386.6000;0.4330;0.8567;
1386.9000;0.4322;0.8544;
1387.2000;0.4322;0.8450;
1387.5000;0.4322;0.8473;
1387.8000;0.4363;0.8638;
1388.1000;0.4355;0.8708;
1388.4000;0.4330;0.8661;
1388.7000;0.4347;0.8685;
1389.0000;0.4347;0.8661;
1389.3000;0.4412;0.8802;
1389.6000;0.4347;0.8661;
1389.9000;0.4355;0.8685;
1390.2000;0.4339;0.8638;
1390.5000;0.4347;0.8661;
1390.8000;0.4339;0.8685;
1391.1000;0.4339;0.8638;
1391.4000;0.4347;0.8638;
1391.7000;0.4330;0.8638;
1392.0000;0.4339;0.8755;
1392.3000;0.4330;0.8614;
1392.6000;0.4347;0.8661;
1392.9000;0.4339;0.8567;
1393.2000;0.4314;0.8591;
1393.5000;0.4347;0.8591;
1393.8000;0.4330;0.8544;
1394.1000;0.4355;0.8638;
1394.4000;0.4339;0.8567;
1394.7000;0.4339;0.8567;
1395.0000;0.4347;0.8567;
1395.3000;0.4322;0.8661;
1395.6000;0.4322;0.8708;
1395.9000;0.4314;0.8614;
1396.2000;0.4306;0.8661;
1396.5000;0.4322;0.8708;
1396.8000;0.4339;0.8708;
1397.1000;0.4306;0.8638;
1397.4000;0.4355;0.8802;
1397.7000;0.4339;0.8708;
1398.0000;0.4282;0.8520;
1398.3000;0.4347;0.8708;
1398.6000;0.4330;0.8614;
1398.9000;0.4355;0.8685;
1399.2000;0.4339;0.8638;
1399.5000;0.4339;0.8638;
1399.8000;0.4347;0.8755;
