time/ms;Fluo/V;P700 deltaI/I x10³;
-199.8000;0.4681;0.8051;
-199.5000;0.4697;0.8074;
-199.2000;0.4689;0.8051;
-198.9000;0.4689;0.8051;
-198.6000;0.4681;0.8051;
-198.3000;0.4656;0.8121;
-198.0000;0.4672;0.8215;
-197.7000;0.4681;0.8215;
-197.4000;0.4689;0.8309;
-197.1000;0.4697;0.8262;
-196.8000;0.4697;0.8286;
-196.5000;0.4705;0.8309;
-196.2000;0.4705;0.8356;
-195.9000;0.4705;0.8379;
-195.6000;0.4689;0.8309;
-195.3000;0.4697;0.8262;
-195.0000;0.4697;0.8356;
-194.7000;0.4681;0.8332;
-194.4000;0.4689;0.8286;
-194.1000;0.4689;0.8309;
-193.8000;0.4640;0.8145;
-193.5000;0.4689;0.8239;
-193.2000;0.4697;0.8262;
-192.9000;0.4672;0.8168;
-192.6000;0.4689;0.8168;
-192.3000;0.4689;0.8239;
-192.0000;0.4713;0.8332;
-191.7000;0.4672;0.8239;
-191.4000;0.4697;0.8192;
-191.1000;0.4705;0.8121;
-190.8000;0.4697;0.8145;
-190.5000;0.4681;0.8168;
-190.2000;0.4689;0.8168;
-189.9000;0.4713;0.8121;
-189.6000;0.4689;0.8027;
-189.3000;0.4672;0.7957;
-189.0000;0.4689;0.7863;
-188.7000;0.4656;0.7887;
-188.4000;0.4689;0.8027;
-188.1000;0.4672;0.7957;
-187.8000;0.4681;0.7933;
-187.5000;0.4689;0.7933;
-187.2000;0.4681;0.7957;
-186.9000;0.4672;0.7957;
-186.6000;0.4681;0.8027;
-186.3000;0.4697;0.8004;
-186.0000;0.4681;0.8027;
-185.7000;0.4697;0.8074;
-185.4000;0.4689;0.8004;
-185.1000;0.4689;0.8027;
-184.8000;0.4689;0.8098;
-184.5000;0.4681;0.8027;
-184.2000;0.4672;0.8051;
-183.9000;0.4689;0.8004;
-183.6000;0.4697;0.8004;
-183.3000;0.4689;0.8004;
-183.0000;0.4689;0.8027;
-182.7000;0.4681;0.7957;
-182.4000;0.4689;0.7863;
-182.1000;0.4681;0.7816;
-181.8000;0.4681;0.7957;
-181.5000;0.4607;0.7699;
-181.2000;0.4689;0.7910;
-180.9000;0.4689;0.7910;
-180.6000;0.4656;0.7863;
-180.3000;0.4681;0.7933;
-180.0000;0.4737;0.8074;
-179.7000;0.4689;0.7910;
-179.4000;0.4681;0.7933;
-179.1000;0.4721;0.8098;
-178.8000;0.4664;0.8004;
-178.5000;0.4672;0.8027;
-178.2000;0.4656;0.7933;
-177.9000;0.4681;0.8027;
-177.6000;0.4689;0.8004;
-177.3000;0.4681;0.8051;
-177.0000;0.4672;0.8121;
-176.7000;0.4689;0.8168;
-176.4000;0.4681;0.8121;
-176.1000;0.4689;0.8051;
-175.8000;0.4689;0.8121;
-175.5000;0.4697;0.8098;
-175.2000;0.4664;0.8027;
-174.9000;0.4681;0.8004;
-174.6000;0.4689;0.8098;
-174.3000;0.4672;0.8074;
-174.0000;0.4713;0.8098;
-173.7000;0.4705;0.8027;
-173.4000;0.4632;0.7816;
-173.1000;0.4681;0.7957;
-172.8000;0.4672;0.8027;
-172.5000;0.4599;0.7816;
-172.2000;0.4713;0.8051;
-171.9000;0.4705;0.8098;
-171.6000;0.4737;0.8192;
-171.3000;0.4681;0.8121;
-171.0000;0.4705;0.8145;
-170.7000;0.4689;0.8145;
-170.4000;0.4681;0.8098;
-170.1000;0.4681;0.8121;
-169.8000;0.4689;0.8121;
-169.5000;0.4681;0.8098;
-169.2000;0.4681;0.8027;
-168.9000;0.4672;0.7957;
-168.6000;0.4697;0.7980;
-168.3000;0.4689;0.7933;
-168.0000;0.4681;0.7887;
-167.7000;0.4681;0.7933;
-167.4000;0.4737;0.8004;
-167.1000;0.4697;0.7887;
-166.8000;0.4664;0.7887;
-166.5000;0.4697;0.8027;
-166.2000;0.4681;0.8121;
-165.9000;0.4697;0.8074;
-165.6000;0.4689;0.8004;
-165.3000;0.4681;0.7980;
-165.0000;0.4689;0.7980;
-164.7000;0.4705;0.8027;
-164.4000;0.4697;0.8051;
-164.1000;0.4697;0.8074;
-163.8000;0.4664;0.8027;
-163.5000;0.4672;0.8098;
-163.2000;0.4705;0.8168;
-162.9000;0.4689;0.8098;
-162.6000;0.4672;0.8004;
-162.3000;0.4689;0.7957;
-162.0000;0.4689;0.7933;
-161.7000;0.4681;0.8004;
-161.4000;0.4607;0.7793;
-161.1000;0.4689;0.8004;
-160.8000;0.4697;0.8074;
-160.5000;0.4697;0.8098;
-160.2000;0.4689;0.8121;
-159.9000;0.4672;0.8121;
-159.6000;0.4697;0.8192;
-159.3000;0.4697;0.8286;
-159.0000;0.4672;0.8262;
-158.7000;0.4664;0.8215;
-158.4000;0.4721;0.8473;
-158.1000;0.4697;0.8426;
-157.8000;0.4681;0.8309;
-157.5000;0.4689;0.8403;
-157.2000;0.4689;0.8379;
-156.9000;0.4697;0.8403;
-156.6000;0.4729;0.8450;
-156.3000;0.4689;0.8215;
-156.0000;0.4697;0.8145;
-155.7000;0.4689;0.8074;
-155.4000;0.4713;0.8098;
-155.1000;0.4689;0.8098;
-154.8000;0.4746;0.8262;
-154.5000;0.4770;0.8309;
-154.2000;0.4697;0.8121;
-153.9000;0.4664;0.8004;
-153.6000;0.4786;0.8262;
-153.3000;0.4689;0.7933;
-153.0000;0.4689;0.7887;
-152.7000;0.4689;0.8004;
-152.4000;0.4697;0.8098;
-152.1000;0.4689;0.8121;
-151.8000;0.4697;0.8168;
-151.5000;0.4681;0.8098;
-151.2000;0.4689;0.8074;
-150.9000;0.4697;0.8027;
-150.6000;0.4721;0.8074;
-150.3000;0.4672;0.8004;
-150.0000;0.4672;0.8074;
-149.7000;0.4689;0.8145;
-149.4000;0.4681;0.8098;
-149.1000;0.4713;0.8168;
-148.8000;0.4681;0.8074;
-148.5000;0.4681;0.8192;
-148.2000;0.4689;0.8168;
-147.9000;0.4681;0.8215;
-147.6000;0.4672;0.8121;
-147.3000;0.4697;0.8215;
-147.0000;0.4697;0.8309;
-146.7000;0.4697;0.8309;
-146.4000;0.4681;0.8239;
-146.1000;0.4697;0.8239;
-145.8000;0.4697;0.8309;
-145.5000;0.4697;0.8286;
-145.2000;0.4705;0.8239;
-144.9000;0.4672;0.8168;
-144.6000;0.4681;0.8215;
-144.3000;0.4697;0.8286;
-144.0000;0.4681;0.8215;
-143.7000;0.4689;0.8262;
-143.4000;0.4681;0.8215;
-143.1000;0.4705;0.8239;
-142.8000;0.4689;0.8145;
-142.5000;0.4713;0.8121;
-142.2000;0.4689;0.8051;
-141.9000;0.4681;0.8168;
-141.6000;0.4689;0.8215;
-141.3000;0.4681;0.8098;
-141.0000;0.4689;0.8074;
-140.7000;0.4689;0.8074;
-140.4000;0.4713;0.8192;
-140.1000;0.4689;0.8215;
-139.8000;0.4681;0.8262;
-139.5000;0.4672;0.8192;
-139.2000;0.4681;0.8145;
-138.9000;0.4681;0.8098;
-138.6000;0.4681;0.8051;
-138.3000;0.4656;0.8004;
-138.0000;0.4697;0.8074;
-137.7000;0.4697;0.8004;
-137.4000;0.4672;0.7957;
-137.1000;0.4713;0.8098;
-136.8000;0.4697;0.8074;
-136.5000;0.4681;0.8051;
-136.2000;0.4689;0.8145;
-135.9000;0.4689;0.8145;
-135.6000;0.4705;0.8121;
-135.3000;0.4672;0.8098;
-135.0000;0.4689;0.8192;
-134.7000;0.4648;0.8145;
-134.4000;0.4689;0.8192;
-134.1000;0.4681;0.8121;
-133.8000;0.4672;0.8098;
-133.5000;0.4681;0.8051;
-133.2000;0.4681;0.8027;
-132.9000;0.4689;0.8098;
-132.6000;0.4664;0.8027;
-132.3000;0.4681;0.8098;
-132.0000;0.4705;0.8192;
-131.7000;0.4713;0.8192;
-131.4000;0.4689;0.8215;
-131.1000;0.4689;0.8145;
-130.8000;0.4689;0.8121;
-130.5000;0.4689;0.8051;
-130.2000;0.4681;0.8121;
-129.9000;0.4689;0.8121;
-129.6000;0.4689;0.8215;
-129.3000;0.4713;0.8309;
-129.0000;0.4705;0.8286;
-128.7000;0.4697;0.8332;
-128.4000;0.4689;0.8332;
-128.1000;0.4681;0.8262;
-127.8000;0.4681;0.8215;
-127.5000;0.4681;0.8215;
-127.2000;0.4672;0.8145;
-126.9000;0.4746;0.8403;
-126.6000;0.4713;0.8286;
-126.3000;0.4607;0.8098;
-126.0000;0.4697;0.8309;
-125.7000;0.4689;0.8262;
-125.4000;0.4697;0.8379;
-125.1000;0.4615;0.8098;
-124.8000;0.4729;0.8239;
-124.5000;0.4648;0.8098;
-124.2000;0.4607;0.7980;
-123.9000;0.4713;0.8192;
-123.6000;0.4746;0.8262;
-123.3000;0.4770;0.8309;
-123.0000;0.4681;0.8027;
-122.7000;0.4689;0.8074;
-122.4000;0.4672;0.8027;
-122.1000;0.4689;0.8004;
-121.8000;0.4705;0.8074;
-121.5000;0.4672;0.8074;
-121.2000;0.4697;0.8215;
-120.9000;0.4689;0.8309;
-120.6000;0.4689;0.8356;
-120.3000;0.4672;0.8332;
-120.0000;0.4689;0.8215;
-119.7000;0.4648;0.8145;
-119.4000;0.4648;0.8074;
-119.1000;0.4672;0.8168;
-118.8000;0.4697;0.8192;
-118.5000;0.4656;0.8192;
-118.2000;0.4689;0.8239;
-117.9000;0.4689;0.8286;
-117.6000;0.4713;0.8426;
-117.3000;0.4705;0.8332;
-117.0000;0.4705;0.8403;
-116.7000;0.4689;0.8356;
-116.4000;0.4697;0.8426;
-116.1000;0.4689;0.8332;
-115.8000;0.4672;0.8262;
-115.5000;0.4689;0.8239;
-115.2000;0.4689;0.8262;
-114.9000;0.4681;0.8262;
-114.6000;0.4705;0.8426;
-114.3000;0.4672;0.8426;
-114.0000;0.4672;0.8426;
-113.7000;0.4681;0.8379;
-113.4000;0.4697;0.8426;
-113.1000;0.4672;0.8379;
-112.8000;0.4697;0.8403;
-112.5000;0.4713;0.8473;
-112.2000;0.4705;0.8520;
-111.9000;0.4689;0.8497;
-111.6000;0.4681;0.8591;
-111.3000;0.4681;0.8497;
-111.0000;0.4672;0.8473;
-110.7000;0.4664;0.8379;
-110.4000;0.4640;0.8286;
-110.1000;0.4697;0.8520;
-109.8000;0.4672;0.8450;
-109.5000;0.4681;0.8520;
-109.2000;0.4697;0.8497;
-108.9000;0.4672;0.8426;
-108.6000;0.4656;0.8332;
-108.3000;0.4689;0.8356;
-108.0000;0.4705;0.8356;
-107.7000;0.4729;0.8403;
-107.4000;0.4705;0.8450;
-107.1000;0.4632;0.8215;
-106.8000;0.4689;0.8379;
-106.5000;0.4697;0.8426;
-106.2000;0.4697;0.8426;
-105.9000;0.4689;0.8497;
-105.6000;0.4656;0.8332;
-105.3000;0.4664;0.8356;
-105.0000;0.4656;0.8332;
-104.7000;0.4681;0.8379;
-104.4000;0.4664;0.8379;
-104.1000;0.4664;0.8403;
-103.8000;0.4648;0.8356;
-103.5000;0.4681;0.8497;
-103.2000;0.4648;0.8379;
-102.9000;0.4681;0.8497;
-102.6000;0.4632;0.8379;
-102.3000;0.4754;0.8638;
-102.0000;0.4681;0.8450;
-101.7000;0.4664;0.8403;
-101.4000;0.4672;0.8426;
-101.1000;0.4681;0.8497;
-100.8000;0.4648;0.8450;
-100.5000;0.4575;0.8239;
-100.2000;0.4664;0.8426;
-99.9000;0.4689;0.8403;
-99.6000;0.4664;0.8379;
-99.3000;0.4664;0.8192;
-99.0000;0.4681;0.8286;
-98.7000;0.4746;0.8450;
-98.4000;0.4681;0.8309;
-98.1000;0.4689;0.8332;
-97.8000;0.4689;0.8215;
-97.5000;0.4664;0.8145;
-97.2000;0.4689;0.8192;
-96.9000;0.4689;0.8168;
-96.6000;0.4705;0.8262;
-96.3000;0.4713;0.8379;
-96.0000;0.4713;0.8497;
-95.7000;0.4689;0.8426;
-95.4000;0.4705;0.8450;
-95.1000;0.4713;0.8473;
-94.8000;0.4713;0.8473;
-94.5000;0.4705;0.8473;
-94.2000;0.4689;0.8520;
-93.9000;0.4697;0.8473;
-93.6000;0.4689;0.8473;
-93.3000;0.4729;0.8591;
-93.0000;0.4681;0.8379;
-92.7000;0.4672;0.8379;
-92.4000;0.4664;0.8309;
-92.1000;0.4697;0.8286;
-91.8000;0.4705;0.8215;
-91.5000;0.4681;0.8192;
-91.2000;0.4705;0.8239;
-90.9000;0.4697;0.8286;
-90.6000;0.4689;0.8192;
-90.3000;0.4689;0.8192;
-90.0000;0.4672;0.8121;
-89.7000;0.4681;0.7980;
-89.4000;0.4681;0.7980;
-89.1000;0.4681;0.8074;
-88.8000;0.4664;0.8074;
-88.5000;0.4697;0.8145;
-88.2000;0.4737;0.8192;
-87.9000;0.4697;0.8192;
-87.6000;0.4729;0.8286;
-87.3000;0.4681;0.8239;
-87.0000;0.4697;0.8309;
-86.7000;0.4689;0.8379;
-86.4000;0.4681;0.8379;
-86.1000;0.4705;0.8379;
-85.8000;0.4697;0.8286;
-85.5000;0.4697;0.8356;
-85.2000;0.4681;0.8356;
-84.9000;0.4697;0.8426;
-84.6000;0.4746;0.8614;
-84.3000;0.4689;0.8379;
-84.0000;0.4672;0.8332;
-83.7000;0.4672;0.8379;
-83.4000;0.4697;0.8379;
-83.1000;0.4681;0.8379;
-82.8000;0.4607;0.8262;
-82.5000;0.4697;0.8520;
-82.2000;0.4713;0.8520;
-81.9000;0.4697;0.8497;
-81.6000;0.4681;0.8497;
-81.3000;0.4697;0.8544;
-81.0000;0.4697;0.8567;
-80.7000;0.4746;0.8567;
-80.4000;0.4681;0.8450;
-80.1000;0.4689;0.8473;
-79.8000;0.4672;0.8426;
-79.5000;0.4705;0.8544;
-79.2000;0.4672;0.8473;
-78.9000;0.4713;0.8614;
-78.6000;0.4729;0.8638;
-78.3000;0.4697;0.8520;
-78.0000;0.4697;0.8520;
-77.7000;0.4689;0.8591;
-77.4000;0.4713;0.8638;
-77.1000;0.4689;0.8614;
-76.8000;0.4697;0.8473;
-76.5000;0.4672;0.8473;
-76.2000;0.4689;0.8450;
-75.9000;0.4689;0.8567;
-75.6000;0.4713;0.8520;
-75.3000;0.4697;0.8520;
-75.0000;0.4681;0.8473;
-74.7000;0.4664;0.8403;
-74.4000;0.4689;0.8473;
-74.1000;0.4672;0.8473;
-73.8000;0.4681;0.8567;
-73.5000;0.4713;0.8661;
-73.2000;0.4697;0.8544;
-72.9000;0.4689;0.8567;
-72.6000;0.4689;0.8567;
-72.3000;0.4705;0.8520;
-72.0000;0.4713;0.8520;
-71.7000;0.4681;0.8544;
-71.4000;0.4689;0.8591;
-71.1000;0.4689;0.8591;
-70.8000;0.4689;0.8567;
-70.5000;0.4689;0.8591;
-70.2000;0.4697;0.8520;
-69.9000;0.4689;0.8473;
-69.6000;0.4672;0.8497;
-69.3000;0.4664;0.8426;
-69.0000;0.4672;0.8497;
-68.7000;0.4705;0.8544;
-68.4000;0.4689;0.8567;
-68.1000;0.4705;0.8544;
-67.8000;0.4713;0.8520;
-67.5000;0.4681;0.8473;
-67.2000;0.4697;0.8567;
-66.9000;0.4697;0.8567;
-66.6000;0.4705;0.8591;
-66.3000;0.4656;0.8473;
-66.0000;0.4681;0.8544;
-65.7000;0.4689;0.8591;
-65.4000;0.4672;0.8520;
-65.1000;0.4681;0.8473;
-64.8000;0.4672;0.8403;
-64.5000;0.4697;0.8450;
-64.2000;0.4705;0.8497;
-63.9000;0.4697;0.8473;
-63.6000;0.4697;0.8520;
-63.3000;0.4697;0.8450;
-63.0000;0.4697;0.8473;
-62.7000;0.4648;0.8286;
-62.4000;0.4697;0.8356;
-62.1000;0.4705;0.8473;
-61.8000;0.4713;0.8544;
-61.5000;0.4713;0.8567;
-61.2000;0.4697;0.8520;
-60.9000;0.4697;0.8473;
-60.6000;0.4689;0.8450;
-60.3000;0.4689;0.8426;
-60.0000;0.4697;0.8450;
-59.7000;0.4681;0.8403;
-59.4000;0.4697;0.8450;
-59.1000;0.4681;0.8450;
-58.8000;0.4681;0.8497;
-58.5000;0.4672;0.8497;
-58.2000;0.4681;0.8473;
-57.9000;0.4689;0.8403;
-57.6000;0.4737;0.8520;
-57.3000;0.4689;0.8450;
-57.0000;0.4689;0.8450;
-56.7000;0.4681;0.8403;
-56.4000;0.4697;0.8356;
-56.1000;0.4689;0.8497;
-55.8000;0.4689;0.8544;
-55.5000;0.4664;0.8497;
-55.2000;0.4697;0.8567;
-54.9000;0.4681;0.8497;
-54.6000;0.4664;0.8426;
-54.3000;0.4689;0.8426;
-54.0000;0.4689;0.8473;
-53.7000;0.4664;0.8520;
-53.4000;0.4689;0.8520;
-53.1000;0.4672;0.8497;
-52.8000;0.4681;0.8520;
-52.5000;0.4681;0.8450;
-52.2000;0.4681;0.8450;
-51.9000;0.4697;0.8473;
-51.6000;0.4697;0.8520;
-51.3000;0.4689;0.8520;
-51.0000;0.4681;0.8544;
-50.7000;0.4697;0.8520;
-50.4000;0.4689;0.8497;
-50.1000;0.4697;0.8520;
-49.8000;0.4681;0.8567;
-49.5000;0.4689;0.8520;
-49.2000;0.4713;0.8520;
-48.9000;0.4697;0.8426;
-48.6000;0.4697;0.8426;
-48.3000;0.4681;0.8356;
-48.0000;0.4697;0.8403;
-47.7000;0.4689;0.8403;
-47.4000;0.4672;0.8309;
-47.1000;0.4689;0.8286;
-46.8000;0.4705;0.8286;
-46.5000;0.4705;0.8356;
-46.2000;0.4689;0.8309;
-45.9000;0.4689;0.8262;
-45.6000;0.4705;0.8286;
-45.3000;0.4697;0.8286;
-45.0000;0.4689;0.8262;
-44.7000;0.4689;0.8239;
-44.4000;0.4664;0.8121;
-44.1000;0.4689;0.8145;
-43.8000;0.4689;0.8074;
-43.5000;0.4681;0.7933;
-43.2000;0.4632;0.7840;
-42.9000;0.4705;0.8051;
-42.6000;0.4689;0.8098;
-42.3000;0.4681;0.8192;
-42.0000;0.4681;0.8239;
-41.7000;0.4697;0.8332;
-41.4000;0.4697;0.8309;
-41.1000;0.4681;0.8309;
-40.8000;0.4681;0.8215;
-40.5000;0.4689;0.8215;
-40.2000;0.4689;0.8168;
-39.9000;0.4681;0.8192;
-39.6000;0.4672;0.8262;
-39.3000;0.4697;0.8450;
-39.0000;0.4697;0.8520;
-38.7000;0.4672;0.8403;
-38.4000;0.4624;0.8286;
-38.1000;0.4705;0.8403;
-37.8000;0.4697;0.8379;
-37.5000;0.4689;0.8403;
-37.2000;0.4697;0.8426;
-36.9000;0.4705;0.8473;
-36.6000;0.4705;0.8426;
-36.3000;0.4705;0.8403;
-36.0000;0.4721;0.8426;
-35.7000;0.4689;0.8332;
-35.4000;0.4681;0.8356;
-35.1000;0.4697;0.8332;
-34.8000;0.4689;0.8356;
-34.5000;0.4664;0.8403;
-34.2000;0.4794;0.8755;
-33.9000;0.4697;0.8520;
-33.6000;0.4672;0.8450;
-33.3000;0.4689;0.8450;
-33.0000;0.4664;0.8379;
-32.7000;0.4689;0.8426;
-32.4000;0.4672;0.8286;
-32.1000;0.4689;0.8286;
-31.8000;0.4689;0.8215;
-31.5000;0.4640;0.8121;
-31.2000;0.4697;0.8332;
-30.9000;0.4689;0.8309;
-30.6000;0.4672;0.8356;
-30.3000;0.4689;0.8332;
-30.0000;0.4681;0.8239;
-29.7000;0.4681;0.8262;
-29.4000;0.4689;0.8309;
-29.1000;0.4689;0.8239;
-28.8000;0.4681;0.8309;
-28.5000;0.4762;0.8520;
-28.2000;0.4689;0.8356;
-27.9000;0.4689;0.8286;
-27.6000;0.4697;0.8309;
-27.3000;0.4697;0.8286;
-27.0000;0.4713;0.8379;
-26.7000;0.4689;0.8356;
-26.4000;0.4713;0.8356;
-26.1000;0.4681;0.8356;
-25.8000;0.4681;0.8309;
-25.5000;0.4672;0.8309;
-25.2000;0.4681;0.8309;
-24.9000;0.4681;0.8239;
-24.6000;0.4681;0.8239;
-24.3000;0.4591;0.8004;
-24.0000;0.4689;0.8239;
-23.7000;0.4689;0.8239;
-23.4000;0.4656;0.8262;
-23.1000;0.4615;0.8192;
-22.8000;0.4689;0.8403;
-22.5000;0.4681;0.8450;
-22.2000;0.4681;0.8497;
-21.9000;0.4697;0.8520;
-21.6000;0.4681;0.8497;
-21.3000;0.4689;0.8450;
-21.0000;0.4681;0.8403;
-20.7000;0.4689;0.8426;
-20.4000;0.4681;0.8403;
-20.1000;0.4689;0.8403;
-19.8000;0.4689;0.8286;
-19.5000;0.4681;0.8262;
-19.2000;0.4689;0.8403;
-18.9000;0.4672;0.8332;
-18.6000;0.4729;0.8450;
-18.3000;0.4681;0.8379;
-18.0000;0.4729;0.8497;
-17.7000;0.4681;0.8379;
-17.4000;0.4713;0.8544;
-17.1000;0.4689;0.8497;
-16.8000;0.4664;0.8473;
-16.5000;0.4632;0.8356;
-16.2000;0.4689;0.8497;
-15.9000;0.4689;0.8426;
-15.6000;0.4672;0.8426;
-15.3000;0.4689;0.8403;
-15.0000;0.4672;0.8379;
-14.7000;0.4664;0.8332;
-14.4000;0.4681;0.8426;
-14.1000;0.4672;0.8403;
-13.8000;0.4664;0.8332;
-13.5000;0.4697;0.8473;
-13.2000;0.4689;0.8426;
-12.9000;0.4697;0.8426;
-12.6000;0.4697;0.8520;
-12.3000;0.4697;0.8497;
-12.0000;0.4705;0.8497;
-11.7000;0.4705;0.8379;
-11.4000;0.4705;0.8403;
-11.1000;0.4705;0.8332;
-10.8000;0.4664;0.8239;
-10.5000;0.4664;0.8286;
-10.2000;0.4689;0.8379;
-9.9000;0.4681;0.8379;
-9.6000;0.4705;0.8379;
-9.3000;0.4681;0.8215;
-9.0000;0.4672;0.8286;
-8.7000;0.4713;0.8379;
-8.4000;0.4713;0.8567;
-8.1000;0.4681;0.8544;
-7.8000;0.4705;0.8544;
-7.5000;0.4697;0.8520;
-7.2000;0.4705;0.8520;
-6.9000;0.4632;0.8356;
-6.6000;0.4697;0.8567;
-6.3000;0.4689;0.8426;
-6.0000;0.4689;0.8356;
-5.7000;0.4681;0.8286;
-5.4000;0.4689;0.8356;
-5.1000;0.4681;0.8286;
-4.8000;0.4721;0.8356;
-4.5000;0.4689;0.8332;
-4.2000;0.4689;0.8286;
-3.9000;0.4697;0.8262;
-3.6000;0.4689;0.8239;
-3.3000;0.4681;0.8239;
-3.0000;0.4705;0.8309;
-2.7000;0.4681;0.8239;
-2.4000;0.4672;0.8192;
-2.1000;0.4697;0.8215;
-1.8000;0.4648;0.8121;
-1.5000;0.4689;0.8239;
-1.2000;0.4697;0.8239;
-0.9000;0.4705;0.8286;
-0.6000;0.4672;0.8286;
-0.3000;0.4689;0.8309;
0.0000;0.4689;0.8309;
0.3000;0.4754;0.8192;
0.6000;0.4925;0.8356;
0.9000;0.4965;0.8403;
1.2000;0.5104;0.8732;
1.5000;0.5193;0.8919;
1.8000;0.5226;0.8919;
2.1000;0.5258;0.9013;
2.4000;0.5299;0.9177;
2.7000;0.5332;0.9295;
3.0000;0.5356;0.9412;
3.3000;0.5372;0.9412;
3.6000;0.5389;0.9459;
3.9000;0.5397;0.9553;
4.2000;0.5307;0.9271;
4.5000;0.5429;0.9530;
4.8000;0.5413;0.9530;
5.1000;0.5454;0.9623;
5.4000;0.5454;0.9576;
5.7000;0.5462;0.9647;
6.0000;0.5462;0.9647;
6.3000;0.5478;0.9788;
6.6000;0.5486;0.9764;
6.9000;0.5446;0.9717;
7.2000;0.5478;0.9905;
7.5000;0.5519;0.9952;
7.8000;0.5543;0.9952;
8.1000;0.5543;0.9999;
8.4000;0.5503;0.9929;
8.7000;0.5527;0.9929;
9.0000;0.5503;0.9905;
9.3000;0.5535;0.9882;
9.6000;0.5543;0.9858;
9.9000;0.5551;0.9835;
10.2000;0.5584;0.9882;
10.5000;0.5568;0.9858;
10.8000;0.5576;0.9835;
11.1000;0.5592;0.9788;
11.4000;0.5608;0.9811;
11.7000;0.5600;0.9788;
12.0000;0.5576;0.9717;
12.3000;0.5608;0.9835;
12.6000;0.5608;0.9835;
12.9000;0.5592;0.9811;
13.2000;0.5617;0.9858;
13.5000;0.5641;0.9905;
13.8000;0.5641;0.9882;
14.1000;0.5625;0.9811;
14.4000;0.5633;0.9788;
14.7000;0.5608;0.9811;
15.0000;0.5633;0.9788;
15.3000;0.5665;0.9835;
15.6000;0.5674;0.9976;
15.9000;0.5641;0.9976;
16.2000;0.5633;0.9882;
16.5000;0.5649;0.9976;
16.8000;0.5665;1.0046;
17.1000;0.5682;1.0069;
17.4000;0.5747;1.0257;
17.7000;0.5682;1.0022;
18.0000;0.5690;1.0046;
18.3000;0.5706;1.0093;
18.6000;0.5731;1.0116;
18.9000;0.5706;1.0069;
19.2000;0.5714;1.0140;
19.5000;0.5714;1.0163;
19.8000;0.5698;1.0046;
20.1000;0.5714;0.9999;
20.4000;0.5731;1.0046;
20.7000;0.5731;1.0093;
21.0000;0.5739;1.0093;
21.3000;0.5722;1.0022;
21.6000;0.5763;1.0116;
21.9000;0.5763;1.0022;
22.2000;0.5755;0.9976;
22.5000;0.5739;0.9858;
22.8000;0.5755;0.9882;
23.1000;0.5755;0.9858;
23.4000;0.5763;0.9929;
23.7000;0.5804;1.0069;
24.0000;0.5763;1.0069;
24.3000;0.5796;1.0257;
24.6000;0.5779;1.0116;
24.9000;0.5869;1.0328;
25.2000;0.5779;1.0140;
25.5000;0.5755;1.0116;
25.8000;0.5779;1.0093;
26.1000;0.5771;1.0093;
26.4000;0.5763;1.0046;
26.7000;0.5788;1.0022;
27.0000;0.5796;1.0069;
27.3000;0.5788;1.0022;
27.6000;0.5788;1.0093;
27.9000;0.5788;1.0093;
28.2000;0.5771;1.0046;
28.5000;0.5763;1.0046;
28.8000;0.5779;1.0022;
29.1000;0.5788;1.0093;
29.4000;0.5714;0.9882;
29.7000;0.5845;1.0116;
30.0000;0.5820;1.0022;
30.3000;0.5804;1.0022;
30.6000;0.5910;1.0210;
30.9000;0.5812;1.0022;
31.2000;0.5820;0.9952;
31.5000;0.5828;0.9976;
31.8000;0.5739;0.9788;
32.1000;0.5820;0.9952;
32.4000;0.5926;1.0163;
32.7000;0.5812;0.9905;
33.0000;0.5828;1.0022;
33.3000;0.5828;0.9952;
33.6000;0.5885;1.0140;
33.9000;0.5820;1.0046;
34.2000;0.5812;1.0069;
34.5000;0.5828;1.0022;
34.8000;0.5845;1.0046;
35.1000;0.5828;1.0046;
35.4000;0.5812;0.9999;
35.7000;0.5853;1.0093;
36.0000;0.5845;1.0069;
36.3000;0.5861;0.9976;
36.6000;0.5828;0.9952;
36.9000;0.5877;1.0069;
37.2000;0.5853;0.9952;
37.5000;0.5861;1.0022;
37.8000;0.5853;1.0046;
38.1000;0.5845;0.9999;
38.4000;0.5853;1.0022;
38.7000;0.5845;0.9952;
39.0000;0.5845;0.9999;
39.3000;0.5861;0.9976;
39.6000;0.5836;0.9835;
39.9000;0.5853;0.9929;
40.2000;0.5885;0.9882;
40.5000;0.5845;0.9905;
40.8000;0.5869;0.9929;
41.1000;0.5877;0.9788;
41.4000;0.5877;0.9764;
41.7000;0.5869;0.9694;
42.0000;0.5869;0.9788;
42.3000;0.5885;0.9882;
42.6000;0.5885;0.9929;
42.9000;0.5910;1.0046;
43.2000;0.5885;0.9999;
43.5000;0.5885;0.9929;
43.8000;0.5861;0.9882;
44.1000;0.5877;0.9788;
44.4000;0.5877;0.9858;
44.7000;0.5869;0.9905;
45.0000;0.5902;0.9858;
45.3000;0.5877;0.9835;
45.6000;0.5975;1.0046;
45.9000;0.5869;0.9788;
46.2000;0.5918;0.9858;
46.5000;0.5902;0.9835;
46.8000;0.5885;0.9788;
47.1000;0.5910;0.9882;
47.4000;0.5918;0.9858;
47.7000;0.5902;0.9788;
48.0000;0.5893;0.9717;
48.3000;0.5918;0.9764;
48.6000;0.5999;0.9882;
48.9000;0.5918;0.9647;
49.2000;0.5910;0.9694;
49.5000;0.5910;0.9764;
49.8000;0.5902;0.9835;
50.1000;0.5893;0.9811;
50.4000;0.5910;0.9764;
50.7000;0.5853;0.9764;
51.0000;0.5902;0.9858;
51.3000;0.5942;0.9952;
51.6000;0.5877;0.9858;
51.9000;0.5893;0.9858;
52.2000;0.6015;1.0093;
52.5000;0.5918;0.9858;
52.8000;0.5942;0.9858;
53.1000;0.5918;0.9811;
53.4000;0.5853;0.9670;
53.7000;0.5934;0.9929;
54.0000;0.5926;0.9882;
54.3000;0.5910;0.9811;
54.6000;0.5942;0.9811;
54.9000;0.5910;0.9764;
55.2000;0.5910;0.9835;
55.5000;0.5910;0.9858;
55.8000;0.5910;0.9929;
56.1000;0.5926;0.9976;
56.4000;0.5926;1.0022;
56.7000;0.5975;1.0163;
57.0000;0.5918;1.0116;
57.3000;0.5918;1.0140;
57.6000;0.5926;1.0116;
57.9000;0.5918;1.0116;
58.2000;0.5910;1.0140;
58.5000;0.5918;1.0140;
58.8000;0.5926;1.0093;
59.1000;0.5926;1.0116;
59.4000;0.5918;1.0046;
59.7000;0.5926;1.0116;
60.0000;0.5934;1.0093;
60.3000;0.5893;1.0093;
60.6000;0.5910;1.0093;
60.9000;0.5918;1.0046;
61.2000;0.5926;1.0046;
61.5000;0.5934;1.0116;
61.8000;0.5983;1.0210;
62.1000;0.5942;1.0116;
62.4000;0.6024;1.0187;
62.7000;0.5918;0.9999;
63.0000;0.5926;1.0022;
63.3000;0.5934;0.9976;
63.6000;0.5853;0.9694;
63.9000;0.5918;0.9929;
64.2000;0.5918;0.9905;
64.5000;0.5926;0.9952;
64.8000;0.5942;0.9952;
65.1000;0.5942;0.9952;
65.4000;0.5934;0.9999;
65.7000;0.5926;0.9952;
66.0000;0.5934;0.9905;
66.3000;0.5950;0.9905;
66.6000;0.5918;0.9835;
66.9000;0.5967;0.9858;
67.2000;0.5958;0.9858;
67.5000;0.5926;0.9788;
67.8000;0.5975;0.9788;
68.1000;0.5950;0.9811;
68.4000;0.5958;0.9952;
68.7000;0.5991;1.0093;
69.0000;0.5942;0.9976;
69.3000;0.5958;0.9952;
69.6000;0.5942;0.9905;
69.9000;0.5934;0.9858;
70.2000;0.5942;0.9858;
70.5000;0.5950;0.9929;
70.8000;0.5934;0.9905;
71.1000;0.5942;0.9929;
71.4000;0.5942;0.9952;
71.7000;0.5950;1.0116;
72.0000;0.5893;0.9976;
72.3000;0.5958;1.0093;
72.6000;0.5918;1.0093;
72.9000;0.5934;1.0140;
73.2000;0.5910;1.0022;
73.5000;0.5950;1.0140;
73.8000;0.5950;1.0116;
74.1000;0.5934;1.0022;
74.4000;0.5950;0.9905;
74.7000;0.5926;0.9882;
75.0000;0.5942;0.9952;
75.3000;0.5910;0.9882;
75.6000;0.5926;0.9882;
75.9000;0.5926;0.9929;
76.2000;0.5934;0.9976;
76.5000;0.5958;0.9929;
76.8000;0.5942;0.9999;
77.1000;0.5934;0.9952;
77.4000;0.5950;0.9976;
77.7000;0.5958;0.9858;
78.0000;0.5958;0.9858;
78.3000;0.5934;0.9905;
78.6000;0.5950;0.9952;
78.9000;0.5958;1.0069;
79.2000;0.5950;1.0022;
79.5000;0.5967;1.0022;
79.8000;0.5950;0.9976;
80.1000;0.5958;0.9929;
80.4000;0.5958;0.9905;
80.7000;0.5950;0.9952;
81.0000;0.5950;0.9929;
81.3000;0.5934;0.9905;
81.6000;0.5958;0.9905;
81.9000;0.5958;0.9952;
82.2000;0.5950;0.9976;
82.5000;0.5958;0.9905;
82.8000;0.5958;0.9999;
83.1000;0.5942;0.9929;
83.4000;0.5967;0.9929;
83.7000;0.5950;0.9952;
84.0000;0.5950;0.9976;
84.3000;0.5950;0.9952;
84.6000;0.5950;0.9929;
84.9000;0.5950;0.9976;
85.2000;0.5942;0.9976;
85.5000;0.5918;0.9835;
85.8000;0.5950;0.9882;
86.1000;0.5958;0.9929;
86.4000;0.5926;0.9835;
86.7000;0.5950;0.9835;
87.0000;0.5950;0.9929;
87.3000;0.5967;1.0046;
87.6000;0.5950;1.0046;
87.9000;0.5967;1.0022;
88.2000;0.5967;0.9952;
88.5000;0.5934;0.9741;
88.8000;0.5967;0.9882;
89.1000;0.5958;0.9905;
89.4000;0.5942;0.9905;
89.7000;0.5893;0.9764;
90.0000;0.5950;0.9835;
90.3000;0.5967;0.9811;
90.6000;0.5950;0.9741;
90.9000;0.5950;0.9741;
91.2000;0.5967;0.9858;
91.5000;0.5958;0.9858;
91.8000;0.5958;0.9811;
92.1000;0.5950;0.9882;
92.4000;0.5967;0.9952;
92.7000;0.5950;0.9952;
93.0000;0.5975;1.0022;
93.3000;0.5958;0.9999;
93.6000;0.5958;0.9976;
93.9000;0.5958;0.9976;
94.2000;0.5958;0.9929;
94.5000;0.5958;0.9929;
94.8000;0.5950;0.9999;
95.1000;0.5950;1.0069;
95.4000;0.5926;1.0022;
95.7000;0.5950;1.0069;
96.0000;0.5926;1.0093;
96.3000;0.5934;1.0140;
96.6000;0.5942;1.0116;
96.9000;0.5958;1.0140;
97.2000;0.5958;1.0093;
97.5000;0.5942;1.0069;
97.8000;0.5958;1.0069;
98.1000;0.5958;1.0022;
98.4000;0.5926;0.9905;
98.7000;0.5967;0.9976;
99.0000;0.5975;0.9976;
99.3000;0.5958;0.9905;
99.6000;0.5950;0.9905;
99.9000;0.5967;0.9952;
100.2000;0.5934;0.9952;
100.5000;0.5950;0.9952;
100.8000;0.5918;0.9976;
101.1000;0.5967;1.0093;
101.4000;0.5975;1.0116;
101.7000;0.5910;0.9952;
102.0000;0.6056;1.0281;
102.3000;0.5958;1.0022;
102.6000;0.5967;1.0022;
102.9000;0.5958;0.9929;
103.2000;0.5950;0.9882;
103.5000;0.5926;0.9858;
103.8000;0.6072;1.0210;
104.1000;0.5934;1.0022;
104.4000;0.5967;0.9976;
104.7000;0.5950;0.9905;
105.0000;0.5926;0.9858;
105.3000;0.5950;0.9952;
105.6000;0.5950;0.9999;
105.9000;0.5950;0.9999;
106.2000;0.5934;0.9976;
106.5000;0.5999;1.0046;
106.8000;0.6015;1.0116;
107.1000;0.6015;1.0116;
107.4000;0.6007;1.0140;
107.7000;0.5950;1.0093;
108.0000;0.5991;1.0210;
108.3000;0.5967;1.0163;
108.6000;0.5958;1.0069;
108.9000;0.5958;1.0022;
109.2000;0.5983;0.9999;
109.5000;0.5967;1.0022;
109.8000;0.5958;0.9952;
110.1000;0.5958;0.9882;
110.4000;0.5918;0.9764;
110.7000;0.5958;0.9929;
111.0000;0.6032;1.0093;
111.3000;0.5967;0.9882;
111.6000;0.5958;0.9764;
111.9000;0.5950;0.9764;
112.2000;0.5975;0.9929;
112.5000;0.5958;0.9929;
112.8000;0.5975;0.9929;
113.1000;0.5983;0.9905;
113.4000;0.5975;0.9835;
113.7000;0.5967;0.9858;
114.0000;0.5958;0.9929;
114.3000;0.5983;0.9882;
114.6000;0.5975;0.9905;
114.9000;0.5958;0.9858;
115.2000;0.5942;0.9717;
115.5000;0.5991;0.9811;
115.8000;0.5975;0.9788;
116.1000;0.5950;0.9764;
116.4000;0.5942;0.9835;
116.7000;0.5950;0.9788;
117.0000;0.5958;0.9882;
117.3000;0.5975;0.9905;
117.6000;0.5967;0.9952;
117.9000;0.5861;0.9647;
118.2000;0.5975;0.9929;
118.5000;0.5958;0.9999;
118.8000;0.5934;0.9976;
119.1000;0.5967;1.0046;
119.4000;0.5958;1.0022;
119.7000;0.5950;0.9952;
120.0000;0.5958;0.9905;
120.3000;0.5975;0.9999;
120.6000;0.5975;0.9976;
120.9000;0.5958;0.9999;
121.2000;0.5918;0.9952;
121.5000;0.5950;0.9999;
121.8000;0.5958;0.9976;
122.1000;0.5975;0.9976;
122.4000;0.5967;0.9976;
122.7000;0.6089;1.0304;
123.0000;0.5958;0.9999;
123.3000;0.5975;0.9999;
123.6000;0.5975;0.9999;
123.9000;0.5958;0.9999;
124.2000;0.5975;1.0046;
124.5000;0.5967;1.0046;
124.8000;0.6007;1.0093;
125.1000;0.5950;0.9929;
125.4000;0.5926;0.9788;
125.7000;0.5910;0.9764;
126.0000;0.5958;0.9905;
126.3000;0.5934;0.9835;
126.6000;0.5885;0.9694;
126.9000;0.5958;0.9788;
127.2000;0.5958;0.9858;
127.5000;0.5967;0.9858;
127.8000;0.5958;0.9858;
128.1000;0.5991;0.9952;
128.4000;0.5967;1.0022;
128.7000;0.5958;0.9976;
129.0000;0.5950;0.9929;
129.3000;0.5950;0.9929;
129.6000;0.5958;0.9952;
129.9000;0.5958;1.0022;
130.2000;0.5967;1.0069;
130.5000;0.5958;1.0046;
130.8000;0.5967;1.0093;
131.1000;0.5958;1.0022;
131.4000;0.5958;0.9999;
131.7000;0.5942;0.9999;
132.0000;0.5958;1.0022;
132.3000;0.5958;0.9999;
132.6000;0.5958;1.0069;
132.9000;0.5934;0.9929;
133.2000;0.5958;0.9999;
133.5000;0.5975;1.0069;
133.8000;0.5950;1.0093;
134.1000;0.5958;1.0093;
134.4000;0.5942;1.0022;
134.7000;0.5958;0.9999;
135.0000;0.5958;0.9976;
135.3000;0.5958;0.9929;
135.6000;0.5934;0.9882;
135.9000;0.5958;0.9929;
136.2000;0.5950;0.9976;
136.5000;0.5950;0.9905;
136.8000;0.5967;0.9882;
137.1000;0.5950;0.9952;
137.4000;0.5950;0.9929;
137.7000;0.5950;0.9952;
138.0000;0.5950;0.9929;
138.3000;0.5950;0.9976;
138.6000;0.5950;0.9999;
138.9000;0.5967;1.0022;
139.2000;0.5950;0.9999;
139.5000;0.5958;0.9976;
139.8000;0.5958;0.9905;
140.1000;0.6024;0.9976;
140.4000;0.5967;0.9741;
140.7000;0.5967;0.9788;
141.0000;0.5975;0.9882;
141.3000;0.5991;0.9976;
141.6000;0.5958;0.9999;
141.9000;0.5910;0.9882;
142.2000;0.5942;0.9952;
142.5000;0.5934;0.9905;
142.8000;0.5975;0.9999;
143.1000;0.5975;1.0022;
143.4000;0.5991;1.0116;
143.7000;0.6015;1.0187;
144.0000;0.5942;0.9929;
144.3000;0.5975;0.9999;
144.6000;0.5950;0.9999;
144.9000;0.5950;1.0046;
145.2000;0.5950;0.9999;
145.5000;0.5967;1.0093;
145.8000;0.5861;0.9811;
146.1000;0.5975;0.9952;
146.4000;0.5967;0.9952;
146.7000;0.5958;0.9929;
147.0000;0.5975;0.9929;
147.3000;0.6007;1.0022;
147.6000;0.6007;1.0022;
147.9000;0.5967;0.9858;
148.2000;0.5950;0.9882;
148.5000;0.5950;0.9952;
148.8000;0.5942;0.9905;
149.1000;0.5958;0.9952;
149.4000;0.5942;0.9905;
149.7000;0.5967;0.9976;
150.0000;0.5958;0.9976;
150.3000;0.5942;0.9999;
150.6000;0.5950;0.9929;
150.9000;0.5950;1.0022;
151.2000;0.5958;0.9999;
151.5000;0.5975;0.9952;
151.8000;0.5950;0.9882;
152.1000;0.5958;0.9858;
152.4000;0.5958;0.9952;
152.7000;0.5967;0.9905;
153.0000;0.5934;0.9858;
153.3000;0.5967;0.9929;
153.6000;0.5950;0.9882;
153.9000;0.5950;0.9905;
154.2000;0.5942;0.9835;
154.5000;0.5967;0.9882;
154.8000;0.5942;0.9858;
155.1000;0.5950;0.9929;
155.4000;0.5942;0.9976;
155.7000;0.5958;0.9976;
156.0000;0.5958;1.0022;
156.3000;0.5958;1.0046;
156.6000;0.5918;1.0046;
156.9000;0.5958;1.0093;
157.2000;0.5958;1.0069;
157.5000;0.5983;1.0163;
157.8000;0.5942;1.0140;
158.1000;0.5958;1.0116;
158.4000;0.5967;1.0046;
158.7000;0.5958;1.0069;
159.0000;0.5958;1.0022;
159.3000;0.5958;1.0022;
159.6000;0.5958;1.0069;
159.9000;0.5958;1.0093;
160.2000;0.5958;1.0140;
160.5000;0.5967;1.0210;
160.8000;0.5967;1.0210;
161.1000;0.5958;1.0257;
161.4000;0.5958;1.0234;
161.7000;0.5958;1.0163;
162.0000;0.5910;0.9999;
162.3000;0.5942;1.0069;
162.6000;0.5975;1.0093;
162.9000;0.5958;1.0069;
163.2000;0.5967;1.0116;
163.5000;0.5983;1.0187;
163.8000;0.5991;1.0234;
164.1000;0.5958;1.0140;
164.4000;0.5958;1.0163;
164.7000;0.6024;1.0304;
165.0000;0.5958;1.0163;
165.3000;0.5958;1.0187;
165.6000;0.5950;1.0234;
165.9000;0.5950;1.0304;
166.2000;0.5942;1.0257;
166.5000;0.5983;1.0281;
166.8000;0.5975;1.0210;
167.1000;0.5950;1.0140;
167.4000;0.5975;1.0234;
167.7000;0.5967;1.0187;
168.0000;0.5967;1.0187;
168.3000;0.5950;1.0187;
168.6000;0.5958;1.0140;
168.9000;0.5983;1.0116;
169.2000;0.5950;1.0069;
169.5000;0.5983;1.0069;
169.8000;0.5967;1.0022;
170.1000;0.5967;0.9929;
170.4000;0.5967;0.9929;
170.7000;0.5999;0.9999;
171.0000;0.5958;0.9999;
171.3000;0.5934;0.9811;
171.6000;0.5975;0.9999;
171.9000;0.5967;0.9952;
172.2000;0.5975;0.9929;
172.5000;0.6007;1.0022;
172.8000;0.5991;1.0022;
173.1000;0.5967;1.0069;
173.4000;0.5958;0.9976;
173.7000;0.5958;0.9929;
174.0000;0.5958;0.9976;
174.3000;0.5918;0.9882;
174.6000;0.5950;0.9952;
174.9000;0.6024;1.0210;
175.2000;0.5958;0.9976;
175.5000;0.5983;1.0069;
175.8000;0.5950;1.0022;
176.1000;0.5958;0.9952;
176.4000;0.5958;0.9952;
176.7000;0.5958;0.9976;
177.0000;0.5958;0.9929;
177.3000;0.5975;0.9929;
177.6000;0.5983;0.9858;
177.9000;0.5918;0.9647;
178.2000;0.5958;0.9764;
178.5000;0.5950;0.9741;
178.8000;0.5950;0.9764;
179.1000;0.5958;0.9764;
179.4000;0.5942;0.9694;
179.7000;0.5950;0.9741;
180.0000;0.5958;0.9788;
180.3000;0.5967;0.9694;
180.6000;0.5934;0.9694;
180.9000;0.5967;0.9788;
181.2000;0.5958;0.9788;
181.5000;0.5942;0.9741;
181.8000;0.5967;0.9741;
182.1000;0.5967;0.9717;
182.4000;0.5958;0.9623;
182.7000;0.5967;0.9647;
183.0000;0.5967;0.9600;
183.3000;0.5975;0.9576;
183.6000;0.5967;0.9623;
183.9000;0.5950;0.9670;
184.2000;0.5975;0.9741;
184.5000;0.5958;0.9788;
184.8000;0.5967;0.9835;
185.1000;0.5950;0.9929;
185.4000;0.5975;0.9929;
185.7000;0.5958;0.9882;
186.0000;0.5975;0.9882;
186.3000;0.5942;0.9929;
186.6000;0.5958;0.9976;
186.9000;0.5983;0.9952;
187.2000;0.5958;0.9905;
187.5000;0.5958;0.9882;
187.8000;0.5958;0.9835;
188.1000;0.5958;0.9788;
188.4000;0.5950;0.9835;
188.7000;0.5926;0.9858;
189.0000;0.5942;0.9858;
189.3000;0.5942;0.9811;
189.6000;0.5950;0.9929;
189.9000;0.5950;0.9976;
190.2000;0.5926;0.9929;
190.5000;0.5967;1.0022;
190.8000;0.5950;1.0046;
191.1000;0.5950;1.0022;
191.4000;0.5950;1.0046;
191.7000;0.5975;1.0022;
192.0000;0.5958;0.9999;
192.3000;0.5942;0.9976;
192.6000;0.5958;1.0069;
192.9000;0.5950;1.0069;
193.2000;0.5967;1.0022;
193.5000;0.5942;0.9929;
193.8000;0.5934;0.9835;
194.1000;0.5975;0.9929;
194.4000;0.5950;0.9952;
194.7000;0.5958;0.9929;
195.0000;0.5950;0.9905;
195.3000;0.5934;0.9905;
195.6000;0.5950;0.9835;
195.9000;0.5967;0.9929;
196.2000;0.5950;0.9952;
196.5000;0.6007;1.0093;
196.8000;0.5975;0.9905;
197.1000;0.5983;0.9905;
197.4000;0.5967;0.9882;
197.7000;0.5975;0.9999;
198.0000;0.5958;0.9976;
198.3000;0.6015;1.0140;
198.6000;0.5958;0.9976;
198.9000;0.5958;0.9929;
199.2000;0.6024;1.0140;
199.5000;0.5958;1.0046;
199.8000;0.5958;0.9952;
200.1000;0.5893;0.9764;
200.4000;0.5967;0.9952;
200.7000;0.5975;0.9976;
201.0000;0.5967;0.9952;
201.3000;0.5991;1.0140;
201.6000;0.5991;1.0163;
201.9000;0.5967;1.0163;
202.2000;0.5975;1.0187;
202.5000;0.5958;1.0116;
202.8000;0.5958;1.0022;
203.1000;0.5958;1.0069;
203.4000;0.5958;1.0069;
203.7000;0.5950;1.0093;
204.0000;0.5950;1.0163;
204.3000;0.5967;1.0210;
204.6000;0.5967;1.0163;
204.9000;0.5934;1.0140;
205.2000;0.5950;1.0140;
205.5000;0.5975;1.0093;
205.8000;0.5967;1.0093;
206.1000;0.5967;1.0069;
206.4000;0.5958;1.0069;
206.7000;0.5934;0.9976;
207.0000;0.5967;0.9999;
207.3000;0.5983;1.0022;
207.6000;0.5950;0.9929;
207.9000;0.5967;1.0022;
208.2000;0.5967;0.9999;
208.5000;0.5975;1.0022;
208.8000;0.5975;1.0069;
209.1000;0.5958;1.0069;
209.4000;0.5975;1.0046;
209.7000;0.5958;0.9976;
210.0000;0.5958;0.9999;
210.3000;0.5950;0.9929;
210.6000;0.5967;0.9929;
210.9000;0.5950;0.9976;
211.2000;0.5950;0.9952;
211.5000;0.5950;0.9905;
211.8000;0.5958;0.9929;
212.1000;0.5967;0.9882;
212.4000;0.5967;0.9905;
212.7000;0.5983;0.9976;
213.0000;0.5975;0.9999;
213.3000;0.5967;1.0022;
213.6000;0.5975;0.9952;
213.9000;0.5950;0.9952;
214.2000;0.5885;0.9788;
214.5000;0.5967;0.9929;
214.8000;0.5975;0.9976;
215.1000;0.5958;0.9905;
215.4000;0.5958;0.9905;
215.7000;0.5967;0.9999;
216.0000;0.5983;1.0069;
216.3000;0.5950;1.0022;
216.6000;0.6007;1.0093;
216.9000;0.5958;0.9976;
217.2000;0.6007;0.9976;
217.5000;0.6072;1.0140;
217.8000;0.6072;1.0116;
218.1000;0.5983;0.9858;
218.4000;0.5958;0.9835;
218.7000;0.5958;0.9858;
219.0000;0.5958;0.9858;
219.3000;0.5893;0.9811;
219.6000;0.6032;1.0022;
219.9000;0.5958;0.9811;
220.2000;0.5983;0.9764;
220.5000;0.5975;0.9717;
220.8000;0.5991;0.9835;
221.1000;0.5942;0.9835;
221.4000;0.5967;0.9905;
221.7000;0.5967;0.9858;
222.0000;0.5967;0.9905;
222.3000;0.5958;0.9929;
222.6000;0.5975;0.9929;
222.9000;0.5967;0.9999;
223.2000;0.5926;0.9976;
223.5000;0.5967;1.0022;
223.8000;0.5950;1.0069;
224.1000;0.5967;1.0093;
224.4000;0.5983;1.0093;
224.7000;0.5975;1.0093;
225.0000;0.5958;1.0046;
225.3000;0.5967;1.0116;
225.6000;0.5999;1.0163;
225.9000;0.5975;1.0093;
226.2000;0.5975;1.0046;
226.5000;0.5999;1.0187;
226.8000;0.5958;1.0140;
227.1000;0.5958;1.0163;
227.4000;0.5967;1.0187;
227.7000;0.5967;1.0187;
228.0000;0.6056;1.0398;
228.3000;0.5967;1.0116;
228.6000;0.5967;1.0046;
228.9000;0.5975;1.0069;
229.2000;0.5918;0.9929;
229.5000;0.5958;1.0093;
229.8000;0.5958;1.0046;
230.1000;0.5967;1.0069;
230.4000;0.5967;1.0069;
230.7000;0.5958;0.9999;
231.0000;0.5999;1.0022;
231.3000;0.5958;0.9952;
231.6000;0.5958;0.9929;
231.9000;0.5967;0.9882;
232.2000;0.5967;0.9929;
232.5000;0.5942;0.9835;
232.8000;0.5983;1.0022;
233.1000;0.5975;1.0093;
233.4000;0.5958;1.0069;
233.7000;0.5967;1.0046;
234.0000;0.5967;1.0022;
234.3000;0.5942;0.9976;
234.6000;0.5942;0.9929;
234.9000;0.5975;1.0069;
235.2000;0.5999;1.0069;
235.5000;0.5991;0.9952;
235.8000;0.5983;0.9929;
236.1000;0.5983;0.9976;
236.4000;0.5942;0.9952;
236.7000;0.5983;1.0069;
237.0000;0.5975;1.0022;
237.3000;0.5958;0.9999;
237.6000;0.5967;0.9976;
237.9000;0.5967;0.9905;
238.2000;0.5958;0.9835;
238.5000;0.5885;0.9623;
238.8000;0.5926;0.9764;
239.1000;0.5967;0.9905;
239.4000;0.5918;0.9811;
239.7000;0.5950;0.9858;
240.0000;0.5950;0.9929;
240.3000;0.5950;0.9976;
240.6000;0.5958;0.9929;
240.9000;0.5991;0.9976;
241.2000;0.5950;0.9952;
241.5000;0.5991;0.9929;
241.8000;0.5975;0.9835;
242.1000;0.5958;0.9858;
242.4000;0.5950;0.9929;
242.7000;0.5958;0.9929;
243.0000;0.5999;0.9976;
243.3000;0.5942;0.9882;
243.6000;0.5967;0.9952;
243.9000;0.5942;0.9952;
244.2000;0.5958;0.9929;
244.5000;0.5942;0.9858;
244.8000;0.5926;0.9835;
245.1000;0.5967;0.9976;
245.4000;0.5958;0.9905;
245.7000;0.5934;0.9905;
246.0000;0.5958;1.0046;
246.3000;0.5983;1.0022;
246.6000;0.5975;1.0046;
246.9000;0.5967;0.9999;
247.2000;0.5958;0.9999;
247.5000;0.5958;1.0046;
247.8000;0.5958;1.0116;
248.1000;0.5958;0.9999;
248.4000;0.5958;0.9999;
248.7000;0.5967;0.9999;
249.0000;0.5967;0.9952;
249.3000;0.5942;0.9976;
249.6000;0.5958;0.9952;
249.9000;0.5958;0.9952;
250.2000;0.5958;0.9905;
250.5000;0.5967;0.9929;
250.8000;0.5950;0.9905;
251.1000;0.5958;0.9882;
251.4000;0.5958;0.9905;
251.7000;0.5983;0.9976;
252.0000;0.5983;1.0046;
252.3000;0.5967;1.0022;
252.6000;0.5958;0.9929;
252.9000;0.5991;0.9952;
253.2000;0.5942;0.9717;
253.5000;0.5950;0.9741;
253.8000;0.5967;0.9788;
254.1000;0.5942;0.9670;
254.4000;0.5975;0.9694;
254.7000;0.5950;0.9600;
255.0000;0.5967;0.9600;
255.3000;0.5975;0.9600;
255.6000;0.5942;0.9483;
255.9000;0.5983;0.9553;
256.2000;0.5991;0.9553;
256.5000;0.5967;0.9553;
256.8000;0.5975;0.9506;
257.1000;0.5991;0.9647;
257.4000;0.5967;0.9576;
257.7000;0.5950;0.9530;
258.0000;0.5942;0.9600;
258.3000;0.5991;0.9741;
258.6000;0.5950;0.9647;
258.9000;0.5950;0.9670;
259.2000;0.5902;0.9670;
259.5000;0.5950;0.9858;
259.8000;0.5958;0.9835;
260.1000;0.6056;1.0093;
260.4000;0.5958;0.9835;
260.7000;0.5967;0.9882;
261.0000;0.5958;0.9858;
261.3000;0.5991;0.9905;
261.6000;0.5958;0.9811;
261.9000;0.5958;0.9764;
262.2000;0.5958;0.9764;
262.5000;0.5967;0.9741;
262.8000;0.5975;0.9717;
263.1000;0.5983;0.9717;
263.4000;0.5975;0.9811;
263.7000;0.5975;0.9764;
264.0000;0.5967;0.9741;
264.3000;0.5975;0.9788;
264.6000;0.5975;0.9835;
264.9000;0.5958;0.9788;
265.2000;0.5967;0.9717;
265.5000;0.5958;0.9741;
265.8000;0.5958;0.9741;
266.1000;0.5958;0.9694;
266.4000;0.5967;0.9670;
266.7000;0.5958;0.9717;
267.0000;0.5967;0.9741;
267.3000;0.6048;0.9929;
267.6000;0.5983;0.9764;
267.9000;0.5926;0.9717;
268.2000;0.5958;0.9811;
268.5000;0.5934;0.9788;
268.8000;0.5958;0.9811;
269.1000;0.5967;0.9788;
269.4000;0.5983;0.9741;
269.7000;0.5967;0.9694;
270.0000;0.5950;0.9600;
270.3000;0.5967;0.9717;
270.6000;0.5967;0.9670;
270.9000;0.5967;0.9670;
271.2000;0.5967;0.9623;
271.5000;0.5983;0.9623;
271.8000;0.5958;0.9600;
272.1000;0.5958;0.9576;
272.4000;0.6064;0.9858;
272.7000;0.5958;0.9694;
273.0000;0.5958;0.9764;
273.3000;0.5942;0.9741;
273.6000;0.5950;0.9717;
273.9000;0.5950;0.9670;
274.2000;0.5967;0.9788;
274.5000;0.5975;0.9788;
274.8000;0.5967;0.9764;
275.1000;0.5975;0.9764;
275.4000;0.5967;0.9764;
275.7000;0.5983;0.9835;
276.0000;0.5975;0.9858;
276.3000;0.5975;0.9882;
276.6000;0.6024;1.0022;
276.9000;0.5967;0.9858;
277.2000;0.5958;0.9811;
277.5000;0.5950;0.9905;
277.8000;0.5958;0.9999;
278.1000;0.5975;1.0022;
278.4000;0.5967;0.9999;
278.7000;0.5967;1.0022;
279.0000;0.5967;1.0046;
279.3000;0.5967;1.0046;
279.6000;0.6007;1.0116;
279.9000;0.5967;0.9976;
280.2000;0.5950;1.0022;
280.5000;0.5975;1.0022;
280.8000;0.5975;1.0022;
281.1000;0.5958;0.9999;
281.4000;0.5958;0.9952;
281.7000;0.5958;1.0022;
282.0000;0.5975;1.0093;
282.3000;0.5975;1.0069;
282.6000;0.5942;0.9929;
282.9000;0.5967;1.0069;
283.2000;0.5958;1.0116;
283.5000;0.5958;1.0046;
283.8000;0.5934;0.9999;
284.1000;0.5958;1.0069;
284.4000;0.5958;1.0069;
284.7000;0.5967;1.0069;
285.0000;0.5958;0.9976;
285.3000;0.5958;0.9952;
285.6000;0.5983;0.9952;
285.9000;0.5950;0.9858;
286.2000;0.5975;0.9835;
286.5000;0.5975;0.9741;
286.8000;0.5967;0.9717;
287.1000;0.5975;0.9717;
287.4000;0.5958;0.9670;
287.7000;0.5967;0.9647;
288.0000;0.5950;0.9694;
288.3000;0.5967;0.9717;
288.6000;0.5958;0.9764;
288.9000;0.5942;0.9835;
289.2000;0.5967;0.9929;
289.5000;0.5958;0.9929;
289.8000;0.5934;0.9811;
290.1000;0.5950;0.9952;
290.4000;0.5910;0.9741;
290.7000;0.5967;0.9858;
291.0000;0.5975;0.9811;
291.3000;0.5950;0.9717;
291.6000;0.5975;0.9694;
291.9000;0.5958;0.9647;
292.2000;0.5975;0.9647;
292.5000;0.5967;0.9670;
292.8000;0.5950;0.9647;
293.1000;0.5967;0.9717;
293.4000;0.5958;0.9717;
293.7000;0.5958;0.9788;
294.0000;0.5958;0.9764;
294.3000;0.5958;0.9858;
294.6000;0.5958;0.9835;
294.9000;0.5991;0.9929;
295.2000;0.5950;0.9811;
295.5000;0.5967;0.9858;
295.8000;0.5958;0.9929;
296.1000;0.5958;0.9882;
296.4000;0.5975;0.9999;
296.7000;0.5983;1.0022;
297.0000;0.6032;1.0140;
297.3000;0.5975;0.9929;
297.6000;0.5967;0.9835;
297.9000;0.5958;0.9858;
298.2000;0.5967;0.9905;
298.5000;0.6056;1.0140;
298.8000;0.5967;0.9882;
299.1000;0.5967;0.9858;
299.4000;0.5991;0.9976;
299.7000;0.5958;0.9905;
300.0000;0.5999;0.9952;
300.3000;0.5967;0.9811;
300.6000;0.5975;0.9811;
300.9000;0.5983;0.9952;
301.2000;0.5958;0.9952;
301.5000;0.5910;0.9717;
301.8000;0.5934;0.9717;
302.1000;0.5967;0.9811;
302.4000;0.5958;0.9717;
302.7000;0.5942;0.9717;
303.0000;0.5950;0.9717;
303.3000;0.5950;0.9717;
303.6000;0.5958;0.9741;
303.9000;0.6015;0.9788;
304.2000;0.5942;0.9530;
304.5000;0.5958;0.9576;
304.8000;0.5983;0.9764;
305.1000;0.5958;0.9600;
305.4000;0.5975;0.9670;
305.7000;0.5958;0.9788;
306.0000;0.5983;1.0022;
306.3000;0.5983;0.9929;
306.6000;0.5967;0.9788;
306.9000;0.5958;0.9811;
307.2000;0.5983;0.9929;
307.5000;0.5950;0.9905;
307.8000;0.5991;0.9929;
308.1000;0.5967;0.9905;
308.4000;0.6048;1.0093;
308.7000;0.5958;0.9905;
309.0000;0.5942;0.9882;
309.3000;0.5958;0.9905;
309.6000;0.5967;0.9905;
309.9000;0.6015;0.9999;
310.2000;0.5958;0.9905;
310.5000;0.5958;0.9905;
310.8000;0.5967;0.9882;
311.1000;0.5975;0.9788;
311.4000;0.5983;0.9811;
311.7000;0.5975;0.9788;
312.0000;0.5991;0.9882;
312.3000;0.5983;0.9858;
312.6000;0.5967;0.9858;
312.9000;0.5967;0.9858;
313.2000;0.5958;0.9882;
313.5000;0.5975;0.9811;
313.8000;0.6007;0.9811;
314.1000;0.5967;0.9717;
314.4000;0.5926;0.9741;
314.7000;0.5975;0.9835;
315.0000;0.5983;0.9764;
315.3000;0.5967;0.9717;
315.6000;0.5983;0.9788;
315.9000;0.5958;0.9764;
316.2000;0.5983;0.9764;
316.5000;0.5958;0.9741;
316.8000;0.5950;0.9811;
317.1000;0.5967;0.9858;
317.4000;0.5991;0.9858;
317.7000;0.6040;1.0046;
318.0000;0.5942;0.9882;
318.3000;0.5958;0.9976;
318.6000;0.5958;0.9952;
318.9000;0.5942;0.9929;
319.2000;0.5958;0.9858;
319.5000;0.5975;0.9858;
319.8000;0.5967;0.9811;
320.1000;0.5999;0.9858;
320.4000;0.5942;0.9717;
320.7000;0.5983;0.9929;
321.0000;0.5983;0.9952;
321.3000;0.6007;0.9905;
321.6000;0.5967;0.9811;
321.9000;0.5999;0.9952;
322.2000;0.5975;0.9905;
322.5000;0.5967;0.9858;
322.8000;0.5975;0.9858;
323.1000;0.5983;0.9882;
323.4000;0.5942;0.9905;
323.7000;0.5967;0.9999;
324.0000;0.5942;0.9952;
324.3000;0.5967;0.9882;
324.6000;0.5950;0.9882;
324.9000;0.5934;0.9882;
325.2000;0.5967;0.9929;
325.5000;0.5934;0.9811;
325.8000;0.5975;0.9835;
326.1000;0.5958;0.9882;
326.4000;0.5958;0.9882;
326.7000;0.5958;0.9811;
327.0000;0.5942;0.9764;
327.3000;0.5958;0.9788;
327.6000;0.5967;0.9788;
327.9000;0.5975;0.9835;
328.2000;0.5958;0.9764;
328.5000;0.5942;0.9788;
328.8000;0.5958;0.9764;
329.1000;0.5950;0.9788;
329.4000;0.5950;0.9858;
329.7000;0.5950;0.9952;
330.0000;0.5975;0.9999;
330.3000;0.5999;1.0093;
330.6000;0.5975;1.0022;
330.9000;0.5983;1.0093;
331.2000;0.6024;1.0187;
331.5000;0.6007;1.0163;
331.8000;0.5967;1.0046;
332.1000;0.5975;1.0093;
332.4000;0.5934;1.0022;
332.7000;0.5967;0.9952;
333.0000;0.5942;0.9929;
333.3000;0.5926;0.9811;
333.6000;0.5942;0.9882;
333.9000;0.5958;0.9999;
334.2000;0.5950;1.0046;
334.5000;0.5967;1.0116;
334.8000;0.5975;1.0140;
335.1000;0.5975;1.0163;
335.4000;0.5958;1.0187;
335.7000;0.5967;1.0140;
336.0000;0.5958;1.0022;
336.3000;0.5967;1.0140;
336.6000;0.5975;1.0140;
336.9000;0.5958;1.0093;
337.2000;0.5958;1.0116;
337.5000;0.5975;0.9999;
337.8000;0.5983;1.0022;
338.1000;0.5958;1.0046;
338.4000;0.5910;0.9858;
338.7000;0.5958;0.9999;
339.0000;0.5975;0.9999;
339.3000;0.5967;0.9952;
339.6000;0.5967;0.9999;
339.9000;0.5975;1.0093;
340.2000;0.5991;1.0093;
340.5000;0.5975;1.0022;
340.8000;0.5967;1.0046;
341.1000;0.5975;1.0022;
341.4000;0.5991;1.0069;
341.7000;0.5958;1.0093;
342.0000;0.5958;1.0093;
342.3000;0.5958;1.0140;
342.6000;0.5975;1.0140;
342.9000;0.5958;1.0140;
343.2000;0.5999;1.0234;
343.5000;0.5967;1.0093;
343.8000;0.5975;1.0022;
344.1000;0.5975;1.0046;
344.4000;0.5991;1.0116;
344.7000;0.5958;0.9999;
345.0000;0.5926;0.9858;
345.3000;0.5975;0.9929;
345.6000;0.6015;1.0046;
345.9000;0.5950;0.9835;
346.2000;0.5999;0.9882;
346.5000;0.5958;0.9858;
346.8000;0.6024;0.9952;
347.1000;0.5975;0.9835;
347.4000;0.5967;0.9741;
347.7000;0.5975;0.9741;
348.0000;0.5958;0.9647;
348.3000;0.5934;0.9623;
348.6000;0.5950;0.9647;
348.9000;0.5967;0.9717;
349.2000;0.5958;0.9670;
349.5000;0.5975;0.9647;
349.8000;0.5975;0.9694;
350.1000;0.5983;0.9764;
350.4000;0.5991;0.9741;
350.7000;0.5983;0.9694;
351.0000;0.6064;0.9882;
351.3000;0.5958;0.9694;
351.6000;0.5991;0.9764;
351.9000;0.5967;0.9788;
352.2000;0.5910;0.9600;
352.5000;0.5950;0.9717;
352.8000;0.5950;0.9717;
353.1000;0.5999;0.9811;
353.4000;0.5950;0.9788;
353.7000;0.5950;0.9835;
354.0000;0.5934;0.9694;
354.3000;0.5983;0.9741;
354.6000;0.5975;0.9788;
354.9000;0.5983;0.9835;
355.2000;0.5975;0.9882;
355.5000;0.5958;0.9741;
355.8000;0.5975;0.9788;
356.1000;0.5967;0.9741;
356.4000;0.5902;0.9600;
356.7000;0.5967;0.9835;
357.0000;0.5958;0.9835;
357.3000;0.5893;0.9670;
357.6000;0.5975;0.9905;
357.9000;0.5967;0.9976;
358.2000;0.5950;0.9905;
358.5000;0.5942;0.9882;
358.8000;0.5942;0.9882;
359.1000;0.5958;0.9882;
359.4000;0.5942;0.9858;
359.7000;0.5967;1.0022;
360.0000;0.5958;1.0069;
360.3000;0.5967;1.0163;
360.6000;0.5967;1.0116;
360.9000;0.5967;1.0046;
361.2000;0.5967;1.0022;
361.5000;0.5950;0.9999;
361.8000;0.5975;1.0046;
362.1000;0.5975;0.9999;
362.4000;0.5934;0.9905;
362.7000;0.5950;0.9929;
363.0000;0.5958;0.9976;
363.3000;0.5967;1.0022;
363.6000;0.5958;1.0022;
363.9000;0.5967;0.9999;
364.2000;0.5991;1.0046;
364.5000;0.5983;1.0022;
364.8000;0.5950;0.9976;
365.1000;0.5958;1.0022;
365.4000;0.5950;1.0163;
365.7000;0.5975;1.0210;
366.0000;0.5975;1.0210;
366.3000;0.5975;1.0140;
366.6000;0.5983;1.0116;
366.9000;0.6007;1.0163;
367.2000;0.6007;1.0140;
367.5000;0.5958;0.9999;
367.8000;0.5942;0.9952;
368.1000;0.5918;0.9929;
368.4000;0.5958;1.0046;
368.7000;0.5975;1.0022;
369.0000;0.5958;1.0022;
369.3000;0.5967;0.9999;
369.6000;0.5975;1.0046;
369.9000;0.5958;1.0022;
370.2000;0.5958;1.0069;
370.5000;0.6007;1.0140;
370.8000;0.5975;1.0069;
371.1000;0.5958;1.0093;
371.4000;0.5958;1.0046;
371.7000;0.5975;1.0046;
372.0000;0.5991;1.0093;
372.3000;0.5975;1.0163;
372.6000;0.5958;1.0163;
372.9000;0.5975;1.0187;
373.2000;0.5958;1.0163;
373.5000;0.5991;1.0210;
373.8000;0.5918;0.9999;
374.1000;0.5967;1.0187;
374.4000;0.5975;1.0234;
374.7000;0.5999;1.0257;
375.0000;0.5967;1.0210;
375.3000;0.5967;1.0116;
375.6000;0.5975;1.0093;
375.9000;0.6064;1.0328;
376.2000;0.5975;0.9999;
376.5000;0.5983;1.0022;
376.8000;0.5958;0.9999;
377.1000;0.5991;1.0069;
377.4000;0.5958;1.0022;
377.7000;0.5958;0.9999;
378.0000;0.5983;1.0116;
378.3000;0.5967;1.0163;
378.6000;0.5983;1.0210;
378.9000;0.5967;1.0069;
379.2000;0.5975;0.9999;
379.5000;0.5991;1.0069;
379.8000;0.5967;1.0069;
380.1000;0.5958;1.0046;
380.4000;0.5975;1.0046;
380.7000;0.5967;1.0046;
381.0000;0.5975;1.0069;
381.3000;0.5934;0.9929;
381.6000;0.5975;0.9999;
381.9000;0.5967;0.9999;
382.2000;0.5967;0.9929;
382.5000;0.5958;0.9929;
382.8000;0.5967;0.9882;
383.1000;0.5958;0.9858;
383.4000;0.5967;0.9905;
383.7000;0.5975;0.9976;
384.0000;0.5958;0.9952;
384.3000;0.5950;0.9999;
384.6000;0.5967;1.0069;
384.9000;0.5958;1.0069;
385.2000;0.5950;1.0022;
385.5000;0.5967;1.0046;
385.8000;0.5967;0.9976;
386.1000;0.5967;0.9999;
386.4000;0.5950;0.9952;
386.7000;0.5910;0.9788;
387.0000;0.5950;0.9858;
387.3000;0.5958;0.9858;
387.6000;0.5942;0.9811;
387.9000;0.5958;0.9788;
388.2000;0.5950;0.9788;
388.5000;0.5902;0.9811;
388.8000;0.5950;0.9976;
389.1000;0.5934;0.9929;
389.4000;0.5975;1.0022;
389.7000;0.5975;1.0069;
390.0000;0.5983;1.0116;
390.3000;0.5967;1.0022;
390.6000;0.5975;1.0046;
390.9000;0.5967;0.9999;
391.2000;0.5918;0.9858;
391.5000;0.5869;0.9717;
391.8000;0.5975;0.9929;
392.1000;0.5967;0.9976;
392.4000;0.5983;0.9976;
392.7000;0.5942;0.9741;
393.0000;0.5967;0.9905;
393.3000;0.5975;0.9929;
393.6000;0.5983;0.9905;
393.9000;0.5967;0.9788;
394.2000;0.5950;0.9764;
394.5000;0.5967;0.9811;
394.8000;0.5958;0.9764;
395.1000;0.5967;0.9811;
395.4000;0.5958;0.9929;
395.7000;0.5967;0.9999;
396.0000;0.5967;0.9952;
396.3000;0.5975;0.9976;
396.6000;0.5958;0.9929;
396.9000;0.5958;0.9929;
397.2000;0.5967;0.9976;
397.5000;0.5958;0.9929;
397.8000;0.5950;0.9905;
398.1000;0.5975;0.9999;
398.4000;0.5967;1.0069;
398.7000;0.5975;1.0046;
399.0000;0.5967;0.9929;
399.3000;0.5967;0.9905;
399.6000;0.5975;0.9905;
399.9000;0.5958;0.9882;
400.2000;0.5983;0.9929;
400.5000;0.5958;0.9835;
400.8000;0.5958;0.9905;
401.1000;0.5983;0.9882;
401.4000;0.5967;0.9764;
401.7000;0.5958;0.9811;
402.0000;0.5958;0.9858;
402.3000;0.5958;0.9905;
402.6000;0.5975;0.9858;
402.9000;0.5853;0.9600;
403.2000;0.5967;0.9929;
403.5000;0.5991;0.9999;
403.8000;0.5975;0.9905;
404.1000;0.5975;0.9788;
404.4000;0.5999;0.9835;
404.7000;0.5975;0.9882;
405.0000;0.5950;0.9882;
405.3000;0.5967;0.9929;
405.6000;0.5958;0.9976;
405.9000;0.5950;0.9999;
406.2000;0.5983;1.0022;
406.5000;0.5983;1.0022;
406.8000;0.5950;0.9905;
407.1000;0.5958;0.9882;
407.4000;0.5983;0.9929;
407.7000;0.5975;0.9929;
408.0000;0.5958;0.9929;
408.3000;0.5967;0.9929;
408.6000;0.5975;0.9976;
408.9000;0.5967;0.9882;
409.2000;0.5983;0.9858;
409.5000;0.5967;0.9788;
409.8000;0.5975;0.9835;
410.1000;0.5975;0.9882;
410.4000;0.5975;0.9905;
410.7000;0.5975;0.9952;
411.0000;0.5975;0.9858;
411.3000;0.5975;0.9905;
411.6000;0.5950;0.9929;
411.9000;0.5983;1.0022;
412.2000;0.6015;1.0116;
412.5000;0.5991;0.9952;
412.8000;0.6007;0.9999;
413.1000;0.6007;0.9999;
413.4000;0.5934;0.9858;
413.7000;0.5942;0.9835;
414.0000;0.5991;0.9952;
414.3000;0.5975;0.9929;
414.6000;0.5967;0.9929;
414.9000;0.5926;0.9929;
415.2000;0.5983;1.0046;
415.5000;0.5975;0.9999;
415.8000;0.5950;0.9999;
416.1000;0.6007;1.0093;
416.4000;0.5967;0.9905;
416.7000;0.5967;0.9905;
417.0000;0.5991;0.9929;
417.3000;0.5958;0.9835;
417.6000;0.5958;0.9811;
417.9000;0.5975;0.9741;
418.2000;0.5958;0.9670;
418.5000;0.5934;0.9600;
418.8000;0.5926;0.9647;
419.1000;0.5958;0.9741;
419.4000;0.5975;0.9788;
419.7000;0.5950;0.9788;
420.0000;0.5967;0.9858;
420.3000;0.5958;0.9929;
420.6000;0.5967;0.9905;
420.9000;0.5950;0.9905;
421.2000;0.5958;0.9999;
421.5000;0.5975;0.9976;
421.8000;0.5958;0.9976;
422.1000;0.5967;0.9999;
422.4000;0.5983;1.0093;
422.7000;0.5967;1.0069;
423.0000;0.5967;1.0046;
423.3000;0.5967;1.0069;
423.6000;0.5958;1.0046;
423.9000;0.5967;0.9952;
424.2000;0.5967;0.9976;
424.5000;0.5958;0.9976;
424.8000;0.5958;0.9999;
425.1000;0.5991;1.0069;
425.4000;0.5975;1.0093;
425.7000;0.5958;0.9999;
426.0000;0.5967;1.0022;
426.3000;0.5983;0.9976;
426.6000;0.5950;0.9929;
426.9000;0.5950;0.9905;
427.2000;0.5958;0.9882;
427.5000;0.5967;0.9929;
427.8000;0.5983;0.9929;
428.1000;0.5983;0.9999;
428.4000;0.5967;0.9952;
428.7000;0.5975;1.0046;
429.0000;0.5975;0.9952;
429.3000;0.5958;0.9999;
429.6000;0.5975;0.9976;
429.9000;0.5983;0.9999;
430.2000;0.5967;0.9905;
430.5000;0.5926;0.9764;
430.8000;0.5983;0.9835;
431.1000;0.5967;0.9882;
431.4000;0.5967;0.9929;
431.7000;0.5975;0.9858;
432.0000;0.5958;0.9717;
432.3000;0.5967;0.9788;
432.6000;0.5975;0.9835;
432.9000;0.6024;1.0022;
433.2000;0.5958;0.9929;
433.5000;0.5958;0.9976;
433.8000;0.5967;1.0046;
434.1000;0.5975;1.0046;
434.4000;0.5983;1.0163;
434.7000;0.5999;1.0140;
435.0000;0.5967;1.0069;
435.3000;0.5983;1.0116;
435.6000;0.6032;1.0234;
435.9000;0.5958;1.0116;
436.2000;0.5958;1.0093;
436.5000;0.5950;1.0093;
436.8000;0.6007;1.0234;
437.1000;0.5958;0.9999;
437.4000;0.5950;0.9999;
437.7000;0.5902;0.9858;
438.0000;0.5926;0.9905;
438.3000;0.5926;0.9905;
438.6000;0.5958;1.0069;
438.9000;0.5958;1.0046;
439.2000;0.5967;1.0022;
439.5000;0.5950;1.0022;
439.8000;0.5975;1.0046;
440.1000;0.5950;0.9976;
440.4000;0.5950;1.0022;
440.7000;0.5975;1.0069;
441.0000;0.5967;1.0046;
441.3000;0.5975;1.0163;
441.6000;0.5967;1.0093;
441.9000;0.5958;0.9976;
442.2000;0.5967;0.9952;
442.5000;0.5958;0.9999;
442.8000;0.5975;1.0022;
443.1000;0.5975;0.9952;
443.4000;0.5967;0.9952;
443.7000;0.5950;0.9929;
444.0000;0.5983;0.9999;
444.3000;0.5934;0.9929;
444.6000;0.5934;0.9858;
444.9000;0.5958;0.9929;
445.2000;0.5983;0.9952;
445.5000;0.5983;0.9929;
445.8000;0.5975;0.9788;
446.1000;0.5958;0.9717;
446.4000;0.5967;0.9741;
446.7000;0.6007;0.9882;
447.0000;0.5983;0.9811;
447.3000;0.5983;0.9952;
447.6000;0.5934;0.9835;
447.9000;0.5967;0.9882;
448.2000;0.5967;0.9905;
448.5000;0.5967;0.9882;
448.8000;0.5983;0.9929;
449.1000;0.5975;0.9929;
449.4000;0.5967;0.9929;
449.7000;0.5967;0.9952;
450.0000;0.6015;0.9929;
450.3000;0.5975;0.9811;
450.6000;0.5967;0.9835;
450.9000;0.5975;0.9905;
451.2000;0.5942;0.9741;
451.5000;0.5983;0.9788;
451.8000;0.5967;0.9811;
452.1000;0.5958;0.9835;
452.4000;0.5999;0.9976;
452.7000;0.5958;0.9952;
453.0000;0.5967;0.9858;
453.3000;0.5934;0.9835;
453.6000;0.5958;0.9811;
453.9000;0.5958;0.9835;
454.2000;0.5975;0.9882;
454.5000;0.5910;0.9741;
454.8000;0.5983;0.9929;
455.1000;0.5975;0.9952;
455.4000;0.5983;0.9882;
455.7000;0.5967;0.9882;
456.0000;0.5950;0.9882;
456.3000;0.5958;0.9882;
456.6000;0.5967;0.9929;
456.9000;0.5967;0.9858;
457.2000;0.5958;0.9882;
457.5000;0.5967;0.9882;
457.8000;0.5975;0.9811;
458.1000;0.5967;0.9835;
458.4000;0.5958;0.9882;
458.7000;0.5958;0.9905;
459.0000;0.5967;0.9929;
459.3000;0.5958;0.9976;
459.6000;0.5983;1.0069;
459.9000;0.5950;0.9952;
460.2000;0.5975;0.9905;
460.5000;0.5967;0.9905;
460.8000;0.5983;0.9929;
461.1000;0.5893;0.9694;
461.4000;0.5958;0.9811;
461.7000;0.5983;0.9811;
462.0000;0.5967;0.9717;
462.3000;0.5967;0.9741;
462.6000;0.5958;0.9717;
462.9000;0.5958;0.9694;
463.2000;0.5967;0.9788;
463.5000;0.5975;0.9741;
463.8000;0.5975;0.9858;
464.1000;0.5967;0.9811;
464.4000;0.5958;0.9882;
464.7000;0.5991;0.9999;
465.0000;0.5999;1.0140;
465.3000;0.5967;1.0046;
465.6000;0.5983;1.0093;
465.9000;0.5983;1.0046;
466.2000;0.5975;0.9952;
466.5000;0.5967;0.9905;
466.8000;0.5975;0.9952;
467.1000;0.5910;0.9835;
467.4000;0.5950;0.9952;
467.7000;0.5991;1.0069;
468.0000;0.5934;0.9858;
468.3000;0.5950;0.9929;
468.6000;0.5950;0.9929;
468.9000;0.5958;0.9717;
469.2000;0.6048;0.9976;
469.5000;0.5983;0.9788;
469.8000;0.5967;0.9717;
470.1000;0.5958;0.9717;
470.4000;0.5967;0.9764;
470.7000;0.5869;0.9506;
471.0000;0.6032;0.9952;
471.3000;0.5967;0.9858;
471.6000;0.6024;0.9929;
471.9000;0.5975;0.9788;
472.2000;0.5926;0.9717;
472.5000;0.5983;0.9905;
472.8000;0.5991;0.9999;
473.1000;0.5967;0.9952;
473.4000;0.5918;0.9882;
473.7000;0.5983;1.0069;
474.0000;0.5950;1.0046;
474.3000;0.5975;1.0093;
474.6000;0.5950;0.9999;
474.9000;0.5975;0.9999;
475.2000;0.5958;0.9976;
475.5000;0.5967;1.0022;
475.8000;0.5958;0.9952;
476.1000;0.5967;0.9882;
476.4000;0.5950;0.9905;
476.7000;0.5967;0.9976;
477.0000;0.5975;0.9999;
477.3000;0.5950;1.0046;
477.6000;0.5958;0.9999;
477.9000;0.5958;0.9976;
478.2000;0.5958;0.9976;
478.5000;0.5967;0.9952;
478.8000;0.5967;0.9929;
479.1000;0.5958;0.9929;
479.4000;0.5975;0.9905;
479.7000;0.5991;0.9929;
480.0000;0.5975;0.9929;
480.3000;0.5991;0.9976;
480.6000;0.5967;0.9929;
480.9000;0.5983;0.9882;
481.2000;0.5967;0.9882;
481.5000;0.5958;0.9764;
481.8000;0.5942;0.9694;
482.1000;0.5967;0.9811;
482.4000;0.5975;0.9882;
482.7000;0.5967;0.9882;
483.0000;0.5958;0.9741;
483.3000;0.5902;0.9553;
483.6000;0.6064;1.0046;
483.9000;0.5958;0.9670;
484.2000;0.5983;0.9764;
484.5000;0.5950;0.9670;
484.8000;0.6015;0.9835;
485.1000;0.5975;0.9811;
485.4000;0.5958;0.9788;
485.7000;0.5975;0.9764;
486.0000;0.5991;0.9858;
486.3000;0.6024;0.9952;
486.6000;0.5885;0.9741;
486.9000;0.5975;0.9976;
487.2000;0.5958;0.9882;
487.5000;0.5967;0.9929;
487.8000;0.5967;0.9905;
488.1000;0.5967;0.9905;
488.4000;0.5983;0.9976;
488.7000;0.5958;0.9858;
489.0000;0.5983;0.9952;
489.3000;0.5967;0.9858;
489.6000;0.5983;0.9835;
489.9000;0.5958;0.9835;
490.2000;0.5975;0.9882;
490.5000;0.5958;0.9858;
490.8000;0.5958;0.9811;
491.1000;0.5942;0.9835;
491.4000;0.5967;0.9811;
491.7000;0.5950;0.9788;
492.0000;0.5975;0.9835;
492.3000;0.5983;0.9858;
492.6000;0.5942;0.9717;
492.9000;0.5975;0.9811;
493.2000;0.5967;0.9835;
493.5000;0.5991;0.9858;
493.8000;0.5967;0.9741;
494.1000;0.5950;0.9694;
494.4000;0.5942;0.9670;
494.7000;0.5967;0.9717;
495.0000;0.5975;0.9670;
495.3000;0.5991;0.9717;
495.6000;0.5950;0.9576;
495.9000;0.5958;0.9600;
496.2000;0.5950;0.9694;
496.5000;0.5967;0.9788;
496.8000;0.5958;0.9858;
497.1000;0.5950;0.9905;
497.4000;0.5950;0.9999;
497.7000;0.5950;0.9976;
498.0000;0.5950;0.9882;
498.3000;0.5958;0.9858;
498.6000;0.5967;0.9835;
498.9000;0.5958;0.9717;
499.2000;0.5958;0.9741;
499.5000;0.5950;0.9764;
499.8000;0.5967;0.9858;
500.1000;0.5983;0.9929;
500.4000;0.5967;0.9905;
500.7000;0.5958;0.9835;
501.0000;0.5967;0.9882;
501.3000;0.6015;0.9905;
501.6000;0.5958;0.9882;
501.9000;0.5958;0.9882;
502.2000;0.5958;0.9905;
502.5000;0.5902;0.9717;
502.8000;0.5967;0.9929;
503.1000;0.5958;0.9882;
503.4000;0.5967;0.9952;
503.7000;0.5958;0.9858;
504.0000;0.5967;0.9741;
504.3000;0.5958;0.9764;
504.6000;0.5967;0.9764;
504.9000;0.5975;0.9835;
505.2000;0.5942;0.9764;
505.5000;0.5926;0.9647;
505.8000;0.5967;0.9670;
506.1000;0.5975;0.9764;
506.4000;0.5975;0.9741;
506.7000;0.5950;0.9694;
507.0000;0.5950;0.9694;
507.3000;0.5950;0.9764;
507.6000;0.5910;0.9717;
507.9000;0.5958;0.9788;
508.2000;0.5975;0.9835;
508.5000;0.5967;0.9835;
508.8000;0.6015;1.0022;
509.1000;0.5975;0.9952;
509.4000;0.5975;1.0022;
509.7000;0.5958;0.9976;
510.0000;0.5967;0.9999;
510.3000;0.5967;0.9999;
510.6000;0.5942;0.9976;
510.9000;0.5926;0.9999;
511.2000;0.5991;1.0140;
511.5000;0.5967;1.0069;
511.8000;0.5967;1.0069;
512.1000;0.5967;1.0140;
512.4000;0.5950;1.0140;
512.7000;0.5967;1.0116;
513.0000;0.5983;1.0140;
513.3000;0.5975;1.0257;
513.6000;0.5967;1.0210;
513.9000;0.5918;1.0069;
514.2000;0.5942;1.0093;
514.5000;0.5967;1.0069;
514.8000;0.5975;0.9999;
515.1000;0.5975;0.9976;
515.4000;0.5958;0.9905;
515.7000;0.5975;0.9882;
516.0000;0.5967;0.9882;
516.3000;0.5967;0.9858;
516.6000;0.5958;0.9882;
516.9000;0.5958;0.9929;
517.2000;0.5991;1.0046;
517.5000;0.5967;0.9976;
517.8000;0.5958;0.9976;
518.1000;0.5975;0.9976;
518.4000;0.5950;0.9905;
518.7000;0.5950;0.9905;
519.0000;0.6024;1.0069;
519.3000;0.5983;0.9882;
519.6000;0.5967;0.9858;
519.9000;0.5958;0.9905;
520.2000;0.5950;0.9835;
520.5000;0.5967;0.9882;
520.8000;0.5958;0.9882;
521.1000;0.5967;0.9858;
521.4000;0.5942;0.9788;
521.7000;0.5999;1.0022;
522.0000;0.5967;0.9999;
522.3000;0.5967;1.0022;
522.6000;0.5967;0.9976;
522.9000;0.5967;0.9929;
523.2000;0.5958;0.9905;
523.5000;0.5958;0.9999;
523.8000;0.5950;0.9905;
524.1000;0.5975;0.9976;
524.4000;0.5975;0.9976;
524.7000;0.5983;0.9952;
525.0000;0.5983;0.9952;
525.3000;0.5983;0.9905;
525.6000;0.5983;0.9929;
525.9000;0.5983;0.9929;
526.2000;0.5942;0.9858;
526.5000;0.5942;1.0022;
526.8000;0.5918;1.0046;
527.1000;0.5934;1.0046;
527.4000;0.5942;1.0116;
527.7000;0.5958;1.0140;
528.0000;0.5958;1.0163;
528.3000;0.5967;1.0140;
528.6000;0.5967;1.0093;
528.9000;0.6032;1.0234;
529.2000;0.5967;1.0093;
529.5000;0.5958;1.0093;
529.8000;0.5991;1.0093;
530.1000;0.5967;1.0022;
530.4000;0.5967;0.9999;
530.7000;0.5950;0.9976;
531.0000;0.5983;1.0022;
531.3000;0.5910;0.9858;
531.6000;0.5991;1.0116;
531.9000;0.5991;1.0163;
532.2000;0.5869;0.9835;
532.5000;0.5983;1.0069;
532.8000;0.5967;1.0069;
533.1000;0.5991;1.0093;
533.4000;0.5958;1.0069;
533.7000;0.5983;1.0093;
534.0000;0.5958;1.0093;
534.3000;0.5934;0.9905;
534.6000;0.5975;0.9999;
534.9000;0.5975;1.0116;
535.2000;0.5983;1.0069;
535.5000;0.5983;1.0046;
535.8000;0.5975;1.0069;
536.1000;0.5975;1.0046;
536.4000;0.5975;1.0046;
536.7000;0.5975;1.0046;
537.0000;0.5967;1.0069;
537.3000;0.5975;1.0093;
537.6000;0.5983;1.0187;
537.9000;0.5958;1.0093;
538.2000;0.5958;1.0022;
538.5000;0.5942;1.0046;
538.8000;0.5958;1.0046;
539.1000;0.5958;1.0093;
539.4000;0.5975;1.0116;
539.7000;0.5967;1.0093;
540.0000;0.5967;1.0116;
540.3000;0.5958;1.0140;
540.6000;0.6024;1.0304;
540.9000;0.5975;1.0093;
541.2000;0.5950;0.9999;
541.5000;0.5934;0.9999;
541.8000;0.6072;1.0328;
542.1000;0.5958;0.9976;
542.4000;0.5958;0.9882;
542.7000;0.5877;0.9670;
543.0000;0.5950;0.9835;
543.3000;0.5942;0.9764;
543.6000;0.5983;0.9952;
543.9000;0.5942;0.9976;
544.2000;0.5967;0.9976;
544.5000;0.5967;0.9952;
544.8000;0.5967;0.9929;
545.1000;0.5967;0.9999;
545.4000;0.5950;0.9929;
545.7000;0.5975;1.0022;
546.0000;0.5975;1.0022;
546.3000;0.5958;0.9976;
546.6000;0.5958;0.9976;
546.9000;0.5991;1.0069;
547.2000;0.5958;1.0116;
547.5000;0.5910;1.0046;
547.8000;0.5967;1.0187;
548.1000;0.5958;1.0140;
548.4000;0.5958;1.0069;
548.7000;0.5958;0.9999;
549.0000;0.5950;0.9999;
549.3000;0.5950;1.0022;
549.6000;0.5975;0.9999;
549.9000;0.5975;1.0022;
550.2000;0.5975;1.0069;
550.5000;0.5885;0.9882;
550.8000;0.5967;1.0116;
551.1000;0.5975;1.0140;
551.4000;0.5967;1.0210;
551.7000;0.5975;1.0234;
552.0000;0.5975;1.0140;
552.3000;0.5983;1.0210;
552.6000;0.5958;1.0093;
552.9000;0.5958;1.0093;
553.2000;0.5958;1.0069;
553.5000;0.5958;1.0093;
553.8000;0.5958;1.0069;
554.1000;0.5958;1.0093;
554.4000;0.5950;1.0163;
554.7000;0.5983;1.0257;
555.0000;0.5983;1.0210;
555.3000;0.5918;1.0022;
555.6000;0.5983;1.0116;
555.9000;0.5975;1.0116;
556.2000;0.5983;1.0140;
556.5000;0.5967;1.0093;
556.8000;0.5975;1.0069;
557.1000;0.5991;1.0069;
557.4000;0.5983;1.0069;
557.7000;0.5983;0.9976;
558.0000;0.5983;0.9952;
558.3000;0.5958;0.9999;
558.6000;0.5983;0.9999;
558.9000;0.5983;1.0022;
559.2000;0.5967;0.9952;
559.5000;0.6007;1.0046;
559.8000;0.5991;1.0140;
560.1000;0.5958;1.0069;
560.4000;0.5991;1.0140;
560.7000;0.6040;1.0281;
561.0000;0.5991;1.0210;
561.3000;0.5975;1.0093;
561.6000;0.5991;1.0093;
561.9000;0.5967;1.0069;
562.2000;0.5975;1.0140;
562.5000;0.5958;1.0210;
562.8000;0.5934;1.0234;
563.1000;0.6007;1.0351;
563.4000;0.5983;1.0328;
563.7000;0.5893;1.0022;
564.0000;0.5999;1.0328;
564.3000;0.5950;1.0328;
564.6000;0.5975;1.0375;
564.9000;0.5975;1.0304;
565.2000;0.6056;1.0539;
565.5000;0.5967;1.0328;
565.8000;0.5967;1.0257;
566.1000;0.5983;1.0257;
566.4000;0.5958;1.0210;
566.7000;0.5926;1.0093;
567.0000;0.5942;0.9999;
567.3000;0.5967;1.0116;
567.6000;0.5950;1.0210;
567.9000;0.5967;1.0116;
568.2000;0.5967;1.0069;
568.5000;0.5983;1.0234;
568.8000;0.5967;1.0210;
569.1000;0.5975;1.0281;
569.4000;0.5975;1.0257;
569.7000;0.5967;1.0210;
570.0000;0.5975;1.0210;
570.3000;0.5983;1.0234;
570.6000;0.5975;1.0234;
570.9000;0.5983;1.0234;
571.2000;0.5967;1.0163;
571.5000;0.5999;1.0187;
571.8000;0.5967;1.0069;
572.1000;0.5967;1.0069;
572.4000;0.5950;1.0046;
572.7000;0.5950;0.9976;
573.0000;0.5950;0.9952;
573.3000;0.5991;0.9999;
573.6000;0.5958;0.9976;
573.9000;0.5958;0.9929;
574.2000;0.5950;0.9952;
574.5000;0.5967;0.9952;
574.8000;0.5983;0.9976;
575.1000;0.5967;0.9999;
575.4000;0.5983;0.9976;
575.7000;0.5967;0.9976;
576.0000;0.5934;0.9952;
576.3000;0.5975;1.0046;
576.6000;0.5967;1.0046;
576.9000;0.5958;1.0046;
577.2000;0.5958;1.0046;
577.5000;0.5910;0.9882;
577.8000;0.5967;0.9976;
578.1000;0.5958;0.9882;
578.4000;0.5967;0.9929;
578.7000;0.5958;0.9952;
579.0000;0.5967;0.9929;
579.3000;0.5991;0.9952;
579.6000;0.5958;0.9882;
579.9000;0.5950;0.9835;
580.2000;0.5975;0.9882;
580.5000;0.5967;0.9905;
580.8000;0.5950;0.9882;
581.1000;0.5983;0.9999;
581.4000;0.5958;1.0046;
581.7000;0.5975;1.0069;
582.0000;0.5950;0.9999;
582.3000;0.5967;1.0022;
582.6000;0.5967;0.9999;
582.9000;0.5950;0.9929;
583.2000;0.5958;0.9976;
583.5000;0.5926;0.9976;
583.8000;0.5950;0.9976;
584.1000;0.5975;1.0093;
584.4000;0.5958;1.0046;
584.7000;0.5999;1.0093;
585.0000;0.5991;1.0116;
585.3000;0.5950;1.0046;
585.6000;0.5926;0.9999;
585.9000;0.5958;1.0022;
586.2000;0.6040;1.0210;
586.5000;0.5967;0.9976;
586.8000;0.5958;0.9999;
587.1000;0.5983;1.0116;
587.4000;0.5967;1.0140;
587.7000;0.5942;1.0069;
588.0000;0.5958;1.0187;
588.3000;0.5983;1.0234;
588.6000;0.5950;1.0163;
588.9000;0.5861;0.9858;
589.2000;0.5958;1.0046;
589.5000;0.5958;1.0022;
589.8000;0.5958;0.9952;
590.1000;0.5967;0.9999;
590.4000;0.5967;0.9976;
590.7000;0.5975;0.9952;
591.0000;0.5983;0.9976;
591.3000;0.5958;0.9835;
591.6000;0.5958;0.9835;
591.9000;0.5958;0.9788;
592.2000;0.5958;0.9788;
592.5000;0.5983;0.9905;
592.8000;0.5967;0.9882;
593.1000;0.5958;0.9905;
593.4000;0.5950;0.9858;
593.7000;0.5950;0.9929;
594.0000;0.5958;0.9905;
594.3000;0.5975;0.9976;
594.6000;0.5967;0.9976;
594.9000;0.5950;0.9952;
595.2000;0.5967;0.9952;
595.5000;0.5983;1.0022;
595.8000;0.5958;0.9976;
596.1000;0.5958;0.9976;
596.4000;0.5958;0.9929;
596.7000;0.5942;0.9929;
597.0000;0.5967;0.9976;
597.3000;0.5950;0.9976;
597.6000;0.5967;0.9999;
597.9000;0.5983;1.0046;
598.2000;0.5958;0.9952;
598.5000;0.5950;1.0046;
598.8000;0.5983;1.0187;
599.1000;0.5950;1.0069;
599.4000;0.6007;1.0116;
599.7000;0.5950;0.9976;
600.0000;0.5934;1.0069;
600.3000;0.5967;0.9929;
600.6000;0.5958;0.9858;
600.9000;0.5950;0.9717;
601.2000;0.5942;0.9694;
601.5000;0.5893;0.9623;
601.8000;0.5885;0.9530;
602.1000;0.5861;0.9389;
602.4000;0.5812;0.9224;
602.7000;0.5796;0.9154;
603.0000;0.5779;0.9131;
603.3000;0.5739;0.9013;
603.6000;0.5788;0.9060;
603.9000;0.5714;0.8849;
604.2000;0.5698;0.8825;
604.5000;0.5665;0.8755;
604.8000;0.5641;0.8755;
605.1000;0.5608;0.8732;
605.4000;0.5592;0.8732;
605.7000;0.5568;0.8732;
606.0000;0.5551;0.8614;
606.3000;0.5535;0.8614;
606.6000;0.5519;0.8567;
606.9000;0.5495;0.8567;
607.2000;0.5486;0.8520;
607.5000;0.5470;0.8497;
607.8000;0.5495;0.8544;
608.1000;0.5438;0.8403;
608.4000;0.5413;0.8450;
608.7000;0.5421;0.8379;
609.0000;0.5397;0.8379;
609.3000;0.5413;0.8450;
609.6000;0.5389;0.8379;
609.9000;0.5372;0.8473;
610.2000;0.5324;0.8379;
610.5000;0.5364;0.8473;
610.8000;0.5332;0.8426;
611.1000;0.5332;0.8450;
611.4000;0.5324;0.8379;
611.7000;0.5307;0.8332;
612.0000;0.5299;0.8356;
612.3000;0.5283;0.8286;
612.6000;0.5267;0.8309;
612.9000;0.5283;0.8379;
613.2000;0.5267;0.8379;
613.5000;0.5258;0.8450;
613.8000;0.5250;0.8450;
614.1000;0.5242;0.8426;
614.4000;0.5234;0.8426;
614.7000;0.5226;0.8356;
615.0000;0.5193;0.8356;
615.3000;0.5201;0.8426;
615.6000;0.5185;0.8473;
615.9000;0.5193;0.8473;
616.2000;0.5169;0.8403;
616.5000;0.5177;0.8426;
616.8000;0.5169;0.8426;
617.1000;0.5153;0.8356;
617.4000;0.5128;0.8403;
617.7000;0.5153;0.8403;
618.0000;0.5136;0.8332;
618.3000;0.5104;0.8168;
618.6000;0.5112;0.8145;
618.9000;0.5112;0.8192;
619.2000;0.5079;0.8215;
619.5000;0.5079;0.8215;
619.8000;0.5088;0.8309;
620.1000;0.5055;0.8239;
620.4000;0.5079;0.8356;
620.7000;0.5063;0.8309;
621.0000;0.5063;0.8309;
621.3000;0.5039;0.8286;
621.6000;0.5055;0.8356;
621.9000;0.4990;0.8192;
622.2000;0.4990;0.8215;
622.5000;0.5031;0.8309;
622.8000;0.5063;0.8379;
623.1000;0.5039;0.8450;
623.4000;0.4982;0.8332;
623.7000;0.4990;0.8379;
624.0000;0.5031;0.8497;
624.3000;0.5006;0.8379;
624.6000;0.4982;0.8309;
624.9000;0.5088;0.8614;
625.2000;0.4974;0.8356;
625.5000;0.4917;0.8286;
625.8000;0.4925;0.8332;
626.1000;0.4957;0.8403;
626.4000;0.4933;0.8309;
626.7000;0.4933;0.8215;
627.0000;0.4884;0.8051;
627.3000;0.4925;0.8145;
627.6000;0.4908;0.8145;
627.9000;0.4917;0.8168;
628.2000;0.4917;0.8051;
628.5000;0.4892;0.8004;
628.8000;0.4900;0.8004;
629.1000;0.4900;0.8098;
629.4000;0.4900;0.8004;
629.7000;0.4876;0.8121;
630.0000;0.4876;0.8192;
630.3000;0.4803;0.8027;
630.6000;0.4860;0.8286;
630.9000;0.4860;0.8332;
631.2000;0.4843;0.8309;
631.5000;0.4835;0.8332;
631.8000;0.4778;0.8168;
632.1000;0.4827;0.8262;
632.4000;0.4819;0.8426;
632.7000;0.4819;0.8332;
633.0000;0.4811;0.8309;
633.3000;0.4803;0.8309;
633.6000;0.4786;0.8192;
633.9000;0.4778;0.8145;
634.2000;0.4721;0.7933;
634.5000;0.4786;0.8145;
634.8000;0.4762;0.8121;
635.1000;0.4770;0.8145;
635.4000;0.4754;0.8215;
635.7000;0.4778;0.8286;
636.0000;0.4754;0.8192;
636.3000;0.4746;0.8168;
636.6000;0.4754;0.8168;
636.9000;0.4713;0.8121;
637.2000;0.4754;0.8168;
637.5000;0.4721;0.8145;
637.8000;0.4729;0.8215;
638.1000;0.4737;0.8215;
638.4000;0.4721;0.8262;
638.7000;0.4705;0.8145;
639.0000;0.4705;0.8145;
639.3000;0.4705;0.8168;
639.6000;0.4713;0.8168;
639.9000;0.4689;0.8098;
640.2000;0.4681;0.8098;
640.5000;0.4713;0.8145;
640.8000;0.4656;0.8027;
641.1000;0.4681;0.8051;
641.4000;0.4664;0.8051;
641.7000;0.4656;0.8027;
642.0000;0.4664;0.8074;
642.3000;0.4648;0.8051;
642.6000;0.4721;0.8215;
642.9000;0.4558;0.7863;
643.2000;0.4656;0.8051;
643.5000;0.4664;0.7980;
643.8000;0.4656;0.7933;
644.1000;0.4632;0.7793;
644.4000;0.4640;0.7933;
644.7000;0.4624;0.7933;
645.0000;0.4648;0.8027;
645.3000;0.4591;0.7910;
645.6000;0.4624;0.7980;
645.9000;0.4624;0.7957;
646.2000;0.4615;0.7816;
646.5000;0.4615;0.7769;
646.8000;0.4607;0.7816;
647.1000;0.4591;0.7769;
647.4000;0.4575;0.7699;
647.7000;0.4615;0.7816;
648.0000;0.4575;0.7769;
648.3000;0.4640;0.7957;
648.6000;0.4583;0.7840;
648.9000;0.4591;0.7887;
649.2000;0.4591;0.8004;
649.5000;0.4599;0.8027;
649.8000;0.4591;0.8074;
650.1000;0.4599;0.8192;
650.4000;0.4583;0.8168;
650.7000;0.4575;0.8215;
651.0000;0.4575;0.8262;
651.3000;0.4550;0.8168;
651.6000;0.4567;0.8215;
651.9000;0.4567;0.8192;
652.2000;0.4542;0.8098;
652.5000;0.4558;0.8121;
652.8000;0.4444;0.7816;
653.1000;0.4558;0.8145;
653.4000;0.4558;0.8168;
653.7000;0.4534;0.8074;
654.0000;0.4607;0.8262;
654.3000;0.4518;0.8051;
654.6000;0.4534;0.8004;
654.9000;0.4518;0.7980;
655.2000;0.4534;0.8074;
655.5000;0.4526;0.8145;
655.8000;0.4558;0.8309;
656.1000;0.4510;0.8168;
656.4000;0.4501;0.8192;
656.7000;0.4501;0.8262;
657.0000;0.4510;0.8309;
657.3000;0.4501;0.8286;
657.6000;0.4501;0.8192;
657.9000;0.4518;0.8262;
658.2000;0.4493;0.8262;
658.5000;0.4510;0.8286;
658.8000;0.4485;0.8262;
659.1000;0.4485;0.8215;
659.4000;0.4526;0.8379;
659.7000;0.4493;0.8309;
660.0000;0.4501;0.8239;
660.3000;0.4501;0.8309;
660.6000;0.4461;0.8262;
660.9000;0.4477;0.8239;
661.2000;0.4510;0.8450;
661.5000;0.4453;0.8239;
661.8000;0.4461;0.8309;
662.1000;0.4444;0.8262;
662.4000;0.4453;0.8309;
662.7000;0.4436;0.8239;
663.0000;0.4453;0.8309;
663.3000;0.4485;0.8332;
663.6000;0.4444;0.8286;
663.9000;0.4444;0.8215;
664.2000;0.4444;0.8239;
664.5000;0.4444;0.8262;
664.8000;0.4428;0.8215;
665.1000;0.4444;0.8262;
665.4000;0.4461;0.8286;
665.7000;0.4444;0.8239;
666.0000;0.4444;0.8168;
666.3000;0.4396;0.8051;
666.6000;0.4420;0.8262;
666.9000;0.4420;0.8239;
667.2000;0.4428;0.8192;
667.5000;0.4412;0.8262;
667.8000;0.4420;0.8262;
668.1000;0.4428;0.8215;
668.4000;0.4404;0.8098;
668.7000;0.4396;0.8051;
669.0000;0.4420;0.8168;
669.3000;0.4404;0.8074;
669.6000;0.4469;0.8145;
669.9000;0.4404;0.8004;
670.2000;0.4396;0.8051;
670.5000;0.4396;0.8121;
670.8000;0.4387;0.8239;
671.1000;0.4396;0.8239;
671.4000;0.4371;0.8168;
671.7000;0.4387;0.8027;
672.0000;0.4371;0.7933;
672.3000;0.4396;0.7957;
672.6000;0.4387;0.7933;
672.9000;0.4387;0.7933;
673.2000;0.4453;0.8074;
673.5000;0.4387;0.7863;
673.8000;0.4453;0.7957;
674.1000;0.4379;0.7793;
674.4000;0.4396;0.7863;
674.7000;0.4371;0.7863;
675.0000;0.4379;0.7887;
675.3000;0.4371;0.7933;
675.6000;0.4371;0.8027;
675.9000;0.4339;0.8051;
676.2000;0.4371;0.8121;
676.5000;0.4371;0.8168;
676.8000;0.4363;0.8215;
677.1000;0.4347;0.8215;
677.4000;0.4363;0.8192;
677.7000;0.4339;0.8168;
678.0000;0.4339;0.8168;
678.3000;0.4339;0.8168;
678.6000;0.4347;0.8215;
678.9000;0.4355;0.8215;
679.2000;0.4339;0.8262;
679.5000;0.4298;0.8145;
679.8000;0.4330;0.8192;
680.1000;0.4339;0.8239;
680.4000;0.4330;0.8262;
680.7000;0.4330;0.8215;
681.0000;0.4314;0.8168;
681.3000;0.4298;0.8121;
681.6000;0.4298;0.8145;
681.9000;0.4306;0.8215;
682.2000;0.4298;0.8286;
682.5000;0.4306;0.8332;
682.8000;0.4322;0.8309;
683.1000;0.4322;0.8332;
683.4000;0.4306;0.8286;
683.7000;0.4314;0.8192;
684.0000;0.4282;0.8098;
684.3000;0.4314;0.8168;
684.6000;0.4355;0.8262;
684.9000;0.4290;0.8145;
685.2000;0.4298;0.8215;
685.5000;0.4339;0.8239;
685.8000;0.4298;0.8098;
686.1000;0.4290;0.8098;
686.4000;0.4306;0.8145;
686.7000;0.4298;0.8192;
687.0000;0.4290;0.8239;
687.3000;0.4282;0.8215;
687.6000;0.4290;0.8192;
687.9000;0.4282;0.8215;
688.2000;0.4265;0.8192;
688.5000;0.4192;0.8004;
688.8000;0.4282;0.8168;
689.1000;0.4290;0.8145;
689.4000;0.4282;0.8121;
689.7000;0.4330;0.8168;
690.0000;0.4274;0.8027;
690.3000;0.4298;0.8027;
690.6000;0.4265;0.7957;
690.9000;0.4265;0.7980;
691.2000;0.4265;0.7933;
691.5000;0.4265;0.8004;
691.8000;0.4257;0.8027;
692.1000;0.4257;0.8121;
692.4000;0.4257;0.8145;
692.7000;0.4249;0.8192;
693.0000;0.4265;0.8145;
693.3000;0.4282;0.8192;
693.6000;0.4257;0.8145;
693.9000;0.4160;0.8027;
694.2000;0.4241;0.8262;
694.5000;0.4249;0.8356;
694.8000;0.4249;0.8309;
695.1000;0.4249;0.8379;
695.4000;0.4282;0.8544;
695.7000;0.4249;0.8403;
696.0000;0.4274;0.8473;
696.3000;0.4314;0.8544;
696.6000;0.4249;0.8356;
696.9000;0.4225;0.8262;
697.2000;0.4127;0.8004;
697.5000;0.4233;0.8309;
697.8000;0.4241;0.8356;
698.1000;0.4233;0.8356;
698.4000;0.4249;0.8450;
698.7000;0.4249;0.8426;
699.0000;0.4249;0.8403;
699.3000;0.4249;0.8403;
699.6000;0.4217;0.8497;
699.9000;0.4265;0.8614;
700.2000;0.4233;0.8520;
700.5000;0.4241;0.8426;
700.8000;0.4241;0.8403;
701.1000;0.4233;0.8403;
701.4000;0.4249;0.8379;
701.7000;0.4241;0.8332;
702.0000;0.4225;0.8286;
702.3000;0.4208;0.8168;
702.6000;0.4274;0.8403;
702.9000;0.4217;0.8262;
703.2000;0.4225;0.8309;
703.5000;0.4208;0.8215;
703.8000;0.4208;0.8168;
704.1000;0.4176;0.8098;
704.4000;0.4217;0.8192;
704.7000;0.4208;0.8168;
705.0000;0.4208;0.8074;
705.3000;0.4200;0.8168;
705.6000;0.4200;0.8074;
705.9000;0.4225;0.8145;
706.2000;0.4200;0.8051;
706.5000;0.4208;0.8121;
706.8000;0.4217;0.8168;
707.1000;0.4265;0.8239;
707.4000;0.4192;0.8074;
707.7000;0.4225;0.8051;
708.0000;0.4257;0.8145;
708.3000;0.4225;0.7933;
708.6000;0.4217;0.7887;
708.9000;0.4192;0.7863;
709.2000;0.4192;0.7816;
709.5000;0.4208;0.7863;
709.8000;0.4192;0.7933;
710.1000;0.4176;0.7980;
710.4000;0.4192;0.8098;
710.7000;0.4200;0.8074;
711.0000;0.4192;0.8051;
711.3000;0.4192;0.8027;
711.6000;0.4192;0.8145;
711.9000;0.4192;0.8192;
712.2000;0.4184;0.8239;
712.5000;0.4176;0.8145;
712.8000;0.4160;0.8145;
713.1000;0.4184;0.8192;
713.4000;0.4160;0.8145;
713.7000;0.4192;0.8121;
714.0000;0.4168;0.8074;
714.3000;0.4176;0.8098;
714.6000;0.4200;0.8168;
714.9000;0.4184;0.8121;
715.2000;0.4168;0.8074;
715.5000;0.4151;0.8027;
715.8000;0.4176;0.8004;
716.1000;0.4200;0.8098;
716.4000;0.4143;0.7957;
716.7000;0.4176;0.8051;
717.0000;0.4176;0.8121;
717.3000;0.4184;0.8074;
717.6000;0.4111;0.7957;
717.9000;0.4184;0.8074;
718.2000;0.4176;0.8051;
718.5000;0.4176;0.8027;
718.8000;0.4168;0.7980;
719.1000;0.4168;0.8004;
719.4000;0.4151;0.7957;
719.7000;0.4168;0.8051;
720.0000;0.4168;0.8121;
720.3000;0.4176;0.8168;
720.6000;0.4176;0.8168;
720.9000;0.4176;0.8309;
721.2000;0.4168;0.8379;
721.5000;0.4143;0.8215;
721.8000;0.4151;0.8239;
722.1000;0.4143;0.8215;
722.4000;0.4143;0.8168;
722.7000;0.4127;0.8168;
723.0000;0.4168;0.8309;
723.3000;0.4176;0.8239;
723.6000;0.4176;0.8215;
723.9000;0.4151;0.8168;
724.2000;0.4168;0.8168;
724.5000;0.4160;0.8192;
724.8000;0.4200;0.8356;
725.1000;0.4151;0.8215;
725.4000;0.4168;0.8262;
725.7000;0.4160;0.8309;
726.0000;0.4168;0.8309;
726.3000;0.4135;0.8239;
726.6000;0.4151;0.8215;
726.9000;0.4143;0.8239;
727.2000;0.4151;0.8239;
727.5000;0.4135;0.8262;
727.8000;0.4160;0.8286;
728.1000;0.4143;0.8192;
728.4000;0.4151;0.8192;
728.7000;0.4143;0.8074;
729.0000;0.4127;0.7957;
729.3000;0.4192;0.8192;
729.6000;0.4135;0.8051;
729.9000;0.4160;0.8027;
730.2000;0.4127;0.7957;
730.5000;0.4143;0.7910;
730.8000;0.4127;0.7816;
731.1000;0.4151;0.7887;
731.4000;0.4160;0.7887;
731.7000;0.4151;0.7816;
732.0000;0.4143;0.7816;
732.3000;0.4143;0.7887;
732.6000;0.4143;0.7887;
732.9000;0.4135;0.7816;
733.2000;0.4143;0.7863;
733.5000;0.4135;0.7887;
733.8000;0.4135;0.7863;
734.1000;0.4127;0.7887;
734.4000;0.4143;0.7840;
734.7000;0.4119;0.7699;
735.0000;0.4143;0.7769;
735.3000;0.4119;0.7816;
735.6000;0.4151;0.8004;
735.9000;0.4127;0.8074;
736.2000;0.4135;0.8145;
736.5000;0.4135;0.8145;
736.8000;0.4119;0.8121;
737.1000;0.4143;0.8168;
737.4000;0.4127;0.8145;
737.7000;0.4119;0.8168;
738.0000;0.4119;0.8215;
738.3000;0.4168;0.8332;
738.6000;0.4111;0.8192;
738.9000;0.4111;0.8192;
739.2000;0.4111;0.8121;
739.5000;0.4103;0.8051;
739.8000;0.4127;0.8004;
740.1000;0.4208;0.8215;
740.4000;0.4119;0.7933;
740.7000;0.4127;0.8027;
741.0000;0.4127;0.8027;
741.3000;0.4127;0.8121;
741.6000;0.4135;0.8192;
741.9000;0.4119;0.8215;
742.2000;0.4103;0.8262;
742.5000;0.4103;0.8239;
742.8000;0.4127;0.8262;
743.1000;0.4135;0.8309;
743.4000;0.4119;0.8309;
743.7000;0.4127;0.8379;
744.0000;0.4135;0.8426;
744.3000;0.4094;0.8379;
744.6000;0.4103;0.8286;
744.9000;0.4143;0.8356;
745.2000;0.4103;0.8309;
745.5000;0.4103;0.8332;
745.8000;0.4078;0.8286;
746.1000;0.4046;0.8168;
746.4000;0.4103;0.8286;
746.7000;0.4103;0.8309;
747.0000;0.4103;0.8309;
747.3000;0.4111;0.8286;
747.6000;0.4103;0.8168;
747.9000;0.4119;0.8098;
748.2000;0.4094;0.8098;
748.5000;0.4111;0.8239;
748.8000;0.4168;0.8403;
749.1000;0.4086;0.8168;
749.4000;0.4094;0.8168;
749.7000;0.4103;0.8168;
750.0000;0.4103;0.8121;
750.3000;0.4168;0.8262;
750.6000;0.4086;0.8098;
750.9000;0.4037;0.8027;
751.2000;0.4103;0.8286;
751.5000;0.4119;0.8215;
751.8000;0.4070;0.8098;
752.1000;0.4094;0.8168;
752.4000;0.4103;0.8262;
752.7000;0.4094;0.8239;
753.0000;0.4103;0.8332;
753.3000;0.4094;0.8309;
753.6000;0.4094;0.8379;
753.9000;0.4111;0.8450;
754.2000;0.4086;0.8356;
754.5000;0.4094;0.8309;
754.8000;0.4135;0.8403;
755.1000;0.4103;0.8403;
755.4000;0.4062;0.8309;
755.7000;0.4160;0.8567;
756.0000;0.4094;0.8356;
756.3000;0.4127;0.8379;
756.6000;0.4054;0.8332;
756.9000;0.4086;0.8356;
757.2000;0.4086;0.8379;
757.5000;0.4062;0.8239;
757.8000;0.4094;0.8356;
758.1000;0.4078;0.8356;
758.4000;0.4078;0.8426;
758.7000;0.4070;0.8450;
759.0000;0.4078;0.8450;
759.3000;0.4086;0.8473;
759.6000;0.4078;0.8403;
759.9000;0.4094;0.8403;
760.2000;0.4094;0.8332;
760.5000;0.4070;0.8286;
760.8000;0.4070;0.8262;
761.1000;0.4078;0.8379;
761.4000;0.4086;0.8473;
761.7000;0.4046;0.8356;
762.0000;0.4078;0.8403;
762.3000;0.4078;0.8379;
762.6000;0.4094;0.8426;
762.9000;0.4062;0.8403;
763.2000;0.4078;0.8450;
763.5000;0.4070;0.8520;
763.8000;0.4094;0.8450;
764.1000;0.4086;0.8309;
764.4000;0.4070;0.8286;
764.7000;0.4119;0.8450;
765.0000;0.4078;0.8332;
765.3000;0.4070;0.8309;
765.6000;0.4054;0.8286;
765.9000;0.4070;0.8356;
766.2000;0.4103;0.8379;
766.5000;0.4086;0.8356;
766.8000;0.4070;0.8262;
767.1000;0.4143;0.8473;
767.4000;0.4078;0.8286;
767.7000;0.4078;0.8239;
768.0000;0.4046;0.8168;
768.3000;0.4086;0.8192;
768.6000;0.4086;0.8074;
768.9000;0.4070;0.8051;
769.2000;0.4070;0.8074;
769.5000;0.4070;0.8168;
769.8000;0.4078;0.8215;
770.1000;0.4119;0.8332;
770.4000;0.4094;0.8262;
770.7000;0.4143;0.8356;
771.0000;0.4078;0.8262;
771.3000;0.4086;0.8332;
771.6000;0.4070;0.8239;
771.9000;0.4070;0.8239;
772.2000;0.4078;0.8215;
772.5000;0.4062;0.8192;
772.8000;0.4062;0.8239;
773.1000;0.4062;0.8215;
773.4000;0.4062;0.8286;
773.7000;0.4070;0.8309;
774.0000;0.4054;0.8262;
774.3000;0.4111;0.8309;
774.6000;0.4070;0.8121;
774.9000;0.4119;0.8332;
775.2000;0.4029;0.8192;
775.5000;0.4054;0.8262;
775.8000;0.3972;0.8004;
776.1000;0.4054;0.8309;
776.4000;0.4062;0.8239;
776.7000;0.4078;0.8309;
777.0000;0.3964;0.8051;
777.3000;0.4054;0.8356;
777.6000;0.4046;0.8262;
777.9000;0.4046;0.8286;
778.2000;0.4062;0.8286;
778.5000;0.4062;0.8262;
778.8000;0.4070;0.8262;
779.1000;0.4070;0.8215;
779.4000;0.4054;0.8239;
779.7000;0.3989;0.8051;
780.0000;0.4046;0.8215;
780.3000;0.4046;0.8215;
780.6000;0.4013;0.8121;
780.9000;0.4021;0.8145;
781.2000;0.4070;0.8262;
781.5000;0.4086;0.8286;
781.8000;0.4054;0.8239;
782.1000;0.4054;0.8309;
782.4000;0.4062;0.8239;
782.7000;0.4054;0.8332;
783.0000;0.4062;0.8309;
783.3000;0.4046;0.8286;
783.6000;0.4070;0.8403;
783.9000;0.4070;0.8497;
784.2000;0.4054;0.8520;
784.5000;0.4054;0.8591;
784.8000;0.4062;0.8591;
785.1000;0.4070;0.8497;
785.4000;0.4037;0.8403;
785.7000;0.4029;0.8332;
786.0000;0.4054;0.8356;
786.3000;0.4070;0.8473;
786.6000;0.4086;0.8497;
786.9000;0.4054;0.8356;
787.2000;0.4062;0.8403;
787.5000;0.4005;0.8262;
787.8000;0.4062;0.8379;
788.1000;0.4054;0.8332;
788.4000;0.4086;0.8403;
788.7000;0.4046;0.8262;
789.0000;0.4054;0.8286;
789.3000;0.4054;0.8262;
789.6000;0.4127;0.8356;
789.9000;0.4037;0.8168;
790.2000;0.4046;0.8192;
790.5000;0.3989;0.8004;
790.8000;0.4029;0.8145;
791.1000;0.3972;0.7933;
791.4000;0.4029;0.8004;
791.7000;0.4037;0.8051;
792.0000;0.4037;0.8121;
792.3000;0.4062;0.8168;
792.6000;0.4046;0.8192;
792.9000;0.4046;0.8168;
793.2000;0.4062;0.8192;
793.5000;0.4037;0.8121;
793.8000;0.4054;0.8239;
794.1000;0.3956;0.8027;
794.4000;0.4062;0.8286;
794.7000;0.4005;0.8121;
795.0000;0.4054;0.8286;
795.3000;0.4037;0.8239;
795.6000;0.4046;0.8145;
795.9000;0.4086;0.8215;
796.2000;0.4037;0.8098;
796.5000;0.4029;0.8098;
796.8000;0.4054;0.8215;
797.1000;0.4037;0.8098;
797.4000;0.4046;0.8168;
797.7000;0.4037;0.8168;
798.0000;0.4054;0.8262;
798.3000;0.4054;0.8192;
798.6000;0.4021;0.8121;
798.9000;0.4037;0.8192;
799.2000;0.4037;0.8215;
799.5000;0.4029;0.8286;
799.8000;0.4029;0.8262;
800.1000;0.3972;0.8098;
800.4000;0.4037;0.8262;
800.7000;0.4062;0.8332;
801.0000;0.4021;0.8215;
801.3000;0.4029;0.8192;
801.6000;0.4046;0.8239;
801.9000;0.4021;0.8168;
802.2000;0.4013;0.8121;
802.5000;0.4021;0.8145;
802.8000;0.4037;0.8239;
803.1000;0.4029;0.8239;
803.4000;0.4029;0.8262;
803.7000;0.4021;0.8239;
804.0000;0.4037;0.8262;
804.3000;0.4029;0.8356;
804.6000;0.4070;0.8356;
804.9000;0.4037;0.8215;
805.2000;0.4021;0.8192;
805.5000;0.4013;0.8215;
805.8000;0.4029;0.8262;
806.1000;0.4037;0.8239;
806.4000;0.4021;0.8262;
806.7000;0.4094;0.8450;
807.0000;0.4029;0.8215;
807.3000;0.4037;0.8215;
807.6000;0.4029;0.8192;
807.9000;0.4021;0.8074;
808.2000;0.4029;0.8121;
808.5000;0.4029;0.8262;
808.8000;0.4013;0.8192;
809.1000;0.4046;0.8215;
809.4000;0.4037;0.8192;
809.7000;0.4005;0.8027;
810.0000;0.4029;0.8027;
810.3000;0.4013;0.8027;
810.6000;0.3980;0.8004;
810.9000;0.4037;0.8121;
811.2000;0.4029;0.8027;
811.5000;0.4037;0.8121;
811.8000;0.3997;0.8027;
812.1000;0.3989;0.7910;
812.4000;0.3997;0.7980;
812.7000;0.4070;0.8027;
813.0000;0.4029;0.7957;
813.3000;0.4037;0.7863;
813.6000;0.4046;0.7863;
813.9000;0.4029;0.7887;
814.2000;0.3948;0.7675;
814.5000;0.4029;0.7863;
814.8000;0.4021;0.7793;
815.1000;0.4013;0.7769;
815.4000;0.4013;0.7840;
815.7000;0.4029;0.7887;
816.0000;0.4037;0.7980;
816.3000;0.4021;0.8027;
816.6000;0.4013;0.7980;
816.9000;0.4013;0.7957;
817.2000;0.4029;0.7980;
817.5000;0.4013;0.8027;
817.8000;0.4021;0.8074;
818.1000;0.4029;0.8168;
818.4000;0.4021;0.8215;
818.7000;0.4021;0.8215;
819.0000;0.4021;0.8239;
819.3000;0.4013;0.8168;
819.6000;0.4005;0.8121;
819.9000;0.4037;0.8145;
820.2000;0.4005;0.8121;
820.5000;0.4005;0.8004;
820.8000;0.4021;0.8074;
821.1000;0.4021;0.8004;
821.4000;0.3989;0.8004;
821.7000;0.4005;0.8121;
822.0000;0.4037;0.8192;
822.3000;0.4013;0.8215;
822.6000;0.4005;0.8262;
822.9000;0.4013;0.8239;
823.2000;0.4013;0.8192;
823.5000;0.3948;0.8051;
823.8000;0.4013;0.8332;
824.1000;0.3980;0.8286;
824.4000;0.3956;0.8239;
824.7000;0.4021;0.8239;
825.0000;0.4013;0.8262;
825.3000;0.3980;0.8262;
825.6000;0.4005;0.8286;
825.9000;0.3997;0.8145;
826.2000;0.4021;0.8168;
826.5000;0.4013;0.8145;
826.8000;0.3940;0.7980;
827.1000;0.4029;0.8215;
827.4000;0.4037;0.8309;
827.7000;0.4013;0.8192;
828.0000;0.3907;0.7863;
828.3000;0.3907;0.7887;
828.6000;0.4013;0.8168;
828.9000;0.4013;0.8098;
829.2000;0.4005;0.8074;
829.5000;0.4094;0.8356;
829.8000;0.4029;0.8239;
830.1000;0.4021;0.8215;
830.4000;0.4021;0.8074;
830.7000;0.4005;0.8051;
831.0000;0.4029;0.8098;
831.3000;0.4013;0.8027;
831.6000;0.3989;0.7887;
831.9000;0.4013;0.7980;
832.2000;0.4013;0.8121;
832.5000;0.4013;0.8051;
832.8000;0.3997;0.8098;
833.1000;0.4029;0.8098;
833.4000;0.4013;0.8145;
833.7000;0.4013;0.8168;
834.0000;0.3997;0.8027;
834.3000;0.3980;0.7957;
834.6000;0.4005;0.8051;
834.9000;0.3989;0.8051;
835.2000;0.3980;0.7980;
835.5000;0.4005;0.8145;
835.8000;0.3997;0.8121;
836.1000;0.3989;0.8098;
836.4000;0.3989;0.8074;
836.7000;0.4005;0.8098;
837.0000;0.3997;0.8098;
837.3000;0.4013;0.8145;
837.6000;0.4005;0.8192;
837.9000;0.4021;0.8121;
838.2000;0.4021;0.8051;
838.5000;0.4029;0.8074;
838.8000;0.4021;0.8145;
839.1000;0.4005;0.8098;
839.4000;0.4005;0.8098;
839.7000;0.4037;0.8145;
840.0000;0.4013;0.8168;
840.3000;0.4013;0.8192;
840.6000;0.4013;0.8192;
840.9000;0.4013;0.8168;
841.2000;0.4021;0.8168;
841.5000;0.3989;0.8098;
841.8000;0.4005;0.8051;
842.1000;0.4013;0.8121;
842.4000;0.3997;0.8168;
842.7000;0.4029;0.8145;
843.0000;0.4013;0.8145;
843.3000;0.4013;0.8168;
843.6000;0.3997;0.8168;
843.9000;0.3997;0.8121;
844.2000;0.4005;0.8098;
844.5000;0.4013;0.8121;
844.8000;0.4013;0.8168;
845.1000;0.4013;0.8192;
845.4000;0.3989;0.8145;
845.7000;0.4029;0.8192;
846.0000;0.3989;0.8121;
846.3000;0.4062;0.8309;
846.6000;0.4013;0.8121;
846.9000;0.3989;0.8168;
847.2000;0.4005;0.8262;
847.5000;0.3997;0.8286;
847.8000;0.4029;0.8450;
848.1000;0.4005;0.8403;
848.4000;0.4005;0.8379;
848.7000;0.4013;0.8426;
849.0000;0.4021;0.8450;
849.3000;0.4078;0.8544;
849.6000;0.3997;0.8262;
849.9000;0.4021;0.8332;
850.2000;0.4005;0.8239;
850.5000;0.4005;0.8239;
850.8000;0.4005;0.8168;
851.1000;0.3997;0.8215;
851.4000;0.4005;0.8309;
851.7000;0.3989;0.8192;
852.0000;0.3997;0.8168;
852.3000;0.4005;0.8168;
852.6000;0.3997;0.8192;
852.9000;0.4021;0.8215;
853.2000;0.4005;0.8168;
853.5000;0.4013;0.8262;
853.8000;0.3997;0.8168;
854.1000;0.4013;0.8192;
854.4000;0.4005;0.8215;
854.7000;0.3997;0.8262;
855.0000;0.3989;0.8356;
855.3000;0.3989;0.8239;
855.6000;0.4054;0.8379;
855.9000;0.3997;0.8309;
856.2000;0.3989;0.8286;
856.5000;0.3997;0.8239;
856.8000;0.3989;0.8192;
857.1000;0.3980;0.8145;
857.4000;0.3997;0.8121;
857.7000;0.4005;0.8145;
858.0000;0.3997;0.8168;
858.3000;0.4005;0.8215;
858.6000;0.3923;0.8098;
858.9000;0.4005;0.8379;
859.2000;0.4013;0.8379;
859.5000;0.3997;0.8286;
859.8000;0.3997;0.8262;
860.1000;0.3997;0.8309;
860.4000;0.3989;0.8262;
860.7000;0.4037;0.8356;
861.0000;0.3980;0.8168;
861.3000;0.4005;0.8215;
861.6000;0.4013;0.8262;
861.9000;0.3980;0.8215;
862.2000;0.4005;0.8262;
862.5000;0.4005;0.8286;
862.8000;0.4005;0.8215;
863.1000;0.4005;0.8262;
863.4000;0.3997;0.8215;
863.7000;0.4021;0.8262;
864.0000;0.3997;0.8262;
864.3000;0.4005;0.8192;
864.6000;0.3997;0.8168;
864.9000;0.4013;0.8215;
865.2000;0.4013;0.8192;
865.5000;0.3997;0.8239;
865.8000;0.3997;0.8332;
866.1000;0.3980;0.8379;
866.4000;0.3989;0.8379;
866.7000;0.4005;0.8450;
867.0000;0.3989;0.8332;
867.3000;0.3964;0.8332;
867.6000;0.4005;0.8309;
867.9000;0.4005;0.8379;
868.2000;0.4046;0.8450;
868.5000;0.3997;0.8309;
868.8000;0.3997;0.8356;
869.1000;0.3997;0.8262;
869.4000;0.4103;0.8497;
869.7000;0.3972;0.8239;
870.0000;0.3972;0.8262;
870.3000;0.3997;0.8356;
870.6000;0.3980;0.8215;
870.9000;0.3997;0.8239;
871.2000;0.3997;0.8215;
871.5000;0.3997;0.8192;
871.8000;0.4013;0.8262;
872.1000;0.3997;0.8215;
872.4000;0.3964;0.8121;
872.7000;0.3997;0.8192;
873.0000;0.4005;0.8098;
873.3000;0.3997;0.8168;
873.6000;0.4021;0.8168;
873.9000;0.3989;0.8051;
874.2000;0.3989;0.8027;
874.5000;0.3980;0.8004;
874.8000;0.3997;0.8027;
875.1000;0.3997;0.8027;
875.4000;0.3989;0.8051;
875.7000;0.3997;0.8051;
876.0000;0.3980;0.8004;
876.3000;0.3989;0.8145;
876.6000;0.4029;0.8262;
876.9000;0.4094;0.8403;
877.2000;0.3980;0.8051;
877.5000;0.3997;0.8121;
877.8000;0.4005;0.8145;
878.1000;0.3997;0.8168;
878.4000;0.3997;0.8121;
878.7000;0.3948;0.8051;
879.0000;0.3989;0.8215;
879.3000;0.3997;0.8262;
879.6000;0.3980;0.8215;
879.9000;0.3964;0.8286;
880.2000;0.3997;0.8332;
880.5000;0.3972;0.8215;
880.8000;0.3964;0.8074;
881.1000;0.3964;0.8051;
881.4000;0.3989;0.8121;
881.7000;0.3997;0.8192;
882.0000;0.3989;0.8239;
882.3000;0.3997;0.8192;
882.6000;0.3940;0.8004;
882.9000;0.3989;0.8168;
883.2000;0.4005;0.8239;
883.5000;0.3972;0.8168;
883.8000;0.3980;0.8074;
884.1000;0.3980;0.8074;
884.4000;0.3980;0.8004;
884.7000;0.3972;0.8074;
885.0000;0.3964;0.8027;
885.3000;0.3964;0.8027;
885.6000;0.4005;0.8145;
885.9000;0.3980;0.8074;
886.2000;0.3972;0.8074;
886.5000;0.3980;0.8192;
886.8000;0.3980;0.8145;
887.1000;0.3972;0.8168;
887.4000;0.3964;0.8168;
887.7000;0.3989;0.8168;
888.0000;0.3989;0.8168;
888.3000;0.3989;0.8074;
888.6000;0.3997;0.8121;
888.9000;0.3972;0.8215;
889.2000;0.3989;0.8262;
889.5000;0.3980;0.8239;
889.8000;0.3972;0.8192;
890.1000;0.3964;0.8121;
890.4000;0.3989;0.8192;
890.7000;0.3964;0.8192;
891.0000;0.3956;0.8168;
891.3000;0.4013;0.8215;
891.6000;0.4021;0.8239;
891.9000;0.4021;0.8121;
892.2000;0.4005;0.8121;
892.5000;0.3989;0.8074;
892.8000;0.3989;0.8098;
893.1000;0.3915;0.7887;
893.4000;0.3980;0.8074;
893.7000;0.4029;0.8145;
894.0000;0.3980;0.8051;
894.3000;0.3980;0.8145;
894.6000;0.4005;0.8192;
894.9000;0.3972;0.8145;
895.2000;0.3989;0.8168;
895.5000;0.3980;0.8168;
895.8000;0.3989;0.8121;
896.1000;0.3989;0.8192;
896.4000;0.3980;0.8215;
896.7000;0.3980;0.8215;
897.0000;0.3980;0.8262;
897.3000;0.3989;0.8286;
897.6000;0.3964;0.8356;
897.9000;0.3989;0.8379;
898.2000;0.3964;0.8379;
898.5000;0.3964;0.8286;
898.8000;0.3964;0.8215;
899.1000;0.3972;0.8168;
899.4000;0.3980;0.8121;
899.7000;0.3997;0.8168;
900.0000;0.3989;0.8098;
900.3000;0.3980;0.8168;
900.6000;0.3989;0.8168;
900.9000;0.4005;0.8098;
901.2000;0.3989;0.8098;
901.5000;0.4005;0.8074;
901.8000;0.3989;0.8051;
902.1000;0.4005;0.8051;
902.4000;0.3980;0.8027;
902.7000;0.3989;0.8098;
903.0000;0.3980;0.8098;
903.3000;0.3980;0.8168;
903.6000;0.3989;0.8168;
903.9000;0.3972;0.8074;
904.2000;0.3948;0.8027;
904.5000;0.3956;0.8051;
904.8000;0.3980;0.8168;
905.1000;0.3989;0.8145;
905.4000;0.3956;0.8121;
905.7000;0.3989;0.8051;
906.0000;0.3980;0.8004;
906.3000;0.3980;0.7957;
906.6000;0.3956;0.7933;
906.9000;0.3997;0.8121;
907.2000;0.3964;0.8051;
907.5000;0.3948;0.8027;
907.8000;0.3972;0.7980;
908.1000;0.3972;0.8027;
908.4000;0.3964;0.7933;
908.7000;0.3964;0.7887;
909.0000;0.3989;0.7980;
909.3000;0.3948;0.7933;
909.6000;0.3980;0.7980;
909.9000;0.3972;0.8004;
910.2000;0.3972;0.7933;
910.5000;0.3972;0.7910;
910.8000;0.3997;0.8004;
911.1000;0.3980;0.8074;
911.4000;0.3980;0.8051;
911.7000;0.3972;0.8051;
912.0000;0.4013;0.8168;
912.3000;0.3980;0.8168;
912.6000;0.3972;0.8145;
912.9000;0.3964;0.8098;
913.2000;0.3964;0.8168;
913.5000;0.3980;0.8215;
913.8000;0.3989;0.8239;
914.1000;0.3964;0.8286;
914.4000;0.4029;0.8403;
914.7000;0.4013;0.8379;
915.0000;0.3989;0.8332;
915.3000;0.3956;0.8215;
915.6000;0.3980;0.8215;
915.9000;0.3964;0.8262;
916.2000;0.3972;0.8309;
916.5000;0.3964;0.8309;
916.8000;0.3948;0.8262;
917.1000;0.3948;0.8309;
917.4000;0.3972;0.8356;
917.7000;0.3972;0.8379;
918.0000;0.3972;0.8262;
918.3000;0.3932;0.8192;
918.6000;0.3989;0.8356;
918.9000;0.3980;0.8239;
919.2000;0.3956;0.8215;
919.5000;0.4086;0.8497;
919.8000;0.4046;0.8356;
920.1000;0.3964;0.8192;
920.4000;0.3980;0.8121;
920.7000;0.4070;0.8332;
921.0000;0.3980;0.8121;
921.3000;0.3980;0.7980;
921.6000;0.3972;0.7980;
921.9000;0.3980;0.7980;
922.2000;0.3980;0.8051;
922.5000;0.3972;0.7957;
922.8000;0.3980;0.8027;
923.1000;0.3972;0.8051;
923.4000;0.3956;0.7980;
923.7000;0.3940;0.7980;
924.0000;0.3956;0.8004;
924.3000;0.3972;0.8027;
924.6000;0.3989;0.8192;
924.9000;0.3964;0.8192;
925.2000;0.3964;0.8145;
925.5000;0.3964;0.8121;
925.8000;0.3964;0.8121;
926.1000;0.3980;0.8168;
926.4000;0.3956;0.8074;
926.7000;0.3980;0.8215;
927.0000;0.3980;0.8262;
927.3000;0.3964;0.8262;
927.6000;0.3948;0.8262;
927.9000;0.3972;0.8239;
928.2000;0.3997;0.8332;
928.5000;0.4005;0.8332;
928.8000;0.3980;0.8215;
929.1000;0.3972;0.8121;
929.4000;0.3932;0.8121;
929.7000;0.3932;0.8121;
930.0000;0.3972;0.8121;
930.3000;0.3980;0.8168;
930.6000;0.3940;0.7980;
930.9000;0.3980;0.8027;
931.2000;0.3972;0.8027;
931.5000;0.3948;0.8051;
931.8000;0.3956;0.8121;
932.1000;0.3980;0.8215;
932.4000;0.3956;0.8215;
932.7000;0.3980;0.8239;
933.0000;0.3980;0.8215;
933.3000;0.3980;0.8168;
933.6000;0.3997;0.8098;
933.9000;0.3964;0.8074;
934.2000;0.3980;0.8192;
934.5000;0.3972;0.8215;
934.8000;0.3972;0.8168;
935.1000;0.3972;0.8262;
935.4000;0.3956;0.8192;
935.7000;0.3964;0.8192;
936.0000;0.3964;0.8309;
936.3000;0.3980;0.8379;
936.6000;0.3980;0.8332;
936.9000;0.3964;0.8332;
937.2000;0.3972;0.8286;
937.5000;0.3972;0.8286;
937.8000;0.3989;0.8379;
938.1000;0.3972;0.8309;
938.4000;0.3964;0.8262;
938.7000;0.3980;0.8286;
939.0000;0.3980;0.8239;
939.3000;0.3964;0.8332;
939.6000;0.3964;0.8309;
939.9000;0.3989;0.8262;
940.2000;0.3923;0.8121;
940.5000;0.3972;0.8192;
940.8000;0.3940;0.8121;
941.1000;0.3980;0.8215;
941.4000;0.3980;0.8239;
941.7000;0.3956;0.8145;
942.0000;0.3964;0.8027;
942.3000;0.3972;0.8004;
942.6000;0.3989;0.8121;
942.9000;0.3972;0.8074;
943.2000;0.3948;0.8051;
943.5000;0.3956;0.7980;
943.8000;0.3972;0.8027;
944.1000;0.3964;0.7957;
944.4000;0.3899;0.7863;
944.7000;0.3989;0.8074;
945.0000;0.3948;0.7957;
945.3000;0.3964;0.8004;
945.6000;0.3964;0.8051;
945.9000;0.3964;0.8074;
946.2000;0.3964;0.8004;
946.5000;0.3980;0.8121;
946.8000;0.4013;0.8239;
947.1000;0.3972;0.8121;
947.4000;0.3932;0.7980;
947.7000;0.3980;0.8192;
948.0000;0.3956;0.8121;
948.3000;0.3948;0.8051;
948.6000;0.3956;0.8098;
948.9000;0.3956;0.8168;
949.2000;0.3964;0.8074;
949.5000;0.3980;0.8004;
949.8000;0.3948;0.7863;
950.1000;0.3940;0.7863;
950.4000;0.3956;0.7957;
950.7000;0.3948;0.7980;
951.0000;0.3940;0.7910;
951.3000;0.3964;0.7933;
951.6000;0.3948;0.7910;
951.9000;0.3948;0.7887;
952.2000;0.3972;0.8027;
952.5000;0.3956;0.8051;
952.8000;0.3972;0.8051;
953.1000;0.3980;0.8004;
953.4000;0.3980;0.7980;
953.7000;0.3972;0.7980;
954.0000;0.3972;0.8098;
954.3000;0.3956;0.8145;
954.6000;0.3980;0.8168;
954.9000;0.3956;0.7980;
955.2000;0.4021;0.8168;
955.5000;0.3956;0.8121;
955.8000;0.3964;0.8215;
956.1000;0.3964;0.8192;
956.4000;0.3964;0.8074;
956.7000;0.3989;0.8145;
957.0000;0.3980;0.8192;
957.3000;0.3964;0.8074;
957.6000;0.3972;0.8145;
957.9000;0.3972;0.8121;
958.2000;0.3972;0.8215;
958.5000;0.3989;0.8192;
958.8000;0.3940;0.8098;
959.1000;0.3964;0.8145;
959.4000;0.3980;0.8145;
959.7000;0.3948;0.8121;
960.0000;0.3948;0.8098;
960.3000;0.3940;0.8004;
960.6000;0.3964;0.8051;
960.9000;0.3997;0.8145;
961.2000;0.3972;0.8145;
961.5000;0.3956;0.7980;
961.8000;0.3956;0.7980;
962.1000;0.3972;0.7957;
962.4000;0.3972;0.8004;
962.7000;0.3956;0.8074;
963.0000;0.3972;0.8121;
963.3000;0.3948;0.8098;
963.6000;0.3956;0.8027;
963.9000;0.3964;0.8027;
964.2000;0.3923;0.7933;
964.5000;0.3948;0.8004;
964.8000;0.3915;0.7887;
965.1000;0.3940;0.7933;
965.4000;0.3956;0.7957;
965.7000;0.3932;0.7933;
966.0000;0.3940;0.7957;
966.3000;0.3956;0.7980;
966.6000;0.3964;0.8051;
966.9000;0.3956;0.8098;
967.2000;0.3980;0.8145;
967.5000;0.3989;0.8192;
967.8000;0.3932;0.8027;
968.1000;0.3972;0.8168;
968.4000;0.3972;0.8145;
968.7000;0.3972;0.8239;
969.0000;0.3972;0.8215;
969.3000;0.3972;0.8309;
969.6000;0.3972;0.8379;
969.9000;0.3997;0.8426;
970.2000;0.3972;0.8426;
970.5000;0.3980;0.8403;
970.8000;0.3980;0.8426;
971.1000;0.3972;0.8332;
971.4000;0.3980;0.8286;
971.7000;0.3948;0.8145;
972.0000;0.3972;0.8215;
972.3000;0.3972;0.8192;
972.6000;0.3948;0.8192;
972.9000;0.3972;0.8215;
973.2000;0.3972;0.8192;
973.5000;0.3956;0.8192;
973.8000;0.3891;0.8051;
974.1000;0.3940;0.8239;
974.4000;0.3940;0.8239;
974.7000;0.3948;0.8215;
975.0000;0.3956;0.8286;
975.3000;0.3940;0.8239;
975.6000;0.3948;0.8262;
975.9000;0.3940;0.8215;
976.2000;0.3940;0.8192;
976.5000;0.3940;0.8215;
976.8000;0.3964;0.8192;
977.1000;0.3907;0.8074;
977.4000;0.3964;0.8098;
977.7000;0.4037;0.8262;
978.0000;0.3956;0.8121;
978.3000;0.3964;0.8192;
978.6000;0.3891;0.7887;
978.9000;0.3956;0.8051;
979.2000;0.3956;0.8121;
979.5000;0.3972;0.8239;
979.8000;0.3964;0.8192;
980.1000;0.3956;0.8215;
980.4000;0.3964;0.8168;
980.7000;0.3989;0.8192;
981.0000;0.3972;0.8192;
981.3000;0.3956;0.8098;
981.6000;0.3956;0.8074;
981.9000;0.3980;0.8074;
982.2000;0.3972;0.8074;
982.5000;0.3964;0.8098;
982.8000;0.3980;0.8168;
983.1000;0.3972;0.8121;
983.4000;0.3972;0.8004;
983.7000;0.3956;0.8145;
984.0000;0.3964;0.8145;
984.3000;0.3956;0.8121;
984.6000;0.3956;0.8215;
984.9000;0.4046;0.8426;
985.2000;0.3956;0.8145;
985.5000;0.3948;0.8121;
985.8000;0.3972;0.8192;
986.1000;0.3956;0.8215;
986.4000;0.3940;0.8239;
986.7000;0.3948;0.8192;
987.0000;0.3964;0.8168;
987.3000;0.3997;0.8215;
987.6000;0.3956;0.8121;
987.9000;0.3932;0.8215;
988.2000;0.3932;0.8168;
988.5000;0.3915;0.8121;
988.8000;0.3980;0.8239;
989.1000;0.3932;0.8239;
989.4000;0.3964;0.8309;
989.7000;0.3972;0.8332;
990.0000;0.3964;0.8239;
990.3000;0.3964;0.8309;
990.6000;0.3980;0.8262;
990.9000;0.3964;0.8215;
991.2000;0.3972;0.8239;
991.5000;0.3948;0.8168;
991.8000;0.3956;0.8168;
992.1000;0.3972;0.8215;
992.4000;0.3972;0.8239;
992.7000;0.3980;0.8286;
993.0000;0.3867;0.8027;
993.3000;0.3972;0.8309;
993.6000;0.3980;0.8239;
993.9000;0.3972;0.8168;
994.2000;0.3964;0.8145;
994.5000;0.3956;0.8168;
994.8000;0.3956;0.8121;
995.1000;0.3972;0.8074;
995.4000;0.3980;0.8098;
995.7000;0.3972;0.8168;
996.0000;0.3972;0.8215;
996.3000;0.3956;0.8215;
996.6000;0.3940;0.8192;
996.9000;0.3964;0.8121;
997.2000;0.3972;0.8051;
997.5000;0.3940;0.7980;
997.8000;0.3980;0.8027;
998.1000;0.3948;0.7957;
998.4000;0.3948;0.7980;
998.7000;0.3948;0.7957;
999.0000;0.3956;0.7910;
999.3000;0.3964;0.7910;
999.6000;0.3948;0.7887;
999.9000;0.3956;0.7957;
1000.2000;0.4029;0.8074;
1000.5000;0.3964;0.7980;
1000.8000;0.3956;0.7957;
1001.1000;0.3932;0.7863;
1001.4000;0.3940;0.7980;
1001.7000;0.3940;0.8051;
1002.0000;0.3948;0.8121;
1002.3000;0.3956;0.8121;
1002.6000;0.3940;0.8074;
1002.9000;0.3956;0.8121;
1003.2000;0.3972;0.8098;
1003.5000;0.3972;0.8192;
1003.8000;0.3964;0.8239;
1004.1000;0.3948;0.8145;
1004.4000;0.3891;0.7910;
1004.7000;0.3964;0.8121;
1005.0000;0.3940;0.8027;
1005.3000;0.3932;0.8121;
1005.6000;0.3964;0.8098;
1005.9000;0.3989;0.8192;
1006.2000;0.3964;0.8074;
1006.5000;0.3980;0.8098;
1006.8000;0.3956;0.8098;
1007.1000;0.3972;0.8121;
1007.4000;0.3948;0.8051;
1007.7000;0.3932;0.7933;
1008.0000;0.3948;0.7957;
1008.3000;0.3948;0.8004;
1008.6000;0.3883;0.7910;
1008.9000;0.3948;0.8098;
1009.2000;0.3948;0.8145;
1009.5000;0.3980;0.8239;
1009.8000;0.3940;0.8051;
1010.1000;0.3956;0.8098;
1010.4000;0.3972;0.8121;
1010.7000;0.3956;0.8121;
1011.0000;0.3964;0.8098;
1011.3000;0.3956;0.8027;
1011.6000;0.3940;0.8051;
1011.9000;0.3989;0.8121;
1012.2000;0.3948;0.8027;
1012.5000;0.3948;0.8098;
1012.8000;0.3956;0.8074;
1013.1000;0.3948;0.8027;
1013.4000;0.3948;0.8121;
1013.7000;0.3964;0.8098;
1014.0000;0.3940;0.8098;
1014.3000;0.3940;0.8121;
1014.6000;0.3948;0.8051;
1014.9000;0.3956;0.8121;
1015.2000;0.3948;0.8145;
1015.5000;0.3956;0.8215;
1015.8000;0.3932;0.8168;
1016.1000;0.3972;0.8168;
1016.4000;0.3964;0.8145;
1016.7000;0.3964;0.8168;
1017.0000;0.3980;0.8121;
1017.3000;0.3964;0.8145;
1017.6000;0.3964;0.8192;
1017.9000;0.3956;0.8168;
1018.2000;0.3940;0.8168;
1018.5000;0.3940;0.8121;
1018.8000;0.3956;0.8074;
1019.1000;0.3980;0.8145;
1019.4000;0.3948;0.8027;
1019.7000;0.3956;0.8098;
1020.0000;0.3956;0.8168;
1020.3000;0.3948;0.8051;
1020.6000;0.3964;0.8074;
1020.9000;0.3940;0.8004;
1021.2000;0.3972;0.8051;
1021.5000;0.3948;0.8004;
1021.8000;0.3948;0.7980;
1022.1000;0.3875;0.7840;
1022.4000;0.3956;0.8145;
1022.7000;0.3964;0.8262;
1023.0000;0.3948;0.8262;
1023.3000;0.3948;0.8215;
1023.6000;0.3956;0.8262;
1023.9000;0.3956;0.8262;
1024.2000;0.3980;0.8286;
1024.5000;0.3948;0.8192;
1024.8000;0.3932;0.8004;
1025.1000;0.3948;0.8027;
1025.4000;0.3956;0.8051;
1025.7000;0.3940;0.7957;
1026.0000;0.3972;0.8004;
1026.3000;0.3923;0.7887;
1026.6000;0.3948;0.7933;
1026.9000;0.3956;0.8051;
1027.2000;0.3956;0.8145;
1027.5000;0.3989;0.8262;
1027.8000;0.3948;0.8262;
1028.1000;0.3956;0.8239;
1028.4000;0.3948;0.8239;
1028.7000;0.3956;0.8215;
1029.0000;0.3956;0.8215;
1029.3000;0.3940;0.8168;
1029.6000;0.3964;0.8192;
1029.9000;0.3948;0.8192;
1030.2000;0.3956;0.8215;
1030.5000;0.3956;0.8239;
1030.8000;0.3948;0.8239;
1031.1000;0.3907;0.8215;
1031.4000;0.3932;0.8239;
1031.7000;0.3956;0.8215;
1032.0000;0.3948;0.8192;
1032.3000;0.3956;0.8168;
1032.6000;0.3964;0.8145;
1032.9000;0.4021;0.8332;
1033.2000;0.3980;0.8168;
1033.5000;0.3940;0.8121;
1033.8000;0.3956;0.8074;
1034.1000;0.3923;0.8027;
1034.4000;0.3940;0.8027;
1034.7000;0.3940;0.8027;
1035.0000;0.3956;0.8004;
1035.3000;0.3923;0.7980;
1035.6000;0.3956;0.8098;
1035.9000;0.3940;0.8074;
1036.2000;0.3956;0.8074;
1036.5000;0.3956;0.8074;
1036.8000;0.3899;0.7980;
1037.1000;0.3948;0.8098;
1037.4000;0.3964;0.8145;
1037.7000;0.3964;0.8074;
1038.0000;0.3915;0.7980;
1038.3000;0.3948;0.8098;
1038.6000;0.3997;0.8074;
1038.9000;0.3980;0.7933;
1039.2000;0.3956;0.7887;
1039.5000;0.3867;0.7699;
1039.8000;0.3964;0.7957;
1040.1000;0.3972;0.7980;
1040.4000;0.3964;0.7887;
1040.7000;0.3980;0.7980;
1041.0000;0.3964;0.8004;
1041.3000;0.3964;0.8051;
1041.6000;0.3972;0.8074;
1041.9000;0.3956;0.8121;
1042.2000;0.3940;0.8121;
1042.5000;0.3956;0.8192;
1042.8000;0.3964;0.8192;
1043.1000;0.3948;0.8098;
1043.4000;0.3948;0.8051;
1043.7000;0.3915;0.8051;
1044.0000;0.3940;0.8027;
1044.3000;0.3932;0.8051;
1044.6000;0.3940;0.8098;
1044.9000;0.3956;0.8027;
1045.2000;0.3948;0.8027;
1045.5000;0.3964;0.8121;
1045.8000;0.3940;0.8145;
1046.1000;0.3956;0.8074;
1046.4000;0.3964;0.8145;
1046.7000;0.3972;0.8168;
1047.0000;0.3956;0.8074;
1047.3000;0.3972;0.8215;
1047.6000;0.3956;0.8168;
1047.9000;0.3989;0.8262;
1048.2000;0.3948;0.8262;
1048.5000;0.3940;0.8262;
1048.8000;0.3956;0.8309;
1049.1000;0.3948;0.8239;
1049.4000;0.3948;0.8262;
1049.7000;0.3956;0.8239;
1050.0000;0.3956;0.8074;
1050.3000;0.3956;0.8051;
1050.6000;0.3948;0.8004;
1050.9000;0.3940;0.7980;
1051.2000;0.3948;0.8051;
1051.5000;0.3956;0.8098;
1051.8000;0.3964;0.8098;
1052.1000;0.3980;0.8004;
1052.4000;0.3956;0.8051;
1052.7000;0.3948;0.8098;
1053.0000;0.3948;0.8121;
1053.3000;0.3964;0.8074;
1053.6000;0.3948;0.8027;
1053.9000;0.4005;0.8074;
1054.2000;0.3956;0.7980;
1054.5000;0.3932;0.8004;
1054.8000;0.3948;0.7957;
1055.1000;0.3932;0.7980;
1055.4000;0.3956;0.7980;
1055.7000;0.3956;0.7910;
1056.0000;0.3948;0.7863;
1056.3000;0.3948;0.7887;
1056.6000;0.3956;0.7933;
1056.9000;0.3956;0.7980;
1057.2000;0.4046;0.8145;
1057.5000;0.3964;0.7910;
1057.8000;0.3932;0.7816;
1058.1000;0.3940;0.7910;
1058.4000;0.4037;0.8121;
1058.7000;0.3948;0.7933;
1059.0000;0.3940;0.8027;
1059.3000;0.3997;0.8192;
1059.6000;0.3948;0.8145;
1059.9000;0.4013;0.8309;
1060.2000;0.3948;0.8051;
1060.5000;0.4143;0.8520;
1060.8000;0.3997;0.8145;
1061.1000;0.3948;0.8027;
1061.4000;0.3972;0.8145;
1061.7000;0.3964;0.8145;
1062.0000;0.3980;0.8168;
1062.3000;0.3948;0.8121;
1062.6000;0.3964;0.8168;
1062.9000;0.3940;0.8145;
1063.2000;0.3948;0.8074;
1063.5000;0.3948;0.8098;
1063.8000;0.3956;0.8145;
1064.1000;0.3923;0.8121;
1064.4000;0.3956;0.8192;
1064.7000;0.3956;0.8239;
1065.0000;0.3956;0.8309;
1065.3000;0.3956;0.8262;
1065.6000;0.3956;0.8262;
1065.9000;0.3956;0.8286;
1066.2000;0.3956;0.8286;
1066.5000;0.3956;0.8286;
1066.8000;0.3964;0.8309;
1067.1000;0.3964;0.8356;
1067.4000;0.3923;0.8356;
1067.7000;0.3980;0.8426;
1068.0000;0.3948;0.8356;
1068.3000;0.3948;0.8379;
1068.6000;0.3940;0.8450;
1068.9000;0.3940;0.8332;
1069.2000;0.3948;0.8332;
1069.5000;0.3923;0.8309;
1069.8000;0.3940;0.8239;
1070.1000;0.3940;0.8215;
1070.4000;0.3923;0.8262;
1070.7000;0.3948;0.8192;
1071.0000;0.3956;0.8215;
1071.3000;0.3948;0.8239;
1071.6000;0.3972;0.8356;
1071.9000;0.3948;0.8379;
1072.2000;0.3940;0.8262;
1072.5000;0.3956;0.8262;
1072.8000;0.3972;0.8239;
1073.1000;0.3964;0.8262;
1073.4000;0.3940;0.8332;
1073.7000;0.3948;0.8286;
1074.0000;0.3907;0.8262;
1074.3000;0.3940;0.8379;
1074.6000;0.3940;0.8286;
1074.9000;0.3915;0.8239;
1075.2000;0.3948;0.8239;
1075.5000;0.3956;0.8239;
1075.8000;0.3997;0.8309;
1076.1000;0.3891;0.8074;
1076.4000;0.3940;0.8145;
1076.7000;0.4005;0.8286;
1077.0000;0.3964;0.8145;
1077.3000;0.3956;0.8098;
1077.6000;0.3915;0.8121;
1077.9000;0.3948;0.8262;
1078.2000;0.3956;0.8286;
1078.5000;0.3940;0.8239;
1078.8000;0.3964;0.8239;
1079.1000;0.3883;0.7980;
1079.4000;0.4005;0.8239;
1079.7000;0.3948;0.8168;
1080.0000;0.3932;0.8145;
1080.3000;0.3940;0.8168;
1080.6000;0.3948;0.8239;
1080.9000;0.3940;0.8239;
1081.2000;0.3948;0.8332;
1081.5000;0.3940;0.8309;
1081.8000;0.3923;0.8239;
1082.1000;0.3956;0.8262;
1082.4000;0.3948;0.8286;
1082.7000;0.3948;0.8262;
1083.0000;0.3948;0.8309;
1083.3000;0.3875;0.8145;
1083.6000;0.3948;0.8309;
1083.9000;0.3956;0.8239;
1084.2000;0.3932;0.8262;
1084.5000;0.3956;0.8332;
1084.8000;0.3940;0.8379;
1085.1000;0.3948;0.8450;
1085.4000;0.3972;0.8426;
1085.7000;0.3940;0.8356;
1086.0000;0.3899;0.8168;
1086.3000;0.3964;0.8286;
1086.6000;0.4021;0.8426;
1086.9000;0.3964;0.8332;
1087.2000;0.3948;0.8286;
1087.5000;0.3923;0.8192;
1087.8000;0.3948;0.8168;
1088.1000;0.3932;0.8239;
1088.4000;0.3923;0.8239;
1088.7000;0.3940;0.8286;
1089.0000;0.3940;0.8286;
1089.3000;0.3948;0.8215;
1089.6000;0.3923;0.8192;
1089.9000;0.3964;0.8262;
1090.2000;0.3940;0.8121;
1090.5000;0.3964;0.8215;
1090.8000;0.3956;0.8239;
1091.1000;0.3948;0.8145;
1091.4000;0.3932;0.8145;
1091.7000;0.3932;0.8051;
1092.0000;0.3964;0.8192;
1092.3000;0.3948;0.8168;
1092.6000;0.3964;0.8262;
1092.9000;0.3948;0.8215;
1093.2000;0.3948;0.8309;
1093.5000;0.3932;0.8262;
1093.8000;0.3956;0.8309;
1094.1000;0.3940;0.8379;
1094.4000;0.3956;0.8426;
1094.7000;0.3940;0.8356;
1095.0000;0.3940;0.8332;
1095.3000;0.3956;0.8309;
1095.6000;0.3964;0.8262;
1095.9000;0.3964;0.8262;
1096.2000;0.3940;0.8286;
1096.5000;0.3956;0.8356;
1096.8000;0.3972;0.8309;
1097.1000;0.3972;0.8262;
1097.4000;0.3964;0.8192;
1097.7000;0.4005;0.8215;
1098.0000;0.3940;0.8051;
1098.3000;0.3956;0.8215;
1098.6000;0.3964;0.8215;
1098.9000;0.3932;0.8145;
1099.2000;0.3940;0.8168;
1099.5000;0.3964;0.8192;
1099.8000;0.3980;0.8074;
1100.1000;0.3891;0.7863;
1100.4000;0.3956;0.8027;
1100.7000;0.3940;0.8004;
1101.0000;0.3956;0.8027;
1101.3000;0.3940;0.8098;
1101.6000;0.3932;0.8027;
1101.9000;0.3932;0.8027;
1102.2000;0.3964;0.8051;
1102.5000;0.3964;0.8027;
1102.8000;0.3940;0.8004;
1103.1000;0.3948;0.8051;
1103.4000;0.3948;0.7980;
1103.7000;0.3948;0.7933;
1104.0000;0.3948;0.7957;
1104.3000;0.3923;0.7887;
1104.6000;0.3956;0.7933;
1104.9000;0.3948;0.7887;
1105.2000;0.3932;0.7933;
1105.5000;0.3956;0.8074;
1105.8000;0.3948;0.8027;
1106.1000;0.3956;0.8004;
1106.4000;0.3948;0.8004;
1106.7000;0.3923;0.7957;
1107.0000;0.3948;0.8145;
1107.3000;0.3948;0.8027;
1107.6000;0.3948;0.8098;
1107.9000;0.3932;0.8004;
1108.2000;0.3940;0.8027;
1108.5000;0.3948;0.8051;
1108.8000;0.3932;0.8027;
1109.1000;0.3956;0.8074;
1109.4000;0.3940;0.8121;
1109.7000;0.3972;0.8168;
1110.0000;0.3956;0.8121;
1110.3000;0.3956;0.8051;
1110.6000;0.3940;0.8027;
1110.9000;0.4021;0.8168;
1111.2000;0.3956;0.8004;
1111.5000;0.3964;0.8027;
1111.8000;0.3932;0.8027;
1112.1000;0.3948;0.8074;
1112.4000;0.3956;0.8074;
1112.7000;0.3842;0.7746;
1113.0000;0.3940;0.7980;
1113.3000;0.3940;0.7957;
1113.6000;0.3940;0.7887;
1113.9000;0.3948;0.7887;
1114.2000;0.3956;0.7816;
1114.5000;0.3932;0.7816;
1114.8000;0.3940;0.7863;
1115.1000;0.4046;0.8192;
1115.4000;0.3932;0.7863;
1115.7000;0.3948;0.7816;
1116.0000;0.3956;0.7816;
1116.3000;0.3940;0.7816;
1116.6000;0.3940;0.7746;
1116.9000;0.3915;0.7628;
1117.2000;0.3915;0.7699;
1117.5000;0.3964;0.7793;
1117.8000;0.3940;0.7793;
1118.1000;0.3875;0.7605;
1118.4000;0.3932;0.7793;
1118.7000;0.3932;0.7910;
1119.0000;0.3948;0.8004;
1119.3000;0.3948;0.8004;
1119.6000;0.3915;0.7980;
1119.9000;0.3932;0.8027;
1120.2000;0.3932;0.8145;
1120.5000;0.3948;0.8215;
1120.8000;0.3940;0.8192;
1121.1000;0.3940;0.8239;
1121.4000;0.3964;0.8286;
1121.7000;0.3956;0.8262;
1122.0000;0.3956;0.8168;
1122.3000;0.3932;0.8145;
1122.6000;0.3964;0.8215;
1122.9000;0.3948;0.8145;
1123.2000;0.3940;0.8215;
1123.5000;0.3940;0.8168;
1123.8000;0.3932;0.8168;
1124.1000;0.3972;0.8286;
1124.4000;0.3932;0.8215;
1124.7000;0.3940;0.8286;
1125.0000;0.3948;0.8286;
1125.3000;0.3956;0.8215;
1125.6000;0.3923;0.8239;
1125.9000;0.3940;0.8215;
1126.2000;0.3956;0.8262;
1126.5000;0.3940;0.8215;
1126.8000;0.3948;0.8239;
1127.1000;0.3956;0.8215;
1127.4000;0.3972;0.8379;
1127.7000;0.3948;0.8356;
1128.0000;0.3932;0.8356;
1128.3000;0.3940;0.8332;
1128.6000;0.3940;0.8286;
1128.9000;0.3948;0.8379;
1129.2000;0.3940;0.8239;
1129.5000;0.3932;0.8121;
1129.8000;0.3915;0.8192;
1130.1000;0.3940;0.8239;
1130.4000;0.3915;0.8192;
1130.7000;0.3915;0.8121;
1131.0000;0.3858;0.7980;
1131.3000;0.3915;0.8168;
1131.6000;0.3948;0.8309;
1131.9000;0.3980;0.8379;
1132.2000;0.3940;0.8332;
1132.5000;0.3964;0.8403;
1132.8000;0.3956;0.8309;
1133.1000;0.3948;0.8309;
1133.4000;0.3940;0.8309;
1133.7000;0.3972;0.8450;
1134.0000;0.3956;0.8426;
1134.3000;0.3948;0.8426;
1134.6000;0.3940;0.8450;
1134.9000;0.3940;0.8473;
1135.2000;0.3940;0.8450;
1135.5000;0.3940;0.8379;
1135.8000;0.3956;0.8426;
1136.1000;0.3964;0.8473;
1136.4000;0.3932;0.8356;
1136.7000;0.3932;0.8262;
1137.0000;0.3940;0.8239;
1137.3000;0.3932;0.8286;
1137.6000;0.3915;0.8239;
1137.9000;0.3932;0.8286;
1138.2000;0.3956;0.8309;
1138.5000;0.3940;0.8332;
1138.8000;0.3948;0.8356;
1139.1000;0.3948;0.8403;
1139.4000;0.3932;0.8379;
1139.7000;0.3932;0.8379;
1140.0000;0.3948;0.8332;
1140.3000;0.3948;0.8403;
1140.6000;0.3964;0.8450;
1140.9000;0.3948;0.8426;
1141.2000;0.3964;0.8520;
1141.5000;0.3948;0.8591;
1141.8000;0.3956;0.8591;
1142.1000;0.3997;0.8685;
1142.4000;0.3932;0.8497;
1142.7000;0.3932;0.8450;
1143.0000;0.3940;0.8426;
1143.3000;0.3948;0.8426;
1143.6000;0.3915;0.8403;
1143.9000;0.3940;0.8520;
1144.2000;0.3932;0.8450;
1144.5000;0.3932;0.8356;
1144.8000;0.3940;0.8497;
1145.1000;0.3940;0.8544;
1145.4000;0.3923;0.8450;
1145.7000;0.3948;0.8544;
1146.0000;0.3940;0.8356;
1146.3000;0.3932;0.8286;
1146.6000;0.3948;0.8309;
1146.9000;0.3956;0.8403;
1147.2000;0.3948;0.8379;
1147.5000;0.3932;0.8356;
1147.8000;0.3940;0.8356;
1148.1000;0.3932;0.8356;
1148.4000;0.3948;0.8497;
1148.7000;0.3932;0.8426;
1149.0000;0.3940;0.8520;
1149.3000;0.3948;0.8497;
1149.6000;0.3956;0.8497;
1149.9000;0.3948;0.8591;
1150.2000;0.3940;0.8497;
1150.5000;0.3948;0.8497;
1150.8000;0.3915;0.8286;
1151.1000;0.3940;0.8356;
1151.4000;0.3940;0.8450;
1151.7000;0.3940;0.8403;
1152.0000;0.3972;0.8544;
1152.3000;0.3932;0.8544;
1152.6000;0.3923;0.8567;
1152.9000;0.3940;0.8614;
1153.2000;0.4005;0.8661;
1153.5000;0.3948;0.8497;
1153.8000;0.3899;0.8356;
1154.1000;0.3956;0.8450;
1154.4000;0.3923;0.8356;
1154.7000;0.3940;0.8450;
1155.0000;0.3956;0.8473;
1155.3000;0.3997;0.8591;
1155.6000;0.3948;0.8497;
1155.9000;0.3932;0.8473;
1156.2000;0.3948;0.8450;
1156.5000;0.4046;0.8732;
1156.8000;0.3932;0.8497;
1157.1000;0.3948;0.8520;
1157.4000;0.3923;0.8520;
1157.7000;0.3923;0.8426;
1158.0000;0.3940;0.8426;
1158.3000;0.3964;0.8450;
1158.6000;0.3980;0.8450;
1158.9000;0.3932;0.8379;
1159.2000;0.3948;0.8426;
1159.5000;0.3915;0.8403;
1159.8000;0.3964;0.8450;
1160.1000;0.3948;0.8473;
1160.4000;0.3956;0.8356;
1160.7000;0.3948;0.8379;
1161.0000;0.3940;0.8379;
1161.3000;0.3940;0.8426;
1161.6000;0.3932;0.8379;
1161.9000;0.3956;0.8379;
1162.2000;0.3940;0.8309;
1162.5000;0.3940;0.8286;
1162.8000;0.3940;0.8309;
1163.1000;0.3940;0.8286;
1163.4000;0.3948;0.8262;
1163.7000;0.3923;0.8379;
1164.0000;0.3923;0.8473;
1164.3000;0.3923;0.8520;
1164.6000;0.3948;0.8591;
1164.9000;0.3948;0.8520;
1165.2000;0.3940;0.8520;
1165.5000;0.3956;0.8591;
1165.8000;0.3948;0.8567;
1166.1000;0.3964;0.8520;
1166.4000;0.3899;0.8356;
1166.7000;0.3956;0.8426;
1167.0000;0.3956;0.8473;
1167.3000;0.3964;0.8450;
1167.6000;0.3940;0.8450;
1167.9000;0.3932;0.8356;
1168.2000;0.3948;0.8426;
1168.5000;0.3956;0.8379;
1168.8000;0.3932;0.8286;
1169.1000;0.3956;0.8332;
1169.4000;0.4021;0.8497;
1169.7000;0.3948;0.8332;
1170.0000;0.3997;0.8450;
1170.3000;0.3948;0.8332;
1170.6000;0.3948;0.8332;
1170.9000;0.3948;0.8379;
1171.2000;0.3948;0.8403;
1171.5000;0.3948;0.8450;
1171.8000;0.4029;0.8567;
1172.1000;0.3948;0.8332;
1172.4000;0.3932;0.8286;
1172.7000;0.3948;0.8379;
1173.0000;0.3948;0.8379;
1173.3000;0.3956;0.8450;
1173.6000;0.3940;0.8450;
1173.9000;0.3940;0.8426;
1174.2000;0.3923;0.8379;
1174.5000;0.3956;0.8332;
1174.8000;0.3932;0.8262;
1175.1000;0.3940;0.8239;
1175.4000;0.3940;0.8309;
1175.7000;0.3940;0.8309;
1176.0000;0.3907;0.8239;
1176.3000;0.3964;0.8356;
1176.6000;0.3932;0.8332;
1176.9000;0.3997;0.8520;
1177.2000;0.3948;0.8450;
1177.5000;0.3932;0.8450;
1177.8000;0.3980;0.8497;
1178.1000;0.3964;0.8450;
1178.4000;0.3940;0.8426;
1178.7000;0.3956;0.8403;
1179.0000;0.3940;0.8403;
1179.3000;0.3891;0.8239;
1179.6000;0.3948;0.8379;
1179.9000;0.3956;0.8450;
1180.2000;0.3940;0.8379;
1180.5000;0.3940;0.8450;
1180.8000;0.3932;0.8403;
1181.1000;0.3948;0.8403;
1181.4000;0.3989;0.8520;
1181.7000;0.3932;0.8497;
1182.0000;0.3932;0.8450;
1182.3000;0.3964;0.8426;
1182.6000;0.3923;0.8356;
1182.9000;0.3932;0.8426;
1183.2000;0.3948;0.8450;
1183.5000;0.3948;0.8450;
1183.8000;0.3923;0.8379;
1184.1000;0.3923;0.8379;
1184.4000;0.3932;0.8450;
1184.7000;0.3923;0.8497;
1185.0000;0.3940;0.8497;
1185.3000;0.3940;0.8497;
1185.6000;0.3932;0.8450;
1185.9000;0.3948;0.8497;
1186.2000;0.3907;0.8473;
1186.5000;0.3948;0.8544;
1186.8000;0.3940;0.8520;
1187.1000;0.3948;0.8497;
1187.4000;0.3940;0.8450;
1187.7000;0.3867;0.8286;
1188.0000;0.3940;0.8520;
1188.3000;0.3899;0.8403;
1188.6000;0.3932;0.8497;
1188.9000;0.3940;0.8567;
1189.2000;0.3923;0.8473;
1189.5000;0.3940;0.8544;
1189.8000;0.3956;0.8544;
1190.1000;0.3940;0.8450;
1190.4000;0.3948;0.8497;
1190.7000;0.3964;0.8497;
1191.0000;0.3948;0.8473;
1191.3000;0.3940;0.8379;
1191.6000;0.3948;0.8403;
1191.9000;0.3932;0.8544;
1192.2000;0.3956;0.8544;
1192.5000;0.3932;0.8520;
1192.8000;0.3956;0.8591;
1193.1000;0.3923;0.8520;
1193.4000;0.3915;0.8332;
1193.7000;0.4013;0.8567;
1194.0000;0.3997;0.8591;
1194.3000;0.3948;0.8497;
1194.6000;0.3940;0.8473;
1194.9000;0.3940;0.8520;
1195.2000;0.3940;0.8497;
1195.5000;0.3956;0.8544;
1195.8000;0.3997;0.8685;
1196.1000;0.3964;0.8614;
1196.4000;0.3923;0.8591;
1196.7000;0.3932;0.8520;
1197.0000;0.3923;0.8426;
1197.3000;0.3923;0.8426;
1197.6000;0.3948;0.8473;
1197.9000;0.3932;0.8450;
1198.2000;0.3923;0.8356;
1198.5000;0.3932;0.8450;
1198.8000;0.3940;0.8450;
1199.1000;0.3948;0.8520;
1199.4000;0.3940;0.8544;
1199.7000;0.3948;0.8520;
1200.0000;0.3956;0.8473;
1200.3000;0.3956;0.8426;
1200.6000;0.3940;0.8379;
1200.9000;0.3932;0.8379;
1201.2000;0.3932;0.8403;
1201.5000;0.3948;0.8379;
1201.8000;0.3932;0.8403;
1202.1000;0.3923;0.8426;
1202.4000;0.3940;0.8426;
1202.7000;0.3940;0.8403;
1203.0000;0.3940;0.8426;
1203.3000;0.3956;0.8591;
1203.6000;0.3956;0.8567;
1203.9000;0.3948;0.8379;
1204.2000;0.3940;0.8309;
1204.5000;0.3940;0.8309;
1204.8000;0.3956;0.8403;
1205.1000;0.3940;0.8403;
1205.4000;0.3948;0.8403;
1205.7000;0.3932;0.8286;
1206.0000;0.3948;0.8332;
1206.3000;0.3948;0.8403;
1206.6000;0.4005;0.8473;
1206.9000;0.3948;0.8286;
1207.2000;0.3923;0.8309;
1207.5000;0.3956;0.8356;
1207.8000;0.3940;0.8309;
1208.1000;0.3858;0.8168;
1208.4000;0.3923;0.8356;
1208.7000;0.3980;0.8497;
1209.0000;0.3956;0.8544;
1209.3000;0.3932;0.8473;
1209.6000;0.3940;0.8473;
1209.9000;0.3956;0.8403;
1210.2000;0.3948;0.8426;
1210.5000;0.3948;0.8450;
1210.8000;0.3948;0.8497;
1211.1000;0.3842;0.8262;
1211.4000;0.3956;0.8450;
1211.7000;0.3940;0.8356;
1212.0000;0.3932;0.8262;
1212.3000;0.3956;0.8332;
1212.6000;0.3948;0.8403;
1212.9000;0.3948;0.8332;
1213.2000;0.3932;0.8215;
1213.5000;0.3948;0.8168;
1213.8000;0.3923;0.8051;
1214.1000;0.4005;0.8215;
1214.4000;0.3932;0.8121;
1214.7000;0.3932;0.8168;
1215.0000;0.3948;0.8168;
1215.3000;0.3940;0.8074;
1215.6000;0.3932;0.8004;
1215.9000;0.3923;0.8051;
1216.2000;0.3932;0.8145;
1216.5000;0.3932;0.8192;
1216.8000;0.3964;0.8239;
1217.1000;0.3948;0.8239;
1217.4000;0.3956;0.8239;
1217.7000;0.3915;0.8239;
1218.0000;0.3956;0.8309;
1218.3000;0.3948;0.8379;
1218.6000;0.3948;0.8309;
1218.9000;0.3964;0.8309;
1219.2000;0.3964;0.8403;
1219.5000;0.3964;0.8403;
1219.8000;0.3923;0.8379;
1220.1000;0.3940;0.8426;
1220.4000;0.4005;0.8520;
1220.7000;0.3940;0.8379;
1221.0000;0.3940;0.8403;
1221.3000;0.3940;0.8473;
1221.6000;0.3972;0.8473;
1221.9000;0.3948;0.8426;
1222.2000;0.3940;0.8473;
1222.5000;0.3989;0.8614;
1222.8000;0.3940;0.8450;
1223.1000;0.3940;0.8426;
1223.4000;0.3940;0.8403;
1223.7000;0.3923;0.8332;
1224.0000;0.3948;0.8379;
1224.3000;0.3948;0.8356;
1224.6000;0.3940;0.8379;
1224.9000;0.3932;0.8379;
1225.2000;0.3940;0.8379;
1225.5000;0.3940;0.8356;
1225.8000;0.3956;0.8473;
1226.1000;0.3956;0.8473;
1226.4000;0.3948;0.8403;
1226.7000;0.3940;0.8403;
1227.0000;0.4013;0.8591;
1227.3000;0.3940;0.8379;
1227.6000;0.3940;0.8403;
1227.9000;0.3956;0.8497;
1228.2000;0.3948;0.8379;
1228.5000;0.3940;0.8379;
1228.8000;0.3923;0.8379;
1229.1000;0.3948;0.8497;
1229.4000;0.3932;0.8426;
1229.7000;0.3948;0.8473;
1230.0000;0.3940;0.8426;
1230.3000;0.3932;0.8403;
1230.6000;0.3858;0.8192;
1230.9000;0.3932;0.8379;
1231.2000;0.3956;0.8426;
1231.5000;0.3956;0.8403;
1231.8000;0.3940;0.8403;
1232.1000;0.3899;0.8309;
1232.4000;0.3923;0.8379;
1232.7000;0.3932;0.8356;
1233.0000;0.3940;0.8356;
1233.3000;0.3932;0.8450;
1233.6000;0.3923;0.8403;
1233.9000;0.3940;0.8379;
1234.2000;0.3948;0.8426;
1234.5000;0.3923;0.8403;
1234.8000;0.3932;0.8379;
1235.1000;0.3932;0.8309;
1235.4000;0.3948;0.8426;
1235.7000;0.3923;0.8450;
1236.0000;0.3932;0.8497;
1236.3000;0.3932;0.8450;
1236.6000;0.3923;0.8356;
1236.9000;0.3915;0.8356;
1237.2000;0.3932;0.8332;
1237.5000;0.3923;0.8286;
1237.8000;0.3932;0.8239;
1238.1000;0.3932;0.8356;
1238.4000;0.3956;0.8379;
1238.7000;0.3948;0.8379;
1239.0000;0.3948;0.8356;
1239.3000;0.3964;0.8309;
1239.6000;0.3948;0.8239;
1239.9000;0.3948;0.8168;
1240.2000;0.3956;0.8192;
1240.5000;0.3948;0.8262;
1240.8000;0.3948;0.8286;
1241.1000;0.3956;0.8239;
1241.4000;0.3948;0.8145;
1241.7000;0.3948;0.8121;
1242.0000;0.3948;0.8192;
1242.3000;0.3948;0.8239;
1242.6000;0.3956;0.8239;
1242.9000;0.3948;0.8262;
1243.2000;0.3932;0.8215;
1243.5000;0.3915;0.8262;
1243.8000;0.3940;0.8426;
1244.1000;0.3915;0.8403;
1244.4000;0.3948;0.8497;
1244.7000;0.3948;0.8450;
1245.0000;0.3940;0.8262;
1245.3000;0.3907;0.8168;
1245.6000;0.3948;0.8215;
1245.9000;0.3956;0.8309;
1246.2000;0.3923;0.8168;
1246.5000;0.3907;0.8121;
1246.8000;0.3923;0.8192;
1247.1000;0.3940;0.8262;
1247.4000;0.4029;0.8450;
1247.7000;0.3940;0.8192;
1248.0000;0.3883;0.8098;
1248.3000;0.3907;0.8239;
1248.6000;0.3948;0.8379;
1248.9000;0.3972;0.8332;
1249.2000;0.3932;0.8192;
1249.5000;0.4013;0.8403;
1249.8000;0.3972;0.8309;
1250.1000;0.3940;0.8286;
1250.4000;0.3964;0.8309;
1250.7000;0.3964;0.8262;
1251.0000;0.3907;0.8215;
1251.3000;0.3940;0.8262;
1251.6000;0.3948;0.8239;
1251.9000;0.3948;0.8309;
1252.2000;0.3940;0.8262;
1252.5000;0.3907;0.8074;
1252.8000;0.3956;0.8215;
1253.1000;0.3948;0.8192;
1253.4000;0.3932;0.8215;
1253.7000;0.3932;0.8168;
1254.0000;0.3956;0.8168;
1254.3000;0.3940;0.8192;
1254.6000;0.4054;0.8497;
1254.9000;0.3940;0.8286;
1255.2000;0.3948;0.8332;
1255.5000;0.3932;0.8332;
1255.8000;0.3956;0.8356;
1256.1000;0.3956;0.8356;
1256.4000;0.3915;0.8309;
1256.7000;0.3932;0.8239;
1257.0000;0.3956;0.8286;
1257.3000;0.3932;0.8239;
1257.6000;0.3940;0.8262;
1257.9000;0.3948;0.8426;
1258.2000;0.3883;0.8356;
1258.5000;0.3923;0.8520;
1258.8000;0.3940;0.8591;
1259.1000;0.3932;0.8497;
1259.4000;0.3932;0.8450;
1259.7000;0.3940;0.8403;
1260.0000;0.3940;0.8379;
1260.3000;0.3932;0.8379;
1260.6000;0.3948;0.8403;
1260.9000;0.3932;0.8309;
1261.2000;0.3940;0.8356;
1261.5000;0.3940;0.8356;
1261.8000;0.3923;0.8309;
1262.1000;0.3940;0.8309;
1262.4000;0.3940;0.8403;
1262.7000;0.3923;0.8379;
1263.0000;0.3964;0.8379;
1263.3000;0.3932;0.8379;
1263.6000;0.3940;0.8403;
1263.9000;0.3923;0.8332;
1264.2000;0.3948;0.8379;
1264.5000;0.3923;0.8403;
1264.8000;0.3956;0.8379;
1265.1000;0.3956;0.8426;
1265.4000;0.3948;0.8356;
1265.7000;0.3980;0.8450;
1266.0000;0.3956;0.8403;
1266.3000;0.3940;0.8332;
1266.6000;0.3964;0.8497;
1266.9000;0.3948;0.8426;
1267.2000;0.3997;0.8567;
1267.5000;0.3940;0.8450;
1267.8000;0.3923;0.8379;
1268.1000;0.3940;0.8544;
1268.4000;0.3956;0.8567;
1268.7000;0.3923;0.8520;
1269.0000;0.3932;0.8591;
1269.3000;0.3907;0.8520;
1269.6000;0.3948;0.8591;
1269.9000;0.3923;0.8473;
1270.2000;0.3940;0.8567;
1270.5000;0.3940;0.8567;
1270.8000;0.3956;0.8567;
1271.1000;0.3940;0.8544;
1271.4000;0.3875;0.8379;
1271.7000;0.3932;0.8567;
1272.0000;0.3923;0.8520;
1272.3000;0.3907;0.8497;
1272.6000;0.3956;0.8544;
1272.9000;0.3899;0.8356;
1273.2000;0.3940;0.8426;
1273.5000;0.3972;0.8497;
1273.8000;0.3932;0.8286;
1274.1000;0.3940;0.8332;
1274.4000;0.3940;0.8332;
1274.7000;0.3948;0.8403;
1275.0000;0.3956;0.8450;
1275.3000;0.3923;0.8426;
1275.6000;0.3940;0.8544;
1275.9000;0.3940;0.8520;
1276.2000;0.3940;0.8591;
1276.5000;0.3940;0.8567;
1276.8000;0.3932;0.8567;
1277.1000;0.3923;0.8544;
1277.4000;0.3940;0.8497;
1277.7000;0.3948;0.8567;
1278.0000;0.3907;0.8520;
1278.3000;0.3940;0.8567;
1278.6000;0.3964;0.8638;
1278.9000;0.3956;0.8567;
1279.2000;0.3980;0.8614;
1279.5000;0.3948;0.8497;
1279.8000;0.3940;0.8403;
1280.1000;0.3940;0.8497;
1280.4000;0.3923;0.8473;
1280.7000;0.3940;0.8544;
1281.0000;0.3932;0.8520;
1281.3000;0.3948;0.8544;
1281.6000;0.3940;0.8473;
1281.9000;0.3923;0.8497;
1282.2000;0.3948;0.8614;
1282.5000;0.3932;0.8591;
1282.8000;0.3915;0.8591;
1283.1000;0.3923;0.8591;
1283.4000;0.3932;0.8520;
1283.7000;0.3932;0.8497;
1284.0000;0.3932;0.8520;
1284.3000;0.3964;0.8544;
1284.6000;0.3940;0.8544;
1284.9000;0.3940;0.8473;
1285.2000;0.3956;0.8403;
1285.5000;0.3932;0.8332;
1285.8000;0.3883;0.8168;
1286.1000;0.3932;0.8379;
1286.4000;0.3915;0.8426;
1286.7000;0.3932;0.8379;
1287.0000;0.3923;0.8426;
1287.3000;0.3940;0.8497;
1287.6000;0.3932;0.8473;
1287.9000;0.3907;0.8379;
1288.2000;0.3932;0.8426;
1288.5000;0.3940;0.8450;
1288.8000;0.4029;0.8708;
1289.1000;0.3948;0.8520;
1289.4000;0.3972;0.8544;
1289.7000;0.3940;0.8591;
1290.0000;0.3956;0.8732;
1290.3000;0.3948;0.8661;
1290.6000;0.3923;0.8567;
1290.9000;0.3940;0.8567;
1291.2000;0.3956;0.8520;
1291.5000;0.3850;0.8286;
1291.8000;0.3932;0.8567;
1292.1000;0.3940;0.8567;
1292.4000;0.3923;0.8544;
1292.7000;0.3948;0.8614;
1293.0000;0.3948;0.8567;
1293.3000;0.3891;0.8450;
1293.6000;0.3948;0.8567;
1293.9000;0.3923;0.8473;
1294.2000;0.3915;0.8426;
1294.5000;0.3940;0.8426;
1294.8000;0.3940;0.8497;
1295.1000;0.3948;0.8567;
1295.4000;0.3940;0.8614;
1295.7000;0.3932;0.8708;
1296.0000;0.3948;0.8732;
1296.3000;0.3940;0.8732;
1296.6000;0.3932;0.8708;
1296.9000;0.3923;0.8614;
1297.2000;0.3932;0.8661;
1297.5000;0.3964;0.8778;
1297.8000;0.3932;0.8661;
1298.1000;0.3923;0.8591;
1298.4000;0.3932;0.8591;
1298.7000;0.3915;0.8591;
1299.0000;0.3932;0.8544;
1299.3000;0.3932;0.8520;
1299.6000;0.3923;0.8567;
1299.9000;0.3964;0.8638;
1300.2000;0.3956;0.8567;
1300.5000;0.3940;0.8614;
1300.8000;0.3915;0.8544;
1301.1000;0.3932;0.8497;
1301.4000;0.3907;0.8520;
1301.7000;0.3956;0.8544;
1302.0000;0.3932;0.8450;
1302.3000;0.3932;0.8473;
1302.6000;0.3940;0.8544;
1302.9000;0.3932;0.8567;
1303.2000;0.3956;0.8614;
1303.5000;0.3948;0.8497;
1303.8000;0.3932;0.8544;
1304.1000;0.3899;0.8450;
1304.4000;0.3932;0.8426;
1304.7000;0.3923;0.8403;
1305.0000;0.3940;0.8473;
1305.3000;0.3948;0.8473;
1305.6000;0.3932;0.8332;
1305.9000;0.3940;0.8379;
1306.2000;0.3932;0.8379;
1306.5000;0.3948;0.8356;
1306.8000;0.3948;0.8356;
1307.1000;0.3940;0.8379;
1307.4000;0.3940;0.8356;
1307.7000;0.3940;0.8332;
1308.0000;0.3923;0.8262;
1308.3000;0.3940;0.8309;
1308.6000;0.3891;0.8192;
1308.9000;0.3948;0.8286;
1309.2000;0.3940;0.8332;
1309.5000;0.4005;0.8544;
1309.8000;0.3972;0.8473;
1310.1000;0.3940;0.8520;
1310.4000;0.3948;0.8473;
1310.7000;0.3940;0.8544;
1311.0000;0.3923;0.8567;
1311.3000;0.3948;0.8591;
1311.6000;0.3923;0.8544;
1311.9000;0.3923;0.8497;
1312.2000;0.3940;0.8497;
1312.5000;0.3932;0.8403;
1312.8000;0.4005;0.8591;
1313.1000;0.4021;0.8638;
1313.4000;0.3932;0.8426;
1313.7000;0.3948;0.8426;
1314.0000;0.3940;0.8356;
1314.3000;0.3923;0.8262;
1314.6000;0.3940;0.8332;
1314.9000;0.3940;0.8379;
1315.2000;0.3948;0.8332;
1315.5000;0.3948;0.8332;
1315.8000;0.4005;0.8614;
1316.1000;0.3923;0.8450;
1316.4000;0.3956;0.8450;
1316.7000;0.3923;0.8332;
1317.0000;0.3940;0.8426;
1317.3000;0.3932;0.8426;
1317.6000;0.3932;0.8379;
1317.9000;0.3932;0.8426;
1318.2000;0.3932;0.8473;
1318.5000;0.3932;0.8403;
1318.8000;0.3940;0.8544;
1319.1000;0.3940;0.8591;
1319.4000;0.3948;0.8544;
1319.7000;0.3932;0.8520;
1320.0000;0.3940;0.8520;
1320.3000;0.3940;0.8473;
1320.6000;0.3948;0.8520;
1320.9000;0.3948;0.8403;
1321.2000;0.3948;0.8286;
1321.5000;0.3923;0.8262;
1321.8000;0.3948;0.8192;
1322.1000;0.3940;0.8215;
1322.4000;0.3948;0.8215;
1322.7000;0.3956;0.8262;
1323.0000;0.3948;0.8356;
1323.3000;0.3948;0.8473;
1323.6000;0.3940;0.8544;
1323.9000;0.3923;0.8497;
1324.2000;0.3956;0.8567;
1324.5000;0.3940;0.8497;
1324.8000;0.3956;0.8520;
1325.1000;0.3940;0.8426;
1325.4000;0.3956;0.8426;
1325.7000;0.3972;0.8473;
1326.0000;0.3932;0.8379;
1326.3000;0.3940;0.8426;
1326.6000;0.3940;0.8544;
1326.9000;0.3948;0.8520;
1327.2000;0.3972;0.8614;
1327.5000;0.3907;0.8450;
1327.8000;0.3940;0.8497;
1328.1000;0.3907;0.8403;
1328.4000;0.3940;0.8356;
1328.7000;0.3948;0.8356;
1329.0000;0.3940;0.8309;
1329.3000;0.3948;0.8332;
1329.6000;0.3932;0.8379;
1329.9000;0.3956;0.8309;
1330.2000;0.3923;0.8309;
1330.5000;0.3940;0.8403;
1330.8000;0.3948;0.8426;
1331.1000;0.3932;0.8426;
1331.4000;0.3940;0.8473;
1331.7000;0.3940;0.8520;
1332.0000;0.3956;0.8497;
1332.3000;0.3940;0.8473;
1332.6000;0.3948;0.8544;
1332.9000;0.3972;0.8614;
1333.2000;0.3940;0.8544;
1333.5000;0.3956;0.8497;
1333.8000;0.3948;0.8520;
1334.1000;0.3964;0.8544;
1334.4000;0.3972;0.8473;
1334.7000;0.3948;0.8450;
1335.0000;0.3923;0.8450;
1335.3000;0.3956;0.8473;
1335.6000;0.3940;0.8426;
1335.9000;0.3923;0.8356;
1336.2000;0.3940;0.8356;
1336.5000;0.3940;0.8379;
1336.8000;0.3932;0.8473;
1337.1000;0.3932;0.8450;
1337.4000;0.3940;0.8497;
1337.7000;0.3948;0.8473;
1338.0000;0.3940;0.8426;
1338.3000;0.3932;0.8356;
1338.6000;0.3923;0.8379;
1338.9000;0.3940;0.8426;
1339.2000;0.3948;0.8426;
1339.5000;0.3932;0.8426;
1339.8000;0.3940;0.8356;
1340.1000;0.3923;0.8379;
1340.4000;0.3940;0.8473;
1340.7000;0.3948;0.8591;
1341.0000;0.3948;0.8520;
1341.3000;0.3940;0.8473;
1341.6000;0.3989;0.8544;
1341.9000;0.3932;0.8426;
1342.2000;0.3932;0.8403;
1342.5000;0.3948;0.8450;
1342.8000;0.3940;0.8450;
1343.1000;0.3948;0.8497;
1343.4000;0.3940;0.8544;
1343.7000;0.3940;0.8544;
1344.0000;0.3932;0.8544;
1344.3000;0.3948;0.8591;
1344.6000;0.3940;0.8591;
1344.9000;0.3932;0.8520;
1345.2000;0.3907;0.8497;
1345.5000;0.3932;0.8544;
1345.8000;0.3972;0.8638;
1346.1000;0.3915;0.8473;
1346.4000;0.3932;0.8520;
1346.7000;0.3940;0.8567;
1347.0000;0.3923;0.8614;
1347.3000;0.3956;0.8732;
1347.6000;0.4037;0.8990;
1347.9000;0.3932;0.8661;
1348.2000;0.3956;0.8708;
1348.5000;0.3948;0.8778;
1348.8000;0.3899;0.8685;
1349.1000;0.3948;0.8802;
1349.4000;0.3948;0.8685;
1349.7000;0.3948;0.8708;
1350.0000;0.3940;0.8638;
1350.3000;0.3891;0.8544;
1350.6000;0.3948;0.8638;
1350.9000;0.3932;0.8591;
1351.2000;0.3940;0.8544;
1351.5000;0.3972;0.8591;
1351.8000;0.3907;0.8379;
1352.1000;0.3940;0.8426;
1352.4000;0.3940;0.8426;
1352.7000;0.3940;0.8379;
1353.0000;0.3932;0.8309;
1353.3000;0.4005;0.8544;
1353.6000;0.3948;0.8379;
1353.9000;0.3948;0.8497;
1354.2000;0.3956;0.8520;
1354.5000;0.3940;0.8497;
1354.8000;0.3989;0.8661;
1355.1000;0.3940;0.8567;
1355.4000;0.3915;0.8497;
1355.7000;0.3940;0.8544;
1356.0000;0.3948;0.8567;
1356.3000;0.3940;0.8450;
1356.6000;0.3923;0.8426;
1356.9000;0.3956;0.8497;
1357.2000;0.3964;0.8473;
1357.5000;0.3948;0.8544;
1357.8000;0.3940;0.8403;
1358.1000;0.3940;0.8262;
1358.4000;0.3940;0.8215;
1358.7000;0.3948;0.8262;
1359.0000;0.3948;0.8262;
1359.3000;0.3948;0.8286;
1359.6000;0.3940;0.8356;
1359.9000;0.3940;0.8426;
1360.2000;0.3940;0.8356;
1360.5000;0.3915;0.8286;
1360.8000;0.3948;0.8309;
1361.1000;0.3932;0.8309;
1361.4000;0.3915;0.8379;
1361.7000;0.3932;0.8450;
1362.0000;0.3940;0.8497;
1362.3000;0.3948;0.8591;
1362.6000;0.3932;0.8567;
1362.9000;0.3980;0.8685;
1363.2000;0.3883;0.8379;
1363.5000;0.3956;0.8544;
1363.8000;0.3940;0.8473;
1364.1000;0.3932;0.8426;
1364.4000;0.3956;0.8473;
1364.7000;0.3948;0.8426;
1365.0000;0.3940;0.8379;
1365.3000;0.3964;0.8450;
1365.6000;0.3932;0.8450;
1365.9000;0.3915;0.8473;
1366.2000;0.3940;0.8614;
1366.5000;0.3923;0.8567;
1366.8000;0.3923;0.8497;
1367.1000;0.3932;0.8497;
1367.4000;0.3932;0.8567;
1367.7000;0.3948;0.8591;
1368.0000;0.3932;0.8567;
1368.3000;0.3956;0.8614;
1368.6000;0.3948;0.8638;
1368.9000;0.3932;0.8567;
1369.2000;0.3948;0.8497;
1369.5000;0.3964;0.8520;
1369.8000;0.3948;0.8544;
1370.1000;0.3972;0.8614;
1370.4000;0.3932;0.8520;
1370.7000;0.3932;0.8450;
1371.0000;0.3940;0.8567;
1371.3000;0.3940;0.8520;
1371.6000;0.3940;0.8450;
1371.9000;0.3915;0.8309;
1372.2000;0.3932;0.8403;
1372.5000;0.3915;0.8497;
1372.8000;0.3932;0.8591;
1373.1000;0.3940;0.8520;
1373.4000;0.3940;0.8426;
1373.7000;0.4037;0.8567;
1374.0000;0.3940;0.8426;
1374.3000;0.3940;0.8426;
1374.6000;0.3948;0.8520;
1374.9000;0.3875;0.8356;
1375.2000;0.3948;0.8544;
1375.5000;0.3932;0.8450;
1375.8000;0.3940;0.8497;
1376.1000;0.3940;0.8473;
1376.4000;0.3972;0.8567;
1376.7000;0.3940;0.8426;
1377.0000;0.3964;0.8473;
1377.3000;0.3940;0.8473;
1377.6000;0.3923;0.8379;
1377.9000;0.3948;0.8379;
1378.2000;0.3907;0.8379;
1378.5000;0.3915;0.8403;
1378.8000;0.3923;0.8403;
1379.1000;0.3923;0.8356;
1379.4000;0.3948;0.8450;
1379.7000;0.3948;0.8544;
1380.0000;0.3867;0.8379;
1380.3000;0.3940;0.8614;
1380.6000;0.3940;0.8661;
1380.9000;0.3899;0.8638;
1381.2000;0.3932;0.8638;
1381.5000;0.3940;0.8614;
1381.8000;0.3972;0.8685;
1382.1000;0.3899;0.8591;
1382.4000;0.3956;0.8708;
1382.7000;0.3956;0.8661;
1383.0000;0.3948;0.8614;
1383.3000;0.3948;0.8544;
1383.6000;0.3940;0.8544;
1383.9000;0.3940;0.8520;
1384.2000;0.3980;0.8638;
1384.5000;0.3867;0.8426;
1384.8000;0.3948;0.8591;
1385.1000;0.3956;0.8567;
1385.4000;0.3997;0.8614;
1385.7000;0.3940;0.8544;
1386.0000;0.3940;0.8473;
1386.3000;0.3907;0.8403;
1386.6000;0.3932;0.8497;
1386.9000;0.3932;0.8520;
1387.2000;0.3932;0.8426;
1387.5000;0.3940;0.8544;
1387.8000;0.3940;0.8520;
1388.1000;0.3956;0.8520;
1388.4000;0.3972;0.8567;
1388.7000;0.3948;0.8497;
1389.0000;0.3940;0.8473;
1389.3000;0.3940;0.8426;
1389.6000;0.3932;0.8497;
1389.9000;0.3948;0.8544;
1390.2000;0.3932;0.8520;
1390.5000;0.3932;0.8544;
1390.8000;0.3940;0.8567;
1391.1000;0.3964;0.8614;
1391.4000;0.3883;0.8309;
1391.7000;0.3940;0.8426;
1392.0000;0.3932;0.8426;
1392.3000;0.3940;0.8403;
1392.6000;0.3956;0.8403;
1392.9000;0.3940;0.8426;
1393.2000;0.3940;0.8379;
1393.5000;0.3932;0.8332;
1393.8000;0.3964;0.8356;
1394.1000;0.3948;0.8332;
1394.4000;0.3932;0.8309;
1394.7000;0.3932;0.8356;
1395.0000;0.3948;0.8332;
1395.3000;0.3989;0.8450;
1395.6000;0.3940;0.8356;
1395.9000;0.3940;0.8379;
1396.2000;0.3948;0.8426;
1396.5000;0.3932;0.8356;
1396.8000;0.3956;0.8544;
1397.1000;0.3940;0.8520;
1397.4000;0.3956;0.8591;
1397.7000;0.3956;0.8708;
1398.0000;0.3948;0.8614;
1398.3000;0.3932;0.8567;
1398.6000;0.3915;0.8473;
1398.9000;0.3948;0.8520;
1399.2000;0.3948;0.8473;
1399.5000;0.3948;0.8379;
1399.8000;0.3932;0.8356;
