time/ms;Fluo/V;P700 deltaI/I x10³;
-199.8000;0.7521;0.5314;
-199.5000;0.7521;0.5265;
-199.2000;0.7497;0.5217;
-198.9000;0.7505;0.5168;
-198.6000;0.7530;0.5241;
-198.3000;0.7521;0.5217;
-198.0000;0.7521;0.5241;
-197.7000;0.7554;0.5363;
-197.4000;0.7505;0.5241;
-197.1000;0.7497;0.5241;
-196.8000;0.7562;0.5460;
-196.5000;0.7513;0.5412;
-196.2000;0.7497;0.5387;
-195.9000;0.7505;0.5290;
-195.6000;0.7530;0.5436;
-195.3000;0.7521;0.5363;
-195.0000;0.7513;0.5363;
-194.7000;0.7456;0.5192;
-194.4000;0.7521;0.5314;
-194.1000;0.7497;0.5192;
-193.8000;0.7538;0.5265;
-193.5000;0.7513;0.5290;
-193.2000;0.7505;0.5314;
-192.9000;0.7513;0.5338;
-192.6000;0.7521;0.5387;
-192.3000;0.7489;0.5265;
-192.0000;0.7505;0.5265;
-191.7000;0.7489;0.5314;
-191.4000;0.7521;0.5412;
-191.1000;0.7513;0.5485;
-190.8000;0.7497;0.5460;
-190.5000;0.7538;0.5485;
-190.2000;0.7521;0.5363;
-189.9000;0.7530;0.5290;
-189.6000;0.7521;0.5290;
-189.3000;0.7530;0.5290;
-189.0000;0.7521;0.5314;
-188.7000;0.7521;0.5387;
-188.4000;0.7530;0.5436;
-188.1000;0.7554;0.5485;
-187.8000;0.7546;0.5412;
-187.5000;0.7521;0.5412;
-187.2000;0.7530;0.5436;
-186.9000;0.7513;0.5485;
-186.6000;0.7546;0.5558;
-186.3000;0.7464;0.5387;
-186.0000;0.7521;0.5485;
-185.7000;0.7505;0.5436;
-185.4000;0.7513;0.5412;
-185.1000;0.7505;0.5387;
-184.8000;0.7505;0.5363;
-184.5000;0.7538;0.5387;
-184.2000;0.7521;0.5387;
-183.9000;0.7530;0.5412;
-183.6000;0.7505;0.5460;
-183.3000;0.7481;0.5338;
-183.0000;0.7546;0.5387;
-182.7000;0.7513;0.5363;
-182.4000;0.7530;0.5436;
-182.1000;0.7513;0.5338;
-181.8000;0.7521;0.5363;
-181.5000;0.7521;0.5314;
-181.2000;0.7521;0.5314;
-180.9000;0.7530;0.5314;
-180.6000;0.7521;0.5338;
-180.3000;0.7530;0.5314;
-180.0000;0.7521;0.5241;
-179.7000;0.7513;0.5265;
-179.4000;0.7521;0.5192;
-179.1000;0.7521;0.5192;
-178.8000;0.7513;0.5192;
-178.5000;0.7562;0.5412;
-178.2000;0.7521;0.5412;
-177.9000;0.7505;0.5412;
-177.6000;0.7521;0.5436;
-177.3000;0.7513;0.5290;
-177.0000;0.7513;0.5217;
-176.7000;0.7513;0.5314;
-176.4000;0.7562;0.5509;
-176.1000;0.7521;0.5363;
-175.8000;0.7521;0.5387;
-175.5000;0.7489;0.5338;
-175.2000;0.7538;0.5338;
-174.9000;0.7505;0.5192;
-174.6000;0.7530;0.5290;
-174.3000;0.7489;0.5217;
-174.0000;0.7513;0.5338;
-173.7000;0.7521;0.5338;
-173.4000;0.7505;0.5412;
-173.1000;0.7513;0.5509;
-172.8000;0.7505;0.5412;
-172.5000;0.7513;0.5363;
-172.2000;0.7530;0.5412;
-171.9000;0.7521;0.5363;
-171.6000;0.7530;0.5363;
-171.3000;0.7538;0.5363;
-171.0000;0.7521;0.5192;
-170.7000;0.7505;0.5192;
-170.4000;0.7538;0.5363;
-170.1000;0.7513;0.5338;
-169.8000;0.7530;0.5338;
-169.5000;0.7513;0.5338;
-169.2000;0.7505;0.5314;
-168.9000;0.7578;0.5485;
-168.6000;0.7530;0.5387;
-168.3000;0.7530;0.5460;
-168.0000;0.7521;0.5363;
-167.7000;0.7513;0.5290;
-167.4000;0.7497;0.5192;
-167.1000;0.7513;0.5265;
-166.8000;0.7513;0.5217;
-166.5000;0.7505;0.5168;
-166.2000;0.7513;0.5168;
-165.9000;0.7505;0.5192;
-165.6000;0.7497;0.5192;
-165.3000;0.7505;0.5290;
-165.0000;0.7521;0.5363;
-164.7000;0.7505;0.5485;
-164.4000;0.7505;0.5460;
-164.1000;0.7505;0.5533;
-163.8000;0.7521;0.5533;
-163.5000;0.7538;0.5631;
-163.2000;0.7513;0.5485;
-162.9000;0.7538;0.5485;
-162.6000;0.7505;0.5241;
-162.3000;0.7513;0.5192;
-162.0000;0.7489;0.5119;
-161.7000;0.7505;0.5217;
-161.4000;0.7530;0.5363;
-161.1000;0.7513;0.5314;
-160.8000;0.7546;0.5363;
-160.5000;0.7505;0.5265;
-160.2000;0.7521;0.5290;
-159.9000;0.7505;0.5338;
-159.6000;0.7521;0.5387;
-159.3000;0.7513;0.5363;
-159.0000;0.7521;0.5363;
-158.7000;0.7521;0.5485;
-158.4000;0.7513;0.5485;
-158.1000;0.7530;0.5436;
-157.8000;0.7530;0.5509;
-157.5000;0.7513;0.5460;
-157.2000;0.7538;0.5387;
-156.9000;0.7497;0.5363;
-156.6000;0.7505;0.5338;
-156.3000;0.7521;0.5290;
-156.0000;0.7432;0.4997;
-155.7000;0.7505;0.5192;
-155.4000;0.7521;0.5192;
-155.1000;0.7530;0.5290;
-154.8000;0.7497;0.5217;
-154.5000;0.7505;0.5265;
-154.2000;0.7538;0.5241;
-153.9000;0.7497;0.5070;
-153.6000;0.7513;0.5046;
-153.3000;0.7505;0.5022;
-153.0000;0.7489;0.5046;
-152.7000;0.7513;0.5168;
-152.4000;0.7513;0.5192;
-152.1000;0.7513;0.5168;
-151.8000;0.7521;0.5168;
-151.5000;0.7521;0.5119;
-151.2000;0.7513;0.5119;
-150.9000;0.7530;0.5217;
-150.6000;0.7505;0.5192;
-150.3000;0.7505;0.5217;
-150.0000;0.7513;0.5338;
-149.7000;0.7530;0.5338;
-149.4000;0.7538;0.5363;
-149.1000;0.7530;0.5314;
-148.8000;0.7538;0.5338;
-148.5000;0.7521;0.5387;
-148.2000;0.7521;0.5412;
-147.9000;0.7513;0.5460;
-147.6000;0.7595;0.5680;
-147.3000;0.7448;0.5265;
-147.0000;0.7505;0.5387;
-146.7000;0.7513;0.5363;
-146.4000;0.7627;0.5607;
-146.1000;0.7521;0.5338;
-145.8000;0.7530;0.5338;
-145.5000;0.7530;0.5412;
-145.2000;0.7513;0.5436;
-144.9000;0.7513;0.5412;
-144.6000;0.7521;0.5387;
-144.3000;0.7521;0.5363;
-144.0000;0.7530;0.5387;
-143.7000;0.7521;0.5314;
-143.4000;0.7530;0.5363;
-143.1000;0.7497;0.5338;
-142.8000;0.7497;0.5241;
-142.5000;0.7505;0.5217;
-142.2000;0.7530;0.5217;
-141.9000;0.7538;0.5290;
-141.6000;0.7521;0.5265;
-141.3000;0.7521;0.5363;
-141.0000;0.7497;0.5290;
-140.7000;0.7497;0.5290;
-140.4000;0.7505;0.5436;
-140.1000;0.7546;0.5509;
-139.8000;0.7513;0.5533;
-139.5000;0.7530;0.5655;
-139.2000;0.7440;0.5387;
-138.9000;0.7530;0.5533;
-138.6000;0.7521;0.5387;
-138.3000;0.7513;0.5290;
-138.0000;0.7497;0.5217;
-137.7000;0.7521;0.5290;
-137.4000;0.7530;0.5241;
-137.1000;0.7521;0.5168;
-136.8000;0.7513;0.5192;
-136.5000;0.7505;0.5314;
-136.2000;0.7481;0.5217;
-135.9000;0.7505;0.5217;
-135.6000;0.7521;0.5217;
-135.3000;0.7489;0.5143;
-135.0000;0.7505;0.5290;
-134.7000;0.7530;0.5338;
-134.4000;0.7521;0.5265;
-134.1000;0.7505;0.5192;
-133.8000;0.7513;0.5217;
-133.5000;0.7521;0.5241;
-133.2000;0.7530;0.5290;
-132.9000;0.7530;0.5338;
-132.6000;0.7513;0.5363;
-132.3000;0.7481;0.5241;
-132.0000;0.7521;0.5290;
-131.7000;0.7521;0.5290;
-131.4000;0.7505;0.5217;
-131.1000;0.7505;0.5241;
-130.8000;0.7513;0.5217;
-130.5000;0.7505;0.5314;
-130.2000;0.7489;0.5290;
-129.9000;0.7521;0.5387;
-129.6000;0.7521;0.5485;
-129.3000;0.7530;0.5363;
-129.0000;0.7521;0.5363;
-128.7000;0.7505;0.5387;
-128.4000;0.7513;0.5436;
-128.1000;0.7521;0.5460;
-127.8000;0.7513;0.5460;
-127.5000;0.7513;0.5485;
-127.2000;0.7530;0.5509;
-126.9000;0.7440;0.5265;
-126.6000;0.7513;0.5412;
-126.3000;0.7505;0.5436;
-126.0000;0.7497;0.5363;
-125.7000;0.7505;0.5485;
-125.4000;0.7530;0.5509;
-125.1000;0.7505;0.5412;
-124.8000;0.7505;0.5460;
-124.5000;0.7513;0.5460;
-124.2000;0.7538;0.5436;
-123.9000;0.7513;0.5290;
-123.6000;0.7497;0.5241;
-123.3000;0.7407;0.5119;
-123.0000;0.7530;0.5387;
-122.7000;0.7505;0.5363;
-122.4000;0.7505;0.5314;
-122.1000;0.7521;0.5338;
-121.8000;0.7513;0.5338;
-121.5000;0.7513;0.5412;
-121.2000;0.7513;0.5338;
-120.9000;0.7513;0.5290;
-120.6000;0.7505;0.5241;
-120.3000;0.7505;0.5314;
-120.0000;0.7481;0.5265;
-119.7000;0.7513;0.5338;
-119.4000;0.7521;0.5363;
-119.1000;0.7530;0.5265;
-118.8000;0.7538;0.5338;
-118.5000;0.7521;0.5338;
-118.2000;0.7521;0.5387;
-117.9000;0.7521;0.5363;
-117.6000;0.7521;0.5363;
-117.3000;0.7513;0.5363;
-117.0000;0.7505;0.5436;
-116.7000;0.7530;0.5558;
-116.4000;0.7521;0.5485;
-116.1000;0.7513;0.5436;
-115.8000;0.7521;0.5436;
-115.5000;0.7530;0.5412;
-115.2000;0.7530;0.5387;
-114.9000;0.7497;0.5265;
-114.6000;0.7530;0.5290;
-114.3000;0.7521;0.5241;
-114.0000;0.7546;0.5241;
-113.7000;0.7513;0.5143;
-113.4000;0.7448;0.5022;
-113.1000;0.7505;0.5168;
-112.8000;0.7521;0.5119;
-112.5000;0.7513;0.5046;
-112.2000;0.7513;0.5119;
-111.9000;0.7489;0.5046;
-111.6000;0.7530;0.5095;
-111.3000;0.7513;0.5168;
-111.0000;0.7497;0.5143;
-110.7000;0.7456;0.5070;
-110.4000;0.7505;0.5265;
-110.1000;0.7456;0.5119;
-109.8000;0.7481;0.5168;
-109.5000;0.7489;0.5314;
-109.2000;0.7554;0.5485;
-108.9000;0.7416;0.5119;
-108.6000;0.7464;0.5217;
-108.3000;0.7497;0.5217;
-108.0000;0.7530;0.5265;
-107.7000;0.7505;0.5314;
-107.4000;0.7497;0.5265;
-107.1000;0.7513;0.5265;
-106.8000;0.7513;0.5363;
-106.5000;0.7513;0.5387;
-106.2000;0.7521;0.5460;
-105.9000;0.7448;0.5363;
-105.6000;0.7505;0.5363;
-105.3000;0.7521;0.5363;
-105.0000;0.7497;0.5363;
-104.7000;0.7513;0.5436;
-104.4000;0.7513;0.5338;
-104.1000;0.7521;0.5387;
-103.8000;0.7627;0.5728;
-103.5000;0.7513;0.5509;
-103.2000;0.7521;0.5509;
-102.9000;0.7595;0.5777;
-102.6000;0.7530;0.5607;
-102.3000;0.7513;0.5582;
-102.0000;0.7619;0.5875;
-101.7000;0.7416;0.5387;
-101.4000;0.7464;0.5533;
-101.1000;0.7513;0.5655;
-100.8000;0.7497;0.5607;
-100.5000;0.7497;0.5582;
-100.2000;0.7513;0.5558;
-99.9000;0.7554;0.5607;
-99.6000;0.7505;0.5509;
-99.3000;0.7521;0.5631;
-99.0000;0.7513;0.5680;
-98.7000;0.7505;0.5582;
-98.4000;0.7505;0.5558;
-98.1000;0.7521;0.5509;
-97.8000;0.7513;0.5509;
-97.5000;0.7521;0.5582;
-97.2000;0.7546;0.5582;
-96.9000;0.7464;0.5412;
-96.6000;0.7546;0.5558;
-96.3000;0.7530;0.5485;
-96.0000;0.7513;0.5509;
-95.7000;0.7513;0.5533;
-95.4000;0.7497;0.5485;
-95.1000;0.7513;0.5533;
-94.8000;0.7521;0.5460;
-94.5000;0.7513;0.5387;
-94.2000;0.7513;0.5314;
-93.9000;0.7497;0.5363;
-93.6000;0.7521;0.5509;
-93.3000;0.7530;0.5460;
-93.0000;0.7440;0.5265;
-92.7000;0.7546;0.5460;
-92.4000;0.7538;0.5412;
-92.1000;0.7513;0.5338;
-91.8000;0.7505;0.5338;
-91.5000;0.7521;0.5363;
-91.2000;0.7538;0.5509;
-90.9000;0.7424;0.5095;
-90.6000;0.7505;0.5314;
-90.3000;0.7481;0.5314;
-90.0000;0.7505;0.5363;
-89.7000;0.7497;0.5412;
-89.4000;0.7505;0.5412;
-89.1000;0.7530;0.5412;
-88.8000;0.7513;0.5363;
-88.5000;0.7513;0.5412;
-88.2000;0.7505;0.5412;
-87.9000;0.7530;0.5509;
-87.6000;0.7521;0.5533;
-87.3000;0.7595;0.5631;
-87.0000;0.7530;0.5485;
-86.7000;0.7497;0.5387;
-86.4000;0.7505;0.5338;
-86.1000;0.7530;0.5436;
-85.8000;0.7464;0.5241;
-85.5000;0.7505;0.5290;
-85.2000;0.7513;0.5338;
-84.9000;0.7546;0.5387;
-84.6000;0.7481;0.5338;
-84.3000;0.7513;0.5387;
-84.0000;0.7521;0.5460;
-83.7000;0.7521;0.5509;
-83.4000;0.7530;0.5558;
-83.1000;0.7538;0.5485;
-82.8000;0.7497;0.5387;
-82.5000;0.7513;0.5533;
-82.2000;0.7538;0.5582;
-81.9000;0.7497;0.5485;
-81.6000;0.7497;0.5460;
-81.3000;0.7521;0.5436;
-81.0000;0.7513;0.5387;
-80.7000;0.7554;0.5412;
-80.4000;0.7505;0.5338;
-80.1000;0.7513;0.5387;
-79.8000;0.7562;0.5533;
-79.5000;0.7521;0.5485;
-79.2000;0.7505;0.5460;
-78.9000;0.7521;0.5533;
-78.6000;0.7513;0.5485;
-78.3000;0.7513;0.5412;
-78.0000;0.7521;0.5412;
-77.7000;0.7489;0.5387;
-77.4000;0.7570;0.5655;
-77.1000;0.7521;0.5582;
-76.8000;0.7505;0.5607;
-76.5000;0.7521;0.5607;
-76.2000;0.7513;0.5607;
-75.9000;0.7497;0.5533;
-75.6000;0.7497;0.5485;
-75.3000;0.7497;0.5485;
-75.0000;0.7530;0.5558;
-74.7000;0.7530;0.5607;
-74.4000;0.7521;0.5655;
-74.1000;0.7538;0.5728;
-73.8000;0.7497;0.5631;
-73.5000;0.7464;0.5509;
-73.2000;0.7530;0.5631;
-72.9000;0.7521;0.5582;
-72.6000;0.7497;0.5460;
-72.3000;0.7530;0.5509;
-72.0000;0.7530;0.5631;
-71.7000;0.7505;0.5582;
-71.4000;0.7505;0.5509;
-71.1000;0.7505;0.5436;
-70.8000;0.7521;0.5509;
-70.5000;0.7464;0.5363;
-70.2000;0.7473;0.5387;
-69.9000;0.7497;0.5338;
-69.6000;0.7521;0.5241;
-69.3000;0.7521;0.5241;
-69.0000;0.7578;0.5412;
-68.7000;0.7489;0.5241;
-68.4000;0.7505;0.5338;
-68.1000;0.7481;0.5241;
-67.8000;0.7530;0.5436;
-67.5000;0.7513;0.5363;
-67.2000;0.7546;0.5460;
-66.9000;0.7513;0.5436;
-66.6000;0.7538;0.5509;
-66.3000;0.7489;0.5412;
-66.0000;0.7497;0.5363;
-65.7000;0.7521;0.5412;
-65.4000;0.7505;0.5460;
-65.1000;0.7505;0.5509;
-64.8000;0.7505;0.5582;
-64.5000;0.7513;0.5607;
-64.2000;0.7416;0.5314;
-63.9000;0.7497;0.5485;
-63.6000;0.7521;0.5533;
-63.3000;0.7481;0.5485;
-63.0000;0.7530;0.5582;
-62.7000;0.7481;0.5485;
-62.4000;0.7513;0.5485;
-62.1000;0.7432;0.5338;
-61.8000;0.7407;0.5217;
-61.5000;0.7505;0.5460;
-61.2000;0.7481;0.5387;
-60.9000;0.7521;0.5533;
-60.6000;0.7513;0.5509;
-60.3000;0.7497;0.5387;
-60.0000;0.7521;0.5412;
-59.7000;0.7505;0.5363;
-59.4000;0.7538;0.5363;
-59.1000;0.7521;0.5387;
-58.8000;0.7505;0.5338;
-58.5000;0.7513;0.5387;
-58.2000;0.7513;0.5363;
-57.9000;0.7521;0.5412;
-57.6000;0.7505;0.5436;
-57.3000;0.7497;0.5436;
-57.0000;0.7513;0.5436;
-56.7000;0.7530;0.5412;
-56.4000;0.7521;0.5412;
-56.1000;0.7505;0.5412;
-55.8000;0.7513;0.5582;
-55.5000;0.7505;0.5509;
-55.2000;0.7505;0.5533;
-54.9000;0.7505;0.5436;
-54.6000;0.7497;0.5338;
-54.3000;0.7505;0.5387;
-54.0000;0.7521;0.5387;
-53.7000;0.7505;0.5363;
-53.4000;0.7546;0.5412;
-53.1000;0.7530;0.5363;
-52.8000;0.7521;0.5314;
-52.5000;0.7521;0.5241;
-52.2000;0.7505;0.5192;
-51.9000;0.7513;0.5168;
-51.6000;0.7505;0.5290;
-51.3000;0.7521;0.5290;
-51.0000;0.7497;0.5217;
-50.7000;0.7497;0.5314;
-50.4000;0.7513;0.5314;
-50.1000;0.7513;0.5363;
-49.8000;0.7505;0.5241;
-49.5000;0.7530;0.5338;
-49.2000;0.7521;0.5412;
-48.9000;0.7505;0.5509;
-48.6000;0.7497;0.5582;
-48.3000;0.7521;0.5655;
-48.0000;0.7448;0.5436;
-47.7000;0.7562;0.5753;
-47.4000;0.7505;0.5582;
-47.1000;0.7505;0.5485;
-46.8000;0.7521;0.5485;
-46.5000;0.7473;0.5290;
-46.2000;0.7570;0.5363;
-45.9000;0.7521;0.5241;
-45.6000;0.7505;0.5363;
-45.3000;0.7473;0.5290;
-45.0000;0.7505;0.5363;
-44.7000;0.7546;0.5412;
-44.4000;0.7489;0.5338;
-44.1000;0.7530;0.5412;
-43.8000;0.7505;0.5387;
-43.5000;0.7521;0.5412;
-43.2000;0.7538;0.5460;
-42.9000;0.7521;0.5387;
-42.6000;0.7513;0.5436;
-42.3000;0.7554;0.5436;
-42.0000;0.7513;0.5265;
-41.7000;0.7505;0.5265;
-41.4000;0.7521;0.5290;
-41.1000;0.7513;0.5290;
-40.8000;0.7521;0.5436;
-40.5000;0.7513;0.5387;
-40.2000;0.7538;0.5338;
-39.9000;0.7505;0.5265;
-39.6000;0.7505;0.5143;
-39.3000;0.7513;0.5119;
-39.0000;0.7497;0.4948;
-38.7000;0.7513;0.5095;
-38.4000;0.7513;0.5119;
-38.1000;0.7521;0.5143;
-37.8000;0.7546;0.5192;
-37.5000;0.7489;0.5192;
-37.2000;0.7513;0.5314;
-36.9000;0.7489;0.5314;
-36.6000;0.7513;0.5387;
-36.3000;0.7497;0.5387;
-36.0000;0.7497;0.5314;
-35.7000;0.7505;0.5338;
-35.4000;0.7513;0.5363;
-35.1000;0.7513;0.5436;
-34.8000;0.7505;0.5460;
-34.5000;0.7497;0.5485;
-34.2000;0.7538;0.5558;
-33.9000;0.7521;0.5436;
-33.6000;0.7521;0.5436;
-33.3000;0.7497;0.5412;
-33.0000;0.7521;0.5485;
-32.7000;0.7513;0.5412;
-32.4000;0.7562;0.5533;
-32.1000;0.7530;0.5387;
-31.8000;0.7513;0.5363;
-31.5000;0.7554;0.5485;
-31.2000;0.7513;0.5387;
-30.9000;0.7505;0.5290;
-30.6000;0.7521;0.5290;
-30.3000;0.7513;0.5241;
-30.0000;0.7448;0.5095;
-29.7000;0.7513;0.5314;
-29.4000;0.7554;0.5412;
-29.1000;0.7505;0.5290;
-28.8000;0.7505;0.5338;
-28.5000;0.7521;0.5290;
-28.2000;0.7497;0.5290;
-27.9000;0.7497;0.5338;
-27.6000;0.7521;0.5412;
-27.3000;0.7513;0.5436;
-27.0000;0.7505;0.5314;
-26.7000;0.7497;0.5241;
-26.4000;0.7497;0.5168;
-26.1000;0.7497;0.5143;
-25.8000;0.7497;0.5192;
-25.5000;0.7497;0.5143;
-25.2000;0.7513;0.5217;
-24.9000;0.7505;0.5314;
-24.6000;0.7505;0.5314;
-24.3000;0.7505;0.5338;
-24.0000;0.7505;0.5387;
-23.7000;0.7546;0.5314;
-23.4000;0.7521;0.5241;
-23.1000;0.7513;0.5241;
-22.8000;0.7505;0.5314;
-22.5000;0.7530;0.5363;
-22.2000;0.7521;0.5387;
-21.9000;0.7513;0.5363;
-21.6000;0.7513;0.5363;
-21.3000;0.7513;0.5387;
-21.0000;0.7521;0.5290;
-20.7000;0.7505;0.5290;
-20.4000;0.7513;0.5290;
-20.1000;0.7505;0.5290;
-19.8000;0.7513;0.5314;
-19.5000;0.7497;0.5192;
-19.2000;0.7521;0.5217;
-18.9000;0.7513;0.5192;
-18.6000;0.7513;0.5314;
-18.3000;0.7505;0.5387;
-18.0000;0.7513;0.5485;
-17.7000;0.7521;0.5509;
-17.4000;0.7513;0.5412;
-17.1000;0.7521;0.5363;
-16.8000;0.7513;0.5387;
-16.5000;0.7505;0.5412;
-16.2000;0.7505;0.5338;
-15.9000;0.7513;0.5314;
-15.6000;0.7521;0.5314;
-15.3000;0.7489;0.5290;
-15.0000;0.7530;0.5363;
-14.7000;0.7521;0.5217;
-14.4000;0.7497;0.5168;
-14.1000;0.7505;0.5217;
-13.8000;0.7513;0.5241;
-13.5000;0.7521;0.5217;
-13.2000;0.7521;0.5143;
-12.9000;0.7497;0.5022;
-12.6000;0.7505;0.5022;
-12.3000;0.7489;0.5095;
-12.0000;0.7424;0.4924;
-11.7000;0.7497;0.5168;
-11.4000;0.7521;0.5143;
-11.1000;0.7497;0.5143;
-10.8000;0.7513;0.5192;
-10.5000;0.7497;0.5241;
-10.2000;0.7513;0.5265;
-9.9000;0.7521;0.5363;
-9.6000;0.7513;0.5363;
-9.3000;0.7497;0.5387;
-9.0000;0.7505;0.5363;
-8.7000;0.7513;0.5363;
-8.4000;0.7521;0.5436;
-8.1000;0.7489;0.5412;
-7.8000;0.7505;0.5460;
-7.5000;0.7513;0.5387;
-7.2000;0.7521;0.5412;
-6.9000;0.7489;0.5338;
-6.6000;0.7513;0.5509;
-6.3000;0.7521;0.5558;
-6.0000;0.7513;0.5533;
-5.7000;0.7530;0.5582;
-5.4000;0.7399;0.5265;
-5.1000;0.7497;0.5485;
-4.8000;0.7521;0.5582;
-4.5000;0.7505;0.5582;
-4.2000;0.7521;0.5533;
-3.9000;0.7481;0.5460;
-3.6000;0.7521;0.5412;
-3.3000;0.7521;0.5387;
-3.0000;0.7497;0.5338;
-2.7000;0.7497;0.5412;
-2.4000;0.7513;0.5533;
-2.1000;0.7489;0.5485;
-1.8000;0.7497;0.5460;
-1.5000;0.7497;0.5582;
-1.2000;0.7505;0.5582;
-0.9000;0.7505;0.5582;
-0.6000;0.7505;0.5607;
-0.3000;0.7497;0.5631;
0.0000;0.7497;0.5631;
0.3000;0.7652;0.5607;
0.6000;0.7725;0.5777;
0.9000;0.7888;0.6216;
1.2000;0.7880;0.6314;
1.5000;0.7961;0.6557;
1.8000;0.7993;0.6679;
2.1000;0.8050;0.6777;
2.4000;0.8067;0.6923;
2.7000;0.8091;0.7191;
3.0000;0.8107;0.7289;
3.3000;0.8132;0.7410;
3.6000;0.8140;0.7581;
3.9000;0.8156;0.7752;
4.2000;0.8181;0.7776;
4.5000;0.8189;0.7727;
4.8000;0.8189;0.7727;
5.1000;0.8181;0.7825;
5.4000;0.8197;0.7874;
5.7000;0.8197;0.7776;
6.0000;0.8221;0.7825;
6.3000;0.8213;0.7776;
6.6000;0.8221;0.7849;
6.9000;0.8238;0.7825;
7.2000;0.8230;0.7849;
7.5000;0.8246;0.7874;
7.8000;0.8262;0.7922;
8.1000;0.8270;0.7971;
8.4000;0.8254;0.7922;
8.7000;0.8270;0.7996;
9.0000;0.8270;0.8020;
9.3000;0.8270;0.7947;
9.6000;0.8287;0.7922;
9.9000;0.8287;0.7971;
10.2000;0.8270;0.7947;
10.5000;0.8303;0.7996;
10.8000;0.8287;0.8020;
11.1000;0.8295;0.8044;
11.4000;0.8287;0.8020;
11.7000;0.8319;0.8117;
12.0000;0.8295;0.7971;
12.3000;0.8262;0.7825;
12.6000;0.8287;0.7947;
12.9000;0.8319;0.7996;
13.2000;0.8311;0.7971;
13.5000;0.8295;0.7947;
13.8000;0.8295;0.7922;
14.1000;0.8319;0.7947;
14.4000;0.8319;0.7996;
14.7000;0.8311;0.7922;
15.0000;0.8327;0.7776;
15.3000;0.8246;0.7557;
15.6000;0.8335;0.7825;
15.9000;0.8319;0.7825;
16.2000;0.8344;0.7874;
16.5000;0.8319;0.7801;
16.8000;0.8360;0.7849;
17.1000;0.8344;0.7849;
17.4000;0.8352;0.7922;
17.7000;0.8344;0.7898;
18.0000;0.8352;0.7898;
18.3000;0.8360;0.7898;
18.6000;0.8392;0.7947;
18.9000;0.8376;0.7801;
19.2000;0.8319;0.7630;
19.5000;0.8368;0.7801;
19.8000;0.8352;0.7776;
20.1000;0.8384;0.7776;
20.4000;0.8368;0.7776;
20.7000;0.8376;0.7874;
21.0000;0.8392;0.7971;
21.3000;0.8482;0.8191;
21.6000;0.8392;0.7849;
21.9000;0.8344;0.7703;
22.2000;0.8392;0.7825;
22.5000;0.8490;0.7898;
22.8000;0.8409;0.7727;
23.1000;0.8466;0.7874;
23.4000;0.8409;0.7825;
23.7000;0.8384;0.7922;
24.0000;0.8400;0.7922;
24.3000;0.8392;0.7825;
24.6000;0.8409;0.7825;
24.9000;0.8409;0.7752;
25.2000;0.8360;0.7703;
25.5000;0.8392;0.7801;
25.8000;0.8457;0.7874;
26.1000;0.8352;0.7532;
26.4000;0.8417;0.7727;
26.7000;0.8295;0.7508;
27.0000;0.8384;0.7776;
27.3000;0.8409;0.7922;
27.6000;0.8352;0.7703;
27.9000;0.8400;0.7752;
28.2000;0.8384;0.7679;
28.5000;0.8417;0.7605;
28.8000;0.8392;0.7605;
29.1000;0.8409;0.7679;
29.4000;0.8409;0.7630;
29.7000;0.8409;0.7557;
30.0000;0.8409;0.7605;
30.3000;0.8409;0.7679;
30.6000;0.8400;0.7727;
30.9000;0.8425;0.7776;
31.2000;0.8400;0.7703;
31.5000;0.8409;0.7703;
31.8000;0.8425;0.7703;
32.1000;0.8417;0.7703;
32.4000;0.8417;0.7679;
32.7000;0.8392;0.7703;
33.0000;0.8400;0.7703;
33.3000;0.8400;0.7727;
33.6000;0.8433;0.7752;
33.9000;0.8400;0.7776;
34.2000;0.8368;0.7727;
34.5000;0.8400;0.7752;
34.8000;0.8425;0.7825;
35.1000;0.8392;0.7703;
35.4000;0.8425;0.7776;
35.7000;0.8425;0.7752;
36.0000;0.8409;0.7752;
36.3000;0.8490;0.7947;
36.6000;0.8417;0.7727;
36.9000;0.8400;0.7679;
37.2000;0.8400;0.7630;
37.5000;0.8409;0.7727;
37.8000;0.8409;0.7727;
38.1000;0.8392;0.7703;
38.4000;0.8417;0.7703;
38.7000;0.8441;0.7703;
39.0000;0.8474;0.7752;
39.3000;0.8441;0.7654;
39.6000;0.8425;0.7605;
39.9000;0.8417;0.7703;
40.2000;0.8457;0.7874;
40.5000;0.8400;0.7727;
40.8000;0.8417;0.7776;
41.1000;0.8425;0.7776;
41.4000;0.8400;0.7874;
41.7000;0.8506;0.8093;
42.0000;0.8449;0.7922;
42.3000;0.8433;0.7825;
42.6000;0.8433;0.7947;
42.9000;0.8425;0.7971;
43.2000;0.8425;0.8020;
43.5000;0.8400;0.7971;
43.8000;0.8417;0.7874;
44.1000;0.8360;0.7630;
44.4000;0.8425;0.7801;
44.7000;0.8433;0.7874;
45.0000;0.8449;0.7874;
45.3000;0.8457;0.7849;
45.6000;0.8400;0.7776;
45.9000;0.8425;0.7801;
46.2000;0.8417;0.7849;
46.5000;0.8433;0.7898;
46.8000;0.8417;0.7801;
47.1000;0.8409;0.7776;
47.4000;0.8409;0.7752;
47.7000;0.8449;0.7898;
48.0000;0.8409;0.7801;
48.3000;0.8425;0.7874;
48.6000;0.8474;0.7947;
48.9000;0.8531;0.8069;
49.2000;0.8433;0.7776;
49.5000;0.8433;0.7752;
49.8000;0.8417;0.7679;
50.1000;0.8441;0.7801;
50.4000;0.8425;0.7874;
50.7000;0.8360;0.7654;
51.0000;0.8409;0.7801;
51.3000;0.8417;0.7874;
51.6000;0.8441;0.7849;
51.9000;0.8417;0.7801;
52.2000;0.8457;0.7922;
52.5000;0.8425;0.7801;
52.8000;0.8400;0.7898;
53.1000;0.8409;0.7947;
53.4000;0.8392;0.7874;
53.7000;0.8433;0.7922;
54.0000;0.8425;0.7849;
54.3000;0.8425;0.7801;
54.6000;0.8425;0.7776;
54.9000;0.8400;0.7801;
55.2000;0.8449;0.7971;
55.5000;0.8417;0.7898;
55.8000;0.8400;0.7801;
56.1000;0.8425;0.7898;
56.4000;0.8433;0.7825;
56.7000;0.8425;0.7801;
57.0000;0.8417;0.7849;
57.3000;0.8417;0.7898;
57.6000;0.8425;0.7898;
57.9000;0.8425;0.7971;
58.2000;0.8409;0.7996;
58.5000;0.8409;0.7971;
58.8000;0.8409;0.8020;
59.1000;0.8457;0.8069;
59.4000;0.8409;0.8044;
59.7000;0.8425;0.7996;
60.0000;0.8425;0.7922;
60.3000;0.8441;0.7922;
60.6000;0.8400;0.7703;
60.9000;0.8425;0.7727;
61.2000;0.8425;0.7727;
61.5000;0.8425;0.7727;
61.8000;0.8417;0.7727;
62.1000;0.8417;0.7727;
62.4000;0.8417;0.7776;
62.7000;0.8425;0.7801;
63.0000;0.8425;0.7874;
63.3000;0.8417;0.7922;
63.6000;0.8425;0.7898;
63.9000;0.8425;0.7874;
64.2000;0.8433;0.7947;
64.5000;0.8409;0.7849;
64.8000;0.8433;0.7801;
65.1000;0.8409;0.7752;
65.4000;0.8417;0.7727;
65.7000;0.8409;0.7703;
66.0000;0.8384;0.7605;
66.3000;0.8417;0.7605;
66.6000;0.8417;0.7630;
66.9000;0.8425;0.7605;
67.2000;0.8417;0.7654;
67.5000;0.8417;0.7727;
67.8000;0.8523;0.7996;
68.1000;0.8425;0.7703;
68.4000;0.8384;0.7581;
68.7000;0.8425;0.7727;
69.0000;0.8433;0.7801;
69.3000;0.8474;0.7947;
69.6000;0.8417;0.7776;
69.9000;0.8409;0.7703;
70.2000;0.8417;0.7654;
70.5000;0.8368;0.7605;
70.8000;0.8425;0.7727;
71.1000;0.8417;0.7679;
71.4000;0.8409;0.7679;
71.7000;0.8417;0.7752;
72.0000;0.8425;0.7849;
72.3000;0.8409;0.7825;
72.6000;0.8400;0.7776;
72.9000;0.8425;0.7825;
73.2000;0.8425;0.7752;
73.5000;0.8400;0.7605;
73.8000;0.8400;0.7605;
74.1000;0.8425;0.7703;
74.4000;0.8400;0.7679;
74.7000;0.8417;0.7727;
75.0000;0.8400;0.7679;
75.3000;0.8409;0.7752;
75.6000;0.8400;0.7801;
75.9000;0.8409;0.7874;
76.2000;0.8376;0.7776;
76.5000;0.8400;0.7752;
76.8000;0.8457;0.7874;
77.1000;0.8425;0.7679;
77.4000;0.8417;0.7679;
77.7000;0.8409;0.7679;
78.0000;0.8417;0.7630;
78.3000;0.8417;0.7630;
78.6000;0.8417;0.7679;
78.9000;0.8449;0.7727;
79.2000;0.8409;0.7752;
79.5000;0.8425;0.7776;
79.8000;0.8409;0.7727;
80.1000;0.8400;0.7679;
80.4000;0.8400;0.7874;
80.7000;0.8409;0.7971;
81.0000;0.8409;0.7947;
81.3000;0.8417;0.7874;
81.6000;0.8433;0.7801;
81.9000;0.8400;0.7679;
82.2000;0.8425;0.7752;
82.5000;0.8417;0.7776;
82.8000;0.8441;0.7752;
83.1000;0.8425;0.7776;
83.4000;0.8409;0.7776;
83.7000;0.8392;0.7752;
84.0000;0.8400;0.7849;
84.3000;0.8433;0.7947;
84.6000;0.8417;0.7898;
84.9000;0.8409;0.7874;
85.2000;0.8417;0.7874;
85.5000;0.8409;0.7898;
85.8000;0.8392;0.7849;
86.1000;0.8400;0.7801;
86.4000;0.8400;0.7801;
86.7000;0.8425;0.7801;
87.0000;0.8400;0.7801;
87.3000;0.8417;0.7874;
87.6000;0.8319;0.7679;
87.9000;0.8417;0.7947;
88.2000;0.8425;0.7971;
88.5000;0.8482;0.8020;
88.8000;0.8425;0.7947;
89.1000;0.8417;0.7825;
89.4000;0.8417;0.7849;
89.7000;0.8417;0.7752;
90.0000;0.8409;0.7752;
90.3000;0.8400;0.7776;
90.6000;0.8425;0.7801;
90.9000;0.8384;0.7727;
91.2000;0.8433;0.7776;
91.5000;0.8417;0.7752;
91.8000;0.8384;0.7752;
92.1000;0.8425;0.7849;
92.4000;0.8417;0.7825;
92.7000;0.8409;0.7679;
93.0000;0.8425;0.7752;
93.3000;0.8417;0.7727;
93.6000;0.8425;0.7679;
93.9000;0.8327;0.7435;
94.2000;0.8409;0.7605;
94.5000;0.8474;0.7874;
94.8000;0.8571;0.8215;
95.1000;0.8417;0.7922;
95.4000;0.8392;0.7922;
95.7000;0.8417;0.7971;
96.0000;0.8409;0.8044;
96.3000;0.8409;0.8044;
96.6000;0.8400;0.8093;
96.9000;0.8400;0.8117;
97.2000;0.8392;0.8044;
97.5000;0.8400;0.7947;
97.8000;0.8409;0.7922;
98.1000;0.8417;0.7922;
98.4000;0.8409;0.7752;
98.7000;0.8425;0.7776;
99.0000;0.8400;0.7776;
99.3000;0.8441;0.7776;
99.6000;0.8433;0.7776;
99.9000;0.8417;0.7727;
100.2000;0.8409;0.7703;
100.5000;0.8425;0.7679;
100.8000;0.8409;0.7654;
101.1000;0.8409;0.7679;
101.4000;0.8409;0.7630;
101.7000;0.8409;0.7703;
102.0000;0.8400;0.7703;
102.3000;0.8409;0.7727;
102.6000;0.8417;0.7801;
102.9000;0.8384;0.7727;
103.2000;0.8425;0.7752;
103.5000;0.8417;0.7703;
103.8000;0.8417;0.7752;
104.1000;0.8352;0.7630;
104.4000;0.8409;0.7874;
104.7000;0.8384;0.7801;
105.0000;0.8417;0.7947;
105.3000;0.8409;0.7898;
105.6000;0.8409;0.7849;
105.9000;0.8449;0.7947;
106.2000;0.8409;0.7898;
106.5000;0.8409;0.7898;
106.8000;0.8400;0.7898;
107.1000;0.8392;0.7874;
107.4000;0.8368;0.7801;
107.7000;0.8400;0.7874;
108.0000;0.8400;0.7874;
108.3000;0.8400;0.7898;
108.6000;0.8417;0.7801;
108.9000;0.8425;0.7679;
109.2000;0.8417;0.7703;
109.5000;0.8409;0.7703;
109.8000;0.8417;0.7776;
110.1000;0.8409;0.7752;
110.4000;0.8400;0.7679;
110.7000;0.8425;0.7605;
111.0000;0.8360;0.7386;
111.3000;0.8409;0.7605;
111.6000;0.8368;0.7532;
111.9000;0.8400;0.7557;
112.2000;0.8441;0.7630;
112.5000;0.8384;0.7581;
112.8000;0.8400;0.7557;
113.1000;0.8384;0.7557;
113.4000;0.8400;0.7581;
113.7000;0.8417;0.7605;
114.0000;0.8425;0.7630;
114.3000;0.8417;0.7581;
114.6000;0.8400;0.7532;
114.9000;0.8409;0.7605;
115.2000;0.8425;0.7630;
115.5000;0.8417;0.7532;
115.8000;0.8620;0.8044;
116.1000;0.8344;0.7532;
116.4000;0.8417;0.7703;
116.7000;0.8409;0.7654;
117.0000;0.8433;0.7727;
117.3000;0.8474;0.7849;
117.6000;0.8400;0.7727;
117.9000;0.8335;0.7630;
118.2000;0.8433;0.7874;
118.5000;0.8392;0.7801;
118.8000;0.8425;0.7776;
119.1000;0.8392;0.7654;
119.4000;0.8400;0.7679;
119.7000;0.8457;0.7801;
120.0000;0.8384;0.7654;
120.3000;0.8409;0.7752;
120.6000;0.8433;0.7825;
120.9000;0.8376;0.7654;
121.2000;0.8392;0.7654;
121.5000;0.8417;0.7752;
121.8000;0.8368;0.7630;
122.1000;0.8392;0.7752;
122.4000;0.8392;0.7727;
122.7000;0.8400;0.7703;
123.0000;0.8417;0.7727;
123.3000;0.8400;0.7703;
123.6000;0.8409;0.7703;
123.9000;0.8409;0.7776;
124.2000;0.8425;0.7752;
124.5000;0.8392;0.7825;
124.8000;0.8392;0.7801;
125.1000;0.8392;0.7922;
125.4000;0.8417;0.7898;
125.7000;0.8400;0.7776;
126.0000;0.8344;0.7581;
126.3000;0.8409;0.7703;
126.6000;0.8400;0.7654;
126.9000;0.8457;0.7825;
127.2000;0.8384;0.7727;
127.5000;0.8392;0.7752;
127.8000;0.8392;0.7679;
128.1000;0.8400;0.7727;
128.4000;0.8384;0.7727;
128.7000;0.8392;0.7654;
129.0000;0.8433;0.7752;
129.3000;0.8400;0.7752;
129.6000;0.8400;0.7752;
129.9000;0.8400;0.7874;
130.2000;0.8400;0.7898;
130.5000;0.8392;0.7922;
130.8000;0.8409;0.7898;
131.1000;0.8400;0.7801;
131.4000;0.8409;0.7849;
131.7000;0.8400;0.7776;
132.0000;0.8417;0.7776;
132.3000;0.8400;0.7727;
132.6000;0.8417;0.7825;
132.9000;0.8417;0.7874;
133.2000;0.8409;0.7874;
133.5000;0.8376;0.7776;
133.8000;0.8409;0.7776;
134.1000;0.8425;0.7849;
134.4000;0.8449;0.7874;
134.7000;0.8392;0.7776;
135.0000;0.8400;0.7776;
135.3000;0.8376;0.7703;
135.6000;0.8409;0.7825;
135.9000;0.8400;0.7776;
136.2000;0.8400;0.7825;
136.5000;0.8384;0.7825;
136.8000;0.8400;0.7898;
137.1000;0.8417;0.7898;
137.4000;0.8384;0.7922;
137.7000;0.8409;0.7996;
138.0000;0.8392;0.8044;
138.3000;0.8392;0.8020;
138.6000;0.8409;0.8044;
138.9000;0.8466;0.8117;
139.2000;0.8384;0.7922;
139.5000;0.8490;0.8191;
139.8000;0.8368;0.7801;
140.1000;0.8425;0.7849;
140.4000;0.8417;0.7752;
140.7000;0.8417;0.7801;
141.0000;0.8376;0.7654;
141.3000;0.8466;0.7849;
141.6000;0.8400;0.7654;
141.9000;0.8400;0.7630;
142.2000;0.8392;0.7581;
142.5000;0.8400;0.7557;
142.8000;0.8433;0.7630;
143.1000;0.8474;0.7654;
143.4000;0.8400;0.7532;
143.7000;0.8417;0.7532;
144.0000;0.8417;0.7654;
144.3000;0.8425;0.7801;
144.6000;0.8441;0.7874;
144.9000;0.8400;0.7849;
145.2000;0.8392;0.7898;
145.5000;0.8400;0.7825;
145.8000;0.8457;0.7874;
146.1000;0.8368;0.7752;
146.4000;0.8384;0.7752;
146.7000;0.8400;0.7801;
147.0000;0.8409;0.7874;
147.3000;0.8392;0.7776;
147.6000;0.8466;0.7922;
147.9000;0.8417;0.7947;
148.2000;0.8433;0.7971;
148.5000;0.8417;0.7825;
148.8000;0.8417;0.7898;
149.1000;0.8425;0.7898;
149.4000;0.8441;0.7947;
149.7000;0.8425;0.7971;
150.0000;0.8409;0.7996;
150.3000;0.8409;0.7874;
150.6000;0.8392;0.7776;
150.9000;0.8392;0.7898;
151.2000;0.8417;0.7947;
151.5000;0.8400;0.7898;
151.8000;0.8400;0.7849;
152.1000;0.8409;0.7825;
152.4000;0.8409;0.7898;
152.7000;0.8376;0.7849;
153.0000;0.8392;0.7849;
153.3000;0.8392;0.7874;
153.6000;0.8417;0.7874;
153.9000;0.8384;0.7801;
154.2000;0.8392;0.7752;
154.5000;0.8352;0.7752;
154.8000;0.8392;0.7776;
155.1000;0.8384;0.7825;
155.4000;0.8376;0.7776;
155.7000;0.8409;0.7776;
156.0000;0.8384;0.7679;
156.3000;0.8400;0.7679;
156.6000;0.8376;0.7776;
156.9000;0.8376;0.7825;
157.2000;0.8409;0.7922;
157.5000;0.8400;0.7898;
157.8000;0.8392;0.7874;
158.1000;0.8376;0.7801;
158.4000;0.8400;0.7874;
158.7000;0.8417;0.7922;
159.0000;0.8409;0.7825;
159.3000;0.8409;0.7825;
159.6000;0.8417;0.7898;
159.9000;0.8392;0.7874;
160.2000;0.8392;0.7971;
160.5000;0.8392;0.7947;
160.8000;0.8433;0.8020;
161.1000;0.8425;0.8020;
161.4000;0.8360;0.7849;
161.7000;0.8360;0.7922;
162.0000;0.8368;0.7996;
162.3000;0.8400;0.7971;
162.6000;0.8392;0.7947;
162.9000;0.8392;0.7874;
163.2000;0.8417;0.7947;
163.5000;0.8400;0.7898;
163.8000;0.8417;0.7922;
164.1000;0.8327;0.7776;
164.4000;0.8327;0.7801;
164.7000;0.8425;0.7996;
165.0000;0.8425;0.7947;
165.3000;0.8400;0.7898;
165.6000;0.8384;0.7727;
165.9000;0.8409;0.7703;
166.2000;0.8400;0.7679;
166.5000;0.8384;0.7581;
166.8000;0.8400;0.7581;
167.1000;0.8392;0.7557;
167.4000;0.8409;0.7557;
167.7000;0.8417;0.7605;
168.0000;0.8392;0.7532;
168.3000;0.8409;0.7581;
168.6000;0.8392;0.7557;
168.9000;0.8392;0.7581;
169.2000;0.8409;0.7654;
169.5000;0.8400;0.7727;
169.8000;0.8376;0.7679;
170.1000;0.8400;0.7752;
170.4000;0.8400;0.7679;
170.7000;0.8400;0.7703;
171.0000;0.8392;0.7654;
171.3000;0.8400;0.7630;
171.6000;0.8400;0.7727;
171.9000;0.8368;0.7727;
172.2000;0.8384;0.7776;
172.5000;0.8384;0.7825;
172.8000;0.8392;0.7776;
173.1000;0.8392;0.7849;
173.4000;0.8409;0.7898;
173.7000;0.8400;0.7849;
174.0000;0.8384;0.7801;
174.3000;0.8368;0.7776;
174.6000;0.8400;0.7874;
174.9000;0.8384;0.7752;
175.2000;0.8392;0.7849;
175.5000;0.8376;0.7801;
175.8000;0.8400;0.7752;
176.1000;0.8417;0.7776;
176.4000;0.8400;0.7801;
176.7000;0.8376;0.7727;
177.0000;0.8392;0.7849;
177.3000;0.8400;0.7898;
177.6000;0.8400;0.7874;
177.9000;0.8384;0.7752;
178.2000;0.8400;0.7825;
178.5000;0.8392;0.7727;
178.8000;0.8409;0.7752;
179.1000;0.8409;0.7752;
179.4000;0.8376;0.7776;
179.7000;0.8392;0.7776;
180.0000;0.8417;0.7776;
180.3000;0.8400;0.7776;
180.6000;0.8400;0.7703;
180.9000;0.8392;0.7752;
181.2000;0.8392;0.7752;
181.5000;0.8384;0.7727;
181.8000;0.8376;0.7703;
182.1000;0.8368;0.7703;
182.4000;0.8384;0.7776;
182.7000;0.8392;0.7874;
183.0000;0.8400;0.7898;
183.3000;0.8409;0.7898;
183.6000;0.8417;0.7849;
183.9000;0.8384;0.7679;
184.2000;0.8417;0.7874;
184.5000;0.8417;0.7922;
184.8000;0.8384;0.7874;
185.1000;0.8417;0.7898;
185.4000;0.8392;0.7776;
185.7000;0.8384;0.7752;
186.0000;0.8392;0.7801;
186.3000;0.8441;0.7849;
186.6000;0.8400;0.7801;
186.9000;0.8441;0.7874;
187.2000;0.8409;0.7801;
187.5000;0.8409;0.7752;
187.8000;0.8409;0.7703;
188.1000;0.8352;0.7581;
188.4000;0.8352;0.7630;
188.7000;0.8392;0.7679;
189.0000;0.8392;0.7752;
189.3000;0.8400;0.7703;
189.6000;0.8392;0.7703;
189.9000;0.8392;0.7679;
190.2000;0.8400;0.7679;
190.5000;0.8392;0.7703;
190.8000;0.8384;0.7752;
191.1000;0.8384;0.7703;
191.4000;0.8384;0.7703;
191.7000;0.8409;0.7825;
192.0000;0.8384;0.7776;
192.3000;0.8400;0.7825;
192.6000;0.8400;0.7703;
192.9000;0.8400;0.7679;
193.2000;0.8392;0.7605;
193.5000;0.8384;0.7532;
193.8000;0.8400;0.7557;
194.1000;0.8409;0.7630;
194.4000;0.8409;0.7605;
194.7000;0.8392;0.7605;
195.0000;0.8417;0.7752;
195.3000;0.8417;0.7727;
195.6000;0.8392;0.7703;
195.9000;0.8400;0.7703;
196.2000;0.8392;0.7654;
196.5000;0.8400;0.7630;
196.8000;0.8400;0.7605;
197.1000;0.8400;0.7557;
197.4000;0.8384;0.7557;
197.7000;0.8400;0.7605;
198.0000;0.8376;0.7508;
198.3000;0.8368;0.7557;
198.6000;0.8376;0.7679;
198.9000;0.8392;0.7776;
199.2000;0.8384;0.7776;
199.5000;0.8384;0.7752;
199.8000;0.8400;0.7801;
200.1000;0.8384;0.7727;
200.4000;0.8392;0.7654;
200.7000;0.8384;0.7703;
201.0000;0.8376;0.7703;
201.3000;0.8409;0.7703;
201.6000;0.8384;0.7557;
201.9000;0.8392;0.7679;
202.2000;0.8409;0.7776;
202.5000;0.8425;0.7776;
202.8000;0.8376;0.7727;
203.1000;0.8409;0.7776;
203.4000;0.8376;0.7630;
203.7000;0.8384;0.7654;
204.0000;0.8392;0.7654;
204.3000;0.8368;0.7605;
204.6000;0.8376;0.7581;
204.9000;0.8498;0.7898;
205.2000;0.8376;0.7654;
205.5000;0.8376;0.7703;
205.8000;0.8425;0.7752;
206.1000;0.8384;0.7630;
206.4000;0.8392;0.7679;
206.7000;0.8400;0.7703;
207.0000;0.8384;0.7630;
207.3000;0.8368;0.7654;
207.6000;0.8384;0.7654;
207.9000;0.8352;0.7484;
208.2000;0.8376;0.7557;
208.5000;0.8368;0.7484;
208.8000;0.8352;0.7508;
209.1000;0.8392;0.7581;
209.4000;0.8441;0.7727;
209.7000;0.8376;0.7654;
210.0000;0.8368;0.7654;
210.3000;0.8384;0.7581;
210.6000;0.8400;0.7532;
210.9000;0.8417;0.7484;
211.2000;0.8384;0.7410;
211.5000;0.8376;0.7435;
211.8000;0.8384;0.7484;
212.1000;0.8376;0.7484;
212.4000;0.8384;0.7605;
212.7000;0.8384;0.7605;
213.0000;0.8384;0.7703;
213.3000;0.8368;0.7654;
213.6000;0.8376;0.7605;
213.9000;0.8384;0.7605;
214.2000;0.8368;0.7532;
214.5000;0.8368;0.7557;
214.8000;0.8344;0.7484;
215.1000;0.8376;0.7484;
215.4000;0.8376;0.7410;
215.7000;0.8384;0.7459;
216.0000;0.8376;0.7508;
216.3000;0.8376;0.7557;
216.6000;0.8376;0.7581;
216.9000;0.8376;0.7679;
217.2000;0.8384;0.7752;
217.5000;0.8392;0.7752;
217.8000;0.8368;0.7752;
218.1000;0.8384;0.7825;
218.4000;0.8376;0.7825;
218.7000;0.8384;0.7874;
219.0000;0.8409;0.7971;
219.3000;0.8384;0.7947;
219.6000;0.8384;0.7922;
219.9000;0.8392;0.7922;
220.2000;0.8368;0.7849;
220.5000;0.8400;0.7898;
220.8000;0.8287;0.7654;
221.1000;0.8457;0.7922;
221.4000;0.8392;0.7801;
221.7000;0.8400;0.7752;
222.0000;0.8368;0.7727;
222.3000;0.8400;0.7752;
222.6000;0.8376;0.7679;
222.9000;0.8376;0.7679;
223.2000;0.8384;0.7679;
223.5000;0.8384;0.7752;
223.8000;0.8376;0.7679;
224.1000;0.8392;0.7801;
224.4000;0.8400;0.7825;
224.7000;0.8352;0.7654;
225.0000;0.8384;0.7776;
225.3000;0.8384;0.7825;
225.6000;0.8368;0.7801;
225.9000;0.8360;0.7703;
226.2000;0.8368;0.7752;
226.5000;0.8441;0.7874;
226.8000;0.8376;0.7654;
227.1000;0.8376;0.7654;
227.4000;0.8400;0.7630;
227.7000;0.8327;0.7484;
228.0000;0.8360;0.7605;
228.3000;0.8376;0.7654;
228.6000;0.8303;0.7484;
228.9000;0.8368;0.7679;
229.2000;0.8384;0.7776;
229.5000;0.8311;0.7630;
229.8000;0.8376;0.7727;
230.1000;0.8392;0.7727;
230.4000;0.8360;0.7654;
230.7000;0.8400;0.7752;
231.0000;0.8392;0.7727;
231.3000;0.8368;0.7630;
231.6000;0.8376;0.7581;
231.9000;0.8376;0.7679;
232.2000;0.8376;0.7679;
232.5000;0.8376;0.7654;
232.8000;0.8384;0.7679;
233.1000;0.8360;0.7679;
233.4000;0.8344;0.7654;
233.7000;0.8409;0.7825;
234.0000;0.8384;0.7752;
234.3000;0.8392;0.7776;
234.6000;0.8376;0.7727;
234.9000;0.8360;0.7776;
235.2000;0.8392;0.7776;
235.5000;0.8425;0.7922;
235.8000;0.8384;0.7849;
236.1000;0.8400;0.7849;
236.4000;0.8376;0.7752;
236.7000;0.8384;0.7727;
237.0000;0.8417;0.7874;
237.3000;0.8376;0.7801;
237.6000;0.8344;0.7654;
237.9000;0.8392;0.7801;
238.2000;0.8360;0.7703;
238.5000;0.8392;0.7654;
238.8000;0.8376;0.7605;
239.1000;0.8344;0.7508;
239.4000;0.8368;0.7581;
239.7000;0.8368;0.7605;
240.0000;0.8360;0.7581;
240.3000;0.8392;0.7630;
240.6000;0.8449;0.7874;
240.9000;0.8392;0.7825;
241.2000;0.8368;0.7801;
241.5000;0.8368;0.7825;
241.8000;0.8360;0.7898;
242.1000;0.8352;0.7898;
242.4000;0.8384;0.7849;
242.7000;0.8384;0.7801;
243.0000;0.8368;0.7776;
243.3000;0.8368;0.7703;
243.6000;0.8360;0.7727;
243.9000;0.8474;0.8020;
244.2000;0.8368;0.7727;
244.5000;0.8400;0.7752;
244.8000;0.8392;0.7703;
245.1000;0.8360;0.7557;
245.4000;0.8376;0.7557;
245.7000;0.8376;0.7557;
246.0000;0.8368;0.7630;
246.3000;0.8376;0.7752;
246.6000;0.8392;0.7727;
246.9000;0.8352;0.7630;
247.2000;0.8409;0.7801;
247.5000;0.8384;0.7727;
247.8000;0.8368;0.7752;
248.1000;0.8360;0.7752;
248.4000;0.8417;0.7825;
248.7000;0.8384;0.7727;
249.0000;0.8368;0.7703;
249.3000;0.8384;0.7679;
249.6000;0.8360;0.7581;
249.9000;0.8409;0.7801;
250.2000;0.8376;0.7874;
250.5000;0.8327;0.7752;
250.8000;0.8368;0.7922;
251.1000;0.8368;0.8069;
251.4000;0.8384;0.8093;
251.7000;0.8360;0.8142;
252.0000;0.8368;0.8142;
252.3000;0.8360;0.8142;
252.6000;0.8384;0.8166;
252.9000;0.8400;0.8166;
253.2000;0.8376;0.8069;
253.5000;0.8384;0.8142;
253.8000;0.8376;0.8117;
254.1000;0.8360;0.8044;
254.4000;0.8360;0.8093;
254.7000;0.8384;0.8117;
255.0000;0.8417;0.8069;
255.3000;0.8417;0.8142;
255.6000;0.8400;0.8069;
255.9000;0.8392;0.7996;
256.2000;0.8360;0.7874;
256.5000;0.8392;0.7922;
256.8000;0.8392;0.7874;
257.1000;0.8360;0.7825;
257.4000;0.8400;0.7922;
257.7000;0.8384;0.7971;
258.0000;0.8457;0.8069;
258.3000;0.8311;0.7752;
258.6000;0.8360;0.7922;
258.9000;0.8400;0.7971;
259.2000;0.8352;0.7898;
259.5000;0.8376;0.7922;
259.8000;0.8368;0.7971;
260.1000;0.8417;0.8020;
260.4000;0.8384;0.8044;
260.7000;0.8392;0.8044;
261.0000;0.8376;0.7996;
261.3000;0.8368;0.8020;
261.6000;0.8433;0.8142;
261.9000;0.8392;0.8117;
262.2000;0.8368;0.8142;
262.5000;0.8392;0.8191;
262.8000;0.8368;0.8093;
263.1000;0.8335;0.8093;
263.4000;0.8352;0.8093;
263.7000;0.8417;0.8312;
264.0000;0.8344;0.8166;
264.3000;0.8368;0.8093;
264.6000;0.8384;0.7971;
264.9000;0.8360;0.7922;
265.2000;0.8360;0.7947;
265.5000;0.8376;0.8020;
265.8000;0.8376;0.8044;
266.1000;0.8376;0.8093;
266.4000;0.8368;0.8093;
266.7000;0.8376;0.8142;
267.0000;0.8384;0.8093;
267.3000;0.8392;0.7996;
267.6000;0.8400;0.8020;
267.9000;0.8360;0.7971;
268.2000;0.8360;0.7898;
268.5000;0.8384;0.8069;
268.8000;0.8384;0.8117;
269.1000;0.8409;0.8142;
269.4000;0.8368;0.8117;
269.7000;0.8368;0.8166;
270.0000;0.8376;0.8142;
270.3000;0.8376;0.8044;
270.6000;0.8368;0.7971;
270.9000;0.8360;0.8020;
271.2000;0.8352;0.8020;
271.5000;0.8384;0.8117;
271.8000;0.8384;0.8093;
272.1000;0.8344;0.7922;
272.4000;0.8311;0.7825;
272.7000;0.8368;0.7996;
273.0000;0.8360;0.7996;
273.3000;0.8360;0.7971;
273.6000;0.8344;0.7922;
273.9000;0.8344;0.7849;
274.2000;0.8368;0.7898;
274.5000;0.8376;0.7849;
274.8000;0.8417;0.7874;
275.1000;0.8425;0.7971;
275.4000;0.8409;0.7922;
275.7000;0.8392;0.7922;
276.0000;0.8376;0.7849;
276.3000;0.8360;0.7898;
276.6000;0.8384;0.7874;
276.9000;0.8409;0.7922;
277.2000;0.8384;0.7825;
277.5000;0.8376;0.7801;
277.8000;0.8392;0.7922;
278.1000;0.8360;0.7922;
278.4000;0.8368;0.7898;
278.7000;0.8368;0.7922;
279.0000;0.8376;0.7947;
279.3000;0.8319;0.7874;
279.6000;0.8368;0.8020;
279.9000;0.8335;0.7971;
280.2000;0.8417;0.8117;
280.5000;0.8368;0.8069;
280.8000;0.8384;0.8191;
281.1000;0.8384;0.8093;
281.4000;0.8360;0.8093;
281.7000;0.8376;0.8093;
282.0000;0.8360;0.8020;
282.3000;0.8352;0.7922;
282.6000;0.8384;0.7898;
282.9000;0.8392;0.7898;
283.2000;0.8376;0.7849;
283.5000;0.8368;0.7874;
283.8000;0.8368;0.7874;
284.1000;0.8376;0.7947;
284.4000;0.8376;0.8020;
284.7000;0.8376;0.7996;
285.0000;0.8368;0.8020;
285.3000;0.8352;0.7971;
285.6000;0.8384;0.8069;
285.9000;0.8409;0.8117;
286.2000;0.8384;0.8020;
286.5000;0.8392;0.7947;
286.8000;0.8368;0.7825;
287.1000;0.8376;0.7752;
287.4000;0.8368;0.7776;
287.7000;0.8368;0.7849;
288.0000;0.8360;0.7849;
288.3000;0.8384;0.7874;
288.6000;0.8368;0.7849;
288.9000;0.8344;0.7801;
289.2000;0.8344;0.7825;
289.5000;0.8376;0.7947;
289.8000;0.8368;0.7971;
290.1000;0.8392;0.8044;
290.4000;0.8352;0.7898;
290.7000;0.8368;0.7971;
291.0000;0.8376;0.7898;
291.3000;0.8360;0.7801;
291.6000;0.8360;0.7801;
291.9000;0.8376;0.7825;
292.2000;0.8368;0.7874;
292.5000;0.8360;0.7898;
292.8000;0.8384;0.7922;
293.1000;0.8360;0.7971;
293.4000;0.8376;0.7971;
293.7000;0.8368;0.7947;
294.0000;0.8352;0.7825;
294.3000;0.8327;0.7703;
294.6000;0.8344;0.7679;
294.9000;0.8360;0.7752;
295.2000;0.8360;0.7825;
295.5000;0.8344;0.7825;
295.8000;0.8384;0.8020;
296.1000;0.8384;0.8069;
296.4000;0.8360;0.7971;
296.7000;0.8457;0.8264;
297.0000;0.8400;0.8117;
297.3000;0.8392;0.8093;
297.6000;0.8311;0.7947;
297.9000;0.8384;0.8020;
298.2000;0.8360;0.7947;
298.5000;0.8400;0.8044;
298.8000;0.8368;0.8044;
299.1000;0.8344;0.8020;
299.4000;0.8376;0.8093;
299.7000;0.8400;0.8044;
300.0000;0.8368;0.7996;
300.3000;0.8368;0.7947;
300.6000;0.8270;0.7703;
300.9000;0.8417;0.8069;
301.2000;0.8409;0.7971;
301.5000;0.8360;0.7922;
301.8000;0.8384;0.8044;
302.1000;0.8392;0.8020;
302.4000;0.8368;0.7874;
302.7000;0.8376;0.7898;
303.0000;0.8376;0.8020;
303.3000;0.8368;0.7971;
303.6000;0.8384;0.7971;
303.9000;0.8352;0.7898;
304.2000;0.8392;0.7971;
304.5000;0.8368;0.7971;
304.8000;0.8392;0.8020;
305.1000;0.8352;0.8020;
305.4000;0.8360;0.8044;
305.7000;0.8384;0.8069;
306.0000;0.8376;0.7971;
306.3000;0.8368;0.7922;
306.6000;0.8360;0.7922;
306.9000;0.8368;0.8020;
307.2000;0.8376;0.7971;
307.5000;0.8376;0.7922;
307.8000;0.8376;0.7874;
308.1000;0.8376;0.7727;
308.4000;0.8384;0.7776;
308.7000;0.8352;0.7654;
309.0000;0.8360;0.7752;
309.3000;0.8368;0.7825;
309.6000;0.8376;0.7996;
309.9000;0.8368;0.8069;
310.2000;0.8368;0.8093;
310.5000;0.8392;0.8191;
310.8000;0.8384;0.8142;
311.1000;0.8376;0.8117;
311.4000;0.8376;0.8044;
311.7000;0.8368;0.8069;
312.0000;0.8368;0.8020;
312.3000;0.8384;0.8020;
312.6000;0.8376;0.8069;
312.9000;0.8400;0.8142;
313.2000;0.8376;0.8044;
313.5000;0.8392;0.8069;
313.8000;0.8384;0.7996;
314.1000;0.8376;0.7971;
314.4000;0.8368;0.7971;
314.7000;0.8360;0.7971;
315.0000;0.8360;0.7947;
315.3000;0.8376;0.7922;
315.6000;0.8344;0.7825;
315.9000;0.8368;0.7947;
316.2000;0.8344;0.7971;
316.5000;0.8368;0.8044;
316.8000;0.8368;0.8069;
317.1000;0.8360;0.8069;
317.4000;0.8352;0.7996;
317.7000;0.8360;0.8044;
318.0000;0.8360;0.7898;
318.3000;0.8409;0.7996;
318.6000;0.8335;0.7801;
318.9000;0.8352;0.7874;
319.2000;0.8352;0.7971;
319.5000;0.8352;0.8069;
319.8000;0.8352;0.8142;
320.1000;0.8368;0.8117;
320.4000;0.8368;0.8093;
320.7000;0.8344;0.8020;
321.0000;0.8360;0.8069;
321.3000;0.8360;0.8020;
321.6000;0.8417;0.8191;
321.9000;0.8352;0.7996;
322.2000;0.8344;0.8069;
322.5000;0.8409;0.8264;
322.8000;0.8368;0.8117;
323.1000;0.8352;0.8142;
323.4000;0.8335;0.8117;
323.7000;0.8360;0.8117;
324.0000;0.8368;0.8166;
324.3000;0.8384;0.8215;
324.6000;0.8335;0.8117;
324.9000;0.8344;0.8142;
325.2000;0.8376;0.8191;
325.5000;0.8368;0.8312;
325.8000;0.8409;0.8434;
326.1000;0.8384;0.8312;
326.4000;0.8392;0.8312;
326.7000;0.8368;0.8142;
327.0000;0.8392;0.8215;
327.3000;0.8392;0.8215;
327.6000;0.8384;0.8117;
327.9000;0.8368;0.8020;
328.2000;0.8360;0.7996;
328.5000;0.8287;0.7849;
328.8000;0.8352;0.7996;
329.1000;0.8352;0.8020;
329.4000;0.8352;0.8142;
329.7000;0.8352;0.8166;
330.0000;0.8376;0.8142;
330.3000;0.8376;0.8117;
330.6000;0.8384;0.8069;
330.9000;0.8417;0.8117;
331.2000;0.8376;0.7922;
331.5000;0.8360;0.8020;
331.8000;0.8360;0.8117;
332.1000;0.8360;0.8117;
332.4000;0.8368;0.8117;
332.7000;0.8376;0.8093;
333.0000;0.8360;0.8117;
333.3000;0.8352;0.8044;
333.6000;0.8360;0.7996;
333.9000;0.8352;0.7971;
334.2000;0.8360;0.8044;
334.5000;0.8368;0.8093;
334.8000;0.8352;0.8142;
335.1000;0.8360;0.8264;
335.4000;0.8368;0.8215;
335.7000;0.8376;0.8215;
336.0000;0.8376;0.8215;
336.3000;0.8376;0.8191;
336.6000;0.8376;0.8166;
336.9000;0.8360;0.8142;
337.2000;0.8344;0.8142;
337.5000;0.8352;0.8215;
337.8000;0.8384;0.8264;
338.1000;0.8368;0.8264;
338.4000;0.8368;0.8288;
338.7000;0.8360;0.8288;
339.0000;0.8360;0.8361;
339.3000;0.8360;0.8337;
339.6000;0.8368;0.8337;
339.9000;0.8360;0.8288;
340.2000;0.8368;0.8288;
340.5000;0.8368;0.8239;
340.8000;0.8376;0.8117;
341.1000;0.8368;0.8044;
341.4000;0.8449;0.8166;
341.7000;0.8360;0.7996;
342.0000;0.8376;0.8020;
342.3000;0.8368;0.8020;
342.6000;0.8384;0.7971;
342.9000;0.8392;0.8069;
343.2000;0.8368;0.8020;
343.5000;0.8384;0.8020;
343.8000;0.8360;0.8020;
344.1000;0.8376;0.8044;
344.4000;0.8376;0.8044;
344.7000;0.8368;0.8069;
345.0000;0.8409;0.8239;
345.3000;0.8368;0.8093;
345.6000;0.8360;0.8044;
345.9000;0.8441;0.8191;
346.2000;0.8368;0.8020;
346.5000;0.8368;0.7947;
346.8000;0.8368;0.7922;
347.1000;0.8368;0.7898;
347.4000;0.8335;0.7849;
347.7000;0.8352;0.7922;
348.0000;0.8352;0.7971;
348.3000;0.8335;0.7874;
348.6000;0.8409;0.7922;
348.9000;0.8319;0.7654;
349.2000;0.8368;0.7776;
349.5000;0.8409;0.7874;
349.8000;0.8376;0.7874;
350.1000;0.8360;0.7971;
350.4000;0.8409;0.8093;
350.7000;0.8360;0.8069;
351.0000;0.8368;0.7947;
351.3000;0.8376;0.7922;
351.6000;0.8384;0.7849;
351.9000;0.8384;0.7776;
352.2000;0.8368;0.7825;
352.5000;0.8417;0.7947;
352.8000;0.8368;0.7654;
353.1000;0.8392;0.7776;
353.4000;0.8352;0.7605;
353.7000;0.8360;0.7605;
354.0000;0.8352;0.7605;
354.3000;0.8360;0.7654;
354.6000;0.8352;0.7679;
354.9000;0.8303;0.7605;
355.2000;0.8368;0.7801;
355.5000;0.8376;0.7825;
355.8000;0.8344;0.7752;
356.1000;0.8344;0.7703;
356.4000;0.8384;0.7703;
356.7000;0.8384;0.7849;
357.0000;0.8360;0.7996;
357.3000;0.8376;0.8093;
357.6000;0.8384;0.8093;
357.9000;0.8368;0.8069;
358.2000;0.8441;0.8312;
358.5000;0.8352;0.8044;
358.8000;0.8335;0.8020;
359.1000;0.8319;0.7947;
359.4000;0.8360;0.8020;
359.7000;0.8344;0.8044;
360.0000;0.8335;0.8117;
360.3000;0.8352;0.8093;
360.6000;0.8352;0.8044;
360.9000;0.8409;0.8191;
361.2000;0.8344;0.7922;
361.5000;0.8360;0.7947;
361.8000;0.8368;0.7971;
362.1000;0.8335;0.7947;
362.4000;0.8360;0.8069;
362.7000;0.8360;0.8020;
363.0000;0.8384;0.8020;
363.3000;0.8384;0.8044;
363.6000;0.8368;0.7922;
363.9000;0.8368;0.7849;
364.2000;0.8376;0.7874;
364.5000;0.8376;0.7898;
364.8000;0.8392;0.7947;
365.1000;0.8368;0.7922;
365.4000;0.8376;0.7947;
365.7000;0.8376;0.7947;
366.0000;0.8376;0.7922;
366.3000;0.8400;0.7849;
366.6000;0.8368;0.7703;
366.9000;0.8400;0.7801;
367.2000;0.8376;0.7776;
367.5000;0.8376;0.7874;
367.8000;0.8360;0.7849;
368.1000;0.8360;0.7849;
368.4000;0.8335;0.7825;
368.7000;0.8352;0.7898;
369.0000;0.8344;0.7801;
369.3000;0.8376;0.7874;
369.6000;0.8360;0.7801;
369.9000;0.8344;0.7654;
370.2000;0.8335;0.7654;
370.5000;0.8376;0.7776;
370.8000;0.8360;0.7752;
371.1000;0.8376;0.7727;
371.4000;0.8441;0.7825;
371.7000;0.8400;0.7801;
372.0000;0.8335;0.7679;
372.3000;0.8335;0.7752;
372.6000;0.8360;0.7874;
372.9000;0.8368;0.7874;
373.2000;0.8368;0.7801;
373.5000;0.8368;0.7776;
373.8000;0.8368;0.7849;
374.1000;0.8384;0.7922;
374.4000;0.8335;0.7825;
374.7000;0.8344;0.7922;
375.0000;0.8352;0.7898;
375.3000;0.8360;0.7825;
375.6000;0.8360;0.7849;
375.9000;0.8352;0.7922;
376.2000;0.8376;0.8020;
376.5000;0.8474;0.8361;
376.8000;0.8376;0.8044;
377.1000;0.8335;0.7922;
377.4000;0.8368;0.8093;
377.7000;0.8368;0.8117;
378.0000;0.8360;0.8093;
378.3000;0.8376;0.8093;
378.6000;0.8368;0.8142;
378.9000;0.8376;0.8093;
379.2000;0.8352;0.8093;
379.5000;0.8360;0.8117;
379.8000;0.8319;0.8020;
380.1000;0.8327;0.7947;
380.4000;0.8352;0.8020;
380.7000;0.8384;0.8166;
381.0000;0.8409;0.8239;
381.3000;0.8376;0.8166;
381.6000;0.8360;0.8191;
381.9000;0.8352;0.8166;
382.2000;0.8392;0.8239;
382.5000;0.8368;0.8215;
382.8000;0.8384;0.8191;
383.1000;0.8384;0.8166;
383.4000;0.8368;0.8191;
383.7000;0.8376;0.8191;
384.0000;0.8376;0.8093;
384.3000;0.8376;0.8166;
384.6000;0.8376;0.8117;
384.9000;0.8368;0.8020;
385.2000;0.8384;0.8044;
385.5000;0.8360;0.7971;
385.8000;0.8384;0.7947;
386.1000;0.8376;0.7996;
386.4000;0.8392;0.7971;
386.7000;0.8368;0.7996;
387.0000;0.8360;0.8044;
387.3000;0.8368;0.8044;
387.6000;0.8376;0.8069;
387.9000;0.8376;0.8044;
388.2000;0.8295;0.7801;
388.5000;0.8360;0.7996;
388.8000;0.8352;0.7947;
389.1000;0.8335;0.7922;
389.4000;0.8352;0.7849;
389.7000;0.8376;0.7947;
390.0000;0.8376;0.7947;
390.3000;0.8335;0.7898;
390.6000;0.8360;0.7922;
390.9000;0.8335;0.7849;
391.2000;0.8319;0.7849;
391.5000;0.8376;0.7996;
391.8000;0.8319;0.7898;
392.1000;0.8409;0.8069;
392.4000;0.8376;0.7971;
392.7000;0.8254;0.7654;
393.0000;0.8368;0.7922;
393.3000;0.8344;0.7776;
393.6000;0.8392;0.7825;
393.9000;0.8368;0.7752;
394.2000;0.8368;0.7776;
394.5000;0.8295;0.7703;
394.8000;0.8376;0.7996;
395.1000;0.8352;0.8020;
395.4000;0.8262;0.7849;
395.7000;0.8392;0.8166;
396.0000;0.8368;0.8117;
396.3000;0.8368;0.8166;
396.6000;0.8368;0.8142;
396.9000;0.8360;0.8142;
397.2000;0.8376;0.8191;
397.5000;0.8384;0.8142;
397.8000;0.8368;0.8142;
398.1000;0.8360;0.8093;
398.4000;0.8352;0.8142;
398.7000;0.8368;0.8117;
399.0000;0.8344;0.8044;
399.3000;0.8319;0.8020;
399.6000;0.8360;0.8093;
399.9000;0.8392;0.8142;
400.2000;0.8376;0.8069;
400.5000;0.8360;0.7996;
400.8000;0.8335;0.7947;
401.1000;0.8360;0.7971;
401.4000;0.8352;0.7971;
401.7000;0.8335;0.7996;
402.0000;0.8270;0.7874;
402.3000;0.8368;0.8142;
402.6000;0.8376;0.8117;
402.9000;0.8384;0.8093;
403.2000;0.8400;0.8069;
403.5000;0.8368;0.8069;
403.8000;0.8368;0.8069;
404.1000;0.8376;0.8117;
404.4000;0.8352;0.8093;
404.7000;0.8352;0.8069;
405.0000;0.8352;0.8093;
405.3000;0.8360;0.8142;
405.6000;0.8376;0.8215;
405.9000;0.8360;0.8117;
406.2000;0.8368;0.8117;
406.5000;0.8360;0.8117;
406.8000;0.8368;0.8044;
407.1000;0.8368;0.8020;
407.4000;0.8368;0.8069;
407.7000;0.8417;0.8288;
408.0000;0.8360;0.8117;
408.3000;0.8368;0.8117;
408.6000;0.8441;0.8312;
408.9000;0.8360;0.8069;
409.2000;0.8352;0.7996;
409.5000;0.8335;0.7922;
409.8000;0.8352;0.7898;
410.1000;0.8384;0.7947;
410.4000;0.8352;0.7947;
410.7000;0.8352;0.7922;
411.0000;0.8319;0.7874;
411.3000;0.8352;0.7996;
411.6000;0.8352;0.7947;
411.9000;0.8376;0.8044;
412.2000;0.8409;0.8093;
412.5000;0.8409;0.8069;
412.8000;0.8376;0.8093;
413.1000;0.8433;0.8215;
413.4000;0.8392;0.8093;
413.7000;0.8409;0.8069;
414.0000;0.8376;0.8020;
414.3000;0.8360;0.7922;
414.6000;0.8352;0.7947;
414.9000;0.8352;0.7947;
415.2000;0.8466;0.8264;
415.5000;0.8360;0.8117;
415.8000;0.8384;0.8264;
416.1000;0.8344;0.8191;
416.4000;0.8384;0.8215;
416.7000;0.8368;0.8093;
417.0000;0.8360;0.7996;
417.3000;0.8376;0.7947;
417.6000;0.8376;0.8020;
417.9000;0.8384;0.8020;
418.2000;0.8376;0.7971;
418.5000;0.8409;0.8117;
418.8000;0.8368;0.7971;
419.1000;0.8352;0.7996;
419.4000;0.8368;0.7922;
419.7000;0.8360;0.7922;
420.0000;0.8360;0.7971;
420.3000;0.8376;0.7947;
420.6000;0.8360;0.8020;
420.9000;0.8344;0.7996;
421.2000;0.8352;0.8093;
421.5000;0.8287;0.7874;
421.8000;0.8360;0.8069;
422.1000;0.8360;0.8117;
422.4000;0.8352;0.8069;
422.7000;0.8368;0.7971;
423.0000;0.8376;0.8093;
423.3000;0.8352;0.8020;
423.6000;0.8344;0.7947;
423.9000;0.8352;0.7898;
424.2000;0.8352;0.7898;
424.5000;0.8376;0.7922;
424.8000;0.8352;0.7825;
425.1000;0.8368;0.7898;
425.4000;0.8368;0.7825;
425.7000;0.8352;0.7825;
426.0000;0.8344;0.7898;
426.3000;0.8344;0.7971;
426.6000;0.8344;0.8093;
426.9000;0.8368;0.8215;
427.2000;0.8376;0.8142;
427.5000;0.8352;0.8117;
427.8000;0.8368;0.8142;
428.1000;0.8360;0.8166;
428.4000;0.8360;0.8117;
428.7000;0.8327;0.8020;
429.0000;0.8344;0.8215;
429.3000;0.8376;0.8264;
429.6000;0.8352;0.8191;
429.9000;0.8400;0.8312;
430.2000;0.8360;0.8215;
430.5000;0.8360;0.8020;
430.8000;0.8368;0.7996;
431.1000;0.8335;0.7922;
431.4000;0.8384;0.8069;
431.7000;0.8319;0.7996;
432.0000;0.8352;0.8142;
432.3000;0.8417;0.8239;
432.6000;0.8311;0.8020;
432.9000;0.8384;0.8239;
433.2000;0.8384;0.8191;
433.5000;0.8360;0.8093;
433.8000;0.8344;0.8117;
434.1000;0.8335;0.8093;
434.4000;0.8368;0.8117;
434.7000;0.8368;0.8069;
435.0000;0.8344;0.8093;
435.3000;0.8368;0.8093;
435.6000;0.8376;0.8215;
435.9000;0.8368;0.8117;
436.2000;0.8376;0.8166;
436.5000;0.8352;0.8069;
436.8000;0.8368;0.8069;
437.1000;0.8368;0.8215;
437.4000;0.8352;0.8239;
437.7000;0.8352;0.8239;
438.0000;0.8262;0.8020;
438.3000;0.8376;0.8166;
438.6000;0.8409;0.8215;
438.9000;0.8417;0.8239;
439.2000;0.8384;0.8191;
439.5000;0.8368;0.8142;
439.8000;0.8360;0.8117;
440.1000;0.8360;0.8117;
440.4000;0.8368;0.8191;
440.7000;0.8376;0.8191;
441.0000;0.8368;0.8142;
441.3000;0.8352;0.8142;
441.6000;0.8360;0.8093;
441.9000;0.8344;0.8093;
442.2000;0.8368;0.8117;
442.5000;0.8400;0.8264;
442.8000;0.8352;0.8117;
443.1000;0.8368;0.8191;
443.4000;0.8409;0.8239;
443.7000;0.8368;0.8093;
444.0000;0.8352;0.7996;
444.3000;0.8344;0.8020;
444.6000;0.8368;0.8142;
444.9000;0.8344;0.8117;
445.2000;0.8344;0.8191;
445.5000;0.8360;0.8264;
445.8000;0.8368;0.8191;
446.1000;0.8368;0.8166;
446.4000;0.8392;0.8288;
446.7000;0.8352;0.8117;
447.0000;0.8352;0.8166;
447.3000;0.8344;0.8142;
447.6000;0.8368;0.8312;
447.9000;0.8344;0.8166;
448.2000;0.8360;0.8191;
448.5000;0.8360;0.8142;
448.8000;0.8392;0.8191;
449.1000;0.8335;0.8093;
449.4000;0.8368;0.8093;
449.7000;0.8352;0.8069;
450.0000;0.8392;0.8166;
450.3000;0.8335;0.8020;
450.6000;0.8384;0.8044;
450.9000;0.8335;0.7947;
451.2000;0.8344;0.8020;
451.5000;0.8360;0.8044;
451.8000;0.8352;0.8069;
452.1000;0.8449;0.8337;
452.4000;0.8376;0.8117;
452.7000;0.8392;0.8142;
453.0000;0.8360;0.8142;
453.3000;0.8360;0.8166;
453.6000;0.8376;0.8264;
453.9000;0.8368;0.8288;
454.2000;0.8360;0.8166;
454.5000;0.8360;0.8093;
454.8000;0.8376;0.8069;
455.1000;0.8344;0.7947;
455.4000;0.8352;0.7971;
455.7000;0.8352;0.7996;
456.0000;0.8352;0.8044;
456.3000;0.8368;0.7996;
456.6000;0.8352;0.7947;
456.9000;0.8335;0.7996;
457.2000;0.8368;0.8117;
457.5000;0.8368;0.8093;
457.8000;0.8368;0.8044;
458.1000;0.8360;0.8093;
458.4000;0.8368;0.8020;
458.7000;0.8384;0.8069;
459.0000;0.8352;0.7971;
459.3000;0.8368;0.7996;
459.6000;0.8352;0.8093;
459.9000;0.8441;0.8264;
460.2000;0.8335;0.8069;
460.5000;0.8295;0.7922;
460.8000;0.8360;0.8044;
461.1000;0.8368;0.8020;
461.4000;0.8360;0.7996;
461.7000;0.8335;0.7947;
462.0000;0.8368;0.7947;
462.3000;0.8352;0.8020;
462.6000;0.8368;0.8093;
462.9000;0.8352;0.8044;
463.2000;0.8360;0.8069;
463.5000;0.8360;0.8020;
463.8000;0.8376;0.8093;
464.1000;0.8327;0.7898;
464.4000;0.8344;0.7898;
464.7000;0.8360;0.7996;
465.0000;0.8335;0.8020;
465.3000;0.8344;0.8044;
465.6000;0.8327;0.7996;
465.9000;0.8360;0.8117;
466.2000;0.8376;0.8142;
466.5000;0.8311;0.7971;
466.8000;0.8360;0.8044;
467.1000;0.8360;0.8044;
467.4000;0.8360;0.8044;
467.7000;0.8392;0.8117;
468.0000;0.8457;0.8288;
468.3000;0.8360;0.8117;
468.6000;0.8368;0.8117;
468.9000;0.8376;0.8142;
469.2000;0.8376;0.8142;
469.5000;0.8368;0.8215;
469.8000;0.8376;0.8312;
470.1000;0.8384;0.8337;
470.4000;0.8360;0.8239;
470.7000;0.8400;0.8239;
471.0000;0.8368;0.8117;
471.3000;0.8352;0.8166;
471.6000;0.8368;0.8215;
471.9000;0.8392;0.8288;
472.2000;0.8368;0.8215;
472.5000;0.8376;0.8337;
472.8000;0.8384;0.8264;
473.1000;0.8352;0.8215;
473.4000;0.8360;0.8191;
473.7000;0.8360;0.8142;
474.0000;0.8352;0.8093;
474.3000;0.8352;0.8142;
474.6000;0.8400;0.8288;
474.9000;0.8295;0.8117;
475.2000;0.8352;0.8312;
475.5000;0.8368;0.8337;
475.8000;0.8303;0.8215;
476.1000;0.8352;0.8288;
476.4000;0.8360;0.8264;
476.7000;0.8319;0.8020;
477.0000;0.8352;0.8215;
477.3000;0.8368;0.8288;
477.6000;0.8360;0.8264;
477.9000;0.8360;0.8264;
478.2000;0.8344;0.8264;
478.5000;0.8352;0.8288;
478.8000;0.8368;0.8239;
479.1000;0.8368;0.8166;
479.4000;0.8344;0.8166;
479.7000;0.8360;0.8166;
480.0000;0.8352;0.8069;
480.3000;0.8352;0.8142;
480.6000;0.8352;0.8142;
480.9000;0.8352;0.8069;
481.2000;0.8360;0.8069;
481.5000;0.8368;0.8166;
481.8000;0.8360;0.8166;
482.1000;0.8360;0.8166;
482.4000;0.8368;0.8191;
482.7000;0.8376;0.8239;
483.0000;0.8376;0.8264;
483.3000;0.8344;0.8312;
483.6000;0.8352;0.8288;
483.9000;0.8344;0.8264;
484.2000;0.8368;0.8239;
484.5000;0.8360;0.8191;
484.8000;0.8335;0.8166;
485.1000;0.8246;0.7849;
485.4000;0.8327;0.7996;
485.7000;0.8360;0.7996;
486.0000;0.8352;0.8093;
486.3000;0.8360;0.8093;
486.6000;0.8352;0.8142;
486.9000;0.8344;0.8093;
487.2000;0.8344;0.8191;
487.5000;0.8344;0.8142;
487.8000;0.8368;0.8142;
488.1000;0.8384;0.8239;
488.4000;0.8441;0.8459;
488.7000;0.8352;0.8264;
489.0000;0.8352;0.8239;
489.3000;0.8335;0.8215;
489.6000;0.8360;0.8264;
489.9000;0.8368;0.8312;
490.2000;0.8360;0.8215;
490.5000;0.8360;0.8239;
490.8000;0.8376;0.8166;
491.1000;0.8360;0.8117;
491.4000;0.8368;0.8069;
491.7000;0.8376;0.8166;
492.0000;0.8376;0.8264;
492.3000;0.8368;0.8142;
492.6000;0.8368;0.8142;
492.9000;0.8368;0.8312;
493.2000;0.8384;0.8312;
493.5000;0.8368;0.8288;
493.8000;0.8376;0.8337;
494.1000;0.8368;0.8288;
494.4000;0.8376;0.8142;
494.7000;0.8319;0.8044;
495.0000;0.8368;0.8069;
495.3000;0.8368;0.8069;
495.6000;0.8368;0.8093;
495.9000;0.8352;0.8117;
496.2000;0.8368;0.8093;
496.5000;0.8352;0.8142;
496.8000;0.8360;0.8191;
497.1000;0.8327;0.8142;
497.4000;0.8360;0.8239;
497.7000;0.8335;0.8312;
498.0000;0.8352;0.8264;
498.3000;0.8368;0.8288;
498.6000;0.8368;0.8239;
498.9000;0.8352;0.8215;
499.2000;0.8384;0.8264;
499.5000;0.8376;0.8117;
499.8000;0.8311;0.8069;
500.1000;0.8319;0.8069;
500.4000;0.8344;0.8117;
500.7000;0.8376;0.8044;
501.0000;0.8360;0.8044;
501.3000;0.8368;0.8239;
501.6000;0.8433;0.8337;
501.9000;0.8344;0.8093;
502.2000;0.8376;0.8166;
502.5000;0.8352;0.8044;
502.8000;0.8335;0.7922;
503.1000;0.8392;0.8020;
503.4000;0.8360;0.8020;
503.7000;0.8327;0.7971;
504.0000;0.8360;0.8044;
504.3000;0.8360;0.8166;
504.6000;0.8400;0.8288;
504.9000;0.8368;0.8166;
505.2000;0.8360;0.8117;
505.5000;0.8400;0.8239;
505.8000;0.8368;0.8093;
506.1000;0.8352;0.8020;
506.4000;0.8287;0.7922;
506.7000;0.8327;0.8044;
507.0000;0.8352;0.8191;
507.3000;0.8352;0.8166;
507.6000;0.8360;0.8166;
507.9000;0.8360;0.8117;
508.2000;0.8433;0.8264;
508.5000;0.8335;0.7971;
508.8000;0.8360;0.8020;
509.1000;0.8311;0.7874;
509.4000;0.8449;0.8312;
509.7000;0.8344;0.8044;
510.0000;0.8352;0.8069;
510.3000;0.8368;0.8215;
510.6000;0.8327;0.8069;
510.9000;0.8400;0.8166;
511.2000;0.8368;0.7996;
511.5000;0.8352;0.7971;
511.8000;0.8368;0.7971;
512.1000;0.8392;0.7947;
512.4000;0.8425;0.8069;
512.7000;0.8417;0.8020;
513.0000;0.8352;0.7825;
513.3000;0.8360;0.7898;
513.6000;0.8368;0.8020;
513.9000;0.8368;0.8069;
514.2000;0.8376;0.8020;
514.5000;0.8376;0.7996;
514.8000;0.8376;0.7922;
515.1000;0.8360;0.7996;
515.4000;0.8360;0.8069;
515.7000;0.8376;0.8020;
516.0000;0.8360;0.7971;
516.3000;0.8368;0.8044;
516.6000;0.8384;0.7971;
516.9000;0.8352;0.7947;
517.2000;0.8368;0.7996;
517.5000;0.8352;0.7996;
517.8000;0.8376;0.8093;
518.1000;0.8344;0.7996;
518.4000;0.8368;0.8093;
518.7000;0.8360;0.8117;
519.0000;0.8368;0.8117;
519.3000;0.8344;0.8069;
519.6000;0.8344;0.8020;
519.9000;0.8360;0.8044;
520.2000;0.8352;0.8044;
520.5000;0.8360;0.8117;
520.8000;0.8360;0.8069;
521.1000;0.8311;0.7971;
521.4000;0.8376;0.8044;
521.7000;0.8311;0.7849;
522.0000;0.8368;0.8044;
522.3000;0.8335;0.7971;
522.6000;0.8344;0.7996;
522.9000;0.8368;0.8069;
523.2000;0.8392;0.8093;
523.5000;0.8360;0.7971;
523.8000;0.8352;0.7971;
524.1000;0.8360;0.7922;
524.4000;0.8368;0.8044;
524.7000;0.8352;0.7996;
525.0000;0.8352;0.8020;
525.3000;0.8335;0.7947;
525.6000;0.8360;0.8020;
525.9000;0.8368;0.8069;
526.2000;0.8368;0.7971;
526.5000;0.8344;0.7849;
526.8000;0.8303;0.7630;
527.1000;0.8303;0.7654;
527.4000;0.8344;0.7874;
527.7000;0.8360;0.7947;
528.0000;0.8344;0.8020;
528.3000;0.8368;0.8093;
528.6000;0.8409;0.8166;
528.9000;0.8360;0.7996;
529.2000;0.8319;0.7898;
529.5000;0.8360;0.7971;
529.8000;0.8360;0.7971;
530.1000;0.8344;0.7971;
530.4000;0.8360;0.8020;
530.7000;0.8409;0.8239;
531.0000;0.8360;0.8044;
531.3000;0.8376;0.8142;
531.6000;0.8352;0.8069;
531.9000;0.8368;0.8044;
532.2000;0.8287;0.7874;
532.5000;0.8392;0.8166;
532.8000;0.8344;0.8166;
533.1000;0.8344;0.8117;
533.4000;0.8270;0.7971;
533.7000;0.8368;0.8142;
534.0000;0.8368;0.8093;
534.3000;0.8352;0.8069;
534.6000;0.8344;0.7922;
534.9000;0.8368;0.7971;
535.2000;0.8335;0.7874;
535.5000;0.8360;0.7898;
535.8000;0.8352;0.7947;
536.1000;0.8352;0.7947;
536.4000;0.8368;0.7996;
536.7000;0.8368;0.8020;
537.0000;0.8344;0.8044;
537.3000;0.8360;0.8069;
537.6000;0.8360;0.8093;
537.9000;0.8368;0.8093;
538.2000;0.8344;0.7947;
538.5000;0.8360;0.8020;
538.8000;0.8360;0.7971;
539.1000;0.8368;0.8020;
539.4000;0.8400;0.8239;
539.7000;0.8368;0.8191;
540.0000;0.8368;0.8093;
540.3000;0.8392;0.8069;
540.6000;0.8368;0.8069;
540.9000;0.8360;0.8069;
541.2000;0.8376;0.8117;
541.5000;0.8360;0.8069;
541.8000;0.8376;0.8093;
542.1000;0.8352;0.8093;
542.4000;0.8319;0.8020;
542.7000;0.8360;0.8142;
543.0000;0.8352;0.8044;
543.3000;0.8352;0.8069;
543.6000;0.8360;0.8117;
543.9000;0.8344;0.8142;
544.2000;0.8335;0.8117;
544.5000;0.8319;0.8069;
544.8000;0.8352;0.8239;
545.1000;0.8368;0.8215;
545.4000;0.8352;0.8117;
545.7000;0.8400;0.8191;
546.0000;0.8368;0.8093;
546.3000;0.8335;0.7996;
546.6000;0.8433;0.8337;
546.9000;0.8352;0.8142;
547.2000;0.8335;0.7971;
547.5000;0.8344;0.7922;
547.8000;0.8360;0.7898;
548.1000;0.8344;0.7898;
548.4000;0.8352;0.7971;
548.7000;0.8327;0.7971;
549.0000;0.8360;0.8117;
549.3000;0.8360;0.8093;
549.6000;0.8352;0.8044;
549.9000;0.8368;0.8020;
550.2000;0.8368;0.7922;
550.5000;0.8360;0.7898;
550.8000;0.8344;0.7898;
551.1000;0.8352;0.7825;
551.4000;0.8352;0.7849;
551.7000;0.8319;0.7727;
552.0000;0.8344;0.7752;
552.3000;0.8335;0.7727;
552.6000;0.8352;0.7849;
552.9000;0.8352;0.7898;
553.2000;0.8360;0.7874;
553.5000;0.8360;0.7874;
553.8000;0.8344;0.7849;
554.1000;0.8376;0.7947;
554.4000;0.8303;0.7776;
554.7000;0.8360;0.7922;
555.0000;0.8352;0.7898;
555.3000;0.8368;0.7898;
555.6000;0.8368;0.7947;
555.9000;0.8360;0.7971;
556.2000;0.8238;0.7752;
556.5000;0.8360;0.8069;
556.8000;0.8368;0.8117;
557.1000;0.8335;0.8117;
557.4000;0.8344;0.8142;
557.7000;0.8344;0.8239;
558.0000;0.8352;0.8191;
558.3000;0.8327;0.8239;
558.6000;0.8352;0.8166;
558.9000;0.8344;0.8166;
559.2000;0.8376;0.8069;
559.5000;0.8409;0.8239;
559.8000;0.8327;0.8044;
560.1000;0.8352;0.8117;
560.4000;0.8352;0.8117;
560.7000;0.8384;0.8142;
561.0000;0.8360;0.8142;
561.3000;0.8360;0.8166;
561.6000;0.8368;0.8191;
561.9000;0.8368;0.8239;
562.2000;0.8368;0.8239;
562.5000;0.8400;0.8337;
562.8000;0.8376;0.8264;
563.1000;0.8368;0.8288;
563.4000;0.8352;0.8239;
563.7000;0.8368;0.8361;
564.0000;0.8360;0.8288;
564.3000;0.8376;0.8166;
564.6000;0.8360;0.8117;
564.9000;0.8360;0.8044;
565.2000;0.8344;0.8093;
565.5000;0.8360;0.8239;
565.8000;0.8335;0.8142;
566.1000;0.8352;0.8166;
566.4000;0.8384;0.8215;
566.7000;0.8352;0.8191;
567.0000;0.8352;0.8142;
567.3000;0.8352;0.8093;
567.6000;0.8376;0.8191;
567.9000;0.8352;0.8142;
568.2000;0.8368;0.8166;
568.5000;0.8368;0.8117;
568.8000;0.8344;0.8020;
569.1000;0.8352;0.7971;
569.4000;0.8368;0.8093;
569.7000;0.8344;0.8069;
570.0000;0.8344;0.8044;
570.3000;0.8319;0.7971;
570.6000;0.8335;0.7898;
570.9000;0.8352;0.7971;
571.2000;0.8352;0.7947;
571.5000;0.8344;0.8069;
571.8000;0.8287;0.8020;
572.1000;0.8360;0.8191;
572.4000;0.8352;0.8044;
572.7000;0.8311;0.7922;
573.0000;0.8360;0.8069;
573.3000;0.8360;0.8020;
573.6000;0.8368;0.8069;
573.9000;0.8360;0.8093;
574.2000;0.8368;0.8215;
574.5000;0.8360;0.8069;
574.8000;0.8392;0.8093;
575.1000;0.8344;0.7996;
575.4000;0.8352;0.8020;
575.7000;0.8360;0.8069;
576.0000;0.8352;0.8020;
576.3000;0.8360;0.8044;
576.6000;0.8352;0.8069;
576.9000;0.8384;0.8142;
577.2000;0.8384;0.8142;
577.5000;0.8360;0.8142;
577.8000;0.8384;0.8166;
578.1000;0.8360;0.8093;
578.4000;0.8344;0.8117;
578.7000;0.8352;0.8093;
579.0000;0.8352;0.8093;
579.3000;0.8360;0.8069;
579.6000;0.8417;0.8166;
579.9000;0.8352;0.8044;
580.2000;0.8344;0.7947;
580.5000;0.8352;0.7947;
580.8000;0.8327;0.7971;
581.1000;0.8335;0.7947;
581.4000;0.8360;0.8093;
581.7000;0.8327;0.8093;
582.0000;0.8344;0.8142;
582.3000;0.8327;0.8142;
582.6000;0.8335;0.8215;
582.9000;0.8344;0.8215;
583.2000;0.8287;0.7996;
583.5000;0.8376;0.8142;
583.8000;0.8344;0.8093;
584.1000;0.8230;0.7752;
584.4000;0.8384;0.8166;
584.7000;0.8368;0.8093;
585.0000;0.8384;0.8215;
585.3000;0.8335;0.8069;
585.6000;0.8352;0.8093;
585.9000;0.8335;0.8020;
586.2000;0.8368;0.8044;
586.5000;0.8425;0.8239;
586.8000;0.8335;0.8166;
587.1000;0.8360;0.8215;
587.4000;0.8295;0.7996;
587.7000;0.8344;0.8093;
588.0000;0.8466;0.8361;
588.3000;0.8360;0.8020;
588.6000;0.8360;0.7898;
588.9000;0.8360;0.7898;
589.2000;0.8335;0.7776;
589.5000;0.8352;0.7898;
589.8000;0.8368;0.7947;
590.1000;0.8368;0.7971;
590.4000;0.8327;0.7898;
590.7000;0.8352;0.7971;
591.0000;0.8360;0.7996;
591.3000;0.8352;0.8044;
591.6000;0.8352;0.8044;
591.9000;0.8344;0.7971;
592.2000;0.8352;0.8020;
592.5000;0.8335;0.8020;
592.8000;0.8344;0.7922;
593.1000;0.8360;0.7971;
593.4000;0.8376;0.8093;
593.7000;0.8319;0.8020;
594.0000;0.8352;0.8166;
594.3000;0.8335;0.8069;
594.6000;0.8327;0.8117;
594.9000;0.8368;0.8239;
595.2000;0.8287;0.8093;
595.5000;0.8327;0.8191;
595.8000;0.8352;0.8264;
596.1000;0.8344;0.8239;
596.4000;0.8335;0.8191;
596.7000;0.8303;0.8044;
597.0000;0.8335;0.8044;
597.3000;0.8344;0.8093;
597.6000;0.8360;0.8117;
597.9000;0.8352;0.8117;
598.2000;0.8335;0.7947;
598.5000;0.8360;0.7996;
598.8000;0.8360;0.8069;
599.1000;0.8376;0.8166;
599.4000;0.8376;0.8288;
599.7000;0.8376;0.8264;
600.0000;0.8490;0.8483;
600.3000;0.8400;0.8020;
600.6000;0.8433;0.7898;
600.9000;0.8400;0.7654;
601.2000;0.8335;0.7337;
601.5000;0.8335;0.7289;
601.8000;0.8352;0.7289;
602.1000;0.8262;0.7118;
602.4000;0.8238;0.7020;
602.7000;0.8295;0.7069;
603.0000;0.8262;0.6947;
603.3000;0.8221;0.6825;
603.6000;0.8213;0.6728;
603.9000;0.8173;0.6582;
604.2000;0.8181;0.6582;
604.5000;0.8140;0.6460;
604.8000;0.8124;0.6460;
605.1000;0.8116;0.6387;
605.4000;0.8059;0.6167;
605.7000;0.8050;0.6143;
606.0000;0.8042;0.6119;
606.3000;0.8018;0.5924;
606.6000;0.8010;0.5924;
606.9000;0.7993;0.5850;
607.2000;0.7993;0.5753;
607.5000;0.7985;0.5802;
607.8000;0.7969;0.5850;
608.1000;0.7928;0.5875;
608.4000;0.7928;0.5802;
608.7000;0.7920;0.5875;
609.0000;0.7961;0.6021;
609.3000;0.7904;0.5924;
609.6000;0.7912;0.5948;
609.9000;0.7937;0.5972;
610.2000;0.7896;0.5875;
610.5000;0.7888;0.5777;
610.8000;0.7880;0.5753;
611.1000;0.7871;0.5753;
611.4000;0.7855;0.5680;
611.7000;0.7847;0.5655;
612.0000;0.7831;0.5631;
612.3000;0.7831;0.5680;
612.6000;0.7814;0.5704;
612.9000;0.7839;0.5728;
613.2000;0.7798;0.5655;
613.5000;0.7814;0.5753;
613.8000;0.7790;0.5777;
614.1000;0.7798;0.5826;
614.4000;0.7782;0.5826;
614.7000;0.7798;0.5777;
615.0000;0.7766;0.5826;
615.3000;0.7782;0.5753;
615.6000;0.7757;0.5704;
615.9000;0.7757;0.5802;
616.2000;0.7766;0.5850;
616.5000;0.7757;0.5826;
616.8000;0.7757;0.5802;
617.1000;0.7733;0.5680;
617.4000;0.7733;0.5582;
617.7000;0.7741;0.5533;
618.0000;0.7749;0.5485;
618.3000;0.7684;0.5412;
618.6000;0.7733;0.5607;
618.9000;0.7741;0.5680;
619.2000;0.7741;0.5704;
619.5000;0.7741;0.5753;
619.8000;0.7619;0.5509;
620.1000;0.7692;0.5802;
620.4000;0.7692;0.5777;
620.7000;0.7709;0.5728;
621.0000;0.7717;0.5728;
621.3000;0.7700;0.5753;
621.6000;0.7709;0.5777;
621.9000;0.7700;0.5753;
622.2000;0.7733;0.5777;
622.5000;0.7684;0.5753;
622.8000;0.7643;0.5655;
623.1000;0.7676;0.5704;
623.4000;0.7668;0.5680;
623.7000;0.7676;0.5680;
624.0000;0.7733;0.5826;
624.3000;0.7676;0.5728;
624.6000;0.7684;0.5826;
624.9000;0.7676;0.5704;
625.2000;0.7627;0.5655;
625.5000;0.7619;0.5704;
625.8000;0.7676;0.5899;
626.1000;0.7595;0.5680;
626.4000;0.7652;0.5802;
626.7000;0.7660;0.5802;
627.0000;0.7660;0.5850;
627.3000;0.7684;0.5924;
627.6000;0.7700;0.5875;
627.9000;0.7643;0.5753;
628.2000;0.7652;0.5753;
628.5000;0.7668;0.5802;
628.8000;0.7635;0.5728;
629.1000;0.7643;0.5777;
629.4000;0.7700;0.5777;
629.7000;0.7652;0.5728;
630.0000;0.7627;0.5655;
630.3000;0.7643;0.5631;
630.6000;0.7684;0.5704;
630.9000;0.7635;0.5533;
631.2000;0.7611;0.5558;
631.5000;0.7611;0.5582;
631.8000;0.7643;0.5655;
632.1000;0.7611;0.5558;
632.4000;0.7635;0.5655;
632.7000;0.7595;0.5655;
633.0000;0.7603;0.5753;
633.3000;0.7611;0.5850;
633.6000;0.7562;0.5777;
633.9000;0.7611;0.5875;
634.2000;0.7611;0.5802;
634.5000;0.7717;0.6021;
634.8000;0.7619;0.5802;
635.1000;0.7619;0.5777;
635.4000;0.7619;0.5753;
635.7000;0.7595;0.5704;
636.0000;0.7578;0.5631;
636.3000;0.7603;0.5631;
636.6000;0.7595;0.5607;
636.9000;0.7595;0.5655;
637.2000;0.7595;0.5631;
637.5000;0.7570;0.5655;
637.8000;0.7611;0.5607;
638.1000;0.7586;0.5509;
638.4000;0.7578;0.5558;
638.7000;0.7578;0.5655;
639.0000;0.7562;0.5558;
639.3000;0.7578;0.5533;
639.6000;0.7578;0.5533;
639.9000;0.7578;0.5412;
640.2000;0.7611;0.5436;
640.5000;0.7570;0.5363;
640.8000;0.7586;0.5436;
641.1000;0.7562;0.5387;
641.4000;0.7554;0.5387;
641.7000;0.7538;0.5387;
642.0000;0.7578;0.5485;
642.3000;0.7554;0.5412;
642.6000;0.7562;0.5363;
642.9000;0.7554;0.5363;
643.2000;0.7578;0.5387;
643.5000;0.7570;0.5412;
643.8000;0.7546;0.5509;
644.1000;0.7554;0.5607;
644.4000;0.7578;0.5607;
644.7000;0.7562;0.5607;
645.0000;0.7570;0.5631;
645.3000;0.7538;0.5533;
645.6000;0.7546;0.5582;
645.9000;0.7530;0.5485;
646.2000;0.7546;0.5485;
646.5000;0.7538;0.5460;
646.8000;0.7538;0.5436;
647.1000;0.7546;0.5436;
647.4000;0.7546;0.5460;
647.7000;0.7538;0.5533;
648.0000;0.7530;0.5558;
648.3000;0.7530;0.5509;
648.6000;0.7513;0.5436;
648.9000;0.7530;0.5582;
649.2000;0.7521;0.5631;
649.5000;0.7521;0.5680;
649.8000;0.7521;0.5582;
650.1000;0.7497;0.5460;
650.4000;0.7464;0.5387;
650.7000;0.7530;0.5631;
651.0000;0.7546;0.5655;
651.3000;0.7546;0.5607;
651.6000;0.7538;0.5607;
651.9000;0.7538;0.5582;
652.2000;0.7521;0.5558;
652.5000;0.7546;0.5655;
652.8000;0.7497;0.5631;
653.1000;0.7513;0.5655;
653.4000;0.7505;0.5607;
653.7000;0.7505;0.5558;
654.0000;0.7497;0.5460;
654.3000;0.7521;0.5533;
654.6000;0.7505;0.5582;
654.9000;0.7489;0.5533;
655.2000;0.7505;0.5607;
655.5000;0.7554;0.5680;
655.8000;0.7489;0.5509;
656.1000;0.7505;0.5558;
656.4000;0.7497;0.5607;
656.7000;0.7497;0.5582;
657.0000;0.7481;0.5582;
657.3000;0.7497;0.5704;
657.6000;0.7521;0.5728;
657.9000;0.7481;0.5631;
658.2000;0.7513;0.5655;
658.5000;0.7481;0.5509;
658.8000;0.7391;0.5314;
659.1000;0.7481;0.5582;
659.4000;0.7489;0.5582;
659.7000;0.7497;0.5509;
660.0000;0.7489;0.5460;
660.3000;0.7489;0.5387;
660.6000;0.7521;0.5460;
660.9000;0.7481;0.5363;
661.2000;0.7554;0.5509;
661.5000;0.7424;0.5217;
661.8000;0.7464;0.5338;
662.1000;0.7481;0.5387;
662.4000;0.7464;0.5412;
662.7000;0.7481;0.5485;
663.0000;0.7464;0.5436;
663.3000;0.7481;0.5412;
663.6000;0.7489;0.5485;
663.9000;0.7473;0.5412;
664.2000;0.7521;0.5436;
664.5000;0.7456;0.5265;
664.8000;0.7505;0.5485;
665.1000;0.7464;0.5436;
665.4000;0.7448;0.5363;
665.7000;0.7448;0.5363;
666.0000;0.7473;0.5363;
666.3000;0.7473;0.5314;
666.6000;0.7481;0.5290;
666.9000;0.7456;0.5241;
667.2000;0.7464;0.5314;
667.5000;0.7456;0.5338;
667.8000;0.7464;0.5436;
668.1000;0.7456;0.5436;
668.4000;0.7456;0.5412;
668.7000;0.7440;0.5436;
669.0000;0.7448;0.5387;
669.3000;0.7440;0.5338;
669.6000;0.7440;0.5387;
669.9000;0.7464;0.5363;
670.2000;0.7456;0.5338;
670.5000;0.7464;0.5412;
670.8000;0.7456;0.5363;
671.1000;0.7440;0.5338;
671.4000;0.7489;0.5436;
671.7000;0.7456;0.5387;
672.0000;0.7391;0.5241;
672.3000;0.7448;0.5363;
672.6000;0.7456;0.5387;
672.9000;0.7448;0.5412;
673.2000;0.7448;0.5412;
673.5000;0.7473;0.5485;
673.8000;0.7432;0.5412;
674.1000;0.7432;0.5387;
674.4000;0.7424;0.5412;
674.7000;0.7432;0.5436;
675.0000;0.7448;0.5460;
675.3000;0.7481;0.5582;
675.6000;0.7424;0.5582;
675.9000;0.7432;0.5607;
676.2000;0.7432;0.5680;
676.5000;0.7530;0.5972;
676.8000;0.7416;0.5680;
677.1000;0.7416;0.5704;
677.4000;0.7407;0.5631;
677.7000;0.7432;0.5607;
678.0000;0.7424;0.5533;
678.3000;0.7416;0.5387;
678.6000;0.7432;0.5338;
678.9000;0.7448;0.5485;
679.2000;0.7432;0.5509;
679.5000;0.7513;0.5655;
679.8000;0.7407;0.5314;
680.1000;0.7424;0.5265;
680.4000;0.7424;0.5314;
680.7000;0.7505;0.5460;
681.0000;0.7416;0.5265;
681.3000;0.7416;0.5290;
681.6000;0.7440;0.5387;
681.9000;0.7424;0.5412;
682.2000;0.7399;0.5412;
682.5000;0.7416;0.5485;
682.8000;0.7432;0.5582;
683.1000;0.7407;0.5607;
683.4000;0.7407;0.5558;
683.7000;0.7416;0.5558;
684.0000;0.7424;0.5509;
684.3000;0.7383;0.5509;
684.6000;0.7416;0.5558;
684.9000;0.7383;0.5460;
685.2000;0.7399;0.5509;
685.5000;0.7391;0.5582;
685.8000;0.7407;0.5655;
686.1000;0.7440;0.5704;
686.4000;0.7399;0.5655;
686.7000;0.7399;0.5777;
687.0000;0.7383;0.5655;
687.3000;0.7399;0.5582;
687.6000;0.7391;0.5533;
687.9000;0.7505;0.5802;
688.2000;0.7375;0.5460;
688.5000;0.7383;0.5387;
688.8000;0.7440;0.5412;
689.1000;0.7383;0.5387;
689.4000;0.7375;0.5363;
689.7000;0.7383;0.5265;
690.0000;0.7375;0.5265;
690.3000;0.7407;0.5338;
690.6000;0.7334;0.5095;
690.9000;0.7375;0.5241;
691.2000;0.7350;0.5217;
691.5000;0.7383;0.5314;
691.8000;0.7375;0.5192;
692.1000;0.7375;0.5265;
692.4000;0.7367;0.5290;
692.7000;0.7383;0.5338;
693.0000;0.7383;0.5363;
693.3000;0.7432;0.5607;
693.6000;0.7375;0.5363;
693.9000;0.7383;0.5265;
694.2000;0.7326;0.5095;
694.5000;0.7391;0.5241;
694.8000;0.7383;0.5241;
695.1000;0.7416;0.5363;
695.4000;0.7367;0.5241;
695.7000;0.7399;0.5387;
696.0000;0.7367;0.5387;
696.3000;0.7416;0.5509;
696.6000;0.7432;0.5412;
696.9000;0.7375;0.5265;
697.2000;0.7367;0.5192;
697.5000;0.7367;0.5192;
697.8000;0.7359;0.5217;
698.1000;0.7334;0.5241;
698.4000;0.7367;0.5363;
698.7000;0.7359;0.5338;
699.0000;0.7359;0.5241;
699.3000;0.7383;0.5363;
699.6000;0.7367;0.5363;
699.9000;0.7359;0.5387;
700.2000;0.7367;0.5533;
700.5000;0.7375;0.5509;
700.8000;0.7383;0.5558;
701.1000;0.7285;0.5290;
701.4000;0.7359;0.5509;
701.7000;0.7383;0.5558;
702.0000;0.7497;0.5753;
702.3000;0.7391;0.5436;
702.6000;0.7350;0.5338;
702.9000;0.7326;0.5290;
703.2000;0.7359;0.5314;
703.5000;0.7350;0.5314;
703.8000;0.7359;0.5314;
704.1000;0.7375;0.5338;
704.4000;0.7359;0.5363;
704.7000;0.7367;0.5363;
705.0000;0.7375;0.5485;
705.3000;0.7375;0.5607;
705.6000;0.7375;0.5607;
705.9000;0.7350;0.5533;
706.2000;0.7367;0.5582;
706.5000;0.7359;0.5485;
706.8000;0.7391;0.5485;
707.1000;0.7407;0.5509;
707.4000;0.7359;0.5436;
707.7000;0.7350;0.5509;
708.0000;0.7326;0.5436;
708.3000;0.7342;0.5412;
708.6000;0.7350;0.5314;
708.9000;0.7342;0.5314;
709.2000;0.7326;0.5290;
709.5000;0.7367;0.5387;
709.8000;0.7310;0.5314;
710.1000;0.7391;0.5387;
710.4000;0.7367;0.5241;
710.7000;0.7359;0.5290;
711.0000;0.7318;0.5192;
711.3000;0.7359;0.5363;
711.6000;0.7350;0.5314;
711.9000;0.7318;0.5338;
712.2000;0.7350;0.5412;
712.5000;0.7342;0.5338;
712.8000;0.7407;0.5509;
713.1000;0.7342;0.5412;
713.4000;0.7334;0.5509;
713.7000;0.7342;0.5558;
714.0000;0.7310;0.5485;
714.3000;0.7334;0.5558;
714.6000;0.7342;0.5509;
714.9000;0.7334;0.5460;
715.2000;0.7334;0.5363;
715.5000;0.7359;0.5412;
715.8000;0.7342;0.5387;
716.1000;0.7342;0.5314;
716.4000;0.7350;0.5290;
716.7000;0.7342;0.5314;
717.0000;0.7334;0.5314;
717.3000;0.7334;0.5314;
717.6000;0.7334;0.5217;
717.9000;0.7350;0.5265;
718.2000;0.7391;0.5387;
718.5000;0.7350;0.5314;
718.8000;0.7342;0.5314;
719.1000;0.7318;0.5241;
719.4000;0.7359;0.5363;
719.7000;0.7342;0.5338;
720.0000;0.7342;0.5363;
720.3000;0.7318;0.5241;
720.6000;0.7334;0.5314;
720.9000;0.7350;0.5387;
721.2000;0.7334;0.5509;
721.5000;0.7334;0.5533;
721.8000;0.7318;0.5485;
722.1000;0.7359;0.5631;
722.4000;0.7236;0.5338;
722.7000;0.7318;0.5485;
723.0000;0.7326;0.5412;
723.3000;0.7318;0.5387;
723.6000;0.7318;0.5412;
723.9000;0.7310;0.5460;
724.2000;0.7302;0.5460;
724.5000;0.7326;0.5607;
724.8000;0.7302;0.5533;
725.1000;0.7359;0.5607;
725.4000;0.7359;0.5631;
725.7000;0.7334;0.5558;
726.0000;0.7342;0.5582;
726.3000;0.7342;0.5412;
726.6000;0.7334;0.5412;
726.9000;0.7310;0.5412;
727.2000;0.7334;0.5558;
727.5000;0.7318;0.5485;
727.8000;0.7326;0.5460;
728.1000;0.7318;0.5436;
728.4000;0.7318;0.5363;
728.7000;0.7350;0.5412;
729.0000;0.7302;0.5387;
729.3000;0.7302;0.5338;
729.6000;0.7326;0.5460;
729.9000;0.7326;0.5460;
730.2000;0.7318;0.5387;
730.5000;0.7326;0.5387;
730.8000;0.7326;0.5338;
731.1000;0.7310;0.5290;
731.4000;0.7310;0.5241;
731.7000;0.7342;0.5363;
732.0000;0.7302;0.5363;
732.3000;0.7318;0.5363;
732.6000;0.7302;0.5314;
732.9000;0.7334;0.5387;
733.2000;0.7310;0.5241;
733.5000;0.7310;0.5192;
733.8000;0.7261;0.5143;
734.1000;0.7285;0.5217;
734.4000;0.7302;0.5241;
734.7000;0.7367;0.5387;
735.0000;0.7342;0.5436;
735.3000;0.7326;0.5485;
735.6000;0.7293;0.5387;
735.9000;0.7310;0.5485;
736.2000;0.7302;0.5460;
736.5000;0.7326;0.5485;
736.8000;0.7375;0.5436;
737.1000;0.7310;0.5338;
737.4000;0.7318;0.5460;
737.7000;0.7342;0.5460;
738.0000;0.7391;0.5607;
738.3000;0.7318;0.5460;
738.6000;0.7326;0.5558;
738.9000;0.7285;0.5436;
739.2000;0.7326;0.5607;
739.5000;0.7310;0.5412;
739.8000;0.7342;0.5485;
740.1000;0.7326;0.5509;
740.4000;0.7326;0.5558;
740.7000;0.7302;0.5533;
741.0000;0.7310;0.5607;
741.3000;0.7310;0.5582;
741.6000;0.7334;0.5655;
741.9000;0.7342;0.5728;
742.2000;0.7293;0.5704;
742.5000;0.7293;0.5655;
742.8000;0.7293;0.5558;
743.1000;0.7302;0.5607;
743.4000;0.7326;0.5582;
743.7000;0.7285;0.5509;
744.0000;0.7302;0.5582;
744.3000;0.7302;0.5485;
744.6000;0.7310;0.5582;
744.9000;0.7277;0.5436;
745.2000;0.7310;0.5607;
745.5000;0.7277;0.5533;
745.8000;0.7269;0.5509;
746.1000;0.7269;0.5460;
746.4000;0.7318;0.5631;
746.7000;0.7302;0.5558;
747.0000;0.7293;0.5582;
747.3000;0.7359;0.5777;
747.6000;0.7318;0.5558;
747.9000;0.7302;0.5582;
748.2000;0.7277;0.5582;
748.5000;0.7277;0.5655;
748.8000;0.7293;0.5680;
749.1000;0.7350;0.5777;
749.4000;0.7269;0.5509;
749.7000;0.7302;0.5655;
750.0000;0.7293;0.5728;
750.3000;0.7293;0.5680;
750.6000;0.7310;0.5826;
750.9000;0.7293;0.5680;
751.2000;0.7310;0.5728;
751.5000;0.7367;0.5777;
751.8000;0.7302;0.5655;
752.1000;0.7310;0.5631;
752.4000;0.7277;0.5582;
752.7000;0.7302;0.5631;
753.0000;0.7285;0.5607;
753.3000;0.7269;0.5558;
753.6000;0.7293;0.5631;
753.9000;0.7310;0.5582;
754.2000;0.7277;0.5436;
754.5000;0.7245;0.5290;
754.8000;0.7277;0.5412;
755.1000;0.7293;0.5436;
755.4000;0.7326;0.5460;
755.7000;0.7285;0.5314;
756.0000;0.7293;0.5290;
756.3000;0.7334;0.5412;
756.6000;0.7269;0.5387;
756.9000;0.7277;0.5460;
757.2000;0.7285;0.5363;
757.5000;0.7293;0.5387;
757.8000;0.7302;0.5460;
758.1000;0.7326;0.5485;
758.4000;0.7302;0.5363;
758.7000;0.7253;0.5192;
759.0000;0.7285;0.5265;
759.3000;0.7310;0.5387;
759.6000;0.7293;0.5265;
759.9000;0.7342;0.5460;
760.2000;0.7302;0.5412;
760.5000;0.7318;0.5363;
760.8000;0.7277;0.5241;
761.1000;0.7285;0.5217;
761.4000;0.7302;0.5241;
761.7000;0.7302;0.5387;
762.0000;0.7302;0.5412;
762.3000;0.7269;0.5387;
762.6000;0.7285;0.5387;
762.9000;0.7285;0.5387;
763.2000;0.7302;0.5436;
763.5000;0.7269;0.5387;
763.8000;0.7302;0.5436;
764.1000;0.7293;0.5338;
764.4000;0.7302;0.5363;
764.7000;0.7310;0.5387;
765.0000;0.7285;0.5387;
765.3000;0.7285;0.5265;
765.6000;0.7310;0.5290;
765.9000;0.7269;0.5265;
766.2000;0.7285;0.5338;
766.5000;0.7285;0.5412;
766.8000;0.7285;0.5436;
767.1000;0.7285;0.5387;
767.4000;0.7269;0.5290;
767.7000;0.7293;0.5338;
768.0000;0.7277;0.5363;
768.3000;0.7293;0.5387;
768.6000;0.7285;0.5363;
768.9000;0.7261;0.5265;
769.2000;0.7285;0.5290;
769.5000;0.7253;0.5265;
769.8000;0.7285;0.5363;
770.1000;0.7269;0.5363;
770.4000;0.7293;0.5460;
770.7000;0.7310;0.5509;
771.0000;0.7293;0.5485;
771.3000;0.7285;0.5533;
771.6000;0.7310;0.5631;
771.9000;0.7302;0.5607;
772.2000;0.7293;0.5680;
772.5000;0.7334;0.5704;
772.8000;0.7285;0.5558;
773.1000;0.7285;0.5533;
773.4000;0.7285;0.5509;
773.7000;0.7269;0.5509;
774.0000;0.7261;0.5533;
774.3000;0.7245;0.5509;
774.6000;0.7285;0.5655;
774.9000;0.7277;0.5631;
775.2000;0.7293;0.5680;
775.5000;0.7293;0.5680;
775.8000;0.7285;0.5631;
776.1000;0.7269;0.5533;
776.4000;0.7277;0.5655;
776.7000;0.7269;0.5607;
777.0000;0.7293;0.5631;
777.3000;0.7277;0.5558;
777.6000;0.7285;0.5607;
777.9000;0.7310;0.5753;
778.2000;0.7285;0.5704;
778.5000;0.7277;0.5753;
778.8000;0.7285;0.5704;
779.1000;0.7293;0.5631;
779.4000;0.7277;0.5680;
779.7000;0.7269;0.5753;
780.0000;0.7277;0.5655;
780.3000;0.7285;0.5655;
780.6000;0.7302;0.5655;
780.9000;0.7302;0.5607;
781.2000;0.7269;0.5533;
781.5000;0.7293;0.5558;
781.8000;0.7245;0.5509;
782.1000;0.7277;0.5607;
782.4000;0.7277;0.5655;
782.7000;0.7277;0.5631;
783.0000;0.7277;0.5631;
783.3000;0.7269;0.5655;
783.6000;0.7277;0.5631;
783.9000;0.7285;0.5631;
784.2000;0.7285;0.5582;
784.5000;0.7277;0.5509;
784.8000;0.7293;0.5533;
785.1000;0.7277;0.5460;
785.4000;0.7261;0.5533;
785.7000;0.7350;0.5728;
786.0000;0.7285;0.5558;
786.3000;0.7269;0.5607;
786.6000;0.7285;0.5607;
786.9000;0.7253;0.5631;
787.2000;0.7269;0.5607;
787.5000;0.7261;0.5558;
787.8000;0.7245;0.5485;
788.1000;0.7277;0.5533;
788.4000;0.7261;0.5436;
788.7000;0.7269;0.5436;
789.0000;0.7253;0.5387;
789.3000;0.7285;0.5363;
789.6000;0.7269;0.5387;
789.9000;0.7285;0.5387;
790.2000;0.7326;0.5436;
790.5000;0.7293;0.5217;
790.8000;0.7269;0.5119;
791.1000;0.7302;0.5265;
791.4000;0.7310;0.5290;
791.7000;0.7277;0.5241;
792.0000;0.7253;0.5241;
792.3000;0.7253;0.5290;
792.6000;0.7277;0.5412;
792.9000;0.7253;0.5412;
793.2000;0.7302;0.5436;
793.5000;0.7269;0.5338;
793.8000;0.7261;0.5387;
794.1000;0.7261;0.5509;
794.4000;0.7302;0.5607;
794.7000;0.7269;0.5485;
795.0000;0.7253;0.5412;
795.3000;0.7302;0.5460;
795.6000;0.7277;0.5412;
795.9000;0.7269;0.5436;
796.2000;0.7245;0.5412;
796.5000;0.7302;0.5460;
796.8000;0.7269;0.5338;
797.1000;0.7261;0.5338;
797.4000;0.7253;0.5363;
797.7000;0.7253;0.5363;
798.0000;0.7253;0.5363;
798.3000;0.7261;0.5387;
798.6000;0.7188;0.5241;
798.9000;0.7261;0.5412;
799.2000;0.7253;0.5412;
799.5000;0.7269;0.5460;
799.8000;0.7261;0.5412;
800.1000;0.7277;0.5436;
800.4000;0.7261;0.5387;
800.7000;0.7261;0.5338;
801.0000;0.7285;0.5436;
801.3000;0.7293;0.5558;
801.6000;0.7261;0.5533;
801.9000;0.7261;0.5509;
802.2000;0.7261;0.5607;
802.5000;0.7269;0.5655;
802.8000;0.7277;0.5631;
803.1000;0.7277;0.5607;
803.4000;0.7277;0.5607;
803.7000;0.7277;0.5607;
804.0000;0.7261;0.5607;
804.3000;0.7261;0.5631;
804.6000;0.7261;0.5533;
804.9000;0.7261;0.5509;
805.2000;0.7269;0.5558;
805.5000;0.7261;0.5582;
805.8000;0.7285;0.5655;
806.1000;0.7302;0.5607;
806.4000;0.7293;0.5558;
806.7000;0.7277;0.5412;
807.0000;0.7293;0.5460;
807.3000;0.7285;0.5485;
807.6000;0.7277;0.5436;
807.9000;0.7245;0.5412;
808.2000;0.7236;0.5460;
808.5000;0.7253;0.5533;
808.8000;0.7261;0.5631;
809.1000;0.7261;0.5607;
809.4000;0.7261;0.5655;
809.7000;0.7253;0.5558;
810.0000;0.7261;0.5485;
810.3000;0.7310;0.5558;
810.6000;0.7293;0.5582;
810.9000;0.7245;0.5460;
811.2000;0.7269;0.5558;
811.5000;0.7269;0.5533;
811.8000;0.7253;0.5436;
812.1000;0.7269;0.5509;
812.4000;0.7253;0.5460;
812.7000;0.7253;0.5558;
813.0000;0.7277;0.5631;
813.3000;0.7220;0.5509;
813.6000;0.7269;0.5582;
813.9000;0.7253;0.5533;
814.2000;0.7228;0.5558;
814.5000;0.7236;0.5533;
814.8000;0.7245;0.5460;
815.1000;0.7253;0.5485;
815.4000;0.7310;0.5655;
815.7000;0.7269;0.5533;
816.0000;0.7236;0.5533;
816.3000;0.7253;0.5533;
816.6000;0.7350;0.5777;
816.9000;0.7253;0.5607;
817.2000;0.7253;0.5558;
817.5000;0.7269;0.5582;
817.8000;0.7245;0.5607;
818.1000;0.7245;0.5509;
818.4000;0.7261;0.5509;
818.7000;0.7245;0.5533;
819.0000;0.7269;0.5485;
819.3000;0.7253;0.5387;
819.6000;0.7228;0.5387;
819.9000;0.7245;0.5436;
820.2000;0.7204;0.5436;
820.5000;0.7253;0.5509;
820.8000;0.7269;0.5558;
821.1000;0.7261;0.5607;
821.4000;0.7261;0.5558;
821.7000;0.7220;0.5558;
822.0000;0.7269;0.5558;
822.3000;0.7261;0.5631;
822.6000;0.7277;0.5607;
822.9000;0.7277;0.5655;
823.2000;0.7220;0.5582;
823.5000;0.7245;0.5631;
823.8000;0.7245;0.5558;
824.1000;0.7253;0.5558;
824.4000;0.7236;0.5485;
824.7000;0.7253;0.5558;
825.0000;0.7236;0.5509;
825.3000;0.7236;0.5485;
825.6000;0.7261;0.5485;
825.9000;0.7196;0.5387;
826.2000;0.7293;0.5631;
826.5000;0.7245;0.5509;
826.8000;0.7253;0.5460;
827.1000;0.7261;0.5509;
827.4000;0.7253;0.5485;
827.7000;0.7261;0.5485;
828.0000;0.7236;0.5558;
828.3000;0.7253;0.5533;
828.6000;0.7245;0.5485;
828.9000;0.7204;0.5436;
829.2000;0.7228;0.5436;
829.5000;0.7236;0.5387;
829.8000;0.7318;0.5485;
830.1000;0.7261;0.5412;
830.4000;0.7228;0.5290;
830.7000;0.7245;0.5290;
831.0000;0.7277;0.5314;
831.3000;0.7277;0.5338;
831.6000;0.7261;0.5387;
831.9000;0.7269;0.5460;
832.2000;0.7228;0.5363;
832.5000;0.7253;0.5363;
832.8000;0.7253;0.5436;
833.1000;0.7293;0.5631;
833.4000;0.7245;0.5558;
833.7000;0.7236;0.5533;
834.0000;0.7269;0.5607;
834.3000;0.7245;0.5631;
834.6000;0.7245;0.5558;
834.9000;0.7245;0.5533;
835.2000;0.7253;0.5558;
835.5000;0.7245;0.5485;
835.8000;0.7236;0.5460;
836.1000;0.7277;0.5460;
836.4000;0.7220;0.5314;
836.7000;0.7269;0.5412;
837.0000;0.7261;0.5460;
837.3000;0.7261;0.5387;
837.6000;0.7245;0.5290;
837.9000;0.7277;0.5436;
838.2000;0.7253;0.5412;
838.5000;0.7261;0.5412;
838.8000;0.7277;0.5363;
839.1000;0.7253;0.5363;
839.4000;0.7228;0.5290;
839.7000;0.7253;0.5412;
840.0000;0.7277;0.5387;
840.3000;0.7253;0.5460;
840.6000;0.7253;0.5533;
840.9000;0.7261;0.5509;
841.2000;0.7253;0.5558;
841.5000;0.7245;0.5533;
841.8000;0.7261;0.5533;
842.1000;0.7236;0.5436;
842.4000;0.7204;0.5290;
842.7000;0.7253;0.5387;
843.0000;0.7261;0.5412;
843.3000;0.7196;0.5338;
843.6000;0.7245;0.5460;
843.9000;0.7236;0.5412;
844.2000;0.7253;0.5509;
844.5000;0.7236;0.5387;
844.8000;0.7220;0.5412;
845.1000;0.7245;0.5533;
845.4000;0.7269;0.5582;
845.7000;0.7236;0.5460;
846.0000;0.7228;0.5460;
846.3000;0.7236;0.5436;
846.6000;0.7236;0.5387;
846.9000;0.7261;0.5387;
847.2000;0.7245;0.5387;
847.5000;0.7253;0.5363;
847.8000;0.7261;0.5412;
848.1000;0.7245;0.5363;
848.4000;0.7261;0.5412;
848.7000;0.7245;0.5363;
849.0000;0.7204;0.5363;
849.3000;0.7245;0.5412;
849.6000;0.7245;0.5436;
849.9000;0.7228;0.5460;
850.2000;0.7196;0.5290;
850.5000;0.7253;0.5436;
850.8000;0.7261;0.5412;
851.1000;0.7236;0.5363;
851.4000;0.7253;0.5412;
851.7000;0.7245;0.5533;
852.0000;0.7253;0.5485;
852.3000;0.7253;0.5485;
852.6000;0.7253;0.5509;
852.9000;0.7188;0.5412;
853.2000;0.7228;0.5533;
853.5000;0.7253;0.5680;
853.8000;0.7236;0.5655;
854.1000;0.7253;0.5655;
854.4000;0.7253;0.5631;
854.7000;0.7212;0.5533;
855.0000;0.7220;0.5533;
855.3000;0.7228;0.5509;
855.6000;0.7220;0.5558;
855.9000;0.7245;0.5631;
856.2000;0.7220;0.5558;
856.5000;0.7245;0.5607;
856.8000;0.7253;0.5607;
857.1000;0.7245;0.5680;
857.4000;0.7245;0.5680;
857.7000;0.7236;0.5753;
858.0000;0.7253;0.5777;
858.3000;0.7277;0.5753;
858.6000;0.7269;0.5680;
858.9000;0.7253;0.5607;
859.2000;0.7245;0.5558;
859.5000;0.7236;0.5485;
859.8000;0.7253;0.5533;
860.1000;0.7253;0.5509;
860.4000;0.7261;0.5533;
860.7000;0.7245;0.5631;
861.0000;0.7261;0.5704;
861.3000;0.7245;0.5704;
861.6000;0.7285;0.5680;
861.9000;0.7204;0.5509;
862.2000;0.7269;0.5655;
862.5000;0.7277;0.5631;
862.8000;0.7261;0.5631;
863.1000;0.7236;0.5655;
863.4000;0.7253;0.5631;
863.7000;0.7228;0.5704;
864.0000;0.7253;0.5680;
864.3000;0.7236;0.5704;
864.6000;0.7318;0.5826;
864.9000;0.7220;0.5680;
865.2000;0.7228;0.5631;
865.5000;0.7204;0.5436;
865.8000;0.7245;0.5582;
866.1000;0.7269;0.5582;
866.4000;0.7269;0.5582;
866.7000;0.7228;0.5607;
867.0000;0.7261;0.5607;
867.3000;0.7245;0.5631;
867.6000;0.7236;0.5533;
867.9000;0.7245;0.5509;
868.2000;0.7253;0.5387;
868.5000;0.7253;0.5460;
868.8000;0.7310;0.5607;
869.1000;0.7245;0.5387;
869.4000;0.7253;0.5338;
869.7000;0.7261;0.5290;
870.0000;0.7220;0.5217;
870.3000;0.7236;0.5363;
870.6000;0.7245;0.5412;
870.9000;0.7261;0.5436;
871.2000;0.7236;0.5485;
871.5000;0.7261;0.5533;
871.8000;0.7245;0.5412;
872.1000;0.7228;0.5387;
872.4000;0.7245;0.5533;
872.7000;0.7228;0.5436;
873.0000;0.7228;0.5533;
873.3000;0.7220;0.5436;
873.6000;0.7245;0.5387;
873.9000;0.7204;0.5338;
874.2000;0.7220;0.5436;
874.5000;0.7236;0.5460;
874.8000;0.7261;0.5533;
875.1000;0.7253;0.5558;
875.4000;0.7253;0.5485;
875.7000;0.7245;0.5509;
876.0000;0.7188;0.5412;
876.3000;0.7245;0.5631;
876.6000;0.7245;0.5533;
876.9000;0.7236;0.5558;
877.2000;0.7245;0.5582;
877.5000;0.7253;0.5607;
877.8000;0.7236;0.5533;
878.1000;0.7236;0.5485;
878.4000;0.7212;0.5436;
878.7000;0.7228;0.5533;
879.0000;0.7245;0.5436;
879.3000;0.7220;0.5412;
879.6000;0.7236;0.5412;
879.9000;0.7236;0.5558;
880.2000;0.7253;0.5582;
880.5000;0.7236;0.5509;
880.8000;0.7236;0.5533;
881.1000;0.7245;0.5509;
881.4000;0.7245;0.5607;
881.7000;0.7245;0.5558;
882.0000;0.7236;0.5485;
882.3000;0.7253;0.5533;
882.6000;0.7236;0.5460;
882.9000;0.7236;0.5387;
883.2000;0.7245;0.5412;
883.5000;0.7261;0.5412;
883.8000;0.7253;0.5412;
884.1000;0.7236;0.5509;
884.4000;0.7310;0.5704;
884.7000;0.7261;0.5607;
885.0000;0.7261;0.5631;
885.3000;0.7245;0.5509;
885.6000;0.7245;0.5412;
885.9000;0.7245;0.5412;
886.2000;0.7245;0.5509;
886.5000;0.7245;0.5533;
886.8000;0.7236;0.5509;
887.1000;0.7245;0.5533;
887.4000;0.7269;0.5509;
887.7000;0.7261;0.5412;
888.0000;0.7245;0.5412;
888.3000;0.7228;0.5338;
888.6000;0.7253;0.5387;
888.9000;0.7253;0.5363;
889.2000;0.7245;0.5314;
889.5000;0.7220;0.5192;
889.8000;0.7236;0.5168;
890.1000;0.7253;0.5265;
890.4000;0.7236;0.5241;
890.7000;0.7228;0.5387;
891.0000;0.7228;0.5363;
891.3000;0.7236;0.5314;
891.6000;0.7236;0.5338;
891.9000;0.7228;0.5290;
892.2000;0.7228;0.5338;
892.5000;0.7204;0.5290;
892.8000;0.7236;0.5314;
893.1000;0.7220;0.5290;
893.4000;0.7245;0.5192;
893.7000;0.7245;0.5070;
894.0000;0.7253;0.5022;
894.3000;0.7245;0.5095;
894.6000;0.7245;0.5143;
894.9000;0.7245;0.5143;
895.2000;0.7253;0.5192;
895.5000;0.7245;0.5217;
895.8000;0.7253;0.5338;
896.1000;0.7277;0.5509;
896.4000;0.7245;0.5412;
896.7000;0.7228;0.5412;
897.0000;0.7245;0.5387;
897.3000;0.7236;0.5290;
897.6000;0.7236;0.5265;
897.9000;0.7253;0.5290;
898.2000;0.7220;0.5290;
898.5000;0.7245;0.5314;
898.8000;0.7236;0.5363;
899.1000;0.7236;0.5363;
899.4000;0.7220;0.5338;
899.7000;0.7228;0.5265;
900.0000;0.7228;0.5314;
900.3000;0.7220;0.5290;
900.6000;0.7228;0.5265;
900.9000;0.7261;0.5412;
901.2000;0.7220;0.5412;
901.5000;0.7228;0.5363;
901.8000;0.7236;0.5314;
902.1000;0.7228;0.5217;
902.4000;0.7236;0.5338;
902.7000;0.7253;0.5387;
903.0000;0.7253;0.5412;
903.3000;0.7261;0.5412;
903.6000;0.7253;0.5363;
903.9000;0.7245;0.5436;
904.2000;0.7285;0.5607;
904.5000;0.7253;0.5558;
904.8000;0.7220;0.5558;
905.1000;0.7253;0.5655;
905.4000;0.7253;0.5631;
905.7000;0.7310;0.5777;
906.0000;0.7228;0.5558;
906.3000;0.7228;0.5558;
906.6000;0.7253;0.5582;
906.9000;0.7245;0.5631;
907.2000;0.7261;0.5680;
907.5000;0.7236;0.5631;
907.8000;0.7228;0.5607;
908.1000;0.7245;0.5655;
908.4000;0.7236;0.5485;
908.7000;0.7245;0.5436;
909.0000;0.7245;0.5412;
909.3000;0.7245;0.5363;
909.6000;0.7228;0.5363;
909.9000;0.7220;0.5265;
910.2000;0.7245;0.5412;
910.5000;0.7228;0.5436;
910.8000;0.7236;0.5533;
911.1000;0.7220;0.5509;
911.4000;0.7220;0.5460;
911.7000;0.7334;0.5753;
912.0000;0.7236;0.5460;
912.3000;0.7220;0.5436;
912.6000;0.7253;0.5607;
912.9000;0.7293;0.5680;
913.2000;0.7285;0.5631;
913.5000;0.7253;0.5533;
913.8000;0.7220;0.5436;
914.1000;0.7228;0.5485;
914.4000;0.7228;0.5485;
914.7000;0.7245;0.5485;
915.0000;0.7228;0.5509;
915.3000;0.7236;0.5582;
915.6000;0.7236;0.5582;
915.9000;0.7228;0.5533;
916.2000;0.7220;0.5509;
916.5000;0.7253;0.5485;
916.8000;0.7245;0.5412;
917.1000;0.7261;0.5558;
917.4000;0.7245;0.5558;
917.7000;0.7326;0.5802;
918.0000;0.7245;0.5680;
918.3000;0.7245;0.5631;
918.6000;0.7236;0.5582;
918.9000;0.7220;0.5582;
919.2000;0.7236;0.5582;
919.5000;0.7236;0.5558;
919.8000;0.7212;0.5558;
920.1000;0.7245;0.5558;
920.4000;0.7236;0.5558;
920.7000;0.7236;0.5631;
921.0000;0.7220;0.5558;
921.3000;0.7269;0.5558;
921.6000;0.7228;0.5485;
921.9000;0.7236;0.5533;
922.2000;0.7228;0.5558;
922.5000;0.7236;0.5558;
922.8000;0.7236;0.5607;
923.1000;0.7196;0.5460;
923.4000;0.7228;0.5582;
923.7000;0.7196;0.5485;
924.0000;0.7228;0.5558;
924.3000;0.7228;0.5582;
924.6000;0.7220;0.5533;
924.9000;0.7220;0.5485;
925.2000;0.7220;0.5485;
925.5000;0.7220;0.5460;
925.8000;0.7236;0.5436;
926.1000;0.7204;0.5387;
926.4000;0.7228;0.5460;
926.7000;0.7228;0.5387;
927.0000;0.7228;0.5363;
927.3000;0.7310;0.5582;
927.6000;0.7228;0.5485;
927.9000;0.7228;0.5558;
928.2000;0.7236;0.5485;
928.5000;0.7228;0.5436;
928.8000;0.7228;0.5436;
929.1000;0.7228;0.5485;
929.4000;0.7204;0.5387;
929.7000;0.7236;0.5509;
930.0000;0.7228;0.5387;
930.3000;0.7253;0.5485;
930.6000;0.7236;0.5533;
930.9000;0.7236;0.5582;
931.2000;0.7236;0.5607;
931.5000;0.7236;0.5655;
931.8000;0.7236;0.5631;
932.1000;0.7228;0.5607;
932.4000;0.7253;0.5631;
932.7000;0.7228;0.5558;
933.0000;0.7228;0.5485;
933.3000;0.7228;0.5387;
933.6000;0.7253;0.5460;
933.9000;0.7212;0.5387;
934.2000;0.7228;0.5412;
934.5000;0.7236;0.5412;
934.8000;0.7228;0.5509;
935.1000;0.7212;0.5387;
935.4000;0.7269;0.5485;
935.7000;0.7253;0.5363;
936.0000;0.7204;0.5265;
936.3000;0.7236;0.5265;
936.6000;0.7228;0.5241;
936.9000;0.7228;0.5265;
937.2000;0.7228;0.5314;
937.5000;0.7245;0.5338;
937.8000;0.7131;0.5143;
938.1000;0.7220;0.5412;
938.4000;0.7212;0.5460;
938.7000;0.7228;0.5485;
939.0000;0.7212;0.5338;
939.3000;0.7171;0.5119;
939.6000;0.7228;0.5217;
939.9000;0.7253;0.5265;
940.2000;0.7204;0.5119;
940.5000;0.7228;0.5192;
940.8000;0.7228;0.5192;
941.1000;0.7236;0.5363;
941.4000;0.7220;0.5314;
941.7000;0.7220;0.5363;
942.0000;0.7228;0.5412;
942.3000;0.7228;0.5509;
942.6000;0.7277;0.5753;
942.9000;0.7245;0.5728;
943.2000;0.7253;0.5607;
943.5000;0.7220;0.5485;
943.8000;0.7245;0.5485;
944.1000;0.7261;0.5460;
944.4000;0.7220;0.5314;
944.7000;0.7228;0.5338;
945.0000;0.7204;0.5265;
945.3000;0.7269;0.5485;
945.6000;0.7228;0.5387;
945.9000;0.7318;0.5485;
946.2000;0.7204;0.5265;
946.5000;0.7220;0.5338;
946.8000;0.7228;0.5314;
947.1000;0.7261;0.5387;
947.4000;0.7236;0.5363;
947.7000;0.7228;0.5314;
948.0000;0.7261;0.5412;
948.3000;0.7236;0.5363;
948.6000;0.7236;0.5387;
948.9000;0.7228;0.5436;
949.2000;0.7228;0.5387;
949.5000;0.7245;0.5460;
949.8000;0.7196;0.5338;
950.1000;0.7220;0.5387;
950.4000;0.7212;0.5387;
950.7000;0.7220;0.5509;
951.0000;0.7253;0.5631;
951.3000;0.7261;0.5680;
951.6000;0.7228;0.5680;
951.9000;0.7220;0.5655;
952.2000;0.7261;0.5728;
952.5000;0.7245;0.5655;
952.8000;0.7236;0.5607;
953.1000;0.7236;0.5558;
953.4000;0.7179;0.5387;
953.7000;0.7236;0.5558;
954.0000;0.7245;0.5607;
954.3000;0.7212;0.5533;
954.6000;0.7253;0.5607;
954.9000;0.7236;0.5607;
955.2000;0.7245;0.5582;
955.5000;0.7261;0.5680;
955.8000;0.7212;0.5607;
956.1000;0.7245;0.5607;
956.4000;0.7212;0.5412;
956.7000;0.7196;0.5387;
957.0000;0.7236;0.5485;
957.3000;0.7236;0.5533;
957.6000;0.7155;0.5363;
957.9000;0.7261;0.5582;
958.2000;0.7204;0.5558;
958.5000;0.7220;0.5631;
958.8000;0.7228;0.5631;
959.1000;0.7220;0.5607;
959.4000;0.7204;0.5631;
959.7000;0.7220;0.5582;
960.0000;0.7253;0.5655;
960.3000;0.7228;0.5533;
960.6000;0.7245;0.5582;
960.9000;0.7261;0.5631;
961.2000;0.7196;0.5533;
961.5000;0.7220;0.5607;
961.8000;0.7245;0.5655;
962.1000;0.7277;0.5631;
962.4000;0.7212;0.5558;
962.7000;0.7245;0.5607;
963.0000;0.7236;0.5607;
963.3000;0.7236;0.5631;
963.6000;0.7261;0.5582;
963.9000;0.7228;0.5558;
964.2000;0.7277;0.5655;
964.5000;0.7228;0.5460;
964.8000;0.7245;0.5509;
965.1000;0.7261;0.5582;
965.4000;0.7220;0.5533;
965.7000;0.7188;0.5338;
966.0000;0.7228;0.5436;
966.3000;0.7220;0.5387;
966.6000;0.7228;0.5412;
966.9000;0.7228;0.5412;
967.2000;0.7236;0.5338;
967.5000;0.7220;0.5387;
967.8000;0.7236;0.5485;
968.1000;0.7188;0.5412;
968.4000;0.7236;0.5655;
968.7000;0.7285;0.5753;
969.0000;0.7220;0.5485;
969.3000;0.7245;0.5485;
969.6000;0.7220;0.5485;
969.9000;0.7188;0.5387;
970.2000;0.7245;0.5412;
970.5000;0.7228;0.5412;
970.8000;0.7302;0.5533;
971.1000;0.7261;0.5436;
971.4000;0.7261;0.5436;
971.7000;0.7236;0.5436;
972.0000;0.7261;0.5485;
972.3000;0.7236;0.5436;
972.6000;0.7253;0.5509;
972.9000;0.7228;0.5460;
973.2000;0.7228;0.5533;
973.5000;0.7236;0.5558;
973.8000;0.7228;0.5558;
974.1000;0.7245;0.5582;
974.4000;0.7212;0.5631;
974.7000;0.7228;0.5728;
975.0000;0.7245;0.5728;
975.3000;0.7236;0.5753;
975.6000;0.7220;0.5680;
975.9000;0.7204;0.5607;
976.2000;0.7228;0.5607;
976.5000;0.7253;0.5631;
976.8000;0.7236;0.5582;
977.1000;0.7220;0.5387;
977.4000;0.7236;0.5387;
977.7000;0.7228;0.5387;
978.0000;0.7228;0.5533;
978.3000;0.7334;0.5826;
978.6000;0.7236;0.5631;
978.9000;0.7253;0.5753;
979.2000;0.7261;0.5826;
979.5000;0.7236;0.5680;
979.8000;0.7228;0.5607;
980.1000;0.7204;0.5533;
980.4000;0.7220;0.5558;
980.7000;0.7196;0.5485;
981.0000;0.7220;0.5533;
981.3000;0.7204;0.5485;
981.6000;0.7220;0.5533;
981.9000;0.7318;0.5753;
982.2000;0.7212;0.5509;
982.5000;0.7212;0.5485;
982.8000;0.7236;0.5558;
983.1000;0.7220;0.5582;
983.4000;0.7245;0.5680;
983.7000;0.7228;0.5655;
984.0000;0.7228;0.5607;
984.3000;0.7163;0.5485;
984.6000;0.7236;0.5680;
984.9000;0.7212;0.5582;
985.2000;0.7245;0.5631;
985.5000;0.7163;0.5412;
985.8000;0.7236;0.5509;
986.1000;0.7261;0.5485;
986.4000;0.7220;0.5290;
986.7000;0.7228;0.5363;
987.0000;0.7228;0.5363;
987.3000;0.7269;0.5460;
987.6000;0.7228;0.5363;
987.9000;0.7228;0.5412;
988.2000;0.7236;0.5509;
988.5000;0.7236;0.5558;
988.8000;0.7236;0.5607;
989.1000;0.7236;0.5558;
989.4000;0.7269;0.5533;
989.7000;0.7236;0.5460;
990.0000;0.7236;0.5436;
990.3000;0.7269;0.5582;
990.6000;0.7236;0.5533;
990.9000;0.7236;0.5509;
991.2000;0.7245;0.5558;
991.5000;0.7253;0.5582;
991.8000;0.7236;0.5558;
992.1000;0.7212;0.5558;
992.4000;0.7228;0.5558;
992.7000;0.7236;0.5582;
993.0000;0.7236;0.5582;
993.3000;0.7236;0.5533;
993.6000;0.7236;0.5412;
993.9000;0.7236;0.5412;
994.2000;0.7253;0.5436;
994.5000;0.7236;0.5436;
994.8000;0.7220;0.5460;
995.1000;0.7220;0.5460;
995.4000;0.7228;0.5460;
995.7000;0.7245;0.5533;
996.0000;0.7253;0.5607;
996.3000;0.7253;0.5631;
996.6000;0.7236;0.5680;
996.9000;0.7253;0.5728;
997.2000;0.7236;0.5631;
997.5000;0.7245;0.5631;
997.8000;0.7269;0.5655;
998.1000;0.7261;0.5680;
998.4000;0.7245;0.5655;
998.7000;0.7236;0.5631;
999.0000;0.7236;0.5533;
999.3000;0.7228;0.5533;
999.6000;0.7253;0.5558;
999.9000;0.7245;0.5558;
1000.2000;0.7212;0.5387;
1000.5000;0.7228;0.5436;
1000.8000;0.7220;0.5387;
1001.1000;0.7212;0.5412;
1001.4000;0.7220;0.5412;
1001.7000;0.7228;0.5509;
1002.0000;0.7236;0.5558;
1002.3000;0.7228;0.5509;
1002.6000;0.7228;0.5460;
1002.9000;0.7212;0.5460;
1003.2000;0.7163;0.5363;
1003.5000;0.7212;0.5412;
1003.8000;0.7228;0.5558;
1004.1000;0.7228;0.5607;
1004.4000;0.7220;0.5582;
1004.7000;0.7245;0.5631;
1005.0000;0.7253;0.5631;
1005.3000;0.7179;0.5412;
1005.6000;0.7236;0.5460;
1005.9000;0.7228;0.5412;
1006.2000;0.7236;0.5363;
1006.5000;0.7261;0.5412;
1006.8000;0.7212;0.5314;
1007.1000;0.7212;0.5363;
1007.4000;0.7261;0.5485;
1007.7000;0.7212;0.5387;
1008.0000;0.7163;0.5217;
1008.3000;0.7196;0.5338;
1008.6000;0.7236;0.5436;
1008.9000;0.7228;0.5485;
1009.2000;0.7261;0.5558;
1009.5000;0.7188;0.5314;
1009.8000;0.7236;0.5412;
1010.1000;0.7253;0.5460;
1010.4000;0.7212;0.5412;
1010.7000;0.7228;0.5387;
1011.0000;0.7236;0.5412;
1011.3000;0.7220;0.5436;
1011.6000;0.7220;0.5533;
1011.9000;0.7212;0.5509;
1012.2000;0.7212;0.5485;
1012.5000;0.7236;0.5485;
1012.8000;0.7220;0.5436;
1013.1000;0.7220;0.5558;
1013.4000;0.7236;0.5655;
1013.7000;0.7196;0.5460;
1014.0000;0.7228;0.5607;
1014.3000;0.7228;0.5680;
1014.6000;0.7220;0.5607;
1014.9000;0.7228;0.5607;
1015.2000;0.7212;0.5607;
1015.5000;0.7228;0.5704;
1015.8000;0.7228;0.5728;
1016.1000;0.7212;0.5753;
1016.4000;0.7220;0.5704;
1016.7000;0.7236;0.5582;
1017.0000;0.7220;0.5533;
1017.3000;0.7342;0.5826;
1017.6000;0.7228;0.5533;
1017.9000;0.7236;0.5460;
1018.2000;0.7220;0.5460;
1018.5000;0.7228;0.5412;
1018.8000;0.7245;0.5460;
1019.1000;0.7236;0.5412;
1019.4000;0.7212;0.5338;
1019.7000;0.7220;0.5387;
1020.0000;0.7236;0.5558;
1020.3000;0.7236;0.5582;
1020.6000;0.7212;0.5509;
1020.9000;0.7220;0.5533;
1021.2000;0.7228;0.5533;
1021.5000;0.7220;0.5582;
1021.8000;0.7245;0.5558;
1022.1000;0.7228;0.5558;
1022.4000;0.7228;0.5436;
1022.7000;0.7236;0.5436;
1023.0000;0.7236;0.5412;
1023.3000;0.7277;0.5485;
1023.6000;0.7253;0.5485;
1023.9000;0.7236;0.5412;
1024.2000;0.7245;0.5485;
1024.5000;0.7220;0.5460;
1024.8000;0.7228;0.5436;
1025.1000;0.7245;0.5412;
1025.4000;0.7245;0.5436;
1025.7000;0.7245;0.5460;
1026.0000;0.7236;0.5436;
1026.3000;0.7245;0.5485;
1026.6000;0.7228;0.5509;
1026.9000;0.7228;0.5485;
1027.2000;0.7228;0.5558;
1027.5000;0.7245;0.5680;
1027.8000;0.7245;0.5704;
1028.1000;0.7212;0.5704;
1028.4000;0.7179;0.5655;
1028.7000;0.7236;0.5704;
1029.0000;0.7269;0.5655;
1029.3000;0.7220;0.5460;
1029.6000;0.7212;0.5387;
1029.9000;0.7236;0.5436;
1030.2000;0.7236;0.5387;
1030.5000;0.7212;0.5338;
1030.8000;0.7228;0.5314;
1031.1000;0.7245;0.5265;
1031.4000;0.7179;0.5046;
1031.7000;0.7220;0.5217;
1032.0000;0.7212;0.5290;
1032.3000;0.7253;0.5363;
1032.6000;0.7236;0.5363;
1032.9000;0.7139;0.5143;
1033.2000;0.7228;0.5387;
1033.5000;0.7228;0.5460;
1033.8000;0.7228;0.5436;
1034.1000;0.7245;0.5460;
1034.4000;0.7245;0.5338;
1034.7000;0.7220;0.5217;
1035.0000;0.7196;0.5168;
1035.3000;0.7220;0.5095;
1035.6000;0.7228;0.5119;
1035.9000;0.7212;0.5070;
1036.2000;0.7212;0.5192;
1036.5000;0.7236;0.5265;
1036.8000;0.7245;0.5314;
1037.1000;0.7228;0.5241;
1037.4000;0.7228;0.5265;
1037.7000;0.7228;0.5168;
1038.0000;0.7236;0.5217;
1038.3000;0.7220;0.5290;
1038.6000;0.7236;0.5241;
1038.9000;0.7245;0.5217;
1039.2000;0.7245;0.5265;
1039.5000;0.7236;0.5387;
1039.8000;0.7220;0.5436;
1040.1000;0.7228;0.5412;
1040.4000;0.7220;0.5338;
1040.7000;0.7228;0.5412;
1041.0000;0.7245;0.5485;
1041.3000;0.7220;0.5436;
1041.6000;0.7228;0.5533;
1041.9000;0.7188;0.5412;
1042.2000;0.7253;0.5582;
1042.5000;0.7212;0.5509;
1042.8000;0.7220;0.5704;
1043.1000;0.7228;0.5753;
1043.4000;0.7220;0.5777;
1043.7000;0.7236;0.5802;
1044.0000;0.7245;0.5875;
1044.3000;0.7228;0.5728;
1044.6000;0.7228;0.5704;
1044.9000;0.7310;0.5924;
1045.2000;0.7228;0.5728;
1045.5000;0.7253;0.5802;
1045.8000;0.7204;0.5777;
1046.1000;0.7220;0.5753;
1046.4000;0.7220;0.5655;
1046.7000;0.7212;0.5631;
1047.0000;0.7212;0.5631;
1047.3000;0.7245;0.5728;
1047.6000;0.7261;0.5753;
1047.9000;0.7253;0.5680;
1048.2000;0.7196;0.5509;
1048.5000;0.7228;0.5558;
1048.8000;0.7220;0.5607;
1049.1000;0.7228;0.5704;
1049.4000;0.7236;0.5680;
1049.7000;0.7220;0.5582;
1050.0000;0.7220;0.5655;
1050.3000;0.7228;0.5655;
1050.6000;0.7245;0.5704;
1050.9000;0.7212;0.5680;
1051.2000;0.7228;0.5704;
1051.5000;0.7220;0.5680;
1051.8000;0.7212;0.5704;
1052.1000;0.7228;0.5753;
1052.4000;0.7220;0.5728;
1052.7000;0.7188;0.5558;
1053.0000;0.7228;0.5704;
1053.3000;0.7212;0.5728;
1053.6000;0.7212;0.5802;
1053.9000;0.7220;0.5802;
1054.2000;0.7228;0.5728;
1054.5000;0.7220;0.5704;
1054.8000;0.7245;0.5777;
1055.1000;0.7236;0.5728;
1055.4000;0.7212;0.5753;
1055.7000;0.7228;0.5777;
1056.0000;0.7293;0.5924;
1056.3000;0.7228;0.5753;
1056.6000;0.7228;0.5704;
1056.9000;0.7228;0.5680;
1057.2000;0.7220;0.5655;
1057.5000;0.7228;0.5607;
1057.8000;0.7318;0.5802;
1058.1000;0.7253;0.5607;
1058.4000;0.7228;0.5607;
1058.7000;0.7236;0.5558;
1059.0000;0.7269;0.5777;
1059.3000;0.7245;0.5680;
1059.6000;0.7253;0.5704;
1059.9000;0.7228;0.5607;
1060.2000;0.7236;0.5655;
1060.5000;0.7228;0.5509;
1060.8000;0.7245;0.5655;
1061.1000;0.7228;0.5558;
1061.4000;0.7236;0.5582;
1061.7000;0.7220;0.5509;
1062.0000;0.7220;0.5460;
1062.3000;0.7220;0.5412;
1062.6000;0.7245;0.5485;
1062.9000;0.7204;0.5460;
1063.2000;0.7236;0.5558;
1063.5000;0.7228;0.5607;
1063.8000;0.7253;0.5631;
1064.1000;0.7212;0.5509;
1064.4000;0.7253;0.5680;
1064.7000;0.7261;0.5753;
1065.0000;0.7220;0.5655;
1065.3000;0.7228;0.5533;
1065.6000;0.7212;0.5631;
1065.9000;0.7236;0.5655;
1066.2000;0.7212;0.5607;
1066.5000;0.7236;0.5753;
1066.8000;0.7236;0.5704;
1067.1000;0.7236;0.5704;
1067.4000;0.7220;0.5655;
1067.7000;0.7220;0.5704;
1068.0000;0.7245;0.5631;
1068.3000;0.7220;0.5607;
1068.6000;0.7236;0.5631;
1068.9000;0.7228;0.5704;
1069.2000;0.7228;0.5753;
1069.5000;0.7236;0.5728;
1069.8000;0.7196;0.5533;
1070.1000;0.7236;0.5631;
1070.4000;0.7236;0.5631;
1070.7000;0.7220;0.5533;
1071.0000;0.7236;0.5631;
1071.3000;0.7220;0.5631;
1071.6000;0.7228;0.5631;
1071.9000;0.7220;0.5631;
1072.2000;0.7245;0.5680;
1072.5000;0.7220;0.5582;
1072.8000;0.7245;0.5655;
1073.1000;0.7220;0.5680;
1073.4000;0.7253;0.5607;
1073.7000;0.7236;0.5607;
1074.0000;0.7220;0.5680;
1074.3000;0.7245;0.5826;
1074.6000;0.7253;0.5850;
1074.9000;0.7220;0.5777;
1075.2000;0.7228;0.5753;
1075.5000;0.7228;0.5680;
1075.8000;0.7212;0.5582;
1076.1000;0.7228;0.5582;
1076.4000;0.7220;0.5387;
1076.7000;0.7236;0.5363;
1077.0000;0.7228;0.5314;
1077.3000;0.7204;0.5217;
1077.6000;0.7220;0.5265;
1077.9000;0.7236;0.5265;
1078.2000;0.7171;0.5143;
1078.5000;0.7236;0.5363;
1078.8000;0.7220;0.5241;
1079.1000;0.7228;0.5363;
1079.4000;0.7212;0.5412;
1079.7000;0.7204;0.5363;
1080.0000;0.7236;0.5363;
1080.3000;0.7212;0.5290;
1080.6000;0.7228;0.5290;
1080.9000;0.7236;0.5338;
1081.2000;0.7236;0.5314;
1081.5000;0.7220;0.5338;
1081.8000;0.7228;0.5363;
1082.1000;0.7253;0.5533;
1082.4000;0.7228;0.5509;
1082.7000;0.7236;0.5558;
1083.0000;0.7245;0.5582;
1083.3000;0.7245;0.5558;
1083.6000;0.7253;0.5582;
1083.9000;0.7236;0.5485;
1084.2000;0.7228;0.5485;
1084.5000;0.7236;0.5509;
1084.8000;0.7245;0.5485;
1085.1000;0.7277;0.5509;
1085.4000;0.7245;0.5485;
1085.7000;0.7212;0.5412;
1086.0000;0.7220;0.5387;
1086.3000;0.7212;0.5412;
1086.6000;0.7245;0.5558;
1086.9000;0.7171;0.5387;
1087.2000;0.7253;0.5631;
1087.5000;0.7245;0.5509;
1087.8000;0.7236;0.5485;
1088.1000;0.7220;0.5485;
1088.4000;0.7245;0.5582;
1088.7000;0.7245;0.5607;
1089.0000;0.7220;0.5533;
1089.3000;0.7228;0.5631;
1089.6000;0.7253;0.5631;
1089.9000;0.7245;0.5631;
1090.2000;0.7245;0.5558;
1090.5000;0.7285;0.5631;
1090.8000;0.7228;0.5533;
1091.1000;0.7245;0.5655;
1091.4000;0.7220;0.5558;
1091.7000;0.7228;0.5533;
1092.0000;0.7220;0.5607;
1092.3000;0.7228;0.5655;
1092.6000;0.7228;0.5558;
1092.9000;0.7179;0.5412;
1093.2000;0.7212;0.5607;
1093.5000;0.7228;0.5582;
1093.8000;0.7253;0.5631;
1094.1000;0.7236;0.5631;
1094.4000;0.7228;0.5607;
1094.7000;0.7245;0.5631;
1095.0000;0.7212;0.5558;
1095.3000;0.7253;0.5631;
1095.6000;0.7228;0.5582;
1095.9000;0.7179;0.5533;
1096.2000;0.7245;0.5728;
1096.5000;0.7204;0.5631;
1096.8000;0.7220;0.5728;
1097.1000;0.7220;0.5704;
1097.4000;0.7220;0.5777;
1097.7000;0.7220;0.5753;
1098.0000;0.7245;0.5753;
1098.3000;0.7204;0.5680;
1098.6000;0.7228;0.5728;
1098.9000;0.7220;0.5826;
1099.2000;0.7204;0.5899;
1099.5000;0.7228;0.5899;
1099.8000;0.7220;0.5924;
1100.1000;0.7245;0.5972;
1100.4000;0.7277;0.5997;
1100.7000;0.7245;0.5899;
1101.0000;0.7163;0.5777;
1101.3000;0.7245;0.5924;
1101.6000;0.7253;0.5899;
1101.9000;0.7212;0.5826;
1102.2000;0.7245;0.5972;
1102.5000;0.7204;0.5753;
1102.8000;0.7245;0.5850;
1103.1000;0.7204;0.5728;
1103.4000;0.7228;0.5728;
1103.7000;0.7236;0.5728;
1104.0000;0.7253;0.5802;
1104.3000;0.7245;0.5753;
1104.6000;0.7220;0.5655;
1104.9000;0.7228;0.5607;
1105.2000;0.7236;0.5485;
1105.5000;0.7253;0.5460;
1105.8000;0.7236;0.5558;
1106.1000;0.7220;0.5582;
1106.4000;0.7253;0.5631;
1106.7000;0.7253;0.5582;
1107.0000;0.7236;0.5509;
1107.3000;0.7245;0.5582;
1107.6000;0.7245;0.5582;
1107.9000;0.7212;0.5485;
1108.2000;0.7261;0.5607;
1108.5000;0.7236;0.5533;
1108.8000;0.7220;0.5436;
1109.1000;0.7171;0.5338;
1109.4000;0.7212;0.5363;
1109.7000;0.7236;0.5363;
1110.0000;0.7236;0.5436;
1110.3000;0.7236;0.5363;
1110.6000;0.7228;0.5314;
1110.9000;0.7245;0.5363;
1111.2000;0.7204;0.5338;
1111.5000;0.7236;0.5533;
1111.8000;0.7236;0.5607;
1112.1000;0.7212;0.5558;
1112.4000;0.7212;0.5460;
1112.7000;0.7220;0.5509;
1113.0000;0.7245;0.5582;
1113.3000;0.7220;0.5631;
1113.6000;0.7261;0.5631;
1113.9000;0.7228;0.5631;
1114.2000;0.7212;0.5533;
1114.5000;0.7228;0.5582;
1114.8000;0.7196;0.5631;
1115.1000;0.7245;0.5680;
1115.4000;0.7204;0.5582;
1115.7000;0.7236;0.5655;
1116.0000;0.7228;0.5558;
1116.3000;0.7196;0.5509;
1116.6000;0.7228;0.5582;
1116.9000;0.7236;0.5558;
1117.2000;0.7245;0.5582;
1117.5000;0.7236;0.5558;
1117.8000;0.7245;0.5533;
1118.1000;0.7269;0.5558;
1118.4000;0.7171;0.5338;
1118.7000;0.7228;0.5582;
1119.0000;0.7236;0.5631;
1119.3000;0.7228;0.5533;
1119.6000;0.7171;0.5363;
1119.9000;0.7236;0.5558;
1120.2000;0.7220;0.5631;
1120.5000;0.7245;0.5655;
1120.8000;0.7236;0.5680;
1121.1000;0.7261;0.5728;
1121.4000;0.7212;0.5558;
1121.7000;0.7220;0.5582;
1122.0000;0.7228;0.5533;
1122.3000;0.7220;0.5509;
1122.6000;0.7245;0.5436;
1122.9000;0.7245;0.5460;
1123.2000;0.7228;0.5460;
1123.5000;0.7236;0.5485;
1123.8000;0.7236;0.5558;
1124.1000;0.7245;0.5655;
1124.4000;0.7245;0.5655;
1124.7000;0.7220;0.5533;
1125.0000;0.7245;0.5509;
1125.3000;0.7261;0.5485;
1125.6000;0.7236;0.5509;
1125.9000;0.7204;0.5436;
1126.2000;0.7236;0.5533;
1126.5000;0.7228;0.5582;
1126.8000;0.7253;0.5631;
1127.1000;0.7236;0.5509;
1127.4000;0.7228;0.5436;
1127.7000;0.7245;0.5607;
1128.0000;0.7245;0.5582;
1128.3000;0.7236;0.5582;
1128.6000;0.7245;0.5533;
1128.9000;0.7236;0.5558;
1129.2000;0.7245;0.5533;
1129.5000;0.7245;0.5533;
1129.8000;0.7245;0.5582;
1130.1000;0.7220;0.5607;
1130.4000;0.7245;0.5728;
1130.7000;0.7253;0.5704;
1131.0000;0.7220;0.5655;
1131.3000;0.7245;0.5607;
1131.6000;0.7228;0.5607;
1131.9000;0.7245;0.5655;
1132.2000;0.7269;0.5680;
1132.5000;0.7220;0.5533;
1132.8000;0.7228;0.5582;
1133.1000;0.7220;0.5582;
1133.4000;0.7228;0.5558;
1133.7000;0.7228;0.5607;
1134.0000;0.7245;0.5607;
1134.3000;0.7212;0.5558;
1134.6000;0.7236;0.5680;
1134.9000;0.7236;0.5753;
1135.2000;0.7228;0.5655;
1135.5000;0.7236;0.5728;
1135.8000;0.7253;0.5680;
1136.1000;0.7228;0.5582;
1136.4000;0.7204;0.5533;
1136.7000;0.7220;0.5680;
1137.0000;0.7261;0.5777;
1137.3000;0.7228;0.5753;
1137.6000;0.7204;0.5704;
1137.9000;0.7171;0.5533;
1138.2000;0.7212;0.5680;
1138.5000;0.7196;0.5680;
1138.8000;0.7220;0.5728;
1139.1000;0.7196;0.5655;
1139.4000;0.7261;0.5728;
1139.7000;0.7245;0.5704;
1140.0000;0.7220;0.5704;
1140.3000;0.7188;0.5607;
1140.6000;0.7236;0.5655;
1140.9000;0.7277;0.5704;
1141.2000;0.7179;0.5533;
1141.5000;0.7163;0.5436;
1141.8000;0.7228;0.5533;
1142.1000;0.7253;0.5582;
1142.4000;0.7253;0.5509;
1142.7000;0.7228;0.5387;
1143.0000;0.7269;0.5485;
1143.3000;0.7293;0.5436;
1143.6000;0.7253;0.5412;
1143.9000;0.7245;0.5485;
1144.2000;0.7212;0.5485;
1144.5000;0.7245;0.5558;
1144.8000;0.7236;0.5582;
1145.1000;0.7253;0.5631;
1145.4000;0.7245;0.5655;
1145.7000;0.7261;0.5753;
1146.0000;0.7212;0.5558;
1146.3000;0.7236;0.5631;
1146.6000;0.7228;0.5582;
1146.9000;0.7228;0.5558;
1147.2000;0.7253;0.5680;
1147.5000;0.7236;0.5582;
1147.8000;0.7220;0.5485;
1148.1000;0.7236;0.5412;
1148.4000;0.7236;0.5436;
1148.7000;0.7253;0.5460;
1149.0000;0.7253;0.5509;
1149.3000;0.7236;0.5387;
1149.6000;0.7245;0.5436;
1149.9000;0.7253;0.5582;
1150.2000;0.7253;0.5607;
1150.5000;0.7253;0.5631;
1150.8000;0.7359;0.5899;
1151.1000;0.7269;0.5631;
1151.4000;0.7342;0.5850;
1151.7000;0.7228;0.5582;
1152.0000;0.7236;0.5631;
1152.3000;0.7220;0.5680;
1152.6000;0.7236;0.5631;
1152.9000;0.7212;0.5533;
1153.2000;0.7220;0.5558;
1153.5000;0.7212;0.5533;
1153.8000;0.7147;0.5387;
1154.1000;0.7212;0.5436;
1154.4000;0.7220;0.5485;
1154.7000;0.7253;0.5460;
1155.0000;0.7236;0.5509;
1155.3000;0.7212;0.5436;
1155.6000;0.7245;0.5582;
1155.9000;0.7245;0.5631;
1156.2000;0.7212;0.5485;
1156.5000;0.7236;0.5533;
1156.8000;0.7228;0.5460;
1157.1000;0.7196;0.5363;
1157.4000;0.7228;0.5412;
1157.7000;0.7212;0.5460;
1158.0000;0.7245;0.5436;
1158.3000;0.7245;0.5363;
1158.6000;0.7236;0.5412;
1158.9000;0.7245;0.5533;
1159.2000;0.7236;0.5558;
1159.5000;0.7253;0.5533;
1159.8000;0.7253;0.5509;
1160.1000;0.7236;0.5485;
1160.4000;0.7212;0.5412;
1160.7000;0.7236;0.5485;
1161.0000;0.7212;0.5485;
1161.3000;0.7220;0.5607;
1161.6000;0.7220;0.5558;
1161.9000;0.7212;0.5460;
1162.2000;0.7236;0.5436;
1162.5000;0.7253;0.5485;
1162.8000;0.7228;0.5533;
1163.1000;0.7228;0.5533;
1163.4000;0.7212;0.5558;
1163.7000;0.7220;0.5582;
1164.0000;0.7220;0.5582;
1164.3000;0.7220;0.5631;
1164.6000;0.7204;0.5680;
1164.9000;0.7236;0.5704;
1165.2000;0.7228;0.5777;
1165.5000;0.7220;0.5753;
1165.8000;0.7220;0.5777;
1166.1000;0.7220;0.5753;
1166.4000;0.7228;0.5607;
1166.7000;0.7245;0.5680;
1167.0000;0.7228;0.5558;
1167.3000;0.7212;0.5460;
1167.6000;0.7212;0.5436;
1167.9000;0.7196;0.5436;
1168.2000;0.7245;0.5485;
1168.5000;0.7236;0.5509;
1168.8000;0.7212;0.5387;
1169.1000;0.7220;0.5436;
1169.4000;0.7236;0.5460;
1169.7000;0.7228;0.5582;
1170.0000;0.7228;0.5607;
1170.3000;0.7277;0.5704;
1170.6000;0.7228;0.5533;
1170.9000;0.7212;0.5363;
1171.2000;0.7236;0.5363;
1171.5000;0.7245;0.5363;
1171.8000;0.7204;0.5241;
1172.1000;0.7245;0.5314;
1172.4000;0.7147;0.5022;
1172.7000;0.7236;0.5217;
1173.0000;0.7236;0.5119;
1173.3000;0.7220;0.5192;
1173.6000;0.7293;0.5460;
1173.9000;0.7236;0.5387;
1174.2000;0.7245;0.5412;
1174.5000;0.7245;0.5436;
1174.8000;0.7245;0.5412;
1175.1000;0.7261;0.5460;
1175.4000;0.7261;0.5509;
1175.7000;0.7253;0.5460;
1176.0000;0.7236;0.5533;
1176.3000;0.7212;0.5485;
1176.6000;0.7228;0.5533;
1176.9000;0.7236;0.5509;
1177.2000;0.7277;0.5509;
1177.5000;0.7245;0.5387;
1177.8000;0.7228;0.5387;
1178.1000;0.7220;0.5436;
1178.4000;0.7220;0.5558;
1178.7000;0.7245;0.5533;
1179.0000;0.7253;0.5582;
1179.3000;0.7228;0.5460;
1179.6000;0.7228;0.5363;
1179.9000;0.7253;0.5363;
1180.2000;0.7253;0.5412;
1180.5000;0.7261;0.5363;
1180.8000;0.7236;0.5412;
1181.1000;0.7228;0.5290;
1181.4000;0.7236;0.5338;
1181.7000;0.7220;0.5290;
1182.0000;0.7253;0.5241;
1182.3000;0.7245;0.5217;
1182.6000;0.7253;0.5290;
1182.9000;0.7236;0.5363;
1183.2000;0.7188;0.5387;
1183.5000;0.7212;0.5509;
1183.8000;0.7269;0.5607;
1184.1000;0.7212;0.5533;
1184.4000;0.7236;0.5558;
1184.7000;0.7236;0.5509;
1185.0000;0.7220;0.5509;
1185.3000;0.7245;0.5607;
1185.6000;0.7261;0.5582;
1185.9000;0.7212;0.5485;
1186.2000;0.7228;0.5460;
1186.5000;0.7179;0.5412;
1186.8000;0.7236;0.5558;
1187.1000;0.7220;0.5509;
1187.4000;0.7228;0.5509;
1187.7000;0.7220;0.5436;
1188.0000;0.7236;0.5533;
1188.3000;0.7188;0.5314;
1188.6000;0.7285;0.5607;
1188.9000;0.7236;0.5363;
1189.2000;0.7359;0.5631;
1189.5000;0.7236;0.5265;
1189.8000;0.7212;0.5290;
1190.1000;0.7236;0.5460;
1190.4000;0.7261;0.5582;
1190.7000;0.7228;0.5631;
1191.0000;0.7220;0.5680;
1191.3000;0.7245;0.5728;
1191.6000;0.7245;0.5655;
1191.9000;0.7285;0.5680;
1192.2000;0.7236;0.5607;
1192.5000;0.7204;0.5533;
1192.8000;0.7196;0.5485;
1193.1000;0.7245;0.5582;
1193.4000;0.7245;0.5485;
1193.7000;0.7236;0.5485;
1194.0000;0.7196;0.5387;
1194.3000;0.7245;0.5582;
1194.6000;0.7228;0.5533;
1194.9000;0.7212;0.5485;
1195.2000;0.7220;0.5558;
1195.5000;0.7261;0.5631;
1195.8000;0.7212;0.5485;
1196.1000;0.7204;0.5412;
1196.4000;0.7131;0.5241;
1196.7000;0.7236;0.5558;
1197.0000;0.7220;0.5460;
1197.3000;0.7245;0.5558;
1197.6000;0.7204;0.5509;
1197.9000;0.7245;0.5509;
1198.2000;0.7228;0.5533;
1198.5000;0.7188;0.5436;
1198.8000;0.7236;0.5582;
1199.1000;0.7236;0.5558;
1199.4000;0.7228;0.5607;
1199.7000;0.7236;0.5582;
1200.0000;0.7236;0.5582;
1200.3000;0.7253;0.5631;
1200.6000;0.7245;0.5631;
1200.9000;0.7228;0.5558;
1201.2000;0.7220;0.5533;
1201.5000;0.7245;0.5485;
1201.8000;0.7253;0.5558;
1202.1000;0.7236;0.5558;
1202.4000;0.7253;0.5631;
1202.7000;0.7236;0.5509;
1203.0000;0.7220;0.5436;
1203.3000;0.7245;0.5533;
1203.6000;0.7245;0.5533;
1203.9000;0.7220;0.5533;
1204.2000;0.7228;0.5436;
1204.5000;0.7245;0.5412;
1204.8000;0.7245;0.5460;
1205.1000;0.7261;0.5607;
1205.4000;0.7228;0.5533;
1205.7000;0.7236;0.5558;
1206.0000;0.7245;0.5485;
1206.3000;0.7228;0.5558;
1206.6000;0.7261;0.5631;
1206.9000;0.7245;0.5485;
1207.2000;0.7245;0.5460;
1207.5000;0.7236;0.5387;
1207.8000;0.7245;0.5509;
1208.1000;0.7253;0.5509;
1208.4000;0.7236;0.5387;
1208.7000;0.7261;0.5412;
1209.0000;0.7220;0.5363;
1209.3000;0.7220;0.5387;
1209.6000;0.7236;0.5363;
1209.9000;0.7245;0.5509;
1210.2000;0.7318;0.5728;
1210.5000;0.7236;0.5558;
1210.8000;0.7212;0.5631;
1211.1000;0.7228;0.5607;
1211.4000;0.7228;0.5533;
1211.7000;0.7220;0.5533;
1212.0000;0.7236;0.5533;
1212.3000;0.7228;0.5460;
1212.6000;0.7220;0.5412;
1212.9000;0.7228;0.5509;
1213.2000;0.7285;0.5631;
1213.5000;0.7236;0.5436;
1213.8000;0.7179;0.5363;
1214.1000;0.7236;0.5558;
1214.4000;0.7261;0.5485;
1214.7000;0.7253;0.5460;
1215.0000;0.7261;0.5412;
1215.3000;0.7188;0.5241;
1215.6000;0.7228;0.5338;
1215.9000;0.7228;0.5338;
1216.2000;0.7245;0.5412;
1216.5000;0.7212;0.5387;
1216.8000;0.7212;0.5412;
1217.1000;0.7253;0.5485;
1217.4000;0.7269;0.5509;
1217.7000;0.7253;0.5485;
1218.0000;0.7228;0.5509;
1218.3000;0.7245;0.5631;
1218.6000;0.7236;0.5631;
1218.9000;0.7253;0.5607;
1219.2000;0.7269;0.5607;
1219.5000;0.7245;0.5509;
1219.8000;0.7196;0.5314;
1220.1000;0.7196;0.5387;
1220.4000;0.7236;0.5436;
1220.7000;0.7245;0.5485;
1221.0000;0.7212;0.5412;
1221.3000;0.7236;0.5387;
1221.6000;0.7220;0.5314;
1221.9000;0.7228;0.5217;
1222.2000;0.7220;0.5290;
1222.5000;0.7236;0.5314;
1222.8000;0.7236;0.5338;
1223.1000;0.7228;0.5412;
1223.4000;0.7236;0.5387;
1223.7000;0.7236;0.5363;
1224.0000;0.7236;0.5363;
1224.3000;0.7220;0.5387;
1224.6000;0.7228;0.5436;
1224.9000;0.7245;0.5436;
1225.2000;0.7204;0.5314;
1225.5000;0.7220;0.5412;
1225.8000;0.7269;0.5460;
1226.1000;0.7236;0.5460;
1226.4000;0.7220;0.5460;
1226.7000;0.7236;0.5485;
1227.0000;0.7228;0.5436;
1227.3000;0.7245;0.5338;
1227.6000;0.7220;0.5265;
1227.9000;0.7228;0.5338;
1228.2000;0.7269;0.5509;
1228.5000;0.7245;0.5509;
1228.8000;0.7245;0.5460;
1229.1000;0.7228;0.5436;
1229.4000;0.7204;0.5485;
1229.7000;0.7228;0.5533;
1230.0000;0.7245;0.5533;
1230.3000;0.7236;0.5436;
1230.6000;0.7261;0.5460;
1230.9000;0.7228;0.5412;
1231.2000;0.7253;0.5485;
1231.5000;0.7228;0.5460;
1231.8000;0.7236;0.5485;
1232.1000;0.7236;0.5460;
1232.4000;0.7253;0.5485;
1232.7000;0.7220;0.5460;
1233.0000;0.7228;0.5485;
1233.3000;0.7228;0.5436;
1233.6000;0.7245;0.5436;
1233.9000;0.7228;0.5485;
1234.2000;0.7212;0.5314;
1234.5000;0.7236;0.5436;
1234.8000;0.7220;0.5485;
1235.1000;0.7236;0.5558;
1235.4000;0.7204;0.5485;
1235.7000;0.7236;0.5558;
1236.0000;0.7228;0.5558;
1236.3000;0.7220;0.5485;
1236.6000;0.7245;0.5558;
1236.9000;0.7228;0.5558;
1237.2000;0.7220;0.5558;
1237.5000;0.7236;0.5631;
1237.8000;0.7220;0.5558;
1238.1000;0.7245;0.5485;
1238.4000;0.7228;0.5533;
1238.7000;0.7228;0.5533;
1239.0000;0.7236;0.5582;
1239.3000;0.7236;0.5509;
1239.6000;0.7236;0.5558;
1239.9000;0.7188;0.5412;
1240.2000;0.7228;0.5412;
1240.5000;0.7228;0.5338;
1240.8000;0.7236;0.5412;
1241.1000;0.7245;0.5485;
1241.4000;0.7253;0.5607;
1241.7000;0.7245;0.5631;
1242.0000;0.7236;0.5607;
1242.3000;0.7245;0.5582;
1242.6000;0.7245;0.5582;
1242.9000;0.7236;0.5558;
1243.2000;0.7220;0.5533;
1243.5000;0.7228;0.5533;
1243.8000;0.7245;0.5558;
1244.1000;0.7196;0.5412;
1244.4000;0.7236;0.5485;
1244.7000;0.7236;0.5558;
1245.0000;0.7326;0.5802;
1245.3000;0.7236;0.5509;
1245.6000;0.7220;0.5460;
1245.9000;0.7236;0.5436;
1246.2000;0.7253;0.5460;
1246.5000;0.7245;0.5533;
1246.8000;0.7253;0.5533;
1247.1000;0.7236;0.5533;
1247.4000;0.7245;0.5558;
1247.7000;0.7236;0.5533;
1248.0000;0.7245;0.5436;
1248.3000;0.7220;0.5460;
1248.6000;0.7236;0.5558;
1248.9000;0.7236;0.5582;
1249.2000;0.7359;0.5802;
1249.5000;0.7236;0.5533;
1249.8000;0.7220;0.5509;
1250.1000;0.7228;0.5558;
1250.4000;0.7261;0.5655;
1250.7000;0.7236;0.5558;
1251.0000;0.7228;0.5607;
1251.3000;0.7253;0.5680;
1251.6000;0.7253;0.5680;
1251.9000;0.7253;0.5631;
1252.2000;0.7236;0.5582;
1252.5000;0.7245;0.5485;
1252.8000;0.7155;0.5217;
1253.1000;0.7220;0.5338;
1253.4000;0.7277;0.5533;
1253.7000;0.7228;0.5460;
1254.0000;0.7228;0.5509;
1254.3000;0.7220;0.5607;
1254.6000;0.7196;0.5704;
1254.9000;0.7220;0.5802;
1255.2000;0.7302;0.5924;
1255.5000;0.7236;0.5850;
1255.8000;0.7228;0.5777;
1256.1000;0.7220;0.5704;
1256.4000;0.7285;0.5777;
1256.7000;0.7245;0.5728;
1257.0000;0.7220;0.5655;
1257.3000;0.7253;0.5655;
1257.6000;0.7293;0.5680;
1257.9000;0.7188;0.5387;
1258.2000;0.7228;0.5436;
1258.5000;0.7236;0.5412;
1258.8000;0.7245;0.5412;
1259.1000;0.7236;0.5460;
1259.4000;0.7334;0.5802;
1259.7000;0.7236;0.5582;
1260.0000;0.7236;0.5582;
1260.3000;0.7253;0.5655;
1260.6000;0.7253;0.5777;
1260.9000;0.7245;0.5753;
1261.2000;0.7245;0.5631;
1261.5000;0.7253;0.5655;
1261.8000;0.7245;0.5655;
1262.1000;0.7253;0.5582;
1262.4000;0.7245;0.5607;
1262.7000;0.7253;0.5704;
1263.0000;0.7204;0.5631;
1263.3000;0.7253;0.5777;
1263.6000;0.7228;0.5753;
1263.9000;0.7253;0.5753;
1264.2000;0.7261;0.5826;
1264.5000;0.7253;0.5826;
1264.8000;0.7228;0.5704;
1265.1000;0.7188;0.5607;
1265.4000;0.7245;0.5753;
1265.7000;0.7253;0.5728;
1266.0000;0.7245;0.5753;
1266.3000;0.7245;0.5777;
1266.6000;0.7236;0.5777;
1266.9000;0.7285;0.5850;
1267.2000;0.7228;0.5777;
1267.5000;0.7236;0.5826;
1267.8000;0.7245;0.5826;
1268.1000;0.7228;0.5826;
1268.4000;0.7228;0.5826;
1268.7000;0.7228;0.5777;
1269.0000;0.7261;0.5826;
1269.3000;0.7269;0.5875;
1269.6000;0.7245;0.5826;
1269.9000;0.7253;0.5924;
1270.2000;0.7236;0.5924;
1270.5000;0.7228;0.5850;
1270.8000;0.7228;0.5777;
1271.1000;0.7245;0.5802;
1271.4000;0.7220;0.5680;
1271.7000;0.7236;0.5728;
1272.0000;0.7245;0.5826;
1272.3000;0.7285;0.5899;
1272.6000;0.7269;0.5802;
1272.9000;0.7245;0.5826;
1273.2000;0.7253;0.5826;
1273.5000;0.7253;0.5826;
1273.8000;0.7245;0.5899;
1274.1000;0.7204;0.5777;
1274.4000;0.7228;0.5753;
1274.7000;0.7253;0.5728;
1275.0000;0.7245;0.5582;
1275.3000;0.7228;0.5631;
1275.6000;0.7236;0.5680;
1275.9000;0.7236;0.5753;
1276.2000;0.7220;0.5777;
1276.5000;0.7220;0.5802;
1276.8000;0.7228;0.5875;
1277.1000;0.7245;0.5899;
1277.4000;0.7245;0.5899;
1277.7000;0.7228;0.5924;
1278.0000;0.7245;0.5997;
1278.3000;0.7236;0.6070;
1278.6000;0.7228;0.6070;
1278.9000;0.7220;0.6045;
1279.2000;0.7236;0.5997;
1279.5000;0.7228;0.5948;
1279.8000;0.7204;0.5728;
1280.1000;0.7220;0.5631;
1280.4000;0.7245;0.5655;
1280.7000;0.7253;0.5655;
1281.0000;0.7236;0.5558;
1281.3000;0.7228;0.5558;
1281.6000;0.7220;0.5607;
1281.9000;0.7188;0.5558;
1282.2000;0.7245;0.5728;
1282.5000;0.7212;0.5631;
1282.8000;0.7245;0.5655;
1283.1000;0.7245;0.5777;
1283.4000;0.7245;0.5680;
1283.7000;0.7261;0.5655;
1284.0000;0.7245;0.5655;
1284.3000;0.7236;0.5680;
1284.6000;0.7236;0.5728;
1284.9000;0.7245;0.5777;
1285.2000;0.7245;0.5680;
1285.5000;0.7228;0.5655;
1285.8000;0.7277;0.5802;
1286.1000;0.7269;0.5753;
1286.4000;0.7261;0.5655;
1286.7000;0.7236;0.5655;
1287.0000;0.7212;0.5558;
1287.3000;0.7269;0.5655;
1287.6000;0.7261;0.5533;
1287.9000;0.7277;0.5607;
1288.2000;0.7245;0.5533;
1288.5000;0.7212;0.5412;
1288.8000;0.7285;0.5582;
1289.1000;0.7228;0.5485;
1289.4000;0.7220;0.5412;
1289.7000;0.7236;0.5387;
1290.0000;0.7114;0.5022;
1290.3000;0.7334;0.5631;
1290.6000;0.7220;0.5387;
1290.9000;0.7204;0.5412;
1291.2000;0.7228;0.5436;
1291.5000;0.7236;0.5533;
1291.8000;0.7245;0.5533;
1292.1000;0.7236;0.5582;
1292.4000;0.7253;0.5631;
1292.7000;0.7212;0.5485;
1293.0000;0.7220;0.5533;
1293.3000;0.7228;0.5582;
1293.6000;0.7228;0.5631;
1293.9000;0.7236;0.5582;
1294.2000;0.7236;0.5558;
1294.5000;0.7245;0.5631;
1294.8000;0.7228;0.5558;
1295.1000;0.7261;0.5533;
1295.4000;0.7236;0.5460;
1295.7000;0.7236;0.5509;
1296.0000;0.7236;0.5460;
1296.3000;0.7245;0.5460;
1296.6000;0.7261;0.5533;
1296.9000;0.7245;0.5558;
1297.2000;0.7261;0.5680;
1297.5000;0.7245;0.5850;
1297.8000;0.7228;0.5802;
1298.1000;0.7285;0.5875;
1298.4000;0.7245;0.5728;
1298.7000;0.7253;0.5753;
1299.0000;0.7245;0.5680;
1299.3000;0.7245;0.5704;
1299.6000;0.7228;0.5680;
1299.9000;0.7212;0.5655;
1300.2000;0.7220;0.5680;
1300.5000;0.7220;0.5631;
1300.8000;0.7236;0.5558;
1301.1000;0.7220;0.5436;
1301.4000;0.7253;0.5412;
1301.7000;0.7220;0.5387;
1302.0000;0.7228;0.5412;
1302.3000;0.7236;0.5460;
1302.6000;0.7245;0.5412;
1302.9000;0.7236;0.5436;
1303.2000;0.7220;0.5533;
1303.5000;0.7236;0.5558;
1303.8000;0.7253;0.5607;
1304.1000;0.7285;0.5704;
1304.4000;0.7163;0.5436;
1304.7000;0.7253;0.5607;
1305.0000;0.7212;0.5436;
1305.3000;0.7236;0.5533;
1305.6000;0.7245;0.5558;
1305.9000;0.7228;0.5582;
1306.2000;0.7245;0.5607;
1306.5000;0.7261;0.5582;
1306.8000;0.7245;0.5582;
1307.1000;0.7236;0.5460;
1307.4000;0.7228;0.5460;
1307.7000;0.7245;0.5558;
1308.0000;0.7245;0.5631;
1308.3000;0.7261;0.5680;
1308.6000;0.7236;0.5582;
1308.9000;0.7302;0.5728;
1309.2000;0.7261;0.5631;
1309.5000;0.7228;0.5558;
1309.8000;0.7163;0.5314;
1310.1000;0.7236;0.5558;
1310.4000;0.7179;0.5533;
1310.7000;0.7228;0.5582;
1311.0000;0.7285;0.5655;
1311.3000;0.7220;0.5509;
1311.6000;0.7253;0.5582;
1311.9000;0.7277;0.5655;
1312.2000;0.7236;0.5582;
1312.5000;0.7293;0.5728;
1312.8000;0.7220;0.5558;
1313.1000;0.7220;0.5533;
1313.4000;0.7228;0.5582;
1313.7000;0.7253;0.5582;
1314.0000;0.7179;0.5363;
1314.3000;0.7285;0.5582;
1314.6000;0.7220;0.5460;
1314.9000;0.7245;0.5485;
1315.2000;0.7220;0.5485;
1315.5000;0.7277;0.5631;
1315.8000;0.7245;0.5655;
1316.1000;0.7220;0.5582;
1316.4000;0.7236;0.5704;
1316.7000;0.7236;0.5680;
1317.0000;0.7253;0.5728;
1317.3000;0.7228;0.5582;
1317.6000;0.7261;0.5680;
1317.9000;0.7236;0.5631;
1318.2000;0.7261;0.5704;
1318.5000;0.7236;0.5655;
1318.8000;0.7253;0.5655;
1319.1000;0.7228;0.5655;
1319.4000;0.7220;0.5655;
1319.7000;0.7245;0.5680;
1320.0000;0.7228;0.5582;
1320.3000;0.7220;0.5631;
1320.6000;0.7253;0.5704;
1320.9000;0.7236;0.5753;
1321.2000;0.7236;0.5753;
1321.5000;0.7253;0.5728;
1321.8000;0.7228;0.5509;
1322.1000;0.7253;0.5412;
1322.4000;0.7236;0.5436;
1322.7000;0.7188;0.5363;
1323.0000;0.7261;0.5582;
1323.3000;0.7220;0.5582;
1323.6000;0.7236;0.5533;
1323.9000;0.7212;0.5460;
1324.2000;0.7245;0.5558;
1324.5000;0.7269;0.5582;
1324.8000;0.7220;0.5412;
1325.1000;0.7228;0.5533;
1325.4000;0.7269;0.5631;
1325.7000;0.7236;0.5582;
1326.0000;0.7245;0.5558;
1326.3000;0.7236;0.5412;
1326.6000;0.7277;0.5460;
1326.9000;0.7245;0.5363;
1327.2000;0.7245;0.5412;
1327.5000;0.7245;0.5485;
1327.8000;0.7245;0.5436;
1328.1000;0.7253;0.5460;
1328.4000;0.7236;0.5485;
1328.7000;0.7245;0.5485;
1329.0000;0.7253;0.5582;
1329.3000;0.7179;0.5460;
1329.6000;0.7228;0.5680;
1329.9000;0.7236;0.5655;
1330.2000;0.7245;0.5558;
1330.5000;0.7245;0.5533;
1330.8000;0.7261;0.5558;
1331.1000;0.7253;0.5558;
1331.4000;0.7253;0.5558;
1331.7000;0.7253;0.5533;
1332.0000;0.7277;0.5485;
1332.3000;0.7236;0.5509;
1332.6000;0.7245;0.5582;
1332.9000;0.7269;0.5728;
1333.2000;0.7269;0.5631;
1333.5000;0.7236;0.5509;
1333.8000;0.7196;0.5412;
1334.1000;0.7236;0.5436;
1334.4000;0.7245;0.5533;
1334.7000;0.7236;0.5533;
1335.0000;0.7334;0.5704;
1335.3000;0.7253;0.5436;
1335.6000;0.7228;0.5460;
1335.9000;0.7228;0.5558;
1336.2000;0.7155;0.5436;
1336.5000;0.7245;0.5607;
1336.8000;0.7245;0.5753;
1337.1000;0.7245;0.5777;
1337.4000;0.7245;0.5680;
1337.7000;0.7236;0.5582;
1338.0000;0.7245;0.5582;
1338.3000;0.7253;0.5631;
1338.6000;0.7236;0.5655;
1338.9000;0.7245;0.5631;
1339.2000;0.7236;0.5631;
1339.5000;0.7245;0.5655;
1339.8000;0.7212;0.5631;
1340.1000;0.7245;0.5582;
1340.4000;0.7245;0.5607;
1340.7000;0.7261;0.5655;
1341.0000;0.7253;0.5558;
1341.3000;0.7236;0.5533;
1341.6000;0.7236;0.5607;
1341.9000;0.7163;0.5387;
1342.2000;0.7236;0.5558;
1342.5000;0.7236;0.5509;
1342.8000;0.7253;0.5607;
1343.1000;0.7269;0.5680;
1343.4000;0.7253;0.5582;
1343.7000;0.7236;0.5460;
1344.0000;0.7236;0.5558;
1344.3000;0.7261;0.5558;
1344.6000;0.7253;0.5412;
1344.9000;0.7245;0.5387;
1345.2000;0.7220;0.5363;
1345.5000;0.7261;0.5533;
1345.8000;0.7261;0.5655;
1346.1000;0.7228;0.5631;
1346.4000;0.7236;0.5631;
1346.7000;0.7245;0.5631;
1347.0000;0.7245;0.5655;
1347.3000;0.7236;0.5680;
1347.6000;0.7245;0.5607;
1347.9000;0.7228;0.5558;
1348.2000;0.7204;0.5558;
1348.5000;0.7245;0.5631;
1348.8000;0.7245;0.5558;
1349.1000;0.7277;0.5558;
1349.4000;0.7188;0.5265;
1349.7000;0.7228;0.5387;
1350.0000;0.7228;0.5436;
1350.3000;0.7188;0.5290;
1350.6000;0.7261;0.5460;
1350.9000;0.7253;0.5436;
1351.2000;0.7228;0.5387;
1351.5000;0.7236;0.5460;
1351.8000;0.7236;0.5558;
1352.1000;0.7285;0.5728;
1352.4000;0.7139;0.5363;
1352.7000;0.7310;0.5777;
1353.0000;0.7204;0.5412;
1353.3000;0.7269;0.5631;
1353.6000;0.7245;0.5460;
1353.9000;0.7245;0.5412;
1354.2000;0.7269;0.5509;
1354.5000;0.7253;0.5533;
1354.8000;0.7245;0.5436;
1355.1000;0.7245;0.5314;
1355.4000;0.7228;0.5290;
1355.7000;0.7236;0.5363;
1356.0000;0.7236;0.5338;
1356.3000;0.7253;0.5290;
1356.6000;0.7293;0.5363;
1356.9000;0.7261;0.5241;
1357.2000;0.7253;0.5338;
1357.5000;0.7253;0.5314;
1357.8000;0.7236;0.5290;
1358.1000;0.7236;0.5363;
1358.4000;0.7245;0.5290;
1358.7000;0.7269;0.5412;
1359.0000;0.7245;0.5460;
1359.3000;0.7236;0.5485;
1359.6000;0.7245;0.5412;
1359.9000;0.7253;0.5314;
1360.2000;0.7236;0.5290;
1360.5000;0.7302;0.5460;
1360.8000;0.7236;0.5387;
1361.1000;0.7236;0.5412;
1361.4000;0.7228;0.5485;
1361.7000;0.7228;0.5485;
1362.0000;0.7253;0.5412;
1362.3000;0.7245;0.5412;
1362.6000;0.7236;0.5485;
1362.9000;0.7253;0.5509;
1363.2000;0.7245;0.5436;
1363.5000;0.7253;0.5363;
1363.8000;0.7245;0.5412;
1364.1000;0.7253;0.5387;
1364.4000;0.7245;0.5412;
1364.7000;0.7253;0.5412;
1365.0000;0.7245;0.5436;
1365.3000;0.7269;0.5485;
1365.6000;0.7253;0.5412;
1365.9000;0.7261;0.5387;
1366.2000;0.7293;0.5436;
1366.5000;0.7236;0.5412;
1366.8000;0.7245;0.5509;
1367.1000;0.7245;0.5631;
1367.4000;0.7236;0.5582;
1367.7000;0.7236;0.5607;
1368.0000;0.7236;0.5558;
1368.3000;0.7245;0.5509;
1368.6000;0.7236;0.5485;
1368.9000;0.7236;0.5412;
1369.2000;0.7245;0.5363;
1369.5000;0.7245;0.5387;
1369.8000;0.7245;0.5412;
1370.1000;0.7253;0.5363;
1370.4000;0.7253;0.5387;
1370.7000;0.7236;0.5387;
1371.0000;0.7228;0.5314;
1371.3000;0.7220;0.5265;
1371.6000;0.7277;0.5387;
1371.9000;0.7236;0.5241;
1372.2000;0.7253;0.5314;
1372.5000;0.7236;0.5314;
1372.8000;0.7245;0.5338;
1373.1000;0.7277;0.5485;
1373.4000;0.7236;0.5363;
1373.7000;0.7253;0.5412;
1374.0000;0.7245;0.5412;
1374.3000;0.7245;0.5387;
1374.6000;0.7245;0.5363;
1374.9000;0.7253;0.5387;
1375.2000;0.7228;0.5363;
1375.5000;0.7245;0.5338;
1375.8000;0.7245;0.5265;
1376.1000;0.7204;0.5192;
1376.4000;0.7245;0.5241;
1376.7000;0.7245;0.5217;
1377.0000;0.7236;0.5192;
1377.3000;0.7261;0.5241;
1377.6000;0.7277;0.5338;
1377.9000;0.7228;0.5217;
1378.2000;0.7236;0.5143;
1378.5000;0.7228;0.5143;
1378.8000;0.7269;0.5290;
1379.1000;0.7228;0.5168;
1379.4000;0.7236;0.5241;
1379.7000;0.7253;0.5314;
1380.0000;0.7245;0.5387;
1380.3000;0.7253;0.5265;
1380.6000;0.7236;0.5143;
1380.9000;0.7245;0.5046;
1381.2000;0.7269;0.5143;
1381.5000;0.7245;0.5143;
1381.8000;0.7245;0.5119;
1382.1000;0.7253;0.5119;
1382.4000;0.7253;0.4997;
1382.7000;0.7261;0.5070;
1383.0000;0.7245;0.4997;
1383.3000;0.7261;0.5070;
1383.6000;0.7245;0.5095;
1383.9000;0.7261;0.5046;
1384.2000;0.7236;0.4948;
1384.5000;0.7253;0.4973;
1384.8000;0.7253;0.4997;
1385.1000;0.7277;0.5070;
1385.4000;0.7236;0.4997;
1385.7000;0.7245;0.5022;
1386.0000;0.7269;0.5070;
1386.3000;0.7302;0.5168;
1386.6000;0.7253;0.5095;
1386.9000;0.7236;0.5070;
1387.2000;0.7285;0.5192;
1387.5000;0.7261;0.5192;
1387.8000;0.7236;0.5217;
1388.1000;0.7220;0.5143;
1388.4000;0.7228;0.5095;
1388.7000;0.7236;0.5168;
1389.0000;0.7212;0.5022;
1389.3000;0.7236;0.5046;
1389.6000;0.7236;0.5095;
1389.9000;0.7228;0.4997;
1390.2000;0.7245;0.5046;
1390.5000;0.7236;0.5119;
1390.8000;0.7228;0.5143;
1391.1000;0.7212;0.5119;
1391.4000;0.7236;0.5168;
1391.7000;0.7236;0.5168;
1392.0000;0.7236;0.5119;
1392.3000;0.7228;0.5022;
1392.6000;0.7236;0.5119;
1392.9000;0.7228;0.5070;
1393.2000;0.7245;0.5022;
1393.5000;0.7253;0.5119;
1393.8000;0.7253;0.5143;
1394.1000;0.7261;0.5290;
1394.4000;0.7236;0.5314;
1394.7000;0.7236;0.5241;
1395.0000;0.7253;0.5290;
1395.3000;0.7245;0.5265;
1395.6000;0.7253;0.5338;
1395.9000;0.7302;0.5509;
1396.2000;0.7220;0.5387;
1396.5000;0.7236;0.5460;
1396.8000;0.7253;0.5314;
1397.1000;0.7269;0.5290;
1397.4000;0.7245;0.5192;
1397.7000;0.7245;0.5168;
1398.0000;0.7228;0.5168;
1398.3000;0.7285;0.5314;
1398.6000;0.7236;0.5143;
1398.9000;0.7253;0.5217;
1399.2000;0.7261;0.5217;
1399.5000;0.7245;0.5168;
1399.8000;0.7196;0.4973;
