time/ms;Fluo/V;P700 deltaI/I x10³;
-199.8000;0.2336;0.1767;
-199.5000;0.2320;0.1696;
-199.2000;0.2393;0.1863;
-198.9000;0.2344;0.1767;
-198.6000;0.2344;0.1815;
-198.3000;0.2352;0.1887;
-198.0000;0.2352;0.1863;
-197.7000;0.2369;0.1911;
-197.4000;0.2344;0.1911;
-197.1000;0.2304;0.1767;
-196.8000;0.2336;0.1911;
-196.5000;0.2344;0.1934;
-196.2000;0.2344;0.1863;
-195.9000;0.2344;0.1911;
-195.6000;0.2336;0.1911;
-195.3000;0.2352;0.1958;
-195.0000;0.2352;0.2126;
-194.7000;0.2336;0.2078;
-194.4000;0.2361;0.2078;
-194.1000;0.2320;0.1982;
-193.8000;0.2352;0.2078;
-193.5000;0.2352;0.2102;
-193.2000;0.2328;0.2078;
-192.9000;0.2336;0.2149;
-192.6000;0.2361;0.2126;
-192.3000;0.2336;0.2078;
-192.0000;0.2344;0.2030;
-191.7000;0.2361;0.2006;
-191.4000;0.2344;0.2006;
-191.1000;0.2295;0.1839;
-190.8000;0.2352;0.1958;
-190.5000;0.2328;0.1863;
-190.2000;0.2304;0.1743;
-189.9000;0.2361;0.1887;
-189.6000;0.2336;0.1839;
-189.3000;0.2361;0.1958;
-189.0000;0.2336;0.1863;
-188.7000;0.2320;0.1911;
-188.4000;0.2352;0.2078;
-188.1000;0.2328;0.1911;
-187.8000;0.2344;0.1887;
-187.5000;0.2344;0.1767;
-187.2000;0.2369;0.1743;
-186.9000;0.2336;0.1767;
-186.6000;0.2328;0.1720;
-186.3000;0.2328;0.1696;
-186.0000;0.2352;0.1743;
-185.7000;0.2304;0.1696;
-185.4000;0.2320;0.1791;
-185.1000;0.2328;0.1696;
-184.8000;0.2344;0.1767;
-184.5000;0.2352;0.1815;
-184.2000;0.2352;0.1839;
-183.9000;0.2336;0.1767;
-183.6000;0.2344;0.1815;
-183.3000;0.2344;0.1791;
-183.0000;0.2336;0.1791;
-182.7000;0.2344;0.1743;
-182.4000;0.2344;0.1791;
-182.1000;0.2344;0.1767;
-181.8000;0.2352;0.1863;
-181.5000;0.2344;0.1887;
-181.2000;0.2352;0.1934;
-180.9000;0.2336;0.1934;
-180.6000;0.2361;0.1911;
-180.3000;0.2336;0.1863;
-180.0000;0.2344;0.1863;
-179.7000;0.2352;0.1887;
-179.4000;0.2344;0.1887;
-179.1000;0.2352;0.1863;
-178.8000;0.2344;0.1839;
-178.5000;0.2328;0.1863;
-178.2000;0.2336;0.1839;
-177.9000;0.2344;0.1815;
-177.6000;0.2336;0.1815;
-177.3000;0.2344;0.1815;
-177.0000;0.2344;0.1839;
-176.7000;0.2336;0.1911;
-176.4000;0.2352;0.1934;
-176.1000;0.2320;0.1887;
-175.8000;0.2369;0.1982;
-175.5000;0.2352;0.2006;
-175.2000;0.2344;0.1982;
-174.9000;0.2336;0.1934;
-174.6000;0.2336;0.1815;
-174.3000;0.2336;0.1815;
-174.0000;0.2328;0.1815;
-173.7000;0.2344;0.1863;
-173.4000;0.2336;0.1934;
-173.1000;0.2336;0.1911;
-172.8000;0.2336;0.2006;
-172.5000;0.2344;0.2054;
-172.2000;0.2352;0.2173;
-171.9000;0.2352;0.2054;
-171.6000;0.2344;0.1958;
-171.3000;0.2344;0.1982;
-171.0000;0.2336;0.2054;
-170.7000;0.2344;0.2102;
-170.4000;0.2328;0.2030;
-170.1000;0.2344;0.1982;
-169.8000;0.2344;0.2054;
-169.5000;0.2336;0.2126;
-169.2000;0.2361;0.2149;
-168.9000;0.2336;0.2078;
-168.6000;0.2328;0.2030;
-168.3000;0.2287;0.1887;
-168.0000;0.2312;0.1815;
-167.7000;0.2328;0.1934;
-167.4000;0.2328;0.1934;
-167.1000;0.2328;0.1958;
-166.8000;0.2336;0.1863;
-166.5000;0.2344;0.1958;
-166.2000;0.2336;0.1934;
-165.9000;0.2361;0.1911;
-165.6000;0.2361;0.1982;
-165.3000;0.2336;0.1934;
-165.0000;0.2344;0.1934;
-164.7000;0.2344;0.1934;
-164.4000;0.2352;0.1911;
-164.1000;0.2401;0.2006;
-163.8000;0.2336;0.1839;
-163.5000;0.2295;0.1720;
-163.2000;0.2336;0.1887;
-162.9000;0.2328;0.1815;
-162.6000;0.2352;0.1791;
-162.3000;0.2336;0.1743;
-162.0000;0.2328;0.1863;
-161.7000;0.2344;0.1887;
-161.4000;0.2336;0.1887;
-161.1000;0.2336;0.1958;
-160.8000;0.2287;0.1791;
-160.5000;0.2336;0.2006;
-160.2000;0.2344;0.1958;
-159.9000;0.2352;0.2006;
-159.6000;0.2336;0.1958;
-159.3000;0.2336;0.1911;
-159.0000;0.2336;0.1839;
-158.7000;0.2344;0.1767;
-158.4000;0.2344;0.1720;
-158.1000;0.2344;0.1696;
-157.8000;0.2344;0.1696;
-157.5000;0.2352;0.1767;
-157.2000;0.2344;0.1791;
-156.9000;0.2352;0.1839;
-156.6000;0.2352;0.1791;
-156.3000;0.2344;0.1767;
-156.0000;0.2352;0.1887;
-155.7000;0.2344;0.1839;
-155.4000;0.2352;0.1839;
-155.1000;0.2328;0.1815;
-154.8000;0.2352;0.1911;
-154.5000;0.2401;0.1982;
-154.2000;0.2336;0.1767;
-153.9000;0.2369;0.1839;
-153.6000;0.2336;0.1863;
-153.3000;0.2336;0.1911;
-153.0000;0.2263;0.1624;
-152.7000;0.2304;0.1791;
-152.4000;0.2336;0.1934;
-152.1000;0.2320;0.1934;
-151.8000;0.2344;0.1958;
-151.5000;0.2336;0.2030;
-151.2000;0.2352;0.2030;
-150.9000;0.2344;0.2006;
-150.6000;0.2352;0.2006;
-150.3000;0.2336;0.1934;
-150.0000;0.2393;0.2078;
-149.7000;0.2344;0.1911;
-149.4000;0.2344;0.1958;
-149.1000;0.2352;0.2030;
-148.8000;0.2385;0.2149;
-148.5000;0.2336;0.2054;
-148.2000;0.2336;0.2078;
-147.9000;0.2328;0.2006;
-147.6000;0.2352;0.2054;
-147.3000;0.2344;0.2030;
-147.0000;0.2328;0.1982;
-146.7000;0.2271;0.1767;
-146.4000;0.2361;0.1958;
-146.1000;0.2377;0.2030;
-145.8000;0.2304;0.1815;
-145.5000;0.2344;0.1911;
-145.2000;0.2377;0.2006;
-144.9000;0.2320;0.1911;
-144.6000;0.2287;0.1839;
-144.3000;0.2336;0.1887;
-144.0000;0.2320;0.1958;
-143.7000;0.2328;0.1887;
-143.4000;0.2336;0.1934;
-143.1000;0.2336;0.1911;
-142.8000;0.2393;0.1958;
-142.5000;0.2328;0.1767;
-142.2000;0.2450;0.2102;
-141.9000;0.2328;0.1839;
-141.6000;0.2352;0.1887;
-141.3000;0.2344;0.1887;
-141.0000;0.2336;0.1767;
-140.7000;0.2328;0.1767;
-140.4000;0.2320;0.1767;
-140.1000;0.2344;0.1815;
-139.8000;0.2458;0.2149;
-139.5000;0.2336;0.1958;
-139.2000;0.2336;0.1911;
-138.9000;0.2336;0.1839;
-138.6000;0.2328;0.1815;
-138.3000;0.2271;0.1696;
-138.0000;0.2320;0.1791;
-137.7000;0.2352;0.1839;
-137.4000;0.2328;0.1839;
-137.1000;0.2352;0.1863;
-136.8000;0.2328;0.1863;
-136.5000;0.2344;0.1911;
-136.2000;0.2352;0.1911;
-135.9000;0.2361;0.1958;
-135.6000;0.2344;0.2006;
-135.3000;0.2336;0.1958;
-135.0000;0.2328;0.2006;
-134.7000;0.2328;0.1982;
-134.4000;0.2328;0.2006;
-134.1000;0.2328;0.1958;
-133.8000;0.2328;0.2006;
-133.5000;0.2328;0.1958;
-133.2000;0.2352;0.1958;
-132.9000;0.2336;0.1958;
-132.6000;0.2344;0.1958;
-132.3000;0.2336;0.1934;
-132.0000;0.2336;0.1863;
-131.7000;0.2328;0.1863;
-131.4000;0.2344;0.1934;
-131.1000;0.2344;0.1958;
-130.8000;0.2352;0.1887;
-130.5000;0.2361;0.1839;
-130.2000;0.2344;0.1815;
-129.9000;0.2344;0.1791;
-129.6000;0.2344;0.1767;
-129.3000;0.2336;0.1743;
-129.0000;0.2393;0.1839;
-128.7000;0.2336;0.1720;
-128.4000;0.2328;0.1696;
-128.1000;0.2328;0.1815;
-127.8000;0.2328;0.1815;
-127.5000;0.2352;0.1863;
-127.2000;0.2328;0.1815;
-126.9000;0.2344;0.1863;
-126.6000;0.2344;0.1887;
-126.3000;0.2352;0.1958;
-126.0000;0.2336;0.1887;
-125.7000;0.2336;0.1863;
-125.4000;0.2336;0.1815;
-125.1000;0.2336;0.1815;
-124.8000;0.2352;0.1815;
-124.5000;0.2344;0.1839;
-124.2000;0.2328;0.1791;
-123.9000;0.2336;0.1743;
-123.6000;0.2336;0.1743;
-123.3000;0.2336;0.1743;
-123.0000;0.2328;0.1720;
-122.7000;0.2377;0.1791;
-122.4000;0.2263;0.1528;
-122.1000;0.2328;0.1743;
-121.8000;0.2328;0.1743;
-121.5000;0.2352;0.1720;
-121.2000;0.2328;0.1743;
-120.9000;0.2352;0.1743;
-120.6000;0.2344;0.1720;
-120.3000;0.2344;0.1720;
-120.0000;0.2361;0.1839;
-119.7000;0.2352;0.1743;
-119.4000;0.2393;0.1911;
-119.1000;0.2336;0.1791;
-118.8000;0.2336;0.1743;
-118.5000;0.2352;0.1815;
-118.2000;0.2409;0.1958;
-117.9000;0.2328;0.1791;
-117.6000;0.2344;0.1767;
-117.3000;0.2385;0.1839;
-117.0000;0.2369;0.1743;
-116.7000;0.2369;0.1696;
-116.4000;0.2344;0.1624;
-116.1000;0.2385;0.1743;
-115.8000;0.2352;0.1791;
-115.5000;0.2401;0.1863;
-115.2000;0.2328;0.1743;
-114.9000;0.2361;0.1839;
-114.6000;0.2361;0.1791;
-114.3000;0.2328;0.1648;
-114.0000;0.2352;0.1743;
-113.7000;0.2344;0.1672;
-113.4000;0.2352;0.1648;
-113.1000;0.2352;0.1552;
-112.8000;0.2361;0.1576;
-112.5000;0.2328;0.1600;
-112.2000;0.2328;0.1648;
-111.9000;0.2344;0.1791;
-111.6000;0.2377;0.1815;
-111.3000;0.2336;0.1791;
-111.0000;0.2385;0.1887;
-110.7000;0.2361;0.1815;
-110.4000;0.2344;0.1791;
-110.1000;0.2377;0.1863;
-109.8000;0.2336;0.1648;
-109.5000;0.2352;0.1672;
-109.2000;0.2352;0.1648;
-108.9000;0.2263;0.1314;
-108.6000;0.2361;0.1481;
-108.3000;0.2369;0.1505;
-108.0000;0.2336;0.1505;
-107.7000;0.2393;0.1672;
-107.4000;0.2336;0.1528;
-107.1000;0.2336;0.1576;
-106.8000;0.2369;0.1696;
-106.5000;0.2344;0.1720;
-106.2000;0.2344;0.1672;
-105.9000;0.2320;0.1528;
-105.6000;0.2361;0.1600;
-105.3000;0.2336;0.1576;
-105.0000;0.2352;0.1600;
-104.7000;0.2344;0.1552;
-104.4000;0.2344;0.1528;
-104.1000;0.2328;0.1481;
-103.8000;0.2328;0.1600;
-103.5000;0.2344;0.1624;
-103.2000;0.2336;0.1767;
-102.9000;0.2336;0.1815;
-102.6000;0.2328;0.1720;
-102.3000;0.2320;0.1743;
-102.0000;0.2344;0.1720;
-101.7000;0.2344;0.1720;
-101.4000;0.2344;0.1743;
-101.1000;0.2344;0.1672;
-100.8000;0.2361;0.1767;
-100.5000;0.2352;0.1720;
-100.2000;0.2361;0.1720;
-99.9000;0.2352;0.1600;
-99.6000;0.2352;0.1696;
-99.3000;0.2352;0.1672;
-99.0000;0.2361;0.1815;
-98.7000;0.2336;0.1815;
-98.4000;0.2336;0.1720;
-98.1000;0.2393;0.1791;
-97.8000;0.2336;0.1624;
-97.5000;0.2377;0.1791;
-97.2000;0.2369;0.1767;
-96.9000;0.2328;0.1624;
-96.6000;0.2344;0.1648;
-96.3000;0.2328;0.1576;
-96.0000;0.2336;0.1648;
-95.7000;0.2344;0.1648;
-95.4000;0.2385;0.1815;
-95.1000;0.2344;0.1791;
-94.8000;0.2352;0.1720;
-94.5000;0.2361;0.1743;
-94.2000;0.2361;0.1696;
-93.9000;0.2361;0.1815;
-93.6000;0.2344;0.1815;
-93.3000;0.2312;0.1743;
-93.0000;0.2344;0.1863;
-92.7000;0.2304;0.1743;
-92.4000;0.2336;0.1863;
-92.1000;0.2352;0.1815;
-91.8000;0.2344;0.1839;
-91.5000;0.2377;0.1887;
-91.2000;0.2344;0.1743;
-90.9000;0.2320;0.1791;
-90.6000;0.2418;0.1982;
-90.3000;0.2361;0.1767;
-90.0000;0.2352;0.1720;
-89.7000;0.2344;0.1743;
-89.4000;0.2352;0.1696;
-89.1000;0.2361;0.1791;
-88.8000;0.2344;0.1767;
-88.5000;0.2239;0.1409;
-88.2000;0.2336;0.1696;
-87.9000;0.2287;0.1552;
-87.6000;0.2344;0.1648;
-87.3000;0.2344;0.1600;
-87.0000;0.2336;0.1648;
-86.7000;0.2336;0.1648;
-86.4000;0.2369;0.1648;
-86.1000;0.2328;0.1505;
-85.8000;0.2328;0.1576;
-85.5000;0.2369;0.1720;
-85.2000;0.2361;0.1648;
-84.9000;0.2361;0.1696;
-84.6000;0.2361;0.1815;
-84.3000;0.2344;0.1767;
-84.0000;0.2344;0.1839;
-83.7000;0.2304;0.1767;
-83.4000;0.2344;0.1815;
-83.1000;0.2344;0.1767;
-82.8000;0.2336;0.1672;
-82.5000;0.2344;0.1672;
-82.2000;0.2352;0.1720;
-81.9000;0.2393;0.1863;
-81.6000;0.2361;0.1767;
-81.3000;0.2344;0.1743;
-81.0000;0.2344;0.1791;
-80.7000;0.2344;0.1720;
-80.4000;0.2344;0.1767;
-80.1000;0.2336;0.1815;
-79.8000;0.2352;0.1839;
-79.5000;0.2336;0.1815;
-79.2000;0.2352;0.1887;
-78.9000;0.2271;0.1648;
-78.6000;0.2361;0.1911;
-78.3000;0.2352;0.1815;
-78.0000;0.2369;0.1815;
-77.7000;0.2361;0.1934;
-77.4000;0.2344;0.1958;
-77.1000;0.2344;0.1958;
-76.8000;0.2377;0.2006;
-76.5000;0.2352;0.1887;
-76.2000;0.2369;0.1934;
-75.9000;0.2344;0.1887;
-75.6000;0.2344;0.1887;
-75.3000;0.2434;0.2102;
-75.0000;0.2255;0.1481;
-74.7000;0.2344;0.1624;
-74.4000;0.2401;0.1743;
-74.1000;0.2336;0.1576;
-73.8000;0.2336;0.1672;
-73.5000;0.2344;0.1743;
-73.2000;0.2336;0.1696;
-72.9000;0.2352;0.1767;
-72.6000;0.2336;0.1720;
-72.3000;0.2352;0.1791;
-72.0000;0.2352;0.1791;
-71.7000;0.2336;0.1743;
-71.4000;0.2393;0.1839;
-71.1000;0.2336;0.1648;
-70.8000;0.2239;0.1361;
-70.5000;0.2336;0.1576;
-70.2000;0.2312;0.1457;
-69.9000;0.2361;0.1552;
-69.6000;0.2328;0.1505;
-69.3000;0.2344;0.1528;
-69.0000;0.2344;0.1528;
-68.7000;0.2328;0.1433;
-68.4000;0.2344;0.1624;
-68.1000;0.2401;0.1720;
-67.8000;0.2344;0.1576;
-67.5000;0.2344;0.1624;
-67.2000;0.2361;0.1648;
-66.9000;0.2336;0.1576;
-66.6000;0.2369;0.1696;
-66.3000;0.2336;0.1576;
-66.0000;0.2344;0.1672;
-65.7000;0.2361;0.1600;
-65.4000;0.2369;0.1672;
-65.1000;0.2352;0.1624;
-64.8000;0.2352;0.1600;
-64.5000;0.2401;0.1720;
-64.2000;0.2344;0.1576;
-63.9000;0.2344;0.1552;
-63.6000;0.2352;0.1576;
-63.3000;0.2312;0.1481;
-63.0000;0.2336;0.1433;
-62.7000;0.2352;0.1528;
-62.4000;0.2352;0.1505;
-62.1000;0.2385;0.1600;
-61.8000;0.2352;0.1528;
-61.5000;0.2352;0.1552;
-61.2000;0.2344;0.1528;
-60.9000;0.2344;0.1457;
-60.6000;0.2352;0.1457;
-60.3000;0.2336;0.1457;
-60.0000;0.2385;0.1576;
-59.7000;0.2352;0.1528;
-59.4000;0.2361;0.1552;
-59.1000;0.2352;0.1528;
-58.8000;0.2352;0.1624;
-58.5000;0.2336;0.1624;
-58.2000;0.2344;0.1576;
-57.9000;0.2352;0.1600;
-57.6000;0.2344;0.1600;
-57.3000;0.2344;0.1528;
-57.0000;0.2352;0.1600;
-56.7000;0.2409;0.1743;
-56.4000;0.2336;0.1576;
-56.1000;0.2328;0.1576;
-55.8000;0.2361;0.1720;
-55.5000;0.2352;0.1624;
-55.2000;0.2320;0.1552;
-54.9000;0.2458;0.1911;
-54.6000;0.2352;0.1600;
-54.3000;0.2344;0.1624;
-54.0000;0.2320;0.1552;
-53.7000;0.2336;0.1576;
-53.4000;0.2369;0.1624;
-53.1000;0.2320;0.1481;
-52.8000;0.2336;0.1505;
-52.5000;0.2328;0.1624;
-52.2000;0.2352;0.1648;
-51.9000;0.2287;0.1528;
-51.6000;0.2352;0.1720;
-51.3000;0.2409;0.1791;
-51.0000;0.2344;0.1576;
-50.7000;0.2295;0.1433;
-50.4000;0.2344;0.1505;
-50.1000;0.2361;0.1528;
-49.8000;0.2352;0.1433;
-49.5000;0.2361;0.1481;
-49.2000;0.2377;0.1481;
-48.9000;0.2336;0.1385;
-48.6000;0.2279;0.1290;
-48.3000;0.2426;0.1696;
-48.0000;0.2369;0.1600;
-47.7000;0.2393;0.1720;
-47.4000;0.2385;0.1696;
-47.1000;0.2369;0.1624;
-46.8000;0.2344;0.1576;
-46.5000;0.2336;0.1600;
-46.2000;0.2328;0.1600;
-45.9000;0.2328;0.1552;
-45.6000;0.2320;0.1552;
-45.3000;0.2336;0.1576;
-45.0000;0.2312;0.1600;
-44.7000;0.2328;0.1839;
-44.4000;0.2352;0.1863;
-44.1000;0.2336;0.1863;
-43.8000;0.2320;0.1839;
-43.5000;0.2377;0.1958;
-43.2000;0.2336;0.1815;
-42.9000;0.2361;0.1863;
-42.6000;0.2344;0.1791;
-42.3000;0.2377;0.1911;
-42.0000;0.2344;0.1696;
-41.7000;0.2377;0.1743;
-41.4000;0.2369;0.1648;
-41.1000;0.2377;0.1648;
-40.8000;0.2328;0.1457;
-40.5000;0.2344;0.1528;
-40.2000;0.2328;0.1528;
-39.9000;0.2336;0.1576;
-39.6000;0.2352;0.1600;
-39.3000;0.2328;0.1624;
-39.0000;0.2352;0.1648;
-38.7000;0.2352;0.1672;
-38.4000;0.2328;0.1576;
-38.1000;0.2320;0.1624;
-37.8000;0.2344;0.1624;
-37.5000;0.2344;0.1624;
-37.2000;0.2361;0.1576;
-36.9000;0.2312;0.1600;
-36.6000;0.2352;0.1791;
-36.3000;0.2336;0.1767;
-36.0000;0.2328;0.1815;
-35.7000;0.2344;0.1863;
-35.4000;0.2336;0.1815;
-35.1000;0.2352;0.1767;
-34.8000;0.2312;0.1648;
-34.5000;0.2239;0.1433;
-34.2000;0.2352;0.1624;
-33.9000;0.2336;0.1552;
-33.6000;0.2312;0.1505;
-33.3000;0.2328;0.1528;
-33.0000;0.2320;0.1576;
-32.7000;0.2344;0.1624;
-32.4000;0.2369;0.1648;
-32.1000;0.2336;0.1648;
-31.8000;0.2336;0.1672;
-31.5000;0.2344;0.1696;
-31.2000;0.2336;0.1648;
-30.9000;0.2336;0.1720;
-30.6000;0.2361;0.1791;
-30.3000;0.2344;0.1720;
-30.0000;0.2328;0.1696;
-29.7000;0.2336;0.1672;
-29.4000;0.2320;0.1696;
-29.1000;0.2352;0.1791;
-28.8000;0.2475;0.2269;
-28.5000;0.2361;0.1887;
-28.2000;0.2344;0.1839;
-27.9000;0.2328;0.1720;
-27.6000;0.2361;0.1767;
-27.3000;0.2385;0.1696;
-27.0000;0.2336;0.1528;
-26.7000;0.2295;0.1409;
-26.4000;0.2361;0.1576;
-26.1000;0.2361;0.1600;
-25.8000;0.2344;0.1648;
-25.5000;0.2320;0.1672;
-25.2000;0.2450;0.1934;
-24.9000;0.2352;0.1720;
-24.6000;0.2377;0.1672;
-24.3000;0.2385;0.1743;
-24.0000;0.2344;0.1672;
-23.7000;0.2336;0.1576;
-23.4000;0.2328;0.1528;
-23.1000;0.2352;0.1457;
-22.8000;0.2320;0.1433;
-22.5000;0.2352;0.1457;
-22.2000;0.2369;0.1528;
-21.9000;0.2352;0.1457;
-21.6000;0.2336;0.1314;
-21.3000;0.2344;0.1385;
-21.0000;0.2344;0.1457;
-20.7000;0.2352;0.1505;
-20.4000;0.2328;0.1457;
-20.1000;0.2328;0.1552;
-19.8000;0.2328;0.1648;
-19.5000;0.2377;0.1743;
-19.2000;0.2320;0.1505;
-18.9000;0.2328;0.1505;
-18.6000;0.2352;0.1505;
-18.3000;0.2336;0.1576;
-18.0000;0.2352;0.1552;
-17.7000;0.2369;0.1648;
-17.4000;0.2361;0.1720;
-17.1000;0.2361;0.1720;
-16.8000;0.2361;0.1672;
-16.5000;0.2344;0.1672;
-16.2000;0.2361;0.1743;
-15.9000;0.2352;0.1743;
-15.6000;0.2361;0.1696;
-15.3000;0.2320;0.1576;
-15.0000;0.2336;0.1552;
-14.7000;0.2336;0.1481;
-14.4000;0.2328;0.1409;
-14.1000;0.2369;0.1528;
-13.8000;0.2336;0.1481;
-13.5000;0.2352;0.1505;
-13.2000;0.2361;0.1505;
-12.9000;0.2328;0.1457;
-12.6000;0.2344;0.1528;
-12.3000;0.2344;0.1385;
-12.0000;0.2361;0.1409;
-11.7000;0.2320;0.1314;
-11.4000;0.2344;0.1409;
-11.1000;0.2385;0.1552;
-10.8000;0.2352;0.1552;
-10.5000;0.2352;0.1576;
-10.2000;0.2336;0.1552;
-9.9000;0.2344;0.1552;
-9.6000;0.2361;0.1552;
-9.3000;0.2344;0.1600;
-9.0000;0.2312;0.1505;
-8.7000;0.2336;0.1528;
-8.4000;0.2336;0.1457;
-8.1000;0.2336;0.1433;
-7.8000;0.2361;0.1433;
-7.5000;0.2328;0.1361;
-7.2000;0.2352;0.1361;
-6.9000;0.2328;0.1361;
-6.6000;0.2271;0.1314;
-6.3000;0.2352;0.1481;
-6.0000;0.2369;0.1552;
-5.7000;0.2352;0.1528;
-5.4000;0.2344;0.1552;
-5.1000;0.2344;0.1648;
-4.8000;0.2344;0.1672;
-4.5000;0.2352;0.1648;
-4.2000;0.2320;0.1624;
-3.9000;0.2344;0.1696;
-3.6000;0.2352;0.1624;
-3.3000;0.2352;0.1672;
-3.0000;0.2352;0.1672;
-2.7000;0.2361;0.1696;
-2.4000;0.2361;0.1720;
-2.1000;0.2352;0.1672;
-1.8000;0.2361;0.1720;
-1.5000;0.2352;0.1672;
-1.2000;0.2361;0.1624;
-0.9000;0.2361;0.1648;
-0.6000;0.2369;0.1696;
-0.3000;0.2369;0.1720;
0.0000;0.2369;0.1720;
0.3000;0.2352;0.1672;
0.6000;0.2336;0.1743;
0.9000;0.2328;0.1672;
1.2000;0.2320;0.1720;
1.5000;0.2361;0.1839;
1.8000;0.2344;0.1934;
2.1000;0.2352;0.2030;
2.4000;0.2385;0.2149;
2.7000;0.2328;0.2126;
3.0000;0.2344;0.2221;
3.3000;0.2320;0.2173;
3.6000;0.2344;0.2197;
3.9000;0.2336;0.2245;
4.2000;0.2344;0.2245;
4.5000;0.2214;0.1911;
4.8000;0.2352;0.2245;
5.1000;0.2328;0.2245;
5.4000;0.2328;0.2340;
5.7000;0.2279;0.2317;
6.0000;0.2328;0.2436;
6.3000;0.2312;0.2388;
6.6000;0.2328;0.2388;
6.9000;0.2328;0.2340;
7.2000;0.2328;0.2293;
7.5000;0.2328;0.2317;
7.8000;0.2312;0.2197;
8.1000;0.2336;0.2245;
8.4000;0.2312;0.2293;
8.7000;0.2336;0.2364;
9.0000;0.2361;0.2484;
9.3000;0.2328;0.2436;
9.6000;0.2328;0.2460;
9.9000;0.2320;0.2412;
10.2000;0.2312;0.2412;
10.5000;0.2344;0.2508;
10.8000;0.2320;0.2460;
11.1000;0.2328;0.2508;
11.4000;0.2320;0.2460;
11.7000;0.2336;0.2555;
12.0000;0.2279;0.2460;
12.3000;0.2361;0.2675;
12.6000;0.2320;0.2532;
12.9000;0.2328;0.2460;
13.2000;0.2336;0.2460;
13.5000;0.2352;0.2484;
13.8000;0.2344;0.2364;
14.1000;0.2312;0.2221;
14.4000;0.2328;0.2340;
14.7000;0.2344;0.2364;
15.0000;0.2344;0.2340;
15.3000;0.2312;0.2221;
15.6000;0.2328;0.2364;
15.9000;0.2336;0.2340;
16.2000;0.2312;0.2269;
16.5000;0.2312;0.2317;
16.8000;0.2312;0.2484;
17.1000;0.2336;0.2627;
17.4000;0.2361;0.2675;
17.7000;0.2336;0.2579;
18.0000;0.2328;0.2627;
18.3000;0.2328;0.2699;
18.6000;0.2279;0.2508;
18.9000;0.2312;0.2532;
19.2000;0.2279;0.2460;
19.5000;0.2328;0.2484;
19.8000;0.2320;0.2460;
20.1000;0.2377;0.2532;
20.4000;0.2320;0.2293;
20.7000;0.2320;0.2293;
21.0000;0.2320;0.2340;
21.3000;0.2312;0.2364;
21.6000;0.2320;0.2317;
21.9000;0.2320;0.2340;
22.2000;0.2320;0.2436;
22.5000;0.2328;0.2436;
22.8000;0.2328;0.2484;
23.1000;0.2312;0.2532;
23.4000;0.2336;0.2579;
23.7000;0.2336;0.2555;
24.0000;0.2304;0.2436;
24.3000;0.2336;0.2508;
24.6000;0.2320;0.2436;
24.9000;0.2320;0.2412;
25.2000;0.2344;0.2412;
25.5000;0.2271;0.2245;
25.8000;0.2336;0.2460;
26.1000;0.2320;0.2317;
26.4000;0.2271;0.2173;
26.7000;0.2304;0.2317;
27.0000;0.2312;0.2436;
27.3000;0.2361;0.2579;
27.6000;0.2295;0.2388;
27.9000;0.2336;0.2555;
28.2000;0.2214;0.2245;
28.5000;0.2409;0.2746;
28.8000;0.2328;0.2484;
29.1000;0.2336;0.2484;
29.4000;0.2352;0.2484;
29.7000;0.2336;0.2340;
30.0000;0.2393;0.2555;
30.3000;0.2304;0.2340;
30.6000;0.2312;0.2436;
30.9000;0.2312;0.2436;
31.2000;0.2328;0.2436;
31.5000;0.2320;0.2436;
31.8000;0.2320;0.2388;
32.1000;0.2328;0.2364;
32.4000;0.2361;0.2484;
32.7000;0.2304;0.2317;
33.0000;0.2328;0.2317;
33.3000;0.2320;0.2245;
33.6000;0.2336;0.2317;
33.9000;0.2328;0.2388;
34.2000;0.2312;0.2364;
34.5000;0.2312;0.2388;
34.8000;0.2336;0.2436;
35.1000;0.2295;0.2364;
35.4000;0.2320;0.2364;
35.7000;0.2320;0.2317;
36.0000;0.2222;0.1982;
36.3000;0.2336;0.2293;
36.6000;0.2328;0.2293;
36.9000;0.2320;0.2317;
37.2000;0.2263;0.2126;
37.5000;0.2320;0.2269;
37.8000;0.2442;0.2555;
38.1000;0.2295;0.2293;
38.4000;0.2304;0.2412;
38.7000;0.2336;0.2460;
39.0000;0.2287;0.2460;
39.3000;0.2328;0.2555;
39.6000;0.2336;0.2508;
39.9000;0.2328;0.2460;
40.2000;0.2328;0.2388;
40.5000;0.2344;0.2340;
40.8000;0.2304;0.2221;
41.1000;0.2361;0.2388;
41.4000;0.2450;0.2723;
41.7000;0.2336;0.2436;
42.0000;0.2198;0.2149;
42.3000;0.2271;0.2364;
42.6000;0.2287;0.2388;
42.9000;0.2320;0.2508;
43.2000;0.2344;0.2555;
43.5000;0.2352;0.2555;
43.8000;0.2328;0.2555;
44.1000;0.2328;0.2555;
44.4000;0.2361;0.2627;
44.7000;0.2328;0.2484;
45.0000;0.2320;0.2508;
45.3000;0.2320;0.2532;
45.6000;0.2320;0.2579;
45.9000;0.2230;0.2340;
46.2000;0.2320;0.2436;
46.5000;0.2336;0.2412;
46.8000;0.2328;0.2388;
47.1000;0.2328;0.2388;
47.4000;0.2312;0.2388;
47.7000;0.2304;0.2293;
48.0000;0.2344;0.2388;
48.3000;0.2336;0.2412;
48.6000;0.2328;0.2388;
48.9000;0.2344;0.2484;
49.2000;0.2320;0.2436;
49.5000;0.2320;0.2460;
49.8000;0.2328;0.2555;
50.1000;0.2320;0.2484;
50.4000;0.2295;0.2364;
50.7000;0.2352;0.2508;
51.0000;0.2320;0.2532;
51.3000;0.2295;0.2460;
51.6000;0.2352;0.2508;
51.9000;0.2344;0.2555;
52.2000;0.2295;0.2436;
52.5000;0.2312;0.2508;
52.8000;0.2336;0.2508;
53.1000;0.2328;0.2508;
53.4000;0.2320;0.2484;
53.7000;0.2320;0.2508;
54.0000;0.2328;0.2532;
54.3000;0.2312;0.2460;
54.6000;0.2320;0.2508;
54.9000;0.2312;0.2460;
55.2000;0.2328;0.2555;
55.5000;0.2328;0.2627;
55.8000;0.2336;0.2603;
56.1000;0.2328;0.2579;
56.4000;0.2271;0.2436;
56.7000;0.2320;0.2555;
57.0000;0.2312;0.2532;
57.3000;0.2336;0.2555;
57.6000;0.2328;0.2532;
57.9000;0.2328;0.2460;
58.2000;0.2328;0.2436;
58.5000;0.2336;0.2579;
58.8000;0.2328;0.2555;
59.1000;0.2361;0.2603;
59.4000;0.2328;0.2555;
59.7000;0.2320;0.2555;
60.0000;0.2336;0.2579;
60.3000;0.2328;0.2627;
60.6000;0.2328;0.2651;
60.9000;0.2328;0.2579;
61.2000;0.2320;0.2484;
61.5000;0.2336;0.2436;
61.8000;0.2320;0.2364;
62.1000;0.2312;0.2364;
62.4000;0.2312;0.2388;
62.7000;0.2304;0.2436;
63.0000;0.2312;0.2508;
63.3000;0.2287;0.2532;
63.6000;0.2279;0.2532;
63.9000;0.2312;0.2746;
64.2000;0.2247;0.2651;
64.5000;0.2336;0.2914;
64.8000;0.2320;0.2866;
65.1000;0.2295;0.2770;
65.4000;0.2279;0.2818;
65.7000;0.2328;0.2890;
66.0000;0.2312;0.2842;
66.3000;0.2320;0.2866;
66.6000;0.2198;0.2412;
66.9000;0.2328;0.2651;
67.2000;0.2450;0.2914;
67.5000;0.2320;0.2699;
67.8000;0.2312;0.2579;
68.1000;0.2336;0.2675;
68.4000;0.2336;0.2651;
68.7000;0.2312;0.2555;
69.0000;0.2336;0.2603;
69.3000;0.2320;0.2555;
69.6000;0.2312;0.2436;
69.9000;0.2320;0.2484;
70.2000;0.2304;0.2412;
70.5000;0.2312;0.2484;
70.8000;0.2312;0.2412;
71.1000;0.2328;0.2484;
71.4000;0.2328;0.2460;
71.7000;0.2312;0.2460;
72.0000;0.2287;0.2317;
72.3000;0.2320;0.2484;
72.6000;0.2320;0.2532;
72.9000;0.2352;0.2603;
73.2000;0.2328;0.2532;
73.5000;0.2320;0.2555;
73.8000;0.2336;0.2651;
74.1000;0.2304;0.2532;
74.4000;0.2295;0.2532;
74.7000;0.2279;0.2317;
75.0000;0.2328;0.2508;
75.3000;0.2328;0.2532;
75.6000;0.2206;0.2221;
75.9000;0.2328;0.2651;
76.2000;0.2312;0.2579;
76.5000;0.2320;0.2508;
76.8000;0.2312;0.2532;
77.1000;0.2328;0.2508;
77.4000;0.2312;0.2460;
77.7000;0.2304;0.2436;
78.0000;0.2312;0.2460;
78.3000;0.2320;0.2532;
78.6000;0.2304;0.2508;
78.9000;0.2304;0.2484;
79.2000;0.2304;0.2484;
79.5000;0.2320;0.2508;
79.8000;0.2377;0.2699;
80.1000;0.2328;0.2508;
80.4000;0.2312;0.2460;
80.7000;0.2328;0.2555;
81.0000;0.2239;0.2317;
81.3000;0.2312;0.2484;
81.6000;0.2304;0.2555;
81.9000;0.2312;0.2627;
82.2000;0.2206;0.2317;
82.5000;0.2328;0.2675;
82.8000;0.2304;0.2579;
83.1000;0.2312;0.2603;
83.4000;0.2320;0.2651;
83.7000;0.2336;0.2603;
84.0000;0.2312;0.2532;
84.3000;0.2304;0.2508;
84.6000;0.2320;0.2555;
84.9000;0.2320;0.2532;
85.2000;0.2352;0.2460;
85.5000;0.2328;0.2412;
85.8000;0.2320;0.2388;
86.1000;0.2312;0.2412;
86.4000;0.2361;0.2508;
86.7000;0.2312;0.2484;
87.0000;0.2312;0.2436;
87.3000;0.2361;0.2603;
87.6000;0.2328;0.2532;
87.9000;0.2328;0.2532;
88.2000;0.2304;0.2508;
88.5000;0.2320;0.2579;
88.8000;0.2336;0.2627;
89.1000;0.2320;0.2555;
89.4000;0.2279;0.2484;
89.7000;0.2328;0.2651;
90.0000;0.2352;0.2699;
90.3000;0.2328;0.2651;
90.6000;0.2230;0.2364;
90.9000;0.2328;0.2484;
91.2000;0.2369;0.2603;
91.5000;0.2328;0.2508;
91.8000;0.2312;0.2436;
92.1000;0.2295;0.2340;
92.4000;0.2344;0.2364;
92.7000;0.2198;0.1958;
93.0000;0.2320;0.2340;
93.3000;0.2312;0.2412;
93.6000;0.2328;0.2436;
93.9000;0.2361;0.2484;
94.2000;0.2336;0.2412;
94.5000;0.2271;0.2269;
94.8000;0.2312;0.2388;
95.1000;0.2320;0.2460;
95.4000;0.2312;0.2460;
95.7000;0.2393;0.2579;
96.0000;0.2344;0.2436;
96.3000;0.2336;0.2388;
96.6000;0.2295;0.2293;
96.9000;0.2312;0.2388;
97.2000;0.2320;0.2436;
97.5000;0.2222;0.2173;
97.8000;0.2320;0.2555;
98.1000;0.2312;0.2555;
98.4000;0.2320;0.2484;
98.7000;0.2434;0.2746;
99.0000;0.2295;0.2412;
99.3000;0.2312;0.2532;
99.6000;0.2336;0.2555;
99.9000;0.2320;0.2555;
100.2000;0.2328;0.2508;
100.5000;0.2328;0.2484;
100.8000;0.2312;0.2436;
101.1000;0.2239;0.2245;
101.4000;0.2361;0.2603;
101.7000;0.2320;0.2484;
102.0000;0.2312;0.2388;
102.3000;0.2328;0.2532;
102.6000;0.2336;0.2532;
102.9000;0.2312;0.2388;
103.2000;0.2263;0.2197;
103.5000;0.2312;0.2364;
103.8000;0.2320;0.2460;
104.1000;0.2312;0.2412;
104.4000;0.2320;0.2317;
104.7000;0.2312;0.2293;
105.0000;0.2328;0.2364;
105.3000;0.2328;0.2364;
105.6000;0.2312;0.2436;
105.9000;0.2295;0.2484;
106.2000;0.2295;0.2603;
106.5000;0.2328;0.2627;
106.8000;0.2320;0.2579;
107.1000;0.2320;0.2555;
107.4000;0.2312;0.2508;
107.7000;0.2320;0.2532;
108.0000;0.2320;0.2532;
108.3000;0.2271;0.2436;
108.6000;0.2295;0.2508;
108.9000;0.2320;0.2555;
109.2000;0.2328;0.2579;
109.5000;0.2312;0.2508;
109.8000;0.2320;0.2508;
110.1000;0.2312;0.2532;
110.4000;0.2320;0.2484;
110.7000;0.2287;0.2484;
111.0000;0.2287;0.2508;
111.3000;0.2320;0.2603;
111.6000;0.2442;0.2866;
111.9000;0.2328;0.2532;
112.2000;0.2320;0.2436;
112.5000;0.2320;0.2388;
112.8000;0.2295;0.2388;
113.1000;0.2328;0.2364;
113.4000;0.2295;0.2245;
113.7000;0.2304;0.2340;
114.0000;0.2320;0.2364;
114.3000;0.2336;0.2412;
114.6000;0.2409;0.2579;
114.9000;0.2344;0.2460;
115.2000;0.2312;0.2340;
115.5000;0.2279;0.2340;
115.8000;0.2304;0.2388;
116.1000;0.2304;0.2340;
116.4000;0.2385;0.2484;
116.7000;0.2312;0.2293;
117.0000;0.2320;0.2293;
117.3000;0.2320;0.2340;
117.6000;0.2320;0.2293;
117.9000;0.2320;0.2245;
118.2000;0.2312;0.2221;
118.5000;0.2271;0.2102;
118.8000;0.2320;0.2269;
119.1000;0.2328;0.2317;
119.4000;0.2352;0.2460;
119.7000;0.2328;0.2436;
120.0000;0.2182;0.2126;
120.3000;0.2320;0.2412;
120.6000;0.2304;0.2364;
120.9000;0.2312;0.2412;
121.2000;0.2320;0.2364;
121.5000;0.2352;0.2508;
121.8000;0.2320;0.2460;
122.1000;0.2385;0.2651;
122.4000;0.2328;0.2436;
122.7000;0.2328;0.2388;
123.0000;0.2336;0.2436;
123.3000;0.2328;0.2460;
123.6000;0.2385;0.2579;
123.9000;0.2328;0.2484;
124.2000;0.2230;0.2173;
124.5000;0.2271;0.2173;
124.8000;0.2230;0.2030;
125.1000;0.2320;0.2269;
125.4000;0.2304;0.2245;
125.7000;0.2336;0.2340;
126.0000;0.2328;0.2388;
126.3000;0.2320;0.2364;
126.6000;0.2320;0.2436;
126.9000;0.2352;0.2603;
127.2000;0.2328;0.2508;
127.5000;0.2328;0.2484;
127.8000;0.2320;0.2412;
128.1000;0.2304;0.2388;
128.4000;0.2361;0.2508;
128.7000;0.2320;0.2364;
129.0000;0.2312;0.2364;
129.3000;0.2312;0.2460;
129.6000;0.2328;0.2484;
129.9000;0.2304;0.2436;
130.2000;0.2328;0.2388;
130.5000;0.2312;0.2197;
130.8000;0.2328;0.2317;
131.1000;0.2328;0.2269;
131.4000;0.2312;0.2245;
131.7000;0.2312;0.2221;
132.0000;0.2312;0.2245;
132.3000;0.2312;0.2317;
132.6000;0.2328;0.2364;
132.9000;0.2247;0.2245;
133.2000;0.2304;0.2340;
133.5000;0.2247;0.2245;
133.8000;0.2328;0.2436;
134.1000;0.2312;0.2340;
134.4000;0.2312;0.2364;
134.7000;0.2320;0.2364;
135.0000;0.2312;0.2269;
135.3000;0.2312;0.2269;
135.6000;0.2312;0.2221;
135.9000;0.2328;0.2340;
136.2000;0.2320;0.2340;
136.5000;0.2312;0.2340;
136.8000;0.2304;0.2269;
137.1000;0.2320;0.2293;
137.4000;0.2385;0.2388;
137.7000;0.2328;0.2293;
138.0000;0.2328;0.2221;
138.3000;0.2247;0.2054;
138.6000;0.2304;0.2221;
138.9000;0.2328;0.2245;
139.2000;0.2312;0.2245;
139.5000;0.2320;0.2293;
139.8000;0.2328;0.2293;
140.1000;0.2320;0.2245;
140.4000;0.2206;0.1887;
140.7000;0.2320;0.2197;
141.0000;0.2328;0.2221;
141.3000;0.2328;0.2245;
141.6000;0.2304;0.2173;
141.9000;0.2328;0.2245;
142.2000;0.2295;0.2197;
142.5000;0.2287;0.2221;
142.8000;0.2320;0.2364;
143.1000;0.2328;0.2388;
143.4000;0.2328;0.2412;
143.7000;0.2352;0.2555;
144.0000;0.2295;0.2460;
144.3000;0.2312;0.2532;
144.6000;0.2263;0.2293;
144.9000;0.2320;0.2484;
145.2000;0.2320;0.2532;
145.5000;0.2336;0.2579;
145.8000;0.2320;0.2532;
146.1000;0.2287;0.2460;
146.4000;0.2336;0.2555;
146.7000;0.2320;0.2484;
147.0000;0.2312;0.2412;
147.3000;0.2336;0.2484;
147.6000;0.2328;0.2460;
147.9000;0.2320;0.2364;
148.2000;0.2304;0.2293;
148.5000;0.2320;0.2388;
148.8000;0.2312;0.2388;
149.1000;0.2304;0.2460;
149.4000;0.2336;0.2460;
149.7000;0.2320;0.2460;
150.0000;0.2320;0.2484;
150.3000;0.2352;0.2555;
150.6000;0.2320;0.2555;
150.9000;0.2361;0.2627;
151.2000;0.2320;0.2579;
151.5000;0.2312;0.2532;
151.8000;0.2312;0.2484;
152.1000;0.2295;0.2388;
152.4000;0.2320;0.2508;
152.7000;0.2320;0.2508;
153.0000;0.2352;0.2579;
153.3000;0.2336;0.2532;
153.6000;0.2328;0.2579;
153.9000;0.2320;0.2508;
154.2000;0.2336;0.2579;
154.5000;0.2295;0.2508;
154.8000;0.2320;0.2651;
155.1000;0.2304;0.2699;
155.4000;0.2320;0.2675;
155.7000;0.2312;0.2675;
156.0000;0.2295;0.2675;
156.3000;0.2320;0.2746;
156.6000;0.2312;0.2723;
156.9000;0.2304;0.2651;
157.2000;0.2369;0.2699;
157.5000;0.2320;0.2508;
157.8000;0.2312;0.2412;
158.1000;0.2279;0.2317;
158.4000;0.2239;0.2149;
158.7000;0.2328;0.2484;
159.0000;0.2320;0.2508;
159.3000;0.2287;0.2412;
159.6000;0.2320;0.2603;
159.9000;0.2304;0.2651;
160.2000;0.2312;0.2627;
160.5000;0.2312;0.2603;
160.8000;0.2312;0.2627;
161.1000;0.2401;0.2842;
161.4000;0.2312;0.2484;
161.7000;0.2328;0.2412;
162.0000;0.2312;0.2436;
162.3000;0.2336;0.2627;
162.6000;0.2304;0.2603;
162.9000;0.2344;0.2746;
163.2000;0.2312;0.2723;
163.5000;0.2312;0.2675;
163.8000;0.2320;0.2627;
164.1000;0.2344;0.2723;
164.4000;0.2312;0.2746;
164.7000;0.2312;0.2675;
165.0000;0.2336;0.2746;
165.3000;0.2352;0.2746;
165.6000;0.2312;0.2627;
165.9000;0.2312;0.2579;
166.2000;0.2328;0.2555;
166.5000;0.2312;0.2555;
166.8000;0.2320;0.2723;
167.1000;0.2304;0.2699;
167.4000;0.2320;0.2603;
167.7000;0.2344;0.2579;
168.0000;0.2312;0.2532;
168.3000;0.2336;0.2532;
168.6000;0.2328;0.2532;
168.9000;0.2328;0.2579;
169.2000;0.2320;0.2555;
169.5000;0.2320;0.2555;
169.8000;0.2320;0.2460;
170.1000;0.2320;0.2508;
170.4000;0.2295;0.2508;
170.7000;0.2279;0.2460;
171.0000;0.2377;0.2651;
171.3000;0.2304;0.2460;
171.6000;0.2312;0.2340;
171.9000;0.2320;0.2364;
172.2000;0.2295;0.2388;
172.5000;0.2312;0.2388;
172.8000;0.2328;0.2508;
173.1000;0.2328;0.2484;
173.4000;0.2320;0.2460;
173.7000;0.2295;0.2340;
174.0000;0.2304;0.2364;
174.3000;0.2336;0.2460;
174.6000;0.2320;0.2388;
174.9000;0.2279;0.2197;
175.2000;0.2328;0.2364;
175.5000;0.2287;0.2221;
175.8000;0.2304;0.2221;
176.1000;0.2369;0.2340;
176.4000;0.2312;0.2173;
176.7000;0.2320;0.2245;
177.0000;0.2312;0.2269;
177.3000;0.2312;0.2340;
177.6000;0.2287;0.2340;
177.9000;0.2312;0.2460;
178.2000;0.2336;0.2436;
178.5000;0.2328;0.2460;
178.8000;0.2336;0.2436;
179.1000;0.2328;0.2484;
179.4000;0.2295;0.2484;
179.7000;0.2328;0.2508;
180.0000;0.2320;0.2532;
180.3000;0.2320;0.2460;
180.6000;0.2336;0.2460;
180.9000;0.2312;0.2388;
181.2000;0.2344;0.2436;
181.5000;0.2320;0.2293;
181.8000;0.2312;0.2317;
182.1000;0.2320;0.2317;
182.4000;0.2336;0.2364;
182.7000;0.2320;0.2340;
183.0000;0.2312;0.2293;
183.3000;0.2295;0.2269;
183.6000;0.2320;0.2388;
183.9000;0.2320;0.2436;
184.2000;0.2328;0.2436;
184.5000;0.2328;0.2508;
184.8000;0.2247;0.2340;
185.1000;0.2312;0.2484;
185.4000;0.2320;0.2508;
185.7000;0.2401;0.2746;
186.0000;0.2312;0.2603;
186.3000;0.2304;0.2555;
186.6000;0.2304;0.2532;
186.9000;0.2312;0.2532;
187.2000;0.2312;0.2532;
187.5000;0.2328;0.2555;
187.8000;0.2312;0.2460;
188.1000;0.2312;0.2460;
188.4000;0.2336;0.2484;
188.7000;0.2312;0.2388;
189.0000;0.2279;0.2269;
189.3000;0.2320;0.2340;
189.6000;0.2352;0.2460;
189.9000;0.2336;0.2340;
190.2000;0.2304;0.2293;
190.5000;0.2312;0.2317;
190.8000;0.2320;0.2388;
191.1000;0.2344;0.2436;
191.4000;0.2328;0.2436;
191.7000;0.2369;0.2579;
192.0000;0.2320;0.2484;
192.3000;0.2336;0.2484;
192.6000;0.2295;0.2484;
192.9000;0.2312;0.2484;
193.2000;0.2312;0.2484;
193.5000;0.2312;0.2508;
193.8000;0.2328;0.2603;
194.1000;0.2287;0.2532;
194.4000;0.2320;0.2627;
194.7000;0.2312;0.2723;
195.0000;0.2328;0.2770;
195.3000;0.2336;0.2770;
195.6000;0.2377;0.2818;
195.9000;0.2328;0.2794;
196.2000;0.2336;0.2794;
196.5000;0.2320;0.2770;
196.8000;0.2304;0.2794;
197.1000;0.2312;0.2699;
197.4000;0.2287;0.2627;
197.7000;0.2320;0.2627;
198.0000;0.2336;0.2603;
198.3000;0.2336;0.2651;
198.6000;0.2320;0.2627;
198.9000;0.2312;0.2603;
199.2000;0.2304;0.2579;
199.5000;0.2320;0.2579;
199.8000;0.2328;0.2579;
200.1000;0.2320;0.2579;
200.4000;0.2320;0.2603;
200.7000;0.2312;0.2579;
201.0000;0.2336;0.2555;
201.3000;0.2312;0.2484;
201.6000;0.2336;0.2579;
201.9000;0.2336;0.2532;
202.2000;0.2328;0.2579;
202.5000;0.2312;0.2532;
202.8000;0.2320;0.2532;
203.1000;0.2214;0.2245;
203.4000;0.2312;0.2508;
203.7000;0.2328;0.2555;
204.0000;0.2312;0.2532;
204.3000;0.2328;0.2508;
204.6000;0.2320;0.2436;
204.9000;0.2312;0.2532;
205.2000;0.2320;0.2579;
205.5000;0.2320;0.2675;
205.8000;0.2304;0.2579;
206.1000;0.2295;0.2555;
206.4000;0.2304;0.2532;
206.7000;0.2320;0.2532;
207.0000;0.2320;0.2579;
207.3000;0.2304;0.2555;
207.6000;0.2336;0.2508;
207.9000;0.2312;0.2364;
208.2000;0.2295;0.2364;
208.5000;0.2320;0.2412;
208.8000;0.2336;0.2484;
209.1000;0.2320;0.2436;
209.4000;0.2320;0.2460;
209.7000;0.2352;0.2579;
210.0000;0.2312;0.2555;
210.3000;0.2320;0.2532;
210.6000;0.2328;0.2579;
210.9000;0.2295;0.2555;
211.2000;0.2312;0.2651;
211.5000;0.2328;0.2675;
211.8000;0.2312;0.2723;
212.1000;0.2304;0.2651;
212.4000;0.2304;0.2603;
212.7000;0.2320;0.2532;
213.0000;0.2312;0.2436;
213.3000;0.2304;0.2293;
213.6000;0.2320;0.2388;
213.9000;0.2304;0.2340;
214.2000;0.2312;0.2436;
214.5000;0.2385;0.2651;
214.8000;0.2312;0.2555;
215.1000;0.2328;0.2651;
215.4000;0.2312;0.2603;
215.7000;0.2320;0.2555;
216.0000;0.2320;0.2508;
216.3000;0.2320;0.2484;
216.6000;0.2295;0.2460;
216.9000;0.2312;0.2508;
217.2000;0.2295;0.2436;
217.5000;0.2312;0.2532;
217.8000;0.2328;0.2508;
218.1000;0.2312;0.2532;
218.4000;0.2312;0.2484;
218.7000;0.2312;0.2460;
219.0000;0.2320;0.2460;
219.3000;0.2295;0.2364;
219.6000;0.2304;0.2436;
219.9000;0.2352;0.2627;
220.2000;0.2312;0.2532;
220.5000;0.2328;0.2532;
220.8000;0.2320;0.2508;
221.1000;0.2312;0.2532;
221.4000;0.2304;0.2579;
221.7000;0.2304;0.2675;
222.0000;0.2295;0.2675;
222.3000;0.2328;0.2723;
222.6000;0.2320;0.2627;
222.9000;0.2336;0.2532;
223.2000;0.2312;0.2508;
223.5000;0.2312;0.2532;
223.8000;0.2320;0.2627;
224.1000;0.2320;0.2675;
224.4000;0.2320;0.2746;
224.7000;0.2312;0.2699;
225.0000;0.2320;0.2627;
225.3000;0.2336;0.2555;
225.6000;0.2320;0.2508;
225.9000;0.2352;0.2651;
226.2000;0.2328;0.2603;
226.5000;0.2320;0.2603;
226.8000;0.2312;0.2508;
227.1000;0.2304;0.2508;
227.4000;0.2295;0.2436;
227.7000;0.2247;0.2269;
228.0000;0.2304;0.2508;
228.3000;0.2328;0.2508;
228.6000;0.2320;0.2412;
228.9000;0.2304;0.2317;
229.2000;0.2247;0.2173;
229.5000;0.2336;0.2436;
229.8000;0.2344;0.2484;
230.1000;0.2263;0.2317;
230.4000;0.2442;0.2842;
230.7000;0.2279;0.2484;
231.0000;0.2312;0.2579;
231.3000;0.2442;0.2866;
231.6000;0.2263;0.2388;
231.9000;0.2336;0.2603;
232.2000;0.2369;0.2675;
232.5000;0.2312;0.2484;
232.8000;0.2263;0.2364;
233.1000;0.2336;0.2555;
233.4000;0.2304;0.2436;
233.7000;0.2336;0.2484;
234.0000;0.2312;0.2388;
234.3000;0.2328;0.2460;
234.6000;0.2304;0.2484;
234.9000;0.2312;0.2508;
235.2000;0.2295;0.2412;
235.5000;0.2312;0.2508;
235.8000;0.2328;0.2532;
236.1000;0.2320;0.2460;
236.4000;0.2312;0.2460;
236.7000;0.2320;0.2484;
237.0000;0.2214;0.2269;
237.3000;0.2320;0.2412;
237.6000;0.2312;0.2412;
237.9000;0.2295;0.2412;
238.2000;0.2312;0.2388;
238.5000;0.2352;0.2532;
238.8000;0.2312;0.2388;
239.1000;0.2304;0.2340;
239.4000;0.2336;0.2436;
239.7000;0.2304;0.2508;
240.0000;0.2304;0.2555;
240.3000;0.2328;0.2508;
240.6000;0.2336;0.2603;
240.9000;0.2239;0.2388;
241.2000;0.2304;0.2627;
241.5000;0.2304;0.2627;
241.8000;0.2287;0.2484;
242.1000;0.2312;0.2460;
242.4000;0.2304;0.2412;
242.7000;0.2312;0.2436;
243.0000;0.2287;0.2412;
243.3000;0.2287;0.2317;
243.6000;0.2287;0.2317;
243.9000;0.2295;0.2269;
244.2000;0.2336;0.2460;
244.5000;0.2304;0.2293;
244.8000;0.2312;0.2126;
245.1000;0.2230;0.1863;
245.4000;0.2320;0.2173;
245.7000;0.2336;0.2221;
246.0000;0.2336;0.2293;
246.3000;0.2336;0.2221;
246.6000;0.2312;0.2197;
246.9000;0.2320;0.2317;
247.2000;0.2304;0.2245;
247.5000;0.2320;0.2269;
247.8000;0.2295;0.2245;
248.1000;0.2328;0.2269;
248.4000;0.2312;0.2221;
248.7000;0.2304;0.2173;
249.0000;0.2320;0.2269;
249.3000;0.2312;0.2221;
249.6000;0.2247;0.2102;
249.9000;0.2304;0.2245;
250.2000;0.2320;0.2245;
250.5000;0.2336;0.2293;
250.8000;0.2279;0.2149;
251.1000;0.2287;0.2269;
251.4000;0.2304;0.2269;
251.7000;0.2320;0.2317;
252.0000;0.2328;0.2388;
252.3000;0.2304;0.2293;
252.6000;0.2320;0.2340;
252.9000;0.2328;0.2388;
253.2000;0.2377;0.2532;
253.5000;0.2336;0.2436;
253.8000;0.2312;0.2293;
254.1000;0.2304;0.2269;
254.4000;0.2304;0.2269;
254.7000;0.2336;0.2269;
255.0000;0.2312;0.2102;
255.3000;0.2304;0.2006;
255.6000;0.2320;0.2102;
255.9000;0.2401;0.2340;
256.2000;0.2320;0.2149;
256.5000;0.2287;0.2126;
256.8000;0.2320;0.2102;
257.1000;0.2344;0.2149;
257.4000;0.2344;0.2173;
257.7000;0.2287;0.2149;
258.0000;0.2328;0.2340;
258.3000;0.2320;0.2436;
258.6000;0.2287;0.2364;
258.9000;0.2312;0.2484;
259.2000;0.2320;0.2508;
259.5000;0.2320;0.2484;
259.8000;0.2312;0.2460;
260.1000;0.2312;0.2388;
260.4000;0.2304;0.2412;
260.7000;0.2312;0.2364;
261.0000;0.2304;0.2388;
261.3000;0.2320;0.2340;
261.6000;0.2320;0.2269;
261.9000;0.2304;0.2221;
262.2000;0.2320;0.2269;
262.5000;0.2328;0.2245;
262.8000;0.2304;0.2197;
263.1000;0.2320;0.2245;
263.4000;0.2320;0.2221;
263.7000;0.2312;0.2126;
264.0000;0.2328;0.2173;
264.3000;0.2312;0.2006;
264.6000;0.2304;0.2030;
264.9000;0.2312;0.2126;
265.2000;0.2304;0.2054;
265.5000;0.2328;0.2197;
265.8000;0.2304;0.2173;
266.1000;0.2336;0.2197;
266.4000;0.2320;0.2197;
266.7000;0.2320;0.2197;
267.0000;0.2320;0.2221;
267.3000;0.2312;0.2173;
267.6000;0.2312;0.2126;
267.9000;0.2312;0.2221;
268.2000;0.2336;0.2221;
268.5000;0.2328;0.2221;
268.8000;0.2320;0.2221;
269.1000;0.2279;0.2102;
269.4000;0.2312;0.2245;
269.7000;0.2304;0.2269;
270.0000;0.2320;0.2340;
270.3000;0.2279;0.2245;
270.6000;0.2304;0.2412;
270.9000;0.2304;0.2412;
271.2000;0.2295;0.2508;
271.5000;0.2271;0.2460;
271.8000;0.2304;0.2484;
272.1000;0.2320;0.2555;
272.4000;0.2369;0.2627;
272.7000;0.2312;0.2508;
273.0000;0.2295;0.2436;
273.3000;0.2328;0.2508;
273.6000;0.2304;0.2460;
273.9000;0.2304;0.2388;
274.2000;0.2287;0.2340;
274.5000;0.2361;0.2508;
274.8000;0.2312;0.2436;
275.1000;0.2328;0.2555;
275.4000;0.2255;0.2364;
275.7000;0.2304;0.2460;
276.0000;0.2320;0.2532;
276.3000;0.2320;0.2579;
276.6000;0.2304;0.2532;
276.9000;0.2198;0.2197;
277.2000;0.2361;0.2627;
277.5000;0.2369;0.2675;
277.8000;0.2263;0.2388;
278.1000;0.2287;0.2412;
278.4000;0.2328;0.2364;
278.7000;0.2369;0.2436;
279.0000;0.2304;0.2388;
279.3000;0.2344;0.2555;
279.6000;0.2271;0.2364;
279.9000;0.2336;0.2627;
280.2000;0.2344;0.2699;
280.5000;0.2271;0.2603;
280.8000;0.2320;0.2699;
281.1000;0.2312;0.2675;
281.4000;0.2304;0.2603;
281.7000;0.2312;0.2555;
282.0000;0.2312;0.2555;
282.3000;0.2304;0.2484;
282.6000;0.2312;0.2579;
282.9000;0.2304;0.2651;
283.2000;0.2352;0.2794;
283.5000;0.2255;0.2555;
283.8000;0.2287;0.2603;
284.1000;0.2320;0.2651;
284.4000;0.2320;0.2603;
284.7000;0.2279;0.2555;
285.0000;0.2312;0.2651;
285.3000;0.2336;0.2651;
285.6000;0.2312;0.2651;
285.9000;0.2328;0.2627;
286.2000;0.2295;0.2579;
286.5000;0.2312;0.2651;
286.8000;0.2304;0.2651;
287.1000;0.2287;0.2579;
287.4000;0.2295;0.2627;
287.7000;0.2312;0.2699;
288.0000;0.2320;0.2603;
288.3000;0.2295;0.2508;
288.6000;0.2320;0.2532;
288.9000;0.2352;0.2651;
289.2000;0.2336;0.2627;
289.5000;0.2336;0.2579;
289.8000;0.2336;0.2579;
290.1000;0.2312;0.2484;
290.4000;0.2279;0.2436;
290.7000;0.2312;0.2436;
291.0000;0.2304;0.2412;
291.3000;0.2304;0.2317;
291.6000;0.2304;0.2388;
291.9000;0.2320;0.2436;
292.2000;0.2312;0.2460;
292.5000;0.2336;0.2484;
292.8000;0.2320;0.2460;
293.1000;0.2295;0.2364;
293.4000;0.2304;0.2412;
293.7000;0.2328;0.2364;
294.0000;0.2295;0.2197;
294.3000;0.2336;0.2245;
294.6000;0.2320;0.2245;
294.9000;0.2328;0.2317;
295.2000;0.2328;0.2317;
295.5000;0.2312;0.2293;
295.8000;0.2312;0.2293;
296.1000;0.2263;0.2030;
296.4000;0.2312;0.2173;
296.7000;0.2336;0.2269;
297.0000;0.2336;0.2269;
297.3000;0.2312;0.2221;
297.6000;0.2287;0.2221;
297.9000;0.2263;0.2221;
298.2000;0.2369;0.2532;
298.5000;0.2279;0.2317;
298.8000;0.2320;0.2388;
299.1000;0.2312;0.2388;
299.4000;0.2320;0.2484;
299.7000;0.2304;0.2532;
300.0000;0.2312;0.2460;
300.3000;0.2328;0.2484;
300.6000;0.2239;0.2197;
300.9000;0.2304;0.2364;
301.2000;0.2369;0.2508;
301.5000;0.2336;0.2412;
301.8000;0.2304;0.2340;
302.1000;0.2320;0.2293;
302.4000;0.2328;0.2293;
302.7000;0.2320;0.2340;
303.0000;0.2312;0.2340;
303.3000;0.2304;0.2364;
303.6000;0.2312;0.2364;
303.9000;0.2312;0.2436;
304.2000;0.2320;0.2388;
304.5000;0.2312;0.2364;
304.8000;0.2328;0.2340;
305.1000;0.2295;0.2293;
305.4000;0.2312;0.2436;
305.7000;0.2295;0.2484;
306.0000;0.2320;0.2532;
306.3000;0.2320;0.2579;
306.6000;0.2304;0.2460;
306.9000;0.2336;0.2555;
307.2000;0.2287;0.2460;
307.5000;0.2320;0.2508;
307.8000;0.2304;0.2579;
308.1000;0.2320;0.2579;
308.4000;0.2304;0.2532;
308.7000;0.2320;0.2532;
309.0000;0.2312;0.2555;
309.3000;0.2304;0.2532;
309.6000;0.2295;0.2555;
309.9000;0.2328;0.2579;
310.2000;0.2320;0.2627;
310.5000;0.2304;0.2675;
310.8000;0.2295;0.2746;
311.1000;0.2312;0.2699;
311.4000;0.2304;0.2627;
311.7000;0.2295;0.2508;
312.0000;0.2295;0.2436;
312.3000;0.2328;0.2508;
312.6000;0.2320;0.2388;
312.9000;0.2312;0.2317;
313.2000;0.2328;0.2293;
313.5000;0.2328;0.2364;
313.8000;0.2304;0.2364;
314.1000;0.2295;0.2364;
314.4000;0.2426;0.2723;
314.7000;0.2312;0.2460;
315.0000;0.2312;0.2484;
315.3000;0.2418;0.2794;
315.6000;0.2320;0.2532;
315.9000;0.2320;0.2508;
316.2000;0.2336;0.2532;
316.5000;0.2336;0.2651;
316.8000;0.2336;0.2651;
317.1000;0.2344;0.2675;
317.4000;0.2312;0.2627;
317.7000;0.2320;0.2555;
318.0000;0.2304;0.2508;
318.3000;0.2279;0.2388;
318.6000;0.2312;0.2532;
318.9000;0.2312;0.2484;
319.2000;0.2328;0.2555;
319.5000;0.2328;0.2436;
319.8000;0.2336;0.2532;
320.1000;0.2312;0.2388;
320.4000;0.2312;0.2484;
320.7000;0.2295;0.2484;
321.0000;0.2320;0.2508;
321.3000;0.2312;0.2460;
321.6000;0.2312;0.2460;
321.9000;0.2328;0.2555;
322.2000;0.2312;0.2532;
322.5000;0.2198;0.2245;
322.8000;0.2312;0.2508;
323.1000;0.2295;0.2579;
323.4000;0.2287;0.2555;
323.7000;0.2328;0.2699;
324.0000;0.2239;0.2412;
324.3000;0.2312;0.2651;
324.6000;0.2279;0.2484;
324.9000;0.2304;0.2579;
325.2000;0.2304;0.2388;
325.5000;0.2312;0.2364;
325.8000;0.2312;0.2364;
326.1000;0.2312;0.2340;
326.4000;0.2304;0.2388;
326.7000;0.2287;0.2388;
327.0000;0.2328;0.2508;
327.3000;0.2304;0.2555;
327.6000;0.2328;0.2627;
327.9000;0.2312;0.2555;
328.2000;0.2336;0.2603;
328.5000;0.2271;0.2436;
328.8000;0.2312;0.2508;
329.1000;0.2320;0.2532;
329.4000;0.2320;0.2579;
329.7000;0.2312;0.2555;
330.0000;0.2312;0.2532;
330.3000;0.2344;0.2603;
330.6000;0.2320;0.2484;
330.9000;0.2312;0.2388;
331.2000;0.2239;0.2173;
331.5000;0.2312;0.2340;
331.8000;0.2304;0.2436;
332.1000;0.2328;0.2388;
332.4000;0.2295;0.2317;
332.7000;0.2222;0.2078;
333.0000;0.2304;0.2317;
333.3000;0.2336;0.2436;
333.6000;0.2320;0.2484;
333.9000;0.2328;0.2508;
334.2000;0.2336;0.2579;
334.5000;0.2304;0.2508;
334.8000;0.2304;0.2436;
335.1000;0.2320;0.2508;
335.4000;0.2328;0.2412;
335.7000;0.2312;0.2340;
336.0000;0.2369;0.2412;
336.3000;0.2320;0.2197;
336.6000;0.2312;0.2221;
336.9000;0.2401;0.2412;
337.2000;0.2320;0.2197;
337.5000;0.2328;0.2221;
337.8000;0.2320;0.2293;
338.1000;0.2287;0.2364;
338.4000;0.2287;0.2293;
338.7000;0.2320;0.2364;
339.0000;0.2328;0.2484;
339.3000;0.2336;0.2508;
339.6000;0.2320;0.2364;
339.9000;0.2279;0.2412;
340.2000;0.2320;0.2484;
340.5000;0.2263;0.2436;
340.8000;0.2328;0.2627;
341.1000;0.2295;0.2508;
341.4000;0.2304;0.2388;
341.7000;0.2304;0.2460;
342.0000;0.2320;0.2508;
342.3000;0.2295;0.2460;
342.6000;0.2304;0.2412;
342.9000;0.2312;0.2317;
343.2000;0.2304;0.2269;
343.5000;0.2352;0.2269;
343.8000;0.2304;0.2149;
344.1000;0.2320;0.2221;
344.4000;0.2320;0.2197;
344.7000;0.2304;0.2245;
345.0000;0.2295;0.2269;
345.3000;0.2312;0.2364;
345.6000;0.2344;0.2388;
345.9000;0.2320;0.2340;
346.2000;0.2361;0.2364;
346.5000;0.2344;0.2340;
346.8000;0.2312;0.2364;
347.1000;0.2328;0.2340;
347.4000;0.2312;0.2317;
347.7000;0.2312;0.2269;
348.0000;0.2295;0.2293;
348.3000;0.2344;0.2388;
348.6000;0.2271;0.2197;
348.9000;0.2304;0.2221;
349.2000;0.2312;0.2221;
349.5000;0.2304;0.2221;
349.8000;0.2320;0.2269;
350.1000;0.2312;0.2317;
350.4000;0.2304;0.2269;
350.7000;0.2328;0.2340;
351.0000;0.2328;0.2388;
351.3000;0.2295;0.2293;
351.6000;0.2312;0.2340;
351.9000;0.2295;0.2269;
352.2000;0.2295;0.2340;
352.5000;0.2312;0.2412;
352.8000;0.2304;0.2412;
353.1000;0.2328;0.2484;
353.4000;0.2304;0.2412;
353.7000;0.2255;0.2317;
354.0000;0.2295;0.2364;
354.3000;0.2320;0.2364;
354.6000;0.2442;0.2579;
354.9000;0.2328;0.2364;
355.2000;0.2369;0.2412;
355.5000;0.2279;0.2197;
355.8000;0.2320;0.2269;
356.1000;0.2247;0.2102;
356.4000;0.2304;0.2293;
356.7000;0.2312;0.2245;
357.0000;0.2295;0.2221;
357.3000;0.2320;0.2245;
357.6000;0.2295;0.2269;
357.9000;0.2295;0.2293;
358.2000;0.2320;0.2364;
358.5000;0.2320;0.2197;
358.8000;0.2320;0.2221;
359.1000;0.2304;0.2197;
359.4000;0.2304;0.2102;
359.7000;0.2320;0.2197;
360.0000;0.2320;0.2269;
360.3000;0.2328;0.2293;
360.6000;0.2312;0.2173;
360.9000;0.2320;0.2269;
361.2000;0.2393;0.2508;
361.5000;0.2304;0.2221;
361.8000;0.2320;0.2293;
362.1000;0.2328;0.2364;
362.4000;0.2336;0.2364;
362.7000;0.2287;0.2293;
363.0000;0.2287;0.2340;
363.3000;0.2320;0.2388;
363.6000;0.2328;0.2388;
363.9000;0.2312;0.2364;
364.2000;0.2409;0.2723;
364.5000;0.2312;0.2388;
364.8000;0.2336;0.2484;
365.1000;0.2320;0.2412;
365.4000;0.2304;0.2388;
365.7000;0.2361;0.2579;
366.0000;0.2320;0.2460;
366.3000;0.2328;0.2317;
366.6000;0.2320;0.2317;
366.9000;0.2247;0.2102;
367.2000;0.2328;0.2460;
367.5000;0.2312;0.2460;
367.8000;0.2336;0.2460;
368.1000;0.2295;0.2412;
368.4000;0.2295;0.2508;
368.7000;0.2377;0.2699;
369.0000;0.2295;0.2532;
369.3000;0.2352;0.2723;
369.6000;0.2198;0.2197;
369.9000;0.2361;0.2603;
370.2000;0.2361;0.2532;
370.5000;0.2385;0.2532;
370.8000;0.2304;0.2293;
371.1000;0.2320;0.2340;
371.4000;0.2336;0.2364;
371.7000;0.2312;0.2269;
372.0000;0.2344;0.2436;
372.3000;0.2352;0.2532;
372.6000;0.2369;0.2532;
372.9000;0.2304;0.2412;
373.2000;0.2304;0.2460;
373.5000;0.2295;0.2364;
373.8000;0.2304;0.2388;
374.1000;0.2320;0.2484;
374.4000;0.2304;0.2555;
374.7000;0.2287;0.2532;
375.0000;0.2352;0.2603;
375.3000;0.2328;0.2555;
375.6000;0.2312;0.2484;
375.9000;0.2295;0.2364;
376.2000;0.2295;0.2293;
376.5000;0.2320;0.2364;
376.8000;0.2279;0.2340;
377.1000;0.2287;0.2317;
377.4000;0.2304;0.2388;
377.7000;0.2312;0.2364;
378.0000;0.2312;0.2317;
378.3000;0.2312;0.2412;
378.6000;0.2304;0.2340;
378.9000;0.2320;0.2364;
379.2000;0.2320;0.2388;
379.5000;0.2312;0.2364;
379.8000;0.2312;0.2412;
380.1000;0.2328;0.2460;
380.4000;0.2320;0.2412;
380.7000;0.2352;0.2460;
381.0000;0.2320;0.2412;
381.3000;0.2328;0.2436;
381.6000;0.2328;0.2388;
381.9000;0.2287;0.2340;
382.2000;0.2295;0.2317;
382.5000;0.2287;0.2340;
382.8000;0.2336;0.2412;
383.1000;0.2352;0.2508;
383.4000;0.2320;0.2412;
383.7000;0.2320;0.2388;
384.0000;0.2295;0.2388;
384.3000;0.2320;0.2388;
384.6000;0.2304;0.2388;
384.9000;0.2320;0.2412;
385.2000;0.2328;0.2412;
385.5000;0.2312;0.2388;
385.8000;0.2304;0.2388;
386.1000;0.2287;0.2317;
386.4000;0.2320;0.2460;
386.7000;0.2328;0.2532;
387.0000;0.2320;0.2532;
387.3000;0.2287;0.2364;
387.6000;0.2320;0.2484;
387.9000;0.2304;0.2388;
388.2000;0.2304;0.2388;
388.5000;0.2263;0.2221;
388.8000;0.2255;0.2269;
389.1000;0.2304;0.2388;
389.4000;0.2352;0.2555;
389.7000;0.2312;0.2412;
390.0000;0.2369;0.2579;
390.3000;0.2320;0.2460;
390.6000;0.2328;0.2532;
390.9000;0.2352;0.2651;
391.2000;0.2328;0.2627;
391.5000;0.2320;0.2579;
391.8000;0.2369;0.2746;
392.1000;0.2295;0.2579;
392.4000;0.2320;0.2627;
392.7000;0.2230;0.2340;
393.0000;0.2328;0.2532;
393.3000;0.2287;0.2436;
393.6000;0.2377;0.2675;
393.9000;0.2320;0.2460;
394.2000;0.2304;0.2555;
394.5000;0.2312;0.2603;
394.8000;0.2320;0.2651;
395.1000;0.2328;0.2723;
395.4000;0.2369;0.2914;
395.7000;0.2304;0.2746;
396.0000;0.2304;0.2699;
396.3000;0.2320;0.2675;
396.6000;0.2230;0.2364;
396.9000;0.2320;0.2579;
397.2000;0.2328;0.2627;
397.5000;0.2312;0.2627;
397.8000;0.2320;0.2651;
398.1000;0.2304;0.2627;
398.4000;0.2320;0.2675;
398.7000;0.2255;0.2532;
399.0000;0.2320;0.2627;
399.3000;0.2304;0.2627;
399.6000;0.2312;0.2651;
399.9000;0.2304;0.2579;
400.2000;0.2328;0.2627;
400.5000;0.2295;0.2603;
400.8000;0.2295;0.2651;
401.1000;0.2328;0.2699;
401.4000;0.2312;0.2555;
401.7000;0.2328;0.2460;
402.0000;0.2409;0.2723;
402.3000;0.2328;0.2484;
402.6000;0.2304;0.2460;
402.9000;0.2328;0.2532;
403.2000;0.2312;0.2555;
403.5000;0.2320;0.2579;
403.8000;0.2312;0.2603;
404.1000;0.2328;0.2723;
404.4000;0.2304;0.2651;
404.7000;0.2320;0.2555;
405.0000;0.2320;0.2532;
405.3000;0.2279;0.2484;
405.6000;0.2295;0.2555;
405.9000;0.2328;0.2627;
406.2000;0.2320;0.2651;
406.5000;0.2279;0.2532;
406.8000;0.2336;0.2675;
407.1000;0.2312;0.2579;
407.4000;0.2312;0.2603;
407.7000;0.2312;0.2627;
408.0000;0.2320;0.2675;
408.3000;0.2320;0.2675;
408.6000;0.2312;0.2651;
408.9000;0.2295;0.2579;
409.2000;0.2295;0.2555;
409.5000;0.2352;0.2627;
409.8000;0.2295;0.2484;
410.1000;0.2239;0.2340;
410.4000;0.2320;0.2484;
410.7000;0.2304;0.2460;
411.0000;0.2328;0.2603;
411.3000;0.2320;0.2579;
411.6000;0.2304;0.2579;
411.9000;0.2312;0.2555;
412.2000;0.2336;0.2675;
412.5000;0.2295;0.2508;
412.8000;0.2328;0.2508;
413.1000;0.2304;0.2508;
413.4000;0.2320;0.2651;
413.7000;0.2312;0.2627;
414.0000;0.2304;0.2699;
414.3000;0.2328;0.2723;
414.6000;0.2361;0.2794;
414.9000;0.2312;0.2651;
415.2000;0.2304;0.2651;
415.5000;0.2279;0.2651;
415.8000;0.2320;0.2723;
416.1000;0.2295;0.2627;
416.4000;0.2312;0.2699;
416.7000;0.2312;0.2675;
417.0000;0.2312;0.2627;
417.3000;0.2295;0.2579;
417.6000;0.2304;0.2651;
417.9000;0.2312;0.2651;
418.2000;0.2328;0.2627;
418.5000;0.2312;0.2555;
418.8000;0.2320;0.2627;
419.1000;0.2304;0.2651;
419.4000;0.2312;0.2699;
419.7000;0.2320;0.2579;
420.0000;0.2295;0.2532;
420.3000;0.2320;0.2579;
420.6000;0.2304;0.2532;
420.9000;0.2320;0.2555;
421.2000;0.2312;0.2532;
421.5000;0.2304;0.2555;
421.8000;0.2320;0.2627;
422.1000;0.2304;0.2651;
422.4000;0.2328;0.2723;
422.7000;0.2320;0.2770;
423.0000;0.2312;0.2818;
423.3000;0.2328;0.2770;
423.6000;0.2295;0.2627;
423.9000;0.2328;0.2746;
424.2000;0.2344;0.2818;
424.5000;0.2328;0.2794;
424.8000;0.2312;0.2723;
425.1000;0.2312;0.2770;
425.4000;0.2304;0.2746;
425.7000;0.2312;0.2675;
426.0000;0.2320;0.2603;
426.3000;0.2312;0.2532;
426.6000;0.2279;0.2508;
426.9000;0.2312;0.2603;
427.2000;0.2328;0.2579;
427.5000;0.2320;0.2603;
427.8000;0.2312;0.2627;
428.1000;0.2222;0.2508;
428.4000;0.2304;0.2723;
428.7000;0.2320;0.2794;
429.0000;0.2304;0.2699;
429.3000;0.2320;0.2579;
429.6000;0.2279;0.2579;
429.9000;0.2328;0.2555;
430.2000;0.2304;0.2484;
430.5000;0.2336;0.2651;
430.8000;0.2320;0.2579;
431.1000;0.2352;0.2627;
431.4000;0.2255;0.2340;
431.7000;0.2320;0.2412;
432.0000;0.2190;0.2149;
432.3000;0.2385;0.2746;
432.6000;0.2295;0.2555;
432.9000;0.2352;0.2723;
433.2000;0.2304;0.2651;
433.5000;0.2312;0.2651;
433.8000;0.2320;0.2627;
434.1000;0.2320;0.2627;
434.4000;0.2287;0.2627;
434.7000;0.2279;0.2627;
435.0000;0.2304;0.2675;
435.3000;0.2304;0.2699;
435.6000;0.2295;0.2651;
435.9000;0.2304;0.2651;
436.2000;0.2271;0.2579;
436.5000;0.2312;0.2723;
436.8000;0.2295;0.2651;
437.1000;0.2320;0.2699;
437.4000;0.2304;0.2603;
437.7000;0.2320;0.2579;
438.0000;0.2320;0.2555;
438.3000;0.2320;0.2627;
438.6000;0.2352;0.2818;
438.9000;0.2312;0.2770;
439.2000;0.2287;0.2651;
439.5000;0.2279;0.2603;
439.8000;0.2295;0.2627;
440.1000;0.2312;0.2627;
440.4000;0.2304;0.2723;
440.7000;0.2279;0.2699;
441.0000;0.2320;0.2746;
441.3000;0.2320;0.2770;
441.6000;0.2312;0.2746;
441.9000;0.2320;0.2723;
442.2000;0.2320;0.2794;
442.5000;0.2336;0.2794;
442.8000;0.2336;0.2794;
443.1000;0.2312;0.2651;
443.4000;0.2312;0.2627;
443.7000;0.2312;0.2627;
444.0000;0.2304;0.2627;
444.3000;0.2239;0.2460;
444.6000;0.2385;0.2866;
444.9000;0.2312;0.2555;
445.2000;0.2320;0.2603;
445.5000;0.2312;0.2579;
445.8000;0.2312;0.2508;
446.1000;0.2320;0.2579;
446.4000;0.2328;0.2675;
446.7000;0.2271;0.2484;
447.0000;0.2239;0.2412;
447.3000;0.2312;0.2723;
447.6000;0.2328;0.2818;
447.9000;0.2344;0.2866;
448.2000;0.2369;0.2938;
448.5000;0.2263;0.2627;
448.8000;0.2336;0.2699;
449.1000;0.2271;0.2555;
449.4000;0.2320;0.2675;
449.7000;0.2312;0.2699;
450.0000;0.2279;0.2579;
450.3000;0.2312;0.2651;
450.6000;0.2312;0.2603;
450.9000;0.2247;0.2412;
451.2000;0.2304;0.2627;
451.5000;0.2320;0.2627;
451.8000;0.2312;0.2603;
452.1000;0.2312;0.2699;
452.4000;0.2312;0.2675;
452.7000;0.2312;0.2770;
453.0000;0.2328;0.2746;
453.3000;0.2279;0.2651;
453.6000;0.2312;0.2794;
453.9000;0.2295;0.2794;
454.2000;0.2312;0.2842;
454.5000;0.2279;0.2723;
454.8000;0.2263;0.2603;
455.1000;0.2279;0.2579;
455.4000;0.2344;0.2746;
455.7000;0.2304;0.2579;
456.0000;0.2312;0.2555;
456.3000;0.2287;0.2555;
456.6000;0.2328;0.2627;
456.9000;0.2328;0.2603;
457.2000;0.2320;0.2675;
457.5000;0.2263;0.2532;
457.8000;0.2312;0.2675;
458.1000;0.2328;0.2603;
458.4000;0.2328;0.2651;
458.7000;0.2320;0.2603;
459.0000;0.2304;0.2579;
459.3000;0.2304;0.2627;
459.6000;0.2336;0.2651;
459.9000;0.2320;0.2627;
460.2000;0.2295;0.2555;
460.5000;0.2320;0.2579;
460.8000;0.2304;0.2579;
461.1000;0.2320;0.2579;
461.4000;0.2247;0.2460;
461.7000;0.2295;0.2651;
462.0000;0.2312;0.2603;
462.3000;0.2377;0.2866;
462.6000;0.2369;0.2794;
462.9000;0.2287;0.2532;
463.2000;0.2369;0.2723;
463.5000;0.2304;0.2508;
463.8000;0.2328;0.2579;
464.1000;0.2295;0.2484;
464.4000;0.2287;0.2532;
464.7000;0.2295;0.2532;
465.0000;0.2304;0.2579;
465.3000;0.2295;0.2532;
465.6000;0.2361;0.2651;
465.9000;0.2312;0.2603;
466.2000;0.2320;0.2579;
466.5000;0.2304;0.2484;
466.8000;0.2271;0.2388;
467.1000;0.2328;0.2532;
467.4000;0.2312;0.2603;
467.7000;0.2328;0.2627;
468.0000;0.2279;0.2603;
468.3000;0.2328;0.2675;
468.6000;0.2279;0.2603;
468.9000;0.2320;0.2627;
469.2000;0.2295;0.2603;
469.5000;0.2328;0.2627;
469.8000;0.2328;0.2699;
470.1000;0.2304;0.2579;
470.4000;0.2304;0.2555;
470.7000;0.2312;0.2532;
471.0000;0.2312;0.2555;
471.3000;0.2295;0.2484;
471.6000;0.2295;0.2484;
471.9000;0.2304;0.2555;
472.2000;0.2304;0.2484;
472.5000;0.2385;0.2555;
472.8000;0.2295;0.2364;
473.1000;0.2320;0.2412;
473.4000;0.2312;0.2388;
473.7000;0.2328;0.2340;
474.0000;0.2312;0.2364;
474.3000;0.2304;0.2388;
474.6000;0.2271;0.2317;
474.9000;0.2328;0.2484;
475.2000;0.2304;0.2436;
475.5000;0.2304;0.2508;
475.8000;0.2312;0.2579;
476.1000;0.2304;0.2555;
476.4000;0.2312;0.2603;
476.7000;0.2320;0.2699;
477.0000;0.2304;0.2651;
477.3000;0.2320;0.2675;
477.6000;0.2304;0.2723;
477.9000;0.2287;0.2651;
478.2000;0.2312;0.2723;
478.5000;0.2336;0.2818;
478.8000;0.2312;0.2627;
479.1000;0.2287;0.2627;
479.4000;0.2328;0.2699;
479.7000;0.2328;0.2627;
480.0000;0.2328;0.2627;
480.3000;0.2369;0.2818;
480.6000;0.2369;0.2770;
480.9000;0.2287;0.2603;
481.2000;0.2304;0.2675;
481.5000;0.2320;0.2699;
481.8000;0.2312;0.2699;
482.1000;0.2320;0.2770;
482.4000;0.2328;0.2842;
482.7000;0.2312;0.2842;
483.0000;0.2312;0.2842;
483.3000;0.2312;0.2866;
483.6000;0.2344;0.2985;
483.9000;0.2320;0.2914;
484.2000;0.2271;0.2746;
484.5000;0.2279;0.2746;
484.8000;0.2418;0.3105;
485.1000;0.2320;0.2866;
485.4000;0.2271;0.2651;
485.7000;0.2312;0.2746;
486.0000;0.2304;0.2699;
486.3000;0.2312;0.2723;
486.6000;0.2263;0.2651;
486.9000;0.2312;0.2699;
487.2000;0.2295;0.2627;
487.5000;0.2336;0.2699;
487.8000;0.2320;0.2627;
488.1000;0.2320;0.2579;
488.4000;0.2304;0.2579;
488.7000;0.2320;0.2532;
489.0000;0.2442;0.2890;
489.3000;0.2328;0.2532;
489.6000;0.2295;0.2460;
489.9000;0.2312;0.2484;
490.2000;0.2320;0.2484;
490.5000;0.2304;0.2532;
490.8000;0.2352;0.2555;
491.1000;0.2304;0.2484;
491.4000;0.2312;0.2603;
491.7000;0.2295;0.2603;
492.0000;0.2304;0.2627;
492.3000;0.2320;0.2555;
492.6000;0.2214;0.2245;
492.9000;0.2279;0.2436;
493.2000;0.2295;0.2579;
493.5000;0.2344;0.2770;
493.8000;0.2336;0.2770;
494.1000;0.2312;0.2651;
494.4000;0.2295;0.2555;
494.7000;0.2295;0.2484;
495.0000;0.2401;0.2746;
495.3000;0.2336;0.2579;
495.6000;0.2304;0.2555;
495.9000;0.2304;0.2603;
496.2000;0.2393;0.2794;
496.5000;0.2320;0.2627;
496.8000;0.2271;0.2508;
497.1000;0.2295;0.2627;
497.4000;0.2287;0.2699;
497.7000;0.2287;0.2627;
498.0000;0.2312;0.2603;
498.3000;0.2320;0.2603;
498.6000;0.2320;0.2555;
498.9000;0.2312;0.2508;
499.2000;0.2312;0.2508;
499.5000;0.2304;0.2436;
499.8000;0.2328;0.2460;
500.1000;0.2320;0.2532;
500.4000;0.2304;0.2532;
500.7000;0.2304;0.2532;
501.0000;0.2312;0.2579;
501.3000;0.2263;0.2436;
501.6000;0.2320;0.2675;
501.9000;0.2287;0.2603;
502.2000;0.2287;0.2603;
502.5000;0.2295;0.2627;
502.8000;0.2336;0.2627;
503.1000;0.2304;0.2555;
503.4000;0.2304;0.2603;
503.7000;0.2312;0.2579;
504.0000;0.2295;0.2484;
504.3000;0.2304;0.2508;
504.6000;0.2312;0.2412;
504.9000;0.2304;0.2388;
505.2000;0.2320;0.2340;
505.5000;0.2312;0.2317;
505.8000;0.2320;0.2364;
506.1000;0.2320;0.2412;
506.4000;0.2304;0.2508;
506.7000;0.2312;0.2555;
507.0000;0.2320;0.2532;
507.3000;0.2295;0.2484;
507.6000;0.2263;0.2388;
507.9000;0.2295;0.2508;
508.2000;0.2320;0.2484;
508.5000;0.2312;0.2460;
508.8000;0.2320;0.2484;
509.1000;0.2295;0.2484;
509.4000;0.2206;0.2221;
509.7000;0.2304;0.2484;
510.0000;0.2287;0.2412;
510.3000;0.2328;0.2508;
510.6000;0.2312;0.2532;
510.9000;0.2312;0.2555;
511.2000;0.2320;0.2603;
511.5000;0.2320;0.2651;
511.8000;0.2312;0.2579;
512.1000;0.2304;0.2603;
512.4000;0.2304;0.2555;
512.7000;0.2295;0.2532;
513.0000;0.2344;0.2723;
513.3000;0.2312;0.2627;
513.6000;0.2304;0.2555;
513.9000;0.2304;0.2555;
514.2000;0.2320;0.2579;
514.5000;0.2312;0.2555;
514.8000;0.2312;0.2508;
515.1000;0.2312;0.2436;
515.4000;0.2304;0.2364;
515.7000;0.2312;0.2460;
516.0000;0.2295;0.2412;
516.3000;0.2304;0.2412;
516.6000;0.2312;0.2412;
516.9000;0.2287;0.2317;
517.2000;0.2336;0.2532;
517.5000;0.2304;0.2508;
517.8000;0.2320;0.2579;
518.1000;0.2320;0.2579;
518.4000;0.2312;0.2555;
518.7000;0.2377;0.2746;
519.0000;0.2328;0.2699;
519.3000;0.2312;0.2675;
519.6000;0.2328;0.2651;
519.9000;0.2312;0.2555;
520.2000;0.2312;0.2532;
520.5000;0.2295;0.2388;
520.8000;0.2328;0.2436;
521.1000;0.2336;0.2555;
521.4000;0.2320;0.2484;
521.7000;0.2312;0.2436;
522.0000;0.2320;0.2555;
522.3000;0.2401;0.2723;
522.6000;0.2287;0.2436;
522.9000;0.2304;0.2460;
523.2000;0.2320;0.2555;
523.5000;0.2304;0.2460;
523.8000;0.2328;0.2484;
524.1000;0.2295;0.2388;
524.4000;0.2336;0.2508;
524.7000;0.2263;0.2364;
525.0000;0.2263;0.2317;
525.3000;0.2304;0.2412;
525.6000;0.2304;0.2412;
525.9000;0.2328;0.2508;
526.2000;0.2271;0.2388;
526.5000;0.2230;0.2173;
526.8000;0.2304;0.2484;
527.1000;0.2271;0.2364;
527.4000;0.2328;0.2460;
527.7000;0.2369;0.2555;
528.0000;0.2320;0.2484;
528.3000;0.2312;0.2508;
528.6000;0.2304;0.2532;
528.9000;0.2304;0.2484;
529.2000;0.2304;0.2412;
529.5000;0.2312;0.2388;
529.8000;0.2328;0.2508;
530.1000;0.2304;0.2508;
530.4000;0.2295;0.2532;
530.7000;0.2320;0.2484;
531.0000;0.2312;0.2460;
531.3000;0.2312;0.2460;
531.6000;0.2304;0.2460;
531.9000;0.2320;0.2412;
532.2000;0.2295;0.2388;
532.5000;0.2320;0.2484;
532.8000;0.2312;0.2508;
533.1000;0.2304;0.2484;
533.4000;0.2295;0.2436;
533.7000;0.2320;0.2508;
534.0000;0.2336;0.2555;
534.3000;0.2287;0.2364;
534.6000;0.2328;0.2460;
534.9000;0.2336;0.2555;
535.2000;0.2304;0.2508;
535.5000;0.2295;0.2579;
535.8000;0.2328;0.2555;
536.1000;0.2320;0.2460;
536.4000;0.2312;0.2388;
536.7000;0.2304;0.2460;
537.0000;0.2255;0.2388;
537.3000;0.2287;0.2532;
537.6000;0.2295;0.2627;
537.9000;0.2263;0.2603;
538.2000;0.2304;0.2675;
538.5000;0.2295;0.2651;
538.8000;0.2304;0.2675;
539.1000;0.2336;0.2651;
539.4000;0.2295;0.2532;
539.7000;0.2361;0.2675;
540.0000;0.2295;0.2508;
540.3000;0.2304;0.2532;
540.6000;0.2247;0.2340;
540.9000;0.2287;0.2484;
541.2000;0.2361;0.2723;
541.5000;0.2336;0.2675;
541.8000;0.2369;0.2818;
542.1000;0.2263;0.2508;
542.4000;0.2328;0.2627;
542.7000;0.2328;0.2627;
543.0000;0.2271;0.2436;
543.3000;0.2295;0.2508;
543.6000;0.2320;0.2603;
543.9000;0.2295;0.2603;
544.2000;0.2377;0.2770;
544.5000;0.2328;0.2699;
544.8000;0.2320;0.2651;
545.1000;0.2328;0.2627;
545.4000;0.2328;0.2603;
545.7000;0.2328;0.2651;
546.0000;0.2295;0.2555;
546.3000;0.2328;0.2627;
546.6000;0.2295;0.2579;
546.9000;0.2320;0.2699;
547.2000;0.2312;0.2675;
547.5000;0.2434;0.2985;
547.8000;0.2304;0.2579;
548.1000;0.2304;0.2603;
548.4000;0.2312;0.2579;
548.7000;0.2312;0.2627;
549.0000;0.2304;0.2699;
549.3000;0.2247;0.2555;
549.6000;0.2287;0.2555;
549.9000;0.2304;0.2532;
550.2000;0.2320;0.2579;
550.5000;0.2295;0.2532;
550.8000;0.2312;0.2627;
551.1000;0.2320;0.2603;
551.4000;0.2304;0.2627;
551.7000;0.2320;0.2675;
552.0000;0.2320;0.2723;
552.3000;0.2361;0.2842;
552.6000;0.2304;0.2699;
552.9000;0.2328;0.2723;
553.2000;0.2312;0.2651;
553.5000;0.2295;0.2603;
553.8000;0.2304;0.2675;
554.1000;0.2295;0.2603;
554.4000;0.2287;0.2460;
554.7000;0.2304;0.2508;
555.0000;0.2312;0.2627;
555.3000;0.2304;0.2651;
555.6000;0.2344;0.2770;
555.9000;0.2312;0.2746;
556.2000;0.2304;0.2794;
556.5000;0.2304;0.2818;
556.8000;0.2304;0.2794;
557.1000;0.2295;0.2746;
557.4000;0.2344;0.2818;
557.7000;0.2295;0.2579;
558.0000;0.2279;0.2508;
558.3000;0.2312;0.2579;
558.6000;0.2312;0.2699;
558.9000;0.2344;0.2723;
559.2000;0.2328;0.2675;
559.5000;0.2312;0.2603;
559.8000;0.2336;0.2651;
560.1000;0.2312;0.2603;
560.4000;0.2312;0.2627;
560.7000;0.2312;0.2627;
561.0000;0.2328;0.2651;
561.3000;0.2304;0.2699;
561.6000;0.2312;0.2723;
561.9000;0.2279;0.2603;
562.2000;0.2328;0.2746;
562.5000;0.2295;0.2627;
562.8000;0.2344;0.2794;
563.1000;0.2344;0.2818;
563.4000;0.2320;0.2723;
563.7000;0.2328;0.2675;
564.0000;0.2320;0.2675;
564.3000;0.2320;0.2699;
564.6000;0.2255;0.2484;
564.9000;0.2312;0.2627;
565.2000;0.2312;0.2603;
565.5000;0.2328;0.2651;
565.8000;0.2328;0.2651;
566.1000;0.2295;0.2579;
566.4000;0.2304;0.2627;
566.7000;0.2385;0.2842;
567.0000;0.2312;0.2675;
567.3000;0.2304;0.2627;
567.6000;0.2320;0.2627;
567.9000;0.2312;0.2579;
568.2000;0.2304;0.2532;
568.5000;0.2295;0.2460;
568.8000;0.2304;0.2627;
569.1000;0.2312;0.2579;
569.4000;0.2312;0.2532;
569.7000;0.2295;0.2532;
570.0000;0.2328;0.2651;
570.3000;0.2312;0.2627;
570.6000;0.2312;0.2532;
570.9000;0.2320;0.2508;
571.2000;0.2222;0.2293;
571.5000;0.2312;0.2579;
571.8000;0.2328;0.2579;
572.1000;0.2320;0.2555;
572.4000;0.2336;0.2603;
572.7000;0.2304;0.2484;
573.0000;0.2336;0.2532;
573.3000;0.2328;0.2555;
573.6000;0.2304;0.2508;
573.9000;0.2320;0.2555;
574.2000;0.2328;0.2579;
574.5000;0.2328;0.2579;
574.8000;0.2320;0.2603;
575.1000;0.2304;0.2603;
575.4000;0.2320;0.2675;
575.7000;0.2320;0.2651;
576.0000;0.2312;0.2579;
576.3000;0.2320;0.2627;
576.6000;0.2312;0.2675;
576.9000;0.2320;0.2746;
577.2000;0.2304;0.2699;
577.5000;0.2312;0.2699;
577.8000;0.2320;0.2723;
578.1000;0.2304;0.2723;
578.4000;0.2304;0.2723;
578.7000;0.2295;0.2699;
579.0000;0.2287;0.2675;
579.3000;0.2304;0.2675;
579.6000;0.2295;0.2555;
579.9000;0.2320;0.2651;
580.2000;0.2295;0.2579;
580.5000;0.2295;0.2532;
580.8000;0.2328;0.2555;
581.1000;0.2279;0.2484;
581.4000;0.2320;0.2555;
581.7000;0.2312;0.2508;
582.0000;0.2312;0.2508;
582.3000;0.2312;0.2460;
582.6000;0.2328;0.2555;
582.9000;0.2279;0.2436;
583.2000;0.2312;0.2555;
583.5000;0.2295;0.2579;
583.8000;0.2295;0.2675;
584.1000;0.2295;0.2675;
584.4000;0.2312;0.2699;
584.7000;0.2328;0.2651;
585.0000;0.2312;0.2627;
585.3000;0.2287;0.2603;
585.6000;0.2312;0.2651;
585.9000;0.2287;0.2579;
586.2000;0.2312;0.2651;
586.5000;0.2312;0.2555;
586.8000;0.2312;0.2579;
587.1000;0.2328;0.2627;
587.4000;0.2361;0.2794;
587.7000;0.2320;0.2723;
588.0000;0.2312;0.2651;
588.3000;0.2328;0.2651;
588.6000;0.2304;0.2603;
588.9000;0.2287;0.2651;
589.2000;0.2255;0.2579;
589.5000;0.2328;0.2746;
589.8000;0.2312;0.2627;
590.1000;0.2295;0.2579;
590.4000;0.2304;0.2555;
590.7000;0.2295;0.2436;
591.0000;0.2320;0.2484;
591.3000;0.2312;0.2508;
591.6000;0.2304;0.2508;
591.9000;0.2304;0.2436;
592.2000;0.2385;0.2579;
592.5000;0.2320;0.2388;
592.8000;0.2312;0.2484;
593.1000;0.2312;0.2532;
593.4000;0.2312;0.2555;
593.7000;0.2304;0.2627;
594.0000;0.2320;0.2723;
594.3000;0.2304;0.2723;
594.6000;0.2328;0.2746;
594.9000;0.2304;0.2794;
595.2000;0.2312;0.2842;
595.5000;0.2263;0.2699;
595.8000;0.2312;0.2818;
596.1000;0.2336;0.2842;
596.4000;0.2312;0.2675;
596.7000;0.2312;0.2651;
597.0000;0.2304;0.2627;
597.3000;0.2377;0.2794;
597.6000;0.2304;0.2651;
597.9000;0.2304;0.2675;
598.2000;0.2312;0.2699;
598.5000;0.2336;0.2746;
598.8000;0.2320;0.2675;
599.1000;0.2320;0.2699;
599.4000;0.2295;0.2699;
599.7000;0.2312;0.2723;
600.0000;0.2287;0.2627;
600.3000;0.2369;0.2699;
600.6000;0.2295;0.2484;
600.9000;0.2287;0.2412;
601.2000;0.2328;0.2484;
601.5000;0.2271;0.2221;
601.8000;0.2304;0.2293;
602.1000;0.2320;0.2245;
602.4000;0.2312;0.2197;
602.7000;0.2320;0.2126;
603.0000;0.2312;0.1958;
603.3000;0.2312;0.1887;
603.6000;0.2328;0.1958;
603.9000;0.2336;0.1887;
604.2000;0.2295;0.1696;
604.5000;0.2320;0.1672;
604.8000;0.2312;0.1696;
605.1000;0.2304;0.1743;
605.4000;0.2328;0.1839;
605.7000;0.2320;0.1815;
606.0000;0.2312;0.1743;
606.3000;0.2336;0.1791;
606.6000;0.2328;0.1839;
606.9000;0.2263;0.1720;
607.2000;0.2344;0.1911;
607.5000;0.2344;0.1863;
607.8000;0.2344;0.1863;
608.1000;0.2352;0.1791;
608.4000;0.2304;0.1720;
608.7000;0.2369;0.1887;
609.0000;0.2377;0.1911;
609.3000;0.2336;0.1791;
609.6000;0.2328;0.1743;
609.9000;0.2328;0.1791;
610.2000;0.2344;0.1743;
610.5000;0.2287;0.1648;
610.8000;0.2263;0.1576;
611.1000;0.2336;0.1672;
611.4000;0.2304;0.1481;
611.7000;0.2352;0.1648;
612.0000;0.2320;0.1552;
612.3000;0.2312;0.1600;
612.6000;0.2255;0.1528;
612.9000;0.2320;0.1743;
613.2000;0.2369;0.1863;
613.5000;0.2320;0.1743;
613.8000;0.2344;0.1839;
614.1000;0.2336;0.1815;
614.4000;0.2328;0.1743;
614.7000;0.2304;0.1720;
615.0000;0.2328;0.1720;
615.3000;0.2328;0.1648;
615.6000;0.2336;0.1696;
615.9000;0.2312;0.1600;
616.2000;0.2336;0.1600;
616.5000;0.2312;0.1624;
616.8000;0.2336;0.1648;
617.1000;0.2304;0.1672;
617.4000;0.2312;0.1624;
617.7000;0.2352;0.1696;
618.0000;0.2344;0.1648;
618.3000;0.2295;0.1552;
618.6000;0.2312;0.1743;
618.9000;0.2336;0.1767;
619.2000;0.2287;0.1624;
619.5000;0.2369;0.1911;
619.8000;0.2336;0.1720;
620.1000;0.2328;0.1696;
620.4000;0.2328;0.1743;
620.7000;0.2320;0.1672;
621.0000;0.2312;0.1696;
621.3000;0.2320;0.1720;
621.6000;0.2320;0.1767;
621.9000;0.2304;0.1767;
622.2000;0.2320;0.1767;
622.5000;0.2336;0.1767;
622.8000;0.2336;0.1743;
623.1000;0.2328;0.1767;
623.4000;0.2320;0.1648;
623.7000;0.2320;0.1767;
624.0000;0.2295;0.1743;
624.3000;0.2336;0.1815;
624.6000;0.2328;0.1743;
624.9000;0.2320;0.1767;
625.2000;0.2336;0.1815;
625.5000;0.2328;0.1767;
625.8000;0.2409;0.1934;
626.1000;0.2312;0.1720;
626.4000;0.2271;0.1528;
626.7000;0.2320;0.1648;
627.0000;0.2328;0.1720;
627.3000;0.2328;0.1696;
627.6000;0.2352;0.1767;
627.9000;0.2320;0.1720;
628.2000;0.2352;0.1720;
628.5000;0.2328;0.1624;
628.8000;0.2336;0.1624;
629.1000;0.2312;0.1600;
629.4000;0.2328;0.1576;
629.7000;0.2328;0.1600;
630.0000;0.2312;0.1552;
630.3000;0.2312;0.1528;
630.6000;0.2352;0.1552;
630.9000;0.2328;0.1505;
631.2000;0.2320;0.1576;
631.5000;0.2320;0.1552;
631.8000;0.2328;0.1576;
632.1000;0.2344;0.1528;
632.4000;0.2320;0.1576;
632.7000;0.2320;0.1576;
633.0000;0.2239;0.1266;
633.3000;0.2320;0.1528;
633.6000;0.2352;0.1576;
633.9000;0.2336;0.1528;
634.2000;0.2352;0.1600;
634.5000;0.2352;0.1600;
634.8000;0.2328;0.1576;
635.1000;0.2369;0.1791;
635.4000;0.2336;0.1696;
635.7000;0.2320;0.1624;
636.0000;0.2426;0.1815;
636.3000;0.2361;0.1672;
636.6000;0.2344;0.1576;
636.9000;0.2328;0.1528;
637.2000;0.2328;0.1552;
637.5000;0.2336;0.1576;
637.8000;0.2393;0.1743;
638.1000;0.2312;0.1600;
638.4000;0.2352;0.1672;
638.7000;0.2328;0.1696;
639.0000;0.2344;0.1648;
639.3000;0.2377;0.1696;
639.6000;0.2336;0.1624;
639.9000;0.2336;0.1624;
640.2000;0.2328;0.1600;
640.5000;0.2336;0.1624;
640.8000;0.2328;0.1528;
641.1000;0.2361;0.1600;
641.4000;0.2312;0.1433;
641.7000;0.2320;0.1552;
642.0000;0.2352;0.1743;
642.3000;0.2312;0.1767;
642.6000;0.2328;0.1791;
642.9000;0.2312;0.1720;
643.2000;0.2328;0.1863;
643.5000;0.2328;0.1863;
643.8000;0.2312;0.1911;
644.1000;0.2328;0.1911;
644.4000;0.2295;0.1743;
644.7000;0.2352;0.1934;
645.0000;0.2344;0.1887;
645.3000;0.2344;0.1863;
645.6000;0.2328;0.1791;
645.9000;0.2352;0.1815;
646.2000;0.2344;0.1815;
646.5000;0.2344;0.1791;
646.8000;0.2328;0.1720;
647.1000;0.2336;0.1767;
647.4000;0.2304;0.1624;
647.7000;0.2320;0.1743;
648.0000;0.2336;0.1720;
648.3000;0.2328;0.1720;
648.6000;0.2312;0.1696;
648.9000;0.2320;0.1767;
649.2000;0.2336;0.1887;
649.5000;0.2336;0.1815;
649.8000;0.2352;0.1815;
650.1000;0.2328;0.1720;
650.4000;0.2190;0.1385;
650.7000;0.2328;0.1648;
651.0000;0.2352;0.1648;
651.3000;0.2312;0.1552;
651.6000;0.2328;0.1576;
651.9000;0.2230;0.1337;
652.2000;0.2361;0.1624;
652.5000;0.2344;0.1648;
652.8000;0.2328;0.1672;
653.1000;0.2328;0.1767;
653.4000;0.2344;0.1815;
653.7000;0.2344;0.1863;
654.0000;0.2344;0.1767;
654.3000;0.2328;0.1720;
654.6000;0.2352;0.1791;
654.9000;0.2295;0.1696;
655.2000;0.2320;0.1743;
655.5000;0.2369;0.1815;
655.8000;0.2377;0.1863;
656.1000;0.2336;0.1720;
656.4000;0.2385;0.1863;
656.7000;0.2377;0.1791;
657.0000;0.2320;0.1696;
657.3000;0.2328;0.1767;
657.6000;0.2336;0.1791;
657.9000;0.2361;0.1767;
658.2000;0.2361;0.1767;
658.5000;0.2361;0.1791;
658.8000;0.2328;0.1576;
659.1000;0.2393;0.1767;
659.4000;0.2401;0.1815;
659.7000;0.2385;0.1767;
660.0000;0.2320;0.1672;
660.3000;0.2344;0.1720;
660.6000;0.2344;0.1767;
660.9000;0.2336;0.1815;
661.2000;0.2344;0.1815;
661.5000;0.2328;0.1815;
661.8000;0.2336;0.1791;
662.1000;0.2320;0.1791;
662.4000;0.2328;0.1863;
662.7000;0.2344;0.1887;
663.0000;0.2320;0.1911;
663.3000;0.2336;0.1934;
663.6000;0.2328;0.1934;
663.9000;0.2344;0.1934;
664.2000;0.2336;0.1958;
664.5000;0.2320;0.1815;
664.8000;0.2352;0.1791;
665.1000;0.2352;0.1887;
665.4000;0.2369;0.1887;
665.7000;0.2336;0.1696;
666.0000;0.2320;0.1767;
666.3000;0.2393;0.1815;
666.6000;0.2344;0.1648;
666.9000;0.2336;0.1576;
667.2000;0.2328;0.1600;
667.5000;0.2352;0.1672;
667.8000;0.2320;0.1624;
668.1000;0.2239;0.1385;
668.4000;0.2352;0.1648;
668.7000;0.2336;0.1576;
669.0000;0.2361;0.1576;
669.3000;0.2320;0.1433;
669.6000;0.2328;0.1528;
669.9000;0.2344;0.1600;
670.2000;0.2344;0.1624;
670.5000;0.2328;0.1672;
670.8000;0.2336;0.1672;
671.1000;0.2352;0.1648;
671.4000;0.2361;0.1672;
671.7000;0.2328;0.1552;
672.0000;0.2328;0.1600;
672.3000;0.2304;0.1505;
672.6000;0.2344;0.1576;
672.9000;0.2352;0.1624;
673.2000;0.2320;0.1552;
673.5000;0.2361;0.1552;
673.8000;0.2344;0.1600;
674.1000;0.2361;0.1672;
674.4000;0.2466;0.1982;
674.7000;0.2328;0.1696;
675.0000;0.2344;0.1743;
675.3000;0.2352;0.1791;
675.6000;0.2361;0.1791;
675.9000;0.2344;0.1720;
676.2000;0.2344;0.1720;
676.5000;0.2336;0.1720;
676.8000;0.2393;0.1863;
677.1000;0.2385;0.1863;
677.4000;0.2352;0.1696;
677.7000;0.2361;0.1743;
678.0000;0.2336;0.1672;
678.3000;0.2393;0.1791;
678.6000;0.2344;0.1624;
678.9000;0.2312;0.1600;
679.2000;0.2304;0.1481;
679.5000;0.2336;0.1624;
679.8000;0.2336;0.1600;
680.1000;0.2344;0.1576;
680.4000;0.2320;0.1576;
680.7000;0.2393;0.1767;
681.0000;0.2352;0.1624;
681.3000;0.2336;0.1624;
681.6000;0.2344;0.1672;
681.9000;0.2352;0.1743;
682.2000;0.2458;0.2030;
682.5000;0.2320;0.1624;
682.8000;0.2352;0.1743;
683.1000;0.2352;0.1696;
683.4000;0.2352;0.1696;
683.7000;0.2344;0.1672;
684.0000;0.2344;0.1672;
684.3000;0.2214;0.1290;
684.6000;0.2328;0.1648;
684.9000;0.2344;0.1696;
685.2000;0.2344;0.1791;
685.5000;0.2336;0.1767;
685.8000;0.2336;0.1720;
686.1000;0.2304;0.1672;
686.4000;0.2312;0.1720;
686.7000;0.2352;0.1791;
687.0000;0.2352;0.1839;
687.3000;0.2328;0.1767;
687.6000;0.2336;0.1767;
687.9000;0.2328;0.1624;
688.2000;0.2336;0.1624;
688.5000;0.2336;0.1600;
688.8000;0.2328;0.1576;
689.1000;0.2344;0.1648;
689.4000;0.2352;0.1720;
689.7000;0.2336;0.1696;
690.0000;0.2361;0.1743;
690.3000;0.2442;0.1887;
690.6000;0.2336;0.1672;
690.9000;0.2344;0.1720;
691.2000;0.2344;0.1791;
691.5000;0.2344;0.1863;
691.8000;0.2352;0.1934;
692.1000;0.2385;0.2030;
692.4000;0.2361;0.2030;
692.7000;0.2344;0.1982;
693.0000;0.2352;0.1887;
693.3000;0.2336;0.1720;
693.6000;0.2352;0.1720;
693.9000;0.2328;0.1767;
694.2000;0.2344;0.1863;
694.5000;0.2255;0.1528;
694.8000;0.2344;0.1743;
695.1000;0.2336;0.1696;
695.4000;0.2385;0.1815;
695.7000;0.2344;0.1743;
696.0000;0.2361;0.1767;
696.3000;0.2328;0.1672;
696.6000;0.2361;0.1696;
696.9000;0.2344;0.1648;
697.2000;0.2328;0.1576;
697.5000;0.2328;0.1576;
697.8000;0.2328;0.1552;
698.1000;0.2336;0.1528;
698.4000;0.2352;0.1624;
698.7000;0.2352;0.1600;
699.0000;0.2336;0.1576;
699.3000;0.2336;0.1600;
699.6000;0.2312;0.1505;
699.9000;0.2401;0.1696;
700.2000;0.2328;0.1528;
700.5000;0.2328;0.1505;
700.8000;0.2352;0.1528;
701.1000;0.2336;0.1457;
701.4000;0.2344;0.1433;
701.7000;0.2320;0.1361;
702.0000;0.2320;0.1385;
702.3000;0.2328;0.1385;
702.6000;0.2336;0.1457;
702.9000;0.2312;0.1385;
703.2000;0.2320;0.1337;
703.5000;0.2344;0.1481;
703.8000;0.2328;0.1481;
704.1000;0.2320;0.1457;
704.4000;0.2361;0.1528;
704.7000;0.2344;0.1600;
705.0000;0.2304;0.1433;
705.3000;0.2336;0.1648;
705.6000;0.2336;0.1624;
705.9000;0.2344;0.1600;
706.2000;0.2304;0.1505;
706.5000;0.2336;0.1505;
706.8000;0.2336;0.1409;
707.1000;0.2361;0.1457;
707.4000;0.2344;0.1505;
707.7000;0.2336;0.1505;
708.0000;0.2295;0.1433;
708.3000;0.2336;0.1528;
708.6000;0.2312;0.1409;
708.9000;0.2344;0.1481;
709.2000;0.2344;0.1624;
709.5000;0.2328;0.1528;
709.8000;0.2361;0.1624;
710.1000;0.2287;0.1433;
710.4000;0.2344;0.1552;
710.7000;0.2328;0.1600;
711.0000;0.2352;0.1720;
711.3000;0.2418;0.1911;
711.6000;0.2369;0.1767;
711.9000;0.2344;0.1720;
712.2000;0.2320;0.1624;
712.5000;0.2352;0.1672;
712.8000;0.2304;0.1433;
713.1000;0.2320;0.1505;
713.4000;0.2328;0.1505;
713.7000;0.2361;0.1505;
714.0000;0.2352;0.1528;
714.3000;0.2344;0.1552;
714.6000;0.2328;0.1505;
714.9000;0.2320;0.1528;
715.2000;0.2344;0.1600;
715.5000;0.2328;0.1576;
715.8000;0.2393;0.1815;
716.1000;0.2361;0.1743;
716.4000;0.2352;0.1743;
716.7000;0.2361;0.1648;
717.0000;0.2385;0.1720;
717.3000;0.2344;0.1552;
717.6000;0.2418;0.1815;
717.9000;0.2344;0.1672;
718.2000;0.2320;0.1600;
718.5000;0.2344;0.1696;
718.8000;0.2336;0.1696;
719.1000;0.2352;0.1743;
719.4000;0.2336;0.1648;
719.7000;0.2352;0.1672;
720.0000;0.2369;0.1720;
720.3000;0.2352;0.1696;
720.6000;0.2344;0.1696;
720.9000;0.2352;0.1696;
721.2000;0.2369;0.1720;
721.5000;0.2401;0.1815;
721.8000;0.2344;0.1839;
722.1000;0.2361;0.1791;
722.4000;0.2336;0.1767;
722.7000;0.2344;0.1696;
723.0000;0.2434;0.1839;
723.3000;0.2312;0.1457;
723.6000;0.2328;0.1409;
723.9000;0.2328;0.1457;
724.2000;0.2320;0.1361;
724.5000;0.2344;0.1457;
724.8000;0.2352;0.1481;
725.1000;0.2344;0.1505;
725.4000;0.2344;0.1528;
725.7000;0.2344;0.1552;
726.0000;0.2344;0.1624;
726.3000;0.2336;0.1552;
726.6000;0.2352;0.1696;
726.9000;0.2328;0.1696;
727.2000;0.2491;0.2102;
727.5000;0.2377;0.1839;
727.8000;0.2352;0.1696;
728.1000;0.2320;0.1672;
728.4000;0.2344;0.1600;
728.7000;0.2401;0.1600;
729.0000;0.2328;0.1481;
729.3000;0.2352;0.1457;
729.6000;0.2393;0.1505;
729.9000;0.2328;0.1409;
730.2000;0.2328;0.1457;
730.5000;0.2320;0.1481;
730.8000;0.2239;0.1314;
731.1000;0.2344;0.1648;
731.4000;0.2352;0.1720;
731.7000;0.2336;0.1767;
732.0000;0.2361;0.1839;
732.3000;0.2344;0.1815;
732.6000;0.2328;0.1791;
732.9000;0.2336;0.1791;
733.2000;0.2312;0.1672;
733.5000;0.2344;0.1696;
733.8000;0.2336;0.1696;
734.1000;0.2385;0.1887;
734.4000;0.2344;0.1743;
734.7000;0.2328;0.1672;
735.0000;0.2328;0.1743;
735.3000;0.2279;0.1648;
735.6000;0.2352;0.1815;
735.9000;0.2320;0.1743;
736.2000;0.2361;0.1815;
736.5000;0.2352;0.1791;
736.8000;0.2336;0.1624;
737.1000;0.2336;0.1505;
737.4000;0.2344;0.1552;
737.7000;0.2336;0.1576;
738.0000;0.2352;0.1624;
738.3000;0.2369;0.1696;
738.6000;0.2328;0.1672;
738.9000;0.2328;0.1600;
739.2000;0.2336;0.1696;
739.5000;0.2320;0.1720;
739.8000;0.2328;0.1696;
740.1000;0.2320;0.1600;
740.4000;0.2352;0.1648;
740.7000;0.2344;0.1600;
741.0000;0.2344;0.1624;
741.3000;0.2361;0.1696;
741.6000;0.2336;0.1624;
741.9000;0.2336;0.1672;
742.2000;0.2361;0.1815;
742.5000;0.2287;0.1576;
742.8000;0.2361;0.1696;
743.1000;0.2344;0.1720;
743.4000;0.2352;0.1767;
743.7000;0.2352;0.1863;
744.0000;0.2344;0.1791;
744.3000;0.2352;0.1720;
744.6000;0.2361;0.1672;
744.9000;0.2336;0.1672;
745.2000;0.2344;0.1743;
745.5000;0.2344;0.1743;
745.8000;0.2344;0.1648;
746.1000;0.2369;0.1624;
746.4000;0.2344;0.1720;
746.7000;0.2336;0.1648;
747.0000;0.2328;0.1624;
747.3000;0.2336;0.1672;
747.6000;0.2336;0.1767;
747.9000;0.2336;0.1791;
748.2000;0.2352;0.1863;
748.5000;0.2336;0.1887;
748.8000;0.2279;0.1696;
749.1000;0.2328;0.1839;
749.4000;0.2344;0.1791;
749.7000;0.2312;0.1696;
750.0000;0.2352;0.1767;
750.3000;0.2336;0.1648;
750.6000;0.2328;0.1743;
750.9000;0.2466;0.2078;
751.2000;0.2287;0.1648;
751.5000;0.2320;0.1743;
751.8000;0.2361;0.1815;
752.1000;0.2361;0.1863;
752.4000;0.2344;0.1791;
752.7000;0.2344;0.1767;
753.0000;0.2352;0.1720;
753.3000;0.2344;0.1743;
753.6000;0.2352;0.1672;
753.9000;0.2352;0.1791;
754.2000;0.2361;0.1815;
754.5000;0.2328;0.1743;
754.8000;0.2344;0.1839;
755.1000;0.2336;0.1767;
755.4000;0.2328;0.1815;
755.7000;0.2344;0.1863;
756.0000;0.2336;0.1791;
756.3000;0.2352;0.1791;
756.6000;0.2352;0.1743;
756.9000;0.2352;0.1743;
757.2000;0.2352;0.1767;
757.5000;0.2352;0.1791;
757.8000;0.2344;0.1815;
758.1000;0.2361;0.1887;
758.4000;0.2344;0.1839;
758.7000;0.2312;0.1767;
759.0000;0.2352;0.1815;
759.3000;0.2328;0.1743;
759.6000;0.2328;0.1743;
759.9000;0.2328;0.1672;
760.2000;0.2336;0.1600;
760.5000;0.2336;0.1600;
760.8000;0.2336;0.1552;
761.1000;0.2352;0.1576;
761.4000;0.2320;0.1576;
761.7000;0.2328;0.1648;
762.0000;0.2344;0.1815;
762.3000;0.2328;0.1767;
762.6000;0.2369;0.1791;
762.9000;0.2361;0.1815;
763.2000;0.2344;0.1815;
763.5000;0.2336;0.1863;
763.8000;0.2344;0.1934;
764.1000;0.2336;0.1839;
764.4000;0.2352;0.1839;
764.7000;0.2336;0.1791;
765.0000;0.2352;0.1767;
765.3000;0.2336;0.1743;
765.6000;0.2369;0.1743;
765.9000;0.2361;0.1791;
766.2000;0.2352;0.1839;
766.5000;0.2369;0.1982;
766.8000;0.2361;0.1934;
767.1000;0.2344;0.1958;
767.4000;0.2361;0.1863;
767.7000;0.2352;0.1815;
768.0000;0.2328;0.1839;
768.3000;0.2344;0.1863;
768.6000;0.2361;0.1767;
768.9000;0.2352;0.1743;
769.2000;0.2336;0.1696;
769.5000;0.2320;0.1648;
769.8000;0.2344;0.1672;
770.1000;0.2336;0.1624;
770.4000;0.2336;0.1648;
770.7000;0.2352;0.1672;
771.0000;0.2361;0.1767;
771.3000;0.2336;0.1791;
771.6000;0.2336;0.1743;
771.9000;0.2336;0.1720;
772.2000;0.2352;0.1743;
772.5000;0.2328;0.1696;
772.8000;0.2361;0.1791;
773.1000;0.2401;0.1863;
773.4000;0.2361;0.1743;
773.7000;0.2352;0.1672;
774.0000;0.2361;0.1720;
774.3000;0.2409;0.1863;
774.6000;0.2198;0.1337;
774.9000;0.2344;0.1767;
775.2000;0.2263;0.1528;
775.5000;0.2344;0.1696;
775.8000;0.2328;0.1672;
776.1000;0.2352;0.1767;
776.4000;0.2426;0.2006;
776.7000;0.2336;0.1720;
777.0000;0.2434;0.1887;
777.3000;0.2361;0.1648;
777.6000;0.2336;0.1672;
777.9000;0.2361;0.1767;
778.2000;0.2352;0.1672;
778.5000;0.2328;0.1648;
778.8000;0.2336;0.1672;
779.1000;0.2344;0.1672;
779.4000;0.2320;0.1552;
779.7000;0.2344;0.1648;
780.0000;0.2287;0.1552;
780.3000;0.2320;0.1648;
780.6000;0.2336;0.1743;
780.9000;0.2344;0.1767;
781.2000;0.2336;0.1720;
781.5000;0.2328;0.1600;
781.8000;0.2344;0.1624;
782.1000;0.2361;0.1696;
782.4000;0.2409;0.1696;
782.7000;0.2377;0.1600;
783.0000;0.2336;0.1528;
783.3000;0.2328;0.1600;
783.6000;0.2352;0.1672;
783.9000;0.2328;0.1624;
784.2000;0.2385;0.1791;
784.5000;0.2377;0.1696;
784.8000;0.2247;0.1385;
785.1000;0.2328;0.1528;
785.4000;0.2361;0.1624;
785.7000;0.2369;0.1672;
786.0000;0.2344;0.1600;
786.3000;0.2336;0.1600;
786.6000;0.2312;0.1481;
786.9000;0.2344;0.1505;
787.2000;0.2344;0.1481;
787.5000;0.2328;0.1505;
787.8000;0.2369;0.1576;
788.1000;0.2361;0.1576;
788.4000;0.2377;0.1576;
788.7000;0.2377;0.1528;
789.0000;0.2369;0.1528;
789.3000;0.2352;0.1552;
789.6000;0.2328;0.1481;
789.9000;0.2344;0.1576;
790.2000;0.2328;0.1552;
790.5000;0.2377;0.1576;
790.8000;0.2336;0.1505;
791.1000;0.2328;0.1505;
791.4000;0.2361;0.1552;
791.7000;0.2352;0.1505;
792.0000;0.2369;0.1648;
792.3000;0.2352;0.1576;
792.6000;0.2361;0.1672;
792.9000;0.2312;0.1528;
793.2000;0.2344;0.1600;
793.5000;0.2352;0.1600;
793.8000;0.2361;0.1528;
794.1000;0.2336;0.1552;
794.4000;0.2304;0.1576;
794.7000;0.2336;0.1720;
795.0000;0.2377;0.1791;
795.3000;0.2344;0.1743;
795.6000;0.2328;0.1648;
795.9000;0.2328;0.1743;
796.2000;0.2336;0.1767;
796.5000;0.2336;0.1743;
796.8000;0.2352;0.1624;
797.1000;0.2352;0.1576;
797.4000;0.2304;0.1385;
797.7000;0.2279;0.1290;
798.0000;0.2352;0.1481;
798.3000;0.2369;0.1528;
798.6000;0.2344;0.1552;
798.9000;0.2344;0.1600;
799.2000;0.2328;0.1552;
799.5000;0.2361;0.1600;
799.8000;0.2344;0.1600;
800.1000;0.2385;0.1696;
800.4000;0.2352;0.1624;
800.7000;0.2361;0.1552;
801.0000;0.2352;0.1576;
801.3000;0.2320;0.1409;
801.6000;0.2352;0.1457;
801.9000;0.2352;0.1433;
802.2000;0.2344;0.1361;
802.5000;0.2344;0.1361;
802.8000;0.2369;0.1337;
803.1000;0.2393;0.1409;
803.4000;0.2385;0.1337;
803.7000;0.2344;0.1170;
804.0000;0.2344;0.1290;
804.3000;0.2352;0.1314;
804.6000;0.2361;0.1290;
804.9000;0.2377;0.1242;
805.2000;0.2263;0.0836;
805.5000;0.2393;0.1194;
805.8000;0.2336;0.1122;
806.1000;0.2279;0.1075;
806.4000;0.2279;0.1146;
806.7000;0.2295;0.1194;
807.0000;0.2344;0.1314;
807.3000;0.2352;0.1266;
807.6000;0.2361;0.1361;
807.9000;0.2352;0.1290;
808.2000;0.2320;0.1242;
808.5000;0.2247;0.1003;
808.8000;0.2352;0.1218;
809.1000;0.2361;0.1314;
809.4000;0.2352;0.1314;
809.7000;0.2352;0.1242;
810.0000;0.2352;0.1194;
810.3000;0.2352;0.1194;
810.6000;0.2304;0.1075;
810.9000;0.2352;0.1170;
811.2000;0.2352;0.1170;
811.5000;0.2328;0.1146;
811.8000;0.2336;0.1170;
812.1000;0.2344;0.1099;
812.4000;0.2344;0.1051;
812.7000;0.2336;0.1122;
813.0000;0.2344;0.1122;
813.3000;0.2344;0.1170;
813.6000;0.2361;0.1170;
813.9000;0.2361;0.1242;
814.2000;0.2344;0.1266;
814.5000;0.2352;0.1385;
814.8000;0.2426;0.1624;
815.1000;0.2352;0.1385;
815.4000;0.2328;0.1361;
815.7000;0.2344;0.1457;
816.0000;0.2352;0.1481;
816.3000;0.2352;0.1528;
816.6000;0.2361;0.1528;
816.9000;0.2344;0.1433;
817.2000;0.2336;0.1457;
817.5000;0.2344;0.1528;
817.8000;0.2328;0.1505;
818.1000;0.2352;0.1624;
818.4000;0.2377;0.1696;
818.7000;0.2344;0.1720;
819.0000;0.2279;0.1433;
819.3000;0.2328;0.1576;
819.6000;0.2352;0.1600;
819.9000;0.2344;0.1576;
820.2000;0.2352;0.1672;
820.5000;0.2361;0.1743;
820.8000;0.2336;0.1600;
821.1000;0.2344;0.1600;
821.4000;0.2312;0.1552;
821.7000;0.2320;0.1505;
822.0000;0.2344;0.1576;
822.3000;0.2361;0.1672;
822.6000;0.2352;0.1600;
822.9000;0.2312;0.1505;
823.2000;0.2336;0.1528;
823.5000;0.2385;0.1648;
823.8000;0.2352;0.1576;
824.1000;0.2328;0.1505;
824.4000;0.2361;0.1600;
824.7000;0.2320;0.1576;
825.0000;0.2352;0.1672;
825.3000;0.2344;0.1720;
825.6000;0.2328;0.1576;
825.9000;0.2352;0.1672;
826.2000;0.2344;0.1624;
826.5000;0.2336;0.1600;
826.8000;0.2328;0.1576;
827.1000;0.2369;0.1672;
827.4000;0.2401;0.1839;
827.7000;0.2352;0.1720;
828.0000;0.2361;0.1767;
828.3000;0.2328;0.1624;
828.6000;0.2361;0.1720;
828.9000;0.2336;0.1696;
829.2000;0.2320;0.1600;
829.5000;0.2312;0.1624;
829.8000;0.2352;0.1696;
830.1000;0.2312;0.1576;
830.4000;0.2344;0.1648;
830.7000;0.2369;0.1791;
831.0000;0.2352;0.1863;
831.3000;0.2312;0.1720;
831.6000;0.2344;0.1720;
831.9000;0.2344;0.1720;
832.2000;0.2344;0.1720;
832.5000;0.2328;0.1720;
832.8000;0.2361;0.1791;
833.1000;0.2369;0.1791;
833.4000;0.2336;0.1576;
833.7000;0.2369;0.1648;
834.0000;0.2336;0.1743;
834.3000;0.2328;0.1767;
834.6000;0.2352;0.1767;
834.9000;0.2361;0.1863;
835.2000;0.2336;0.1791;
835.5000;0.2344;0.1839;
835.8000;0.2352;0.1743;
836.1000;0.2352;0.1720;
836.4000;0.2377;0.1791;
836.7000;0.2352;0.1743;
837.0000;0.2377;0.1815;
837.3000;0.2344;0.1863;
837.6000;0.2344;0.1911;
837.9000;0.2336;0.1839;
838.2000;0.2344;0.1887;
838.5000;0.2401;0.2006;
838.8000;0.2336;0.1958;
839.1000;0.2352;0.1934;
839.4000;0.2344;0.1934;
839.7000;0.2336;0.1958;
840.0000;0.2352;0.1982;
840.3000;0.2361;0.2078;
840.6000;0.2352;0.1982;
840.9000;0.2361;0.1958;
841.2000;0.2344;0.1863;
841.5000;0.2320;0.1791;
841.8000;0.2344;0.1839;
842.1000;0.2295;0.1720;
842.4000;0.2279;0.1672;
842.7000;0.2352;0.1934;
843.0000;0.2352;0.1815;
843.3000;0.2320;0.1624;
843.6000;0.2361;0.1648;
843.9000;0.2352;0.1720;
844.2000;0.2361;0.1624;
844.5000;0.2312;0.1385;
844.8000;0.2336;0.1409;
845.1000;0.2352;0.1600;
845.4000;0.2369;0.1576;
845.7000;0.2352;0.1648;
846.0000;0.2393;0.1743;
846.3000;0.2369;0.1672;
846.6000;0.2369;0.1720;
846.9000;0.2361;0.1767;
847.2000;0.2320;0.1624;
847.5000;0.2344;0.1648;
847.8000;0.2352;0.1720;
848.1000;0.2271;0.1481;
848.4000;0.2344;0.1696;
848.7000;0.2352;0.1696;
849.0000;0.2344;0.1648;
849.3000;0.2361;0.1696;
849.6000;0.2377;0.1600;
849.9000;0.2352;0.1505;
850.2000;0.2361;0.1528;
850.5000;0.2352;0.1552;
850.8000;0.2352;0.1552;
851.1000;0.2361;0.1600;
851.4000;0.2369;0.1672;
851.7000;0.2361;0.1624;
852.0000;0.2352;0.1576;
852.3000;0.2344;0.1624;
852.6000;0.2352;0.1600;
852.9000;0.2328;0.1576;
853.2000;0.2352;0.1624;
853.5000;0.2222;0.1385;
853.8000;0.2336;0.1648;
854.1000;0.2336;0.1672;
854.4000;0.2352;0.1672;
854.7000;0.2352;0.1648;
855.0000;0.2336;0.1624;
855.3000;0.2361;0.1767;
855.6000;0.2361;0.1624;
855.9000;0.2352;0.1648;
856.2000;0.2328;0.1648;
856.5000;0.2377;0.1743;
856.8000;0.2352;0.1672;
857.1000;0.2361;0.1672;
857.4000;0.2361;0.1696;
857.7000;0.2352;0.1648;
858.0000;0.2352;0.1672;
858.3000;0.2336;0.1696;
858.6000;0.2328;0.1600;
858.9000;0.2344;0.1481;
859.2000;0.2336;0.1457;
859.5000;0.2352;0.1528;
859.8000;0.2344;0.1505;
860.1000;0.2312;0.1457;
860.4000;0.2312;0.1457;
860.7000;0.2344;0.1481;
861.0000;0.2361;0.1505;
861.3000;0.2344;0.1433;
861.6000;0.2214;0.1194;
861.9000;0.2344;0.1552;
862.2000;0.2352;0.1505;
862.5000;0.2304;0.1314;
862.8000;0.2336;0.1433;
863.1000;0.2328;0.1433;
863.4000;0.2361;0.1505;
863.7000;0.2344;0.1457;
864.0000;0.2385;0.1648;
864.3000;0.2352;0.1481;
864.6000;0.2336;0.1481;
864.9000;0.2328;0.1409;
865.2000;0.2344;0.1409;
865.5000;0.2352;0.1505;
865.8000;0.2344;0.1552;
866.1000;0.2393;0.1624;
866.4000;0.2328;0.1314;
866.7000;0.2361;0.1409;
867.0000;0.2385;0.1481;
867.3000;0.2344;0.1314;
867.6000;0.2352;0.1314;
867.9000;0.2352;0.1385;
868.2000;0.2336;0.1361;
868.5000;0.2361;0.1385;
868.8000;0.2352;0.1361;
869.1000;0.2295;0.1290;
869.4000;0.2352;0.1337;
869.7000;0.2361;0.1361;
870.0000;0.2393;0.1576;
870.3000;0.2352;0.1505;
870.6000;0.2344;0.1552;
870.9000;0.2369;0.1576;
871.2000;0.2344;0.1576;
871.5000;0.2312;0.1457;
871.8000;0.2352;0.1576;
872.1000;0.2344;0.1457;
872.4000;0.2369;0.1481;
872.7000;0.2352;0.1433;
873.0000;0.2336;0.1385;
873.3000;0.2336;0.1361;
873.6000;0.2287;0.1146;
873.9000;0.2369;0.1409;
874.2000;0.2336;0.1385;
874.5000;0.2247;0.1194;
874.8000;0.2369;0.1528;
875.1000;0.2328;0.1505;
875.4000;0.2344;0.1576;
875.7000;0.2377;0.1552;
876.0000;0.2361;0.1528;
876.3000;0.2352;0.1528;
876.6000;0.2426;0.1743;
876.9000;0.2352;0.1528;
877.2000;0.2361;0.1648;
877.5000;0.2369;0.1600;
877.8000;0.2344;0.1672;
878.1000;0.2344;0.1648;
878.4000;0.2344;0.1576;
878.7000;0.2385;0.1624;
879.0000;0.2328;0.1409;
879.3000;0.2369;0.1481;
879.6000;0.2369;0.1528;
879.9000;0.2361;0.1552;
880.2000;0.2336;0.1600;
880.5000;0.2320;0.1505;
880.8000;0.2361;0.1600;
881.1000;0.2361;0.1600;
881.4000;0.2377;0.1576;
881.7000;0.2344;0.1505;
882.0000;0.2344;0.1409;
882.3000;0.2385;0.1457;
882.6000;0.2352;0.1361;
882.9000;0.2344;0.1385;
883.2000;0.2352;0.1385;
883.5000;0.2377;0.1481;
883.8000;0.2304;0.1314;
884.1000;0.2344;0.1433;
884.4000;0.2336;0.1505;
884.7000;0.2344;0.1528;
885.0000;0.2352;0.1552;
885.3000;0.2369;0.1528;
885.6000;0.2361;0.1409;
885.9000;0.2352;0.1409;
886.2000;0.2377;0.1528;
886.5000;0.2352;0.1409;
886.8000;0.2344;0.1433;
887.1000;0.2361;0.1505;
887.4000;0.2361;0.1505;
887.7000;0.2352;0.1457;
888.0000;0.2344;0.1528;
888.3000;0.2344;0.1576;
888.6000;0.2369;0.1624;
888.9000;0.2361;0.1576;
889.2000;0.2320;0.1433;
889.5000;0.2336;0.1481;
889.8000;0.2352;0.1457;
890.1000;0.2336;0.1409;
890.4000;0.2295;0.1290;
890.7000;0.2344;0.1552;
891.0000;0.2328;0.1505;
891.3000;0.2361;0.1552;
891.6000;0.2369;0.1672;
891.9000;0.2344;0.1552;
892.2000;0.2369;0.1528;
892.5000;0.2369;0.1528;
892.8000;0.2361;0.1481;
893.1000;0.2361;0.1505;
893.4000;0.2336;0.1361;
893.7000;0.2352;0.1409;
894.0000;0.2328;0.1361;
894.3000;0.2352;0.1409;
894.6000;0.2344;0.1409;
894.9000;0.2336;0.1433;
895.2000;0.2344;0.1385;
895.5000;0.2352;0.1409;
895.8000;0.2344;0.1361;
896.1000;0.2352;0.1409;
896.4000;0.2352;0.1433;
896.7000;0.2344;0.1409;
897.0000;0.2361;0.1409;
897.3000;0.2409;0.1624;
897.6000;0.2312;0.1481;
897.9000;0.2369;0.1624;
898.2000;0.2336;0.1457;
898.5000;0.2304;0.1290;
898.8000;0.2344;0.1457;
899.1000;0.2344;0.1433;
899.4000;0.2418;0.1624;
899.7000;0.2328;0.1505;
900.0000;0.2336;0.1552;
900.3000;0.2352;0.1576;
900.6000;0.2336;0.1528;
900.9000;0.2336;0.1505;
901.2000;0.2320;0.1481;
901.5000;0.2222;0.1242;
901.8000;0.2361;0.1576;
902.1000;0.2312;0.1385;
902.4000;0.2320;0.1409;
902.7000;0.2336;0.1433;
903.0000;0.2344;0.1481;
903.3000;0.2352;0.1505;
903.6000;0.2328;0.1409;
903.9000;0.2344;0.1409;
904.2000;0.2385;0.1433;
904.5000;0.2344;0.1385;
904.8000;0.2344;0.1337;
905.1000;0.2344;0.1337;
905.4000;0.2377;0.1409;
905.7000;0.2361;0.1361;
906.0000;0.2426;0.1600;
906.3000;0.2418;0.1600;
906.6000;0.2369;0.1385;
906.9000;0.2336;0.1457;
907.2000;0.2361;0.1505;
907.5000;0.2352;0.1505;
907.8000;0.2361;0.1481;
908.1000;0.2352;0.1505;
908.4000;0.2320;0.1385;
908.7000;0.2344;0.1481;
909.0000;0.2369;0.1528;
909.3000;0.2344;0.1481;
909.6000;0.2352;0.1457;
909.9000;0.2328;0.1361;
910.2000;0.2336;0.1314;
910.5000;0.2344;0.1409;
910.8000;0.2352;0.1409;
911.1000;0.2344;0.1385;
911.4000;0.2336;0.1361;
911.7000;0.2369;0.1457;
912.0000;0.2426;0.1552;
912.3000;0.2320;0.1409;
912.6000;0.2352;0.1600;
912.9000;0.2450;0.1791;
913.2000;0.2352;0.1481;
913.5000;0.2352;0.1481;
913.8000;0.2344;0.1433;
914.1000;0.2352;0.1600;
914.4000;0.2361;0.1624;
914.7000;0.2344;0.1552;
915.0000;0.2377;0.1648;
915.3000;0.2361;0.1624;
915.6000;0.2361;0.1648;
915.9000;0.2352;0.1696;
916.2000;0.2369;0.1696;
916.5000;0.2336;0.1552;
916.8000;0.2361;0.1600;
917.1000;0.2344;0.1648;
917.4000;0.2409;0.1839;
917.7000;0.2344;0.1576;
918.0000;0.2361;0.1552;
918.3000;0.2344;0.1528;
918.6000;0.2344;0.1528;
918.9000;0.2320;0.1457;
919.2000;0.2344;0.1552;
919.5000;0.2369;0.1720;
919.8000;0.2336;0.1672;
920.1000;0.2344;0.1600;
920.4000;0.2336;0.1624;
920.7000;0.2369;0.1624;
921.0000;0.2377;0.1528;
921.3000;0.2344;0.1457;
921.6000;0.2352;0.1528;
921.9000;0.2336;0.1481;
922.2000;0.2352;0.1552;
922.5000;0.2385;0.1672;
922.8000;0.2344;0.1552;
923.1000;0.2336;0.1552;
923.4000;0.2328;0.1481;
923.7000;0.2344;0.1528;
924.0000;0.2336;0.1505;
924.3000;0.2361;0.1552;
924.6000;0.2352;0.1457;
924.9000;0.2336;0.1409;
925.2000;0.2352;0.1576;
925.5000;0.2361;0.1505;
925.8000;0.2352;0.1528;
926.1000;0.2320;0.1528;
926.4000;0.2369;0.1648;
926.7000;0.2344;0.1576;
927.0000;0.2352;0.1576;
927.3000;0.2369;0.1600;
927.6000;0.2361;0.1576;
927.9000;0.2361;0.1552;
928.2000;0.2361;0.1528;
928.5000;0.2247;0.1314;
928.8000;0.2344;0.1672;
929.1000;0.2344;0.1672;
929.4000;0.2336;0.1672;
929.7000;0.2344;0.1720;
930.0000;0.2336;0.1720;
930.3000;0.2328;0.1720;
930.6000;0.2287;0.1576;
930.9000;0.2255;0.1505;
931.2000;0.2352;0.1767;
931.5000;0.2336;0.1672;
931.8000;0.2336;0.1696;
932.1000;0.2312;0.1600;
932.4000;0.2361;0.1720;
932.7000;0.2352;0.1648;
933.0000;0.2328;0.1576;
933.3000;0.2336;0.1528;
933.6000;0.2361;0.1528;
933.9000;0.2287;0.1242;
934.2000;0.2320;0.1433;
934.5000;0.2344;0.1457;
934.8000;0.2344;0.1409;
935.1000;0.2336;0.1361;
935.4000;0.2352;0.1385;
935.7000;0.2344;0.1361;
936.0000;0.2361;0.1385;
936.3000;0.2361;0.1361;
936.6000;0.2255;0.1146;
936.9000;0.2336;0.1385;
937.2000;0.2361;0.1409;
937.5000;0.2344;0.1314;
937.8000;0.2361;0.1361;
938.1000;0.2385;0.1433;
938.4000;0.2304;0.1290;
938.7000;0.2369;0.1505;
939.0000;0.2239;0.1290;
939.3000;0.2361;0.1624;
939.6000;0.2369;0.1648;
939.9000;0.2361;0.1648;
940.2000;0.2336;0.1552;
940.5000;0.2361;0.1624;
940.8000;0.2336;0.1481;
941.1000;0.2336;0.1576;
941.4000;0.2361;0.1696;
941.7000;0.2344;0.1600;
942.0000;0.2328;0.1552;
942.3000;0.2361;0.1576;
942.6000;0.2352;0.1505;
942.9000;0.2361;0.1457;
943.2000;0.2336;0.1409;
943.5000;0.2361;0.1409;
943.8000;0.2352;0.1337;
944.1000;0.2352;0.1409;
944.4000;0.2361;0.1409;
944.7000;0.2385;0.1457;
945.0000;0.2361;0.1385;
945.3000;0.2361;0.1481;
945.6000;0.2352;0.1433;
945.9000;0.2344;0.1457;
946.2000;0.2361;0.1528;
946.5000;0.2328;0.1457;
946.8000;0.2361;0.1624;
947.1000;0.2336;0.1505;
947.4000;0.2369;0.1576;
947.7000;0.2361;0.1552;
948.0000;0.2352;0.1528;
948.3000;0.2304;0.1314;
948.6000;0.2369;0.1624;
948.9000;0.2369;0.1720;
949.2000;0.2361;0.1672;
949.5000;0.2352;0.1600;
949.8000;0.2409;0.1767;
950.1000;0.2361;0.1600;
950.4000;0.2352;0.1600;
950.7000;0.2352;0.1672;
951.0000;0.2344;0.1600;
951.3000;0.2352;0.1600;
951.6000;0.2352;0.1600;
951.9000;0.2475;0.1958;
952.2000;0.2361;0.1696;
952.5000;0.2328;0.1576;
952.8000;0.2344;0.1624;
953.1000;0.2336;0.1600;
953.4000;0.2361;0.1696;
953.7000;0.2344;0.1743;
954.0000;0.2361;0.1743;
954.3000;0.2328;0.1648;
954.6000;0.2336;0.1696;
954.9000;0.2320;0.1648;
955.2000;0.2344;0.1624;
955.5000;0.2369;0.1672;
955.8000;0.2336;0.1481;
956.1000;0.2377;0.1600;
956.4000;0.2361;0.1576;
956.7000;0.2344;0.1576;
957.0000;0.2304;0.1552;
957.3000;0.2336;0.1672;
957.6000;0.2352;0.1815;
957.9000;0.2328;0.1672;
958.2000;0.2271;0.1624;
958.5000;0.2344;0.1743;
958.8000;0.2369;0.1791;
959.1000;0.2304;0.1600;
959.4000;0.2279;0.1457;
959.7000;0.2320;0.1576;
960.0000;0.2361;0.1648;
960.3000;0.2377;0.1672;
960.6000;0.2361;0.1624;
960.9000;0.2344;0.1576;
961.2000;0.2418;0.1696;
961.5000;0.2344;0.1528;
961.8000;0.2344;0.1624;
962.1000;0.2344;0.1624;
962.4000;0.2385;0.1815;
962.7000;0.2352;0.1767;
963.0000;0.2369;0.1743;
963.3000;0.2344;0.1672;
963.6000;0.2344;0.1624;
963.9000;0.2361;0.1672;
964.2000;0.2287;0.1433;
964.5000;0.2377;0.1648;
964.8000;0.2344;0.1624;
965.1000;0.2352;0.1648;
965.4000;0.2361;0.1696;
965.7000;0.2369;0.1696;
966.0000;0.2369;0.1767;
966.3000;0.2361;0.1743;
966.6000;0.2336;0.1696;
966.9000;0.2336;0.1696;
967.2000;0.2361;0.1720;
967.5000;0.2393;0.1839;
967.8000;0.2336;0.1696;
968.1000;0.2352;0.1791;
968.4000;0.2369;0.1863;
968.7000;0.2361;0.1839;
969.0000;0.2352;0.1720;
969.3000;0.2344;0.1743;
969.6000;0.2352;0.1767;
969.9000;0.2352;0.1696;
970.2000;0.2434;0.1911;
970.5000;0.2369;0.1720;
970.8000;0.2344;0.1720;
971.1000;0.2352;0.1743;
971.4000;0.2328;0.1600;
971.7000;0.2361;0.1576;
972.0000;0.2385;0.1600;
972.3000;0.2418;0.1696;
972.6000;0.2320;0.1576;
972.9000;0.2361;0.1720;
973.2000;0.2369;0.1672;
973.5000;0.2369;0.1648;
973.8000;0.2344;0.1600;
974.1000;0.2361;0.1528;
974.4000;0.2295;0.1385;
974.7000;0.2328;0.1457;
975.0000;0.2344;0.1576;
975.3000;0.2393;0.1672;
975.6000;0.2361;0.1552;
975.9000;0.2344;0.1600;
976.2000;0.2336;0.1576;
976.5000;0.2344;0.1648;
976.8000;0.2361;0.1696;
977.1000;0.2320;0.1600;
977.4000;0.2304;0.1576;
977.7000;0.2336;0.1552;
978.0000;0.2361;0.1600;
978.3000;0.2361;0.1600;
978.6000;0.2385;0.1624;
978.9000;0.2426;0.1720;
979.2000;0.2352;0.1505;
979.5000;0.2336;0.1457;
979.8000;0.2361;0.1576;
980.1000;0.2336;0.1481;
980.4000;0.2352;0.1648;
980.7000;0.2369;0.1600;
981.0000;0.2344;0.1552;
981.3000;0.2336;0.1552;
981.6000;0.2328;0.1552;
981.9000;0.2361;0.1624;
982.2000;0.2361;0.1648;
982.5000;0.2328;0.1624;
982.8000;0.2352;0.1720;
983.1000;0.2377;0.1743;
983.4000;0.2352;0.1743;
983.7000;0.2361;0.1672;
984.0000;0.2344;0.1648;
984.3000;0.2344;0.1648;
984.6000;0.2344;0.1624;
984.9000;0.2361;0.1648;
985.2000;0.2336;0.1552;
985.5000;0.2336;0.1481;
985.8000;0.2361;0.1576;
986.1000;0.2352;0.1696;
986.4000;0.2361;0.1696;
986.7000;0.2328;0.1672;
987.0000;0.2344;0.1672;
987.3000;0.2328;0.1576;
987.6000;0.2377;0.1696;
987.9000;0.2369;0.1696;
988.2000;0.2344;0.1696;
988.5000;0.2352;0.1672;
988.8000;0.2361;0.1767;
989.1000;0.2377;0.1791;
989.4000;0.2344;0.1720;
989.7000;0.2361;0.1791;
990.0000;0.2361;0.1791;
990.3000;0.2344;0.1720;
990.6000;0.2352;0.1648;
990.9000;0.2361;0.1696;
991.2000;0.2352;0.1696;
991.5000;0.2352;0.1743;
991.8000;0.2352;0.1672;
992.1000;0.2352;0.1743;
992.4000;0.2361;0.1720;
992.7000;0.2361;0.1839;
993.0000;0.2336;0.1743;
993.3000;0.2369;0.1743;
993.6000;0.2352;0.1696;
993.9000;0.2393;0.1648;
994.2000;0.2336;0.1505;
994.5000;0.2344;0.1552;
994.8000;0.2385;0.1696;
995.1000;0.2352;0.1648;
995.4000;0.2361;0.1720;
995.7000;0.2295;0.1528;
996.0000;0.2369;0.1720;
996.3000;0.2361;0.1791;
996.6000;0.2344;0.1743;
996.9000;0.2344;0.1672;
997.2000;0.2352;0.1696;
997.5000;0.2344;0.1672;
997.8000;0.2344;0.1648;
998.1000;0.2352;0.1696;
998.4000;0.2352;0.1696;
998.7000;0.2361;0.1696;
999.0000;0.2352;0.1720;
999.3000;0.2344;0.1743;
999.6000;0.2377;0.1791;
999.9000;0.2369;0.1720;
1000.2000;0.2352;0.1696;
1000.5000;0.2336;0.1576;
1000.8000;0.2352;0.1576;
1001.1000;0.2344;0.1648;
1001.4000;0.2361;0.1600;
1001.7000;0.2361;0.1576;
1002.0000;0.2336;0.1576;
1002.3000;0.2344;0.1600;
1002.6000;0.2369;0.1648;
1002.9000;0.2344;0.1696;
1003.2000;0.2336;0.1648;
1003.5000;0.2344;0.1624;
1003.8000;0.2344;0.1576;
1004.1000;0.2352;0.1576;
1004.4000;0.2409;0.1743;
1004.7000;0.2361;0.1600;
1005.0000;0.2352;0.1648;
1005.3000;0.2352;0.1648;
1005.6000;0.2336;0.1672;
1005.9000;0.2312;0.1505;
1006.2000;0.2352;0.1648;
1006.5000;0.2361;0.1672;
1006.8000;0.2344;0.1624;
1007.1000;0.2352;0.1576;
1007.4000;0.2369;0.1600;
1007.7000;0.2369;0.1624;
1008.0000;0.2369;0.1696;
1008.3000;0.2344;0.1624;
1008.6000;0.2336;0.1528;
1008.9000;0.2369;0.1481;
1009.2000;0.2450;0.1648;
1009.5000;0.2369;0.1481;
1009.8000;0.2361;0.1505;
1010.1000;0.2369;0.1481;
1010.4000;0.2361;0.1481;
1010.7000;0.2352;0.1528;
1011.0000;0.2369;0.1505;
1011.3000;0.2369;0.1505;
1011.6000;0.2361;0.1528;
1011.9000;0.2361;0.1624;
1012.2000;0.2336;0.1600;
1012.5000;0.2352;0.1648;
1012.8000;0.2377;0.1743;
1013.1000;0.2344;0.1720;
1013.4000;0.2344;0.1600;
1013.7000;0.2377;0.1672;
1014.0000;0.2393;0.1600;
1014.3000;0.2418;0.1672;
1014.6000;0.2352;0.1505;
1014.9000;0.2295;0.1314;
1015.2000;0.2361;0.1481;
1015.5000;0.2230;0.1146;
1015.8000;0.2352;0.1433;
1016.1000;0.2361;0.1409;
1016.4000;0.2361;0.1457;
1016.7000;0.2377;0.1481;
1017.0000;0.2247;0.1170;
1017.3000;0.2344;0.1337;
1017.6000;0.2344;0.1433;
1017.9000;0.2442;0.1743;
1018.2000;0.2344;0.1528;
1018.5000;0.2377;0.1648;
1018.8000;0.2312;0.1337;
1019.1000;0.2344;0.1481;
1019.4000;0.2352;0.1457;
1019.7000;0.2279;0.1314;
1020.0000;0.2352;0.1576;
1020.3000;0.2344;0.1552;
1020.6000;0.2352;0.1552;
1020.9000;0.2361;0.1576;
1021.2000;0.2352;0.1481;
1021.5000;0.2352;0.1457;
1021.8000;0.2369;0.1433;
1022.1000;0.2369;0.1457;
1022.4000;0.2344;0.1409;
1022.7000;0.2344;0.1457;
1023.0000;0.2377;0.1433;
1023.3000;0.2344;0.1361;
1023.6000;0.2239;0.1027;
1023.9000;0.2344;0.1337;
1024.2000;0.2344;0.1385;
1024.5000;0.2352;0.1481;
1024.8000;0.2352;0.1433;
1025.1000;0.2352;0.1457;
1025.4000;0.2352;0.1528;
1025.7000;0.2361;0.1576;
1026.0000;0.2352;0.1576;
1026.3000;0.2336;0.1505;
1026.6000;0.2352;0.1624;
1026.9000;0.2344;0.1648;
1027.2000;0.2352;0.1552;
1027.5000;0.2352;0.1528;
1027.8000;0.2361;0.1576;
1028.1000;0.2409;0.1743;
1028.4000;0.2336;0.1481;
1028.7000;0.2336;0.1552;
1029.0000;0.2312;0.1457;
1029.3000;0.2409;0.1791;
1029.6000;0.2361;0.1576;
1029.9000;0.2352;0.1600;
1030.2000;0.2344;0.1576;
1030.5000;0.2361;0.1696;
1030.8000;0.2369;0.1743;
1031.1000;0.2377;0.1720;
1031.4000;0.2312;0.1600;
1031.7000;0.2442;0.1863;
1032.0000;0.2352;0.1720;
1032.3000;0.2369;0.1720;
1032.6000;0.2352;0.1648;
1032.9000;0.2369;0.1720;
1033.2000;0.2418;0.1887;
1033.5000;0.2361;0.1696;
1033.8000;0.2385;0.1767;
1034.1000;0.2361;0.1743;
1034.4000;0.2344;0.1743;
1034.7000;0.2328;0.1743;
1035.0000;0.2344;0.1720;
1035.3000;0.2377;0.1767;
1035.6000;0.2385;0.1839;
1035.9000;0.2385;0.1839;
1036.2000;0.2401;0.1887;
1036.5000;0.2377;0.1791;
1036.8000;0.2344;0.1696;
1037.1000;0.2352;0.1767;
1037.4000;0.2377;0.1720;
1037.7000;0.2352;0.1600;
1038.0000;0.2344;0.1600;
1038.3000;0.2409;0.1743;
1038.6000;0.2344;0.1624;
1038.9000;0.2352;0.1576;
1039.2000;0.2369;0.1505;
1039.5000;0.2255;0.1194;
1039.8000;0.2328;0.1433;
1040.1000;0.2312;0.1481;
1040.4000;0.2361;0.1576;
1040.7000;0.2369;0.1576;
1041.0000;0.2336;0.1481;
1041.3000;0.2336;0.1409;
1041.6000;0.2361;0.1433;
1041.9000;0.2328;0.1314;
1042.2000;0.2377;0.1481;
1042.5000;0.2328;0.1385;
1042.8000;0.2344;0.1505;
1043.1000;0.2369;0.1576;
1043.4000;0.2336;0.1528;
1043.7000;0.2336;0.1528;
1044.0000;0.2336;0.1552;
1044.3000;0.2361;0.1576;
1044.6000;0.2344;0.1552;
1044.9000;0.2361;0.1576;
1045.2000;0.2426;0.1720;
1045.5000;0.2352;0.1576;
1045.8000;0.2344;0.1696;
1046.1000;0.2361;0.1767;
1046.4000;0.2361;0.1743;
1046.7000;0.2352;0.1791;
1047.0000;0.2344;0.1743;
1047.3000;0.2352;0.1672;
1047.6000;0.2401;0.1624;
1047.9000;0.2361;0.1528;
1048.2000;0.2352;0.1505;
1048.5000;0.2361;0.1576;
1048.8000;0.2352;0.1528;
1049.1000;0.2344;0.1433;
1049.4000;0.2344;0.1409;
1049.7000;0.2352;0.1576;
1050.0000;0.2377;0.1672;
1050.3000;0.2352;0.1648;
1050.6000;0.2369;0.1600;
1050.9000;0.2361;0.1624;
1051.2000;0.2336;0.1552;
1051.5000;0.2361;0.1600;
1051.8000;0.2352;0.1576;
1052.1000;0.2304;0.1457;
1052.4000;0.2475;0.1887;
1052.7000;0.2361;0.1600;
1053.0000;0.2434;0.1743;
1053.3000;0.2320;0.1409;
1053.6000;0.2361;0.1433;
1053.9000;0.2336;0.1457;
1054.2000;0.2344;0.1433;
1054.5000;0.2361;0.1528;
1054.8000;0.2361;0.1505;
1055.1000;0.2393;0.1576;
1055.4000;0.2361;0.1552;
1055.7000;0.2336;0.1505;
1056.0000;0.2352;0.1552;
1056.3000;0.2361;0.1648;
1056.6000;0.2344;0.1576;
1056.9000;0.2369;0.1672;
1057.2000;0.2369;0.1743;
1057.5000;0.2369;0.1815;
1057.8000;0.2369;0.1791;
1058.1000;0.2352;0.1791;
1058.4000;0.2385;0.1720;
1058.7000;0.2377;0.1648;
1059.0000;0.2369;0.1624;
1059.3000;0.2361;0.1600;
1059.6000;0.2328;0.1576;
1059.9000;0.2352;0.1576;
1060.2000;0.2418;0.1743;
1060.5000;0.2336;0.1528;
1060.8000;0.2336;0.1505;
1061.1000;0.2352;0.1648;
1061.4000;0.2361;0.1648;
1061.7000;0.2352;0.1720;
1062.0000;0.2352;0.1791;
1062.3000;0.2361;0.1863;
1062.6000;0.2369;0.1839;
1062.9000;0.2352;0.1648;
1063.2000;0.2352;0.1648;
1063.5000;0.2336;0.1528;
1063.8000;0.2361;0.1528;
1064.1000;0.2369;0.1576;
1064.4000;0.2361;0.1505;
1064.7000;0.2344;0.1481;
1065.0000;0.2336;0.1457;
1065.3000;0.2377;0.1576;
1065.6000;0.2361;0.1600;
1065.9000;0.2369;0.1600;
1066.2000;0.2361;0.1576;
1066.5000;0.2361;0.1624;
1066.8000;0.2352;0.1552;
1067.1000;0.2352;0.1481;
1067.4000;0.2409;0.1528;
1067.7000;0.2361;0.1337;
1068.0000;0.2279;0.1122;
1068.3000;0.2377;0.1290;
1068.6000;0.2344;0.1242;
1068.9000;0.2344;0.1337;
1069.2000;0.2344;0.1337;
1069.5000;0.2336;0.1266;
1069.8000;0.2344;0.1361;
1070.1000;0.2336;0.1385;
1070.4000;0.2369;0.1481;
1070.7000;0.2361;0.1528;
1071.0000;0.2361;0.1576;
1071.3000;0.2352;0.1576;
1071.6000;0.2361;0.1696;
1071.9000;0.2336;0.1696;
1072.2000;0.2336;0.1720;
1072.5000;0.2344;0.1624;
1072.8000;0.2361;0.1624;
1073.1000;0.2279;0.1361;
1073.4000;0.2369;0.1552;
1073.7000;0.2369;0.1672;
1074.0000;0.2369;0.1791;
1074.3000;0.2352;0.1696;
1074.6000;0.2352;0.1767;
1074.9000;0.2336;0.1767;
1075.2000;0.2344;0.1672;
1075.5000;0.2361;0.1743;
1075.8000;0.2369;0.1648;
1076.1000;0.2344;0.1552;
1076.4000;0.2352;0.1552;
1076.7000;0.2352;0.1457;
1077.0000;0.2434;0.1696;
1077.3000;0.2361;0.1528;
1077.6000;0.2361;0.1600;
1077.9000;0.2385;0.1624;
1078.2000;0.2361;0.1505;
1078.5000;0.2352;0.1528;
1078.8000;0.2361;0.1457;
1079.1000;0.2336;0.1337;
1079.4000;0.2336;0.1337;
1079.7000;0.2352;0.1361;
1080.0000;0.2344;0.1314;
1080.3000;0.2352;0.1337;
1080.6000;0.2352;0.1457;
1080.9000;0.2344;0.1433;
1081.2000;0.2328;0.1385;
1081.5000;0.2352;0.1385;
1081.8000;0.2352;0.1385;
1082.1000;0.2361;0.1457;
1082.4000;0.2361;0.1552;
1082.7000;0.2361;0.1552;
1083.0000;0.2361;0.1552;
1083.3000;0.2377;0.1576;
1083.6000;0.2361;0.1528;
1083.9000;0.2352;0.1552;
1084.2000;0.2328;0.1600;
1084.5000;0.2344;0.1552;
1084.8000;0.2133;0.0979;
1085.1000;0.2352;0.1552;
1085.4000;0.2344;0.1528;
1085.7000;0.2328;0.1505;
1086.0000;0.2344;0.1528;
1086.3000;0.2344;0.1528;
1086.6000;0.2361;0.1672;
1086.9000;0.2352;0.1624;
1087.2000;0.2369;0.1672;
1087.5000;0.2352;0.1600;
1087.8000;0.2361;0.1600;
1088.1000;0.2369;0.1672;
1088.4000;0.2377;0.1743;
1088.7000;0.2336;0.1648;
1089.0000;0.2393;0.1767;
1089.3000;0.2361;0.1576;
1089.6000;0.2352;0.1576;
1089.9000;0.2344;0.1600;
1090.2000;0.2320;0.1528;
1090.5000;0.2344;0.1528;
1090.8000;0.2247;0.1314;
1091.1000;0.2352;0.1576;
1091.4000;0.2369;0.1600;
1091.7000;0.2295;0.1457;
1092.0000;0.2344;0.1600;
1092.3000;0.2361;0.1672;
1092.6000;0.2369;0.1720;
1092.9000;0.2352;0.1720;
1093.2000;0.2369;0.1600;
1093.5000;0.2336;0.1481;
1093.8000;0.2361;0.1481;
1094.1000;0.2320;0.1433;
1094.4000;0.2385;0.1648;
1094.7000;0.2361;0.1528;
1095.0000;0.2336;0.1576;
1095.3000;0.2352;0.1600;
1095.6000;0.2352;0.1624;
1095.9000;0.2344;0.1624;
1096.2000;0.2352;0.1648;
1096.5000;0.2352;0.1648;
1096.8000;0.2344;0.1481;
1097.1000;0.2352;0.1528;
1097.4000;0.2361;0.1600;
1097.7000;0.2361;0.1552;
1098.0000;0.2361;0.1648;
1098.3000;0.2361;0.1528;
1098.6000;0.2344;0.1481;
1098.9000;0.2271;0.1218;
1099.2000;0.2352;0.1337;
1099.5000;0.2344;0.1385;
1099.8000;0.2328;0.1409;
1100.1000;0.2320;0.1433;
1100.4000;0.2320;0.1409;
1100.7000;0.2352;0.1457;
1101.0000;0.2344;0.1528;
1101.3000;0.2352;0.1481;
1101.6000;0.2344;0.1433;
1101.9000;0.2352;0.1505;
1102.2000;0.2352;0.1481;
1102.5000;0.2369;0.1576;
1102.8000;0.2352;0.1457;
1103.1000;0.2352;0.1481;
1103.4000;0.2369;0.1505;
1103.7000;0.2352;0.1457;
1104.0000;0.2369;0.1528;
1104.3000;0.2352;0.1481;
1104.6000;0.2377;0.1576;
1104.9000;0.2361;0.1433;
1105.2000;0.2352;0.1409;
1105.5000;0.2369;0.1385;
1105.8000;0.2328;0.1314;
1106.1000;0.2369;0.1457;
1106.4000;0.2344;0.1457;
1106.7000;0.2385;0.1600;
1107.0000;0.2377;0.1505;
1107.3000;0.2295;0.1242;
1107.6000;0.2369;0.1528;
1107.9000;0.2344;0.1481;
1108.2000;0.2361;0.1505;
1108.5000;0.2393;0.1576;
1108.8000;0.2434;0.1648;
1109.1000;0.2344;0.1481;
1109.4000;0.2369;0.1552;
1109.7000;0.2361;0.1600;
1110.0000;0.2369;0.1672;
1110.3000;0.2426;0.1720;
1110.6000;0.2336;0.1552;
1110.9000;0.2361;0.1600;
1111.2000;0.2385;0.1552;
1111.5000;0.2361;0.1433;
1111.8000;0.2361;0.1433;
1112.1000;0.2361;0.1409;
1112.4000;0.2336;0.1433;
1112.7000;0.2336;0.1385;
1113.0000;0.2409;0.1552;
1113.3000;0.2344;0.1385;
1113.6000;0.2352;0.1361;
1113.9000;0.2352;0.1337;
1114.2000;0.2336;0.1337;
1114.5000;0.2344;0.1361;
1114.8000;0.2369;0.1457;
1115.1000;0.2320;0.1361;
1115.4000;0.2344;0.1457;
1115.7000;0.2352;0.1457;
1116.0000;0.2361;0.1528;
1116.3000;0.2385;0.1576;
1116.6000;0.2361;0.1505;
1116.9000;0.2336;0.1528;
1117.2000;0.2369;0.1624;
1117.5000;0.2393;0.1672;
1117.8000;0.2369;0.1648;
1118.1000;0.2393;0.1672;
1118.4000;0.2385;0.1600;
1118.7000;0.2361;0.1505;
1119.0000;0.2369;0.1576;
1119.3000;0.2336;0.1481;
1119.6000;0.2352;0.1505;
1119.9000;0.2369;0.1552;
1120.2000;0.2352;0.1528;
1120.5000;0.2352;0.1481;
1120.8000;0.2328;0.1385;
1121.1000;0.2344;0.1385;
1121.4000;0.2352;0.1361;
1121.7000;0.2352;0.1433;
1122.0000;0.2336;0.1337;
1122.3000;0.2344;0.1361;
1122.6000;0.2361;0.1457;
1122.9000;0.2369;0.1648;
1123.2000;0.2361;0.1624;
1123.5000;0.2344;0.1648;
1123.8000;0.2344;0.1648;
1124.1000;0.2369;0.1696;
1124.4000;0.2369;0.1600;
1124.7000;0.2344;0.1576;
1125.0000;0.2369;0.1767;
1125.3000;0.2369;0.1815;
1125.6000;0.2312;0.1672;
1125.9000;0.2361;0.1696;
1126.2000;0.2287;0.1624;
1126.5000;0.2434;0.2006;
1126.8000;0.2352;0.1815;
1127.1000;0.2344;0.1767;
1127.4000;0.2361;0.1767;
1127.7000;0.2401;0.1934;
1128.0000;0.2377;0.1887;
1128.3000;0.2377;0.2006;
1128.6000;0.2352;0.1887;
1128.9000;0.2361;0.1839;
1129.2000;0.2377;0.1887;
1129.5000;0.2344;0.1815;
1129.8000;0.2352;0.1863;
1130.1000;0.2344;0.1839;
1130.4000;0.2418;0.2006;
1130.7000;0.2344;0.1720;
1131.0000;0.2352;0.1720;
1131.3000;0.2377;0.1648;
1131.6000;0.2312;0.1481;
1131.9000;0.2361;0.1505;
1132.2000;0.2361;0.1505;
1132.5000;0.2385;0.1576;
1132.8000;0.2401;0.1648;
1133.1000;0.2361;0.1528;
1133.4000;0.2344;0.1505;
1133.7000;0.2361;0.1528;
1134.0000;0.2239;0.1242;
1134.3000;0.2361;0.1576;
1134.6000;0.2377;0.1648;
1134.9000;0.2344;0.1505;
1135.2000;0.2344;0.1505;
1135.5000;0.2352;0.1600;
1135.8000;0.2369;0.1720;
1136.1000;0.2344;0.1624;
1136.4000;0.2361;0.1672;
1136.7000;0.2352;0.1720;
1137.0000;0.2361;0.1720;
1137.3000;0.2352;0.1743;
1137.6000;0.2344;0.1767;
1137.9000;0.2344;0.1839;
1138.2000;0.2352;0.1863;
1138.5000;0.2344;0.1815;
1138.8000;0.2336;0.1672;
1139.1000;0.2361;0.1743;
1139.4000;0.2377;0.1696;
1139.7000;0.2344;0.1624;
1140.0000;0.2361;0.1720;
1140.3000;0.2361;0.1696;
1140.6000;0.2401;0.1791;
1140.9000;0.2369;0.1696;
1141.2000;0.2393;0.1767;
1141.5000;0.2344;0.1696;
1141.8000;0.2369;0.1791;
1142.1000;0.2352;0.1743;
1142.4000;0.2352;0.1696;
1142.7000;0.2352;0.1767;
1143.0000;0.2361;0.1743;
1143.3000;0.2361;0.1815;
1143.6000;0.2377;0.1911;
1143.9000;0.2344;0.1839;
1144.2000;0.2287;0.1648;
1144.5000;0.2344;0.1839;
1144.8000;0.2409;0.2006;
1145.1000;0.2344;0.1815;
1145.4000;0.2361;0.1743;
1145.7000;0.2352;0.1624;
1146.0000;0.2369;0.1624;
1146.3000;0.2328;0.1576;
1146.6000;0.2369;0.1767;
1146.9000;0.2361;0.1720;
1147.2000;0.2271;0.1505;
1147.5000;0.2361;0.1791;
1147.8000;0.2361;0.1743;
1148.1000;0.2385;0.1743;
1148.4000;0.2344;0.1672;
1148.7000;0.2369;0.1720;
1149.0000;0.2361;0.1672;
1149.3000;0.2369;0.1600;
1149.6000;0.2385;0.1576;
1149.9000;0.2361;0.1481;
1150.2000;0.2369;0.1505;
1150.5000;0.2336;0.1457;
1150.8000;0.2352;0.1528;
1151.1000;0.2369;0.1528;
1151.4000;0.2361;0.1481;
1151.7000;0.2336;0.1361;
1152.0000;0.2385;0.1552;
1152.3000;0.2377;0.1505;
1152.6000;0.2361;0.1505;
1152.9000;0.2344;0.1528;
1153.2000;0.2361;0.1552;
1153.5000;0.2344;0.1409;
1153.8000;0.2361;0.1433;
1154.1000;0.2361;0.1385;
1154.4000;0.2344;0.1337;
1154.7000;0.2352;0.1314;
1155.0000;0.2361;0.1266;
1155.3000;0.2369;0.1409;
1155.6000;0.2393;0.1576;
1155.9000;0.2369;0.1576;
1156.2000;0.2361;0.1505;
1156.5000;0.2344;0.1433;
1156.8000;0.2352;0.1409;
1157.1000;0.2344;0.1385;
1157.4000;0.2312;0.1314;
1157.7000;0.2352;0.1505;
1158.0000;0.2304;0.1361;
1158.3000;0.2369;0.1457;
1158.6000;0.2361;0.1409;
1158.9000;0.2352;0.1409;
1159.2000;0.2361;0.1505;
1159.5000;0.2352;0.1457;
1159.8000;0.2385;0.1552;
1160.1000;0.2377;0.1552;
1160.4000;0.2369;0.1576;
1160.7000;0.2377;0.1600;
1161.0000;0.2344;0.1576;
1161.3000;0.2328;0.1505;
1161.6000;0.2369;0.1576;
1161.9000;0.2352;0.1481;
1162.2000;0.2352;0.1528;
1162.5000;0.2336;0.1528;
1162.8000;0.2344;0.1624;
1163.1000;0.2361;0.1648;
1163.4000;0.2352;0.1743;
1163.7000;0.2377;0.1743;
1164.0000;0.2361;0.1648;
1164.3000;0.2377;0.1672;
1164.6000;0.2385;0.1743;
1164.9000;0.2369;0.1791;
1165.2000;0.2361;0.1720;
1165.5000;0.2320;0.1624;
1165.8000;0.2344;0.1600;
1166.1000;0.2344;0.1600;
1166.4000;0.2361;0.1576;
1166.7000;0.2361;0.1505;
1167.0000;0.2336;0.1385;
1167.3000;0.2361;0.1385;
1167.6000;0.2401;0.1457;
1167.9000;0.2304;0.1218;
1168.2000;0.2352;0.1361;
1168.5000;0.2369;0.1385;
1168.8000;0.2369;0.1457;
1169.1000;0.2352;0.1290;
1169.4000;0.2344;0.1266;
1169.7000;0.2377;0.1385;
1170.0000;0.2393;0.1433;
1170.3000;0.2361;0.1242;
1170.6000;0.2344;0.1266;
1170.9000;0.2352;0.1242;
1171.2000;0.2361;0.1385;
1171.5000;0.2361;0.1457;
1171.8000;0.2361;0.1385;
1172.1000;0.2361;0.1409;
1172.4000;0.2361;0.1409;
1172.7000;0.2361;0.1385;
1173.0000;0.2352;0.1314;
1173.3000;0.2361;0.1337;
1173.6000;0.2361;0.1385;
1173.9000;0.2409;0.1600;
1174.2000;0.2369;0.1528;
1174.5000;0.2352;0.1600;
1174.8000;0.2361;0.1600;
1175.1000;0.2385;0.1648;
1175.4000;0.2344;0.1481;
1175.7000;0.2369;0.1481;
1176.0000;0.2320;0.1337;
1176.3000;0.2361;0.1433;
1176.6000;0.2377;0.1481;
1176.9000;0.2361;0.1505;
1177.2000;0.2369;0.1505;
1177.5000;0.2295;0.1337;
1177.8000;0.2352;0.1457;
1178.1000;0.2361;0.1385;
1178.4000;0.2352;0.1385;
1178.7000;0.2361;0.1409;
1179.0000;0.2361;0.1433;
1179.3000;0.2336;0.1337;
1179.6000;0.2352;0.1361;
1179.9000;0.2344;0.1433;
1180.2000;0.2385;0.1481;
1180.5000;0.2369;0.1505;
1180.8000;0.2336;0.1481;
1181.1000;0.2344;0.1433;
1181.4000;0.2369;0.1409;
1181.7000;0.2377;0.1433;
1182.0000;0.2361;0.1314;
1182.3000;0.2361;0.1314;
1182.6000;0.2385;0.1361;
1182.9000;0.2344;0.1385;
1183.2000;0.2344;0.1433;
1183.5000;0.2344;0.1385;
1183.8000;0.2352;0.1433;
1184.1000;0.2352;0.1481;
1184.4000;0.2369;0.1481;
1184.7000;0.2344;0.1528;
1185.0000;0.2361;0.1481;
1185.3000;0.2344;0.1505;
1185.6000;0.2352;0.1528;
1185.9000;0.2344;0.1552;
1186.2000;0.2385;0.1696;
1186.5000;0.2377;0.1552;
1186.8000;0.2377;0.1552;
1187.1000;0.2418;0.1720;
1187.4000;0.2336;0.1576;
1187.7000;0.2361;0.1624;
1188.0000;0.2352;0.1624;
1188.3000;0.2409;0.1743;
1188.6000;0.2361;0.1624;
1188.9000;0.2336;0.1624;
1189.2000;0.2377;0.1743;
1189.5000;0.2377;0.1696;
1189.8000;0.2352;0.1696;
1190.1000;0.2263;0.1505;
1190.4000;0.2377;0.1720;
1190.7000;0.2361;0.1600;
1191.0000;0.2352;0.1528;
1191.3000;0.2361;0.1528;
1191.6000;0.2369;0.1528;
1191.9000;0.2361;0.1481;
1192.2000;0.2369;0.1528;
1192.5000;0.2344;0.1576;
1192.8000;0.2377;0.1672;
1193.1000;0.2352;0.1672;
1193.4000;0.2385;0.1743;
1193.7000;0.2434;0.1839;
1194.0000;0.2312;0.1505;
1194.3000;0.2369;0.1648;
1194.6000;0.2352;0.1600;
1194.9000;0.2344;0.1672;
1195.2000;0.2344;0.1672;
1195.5000;0.2385;0.1767;
1195.8000;0.2369;0.1672;
1196.1000;0.2361;0.1720;
1196.4000;0.2393;0.1720;
1196.7000;0.2369;0.1743;
1197.0000;0.2361;0.1720;
1197.3000;0.2352;0.1672;
1197.6000;0.2352;0.1720;
1197.9000;0.2361;0.1767;
1198.2000;0.2352;0.1696;
1198.5000;0.2361;0.1767;
1198.8000;0.2344;0.1720;
1199.1000;0.2361;0.1720;
1199.4000;0.2377;0.1767;
1199.7000;0.2352;0.1648;
1200.0000;0.2352;0.1624;
1200.3000;0.2442;0.1791;
1200.6000;0.2377;0.1600;
1200.9000;0.2385;0.1624;
1201.2000;0.2369;0.1624;
1201.5000;0.2328;0.1600;
1201.8000;0.2361;0.1600;
1202.1000;0.2361;0.1672;
1202.4000;0.2295;0.1528;
1202.7000;0.2393;0.1767;
1203.0000;0.2377;0.1720;
1203.3000;0.2361;0.1672;
1203.6000;0.2352;0.1624;
1203.9000;0.2344;0.1624;
1204.2000;0.2369;0.1672;
1204.5000;0.2328;0.1552;
1204.8000;0.2304;0.1600;
1205.1000;0.2361;0.1696;
1205.4000;0.2336;0.1672;
1205.7000;0.2369;0.1767;
1206.0000;0.2344;0.1696;
1206.3000;0.2344;0.1720;
1206.6000;0.2377;0.1767;
1206.9000;0.2361;0.1648;
1207.2000;0.2369;0.1648;
1207.5000;0.2361;0.1576;
1207.8000;0.2255;0.1409;
1208.1000;0.2352;0.1648;
1208.4000;0.2352;0.1600;
1208.7000;0.2336;0.1552;
1209.0000;0.2352;0.1552;
1209.3000;0.2336;0.1481;
1209.6000;0.2295;0.1361;
1209.9000;0.2361;0.1505;
1210.2000;0.2304;0.1314;
1210.5000;0.2352;0.1552;
1210.8000;0.2401;0.1648;
1211.1000;0.2328;0.1505;
1211.4000;0.2369;0.1648;
1211.7000;0.2369;0.1624;
1212.0000;0.2377;0.1528;
1212.3000;0.2361;0.1505;
1212.6000;0.2361;0.1576;
1212.9000;0.2352;0.1624;
1213.2000;0.2352;0.1648;
1213.5000;0.2352;0.1600;
1213.8000;0.2361;0.1552;
1214.1000;0.2361;0.1576;
1214.4000;0.2352;0.1552;
1214.7000;0.2409;0.1672;
1215.0000;0.2361;0.1576;
1215.3000;0.2344;0.1648;
1215.6000;0.2361;0.1767;
1215.9000;0.2361;0.1672;
1216.2000;0.2361;0.1648;
1216.5000;0.2361;0.1648;
1216.8000;0.2369;0.1624;
1217.1000;0.2336;0.1433;
1217.4000;0.2369;0.1576;
1217.7000;0.2352;0.1481;
1218.0000;0.2377;0.1481;
1218.3000;0.2369;0.1552;
1218.6000;0.2369;0.1552;
1218.9000;0.2352;0.1552;
1219.2000;0.2426;0.1696;
1219.5000;0.2377;0.1457;
1219.8000;0.2369;0.1337;
1220.1000;0.2377;0.1337;
1220.4000;0.2393;0.1481;
1220.7000;0.2369;0.1505;
1221.0000;0.2377;0.1505;
1221.3000;0.2369;0.1457;
1221.6000;0.2377;0.1505;
1221.9000;0.2361;0.1433;
1222.2000;0.2369;0.1409;
1222.5000;0.2344;0.1433;
1222.8000;0.2361;0.1576;
1223.1000;0.2352;0.1624;
1223.4000;0.2361;0.1624;
1223.7000;0.2377;0.1576;
1224.0000;0.2352;0.1481;
1224.3000;0.2344;0.1457;
1224.6000;0.2369;0.1481;
1224.9000;0.2361;0.1528;
1225.2000;0.2369;0.1600;
1225.5000;0.2361;0.1624;
1225.8000;0.2352;0.1576;
1226.1000;0.2369;0.1481;
1226.4000;0.2401;0.1576;
1226.7000;0.2230;0.1099;
1227.0000;0.2361;0.1505;
1227.3000;0.2409;0.1624;
1227.6000;0.2475;0.1887;
1227.9000;0.2369;0.1600;
1228.2000;0.2361;0.1576;
1228.5000;0.2393;0.1672;
1228.8000;0.2352;0.1624;
1229.1000;0.2369;0.1624;
1229.4000;0.2369;0.1648;
1229.7000;0.2361;0.1600;
1230.0000;0.2344;0.1600;
1230.3000;0.2369;0.1624;
1230.6000;0.2344;0.1648;
1230.9000;0.2336;0.1624;
1231.2000;0.2369;0.1743;
1231.5000;0.2369;0.1815;
1231.8000;0.2304;0.1624;
1232.1000;0.2352;0.1720;
1232.4000;0.2361;0.1624;
1232.7000;0.2361;0.1600;
1233.0000;0.2352;0.1576;
1233.3000;0.2320;0.1433;
1233.6000;0.2352;0.1576;
1233.9000;0.2361;0.1576;
1234.2000;0.2344;0.1576;
1234.5000;0.2336;0.1505;
1234.8000;0.2377;0.1672;
1235.1000;0.2328;0.1552;
1235.4000;0.2352;0.1624;
1235.7000;0.2352;0.1696;
1236.0000;0.2361;0.1696;
1236.3000;0.2369;0.1576;
1236.6000;0.2361;0.1576;
1236.9000;0.2352;0.1600;
1237.2000;0.2369;0.1648;
1237.5000;0.2361;0.1696;
1237.8000;0.2344;0.1672;
1238.1000;0.2352;0.1743;
1238.4000;0.2336;0.1863;
1238.7000;0.2352;0.1839;
1239.0000;0.2361;0.1791;
1239.3000;0.2344;0.1767;
1239.6000;0.2377;0.1791;
1239.9000;0.2352;0.1696;
1240.2000;0.2352;0.1648;
1240.5000;0.2361;0.1672;
1240.8000;0.2344;0.1648;
1241.1000;0.2369;0.1720;
1241.4000;0.2369;0.1767;
1241.7000;0.2352;0.1791;
1242.0000;0.2352;0.1815;
1242.3000;0.2385;0.1863;
1242.6000;0.2369;0.1934;
1242.9000;0.2352;0.1887;
1243.2000;0.2377;0.1887;
1243.5000;0.2352;0.1815;
1243.8000;0.2369;0.1791;
1244.1000;0.2369;0.1743;
1244.4000;0.2401;0.1911;
1244.7000;0.2352;0.1791;
1245.0000;0.2361;0.1767;
1245.3000;0.2361;0.1720;
1245.6000;0.2369;0.1720;
1245.9000;0.2336;0.1648;
1246.2000;0.2352;0.1624;
1246.5000;0.2369;0.1600;
1246.8000;0.2369;0.1576;
1247.1000;0.2377;0.1505;
1247.4000;0.2393;0.1624;
1247.7000;0.2369;0.1552;
1248.0000;0.2352;0.1552;
1248.3000;0.2369;0.1552;
1248.6000;0.2352;0.1481;
1248.9000;0.2377;0.1576;
1249.2000;0.2385;0.1600;
1249.5000;0.2352;0.1505;
1249.8000;0.2352;0.1457;
1250.1000;0.2344;0.1457;
1250.4000;0.2369;0.1505;
1250.7000;0.2418;0.1648;
1251.0000;0.2295;0.1314;
1251.3000;0.2361;0.1505;
1251.6000;0.2352;0.1481;
1251.9000;0.2369;0.1576;
1252.2000;0.2377;0.1505;
1252.5000;0.2361;0.1409;
1252.8000;0.2377;0.1433;
1253.1000;0.2369;0.1481;
1253.4000;0.2361;0.1433;
1253.7000;0.2344;0.1457;
1254.0000;0.2361;0.1505;
1254.3000;0.2361;0.1505;
1254.6000;0.2352;0.1576;
1254.9000;0.2352;0.1576;
1255.2000;0.2352;0.1552;
1255.5000;0.2361;0.1576;
1255.8000;0.2369;0.1576;
1256.1000;0.2336;0.1457;
1256.4000;0.2336;0.1433;
1256.7000;0.2361;0.1528;
1257.0000;0.2344;0.1433;
1257.3000;0.2352;0.1528;
1257.6000;0.2361;0.1528;
1257.9000;0.2377;0.1552;
1258.2000;0.2279;0.1218;
1258.5000;0.2336;0.1337;
1258.8000;0.2385;0.1409;
1259.1000;0.2352;0.1409;
1259.4000;0.2361;0.1433;
1259.7000;0.2377;0.1505;
1260.0000;0.2328;0.1409;
1260.3000;0.2418;0.1791;
1260.6000;0.2320;0.1552;
1260.9000;0.2369;0.1600;
1261.2000;0.2344;0.1576;
1261.5000;0.2344;0.1624;
1261.8000;0.2352;0.1648;
1262.1000;0.2361;0.1720;
1262.4000;0.2312;0.1672;
1262.7000;0.2369;0.1767;
1263.0000;0.2352;0.1696;
1263.3000;0.2369;0.1648;
1263.6000;0.2352;0.1672;
1263.9000;0.2344;0.1672;
1264.2000;0.2361;0.1696;
1264.5000;0.2401;0.1815;
1264.8000;0.2361;0.1648;
1265.1000;0.2361;0.1624;
1265.4000;0.2385;0.1576;
1265.7000;0.2361;0.1552;
1266.0000;0.2369;0.1576;
1266.3000;0.2336;0.1433;
1266.6000;0.2361;0.1576;
1266.9000;0.2361;0.1576;
1267.2000;0.2336;0.1457;
1267.5000;0.2369;0.1457;
1267.8000;0.2369;0.1552;
1268.1000;0.2352;0.1576;
1268.4000;0.2377;0.1672;
1268.7000;0.2352;0.1624;
1269.0000;0.2361;0.1648;
1269.3000;0.2312;0.1600;
1269.6000;0.2352;0.1648;
1269.9000;0.2352;0.1648;
1270.2000;0.2352;0.1648;
1270.5000;0.2336;0.1600;
1270.8000;0.2352;0.1648;
1271.1000;0.2336;0.1648;
1271.4000;0.2344;0.1767;
1271.7000;0.2344;0.1791;
1272.0000;0.2369;0.1767;
1272.3000;0.2361;0.1720;
1272.6000;0.2352;0.1648;
1272.9000;0.2352;0.1672;
1273.2000;0.2377;0.1767;
1273.5000;0.2361;0.1648;
1273.8000;0.2369;0.1648;
1274.1000;0.2369;0.1576;
1274.4000;0.2369;0.1576;
1274.7000;0.2369;0.1624;
1275.0000;0.2369;0.1624;
1275.3000;0.2361;0.1552;
1275.6000;0.2361;0.1552;
1275.9000;0.2352;0.1457;
1276.2000;0.2361;0.1505;
1276.5000;0.2369;0.1576;
1276.8000;0.2361;0.1505;
1277.1000;0.2385;0.1481;
1277.4000;0.2361;0.1481;
1277.7000;0.2352;0.1409;
1278.0000;0.2369;0.1385;
1278.3000;0.2385;0.1528;
1278.6000;0.2377;0.1481;
1278.9000;0.2377;0.1457;
1279.2000;0.2377;0.1481;
1279.5000;0.2377;0.1576;
1279.8000;0.2369;0.1576;
1280.1000;0.2377;0.1600;
1280.4000;0.2361;0.1528;
1280.7000;0.2361;0.1505;
1281.0000;0.2352;0.1552;
1281.3000;0.2361;0.1528;
1281.6000;0.2344;0.1528;
1281.9000;0.2352;0.1624;
1282.2000;0.2352;0.1600;
1282.5000;0.2369;0.1600;
1282.8000;0.2352;0.1696;
1283.1000;0.2377;0.1815;
1283.4000;0.2352;0.1696;
1283.7000;0.2377;0.1743;
1284.0000;0.2377;0.1672;
1284.3000;0.2369;0.1624;
1284.6000;0.2369;0.1600;
1284.9000;0.2377;0.1672;
1285.2000;0.2377;0.1720;
1285.5000;0.2361;0.1720;
1285.8000;0.2344;0.1648;
1286.1000;0.2377;0.1791;
1286.4000;0.2369;0.1839;
1286.7000;0.2369;0.1791;
1287.0000;0.2352;0.1743;
1287.3000;0.2369;0.1743;
1287.6000;0.2361;0.1743;
1287.9000;0.2352;0.1696;
1288.2000;0.2344;0.1648;
1288.5000;0.2369;0.1696;
1288.8000;0.2377;0.1720;
1289.1000;0.2377;0.1696;
1289.4000;0.2352;0.1648;
1289.7000;0.2320;0.1648;
1290.0000;0.2352;0.1672;
1290.3000;0.2377;0.1624;
1290.6000;0.2377;0.1648;
1290.9000;0.2352;0.1600;
1291.2000;0.2369;0.1743;
1291.5000;0.2344;0.1672;
1291.8000;0.2369;0.1720;
1292.1000;0.2352;0.1624;
1292.4000;0.2361;0.1743;
1292.7000;0.2352;0.1791;
1293.0000;0.2344;0.1743;
1293.3000;0.2328;0.1696;
1293.6000;0.2442;0.1911;
1293.9000;0.2320;0.1600;
1294.2000;0.2369;0.1696;
1294.5000;0.2312;0.1743;
1294.8000;0.2352;0.1767;
1295.1000;0.2369;0.1839;
1295.4000;0.2361;0.1839;
1295.7000;0.2361;0.1839;
1296.0000;0.2385;0.1982;
1296.3000;0.2369;0.1815;
1296.6000;0.2409;0.1863;
1296.9000;0.2369;0.1791;
1297.2000;0.2361;0.1767;
1297.5000;0.2352;0.1767;
1297.8000;0.2361;0.1767;
1298.1000;0.2344;0.1720;
1298.4000;0.2304;0.1600;
1298.7000;0.2263;0.1433;
1299.0000;0.2369;0.1648;
1299.3000;0.2344;0.1624;
1299.6000;0.2361;0.1624;
1299.9000;0.2361;0.1600;
1300.2000;0.2377;0.1624;
1300.5000;0.2287;0.1337;
1300.8000;0.2344;0.1552;
1301.1000;0.2377;0.1600;
1301.4000;0.2377;0.1552;
1301.7000;0.2377;0.1576;
1302.0000;0.2344;0.1528;
1302.3000;0.2369;0.1576;
1302.6000;0.2361;0.1528;
1302.9000;0.2377;0.1624;
1303.2000;0.2328;0.1481;
1303.5000;0.2361;0.1696;
1303.8000;0.2369;0.1720;
1304.1000;0.2320;0.1600;
1304.4000;0.2344;0.1672;
1304.7000;0.2369;0.1720;
1305.0000;0.2361;0.1672;
1305.3000;0.2426;0.1863;
1305.6000;0.2344;0.1624;
1305.9000;0.2352;0.1696;
1306.2000;0.2369;0.1743;
1306.5000;0.2361;0.1839;
1306.8000;0.2377;0.1887;
1307.1000;0.2336;0.1696;
1307.4000;0.2377;0.1791;
1307.7000;0.2377;0.1743;
1308.0000;0.2377;0.1648;
1308.3000;0.2369;0.1672;
1308.6000;0.2369;0.1624;
1308.9000;0.2336;0.1552;
1309.2000;0.2377;0.1672;
1309.5000;0.2369;0.1576;
1309.8000;0.2361;0.1505;
1310.1000;0.2328;0.1409;
1310.4000;0.2369;0.1433;
1310.7000;0.2320;0.1290;
1311.0000;0.2344;0.1361;
1311.3000;0.2336;0.1457;
1311.6000;0.2369;0.1552;
1311.9000;0.2377;0.1481;
1312.2000;0.2377;0.1385;
1312.5000;0.2401;0.1552;
1312.8000;0.2369;0.1361;
1313.1000;0.2377;0.1457;
1313.4000;0.2377;0.1457;
1313.7000;0.2393;0.1433;
1314.0000;0.2369;0.1385;
1314.3000;0.2401;0.1433;
1314.6000;0.2393;0.1457;
1314.9000;0.2369;0.1409;
1315.2000;0.2369;0.1433;
1315.5000;0.2385;0.1505;
1315.8000;0.2369;0.1433;
1316.1000;0.2377;0.1385;
1316.4000;0.2352;0.1457;
1316.7000;0.2361;0.1481;
1317.0000;0.2377;0.1528;
1317.3000;0.2271;0.1218;
1317.6000;0.2369;0.1552;
1317.9000;0.2361;0.1481;
1318.2000;0.2361;0.1433;
1318.5000;0.2369;0.1481;
1318.8000;0.2434;0.1648;
1319.1000;0.2377;0.1481;
1319.4000;0.2328;0.1337;
1319.7000;0.2377;0.1457;
1320.0000;0.2377;0.1457;
1320.3000;0.2369;0.1481;
1320.6000;0.2369;0.1433;
1320.9000;0.2393;0.1505;
1321.2000;0.2369;0.1433;
1321.5000;0.2336;0.1361;
1321.8000;0.2320;0.1314;
1322.1000;0.2295;0.1242;
1322.4000;0.2361;0.1481;
1322.7000;0.2361;0.1481;
1323.0000;0.2369;0.1481;
1323.3000;0.2393;0.1552;
1323.6000;0.2352;0.1505;
1323.9000;0.2361;0.1481;
1324.2000;0.2385;0.1505;
1324.5000;0.2385;0.1528;
1324.8000;0.2369;0.1361;
1325.1000;0.2385;0.1385;
1325.4000;0.2352;0.1361;
1325.7000;0.2450;0.1576;
1326.0000;0.2361;0.1361;
1326.3000;0.2369;0.1433;
1326.6000;0.2401;0.1528;
1326.9000;0.2369;0.1552;
1327.2000;0.2483;0.1839;
1327.5000;0.2369;0.1528;
1327.8000;0.2352;0.1481;
1328.1000;0.2361;0.1505;
1328.4000;0.2409;0.1624;
1328.7000;0.2344;0.1457;
1329.0000;0.2336;0.1505;
1329.3000;0.2312;0.1337;
1329.6000;0.2361;0.1409;
1329.9000;0.2361;0.1337;
1330.2000;0.2361;0.1385;
1330.5000;0.2361;0.1457;
1330.8000;0.2377;0.1505;
1331.1000;0.2377;0.1481;
1331.4000;0.2393;0.1528;
1331.7000;0.2377;0.1528;
1332.0000;0.2361;0.1576;
1332.3000;0.2352;0.1481;
1332.6000;0.2361;0.1433;
1332.9000;0.2344;0.1361;
1333.2000;0.2361;0.1385;
1333.5000;0.2361;0.1433;
1333.8000;0.2369;0.1409;
1334.1000;0.2344;0.1433;
1334.4000;0.2295;0.1361;
1334.7000;0.2369;0.1624;
1335.0000;0.2352;0.1600;
1335.3000;0.2352;0.1648;
1335.6000;0.2312;0.1552;
1335.9000;0.2450;0.1982;
1336.2000;0.2361;0.1648;
1336.5000;0.2369;0.1528;
1336.8000;0.2369;0.1433;
1337.1000;0.2377;0.1505;
1337.4000;0.2361;0.1457;
1337.7000;0.2352;0.1505;
1338.0000;0.2352;0.1552;
1338.3000;0.2352;0.1600;
1338.6000;0.2361;0.1552;
1338.9000;0.2361;0.1552;
1339.2000;0.2369;0.1481;
1339.5000;0.2377;0.1528;
1339.8000;0.2369;0.1552;
1340.1000;0.2369;0.1552;
1340.4000;0.2361;0.1552;
1340.7000;0.2369;0.1528;
1341.0000;0.2377;0.1648;
1341.3000;0.2409;0.1791;
1341.6000;0.2344;0.1672;
1341.9000;0.2336;0.1624;
1342.2000;0.2369;0.1648;
1342.5000;0.2385;0.1648;
1342.8000;0.2369;0.1624;
1343.1000;0.2369;0.1648;
1343.4000;0.2304;0.1457;
1343.7000;0.2377;0.1672;
1344.0000;0.2377;0.1696;
1344.3000;0.2361;0.1720;
1344.6000;0.2352;0.1696;
1344.9000;0.2426;0.1767;
1345.2000;0.2304;0.1481;
1345.5000;0.2369;0.1696;
1345.8000;0.2377;0.1720;
1346.1000;0.2409;0.1767;
1346.4000;0.2312;0.1457;
1346.7000;0.2369;0.1552;
1347.0000;0.2393;0.1672;
1347.3000;0.2385;0.1624;
1347.6000;0.2385;0.1696;
1347.9000;0.2369;0.1696;
1348.2000;0.2352;0.1648;
1348.5000;0.2377;0.1624;
1348.8000;0.2393;0.1648;
1349.1000;0.2369;0.1576;
1349.4000;0.2418;0.1791;
1349.7000;0.2377;0.1648;
1350.0000;0.2361;0.1600;
1350.3000;0.2385;0.1648;
1350.6000;0.2247;0.1409;
1350.9000;0.2369;0.1696;
1351.2000;0.2369;0.1767;
1351.5000;0.2361;0.1648;
1351.8000;0.2377;0.1624;
1352.1000;0.2271;0.1337;
1352.4000;0.2377;0.1743;
1352.7000;0.2369;0.1791;
1353.0000;0.2344;0.1767;
1353.3000;0.2361;0.1743;
1353.6000;0.2352;0.1696;
1353.9000;0.2393;0.1767;
1354.2000;0.2361;0.1720;
1354.5000;0.2369;0.1815;
1354.8000;0.2352;0.1767;
1355.1000;0.2377;0.1887;
1355.4000;0.2377;0.1863;
1355.7000;0.2377;0.1815;
1356.0000;0.2344;0.1863;
1356.3000;0.2361;0.1863;
1356.6000;0.2377;0.1839;
1356.9000;0.2361;0.1696;
1357.2000;0.2344;0.1648;
1357.5000;0.2352;0.1624;
1357.8000;0.2352;0.1624;
1358.1000;0.2361;0.1600;
1358.4000;0.2377;0.1696;
1358.7000;0.2369;0.1720;
1359.0000;0.2361;0.1791;
1359.3000;0.2361;0.1767;
1359.6000;0.2369;0.1767;
1359.9000;0.2369;0.1767;
1360.2000;0.2377;0.1791;
1360.5000;0.2385;0.1767;
1360.8000;0.2369;0.1743;
1361.1000;0.2369;0.1720;
1361.4000;0.2369;0.1743;
1361.7000;0.2369;0.1767;
1362.0000;0.2352;0.1791;
1362.3000;0.2352;0.1767;
1362.6000;0.2361;0.1696;
1362.9000;0.2352;0.1648;
1363.2000;0.2361;0.1743;
1363.5000;0.2328;0.1696;
1363.8000;0.2361;0.1815;
1364.1000;0.2344;0.1863;
1364.4000;0.2377;0.1958;
1364.7000;0.2344;0.1815;
1365.0000;0.2369;0.1863;
1365.3000;0.2361;0.1815;
1365.6000;0.2475;0.2054;
1365.9000;0.2352;0.1648;
1366.2000;0.2369;0.1672;
1366.5000;0.2377;0.1720;
1366.8000;0.2377;0.1720;
1367.1000;0.2369;0.1743;
1367.4000;0.2385;0.1767;
1367.7000;0.2369;0.1720;
1368.0000;0.2361;0.1672;
1368.3000;0.2426;0.1887;
1368.6000;0.2352;0.1720;
1368.9000;0.2352;0.1720;
1369.2000;0.2409;0.1815;
1369.5000;0.2418;0.1767;
1369.8000;0.2369;0.1696;
1370.1000;0.2304;0.1552;
1370.4000;0.2344;0.1648;
1370.7000;0.2361;0.1624;
1371.0000;0.2369;0.1600;
1371.3000;0.2426;0.1839;
1371.6000;0.2369;0.1743;
1371.9000;0.2377;0.1815;
1372.2000;0.2304;0.1624;
1372.5000;0.2361;0.1791;
1372.8000;0.2352;0.1767;
1373.1000;0.2352;0.1696;
1373.4000;0.2369;0.1696;
1373.7000;0.2352;0.1624;
1374.0000;0.2361;0.1696;
1374.3000;0.2393;0.1791;
1374.6000;0.2385;0.1767;
1374.9000;0.2328;0.1696;
1375.2000;0.2385;0.1743;
1375.5000;0.2377;0.1696;
1375.8000;0.2361;0.1720;
1376.1000;0.2442;0.1982;
1376.4000;0.2377;0.1815;
1376.7000;0.2312;0.1624;
1377.0000;0.2418;0.1815;
1377.3000;0.2377;0.1696;
1377.6000;0.2361;0.1743;
1377.9000;0.2344;0.1815;
1378.2000;0.2361;0.1863;
1378.5000;0.2361;0.1863;
1378.8000;0.2328;0.1743;
1379.1000;0.2361;0.1863;
1379.4000;0.2393;0.1911;
1379.7000;0.2377;0.1791;
1380.0000;0.2352;0.1863;
1380.3000;0.2377;0.1911;
1380.6000;0.2377;0.1911;
1380.9000;0.2320;0.1720;
1381.2000;0.2426;0.1934;
1381.5000;0.2369;0.1767;
1381.8000;0.2369;0.1743;
1382.1000;0.2369;0.1839;
1382.4000;0.2418;0.1982;
1382.7000;0.2336;0.1767;
1383.0000;0.2361;0.1887;
1383.3000;0.2352;0.1887;
1383.6000;0.2336;0.1863;
1383.9000;0.2336;0.1887;
1384.2000;0.2369;0.1863;
1384.5000;0.2377;0.1839;
1384.8000;0.2361;0.1767;
1385.1000;0.2352;0.1696;
1385.4000;0.2377;0.1743;
1385.7000;0.2409;0.1863;
1386.0000;0.2344;0.1815;
1386.3000;0.2369;0.1839;
1386.6000;0.2344;0.1767;
1386.9000;0.2369;0.1791;
1387.2000;0.2361;0.1815;
1387.5000;0.2336;0.1648;
1387.8000;0.2369;0.1720;
1388.1000;0.2352;0.1720;
1388.4000;0.2361;0.1743;
1388.7000;0.2369;0.1767;
1389.0000;0.2418;0.1911;
1389.3000;0.2352;0.1791;
1389.6000;0.2385;0.1815;
1389.9000;0.2369;0.1791;
1390.2000;0.2344;0.1815;
1390.5000;0.2385;0.1982;
1390.8000;0.2369;0.1958;
1391.1000;0.2369;0.1911;
1391.4000;0.2344;0.1743;
1391.7000;0.2369;0.1839;
1392.0000;0.2377;0.1863;
1392.3000;0.2377;0.1791;
1392.6000;0.2369;0.1791;
1392.9000;0.2369;0.1791;
1393.2000;0.2369;0.1815;
1393.5000;0.2369;0.1767;
1393.8000;0.2377;0.1720;
1394.1000;0.2369;0.1600;
1394.4000;0.2369;0.1624;
1394.7000;0.2369;0.1528;
1395.0000;0.2369;0.1600;
1395.3000;0.2361;0.1576;
1395.6000;0.2369;0.1672;
1395.9000;0.2361;0.1672;
1396.2000;0.2352;0.1696;
1396.5000;0.2369;0.1672;
1396.8000;0.2369;0.1672;
1397.1000;0.2352;0.1600;
1397.4000;0.2361;0.1672;
1397.7000;0.2352;0.1552;
1398.0000;0.2369;0.1528;
1398.3000;0.2361;0.1457;
1398.6000;0.2377;0.1505;
1398.9000;0.2352;0.1505;
1399.2000;0.2361;0.1528;
1399.5000;0.2361;0.1576;
1399.8000;0.2369;0.1552;
