time/ms;Fluo/V;P700 deltaI/I x10³;
-199.8000;0.2377;0.1122;
-199.5000;0.2377;0.1051;
-199.2000;0.2361;0.0955;
-198.9000;0.2385;0.1003;
-198.6000;0.2377;0.1003;
-198.3000;0.2377;0.1027;
-198.0000;0.2385;0.1003;
-197.7000;0.2377;0.1003;
-197.4000;0.2377;0.1003;
-197.1000;0.2450;0.1146;
-196.8000;0.2385;0.0955;
-196.5000;0.2369;0.0955;
-196.2000;0.2361;0.1003;
-195.9000;0.2393;0.1051;
-195.6000;0.2377;0.1051;
-195.3000;0.2377;0.1051;
-195.0000;0.2369;0.1003;
-194.7000;0.2377;0.1027;
-194.4000;0.2369;0.1027;
-194.1000;0.2328;0.0931;
-193.8000;0.2385;0.1170;
-193.5000;0.2377;0.1242;
-193.2000;0.2377;0.1170;
-192.9000;0.2369;0.1099;
-192.6000;0.2344;0.1003;
-192.3000;0.2361;0.1051;
-192.0000;0.2377;0.1170;
-191.7000;0.2377;0.1122;
-191.4000;0.2442;0.1266;
-191.1000;0.2393;0.1146;
-190.8000;0.2393;0.1146;
-190.5000;0.2369;0.1099;
-190.2000;0.2393;0.1075;
-189.9000;0.2377;0.0979;
-189.6000;0.2377;0.0955;
-189.3000;0.2401;0.1122;
-189.0000;0.2385;0.1218;
-188.7000;0.2377;0.1218;
-188.4000;0.2466;0.1505;
-188.1000;0.2352;0.1170;
-187.8000;0.2483;0.1385;
-187.5000;0.2377;0.1075;
-187.2000;0.2352;0.1027;
-186.9000;0.2475;0.1218;
-186.6000;0.2401;0.1027;
-186.3000;0.2377;0.1003;
-186.0000;0.2344;0.0979;
-185.7000;0.2393;0.1075;
-185.4000;0.2377;0.1099;
-185.1000;0.2377;0.1146;
-184.8000;0.2361;0.1075;
-184.5000;0.2377;0.1218;
-184.2000;0.2369;0.1218;
-183.9000;0.2393;0.1194;
-183.6000;0.2401;0.1218;
-183.3000;0.2352;0.1051;
-183.0000;0.2393;0.1099;
-182.7000;0.2418;0.1218;
-182.4000;0.2401;0.1122;
-182.1000;0.2393;0.1122;
-181.8000;0.2393;0.1146;
-181.5000;0.2361;0.1075;
-181.2000;0.2385;0.1170;
-180.9000;0.2434;0.1290;
-180.6000;0.2361;0.1075;
-180.3000;0.2369;0.1122;
-180.0000;0.2393;0.1075;
-179.7000;0.2393;0.1122;
-179.4000;0.2361;0.1027;
-179.1000;0.2377;0.1051;
-178.8000;0.2271;0.0884;
-178.5000;0.2377;0.1099;
-178.2000;0.2336;0.1075;
-177.9000;0.2385;0.1194;
-177.6000;0.2320;0.0955;
-177.3000;0.2361;0.1051;
-177.0000;0.2385;0.1170;
-176.7000;0.2385;0.1170;
-176.4000;0.2385;0.1218;
-176.1000;0.2377;0.1218;
-175.8000;0.2418;0.1314;
-175.5000;0.2393;0.1290;
-175.2000;0.2401;0.1242;
-174.9000;0.2393;0.1242;
-174.6000;0.2369;0.1218;
-174.3000;0.2385;0.1266;
-174.0000;0.2393;0.1290;
-173.7000;0.2377;0.1290;
-173.4000;0.2385;0.1218;
-173.1000;0.2377;0.1290;
-172.8000;0.2385;0.1457;
-172.5000;0.2377;0.1505;
-172.2000;0.2369;0.1409;
-171.9000;0.2304;0.1266;
-171.6000;0.2385;0.1457;
-171.3000;0.2377;0.1337;
-171.0000;0.2385;0.1314;
-170.7000;0.2247;0.0979;
-170.4000;0.2393;0.1337;
-170.1000;0.2393;0.1290;
-169.8000;0.2466;0.1409;
-169.5000;0.2377;0.1242;
-169.2000;0.2377;0.1290;
-168.9000;0.2377;0.1361;
-168.6000;0.2385;0.1314;
-168.3000;0.2361;0.1242;
-168.0000;0.2377;0.1242;
-167.7000;0.2385;0.1266;
-167.4000;0.2361;0.1170;
-167.1000;0.2385;0.1146;
-166.8000;0.2361;0.1122;
-166.5000;0.2377;0.1170;
-166.2000;0.2344;0.1122;
-165.9000;0.2377;0.1099;
-165.6000;0.2377;0.1122;
-165.3000;0.2393;0.1194;
-165.0000;0.2385;0.1170;
-164.7000;0.2401;0.1146;
-164.4000;0.2377;0.1075;
-164.1000;0.2426;0.1218;
-163.8000;0.2393;0.1218;
-163.5000;0.2361;0.1170;
-163.2000;0.2361;0.1242;
-162.9000;0.2385;0.1290;
-162.6000;0.2377;0.1218;
-162.3000;0.2361;0.1099;
-162.0000;0.2352;0.1051;
-161.7000;0.2385;0.1170;
-161.4000;0.2361;0.1146;
-161.1000;0.2377;0.1122;
-160.8000;0.2393;0.1146;
-160.5000;0.2393;0.1170;
-160.2000;0.2361;0.1099;
-159.9000;0.2385;0.1099;
-159.6000;0.2377;0.1075;
-159.3000;0.2352;0.1027;
-159.0000;0.2393;0.1194;
-158.7000;0.2344;0.1075;
-158.4000;0.2401;0.1266;
-158.1000;0.2369;0.1266;
-157.8000;0.2385;0.1337;
-157.5000;0.2393;0.1242;
-157.2000;0.2409;0.1337;
-156.9000;0.2377;0.1146;
-156.6000;0.2352;0.1122;
-156.3000;0.2369;0.1051;
-156.0000;0.2385;0.0955;
-155.7000;0.2393;0.0884;
-155.4000;0.2409;0.0931;
-155.1000;0.2418;0.0979;
-154.8000;0.2393;0.0931;
-154.5000;0.2401;0.0979;
-154.2000;0.2385;0.0931;
-153.9000;0.2401;0.0979;
-153.6000;0.2393;0.0931;
-153.3000;0.2401;0.1027;
-153.0000;0.2369;0.0931;
-152.7000;0.2385;0.0908;
-152.4000;0.2385;0.0979;
-152.1000;0.2401;0.1051;
-151.8000;0.2385;0.0979;
-151.5000;0.2377;0.0979;
-151.2000;0.2369;0.1099;
-150.9000;0.2393;0.1099;
-150.6000;0.2369;0.1122;
-150.3000;0.2385;0.1218;
-150.0000;0.2369;0.1218;
-149.7000;0.2393;0.1218;
-149.4000;0.2377;0.1218;
-149.1000;0.2369;0.1314;
-148.8000;0.2426;0.1457;
-148.5000;0.2369;0.1242;
-148.2000;0.2377;0.1314;
-147.9000;0.2336;0.1242;
-147.6000;0.2393;0.1385;
-147.3000;0.2377;0.1266;
-147.0000;0.2344;0.1027;
-146.7000;0.2377;0.1146;
-146.4000;0.2369;0.1242;
-146.1000;0.2369;0.1242;
-145.8000;0.2369;0.1266;
-145.5000;0.2369;0.1194;
-145.2000;0.2401;0.1290;
-144.9000;0.2393;0.1290;
-144.6000;0.2393;0.1314;
-144.3000;0.2401;0.1385;
-144.0000;0.2385;0.1385;
-143.7000;0.2385;0.1409;
-143.4000;0.2352;0.1218;
-143.1000;0.2361;0.1314;
-142.8000;0.2369;0.1314;
-142.5000;0.2426;0.1481;
-142.2000;0.2418;0.1457;
-141.9000;0.2385;0.1385;
-141.6000;0.2377;0.1385;
-141.3000;0.2369;0.1361;
-141.0000;0.2369;0.1314;
-140.7000;0.2393;0.1314;
-140.4000;0.2377;0.1314;
-140.1000;0.2401;0.1337;
-139.8000;0.2287;0.1075;
-139.5000;0.2385;0.1409;
-139.2000;0.2434;0.1481;
-138.9000;0.2393;0.1385;
-138.6000;0.2385;0.1361;
-138.3000;0.2393;0.1314;
-138.0000;0.2377;0.1218;
-137.7000;0.2279;0.0979;
-137.4000;0.2369;0.1194;
-137.1000;0.2393;0.1314;
-136.8000;0.2409;0.1290;
-136.5000;0.2377;0.1170;
-136.2000;0.2385;0.1146;
-135.9000;0.2361;0.1099;
-135.6000;0.2401;0.1146;
-135.3000;0.2361;0.1099;
-135.0000;0.2385;0.1099;
-134.7000;0.2361;0.0931;
-134.4000;0.2385;0.1027;
-134.1000;0.2361;0.0908;
-133.8000;0.2369;0.0979;
-133.5000;0.2377;0.1003;
-133.2000;0.2361;0.1003;
-132.9000;0.2377;0.1051;
-132.6000;0.2361;0.1003;
-132.3000;0.2369;0.1027;
-132.0000;0.2369;0.1051;
-131.7000;0.2377;0.1051;
-131.4000;0.2369;0.1075;
-131.1000;0.2369;0.1051;
-130.8000;0.2401;0.1075;
-130.5000;0.2369;0.1027;
-130.2000;0.2344;0.0931;
-129.9000;0.2377;0.1051;
-129.6000;0.2377;0.1003;
-129.3000;0.2393;0.1003;
-129.0000;0.2385;0.0931;
-128.7000;0.2369;0.1027;
-128.4000;0.2369;0.1170;
-128.1000;0.2458;0.1409;
-127.8000;0.2377;0.1146;
-127.5000;0.2377;0.1170;
-127.2000;0.2377;0.1218;
-126.9000;0.2377;0.1218;
-126.6000;0.2385;0.1218;
-126.3000;0.2377;0.1170;
-126.0000;0.2393;0.1122;
-125.7000;0.2393;0.1170;
-125.4000;0.2385;0.1122;
-125.1000;0.2377;0.1051;
-124.8000;0.2385;0.1122;
-124.5000;0.2385;0.1099;
-124.2000;0.2377;0.1146;
-123.9000;0.2352;0.1075;
-123.6000;0.2336;0.1003;
-123.3000;0.2393;0.1170;
-123.0000;0.2393;0.1170;
-122.7000;0.2385;0.1146;
-122.4000;0.2287;0.0955;
-122.1000;0.2377;0.1218;
-121.8000;0.2377;0.1266;
-121.5000;0.2377;0.1218;
-121.2000;0.2385;0.1385;
-120.9000;0.2369;0.1337;
-120.6000;0.2426;0.1409;
-120.3000;0.2385;0.1337;
-120.0000;0.2377;0.1337;
-119.7000;0.2361;0.1290;
-119.4000;0.2377;0.1266;
-119.1000;0.2361;0.1290;
-118.8000;0.2369;0.1242;
-118.5000;0.2385;0.1218;
-118.2000;0.2312;0.1099;
-117.9000;0.2401;0.1385;
-117.6000;0.2352;0.1242;
-117.3000;0.2466;0.1552;
-117.0000;0.2393;0.1290;
-116.7000;0.2304;0.1099;
-116.4000;0.2385;0.1266;
-116.1000;0.2418;0.1314;
-115.8000;0.2385;0.1122;
-115.5000;0.2295;0.0740;
-115.2000;0.2385;0.0931;
-114.9000;0.2328;0.0836;
-114.6000;0.2377;0.1075;
-114.3000;0.2369;0.1075;
-114.0000;0.2393;0.1099;
-113.7000;0.2377;0.1003;
-113.4000;0.2377;0.1027;
-113.1000;0.2369;0.1075;
-112.8000;0.2369;0.1075;
-112.5000;0.2377;0.1170;
-112.2000;0.2369;0.1218;
-111.9000;0.2369;0.1194;
-111.6000;0.2385;0.1170;
-111.3000;0.2361;0.1075;
-111.0000;0.2377;0.1146;
-110.7000;0.2369;0.1146;
-110.4000;0.2377;0.1242;
-110.1000;0.2369;0.1290;
-109.8000;0.2377;0.1266;
-109.5000;0.2377;0.1242;
-109.2000;0.2385;0.1194;
-108.9000;0.2369;0.1146;
-108.6000;0.2385;0.1242;
-108.3000;0.2385;0.1314;
-108.0000;0.2377;0.1409;
-107.7000;0.2393;0.1385;
-107.4000;0.2377;0.1337;
-107.1000;0.2361;0.1290;
-106.8000;0.2401;0.1385;
-106.5000;0.2401;0.1314;
-106.2000;0.2352;0.1146;
-105.9000;0.2361;0.1266;
-105.6000;0.2377;0.1361;
-105.3000;0.2377;0.1337;
-105.0000;0.2377;0.1314;
-104.7000;0.2369;0.1194;
-104.4000;0.2369;0.1242;
-104.1000;0.2401;0.1409;
-103.8000;0.2393;0.1290;
-103.5000;0.2369;0.1170;
-103.2000;0.2377;0.1194;
-102.9000;0.2377;0.1194;
-102.6000;0.2393;0.1170;
-102.3000;0.2401;0.1242;
-102.0000;0.2369;0.1122;
-101.7000;0.2458;0.1457;
-101.4000;0.2385;0.1266;
-101.1000;0.2377;0.1242;
-100.8000;0.2434;0.1433;
-100.5000;0.2361;0.1290;
-100.2000;0.2401;0.1290;
-99.9000;0.2377;0.1314;
-99.6000;0.2377;0.1337;
-99.3000;0.2369;0.1361;
-99.0000;0.2377;0.1290;
-98.7000;0.2393;0.1266;
-98.4000;0.2287;0.1075;
-98.1000;0.2385;0.1242;
-97.8000;0.2385;0.1337;
-97.5000;0.2377;0.1290;
-97.2000;0.2450;0.1409;
-96.9000;0.2369;0.1122;
-96.6000;0.2369;0.1122;
-96.3000;0.2426;0.1290;
-96.0000;0.2393;0.1242;
-95.7000;0.2369;0.1170;
-95.4000;0.2401;0.1266;
-95.1000;0.2377;0.1314;
-94.8000;0.2385;0.1266;
-94.5000;0.2369;0.1290;
-94.2000;0.2377;0.1337;
-93.9000;0.2377;0.1385;
-93.6000;0.2385;0.1361;
-93.3000;0.2336;0.1170;
-93.0000;0.2377;0.1242;
-92.7000;0.2369;0.1242;
-92.4000;0.2361;0.1266;
-92.1000;0.2295;0.1122;
-91.8000;0.2377;0.1290;
-91.5000;0.2328;0.1146;
-91.2000;0.2377;0.1361;
-90.9000;0.2369;0.1314;
-90.6000;0.2369;0.1218;
-90.3000;0.2369;0.1218;
-90.0000;0.2369;0.1194;
-89.7000;0.2369;0.1146;
-89.4000;0.2361;0.1099;
-89.1000;0.2393;0.1194;
-88.8000;0.2393;0.1242;
-88.5000;0.2393;0.1266;
-88.2000;0.2361;0.1218;
-87.9000;0.2352;0.1170;
-87.6000;0.2377;0.1314;
-87.3000;0.2361;0.1290;
-87.0000;0.2393;0.1409;
-86.7000;0.2401;0.1433;
-86.4000;0.2369;0.1361;
-86.1000;0.2377;0.1361;
-85.8000;0.2377;0.1290;
-85.5000;0.2361;0.1170;
-85.2000;0.2352;0.1194;
-84.9000;0.2377;0.1290;
-84.6000;0.2361;0.1218;
-84.3000;0.2352;0.1146;
-84.0000;0.2369;0.1218;
-83.7000;0.2377;0.1170;
-83.4000;0.2377;0.1075;
-83.1000;0.2361;0.1099;
-82.8000;0.2377;0.1218;
-82.5000;0.2401;0.1266;
-82.2000;0.2385;0.1266;
-81.9000;0.2352;0.1218;
-81.6000;0.2369;0.1242;
-81.3000;0.2385;0.1385;
-81.0000;0.2377;0.1409;
-80.7000;0.2369;0.1337;
-80.4000;0.2377;0.1361;
-80.1000;0.2361;0.1242;
-79.8000;0.2361;0.1266;
-79.5000;0.2369;0.1290;
-79.2000;0.2361;0.1266;
-78.9000;0.2369;0.1266;
-78.6000;0.2393;0.1385;
-78.3000;0.2377;0.1337;
-78.0000;0.2336;0.1194;
-77.7000;0.2361;0.1266;
-77.4000;0.2409;0.1337;
-77.1000;0.2369;0.1242;
-76.8000;0.2369;0.1290;
-76.5000;0.2361;0.1314;
-76.2000;0.2385;0.1361;
-75.9000;0.2393;0.1433;
-75.6000;0.2393;0.1385;
-75.3000;0.2369;0.1242;
-75.0000;0.2369;0.1242;
-74.7000;0.2361;0.1290;
-74.4000;0.2377;0.1266;
-74.1000;0.2352;0.1146;
-73.8000;0.2385;0.1146;
-73.5000;0.2279;0.0860;
-73.2000;0.2369;0.1242;
-72.9000;0.2369;0.1242;
-72.6000;0.2369;0.1242;
-72.3000;0.2393;0.1361;
-72.0000;0.2385;0.1337;
-71.7000;0.2377;0.1266;
-71.4000;0.2271;0.1003;
-71.1000;0.2377;0.1242;
-70.8000;0.2458;0.1457;
-70.5000;0.2369;0.1242;
-70.2000;0.2385;0.1290;
-69.9000;0.2369;0.1194;
-69.6000;0.2369;0.1170;
-69.3000;0.2377;0.1242;
-69.0000;0.2369;0.1266;
-68.7000;0.2385;0.1290;
-68.4000;0.2377;0.1170;
-68.1000;0.2369;0.1290;
-67.8000;0.2442;0.1433;
-67.5000;0.2352;0.1242;
-67.2000;0.2385;0.1385;
-66.9000;0.2336;0.1290;
-66.6000;0.2385;0.1385;
-66.3000;0.2426;0.1457;
-66.0000;0.2442;0.1576;
-65.7000;0.2377;0.1409;
-65.4000;0.2458;0.1624;
-65.1000;0.2385;0.1385;
-64.8000;0.2361;0.1314;
-64.5000;0.2385;0.1290;
-64.2000;0.2352;0.1218;
-63.9000;0.2369;0.1337;
-63.6000;0.2369;0.1409;
-63.3000;0.2352;0.1361;
-63.0000;0.2361;0.1409;
-62.7000;0.2475;0.1576;
-62.4000;0.2263;0.1051;
-62.1000;0.2450;0.1481;
-61.8000;0.2401;0.1361;
-61.5000;0.2393;0.1242;
-61.2000;0.2369;0.1266;
-60.9000;0.2377;0.1290;
-60.6000;0.2385;0.1194;
-60.3000;0.2369;0.1099;
-60.0000;0.2320;0.1051;
-59.7000;0.2369;0.1170;
-59.4000;0.2377;0.1194;
-59.1000;0.2385;0.1242;
-58.8000;0.2352;0.1170;
-58.5000;0.2393;0.1218;
-58.2000;0.2377;0.1146;
-57.9000;0.2385;0.1218;
-57.6000;0.2361;0.1170;
-57.3000;0.2369;0.1218;
-57.0000;0.2385;0.1314;
-56.7000;0.2385;0.1337;
-56.4000;0.2361;0.1290;
-56.1000;0.2377;0.1266;
-55.8000;0.2385;0.1194;
-55.5000;0.2401;0.1170;
-55.2000;0.2385;0.1194;
-54.9000;0.2369;0.1146;
-54.6000;0.2369;0.1146;
-54.3000;0.2369;0.1099;
-54.0000;0.2385;0.1146;
-53.7000;0.2377;0.1194;
-53.4000;0.2369;0.1194;
-53.1000;0.2377;0.1314;
-52.8000;0.2377;0.1361;
-52.5000;0.2393;0.1433;
-52.2000;0.2377;0.1361;
-51.9000;0.2377;0.1242;
-51.6000;0.2352;0.1122;
-51.3000;0.2377;0.1122;
-51.0000;0.2393;0.1218;
-50.7000;0.2442;0.1385;
-50.4000;0.2361;0.1170;
-50.1000;0.2361;0.1242;
-49.8000;0.2377;0.1194;
-49.5000;0.2418;0.1218;
-49.2000;0.2385;0.1194;
-48.9000;0.2385;0.1218;
-48.6000;0.2336;0.1122;
-48.3000;0.2361;0.1170;
-48.0000;0.2377;0.1218;
-47.7000;0.2401;0.1409;
-47.4000;0.2361;0.1290;
-47.1000;0.2377;0.1170;
-46.8000;0.2385;0.1242;
-46.5000;0.2377;0.1266;
-46.2000;0.2377;0.1218;
-45.9000;0.2336;0.1170;
-45.6000;0.2385;0.1409;
-45.3000;0.2369;0.1385;
-45.0000;0.2377;0.1385;
-44.7000;0.2320;0.1242;
-44.4000;0.2393;0.1457;
-44.1000;0.2336;0.1314;
-43.8000;0.2442;0.1505;
-43.5000;0.2328;0.1194;
-43.2000;0.2377;0.1290;
-42.9000;0.2393;0.1242;
-42.6000;0.2393;0.1218;
-42.3000;0.2409;0.1290;
-42.0000;0.2352;0.1194;
-41.7000;0.2393;0.1385;
-41.4000;0.2385;0.1361;
-41.1000;0.2385;0.1409;
-40.8000;0.2377;0.1409;
-40.5000;0.2385;0.1481;
-40.2000;0.2344;0.1314;
-39.9000;0.2352;0.1290;
-39.6000;0.2352;0.1194;
-39.3000;0.2352;0.1146;
-39.0000;0.2393;0.1218;
-38.7000;0.2393;0.1290;
-38.4000;0.2385;0.1314;
-38.1000;0.2377;0.1194;
-37.8000;0.2328;0.1099;
-37.5000;0.2385;0.1242;
-37.2000;0.2369;0.1194;
-36.9000;0.2320;0.0979;
-36.6000;0.2377;0.1075;
-36.3000;0.2385;0.1075;
-36.0000;0.2434;0.1314;
-35.7000;0.2369;0.1075;
-35.4000;0.2385;0.1075;
-35.1000;0.2377;0.1027;
-34.8000;0.2369;0.1027;
-34.5000;0.2377;0.1170;
-34.2000;0.2369;0.1194;
-33.9000;0.2434;0.1433;
-33.6000;0.2361;0.1242;
-33.3000;0.2377;0.1146;
-33.0000;0.2385;0.1099;
-32.7000;0.2369;0.0955;
-32.4000;0.2385;0.1075;
-32.1000;0.2369;0.1051;
-31.8000;0.2442;0.1242;
-31.5000;0.2393;0.1146;
-31.2000;0.2393;0.1266;
-30.9000;0.2401;0.1337;
-30.6000;0.2409;0.1361;
-30.3000;0.2312;0.1194;
-30.0000;0.2377;0.1337;
-29.7000;0.2385;0.1337;
-29.4000;0.2295;0.1003;
-29.1000;0.2401;0.1290;
-28.8000;0.2361;0.1146;
-28.5000;0.2434;0.1266;
-28.2000;0.2377;0.1122;
-27.9000;0.2369;0.1146;
-27.6000;0.2385;0.1266;
-27.3000;0.2377;0.1170;
-27.0000;0.2377;0.1099;
-26.7000;0.2361;0.0908;
-26.4000;0.2458;0.1170;
-26.1000;0.2385;0.0979;
-25.8000;0.2393;0.1027;
-25.5000;0.2377;0.1051;
-25.2000;0.2401;0.1099;
-24.9000;0.2377;0.1027;
-24.6000;0.2401;0.1051;
-24.3000;0.2377;0.1027;
-24.0000;0.2377;0.1122;
-23.7000;0.2377;0.1146;
-23.4000;0.2393;0.1266;
-23.1000;0.2377;0.1266;
-22.8000;0.2377;0.1218;
-22.5000;0.2401;0.1290;
-22.2000;0.2385;0.1218;
-21.9000;0.2377;0.1314;
-21.6000;0.2385;0.1385;
-21.3000;0.2393;0.1457;
-21.0000;0.2499;0.1743;
-20.7000;0.2328;0.1314;
-20.4000;0.2385;0.1409;
-20.1000;0.2377;0.1314;
-19.8000;0.2377;0.1314;
-19.5000;0.2369;0.1337;
-19.2000;0.2385;0.1290;
-18.9000;0.2393;0.1170;
-18.6000;0.2393;0.1146;
-18.3000;0.2361;0.1075;
-18.0000;0.2361;0.1122;
-17.7000;0.2385;0.1218;
-17.4000;0.2385;0.1266;
-17.1000;0.2377;0.1266;
-16.8000;0.2385;0.1314;
-16.5000;0.2377;0.1314;
-16.2000;0.2369;0.1242;
-15.9000;0.2377;0.1290;
-15.6000;0.2385;0.1242;
-15.3000;0.2369;0.1218;
-15.0000;0.2377;0.1266;
-14.7000;0.2369;0.1361;
-14.4000;0.2385;0.1385;
-14.1000;0.2369;0.1385;
-13.8000;0.2352;0.1314;
-13.5000;0.2352;0.1218;
-13.2000;0.2377;0.1146;
-12.9000;0.2352;0.1075;
-12.6000;0.2385;0.1194;
-12.3000;0.2369;0.1146;
-12.0000;0.2401;0.1194;
-11.7000;0.2377;0.1051;
-11.4000;0.2377;0.1027;
-11.1000;0.2393;0.1051;
-10.8000;0.2393;0.1099;
-10.5000;0.2401;0.1146;
-10.2000;0.2369;0.1099;
-9.9000;0.2377;0.1099;
-9.6000;0.2385;0.1146;
-9.3000;0.2409;0.1218;
-9.0000;0.2385;0.1242;
-8.7000;0.2369;0.1194;
-8.4000;0.2352;0.1099;
-8.1000;0.2369;0.1099;
-7.8000;0.2369;0.1099;
-7.5000;0.2361;0.1122;
-7.2000;0.2369;0.1170;
-6.9000;0.2352;0.1170;
-6.6000;0.2393;0.1290;
-6.3000;0.2304;0.1099;
-6.0000;0.2385;0.1290;
-5.7000;0.2385;0.1290;
-5.4000;0.2409;0.1242;
-5.1000;0.2377;0.1122;
-4.8000;0.2385;0.1146;
-4.5000;0.2393;0.1170;
-4.2000;0.2426;0.1194;
-3.9000;0.2377;0.1122;
-3.6000;0.2369;0.1075;
-3.3000;0.2369;0.1027;
-3.0000;0.2377;0.1099;
-2.7000;0.2344;0.0955;
-2.4000;0.2369;0.1027;
-2.1000;0.2361;0.1027;
-1.8000;0.2401;0.1075;
-1.5000;0.2393;0.1170;
-1.2000;0.2385;0.1266;
-0.9000;0.2377;0.1194;
-0.6000;0.2426;0.1337;
-0.3000;0.2393;0.1290;
0.0000;0.2393;0.1290;
0.3000;0.2393;0.1409;
0.6000;0.2369;0.1314;
0.9000;0.2361;0.1290;
1.2000;0.2369;0.1290;
1.5000;0.2369;0.1290;
1.8000;0.2369;0.1361;
2.1000;0.2385;0.1433;
2.4000;0.2369;0.1409;
2.7000;0.2352;0.1433;
3.0000;0.2369;0.1505;
3.3000;0.2393;0.1576;
3.6000;0.2361;0.1552;
3.9000;0.2361;0.1624;
4.2000;0.2434;0.1815;
4.5000;0.2361;0.1672;
4.8000;0.2377;0.1743;
5.1000;0.2377;0.1720;
5.4000;0.2377;0.1672;
5.7000;0.2393;0.1672;
6.0000;0.2377;0.1648;
6.3000;0.2369;0.1624;
6.6000;0.2369;0.1720;
6.9000;0.2377;0.1815;
7.2000;0.2377;0.1791;
7.5000;0.2361;0.1743;
7.8000;0.2369;0.1672;
8.1000;0.2361;0.1767;
8.4000;0.2385;0.1911;
8.7000;0.2475;0.2149;
9.0000;0.2361;0.1791;
9.3000;0.2377;0.1815;
9.6000;0.2369;0.1815;
9.9000;0.2377;0.1911;
10.2000;0.2377;0.1982;
10.5000;0.2336;0.1934;
10.8000;0.2377;0.1958;
11.1000;0.2369;0.1958;
11.4000;0.2361;0.1958;
11.7000;0.2352;0.1934;
12.0000;0.2369;0.2006;
12.3000;0.2361;0.1958;
12.6000;0.2377;0.2102;
12.9000;0.2287;0.1791;
13.2000;0.2361;0.1934;
13.5000;0.2361;0.1958;
13.8000;0.2377;0.1839;
14.1000;0.2377;0.1791;
14.4000;0.2328;0.1720;
14.7000;0.2377;0.1887;
15.0000;0.2369;0.1839;
15.3000;0.2336;0.1815;
15.6000;0.2361;0.1863;
15.9000;0.2352;0.1863;
16.2000;0.2336;0.1839;
16.5000;0.2401;0.1958;
16.8000;0.2352;0.1839;
17.1000;0.2361;0.1863;
17.4000;0.2377;0.1958;
17.7000;0.2344;0.1958;
18.0000;0.2369;0.1982;
18.3000;0.2418;0.2126;
18.6000;0.2328;0.1911;
18.9000;0.2385;0.2078;
19.2000;0.2361;0.1958;
19.5000;0.2401;0.2078;
19.8000;0.2377;0.1934;
20.1000;0.2361;0.1911;
20.4000;0.2369;0.1863;
20.7000;0.2361;0.1815;
21.0000;0.2361;0.1791;
21.3000;0.2369;0.1791;
21.6000;0.2385;0.1863;
21.9000;0.2263;0.1600;
22.2000;0.2352;0.1839;
22.5000;0.2369;0.1887;
22.8000;0.2361;0.1887;
23.1000;0.2361;0.1958;
23.4000;0.2377;0.2054;
23.7000;0.2361;0.2054;
24.0000;0.2361;0.2078;
24.3000;0.2361;0.2078;
24.6000;0.2361;0.2078;
24.9000;0.2344;0.2078;
25.2000;0.2361;0.2030;
25.5000;0.2361;0.2006;
25.8000;0.2361;0.2078;
26.1000;0.2361;0.2102;
26.4000;0.2361;0.2078;
26.7000;0.2369;0.2078;
27.0000;0.2344;0.1982;
27.3000;0.2361;0.1982;
27.6000;0.2352;0.1982;
27.9000;0.2361;0.1982;
28.2000;0.2377;0.2006;
28.5000;0.2352;0.1887;
28.8000;0.2377;0.1982;
29.1000;0.2369;0.2006;
29.4000;0.2361;0.2006;
29.7000;0.2352;0.1982;
30.0000;0.2369;0.1982;
30.3000;0.2352;0.1839;
30.6000;0.2361;0.1839;
30.9000;0.2369;0.1839;
31.2000;0.2361;0.1887;
31.5000;0.2352;0.1839;
31.8000;0.2361;0.1839;
32.1000;0.2344;0.1863;
32.4000;0.2369;0.1934;
32.7000;0.2409;0.1982;
33.0000;0.2361;0.1911;
33.3000;0.2369;0.1887;
33.6000;0.2361;0.1791;
33.9000;0.2361;0.1791;
34.2000;0.2352;0.1791;
34.5000;0.2361;0.1863;
34.8000;0.2369;0.1815;
35.1000;0.2369;0.1958;
35.4000;0.2352;0.1934;
35.7000;0.2361;0.1958;
36.0000;0.2369;0.2030;
36.3000;0.2369;0.2054;
36.6000;0.2377;0.2078;
36.9000;0.2336;0.1982;
37.2000;0.2344;0.1982;
37.5000;0.2369;0.1982;
37.8000;0.2344;0.1911;
38.1000;0.2458;0.2245;
38.4000;0.2377;0.1982;
38.7000;0.2336;0.1839;
39.0000;0.2352;0.1863;
39.3000;0.2361;0.1887;
39.6000;0.2361;0.1863;
39.9000;0.2352;0.1743;
40.2000;0.2279;0.1528;
40.5000;0.2328;0.1720;
40.8000;0.2369;0.1791;
41.1000;0.2475;0.2030;
41.4000;0.2361;0.1791;
41.7000;0.2352;0.1863;
42.0000;0.2361;0.1958;
42.3000;0.2336;0.1815;
42.6000;0.2312;0.1672;
42.9000;0.2369;0.1815;
43.2000;0.2426;0.1958;
43.5000;0.2344;0.1791;
43.8000;0.2344;0.1887;
44.1000;0.2352;0.1911;
44.4000;0.2344;0.1887;
44.7000;0.2409;0.2054;
45.0000;0.2361;0.1911;
45.3000;0.2271;0.1672;
45.6000;0.2352;0.1839;
45.9000;0.2426;0.1934;
46.2000;0.2352;0.1720;
46.5000;0.2369;0.1791;
46.8000;0.2255;0.1505;
47.1000;0.2352;0.1743;
47.4000;0.2336;0.1672;
47.7000;0.2352;0.1672;
48.0000;0.2426;0.1863;
48.3000;0.2361;0.1720;
48.6000;0.2352;0.1696;
48.9000;0.2377;0.1767;
49.2000;0.2279;0.1505;
49.5000;0.2320;0.1600;
49.8000;0.2377;0.1696;
50.1000;0.2344;0.1696;
50.4000;0.2369;0.1791;
50.7000;0.2361;0.1720;
51.0000;0.2352;0.1791;
51.3000;0.2385;0.1887;
51.6000;0.2369;0.1863;
51.9000;0.2385;0.1863;
52.2000;0.2369;0.1887;
52.5000;0.2369;0.1839;
52.8000;0.2344;0.1743;
53.1000;0.2369;0.1720;
53.4000;0.2385;0.1720;
53.7000;0.2344;0.1767;
54.0000;0.2361;0.1815;
54.3000;0.2361;0.1743;
54.6000;0.2361;0.1791;
54.9000;0.2361;0.1720;
55.2000;0.2361;0.1648;
55.5000;0.2369;0.1696;
55.8000;0.2369;0.1791;
56.1000;0.2450;0.2102;
56.4000;0.2352;0.1815;
56.7000;0.2377;0.1791;
57.0000;0.2401;0.1911;
57.3000;0.2369;0.1791;
57.6000;0.2426;0.1982;
57.9000;0.2475;0.2173;
58.2000;0.2336;0.1839;
58.5000;0.2377;0.1887;
58.8000;0.2377;0.1887;
59.1000;0.2352;0.1911;
59.4000;0.2377;0.1934;
59.7000;0.2361;0.1863;
60.0000;0.2328;0.1767;
60.3000;0.2361;0.1887;
60.6000;0.2287;0.1720;
60.9000;0.2361;0.1934;
61.2000;0.2369;0.2030;
61.5000;0.2344;0.2030;
61.8000;0.2361;0.1958;
62.1000;0.2377;0.1958;
62.4000;0.2377;0.1934;
62.7000;0.2369;0.1863;
63.0000;0.2361;0.1934;
63.3000;0.2393;0.2054;
63.6000;0.2369;0.2030;
63.9000;0.2369;0.1958;
64.2000;0.2336;0.1887;
64.5000;0.2377;0.1934;
64.8000;0.2401;0.2054;
65.1000;0.2369;0.1958;
65.4000;0.2369;0.1911;
65.7000;0.2336;0.1815;
66.0000;0.2377;0.1839;
66.3000;0.2377;0.1815;
66.6000;0.2352;0.1767;
66.9000;0.2361;0.1696;
67.2000;0.2344;0.1672;
67.5000;0.2409;0.1839;
67.8000;0.2361;0.1839;
68.1000;0.2361;0.1887;
68.4000;0.2377;0.1839;
68.7000;0.2352;0.1815;
69.0000;0.2344;0.1911;
69.3000;0.2352;0.1958;
69.6000;0.2352;0.2006;
69.9000;0.2352;0.1982;
70.2000;0.2369;0.1934;
70.5000;0.2344;0.1934;
70.8000;0.2361;0.1911;
71.1000;0.2369;0.1982;
71.4000;0.2393;0.1982;
71.7000;0.2361;0.1839;
72.0000;0.2295;0.1767;
72.3000;0.2320;0.1839;
72.6000;0.2352;0.1815;
72.9000;0.2361;0.1863;
73.2000;0.2369;0.1911;
73.5000;0.2369;0.1863;
73.8000;0.2377;0.1911;
74.1000;0.2344;0.1839;
74.4000;0.2344;0.1720;
74.7000;0.2361;0.1767;
75.0000;0.2377;0.1934;
75.3000;0.2361;0.1839;
75.6000;0.2344;0.1791;
75.9000;0.2336;0.1743;
76.2000;0.2361;0.1911;
76.5000;0.2344;0.1887;
76.8000;0.2352;0.1934;
77.1000;0.2361;0.1934;
77.4000;0.2377;0.1934;
77.7000;0.2344;0.1934;
78.0000;0.2328;0.2006;
78.3000;0.2361;0.2030;
78.6000;0.2369;0.2078;
78.9000;0.2320;0.1958;
79.2000;0.2344;0.1958;
79.5000;0.2344;0.1863;
79.8000;0.2230;0.1528;
80.1000;0.2377;0.1982;
80.4000;0.2336;0.1839;
80.7000;0.2369;0.1863;
81.0000;0.2352;0.1839;
81.3000;0.2352;0.1863;
81.6000;0.2361;0.1911;
81.9000;0.2336;0.1839;
82.2000;0.2361;0.1911;
82.5000;0.2352;0.1911;
82.8000;0.2336;0.1958;
83.1000;0.2361;0.1982;
83.4000;0.2369;0.1934;
83.7000;0.2336;0.1911;
84.0000;0.2336;0.1911;
84.3000;0.2320;0.1839;
84.6000;0.2352;0.1839;
84.9000;0.2361;0.1863;
85.2000;0.2336;0.1767;
85.5000;0.2409;0.1887;
85.8000;0.2344;0.1791;
86.1000;0.2369;0.1767;
86.4000;0.2491;0.2030;
86.7000;0.2279;0.1481;
87.0000;0.2344;0.1648;
87.3000;0.2385;0.1791;
87.6000;0.2239;0.1433;
87.9000;0.2377;0.1696;
88.2000;0.2409;0.1815;
88.5000;0.2369;0.1743;
88.8000;0.2361;0.1767;
89.1000;0.2247;0.1505;
89.4000;0.2409;0.1839;
89.7000;0.2426;0.1863;
90.0000;0.2369;0.1767;
90.3000;0.2352;0.1720;
90.6000;0.2361;0.1743;
90.9000;0.2369;0.1791;
91.2000;0.2369;0.1767;
91.5000;0.2377;0.1911;
91.8000;0.2312;0.1743;
92.1000;0.2352;0.1720;
92.4000;0.2369;0.1767;
92.7000;0.2377;0.1791;
93.0000;0.2328;0.1743;
93.3000;0.2361;0.1887;
93.6000;0.2361;0.1767;
93.9000;0.2361;0.1767;
94.2000;0.2377;0.1815;
94.5000;0.2385;0.1839;
94.8000;0.2361;0.1720;
95.1000;0.2361;0.1696;
95.4000;0.2344;0.1600;
95.7000;0.2361;0.1648;
96.0000;0.2320;0.1600;
96.3000;0.2361;0.1600;
96.6000;0.2336;0.1552;
96.9000;0.2352;0.1576;
97.2000;0.2361;0.1600;
97.5000;0.2344;0.1720;
97.8000;0.2361;0.1743;
98.1000;0.2344;0.1648;
98.4000;0.2336;0.1576;
98.7000;0.2352;0.1576;
99.0000;0.2361;0.1672;
99.3000;0.2344;0.1696;
99.6000;0.2352;0.1743;
99.9000;0.2304;0.1624;
100.2000;0.2352;0.1720;
100.5000;0.2344;0.1672;
100.8000;0.2336;0.1720;
101.1000;0.2385;0.1887;
101.4000;0.2352;0.1911;
101.7000;0.2426;0.2102;
102.0000;0.2361;0.1887;
102.3000;0.2344;0.1887;
102.6000;0.2352;0.1839;
102.9000;0.2352;0.1911;
103.2000;0.2361;0.1863;
103.5000;0.2361;0.1887;
103.8000;0.2344;0.1839;
104.1000;0.2344;0.1767;
104.4000;0.2336;0.1743;
104.7000;0.2336;0.1815;
105.0000;0.2426;0.1982;
105.3000;0.2344;0.1791;
105.6000;0.2361;0.1887;
105.9000;0.2336;0.1839;
106.2000;0.2352;0.2006;
106.5000;0.2377;0.1982;
106.8000;0.2369;0.1887;
107.1000;0.2344;0.1887;
107.4000;0.2352;0.1911;
107.7000;0.2361;0.1934;
108.0000;0.2385;0.2078;
108.3000;0.2385;0.2078;
108.6000;0.2352;0.2030;
108.9000;0.2344;0.2006;
109.2000;0.2361;0.1982;
109.5000;0.2361;0.1982;
109.8000;0.2352;0.1958;
110.1000;0.2352;0.1934;
110.4000;0.2393;0.2102;
110.7000;0.2352;0.1982;
111.0000;0.2352;0.1911;
111.3000;0.2377;0.1958;
111.6000;0.2418;0.2078;
111.9000;0.2361;0.2030;
112.2000;0.2344;0.2078;
112.5000;0.2377;0.2149;
112.8000;0.2336;0.1958;
113.1000;0.2336;0.1911;
113.4000;0.2401;0.2054;
113.7000;0.2458;0.2149;
114.0000;0.2361;0.1934;
114.3000;0.2344;0.1839;
114.6000;0.2377;0.1887;
114.9000;0.2312;0.1648;
115.2000;0.2352;0.1720;
115.5000;0.2336;0.1624;
115.8000;0.2344;0.1505;
116.1000;0.2328;0.1505;
116.4000;0.2328;0.1576;
116.7000;0.2344;0.1720;
117.0000;0.2344;0.1720;
117.3000;0.2336;0.1791;
117.6000;0.2352;0.1791;
117.9000;0.2328;0.1600;
118.2000;0.2361;0.1767;
118.5000;0.2361;0.1720;
118.8000;0.2361;0.1648;
119.1000;0.2369;0.1672;
119.4000;0.2369;0.1672;
119.7000;0.2377;0.1720;
120.0000;0.2352;0.1767;
120.3000;0.2352;0.1743;
120.6000;0.2352;0.1815;
120.9000;0.2385;0.1958;
121.2000;0.2352;0.1887;
121.5000;0.2361;0.1934;
121.8000;0.2361;0.1911;
122.1000;0.2361;0.1911;
122.4000;0.2369;0.1911;
122.7000;0.2369;0.1887;
123.0000;0.2361;0.1958;
123.3000;0.2369;0.1934;
123.6000;0.2344;0.1911;
123.9000;0.2361;0.1934;
124.2000;0.2377;0.1958;
124.5000;0.2369;0.2030;
124.8000;0.2361;0.1982;
125.1000;0.2344;0.1887;
125.4000;0.2369;0.2006;
125.7000;0.2336;0.1934;
126.0000;0.2344;0.1887;
126.3000;0.2336;0.1815;
126.6000;0.2336;0.1863;
126.9000;0.2344;0.1863;
127.2000;0.2344;0.1887;
127.5000;0.2320;0.1815;
127.8000;0.2336;0.1863;
128.1000;0.2336;0.1863;
128.4000;0.2369;0.1887;
128.7000;0.2361;0.1887;
129.0000;0.2377;0.1934;
129.3000;0.2352;0.1791;
129.6000;0.2344;0.1839;
129.9000;0.2377;0.1887;
130.2000;0.2377;0.1887;
130.5000;0.2369;0.1815;
130.8000;0.2352;0.1839;
131.1000;0.2312;0.1767;
131.4000;0.2377;0.1863;
131.7000;0.2336;0.1791;
132.0000;0.2352;0.1839;
132.3000;0.2361;0.1958;
132.6000;0.2369;0.2006;
132.9000;0.2352;0.1934;
133.2000;0.2352;0.1887;
133.5000;0.2352;0.1982;
133.8000;0.2361;0.2030;
134.1000;0.2361;0.2054;
134.4000;0.2361;0.2006;
134.7000;0.2377;0.1982;
135.0000;0.2377;0.1982;
135.3000;0.2369;0.2006;
135.6000;0.2401;0.2102;
135.9000;0.2328;0.1958;
136.2000;0.2336;0.2006;
136.5000;0.2295;0.1934;
136.8000;0.2336;0.2054;
137.1000;0.2352;0.2102;
137.4000;0.2361;0.2126;
137.7000;0.2344;0.2126;
138.0000;0.2369;0.2054;
138.3000;0.2336;0.2006;
138.6000;0.2295;0.1863;
138.9000;0.2336;0.1958;
139.2000;0.2344;0.2006;
139.5000;0.2344;0.2006;
139.8000;0.2255;0.1648;
140.1000;0.2344;0.1863;
140.4000;0.2352;0.1839;
140.7000;0.2361;0.1863;
141.0000;0.2344;0.1791;
141.3000;0.2352;0.1839;
141.6000;0.2344;0.1911;
141.9000;0.2361;0.1982;
142.2000;0.2336;0.1958;
142.5000;0.2401;0.2149;
142.8000;0.2336;0.1934;
143.1000;0.2328;0.1863;
143.4000;0.2352;0.1911;
143.7000;0.2328;0.1911;
144.0000;0.2336;0.2006;
144.3000;0.2369;0.2030;
144.6000;0.2352;0.2030;
144.9000;0.2361;0.2078;
145.2000;0.2352;0.2126;
145.5000;0.2352;0.2197;
145.8000;0.2361;0.2245;
146.1000;0.2361;0.2221;
146.4000;0.2352;0.2149;
146.7000;0.2352;0.2102;
147.0000;0.2320;0.2078;
147.3000;0.2426;0.2388;
147.6000;0.2385;0.2173;
147.9000;0.2361;0.2126;
148.2000;0.2336;0.2006;
148.5000;0.2344;0.1982;
148.8000;0.2352;0.1863;
149.1000;0.2393;0.1934;
149.4000;0.2369;0.1934;
149.7000;0.2377;0.1911;
150.0000;0.2352;0.1887;
150.3000;0.2442;0.2245;
150.6000;0.2320;0.1911;
150.9000;0.2361;0.2078;
151.2000;0.2344;0.1982;
151.5000;0.2352;0.1958;
151.8000;0.2393;0.2054;
152.1000;0.2344;0.1934;
152.4000;0.2328;0.1863;
152.7000;0.2352;0.1887;
153.0000;0.2352;0.1911;
153.3000;0.2418;0.2102;
153.6000;0.2336;0.1887;
153.9000;0.2336;0.1815;
154.2000;0.2361;0.1934;
154.5000;0.2369;0.1958;
154.8000;0.2336;0.1839;
155.1000;0.2352;0.1934;
155.4000;0.2369;0.1982;
155.7000;0.2385;0.2030;
156.0000;0.2377;0.1982;
156.3000;0.2361;0.2030;
156.6000;0.2369;0.1958;
156.9000;0.2369;0.1934;
157.2000;0.2361;0.2006;
157.5000;0.2336;0.1911;
157.8000;0.2344;0.1887;
158.1000;0.2361;0.1911;
158.4000;0.2352;0.1743;
158.7000;0.2393;0.1815;
159.0000;0.2393;0.1839;
159.3000;0.2344;0.1743;
159.6000;0.2352;0.1815;
159.9000;0.2352;0.1815;
160.2000;0.2328;0.1815;
160.5000;0.2369;0.1958;
160.8000;0.2361;0.1958;
161.1000;0.2312;0.1839;
161.4000;0.2385;0.2030;
161.7000;0.2361;0.1934;
162.0000;0.2369;0.1982;
162.3000;0.2295;0.1791;
162.6000;0.2344;0.1887;
162.9000;0.2361;0.1887;
163.2000;0.2377;0.1911;
163.5000;0.2352;0.1815;
163.8000;0.2361;0.1887;
164.1000;0.2352;0.1839;
164.4000;0.2336;0.1815;
164.7000;0.2361;0.1791;
165.0000;0.2361;0.1839;
165.3000;0.2352;0.1815;
165.6000;0.2369;0.1863;
165.9000;0.2442;0.2006;
166.2000;0.2361;0.1815;
166.5000;0.2344;0.1767;
166.8000;0.2377;0.1767;
167.1000;0.2369;0.1791;
167.4000;0.2352;0.1720;
167.7000;0.2344;0.1815;
168.0000;0.2352;0.1839;
168.3000;0.2361;0.1839;
168.6000;0.2352;0.1815;
168.9000;0.2361;0.1720;
169.2000;0.2352;0.1743;
169.5000;0.2377;0.1767;
169.8000;0.2377;0.1791;
170.1000;0.2361;0.1696;
170.4000;0.2352;0.1624;
170.7000;0.2352;0.1600;
171.0000;0.2328;0.1600;
171.3000;0.2361;0.1648;
171.6000;0.2304;0.1481;
171.9000;0.2418;0.1743;
172.2000;0.2352;0.1600;
172.5000;0.2344;0.1552;
172.8000;0.2312;0.1481;
173.1000;0.2304;0.1433;
173.4000;0.2336;0.1481;
173.7000;0.2304;0.1361;
174.0000;0.2344;0.1505;
174.3000;0.2336;0.1505;
174.6000;0.2369;0.1576;
174.9000;0.2344;0.1552;
175.2000;0.2442;0.1911;
175.5000;0.2352;0.1696;
175.8000;0.2491;0.2126;
176.1000;0.2369;0.1863;
176.4000;0.2369;0.1934;
176.7000;0.2312;0.1720;
177.0000;0.2361;0.1839;
177.3000;0.2352;0.1743;
177.6000;0.2336;0.1743;
177.9000;0.2352;0.1743;
178.2000;0.2336;0.1696;
178.5000;0.2344;0.1767;
178.8000;0.2352;0.1863;
179.1000;0.2328;0.1815;
179.4000;0.2361;0.1934;
179.7000;0.2352;0.1863;
180.0000;0.2361;0.1934;
180.3000;0.2352;0.1887;
180.6000;0.2369;0.1911;
180.9000;0.2295;0.1767;
181.2000;0.2320;0.1815;
181.5000;0.2304;0.1672;
181.8000;0.2336;0.1624;
182.1000;0.2287;0.1528;
182.4000;0.2401;0.1815;
182.7000;0.2328;0.1552;
183.0000;0.2344;0.1576;
183.3000;0.2344;0.1600;
183.6000;0.2361;0.1672;
183.9000;0.2279;0.1457;
184.2000;0.2336;0.1696;
184.5000;0.2336;0.1672;
184.8000;0.2361;0.1672;
185.1000;0.2263;0.1385;
185.4000;0.2369;0.1648;
185.7000;0.2328;0.1528;
186.0000;0.2361;0.1552;
186.3000;0.2263;0.1290;
186.6000;0.2336;0.1552;
186.9000;0.2361;0.1600;
187.2000;0.2352;0.1648;
187.5000;0.2385;0.1648;
187.8000;0.2352;0.1600;
188.1000;0.2352;0.1600;
188.4000;0.2352;0.1552;
188.7000;0.2352;0.1600;
189.0000;0.2361;0.1600;
189.3000;0.2344;0.1576;
189.6000;0.2336;0.1624;
189.9000;0.2336;0.1672;
190.2000;0.2344;0.1791;
190.5000;0.2352;0.1815;
190.8000;0.2344;0.1839;
191.1000;0.2361;0.1791;
191.4000;0.2352;0.1815;
191.7000;0.2336;0.1791;
192.0000;0.2361;0.1839;
192.3000;0.2304;0.1743;
192.6000;0.2361;0.1887;
192.9000;0.2336;0.1743;
193.2000;0.2344;0.1791;
193.5000;0.2369;0.1887;
193.8000;0.2352;0.1863;
194.1000;0.2336;0.1839;
194.4000;0.2369;0.1934;
194.7000;0.2352;0.1934;
195.0000;0.2352;0.1911;
195.3000;0.2344;0.1911;
195.6000;0.2352;0.1863;
195.9000;0.2361;0.1815;
196.2000;0.2279;0.1696;
196.5000;0.2369;0.1815;
196.8000;0.2344;0.1767;
197.1000;0.2352;0.1863;
197.4000;0.2352;0.1815;
197.7000;0.2336;0.1767;
198.0000;0.2344;0.1767;
198.3000;0.2361;0.1791;
198.6000;0.2352;0.1767;
198.9000;0.2336;0.1720;
199.2000;0.2361;0.1696;
199.5000;0.2344;0.1648;
199.8000;0.2344;0.1672;
200.1000;0.2320;0.1576;
200.4000;0.2377;0.1791;
200.7000;0.2344;0.1696;
201.0000;0.2336;0.1743;
201.3000;0.2336;0.1767;
201.6000;0.2475;0.2078;
201.9000;0.2369;0.1743;
202.2000;0.2466;0.2078;
202.5000;0.2279;0.1505;
202.8000;0.2409;0.1958;
203.1000;0.2328;0.1791;
203.4000;0.2352;0.1839;
203.7000;0.2434;0.2030;
204.0000;0.2377;0.1863;
204.3000;0.2361;0.1791;
204.6000;0.2320;0.1696;
204.9000;0.2304;0.1720;
205.2000;0.2352;0.1791;
205.5000;0.2483;0.2078;
205.8000;0.2361;0.1720;
206.1000;0.2352;0.1743;
206.4000;0.2361;0.1743;
206.7000;0.2361;0.1720;
207.0000;0.2344;0.1720;
207.3000;0.2344;0.1791;
207.6000;0.2369;0.1887;
207.9000;0.2361;0.1863;
208.2000;0.2361;0.1791;
208.5000;0.2336;0.1863;
208.8000;0.2304;0.1743;
209.1000;0.2328;0.1839;
209.4000;0.2385;0.2078;
209.7000;0.2336;0.1958;
210.0000;0.2336;0.1982;
210.3000;0.2344;0.2006;
210.6000;0.2361;0.2006;
210.9000;0.2361;0.2030;
211.2000;0.2352;0.1958;
211.5000;0.2401;0.1958;
211.8000;0.2336;0.1767;
212.1000;0.2336;0.1720;
212.4000;0.2336;0.1720;
212.7000;0.2361;0.1720;
213.0000;0.2361;0.1696;
213.3000;0.2352;0.1743;
213.6000;0.2352;0.1696;
213.9000;0.2352;0.1743;
214.2000;0.2361;0.1767;
214.5000;0.2344;0.1696;
214.8000;0.2352;0.1720;
215.1000;0.2336;0.1720;
215.4000;0.2336;0.1791;
215.7000;0.2369;0.1863;
216.0000;0.2344;0.1815;
216.3000;0.2344;0.1839;
216.6000;0.2336;0.1863;
216.9000;0.2352;0.1911;
217.2000;0.2352;0.1863;
217.5000;0.2369;0.1815;
217.8000;0.2352;0.1815;
218.1000;0.2320;0.1791;
218.4000;0.2344;0.1863;
218.7000;0.2344;0.1887;
219.0000;0.2369;0.1958;
219.3000;0.2369;0.1982;
219.6000;0.2352;0.1887;
219.9000;0.2352;0.1934;
220.2000;0.2320;0.1887;
220.5000;0.2344;0.1887;
220.8000;0.2352;0.1911;
221.1000;0.2328;0.1958;
221.4000;0.2344;0.2006;
221.7000;0.2352;0.2054;
222.0000;0.2328;0.1958;
222.3000;0.2328;0.1911;
222.6000;0.2328;0.1863;
222.9000;0.2336;0.1839;
223.2000;0.2344;0.1934;
223.5000;0.2352;0.1887;
223.8000;0.2328;0.1911;
224.1000;0.2320;0.1958;
224.4000;0.2377;0.2054;
224.7000;0.2320;0.1839;
225.0000;0.2369;0.1887;
225.3000;0.2279;0.1696;
225.6000;0.2377;0.1982;
225.9000;0.2344;0.1887;
226.2000;0.2361;0.1887;
226.5000;0.2336;0.1839;
226.8000;0.2352;0.1863;
227.1000;0.2312;0.1720;
227.4000;0.2336;0.1815;
227.7000;0.2393;0.2006;
228.0000;0.2377;0.1958;
228.3000;0.2442;0.2173;
228.6000;0.2385;0.1982;
228.9000;0.2344;0.1958;
229.2000;0.2352;0.1839;
229.5000;0.2361;0.1863;
229.8000;0.2352;0.1863;
230.1000;0.2352;0.1911;
230.4000;0.2344;0.1958;
230.7000;0.2369;0.1982;
231.0000;0.2352;0.1982;
231.3000;0.2352;0.2006;
231.6000;0.2344;0.1934;
231.9000;0.2344;0.1911;
232.2000;0.2336;0.1887;
232.5000;0.2295;0.1767;
232.8000;0.2352;0.1887;
233.1000;0.2336;0.1767;
233.4000;0.2336;0.1839;
233.7000;0.2328;0.1839;
234.0000;0.2328;0.1911;
234.3000;0.2320;0.1839;
234.6000;0.2344;0.1839;
234.9000;0.2328;0.1815;
235.2000;0.2361;0.1887;
235.5000;0.2328;0.1767;
235.8000;0.2336;0.1791;
236.1000;0.2328;0.1696;
236.4000;0.2279;0.1576;
236.7000;0.2352;0.1767;
237.0000;0.2312;0.1672;
237.3000;0.2369;0.1958;
237.6000;0.2344;0.1911;
237.9000;0.2352;0.1934;
238.2000;0.2336;0.1791;
238.5000;0.2361;0.1815;
238.8000;0.2344;0.1791;
239.1000;0.2369;0.1743;
239.4000;0.2361;0.1767;
239.7000;0.2344;0.1720;
240.0000;0.2336;0.1767;
240.3000;0.2336;0.1743;
240.6000;0.2344;0.1839;
240.9000;0.2336;0.1743;
241.2000;0.2352;0.1767;
241.5000;0.2336;0.1767;
241.8000;0.2344;0.1767;
242.1000;0.2361;0.1815;
242.4000;0.2352;0.1815;
242.7000;0.2336;0.1672;
243.0000;0.2352;0.1648;
243.3000;0.2230;0.1314;
243.6000;0.2377;0.1743;
243.9000;0.2361;0.1743;
244.2000;0.2450;0.2078;
244.5000;0.2344;0.1767;
244.8000;0.2361;0.1839;
245.1000;0.2271;0.1648;
245.4000;0.2361;0.1887;
245.7000;0.2328;0.1743;
246.0000;0.2361;0.1720;
246.3000;0.2393;0.1839;
246.6000;0.2361;0.1791;
246.9000;0.2344;0.1743;
247.2000;0.2352;0.1863;
247.5000;0.2352;0.1863;
247.8000;0.2352;0.1911;
248.1000;0.2352;0.1982;
248.4000;0.2336;0.2030;
248.7000;0.2352;0.2054;
249.0000;0.2361;0.2126;
249.3000;0.2352;0.2006;
249.6000;0.2344;0.1982;
249.9000;0.2377;0.2197;
250.2000;0.2344;0.2078;
250.5000;0.2336;0.2030;
250.8000;0.2328;0.1982;
251.1000;0.2352;0.2030;
251.4000;0.2312;0.1958;
251.7000;0.2336;0.1911;
252.0000;0.2336;0.1839;
252.3000;0.2352;0.1863;
252.6000;0.2401;0.2054;
252.9000;0.2352;0.1911;
253.2000;0.2287;0.1696;
253.5000;0.2344;0.1958;
253.8000;0.2344;0.1863;
254.1000;0.2255;0.1624;
254.4000;0.2336;0.1863;
254.7000;0.2336;0.1887;
255.0000;0.2361;0.1911;
255.3000;0.2352;0.1958;
255.6000;0.2295;0.1815;
255.9000;0.2344;0.1863;
256.2000;0.2352;0.1934;
256.5000;0.2320;0.1887;
256.8000;0.2352;0.1982;
257.1000;0.2328;0.1911;
257.4000;0.2336;0.1911;
257.7000;0.2320;0.1863;
258.0000;0.2385;0.2006;
258.3000;0.2352;0.1982;
258.6000;0.2344;0.1982;
258.9000;0.2344;0.2006;
259.2000;0.2336;0.1911;
259.5000;0.2361;0.1982;
259.8000;0.2344;0.1911;
260.1000;0.2352;0.1911;
260.4000;0.2344;0.1887;
260.7000;0.2320;0.1863;
261.0000;0.2328;0.1934;
261.3000;0.2385;0.2078;
261.6000;0.2369;0.1958;
261.9000;0.2320;0.1863;
262.2000;0.2344;0.1911;
262.5000;0.2336;0.1887;
262.8000;0.2336;0.1863;
263.1000;0.2336;0.1887;
263.4000;0.2320;0.1743;
263.7000;0.2320;0.1696;
264.0000;0.2344;0.1815;
264.3000;0.2328;0.1743;
264.6000;0.2295;0.1648;
264.9000;0.2336;0.1815;
265.2000;0.2336;0.1767;
265.5000;0.2336;0.1791;
265.8000;0.2295;0.1696;
266.1000;0.2361;0.1958;
266.4000;0.2344;0.1958;
266.7000;0.2401;0.2078;
267.0000;0.2336;0.1839;
267.3000;0.2344;0.1934;
267.6000;0.2369;0.1982;
267.9000;0.2352;0.1958;
268.2000;0.2352;0.1982;
268.5000;0.2352;0.1911;
268.8000;0.2320;0.1911;
269.1000;0.2361;0.2054;
269.4000;0.2344;0.2030;
269.7000;0.2344;0.2054;
270.0000;0.2352;0.2054;
270.3000;0.2336;0.2126;
270.6000;0.2361;0.2149;
270.9000;0.2385;0.2173;
271.2000;0.2385;0.2149;
271.5000;0.2344;0.2030;
271.8000;0.2352;0.2054;
272.1000;0.2361;0.2197;
272.4000;0.2377;0.2293;
272.7000;0.2361;0.2126;
273.0000;0.2385;0.2078;
273.3000;0.2369;0.2030;
273.6000;0.2344;0.1934;
273.9000;0.2344;0.1934;
274.2000;0.2352;0.1911;
274.5000;0.2336;0.1863;
274.8000;0.2401;0.2102;
275.1000;0.2361;0.2006;
275.4000;0.2361;0.2030;
275.7000;0.2328;0.2006;
276.0000;0.2409;0.2269;
276.3000;0.2352;0.2149;
276.6000;0.2361;0.2245;
276.9000;0.2344;0.2221;
277.2000;0.2320;0.2149;
277.5000;0.2344;0.2317;
277.8000;0.2336;0.2317;
278.1000;0.2271;0.1958;
278.4000;0.2320;0.2030;
278.7000;0.2344;0.2054;
279.0000;0.2287;0.1887;
279.3000;0.2344;0.2054;
279.6000;0.2377;0.2102;
279.9000;0.2312;0.1958;
280.2000;0.2377;0.2221;
280.5000;0.2352;0.2173;
280.8000;0.2336;0.2221;
281.1000;0.2352;0.2173;
281.4000;0.2361;0.2126;
281.7000;0.2344;0.2078;
282.0000;0.2344;0.2221;
282.3000;0.2247;0.2006;
282.6000;0.2344;0.2245;
282.9000;0.2361;0.2340;
283.2000;0.2369;0.2340;
283.5000;0.2336;0.2293;
283.8000;0.2336;0.2269;
284.1000;0.2344;0.2245;
284.4000;0.2361;0.2245;
284.7000;0.2352;0.2221;
285.0000;0.2361;0.2221;
285.3000;0.2328;0.2221;
285.6000;0.2344;0.2245;
285.9000;0.2336;0.2221;
286.2000;0.2352;0.2245;
286.5000;0.2344;0.2293;
286.8000;0.2328;0.2317;
287.1000;0.2344;0.2388;
287.4000;0.2344;0.2388;
287.7000;0.2328;0.2364;
288.0000;0.2352;0.2340;
288.3000;0.2352;0.2269;
288.6000;0.2312;0.2149;
288.9000;0.2328;0.2197;
289.2000;0.2344;0.2197;
289.5000;0.2336;0.2221;
289.8000;0.2312;0.2173;
290.1000;0.2352;0.2245;
290.4000;0.2336;0.2197;
290.7000;0.2328;0.2197;
291.0000;0.2336;0.2197;
291.3000;0.2352;0.2269;
291.6000;0.2344;0.2197;
291.9000;0.2344;0.2197;
292.2000;0.2352;0.2197;
292.5000;0.2336;0.2197;
292.8000;0.2271;0.2126;
293.1000;0.2361;0.2317;
293.4000;0.2361;0.2293;
293.7000;0.2352;0.2197;
294.0000;0.2312;0.2149;
294.3000;0.2352;0.2149;
294.6000;0.2352;0.2197;
294.9000;0.2320;0.2102;
295.2000;0.2279;0.1982;
295.5000;0.2352;0.2173;
295.8000;0.2344;0.2149;
296.1000;0.2369;0.2245;
296.4000;0.2247;0.1934;
296.7000;0.2361;0.2173;
297.0000;0.2369;0.2173;
297.3000;0.2344;0.2054;
297.6000;0.2352;0.2078;
297.9000;0.2401;0.2149;
298.2000;0.2377;0.2078;
298.5000;0.2352;0.2030;
298.8000;0.2352;0.2006;
299.1000;0.2426;0.2173;
299.4000;0.2369;0.2054;
299.7000;0.2385;0.2173;
300.0000;0.2361;0.2173;
300.3000;0.2369;0.2173;
300.6000;0.2328;0.2102;
300.9000;0.2344;0.2221;
301.2000;0.2328;0.2173;
301.5000;0.2336;0.2102;
301.8000;0.2344;0.2078;
302.1000;0.2336;0.2102;
302.4000;0.2466;0.2532;
302.7000;0.2328;0.2197;
303.0000;0.2320;0.2173;
303.3000;0.2320;0.2078;
303.6000;0.2369;0.2173;
303.9000;0.2401;0.2221;
304.2000;0.2361;0.2054;
304.5000;0.2344;0.2006;
304.8000;0.2361;0.1958;
305.1000;0.2369;0.1958;
305.4000;0.2336;0.1911;
305.7000;0.2336;0.1839;
306.0000;0.2328;0.1767;
306.3000;0.2344;0.1839;
306.6000;0.2352;0.1887;
306.9000;0.2304;0.1720;
307.2000;0.2344;0.1911;
307.5000;0.2336;0.1958;
307.8000;0.2344;0.2030;
308.1000;0.2336;0.2030;
308.4000;0.2336;0.2030;
308.7000;0.2344;0.2054;
309.0000;0.2263;0.1791;
309.3000;0.2352;0.2030;
309.6000;0.2361;0.2054;
309.9000;0.2344;0.1982;
310.2000;0.2361;0.1934;
310.5000;0.2352;0.1934;
310.8000;0.2336;0.1911;
311.1000;0.2320;0.1720;
311.4000;0.2344;0.1911;
311.7000;0.2320;0.1887;
312.0000;0.2336;0.1934;
312.3000;0.2336;0.1863;
312.6000;0.2344;0.1791;
312.9000;0.2352;0.1839;
313.2000;0.2328;0.1839;
313.5000;0.2336;0.1863;
313.8000;0.2336;0.1934;
314.1000;0.2352;0.1934;
314.4000;0.2352;0.2030;
314.7000;0.2344;0.2078;
315.0000;0.2344;0.1982;
315.3000;0.2336;0.1958;
315.6000;0.2336;0.1887;
315.9000;0.2361;0.1934;
316.2000;0.2361;0.1958;
316.5000;0.2344;0.1887;
316.8000;0.2344;0.1863;
317.1000;0.2328;0.1767;
317.4000;0.2336;0.1720;
317.7000;0.2377;0.1887;
318.0000;0.2304;0.1815;
318.3000;0.2336;0.1982;
318.6000;0.2336;0.2078;
318.9000;0.2328;0.2102;
319.2000;0.2385;0.2173;
319.5000;0.2377;0.2221;
319.8000;0.2352;0.2126;
320.1000;0.2369;0.2173;
320.4000;0.2442;0.2388;
320.7000;0.2361;0.2149;
321.0000;0.2336;0.2078;
321.3000;0.2344;0.2078;
321.6000;0.2344;0.2030;
321.9000;0.2361;0.1958;
322.2000;0.2287;0.1696;
322.5000;0.2247;0.1576;
322.8000;0.2352;0.1982;
323.1000;0.2344;0.1934;
323.4000;0.2320;0.1863;
323.7000;0.2336;0.1911;
324.0000;0.2352;0.1958;
324.3000;0.2344;0.1934;
324.6000;0.2287;0.1743;
324.9000;0.2336;0.1887;
325.2000;0.2279;0.1743;
325.5000;0.2377;0.1958;
325.8000;0.2369;0.1982;
326.1000;0.2344;0.1934;
326.4000;0.2369;0.1958;
326.7000;0.2393;0.2054;
327.0000;0.2352;0.1911;
327.3000;0.2401;0.2030;
327.6000;0.2352;0.1887;
327.9000;0.2344;0.1958;
328.2000;0.2328;0.1911;
328.5000;0.2385;0.2030;
328.8000;0.2312;0.1839;
329.1000;0.2361;0.1982;
329.4000;0.2304;0.1839;
329.7000;0.2336;0.1887;
330.0000;0.2320;0.1839;
330.3000;0.2312;0.1887;
330.6000;0.2369;0.2030;
330.9000;0.2328;0.1911;
331.2000;0.2336;0.1791;
331.5000;0.2336;0.1720;
331.8000;0.2344;0.1743;
332.1000;0.2328;0.1720;
332.4000;0.2361;0.1791;
332.7000;0.2312;0.1696;
333.0000;0.2369;0.1934;
333.3000;0.2336;0.1839;
333.6000;0.2344;0.1887;
333.9000;0.2344;0.1911;
334.2000;0.2377;0.2006;
334.5000;0.2328;0.1982;
334.8000;0.2352;0.2078;
335.1000;0.2385;0.2173;
335.4000;0.2352;0.2030;
335.7000;0.2336;0.1911;
336.0000;0.2344;0.1911;
336.3000;0.2336;0.1815;
336.6000;0.2336;0.1743;
336.9000;0.2344;0.1696;
337.2000;0.2352;0.1648;
337.5000;0.2336;0.1600;
337.8000;0.2328;0.1672;
338.1000;0.2336;0.1767;
338.4000;0.2336;0.1815;
338.7000;0.2336;0.1815;
339.0000;0.2320;0.1815;
339.3000;0.2361;0.1887;
339.6000;0.2352;0.1934;
339.9000;0.2336;0.1911;
340.2000;0.2336;0.1958;
340.5000;0.2352;0.2006;
340.8000;0.2352;0.2030;
341.1000;0.2336;0.1934;
341.4000;0.2344;0.2006;
341.7000;0.2344;0.2030;
342.0000;0.2344;0.2054;
342.3000;0.2352;0.2149;
342.6000;0.2361;0.2173;
342.9000;0.2336;0.2078;
343.2000;0.2344;0.2126;
343.5000;0.2304;0.1958;
343.8000;0.2344;0.2006;
344.1000;0.2271;0.1815;
344.4000;0.2312;0.1911;
344.7000;0.2352;0.2054;
345.0000;0.2328;0.2006;
345.3000;0.2352;0.2054;
345.6000;0.2336;0.2078;
345.9000;0.2344;0.2030;
346.2000;0.2361;0.2054;
346.5000;0.2328;0.1958;
346.8000;0.2328;0.1982;
347.1000;0.2352;0.2054;
347.4000;0.2320;0.1958;
347.7000;0.2344;0.2006;
348.0000;0.2352;0.2054;
348.3000;0.2352;0.2054;
348.6000;0.2336;0.2030;
348.9000;0.2328;0.2078;
349.2000;0.2361;0.2126;
349.5000;0.2352;0.2102;
349.8000;0.2352;0.2102;
350.1000;0.2336;0.2054;
350.4000;0.2279;0.1863;
350.7000;0.2336;0.2030;
351.0000;0.2361;0.1934;
351.3000;0.2361;0.2006;
351.6000;0.2320;0.1887;
351.9000;0.2336;0.2006;
352.2000;0.2352;0.2078;
352.5000;0.2255;0.1815;
352.8000;0.2336;0.2006;
353.1000;0.2320;0.1958;
353.4000;0.2295;0.1982;
353.7000;0.2336;0.2006;
354.0000;0.2336;0.1982;
354.3000;0.2344;0.1982;
354.6000;0.2344;0.2030;
354.9000;0.2328;0.2006;
355.2000;0.2336;0.2006;
355.5000;0.2344;0.2054;
355.8000;0.2336;0.2054;
356.1000;0.2344;0.2054;
356.4000;0.2312;0.2030;
356.7000;0.2344;0.2149;
357.0000;0.2336;0.2126;
357.3000;0.2352;0.2197;
357.6000;0.2344;0.2197;
357.9000;0.2352;0.2221;
358.2000;0.2393;0.2317;
358.5000;0.2385;0.2221;
358.8000;0.2361;0.2078;
359.1000;0.2352;0.2078;
359.4000;0.2344;0.1982;
359.7000;0.2352;0.1911;
360.0000;0.2361;0.1958;
360.3000;0.2344;0.1839;
360.6000;0.2401;0.1958;
360.9000;0.2295;0.1743;
361.2000;0.2344;0.1863;
361.5000;0.2295;0.1767;
361.8000;0.2320;0.1839;
362.1000;0.2344;0.1863;
362.4000;0.2352;0.1839;
362.7000;0.2361;0.1863;
363.0000;0.2336;0.1934;
363.3000;0.2352;0.1934;
363.6000;0.2361;0.1958;
363.9000;0.2352;0.1887;
364.2000;0.2304;0.1815;
364.5000;0.2344;0.1958;
364.8000;0.2352;0.2030;
365.1000;0.2409;0.2173;
365.4000;0.2344;0.1934;
365.7000;0.2336;0.2030;
366.0000;0.2352;0.2054;
366.3000;0.2361;0.1982;
366.6000;0.2344;0.2006;
366.9000;0.2344;0.1982;
367.2000;0.2352;0.1958;
367.5000;0.2336;0.2006;
367.8000;0.2344;0.2054;
368.1000;0.2352;0.2078;
368.4000;0.2361;0.2030;
368.7000;0.2344;0.2006;
369.0000;0.2344;0.1982;
369.3000;0.2385;0.2173;
369.6000;0.2344;0.2149;
369.9000;0.2271;0.1911;
370.2000;0.2344;0.2054;
370.5000;0.2369;0.2102;
370.8000;0.2344;0.2126;
371.1000;0.2352;0.2126;
371.4000;0.2369;0.2126;
371.7000;0.2369;0.2078;
372.0000;0.2361;0.2054;
372.3000;0.2369;0.2102;
372.6000;0.2369;0.2102;
372.9000;0.2344;0.2078;
373.2000;0.2352;0.2102;
373.5000;0.2352;0.2102;
373.8000;0.2361;0.2078;
374.1000;0.2352;0.1982;
374.4000;0.2377;0.2173;
374.7000;0.2336;0.2054;
375.0000;0.2344;0.2054;
375.3000;0.2418;0.2245;
375.6000;0.2352;0.2197;
375.9000;0.2336;0.2102;
376.2000;0.2344;0.2078;
376.5000;0.2304;0.1911;
376.8000;0.2344;0.1982;
377.1000;0.2352;0.2006;
377.4000;0.2336;0.2030;
377.7000;0.2336;0.2030;
378.0000;0.2344;0.2054;
378.3000;0.2304;0.2006;
378.6000;0.2328;0.2054;
378.9000;0.2352;0.2102;
379.2000;0.2352;0.2054;
379.5000;0.2336;0.1982;
379.8000;0.2344;0.1982;
380.1000;0.2336;0.1982;
380.4000;0.2328;0.1958;
380.7000;0.2336;0.2006;
381.0000;0.2344;0.2054;
381.3000;0.2320;0.2030;
381.6000;0.2352;0.2173;
381.9000;0.2344;0.2149;
382.2000;0.2328;0.2149;
382.5000;0.2352;0.2221;
382.8000;0.2336;0.2221;
383.1000;0.2328;0.2221;
383.4000;0.2344;0.2197;
383.7000;0.2328;0.2102;
384.0000;0.2344;0.2173;
384.3000;0.2361;0.2126;
384.6000;0.2393;0.2126;
384.9000;0.2328;0.2030;
385.2000;0.2426;0.2293;
385.5000;0.2352;0.2054;
385.8000;0.2328;0.2054;
386.1000;0.2328;0.2173;
386.4000;0.2328;0.2126;
386.7000;0.2320;0.2126;
387.0000;0.2328;0.2102;
387.3000;0.2336;0.2149;
387.6000;0.2344;0.2126;
387.9000;0.2328;0.2006;
388.2000;0.2393;0.2149;
388.5000;0.2328;0.1982;
388.8000;0.2336;0.1982;
389.1000;0.2336;0.2006;
389.4000;0.2344;0.2006;
389.7000;0.2336;0.2030;
390.0000;0.2336;0.2126;
390.3000;0.2312;0.2173;
390.6000;0.2336;0.2293;
390.9000;0.2336;0.2293;
391.2000;0.2336;0.2269;
391.5000;0.2312;0.2173;
391.8000;0.2361;0.2197;
392.1000;0.2361;0.2149;
392.4000;0.2336;0.2149;
392.7000;0.2336;0.2149;
393.0000;0.2336;0.2102;
393.3000;0.2336;0.2030;
393.6000;0.2263;0.1767;
393.9000;0.2434;0.2197;
394.2000;0.2361;0.2030;
394.5000;0.2377;0.1982;
394.8000;0.2352;0.1887;
395.1000;0.2336;0.1791;
395.4000;0.2320;0.1911;
395.7000;0.2336;0.1958;
396.0000;0.2328;0.1958;
396.3000;0.2377;0.2078;
396.6000;0.2320;0.2030;
396.9000;0.2336;0.2102;
397.2000;0.2344;0.2245;
397.5000;0.2361;0.2245;
397.8000;0.2352;0.2221;
398.1000;0.2369;0.2364;
398.4000;0.2320;0.2197;
398.7000;0.2344;0.2269;
399.0000;0.2344;0.2269;
399.3000;0.2352;0.2221;
399.6000;0.2361;0.2269;
399.9000;0.2328;0.2149;
400.2000;0.2328;0.2149;
400.5000;0.2344;0.2149;
400.8000;0.2344;0.2245;
401.1000;0.2230;0.1934;
401.4000;0.2385;0.2269;
401.7000;0.2352;0.2245;
402.0000;0.2369;0.2293;
402.3000;0.2361;0.2269;
402.6000;0.2361;0.2173;
402.9000;0.2369;0.2126;
403.2000;0.2344;0.2078;
403.5000;0.2328;0.2054;
403.8000;0.2352;0.2102;
404.1000;0.2344;0.2102;
404.4000;0.2369;0.2197;
404.7000;0.2361;0.2149;
405.0000;0.2352;0.2173;
405.3000;0.2336;0.2126;
405.6000;0.2344;0.2030;
405.9000;0.2361;0.2054;
406.2000;0.2336;0.2006;
406.5000;0.2320;0.1934;
406.8000;0.2263;0.1696;
407.1000;0.2352;0.1911;
407.4000;0.2352;0.1911;
407.7000;0.2409;0.2078;
408.0000;0.2344;0.2006;
408.3000;0.2328;0.1934;
408.6000;0.2222;0.1696;
408.9000;0.2491;0.2532;
409.2000;0.2312;0.2078;
409.5000;0.2328;0.2054;
409.8000;0.2336;0.2030;
410.1000;0.2344;0.2030;
410.4000;0.2295;0.1791;
410.7000;0.2352;0.1982;
411.0000;0.2352;0.1934;
411.3000;0.2344;0.1911;
411.6000;0.2344;0.1863;
411.9000;0.2336;0.1863;
412.2000;0.2312;0.1791;
412.5000;0.2361;0.1815;
412.8000;0.2344;0.1791;
413.1000;0.2328;0.1791;
413.4000;0.2344;0.1958;
413.7000;0.2328;0.1958;
414.0000;0.2312;0.1911;
414.3000;0.2344;0.2078;
414.6000;0.2328;0.2054;
414.9000;0.2426;0.2293;
415.2000;0.2336;0.2173;
415.5000;0.2344;0.2078;
415.8000;0.2344;0.2078;
416.1000;0.2369;0.2078;
416.4000;0.2361;0.2030;
416.7000;0.2320;0.1934;
417.0000;0.2328;0.1958;
417.3000;0.2295;0.1863;
417.6000;0.2352;0.2006;
417.9000;0.2336;0.1958;
418.2000;0.2336;0.2030;
418.5000;0.2328;0.2006;
418.8000;0.2344;0.2078;
419.1000;0.2344;0.1958;
419.4000;0.2328;0.1982;
419.7000;0.2344;0.1982;
420.0000;0.2336;0.1887;
420.3000;0.2320;0.1863;
420.6000;0.2328;0.1887;
420.9000;0.2336;0.1863;
421.2000;0.2344;0.1887;
421.5000;0.2336;0.1911;
421.8000;0.2344;0.1934;
422.1000;0.2336;0.1911;
422.4000;0.2361;0.1958;
422.7000;0.2361;0.1958;
423.0000;0.2336;0.1958;
423.3000;0.2393;0.2126;
423.6000;0.2344;0.1958;
423.9000;0.2369;0.1958;
424.2000;0.2336;0.1982;
424.5000;0.2344;0.1982;
424.8000;0.2328;0.2006;
425.1000;0.2336;0.1958;
425.4000;0.2344;0.1911;
425.7000;0.2352;0.1839;
426.0000;0.2369;0.1887;
426.3000;0.2328;0.1815;
426.6000;0.2336;0.1911;
426.9000;0.2352;0.1934;
427.2000;0.2287;0.1815;
427.5000;0.2352;0.1958;
427.8000;0.2344;0.1958;
428.1000;0.2352;0.1911;
428.4000;0.2426;0.2126;
428.7000;0.2344;0.2006;
429.0000;0.2361;0.2102;
429.3000;0.2344;0.2078;
429.6000;0.2336;0.2078;
429.9000;0.2385;0.2269;
430.2000;0.2369;0.2173;
430.5000;0.2352;0.2149;
430.8000;0.2369;0.2173;
431.1000;0.2442;0.2293;
431.4000;0.2336;0.2006;
431.7000;0.2377;0.2102;
432.0000;0.2344;0.2030;
432.3000;0.2312;0.1934;
432.6000;0.2328;0.1958;
432.9000;0.2312;0.1839;
433.2000;0.2369;0.2030;
433.5000;0.2352;0.2006;
433.8000;0.2328;0.1958;
434.1000;0.2361;0.1958;
434.4000;0.2369;0.1911;
434.7000;0.2328;0.1767;
435.0000;0.2336;0.1767;
435.3000;0.2352;0.1839;
435.6000;0.2344;0.1839;
435.9000;0.2466;0.2149;
436.2000;0.2336;0.1767;
436.5000;0.2344;0.1815;
436.8000;0.2328;0.1815;
437.1000;0.2336;0.1958;
437.4000;0.2328;0.1958;
437.7000;0.2344;0.1911;
438.0000;0.2336;0.1839;
438.3000;0.2336;0.1791;
438.6000;0.2385;0.1887;
438.9000;0.2336;0.1791;
439.2000;0.2328;0.1743;
439.5000;0.2320;0.1720;
439.8000;0.2361;0.1863;
440.1000;0.2336;0.1791;
440.4000;0.2344;0.1839;
440.7000;0.2336;0.1815;
441.0000;0.2328;0.1863;
441.3000;0.2344;0.1958;
441.6000;0.2336;0.1911;
441.9000;0.2336;0.1887;
442.2000;0.2328;0.1815;
442.5000;0.2304;0.1767;
442.8000;0.2336;0.1911;
443.1000;0.2344;0.1887;
443.4000;0.2336;0.1934;
443.7000;0.2344;0.1982;
444.0000;0.2352;0.2030;
444.3000;0.2336;0.1982;
444.6000;0.2344;0.1982;
444.9000;0.2336;0.1982;
445.2000;0.2328;0.1934;
445.5000;0.2377;0.2078;
445.8000;0.2336;0.1863;
446.1000;0.2418;0.2078;
446.4000;0.2328;0.1767;
446.7000;0.2328;0.1743;
447.0000;0.2369;0.1767;
447.3000;0.2393;0.1767;
447.6000;0.2344;0.1743;
447.9000;0.2344;0.1839;
448.2000;0.2344;0.1982;
448.5000;0.2352;0.2078;
448.8000;0.2336;0.1958;
449.1000;0.2336;0.1958;
449.4000;0.2361;0.1887;
449.7000;0.2361;0.1934;
450.0000;0.2442;0.2149;
450.3000;0.2344;0.1934;
450.6000;0.2352;0.1982;
450.9000;0.2344;0.1958;
451.2000;0.2344;0.1863;
451.5000;0.2336;0.1767;
451.8000;0.2312;0.1743;
452.1000;0.2361;0.1887;
452.4000;0.2320;0.1791;
452.7000;0.2295;0.1767;
453.0000;0.2328;0.1958;
453.3000;0.2369;0.2126;
453.6000;0.2328;0.2030;
453.9000;0.2352;0.2102;
454.2000;0.2418;0.2173;
454.5000;0.2344;0.2006;
454.8000;0.2352;0.2030;
455.1000;0.2369;0.2054;
455.4000;0.2336;0.1982;
455.7000;0.2336;0.1887;
456.0000;0.2328;0.1839;
456.3000;0.2336;0.1911;
456.6000;0.2320;0.1887;
456.9000;0.2336;0.1958;
457.2000;0.2336;0.1911;
457.5000;0.2336;0.1934;
457.8000;0.2336;0.1934;
458.1000;0.2336;0.1887;
458.4000;0.2344;0.1839;
458.7000;0.2320;0.1720;
459.0000;0.2352;0.1696;
459.3000;0.2352;0.1648;
459.6000;0.2328;0.1600;
459.9000;0.2328;0.1648;
460.2000;0.2312;0.1600;
460.5000;0.2336;0.1720;
460.8000;0.2344;0.1743;
461.1000;0.2336;0.1720;
461.4000;0.2344;0.1696;
461.7000;0.2458;0.2030;
462.0000;0.2336;0.1743;
462.3000;0.2336;0.1815;
462.6000;0.2409;0.1958;
462.9000;0.2328;0.1815;
463.2000;0.2328;0.1863;
463.5000;0.2361;0.1911;
463.8000;0.2450;0.2197;
464.1000;0.2328;0.1791;
464.4000;0.2312;0.1839;
464.7000;0.2361;0.1958;
465.0000;0.2344;0.1958;
465.3000;0.2352;0.1982;
465.6000;0.2336;0.1982;
465.9000;0.2344;0.1958;
466.2000;0.2320;0.1958;
466.5000;0.2328;0.1982;
466.8000;0.2336;0.1958;
467.1000;0.2328;0.1982;
467.4000;0.2336;0.2102;
467.7000;0.2344;0.2149;
468.0000;0.2369;0.2197;
468.3000;0.2320;0.2102;
468.6000;0.2344;0.2078;
468.9000;0.2304;0.1982;
469.2000;0.2352;0.2173;
469.5000;0.2344;0.2126;
469.8000;0.2336;0.2126;
470.1000;0.2328;0.2078;
470.4000;0.2336;0.2078;
470.7000;0.2312;0.1982;
471.0000;0.2352;0.2078;
471.3000;0.2344;0.2126;
471.6000;0.2336;0.2102;
471.9000;0.2336;0.2126;
472.2000;0.2344;0.2149;
472.5000;0.2352;0.2173;
472.8000;0.2336;0.2102;
473.1000;0.2385;0.2197;
473.4000;0.2369;0.2102;
473.7000;0.2361;0.2078;
474.0000;0.2361;0.2030;
474.3000;0.2336;0.1911;
474.6000;0.2352;0.2078;
474.9000;0.2336;0.2006;
475.2000;0.2352;0.1958;
475.5000;0.2344;0.1934;
475.8000;0.2328;0.1982;
476.1000;0.2442;0.2269;
476.4000;0.2344;0.1982;
476.7000;0.2344;0.1958;
477.0000;0.2361;0.2102;
477.3000;0.2328;0.2006;
477.6000;0.2328;0.1911;
477.9000;0.2304;0.1887;
478.2000;0.2312;0.1934;
478.5000;0.2336;0.1934;
478.8000;0.2328;0.1887;
479.1000;0.2295;0.1743;
479.4000;0.2320;0.1863;
479.7000;0.2336;0.1934;
480.0000;0.2320;0.1887;
480.3000;0.2352;0.2054;
480.6000;0.2352;0.2054;
480.9000;0.2352;0.2006;
481.2000;0.2336;0.1934;
481.5000;0.2352;0.2054;
481.8000;0.2328;0.2054;
482.1000;0.2328;0.1958;
482.4000;0.2336;0.2078;
482.7000;0.2336;0.2102;
483.0000;0.2336;0.2173;
483.3000;0.2385;0.2245;
483.6000;0.2352;0.2102;
483.9000;0.2344;0.2102;
484.2000;0.2369;0.2173;
484.5000;0.2320;0.2078;
484.8000;0.2287;0.1911;
485.1000;0.2328;0.2030;
485.4000;0.2336;0.2078;
485.7000;0.2344;0.2102;
486.0000;0.2344;0.2149;
486.3000;0.2344;0.2149;
486.6000;0.2361;0.2221;
486.9000;0.2352;0.2221;
487.2000;0.2344;0.2173;
487.5000;0.2336;0.2149;
487.8000;0.2344;0.2173;
488.1000;0.2352;0.2221;
488.4000;0.2352;0.2173;
488.7000;0.2336;0.2197;
489.0000;0.2369;0.2269;
489.3000;0.2344;0.2173;
489.6000;0.2344;0.2078;
489.9000;0.2361;0.2102;
490.2000;0.2361;0.2078;
490.5000;0.2352;0.2030;
490.8000;0.2352;0.2078;
491.1000;0.2377;0.2173;
491.4000;0.2385;0.2126;
491.7000;0.2344;0.2030;
492.0000;0.2352;0.2078;
492.3000;0.2418;0.2197;
492.6000;0.2344;0.2006;
492.9000;0.2361;0.1982;
493.2000;0.2336;0.1887;
493.5000;0.2336;0.1887;
493.8000;0.2352;0.1911;
494.1000;0.2361;0.1863;
494.4000;0.2344;0.1863;
494.7000;0.2344;0.1887;
495.0000;0.2369;0.1887;
495.3000;0.2344;0.1839;
495.6000;0.2369;0.1958;
495.9000;0.2361;0.1982;
496.2000;0.2344;0.2006;
496.5000;0.2352;0.1934;
496.8000;0.2344;0.1911;
497.1000;0.2336;0.2006;
497.4000;0.2344;0.2006;
497.7000;0.2344;0.2030;
498.0000;0.2344;0.2006;
498.3000;0.2352;0.2006;
498.6000;0.2328;0.1982;
498.9000;0.2304;0.1863;
499.2000;0.2361;0.1958;
499.5000;0.2336;0.1911;
499.8000;0.2328;0.1887;
500.1000;0.2328;0.1863;
500.4000;0.2352;0.1911;
500.7000;0.2344;0.1863;
501.0000;0.2336;0.1911;
501.3000;0.2426;0.2054;
501.6000;0.2328;0.1839;
501.9000;0.2401;0.1982;
502.2000;0.2344;0.1934;
502.5000;0.2320;0.1815;
502.8000;0.2336;0.1887;
503.1000;0.2320;0.1815;
503.4000;0.2344;0.1839;
503.7000;0.2336;0.1839;
504.0000;0.2361;0.1958;
504.3000;0.2336;0.1911;
504.6000;0.2320;0.1863;
504.9000;0.2328;0.1815;
505.2000;0.2336;0.1815;
505.5000;0.2344;0.1863;
505.8000;0.2336;0.1815;
506.1000;0.2344;0.1791;
506.4000;0.2409;0.1982;
506.7000;0.2352;0.1767;
507.0000;0.2377;0.1839;
507.3000;0.2409;0.1982;
507.6000;0.2352;0.1887;
507.9000;0.2344;0.1839;
508.2000;0.2385;0.1934;
508.5000;0.2336;0.1863;
508.8000;0.2320;0.1815;
509.1000;0.2336;0.1863;
509.4000;0.2344;0.1767;
509.7000;0.2352;0.1767;
510.0000;0.2361;0.1696;
510.3000;0.2393;0.1767;
510.6000;0.2409;0.1791;
510.9000;0.2361;0.1672;
511.2000;0.2377;0.1767;
511.5000;0.2352;0.1720;
511.8000;0.2361;0.1720;
512.1000;0.2320;0.1672;
512.4000;0.2344;0.1815;
512.7000;0.2336;0.1767;
513.0000;0.2312;0.1815;
513.3000;0.2336;0.1911;
513.6000;0.2344;0.1982;
513.9000;0.2336;0.1934;
514.2000;0.2352;0.1982;
514.5000;0.2352;0.1911;
514.8000;0.2361;0.1911;
515.1000;0.2336;0.1863;
515.4000;0.2320;0.1767;
515.7000;0.2295;0.1672;
516.0000;0.2304;0.1767;
516.3000;0.2361;0.1934;
516.6000;0.2336;0.1815;
516.9000;0.2344;0.1887;
517.2000;0.2377;0.1911;
517.5000;0.2336;0.1863;
517.8000;0.2336;0.1934;
518.1000;0.2328;0.1911;
518.4000;0.2328;0.1839;
518.7000;0.2295;0.1720;
519.0000;0.2352;0.1911;
519.3000;0.2328;0.1815;
519.6000;0.2336;0.1863;
519.9000;0.2344;0.2006;
520.2000;0.2336;0.2054;
520.5000;0.2336;0.2078;
520.8000;0.2328;0.2030;
521.1000;0.2336;0.2006;
521.4000;0.2328;0.2006;
521.7000;0.2344;0.2149;
522.0000;0.2352;0.2149;
522.3000;0.2352;0.2078;
522.6000;0.2344;0.2006;
522.9000;0.2434;0.2245;
523.2000;0.2352;0.2102;
523.5000;0.2344;0.2006;
523.8000;0.2352;0.2006;
524.1000;0.2336;0.2030;
524.4000;0.2328;0.2030;
524.7000;0.2344;0.1982;
525.0000;0.2312;0.1887;
525.3000;0.2328;0.2006;
525.6000;0.2344;0.1958;
525.9000;0.2344;0.1934;
526.2000;0.2328;0.1791;
526.5000;0.2352;0.1791;
526.8000;0.2352;0.1696;
527.1000;0.2369;0.1672;
527.4000;0.2361;0.1743;
527.7000;0.2352;0.1624;
528.0000;0.2328;0.1624;
528.3000;0.2361;0.1624;
528.6000;0.2336;0.1576;
528.9000;0.2336;0.1624;
529.2000;0.2328;0.1600;
529.5000;0.2328;0.1696;
529.8000;0.2320;0.1743;
530.1000;0.2344;0.1863;
530.4000;0.2361;0.1982;
530.7000;0.2336;0.1863;
531.0000;0.2361;0.1934;
531.3000;0.2352;0.1982;
531.6000;0.2320;0.1863;
531.9000;0.2352;0.1982;
532.2000;0.2442;0.2221;
532.5000;0.2344;0.2030;
532.8000;0.2344;0.1982;
533.1000;0.2344;0.1958;
533.4000;0.2385;0.2078;
533.7000;0.2352;0.1958;
534.0000;0.2320;0.1934;
534.3000;0.2320;0.1958;
534.6000;0.2377;0.2149;
534.9000;0.2352;0.2078;
535.2000;0.2312;0.2030;
535.5000;0.2312;0.1982;
535.8000;0.2409;0.2149;
536.1000;0.2377;0.2054;
536.4000;0.2352;0.1982;
536.7000;0.2336;0.1887;
537.0000;0.2344;0.1887;
537.3000;0.2320;0.1815;
537.6000;0.2344;0.1911;
537.9000;0.2361;0.1839;
538.2000;0.2466;0.2197;
538.5000;0.2336;0.1767;
538.8000;0.2352;0.1791;
539.1000;0.2434;0.2030;
539.4000;0.2401;0.1982;
539.7000;0.2320;0.1791;
540.0000;0.2320;0.1743;
540.3000;0.2344;0.1934;
540.6000;0.2328;0.1887;
540.9000;0.2328;0.1839;
541.2000;0.2328;0.1863;
541.5000;0.2393;0.2054;
541.8000;0.2369;0.2030;
542.1000;0.2344;0.1958;
542.4000;0.2328;0.1982;
542.7000;0.2369;0.2006;
543.0000;0.2361;0.1982;
543.3000;0.2328;0.1767;
543.6000;0.2336;0.1743;
543.9000;0.2344;0.1791;
544.2000;0.2336;0.1767;
544.5000;0.2442;0.2078;
544.8000;0.2442;0.2173;
545.1000;0.2352;0.1982;
545.4000;0.2344;0.1982;
545.7000;0.2336;0.1982;
546.0000;0.2377;0.2006;
546.3000;0.2344;0.1911;
546.6000;0.2344;0.1887;
546.9000;0.2255;0.1624;
547.2000;0.2312;0.1767;
547.5000;0.2352;0.1791;
547.8000;0.2377;0.1815;
548.1000;0.2426;0.2102;
548.4000;0.2352;0.1887;
548.7000;0.2328;0.1839;
549.0000;0.2344;0.1958;
549.3000;0.2377;0.2054;
549.6000;0.2328;0.1911;
549.9000;0.2344;0.1958;
550.2000;0.2328;0.1887;
550.5000;0.2344;0.2030;
550.8000;0.2328;0.1934;
551.1000;0.2320;0.1887;
551.4000;0.2336;0.1815;
551.7000;0.2295;0.1839;
552.0000;0.2344;0.1934;
552.3000;0.2336;0.1887;
552.6000;0.2328;0.1863;
552.9000;0.2369;0.1887;
553.2000;0.2352;0.1815;
553.5000;0.2369;0.1839;
553.8000;0.2352;0.1839;
554.1000;0.2336;0.1863;
554.4000;0.2344;0.1887;
554.7000;0.2287;0.1743;
555.0000;0.2352;0.1934;
555.3000;0.2385;0.2054;
555.6000;0.2344;0.1911;
555.9000;0.2328;0.1958;
556.2000;0.2361;0.2030;
556.5000;0.2344;0.2030;
556.8000;0.2352;0.2030;
557.1000;0.2336;0.1982;
557.4000;0.2361;0.1958;
557.7000;0.2336;0.1982;
558.0000;0.2344;0.1934;
558.3000;0.2336;0.2006;
558.6000;0.2336;0.1982;
558.9000;0.2336;0.1863;
559.2000;0.2344;0.1911;
559.5000;0.2320;0.1791;
559.8000;0.2328;0.1839;
560.1000;0.2320;0.1815;
560.4000;0.2279;0.1743;
560.7000;0.2328;0.1887;
561.0000;0.2336;0.1934;
561.3000;0.2320;0.1982;
561.6000;0.2336;0.1958;
561.9000;0.2328;0.1958;
562.2000;0.2369;0.2078;
562.5000;0.2344;0.1934;
562.8000;0.2336;0.1982;
563.1000;0.2344;0.1982;
563.4000;0.2320;0.1934;
563.7000;0.2344;0.2006;
564.0000;0.2344;0.2006;
564.3000;0.2352;0.2006;
564.6000;0.2336;0.1934;
564.9000;0.2369;0.1911;
565.2000;0.2352;0.1863;
565.5000;0.2328;0.1767;
565.8000;0.2344;0.1863;
566.1000;0.2304;0.1696;
566.4000;0.2336;0.1815;
566.7000;0.2418;0.2078;
567.0000;0.2344;0.1839;
567.3000;0.2336;0.1934;
567.6000;0.2336;0.1982;
567.9000;0.2369;0.2030;
568.2000;0.2336;0.2030;
568.5000;0.2336;0.2030;
568.8000;0.2369;0.2102;
569.1000;0.2369;0.2078;
569.4000;0.2336;0.2030;
569.7000;0.2344;0.2030;
570.0000;0.2271;0.1791;
570.3000;0.2304;0.1863;
570.6000;0.2336;0.1911;
570.9000;0.2295;0.1648;
571.2000;0.2320;0.1720;
571.5000;0.2328;0.1791;
571.8000;0.2304;0.1743;
572.1000;0.2344;0.1791;
572.4000;0.2336;0.1767;
572.7000;0.2344;0.1839;
573.0000;0.2336;0.1839;
573.3000;0.2352;0.1839;
573.6000;0.2344;0.1815;
573.9000;0.2352;0.1767;
574.2000;0.2336;0.1672;
574.5000;0.2352;0.1743;
574.8000;0.2344;0.1743;
575.1000;0.2352;0.1696;
575.4000;0.2336;0.1696;
575.7000;0.2344;0.1600;
576.0000;0.2336;0.1576;
576.3000;0.2369;0.1743;
576.6000;0.2344;0.1672;
576.9000;0.2344;0.1696;
577.2000;0.2361;0.1767;
577.5000;0.2361;0.1767;
577.8000;0.2361;0.1791;
578.1000;0.2312;0.1672;
578.4000;0.2361;0.1743;
578.7000;0.2352;0.1791;
579.0000;0.2328;0.1911;
579.3000;0.2344;0.2054;
579.6000;0.2336;0.2102;
579.9000;0.2352;0.2102;
580.2000;0.2336;0.2054;
580.5000;0.2328;0.1911;
580.8000;0.2344;0.1982;
581.1000;0.2344;0.2006;
581.4000;0.2263;0.1839;
581.7000;0.2352;0.2030;
582.0000;0.2344;0.1911;
582.3000;0.2328;0.1934;
582.6000;0.2336;0.1982;
582.9000;0.2336;0.2054;
583.2000;0.2279;0.1911;
583.5000;0.2369;0.1982;
583.8000;0.2352;0.1863;
584.1000;0.2328;0.1863;
584.4000;0.2255;0.1743;
584.7000;0.2328;0.1958;
585.0000;0.2361;0.2054;
585.3000;0.2393;0.1982;
585.6000;0.2336;0.1791;
585.9000;0.2320;0.1815;
586.2000;0.2352;0.1911;
586.5000;0.2222;0.1624;
586.8000;0.2336;0.1982;
587.1000;0.2409;0.2078;
587.4000;0.2328;0.1911;
587.7000;0.2344;0.1958;
588.0000;0.2328;0.1911;
588.3000;0.2361;0.1911;
588.6000;0.2361;0.1934;
588.9000;0.2361;0.1958;
589.2000;0.2344;0.1911;
589.5000;0.2336;0.1887;
589.8000;0.2336;0.1934;
590.1000;0.2361;0.2030;
590.4000;0.2344;0.2054;
590.7000;0.2450;0.2221;
591.0000;0.2336;0.1982;
591.3000;0.2377;0.2078;
591.6000;0.2328;0.1958;
591.9000;0.2320;0.1958;
592.2000;0.2328;0.2006;
592.5000;0.2336;0.2030;
592.8000;0.2336;0.2078;
593.1000;0.2336;0.1958;
593.4000;0.2352;0.2006;
593.7000;0.2393;0.2126;
594.0000;0.2344;0.1958;
594.3000;0.2344;0.1911;
594.6000;0.2344;0.1934;
594.9000;0.2361;0.2149;
595.2000;0.2336;0.2197;
595.5000;0.2344;0.2245;
595.8000;0.2352;0.2293;
596.1000;0.2328;0.2221;
596.4000;0.2336;0.2173;
596.7000;0.2344;0.2149;
597.0000;0.2344;0.2149;
597.3000;0.2336;0.2030;
597.6000;0.2385;0.2126;
597.9000;0.2336;0.1958;
598.2000;0.2287;0.1887;
598.5000;0.2344;0.1958;
598.8000;0.2352;0.1958;
599.1000;0.2344;0.1911;
599.4000;0.2336;0.1887;
599.7000;0.2312;0.1863;
600.0000;0.2328;0.1911;
600.3000;0.2328;0.1863;
600.6000;0.2336;0.1815;
600.9000;0.2344;0.1863;
601.2000;0.2369;0.1791;
601.5000;0.2328;0.1648;
601.8000;0.2328;0.1624;
602.1000;0.2361;0.1672;
602.4000;0.2328;0.1576;
602.7000;0.2361;0.1624;
603.0000;0.2344;0.1528;
603.3000;0.2344;0.1433;
603.6000;0.2352;0.1337;
603.9000;0.2352;0.1242;
604.2000;0.2344;0.1170;
604.5000;0.2352;0.1194;
604.8000;0.2344;0.1099;
605.1000;0.2361;0.1170;
605.4000;0.2344;0.1218;
605.7000;0.2352;0.1266;
606.0000;0.2369;0.1266;
606.3000;0.2312;0.1122;
606.6000;0.2295;0.1003;
606.9000;0.2361;0.1170;
607.2000;0.2377;0.1242;
607.5000;0.2352;0.1099;
607.8000;0.2352;0.1146;
608.1000;0.2304;0.0931;
608.4000;0.2377;0.1146;
608.7000;0.2336;0.1003;
609.0000;0.2458;0.1337;
609.3000;0.2369;0.1146;
609.6000;0.2369;0.1170;
609.9000;0.2369;0.1218;
610.2000;0.2361;0.1218;
610.5000;0.2377;0.1194;
610.8000;0.2352;0.1170;
611.1000;0.2344;0.1146;
611.4000;0.2344;0.1122;
611.7000;0.2369;0.1146;
612.0000;0.2377;0.1051;
612.3000;0.2336;0.0955;
612.6000;0.2352;0.0908;
612.9000;0.2361;0.1003;
613.2000;0.2377;0.1075;
613.5000;0.2352;0.0979;
613.8000;0.2393;0.1027;
614.1000;0.2336;0.0884;
614.4000;0.2344;0.0884;
614.7000;0.2377;0.0884;
615.0000;0.2344;0.0860;
615.3000;0.2352;0.0931;
615.6000;0.2344;0.0955;
615.9000;0.2344;0.1027;
616.2000;0.2361;0.0931;
616.5000;0.2344;0.0860;
616.8000;0.2369;0.0955;
617.1000;0.2336;0.0860;
617.4000;0.2344;0.0860;
617.7000;0.2352;0.0908;
618.0000;0.2409;0.1051;
618.3000;0.2475;0.1170;
618.6000;0.2361;0.0955;
618.9000;0.2352;0.0979;
619.2000;0.2377;0.1051;
619.5000;0.2352;0.1051;
619.8000;0.2361;0.1170;
620.1000;0.2352;0.1122;
620.4000;0.2247;0.0908;
620.7000;0.2361;0.1266;
621.0000;0.2295;0.1099;
621.3000;0.2304;0.1170;
621.6000;0.2344;0.1290;
621.9000;0.2361;0.1218;
622.2000;0.2352;0.1122;
622.5000;0.2352;0.1122;
622.8000;0.2369;0.1170;
623.1000;0.2352;0.1051;
623.4000;0.2352;0.1122;
623.7000;0.2369;0.1170;
624.0000;0.2393;0.1194;
624.3000;0.2393;0.1122;
624.6000;0.2385;0.1027;
624.9000;0.2352;0.1075;
625.2000;0.2352;0.1027;
625.5000;0.2287;0.0884;
625.8000;0.2369;0.1218;
626.1000;0.2352;0.1170;
626.4000;0.2190;0.0621;
626.7000;0.2369;0.1051;
627.0000;0.2369;0.1051;
627.3000;0.2361;0.1075;
627.6000;0.2239;0.0788;
627.9000;0.2336;0.1075;
628.2000;0.2361;0.1146;
628.5000;0.2369;0.1290;
628.8000;0.2369;0.1337;
629.1000;0.2336;0.1242;
629.4000;0.2328;0.1218;
629.7000;0.2361;0.1194;
630.0000;0.2361;0.1218;
630.3000;0.2352;0.1099;
630.6000;0.2377;0.1099;
630.9000;0.2369;0.1075;
631.2000;0.2287;0.0884;
631.5000;0.2352;0.1099;
631.8000;0.2361;0.1003;
632.1000;0.2344;0.0955;
632.4000;0.2336;0.0955;
632.7000;0.2352;0.0908;
633.0000;0.2352;0.0908;
633.3000;0.2418;0.1218;
633.6000;0.2361;0.1051;
633.9000;0.2352;0.1027;
634.2000;0.2352;0.1122;
634.5000;0.2352;0.1146;
634.8000;0.2385;0.1218;
635.1000;0.2361;0.1099;
635.4000;0.2369;0.1075;
635.7000;0.2369;0.1075;
636.0000;0.2352;0.1003;
636.3000;0.2385;0.0979;
636.6000;0.2312;0.0860;
636.9000;0.2393;0.1051;
637.2000;0.2369;0.1075;
637.5000;0.2344;0.1027;
637.8000;0.2361;0.1051;
638.1000;0.2434;0.1266;
638.4000;0.2385;0.1146;
638.7000;0.2361;0.1003;
639.0000;0.2304;0.0908;
639.3000;0.2352;0.0931;
639.6000;0.2369;0.0955;
639.9000;0.2312;0.0836;
640.2000;0.2336;0.0931;
640.5000;0.2361;0.1003;
640.8000;0.2352;0.0908;
641.1000;0.2328;0.0836;
641.4000;0.2369;0.0979;
641.7000;0.2361;0.0908;
642.0000;0.2393;0.0979;
642.3000;0.2361;0.0955;
642.6000;0.2361;0.1003;
642.9000;0.2344;0.0955;
643.2000;0.2361;0.0931;
643.5000;0.2377;0.1051;
643.8000;0.2377;0.1146;
644.1000;0.2361;0.1075;
644.4000;0.2352;0.1003;
644.7000;0.2369;0.1099;
645.0000;0.2401;0.1075;
645.3000;0.2352;0.0931;
645.6000;0.2344;0.0931;
645.9000;0.2361;0.1027;
646.2000;0.2385;0.1027;
646.5000;0.2352;0.0931;
646.8000;0.2385;0.1099;
647.1000;0.2369;0.1027;
647.4000;0.2361;0.0931;
647.7000;0.2361;0.0979;
648.0000;0.2320;0.0931;
648.3000;0.2352;0.0979;
648.6000;0.2369;0.0931;
648.9000;0.2352;0.0931;
649.2000;0.2377;0.1003;
649.5000;0.2369;0.1051;
649.8000;0.2426;0.1194;
650.1000;0.2385;0.1194;
650.4000;0.2320;0.0979;
650.7000;0.2369;0.1170;
651.0000;0.2377;0.1170;
651.3000;0.2377;0.1122;
651.6000;0.2312;0.0979;
651.9000;0.2377;0.1122;
652.2000;0.2418;0.1218;
652.5000;0.2361;0.1075;
652.8000;0.2352;0.1075;
653.1000;0.2352;0.1051;
653.4000;0.2361;0.1051;
653.7000;0.2369;0.1099;
654.0000;0.2393;0.1242;
654.3000;0.2499;0.1505;
654.6000;0.2377;0.1122;
654.9000;0.2434;0.1314;
655.2000;0.2377;0.1194;
655.5000;0.2369;0.1170;
655.8000;0.2336;0.1075;
656.1000;0.2255;0.0740;
656.4000;0.2369;0.1027;
656.7000;0.2271;0.0669;
657.0000;0.2352;0.0908;
657.3000;0.2320;0.0764;
657.6000;0.2361;0.0908;
657.9000;0.2352;0.0908;
658.2000;0.2369;0.0931;
658.5000;0.2361;0.0908;
658.8000;0.2385;0.0955;
659.1000;0.2385;0.0931;
659.4000;0.2352;0.0884;
659.7000;0.2377;0.0979;
660.0000;0.2352;0.1003;
660.3000;0.2369;0.1027;
660.6000;0.2352;0.1027;
660.9000;0.2352;0.1027;
661.2000;0.2361;0.1027;
661.5000;0.2352;0.0955;
661.8000;0.2361;0.0955;
662.1000;0.2336;0.0884;
662.4000;0.2393;0.0979;
662.7000;0.2352;0.0860;
663.0000;0.2434;0.1146;
663.3000;0.2369;0.1003;
663.6000;0.2361;0.0955;
663.9000;0.2385;0.1099;
664.2000;0.2377;0.1099;
664.5000;0.2377;0.1099;
664.8000;0.2369;0.1075;
665.1000;0.2466;0.1194;
665.4000;0.2369;0.0836;
665.7000;0.2361;0.0836;
666.0000;0.2361;0.0955;
666.3000;0.2385;0.0955;
666.6000;0.2369;0.0979;
666.9000;0.2352;0.1075;
667.2000;0.2369;0.1099;
667.5000;0.2369;0.1075;
667.8000;0.2369;0.1075;
668.1000;0.2369;0.1027;
668.4000;0.2320;0.0884;
668.7000;0.2369;0.1051;
669.0000;0.2352;0.1075;
669.3000;0.2385;0.1170;
669.6000;0.2344;0.1075;
669.9000;0.2336;0.0979;
670.2000;0.2352;0.0979;
670.5000;0.2369;0.1003;
670.8000;0.2361;0.0931;
671.1000;0.2361;0.0884;
671.4000;0.2361;0.0884;
671.7000;0.2377;0.0884;
672.0000;0.2377;0.0979;
672.3000;0.2377;0.1003;
672.6000;0.2369;0.0979;
672.9000;0.2369;0.0955;
673.2000;0.2320;0.0860;
673.5000;0.2369;0.0931;
673.8000;0.2352;0.0955;
674.1000;0.2361;0.1003;
674.4000;0.2369;0.1027;
674.7000;0.2361;0.0908;
675.0000;0.2385;0.0979;
675.3000;0.2352;0.0931;
675.6000;0.2361;0.0908;
675.9000;0.2393;0.1003;
676.2000;0.2344;0.0955;
676.5000;0.2295;0.0740;
676.8000;0.2361;0.0931;
677.1000;0.2393;0.1051;
677.4000;0.2361;0.0908;
677.7000;0.2344;0.0931;
678.0000;0.2361;0.1027;
678.3000;0.2385;0.1266;
678.6000;0.2361;0.1218;
678.9000;0.2361;0.1242;
679.2000;0.2361;0.1242;
679.5000;0.2369;0.1122;
679.8000;0.2361;0.1099;
680.1000;0.2352;0.1075;
680.4000;0.2401;0.1146;
680.7000;0.2369;0.1170;
681.0000;0.2385;0.1218;
681.3000;0.2352;0.1051;
681.6000;0.2369;0.0955;
681.9000;0.2385;0.0931;
682.2000;0.2369;0.0931;
682.5000;0.2361;0.0931;
682.8000;0.2369;0.1003;
683.1000;0.2320;0.0884;
683.4000;0.2361;0.0931;
683.7000;0.2377;0.0955;
684.0000;0.2361;0.0884;
684.3000;0.2393;0.0979;
684.6000;0.2369;0.0931;
684.9000;0.2369;0.0908;
685.2000;0.2344;0.0860;
685.5000;0.2393;0.0979;
685.8000;0.2369;0.0955;
686.1000;0.2385;0.0955;
686.4000;0.2344;0.0908;
686.7000;0.2361;0.0931;
687.0000;0.2352;0.0931;
687.3000;0.2247;0.0716;
687.6000;0.2377;0.1027;
687.9000;0.2336;0.0908;
688.2000;0.2352;0.0908;
688.5000;0.2369;0.0931;
688.8000;0.2352;0.0979;
689.1000;0.2352;0.1099;
689.4000;0.2361;0.0955;
689.7000;0.2361;0.0908;
690.0000;0.2369;0.0931;
690.3000;0.2361;0.0931;
690.6000;0.2361;0.0908;
690.9000;0.2352;0.0860;
691.2000;0.2352;0.0860;
691.5000;0.2352;0.0836;
691.8000;0.2369;0.0884;
692.1000;0.2393;0.1027;
692.4000;0.2377;0.1051;
692.7000;0.2352;0.0979;
693.0000;0.2352;0.1003;
693.3000;0.2377;0.0979;
693.6000;0.2352;0.0908;
693.9000;0.2385;0.0979;
694.2000;0.2344;0.0979;
694.5000;0.2369;0.1027;
694.8000;0.2369;0.1051;
695.1000;0.2361;0.1027;
695.4000;0.2361;0.1003;
695.7000;0.2336;0.0955;
696.0000;0.2393;0.0931;
696.3000;0.2377;0.0931;
696.6000;0.2352;0.0884;
696.9000;0.2352;0.0908;
697.2000;0.2377;0.1075;
697.5000;0.2369;0.0979;
697.8000;0.2369;0.0979;
698.1000;0.2328;0.0836;
698.4000;0.2352;0.0908;
698.7000;0.2385;0.1003;
699.0000;0.2377;0.1051;
699.3000;0.2377;0.1099;
699.6000;0.2369;0.1051;
699.9000;0.2344;0.1051;
700.2000;0.2369;0.1003;
700.5000;0.2344;0.1051;
700.8000;0.2361;0.1051;
701.1000;0.2352;0.0908;
701.4000;0.2369;0.0884;
701.7000;0.2377;0.0955;
702.0000;0.2385;0.0908;
702.3000;0.2328;0.0740;
702.6000;0.2377;0.0860;
702.9000;0.2377;0.0836;
703.2000;0.2393;0.0908;
703.5000;0.2369;0.0908;
703.8000;0.2369;0.0955;
704.1000;0.2377;0.0884;
704.4000;0.2361;0.0836;
704.7000;0.2361;0.0908;
705.0000;0.2377;0.0884;
705.3000;0.2352;0.0860;
705.6000;0.2352;0.0812;
705.9000;0.2344;0.0788;
706.2000;0.2352;0.0979;
706.5000;0.2377;0.1003;
706.8000;0.2336;0.0955;
707.1000;0.2361;0.1099;
707.4000;0.2352;0.1051;
707.7000;0.2344;0.0955;
708.0000;0.2361;0.0931;
708.3000;0.2352;0.0931;
708.6000;0.2369;0.0908;
708.9000;0.2377;0.0931;
709.2000;0.2361;0.0955;
709.5000;0.2336;0.0908;
709.8000;0.2434;0.1122;
710.1000;0.2361;0.0860;
710.4000;0.2352;0.0764;
710.7000;0.2369;0.0740;
711.0000;0.2361;0.0812;
711.3000;0.2361;0.0884;
711.6000;0.2369;0.0955;
711.9000;0.2352;0.0955;
712.2000;0.2361;0.0979;
712.5000;0.2377;0.0955;
712.8000;0.2377;0.1027;
713.1000;0.2352;0.1003;
713.4000;0.2361;0.1075;
713.7000;0.2361;0.1122;
714.0000;0.2336;0.1003;
714.3000;0.2369;0.0979;
714.6000;0.2361;0.0908;
714.9000;0.2352;0.0860;
715.2000;0.2385;0.0931;
715.5000;0.2377;0.0979;
715.8000;0.2361;0.1027;
716.1000;0.2369;0.1003;
716.4000;0.2418;0.0979;
716.7000;0.2352;0.0788;
717.0000;0.2369;0.0788;
717.3000;0.2377;0.0860;
717.6000;0.2377;0.0884;
717.9000;0.2361;0.0908;
718.2000;0.2369;0.0955;
718.5000;0.2377;0.0955;
718.8000;0.2361;0.0979;
719.1000;0.2361;0.1003;
719.4000;0.2385;0.1099;
719.7000;0.2352;0.1075;
720.0000;0.2361;0.1146;
720.3000;0.2352;0.1122;
720.6000;0.2377;0.1051;
720.9000;0.2361;0.1075;
721.2000;0.2344;0.1099;
721.5000;0.2352;0.1146;
721.8000;0.2352;0.1146;
722.1000;0.2369;0.1146;
722.4000;0.2336;0.1027;
722.7000;0.2361;0.1027;
723.0000;0.2377;0.1003;
723.3000;0.2385;0.0931;
723.6000;0.2369;0.0860;
723.9000;0.2361;0.0836;
724.2000;0.2401;0.0955;
724.5000;0.2361;0.0860;
724.8000;0.2361;0.0812;
725.1000;0.2377;0.0884;
725.4000;0.2361;0.0836;
725.7000;0.2279;0.0621;
726.0000;0.2361;0.0931;
726.3000;0.2385;0.0979;
726.6000;0.2369;0.1003;
726.9000;0.2369;0.1075;
727.2000;0.2361;0.1075;
727.5000;0.2369;0.1027;
727.8000;0.2361;0.0979;
728.1000;0.2361;0.0931;
728.4000;0.2352;0.0931;
728.7000;0.2361;0.0955;
729.0000;0.2295;0.0764;
729.3000;0.2361;0.0931;
729.6000;0.2369;0.0955;
729.9000;0.2352;0.0979;
730.2000;0.2352;0.0955;
730.5000;0.2361;0.1003;
730.8000;0.2312;0.0836;
731.1000;0.2352;0.1003;
731.4000;0.2352;0.0955;
731.7000;0.2344;0.0860;
732.0000;0.2369;0.0908;
732.3000;0.2377;0.0931;
732.6000;0.2361;0.0979;
732.9000;0.2344;0.0955;
733.2000;0.2369;0.1027;
733.5000;0.2369;0.1027;
733.8000;0.2377;0.1051;
734.1000;0.2385;0.1075;
734.4000;0.2369;0.1051;
734.7000;0.2361;0.1027;
735.0000;0.2361;0.1075;
735.3000;0.2328;0.0979;
735.6000;0.2361;0.1075;
735.9000;0.2401;0.1099;
736.2000;0.2377;0.1027;
736.5000;0.2344;0.0955;
736.8000;0.2361;0.1027;
737.1000;0.2369;0.1146;
737.4000;0.2344;0.1170;
737.7000;0.2361;0.1194;
738.0000;0.2328;0.1170;
738.3000;0.2328;0.1051;
738.6000;0.2426;0.1385;
738.9000;0.2352;0.1194;
739.2000;0.2352;0.1242;
739.5000;0.2361;0.1266;
739.8000;0.2344;0.1146;
740.1000;0.2385;0.1218;
740.4000;0.2279;0.0931;
740.7000;0.2352;0.1122;
741.0000;0.2361;0.1218;
741.3000;0.2369;0.1266;
741.6000;0.2352;0.1242;
741.9000;0.2320;0.1122;
742.2000;0.2385;0.1266;
742.5000;0.2369;0.1242;
742.8000;0.2361;0.1099;
743.1000;0.2369;0.0979;
743.4000;0.2377;0.1003;
743.7000;0.2377;0.1027;
744.0000;0.2369;0.1027;
744.3000;0.2369;0.1027;
744.6000;0.2369;0.1003;
744.9000;0.2369;0.1003;
745.2000;0.2385;0.1051;
745.5000;0.2352;0.1027;
745.8000;0.2385;0.1099;
746.1000;0.2336;0.1099;
746.4000;0.2361;0.1003;
746.7000;0.2377;0.1003;
747.0000;0.2271;0.0716;
747.3000;0.2377;0.0979;
747.6000;0.2369;0.1003;
747.9000;0.2377;0.1003;
748.2000;0.2426;0.1170;
748.5000;0.2377;0.1027;
748.8000;0.2352;0.0955;
749.1000;0.2393;0.1027;
749.4000;0.2320;0.0884;
749.7000;0.2377;0.0955;
750.0000;0.2401;0.0955;
750.3000;0.2312;0.0788;
750.6000;0.2361;0.0908;
750.9000;0.2369;0.0908;
751.2000;0.2369;0.0931;
751.5000;0.2377;0.0836;
751.8000;0.2377;0.0931;
752.1000;0.2361;0.0931;
752.4000;0.2385;0.0955;
752.7000;0.2377;0.0979;
753.0000;0.2377;0.1075;
753.3000;0.2385;0.1099;
753.6000;0.2369;0.1051;
753.9000;0.2377;0.1051;
754.2000;0.2450;0.1266;
754.5000;0.2369;0.0931;
754.8000;0.2393;0.1003;
755.1000;0.2393;0.0979;
755.4000;0.2352;0.0860;
755.7000;0.2352;0.0931;
756.0000;0.2401;0.0931;
756.3000;0.2344;0.0836;
756.6000;0.2361;0.0979;
756.9000;0.2304;0.0860;
757.2000;0.2361;0.0931;
757.5000;0.2352;0.0955;
757.8000;0.2336;0.0931;
758.1000;0.2369;0.1051;
758.4000;0.2352;0.0884;
758.7000;0.2377;0.0931;
759.0000;0.2369;0.1003;
759.3000;0.2369;0.0979;
759.6000;0.2369;0.0955;
759.9000;0.2385;0.0979;
760.2000;0.2369;0.0931;
760.5000;0.2336;0.0764;
760.8000;0.2377;0.0788;
761.1000;0.2377;0.0860;
761.4000;0.2377;0.0860;
761.7000;0.2369;0.0908;
762.0000;0.2385;0.1003;
762.3000;0.2393;0.0955;
762.6000;0.2393;0.0979;
762.9000;0.2352;0.0884;
763.2000;0.2393;0.0931;
763.5000;0.2369;0.0884;
763.8000;0.2426;0.1075;
764.1000;0.2369;0.0836;
764.4000;0.2336;0.0669;
764.7000;0.2369;0.0812;
765.0000;0.2385;0.0884;
765.3000;0.2369;0.0908;
765.6000;0.2352;0.0836;
765.9000;0.2361;0.0884;
766.2000;0.2352;0.0884;
766.5000;0.2377;0.0955;
766.8000;0.2361;0.0979;
767.1000;0.2344;0.0979;
767.4000;0.2377;0.1027;
767.7000;0.2385;0.0955;
768.0000;0.2320;0.0716;
768.3000;0.2377;0.0716;
768.6000;0.2361;0.0669;
768.9000;0.2385;0.0764;
769.2000;0.2369;0.0764;
769.5000;0.2369;0.0693;
769.8000;0.2344;0.0597;
770.1000;0.2377;0.0740;
770.4000;0.2361;0.0740;
770.7000;0.2369;0.0716;
771.0000;0.2369;0.0669;
771.3000;0.2361;0.0693;
771.6000;0.2385;0.0908;
771.9000;0.2499;0.1266;
772.2000;0.2361;0.0955;
772.5000;0.2385;0.1027;
772.8000;0.2352;0.1051;
773.1000;0.2369;0.1122;
773.4000;0.2377;0.1194;
773.7000;0.2352;0.1075;
774.0000;0.2361;0.1003;
774.3000;0.2369;0.1003;
774.6000;0.2377;0.0955;
774.9000;0.2369;0.0955;
775.2000;0.2385;0.0908;
775.5000;0.2369;0.0979;
775.8000;0.2377;0.0955;
776.1000;0.2361;0.1003;
776.4000;0.2377;0.0979;
776.7000;0.2369;0.0908;
777.0000;0.2369;0.0884;
777.3000;0.2369;0.0979;
777.6000;0.2377;0.0908;
777.9000;0.2393;0.0884;
778.2000;0.2369;0.0836;
778.5000;0.2361;0.0764;
778.8000;0.2393;0.0812;
779.1000;0.2393;0.0764;
779.4000;0.2369;0.0716;
779.7000;0.2361;0.0740;
780.0000;0.2377;0.0836;
780.3000;0.2385;0.0884;
780.6000;0.2377;0.0836;
780.9000;0.2361;0.0836;
781.2000;0.2361;0.0812;
781.5000;0.2369;0.0884;
781.8000;0.2393;0.1003;
782.1000;0.2369;0.0860;
782.4000;0.2369;0.0812;
782.7000;0.2393;0.0979;
783.0000;0.2393;0.0908;
783.3000;0.2361;0.0860;
783.6000;0.2352;0.0955;
783.9000;0.2385;0.1075;
784.2000;0.2361;0.1051;
784.5000;0.2377;0.1099;
784.8000;0.2369;0.1051;
785.1000;0.2377;0.1003;
785.4000;0.2442;0.1170;
785.7000;0.2393;0.1051;
786.0000;0.2369;0.1122;
786.3000;0.2369;0.1099;
786.6000;0.2312;0.0955;
786.9000;0.2377;0.1146;
787.2000;0.2352;0.1099;
787.5000;0.2361;0.1122;
787.8000;0.2377;0.1027;
788.1000;0.2393;0.1027;
788.4000;0.2361;0.0908;
788.7000;0.2369;0.0908;
789.0000;0.2409;0.1075;
789.3000;0.2352;0.0860;
789.6000;0.2377;0.0836;
789.9000;0.2393;0.0979;
790.2000;0.2385;0.0931;
790.5000;0.2369;0.0860;
790.8000;0.2377;0.0908;
791.1000;0.2401;0.0931;
791.4000;0.2361;0.0693;
791.7000;0.2377;0.0740;
792.0000;0.2377;0.0788;
792.3000;0.2361;0.0788;
792.6000;0.2369;0.0884;
792.9000;0.2385;0.1003;
793.2000;0.2483;0.1266;
793.5000;0.2385;0.1003;
793.8000;0.2377;0.0979;
794.1000;0.2369;0.1003;
794.4000;0.2377;0.1027;
794.7000;0.2369;0.0979;
795.0000;0.2377;0.1075;
795.3000;0.2361;0.1051;
795.6000;0.2385;0.1027;
795.9000;0.2385;0.1027;
796.2000;0.2336;0.0812;
796.5000;0.2295;0.0716;
796.8000;0.2361;0.0908;
797.1000;0.2377;0.0955;
797.4000;0.2385;0.1027;
797.7000;0.2377;0.1099;
798.0000;0.2409;0.1146;
798.3000;0.2393;0.1146;
798.6000;0.2369;0.1051;
798.9000;0.2369;0.0979;
799.2000;0.2385;0.1003;
799.5000;0.2361;0.0931;
799.8000;0.2344;0.0931;
800.1000;0.2344;0.0931;
800.4000;0.2385;0.0931;
800.7000;0.2377;0.0955;
801.0000;0.2377;0.0931;
801.3000;0.2377;0.0908;
801.6000;0.2377;0.0955;
801.9000;0.2369;0.0979;
802.2000;0.2385;0.1027;
802.5000;0.2369;0.0979;
802.8000;0.2352;0.0908;
803.1000;0.2385;0.0908;
803.4000;0.2385;0.0955;
803.7000;0.2377;0.1075;
804.0000;0.2361;0.1003;
804.3000;0.2352;0.1051;
804.6000;0.2385;0.1170;
804.9000;0.2369;0.1122;
805.2000;0.2369;0.1146;
805.5000;0.2369;0.1170;
805.8000;0.2385;0.1218;
806.1000;0.2377;0.1242;
806.4000;0.2361;0.1242;
806.7000;0.2361;0.1242;
807.0000;0.2377;0.1194;
807.3000;0.2377;0.1266;
807.6000;0.2336;0.1146;
807.9000;0.2377;0.1266;
808.2000;0.2361;0.1194;
808.5000;0.2385;0.1194;
808.8000;0.2385;0.1075;
809.1000;0.2369;0.0931;
809.4000;0.2352;0.0908;
809.7000;0.2369;0.0979;
810.0000;0.2442;0.1194;
810.3000;0.2369;0.0979;
810.6000;0.2385;0.0955;
810.9000;0.2401;0.1146;
811.2000;0.2401;0.1146;
811.5000;0.2385;0.1051;
811.8000;0.2369;0.0955;
812.1000;0.2271;0.0693;
812.4000;0.2401;0.1027;
812.7000;0.2385;0.0955;
813.0000;0.2385;0.1075;
813.3000;0.2263;0.0812;
813.6000;0.2377;0.1075;
813.9000;0.2377;0.1027;
814.2000;0.2361;0.0955;
814.5000;0.2369;0.1003;
814.8000;0.2393;0.1075;
815.1000;0.2377;0.1027;
815.4000;0.2369;0.1027;
815.7000;0.2377;0.1003;
816.0000;0.2385;0.1027;
816.3000;0.2385;0.1051;
816.6000;0.2369;0.1027;
816.9000;0.2377;0.0979;
817.2000;0.2377;0.0979;
817.5000;0.2385;0.1051;
817.8000;0.2361;0.1003;
818.1000;0.2409;0.1170;
818.4000;0.2320;0.0955;
818.7000;0.2401;0.1099;
819.0000;0.2385;0.1003;
819.3000;0.2385;0.0860;
819.6000;0.2369;0.0836;
819.9000;0.2320;0.0788;
820.2000;0.2434;0.1099;
820.5000;0.2369;0.0908;
820.8000;0.2369;0.0860;
821.1000;0.2369;0.0979;
821.4000;0.2369;0.1051;
821.7000;0.2352;0.0979;
822.0000;0.2385;0.0955;
822.3000;0.2369;0.0908;
822.6000;0.2369;0.0884;
822.9000;0.2409;0.0979;
823.2000;0.2361;0.0955;
823.5000;0.2385;0.0955;
823.8000;0.2377;0.0908;
824.1000;0.2361;0.0860;
824.4000;0.2352;0.0860;
824.7000;0.2377;0.1027;
825.0000;0.2377;0.1051;
825.3000;0.2401;0.1146;
825.6000;0.2369;0.1075;
825.9000;0.2352;0.1027;
826.2000;0.2336;0.0955;
826.5000;0.2377;0.1027;
826.8000;0.2344;0.0955;
827.1000;0.2361;0.1051;
827.4000;0.2369;0.1075;
827.7000;0.2377;0.1075;
828.0000;0.2369;0.1003;
828.3000;0.2475;0.1361;
828.6000;0.2361;0.1051;
828.9000;0.2377;0.1027;
829.2000;0.2401;0.1099;
829.5000;0.2377;0.1099;
829.8000;0.2369;0.1122;
830.1000;0.2377;0.1146;
830.4000;0.2401;0.1146;
830.7000;0.2369;0.1051;
831.0000;0.2336;0.1051;
831.3000;0.2369;0.1242;
831.6000;0.2344;0.1170;
831.9000;0.2271;0.0908;
832.2000;0.2336;0.1075;
832.5000;0.2352;0.1051;
832.8000;0.2352;0.0955;
833.1000;0.2361;0.1003;
833.4000;0.2377;0.1027;
833.7000;0.2352;0.1122;
834.0000;0.2312;0.1099;
834.3000;0.2328;0.1003;
834.6000;0.2369;0.1003;
834.9000;0.2385;0.0860;
835.2000;0.2255;0.0502;
835.5000;0.2361;0.0740;
835.8000;0.2491;0.1051;
836.1000;0.2361;0.0764;
836.4000;0.2361;0.0716;
836.7000;0.2377;0.0860;
837.0000;0.2418;0.0979;
837.3000;0.2369;0.0788;
837.6000;0.2385;0.0740;
837.9000;0.2393;0.0716;
838.2000;0.2401;0.0788;
838.5000;0.2377;0.0740;
838.8000;0.2377;0.0716;
839.1000;0.2369;0.0788;
839.4000;0.2393;0.0788;
839.7000;0.2369;0.0788;
840.0000;0.2385;0.0812;
840.3000;0.2385;0.0979;
840.6000;0.2369;0.1003;
840.9000;0.2377;0.1027;
841.2000;0.2336;0.0955;
841.5000;0.2401;0.1027;
841.8000;0.2393;0.1003;
842.1000;0.2401;0.1075;
842.4000;0.2377;0.1003;
842.7000;0.2377;0.1027;
843.0000;0.2377;0.0931;
843.3000;0.2361;0.0884;
843.6000;0.2369;0.0931;
843.9000;0.2361;0.0931;
844.2000;0.2369;0.0931;
844.5000;0.2352;0.0860;
844.8000;0.2369;0.0884;
845.1000;0.2344;0.0836;
845.4000;0.2385;0.0931;
845.7000;0.2385;0.1003;
846.0000;0.2369;0.1027;
846.3000;0.2393;0.1075;
846.6000;0.2393;0.1027;
846.9000;0.2385;0.0955;
847.2000;0.2361;0.0884;
847.5000;0.2361;0.0812;
847.8000;0.2377;0.0812;
848.1000;0.2304;0.0621;
848.4000;0.2369;0.0860;
848.7000;0.2377;0.0884;
849.0000;0.2377;0.1003;
849.3000;0.2385;0.1051;
849.6000;0.2377;0.1027;
849.9000;0.2377;0.0955;
850.2000;0.2377;0.0979;
850.5000;0.2393;0.1051;
850.8000;0.2385;0.0955;
851.1000;0.2385;0.0955;
851.4000;0.2385;0.0931;
851.7000;0.2377;0.0884;
852.0000;0.2385;0.0884;
852.3000;0.2344;0.0764;
852.6000;0.2377;0.0836;
852.9000;0.2393;0.0955;
853.2000;0.2361;0.0908;
853.5000;0.2385;0.0908;
853.8000;0.2377;0.0931;
854.1000;0.2369;0.1027;
854.4000;0.2361;0.1027;
854.7000;0.2385;0.1051;
855.0000;0.2377;0.0931;
855.3000;0.2336;0.0955;
855.6000;0.2409;0.1146;
855.9000;0.2385;0.1099;
856.2000;0.2418;0.1170;
856.5000;0.2385;0.1122;
856.8000;0.2377;0.1218;
857.1000;0.2361;0.1170;
857.4000;0.2385;0.1290;
857.7000;0.2377;0.1314;
858.0000;0.2312;0.1122;
858.3000;0.2361;0.1170;
858.6000;0.2320;0.0979;
858.9000;0.2377;0.1122;
859.2000;0.2352;0.1051;
859.5000;0.2369;0.1218;
859.8000;0.2361;0.1290;
860.1000;0.2377;0.1218;
860.4000;0.2361;0.1146;
860.7000;0.2369;0.1194;
861.0000;0.2344;0.1027;
861.3000;0.2361;0.1075;
861.6000;0.2369;0.1099;
861.9000;0.2401;0.1122;
862.2000;0.2401;0.1170;
862.5000;0.2385;0.1170;
862.8000;0.2287;0.0884;
863.1000;0.2361;0.1003;
863.4000;0.2434;0.1122;
863.7000;0.2385;0.1027;
864.0000;0.2361;0.1003;
864.3000;0.2499;0.1409;
864.6000;0.2385;0.1122;
864.9000;0.2369;0.1099;
865.2000;0.2377;0.1075;
865.5000;0.2369;0.1003;
865.8000;0.2385;0.1027;
866.1000;0.2336;0.0979;
866.4000;0.2377;0.1122;
866.7000;0.2361;0.1075;
867.0000;0.2377;0.1075;
867.3000;0.2393;0.1051;
867.6000;0.2385;0.1027;
867.9000;0.2369;0.1146;
868.2000;0.2377;0.1146;
868.5000;0.2393;0.1146;
868.8000;0.2312;0.0931;
869.1000;0.2328;0.0979;
869.4000;0.2336;0.1051;
869.7000;0.2369;0.1075;
870.0000;0.2385;0.1122;
870.3000;0.2385;0.1170;
870.6000;0.2369;0.1218;
870.9000;0.2393;0.1170;
871.2000;0.2377;0.1051;
871.5000;0.2377;0.0955;
871.8000;0.2377;0.0931;
872.1000;0.2361;0.1003;
872.4000;0.2385;0.1027;
872.7000;0.2393;0.1027;
873.0000;0.2377;0.0931;
873.3000;0.2385;0.1003;
873.6000;0.2369;0.0979;
873.9000;0.2377;0.1027;
874.2000;0.2377;0.0979;
874.5000;0.2369;0.0931;
874.8000;0.2369;0.0884;
875.1000;0.2393;0.0979;
875.4000;0.2352;0.0908;
875.7000;0.2377;0.0955;
876.0000;0.2377;0.0908;
876.3000;0.2369;0.0836;
876.6000;0.2361;0.0860;
876.9000;0.2393;0.0979;
877.2000;0.2361;0.1003;
877.5000;0.2369;0.1003;
877.8000;0.2385;0.1099;
878.1000;0.2369;0.1051;
878.4000;0.2377;0.1075;
878.7000;0.2393;0.1170;
879.0000;0.2361;0.1170;
879.3000;0.2369;0.1051;
879.6000;0.2295;0.0860;
879.9000;0.2295;0.0740;
880.2000;0.2385;0.0955;
880.5000;0.2377;0.0955;
880.8000;0.2361;0.0979;
881.1000;0.2369;0.0931;
881.4000;0.2393;0.1051;
881.7000;0.2320;0.0931;
882.0000;0.2393;0.1075;
882.3000;0.2385;0.0955;
882.6000;0.2369;0.0931;
882.9000;0.2369;0.0931;
883.2000;0.2385;0.0955;
883.5000;0.2377;0.0955;
883.8000;0.2393;0.1027;
884.1000;0.2393;0.1051;
884.4000;0.2369;0.0955;
884.7000;0.2377;0.0931;
885.0000;0.2377;0.0931;
885.3000;0.2401;0.1003;
885.6000;0.2369;0.0979;
885.9000;0.2369;0.1003;
886.2000;0.2393;0.1051;
886.5000;0.2385;0.1027;
886.8000;0.2352;0.0931;
887.1000;0.2483;0.1242;
887.4000;0.2401;0.1027;
887.7000;0.2393;0.0860;
888.0000;0.2304;0.0597;
888.3000;0.2418;0.0979;
888.6000;0.2385;0.0955;
888.9000;0.2401;0.1099;
889.2000;0.2369;0.1051;
889.5000;0.2393;0.1170;
889.8000;0.2239;0.0716;
890.1000;0.2442;0.1194;
890.4000;0.2312;0.0931;
890.7000;0.2361;0.0931;
891.0000;0.2377;0.0884;
891.3000;0.2328;0.0884;
891.6000;0.2369;0.1051;
891.9000;0.2369;0.0955;
892.2000;0.2369;0.0979;
892.5000;0.2369;0.0979;
892.8000;0.2377;0.1003;
893.1000;0.2466;0.1099;
893.4000;0.2361;0.0788;
893.7000;0.2377;0.0860;
894.0000;0.2393;0.0955;
894.3000;0.2369;0.0884;
894.6000;0.2361;0.0931;
894.9000;0.2369;0.0908;
895.2000;0.2369;0.0908;
895.5000;0.2393;0.1003;
895.8000;0.2377;0.0931;
896.1000;0.2361;0.0908;
896.4000;0.2393;0.1003;
896.7000;0.2369;0.0955;
897.0000;0.2385;0.0955;
897.3000;0.2393;0.0979;
897.6000;0.2401;0.1027;
897.9000;0.2369;0.1003;
898.2000;0.2409;0.1099;
898.5000;0.2361;0.0979;
898.8000;0.2385;0.1003;
899.1000;0.2385;0.1003;
899.4000;0.2361;0.0931;
899.7000;0.2401;0.1003;
900.0000;0.2361;0.0908;
900.3000;0.2393;0.1003;
900.6000;0.2401;0.1003;
900.9000;0.2369;0.0979;
901.2000;0.2312;0.0788;
901.5000;0.2385;0.0955;
901.8000;0.2401;0.0979;
902.1000;0.2369;0.0931;
902.4000;0.2393;0.0884;
902.7000;0.2393;0.0931;
903.0000;0.2393;0.0955;
903.3000;0.2393;0.0955;
903.6000;0.2336;0.0788;
903.9000;0.2401;0.1003;
904.2000;0.2336;0.0836;
904.5000;0.2369;0.1003;
904.8000;0.2393;0.0979;
905.1000;0.2385;0.0979;
905.4000;0.2377;0.0860;
905.7000;0.2385;0.0860;
906.0000;0.2336;0.0740;
906.3000;0.2385;0.0860;
906.6000;0.2377;0.0788;
906.9000;0.2385;0.0788;
907.2000;0.2377;0.0764;
907.5000;0.2377;0.0716;
907.8000;0.2385;0.0764;
908.1000;0.2409;0.0836;
908.4000;0.2385;0.0884;
908.7000;0.2393;0.0860;
909.0000;0.2369;0.0788;
909.3000;0.2214;0.0406;
909.6000;0.2352;0.0740;
909.9000;0.2401;0.0860;
910.2000;0.2361;0.0693;
910.5000;0.2385;0.0788;
910.8000;0.2409;0.0860;
911.1000;0.2377;0.0836;
911.4000;0.2385;0.0812;
911.7000;0.2385;0.0812;
912.0000;0.2328;0.0764;
912.3000;0.2385;0.0979;
912.6000;0.2352;0.0931;
912.9000;0.2377;0.1003;
913.2000;0.2401;0.1146;
913.5000;0.2369;0.1075;
913.8000;0.2352;0.1003;
914.1000;0.2361;0.1003;
914.4000;0.2344;0.0979;
914.7000;0.2385;0.1146;
915.0000;0.2377;0.1122;
915.3000;0.2352;0.1027;
915.6000;0.2377;0.1003;
915.9000;0.2385;0.0955;
916.2000;0.2393;0.0955;
916.5000;0.2385;0.0955;
916.8000;0.2369;0.0979;
917.1000;0.2426;0.1146;
917.4000;0.2385;0.1099;
917.7000;0.2377;0.1003;
918.0000;0.2377;0.1003;
918.3000;0.2385;0.0979;
918.6000;0.2393;0.1003;
918.9000;0.2377;0.0955;
919.2000;0.2458;0.1146;
919.5000;0.2393;0.1003;
919.8000;0.2409;0.0979;
920.1000;0.2393;0.0955;
920.4000;0.2385;0.0931;
920.7000;0.2369;0.0860;
921.0000;0.2393;0.0884;
921.3000;0.2361;0.0764;
921.6000;0.2385;0.0860;
921.9000;0.2377;0.0788;
922.2000;0.2385;0.0836;
922.5000;0.2385;0.0908;
922.8000;0.2361;0.0764;
923.1000;0.2369;0.0812;
923.4000;0.2377;0.0860;
923.7000;0.2393;0.0860;
924.0000;0.2401;0.0908;
924.3000;0.2385;0.0908;
924.6000;0.2377;0.0931;
924.9000;0.2295;0.0788;
925.2000;0.2491;0.1290;
925.5000;0.2385;0.1051;
925.8000;0.2385;0.1099;
926.1000;0.2377;0.1099;
926.4000;0.2556;0.1576;
926.7000;0.2369;0.1075;
927.0000;0.2385;0.1075;
927.3000;0.2409;0.1075;
927.6000;0.2418;0.1003;
927.9000;0.2336;0.0788;
928.2000;0.2304;0.0740;
928.5000;0.2369;0.0955;
928.8000;0.2385;0.1027;
929.1000;0.2279;0.0788;
929.4000;0.2377;0.1003;
929.7000;0.2385;0.0979;
930.0000;0.2418;0.1027;
930.3000;0.2361;0.0836;
930.6000;0.2385;0.0908;
930.9000;0.2385;0.0908;
931.2000;0.2361;0.0884;
931.5000;0.2377;0.0908;
931.8000;0.2393;0.0979;
932.1000;0.2393;0.1051;
932.4000;0.2385;0.1099;
932.7000;0.2377;0.1027;
933.0000;0.2361;0.1003;
933.3000;0.2442;0.1218;
933.6000;0.2401;0.1099;
933.9000;0.2393;0.1122;
934.2000;0.2450;0.1218;
934.5000;0.2377;0.1075;
934.8000;0.2393;0.1146;
935.1000;0.2385;0.1170;
935.4000;0.2377;0.1218;
935.7000;0.2385;0.1146;
936.0000;0.2328;0.1027;
936.3000;0.2377;0.1075;
936.6000;0.2401;0.1099;
936.9000;0.2377;0.1003;
937.2000;0.2409;0.1051;
937.5000;0.2385;0.0908;
937.8000;0.2377;0.0979;
938.1000;0.2450;0.1242;
938.4000;0.2352;0.1027;
938.7000;0.2377;0.0979;
939.0000;0.2393;0.0979;
939.3000;0.2361;0.1027;
939.6000;0.2377;0.1027;
939.9000;0.2385;0.1122;
940.2000;0.2393;0.1122;
940.5000;0.2377;0.1075;
940.8000;0.2377;0.1099;
941.1000;0.2369;0.1122;
941.4000;0.2304;0.1051;
941.7000;0.2377;0.1290;
942.0000;0.2385;0.1218;
942.3000;0.2312;0.0931;
942.6000;0.2369;0.1051;
942.9000;0.2385;0.1051;
943.2000;0.2393;0.1146;
943.5000;0.2377;0.1099;
943.8000;0.2426;0.1290;
944.1000;0.2369;0.1122;
944.4000;0.2369;0.1099;
944.7000;0.2385;0.1146;
945.0000;0.2377;0.1218;
945.3000;0.2304;0.0908;
945.6000;0.2361;0.1075;
945.9000;0.2385;0.1194;
946.2000;0.2369;0.1075;
946.5000;0.2377;0.1051;
946.8000;0.2409;0.1003;
947.1000;0.2361;0.0860;
947.4000;0.2369;0.0788;
947.7000;0.2369;0.0836;
948.0000;0.2361;0.0860;
948.3000;0.2369;0.0836;
948.6000;0.2369;0.0836;
948.9000;0.2377;0.0812;
949.2000;0.2409;0.0836;
949.5000;0.2369;0.0669;
949.8000;0.2369;0.0645;
950.1000;0.2393;0.0693;
950.4000;0.2385;0.0693;
950.7000;0.2377;0.0645;
951.0000;0.2377;0.0716;
951.3000;0.2352;0.0693;
951.6000;0.2385;0.0860;
951.9000;0.2377;0.0860;
952.2000;0.2401;0.0884;
952.5000;0.2377;0.0860;
952.8000;0.2385;0.0788;
953.1000;0.2393;0.0740;
953.4000;0.2377;0.0764;
953.7000;0.2385;0.0788;
954.0000;0.2393;0.0884;
954.3000;0.2393;0.0860;
954.6000;0.2393;0.0979;
954.9000;0.2393;0.1051;
955.2000;0.2393;0.1099;
955.5000;0.2393;0.1099;
955.8000;0.2401;0.1099;
956.1000;0.2344;0.0979;
956.4000;0.2385;0.1075;
956.7000;0.2377;0.1027;
957.0000;0.2393;0.0931;
957.3000;0.2393;0.0931;
957.6000;0.2385;0.0860;
957.9000;0.2393;0.0860;
958.2000;0.2409;0.0860;
958.5000;0.2385;0.0860;
958.8000;0.2442;0.1075;
959.1000;0.2377;0.0955;
959.4000;0.2385;0.0955;
959.7000;0.2369;0.0979;
960.0000;0.2328;0.0908;
960.3000;0.2377;0.1003;
960.6000;0.2361;0.0955;
960.9000;0.2287;0.0764;
961.2000;0.2320;0.0836;
961.5000;0.2369;0.0931;
961.8000;0.2369;0.0979;
962.1000;0.2385;0.1003;
962.4000;0.2361;0.1051;
962.7000;0.2377;0.1027;
963.0000;0.2377;0.0955;
963.3000;0.2361;0.0908;
963.6000;0.2361;0.0979;
963.9000;0.2385;0.1027;
964.2000;0.2458;0.1218;
964.5000;0.2393;0.1170;
964.8000;0.2385;0.1146;
965.1000;0.2377;0.1170;
965.4000;0.2369;0.1075;
965.7000;0.2369;0.1003;
966.0000;0.2385;0.1075;
966.3000;0.2434;0.1170;
966.6000;0.2393;0.1075;
966.9000;0.2426;0.1122;
967.2000;0.2287;0.0812;
967.5000;0.2369;0.1051;
967.8000;0.2352;0.0979;
968.1000;0.2458;0.1194;
968.4000;0.2401;0.1027;
968.7000;0.2385;0.1003;
969.0000;0.2369;0.0979;
969.3000;0.2312;0.0860;
969.6000;0.2385;0.1027;
969.9000;0.2393;0.1099;
970.2000;0.2377;0.1051;
970.5000;0.2385;0.1146;
970.8000;0.2393;0.1218;
971.1000;0.2377;0.1146;
971.4000;0.2344;0.1122;
971.7000;0.2369;0.1194;
972.0000;0.2328;0.1051;
972.3000;0.2312;0.0979;
972.6000;0.2361;0.1027;
972.9000;0.2361;0.1051;
973.2000;0.2369;0.1003;
973.5000;0.2409;0.1051;
973.8000;0.2377;0.1051;
974.1000;0.2385;0.0979;
974.4000;0.2361;0.0955;
974.7000;0.2393;0.0955;
975.0000;0.2377;0.1051;
975.3000;0.2377;0.1075;
975.6000;0.2499;0.1481;
975.9000;0.2369;0.1051;
976.2000;0.2409;0.1122;
976.5000;0.2263;0.0716;
976.8000;0.2393;0.1027;
977.1000;0.2328;0.0931;
977.4000;0.2369;0.1027;
977.7000;0.2377;0.1003;
978.0000;0.2352;0.0955;
978.3000;0.2393;0.1003;
978.6000;0.2385;0.1003;
978.9000;0.2401;0.1027;
979.2000;0.2385;0.1003;
979.5000;0.2336;0.1027;
979.8000;0.2328;0.1027;
980.1000;0.2361;0.1194;
980.4000;0.2295;0.1027;
980.7000;0.2377;0.1266;
981.0000;0.2401;0.1290;
981.3000;0.2377;0.1266;
981.6000;0.2377;0.1218;
981.9000;0.2320;0.1075;
982.2000;0.2385;0.1242;
982.5000;0.2418;0.1290;
982.8000;0.2263;0.0860;
983.1000;0.2393;0.1218;
983.4000;0.2328;0.1075;
983.7000;0.2385;0.1170;
984.0000;0.2442;0.1266;
984.3000;0.2377;0.1099;
984.6000;0.2377;0.1003;
984.9000;0.2434;0.1146;
985.2000;0.2263;0.0693;
985.5000;0.2418;0.1122;
985.8000;0.2369;0.0979;
986.1000;0.2401;0.1099;
986.4000;0.2401;0.1122;
986.7000;0.2385;0.1218;
987.0000;0.2377;0.1146;
987.3000;0.2369;0.1218;
987.6000;0.2369;0.1218;
987.9000;0.2352;0.1146;
988.2000;0.2385;0.1194;
988.5000;0.2377;0.1170;
988.8000;0.2385;0.1099;
989.1000;0.2377;0.1099;
989.4000;0.2369;0.1075;
989.7000;0.2393;0.1122;
990.0000;0.2393;0.1051;
990.3000;0.2377;0.0908;
990.6000;0.2369;0.0908;
990.9000;0.2369;0.0860;
991.2000;0.2401;0.0884;
991.5000;0.2401;0.0955;
991.8000;0.2450;0.1122;
992.1000;0.2401;0.1099;
992.4000;0.2393;0.1122;
992.7000;0.2393;0.1170;
993.0000;0.2385;0.1170;
993.3000;0.2385;0.1170;
993.6000;0.2361;0.1099;
993.9000;0.2377;0.1194;
994.2000;0.2393;0.1146;
994.5000;0.2369;0.1122;
994.8000;0.2385;0.1099;
995.1000;0.2401;0.1051;
995.4000;0.2361;0.0955;
995.7000;0.2385;0.1075;
996.0000;0.2475;0.1385;
996.3000;0.2385;0.1099;
996.6000;0.2385;0.1075;
996.9000;0.2393;0.1075;
997.2000;0.2377;0.1051;
997.5000;0.2385;0.1170;
997.8000;0.2393;0.1242;
998.1000;0.2369;0.1218;
998.4000;0.2352;0.1170;
998.7000;0.2352;0.1170;
999.0000;0.2393;0.1290;
999.3000;0.2385;0.1242;
999.6000;0.2483;0.1481;
999.9000;0.2426;0.1314;
1000.2000;0.2385;0.1194;
1000.5000;0.2369;0.1290;
1000.8000;0.2385;0.1242;
1001.1000;0.2377;0.1122;
1001.4000;0.2344;0.1003;
1001.7000;0.2434;0.1314;
1002.0000;0.2418;0.1242;
1002.3000;0.2361;0.1122;
1002.6000;0.2393;0.1266;
1002.9000;0.2483;0.1505;
1003.2000;0.2271;0.0908;
1003.5000;0.2361;0.1146;
1003.8000;0.2377;0.1146;
1004.1000;0.2393;0.1194;
1004.4000;0.2418;0.1266;
1004.7000;0.2361;0.1266;
1005.0000;0.2401;0.1361;
1005.3000;0.2385;0.1314;
1005.6000;0.2377;0.1242;
1005.9000;0.2426;0.1314;
1006.2000;0.2377;0.1242;
1006.5000;0.2369;0.1337;
1006.8000;0.2344;0.1290;
1007.1000;0.2385;0.1385;
1007.4000;0.2361;0.1385;
1007.7000;0.2393;0.1481;
1008.0000;0.2361;0.1385;
1008.3000;0.2377;0.1361;
1008.6000;0.2377;0.1290;
1008.9000;0.2385;0.1266;
1009.2000;0.2385;0.1218;
1009.5000;0.2361;0.1218;
1009.8000;0.2409;0.1242;
1010.1000;0.2369;0.1099;
1010.4000;0.2393;0.1170;
1010.7000;0.2409;0.1122;
1011.0000;0.2361;0.1051;
1011.3000;0.2385;0.1218;
1011.6000;0.2385;0.1170;
1011.9000;0.2385;0.1242;
1012.2000;0.2393;0.1218;
1012.5000;0.2377;0.1242;
1012.8000;0.2385;0.1314;
1013.1000;0.2409;0.1337;
1013.4000;0.2377;0.1385;
1013.7000;0.2377;0.1314;
1014.0000;0.2385;0.1242;
1014.3000;0.2385;0.1242;
1014.6000;0.2352;0.1075;
1014.9000;0.2385;0.1170;
1015.2000;0.2361;0.1194;
1015.5000;0.2377;0.1170;
1015.8000;0.2377;0.1146;
1016.1000;0.2352;0.1194;
1016.4000;0.2377;0.1242;
1016.7000;0.2393;0.1290;
1017.0000;0.2393;0.1266;
1017.3000;0.2287;0.0860;
1017.6000;0.2377;0.1146;
1017.9000;0.2361;0.1146;
1018.2000;0.2369;0.1146;
1018.5000;0.2344;0.1051;
1018.8000;0.2361;0.1027;
1019.1000;0.2393;0.1194;
1019.4000;0.2401;0.1051;
1019.7000;0.2377;0.1051;
1020.0000;0.2304;0.0836;
1020.3000;0.2344;0.1003;
1020.6000;0.2385;0.1122;
1020.9000;0.2377;0.1099;
1021.2000;0.2352;0.1170;
1021.5000;0.2385;0.1290;
1021.8000;0.2377;0.1242;
1022.1000;0.2385;0.1290;
1022.4000;0.2385;0.1385;
1022.7000;0.2377;0.1314;
1023.0000;0.2344;0.1242;
1023.3000;0.2385;0.1314;
1023.6000;0.2361;0.1122;
1023.9000;0.2361;0.1146;
1024.2000;0.2377;0.1194;
1024.5000;0.2385;0.1146;
1024.8000;0.2393;0.1146;
1025.1000;0.2377;0.1122;
1025.4000;0.2377;0.1099;
1025.7000;0.2328;0.1027;
1026.0000;0.2385;0.1075;
1026.3000;0.2377;0.1122;
1026.6000;0.2344;0.1146;
1026.9000;0.2369;0.1290;
1027.2000;0.2377;0.1170;
1027.5000;0.2401;0.1194;
1027.8000;0.2409;0.1170;
1028.1000;0.2401;0.1194;
1028.4000;0.2393;0.1146;
1028.7000;0.2369;0.1099;
1029.0000;0.2377;0.1075;
1029.3000;0.2361;0.1099;
1029.6000;0.2385;0.1122;
1029.9000;0.2361;0.1099;
1030.2000;0.2377;0.1170;
1030.5000;0.2369;0.1194;
1030.8000;0.2352;0.1099;
1031.1000;0.2369;0.1122;
1031.4000;0.2385;0.1194;
1031.7000;0.2377;0.1122;
1032.0000;0.2385;0.1099;
1032.3000;0.2393;0.1170;
1032.6000;0.2401;0.1194;
1032.9000;0.2393;0.1146;
1033.2000;0.2393;0.1122;
1033.5000;0.2393;0.1146;
1033.8000;0.2393;0.1242;
1034.1000;0.2385;0.1242;
1034.4000;0.2369;0.1170;
1034.7000;0.2385;0.1194;
1035.0000;0.2393;0.1266;
1035.3000;0.2409;0.1337;
1035.6000;0.2377;0.1218;
1035.9000;0.2369;0.1194;
1036.2000;0.2377;0.1266;
1036.5000;0.2393;0.1218;
1036.8000;0.2377;0.1194;
1037.1000;0.2385;0.1170;
1037.4000;0.2385;0.1099;
1037.7000;0.2393;0.1146;
1038.0000;0.2418;0.1099;
1038.3000;0.2320;0.0836;
1038.6000;0.2385;0.0955;
1038.9000;0.2385;0.1027;
1039.2000;0.2401;0.1075;
1039.5000;0.2369;0.0979;
1039.8000;0.2377;0.1027;
1040.1000;0.2385;0.1027;
1040.4000;0.2401;0.1027;
1040.7000;0.2369;0.1003;
1041.0000;0.2393;0.1146;
1041.3000;0.2361;0.1051;
1041.6000;0.2361;0.1003;
1041.9000;0.2401;0.1122;
1042.2000;0.2377;0.1051;
1042.5000;0.2377;0.1003;
1042.8000;0.2361;0.0931;
1043.1000;0.2344;0.0908;
1043.4000;0.2230;0.0573;
1043.7000;0.2401;0.1027;
1044.0000;0.2369;0.0955;
1044.3000;0.2385;0.0931;
1044.6000;0.2279;0.0669;
1044.9000;0.2369;0.0908;
1045.2000;0.2385;0.1003;
1045.5000;0.2352;0.0931;
1045.8000;0.2385;0.1027;
1046.1000;0.2361;0.1003;
1046.4000;0.2385;0.1099;
1046.7000;0.2401;0.1099;
1047.0000;0.2377;0.1122;
1047.3000;0.2418;0.1170;
1047.6000;0.2418;0.1218;
1047.9000;0.2377;0.1194;
1048.2000;0.2401;0.1242;
1048.5000;0.2385;0.1194;
1048.8000;0.2295;0.0884;
1049.1000;0.2450;0.1290;
1049.4000;0.2426;0.1194;
1049.7000;0.2507;0.1409;
1050.0000;0.2401;0.1170;
1050.3000;0.2393;0.1170;
1050.6000;0.2377;0.1146;
1050.9000;0.2369;0.1099;
1051.2000;0.2369;0.1003;
1051.5000;0.2385;0.1051;
1051.8000;0.2377;0.1027;
1052.1000;0.2393;0.1099;
1052.4000;0.2369;0.1194;
1052.7000;0.2409;0.1194;
1053.0000;0.2385;0.1218;
1053.3000;0.2409;0.1337;
1053.6000;0.2393;0.1314;
1053.9000;0.2385;0.1266;
1054.2000;0.2328;0.1146;
1054.5000;0.2377;0.1242;
1054.8000;0.2361;0.1194;
1055.1000;0.2377;0.1242;
1055.4000;0.2361;0.1170;
1055.7000;0.2377;0.1266;
1056.0000;0.2385;0.1385;
1056.3000;0.2377;0.1290;
1056.6000;0.2385;0.1218;
1056.9000;0.2369;0.1170;
1057.2000;0.2377;0.1122;
1057.5000;0.2385;0.1194;
1057.8000;0.2401;0.1290;
1058.1000;0.2352;0.1122;
1058.4000;0.2393;0.1266;
1058.7000;0.2385;0.1170;
1059.0000;0.2377;0.1122;
1059.3000;0.2344;0.1027;
1059.6000;0.2369;0.1170;
1059.9000;0.2393;0.1170;
1060.2000;0.2393;0.1242;
1060.5000;0.2377;0.1122;
1060.8000;0.2393;0.1170;
1061.1000;0.2336;0.1003;
1061.4000;0.2377;0.1027;
1061.7000;0.2393;0.1075;
1062.0000;0.2393;0.1075;
1062.3000;0.2377;0.1122;
1062.6000;0.2385;0.1242;
1062.9000;0.2361;0.1146;
1063.2000;0.2393;0.1290;
1063.5000;0.2369;0.1170;
1063.8000;0.2385;0.1337;
1064.1000;0.2377;0.1290;
1064.4000;0.2385;0.1385;
1064.7000;0.2377;0.1314;
1065.0000;0.2361;0.1242;
1065.3000;0.2385;0.1218;
1065.6000;0.2361;0.1099;
1065.9000;0.2369;0.1075;
1066.2000;0.2369;0.1075;
1066.5000;0.2377;0.1146;
1066.8000;0.2328;0.1051;
1067.1000;0.2369;0.1122;
1067.4000;0.2385;0.1146;
1067.7000;0.2393;0.1194;
1068.0000;0.2418;0.1290;
1068.3000;0.2393;0.1242;
1068.6000;0.2352;0.1099;
1068.9000;0.2515;0.1505;
1069.2000;0.2393;0.1218;
1069.5000;0.2409;0.1290;
1069.8000;0.2230;0.0860;
1070.1000;0.2369;0.1099;
1070.4000;0.2393;0.1146;
1070.7000;0.2377;0.0955;
1071.0000;0.2352;0.0931;
1071.3000;0.2369;0.0908;
1071.6000;0.2385;0.1003;
1071.9000;0.2385;0.1003;
1072.2000;0.2369;0.1003;
1072.5000;0.2377;0.0979;
1072.8000;0.2320;0.0860;
1073.1000;0.2369;0.0860;
1073.4000;0.2361;0.0860;
1073.7000;0.2361;0.0979;
1074.0000;0.2352;0.0860;
1074.3000;0.2393;0.0979;
1074.6000;0.2393;0.1051;
1074.9000;0.2385;0.1003;
1075.2000;0.2344;0.0955;
1075.5000;0.2369;0.1099;
1075.8000;0.2377;0.1146;
1076.1000;0.2369;0.1099;
1076.4000;0.2369;0.1051;
1076.7000;0.2377;0.1027;
1077.0000;0.2385;0.0955;
1077.3000;0.2369;0.0979;
1077.6000;0.2377;0.0955;
1077.9000;0.2385;0.0955;
1078.2000;0.2393;0.0884;
1078.5000;0.2393;0.0884;
1078.8000;0.2385;0.0884;
1079.1000;0.2361;0.0740;
1079.4000;0.2385;0.0860;
1079.7000;0.2450;0.0955;
1080.0000;0.2401;0.0860;
1080.3000;0.2377;0.0908;
1080.6000;0.2385;0.0955;
1080.9000;0.2361;0.0979;
1081.2000;0.2377;0.0955;
1081.5000;0.2458;0.1242;
1081.8000;0.2393;0.1051;
1082.1000;0.2361;0.0979;
1082.4000;0.2385;0.1027;
1082.7000;0.2385;0.1099;
1083.0000;0.2385;0.1027;
1083.3000;0.2385;0.1051;
1083.6000;0.2377;0.1027;
1083.9000;0.2393;0.1122;
1084.2000;0.2377;0.1051;
1084.5000;0.2385;0.1075;
1084.8000;0.2385;0.1003;
1085.1000;0.2385;0.1003;
1085.4000;0.2377;0.1027;
1085.7000;0.2393;0.0955;
1086.0000;0.2377;0.0884;
1086.3000;0.2361;0.0931;
1086.6000;0.2361;0.0979;
1086.9000;0.2377;0.0979;
1087.2000;0.2385;0.1051;
1087.5000;0.2393;0.1027;
1087.8000;0.2385;0.0979;
1088.1000;0.2385;0.0955;
1088.4000;0.2393;0.0884;
1088.7000;0.2377;0.0931;
1089.0000;0.2393;0.0979;
1089.3000;0.2385;0.0979;
1089.6000;0.2409;0.1099;
1089.9000;0.2491;0.1385;
1090.2000;0.2385;0.1122;
1090.5000;0.2369;0.0979;
1090.8000;0.2393;0.1075;
1091.1000;0.2361;0.1122;
1091.4000;0.2401;0.1146;
1091.7000;0.2401;0.1146;
1092.0000;0.2393;0.1194;
1092.3000;0.2377;0.1194;
1092.6000;0.2426;0.1242;
1092.9000;0.2361;0.1146;
1093.2000;0.2385;0.1146;
1093.5000;0.2377;0.1075;
1093.8000;0.2377;0.1170;
1094.1000;0.2369;0.1146;
1094.4000;0.2377;0.1075;
1094.7000;0.2361;0.0908;
1095.0000;0.2393;0.1027;
1095.3000;0.2393;0.0908;
1095.6000;0.2393;0.0955;
1095.9000;0.2377;0.0860;
1096.2000;0.2369;0.0812;
1096.5000;0.2377;0.0908;
1096.8000;0.2320;0.0764;
1097.1000;0.2377;0.0955;
1097.4000;0.2377;0.0979;
1097.7000;0.2385;0.1170;
1098.0000;0.2377;0.1170;
1098.3000;0.2377;0.1170;
1098.6000;0.2442;0.1337;
1098.9000;0.2369;0.1122;
1099.2000;0.2271;0.0788;
1099.5000;0.2377;0.1027;
1099.8000;0.2377;0.1027;
1100.1000;0.2279;0.0740;
1100.4000;0.2450;0.1170;
1100.7000;0.2385;0.1027;
1101.0000;0.2385;0.1051;
1101.3000;0.2377;0.1051;
1101.6000;0.2442;0.1194;
1101.9000;0.2369;0.1027;
1102.2000;0.2377;0.1027;
1102.5000;0.2401;0.1027;
1102.8000;0.2385;0.0955;
1103.1000;0.2418;0.1027;
1103.4000;0.2369;0.0931;
1103.7000;0.2385;0.0955;
1104.0000;0.2377;0.0931;
1104.3000;0.2409;0.1027;
1104.6000;0.2393;0.1051;
1104.9000;0.2369;0.1003;
1105.2000;0.2377;0.0955;
1105.5000;0.2385;0.0955;
1105.8000;0.2393;0.0955;
1106.1000;0.2515;0.1337;
1106.4000;0.2377;0.0979;
1106.7000;0.2255;0.0621;
1107.0000;0.2393;0.0931;
1107.3000;0.2377;0.0908;
1107.6000;0.2393;0.0908;
1107.9000;0.2393;0.0955;
1108.2000;0.2442;0.1099;
1108.5000;0.2385;0.0931;
1108.8000;0.2369;0.0836;
1109.1000;0.2393;0.0979;
1109.4000;0.2369;0.0908;
1109.7000;0.2377;0.0955;
1110.0000;0.2369;0.0884;
1110.3000;0.2393;0.1003;
1110.6000;0.2369;0.1003;
1110.9000;0.2385;0.1099;
1111.2000;0.2377;0.1099;
1111.5000;0.2393;0.1146;
1111.8000;0.2385;0.1122;
1112.1000;0.2418;0.1242;
1112.4000;0.2385;0.1122;
1112.7000;0.2369;0.1075;
1113.0000;0.2385;0.1146;
1113.3000;0.2361;0.1075;
1113.6000;0.2385;0.1146;
1113.9000;0.2393;0.1170;
1114.2000;0.2336;0.0931;
1114.5000;0.2393;0.1170;
1114.8000;0.2393;0.1218;
1115.1000;0.2409;0.1266;
1115.4000;0.2385;0.1146;
1115.7000;0.2385;0.1218;
1116.0000;0.2361;0.1266;
1116.3000;0.2385;0.1385;
1116.6000;0.2385;0.1409;
1116.9000;0.2377;0.1385;
1117.2000;0.2377;0.1337;
1117.5000;0.2458;0.1457;
1117.8000;0.2393;0.1337;
1118.1000;0.2369;0.1170;
1118.4000;0.2385;0.1146;
1118.7000;0.2352;0.1099;
1119.0000;0.2401;0.1218;
1119.3000;0.2385;0.1194;
1119.6000;0.2377;0.1146;
1119.9000;0.2393;0.1122;
1120.2000;0.2393;0.1242;
1120.5000;0.2409;0.1242;
1120.8000;0.2385;0.1099;
1121.1000;0.2369;0.1051;
1121.4000;0.2393;0.1075;
1121.7000;0.2409;0.1051;
1122.0000;0.2385;0.0931;
1122.3000;0.2385;0.0931;
1122.6000;0.2304;0.0812;
1122.9000;0.2393;0.1027;
1123.2000;0.2385;0.1003;
1123.5000;0.2344;0.0955;
1123.8000;0.2377;0.1075;
1124.1000;0.2450;0.1314;
1124.4000;0.2369;0.1146;
1124.7000;0.2393;0.1194;
1125.0000;0.2377;0.1266;
1125.3000;0.2507;0.1505;
1125.6000;0.2393;0.1194;
1125.9000;0.2401;0.1194;
1126.2000;0.2385;0.1218;
1126.5000;0.2401;0.1194;
1126.8000;0.2393;0.1242;
1127.1000;0.2385;0.1266;
1127.4000;0.2369;0.1218;
1127.7000;0.2385;0.1290;
1128.0000;0.2377;0.1099;
1128.3000;0.2352;0.1051;
1128.6000;0.2377;0.1075;
1128.9000;0.2401;0.1075;
1129.2000;0.2385;0.1099;
1129.5000;0.2385;0.1170;
1129.8000;0.2361;0.1075;
1130.1000;0.2401;0.1099;
1130.4000;0.2393;0.1051;
1130.7000;0.2377;0.1099;
1131.0000;0.2369;0.1146;
1131.3000;0.2287;0.0860;
1131.6000;0.2393;0.1122;
1131.9000;0.2377;0.1122;
1132.2000;0.2385;0.1218;
1132.5000;0.2369;0.1170;
1132.8000;0.2385;0.1218;
1133.1000;0.2385;0.1146;
1133.4000;0.2377;0.1099;
1133.7000;0.2393;0.1170;
1134.0000;0.2361;0.1122;
1134.3000;0.2401;0.1218;
1134.6000;0.2393;0.1170;
1134.9000;0.2361;0.1146;
1135.2000;0.2361;0.1099;
1135.5000;0.2385;0.1075;
1135.8000;0.2377;0.1099;
1136.1000;0.2401;0.1122;
1136.4000;0.2361;0.1003;
1136.7000;0.2369;0.1027;
1137.0000;0.2385;0.1099;
1137.3000;0.2499;0.1337;
1137.6000;0.2369;0.1122;
1137.9000;0.2385;0.1218;
1138.2000;0.2271;0.0908;
1138.5000;0.2385;0.1194;
1138.8000;0.2393;0.1266;
1139.1000;0.2320;0.1075;
1139.4000;0.2393;0.1194;
1139.7000;0.2401;0.1194;
1140.0000;0.2401;0.1122;
1140.3000;0.2393;0.1146;
1140.6000;0.2377;0.1170;
1140.9000;0.2304;0.1003;
1141.2000;0.2385;0.1122;
1141.5000;0.2377;0.1099;
1141.8000;0.2377;0.1075;
1142.1000;0.2377;0.1027;
1142.4000;0.2426;0.1218;
1142.7000;0.2385;0.1051;
1143.0000;0.2369;0.1027;
1143.3000;0.2393;0.1170;
1143.6000;0.2377;0.1194;
1143.9000;0.2483;0.1409;
1144.2000;0.2312;0.0931;
1144.5000;0.2418;0.1266;
1144.8000;0.2385;0.1242;
1145.1000;0.2393;0.1361;
1145.4000;0.2361;0.1314;
1145.7000;0.2401;0.1433;
1146.0000;0.2393;0.1361;
1146.3000;0.2377;0.1242;
1146.6000;0.2312;0.1027;
1146.9000;0.2377;0.1290;
1147.2000;0.2401;0.1385;
1147.5000;0.2377;0.1361;
1147.8000;0.2369;0.1385;
1148.1000;0.2393;0.1409;
1148.4000;0.2377;0.1314;
1148.7000;0.2377;0.1314;
1149.0000;0.2312;0.1099;
1149.3000;0.2385;0.1314;
1149.6000;0.2393;0.1361;
1149.9000;0.2401;0.1337;
1150.2000;0.2385;0.1409;
1150.5000;0.2385;0.1385;
1150.8000;0.2385;0.1242;
1151.1000;0.2426;0.1314;
1151.4000;0.2466;0.1266;
1151.7000;0.2385;0.1122;
1152.0000;0.2385;0.1170;
1152.3000;0.2352;0.1075;
1152.6000;0.2385;0.1170;
1152.9000;0.2377;0.1146;
1153.2000;0.2393;0.1170;
1153.5000;0.2377;0.1122;
1153.8000;0.2377;0.1099;
1154.1000;0.2393;0.1051;
1154.4000;0.2483;0.1361;
1154.7000;0.2385;0.1027;
1155.0000;0.2409;0.1003;
1155.3000;0.2377;0.0884;
1155.6000;0.2385;0.0955;
1155.9000;0.2377;0.1003;
1156.2000;0.2369;0.1170;
1156.5000;0.2393;0.1170;
1156.8000;0.2361;0.1122;
1157.1000;0.2361;0.1051;
1157.4000;0.2393;0.1194;
1157.7000;0.2393;0.1194;
1158.0000;0.2361;0.1146;
1158.3000;0.2361;0.1146;
1158.6000;0.2369;0.1122;
1158.9000;0.2377;0.1170;
1159.2000;0.2344;0.1075;
1159.5000;0.2377;0.1170;
1159.8000;0.2385;0.1075;
1160.1000;0.2418;0.1075;
1160.4000;0.2377;0.1051;
1160.7000;0.2369;0.1099;
1161.0000;0.2385;0.0979;
1161.3000;0.2385;0.0979;
1161.6000;0.2385;0.0931;
1161.9000;0.2361;0.0860;
1162.2000;0.2401;0.1003;
1162.5000;0.2393;0.1099;
1162.8000;0.2377;0.1051;
1163.1000;0.2377;0.1075;
1163.4000;0.2401;0.1075;
1163.7000;0.2377;0.0979;
1164.0000;0.2385;0.1051;
1164.3000;0.2385;0.1122;
1164.6000;0.2377;0.1146;
1164.9000;0.2442;0.1361;
1165.2000;0.2418;0.1194;
1165.5000;0.2377;0.1170;
1165.8000;0.2393;0.1075;
1166.1000;0.2401;0.1051;
1166.4000;0.2385;0.1099;
1166.7000;0.2393;0.1122;
1167.0000;0.2466;0.1290;
1167.3000;0.2393;0.1027;
1167.6000;0.2369;0.1003;
1167.9000;0.2393;0.1075;
1168.2000;0.2328;0.0884;
1168.5000;0.2369;0.0979;
1168.8000;0.2385;0.1027;
1169.1000;0.2377;0.0908;
1169.4000;0.2385;0.0908;
1169.7000;0.2385;0.0812;
1170.0000;0.2377;0.0788;
1170.3000;0.2393;0.0955;
1170.6000;0.2377;0.1003;
1170.9000;0.2369;0.0979;
1171.2000;0.2418;0.1003;
1171.5000;0.2401;0.0955;
1171.8000;0.2385;0.0931;
1172.1000;0.2361;0.0860;
1172.4000;0.2385;0.0955;
1172.7000;0.2385;0.0955;
1173.0000;0.2401;0.0979;
1173.3000;0.2336;0.0788;
1173.6000;0.2385;0.0955;
1173.9000;0.2393;0.0979;
1174.2000;0.2361;0.1003;
1174.5000;0.2393;0.1051;
1174.8000;0.2377;0.1027;
1175.1000;0.2475;0.1290;
1175.4000;0.2418;0.1099;
1175.7000;0.2385;0.0955;
1176.0000;0.2361;0.0908;
1176.3000;0.2385;0.0955;
1176.6000;0.2393;0.0955;
1176.9000;0.2401;0.0908;
1177.2000;0.2361;0.0955;
1177.5000;0.2385;0.0979;
1177.8000;0.2377;0.1051;
1178.1000;0.2385;0.1051;
1178.4000;0.2377;0.1051;
1178.7000;0.2377;0.1003;
1179.0000;0.2385;0.1003;
1179.3000;0.2393;0.0931;
1179.6000;0.2377;0.0908;
1179.9000;0.2361;0.0860;
1180.2000;0.2377;0.0884;
1180.5000;0.2393;0.0812;
1180.8000;0.2369;0.0716;
1181.1000;0.2385;0.0812;
1181.4000;0.2385;0.0884;
1181.7000;0.2271;0.0645;
1182.0000;0.2361;0.0812;
1182.3000;0.2385;0.0908;
1182.6000;0.2393;0.0931;
1182.9000;0.2426;0.1122;
1183.2000;0.2385;0.1122;
1183.5000;0.2385;0.1051;
1183.8000;0.2369;0.1003;
1184.1000;0.2369;0.0955;
1184.4000;0.2385;0.1027;
1184.7000;0.2434;0.1099;
1185.0000;0.2369;0.1003;
1185.3000;0.2377;0.1003;
1185.6000;0.2393;0.1122;
1185.9000;0.2409;0.1218;
1186.2000;0.2377;0.1170;
1186.5000;0.2393;0.1242;
1186.8000;0.2385;0.1218;
1187.1000;0.2377;0.1170;
1187.4000;0.2377;0.1242;
1187.7000;0.2385;0.1314;
1188.0000;0.2369;0.1242;
1188.3000;0.2393;0.1266;
1188.6000;0.2377;0.1242;
1188.9000;0.2312;0.1099;
1189.2000;0.2369;0.1242;
1189.5000;0.2385;0.1194;
1189.8000;0.2385;0.1170;
1190.1000;0.2409;0.1122;
1190.4000;0.2377;0.1075;
1190.7000;0.2377;0.1099;
1191.0000;0.2385;0.1194;
1191.3000;0.2369;0.1194;
1191.6000;0.2385;0.1146;
1191.9000;0.2385;0.1194;
1192.2000;0.2385;0.1170;
1192.5000;0.2336;0.1051;
1192.8000;0.2369;0.1146;
1193.1000;0.2385;0.1194;
1193.4000;0.2385;0.1194;
1193.7000;0.2377;0.1146;
1194.0000;0.2393;0.1122;
1194.3000;0.2393;0.1218;
1194.6000;0.2385;0.1266;
1194.9000;0.2361;0.1266;
1195.2000;0.2385;0.1314;
1195.5000;0.2369;0.1170;
1195.8000;0.2401;0.1218;
1196.1000;0.2393;0.1194;
1196.4000;0.2385;0.1146;
1196.7000;0.2401;0.1122;
1197.0000;0.2385;0.1122;
1197.3000;0.2393;0.1194;
1197.6000;0.2377;0.1146;
1197.9000;0.2369;0.1099;
1198.2000;0.2475;0.1385;
1198.5000;0.2304;0.0955;
1198.8000;0.2377;0.1122;
1199.1000;0.2401;0.1314;
1199.4000;0.2434;0.1433;
1199.7000;0.2385;0.1337;
1200.0000;0.2377;0.1290;
1200.3000;0.2475;0.1576;
1200.6000;0.2377;0.1242;
1200.9000;0.2377;0.1146;
1201.2000;0.2377;0.1170;
1201.5000;0.2377;0.1194;
1201.8000;0.2401;0.1242;
1202.1000;0.2385;0.1170;
1202.4000;0.2401;0.1194;
1202.7000;0.2393;0.1146;
1203.0000;0.2377;0.1075;
1203.3000;0.2401;0.1194;
1203.6000;0.2377;0.1170;
1203.9000;0.2393;0.1170;
1204.2000;0.2385;0.1146;
1204.5000;0.2377;0.1266;
1204.8000;0.2418;0.1385;
1205.1000;0.2385;0.1218;
1205.4000;0.2361;0.1075;
1205.7000;0.2393;0.1122;
1206.0000;0.2393;0.1099;
1206.3000;0.2401;0.1146;
1206.6000;0.2304;0.0955;
1206.9000;0.2377;0.1099;
1207.2000;0.2377;0.1146;
1207.5000;0.2385;0.1122;
1207.8000;0.2393;0.1194;
1208.1000;0.2483;0.1361;
1208.4000;0.2377;0.1122;
1208.7000;0.2352;0.0979;
1209.0000;0.2385;0.1075;
1209.3000;0.2385;0.1099;
1209.6000;0.2401;0.1170;
1209.9000;0.2361;0.1099;
1210.2000;0.2385;0.1218;
1210.5000;0.2385;0.1170;
1210.8000;0.2352;0.1075;
1211.1000;0.2361;0.1099;
1211.4000;0.2385;0.1051;
1211.7000;0.2377;0.0908;
1212.0000;0.2377;0.0979;
1212.3000;0.2377;0.0884;
1212.6000;0.2385;0.0812;
1212.9000;0.2458;0.1122;
1213.2000;0.2401;0.0979;
1213.5000;0.2393;0.0908;
1213.8000;0.2328;0.0716;
1214.1000;0.2369;0.0740;
1214.4000;0.2385;0.0788;
1214.7000;0.2409;0.0908;
1215.0000;0.2320;0.0860;
1215.3000;0.2377;0.0955;
1215.6000;0.2385;0.1003;
1215.9000;0.2393;0.1027;
1216.2000;0.2385;0.0979;
1216.5000;0.2393;0.1027;
1216.8000;0.2385;0.0979;
1217.1000;0.2377;0.0979;
1217.4000;0.2361;0.0979;
1217.7000;0.2409;0.1194;
1218.0000;0.2336;0.0908;
1218.3000;0.2344;0.0908;
1218.6000;0.2393;0.1122;
1218.9000;0.2385;0.1122;
1219.2000;0.2369;0.1027;
1219.5000;0.2369;0.0955;
1219.8000;0.2377;0.1003;
1220.1000;0.2377;0.1051;
1220.4000;0.2369;0.1075;
1220.7000;0.2393;0.1218;
1221.0000;0.2409;0.1314;
1221.3000;0.2401;0.1385;
1221.6000;0.2369;0.1194;
1221.9000;0.2369;0.1194;
1222.2000;0.2369;0.1146;
1222.5000;0.2385;0.1099;
1222.8000;0.2393;0.1051;
1223.1000;0.2377;0.1027;
1223.4000;0.2377;0.1051;
1223.7000;0.2377;0.1075;
1224.0000;0.2409;0.1099;
1224.3000;0.2393;0.1003;
1224.6000;0.2377;0.1003;
1224.9000;0.2352;0.0860;
1225.2000;0.2393;0.0860;
1225.5000;0.2393;0.0836;
1225.8000;0.2377;0.0812;
1226.1000;0.2377;0.0836;
1226.4000;0.2385;0.0860;
1226.7000;0.2377;0.0836;
1227.0000;0.2377;0.0884;
1227.3000;0.2385;0.0955;
1227.6000;0.2377;0.0979;
1227.9000;0.2401;0.1027;
1228.2000;0.2418;0.1027;
1228.5000;0.2377;0.0931;
1228.8000;0.2385;0.1003;
1229.1000;0.2377;0.0979;
1229.4000;0.2393;0.0931;
1229.7000;0.2385;0.0931;
1230.0000;0.2377;0.0979;
1230.3000;0.2385;0.0955;
1230.6000;0.2393;0.0979;
1230.9000;0.2385;0.0931;
1231.2000;0.2409;0.1003;
1231.5000;0.2369;0.1003;
1231.8000;0.2385;0.0979;
1232.1000;0.2369;0.0979;
1232.4000;0.2409;0.1075;
1232.7000;0.2352;0.0908;
1233.0000;0.2352;0.0979;
1233.3000;0.2336;0.0884;
1233.6000;0.2377;0.0979;
1233.9000;0.2377;0.0979;
1234.2000;0.2393;0.1051;
1234.5000;0.2385;0.1027;
1234.8000;0.2434;0.1099;
1235.1000;0.2385;0.0955;
1235.4000;0.2385;0.0908;
1235.7000;0.2385;0.0931;
1236.0000;0.2377;0.0931;
1236.3000;0.2393;0.1051;
1236.6000;0.2393;0.1122;
1236.9000;0.2393;0.1218;
1237.2000;0.2393;0.1194;
1237.5000;0.2393;0.1194;
1237.8000;0.2377;0.1218;
1238.1000;0.2393;0.1194;
1238.4000;0.2393;0.1146;
1238.7000;0.2393;0.1146;
1239.0000;0.2401;0.1194;
1239.3000;0.2377;0.1075;
1239.6000;0.2344;0.0955;
1239.9000;0.2369;0.1003;
1240.2000;0.2401;0.1075;
1240.5000;0.2377;0.1027;
1240.8000;0.2393;0.1075;
1241.1000;0.2393;0.1170;
1241.4000;0.2377;0.1122;
1241.7000;0.2393;0.1266;
1242.0000;0.2393;0.1194;
1242.3000;0.2393;0.1170;
1242.6000;0.2385;0.1146;
1242.9000;0.2369;0.1122;
1243.2000;0.2385;0.1146;
1243.5000;0.2385;0.1170;
1243.8000;0.2385;0.1122;
1244.1000;0.2385;0.1051;
1244.4000;0.2377;0.1075;
1244.7000;0.2385;0.1099;
1245.0000;0.2377;0.1122;
1245.3000;0.2393;0.1146;
1245.6000;0.2385;0.1051;
1245.9000;0.2385;0.1027;
1246.2000;0.2409;0.1122;
1246.5000;0.2344;0.0884;
1246.8000;0.2385;0.0955;
1247.1000;0.2377;0.0908;
1247.4000;0.2393;0.0931;
1247.7000;0.2385;0.0931;
1248.0000;0.2393;0.0979;
1248.3000;0.2361;0.0955;
1248.6000;0.2385;0.1099;
1248.9000;0.2385;0.1099;
1249.2000;0.2409;0.1242;
1249.5000;0.2393;0.1122;
1249.8000;0.2434;0.1218;
1250.1000;0.2377;0.1027;
1250.4000;0.2426;0.1242;
1250.7000;0.2418;0.1122;
1251.0000;0.2426;0.1122;
1251.3000;0.2377;0.1003;
1251.6000;0.2393;0.1051;
1251.9000;0.2230;0.0693;
1252.2000;0.2377;0.1027;
1252.5000;0.2287;0.0836;
1252.8000;0.2393;0.1122;
1253.1000;0.2409;0.1099;
1253.4000;0.2361;0.1003;
1253.7000;0.2369;0.0955;
1254.0000;0.2344;0.0908;
1254.3000;0.2393;0.1051;
1254.6000;0.2385;0.1027;
1254.9000;0.2401;0.1051;
1255.2000;0.2320;0.0812;
1255.5000;0.2393;0.1099;
1255.8000;0.2409;0.1099;
1256.1000;0.2393;0.0955;
1256.4000;0.2352;0.0931;
1256.7000;0.2377;0.0931;
1257.0000;0.2377;0.0955;
1257.3000;0.2401;0.1027;
1257.6000;0.2377;0.0931;
1257.9000;0.2361;0.0979;
1258.2000;0.2369;0.0955;
1258.5000;0.2393;0.1003;
1258.8000;0.2393;0.1027;
1259.1000;0.2385;0.0979;
1259.4000;0.2377;0.0931;
1259.7000;0.2385;0.0979;
1260.0000;0.2385;0.1075;
1260.3000;0.2393;0.1146;
1260.6000;0.2385;0.1146;
1260.9000;0.2385;0.1051;
1261.2000;0.2377;0.0979;
1261.5000;0.2377;0.0931;
1261.8000;0.2385;0.1027;
1262.1000;0.2475;0.1361;
1262.4000;0.2393;0.1099;
1262.7000;0.2393;0.1003;
1263.0000;0.2385;0.1003;
1263.3000;0.2393;0.1075;
1263.6000;0.2401;0.1146;
1263.9000;0.2426;0.1146;
1264.2000;0.2385;0.1122;
1264.5000;0.2393;0.1170;
1264.8000;0.2385;0.1194;
1265.1000;0.2393;0.1146;
1265.4000;0.2393;0.1075;
1265.7000;0.2385;0.1051;
1266.0000;0.2401;0.1170;
1266.3000;0.2401;0.1099;
1266.6000;0.2377;0.0908;
1266.9000;0.2393;0.0931;
1267.2000;0.2401;0.0908;
1267.5000;0.2385;0.0908;
1267.8000;0.2385;0.0955;
1268.1000;0.2377;0.0955;
1268.4000;0.2328;0.0812;
1268.7000;0.2393;0.1003;
1269.0000;0.2418;0.1099;
1269.3000;0.2418;0.0979;
1269.6000;0.2393;0.0955;
1269.9000;0.2401;0.0931;
1270.2000;0.2377;0.0860;
1270.5000;0.2393;0.0812;
1270.8000;0.2377;0.0812;
1271.1000;0.2458;0.0955;
1271.4000;0.2385;0.0860;
1271.7000;0.2377;0.0908;
1272.0000;0.2369;0.0908;
1272.3000;0.2344;0.0716;
1272.6000;0.2393;0.0716;
1272.9000;0.2385;0.0740;
1273.2000;0.2466;0.0979;
1273.5000;0.2401;0.0931;
1273.8000;0.2369;0.0908;
1274.1000;0.2393;0.0908;
1274.4000;0.2409;0.1003;
1274.7000;0.2393;0.0955;
1275.0000;0.2409;0.1051;
1275.3000;0.2409;0.1003;
1275.6000;0.2393;0.0836;
1275.9000;0.2385;0.0836;
1276.2000;0.2385;0.0812;
1276.5000;0.2393;0.0812;
1276.8000;0.2393;0.0860;
1277.1000;0.2401;0.0908;
1277.4000;0.2361;0.0884;
1277.7000;0.2409;0.0931;
1278.0000;0.2393;0.0955;
1278.3000;0.2385;0.0931;
1278.6000;0.2385;0.1003;
1278.9000;0.2385;0.1003;
1279.2000;0.2377;0.1051;
1279.5000;0.2369;0.0979;
1279.8000;0.2393;0.1003;
1280.1000;0.2385;0.0931;
1280.4000;0.2377;0.0884;
1280.7000;0.2426;0.1003;
1281.0000;0.2483;0.1218;
1281.3000;0.2393;0.0955;
1281.6000;0.2393;0.0931;
1281.9000;0.2385;0.0884;
1282.2000;0.2393;0.0908;
1282.5000;0.2393;0.0931;
1282.8000;0.2377;0.0908;
1283.1000;0.2377;0.0931;
1283.4000;0.2385;0.0955;
1283.7000;0.2377;0.0955;
1284.0000;0.2385;0.0979;
1284.3000;0.2401;0.0979;
1284.6000;0.2361;0.0836;
1284.9000;0.2393;0.0860;
1285.2000;0.2401;0.0908;
1285.5000;0.2442;0.1051;
1285.8000;0.2393;0.0860;
1286.1000;0.2393;0.0931;
1286.4000;0.2377;0.0931;
1286.7000;0.2385;0.0931;
1287.0000;0.2352;0.0764;
1287.3000;0.2369;0.0836;
1287.6000;0.2385;0.0955;
1287.9000;0.2393;0.1099;
1288.2000;0.2434;0.1242;
1288.5000;0.2393;0.1122;
1288.8000;0.2393;0.1051;
1289.1000;0.2377;0.0979;
1289.4000;0.2434;0.1146;
1289.7000;0.2385;0.1027;
1290.0000;0.2385;0.1075;
1290.3000;0.2377;0.1146;
1290.6000;0.2377;0.1099;
1290.9000;0.2369;0.1003;
1291.2000;0.2369;0.1003;
1291.5000;0.2369;0.1051;
1291.8000;0.2393;0.1099;
1292.1000;0.2377;0.1099;
1292.4000;0.2385;0.1122;
1292.7000;0.2401;0.1146;
1293.0000;0.2409;0.1242;
1293.3000;0.2393;0.1122;
1293.6000;0.2369;0.1146;
1293.9000;0.2369;0.1242;
1294.2000;0.2271;0.0955;
1294.5000;0.2393;0.1146;
1294.8000;0.2385;0.1099;
1295.1000;0.2385;0.1003;
1295.4000;0.2385;0.0979;
1295.7000;0.2393;0.1027;
1296.0000;0.2369;0.1003;
1296.3000;0.2401;0.1051;
1296.6000;0.2393;0.1003;
1296.9000;0.2385;0.1075;
1297.2000;0.2393;0.1099;
1297.5000;0.2393;0.1075;
1297.8000;0.2385;0.1003;
1298.1000;0.2393;0.1027;
1298.4000;0.2385;0.1003;
1298.7000;0.2385;0.0979;
1299.0000;0.2426;0.1051;
1299.3000;0.2385;0.0931;
1299.6000;0.2385;0.0908;
1299.9000;0.2393;0.0955;
1300.2000;0.2336;0.0931;
1300.5000;0.2385;0.1075;
1300.8000;0.2409;0.1146;
1301.1000;0.2377;0.1075;
1301.4000;0.2328;0.0860;
1301.7000;0.2401;0.1003;
1302.0000;0.2279;0.0788;
1302.3000;0.2385;0.1075;
1302.6000;0.2466;0.1314;
1302.9000;0.2385;0.1075;
1303.2000;0.2393;0.1075;
1303.5000;0.2361;0.0979;
1303.8000;0.2450;0.1218;
1304.1000;0.2401;0.1099;
1304.4000;0.2385;0.1075;
1304.7000;0.2393;0.1075;
1305.0000;0.2377;0.0979;
1305.3000;0.2377;0.0908;
1305.6000;0.2385;0.0931;
1305.9000;0.2393;0.0955;
1306.2000;0.2418;0.0836;
1306.5000;0.2385;0.0812;
1306.8000;0.2426;0.1051;
1307.1000;0.2369;0.1003;
1307.4000;0.2393;0.1027;
1307.7000;0.2499;0.1361;
1308.0000;0.2385;0.1075;
1308.3000;0.2336;0.0908;
1308.6000;0.2401;0.0955;
1308.9000;0.2401;0.0955;
1309.2000;0.2369;0.0836;
1309.5000;0.2377;0.0908;
1309.8000;0.2385;0.0836;
1310.1000;0.2336;0.0740;
1310.4000;0.2377;0.0860;
1310.7000;0.2385;0.0931;
1311.0000;0.2393;0.0931;
1311.3000;0.2401;0.0979;
1311.6000;0.2434;0.1122;
1311.9000;0.2377;0.0908;
1312.2000;0.2401;0.0955;
1312.5000;0.2401;0.0955;
1312.8000;0.2385;0.1027;
1313.1000;0.2271;0.0812;
1313.4000;0.2393;0.1075;
1313.7000;0.2385;0.1075;
1314.0000;0.2377;0.1051;
1314.3000;0.2369;0.0908;
1314.6000;0.2401;0.0931;
1314.9000;0.2401;0.0884;
1315.2000;0.2377;0.0884;
1315.5000;0.2352;0.0740;
1315.8000;0.2401;0.0908;
1316.1000;0.2393;0.0860;
1316.4000;0.2352;0.0884;
1316.7000;0.2393;0.1051;
1317.0000;0.2401;0.1099;
1317.3000;0.2369;0.1075;
1317.6000;0.2393;0.1122;
1317.9000;0.2385;0.1122;
1318.2000;0.2393;0.1218;
1318.5000;0.2377;0.1122;
1318.8000;0.2418;0.1266;
1319.1000;0.2377;0.1003;
1319.4000;0.2393;0.1027;
1319.7000;0.2401;0.0955;
1320.0000;0.2434;0.0979;
1320.3000;0.2393;0.0812;
1320.6000;0.2393;0.0764;
1320.9000;0.2458;0.0931;
1321.2000;0.2418;0.0908;
1321.5000;0.2401;0.0836;
1321.8000;0.2401;0.0788;
1322.1000;0.2418;0.0908;
1322.4000;0.2385;0.0860;
1322.7000;0.2418;0.0955;
1323.0000;0.2377;0.0860;
1323.3000;0.2475;0.1146;
1323.6000;0.2418;0.0931;
1323.9000;0.2401;0.0931;
1324.2000;0.2385;0.0860;
1324.5000;0.2385;0.0788;
1324.8000;0.2393;0.0764;
1325.1000;0.2393;0.0740;
1325.4000;0.2385;0.0740;
1325.7000;0.2401;0.0836;
1326.0000;0.2401;0.0860;
1326.3000;0.2499;0.1170;
1326.6000;0.2377;0.0884;
1326.9000;0.2393;0.0955;
1327.2000;0.2385;0.1003;
1327.5000;0.2369;0.1027;
1327.8000;0.2377;0.1099;
1328.1000;0.2377;0.1122;
1328.4000;0.2401;0.1242;
1328.7000;0.2385;0.1218;
1329.0000;0.2442;0.1361;
1329.3000;0.2393;0.1218;
1329.6000;0.2369;0.1146;
1329.9000;0.2393;0.1146;
1330.2000;0.2369;0.0931;
1330.5000;0.2361;0.0860;
1330.8000;0.2426;0.1099;
1331.1000;0.2377;0.1003;
1331.4000;0.2377;0.0908;
1331.7000;0.2393;0.0979;
1332.0000;0.2393;0.0931;
1332.3000;0.2377;0.0884;
1332.6000;0.2393;0.0955;
1332.9000;0.2377;0.1027;
1333.2000;0.2377;0.1003;
1333.5000;0.2369;0.0931;
1333.8000;0.2377;0.0908;
1334.1000;0.2385;0.0955;
1334.4000;0.2369;0.0955;
1334.7000;0.2426;0.1170;
1335.0000;0.2361;0.1051;
1335.3000;0.2385;0.1027;
1335.6000;0.2361;0.0860;
1335.9000;0.2369;0.1027;
1336.2000;0.2409;0.1027;
1336.5000;0.2369;0.0884;
1336.8000;0.2385;0.0979;
1337.1000;0.2385;0.0931;
1337.4000;0.2377;0.0860;
1337.7000;0.2361;0.0764;
1338.0000;0.2369;0.0788;
1338.3000;0.2377;0.0836;
1338.6000;0.2385;0.0836;
1338.9000;0.2409;0.0908;
1339.2000;0.2393;0.0860;
1339.5000;0.2385;0.0908;
1339.8000;0.2418;0.0931;
1340.1000;0.2336;0.0716;
1340.4000;0.2434;0.0931;
1340.7000;0.2369;0.0669;
1341.0000;0.2385;0.0716;
1341.3000;0.2369;0.0788;
1341.6000;0.2426;0.1003;
1341.9000;0.2401;0.1027;
1342.2000;0.2401;0.1027;
1342.5000;0.2385;0.1003;
1342.8000;0.2499;0.1218;
1343.1000;0.2393;0.1003;
1343.4000;0.2385;0.0931;
1343.7000;0.2393;0.0979;
1344.0000;0.2361;0.0812;
1344.3000;0.2409;0.0908;
1344.6000;0.2393;0.0860;
1344.9000;0.2369;0.0836;
1345.2000;0.2385;0.0884;
1345.5000;0.2393;0.0860;
1345.8000;0.2409;0.0908;
1346.1000;0.2385;0.0931;
1346.4000;0.2377;0.0931;
1346.7000;0.2271;0.0597;
1347.0000;0.2393;0.0979;
1347.3000;0.2426;0.1122;
1347.6000;0.2393;0.1051;
1347.9000;0.2295;0.0812;
1348.2000;0.2393;0.1075;
1348.5000;0.2361;0.1027;
1348.8000;0.2385;0.1122;
1349.1000;0.2475;0.1433;
1349.4000;0.2377;0.1146;
1349.7000;0.2409;0.1290;
1350.0000;0.2393;0.1361;
1350.3000;0.2385;0.1266;
1350.6000;0.2426;0.1242;
1350.9000;0.2377;0.1075;
1351.2000;0.2377;0.0955;
1351.5000;0.2377;0.0955;
1351.8000;0.2385;0.0979;
1352.1000;0.2385;0.0955;
1352.4000;0.2369;0.0931;
1352.7000;0.2385;0.0979;
1353.0000;0.2409;0.1122;
1353.3000;0.2393;0.1075;
1353.6000;0.2385;0.1051;
1353.9000;0.2377;0.1027;
1354.2000;0.2434;0.1075;
1354.5000;0.2385;0.1075;
1354.8000;0.2377;0.1099;
1355.1000;0.2352;0.0931;
1355.4000;0.2393;0.0979;
1355.7000;0.2401;0.1051;
1356.0000;0.2344;0.0860;
1356.3000;0.2401;0.0979;
1356.6000;0.2401;0.1027;
1356.9000;0.2393;0.1027;
1357.2000;0.2377;0.1003;
1357.5000;0.2401;0.1027;
1357.8000;0.2393;0.1027;
1358.1000;0.2401;0.0979;
1358.4000;0.2393;0.0931;
1358.7000;0.2401;0.1003;
1359.0000;0.2369;0.0955;
1359.3000;0.2377;0.1075;
1359.6000;0.2409;0.1170;
1359.9000;0.2369;0.1003;
1360.2000;0.2385;0.1075;
1360.5000;0.2385;0.0979;
1360.8000;0.2385;0.1003;
1361.1000;0.2385;0.0979;
1361.4000;0.2401;0.0979;
1361.7000;0.2377;0.0908;
1362.0000;0.2385;0.0955;
1362.3000;0.2434;0.1146;
1362.6000;0.2369;0.0955;
1362.9000;0.2393;0.1122;
1363.2000;0.2442;0.1337;
1363.5000;0.2475;0.1433;
1363.8000;0.2393;0.1314;
1364.1000;0.2393;0.1242;
1364.4000;0.2409;0.1242;
1364.7000;0.2393;0.1218;
1365.0000;0.2466;0.1385;
1365.3000;0.2287;0.0884;
1365.6000;0.2352;0.1051;
1365.9000;0.2393;0.1099;
1366.2000;0.2385;0.0979;
1366.5000;0.2434;0.1099;
1366.8000;0.2401;0.1003;
1367.1000;0.2393;0.1003;
1367.4000;0.2393;0.0931;
1367.7000;0.2385;0.0955;
1368.0000;0.2409;0.1051;
1368.3000;0.2401;0.1027;
1368.6000;0.2409;0.0955;
1368.9000;0.2385;0.0931;
1369.2000;0.2352;0.0812;
1369.5000;0.2401;0.1003;
1369.8000;0.2393;0.0931;
1370.1000;0.2361;0.0836;
1370.4000;0.2377;0.0860;
1370.7000;0.2401;0.0908;
1371.0000;0.2401;0.0931;
1371.3000;0.2385;0.0884;
1371.6000;0.2393;0.0979;
1371.9000;0.2426;0.1075;
1372.2000;0.2385;0.1003;
1372.5000;0.2385;0.0979;
1372.8000;0.2385;0.1003;
1373.1000;0.2393;0.1003;
1373.4000;0.2385;0.1027;
1373.7000;0.2393;0.0979;
1374.0000;0.2377;0.0908;
1374.3000;0.2361;0.0931;
1374.6000;0.2385;0.0955;
1374.9000;0.2385;0.0908;
1375.2000;0.2377;0.0836;
1375.5000;0.2385;0.0931;
1375.8000;0.2377;0.0764;
1376.1000;0.2377;0.0836;
1376.4000;0.2377;0.0669;
1376.7000;0.2393;0.0740;
1377.0000;0.2393;0.0788;
1377.3000;0.2377;0.0788;
1377.6000;0.2393;0.0860;
1377.9000;0.2393;0.0908;
1378.2000;0.2418;0.0908;
1378.5000;0.2369;0.0764;
1378.8000;0.2385;0.0764;
1379.1000;0.2418;0.0860;
1379.4000;0.2393;0.0812;
1379.7000;0.2401;0.0812;
1380.0000;0.2320;0.0693;
1380.3000;0.2377;0.0860;
1380.6000;0.2361;0.0860;
1380.9000;0.2393;0.0931;
1381.2000;0.2401;0.1003;
1381.5000;0.2320;0.0836;
1381.8000;0.2377;0.1003;
1382.1000;0.2393;0.0979;
1382.4000;0.2361;0.0884;
1382.7000;0.2418;0.1051;
1383.0000;0.2393;0.1003;
1383.3000;0.2401;0.0955;
1383.6000;0.2409;0.0979;
1383.9000;0.2393;0.1003;
1384.2000;0.2401;0.1003;
1384.5000;0.2393;0.1051;
1384.8000;0.2393;0.1146;
1385.1000;0.2352;0.0931;
1385.4000;0.2385;0.0931;
1385.7000;0.2385;0.0908;
1386.0000;0.2409;0.0931;
1386.3000;0.2426;0.1027;
1386.6000;0.2377;0.0884;
1386.9000;0.2361;0.0884;
1387.2000;0.2385;0.0908;
1387.5000;0.2320;0.0716;
1387.8000;0.2369;0.0764;
1388.1000;0.2377;0.0812;
1388.4000;0.2369;0.0764;
1388.7000;0.2393;0.0860;
1389.0000;0.2418;0.0979;
1389.3000;0.2377;0.0884;
1389.6000;0.2401;0.0955;
1389.9000;0.2393;0.0979;
1390.2000;0.2385;0.0979;
1390.5000;0.2458;0.1170;
1390.8000;0.2401;0.1075;
1391.1000;0.2385;0.1003;
1391.4000;0.2401;0.0979;
1391.7000;0.2385;0.1003;
1392.0000;0.2393;0.1027;
1392.3000;0.2385;0.0955;
1392.6000;0.2393;0.0908;
1392.9000;0.2418;0.1027;
1393.2000;0.2393;0.1003;
1393.5000;0.2377;0.0955;
1393.8000;0.2393;0.1099;
1394.1000;0.2418;0.1027;
1394.4000;0.2401;0.1027;
1394.7000;0.2377;0.1003;
1395.0000;0.2385;0.1122;
1395.3000;0.2344;0.1075;
1395.6000;0.2369;0.1122;
1395.9000;0.2385;0.1075;
1396.2000;0.2385;0.1003;
1396.5000;0.2385;0.0908;
1396.8000;0.2369;0.0931;
1397.1000;0.2361;0.0860;
1397.4000;0.2377;0.0979;
1397.7000;0.2385;0.0931;
1398.0000;0.2499;0.1218;
1398.3000;0.2385;0.0955;
1398.6000;0.2385;0.1003;
1398.9000;0.2385;0.0979;
1399.2000;0.2401;0.0884;
1399.5000;0.2491;0.1099;
1399.8000;0.2385;0.0812;
