time/ms;Fluo/V;P700 deltaI/I x10³;
-199.8000;0.2409;0.0788;
-199.5000;0.2426;0.0788;
-199.2000;0.2409;0.0788;
-198.9000;0.2434;0.0908;
-198.6000;0.2458;0.0884;
-198.3000;0.2418;0.0788;
-198.0000;0.2442;0.0788;
-197.7000;0.2442;0.0693;
-197.4000;0.2418;0.0693;
-197.1000;0.2434;0.0740;
-196.8000;0.2442;0.0788;
-196.5000;0.2426;0.0812;
-196.2000;0.2434;0.0740;
-195.9000;0.2426;0.0764;
-195.6000;0.2426;0.0740;
-195.3000;0.2442;0.0764;
-195.0000;0.2434;0.0716;
-194.7000;0.2418;0.0597;
-194.4000;0.2418;0.0597;
-194.1000;0.2418;0.0645;
-193.8000;0.2426;0.0669;
-193.5000;0.2426;0.0740;
-193.2000;0.2418;0.0716;
-192.9000;0.2418;0.0812;
-192.6000;0.2426;0.0836;
-192.3000;0.2442;0.0908;
-192.0000;0.2418;0.0764;
-191.7000;0.2426;0.0812;
-191.4000;0.2434;0.0788;
-191.1000;0.2409;0.0788;
-190.8000;0.2418;0.0836;
-190.5000;0.2409;0.0716;
-190.2000;0.2418;0.0764;
-189.9000;0.2409;0.0716;
-189.6000;0.2426;0.0669;
-189.3000;0.2409;0.0645;
-189.0000;0.2418;0.0621;
-188.7000;0.2426;0.0716;
-188.4000;0.2377;0.0549;
-188.1000;0.2409;0.0621;
-187.8000;0.2434;0.0716;
-187.5000;0.2426;0.0788;
-187.2000;0.2418;0.0788;
-186.9000;0.2418;0.0836;
-186.6000;0.2426;0.0836;
-186.3000;0.2418;0.0764;
-186.0000;0.2426;0.0669;
-185.7000;0.2401;0.0621;
-185.4000;0.2418;0.0645;
-185.1000;0.2450;0.0788;
-184.8000;0.2328;0.0406;
-184.5000;0.2426;0.0645;
-184.2000;0.2409;0.0621;
-183.9000;0.2409;0.0716;
-183.6000;0.2426;0.0669;
-183.3000;0.2426;0.0716;
-183.0000;0.2409;0.0716;
-182.7000;0.2450;0.0812;
-182.4000;0.2255;0.0239;
-182.1000;0.2418;0.0716;
-181.8000;0.2426;0.0716;
-181.5000;0.2434;0.0740;
-181.2000;0.2426;0.0788;
-180.9000;0.2434;0.0740;
-180.6000;0.2434;0.0764;
-180.3000;0.2409;0.0693;
-180.0000;0.2426;0.0693;
-179.7000;0.2409;0.0764;
-179.4000;0.2401;0.0860;
-179.1000;0.2401;0.0860;
-178.8000;0.2434;0.0860;
-178.5000;0.2418;0.0788;
-178.2000;0.2401;0.0788;
-177.9000;0.2418;0.0788;
-177.6000;0.2523;0.1099;
-177.3000;0.2434;0.0836;
-177.0000;0.2426;0.0955;
-176.7000;0.2450;0.1003;
-176.4000;0.2336;0.0693;
-176.1000;0.2304;0.0669;
-175.8000;0.2434;0.0955;
-175.5000;0.2426;0.0860;
-175.2000;0.2426;0.0812;
-174.9000;0.2442;0.0788;
-174.6000;0.2426;0.0764;
-174.3000;0.2426;0.0788;
-174.0000;0.2434;0.0812;
-173.7000;0.2352;0.0669;
-173.4000;0.2442;0.0812;
-173.1000;0.2409;0.0716;
-172.8000;0.2426;0.0740;
-172.5000;0.2483;0.0764;
-172.2000;0.2434;0.0669;
-171.9000;0.2418;0.0645;
-171.6000;0.2418;0.0716;
-171.3000;0.2409;0.0740;
-171.0000;0.2426;0.0764;
-170.7000;0.2442;0.0764;
-170.4000;0.2442;0.0788;
-170.1000;0.2491;0.0979;
-169.8000;0.2418;0.0836;
-169.5000;0.2418;0.0812;
-169.2000;0.2409;0.0788;
-168.9000;0.2434;0.0884;
-168.6000;0.2409;0.0812;
-168.3000;0.2418;0.0740;
-168.0000;0.2409;0.0716;
-167.7000;0.2409;0.0669;
-167.4000;0.2418;0.0716;
-167.1000;0.2450;0.0788;
-166.8000;0.2409;0.0645;
-166.5000;0.2401;0.0621;
-166.2000;0.2418;0.0573;
-165.9000;0.2418;0.0549;
-165.6000;0.2434;0.0502;
-165.3000;0.2401;0.0382;
-165.0000;0.2426;0.0382;
-164.7000;0.2434;0.0478;
-164.4000;0.2450;0.0502;
-164.1000;0.2434;0.0358;
-163.8000;0.2401;0.0382;
-163.5000;0.2336;0.0215;
-163.2000;0.2418;0.0549;
-162.9000;0.2409;0.0502;
-162.6000;0.2344;0.0358;
-162.3000;0.2418;0.0573;
-162.0000;0.2434;0.0597;
-161.7000;0.2418;0.0549;
-161.4000;0.2409;0.0597;
-161.1000;0.2418;0.0693;
-160.8000;0.2409;0.0645;
-160.5000;0.2442;0.0764;
-160.2000;0.2418;0.0716;
-159.9000;0.2393;0.0549;
-159.6000;0.2418;0.0645;
-159.3000;0.2434;0.0645;
-159.0000;0.2434;0.0573;
-158.7000;0.2352;0.0358;
-158.4000;0.2393;0.0573;
-158.1000;0.2426;0.0549;
-157.8000;0.2393;0.0478;
-157.5000;0.2393;0.0502;
-157.2000;0.2409;0.0549;
-156.9000;0.2434;0.0502;
-156.6000;0.2401;0.0502;
-156.3000;0.2409;0.0549;
-156.0000;0.2393;0.0573;
-155.7000;0.2442;0.0716;
-155.4000;0.2312;0.0406;
-155.1000;0.2434;0.0740;
-154.8000;0.2393;0.0525;
-154.5000;0.2499;0.0764;
-154.2000;0.2409;0.0478;
-153.9000;0.2466;0.0645;
-153.6000;0.2418;0.0525;
-153.3000;0.2385;0.0478;
-153.0000;0.2409;0.0573;
-152.7000;0.2409;0.0573;
-152.4000;0.2426;0.0525;
-152.1000;0.2393;0.0525;
-151.8000;0.2426;0.0621;
-151.5000;0.2418;0.0597;
-151.2000;0.2442;0.0478;
-150.9000;0.2426;0.0334;
-150.6000;0.2434;0.0382;
-150.3000;0.2450;0.0430;
-150.0000;0.2442;0.0430;
-149.7000;0.2401;0.0454;
-149.4000;0.2442;0.0597;
-149.1000;0.2507;0.0788;
-148.8000;0.2434;0.0573;
-148.5000;0.2442;0.0573;
-148.2000;0.2434;0.0573;
-147.9000;0.2418;0.0549;
-147.6000;0.2442;0.0573;
-147.3000;0.2393;0.0478;
-147.0000;0.2418;0.0525;
-146.7000;0.2393;0.0525;
-146.4000;0.2442;0.0693;
-146.1000;0.2369;0.0478;
-145.8000;0.2418;0.0645;
-145.5000;0.2434;0.0693;
-145.2000;0.2434;0.0812;
-144.9000;0.2499;0.0979;
-144.6000;0.2418;0.0693;
-144.3000;0.2409;0.0621;
-144.0000;0.2426;0.0621;
-143.7000;0.2361;0.0454;
-143.4000;0.2409;0.0621;
-143.1000;0.2409;0.0597;
-142.8000;0.2409;0.0621;
-142.5000;0.2418;0.0788;
-142.2000;0.2418;0.0740;
-141.9000;0.2409;0.0597;
-141.6000;0.2409;0.0549;
-141.3000;0.2393;0.0597;
-141.0000;0.2418;0.0645;
-140.7000;0.2426;0.0669;
-140.4000;0.2352;0.0406;
-140.1000;0.2401;0.0478;
-139.8000;0.2434;0.0525;
-139.5000;0.2426;0.0478;
-139.2000;0.2426;0.0454;
-138.9000;0.2418;0.0573;
-138.6000;0.2409;0.0549;
-138.3000;0.2426;0.0597;
-138.0000;0.2409;0.0597;
-137.7000;0.2418;0.0645;
-137.4000;0.2409;0.0597;
-137.1000;0.2426;0.0764;
-136.8000;0.2418;0.0693;
-136.5000;0.2426;0.0693;
-136.2000;0.2442;0.0716;
-135.9000;0.2393;0.0549;
-135.6000;0.2409;0.0573;
-135.3000;0.2401;0.0597;
-135.0000;0.2418;0.0669;
-134.7000;0.2434;0.0693;
-134.4000;0.2409;0.0693;
-134.1000;0.2409;0.0716;
-133.8000;0.2418;0.0740;
-133.5000;0.2450;0.0884;
-133.2000;0.2426;0.0764;
-132.9000;0.2401;0.0716;
-132.6000;0.2352;0.0621;
-132.3000;0.2483;0.0955;
-132.0000;0.2401;0.0716;
-131.7000;0.2409;0.0716;
-131.4000;0.2401;0.0740;
-131.1000;0.2418;0.0812;
-130.8000;0.2377;0.0645;
-130.5000;0.2418;0.0740;
-130.2000;0.2304;0.0478;
-129.9000;0.2426;0.0716;
-129.6000;0.2393;0.0597;
-129.3000;0.2426;0.0621;
-129.0000;0.2426;0.0693;
-128.7000;0.2434;0.0693;
-128.4000;0.2442;0.0740;
-128.1000;0.2409;0.0693;
-127.8000;0.2409;0.0621;
-127.5000;0.2418;0.0645;
-127.2000;0.2418;0.0573;
-126.9000;0.2401;0.0549;
-126.6000;0.2401;0.0525;
-126.3000;0.2442;0.0621;
-126.0000;0.2434;0.0573;
-125.7000;0.2393;0.0454;
-125.4000;0.2377;0.0430;
-125.1000;0.2442;0.0454;
-124.8000;0.2434;0.0430;
-124.5000;0.2418;0.0334;
-124.2000;0.2450;0.0334;
-123.9000;0.2377;0.0119;
-123.6000;0.2401;0.0191;
-123.3000;0.2426;0.0310;
-123.0000;0.2426;0.0310;
-122.7000;0.2401;0.0310;
-122.4000;0.2401;0.0287;
-122.1000;0.2361;0.0096;
-121.8000;0.2418;0.0215;
-121.5000;0.2442;0.0334;
-121.2000;0.2409;0.0310;
-120.9000;0.2442;0.0430;
-120.6000;0.2418;0.0406;
-120.3000;0.2434;0.0478;
-120.0000;0.2418;0.0525;
-119.7000;0.2442;0.0478;
-119.4000;0.2434;0.0358;
-119.1000;0.2418;0.0382;
-118.8000;0.2434;0.0406;
-118.5000;0.2426;0.0382;
-118.2000;0.2418;0.0502;
-117.9000;0.2434;0.0597;
-117.6000;0.2409;0.0549;
-117.3000;0.2499;0.0788;
-117.0000;0.2409;0.0549;
-116.7000;0.2409;0.0525;
-116.4000;0.2418;0.0525;
-116.1000;0.2409;0.0549;
-115.8000;0.2385;0.0358;
-115.5000;0.2426;0.0430;
-115.2000;0.2418;0.0382;
-114.9000;0.2426;0.0406;
-114.6000;0.2426;0.0430;
-114.3000;0.2409;0.0430;
-114.0000;0.2434;0.0430;
-113.7000;0.2434;0.0502;
-113.4000;0.2426;0.0597;
-113.1000;0.2434;0.0549;
-112.8000;0.2418;0.0549;
-112.5000;0.2344;0.0406;
-112.2000;0.2409;0.0549;
-111.9000;0.2418;0.0573;
-111.6000;0.2352;0.0430;
-111.3000;0.2377;0.0454;
-111.0000;0.2418;0.0621;
-110.7000;0.2409;0.0597;
-110.4000;0.2418;0.0669;
-110.1000;0.2426;0.0621;
-109.8000;0.2409;0.0645;
-109.5000;0.2377;0.0549;
-109.2000;0.2466;0.0645;
-108.9000;0.2426;0.0597;
-108.6000;0.2418;0.0597;
-108.3000;0.2442;0.0740;
-108.0000;0.2426;0.0597;
-107.7000;0.2426;0.0645;
-107.4000;0.2418;0.0716;
-107.1000;0.2418;0.0740;
-106.8000;0.2434;0.0788;
-106.5000;0.2418;0.0693;
-106.2000;0.2393;0.0621;
-105.9000;0.2393;0.0573;
-105.6000;0.2426;0.0573;
-105.3000;0.2401;0.0478;
-105.0000;0.2418;0.0478;
-104.7000;0.2426;0.0430;
-104.4000;0.2418;0.0478;
-104.1000;0.2409;0.0454;
-103.8000;0.2401;0.0478;
-103.5000;0.2426;0.0573;
-103.2000;0.2426;0.0645;
-102.9000;0.2426;0.0597;
-102.6000;0.2426;0.0525;
-102.3000;0.2418;0.0525;
-102.0000;0.2409;0.0525;
-101.7000;0.2426;0.0549;
-101.4000;0.2434;0.0597;
-101.1000;0.2336;0.0382;
-100.8000;0.2426;0.0549;
-100.5000;0.2426;0.0621;
-100.2000;0.2442;0.0645;
-99.9000;0.2377;0.0549;
-99.6000;0.2409;0.0597;
-99.3000;0.2418;0.0669;
-99.0000;0.2361;0.0478;
-98.7000;0.2409;0.0621;
-98.4000;0.2418;0.0597;
-98.1000;0.2442;0.0573;
-97.8000;0.2418;0.0597;
-97.5000;0.2401;0.0573;
-97.2000;0.2442;0.0669;
-96.9000;0.2409;0.0645;
-96.6000;0.2409;0.0693;
-96.3000;0.2409;0.0764;
-96.0000;0.2418;0.0693;
-95.7000;0.2409;0.0645;
-95.4000;0.2418;0.0621;
-95.1000;0.2393;0.0597;
-94.8000;0.2385;0.0525;
-94.5000;0.2385;0.0549;
-94.2000;0.2450;0.0716;
-93.9000;0.2426;0.0549;
-93.6000;0.2426;0.0597;
-93.3000;0.2426;0.0549;
-93.0000;0.2401;0.0502;
-92.7000;0.2434;0.0525;
-92.4000;0.2409;0.0430;
-92.1000;0.2426;0.0406;
-91.8000;0.2434;0.0454;
-91.5000;0.2418;0.0406;
-91.2000;0.2426;0.0406;
-90.9000;0.2434;0.0478;
-90.6000;0.2426;0.0478;
-90.3000;0.2426;0.0430;
-90.0000;0.2426;0.0430;
-89.7000;0.2426;0.0597;
-89.4000;0.2361;0.0406;
-89.1000;0.2418;0.0573;
-88.8000;0.2418;0.0549;
-88.5000;0.2377;0.0406;
-88.2000;0.2418;0.0454;
-87.9000;0.2426;0.0430;
-87.6000;0.2401;0.0334;
-87.3000;0.2450;0.0454;
-87.0000;0.2409;0.0334;
-86.7000;0.2418;0.0358;
-86.4000;0.2426;0.0525;
-86.1000;0.2409;0.0525;
-85.8000;0.2409;0.0502;
-85.5000;0.2426;0.0573;
-85.2000;0.2442;0.0549;
-84.9000;0.2369;0.0406;
-84.6000;0.2426;0.0430;
-84.3000;0.2385;0.0406;
-84.0000;0.2418;0.0502;
-83.7000;0.2442;0.0478;
-83.4000;0.2401;0.0358;
-83.1000;0.2434;0.0406;
-82.8000;0.2418;0.0430;
-82.5000;0.2409;0.0478;
-82.2000;0.2434;0.0502;
-81.9000;0.2418;0.0430;
-81.6000;0.2418;0.0478;
-81.3000;0.2418;0.0430;
-81.0000;0.2418;0.0334;
-80.7000;0.2401;0.0310;
-80.4000;0.2442;0.0382;
-80.1000;0.2344;0.0167;
-79.8000;0.2426;0.0454;
-79.5000;0.2418;0.0406;
-79.2000;0.2361;0.0239;
-78.9000;0.2442;0.0334;
-78.6000;0.2418;0.0358;
-78.3000;0.2426;0.0382;
-78.0000;0.2426;0.0382;
-77.7000;0.2434;0.0430;
-77.4000;0.2426;0.0430;
-77.1000;0.2418;0.0406;
-76.8000;0.2466;0.0525;
-76.5000;0.2426;0.0358;
-76.2000;0.2393;0.0287;
-75.9000;0.2418;0.0382;
-75.6000;0.2426;0.0382;
-75.3000;0.2434;0.0406;
-75.0000;0.2426;0.0430;
-74.7000;0.2418;0.0382;
-74.4000;0.2385;0.0239;
-74.1000;0.2450;0.0358;
-73.8000;0.2418;0.0382;
-73.5000;0.2442;0.0502;
-73.2000;0.2450;0.0693;
-72.9000;0.2409;0.0597;
-72.6000;0.2393;0.0502;
-72.3000;0.2418;0.0454;
-72.0000;0.2409;0.0382;
-71.7000;0.2401;0.0382;
-71.4000;0.2426;0.0382;
-71.1000;0.2475;0.0478;
-70.8000;0.2401;0.0287;
-70.5000;0.2442;0.0382;
-70.2000;0.2426;0.0215;
-69.9000;0.2434;0.0406;
-69.6000;0.2393;0.0430;
-69.3000;0.2426;0.0549;
-69.0000;0.2409;0.0406;
-68.7000;0.2418;0.0430;
-68.4000;0.2409;0.0406;
-68.1000;0.2434;0.0430;
-67.8000;0.2426;0.0478;
-67.5000;0.2409;0.0382;
-67.2000;0.2401;0.0430;
-66.9000;0.2418;0.0502;
-66.6000;0.2426;0.0454;
-66.3000;0.2418;0.0406;
-66.0000;0.2450;0.0478;
-65.7000;0.2434;0.0478;
-65.4000;0.2418;0.0334;
-65.1000;0.2385;0.0310;
-64.8000;0.2434;0.0478;
-64.5000;0.2418;0.0549;
-64.2000;0.2409;0.0573;
-63.9000;0.2409;0.0549;
-63.6000;0.2418;0.0573;
-63.3000;0.2409;0.0549;
-63.0000;0.2418;0.0573;
-62.7000;0.2401;0.0454;
-62.4000;0.2418;0.0406;
-62.1000;0.2434;0.0430;
-61.8000;0.2434;0.0382;
-61.5000;0.2393;0.0310;
-61.2000;0.2401;0.0406;
-60.9000;0.2418;0.0573;
-60.6000;0.2418;0.0573;
-60.3000;0.2393;0.0502;
-60.0000;0.2409;0.0573;
-59.7000;0.2466;0.0788;
-59.4000;0.2426;0.0621;
-59.1000;0.2393;0.0573;
-58.8000;0.2409;0.0454;
-58.5000;0.2426;0.0406;
-58.2000;0.2466;0.0549;
-57.9000;0.2434;0.0525;
-57.6000;0.2418;0.0597;
-57.3000;0.2442;0.0573;
-57.0000;0.2409;0.0478;
-56.7000;0.2418;0.0430;
-56.4000;0.2442;0.0549;
-56.1000;0.2442;0.0549;
-55.8000;0.2434;0.0406;
-55.5000;0.2442;0.0382;
-55.2000;0.2418;0.0263;
-54.9000;0.2418;0.0287;
-54.6000;0.2442;0.0382;
-54.3000;0.2499;0.0597;
-54.0000;0.2434;0.0430;
-53.7000;0.2418;0.0358;
-53.4000;0.2434;0.0406;
-53.1000;0.2418;0.0406;
-52.8000;0.2418;0.0454;
-52.5000;0.2377;0.0406;
-52.2000;0.2426;0.0502;
-51.9000;0.2442;0.0454;
-51.6000;0.2466;0.0549;
-51.3000;0.2418;0.0358;
-51.0000;0.2418;0.0334;
-50.7000;0.2409;0.0382;
-50.4000;0.2393;0.0334;
-50.1000;0.2385;0.0239;
-49.8000;0.2393;0.0191;
-49.5000;0.2385;0.0119;
-49.2000;0.2434;0.0239;
-48.9000;0.2401;0.0191;
-48.6000;0.2426;0.0191;
-48.3000;0.2426;0.0143;
-48.0000;0.2426;0.0191;
-47.7000;0.2418;0.0119;
-47.4000;0.2426;0.0096;
-47.1000;0.2409;0.0143;
-46.8000;0.2418;0.0239;
-46.5000;0.2409;0.0239;
-46.2000;0.2418;0.0263;
-45.9000;0.2401;0.0310;
-45.6000;0.2409;0.0310;
-45.3000;0.2393;0.0263;
-45.0000;0.2409;0.0239;
-44.7000;0.2426;0.0287;
-44.4000;0.2418;0.0382;
-44.1000;0.2426;0.0454;
-43.8000;0.2361;0.0310;
-43.5000;0.2409;0.0502;
-43.2000;0.2418;0.0502;
-42.9000;0.2442;0.0573;
-42.6000;0.2491;0.0693;
-42.3000;0.2426;0.0430;
-42.0000;0.2418;0.0430;
-41.7000;0.2434;0.0430;
-41.4000;0.2377;0.0358;
-41.1000;0.2418;0.0382;
-40.8000;0.2409;0.0382;
-40.5000;0.2426;0.0382;
-40.2000;0.2352;0.0263;
-39.9000;0.2401;0.0406;
-39.6000;0.2426;0.0454;
-39.3000;0.2426;0.0478;
-39.0000;0.2426;0.0502;
-38.7000;0.2393;0.0406;
-38.4000;0.2312;0.0287;
-38.1000;0.2385;0.0573;
-37.8000;0.2409;0.0621;
-37.5000;0.2409;0.0597;
-37.2000;0.2426;0.0573;
-36.9000;0.2418;0.0597;
-36.6000;0.2418;0.0573;
-36.3000;0.2434;0.0621;
-36.0000;0.2426;0.0597;
-35.7000;0.2401;0.0502;
-35.4000;0.2426;0.0549;
-35.1000;0.2401;0.0549;
-34.8000;0.2401;0.0621;
-34.5000;0.2434;0.0621;
-34.2000;0.2418;0.0525;
-33.9000;0.2434;0.0502;
-33.6000;0.2483;0.0621;
-33.3000;0.2401;0.0478;
-33.0000;0.2426;0.0525;
-32.7000;0.2409;0.0502;
-32.4000;0.2418;0.0478;
-32.1000;0.2361;0.0358;
-31.8000;0.2434;0.0597;
-31.5000;0.2450;0.0597;
-31.2000;0.2450;0.0669;
-30.9000;0.2418;0.0525;
-30.6000;0.2426;0.0454;
-30.3000;0.2442;0.0430;
-30.0000;0.2418;0.0406;
-29.7000;0.2442;0.0478;
-29.4000;0.2409;0.0406;
-29.1000;0.2499;0.0669;
-28.8000;0.2499;0.0669;
-28.5000;0.2418;0.0525;
-28.2000;0.2409;0.0502;
-27.9000;0.2475;0.0621;
-27.6000;0.2434;0.0454;
-27.3000;0.2393;0.0334;
-27.0000;0.2409;0.0454;
-26.7000;0.2409;0.0502;
-26.4000;0.2426;0.0525;
-26.1000;0.2426;0.0478;
-25.8000;0.2418;0.0478;
-25.5000;0.2409;0.0454;
-25.2000;0.2434;0.0502;
-24.9000;0.2418;0.0502;
-24.6000;0.2426;0.0430;
-24.3000;0.2377;0.0310;
-24.0000;0.2409;0.0478;
-23.7000;0.2409;0.0454;
-23.4000;0.2418;0.0454;
-23.1000;0.2409;0.0454;
-22.8000;0.2409;0.0430;
-22.5000;0.2409;0.0358;
-22.2000;0.2401;0.0287;
-21.9000;0.2409;0.0334;
-21.6000;0.2442;0.0454;
-21.3000;0.2434;0.0478;
-21.0000;0.2426;0.0382;
-20.7000;0.2434;0.0430;
-20.4000;0.2434;0.0454;
-20.1000;0.2418;0.0478;
-19.8000;0.2393;0.0358;
-19.5000;0.2393;0.0406;
-19.2000;0.2401;0.0430;
-18.9000;0.2418;0.0573;
-18.6000;0.2401;0.0549;
-18.3000;0.2418;0.0645;
-18.0000;0.2409;0.0621;
-17.7000;0.2377;0.0525;
-17.4000;0.2426;0.0716;
-17.1000;0.2418;0.0597;
-16.8000;0.2401;0.0478;
-16.5000;0.2328;0.0287;
-16.2000;0.2328;0.0287;
-15.9000;0.2401;0.0358;
-15.6000;0.2409;0.0406;
-15.3000;0.2409;0.0549;
-15.0000;0.2418;0.0645;
-14.7000;0.2418;0.0669;
-14.4000;0.2409;0.0621;
-14.1000;0.2401;0.0525;
-13.8000;0.2409;0.0502;
-13.5000;0.2434;0.0597;
-13.2000;0.2409;0.0525;
-12.9000;0.2409;0.0502;
-12.6000;0.2401;0.0430;
-12.3000;0.2385;0.0478;
-12.0000;0.2409;0.0525;
-11.7000;0.2409;0.0430;
-11.4000;0.2418;0.0430;
-11.1000;0.2442;0.0573;
-10.8000;0.2434;0.0573;
-10.5000;0.2409;0.0478;
-10.2000;0.2401;0.0406;
-9.9000;0.2418;0.0454;
-9.6000;0.2401;0.0406;
-9.3000;0.2377;0.0334;
-9.0000;0.2442;0.0525;
-8.7000;0.2369;0.0334;
-8.4000;0.2418;0.0430;
-8.1000;0.2450;0.0525;
-7.8000;0.2434;0.0502;
-7.5000;0.2352;0.0310;
-7.2000;0.2418;0.0478;
-6.9000;0.2434;0.0525;
-6.6000;0.2434;0.0573;
-6.3000;0.2401;0.0406;
-6.0000;0.2458;0.0478;
-5.7000;0.2401;0.0358;
-5.4000;0.2418;0.0502;
-5.1000;0.2475;0.0693;
-4.8000;0.2418;0.0454;
-4.5000;0.2434;0.0454;
-4.2000;0.2426;0.0454;
-3.9000;0.2377;0.0382;
-3.6000;0.2418;0.0549;
-3.3000;0.2418;0.0549;
-3.0000;0.2475;0.0716;
-2.7000;0.2377;0.0454;
-2.4000;0.2426;0.0716;
-2.1000;0.2426;0.0669;
-1.8000;0.2426;0.0669;
-1.5000;0.2442;0.0764;
-1.2000;0.2401;0.0669;
-0.9000;0.2409;0.0645;
-0.6000;0.2377;0.0621;
-0.3000;0.2393;0.0645;
0.0000;0.2393;0.0645;
0.3000;0.2401;0.0382;
0.6000;0.2418;0.0454;
0.9000;0.2393;0.0430;
1.2000;0.2279;0.0191;
1.5000;0.2352;0.0502;
1.8000;0.2426;0.0836;
2.1000;0.2418;0.0931;
2.4000;0.2409;0.0955;
2.7000;0.2385;0.0955;
3.0000;0.2434;0.1099;
3.3000;0.2385;0.1051;
3.6000;0.2393;0.1122;
3.9000;0.2409;0.1242;
4.2000;0.2409;0.1290;
4.5000;0.2409;0.1409;
4.8000;0.2401;0.1409;
5.1000;0.2361;0.1361;
5.4000;0.2393;0.1457;
5.7000;0.2409;0.1505;
6.0000;0.2401;0.1576;
6.3000;0.2393;0.1576;
6.6000;0.2418;0.1696;
6.9000;0.2409;0.1720;
7.2000;0.2418;0.1767;
7.5000;0.2377;0.1624;
7.8000;0.2434;0.1672;
8.1000;0.2418;0.1528;
8.4000;0.2483;0.1696;
8.7000;0.2401;0.1481;
9.0000;0.2409;0.1457;
9.3000;0.2401;0.1457;
9.6000;0.2369;0.1337;
9.9000;0.2401;0.1433;
10.2000;0.2385;0.1385;
10.5000;0.2418;0.1433;
10.8000;0.2409;0.1337;
11.1000;0.2377;0.1170;
11.4000;0.2352;0.1122;
11.7000;0.2393;0.1194;
12.0000;0.2418;0.1242;
12.3000;0.2393;0.1170;
12.6000;0.2393;0.1194;
12.9000;0.2515;0.1505;
13.2000;0.2401;0.1194;
13.5000;0.2393;0.1194;
13.8000;0.2401;0.1266;
14.1000;0.2377;0.1266;
14.4000;0.2385;0.1242;
14.7000;0.2401;0.1266;
15.0000;0.2377;0.1242;
15.3000;0.2401;0.1266;
15.6000;0.2393;0.1337;
15.9000;0.2393;0.1385;
16.2000;0.2426;0.1552;
16.5000;0.2418;0.1552;
16.8000;0.2369;0.1528;
17.1000;0.2393;0.1576;
17.4000;0.2434;0.1600;
17.7000;0.2385;0.1552;
18.0000;0.2434;0.1696;
18.3000;0.2409;0.1576;
18.6000;0.2458;0.1600;
18.9000;0.2418;0.1457;
19.2000;0.2401;0.1457;
19.5000;0.2401;0.1433;
19.8000;0.2369;0.1361;
20.1000;0.2409;0.1481;
20.4000;0.2377;0.1361;
20.7000;0.2385;0.1433;
21.0000;0.2458;0.1576;
21.3000;0.2426;0.1528;
21.6000;0.2409;0.1528;
21.9000;0.2393;0.1457;
22.2000;0.2393;0.1457;
22.5000;0.2572;0.1911;
22.8000;0.2320;0.1314;
23.1000;0.2393;0.1528;
23.4000;0.2352;0.1409;
23.7000;0.2491;0.1696;
24.0000;0.2385;0.1337;
24.3000;0.2377;0.1314;
24.6000;0.2401;0.1361;
24.9000;0.2361;0.1314;
25.2000;0.2393;0.1385;
25.5000;0.2271;0.1099;
25.8000;0.2418;0.1505;
26.1000;0.2377;0.1481;
26.4000;0.2369;0.1481;
26.7000;0.2409;0.1481;
27.0000;0.2393;0.1505;
27.3000;0.2377;0.1552;
27.6000;0.2393;0.1600;
27.9000;0.2369;0.1552;
28.2000;0.2377;0.1576;
28.5000;0.2393;0.1528;
28.8000;0.2458;0.1552;
29.1000;0.2409;0.1385;
29.4000;0.2393;0.1361;
29.7000;0.2401;0.1314;
30.0000;0.2426;0.1385;
30.3000;0.2401;0.1290;
30.6000;0.2409;0.1433;
30.9000;0.2418;0.1457;
31.2000;0.2426;0.1457;
31.5000;0.2426;0.1505;
31.8000;0.2401;0.1361;
32.1000;0.2401;0.1290;
32.4000;0.2418;0.1290;
32.7000;0.2409;0.1218;
33.0000;0.2393;0.1218;
33.3000;0.2401;0.1290;
33.6000;0.2401;0.1242;
33.9000;0.2401;0.1146;
34.2000;0.2385;0.1194;
34.5000;0.2426;0.1218;
34.8000;0.2409;0.1122;
35.1000;0.2401;0.1146;
35.4000;0.2426;0.1027;
35.7000;0.2409;0.1051;
36.0000;0.2401;0.1051;
36.3000;0.2434;0.1099;
36.6000;0.2401;0.1194;
36.9000;0.2393;0.1170;
37.2000;0.2418;0.1170;
37.5000;0.2401;0.1146;
37.8000;0.2418;0.1146;
38.1000;0.2393;0.1075;
38.4000;0.2361;0.0955;
38.7000;0.2295;0.0788;
39.0000;0.2393;0.1075;
39.3000;0.2393;0.1051;
39.6000;0.2377;0.1027;
39.9000;0.2393;0.1146;
40.2000;0.2377;0.1122;
40.5000;0.2409;0.1266;
40.8000;0.2385;0.1242;
41.1000;0.2409;0.1337;
41.4000;0.2377;0.1170;
41.7000;0.2393;0.1146;
42.0000;0.2393;0.1051;
42.3000;0.2385;0.0979;
42.6000;0.2418;0.1027;
42.9000;0.2369;0.1051;
43.2000;0.2377;0.1075;
43.5000;0.2385;0.1099;
43.8000;0.2418;0.1218;
44.1000;0.2409;0.1099;
44.4000;0.2401;0.1099;
44.7000;0.2377;0.1146;
45.0000;0.2442;0.1314;
45.3000;0.2418;0.1242;
45.6000;0.2409;0.1194;
45.9000;0.2409;0.1170;
46.2000;0.2385;0.1170;
46.5000;0.2466;0.1409;
46.8000;0.2409;0.1266;
47.1000;0.2393;0.1218;
47.4000;0.2393;0.1290;
47.7000;0.2393;0.1218;
48.0000;0.2393;0.1290;
48.3000;0.2401;0.1242;
48.6000;0.2401;0.1170;
48.9000;0.2401;0.1122;
49.2000;0.2401;0.1146;
49.5000;0.2393;0.1122;
49.8000;0.2401;0.1242;
50.1000;0.2409;0.1314;
50.4000;0.2393;0.1314;
50.7000;0.2352;0.1242;
51.0000;0.2401;0.1361;
51.3000;0.2385;0.1242;
51.6000;0.2401;0.1218;
51.9000;0.2385;0.1290;
52.2000;0.2393;0.1337;
52.5000;0.2393;0.1314;
52.8000;0.2312;0.1122;
53.1000;0.2393;0.1385;
53.4000;0.2409;0.1457;
53.7000;0.2393;0.1433;
54.0000;0.2393;0.1385;
54.3000;0.2401;0.1409;
54.6000;0.2344;0.1290;
54.9000;0.2377;0.1361;
55.2000;0.2401;0.1361;
55.5000;0.2401;0.1290;
55.8000;0.2434;0.1337;
56.1000;0.2393;0.1075;
56.4000;0.2393;0.1099;
56.7000;0.2377;0.1051;
57.0000;0.2418;0.1218;
57.3000;0.2393;0.1290;
57.6000;0.2418;0.1290;
57.9000;0.2393;0.1242;
58.2000;0.2466;0.1505;
58.5000;0.2401;0.1242;
58.8000;0.2393;0.1218;
59.1000;0.2393;0.1122;
59.4000;0.2393;0.1122;
59.7000;0.2377;0.0979;
60.0000;0.2401;0.1027;
60.3000;0.2393;0.1099;
60.6000;0.2401;0.1122;
60.9000;0.2401;0.1194;
61.2000;0.2352;0.1075;
61.5000;0.2393;0.1218;
61.8000;0.2418;0.1337;
62.1000;0.2385;0.1266;
62.4000;0.2279;0.1003;
62.7000;0.2409;0.1290;
63.0000;0.2393;0.1242;
63.3000;0.2491;0.1552;
63.6000;0.2377;0.1218;
63.9000;0.2401;0.1314;
64.2000;0.2377;0.1290;
64.5000;0.2385;0.1361;
64.8000;0.2418;0.1385;
65.1000;0.2401;0.1361;
65.4000;0.2401;0.1385;
65.7000;0.2442;0.1481;
66.0000;0.2393;0.1385;
66.3000;0.2401;0.1457;
66.6000;0.2426;0.1457;
66.9000;0.2409;0.1457;
67.2000;0.2385;0.1409;
67.5000;0.2426;0.1409;
67.8000;0.2401;0.1337;
68.1000;0.2393;0.1361;
68.4000;0.2385;0.1385;
68.7000;0.2442;0.1528;
69.0000;0.2393;0.1361;
69.3000;0.2393;0.1290;
69.6000;0.2475;0.1481;
69.9000;0.2385;0.1290;
70.2000;0.2393;0.1314;
70.5000;0.2393;0.1337;
70.8000;0.2401;0.1266;
71.1000;0.2393;0.1385;
71.4000;0.2393;0.1409;
71.7000;0.2385;0.1314;
72.0000;0.2393;0.1314;
72.3000;0.2393;0.1290;
72.6000;0.2385;0.1218;
72.9000;0.2377;0.1122;
73.2000;0.2401;0.1194;
73.5000;0.2352;0.1122;
73.8000;0.2377;0.1266;
74.1000;0.2385;0.1218;
74.4000;0.2385;0.1266;
74.7000;0.2377;0.1194;
75.0000;0.2385;0.1242;
75.3000;0.2385;0.1218;
75.6000;0.2434;0.1385;
75.9000;0.2385;0.1194;
76.2000;0.2401;0.1218;
76.5000;0.2401;0.1290;
76.8000;0.2409;0.1361;
77.1000;0.2401;0.1433;
77.4000;0.2385;0.1385;
77.7000;0.2409;0.1361;
78.0000;0.2369;0.1194;
78.3000;0.2361;0.1266;
78.6000;0.2385;0.1290;
78.9000;0.2393;0.1242;
79.2000;0.2442;0.1409;
79.5000;0.2393;0.1194;
79.8000;0.2393;0.1266;
80.1000;0.2385;0.1337;
80.4000;0.2426;0.1481;
80.7000;0.2418;0.1361;
81.0000;0.2426;0.1361;
81.3000;0.2385;0.1314;
81.6000;0.2401;0.1385;
81.9000;0.2385;0.1409;
82.2000;0.2401;0.1505;
82.5000;0.2328;0.1242;
82.8000;0.2385;0.1314;
83.1000;0.2393;0.1385;
83.4000;0.2361;0.1314;
83.7000;0.2426;0.1433;
84.0000;0.2377;0.1266;
84.3000;0.2369;0.1194;
84.6000;0.2377;0.1218;
84.9000;0.2450;0.1361;
85.2000;0.2393;0.1314;
85.5000;0.2393;0.1337;
85.8000;0.2352;0.1146;
86.1000;0.2426;0.1409;
86.4000;0.2401;0.1314;
86.7000;0.2401;0.1170;
87.0000;0.2393;0.1075;
87.3000;0.2369;0.1051;
87.6000;0.2401;0.1194;
87.9000;0.2401;0.1146;
88.2000;0.2393;0.1051;
88.5000;0.2377;0.0908;
88.8000;0.2401;0.0931;
89.1000;0.2393;0.0908;
89.4000;0.2393;0.0836;
89.7000;0.2401;0.0836;
90.0000;0.2377;0.0836;
90.3000;0.2426;0.0955;
90.6000;0.2401;0.0908;
90.9000;0.2401;0.0931;
91.2000;0.2401;0.1027;
91.5000;0.2377;0.1075;
91.8000;0.2385;0.1099;
92.1000;0.2393;0.1266;
92.4000;0.2393;0.1361;
92.7000;0.2401;0.1385;
93.0000;0.2385;0.1266;
93.3000;0.2385;0.1337;
93.6000;0.2385;0.1314;
93.9000;0.2450;0.1433;
94.2000;0.2377;0.1194;
94.5000;0.2279;0.0884;
94.8000;0.2377;0.1122;
95.1000;0.2385;0.1194;
95.4000;0.2409;0.1337;
95.7000;0.2385;0.1194;
96.0000;0.2401;0.1266;
96.3000;0.2401;0.1290;
96.6000;0.2385;0.1290;
96.9000;0.2385;0.1194;
97.2000;0.2393;0.1242;
97.5000;0.2393;0.1242;
97.8000;0.2401;0.1314;
98.1000;0.2385;0.1218;
98.4000;0.2385;0.1170;
98.7000;0.2450;0.1314;
99.0000;0.2377;0.1099;
99.3000;0.2369;0.1099;
99.6000;0.2450;0.1266;
99.9000;0.2385;0.1099;
100.2000;0.2385;0.0979;
100.5000;0.2369;0.0884;
100.8000;0.2377;0.0908;
101.1000;0.2377;0.1003;
101.4000;0.2393;0.1099;
101.7000;0.2401;0.1122;
102.0000;0.2361;0.1122;
102.3000;0.2271;0.0908;
102.6000;0.2352;0.1146;
102.9000;0.2361;0.1290;
103.2000;0.2401;0.1433;
103.5000;0.2385;0.1385;
103.8000;0.2393;0.1457;
104.1000;0.2393;0.1361;
104.4000;0.2393;0.1337;
104.7000;0.2377;0.1266;
105.0000;0.2377;0.1266;
105.3000;0.2401;0.1266;
105.6000;0.2393;0.1242;
105.9000;0.2369;0.1242;
106.2000;0.2377;0.1314;
106.5000;0.2361;0.1290;
106.8000;0.2393;0.1337;
107.1000;0.2393;0.1194;
107.4000;0.2369;0.1099;
107.7000;0.2385;0.1099;
108.0000;0.2401;0.1099;
108.3000;0.2393;0.1003;
108.6000;0.2483;0.1170;
108.9000;0.2393;0.1003;
109.2000;0.2401;0.1051;
109.5000;0.2344;0.1027;
109.8000;0.2393;0.1099;
110.1000;0.2385;0.1075;
110.4000;0.2401;0.1170;
110.7000;0.2385;0.1122;
111.0000;0.2385;0.1170;
111.3000;0.2393;0.1099;
111.6000;0.2385;0.1051;
111.9000;0.2401;0.1122;
112.2000;0.2418;0.1266;
112.5000;0.2361;0.1266;
112.8000;0.2369;0.1266;
113.1000;0.2393;0.1361;
113.4000;0.2401;0.1361;
113.7000;0.2409;0.1433;
114.0000;0.2385;0.1433;
114.3000;0.2475;0.1648;
114.6000;0.2418;0.1409;
114.9000;0.2369;0.1290;
115.2000;0.2369;0.1433;
115.5000;0.2377;0.1433;
115.8000;0.2336;0.1314;
116.1000;0.2377;0.1457;
116.4000;0.2409;0.1457;
116.7000;0.2515;0.1648;
117.0000;0.2385;0.1218;
117.3000;0.2361;0.1122;
117.6000;0.2409;0.1266;
117.9000;0.2361;0.1170;
118.2000;0.2377;0.1242;
118.5000;0.2361;0.1242;
118.8000;0.2377;0.1242;
119.1000;0.2377;0.1242;
119.4000;0.2409;0.1337;
119.7000;0.2393;0.1314;
120.0000;0.2385;0.1337;
120.3000;0.2385;0.1290;
120.6000;0.2385;0.1218;
120.9000;0.2385;0.1242;
121.2000;0.2385;0.1361;
121.5000;0.2385;0.1314;
121.8000;0.2409;0.1361;
122.1000;0.2393;0.1361;
122.4000;0.2385;0.1290;
122.7000;0.2328;0.1051;
123.0000;0.2385;0.1194;
123.3000;0.2385;0.1242;
123.6000;0.2369;0.1170;
123.9000;0.2401;0.1242;
124.2000;0.2393;0.1314;
124.5000;0.2401;0.1361;
124.8000;0.2393;0.1290;
125.1000;0.2377;0.1242;
125.4000;0.2385;0.1266;
125.7000;0.2393;0.1337;
126.0000;0.2377;0.1266;
126.3000;0.2377;0.1385;
126.6000;0.2369;0.1337;
126.9000;0.2361;0.1337;
127.2000;0.2393;0.1433;
127.5000;0.2385;0.1433;
127.8000;0.2369;0.1337;
128.1000;0.2344;0.1290;
128.4000;0.2377;0.1433;
128.7000;0.2385;0.1457;
129.0000;0.2369;0.1552;
129.3000;0.2393;0.1576;
129.6000;0.2377;0.1505;
129.9000;0.2393;0.1481;
130.2000;0.2393;0.1457;
130.5000;0.2385;0.1457;
130.8000;0.2442;0.1552;
131.1000;0.2401;0.1505;
131.4000;0.2369;0.1433;
131.7000;0.2361;0.1505;
132.0000;0.2385;0.1505;
132.3000;0.2377;0.1385;
132.6000;0.2450;0.1600;
132.9000;0.2352;0.1361;
133.2000;0.2401;0.1552;
133.5000;0.2434;0.1648;
133.8000;0.2401;0.1433;
134.1000;0.2393;0.1409;
134.4000;0.2385;0.1385;
134.7000;0.2385;0.1314;
135.0000;0.2393;0.1242;
135.3000;0.2377;0.1218;
135.6000;0.2385;0.1242;
135.9000;0.2385;0.1242;
136.2000;0.2393;0.1337;
136.5000;0.2352;0.1337;
136.8000;0.2426;0.1481;
137.1000;0.2369;0.1385;
137.4000;0.2393;0.1433;
137.7000;0.2377;0.1361;
138.0000;0.2393;0.1409;
138.3000;0.2393;0.1505;
138.6000;0.2466;0.1767;
138.9000;0.2385;0.1600;
139.2000;0.2369;0.1576;
139.5000;0.2377;0.1528;
139.8000;0.2344;0.1457;
140.1000;0.2385;0.1505;
140.4000;0.2369;0.1600;
140.7000;0.2385;0.1552;
141.0000;0.2344;0.1505;
141.3000;0.2393;0.1600;
141.6000;0.2393;0.1552;
141.9000;0.2369;0.1481;
142.2000;0.2377;0.1457;
142.5000;0.2369;0.1361;
142.8000;0.2401;0.1505;
143.1000;0.2385;0.1481;
143.4000;0.2385;0.1385;
143.7000;0.2377;0.1314;
144.0000;0.2377;0.1314;
144.3000;0.2385;0.1290;
144.6000;0.2434;0.1457;
144.9000;0.2401;0.1361;
145.2000;0.2385;0.1218;
145.5000;0.2401;0.1194;
145.8000;0.2377;0.1218;
146.1000;0.2393;0.1290;
146.4000;0.2393;0.1290;
146.7000;0.2377;0.1146;
147.0000;0.2377;0.1146;
147.3000;0.2393;0.1266;
147.6000;0.2385;0.1290;
147.9000;0.2401;0.1337;
148.2000;0.2458;0.1481;
148.5000;0.2385;0.1337;
148.8000;0.2401;0.1385;
149.1000;0.2393;0.1337;
149.4000;0.2377;0.1242;
149.7000;0.2393;0.1218;
150.0000;0.2401;0.1218;
150.3000;0.2393;0.1194;
150.6000;0.2385;0.1242;
150.9000;0.2295;0.0955;
151.2000;0.2401;0.1242;
151.5000;0.2369;0.1242;
151.8000;0.2385;0.1314;
152.1000;0.2450;0.1576;
152.4000;0.2434;0.1457;
152.7000;0.2352;0.1218;
153.0000;0.2434;0.1290;
153.3000;0.2393;0.1194;
153.6000;0.2369;0.1266;
153.9000;0.2385;0.1314;
154.2000;0.2393;0.1314;
154.5000;0.2344;0.1218;
154.8000;0.2344;0.1170;
155.1000;0.2385;0.1218;
155.4000;0.2369;0.1194;
155.7000;0.2401;0.1337;
156.0000;0.2401;0.1290;
156.3000;0.2369;0.1194;
156.6000;0.2369;0.1170;
156.9000;0.2385;0.1290;
157.2000;0.2369;0.1266;
157.5000;0.2369;0.1266;
157.8000;0.2385;0.1314;
158.1000;0.2377;0.1266;
158.4000;0.2377;0.1218;
158.7000;0.2352;0.1194;
159.0000;0.2401;0.1385;
159.3000;0.2385;0.1314;
159.6000;0.2352;0.1170;
159.9000;0.2393;0.1266;
160.2000;0.2393;0.1337;
160.5000;0.2393;0.1385;
160.8000;0.2393;0.1314;
161.1000;0.2426;0.1337;
161.4000;0.2385;0.1242;
161.7000;0.2385;0.1242;
162.0000;0.2369;0.1290;
162.3000;0.2361;0.1194;
162.6000;0.2475;0.1505;
162.9000;0.2385;0.1266;
163.2000;0.2377;0.1242;
163.5000;0.2320;0.1075;
163.8000;0.2442;0.1385;
164.1000;0.2377;0.1218;
164.4000;0.2361;0.1242;
164.7000;0.2393;0.1314;
165.0000;0.2377;0.1218;
165.3000;0.2401;0.1242;
165.6000;0.2361;0.1242;
165.9000;0.2385;0.1242;
166.2000;0.2385;0.1242;
166.5000;0.2385;0.1194;
166.8000;0.2393;0.1146;
167.1000;0.2377;0.1122;
167.4000;0.2385;0.1122;
167.7000;0.2401;0.1218;
168.0000;0.2369;0.1290;
168.3000;0.2369;0.1385;
168.6000;0.2442;0.1576;
168.9000;0.2409;0.1409;
169.2000;0.2377;0.1385;
169.5000;0.2369;0.1314;
169.8000;0.2361;0.1314;
170.1000;0.2393;0.1361;
170.4000;0.2401;0.1481;
170.7000;0.2393;0.1409;
171.0000;0.2377;0.1314;
171.3000;0.2385;0.1314;
171.6000;0.2385;0.1266;
171.9000;0.2409;0.1290;
172.2000;0.2393;0.1194;
172.5000;0.2385;0.1075;
172.8000;0.2377;0.1051;
173.1000;0.2393;0.1051;
173.4000;0.2377;0.1122;
173.7000;0.2385;0.1242;
174.0000;0.2369;0.1170;
174.3000;0.2377;0.1266;
174.6000;0.2377;0.1242;
174.9000;0.2369;0.1194;
175.2000;0.2352;0.1170;
175.5000;0.2401;0.1290;
175.8000;0.2369;0.1266;
176.1000;0.2369;0.1194;
176.4000;0.2491;0.1528;
176.7000;0.2377;0.1194;
177.0000;0.2385;0.1170;
177.3000;0.2385;0.1146;
177.6000;0.2361;0.1170;
177.9000;0.2352;0.1194;
178.2000;0.2377;0.1266;
178.5000;0.2393;0.1266;
178.8000;0.2344;0.1075;
179.1000;0.2426;0.1266;
179.4000;0.2458;0.1314;
179.7000;0.2393;0.1146;
180.0000;0.2385;0.1170;
180.3000;0.2385;0.1242;
180.6000;0.2401;0.1337;
180.9000;0.2385;0.1290;
181.2000;0.2377;0.1337;
181.5000;0.2442;0.1528;
181.8000;0.2450;0.1552;
182.1000;0.2385;0.1385;
182.4000;0.2385;0.1457;
182.7000;0.2377;0.1409;
183.0000;0.2377;0.1457;
183.3000;0.2385;0.1528;
183.6000;0.2385;0.1528;
183.9000;0.2369;0.1481;
184.2000;0.2369;0.1552;
184.5000;0.2377;0.1481;
184.8000;0.2401;0.1481;
185.1000;0.2369;0.1361;
185.4000;0.2377;0.1433;
185.7000;0.2401;0.1505;
186.0000;0.2361;0.1505;
186.3000;0.2393;0.1600;
186.6000;0.2450;0.1863;
186.9000;0.2344;0.1481;
187.2000;0.2385;0.1576;
187.5000;0.2393;0.1576;
187.8000;0.2385;0.1481;
188.1000;0.2491;0.1720;
188.4000;0.2393;0.1314;
188.7000;0.2344;0.1218;
189.0000;0.2385;0.1290;
189.3000;0.2401;0.1361;
189.6000;0.2401;0.1337;
189.9000;0.2393;0.1242;
190.2000;0.2377;0.1194;
190.5000;0.2361;0.1122;
190.8000;0.2377;0.1122;
191.1000;0.2491;0.1361;
191.4000;0.2361;0.1075;
191.7000;0.2377;0.1146;
192.0000;0.2385;0.1099;
192.3000;0.2393;0.1122;
192.6000;0.2352;0.1122;
192.9000;0.2385;0.1170;
193.2000;0.2377;0.1194;
193.5000;0.2377;0.1218;
193.8000;0.2491;0.1552;
194.1000;0.2369;0.1242;
194.4000;0.2385;0.1290;
194.7000;0.2328;0.1122;
195.0000;0.2312;0.1099;
195.3000;0.2361;0.1314;
195.6000;0.2393;0.1361;
195.9000;0.2393;0.1361;
196.2000;0.2361;0.1266;
196.5000;0.2385;0.1361;
196.8000;0.2385;0.1433;
197.1000;0.2369;0.1481;
197.4000;0.2385;0.1457;
197.7000;0.2393;0.1385;
198.0000;0.2369;0.1266;
198.3000;0.2369;0.1194;
198.6000;0.2385;0.1170;
198.9000;0.2393;0.1122;
199.2000;0.2352;0.1075;
199.5000;0.2377;0.1075;
199.8000;0.2385;0.1099;
200.1000;0.2385;0.1051;
200.4000;0.2401;0.1194;
200.7000;0.2361;0.1170;
201.0000;0.2377;0.1314;
201.3000;0.2385;0.1385;
201.6000;0.2377;0.1385;
201.9000;0.2369;0.1361;
202.2000;0.2377;0.1290;
202.5000;0.2393;0.1361;
202.8000;0.2401;0.1314;
203.1000;0.2352;0.1337;
203.4000;0.2385;0.1433;
203.7000;0.2377;0.1481;
204.0000;0.2385;0.1409;
204.3000;0.2393;0.1409;
204.6000;0.2401;0.1409;
204.9000;0.2393;0.1385;
205.2000;0.2344;0.1242;
205.5000;0.2401;0.1433;
205.8000;0.2393;0.1552;
206.1000;0.2393;0.1552;
206.4000;0.2377;0.1481;
206.7000;0.2385;0.1600;
207.0000;0.2377;0.1576;
207.3000;0.2377;0.1624;
207.6000;0.2409;0.1672;
207.9000;0.2393;0.1576;
208.2000;0.2369;0.1528;
208.5000;0.2352;0.1505;
208.8000;0.2393;0.1505;
209.1000;0.2377;0.1361;
209.4000;0.2369;0.1385;
209.7000;0.2361;0.1361;
210.0000;0.2418;0.1576;
210.3000;0.2361;0.1409;
210.6000;0.2377;0.1290;
210.9000;0.2385;0.1314;
211.2000;0.2377;0.1290;
211.5000;0.2385;0.1242;
211.8000;0.2393;0.1242;
212.1000;0.2393;0.1314;
212.4000;0.2393;0.1337;
212.7000;0.2369;0.1290;
213.0000;0.2361;0.1218;
213.3000;0.2320;0.1099;
213.6000;0.2369;0.1266;
213.9000;0.2385;0.1361;
214.2000;0.2385;0.1361;
214.5000;0.2377;0.1337;
214.8000;0.2295;0.1099;
215.1000;0.2377;0.1314;
215.4000;0.2385;0.1337;
215.7000;0.2434;0.1552;
216.0000;0.2361;0.1361;
216.3000;0.2369;0.1361;
216.6000;0.2344;0.1314;
216.9000;0.2385;0.1385;
217.2000;0.2385;0.1337;
217.5000;0.2369;0.1361;
217.8000;0.2385;0.1433;
218.1000;0.2385;0.1433;
218.4000;0.2377;0.1361;
218.7000;0.2352;0.1266;
219.0000;0.2369;0.1314;
219.3000;0.2377;0.1242;
219.6000;0.2352;0.1194;
219.9000;0.2352;0.1290;
220.2000;0.2385;0.1266;
220.5000;0.2352;0.1290;
220.8000;0.2385;0.1337;
221.1000;0.2369;0.1314;
221.4000;0.2377;0.1385;
221.7000;0.2369;0.1433;
222.0000;0.2369;0.1481;
222.3000;0.2369;0.1481;
222.6000;0.2418;0.1552;
222.9000;0.2377;0.1409;
223.2000;0.2361;0.1409;
223.5000;0.2369;0.1433;
223.8000;0.2369;0.1385;
224.1000;0.2377;0.1481;
224.4000;0.2320;0.1242;
224.7000;0.2328;0.1242;
225.0000;0.2369;0.1337;
225.3000;0.2312;0.1170;
225.6000;0.2434;0.1552;
225.9000;0.2361;0.1457;
226.2000;0.2352;0.1385;
226.5000;0.2377;0.1433;
226.8000;0.2393;0.1385;
227.1000;0.2385;0.1290;
227.4000;0.2385;0.1266;
227.7000;0.2385;0.1194;
228.0000;0.2393;0.1194;
228.3000;0.2385;0.1146;
228.6000;0.2361;0.1170;
228.9000;0.2369;0.1194;
229.2000;0.2385;0.1385;
229.5000;0.2369;0.1266;
229.8000;0.2401;0.1361;
230.1000;0.2352;0.1266;
230.4000;0.2475;0.1624;
230.7000;0.2483;0.1720;
231.0000;0.2377;0.1409;
231.3000;0.2483;0.1696;
231.6000;0.2377;0.1457;
231.9000;0.2442;0.1552;
232.2000;0.2385;0.1505;
232.5000;0.2287;0.1218;
232.8000;0.2475;0.1600;
233.1000;0.2393;0.1314;
233.4000;0.2369;0.1314;
233.7000;0.2377;0.1314;
234.0000;0.2385;0.1433;
234.3000;0.2295;0.1242;
234.6000;0.2361;0.1481;
234.9000;0.2401;0.1457;
235.2000;0.2361;0.1385;
235.5000;0.2369;0.1290;
235.8000;0.2385;0.1314;
236.1000;0.2361;0.1242;
236.4000;0.2361;0.1218;
236.7000;0.2377;0.1218;
237.0000;0.2401;0.1314;
237.3000;0.2466;0.1457;
237.6000;0.2369;0.1218;
237.9000;0.2385;0.1170;
238.2000;0.2369;0.1170;
238.5000;0.2418;0.1290;
238.8000;0.2361;0.1218;
239.1000;0.2393;0.1290;
239.4000;0.2377;0.1218;
239.7000;0.2393;0.1170;
240.0000;0.2369;0.1170;
240.3000;0.2393;0.1266;
240.6000;0.2393;0.1266;
240.9000;0.2369;0.1194;
241.2000;0.2385;0.1218;
241.5000;0.2385;0.1242;
241.8000;0.2385;0.1194;
242.1000;0.2393;0.1218;
242.4000;0.2401;0.1242;
242.7000;0.2377;0.1218;
243.0000;0.2385;0.1194;
243.3000;0.2369;0.1170;
243.6000;0.2369;0.1146;
243.9000;0.2385;0.1099;
244.2000;0.2377;0.1099;
244.5000;0.2401;0.1194;
244.8000;0.2393;0.1170;
245.1000;0.2418;0.1218;
245.4000;0.2385;0.1122;
245.7000;0.2361;0.1075;
246.0000;0.2377;0.1146;
246.3000;0.2401;0.1194;
246.6000;0.2295;0.0908;
246.9000;0.2377;0.1218;
247.2000;0.2393;0.1266;
247.5000;0.2377;0.1266;
247.8000;0.2418;0.1385;
248.1000;0.2344;0.1242;
248.4000;0.2418;0.1409;
248.7000;0.2377;0.1194;
249.0000;0.2377;0.1146;
249.3000;0.2434;0.1266;
249.6000;0.2393;0.1194;
249.9000;0.2352;0.1075;
250.2000;0.2369;0.1170;
250.5000;0.2369;0.1170;
250.8000;0.2369;0.1242;
251.1000;0.2377;0.1337;
251.4000;0.2377;0.1385;
251.7000;0.2369;0.1290;
252.0000;0.2377;0.1385;
252.3000;0.2304;0.1146;
252.6000;0.2393;0.1218;
252.9000;0.2409;0.1218;
253.2000;0.2369;0.1075;
253.5000;0.2385;0.1146;
253.8000;0.2377;0.1170;
254.1000;0.2361;0.1194;
254.4000;0.2369;0.1194;
254.7000;0.2312;0.1027;
255.0000;0.2377;0.1242;
255.3000;0.2393;0.1242;
255.6000;0.2352;0.1146;
255.9000;0.2369;0.1218;
256.2000;0.2385;0.1290;
256.5000;0.2377;0.1266;
256.8000;0.2426;0.1505;
257.1000;0.2385;0.1409;
257.4000;0.2393;0.1337;
257.7000;0.2377;0.1266;
258.0000;0.2385;0.1314;
258.3000;0.2377;0.1146;
258.6000;0.2377;0.1170;
258.9000;0.2369;0.1146;
259.2000;0.2393;0.1218;
259.5000;0.2401;0.1170;
259.8000;0.2377;0.1075;
260.1000;0.2393;0.1146;
260.4000;0.2344;0.1003;
260.7000;0.2393;0.1003;
261.0000;0.2393;0.1003;
261.3000;0.2385;0.1027;
261.6000;0.2393;0.1099;
261.9000;0.2377;0.1051;
262.2000;0.2361;0.1075;
262.5000;0.2393;0.1170;
262.8000;0.2385;0.1051;
263.1000;0.2385;0.1099;
263.4000;0.2377;0.1122;
263.7000;0.2466;0.1337;
264.0000;0.2401;0.1242;
264.3000;0.2409;0.1218;
264.6000;0.2369;0.1194;
264.9000;0.2401;0.1266;
265.2000;0.2385;0.1122;
265.5000;0.2385;0.1146;
265.8000;0.2418;0.1266;
266.1000;0.2369;0.1146;
266.4000;0.2385;0.1170;
266.7000;0.2393;0.1122;
267.0000;0.2369;0.1003;
267.3000;0.2385;0.1027;
267.6000;0.2369;0.1003;
267.9000;0.2377;0.1075;
268.2000;0.2369;0.1003;
268.5000;0.2352;0.0955;
268.8000;0.2377;0.0908;
269.1000;0.2393;0.0860;
269.4000;0.2369;0.0740;
269.7000;0.2377;0.0788;
270.0000;0.2377;0.0788;
270.3000;0.2385;0.0884;
270.6000;0.2409;0.0931;
270.9000;0.2442;0.1099;
271.2000;0.2369;0.1027;
271.5000;0.2369;0.1027;
271.8000;0.2328;0.0836;
272.1000;0.2418;0.1027;
272.4000;0.2393;0.0931;
272.7000;0.2393;0.0979;
273.0000;0.2377;0.0955;
273.3000;0.2377;0.0979;
273.6000;0.2361;0.0931;
273.9000;0.2369;0.0979;
274.2000;0.2361;0.0908;
274.5000;0.2393;0.1003;
274.8000;0.2352;0.0836;
275.1000;0.2377;0.0884;
275.4000;0.2393;0.1027;
275.7000;0.2369;0.0931;
276.0000;0.2369;0.0908;
276.3000;0.2263;0.0812;
276.6000;0.2385;0.1194;
276.9000;0.2377;0.1170;
277.2000;0.2369;0.1099;
277.5000;0.2361;0.1003;
277.8000;0.2385;0.1099;
278.1000;0.2361;0.1099;
278.4000;0.2377;0.1075;
278.7000;0.2377;0.1051;
279.0000;0.2377;0.1075;
279.3000;0.2336;0.0955;
279.6000;0.2361;0.1051;
279.9000;0.2352;0.1051;
280.2000;0.2369;0.1051;
280.5000;0.2385;0.1051;
280.8000;0.2377;0.1075;
281.1000;0.2369;0.1122;
281.4000;0.2361;0.1194;
281.7000;0.2361;0.1194;
282.0000;0.2369;0.1218;
282.3000;0.2361;0.1170;
282.6000;0.2377;0.1242;
282.9000;0.2377;0.1194;
283.2000;0.2385;0.1146;
283.5000;0.2385;0.1194;
283.8000;0.2385;0.1075;
284.1000;0.2401;0.1027;
284.4000;0.2401;0.1051;
284.7000;0.2401;0.1099;
285.0000;0.2385;0.0955;
285.3000;0.2377;0.0979;
285.6000;0.2393;0.1099;
285.9000;0.2385;0.1075;
286.2000;0.2361;0.1122;
286.5000;0.2361;0.1170;
286.8000;0.2426;0.1290;
287.1000;0.2369;0.1218;
287.4000;0.2385;0.1194;
287.7000;0.2385;0.1218;
288.0000;0.2409;0.1170;
288.3000;0.2369;0.1146;
288.6000;0.2450;0.1337;
288.9000;0.2385;0.1194;
289.2000;0.2361;0.1075;
289.5000;0.2385;0.1122;
289.8000;0.2385;0.1122;
290.1000;0.2385;0.1075;
290.4000;0.2377;0.1051;
290.7000;0.2393;0.1146;
291.0000;0.2401;0.1194;
291.3000;0.2361;0.1075;
291.6000;0.2450;0.1337;
291.9000;0.2361;0.1194;
292.2000;0.2377;0.1170;
292.5000;0.2377;0.1146;
292.8000;0.2369;0.1170;
293.1000;0.2385;0.1194;
293.4000;0.2393;0.1266;
293.7000;0.2369;0.1242;
294.0000;0.2377;0.1314;
294.3000;0.2393;0.1290;
294.6000;0.2385;0.1290;
294.9000;0.2401;0.1385;
295.2000;0.2385;0.1314;
295.5000;0.2385;0.1266;
295.8000;0.2377;0.1290;
296.1000;0.2377;0.1266;
296.4000;0.2369;0.1194;
296.7000;0.2385;0.1290;
297.0000;0.2361;0.1170;
297.3000;0.2450;0.1409;
297.6000;0.2369;0.1266;
297.9000;0.2369;0.1122;
298.2000;0.2328;0.1027;
298.5000;0.2377;0.1170;
298.8000;0.2393;0.1242;
299.1000;0.2352;0.1170;
299.4000;0.2377;0.1218;
299.7000;0.2361;0.1170;
300.0000;0.2377;0.1266;
300.3000;0.2426;0.1409;
300.6000;0.2385;0.1290;
300.9000;0.2377;0.1266;
301.2000;0.2377;0.1218;
301.5000;0.2361;0.1170;
301.8000;0.2434;0.1290;
302.1000;0.2385;0.1075;
302.4000;0.2377;0.1051;
302.7000;0.2279;0.0860;
303.0000;0.2377;0.1218;
303.3000;0.2385;0.1194;
303.6000;0.2393;0.1218;
303.9000;0.2393;0.1146;
304.2000;0.2377;0.1146;
304.5000;0.2377;0.1194;
304.8000;0.2393;0.1242;
305.1000;0.2377;0.1194;
305.4000;0.2385;0.1099;
305.7000;0.2450;0.1146;
306.0000;0.2385;0.0931;
306.3000;0.2377;0.0955;
306.6000;0.2393;0.1003;
306.9000;0.2385;0.1027;
307.2000;0.2401;0.1051;
307.5000;0.2385;0.1027;
307.8000;0.2304;0.0812;
308.1000;0.2369;0.1003;
308.4000;0.2385;0.0979;
308.7000;0.2409;0.1027;
309.0000;0.2377;0.0931;
309.3000;0.2369;0.0931;
309.6000;0.2369;0.0955;
309.9000;0.2393;0.1027;
310.2000;0.2385;0.1003;
310.5000;0.2377;0.1027;
310.8000;0.2409;0.1170;
311.1000;0.2377;0.1170;
311.4000;0.2377;0.1170;
311.7000;0.2377;0.1170;
312.0000;0.2369;0.1099;
312.3000;0.2369;0.1194;
312.6000;0.2352;0.1194;
312.9000;0.2328;0.1218;
313.2000;0.2369;0.1290;
313.5000;0.2369;0.1290;
313.8000;0.2393;0.1361;
314.1000;0.2344;0.1218;
314.4000;0.2393;0.1242;
314.7000;0.2385;0.1242;
315.0000;0.2377;0.1314;
315.3000;0.2385;0.1266;
315.6000;0.2418;0.1433;
315.9000;0.2369;0.1314;
316.2000;0.2369;0.1290;
316.5000;0.2450;0.1457;
316.8000;0.2377;0.1314;
317.1000;0.2369;0.1266;
317.4000;0.2393;0.1194;
317.7000;0.2377;0.1170;
318.0000;0.2385;0.1194;
318.3000;0.2475;0.1528;
318.6000;0.2336;0.1170;
318.9000;0.2385;0.1361;
319.2000;0.2377;0.1385;
319.5000;0.2393;0.1385;
319.8000;0.2377;0.1361;
320.1000;0.2377;0.1409;
320.4000;0.2377;0.1385;
320.7000;0.2361;0.1266;
321.0000;0.2377;0.1218;
321.3000;0.2401;0.1266;
321.6000;0.2377;0.1290;
321.9000;0.2377;0.1194;
322.2000;0.2369;0.1099;
322.5000;0.2385;0.1051;
322.8000;0.2344;0.1027;
323.1000;0.2328;0.1003;
323.4000;0.2312;0.0884;
323.7000;0.2377;0.0979;
324.0000;0.2434;0.1027;
324.3000;0.2336;0.0788;
324.6000;0.2483;0.1242;
324.9000;0.2336;0.0955;
325.2000;0.2385;0.1146;
325.5000;0.2393;0.1170;
325.8000;0.2361;0.1122;
326.1000;0.2385;0.1170;
326.4000;0.2361;0.1075;
326.7000;0.2442;0.1242;
327.0000;0.2336;0.0836;
327.3000;0.2401;0.0955;
327.6000;0.2393;0.0955;
327.9000;0.2377;0.0884;
328.2000;0.2385;0.0931;
328.5000;0.2369;0.0955;
328.8000;0.2385;0.1003;
329.1000;0.2393;0.1099;
329.4000;0.2385;0.1075;
329.7000;0.2369;0.1075;
330.0000;0.2385;0.1075;
330.3000;0.2385;0.1122;
330.6000;0.2361;0.1027;
330.9000;0.2401;0.1146;
331.2000;0.2369;0.1146;
331.5000;0.2369;0.1194;
331.8000;0.2377;0.1242;
332.1000;0.2352;0.1146;
332.4000;0.2369;0.1242;
332.7000;0.2369;0.1242;
333.0000;0.2377;0.1337;
333.3000;0.2385;0.1361;
333.6000;0.2393;0.1433;
333.9000;0.2442;0.1576;
334.2000;0.2385;0.1409;
334.5000;0.2377;0.1337;
334.8000;0.2393;0.1385;
335.1000;0.2385;0.1457;
335.4000;0.2385;0.1361;
335.7000;0.2377;0.1505;
336.0000;0.2361;0.1528;
336.3000;0.2369;0.1481;
336.6000;0.2377;0.1481;
336.9000;0.2361;0.1409;
337.2000;0.2377;0.1361;
337.5000;0.2344;0.1314;
337.8000;0.2361;0.1409;
338.1000;0.2385;0.1409;
338.4000;0.2361;0.1409;
338.7000;0.2369;0.1409;
339.0000;0.2377;0.1409;
339.3000;0.2377;0.1409;
339.6000;0.2385;0.1433;
339.9000;0.2377;0.1481;
340.2000;0.2352;0.1457;
340.5000;0.2385;0.1505;
340.8000;0.2401;0.1481;
341.1000;0.2377;0.1457;
341.4000;0.2385;0.1505;
341.7000;0.2361;0.1433;
342.0000;0.2369;0.1481;
342.3000;0.2369;0.1433;
342.6000;0.2401;0.1552;
342.9000;0.2426;0.1672;
343.2000;0.2409;0.1648;
343.5000;0.2385;0.1505;
343.8000;0.2377;0.1457;
344.1000;0.2409;0.1481;
344.4000;0.2515;0.1720;
344.7000;0.2401;0.1409;
345.0000;0.2377;0.1385;
345.3000;0.2369;0.1337;
345.6000;0.2393;0.1433;
345.9000;0.2385;0.1433;
346.2000;0.2304;0.1218;
346.5000;0.2401;0.1457;
346.8000;0.2401;0.1433;
347.1000;0.2393;0.1481;
347.4000;0.2385;0.1505;
347.7000;0.2475;0.1720;
348.0000;0.2361;0.1433;
348.3000;0.2295;0.1266;
348.6000;0.2385;0.1409;
348.9000;0.2320;0.1266;
349.2000;0.2377;0.1409;
349.5000;0.2377;0.1433;
349.8000;0.2385;0.1433;
350.1000;0.2361;0.1481;
350.4000;0.2352;0.1505;
350.7000;0.2361;0.1481;
351.0000;0.2409;0.1624;
351.3000;0.2352;0.1528;
351.6000;0.2369;0.1624;
351.9000;0.2369;0.1505;
352.2000;0.2377;0.1528;
352.5000;0.2369;0.1457;
352.8000;0.2369;0.1457;
353.1000;0.2377;0.1457;
353.4000;0.2361;0.1385;
353.7000;0.2385;0.1433;
354.0000;0.2361;0.1337;
354.3000;0.2352;0.1361;
354.6000;0.2361;0.1409;
354.9000;0.2369;0.1457;
355.2000;0.2369;0.1481;
355.5000;0.2361;0.1314;
355.8000;0.2336;0.1242;
356.1000;0.2393;0.1337;
356.4000;0.2369;0.1314;
356.7000;0.2401;0.1433;
357.0000;0.2385;0.1385;
357.3000;0.2361;0.1385;
357.6000;0.2385;0.1457;
357.9000;0.2369;0.1409;
358.2000;0.2369;0.1433;
358.5000;0.2361;0.1385;
358.8000;0.2369;0.1409;
359.1000;0.2361;0.1433;
359.4000;0.2377;0.1385;
359.7000;0.2369;0.1266;
360.0000;0.2361;0.1337;
360.3000;0.2401;0.1457;
360.6000;0.2377;0.1385;
360.9000;0.2401;0.1385;
361.2000;0.2377;0.1314;
361.5000;0.2385;0.1218;
361.8000;0.2361;0.1170;
362.1000;0.2369;0.1290;
362.4000;0.2377;0.1290;
362.7000;0.2369;0.1146;
363.0000;0.2352;0.1122;
363.3000;0.2418;0.1290;
363.6000;0.2393;0.1290;
363.9000;0.2418;0.1385;
364.2000;0.2377;0.1266;
364.5000;0.2369;0.1242;
364.8000;0.2385;0.1290;
365.1000;0.2434;0.1433;
365.4000;0.2418;0.1433;
365.7000;0.2377;0.1361;
366.0000;0.2377;0.1433;
366.3000;0.2377;0.1361;
366.6000;0.2361;0.1361;
366.9000;0.2377;0.1433;
367.2000;0.2426;0.1624;
367.5000;0.2369;0.1457;
367.8000;0.2377;0.1457;
368.1000;0.2369;0.1505;
368.4000;0.2385;0.1528;
368.7000;0.2369;0.1528;
369.0000;0.2369;0.1505;
369.3000;0.2361;0.1457;
369.6000;0.2369;0.1457;
369.9000;0.2377;0.1481;
370.2000;0.2409;0.1552;
370.5000;0.2385;0.1433;
370.8000;0.2361;0.1481;
371.1000;0.2369;0.1552;
371.4000;0.2361;0.1600;
371.7000;0.2377;0.1600;
372.0000;0.2377;0.1576;
372.3000;0.2426;0.1648;
372.6000;0.2320;0.1314;
372.9000;0.2361;0.1385;
373.2000;0.2369;0.1385;
373.5000;0.2369;0.1337;
373.8000;0.2369;0.1337;
374.1000;0.2361;0.1337;
374.4000;0.2320;0.1242;
374.7000;0.2369;0.1409;
375.0000;0.2377;0.1361;
375.3000;0.2369;0.1337;
375.6000;0.2352;0.1361;
375.9000;0.2352;0.1337;
376.2000;0.2361;0.1361;
376.5000;0.2385;0.1457;
376.8000;0.2393;0.1600;
377.1000;0.2377;0.1648;
377.4000;0.2385;0.1672;
377.7000;0.2393;0.1552;
378.0000;0.2385;0.1505;
378.3000;0.2369;0.1528;
378.6000;0.2377;0.1505;
378.9000;0.2401;0.1528;
379.2000;0.2385;0.1528;
379.5000;0.2377;0.1505;
379.8000;0.2369;0.1528;
380.1000;0.2377;0.1600;
380.4000;0.2377;0.1481;
380.7000;0.2377;0.1433;
381.0000;0.2377;0.1385;
381.3000;0.2377;0.1361;
381.6000;0.2523;0.1743;
381.9000;0.2361;0.1290;
382.2000;0.2385;0.1385;
382.5000;0.2361;0.1385;
382.8000;0.2401;0.1481;
383.1000;0.2344;0.1385;
383.4000;0.2377;0.1433;
383.7000;0.2369;0.1409;
384.0000;0.2369;0.1409;
384.3000;0.2385;0.1409;
384.6000;0.2385;0.1385;
384.9000;0.2336;0.1337;
385.2000;0.2328;0.1242;
385.5000;0.2361;0.1385;
385.8000;0.2426;0.1528;
386.1000;0.2352;0.1242;
386.4000;0.2369;0.1337;
386.7000;0.2361;0.1337;
387.0000;0.2320;0.1218;
387.3000;0.2385;0.1361;
387.6000;0.2377;0.1314;
387.9000;0.2369;0.1290;
388.2000;0.2377;0.1337;
388.5000;0.2377;0.1433;
388.8000;0.2385;0.1385;
389.1000;0.2385;0.1385;
389.4000;0.2385;0.1385;
389.7000;0.2393;0.1337;
390.0000;0.2361;0.1218;
390.3000;0.2393;0.1314;
390.6000;0.2369;0.1170;
390.9000;0.2393;0.1218;
391.2000;0.2352;0.1194;
391.5000;0.2369;0.1266;
391.8000;0.2377;0.1385;
392.1000;0.2385;0.1361;
392.4000;0.2385;0.1385;
392.7000;0.2401;0.1457;
393.0000;0.2385;0.1385;
393.3000;0.2385;0.1337;
393.6000;0.2361;0.1314;
393.9000;0.2352;0.1385;
394.2000;0.2426;0.1433;
394.5000;0.2369;0.1337;
394.8000;0.2369;0.1314;
395.1000;0.2377;0.1361;
395.4000;0.2377;0.1242;
395.7000;0.2401;0.1266;
396.0000;0.2369;0.1218;
396.3000;0.2377;0.1266;
396.6000;0.2377;0.1361;
396.9000;0.2385;0.1361;
397.2000;0.2385;0.1361;
397.5000;0.2369;0.1361;
397.8000;0.2352;0.1481;
398.1000;0.2385;0.1552;
398.4000;0.2369;0.1576;
398.7000;0.2377;0.1624;
399.0000;0.2393;0.1672;
399.3000;0.2377;0.1552;
399.6000;0.2377;0.1505;
399.9000;0.2361;0.1457;
400.2000;0.2369;0.1528;
400.5000;0.2361;0.1552;
400.8000;0.2336;0.1433;
401.1000;0.2377;0.1528;
401.4000;0.2361;0.1457;
401.7000;0.2385;0.1552;
402.0000;0.2369;0.1481;
402.3000;0.2385;0.1457;
402.6000;0.2385;0.1505;
402.9000;0.2385;0.1505;
403.2000;0.2385;0.1552;
403.5000;0.2385;0.1505;
403.8000;0.2377;0.1457;
404.1000;0.2385;0.1457;
404.4000;0.2369;0.1337;
404.7000;0.2483;0.1505;
405.0000;0.2385;0.1242;
405.3000;0.2377;0.1194;
405.6000;0.2304;0.0931;
405.9000;0.2401;0.1099;
406.2000;0.2385;0.1075;
406.5000;0.2377;0.1099;
406.8000;0.2369;0.1170;
407.1000;0.2499;0.1624;
407.4000;0.2377;0.1194;
407.7000;0.2369;0.1170;
408.0000;0.2377;0.1218;
408.3000;0.2385;0.1242;
408.6000;0.2361;0.1242;
408.9000;0.2385;0.1266;
409.2000;0.2385;0.1266;
409.5000;0.2377;0.1385;
409.8000;0.2369;0.1385;
410.1000;0.2377;0.1385;
410.4000;0.2369;0.1385;
410.7000;0.2377;0.1457;
411.0000;0.2385;0.1433;
411.3000;0.2263;0.1051;
411.6000;0.2377;0.1433;
411.9000;0.2377;0.1361;
412.2000;0.2377;0.1361;
412.5000;0.2377;0.1409;
412.8000;0.2377;0.1337;
413.1000;0.2385;0.1457;
413.4000;0.2491;0.1720;
413.7000;0.2377;0.1433;
414.0000;0.2312;0.1314;
414.3000;0.2401;0.1672;
414.6000;0.2377;0.1624;
414.9000;0.2377;0.1552;
415.2000;0.2369;0.1528;
415.5000;0.2385;0.1576;
415.8000;0.2377;0.1481;
416.1000;0.2287;0.1218;
416.4000;0.2361;0.1576;
416.7000;0.2377;0.1576;
417.0000;0.2369;0.1600;
417.3000;0.2401;0.1600;
417.6000;0.2385;0.1576;
417.9000;0.2377;0.1672;
418.2000;0.2385;0.1672;
418.5000;0.2377;0.1576;
418.8000;0.2393;0.1624;
419.1000;0.2377;0.1576;
419.4000;0.2385;0.1576;
419.7000;0.2442;0.1672;
420.0000;0.2377;0.1481;
420.3000;0.2377;0.1552;
420.6000;0.2483;0.1815;
420.9000;0.2385;0.1624;
421.2000;0.2369;0.1600;
421.5000;0.2369;0.1600;
421.8000;0.2344;0.1600;
422.1000;0.2377;0.1552;
422.4000;0.2377;0.1552;
422.7000;0.2418;0.1552;
423.0000;0.2369;0.1481;
423.3000;0.2377;0.1433;
423.6000;0.2369;0.1481;
423.9000;0.2312;0.1266;
424.2000;0.2361;0.1433;
424.5000;0.2385;0.1481;
424.8000;0.2426;0.1481;
425.1000;0.2385;0.1337;
425.4000;0.2369;0.1337;
425.7000;0.2361;0.1361;
426.0000;0.2369;0.1337;
426.3000;0.2377;0.1314;
426.6000;0.2418;0.1457;
426.9000;0.2369;0.1385;
427.2000;0.2385;0.1385;
427.5000;0.2369;0.1385;
427.8000;0.2263;0.1051;
428.1000;0.2344;0.1314;
428.4000;0.2377;0.1385;
428.7000;0.2361;0.1361;
429.0000;0.2369;0.1433;
429.3000;0.2369;0.1457;
429.6000;0.2426;0.1600;
429.9000;0.2426;0.1576;
430.2000;0.2352;0.1457;
430.5000;0.2369;0.1552;
430.8000;0.2361;0.1552;
431.1000;0.2369;0.1528;
431.4000;0.2377;0.1433;
431.7000;0.2352;0.1481;
432.0000;0.2369;0.1552;
432.3000;0.2369;0.1552;
432.6000;0.2377;0.1624;
432.9000;0.2369;0.1576;
433.2000;0.2369;0.1576;
433.5000;0.2352;0.1433;
433.8000;0.2369;0.1361;
434.1000;0.2377;0.1337;
434.4000;0.2369;0.1409;
434.7000;0.2369;0.1481;
435.0000;0.2344;0.1433;
435.3000;0.2377;0.1433;
435.6000;0.2352;0.1361;
435.9000;0.2369;0.1385;
436.2000;0.2336;0.1337;
436.5000;0.2385;0.1433;
436.8000;0.2385;0.1600;
437.1000;0.2377;0.1624;
437.4000;0.2344;0.1576;
437.7000;0.2377;0.1648;
438.0000;0.2369;0.1648;
438.3000;0.2483;0.1934;
438.6000;0.2385;0.1552;
438.9000;0.2377;0.1505;
439.2000;0.2328;0.1361;
439.5000;0.2352;0.1505;
439.8000;0.2361;0.1481;
440.1000;0.2369;0.1361;
440.4000;0.2393;0.1337;
440.7000;0.2344;0.1314;
441.0000;0.2361;0.1266;
441.3000;0.2344;0.1194;
441.6000;0.2385;0.1242;
441.9000;0.2385;0.1218;
442.2000;0.2385;0.1170;
442.5000;0.2385;0.1290;
442.8000;0.2361;0.1290;
443.1000;0.2393;0.1361;
443.4000;0.2377;0.1361;
443.7000;0.2344;0.1314;
444.0000;0.2377;0.1457;
444.3000;0.2385;0.1457;
444.6000;0.2377;0.1409;
444.9000;0.2361;0.1481;
445.2000;0.2369;0.1409;
445.5000;0.2377;0.1409;
445.8000;0.2377;0.1433;
446.1000;0.2369;0.1385;
446.4000;0.2385;0.1457;
446.7000;0.2369;0.1552;
447.0000;0.2295;0.1433;
447.3000;0.2344;0.1481;
447.6000;0.2369;0.1505;
447.9000;0.2344;0.1481;
448.2000;0.2377;0.1528;
448.5000;0.2377;0.1481;
448.8000;0.2377;0.1481;
449.1000;0.2369;0.1505;
449.4000;0.2385;0.1433;
449.7000;0.2393;0.1409;
450.0000;0.2352;0.1314;
450.3000;0.2361;0.1242;
450.6000;0.2401;0.1290;
450.9000;0.2385;0.1337;
451.2000;0.2377;0.1290;
451.5000;0.2369;0.1266;
451.8000;0.2385;0.1337;
452.1000;0.2377;0.1361;
452.4000;0.2442;0.1505;
452.7000;0.2385;0.1290;
453.0000;0.2377;0.1337;
453.3000;0.2393;0.1433;
453.6000;0.2393;0.1361;
453.9000;0.2377;0.1314;
454.2000;0.2385;0.1337;
454.5000;0.2377;0.1290;
454.8000;0.2352;0.1314;
455.1000;0.2369;0.1242;
455.4000;0.2377;0.1337;
455.7000;0.2312;0.1218;
456.0000;0.2377;0.1337;
456.3000;0.2361;0.1337;
456.6000;0.2499;0.1743;
456.9000;0.2295;0.1194;
457.2000;0.2401;0.1576;
457.5000;0.2369;0.1528;
457.8000;0.2369;0.1505;
458.1000;0.2369;0.1481;
458.4000;0.2279;0.1266;
458.7000;0.2271;0.1218;
459.0000;0.2361;0.1433;
459.3000;0.2401;0.1528;
459.6000;0.2385;0.1481;
459.9000;0.2385;0.1433;
460.2000;0.2377;0.1361;
460.5000;0.2385;0.1337;
460.8000;0.2377;0.1385;
461.1000;0.2369;0.1409;
461.4000;0.2320;0.1337;
461.7000;0.2361;0.1409;
462.0000;0.2393;0.1457;
462.3000;0.2434;0.1505;
462.6000;0.2369;0.1361;
462.9000;0.2361;0.1361;
463.2000;0.2361;0.1218;
463.5000;0.2385;0.1290;
463.8000;0.2377;0.1385;
464.1000;0.2377;0.1433;
464.4000;0.2369;0.1337;
464.7000;0.2434;0.1505;
465.0000;0.2361;0.1361;
465.3000;0.2377;0.1337;
465.6000;0.2377;0.1385;
465.9000;0.2352;0.1433;
466.2000;0.2369;0.1457;
466.5000;0.2377;0.1457;
466.8000;0.2352;0.1409;
467.1000;0.2369;0.1505;
467.4000;0.2369;0.1528;
467.7000;0.2409;0.1528;
468.0000;0.2369;0.1505;
468.3000;0.2369;0.1505;
468.6000;0.2369;0.1505;
468.9000;0.2369;0.1433;
469.2000;0.2361;0.1385;
469.5000;0.2352;0.1266;
469.8000;0.2409;0.1433;
470.1000;0.2361;0.1314;
470.4000;0.2361;0.1242;
470.7000;0.2377;0.1385;
471.0000;0.2361;0.1385;
471.3000;0.2361;0.1409;
471.6000;0.2385;0.1409;
471.9000;0.2287;0.1099;
472.2000;0.2385;0.1361;
472.5000;0.2369;0.1385;
472.8000;0.2401;0.1433;
473.1000;0.2377;0.1385;
473.4000;0.2409;0.1481;
473.7000;0.2377;0.1290;
474.0000;0.2393;0.1290;
474.3000;0.2369;0.1266;
474.6000;0.2377;0.1314;
474.9000;0.2377;0.1385;
475.2000;0.2377;0.1266;
475.5000;0.2385;0.1314;
475.8000;0.2369;0.1290;
476.1000;0.2377;0.1266;
476.4000;0.2361;0.1146;
476.7000;0.2352;0.1099;
477.0000;0.2369;0.1242;
477.3000;0.2312;0.1146;
477.6000;0.2369;0.1218;
477.9000;0.2352;0.1242;
478.2000;0.2377;0.1385;
478.5000;0.2198;0.0955;
478.8000;0.2385;0.1409;
479.1000;0.2377;0.1314;
479.4000;0.2385;0.1361;
479.7000;0.2377;0.1337;
480.0000;0.2377;0.1290;
480.3000;0.2320;0.1242;
480.6000;0.2352;0.1290;
480.9000;0.2369;0.1337;
481.2000;0.2393;0.1433;
481.5000;0.2369;0.1433;
481.8000;0.2369;0.1385;
482.1000;0.2369;0.1433;
482.4000;0.2442;0.1648;
482.7000;0.2393;0.1528;
483.0000;0.2377;0.1457;
483.3000;0.2352;0.1409;
483.6000;0.2393;0.1409;
483.9000;0.2393;0.1433;
484.2000;0.2361;0.1409;
484.5000;0.2385;0.1528;
484.8000;0.2369;0.1600;
485.1000;0.2377;0.1600;
485.4000;0.2369;0.1600;
485.7000;0.2263;0.1290;
486.0000;0.2377;0.1552;
486.3000;0.2401;0.1576;
486.6000;0.2377;0.1552;
486.9000;0.2352;0.1457;
487.2000;0.2409;0.1672;
487.5000;0.2271;0.1242;
487.8000;0.2369;0.1433;
488.1000;0.2377;0.1481;
488.4000;0.2352;0.1385;
488.7000;0.2385;0.1361;
489.0000;0.2352;0.1314;
489.3000;0.2369;0.1337;
489.6000;0.2369;0.1337;
489.9000;0.2377;0.1314;
490.2000;0.2377;0.1361;
490.5000;0.2401;0.1409;
490.8000;0.2369;0.1290;
491.1000;0.2377;0.1290;
491.4000;0.2393;0.1314;
491.7000;0.2369;0.1194;
492.0000;0.2369;0.1242;
492.3000;0.2369;0.1218;
492.6000;0.2369;0.1170;
492.9000;0.2385;0.1218;
493.2000;0.2369;0.1170;
493.5000;0.2361;0.1099;
493.8000;0.2377;0.1218;
494.1000;0.2369;0.1170;
494.4000;0.2369;0.1170;
494.7000;0.2320;0.1075;
495.0000;0.2377;0.1290;
495.3000;0.2393;0.1337;
495.6000;0.2401;0.1385;
495.9000;0.2336;0.1242;
496.2000;0.2361;0.1290;
496.5000;0.2361;0.1337;
496.8000;0.2328;0.1290;
497.1000;0.2377;0.1361;
497.4000;0.2287;0.1099;
497.7000;0.2352;0.1337;
498.0000;0.2361;0.1433;
498.3000;0.2328;0.1290;
498.6000;0.2393;0.1409;
498.9000;0.2401;0.1481;
499.2000;0.2385;0.1433;
499.5000;0.2336;0.1290;
499.8000;0.2361;0.1266;
500.1000;0.2377;0.1290;
500.4000;0.2385;0.1337;
500.7000;0.2377;0.1314;
501.0000;0.2393;0.1242;
501.3000;0.2377;0.1361;
501.6000;0.2442;0.1600;
501.9000;0.2385;0.1433;
502.2000;0.2369;0.1457;
502.5000;0.2426;0.1672;
502.8000;0.2361;0.1600;
503.1000;0.2385;0.1528;
503.4000;0.2304;0.1385;
503.7000;0.2377;0.1672;
504.0000;0.2377;0.1743;
504.3000;0.2377;0.1672;
504.6000;0.2312;0.1481;
504.9000;0.2361;0.1576;
505.2000;0.2409;0.1648;
505.5000;0.2418;0.1624;
505.8000;0.2377;0.1481;
506.1000;0.2401;0.1433;
506.4000;0.2393;0.1433;
506.7000;0.2361;0.1385;
507.0000;0.2385;0.1409;
507.3000;0.2352;0.1433;
507.6000;0.2385;0.1552;
507.9000;0.2352;0.1433;
508.2000;0.2336;0.1361;
508.5000;0.2377;0.1457;
508.8000;0.2369;0.1337;
509.1000;0.2369;0.1314;
509.4000;0.2377;0.1409;
509.7000;0.2361;0.1505;
510.0000;0.2352;0.1457;
510.3000;0.2361;0.1433;
510.6000;0.2393;0.1505;
510.9000;0.2377;0.1457;
511.2000;0.2369;0.1314;
511.5000;0.2377;0.1337;
511.8000;0.2385;0.1385;
512.1000;0.2385;0.1433;
512.4000;0.2393;0.1528;
512.7000;0.2361;0.1457;
513.0000;0.2385;0.1481;
513.3000;0.2361;0.1409;
513.6000;0.2304;0.1242;
513.9000;0.2361;0.1361;
514.2000;0.2385;0.1481;
514.5000;0.2385;0.1481;
514.8000;0.2377;0.1433;
515.1000;0.2361;0.1481;
515.4000;0.2369;0.1433;
515.7000;0.2385;0.1457;
516.0000;0.2352;0.1337;
516.3000;0.2361;0.1409;
516.6000;0.2361;0.1528;
516.9000;0.2377;0.1648;
517.2000;0.2377;0.1600;
517.5000;0.2369;0.1600;
517.8000;0.2369;0.1624;
518.1000;0.2369;0.1720;
518.4000;0.2393;0.1743;
518.7000;0.2352;0.1672;
519.0000;0.2377;0.1672;
519.3000;0.2377;0.1648;
519.6000;0.2377;0.1600;
519.9000;0.2369;0.1600;
520.2000;0.2377;0.1528;
520.5000;0.2393;0.1648;
520.8000;0.2369;0.1528;
521.1000;0.2393;0.1576;
521.4000;0.2385;0.1552;
521.7000;0.2361;0.1505;
522.0000;0.2369;0.1552;
522.3000;0.2295;0.1361;
522.6000;0.2344;0.1505;
522.9000;0.2377;0.1624;
523.2000;0.2377;0.1600;
523.5000;0.2385;0.1743;
523.8000;0.2328;0.1648;
524.1000;0.2361;0.1743;
524.4000;0.2442;0.1982;
524.7000;0.2369;0.1743;
525.0000;0.2377;0.1720;
525.3000;0.2393;0.1839;
525.6000;0.2369;0.1791;
525.9000;0.2385;0.1743;
526.2000;0.2377;0.1720;
526.5000;0.2377;0.1815;
526.8000;0.2385;0.1791;
527.1000;0.2385;0.1720;
527.4000;0.2377;0.1696;
527.7000;0.2369;0.1672;
528.0000;0.2336;0.1600;
528.3000;0.2352;0.1624;
528.6000;0.2393;0.1720;
528.9000;0.2361;0.1696;
529.2000;0.2458;0.1839;
529.5000;0.2393;0.1600;
529.8000;0.2320;0.1481;
530.1000;0.2393;0.1648;
530.4000;0.2361;0.1648;
530.7000;0.2352;0.1624;
531.0000;0.2385;0.1743;
531.3000;0.2393;0.1743;
531.6000;0.2361;0.1552;
531.9000;0.2344;0.1505;
532.2000;0.2385;0.1624;
532.5000;0.2385;0.1600;
532.8000;0.2377;0.1600;
533.1000;0.2401;0.1720;
533.4000;0.2336;0.1481;
533.7000;0.2377;0.1576;
534.0000;0.2361;0.1600;
534.3000;0.2352;0.1552;
534.6000;0.2361;0.1552;
534.9000;0.2385;0.1672;
535.2000;0.2385;0.1815;
535.5000;0.2255;0.1505;
535.8000;0.2369;0.1743;
536.1000;0.2369;0.1743;
536.4000;0.2377;0.1839;
536.7000;0.2475;0.2078;
537.0000;0.2377;0.1863;
537.3000;0.2369;0.1911;
537.6000;0.2385;0.2006;
537.9000;0.2369;0.1911;
538.2000;0.2369;0.1815;
538.5000;0.2385;0.1767;
538.8000;0.2377;0.1696;
539.1000;0.2361;0.1743;
539.4000;0.2361;0.1600;
539.7000;0.2377;0.1696;
540.0000;0.2377;0.1743;
540.3000;0.2385;0.1743;
540.6000;0.2466;0.1911;
540.9000;0.2320;0.1552;
541.2000;0.2361;0.1600;
541.5000;0.2369;0.1743;
541.8000;0.2361;0.1743;
542.1000;0.2361;0.1672;
542.4000;0.2361;0.1720;
542.7000;0.2377;0.1720;
543.0000;0.2418;0.1887;
543.3000;0.2377;0.1672;
543.6000;0.2409;0.1696;
543.9000;0.2377;0.1552;
544.2000;0.2377;0.1576;
544.5000;0.2369;0.1576;
544.8000;0.2361;0.1600;
545.1000;0.2369;0.1624;
545.4000;0.2507;0.2030;
545.7000;0.2287;0.1457;
546.0000;0.2369;0.1743;
546.3000;0.2385;0.1815;
546.6000;0.2352;0.1767;
546.9000;0.2344;0.1839;
547.2000;0.2369;0.1839;
547.5000;0.2361;0.1767;
547.8000;0.2361;0.1815;
548.1000;0.2377;0.1911;
548.4000;0.2418;0.2054;
548.7000;0.2352;0.1863;
549.0000;0.2377;0.1839;
549.3000;0.2369;0.1767;
549.6000;0.2361;0.1815;
549.9000;0.2336;0.1720;
550.2000;0.2369;0.1839;
550.5000;0.2361;0.1791;
550.8000;0.2361;0.1743;
551.1000;0.2377;0.1839;
551.4000;0.2361;0.1863;
551.7000;0.2320;0.1791;
552.0000;0.2369;0.1839;
552.3000;0.2377;0.1791;
552.6000;0.2475;0.2030;
552.9000;0.2409;0.1791;
553.2000;0.2393;0.1696;
553.5000;0.2369;0.1696;
553.8000;0.2377;0.1743;
554.1000;0.2385;0.1791;
554.4000;0.2401;0.1863;
554.7000;0.2369;0.1815;
555.0000;0.2369;0.1720;
555.3000;0.2361;0.1696;
555.6000;0.2369;0.1720;
555.9000;0.2352;0.1696;
556.2000;0.2336;0.1743;
556.5000;0.2377;0.1696;
556.8000;0.2369;0.1696;
557.1000;0.2369;0.1743;
557.4000;0.2377;0.1767;
557.7000;0.2401;0.1887;
558.0000;0.2385;0.1887;
558.3000;0.2426;0.1958;
558.6000;0.2377;0.1839;
558.9000;0.2385;0.1791;
559.2000;0.2361;0.1720;
559.5000;0.2328;0.1624;
559.8000;0.2352;0.1648;
560.1000;0.2361;0.1672;
560.4000;0.2385;0.1720;
560.7000;0.2369;0.1720;
561.0000;0.2352;0.1672;
561.3000;0.2361;0.1720;
561.6000;0.2352;0.1696;
561.9000;0.2393;0.1839;
562.2000;0.2393;0.1887;
562.5000;0.2385;0.1863;
562.8000;0.2401;0.1911;
563.1000;0.2369;0.1863;
563.4000;0.2377;0.1839;
563.7000;0.2385;0.1958;
564.0000;0.2385;0.1982;
564.3000;0.2385;0.1887;
564.6000;0.2385;0.1887;
564.9000;0.2401;0.1958;
565.2000;0.2361;0.1958;
565.5000;0.2377;0.2030;
565.8000;0.2377;0.1958;
566.1000;0.2352;0.1767;
566.4000;0.2344;0.1743;
566.7000;0.2361;0.1648;
567.0000;0.2369;0.1648;
567.3000;0.2393;0.1648;
567.6000;0.2279;0.1409;
567.9000;0.2352;0.1600;
568.2000;0.2377;0.1696;
568.5000;0.2361;0.1696;
568.8000;0.2369;0.1720;
569.1000;0.2361;0.1720;
569.4000;0.2369;0.1696;
569.7000;0.2385;0.1696;
570.0000;0.2361;0.1648;
570.3000;0.2320;0.1552;
570.6000;0.2385;0.1720;
570.9000;0.2385;0.1720;
571.2000;0.2377;0.1648;
571.5000;0.2352;0.1600;
571.8000;0.2369;0.1696;
572.1000;0.2361;0.1696;
572.4000;0.2312;0.1576;
572.7000;0.2361;0.1672;
573.0000;0.2361;0.1696;
573.3000;0.2385;0.1815;
573.6000;0.2401;0.1934;
573.9000;0.2369;0.1863;
574.2000;0.2377;0.1911;
574.5000;0.2426;0.1934;
574.8000;0.2409;0.1934;
575.1000;0.2369;0.1815;
575.4000;0.2385;0.1887;
575.7000;0.2409;0.1863;
576.0000;0.2369;0.1743;
576.3000;0.2361;0.1743;
576.6000;0.2401;0.1934;
576.9000;0.2369;0.1863;
577.2000;0.2336;0.1791;
577.5000;0.2385;0.1863;
577.8000;0.2352;0.1815;
578.1000;0.2369;0.1791;
578.4000;0.2361;0.1839;
578.7000;0.2369;0.1911;
579.0000;0.2369;0.1934;
579.3000;0.2361;0.2006;
579.6000;0.2377;0.2030;
579.9000;0.2377;0.1958;
580.2000;0.2369;0.1958;
580.5000;0.2475;0.2221;
580.8000;0.2361;0.1934;
581.1000;0.2369;0.1934;
581.4000;0.2352;0.1911;
581.7000;0.2344;0.1839;
582.0000;0.2361;0.1839;
582.3000;0.2377;0.1958;
582.6000;0.2377;0.1982;
582.9000;0.2385;0.1934;
583.2000;0.2401;0.1934;
583.5000;0.2418;0.1911;
583.8000;0.2377;0.1863;
584.1000;0.2377;0.1767;
584.4000;0.2377;0.1815;
584.7000;0.2369;0.1839;
585.0000;0.2385;0.1863;
585.3000;0.2393;0.1839;
585.6000;0.2361;0.1791;
585.9000;0.2361;0.1887;
586.2000;0.2361;0.1958;
586.5000;0.2328;0.1934;
586.8000;0.2369;0.1911;
587.1000;0.2344;0.1791;
587.4000;0.2393;0.1863;
587.7000;0.2369;0.1839;
588.0000;0.2361;0.1815;
588.3000;0.2377;0.1887;
588.6000;0.2320;0.1791;
588.9000;0.2409;0.1958;
589.2000;0.2361;0.1839;
589.5000;0.2377;0.1934;
589.8000;0.2369;0.1887;
590.1000;0.2369;0.1815;
590.4000;0.2361;0.1767;
590.7000;0.2377;0.1743;
591.0000;0.2328;0.1648;
591.3000;0.2377;0.1767;
591.6000;0.2450;0.2006;
591.9000;0.2401;0.1887;
592.2000;0.2369;0.1815;
592.5000;0.2369;0.1791;
592.8000;0.2369;0.1743;
593.1000;0.2361;0.1696;
593.4000;0.2393;0.1696;
593.7000;0.2320;0.1624;
594.0000;0.2385;0.1791;
594.3000;0.2352;0.1767;
594.6000;0.2344;0.1791;
594.9000;0.2369;0.1767;
595.2000;0.2377;0.1839;
595.5000;0.2401;0.1958;
595.8000;0.2352;0.1791;
596.1000;0.2377;0.1815;
596.4000;0.2450;0.1958;
596.7000;0.2328;0.1672;
597.0000;0.2361;0.1815;
597.3000;0.2377;0.1791;
597.6000;0.2369;0.1815;
597.9000;0.2369;0.1839;
598.2000;0.2377;0.1863;
598.5000;0.2279;0.1576;
598.8000;0.2401;0.1839;
599.1000;0.2377;0.1791;
599.4000;0.2361;0.1720;
599.7000;0.2426;0.1887;
600.0000;0.2344;0.1720;
600.3000;0.2385;0.1648;
600.6000;0.2385;0.1576;
600.9000;0.2361;0.1528;
601.2000;0.2377;0.1528;
601.5000;0.2377;0.1457;
601.8000;0.2377;0.1457;
602.1000;0.2361;0.1361;
602.4000;0.2385;0.1337;
602.7000;0.2393;0.1290;
603.0000;0.2377;0.1146;
603.3000;0.2377;0.1051;
603.6000;0.2352;0.0979;
603.9000;0.2385;0.0931;
604.2000;0.2393;0.0955;
604.5000;0.2385;0.0931;
604.8000;0.2385;0.0884;
605.1000;0.2385;0.0860;
605.4000;0.2393;0.0908;
605.7000;0.2499;0.1146;
606.0000;0.2352;0.0669;
606.3000;0.2393;0.0788;
606.6000;0.2385;0.0788;
606.9000;0.2361;0.0764;
607.2000;0.2369;0.0812;
607.5000;0.2393;0.0812;
607.8000;0.2361;0.0812;
608.1000;0.2401;0.0931;
608.4000;0.2377;0.0955;
608.7000;0.2393;0.1027;
609.0000;0.2393;0.0979;
609.3000;0.2401;0.0908;
609.6000;0.2385;0.0764;
609.9000;0.2377;0.0740;
610.2000;0.2377;0.0764;
610.5000;0.2385;0.0788;
610.8000;0.2466;0.0931;
611.1000;0.2385;0.0788;
611.4000;0.2401;0.0860;
611.7000;0.2475;0.1027;
612.0000;0.2426;0.0931;
612.3000;0.2377;0.0836;
612.6000;0.2499;0.1242;
612.9000;0.2279;0.0716;
613.2000;0.2385;0.1027;
613.5000;0.2377;0.0955;
613.8000;0.2393;0.1051;
614.1000;0.2385;0.1051;
614.4000;0.2393;0.1051;
614.7000;0.2466;0.1290;
615.0000;0.2361;0.0931;
615.3000;0.2369;0.0908;
615.6000;0.2377;0.1003;
615.9000;0.2377;0.0955;
616.2000;0.2393;0.0908;
616.5000;0.2361;0.0812;
616.8000;0.2377;0.0812;
617.1000;0.2377;0.0740;
617.4000;0.2377;0.0645;
617.7000;0.2361;0.0549;
618.0000;0.2401;0.0669;
618.3000;0.2385;0.0573;
618.6000;0.2385;0.0597;
618.9000;0.2385;0.0669;
619.2000;0.2393;0.0645;
619.5000;0.2361;0.0597;
619.8000;0.2369;0.0716;
620.1000;0.2369;0.0693;
620.4000;0.2393;0.0812;
620.7000;0.2393;0.0812;
621.0000;0.2385;0.0836;
621.3000;0.2385;0.0788;
621.6000;0.2418;0.0836;
621.9000;0.2450;0.0979;
622.2000;0.2385;0.0788;
622.5000;0.2377;0.0788;
622.8000;0.2352;0.0764;
623.1000;0.2393;0.0908;
623.4000;0.2393;0.0812;
623.7000;0.2393;0.0860;
624.0000;0.2385;0.0836;
624.3000;0.2385;0.0788;
624.6000;0.2393;0.0693;
624.9000;0.2377;0.0669;
625.2000;0.2279;0.0430;
625.5000;0.2279;0.0478;
625.8000;0.2385;0.0669;
626.1000;0.2393;0.0573;
626.4000;0.2385;0.0549;
626.7000;0.2450;0.0740;
627.0000;0.2377;0.0621;
627.3000;0.2369;0.0693;
627.6000;0.2458;0.1027;
627.9000;0.2377;0.0788;
628.2000;0.2385;0.0884;
628.5000;0.2393;0.0931;
628.8000;0.2369;0.0812;
629.1000;0.2377;0.0860;
629.4000;0.2393;0.0812;
629.7000;0.2418;0.0812;
630.0000;0.2377;0.0740;
630.3000;0.2401;0.0764;
630.6000;0.2409;0.0884;
630.9000;0.2409;0.0836;
631.2000;0.2377;0.0764;
631.5000;0.2385;0.0788;
631.8000;0.2385;0.0884;
632.1000;0.2393;0.0931;
632.4000;0.2409;0.0836;
632.7000;0.2393;0.0884;
633.0000;0.2369;0.0931;
633.3000;0.2385;0.0860;
633.6000;0.2344;0.0740;
633.9000;0.2369;0.0716;
634.2000;0.2385;0.0693;
634.5000;0.2393;0.0693;
634.8000;0.2312;0.0502;
635.1000;0.2385;0.0645;
635.4000;0.2385;0.0740;
635.7000;0.2344;0.0645;
636.0000;0.2385;0.0740;
636.3000;0.2385;0.0764;
636.6000;0.2369;0.0716;
636.9000;0.2352;0.0716;
637.2000;0.2393;0.0860;
637.5000;0.2409;0.0931;
637.8000;0.2401;0.0931;
638.1000;0.2393;0.0908;
638.4000;0.2393;0.0955;
638.7000;0.2361;0.0836;
639.0000;0.2377;0.0812;
639.3000;0.2401;0.0860;
639.6000;0.2369;0.0812;
639.9000;0.2377;0.0788;
640.2000;0.2385;0.0860;
640.5000;0.2336;0.0788;
640.8000;0.2385;0.0860;
641.1000;0.2385;0.0836;
641.4000;0.2377;0.0908;
641.7000;0.2385;0.0836;
642.0000;0.2361;0.0788;
642.3000;0.2369;0.0836;
642.6000;0.2344;0.0716;
642.9000;0.2377;0.0788;
643.2000;0.2401;0.0788;
643.5000;0.2385;0.0693;
643.8000;0.2385;0.0693;
644.1000;0.2385;0.0740;
644.4000;0.2409;0.0908;
644.7000;0.2393;0.0812;
645.0000;0.2401;0.0812;
645.3000;0.2377;0.0812;
645.6000;0.2328;0.0645;
645.9000;0.2401;0.0884;
646.2000;0.2409;0.0979;
646.5000;0.2287;0.0764;
646.8000;0.2369;0.0979;
647.1000;0.2385;0.0931;
647.4000;0.2352;0.0812;
647.7000;0.2385;0.0908;
648.0000;0.2385;0.0812;
648.3000;0.2499;0.1027;
648.6000;0.2385;0.0716;
648.9000;0.2385;0.0716;
649.2000;0.2409;0.0788;
649.5000;0.2377;0.0764;
649.8000;0.2418;0.0908;
650.1000;0.2393;0.0979;
650.4000;0.2475;0.1266;
650.7000;0.2483;0.1314;
651.0000;0.2393;0.1075;
651.3000;0.2385;0.1027;
651.6000;0.2401;0.1027;
651.9000;0.2393;0.1027;
652.2000;0.2393;0.1051;
652.5000;0.2377;0.1075;
652.8000;0.2385;0.1146;
653.1000;0.2385;0.1099;
653.4000;0.2385;0.1099;
653.7000;0.2385;0.1003;
654.0000;0.2393;0.0908;
654.3000;0.2377;0.0931;
654.6000;0.2385;0.1027;
654.9000;0.2393;0.1122;
655.2000;0.2393;0.1075;
655.5000;0.2385;0.1051;
655.8000;0.2393;0.1075;
656.1000;0.2393;0.1051;
656.4000;0.2393;0.1027;
656.7000;0.2418;0.1099;
657.0000;0.2385;0.1075;
657.3000;0.2393;0.1051;
657.6000;0.2369;0.0908;
657.9000;0.2385;0.1003;
658.2000;0.2393;0.1051;
658.5000;0.2377;0.1051;
658.8000;0.2418;0.1099;
659.1000;0.2377;0.0955;
659.4000;0.2393;0.0931;
659.7000;0.2377;0.0860;
660.0000;0.2369;0.0812;
660.3000;0.2401;0.0955;
660.6000;0.2328;0.0764;
660.9000;0.2377;0.0860;
661.2000;0.2377;0.0812;
661.5000;0.2385;0.0836;
661.8000;0.2393;0.0884;
662.1000;0.2393;0.0908;
662.4000;0.2393;0.0812;
662.7000;0.2401;0.0788;
663.0000;0.2401;0.0693;
663.3000;0.2320;0.0502;
663.6000;0.2401;0.0788;
663.9000;0.2418;0.0836;
664.2000;0.2385;0.0740;
664.5000;0.2271;0.0478;
664.8000;0.2369;0.0812;
665.1000;0.2401;0.0788;
665.4000;0.2401;0.0860;
665.7000;0.2418;0.0836;
666.0000;0.2393;0.0764;
666.3000;0.2409;0.0716;
666.6000;0.2426;0.0764;
666.9000;0.2312;0.0454;
667.2000;0.2393;0.0716;
667.5000;0.2377;0.0669;
667.8000;0.2320;0.0502;
668.1000;0.2385;0.0716;
668.4000;0.2361;0.0621;
668.7000;0.2475;0.0931;
669.0000;0.2344;0.0645;
669.3000;0.2393;0.0812;
669.6000;0.2328;0.0621;
669.9000;0.2377;0.0764;
670.2000;0.2369;0.0669;
670.5000;0.2401;0.0860;
670.8000;0.2393;0.0860;
671.1000;0.2401;0.0836;
671.4000;0.2352;0.0740;
671.7000;0.2401;0.0812;
672.0000;0.2369;0.0716;
672.3000;0.2361;0.0669;
672.6000;0.2385;0.0669;
672.9000;0.2385;0.0669;
673.2000;0.2385;0.0812;
673.5000;0.2336;0.0669;
673.8000;0.2377;0.0788;
674.1000;0.2385;0.0860;
674.4000;0.2426;0.0884;
674.7000;0.2401;0.0812;
675.0000;0.2442;0.0931;
675.3000;0.2344;0.0693;
675.6000;0.2279;0.0549;
675.9000;0.2377;0.0860;
676.2000;0.2385;0.0979;
676.5000;0.2401;0.1027;
676.8000;0.2401;0.1099;
677.1000;0.2377;0.1027;
677.4000;0.2385;0.1003;
677.7000;0.2401;0.0908;
678.0000;0.2401;0.0860;
678.3000;0.2320;0.0645;
678.6000;0.2393;0.0812;
678.9000;0.2385;0.0788;
679.2000;0.2393;0.0836;
679.5000;0.2409;0.0884;
679.8000;0.2393;0.0812;
680.1000;0.2401;0.0788;
680.4000;0.2393;0.0884;
680.7000;0.2393;0.0908;
681.0000;0.2434;0.0931;
681.3000;0.2393;0.0836;
681.6000;0.2385;0.0908;
681.9000;0.2393;0.0908;
682.2000;0.2409;0.0908;
682.5000;0.2409;0.0908;
682.8000;0.2426;0.1003;
683.1000;0.2409;0.1027;
683.4000;0.2385;0.0955;
683.7000;0.2426;0.1075;
684.0000;0.2393;0.0979;
684.3000;0.2466;0.1170;
684.6000;0.2483;0.1122;
684.9000;0.2352;0.0764;
685.2000;0.2393;0.0955;
685.5000;0.2409;0.1075;
685.8000;0.2377;0.0955;
686.1000;0.2401;0.0955;
686.4000;0.2426;0.0931;
686.7000;0.2393;0.0884;
687.0000;0.2409;0.0931;
687.3000;0.2369;0.0931;
687.6000;0.2369;0.1003;
687.9000;0.2385;0.1051;
688.2000;0.2385;0.1075;
688.5000;0.2239;0.0740;
688.8000;0.2401;0.1051;
689.1000;0.2377;0.1027;
689.4000;0.2385;0.0979;
689.7000;0.2344;0.0908;
690.0000;0.2385;0.0955;
690.3000;0.2401;0.1027;
690.6000;0.2393;0.0931;
690.9000;0.2418;0.0979;
691.2000;0.2401;0.0884;
691.5000;0.2377;0.0884;
691.8000;0.2369;0.0836;
692.1000;0.2312;0.0740;
692.4000;0.2369;0.0979;
692.7000;0.2328;0.0812;
693.0000;0.2393;0.0955;
693.3000;0.2393;0.0884;
693.6000;0.2385;0.0884;
693.9000;0.2352;0.0812;
694.2000;0.2401;0.0884;
694.5000;0.2401;0.0955;
694.8000;0.2393;0.0979;
695.1000;0.2377;0.0955;
695.4000;0.2377;0.1027;
695.7000;0.2401;0.1146;
696.0000;0.2385;0.1122;
696.3000;0.2385;0.1146;
696.6000;0.2393;0.1146;
696.9000;0.2409;0.1146;
697.2000;0.2401;0.1194;
697.5000;0.2418;0.1146;
697.8000;0.2385;0.1027;
698.1000;0.2401;0.1027;
698.4000;0.2401;0.1003;
698.7000;0.2409;0.1003;
699.0000;0.2377;0.0979;
699.3000;0.2385;0.0931;
699.6000;0.2352;0.0884;
699.9000;0.2401;0.0955;
700.2000;0.2393;0.0979;
700.5000;0.2385;0.1051;
700.8000;0.2401;0.1122;
701.1000;0.2393;0.1122;
701.4000;0.2401;0.1122;
701.7000;0.2385;0.1122;
702.0000;0.2393;0.1170;
702.3000;0.2344;0.1075;
702.6000;0.2393;0.1146;
702.9000;0.2385;0.1170;
703.2000;0.2393;0.1194;
703.5000;0.2393;0.1218;
703.8000;0.2458;0.1314;
704.1000;0.2377;0.1027;
704.4000;0.2377;0.0979;
704.7000;0.2361;0.0884;
705.0000;0.2475;0.1146;
705.3000;0.2393;0.0908;
705.6000;0.2409;0.0931;
705.9000;0.2401;0.0884;
706.2000;0.2377;0.0860;
706.5000;0.2393;0.0812;
706.8000;0.2418;0.0931;
707.1000;0.2336;0.0740;
707.4000;0.2418;0.0908;
707.7000;0.2352;0.0740;
708.0000;0.2320;0.0693;
708.3000;0.2409;0.0979;
708.6000;0.2401;0.0979;
708.9000;0.2361;0.0931;
709.2000;0.2434;0.1099;
709.5000;0.2385;0.0955;
709.8000;0.2361;0.0931;
710.1000;0.2336;0.1027;
710.4000;0.2361;0.1194;
710.7000;0.2369;0.1218;
711.0000;0.2385;0.1218;
711.3000;0.2426;0.1337;
711.6000;0.2418;0.1266;
711.9000;0.2369;0.1218;
712.2000;0.2344;0.1122;
712.5000;0.2401;0.1290;
712.8000;0.2401;0.1314;
713.1000;0.2393;0.1242;
713.4000;0.2409;0.1242;
713.7000;0.2409;0.1218;
714.0000;0.2418;0.1122;
714.3000;0.2385;0.1003;
714.6000;0.2393;0.1051;
714.9000;0.2385;0.1051;
715.2000;0.2418;0.1075;
715.5000;0.2385;0.1027;
715.8000;0.2393;0.1099;
716.1000;0.2377;0.1003;
716.4000;0.2320;0.0908;
716.7000;0.2393;0.1122;
717.0000;0.2377;0.1051;
717.3000;0.2409;0.1027;
717.6000;0.2418;0.1099;
717.9000;0.2385;0.1075;
718.2000;0.2377;0.1099;
718.5000;0.2409;0.1218;
718.8000;0.2401;0.1170;
719.1000;0.2409;0.1075;
719.4000;0.2385;0.0931;
719.7000;0.2385;0.0860;
720.0000;0.2393;0.0884;
720.3000;0.2401;0.0884;
720.6000;0.2393;0.0884;
720.9000;0.2385;0.0788;
721.2000;0.2377;0.0740;
721.5000;0.2393;0.0764;
721.8000;0.2409;0.0836;
722.1000;0.2385;0.0884;
722.4000;0.2385;0.0931;
722.7000;0.2377;0.0931;
723.0000;0.2409;0.0979;
723.3000;0.2401;0.0884;
723.6000;0.2401;0.0931;
723.9000;0.2409;0.0908;
724.2000;0.2401;0.0764;
724.5000;0.2393;0.0788;
724.8000;0.2409;0.0884;
725.1000;0.2426;0.0908;
725.4000;0.2409;0.0884;
725.7000;0.2401;0.0860;
726.0000;0.2401;0.0884;
726.3000;0.2385;0.0908;
726.6000;0.2401;0.1027;
726.9000;0.2418;0.1003;
727.2000;0.2393;0.1003;
727.5000;0.2377;0.1003;
727.8000;0.2434;0.1146;
728.1000;0.2401;0.1075;
728.4000;0.2409;0.1170;
728.7000;0.2409;0.1075;
729.0000;0.2393;0.1051;
729.3000;0.2377;0.1051;
729.6000;0.2401;0.0979;
729.9000;0.2393;0.1027;
730.2000;0.2393;0.0931;
730.5000;0.2385;0.0908;
730.8000;0.2377;0.0884;
731.1000;0.2352;0.0836;
731.4000;0.2385;0.0955;
731.7000;0.2401;0.0979;
732.0000;0.2515;0.1290;
732.3000;0.2336;0.0860;
732.6000;0.2361;0.0860;
732.9000;0.2401;0.0931;
733.2000;0.2401;0.0931;
733.5000;0.2393;0.0860;
733.8000;0.2393;0.0860;
734.1000;0.2401;0.0836;
734.4000;0.2401;0.0836;
734.7000;0.2393;0.0740;
735.0000;0.2393;0.0836;
735.3000;0.2352;0.0788;
735.6000;0.2352;0.0812;
735.9000;0.2401;0.0931;
736.2000;0.2507;0.1170;
736.5000;0.2442;0.1027;
736.8000;0.2401;0.0979;
737.1000;0.2295;0.0788;
737.4000;0.2401;0.1170;
737.7000;0.2344;0.1051;
738.0000;0.2385;0.1051;
738.3000;0.2418;0.1122;
738.6000;0.2385;0.1027;
738.9000;0.2418;0.1122;
739.2000;0.2409;0.1099;
739.5000;0.2385;0.1003;
739.8000;0.2401;0.0979;
740.1000;0.2385;0.1003;
740.4000;0.2385;0.0955;
740.7000;0.2393;0.0931;
741.0000;0.2426;0.0908;
741.3000;0.2385;0.0788;
741.6000;0.2409;0.0884;
741.9000;0.2393;0.0860;
742.2000;0.2458;0.1099;
742.5000;0.2393;0.0884;
742.8000;0.2418;0.0955;
743.1000;0.2434;0.0884;
743.4000;0.2393;0.0812;
743.7000;0.2369;0.0836;
744.0000;0.2393;0.0931;
744.3000;0.2418;0.0955;
744.6000;0.2377;0.0812;
744.9000;0.2434;0.1051;
745.2000;0.2393;0.0884;
745.5000;0.2377;0.0836;
745.8000;0.2401;0.0788;
746.1000;0.2393;0.0788;
746.4000;0.2377;0.0788;
746.7000;0.2401;0.0860;
747.0000;0.2409;0.0860;
747.3000;0.2418;0.0884;
747.6000;0.2426;0.0908;
747.9000;0.2393;0.0836;
748.2000;0.2418;0.0931;
748.5000;0.2409;0.0955;
748.8000;0.2426;0.0860;
749.1000;0.2418;0.0860;
749.4000;0.2385;0.0788;
749.7000;0.2344;0.0645;
750.0000;0.2401;0.0716;
750.3000;0.2377;0.0621;
750.6000;0.2393;0.0740;
750.9000;0.2393;0.0764;
751.2000;0.2393;0.0764;
751.5000;0.2409;0.0788;
751.8000;0.2434;0.0884;
752.1000;0.2287;0.0430;
752.4000;0.2401;0.0669;
752.7000;0.2385;0.0645;
753.0000;0.2393;0.0716;
753.3000;0.2393;0.0740;
753.6000;0.2401;0.0788;
753.9000;0.2393;0.0836;
754.2000;0.2442;0.1027;
754.5000;0.2409;0.1051;
754.8000;0.2418;0.1051;
755.1000;0.2393;0.0931;
755.4000;0.2385;0.0979;
755.7000;0.2385;0.0908;
756.0000;0.2393;0.0812;
756.3000;0.2393;0.0836;
756.6000;0.2377;0.0788;
756.9000;0.2401;0.0836;
757.2000;0.2385;0.0812;
757.5000;0.2393;0.0740;
757.8000;0.2385;0.0716;
758.1000;0.2393;0.0812;
758.4000;0.2418;0.0860;
758.7000;0.2401;0.0812;
759.0000;0.2393;0.0764;
759.3000;0.2279;0.0549;
759.6000;0.2295;0.0621;
759.9000;0.2377;0.0812;
760.2000;0.2393;0.0908;
760.5000;0.2401;0.0812;
760.8000;0.2409;0.0860;
761.1000;0.2385;0.0764;
761.4000;0.2401;0.0764;
761.7000;0.2393;0.0812;
762.0000;0.2279;0.0645;
762.3000;0.2409;0.0955;
762.6000;0.2409;0.0884;
762.9000;0.2287;0.0597;
763.2000;0.2361;0.0764;
763.5000;0.2401;0.0931;
763.8000;0.2418;0.0931;
764.1000;0.2483;0.1099;
764.4000;0.2401;0.0788;
764.7000;0.2385;0.0693;
765.0000;0.2385;0.0716;
765.3000;0.2401;0.0716;
765.6000;0.2385;0.0693;
765.9000;0.2385;0.0693;
766.2000;0.2426;0.0716;
766.5000;0.2344;0.0525;
766.8000;0.2401;0.0716;
767.1000;0.2385;0.0836;
767.4000;0.2458;0.1051;
767.7000;0.2401;0.0860;
768.0000;0.2409;0.0860;
768.3000;0.2393;0.0788;
768.6000;0.2393;0.0860;
768.9000;0.2369;0.0740;
769.2000;0.2393;0.0669;
769.5000;0.2409;0.0788;
769.8000;0.2401;0.0740;
770.1000;0.2483;0.1003;
770.4000;0.2312;0.0478;
770.7000;0.2328;0.0597;
771.0000;0.2377;0.0597;
771.3000;0.2393;0.0645;
771.6000;0.2401;0.0669;
771.9000;0.2385;0.0645;
772.2000;0.2401;0.0716;
772.5000;0.2393;0.0693;
772.8000;0.2393;0.0645;
773.1000;0.2385;0.0597;
773.4000;0.2466;0.0812;
773.7000;0.2393;0.0740;
774.0000;0.2385;0.0716;
774.3000;0.2401;0.0764;
774.6000;0.2393;0.0764;
774.9000;0.2401;0.0812;
775.2000;0.2409;0.0884;
775.5000;0.2401;0.0884;
775.8000;0.2409;0.0860;
776.1000;0.2393;0.0812;
776.4000;0.2385;0.0740;
776.7000;0.2434;0.0884;
777.0000;0.2499;0.1075;
777.3000;0.2458;0.0955;
777.6000;0.2369;0.0740;
777.9000;0.2393;0.0884;
778.2000;0.2393;0.0812;
778.5000;0.2385;0.0788;
778.8000;0.2401;0.0788;
779.1000;0.2393;0.0788;
779.4000;0.2401;0.0788;
779.7000;0.2401;0.0788;
780.0000;0.2409;0.0788;
780.3000;0.2409;0.0788;
780.6000;0.2409;0.0716;
780.9000;0.2401;0.0693;
781.2000;0.2328;0.0525;
781.5000;0.2385;0.0573;
781.8000;0.2483;0.0812;
782.1000;0.2385;0.0597;
782.4000;0.2393;0.0716;
782.7000;0.2393;0.0716;
783.0000;0.2409;0.0788;
783.3000;0.2401;0.0836;
783.6000;0.2499;0.1146;
783.9000;0.2409;0.0860;
784.2000;0.2409;0.0955;
784.5000;0.2377;0.0836;
784.8000;0.2401;0.0860;
785.1000;0.2442;0.0979;
785.4000;0.2409;0.0884;
785.7000;0.2418;0.0860;
786.0000;0.2409;0.0860;
786.3000;0.2401;0.0979;
786.6000;0.2369;0.0955;
786.9000;0.2409;0.0955;
787.2000;0.2361;0.0740;
787.5000;0.2385;0.0836;
787.8000;0.2409;0.0836;
788.1000;0.2393;0.0716;
788.4000;0.2401;0.0764;
788.7000;0.2361;0.0716;
789.0000;0.2409;0.0836;
789.3000;0.2401;0.0836;
789.6000;0.2409;0.0812;
789.9000;0.2409;0.0812;
790.2000;0.2401;0.0836;
790.5000;0.2393;0.0788;
790.8000;0.2401;0.0836;
791.1000;0.2393;0.0788;
791.4000;0.2434;0.0788;
791.7000;0.2393;0.0788;
792.0000;0.2393;0.0740;
792.3000;0.2304;0.0621;
792.6000;0.2344;0.0764;
792.9000;0.2385;0.0788;
793.2000;0.2409;0.0860;
793.5000;0.2369;0.0645;
793.8000;0.2385;0.0764;
794.1000;0.2393;0.0788;
794.4000;0.2344;0.0716;
794.7000;0.2377;0.0764;
795.0000;0.2385;0.0764;
795.3000;0.2385;0.0645;
795.6000;0.2401;0.0788;
795.9000;0.2393;0.0764;
796.2000;0.2393;0.0693;
796.5000;0.2393;0.0621;
796.8000;0.2377;0.0478;
797.1000;0.2418;0.0716;
797.4000;0.2418;0.0812;
797.7000;0.2426;0.0860;
798.0000;0.2393;0.0764;
798.3000;0.2409;0.0812;
798.6000;0.2418;0.0812;
798.9000;0.2418;0.0884;
799.2000;0.2418;0.0860;
799.5000;0.2393;0.0764;
799.8000;0.2369;0.0669;
800.1000;0.2369;0.0645;
800.4000;0.2434;0.0812;
800.7000;0.2418;0.0812;
801.0000;0.2401;0.0740;
801.3000;0.2385;0.0764;
801.6000;0.2434;0.0979;
801.9000;0.2409;0.0908;
802.2000;0.2426;0.0931;
802.5000;0.2393;0.0860;
802.8000;0.2409;0.0884;
803.1000;0.2426;0.0931;
803.4000;0.2393;0.0860;
803.7000;0.2377;0.0740;
804.0000;0.2385;0.0764;
804.3000;0.2352;0.0669;
804.6000;0.2442;0.0860;
804.9000;0.2393;0.0788;
805.2000;0.2401;0.0764;
805.5000;0.2393;0.0740;
805.8000;0.2442;0.0955;
806.1000;0.2393;0.0716;
806.4000;0.2401;0.0669;
806.7000;0.2401;0.0788;
807.0000;0.2377;0.0764;
807.3000;0.2409;0.0764;
807.6000;0.2401;0.0812;
807.9000;0.2393;0.0812;
808.2000;0.2401;0.0836;
808.5000;0.2377;0.0716;
808.8000;0.2418;0.0764;
809.1000;0.2409;0.0693;
809.4000;0.2418;0.0693;
809.7000;0.2401;0.0693;
810.0000;0.2409;0.0812;
810.3000;0.2409;0.0740;
810.6000;0.2409;0.0716;
810.9000;0.2418;0.0740;
811.2000;0.2401;0.0693;
811.5000;0.2393;0.0669;
811.8000;0.2385;0.0693;
812.1000;0.2409;0.0740;
812.4000;0.2401;0.0764;
812.7000;0.2401;0.0860;
813.0000;0.2401;0.0812;
813.3000;0.2393;0.0812;
813.6000;0.2385;0.0812;
813.9000;0.2344;0.0716;
814.2000;0.2377;0.0740;
814.5000;0.2336;0.0573;
814.8000;0.2409;0.0788;
815.1000;0.2401;0.0764;
815.4000;0.2409;0.0836;
815.7000;0.2369;0.0764;
816.0000;0.2409;0.0860;
816.3000;0.2401;0.0860;
816.6000;0.2401;0.0884;
816.9000;0.2385;0.0836;
817.2000;0.2393;0.0860;
817.5000;0.2409;0.0955;
817.8000;0.2418;0.0979;
818.1000;0.2393;0.0884;
818.4000;0.2377;0.0884;
818.7000;0.2401;0.0884;
819.0000;0.2393;0.0884;
819.3000;0.2377;0.0812;
819.6000;0.2385;0.0836;
819.9000;0.2393;0.0931;
820.2000;0.2385;0.0931;
820.5000;0.2377;0.0884;
820.8000;0.2442;0.0979;
821.1000;0.2401;0.0860;
821.4000;0.2409;0.0788;
821.7000;0.2401;0.0716;
822.0000;0.2279;0.0430;
822.3000;0.2409;0.0788;
822.6000;0.2377;0.0645;
822.9000;0.2401;0.0740;
823.2000;0.2458;0.1003;
823.5000;0.2385;0.0716;
823.8000;0.2409;0.0669;
824.1000;0.2442;0.0669;
824.4000;0.2361;0.0478;
824.7000;0.2426;0.0597;
825.0000;0.2393;0.0502;
825.3000;0.2401;0.0573;
825.6000;0.2385;0.0502;
825.9000;0.2393;0.0573;
826.2000;0.2377;0.0621;
826.5000;0.2434;0.0836;
826.8000;0.2393;0.0764;
827.1000;0.2393;0.0860;
827.4000;0.2377;0.0740;
827.7000;0.2409;0.0764;
828.0000;0.2401;0.0716;
828.3000;0.2393;0.0669;
828.6000;0.2393;0.0621;
828.9000;0.2385;0.0645;
829.2000;0.2401;0.0764;
829.5000;0.2401;0.0740;
829.8000;0.2401;0.0621;
830.1000;0.2409;0.0716;
830.4000;0.2418;0.0764;
830.7000;0.2393;0.0788;
831.0000;0.2401;0.0884;
831.3000;0.2385;0.0860;
831.6000;0.2401;0.0860;
831.9000;0.2385;0.0788;
832.2000;0.2401;0.0812;
832.5000;0.2475;0.0931;
832.8000;0.2409;0.0860;
833.1000;0.2393;0.0931;
833.4000;0.2385;0.0836;
833.7000;0.2401;0.0836;
834.0000;0.2401;0.0812;
834.3000;0.2385;0.0788;
834.6000;0.2401;0.0788;
834.9000;0.2385;0.0740;
835.2000;0.2385;0.0764;
835.5000;0.2393;0.0740;
835.8000;0.2409;0.0764;
836.1000;0.2409;0.0836;
836.4000;0.2393;0.0788;
836.7000;0.2361;0.0645;
837.0000;0.2401;0.0788;
837.3000;0.2401;0.0812;
837.6000;0.2393;0.0812;
837.9000;0.2369;0.0716;
838.2000;0.2369;0.0597;
838.5000;0.2442;0.0788;
838.8000;0.2491;0.1003;
839.1000;0.2393;0.0764;
839.4000;0.2409;0.0740;
839.7000;0.2295;0.0597;
840.0000;0.2409;0.0764;
840.3000;0.2426;0.0812;
840.6000;0.2491;0.0955;
840.9000;0.2401;0.0764;
841.2000;0.2458;0.0908;
841.5000;0.2385;0.0740;
841.8000;0.2401;0.0740;
842.1000;0.2401;0.0740;
842.4000;0.2418;0.0740;
842.7000;0.2418;0.0764;
843.0000;0.2507;0.1170;
843.3000;0.2409;0.0931;
843.6000;0.2409;0.0979;
843.9000;0.2377;0.0931;
844.2000;0.2434;0.1099;
844.5000;0.2393;0.1051;
844.8000;0.2426;0.1075;
845.1000;0.2418;0.0955;
845.4000;0.2409;0.1003;
845.7000;0.2401;0.1003;
846.0000;0.2409;0.0931;
846.3000;0.2401;0.0955;
846.6000;0.2409;0.0955;
846.9000;0.2352;0.0669;
847.2000;0.2409;0.0836;
847.5000;0.2393;0.0788;
847.8000;0.2401;0.0740;
848.1000;0.2401;0.0693;
848.4000;0.2393;0.0740;
848.7000;0.2434;0.0764;
849.0000;0.2418;0.0669;
849.3000;0.2409;0.0669;
849.6000;0.2401;0.0716;
849.9000;0.2385;0.0621;
850.2000;0.2385;0.0621;
850.5000;0.2369;0.0621;
850.8000;0.2377;0.0645;
851.1000;0.2377;0.0669;
851.4000;0.2466;0.0931;
851.7000;0.2385;0.0764;
852.0000;0.2409;0.0812;
852.3000;0.2385;0.0788;
852.6000;0.2369;0.0716;
852.9000;0.2418;0.0812;
853.2000;0.2401;0.0788;
853.5000;0.2426;0.0788;
853.8000;0.2418;0.0860;
854.1000;0.2409;0.0884;
854.4000;0.2393;0.0884;
854.7000;0.2393;0.0812;
855.0000;0.2393;0.0884;
855.3000;0.2401;0.0979;
855.6000;0.2426;0.0955;
855.9000;0.2401;0.0979;
856.2000;0.2385;0.1003;
856.5000;0.2401;0.0955;
856.8000;0.2401;0.0884;
857.1000;0.2409;0.0884;
857.4000;0.2409;0.0860;
857.7000;0.2393;0.0836;
858.0000;0.2409;0.0860;
858.3000;0.2418;0.0836;
858.6000;0.2426;0.0908;
858.9000;0.2377;0.0860;
859.2000;0.2385;0.0860;
859.5000;0.2409;0.0860;
859.8000;0.2409;0.0860;
860.1000;0.2385;0.0860;
860.4000;0.2507;0.1027;
860.7000;0.2312;0.0549;
861.0000;0.2491;0.1075;
861.3000;0.2401;0.0860;
861.6000;0.2401;0.0931;
861.9000;0.2418;0.0931;
862.2000;0.2352;0.0812;
862.5000;0.2426;0.0955;
862.8000;0.2418;0.0979;
863.1000;0.2515;0.1218;
863.4000;0.2401;0.0931;
863.7000;0.2393;0.1003;
864.0000;0.2442;0.1099;
864.3000;0.2401;0.1027;
864.6000;0.2401;0.0979;
864.9000;0.2385;0.0931;
865.2000;0.2377;0.0860;
865.5000;0.2393;0.0860;
865.8000;0.2450;0.0908;
866.1000;0.2409;0.0788;
866.4000;0.2409;0.0836;
866.7000;0.2426;0.0979;
867.0000;0.2426;0.0955;
867.3000;0.2426;0.1075;
867.6000;0.2418;0.1003;
867.9000;0.2418;0.1051;
868.2000;0.2418;0.1075;
868.5000;0.2401;0.0979;
868.8000;0.2401;0.0955;
869.1000;0.2409;0.0908;
869.4000;0.2450;0.1003;
869.7000;0.2409;0.0860;
870.0000;0.2466;0.0931;
870.3000;0.2393;0.0788;
870.6000;0.2409;0.0931;
870.9000;0.2377;0.0955;
871.2000;0.2401;0.1003;
871.5000;0.2385;0.0860;
871.8000;0.2401;0.0955;
872.1000;0.2401;0.0908;
872.4000;0.2385;0.0812;
872.7000;0.2426;0.1003;
873.0000;0.2344;0.0955;
873.3000;0.2401;0.1051;
873.6000;0.2385;0.1075;
873.9000;0.2434;0.1075;
874.2000;0.2401;0.0979;
874.5000;0.2393;0.0884;
874.8000;0.2393;0.0955;
875.1000;0.2401;0.1099;
875.4000;0.2401;0.1027;
875.7000;0.2377;0.0908;
876.0000;0.2361;0.0812;
876.3000;0.2499;0.1146;
876.6000;0.2418;0.0884;
876.9000;0.2352;0.0788;
877.2000;0.2418;0.0931;
877.5000;0.2409;0.1003;
877.8000;0.2409;0.0955;
878.1000;0.2393;0.0860;
878.4000;0.2279;0.0597;
878.7000;0.2409;0.0884;
879.0000;0.2393;0.0884;
879.3000;0.2393;0.0931;
879.6000;0.2336;0.0788;
879.9000;0.2409;0.0931;
880.2000;0.2409;0.0931;
880.5000;0.2409;0.0931;
880.8000;0.2401;0.0979;
881.1000;0.2409;0.1003;
881.4000;0.2409;0.0955;
881.7000;0.2401;0.0955;
882.0000;0.2409;0.1027;
882.3000;0.2418;0.1003;
882.6000;0.2426;0.1003;
882.9000;0.2401;0.0860;
883.2000;0.2377;0.0788;
883.5000;0.2393;0.0788;
883.8000;0.2426;0.0908;
884.1000;0.2409;0.0812;
884.4000;0.2385;0.0716;
884.7000;0.2442;0.0931;
885.0000;0.2393;0.0860;
885.3000;0.2401;0.0836;
885.6000;0.2401;0.0860;
885.9000;0.2426;0.0860;
886.2000;0.2393;0.0884;
886.5000;0.2418;0.0884;
886.8000;0.2393;0.0812;
887.1000;0.2393;0.0884;
887.4000;0.2418;0.0836;
887.7000;0.2409;0.0931;
888.0000;0.2385;0.0860;
888.3000;0.2393;0.0955;
888.6000;0.2409;0.0884;
888.9000;0.2418;0.0860;
889.2000;0.2458;0.0931;
889.5000;0.2426;0.0788;
889.8000;0.2401;0.0764;
890.1000;0.2385;0.0812;
890.4000;0.2409;0.0908;
890.7000;0.2385;0.0908;
891.0000;0.2336;0.0740;
891.3000;0.2393;0.0908;
891.6000;0.2426;0.1099;
891.9000;0.2401;0.1027;
892.2000;0.2393;0.1051;
892.5000;0.2418;0.1051;
892.8000;0.2279;0.0716;
893.1000;0.2393;0.1027;
893.4000;0.2377;0.0955;
893.7000;0.2418;0.1051;
894.0000;0.2409;0.1075;
894.3000;0.2418;0.0955;
894.6000;0.2499;0.1146;
894.9000;0.2401;0.0931;
895.2000;0.2393;0.0931;
895.5000;0.2393;0.0860;
895.8000;0.2409;0.1027;
896.1000;0.2401;0.0955;
896.4000;0.2409;0.1027;
896.7000;0.2393;0.0979;
897.0000;0.2434;0.1075;
897.3000;0.2401;0.1051;
897.6000;0.2409;0.1075;
897.9000;0.2409;0.1099;
898.2000;0.2377;0.1027;
898.5000;0.2279;0.0716;
898.8000;0.2418;0.1027;
899.1000;0.2409;0.1027;
899.4000;0.2385;0.0955;
899.7000;0.2401;0.1027;
900.0000;0.2361;0.0979;
900.3000;0.2450;0.1218;
900.6000;0.2418;0.1075;
900.9000;0.2369;0.0955;
901.2000;0.2401;0.1122;
901.5000;0.2409;0.1170;
901.8000;0.2401;0.1194;
902.1000;0.2393;0.1122;
902.4000;0.2393;0.1194;
902.7000;0.2409;0.1194;
903.0000;0.2393;0.1099;
903.3000;0.2409;0.1051;
903.6000;0.2385;0.1027;
903.9000;0.2393;0.1146;
904.2000;0.2418;0.1218;
904.5000;0.2426;0.1266;
904.8000;0.2393;0.1266;
905.1000;0.2361;0.1170;
905.4000;0.2401;0.1194;
905.7000;0.2409;0.1099;
906.0000;0.2409;0.1027;
906.3000;0.2418;0.1027;
906.6000;0.2385;0.0979;
906.9000;0.2401;0.0931;
907.2000;0.2401;0.1027;
907.5000;0.2401;0.0955;
907.8000;0.2385;0.0955;
908.1000;0.2409;0.1003;
908.4000;0.2401;0.0908;
908.7000;0.2385;0.0836;
909.0000;0.2409;0.0955;
909.3000;0.2426;0.1003;
909.6000;0.2377;0.0955;
909.9000;0.2409;0.1003;
910.2000;0.2369;0.0908;
910.5000;0.2418;0.1003;
910.8000;0.2507;0.1266;
911.1000;0.2393;0.1075;
911.4000;0.2426;0.1146;
911.7000;0.2401;0.1146;
912.0000;0.2401;0.1218;
912.3000;0.2442;0.1266;
912.6000;0.2418;0.1170;
912.9000;0.2393;0.1099;
913.2000;0.2418;0.1170;
913.5000;0.2418;0.1218;
913.8000;0.2361;0.1051;
914.1000;0.2409;0.1099;
914.4000;0.2418;0.1122;
914.7000;0.2377;0.1170;
915.0000;0.2393;0.1146;
915.3000;0.2344;0.1051;
915.6000;0.2377;0.0979;
915.9000;0.2401;0.1027;
916.2000;0.2434;0.1027;
916.5000;0.2418;0.0955;
916.8000;0.2450;0.1027;
917.1000;0.2401;0.0979;
917.4000;0.2442;0.1170;
917.7000;0.2393;0.1003;
918.0000;0.2532;0.1314;
918.3000;0.2418;0.1075;
918.6000;0.2434;0.1170;
918.9000;0.2418;0.1146;
919.2000;0.2401;0.1099;
919.5000;0.2466;0.1314;
919.8000;0.2409;0.1122;
920.1000;0.2401;0.1051;
920.4000;0.2385;0.0979;
920.7000;0.2409;0.0955;
921.0000;0.2409;0.0955;
921.3000;0.2312;0.0764;
921.6000;0.2393;0.0908;
921.9000;0.2385;0.0860;
922.2000;0.2409;0.0836;
922.5000;0.2458;0.1027;
922.8000;0.2385;0.0788;
923.1000;0.2377;0.0740;
923.4000;0.2361;0.0764;
923.7000;0.2409;0.0812;
924.0000;0.2401;0.0764;
924.3000;0.2409;0.0716;
924.6000;0.2352;0.0645;
924.9000;0.2369;0.0645;
925.2000;0.2409;0.0812;
925.5000;0.2401;0.0860;
925.8000;0.2385;0.0788;
926.1000;0.2393;0.0812;
926.4000;0.2385;0.0764;
926.7000;0.2361;0.0693;
927.0000;0.2377;0.0764;
927.3000;0.2409;0.0764;
927.6000;0.2409;0.0740;
927.9000;0.2377;0.0693;
928.2000;0.2393;0.0836;
928.5000;0.2401;0.0955;
928.8000;0.2426;0.0884;
929.1000;0.2393;0.0860;
929.4000;0.2393;0.0812;
929.7000;0.2442;0.0979;
930.0000;0.2361;0.0764;
930.3000;0.2442;0.0884;
930.6000;0.2401;0.0788;
930.9000;0.2532;0.1051;
931.2000;0.2458;0.0955;
931.5000;0.2491;0.0979;
931.8000;0.2401;0.0740;
932.1000;0.2418;0.0812;
932.4000;0.2418;0.0764;
932.7000;0.2434;0.0836;
933.0000;0.2418;0.0812;
933.3000;0.2393;0.0812;
933.6000;0.2393;0.0860;
933.9000;0.2401;0.0884;
934.2000;0.2418;0.0931;
934.5000;0.2466;0.1003;
934.8000;0.2385;0.0764;
935.1000;0.2401;0.0836;
935.4000;0.2401;0.0788;
935.7000;0.2401;0.0884;
936.0000;0.2418;0.0908;
936.3000;0.2377;0.0764;
936.6000;0.2426;0.0955;
936.9000;0.2393;0.0931;
937.2000;0.2352;0.0931;
937.5000;0.2328;0.0812;
937.8000;0.2393;0.0884;
938.1000;0.2418;0.1027;
938.4000;0.2393;0.0931;
938.7000;0.2409;0.1003;
939.0000;0.2409;0.0931;
939.3000;0.2426;0.1051;
939.6000;0.2418;0.0955;
939.9000;0.2426;0.0955;
940.2000;0.2434;0.0931;
940.5000;0.2393;0.0908;
940.8000;0.2401;0.0931;
941.1000;0.2385;0.0955;
941.4000;0.2393;0.0931;
941.7000;0.2401;0.1003;
942.0000;0.2401;0.1027;
942.3000;0.2450;0.1170;
942.6000;0.2442;0.1003;
942.9000;0.2401;0.0979;
943.2000;0.2385;0.0860;
943.5000;0.2377;0.0788;
943.8000;0.2418;0.0860;
944.1000;0.2418;0.0931;
944.4000;0.2409;0.0836;
944.7000;0.2409;0.0788;
945.0000;0.2418;0.0860;
945.3000;0.2393;0.0812;
945.6000;0.2409;0.0836;
945.9000;0.2344;0.0764;
946.2000;0.2418;0.0884;
946.5000;0.2426;0.0931;
946.8000;0.2418;0.0836;
947.1000;0.2401;0.0812;
947.4000;0.2401;0.0836;
947.7000;0.2409;0.0812;
948.0000;0.2393;0.0860;
948.3000;0.2409;0.0884;
948.6000;0.2409;0.0788;
948.9000;0.2418;0.0788;
949.2000;0.2426;0.0764;
949.5000;0.2401;0.0693;
949.8000;0.2393;0.0693;
950.1000;0.2401;0.0740;
950.4000;0.2426;0.0788;
950.7000;0.2393;0.0740;
951.0000;0.2401;0.0740;
951.3000;0.2418;0.0836;
951.6000;0.2434;0.0836;
951.9000;0.2418;0.0788;
952.2000;0.2401;0.0812;
952.5000;0.2361;0.0716;
952.8000;0.2361;0.0645;
953.1000;0.2393;0.0788;
953.4000;0.2418;0.0836;
953.7000;0.2393;0.0788;
954.0000;0.2409;0.0788;
954.3000;0.2418;0.0884;
954.6000;0.2385;0.0812;
954.9000;0.2450;0.1003;
955.2000;0.2401;0.0931;
955.5000;0.2401;0.0955;
955.8000;0.2409;0.1003;
956.1000;0.2401;0.1027;
956.4000;0.2409;0.1003;
956.7000;0.2295;0.0669;
957.0000;0.2401;0.0955;
957.3000;0.2401;0.0955;
957.6000;0.2401;0.0908;
957.9000;0.2442;0.1075;
958.2000;0.2475;0.1266;
958.5000;0.2483;0.1314;
958.8000;0.2377;0.0979;
959.1000;0.2393;0.0884;
959.4000;0.2418;0.0908;
959.7000;0.2401;0.0860;
960.0000;0.2393;0.0860;
960.3000;0.2426;0.0931;
960.6000;0.2426;0.1003;
960.9000;0.2401;0.1027;
961.2000;0.2401;0.1027;
961.5000;0.2418;0.0979;
961.8000;0.2450;0.1051;
962.1000;0.2409;0.1075;
962.4000;0.2401;0.1027;
962.7000;0.2401;0.1075;
963.0000;0.2401;0.1075;
963.3000;0.2401;0.1099;
963.6000;0.2393;0.1027;
963.9000;0.2393;0.1003;
964.2000;0.2418;0.1099;
964.5000;0.2426;0.1099;
964.8000;0.2418;0.1122;
965.1000;0.2483;0.1266;
965.4000;0.2369;0.0979;
965.7000;0.2426;0.1051;
966.0000;0.2418;0.1051;
966.3000;0.2401;0.1075;
966.6000;0.2385;0.1099;
966.9000;0.2418;0.1075;
967.2000;0.2418;0.1075;
967.5000;0.2409;0.1027;
967.8000;0.2418;0.0979;
968.1000;0.2409;0.0979;
968.4000;0.2287;0.0716;
968.7000;0.2409;0.0979;
969.0000;0.2393;0.0908;
969.3000;0.2401;0.0884;
969.6000;0.2450;0.1099;
969.9000;0.2369;0.0836;
970.2000;0.2409;0.0884;
970.5000;0.2442;0.1027;
970.8000;0.2426;0.1051;
971.1000;0.2426;0.1027;
971.4000;0.2287;0.0740;
971.7000;0.2393;0.0931;
972.0000;0.2409;0.0908;
972.3000;0.2409;0.0908;
972.6000;0.2409;0.0884;
972.9000;0.2409;0.0931;
973.2000;0.2409;0.0860;
973.5000;0.2418;0.0908;
973.8000;0.2401;0.0931;
974.1000;0.2393;0.0931;
974.4000;0.2393;0.0979;
974.7000;0.2409;0.1027;
975.0000;0.2418;0.1003;
975.3000;0.2409;0.0955;
975.6000;0.2418;0.0955;
975.9000;0.2418;0.0955;
976.2000;0.2409;0.1051;
976.5000;0.2450;0.1099;
976.8000;0.2393;0.0908;
977.1000;0.2499;0.1122;
977.4000;0.2409;0.0908;
977.7000;0.2401;0.0908;
978.0000;0.2377;0.0788;
978.3000;0.2393;0.0836;
978.6000;0.2401;0.0860;
978.9000;0.2426;0.0931;
979.2000;0.2418;0.0860;
979.5000;0.2426;0.0812;
979.8000;0.2442;0.0836;
980.1000;0.2352;0.0645;
980.4000;0.2434;0.0908;
980.7000;0.2572;0.1266;
981.0000;0.2409;0.0788;
981.3000;0.2409;0.0836;
981.6000;0.2401;0.0788;
981.9000;0.2255;0.0406;
982.2000;0.2621;0.1409;
982.5000;0.2409;0.0884;
982.8000;0.2418;0.0931;
983.1000;0.2393;0.0931;
983.4000;0.2393;0.0931;
983.7000;0.2393;0.0884;
984.0000;0.2409;0.0860;
984.3000;0.2401;0.0860;
984.6000;0.2409;0.0788;
984.9000;0.2442;0.0884;
985.2000;0.2409;0.0788;
985.5000;0.2418;0.0836;
985.8000;0.2418;0.0908;
986.1000;0.2401;0.0955;
986.4000;0.2418;0.0979;
986.7000;0.2418;0.1099;
987.0000;0.2409;0.1051;
987.3000;0.2393;0.1027;
987.6000;0.2409;0.0931;
987.9000;0.2401;0.0884;
988.2000;0.2385;0.0931;
988.5000;0.2418;0.0884;
988.8000;0.2352;0.0740;
989.1000;0.2409;0.0884;
989.4000;0.2385;0.0860;
989.7000;0.2369;0.0884;
990.0000;0.2344;0.0716;
990.3000;0.2393;0.0812;
990.6000;0.2401;0.0788;
990.9000;0.2393;0.0860;
991.2000;0.2393;0.0812;
991.5000;0.2393;0.0740;
991.8000;0.2401;0.0764;
992.1000;0.2385;0.0740;
992.4000;0.2442;0.1075;
992.7000;0.2393;0.1075;
993.0000;0.2409;0.1003;
993.3000;0.2385;0.0931;
993.6000;0.2450;0.1146;
993.9000;0.2409;0.1051;
994.2000;0.2401;0.1003;
994.5000;0.2271;0.0693;
994.8000;0.2409;0.1075;
995.1000;0.2401;0.1027;
995.4000;0.2434;0.1146;
995.7000;0.2385;0.0979;
996.0000;0.2393;0.0955;
996.3000;0.2409;0.0931;
996.6000;0.2409;0.0979;
996.9000;0.2401;0.0860;
997.2000;0.2418;0.0836;
997.5000;0.2458;0.1003;
997.8000;0.2385;0.0812;
998.1000;0.2393;0.0884;
998.4000;0.2401;0.0860;
998.7000;0.2418;0.0860;
999.0000;0.2409;0.0764;
999.3000;0.2385;0.0788;
999.6000;0.2393;0.0764;
999.9000;0.2409;0.0788;
1000.2000;0.2409;0.0764;
1000.5000;0.2393;0.0764;
1000.8000;0.2377;0.0645;
1001.1000;0.2393;0.0669;
1001.4000;0.2409;0.0740;
1001.7000;0.2426;0.0836;
1002.0000;0.2393;0.0788;
1002.3000;0.2336;0.0669;
1002.6000;0.2401;0.0788;
1002.9000;0.2377;0.0740;
1003.2000;0.2393;0.0740;
1003.5000;0.2336;0.0549;
1003.8000;0.2418;0.0669;
1004.1000;0.2442;0.0693;
1004.4000;0.2385;0.0573;
1004.7000;0.2385;0.0645;
1005.0000;0.2409;0.0645;
1005.3000;0.2418;0.0645;
1005.6000;0.2418;0.0621;
1005.9000;0.2401;0.0573;
1006.2000;0.2401;0.0549;
1006.5000;0.2409;0.0573;
1006.8000;0.2409;0.0621;
1007.1000;0.2409;0.0788;
1007.4000;0.2409;0.0764;
1007.7000;0.2377;0.0764;
1008.0000;0.2377;0.0764;
1008.3000;0.2409;0.0908;
1008.6000;0.2377;0.0788;
1008.9000;0.2409;0.0908;
1009.2000;0.2426;0.0979;
1009.5000;0.2401;0.0836;
1009.8000;0.2385;0.0836;
1010.1000;0.2401;0.0860;
1010.4000;0.2418;0.0908;
1010.7000;0.2491;0.1099;
1011.0000;0.2483;0.1122;
1011.3000;0.2352;0.0693;
1011.6000;0.2466;0.0908;
1011.9000;0.2409;0.0788;
1012.2000;0.2458;0.0908;
1012.5000;0.2409;0.0645;
1012.8000;0.2401;0.0669;
1013.1000;0.2385;0.0621;
1013.4000;0.2401;0.0645;
1013.7000;0.2352;0.0549;
1014.0000;0.2393;0.0693;
1014.3000;0.2483;0.0908;
1014.6000;0.2369;0.0716;
1014.9000;0.2393;0.0716;
1015.2000;0.2352;0.0693;
1015.5000;0.2450;0.0931;
1015.8000;0.2409;0.0788;
1016.1000;0.2418;0.0860;
1016.4000;0.2401;0.0884;
1016.7000;0.2385;0.0884;
1017.0000;0.2409;0.0979;
1017.3000;0.2401;0.0931;
1017.6000;0.2426;0.0979;
1017.9000;0.2352;0.0812;
1018.2000;0.2426;0.0955;
1018.5000;0.2418;0.0908;
1018.8000;0.2401;0.0884;
1019.1000;0.2426;0.0955;
1019.4000;0.2491;0.1146;
1019.7000;0.2401;0.0931;
1020.0000;0.2409;0.0931;
1020.3000;0.2418;0.0908;
1020.6000;0.2401;0.0908;
1020.9000;0.2393;0.0908;
1021.2000;0.2393;0.0955;
1021.5000;0.2385;0.0931;
1021.8000;0.2385;0.0788;
1022.1000;0.2426;0.0812;
1022.4000;0.2393;0.0764;
1022.7000;0.2385;0.0764;
1023.0000;0.2409;0.0860;
1023.3000;0.2418;0.0788;
1023.6000;0.2426;0.0788;
1023.9000;0.2401;0.0812;
1024.2000;0.2393;0.0908;
1024.5000;0.2401;0.0979;
1024.8000;0.2393;0.1027;
1025.1000;0.2418;0.1122;
1025.4000;0.2409;0.1075;
1025.7000;0.2401;0.1099;
1026.0000;0.2409;0.1170;
1026.3000;0.2393;0.1122;
1026.6000;0.2369;0.0979;
1026.9000;0.2409;0.1027;
1027.2000;0.2393;0.0955;
1027.5000;0.2361;0.0884;
1027.8000;0.2401;0.0860;
1028.1000;0.2409;0.0812;
1028.4000;0.2393;0.0812;
1028.7000;0.2409;0.0860;
1029.0000;0.2401;0.0884;
1029.3000;0.2409;0.0860;
1029.6000;0.2409;0.0716;
1029.9000;0.2409;0.0716;
1030.2000;0.2418;0.0669;
1030.5000;0.2426;0.0645;
1030.8000;0.2426;0.0788;
1031.1000;0.2418;0.0860;
1031.4000;0.2393;0.0836;
1031.7000;0.2426;0.0860;
1032.0000;0.2401;0.0836;
1032.3000;0.2426;0.0884;
1032.6000;0.2377;0.0716;
1032.9000;0.2393;0.0764;
1033.2000;0.2418;0.0836;
1033.5000;0.2401;0.0788;
1033.8000;0.2401;0.0716;
1034.1000;0.2320;0.0430;
1034.4000;0.2401;0.0716;
1034.7000;0.2385;0.0716;
1035.0000;0.2442;0.0764;
1035.3000;0.2442;0.0716;
1035.6000;0.2369;0.0525;
1035.9000;0.2442;0.0740;
1036.2000;0.2361;0.0549;
1036.5000;0.2393;0.0645;
1036.8000;0.2393;0.0740;
1037.1000;0.2426;0.0812;
1037.4000;0.2409;0.0860;
1037.7000;0.2344;0.0693;
1038.0000;0.2377;0.0788;
1038.3000;0.2409;0.0908;
1038.6000;0.2426;0.0908;
1038.9000;0.2401;0.0812;
1039.2000;0.2385;0.0764;
1039.5000;0.2352;0.0645;
1039.8000;0.2418;0.0788;
1040.1000;0.2409;0.0740;
1040.4000;0.2385;0.0764;
1040.7000;0.2385;0.0788;
1041.0000;0.2409;0.0836;
1041.3000;0.2401;0.0884;
1041.6000;0.2418;0.0884;
1041.9000;0.2401;0.0860;
1042.2000;0.2409;0.0860;
1042.5000;0.2328;0.0716;
1042.8000;0.2434;0.1027;
1043.1000;0.2442;0.1099;
1043.4000;0.2409;0.1003;
1043.7000;0.2418;0.0908;
1044.0000;0.2418;0.0836;
1044.3000;0.2426;0.0884;
1044.6000;0.2385;0.0788;
1044.9000;0.2401;0.0812;
1045.2000;0.2401;0.0908;
1045.5000;0.2401;0.0860;
1045.8000;0.2401;0.0788;
1046.1000;0.2377;0.0740;
1046.4000;0.2401;0.0740;
1046.7000;0.2401;0.0764;
1047.0000;0.2409;0.0812;
1047.3000;0.2401;0.0812;
1047.6000;0.2352;0.0669;
1047.9000;0.2369;0.0716;
1048.2000;0.2336;0.0597;
1048.5000;0.2434;0.0884;
1048.8000;0.2385;0.0716;
1049.1000;0.2418;0.0884;
1049.4000;0.2409;0.0836;
1049.7000;0.2385;0.0740;
1050.0000;0.2393;0.0860;
1050.3000;0.2393;0.0908;
1050.6000;0.2409;0.0979;
1050.9000;0.2466;0.1122;
1051.2000;0.2426;0.1051;
1051.5000;0.2418;0.1003;
1051.8000;0.2385;0.0836;
1052.1000;0.2401;0.0860;
1052.4000;0.2401;0.0931;
1052.7000;0.2418;0.0979;
1053.0000;0.2385;0.0908;
1053.3000;0.2401;0.0931;
1053.6000;0.2361;0.0836;
1053.9000;0.2352;0.0812;
1054.2000;0.2418;0.1003;
1054.5000;0.2409;0.1003;
1054.8000;0.2418;0.1003;
1055.1000;0.2418;0.0955;
1055.4000;0.2401;0.0860;
1055.7000;0.2393;0.0908;
1056.0000;0.2434;0.0979;
1056.3000;0.2409;0.1027;
1056.6000;0.2434;0.0979;
1056.9000;0.2418;0.0955;
1057.2000;0.2418;0.1003;
1057.5000;0.2442;0.1003;
1057.8000;0.2426;0.1075;
1058.1000;0.2401;0.1051;
1058.4000;0.2401;0.1075;
1058.7000;0.2377;0.1051;
1059.0000;0.2434;0.1122;
1059.3000;0.2377;0.0931;
1059.6000;0.2426;0.1027;
1059.9000;0.2401;0.0931;
1060.2000;0.2426;0.1051;
1060.5000;0.2409;0.1027;
1060.8000;0.2401;0.0884;
1061.1000;0.2409;0.0884;
1061.4000;0.2361;0.0716;
1061.7000;0.2393;0.0908;
1062.0000;0.2393;0.0908;
1062.3000;0.2393;0.0908;
1062.6000;0.2401;0.0955;
1062.9000;0.2418;0.0979;
1063.2000;0.2401;0.1003;
1063.5000;0.2418;0.1051;
1063.8000;0.2393;0.1051;
1064.1000;0.2401;0.1099;
1064.4000;0.2385;0.0979;
1064.7000;0.2393;0.1122;
1065.0000;0.2401;0.1051;
1065.3000;0.2401;0.0979;
1065.6000;0.2409;0.0860;
1065.9000;0.2385;0.0740;
1066.2000;0.2418;0.0716;
1066.5000;0.2401;0.0716;
1066.8000;0.2401;0.0788;
1067.1000;0.2385;0.0812;
1067.4000;0.2409;0.0860;
1067.7000;0.2401;0.0836;
1068.0000;0.2409;0.0908;
1068.3000;0.2426;0.0979;
1068.6000;0.2385;0.0836;
1068.9000;0.2434;0.1003;
1069.2000;0.2393;0.0812;
1069.5000;0.2466;0.1027;
1069.8000;0.2434;0.0931;
1070.1000;0.2385;0.0884;
1070.4000;0.2418;0.0979;
1070.7000;0.2385;0.0908;
1071.0000;0.2401;0.0884;
1071.3000;0.2409;0.0931;
1071.6000;0.2328;0.0669;
1071.9000;0.2401;0.0860;
1072.2000;0.2393;0.0812;
1072.5000;0.2409;0.0860;
1072.8000;0.2385;0.0764;
1073.1000;0.2426;0.0812;
1073.4000;0.2418;0.0836;
1073.7000;0.2385;0.0884;
1074.0000;0.2426;0.1027;
1074.3000;0.2409;0.1003;
1074.6000;0.2393;0.0884;
1074.9000;0.2393;0.0955;
1075.2000;0.2409;0.0955;
1075.5000;0.2385;0.0884;
1075.8000;0.2312;0.0669;
1076.1000;0.2409;0.0860;
1076.4000;0.2401;0.0860;
1076.7000;0.2385;0.0836;
1077.0000;0.2393;0.1003;
1077.3000;0.2336;0.0860;
1077.6000;0.2409;0.1027;
1077.9000;0.2409;0.1075;
1078.2000;0.2418;0.1051;
1078.5000;0.2393;0.1051;
1078.8000;0.2401;0.1075;
1079.1000;0.2409;0.0979;
1079.4000;0.2426;0.1003;
1079.7000;0.2418;0.1003;
1080.0000;0.2409;0.0979;
1080.3000;0.2409;0.0955;
1080.6000;0.2426;0.0955;
1080.9000;0.2418;0.0931;
1081.2000;0.2393;0.0884;
1081.5000;0.2442;0.1003;
1081.8000;0.2377;0.0884;
1082.1000;0.2401;0.1027;
1082.4000;0.2409;0.1051;
1082.7000;0.2409;0.0979;
1083.0000;0.2409;0.0908;
1083.3000;0.2352;0.0764;
1083.6000;0.2401;0.0908;
1083.9000;0.2426;0.0884;
1084.2000;0.2426;0.0931;
1084.5000;0.2377;0.0955;
1084.8000;0.2418;0.1099;
1085.1000;0.2393;0.1122;
1085.4000;0.2426;0.1218;
1085.7000;0.2426;0.1314;
1086.0000;0.2458;0.1409;
1086.3000;0.2409;0.1218;
1086.6000;0.2434;0.1170;
1086.9000;0.2442;0.1099;
1087.2000;0.2426;0.1146;
1087.5000;0.2385;0.1051;
1087.8000;0.2409;0.1146;
1088.1000;0.2434;0.1194;
1088.4000;0.2328;0.0931;
1088.7000;0.2352;0.1075;
1089.0000;0.2418;0.1266;
1089.3000;0.2409;0.1218;
1089.6000;0.2434;0.1242;
1089.9000;0.2377;0.0979;
1090.2000;0.2401;0.0931;
1090.5000;0.2418;0.1003;
1090.8000;0.2434;0.1027;
1091.1000;0.2377;0.0884;
1091.4000;0.2409;0.0908;
1091.7000;0.2287;0.0597;
1092.0000;0.2426;0.0908;
1092.3000;0.2401;0.0908;
1092.6000;0.2418;0.0955;
1092.9000;0.2409;0.0979;
1093.2000;0.2401;0.0955;
1093.5000;0.2418;0.1051;
1093.8000;0.2401;0.1051;
1094.1000;0.2385;0.0979;
1094.4000;0.2409;0.1075;
1094.7000;0.2418;0.1027;
1095.0000;0.2418;0.0908;
1095.3000;0.2418;0.0836;
1095.6000;0.2401;0.0860;
1095.9000;0.2409;0.0884;
1096.2000;0.2418;0.1027;
1096.5000;0.2401;0.1027;
1096.8000;0.2401;0.1075;
1097.1000;0.2409;0.1075;
1097.4000;0.2442;0.1170;
1097.7000;0.2409;0.1075;
1098.0000;0.2401;0.1051;
1098.3000;0.2418;0.1146;
1098.6000;0.2409;0.1146;
1098.9000;0.2418;0.1146;
1099.2000;0.2401;0.1027;
1099.5000;0.2409;0.0931;
1099.8000;0.2369;0.0836;
1100.1000;0.2426;0.0979;
1100.4000;0.2418;0.1003;
1100.7000;0.2401;0.1003;
1101.0000;0.2450;0.1194;
1101.3000;0.2475;0.1266;
1101.6000;0.2418;0.1099;
1101.9000;0.2434;0.1242;
1102.2000;0.2393;0.1099;
1102.5000;0.2418;0.1003;
1102.8000;0.2393;0.0884;
1103.1000;0.2458;0.1075;
1103.4000;0.2401;0.0979;
1103.7000;0.2418;0.1051;
1104.0000;0.2483;0.1266;
1104.3000;0.2409;0.1027;
1104.6000;0.2393;0.0931;
1104.9000;0.2409;0.1051;
1105.2000;0.2442;0.1170;
1105.5000;0.2409;0.0979;
1105.8000;0.2393;0.1003;
1106.1000;0.2426;0.1122;
1106.4000;0.2418;0.1075;
1106.7000;0.2385;0.0931;
1107.0000;0.2287;0.0597;
1107.3000;0.2418;0.0931;
1107.6000;0.2385;0.0812;
1107.9000;0.2393;0.0908;
1108.2000;0.2409;0.0931;
1108.5000;0.2409;0.0931;
1108.8000;0.2409;0.1003;
1109.1000;0.2385;0.1075;
1109.4000;0.2409;0.1194;
1109.7000;0.2409;0.1290;
1110.0000;0.2442;0.1266;
1110.3000;0.2385;0.1122;
1110.6000;0.2418;0.1170;
1110.9000;0.2418;0.1170;
1111.2000;0.2418;0.1242;
1111.5000;0.2418;0.1242;
1111.8000;0.2409;0.1170;
1112.1000;0.2393;0.1027;
1112.4000;0.2393;0.1051;
1112.7000;0.2401;0.1051;
1113.0000;0.2401;0.1003;
1113.3000;0.2409;0.1027;
1113.6000;0.2409;0.1003;
1113.9000;0.2426;0.1075;
1114.2000;0.2426;0.1027;
1114.5000;0.2409;0.1003;
1114.8000;0.2426;0.1099;
1115.1000;0.2426;0.1099;
1115.4000;0.2434;0.1122;
1115.7000;0.2409;0.1075;
1116.0000;0.2426;0.1099;
1116.3000;0.2418;0.1099;
1116.6000;0.2418;0.1051;
1116.9000;0.2393;0.1027;
1117.2000;0.2409;0.0884;
1117.5000;0.2418;0.1003;
1117.8000;0.2401;0.0955;
1118.1000;0.2418;0.1027;
1118.4000;0.2385;0.0979;
1118.7000;0.2409;0.1051;
1119.0000;0.2418;0.1003;
1119.3000;0.2312;0.0740;
1119.6000;0.2393;0.1051;
1119.9000;0.2385;0.1051;
1120.2000;0.2393;0.1075;
1120.5000;0.2409;0.1099;
1120.8000;0.2401;0.1051;
1121.1000;0.2385;0.1027;
1121.4000;0.2409;0.1075;
1121.7000;0.2418;0.0979;
1122.0000;0.2401;0.0955;
1122.3000;0.2409;0.1051;
1122.6000;0.2401;0.1003;
1122.9000;0.2369;0.0931;
1123.2000;0.2401;0.0931;
1123.5000;0.2426;0.0931;
1123.8000;0.2401;0.1003;
1124.1000;0.2442;0.1099;
1124.4000;0.2418;0.1003;
1124.7000;0.2409;0.1051;
1125.0000;0.2409;0.1122;
1125.3000;0.2426;0.1099;
1125.6000;0.2458;0.1266;
1125.9000;0.2409;0.1027;
1126.2000;0.2409;0.1003;
1126.5000;0.2426;0.1003;
1126.8000;0.2418;0.0908;
1127.1000;0.2458;0.1099;
1127.4000;0.2401;0.0955;
1127.7000;0.2401;0.0908;
1128.0000;0.2409;0.0884;
1128.3000;0.2409;0.0931;
1128.6000;0.2393;0.0908;
1128.9000;0.2426;0.0931;
1129.2000;0.2409;0.0979;
1129.5000;0.2393;0.0955;
1129.8000;0.2393;0.0955;
1130.1000;0.2409;0.0908;
1130.4000;0.2344;0.0788;
1130.7000;0.2434;0.0931;
1131.0000;0.2434;0.0931;
1131.3000;0.2409;0.0931;
1131.6000;0.2426;0.1027;
1131.9000;0.2393;0.0955;
1132.2000;0.2418;0.0908;
1132.5000;0.2450;0.1027;
1132.8000;0.2393;0.0812;
1133.1000;0.2393;0.0908;
1133.4000;0.2418;0.0979;
1133.7000;0.2401;0.0955;
1134.0000;0.2409;0.0955;
1134.3000;0.2418;0.0931;
1134.6000;0.2385;0.0884;
1134.9000;0.2401;0.1027;
1135.2000;0.2369;0.0979;
1135.5000;0.2401;0.1122;
1135.8000;0.2393;0.1051;
1136.1000;0.2409;0.1075;
1136.4000;0.2409;0.1122;
1136.7000;0.2409;0.1170;
1137.0000;0.2409;0.1122;
1137.3000;0.2393;0.1027;
1137.6000;0.2409;0.1027;
1137.9000;0.2401;0.1051;
1138.2000;0.2434;0.1051;
1138.5000;0.2409;0.1122;
1138.8000;0.2409;0.1146;
1139.1000;0.2418;0.1051;
1139.4000;0.2434;0.1170;
1139.7000;0.2434;0.1218;
1140.0000;0.2401;0.1218;
1140.3000;0.2418;0.1194;
1140.6000;0.2369;0.1051;
1140.9000;0.2377;0.1003;
1141.2000;0.2409;0.1146;
1141.5000;0.2409;0.1122;
1141.8000;0.2409;0.1122;
1142.1000;0.2393;0.1027;
1142.4000;0.2377;0.0931;
1142.7000;0.2418;0.1170;
1143.0000;0.2401;0.1170;
1143.3000;0.2409;0.1242;
1143.6000;0.2295;0.0908;
1143.9000;0.2418;0.1146;
1144.2000;0.2450;0.1242;
1144.5000;0.2393;0.1099;
1144.8000;0.2418;0.1170;
1145.1000;0.2409;0.1099;
1145.4000;0.2385;0.1027;
1145.7000;0.2393;0.1027;
1146.0000;0.2418;0.1027;
1146.3000;0.2385;0.0979;
1146.6000;0.2385;0.0979;
1146.9000;0.2409;0.0955;
1147.2000;0.2393;0.1051;
1147.5000;0.2409;0.1027;
1147.8000;0.2409;0.1075;
1148.1000;0.2409;0.1003;
1148.4000;0.2393;0.0979;
1148.7000;0.2409;0.1099;
1149.0000;0.2393;0.1051;
1149.3000;0.2401;0.1122;
1149.6000;0.2409;0.1122;
1149.9000;0.2409;0.1146;
1150.2000;0.2426;0.1146;
1150.5000;0.2385;0.0955;
1150.8000;0.2401;0.1027;
1151.1000;0.2409;0.0979;
1151.4000;0.2401;0.0931;
1151.7000;0.2401;0.0931;
1152.0000;0.2458;0.1122;
1152.3000;0.2409;0.1027;
1152.6000;0.2401;0.1051;
1152.9000;0.2409;0.1051;
1153.2000;0.2426;0.1122;
1153.5000;0.2369;0.0955;
1153.8000;0.2426;0.1099;
1154.1000;0.2499;0.1290;
1154.4000;0.2401;0.1099;
1154.7000;0.2409;0.1218;
1155.0000;0.2304;0.0908;
1155.3000;0.2271;0.0812;
1155.6000;0.2393;0.1122;
1155.9000;0.2426;0.1170;
1156.2000;0.2409;0.1218;
1156.5000;0.2483;0.1457;
1156.8000;0.2426;0.1242;
1157.1000;0.2409;0.1266;
1157.4000;0.2401;0.1266;
1157.7000;0.2418;0.1218;
1158.0000;0.2409;0.1122;
1158.3000;0.2393;0.1075;
1158.6000;0.2418;0.1003;
1158.9000;0.2369;0.0860;
1159.2000;0.2418;0.0955;
1159.5000;0.2409;0.0955;
1159.8000;0.2409;0.0955;
1160.1000;0.2401;0.0955;
1160.4000;0.2409;0.1003;
1160.7000;0.2418;0.1003;
1161.0000;0.2401;0.1003;
1161.3000;0.2418;0.1051;
1161.6000;0.2328;0.0764;
1161.9000;0.2409;0.1003;
1162.2000;0.2442;0.0955;
1162.5000;0.2418;0.0955;
1162.8000;0.2409;0.1027;
1163.1000;0.2409;0.1003;
1163.4000;0.2409;0.0955;
1163.7000;0.2418;0.0908;
1164.0000;0.2393;0.0836;
1164.3000;0.2385;0.0836;
1164.6000;0.2523;0.1170;
1164.9000;0.2409;0.0884;
1165.2000;0.2442;0.0931;
1165.5000;0.2426;0.0812;
1165.8000;0.2409;0.0764;
1166.1000;0.2409;0.0740;
1166.4000;0.2458;0.0812;
1166.7000;0.2409;0.0621;
1167.0000;0.2401;0.0573;
1167.3000;0.2409;0.0597;
1167.6000;0.2426;0.0693;
1167.9000;0.2401;0.0693;
1168.2000;0.2393;0.0716;
1168.5000;0.2401;0.0645;
1168.8000;0.2418;0.0716;
1169.1000;0.2418;0.0764;
1169.4000;0.2401;0.0645;
1169.7000;0.2361;0.0573;
1170.0000;0.2409;0.0740;
1170.3000;0.2393;0.0740;
1170.6000;0.2369;0.0740;
1170.9000;0.2409;0.0860;
1171.2000;0.2426;0.0955;
1171.5000;0.2409;0.0955;
1171.8000;0.2434;0.0979;
1172.1000;0.2393;0.0860;
1172.4000;0.2442;0.0979;
1172.7000;0.2401;0.0884;
1173.0000;0.2409;0.0908;
1173.3000;0.2401;0.0931;
1173.6000;0.2409;0.0908;
1173.9000;0.2393;0.0931;
1174.2000;0.2442;0.1027;
1174.5000;0.2401;0.0908;
1174.8000;0.2401;0.0884;
1175.1000;0.2442;0.0979;
1175.4000;0.2442;0.0979;
1175.7000;0.2409;0.0908;
1176.0000;0.2418;0.0836;
1176.3000;0.2385;0.0812;
1176.6000;0.2475;0.0955;
1176.9000;0.2401;0.0812;
1177.2000;0.2426;0.0931;
1177.5000;0.2409;0.0931;
1177.8000;0.2426;0.0979;
1178.1000;0.2418;0.0908;
1178.4000;0.2426;0.0931;
1178.7000;0.2385;0.0836;
1179.0000;0.2426;0.0979;
1179.3000;0.2352;0.0860;
1179.6000;0.2401;0.0931;
1179.9000;0.2385;0.0955;
1180.2000;0.2418;0.1027;
1180.5000;0.2418;0.0955;
1180.8000;0.2385;0.0812;
1181.1000;0.2352;0.0812;
1181.4000;0.2418;0.0979;
1181.7000;0.2418;0.0955;
1182.0000;0.2401;0.0979;
1182.3000;0.2401;0.1051;
1182.6000;0.2523;0.1337;
1182.9000;0.2418;0.1099;
1183.2000;0.2409;0.1003;
1183.5000;0.2393;0.0931;
1183.8000;0.2393;0.0884;
1184.1000;0.2409;0.0979;
1184.4000;0.2401;0.0955;
1184.7000;0.2336;0.0812;
1185.0000;0.2393;0.1003;
1185.3000;0.2418;0.1027;
1185.6000;0.2442;0.1075;
1185.9000;0.2491;0.1146;
1186.2000;0.2409;0.0908;
1186.5000;0.2426;0.0931;
1186.8000;0.2426;0.1003;
1187.1000;0.2409;0.1051;
1187.4000;0.2352;0.0836;
1187.7000;0.2409;0.1051;
1188.0000;0.2418;0.1051;
1188.3000;0.2393;0.0979;
1188.6000;0.2377;0.0884;
1188.9000;0.2426;0.1003;
1189.2000;0.2409;0.1051;
1189.5000;0.2426;0.1027;
1189.8000;0.2393;0.1003;
1190.1000;0.2418;0.1075;
1190.4000;0.2409;0.1051;
1190.7000;0.2385;0.1051;
1191.0000;0.2401;0.1003;
1191.3000;0.2418;0.0931;
1191.6000;0.2352;0.0716;
1191.9000;0.2426;0.0955;
1192.2000;0.2426;0.0979;
1192.5000;0.2418;0.1027;
1192.8000;0.2393;0.0979;
1193.1000;0.2426;0.1027;
1193.4000;0.2426;0.0979;
1193.7000;0.2491;0.1170;
1194.0000;0.2401;0.0836;
1194.3000;0.2409;0.0740;
1194.6000;0.2409;0.0788;
1194.9000;0.2409;0.0812;
1195.2000;0.2393;0.0716;
1195.5000;0.2418;0.0788;
1195.8000;0.2434;0.0884;
1196.1000;0.2409;0.0812;
1196.4000;0.2393;0.0836;
1196.7000;0.2418;0.0860;
1197.0000;0.2401;0.0860;
1197.3000;0.2426;0.0955;
1197.6000;0.2401;0.0908;
1197.9000;0.2385;0.0812;
1198.2000;0.2418;0.0860;
1198.5000;0.2409;0.0836;
1198.8000;0.2401;0.0836;
1199.1000;0.2418;0.0908;
1199.4000;0.2418;0.0860;
1199.7000;0.2385;0.0788;
1200.0000;0.2418;0.0908;
1200.3000;0.2385;0.0908;
1200.6000;0.2426;0.1003;
1200.9000;0.2409;0.0884;
1201.2000;0.2418;0.0764;
1201.5000;0.2409;0.0788;
1201.8000;0.2442;0.0884;
1202.1000;0.2418;0.0860;
1202.4000;0.2377;0.0836;
1202.7000;0.2393;0.0884;
1203.0000;0.2393;0.0884;
1203.3000;0.2426;0.0931;
1203.6000;0.2377;0.0740;
1203.9000;0.2393;0.0836;
1204.2000;0.2393;0.0812;
1204.5000;0.2401;0.0788;
1204.8000;0.2393;0.0740;
1205.1000;0.2401;0.0716;
1205.4000;0.2442;0.0764;
1205.7000;0.2418;0.0716;
1206.0000;0.2418;0.0812;
1206.3000;0.2418;0.0788;
1206.6000;0.2418;0.0812;
1206.9000;0.2418;0.0836;
1207.2000;0.2426;0.0884;
1207.5000;0.2385;0.0740;
1207.8000;0.2385;0.0812;
1208.1000;0.2442;0.0979;
1208.4000;0.2426;0.0979;
1208.7000;0.2409;0.0955;
1209.0000;0.2418;0.0884;
1209.3000;0.2393;0.0764;
1209.6000;0.2409;0.0836;
1209.9000;0.2418;0.0884;
1210.2000;0.2418;0.0836;
1210.5000;0.2393;0.0812;
1210.8000;0.2409;0.0716;
1211.1000;0.2409;0.0645;
1211.4000;0.2409;0.0716;
1211.7000;0.2426;0.0812;
1212.0000;0.2434;0.0836;
1212.3000;0.2401;0.0693;
1212.6000;0.2418;0.0597;
1212.9000;0.2401;0.0549;
1213.2000;0.2385;0.0573;
1213.5000;0.2426;0.0573;
1213.8000;0.2401;0.0502;
1214.1000;0.2434;0.0597;
1214.4000;0.2385;0.0478;
1214.7000;0.2409;0.0502;
1215.0000;0.2409;0.0645;
1215.3000;0.2409;0.0693;
1215.6000;0.2409;0.0645;
1215.9000;0.2369;0.0502;
1216.2000;0.2385;0.0573;
1216.5000;0.2426;0.0788;
1216.8000;0.2401;0.0836;
1217.1000;0.2377;0.0884;
1217.4000;0.2418;0.0908;
1217.7000;0.2434;0.0812;
1218.0000;0.2409;0.0788;
1218.3000;0.2418;0.0812;
1218.6000;0.2426;0.0740;
1218.9000;0.2377;0.0573;
1219.2000;0.2401;0.0740;
1219.5000;0.2401;0.0836;
1219.8000;0.2466;0.1075;
1220.1000;0.2401;0.0908;
1220.4000;0.2418;0.0931;
1220.7000;0.2369;0.0860;
1221.0000;0.2393;0.0979;
1221.3000;0.2409;0.0931;
1221.6000;0.2385;0.0931;
1221.9000;0.2401;0.0979;
1222.2000;0.2304;0.0740;
1222.5000;0.2426;0.1075;
1222.8000;0.2434;0.1075;
1223.1000;0.2409;0.0979;
1223.4000;0.2418;0.0931;
1223.7000;0.2450;0.0955;
1224.0000;0.2491;0.1027;
1224.3000;0.2361;0.0645;
1224.6000;0.2426;0.0788;
1224.9000;0.2369;0.0621;
1225.2000;0.2434;0.0788;
1225.5000;0.2320;0.0525;
1225.8000;0.2401;0.0764;
1226.1000;0.2409;0.0764;
1226.4000;0.2385;0.0740;
1226.7000;0.2434;0.0955;
1227.0000;0.2409;0.0836;
1227.3000;0.2426;0.0860;
1227.6000;0.2409;0.0884;
1227.9000;0.2434;0.0884;
1228.2000;0.2409;0.0884;
1228.5000;0.2393;0.0884;
1228.8000;0.2393;0.0788;
1229.1000;0.2409;0.0955;
1229.4000;0.2418;0.0931;
1229.7000;0.2401;0.0908;
1230.0000;0.2401;0.0836;
1230.3000;0.2409;0.0860;
1230.6000;0.2442;0.0884;
1230.9000;0.2409;0.0716;
1231.2000;0.2385;0.0669;
1231.5000;0.2393;0.0716;
1231.8000;0.2483;0.0955;
1232.1000;0.2418;0.0812;
1232.4000;0.2418;0.0836;
1232.7000;0.2418;0.0812;
1233.0000;0.2418;0.0860;
1233.3000;0.2409;0.0931;
1233.6000;0.2409;0.1051;
1233.9000;0.2418;0.0979;
1234.2000;0.2426;0.1003;
1234.5000;0.2409;0.1027;
1234.8000;0.2393;0.0955;
1235.1000;0.2434;0.1051;
1235.4000;0.2434;0.1122;
1235.7000;0.2401;0.0979;
1236.0000;0.2393;0.0979;
1236.3000;0.2385;0.0979;
1236.6000;0.2385;0.1075;
1236.9000;0.2312;0.0908;
1237.2000;0.2409;0.1099;
1237.5000;0.2483;0.1266;
1237.8000;0.2409;0.1075;
1238.1000;0.2401;0.1027;
1238.4000;0.2450;0.1075;
1238.7000;0.2532;0.1337;
1239.0000;0.2401;0.1051;
1239.3000;0.2401;0.1003;
1239.6000;0.2409;0.1027;
1239.9000;0.2393;0.1075;
1240.2000;0.2401;0.1146;
1240.5000;0.2418;0.1122;
1240.8000;0.2426;0.1122;
1241.1000;0.2409;0.0979;
1241.4000;0.2393;0.0979;
1241.7000;0.2393;0.0979;
1242.0000;0.2426;0.1003;
1242.3000;0.2393;0.0931;
1242.6000;0.2377;0.0860;
1242.9000;0.2434;0.0979;
1243.2000;0.2434;0.0884;
1243.5000;0.2426;0.0955;
1243.8000;0.2426;0.0931;
1244.1000;0.2442;0.1075;
1244.4000;0.2418;0.1027;
1244.7000;0.2418;0.1051;
1245.0000;0.2450;0.1122;
1245.3000;0.2532;0.1218;
1245.6000;0.2426;0.1027;
1245.9000;0.2418;0.0979;
1246.2000;0.2483;0.1075;
1246.5000;0.2409;0.0931;
1246.8000;0.2401;0.0884;
1247.1000;0.2434;0.0908;
1247.4000;0.2409;0.0931;
1247.7000;0.2401;0.0979;
1248.0000;0.2426;0.1003;
1248.3000;0.2426;0.0979;
1248.6000;0.2409;0.0884;
1248.9000;0.2409;0.0860;
1249.2000;0.2418;0.0955;
1249.5000;0.2409;0.0955;
1249.8000;0.2401;0.0979;
1250.1000;0.2393;0.0955;
1250.4000;0.2418;0.0955;
1250.7000;0.2418;0.0931;
1251.0000;0.2426;0.0836;
1251.3000;0.2409;0.0836;
1251.6000;0.2401;0.0764;
1251.9000;0.2393;0.0812;
1252.2000;0.2426;0.0860;
1252.5000;0.2418;0.0836;
1252.8000;0.2401;0.0836;
1253.1000;0.2409;0.0836;
1253.4000;0.2466;0.1051;
1253.7000;0.2409;0.0908;
1254.0000;0.2385;0.0836;
1254.3000;0.2418;0.0979;
1254.6000;0.2418;0.1051;
1254.9000;0.2426;0.1122;
1255.2000;0.2418;0.1051;
1255.5000;0.2401;0.0979;
1255.8000;0.2409;0.0979;
1256.1000;0.2426;0.0979;
1256.4000;0.2393;0.0955;
1256.7000;0.2377;0.0931;
1257.0000;0.2393;0.1051;
1257.3000;0.2426;0.1099;
1257.6000;0.2418;0.1075;
1257.9000;0.2401;0.1122;
1258.2000;0.2385;0.1051;
1258.5000;0.2442;0.1170;
1258.8000;0.2426;0.1122;
1259.1000;0.2393;0.1027;
1259.4000;0.2393;0.1051;
1259.7000;0.2434;0.1099;
1260.0000;0.2426;0.1099;
1260.3000;0.2409;0.1051;
1260.6000;0.2393;0.1003;
1260.9000;0.2401;0.0955;
1261.2000;0.2409;0.0860;
1261.5000;0.2377;0.0764;
1261.8000;0.2401;0.0788;
1262.1000;0.2401;0.0764;
1262.4000;0.2426;0.0860;
1262.7000;0.2401;0.0812;
1263.0000;0.2401;0.0788;
1263.3000;0.2409;0.0788;
1263.6000;0.2385;0.0740;
1263.9000;0.2393;0.0788;
1264.2000;0.2409;0.0812;
1264.5000;0.2426;0.0884;
1264.8000;0.2426;0.1003;
1265.1000;0.2409;0.0955;
1265.4000;0.2409;0.0884;
1265.7000;0.2409;0.0931;
1266.0000;0.2409;0.0931;
1266.3000;0.2409;0.0931;
1266.6000;0.2409;0.0908;
1266.9000;0.2409;0.0884;
1267.2000;0.2409;0.0908;
1267.5000;0.2409;0.0860;
1267.8000;0.2426;0.0884;
1268.1000;0.2426;0.0860;
1268.4000;0.2409;0.0812;
1268.7000;0.2426;0.0836;
1269.0000;0.2377;0.0669;
1269.3000;0.2409;0.0812;
1269.6000;0.2434;0.0908;
1269.9000;0.2426;0.0812;
1270.2000;0.2385;0.0693;
1270.5000;0.2320;0.0502;
1270.8000;0.2409;0.0764;
1271.1000;0.2442;0.0931;
1271.4000;0.2312;0.0669;
1271.7000;0.2401;0.0812;
1272.0000;0.2369;0.0645;
1272.3000;0.2385;0.0836;
1272.6000;0.2409;0.0955;
1272.9000;0.2377;0.0860;
1273.2000;0.2401;0.0931;
1273.5000;0.2369;0.0884;
1273.8000;0.2409;0.0908;
1274.1000;0.2377;0.0836;
1274.4000;0.2409;0.0908;
1274.7000;0.2401;0.0836;
1275.0000;0.2401;0.0836;
1275.3000;0.2385;0.0740;
1275.6000;0.2304;0.0549;
1275.9000;0.2361;0.0716;
1276.2000;0.2426;0.0931;
1276.5000;0.2409;0.0884;
1276.8000;0.2426;0.0788;
1277.1000;0.2401;0.0645;
1277.4000;0.2483;0.0860;
1277.7000;0.2377;0.0597;
1278.0000;0.2426;0.0693;
1278.3000;0.2409;0.0812;
1278.6000;0.2401;0.0836;
1278.9000;0.2409;0.0836;
1279.2000;0.2426;0.0860;
1279.5000;0.2434;0.0860;
1279.8000;0.2385;0.0764;
1280.1000;0.2393;0.0836;
1280.4000;0.2418;0.0836;
1280.7000;0.2426;0.0836;
1281.0000;0.2418;0.0764;
1281.3000;0.2442;0.0860;
1281.6000;0.2418;0.0860;
1281.9000;0.2401;0.0788;
1282.2000;0.2434;0.0979;
1282.5000;0.2401;0.0979;
1282.8000;0.2409;0.0908;
1283.1000;0.2409;0.0788;
1283.4000;0.2377;0.0764;
1283.7000;0.2369;0.0764;
1284.0000;0.2393;0.0812;
1284.3000;0.2401;0.0955;
1284.6000;0.2393;0.0979;
1284.9000;0.2401;0.1075;
1285.2000;0.2401;0.1051;
1285.5000;0.2385;0.1075;
1285.8000;0.2385;0.1075;
1286.1000;0.2434;0.1146;
1286.4000;0.2401;0.0979;
1286.7000;0.2409;0.0908;
1287.0000;0.2418;0.0908;
1287.3000;0.2401;0.0931;
1287.6000;0.2426;0.0931;
1287.9000;0.2418;0.0908;
1288.2000;0.2401;0.0931;
1288.5000;0.2401;0.0955;
1288.8000;0.2418;0.0955;
1289.1000;0.2409;0.0884;
1289.4000;0.2385;0.0908;
1289.7000;0.2393;0.0908;
1290.0000;0.2393;0.0979;
1290.3000;0.2385;0.1003;
1290.6000;0.2418;0.1051;
1290.9000;0.2434;0.0979;
1291.2000;0.2393;0.0908;
1291.5000;0.2426;0.0955;
1291.8000;0.2409;0.0860;
1292.1000;0.2401;0.0812;
1292.4000;0.2401;0.0788;
1292.7000;0.2401;0.0788;
1293.0000;0.2426;0.0979;
1293.3000;0.2393;0.1003;
1293.6000;0.2393;0.1027;
1293.9000;0.2409;0.1122;
1294.2000;0.2426;0.1075;
1294.5000;0.2434;0.1146;
1294.8000;0.2401;0.1075;
1295.1000;0.2393;0.1003;
1295.4000;0.2434;0.1146;
1295.7000;0.2401;0.1051;
1296.0000;0.2295;0.0716;
1296.3000;0.2466;0.1146;
1296.6000;0.2426;0.1003;
1296.9000;0.2426;0.1003;
1297.2000;0.2418;0.0979;
1297.5000;0.2409;0.1051;
1297.8000;0.2409;0.1051;
1298.1000;0.2377;0.1027;
1298.4000;0.2344;0.0979;
1298.7000;0.2418;0.1075;
1299.0000;0.2418;0.1075;
1299.3000;0.2418;0.1099;
1299.6000;0.2483;0.1242;
1299.9000;0.2426;0.0955;
1300.2000;0.2418;0.1027;
1300.5000;0.2418;0.0955;
1300.8000;0.2401;0.0955;
1301.1000;0.2409;0.0908;
1301.4000;0.2393;0.0884;
1301.7000;0.2409;0.0908;
1302.0000;0.2409;0.0908;
1302.3000;0.2409;0.0860;
1302.6000;0.2418;0.0812;
1302.9000;0.2401;0.0860;
1303.2000;0.2409;0.0931;
1303.5000;0.2401;0.0931;
1303.8000;0.2336;0.0693;
1304.1000;0.2401;0.0884;
1304.4000;0.2401;0.0860;
1304.7000;0.2279;0.0597;
1305.0000;0.2409;0.0955;
1305.3000;0.2409;0.0931;
1305.6000;0.2385;0.0884;
1305.9000;0.2304;0.0764;
1306.2000;0.2426;0.1075;
1306.5000;0.2418;0.1051;
1306.8000;0.2426;0.1075;
1307.1000;0.2418;0.1075;
1307.4000;0.2377;0.1075;
1307.7000;0.2401;0.1075;
1308.0000;0.2393;0.1099;
1308.3000;0.2426;0.1099;
1308.6000;0.2426;0.1027;
1308.9000;0.2409;0.0884;
1309.2000;0.2426;0.0955;
1309.5000;0.2426;0.1003;
1309.8000;0.2409;0.1003;
1310.1000;0.2401;0.1027;
1310.4000;0.2401;0.0979;
1310.7000;0.2401;0.1146;
1311.0000;0.2434;0.1218;
1311.3000;0.2418;0.1122;
1311.6000;0.2401;0.0979;
1311.9000;0.2442;0.1075;
1312.2000;0.2426;0.0955;
1312.5000;0.2418;0.0955;
1312.8000;0.2418;0.0931;
1313.1000;0.2409;0.0931;
1313.4000;0.2442;0.0955;
1313.7000;0.2409;0.0908;
1314.0000;0.2409;0.0908;
1314.3000;0.2418;0.0931;
1314.6000;0.2377;0.0812;
1314.9000;0.2401;0.0860;
1315.2000;0.2409;0.0908;
1315.5000;0.2336;0.0645;
1315.8000;0.2369;0.0693;
1316.1000;0.2393;0.0788;
1316.4000;0.2393;0.0860;
1316.7000;0.2304;0.0669;
1317.0000;0.2401;0.1027;
1317.3000;0.2385;0.1003;
1317.6000;0.2418;0.0884;
1317.9000;0.2385;0.0836;
1318.2000;0.2409;0.0908;
1318.5000;0.2409;0.0931;
1318.8000;0.2401;0.0884;
1319.1000;0.2361;0.0764;
1319.4000;0.2401;0.0860;
1319.7000;0.2418;0.0836;
1320.0000;0.2385;0.0788;
1320.3000;0.2385;0.0860;
1320.6000;0.2418;0.0860;
1320.9000;0.2442;0.0908;
1321.2000;0.2409;0.0836;
1321.5000;0.2401;0.0740;
1321.8000;0.2401;0.0764;
1322.1000;0.2418;0.0740;
1322.4000;0.2377;0.0549;
1322.7000;0.2418;0.0669;
1323.0000;0.2458;0.0740;
1323.3000;0.2434;0.0693;
1323.6000;0.2426;0.0812;
1323.9000;0.2409;0.0836;
1324.2000;0.2401;0.0836;
1324.5000;0.2401;0.0788;
1324.8000;0.2418;0.0764;
1325.1000;0.2409;0.0716;
1325.4000;0.2426;0.0716;
1325.7000;0.2401;0.0645;
1326.0000;0.2418;0.0597;
1326.3000;0.2409;0.0693;
1326.6000;0.2434;0.0812;
1326.9000;0.2409;0.0836;
1327.2000;0.2401;0.0764;
1327.5000;0.2409;0.0812;
1327.8000;0.2442;0.0836;
1328.1000;0.2409;0.0740;
1328.4000;0.2409;0.0716;
1328.7000;0.2401;0.0693;
1329.0000;0.2426;0.0693;
1329.3000;0.2393;0.0621;
1329.6000;0.2344;0.0549;
1329.9000;0.2409;0.0812;
1330.2000;0.2377;0.0693;
1330.5000;0.2409;0.0836;
1330.8000;0.2458;0.0860;
1331.1000;0.2409;0.0860;
1331.4000;0.2426;0.0884;
1331.7000;0.2393;0.0836;
1332.0000;0.2393;0.0836;
1332.3000;0.2409;0.0931;
1332.6000;0.2426;0.1075;
1332.9000;0.2385;0.1027;
1333.2000;0.2401;0.1051;
1333.5000;0.2393;0.1075;
1333.8000;0.2418;0.1194;
1334.1000;0.2393;0.1146;
1334.4000;0.2401;0.1122;
1334.7000;0.2401;0.1051;
1335.0000;0.2409;0.1099;
1335.3000;0.2409;0.1099;
1335.6000;0.2393;0.1099;
1335.9000;0.2344;0.0931;
1336.2000;0.2442;0.1170;
1336.5000;0.2434;0.1146;
1336.8000;0.2352;0.0979;
1337.1000;0.2426;0.1194;
1337.4000;0.2409;0.1218;
1337.7000;0.2418;0.1290;
1338.0000;0.2401;0.1242;
1338.3000;0.2401;0.1194;
1338.6000;0.2401;0.1170;
1338.9000;0.2401;0.1146;
1339.2000;0.2540;0.1528;
1339.5000;0.2418;0.1146;
1339.8000;0.2426;0.1218;
1340.1000;0.2369;0.1075;
1340.4000;0.2426;0.1146;
1340.7000;0.2409;0.1075;
1341.0000;0.2401;0.0979;
1341.3000;0.2418;0.1003;
1341.6000;0.2361;0.0931;
1341.9000;0.2426;0.0979;
1342.2000;0.2418;0.0908;
1342.5000;0.2434;0.0908;
1342.8000;0.2434;0.0908;
1343.1000;0.2409;0.0860;
1343.4000;0.2409;0.0860;
1343.7000;0.2418;0.1003;
1344.0000;0.2418;0.0955;
1344.3000;0.2409;0.1003;
1344.6000;0.2409;0.0979;
1344.9000;0.2393;0.0931;
1345.2000;0.2401;0.0979;
1345.5000;0.2450;0.1075;
1345.8000;0.2515;0.1242;
1346.1000;0.2401;0.0931;
1346.4000;0.2401;0.0884;
1346.7000;0.2401;0.0955;
1347.0000;0.2401;0.1003;
1347.3000;0.2409;0.0979;
1347.6000;0.2401;0.0931;
1347.9000;0.2385;0.0908;
1348.2000;0.2418;0.0908;
1348.5000;0.2409;0.0931;
1348.8000;0.2401;0.0884;
1349.1000;0.2409;0.0931;
1349.4000;0.2409;0.0931;
1349.7000;0.2418;0.0931;
1350.0000;0.2409;0.0908;
1350.3000;0.2426;0.1003;
1350.6000;0.2409;0.0955;
1350.9000;0.2401;0.0908;
1351.2000;0.2409;0.0860;
1351.5000;0.2344;0.0693;
1351.8000;0.2418;0.0860;
1352.1000;0.2418;0.0764;
1352.4000;0.2336;0.0573;
1352.7000;0.2475;0.0931;
1353.0000;0.2409;0.0812;
1353.3000;0.2418;0.0812;
1353.6000;0.2409;0.0836;
1353.9000;0.2409;0.0860;
1354.2000;0.2377;0.0788;
1354.5000;0.2418;0.0908;
1354.8000;0.2418;0.0979;
1355.1000;0.2385;0.0836;
1355.4000;0.2393;0.0860;
1355.7000;0.2401;0.0764;
1356.0000;0.2401;0.0812;
1356.3000;0.2393;0.0884;
1356.6000;0.2393;0.0884;
1356.9000;0.2434;0.1027;
1357.2000;0.2393;0.0884;
1357.5000;0.2401;0.0955;
1357.8000;0.2393;0.0931;
1358.1000;0.2418;0.1027;
1358.4000;0.2401;0.1027;
1358.7000;0.2418;0.1003;
1359.0000;0.2401;0.0979;
1359.3000;0.2401;0.1003;
1359.6000;0.2418;0.0979;
1359.9000;0.2385;0.0884;
1360.2000;0.2385;0.0860;
1360.5000;0.2409;0.0884;
1360.8000;0.2426;0.0884;
1361.1000;0.2401;0.0836;
1361.4000;0.2352;0.0764;
1361.7000;0.2409;0.1027;
1362.0000;0.2434;0.1170;
1362.3000;0.2409;0.1099;
1362.6000;0.2385;0.1051;
1362.9000;0.2409;0.1122;
1363.2000;0.2369;0.1122;
1363.5000;0.2409;0.1075;
1363.8000;0.2401;0.1099;
1364.1000;0.2377;0.0979;
1364.4000;0.2409;0.1051;
1364.7000;0.2426;0.1051;
1365.0000;0.2418;0.0955;
1365.3000;0.2409;0.0979;
1365.6000;0.2426;0.1027;
1365.9000;0.2377;0.0836;
1366.2000;0.2393;0.0908;
1366.5000;0.2418;0.1003;
1366.8000;0.2393;0.0955;
1367.1000;0.2320;0.0693;
1367.4000;0.2312;0.0549;
1367.7000;0.2385;0.0788;
1368.0000;0.2426;0.0908;
1368.3000;0.2434;0.0908;
1368.6000;0.2418;0.0788;
1368.9000;0.2361;0.0645;
1369.2000;0.2393;0.0860;
1369.5000;0.2418;0.0908;
1369.8000;0.2401;0.0908;
1370.1000;0.2344;0.0764;
1370.4000;0.2409;0.0955;
1370.7000;0.2409;0.0884;
1371.0000;0.2385;0.0716;
1371.3000;0.2409;0.0812;
1371.6000;0.2418;0.0955;
1371.9000;0.2393;0.0788;
1372.2000;0.2426;0.0812;
1372.5000;0.2393;0.0740;
1372.8000;0.2401;0.0788;
1373.1000;0.2418;0.0788;
1373.4000;0.2426;0.0716;
1373.7000;0.2409;0.0669;
1374.0000;0.2377;0.0573;
1374.3000;0.2434;0.0716;
1374.6000;0.2434;0.0740;
1374.9000;0.2418;0.0716;
1375.2000;0.2409;0.0788;
1375.5000;0.2361;0.0693;
1375.8000;0.2409;0.0740;
1376.1000;0.2426;0.0812;
1376.4000;0.2426;0.0812;
1376.7000;0.2385;0.0764;
1377.0000;0.2418;0.0860;
1377.3000;0.2377;0.0788;
1377.6000;0.2409;0.0884;
1377.9000;0.2336;0.0716;
1378.2000;0.2418;0.0860;
1378.5000;0.2434;0.0884;
1378.8000;0.2409;0.0788;
1379.1000;0.2409;0.0788;
1379.4000;0.2409;0.0764;
1379.7000;0.2426;0.0740;
1380.0000;0.2418;0.0836;
1380.3000;0.2393;0.0836;
1380.6000;0.2361;0.0788;
1380.9000;0.2426;0.0931;
1381.2000;0.2401;0.0788;
1381.5000;0.2385;0.0716;
1381.8000;0.2409;0.0740;
1382.1000;0.2418;0.0764;
1382.4000;0.2401;0.0740;
1382.7000;0.2393;0.0788;
1383.0000;0.2401;0.0788;
1383.3000;0.2409;0.0836;
1383.6000;0.2409;0.0860;
1383.9000;0.2426;0.0955;
1384.2000;0.2401;0.1075;
1384.5000;0.2418;0.1122;
1384.8000;0.2401;0.1122;
1385.1000;0.2418;0.1218;
1385.4000;0.2426;0.1242;
1385.7000;0.2401;0.1314;
1386.0000;0.2409;0.1361;
1386.3000;0.2401;0.1266;
1386.6000;0.2361;0.1051;
1386.9000;0.2409;0.1170;
1387.2000;0.2401;0.1194;
1387.5000;0.2393;0.1122;
1387.8000;0.2442;0.1194;
1388.1000;0.2442;0.1146;
1388.4000;0.2409;0.0955;
1388.7000;0.2409;0.0955;
1389.0000;0.2426;0.1051;
1389.3000;0.2409;0.1003;
1389.6000;0.2426;0.1027;
1389.9000;0.2426;0.1027;
1390.2000;0.2442;0.1027;
1390.5000;0.2409;0.0884;
1390.8000;0.2401;0.0931;
1391.1000;0.2409;0.0955;
1391.4000;0.2409;0.0836;
1391.7000;0.2450;0.1003;
1392.0000;0.2418;0.0979;
1392.3000;0.2418;0.0908;
1392.6000;0.2418;0.0836;
1392.9000;0.2434;0.0860;
1393.2000;0.2393;0.0860;
1393.5000;0.2401;0.0955;
1393.8000;0.2418;0.1027;
1394.1000;0.2409;0.0979;
1394.4000;0.2393;0.0931;
1394.7000;0.2401;0.0908;
1395.0000;0.2418;0.0836;
1395.3000;0.2418;0.0836;
1395.6000;0.2393;0.0788;
1395.9000;0.2393;0.0812;
1396.2000;0.2393;0.0740;
1396.5000;0.2409;0.0764;
1396.8000;0.2393;0.0764;
1397.1000;0.2418;0.0860;
1397.4000;0.2369;0.0764;
1397.7000;0.2393;0.0884;
1398.0000;0.2418;0.0931;
1398.3000;0.2409;0.0860;
1398.6000;0.2418;0.0860;
1398.9000;0.2434;0.0812;
1399.2000;0.2418;0.0836;
1399.5000;0.2409;0.0788;
1399.8000;0.2418;0.0669;
