time/ms;Fluo/V;P700 deltaI/I x10³;
-199.8000;0.2409;0.0931;
-199.5000;0.2418;0.0931;
-199.2000;0.2409;0.0908;
-198.9000;0.2401;0.0931;
-198.6000;0.2418;0.0931;
-198.3000;0.2401;0.0908;
-198.0000;0.2426;0.0955;
-197.7000;0.2418;0.0979;
-197.4000;0.2418;0.0955;
-197.1000;0.2409;0.0979;
-196.8000;0.2426;0.0979;
-196.5000;0.2418;0.0908;
-196.2000;0.2409;0.0860;
-195.9000;0.2434;0.0955;
-195.6000;0.2409;0.1027;
-195.3000;0.2434;0.1051;
-195.0000;0.2409;0.0860;
-194.7000;0.2393;0.0812;
-194.4000;0.2434;0.0860;
-194.1000;0.2409;0.0788;
-193.8000;0.2401;0.0788;
-193.5000;0.2409;0.0788;
-193.2000;0.2401;0.0788;
-192.9000;0.2409;0.0836;
-192.6000;0.2377;0.0740;
-192.3000;0.2434;0.0955;
-192.0000;0.2418;0.0908;
-191.7000;0.2418;0.0979;
-191.4000;0.2426;0.0908;
-191.1000;0.2409;0.0884;
-190.8000;0.2418;0.0884;
-190.5000;0.2426;0.0884;
-190.2000;0.2418;0.0884;
-189.9000;0.2409;0.0860;
-189.6000;0.2393;0.0908;
-189.3000;0.2393;0.0908;
-189.0000;0.2401;0.0884;
-188.7000;0.2401;0.0931;
-188.4000;0.2442;0.1027;
-188.1000;0.2401;0.0979;
-187.8000;0.2409;0.1003;
-187.5000;0.2426;0.1027;
-187.2000;0.2418;0.0955;
-186.9000;0.2401;0.0860;
-186.6000;0.2418;0.0931;
-186.3000;0.2418;0.0955;
-186.0000;0.2385;0.0860;
-185.7000;0.2409;0.0908;
-185.4000;0.2409;0.0836;
-185.1000;0.2409;0.0812;
-184.8000;0.2418;0.0860;
-184.5000;0.2409;0.0812;
-184.2000;0.2418;0.0836;
-183.9000;0.2401;0.0908;
-183.6000;0.2409;0.1003;
-183.3000;0.2409;0.1027;
-183.0000;0.2401;0.1051;
-182.7000;0.2401;0.1027;
-182.4000;0.2426;0.1075;
-182.1000;0.2409;0.1051;
-181.8000;0.2401;0.0979;
-181.5000;0.2418;0.1051;
-181.2000;0.2409;0.0979;
-180.9000;0.2418;0.0860;
-180.6000;0.2401;0.0812;
-180.3000;0.2418;0.0908;
-180.0000;0.2442;0.0884;
-179.7000;0.2426;0.0764;
-179.4000;0.2401;0.0621;
-179.1000;0.2418;0.0669;
-178.8000;0.2401;0.0716;
-178.5000;0.2409;0.0740;
-178.2000;0.2401;0.0740;
-177.9000;0.2409;0.0788;
-177.6000;0.2409;0.0836;
-177.3000;0.2418;0.0931;
-177.0000;0.2401;0.0836;
-176.7000;0.2393;0.0764;
-176.4000;0.2418;0.0788;
-176.1000;0.2426;0.0716;
-175.8000;0.2401;0.0693;
-175.5000;0.2393;0.0764;
-175.2000;0.2418;0.0860;
-174.9000;0.2401;0.0860;
-174.6000;0.2401;0.0788;
-174.3000;0.2393;0.0836;
-174.0000;0.2409;0.0860;
-173.7000;0.2401;0.0884;
-173.4000;0.2401;0.0955;
-173.1000;0.2409;0.0955;
-172.8000;0.2409;0.0931;
-172.5000;0.2401;0.0908;
-172.2000;0.2409;0.0908;
-171.9000;0.2418;0.0812;
-171.6000;0.2401;0.0788;
-171.3000;0.2377;0.0716;
-171.0000;0.2418;0.0788;
-170.7000;0.2483;0.1003;
-170.4000;0.2409;0.0764;
-170.1000;0.2393;0.0716;
-169.8000;0.2401;0.0716;
-169.5000;0.2385;0.0621;
-169.2000;0.2401;0.0597;
-168.9000;0.2401;0.0669;
-168.6000;0.2401;0.0740;
-168.3000;0.2401;0.0716;
-168.0000;0.2393;0.0645;
-167.7000;0.2393;0.0716;
-167.4000;0.2401;0.0860;
-167.1000;0.2442;0.0979;
-166.8000;0.2426;0.0836;
-166.5000;0.2418;0.0812;
-166.2000;0.2385;0.0621;
-165.9000;0.2426;0.0645;
-165.6000;0.2434;0.0669;
-165.3000;0.2418;0.0669;
-165.0000;0.2409;0.0740;
-164.7000;0.2426;0.0716;
-164.4000;0.2418;0.0764;
-164.1000;0.2418;0.0764;
-163.8000;0.2393;0.0716;
-163.5000;0.2401;0.0788;
-163.2000;0.2426;0.0812;
-162.9000;0.2409;0.0788;
-162.6000;0.2418;0.0716;
-162.3000;0.2426;0.0716;
-162.0000;0.2418;0.0788;
-161.7000;0.2450;0.0908;
-161.4000;0.2393;0.0836;
-161.1000;0.2418;0.0860;
-160.8000;0.2434;0.0788;
-160.5000;0.2418;0.0764;
-160.2000;0.2369;0.0502;
-159.9000;0.2401;0.0597;
-159.6000;0.2401;0.0502;
-159.3000;0.2393;0.0430;
-159.0000;0.2409;0.0382;
-158.7000;0.2304;0.0215;
-158.4000;0.2409;0.0430;
-158.1000;0.2418;0.0502;
-157.8000;0.2409;0.0549;
-157.5000;0.2401;0.0621;
-157.2000;0.2401;0.0478;
-156.9000;0.2409;0.0478;
-156.6000;0.2409;0.0525;
-156.3000;0.2418;0.0549;
-156.0000;0.2418;0.0597;
-155.7000;0.2450;0.0693;
-155.4000;0.2401;0.0621;
-155.1000;0.2401;0.0645;
-154.8000;0.2450;0.0716;
-154.5000;0.2491;0.0788;
-154.2000;0.2418;0.0597;
-153.9000;0.2401;0.0597;
-153.6000;0.2393;0.0597;
-153.3000;0.2401;0.0549;
-153.0000;0.2418;0.0549;
-152.7000;0.2450;0.0573;
-152.4000;0.2409;0.0478;
-152.1000;0.2418;0.0525;
-151.8000;0.2401;0.0573;
-151.5000;0.2409;0.0478;
-151.2000;0.2418;0.0478;
-150.9000;0.2336;0.0287;
-150.6000;0.2491;0.0645;
-150.3000;0.2426;0.0478;
-150.0000;0.2409;0.0525;
-149.7000;0.2418;0.0549;
-149.4000;0.2418;0.0502;
-149.1000;0.2409;0.0478;
-148.8000;0.2409;0.0478;
-148.5000;0.2377;0.0382;
-148.2000;0.2409;0.0502;
-147.9000;0.2377;0.0358;
-147.6000;0.2401;0.0525;
-147.3000;0.2418;0.0502;
-147.0000;0.2426;0.0478;
-146.7000;0.2344;0.0263;
-146.4000;0.2418;0.0549;
-146.1000;0.2418;0.0549;
-145.8000;0.2426;0.0549;
-145.5000;0.2426;0.0573;
-145.2000;0.2409;0.0573;
-144.9000;0.2393;0.0573;
-144.6000;0.2401;0.0645;
-144.3000;0.2409;0.0645;
-144.0000;0.2434;0.0573;
-143.7000;0.2450;0.0597;
-143.4000;0.2409;0.0549;
-143.1000;0.2401;0.0693;
-142.8000;0.2409;0.0573;
-142.5000;0.2385;0.0525;
-142.2000;0.2393;0.0430;
-141.9000;0.2418;0.0525;
-141.6000;0.2426;0.0525;
-141.3000;0.2409;0.0454;
-141.0000;0.2418;0.0502;
-140.7000;0.2426;0.0478;
-140.4000;0.2426;0.0478;
-140.1000;0.2401;0.0430;
-139.8000;0.2418;0.0478;
-139.5000;0.2409;0.0406;
-139.2000;0.2409;0.0406;
-138.9000;0.2352;0.0358;
-138.6000;0.2418;0.0478;
-138.3000;0.2418;0.0478;
-138.0000;0.2418;0.0525;
-137.7000;0.2475;0.0740;
-137.4000;0.2409;0.0645;
-137.1000;0.2401;0.0573;
-136.8000;0.2385;0.0454;
-136.5000;0.2401;0.0597;
-136.2000;0.2401;0.0573;
-135.9000;0.2401;0.0621;
-135.6000;0.2312;0.0478;
-135.3000;0.2426;0.0788;
-135.0000;0.2328;0.0478;
-134.7000;0.2442;0.0740;
-134.4000;0.2401;0.0573;
-134.1000;0.2426;0.0573;
-133.8000;0.2418;0.0549;
-133.5000;0.2418;0.0478;
-133.2000;0.2393;0.0382;
-132.9000;0.2418;0.0430;
-132.6000;0.2426;0.0430;
-132.3000;0.2409;0.0430;
-132.0000;0.2401;0.0382;
-131.7000;0.2409;0.0382;
-131.4000;0.2418;0.0358;
-131.1000;0.2426;0.0287;
-130.8000;0.2418;0.0239;
-130.5000;0.2434;0.0215;
-130.2000;0.2401;0.0191;
-129.9000;0.2434;0.0239;
-129.6000;0.2344;-0.0024;
-129.3000;0.2385;0.0096;
-129.0000;0.2418;0.0239;
-128.7000;0.2515;0.0597;
-128.4000;0.2344;0.0239;
-128.1000;0.2418;0.0430;
-127.8000;0.2409;0.0406;
-127.5000;0.2409;0.0358;
-127.2000;0.2458;0.0478;
-126.9000;0.2409;0.0358;
-126.6000;0.2426;0.0382;
-126.3000;0.2491;0.0597;
-126.0000;0.2434;0.0430;
-125.7000;0.2401;0.0382;
-125.4000;0.2499;0.0669;
-125.1000;0.2409;0.0406;
-124.8000;0.2418;0.0406;
-124.5000;0.2418;0.0430;
-124.2000;0.2409;0.0478;
-123.9000;0.2393;0.0406;
-123.6000;0.2409;0.0406;
-123.3000;0.2409;0.0287;
-123.0000;0.2401;0.0239;
-122.7000;0.2426;0.0191;
-122.4000;0.2401;0.0096;
-122.1000;0.2377;-0.0024;
-121.8000;0.2499;0.0382;
-121.5000;0.2418;0.0167;
-121.2000;0.2409;0.0167;
-120.9000;0.2401;0.0096;
-120.6000;0.2401;0.0048;
-120.3000;0.2418;0.0143;
-120.0000;0.2434;0.0215;
-119.7000;0.2434;0.0263;
-119.4000;0.2418;0.0239;
-119.1000;0.2540;0.0693;
-118.8000;0.2295;0.0167;
-118.5000;0.2418;0.0478;
-118.2000;0.2393;0.0406;
-117.9000;0.2393;0.0406;
-117.6000;0.2409;0.0406;
-117.3000;0.2393;0.0454;
-117.0000;0.2426;0.0597;
-116.7000;0.2409;0.0549;
-116.4000;0.2401;0.0525;
-116.1000;0.2515;0.0955;
-115.8000;0.2458;0.0693;
-115.5000;0.2377;0.0502;
-115.2000;0.2409;0.0525;
-114.9000;0.2426;0.0669;
-114.6000;0.2418;0.0621;
-114.3000;0.2418;0.0549;
-114.0000;0.2466;0.0693;
-113.7000;0.2426;0.0621;
-113.4000;0.2409;0.0669;
-113.1000;0.2393;0.0669;
-112.8000;0.2320;0.0454;
-112.5000;0.2401;0.0645;
-112.2000;0.2418;0.0645;
-111.9000;0.2401;0.0669;
-111.6000;0.2401;0.0621;
-111.3000;0.2401;0.0621;
-111.0000;0.2426;0.0693;
-110.7000;0.2385;0.0621;
-110.4000;0.2418;0.0669;
-110.1000;0.2442;0.0764;
-109.8000;0.2442;0.0764;
-109.5000;0.2434;0.0764;
-109.2000;0.2418;0.0740;
-108.9000;0.2426;0.0764;
-108.6000;0.2409;0.0693;
-108.3000;0.2418;0.0621;
-108.0000;0.2377;0.0669;
-107.7000;0.2409;0.0716;
-107.4000;0.2418;0.0740;
-107.1000;0.2409;0.0693;
-106.8000;0.2418;0.0669;
-106.5000;0.2401;0.0621;
-106.2000;0.2401;0.0549;
-105.9000;0.2401;0.0549;
-105.6000;0.2369;0.0454;
-105.3000;0.2369;0.0406;
-105.0000;0.2401;0.0549;
-104.7000;0.2393;0.0597;
-104.4000;0.2426;0.0693;
-104.1000;0.2369;0.0573;
-103.8000;0.2418;0.0645;
-103.5000;0.2418;0.0621;
-103.2000;0.2418;0.0645;
-102.9000;0.2418;0.0597;
-102.6000;0.2409;0.0621;
-102.3000;0.2434;0.0716;
-102.0000;0.2458;0.0788;
-101.7000;0.2401;0.0621;
-101.4000;0.2426;0.0621;
-101.1000;0.2409;0.0573;
-100.8000;0.2458;0.0597;
-100.5000;0.2385;0.0549;
-100.2000;0.2483;0.0812;
-99.9000;0.2385;0.0573;
-99.6000;0.2409;0.0573;
-99.3000;0.2418;0.0597;
-99.0000;0.2442;0.0716;
-98.7000;0.2401;0.0669;
-98.4000;0.2426;0.0716;
-98.1000;0.2466;0.0764;
-97.8000;0.2361;0.0478;
-97.5000;0.2418;0.0573;
-97.2000;0.2393;0.0525;
-96.9000;0.2377;0.0478;
-96.6000;0.2458;0.0669;
-96.3000;0.2393;0.0549;
-96.0000;0.2442;0.0693;
-95.7000;0.2393;0.0525;
-95.4000;0.2450;0.0621;
-95.1000;0.2409;0.0597;
-94.8000;0.2426;0.0645;
-94.5000;0.2426;0.0573;
-94.2000;0.2409;0.0454;
-93.9000;0.2401;0.0430;
-93.6000;0.2401;0.0502;
-93.3000;0.2418;0.0645;
-93.0000;0.2401;0.0716;
-92.7000;0.2401;0.0740;
-92.4000;0.2401;0.0693;
-92.1000;0.2393;0.0645;
-91.8000;0.2442;0.0788;
-91.5000;0.2409;0.0693;
-91.2000;0.2401;0.0716;
-90.9000;0.2409;0.0716;
-90.6000;0.2426;0.0693;
-90.3000;0.2393;0.0573;
-90.0000;0.2401;0.0525;
-89.7000;0.2418;0.0573;
-89.4000;0.2401;0.0502;
-89.1000;0.2434;0.0669;
-88.8000;0.2336;0.0454;
-88.5000;0.2401;0.0693;
-88.2000;0.2418;0.0740;
-87.9000;0.2377;0.0597;
-87.6000;0.2434;0.0740;
-87.3000;0.2409;0.0693;
-87.0000;0.2409;0.0669;
-86.7000;0.2401;0.0597;
-86.4000;0.2426;0.0573;
-86.1000;0.2450;0.0716;
-85.8000;0.2409;0.0573;
-85.5000;0.2418;0.0645;
-85.2000;0.2450;0.0812;
-84.9000;0.2385;0.0740;
-84.6000;0.2401;0.0860;
-84.3000;0.2409;0.0812;
-84.0000;0.2401;0.0740;
-83.7000;0.2409;0.0764;
-83.4000;0.2426;0.0836;
-83.1000;0.2409;0.0836;
-82.8000;0.2434;0.0812;
-82.5000;0.2434;0.0836;
-82.2000;0.2344;0.0621;
-81.9000;0.2393;0.0740;
-81.6000;0.2409;0.0740;
-81.3000;0.2409;0.0740;
-81.0000;0.2418;0.0836;
-80.7000;0.2401;0.0716;
-80.4000;0.2426;0.0788;
-80.1000;0.2409;0.0740;
-79.8000;0.2418;0.0812;
-79.5000;0.2409;0.0716;
-79.2000;0.2475;0.0812;
-78.9000;0.2409;0.0764;
-78.6000;0.2418;0.0740;
-78.3000;0.2418;0.0716;
-78.0000;0.2409;0.0693;
-77.7000;0.2409;0.0693;
-77.4000;0.2393;0.0645;
-77.1000;0.2483;0.0860;
-76.8000;0.2393;0.0621;
-76.5000;0.2401;0.0621;
-76.2000;0.2409;0.0645;
-75.9000;0.2418;0.0645;
-75.6000;0.2377;0.0502;
-75.3000;0.2401;0.0597;
-75.0000;0.2434;0.0669;
-74.7000;0.2385;0.0669;
-74.4000;0.2401;0.0669;
-74.1000;0.2401;0.0621;
-73.8000;0.2393;0.0525;
-73.5000;0.2418;0.0645;
-73.2000;0.2418;0.0621;
-72.9000;0.2409;0.0573;
-72.6000;0.2475;0.0788;
-72.3000;0.2418;0.0716;
-72.0000;0.2401;0.0740;
-71.7000;0.2401;0.0788;
-71.4000;0.2409;0.0836;
-71.1000;0.2426;0.0931;
-70.8000;0.2385;0.0764;
-70.5000;0.2418;0.0788;
-70.2000;0.2426;0.0788;
-69.9000;0.2418;0.0788;
-69.6000;0.2426;0.0740;
-69.3000;0.2426;0.0716;
-69.0000;0.2442;0.0764;
-68.7000;0.2426;0.0740;
-68.4000;0.2401;0.0669;
-68.1000;0.2401;0.0716;
-67.8000;0.2418;0.0716;
-67.5000;0.2426;0.0645;
-67.2000;0.2352;0.0478;
-66.9000;0.2409;0.0669;
-66.6000;0.2393;0.0716;
-66.3000;0.2385;0.0716;
-66.0000;0.2393;0.0740;
-65.7000;0.2409;0.0788;
-65.4000;0.2426;0.0693;
-65.1000;0.2450;0.0836;
-64.8000;0.2426;0.0764;
-64.5000;0.2426;0.0812;
-64.2000;0.2409;0.0812;
-63.9000;0.2409;0.0812;
-63.6000;0.2426;0.0812;
-63.3000;0.2401;0.0716;
-63.0000;0.2409;0.0716;
-62.7000;0.2328;0.0502;
-62.4000;0.2426;0.0693;
-62.1000;0.2377;0.0573;
-61.8000;0.2393;0.0621;
-61.5000;0.2426;0.0860;
-61.2000;0.2418;0.0860;
-60.9000;0.2401;0.0836;
-60.6000;0.2409;0.0716;
-60.3000;0.2393;0.0621;
-60.0000;0.2401;0.0788;
-59.7000;0.2352;0.0669;
-59.4000;0.2418;0.0740;
-59.1000;0.2401;0.0693;
-58.8000;0.2409;0.0693;
-58.5000;0.2442;0.0764;
-58.2000;0.2409;0.0693;
-57.9000;0.2393;0.0716;
-57.6000;0.2442;0.0836;
-57.3000;0.2418;0.0693;
-57.0000;0.2434;0.0716;
-56.7000;0.2409;0.0764;
-56.4000;0.2409;0.0716;
-56.1000;0.2409;0.0740;
-55.8000;0.2426;0.0716;
-55.5000;0.2409;0.0669;
-55.2000;0.2401;0.0621;
-54.9000;0.2401;0.0621;
-54.6000;0.2393;0.0669;
-54.3000;0.2409;0.0693;
-54.0000;0.2393;0.0693;
-53.7000;0.2401;0.0716;
-53.4000;0.2418;0.0788;
-53.1000;0.2458;0.0931;
-52.8000;0.2312;0.0549;
-52.5000;0.2377;0.0621;
-52.2000;0.2393;0.0669;
-51.9000;0.2352;0.0621;
-51.6000;0.2418;0.0860;
-51.3000;0.2369;0.0716;
-51.0000;0.2401;0.0788;
-50.7000;0.2409;0.0836;
-50.4000;0.2409;0.0908;
-50.1000;0.2393;0.0979;
-49.8000;0.2409;0.0979;
-49.5000;0.2385;0.0931;
-49.2000;0.2409;0.0955;
-48.9000;0.2418;0.0884;
-48.6000;0.2409;0.0836;
-48.3000;0.2426;0.0860;
-48.0000;0.2426;0.0908;
-47.7000;0.2385;0.0836;
-47.4000;0.2426;0.0908;
-47.1000;0.2418;0.0884;
-46.8000;0.2499;0.1146;
-46.5000;0.2426;0.1027;
-46.2000;0.2409;0.0955;
-45.9000;0.2401;0.1003;
-45.6000;0.2385;0.0860;
-45.3000;0.2409;0.1075;
-45.0000;0.2401;0.1003;
-44.7000;0.2418;0.0979;
-44.4000;0.2409;0.1003;
-44.1000;0.2409;0.1003;
-43.8000;0.2409;0.1003;
-43.5000;0.2401;0.0979;
-43.2000;0.2442;0.1003;
-42.9000;0.2426;0.0979;
-42.6000;0.2442;0.0979;
-42.3000;0.2409;0.0955;
-42.0000;0.2426;0.1003;
-41.7000;0.2426;0.1051;
-41.4000;0.2409;0.0979;
-41.1000;0.2401;0.0908;
-40.8000;0.2418;0.0884;
-40.5000;0.2418;0.0884;
-40.2000;0.2401;0.0812;
-39.9000;0.2409;0.0788;
-39.6000;0.2426;0.0788;
-39.3000;0.2409;0.0764;
-39.0000;0.2418;0.0788;
-38.7000;0.2426;0.0860;
-38.4000;0.2418;0.0836;
-38.1000;0.2385;0.0788;
-37.8000;0.2409;0.0788;
-37.5000;0.2385;0.0788;
-37.2000;0.2401;0.0764;
-36.9000;0.2426;0.0788;
-36.6000;0.2442;0.0836;
-36.3000;0.2409;0.0716;
-36.0000;0.2401;0.0764;
-35.7000;0.2418;0.0955;
-35.4000;0.2409;0.0860;
-35.1000;0.2418;0.0812;
-34.8000;0.2409;0.0836;
-34.5000;0.2426;0.0860;
-34.2000;0.2418;0.0836;
-33.9000;0.2426;0.0931;
-33.6000;0.2466;0.1051;
-33.3000;0.2507;0.1218;
-33.0000;0.2401;0.0955;
-32.7000;0.2418;0.0931;
-32.4000;0.2401;0.0860;
-32.1000;0.2418;0.0812;
-31.8000;0.2409;0.0788;
-31.5000;0.2409;0.0716;
-31.2000;0.2418;0.0693;
-30.9000;0.2418;0.0740;
-30.6000;0.2418;0.0764;
-30.3000;0.2426;0.0788;
-30.0000;0.2418;0.0764;
-29.7000;0.2401;0.0693;
-29.4000;0.2401;0.0693;
-29.1000;0.2401;0.0716;
-28.8000;0.2418;0.0716;
-28.5000;0.2401;0.0621;
-28.2000;0.2409;0.0693;
-27.9000;0.2434;0.0812;
-27.6000;0.2393;0.0764;
-27.3000;0.2418;0.0860;
-27.0000;0.2418;0.0860;
-26.7000;0.2442;0.0884;
-26.4000;0.2418;0.0812;
-26.1000;0.2426;0.0812;
-25.8000;0.2418;0.0812;
-25.5000;0.2418;0.0764;
-25.2000;0.2418;0.0764;
-24.9000;0.2385;0.0693;
-24.6000;0.2393;0.0716;
-24.3000;0.2401;0.0716;
-24.0000;0.2393;0.0764;
-23.7000;0.2418;0.0812;
-23.4000;0.2401;0.0669;
-23.1000;0.2418;0.0812;
-22.8000;0.2401;0.0908;
-22.5000;0.2401;0.0908;
-22.2000;0.2442;0.0836;
-21.9000;0.2418;0.0788;
-21.6000;0.2377;0.0693;
-21.3000;0.2409;0.0931;
-21.0000;0.2426;0.0908;
-20.7000;0.2409;0.0908;
-20.4000;0.2401;0.0836;
-20.1000;0.2418;0.0836;
-19.8000;0.2426;0.0836;
-19.5000;0.2401;0.0764;
-19.2000;0.2401;0.0812;
-18.9000;0.2401;0.0716;
-18.6000;0.2385;0.0740;
-18.3000;0.2401;0.0693;
-18.0000;0.2393;0.0597;
-17.7000;0.2434;0.0669;
-17.4000;0.2426;0.0669;
-17.1000;0.2377;0.0621;
-16.8000;0.2418;0.0645;
-16.5000;0.2426;0.0621;
-16.2000;0.2426;0.0645;
-15.9000;0.2409;0.0573;
-15.6000;0.2434;0.0645;
-15.3000;0.2409;0.0693;
-15.0000;0.2426;0.0812;
-14.7000;0.2442;0.0812;
-14.4000;0.2401;0.0740;
-14.1000;0.2409;0.0645;
-13.8000;0.2401;0.0693;
-13.5000;0.2409;0.0788;
-13.2000;0.2434;0.0764;
-12.9000;0.2491;0.0931;
-12.6000;0.2393;0.0716;
-12.3000;0.2409;0.0788;
-12.0000;0.2401;0.0716;
-11.7000;0.2401;0.0645;
-11.4000;0.2418;0.0669;
-11.1000;0.2401;0.0693;
-10.8000;0.2401;0.0764;
-10.5000;0.2401;0.0860;
-10.2000;0.2426;0.0908;
-9.9000;0.2434;0.0860;
-9.6000;0.2393;0.0764;
-9.3000;0.2409;0.0764;
-9.0000;0.2409;0.0693;
-8.7000;0.2426;0.0764;
-8.4000;0.2442;0.0860;
-8.1000;0.2287;0.0549;
-7.8000;0.2401;0.0860;
-7.5000;0.2426;0.1003;
-7.2000;0.2426;0.1051;
-6.9000;0.2393;0.0955;
-6.6000;0.2393;0.0884;
-6.3000;0.2369;0.0836;
-6.0000;0.2320;0.0764;
-5.7000;0.2426;0.1051;
-5.4000;0.2434;0.1051;
-5.1000;0.2458;0.1051;
-4.8000;0.2409;0.0955;
-4.5000;0.2426;0.1027;
-4.2000;0.2418;0.0979;
-3.9000;0.2418;0.0979;
-3.6000;0.2426;0.0884;
-3.3000;0.2409;0.0812;
-3.0000;0.2369;0.0716;
-2.7000;0.2418;0.0764;
-2.4000;0.2352;0.0669;
-2.1000;0.2434;0.0884;
-1.8000;0.2409;0.0836;
-1.5000;0.2418;0.0908;
-1.2000;0.2393;0.0836;
-0.9000;0.2426;0.1051;
-0.6000;0.2401;0.1027;
-0.3000;0.2418;0.1075;
0.0000;0.2418;0.1075;
0.3000;0.2336;0.0764;
0.6000;0.2377;0.0979;
0.9000;0.2320;0.0860;
1.2000;0.2393;0.0955;
1.5000;0.2409;0.1051;
1.8000;0.2393;0.1099;
2.1000;0.2401;0.1099;
2.4000;0.2466;0.1266;
2.7000;0.2409;0.1170;
3.0000;0.2393;0.1170;
3.3000;0.2401;0.1314;
3.6000;0.2418;0.1361;
3.9000;0.2401;0.1385;
4.2000;0.2426;0.1552;
4.5000;0.2409;0.1528;
4.8000;0.2409;0.1576;
5.1000;0.2409;0.1600;
5.4000;0.2385;0.1600;
5.7000;0.2409;0.1696;
6.0000;0.2385;0.1648;
6.3000;0.2409;0.1720;
6.6000;0.2409;0.1696;
6.9000;0.2393;0.1720;
7.2000;0.2393;0.1696;
7.5000;0.2393;0.1672;
7.8000;0.2393;0.1743;
8.1000;0.2426;0.1911;
8.4000;0.2393;0.1815;
8.7000;0.2393;0.1696;
9.0000;0.2393;0.1648;
9.3000;0.2401;0.1624;
9.6000;0.2401;0.1720;
9.9000;0.2409;0.1696;
10.2000;0.2393;0.1696;
10.5000;0.2393;0.1720;
10.8000;0.2393;0.1696;
11.1000;0.2418;0.1672;
11.4000;0.2385;0.1576;
11.7000;0.2409;0.1624;
12.0000;0.2393;0.1600;
12.3000;0.2442;0.1720;
12.6000;0.2393;0.1600;
12.9000;0.2352;0.1552;
13.2000;0.2393;0.1743;
13.5000;0.2401;0.1696;
13.8000;0.2377;0.1696;
14.1000;0.2393;0.1743;
14.4000;0.2418;0.1815;
14.7000;0.2409;0.1911;
15.0000;0.2393;0.1791;
15.3000;0.2393;0.1839;
15.6000;0.2393;0.1791;
15.9000;0.2409;0.1863;
16.2000;0.2409;0.1791;
16.5000;0.2393;0.1767;
16.8000;0.2401;0.1791;
17.1000;0.2401;0.1791;
17.4000;0.2369;0.1696;
17.7000;0.2385;0.1863;
18.0000;0.2401;0.1934;
18.3000;0.2401;0.2006;
18.6000;0.2393;0.1887;
18.9000;0.2369;0.1743;
19.2000;0.2352;0.1624;
19.5000;0.2401;0.1767;
19.8000;0.2385;0.1743;
20.1000;0.2385;0.1696;
20.4000;0.2377;0.1672;
20.7000;0.2401;0.1743;
21.0000;0.2409;0.1672;
21.3000;0.2385;0.1648;
21.6000;0.2385;0.1648;
21.9000;0.2393;0.1624;
22.2000;0.2434;0.1815;
22.5000;0.2385;0.1743;
22.8000;0.2393;0.1791;
23.1000;0.2393;0.1839;
23.4000;0.2393;0.1767;
23.7000;0.2401;0.1720;
24.0000;0.2385;0.1767;
24.3000;0.2426;0.1934;
24.6000;0.2401;0.1958;
24.9000;0.2393;0.1934;
25.2000;0.2409;0.2054;
25.5000;0.2377;0.1982;
25.8000;0.2393;0.2078;
26.1000;0.2401;0.2102;
26.4000;0.2385;0.1982;
26.7000;0.2393;0.2054;
27.0000;0.2393;0.2078;
27.3000;0.2385;0.1934;
27.6000;0.2385;0.1887;
27.9000;0.2409;0.1958;
28.2000;0.2401;0.1911;
28.5000;0.2401;0.1791;
28.8000;0.2393;0.1791;
29.1000;0.2377;0.1815;
29.4000;0.2352;0.1743;
29.7000;0.2320;0.1576;
30.0000;0.2393;0.1839;
30.3000;0.2377;0.1887;
30.6000;0.2393;0.1911;
30.9000;0.2377;0.1839;
31.2000;0.2426;0.1934;
31.5000;0.2369;0.1934;
31.8000;0.2385;0.1934;
32.1000;0.2434;0.2102;
32.4000;0.2369;0.1934;
32.7000;0.2393;0.1934;
33.0000;0.2377;0.1839;
33.3000;0.2385;0.1934;
33.6000;0.2385;0.1887;
33.9000;0.2369;0.1887;
34.2000;0.2385;0.1934;
34.5000;0.2409;0.1911;
34.8000;0.2312;0.1648;
35.1000;0.2409;0.2006;
35.4000;0.2401;0.1911;
35.7000;0.2409;0.1911;
36.0000;0.2377;0.1791;
36.3000;0.2393;0.1743;
36.6000;0.2466;0.2006;
36.9000;0.2304;0.1600;
37.2000;0.2344;0.1672;
37.5000;0.2385;0.1791;
37.8000;0.2361;0.1791;
38.1000;0.2369;0.1863;
38.4000;0.2409;0.1863;
38.7000;0.2401;0.1863;
39.0000;0.2352;0.1791;
39.3000;0.2369;0.1791;
39.6000;0.2385;0.1839;
39.9000;0.2336;0.1815;
40.2000;0.2466;0.2126;
40.5000;0.2312;0.1648;
40.8000;0.2409;0.2030;
41.1000;0.2369;0.1982;
41.4000;0.2312;0.1767;
41.7000;0.2377;0.1934;
42.0000;0.2344;0.1911;
42.3000;0.2385;0.2006;
42.6000;0.2466;0.2245;
42.9000;0.2263;0.1648;
43.2000;0.2369;0.1934;
43.5000;0.2328;0.1767;
43.8000;0.2385;0.1863;
44.1000;0.2377;0.1791;
44.4000;0.2377;0.1815;
44.7000;0.2426;0.1887;
45.0000;0.2401;0.1839;
45.3000;0.2369;0.1743;
45.6000;0.2434;0.1887;
45.9000;0.2385;0.1815;
46.2000;0.2401;0.1863;
46.5000;0.2409;0.1839;
46.8000;0.2401;0.1791;
47.1000;0.2385;0.1720;
47.4000;0.2466;0.1863;
47.7000;0.2409;0.1720;
48.0000;0.2385;0.1648;
48.3000;0.2393;0.1720;
48.6000;0.2401;0.1696;
48.9000;0.2393;0.1648;
49.2000;0.2393;0.1624;
49.5000;0.2393;0.1672;
49.8000;0.2385;0.1576;
50.1000;0.2385;0.1576;
50.4000;0.2344;0.1505;
50.7000;0.2393;0.1624;
51.0000;0.2385;0.1528;
51.3000;0.2434;0.1624;
51.6000;0.2385;0.1624;
51.9000;0.2393;0.1648;
52.2000;0.2393;0.1624;
52.5000;0.2393;0.1672;
52.8000;0.2385;0.1696;
53.1000;0.2393;0.1720;
53.4000;0.2336;0.1552;
53.7000;0.2393;0.1720;
54.0000;0.2401;0.1743;
54.3000;0.2377;0.1672;
54.6000;0.2377;0.1624;
54.9000;0.2320;0.1457;
55.2000;0.2409;0.1576;
55.5000;0.2401;0.1552;
55.8000;0.2450;0.1648;
56.1000;0.2393;0.1552;
56.4000;0.2442;0.1720;
56.7000;0.2409;0.1600;
57.0000;0.2393;0.1576;
57.3000;0.2361;0.1433;
57.6000;0.2401;0.1433;
57.9000;0.2401;0.1385;
58.2000;0.2304;0.1170;
58.5000;0.2483;0.1600;
58.8000;0.2369;0.1409;
59.1000;0.2377;0.1409;
59.4000;0.2377;0.1433;
59.7000;0.2377;0.1528;
60.0000;0.2385;0.1433;
60.3000;0.2409;0.1505;
60.6000;0.2393;0.1505;
60.9000;0.2393;0.1528;
61.2000;0.2393;0.1528;
61.5000;0.2393;0.1624;
61.8000;0.2328;0.1528;
62.1000;0.2393;0.1720;
62.4000;0.2401;0.1815;
62.7000;0.2393;0.1815;
63.0000;0.2304;0.1672;
63.3000;0.2401;0.1887;
63.6000;0.2385;0.1839;
63.9000;0.2344;0.1696;
64.2000;0.2450;0.1934;
64.5000;0.2401;0.1720;
64.8000;0.2369;0.1743;
65.1000;0.2377;0.1815;
65.4000;0.2377;0.1815;
65.7000;0.2393;0.1791;
66.0000;0.2409;0.1815;
66.3000;0.2401;0.1815;
66.6000;0.2393;0.1767;
66.9000;0.2434;0.1934;
67.2000;0.2401;0.1863;
67.5000;0.2385;0.1839;
67.8000;0.2401;0.1791;
68.1000;0.2385;0.1720;
68.4000;0.2393;0.1743;
68.7000;0.2377;0.1696;
69.0000;0.2369;0.1672;
69.3000;0.2393;0.1791;
69.6000;0.2385;0.1911;
69.9000;0.2401;0.1911;
70.2000;0.2344;0.1791;
70.5000;0.2393;0.1934;
70.8000;0.2393;0.1863;
71.1000;0.2393;0.1887;
71.4000;0.2369;0.1863;
71.7000;0.2385;0.1815;
72.0000;0.2385;0.1791;
72.3000;0.2377;0.1743;
72.6000;0.2369;0.1696;
72.9000;0.2409;0.1887;
73.2000;0.2369;0.1839;
73.5000;0.2393;0.1887;
73.8000;0.2393;0.1863;
74.1000;0.2385;0.1887;
74.4000;0.2393;0.1887;
74.7000;0.2393;0.1791;
75.0000;0.2385;0.1791;
75.3000;0.2401;0.1791;
75.6000;0.2344;0.1696;
75.9000;0.2393;0.1911;
76.2000;0.2336;0.1863;
76.5000;0.2393;0.1982;
76.8000;0.2385;0.1982;
77.1000;0.2401;0.2102;
77.4000;0.2393;0.1911;
77.7000;0.2401;0.1911;
78.0000;0.2442;0.1982;
78.3000;0.2401;0.1839;
78.6000;0.2401;0.1839;
78.9000;0.2369;0.1743;
79.2000;0.2385;0.1743;
79.5000;0.2369;0.1720;
79.8000;0.2393;0.1839;
80.1000;0.2393;0.1720;
80.4000;0.2385;0.1767;
80.7000;0.2393;0.1720;
81.0000;0.2401;0.1696;
81.3000;0.2369;0.1696;
81.6000;0.2369;0.1672;
81.9000;0.2377;0.1720;
82.2000;0.2393;0.1767;
82.5000;0.2361;0.1672;
82.8000;0.2352;0.1696;
83.1000;0.2385;0.1743;
83.4000;0.2385;0.1720;
83.7000;0.2369;0.1743;
84.0000;0.2369;0.1767;
84.3000;0.2377;0.1720;
84.6000;0.2393;0.1696;
84.9000;0.2385;0.1791;
85.2000;0.2385;0.1815;
85.5000;0.2393;0.1767;
85.8000;0.2369;0.1791;
86.1000;0.2401;0.1815;
86.4000;0.2377;0.1696;
86.7000;0.2352;0.1672;
87.0000;0.2409;0.1791;
87.3000;0.2312;0.1505;
87.6000;0.2401;0.1791;
87.9000;0.2385;0.1791;
88.2000;0.2483;0.2030;
88.5000;0.2401;0.1743;
88.8000;0.2393;0.1624;
89.1000;0.2385;0.1624;
89.4000;0.2385;0.1672;
89.7000;0.2393;0.1696;
90.0000;0.2401;0.1696;
90.3000;0.2361;0.1600;
90.6000;0.2377;0.1696;
90.9000;0.2393;0.1696;
91.2000;0.2393;0.1672;
91.5000;0.2377;0.1720;
91.8000;0.2377;0.1767;
92.1000;0.2385;0.1743;
92.4000;0.2409;0.1863;
92.7000;0.2377;0.1791;
93.0000;0.2385;0.1767;
93.3000;0.2401;0.1767;
93.6000;0.2393;0.1720;
93.9000;0.2377;0.1720;
94.2000;0.2385;0.1791;
94.5000;0.2385;0.1791;
94.8000;0.2401;0.1839;
95.1000;0.2385;0.1934;
95.4000;0.2312;0.1743;
95.7000;0.2393;0.1982;
96.0000;0.2352;0.1815;
96.3000;0.2336;0.1767;
96.6000;0.2377;0.1911;
96.9000;0.2377;0.1887;
97.2000;0.2434;0.1887;
97.5000;0.2393;0.1791;
97.8000;0.2369;0.1720;
98.1000;0.2385;0.1791;
98.4000;0.2377;0.1720;
98.7000;0.2369;0.1624;
99.0000;0.2409;0.1648;
99.3000;0.2377;0.1624;
99.6000;0.2328;0.1576;
99.9000;0.2466;0.1863;
100.2000;0.2352;0.1672;
100.5000;0.2385;0.1791;
100.8000;0.2385;0.1743;
101.1000;0.2385;0.1743;
101.4000;0.2377;0.1720;
101.7000;0.2369;0.1672;
102.0000;0.2377;0.1720;
102.3000;0.2369;0.1696;
102.6000;0.2385;0.1743;
102.9000;0.2377;0.1743;
103.2000;0.2385;0.1720;
103.5000;0.2385;0.1648;
103.8000;0.2393;0.1720;
104.1000;0.2377;0.1720;
104.4000;0.2377;0.1720;
104.7000;0.2369;0.1839;
105.0000;0.2295;0.1624;
105.3000;0.2369;0.1720;
105.6000;0.2385;0.1743;
105.9000;0.2393;0.1720;
106.2000;0.2434;0.1839;
106.5000;0.2401;0.1696;
106.8000;0.2369;0.1624;
107.1000;0.2377;0.1576;
107.4000;0.2385;0.1600;
107.7000;0.2385;0.1624;
108.0000;0.2426;0.1720;
108.3000;0.2377;0.1672;
108.6000;0.2369;0.1696;
108.9000;0.2312;0.1624;
109.2000;0.2401;0.1863;
109.5000;0.2401;0.1815;
109.8000;0.2393;0.1815;
110.1000;0.2377;0.1696;
110.4000;0.2434;0.1839;
110.7000;0.2377;0.1672;
111.0000;0.2458;0.1887;
111.3000;0.2377;0.1624;
111.6000;0.2361;0.1600;
111.9000;0.2426;0.1839;
112.2000;0.2401;0.1743;
112.5000;0.2393;0.1696;
112.8000;0.2377;0.1696;
113.1000;0.2304;0.1576;
113.4000;0.2361;0.1720;
113.7000;0.2377;0.1767;
114.0000;0.2377;0.1839;
114.3000;0.2442;0.2006;
114.6000;0.2385;0.1815;
114.9000;0.2369;0.1743;
115.2000;0.2393;0.1791;
115.5000;0.2385;0.1767;
115.8000;0.2352;0.1624;
116.1000;0.2377;0.1672;
116.4000;0.2377;0.1648;
116.7000;0.2377;0.1791;
117.0000;0.2458;0.1934;
117.3000;0.2409;0.1767;
117.6000;0.2377;0.1600;
117.9000;0.2409;0.1672;
118.2000;0.2336;0.1576;
118.5000;0.2393;0.1672;
118.8000;0.2385;0.1672;
119.1000;0.2393;0.1720;
119.4000;0.2393;0.1767;
119.7000;0.2434;0.1934;
120.0000;0.2377;0.1791;
120.3000;0.2271;0.1433;
120.6000;0.2385;0.1720;
120.9000;0.2393;0.1767;
121.2000;0.2409;0.1934;
121.5000;0.2369;0.1767;
121.8000;0.2385;0.1743;
122.1000;0.2385;0.1696;
122.4000;0.2361;0.1576;
122.7000;0.2377;0.1600;
123.0000;0.2393;0.1505;
123.3000;0.2369;0.1505;
123.6000;0.2385;0.1505;
123.9000;0.2393;0.1433;
124.2000;0.2385;0.1505;
124.5000;0.2401;0.1552;
124.8000;0.2369;0.1433;
125.1000;0.2377;0.1409;
125.4000;0.2458;0.1600;
125.7000;0.2377;0.1481;
126.0000;0.2369;0.1528;
126.3000;0.2377;0.1576;
126.6000;0.2385;0.1648;
126.9000;0.2385;0.1648;
127.2000;0.2377;0.1552;
127.5000;0.2287;0.1266;
127.8000;0.2393;0.1528;
128.1000;0.2466;0.1696;
128.4000;0.2401;0.1528;
128.7000;0.2385;0.1576;
129.0000;0.2393;0.1720;
129.3000;0.2377;0.1791;
129.6000;0.2401;0.1911;
129.9000;0.2369;0.1767;
130.2000;0.2369;0.1815;
130.5000;0.2385;0.1815;
130.8000;0.2385;0.1839;
131.1000;0.2369;0.1791;
131.4000;0.2377;0.1720;
131.7000;0.2393;0.1743;
132.0000;0.2450;0.1934;
132.3000;0.2393;0.1791;
132.6000;0.2352;0.1767;
132.9000;0.2401;0.1887;
133.2000;0.2401;0.1934;
133.5000;0.2385;0.1911;
133.8000;0.2466;0.2149;
134.1000;0.2475;0.2102;
134.4000;0.2352;0.1743;
134.7000;0.2377;0.1815;
135.0000;0.2369;0.1720;
135.3000;0.2409;0.1791;
135.6000;0.2418;0.1791;
135.9000;0.2361;0.1720;
136.2000;0.2385;0.1720;
136.5000;0.2344;0.1576;
136.8000;0.2385;0.1743;
137.1000;0.2361;0.1648;
137.4000;0.2336;0.1505;
137.7000;0.2418;0.1767;
138.0000;0.2434;0.1863;
138.3000;0.2393;0.1672;
138.6000;0.2393;0.1624;
138.9000;0.2409;0.1696;
139.2000;0.2361;0.1720;
139.5000;0.2401;0.1887;
139.8000;0.2385;0.1767;
140.1000;0.2385;0.1743;
140.4000;0.2361;0.1696;
140.7000;0.2369;0.1696;
141.0000;0.2418;0.1767;
141.3000;0.2401;0.1720;
141.6000;0.2369;0.1600;
141.9000;0.2361;0.1648;
142.2000;0.2393;0.1743;
142.5000;0.2385;0.1791;
142.8000;0.2369;0.1743;
143.1000;0.2385;0.1791;
143.4000;0.2377;0.1743;
143.7000;0.2409;0.1863;
144.0000;0.2393;0.1743;
144.3000;0.2328;0.1505;
144.6000;0.2369;0.1672;
144.9000;0.2385;0.1743;
145.2000;0.2377;0.1696;
145.5000;0.2352;0.1672;
145.8000;0.2393;0.1743;
146.1000;0.2295;0.1481;
146.4000;0.2385;0.1720;
146.7000;0.2361;0.1624;
147.0000;0.2385;0.1720;
147.3000;0.2393;0.1743;
147.6000;0.2426;0.1791;
147.9000;0.2361;0.1600;
148.2000;0.2369;0.1672;
148.5000;0.2361;0.1648;
148.8000;0.2377;0.1696;
149.1000;0.2385;0.1600;
149.4000;0.2393;0.1648;
149.7000;0.2344;0.1552;
150.0000;0.2312;0.1505;
150.3000;0.2385;0.1672;
150.6000;0.2369;0.1672;
150.9000;0.2377;0.1696;
151.2000;0.2336;0.1552;
151.5000;0.2409;0.1696;
151.8000;0.2401;0.1767;
152.1000;0.2377;0.1720;
152.4000;0.2409;0.1791;
152.7000;0.2401;0.1696;
153.0000;0.2352;0.1624;
153.3000;0.2369;0.1767;
153.6000;0.2328;0.1743;
153.9000;0.2344;0.1743;
154.2000;0.2385;0.1863;
154.5000;0.2377;0.1958;
154.8000;0.2393;0.2006;
155.1000;0.2361;0.1887;
155.4000;0.2401;0.1911;
155.7000;0.2385;0.1815;
156.0000;0.2320;0.1624;
156.3000;0.2377;0.1743;
156.6000;0.2385;0.1791;
156.9000;0.2352;0.1767;
157.2000;0.2434;0.1982;
157.5000;0.2385;0.1863;
157.8000;0.2385;0.1791;
158.1000;0.2377;0.1743;
158.4000;0.2369;0.1672;
158.7000;0.2352;0.1720;
159.0000;0.2369;0.1767;
159.3000;0.2369;0.1767;
159.6000;0.2255;0.1433;
159.9000;0.2369;0.1672;
160.2000;0.2426;0.1887;
160.5000;0.2369;0.1767;
160.8000;0.2377;0.1791;
161.1000;0.2369;0.1767;
161.4000;0.2369;0.1696;
161.7000;0.2352;0.1696;
162.0000;0.2352;0.1696;
162.3000;0.2393;0.1815;
162.6000;0.2352;0.1743;
162.9000;0.2385;0.1696;
163.2000;0.2385;0.1600;
163.5000;0.2361;0.1552;
163.8000;0.2393;0.1600;
164.1000;0.2385;0.1696;
164.4000;0.2401;0.1720;
164.7000;0.2361;0.1624;
165.0000;0.2393;0.1672;
165.3000;0.2385;0.1624;
165.6000;0.2328;0.1552;
165.9000;0.2377;0.1624;
166.2000;0.2352;0.1672;
166.5000;0.2369;0.1720;
166.8000;0.2385;0.1815;
167.1000;0.2352;0.1720;
167.4000;0.2434;0.1815;
167.7000;0.2393;0.1696;
168.0000;0.2393;0.1696;
168.3000;0.2377;0.1600;
168.6000;0.2377;0.1600;
168.9000;0.2393;0.1648;
169.2000;0.2393;0.1743;
169.5000;0.2377;0.1696;
169.8000;0.2401;0.1720;
170.1000;0.2377;0.1743;
170.4000;0.2409;0.1767;
170.7000;0.2385;0.1743;
171.0000;0.2385;0.1767;
171.3000;0.2369;0.1672;
171.6000;0.2377;0.1720;
171.9000;0.2344;0.1600;
172.2000;0.2377;0.1720;
172.5000;0.2409;0.1743;
172.8000;0.2369;0.1624;
173.1000;0.2377;0.1552;
173.4000;0.2369;0.1576;
173.7000;0.2393;0.1600;
174.0000;0.2385;0.1696;
174.3000;0.2320;0.1576;
174.6000;0.2401;0.1743;
174.9000;0.2393;0.1767;
175.2000;0.2442;0.1887;
175.5000;0.2377;0.1767;
175.8000;0.2369;0.1696;
176.1000;0.2385;0.1696;
176.4000;0.2369;0.1743;
176.7000;0.2377;0.1767;
177.0000;0.2328;0.1720;
177.3000;0.2377;0.1863;
177.6000;0.2369;0.1887;
177.9000;0.2377;0.1839;
178.2000;0.2377;0.1791;
178.5000;0.2369;0.1696;
178.8000;0.2369;0.1720;
179.1000;0.2369;0.1648;
179.4000;0.2361;0.1624;
179.7000;0.2385;0.1552;
180.0000;0.2409;0.1624;
180.3000;0.2393;0.1552;
180.6000;0.2483;0.1815;
180.9000;0.2393;0.1648;
181.2000;0.2369;0.1600;
181.5000;0.2377;0.1576;
181.8000;0.2377;0.1672;
182.1000;0.2393;0.1743;
182.4000;0.2369;0.1696;
182.7000;0.2377;0.1720;
183.0000;0.2393;0.1767;
183.3000;0.2385;0.1720;
183.6000;0.2377;0.1720;
183.9000;0.2361;0.1672;
184.2000;0.2377;0.1648;
184.5000;0.2393;0.1696;
184.8000;0.2377;0.1672;
185.1000;0.2377;0.1696;
185.4000;0.2385;0.1815;
185.7000;0.2344;0.1648;
186.0000;0.2385;0.1815;
186.3000;0.2434;0.1982;
186.6000;0.2385;0.1839;
186.9000;0.2393;0.1767;
187.2000;0.2369;0.1720;
187.5000;0.2352;0.1600;
187.8000;0.2369;0.1648;
188.1000;0.2344;0.1552;
188.4000;0.2361;0.1672;
188.7000;0.2377;0.1720;
189.0000;0.2377;0.1720;
189.3000;0.2377;0.1767;
189.6000;0.2385;0.1791;
189.9000;0.2377;0.1767;
190.2000;0.2369;0.1743;
190.5000;0.2401;0.1696;
190.8000;0.2393;0.1648;
191.1000;0.2401;0.1672;
191.4000;0.2385;0.1505;
191.7000;0.2377;0.1505;
192.0000;0.2393;0.1528;
192.3000;0.2385;0.1385;
192.6000;0.2385;0.1290;
192.9000;0.2361;0.1314;
193.2000;0.2352;0.1337;
193.5000;0.2369;0.1433;
193.8000;0.2377;0.1528;
194.1000;0.2369;0.1576;
194.4000;0.2352;0.1576;
194.7000;0.2385;0.1767;
195.0000;0.2377;0.1791;
195.3000;0.2393;0.1791;
195.6000;0.2385;0.1743;
195.9000;0.2377;0.1696;
196.2000;0.2377;0.1624;
196.5000;0.2361;0.1600;
196.8000;0.2328;0.1505;
197.1000;0.2377;0.1624;
197.4000;0.2393;0.1624;
197.7000;0.2312;0.1409;
198.0000;0.2352;0.1505;
198.3000;0.2369;0.1528;
198.6000;0.2369;0.1600;
198.9000;0.2369;0.1600;
199.2000;0.2385;0.1624;
199.5000;0.2344;0.1528;
199.8000;0.2377;0.1672;
200.1000;0.2393;0.1743;
200.4000;0.2369;0.1720;
200.7000;0.2377;0.1767;
201.0000;0.2377;0.1767;
201.3000;0.2369;0.1720;
201.6000;0.2369;0.1720;
201.9000;0.2377;0.1743;
202.2000;0.2377;0.1767;
202.5000;0.2369;0.1696;
202.8000;0.2385;0.1863;
203.1000;0.2361;0.1887;
203.4000;0.2385;0.1863;
203.7000;0.2377;0.1839;
204.0000;0.2377;0.1720;
204.3000;0.2377;0.1672;
204.6000;0.2385;0.1815;
204.9000;0.2401;0.1863;
205.2000;0.2418;0.1911;
205.5000;0.2458;0.1982;
205.8000;0.2369;0.1791;
206.1000;0.2344;0.1767;
206.4000;0.2377;0.1863;
206.7000;0.2475;0.2126;
207.0000;0.2361;0.1791;
207.3000;0.2393;0.1863;
207.6000;0.2369;0.1720;
207.9000;0.2377;0.1672;
208.2000;0.2361;0.1600;
208.5000;0.2361;0.1552;
208.8000;0.2377;0.1576;
209.1000;0.2393;0.1600;
209.4000;0.2328;0.1528;
209.7000;0.2377;0.1648;
210.0000;0.2393;0.1672;
210.3000;0.2385;0.1696;
210.6000;0.2385;0.1791;
210.9000;0.2361;0.1791;
211.2000;0.2328;0.1743;
211.5000;0.2369;0.1911;
211.8000;0.2369;0.1839;
212.1000;0.2361;0.1863;
212.4000;0.2336;0.1720;
212.7000;0.2352;0.1767;
213.0000;0.2369;0.1767;
213.3000;0.2361;0.1696;
213.6000;0.2409;0.1815;
213.9000;0.2377;0.1720;
214.2000;0.2458;0.2006;
214.5000;0.2377;0.1815;
214.8000;0.2369;0.1815;
215.1000;0.2385;0.1815;
215.4000;0.2344;0.1648;
215.7000;0.2385;0.1791;
216.0000;0.2385;0.1839;
216.3000;0.2369;0.1815;
216.6000;0.2393;0.1839;
216.9000;0.2369;0.1767;
217.2000;0.2377;0.1887;
217.5000;0.2393;0.1887;
217.8000;0.2377;0.1791;
218.1000;0.2352;0.1815;
218.4000;0.2361;0.1863;
218.7000;0.2344;0.1791;
219.0000;0.2385;0.1887;
219.3000;0.2320;0.1672;
219.6000;0.2361;0.1767;
219.9000;0.2369;0.1767;
220.2000;0.2385;0.1791;
220.5000;0.2377;0.1791;
220.8000;0.2377;0.1815;
221.1000;0.2393;0.1911;
221.4000;0.2393;0.1767;
221.7000;0.2401;0.1767;
222.0000;0.2385;0.1863;
222.3000;0.2458;0.2126;
222.6000;0.2393;0.2006;
222.9000;0.2369;0.1911;
223.2000;0.2385;0.1887;
223.5000;0.2385;0.1863;
223.8000;0.2377;0.1839;
224.1000;0.2385;0.1911;
224.4000;0.2369;0.1743;
224.7000;0.2361;0.1863;
225.0000;0.2271;0.1624;
225.3000;0.2377;0.1934;
225.6000;0.2377;0.1887;
225.9000;0.2426;0.1958;
226.2000;0.2369;0.1791;
226.5000;0.2352;0.1791;
226.8000;0.2393;0.1887;
227.1000;0.2442;0.1982;
227.4000;0.2499;0.2126;
227.7000;0.2377;0.1791;
228.0000;0.2466;0.2078;
228.3000;0.2385;0.1767;
228.6000;0.2344;0.1624;
228.9000;0.2352;0.1648;
229.2000;0.2377;0.1672;
229.5000;0.2361;0.1576;
229.8000;0.2369;0.1576;
230.1000;0.2442;0.1791;
230.4000;0.2491;0.1911;
230.7000;0.2385;0.1600;
231.0000;0.2377;0.1672;
231.3000;0.2393;0.1648;
231.6000;0.2377;0.1696;
231.9000;0.2312;0.1457;
232.2000;0.2361;0.1624;
232.5000;0.2361;0.1648;
232.8000;0.2385;0.1767;
233.1000;0.2418;0.1863;
233.4000;0.2369;0.1839;
233.7000;0.2393;0.1863;
234.0000;0.2369;0.1767;
234.3000;0.2385;0.1839;
234.6000;0.2377;0.1863;
234.9000;0.2393;0.1839;
235.2000;0.2418;0.1839;
235.5000;0.2385;0.1743;
235.8000;0.2377;0.1720;
236.1000;0.2385;0.1767;
236.4000;0.2328;0.1672;
236.7000;0.2385;0.1863;
237.0000;0.2409;0.1958;
237.3000;0.2369;0.1934;
237.6000;0.2377;0.1863;
237.9000;0.2369;0.1863;
238.2000;0.2361;0.1743;
238.5000;0.2393;0.1791;
238.8000;0.2377;0.1791;
239.1000;0.2369;0.1720;
239.4000;0.2361;0.1648;
239.7000;0.2369;0.1624;
240.0000;0.2352;0.1576;
240.3000;0.2361;0.1624;
240.6000;0.2369;0.1672;
240.9000;0.2320;0.1528;
241.2000;0.2287;0.1505;
241.5000;0.2377;0.1767;
241.8000;0.2369;0.1791;
242.1000;0.2409;0.1982;
242.4000;0.2361;0.1791;
242.7000;0.2361;0.1720;
243.0000;0.2369;0.1887;
243.3000;0.2409;0.1911;
243.6000;0.2369;0.1720;
243.9000;0.2369;0.1743;
244.2000;0.2361;0.1743;
244.5000;0.2409;0.1767;
244.8000;0.2385;0.1720;
245.1000;0.2385;0.1791;
245.4000;0.2385;0.1815;
245.7000;0.2458;0.1982;
246.0000;0.2361;0.1696;
246.3000;0.2361;0.1648;
246.6000;0.2377;0.1576;
246.9000;0.2361;0.1576;
247.2000;0.2377;0.1600;
247.5000;0.2369;0.1624;
247.8000;0.2418;0.1815;
248.1000;0.2369;0.1791;
248.4000;0.2377;0.1767;
248.7000;0.2369;0.1720;
249.0000;0.2385;0.1791;
249.3000;0.2369;0.1743;
249.6000;0.2352;0.1743;
249.9000;0.2361;0.1767;
250.2000;0.2369;0.1887;
250.5000;0.2409;0.2006;
250.8000;0.2369;0.1887;
251.1000;0.2385;0.1911;
251.4000;0.2344;0.1815;
251.7000;0.2369;0.1767;
252.0000;0.2409;0.1863;
252.3000;0.2287;0.1552;
252.6000;0.2401;0.2006;
252.9000;0.2369;0.1887;
253.2000;0.2352;0.1887;
253.5000;0.2393;0.1934;
253.8000;0.2369;0.1839;
254.1000;0.2304;0.1696;
254.4000;0.2361;0.1815;
254.7000;0.2369;0.1863;
255.0000;0.2377;0.1791;
255.3000;0.2361;0.1791;
255.6000;0.2369;0.1815;
255.9000;0.2352;0.1743;
256.2000;0.2401;0.1887;
256.5000;0.2385;0.1815;
256.8000;0.2385;0.1791;
257.1000;0.2393;0.1815;
257.4000;0.2385;0.1720;
257.7000;0.2385;0.1791;
258.0000;0.2377;0.1743;
258.3000;0.2385;0.1743;
258.6000;0.2385;0.1815;
258.9000;0.2377;0.1743;
259.2000;0.2385;0.1791;
259.5000;0.2361;0.1767;
259.8000;0.2385;0.1839;
260.1000;0.2377;0.1839;
260.4000;0.2377;0.1839;
260.7000;0.2312;0.1600;
261.0000;0.2385;0.1863;
261.3000;0.2361;0.1815;
261.6000;0.2369;0.1863;
261.9000;0.2352;0.1720;
262.2000;0.2377;0.1863;
262.5000;0.2385;0.1934;
262.8000;0.2369;0.1863;
263.1000;0.2377;0.1815;
263.4000;0.2385;0.1791;
263.7000;0.2409;0.1839;
264.0000;0.2352;0.1648;
264.3000;0.2369;0.1552;
264.6000;0.2377;0.1528;
264.9000;0.2361;0.1528;
265.2000;0.2377;0.1600;
265.5000;0.2377;0.1624;
265.8000;0.2377;0.1672;
266.1000;0.2369;0.1576;
266.4000;0.2507;0.2006;
266.7000;0.2361;0.1648;
267.0000;0.2279;0.1385;
267.3000;0.2304;0.1409;
267.6000;0.2385;0.1600;
267.9000;0.2369;0.1624;
268.2000;0.2393;0.1600;
268.5000;0.2344;0.1600;
268.8000;0.2393;0.1720;
269.1000;0.2361;0.1720;
269.4000;0.2361;0.1815;
269.7000;0.2312;0.1696;
270.0000;0.2385;0.1839;
270.3000;0.2369;0.1815;
270.6000;0.2401;0.1887;
270.9000;0.2369;0.1887;
271.2000;0.2361;0.1839;
271.5000;0.2385;0.1934;
271.8000;0.2385;0.1911;
272.1000;0.2369;0.1839;
272.4000;0.2385;0.1839;
272.7000;0.2385;0.1863;
273.0000;0.2361;0.1815;
273.3000;0.2320;0.1672;
273.6000;0.2369;0.1767;
273.9000;0.2475;0.1934;
274.2000;0.2377;0.1672;
274.5000;0.2369;0.1720;
274.8000;0.2442;0.1887;
275.1000;0.2344;0.1624;
275.4000;0.2385;0.1648;
275.7000;0.2377;0.1600;
276.0000;0.2369;0.1576;
276.3000;0.2352;0.1528;
276.6000;0.2369;0.1576;
276.9000;0.2377;0.1600;
277.2000;0.2377;0.1600;
277.5000;0.2377;0.1576;
277.8000;0.2426;0.1743;
278.1000;0.2377;0.1600;
278.4000;0.2361;0.1576;
278.7000;0.2369;0.1576;
279.0000;0.2377;0.1624;
279.3000;0.2352;0.1648;
279.6000;0.2385;0.1863;
279.9000;0.2377;0.1887;
280.2000;0.2385;0.1958;
280.5000;0.2361;0.1982;
280.8000;0.2369;0.1911;
281.1000;0.2369;0.1911;
281.4000;0.2369;0.1934;
281.7000;0.2352;0.1815;
282.0000;0.2352;0.1767;
282.3000;0.2361;0.1839;
282.6000;0.2377;0.1863;
282.9000;0.2361;0.1863;
283.2000;0.2344;0.1767;
283.5000;0.2377;0.1815;
283.8000;0.2377;0.1767;
284.1000;0.2393;0.1720;
284.4000;0.2361;0.1648;
284.7000;0.2377;0.1720;
285.0000;0.2385;0.1720;
285.3000;0.2369;0.1648;
285.6000;0.2361;0.1672;
285.9000;0.2344;0.1672;
286.2000;0.2361;0.1696;
286.5000;0.2361;0.1648;
286.8000;0.2344;0.1624;
287.1000;0.2369;0.1720;
287.4000;0.2393;0.1791;
287.7000;0.2369;0.1767;
288.0000;0.2418;0.1863;
288.3000;0.2369;0.1720;
288.6000;0.2385;0.1720;
288.9000;0.2361;0.1672;
289.2000;0.2393;0.1791;
289.5000;0.2377;0.1767;
289.8000;0.2377;0.1791;
290.1000;0.2409;0.1887;
290.4000;0.2304;0.1600;
290.7000;0.2377;0.1791;
291.0000;0.2320;0.1624;
291.3000;0.2450;0.1958;
291.6000;0.2369;0.1720;
291.9000;0.2377;0.1743;
292.2000;0.2377;0.1743;
292.5000;0.2344;0.1648;
292.8000;0.2369;0.1743;
293.1000;0.2361;0.1648;
293.4000;0.2377;0.1648;
293.7000;0.2385;0.1672;
294.0000;0.2401;0.1791;
294.3000;0.2385;0.1743;
294.6000;0.2393;0.1791;
294.9000;0.2369;0.1767;
295.2000;0.2377;0.1815;
295.5000;0.2377;0.1720;
295.8000;0.2377;0.1648;
296.1000;0.2369;0.1576;
296.4000;0.2369;0.1576;
296.7000;0.2385;0.1696;
297.0000;0.2369;0.1672;
297.3000;0.2369;0.1767;
297.6000;0.2352;0.1720;
297.9000;0.2385;0.1743;
298.2000;0.2377;0.1720;
298.5000;0.2377;0.1696;
298.8000;0.2369;0.1600;
299.1000;0.2418;0.1767;
299.4000;0.2393;0.1696;
299.7000;0.2385;0.1767;
300.0000;0.2361;0.1648;
300.3000;0.2385;0.1672;
300.6000;0.2377;0.1672;
300.9000;0.2385;0.1672;
301.2000;0.2320;0.1552;
301.5000;0.2369;0.1743;
301.8000;0.2369;0.1743;
302.1000;0.2369;0.1791;
302.4000;0.2385;0.1863;
302.7000;0.2369;0.1815;
303.0000;0.2377;0.1791;
303.3000;0.2369;0.1791;
303.6000;0.2369;0.1839;
303.9000;0.2377;0.1839;
304.2000;0.2385;0.1791;
304.5000;0.2385;0.1934;
304.8000;0.2361;0.1863;
305.1000;0.2361;0.1839;
305.4000;0.2401;0.1934;
305.7000;0.2385;0.1863;
306.0000;0.2385;0.1791;
306.3000;0.2385;0.1791;
306.6000;0.2369;0.1791;
306.9000;0.2369;0.1791;
307.2000;0.2369;0.1767;
307.5000;0.2361;0.1839;
307.8000;0.2369;0.1815;
308.1000;0.2377;0.1839;
308.4000;0.2450;0.2006;
308.7000;0.2361;0.1815;
309.0000;0.2361;0.1791;
309.3000;0.2336;0.1839;
309.6000;0.2385;0.1958;
309.9000;0.2369;0.1958;
310.2000;0.2361;0.1958;
310.5000;0.2361;0.1934;
310.8000;0.2377;0.1911;
311.1000;0.2352;0.1887;
311.4000;0.2344;0.1911;
311.7000;0.2295;0.1696;
312.0000;0.2344;0.1911;
312.3000;0.2336;0.1815;
312.6000;0.2369;0.1863;
312.9000;0.2385;0.2006;
313.2000;0.2369;0.1982;
313.5000;0.2385;0.1982;
313.8000;0.2393;0.1911;
314.1000;0.2361;0.1887;
314.4000;0.2377;0.1982;
314.7000;0.2385;0.2078;
315.0000;0.2377;0.2078;
315.3000;0.2385;0.2126;
315.6000;0.2361;0.2030;
315.9000;0.2385;0.2030;
316.2000;0.2369;0.2030;
316.5000;0.2377;0.1982;
316.8000;0.2344;0.1887;
317.1000;0.2336;0.1887;
317.4000;0.2377;0.1982;
317.7000;0.2377;0.1982;
318.0000;0.2361;0.2006;
318.3000;0.2369;0.2054;
318.6000;0.2361;0.2078;
318.9000;0.2230;0.1672;
319.2000;0.2377;0.2078;
319.5000;0.2361;0.2030;
319.8000;0.2393;0.2054;
320.1000;0.2377;0.2030;
320.4000;0.2385;0.2078;
320.7000;0.2369;0.2078;
321.0000;0.2369;0.2102;
321.3000;0.2377;0.2078;
321.6000;0.2369;0.2054;
321.9000;0.2418;0.2149;
322.2000;0.2320;0.1887;
322.5000;0.2369;0.2030;
322.8000;0.2377;0.1958;
323.1000;0.2344;0.1863;
323.4000;0.2369;0.1958;
323.7000;0.2312;0.1767;
324.0000;0.2377;0.1934;
324.3000;0.2361;0.1815;
324.6000;0.2352;0.1815;
324.9000;0.2369;0.1887;
325.2000;0.2418;0.2030;
325.5000;0.2361;0.1982;
325.8000;0.2344;0.1911;
326.1000;0.2393;0.2030;
326.4000;0.2328;0.1911;
326.7000;0.2369;0.1982;
327.0000;0.2361;0.1911;
327.3000;0.2344;0.1911;
327.6000;0.2369;0.1982;
327.9000;0.2369;0.1958;
328.2000;0.2344;0.2030;
328.5000;0.2377;0.2078;
328.8000;0.2385;0.1958;
329.1000;0.2369;0.1911;
329.4000;0.2377;0.1934;
329.7000;0.2393;0.1958;
330.0000;0.2369;0.1934;
330.3000;0.2369;0.1887;
330.6000;0.2466;0.2078;
330.9000;0.2385;0.1791;
331.2000;0.2393;0.1911;
331.5000;0.2320;0.1863;
331.8000;0.2377;0.1934;
332.1000;0.2352;0.1911;
332.4000;0.2361;0.1911;
332.7000;0.2385;0.1958;
333.0000;0.2385;0.1887;
333.3000;0.2377;0.1839;
333.6000;0.2377;0.1863;
333.9000;0.2377;0.1911;
334.2000;0.2369;0.1887;
334.5000;0.2369;0.1911;
334.8000;0.2369;0.2006;
335.1000;0.2426;0.2245;
335.4000;0.2369;0.2173;
335.7000;0.2580;0.2746;
336.0000;0.2352;0.2102;
336.3000;0.2369;0.2102;
336.6000;0.2385;0.2197;
336.9000;0.2352;0.2078;
337.2000;0.2401;0.2197;
337.5000;0.2344;0.2054;
337.8000;0.2369;0.2078;
338.1000;0.2409;0.2078;
338.4000;0.2377;0.1934;
338.7000;0.2369;0.1911;
339.0000;0.2369;0.1911;
339.3000;0.2393;0.1887;
339.6000;0.2385;0.1863;
339.9000;0.2385;0.1911;
340.2000;0.2393;0.1934;
340.5000;0.2393;0.1911;
340.8000;0.2401;0.1958;
341.1000;0.2255;0.1552;
341.4000;0.2377;0.1839;
341.7000;0.2369;0.1887;
342.0000;0.2393;0.1958;
342.3000;0.2336;0.1791;
342.6000;0.2385;0.1958;
342.9000;0.2393;0.1958;
343.2000;0.2499;0.2269;
343.5000;0.2369;0.1934;
343.8000;0.2377;0.1934;
344.1000;0.2409;0.2102;
344.4000;0.2401;0.2102;
344.7000;0.2377;0.2030;
345.0000;0.2369;0.1958;
345.3000;0.2377;0.1982;
345.6000;0.2369;0.1958;
345.9000;0.2336;0.1887;
346.2000;0.2304;0.1863;
346.5000;0.2361;0.2054;
346.8000;0.2385;0.1982;
347.1000;0.2377;0.1982;
347.4000;0.2344;0.1791;
347.7000;0.2312;0.1767;
348.0000;0.2352;0.1863;
348.3000;0.2352;0.1791;
348.6000;0.2369;0.1791;
348.9000;0.2361;0.1863;
349.2000;0.2369;0.1982;
349.5000;0.2369;0.2030;
349.8000;0.2377;0.1934;
350.1000;0.2361;0.1887;
350.4000;0.2369;0.1863;
350.7000;0.2385;0.1863;
351.0000;0.2361;0.1767;
351.3000;0.2377;0.1791;
351.6000;0.2344;0.1767;
351.9000;0.2434;0.2030;
352.2000;0.2369;0.1815;
352.5000;0.2344;0.1624;
352.8000;0.2377;0.1720;
353.1000;0.2385;0.1839;
353.4000;0.2336;0.1743;
353.7000;0.2361;0.1791;
354.0000;0.2369;0.1911;
354.3000;0.2377;0.1887;
354.6000;0.2320;0.1720;
354.9000;0.2352;0.1815;
355.2000;0.2352;0.1791;
355.5000;0.2377;0.1911;
355.8000;0.2361;0.1887;
356.1000;0.2385;0.1911;
356.4000;0.2361;0.1911;
356.7000;0.2352;0.1839;
357.0000;0.2369;0.1815;
357.3000;0.2352;0.1743;
357.6000;0.2369;0.1791;
357.9000;0.2401;0.1958;
358.2000;0.2336;0.1791;
358.5000;0.2385;0.1887;
358.8000;0.2312;0.1648;
359.1000;0.2344;0.1743;
359.4000;0.2361;0.1791;
359.7000;0.2352;0.1720;
360.0000;0.2352;0.1672;
360.3000;0.2393;0.1839;
360.6000;0.2385;0.1863;
360.9000;0.2385;0.1839;
361.2000;0.2377;0.1863;
361.5000;0.2385;0.1839;
361.8000;0.2377;0.1839;
362.1000;0.2361;0.1815;
362.4000;0.2385;0.1863;
362.7000;0.2377;0.1863;
363.0000;0.2385;0.1839;
363.3000;0.2336;0.1696;
363.6000;0.2369;0.1887;
363.9000;0.2385;0.1958;
364.2000;0.2377;0.1982;
364.5000;0.2377;0.1982;
364.8000;0.2255;0.1648;
365.1000;0.2377;0.1982;
365.4000;0.2385;0.1958;
365.7000;0.2361;0.1958;
366.0000;0.2369;0.1982;
366.3000;0.2369;0.1934;
366.6000;0.2369;0.1982;
366.9000;0.2385;0.2006;
367.2000;0.2409;0.2078;
367.5000;0.2377;0.2030;
367.8000;0.2328;0.1863;
368.1000;0.2255;0.1648;
368.4000;0.2385;0.1934;
368.7000;0.2369;0.1934;
369.0000;0.2361;0.1863;
369.3000;0.2361;0.1839;
369.6000;0.2352;0.1767;
369.9000;0.2377;0.1720;
370.2000;0.2369;0.1815;
370.5000;0.2385;0.1863;
370.8000;0.2385;0.1767;
371.1000;0.2377;0.1767;
371.4000;0.2369;0.1767;
371.7000;0.2377;0.1791;
372.0000;0.2361;0.1696;
372.3000;0.2385;0.1767;
372.6000;0.2385;0.1767;
372.9000;0.2352;0.1720;
373.2000;0.2377;0.1839;
373.5000;0.2377;0.1791;
373.8000;0.2361;0.1767;
374.1000;0.2369;0.1672;
374.4000;0.2361;0.1576;
374.7000;0.2369;0.1600;
375.0000;0.2352;0.1576;
375.3000;0.2361;0.1672;
375.6000;0.2361;0.1720;
375.9000;0.2361;0.1743;
376.2000;0.2442;0.1934;
376.5000;0.2361;0.1648;
376.8000;0.2361;0.1624;
377.1000;0.2377;0.1672;
377.4000;0.2442;0.1887;
377.7000;0.2369;0.1743;
378.0000;0.2369;0.1720;
378.3000;0.2385;0.1696;
378.6000;0.2385;0.1720;
378.9000;0.2385;0.1672;
379.2000;0.2369;0.1624;
379.5000;0.2377;0.1696;
379.8000;0.2361;0.1696;
380.1000;0.2377;0.1815;
380.4000;0.2369;0.1815;
380.7000;0.2369;0.1863;
381.0000;0.2377;0.1863;
381.3000;0.2320;0.1648;
381.6000;0.2369;0.1815;
381.9000;0.2401;0.1934;
382.2000;0.2352;0.1791;
382.5000;0.2426;0.1887;
382.8000;0.2352;0.1767;
383.1000;0.2401;0.1982;
383.4000;0.2369;0.1887;
383.7000;0.2369;0.1887;
384.0000;0.2385;0.1911;
384.3000;0.2418;0.1911;
384.6000;0.2377;0.1815;
384.9000;0.2369;0.1839;
385.2000;0.2442;0.2030;
385.5000;0.2369;0.1887;
385.8000;0.2361;0.1887;
386.1000;0.2369;0.1911;
386.4000;0.2377;0.1815;
386.7000;0.2369;0.1815;
387.0000;0.2369;0.1839;
387.3000;0.2361;0.1720;
387.6000;0.2369;0.1624;
387.9000;0.2361;0.1672;
388.2000;0.2393;0.1791;
388.5000;0.2369;0.1767;
388.8000;0.2377;0.1743;
389.1000;0.2385;0.1767;
389.4000;0.2385;0.1767;
389.7000;0.2361;0.1648;
390.0000;0.2377;0.1720;
390.3000;0.2361;0.1576;
390.6000;0.2369;0.1505;
390.9000;0.2361;0.1552;
391.2000;0.2377;0.1600;
391.5000;0.2369;0.1600;
391.8000;0.2385;0.1672;
392.1000;0.2361;0.1624;
392.4000;0.2393;0.1720;
392.7000;0.2369;0.1743;
393.0000;0.2369;0.1791;
393.3000;0.2328;0.1672;
393.6000;0.2377;0.1696;
393.9000;0.2361;0.1624;
394.2000;0.2336;0.1600;
394.5000;0.2352;0.1624;
394.8000;0.2361;0.1696;
395.1000;0.2344;0.1743;
395.4000;0.2377;0.1839;
395.7000;0.2377;0.1696;
396.0000;0.2369;0.1720;
396.3000;0.2377;0.1743;
396.6000;0.2385;0.1767;
396.9000;0.2377;0.1863;
397.2000;0.2361;0.1839;
397.5000;0.2361;0.1839;
397.8000;0.2385;0.1887;
398.1000;0.2385;0.1911;
398.4000;0.2442;0.2054;
398.7000;0.2352;0.1863;
399.0000;0.2401;0.2006;
399.3000;0.2385;0.2006;
399.6000;0.2328;0.1934;
399.9000;0.2344;0.1958;
400.2000;0.2328;0.1720;
400.5000;0.2393;0.1863;
400.8000;0.2352;0.1743;
401.1000;0.2352;0.1648;
401.4000;0.2361;0.1696;
401.7000;0.2385;0.1863;
402.0000;0.2344;0.1720;
402.3000;0.2361;0.1600;
402.6000;0.2369;0.1648;
402.9000;0.2279;0.1457;
403.2000;0.2361;0.1720;
403.5000;0.2320;0.1648;
403.8000;0.2361;0.1743;
404.1000;0.2304;0.1600;
404.4000;0.2385;0.1767;
404.7000;0.2369;0.1696;
405.0000;0.2369;0.1720;
405.3000;0.2401;0.1767;
405.6000;0.2377;0.1672;
405.9000;0.2361;0.1576;
406.2000;0.2352;0.1576;
406.5000;0.2369;0.1600;
406.8000;0.2369;0.1600;
407.1000;0.2344;0.1481;
407.4000;0.2361;0.1481;
407.7000;0.2385;0.1552;
408.0000;0.2369;0.1576;
408.3000;0.2352;0.1457;
408.6000;0.2361;0.1552;
408.9000;0.2369;0.1600;
409.2000;0.2361;0.1576;
409.5000;0.2361;0.1552;
409.8000;0.2369;0.1600;
410.1000;0.2369;0.1576;
410.4000;0.2361;0.1552;
410.7000;0.2369;0.1576;
411.0000;0.2361;0.1648;
411.3000;0.2352;0.1600;
411.6000;0.2361;0.1600;
411.9000;0.2377;0.1696;
412.2000;0.2369;0.1815;
412.5000;0.2377;0.1767;
412.8000;0.2369;0.1743;
413.1000;0.2328;0.1648;
413.4000;0.2369;0.1720;
413.7000;0.2361;0.1624;
414.0000;0.2352;0.1600;
414.3000;0.2377;0.1648;
414.6000;0.2377;0.1672;
414.9000;0.2369;0.1648;
415.2000;0.2361;0.1648;
415.5000;0.2361;0.1624;
415.8000;0.2361;0.1672;
416.1000;0.2361;0.1648;
416.4000;0.2369;0.1672;
416.7000;0.2377;0.1791;
417.0000;0.2369;0.1696;
417.3000;0.2377;0.1743;
417.6000;0.2369;0.1696;
417.9000;0.2377;0.1767;
418.2000;0.2369;0.1887;
418.5000;0.2369;0.1958;
418.8000;0.2369;0.1911;
419.1000;0.2361;0.1887;
419.4000;0.2393;0.1958;
419.7000;0.2377;0.1887;
420.0000;0.2361;0.1767;
420.3000;0.2369;0.1815;
420.6000;0.2361;0.1815;
420.9000;0.2377;0.1863;
421.2000;0.2344;0.1815;
421.5000;0.2369;0.1958;
421.8000;0.2361;0.2030;
422.1000;0.2377;0.2030;
422.4000;0.2393;0.2149;
422.7000;0.2361;0.2030;
423.0000;0.2369;0.1958;
423.3000;0.2344;0.1958;
423.6000;0.2369;0.2030;
423.9000;0.2344;0.1958;
424.2000;0.2361;0.1982;
424.5000;0.2352;0.1911;
424.8000;0.2385;0.1958;
425.1000;0.2369;0.1934;
425.4000;0.2385;0.1887;
425.7000;0.2352;0.1791;
426.0000;0.2352;0.1815;
426.3000;0.2352;0.1720;
426.6000;0.2369;0.1672;
426.9000;0.2369;0.1767;
427.2000;0.2361;0.1887;
427.5000;0.2377;0.1958;
427.8000;0.2361;0.2006;
428.1000;0.2230;0.1648;
428.4000;0.2393;0.1958;
428.7000;0.2377;0.1982;
429.0000;0.2377;0.1911;
429.3000;0.2344;0.1839;
429.6000;0.2377;0.1815;
429.9000;0.2369;0.1839;
430.2000;0.2352;0.1767;
430.5000;0.2369;0.1791;
430.8000;0.2361;0.1839;
431.1000;0.2287;0.1576;
431.4000;0.2352;0.1839;
431.7000;0.2369;0.1839;
432.0000;0.2369;0.1767;
432.3000;0.2352;0.1696;
432.6000;0.2344;0.1696;
432.9000;0.2361;0.1720;
433.2000;0.2361;0.1743;
433.5000;0.2401;0.1887;
433.8000;0.2377;0.1911;
434.1000;0.2385;0.1839;
434.4000;0.2344;0.1743;
434.7000;0.2361;0.1839;
435.0000;0.2483;0.2197;
435.3000;0.2361;0.1791;
435.6000;0.2369;0.1815;
435.9000;0.2361;0.1767;
436.2000;0.2369;0.1743;
436.5000;0.2377;0.1743;
436.8000;0.2320;0.1648;
437.1000;0.2361;0.1624;
437.4000;0.2361;0.1672;
437.7000;0.2369;0.1648;
438.0000;0.2336;0.1552;
438.3000;0.2369;0.1672;
438.6000;0.2361;0.1767;
438.9000;0.2377;0.1863;
439.2000;0.2409;0.1958;
439.5000;0.2369;0.1815;
439.8000;0.2352;0.1791;
440.1000;0.2385;0.1839;
440.4000;0.2369;0.1767;
440.7000;0.2369;0.1743;
441.0000;0.2369;0.1791;
441.3000;0.2401;0.1863;
441.6000;0.2361;0.1743;
441.9000;0.2361;0.1767;
442.2000;0.2352;0.1767;
442.5000;0.2377;0.1791;
442.8000;0.2369;0.1839;
443.1000;0.2385;0.1911;
443.4000;0.2361;0.1839;
443.7000;0.2369;0.1839;
444.0000;0.2369;0.1815;
444.3000;0.2369;0.1720;
444.6000;0.2369;0.1743;
444.9000;0.2369;0.1767;
445.2000;0.2385;0.1743;
445.5000;0.2369;0.1743;
445.8000;0.2344;0.1648;
446.1000;0.2377;0.1720;
446.4000;0.2369;0.1624;
446.7000;0.2385;0.1672;
447.0000;0.2336;0.1624;
447.3000;0.2336;0.1624;
447.6000;0.2369;0.1624;
447.9000;0.2352;0.1672;
448.2000;0.2336;0.1672;
448.5000;0.2377;0.1767;
448.8000;0.2369;0.1791;
449.1000;0.2401;0.1815;
449.4000;0.2491;0.2006;
449.7000;0.2369;0.1648;
450.0000;0.2279;0.1385;
450.3000;0.2377;0.1648;
450.6000;0.2369;0.1600;
450.9000;0.2352;0.1528;
451.2000;0.2361;0.1648;
451.5000;0.2385;0.1696;
451.8000;0.2344;0.1696;
452.1000;0.2409;0.1815;
452.4000;0.2304;0.1576;
452.7000;0.2369;0.1839;
453.0000;0.2434;0.2078;
453.3000;0.2369;0.1982;
453.6000;0.2369;0.1958;
453.9000;0.2369;0.1958;
454.2000;0.2385;0.2030;
454.5000;0.2312;0.1791;
454.8000;0.2377;0.1887;
455.1000;0.2409;0.1982;
455.4000;0.2352;0.1839;
455.7000;0.2377;0.1839;
456.0000;0.2369;0.1743;
456.3000;0.2361;0.1672;
456.6000;0.2352;0.1720;
456.9000;0.2409;0.1887;
457.2000;0.2328;0.1600;
457.5000;0.2426;0.1767;
457.8000;0.2401;0.1696;
458.1000;0.2344;0.1576;
458.4000;0.2369;0.1600;
458.7000;0.2377;0.1672;
459.0000;0.2336;0.1648;
459.3000;0.2369;0.1791;
459.6000;0.2458;0.2030;
459.9000;0.2377;0.1839;
460.2000;0.2385;0.1791;
460.5000;0.2361;0.1696;
460.8000;0.2352;0.1720;
461.1000;0.2377;0.1767;
461.4000;0.2361;0.1767;
461.7000;0.2377;0.1767;
462.0000;0.2361;0.1720;
462.3000;0.2369;0.1791;
462.6000;0.2361;0.1743;
462.9000;0.2361;0.1767;
463.2000;0.2483;0.1982;
463.5000;0.2385;0.1648;
463.8000;0.2369;0.1696;
464.1000;0.2361;0.1696;
464.4000;0.2393;0.1696;
464.7000;0.2369;0.1672;
465.0000;0.2361;0.1743;
465.3000;0.2385;0.1767;
465.6000;0.2377;0.1720;
465.9000;0.2361;0.1600;
466.2000;0.2361;0.1624;
466.5000;0.2377;0.1648;
466.8000;0.2369;0.1600;
467.1000;0.2361;0.1600;
467.4000;0.2344;0.1600;
467.7000;0.2377;0.1624;
468.0000;0.2377;0.1791;
468.3000;0.2458;0.2078;
468.6000;0.2369;0.1791;
468.9000;0.2352;0.1672;
469.2000;0.2352;0.1648;
469.5000;0.2401;0.1720;
469.8000;0.2361;0.1648;
470.1000;0.2377;0.1672;
470.4000;0.2418;0.1767;
470.7000;0.2344;0.1648;
471.0000;0.2377;0.1648;
471.3000;0.2385;0.1648;
471.6000;0.2304;0.1361;
471.9000;0.2361;0.1600;
472.2000;0.2385;0.1672;
472.5000;0.2352;0.1600;
472.8000;0.2352;0.1648;
473.1000;0.2361;0.1767;
473.4000;0.2393;0.1743;
473.7000;0.2377;0.1720;
474.0000;0.2369;0.1720;
474.3000;0.2385;0.1743;
474.6000;0.2361;0.1648;
474.9000;0.2361;0.1720;
475.2000;0.2361;0.1743;
475.5000;0.2385;0.1791;
475.8000;0.2369;0.1767;
476.1000;0.2385;0.1791;
476.4000;0.2361;0.1791;
476.7000;0.2369;0.1767;
477.0000;0.2377;0.1743;
477.3000;0.2352;0.1696;
477.6000;0.2361;0.1720;
477.9000;0.2377;0.1720;
478.2000;0.2369;0.1696;
478.5000;0.2377;0.1672;
478.8000;0.2385;0.1648;
479.1000;0.2377;0.1624;
479.4000;0.2426;0.1839;
479.7000;0.2401;0.1767;
480.0000;0.2361;0.1720;
480.3000;0.2369;0.1743;
480.6000;0.2344;0.1743;
480.9000;0.2369;0.1791;
481.2000;0.2352;0.1839;
481.5000;0.2361;0.1887;
481.8000;0.2361;0.1815;
482.1000;0.2361;0.1767;
482.4000;0.2352;0.1696;
482.7000;0.2344;0.1767;
483.0000;0.2377;0.1767;
483.3000;0.2344;0.1767;
483.6000;0.2369;0.1815;
483.9000;0.2369;0.1767;
484.2000;0.2434;0.1982;
484.5000;0.2377;0.1767;
484.8000;0.2385;0.1815;
485.1000;0.2361;0.1743;
485.4000;0.2385;0.1696;
485.7000;0.2361;0.1672;
486.0000;0.2385;0.1815;
486.3000;0.2369;0.1839;
486.6000;0.2361;0.1934;
486.9000;0.2369;0.1934;
487.2000;0.2377;0.1934;
487.5000;0.2361;0.1934;
487.8000;0.2377;0.1934;
488.1000;0.2344;0.1887;
488.4000;0.2352;0.1767;
488.7000;0.2352;0.1696;
489.0000;0.2377;0.1743;
489.3000;0.2450;0.1958;
489.6000;0.2369;0.1791;
489.9000;0.2361;0.1791;
490.2000;0.2369;0.1887;
490.5000;0.2369;0.1887;
490.8000;0.2369;0.1911;
491.1000;0.2377;0.1839;
491.4000;0.2377;0.1911;
491.7000;0.2369;0.1887;
492.0000;0.2344;0.1791;
492.3000;0.2369;0.1863;
492.6000;0.2377;0.1934;
492.9000;0.2361;0.1958;
493.2000;0.2377;0.1982;
493.5000;0.2361;0.1911;
493.8000;0.2361;0.1911;
494.1000;0.2369;0.1958;
494.4000;0.2304;0.1815;
494.7000;0.2369;0.1863;
495.0000;0.2352;0.1863;
495.3000;0.2393;0.1887;
495.6000;0.2393;0.1934;
495.9000;0.2344;0.1791;
496.2000;0.2361;0.1958;
496.5000;0.2369;0.1934;
496.8000;0.2361;0.1911;
497.1000;0.2352;0.1839;
497.4000;0.2352;0.1887;
497.7000;0.2361;0.1887;
498.0000;0.2352;0.1863;
498.3000;0.2385;0.1958;
498.6000;0.2361;0.1767;
498.9000;0.2352;0.1767;
499.2000;0.2385;0.1839;
499.5000;0.2377;0.1815;
499.8000;0.2369;0.1815;
500.1000;0.2328;0.1720;
500.4000;0.2328;0.1743;
500.7000;0.2393;0.1911;
501.0000;0.2377;0.1839;
501.3000;0.2377;0.1887;
501.6000;0.2385;0.1982;
501.9000;0.2369;0.1958;
502.2000;0.2409;0.2030;
502.5000;0.2344;0.1839;
502.8000;0.2385;0.2006;
503.1000;0.2377;0.2102;
503.4000;0.2361;0.2102;
503.7000;0.2369;0.2078;
504.0000;0.2377;0.2126;
504.3000;0.2361;0.2030;
504.6000;0.2369;0.2054;
504.9000;0.2369;0.2078;
505.2000;0.2385;0.2078;
505.5000;0.2385;0.2006;
505.8000;0.2369;0.1934;
506.1000;0.2377;0.1839;
506.4000;0.2385;0.1887;
506.7000;0.2377;0.1791;
507.0000;0.2344;0.1624;
507.3000;0.2369;0.1696;
507.6000;0.2377;0.1767;
507.9000;0.2361;0.1720;
508.2000;0.2385;0.1720;
508.5000;0.2352;0.1576;
508.8000;0.2369;0.1624;
509.1000;0.2369;0.1624;
509.4000;0.2361;0.1672;
509.7000;0.2361;0.1648;
510.0000;0.2352;0.1648;
510.3000;0.2377;0.1743;
510.6000;0.2369;0.1696;
510.9000;0.2369;0.1624;
511.2000;0.2377;0.1696;
511.5000;0.2377;0.1743;
511.8000;0.2385;0.1743;
512.1000;0.2401;0.1887;
512.4000;0.2369;0.1887;
512.7000;0.2369;0.1887;
513.0000;0.2352;0.1863;
513.3000;0.2352;0.1839;
513.6000;0.2369;0.1911;
513.9000;0.2361;0.1839;
514.2000;0.2304;0.1648;
514.5000;0.2377;0.1815;
514.8000;0.2377;0.1815;
515.1000;0.2336;0.1791;
515.4000;0.2361;0.1863;
515.7000;0.2426;0.1982;
516.0000;0.2377;0.1791;
516.3000;0.2377;0.1839;
516.6000;0.2377;0.1887;
516.9000;0.2377;0.1958;
517.2000;0.2361;0.1958;
517.5000;0.2361;0.1958;
517.8000;0.2352;0.1887;
518.1000;0.2361;0.1887;
518.4000;0.2393;0.1958;
518.7000;0.2352;0.1839;
519.0000;0.2361;0.1887;
519.3000;0.2352;0.1911;
519.6000;0.2377;0.1887;
519.9000;0.2377;0.1839;
520.2000;0.2361;0.1791;
520.5000;0.2385;0.1791;
520.8000;0.2369;0.1743;
521.1000;0.2352;0.1743;
521.4000;0.2369;0.1791;
521.7000;0.2361;0.1767;
522.0000;0.2344;0.1815;
522.3000;0.2385;0.1982;
522.6000;0.2369;0.1958;
522.9000;0.2377;0.1982;
523.2000;0.2361;0.1911;
523.5000;0.2401;0.1982;
523.8000;0.2361;0.1791;
524.1000;0.2369;0.1743;
524.4000;0.2369;0.1839;
524.7000;0.2369;0.1720;
525.0000;0.2361;0.1696;
525.3000;0.2344;0.1743;
525.6000;0.2361;0.1791;
525.9000;0.2369;0.1839;
526.2000;0.2458;0.2102;
526.5000;0.2369;0.1911;
526.8000;0.2352;0.1887;
527.1000;0.2377;0.1911;
527.4000;0.2344;0.1863;
527.7000;0.2344;0.1911;
528.0000;0.2352;0.1887;
528.3000;0.2369;0.1863;
528.6000;0.2377;0.1839;
528.9000;0.2344;0.1791;
529.2000;0.2263;0.1600;
529.5000;0.2361;0.1934;
529.8000;0.2377;0.1911;
530.1000;0.2344;0.1839;
530.4000;0.2336;0.1743;
530.7000;0.2336;0.1696;
531.0000;0.2344;0.1720;
531.3000;0.2328;0.1672;
531.6000;0.2377;0.1720;
531.9000;0.2385;0.1791;
532.2000;0.2377;0.1815;
532.5000;0.2483;0.2030;
532.8000;0.2377;0.1791;
533.1000;0.2434;0.1934;
533.4000;0.2377;0.1815;
533.7000;0.2377;0.1934;
534.0000;0.2369;0.1887;
534.3000;0.2352;0.1791;
534.6000;0.2385;0.1839;
534.9000;0.2369;0.1839;
535.2000;0.2369;0.1815;
535.5000;0.2361;0.1720;
535.8000;0.2377;0.1743;
536.1000;0.2369;0.1672;
536.4000;0.2352;0.1624;
536.7000;0.2369;0.1720;
537.0000;0.2361;0.1648;
537.3000;0.2377;0.1743;
537.6000;0.2352;0.1600;
537.9000;0.2369;0.1815;
538.2000;0.2369;0.1887;
538.5000;0.2369;0.1863;
538.8000;0.2361;0.1767;
539.1000;0.2361;0.1720;
539.4000;0.2369;0.1648;
539.7000;0.2450;0.1982;
540.0000;0.2369;0.1743;
540.3000;0.2352;0.1648;
540.6000;0.2369;0.1600;
540.9000;0.2352;0.1576;
541.2000;0.2377;0.1648;
541.5000;0.2369;0.1672;
541.8000;0.2369;0.1696;
542.1000;0.2336;0.1624;
542.4000;0.2409;0.1743;
542.7000;0.2352;0.1767;
543.0000;0.2361;0.1767;
543.3000;0.2369;0.1791;
543.6000;0.2385;0.1863;
543.9000;0.2312;0.1648;
544.2000;0.2385;0.1791;
544.5000;0.2352;0.1720;
544.8000;0.2361;0.1791;
545.1000;0.2369;0.1815;
545.4000;0.2361;0.1815;
545.7000;0.2352;0.1815;
546.0000;0.2361;0.1839;
546.3000;0.2369;0.1911;
546.6000;0.2344;0.1863;
546.9000;0.2361;0.1887;
547.2000;0.2304;0.1648;
547.5000;0.2369;0.1887;
547.8000;0.2377;0.1887;
548.1000;0.2369;0.1958;
548.4000;0.2377;0.1911;
548.7000;0.2377;0.1934;
549.0000;0.2320;0.1911;
549.3000;0.2377;0.2054;
549.6000;0.2352;0.1982;
549.9000;0.2426;0.2054;
550.2000;0.2475;0.2102;
550.5000;0.2361;0.1767;
550.8000;0.2352;0.1720;
551.1000;0.2369;0.1839;
551.4000;0.2369;0.1863;
551.7000;0.2393;0.1934;
552.0000;0.2361;0.1863;
552.3000;0.2336;0.1767;
552.6000;0.2385;0.1815;
552.9000;0.2361;0.1791;
553.2000;0.2369;0.1767;
553.5000;0.2466;0.2006;
553.8000;0.2295;0.1528;
554.1000;0.2385;0.1791;
554.4000;0.2361;0.1743;
554.7000;0.2352;0.1767;
555.0000;0.2369;0.1767;
555.3000;0.2418;0.1863;
555.6000;0.2369;0.1696;
555.9000;0.2352;0.1624;
556.2000;0.2263;0.1481;
556.5000;0.2393;0.1839;
556.8000;0.2352;0.1720;
557.1000;0.2385;0.1815;
557.4000;0.2361;0.1863;
557.7000;0.2385;0.1863;
558.0000;0.2377;0.1911;
558.3000;0.2279;0.1672;
558.6000;0.2377;0.1839;
558.9000;0.2369;0.1863;
559.2000;0.2393;0.1911;
559.5000;0.2336;0.1815;
559.8000;0.2352;0.1815;
560.1000;0.2369;0.1863;
560.4000;0.2352;0.1791;
560.7000;0.2361;0.1815;
561.0000;0.2344;0.1887;
561.3000;0.2361;0.1863;
561.6000;0.2401;0.1934;
561.9000;0.2361;0.1815;
562.2000;0.2361;0.1815;
562.5000;0.2312;0.1743;
562.8000;0.2263;0.1600;
563.1000;0.2361;0.1767;
563.4000;0.2352;0.1696;
563.7000;0.2344;0.1648;
564.0000;0.2369;0.1648;
564.3000;0.2442;0.1863;
564.6000;0.2361;0.1648;
564.9000;0.2377;0.1743;
565.2000;0.2385;0.1767;
565.5000;0.2361;0.1743;
565.8000;0.2361;0.1696;
566.1000;0.2361;0.1791;
566.4000;0.2369;0.1815;
566.7000;0.2393;0.1863;
567.0000;0.2418;0.1982;
567.3000;0.2361;0.1839;
567.6000;0.2369;0.1863;
567.9000;0.2361;0.1743;
568.2000;0.2361;0.1720;
568.5000;0.2336;0.1600;
568.8000;0.2361;0.1767;
569.1000;0.2369;0.1839;
569.4000;0.2352;0.1887;
569.7000;0.2352;0.1911;
570.0000;0.2377;0.2030;
570.3000;0.2507;0.2245;
570.6000;0.2361;0.1863;
570.9000;0.2344;0.1887;
571.2000;0.2352;0.1791;
571.5000;0.2377;0.1887;
571.8000;0.2369;0.1815;
572.1000;0.2361;0.1815;
572.4000;0.2458;0.1982;
572.7000;0.2369;0.1720;
573.0000;0.2377;0.1791;
573.3000;0.2377;0.1815;
573.6000;0.2320;0.1624;
573.9000;0.2352;0.1743;
574.2000;0.2377;0.1743;
574.5000;0.2344;0.1767;
574.8000;0.2426;0.1958;
575.1000;0.2352;0.1791;
575.4000;0.2377;0.1863;
575.7000;0.2352;0.1672;
576.0000;0.2328;0.1576;
576.3000;0.2352;0.1696;
576.6000;0.2418;0.1839;
576.9000;0.2352;0.1672;
577.2000;0.2393;0.1648;
577.5000;0.2434;0.1791;
577.8000;0.2401;0.1720;
578.1000;0.2393;0.1767;
578.4000;0.2352;0.1672;
578.7000;0.2377;0.1720;
579.0000;0.2377;0.1696;
579.3000;0.2377;0.1624;
579.6000;0.2352;0.1576;
579.9000;0.2344;0.1528;
580.2000;0.2344;0.1600;
580.5000;0.2369;0.1696;
580.8000;0.2369;0.1648;
581.1000;0.2369;0.1600;
581.4000;0.2361;0.1600;
581.7000;0.2369;0.1696;
582.0000;0.2352;0.1791;
582.3000;0.2352;0.1791;
582.6000;0.2377;0.1791;
582.9000;0.2385;0.1648;
583.2000;0.2377;0.1624;
583.5000;0.2369;0.1696;
583.8000;0.2369;0.1743;
584.1000;0.2369;0.1720;
584.4000;0.2377;0.1720;
584.7000;0.2352;0.1624;
585.0000;0.2377;0.1672;
585.3000;0.2344;0.1648;
585.6000;0.2344;0.1576;
585.9000;0.2271;0.1409;
586.2000;0.2336;0.1648;
586.5000;0.2352;0.1600;
586.8000;0.2377;0.1624;
587.1000;0.2369;0.1600;
587.4000;0.2361;0.1600;
587.7000;0.2344;0.1505;
588.0000;0.2377;0.1552;
588.3000;0.2458;0.1767;
588.6000;0.2393;0.1648;
588.9000;0.2385;0.1720;
589.2000;0.2344;0.1624;
589.5000;0.2352;0.1696;
589.8000;0.2328;0.1576;
590.1000;0.2361;0.1552;
590.4000;0.2361;0.1648;
590.7000;0.2361;0.1672;
591.0000;0.2344;0.1600;
591.3000;0.2361;0.1672;
591.6000;0.2336;0.1672;
591.9000;0.2255;0.1481;
592.2000;0.2385;0.1791;
592.5000;0.2328;0.1624;
592.8000;0.2409;0.1743;
593.1000;0.2393;0.1672;
593.4000;0.2369;0.1624;
593.7000;0.2369;0.1552;
594.0000;0.2361;0.1624;
594.3000;0.2393;0.1743;
594.6000;0.2369;0.1696;
594.9000;0.2377;0.1624;
595.2000;0.2352;0.1576;
595.5000;0.2361;0.1576;
595.8000;0.2352;0.1672;
596.1000;0.2369;0.1743;
596.4000;0.2377;0.1815;
596.7000;0.2361;0.1767;
597.0000;0.2344;0.1672;
597.3000;0.2369;0.1767;
597.6000;0.2369;0.1720;
597.9000;0.2344;0.1696;
598.2000;0.2377;0.1720;
598.5000;0.2377;0.1672;
598.8000;0.2377;0.1624;
599.1000;0.2361;0.1672;
599.4000;0.2393;0.1672;
599.7000;0.2361;0.1672;
600.0000;0.2352;0.1648;
600.3000;0.2369;0.1672;
600.6000;0.2369;0.1505;
600.9000;0.2369;0.1385;
601.2000;0.2377;0.1266;
601.5000;0.2361;0.1099;
601.8000;0.2369;0.1003;
602.1000;0.2369;0.0979;
602.4000;0.2385;0.0955;
602.7000;0.2369;0.0884;
603.0000;0.2361;0.0860;
603.3000;0.2377;0.0812;
603.6000;0.2385;0.0764;
603.9000;0.2344;0.0740;
604.2000;0.2377;0.0740;
604.5000;0.2344;0.0693;
604.8000;0.2385;0.0812;
605.1000;0.2369;0.0740;
605.4000;0.2369;0.0812;
605.7000;0.2361;0.0764;
606.0000;0.2361;0.0764;
606.3000;0.2385;0.0764;
606.6000;0.2377;0.0788;
606.9000;0.2377;0.0812;
607.2000;0.2385;0.0764;
607.5000;0.2344;0.0621;
607.8000;0.2361;0.0645;
608.1000;0.2361;0.0645;
608.4000;0.2328;0.0549;
608.7000;0.2377;0.0597;
609.0000;0.2385;0.0645;
609.3000;0.2361;0.0645;
609.6000;0.2369;0.0645;
609.9000;0.2466;0.0931;
610.2000;0.2361;0.0693;
610.5000;0.2377;0.0693;
610.8000;0.2385;0.0693;
611.1000;0.2385;0.0669;
611.4000;0.2263;0.0430;
611.7000;0.2434;0.0908;
612.0000;0.2385;0.0740;
612.3000;0.2385;0.0621;
612.6000;0.2385;0.0645;
612.9000;0.2336;0.0669;
613.2000;0.2418;0.0884;
613.5000;0.2361;0.0860;
613.8000;0.2361;0.0788;
614.1000;0.2312;0.0573;
614.4000;0.2352;0.0693;
614.7000;0.2393;0.0788;
615.0000;0.2377;0.0645;
615.3000;0.2393;0.0740;
615.6000;0.2393;0.0764;
615.9000;0.2369;0.0669;
616.2000;0.2352;0.0693;
616.5000;0.2369;0.0788;
616.8000;0.2369;0.0788;
617.1000;0.2377;0.0764;
617.4000;0.2377;0.0836;
617.7000;0.2393;0.0884;
618.0000;0.2377;0.0884;
618.3000;0.2385;0.0931;
618.6000;0.2377;0.0931;
618.9000;0.2369;0.0955;
619.2000;0.2450;0.1170;
619.5000;0.2369;0.0955;
619.8000;0.2352;0.0884;
620.1000;0.2312;0.0860;
620.4000;0.2377;0.1075;
620.7000;0.2377;0.1051;
621.0000;0.2409;0.1146;
621.3000;0.2377;0.1075;
621.6000;0.2393;0.1075;
621.9000;0.2377;0.1003;
622.2000;0.2393;0.1003;
622.5000;0.2377;0.0979;
622.8000;0.2393;0.1027;
623.1000;0.2409;0.1051;
623.4000;0.2393;0.1027;
623.7000;0.2377;0.0931;
624.0000;0.2377;0.0860;
624.3000;0.2385;0.0908;
624.6000;0.2312;0.0812;
624.9000;0.2369;0.1003;
625.2000;0.2385;0.1051;
625.5000;0.2352;0.0908;
625.8000;0.2361;0.0908;
626.1000;0.2255;0.0621;
626.4000;0.2385;0.0931;
626.7000;0.2377;0.0955;
627.0000;0.2369;0.0955;
627.3000;0.2491;0.1290;
627.6000;0.2385;0.0955;
627.9000;0.2385;0.0908;
628.2000;0.2393;0.0955;
628.5000;0.2377;0.0931;
628.8000;0.2361;0.0955;
629.1000;0.2401;0.1003;
629.4000;0.2385;0.0931;
629.7000;0.2304;0.0645;
630.0000;0.2369;0.0812;
630.3000;0.2401;0.0836;
630.6000;0.2361;0.0812;
630.9000;0.2377;0.0836;
631.2000;0.2442;0.1003;
631.5000;0.2369;0.0812;
631.8000;0.2385;0.0860;
632.1000;0.2377;0.0836;
632.4000;0.2377;0.0860;
632.7000;0.2369;0.0836;
633.0000;0.2377;0.0836;
633.3000;0.2401;0.0884;
633.6000;0.2377;0.0788;
633.9000;0.2377;0.0836;
634.2000;0.2255;0.0549;
634.5000;0.2393;0.0931;
634.8000;0.2385;0.0955;
635.1000;0.2377;0.1051;
635.4000;0.2393;0.1075;
635.7000;0.2393;0.1051;
636.0000;0.2385;0.1051;
636.3000;0.2369;0.1003;
636.6000;0.2369;0.0979;
636.9000;0.2344;0.0931;
637.2000;0.2377;0.1099;
637.5000;0.2369;0.1027;
637.8000;0.2393;0.1051;
638.1000;0.2385;0.0979;
638.4000;0.2385;0.1027;
638.7000;0.2344;0.0955;
639.0000;0.2450;0.1170;
639.3000;0.2385;0.1003;
639.6000;0.2385;0.1099;
639.9000;0.2393;0.1051;
640.2000;0.2401;0.1099;
640.5000;0.2393;0.1075;
640.8000;0.2385;0.1027;
641.1000;0.2385;0.0979;
641.4000;0.2393;0.1003;
641.7000;0.2385;0.0955;
642.0000;0.2263;0.0645;
642.3000;0.2409;0.0955;
642.6000;0.2385;0.1051;
642.9000;0.2409;0.1122;
643.2000;0.2369;0.1027;
643.5000;0.2409;0.1027;
643.8000;0.2385;0.0979;
644.1000;0.2393;0.1003;
644.4000;0.2409;0.1027;
644.7000;0.2385;0.0931;
645.0000;0.2393;0.0931;
645.3000;0.2393;0.0955;
645.6000;0.2361;0.0931;
645.9000;0.2385;0.0979;
646.2000;0.2361;0.0955;
646.5000;0.2385;0.1099;
646.8000;0.2409;0.1146;
647.1000;0.2369;0.0955;
647.4000;0.2401;0.0979;
647.7000;0.2377;0.0908;
648.0000;0.2377;0.0955;
648.3000;0.2385;0.0955;
648.6000;0.2401;0.1027;
648.9000;0.2377;0.0931;
649.2000;0.2320;0.0693;
649.5000;0.2361;0.0812;
649.8000;0.2344;0.0740;
650.1000;0.2287;0.0573;
650.4000;0.2377;0.0740;
650.7000;0.2385;0.0860;
651.0000;0.2393;0.0740;
651.3000;0.2385;0.0740;
651.6000;0.2361;0.0669;
651.9000;0.2393;0.0764;
652.2000;0.2385;0.0740;
652.5000;0.2304;0.0573;
652.8000;0.2361;0.0716;
653.1000;0.2466;0.0931;
653.4000;0.2409;0.0908;
653.7000;0.2385;0.0931;
654.0000;0.2377;0.0955;
654.3000;0.2377;0.1003;
654.6000;0.2377;0.0955;
654.9000;0.2377;0.0931;
655.2000;0.2401;0.0931;
655.5000;0.2385;0.0931;
655.8000;0.2385;0.0908;
656.1000;0.2377;0.0908;
656.4000;0.2393;0.0860;
656.7000;0.2377;0.0836;
657.0000;0.2377;0.0884;
657.3000;0.2336;0.0836;
657.6000;0.2393;0.0931;
657.9000;0.2377;0.0884;
658.2000;0.2344;0.0740;
658.5000;0.2377;0.0884;
658.8000;0.2377;0.0908;
659.1000;0.2369;0.0860;
659.4000;0.2385;0.0979;
659.7000;0.2409;0.1003;
660.0000;0.2385;0.0979;
660.3000;0.2352;0.0908;
660.6000;0.2336;0.0884;
660.9000;0.2393;0.1003;
661.2000;0.2377;0.0955;
661.5000;0.2393;0.0931;
661.8000;0.2401;0.0979;
662.1000;0.2450;0.1146;
662.4000;0.2369;0.0955;
662.7000;0.2418;0.1075;
663.0000;0.2328;0.0860;
663.3000;0.2377;0.0908;
663.6000;0.2401;0.0931;
663.9000;0.2385;0.0908;
664.2000;0.2377;0.0931;
664.5000;0.2369;0.0812;
664.8000;0.2393;0.0884;
665.1000;0.2409;0.0884;
665.4000;0.2393;0.0788;
665.7000;0.2377;0.0836;
666.0000;0.2393;0.0884;
666.3000;0.2385;0.0812;
666.6000;0.2393;0.0955;
666.9000;0.2369;0.0908;
667.2000;0.2393;0.0884;
667.5000;0.2434;0.1027;
667.8000;0.2393;0.1003;
668.1000;0.2409;0.1003;
668.4000;0.2377;0.0931;
668.7000;0.2458;0.1170;
669.0000;0.2466;0.1290;
669.3000;0.2385;0.0955;
669.6000;0.2336;0.0836;
669.9000;0.2393;0.1075;
670.2000;0.2385;0.1099;
670.5000;0.2377;0.1027;
670.8000;0.2385;0.1099;
671.1000;0.2385;0.1051;
671.4000;0.2393;0.1122;
671.7000;0.2401;0.1146;
672.0000;0.2385;0.1075;
672.3000;0.2385;0.1027;
672.6000;0.2377;0.1027;
672.9000;0.2385;0.1075;
673.2000;0.2369;0.1099;
673.5000;0.2369;0.1146;
673.8000;0.2377;0.1099;
674.1000;0.2352;0.0908;
674.4000;0.2377;0.0979;
674.7000;0.2369;0.0979;
675.0000;0.2393;0.1027;
675.3000;0.2369;0.0908;
675.6000;0.2393;0.1051;
675.9000;0.2393;0.1051;
676.2000;0.2377;0.0979;
676.5000;0.2393;0.1194;
676.8000;0.2475;0.1361;
677.1000;0.2377;0.1075;
677.4000;0.2393;0.1027;
677.7000;0.2320;0.0836;
678.0000;0.2393;0.1099;
678.3000;0.2369;0.1075;
678.6000;0.2377;0.1075;
678.9000;0.2385;0.1194;
679.2000;0.2385;0.1099;
679.5000;0.2369;0.1051;
679.8000;0.2377;0.0979;
680.1000;0.2369;0.0931;
680.4000;0.2393;0.0955;
680.7000;0.2295;0.0693;
681.0000;0.2401;0.0955;
681.3000;0.2377;0.0884;
681.6000;0.2393;0.0884;
681.9000;0.2426;0.1003;
682.2000;0.2393;0.0908;
682.5000;0.2393;0.0908;
682.8000;0.2409;0.0931;
683.1000;0.2385;0.0908;
683.4000;0.2401;0.0955;
683.7000;0.2450;0.1146;
684.0000;0.2442;0.1027;
684.3000;0.2393;0.0908;
684.6000;0.2385;0.0908;
684.9000;0.2369;0.0931;
685.2000;0.2401;0.1027;
685.5000;0.2385;0.0955;
685.8000;0.2369;0.0908;
686.1000;0.2458;0.1099;
686.4000;0.2393;0.0931;
686.7000;0.2401;0.1003;
687.0000;0.2385;0.0955;
687.3000;0.2377;0.0979;
687.6000;0.2361;0.0955;
687.9000;0.2352;0.0931;
688.2000;0.2369;0.0884;
688.5000;0.2369;0.0884;
688.8000;0.2385;0.0908;
689.1000;0.2418;0.1003;
689.4000;0.2385;0.0884;
689.7000;0.2385;0.0860;
690.0000;0.2369;0.0860;
690.3000;0.2393;0.0836;
690.6000;0.2336;0.0740;
690.9000;0.2393;0.0908;
691.2000;0.2385;0.0860;
691.5000;0.2393;0.0884;
691.8000;0.2393;0.0812;
692.1000;0.2377;0.0788;
692.4000;0.2393;0.0860;
692.7000;0.2352;0.0740;
693.0000;0.2409;0.0860;
693.3000;0.2401;0.0884;
693.6000;0.2377;0.0836;
693.9000;0.2401;0.0836;
694.2000;0.2377;0.0740;
694.5000;0.2369;0.0573;
694.8000;0.2287;0.0478;
695.1000;0.2377;0.0740;
695.4000;0.2401;0.0812;
695.7000;0.2377;0.0884;
696.0000;0.2336;0.0860;
696.3000;0.2377;0.0955;
696.6000;0.2377;0.0908;
696.9000;0.2401;0.1003;
697.2000;0.2369;0.1027;
697.5000;0.2361;0.0955;
697.8000;0.2271;0.0645;
698.1000;0.2450;0.1146;
698.4000;0.2401;0.1051;
698.7000;0.2377;0.1003;
699.0000;0.2393;0.0955;
699.3000;0.2401;0.0955;
699.6000;0.2385;0.0931;
699.9000;0.2377;0.0955;
700.2000;0.2385;0.0908;
700.5000;0.2377;0.0884;
700.8000;0.2377;0.0836;
701.1000;0.2377;0.0812;
701.4000;0.2385;0.0860;
701.7000;0.2385;0.0931;
702.0000;0.2385;0.0931;
702.3000;0.2361;0.0836;
702.6000;0.2385;0.0908;
702.9000;0.2295;0.0669;
703.2000;0.2393;0.0979;
703.5000;0.2361;0.0860;
703.8000;0.2450;0.1099;
704.1000;0.2385;0.0931;
704.4000;0.2466;0.1170;
704.7000;0.2393;0.1003;
705.0000;0.2409;0.0979;
705.3000;0.2409;0.0979;
705.6000;0.2393;0.0955;
705.9000;0.2434;0.1075;
706.2000;0.2401;0.1003;
706.5000;0.2401;0.1027;
706.8000;0.2393;0.1075;
707.1000;0.2336;0.0908;
707.4000;0.2418;0.1099;
707.7000;0.2401;0.1099;
708.0000;0.2418;0.1027;
708.3000;0.2385;0.0908;
708.6000;0.2352;0.0836;
708.9000;0.2393;0.1003;
709.2000;0.2385;0.1003;
709.5000;0.2393;0.0979;
709.8000;0.2393;0.0908;
710.1000;0.2393;0.0979;
710.4000;0.2393;0.0884;
710.7000;0.2377;0.0836;
711.0000;0.2312;0.0621;
711.3000;0.2377;0.0812;
711.6000;0.2369;0.0860;
711.9000;0.2377;0.0908;
712.2000;0.2328;0.0788;
712.5000;0.2385;0.0955;
712.8000;0.2393;0.0931;
713.1000;0.2377;0.0860;
713.4000;0.2377;0.0931;
713.7000;0.2409;0.1027;
714.0000;0.2369;0.0884;
714.3000;0.2393;0.0979;
714.6000;0.2393;0.1051;
714.9000;0.2385;0.1027;
715.2000;0.2393;0.0979;
715.5000;0.2401;0.0931;
715.8000;0.2369;0.0812;
716.1000;0.2409;0.1003;
716.4000;0.2393;0.0955;
716.7000;0.2393;0.1075;
717.0000;0.2401;0.1075;
717.3000;0.2385;0.0979;
717.6000;0.2401;0.1099;
717.9000;0.2393;0.1122;
718.2000;0.2450;0.1290;
718.5000;0.2393;0.1122;
718.8000;0.2434;0.1266;
719.1000;0.2369;0.1075;
719.4000;0.2385;0.1146;
719.7000;0.2369;0.1099;
720.0000;0.2401;0.1122;
720.3000;0.2385;0.1099;
720.6000;0.2393;0.1051;
720.9000;0.2377;0.1051;
721.2000;0.2304;0.0788;
721.5000;0.2385;0.0955;
721.8000;0.2409;0.1027;
722.1000;0.2377;0.0955;
722.4000;0.2393;0.0979;
722.7000;0.2385;0.0955;
723.0000;0.2385;0.0979;
723.3000;0.2369;0.0955;
723.6000;0.2328;0.0931;
723.9000;0.2401;0.1170;
724.2000;0.2426;0.1194;
724.5000;0.2418;0.1170;
724.8000;0.2344;0.0955;
725.1000;0.2385;0.1075;
725.4000;0.2377;0.1003;
725.7000;0.2352;0.0908;
726.0000;0.2385;0.1003;
726.3000;0.2426;0.1099;
726.6000;0.2393;0.1003;
726.9000;0.2369;0.0955;
727.2000;0.2475;0.1242;
727.5000;0.2401;0.1075;
727.8000;0.2352;0.0931;
728.1000;0.2483;0.1218;
728.4000;0.2344;0.0908;
728.7000;0.2393;0.0955;
729.0000;0.2393;0.0884;
729.3000;0.2385;0.0860;
729.6000;0.2393;0.0836;
729.9000;0.2409;0.0955;
730.2000;0.2393;0.0908;
730.5000;0.2328;0.0716;
730.8000;0.2377;0.0908;
731.1000;0.2279;0.0693;
731.4000;0.2393;0.0979;
731.7000;0.2442;0.1122;
732.0000;0.2336;0.0908;
732.3000;0.2385;0.1003;
732.6000;0.2393;0.1075;
732.9000;0.2385;0.1051;
733.2000;0.2385;0.1051;
733.5000;0.2385;0.1051;
733.8000;0.2401;0.1027;
734.1000;0.2369;0.0979;
734.4000;0.2377;0.1051;
734.7000;0.2377;0.1003;
735.0000;0.2385;0.1003;
735.3000;0.2385;0.1027;
735.6000;0.2426;0.1146;
735.9000;0.2385;0.1003;
736.2000;0.2361;0.1075;
736.5000;0.2385;0.1170;
736.8000;0.2393;0.1170;
737.1000;0.2434;0.1290;
737.4000;0.2369;0.1146;
737.7000;0.2401;0.1290;
738.0000;0.2393;0.1242;
738.3000;0.2377;0.1242;
738.6000;0.2401;0.1337;
738.9000;0.2369;0.1266;
739.2000;0.2393;0.1146;
739.5000;0.2369;0.1075;
739.8000;0.2401;0.1099;
740.1000;0.2369;0.0955;
740.4000;0.2393;0.1027;
740.7000;0.2393;0.0955;
741.0000;0.2393;0.1027;
741.3000;0.2369;0.0979;
741.6000;0.2401;0.1027;
741.9000;0.2279;0.0764;
742.2000;0.2401;0.1003;
742.5000;0.2393;0.1003;
742.8000;0.2450;0.1146;
743.1000;0.2507;0.1242;
743.4000;0.2409;0.0979;
743.7000;0.2369;0.1003;
744.0000;0.2377;0.0908;
744.3000;0.2385;0.1003;
744.6000;0.2393;0.1075;
744.9000;0.2385;0.1027;
745.2000;0.2369;0.1051;
745.5000;0.2385;0.1051;
745.8000;0.2377;0.1027;
746.1000;0.2418;0.1122;
746.4000;0.2385;0.1051;
746.7000;0.2418;0.1075;
747.0000;0.2393;0.1051;
747.3000;0.2377;0.0931;
747.6000;0.2385;0.0931;
747.9000;0.2393;0.0931;
748.2000;0.2385;0.0931;
748.5000;0.2385;0.0931;
748.8000;0.2377;0.0979;
749.1000;0.2393;0.0931;
749.4000;0.2385;0.0955;
749.7000;0.2369;0.0931;
750.0000;0.2385;0.0979;
750.3000;0.2352;0.0931;
750.6000;0.2385;0.1027;
750.9000;0.2385;0.1075;
751.2000;0.2377;0.1051;
751.5000;0.2409;0.1099;
751.8000;0.2401;0.1170;
752.1000;0.2369;0.1099;
752.4000;0.2475;0.1337;
752.7000;0.2393;0.1290;
753.0000;0.2401;0.1385;
753.3000;0.2401;0.1361;
753.6000;0.2409;0.1433;
753.9000;0.2393;0.1361;
754.2000;0.2409;0.1385;
754.5000;0.2393;0.1433;
754.8000;0.2369;0.1361;
755.1000;0.2385;0.1290;
755.4000;0.2361;0.1266;
755.7000;0.2385;0.1290;
756.0000;0.2401;0.1266;
756.3000;0.2385;0.1218;
756.6000;0.2393;0.1170;
756.9000;0.2361;0.1051;
757.2000;0.2271;0.0812;
757.5000;0.2401;0.1122;
757.8000;0.2385;0.1003;
758.1000;0.2385;0.0979;
758.4000;0.2377;0.0955;
758.7000;0.2401;0.1027;
759.0000;0.2369;0.1003;
759.3000;0.2409;0.1194;
759.6000;0.2409;0.1266;
759.9000;0.2409;0.1290;
760.2000;0.2409;0.1266;
760.5000;0.2385;0.1218;
760.8000;0.2393;0.1218;
761.1000;0.2434;0.1314;
761.4000;0.2361;0.1146;
761.7000;0.2377;0.1194;
762.0000;0.2393;0.1194;
762.3000;0.2385;0.1242;
762.6000;0.2377;0.1194;
762.9000;0.2393;0.1290;
763.2000;0.2377;0.1194;
763.5000;0.2409;0.1266;
763.8000;0.2401;0.1242;
764.1000;0.2377;0.1170;
764.4000;0.2418;0.1146;
764.7000;0.2409;0.1146;
765.0000;0.2393;0.1122;
765.3000;0.2377;0.1122;
765.6000;0.2377;0.1099;
765.9000;0.2393;0.1194;
766.2000;0.2418;0.1218;
766.5000;0.2369;0.1122;
766.8000;0.2295;0.0836;
767.1000;0.2377;0.1099;
767.4000;0.2369;0.1122;
767.7000;0.2434;0.1242;
768.0000;0.2385;0.1146;
768.3000;0.2409;0.1194;
768.6000;0.2401;0.1218;
768.9000;0.2385;0.1218;
769.2000;0.2401;0.1242;
769.5000;0.2409;0.1218;
769.8000;0.2385;0.1122;
770.1000;0.2385;0.1170;
770.4000;0.2401;0.1242;
770.7000;0.2377;0.1194;
771.0000;0.2401;0.1290;
771.3000;0.2393;0.1218;
771.6000;0.2377;0.1242;
771.9000;0.2385;0.1314;
772.2000;0.2409;0.1409;
772.5000;0.2385;0.1433;
772.8000;0.2393;0.1481;
773.1000;0.2401;0.1361;
773.4000;0.2401;0.1361;
773.7000;0.2401;0.1314;
774.0000;0.2418;0.1314;
774.3000;0.2352;0.1122;
774.6000;0.2401;0.1242;
774.9000;0.2418;0.1314;
775.2000;0.2409;0.1266;
775.5000;0.2426;0.1290;
775.8000;0.2385;0.1218;
776.1000;0.2385;0.1170;
776.4000;0.2304;0.0955;
776.7000;0.2393;0.1146;
777.0000;0.2401;0.1146;
777.3000;0.2540;0.1481;
777.6000;0.2418;0.1146;
777.9000;0.2418;0.1051;
778.2000;0.2393;0.1027;
778.5000;0.2393;0.1051;
778.8000;0.2401;0.1027;
779.1000;0.2442;0.1170;
779.4000;0.2385;0.1146;
779.7000;0.2385;0.1194;
780.0000;0.2450;0.1266;
780.3000;0.2377;0.1075;
780.6000;0.2418;0.1075;
780.9000;0.2401;0.1122;
781.2000;0.2418;0.1194;
781.5000;0.2361;0.1075;
781.8000;0.2377;0.1146;
782.1000;0.2401;0.1242;
782.4000;0.2426;0.1385;
782.7000;0.2393;0.1218;
783.0000;0.2393;0.1146;
783.3000;0.2385;0.1099;
783.6000;0.2393;0.1027;
783.9000;0.2401;0.1099;
784.2000;0.2393;0.1122;
784.5000;0.2377;0.1170;
784.8000;0.2418;0.1242;
785.1000;0.2426;0.1194;
785.4000;0.2401;0.1075;
785.7000;0.2393;0.1099;
786.0000;0.2393;0.1146;
786.3000;0.2409;0.1242;
786.6000;0.2393;0.1170;
786.9000;0.2401;0.1194;
787.2000;0.2369;0.1146;
787.5000;0.2344;0.1027;
787.8000;0.2401;0.1170;
788.1000;0.2369;0.1075;
788.4000;0.2401;0.1146;
788.7000;0.2393;0.1122;
789.0000;0.2377;0.1146;
789.3000;0.2393;0.1218;
789.6000;0.2385;0.1146;
789.9000;0.2409;0.1122;
790.2000;0.2385;0.1146;
790.5000;0.2385;0.1075;
790.8000;0.2409;0.1194;
791.1000;0.2393;0.1170;
791.4000;0.2409;0.1170;
791.7000;0.2369;0.1051;
792.0000;0.2418;0.1242;
792.3000;0.2401;0.1194;
792.6000;0.2401;0.1099;
792.9000;0.2401;0.1146;
793.2000;0.2409;0.1099;
793.5000;0.2409;0.1075;
793.8000;0.2401;0.1075;
794.1000;0.2401;0.1075;
794.4000;0.2369;0.0860;
794.7000;0.2377;0.1003;
795.0000;0.2369;0.1051;
795.3000;0.2320;0.0955;
795.6000;0.2418;0.1170;
795.9000;0.2393;0.1027;
796.2000;0.2385;0.0979;
796.5000;0.2426;0.1146;
796.8000;0.2401;0.1003;
797.1000;0.2393;0.0979;
797.4000;0.2401;0.0955;
797.7000;0.2393;0.0884;
798.0000;0.2385;0.0884;
798.3000;0.2418;0.0908;
798.6000;0.2426;0.0931;
798.9000;0.2393;0.0788;
799.2000;0.2385;0.0884;
799.5000;0.2401;0.0979;
799.8000;0.2401;0.0979;
800.1000;0.2369;0.0836;
800.4000;0.2409;0.1003;
800.7000;0.2377;0.1003;
801.0000;0.2409;0.1003;
801.3000;0.2409;0.1075;
801.6000;0.2434;0.1194;
801.9000;0.2369;0.0931;
802.2000;0.2361;0.0955;
802.5000;0.2401;0.0979;
802.8000;0.2377;0.0979;
803.1000;0.2466;0.1314;
803.4000;0.2377;0.1194;
803.7000;0.2377;0.1194;
804.0000;0.2377;0.1099;
804.3000;0.2385;0.1122;
804.6000;0.2320;0.1003;
804.9000;0.2377;0.1146;
805.2000;0.2401;0.1218;
805.5000;0.2393;0.1218;
805.8000;0.2385;0.1170;
806.1000;0.2393;0.1170;
806.4000;0.2393;0.1099;
806.7000;0.2409;0.1075;
807.0000;0.2409;0.1027;
807.3000;0.2385;0.1003;
807.6000;0.2369;0.0955;
807.9000;0.2385;0.1051;
808.2000;0.2401;0.1075;
808.5000;0.2393;0.1003;
808.8000;0.2393;0.0955;
809.1000;0.2377;0.0908;
809.4000;0.2401;0.0979;
809.7000;0.2393;0.1003;
810.0000;0.2385;0.0931;
810.3000;0.2401;0.0908;
810.6000;0.2385;0.0884;
810.9000;0.2401;0.0931;
811.2000;0.2377;0.0884;
811.5000;0.2385;0.0884;
811.8000;0.2401;0.1027;
812.1000;0.2385;0.1051;
812.4000;0.2385;0.1027;
812.7000;0.2409;0.1051;
813.0000;0.2401;0.1051;
813.3000;0.2369;0.1003;
813.6000;0.2385;0.1122;
813.9000;0.2442;0.1337;
814.2000;0.2385;0.1075;
814.5000;0.2361;0.0979;
814.8000;0.2377;0.1099;
815.1000;0.2369;0.0979;
815.4000;0.2401;0.1027;
815.7000;0.2361;0.0955;
816.0000;0.2401;0.0908;
816.3000;0.2401;0.0955;
816.6000;0.2377;0.0955;
816.9000;0.2401;0.0955;
817.2000;0.2385;0.0860;
817.5000;0.2401;0.0884;
817.8000;0.2450;0.1003;
818.1000;0.2369;0.0764;
818.4000;0.2385;0.0836;
818.7000;0.2385;0.0836;
819.0000;0.2393;0.0788;
819.3000;0.2442;0.0836;
819.6000;0.2409;0.0836;
819.9000;0.2344;0.0669;
820.2000;0.2401;0.0860;
820.5000;0.2393;0.0884;
820.8000;0.2401;0.0860;
821.1000;0.2401;0.0931;
821.4000;0.2352;0.0812;
821.7000;0.2434;0.1003;
822.0000;0.2401;0.0931;
822.3000;0.2466;0.1075;
822.6000;0.2385;0.0836;
822.9000;0.2369;0.0764;
823.2000;0.2401;0.0860;
823.5000;0.2361;0.0788;
823.8000;0.2426;0.0908;
824.1000;0.2401;0.0884;
824.4000;0.2401;0.0955;
824.7000;0.2409;0.0955;
825.0000;0.2401;0.0955;
825.3000;0.2385;0.0955;
825.6000;0.2361;0.0955;
825.9000;0.2393;0.1027;
826.2000;0.2393;0.0979;
826.5000;0.2393;0.0908;
826.8000;0.2369;0.0908;
827.1000;0.2295;0.0645;
827.4000;0.2385;0.0836;
827.7000;0.2393;0.0884;
828.0000;0.2393;0.0860;
828.3000;0.2385;0.0836;
828.6000;0.2401;0.0836;
828.9000;0.2385;0.0812;
829.2000;0.2369;0.0764;
829.5000;0.2369;0.0788;
829.8000;0.2393;0.0812;
830.1000;0.2401;0.0908;
830.4000;0.2369;0.0860;
830.7000;0.2393;0.0860;
831.0000;0.2393;0.0931;
831.3000;0.2352;0.0884;
831.6000;0.2385;0.0979;
831.9000;0.2401;0.1027;
832.2000;0.2401;0.1122;
832.5000;0.2401;0.1194;
832.8000;0.2385;0.1266;
833.1000;0.2393;0.1242;
833.4000;0.2385;0.1266;
833.7000;0.2401;0.1266;
834.0000;0.2393;0.1218;
834.3000;0.2483;0.1337;
834.6000;0.2385;0.1075;
834.9000;0.2401;0.1194;
835.2000;0.2361;0.1122;
835.5000;0.2393;0.1146;
835.8000;0.2377;0.1194;
836.1000;0.2393;0.1194;
836.4000;0.2393;0.1266;
836.7000;0.2377;0.1290;
837.0000;0.2393;0.1337;
837.3000;0.2401;0.1242;
837.6000;0.2401;0.1122;
837.9000;0.2409;0.1170;
838.2000;0.2377;0.1170;
838.5000;0.2361;0.1051;
838.8000;0.2393;0.1194;
839.1000;0.2393;0.1194;
839.4000;0.2361;0.1075;
839.7000;0.2393;0.1051;
840.0000;0.2385;0.0979;
840.3000;0.2409;0.0955;
840.6000;0.2401;0.0884;
840.9000;0.2369;0.0884;
841.2000;0.2418;0.1003;
841.5000;0.2401;0.0931;
841.8000;0.2369;0.0836;
842.1000;0.2369;0.0836;
842.4000;0.2401;0.0860;
842.7000;0.2418;0.0884;
843.0000;0.2385;0.0788;
843.3000;0.2385;0.0812;
843.6000;0.2385;0.0788;
843.9000;0.2385;0.0764;
844.2000;0.2393;0.0860;
844.5000;0.2344;0.0716;
844.8000;0.2377;0.0812;
845.1000;0.2409;0.0860;
845.4000;0.2409;0.0955;
845.7000;0.2320;0.0693;
846.0000;0.2401;0.0860;
846.3000;0.2401;0.0884;
846.6000;0.2426;0.0979;
846.9000;0.2401;0.0955;
847.2000;0.2393;0.0931;
847.5000;0.2401;0.0908;
847.8000;0.2442;0.1075;
848.1000;0.2393;0.1003;
848.4000;0.2361;0.0931;
848.7000;0.2393;0.1075;
849.0000;0.2385;0.1075;
849.3000;0.2377;0.0979;
849.6000;0.2385;0.0979;
849.9000;0.2385;0.0955;
850.2000;0.2401;0.0931;
850.5000;0.2393;0.0908;
850.8000;0.2409;0.1003;
851.1000;0.2426;0.1027;
851.4000;0.2393;0.0955;
851.7000;0.2393;0.0931;
852.0000;0.2393;0.0955;
852.3000;0.2450;0.1099;
852.6000;0.2401;0.0955;
852.9000;0.2409;0.0860;
853.2000;0.2401;0.0860;
853.5000;0.2369;0.0693;
853.8000;0.2393;0.0788;
854.1000;0.2361;0.0716;
854.4000;0.2409;0.0836;
854.7000;0.2393;0.0955;
855.0000;0.2401;0.0908;
855.3000;0.2401;0.0884;
855.6000;0.2401;0.0979;
855.9000;0.2409;0.1051;
856.2000;0.2393;0.1051;
856.5000;0.2483;0.1290;
856.8000;0.2328;0.0884;
857.1000;0.2385;0.1027;
857.4000;0.2401;0.1003;
857.7000;0.2409;0.0931;
858.0000;0.2352;0.0836;
858.3000;0.2393;0.1051;
858.6000;0.2507;0.1409;
858.9000;0.2385;0.1122;
859.2000;0.2369;0.1003;
859.5000;0.2385;0.1051;
859.8000;0.2336;0.0788;
860.1000;0.2263;0.0597;
860.4000;0.2393;0.0884;
860.7000;0.2393;0.0836;
861.0000;0.2418;0.0860;
861.3000;0.2409;0.0812;
861.6000;0.2377;0.0836;
861.9000;0.2377;0.0908;
862.2000;0.2377;0.0979;
862.5000;0.2393;0.1051;
862.8000;0.2401;0.1099;
863.1000;0.2377;0.1075;
863.4000;0.2401;0.1099;
863.7000;0.2377;0.1027;
864.0000;0.2409;0.1051;
864.3000;0.2426;0.1075;
864.6000;0.2442;0.1242;
864.9000;0.2491;0.1337;
865.2000;0.2409;0.1170;
865.5000;0.2385;0.1122;
865.8000;0.2393;0.1075;
866.1000;0.2385;0.1075;
866.4000;0.2483;0.1385;
866.7000;0.2393;0.1099;
867.0000;0.2401;0.1075;
867.3000;0.2483;0.1266;
867.6000;0.2393;0.1122;
867.9000;0.2401;0.1122;
868.2000;0.2401;0.1122;
868.5000;0.2434;0.1170;
868.8000;0.2393;0.1051;
869.1000;0.2361;0.0979;
869.4000;0.2393;0.1099;
869.7000;0.2401;0.1027;
870.0000;0.2385;0.0931;
870.3000;0.2393;0.0908;
870.6000;0.2352;0.0740;
870.9000;0.2295;0.0621;
871.2000;0.2409;0.0931;
871.5000;0.2401;0.0908;
871.8000;0.2393;0.0884;
872.1000;0.2483;0.1075;
872.4000;0.2393;0.0836;
872.7000;0.2409;0.0836;
873.0000;0.2401;0.0860;
873.3000;0.2442;0.0979;
873.6000;0.2401;0.0955;
873.9000;0.2393;0.0908;
874.2000;0.2409;0.0908;
874.5000;0.2393;0.0908;
874.8000;0.2393;0.0860;
875.1000;0.2393;0.0812;
875.4000;0.2377;0.0860;
875.7000;0.2401;0.0860;
876.0000;0.2409;0.0908;
876.3000;0.2328;0.0597;
876.6000;0.2458;0.0931;
876.9000;0.2409;0.0812;
877.2000;0.2344;0.0693;
877.5000;0.2515;0.1194;
877.8000;0.2393;0.0931;
878.1000;0.2385;0.0908;
878.4000;0.2409;0.0908;
878.7000;0.2418;0.0931;
879.0000;0.2418;0.0955;
879.3000;0.2409;0.0931;
879.6000;0.2418;0.1027;
879.9000;0.2336;0.0788;
880.2000;0.2409;0.1003;
880.5000;0.2393;0.0979;
880.8000;0.2385;0.0836;
881.1000;0.2369;0.0836;
881.4000;0.2393;0.0955;
881.7000;0.2361;0.0788;
882.0000;0.2393;0.0860;
882.3000;0.2409;0.0860;
882.6000;0.2418;0.0955;
882.9000;0.2401;0.0908;
883.2000;0.2393;0.0884;
883.5000;0.2369;0.0908;
883.8000;0.2401;0.1003;
884.1000;0.2418;0.1075;
884.4000;0.2369;0.0931;
884.7000;0.2418;0.0955;
885.0000;0.2377;0.0860;
885.3000;0.2393;0.0812;
885.6000;0.2393;0.0788;
885.9000;0.2385;0.0812;
886.2000;0.2385;0.0812;
886.5000;0.2418;0.0884;
886.8000;0.2377;0.0836;
887.1000;0.2426;0.0955;
887.4000;0.2385;0.0979;
887.7000;0.2377;0.1027;
888.0000;0.2401;0.1027;
888.3000;0.2393;0.0884;
888.6000;0.2393;0.0884;
888.9000;0.2320;0.0669;
889.2000;0.2409;0.0979;
889.5000;0.2401;0.1027;
889.8000;0.2385;0.0908;
890.1000;0.2401;0.0931;
890.4000;0.2385;0.0836;
890.7000;0.2393;0.0860;
891.0000;0.2393;0.0884;
891.3000;0.2426;0.1003;
891.6000;0.2409;0.0931;
891.9000;0.2409;0.0979;
892.2000;0.2426;0.1122;
892.5000;0.2409;0.1122;
892.8000;0.2377;0.1170;
893.1000;0.2401;0.1194;
893.4000;0.2369;0.1051;
893.7000;0.2418;0.1170;
894.0000;0.2385;0.1027;
894.3000;0.2393;0.1099;
894.6000;0.2369;0.1027;
894.9000;0.2344;0.0955;
895.2000;0.2418;0.1122;
895.5000;0.2401;0.1099;
895.8000;0.2352;0.0979;
896.1000;0.2352;0.0931;
896.4000;0.2401;0.1027;
896.7000;0.2393;0.0979;
897.0000;0.2377;0.0884;
897.3000;0.2393;0.0860;
897.6000;0.2385;0.0860;
897.9000;0.2385;0.0884;
898.2000;0.2361;0.0836;
898.5000;0.2377;0.0908;
898.8000;0.2377;0.0884;
899.1000;0.2515;0.1146;
899.4000;0.2450;0.0979;
899.7000;0.2361;0.0740;
900.0000;0.2385;0.0860;
900.3000;0.2401;0.0908;
900.6000;0.2369;0.0788;
900.9000;0.2385;0.0908;
901.2000;0.2393;0.0955;
901.5000;0.2393;0.0908;
901.8000;0.2393;0.0955;
902.1000;0.2409;0.0955;
902.4000;0.2401;0.0955;
902.7000;0.2409;0.1051;
903.0000;0.2401;0.0931;
903.3000;0.2385;0.0955;
903.6000;0.2385;0.0931;
903.9000;0.2377;0.0884;
904.2000;0.2418;0.1003;
904.5000;0.2401;0.0979;
904.8000;0.2409;0.0955;
905.1000;0.2385;0.0884;
905.4000;0.2393;0.0908;
905.7000;0.2377;0.0860;
906.0000;0.2369;0.0740;
906.3000;0.2377;0.0788;
906.6000;0.2385;0.0788;
906.9000;0.2344;0.0669;
907.2000;0.2418;0.0836;
907.5000;0.2458;0.1051;
907.8000;0.2287;0.0669;
908.1000;0.2409;0.0979;
908.4000;0.2401;0.0955;
908.7000;0.2385;0.0884;
909.0000;0.2377;0.0955;
909.3000;0.2385;0.0931;
909.6000;0.2409;0.0860;
909.9000;0.2377;0.0836;
910.2000;0.2393;0.0884;
910.5000;0.2409;0.0908;
910.8000;0.2385;0.0908;
911.1000;0.2393;0.0884;
911.4000;0.2312;0.0764;
911.7000;0.2385;0.1003;
912.0000;0.2393;0.1051;
912.3000;0.2304;0.0740;
912.6000;0.2434;0.1051;
912.9000;0.2434;0.1099;
913.2000;0.2401;0.1027;
913.5000;0.2385;0.1027;
913.8000;0.2377;0.0955;
914.1000;0.2377;0.0931;
914.4000;0.2491;0.1170;
914.7000;0.2418;0.0955;
915.0000;0.2352;0.0764;
915.3000;0.2393;0.0716;
915.6000;0.2499;0.1075;
915.9000;0.2344;0.0716;
916.2000;0.2401;0.0931;
916.5000;0.2393;0.0931;
916.8000;0.2426;0.1051;
917.1000;0.2409;0.1003;
917.4000;0.2385;0.0955;
917.7000;0.2328;0.0884;
918.0000;0.2434;0.1122;
918.3000;0.2418;0.1051;
918.6000;0.2385;0.0979;
918.9000;0.2377;0.0908;
919.2000;0.2393;0.1003;
919.5000;0.2377;0.0955;
919.8000;0.2393;0.0955;
920.1000;0.2434;0.1075;
920.4000;0.2418;0.0908;
920.7000;0.2393;0.0908;
921.0000;0.2393;0.0884;
921.3000;0.2401;0.0860;
921.6000;0.2426;0.0860;
921.9000;0.2401;0.0812;
922.2000;0.2393;0.0908;
922.5000;0.2401;0.0955;
922.8000;0.2409;0.1003;
923.1000;0.2401;0.1027;
923.4000;0.2377;0.0979;
923.7000;0.2409;0.0979;
924.0000;0.2393;0.1003;
924.3000;0.2393;0.0955;
924.6000;0.2377;0.0955;
924.9000;0.2401;0.0860;
925.2000;0.2377;0.0788;
925.5000;0.2393;0.0908;
925.8000;0.2418;0.0955;
926.1000;0.2393;0.0788;
926.4000;0.2385;0.0788;
926.7000;0.2401;0.0788;
927.0000;0.2320;0.0454;
927.3000;0.2401;0.0693;
927.6000;0.2393;0.0693;
927.9000;0.2352;0.0669;
928.2000;0.2409;0.0884;
928.5000;0.2385;0.0908;
928.8000;0.2385;0.0860;
929.1000;0.2393;0.0884;
929.4000;0.2393;0.0884;
929.7000;0.2409;0.0979;
930.0000;0.2377;0.0955;
930.3000;0.2385;0.0955;
930.6000;0.2409;0.1075;
930.9000;0.2401;0.0931;
931.2000;0.2385;0.0884;
931.5000;0.2377;0.0836;
931.8000;0.2393;0.0979;
932.1000;0.2385;0.1027;
932.4000;0.2393;0.1051;
932.7000;0.2369;0.0908;
933.0000;0.2401;0.0979;
933.3000;0.2409;0.1027;
933.6000;0.2401;0.0955;
933.9000;0.2401;0.1003;
934.2000;0.2377;0.0836;
934.5000;0.2385;0.0740;
934.8000;0.2393;0.0764;
935.1000;0.2377;0.0716;
935.4000;0.2377;0.0740;
935.7000;0.2401;0.0836;
936.0000;0.2352;0.0788;
936.3000;0.2426;0.0908;
936.6000;0.2393;0.0788;
936.9000;0.2369;0.0788;
937.2000;0.2426;0.0931;
937.5000;0.2393;0.0908;
937.8000;0.2401;0.0955;
938.1000;0.2385;0.0931;
938.4000;0.2426;0.1075;
938.7000;0.2393;0.0931;
939.0000;0.2369;0.0860;
939.3000;0.2401;0.0860;
939.6000;0.2295;0.0549;
939.9000;0.2401;0.0860;
940.2000;0.2393;0.0836;
940.5000;0.2393;0.0836;
940.8000;0.2385;0.0812;
941.1000;0.2418;0.0884;
941.4000;0.2393;0.0740;
941.7000;0.2361;0.0669;
942.0000;0.2377;0.0788;
942.3000;0.2385;0.0788;
942.6000;0.2418;0.0884;
942.9000;0.2458;0.0979;
943.2000;0.2344;0.0716;
943.5000;0.2393;0.0812;
943.8000;0.2401;0.0812;
944.1000;0.2385;0.0884;
944.4000;0.2401;0.0908;
944.7000;0.2385;0.0860;
945.0000;0.2393;0.0788;
945.3000;0.2393;0.0716;
945.6000;0.2377;0.0669;
945.9000;0.2393;0.0693;
946.2000;0.2409;0.0788;
946.5000;0.2385;0.0740;
946.8000;0.2393;0.0764;
947.1000;0.2393;0.0788;
947.4000;0.2393;0.0812;
947.7000;0.2426;0.0884;
948.0000;0.2393;0.0812;
948.3000;0.2377;0.0716;
948.6000;0.2344;0.0693;
948.9000;0.2401;0.0788;
949.2000;0.2401;0.0740;
949.5000;0.2401;0.0812;
949.8000;0.2393;0.0716;
950.1000;0.2393;0.0669;
950.4000;0.2344;0.0669;
950.7000;0.2426;0.0860;
951.0000;0.2336;0.0621;
951.3000;0.2385;0.0812;
951.6000;0.2377;0.0812;
951.9000;0.2434;0.0908;
952.2000;0.2312;0.0573;
952.5000;0.2401;0.0693;
952.8000;0.2344;0.0502;
953.1000;0.2369;0.0621;
953.4000;0.2369;0.0693;
953.7000;0.2401;0.0908;
954.0000;0.2377;0.0836;
954.3000;0.2393;0.0812;
954.6000;0.2401;0.0788;
954.9000;0.2401;0.0693;
955.2000;0.2385;0.0669;
955.5000;0.2401;0.0788;
955.8000;0.2393;0.0812;
956.1000;0.2401;0.0740;
956.4000;0.2385;0.0669;
956.7000;0.2401;0.0693;
957.0000;0.2409;0.0836;
957.3000;0.2352;0.0693;
957.6000;0.2442;0.0979;
957.9000;0.2409;0.0836;
958.2000;0.2385;0.0788;
958.5000;0.2385;0.0812;
958.8000;0.2393;0.0788;
959.1000;0.2409;0.0788;
959.4000;0.2401;0.0764;
959.7000;0.2393;0.0740;
960.0000;0.2401;0.0884;
960.3000;0.2491;0.1194;
960.6000;0.2401;0.1003;
960.9000;0.2450;0.1146;
961.2000;0.2385;0.1027;
961.5000;0.2393;0.1027;
961.8000;0.2361;0.0931;
962.1000;0.2409;0.1027;
962.4000;0.2401;0.1003;
962.7000;0.2409;0.0955;
963.0000;0.2401;0.0908;
963.3000;0.2401;0.0836;
963.6000;0.2385;0.0931;
963.9000;0.2393;0.0955;
964.2000;0.2393;0.0908;
964.5000;0.2385;0.0955;
964.8000;0.2393;0.0955;
965.1000;0.2426;0.1051;
965.4000;0.2401;0.0979;
965.7000;0.2393;0.1003;
966.0000;0.2385;0.0979;
966.3000;0.2393;0.0979;
966.6000;0.2377;0.1027;
966.9000;0.2401;0.1051;
967.2000;0.2426;0.1027;
967.5000;0.2401;0.0955;
967.8000;0.2393;0.0955;
968.1000;0.2393;0.1099;
968.4000;0.2385;0.1075;
968.7000;0.2385;0.1027;
969.0000;0.2418;0.1099;
969.3000;0.2409;0.1075;
969.6000;0.2442;0.1146;
969.9000;0.2409;0.1075;
970.2000;0.2491;0.1290;
970.5000;0.2401;0.1027;
970.8000;0.2418;0.1003;
971.1000;0.2401;0.1003;
971.4000;0.2385;0.0979;
971.7000;0.2377;0.1027;
972.0000;0.2401;0.1075;
972.3000;0.2401;0.1099;
972.6000;0.2426;0.1218;
972.9000;0.2377;0.1027;
973.2000;0.2393;0.1051;
973.5000;0.2434;0.1075;
973.8000;0.2466;0.1146;
974.1000;0.2352;0.0836;
974.4000;0.2426;0.0955;
974.7000;0.2369;0.0836;
975.0000;0.2377;0.0908;
975.3000;0.2344;0.0860;
975.6000;0.2369;0.0979;
975.9000;0.2385;0.1099;
976.2000;0.2426;0.1242;
976.5000;0.2409;0.1170;
976.8000;0.2352;0.1003;
977.1000;0.2409;0.1075;
977.4000;0.2385;0.1027;
977.7000;0.2442;0.1194;
978.0000;0.2369;0.1003;
978.3000;0.2393;0.1003;
978.6000;0.2377;0.0955;
978.9000;0.2426;0.1003;
979.2000;0.2393;0.0860;
979.5000;0.2385;0.0836;
979.8000;0.2377;0.0812;
980.1000;0.2401;0.0979;
980.4000;0.2409;0.0931;
980.7000;0.2393;0.0931;
981.0000;0.2401;0.0931;
981.3000;0.2393;0.0955;
981.6000;0.2401;0.0979;
981.9000;0.2418;0.1003;
982.2000;0.2409;0.0908;
982.5000;0.2377;0.0908;
982.8000;0.2393;0.0955;
983.1000;0.2409;0.0931;
983.4000;0.2418;0.0908;
983.7000;0.2401;0.0860;
984.0000;0.2377;0.0860;
984.3000;0.2409;0.0836;
984.6000;0.2401;0.0788;
984.9000;0.2352;0.0621;
985.2000;0.2401;0.0836;
985.5000;0.2418;0.0931;
985.8000;0.2409;0.0955;
986.1000;0.2409;0.0955;
986.4000;0.2418;0.1027;
986.7000;0.2393;0.1027;
987.0000;0.2409;0.1003;
987.3000;0.2393;0.0979;
987.6000;0.2401;0.1003;
987.9000;0.2328;0.0764;
988.2000;0.2409;0.0979;
988.5000;0.2401;0.0955;
988.8000;0.2385;0.0908;
989.1000;0.2369;0.0812;
989.4000;0.2393;0.0860;
989.7000;0.2409;0.0860;
990.0000;0.2377;0.0788;
990.3000;0.2393;0.0884;
990.6000;0.2393;0.0884;
990.9000;0.2401;0.0955;
991.2000;0.2409;0.1003;
991.5000;0.2352;0.0884;
991.8000;0.2393;0.0955;
992.1000;0.2523;0.1194;
992.4000;0.2377;0.0884;
992.7000;0.2369;0.0812;
993.0000;0.2385;0.0884;
993.3000;0.2377;0.0884;
993.6000;0.2401;0.1051;
993.9000;0.2401;0.1003;
994.2000;0.2393;0.1027;
994.5000;0.2393;0.1027;
994.8000;0.2377;0.1003;
995.1000;0.2418;0.1194;
995.4000;0.2344;0.0955;
995.7000;0.2426;0.1075;
996.0000;0.2409;0.0955;
996.3000;0.2409;0.0955;
996.6000;0.2409;0.1003;
996.9000;0.2418;0.1027;
997.2000;0.2385;0.1027;
997.5000;0.2369;0.1051;
997.8000;0.2409;0.1027;
998.1000;0.2409;0.1170;
998.4000;0.2393;0.1122;
998.7000;0.2385;0.1075;
999.0000;0.2442;0.1146;
999.3000;0.2393;0.1003;
999.6000;0.2377;0.0931;
999.9000;0.2401;0.1027;
1000.2000;0.2393;0.0884;
1000.5000;0.2426;0.0955;
1000.8000;0.2393;0.0884;
1001.1000;0.2418;0.0931;
1001.4000;0.2418;0.0908;
1001.7000;0.2418;0.0836;
1002.0000;0.2393;0.0764;
1002.3000;0.2401;0.0812;
1002.6000;0.2409;0.0788;
1002.9000;0.2385;0.0788;
1003.2000;0.2409;0.0908;
1003.5000;0.2377;0.0860;
1003.8000;0.2385;0.0908;
1004.1000;0.2426;0.0979;
1004.4000;0.2393;0.0979;
1004.7000;0.2385;0.0884;
1005.0000;0.2426;0.0908;
1005.3000;0.2377;0.0788;
1005.6000;0.2418;0.0931;
1005.9000;0.2409;0.0908;
1006.2000;0.2385;0.0908;
1006.5000;0.2499;0.1194;
1006.8000;0.2418;0.0908;
1007.1000;0.2409;0.0884;
1007.4000;0.2401;0.0884;
1007.7000;0.2466;0.1051;
1008.0000;0.2401;0.0931;
1008.3000;0.2409;0.0979;
1008.6000;0.2393;0.1003;
1008.9000;0.2287;0.0693;
1009.2000;0.2385;0.0908;
1009.5000;0.2393;0.0884;
1009.8000;0.2401;0.0884;
1010.1000;0.2483;0.1051;
1010.4000;0.2409;0.0812;
1010.7000;0.2385;0.0788;
1011.0000;0.2409;0.0860;
1011.3000;0.2344;0.0788;
1011.6000;0.2409;0.0955;
1011.9000;0.2377;0.0908;
1012.2000;0.2385;0.0908;
1012.5000;0.2401;0.0931;
1012.8000;0.2434;0.1027;
1013.1000;0.2336;0.0716;
1013.4000;0.2401;0.0908;
1013.7000;0.2401;0.0955;
1014.0000;0.2401;0.0979;
1014.3000;0.2434;0.1170;
1014.6000;0.2401;0.1027;
1014.9000;0.2409;0.0955;
1015.2000;0.2328;0.0764;
1015.5000;0.2377;0.0836;
1015.8000;0.2393;0.0884;
1016.1000;0.2336;0.0764;
1016.4000;0.2393;0.0955;
1016.7000;0.2385;0.0836;
1017.0000;0.2393;0.0860;
1017.3000;0.2369;0.0764;
1017.6000;0.2393;0.0908;
1017.9000;0.2409;0.0908;
1018.2000;0.2401;0.0931;
1018.5000;0.2401;0.0979;
1018.8000;0.2393;0.1051;
1019.1000;0.2393;0.1075;
1019.4000;0.2377;0.1003;
1019.7000;0.2401;0.1003;
1020.0000;0.2385;0.0979;
1020.3000;0.2409;0.1122;
1020.6000;0.2385;0.1003;
1020.9000;0.2401;0.1027;
1021.2000;0.2393;0.0931;
1021.5000;0.2385;0.0836;
1021.8000;0.2401;0.0979;
1022.1000;0.2393;0.1051;
1022.4000;0.2385;0.1003;
1022.7000;0.2401;0.1099;
1023.0000;0.2507;0.1481;
1023.3000;0.2393;0.1194;
1023.6000;0.2418;0.1146;
1023.9000;0.2450;0.1266;
1024.2000;0.2450;0.1194;
1024.5000;0.2377;0.1075;
1024.8000;0.2393;0.1051;
1025.1000;0.2401;0.1075;
1025.4000;0.2393;0.1075;
1025.7000;0.2352;0.0979;
1026.0000;0.2393;0.1122;
1026.3000;0.2385;0.1122;
1026.6000;0.2409;0.1218;
1026.9000;0.2475;0.1314;
1027.2000;0.2401;0.1027;
1027.5000;0.2401;0.1075;
1027.8000;0.2393;0.1051;
1028.1000;0.2409;0.1122;
1028.4000;0.2385;0.1146;
1028.7000;0.2393;0.1099;
1029.0000;0.2401;0.1099;
1029.3000;0.2401;0.1170;
1029.6000;0.2393;0.1242;
1029.9000;0.2393;0.1218;
1030.2000;0.2377;0.1122;
1030.5000;0.2418;0.1170;
1030.8000;0.2336;0.0931;
1031.1000;0.2418;0.1122;
1031.4000;0.2401;0.1051;
1031.7000;0.2418;0.1146;
1032.0000;0.2409;0.1146;
1032.3000;0.2393;0.1027;
1032.6000;0.2409;0.1027;
1032.9000;0.2393;0.0979;
1033.2000;0.2418;0.1051;
1033.5000;0.2320;0.0836;
1033.8000;0.2442;0.1122;
1034.1000;0.2450;0.1075;
1034.4000;0.2361;0.0812;
1034.7000;0.2385;0.0931;
1035.0000;0.2409;0.1051;
1035.3000;0.2385;0.1003;
1035.6000;0.2377;0.1027;
1035.9000;0.2393;0.1051;
1036.2000;0.2393;0.1003;
1036.5000;0.2409;0.0979;
1036.8000;0.2385;0.0884;
1037.1000;0.2426;0.0955;
1037.4000;0.2369;0.0788;
1037.7000;0.2426;0.0908;
1038.0000;0.2401;0.0908;
1038.3000;0.2393;0.0884;
1038.6000;0.2401;0.0884;
1038.9000;0.2401;0.0908;
1039.2000;0.2369;0.0908;
1039.5000;0.2418;0.0931;
1039.8000;0.2385;0.0812;
1040.1000;0.2393;0.0693;
1040.4000;0.2385;0.0669;
1040.7000;0.2409;0.0764;
1041.0000;0.2409;0.0836;
1041.3000;0.2409;0.0788;
1041.6000;0.2377;0.0764;
1041.9000;0.2409;0.0931;
1042.2000;0.2409;0.0788;
1042.5000;0.2401;0.0788;
1042.8000;0.2401;0.0764;
1043.1000;0.2418;0.0812;
1043.4000;0.2418;0.0788;
1043.7000;0.2409;0.0693;
1044.0000;0.2401;0.0669;
1044.3000;0.2418;0.0693;
1044.6000;0.2418;0.0645;
1044.9000;0.2401;0.0621;
1045.2000;0.2393;0.0549;
1045.5000;0.2361;0.0502;
1045.8000;0.2393;0.0645;
1046.1000;0.2409;0.0669;
1046.4000;0.2385;0.0693;
1046.7000;0.2369;0.0716;
1047.0000;0.2409;0.0908;
1047.3000;0.2409;0.0955;
1047.6000;0.2418;0.0931;
1047.9000;0.2401;0.0860;
1048.2000;0.2418;0.0860;
1048.5000;0.2409;0.0788;
1048.8000;0.2393;0.0788;
1049.1000;0.2401;0.0812;
1049.4000;0.2369;0.0764;
1049.7000;0.2393;0.0812;
1050.0000;0.2385;0.0788;
1050.3000;0.2369;0.0836;
1050.6000;0.2377;0.0860;
1050.9000;0.2393;0.0931;
1051.2000;0.2385;0.0908;
1051.5000;0.2344;0.0836;
1051.8000;0.2377;0.0979;
1052.1000;0.2401;0.0931;
1052.4000;0.2409;0.0908;
1052.7000;0.2409;0.0836;
1053.0000;0.2377;0.0669;
1053.3000;0.2418;0.0788;
1053.6000;0.2409;0.0740;
1053.9000;0.2401;0.0621;
1054.2000;0.2393;0.0573;
1054.5000;0.2409;0.0597;
1054.8000;0.2352;0.0525;
1055.1000;0.2418;0.0740;
1055.4000;0.2409;0.0788;
1055.7000;0.2442;0.0884;
1056.0000;0.2320;0.0597;
1056.3000;0.2401;0.0669;
1056.6000;0.2377;0.0693;
1056.9000;0.2385;0.0669;
1057.2000;0.2409;0.0740;
1057.5000;0.2401;0.0716;
1057.8000;0.2466;0.0860;
1058.1000;0.2393;0.0621;
1058.4000;0.2409;0.0693;
1058.7000;0.2426;0.0860;
1059.0000;0.2401;0.0812;
1059.3000;0.2377;0.0788;
1059.6000;0.2401;0.0836;
1059.9000;0.2393;0.0693;
1060.2000;0.2401;0.0716;
1060.5000;0.2418;0.0788;
1060.8000;0.2377;0.0764;
1061.1000;0.2409;0.0812;
1061.4000;0.2344;0.0716;
1061.7000;0.2369;0.0836;
1062.0000;0.2466;0.1003;
1062.3000;0.2401;0.0836;
1062.6000;0.2418;0.0836;
1062.9000;0.2418;0.0908;
1063.2000;0.2279;0.0693;
1063.5000;0.2409;0.0931;
1063.8000;0.2409;0.0931;
1064.1000;0.2426;0.1003;
1064.4000;0.2418;0.0979;
1064.7000;0.2401;0.0884;
1065.0000;0.2426;0.0836;
1065.3000;0.2409;0.0860;
1065.6000;0.2409;0.0884;
1065.9000;0.2418;0.0931;
1066.2000;0.2393;0.0884;
1066.5000;0.2304;0.0645;
1066.8000;0.2409;0.0884;
1067.1000;0.2352;0.0740;
1067.4000;0.2401;0.0884;
1067.7000;0.2401;0.0908;
1068.0000;0.2344;0.0764;
1068.3000;0.2409;0.0979;
1068.6000;0.2393;0.0860;
1068.9000;0.2385;0.0764;
1069.2000;0.2377;0.0764;
1069.5000;0.2393;0.0812;
1069.8000;0.2409;0.0836;
1070.1000;0.2344;0.0597;
1070.4000;0.2475;0.0955;
1070.7000;0.2409;0.0740;
1071.0000;0.2401;0.0764;
1071.3000;0.2393;0.0764;
1071.6000;0.2393;0.0645;
1071.9000;0.2393;0.0716;
1072.2000;0.2385;0.0716;
1072.5000;0.2409;0.0788;
1072.8000;0.2393;0.0836;
1073.1000;0.2385;0.0884;
1073.4000;0.2401;0.0884;
1073.7000;0.2401;0.0884;
1074.0000;0.2401;0.0955;
1074.3000;0.2393;0.0979;
1074.6000;0.2385;0.0979;
1074.9000;0.2409;0.1027;
1075.2000;0.2409;0.0979;
1075.5000;0.2385;0.0979;
1075.8000;0.2369;0.0884;
1076.1000;0.2393;0.0931;
1076.4000;0.2385;0.0884;
1076.7000;0.2377;0.0812;
1077.0000;0.2409;0.0955;
1077.3000;0.2393;0.0979;
1077.6000;0.2401;0.0955;
1077.9000;0.2418;0.1122;
1078.2000;0.2409;0.1003;
1078.5000;0.2401;0.1027;
1078.8000;0.2393;0.0931;
1079.1000;0.2409;0.0836;
1079.4000;0.2418;0.0764;
1079.7000;0.2369;0.0764;
1080.0000;0.2418;0.1027;
1080.3000;0.2409;0.0931;
1080.6000;0.2409;0.0955;
1080.9000;0.2401;0.0955;
1081.2000;0.2361;0.0812;
1081.5000;0.2409;0.0860;
1081.8000;0.2401;0.0836;
1082.1000;0.2352;0.0693;
1082.4000;0.2393;0.0716;
1082.7000;0.2418;0.0764;
1083.0000;0.2409;0.0764;
1083.3000;0.2401;0.0764;
1083.6000;0.2393;0.0740;
1083.9000;0.2393;0.0716;
1084.2000;0.2434;0.0812;
1084.5000;0.2409;0.0764;
1084.8000;0.2385;0.0621;
1085.1000;0.2401;0.0573;
1085.4000;0.2401;0.0573;
1085.7000;0.2450;0.0764;
1086.0000;0.2393;0.0669;
1086.3000;0.2393;0.0621;
1086.6000;0.2401;0.0669;
1086.9000;0.2401;0.0669;
1087.2000;0.2385;0.0573;
1087.5000;0.2393;0.0502;
1087.8000;0.2377;0.0430;
1088.1000;0.2393;0.0478;
1088.4000;0.2401;0.0525;
1088.7000;0.2401;0.0502;
1089.0000;0.2409;0.0525;
1089.3000;0.2409;0.0645;
1089.6000;0.2409;0.0621;
1089.9000;0.2393;0.0645;
1090.2000;0.2515;0.0979;
1090.5000;0.2377;0.0716;
1090.8000;0.2361;0.0525;
1091.1000;0.2393;0.0621;
1091.4000;0.2401;0.0645;
1091.7000;0.2409;0.0645;
1092.0000;0.2458;0.0693;
1092.3000;0.2418;0.0549;
1092.6000;0.2401;0.0573;
1092.9000;0.2377;0.0597;
1093.2000;0.2401;0.0716;
1093.5000;0.2426;0.0884;
1093.8000;0.2385;0.0740;
1094.1000;0.2401;0.0884;
1094.4000;0.2393;0.0812;
1094.7000;0.2401;0.0788;
1095.0000;0.2352;0.0693;
1095.3000;0.2409;0.0788;
1095.6000;0.2393;0.0860;
1095.9000;0.2393;0.0955;
1096.2000;0.2401;0.0979;
1096.5000;0.2409;0.0884;
1096.8000;0.2393;0.0931;
1097.1000;0.2409;0.0955;
1097.4000;0.2385;0.0908;
1097.7000;0.2401;0.0955;
1098.0000;0.2401;0.1003;
1098.3000;0.2418;0.1099;
1098.6000;0.2418;0.1099;
1098.9000;0.2385;0.0908;
1099.2000;0.2426;0.0955;
1099.5000;0.2401;0.0836;
1099.8000;0.2409;0.0931;
1100.1000;0.2393;0.0955;
1100.4000;0.2393;0.0931;
1100.7000;0.2393;0.0931;
1101.0000;0.2409;0.0979;
1101.3000;0.2369;0.0884;
1101.6000;0.2393;0.0931;
1101.9000;0.2426;0.0979;
1102.2000;0.2385;0.0884;
1102.5000;0.2393;0.0860;
1102.8000;0.2385;0.0812;
1103.1000;0.2393;0.0788;
1103.4000;0.2409;0.0812;
1103.7000;0.2409;0.0836;
1104.0000;0.2515;0.1194;
1104.3000;0.2393;0.0931;
1104.6000;0.2418;0.1003;
1104.9000;0.2393;0.0955;
1105.2000;0.2409;0.0955;
1105.5000;0.2401;0.0931;
1105.8000;0.2401;0.0979;
1106.1000;0.2418;0.1099;
1106.4000;0.2393;0.1051;
1106.7000;0.2385;0.1051;
1107.0000;0.2304;0.0836;
1107.3000;0.2409;0.1051;
1107.6000;0.2393;0.0979;
1107.9000;0.2393;0.0955;
1108.2000;0.2385;0.0931;
1108.5000;0.2336;0.0860;
1108.8000;0.2409;0.1003;
1109.1000;0.2393;0.0979;
1109.4000;0.2401;0.1003;
1109.7000;0.2466;0.1146;
1110.0000;0.2409;0.0955;
1110.3000;0.2393;0.0931;
1110.6000;0.2401;0.0979;
1110.9000;0.2401;0.0955;
1111.2000;0.2401;0.0979;
1111.5000;0.2409;0.0955;
1111.8000;0.2377;0.0931;
1112.1000;0.2401;0.1003;
1112.4000;0.2377;0.1003;
1112.7000;0.2401;0.1027;
1113.0000;0.2361;0.0931;
1113.3000;0.2377;0.0979;
1113.6000;0.2393;0.1051;
1113.9000;0.2385;0.0979;
1114.2000;0.2393;0.1075;
1114.5000;0.2409;0.1027;
1114.8000;0.2409;0.1051;
1115.1000;0.2401;0.0979;
1115.4000;0.2385;0.0908;
1115.7000;0.2418;0.0979;
1116.0000;0.2401;0.0931;
1116.3000;0.2393;0.0931;
1116.6000;0.2352;0.0884;
1116.9000;0.2393;0.0931;
1117.2000;0.2377;0.0931;
1117.5000;0.2409;0.1027;
1117.8000;0.2401;0.1003;
1118.1000;0.2385;0.0979;
1118.4000;0.2336;0.0788;
1118.7000;0.2385;0.1122;
1119.0000;0.2401;0.1314;
1119.3000;0.2393;0.1242;
1119.6000;0.2409;0.1218;
1119.9000;0.2385;0.1122;
1120.2000;0.2393;0.1146;
1120.5000;0.2393;0.1075;
1120.8000;0.2393;0.1099;
1121.1000;0.2409;0.1122;
1121.4000;0.2401;0.1146;
1121.7000;0.2401;0.1146;
1122.0000;0.2393;0.1122;
1122.3000;0.2377;0.1051;
1122.6000;0.2401;0.1122;
1122.9000;0.2409;0.1146;
1123.2000;0.2434;0.1170;
1123.5000;0.2426;0.1051;
1123.8000;0.2401;0.0860;
1124.1000;0.2409;0.0884;
1124.4000;0.2352;0.0788;
1124.7000;0.2401;0.1027;
1125.0000;0.2434;0.1170;
1125.3000;0.2409;0.1122;
1125.6000;0.2328;0.0884;
1125.9000;0.2418;0.1075;
1126.2000;0.2434;0.1146;
1126.5000;0.2426;0.1122;
1126.8000;0.2344;0.0884;
1127.1000;0.2409;0.0931;
1127.4000;0.2442;0.1027;
1127.7000;0.2401;0.1027;
1128.0000;0.2401;0.1075;
1128.3000;0.2401;0.1075;
1128.6000;0.2401;0.1003;
1128.9000;0.2393;0.1003;
1129.2000;0.2442;0.1218;
1129.5000;0.2418;0.1242;
1129.8000;0.2393;0.1075;
1130.1000;0.2385;0.1099;
1130.4000;0.2418;0.1170;
1130.7000;0.2401;0.1170;
1131.0000;0.2409;0.1146;
1131.3000;0.2401;0.1146;
1131.6000;0.2393;0.1194;
1131.9000;0.2401;0.1146;
1132.2000;0.2401;0.1051;
1132.5000;0.2393;0.1003;
1132.8000;0.2393;0.1003;
1133.1000;0.2418;0.1075;
1133.4000;0.2401;0.1003;
1133.7000;0.2393;0.1003;
1134.0000;0.2385;0.0955;
1134.3000;0.2418;0.1027;
1134.6000;0.2385;0.0931;
1134.9000;0.2401;0.0908;
1135.2000;0.2418;0.1027;
1135.5000;0.2409;0.0979;
1135.8000;0.2401;0.0931;
1136.1000;0.2385;0.0884;
1136.4000;0.2312;0.0645;
1136.7000;0.2418;0.0931;
1137.0000;0.2426;0.0955;
1137.3000;0.2418;0.0884;
1137.6000;0.2426;0.0812;
1137.9000;0.2336;0.0621;
1138.2000;0.2393;0.0812;
1138.5000;0.2393;0.0908;
1138.8000;0.2352;0.0860;
1139.1000;0.2450;0.1099;
1139.4000;0.2450;0.1099;
1139.7000;0.2385;0.0979;
1140.0000;0.2483;0.1266;
1140.3000;0.2295;0.0764;
1140.6000;0.2409;0.1099;
1140.9000;0.2442;0.1099;
1141.2000;0.2385;0.0979;
1141.5000;0.2409;0.1051;
1141.8000;0.2401;0.1027;
1142.1000;0.2409;0.1051;
1142.4000;0.2393;0.1027;
1142.7000;0.2385;0.1003;
1143.0000;0.2450;0.1099;
1143.3000;0.2393;0.0955;
1143.6000;0.2385;0.0908;
1143.9000;0.2401;0.0884;
1144.2000;0.2393;0.0812;
1144.5000;0.2377;0.0740;
1144.8000;0.2393;0.0812;
1145.1000;0.2401;0.0860;
1145.4000;0.2409;0.0836;
1145.7000;0.2401;0.0812;
1146.0000;0.2352;0.0693;
1146.3000;0.2377;0.0836;
1146.6000;0.2418;0.0908;
1146.9000;0.2409;0.0908;
1147.2000;0.2401;0.0955;
1147.5000;0.2418;0.1027;
1147.8000;0.2401;0.1003;
1148.1000;0.2426;0.1027;
1148.4000;0.2401;0.0908;
1148.7000;0.2401;0.0860;
1149.0000;0.2409;0.0931;
1149.3000;0.2401;0.0955;
1149.6000;0.2418;0.1003;
1149.9000;0.2369;0.0788;
1150.2000;0.2401;0.0812;
1150.5000;0.2409;0.0931;
1150.8000;0.2442;0.1051;
1151.1000;0.2401;0.0979;
1151.4000;0.2409;0.0955;
1151.7000;0.2401;0.0884;
1152.0000;0.2418;0.0931;
1152.3000;0.2401;0.0908;
1152.6000;0.2393;0.0908;
1152.9000;0.2401;0.0908;
1153.2000;0.2393;0.0931;
1153.5000;0.2450;0.1122;
1153.8000;0.2393;0.0979;
1154.1000;0.2352;0.0908;
1154.4000;0.2393;0.0979;
1154.7000;0.2401;0.1027;
1155.0000;0.2393;0.1003;
1155.3000;0.2442;0.1099;
1155.6000;0.2385;0.0860;
1155.9000;0.2409;0.0955;
1156.2000;0.2426;0.1003;
1156.5000;0.2418;0.0955;
1156.8000;0.2418;0.0884;
1157.1000;0.2426;0.0931;
1157.4000;0.2434;0.0979;
1157.7000;0.2385;0.0812;
1158.0000;0.2393;0.0884;
1158.3000;0.2401;0.1051;
1158.6000;0.2434;0.1075;
1158.9000;0.2401;0.1003;
1159.2000;0.2409;0.0979;
1159.5000;0.2352;0.0812;
1159.8000;0.2418;0.1051;
1160.1000;0.2450;0.1075;
1160.4000;0.2434;0.1003;
1160.7000;0.2393;0.1003;
1161.0000;0.2418;0.1218;
1161.3000;0.2442;0.1266;
1161.6000;0.2401;0.1170;
1161.9000;0.2409;0.1242;
1162.2000;0.2377;0.1075;
1162.5000;0.2442;0.1194;
1162.8000;0.2304;0.0860;
1163.1000;0.2409;0.1027;
1163.4000;0.2393;0.1003;
1163.7000;0.2369;0.1027;
1164.0000;0.2361;0.1003;
1164.3000;0.2369;0.0979;
1164.6000;0.2418;0.1027;
1164.9000;0.2352;0.0860;
1165.2000;0.2426;0.0979;
1165.5000;0.2377;0.0908;
1165.8000;0.2409;0.0955;
1166.1000;0.2393;0.0979;
1166.4000;0.2287;0.0669;
1166.7000;0.2409;0.1003;
1167.0000;0.2401;0.1051;
1167.3000;0.2361;0.1051;
1167.6000;0.2312;0.0860;
1167.9000;0.2393;0.1003;
1168.2000;0.2393;0.1003;
1168.5000;0.2426;0.1122;
1168.8000;0.2401;0.1027;
1169.1000;0.2393;0.1003;
1169.4000;0.2409;0.0979;
1169.7000;0.2409;0.0955;
1170.0000;0.2401;0.0908;
1170.3000;0.2393;0.0884;
1170.6000;0.2393;0.1003;
1170.9000;0.2393;0.1075;
1171.2000;0.2409;0.1099;
1171.5000;0.2401;0.1122;
1171.8000;0.2409;0.1051;
1172.1000;0.2385;0.0979;
1172.4000;0.2499;0.1290;
1172.7000;0.2401;0.0979;
1173.0000;0.2336;0.0812;
1173.3000;0.2401;0.1027;
1173.6000;0.2377;0.0931;
1173.9000;0.2418;0.0979;
1174.2000;0.2401;0.0931;
1174.5000;0.2409;0.1003;
1174.8000;0.2409;0.0955;
1175.1000;0.2377;0.0836;
1175.4000;0.2426;0.1051;
1175.7000;0.2377;0.0931;
1176.0000;0.2393;0.1099;
1176.3000;0.2401;0.1170;
1176.6000;0.2458;0.1266;
1176.9000;0.2393;0.1099;
1177.2000;0.2385;0.0979;
1177.5000;0.2475;0.1170;
1177.8000;0.2401;0.1027;
1178.1000;0.2499;0.1242;
1178.4000;0.2369;0.0908;
1178.7000;0.2263;0.0645;
1179.0000;0.2458;0.1075;
1179.3000;0.2393;0.0860;
1179.6000;0.2401;0.0812;
1179.9000;0.2401;0.0884;
1180.2000;0.2369;0.0788;
1180.5000;0.2361;0.0740;
1180.8000;0.2385;0.0812;
1181.1000;0.2401;0.0788;
1181.4000;0.2401;0.0764;
1181.7000;0.2393;0.0669;
1182.0000;0.2426;0.0788;
1182.3000;0.2377;0.0716;
1182.6000;0.2418;0.0860;
1182.9000;0.2393;0.0812;
1183.2000;0.2426;0.0836;
1183.5000;0.2401;0.0716;
1183.8000;0.2409;0.0740;
1184.1000;0.2393;0.0716;
1184.4000;0.2393;0.0716;
1184.7000;0.2401;0.0812;
1185.0000;0.2409;0.0836;
1185.3000;0.2409;0.0836;
1185.6000;0.2401;0.0836;
1185.9000;0.2409;0.0836;
1186.2000;0.2426;0.0836;
1186.5000;0.2401;0.0836;
1186.8000;0.2401;0.0884;
1187.1000;0.2515;0.1099;
1187.4000;0.2409;0.0764;
1187.7000;0.2409;0.0812;
1188.0000;0.2401;0.0836;
1188.3000;0.2385;0.0884;
1188.6000;0.2401;0.0884;
1188.9000;0.2401;0.0931;
1189.2000;0.2401;0.0979;
1189.5000;0.2401;0.0979;
1189.8000;0.2385;0.0931;
1190.1000;0.2385;0.0884;
1190.4000;0.2361;0.0931;
1190.7000;0.2409;0.0979;
1191.0000;0.2401;0.1003;
1191.3000;0.2409;0.1027;
1191.6000;0.2409;0.1027;
1191.9000;0.2401;0.1027;
1192.2000;0.2418;0.1027;
1192.5000;0.2401;0.0931;
1192.8000;0.2377;0.0908;
1193.1000;0.2418;0.0931;
1193.4000;0.2385;0.0908;
1193.7000;0.2385;0.0836;
1194.0000;0.2401;0.0908;
1194.3000;0.2401;0.0931;
1194.6000;0.2385;0.0860;
1194.9000;0.2385;0.0836;
1195.2000;0.2377;0.0860;
1195.5000;0.2401;0.0884;
1195.8000;0.2426;0.0836;
1196.1000;0.2385;0.0836;
1196.4000;0.2385;0.0812;
1196.7000;0.2418;0.0812;
1197.0000;0.2426;0.0836;
1197.3000;0.2352;0.0764;
1197.6000;0.2401;0.0860;
1197.9000;0.2401;0.0860;
1198.2000;0.2409;0.0860;
1198.5000;0.2409;0.0884;
1198.8000;0.2385;0.0836;
1199.1000;0.2466;0.1051;
1199.4000;0.2393;0.1027;
1199.7000;0.2377;0.0979;
1200.0000;0.2369;0.0931;
1200.3000;0.2426;0.1099;
1200.6000;0.2401;0.0955;
1200.9000;0.2401;0.0931;
1201.2000;0.2401;0.0884;
1201.5000;0.2352;0.0836;
1201.8000;0.2409;0.0908;
1202.1000;0.2401;0.0812;
1202.4000;0.2418;0.0836;
1202.7000;0.2466;0.0955;
1203.0000;0.2450;0.0979;
1203.3000;0.2409;0.0884;
1203.6000;0.2409;0.0908;
1203.9000;0.2385;0.0812;
1204.2000;0.2418;0.0908;
1204.5000;0.2426;0.0955;
1204.8000;0.2409;0.0836;
1205.1000;0.2409;0.0860;
1205.4000;0.2336;0.0693;
1205.7000;0.2401;0.0908;
1206.0000;0.2393;0.0931;
1206.3000;0.2418;0.1003;
1206.6000;0.2401;0.0955;
1206.9000;0.2401;0.0836;
1207.2000;0.2401;0.0812;
1207.5000;0.2418;0.0908;
1207.8000;0.2401;0.0931;
1208.1000;0.2401;0.0908;
1208.4000;0.2409;0.0931;
1208.7000;0.2409;0.0931;
1209.0000;0.2434;0.1003;
1209.3000;0.2401;0.0979;
1209.6000;0.2393;0.1027;
1209.9000;0.2393;0.0979;
1210.2000;0.2385;0.0860;
1210.5000;0.2442;0.1003;
1210.8000;0.2409;0.0955;
1211.1000;0.2409;0.0884;
1211.4000;0.2393;0.0836;
1211.7000;0.2393;0.0955;
1212.0000;0.2369;0.0908;
1212.3000;0.2401;0.1122;
1212.6000;0.2385;0.1075;
1212.9000;0.2401;0.1099;
1213.2000;0.2401;0.0979;
1213.5000;0.2361;0.0860;
1213.8000;0.2401;0.0955;
1214.1000;0.2393;0.1003;
1214.4000;0.2393;0.0931;
1214.7000;0.2393;0.0955;
1215.0000;0.2401;0.0908;
1215.3000;0.2385;0.0812;
1215.6000;0.2385;0.0836;
1215.9000;0.2377;0.0860;
1216.2000;0.2393;0.0812;
1216.5000;0.2393;0.0788;
1216.8000;0.2418;0.0788;
1217.1000;0.2385;0.0669;
1217.4000;0.2401;0.0716;
1217.7000;0.2393;0.0788;
1218.0000;0.2369;0.0764;
1218.3000;0.2393;0.0836;
1218.6000;0.2377;0.0836;
1218.9000;0.2418;0.0884;
1219.2000;0.2401;0.0860;
1219.5000;0.2401;0.0860;
1219.8000;0.2409;0.0884;
1220.1000;0.2418;0.0931;
1220.4000;0.2418;0.0979;
1220.7000;0.2409;0.0931;
1221.0000;0.2418;0.0979;
1221.3000;0.2377;0.0908;
1221.6000;0.2401;0.0788;
1221.9000;0.2393;0.0788;
1222.2000;0.2401;0.0931;
1222.5000;0.2385;0.0812;
1222.8000;0.2385;0.0860;
1223.1000;0.2271;0.0502;
1223.4000;0.2483;0.1170;
1223.7000;0.2409;0.0931;
1224.0000;0.2361;0.0860;
1224.3000;0.2434;0.0979;
1224.6000;0.2401;0.0931;
1224.9000;0.2409;0.0979;
1225.2000;0.2393;0.0931;
1225.5000;0.2393;0.0931;
1225.8000;0.2393;0.0955;
1226.1000;0.2385;0.0979;
1226.4000;0.2393;0.0979;
1226.7000;0.2385;0.0979;
1227.0000;0.2393;0.0955;
1227.3000;0.2409;0.1027;
1227.6000;0.2393;0.1075;
1227.9000;0.2401;0.1122;
1228.2000;0.2409;0.1075;
1228.5000;0.2401;0.1027;
1228.8000;0.2401;0.1027;
1229.1000;0.2426;0.1122;
1229.4000;0.2401;0.1122;
1229.7000;0.2426;0.1194;
1230.0000;0.2401;0.1099;
1230.3000;0.2418;0.1170;
1230.6000;0.2401;0.1194;
1230.9000;0.2385;0.1122;
1231.2000;0.2409;0.1146;
1231.5000;0.2312;0.0836;
1231.8000;0.2393;0.1051;
1232.1000;0.2418;0.1003;
1232.4000;0.2434;0.1051;
1232.7000;0.2401;0.0884;
1233.0000;0.2418;0.0931;
1233.3000;0.2377;0.0788;
1233.6000;0.2418;0.0931;
1233.9000;0.2418;0.0836;
1234.2000;0.2401;0.0812;
1234.5000;0.2418;0.0812;
1234.8000;0.2295;0.0597;
1235.1000;0.2401;0.0812;
1235.4000;0.2385;0.0812;
1235.7000;0.2401;0.0860;
1236.0000;0.2409;0.0812;
1236.3000;0.2401;0.0860;
1236.6000;0.2418;0.0884;
1236.9000;0.2393;0.0955;
1237.2000;0.2344;0.0860;
1237.5000;0.2401;0.1003;
1237.8000;0.2393;0.0955;
1238.1000;0.2393;0.0979;
1238.4000;0.2385;0.1051;
1238.7000;0.2401;0.1099;
1239.0000;0.2401;0.1051;
1239.3000;0.2393;0.1027;
1239.6000;0.2393;0.0955;
1239.9000;0.2409;0.1027;
1240.2000;0.2409;0.0955;
1240.5000;0.2418;0.0931;
1240.8000;0.2409;0.0884;
1241.1000;0.2450;0.0908;
1241.4000;0.2401;0.0788;
1241.7000;0.2523;0.1170;
1242.0000;0.2393;0.0836;
1242.3000;0.2442;0.0979;
1242.6000;0.2475;0.1003;
1242.9000;0.2450;0.0979;
1243.2000;0.2385;0.0908;
1243.5000;0.2418;0.0979;
1243.8000;0.2499;0.1266;
1244.1000;0.2466;0.1099;
1244.4000;0.2401;0.0955;
1244.7000;0.2418;0.0955;
1245.0000;0.2393;0.1003;
1245.3000;0.2418;0.1027;
1245.6000;0.2393;0.1027;
1245.9000;0.2393;0.1027;
1246.2000;0.2377;0.1003;
1246.5000;0.2352;0.0979;
1246.8000;0.2393;0.1146;
1247.1000;0.2426;0.1242;
1247.4000;0.2393;0.1099;
1247.7000;0.2393;0.1051;
1248.0000;0.2401;0.1099;
1248.3000;0.2418;0.1146;
1248.6000;0.2409;0.1242;
1248.9000;0.2409;0.1170;
1249.2000;0.2401;0.1170;
1249.5000;0.2401;0.1146;
1249.8000;0.2401;0.1027;
1250.1000;0.2401;0.1051;
1250.4000;0.2434;0.1051;
1250.7000;0.2393;0.0955;
1251.0000;0.2418;0.0884;
1251.3000;0.2393;0.0860;
1251.6000;0.2418;0.0955;
1251.9000;0.2385;0.0860;
1252.2000;0.2393;0.0955;
1252.5000;0.2385;0.0979;
1252.8000;0.2409;0.1027;
1253.1000;0.2369;0.0931;
1253.4000;0.2401;0.1003;
1253.7000;0.2409;0.1003;
1254.0000;0.2434;0.1122;
1254.3000;0.2466;0.1218;
1254.6000;0.2426;0.1122;
1254.9000;0.2385;0.0955;
1255.2000;0.2418;0.1075;
1255.5000;0.2434;0.1146;
1255.8000;0.2393;0.1051;
1256.1000;0.2182;0.0549;
1256.4000;0.2401;0.1122;
1256.7000;0.2418;0.1122;
1257.0000;0.2409;0.1075;
1257.3000;0.2426;0.1099;
1257.6000;0.2401;0.1099;
1257.9000;0.2377;0.1051;
1258.2000;0.2401;0.1122;
1258.5000;0.2409;0.1122;
1258.8000;0.2409;0.1266;
1259.1000;0.2401;0.1266;
1259.4000;0.2409;0.1242;
1259.7000;0.2401;0.1170;
1260.0000;0.2385;0.1075;
1260.3000;0.2393;0.1075;
1260.6000;0.2418;0.1218;
1260.9000;0.2409;0.1194;
1261.2000;0.2385;0.1075;
1261.5000;0.2352;0.1003;
1261.8000;0.2385;0.1003;
1262.1000;0.2401;0.1051;
1262.4000;0.2385;0.1027;
1262.7000;0.2409;0.1146;
1263.0000;0.2401;0.1099;
1263.3000;0.2393;0.1122;
1263.6000;0.2385;0.1075;
1263.9000;0.2409;0.1122;
1264.2000;0.2409;0.1075;
1264.5000;0.2393;0.1003;
1264.8000;0.2401;0.1003;
1265.1000;0.2418;0.1051;
1265.4000;0.2409;0.1170;
1265.7000;0.2442;0.1266;
1266.0000;0.2483;0.1314;
1266.3000;0.2393;0.1099;
1266.6000;0.2393;0.1051;
1266.9000;0.2393;0.1051;
1267.2000;0.2418;0.1075;
1267.5000;0.2426;0.1003;
1267.8000;0.2426;0.1099;
1268.1000;0.2393;0.1051;
1268.4000;0.2450;0.1266;
1268.7000;0.2401;0.1099;
1269.0000;0.2401;0.1099;
1269.3000;0.2393;0.1027;
1269.6000;0.2426;0.1099;
1269.9000;0.2418;0.1075;
1270.2000;0.2409;0.1027;
1270.5000;0.2401;0.1003;
1270.8000;0.2409;0.1027;
1271.1000;0.2393;0.0979;
1271.4000;0.2393;0.0931;
1271.7000;0.2271;0.0621;
1272.0000;0.2385;0.0931;
1272.3000;0.2401;0.1003;
1272.6000;0.2361;0.0860;
1272.9000;0.2393;0.1003;
1273.2000;0.2434;0.1027;
1273.5000;0.2385;0.0908;
1273.8000;0.2393;0.0955;
1274.1000;0.2385;0.0955;
1274.4000;0.2426;0.0979;
1274.7000;0.2434;0.1027;
1275.0000;0.2426;0.1003;
1275.3000;0.2328;0.0716;
1275.6000;0.2409;0.0908;
1275.9000;0.2426;0.0884;
1276.2000;0.2426;0.0908;
1276.5000;0.2401;0.0931;
1276.8000;0.2409;0.0812;
1277.1000;0.2393;0.0740;
1277.4000;0.2393;0.0764;
1277.7000;0.2401;0.0812;
1278.0000;0.2409;0.0788;
1278.3000;0.2409;0.0716;
1278.6000;0.2418;0.0764;
1278.9000;0.2450;0.0931;
1279.2000;0.2434;0.0860;
1279.5000;0.2377;0.0740;
1279.8000;0.2426;0.0860;
1280.1000;0.2409;0.0812;
1280.4000;0.2312;0.0573;
1280.7000;0.2401;0.0860;
1281.0000;0.2401;0.0860;
1281.3000;0.2409;0.0908;
1281.6000;0.2401;0.0884;
1281.9000;0.2409;0.0908;
1282.2000;0.2385;0.0884;
1282.5000;0.2418;0.0955;
1282.8000;0.2418;0.0884;
1283.1000;0.2393;0.0836;
1283.4000;0.2409;0.0836;
1283.7000;0.2409;0.0788;
1284.0000;0.2385;0.0740;
1284.3000;0.2385;0.0788;
1284.6000;0.2401;0.0812;
1284.9000;0.2401;0.0788;
1285.2000;0.2385;0.0764;
1285.5000;0.2475;0.1003;
1285.8000;0.2385;0.0764;
1286.1000;0.2418;0.0860;
1286.4000;0.2458;0.0979;
1286.7000;0.2401;0.0860;
1287.0000;0.2409;0.0884;
1287.3000;0.2409;0.0860;
1287.6000;0.2418;0.0931;
1287.9000;0.2409;0.0884;
1288.2000;0.2401;0.0716;
1288.5000;0.2393;0.0740;
1288.8000;0.2409;0.0788;
1289.1000;0.2426;0.0908;
1289.4000;0.2401;0.0908;
1289.7000;0.2401;0.0860;
1290.0000;0.2450;0.0979;
1290.3000;0.2393;0.0812;
1290.6000;0.2426;0.0931;
1290.9000;0.2409;0.0908;
1291.2000;0.2401;0.0812;
1291.5000;0.2401;0.0764;
1291.8000;0.2409;0.0788;
1292.1000;0.2426;0.0860;
1292.4000;0.2409;0.0812;
1292.7000;0.2401;0.0788;
1293.0000;0.2393;0.0788;
1293.3000;0.2393;0.0836;
1293.6000;0.2401;0.0860;
1293.9000;0.2385;0.0836;
1294.2000;0.2434;0.0955;
1294.5000;0.2295;0.0549;
1294.8000;0.2385;0.0836;
1295.1000;0.2401;0.0812;
1295.4000;0.2393;0.0812;
1295.7000;0.2352;0.0716;
1296.0000;0.2409;0.0860;
1296.3000;0.2418;0.0812;
1296.6000;0.2361;0.0621;
1296.9000;0.2393;0.0716;
1297.2000;0.2393;0.0693;
1297.5000;0.2409;0.0740;
1297.8000;0.2401;0.0788;
1298.1000;0.2409;0.0716;
1298.4000;0.2393;0.0645;
1298.7000;0.2418;0.0812;
1299.0000;0.2393;0.0860;
1299.3000;0.2409;0.0979;
1299.6000;0.2409;0.0908;
1299.9000;0.2401;0.0884;
1300.2000;0.2401;0.0860;
1300.5000;0.2401;0.0955;
1300.8000;0.2385;0.0931;
1301.1000;0.2385;0.0908;
1301.4000;0.2409;0.1122;
1301.7000;0.2418;0.1194;
1302.0000;0.2393;0.1099;
1302.3000;0.2450;0.1146;
1302.6000;0.2393;0.0955;
1302.9000;0.2426;0.1027;
1303.2000;0.2418;0.0955;
1303.5000;0.2401;0.0884;
1303.8000;0.2393;0.0860;
1304.1000;0.2401;0.0836;
1304.4000;0.2401;0.0884;
1304.7000;0.2409;0.0860;
1305.0000;0.2393;0.0812;
1305.3000;0.2401;0.0908;
1305.6000;0.2434;0.0955;
1305.9000;0.2401;0.0884;
1306.2000;0.2401;0.0908;
1306.5000;0.2409;0.0955;
1306.8000;0.2409;0.0931;
1307.1000;0.2393;0.0836;
1307.4000;0.2409;0.0764;
1307.7000;0.2401;0.0716;
1308.0000;0.2418;0.0764;
1308.3000;0.2401;0.0836;
1308.6000;0.2426;0.0836;
1308.9000;0.2409;0.0764;
1309.2000;0.2401;0.0740;
1309.5000;0.2409;0.0716;
1309.8000;0.2385;0.0764;
1310.1000;0.2409;0.0764;
1310.4000;0.2458;0.1003;
1310.7000;0.2418;0.0812;
1311.0000;0.2409;0.0860;
1311.3000;0.2418;0.0836;
1311.6000;0.2409;0.0931;
1311.9000;0.2385;0.0908;
1312.2000;0.2426;0.0908;
1312.5000;0.2409;0.0908;
1312.8000;0.2401;0.0860;
1313.1000;0.2426;0.0860;
1313.4000;0.2450;0.0955;
1313.7000;0.2393;0.0836;
1314.0000;0.2401;0.0812;
1314.3000;0.2401;0.0764;
1314.6000;0.2450;0.0860;
1314.9000;0.2377;0.0740;
1315.2000;0.2401;0.0884;
1315.5000;0.2401;0.0860;
1315.8000;0.2418;0.0884;
1316.1000;0.2385;0.0788;
1316.4000;0.2401;0.0884;
1316.7000;0.2377;0.0955;
1317.0000;0.2409;0.1003;
1317.3000;0.2401;0.1099;
1317.6000;0.2401;0.1170;
1317.9000;0.2393;0.1218;
1318.2000;0.2312;0.0931;
1318.5000;0.2279;0.0764;
1318.8000;0.2401;0.1027;
1319.1000;0.2401;0.1051;
1319.4000;0.2369;0.0908;
1319.7000;0.2393;0.0979;
1320.0000;0.2393;0.0979;
1320.3000;0.2401;0.0979;
1320.6000;0.2393;0.1003;
1320.9000;0.2401;0.1003;
1321.2000;0.2401;0.1003;
1321.5000;0.2393;0.1003;
1321.8000;0.2385;0.0955;
1322.1000;0.2409;0.0860;
1322.4000;0.2385;0.0716;
1322.7000;0.2393;0.0764;
1323.0000;0.2426;0.0812;
1323.3000;0.2426;0.0788;
1323.6000;0.2426;0.0788;
1323.9000;0.2409;0.0812;
1324.2000;0.2393;0.0860;
1324.5000;0.2409;0.0836;
1324.8000;0.2409;0.0812;
1325.1000;0.2409;0.0836;
1325.4000;0.2385;0.0788;
1325.7000;0.2401;0.0908;
1326.0000;0.2385;0.0764;
1326.3000;0.2393;0.0812;
1326.6000;0.2393;0.0812;
1326.9000;0.2401;0.0836;
1327.2000;0.2409;0.0908;
1327.5000;0.2393;0.0812;
1327.8000;0.2401;0.0860;
1328.1000;0.2393;0.0860;
1328.4000;0.2401;0.0908;
1328.7000;0.2385;0.0884;
1329.0000;0.2434;0.0955;
1329.3000;0.2483;0.1075;
1329.6000;0.2409;0.0931;
1329.9000;0.2377;0.0884;
1330.2000;0.2385;0.0931;
1330.5000;0.2344;0.0860;
1330.8000;0.2393;0.0979;
1331.1000;0.2393;0.0931;
1331.4000;0.2418;0.1003;
1331.7000;0.2393;0.0836;
1332.0000;0.2426;0.0836;
1332.3000;0.2401;0.0812;
1332.6000;0.2409;0.0860;
1332.9000;0.2409;0.0860;
1333.2000;0.2418;0.0908;
1333.5000;0.2361;0.0788;
1333.8000;0.2385;0.0884;
1334.1000;0.2377;0.0860;
1334.4000;0.2287;0.0669;
1334.7000;0.2393;0.0979;
1335.0000;0.2409;0.1075;
1335.3000;0.2401;0.1099;
1335.6000;0.2385;0.0955;
1335.9000;0.2385;0.0908;
1336.2000;0.2409;0.0955;
1336.5000;0.2385;0.0979;
1336.8000;0.2385;0.1051;
1337.1000;0.2409;0.1122;
1337.4000;0.2418;0.1170;
1337.7000;0.2401;0.1122;
1338.0000;0.2442;0.1194;
1338.3000;0.2393;0.1122;
1338.6000;0.2401;0.1146;
1338.9000;0.2393;0.1122;
1339.2000;0.2409;0.1146;
1339.5000;0.2393;0.1122;
1339.8000;0.2401;0.1075;
1340.1000;0.2418;0.1051;
1340.4000;0.2385;0.0931;
1340.7000;0.2418;0.0931;
1341.0000;0.2385;0.0908;
1341.3000;0.2393;0.0931;
1341.6000;0.2409;0.0908;
1341.9000;0.2385;0.0860;
1342.2000;0.2409;0.0931;
1342.5000;0.2401;0.0931;
1342.8000;0.2409;0.0979;
1343.1000;0.2401;0.0884;
1343.4000;0.2393;0.0836;
1343.7000;0.2409;0.0908;
1344.0000;0.2393;0.0860;
1344.3000;0.2458;0.1003;
1344.6000;0.2401;0.0812;
1344.9000;0.2401;0.0764;
1345.2000;0.2393;0.0716;
1345.5000;0.2401;0.0693;
1345.8000;0.2393;0.0740;
1346.1000;0.2401;0.0788;
1346.4000;0.2401;0.0740;
1346.7000;0.2393;0.0716;
1347.0000;0.2401;0.0764;
1347.3000;0.2401;0.0860;
1347.6000;0.2385;0.0836;
1347.9000;0.2385;0.0836;
1348.2000;0.2401;0.0908;
1348.5000;0.2385;0.0908;
1348.8000;0.2450;0.1075;
1349.1000;0.2409;0.1003;
1349.4000;0.2393;0.0955;
1349.7000;0.2401;0.0836;
1350.0000;0.2458;0.1075;
1350.3000;0.2393;0.0884;
1350.6000;0.2393;0.0812;
1350.9000;0.2304;0.0621;
1351.2000;0.2401;0.0955;
1351.5000;0.2393;0.0860;
1351.8000;0.2426;0.0908;
1352.1000;0.2377;0.0884;
1352.4000;0.2418;0.1099;
1352.7000;0.2426;0.1170;
1353.0000;0.2499;0.1242;
1353.3000;0.2409;0.0955;
1353.6000;0.2426;0.0931;
1353.9000;0.2401;0.0860;
1354.2000;0.2385;0.0764;
1354.5000;0.2401;0.0836;
1354.8000;0.2385;0.0836;
1355.1000;0.2409;0.0931;
1355.4000;0.2401;0.1051;
1355.7000;0.2401;0.1075;
1356.0000;0.2409;0.0955;
1356.3000;0.2377;0.0812;
1356.6000;0.2377;0.0836;
1356.9000;0.2393;0.0931;
1357.2000;0.2401;0.1003;
1357.5000;0.2401;0.1075;
1357.8000;0.2361;0.1027;
1358.1000;0.2426;0.1170;
1358.4000;0.2450;0.1218;
1358.7000;0.2401;0.1099;
1359.0000;0.2409;0.1051;
1359.3000;0.2401;0.1003;
1359.6000;0.2393;0.1075;
1359.9000;0.2401;0.1027;
1360.2000;0.2409;0.0979;
1360.5000;0.2409;0.0860;
1360.8000;0.2409;0.0908;
1361.1000;0.2393;0.0931;
1361.4000;0.2409;0.0836;
1361.7000;0.2418;0.0836;
1362.0000;0.2507;0.1075;
1362.3000;0.2393;0.0884;
1362.6000;0.2401;0.0836;
1362.9000;0.2369;0.0716;
1363.2000;0.2312;0.0645;
1363.5000;0.2409;0.0979;
1363.8000;0.2401;0.1027;
1364.1000;0.2418;0.1027;
1364.4000;0.2418;0.1003;
1364.7000;0.2393;0.0931;
1365.0000;0.2409;0.0955;
1365.3000;0.2361;0.0908;
1365.6000;0.2336;0.0860;
1365.9000;0.2393;0.1003;
1366.2000;0.2377;0.0955;
1366.5000;0.2393;0.1051;
1366.8000;0.2393;0.0979;
1367.1000;0.2418;0.0979;
1367.4000;0.2344;0.0716;
1367.7000;0.2418;0.0908;
1368.0000;0.2418;0.0955;
1368.3000;0.2401;0.0884;
1368.6000;0.2393;0.0860;
1368.9000;0.2426;0.0955;
1369.2000;0.2393;0.0955;
1369.5000;0.2418;0.1099;
1369.8000;0.2377;0.0979;
1370.1000;0.2393;0.1027;
1370.4000;0.2426;0.1122;
1370.7000;0.2401;0.1146;
1371.0000;0.2418;0.1218;
1371.3000;0.2393;0.1218;
1371.6000;0.2393;0.1194;
1371.9000;0.2393;0.1122;
1372.2000;0.2418;0.1051;
1372.5000;0.2409;0.1051;
1372.8000;0.2409;0.1075;
1373.1000;0.2409;0.1051;
1373.4000;0.2385;0.1051;
1373.7000;0.2401;0.1051;
1374.0000;0.2409;0.1003;
1374.3000;0.2409;0.1003;
1374.6000;0.2409;0.1027;
1374.9000;0.2409;0.1027;
1375.2000;0.2385;0.1003;
1375.5000;0.2401;0.1003;
1375.8000;0.2426;0.1051;
1376.1000;0.2401;0.1003;
1376.4000;0.2450;0.1003;
1376.7000;0.2401;0.0812;
1377.0000;0.2393;0.0764;
1377.3000;0.2409;0.0740;
1377.6000;0.2434;0.0836;
1377.9000;0.2409;0.0860;
1378.2000;0.2409;0.0836;
1378.5000;0.2401;0.0836;
1378.8000;0.2393;0.0860;
1379.1000;0.2409;0.0884;
1379.4000;0.2458;0.0979;
1379.7000;0.2369;0.0740;
1380.0000;0.2385;0.0740;
1380.3000;0.2401;0.0740;
1380.6000;0.2409;0.0740;
1380.9000;0.2393;0.0693;
1381.2000;0.2385;0.0645;
1381.5000;0.2369;0.0669;
1381.8000;0.2393;0.0716;
1382.1000;0.2418;0.0764;
1382.4000;0.2401;0.0812;
1382.7000;0.2483;0.1003;
1383.0000;0.2409;0.0884;
1383.3000;0.2401;0.0955;
1383.6000;0.2426;0.0908;
1383.9000;0.2426;0.0931;
1384.2000;0.2409;0.0908;
1384.5000;0.2418;0.0860;
1384.8000;0.2401;0.0860;
1385.1000;0.2418;0.1027;
1385.4000;0.2426;0.1099;
1385.7000;0.2418;0.0979;
1386.0000;0.2426;0.1027;
1386.3000;0.2393;0.1027;
1386.6000;0.2409;0.1051;
1386.9000;0.2385;0.0931;
1387.2000;0.2515;0.1314;
1387.5000;0.2409;0.1122;
1387.8000;0.2393;0.1051;
1388.1000;0.2385;0.0955;
1388.4000;0.2385;0.0812;
1388.7000;0.2418;0.0860;
1389.0000;0.2320;0.0621;
1389.3000;0.2409;0.0884;
1389.6000;0.2450;0.1075;
1389.9000;0.2393;0.0908;
1390.2000;0.2466;0.1099;
1390.5000;0.2401;0.0908;
1390.8000;0.2401;0.0884;
1391.1000;0.2401;0.0884;
1391.4000;0.2401;0.0884;
1391.7000;0.2393;0.0908;
1392.0000;0.2385;0.0860;
1392.3000;0.2418;0.0931;
1392.6000;0.2418;0.1003;
1392.9000;0.2401;0.0955;
1393.2000;0.2426;0.1027;
1393.5000;0.2393;0.0955;
1393.8000;0.2401;0.0860;
1394.1000;0.2369;0.0740;
1394.4000;0.2393;0.0860;
1394.7000;0.2393;0.0884;
1395.0000;0.2426;0.0812;
1395.3000;0.2401;0.0764;
1395.6000;0.2393;0.0788;
1395.9000;0.2409;0.0884;
1396.2000;0.2409;0.0955;
1396.5000;0.2393;0.1003;
1396.8000;0.2393;0.0955;
1397.1000;0.2418;0.0979;
1397.4000;0.2385;0.0884;
1397.7000;0.2401;0.0908;
1398.0000;0.2401;0.0788;
1398.3000;0.2409;0.0812;
1398.6000;0.2409;0.0812;
1398.9000;0.2361;0.0764;
1399.2000;0.2393;0.0860;
1399.5000;0.2393;0.0860;
1399.8000;0.2393;0.0908;
