time/ms;Fluo/V;P700 deltaI/I x10³;
-199.8000;0.2475;0.1099;
-199.5000;0.2466;0.1027;
-199.2000;0.2434;0.0955;
-198.9000;0.2450;0.1003;
-198.6000;0.2458;0.0955;
-198.3000;0.2466;0.0931;
-198.0000;0.2442;0.0955;
-197.7000;0.2450;0.0955;
-197.4000;0.2450;0.0979;
-197.1000;0.2434;0.1027;
-196.8000;0.2466;0.1051;
-196.5000;0.2458;0.1003;
-196.2000;0.2458;0.1099;
-195.9000;0.2450;0.1075;
-195.6000;0.2442;0.1099;
-195.3000;0.2434;0.1099;
-195.0000;0.2442;0.1075;
-194.7000;0.2442;0.1027;
-194.4000;0.2450;0.1003;
-194.1000;0.2466;0.0908;
-193.8000;0.2442;0.0884;
-193.5000;0.2442;0.0860;
-193.2000;0.2442;0.0908;
-192.9000;0.2434;0.0979;
-192.6000;0.2442;0.1075;
-192.3000;0.2434;0.0955;
-192.0000;0.2466;0.1051;
-191.7000;0.2434;0.1051;
-191.4000;0.2442;0.1122;
-191.1000;0.2442;0.1027;
-190.8000;0.2450;0.1075;
-190.5000;0.2450;0.1027;
-190.2000;0.2442;0.1003;
-189.9000;0.2442;0.0860;
-189.6000;0.2442;0.0812;
-189.3000;0.2450;0.0764;
-189.0000;0.2450;0.0788;
-188.7000;0.2434;0.0764;
-188.4000;0.2466;0.0788;
-188.1000;0.2442;0.0788;
-187.8000;0.2409;0.0740;
-187.5000;0.2434;0.0836;
-187.2000;0.2458;0.0860;
-186.9000;0.2442;0.0860;
-186.6000;0.2426;0.0860;
-186.3000;0.2442;0.0812;
-186.0000;0.2434;0.0812;
-185.7000;0.2442;0.0884;
-185.4000;0.2450;0.0931;
-185.1000;0.2434;0.0836;
-184.8000;0.2450;0.0884;
-184.5000;0.2458;0.0908;
-184.2000;0.2458;0.0908;
-183.9000;0.2466;0.0860;
-183.6000;0.2434;0.0836;
-183.3000;0.2458;0.0955;
-183.0000;0.2483;0.1051;
-182.7000;0.2450;0.0884;
-182.4000;0.2442;0.0812;
-182.1000;0.2450;0.0908;
-181.8000;0.2532;0.1075;
-181.5000;0.2458;0.0836;
-181.2000;0.2442;0.0836;
-180.9000;0.2450;0.0836;
-180.6000;0.2458;0.0955;
-180.3000;0.2442;0.1003;
-180.0000;0.2442;0.0979;
-179.7000;0.2458;0.1027;
-179.4000;0.2458;0.1003;
-179.1000;0.2442;0.0931;
-178.8000;0.2377;0.0788;
-178.5000;0.2450;0.0931;
-178.2000;0.2483;0.1051;
-177.9000;0.2458;0.1027;
-177.6000;0.2442;0.1051;
-177.3000;0.2434;0.1122;
-177.0000;0.2418;0.1051;
-176.7000;0.2442;0.1027;
-176.4000;0.2458;0.1027;
-176.1000;0.2475;0.1051;
-175.8000;0.2434;0.0931;
-175.5000;0.2458;0.0955;
-175.2000;0.2442;0.1027;
-174.9000;0.2442;0.1027;
-174.6000;0.2442;0.1051;
-174.3000;0.2458;0.1099;
-174.0000;0.2466;0.1051;
-173.7000;0.2442;0.0955;
-173.4000;0.2450;0.0955;
-173.1000;0.2466;0.0979;
-172.8000;0.2458;0.0955;
-172.5000;0.2450;0.0979;
-172.2000;0.2434;0.1075;
-171.9000;0.2475;0.1170;
-171.6000;0.2450;0.1075;
-171.3000;0.2466;0.1027;
-171.0000;0.2450;0.0931;
-170.7000;0.2450;0.0979;
-170.4000;0.2450;0.0979;
-170.1000;0.2458;0.1027;
-169.8000;0.2434;0.0979;
-169.5000;0.2442;0.0979;
-169.2000;0.2450;0.1027;
-168.9000;0.2442;0.1051;
-168.6000;0.2442;0.1075;
-168.3000;0.2450;0.1099;
-168.0000;0.2426;0.1051;
-167.7000;0.2442;0.1051;
-167.4000;0.2434;0.1075;
-167.1000;0.2434;0.1051;
-166.8000;0.2458;0.1194;
-166.5000;0.2450;0.1170;
-166.2000;0.2483;0.1218;
-165.9000;0.2442;0.1146;
-165.6000;0.2458;0.1170;
-165.3000;0.2442;0.1194;
-165.0000;0.2442;0.1099;
-164.7000;0.2442;0.1122;
-164.4000;0.2458;0.1099;
-164.1000;0.2458;0.1051;
-163.8000;0.2442;0.0979;
-163.5000;0.2442;0.0979;
-163.2000;0.2442;0.1003;
-162.9000;0.2483;0.1146;
-162.6000;0.2458;0.0955;
-162.3000;0.2458;0.0955;
-162.0000;0.2458;0.0931;
-161.7000;0.2450;0.0931;
-161.4000;0.2450;0.1027;
-161.1000;0.2434;0.1051;
-160.8000;0.2450;0.1051;
-160.5000;0.2458;0.1146;
-160.2000;0.2458;0.1242;
-159.9000;0.2458;0.1170;
-159.6000;0.2442;0.1122;
-159.3000;0.2466;0.1003;
-159.0000;0.2515;0.1194;
-158.7000;0.2475;0.1075;
-158.4000;0.2434;0.1003;
-158.1000;0.2450;0.0931;
-157.8000;0.2450;0.1003;
-157.5000;0.2434;0.0979;
-157.2000;0.2458;0.1027;
-156.9000;0.2442;0.0979;
-156.6000;0.2442;0.1003;
-156.3000;0.2458;0.1027;
-156.0000;0.2450;0.1051;
-155.7000;0.2450;0.1099;
-155.4000;0.2450;0.1146;
-155.1000;0.2450;0.1122;
-154.8000;0.2458;0.1051;
-154.5000;0.2434;0.0836;
-154.2000;0.2434;0.0955;
-153.9000;0.2450;0.1075;
-153.6000;0.2450;0.1122;
-153.3000;0.2418;0.0908;
-153.0000;0.2442;0.0979;
-152.7000;0.2434;0.0955;
-152.4000;0.2475;0.1051;
-152.1000;0.2499;0.1194;
-151.8000;0.2450;0.1122;
-151.5000;0.2458;0.1194;
-151.2000;0.2434;0.1099;
-150.9000;0.2442;0.1170;
-150.6000;0.2434;0.1099;
-150.3000;0.2458;0.1146;
-150.0000;0.2466;0.1122;
-149.7000;0.2426;0.1003;
-149.4000;0.2442;0.0979;
-149.1000;0.2450;0.1051;
-148.8000;0.2418;0.0931;
-148.5000;0.2458;0.1051;
-148.2000;0.2491;0.1075;
-147.9000;0.2442;0.1003;
-147.6000;0.2458;0.0979;
-147.3000;0.2385;0.0764;
-147.0000;0.2442;0.0955;
-146.7000;0.2450;0.1027;
-146.4000;0.2442;0.1027;
-146.1000;0.2466;0.1027;
-145.8000;0.2442;0.0979;
-145.5000;0.2434;0.0979;
-145.2000;0.2426;0.1075;
-144.9000;0.2466;0.1099;
-144.6000;0.2458;0.1099;
-144.3000;0.2483;0.1242;
-144.0000;0.2475;0.1194;
-143.7000;0.2442;0.1099;
-143.4000;0.2450;0.1146;
-143.1000;0.2434;0.1051;
-142.8000;0.2450;0.1075;
-142.5000;0.2458;0.1027;
-142.2000;0.2450;0.1075;
-141.9000;0.2442;0.1051;
-141.6000;0.2442;0.1051;
-141.3000;0.2442;0.0979;
-141.0000;0.2434;0.1051;
-140.7000;0.2426;0.1027;
-140.4000;0.2458;0.1051;
-140.1000;0.2385;0.0931;
-139.8000;0.2434;0.1075;
-139.5000;0.2458;0.1146;
-139.2000;0.2418;0.1027;
-138.9000;0.2442;0.1051;
-138.6000;0.2442;0.1122;
-138.3000;0.2434;0.1075;
-138.0000;0.2442;0.1051;
-137.7000;0.2442;0.0979;
-137.4000;0.2442;0.1027;
-137.1000;0.2466;0.1146;
-136.8000;0.2450;0.1075;
-136.5000;0.2450;0.1075;
-136.2000;0.2434;0.1099;
-135.9000;0.2458;0.1146;
-135.6000;0.2450;0.1051;
-135.3000;0.2418;0.1003;
-135.0000;0.2450;0.1075;
-134.7000;0.2418;0.1003;
-134.4000;0.2442;0.0979;
-134.1000;0.2434;0.1099;
-133.8000;0.2434;0.0979;
-133.5000;0.2442;0.0931;
-133.2000;0.2450;0.0955;
-132.9000;0.2434;0.0884;
-132.6000;0.2450;0.0931;
-132.3000;0.2458;0.0955;
-132.0000;0.2434;0.0979;
-131.7000;0.2426;0.1051;
-131.4000;0.2442;0.1003;
-131.1000;0.2442;0.1027;
-130.8000;0.2426;0.1075;
-130.5000;0.2418;0.1051;
-130.2000;0.2434;0.1075;
-129.9000;0.2442;0.1099;
-129.6000;0.2450;0.1122;
-129.3000;0.2409;0.1075;
-129.0000;0.2450;0.1194;
-128.7000;0.2434;0.1122;
-128.4000;0.2442;0.1099;
-128.1000;0.2426;0.0931;
-127.8000;0.2491;0.1075;
-127.5000;0.2458;0.0931;
-127.2000;0.2466;0.1099;
-126.9000;0.2434;0.0979;
-126.6000;0.2458;0.1003;
-126.3000;0.2442;0.1075;
-126.0000;0.2336;0.0764;
-125.7000;0.2458;0.1027;
-125.4000;0.2458;0.1003;
-125.1000;0.2442;0.1003;
-124.8000;0.2450;0.1003;
-124.5000;0.2442;0.0908;
-124.2000;0.2491;0.1099;
-123.9000;0.2442;0.1003;
-123.6000;0.2466;0.1003;
-123.3000;0.2442;0.1003;
-123.0000;0.2434;0.1003;
-122.7000;0.2556;0.1314;
-122.4000;0.2409;0.0884;
-122.1000;0.2442;0.1003;
-121.8000;0.2483;0.1099;
-121.5000;0.2458;0.1099;
-121.2000;0.2434;0.1027;
-120.9000;0.2442;0.1003;
-120.6000;0.2458;0.1122;
-120.3000;0.2515;0.1361;
-120.0000;0.2426;0.1146;
-119.7000;0.2532;0.1409;
-119.4000;0.2466;0.1218;
-119.1000;0.2458;0.1122;
-118.8000;0.2450;0.1099;
-118.5000;0.2466;0.1170;
-118.2000;0.2450;0.1099;
-117.9000;0.2458;0.1027;
-117.6000;0.2475;0.1146;
-117.3000;0.2466;0.1075;
-117.0000;0.2475;0.1194;
-116.7000;0.2532;0.1361;
-116.4000;0.2475;0.1146;
-116.1000;0.2458;0.1170;
-115.8000;0.2442;0.1027;
-115.5000;0.2515;0.1314;
-115.2000;0.2450;0.1122;
-114.9000;0.2434;0.1122;
-114.6000;0.2328;0.0812;
-114.3000;0.2434;0.1099;
-114.0000;0.2458;0.1027;
-113.7000;0.2515;0.1146;
-113.4000;0.2442;0.0979;
-113.1000;0.2466;0.1027;
-112.8000;0.2434;0.0955;
-112.5000;0.2426;0.0955;
-112.2000;0.2426;0.1027;
-111.9000;0.2442;0.1099;
-111.6000;0.2434;0.1122;
-111.3000;0.2450;0.1146;
-111.0000;0.2515;0.1314;
-110.7000;0.2442;0.1122;
-110.4000;0.2442;0.1170;
-110.1000;0.2442;0.1194;
-109.8000;0.2442;0.1170;
-109.5000;0.2401;0.1027;
-109.2000;0.2418;0.1051;
-108.9000;0.2426;0.1003;
-108.6000;0.2442;0.0979;
-108.3000;0.2426;0.0908;
-108.0000;0.2450;0.1051;
-107.7000;0.2426;0.1122;
-107.4000;0.2442;0.1075;
-107.1000;0.2434;0.1075;
-106.8000;0.2458;0.1003;
-106.5000;0.2475;0.1051;
-106.2000;0.2458;0.0908;
-105.9000;0.2442;0.0955;
-105.6000;0.2442;0.1003;
-105.3000;0.2458;0.1003;
-105.0000;0.2458;0.1003;
-104.7000;0.2434;0.1027;
-104.4000;0.2458;0.1146;
-104.1000;0.2442;0.1122;
-103.8000;0.2442;0.1194;
-103.5000;0.2450;0.1194;
-103.2000;0.2458;0.1099;
-102.9000;0.2450;0.1122;
-102.6000;0.2434;0.1170;
-102.3000;0.2442;0.1242;
-102.0000;0.2483;0.1290;
-101.7000;0.2458;0.1194;
-101.4000;0.2466;0.1146;
-101.1000;0.2450;0.1146;
-100.8000;0.2466;0.1146;
-100.5000;0.2409;0.1075;
-100.2000;0.2442;0.1194;
-99.9000;0.2418;0.1146;
-99.6000;0.2450;0.1242;
-99.3000;0.2458;0.1170;
-99.0000;0.2450;0.1099;
-98.7000;0.2442;0.1170;
-98.4000;0.2442;0.1170;
-98.1000;0.2450;0.1242;
-97.8000;0.2450;0.1194;
-97.5000;0.2458;0.1242;
-97.2000;0.2450;0.1314;
-96.9000;0.2442;0.1290;
-96.6000;0.2466;0.1337;
-96.3000;0.2450;0.1266;
-96.0000;0.2458;0.1242;
-95.7000;0.2401;0.1051;
-95.4000;0.2450;0.1170;
-95.1000;0.2458;0.1194;
-94.8000;0.2450;0.1099;
-94.5000;0.2458;0.1099;
-94.2000;0.2450;0.1146;
-93.9000;0.2434;0.1146;
-93.6000;0.2450;0.1170;
-93.3000;0.2434;0.1122;
-93.0000;0.2434;0.1075;
-92.7000;0.2434;0.1170;
-92.4000;0.2458;0.1099;
-92.1000;0.2458;0.1122;
-91.8000;0.2434;0.1051;
-91.5000;0.2466;0.1146;
-91.2000;0.2466;0.1218;
-90.9000;0.2475;0.1290;
-90.6000;0.2466;0.1266;
-90.3000;0.2450;0.1290;
-90.0000;0.2336;0.0931;
-89.7000;0.2434;0.1099;
-89.4000;0.2434;0.0979;
-89.1000;0.2385;0.0788;
-88.8000;0.2523;0.1146;
-88.5000;0.2507;0.1099;
-88.2000;0.2442;0.0955;
-87.9000;0.2442;0.0979;
-87.6000;0.2450;0.0979;
-87.3000;0.2499;0.1075;
-87.0000;0.2466;0.1051;
-86.7000;0.2466;0.1051;
-86.4000;0.2466;0.0979;
-86.1000;0.2418;0.0908;
-85.8000;0.2442;0.0955;
-85.5000;0.2483;0.1122;
-85.2000;0.2393;0.0908;
-84.9000;0.2442;0.0955;
-84.6000;0.2523;0.1099;
-84.3000;0.2442;0.0908;
-84.0000;0.2442;0.0884;
-83.7000;0.2442;0.0931;
-83.4000;0.2450;0.0955;
-83.1000;0.2442;0.1003;
-82.8000;0.2458;0.1051;
-82.5000;0.2458;0.0979;
-82.2000;0.2548;0.1218;
-81.9000;0.2483;0.1027;
-81.6000;0.2442;0.0931;
-81.3000;0.2442;0.0955;
-81.0000;0.2466;0.0955;
-80.7000;0.2466;0.1003;
-80.4000;0.2442;0.0979;
-80.1000;0.2426;0.1027;
-79.8000;0.2442;0.1099;
-79.5000;0.2434;0.1051;
-79.2000;0.2442;0.1027;
-78.9000;0.2426;0.1051;
-78.6000;0.2352;0.0979;
-78.3000;0.2458;0.1218;
-78.0000;0.2434;0.1122;
-77.7000;0.2434;0.1075;
-77.4000;0.2442;0.1122;
-77.1000;0.2426;0.1146;
-76.8000;0.2491;0.1266;
-76.5000;0.2401;0.1003;
-76.2000;0.2377;0.0860;
-75.9000;0.2450;0.1122;
-75.6000;0.2466;0.1146;
-75.3000;0.2442;0.1027;
-75.0000;0.2450;0.1075;
-74.7000;0.2434;0.1170;
-74.4000;0.2450;0.1146;
-74.1000;0.2434;0.1051;
-73.8000;0.2434;0.1027;
-73.5000;0.2442;0.0979;
-73.2000;0.2458;0.1027;
-72.9000;0.2442;0.1003;
-72.6000;0.2450;0.1027;
-72.3000;0.2450;0.1027;
-72.0000;0.2434;0.1075;
-71.7000;0.2442;0.1099;
-71.4000;0.2442;0.1027;
-71.1000;0.2442;0.1003;
-70.8000;0.2442;0.1003;
-70.5000;0.2458;0.1003;
-70.2000;0.2442;0.0979;
-69.9000;0.2523;0.1194;
-69.6000;0.2458;0.0979;
-69.3000;0.2466;0.1003;
-69.0000;0.2450;0.0931;
-68.7000;0.2426;0.0908;
-68.4000;0.2442;0.0979;
-68.1000;0.2458;0.1099;
-67.8000;0.2434;0.1027;
-67.5000;0.2434;0.1075;
-67.2000;0.2450;0.1075;
-66.9000;0.2450;0.1075;
-66.6000;0.2409;0.0931;
-66.3000;0.2442;0.1003;
-66.0000;0.2442;0.0979;
-65.7000;0.2442;0.0908;
-65.4000;0.2450;0.0860;
-65.1000;0.2442;0.0836;
-64.8000;0.2442;0.0955;
-64.5000;0.2409;0.0955;
-64.2000;0.2442;0.1099;
-63.9000;0.2344;0.0955;
-63.6000;0.2434;0.1218;
-63.3000;0.2442;0.1218;
-63.0000;0.2409;0.1170;
-62.7000;0.2458;0.1266;
-62.4000;0.2442;0.1361;
-62.1000;0.2401;0.1194;
-61.8000;0.2450;0.1314;
-61.5000;0.2442;0.1218;
-61.2000;0.2434;0.1170;
-60.9000;0.2434;0.1122;
-60.6000;0.2352;0.0836;
-60.3000;0.2385;0.0908;
-60.0000;0.2409;0.0955;
-59.7000;0.2450;0.1099;
-59.4000;0.2442;0.1194;
-59.1000;0.2466;0.1242;
-58.8000;0.2491;0.1218;
-58.5000;0.2426;0.1003;
-58.2000;0.2426;0.1003;
-57.9000;0.2450;0.1003;
-57.6000;0.2426;0.0955;
-57.3000;0.2418;0.0931;
-57.0000;0.2450;0.1003;
-56.7000;0.2434;0.1075;
-56.4000;0.2458;0.1170;
-56.1000;0.2450;0.1170;
-55.8000;0.2409;0.1099;
-55.5000;0.2426;0.1027;
-55.2000;0.2418;0.0979;
-54.9000;0.2434;0.1003;
-54.6000;0.2466;0.1051;
-54.3000;0.2450;0.1051;
-54.0000;0.2458;0.1099;
-53.7000;0.2450;0.1051;
-53.4000;0.2466;0.1027;
-53.1000;0.2434;0.1051;
-52.8000;0.2450;0.1122;
-52.5000;0.2426;0.1051;
-52.2000;0.2434;0.1027;
-51.9000;0.2434;0.1003;
-51.6000;0.2442;0.0979;
-51.3000;0.2458;0.1003;
-51.0000;0.2442;0.0908;
-50.7000;0.2434;0.0979;
-50.4000;0.2458;0.1075;
-50.1000;0.2426;0.1003;
-49.8000;0.2434;0.1027;
-49.5000;0.2442;0.1051;
-49.2000;0.2458;0.1027;
-48.9000;0.2458;0.1051;
-48.6000;0.2450;0.1027;
-48.3000;0.2442;0.1075;
-48.0000;0.2450;0.1146;
-47.7000;0.2450;0.1146;
-47.4000;0.2466;0.1122;
-47.1000;0.2434;0.1075;
-46.8000;0.2426;0.1075;
-46.5000;0.2450;0.1146;
-46.2000;0.2450;0.1146;
-45.9000;0.2475;0.1194;
-45.6000;0.2458;0.1170;
-45.3000;0.2466;0.1170;
-45.0000;0.2377;0.0884;
-44.7000;0.2450;0.1122;
-44.4000;0.2475;0.1242;
-44.1000;0.2344;0.0955;
-43.8000;0.2450;0.1170;
-43.5000;0.2458;0.1170;
-43.2000;0.2458;0.1170;
-42.9000;0.2450;0.1099;
-42.6000;0.2409;0.1099;
-42.3000;0.2458;0.1146;
-42.0000;0.2450;0.1075;
-41.7000;0.2434;0.1003;
-41.4000;0.2450;0.1003;
-41.1000;0.2450;0.1027;
-40.8000;0.2434;0.1027;
-40.5000;0.2450;0.1027;
-40.2000;0.2466;0.1075;
-39.9000;0.2450;0.1099;
-39.6000;0.2450;0.1075;
-39.3000;0.2491;0.1170;
-39.0000;0.2450;0.1027;
-38.7000;0.2458;0.1003;
-38.4000;0.2450;0.0979;
-38.1000;0.2418;0.0931;
-37.8000;0.2450;0.0979;
-37.5000;0.2426;0.1003;
-37.2000;0.2426;0.1003;
-36.9000;0.2434;0.1003;
-36.6000;0.2442;0.0979;
-36.3000;0.2442;0.1027;
-36.0000;0.2466;0.1122;
-35.7000;0.2442;0.1146;
-35.4000;0.2385;0.0979;
-35.1000;0.2507;0.1290;
-34.8000;0.2352;0.0812;
-34.5000;0.2385;0.0979;
-34.2000;0.2434;0.1122;
-33.9000;0.2450;0.1099;
-33.6000;0.2450;0.1146;
-33.3000;0.2450;0.1146;
-33.0000;0.2483;0.1218;
-32.7000;0.2442;0.1075;
-32.4000;0.2458;0.1027;
-32.1000;0.2450;0.1003;
-31.8000;0.2466;0.1146;
-31.5000;0.2418;0.1003;
-31.2000;0.2434;0.1075;
-30.9000;0.2475;0.1290;
-30.6000;0.2418;0.1146;
-30.3000;0.2426;0.1146;
-30.0000;0.2450;0.1170;
-29.7000;0.2442;0.1170;
-29.4000;0.2361;0.1099;
-29.1000;0.2458;0.1266;
-28.8000;0.2442;0.1146;
-28.5000;0.2450;0.1266;
-28.2000;0.2450;0.1170;
-27.9000;0.2434;0.0955;
-27.6000;0.2458;0.0979;
-27.3000;0.2442;0.0931;
-27.0000;0.2434;0.0884;
-26.7000;0.2418;0.0884;
-26.4000;0.2499;0.1099;
-26.1000;0.2426;0.0979;
-25.8000;0.2450;0.0931;
-25.5000;0.2426;0.0884;
-25.2000;0.2450;0.0979;
-24.9000;0.2434;0.1051;
-24.6000;0.2442;0.1122;
-24.3000;0.2426;0.1051;
-24.0000;0.2418;0.0955;
-23.7000;0.2442;0.1051;
-23.4000;0.2442;0.1099;
-23.1000;0.2434;0.0979;
-22.8000;0.2483;0.1051;
-22.5000;0.2426;0.1003;
-22.2000;0.2442;0.1051;
-21.9000;0.2532;0.1337;
-21.6000;0.2442;0.1170;
-21.3000;0.2450;0.1218;
-21.0000;0.2442;0.1218;
-20.7000;0.2442;0.1194;
-20.4000;0.2450;0.1218;
-20.1000;0.2442;0.1122;
-19.8000;0.2458;0.1099;
-19.5000;0.2442;0.1003;
-19.2000;0.2450;0.0979;
-18.9000;0.2377;0.0740;
-18.6000;0.2434;0.0955;
-18.3000;0.2426;0.0979;
-18.0000;0.2450;0.1075;
-17.7000;0.2434;0.1075;
-17.4000;0.2450;0.1099;
-17.1000;0.2442;0.1075;
-16.8000;0.2458;0.1003;
-16.5000;0.2491;0.1170;
-16.2000;0.2458;0.1099;
-15.9000;0.2442;0.1099;
-15.6000;0.2458;0.1194;
-15.3000;0.2442;0.1242;
-15.0000;0.2442;0.1218;
-14.7000;0.2466;0.1242;
-14.4000;0.2458;0.1314;
-14.1000;0.2466;0.1314;
-13.8000;0.2450;0.1146;
-13.5000;0.2442;0.1146;
-13.2000;0.2450;0.1170;
-12.9000;0.2458;0.1146;
-12.6000;0.2442;0.1122;
-12.3000;0.2450;0.1122;
-12.0000;0.2442;0.1027;
-11.7000;0.2458;0.1122;
-11.4000;0.2434;0.1003;
-11.1000;0.2434;0.1003;
-10.8000;0.2483;0.1146;
-10.5000;0.2409;0.0908;
-10.2000;0.2418;0.1051;
-9.9000;0.2409;0.1146;
-9.6000;0.2426;0.1194;
-9.3000;0.2572;0.1552;
-9.0000;0.2442;0.1266;
-8.7000;0.2458;0.1337;
-8.4000;0.2426;0.1218;
-8.1000;0.2426;0.1170;
-7.8000;0.2499;0.1314;
-7.5000;0.2434;0.1122;
-7.2000;0.2369;0.0908;
-6.9000;0.2475;0.1194;
-6.6000;0.2418;0.1003;
-6.3000;0.2426;0.1027;
-6.0000;0.2434;0.1003;
-5.7000;0.2426;0.1003;
-5.4000;0.2442;0.1075;
-5.1000;0.2434;0.1075;
-4.8000;0.2442;0.1075;
-4.5000;0.2450;0.1122;
-4.2000;0.2499;0.1337;
-3.9000;0.2450;0.1218;
-3.6000;0.2450;0.1218;
-3.3000;0.2466;0.1266;
-3.0000;0.2475;0.1314;
-2.7000;0.2418;0.1099;
-2.4000;0.2442;0.1146;
-2.1000;0.2442;0.1146;
-1.8000;0.2458;0.1170;
-1.5000;0.2434;0.1075;
-1.2000;0.2442;0.1099;
-0.9000;0.2426;0.1051;
-0.6000;0.2426;0.1027;
-0.3000;0.2393;0.0931;
0.0000;0.2393;0.0931;
0.3000;0.2450;0.1122;
0.6000;0.2401;0.0931;
0.9000;0.2393;0.1003;
1.2000;0.2515;0.1409;
1.5000;0.2450;0.1314;
1.8000;0.2442;0.1361;
2.1000;0.2491;0.1600;
2.4000;0.2434;0.1481;
2.7000;0.2450;0.1528;
3.0000;0.2434;0.1481;
3.3000;0.2434;0.1433;
3.6000;0.2458;0.1481;
3.9000;0.2418;0.1481;
4.2000;0.2393;0.1528;
4.5000;0.2426;0.1648;
4.8000;0.2442;0.1696;
5.1000;0.2344;0.1385;
5.4000;0.2426;0.1505;
5.7000;0.2426;0.1505;
6.0000;0.2442;0.1648;
6.3000;0.2426;0.1648;
6.6000;0.2393;0.1696;
6.9000;0.2418;0.1720;
7.2000;0.2434;0.1767;
7.5000;0.2409;0.1672;
7.8000;0.2418;0.1743;
8.1000;0.2434;0.1815;
8.4000;0.2540;0.2173;
8.7000;0.2401;0.1743;
9.0000;0.2418;0.1839;
9.3000;0.2401;0.1696;
9.6000;0.2426;0.1720;
9.9000;0.2466;0.1815;
10.2000;0.2401;0.1672;
10.5000;0.2523;0.2030;
10.8000;0.2475;0.1934;
11.1000;0.2450;0.1839;
11.4000;0.2426;0.1743;
11.7000;0.2426;0.1720;
12.0000;0.2434;0.1815;
12.3000;0.2426;0.1720;
12.6000;0.2458;0.1839;
12.9000;0.2450;0.1863;
13.2000;0.2450;0.1839;
13.5000;0.2458;0.1839;
13.8000;0.2507;0.1982;
14.1000;0.2304;0.1481;
14.4000;0.2458;0.1911;
14.7000;0.2434;0.1863;
15.0000;0.2434;0.1911;
15.3000;0.2483;0.1982;
15.6000;0.2418;0.1791;
15.9000;0.2426;0.1767;
16.2000;0.2434;0.1767;
16.5000;0.2442;0.1791;
16.8000;0.2475;0.1887;
17.1000;0.2418;0.1720;
17.4000;0.2442;0.1863;
17.7000;0.2466;0.1934;
18.0000;0.2426;0.1743;
18.3000;0.2418;0.1767;
18.6000;0.2426;0.1911;
18.9000;0.2434;0.1815;
19.2000;0.2466;0.1887;
19.5000;0.2418;0.1720;
19.8000;0.2434;0.1767;
20.1000;0.2426;0.1743;
20.4000;0.2426;0.1767;
20.7000;0.2409;0.1720;
21.0000;0.2434;0.1791;
21.3000;0.2450;0.1815;
21.6000;0.2434;0.1791;
21.9000;0.2418;0.1720;
22.2000;0.2418;0.1696;
22.5000;0.2450;0.1696;
22.8000;0.2426;0.1672;
23.1000;0.2515;0.1911;
23.4000;0.2466;0.1767;
23.7000;0.2442;0.1696;
24.0000;0.2450;0.1648;
24.3000;0.2426;0.1576;
24.6000;0.2409;0.1624;
24.9000;0.2442;0.1720;
25.2000;0.2418;0.1624;
25.5000;0.2426;0.1648;
25.8000;0.2418;0.1672;
26.1000;0.2434;0.1648;
26.4000;0.2418;0.1696;
26.7000;0.2450;0.1743;
27.0000;0.2409;0.1672;
27.3000;0.2418;0.1648;
27.6000;0.2409;0.1791;
27.9000;0.2418;0.1863;
28.2000;0.2409;0.1887;
28.5000;0.2434;0.1958;
28.8000;0.2426;0.1958;
29.1000;0.2426;0.1958;
29.4000;0.2442;0.2006;
29.7000;0.2409;0.1863;
30.0000;0.2418;0.1767;
30.3000;0.2393;0.1672;
30.6000;0.2418;0.1720;
30.9000;0.2442;0.1815;
31.2000;0.2409;0.1791;
31.5000;0.2434;0.1767;
31.8000;0.2434;0.1791;
32.1000;0.2434;0.1815;
32.4000;0.2450;0.1887;
32.7000;0.2426;0.1863;
33.0000;0.2401;0.1720;
33.3000;0.2442;0.1815;
33.6000;0.2409;0.1672;
33.9000;0.2499;0.1887;
34.2000;0.2434;0.1720;
34.5000;0.2450;0.1839;
34.8000;0.2426;0.1863;
35.1000;0.2442;0.1911;
35.4000;0.2458;0.2006;
35.7000;0.2442;0.1982;
36.0000;0.2409;0.1887;
36.3000;0.2409;0.1934;
36.6000;0.2426;0.1958;
36.9000;0.2507;0.2173;
37.2000;0.2434;0.1934;
37.5000;0.2418;0.1911;
37.8000;0.2385;0.1863;
38.1000;0.2426;0.1911;
38.4000;0.2409;0.1791;
38.7000;0.2385;0.1743;
39.0000;0.2434;0.1791;
39.3000;0.2442;0.1791;
39.6000;0.2426;0.1743;
39.9000;0.2409;0.1672;
40.2000;0.2409;0.1672;
40.5000;0.2409;0.1600;
40.8000;0.2426;0.1696;
41.1000;0.2418;0.1648;
41.4000;0.2401;0.1648;
41.7000;0.2401;0.1648;
42.0000;0.2426;0.1743;
42.3000;0.2426;0.1815;
42.6000;0.2434;0.1839;
42.9000;0.2450;0.1839;
43.2000;0.2434;0.1743;
43.5000;0.2434;0.1815;
43.8000;0.2401;0.1648;
44.1000;0.2434;0.1767;
44.4000;0.2442;0.1887;
44.7000;0.2434;0.1791;
45.0000;0.2548;0.2102;
45.3000;0.2409;0.1720;
45.6000;0.2409;0.1767;
45.9000;0.2434;0.1815;
46.2000;0.2426;0.1672;
46.5000;0.2393;0.1696;
46.8000;0.2426;0.1791;
47.1000;0.2409;0.1791;
47.4000;0.2466;0.1934;
47.7000;0.2409;0.1815;
48.0000;0.2328;0.1552;
48.3000;0.2442;0.1887;
48.6000;0.2434;0.1863;
48.9000;0.2385;0.1696;
49.2000;0.2434;0.1839;
49.5000;0.2434;0.1767;
49.8000;0.2434;0.1672;
50.1000;0.2287;0.1290;
50.4000;0.2401;0.1600;
50.7000;0.2409;0.1696;
51.0000;0.2401;0.1767;
51.3000;0.2393;0.1743;
51.6000;0.2409;0.1815;
51.9000;0.2426;0.1887;
52.2000;0.2426;0.1887;
52.5000;0.2401;0.1839;
52.8000;0.2418;0.1863;
53.1000;0.2418;0.1815;
53.4000;0.2475;0.1911;
53.7000;0.2434;0.1815;
54.0000;0.2418;0.1839;
54.3000;0.2426;0.1815;
54.6000;0.2426;0.1839;
54.9000;0.2450;0.1863;
55.2000;0.2426;0.1863;
55.5000;0.2426;0.1958;
55.8000;0.2434;0.1982;
56.1000;0.2418;0.1934;
56.4000;0.2426;0.1887;
56.7000;0.2385;0.1791;
57.0000;0.2426;0.1815;
57.3000;0.2426;0.1743;
57.6000;0.2426;0.1672;
57.9000;0.2401;0.1600;
58.2000;0.2426;0.1648;
58.5000;0.2442;0.1743;
58.8000;0.2361;0.1552;
59.1000;0.2434;0.1743;
59.4000;0.2442;0.1815;
59.7000;0.2418;0.1743;
60.0000;0.2409;0.1767;
60.3000;0.2418;0.1791;
60.6000;0.2409;0.1791;
60.9000;0.2523;0.2054;
61.2000;0.2401;0.1743;
61.5000;0.2475;0.1887;
61.8000;0.2418;0.1743;
62.1000;0.2409;0.1720;
62.4000;0.2434;0.1743;
62.7000;0.2409;0.1720;
63.0000;0.2434;0.1863;
63.3000;0.2434;0.1791;
63.6000;0.2418;0.1767;
63.9000;0.2409;0.1743;
64.2000;0.2426;0.1743;
64.5000;0.2426;0.1791;
64.8000;0.2426;0.1839;
65.1000;0.2434;0.1863;
65.4000;0.2434;0.1815;
65.7000;0.2304;0.1528;
66.0000;0.2458;0.1934;
66.3000;0.2418;0.1815;
66.6000;0.2409;0.1934;
66.9000;0.2401;0.1863;
67.2000;0.2426;0.1934;
67.5000;0.2458;0.1934;
67.8000;0.2434;0.1887;
68.1000;0.2418;0.1911;
68.4000;0.2426;0.1863;
68.7000;0.2401;0.1911;
69.0000;0.2426;0.1934;
69.3000;0.2418;0.1958;
69.6000;0.2434;0.1934;
69.9000;0.2418;0.1863;
70.2000;0.2418;0.1887;
70.5000;0.2426;0.1839;
70.8000;0.2418;0.1791;
71.1000;0.2434;0.1720;
71.4000;0.2418;0.1648;
71.7000;0.2418;0.1648;
72.0000;0.2344;0.1481;
72.3000;0.2409;0.1743;
72.6000;0.2458;0.1839;
72.9000;0.2434;0.1767;
73.2000;0.2409;0.1720;
73.5000;0.2434;0.1648;
73.8000;0.2418;0.1696;
74.1000;0.2475;0.1839;
74.4000;0.2418;0.1696;
74.7000;0.2393;0.1648;
75.0000;0.2418;0.1600;
75.3000;0.2426;0.1600;
75.6000;0.2418;0.1672;
75.9000;0.2385;0.1672;
76.2000;0.2515;0.1958;
76.5000;0.2418;0.1696;
76.8000;0.2401;0.1600;
77.1000;0.2426;0.1720;
77.4000;0.2418;0.1720;
77.7000;0.2409;0.1767;
78.0000;0.2401;0.1791;
78.3000;0.2409;0.1720;
78.6000;0.2450;0.1696;
78.9000;0.2434;0.1624;
79.2000;0.2418;0.1576;
79.5000;0.2401;0.1552;
79.8000;0.2442;0.1720;
80.1000;0.2434;0.1743;
80.4000;0.2434;0.1624;
80.7000;0.2385;0.1576;
81.0000;0.2418;0.1672;
81.3000;0.2418;0.1743;
81.6000;0.2434;0.1743;
81.9000;0.2409;0.1648;
82.2000;0.2434;0.1648;
82.5000;0.2434;0.1648;
82.8000;0.2434;0.1743;
83.1000;0.2418;0.1720;
83.4000;0.2418;0.1743;
83.7000;0.2434;0.1815;
84.0000;0.2515;0.2030;
84.3000;0.2442;0.1863;
84.6000;0.2426;0.1743;
84.9000;0.2434;0.1767;
85.2000;0.2442;0.1815;
85.5000;0.2434;0.1791;
85.8000;0.2409;0.1743;
86.1000;0.2393;0.1720;
86.4000;0.2434;0.1815;
86.7000;0.2409;0.1767;
87.0000;0.2409;0.1791;
87.3000;0.2418;0.1815;
87.6000;0.2418;0.1934;
87.9000;0.2426;0.1958;
88.2000;0.2418;0.1934;
88.5000;0.2409;0.1911;
88.8000;0.2393;0.1839;
89.1000;0.2426;0.1911;
89.4000;0.2434;0.1934;
89.7000;0.2475;0.2126;
90.0000;0.2418;0.1958;
90.3000;0.2418;0.1887;
90.6000;0.2434;0.1934;
90.9000;0.2434;0.1982;
91.2000;0.2426;0.1839;
91.5000;0.2418;0.1743;
91.8000;0.2418;0.1720;
92.1000;0.2475;0.1839;
92.4000;0.2401;0.1696;
92.7000;0.2409;0.1767;
93.0000;0.2418;0.1815;
93.3000;0.2426;0.1958;
93.6000;0.2409;0.1958;
93.9000;0.2401;0.2006;
94.2000;0.2328;0.1791;
94.5000;0.2426;0.1958;
94.8000;0.2434;0.2006;
95.1000;0.2434;0.1982;
95.4000;0.2401;0.1863;
95.7000;0.2434;0.1839;
96.0000;0.2401;0.1767;
96.3000;0.2418;0.1839;
96.6000;0.2418;0.1791;
96.9000;0.2409;0.1791;
97.2000;0.2442;0.1839;
97.5000;0.2401;0.1791;
97.8000;0.2401;0.1767;
98.1000;0.2393;0.1648;
98.4000;0.2434;0.1743;
98.7000;0.2409;0.1696;
99.0000;0.2352;0.1576;
99.3000;0.2491;0.1982;
99.6000;0.2401;0.1720;
99.9000;0.2393;0.1720;
100.2000;0.2393;0.1791;
100.5000;0.2434;0.2030;
100.8000;0.2418;0.1934;
101.1000;0.2409;0.1911;
101.4000;0.2409;0.1791;
101.7000;0.2409;0.1815;
102.0000;0.2434;0.1887;
102.3000;0.2409;0.1791;
102.6000;0.2418;0.1887;
102.9000;0.2401;0.1839;
103.2000;0.2418;0.1767;
103.5000;0.2434;0.1887;
103.8000;0.2499;0.2102;
104.1000;0.2426;0.1839;
104.4000;0.2328;0.1528;
104.7000;0.2466;0.1863;
105.0000;0.2450;0.1887;
105.3000;0.2426;0.1863;
105.6000;0.2434;0.1887;
105.9000;0.2409;0.1911;
106.2000;0.2409;0.1958;
106.5000;0.2401;0.1958;
106.8000;0.2426;0.1982;
107.1000;0.2418;0.1911;
107.4000;0.2409;0.1934;
107.7000;0.2409;0.1863;
108.0000;0.2442;0.1911;
108.3000;0.2442;0.1839;
108.6000;0.2499;0.2006;
108.9000;0.2426;0.1863;
109.2000;0.2426;0.2006;
109.5000;0.2409;0.1982;
109.8000;0.2409;0.2030;
110.1000;0.2426;0.2054;
110.4000;0.2466;0.2197;
110.7000;0.2352;0.1911;
111.0000;0.2418;0.2030;
111.3000;0.2523;0.2173;
111.6000;0.2434;0.1934;
111.9000;0.2418;0.1911;
112.2000;0.2507;0.2173;
112.5000;0.2434;0.1887;
112.8000;0.2418;0.1743;
113.1000;0.2426;0.1720;
113.4000;0.2409;0.1743;
113.7000;0.2426;0.1791;
114.0000;0.2401;0.1815;
114.3000;0.2434;0.1934;
114.6000;0.2385;0.1767;
114.9000;0.2442;0.1887;
115.2000;0.2418;0.1815;
115.5000;0.2434;0.1887;
115.8000;0.2434;0.1696;
116.1000;0.2426;0.1624;
116.4000;0.2409;0.1648;
116.7000;0.2434;0.1767;
117.0000;0.2409;0.1791;
117.3000;0.2369;0.1696;
117.6000;0.2409;0.1720;
117.9000;0.2409;0.1696;
118.2000;0.2418;0.1720;
118.5000;0.2426;0.1743;
118.8000;0.2409;0.1672;
119.1000;0.2418;0.1863;
119.4000;0.2401;0.1791;
119.7000;0.2409;0.1767;
120.0000;0.2418;0.1696;
120.3000;0.2409;0.1696;
120.6000;0.2409;0.1696;
120.9000;0.2418;0.1767;
121.2000;0.2401;0.1743;
121.5000;0.2418;0.1720;
121.8000;0.2409;0.1791;
122.1000;0.2409;0.1743;
122.4000;0.2393;0.1672;
122.7000;0.2426;0.1767;
123.0000;0.2401;0.1743;
123.3000;0.2418;0.1815;
123.6000;0.2393;0.1743;
123.9000;0.2418;0.1887;
124.2000;0.2426;0.1863;
124.5000;0.2409;0.1743;
124.8000;0.2434;0.1839;
125.1000;0.2409;0.1791;
125.4000;0.2450;0.1934;
125.7000;0.2409;0.1887;
126.0000;0.2458;0.1934;
126.3000;0.2426;0.1839;
126.6000;0.2409;0.1720;
126.9000;0.2442;0.1696;
127.2000;0.2450;0.1863;
127.5000;0.2418;0.1863;
127.8000;0.2475;0.1934;
128.1000;0.2458;0.1911;
128.4000;0.2418;0.1839;
128.7000;0.2369;0.1720;
129.0000;0.2409;0.1839;
129.3000;0.2409;0.1863;
129.6000;0.2409;0.1767;
129.9000;0.2418;0.1720;
130.2000;0.2409;0.1600;
130.5000;0.2418;0.1600;
130.8000;0.2393;0.1576;
131.1000;0.2418;0.1648;
131.4000;0.2377;0.1600;
131.7000;0.2393;0.1624;
132.0000;0.2418;0.1696;
132.3000;0.2409;0.1696;
132.6000;0.2442;0.1720;
132.9000;0.2418;0.1672;
133.2000;0.2409;0.1624;
133.5000;0.2458;0.1791;
133.8000;0.2418;0.1743;
134.1000;0.2442;0.1815;
134.4000;0.2426;0.1767;
134.7000;0.2418;0.1720;
135.0000;0.2401;0.1696;
135.3000;0.2393;0.1648;
135.6000;0.2401;0.1648;
135.9000;0.2426;0.1600;
136.2000;0.2426;0.1576;
136.5000;0.2442;0.1648;
136.8000;0.2418;0.1624;
137.1000;0.2434;0.1600;
137.4000;0.2434;0.1648;
137.7000;0.2409;0.1720;
138.0000;0.2434;0.1815;
138.3000;0.2418;0.1815;
138.6000;0.2401;0.1767;
138.9000;0.2426;0.1720;
139.2000;0.2418;0.1767;
139.5000;0.2450;0.1958;
139.8000;0.2409;0.1815;
140.1000;0.2499;0.2030;
140.4000;0.2426;0.1791;
140.7000;0.2442;0.1696;
141.0000;0.2434;0.1696;
141.3000;0.2393;0.1624;
141.6000;0.2442;0.1720;
141.9000;0.2336;0.1337;
142.2000;0.2418;0.1600;
142.5000;0.2450;0.1648;
142.8000;0.2418;0.1672;
143.1000;0.2475;0.1743;
143.4000;0.2401;0.1600;
143.7000;0.2401;0.1600;
144.0000;0.2466;0.1815;
144.3000;0.2385;0.1576;
144.6000;0.2426;0.1576;
144.9000;0.2409;0.1552;
145.2000;0.2434;0.1648;
145.5000;0.2434;0.1576;
145.8000;0.2409;0.1600;
146.1000;0.2409;0.1672;
146.4000;0.2418;0.1648;
146.7000;0.2401;0.1576;
147.0000;0.2418;0.1696;
147.3000;0.2434;0.1696;
147.6000;0.2385;0.1600;
147.9000;0.2409;0.1648;
148.2000;0.2418;0.1576;
148.5000;0.2401;0.1552;
148.8000;0.2409;0.1552;
149.1000;0.2418;0.1648;
149.4000;0.2393;0.1624;
149.7000;0.2475;0.1887;
150.0000;0.2418;0.1767;
150.3000;0.2418;0.1767;
150.6000;0.2426;0.1720;
150.9000;0.2450;0.1672;
151.2000;0.2418;0.1576;
151.5000;0.2385;0.1457;
151.8000;0.2466;0.1672;
152.1000;0.2418;0.1552;
152.4000;0.2393;0.1505;
152.7000;0.2418;0.1648;
153.0000;0.2409;0.1696;
153.3000;0.2418;0.1791;
153.6000;0.2393;0.1791;
153.9000;0.2409;0.1815;
154.2000;0.2401;0.1839;
154.5000;0.2401;0.1767;
154.8000;0.2418;0.1743;
155.1000;0.2401;0.1600;
155.4000;0.2426;0.1672;
155.7000;0.2418;0.1552;
156.0000;0.2418;0.1576;
156.3000;0.2401;0.1600;
156.6000;0.2409;0.1624;
156.9000;0.2434;0.1528;
157.2000;0.2295;0.1266;
157.5000;0.2401;0.1552;
157.8000;0.2458;0.1720;
158.1000;0.2409;0.1576;
158.4000;0.2409;0.1672;
158.7000;0.2409;0.1696;
159.0000;0.2418;0.1576;
159.3000;0.2393;0.1481;
159.6000;0.2418;0.1576;
159.9000;0.2418;0.1600;
160.2000;0.2401;0.1552;
160.5000;0.2401;0.1624;
160.8000;0.2418;0.1576;
161.1000;0.2426;0.1576;
161.4000;0.2442;0.1743;
161.7000;0.2426;0.1767;
162.0000;0.2426;0.1839;
162.3000;0.2434;0.1839;
162.6000;0.2418;0.1791;
162.9000;0.2426;0.1815;
163.2000;0.2450;0.1791;
163.5000;0.2377;0.1672;
163.8000;0.2418;0.1672;
164.1000;0.2393;0.1696;
164.4000;0.2466;0.1863;
164.7000;0.2401;0.1720;
165.0000;0.2426;0.1815;
165.3000;0.2409;0.1720;
165.6000;0.2401;0.1767;
165.9000;0.2434;0.1863;
166.2000;0.2418;0.1815;
166.5000;0.2409;0.1767;
166.8000;0.2434;0.1696;
167.1000;0.2401;0.1648;
167.4000;0.2418;0.1672;
167.7000;0.2401;0.1672;
168.0000;0.2393;0.1672;
168.3000;0.2409;0.1815;
168.6000;0.2312;0.1552;
168.9000;0.2409;0.1743;
169.2000;0.2401;0.1672;
169.5000;0.2401;0.1696;
169.8000;0.2401;0.1696;
170.1000;0.2393;0.1648;
170.4000;0.2401;0.1624;
170.7000;0.2418;0.1576;
171.0000;0.2426;0.1600;
171.3000;0.2401;0.1600;
171.6000;0.2393;0.1696;
171.9000;0.2418;0.1743;
172.2000;0.2418;0.1767;
172.5000;0.2418;0.1791;
172.8000;0.2418;0.1767;
173.1000;0.2426;0.1839;
173.4000;0.2418;0.1887;
173.7000;0.2458;0.2078;
174.0000;0.2426;0.1958;
174.3000;0.2409;0.1863;
174.6000;0.2426;0.1839;
174.9000;0.2426;0.1815;
175.2000;0.2409;0.1696;
175.5000;0.2426;0.1720;
175.8000;0.2409;0.1648;
176.1000;0.2401;0.1576;
176.4000;0.2418;0.1624;
176.7000;0.2418;0.1743;
177.0000;0.2393;0.1696;
177.3000;0.2434;0.1743;
177.6000;0.2418;0.1720;
177.9000;0.2409;0.1696;
178.2000;0.2409;0.1672;
178.5000;0.2401;0.1720;
178.8000;0.2475;0.1887;
179.1000;0.2401;0.1720;
179.4000;0.2409;0.1648;
179.7000;0.2377;0.1576;
180.0000;0.2434;0.1720;
180.3000;0.2418;0.1743;
180.6000;0.2336;0.1505;
180.9000;0.2409;0.1767;
181.2000;0.2418;0.1839;
181.5000;0.2401;0.1863;
181.8000;0.2361;0.1767;
182.1000;0.2418;0.1911;
182.4000;0.2418;0.1863;
182.7000;0.2418;0.1863;
183.0000;0.2418;0.1911;
183.3000;0.2418;0.1863;
183.6000;0.2393;0.1815;
183.9000;0.2409;0.1911;
184.2000;0.2418;0.1934;
184.5000;0.2409;0.1934;
184.8000;0.2352;0.1791;
185.1000;0.2401;0.2006;
185.4000;0.2426;0.2078;
185.7000;0.2409;0.2030;
186.0000;0.2418;0.2030;
186.3000;0.2426;0.2006;
186.6000;0.2418;0.1911;
186.9000;0.2434;0.1839;
187.2000;0.2409;0.1672;
187.5000;0.2418;0.1696;
187.8000;0.2450;0.1815;
188.1000;0.2418;0.1743;
188.4000;0.2409;0.1743;
188.7000;0.2409;0.1696;
189.0000;0.2458;0.1672;
189.3000;0.2418;0.1600;
189.6000;0.2393;0.1648;
189.9000;0.2426;0.1600;
190.2000;0.2401;0.1576;
190.5000;0.2361;0.1528;
190.8000;0.2401;0.1600;
191.1000;0.2361;0.1481;
191.4000;0.2295;0.1505;
191.7000;0.2409;0.1767;
192.0000;0.2401;0.1696;
192.3000;0.2401;0.1696;
192.6000;0.2426;0.1696;
192.9000;0.2401;0.1672;
193.2000;0.2393;0.1791;
193.5000;0.2409;0.1934;
193.8000;0.2426;0.1911;
194.1000;0.2426;0.1911;
194.4000;0.2409;0.1791;
194.7000;0.2401;0.1720;
195.0000;0.2393;0.1672;
195.3000;0.2401;0.1743;
195.6000;0.2385;0.1600;
195.9000;0.2418;0.1720;
196.2000;0.2401;0.1624;
196.5000;0.2458;0.1791;
196.8000;0.2434;0.1815;
197.1000;0.2401;0.1815;
197.4000;0.2401;0.1720;
197.7000;0.2426;0.1720;
198.0000;0.2409;0.1720;
198.3000;0.2426;0.1791;
198.6000;0.2418;0.1911;
198.9000;0.2426;0.1982;
199.2000;0.2426;0.1934;
199.5000;0.2401;0.1887;
199.8000;0.2418;0.2006;
200.1000;0.2409;0.1887;
200.4000;0.2418;0.1815;
200.7000;0.2442;0.1887;
201.0000;0.2385;0.1743;
201.3000;0.2409;0.1791;
201.6000;0.2369;0.1576;
201.9000;0.2409;0.1600;
202.2000;0.2401;0.1624;
202.5000;0.2401;0.1600;
202.8000;0.2328;0.1361;
203.1000;0.2426;0.1624;
203.4000;0.2409;0.1624;
203.7000;0.2409;0.1672;
204.0000;0.2442;0.1767;
204.3000;0.2409;0.1720;
204.6000;0.2393;0.1672;
204.9000;0.2393;0.1696;
205.2000;0.2401;0.1624;
205.5000;0.2450;0.1648;
205.8000;0.2361;0.1481;
206.1000;0.2401;0.1624;
206.4000;0.2418;0.1743;
206.7000;0.2426;0.1767;
207.0000;0.2409;0.1672;
207.3000;0.2426;0.1791;
207.6000;0.2418;0.1767;
207.9000;0.2434;0.1767;
208.2000;0.2426;0.1720;
208.5000;0.2401;0.1743;
208.8000;0.2409;0.1743;
209.1000;0.2385;0.1743;
209.4000;0.2434;0.1911;
209.7000;0.2401;0.1791;
210.0000;0.2401;0.1720;
210.3000;0.2401;0.1720;
210.6000;0.2401;0.1791;
210.9000;0.2401;0.1791;
211.2000;0.2450;0.1863;
211.5000;0.2393;0.1696;
211.8000;0.2401;0.1696;
212.1000;0.2556;0.2054;
212.4000;0.2401;0.1720;
212.7000;0.2377;0.1743;
213.0000;0.2442;0.1958;
213.3000;0.2393;0.1791;
213.6000;0.2418;0.1815;
213.9000;0.2409;0.1839;
214.2000;0.2401;0.1767;
214.5000;0.2361;0.1600;
214.8000;0.2393;0.1696;
215.1000;0.2409;0.1696;
215.4000;0.2401;0.1696;
215.7000;0.2426;0.1767;
216.0000;0.2401;0.1720;
216.3000;0.2377;0.1648;
216.6000;0.2385;0.1648;
216.9000;0.2409;0.1743;
217.2000;0.2377;0.1720;
217.5000;0.2393;0.1839;
217.8000;0.2401;0.1767;
218.1000;0.2434;0.1863;
218.4000;0.2418;0.1767;
218.7000;0.2409;0.1696;
219.0000;0.2401;0.1696;
219.3000;0.2426;0.1767;
219.6000;0.2409;0.1863;
219.9000;0.2418;0.1839;
220.2000;0.2409;0.1720;
220.5000;0.2426;0.1815;
220.8000;0.2426;0.1791;
221.1000;0.2393;0.1672;
221.4000;0.2426;0.1791;
221.7000;0.2409;0.1743;
222.0000;0.2418;0.1791;
222.3000;0.2409;0.1767;
222.6000;0.2385;0.1720;
222.9000;0.2409;0.1863;
223.2000;0.2426;0.1934;
223.5000;0.2418;0.1934;
223.8000;0.2515;0.2245;
224.1000;0.2409;0.1911;
224.4000;0.2418;0.1911;
224.7000;0.2369;0.1767;
225.0000;0.2409;0.1791;
225.3000;0.2418;0.1720;
225.6000;0.2393;0.1600;
225.9000;0.2409;0.1696;
226.2000;0.2409;0.1696;
226.5000;0.2352;0.1600;
226.8000;0.2385;0.1696;
227.1000;0.2393;0.1720;
227.4000;0.2409;0.1648;
227.7000;0.2401;0.1624;
228.0000;0.2385;0.1624;
228.3000;0.2409;0.1672;
228.6000;0.2409;0.1648;
228.9000;0.2401;0.1600;
229.2000;0.2401;0.1648;
229.5000;0.2377;0.1576;
229.8000;0.2295;0.1314;
230.1000;0.2409;0.1648;
230.4000;0.2458;0.1696;
230.7000;0.2409;0.1481;
231.0000;0.2401;0.1481;
231.3000;0.2418;0.1552;
231.6000;0.2393;0.1481;
231.9000;0.2401;0.1552;
232.2000;0.2369;0.1481;
232.5000;0.2385;0.1433;
232.8000;0.2418;0.1505;
233.1000;0.2409;0.1528;
233.4000;0.2434;0.1552;
233.7000;0.2418;0.1528;
234.0000;0.2418;0.1600;
234.3000;0.2401;0.1576;
234.6000;0.2426;0.1576;
234.9000;0.2409;0.1505;
235.2000;0.2401;0.1528;
235.5000;0.2393;0.1409;
235.8000;0.2385;0.1337;
236.1000;0.2377;0.1314;
236.4000;0.2418;0.1457;
236.7000;0.2369;0.1409;
237.0000;0.2385;0.1505;
237.3000;0.2328;0.1409;
237.6000;0.2418;0.1720;
237.9000;0.2418;0.1720;
238.2000;0.2418;0.1743;
238.5000;0.2409;0.1815;
238.8000;0.2409;0.1839;
239.1000;0.2418;0.1815;
239.4000;0.2401;0.1696;
239.7000;0.2418;0.1743;
240.0000;0.2409;0.1696;
240.3000;0.2409;0.1648;
240.6000;0.2377;0.1552;
240.9000;0.2385;0.1576;
241.2000;0.2409;0.1624;
241.5000;0.2434;0.1767;
241.8000;0.2409;0.1696;
242.1000;0.2409;0.1743;
242.4000;0.2401;0.1743;
242.7000;0.2393;0.1815;
243.0000;0.2409;0.1839;
243.3000;0.2418;0.1696;
243.6000;0.2377;0.1672;
243.9000;0.2515;0.1982;
244.2000;0.2418;0.1624;
244.5000;0.2401;0.1552;
244.8000;0.2418;0.1528;
245.1000;0.2409;0.1457;
245.4000;0.2393;0.1337;
245.7000;0.2409;0.1361;
246.0000;0.2426;0.1361;
246.3000;0.2401;0.1361;
246.6000;0.2426;0.1481;
246.9000;0.2507;0.1672;
247.2000;0.2401;0.1433;
247.5000;0.2409;0.1528;
247.8000;0.2393;0.1552;
248.1000;0.2401;0.1552;
248.4000;0.2385;0.1505;
248.7000;0.2418;0.1648;
249.0000;0.2409;0.1576;
249.3000;0.2434;0.1648;
249.6000;0.2401;0.1552;
249.9000;0.2401;0.1672;
250.2000;0.2409;0.1696;
250.5000;0.2401;0.1672;
250.8000;0.2393;0.1624;
251.1000;0.2393;0.1648;
251.4000;0.2401;0.1696;
251.7000;0.2418;0.1696;
252.0000;0.2409;0.1648;
252.3000;0.2409;0.1648;
252.6000;0.2418;0.1624;
252.9000;0.2393;0.1624;
253.2000;0.2418;0.1600;
253.5000;0.2409;0.1624;
253.8000;0.2475;0.1791;
254.1000;0.2401;0.1672;
254.4000;0.2393;0.1600;
254.7000;0.2434;0.1672;
255.0000;0.2418;0.1600;
255.3000;0.2434;0.1600;
255.6000;0.2466;0.1743;
255.9000;0.2401;0.1552;
256.2000;0.2426;0.1576;
256.5000;0.2426;0.1552;
256.8000;0.2401;0.1505;
257.1000;0.2377;0.1457;
257.4000;0.2409;0.1505;
257.7000;0.2409;0.1552;
258.0000;0.2418;0.1552;
258.3000;0.2385;0.1505;
258.6000;0.2475;0.1815;
258.9000;0.2442;0.1767;
259.2000;0.2450;0.1720;
259.5000;0.2409;0.1576;
259.8000;0.2393;0.1505;
260.1000;0.2418;0.1576;
260.4000;0.2491;0.1791;
260.7000;0.2393;0.1576;
261.0000;0.2401;0.1648;
261.3000;0.2409;0.1696;
261.6000;0.2385;0.1648;
261.9000;0.2401;0.1672;
262.2000;0.2409;0.1696;
262.5000;0.2401;0.1743;
262.8000;0.2409;0.1791;
263.1000;0.2450;0.1911;
263.4000;0.2418;0.1767;
263.7000;0.2426;0.1791;
264.0000;0.2393;0.1743;
264.3000;0.2409;0.1743;
264.6000;0.2409;0.1815;
264.9000;0.2409;0.1839;
265.2000;0.2426;0.1934;
265.5000;0.2401;0.1887;
265.8000;0.2450;0.1958;
266.1000;0.2418;0.1863;
266.4000;0.2401;0.1863;
266.7000;0.2418;0.1887;
267.0000;0.2320;0.1672;
267.3000;0.2401;0.1815;
267.6000;0.2401;0.1815;
267.9000;0.2426;0.1863;
268.2000;0.2393;0.1815;
268.5000;0.2385;0.1839;
268.8000;0.2401;0.1911;
269.1000;0.2393;0.1887;
269.4000;0.2409;0.1911;
269.7000;0.2377;0.1839;
270.0000;0.2409;0.1839;
270.3000;0.2401;0.1767;
270.6000;0.2426;0.1839;
270.9000;0.2401;0.1839;
271.2000;0.2393;0.1815;
271.5000;0.2475;0.1982;
271.8000;0.2393;0.1815;
272.1000;0.2401;0.1767;
272.4000;0.2409;0.1767;
272.7000;0.2352;0.1720;
273.0000;0.2369;0.1743;
273.3000;0.2409;0.1863;
273.6000;0.2393;0.1815;
273.9000;0.2393;0.1743;
274.2000;0.2426;0.1863;
274.5000;0.2409;0.1791;
274.8000;0.2483;0.1934;
275.1000;0.2385;0.1672;
275.4000;0.2409;0.1791;
275.7000;0.2450;0.1958;
276.0000;0.2409;0.1863;
276.3000;0.2393;0.1767;
276.6000;0.2409;0.1720;
276.9000;0.2418;0.1720;
277.2000;0.2475;0.1791;
277.5000;0.2393;0.1648;
277.8000;0.2401;0.1672;
278.1000;0.2385;0.1696;
278.4000;0.2401;0.1696;
278.7000;0.2418;0.1839;
279.0000;0.2393;0.1720;
279.3000;0.2385;0.1743;
279.6000;0.2450;0.1958;
279.9000;0.2393;0.1839;
280.2000;0.2409;0.1863;
280.5000;0.2434;0.1911;
280.8000;0.2418;0.1815;
281.1000;0.2442;0.1887;
281.4000;0.2418;0.1839;
281.7000;0.2426;0.1911;
282.0000;0.2369;0.1767;
282.3000;0.2352;0.1720;
282.6000;0.2393;0.1815;
282.9000;0.2385;0.1767;
283.2000;0.2377;0.1743;
283.5000;0.2409;0.1863;
283.8000;0.2385;0.1696;
284.1000;0.2401;0.1743;
284.4000;0.2418;0.1767;
284.7000;0.2393;0.1791;
285.0000;0.2393;0.1767;
285.3000;0.2401;0.1791;
285.6000;0.2401;0.1767;
285.9000;0.2409;0.1743;
286.2000;0.2426;0.1743;
286.5000;0.2409;0.1648;
286.8000;0.2409;0.1720;
287.1000;0.2377;0.1672;
287.4000;0.2393;0.1815;
287.7000;0.2409;0.1863;
288.0000;0.2369;0.1791;
288.3000;0.2418;0.1911;
288.6000;0.2401;0.1791;
288.9000;0.2418;0.1791;
289.2000;0.2475;0.2006;
289.5000;0.2426;0.1863;
289.8000;0.2401;0.1815;
290.1000;0.2393;0.1720;
290.4000;0.2409;0.1672;
290.7000;0.2409;0.1672;
291.0000;0.2393;0.1505;
291.3000;0.2418;0.1481;
291.6000;0.2401;0.1481;
291.9000;0.2409;0.1552;
292.2000;0.2401;0.1552;
292.5000;0.2426;0.1600;
292.8000;0.2409;0.1600;
293.1000;0.2426;0.1672;
293.4000;0.2409;0.1743;
293.7000;0.2450;0.1839;
294.0000;0.2409;0.1720;
294.3000;0.2458;0.1839;
294.6000;0.2393;0.1696;
294.9000;0.2409;0.1767;
295.2000;0.2426;0.1743;
295.5000;0.2377;0.1600;
295.8000;0.2409;0.1648;
296.1000;0.2426;0.1624;
296.4000;0.2442;0.1696;
296.7000;0.2418;0.1648;
297.0000;0.2409;0.1600;
297.3000;0.2401;0.1552;
297.6000;0.2369;0.1528;
297.9000;0.2409;0.1672;
298.2000;0.2401;0.1624;
298.5000;0.2426;0.1624;
298.8000;0.2409;0.1552;
299.1000;0.2409;0.1672;
299.4000;0.2409;0.1696;
299.7000;0.2393;0.1624;
300.0000;0.2344;0.1409;
300.3000;0.2401;0.1552;
300.6000;0.2418;0.1481;
300.9000;0.2409;0.1505;
301.2000;0.2418;0.1505;
301.5000;0.2393;0.1481;
301.8000;0.2409;0.1624;
302.1000;0.2450;0.1720;
302.4000;0.2409;0.1552;
302.7000;0.2418;0.1624;
303.0000;0.2401;0.1672;
303.3000;0.2409;0.1743;
303.6000;0.2320;0.1505;
303.9000;0.2401;0.1791;
304.2000;0.2393;0.1791;
304.5000;0.2401;0.1791;
304.8000;0.2385;0.1696;
305.1000;0.2409;0.1743;
305.4000;0.2418;0.1839;
305.7000;0.2401;0.1934;
306.0000;0.2401;0.1982;
306.3000;0.2426;0.2006;
306.6000;0.2377;0.1863;
306.9000;0.2393;0.1839;
307.2000;0.2393;0.1815;
307.5000;0.2401;0.1863;
307.8000;0.2385;0.1839;
308.1000;0.2393;0.1743;
308.4000;0.2409;0.1672;
308.7000;0.2393;0.1624;
309.0000;0.2393;0.1672;
309.3000;0.2401;0.1696;
309.6000;0.2385;0.1672;
309.9000;0.2393;0.1720;
310.2000;0.2409;0.1648;
310.5000;0.2385;0.1624;
310.8000;0.2409;0.1720;
311.1000;0.2393;0.1720;
311.4000;0.2409;0.1863;
311.7000;0.2369;0.1815;
312.0000;0.2393;0.1887;
312.3000;0.2385;0.1839;
312.6000;0.2409;0.1863;
312.9000;0.2401;0.1839;
313.2000;0.2409;0.1863;
313.5000;0.2393;0.1743;
313.8000;0.2393;0.1791;
314.1000;0.2401;0.1863;
314.4000;0.2401;0.1887;
314.7000;0.2393;0.1743;
315.0000;0.2409;0.1767;
315.3000;0.2418;0.1839;
315.6000;0.2409;0.1815;
315.9000;0.2401;0.1767;
316.2000;0.2418;0.1743;
316.5000;0.2409;0.1648;
316.8000;0.2409;0.1720;
317.1000;0.2393;0.1720;
317.4000;0.2401;0.1791;
317.7000;0.2418;0.1934;
318.0000;0.2409;0.1934;
318.3000;0.2450;0.2054;
318.6000;0.2418;0.1887;
318.9000;0.2409;0.1887;
319.2000;0.2401;0.1982;
319.5000;0.2426;0.2054;
319.8000;0.2385;0.2006;
320.1000;0.2393;0.1982;
320.4000;0.2401;0.1958;
320.7000;0.2434;0.1982;
321.0000;0.2401;0.1958;
321.3000;0.2393;0.1934;
321.6000;0.2377;0.1815;
321.9000;0.2401;0.1934;
322.2000;0.2409;0.1934;
322.5000;0.2401;0.1839;
322.8000;0.2409;0.1934;
323.1000;0.2401;0.1887;
323.4000;0.2393;0.1958;
323.7000;0.2401;0.2006;
324.0000;0.2409;0.1982;
324.3000;0.2401;0.1934;
324.6000;0.2401;0.1887;
324.9000;0.2401;0.1791;
325.2000;0.2377;0.1720;
325.5000;0.2409;0.1743;
325.8000;0.2385;0.1720;
326.1000;0.2409;0.1672;
326.4000;0.2418;0.1696;
326.7000;0.2418;0.1767;
327.0000;0.2409;0.1791;
327.3000;0.2385;0.1624;
327.6000;0.2377;0.1624;
327.9000;0.2401;0.1791;
328.2000;0.2418;0.1767;
328.5000;0.2426;0.1767;
328.8000;0.2418;0.1839;
329.1000;0.2409;0.1839;
329.4000;0.2442;0.1934;
329.7000;0.2401;0.1839;
330.0000;0.2377;0.1815;
330.3000;0.2393;0.1887;
330.6000;0.2475;0.2054;
330.9000;0.2409;0.1791;
331.2000;0.2393;0.1743;
331.5000;0.2393;0.1743;
331.8000;0.2393;0.1672;
332.1000;0.2239;0.1194;
332.4000;0.2401;0.1576;
332.7000;0.2409;0.1528;
333.0000;0.2401;0.1552;
333.3000;0.2393;0.1505;
333.6000;0.2401;0.1361;
333.9000;0.2418;0.1361;
334.2000;0.2499;0.1648;
334.5000;0.2393;0.1385;
334.8000;0.2426;0.1361;
335.1000;0.2385;0.1361;
335.4000;0.2393;0.1361;
335.7000;0.2409;0.1361;
336.0000;0.2393;0.1337;
336.3000;0.2344;0.1242;
336.6000;0.2312;0.1146;
336.9000;0.2409;0.1481;
337.2000;0.2401;0.1505;
337.5000;0.2434;0.1576;
337.8000;0.2450;0.1552;
338.1000;0.2418;0.1433;
338.4000;0.2418;0.1433;
338.7000;0.2369;0.1290;
339.0000;0.2393;0.1457;
339.3000;0.2418;0.1624;
339.6000;0.2426;0.1743;
339.9000;0.2312;0.1433;
340.2000;0.2393;0.1720;
340.5000;0.2393;0.1743;
340.8000;0.2401;0.1791;
341.1000;0.2409;0.1743;
341.4000;0.2377;0.1672;
341.7000;0.2361;0.1552;
342.0000;0.2426;0.1743;
342.3000;0.2442;0.1887;
342.6000;0.2450;0.1887;
342.9000;0.2401;0.1791;
343.2000;0.2426;0.1958;
343.5000;0.2401;0.1887;
343.8000;0.2418;0.1815;
344.1000;0.2393;0.1720;
344.4000;0.2401;0.1791;
344.7000;0.2401;0.1767;
345.0000;0.2385;0.1672;
345.3000;0.2385;0.1600;
345.6000;0.2401;0.1672;
345.9000;0.2401;0.1696;
346.2000;0.2377;0.1672;
346.5000;0.2377;0.1672;
346.8000;0.2401;0.1720;
347.1000;0.2418;0.1791;
347.4000;0.2418;0.1672;
347.7000;0.2442;0.1672;
348.0000;0.2409;0.1600;
348.3000;0.2409;0.1624;
348.6000;0.2442;0.1696;
348.9000;0.2401;0.1528;
349.2000;0.2409;0.1576;
349.5000;0.2369;0.1505;
349.8000;0.2393;0.1648;
350.1000;0.2401;0.1576;
350.4000;0.2393;0.1624;
350.7000;0.2393;0.1672;
351.0000;0.2401;0.1600;
351.3000;0.2352;0.1457;
351.6000;0.2385;0.1528;
351.9000;0.2393;0.1600;
352.2000;0.2442;0.1696;
352.5000;0.2393;0.1552;
352.8000;0.2409;0.1576;
353.1000;0.2401;0.1720;
353.4000;0.2409;0.1743;
353.7000;0.2401;0.1743;
354.0000;0.2393;0.1743;
354.3000;0.2401;0.1767;
354.6000;0.2409;0.1815;
354.9000;0.2393;0.1767;
355.2000;0.2393;0.1815;
355.5000;0.2426;0.1911;
355.8000;0.2401;0.1815;
356.1000;0.2442;0.2006;
356.4000;0.2409;0.1839;
356.7000;0.2409;0.1767;
357.0000;0.2393;0.1743;
357.3000;0.2401;0.1743;
357.6000;0.2418;0.1815;
357.9000;0.2401;0.1815;
358.2000;0.2458;0.1911;
358.5000;0.2418;0.1887;
358.8000;0.2409;0.1911;
359.1000;0.2418;0.1934;
359.4000;0.2393;0.1887;
359.7000;0.2393;0.1887;
360.0000;0.2409;0.1839;
360.3000;0.2409;0.1791;
360.6000;0.2401;0.1696;
360.9000;0.2393;0.1696;
361.2000;0.2409;0.1720;
361.5000;0.2434;0.1815;
361.8000;0.2409;0.1743;
362.1000;0.2401;0.1672;
362.4000;0.2401;0.1672;
362.7000;0.2361;0.1576;
363.0000;0.2409;0.1696;
363.3000;0.2409;0.1696;
363.6000;0.2418;0.1696;
363.9000;0.2377;0.1576;
364.2000;0.2409;0.1624;
364.5000;0.2401;0.1600;
364.8000;0.2393;0.1648;
365.1000;0.2409;0.1696;
365.4000;0.2385;0.1696;
365.7000;0.2336;0.1624;
366.0000;0.2377;0.1791;
366.3000;0.2320;0.1552;
366.6000;0.2418;0.1815;
366.9000;0.2393;0.1720;
367.2000;0.2450;0.1887;
367.5000;0.2418;0.1839;
367.8000;0.2483;0.1911;
368.1000;0.2401;0.1743;
368.4000;0.2312;0.1528;
368.7000;0.2426;0.1911;
369.0000;0.2409;0.1863;
369.3000;0.2409;0.1863;
369.6000;0.2393;0.1863;
369.9000;0.2442;0.1839;
370.2000;0.2418;0.1815;
370.5000;0.2393;0.1791;
370.8000;0.2401;0.1934;
371.1000;0.2393;0.1958;
371.4000;0.2377;0.1934;
371.7000;0.2418;0.1982;
372.0000;0.2401;0.1982;
372.3000;0.2401;0.1982;
372.6000;0.2393;0.1911;
372.9000;0.2369;0.1839;
373.2000;0.2377;0.1839;
373.5000;0.2393;0.1839;
373.8000;0.2426;0.1887;
374.1000;0.2434;0.1934;
374.4000;0.2450;0.1982;
374.7000;0.2434;0.1982;
375.0000;0.2393;0.1934;
375.3000;0.2393;0.1863;
375.6000;0.2352;0.1791;
375.9000;0.2369;0.1839;
376.2000;0.2418;0.1887;
376.5000;0.2401;0.1863;
376.8000;0.2409;0.1863;
377.1000;0.2401;0.1887;
377.4000;0.2393;0.1887;
377.7000;0.2418;0.1887;
378.0000;0.2409;0.1863;
378.3000;0.2409;0.1815;
378.6000;0.2426;0.1863;
378.9000;0.2393;0.1767;
379.2000;0.2409;0.1839;
379.5000;0.2409;0.1958;
379.8000;0.2418;0.1958;
380.1000;0.2418;0.1958;
380.4000;0.2418;0.1934;
380.7000;0.2401;0.1863;
381.0000;0.2401;0.1863;
381.3000;0.2393;0.1791;
381.6000;0.2426;0.1863;
381.9000;0.2409;0.1767;
382.2000;0.2401;0.1720;
382.5000;0.2377;0.1672;
382.8000;0.2426;0.1767;
383.1000;0.2409;0.1720;
383.4000;0.2409;0.1648;
383.7000;0.2409;0.1600;
384.0000;0.2393;0.1624;
384.3000;0.2442;0.1743;
384.6000;0.2418;0.1696;
384.9000;0.2401;0.1624;
385.2000;0.2426;0.1720;
385.5000;0.2401;0.1720;
385.8000;0.2401;0.1815;
386.1000;0.2393;0.1720;
386.4000;0.2418;0.1648;
386.7000;0.2426;0.1696;
387.0000;0.2418;0.1600;
387.3000;0.2442;0.1624;
387.6000;0.2434;0.1576;
387.9000;0.2401;0.1552;
388.2000;0.2393;0.1528;
388.5000;0.2418;0.1600;
388.8000;0.2369;0.1528;
389.1000;0.2401;0.1600;
389.4000;0.2418;0.1624;
389.7000;0.2409;0.1624;
390.0000;0.2393;0.1576;
390.3000;0.2344;0.1481;
390.6000;0.2352;0.1481;
390.9000;0.2401;0.1672;
391.2000;0.2450;0.1791;
391.5000;0.2418;0.1791;
391.8000;0.2393;0.1720;
392.1000;0.2369;0.1672;
392.4000;0.2377;0.1767;
392.7000;0.2409;0.1767;
393.0000;0.2377;0.1624;
393.3000;0.2418;0.1696;
393.6000;0.2442;0.1720;
393.9000;0.2401;0.1672;
394.2000;0.2393;0.1743;
394.5000;0.2409;0.1815;
394.8000;0.2418;0.1887;
395.1000;0.2401;0.1839;
395.4000;0.2450;0.1934;
395.7000;0.2409;0.1767;
396.0000;0.2401;0.1743;
396.3000;0.2450;0.1863;
396.6000;0.2418;0.1743;
396.9000;0.2393;0.1624;
397.2000;0.2401;0.1767;
397.5000;0.2393;0.1791;
397.8000;0.2409;0.1767;
398.1000;0.2401;0.1743;
398.4000;0.2336;0.1505;
398.7000;0.2385;0.1648;
399.0000;0.2393;0.1672;
399.3000;0.2401;0.1648;
399.6000;0.2401;0.1743;
399.9000;0.2409;0.1815;
400.2000;0.2409;0.1863;
400.5000;0.2401;0.1863;
400.8000;0.2409;0.1934;
401.1000;0.2401;0.1958;
401.4000;0.2385;0.1815;
401.7000;0.2401;0.1791;
402.0000;0.2393;0.1767;
402.3000;0.2418;0.1767;
402.6000;0.2401;0.1863;
402.9000;0.2393;0.1911;
403.2000;0.2393;0.1887;
403.5000;0.2409;0.1982;
403.8000;0.2401;0.1958;
404.1000;0.2385;0.1911;
404.4000;0.2393;0.2030;
404.7000;0.2491;0.2269;
405.0000;0.2409;0.2030;
405.3000;0.2401;0.2030;
405.6000;0.2393;0.2149;
405.9000;0.2352;0.2054;
406.2000;0.2336;0.2030;
406.5000;0.2418;0.2221;
406.8000;0.2426;0.2173;
407.1000;0.2418;0.2102;
407.4000;0.2426;0.2102;
407.7000;0.2385;0.2054;
408.0000;0.2401;0.2102;
408.3000;0.2393;0.2102;
408.6000;0.2409;0.2126;
408.9000;0.2393;0.2102;
409.2000;0.2393;0.2102;
409.5000;0.2385;0.2054;
409.8000;0.2418;0.2126;
410.1000;0.2499;0.2293;
410.4000;0.2393;0.2006;
410.7000;0.2393;0.2054;
411.0000;0.2344;0.1934;
411.3000;0.2426;0.2078;
411.6000;0.2434;0.2126;
411.9000;0.2393;0.2006;
412.2000;0.2401;0.1934;
412.5000;0.2418;0.1982;
412.8000;0.2385;0.1982;
413.1000;0.2377;0.1863;
413.4000;0.2418;0.1934;
413.7000;0.2393;0.2006;
414.0000;0.2401;0.1982;
414.3000;0.2409;0.1958;
414.6000;0.2393;0.1839;
414.9000;0.2393;0.1887;
415.2000;0.2409;0.1934;
415.5000;0.2320;0.1743;
415.8000;0.2475;0.2197;
416.1000;0.2409;0.2054;
416.4000;0.2401;0.1982;
416.7000;0.2393;0.1934;
417.0000;0.2401;0.1958;
417.3000;0.2393;0.1863;
417.6000;0.2401;0.1911;
417.9000;0.2401;0.1958;
418.2000;0.2393;0.1911;
418.5000;0.2369;0.1863;
418.8000;0.2401;0.1958;
419.1000;0.2401;0.1911;
419.4000;0.2434;0.1911;
419.7000;0.2409;0.1887;
420.0000;0.2409;0.1911;
420.3000;0.2393;0.1911;
420.6000;0.2409;0.1982;
420.9000;0.2393;0.2006;
421.2000;0.2401;0.2054;
421.5000;0.2393;0.2030;
421.8000;0.2409;0.2030;
422.1000;0.2393;0.1982;
422.4000;0.2401;0.2054;
422.7000;0.2385;0.1958;
423.0000;0.2401;0.1982;
423.3000;0.2401;0.2006;
423.6000;0.2401;0.2054;
423.9000;0.2401;0.2054;
424.2000;0.2418;0.2030;
424.5000;0.2409;0.2030;
424.8000;0.2385;0.1911;
425.1000;0.2418;0.1958;
425.4000;0.2442;0.2102;
425.7000;0.2409;0.1934;
426.0000;0.2515;0.2126;
426.3000;0.2393;0.1911;
426.6000;0.2385;0.1815;
426.9000;0.2401;0.1791;
427.2000;0.2393;0.1791;
427.5000;0.2385;0.1863;
427.8000;0.2377;0.1815;
428.1000;0.2401;0.1791;
428.4000;0.2385;0.1791;
428.7000;0.2385;0.1767;
429.0000;0.2409;0.1791;
429.3000;0.2393;0.1887;
429.6000;0.2409;0.1958;
429.9000;0.2393;0.1911;
430.2000;0.2385;0.1887;
430.5000;0.2409;0.1958;
430.8000;0.2409;0.1958;
431.1000;0.2393;0.1958;
431.4000;0.2401;0.1911;
431.7000;0.2426;0.2030;
432.0000;0.2401;0.2078;
432.3000;0.2393;0.2054;
432.6000;0.2385;0.2054;
432.9000;0.2393;0.2078;
433.2000;0.2393;0.2126;
433.5000;0.2409;0.2054;
433.8000;0.2393;0.2030;
434.1000;0.2409;0.2006;
434.4000;0.2393;0.1958;
434.7000;0.2377;0.1839;
435.0000;0.2442;0.2054;
435.3000;0.2434;0.1982;
435.6000;0.2418;0.1887;
435.9000;0.2418;0.1958;
436.2000;0.2401;0.1958;
436.5000;0.2401;0.2006;
436.8000;0.2409;0.1934;
437.1000;0.2434;0.1958;
437.4000;0.2393;0.1863;
437.7000;0.2393;0.1934;
438.0000;0.2401;0.1982;
438.3000;0.2409;0.2006;
438.6000;0.2393;0.1934;
438.9000;0.2393;0.1887;
439.2000;0.2352;0.1696;
439.5000;0.2385;0.1720;
439.8000;0.2385;0.1720;
440.1000;0.2409;0.1720;
440.4000;0.2401;0.1767;
440.7000;0.2426;0.1911;
441.0000;0.2418;0.1863;
441.3000;0.2369;0.1815;
441.6000;0.2401;0.1958;
441.9000;0.2401;0.2006;
442.2000;0.2385;0.1934;
442.5000;0.2426;0.2102;
442.8000;0.2385;0.2006;
443.1000;0.2401;0.2078;
443.4000;0.2409;0.1982;
443.7000;0.2385;0.1911;
444.0000;0.2385;0.1815;
444.3000;0.2393;0.1767;
444.6000;0.2385;0.1720;
444.9000;0.2409;0.1911;
445.2000;0.2401;0.1934;
445.5000;0.2369;0.2030;
445.8000;0.2418;0.2102;
446.1000;0.2418;0.2054;
446.4000;0.2401;0.2054;
446.7000;0.2409;0.2078;
447.0000;0.2409;0.2006;
447.3000;0.2385;0.1911;
447.6000;0.2401;0.1863;
447.9000;0.2393;0.1791;
448.2000;0.2393;0.1767;
448.5000;0.2409;0.1791;
448.8000;0.2361;0.1696;
449.1000;0.2385;0.1743;
449.4000;0.2393;0.1815;
449.7000;0.2401;0.1934;
450.0000;0.2385;0.1934;
450.3000;0.2312;0.1767;
450.6000;0.2466;0.2173;
450.9000;0.2385;0.2030;
451.2000;0.2499;0.2269;
451.5000;0.2434;0.2149;
451.8000;0.2393;0.1958;
452.1000;0.2426;0.2006;
452.4000;0.2409;0.1958;
452.7000;0.2287;0.1720;
453.0000;0.2393;0.1958;
453.3000;0.2401;0.1887;
453.6000;0.2385;0.1791;
453.9000;0.2393;0.1791;
454.2000;0.2385;0.1767;
454.5000;0.2393;0.1767;
454.8000;0.2401;0.1791;
455.1000;0.2352;0.1600;
455.4000;0.2385;0.1648;
455.7000;0.2385;0.1648;
456.0000;0.2409;0.1672;
456.3000;0.2401;0.1696;
456.6000;0.2385;0.1696;
456.9000;0.2393;0.1767;
457.2000;0.2393;0.1720;
457.5000;0.2393;0.1696;
457.8000;0.2393;0.1648;
458.1000;0.2401;0.1672;
458.4000;0.2393;0.1672;
458.7000;0.2450;0.1863;
459.0000;0.2401;0.1791;
459.3000;0.2328;0.1576;
459.6000;0.2385;0.1720;
459.9000;0.2409;0.1696;
460.2000;0.2401;0.1720;
460.5000;0.2393;0.1696;
460.8000;0.2393;0.1720;
461.1000;0.2393;0.1791;
461.4000;0.2466;0.2054;
461.7000;0.2393;0.1887;
462.0000;0.2393;0.1863;
462.3000;0.2401;0.1863;
462.6000;0.2409;0.1934;
462.9000;0.2409;0.1982;
463.2000;0.2385;0.1934;
463.5000;0.2393;0.1863;
463.8000;0.2401;0.1863;
464.1000;0.2385;0.1767;
464.4000;0.2409;0.1767;
464.7000;0.2377;0.1720;
465.0000;0.2401;0.1743;
465.3000;0.2401;0.1767;
465.6000;0.2377;0.1720;
465.9000;0.2393;0.1720;
466.2000;0.2409;0.1720;
466.5000;0.2426;0.1815;
466.8000;0.2385;0.1743;
467.1000;0.2401;0.1720;
467.4000;0.2401;0.1839;
467.7000;0.2401;0.1815;
468.0000;0.2361;0.1696;
468.3000;0.2401;0.1743;
468.6000;0.2409;0.1767;
468.9000;0.2393;0.1743;
469.2000;0.2434;0.1887;
469.5000;0.2393;0.1791;
469.8000;0.2401;0.1791;
470.1000;0.2401;0.1696;
470.4000;0.2401;0.1648;
470.7000;0.2393;0.1672;
471.0000;0.2409;0.1648;
471.3000;0.2393;0.1528;
471.6000;0.2401;0.1552;
471.9000;0.2393;0.1552;
472.2000;0.2385;0.1481;
472.5000;0.2409;0.1576;
472.8000;0.2442;0.1648;
473.1000;0.2409;0.1672;
473.4000;0.2475;0.1911;
473.7000;0.2426;0.1863;
474.0000;0.2418;0.1815;
474.3000;0.2409;0.1767;
474.6000;0.2393;0.1696;
474.9000;0.2385;0.1767;
475.2000;0.2352;0.1815;
475.5000;0.2377;0.1791;
475.8000;0.2393;0.1815;
476.1000;0.2401;0.1863;
476.4000;0.2401;0.1887;
476.7000;0.2393;0.1934;
477.0000;0.2401;0.1911;
477.3000;0.2401;0.1934;
477.6000;0.2418;0.2006;
477.9000;0.2418;0.2006;
478.2000;0.2409;0.1982;
478.5000;0.2393;0.1958;
478.8000;0.2409;0.2102;
479.1000;0.2401;0.1982;
479.4000;0.2409;0.1982;
479.7000;0.2401;0.1839;
480.0000;0.2393;0.1839;
480.3000;0.2393;0.1911;
480.6000;0.2401;0.1934;
480.9000;0.2361;0.1815;
481.2000;0.2369;0.1815;
481.5000;0.2409;0.1911;
481.8000;0.2401;0.1839;
482.1000;0.2377;0.1911;
482.4000;0.2401;0.1982;
482.7000;0.2320;0.1720;
483.0000;0.2426;0.2006;
483.3000;0.2320;0.1767;
483.6000;0.2320;0.1743;
483.9000;0.2409;0.2006;
484.2000;0.2409;0.1958;
484.5000;0.2450;0.1982;
484.8000;0.2336;0.1743;
485.1000;0.2385;0.1958;
485.4000;0.2401;0.1958;
485.7000;0.2401;0.1934;
486.0000;0.2393;0.1982;
486.3000;0.2401;0.1982;
486.6000;0.2401;0.1911;
486.9000;0.2409;0.1934;
487.2000;0.2401;0.1839;
487.5000;0.2385;0.1767;
487.8000;0.2418;0.1839;
488.1000;0.2409;0.1839;
488.4000;0.2483;0.1982;
488.7000;0.2393;0.1791;
489.0000;0.2401;0.1839;
489.3000;0.2393;0.1863;
489.6000;0.2409;0.1958;
489.9000;0.2393;0.1863;
490.2000;0.2361;0.1696;
490.5000;0.2352;0.1600;
490.8000;0.2409;0.1743;
491.1000;0.2409;0.1839;
491.4000;0.2401;0.1863;
491.7000;0.2401;0.1839;
492.0000;0.2401;0.1743;
492.3000;0.2401;0.1791;
492.6000;0.2393;0.1720;
492.9000;0.2409;0.1720;
493.2000;0.2393;0.1720;
493.5000;0.2409;0.1815;
493.8000;0.2409;0.1863;
494.1000;0.2409;0.1815;
494.4000;0.2409;0.1815;
494.7000;0.2393;0.1767;
495.0000;0.2393;0.1815;
495.3000;0.2385;0.1720;
495.6000;0.2401;0.1696;
495.9000;0.2393;0.1696;
496.2000;0.2393;0.1648;
496.5000;0.2393;0.1696;
496.8000;0.2426;0.1839;
497.1000;0.2344;0.1552;
497.4000;0.2409;0.1720;
497.7000;0.2409;0.1648;
498.0000;0.2401;0.1648;
498.3000;0.2418;0.1720;
498.6000;0.2409;0.1648;
498.9000;0.2385;0.1552;
499.2000;0.2401;0.1624;
499.5000;0.2409;0.1624;
499.8000;0.2434;0.1624;
500.1000;0.2393;0.1576;
500.4000;0.2409;0.1528;
500.7000;0.2409;0.1481;
501.0000;0.2377;0.1385;
501.3000;0.2352;0.1337;
501.6000;0.2401;0.1505;
501.9000;0.2466;0.1767;
502.2000;0.2507;0.1863;
502.5000;0.2385;0.1624;
502.8000;0.2385;0.1696;
503.1000;0.2393;0.1743;
503.4000;0.2434;0.1815;
503.7000;0.2409;0.1696;
504.0000;0.2393;0.1624;
504.3000;0.2385;0.1600;
504.6000;0.2491;0.1863;
504.9000;0.2401;0.1696;
505.2000;0.2401;0.1696;
505.5000;0.2450;0.1887;
505.8000;0.2409;0.1720;
506.1000;0.2393;0.1743;
506.4000;0.2401;0.1791;
506.7000;0.2418;0.1815;
507.0000;0.2409;0.1791;
507.3000;0.2466;0.2006;
507.6000;0.2434;0.1934;
507.9000;0.2393;0.1863;
508.2000;0.2385;0.1839;
508.5000;0.2320;0.1743;
508.8000;0.2426;0.2030;
509.1000;0.2393;0.1934;
509.4000;0.2483;0.2173;
509.7000;0.2401;0.1839;
510.0000;0.2401;0.1791;
510.3000;0.2393;0.1767;
510.6000;0.2418;0.1767;
510.9000;0.2418;0.1720;
511.2000;0.2393;0.1672;
511.5000;0.2418;0.1743;
511.8000;0.2409;0.1743;
512.1000;0.2377;0.1720;
512.4000;0.2409;0.1815;
512.7000;0.2401;0.1815;
513.0000;0.2401;0.1767;
513.3000;0.2409;0.1815;
513.6000;0.2385;0.1839;
513.9000;0.2377;0.1887;
514.2000;0.2409;0.1815;
514.5000;0.2401;0.1815;
514.8000;0.2401;0.1791;
515.1000;0.2401;0.1720;
515.4000;0.2401;0.1767;
515.7000;0.2475;0.2030;
516.0000;0.2393;0.1720;
516.3000;0.2401;0.1791;
516.6000;0.2499;0.2078;
516.9000;0.2377;0.1767;
517.2000;0.2385;0.1696;
517.5000;0.2401;0.1672;
517.8000;0.2409;0.1672;
518.1000;0.2393;0.1672;
518.4000;0.2409;0.1720;
518.7000;0.2434;0.1791;
519.0000;0.2401;0.1696;
519.3000;0.2393;0.1648;
519.6000;0.2418;0.1696;
519.9000;0.2442;0.1743;
520.2000;0.2401;0.1720;
520.5000;0.2352;0.1600;
520.8000;0.2377;0.1720;
521.1000;0.2409;0.1767;
521.4000;0.2409;0.1767;
521.7000;0.2401;0.1767;
522.0000;0.2401;0.1815;
522.3000;0.2385;0.1743;
522.6000;0.2409;0.1839;
522.9000;0.2344;0.1624;
523.2000;0.2393;0.1767;
523.5000;0.2401;0.1815;
523.8000;0.2385;0.1720;
524.1000;0.2409;0.1743;
524.4000;0.2393;0.1672;
524.7000;0.2393;0.1743;
525.0000;0.2458;0.1911;
525.3000;0.2409;0.1767;
525.6000;0.2369;0.1767;
525.9000;0.2393;0.1887;
526.2000;0.2393;0.1863;
526.5000;0.2409;0.1911;
526.8000;0.2409;0.1958;
527.1000;0.2369;0.1839;
527.4000;0.2426;0.1911;
527.7000;0.2401;0.1720;
528.0000;0.2409;0.1672;
528.3000;0.2393;0.1600;
528.6000;0.2393;0.1600;
528.9000;0.2418;0.1648;
529.2000;0.2409;0.1576;
529.5000;0.2369;0.1528;
529.8000;0.2401;0.1576;
530.1000;0.2393;0.1600;
530.4000;0.2450;0.1839;
530.7000;0.2418;0.1767;
531.0000;0.2401;0.1672;
531.3000;0.2409;0.1696;
531.6000;0.2466;0.1791;
531.9000;0.2409;0.1672;
532.2000;0.2401;0.1552;
532.5000;0.2401;0.1528;
532.8000;0.2409;0.1600;
533.1000;0.2426;0.1767;
533.4000;0.2401;0.1696;
533.7000;0.2401;0.1720;
534.0000;0.2418;0.1791;
534.3000;0.2393;0.1839;
534.6000;0.2393;0.1839;
534.9000;0.2393;0.1743;
535.2000;0.2401;0.1839;
535.5000;0.2393;0.1791;
535.8000;0.2393;0.1839;
536.1000;0.2458;0.1911;
536.4000;0.2409;0.1791;
536.7000;0.2393;0.1720;
537.0000;0.2385;0.1743;
537.3000;0.2385;0.1720;
537.6000;0.2385;0.1672;
537.9000;0.2401;0.1791;
538.2000;0.2393;0.1791;
538.5000;0.2401;0.1791;
538.8000;0.2385;0.1767;
539.1000;0.2409;0.1863;
539.4000;0.2401;0.1815;
539.7000;0.2409;0.1743;
540.0000;0.2393;0.1624;
540.3000;0.2409;0.1696;
540.6000;0.2418;0.1720;
540.9000;0.2409;0.1720;
541.2000;0.2401;0.1672;
541.5000;0.2426;0.1839;
541.8000;0.2393;0.1696;
542.1000;0.2393;0.1743;
542.4000;0.2450;0.1958;
542.7000;0.2377;0.1743;
543.0000;0.2401;0.1767;
543.3000;0.2418;0.1791;
543.6000;0.2499;0.2006;
543.9000;0.2393;0.1791;
544.2000;0.2385;0.1767;
544.5000;0.2401;0.1767;
544.8000;0.2336;0.1624;
545.1000;0.2393;0.1911;
545.4000;0.2418;0.1911;
545.7000;0.2369;0.1791;
546.0000;0.2385;0.1767;
546.3000;0.2409;0.1696;
546.6000;0.2377;0.1648;
546.9000;0.2401;0.1600;
547.2000;0.2401;0.1696;
547.5000;0.2336;0.1433;
547.8000;0.2418;0.1576;
548.1000;0.2409;0.1624;
548.4000;0.2385;0.1505;
548.7000;0.2361;0.1314;
549.0000;0.2393;0.1433;
549.3000;0.2426;0.1528;
549.6000;0.2401;0.1505;
549.9000;0.2401;0.1505;
550.2000;0.2401;0.1576;
550.5000;0.2426;0.1648;
550.8000;0.2409;0.1576;
551.1000;0.2401;0.1552;
551.4000;0.2401;0.1505;
551.7000;0.2393;0.1528;
552.0000;0.2393;0.1600;
552.3000;0.2418;0.1624;
552.6000;0.2409;0.1552;
552.9000;0.2393;0.1457;
553.2000;0.2401;0.1505;
553.5000;0.2409;0.1481;
553.8000;0.2401;0.1528;
554.1000;0.2377;0.1433;
554.4000;0.2385;0.1552;
554.7000;0.2377;0.1624;
555.0000;0.2401;0.1696;
555.3000;0.2409;0.1815;
555.6000;0.2409;0.1791;
555.9000;0.2385;0.1720;
556.2000;0.2393;0.1672;
556.5000;0.2393;0.1743;
556.8000;0.2401;0.1648;
557.1000;0.2409;0.1624;
557.4000;0.2418;0.1505;
557.7000;0.2401;0.1457;
558.0000;0.2401;0.1505;
558.3000;0.2385;0.1528;
558.6000;0.2409;0.1648;
558.9000;0.2385;0.1648;
559.2000;0.2434;0.1791;
559.5000;0.2401;0.1767;
559.8000;0.2409;0.1743;
560.1000;0.2393;0.1624;
560.4000;0.2393;0.1600;
560.7000;0.2409;0.1648;
561.0000;0.2442;0.1791;
561.3000;0.2393;0.1767;
561.6000;0.2401;0.1720;
561.9000;0.2401;0.1672;
562.2000;0.2442;0.1767;
562.5000;0.2409;0.1648;
562.8000;0.2385;0.1624;
563.1000;0.2401;0.1552;
563.4000;0.2401;0.1600;
563.7000;0.2401;0.1672;
564.0000;0.2393;0.1648;
564.3000;0.2393;0.1648;
564.6000;0.2385;0.1576;
564.9000;0.2418;0.1648;
565.2000;0.2393;0.1576;
565.5000;0.2377;0.1457;
565.8000;0.2377;0.1528;
566.1000;0.2466;0.1720;
566.4000;0.2409;0.1552;
566.7000;0.2393;0.1648;
567.0000;0.2409;0.1600;
567.3000;0.2369;0.1505;
567.6000;0.2385;0.1600;
567.9000;0.2377;0.1648;
568.2000;0.2304;0.1361;
568.5000;0.2401;0.1624;
568.8000;0.2393;0.1648;
569.1000;0.2393;0.1672;
569.4000;0.2409;0.1624;
569.7000;0.2385;0.1624;
570.0000;0.2393;0.1672;
570.3000;0.2279;0.1433;
570.6000;0.2409;0.1767;
570.9000;0.2361;0.1720;
571.2000;0.2312;0.1600;
571.5000;0.2393;0.1720;
571.8000;0.2393;0.1648;
572.1000;0.2426;0.1743;
572.4000;0.2385;0.1815;
572.7000;0.2393;0.1911;
573.0000;0.2393;0.1982;
573.3000;0.2507;0.2364;
573.6000;0.2401;0.2102;
573.9000;0.2401;0.2030;
574.2000;0.2369;0.1887;
574.5000;0.2401;0.1767;
574.8000;0.2442;0.1911;
575.1000;0.2393;0.1767;
575.4000;0.2442;0.1839;
575.7000;0.2418;0.1767;
576.0000;0.2401;0.1791;
576.3000;0.2409;0.1887;
576.6000;0.2426;0.2054;
576.9000;0.2393;0.1934;
577.2000;0.2409;0.1982;
577.5000;0.2401;0.2006;
577.8000;0.2409;0.2078;
578.1000;0.2377;0.1982;
578.4000;0.2401;0.2006;
578.7000;0.2426;0.2054;
579.0000;0.2393;0.1958;
579.3000;0.2385;0.1887;
579.6000;0.2393;0.1887;
579.9000;0.2393;0.1887;
580.2000;0.2393;0.1839;
580.5000;0.2385;0.1887;
580.8000;0.2409;0.1887;
581.1000;0.2352;0.1743;
581.4000;0.2426;0.1934;
581.7000;0.2393;0.1887;
582.0000;0.2401;0.1863;
582.3000;0.2377;0.1791;
582.6000;0.2369;0.1743;
582.9000;0.2393;0.1743;
583.2000;0.2409;0.1815;
583.5000;0.2401;0.1863;
583.8000;0.2393;0.1839;
584.1000;0.2393;0.1911;
584.4000;0.2401;0.1958;
584.7000;0.2393;0.1982;
585.0000;0.2393;0.1934;
585.3000;0.2409;0.1958;
585.6000;0.2418;0.1934;
585.9000;0.2393;0.1934;
586.2000;0.2385;0.1911;
586.5000;0.2369;0.1767;
586.8000;0.2401;0.1815;
587.1000;0.2385;0.1791;
587.4000;0.2352;0.1696;
587.7000;0.2418;0.1839;
588.0000;0.2401;0.1863;
588.3000;0.2393;0.1767;
588.6000;0.2385;0.1720;
588.9000;0.2418;0.1743;
589.2000;0.2418;0.1767;
589.5000;0.2409;0.1720;
589.8000;0.2361;0.1528;
590.1000;0.2434;0.1648;
590.4000;0.2418;0.1600;
590.7000;0.2418;0.1672;
591.0000;0.2409;0.1743;
591.3000;0.2418;0.1743;
591.6000;0.2418;0.1767;
591.9000;0.2393;0.1720;
592.2000;0.2377;0.1672;
592.5000;0.2409;0.1743;
592.8000;0.2409;0.1791;
593.1000;0.2393;0.1720;
593.4000;0.2401;0.1648;
593.7000;0.2401;0.1648;
594.0000;0.2393;0.1672;
594.3000;0.2377;0.1648;
594.6000;0.2385;0.1767;
594.9000;0.2385;0.1743;
595.2000;0.2401;0.1720;
595.5000;0.2393;0.1767;
595.8000;0.2385;0.1791;
596.1000;0.2369;0.1720;
596.4000;0.2393;0.1791;
596.7000;0.2401;0.1887;
597.0000;0.2393;0.1887;
597.3000;0.2385;0.1863;
597.6000;0.2377;0.1887;
597.9000;0.2393;0.1934;
598.2000;0.2426;0.2030;
598.5000;0.2385;0.1887;
598.8000;0.2434;0.1982;
599.1000;0.2377;0.1815;
599.4000;0.2426;0.1863;
599.7000;0.2369;0.1743;
600.0000;0.2377;0.1791;
600.3000;0.2393;0.1815;
600.6000;0.2320;0.1767;
600.9000;0.2393;0.1982;
601.2000;0.2434;0.2102;
601.5000;0.2369;0.1815;
601.8000;0.2361;0.1720;
602.1000;0.2418;0.1887;
602.4000;0.2434;0.1934;
602.7000;0.2409;0.1743;
603.0000;0.2328;0.1481;
603.3000;0.2393;0.1600;
603.6000;0.2377;0.1505;
603.9000;0.2385;0.1457;
604.2000;0.2393;0.1361;
604.5000;0.2401;0.1361;
604.8000;0.2393;0.1385;
605.1000;0.2377;0.1242;
605.4000;0.2401;0.1290;
605.7000;0.2393;0.1194;
606.0000;0.2401;0.1218;
606.3000;0.2401;0.1170;
606.6000;0.2393;0.1146;
606.9000;0.2401;0.1122;
607.2000;0.2409;0.1194;
607.5000;0.2401;0.1075;
607.8000;0.2401;0.1075;
608.1000;0.2385;0.0955;
608.4000;0.2385;0.0931;
608.7000;0.2369;0.0812;
609.0000;0.2401;0.0979;
609.3000;0.2418;0.1075;
609.6000;0.2409;0.1122;
609.9000;0.2426;0.1122;
610.2000;0.2418;0.1218;
610.5000;0.2393;0.1170;
610.8000;0.2418;0.1194;
611.1000;0.2418;0.1266;
611.4000;0.2409;0.1314;
611.7000;0.2393;0.1290;
612.0000;0.2393;0.1266;
612.3000;0.2409;0.1218;
612.6000;0.2401;0.1146;
612.9000;0.2409;0.1146;
613.2000;0.2401;0.1122;
613.5000;0.2401;0.1146;
613.8000;0.2401;0.1146;
614.1000;0.2377;0.1099;
614.4000;0.2466;0.1266;
614.7000;0.2401;0.1051;
615.0000;0.2401;0.1075;
615.3000;0.2401;0.1122;
615.6000;0.2458;0.1290;
615.9000;0.2409;0.1170;
616.2000;0.2426;0.1099;
616.5000;0.2295;0.0788;
616.8000;0.2385;0.1027;
617.1000;0.2434;0.1146;
617.4000;0.2336;0.0812;
617.7000;0.2344;0.0860;
618.0000;0.2385;0.1027;
618.3000;0.2450;0.1122;
618.6000;0.2393;0.1075;
618.9000;0.2409;0.1122;
619.2000;0.2401;0.1099;
619.5000;0.2409;0.1075;
619.8000;0.2401;0.1170;
620.1000;0.2401;0.1146;
620.4000;0.2385;0.1122;
620.7000;0.2401;0.1218;
621.0000;0.2442;0.1266;
621.3000;0.2426;0.1170;
621.6000;0.2401;0.1146;
621.9000;0.2418;0.1194;
622.2000;0.2369;0.1122;
622.5000;0.2426;0.1170;
622.8000;0.2393;0.1075;
623.1000;0.2369;0.1003;
623.4000;0.2369;0.1003;
623.7000;0.2409;0.1099;
624.0000;0.2418;0.1146;
624.3000;0.2377;0.1051;
624.6000;0.2361;0.0955;
624.9000;0.2532;0.1457;
625.2000;0.2393;0.1075;
625.5000;0.2385;0.0979;
625.8000;0.2401;0.0955;
626.1000;0.2418;0.0955;
626.4000;0.2409;0.0955;
626.7000;0.2409;0.0931;
627.0000;0.2418;0.0979;
627.3000;0.2434;0.1099;
627.6000;0.2409;0.1051;
627.9000;0.2401;0.1003;
628.2000;0.2434;0.1051;
628.5000;0.2418;0.1027;
628.8000;0.2393;0.1051;
629.1000;0.2393;0.1003;
629.4000;0.2401;0.1003;
629.7000;0.2434;0.1075;
630.0000;0.2393;0.0979;
630.3000;0.2426;0.1003;
630.6000;0.2385;0.0908;
630.9000;0.2409;0.1003;
631.2000;0.2409;0.1051;
631.5000;0.2393;0.1051;
631.8000;0.2401;0.1051;
632.1000;0.2418;0.1051;
632.4000;0.2426;0.1122;
632.7000;0.2450;0.1122;
633.0000;0.2450;0.1146;
633.3000;0.2409;0.1122;
633.6000;0.2418;0.1194;
633.9000;0.2418;0.1146;
634.2000;0.2409;0.1027;
634.5000;0.2393;0.1027;
634.8000;0.2393;0.1051;
635.1000;0.2418;0.1099;
635.4000;0.2409;0.1122;
635.7000;0.2409;0.1218;
636.0000;0.2401;0.1290;
636.3000;0.2409;0.1290;
636.6000;0.2352;0.1194;
636.9000;0.2401;0.1361;
637.2000;0.2401;0.1361;
637.5000;0.2434;0.1266;
637.8000;0.2401;0.1218;
638.1000;0.2409;0.1194;
638.4000;0.2369;0.1075;
638.7000;0.2344;0.1003;
639.0000;0.2409;0.1075;
639.3000;0.2426;0.1194;
639.6000;0.2279;0.0860;
639.9000;0.2393;0.1218;
640.2000;0.2393;0.1194;
640.5000;0.2458;0.1266;
640.8000;0.2401;0.1146;
641.1000;0.2409;0.1170;
641.4000;0.2393;0.1170;
641.7000;0.2409;0.1170;
642.0000;0.2409;0.1194;
642.3000;0.2409;0.1170;
642.6000;0.2409;0.1170;
642.9000;0.2434;0.1290;
643.2000;0.2401;0.1146;
643.5000;0.2401;0.1099;
643.8000;0.2401;0.1122;
644.1000;0.2409;0.1122;
644.4000;0.2401;0.1122;
644.7000;0.2401;0.1051;
645.0000;0.2409;0.1075;
645.3000;0.2409;0.1122;
645.6000;0.2385;0.1027;
645.9000;0.2418;0.1170;
646.2000;0.2418;0.1170;
646.5000;0.2458;0.1290;
646.8000;0.2409;0.1051;
647.1000;0.2409;0.1075;
647.4000;0.2475;0.1218;
647.7000;0.2426;0.1075;
648.0000;0.2401;0.1075;
648.3000;0.2499;0.1385;
648.6000;0.2434;0.1218;
648.9000;0.2434;0.1146;
649.2000;0.2409;0.1027;
649.5000;0.2393;0.0908;
649.8000;0.2426;0.0908;
650.1000;0.2426;0.0908;
650.4000;0.2418;0.0884;
650.7000;0.2426;0.0955;
651.0000;0.2401;0.0860;
651.3000;0.2393;0.0812;
651.6000;0.2401;0.0955;
651.9000;0.2418;0.0931;
652.2000;0.2409;0.0860;
652.5000;0.2409;0.0908;
652.8000;0.2418;0.1075;
653.1000;0.2409;0.1075;
653.4000;0.2393;0.1003;
653.7000;0.2393;0.1075;
654.0000;0.2393;0.1003;
654.3000;0.2409;0.1075;
654.6000;0.2426;0.1099;
654.9000;0.2393;0.0955;
655.2000;0.2418;0.0931;
655.5000;0.2434;0.0979;
655.8000;0.2401;0.0955;
656.1000;0.2409;0.0955;
656.4000;0.2409;0.1075;
656.7000;0.2426;0.1122;
657.0000;0.2361;0.1003;
657.3000;0.2426;0.1170;
657.6000;0.2418;0.1122;
657.9000;0.2418;0.1122;
658.2000;0.2401;0.1099;
658.5000;0.2401;0.1122;
658.8000;0.2418;0.1146;
659.1000;0.2336;0.0860;
659.4000;0.2442;0.1194;
659.7000;0.2409;0.1146;
660.0000;0.2401;0.1099;
660.3000;0.2401;0.1099;
660.6000;0.2401;0.1099;
660.9000;0.2385;0.1075;
661.2000;0.2401;0.1099;
661.5000;0.2418;0.1146;
661.8000;0.2418;0.1194;
662.1000;0.2409;0.1075;
662.4000;0.2418;0.1075;
662.7000;0.2393;0.0979;
663.0000;0.2426;0.1003;
663.3000;0.2434;0.1003;
663.6000;0.2442;0.1027;
663.9000;0.2418;0.1051;
664.2000;0.2418;0.1003;
664.5000;0.2426;0.0955;
664.8000;0.2418;0.0884;
665.1000;0.2401;0.0860;
665.4000;0.2409;0.0884;
665.7000;0.2418;0.0860;
666.0000;0.2418;0.0908;
666.3000;0.2401;0.0955;
666.6000;0.2393;0.0931;
666.9000;0.2409;0.1122;
667.2000;0.2418;0.1146;
667.5000;0.2409;0.1170;
667.8000;0.2409;0.1122;
668.1000;0.2418;0.1218;
668.4000;0.2426;0.1194;
668.7000;0.2401;0.1122;
669.0000;0.2409;0.1099;
669.3000;0.2409;0.1099;
669.6000;0.2401;0.1122;
669.9000;0.2418;0.1099;
670.2000;0.2434;0.1170;
670.5000;0.2426;0.1122;
670.8000;0.2426;0.1194;
671.1000;0.2466;0.1433;
671.4000;0.2385;0.1314;
671.7000;0.2409;0.1385;
672.0000;0.2401;0.1242;
672.3000;0.2401;0.1194;
672.6000;0.2393;0.1194;
672.9000;0.2401;0.1242;
673.2000;0.2458;0.1409;
673.5000;0.2409;0.1290;
673.8000;0.2442;0.1314;
674.1000;0.2401;0.1242;
674.4000;0.2401;0.1194;
674.7000;0.2418;0.1266;
675.0000;0.2418;0.1218;
675.3000;0.2401;0.1194;
675.6000;0.2418;0.1218;
675.9000;0.2393;0.1146;
676.2000;0.2418;0.1146;
676.5000;0.2401;0.1027;
676.8000;0.2393;0.1027;
677.1000;0.2409;0.1170;
677.4000;0.2393;0.1051;
677.7000;0.2418;0.1099;
678.0000;0.2409;0.1003;
678.3000;0.2418;0.1075;
678.6000;0.2401;0.1003;
678.9000;0.2426;0.1003;
679.2000;0.2401;0.0931;
679.5000;0.2401;0.1003;
679.8000;0.2434;0.1075;
680.1000;0.2418;0.1051;
680.4000;0.2442;0.1027;
680.7000;0.2434;0.0908;
681.0000;0.2409;0.0908;
681.3000;0.2418;0.0908;
681.6000;0.2409;0.0812;
681.9000;0.2418;0.0716;
682.2000;0.2442;0.0812;
682.5000;0.2442;0.0860;
682.8000;0.2369;0.0669;
683.1000;0.2466;0.0955;
683.4000;0.2434;0.0908;
683.7000;0.2401;0.0884;
684.0000;0.2426;0.1027;
684.3000;0.2377;0.1003;
684.6000;0.2418;0.1075;
684.9000;0.2418;0.1075;
685.2000;0.2418;0.1051;
685.5000;0.2418;0.1027;
685.8000;0.2409;0.1027;
686.1000;0.2369;0.0931;
686.4000;0.2442;0.1122;
686.7000;0.2401;0.0908;
687.0000;0.2418;0.0955;
687.3000;0.2426;0.1027;
687.6000;0.2426;0.1003;
687.9000;0.2409;0.1003;
688.2000;0.2466;0.1146;
688.5000;0.2418;0.1027;
688.8000;0.2418;0.0931;
689.1000;0.2409;0.0979;
689.4000;0.2450;0.1075;
689.7000;0.2491;0.1242;
690.0000;0.2426;0.1075;
690.3000;0.2418;0.1051;
690.6000;0.2409;0.1051;
690.9000;0.2409;0.1099;
691.2000;0.2450;0.1194;
691.5000;0.2401;0.1146;
691.8000;0.2344;0.0955;
692.1000;0.2312;0.0788;
692.4000;0.2434;0.1122;
692.7000;0.2532;0.1457;
693.0000;0.2401;0.1146;
693.3000;0.2369;0.1075;
693.6000;0.2377;0.1146;
693.9000;0.2418;0.1290;
694.2000;0.2450;0.1361;
694.5000;0.2458;0.1361;
694.8000;0.2499;0.1481;
695.1000;0.2540;0.1576;
695.4000;0.2409;0.1194;
695.7000;0.2434;0.1218;
696.0000;0.2393;0.1122;
696.3000;0.2434;0.1218;
696.6000;0.2401;0.1122;
696.9000;0.2401;0.1122;
697.2000;0.2442;0.1194;
697.5000;0.2418;0.1099;
697.8000;0.2401;0.1146;
698.1000;0.2418;0.1194;
698.4000;0.2409;0.1218;
698.7000;0.2418;0.1194;
699.0000;0.2434;0.1170;
699.3000;0.2426;0.1146;
699.6000;0.2409;0.1075;
699.9000;0.2401;0.1003;
700.2000;0.2434;0.1075;
700.5000;0.2434;0.1170;
700.8000;0.2401;0.1122;
701.1000;0.2434;0.1099;
701.4000;0.2426;0.1051;
701.7000;0.2418;0.1003;
702.0000;0.2401;0.0979;
702.3000;0.2409;0.0979;
702.6000;0.2418;0.1003;
702.9000;0.2409;0.1003;
703.2000;0.2393;0.0908;
703.5000;0.2377;0.0860;
703.8000;0.2409;0.1027;
704.1000;0.2418;0.1027;
704.4000;0.2418;0.1027;
704.7000;0.2401;0.0955;
705.0000;0.2401;0.1003;
705.3000;0.2401;0.1051;
705.6000;0.2409;0.1075;
705.9000;0.2418;0.1027;
706.2000;0.2426;0.1003;
706.5000;0.2401;0.1027;
706.8000;0.2418;0.1027;
707.1000;0.2377;0.0931;
707.4000;0.2409;0.0908;
707.7000;0.2320;0.0740;
708.0000;0.2401;0.1003;
708.3000;0.2377;0.0860;
708.6000;0.2401;0.0931;
708.9000;0.2426;0.0908;
709.2000;0.2418;0.0931;
709.5000;0.2434;0.1003;
709.8000;0.2401;0.1003;
710.1000;0.2418;0.0931;
710.4000;0.2434;0.1027;
710.7000;0.2491;0.1242;
711.0000;0.2401;0.0979;
711.3000;0.2418;0.1027;
711.6000;0.2377;0.0908;
711.9000;0.2393;0.0955;
712.2000;0.2393;0.0884;
712.5000;0.2434;0.1003;
712.8000;0.2418;0.1003;
713.1000;0.2418;0.1075;
713.4000;0.2393;0.1027;
713.7000;0.2295;0.0764;
714.0000;0.2499;0.1170;
714.3000;0.2434;0.0955;
714.6000;0.2401;0.0884;
714.9000;0.2434;0.1027;
715.2000;0.2418;0.1003;
715.5000;0.2442;0.1051;
715.8000;0.2483;0.1099;
716.1000;0.2409;0.1027;
716.4000;0.2450;0.1099;
716.7000;0.2426;0.0931;
717.0000;0.2418;0.1027;
717.3000;0.2434;0.1122;
717.6000;0.2434;0.1146;
717.9000;0.2426;0.1099;
718.2000;0.2409;0.0908;
718.5000;0.2418;0.0955;
718.8000;0.2385;0.0860;
719.1000;0.2369;0.0860;
719.4000;0.2409;0.1027;
719.7000;0.2442;0.1051;
720.0000;0.2418;0.1027;
720.3000;0.2426;0.1051;
720.6000;0.2418;0.0979;
720.9000;0.2426;0.1003;
721.2000;0.2401;0.0931;
721.5000;0.2393;0.0884;
721.8000;0.2426;0.0979;
722.1000;0.2418;0.0931;
722.4000;0.2369;0.0836;
722.7000;0.2401;0.0979;
723.0000;0.2409;0.0979;
723.3000;0.2426;0.1051;
723.6000;0.2450;0.1194;
723.9000;0.2418;0.1051;
724.2000;0.2418;0.0931;
724.5000;0.2393;0.0931;
724.8000;0.2426;0.1027;
725.1000;0.2426;0.1075;
725.4000;0.2442;0.1099;
725.7000;0.2434;0.1075;
726.0000;0.2466;0.1099;
726.3000;0.2434;0.1099;
726.6000;0.2434;0.1051;
726.9000;0.2418;0.1075;
727.2000;0.2442;0.1027;
727.5000;0.2426;0.0979;
727.8000;0.2409;0.1027;
728.1000;0.2393;0.1051;
728.4000;0.2434;0.1122;
728.7000;0.2426;0.1075;
729.0000;0.2458;0.1122;
729.3000;0.2418;0.1122;
729.6000;0.2377;0.1122;
729.9000;0.2418;0.1242;
730.2000;0.2426;0.1194;
730.5000;0.2450;0.1266;
730.8000;0.2401;0.1170;
731.1000;0.2458;0.1337;
731.4000;0.2336;0.0955;
731.7000;0.2418;0.1099;
732.0000;0.2393;0.1027;
732.3000;0.2418;0.1075;
732.6000;0.2295;0.0788;
732.9000;0.2328;0.0836;
733.2000;0.2434;0.1099;
733.5000;0.2426;0.1146;
733.8000;0.2458;0.1266;
734.1000;0.2458;0.1218;
734.4000;0.2401;0.1099;
734.7000;0.2466;0.1242;
735.0000;0.2434;0.1146;
735.3000;0.2426;0.1075;
735.6000;0.2499;0.1170;
735.9000;0.2418;0.0955;
736.2000;0.2418;0.0979;
736.5000;0.2401;0.0931;
736.8000;0.2409;0.0860;
737.1000;0.2409;0.0884;
737.4000;0.2401;0.0931;
737.7000;0.2458;0.1051;
738.0000;0.2401;0.0955;
738.3000;0.2426;0.0955;
738.6000;0.2418;0.0955;
738.9000;0.2418;0.0908;
739.2000;0.2409;0.0860;
739.5000;0.2418;0.0860;
739.8000;0.2418;0.0931;
740.1000;0.2442;0.1075;
740.4000;0.2401;0.0955;
740.7000;0.2426;0.0979;
741.0000;0.2418;0.0955;
741.3000;0.2409;0.0884;
741.6000;0.2418;0.0884;
741.9000;0.2401;0.0979;
742.2000;0.2426;0.1075;
742.5000;0.2401;0.1003;
742.8000;0.2434;0.1075;
743.1000;0.2401;0.0979;
743.4000;0.2418;0.1027;
743.7000;0.2409;0.1027;
744.0000;0.2401;0.0908;
744.3000;0.2434;0.0955;
744.6000;0.2434;0.0955;
744.9000;0.2426;0.0955;
745.2000;0.2426;0.0931;
745.5000;0.2418;0.0979;
745.8000;0.2434;0.0979;
746.1000;0.2418;0.0955;
746.4000;0.2458;0.1075;
746.7000;0.2385;0.0908;
747.0000;0.2409;0.0884;
747.3000;0.2426;0.0884;
747.6000;0.2418;0.0836;
747.9000;0.2426;0.0884;
748.2000;0.2418;0.0812;
748.5000;0.2515;0.1099;
748.8000;0.2418;0.0908;
749.1000;0.2434;0.0884;
749.4000;0.2385;0.0716;
749.7000;0.2426;0.0884;
750.0000;0.2434;0.0931;
750.3000;0.2418;0.0931;
750.6000;0.2393;0.0860;
750.9000;0.2409;0.1003;
751.2000;0.2434;0.1099;
751.5000;0.2418;0.1075;
751.8000;0.2450;0.1099;
752.1000;0.2401;0.1003;
752.4000;0.2418;0.1003;
752.7000;0.2393;0.0955;
753.0000;0.2491;0.1099;
753.3000;0.2418;0.0860;
753.6000;0.2426;0.0979;
753.9000;0.2426;0.1027;
754.2000;0.2409;0.0908;
754.5000;0.2418;0.0860;
754.8000;0.2418;0.0764;
755.1000;0.2426;0.0860;
755.4000;0.2418;0.0860;
755.7000;0.2369;0.0716;
756.0000;0.2418;0.0860;
756.3000;0.2442;0.0884;
756.6000;0.2409;0.0979;
756.9000;0.2393;0.1027;
757.2000;0.2304;0.0740;
757.5000;0.2418;0.0931;
757.8000;0.2442;0.0955;
758.1000;0.2418;0.0931;
758.4000;0.2442;0.0931;
758.7000;0.2385;0.0788;
759.0000;0.2426;0.0908;
759.3000;0.2418;0.0860;
759.6000;0.2442;0.0836;
759.9000;0.2418;0.0812;
760.2000;0.2426;0.0860;
760.5000;0.2426;0.0836;
760.8000;0.2418;0.0860;
761.1000;0.2458;0.1003;
761.4000;0.2426;0.0955;
761.7000;0.2426;0.0931;
762.0000;0.2418;0.0979;
762.3000;0.2532;0.1314;
762.6000;0.2409;0.1003;
762.9000;0.2426;0.1027;
763.2000;0.2434;0.1099;
763.5000;0.2418;0.1075;
763.8000;0.2418;0.1075;
764.1000;0.2418;0.1027;
764.4000;0.2426;0.0979;
764.7000;0.2401;0.0884;
765.0000;0.2409;0.0931;
765.3000;0.2409;0.0979;
765.6000;0.2409;0.1027;
765.9000;0.2409;0.1027;
766.2000;0.2418;0.1146;
766.5000;0.2418;0.1122;
766.8000;0.2409;0.1075;
767.1000;0.2409;0.1075;
767.4000;0.2409;0.1003;
767.7000;0.2409;0.0931;
768.0000;0.2418;0.0979;
768.3000;0.2418;0.1003;
768.6000;0.2377;0.0860;
768.9000;0.2418;0.1003;
769.2000;0.2409;0.0955;
769.5000;0.2409;0.0908;
769.8000;0.2409;0.0812;
770.1000;0.2409;0.0812;
770.4000;0.2385;0.0812;
770.7000;0.2409;0.0908;
771.0000;0.2385;0.0884;
771.3000;0.2418;0.0908;
771.6000;0.2418;0.0908;
771.9000;0.2409;0.0860;
772.2000;0.2426;0.0908;
772.5000;0.2369;0.0669;
772.8000;0.2434;0.0836;
773.1000;0.2442;0.0860;
773.4000;0.2466;0.0979;
773.7000;0.2418;0.0836;
774.0000;0.2507;0.1003;
774.3000;0.2434;0.0812;
774.6000;0.2409;0.0693;
774.9000;0.2434;0.0716;
775.2000;0.2483;0.0884;
775.5000;0.2434;0.0788;
775.8000;0.2434;0.0740;
776.1000;0.2418;0.0693;
776.4000;0.2385;0.0573;
776.7000;0.2409;0.0597;
777.0000;0.2377;0.0478;
777.3000;0.2434;0.0693;
777.6000;0.2418;0.0645;
777.9000;0.2450;0.0788;
778.2000;0.2418;0.0788;
778.5000;0.2426;0.0764;
778.8000;0.2409;0.0669;
779.1000;0.2401;0.0669;
779.4000;0.2385;0.0597;
779.7000;0.2434;0.0740;
780.0000;0.2418;0.0812;
780.3000;0.2426;0.0812;
780.6000;0.2426;0.0931;
780.9000;0.2442;0.0931;
781.2000;0.2434;0.0979;
781.5000;0.2426;0.0955;
781.8000;0.2426;0.0955;
782.1000;0.2434;0.0860;
782.4000;0.2434;0.0860;
782.7000;0.2401;0.0740;
783.0000;0.2401;0.0836;
783.3000;0.2409;0.0860;
783.6000;0.2418;0.0860;
783.9000;0.2401;0.0860;
784.2000;0.2418;0.0836;
784.5000;0.2426;0.0860;
784.8000;0.2418;0.0860;
785.1000;0.2418;0.0812;
785.4000;0.2401;0.0788;
785.7000;0.2409;0.0740;
786.0000;0.2418;0.0693;
786.3000;0.2418;0.0693;
786.6000;0.2409;0.0693;
786.9000;0.2418;0.0621;
787.2000;0.2434;0.0764;
787.5000;0.2409;0.0693;
787.8000;0.2409;0.0716;
788.1000;0.2418;0.0788;
788.4000;0.2434;0.0836;
788.7000;0.2401;0.0764;
789.0000;0.2426;0.0979;
789.3000;0.2450;0.1075;
789.6000;0.2434;0.1027;
789.9000;0.2336;0.0740;
790.2000;0.2418;0.0836;
790.5000;0.2442;0.0812;
790.8000;0.2434;0.0693;
791.1000;0.2434;0.0740;
791.4000;0.2401;0.0716;
791.7000;0.2507;0.1027;
792.0000;0.2426;0.0836;
792.3000;0.2434;0.0836;
792.6000;0.2434;0.0884;
792.9000;0.2409;0.0812;
793.2000;0.2409;0.0812;
793.5000;0.2409;0.0836;
793.8000;0.2328;0.0740;
794.1000;0.2426;0.0908;
794.4000;0.2409;0.0884;
794.7000;0.2418;0.1003;
795.0000;0.2426;0.1027;
795.3000;0.2401;0.0884;
795.6000;0.2458;0.1003;
795.9000;0.2426;0.0860;
796.2000;0.2409;0.0836;
796.5000;0.2418;0.0836;
796.8000;0.2418;0.0812;
797.1000;0.2409;0.0812;
797.4000;0.2418;0.0740;
797.7000;0.2409;0.0716;
798.0000;0.2426;0.0788;
798.3000;0.2418;0.0884;
798.6000;0.2401;0.0836;
798.9000;0.2418;0.0884;
799.2000;0.2442;0.0955;
799.5000;0.2426;0.0812;
799.8000;0.2426;0.0884;
800.1000;0.2426;0.0908;
800.4000;0.2409;0.0908;
800.7000;0.2312;0.0645;
801.0000;0.2475;0.1099;
801.3000;0.2434;0.1003;
801.6000;0.2442;0.0931;
801.9000;0.2434;0.0836;
802.2000;0.2418;0.0908;
802.5000;0.2418;0.0931;
802.8000;0.2434;0.0979;
803.1000;0.2409;0.0860;
803.4000;0.2385;0.0836;
803.7000;0.2426;0.0979;
804.0000;0.2418;0.0884;
804.3000;0.2401;0.0812;
804.6000;0.2409;0.0884;
804.9000;0.2426;0.0931;
805.2000;0.2401;0.0836;
805.5000;0.2418;0.0908;
805.8000;0.2426;0.0955;
806.1000;0.2442;0.0860;
806.4000;0.2434;0.0836;
806.7000;0.2418;0.0860;
807.0000;0.2418;0.0860;
807.3000;0.2475;0.0955;
807.6000;0.2426;0.0836;
807.9000;0.2409;0.0788;
808.2000;0.2409;0.0812;
808.5000;0.2434;0.0812;
808.8000;0.2442;0.0788;
809.1000;0.2418;0.0764;
809.4000;0.2409;0.0693;
809.7000;0.2434;0.0812;
810.0000;0.2434;0.0860;
810.3000;0.2418;0.0716;
810.6000;0.2434;0.0740;
810.9000;0.2385;0.0573;
811.2000;0.2418;0.0645;
811.5000;0.2418;0.0597;
811.8000;0.2426;0.0716;
812.1000;0.2418;0.0693;
812.4000;0.2401;0.0669;
812.7000;0.2434;0.0693;
813.0000;0.2426;0.0740;
813.3000;0.2442;0.0788;
813.6000;0.2442;0.0764;
813.9000;0.2442;0.0812;
814.2000;0.2418;0.0740;
814.5000;0.2409;0.0740;
814.8000;0.2401;0.0788;
815.1000;0.2418;0.0764;
815.4000;0.2426;0.0788;
815.7000;0.2361;0.0645;
816.0000;0.2426;0.0788;
816.3000;0.2426;0.0836;
816.6000;0.2418;0.0740;
816.9000;0.2418;0.0764;
817.2000;0.2409;0.0788;
817.5000;0.2409;0.0764;
817.8000;0.2409;0.0860;
818.1000;0.2434;0.0979;
818.4000;0.2434;0.0908;
818.7000;0.2418;0.0884;
819.0000;0.2426;0.0931;
819.3000;0.2442;0.0955;
819.6000;0.2418;0.0931;
819.9000;0.2393;0.0931;
820.2000;0.2401;0.0931;
820.5000;0.2426;0.0955;
820.8000;0.2401;0.0931;
821.1000;0.2295;0.0621;
821.4000;0.2475;0.1170;
821.7000;0.2409;0.0955;
822.0000;0.2409;0.0884;
822.3000;0.2409;0.0812;
822.6000;0.2426;0.0836;
822.9000;0.2385;0.0716;
823.2000;0.2418;0.0788;
823.5000;0.2401;0.0740;
823.8000;0.2418;0.0716;
824.1000;0.2409;0.0693;
824.4000;0.2418;0.0740;
824.7000;0.2418;0.0693;
825.0000;0.2401;0.0621;
825.3000;0.2418;0.0716;
825.6000;0.2409;0.0669;
825.9000;0.2409;0.0740;
826.2000;0.2401;0.0764;
826.5000;0.2450;0.0884;
826.8000;0.2418;0.0788;
827.1000;0.2409;0.0693;
827.4000;0.2418;0.0693;
827.7000;0.2304;0.0454;
828.0000;0.2450;0.1003;
828.3000;0.2426;0.0955;
828.6000;0.2426;0.0955;
828.9000;0.2418;0.1003;
829.2000;0.2434;0.1027;
829.5000;0.2409;0.0955;
829.8000;0.2409;0.0979;
830.1000;0.2361;0.0836;
830.4000;0.2401;0.0884;
830.7000;0.2418;0.0908;
831.0000;0.2491;0.1075;
831.3000;0.2458;0.1099;
831.6000;0.2418;0.0908;
831.9000;0.2418;0.0931;
832.2000;0.2312;0.0549;
832.5000;0.2418;0.0860;
832.8000;0.2434;0.0860;
833.1000;0.2434;0.0931;
833.4000;0.2418;0.0860;
833.7000;0.2434;0.0884;
834.0000;0.2426;0.0955;
834.3000;0.2426;0.0955;
834.6000;0.2426;0.0979;
834.9000;0.2409;0.0908;
835.2000;0.2426;0.0931;
835.5000;0.2409;0.0836;
835.8000;0.2483;0.0931;
836.1000;0.2418;0.0740;
836.4000;0.2426;0.0884;
836.7000;0.2401;0.0860;
837.0000;0.2409;0.0884;
837.3000;0.2385;0.0812;
837.6000;0.2434;0.0908;
837.9000;0.2426;0.0979;
838.2000;0.2426;0.0979;
838.5000;0.2409;0.0955;
838.8000;0.2401;0.0979;
839.1000;0.2418;0.1003;
839.4000;0.2426;0.1003;
839.7000;0.2450;0.1003;
840.0000;0.2409;0.0860;
840.3000;0.2418;0.0812;
840.6000;0.2458;0.0884;
840.9000;0.2426;0.0836;
841.2000;0.2426;0.0716;
841.5000;0.2393;0.0645;
841.8000;0.2409;0.0669;
842.1000;0.2442;0.0669;
842.4000;0.2450;0.0740;
842.7000;0.2491;0.0884;
843.0000;0.2418;0.0764;
843.3000;0.2434;0.0836;
843.6000;0.2426;0.0884;
843.9000;0.2426;0.0884;
844.2000;0.2418;0.0931;
844.5000;0.2409;0.0908;
844.8000;0.2434;0.0979;
845.1000;0.2450;0.0955;
845.4000;0.2418;0.0884;
845.7000;0.2409;0.0884;
846.0000;0.2409;0.0812;
846.3000;0.2442;0.0788;
846.6000;0.2426;0.0788;
846.9000;0.2352;0.0549;
847.2000;0.2409;0.0693;
847.5000;0.2426;0.0764;
847.8000;0.2434;0.0669;
848.1000;0.2409;0.0764;
848.4000;0.2442;0.0812;
848.7000;0.2418;0.0812;
849.0000;0.2426;0.0812;
849.3000;0.2434;0.0860;
849.6000;0.2426;0.0884;
849.9000;0.2409;0.0908;
850.2000;0.2434;0.0931;
850.5000;0.2418;0.0931;
850.8000;0.2434;0.0908;
851.1000;0.2450;0.0955;
851.4000;0.2442;0.0979;
851.7000;0.2418;0.0955;
852.0000;0.2418;0.0931;
852.3000;0.2426;0.0788;
852.6000;0.2434;0.0788;
852.9000;0.2418;0.0788;
853.2000;0.2418;0.0764;
853.5000;0.2426;0.0788;
853.8000;0.2442;0.0716;
854.1000;0.2442;0.0716;
854.4000;0.2418;0.0693;
854.7000;0.2458;0.0788;
855.0000;0.2483;0.0908;
855.3000;0.2442;0.0908;
855.6000;0.2409;0.0836;
855.9000;0.2320;0.0573;
856.2000;0.2393;0.0788;
856.5000;0.2401;0.0764;
856.8000;0.2401;0.0812;
857.1000;0.2409;0.0740;
857.4000;0.2434;0.0764;
857.7000;0.2409;0.0788;
858.0000;0.2418;0.0860;
858.3000;0.2409;0.0931;
858.6000;0.2418;0.0908;
858.9000;0.2442;0.0979;
859.2000;0.2426;0.0979;
859.5000;0.2426;0.1027;
859.8000;0.2442;0.0979;
860.1000;0.2442;0.0931;
860.4000;0.2418;0.0908;
860.7000;0.2434;0.0908;
861.0000;0.2418;0.0836;
861.3000;0.2442;0.0908;
861.6000;0.2442;0.0884;
861.9000;0.2418;0.0860;
862.2000;0.2418;0.0884;
862.5000;0.2418;0.0955;
862.8000;0.2409;0.0931;
863.1000;0.2426;0.0884;
863.4000;0.2393;0.0788;
863.7000;0.2393;0.0836;
864.0000;0.2540;0.1218;
864.3000;0.2434;0.0931;
864.6000;0.2450;0.0908;
864.9000;0.2393;0.0812;
865.2000;0.2442;0.0955;
865.5000;0.2401;0.0931;
865.8000;0.2401;0.0884;
866.1000;0.2409;0.0884;
866.4000;0.2426;0.0836;
866.7000;0.2409;0.0860;
867.0000;0.2393;0.0860;
867.3000;0.2418;0.0908;
867.6000;0.2426;0.0908;
867.9000;0.2418;0.0955;
868.2000;0.2426;0.1051;
868.5000;0.2442;0.1099;
868.8000;0.2426;0.0955;
869.1000;0.2450;0.0955;
869.4000;0.2434;0.0931;
869.7000;0.2418;0.0931;
870.0000;0.2426;0.0979;
870.3000;0.2442;0.1003;
870.6000;0.2418;0.0979;
870.9000;0.2409;0.0908;
871.2000;0.2409;0.0931;
871.5000;0.2434;0.0955;
871.8000;0.2434;0.0955;
872.1000;0.2409;0.0931;
872.4000;0.2418;0.0884;
872.7000;0.2393;0.0764;
873.0000;0.2418;0.0788;
873.3000;0.2393;0.0669;
873.6000;0.2418;0.0669;
873.9000;0.2426;0.0645;
874.2000;0.2434;0.0645;
874.5000;0.2491;0.0812;
874.8000;0.2475;0.0860;
875.1000;0.2401;0.0716;
875.4000;0.2442;0.0812;
875.7000;0.2336;0.0597;
876.0000;0.2312;0.0549;
876.3000;0.2426;0.0836;
876.6000;0.2434;0.0908;
876.9000;0.2409;0.0788;
877.2000;0.2369;0.0740;
877.5000;0.2418;0.0836;
877.8000;0.2409;0.0836;
878.1000;0.2393;0.0812;
878.4000;0.2393;0.0836;
878.7000;0.2393;0.0812;
879.0000;0.2418;0.0812;
879.3000;0.2361;0.0764;
879.6000;0.2434;0.0884;
879.9000;0.2409;0.0931;
880.2000;0.2450;0.1051;
880.5000;0.2426;0.0979;
880.8000;0.2418;0.0931;
881.1000;0.2434;0.0955;
881.4000;0.2377;0.0908;
881.7000;0.2418;0.1003;
882.0000;0.2434;0.1075;
882.3000;0.2409;0.0955;
882.6000;0.2426;0.0884;
882.9000;0.2418;0.0812;
883.2000;0.2409;0.0764;
883.5000;0.2426;0.0764;
883.8000;0.2418;0.0716;
884.1000;0.2434;0.0764;
884.4000;0.2418;0.0716;
884.7000;0.2442;0.0788;
885.0000;0.2418;0.0693;
885.3000;0.2458;0.0812;
885.6000;0.2409;0.0669;
885.9000;0.2426;0.0788;
886.2000;0.2409;0.0740;
886.5000;0.2401;0.0645;
886.8000;0.2418;0.0716;
887.1000;0.2409;0.0764;
887.4000;0.2434;0.0836;
887.7000;0.2401;0.0716;
888.0000;0.2418;0.0669;
888.3000;0.2385;0.0669;
888.6000;0.2418;0.0764;
888.9000;0.2393;0.0836;
889.2000;0.2426;0.0740;
889.5000;0.2418;0.0716;
889.8000;0.2426;0.0740;
890.1000;0.2418;0.0740;
890.4000;0.2401;0.0597;
890.7000;0.2434;0.0669;
891.0000;0.2426;0.0621;
891.3000;0.2442;0.0764;
891.6000;0.2434;0.0788;
891.9000;0.2442;0.0740;
892.2000;0.2426;0.0693;
892.5000;0.2442;0.0693;
892.8000;0.2434;0.0645;
893.1000;0.2434;0.0621;
893.4000;0.2450;0.0621;
893.7000;0.2409;0.0549;
894.0000;0.2418;0.0597;
894.3000;0.2426;0.0549;
894.6000;0.2401;0.0525;
894.9000;0.2401;0.0430;
895.2000;0.2491;0.0669;
895.5000;0.2426;0.0549;
895.8000;0.2426;0.0573;
896.1000;0.2409;0.0478;
896.4000;0.2426;0.0573;
896.7000;0.2426;0.0645;
897.0000;0.2401;0.0740;
897.3000;0.2442;0.0931;
897.6000;0.2409;0.0812;
897.9000;0.2401;0.0764;
898.2000;0.2418;0.0764;
898.5000;0.2426;0.0740;
898.8000;0.2401;0.0645;
899.1000;0.2401;0.0645;
899.4000;0.2418;0.0621;
899.7000;0.2409;0.0597;
900.0000;0.2377;0.0549;
900.3000;0.2426;0.0693;
900.6000;0.2401;0.0693;
900.9000;0.2418;0.0716;
901.2000;0.2418;0.0764;
901.5000;0.2409;0.0716;
901.8000;0.2418;0.0740;
902.1000;0.2418;0.0716;
902.4000;0.2352;0.0573;
902.7000;0.2434;0.0860;
903.0000;0.2442;0.0931;
903.3000;0.2418;0.0764;
903.6000;0.2409;0.0693;
903.9000;0.2426;0.0693;
904.2000;0.2418;0.0788;
904.5000;0.2442;0.0788;
904.8000;0.2434;0.0788;
905.1000;0.2426;0.0740;
905.4000;0.2418;0.0764;
905.7000;0.2442;0.0836;
906.0000;0.2434;0.0812;
906.3000;0.2418;0.0716;
906.6000;0.2418;0.0716;
906.9000;0.2418;0.0669;
907.2000;0.2426;0.0716;
907.5000;0.2426;0.0788;
907.8000;0.2409;0.0788;
908.1000;0.2352;0.0764;
908.4000;0.2409;0.0955;
908.7000;0.2418;0.0979;
909.0000;0.2418;0.0955;
909.3000;0.2393;0.0836;
909.6000;0.2401;0.0931;
909.9000;0.2434;0.1003;
910.2000;0.2426;0.1003;
910.5000;0.2434;0.1003;
910.8000;0.2434;0.1003;
911.1000;0.2426;0.0955;
911.4000;0.2434;0.1003;
911.7000;0.2564;0.1266;
912.0000;0.2409;0.0860;
912.3000;0.2418;0.0884;
912.6000;0.2483;0.1051;
912.9000;0.2426;0.0931;
913.2000;0.2409;0.0860;
913.5000;0.2418;0.0955;
913.8000;0.2426;0.0908;
914.1000;0.2369;0.0669;
914.4000;0.2418;0.0716;
914.7000;0.2418;0.0645;
915.0000;0.2426;0.0693;
915.3000;0.2450;0.0836;
915.6000;0.2450;0.0740;
915.9000;0.2418;0.0693;
916.2000;0.2418;0.0645;
916.5000;0.2434;0.0645;
916.8000;0.2409;0.0693;
917.1000;0.2409;0.0764;
917.4000;0.2434;0.0788;
917.7000;0.2442;0.0788;
918.0000;0.2418;0.0740;
918.3000;0.2401;0.0693;
918.6000;0.2409;0.0740;
918.9000;0.2418;0.0740;
919.2000;0.2499;0.0931;
919.5000;0.2361;0.0549;
919.8000;0.2401;0.0645;
920.1000;0.2418;0.0597;
920.4000;0.2409;0.0597;
920.7000;0.2409;0.0693;
921.0000;0.2466;0.0955;
921.3000;0.2418;0.0836;
921.6000;0.2450;0.0860;
921.9000;0.2418;0.0812;
922.2000;0.2450;0.0884;
922.5000;0.2409;0.0931;
922.8000;0.2442;0.0979;
923.1000;0.2434;0.0908;
923.4000;0.2401;0.0740;
923.7000;0.2434;0.0693;
924.0000;0.2499;0.0812;
924.3000;0.2426;0.0716;
924.6000;0.2401;0.0573;
924.9000;0.2426;0.0621;
925.2000;0.2418;0.0669;
925.5000;0.2426;0.0788;
925.8000;0.2418;0.0788;
926.1000;0.2434;0.0908;
926.4000;0.2442;0.0955;
926.7000;0.2442;0.0908;
927.0000;0.2418;0.0931;
927.3000;0.2312;0.0549;
927.6000;0.2418;0.0788;
927.9000;0.2434;0.0812;
928.2000;0.2401;0.0764;
928.5000;0.2434;0.0812;
928.8000;0.2434;0.0740;
929.1000;0.2442;0.0693;
929.4000;0.2361;0.0502;
929.7000;0.2434;0.0669;
930.0000;0.2409;0.0597;
930.3000;0.2442;0.0645;
930.6000;0.2434;0.0669;
930.9000;0.2418;0.0597;
931.2000;0.2418;0.0621;
931.5000;0.2426;0.0669;
931.8000;0.2426;0.0669;
932.1000;0.2418;0.0716;
932.4000;0.2426;0.0669;
932.7000;0.2466;0.0812;
933.0000;0.2434;0.0669;
933.3000;0.2426;0.0549;
933.6000;0.2442;0.0573;
933.9000;0.2434;0.0573;
934.2000;0.2426;0.0502;
934.5000;0.2475;0.0669;
934.8000;0.2426;0.0549;
935.1000;0.2418;0.0549;
935.4000;0.2393;0.0454;
935.7000;0.2409;0.0549;
936.0000;0.2426;0.0597;
936.3000;0.2442;0.0645;
936.6000;0.2540;0.0884;
936.9000;0.2442;0.0693;
937.2000;0.2361;0.0525;
937.5000;0.2377;0.0597;
937.8000;0.2491;0.0955;
938.1000;0.2409;0.0764;
938.4000;0.2426;0.0740;
938.7000;0.2434;0.0860;
939.0000;0.2418;0.0812;
939.3000;0.2434;0.0884;
939.6000;0.2409;0.0860;
939.9000;0.2442;0.0955;
940.2000;0.2426;0.0860;
940.5000;0.2393;0.0836;
940.8000;0.2409;0.0836;
941.1000;0.2418;0.0860;
941.4000;0.2385;0.0669;
941.7000;0.2418;0.0788;
942.0000;0.2434;0.0788;
942.3000;0.2426;0.0836;
942.6000;0.2312;0.0573;
942.9000;0.2426;0.0836;
943.2000;0.2352;0.0740;
943.5000;0.2328;0.0573;
943.8000;0.2418;0.0836;
944.1000;0.2434;0.0788;
944.4000;0.2304;0.0382;
944.7000;0.2442;0.0740;
945.0000;0.2450;0.0740;
945.3000;0.2499;0.0955;
945.6000;0.2418;0.0669;
945.9000;0.2434;0.0669;
946.2000;0.2385;0.0621;
946.5000;0.2426;0.0740;
946.8000;0.2418;0.0669;
947.1000;0.2409;0.0716;
947.4000;0.2426;0.0764;
947.7000;0.2377;0.0573;
948.0000;0.2418;0.0669;
948.3000;0.2418;0.0669;
948.6000;0.2434;0.0764;
948.9000;0.2418;0.0645;
949.2000;0.2426;0.0716;
949.5000;0.2418;0.0716;
949.8000;0.2450;0.0860;
950.1000;0.2409;0.0860;
950.4000;0.2458;0.0931;
950.7000;0.2426;0.0836;
951.0000;0.2426;0.0884;
951.3000;0.2434;0.0860;
951.6000;0.2418;0.0740;
951.9000;0.2434;0.0740;
952.2000;0.2426;0.0812;
952.5000;0.2450;0.0788;
952.8000;0.2418;0.0740;
953.1000;0.2434;0.0788;
953.4000;0.2418;0.0836;
953.7000;0.2434;0.0884;
954.0000;0.2426;0.0836;
954.3000;0.2418;0.0812;
954.6000;0.2426;0.0836;
954.9000;0.2426;0.0860;
955.2000;0.2426;0.0836;
955.5000;0.2393;0.0764;
955.8000;0.2442;0.0764;
956.1000;0.2409;0.0693;
956.4000;0.2336;0.0525;
956.7000;0.2426;0.0788;
957.0000;0.2442;0.0716;
957.3000;0.2418;0.0764;
957.6000;0.2442;0.0812;
957.9000;0.2418;0.0812;
958.2000;0.2401;0.0836;
958.5000;0.2312;0.0597;
958.8000;0.2418;0.0812;
959.1000;0.2434;0.0812;
959.4000;0.2369;0.0693;
959.7000;0.2426;0.0884;
960.0000;0.2409;0.0860;
960.3000;0.2401;0.0812;
960.6000;0.2418;0.0836;
960.9000;0.2426;0.0836;
961.2000;0.2409;0.0836;
961.5000;0.2409;0.0836;
961.8000;0.2409;0.0860;
962.1000;0.2418;0.0979;
962.4000;0.2409;0.1003;
962.7000;0.2442;0.1003;
963.0000;0.2409;0.0955;
963.3000;0.2475;0.1122;
963.6000;0.2418;0.0884;
963.9000;0.2442;0.0931;
964.2000;0.2426;0.0931;
964.5000;0.2393;0.0812;
964.8000;0.2418;0.1051;
965.1000;0.2434;0.1051;
965.4000;0.2426;0.1003;
965.7000;0.2434;0.1122;
966.0000;0.2434;0.1290;
966.3000;0.2442;0.1218;
966.6000;0.2369;0.1051;
966.9000;0.2409;0.1122;
967.2000;0.2418;0.1194;
967.5000;0.2426;0.1266;
967.8000;0.2409;0.1170;
968.1000;0.2426;0.1194;
968.4000;0.2442;0.1242;
968.7000;0.2409;0.1194;
969.0000;0.2434;0.1194;
969.3000;0.2418;0.1122;
969.6000;0.2401;0.1051;
969.9000;0.2401;0.1003;
970.2000;0.2418;0.1003;
970.5000;0.2418;0.1003;
970.8000;0.2401;0.0908;
971.1000;0.2434;0.1051;
971.4000;0.2426;0.1051;
971.7000;0.2409;0.0931;
972.0000;0.2418;0.1003;
972.3000;0.2458;0.1099;
972.6000;0.2434;0.1075;
972.9000;0.2434;0.1051;
973.2000;0.2434;0.1003;
973.5000;0.2434;0.1027;
973.8000;0.2442;0.1099;
974.1000;0.2401;0.1003;
974.4000;0.2434;0.1099;
974.7000;0.2434;0.1099;
975.0000;0.2336;0.0788;
975.3000;0.2483;0.1146;
975.6000;0.2426;0.0979;
975.9000;0.2336;0.0908;
976.2000;0.2409;0.1075;
976.5000;0.2426;0.1099;
976.8000;0.2426;0.1099;
977.1000;0.2393;0.1122;
977.4000;0.2401;0.1122;
977.7000;0.2434;0.1170;
978.0000;0.2434;0.1218;
978.3000;0.2418;0.1194;
978.6000;0.2458;0.1361;
978.9000;0.2418;0.1194;
979.2000;0.2401;0.1051;
979.5000;0.2336;0.0884;
979.8000;0.2409;0.1051;
980.1000;0.2507;0.1314;
980.4000;0.2450;0.1122;
980.7000;0.2426;0.1051;
981.0000;0.2418;0.1099;
981.3000;0.2442;0.1075;
981.6000;0.2426;0.0955;
981.9000;0.2434;0.1122;
982.2000;0.2426;0.1146;
982.5000;0.2442;0.1218;
982.8000;0.2532;0.1409;
983.1000;0.2507;0.1409;
983.4000;0.2409;0.1218;
983.7000;0.2418;0.1170;
984.0000;0.2426;0.1099;
984.3000;0.2418;0.1170;
984.6000;0.2426;0.1099;
984.9000;0.2418;0.1003;
985.2000;0.2426;0.1003;
985.5000;0.2401;0.0955;
985.8000;0.2450;0.1051;
986.1000;0.2377;0.0884;
986.4000;0.2499;0.1337;
986.7000;0.2393;0.1051;
987.0000;0.2418;0.1027;
987.3000;0.2393;0.0979;
987.6000;0.2426;0.1146;
987.9000;0.2426;0.1051;
988.2000;0.2458;0.1099;
988.5000;0.2418;0.1003;
988.8000;0.2434;0.1003;
989.1000;0.2418;0.1003;
989.4000;0.2418;0.1027;
989.7000;0.2418;0.0908;
990.0000;0.2426;0.0884;
990.3000;0.2458;0.0979;
990.6000;0.2442;0.0955;
990.9000;0.2418;0.0931;
991.2000;0.2409;0.0979;
991.5000;0.2409;0.0979;
991.8000;0.2475;0.1242;
992.1000;0.2426;0.1075;
992.4000;0.2434;0.1075;
992.7000;0.2483;0.1099;
993.0000;0.2418;0.0979;
993.3000;0.2418;0.0979;
993.6000;0.2434;0.1027;
993.9000;0.2409;0.1027;
994.2000;0.2426;0.1122;
994.5000;0.2483;0.1314;
994.8000;0.2434;0.1170;
995.1000;0.2409;0.1027;
995.4000;0.2450;0.1051;
995.7000;0.2426;0.0931;
996.0000;0.2426;0.0931;
996.3000;0.2409;0.0836;
996.6000;0.2418;0.0812;
996.9000;0.2426;0.0884;
997.2000;0.2426;0.0860;
997.5000;0.2458;0.1051;
997.8000;0.2385;0.0884;
998.1000;0.2434;0.0931;
998.4000;0.2434;0.0931;
998.7000;0.2426;0.0812;
999.0000;0.2426;0.0836;
999.3000;0.2426;0.0860;
999.6000;0.2442;0.0931;
999.9000;0.2426;0.0908;
1000.2000;0.2426;0.0955;
1000.5000;0.2409;0.0931;
1000.8000;0.2434;0.1099;
1001.1000;0.2409;0.1003;
1001.4000;0.2426;0.1003;
1001.7000;0.2418;0.1003;
1002.0000;0.2426;0.1003;
1002.3000;0.2426;0.0931;
1002.6000;0.2442;0.1027;
1002.9000;0.2385;0.0955;
1003.2000;0.2426;0.1075;
1003.5000;0.2442;0.1170;
1003.8000;0.2328;0.0955;
1004.1000;0.2409;0.1075;
1004.4000;0.2409;0.1122;
1004.7000;0.2426;0.1170;
1005.0000;0.2409;0.1218;
1005.3000;0.2409;0.1194;
1005.6000;0.2409;0.1194;
1005.9000;0.2426;0.1266;
1006.2000;0.2458;0.1409;
1006.5000;0.2401;0.1266;
1006.8000;0.2418;0.1266;
1007.1000;0.2458;0.1385;
1007.4000;0.2409;0.1266;
1007.7000;0.2409;0.1337;
1008.0000;0.2418;0.1385;
1008.3000;0.2442;0.1433;
1008.6000;0.2409;0.1290;
1008.9000;0.2418;0.1361;
1009.2000;0.2385;0.1242;
1009.5000;0.2426;0.1266;
1009.8000;0.2434;0.1218;
1010.1000;0.2418;0.1146;
1010.4000;0.2393;0.1027;
1010.7000;0.2434;0.1122;
1011.0000;0.2434;0.1099;
1011.3000;0.2491;0.1122;
1011.6000;0.2409;0.0908;
1011.9000;0.2434;0.0931;
1012.2000;0.2442;0.0979;
1012.5000;0.2426;0.0931;
1012.8000;0.2418;0.0955;
1013.1000;0.2450;0.0979;
1013.4000;0.2418;0.0931;
1013.7000;0.2328;0.0645;
1014.0000;0.2426;0.0931;
1014.3000;0.2409;0.0812;
1014.6000;0.2426;0.0931;
1014.9000;0.2418;0.1027;
1015.2000;0.2377;0.0836;
1015.5000;0.2409;0.0908;
1015.8000;0.2409;0.0979;
1016.1000;0.2369;0.0836;
1016.4000;0.2450;0.1051;
1016.7000;0.2426;0.1003;
1017.0000;0.2369;0.0836;
1017.3000;0.2409;0.0931;
1017.6000;0.2401;0.0955;
1017.9000;0.2401;0.1027;
1018.2000;0.2475;0.1218;
1018.5000;0.2418;0.1051;
1018.8000;0.2401;0.1051;
1019.1000;0.2409;0.1146;
1019.4000;0.2352;0.0979;
1019.7000;0.2401;0.1146;
1020.0000;0.2426;0.1290;
1020.3000;0.2295;0.0908;
1020.6000;0.2409;0.1242;
1020.9000;0.2434;0.1337;
1021.2000;0.2434;0.1218;
1021.5000;0.2466;0.1242;
1021.8000;0.2515;0.1337;
1022.1000;0.2426;0.1099;
1022.4000;0.2426;0.1003;
1022.7000;0.2426;0.1122;
1023.0000;0.2458;0.1194;
1023.3000;0.2426;0.1170;
1023.6000;0.2434;0.1099;
1023.9000;0.2418;0.1075;
1024.2000;0.2450;0.1146;
1024.5000;0.2418;0.1122;
1024.8000;0.2426;0.1146;
1025.1000;0.2426;0.1170;
1025.4000;0.2426;0.1146;
1025.7000;0.2385;0.1051;
1026.0000;0.2466;0.1266;
1026.3000;0.2442;0.1122;
1026.6000;0.2418;0.1099;
1026.9000;0.2418;0.1075;
1027.2000;0.2401;0.1075;
1027.5000;0.2434;0.1099;
1027.8000;0.2442;0.1194;
1028.1000;0.2434;0.1194;
1028.4000;0.2426;0.1266;
1028.7000;0.2434;0.1194;
1029.0000;0.2434;0.1146;
1029.3000;0.2426;0.1003;
1029.6000;0.2426;0.0955;
1029.9000;0.2426;0.0955;
1030.2000;0.2426;0.1051;
1030.5000;0.2418;0.1027;
1030.8000;0.2426;0.1003;
1031.1000;0.2426;0.1027;
1031.4000;0.2450;0.1075;
1031.7000;0.2434;0.1099;
1032.0000;0.2377;0.0955;
1032.3000;0.2418;0.1027;
1032.6000;0.2434;0.1075;
1032.9000;0.2401;0.1027;
1033.2000;0.2401;0.1027;
1033.5000;0.2426;0.1027;
1033.8000;0.2442;0.1051;
1034.1000;0.2426;0.1075;
1034.4000;0.2393;0.0908;
1034.7000;0.2466;0.1027;
1035.0000;0.2409;0.0908;
1035.3000;0.2434;0.1027;
1035.6000;0.2401;0.0979;
1035.9000;0.2426;0.1003;
1036.2000;0.2426;0.1051;
1036.5000;0.2434;0.1075;
1036.8000;0.2418;0.1027;
1037.1000;0.2442;0.1051;
1037.4000;0.2418;0.1027;
1037.7000;0.2409;0.0884;
1038.0000;0.2426;0.0931;
1038.3000;0.2426;0.0812;
1038.6000;0.2418;0.0669;
1038.9000;0.2499;0.0931;
1039.2000;0.2369;0.0621;
1039.5000;0.2401;0.0740;
1039.8000;0.2426;0.0836;
1040.1000;0.2426;0.0860;
1040.4000;0.2442;0.0955;
1040.7000;0.2434;0.0979;
1041.0000;0.2418;0.0979;
1041.3000;0.2442;0.1027;
1041.6000;0.2434;0.1027;
1041.9000;0.2442;0.1003;
1042.2000;0.2409;0.1003;
1042.5000;0.2418;0.1003;
1042.8000;0.2434;0.1027;
1043.1000;0.2409;0.0955;
1043.4000;0.2442;0.1075;
1043.7000;0.2409;0.1003;
1044.0000;0.2426;0.1027;
1044.3000;0.2434;0.1075;
1044.6000;0.2426;0.1075;
1044.9000;0.2442;0.1075;
1045.2000;0.2418;0.1027;
1045.5000;0.2426;0.1170;
1045.8000;0.2442;0.1218;
1046.1000;0.2418;0.1218;
1046.4000;0.2418;0.1122;
1046.7000;0.2434;0.1099;
1047.0000;0.2458;0.1194;
1047.3000;0.2442;0.1146;
1047.6000;0.2442;0.1170;
1047.9000;0.2450;0.1266;
1048.2000;0.2426;0.1146;
1048.5000;0.2426;0.1266;
1048.8000;0.2426;0.1242;
1049.1000;0.2409;0.1146;
1049.4000;0.2385;0.1003;
1049.7000;0.2442;0.1194;
1050.0000;0.2336;0.0884;
1050.3000;0.2418;0.1099;
1050.6000;0.2426;0.1051;
1050.9000;0.2418;0.1051;
1051.2000;0.2409;0.1099;
1051.5000;0.2426;0.1027;
1051.8000;0.2426;0.1099;
1052.1000;0.2426;0.0979;
1052.4000;0.2418;0.0955;
1052.7000;0.2426;0.1027;
1053.0000;0.2491;0.1146;
1053.3000;0.2385;0.0955;
1053.6000;0.2393;0.1003;
1053.9000;0.2475;0.1170;
1054.2000;0.2434;0.1099;
1054.5000;0.2442;0.1146;
1054.8000;0.2426;0.1146;
1055.1000;0.2418;0.1146;
1055.4000;0.2450;0.1122;
1055.7000;0.2434;0.1075;
1056.0000;0.2475;0.1194;
1056.3000;0.2475;0.1194;
1056.6000;0.2442;0.1075;
1056.9000;0.2450;0.1027;
1057.2000;0.2418;0.0908;
1057.5000;0.2409;0.0955;
1057.8000;0.2418;0.0979;
1058.1000;0.2426;0.1003;
1058.4000;0.2475;0.1027;
1058.7000;0.2466;0.1122;
1059.0000;0.2442;0.1003;
1059.3000;0.2434;0.0979;
1059.6000;0.2401;0.0812;
1059.9000;0.2409;0.0860;
1060.2000;0.2393;0.0836;
1060.5000;0.2507;0.1099;
1060.8000;0.2418;0.0955;
1061.1000;0.2426;0.1099;
1061.4000;0.2361;0.0955;
1061.7000;0.2409;0.1122;
1062.0000;0.2426;0.1051;
1062.3000;0.2409;0.1003;
1062.6000;0.2426;0.0979;
1062.9000;0.2401;0.0979;
1063.2000;0.2418;0.1051;
1063.5000;0.2458;0.1099;
1063.8000;0.2409;0.0931;
1064.1000;0.2442;0.0955;
1064.4000;0.2409;0.0812;
1064.7000;0.2442;0.0931;
1065.0000;0.2401;0.0884;
1065.3000;0.2418;0.0979;
1065.6000;0.2434;0.1099;
1065.9000;0.2418;0.0955;
1066.2000;0.2450;0.1003;
1066.5000;0.2418;0.1003;
1066.8000;0.2442;0.0955;
1067.1000;0.2418;0.0931;
1067.4000;0.2426;0.0931;
1067.7000;0.2426;0.0908;
1068.0000;0.2401;0.0860;
1068.3000;0.2426;0.0979;
1068.6000;0.2418;0.0908;
1068.9000;0.2426;0.0908;
1069.2000;0.2426;0.0979;
1069.5000;0.2426;0.1003;
1069.8000;0.2450;0.1027;
1070.1000;0.2466;0.1051;
1070.4000;0.2434;0.1003;
1070.7000;0.2442;0.1075;
1071.0000;0.2483;0.1218;
1071.3000;0.2434;0.1051;
1071.6000;0.2450;0.1051;
1071.9000;0.2434;0.0979;
1072.2000;0.2426;0.0836;
1072.5000;0.2483;0.0979;
1072.8000;0.2442;0.0764;
1073.1000;0.2426;0.0740;
1073.4000;0.2434;0.0740;
1073.7000;0.2426;0.0860;
1074.0000;0.2409;0.0836;
1074.3000;0.2426;0.0860;
1074.6000;0.2287;0.0573;
1074.9000;0.2442;0.0979;
1075.2000;0.2401;0.0884;
1075.5000;0.2434;0.0931;
1075.8000;0.2369;0.0716;
1076.1000;0.2426;0.0931;
1076.4000;0.2409;0.0788;
1076.7000;0.2426;0.0788;
1077.0000;0.2466;0.1027;
1077.3000;0.2418;0.0931;
1077.6000;0.2361;0.0788;
1077.9000;0.2426;0.0884;
1078.2000;0.2401;0.0836;
1078.5000;0.2418;0.0884;
1078.8000;0.2418;0.0836;
1079.1000;0.2401;0.0740;
1079.4000;0.2377;0.0740;
1079.7000;0.2434;0.0860;
1080.0000;0.2418;0.0836;
1080.3000;0.2426;0.0812;
1080.6000;0.2409;0.0788;
1080.9000;0.2442;0.0788;
1081.2000;0.2442;0.0812;
1081.5000;0.2434;0.0812;
1081.8000;0.2442;0.0764;
1082.1000;0.2393;0.0764;
1082.4000;0.2434;0.0955;
1082.7000;0.2442;0.0979;
1083.0000;0.2442;0.1003;
1083.3000;0.2442;0.1099;
1083.6000;0.2434;0.0955;
1083.9000;0.2434;0.0788;
1084.2000;0.2426;0.0788;
1084.5000;0.2418;0.0812;
1084.8000;0.2434;0.0931;
1085.1000;0.2434;0.0931;
1085.4000;0.2458;0.0836;
1085.7000;0.2409;0.0788;
1086.0000;0.2426;0.0955;
1086.3000;0.2426;0.0931;
1086.6000;0.2434;0.0979;
1086.9000;0.2434;0.1027;
1087.2000;0.2409;0.0931;
1087.5000;0.2434;0.0979;
1087.8000;0.2426;0.1075;
1088.1000;0.2418;0.1027;
1088.4000;0.2401;0.1051;
1088.7000;0.2393;0.1051;
1089.0000;0.2426;0.1075;
1089.3000;0.2418;0.0931;
1089.6000;0.2418;0.0860;
1089.9000;0.2426;0.0979;
1090.2000;0.2418;0.0931;
1090.5000;0.2377;0.0836;
1090.8000;0.2418;0.0931;
1091.1000;0.2401;0.0884;
1091.4000;0.2418;0.0836;
1091.7000;0.2426;0.0979;
1092.0000;0.2418;0.1075;
1092.3000;0.2409;0.1146;
1092.6000;0.2418;0.1194;
1092.9000;0.2426;0.1266;
1093.2000;0.2442;0.1099;
1093.5000;0.2401;0.0908;
1093.8000;0.2418;0.0979;
1094.1000;0.2426;0.1003;
1094.4000;0.2426;0.1099;
1094.7000;0.2393;0.1003;
1095.0000;0.2401;0.1051;
1095.3000;0.2418;0.1099;
1095.6000;0.2434;0.1170;
1095.9000;0.2418;0.1146;
1096.2000;0.2393;0.1027;
1096.5000;0.2385;0.1003;
1096.8000;0.2418;0.1003;
1097.1000;0.2466;0.1218;
1097.4000;0.2450;0.1194;
1097.7000;0.2426;0.1194;
1098.0000;0.2442;0.1194;
1098.3000;0.2442;0.1170;
1098.6000;0.2434;0.1099;
1098.9000;0.2442;0.1099;
1099.2000;0.2426;0.1099;
1099.5000;0.2426;0.0979;
1099.8000;0.2409;0.0884;
1100.1000;0.2401;0.0955;
1100.4000;0.2409;0.1051;
1100.7000;0.2434;0.1027;
1101.0000;0.2418;0.1003;
1101.3000;0.2418;0.1027;
1101.6000;0.2434;0.1027;
1101.9000;0.2418;0.0884;
1102.2000;0.2369;0.0764;
1102.5000;0.2426;0.0812;
1102.8000;0.2409;0.0812;
1103.1000;0.2450;0.0884;
1103.4000;0.2409;0.0812;
1103.7000;0.2401;0.0812;
1104.0000;0.2401;0.0860;
1104.3000;0.2540;0.1242;
1104.6000;0.2442;0.0955;
1104.9000;0.2418;0.0884;
1105.2000;0.2409;0.0908;
1105.5000;0.2442;0.0955;
1105.8000;0.2409;0.0931;
1106.1000;0.2426;0.0931;
1106.4000;0.2458;0.1075;
1106.7000;0.2442;0.1003;
1107.0000;0.2466;0.1099;
1107.3000;0.2418;0.1099;
1107.6000;0.2426;0.1099;
1107.9000;0.2426;0.1075;
1108.2000;0.2434;0.1075;
1108.5000;0.2409;0.1003;
1108.8000;0.2426;0.1003;
1109.1000;0.2426;0.1003;
1109.4000;0.2426;0.1003;
1109.7000;0.2442;0.1003;
1110.0000;0.2418;0.0931;
1110.3000;0.2426;0.0979;
1110.6000;0.2434;0.1003;
1110.9000;0.2401;0.1003;
1111.2000;0.2426;0.1122;
1111.5000;0.2418;0.1075;
1111.8000;0.2442;0.1194;
1112.1000;0.2418;0.1194;
1112.4000;0.2361;0.0955;
1112.7000;0.2401;0.1075;
1113.0000;0.2385;0.1003;
1113.3000;0.2450;0.1194;
1113.6000;0.2442;0.1170;
1113.9000;0.2442;0.1242;
1114.2000;0.2426;0.1099;
1114.5000;0.2466;0.1242;
1114.8000;0.2418;0.1099;
1115.1000;0.2409;0.1146;
1115.4000;0.2418;0.1146;
1115.7000;0.2418;0.1122;
1116.0000;0.2295;0.0788;
1116.3000;0.2409;0.1075;
1116.6000;0.2369;0.1003;
1116.9000;0.2434;0.1194;
1117.2000;0.2434;0.1218;
1117.5000;0.2418;0.1194;
1117.8000;0.2418;0.1218;
1118.1000;0.2426;0.1314;
1118.4000;0.2442;0.1337;
1118.7000;0.2434;0.1242;
1119.0000;0.2434;0.1218;
1119.3000;0.2426;0.1290;
1119.6000;0.2507;0.1505;
1119.9000;0.2426;0.1337;
1120.2000;0.2426;0.1337;
1120.5000;0.2434;0.1290;
1120.8000;0.2442;0.1337;
1121.1000;0.2328;0.1099;
1121.4000;0.2442;0.1337;
1121.7000;0.2442;0.1361;
1122.0000;0.2434;0.1314;
1122.3000;0.2426;0.1314;
1122.6000;0.2418;0.1290;
1122.9000;0.2426;0.1337;
1123.2000;0.2426;0.1242;
1123.5000;0.2426;0.1122;
1123.8000;0.2401;0.1075;
1124.1000;0.2426;0.1218;
1124.4000;0.2434;0.1218;
1124.7000;0.2426;0.1337;
1125.0000;0.2418;0.1314;
1125.3000;0.2426;0.1266;
1125.6000;0.2393;0.1170;
1125.9000;0.2426;0.1146;
1126.2000;0.2369;0.0955;
1126.5000;0.2409;0.1051;
1126.8000;0.2409;0.1146;
1127.1000;0.2475;0.1242;
1127.4000;0.2442;0.1194;
1127.7000;0.2426;0.1122;
1128.0000;0.2442;0.1099;
1128.3000;0.2426;0.1099;
1128.6000;0.2450;0.1170;
1128.9000;0.2442;0.1122;
1129.2000;0.2434;0.1075;
1129.5000;0.2434;0.1051;
1129.8000;0.2442;0.1122;
1130.1000;0.2418;0.1099;
1130.4000;0.2434;0.1075;
1130.7000;0.2418;0.1027;
1131.0000;0.2475;0.1122;
1131.3000;0.2393;0.0908;
1131.6000;0.2418;0.1051;
1131.9000;0.2426;0.1003;
1132.2000;0.2418;0.1099;
1132.5000;0.2450;0.1027;
1132.8000;0.2442;0.1003;
1133.1000;0.2450;0.1027;
1133.4000;0.2393;0.0955;
1133.7000;0.2426;0.1099;
1134.0000;0.2442;0.1170;
1134.3000;0.2475;0.1242;
1134.6000;0.2426;0.1146;
1134.9000;0.2450;0.1170;
1135.2000;0.2434;0.1051;
1135.5000;0.2418;0.1003;
1135.8000;0.2418;0.1027;
1136.1000;0.2426;0.1146;
1136.4000;0.2393;0.1099;
1136.7000;0.2475;0.1337;
1137.0000;0.2418;0.1146;
1137.3000;0.2434;0.1337;
1137.6000;0.2475;0.1433;
1137.9000;0.2426;0.1314;
1138.2000;0.2426;0.1314;
1138.5000;0.2401;0.1242;
1138.8000;0.2426;0.1218;
1139.1000;0.2418;0.1194;
1139.4000;0.2418;0.1075;
1139.7000;0.2442;0.1122;
1140.0000;0.2418;0.1194;
1140.3000;0.2418;0.1218;
1140.6000;0.2418;0.1170;
1140.9000;0.2409;0.1218;
1141.2000;0.2426;0.1146;
1141.5000;0.2442;0.1075;
1141.8000;0.2344;0.1027;
1142.1000;0.2401;0.1122;
1142.4000;0.2393;0.1218;
1142.7000;0.2475;0.1409;
1143.0000;0.2418;0.1266;
1143.3000;0.2409;0.1290;
1143.6000;0.2434;0.1337;
1143.9000;0.2442;0.1361;
1144.2000;0.2434;0.1385;
1144.5000;0.2426;0.1409;
1144.8000;0.2426;0.1337;
1145.1000;0.2442;0.1290;
1145.4000;0.2434;0.1218;
1145.7000;0.2434;0.1266;
1146.0000;0.2426;0.1290;
1146.3000;0.2442;0.1290;
1146.6000;0.2418;0.1194;
1146.9000;0.2409;0.1218;
1147.2000;0.2409;0.1218;
1147.5000;0.2409;0.1170;
1147.8000;0.2426;0.1146;
1148.1000;0.2214;0.0669;
1148.4000;0.2418;0.1194;
1148.7000;0.2401;0.1170;
1149.0000;0.2418;0.1146;
1149.3000;0.2442;0.1122;
1149.6000;0.2426;0.1051;
1149.9000;0.2401;0.1003;
1150.2000;0.2450;0.1218;
1150.5000;0.2426;0.1170;
1150.8000;0.2393;0.1170;
1151.1000;0.2361;0.1075;
1151.4000;0.2442;0.1266;
1151.7000;0.2426;0.1242;
1152.0000;0.2409;0.1218;
1152.3000;0.2418;0.1170;
1152.6000;0.2426;0.1218;
1152.9000;0.2442;0.1290;
1153.2000;0.2418;0.1194;
1153.5000;0.2426;0.1242;
1153.8000;0.2442;0.1242;
1154.1000;0.2434;0.1314;
1154.4000;0.2434;0.1266;
1154.7000;0.2418;0.1218;
1155.0000;0.2401;0.1242;
1155.3000;0.2418;0.1314;
1155.6000;0.2426;0.1290;
1155.9000;0.2409;0.1218;
1156.2000;0.2426;0.1218;
1156.5000;0.2434;0.1218;
1156.8000;0.2418;0.1170;
1157.1000;0.2426;0.1218;
1157.4000;0.2426;0.1242;
1157.7000;0.2426;0.1099;
1158.0000;0.2409;0.1122;
1158.3000;0.2409;0.1194;
1158.6000;0.2426;0.1170;
1158.9000;0.2426;0.1218;
1159.2000;0.2409;0.1099;
1159.5000;0.2434;0.1194;
1159.8000;0.2426;0.1027;
1160.1000;0.2434;0.1027;
1160.4000;0.2434;0.1146;
1160.7000;0.2434;0.1146;
1161.0000;0.2434;0.1122;
1161.3000;0.2426;0.1027;
1161.6000;0.2434;0.1027;
1161.9000;0.2523;0.1337;
1162.2000;0.2409;0.0979;
1162.5000;0.2409;0.0979;
1162.8000;0.2426;0.1027;
1163.1000;0.2426;0.1075;
1163.4000;0.2418;0.1075;
1163.7000;0.2426;0.1051;
1164.0000;0.2434;0.1099;
1164.3000;0.2418;0.1146;
1164.6000;0.2426;0.1194;
1164.9000;0.2409;0.1099;
1165.2000;0.2434;0.1146;
1165.5000;0.2401;0.1170;
1165.8000;0.2434;0.1314;
1166.1000;0.2450;0.1290;
1166.4000;0.2442;0.1290;
1166.7000;0.2434;0.1242;
1167.0000;0.2434;0.1194;
1167.3000;0.2418;0.1170;
1167.6000;0.2434;0.1290;
1167.9000;0.2426;0.1385;
1168.2000;0.2442;0.1481;
1168.5000;0.2418;0.1385;
1168.8000;0.2426;0.1337;
1169.1000;0.2442;0.1314;
1169.4000;0.2434;0.1266;
1169.7000;0.2450;0.1361;
1170.0000;0.2401;0.1218;
1170.3000;0.2450;0.1337;
1170.6000;0.2434;0.1266;
1170.9000;0.2409;0.1242;
1171.2000;0.2418;0.1218;
1171.5000;0.2418;0.1242;
1171.8000;0.2409;0.1194;
1172.1000;0.2426;0.1194;
1172.4000;0.2401;0.1075;
1172.7000;0.2409;0.1099;
1173.0000;0.2450;0.1242;
1173.3000;0.2418;0.1170;
1173.6000;0.2426;0.1099;
1173.9000;0.2409;0.1122;
1174.2000;0.2426;0.1170;
1174.5000;0.2434;0.1122;
1174.8000;0.2434;0.1075;
1175.1000;0.2409;0.1099;
1175.4000;0.2418;0.1146;
1175.7000;0.2426;0.1194;
1176.0000;0.2328;0.0979;
1176.3000;0.2442;0.1170;
1176.6000;0.2418;0.1122;
1176.9000;0.2426;0.1099;
1177.2000;0.2458;0.1170;
1177.5000;0.2418;0.1075;
1177.8000;0.2434;0.1003;
1178.1000;0.2418;0.1051;
1178.4000;0.2442;0.1122;
1178.7000;0.2418;0.1075;
1179.0000;0.2418;0.1146;
1179.3000;0.2409;0.1122;
1179.6000;0.2426;0.1122;
1179.9000;0.2450;0.1218;
1180.2000;0.2418;0.1194;
1180.5000;0.2401;0.1170;
1180.8000;0.2418;0.1194;
1181.1000;0.2418;0.1194;
1181.4000;0.2418;0.1146;
1181.7000;0.2393;0.1075;
1182.0000;0.2434;0.1146;
1182.3000;0.2361;0.0931;
1182.6000;0.2426;0.1122;
1182.9000;0.2409;0.1170;
1183.2000;0.2426;0.1218;
1183.5000;0.2401;0.1290;
1183.8000;0.2426;0.1218;
1184.1000;0.2401;0.1266;
1184.4000;0.2418;0.1194;
1184.7000;0.2450;0.1194;
1185.0000;0.2426;0.1122;
1185.3000;0.2336;0.1003;
1185.6000;0.2418;0.1194;
1185.9000;0.2434;0.1194;
1186.2000;0.2434;0.1194;
1186.5000;0.2450;0.1242;
1186.8000;0.2418;0.1099;
1187.1000;0.2426;0.1075;
1187.4000;0.2426;0.1075;
1187.7000;0.2442;0.1122;
1188.0000;0.2466;0.1194;
1188.3000;0.2426;0.1146;
1188.6000;0.2426;0.1122;
1188.9000;0.2409;0.1027;
1189.2000;0.2393;0.0979;
1189.5000;0.2401;0.1051;
1189.8000;0.2434;0.1122;
1190.1000;0.2385;0.0884;
1190.4000;0.2434;0.0955;
1190.7000;0.2401;0.0884;
1191.0000;0.2418;0.0979;
1191.3000;0.2434;0.0931;
1191.6000;0.2377;0.0884;
1191.9000;0.2418;0.0979;
1192.2000;0.2418;0.1027;
1192.5000;0.2532;0.1314;
1192.8000;0.2442;0.1099;
1193.1000;0.2295;0.0836;
1193.4000;0.2426;0.1146;
1193.7000;0.2426;0.1194;
1194.0000;0.2426;0.1194;
1194.3000;0.2442;0.1122;
1194.6000;0.2442;0.1146;
1194.9000;0.2409;0.1146;
1195.2000;0.2458;0.1194;
1195.5000;0.2442;0.1075;
1195.8000;0.2401;0.1027;
1196.1000;0.2434;0.1122;
1196.4000;0.2434;0.1099;
1196.7000;0.2442;0.1122;
1197.0000;0.2434;0.1075;
1197.3000;0.2409;0.1003;
1197.6000;0.2418;0.1051;
1197.9000;0.2426;0.1122;
1198.2000;0.2409;0.1194;
1198.5000;0.2418;0.1314;
1198.8000;0.2426;0.1266;
1199.1000;0.2515;0.1457;
1199.4000;0.2393;0.1170;
1199.7000;0.2418;0.1075;
1200.0000;0.2409;0.1075;
1200.3000;0.2426;0.1003;
1200.6000;0.2418;0.0931;
1200.9000;0.2385;0.0931;
1201.2000;0.2434;0.1027;
1201.5000;0.2442;0.1051;
1201.8000;0.2426;0.0979;
1202.1000;0.2450;0.0955;
1202.4000;0.2442;0.0908;
1202.7000;0.2442;0.0931;
1203.0000;0.2426;0.0860;
1203.3000;0.2418;0.0931;
1203.6000;0.2426;0.1003;
1203.9000;0.2426;0.0908;
1204.2000;0.2426;0.0979;
1204.5000;0.2336;0.0908;
1204.8000;0.2418;0.1099;
1205.1000;0.2434;0.1146;
1205.4000;0.2434;0.1146;
1205.7000;0.2491;0.1242;
1206.0000;0.2418;0.1075;
1206.3000;0.2507;0.1314;
1206.6000;0.2426;0.1099;
1206.9000;0.2418;0.1075;
1207.2000;0.2434;0.1027;
1207.5000;0.2287;0.0740;
1207.8000;0.2418;0.1146;
1208.1000;0.2418;0.1170;
1208.4000;0.2466;0.1290;
1208.7000;0.2418;0.1218;
1209.0000;0.2320;0.0979;
1209.3000;0.2426;0.1290;
1209.6000;0.2369;0.1194;
1209.9000;0.2434;0.1337;
1210.2000;0.2418;0.1218;
1210.5000;0.2401;0.1170;
1210.8000;0.2442;0.1242;
1211.1000;0.2442;0.1218;
1211.4000;0.2434;0.1170;
1211.7000;0.2442;0.1170;
1212.0000;0.2450;0.1146;
1212.3000;0.2434;0.1122;
1212.6000;0.2475;0.1242;
1212.9000;0.2442;0.1122;
1213.2000;0.2426;0.1122;
1213.5000;0.2426;0.1027;
1213.8000;0.2418;0.0979;
1214.1000;0.2418;0.0931;
1214.4000;0.2409;0.1003;
1214.7000;0.2401;0.1027;
1215.0000;0.2442;0.1075;
1215.3000;0.2442;0.1075;
1215.6000;0.2369;0.0884;
1215.9000;0.2426;0.1027;
1216.2000;0.2393;0.0955;
1216.5000;0.2426;0.1051;
1216.8000;0.2442;0.1051;
1217.1000;0.2442;0.1051;
1217.4000;0.2418;0.1003;
1217.7000;0.2418;0.0955;
1218.0000;0.2409;0.0860;
1218.3000;0.2450;0.0812;
1218.6000;0.2418;0.0860;
1218.9000;0.2426;0.0955;
1219.2000;0.2434;0.1003;
1219.5000;0.2418;0.1003;
1219.8000;0.2401;0.0979;
1220.1000;0.2434;0.1051;
1220.4000;0.2426;0.1146;
1220.7000;0.2426;0.1146;
1221.0000;0.2426;0.1194;
1221.3000;0.2426;0.1218;
1221.6000;0.2401;0.1122;
1221.9000;0.2442;0.1146;
1222.2000;0.2328;0.0812;
1222.5000;0.2393;0.1051;
1222.8000;0.2426;0.1122;
1223.1000;0.2426;0.1003;
1223.4000;0.2418;0.1027;
1223.7000;0.2434;0.1051;
1224.0000;0.2532;0.1266;
1224.3000;0.2409;0.1099;
1224.6000;0.2409;0.1099;
1224.9000;0.2434;0.1122;
1225.2000;0.2450;0.1218;
1225.5000;0.2418;0.1051;
1225.8000;0.2442;0.1051;
1226.1000;0.2426;0.0955;
1226.4000;0.2426;0.0955;
1226.7000;0.2442;0.1051;
1227.0000;0.2450;0.1051;
1227.3000;0.2426;0.1003;
1227.6000;0.2377;0.0860;
1227.9000;0.2418;0.0979;
1228.2000;0.2442;0.1075;
1228.5000;0.2377;0.0931;
1228.8000;0.2418;0.1027;
1229.1000;0.2426;0.1003;
1229.4000;0.2434;0.1051;
1229.7000;0.2426;0.1003;
1230.0000;0.2426;0.1051;
1230.3000;0.2401;0.0955;
1230.6000;0.2466;0.1122;
1230.9000;0.2418;0.1122;
1231.2000;0.2409;0.1218;
1231.5000;0.2483;0.1266;
1231.8000;0.2418;0.1122;
1232.1000;0.2450;0.1122;
1232.4000;0.2409;0.0955;
1232.7000;0.2401;0.0931;
1233.0000;0.2377;0.0788;
1233.3000;0.2450;0.1051;
1233.6000;0.2409;0.0955;
1233.9000;0.2418;0.0955;
1234.2000;0.2418;0.0979;
1234.5000;0.2450;0.1099;
1234.8000;0.2434;0.1003;
1235.1000;0.2418;0.0979;
1235.4000;0.2426;0.1051;
1235.7000;0.2401;0.0931;
1236.0000;0.2475;0.1051;
1236.3000;0.2434;0.0931;
1236.6000;0.2409;0.0908;
1236.9000;0.2434;0.0955;
1237.2000;0.2434;0.0979;
1237.5000;0.2450;0.0979;
1237.8000;0.2434;0.0908;
1238.1000;0.2426;0.0931;
1238.4000;0.2450;0.0955;
1238.7000;0.2418;0.0931;
1239.0000;0.2426;0.0979;
1239.3000;0.2426;0.0979;
1239.6000;0.2426;0.0884;
1239.9000;0.2418;0.0836;
1240.2000;0.2426;0.0860;
1240.5000;0.2426;0.0884;
1240.8000;0.2409;0.0884;
1241.1000;0.2434;0.1027;
1241.4000;0.2336;0.0716;
1241.7000;0.2475;0.1003;
1242.0000;0.2426;0.0931;
1242.3000;0.2442;0.0979;
1242.6000;0.2450;0.0908;
1242.9000;0.2499;0.1075;
1243.2000;0.2450;0.1051;
1243.5000;0.2418;0.1003;
1243.8000;0.2450;0.1122;
1244.1000;0.2466;0.1170;
1244.4000;0.2418;0.1051;
1244.7000;0.2418;0.1051;
1245.0000;0.2434;0.1146;
1245.3000;0.2418;0.1122;
1245.6000;0.2418;0.1027;
1245.9000;0.2426;0.0931;
1246.2000;0.2442;0.1003;
1246.5000;0.2426;0.0931;
1246.8000;0.2434;0.0979;
1247.1000;0.2434;0.1027;
1247.4000;0.2426;0.0979;
1247.7000;0.2418;0.0979;
1248.0000;0.2442;0.1075;
1248.3000;0.2409;0.1027;
1248.6000;0.2418;0.1051;
1248.9000;0.2426;0.1170;
1249.2000;0.2434;0.1194;
1249.5000;0.2434;0.1194;
1249.8000;0.2393;0.1075;
1250.1000;0.2434;0.1170;
1250.4000;0.2385;0.1146;
1250.7000;0.2418;0.1122;
1251.0000;0.2434;0.1122;
1251.3000;0.2385;0.1075;
1251.6000;0.2434;0.1122;
1251.9000;0.2434;0.1122;
1252.2000;0.2434;0.1051;
1252.5000;0.2442;0.1051;
1252.8000;0.2418;0.1027;
1253.1000;0.2458;0.1170;
1253.4000;0.2442;0.1051;
1253.7000;0.2434;0.1003;
1254.0000;0.2442;0.1051;
1254.3000;0.2409;0.1027;
1254.6000;0.2442;0.1075;
1254.9000;0.2426;0.1051;
1255.2000;0.2426;0.1122;
1255.5000;0.2458;0.1218;
1255.8000;0.2385;0.1027;
1256.1000;0.2426;0.1122;
1256.4000;0.2418;0.1027;
1256.7000;0.2442;0.1051;
1257.0000;0.2450;0.1170;
1257.3000;0.2434;0.1051;
1257.6000;0.2450;0.1194;
1257.9000;0.2426;0.1218;
1258.2000;0.2426;0.1266;
1258.5000;0.2466;0.1314;
1258.8000;0.2434;0.1194;
1259.1000;0.2434;0.1218;
1259.4000;0.2434;0.1146;
1259.7000;0.2418;0.1122;
1260.0000;0.2426;0.1099;
1260.3000;0.2434;0.1075;
1260.6000;0.2507;0.1218;
1260.9000;0.2426;0.1003;
1261.2000;0.2426;0.1003;
1261.5000;0.2450;0.1051;
1261.8000;0.2385;0.0979;
1262.1000;0.2434;0.1170;
1262.4000;0.2409;0.1170;
1262.7000;0.2475;0.1218;
1263.0000;0.2385;0.0931;
1263.3000;0.2450;0.1051;
1263.6000;0.2434;0.1075;
1263.9000;0.2434;0.1075;
1264.2000;0.2352;0.0884;
1264.5000;0.2418;0.1075;
1264.8000;0.2426;0.1075;
1265.1000;0.2442;0.1075;
1265.4000;0.2475;0.1242;
1265.7000;0.2483;0.1266;
1266.0000;0.2401;0.1051;
1266.3000;0.2377;0.0955;
1266.6000;0.2426;0.1051;
1266.9000;0.2418;0.1027;
1267.2000;0.2434;0.1122;
1267.5000;0.2434;0.1051;
1267.8000;0.2442;0.1099;
1268.1000;0.2434;0.1122;
1268.4000;0.2434;0.1194;
1268.7000;0.2418;0.1218;
1269.0000;0.2426;0.1194;
1269.3000;0.2442;0.1242;
1269.6000;0.2442;0.1170;
1269.9000;0.2426;0.1051;
1270.2000;0.2434;0.1122;
1270.5000;0.2434;0.1099;
1270.8000;0.2442;0.1099;
1271.1000;0.2418;0.1003;
1271.4000;0.2401;0.1027;
1271.7000;0.2409;0.1051;
1272.0000;0.2418;0.1099;
1272.3000;0.2409;0.1075;
1272.6000;0.2418;0.1099;
1272.9000;0.2418;0.1051;
1273.2000;0.2523;0.1433;
1273.5000;0.2442;0.1170;
1273.8000;0.2426;0.1170;
1274.1000;0.2434;0.1242;
1274.4000;0.2434;0.1266;
1274.7000;0.2409;0.1146;
1275.0000;0.2434;0.1242;
1275.3000;0.2548;0.1600;
1275.6000;0.2418;0.1122;
1275.9000;0.2418;0.1003;
1276.2000;0.2401;0.0955;
1276.5000;0.2426;0.0979;
1276.8000;0.2418;0.0979;
1277.1000;0.2426;0.1003;
1277.4000;0.2426;0.1003;
1277.7000;0.2393;0.0931;
1278.0000;0.2434;0.1003;
1278.3000;0.2418;0.0955;
1278.6000;0.2491;0.1170;
1278.9000;0.2426;0.1027;
1279.2000;0.2450;0.1122;
1279.5000;0.2434;0.1027;
1279.8000;0.2442;0.0955;
1280.1000;0.2426;0.0908;
1280.4000;0.2426;0.0884;
1280.7000;0.2426;0.0884;
1281.0000;0.2426;0.0979;
1281.3000;0.2540;0.1266;
1281.6000;0.2442;0.1099;
1281.9000;0.2418;0.1003;
1282.2000;0.2442;0.1003;
1282.5000;0.2475;0.1099;
1282.8000;0.2442;0.1003;
1283.1000;0.2515;0.1170;
1283.4000;0.2458;0.1051;
1283.7000;0.2458;0.0955;
1284.0000;0.2426;0.0931;
1284.3000;0.2442;0.1003;
1284.6000;0.2450;0.1099;
1284.9000;0.2442;0.1051;
1285.2000;0.2434;0.0908;
1285.5000;0.2442;0.0931;
1285.8000;0.2458;0.0979;
1286.1000;0.2401;0.0836;
1286.4000;0.2401;0.0788;
1286.7000;0.2418;0.0788;
1287.0000;0.2426;0.0764;
1287.3000;0.2434;0.0669;
1287.6000;0.2401;0.0645;
1287.9000;0.2418;0.0693;
1288.2000;0.2409;0.0693;
1288.5000;0.2434;0.0740;
1288.8000;0.2434;0.0764;
1289.1000;0.2336;0.0549;
1289.4000;0.2409;0.0716;
1289.7000;0.2434;0.0740;
1290.0000;0.2442;0.0693;
1290.3000;0.2442;0.0788;
1290.6000;0.2458;0.0908;
1290.9000;0.2434;0.0836;
1291.2000;0.2409;0.0836;
1291.5000;0.2426;0.0860;
1291.8000;0.2401;0.0764;
1292.1000;0.2434;0.0836;
1292.4000;0.2418;0.0788;
1292.7000;0.2442;0.0931;
1293.0000;0.2418;0.0860;
1293.3000;0.2426;0.0931;
1293.6000;0.2434;0.1003;
1293.9000;0.2401;0.0812;
1294.2000;0.2418;0.0931;
1294.5000;0.2409;0.0860;
1294.8000;0.2434;0.0884;
1295.1000;0.2426;0.0931;
1295.4000;0.2418;0.0908;
1295.7000;0.2418;0.0979;
1296.0000;0.2418;0.1003;
1296.3000;0.2418;0.1051;
1296.6000;0.2401;0.1003;
1296.9000;0.2401;0.1051;
1297.2000;0.2401;0.1027;
1297.5000;0.2401;0.1122;
1297.8000;0.2385;0.1122;
1298.1000;0.2418;0.1242;
1298.4000;0.2458;0.1314;
1298.7000;0.2409;0.1146;
1299.0000;0.2401;0.1027;
1299.3000;0.2409;0.1027;
1299.6000;0.2442;0.1027;
1299.9000;0.2418;0.0884;
1300.2000;0.2418;0.0908;
1300.5000;0.2450;0.0955;
1300.8000;0.2401;0.0860;
1301.1000;0.2434;0.0908;
1301.4000;0.2434;0.0908;
1301.7000;0.2352;0.0740;
1302.0000;0.2434;0.0908;
1302.3000;0.2409;0.0836;
1302.6000;0.2442;0.1003;
1302.9000;0.2434;0.1003;
1303.2000;0.2442;0.1003;
1303.5000;0.2442;0.0955;
1303.8000;0.2434;0.0931;
1304.1000;0.2426;0.0836;
1304.4000;0.2458;0.0812;
1304.7000;0.2450;0.0860;
1305.0000;0.2393;0.0836;
1305.3000;0.2418;0.0884;
1305.6000;0.2434;0.0931;
1305.9000;0.2458;0.1051;
1306.2000;0.2426;0.0931;
1306.5000;0.2475;0.1075;
1306.8000;0.2328;0.0669;
1307.1000;0.2377;0.0860;
1307.4000;0.2450;0.1051;
1307.7000;0.2418;0.0931;
1308.0000;0.2409;0.0931;
1308.3000;0.2426;0.0955;
1308.6000;0.2385;0.0836;
1308.9000;0.2426;0.1027;
1309.2000;0.2377;0.0884;
1309.5000;0.2418;0.1003;
1309.8000;0.2442;0.0955;
1310.1000;0.2426;0.0908;
1310.4000;0.2401;0.0836;
1310.7000;0.2426;0.0979;
1311.0000;0.2418;0.0979;
1311.3000;0.2442;0.0979;
1311.6000;0.2434;0.0955;
1311.9000;0.2418;0.0884;
1312.2000;0.2401;0.0836;
1312.5000;0.2418;0.0955;
1312.8000;0.2434;0.0908;
1313.1000;0.2409;0.0955;
1313.4000;0.2409;0.0979;
1313.7000;0.2434;0.1003;
1314.0000;0.2466;0.1099;
1314.3000;0.2361;0.0740;
1314.6000;0.2418;0.0931;
1314.9000;0.2418;0.0884;
1315.2000;0.2458;0.0908;
1315.5000;0.2434;0.0812;
1315.8000;0.2442;0.0860;
1316.1000;0.2426;0.0884;
1316.4000;0.2426;0.0884;
1316.7000;0.2434;0.0955;
1317.0000;0.2434;0.0979;
1317.3000;0.2385;0.0884;
1317.6000;0.2418;0.0979;
1317.9000;0.2426;0.1027;
1318.2000;0.2393;0.0908;
1318.5000;0.2426;0.0955;
1318.8000;0.2418;0.0860;
1319.1000;0.2442;0.1003;
1319.4000;0.2426;0.1003;
1319.7000;0.2418;0.1051;
1320.0000;0.2434;0.1122;
1320.3000;0.2426;0.1075;
1320.6000;0.2434;0.1146;
1320.9000;0.2426;0.1170;
1321.2000;0.2401;0.1051;
1321.5000;0.2409;0.1051;
1321.8000;0.2418;0.1027;
1322.1000;0.2442;0.1027;
1322.4000;0.2426;0.0955;
1322.7000;0.2426;0.0931;
1323.0000;0.2401;0.0884;
1323.3000;0.2475;0.1051;
1323.6000;0.2393;0.0884;
1323.9000;0.2418;0.1003;
1324.2000;0.2426;0.0979;
1324.5000;0.2434;0.1003;
1324.8000;0.2426;0.1051;
1325.1000;0.2426;0.1146;
1325.4000;0.2483;0.1266;
1325.7000;0.2344;0.0908;
1326.0000;0.2434;0.1099;
1326.3000;0.2418;0.1003;
1326.6000;0.2442;0.1027;
1326.9000;0.2426;0.0908;
1327.2000;0.2466;0.0979;
1327.5000;0.2426;0.0884;
1327.8000;0.2401;0.0860;
1328.1000;0.2426;0.0955;
1328.4000;0.2434;0.0955;
1328.7000;0.2418;0.0931;
1329.0000;0.2418;0.0979;
1329.3000;0.2442;0.1122;
1329.6000;0.2434;0.1146;
1329.9000;0.2434;0.1122;
1330.2000;0.2418;0.1051;
1330.5000;0.2450;0.1099;
1330.8000;0.2385;0.0955;
1331.1000;0.2442;0.1075;
1331.4000;0.2418;0.1122;
1331.7000;0.2418;0.1146;
1332.0000;0.2426;0.1099;
1332.3000;0.2450;0.1218;
1332.6000;0.2426;0.1146;
1332.9000;0.2401;0.1170;
1333.2000;0.2442;0.1242;
1333.5000;0.2442;0.1218;
1333.8000;0.2434;0.1194;
1334.1000;0.2426;0.1194;
1334.4000;0.2426;0.1218;
1334.7000;0.2409;0.1266;
1335.0000;0.2434;0.1314;
1335.3000;0.2409;0.1242;
1335.6000;0.2426;0.1314;
1335.9000;0.2393;0.1242;
1336.2000;0.2532;0.1624;
1336.5000;0.2418;0.1266;
1336.8000;0.2352;0.0979;
1337.1000;0.2418;0.1075;
1337.4000;0.2393;0.1146;
1337.7000;0.2409;0.1099;
1338.0000;0.2418;0.1075;
1338.3000;0.2418;0.1075;
1338.6000;0.2434;0.0955;
1338.9000;0.2418;0.0931;
1339.2000;0.2466;0.1003;
1339.5000;0.2418;0.0931;
1339.8000;0.2442;0.1027;
1340.1000;0.2426;0.0955;
1340.4000;0.2426;0.0931;
1340.7000;0.2442;0.1051;
1341.0000;0.2434;0.1051;
1341.3000;0.2352;0.0836;
1341.6000;0.2418;0.1003;
1341.9000;0.2442;0.1099;
1342.2000;0.2418;0.1051;
1342.5000;0.2426;0.1099;
1342.8000;0.2442;0.1099;
1343.1000;0.2458;0.1099;
1343.4000;0.2418;0.1027;
1343.7000;0.2393;0.1003;
1344.0000;0.2483;0.1290;
1344.3000;0.2418;0.1099;
1344.6000;0.2426;0.1146;
1344.9000;0.2434;0.1194;
1345.2000;0.2434;0.1146;
1345.5000;0.2434;0.1194;
1345.8000;0.2434;0.1194;
1346.1000;0.2418;0.1170;
1346.4000;0.2434;0.1218;
1346.7000;0.2466;0.1266;
1347.0000;0.2450;0.1170;
1347.3000;0.2434;0.1146;
1347.6000;0.2426;0.1099;
1347.9000;0.2352;0.0955;
1348.2000;0.2393;0.1122;
1348.5000;0.2426;0.1194;
1348.8000;0.2393;0.1099;
1349.1000;0.2409;0.1218;
1349.4000;0.2442;0.1266;
1349.7000;0.2320;0.1027;
1350.0000;0.2507;0.1385;
1350.3000;0.2409;0.1122;
1350.6000;0.2418;0.1194;
1350.9000;0.2434;0.1242;
1351.2000;0.2434;0.1242;
1351.5000;0.2434;0.1170;
1351.8000;0.2426;0.1099;
1352.1000;0.2434;0.1194;
1352.4000;0.2442;0.1194;
1352.7000;0.2434;0.1146;
1353.0000;0.2426;0.1075;
1353.3000;0.2434;0.1051;
1353.6000;0.2434;0.1051;
1353.9000;0.2434;0.1051;
1354.2000;0.2426;0.1003;
1354.5000;0.2434;0.0979;
1354.8000;0.2450;0.0979;
1355.1000;0.2442;0.0979;
1355.4000;0.2426;0.0908;
1355.7000;0.2434;0.1003;
1356.0000;0.2442;0.0979;
1356.3000;0.2418;0.0884;
1356.6000;0.2426;0.1027;
1356.9000;0.2426;0.1075;
1357.2000;0.2393;0.1027;
1357.5000;0.2418;0.1075;
1357.8000;0.2377;0.0955;
1358.1000;0.2393;0.0931;
1358.4000;0.2393;0.0931;
1358.7000;0.2409;0.0931;
1359.0000;0.2426;0.0955;
1359.3000;0.2434;0.1003;
1359.6000;0.2426;0.0931;
1359.9000;0.2401;0.0979;
1360.2000;0.2426;0.1122;
1360.5000;0.2409;0.1266;
1360.8000;0.2418;0.1361;
1361.1000;0.2401;0.1433;
1361.4000;0.2409;0.1457;
1361.7000;0.2418;0.1409;
1362.0000;0.2434;0.1457;
1362.3000;0.2426;0.1337;
1362.6000;0.2442;0.1385;
1362.9000;0.2434;0.1337;
1363.2000;0.2393;0.1242;
1363.5000;0.2418;0.1194;
1363.8000;0.2409;0.1146;
1364.1000;0.2393;0.1075;
1364.4000;0.2418;0.1051;
1364.7000;0.2442;0.1099;
1365.0000;0.2450;0.1194;
1365.3000;0.2369;0.1075;
1365.6000;0.2442;0.1266;
1365.9000;0.2352;0.1075;
1366.2000;0.2426;0.1099;
1366.5000;0.2434;0.0979;
1366.8000;0.2377;0.0836;
1367.1000;0.2434;0.1075;
1367.4000;0.2418;0.1003;
1367.7000;0.2409;0.0955;
1368.0000;0.2377;0.0836;
1368.3000;0.2475;0.1027;
1368.6000;0.2434;0.1003;
1368.9000;0.2418;0.1003;
1369.2000;0.2418;0.0955;
1369.5000;0.2418;0.0884;
1369.8000;0.2418;0.0836;
1370.1000;0.2434;0.0931;
1370.4000;0.2409;0.0860;
1370.7000;0.2426;0.0908;
1371.0000;0.2320;0.0597;
1371.3000;0.2450;0.0979;
1371.6000;0.2426;0.0979;
1371.9000;0.2409;0.0979;
1372.2000;0.2434;0.1027;
1372.5000;0.2442;0.1003;
1372.8000;0.2418;0.1051;
1373.1000;0.2426;0.1122;
1373.4000;0.2401;0.1122;
1373.7000;0.2401;0.1146;
1374.0000;0.2450;0.1242;
1374.3000;0.2409;0.1194;
1374.6000;0.2401;0.1146;
1374.9000;0.2442;0.1242;
1375.2000;0.2401;0.1146;
1375.5000;0.2434;0.1146;
1375.8000;0.2466;0.1266;
1376.1000;0.2409;0.1099;
1376.4000;0.2434;0.1122;
1376.7000;0.2442;0.1075;
1377.0000;0.2418;0.0908;
1377.3000;0.2385;0.0860;
1377.6000;0.2426;0.1003;
1377.9000;0.2450;0.1051;
1378.2000;0.2450;0.1075;
1378.5000;0.2434;0.1027;
1378.8000;0.2418;0.1099;
1379.1000;0.2491;0.1290;
1379.4000;0.2418;0.1099;
1379.7000;0.2409;0.1099;
1380.0000;0.2393;0.1051;
1380.3000;0.2385;0.0955;
1380.6000;0.2458;0.1146;
1380.9000;0.2450;0.1218;
1381.2000;0.2434;0.1194;
1381.5000;0.2442;0.1194;
1381.8000;0.2434;0.1051;
1382.1000;0.2401;0.1003;
1382.4000;0.2442;0.1051;
1382.7000;0.2409;0.0979;
1383.0000;0.2442;0.1027;
1383.3000;0.2361;0.0812;
1383.6000;0.2442;0.1027;
1383.9000;0.2401;0.0931;
1384.2000;0.2434;0.1003;
1384.5000;0.2418;0.1003;
1384.8000;0.2418;0.1122;
1385.1000;0.2426;0.1170;
1385.4000;0.2418;0.1170;
1385.7000;0.2450;0.1266;
1386.0000;0.2434;0.1194;
1386.3000;0.2418;0.1146;
1386.6000;0.2434;0.1242;
1386.9000;0.2418;0.1146;
1387.2000;0.2442;0.1194;
1387.5000;0.2409;0.1170;
1387.8000;0.2434;0.1194;
1388.1000;0.2426;0.1099;
1388.4000;0.2442;0.1051;
1388.7000;0.2442;0.1051;
1389.0000;0.2434;0.1003;
1389.3000;0.2450;0.1051;
1389.6000;0.2409;0.1027;
1389.9000;0.2409;0.1003;
1390.2000;0.2434;0.1075;
1390.5000;0.2434;0.1075;
1390.8000;0.2499;0.1242;
1391.1000;0.2434;0.1099;
1391.4000;0.2442;0.1122;
1391.7000;0.2442;0.1122;
1392.0000;0.2426;0.1051;
1392.3000;0.2434;0.1170;
1392.6000;0.2426;0.1099;
1392.9000;0.2409;0.1122;
1393.2000;0.2434;0.1194;
1393.5000;0.2418;0.1170;
1393.8000;0.2442;0.1146;
1394.1000;0.2458;0.1314;
1394.4000;0.2475;0.1337;
1394.7000;0.2426;0.1218;
1395.0000;0.2401;0.1218;
1395.3000;0.2450;0.1290;
1395.6000;0.2434;0.1194;
1395.9000;0.2426;0.1146;
1396.2000;0.2442;0.1122;
1396.5000;0.2475;0.1290;
1396.8000;0.2426;0.1170;
1397.1000;0.2434;0.1146;
1397.4000;0.2434;0.1146;
1397.7000;0.2434;0.1194;
1398.0000;0.2442;0.1170;
1398.3000;0.2450;0.1266;
1398.6000;0.2434;0.1122;
1398.9000;0.2393;0.1003;
1399.2000;0.2426;0.1122;
1399.5000;0.2458;0.1218;
1399.8000;0.2434;0.1218;
