time/ms;Fluo/V;P700 deltaI/I x10³;
-199.8000;0.2434;0.0931;
-199.5000;0.2401;0.0884;
-199.2000;0.2434;0.0979;
-198.9000;0.2409;0.0812;
-198.6000;0.2426;0.0908;
-198.3000;0.2418;0.0931;
-198.0000;0.2434;0.0955;
-197.7000;0.2442;0.1003;
-197.4000;0.2418;0.0955;
-197.1000;0.2434;0.0979;
-196.8000;0.2418;0.0931;
-196.5000;0.2385;0.0812;
-196.2000;0.2434;0.0884;
-195.9000;0.2483;0.1075;
-195.6000;0.2450;0.1003;
-195.3000;0.2418;0.0931;
-195.0000;0.2426;0.1003;
-194.7000;0.2434;0.1027;
-194.4000;0.2434;0.1027;
-194.1000;0.2418;0.0955;
-193.8000;0.2426;0.0979;
-193.5000;0.2361;0.0740;
-193.2000;0.2442;0.0931;
-192.9000;0.2426;0.0860;
-192.6000;0.2418;0.0931;
-192.3000;0.2434;0.0931;
-192.0000;0.2434;0.0955;
-191.7000;0.2401;0.0908;
-191.4000;0.2434;0.0979;
-191.1000;0.2450;0.1003;
-190.8000;0.2426;0.0979;
-190.5000;0.2409;0.0931;
-190.2000;0.2426;0.1027;
-189.9000;0.2426;0.0955;
-189.6000;0.2377;0.0812;
-189.3000;0.2434;0.0979;
-189.0000;0.2401;0.0931;
-188.7000;0.2409;0.0931;
-188.4000;0.2475;0.1051;
-188.1000;0.2426;0.1003;
-187.8000;0.2434;0.1051;
-187.5000;0.2434;0.1027;
-187.2000;0.2409;0.1003;
-186.9000;0.2336;0.0764;
-186.6000;0.2426;0.0979;
-186.3000;0.2426;0.0955;
-186.0000;0.2418;0.0955;
-185.7000;0.2426;0.1003;
-185.4000;0.2418;0.0979;
-185.1000;0.2442;0.1027;
-184.8000;0.2418;0.1027;
-184.5000;0.2393;0.1027;
-184.2000;0.2434;0.1099;
-183.9000;0.2409;0.1051;
-183.6000;0.2426;0.1122;
-183.3000;0.2418;0.1075;
-183.0000;0.2426;0.1099;
-182.7000;0.2442;0.1218;
-182.4000;0.2409;0.1194;
-182.1000;0.2442;0.1242;
-181.8000;0.2515;0.1457;
-181.5000;0.2434;0.1099;
-181.2000;0.2393;0.0979;
-180.9000;0.2409;0.1051;
-180.6000;0.2434;0.1075;
-180.3000;0.2426;0.1075;
-180.0000;0.2418;0.1099;
-179.7000;0.2426;0.1194;
-179.4000;0.2418;0.1314;
-179.1000;0.2418;0.1170;
-178.8000;0.2450;0.1170;
-178.5000;0.2401;0.1146;
-178.2000;0.2450;0.1266;
-177.9000;0.2418;0.1290;
-177.6000;0.2426;0.1314;
-177.3000;0.2532;0.1600;
-177.0000;0.2328;0.1003;
-176.7000;0.2426;0.1314;
-176.4000;0.2401;0.1194;
-176.1000;0.2401;0.1146;
-175.8000;0.2418;0.1099;
-175.5000;0.2418;0.1122;
-175.2000;0.2434;0.1170;
-174.9000;0.2409;0.1122;
-174.6000;0.2409;0.1170;
-174.3000;0.2418;0.1290;
-174.0000;0.2418;0.1218;
-173.7000;0.2385;0.1194;
-173.4000;0.2426;0.1170;
-173.1000;0.2418;0.1194;
-172.8000;0.2434;0.1170;
-172.5000;0.2409;0.1099;
-172.2000;0.2409;0.1266;
-171.9000;0.2442;0.1314;
-171.6000;0.2418;0.1194;
-171.3000;0.2418;0.1194;
-171.0000;0.2409;0.1099;
-170.7000;0.2409;0.1122;
-170.4000;0.2418;0.1170;
-170.1000;0.2418;0.1218;
-169.8000;0.2426;0.1194;
-169.5000;0.2426;0.1218;
-169.2000;0.2409;0.1266;
-168.9000;0.2426;0.1385;
-168.6000;0.2401;0.1433;
-168.3000;0.2409;0.1433;
-168.0000;0.2361;0.1290;
-167.7000;0.2426;0.1433;
-167.4000;0.2418;0.1314;
-167.1000;0.2393;0.1194;
-166.8000;0.2491;0.1385;
-166.5000;0.2418;0.1314;
-166.2000;0.2426;0.1314;
-165.9000;0.2393;0.1146;
-165.6000;0.2409;0.1242;
-165.3000;0.2418;0.1266;
-165.0000;0.2466;0.1385;
-164.7000;0.2409;0.1218;
-164.4000;0.2458;0.1314;
-164.1000;0.2442;0.1194;
-163.8000;0.2426;0.1170;
-163.5000;0.2409;0.1099;
-163.2000;0.2409;0.1099;
-162.9000;0.2442;0.1099;
-162.6000;0.2442;0.1099;
-162.3000;0.2426;0.1051;
-162.0000;0.2426;0.1099;
-161.7000;0.2426;0.1075;
-161.4000;0.2426;0.1170;
-161.1000;0.2434;0.1170;
-160.8000;0.2409;0.1146;
-160.5000;0.2426;0.1170;
-160.2000;0.2409;0.1194;
-159.9000;0.2409;0.1170;
-159.6000;0.2426;0.1170;
-159.3000;0.2426;0.1099;
-159.0000;0.2377;0.1075;
-158.7000;0.2426;0.1170;
-158.4000;0.2401;0.1194;
-158.1000;0.2409;0.1218;
-157.8000;0.2418;0.1218;
-157.5000;0.2409;0.1170;
-157.2000;0.2434;0.1218;
-156.9000;0.2434;0.1290;
-156.6000;0.2418;0.1194;
-156.3000;0.2426;0.1218;
-156.0000;0.2434;0.1218;
-155.7000;0.2434;0.1170;
-155.4000;0.2409;0.1146;
-155.1000;0.2426;0.1122;
-154.8000;0.2409;0.1122;
-154.5000;0.2418;0.1194;
-154.2000;0.2426;0.1218;
-153.9000;0.2409;0.1242;
-153.6000;0.2418;0.1218;
-153.3000;0.2475;0.1314;
-153.0000;0.2418;0.1218;
-152.7000;0.2434;0.1242;
-152.4000;0.2434;0.1242;
-152.1000;0.2426;0.1290;
-151.8000;0.2418;0.1218;
-151.5000;0.2385;0.1194;
-151.2000;0.2426;0.1194;
-150.9000;0.2426;0.1170;
-150.6000;0.2466;0.1266;
-150.3000;0.2434;0.1194;
-150.0000;0.2434;0.1266;
-149.7000;0.2409;0.1122;
-149.4000;0.2418;0.1075;
-149.1000;0.2409;0.1075;
-148.8000;0.2434;0.1170;
-148.5000;0.2409;0.1170;
-148.2000;0.2418;0.1170;
-147.9000;0.2458;0.1290;
-147.6000;0.2409;0.1218;
-147.3000;0.2418;0.1266;
-147.0000;0.2426;0.1361;
-146.7000;0.2434;0.1361;
-146.4000;0.2540;0.1576;
-146.1000;0.2426;0.1361;
-145.8000;0.2426;0.1290;
-145.5000;0.2409;0.1170;
-145.2000;0.2434;0.1314;
-144.9000;0.2426;0.1385;
-144.6000;0.2418;0.1266;
-144.3000;0.2426;0.1361;
-144.0000;0.2426;0.1385;
-143.7000;0.2409;0.1290;
-143.4000;0.2450;0.1266;
-143.1000;0.2393;0.1075;
-142.8000;0.2426;0.1146;
-142.5000;0.2434;0.1218;
-142.2000;0.2442;0.1194;
-141.9000;0.2450;0.1218;
-141.6000;0.2426;0.1075;
-141.3000;0.2426;0.1146;
-141.0000;0.2426;0.1194;
-140.7000;0.2418;0.1146;
-140.4000;0.2466;0.1314;
-140.1000;0.2426;0.1146;
-139.8000;0.2426;0.1122;
-139.5000;0.2385;0.0979;
-139.2000;0.2418;0.1122;
-138.9000;0.2426;0.1194;
-138.6000;0.2434;0.1290;
-138.3000;0.2418;0.1266;
-138.0000;0.2418;0.1242;
-137.7000;0.2409;0.1266;
-137.4000;0.2434;0.1266;
-137.1000;0.2377;0.1099;
-136.8000;0.2418;0.1218;
-136.5000;0.2426;0.1218;
-136.2000;0.2426;0.1266;
-135.9000;0.2426;0.1266;
-135.6000;0.2418;0.1242;
-135.3000;0.2409;0.1266;
-135.0000;0.2418;0.1314;
-134.7000;0.2434;0.1242;
-134.4000;0.2418;0.1266;
-134.1000;0.2434;0.1314;
-133.8000;0.2418;0.1266;
-133.5000;0.2409;0.1290;
-133.2000;0.2434;0.1337;
-132.9000;0.2507;0.1576;
-132.6000;0.2393;0.1290;
-132.3000;0.2418;0.1266;
-132.0000;0.2434;0.1290;
-131.7000;0.2483;0.1337;
-131.4000;0.2442;0.1266;
-131.1000;0.2540;0.1481;
-130.8000;0.2418;0.1290;
-130.5000;0.2434;0.1314;
-130.2000;0.2418;0.1337;
-129.9000;0.2409;0.1290;
-129.6000;0.2393;0.1194;
-129.3000;0.2434;0.1170;
-129.0000;0.2418;0.1099;
-128.7000;0.2418;0.1051;
-128.4000;0.2401;0.0931;
-128.1000;0.2426;0.0979;
-127.8000;0.2434;0.1099;
-127.5000;0.2450;0.1218;
-127.2000;0.2409;0.1218;
-126.9000;0.2385;0.1075;
-126.6000;0.2434;0.1194;
-126.3000;0.2426;0.1146;
-126.0000;0.2418;0.1075;
-125.7000;0.2434;0.1146;
-125.4000;0.2442;0.1075;
-125.1000;0.2426;0.1051;
-124.8000;0.2409;0.0979;
-124.5000;0.2442;0.0955;
-124.2000;0.2426;0.0955;
-123.9000;0.2426;0.0884;
-123.6000;0.2377;0.0788;
-123.3000;0.2418;0.0908;
-123.0000;0.2401;0.0860;
-122.7000;0.2442;0.1027;
-122.4000;0.2418;0.1051;
-122.1000;0.2426;0.1003;
-121.8000;0.2369;0.0931;
-121.5000;0.2418;0.1051;
-121.2000;0.2409;0.1003;
-120.9000;0.2418;0.1003;
-120.6000;0.2442;0.1146;
-120.3000;0.2426;0.1051;
-120.0000;0.2515;0.1218;
-119.7000;0.2426;0.1027;
-119.4000;0.2434;0.1003;
-119.1000;0.2418;0.0908;
-118.8000;0.2418;0.1003;
-118.5000;0.2434;0.1075;
-118.2000;0.2409;0.0955;
-117.9000;0.2434;0.1051;
-117.6000;0.2434;0.1051;
-117.3000;0.2434;0.1122;
-117.0000;0.2426;0.1099;
-116.7000;0.2418;0.1051;
-116.4000;0.2328;0.0860;
-116.1000;0.2426;0.1122;
-115.8000;0.2442;0.1122;
-115.5000;0.2409;0.1122;
-115.2000;0.2442;0.1194;
-114.9000;0.2483;0.1290;
-114.6000;0.2401;0.1194;
-114.3000;0.2409;0.1194;
-114.0000;0.2418;0.1170;
-113.7000;0.2418;0.1170;
-113.4000;0.2426;0.1146;
-113.1000;0.2434;0.1122;
-112.8000;0.2409;0.1099;
-112.5000;0.2426;0.1099;
-112.2000;0.2418;0.0979;
-111.9000;0.2434;0.1146;
-111.6000;0.2426;0.1170;
-111.3000;0.2401;0.1122;
-111.0000;0.2426;0.1170;
-110.7000;0.2426;0.1122;
-110.4000;0.2442;0.1099;
-110.1000;0.2409;0.1051;
-109.8000;0.2361;0.1027;
-109.5000;0.2401;0.1122;
-109.2000;0.2418;0.1099;
-108.9000;0.2426;0.1099;
-108.6000;0.2401;0.1122;
-108.3000;0.2409;0.1170;
-108.0000;0.2515;0.1385;
-107.7000;0.2442;0.1242;
-107.4000;0.2426;0.1266;
-107.1000;0.2426;0.1218;
-106.8000;0.2466;0.1314;
-106.5000;0.2442;0.1290;
-106.2000;0.2434;0.1337;
-105.9000;0.2328;0.1075;
-105.6000;0.2418;0.1337;
-105.3000;0.2442;0.1409;
-105.0000;0.2442;0.1337;
-104.7000;0.2409;0.1266;
-104.4000;0.2426;0.1266;
-104.1000;0.2434;0.1266;
-103.8000;0.2385;0.1146;
-103.5000;0.2523;0.1433;
-103.2000;0.2434;0.1218;
-102.9000;0.2426;0.1194;
-102.6000;0.2401;0.1170;
-102.3000;0.2418;0.1242;
-102.0000;0.2418;0.1266;
-101.7000;0.2466;0.1385;
-101.4000;0.2466;0.1385;
-101.1000;0.2434;0.1290;
-100.8000;0.2426;0.1242;
-100.5000;0.2434;0.1266;
-100.2000;0.2442;0.1218;
-99.9000;0.2385;0.1146;
-99.6000;0.2450;0.1385;
-99.3000;0.2426;0.1457;
-99.0000;0.2401;0.1337;
-98.7000;0.2442;0.1505;
-98.4000;0.2401;0.1409;
-98.1000;0.2409;0.1409;
-97.8000;0.2426;0.1385;
-97.5000;0.2442;0.1457;
-97.2000;0.2409;0.1409;
-96.9000;0.2418;0.1361;
-96.6000;0.2426;0.1385;
-96.3000;0.2418;0.1266;
-96.0000;0.2377;0.1146;
-95.7000;0.2434;0.1242;
-95.4000;0.2426;0.1266;
-95.1000;0.2450;0.1314;
-94.8000;0.2426;0.1218;
-94.5000;0.2418;0.1146;
-94.2000;0.2409;0.1122;
-93.9000;0.2426;0.1146;
-93.6000;0.2442;0.1266;
-93.3000;0.2434;0.1242;
-93.0000;0.2352;0.1122;
-92.7000;0.2434;0.1290;
-92.4000;0.2418;0.1385;
-92.1000;0.2442;0.1409;
-91.8000;0.2418;0.1337;
-91.5000;0.2409;0.1218;
-91.2000;0.2401;0.1194;
-90.9000;0.2434;0.1194;
-90.6000;0.2434;0.1146;
-90.3000;0.2409;0.1099;
-90.0000;0.2418;0.1099;
-89.7000;0.2426;0.1170;
-89.4000;0.2418;0.1194;
-89.1000;0.2401;0.1146;
-88.8000;0.2393;0.1122;
-88.5000;0.2434;0.1242;
-88.2000;0.2401;0.1194;
-87.9000;0.2418;0.1314;
-87.6000;0.2401;0.1314;
-87.3000;0.2434;0.1290;
-87.0000;0.2434;0.1314;
-86.7000;0.2393;0.1266;
-86.4000;0.2426;0.1290;
-86.1000;0.2352;0.1099;
-85.8000;0.2434;0.1290;
-85.5000;0.2418;0.1337;
-85.2000;0.2483;0.1481;
-84.9000;0.2426;0.1409;
-84.6000;0.2523;0.1648;
-84.3000;0.2418;0.1481;
-84.0000;0.2401;0.1361;
-83.7000;0.2418;0.1290;
-83.4000;0.2426;0.1314;
-83.1000;0.2426;0.1314;
-82.8000;0.2409;0.1218;
-82.5000;0.2409;0.1146;
-82.2000;0.2434;0.1194;
-81.9000;0.2418;0.1051;
-81.6000;0.2418;0.1003;
-81.3000;0.2409;0.1003;
-81.0000;0.2418;0.1051;
-80.7000;0.2491;0.1218;
-80.4000;0.2426;0.1099;
-80.1000;0.2401;0.1051;
-79.8000;0.2426;0.1194;
-79.5000;0.2385;0.1075;
-79.2000;0.2409;0.1218;
-78.9000;0.2401;0.1242;
-78.6000;0.2426;0.1218;
-78.3000;0.2556;0.1552;
-78.0000;0.2418;0.1218;
-77.7000;0.2426;0.1194;
-77.4000;0.2377;0.1027;
-77.1000;0.2434;0.1170;
-76.8000;0.2483;0.1290;
-76.5000;0.2409;0.1146;
-76.2000;0.2466;0.1242;
-75.9000;0.2401;0.1099;
-75.6000;0.2426;0.1242;
-75.3000;0.2426;0.1242;
-75.0000;0.2426;0.1242;
-74.7000;0.2458;0.1337;
-74.4000;0.2442;0.1218;
-74.1000;0.2442;0.1266;
-73.8000;0.2409;0.1218;
-73.5000;0.2409;0.1218;
-73.2000;0.2434;0.1290;
-72.9000;0.2401;0.1122;
-72.6000;0.2393;0.1099;
-72.3000;0.2426;0.1146;
-72.0000;0.2409;0.1122;
-71.7000;0.2434;0.1170;
-71.4000;0.2426;0.1266;
-71.1000;0.2409;0.1146;
-70.8000;0.2434;0.1170;
-70.5000;0.2426;0.1075;
-70.2000;0.2434;0.1027;
-69.9000;0.2418;0.0931;
-69.6000;0.2418;0.0836;
-69.3000;0.2418;0.0836;
-69.0000;0.2401;0.0812;
-68.7000;0.2442;0.1051;
-68.4000;0.2418;0.1051;
-68.1000;0.2442;0.1051;
-67.8000;0.2426;0.1122;
-67.5000;0.2450;0.1146;
-67.2000;0.2418;0.1146;
-66.9000;0.2426;0.1075;
-66.6000;0.2426;0.1099;
-66.3000;0.2426;0.1051;
-66.0000;0.2418;0.1027;
-65.7000;0.2393;0.0955;
-65.4000;0.2434;0.1003;
-65.1000;0.2418;0.1051;
-64.8000;0.2426;0.1170;
-64.5000;0.2442;0.1242;
-64.2000;0.2418;0.1218;
-63.9000;0.2393;0.1075;
-63.6000;0.2377;0.1003;
-63.3000;0.2434;0.1266;
-63.0000;0.2418;0.1242;
-62.7000;0.2450;0.1266;
-62.4000;0.2418;0.1170;
-62.1000;0.2458;0.1242;
-61.8000;0.2385;0.1099;
-61.5000;0.2401;0.1122;
-61.2000;0.2361;0.1051;
-60.9000;0.2401;0.1075;
-60.6000;0.2442;0.1146;
-60.3000;0.2409;0.1146;
-60.0000;0.2426;0.1218;
-59.7000;0.2418;0.1146;
-59.4000;0.2418;0.1099;
-59.1000;0.2434;0.1194;
-58.8000;0.2426;0.1242;
-58.5000;0.2418;0.1099;
-58.2000;0.2434;0.1146;
-57.9000;0.2442;0.1099;
-57.6000;0.2426;0.1051;
-57.3000;0.2418;0.1027;
-57.0000;0.2401;0.1027;
-56.7000;0.2426;0.1170;
-56.4000;0.2442;0.1218;
-56.1000;0.2442;0.1146;
-55.8000;0.2418;0.1075;
-55.5000;0.2450;0.1170;
-55.2000;0.2418;0.1170;
-54.9000;0.2426;0.1194;
-54.6000;0.2434;0.1122;
-54.3000;0.2418;0.1099;
-54.0000;0.2426;0.1170;
-53.7000;0.2426;0.1194;
-53.4000;0.2385;0.1099;
-53.1000;0.2369;0.1170;
-52.8000;0.2418;0.1266;
-52.5000;0.2377;0.1122;
-52.2000;0.2409;0.1266;
-51.9000;0.2450;0.1409;
-51.6000;0.2434;0.1385;
-51.3000;0.2409;0.1337;
-51.0000;0.2458;0.1409;
-50.7000;0.2369;0.1170;
-50.4000;0.2434;0.1290;
-50.1000;0.2426;0.1242;
-49.8000;0.2401;0.1122;
-49.5000;0.2393;0.1099;
-49.2000;0.2450;0.1099;
-48.9000;0.2475;0.1242;
-48.6000;0.2418;0.1122;
-48.3000;0.2426;0.1218;
-48.0000;0.2418;0.1194;
-47.7000;0.2442;0.1146;
-47.4000;0.2409;0.1027;
-47.1000;0.2426;0.1218;
-46.8000;0.2434;0.1194;
-46.5000;0.2532;0.1528;
-46.2000;0.2426;0.1266;
-45.9000;0.2418;0.1266;
-45.6000;0.2418;0.1218;
-45.3000;0.2418;0.1099;
-45.0000;0.2418;0.1122;
-44.7000;0.2418;0.1170;
-44.4000;0.2426;0.1266;
-44.1000;0.2418;0.1266;
-43.8000;0.2426;0.1337;
-43.5000;0.2434;0.1409;
-43.2000;0.2418;0.1361;
-42.9000;0.2491;0.1528;
-42.6000;0.2434;0.1314;
-42.3000;0.2434;0.1266;
-42.0000;0.2409;0.1242;
-41.7000;0.2418;0.1266;
-41.4000;0.2434;0.1194;
-41.1000;0.2515;0.1361;
-40.8000;0.2507;0.1433;
-40.5000;0.2434;0.1242;
-40.2000;0.2491;0.1337;
-39.9000;0.2418;0.1146;
-39.6000;0.2475;0.1314;
-39.3000;0.2426;0.1194;
-39.0000;0.2401;0.1146;
-38.7000;0.2434;0.1194;
-38.4000;0.2409;0.1242;
-38.1000;0.2426;0.1194;
-37.8000;0.2377;0.1075;
-37.5000;0.2442;0.1242;
-37.2000;0.2426;0.1409;
-36.9000;0.2450;0.1457;
-36.6000;0.2418;0.1361;
-36.3000;0.2418;0.1337;
-36.0000;0.2418;0.1290;
-35.7000;0.2418;0.1266;
-35.4000;0.2409;0.1314;
-35.1000;0.2426;0.1409;
-34.8000;0.2434;0.1385;
-34.5000;0.2434;0.1361;
-34.2000;0.2434;0.1409;
-33.9000;0.2426;0.1433;
-33.6000;0.2418;0.1385;
-33.3000;0.2434;0.1481;
-33.0000;0.2409;0.1409;
-32.7000;0.2418;0.1457;
-32.4000;0.2466;0.1528;
-32.1000;0.2442;0.1337;
-31.8000;0.2426;0.1242;
-31.5000;0.2385;0.1075;
-31.2000;0.2418;0.1266;
-30.9000;0.2409;0.1290;
-30.6000;0.2426;0.1337;
-30.3000;0.2426;0.1194;
-30.0000;0.2442;0.1099;
-29.7000;0.2442;0.1075;
-29.4000;0.2434;0.0979;
-29.1000;0.2426;0.0979;
-28.8000;0.2418;0.1099;
-28.5000;0.2418;0.1194;
-28.2000;0.2434;0.1170;
-27.9000;0.2409;0.1051;
-27.6000;0.2434;0.1194;
-27.3000;0.2418;0.1122;
-27.0000;0.2418;0.1170;
-26.7000;0.2287;0.0908;
-26.4000;0.2401;0.1122;
-26.1000;0.2409;0.1075;
-25.8000;0.2434;0.1122;
-25.5000;0.2418;0.1122;
-25.2000;0.2426;0.1170;
-24.9000;0.2434;0.1170;
-24.6000;0.2450;0.1218;
-24.3000;0.2393;0.1170;
-24.0000;0.2426;0.1266;
-23.7000;0.2418;0.1194;
-23.4000;0.2361;0.1146;
-23.1000;0.2418;0.1337;
-22.8000;0.2418;0.1266;
-22.5000;0.2434;0.1218;
-22.2000;0.2426;0.1218;
-21.9000;0.2426;0.1218;
-21.6000;0.2450;0.1146;
-21.3000;0.2409;0.1075;
-21.0000;0.2442;0.1122;
-20.7000;0.2401;0.1051;
-20.4000;0.2418;0.1051;
-20.1000;0.2401;0.0979;
-19.8000;0.2418;0.0979;
-19.5000;0.2426;0.1122;
-19.2000;0.2442;0.1122;
-18.9000;0.2450;0.1146;
-18.6000;0.2434;0.1146;
-18.3000;0.2434;0.1146;
-18.0000;0.2409;0.1218;
-17.7000;0.2393;0.1242;
-17.4000;0.2426;0.1290;
-17.1000;0.2434;0.1361;
-16.8000;0.2434;0.1385;
-16.5000;0.2450;0.1433;
-16.2000;0.2434;0.1337;
-15.9000;0.2418;0.1218;
-15.6000;0.2426;0.1266;
-15.3000;0.2418;0.1290;
-15.0000;0.2418;0.1290;
-14.7000;0.2426;0.1266;
-14.4000;0.2409;0.1194;
-14.1000;0.2369;0.1003;
-13.8000;0.2426;0.1146;
-13.5000;0.2409;0.1146;
-13.2000;0.2434;0.1194;
-12.9000;0.2377;0.1075;
-12.6000;0.2385;0.1146;
-12.3000;0.2426;0.1218;
-12.0000;0.2442;0.1314;
-11.7000;0.2450;0.1385;
-11.4000;0.2434;0.1242;
-11.1000;0.2409;0.1218;
-10.8000;0.2426;0.1290;
-10.5000;0.2442;0.1314;
-10.2000;0.2418;0.1361;
-9.9000;0.2418;0.1361;
-9.6000;0.2393;0.1218;
-9.3000;0.2426;0.1337;
-9.0000;0.2426;0.1266;
-8.7000;0.2434;0.1290;
-8.4000;0.2491;0.1361;
-8.1000;0.2418;0.1242;
-7.8000;0.2409;0.1242;
-7.5000;0.2458;0.1457;
-7.2000;0.2426;0.1457;
-6.9000;0.2426;0.1457;
-6.6000;0.2434;0.1409;
-6.3000;0.2385;0.1290;
-6.0000;0.2426;0.1433;
-5.7000;0.2434;0.1385;
-5.4000;0.2418;0.1314;
-5.1000;0.2434;0.1266;
-4.8000;0.2418;0.1170;
-4.5000;0.2401;0.1146;
-4.2000;0.2418;0.1170;
-3.9000;0.2426;0.1242;
-3.6000;0.2418;0.1218;
-3.3000;0.2426;0.1218;
-3.0000;0.2442;0.1170;
-2.7000;0.2385;0.0931;
-2.4000;0.2409;0.0979;
-2.1000;0.2426;0.1027;
-1.8000;0.2418;0.1027;
-1.5000;0.2450;0.1075;
-1.2000;0.2426;0.1003;
-0.9000;0.2409;0.1027;
-0.6000;0.2409;0.1027;
-0.3000;0.2418;0.1003;
0.0000;0.2418;0.1003;
0.3000;0.2418;0.0621;
0.6000;0.2442;0.0860;
0.9000;0.2401;0.0908;
1.2000;0.2507;0.1290;
1.5000;0.2401;0.1099;
1.8000;0.2401;0.1170;
2.1000;0.2393;0.1242;
2.4000;0.2401;0.1385;
2.7000;0.2418;0.1457;
3.0000;0.2393;0.1528;
3.3000;0.2418;0.1720;
3.6000;0.2418;0.1720;
3.9000;0.2409;0.1791;
4.2000;0.2401;0.1863;
4.5000;0.2418;0.1958;
4.8000;0.2418;0.2054;
5.1000;0.2409;0.2102;
5.4000;0.2401;0.2030;
5.7000;0.2393;0.2030;
6.0000;0.2377;0.2006;
6.3000;0.2418;0.1982;
6.6000;0.2393;0.1934;
6.9000;0.2426;0.2006;
7.2000;0.2499;0.2126;
7.5000;0.2409;0.1863;
7.8000;0.2401;0.1815;
8.1000;0.2401;0.1911;
8.4000;0.2385;0.1863;
8.7000;0.2418;0.2006;
9.0000;0.2418;0.1934;
9.3000;0.2336;0.1720;
9.6000;0.2393;0.1911;
9.9000;0.2442;0.2030;
10.2000;0.2401;0.1958;
10.5000;0.2393;0.1982;
10.8000;0.2401;0.1958;
11.1000;0.2401;0.2054;
11.4000;0.2401;0.2054;
11.7000;0.2385;0.1958;
12.0000;0.2401;0.1863;
12.3000;0.2393;0.1982;
12.6000;0.2418;0.2126;
12.9000;0.2409;0.2030;
13.2000;0.2418;0.1958;
13.5000;0.2523;0.2245;
13.8000;0.2409;0.1934;
14.1000;0.2418;0.1958;
14.4000;0.2393;0.1887;
14.7000;0.2393;0.1887;
15.0000;0.2385;0.1911;
15.3000;0.2361;0.1911;
15.6000;0.2295;0.1696;
15.9000;0.2385;0.1911;
16.2000;0.2385;0.1958;
16.5000;0.2401;0.2054;
16.8000;0.2418;0.2054;
17.1000;0.2401;0.2054;
17.4000;0.2409;0.2078;
17.7000;0.2458;0.2173;
18.0000;0.2401;0.2030;
18.3000;0.2377;0.1911;
18.6000;0.2409;0.2030;
18.9000;0.2409;0.2006;
19.2000;0.2418;0.1982;
19.5000;0.2401;0.1863;
19.8000;0.2418;0.2006;
20.1000;0.2393;0.2006;
20.4000;0.2401;0.1982;
20.7000;0.2377;0.1887;
21.0000;0.2458;0.2173;
21.3000;0.2377;0.1934;
21.6000;0.2393;0.1934;
21.9000;0.2385;0.1934;
22.2000;0.2418;0.2006;
22.5000;0.2409;0.2054;
22.8000;0.2426;0.2054;
23.1000;0.2409;0.1982;
23.4000;0.2401;0.1982;
23.7000;0.2409;0.1911;
24.0000;0.2418;0.1934;
24.3000;0.2409;0.1887;
24.6000;0.2401;0.1839;
24.9000;0.2409;0.1839;
25.2000;0.2475;0.2054;
25.5000;0.2426;0.1911;
25.8000;0.2426;0.2006;
26.1000;0.2401;0.2006;
26.4000;0.2401;0.1958;
26.7000;0.2418;0.2030;
27.0000;0.2418;0.2030;
27.3000;0.2434;0.2030;
27.6000;0.2418;0.1958;
27.9000;0.2401;0.1934;
28.2000;0.2466;0.2126;
28.5000;0.2409;0.1958;
28.8000;0.2426;0.1934;
29.1000;0.2426;0.1958;
29.4000;0.2385;0.1958;
29.7000;0.2393;0.1934;
30.0000;0.2409;0.1934;
30.3000;0.2344;0.1767;
30.6000;0.2426;0.1934;
30.9000;0.2401;0.1958;
31.2000;0.2385;0.1934;
31.5000;0.2409;0.2030;
31.8000;0.2426;0.2030;
32.1000;0.2352;0.1863;
32.4000;0.2393;0.2030;
32.7000;0.2409;0.2030;
33.0000;0.2418;0.2102;
33.3000;0.2393;0.2078;
33.6000;0.2409;0.2006;
33.9000;0.2409;0.2030;
34.2000;0.2393;0.2006;
34.5000;0.2401;0.2006;
34.8000;0.2393;0.1934;
35.1000;0.2434;0.2054;
35.4000;0.2401;0.2030;
35.7000;0.2426;0.2126;
36.0000;0.2409;0.2078;
36.3000;0.2409;0.2102;
36.6000;0.2401;0.2126;
36.9000;0.2401;0.2078;
37.2000;0.2401;0.2030;
37.5000;0.2393;0.2054;
37.8000;0.2393;0.2006;
38.1000;0.2409;0.1982;
38.4000;0.2393;0.1982;
38.7000;0.2393;0.2054;
39.0000;0.2426;0.2126;
39.3000;0.2458;0.2293;
39.6000;0.2418;0.2173;
39.9000;0.2401;0.2149;
40.2000;0.2393;0.2054;
40.5000;0.2418;0.2078;
40.8000;0.2409;0.2102;
41.1000;0.2393;0.2054;
41.4000;0.2401;0.2102;
41.7000;0.2401;0.2102;
42.0000;0.2401;0.2078;
42.3000;0.2385;0.2054;
42.6000;0.2385;0.2173;
42.9000;0.2385;0.2173;
43.2000;0.2385;0.2197;
43.5000;0.2393;0.2269;
43.8000;0.2393;0.2173;
44.1000;0.2377;0.2173;
44.4000;0.2409;0.2245;
44.7000;0.2418;0.2245;
45.0000;0.2401;0.2269;
45.3000;0.2393;0.2293;
45.6000;0.2344;0.2221;
45.9000;0.2369;0.2245;
46.2000;0.2426;0.2317;
46.5000;0.2393;0.2221;
46.8000;0.2409;0.2269;
47.1000;0.2491;0.2364;
47.4000;0.2418;0.2102;
47.7000;0.2393;0.1982;
48.0000;0.2418;0.2078;
48.3000;0.2320;0.1815;
48.6000;0.2401;0.2054;
48.9000;0.2409;0.2030;
49.2000;0.2361;0.2054;
49.5000;0.2426;0.2221;
49.8000;0.2401;0.2173;
50.1000;0.2409;0.2197;
50.4000;0.2393;0.2221;
50.7000;0.2409;0.2102;
51.0000;0.2393;0.2149;
51.3000;0.2385;0.2173;
51.6000;0.2401;0.2364;
51.9000;0.2385;0.2317;
52.2000;0.2426;0.2340;
52.5000;0.2401;0.2269;
52.8000;0.2377;0.2245;
53.1000;0.2418;0.2221;
53.4000;0.2385;0.2054;
53.7000;0.2401;0.2126;
54.0000;0.2385;0.2126;
54.3000;0.2491;0.2436;
54.6000;0.2401;0.2221;
54.9000;0.2393;0.2221;
55.2000;0.2385;0.2197;
55.5000;0.2385;0.2173;
55.8000;0.2483;0.2412;
56.1000;0.2483;0.2412;
56.4000;0.2401;0.2173;
56.7000;0.2385;0.2149;
57.0000;0.2393;0.2173;
57.3000;0.2385;0.2126;
57.6000;0.2409;0.2173;
57.9000;0.2369;0.2030;
58.2000;0.2377;0.2054;
58.5000;0.2409;0.2197;
58.8000;0.2475;0.2293;
59.1000;0.2377;0.2149;
59.4000;0.2393;0.2221;
59.7000;0.2401;0.2269;
60.0000;0.2409;0.2197;
60.3000;0.2401;0.2197;
60.6000;0.2393;0.2245;
60.9000;0.2393;0.2293;
61.2000;0.2409;0.2317;
61.5000;0.2369;0.2245;
61.8000;0.2393;0.2221;
62.1000;0.2475;0.2364;
62.4000;0.2393;0.2197;
62.7000;0.2393;0.2221;
63.0000;0.2401;0.2149;
63.3000;0.2401;0.2126;
63.6000;0.2418;0.2173;
63.9000;0.2361;0.2078;
64.2000;0.2393;0.2149;
64.5000;0.2401;0.2149;
64.8000;0.2401;0.2102;
65.1000;0.2401;0.2030;
65.4000;0.2401;0.2006;
65.7000;0.2393;0.2030;
66.0000;0.2418;0.2102;
66.3000;0.2377;0.1982;
66.6000;0.2401;0.1958;
66.9000;0.2377;0.1863;
67.2000;0.2426;0.2054;
67.5000;0.2434;0.2054;
67.8000;0.2377;0.1911;
68.1000;0.2369;0.1863;
68.4000;0.2491;0.2197;
68.7000;0.2409;0.1982;
69.0000;0.2409;0.1934;
69.3000;0.2385;0.1911;
69.6000;0.2336;0.1767;
69.9000;0.2409;0.1934;
70.2000;0.2401;0.2006;
70.5000;0.2344;0.1911;
70.8000;0.2377;0.2006;
71.1000;0.2426;0.2126;
71.4000;0.2442;0.2269;
71.7000;0.2401;0.2173;
72.0000;0.2426;0.2197;
72.3000;0.2385;0.2102;
72.6000;0.2385;0.2149;
72.9000;0.2393;0.2197;
73.2000;0.2385;0.2102;
73.5000;0.2352;0.2006;
73.8000;0.2344;0.1911;
74.1000;0.2385;0.1982;
74.4000;0.2377;0.1982;
74.7000;0.2401;0.1887;
75.0000;0.2361;0.1887;
75.3000;0.2442;0.2030;
75.6000;0.2393;0.1887;
75.9000;0.2450;0.2030;
76.2000;0.2401;0.2030;
76.5000;0.2401;0.2078;
76.8000;0.2361;0.1911;
77.1000;0.2344;0.1839;
77.4000;0.2409;0.1958;
77.7000;0.2377;0.1887;
78.0000;0.2393;0.1887;
78.3000;0.2385;0.1839;
78.6000;0.2393;0.1887;
78.9000;0.2393;0.1958;
79.2000;0.2361;0.1863;
79.5000;0.2385;0.1958;
79.8000;0.2393;0.2030;
80.1000;0.2393;0.1982;
80.4000;0.2401;0.1934;
80.7000;0.2393;0.2006;
81.0000;0.2385;0.1958;
81.3000;0.2409;0.2054;
81.6000;0.2409;0.2030;
81.9000;0.2385;0.2006;
82.2000;0.2377;0.1911;
82.5000;0.2385;0.1982;
82.8000;0.2418;0.1982;
83.1000;0.2393;0.1887;
83.4000;0.2377;0.1767;
83.7000;0.2393;0.1815;
84.0000;0.2377;0.1720;
84.3000;0.2401;0.1791;
84.6000;0.2418;0.1887;
84.9000;0.2401;0.1887;
85.2000;0.2401;0.1791;
85.5000;0.2385;0.1791;
85.8000;0.2393;0.1863;
86.1000;0.2393;0.1815;
86.4000;0.2401;0.1863;
86.7000;0.2401;0.1934;
87.0000;0.2393;0.1911;
87.3000;0.2377;0.1982;
87.6000;0.2377;0.1958;
87.9000;0.2385;0.1982;
88.2000;0.2393;0.1863;
88.5000;0.2393;0.1887;
88.8000;0.2409;0.1934;
89.1000;0.2369;0.1863;
89.4000;0.2377;0.1958;
89.7000;0.2369;0.1911;
90.0000;0.2369;0.1934;
90.3000;0.2385;0.2030;
90.6000;0.2401;0.2078;
90.9000;0.2393;0.2030;
91.2000;0.2369;0.1982;
91.5000;0.2426;0.2054;
91.8000;0.2393;0.1982;
92.1000;0.2361;0.1863;
92.4000;0.2344;0.1791;
92.7000;0.2385;0.1839;
93.0000;0.2385;0.1815;
93.3000;0.2377;0.1815;
93.6000;0.2385;0.1839;
93.9000;0.2401;0.1934;
94.2000;0.2401;0.1982;
94.5000;0.2418;0.2078;
94.8000;0.2393;0.2006;
95.1000;0.2352;0.1982;
95.4000;0.2361;0.1839;
95.7000;0.2409;0.1958;
96.0000;0.2393;0.1958;
96.3000;0.2385;0.1934;
96.6000;0.2393;0.2030;
96.9000;0.2393;0.2006;
97.2000;0.2393;0.2006;
97.5000;0.2393;0.1934;
97.8000;0.2418;0.1958;
98.1000;0.2409;0.2006;
98.4000;0.2385;0.1934;
98.7000;0.2393;0.1887;
99.0000;0.2401;0.1815;
99.3000;0.2401;0.1887;
99.6000;0.2385;0.1863;
99.9000;0.2393;0.1791;
100.2000;0.2393;0.1839;
100.5000;0.2393;0.1887;
100.8000;0.2401;0.1887;
101.1000;0.2385;0.1911;
101.4000;0.2385;0.1911;
101.7000;0.2393;0.2006;
102.0000;0.2304;0.1839;
102.3000;0.2393;0.2078;
102.6000;0.2377;0.2006;
102.9000;0.2361;0.2006;
103.2000;0.2377;0.2030;
103.5000;0.2409;0.2126;
103.8000;0.2393;0.1934;
104.1000;0.2401;0.1982;
104.4000;0.2401;0.2006;
104.7000;0.2393;0.1958;
105.0000;0.2409;0.1887;
105.3000;0.2377;0.1839;
105.6000;0.2393;0.1911;
105.9000;0.2426;0.2030;
106.2000;0.2401;0.2006;
106.5000;0.2352;0.1863;
106.8000;0.2401;0.1958;
107.1000;0.2377;0.1911;
107.4000;0.2385;0.1982;
107.7000;0.2385;0.1911;
108.0000;0.2377;0.1911;
108.3000;0.2352;0.1839;
108.6000;0.2377;0.1863;
108.9000;0.2393;0.1863;
109.2000;0.2385;0.1839;
109.5000;0.2393;0.1791;
109.8000;0.2393;0.1696;
110.1000;0.2401;0.1743;
110.4000;0.2418;0.1791;
110.7000;0.2409;0.1863;
111.0000;0.2401;0.1791;
111.3000;0.2385;0.1696;
111.6000;0.2393;0.1720;
111.9000;0.2401;0.1743;
112.2000;0.2409;0.1743;
112.5000;0.2377;0.1743;
112.8000;0.2393;0.1767;
113.1000;0.2401;0.1815;
113.4000;0.2352;0.1743;
113.7000;0.2385;0.1839;
114.0000;0.2393;0.1887;
114.3000;0.2475;0.2173;
114.6000;0.2377;0.2006;
114.9000;0.2369;0.2006;
115.2000;0.2369;0.2030;
115.5000;0.2385;0.2006;
115.8000;0.2393;0.1958;
116.1000;0.2377;0.2006;
116.4000;0.2385;0.1958;
116.7000;0.2393;0.2030;
117.0000;0.2409;0.2126;
117.3000;0.2385;0.1982;
117.6000;0.2393;0.1958;
117.9000;0.2320;0.1911;
118.2000;0.2344;0.1982;
118.5000;0.2393;0.2054;
118.8000;0.2385;0.2030;
119.1000;0.2385;0.2078;
119.4000;0.2401;0.2197;
119.7000;0.2401;0.2245;
120.0000;0.2393;0.2221;
120.3000;0.2385;0.2126;
120.6000;0.2377;0.2102;
120.9000;0.2377;0.2006;
121.2000;0.2401;0.2102;
121.5000;0.2385;0.1934;
121.8000;0.2409;0.1958;
122.1000;0.2426;0.2078;
122.4000;0.2401;0.2006;
122.7000;0.2352;0.1863;
123.0000;0.2409;0.1934;
123.3000;0.2393;0.1934;
123.6000;0.2401;0.2030;
123.9000;0.2369;0.2030;
124.2000;0.2385;0.2126;
124.5000;0.2409;0.2102;
124.8000;0.2393;0.2006;
125.1000;0.2385;0.1934;
125.4000;0.2434;0.1958;
125.7000;0.2385;0.1887;
126.0000;0.2393;0.2006;
126.3000;0.2344;0.1815;
126.6000;0.2377;0.1934;
126.9000;0.2450;0.2102;
127.2000;0.2385;0.1911;
127.5000;0.2385;0.1934;
127.8000;0.2385;0.1934;
128.1000;0.2377;0.1911;
128.4000;0.2393;0.1911;
128.7000;0.2385;0.1934;
129.0000;0.2328;0.1743;
129.3000;0.2361;0.1791;
129.6000;0.2385;0.1743;
129.9000;0.2385;0.1720;
130.2000;0.2458;0.1863;
130.5000;0.2409;0.1767;
130.8000;0.2377;0.1696;
131.1000;0.2401;0.1720;
131.4000;0.2418;0.1696;
131.7000;0.2369;0.1648;
132.0000;0.2393;0.1696;
132.3000;0.2377;0.1743;
132.6000;0.2409;0.1767;
132.9000;0.2401;0.1743;
133.2000;0.2352;0.1600;
133.5000;0.2385;0.1672;
133.8000;0.2385;0.1624;
134.1000;0.2352;0.1648;
134.4000;0.2361;0.1576;
134.7000;0.2369;0.1576;
135.0000;0.2434;0.1767;
135.3000;0.2401;0.1743;
135.6000;0.2369;0.1696;
135.9000;0.2401;0.1743;
136.2000;0.2393;0.1767;
136.5000;0.2393;0.1791;
136.8000;0.2393;0.1743;
137.1000;0.2287;0.1409;
137.4000;0.2393;0.1696;
137.7000;0.2393;0.1696;
138.0000;0.2393;0.1767;
138.3000;0.2369;0.1791;
138.6000;0.2385;0.1911;
138.9000;0.2385;0.1887;
139.2000;0.2369;0.1767;
139.5000;0.2369;0.1791;
139.8000;0.2377;0.1815;
140.1000;0.2336;0.1696;
140.4000;0.2385;0.1791;
140.7000;0.2377;0.1815;
141.0000;0.2409;0.1911;
141.3000;0.2409;0.1982;
141.6000;0.2401;0.2006;
141.9000;0.2393;0.2078;
142.2000;0.2361;0.1982;
142.5000;0.2377;0.1958;
142.8000;0.2393;0.1982;
143.1000;0.2393;0.1982;
143.4000;0.2393;0.2030;
143.7000;0.2393;0.2102;
144.0000;0.2418;0.2173;
144.3000;0.2393;0.2149;
144.6000;0.2393;0.2030;
144.9000;0.2401;0.1958;
145.2000;0.2352;0.1815;
145.5000;0.2393;0.2030;
145.8000;0.2377;0.1887;
146.1000;0.2401;0.1887;
146.4000;0.2393;0.1982;
146.7000;0.2385;0.1958;
147.0000;0.2409;0.2102;
147.3000;0.2385;0.2006;
147.6000;0.2393;0.2102;
147.9000;0.2393;0.2054;
148.2000;0.2409;0.2078;
148.5000;0.2393;0.2102;
148.8000;0.2393;0.2054;
149.1000;0.2409;0.2102;
149.4000;0.2377;0.2078;
149.7000;0.2385;0.1982;
150.0000;0.2401;0.2078;
150.3000;0.2393;0.2030;
150.6000;0.2369;0.2006;
150.9000;0.2361;0.2006;
151.2000;0.2377;0.2006;
151.5000;0.2385;0.1982;
151.8000;0.2393;0.2006;
152.1000;0.2401;0.1982;
152.4000;0.2385;0.1791;
152.7000;0.2393;0.1791;
153.0000;0.2393;0.1791;
153.3000;0.2409;0.1911;
153.6000;0.2361;0.1839;
153.9000;0.2393;0.1958;
154.2000;0.2393;0.1934;
154.5000;0.2434;0.2030;
154.8000;0.2369;0.1911;
155.1000;0.2369;0.1958;
155.4000;0.2385;0.1887;
155.7000;0.2385;0.1767;
156.0000;0.2369;0.1767;
156.3000;0.2426;0.1958;
156.6000;0.2377;0.1958;
156.9000;0.2369;0.1911;
157.2000;0.2393;0.1982;
157.5000;0.2369;0.1839;
157.8000;0.2377;0.1887;
158.1000;0.2385;0.1863;
158.4000;0.2409;0.1934;
158.7000;0.2385;0.1958;
159.0000;0.2434;0.2126;
159.3000;0.2401;0.2126;
159.6000;0.2393;0.2126;
159.9000;0.2377;0.2030;
160.2000;0.2352;0.2006;
160.5000;0.2393;0.2102;
160.8000;0.2385;0.2006;
161.1000;0.2377;0.1958;
161.4000;0.2385;0.1934;
161.7000;0.2385;0.1839;
162.0000;0.2507;0.2102;
162.3000;0.2393;0.1887;
162.6000;0.2377;0.1887;
162.9000;0.2361;0.1815;
163.2000;0.2336;0.1791;
163.5000;0.2377;0.1958;
163.8000;0.2401;0.1982;
164.1000;0.2385;0.1958;
164.4000;0.2393;0.1934;
164.7000;0.2393;0.1934;
165.0000;0.2434;0.2030;
165.3000;0.2434;0.1982;
165.6000;0.2401;0.1887;
165.9000;0.2409;0.1958;
166.2000;0.2385;0.1958;
166.5000;0.2377;0.1982;
166.8000;0.2377;0.2030;
167.1000;0.2377;0.1982;
167.4000;0.2401;0.2006;
167.7000;0.2377;0.1982;
168.0000;0.2393;0.2030;
168.3000;0.2385;0.2030;
168.6000;0.2393;0.2078;
168.9000;0.2393;0.2078;
169.2000;0.2393;0.2126;
169.5000;0.2393;0.2054;
169.8000;0.2393;0.2006;
170.1000;0.2393;0.2030;
170.4000;0.2393;0.1934;
170.7000;0.2385;0.2006;
171.0000;0.2401;0.1934;
171.3000;0.2401;0.1934;
171.6000;0.2393;0.1934;
171.9000;0.2426;0.2126;
172.2000;0.2401;0.2030;
172.5000;0.2385;0.1911;
172.8000;0.2377;0.1839;
173.1000;0.2377;0.1887;
173.4000;0.2393;0.1982;
173.7000;0.2385;0.1982;
174.0000;0.2385;0.1911;
174.3000;0.2401;0.1982;
174.6000;0.2385;0.1887;
174.9000;0.2426;0.2006;
175.2000;0.2418;0.1982;
175.5000;0.2393;0.1958;
175.8000;0.2458;0.2245;
176.1000;0.2401;0.2173;
176.4000;0.2377;0.2126;
176.7000;0.2409;0.2221;
177.0000;0.2442;0.2221;
177.3000;0.2385;0.2006;
177.6000;0.2393;0.2030;
177.9000;0.2377;0.1982;
178.2000;0.2385;0.2102;
178.5000;0.2385;0.2126;
178.8000;0.2409;0.2149;
179.1000;0.2401;0.2102;
179.4000;0.2312;0.1863;
179.7000;0.2401;0.2078;
180.0000;0.2409;0.2126;
180.3000;0.2393;0.2102;
180.6000;0.2385;0.2149;
180.9000;0.2377;0.2149;
181.2000;0.2377;0.2149;
181.5000;0.2409;0.2197;
181.8000;0.2369;0.2054;
182.1000;0.2369;0.2030;
182.4000;0.2377;0.2102;
182.7000;0.2369;0.2126;
183.0000;0.2377;0.2126;
183.3000;0.2369;0.2126;
183.6000;0.2385;0.2245;
183.9000;0.2385;0.2221;
184.2000;0.2369;0.2173;
184.5000;0.2377;0.2173;
184.8000;0.2409;0.2317;
185.1000;0.2369;0.2197;
185.4000;0.2344;0.2054;
185.7000;0.2385;0.2149;
186.0000;0.2385;0.2149;
186.3000;0.2369;0.2173;
186.6000;0.2377;0.2221;
186.9000;0.2369;0.2173;
187.2000;0.2369;0.2197;
187.5000;0.2385;0.2221;
187.8000;0.2369;0.2149;
188.1000;0.2393;0.2221;
188.4000;0.2377;0.2245;
188.7000;0.2401;0.2197;
189.0000;0.2385;0.2078;
189.3000;0.2409;0.2149;
189.6000;0.2377;0.2078;
189.9000;0.2385;0.2221;
190.2000;0.2385;0.2221;
190.5000;0.2409;0.2149;
190.8000;0.2344;0.2006;
191.1000;0.2409;0.2197;
191.4000;0.2385;0.2173;
191.7000;0.2393;0.2197;
192.0000;0.2393;0.2126;
192.3000;0.2377;0.2126;
192.6000;0.2312;0.1887;
192.9000;0.2352;0.2054;
193.2000;0.2369;0.2149;
193.5000;0.2393;0.2245;
193.8000;0.2385;0.2245;
194.1000;0.2393;0.2269;
194.4000;0.2361;0.2269;
194.7000;0.2369;0.2269;
195.0000;0.2393;0.2388;
195.3000;0.2369;0.2269;
195.6000;0.2385;0.2364;
195.9000;0.2426;0.2436;
196.2000;0.2352;0.2197;
196.5000;0.2385;0.2269;
196.8000;0.2385;0.2269;
197.1000;0.2361;0.2149;
197.4000;0.2344;0.2006;
197.7000;0.2377;0.2126;
198.0000;0.2377;0.2078;
198.3000;0.2377;0.2102;
198.6000;0.2385;0.2054;
198.9000;0.2401;0.1982;
199.2000;0.2401;0.1958;
199.5000;0.2393;0.1911;
199.8000;0.2401;0.2078;
200.1000;0.2393;0.2102;
200.4000;0.2328;0.1934;
200.7000;0.2393;0.2078;
201.0000;0.2361;0.2006;
201.3000;0.2369;0.2054;
201.6000;0.2434;0.2245;
201.9000;0.2377;0.2173;
202.2000;0.2385;0.2269;
202.5000;0.2361;0.2293;
202.8000;0.2401;0.2340;
203.1000;0.2377;0.2269;
203.4000;0.2458;0.2555;
203.7000;0.2320;0.2078;
204.0000;0.2409;0.2269;
204.3000;0.2409;0.2173;
204.6000;0.2393;0.2054;
204.9000;0.2393;0.2006;
205.2000;0.2401;0.1934;
205.5000;0.2361;0.1863;
205.8000;0.2401;0.1934;
206.1000;0.2385;0.1958;
206.4000;0.2409;0.2006;
206.7000;0.2369;0.1982;
207.0000;0.2393;0.2030;
207.3000;0.2385;0.2006;
207.6000;0.2352;0.1934;
207.9000;0.2377;0.1958;
208.2000;0.2385;0.1982;
208.5000;0.2385;0.2006;
208.8000;0.2393;0.1958;
209.1000;0.2458;0.2126;
209.4000;0.2377;0.1958;
209.7000;0.2361;0.1982;
210.0000;0.2409;0.2078;
210.3000;0.2385;0.1982;
210.6000;0.2393;0.1934;
210.9000;0.2466;0.2126;
211.2000;0.2377;0.2006;
211.5000;0.2369;0.2006;
211.8000;0.2377;0.2126;
212.1000;0.2361;0.2054;
212.4000;0.2369;0.2149;
212.7000;0.2369;0.2102;
213.0000;0.2369;0.2149;
213.3000;0.2377;0.2197;
213.6000;0.2377;0.2173;
213.9000;0.2401;0.2245;
214.2000;0.2409;0.2197;
214.5000;0.2377;0.2126;
214.8000;0.2369;0.2149;
215.1000;0.2385;0.2126;
215.4000;0.2393;0.2078;
215.7000;0.2393;0.2054;
216.0000;0.2385;0.2030;
216.3000;0.2393;0.1934;
216.6000;0.2385;0.1791;
216.9000;0.2377;0.1982;
217.2000;0.2401;0.2102;
217.5000;0.2385;0.2078;
217.8000;0.2385;0.2173;
218.1000;0.2393;0.2317;
218.4000;0.2385;0.2364;
218.7000;0.2385;0.2317;
219.0000;0.2369;0.2245;
219.3000;0.2393;0.2221;
219.6000;0.2442;0.2388;
219.9000;0.2385;0.2221;
220.2000;0.2369;0.2197;
220.5000;0.2385;0.2269;
220.8000;0.2385;0.2317;
221.1000;0.2393;0.2436;
221.4000;0.2320;0.2197;
221.7000;0.2385;0.2388;
222.0000;0.2434;0.2484;
222.3000;0.2385;0.2317;
222.6000;0.2385;0.2293;
222.9000;0.2369;0.2245;
223.2000;0.2385;0.2269;
223.5000;0.2361;0.2245;
223.8000;0.2409;0.2436;
224.1000;0.2377;0.2293;
224.4000;0.2393;0.2293;
224.7000;0.2442;0.2388;
225.0000;0.2393;0.2245;
225.3000;0.2385;0.2269;
225.6000;0.2377;0.2245;
225.9000;0.2483;0.2436;
226.2000;0.2352;0.2102;
226.5000;0.2320;0.2030;
226.8000;0.2369;0.2149;
227.1000;0.2393;0.2054;
227.4000;0.2369;0.1982;
227.7000;0.2418;0.2054;
228.0000;0.2409;0.2173;
228.3000;0.2369;0.2030;
228.6000;0.2385;0.2126;
228.9000;0.2393;0.2197;
229.2000;0.2361;0.2173;
229.5000;0.2418;0.2269;
229.8000;0.2401;0.2317;
230.1000;0.2320;0.2173;
230.4000;0.2377;0.2317;
230.7000;0.2385;0.2269;
231.0000;0.2377;0.2269;
231.3000;0.2312;0.2102;
231.6000;0.2377;0.2245;
231.9000;0.2377;0.2221;
232.2000;0.2385;0.2245;
232.5000;0.2401;0.2197;
232.8000;0.2377;0.2102;
233.1000;0.2385;0.2173;
233.4000;0.2369;0.2126;
233.7000;0.2393;0.2221;
234.0000;0.2377;0.2173;
234.3000;0.2385;0.2126;
234.6000;0.2401;0.2149;
234.9000;0.2393;0.2078;
235.2000;0.2377;0.2030;
235.5000;0.2385;0.2054;
235.8000;0.2385;0.2078;
236.1000;0.2385;0.2102;
236.4000;0.2409;0.2221;
236.7000;0.2393;0.2221;
237.0000;0.2393;0.2173;
237.3000;0.2377;0.2197;
237.6000;0.2393;0.2245;
237.9000;0.2352;0.2149;
238.2000;0.2279;0.1958;
238.5000;0.2304;0.1958;
238.8000;0.2369;0.2054;
239.1000;0.2442;0.2245;
239.4000;0.2483;0.2364;
239.7000;0.2393;0.2245;
240.0000;0.2377;0.2293;
240.3000;0.2377;0.2269;
240.6000;0.2352;0.2078;
240.9000;0.2385;0.2269;
241.2000;0.2377;0.2293;
241.5000;0.2361;0.2269;
241.8000;0.2393;0.2197;
242.1000;0.2377;0.2173;
242.4000;0.2369;0.2102;
242.7000;0.2393;0.2245;
243.0000;0.2344;0.2149;
243.3000;0.2385;0.2197;
243.6000;0.2369;0.2102;
243.9000;0.2385;0.2102;
244.2000;0.2369;0.2006;
244.5000;0.2385;0.2126;
244.8000;0.2401;0.2149;
245.1000;0.2393;0.2126;
245.4000;0.2442;0.2293;
245.7000;0.2385;0.2173;
246.0000;0.2377;0.2221;
246.3000;0.2393;0.2293;
246.6000;0.2377;0.2173;
246.9000;0.2328;0.2006;
247.2000;0.2393;0.2269;
247.5000;0.2369;0.2269;
247.8000;0.2377;0.2293;
248.1000;0.2409;0.2293;
248.4000;0.2361;0.2078;
248.7000;0.2393;0.2149;
249.0000;0.2385;0.2197;
249.3000;0.2377;0.2269;
249.6000;0.2263;0.1982;
249.9000;0.2369;0.2197;
250.2000;0.2385;0.2173;
250.5000;0.2385;0.2126;
250.8000;0.2377;0.2197;
251.1000;0.2385;0.2221;
251.4000;0.2385;0.2149;
251.7000;0.2369;0.2078;
252.0000;0.2369;0.2126;
252.3000;0.2393;0.2245;
252.6000;0.2401;0.2221;
252.9000;0.2393;0.2197;
253.2000;0.2361;0.2102;
253.5000;0.2369;0.2102;
253.8000;0.2385;0.2221;
254.1000;0.2426;0.2317;
254.4000;0.2369;0.2173;
254.7000;0.2369;0.2149;
255.0000;0.2418;0.2245;
255.3000;0.2434;0.2293;
255.6000;0.2385;0.2102;
255.9000;0.2312;0.1982;
256.2000;0.2377;0.2149;
256.5000;0.2385;0.2149;
256.8000;0.2385;0.2149;
257.1000;0.2377;0.2030;
257.4000;0.2385;0.1958;
257.7000;0.2361;0.1911;
258.0000;0.2401;0.2102;
258.3000;0.2401;0.2126;
258.6000;0.2393;0.2173;
258.9000;0.2369;0.2197;
259.2000;0.2393;0.2197;
259.5000;0.2377;0.2173;
259.8000;0.2377;0.2078;
260.1000;0.2361;0.2078;
260.4000;0.2377;0.2054;
260.7000;0.2385;0.2054;
261.0000;0.2401;0.1982;
261.3000;0.2385;0.1958;
261.6000;0.2385;0.1911;
261.9000;0.2385;0.1839;
262.2000;0.2393;0.1911;
262.5000;0.2385;0.1863;
262.8000;0.2377;0.1839;
263.1000;0.2385;0.1887;
263.4000;0.2409;0.1934;
263.7000;0.2377;0.1815;
264.0000;0.2385;0.1958;
264.3000;0.2377;0.2006;
264.6000;0.2377;0.2078;
264.9000;0.2304;0.1887;
265.2000;0.2377;0.1982;
265.5000;0.2361;0.1815;
265.8000;0.2344;0.1839;
266.1000;0.2304;0.1720;
266.4000;0.2377;0.1982;
266.7000;0.2377;0.2006;
267.0000;0.2401;0.2102;
267.3000;0.2426;0.2173;
267.6000;0.2385;0.2102;
267.9000;0.2385;0.1982;
268.2000;0.2385;0.1934;
268.5000;0.2369;0.1791;
268.8000;0.2361;0.1791;
269.1000;0.2361;0.1934;
269.4000;0.2393;0.1958;
269.7000;0.2385;0.2006;
270.0000;0.2401;0.2006;
270.3000;0.2369;0.1887;
270.6000;0.2393;0.1911;
270.9000;0.2377;0.1887;
271.2000;0.2344;0.1815;
271.5000;0.2409;0.1958;
271.8000;0.2377;0.1863;
272.1000;0.2393;0.1863;
272.4000;0.2393;0.1839;
272.7000;0.2393;0.1887;
273.0000;0.2401;0.1982;
273.3000;0.2377;0.1982;
273.6000;0.2442;0.2197;
273.9000;0.2377;0.2078;
274.2000;0.2385;0.2078;
274.5000;0.2393;0.2102;
274.8000;0.2361;0.2078;
275.1000;0.2369;0.2126;
275.4000;0.2385;0.2149;
275.7000;0.2401;0.2221;
276.0000;0.2393;0.2102;
276.3000;0.2377;0.2054;
276.6000;0.2393;0.1958;
276.9000;0.2377;0.2006;
277.2000;0.2393;0.2030;
277.5000;0.2336;0.1887;
277.8000;0.2369;0.2006;
278.1000;0.2385;0.2006;
278.4000;0.2369;0.2006;
278.7000;0.2385;0.1982;
279.0000;0.2369;0.1911;
279.3000;0.2434;0.2149;
279.6000;0.2377;0.2054;
279.9000;0.2344;0.1934;
280.2000;0.2304;0.1791;
280.5000;0.2401;0.2102;
280.8000;0.2385;0.2149;
281.1000;0.2295;0.1887;
281.4000;0.2361;0.2102;
281.7000;0.2369;0.2078;
282.0000;0.2377;0.2102;
282.3000;0.2377;0.2054;
282.6000;0.2385;0.2173;
282.9000;0.2377;0.2173;
283.2000;0.2385;0.2173;
283.5000;0.2361;0.2173;
283.8000;0.2369;0.2293;
284.1000;0.2409;0.2317;
284.4000;0.2385;0.2269;
284.7000;0.2361;0.2173;
285.0000;0.2369;0.2149;
285.3000;0.2377;0.2078;
285.6000;0.2369;0.2054;
285.9000;0.2344;0.2006;
286.2000;0.2336;0.1958;
286.5000;0.2385;0.2102;
286.8000;0.2377;0.2030;
287.1000;0.2377;0.2078;
287.4000;0.2409;0.2078;
287.7000;0.2385;0.2078;
288.0000;0.2377;0.2149;
288.3000;0.2385;0.2149;
288.6000;0.2483;0.2364;
288.9000;0.2377;0.2030;
289.2000;0.2369;0.2006;
289.5000;0.2369;0.1982;
289.8000;0.2377;0.2006;
290.1000;0.2361;0.1887;
290.4000;0.2377;0.1839;
290.7000;0.2401;0.1958;
291.0000;0.2393;0.1934;
291.3000;0.2409;0.1982;
291.6000;0.2385;0.1982;
291.9000;0.2507;0.2293;
292.2000;0.2385;0.2006;
292.5000;0.2385;0.2030;
292.8000;0.2369;0.2006;
293.1000;0.2491;0.2364;
293.4000;0.2377;0.2102;
293.7000;0.2377;0.2149;
294.0000;0.2377;0.2149;
294.3000;0.2369;0.2078;
294.6000;0.2344;0.2102;
294.9000;0.2304;0.1982;
295.2000;0.2369;0.2149;
295.5000;0.2369;0.2197;
295.8000;0.2369;0.2126;
296.1000;0.2409;0.2221;
296.4000;0.2369;0.2149;
296.7000;0.2255;0.1911;
297.0000;0.2450;0.2412;
297.3000;0.2434;0.2340;
297.6000;0.2393;0.2149;
297.9000;0.2377;0.2030;
298.2000;0.2369;0.2006;
298.5000;0.2369;0.2006;
298.8000;0.2393;0.2054;
299.1000;0.2377;0.2078;
299.4000;0.2377;0.2149;
299.7000;0.2393;0.2126;
300.0000;0.2369;0.1982;
300.3000;0.2385;0.2173;
300.6000;0.2369;0.2054;
300.9000;0.2369;0.2030;
301.2000;0.2377;0.1982;
301.5000;0.2491;0.2197;
301.8000;0.2336;0.1863;
302.1000;0.2361;0.1958;
302.4000;0.2393;0.1958;
302.7000;0.2401;0.1911;
303.0000;0.2377;0.1863;
303.3000;0.2369;0.1863;
303.6000;0.2369;0.1887;
303.9000;0.2401;0.1982;
304.2000;0.2328;0.1791;
304.5000;0.2393;0.1958;
304.8000;0.2377;0.1934;
305.1000;0.2409;0.2078;
305.4000;0.2344;0.2030;
305.7000;0.2369;0.2102;
306.0000;0.2361;0.2030;
306.3000;0.2369;0.1982;
306.6000;0.2385;0.1982;
306.9000;0.2361;0.1958;
307.2000;0.2377;0.1982;
307.5000;0.2369;0.2006;
307.8000;0.2377;0.1982;
308.1000;0.2369;0.1982;
308.4000;0.2361;0.1887;
308.7000;0.2369;0.1863;
309.0000;0.2385;0.1815;
309.3000;0.2393;0.1839;
309.6000;0.2361;0.1791;
309.9000;0.2361;0.1791;
310.2000;0.2377;0.1743;
310.5000;0.2385;0.1743;
310.8000;0.2361;0.1815;
311.1000;0.2352;0.1839;
311.4000;0.2320;0.1743;
311.7000;0.2377;0.1863;
312.0000;0.2361;0.1815;
312.3000;0.2377;0.1839;
312.6000;0.2393;0.1815;
312.9000;0.2385;0.1863;
313.2000;0.2385;0.1887;
313.5000;0.2377;0.1839;
313.8000;0.2377;0.1911;
314.1000;0.2377;0.1887;
314.4000;0.2385;0.1911;
314.7000;0.2385;0.1887;
315.0000;0.2377;0.1839;
315.3000;0.2393;0.1887;
315.6000;0.2361;0.1863;
315.9000;0.2393;0.1958;
316.2000;0.2377;0.1839;
316.5000;0.2409;0.1887;
316.8000;0.2295;0.1576;
317.1000;0.2393;0.1863;
317.4000;0.2352;0.1791;
317.7000;0.2393;0.1887;
318.0000;0.2385;0.1887;
318.3000;0.2418;0.2030;
318.6000;0.2336;0.1791;
318.9000;0.2401;0.1958;
319.2000;0.2377;0.1911;
319.5000;0.2401;0.1982;
319.8000;0.2385;0.1887;
320.1000;0.2401;0.1887;
320.4000;0.2385;0.1887;
320.7000;0.2377;0.1934;
321.0000;0.2352;0.1815;
321.3000;0.2361;0.1767;
321.6000;0.2450;0.1982;
321.9000;0.2393;0.1911;
322.2000;0.2377;0.1887;
322.5000;0.2377;0.1911;
322.8000;0.2369;0.1863;
323.1000;0.2385;0.1887;
323.4000;0.2377;0.1911;
323.7000;0.2361;0.1863;
324.0000;0.2385;0.1911;
324.3000;0.2401;0.1911;
324.6000;0.2377;0.1863;
324.9000;0.2361;0.1791;
325.2000;0.2369;0.1791;
325.5000;0.2352;0.1791;
325.8000;0.2377;0.1743;
326.1000;0.2401;0.1863;
326.4000;0.2377;0.1791;
326.7000;0.2361;0.1743;
327.0000;0.2401;0.1791;
327.3000;0.2377;0.1815;
327.6000;0.2385;0.1839;
327.9000;0.2369;0.1839;
328.2000;0.2287;0.1696;
328.5000;0.2369;0.1911;
328.8000;0.2377;0.1887;
329.1000;0.2369;0.1958;
329.4000;0.2377;0.1958;
329.7000;0.2401;0.2030;
330.0000;0.2385;0.2006;
330.3000;0.2385;0.1863;
330.6000;0.2377;0.1958;
330.9000;0.2369;0.1934;
331.2000;0.2352;0.1911;
331.5000;0.2426;0.2006;
331.8000;0.2377;0.1863;
332.1000;0.2434;0.2054;
332.4000;0.2385;0.1934;
332.7000;0.2377;0.1982;
333.0000;0.2361;0.1911;
333.3000;0.2369;0.1934;
333.6000;0.2369;0.1911;
333.9000;0.2377;0.1863;
334.2000;0.2377;0.1791;
334.5000;0.2361;0.1767;
334.8000;0.2377;0.1791;
335.1000;0.2352;0.1815;
335.4000;0.2385;0.1958;
335.7000;0.2385;0.1982;
336.0000;0.2548;0.2293;
336.3000;0.2377;0.1958;
336.6000;0.2312;0.1815;
336.9000;0.2336;0.1863;
337.2000;0.2393;0.1982;
337.5000;0.2361;0.2006;
337.8000;0.2393;0.2054;
338.1000;0.2369;0.2006;
338.4000;0.2393;0.2126;
338.7000;0.2369;0.2102;
339.0000;0.2385;0.2126;
339.3000;0.2385;0.2149;
339.6000;0.2377;0.2102;
339.9000;0.2418;0.2126;
340.2000;0.2369;0.1958;
340.5000;0.2515;0.2364;
340.8000;0.2369;0.2102;
341.1000;0.2377;0.2102;
341.4000;0.2377;0.2006;
341.7000;0.2385;0.2006;
342.0000;0.2377;0.2102;
342.3000;0.2393;0.2173;
342.6000;0.2263;0.1791;
342.9000;0.2377;0.2054;
343.2000;0.2377;0.2054;
343.5000;0.2287;0.1887;
343.8000;0.2450;0.2293;
344.1000;0.2377;0.2102;
344.4000;0.2393;0.2078;
344.7000;0.2361;0.2030;
345.0000;0.2377;0.2102;
345.3000;0.2377;0.2078;
345.6000;0.2328;0.1958;
345.9000;0.2401;0.2126;
346.2000;0.2369;0.2030;
346.5000;0.2393;0.2054;
346.8000;0.2377;0.2006;
347.1000;0.2377;0.2006;
347.4000;0.2377;0.1982;
347.7000;0.2377;0.1887;
348.0000;0.2369;0.1767;
348.3000;0.2369;0.1815;
348.6000;0.2377;0.1887;
348.9000;0.2385;0.1887;
349.2000;0.2401;0.1911;
349.5000;0.2393;0.1839;
349.8000;0.2385;0.1863;
350.1000;0.2393;0.1911;
350.4000;0.2369;0.1887;
350.7000;0.2352;0.1887;
351.0000;0.2385;0.1839;
351.3000;0.2271;0.1624;
351.6000;0.2377;0.1911;
351.9000;0.2369;0.1863;
352.2000;0.2385;0.1887;
352.5000;0.2385;0.1911;
352.8000;0.2369;0.1934;
353.1000;0.2377;0.1958;
353.4000;0.2377;0.1934;
353.7000;0.2385;0.1982;
354.0000;0.2385;0.1958;
354.3000;0.2401;0.2030;
354.6000;0.2393;0.1982;
354.9000;0.2377;0.2054;
355.2000;0.2344;0.2078;
355.5000;0.2361;0.2102;
355.8000;0.2369;0.2078;
356.1000;0.2401;0.2078;
356.4000;0.2352;0.1982;
356.7000;0.2361;0.2078;
357.0000;0.2369;0.2126;
357.3000;0.2377;0.2173;
357.6000;0.2385;0.2126;
357.9000;0.2377;0.2126;
358.2000;0.2320;0.1887;
358.5000;0.2328;0.1982;
358.8000;0.2377;0.2078;
359.1000;0.2393;0.2078;
359.4000;0.2483;0.2269;
359.7000;0.2507;0.2221;
360.0000;0.2377;0.1791;
360.3000;0.2385;0.1767;
360.6000;0.2377;0.1887;
360.9000;0.2458;0.2078;
361.2000;0.2377;0.1815;
361.5000;0.2377;0.1911;
361.8000;0.2377;0.1958;
362.1000;0.2369;0.2054;
362.4000;0.2385;0.2054;
362.7000;0.2401;0.2078;
363.0000;0.2369;0.2078;
363.3000;0.2393;0.2078;
363.6000;0.2377;0.2126;
363.9000;0.2385;0.2102;
364.2000;0.2393;0.2149;
364.5000;0.2377;0.2102;
364.8000;0.2377;0.2126;
365.1000;0.2369;0.2006;
365.4000;0.2393;0.2054;
365.7000;0.2295;0.1815;
366.0000;0.2369;0.1934;
366.3000;0.2369;0.1887;
366.6000;0.2369;0.1839;
366.9000;0.2385;0.1958;
367.2000;0.2377;0.1887;
367.5000;0.2377;0.1887;
367.8000;0.2361;0.1839;
368.1000;0.2369;0.1911;
368.4000;0.2369;0.1911;
368.7000;0.2361;0.1934;
369.0000;0.2377;0.1958;
369.3000;0.2369;0.1934;
369.6000;0.2369;0.1911;
369.9000;0.2393;0.1958;
370.2000;0.2377;0.1958;
370.5000;0.2385;0.1958;
370.8000;0.2385;0.1911;
371.1000;0.2361;0.1863;
371.4000;0.2377;0.1863;
371.7000;0.2385;0.1839;
372.0000;0.2385;0.1791;
372.3000;0.2393;0.1863;
372.6000;0.2385;0.1767;
372.9000;0.2377;0.1743;
373.2000;0.2361;0.1696;
373.5000;0.2361;0.1743;
373.8000;0.2377;0.1743;
374.1000;0.2320;0.1720;
374.4000;0.2361;0.1887;
374.7000;0.2369;0.1958;
375.0000;0.2361;0.1911;
375.3000;0.2369;0.1815;
375.6000;0.2377;0.1839;
375.9000;0.2377;0.1887;
376.2000;0.2369;0.1839;
376.5000;0.2369;0.1791;
376.8000;0.2385;0.1743;
377.1000;0.2377;0.1743;
377.4000;0.2369;0.1767;
377.7000;0.2385;0.1863;
378.0000;0.2369;0.1911;
378.3000;0.2344;0.1839;
378.6000;0.2352;0.1863;
378.9000;0.2385;0.1815;
379.2000;0.2385;0.1911;
379.5000;0.2393;0.1887;
379.8000;0.2385;0.1743;
380.1000;0.2377;0.1672;
380.4000;0.2336;0.1552;
380.7000;0.2401;0.1696;
381.0000;0.2377;0.1672;
381.3000;0.2377;0.1767;
381.6000;0.2393;0.1767;
381.9000;0.2401;0.1839;
382.2000;0.2377;0.1863;
382.5000;0.2369;0.1839;
382.8000;0.2442;0.2030;
383.1000;0.2361;0.1743;
383.4000;0.2385;0.1887;
383.7000;0.2409;0.1911;
384.0000;0.2369;0.1863;
384.3000;0.2409;0.1934;
384.6000;0.2434;0.2006;
384.9000;0.2377;0.1791;
385.2000;0.2377;0.1743;
385.5000;0.2377;0.1743;
385.8000;0.2279;0.1552;
386.1000;0.2361;0.1887;
386.4000;0.2361;0.1934;
386.7000;0.2377;0.1911;
387.0000;0.2369;0.1911;
387.3000;0.2369;0.1934;
387.6000;0.2377;0.1934;
387.9000;0.2442;0.2030;
388.2000;0.2352;0.1815;
388.5000;0.2377;0.1887;
388.8000;0.2377;0.1911;
389.1000;0.2442;0.2078;
389.4000;0.2385;0.1958;
389.7000;0.2377;0.2006;
390.0000;0.2385;0.2030;
390.3000;0.2377;0.2006;
390.6000;0.2377;0.1982;
390.9000;0.2385;0.1982;
391.2000;0.2377;0.1934;
391.5000;0.2377;0.1934;
391.8000;0.2377;0.2054;
392.1000;0.2377;0.1982;
392.4000;0.2361;0.1982;
392.7000;0.2369;0.1958;
393.0000;0.2279;0.1696;
393.3000;0.2271;0.1624;
393.6000;0.2369;0.1863;
393.9000;0.2377;0.1958;
394.2000;0.2377;0.1934;
394.5000;0.2393;0.1982;
394.8000;0.2385;0.1982;
395.1000;0.2442;0.2221;
395.4000;0.2361;0.2030;
395.7000;0.2385;0.1982;
396.0000;0.2385;0.2030;
396.3000;0.2401;0.2006;
396.6000;0.2361;0.1863;
396.9000;0.2352;0.1863;
397.2000;0.2361;0.1839;
397.5000;0.2377;0.1911;
397.8000;0.2385;0.1863;
398.1000;0.2369;0.1839;
398.4000;0.2377;0.1863;
398.7000;0.2377;0.1791;
399.0000;0.2361;0.1815;
399.3000;0.2369;0.1815;
399.6000;0.2369;0.1767;
399.9000;0.2377;0.1815;
400.2000;0.2385;0.1863;
400.5000;0.2377;0.1863;
400.8000;0.2377;0.1839;
401.1000;0.2377;0.1911;
401.4000;0.2369;0.1982;
401.7000;0.2393;0.2149;
402.0000;0.2393;0.2245;
402.3000;0.2377;0.2102;
402.6000;0.2377;0.2078;
402.9000;0.2361;0.1958;
403.2000;0.2409;0.2149;
403.5000;0.2393;0.2102;
403.8000;0.2369;0.2054;
404.1000;0.2385;0.2078;
404.4000;0.2450;0.2245;
404.7000;0.2361;0.1982;
405.0000;0.2369;0.1958;
405.3000;0.2377;0.1958;
405.6000;0.2385;0.2030;
405.9000;0.2393;0.1982;
406.2000;0.2369;0.1982;
406.5000;0.2377;0.2078;
406.8000;0.2361;0.2006;
407.1000;0.2361;0.2006;
407.4000;0.2385;0.2078;
407.7000;0.2393;0.2078;
408.0000;0.2385;0.2030;
408.3000;0.2361;0.2030;
408.6000;0.2385;0.2078;
408.9000;0.2344;0.2054;
409.2000;0.2458;0.2340;
409.5000;0.2442;0.2245;
409.8000;0.2401;0.2197;
410.1000;0.2377;0.2126;
410.4000;0.2466;0.2317;
410.7000;0.2483;0.2340;
411.0000;0.2385;0.2054;
411.3000;0.2295;0.1863;
411.6000;0.2409;0.2197;
411.9000;0.2369;0.2221;
412.2000;0.2393;0.2221;
412.5000;0.2304;0.2006;
412.8000;0.2361;0.2173;
413.1000;0.2344;0.2030;
413.4000;0.2336;0.2006;
413.7000;0.2393;0.2078;
414.0000;0.2385;0.2006;
414.3000;0.2369;0.1863;
414.6000;0.2418;0.1982;
414.9000;0.2418;0.2078;
415.2000;0.2450;0.2126;
415.5000;0.2377;0.1863;
415.8000;0.2344;0.1767;
416.1000;0.2369;0.1863;
416.4000;0.2377;0.1911;
416.7000;0.2393;0.1958;
417.0000;0.2385;0.2030;
417.3000;0.2352;0.1958;
417.6000;0.2377;0.1958;
417.9000;0.2385;0.2006;
418.2000;0.2361;0.1982;
418.5000;0.2385;0.2054;
418.8000;0.2385;0.1958;
419.1000;0.2369;0.2006;
419.4000;0.2361;0.2030;
419.7000;0.2393;0.2006;
420.0000;0.2393;0.1982;
420.3000;0.2401;0.2006;
420.6000;0.2377;0.2006;
420.9000;0.2377;0.1982;
421.2000;0.2377;0.2030;
421.5000;0.2385;0.1982;
421.8000;0.2377;0.1911;
422.1000;0.2377;0.1863;
422.4000;0.2361;0.1815;
422.7000;0.2377;0.1791;
423.0000;0.2369;0.1743;
423.3000;0.2377;0.1743;
423.6000;0.2385;0.1791;
423.9000;0.2369;0.1720;
424.2000;0.2377;0.1839;
424.5000;0.2409;0.1934;
424.8000;0.2352;0.1911;
425.1000;0.2369;0.1958;
425.4000;0.2393;0.2102;
425.7000;0.2377;0.2054;
426.0000;0.2361;0.2006;
426.3000;0.2361;0.1958;
426.6000;0.2385;0.1934;
426.9000;0.2369;0.1911;
427.2000;0.2377;0.1958;
427.5000;0.2361;0.1958;
427.8000;0.2385;0.2030;
428.1000;0.2369;0.2006;
428.4000;0.2401;0.2006;
428.7000;0.2385;0.1934;
429.0000;0.2385;0.1887;
429.3000;0.2418;0.1982;
429.6000;0.2385;0.1839;
429.9000;0.2385;0.1743;
430.2000;0.2369;0.1767;
430.5000;0.2377;0.1791;
430.8000;0.2393;0.1815;
431.1000;0.2369;0.1911;
431.4000;0.2369;0.1863;
431.7000;0.2377;0.1958;
432.0000;0.2377;0.1958;
432.3000;0.2393;0.1911;
432.6000;0.2377;0.1934;
432.9000;0.2393;0.2006;
433.2000;0.2385;0.2006;
433.5000;0.2377;0.1934;
433.8000;0.2377;0.1887;
434.1000;0.2352;0.1791;
434.4000;0.2369;0.1743;
434.7000;0.2418;0.1887;
435.0000;0.2361;0.1648;
435.3000;0.2320;0.1576;
435.6000;0.2377;0.1839;
435.9000;0.2369;0.1911;
436.2000;0.2344;0.1863;
436.5000;0.2361;0.1863;
436.8000;0.2385;0.1911;
437.1000;0.2401;0.1982;
437.4000;0.2352;0.1911;
437.7000;0.2279;0.1648;
438.0000;0.2377;0.1982;
438.3000;0.2369;0.1982;
438.6000;0.2401;0.2078;
438.9000;0.2328;0.1863;
439.2000;0.2377;0.2030;
439.5000;0.2393;0.2102;
439.8000;0.2418;0.2126;
440.1000;0.2385;0.2030;
440.4000;0.2377;0.2054;
440.7000;0.2393;0.1982;
441.0000;0.2401;0.2006;
441.3000;0.2377;0.1958;
441.6000;0.2377;0.1982;
441.9000;0.2426;0.2030;
442.2000;0.2434;0.2078;
442.5000;0.2401;0.1934;
442.8000;0.2401;0.1958;
443.1000;0.2401;0.1934;
443.4000;0.2377;0.1887;
443.7000;0.2369;0.1863;
444.0000;0.2377;0.1911;
444.3000;0.2369;0.1958;
444.6000;0.2385;0.1934;
444.9000;0.2352;0.1934;
445.2000;0.2442;0.2102;
445.5000;0.2377;0.1958;
445.8000;0.2401;0.1958;
446.1000;0.2352;0.1934;
446.4000;0.2385;0.2030;
446.7000;0.2369;0.1982;
447.0000;0.2385;0.2054;
447.3000;0.2369;0.1958;
447.6000;0.2401;0.1911;
447.9000;0.2369;0.1815;
448.2000;0.2344;0.1791;
448.5000;0.2385;0.1982;
448.8000;0.2385;0.1982;
449.1000;0.2385;0.2078;
449.4000;0.2377;0.2173;
449.7000;0.2385;0.2173;
450.0000;0.2369;0.2054;
450.3000;0.2369;0.2030;
450.6000;0.2369;0.2030;
450.9000;0.2377;0.1958;
451.2000;0.2361;0.1934;
451.5000;0.2483;0.2221;
451.8000;0.2377;0.1958;
452.1000;0.2369;0.1958;
452.4000;0.2442;0.2078;
452.7000;0.2385;0.2006;
453.0000;0.2352;0.1982;
453.3000;0.2434;0.2173;
453.6000;0.2401;0.2054;
453.9000;0.2377;0.2078;
454.2000;0.2385;0.2006;
454.5000;0.2393;0.1982;
454.8000;0.2377;0.1791;
455.1000;0.2401;0.1672;
455.4000;0.2361;0.1624;
455.7000;0.2369;0.1624;
456.0000;0.2393;0.1720;
456.3000;0.2393;0.1791;
456.6000;0.2385;0.1839;
456.9000;0.2377;0.1839;
457.2000;0.2393;0.1815;
457.5000;0.2369;0.1815;
457.8000;0.2369;0.1767;
458.1000;0.2369;0.1839;
458.4000;0.2385;0.1934;
458.7000;0.2401;0.2054;
459.0000;0.2401;0.2030;
459.3000;0.2377;0.1887;
459.6000;0.2377;0.1911;
459.9000;0.2458;0.2102;
460.2000;0.2401;0.1887;
460.5000;0.2385;0.1743;
460.8000;0.2458;0.1982;
461.1000;0.2377;0.1720;
461.4000;0.2385;0.1672;
461.7000;0.2352;0.1600;
462.0000;0.2361;0.1552;
462.3000;0.2361;0.1528;
462.6000;0.2385;0.1600;
462.9000;0.2377;0.1576;
463.2000;0.2377;0.1576;
463.5000;0.2377;0.1528;
463.8000;0.2377;0.1600;
464.1000;0.2401;0.1696;
464.4000;0.2361;0.1600;
464.7000;0.2304;0.1505;
465.0000;0.2393;0.1791;
465.3000;0.2377;0.1767;
465.6000;0.2401;0.1815;
465.9000;0.2369;0.1815;
466.2000;0.2499;0.2197;
466.5000;0.2385;0.1743;
466.8000;0.2377;0.1648;
467.1000;0.2271;0.1385;
467.4000;0.2385;0.1624;
467.7000;0.2385;0.1552;
468.0000;0.2369;0.1528;
468.3000;0.2361;0.1481;
468.6000;0.2393;0.1600;
468.9000;0.2385;0.1743;
469.2000;0.2369;0.1767;
469.5000;0.2352;0.1863;
469.8000;0.2361;0.1911;
470.1000;0.2377;0.1982;
470.4000;0.2385;0.2030;
470.7000;0.2361;0.2006;
471.0000;0.2361;0.2054;
471.3000;0.2352;0.1982;
471.6000;0.2377;0.1982;
471.9000;0.2369;0.1934;
472.2000;0.2344;0.1839;
472.5000;0.2434;0.2078;
472.8000;0.2442;0.2173;
473.1000;0.2377;0.2054;
473.4000;0.2352;0.1958;
473.7000;0.2369;0.1934;
474.0000;0.2377;0.1863;
474.3000;0.2377;0.1934;
474.6000;0.2361;0.1887;
474.9000;0.2344;0.1767;
475.2000;0.2377;0.1839;
475.5000;0.2377;0.1815;
475.8000;0.2385;0.1934;
476.1000;0.2393;0.1934;
476.4000;0.2344;0.1791;
476.7000;0.2369;0.1887;
477.0000;0.2312;0.1743;
477.3000;0.2328;0.1911;
477.6000;0.2385;0.2030;
477.9000;0.2385;0.2078;
478.2000;0.2393;0.2126;
478.5000;0.2377;0.2078;
478.8000;0.2385;0.2173;
479.1000;0.2385;0.2126;
479.4000;0.2385;0.2126;
479.7000;0.2361;0.2078;
480.0000;0.2426;0.2173;
480.3000;0.2385;0.2006;
480.6000;0.2361;0.1839;
480.9000;0.2361;0.1720;
481.2000;0.2385;0.1791;
481.5000;0.2385;0.1720;
481.8000;0.2369;0.1743;
482.1000;0.2328;0.1696;
482.4000;0.2352;0.1815;
482.7000;0.2369;0.1887;
483.0000;0.2385;0.1934;
483.3000;0.2369;0.1887;
483.6000;0.2369;0.1911;
483.9000;0.2361;0.1958;
484.2000;0.2393;0.2078;
484.5000;0.2369;0.2102;
484.8000;0.2361;0.2006;
485.1000;0.2377;0.2030;
485.4000;0.2377;0.1982;
485.7000;0.2385;0.2078;
486.0000;0.2361;0.2054;
486.3000;0.2377;0.2149;
486.6000;0.2369;0.2054;
486.9000;0.2385;0.2054;
487.2000;0.2377;0.2126;
487.5000;0.2361;0.2078;
487.8000;0.2352;0.2054;
488.1000;0.2409;0.2221;
488.4000;0.2393;0.2197;
488.7000;0.2369;0.2173;
489.0000;0.2369;0.2221;
489.3000;0.2393;0.2126;
489.6000;0.2377;0.1982;
489.9000;0.2377;0.1982;
490.2000;0.2409;0.1982;
490.5000;0.2369;0.1958;
490.8000;0.2385;0.2030;
491.1000;0.2271;0.1815;
491.4000;0.2352;0.2006;
491.7000;0.2336;0.2006;
492.0000;0.2377;0.1958;
492.3000;0.2361;0.1863;
492.6000;0.2352;0.1887;
492.9000;0.2344;0.1911;
493.2000;0.2369;0.2006;
493.5000;0.2385;0.2102;
493.8000;0.2369;0.1982;
494.1000;0.2450;0.2245;
494.4000;0.2393;0.2078;
494.7000;0.2393;0.2102;
495.0000;0.2369;0.2054;
495.3000;0.2377;0.1982;
495.6000;0.2401;0.2030;
495.9000;0.2393;0.2006;
496.2000;0.2418;0.2054;
496.5000;0.2361;0.1887;
496.8000;0.2369;0.1911;
497.1000;0.2393;0.1958;
497.4000;0.2369;0.2006;
497.7000;0.2369;0.1934;
498.0000;0.2361;0.1958;
498.3000;0.2385;0.1958;
498.6000;0.2295;0.1720;
498.9000;0.2393;0.1863;
499.2000;0.2393;0.1791;
499.5000;0.2393;0.1791;
499.8000;0.2401;0.1863;
500.1000;0.2369;0.1767;
500.4000;0.2352;0.1767;
500.7000;0.2328;0.1720;
501.0000;0.2385;0.1887;
501.3000;0.2352;0.1791;
501.6000;0.2385;0.1863;
501.9000;0.2385;0.1887;
502.2000;0.2361;0.1934;
502.5000;0.2352;0.1911;
502.8000;0.2409;0.2126;
503.1000;0.2369;0.1982;
503.4000;0.2377;0.1982;
503.7000;0.2279;0.1672;
504.0000;0.2344;0.1815;
504.3000;0.2377;0.1839;
504.6000;0.2369;0.1887;
504.9000;0.2336;0.1791;
505.2000;0.2369;0.1720;
505.5000;0.2361;0.1696;
505.8000;0.2336;0.1648;
506.1000;0.2352;0.1600;
506.4000;0.2369;0.1648;
506.7000;0.2352;0.1720;
507.0000;0.2361;0.1815;
507.3000;0.2377;0.1863;
507.6000;0.2369;0.1863;
507.9000;0.2369;0.1839;
508.2000;0.2377;0.1911;
508.5000;0.2369;0.1982;
508.8000;0.2385;0.2030;
509.1000;0.2352;0.2006;
509.4000;0.2385;0.2030;
509.7000;0.2369;0.1911;
510.0000;0.2385;0.1958;
510.3000;0.2361;0.1887;
510.6000;0.2344;0.1887;
510.9000;0.2401;0.1982;
511.2000;0.2385;0.1982;
511.5000;0.2377;0.1958;
511.8000;0.2230;0.1576;
512.1000;0.2377;0.1934;
512.4000;0.2361;0.1958;
512.7000;0.2377;0.2030;
513.0000;0.2352;0.2006;
513.3000;0.2385;0.2054;
513.6000;0.2393;0.1958;
513.9000;0.2369;0.1958;
514.2000;0.2320;0.1839;
514.5000;0.2369;0.1982;
514.8000;0.2458;0.2197;
515.1000;0.2385;0.2078;
515.4000;0.2369;0.2006;
515.7000;0.2361;0.2006;
516.0000;0.2393;0.1982;
516.3000;0.2369;0.1863;
516.6000;0.2361;0.1791;
516.9000;0.2434;0.1958;
517.2000;0.2369;0.1839;
517.5000;0.2369;0.1887;
517.8000;0.2377;0.1887;
518.1000;0.2361;0.1863;
518.4000;0.2369;0.1934;
518.7000;0.2377;0.1934;
519.0000;0.2442;0.2102;
519.3000;0.2361;0.1863;
519.6000;0.2377;0.1815;
519.9000;0.2369;0.1791;
520.2000;0.2393;0.1863;
520.5000;0.2369;0.1791;
520.8000;0.2377;0.1839;
521.1000;0.2369;0.1958;
521.4000;0.2385;0.1887;
521.7000;0.2361;0.1815;
522.0000;0.2361;0.1696;
522.3000;0.2434;0.1887;
522.6000;0.2385;0.1791;
522.9000;0.2361;0.1839;
523.2000;0.2361;0.1815;
523.5000;0.2369;0.1815;
523.8000;0.2369;0.1863;
524.1000;0.2377;0.1958;
524.4000;0.2393;0.2006;
524.7000;0.2361;0.1958;
525.0000;0.2377;0.1934;
525.3000;0.2450;0.2126;
525.6000;0.2377;0.1887;
525.9000;0.2385;0.1815;
526.2000;0.2361;0.1720;
526.5000;0.2352;0.1720;
526.8000;0.2377;0.1767;
527.1000;0.2369;0.1839;
527.4000;0.2361;0.1911;
527.7000;0.2369;0.1934;
528.0000;0.2328;0.1911;
528.3000;0.2344;0.1934;
528.6000;0.2271;0.1720;
528.9000;0.2385;0.1982;
529.2000;0.2409;0.1958;
529.5000;0.2344;0.1863;
529.8000;0.2385;0.1887;
530.1000;0.2385;0.1911;
530.4000;0.2377;0.1815;
530.7000;0.2540;0.2388;
531.0000;0.2377;0.1934;
531.3000;0.2385;0.1934;
531.6000;0.2401;0.1934;
531.9000;0.2377;0.1934;
532.2000;0.2377;0.2006;
532.5000;0.2352;0.1982;
532.8000;0.2377;0.1934;
533.1000;0.2409;0.2054;
533.4000;0.2369;0.2054;
533.7000;0.2344;0.1911;
534.0000;0.2385;0.1958;
534.3000;0.2369;0.1934;
534.6000;0.2377;0.1887;
534.9000;0.2401;0.1982;
535.2000;0.2377;0.1839;
535.5000;0.2385;0.1815;
535.8000;0.2369;0.1815;
536.1000;0.2369;0.1863;
536.4000;0.2369;0.1934;
536.7000;0.2361;0.1887;
537.0000;0.2352;0.1839;
537.3000;0.2377;0.1934;
537.6000;0.2369;0.1934;
537.9000;0.2361;0.1958;
538.2000;0.2344;0.1958;
538.5000;0.2369;0.1887;
538.8000;0.2361;0.1839;
539.1000;0.2369;0.1791;
539.4000;0.2361;0.1767;
539.7000;0.2369;0.1743;
540.0000;0.2369;0.1791;
540.3000;0.2369;0.1839;
540.6000;0.2361;0.1767;
540.9000;0.2377;0.1720;
541.2000;0.2377;0.1791;
541.5000;0.2369;0.1863;
541.8000;0.2393;0.1958;
542.1000;0.2352;0.1887;
542.4000;0.2450;0.2173;
542.7000;0.2352;0.1911;
543.0000;0.2377;0.1982;
543.3000;0.2320;0.1863;
543.6000;0.2352;0.1958;
543.9000;0.2361;0.1911;
544.2000;0.2401;0.2006;
544.5000;0.2377;0.2006;
544.8000;0.2344;0.1839;
545.1000;0.2385;0.1934;
545.4000;0.2393;0.1887;
545.7000;0.2377;0.1839;
546.0000;0.2312;0.1672;
546.3000;0.2361;0.1767;
546.6000;0.2385;0.1743;
546.9000;0.2401;0.1720;
547.2000;0.2442;0.1934;
547.5000;0.2361;0.1815;
547.8000;0.2418;0.1958;
548.1000;0.2377;0.1815;
548.4000;0.2377;0.1863;
548.7000;0.2352;0.1815;
549.0000;0.2369;0.1839;
549.3000;0.2450;0.2030;
549.6000;0.2499;0.2078;
549.9000;0.2361;0.1767;
550.2000;0.2352;0.1624;
550.5000;0.2377;0.1576;
550.8000;0.2377;0.1672;
551.1000;0.2369;0.1720;
551.4000;0.2369;0.1696;
551.7000;0.2385;0.1743;
552.0000;0.2352;0.1767;
552.3000;0.2385;0.1863;
552.6000;0.2369;0.1791;
552.9000;0.2385;0.1815;
553.2000;0.2361;0.1767;
553.5000;0.2352;0.1696;
553.8000;0.2361;0.1767;
554.1000;0.2361;0.1696;
554.4000;0.2352;0.1696;
554.7000;0.2295;0.1600;
555.0000;0.2393;0.1815;
555.3000;0.2361;0.1839;
555.6000;0.2393;0.1911;
555.9000;0.2385;0.1887;
556.2000;0.2393;0.1815;
556.5000;0.2369;0.1767;
556.8000;0.2352;0.1815;
557.1000;0.2401;0.1911;
557.4000;0.2369;0.1863;
557.7000;0.2426;0.2078;
558.0000;0.2377;0.1911;
558.3000;0.2385;0.1958;
558.6000;0.2377;0.1958;
558.9000;0.2369;0.1958;
559.2000;0.2377;0.2030;
559.5000;0.2369;0.1982;
559.8000;0.2466;0.2197;
560.1000;0.2385;0.1887;
560.4000;0.2320;0.1720;
560.7000;0.2377;0.1911;
561.0000;0.2352;0.1863;
561.3000;0.2377;0.1815;
561.6000;0.2361;0.1743;
561.9000;0.2401;0.1815;
562.2000;0.2312;0.1600;
562.5000;0.2361;0.1815;
562.8000;0.2361;0.1911;
563.1000;0.2361;0.1911;
563.4000;0.2401;0.2030;
563.7000;0.2361;0.1982;
564.0000;0.2369;0.1982;
564.3000;0.2361;0.1934;
564.6000;0.2361;0.1887;
564.9000;0.2352;0.1934;
565.2000;0.2361;0.1982;
565.5000;0.2369;0.2006;
565.8000;0.2352;0.1982;
566.1000;0.2328;0.1887;
566.4000;0.2287;0.1839;
566.7000;0.2401;0.2126;
567.0000;0.2418;0.2245;
567.3000;0.2426;0.2221;
567.6000;0.2377;0.2102;
567.9000;0.2385;0.2054;
568.2000;0.2369;0.2006;
568.5000;0.2377;0.2030;
568.8000;0.2385;0.2006;
569.1000;0.2369;0.1839;
569.4000;0.2352;0.1720;
569.7000;0.2377;0.1863;
570.0000;0.2377;0.1839;
570.3000;0.2393;0.1767;
570.6000;0.2361;0.1767;
570.9000;0.2352;0.1743;
571.2000;0.2369;0.1743;
571.5000;0.2361;0.1791;
571.8000;0.2377;0.1839;
572.1000;0.2369;0.1767;
572.4000;0.2361;0.1720;
572.7000;0.2385;0.1839;
573.0000;0.2361;0.1720;
573.3000;0.2377;0.1743;
573.6000;0.2361;0.1648;
573.9000;0.2393;0.1720;
574.2000;0.2352;0.1696;
574.5000;0.2377;0.1815;
574.8000;0.2369;0.1863;
575.1000;0.2361;0.2006;
575.4000;0.2369;0.1982;
575.7000;0.2434;0.2126;
576.0000;0.2295;0.1839;
576.3000;0.2377;0.2054;
576.6000;0.2369;0.2006;
576.9000;0.2393;0.2126;
577.2000;0.2377;0.2149;
577.5000;0.2393;0.2197;
577.8000;0.2377;0.2173;
578.1000;0.2361;0.2149;
578.4000;0.2344;0.2126;
578.7000;0.2377;0.2221;
579.0000;0.2352;0.2126;
579.3000;0.2361;0.2102;
579.6000;0.2377;0.2126;
579.9000;0.2312;0.1934;
580.2000;0.2369;0.1911;
580.5000;0.2352;0.1791;
580.8000;0.2352;0.1791;
581.1000;0.2369;0.1767;
581.4000;0.2377;0.1863;
581.7000;0.2352;0.1791;
582.0000;0.2369;0.1815;
582.3000;0.2344;0.1839;
582.6000;0.2369;0.1934;
582.9000;0.2385;0.2030;
583.2000;0.2312;0.1887;
583.5000;0.2377;0.1982;
583.8000;0.2361;0.1958;
584.1000;0.2263;0.1528;
584.4000;0.2385;0.1791;
584.7000;0.2361;0.1815;
585.0000;0.2369;0.1887;
585.3000;0.2255;0.1672;
585.6000;0.2369;0.1911;
585.9000;0.2336;0.1815;
586.2000;0.2361;0.1863;
586.5000;0.2385;0.1887;
586.8000;0.2369;0.1863;
587.1000;0.2377;0.1934;
587.4000;0.2377;0.1934;
587.7000;0.2385;0.1982;
588.0000;0.2369;0.1982;
588.3000;0.2352;0.2006;
588.6000;0.2361;0.1958;
588.9000;0.2361;0.2006;
589.2000;0.2377;0.2126;
589.5000;0.2369;0.2030;
589.8000;0.2393;0.2078;
590.1000;0.2361;0.2054;
590.4000;0.2361;0.1911;
590.7000;0.2369;0.1934;
591.0000;0.2352;0.1815;
591.3000;0.2385;0.1839;
591.6000;0.2369;0.1815;
591.9000;0.2377;0.1839;
592.2000;0.2385;0.1791;
592.5000;0.2344;0.1743;
592.8000;0.2377;0.1839;
593.1000;0.2352;0.1743;
593.4000;0.2369;0.1767;
593.7000;0.2369;0.1815;
594.0000;0.2377;0.1767;
594.3000;0.2369;0.1791;
594.6000;0.2369;0.1815;
594.9000;0.2418;0.2006;
595.2000;0.2352;0.1791;
595.5000;0.2377;0.1863;
595.8000;0.2361;0.1911;
596.1000;0.2352;0.1839;
596.4000;0.2385;0.2006;
596.7000;0.2377;0.2030;
597.0000;0.2385;0.1982;
597.3000;0.2344;0.1887;
597.6000;0.2361;0.1934;
597.9000;0.2312;0.1791;
598.2000;0.2401;0.1958;
598.5000;0.2344;0.1839;
598.8000;0.2352;0.1839;
599.1000;0.2361;0.1839;
599.4000;0.2369;0.1791;
599.7000;0.2352;0.1720;
600.0000;0.2377;0.1791;
600.3000;0.2361;0.1720;
600.6000;0.2320;0.1528;
600.9000;0.2377;0.1600;
601.2000;0.2369;0.1528;
601.5000;0.2336;0.1409;
601.8000;0.2409;0.1600;
602.1000;0.2369;0.1528;
602.4000;0.2361;0.1457;
602.7000;0.2385;0.1552;
603.0000;0.2361;0.1433;
603.3000;0.2385;0.1481;
603.6000;0.2377;0.1433;
603.9000;0.2369;0.1385;
604.2000;0.2344;0.1266;
604.5000;0.2393;0.1170;
604.8000;0.2409;0.1218;
605.1000;0.2393;0.1194;
605.4000;0.2418;0.1290;
605.7000;0.2385;0.1194;
606.0000;0.2377;0.1122;
606.3000;0.2304;0.0955;
606.6000;0.2385;0.1075;
606.9000;0.2393;0.1075;
607.2000;0.2385;0.1051;
607.5000;0.2369;0.0979;
607.8000;0.2369;0.1027;
608.1000;0.2352;0.1003;
608.4000;0.2385;0.1146;
608.7000;0.2385;0.1146;
609.0000;0.2377;0.1099;
609.3000;0.2393;0.1051;
609.6000;0.2385;0.1099;
609.9000;0.2369;0.0931;
610.2000;0.2401;0.0884;
610.5000;0.2385;0.0884;
610.8000;0.2385;0.0908;
611.1000;0.2377;0.0931;
611.4000;0.2369;0.0908;
611.7000;0.2393;0.0955;
612.0000;0.2369;0.0955;
612.3000;0.2393;0.0979;
612.6000;0.2352;0.0955;
612.9000;0.2377;0.0955;
613.2000;0.2377;0.1051;
613.5000;0.2393;0.1075;
613.8000;0.2401;0.1122;
614.1000;0.2369;0.1075;
614.4000;0.2369;0.1075;
614.7000;0.2385;0.1027;
615.0000;0.2377;0.0979;
615.3000;0.2385;0.0979;
615.6000;0.2393;0.0979;
615.9000;0.2377;0.1003;
616.2000;0.2377;0.1075;
616.5000;0.2434;0.1290;
616.8000;0.2385;0.1146;
617.1000;0.2418;0.1242;
617.4000;0.2393;0.1122;
617.7000;0.2385;0.1099;
618.0000;0.2466;0.1337;
618.3000;0.2401;0.1146;
618.6000;0.2409;0.1170;
618.9000;0.2385;0.1194;
619.2000;0.2385;0.1194;
619.5000;0.2352;0.1075;
619.8000;0.2385;0.1099;
620.1000;0.2377;0.1099;
620.4000;0.2369;0.1027;
620.7000;0.2450;0.1242;
621.0000;0.2401;0.1099;
621.3000;0.2369;0.0979;
621.6000;0.2377;0.0979;
621.9000;0.2361;0.0931;
622.2000;0.2385;0.1027;
622.5000;0.2377;0.1075;
622.8000;0.2385;0.1075;
623.1000;0.2385;0.1003;
623.4000;0.2393;0.1051;
623.7000;0.2361;0.0955;
624.0000;0.2377;0.0908;
624.3000;0.2385;0.1003;
624.6000;0.2401;0.1003;
624.9000;0.2377;0.1003;
625.2000;0.2385;0.1003;
625.5000;0.2369;0.1027;
625.8000;0.2369;0.1051;
626.1000;0.2369;0.1003;
626.4000;0.2385;0.1051;
626.7000;0.2393;0.1027;
627.0000;0.2361;0.1027;
627.3000;0.2393;0.1099;
627.6000;0.2361;0.1075;
627.9000;0.2401;0.1146;
628.2000;0.2377;0.1146;
628.5000;0.2393;0.1146;
628.8000;0.2385;0.1075;
629.1000;0.2393;0.1075;
629.4000;0.2369;0.1003;
629.7000;0.2409;0.1027;
630.0000;0.2401;0.1075;
630.3000;0.2466;0.1218;
630.6000;0.2369;0.1051;
630.9000;0.2393;0.1146;
631.2000;0.2385;0.1051;
631.5000;0.2401;0.1146;
631.8000;0.2393;0.1122;
632.1000;0.2369;0.1051;
632.4000;0.2385;0.1122;
632.7000;0.2377;0.1075;
633.0000;0.2409;0.1146;
633.3000;0.2328;0.0979;
633.6000;0.2352;0.1027;
633.9000;0.2385;0.1122;
634.2000;0.2385;0.1075;
634.5000;0.2393;0.1075;
634.8000;0.2393;0.1051;
635.1000;0.2369;0.0955;
635.4000;0.2352;0.0931;
635.7000;0.2369;0.1099;
636.0000;0.2385;0.1194;
636.3000;0.2385;0.1242;
636.6000;0.2401;0.1290;
636.9000;0.2377;0.1194;
637.2000;0.2377;0.1266;
637.5000;0.2377;0.1194;
637.8000;0.2393;0.1242;
638.1000;0.2377;0.1218;
638.4000;0.2458;0.1385;
638.7000;0.2393;0.1194;
639.0000;0.2393;0.1146;
639.3000;0.2409;0.1075;
639.6000;0.2466;0.1194;
639.9000;0.2393;0.1099;
640.2000;0.2401;0.1099;
640.5000;0.2401;0.1122;
640.8000;0.2401;0.1146;
641.1000;0.2385;0.1146;
641.4000;0.2426;0.1290;
641.7000;0.2393;0.1194;
642.0000;0.2385;0.1170;
642.3000;0.2418;0.1290;
642.6000;0.2409;0.1194;
642.9000;0.2377;0.1146;
643.2000;0.2377;0.1218;
643.5000;0.2295;0.1027;
643.8000;0.2385;0.1218;
644.1000;0.2320;0.0955;
644.4000;0.2377;0.1242;
644.7000;0.2393;0.1361;
645.0000;0.2393;0.1361;
645.3000;0.2385;0.1409;
645.6000;0.2377;0.1290;
645.9000;0.2377;0.1361;
646.2000;0.2409;0.1385;
646.5000;0.2385;0.1337;
646.8000;0.2385;0.1337;
647.1000;0.2361;0.1242;
647.4000;0.2401;0.1290;
647.7000;0.2352;0.1242;
648.0000;0.2344;0.1266;
648.3000;0.2385;0.1337;
648.6000;0.2393;0.1361;
648.9000;0.2393;0.1361;
649.2000;0.2377;0.1314;
649.5000;0.2393;0.1194;
649.8000;0.2385;0.1146;
650.1000;0.2385;0.1218;
650.4000;0.2409;0.1290;
650.7000;0.2385;0.1194;
651.0000;0.2385;0.1146;
651.3000;0.2418;0.1290;
651.6000;0.2385;0.1266;
651.9000;0.2385;0.1290;
652.2000;0.2385;0.1290;
652.5000;0.2344;0.1170;
652.8000;0.2369;0.1122;
653.1000;0.2377;0.1122;
653.4000;0.2442;0.1266;
653.7000;0.2393;0.1194;
654.0000;0.2385;0.1218;
654.3000;0.2393;0.1218;
654.6000;0.2393;0.1194;
654.9000;0.2377;0.1122;
655.2000;0.2377;0.1146;
655.5000;0.2401;0.1218;
655.8000;0.2393;0.1170;
656.1000;0.2393;0.1170;
656.4000;0.2377;0.1218;
656.7000;0.2385;0.1242;
657.0000;0.2385;0.1290;
657.3000;0.2336;0.1194;
657.6000;0.2377;0.1218;
657.9000;0.2393;0.1385;
658.2000;0.2377;0.1266;
658.5000;0.2377;0.1314;
658.8000;0.2312;0.1170;
659.1000;0.2369;0.1337;
659.4000;0.2352;0.1266;
659.7000;0.2426;0.1433;
660.0000;0.2385;0.1266;
660.3000;0.2418;0.1290;
660.6000;0.2344;0.1146;
660.9000;0.2393;0.1242;
661.2000;0.2369;0.1170;
661.5000;0.2369;0.1218;
661.8000;0.2548;0.1648;
662.1000;0.2385;0.1266;
662.4000;0.2393;0.1242;
662.7000;0.2385;0.1194;
663.0000;0.2393;0.1266;
663.3000;0.2409;0.1361;
663.6000;0.2418;0.1385;
663.9000;0.2377;0.1242;
664.2000;0.2393;0.1170;
664.5000;0.2377;0.1266;
664.8000;0.2393;0.1337;
665.1000;0.2328;0.1146;
665.4000;0.2418;0.1314;
665.7000;0.2409;0.1266;
666.0000;0.2409;0.1218;
666.3000;0.2377;0.1194;
666.6000;0.2418;0.1290;
666.9000;0.2336;0.1003;
667.2000;0.2352;0.1027;
667.5000;0.2377;0.1170;
667.8000;0.2377;0.1146;
668.1000;0.2385;0.1146;
668.4000;0.2409;0.1218;
668.7000;0.2418;0.1242;
669.0000;0.2385;0.1075;
669.3000;0.2393;0.1122;
669.6000;0.2385;0.1075;
669.9000;0.2393;0.1122;
670.2000;0.2385;0.1099;
670.5000;0.2409;0.1218;
670.8000;0.2393;0.1218;
671.1000;0.2385;0.1170;
671.4000;0.2385;0.1170;
671.7000;0.2466;0.1481;
672.0000;0.2385;0.1314;
672.3000;0.2409;0.1409;
672.6000;0.2393;0.1337;
672.9000;0.2385;0.1218;
673.2000;0.2385;0.1242;
673.5000;0.2409;0.1314;
673.8000;0.2409;0.1242;
674.1000;0.2401;0.1099;
674.4000;0.2393;0.1075;
674.7000;0.2393;0.1051;
675.0000;0.2401;0.1003;
675.3000;0.2304;0.0788;
675.6000;0.2385;0.0955;
675.9000;0.2393;0.0979;
676.2000;0.2385;0.1003;
676.5000;0.2377;0.1027;
676.8000;0.2377;0.1051;
677.1000;0.2369;0.0979;
677.4000;0.2377;0.1027;
677.7000;0.2385;0.1051;
678.0000;0.2385;0.1051;
678.3000;0.2385;0.1051;
678.6000;0.2409;0.1122;
678.9000;0.2377;0.1146;
679.2000;0.2385;0.1266;
679.5000;0.2393;0.1218;
679.8000;0.2393;0.1194;
680.1000;0.2377;0.1122;
680.4000;0.2393;0.1170;
680.7000;0.2401;0.1242;
681.0000;0.2385;0.1361;
681.3000;0.2426;0.1457;
681.6000;0.2393;0.1361;
681.9000;0.2393;0.1290;
682.2000;0.2385;0.1194;
682.5000;0.2393;0.1146;
682.8000;0.2409;0.1146;
683.1000;0.2369;0.1027;
683.4000;0.2352;0.1122;
683.7000;0.2352;0.1122;
684.0000;0.2377;0.1170;
684.3000;0.2393;0.1170;
684.6000;0.2352;0.1051;
684.9000;0.2401;0.1218;
685.2000;0.2418;0.1218;
685.5000;0.2393;0.1194;
685.8000;0.2532;0.1600;
686.1000;0.2385;0.1218;
686.4000;0.2336;0.1051;
686.7000;0.2344;0.1051;
687.0000;0.2434;0.1266;
687.3000;0.2409;0.1266;
687.6000;0.2418;0.1290;
687.9000;0.2377;0.1194;
688.2000;0.2361;0.1146;
688.5000;0.2393;0.1242;
688.8000;0.2385;0.1266;
689.1000;0.2418;0.1314;
689.4000;0.2385;0.1218;
689.7000;0.2418;0.1242;
690.0000;0.2393;0.1170;
690.3000;0.2393;0.1122;
690.6000;0.2401;0.1146;
690.9000;0.2377;0.1051;
691.2000;0.2393;0.1146;
691.5000;0.2401;0.1122;
691.8000;0.2393;0.1051;
692.1000;0.2442;0.1218;
692.4000;0.2393;0.1099;
692.7000;0.2295;0.0764;
693.0000;0.2418;0.1122;
693.3000;0.2418;0.1170;
693.6000;0.2466;0.1314;
693.9000;0.2385;0.1170;
694.2000;0.2401;0.1242;
694.5000;0.2393;0.1242;
694.8000;0.2377;0.1122;
695.1000;0.2401;0.1242;
695.4000;0.2409;0.1337;
695.7000;0.2369;0.1170;
696.0000;0.2409;0.1242;
696.3000;0.2409;0.1266;
696.6000;0.2377;0.1146;
696.9000;0.2393;0.1218;
697.2000;0.2336;0.1051;
697.5000;0.2352;0.1027;
697.8000;0.2393;0.1170;
698.1000;0.2304;0.0908;
698.4000;0.2401;0.1194;
698.7000;0.2377;0.1146;
699.0000;0.2393;0.1146;
699.3000;0.2409;0.1146;
699.6000;0.2401;0.1170;
699.9000;0.2401;0.1122;
700.2000;0.2401;0.1170;
700.5000;0.2450;0.1361;
700.8000;0.2393;0.1290;
701.1000;0.2418;0.1457;
701.4000;0.2418;0.1505;
701.7000;0.2409;0.1528;
702.0000;0.2393;0.1505;
702.3000;0.2393;0.1481;
702.6000;0.2401;0.1433;
702.9000;0.2401;0.1314;
703.2000;0.2393;0.1290;
703.5000;0.2401;0.1314;
703.8000;0.2401;0.1314;
704.1000;0.2385;0.1242;
704.4000;0.2377;0.1194;
704.7000;0.2385;0.1218;
705.0000;0.2393;0.1242;
705.3000;0.2409;0.1194;
705.6000;0.2409;0.1170;
705.9000;0.2401;0.1122;
706.2000;0.2393;0.1170;
706.5000;0.2442;0.1242;
706.8000;0.2401;0.1099;
707.1000;0.2393;0.1194;
707.4000;0.2385;0.1170;
707.7000;0.2401;0.1266;
708.0000;0.2385;0.1218;
708.3000;0.2393;0.1242;
708.6000;0.2434;0.1290;
708.9000;0.2385;0.1194;
709.2000;0.2393;0.1218;
709.5000;0.2393;0.1218;
709.8000;0.2393;0.1075;
710.1000;0.2401;0.1051;
710.4000;0.2418;0.1075;
710.7000;0.2401;0.1027;
711.0000;0.2442;0.1099;
711.3000;0.2401;0.1003;
711.6000;0.2401;0.0955;
711.9000;0.2426;0.0979;
712.2000;0.2401;0.0860;
712.5000;0.2361;0.0812;
712.8000;0.2393;0.0955;
713.1000;0.2458;0.1218;
713.4000;0.2393;0.1027;
713.7000;0.2377;0.1051;
714.0000;0.2352;0.1051;
714.3000;0.2385;0.1051;
714.6000;0.2401;0.1051;
714.9000;0.2352;0.1003;
715.2000;0.2393;0.1099;
715.5000;0.2369;0.0979;
715.8000;0.2499;0.1385;
716.1000;0.2401;0.1218;
716.4000;0.2393;0.1122;
716.7000;0.2409;0.1218;
717.0000;0.2401;0.1170;
717.3000;0.2409;0.1122;
717.6000;0.2450;0.1218;
717.9000;0.2401;0.1146;
718.2000;0.2393;0.1146;
718.5000;0.2377;0.1122;
718.8000;0.2377;0.1194;
719.1000;0.2385;0.1218;
719.4000;0.2393;0.1170;
719.7000;0.2377;0.1099;
720.0000;0.2393;0.1242;
720.3000;0.2507;0.1528;
720.6000;0.2385;0.1337;
720.9000;0.2418;0.1385;
721.2000;0.2409;0.1433;
721.5000;0.2393;0.1409;
721.8000;0.2409;0.1385;
722.1000;0.2393;0.1457;
722.4000;0.2393;0.1457;
722.7000;0.2361;0.1337;
723.0000;0.2401;0.1314;
723.3000;0.2385;0.1242;
723.6000;0.2409;0.1266;
723.9000;0.2393;0.1266;
724.2000;0.2450;0.1385;
724.5000;0.2401;0.1337;
724.8000;0.2393;0.1290;
725.1000;0.2401;0.1242;
725.4000;0.2393;0.1194;
725.7000;0.2418;0.1242;
726.0000;0.2385;0.1170;
726.3000;0.2385;0.1194;
726.6000;0.2352;0.1170;
726.9000;0.2393;0.1266;
727.2000;0.2401;0.1146;
727.5000;0.2409;0.1146;
727.8000;0.2385;0.1122;
728.1000;0.2393;0.1146;
728.4000;0.2418;0.1122;
728.7000;0.2393;0.1099;
729.0000;0.2393;0.1051;
729.3000;0.2377;0.1051;
729.6000;0.2393;0.1099;
729.9000;0.2401;0.1122;
730.2000;0.2369;0.1003;
730.5000;0.2377;0.1075;
730.8000;0.2377;0.1099;
731.1000;0.2393;0.1146;
731.4000;0.2295;0.0955;
731.7000;0.2418;0.1242;
732.0000;0.2409;0.1242;
732.3000;0.2418;0.1266;
732.6000;0.2279;0.0931;
732.9000;0.2434;0.1218;
733.2000;0.2401;0.1194;
733.5000;0.2426;0.1361;
733.8000;0.2369;0.1218;
734.1000;0.2418;0.1361;
734.4000;0.2377;0.1361;
734.7000;0.2409;0.1433;
735.0000;0.2426;0.1481;
735.3000;0.2393;0.1361;
735.6000;0.2393;0.1337;
735.9000;0.2328;0.1170;
736.2000;0.2393;0.1385;
736.5000;0.2369;0.1290;
736.8000;0.2401;0.1337;
737.1000;0.2426;0.1409;
737.4000;0.2426;0.1385;
737.7000;0.2361;0.1290;
738.0000;0.2393;0.1361;
738.3000;0.2409;0.1337;
738.6000;0.2401;0.1242;
738.9000;0.2466;0.1385;
739.2000;0.2369;0.1122;
739.5000;0.2385;0.1099;
739.8000;0.2401;0.1170;
740.1000;0.2450;0.1314;
740.4000;0.2377;0.1218;
740.7000;0.2401;0.1266;
741.0000;0.2369;0.1194;
741.3000;0.2377;0.1218;
741.6000;0.2418;0.1218;
741.9000;0.2393;0.1146;
742.2000;0.2393;0.1170;
742.5000;0.2377;0.1170;
742.8000;0.2377;0.1170;
743.1000;0.2377;0.1146;
743.4000;0.2385;0.1146;
743.7000;0.2418;0.1314;
744.0000;0.2401;0.1170;
744.3000;0.2418;0.1266;
744.6000;0.2401;0.1242;
744.9000;0.2385;0.1266;
745.2000;0.2377;0.1218;
745.5000;0.2393;0.1242;
745.8000;0.2393;0.1242;
746.1000;0.2385;0.1266;
746.4000;0.2393;0.1290;
746.7000;0.2401;0.1218;
747.0000;0.2385;0.1122;
747.3000;0.2385;0.1051;
747.6000;0.2401;0.1051;
747.9000;0.2385;0.1027;
748.2000;0.2393;0.1051;
748.5000;0.2385;0.1003;
748.8000;0.2393;0.0979;
749.1000;0.2418;0.1051;
749.4000;0.2450;0.1027;
749.7000;0.2393;0.0931;
750.0000;0.2393;0.1051;
750.3000;0.2409;0.1075;
750.6000;0.2409;0.1051;
750.9000;0.2393;0.1027;
751.2000;0.2393;0.1003;
751.5000;0.2442;0.1146;
751.8000;0.2385;0.1003;
752.1000;0.2393;0.1075;
752.4000;0.2458;0.1194;
752.7000;0.2418;0.1051;
753.0000;0.2401;0.0979;
753.3000;0.2401;0.0955;
753.6000;0.2401;0.0955;
753.9000;0.2409;0.0979;
754.2000;0.2401;0.1003;
754.5000;0.2393;0.1027;
754.8000;0.2377;0.1051;
755.1000;0.2401;0.1099;
755.4000;0.2532;0.1481;
755.7000;0.2409;0.1146;
756.0000;0.2352;0.1003;
756.3000;0.2377;0.1027;
756.6000;0.2361;0.1003;
756.9000;0.2377;0.1122;
757.2000;0.2369;0.1194;
757.5000;0.2385;0.1242;
757.8000;0.2548;0.1600;
758.1000;0.2426;0.1218;
758.4000;0.2409;0.1170;
758.7000;0.2344;0.1027;
759.0000;0.2344;0.0979;
759.3000;0.2385;0.0955;
759.6000;0.2409;0.1003;
759.9000;0.2401;0.1099;
760.2000;0.2385;0.1051;
760.5000;0.2377;0.0931;
760.8000;0.2401;0.0931;
761.1000;0.2393;0.0860;
761.4000;0.2409;0.0955;
761.7000;0.2401;0.0955;
762.0000;0.2401;0.1027;
762.3000;0.2426;0.1051;
762.6000;0.2393;0.1099;
762.9000;0.2393;0.1122;
763.2000;0.2393;0.1194;
763.5000;0.2369;0.1075;
763.8000;0.2393;0.1146;
764.1000;0.2401;0.1194;
764.4000;0.2377;0.1146;
764.7000;0.2377;0.1099;
765.0000;0.2401;0.1218;
765.3000;0.2418;0.1290;
765.6000;0.2409;0.1314;
765.9000;0.2426;0.1337;
766.2000;0.2393;0.1242;
766.5000;0.2401;0.1266;
766.8000;0.2393;0.1146;
767.1000;0.2401;0.1075;
767.4000;0.2393;0.1122;
767.7000;0.2401;0.1194;
768.0000;0.2409;0.1266;
768.3000;0.2393;0.1146;
768.6000;0.2393;0.1075;
768.9000;0.2409;0.1194;
769.2000;0.2401;0.1146;
769.5000;0.2369;0.1122;
769.8000;0.2385;0.1122;
770.1000;0.2385;0.1099;
770.4000;0.2401;0.1218;
770.7000;0.2377;0.1242;
771.0000;0.2393;0.1170;
771.3000;0.2393;0.1027;
771.6000;0.2385;0.0955;
771.9000;0.2385;0.0908;
772.2000;0.2409;0.0979;
772.5000;0.2393;0.1051;
772.8000;0.2393;0.1099;
773.1000;0.2418;0.1218;
773.4000;0.2312;0.0884;
773.7000;0.2401;0.1194;
774.0000;0.2401;0.1194;
774.3000;0.2393;0.1170;
774.6000;0.2401;0.1146;
774.9000;0.2418;0.1194;
775.2000;0.2401;0.1146;
775.5000;0.2401;0.1099;
775.8000;0.2401;0.1027;
776.1000;0.2401;0.1075;
776.4000;0.2418;0.1075;
776.7000;0.2377;0.1003;
777.0000;0.2409;0.1099;
777.3000;0.2393;0.1003;
777.6000;0.2401;0.0955;
777.9000;0.2385;0.0979;
778.2000;0.2401;0.1003;
778.5000;0.2434;0.1027;
778.8000;0.2393;0.0908;
779.1000;0.2385;0.0860;
779.4000;0.2361;0.0764;
779.7000;0.2409;0.0931;
780.0000;0.2377;0.0931;
780.3000;0.2475;0.1194;
780.6000;0.2385;0.1099;
780.9000;0.2426;0.1242;
781.2000;0.2377;0.1194;
781.5000;0.2385;0.1170;
781.8000;0.2409;0.1290;
782.1000;0.2426;0.1290;
782.4000;0.2409;0.1194;
782.7000;0.2418;0.1218;
783.0000;0.2401;0.1099;
783.3000;0.2418;0.1122;
783.6000;0.2377;0.1027;
783.9000;0.2442;0.1194;
784.2000;0.2409;0.1146;
784.5000;0.2409;0.1218;
784.8000;0.2434;0.1266;
785.1000;0.2409;0.1170;
785.4000;0.2409;0.1194;
785.7000;0.2475;0.1361;
786.0000;0.2393;0.1122;
786.3000;0.2385;0.1122;
786.6000;0.2401;0.1170;
786.9000;0.2409;0.1170;
787.2000;0.2418;0.1194;
787.5000;0.2320;0.1003;
787.8000;0.2377;0.1170;
788.1000;0.2409;0.1122;
788.4000;0.2418;0.1099;
788.7000;0.2377;0.1122;
789.0000;0.2393;0.1075;
789.3000;0.2401;0.1099;
789.6000;0.2401;0.1099;
789.9000;0.2393;0.1051;
790.2000;0.2393;0.1075;
790.5000;0.2377;0.1051;
790.8000;0.2393;0.1122;
791.1000;0.2361;0.1051;
791.4000;0.2409;0.1170;
791.7000;0.2393;0.1146;
792.0000;0.2409;0.1075;
792.3000;0.2385;0.1051;
792.6000;0.2401;0.1122;
792.9000;0.2418;0.1075;
793.2000;0.2409;0.1099;
793.5000;0.2393;0.1051;
793.8000;0.2361;0.0955;
794.1000;0.2491;0.1218;
794.4000;0.2271;0.0597;
794.7000;0.2409;0.0931;
795.0000;0.2409;0.0979;
795.3000;0.2418;0.1051;
795.6000;0.2401;0.1146;
795.9000;0.2401;0.1170;
796.2000;0.2393;0.1170;
796.5000;0.2393;0.1122;
796.8000;0.2409;0.1099;
797.1000;0.2393;0.1146;
797.4000;0.2450;0.1242;
797.7000;0.2377;0.1122;
798.0000;0.2409;0.1170;
798.3000;0.2393;0.1194;
798.6000;0.2409;0.1146;
798.9000;0.2401;0.1146;
799.2000;0.2393;0.1194;
799.5000;0.2401;0.1146;
799.8000;0.2401;0.1170;
800.1000;0.2409;0.1122;
800.4000;0.2369;0.0979;
800.7000;0.2401;0.1122;
801.0000;0.2409;0.1099;
801.3000;0.2393;0.1075;
801.6000;0.2401;0.1146;
801.9000;0.2401;0.1075;
802.2000;0.2401;0.1027;
802.5000;0.2361;0.0836;
802.8000;0.2401;0.1003;
803.1000;0.2393;0.1003;
803.4000;0.2361;0.0979;
803.7000;0.2393;0.1075;
804.0000;0.2401;0.1051;
804.3000;0.2442;0.1122;
804.6000;0.2385;0.0955;
804.9000;0.2263;0.0716;
805.2000;0.2401;0.1075;
805.5000;0.2393;0.1051;
805.8000;0.2385;0.0979;
806.1000;0.2401;0.1075;
806.4000;0.2401;0.1051;
806.7000;0.2352;0.1003;
807.0000;0.2418;0.1146;
807.3000;0.2385;0.1027;
807.6000;0.2418;0.1146;
807.9000;0.2409;0.1146;
808.2000;0.2499;0.1433;
808.5000;0.2369;0.1051;
808.8000;0.2401;0.1194;
809.1000;0.2409;0.1242;
809.4000;0.2401;0.1194;
809.7000;0.2401;0.1122;
810.0000;0.2263;0.0740;
810.3000;0.2426;0.1146;
810.6000;0.2401;0.1122;
810.9000;0.2279;0.0955;
811.2000;0.2418;0.1361;
811.5000;0.2409;0.1314;
811.8000;0.2450;0.1385;
812.1000;0.2409;0.1337;
812.4000;0.2369;0.1242;
812.7000;0.2393;0.1266;
813.0000;0.2418;0.1266;
813.3000;0.2409;0.1194;
813.6000;0.2401;0.1194;
813.9000;0.2393;0.1170;
814.2000;0.2466;0.1266;
814.5000;0.2409;0.1266;
814.8000;0.2401;0.1218;
815.1000;0.2385;0.1242;
815.4000;0.2385;0.1314;
815.7000;0.2418;0.1290;
816.0000;0.2409;0.1242;
816.3000;0.2442;0.1337;
816.6000;0.2409;0.1194;
816.9000;0.2352;0.1003;
817.2000;0.2369;0.1003;
817.5000;0.2409;0.1075;
817.8000;0.2385;0.1099;
818.1000;0.2385;0.1146;
818.4000;0.2434;0.1242;
818.7000;0.2385;0.1051;
819.0000;0.2409;0.1122;
819.3000;0.2401;0.1099;
819.6000;0.2393;0.1051;
819.9000;0.2409;0.1122;
820.2000;0.2385;0.1051;
820.5000;0.2418;0.1218;
820.8000;0.2393;0.1194;
821.1000;0.2385;0.1194;
821.4000;0.2418;0.1242;
821.7000;0.2385;0.1242;
822.0000;0.2401;0.1218;
822.3000;0.2385;0.1194;
822.6000;0.2393;0.1170;
822.9000;0.2409;0.1242;
823.2000;0.2385;0.1122;
823.5000;0.2523;0.1457;
823.8000;0.2393;0.1122;
824.1000;0.2385;0.1075;
824.4000;0.2409;0.1146;
824.7000;0.2401;0.1194;
825.0000;0.2377;0.1242;
825.3000;0.2393;0.1170;
825.6000;0.2385;0.1146;
825.9000;0.2377;0.1146;
826.2000;0.2409;0.1122;
826.5000;0.2418;0.1051;
826.8000;0.2458;0.1122;
827.1000;0.2401;0.0979;
827.4000;0.2393;0.1003;
827.7000;0.2409;0.1099;
828.0000;0.2621;0.1743;
828.3000;0.2385;0.1051;
828.6000;0.2393;0.1122;
828.9000;0.2393;0.1122;
829.2000;0.2434;0.1242;
829.5000;0.2418;0.1170;
829.8000;0.2409;0.1170;
830.1000;0.2377;0.1075;
830.4000;0.2418;0.1218;
830.7000;0.2401;0.1170;
831.0000;0.2418;0.1170;
831.3000;0.2418;0.1218;
831.6000;0.2385;0.1218;
831.9000;0.2401;0.1218;
832.2000;0.2491;0.1433;
832.5000;0.2385;0.1099;
832.8000;0.2393;0.1122;
833.1000;0.2385;0.1146;
833.4000;0.2385;0.1146;
833.7000;0.2385;0.1122;
834.0000;0.2385;0.1003;
834.3000;0.2401;0.1003;
834.6000;0.2434;0.1075;
834.9000;0.2336;0.0836;
835.2000;0.2401;0.0931;
835.5000;0.2369;0.0836;
835.8000;0.2418;0.0979;
836.1000;0.2385;0.0860;
836.4000;0.2409;0.0884;
836.7000;0.2393;0.0884;
837.0000;0.2352;0.0836;
837.3000;0.2393;0.0979;
837.6000;0.2409;0.1027;
837.9000;0.2361;0.0884;
838.2000;0.2393;0.1027;
838.5000;0.2401;0.1051;
838.8000;0.2409;0.1051;
839.1000;0.2401;0.1027;
839.4000;0.2409;0.1027;
839.7000;0.2393;0.1003;
840.0000;0.2393;0.0979;
840.3000;0.2393;0.0955;
840.6000;0.2352;0.0836;
840.9000;0.2418;0.1003;
841.2000;0.2418;0.1027;
841.5000;0.2409;0.0955;
841.8000;0.2385;0.0955;
842.1000;0.2426;0.1003;
842.4000;0.2409;0.1003;
842.7000;0.2401;0.1075;
843.0000;0.2409;0.1051;
843.3000;0.2409;0.1170;
843.6000;0.2401;0.1099;
843.9000;0.2385;0.0979;
844.2000;0.2401;0.1027;
844.5000;0.2385;0.0931;
844.8000;0.2385;0.0931;
845.1000;0.2475;0.1146;
845.4000;0.2401;0.1003;
845.7000;0.2393;0.1051;
846.0000;0.2409;0.1122;
846.3000;0.2409;0.1170;
846.6000;0.2409;0.1075;
846.9000;0.2401;0.1051;
847.2000;0.2409;0.1146;
847.5000;0.2352;0.1003;
847.8000;0.2393;0.1122;
848.1000;0.2377;0.1099;
848.4000;0.2401;0.1170;
848.7000;0.2393;0.1122;
849.0000;0.2385;0.1146;
849.3000;0.2401;0.1194;
849.6000;0.2401;0.1146;
849.9000;0.2401;0.1099;
850.2000;0.2409;0.1075;
850.5000;0.2418;0.1122;
850.8000;0.2385;0.1146;
851.1000;0.2409;0.1194;
851.4000;0.2401;0.1146;
851.7000;0.2401;0.1122;
852.0000;0.2393;0.1051;
852.3000;0.2377;0.1027;
852.6000;0.2409;0.1003;
852.9000;0.2401;0.1003;
853.2000;0.2393;0.1003;
853.5000;0.2491;0.1361;
853.8000;0.2401;0.1146;
854.1000;0.2352;0.1027;
854.4000;0.2385;0.0955;
854.7000;0.2393;0.0955;
855.0000;0.2369;0.0836;
855.3000;0.2418;0.0955;
855.6000;0.2409;0.0931;
855.9000;0.2409;0.0931;
856.2000;0.2409;0.1003;
856.5000;0.2377;0.1027;
856.8000;0.2393;0.1122;
857.1000;0.2393;0.1122;
857.4000;0.2401;0.1170;
857.7000;0.2385;0.1099;
858.0000;0.2393;0.1075;
858.3000;0.2385;0.1075;
858.6000;0.2385;0.1099;
858.9000;0.2418;0.1218;
859.2000;0.2401;0.1170;
859.5000;0.2409;0.1314;
859.8000;0.2409;0.1314;
860.1000;0.2369;0.1146;
860.4000;0.2409;0.1218;
860.7000;0.2409;0.1242;
861.0000;0.2401;0.1194;
861.3000;0.2418;0.1170;
861.6000;0.2409;0.1099;
861.9000;0.2393;0.1075;
862.2000;0.2450;0.1242;
862.5000;0.2328;0.0860;
862.8000;0.2401;0.1099;
863.1000;0.2401;0.1122;
863.4000;0.2352;0.0884;
863.7000;0.2418;0.1075;
864.0000;0.2409;0.1051;
864.3000;0.2271;0.0693;
864.6000;0.2401;0.1003;
864.9000;0.2409;0.1075;
865.2000;0.2401;0.1027;
865.5000;0.2393;0.1027;
865.8000;0.2401;0.1003;
866.1000;0.2426;0.1075;
866.4000;0.2409;0.1075;
866.7000;0.2442;0.1170;
867.0000;0.2409;0.1027;
867.3000;0.2409;0.1003;
867.6000;0.2426;0.0979;
867.9000;0.2393;0.0955;
868.2000;0.2401;0.1003;
868.5000;0.2377;0.0955;
868.8000;0.2401;0.1051;
869.1000;0.2409;0.1075;
869.4000;0.2393;0.1099;
869.7000;0.2401;0.1099;
870.0000;0.2393;0.1099;
870.3000;0.2418;0.1122;
870.6000;0.2458;0.1242;
870.9000;0.2409;0.1122;
871.2000;0.2418;0.1146;
871.5000;0.2401;0.1146;
871.8000;0.2385;0.1146;
872.1000;0.2401;0.1194;
872.4000;0.2442;0.1385;
872.7000;0.2426;0.1314;
873.0000;0.2401;0.1266;
873.3000;0.2409;0.1314;
873.6000;0.2401;0.1361;
873.9000;0.2393;0.1314;
874.2000;0.2401;0.1266;
874.5000;0.2401;0.1099;
874.8000;0.2401;0.1099;
875.1000;0.2393;0.1075;
875.4000;0.2401;0.1146;
875.7000;0.2409;0.1266;
876.0000;0.2328;0.1099;
876.3000;0.2393;0.1218;
876.6000;0.2458;0.1337;
876.9000;0.2442;0.1266;
877.2000;0.2385;0.1170;
877.5000;0.2361;0.1051;
877.8000;0.2409;0.1099;
878.1000;0.2369;0.1003;
878.4000;0.2466;0.1266;
878.7000;0.2401;0.1146;
879.0000;0.2328;0.0955;
879.3000;0.2401;0.1170;
879.6000;0.2401;0.1194;
879.9000;0.2393;0.1146;
880.2000;0.2401;0.1218;
880.5000;0.2393;0.1218;
880.8000;0.2401;0.1218;
881.1000;0.2393;0.1194;
881.4000;0.2515;0.1457;
881.7000;0.2409;0.1051;
882.0000;0.2401;0.1003;
882.3000;0.2401;0.1027;
882.6000;0.2401;0.1027;
882.9000;0.2393;0.1051;
883.2000;0.2393;0.1003;
883.5000;0.2377;0.0955;
883.8000;0.2401;0.1003;
884.1000;0.2369;0.0931;
884.4000;0.2426;0.1027;
884.7000;0.2393;0.0955;
885.0000;0.2361;0.0908;
885.3000;0.2409;0.1003;
885.6000;0.2377;0.0931;
885.9000;0.2418;0.0931;
886.2000;0.2418;0.0955;
886.5000;0.2336;0.0812;
886.8000;0.2385;0.1003;
887.1000;0.2287;0.0716;
887.4000;0.2336;0.0788;
887.7000;0.2401;0.0908;
888.0000;0.2434;0.0955;
888.3000;0.2426;0.0955;
888.6000;0.2401;0.0908;
888.9000;0.2401;0.0884;
889.2000;0.2434;0.1003;
889.5000;0.2409;0.0955;
889.8000;0.2393;0.0884;
890.1000;0.2377;0.0812;
890.4000;0.2385;0.0836;
890.7000;0.2418;0.0955;
891.0000;0.2418;0.0931;
891.3000;0.2409;0.0884;
891.6000;0.2450;0.0931;
891.9000;0.2409;0.0836;
892.2000;0.2409;0.0860;
892.5000;0.2401;0.0860;
892.8000;0.2401;0.0908;
893.1000;0.2401;0.0955;
893.4000;0.2401;0.0955;
893.7000;0.2385;0.0979;
894.0000;0.2418;0.1003;
894.3000;0.2393;0.0931;
894.6000;0.2377;0.0908;
894.9000;0.2401;0.0908;
895.2000;0.2385;0.0884;
895.5000;0.2434;0.0955;
895.8000;0.2409;0.0979;
896.1000;0.2393;0.0860;
896.4000;0.2418;0.0884;
896.7000;0.2385;0.0788;
897.0000;0.2352;0.0716;
897.3000;0.2409;0.0931;
897.6000;0.2385;0.0979;
897.9000;0.2401;0.0931;
898.2000;0.2418;0.0860;
898.5000;0.2393;0.0788;
898.8000;0.2409;0.0836;
899.1000;0.2401;0.0812;
899.4000;0.2393;0.0788;
899.7000;0.2409;0.0812;
900.0000;0.2450;0.0860;
900.3000;0.2426;0.0836;
900.6000;0.2393;0.0788;
900.9000;0.2434;0.0860;
901.2000;0.2401;0.0812;
901.5000;0.2418;0.0812;
901.8000;0.2393;0.0812;
902.1000;0.2336;0.0621;
902.4000;0.2393;0.0812;
902.7000;0.2450;0.1003;
903.0000;0.2418;0.1027;
903.3000;0.2409;0.1075;
903.6000;0.2393;0.1051;
903.9000;0.2369;0.1027;
904.2000;0.2401;0.1075;
904.5000;0.2401;0.1051;
904.8000;0.2401;0.1051;
905.1000;0.2385;0.0979;
905.4000;0.2442;0.1075;
905.7000;0.2466;0.1146;
906.0000;0.2523;0.1290;
906.3000;0.2426;0.1051;
906.6000;0.2475;0.1266;
906.9000;0.2409;0.1075;
907.2000;0.2418;0.1146;
907.5000;0.2418;0.1146;
907.8000;0.2409;0.1146;
908.1000;0.2304;0.0860;
908.4000;0.2418;0.1218;
908.7000;0.2393;0.1099;
909.0000;0.2393;0.1075;
909.3000;0.2393;0.1146;
909.6000;0.2385;0.1075;
909.9000;0.2409;0.1170;
910.2000;0.2352;0.0884;
910.5000;0.2483;0.1242;
910.8000;0.2393;0.1099;
911.1000;0.2409;0.1075;
911.4000;0.2377;0.0979;
911.7000;0.2393;0.1051;
912.0000;0.2385;0.1027;
912.3000;0.2385;0.1003;
912.6000;0.2393;0.1099;
912.9000;0.2393;0.1122;
913.2000;0.2361;0.1122;
913.5000;0.2426;0.1290;
913.8000;0.2401;0.1218;
914.1000;0.2401;0.1146;
914.4000;0.2385;0.1194;
914.7000;0.2385;0.1146;
915.0000;0.2385;0.1027;
915.3000;0.2409;0.1075;
915.6000;0.2369;0.1003;
915.9000;0.2385;0.1003;
916.2000;0.2409;0.1122;
916.5000;0.2466;0.1242;
916.8000;0.2393;0.1146;
917.1000;0.2377;0.1099;
917.4000;0.2385;0.1122;
917.7000;0.2401;0.1146;
918.0000;0.2409;0.1122;
918.3000;0.2385;0.1075;
918.6000;0.2377;0.1099;
918.9000;0.2426;0.1242;
919.2000;0.2418;0.1194;
919.5000;0.2515;0.1528;
919.8000;0.2409;0.1266;
920.1000;0.2401;0.1242;
920.4000;0.2409;0.1242;
920.7000;0.2393;0.1075;
921.0000;0.2385;0.1051;
921.3000;0.2385;0.1051;
921.6000;0.2401;0.1051;
921.9000;0.2401;0.1027;
922.2000;0.2442;0.1027;
922.5000;0.2442;0.1003;
922.8000;0.2385;0.0931;
923.1000;0.2393;0.0979;
923.4000;0.2401;0.0931;
923.7000;0.2434;0.1051;
924.0000;0.2393;0.0931;
924.3000;0.2418;0.1027;
924.6000;0.2401;0.0979;
924.9000;0.2409;0.1027;
925.2000;0.2418;0.1027;
925.5000;0.2409;0.1075;
925.8000;0.2385;0.1003;
926.1000;0.2287;0.0764;
926.4000;0.2369;0.1051;
926.7000;0.2401;0.1146;
927.0000;0.2418;0.1194;
927.3000;0.2369;0.1051;
927.6000;0.2426;0.1194;
927.9000;0.2426;0.1146;
928.2000;0.2409;0.1075;
928.5000;0.2409;0.1170;
928.8000;0.2401;0.1194;
929.1000;0.2287;0.0860;
929.4000;0.2385;0.1099;
929.7000;0.2475;0.1314;
930.0000;0.2369;0.1075;
930.3000;0.2393;0.1194;
930.6000;0.2369;0.1099;
930.9000;0.2393;0.1146;
931.2000;0.2409;0.1242;
931.5000;0.2401;0.1146;
931.8000;0.2418;0.1194;
932.1000;0.2401;0.1122;
932.4000;0.2393;0.1075;
932.7000;0.2401;0.1099;
933.0000;0.2393;0.1051;
933.3000;0.2393;0.1027;
933.6000;0.2475;0.1266;
933.9000;0.2426;0.1075;
934.2000;0.2393;0.1122;
934.5000;0.2491;0.1361;
934.8000;0.2401;0.1170;
935.1000;0.2442;0.1314;
935.4000;0.2409;0.1194;
935.7000;0.2409;0.1122;
936.0000;0.2409;0.1099;
936.3000;0.2393;0.1051;
936.6000;0.2401;0.1027;
936.9000;0.2409;0.1051;
937.2000;0.2401;0.1003;
937.5000;0.2377;0.0931;
937.8000;0.2466;0.1146;
938.1000;0.2377;0.1051;
938.4000;0.2393;0.1051;
938.7000;0.2393;0.0979;
939.0000;0.2401;0.0955;
939.3000;0.2409;0.1003;
939.6000;0.2450;0.1075;
939.9000;0.2418;0.0979;
940.2000;0.2401;0.0931;
940.5000;0.2426;0.1003;
940.8000;0.2401;0.1051;
941.1000;0.2385;0.1099;
941.4000;0.2401;0.1242;
941.7000;0.2401;0.1194;
942.0000;0.2434;0.1266;
942.3000;0.2385;0.1194;
942.6000;0.2393;0.1194;
942.9000;0.2418;0.1242;
943.2000;0.2409;0.1194;
943.5000;0.2385;0.1099;
943.8000;0.2401;0.1051;
944.1000;0.2466;0.1218;
944.4000;0.2401;0.1122;
944.7000;0.2393;0.1099;
945.0000;0.2320;0.0860;
945.3000;0.2401;0.1027;
945.6000;0.2426;0.1027;
945.9000;0.2401;0.0955;
946.2000;0.2385;0.0884;
946.5000;0.2401;0.0979;
946.8000;0.2393;0.0908;
947.1000;0.2295;0.0645;
947.4000;0.2409;0.1051;
947.7000;0.2393;0.1099;
948.0000;0.2401;0.1099;
948.3000;0.2450;0.1242;
948.6000;0.2393;0.1146;
948.9000;0.2385;0.1242;
949.2000;0.2409;0.1290;
949.5000;0.2401;0.1314;
949.8000;0.2401;0.1194;
950.1000;0.2418;0.1099;
950.4000;0.2393;0.1051;
950.7000;0.2393;0.1099;
951.0000;0.2483;0.1337;
951.3000;0.2385;0.1075;
951.6000;0.2401;0.1027;
951.9000;0.2401;0.1027;
952.2000;0.2401;0.1099;
952.5000;0.2377;0.1122;
952.8000;0.2393;0.1146;
953.1000;0.2377;0.1099;
953.4000;0.2426;0.1266;
953.7000;0.2401;0.1218;
954.0000;0.2418;0.1218;
954.3000;0.2385;0.1051;
954.6000;0.2401;0.1099;
954.9000;0.2409;0.1170;
955.2000;0.2418;0.1170;
955.5000;0.2393;0.1170;
955.8000;0.2409;0.1099;
956.1000;0.2418;0.1170;
956.4000;0.2393;0.1003;
956.7000;0.2418;0.0979;
957.0000;0.2418;0.1027;
957.3000;0.2409;0.1027;
957.6000;0.2401;0.1075;
957.9000;0.2418;0.1099;
958.2000;0.2401;0.1075;
958.5000;0.2426;0.1170;
958.8000;0.2401;0.1122;
959.1000;0.2426;0.1099;
959.4000;0.2401;0.1027;
959.7000;0.2426;0.1027;
960.0000;0.2426;0.1003;
960.3000;0.2393;0.0979;
960.6000;0.2385;0.0979;
960.9000;0.2352;0.0860;
961.2000;0.2418;0.1051;
961.5000;0.2401;0.1027;
961.8000;0.2401;0.1003;
962.1000;0.2377;0.1003;
962.4000;0.2393;0.1051;
962.7000;0.2393;0.1075;
963.0000;0.2401;0.1170;
963.3000;0.2409;0.1122;
963.6000;0.2409;0.1122;
963.9000;0.2426;0.1218;
964.2000;0.2418;0.1266;
964.5000;0.2418;0.1242;
964.8000;0.2458;0.1266;
965.1000;0.2401;0.1075;
965.4000;0.2385;0.1099;
965.7000;0.2401;0.1122;
966.0000;0.2458;0.1314;
966.3000;0.2401;0.1099;
966.6000;0.2409;0.1051;
966.9000;0.2409;0.1027;
967.2000;0.2385;0.0979;
967.5000;0.2393;0.0979;
967.8000;0.2409;0.1003;
968.1000;0.2401;0.0931;
968.4000;0.2426;0.0979;
968.7000;0.2401;0.0979;
969.0000;0.2401;0.1003;
969.3000;0.2426;0.1099;
969.6000;0.2409;0.1122;
969.9000;0.2426;0.1266;
970.2000;0.2393;0.1170;
970.5000;0.2393;0.1075;
970.8000;0.2385;0.1075;
971.1000;0.2401;0.1122;
971.4000;0.2377;0.0908;
971.7000;0.2393;0.1003;
972.0000;0.2369;0.0884;
972.3000;0.2393;0.0955;
972.6000;0.2418;0.1051;
972.9000;0.2393;0.1027;
973.2000;0.2393;0.0955;
973.5000;0.2409;0.1003;
973.8000;0.2409;0.1075;
974.1000;0.2409;0.1099;
974.4000;0.2418;0.1122;
974.7000;0.2401;0.1146;
975.0000;0.2418;0.1170;
975.3000;0.2418;0.1027;
975.6000;0.2377;0.0955;
975.9000;0.2393;0.0884;
976.2000;0.2393;0.0931;
976.5000;0.2401;0.0979;
976.8000;0.2385;0.1003;
977.1000;0.2393;0.1075;
977.4000;0.2393;0.1003;
977.7000;0.2401;0.1194;
978.0000;0.2401;0.1170;
978.3000;0.2409;0.1122;
978.6000;0.2393;0.1122;
978.9000;0.2401;0.1099;
979.2000;0.2418;0.1122;
979.5000;0.2401;0.0979;
979.8000;0.2401;0.1099;
980.1000;0.2434;0.1027;
980.4000;0.2344;0.0716;
980.7000;0.2409;0.0812;
981.0000;0.2409;0.0764;
981.3000;0.2458;0.0884;
981.6000;0.2418;0.0764;
981.9000;0.2401;0.0764;
982.2000;0.2409;0.0764;
982.5000;0.2426;0.0884;
982.8000;0.2418;0.0908;
983.1000;0.2409;0.0884;
983.4000;0.2393;0.0860;
983.7000;0.2434;0.0931;
984.0000;0.2393;0.0860;
984.3000;0.2409;0.0884;
984.6000;0.2377;0.0884;
984.9000;0.2409;0.1003;
985.2000;0.2377;0.0884;
985.5000;0.2426;0.0931;
985.8000;0.2409;0.0884;
986.1000;0.2418;0.0908;
986.4000;0.2409;0.0884;
986.7000;0.2491;0.1170;
987.0000;0.2369;0.0931;
987.3000;0.2409;0.1051;
987.6000;0.2352;0.0931;
987.9000;0.2418;0.1170;
988.2000;0.2409;0.1218;
988.5000;0.2409;0.1099;
988.8000;0.2401;0.1027;
989.1000;0.2418;0.1099;
989.4000;0.2409;0.1075;
989.7000;0.2442;0.1194;
990.0000;0.2393;0.1075;
990.3000;0.2401;0.1099;
990.6000;0.2393;0.0955;
990.9000;0.2344;0.0836;
991.2000;0.2409;0.1099;
991.5000;0.2409;0.1003;
991.8000;0.2401;0.0955;
992.1000;0.2409;0.1003;
992.4000;0.2409;0.1051;
992.7000;0.2401;0.1099;
993.0000;0.2393;0.1027;
993.3000;0.2401;0.1051;
993.6000;0.2401;0.1099;
993.9000;0.2401;0.1099;
994.2000;0.2409;0.1099;
994.5000;0.2418;0.1075;
994.8000;0.2401;0.1027;
995.1000;0.2401;0.0979;
995.4000;0.2475;0.1170;
995.7000;0.2426;0.0931;
996.0000;0.2426;0.0931;
996.3000;0.2450;0.1003;
996.6000;0.2401;0.0836;
996.9000;0.2409;0.0788;
997.2000;0.2401;0.0764;
997.5000;0.2385;0.0740;
997.8000;0.2409;0.0764;
998.1000;0.2401;0.0812;
998.4000;0.2401;0.0884;
998.7000;0.2401;0.0884;
999.0000;0.2393;0.0860;
999.3000;0.2434;0.0884;
999.6000;0.2418;0.0955;
999.9000;0.2393;0.0931;
1000.2000;0.2418;0.1075;
1000.5000;0.2426;0.1099;
1000.8000;0.2418;0.1122;
1001.1000;0.2442;0.1170;
1001.4000;0.2418;0.1122;
1001.7000;0.2401;0.1075;
1002.0000;0.2393;0.1075;
1002.3000;0.2515;0.1409;
1002.6000;0.2393;0.1027;
1002.9000;0.2393;0.1027;
1003.2000;0.2450;0.1099;
1003.5000;0.2385;0.0884;
1003.8000;0.2409;0.0979;
1004.1000;0.2426;0.1075;
1004.4000;0.2393;0.1003;
1004.7000;0.2418;0.1170;
1005.0000;0.2418;0.1266;
1005.3000;0.2409;0.1218;
1005.6000;0.2442;0.1314;
1005.9000;0.2418;0.1218;
1006.2000;0.2434;0.1194;
1006.5000;0.2401;0.1051;
1006.8000;0.2409;0.1051;
1007.1000;0.2426;0.1099;
1007.4000;0.2393;0.0955;
1007.7000;0.2393;0.0979;
1008.0000;0.2401;0.1027;
1008.3000;0.2401;0.1027;
1008.6000;0.2426;0.0979;
1008.9000;0.2401;0.0931;
1009.2000;0.2393;0.0908;
1009.5000;0.2418;0.0908;
1009.8000;0.2401;0.0931;
1010.1000;0.2401;0.0955;
1010.4000;0.2418;0.0955;
1010.7000;0.2434;0.1003;
1011.0000;0.2393;0.0884;
1011.3000;0.2401;0.0860;
1011.6000;0.2320;0.0669;
1011.9000;0.2401;0.0860;
1012.2000;0.2434;0.0908;
1012.5000;0.2377;0.0764;
1012.8000;0.2401;0.0884;
1013.1000;0.2385;0.0908;
1013.4000;0.2385;0.0931;
1013.7000;0.2393;0.0908;
1014.0000;0.2458;0.1075;
1014.3000;0.2385;0.0979;
1014.6000;0.2409;0.1099;
1014.9000;0.2377;0.1027;
1015.2000;0.2409;0.1170;
1015.5000;0.2393;0.1122;
1015.8000;0.2450;0.1242;
1016.1000;0.2426;0.1146;
1016.4000;0.2409;0.1122;
1016.7000;0.2377;0.1003;
1017.0000;0.2377;0.1051;
1017.3000;0.2393;0.1122;
1017.6000;0.2401;0.1194;
1017.9000;0.2393;0.1194;
1018.2000;0.2255;0.0764;
1018.5000;0.2393;0.1146;
1018.8000;0.2385;0.1122;
1019.1000;0.2466;0.1337;
1019.4000;0.2385;0.1122;
1019.7000;0.2418;0.1242;
1020.0000;0.2393;0.1075;
1020.3000;0.2418;0.1122;
1020.6000;0.2377;0.1003;
1020.9000;0.2426;0.1075;
1021.2000;0.2491;0.1361;
1021.5000;0.2401;0.1099;
1021.8000;0.2393;0.1122;
1022.1000;0.2418;0.1122;
1022.4000;0.2409;0.1170;
1022.7000;0.2418;0.1194;
1023.0000;0.2442;0.1314;
1023.3000;0.2442;0.1266;
1023.6000;0.2426;0.1218;
1023.9000;0.2385;0.1099;
1024.2000;0.2409;0.1099;
1024.5000;0.2418;0.1194;
1024.8000;0.2401;0.1122;
1025.1000;0.2385;0.1003;
1025.4000;0.2409;0.1218;
1025.7000;0.2393;0.1194;
1026.0000;0.2418;0.1218;
1026.3000;0.2418;0.1337;
1026.6000;0.2409;0.1290;
1026.9000;0.2409;0.1314;
1027.2000;0.2393;0.1218;
1027.5000;0.2418;0.1242;
1027.8000;0.2409;0.1170;
1028.1000;0.2385;0.1075;
1028.4000;0.2418;0.1218;
1028.7000;0.2401;0.1337;
1029.0000;0.2401;0.1290;
1029.3000;0.2409;0.1242;
1029.6000;0.2491;0.1337;
1029.9000;0.2409;0.1051;
1030.2000;0.2418;0.1003;
1030.5000;0.2418;0.1003;
1030.8000;0.2401;0.0931;
1031.1000;0.2409;0.0884;
1031.4000;0.2409;0.1027;
1031.7000;0.2401;0.0979;
1032.0000;0.2409;0.1027;
1032.3000;0.2401;0.1051;
1032.6000;0.2401;0.1051;
1032.9000;0.2401;0.1051;
1033.2000;0.2418;0.1146;
1033.5000;0.2409;0.1075;
1033.8000;0.2409;0.1099;
1034.1000;0.2401;0.1146;
1034.4000;0.2393;0.1170;
1034.7000;0.2401;0.1242;
1035.0000;0.2409;0.1218;
1035.3000;0.2401;0.1218;
1035.6000;0.2344;0.1075;
1035.9000;0.2426;0.1194;
1036.2000;0.2426;0.1122;
1036.5000;0.2393;0.1122;
1036.8000;0.2418;0.1218;
1037.1000;0.2418;0.1290;
1037.4000;0.2426;0.1218;
1037.7000;0.2418;0.1194;
1038.0000;0.2409;0.1122;
1038.3000;0.2409;0.0979;
1038.6000;0.2385;0.0860;
1038.9000;0.2393;0.0884;
1039.2000;0.2344;0.0740;
1039.5000;0.2409;0.0836;
1039.8000;0.2401;0.0860;
1040.1000;0.2418;0.0979;
1040.4000;0.2336;0.0693;
1040.7000;0.2401;0.0812;
1041.0000;0.2393;0.0788;
1041.3000;0.2426;0.0860;
1041.6000;0.2434;0.0955;
1041.9000;0.2418;0.0979;
1042.2000;0.2434;0.1027;
1042.5000;0.2426;0.0955;
1042.8000;0.2434;0.1075;
1043.1000;0.2499;0.1290;
1043.4000;0.2426;0.1075;
1043.7000;0.2385;0.1003;
1044.0000;0.2491;0.1314;
1044.3000;0.2409;0.1099;
1044.6000;0.2377;0.1099;
1044.9000;0.2409;0.1075;
1045.2000;0.2409;0.1051;
1045.5000;0.2409;0.1051;
1045.8000;0.2434;0.1051;
1046.1000;0.2401;0.1099;
1046.4000;0.2426;0.1170;
1046.7000;0.2409;0.1146;
1047.0000;0.2426;0.1266;
1047.3000;0.2401;0.1194;
1047.6000;0.2418;0.1266;
1047.9000;0.2426;0.1266;
1048.2000;0.2426;0.1290;
1048.5000;0.2393;0.1075;
1048.8000;0.2418;0.1122;
1049.1000;0.2409;0.1003;
1049.4000;0.2409;0.1027;
1049.7000;0.2393;0.1003;
1050.0000;0.2434;0.1122;
1050.3000;0.2393;0.0979;
1050.6000;0.2401;0.0979;
1050.9000;0.2418;0.0931;
1051.2000;0.2409;0.0979;
1051.5000;0.2409;0.1003;
1051.8000;0.2426;0.1003;
1052.1000;0.2401;0.0979;
1052.4000;0.2393;0.1003;
1052.7000;0.2409;0.1146;
1053.0000;0.2409;0.1099;
1053.3000;0.2385;0.0979;
1053.6000;0.2409;0.1051;
1053.9000;0.2409;0.1075;
1054.2000;0.2401;0.0979;
1054.5000;0.2401;0.0979;
1054.8000;0.2409;0.1027;
1055.1000;0.2377;0.1027;
1055.4000;0.2385;0.1075;
1055.7000;0.2401;0.1146;
1056.0000;0.2409;0.1146;
1056.3000;0.2401;0.1027;
1056.6000;0.2418;0.1075;
1056.9000;0.2401;0.1146;
1057.2000;0.2401;0.1075;
1057.5000;0.2393;0.1003;
1057.8000;0.2409;0.0931;
1058.1000;0.2409;0.0979;
1058.4000;0.2409;0.1027;
1058.7000;0.2401;0.1003;
1059.0000;0.2385;0.1027;
1059.3000;0.2409;0.1051;
1059.6000;0.2434;0.1146;
1059.9000;0.2401;0.1122;
1060.2000;0.2377;0.1075;
1060.5000;0.2401;0.1146;
1060.8000;0.2393;0.1242;
1061.1000;0.2385;0.1290;
1061.4000;0.2377;0.1266;
1061.7000;0.2409;0.1290;
1062.0000;0.2401;0.1218;
1062.3000;0.2393;0.1170;
1062.6000;0.2393;0.1099;
1062.9000;0.2361;0.1003;
1063.2000;0.2426;0.1218;
1063.5000;0.2426;0.1290;
1063.8000;0.2418;0.1146;
1064.1000;0.2385;0.1170;
1064.4000;0.2401;0.1194;
1064.7000;0.2418;0.1266;
1065.0000;0.2401;0.1146;
1065.3000;0.2401;0.1122;
1065.6000;0.2393;0.1075;
1065.9000;0.2418;0.1051;
1066.2000;0.2287;0.0693;
1066.5000;0.2418;0.1051;
1066.8000;0.2393;0.0931;
1067.1000;0.2369;0.0812;
1067.4000;0.2426;0.1051;
1067.7000;0.2401;0.0979;
1068.0000;0.2401;0.0955;
1068.3000;0.2393;0.0979;
1068.6000;0.2409;0.1027;
1068.9000;0.2409;0.1027;
1069.2000;0.2409;0.1003;
1069.5000;0.2426;0.1003;
1069.8000;0.2393;0.1003;
1070.1000;0.2409;0.1122;
1070.4000;0.2393;0.1075;
1070.7000;0.2409;0.1027;
1071.0000;0.2401;0.1051;
1071.3000;0.2409;0.1075;
1071.6000;0.2393;0.1122;
1071.9000;0.2418;0.1242;
1072.2000;0.2418;0.1242;
1072.5000;0.2409;0.1194;
1072.8000;0.2418;0.1194;
1073.1000;0.2442;0.1122;
1073.4000;0.2426;0.1099;
1073.7000;0.2418;0.1027;
1074.0000;0.2418;0.1027;
1074.3000;0.2450;0.1075;
1074.6000;0.2418;0.1027;
1074.9000;0.2401;0.0955;
1075.2000;0.2418;0.1003;
1075.5000;0.2418;0.1027;
1075.8000;0.2409;0.0979;
1076.1000;0.2426;0.0979;
1076.4000;0.2401;0.1003;
1076.7000;0.2393;0.1003;
1077.0000;0.2401;0.1003;
1077.3000;0.2377;0.0955;
1077.6000;0.2401;0.1075;
1077.9000;0.2418;0.1051;
1078.2000;0.2401;0.1027;
1078.5000;0.2385;0.0955;
1078.8000;0.2401;0.0955;
1079.1000;0.2393;0.0979;
1079.4000;0.2393;0.0931;
1079.7000;0.2393;0.1003;
1080.0000;0.2401;0.1075;
1080.3000;0.2409;0.1075;
1080.6000;0.2385;0.1003;
1080.9000;0.2409;0.1051;
1081.2000;0.2409;0.1051;
1081.5000;0.2409;0.0979;
1081.8000;0.2401;0.0955;
1082.1000;0.2401;0.0955;
1082.4000;0.2426;0.0979;
1082.7000;0.2426;0.0860;
1083.0000;0.2418;0.0836;
1083.3000;0.2401;0.0860;
1083.6000;0.2458;0.0979;
1083.9000;0.2426;0.0955;
1084.2000;0.2418;0.0884;
1084.5000;0.2426;0.0979;
1084.8000;0.2418;0.0908;
1085.1000;0.2344;0.0812;
1085.4000;0.2409;0.0979;
1085.7000;0.2442;0.1051;
1086.0000;0.2385;0.1051;
1086.3000;0.2377;0.1003;
1086.6000;0.2409;0.1099;
1086.9000;0.2385;0.1051;
1087.2000;0.2393;0.1051;
1087.5000;0.2418;0.1194;
1087.8000;0.2409;0.1146;
1088.1000;0.2434;0.1242;
1088.4000;0.2418;0.1218;
1088.7000;0.2418;0.1194;
1089.0000;0.2434;0.1242;
1089.3000;0.2450;0.1266;
1089.6000;0.2409;0.1146;
1089.9000;0.2418;0.1146;
1090.2000;0.2418;0.1170;
1090.5000;0.2361;0.1003;
1090.8000;0.2401;0.1003;
1091.1000;0.2393;0.1075;
1091.4000;0.2393;0.1146;
1091.7000;0.2393;0.1122;
1092.0000;0.2385;0.1146;
1092.3000;0.2401;0.1146;
1092.6000;0.2409;0.1122;
1092.9000;0.2409;0.1051;
1093.2000;0.2393;0.1027;
1093.5000;0.2409;0.1075;
1093.8000;0.2426;0.1146;
1094.1000;0.2426;0.1122;
1094.4000;0.2409;0.1051;
1094.7000;0.2401;0.1075;
1095.0000;0.2418;0.1075;
1095.3000;0.2426;0.1075;
1095.6000;0.2401;0.1003;
1095.9000;0.2393;0.1003;
1096.2000;0.2385;0.0979;
1096.5000;0.2295;0.0693;
1096.8000;0.2409;0.0979;
1097.1000;0.2369;0.0860;
1097.4000;0.2426;0.0979;
1097.7000;0.2401;0.0979;
1098.0000;0.2409;0.1027;
1098.3000;0.2515;0.1290;
1098.6000;0.2409;0.1003;
1098.9000;0.2418;0.1099;
1099.2000;0.2426;0.1146;
1099.5000;0.2385;0.1051;
1099.8000;0.2418;0.1170;
1100.1000;0.2409;0.1146;
1100.4000;0.2409;0.1218;
1100.7000;0.2426;0.1266;
1101.0000;0.2401;0.1170;
1101.3000;0.2279;0.0884;
1101.6000;0.2401;0.1266;
1101.9000;0.2401;0.1242;
1102.2000;0.2409;0.1242;
1102.5000;0.2434;0.1242;
1102.8000;0.2418;0.1099;
1103.1000;0.2409;0.1146;
1103.4000;0.2483;0.1266;
1103.7000;0.2409;0.1027;
1104.0000;0.2426;0.1027;
1104.3000;0.2418;0.0979;
1104.6000;0.2409;0.0979;
1104.9000;0.2409;0.0955;
1105.2000;0.2418;0.1027;
1105.5000;0.2385;0.1075;
1105.8000;0.2418;0.1075;
1106.1000;0.2401;0.1075;
1106.4000;0.2385;0.1051;
1106.7000;0.2401;0.1051;
1107.0000;0.2491;0.1361;
1107.3000;0.2401;0.1075;
1107.6000;0.2426;0.1194;
1107.9000;0.2401;0.1194;
1108.2000;0.2426;0.1170;
1108.5000;0.2385;0.1027;
1108.8000;0.2418;0.1099;
1109.1000;0.2507;0.1361;
1109.4000;0.2393;0.1146;
1109.7000;0.2393;0.1099;
1110.0000;0.2401;0.1051;
1110.3000;0.2401;0.1003;
1110.6000;0.2393;0.1027;
1110.9000;0.2409;0.1075;
1111.2000;0.2401;0.1122;
1111.5000;0.2393;0.1122;
1111.8000;0.2385;0.1099;
1112.1000;0.2401;0.1170;
1112.4000;0.2352;0.1003;
1112.7000;0.2393;0.1075;
1113.0000;0.2401;0.1099;
1113.3000;0.2426;0.1194;
1113.6000;0.2418;0.1194;
1113.9000;0.2426;0.1122;
1114.2000;0.2401;0.1099;
1114.5000;0.2426;0.1170;
1114.8000;0.2442;0.1194;
1115.1000;0.2426;0.1099;
1115.4000;0.2418;0.1122;
1115.7000;0.2409;0.1266;
1116.0000;0.2385;0.1170;
1116.3000;0.2401;0.1194;
1116.6000;0.2409;0.1218;
1116.9000;0.2409;0.1146;
1117.2000;0.2369;0.1075;
1117.5000;0.2418;0.1122;
1117.8000;0.2401;0.1003;
1118.1000;0.2434;0.1003;
1118.4000;0.2442;0.1003;
1118.7000;0.2418;0.0908;
1119.0000;0.2418;0.0931;
1119.3000;0.2369;0.0740;
1119.6000;0.2409;0.0884;
1119.9000;0.2401;0.0955;
1120.2000;0.2361;0.0908;
1120.5000;0.2401;0.1003;
1120.8000;0.2401;0.0955;
1121.1000;0.2393;0.0908;
1121.4000;0.2393;0.0955;
1121.7000;0.2393;0.0955;
1122.0000;0.2393;0.1027;
1122.3000;0.2426;0.1099;
1122.6000;0.2409;0.1003;
1122.9000;0.2393;0.0955;
1123.2000;0.2401;0.1027;
1123.5000;0.2401;0.0979;
1123.8000;0.2426;0.1051;
1124.1000;0.2401;0.1146;
1124.4000;0.2418;0.1170;
1124.7000;0.2418;0.1099;
1125.0000;0.2418;0.1051;
1125.3000;0.2401;0.1075;
1125.6000;0.2409;0.1075;
1125.9000;0.2426;0.1170;
1126.2000;0.2393;0.1122;
1126.5000;0.2401;0.1099;
1126.8000;0.2279;0.0836;
1127.1000;0.2401;0.1146;
1127.4000;0.2418;0.1266;
1127.7000;0.2401;0.1218;
1128.0000;0.2385;0.1170;
1128.3000;0.2401;0.1218;
1128.6000;0.2385;0.1242;
1128.9000;0.2434;0.1314;
1129.2000;0.2393;0.1194;
1129.5000;0.2385;0.1146;
1129.8000;0.2393;0.1218;
1130.1000;0.2401;0.1266;
1130.4000;0.2401;0.1266;
1130.7000;0.2418;0.1242;
1131.0000;0.2401;0.1218;
1131.3000;0.2393;0.1242;
1131.6000;0.2393;0.1194;
1131.9000;0.2393;0.1146;
1132.2000;0.2401;0.1218;
1132.5000;0.2401;0.1266;
1132.8000;0.2385;0.1242;
1133.1000;0.2401;0.1290;
1133.4000;0.2458;0.1361;
1133.7000;0.2401;0.1266;
1134.0000;0.2401;0.1218;
1134.3000;0.2409;0.1314;
1134.6000;0.2418;0.1314;
1134.9000;0.2393;0.1170;
1135.2000;0.2385;0.1146;
1135.5000;0.2401;0.1194;
1135.8000;0.2385;0.1146;
1136.1000;0.2409;0.1194;
1136.4000;0.2295;0.0908;
1136.7000;0.2393;0.1266;
1137.0000;0.2426;0.1314;
1137.3000;0.2401;0.1194;
1137.6000;0.2401;0.1194;
1137.9000;0.2393;0.1146;
1138.2000;0.2393;0.1170;
1138.5000;0.2418;0.1218;
1138.8000;0.2426;0.1218;
1139.1000;0.2409;0.1314;
1139.4000;0.2418;0.1290;
1139.7000;0.2393;0.1194;
1140.0000;0.2393;0.1218;
1140.3000;0.2426;0.1218;
1140.6000;0.2393;0.1099;
1140.9000;0.2401;0.1146;
1141.2000;0.2409;0.1051;
1141.5000;0.2409;0.1051;
1141.8000;0.2377;0.1027;
1142.1000;0.2401;0.1003;
1142.4000;0.2385;0.1027;
1142.7000;0.2401;0.1051;
1143.0000;0.2393;0.1027;
1143.3000;0.2409;0.1003;
1143.6000;0.2401;0.0955;
1143.9000;0.2409;0.0931;
1144.2000;0.2393;0.0860;
1144.5000;0.2377;0.0740;
1144.8000;0.2401;0.0860;
1145.1000;0.2426;0.0979;
1145.4000;0.2409;0.1051;
1145.7000;0.2401;0.1122;
1146.0000;0.2409;0.1194;
1146.3000;0.2409;0.1099;
1146.6000;0.2385;0.1051;
1146.9000;0.2401;0.1051;
1147.2000;0.2418;0.1027;
1147.5000;0.2377;0.0931;
1147.8000;0.2418;0.1051;
1148.1000;0.2393;0.1051;
1148.4000;0.2409;0.1003;
1148.7000;0.2393;0.0931;
1149.0000;0.2409;0.0884;
1149.3000;0.2401;0.0931;
1149.6000;0.2409;0.0908;
1149.9000;0.2418;0.1003;
1150.2000;0.2458;0.1027;
1150.5000;0.2426;0.0955;
1150.8000;0.2409;0.0884;
1151.1000;0.2418;0.0884;
1151.4000;0.2483;0.1075;
1151.7000;0.2418;0.0931;
1152.0000;0.2409;0.0931;
1152.3000;0.2401;0.1027;
1152.6000;0.2401;0.0979;
1152.9000;0.2377;0.0955;
1153.2000;0.2418;0.1051;
1153.5000;0.2369;0.1003;
1153.8000;0.2434;0.1146;
1154.1000;0.2409;0.1099;
1154.4000;0.2393;0.1075;
1154.7000;0.2393;0.1146;
1155.0000;0.2401;0.1099;
1155.3000;0.2369;0.1051;
1155.6000;0.2393;0.0955;
1155.9000;0.2393;0.0836;
1156.2000;0.2385;0.0908;
1156.5000;0.2401;0.0931;
1156.8000;0.2409;0.0979;
1157.1000;0.2401;0.0931;
1157.4000;0.2393;0.0931;
1157.7000;0.2352;0.0836;
1158.0000;0.2426;0.0908;
1158.3000;0.2393;0.0836;
1158.6000;0.2393;0.0836;
1158.9000;0.2393;0.0788;
1159.2000;0.2377;0.0740;
1159.5000;0.2401;0.0836;
1159.8000;0.2393;0.0860;
1160.1000;0.2344;0.0740;
1160.4000;0.2450;0.1027;
1160.7000;0.2426;0.0931;
1161.0000;0.2409;0.0884;
1161.3000;0.2409;0.0908;
1161.6000;0.2418;0.1003;
1161.9000;0.2418;0.0908;
1162.2000;0.2418;0.0931;
1162.5000;0.2385;0.0836;
1162.8000;0.2401;0.0836;
1163.1000;0.2401;0.0788;
1163.4000;0.2385;0.0836;
1163.7000;0.2393;0.0908;
1164.0000;0.2401;0.1003;
1164.3000;0.2409;0.1099;
1164.6000;0.2401;0.1027;
1164.9000;0.2409;0.1027;
1165.2000;0.2409;0.1075;
1165.5000;0.2418;0.1003;
1165.8000;0.2409;0.0979;
1166.1000;0.2401;0.0979;
1166.4000;0.2352;0.0955;
1166.7000;0.2401;0.1051;
1167.0000;0.2393;0.0955;
1167.3000;0.2409;0.0979;
1167.6000;0.2401;0.1003;
1167.9000;0.2401;0.1027;
1168.2000;0.2426;0.1075;
1168.5000;0.2401;0.1027;
1168.8000;0.2385;0.1051;
1169.1000;0.2401;0.1051;
1169.4000;0.2434;0.1003;
1169.7000;0.2418;0.0931;
1170.0000;0.2426;0.0931;
1170.3000;0.2426;0.0908;
1170.6000;0.2418;0.0908;
1170.9000;0.2450;0.0979;
1171.2000;0.2393;0.0884;
1171.5000;0.2393;0.0836;
1171.8000;0.2393;0.0836;
1172.1000;0.2426;0.0812;
1172.4000;0.2369;0.0645;
1172.7000;0.2418;0.0716;
1173.0000;0.2401;0.0669;
1173.3000;0.2409;0.0669;
1173.6000;0.2393;0.0669;
1173.9000;0.2393;0.0645;
1174.2000;0.2426;0.0740;
1174.5000;0.2361;0.0597;
1174.8000;0.2401;0.0812;
1175.1000;0.2409;0.0860;
1175.4000;0.2450;0.0908;
1175.7000;0.2426;0.0908;
1176.0000;0.2458;0.0931;
1176.3000;0.2393;0.0764;
1176.6000;0.2426;0.0836;
1176.9000;0.2418;0.0884;
1177.2000;0.2393;0.0884;
1177.5000;0.2409;0.0908;
1177.8000;0.2393;0.0788;
1178.1000;0.2401;0.0860;
1178.4000;0.2475;0.0955;
1178.7000;0.2401;0.0764;
1179.0000;0.2418;0.0836;
1179.3000;0.2401;0.0812;
1179.6000;0.2418;0.0812;
1179.9000;0.2409;0.0860;
1180.2000;0.2401;0.0836;
1180.5000;0.2426;0.0908;
1180.8000;0.2409;0.0860;
1181.1000;0.2401;0.0836;
1181.4000;0.2401;0.0860;
1181.7000;0.2409;0.0884;
1182.0000;0.2393;0.0884;
1182.3000;0.2409;0.0884;
1182.6000;0.2393;0.0860;
1182.9000;0.2393;0.0836;
1183.2000;0.2393;0.0812;
1183.5000;0.2401;0.0908;
1183.8000;0.2393;0.0860;
1184.1000;0.2393;0.0788;
1184.4000;0.2393;0.0716;
1184.7000;0.2393;0.0693;
1185.0000;0.2409;0.0716;
1185.3000;0.2434;0.0788;
1185.6000;0.2401;0.0764;
1185.9000;0.2401;0.0740;
1186.2000;0.2418;0.0716;
1186.5000;0.2409;0.0693;
1186.8000;0.2401;0.0740;
1187.1000;0.2409;0.0740;
1187.4000;0.2401;0.0740;
1187.7000;0.2393;0.0597;
1188.0000;0.2426;0.0621;
1188.3000;0.2344;0.0454;
1188.6000;0.2385;0.0597;
1188.9000;0.2401;0.0645;
1189.2000;0.2418;0.0645;
1189.5000;0.2377;0.0716;
1189.8000;0.2409;0.0764;
1190.1000;0.2393;0.0812;
1190.4000;0.2491;0.1122;
1190.7000;0.2393;0.0931;
1191.0000;0.2336;0.0764;
1191.3000;0.2320;0.0669;
1191.6000;0.2401;0.0788;
1191.9000;0.2434;0.0836;
1192.2000;0.2418;0.0812;
1192.5000;0.2409;0.0788;
1192.8000;0.2409;0.0836;
1193.1000;0.2377;0.0764;
1193.4000;0.2385;0.0836;
1193.7000;0.2401;0.0955;
1194.0000;0.2393;0.0931;
1194.3000;0.2385;0.0860;
1194.6000;0.2401;0.0884;
1194.9000;0.2409;0.0884;
1195.2000;0.2393;0.0884;
1195.5000;0.2385;0.0764;
1195.8000;0.2401;0.0860;
1196.1000;0.2409;0.0836;
1196.4000;0.2401;0.0908;
1196.7000;0.2418;0.0955;
1197.0000;0.2450;0.1027;
1197.3000;0.2434;0.1099;
1197.6000;0.2450;0.1099;
1197.9000;0.2426;0.1003;
1198.2000;0.2418;0.1003;
1198.5000;0.2442;0.1075;
1198.8000;0.2409;0.1003;
1199.1000;0.2409;0.0908;
1199.4000;0.2393;0.0908;
1199.7000;0.2418;0.0931;
1200.0000;0.2409;0.0884;
1200.3000;0.2385;0.0788;
1200.6000;0.2442;0.0836;
1200.9000;0.2401;0.0764;
1201.2000;0.2409;0.0836;
1201.5000;0.2401;0.0812;
1201.8000;0.2385;0.0693;
1202.1000;0.2401;0.0669;
1202.4000;0.2409;0.0693;
1202.7000;0.2409;0.0740;
1203.0000;0.2320;0.0597;
1203.3000;0.2401;0.0812;
1203.6000;0.2352;0.0716;
1203.9000;0.2409;0.0836;
1204.2000;0.2499;0.1027;
1204.5000;0.2393;0.0740;
1204.8000;0.2401;0.0788;
1205.1000;0.2409;0.0836;
1205.4000;0.2409;0.0908;
1205.7000;0.2401;0.0836;
1206.0000;0.2401;0.0740;
1206.3000;0.2426;0.0788;
1206.6000;0.2409;0.0788;
1206.9000;0.2393;0.0788;
1207.2000;0.2401;0.0788;
1207.5000;0.2401;0.0812;
1207.8000;0.2426;0.0716;
1208.1000;0.2418;0.0740;
1208.4000;0.2385;0.0645;
1208.7000;0.2369;0.0621;
1209.0000;0.2466;0.0979;
1209.3000;0.2393;0.0860;
1209.6000;0.2401;0.0860;
1209.9000;0.2401;0.0908;
1210.2000;0.2409;0.0931;
1210.5000;0.2418;0.1003;
1210.8000;0.2377;0.0836;
1211.1000;0.2393;0.0836;
1211.4000;0.2418;0.0908;
1211.7000;0.2426;0.0908;
1212.0000;0.2409;0.0860;
1212.3000;0.2344;0.0788;
1212.6000;0.2401;0.0884;
1212.9000;0.2393;0.0908;
1213.2000;0.2401;0.0836;
1213.5000;0.2401;0.0884;
1213.8000;0.2409;0.0908;
1214.1000;0.2401;0.1051;
1214.4000;0.2393;0.1051;
1214.7000;0.2418;0.1075;
1215.0000;0.2393;0.1099;
1215.3000;0.2475;0.1361;
1215.6000;0.2393;0.1194;
1215.9000;0.2401;0.1194;
1216.2000;0.2393;0.1146;
1216.5000;0.2434;0.1170;
1216.8000;0.2409;0.1099;
1217.1000;0.2409;0.1122;
1217.4000;0.2442;0.1314;
1217.7000;0.2426;0.1194;
1218.0000;0.2418;0.1170;
1218.3000;0.2409;0.1051;
1218.6000;0.2401;0.1003;
1218.9000;0.2393;0.0955;
1219.2000;0.2409;0.0979;
1219.5000;0.2409;0.0931;
1219.8000;0.2409;0.0979;
1220.1000;0.2418;0.0955;
1220.4000;0.2418;0.0979;
1220.7000;0.2393;0.1003;
1221.0000;0.2409;0.1051;
1221.3000;0.2426;0.1075;
1221.6000;0.2401;0.1051;
1221.9000;0.2426;0.1051;
1222.2000;0.2418;0.0955;
1222.5000;0.2418;0.0955;
1222.8000;0.2409;0.0955;
1223.1000;0.2393;0.0979;
1223.4000;0.2418;0.1051;
1223.7000;0.2418;0.1122;
1224.0000;0.2352;0.0979;
1224.3000;0.2385;0.1027;
1224.6000;0.2401;0.1051;
1224.9000;0.2287;0.0740;
1225.2000;0.2409;0.0955;
1225.5000;0.2304;0.0716;
1225.8000;0.2409;0.1051;
1226.1000;0.2426;0.1099;
1226.4000;0.2393;0.1027;
1226.7000;0.2401;0.1051;
1227.0000;0.2426;0.1051;
1227.3000;0.2434;0.1075;
1227.6000;0.2401;0.1003;
1227.9000;0.2418;0.1122;
1228.2000;0.2418;0.1051;
1228.5000;0.2401;0.1003;
1228.8000;0.2409;0.1027;
1229.1000;0.2418;0.1051;
1229.4000;0.2409;0.0931;
1229.7000;0.2385;0.0931;
1230.0000;0.2426;0.1075;
1230.3000;0.2458;0.1266;
1230.6000;0.2409;0.1194;
1230.9000;0.2418;0.1122;
1231.2000;0.2418;0.1051;
1231.5000;0.2393;0.1027;
1231.8000;0.2401;0.1099;
1232.1000;0.2409;0.1122;
1232.4000;0.2426;0.1099;
1232.7000;0.2418;0.1051;
1233.0000;0.2458;0.1218;
1233.3000;0.2369;0.1003;
1233.6000;0.2409;0.1170;
1233.9000;0.2418;0.1194;
1234.2000;0.2409;0.1146;
1234.5000;0.2409;0.1122;
1234.8000;0.2409;0.1146;
1235.1000;0.2401;0.1170;
1235.4000;0.2385;0.1099;
1235.7000;0.2401;0.1194;
1236.0000;0.2426;0.1218;
1236.3000;0.2393;0.1051;
1236.6000;0.2352;0.0908;
1236.9000;0.2401;0.0955;
1237.2000;0.2409;0.0931;
1237.5000;0.2418;0.0884;
1237.8000;0.2426;0.0908;
1238.1000;0.2426;0.0931;
1238.4000;0.2418;0.0884;
1238.7000;0.2409;0.0860;
1239.0000;0.2385;0.0836;
1239.3000;0.2409;0.0836;
1239.6000;0.2418;0.0955;
1239.9000;0.2401;0.0931;
1240.2000;0.2409;0.0908;
1240.5000;0.2393;0.0740;
1240.8000;0.2442;0.0740;
1241.1000;0.2434;0.0836;
1241.4000;0.2401;0.0740;
1241.7000;0.2401;0.0788;
1242.0000;0.2393;0.0740;
1242.3000;0.2418;0.0788;
1242.6000;0.2393;0.0788;
1242.9000;0.2418;0.0860;
1243.2000;0.2426;0.0931;
1243.5000;0.2426;0.0836;
1243.8000;0.2442;0.0812;
1244.1000;0.2434;0.0716;
1244.4000;0.2377;0.0669;
1244.7000;0.2426;0.0884;
1245.0000;0.2409;0.0884;
1245.3000;0.2401;0.0884;
1245.6000;0.2409;0.0788;
1245.9000;0.2418;0.0836;
1246.2000;0.2418;0.0812;
1246.5000;0.2385;0.0836;
1246.8000;0.2393;0.1003;
1247.1000;0.2385;0.0908;
1247.4000;0.2401;0.0908;
1247.7000;0.2426;0.1003;
1248.0000;0.2418;0.1003;
1248.3000;0.2409;0.0931;
1248.6000;0.2409;0.0931;
1248.9000;0.2401;0.0955;
1249.2000;0.2344;0.0716;
1249.5000;0.2483;0.1051;
1249.8000;0.2418;0.0979;
1250.1000;0.2426;0.0931;
1250.4000;0.2393;0.0908;
1250.7000;0.2401;0.1003;
1251.0000;0.2352;0.0836;
1251.3000;0.2426;0.1051;
1251.6000;0.2418;0.1075;
1251.9000;0.2434;0.1146;
1252.2000;0.2320;0.0812;
1252.5000;0.2418;0.1027;
1252.8000;0.2426;0.1122;
1253.1000;0.2434;0.1099;
1253.4000;0.2401;0.0955;
1253.7000;0.2418;0.1003;
1254.0000;0.2418;0.0979;
1254.3000;0.2409;0.0931;
1254.6000;0.2409;0.1003;
1254.9000;0.2426;0.1027;
1255.2000;0.2418;0.1075;
1255.5000;0.2393;0.0979;
1255.8000;0.2401;0.0955;
1256.1000;0.2409;0.0979;
1256.4000;0.2401;0.0955;
1256.7000;0.2401;0.1003;
1257.0000;0.2377;0.1027;
1257.3000;0.2409;0.0955;
1257.6000;0.2409;0.0931;
1257.9000;0.2385;0.0908;
1258.2000;0.2401;0.1003;
1258.5000;0.2409;0.1099;
1258.8000;0.2426;0.1099;
1259.1000;0.2409;0.1051;
1259.4000;0.2409;0.1051;
1259.7000;0.2320;0.0836;
1260.0000;0.2401;0.1099;
1260.3000;0.2393;0.1099;
1260.6000;0.2393;0.1027;
1260.9000;0.2426;0.1075;
1261.2000;0.2401;0.1027;
1261.5000;0.2409;0.1027;
1261.8000;0.2393;0.1003;
1262.1000;0.2393;0.1003;
1262.4000;0.2393;0.0955;
1262.7000;0.2418;0.1027;
1263.0000;0.2409;0.0979;
1263.3000;0.2401;0.1003;
1263.6000;0.2409;0.0908;
1263.9000;0.2393;0.0884;
1264.2000;0.2426;0.0955;
1264.5000;0.2426;0.0931;
1264.8000;0.2320;0.0645;
1265.1000;0.2418;0.0860;
1265.4000;0.2418;0.0884;
1265.7000;0.2434;0.1003;
1266.0000;0.2393;0.0908;
1266.3000;0.2458;0.1122;
1266.6000;0.2401;0.0931;
1266.9000;0.2418;0.1003;
1267.2000;0.2401;0.1051;
1267.5000;0.2377;0.1027;
1267.8000;0.2401;0.1051;
1268.1000;0.2418;0.1122;
1268.4000;0.2426;0.1146;
1268.7000;0.2418;0.1027;
1269.0000;0.2434;0.1122;
1269.3000;0.2426;0.1146;
1269.6000;0.2418;0.1194;
1269.9000;0.2418;0.1218;
1270.2000;0.2385;0.1146;
1270.5000;0.2418;0.1194;
1270.8000;0.2450;0.1266;
1271.1000;0.2418;0.1146;
1271.4000;0.2409;0.1146;
1271.7000;0.2418;0.1099;
1272.0000;0.2401;0.1075;
1272.3000;0.2418;0.1122;
1272.6000;0.2418;0.1242;
1272.9000;0.2361;0.1027;
1273.2000;0.2393;0.1099;
1273.5000;0.2385;0.0955;
1273.8000;0.2409;0.0979;
1274.1000;0.2409;0.1003;
1274.4000;0.2418;0.1027;
1274.7000;0.2401;0.1003;
1275.0000;0.2442;0.1027;
1275.3000;0.2442;0.0931;
1275.6000;0.2418;0.0836;
1275.9000;0.2385;0.0764;
1276.2000;0.2377;0.0621;
1276.5000;0.2442;0.0788;
1276.8000;0.2418;0.0788;
1277.1000;0.2409;0.0860;
1277.4000;0.2393;0.0860;
1277.7000;0.2418;0.0955;
1278.0000;0.2426;0.0931;
1278.3000;0.2426;0.0884;
1278.6000;0.2401;0.0788;
1278.9000;0.2409;0.0860;
1279.2000;0.2434;0.0812;
1279.5000;0.2426;0.0812;
1279.8000;0.2426;0.0860;
1280.1000;0.2287;0.0478;
1280.4000;0.2401;0.0740;
1280.7000;0.2409;0.0669;
1281.0000;0.2434;0.0669;
1281.3000;0.2466;0.0836;
1281.6000;0.2409;0.0669;
1281.9000;0.2361;0.0573;
1282.2000;0.2393;0.0669;
1282.5000;0.2393;0.0716;
1282.8000;0.2393;0.0812;
1283.1000;0.2401;0.0836;
1283.4000;0.2393;0.0764;
1283.7000;0.2385;0.0788;
1284.0000;0.2409;0.0836;
1284.3000;0.2426;0.1003;
1284.6000;0.2393;0.0931;
1284.9000;0.2385;0.0908;
1285.2000;0.2418;0.0908;
1285.5000;0.2401;0.0908;
1285.8000;0.2418;0.0908;
1286.1000;0.2409;0.1003;
1286.4000;0.2434;0.0979;
1286.7000;0.2369;0.0812;
1287.0000;0.2385;0.0908;
1287.3000;0.2361;0.0908;
1287.6000;0.2418;0.0979;
1287.9000;0.2393;0.0955;
1288.2000;0.2426;0.0979;
1288.5000;0.2401;0.0955;
1288.8000;0.2409;0.0931;
1289.1000;0.2401;0.0931;
1289.4000;0.2418;0.0908;
1289.7000;0.2418;0.0908;
1290.0000;0.2418;0.0931;
1290.3000;0.2450;0.0955;
1290.6000;0.2466;0.1051;
1290.9000;0.2401;0.0931;
1291.2000;0.2401;0.0908;
1291.5000;0.2385;0.0908;
1291.8000;0.2393;0.0931;
1292.1000;0.2426;0.1051;
1292.4000;0.2401;0.0955;
1292.7000;0.2450;0.1003;
1293.0000;0.2426;0.1003;
1293.3000;0.2499;0.1146;
1293.6000;0.2409;0.0908;
1293.9000;0.2385;0.0908;
1294.2000;0.2426;0.1075;
1294.5000;0.2401;0.1003;
1294.8000;0.2426;0.1051;
1295.1000;0.2418;0.0979;
1295.4000;0.2409;0.0955;
1295.7000;0.2418;0.0908;
1296.0000;0.2426;0.0955;
1296.3000;0.2385;0.0931;
1296.6000;0.2409;0.0955;
1296.9000;0.2385;0.0860;
1297.2000;0.2393;0.0908;
1297.5000;0.2418;0.0908;
1297.8000;0.2393;0.0908;
1298.1000;0.2393;0.0908;
1298.4000;0.2393;0.0836;
1298.7000;0.2418;0.0979;
1299.0000;0.2409;0.1027;
1299.3000;0.2418;0.1051;
1299.6000;0.2377;0.0955;
1299.9000;0.2450;0.1075;
1300.2000;0.2434;0.0979;
1300.5000;0.2377;0.0884;
1300.8000;0.2426;0.1027;
1301.1000;0.2418;0.0955;
1301.4000;0.2409;0.1003;
1301.7000;0.2401;0.0955;
1302.0000;0.2409;0.0931;
1302.3000;0.2434;0.1003;
1302.6000;0.2369;0.0860;
1302.9000;0.2409;0.0955;
1303.2000;0.2409;0.0884;
1303.5000;0.2401;0.0908;
1303.8000;0.2409;0.0931;
1304.1000;0.2385;0.0955;
1304.4000;0.2393;0.1075;
1304.7000;0.2393;0.1075;
1305.0000;0.2401;0.1075;
1305.3000;0.2409;0.1051;
1305.6000;0.2458;0.1170;
1305.9000;0.2344;0.0931;
1306.2000;0.2434;0.1146;
1306.5000;0.2483;0.1242;
1306.8000;0.2426;0.1146;
1307.1000;0.2401;0.1146;
1307.4000;0.2491;0.1409;
1307.7000;0.2409;0.1099;
1308.0000;0.2409;0.1075;
1308.3000;0.2442;0.1170;
1308.6000;0.2450;0.1146;
1308.9000;0.2344;0.0908;
1309.2000;0.2385;0.0979;
1309.5000;0.2458;0.1075;
1309.8000;0.2426;0.1003;
1310.1000;0.2458;0.1146;
1310.4000;0.2401;0.1003;
1310.7000;0.2409;0.0955;
1311.0000;0.2409;0.0979;
1311.3000;0.2434;0.1003;
1311.6000;0.2426;0.0955;
1311.9000;0.2409;0.0979;
1312.2000;0.2409;0.1003;
1312.5000;0.2418;0.1027;
1312.8000;0.2377;0.0884;
1313.1000;0.2393;0.0860;
1313.4000;0.2385;0.0884;
1313.7000;0.2418;0.0884;
1314.0000;0.2401;0.0884;
1314.3000;0.2418;0.0908;
1314.6000;0.2409;0.1003;
1314.9000;0.2401;0.0884;
1315.2000;0.2401;0.0955;
1315.5000;0.2418;0.1099;
1315.8000;0.2377;0.1027;
1316.1000;0.2409;0.1122;
1316.4000;0.2401;0.1170;
1316.7000;0.2409;0.1170;
1317.0000;0.2377;0.1099;
1317.3000;0.2434;0.1194;
1317.6000;0.2418;0.1194;
1317.9000;0.2450;0.1385;
1318.2000;0.2401;0.1314;
1318.5000;0.2401;0.1314;
1318.8000;0.2385;0.1218;
1319.1000;0.2409;0.1194;
1319.4000;0.2418;0.1170;
1319.7000;0.2409;0.1122;
1320.0000;0.2385;0.1027;
1320.3000;0.2401;0.1003;
1320.6000;0.2369;0.0836;
1320.9000;0.2434;0.1075;
1321.2000;0.2426;0.1003;
1321.5000;0.2418;0.1027;
1321.8000;0.2434;0.1099;
1322.1000;0.2393;0.1075;
1322.4000;0.2434;0.1146;
1322.7000;0.2369;0.1027;
1323.0000;0.2409;0.1075;
1323.3000;0.2393;0.1051;
1323.6000;0.2401;0.1075;
1323.9000;0.2434;0.1075;
1324.2000;0.2409;0.1075;
1324.5000;0.2491;0.1266;
1324.8000;0.2418;0.1099;
1325.1000;0.2385;0.1146;
1325.4000;0.2401;0.1194;
1325.7000;0.2401;0.1194;
1326.0000;0.2401;0.1170;
1326.3000;0.2418;0.1170;
1326.6000;0.2426;0.1218;
1326.9000;0.2418;0.1122;
1327.2000;0.2409;0.1003;
1327.5000;0.2458;0.1122;
1327.8000;0.2409;0.1003;
1328.1000;0.2409;0.1099;
1328.4000;0.2393;0.1146;
1328.7000;0.2409;0.1027;
1329.0000;0.2426;0.1027;
1329.3000;0.2385;0.0979;
1329.6000;0.2418;0.1099;
1329.9000;0.2377;0.0979;
1330.2000;0.2426;0.1003;
1330.5000;0.2426;0.1027;
1330.8000;0.2409;0.1003;
1331.1000;0.2401;0.0979;
1331.4000;0.2401;0.0955;
1331.7000;0.2385;0.0955;
1332.0000;0.2409;0.0979;
1332.3000;0.2434;0.0884;
1332.6000;0.2336;0.0645;
1332.9000;0.2385;0.0836;
1333.2000;0.2426;0.0979;
1333.5000;0.2401;0.0884;
1333.8000;0.2418;0.0931;
1334.1000;0.2426;0.1027;
1334.4000;0.2426;0.1146;
1334.7000;0.2434;0.1146;
1335.0000;0.2418;0.1099;
1335.3000;0.2450;0.1218;
1335.6000;0.2418;0.1194;
1335.9000;0.2409;0.1146;
1336.2000;0.2361;0.0979;
1336.5000;0.2426;0.1099;
1336.8000;0.2409;0.1146;
1337.1000;0.2418;0.1099;
1337.4000;0.2401;0.1027;
1337.7000;0.2401;0.1027;
1338.0000;0.2401;0.1051;
1338.3000;0.2409;0.1099;
1338.6000;0.2409;0.1146;
1338.9000;0.2401;0.1122;
1339.2000;0.2393;0.1051;
1339.5000;0.2336;0.0931;
1339.8000;0.2401;0.1075;
1340.1000;0.2426;0.1099;
1340.4000;0.2434;0.1099;
1340.7000;0.2426;0.1170;
1341.0000;0.2418;0.1099;
1341.3000;0.2377;0.1099;
1341.6000;0.2418;0.1146;
1341.9000;0.2409;0.1099;
1342.2000;0.2442;0.1099;
1342.5000;0.2385;0.0979;
1342.8000;0.2409;0.1099;
1343.1000;0.2401;0.1146;
1343.4000;0.2491;0.1385;
1343.7000;0.2426;0.1242;
1344.0000;0.2442;0.1337;
1344.3000;0.2393;0.1290;
1344.6000;0.2393;0.1170;
1344.9000;0.2450;0.1266;
1345.2000;0.2409;0.1194;
1345.5000;0.2393;0.1122;
1345.8000;0.2409;0.1122;
1346.1000;0.2515;0.1361;
1346.4000;0.2409;0.1075;
1346.7000;0.2426;0.1075;
1347.0000;0.2507;0.1194;
1347.3000;0.2393;0.0931;
1347.6000;0.2385;0.1027;
1347.9000;0.2418;0.1003;
1348.2000;0.2418;0.1051;
1348.5000;0.2458;0.1194;
1348.8000;0.2418;0.1075;
1349.1000;0.2393;0.1099;
1349.4000;0.2458;0.1194;
1349.7000;0.2434;0.1075;
1350.0000;0.2418;0.1146;
1350.3000;0.2401;0.1051;
1350.6000;0.2426;0.1122;
1350.9000;0.2409;0.1051;
1351.2000;0.2418;0.1075;
1351.5000;0.2409;0.1051;
1351.8000;0.2409;0.1051;
1352.1000;0.2434;0.1099;
1352.4000;0.2401;0.1003;
1352.7000;0.2434;0.1051;
1353.0000;0.2409;0.1051;
1353.3000;0.2418;0.1075;
1353.6000;0.2418;0.1051;
1353.9000;0.2418;0.1027;
1354.2000;0.2393;0.1027;
1354.5000;0.2320;0.0812;
1354.8000;0.2418;0.1003;
1355.1000;0.2418;0.1122;
1355.4000;0.2385;0.1027;
1355.7000;0.2458;0.1242;
1356.0000;0.2279;0.0740;
1356.3000;0.2409;0.1003;
1356.6000;0.2434;0.1027;
1356.9000;0.2393;0.0908;
1357.2000;0.2434;0.1027;
1357.5000;0.2418;0.1027;
1357.8000;0.2418;0.1075;
1358.1000;0.2377;0.1027;
1358.4000;0.2401;0.1027;
1358.7000;0.2418;0.1003;
1359.0000;0.2393;0.1003;
1359.3000;0.2393;0.1027;
1359.6000;0.2426;0.1075;
1359.9000;0.2426;0.1051;
1360.2000;0.2409;0.1075;
1360.5000;0.2418;0.1099;
1360.8000;0.2336;0.1003;
1361.1000;0.2393;0.1170;
1361.4000;0.2426;0.1146;
1361.7000;0.2532;0.1409;
1362.0000;0.2385;0.1099;
1362.3000;0.2426;0.1122;
1362.6000;0.2418;0.1099;
1362.9000;0.2409;0.0979;
1363.2000;0.2409;0.1051;
1363.5000;0.2393;0.0955;
1363.8000;0.2418;0.0931;
1364.1000;0.2401;0.0908;
1364.4000;0.2409;0.1003;
1364.7000;0.2426;0.1075;
1365.0000;0.2409;0.1027;
1365.3000;0.2409;0.1122;
1365.6000;0.2393;0.1194;
1365.9000;0.2287;0.0812;
1366.2000;0.2409;0.1051;
1366.5000;0.2401;0.1027;
1366.8000;0.2409;0.1027;
1367.1000;0.2523;0.1337;
1367.4000;0.2418;0.1003;
1367.7000;0.2393;0.0955;
1368.0000;0.2450;0.1051;
1368.3000;0.2426;0.0931;
1368.6000;0.2418;0.0979;
1368.9000;0.2434;0.0979;
1369.2000;0.2393;0.0955;
1369.5000;0.2385;0.0884;
1369.8000;0.2393;0.0931;
1370.1000;0.2434;0.0979;
1370.4000;0.2409;0.0908;
1370.7000;0.2401;0.0955;
1371.0000;0.2475;0.1146;
1371.3000;0.2434;0.1051;
1371.6000;0.2409;0.1003;
1371.9000;0.2401;0.0955;
1372.2000;0.2426;0.0979;
1372.5000;0.2418;0.1075;
1372.8000;0.2418;0.0931;
1373.1000;0.2418;0.0908;
1373.4000;0.2352;0.0669;
1373.7000;0.2401;0.0836;
1374.0000;0.2401;0.0908;
1374.3000;0.2426;0.0955;
1374.6000;0.2393;0.0836;
1374.9000;0.2401;0.0908;
1375.2000;0.2401;0.0884;
1375.5000;0.2401;0.0908;
1375.8000;0.2385;0.0979;
1376.1000;0.2393;0.1075;
1376.4000;0.2393;0.0979;
1376.7000;0.2401;0.0884;
1377.0000;0.2434;0.1003;
1377.3000;0.2409;0.0931;
1377.6000;0.2393;0.0931;
1377.9000;0.2418;0.0931;
1378.2000;0.2401;0.0979;
1378.5000;0.2401;0.0908;
1378.8000;0.2377;0.0884;
1379.1000;0.2418;0.0931;
1379.4000;0.2418;0.0955;
1379.7000;0.2409;0.1003;
1380.0000;0.2434;0.1075;
1380.3000;0.2385;0.0908;
1380.6000;0.2434;0.0979;
1380.9000;0.2409;0.0931;
1381.2000;0.2393;0.0908;
1381.5000;0.2401;0.0931;
1381.8000;0.2409;0.0884;
1382.1000;0.2418;0.0931;
1382.4000;0.2393;0.0860;
1382.7000;0.2336;0.0645;
1383.0000;0.2409;0.0860;
1383.3000;0.2409;0.0860;
1383.6000;0.2466;0.1075;
1383.9000;0.2393;0.0860;
1384.2000;0.2344;0.0740;
1384.5000;0.2393;0.0788;
1384.8000;0.2401;0.0836;
1385.1000;0.2466;0.1003;
1385.4000;0.2475;0.1051;
1385.7000;0.2409;0.0860;
1386.0000;0.2409;0.0908;
1386.3000;0.2418;0.0979;
1386.6000;0.2418;0.1003;
1386.9000;0.2418;0.0955;
1387.2000;0.2401;0.0955;
1387.5000;0.2418;0.1146;
1387.8000;0.2418;0.1122;
1388.1000;0.2409;0.1170;
1388.4000;0.2418;0.1099;
1388.7000;0.2409;0.1099;
1389.0000;0.2409;0.1099;
1389.3000;0.2401;0.1027;
1389.6000;0.2418;0.1099;
1389.9000;0.2401;0.1099;
1390.2000;0.2401;0.1170;
1390.5000;0.2409;0.1242;
1390.8000;0.2385;0.1122;
1391.1000;0.2418;0.1099;
1391.4000;0.2483;0.1242;
1391.7000;0.2401;0.1075;
1392.0000;0.2401;0.1170;
1392.3000;0.2393;0.1122;
1392.6000;0.2393;0.1122;
1392.9000;0.2418;0.1099;
1393.2000;0.2418;0.1075;
1393.5000;0.2409;0.1027;
1393.8000;0.2409;0.1027;
1394.1000;0.2409;0.0955;
1394.4000;0.2409;0.0931;
1394.7000;0.2426;0.0931;
1395.0000;0.2401;0.0884;
1395.3000;0.2393;0.0836;
1395.6000;0.2418;0.0860;
1395.9000;0.2418;0.0812;
1396.2000;0.2409;0.0764;
1396.5000;0.2393;0.0764;
1396.8000;0.2409;0.0860;
1397.1000;0.2426;0.0908;
1397.4000;0.2409;0.0788;
1397.7000;0.2418;0.0812;
1398.0000;0.2409;0.0884;
1398.3000;0.2401;0.0908;
1398.6000;0.2426;0.0955;
1398.9000;0.2418;0.0979;
1399.2000;0.2418;0.1027;
1399.5000;0.2434;0.0931;
1399.8000;0.2426;0.0884;
