time/ms;Fluo/V;P700 deltaI/I x10³;
-199.8000;0.2385;0.0716;
-199.5000;0.2409;0.0812;
-199.2000;0.2401;0.0836;
-198.9000;0.2466;0.0955;
-198.6000;0.2409;0.0764;
-198.3000;0.2385;0.0740;
-198.0000;0.2401;0.0860;
-197.7000;0.2418;0.0860;
-197.4000;0.2401;0.0884;
-197.1000;0.2401;0.0860;
-196.8000;0.2409;0.0908;
-196.5000;0.2458;0.1003;
-196.2000;0.2361;0.0764;
-195.9000;0.2385;0.0931;
-195.6000;0.2409;0.0979;
-195.3000;0.2401;0.0860;
-195.0000;0.2385;0.0764;
-194.7000;0.2393;0.0812;
-194.4000;0.2401;0.0884;
-194.1000;0.2409;0.0955;
-193.8000;0.2409;0.0979;
-193.5000;0.2385;0.0908;
-193.2000;0.2401;0.0955;
-192.9000;0.2466;0.1122;
-192.6000;0.2409;0.0955;
-192.3000;0.2409;0.0955;
-192.0000;0.2385;0.0860;
-191.7000;0.2401;0.0812;
-191.4000;0.2401;0.0740;
-191.1000;0.2409;0.0693;
-190.8000;0.2401;0.0645;
-190.5000;0.2393;0.0693;
-190.2000;0.2352;0.0573;
-189.9000;0.2377;0.0693;
-189.6000;0.2385;0.0693;
-189.3000;0.2409;0.0740;
-189.0000;0.2426;0.0716;
-188.7000;0.2393;0.0573;
-188.4000;0.2401;0.0549;
-188.1000;0.2393;0.0621;
-187.8000;0.2401;0.0716;
-187.5000;0.2426;0.0836;
-187.2000;0.2393;0.0788;
-186.9000;0.2409;0.0884;
-186.6000;0.2393;0.0860;
-186.3000;0.2393;0.0884;
-186.0000;0.2385;0.0812;
-185.7000;0.2401;0.0836;
-185.4000;0.2393;0.0812;
-185.1000;0.2426;0.0812;
-184.8000;0.2418;0.0836;
-184.5000;0.2409;0.0812;
-184.2000;0.2401;0.0740;
-183.9000;0.2385;0.0716;
-183.6000;0.2385;0.0740;
-183.3000;0.2385;0.0812;
-183.0000;0.2352;0.0740;
-182.7000;0.2409;0.0908;
-182.4000;0.2401;0.0931;
-182.1000;0.2401;0.0955;
-181.8000;0.2418;0.0860;
-181.5000;0.2393;0.0764;
-181.2000;0.2418;0.0860;
-180.9000;0.2418;0.0908;
-180.6000;0.2401;0.0860;
-180.3000;0.2369;0.0955;
-180.0000;0.2393;0.0979;
-179.7000;0.2401;0.0955;
-179.4000;0.2401;0.0908;
-179.1000;0.2401;0.0908;
-178.8000;0.2393;0.0908;
-178.5000;0.2409;0.0908;
-178.2000;0.2401;0.0884;
-177.9000;0.2418;0.0955;
-177.6000;0.2409;0.0979;
-177.3000;0.2409;0.1027;
-177.0000;0.2418;0.1051;
-176.7000;0.2401;0.0884;
-176.4000;0.2393;0.0812;
-176.1000;0.2401;0.0836;
-175.8000;0.2385;0.0764;
-175.5000;0.2401;0.0812;
-175.2000;0.2393;0.0836;
-174.9000;0.2434;0.1051;
-174.6000;0.2418;0.1027;
-174.3000;0.2409;0.1003;
-174.0000;0.2385;0.1075;
-173.7000;0.2336;0.0955;
-173.4000;0.2409;0.1075;
-173.1000;0.2409;0.1075;
-172.8000;0.2393;0.1099;
-172.5000;0.2385;0.1003;
-172.2000;0.2401;0.0979;
-171.9000;0.2393;0.0884;
-171.6000;0.2409;0.0908;
-171.3000;0.2418;0.0884;
-171.0000;0.2393;0.0884;
-170.7000;0.2418;0.0860;
-170.4000;0.2409;0.0836;
-170.1000;0.2328;0.0645;
-169.8000;0.2393;0.0908;
-169.5000;0.2434;0.1051;
-169.2000;0.2393;0.0908;
-168.9000;0.2426;0.1051;
-168.6000;0.2393;0.0955;
-168.3000;0.2401;0.1027;
-168.0000;0.2401;0.0979;
-167.7000;0.2458;0.1122;
-167.4000;0.2385;0.0884;
-167.1000;0.2426;0.1051;
-166.8000;0.2401;0.1027;
-166.5000;0.2401;0.1051;
-166.2000;0.2385;0.1003;
-165.9000;0.2401;0.1122;
-165.6000;0.2377;0.1051;
-165.3000;0.2385;0.1075;
-165.0000;0.2393;0.1099;
-164.7000;0.2401;0.1075;
-164.4000;0.2393;0.1122;
-164.1000;0.2418;0.1051;
-163.8000;0.2401;0.1027;
-163.5000;0.2532;0.1337;
-163.2000;0.2418;0.1003;
-162.9000;0.2418;0.0931;
-162.6000;0.2393;0.0908;
-162.3000;0.2385;0.0860;
-162.0000;0.2287;0.0525;
-161.7000;0.2385;0.0836;
-161.4000;0.2418;0.0884;
-161.1000;0.2377;0.0812;
-160.8000;0.2393;0.0884;
-160.5000;0.2442;0.1027;
-160.2000;0.2385;0.0836;
-159.9000;0.2393;0.0764;
-159.6000;0.2418;0.0740;
-159.3000;0.2409;0.0669;
-159.0000;0.2393;0.0669;
-158.7000;0.2401;0.0764;
-158.4000;0.2336;0.0645;
-158.1000;0.2426;0.0860;
-157.8000;0.2393;0.0764;
-157.5000;0.2409;0.0788;
-157.2000;0.2393;0.0764;
-156.9000;0.2409;0.0836;
-156.6000;0.2426;0.0836;
-156.3000;0.2401;0.0740;
-156.0000;0.2401;0.0788;
-155.7000;0.2393;0.0812;
-155.4000;0.2418;0.0931;
-155.1000;0.2401;0.0931;
-154.8000;0.2409;0.0860;
-154.5000;0.2401;0.0788;
-154.2000;0.2409;0.0812;
-153.9000;0.2418;0.0812;
-153.6000;0.2361;0.0716;
-153.3000;0.2434;0.0908;
-153.0000;0.2401;0.0860;
-152.7000;0.2418;0.0955;
-152.4000;0.2409;0.0931;
-152.1000;0.2418;0.0955;
-151.8000;0.2418;0.0979;
-151.5000;0.2401;0.0908;
-151.2000;0.2385;0.0812;
-150.9000;0.2434;0.0955;
-150.6000;0.2434;0.1003;
-150.3000;0.2393;0.1003;
-150.0000;0.2418;0.1146;
-149.7000;0.2344;0.0908;
-149.4000;0.2401;0.1003;
-149.1000;0.2418;0.1003;
-148.8000;0.2352;0.0860;
-148.5000;0.2401;0.0931;
-148.2000;0.2475;0.1146;
-147.9000;0.2385;0.0955;
-147.6000;0.2418;0.1003;
-147.3000;0.2393;0.0979;
-147.0000;0.2409;0.1027;
-146.7000;0.2458;0.1218;
-146.4000;0.2418;0.1146;
-146.1000;0.2377;0.1003;
-145.8000;0.2393;0.1003;
-145.5000;0.2426;0.1122;
-145.2000;0.2401;0.1051;
-144.9000;0.2426;0.1122;
-144.6000;0.2426;0.1194;
-144.3000;0.2393;0.1146;
-144.0000;0.2418;0.1194;
-143.7000;0.2409;0.1170;
-143.4000;0.2409;0.1218;
-143.1000;0.2393;0.1099;
-142.8000;0.2377;0.1099;
-142.5000;0.2385;0.1027;
-142.2000;0.2418;0.1051;
-141.9000;0.2377;0.0908;
-141.6000;0.2409;0.0931;
-141.3000;0.2393;0.0836;
-141.0000;0.2369;0.0788;
-140.7000;0.2401;0.0955;
-140.4000;0.2393;0.1027;
-140.1000;0.2401;0.1051;
-139.8000;0.2385;0.1027;
-139.5000;0.2377;0.1003;
-139.2000;0.2385;0.0860;
-138.9000;0.2418;0.0884;
-138.6000;0.2401;0.0908;
-138.3000;0.2442;0.0931;
-138.0000;0.2385;0.0860;
-137.7000;0.2418;0.0884;
-137.4000;0.2401;0.0908;
-137.1000;0.2401;0.0884;
-136.8000;0.2369;0.0836;
-136.5000;0.2401;0.0979;
-136.2000;0.2393;0.0955;
-135.9000;0.2369;0.0860;
-135.6000;0.2385;0.0860;
-135.3000;0.2393;0.0884;
-135.0000;0.2401;0.0836;
-134.7000;0.2401;0.0836;
-134.4000;0.2409;0.0908;
-134.1000;0.2409;0.0931;
-133.8000;0.2418;0.1003;
-133.5000;0.2409;0.0908;
-133.2000;0.2401;0.0955;
-132.9000;0.2418;0.0931;
-132.6000;0.2409;0.0908;
-132.3000;0.2401;0.0884;
-132.0000;0.2409;0.0955;
-131.7000;0.2385;0.0931;
-131.4000;0.2393;0.0979;
-131.1000;0.2393;0.0908;
-130.8000;0.2393;0.0836;
-130.5000;0.2393;0.0884;
-130.2000;0.2401;0.0812;
-129.9000;0.2361;0.0764;
-129.6000;0.2393;0.0884;
-129.3000;0.2393;0.0931;
-129.0000;0.2409;0.1027;
-128.7000;0.2401;0.1003;
-128.4000;0.2409;0.0979;
-128.1000;0.2385;0.0955;
-127.8000;0.2393;0.0908;
-127.5000;0.2401;0.1027;
-127.2000;0.2401;0.1003;
-126.9000;0.2377;0.0955;
-126.6000;0.2385;0.1027;
-126.3000;0.2393;0.0979;
-126.0000;0.2369;0.0908;
-125.7000;0.2393;0.0979;
-125.4000;0.2385;0.1003;
-125.1000;0.2409;0.1075;
-124.8000;0.2385;0.1051;
-124.5000;0.2328;0.0860;
-124.2000;0.2377;0.1075;
-123.9000;0.2393;0.1051;
-123.6000;0.2336;0.0860;
-123.3000;0.2401;0.1027;
-123.0000;0.2393;0.0908;
-122.7000;0.2426;0.0979;
-122.4000;0.2401;0.0979;
-122.1000;0.2377;0.0931;
-121.8000;0.2409;0.1027;
-121.5000;0.2377;0.0884;
-121.2000;0.2393;0.0931;
-120.9000;0.2409;0.0955;
-120.6000;0.2385;0.0931;
-120.3000;0.2385;0.0955;
-120.0000;0.2401;0.0931;
-119.7000;0.2393;0.1027;
-119.4000;0.2361;0.0884;
-119.1000;0.2385;0.0979;
-118.8000;0.2336;0.0812;
-118.5000;0.2352;0.0884;
-118.2000;0.2401;0.0955;
-117.9000;0.2458;0.1051;
-117.6000;0.2434;0.1003;
-117.3000;0.2418;0.1051;
-117.0000;0.2304;0.0716;
-116.7000;0.2418;0.1003;
-116.4000;0.2328;0.0693;
-116.1000;0.2418;0.0955;
-115.8000;0.2393;0.0908;
-115.5000;0.2385;0.0836;
-115.2000;0.2426;0.1075;
-114.9000;0.2393;0.1146;
-114.6000;0.2393;0.1003;
-114.3000;0.2385;0.1003;
-114.0000;0.2352;0.0812;
-113.7000;0.2393;0.0955;
-113.4000;0.2409;0.0931;
-113.1000;0.2409;0.0955;
-112.8000;0.2401;0.0931;
-112.5000;0.2393;0.0884;
-112.2000;0.2418;0.0979;
-111.9000;0.2409;0.0860;
-111.6000;0.2393;0.0931;
-111.3000;0.2393;0.0931;
-111.0000;0.2409;0.0955;
-110.7000;0.2361;0.0908;
-110.4000;0.2418;0.0979;
-110.1000;0.2385;0.1003;
-109.8000;0.2401;0.1027;
-109.5000;0.2475;0.1218;
-109.2000;0.2401;0.1075;
-108.9000;0.2361;0.1003;
-108.6000;0.2344;0.1027;
-108.3000;0.2328;0.0931;
-108.0000;0.2409;0.1194;
-107.7000;0.2401;0.1218;
-107.4000;0.2409;0.1194;
-107.1000;0.2434;0.1170;
-106.8000;0.2401;0.1051;
-106.5000;0.2385;0.0955;
-106.2000;0.2393;0.0979;
-105.9000;0.2401;0.0955;
-105.6000;0.2409;0.0955;
-105.3000;0.2401;0.0931;
-105.0000;0.2409;0.0908;
-104.7000;0.2393;0.0955;
-104.4000;0.2401;0.1027;
-104.1000;0.2418;0.1075;
-103.8000;0.2401;0.1027;
-103.5000;0.2442;0.1170;
-103.2000;0.2418;0.1170;
-102.9000;0.2418;0.1051;
-102.6000;0.2352;0.0931;
-102.3000;0.2393;0.1075;
-102.0000;0.2426;0.1194;
-101.7000;0.2426;0.1075;
-101.4000;0.2401;0.0979;
-101.1000;0.2377;0.0979;
-100.8000;0.2409;0.1027;
-100.5000;0.2393;0.0908;
-100.2000;0.2393;0.0860;
-99.9000;0.2385;0.0884;
-99.6000;0.2466;0.1027;
-99.3000;0.2401;0.0955;
-99.0000;0.2409;0.0955;
-98.7000;0.2385;0.0979;
-98.4000;0.2409;0.1051;
-98.1000;0.2393;0.1027;
-97.8000;0.2393;0.1051;
-97.5000;0.2377;0.0931;
-97.2000;0.2401;0.0979;
-96.9000;0.2401;0.1003;
-96.6000;0.2409;0.0979;
-96.3000;0.2401;0.0931;
-96.0000;0.2409;0.0955;
-95.7000;0.2409;0.0908;
-95.4000;0.2401;0.0931;
-95.1000;0.2393;0.1003;
-94.8000;0.2393;0.1099;
-94.5000;0.2393;0.1099;
-94.2000;0.2393;0.1146;
-93.9000;0.2442;0.1170;
-93.6000;0.2393;0.0955;
-93.3000;0.2385;0.1027;
-93.0000;0.2426;0.1099;
-92.7000;0.2393;0.1027;
-92.4000;0.2458;0.1146;
-92.1000;0.2393;0.0979;
-91.8000;0.2385;0.0931;
-91.5000;0.2409;0.1003;
-91.2000;0.2393;0.0908;
-90.9000;0.2393;0.0908;
-90.6000;0.2409;0.0908;
-90.3000;0.2409;0.0931;
-90.0000;0.2401;0.0955;
-89.7000;0.2385;0.0860;
-89.4000;0.2393;0.0860;
-89.1000;0.2385;0.0788;
-88.8000;0.2385;0.0693;
-88.5000;0.2401;0.0669;
-88.2000;0.2393;0.0645;
-87.9000;0.2393;0.0645;
-87.6000;0.2409;0.0669;
-87.3000;0.2377;0.0597;
-87.0000;0.2409;0.0693;
-86.7000;0.2385;0.0740;
-86.4000;0.2475;0.1027;
-86.1000;0.2393;0.0788;
-85.8000;0.2475;0.1003;
-85.5000;0.2450;0.0884;
-85.2000;0.2393;0.0716;
-84.9000;0.2385;0.0740;
-84.6000;0.2393;0.0788;
-84.3000;0.2475;0.0931;
-84.0000;0.2401;0.0764;
-83.7000;0.2466;0.1027;
-83.4000;0.2361;0.0693;
-83.1000;0.2385;0.0788;
-82.8000;0.2369;0.0764;
-82.5000;0.2369;0.0621;
-82.2000;0.2409;0.0693;
-81.9000;0.2418;0.0908;
-81.6000;0.2401;0.0836;
-81.3000;0.2401;0.0860;
-81.0000;0.2418;0.0884;
-80.7000;0.2409;0.0836;
-80.4000;0.2409;0.0788;
-80.1000;0.2393;0.0740;
-79.8000;0.2377;0.0740;
-79.5000;0.2401;0.0836;
-79.2000;0.2418;0.0812;
-78.9000;0.2401;0.0788;
-78.6000;0.2434;0.0860;
-78.3000;0.2393;0.0740;
-78.0000;0.2393;0.0836;
-77.7000;0.2393;0.0860;
-77.4000;0.2401;0.0836;
-77.1000;0.2401;0.0836;
-76.8000;0.2401;0.0884;
-76.5000;0.2434;0.0955;
-76.2000;0.2418;0.0908;
-75.9000;0.2369;0.0788;
-75.6000;0.2409;0.0931;
-75.3000;0.2385;0.0908;
-75.0000;0.2475;0.1170;
-74.7000;0.2483;0.1099;
-74.4000;0.2401;0.0860;
-74.1000;0.2393;0.0836;
-73.8000;0.2393;0.0979;
-73.5000;0.2426;0.1170;
-73.2000;0.2393;0.1003;
-72.9000;0.2393;0.1027;
-72.6000;0.2426;0.1075;
-72.3000;0.2401;0.1003;
-72.0000;0.2401;0.1051;
-71.7000;0.2409;0.1051;
-71.4000;0.2361;0.1003;
-71.1000;0.2393;0.1075;
-70.8000;0.2393;0.1075;
-70.5000;0.2426;0.1099;
-70.2000;0.2369;0.1075;
-69.9000;0.2401;0.1170;
-69.6000;0.2409;0.1099;
-69.3000;0.2377;0.1051;
-69.0000;0.2393;0.1122;
-68.7000;0.2418;0.1122;
-68.4000;0.2475;0.1266;
-68.1000;0.2393;0.1122;
-67.8000;0.2385;0.1099;
-67.5000;0.2385;0.1122;
-67.2000;0.2393;0.1170;
-66.9000;0.2409;0.1170;
-66.6000;0.2385;0.1146;
-66.3000;0.2418;0.1146;
-66.0000;0.2401;0.1075;
-65.7000;0.2393;0.1051;
-65.4000;0.2393;0.1075;
-65.1000;0.2385;0.1075;
-64.8000;0.2418;0.1146;
-64.5000;0.2409;0.1099;
-64.2000;0.2393;0.1003;
-63.9000;0.2401;0.1003;
-63.6000;0.2409;0.0955;
-63.3000;0.2409;0.1003;
-63.0000;0.2401;0.0955;
-62.7000;0.2393;0.0860;
-62.4000;0.2369;0.0836;
-62.1000;0.2385;0.0908;
-61.8000;0.2385;0.0860;
-61.5000;0.2393;0.0908;
-61.2000;0.2426;0.0955;
-60.9000;0.2409;0.1003;
-60.6000;0.2361;0.0836;
-60.3000;0.2409;0.0955;
-60.0000;0.2385;0.0931;
-59.7000;0.2385;0.0931;
-59.4000;0.2393;0.0955;
-59.1000;0.2377;0.0836;
-58.8000;0.2377;0.0812;
-58.5000;0.2393;0.0836;
-58.2000;0.2409;0.1003;
-57.9000;0.2377;0.0860;
-57.6000;0.2393;0.0812;
-57.3000;0.2418;0.0908;
-57.0000;0.2418;0.0931;
-56.7000;0.2393;0.0836;
-56.4000;0.2401;0.0884;
-56.1000;0.2409;0.0812;
-55.8000;0.2418;0.0908;
-55.5000;0.2409;0.0836;
-55.2000;0.2393;0.0860;
-54.9000;0.2426;0.0955;
-54.6000;0.2426;0.0979;
-54.3000;0.2418;0.1003;
-54.0000;0.2393;0.0908;
-53.7000;0.2393;0.0788;
-53.4000;0.2385;0.0740;
-53.1000;0.2475;0.1003;
-52.8000;0.2401;0.0812;
-52.5000;0.2385;0.0740;
-52.2000;0.2475;0.0884;
-51.9000;0.2409;0.0669;
-51.6000;0.2385;0.0645;
-51.3000;0.2385;0.0788;
-51.0000;0.2409;0.0908;
-50.7000;0.2409;0.0955;
-50.4000;0.2418;0.0979;
-50.1000;0.2393;0.1003;
-49.8000;0.2409;0.1027;
-49.5000;0.2418;0.1027;
-49.2000;0.2385;0.0979;
-48.9000;0.2393;0.0884;
-48.6000;0.2369;0.0812;
-48.3000;0.2418;0.0884;
-48.0000;0.2401;0.0908;
-47.7000;0.2385;0.0884;
-47.4000;0.2385;0.0836;
-47.1000;0.2426;0.0908;
-46.8000;0.2385;0.0860;
-46.5000;0.2393;0.0908;
-46.2000;0.2418;0.0884;
-45.9000;0.2409;0.0764;
-45.6000;0.2434;0.0860;
-45.3000;0.2393;0.0788;
-45.0000;0.2401;0.0908;
-44.7000;0.2409;0.0979;
-44.4000;0.2426;0.1075;
-44.1000;0.2393;0.1051;
-43.8000;0.2377;0.1075;
-43.5000;0.2369;0.1075;
-43.2000;0.2401;0.1146;
-42.9000;0.2426;0.1242;
-42.6000;0.2409;0.1194;
-42.3000;0.2393;0.1099;
-42.0000;0.2409;0.1075;
-41.7000;0.2401;0.1099;
-41.4000;0.2409;0.1122;
-41.1000;0.2401;0.1051;
-40.8000;0.2409;0.0979;
-40.5000;0.2393;0.0955;
-40.2000;0.2418;0.0979;
-39.9000;0.2401;0.0955;
-39.6000;0.2409;0.1003;
-39.3000;0.2401;0.0931;
-39.0000;0.2401;0.0860;
-38.7000;0.2393;0.0836;
-38.4000;0.2393;0.0812;
-38.1000;0.2401;0.0955;
-37.8000;0.2401;0.0955;
-37.5000;0.2393;0.1027;
-37.2000;0.2393;0.0979;
-36.9000;0.2409;0.1051;
-36.6000;0.2409;0.1051;
-36.3000;0.2409;0.0931;
-36.0000;0.2385;0.0955;
-35.7000;0.2393;0.0955;
-35.4000;0.2377;0.1003;
-35.1000;0.2393;0.0979;
-34.8000;0.2271;0.0693;
-34.5000;0.2385;0.1027;
-34.2000;0.2401;0.1051;
-33.9000;0.2393;0.1003;
-33.6000;0.2361;0.0979;
-33.3000;0.2385;0.0955;
-33.0000;0.2409;0.0979;
-32.7000;0.2401;0.0979;
-32.4000;0.2385;0.0979;
-32.1000;0.2369;0.0836;
-31.8000;0.2401;0.0979;
-31.5000;0.2401;0.0908;
-31.2000;0.2352;0.0836;
-30.9000;0.2401;0.0955;
-30.6000;0.2409;0.1003;
-30.3000;0.2409;0.1051;
-30.0000;0.2450;0.1146;
-29.7000;0.2295;0.0740;
-29.4000;0.2393;0.0979;
-29.1000;0.2426;0.1027;
-28.8000;0.2393;0.0979;
-28.5000;0.2426;0.1194;
-28.2000;0.2401;0.1075;
-27.9000;0.2352;0.0931;
-27.6000;0.2409;0.0955;
-27.3000;0.2401;0.0955;
-27.0000;0.2393;0.0979;
-26.7000;0.2507;0.1361;
-26.4000;0.2393;0.0979;
-26.1000;0.2401;0.0931;
-25.8000;0.2418;0.1027;
-25.5000;0.2401;0.1003;
-25.2000;0.2401;0.0955;
-24.9000;0.2385;0.0931;
-24.6000;0.2393;0.0908;
-24.3000;0.2409;0.0931;
-24.0000;0.2385;0.0860;
-23.7000;0.2361;0.0788;
-23.4000;0.2336;0.0740;
-23.1000;0.2393;0.0860;
-22.8000;0.2401;0.0836;
-22.5000;0.2401;0.0931;
-22.2000;0.2385;0.0836;
-21.9000;0.2393;0.0812;
-21.6000;0.2393;0.0716;
-21.3000;0.2385;0.0740;
-21.0000;0.2393;0.0788;
-20.7000;0.2409;0.0931;
-20.4000;0.2418;0.1051;
-20.1000;0.2377;0.0955;
-19.8000;0.2401;0.0955;
-19.5000;0.2393;0.0955;
-19.2000;0.2401;0.0884;
-18.9000;0.2409;0.0860;
-18.6000;0.2393;0.0788;
-18.3000;0.2401;0.0860;
-18.0000;0.2442;0.0908;
-17.7000;0.2393;0.0764;
-17.4000;0.2401;0.0836;
-17.1000;0.2409;0.0884;
-16.8000;0.2418;0.0812;
-16.5000;0.2393;0.0860;
-16.2000;0.2426;0.0884;
-15.9000;0.2409;0.0812;
-15.6000;0.2344;0.0597;
-15.3000;0.2409;0.0812;
-15.0000;0.2401;0.0812;
-14.7000;0.2393;0.0812;
-14.4000;0.2426;0.0812;
-14.1000;0.2409;0.0740;
-13.8000;0.2393;0.0788;
-13.5000;0.2409;0.0884;
-13.2000;0.2385;0.0812;
-12.9000;0.2393;0.0812;
-12.6000;0.2426;0.0884;
-12.3000;0.2393;0.0884;
-12.0000;0.2352;0.0788;
-11.7000;0.2385;0.0884;
-11.4000;0.2377;0.0836;
-11.1000;0.2393;0.0884;
-10.8000;0.2401;0.0884;
-10.5000;0.2401;0.0836;
-10.2000;0.2377;0.0764;
-9.9000;0.2369;0.0693;
-9.6000;0.2426;0.0860;
-9.3000;0.2401;0.0788;
-9.0000;0.2401;0.0788;
-8.7000;0.2409;0.0740;
-8.4000;0.2409;0.0716;
-8.1000;0.2401;0.0716;
-7.8000;0.2393;0.0645;
-7.5000;0.2401;0.0597;
-7.2000;0.2418;0.0716;
-6.9000;0.2369;0.0693;
-6.6000;0.2385;0.0716;
-6.3000;0.2409;0.0836;
-6.0000;0.2385;0.0764;
-5.7000;0.2361;0.0764;
-5.4000;0.2401;0.0860;
-5.1000;0.2426;0.0836;
-4.8000;0.2393;0.0788;
-4.5000;0.2409;0.0836;
-4.2000;0.2393;0.0836;
-3.9000;0.2409;0.0836;
-3.6000;0.2401;0.0860;
-3.3000;0.2401;0.0955;
-3.0000;0.2409;0.0884;
-2.7000;0.2320;0.0693;
-2.4000;0.2401;0.0931;
-2.1000;0.2401;0.0931;
-1.8000;0.2393;0.0884;
-1.5000;0.2385;0.0836;
-1.2000;0.2393;0.0836;
-0.9000;0.2393;0.0788;
-0.6000;0.2409;0.0812;
-0.3000;0.2393;0.0788;
0.0000;0.2393;0.0788;
0.3000;0.2409;0.0502;
0.6000;0.2418;0.0669;
0.9000;0.2401;0.0669;
1.2000;0.2409;0.0764;
1.5000;0.2385;0.0812;
1.8000;0.2409;0.0812;
2.1000;0.2279;0.0597;
2.4000;0.2369;0.0931;
2.7000;0.2483;0.1242;
3.0000;0.2499;0.1314;
3.3000;0.2401;0.1146;
3.6000;0.2385;0.1170;
3.9000;0.2361;0.1170;
4.2000;0.2499;0.1600;
4.5000;0.2409;0.1361;
4.8000;0.2385;0.1266;
5.1000;0.2401;0.1337;
5.4000;0.2377;0.1337;
5.7000;0.2377;0.1385;
6.0000;0.2385;0.1361;
6.3000;0.2385;0.1337;
6.6000;0.2393;0.1433;
6.9000;0.2393;0.1385;
7.2000;0.2418;0.1552;
7.5000;0.2499;0.1743;
7.8000;0.2393;0.1409;
8.1000;0.2393;0.1457;
8.4000;0.2393;0.1528;
8.7000;0.2434;0.1696;
9.0000;0.2385;0.1528;
9.3000;0.2409;0.1552;
9.6000;0.2409;0.1505;
9.9000;0.2377;0.1505;
10.2000;0.2401;0.1576;
10.5000;0.2458;0.1720;
10.8000;0.2385;0.1576;
11.1000;0.2393;0.1600;
11.4000;0.2369;0.1576;
11.7000;0.2393;0.1576;
12.0000;0.2377;0.1576;
12.3000;0.2401;0.1720;
12.6000;0.2385;0.1600;
12.9000;0.2377;0.1624;
13.2000;0.2369;0.1600;
13.5000;0.2393;0.1624;
13.8000;0.2385;0.1552;
14.1000;0.2377;0.1624;
14.4000;0.2418;0.1720;
14.7000;0.2409;0.1672;
15.0000;0.2418;0.1767;
15.3000;0.2385;0.1600;
15.6000;0.2409;0.1552;
15.9000;0.2385;0.1552;
16.2000;0.2377;0.1433;
16.5000;0.2369;0.1409;
16.8000;0.2369;0.1409;
17.1000;0.2409;0.1576;
17.4000;0.2409;0.1576;
17.7000;0.2369;0.1505;
18.0000;0.2385;0.1552;
18.3000;0.2369;0.1457;
18.6000;0.2369;0.1433;
18.9000;0.2369;0.1457;
19.2000;0.2377;0.1528;
19.5000;0.2393;0.1552;
19.8000;0.2377;0.1576;
20.1000;0.2377;0.1528;
20.4000;0.2377;0.1505;
20.7000;0.2393;0.1624;
21.0000;0.2361;0.1600;
21.3000;0.2369;0.1600;
21.6000;0.2393;0.1552;
21.9000;0.2377;0.1552;
22.2000;0.2369;0.1457;
22.5000;0.2361;0.1361;
22.8000;0.2377;0.1409;
23.1000;0.2361;0.1290;
23.4000;0.2352;0.1290;
23.7000;0.2369;0.1409;
24.0000;0.2361;0.1409;
24.3000;0.2361;0.1409;
24.6000;0.2442;0.1576;
24.9000;0.2385;0.1481;
25.2000;0.2385;0.1409;
25.5000;0.2369;0.1361;
25.8000;0.2377;0.1361;
26.1000;0.2393;0.1505;
26.4000;0.2385;0.1528;
26.7000;0.2377;0.1505;
27.0000;0.2418;0.1576;
27.3000;0.2369;0.1409;
27.6000;0.2361;0.1290;
27.9000;0.2385;0.1433;
28.2000;0.2434;0.1552;
28.5000;0.2393;0.1433;
28.8000;0.2377;0.1385;
29.1000;0.2393;0.1409;
29.4000;0.2426;0.1481;
29.7000;0.2377;0.1337;
30.0000;0.2401;0.1409;
30.3000;0.2377;0.1290;
30.6000;0.2418;0.1409;
30.9000;0.2369;0.1409;
31.2000;0.2320;0.1290;
31.5000;0.2369;0.1481;
31.8000;0.2369;0.1457;
32.1000;0.2393;0.1600;
32.4000;0.2336;0.1457;
32.7000;0.2418;0.1624;
33.0000;0.2377;0.1457;
33.3000;0.2361;0.1457;
33.6000;0.2393;0.1528;
33.9000;0.2377;0.1505;
34.2000;0.2385;0.1528;
34.5000;0.2361;0.1457;
34.8000;0.2369;0.1552;
35.1000;0.2361;0.1552;
35.4000;0.2369;0.1624;
35.7000;0.2377;0.1648;
36.0000;0.2385;0.1720;
36.3000;0.2369;0.1696;
36.6000;0.2377;0.1696;
36.9000;0.2377;0.1720;
37.2000;0.2401;0.1791;
37.5000;0.2385;0.1791;
37.8000;0.2377;0.1791;
38.1000;0.2450;0.2006;
38.4000;0.2385;0.1696;
38.7000;0.2393;0.1648;
39.0000;0.2393;0.1624;
39.3000;0.2377;0.1576;
39.6000;0.2385;0.1696;
39.9000;0.2369;0.1624;
40.2000;0.2328;0.1576;
40.5000;0.2393;0.1743;
40.8000;0.2377;0.1743;
41.1000;0.2369;0.1743;
41.4000;0.2418;0.1887;
41.7000;0.2385;0.1815;
42.0000;0.2320;0.1696;
42.3000;0.2385;0.1815;
42.6000;0.2385;0.1839;
42.9000;0.2377;0.1815;
43.2000;0.2393;0.1815;
43.5000;0.2393;0.1791;
43.8000;0.2401;0.1767;
44.1000;0.2312;0.1552;
44.4000;0.2344;0.1600;
44.7000;0.2377;0.1481;
45.0000;0.2271;0.1242;
45.3000;0.2377;0.1552;
45.6000;0.2279;0.1266;
45.9000;0.2377;0.1576;
46.2000;0.2393;0.1624;
46.5000;0.2458;0.1887;
46.8000;0.2328;0.1552;
47.1000;0.2385;0.1648;
47.4000;0.2458;0.1863;
47.7000;0.2385;0.1696;
48.0000;0.2401;0.1696;
48.3000;0.2369;0.1720;
48.6000;0.2312;0.1624;
48.9000;0.2393;0.1767;
49.2000;0.2385;0.1720;
49.5000;0.2328;0.1505;
49.8000;0.2418;0.1815;
50.1000;0.2377;0.1672;
50.4000;0.2385;0.1720;
50.7000;0.2377;0.1767;
51.0000;0.2352;0.1696;
51.3000;0.2377;0.1624;
51.6000;0.2377;0.1576;
51.9000;0.2385;0.1648;
52.2000;0.2393;0.1600;
52.5000;0.2385;0.1505;
52.8000;0.2361;0.1409;
53.1000;0.2369;0.1457;
53.4000;0.2369;0.1409;
53.7000;0.2369;0.1457;
54.0000;0.2377;0.1576;
54.3000;0.2369;0.1576;
54.6000;0.2369;0.1552;
54.9000;0.2369;0.1600;
55.2000;0.2377;0.1648;
55.5000;0.2352;0.1624;
55.8000;0.2361;0.1624;
56.1000;0.2369;0.1624;
56.4000;0.2361;0.1528;
56.7000;0.2369;0.1505;
57.0000;0.2295;0.1314;
57.3000;0.2328;0.1457;
57.6000;0.2369;0.1600;
57.9000;0.2385;0.1576;
58.2000;0.2352;0.1505;
58.5000;0.2377;0.1552;
58.8000;0.2361;0.1528;
59.1000;0.2344;0.1552;
59.4000;0.2409;0.1672;
59.7000;0.2361;0.1505;
60.0000;0.2344;0.1552;
60.3000;0.2352;0.1648;
60.6000;0.2385;0.1696;
60.9000;0.2352;0.1576;
61.2000;0.2442;0.1743;
61.5000;0.2369;0.1576;
61.8000;0.2369;0.1624;
62.1000;0.2361;0.1672;
62.4000;0.2434;0.1791;
62.7000;0.2377;0.1743;
63.0000;0.2409;0.1743;
63.3000;0.2385;0.1720;
63.6000;0.2377;0.1672;
63.9000;0.2377;0.1648;
64.2000;0.2393;0.1743;
64.5000;0.2369;0.1696;
64.8000;0.2344;0.1600;
65.1000;0.2385;0.1672;
65.4000;0.2304;0.1457;
65.7000;0.2369;0.1600;
66.0000;0.2393;0.1624;
66.3000;0.2393;0.1648;
66.6000;0.2361;0.1600;
66.9000;0.2377;0.1648;
67.2000;0.2361;0.1696;
67.5000;0.2385;0.1791;
67.8000;0.2385;0.1767;
68.1000;0.2377;0.1720;
68.4000;0.2336;0.1552;
68.7000;0.2352;0.1624;
69.0000;0.2352;0.1720;
69.3000;0.2377;0.1624;
69.6000;0.2361;0.1648;
69.9000;0.2385;0.1696;
70.2000;0.2361;0.1648;
70.5000;0.2352;0.1648;
70.8000;0.2385;0.1696;
71.1000;0.2377;0.1672;
71.4000;0.2361;0.1696;
71.7000;0.2336;0.1576;
72.0000;0.2304;0.1552;
72.3000;0.2361;0.1696;
72.6000;0.2377;0.1720;
72.9000;0.2377;0.1672;
73.2000;0.2385;0.1648;
73.5000;0.2393;0.1672;
73.8000;0.2320;0.1481;
74.1000;0.2369;0.1672;
74.4000;0.2377;0.1624;
74.7000;0.2393;0.1672;
75.0000;0.2377;0.1672;
75.3000;0.2377;0.1648;
75.6000;0.2377;0.1600;
75.9000;0.2418;0.1839;
76.2000;0.2377;0.1696;
76.5000;0.2377;0.1624;
76.8000;0.2361;0.1600;
77.1000;0.2377;0.1696;
77.4000;0.2377;0.1791;
77.7000;0.2385;0.1743;
78.0000;0.2385;0.1696;
78.3000;0.2385;0.1720;
78.6000;0.2361;0.1600;
78.9000;0.2385;0.1600;
79.2000;0.2328;0.1433;
79.5000;0.2385;0.1648;
79.8000;0.2393;0.1648;
80.1000;0.2385;0.1672;
80.4000;0.2369;0.1672;
80.7000;0.2369;0.1648;
81.0000;0.2352;0.1552;
81.3000;0.2336;0.1433;
81.6000;0.2385;0.1576;
81.9000;0.2361;0.1576;
82.2000;0.2385;0.1552;
82.5000;0.2385;0.1552;
82.8000;0.2377;0.1552;
83.1000;0.2320;0.1433;
83.4000;0.2377;0.1600;
83.7000;0.2369;0.1672;
84.0000;0.2361;0.1743;
84.3000;0.2401;0.1696;
84.6000;0.2385;0.1624;
84.9000;0.2393;0.1720;
85.2000;0.2385;0.1743;
85.5000;0.2352;0.1696;
85.8000;0.2377;0.1743;
86.1000;0.2491;0.2102;
86.4000;0.2377;0.1815;
86.7000;0.2369;0.1767;
87.0000;0.2450;0.1934;
87.3000;0.2336;0.1576;
87.6000;0.2369;0.1672;
87.9000;0.2361;0.1767;
88.2000;0.2369;0.1815;
88.5000;0.2352;0.1743;
88.8000;0.2369;0.1791;
89.1000;0.2369;0.1863;
89.4000;0.2328;0.1791;
89.7000;0.2369;0.1791;
90.0000;0.2361;0.1839;
90.3000;0.2369;0.1863;
90.6000;0.2295;0.1696;
90.9000;0.2377;0.1911;
91.2000;0.2369;0.1863;
91.5000;0.2361;0.1743;
91.8000;0.2369;0.1720;
92.1000;0.2369;0.1696;
92.4000;0.2369;0.1791;
92.7000;0.2369;0.1791;
93.0000;0.2361;0.1720;
93.3000;0.2352;0.1648;
93.6000;0.2369;0.1624;
93.9000;0.2393;0.1672;
94.2000;0.2369;0.1672;
94.5000;0.2352;0.1696;
94.8000;0.2385;0.1791;
95.1000;0.2385;0.1815;
95.4000;0.2361;0.1672;
95.7000;0.2361;0.1648;
96.0000;0.2352;0.1743;
96.3000;0.2361;0.1720;
96.6000;0.2385;0.1720;
96.9000;0.2377;0.1720;
97.2000;0.2385;0.1743;
97.5000;0.2434;0.1911;
97.8000;0.2409;0.1863;
98.1000;0.2369;0.1767;
98.4000;0.2385;0.1815;
98.7000;0.2377;0.1839;
99.0000;0.2377;0.1863;
99.3000;0.2369;0.1839;
99.6000;0.2377;0.1863;
99.9000;0.2352;0.1839;
100.2000;0.2385;0.1863;
100.5000;0.2361;0.1743;
100.8000;0.2352;0.1672;
101.1000;0.2369;0.1672;
101.4000;0.2361;0.1743;
101.7000;0.2369;0.1672;
102.0000;0.2369;0.1672;
102.3000;0.2393;0.1791;
102.6000;0.2385;0.1815;
102.9000;0.2352;0.1672;
103.2000;0.2344;0.1696;
103.5000;0.2377;0.1696;
103.8000;0.2377;0.1672;
104.1000;0.2369;0.1648;
104.4000;0.2393;0.1648;
104.7000;0.2385;0.1624;
105.0000;0.2377;0.1672;
105.3000;0.2385;0.1720;
105.6000;0.2377;0.1696;
105.9000;0.2369;0.1600;
106.2000;0.2377;0.1600;
106.5000;0.2393;0.1624;
106.8000;0.2377;0.1576;
107.1000;0.2401;0.1672;
107.4000;0.2369;0.1528;
107.7000;0.2361;0.1576;
108.0000;0.2401;0.1528;
108.3000;0.2385;0.1528;
108.6000;0.2377;0.1528;
108.9000;0.2377;0.1672;
109.2000;0.2344;0.1696;
109.5000;0.2393;0.1815;
109.8000;0.2385;0.1887;
110.1000;0.2401;0.1982;
110.4000;0.2377;0.1982;
110.7000;0.2361;0.1934;
111.0000;0.2295;0.1743;
111.3000;0.2385;0.1911;
111.6000;0.2377;0.1815;
111.9000;0.2255;0.1433;
112.2000;0.2352;0.1624;
112.5000;0.2361;0.1648;
112.8000;0.2369;0.1648;
113.1000;0.2393;0.1624;
113.4000;0.2361;0.1576;
113.7000;0.2385;0.1672;
114.0000;0.2369;0.1624;
114.3000;0.2369;0.1648;
114.6000;0.2369;0.1720;
114.9000;0.2377;0.1743;
115.2000;0.2385;0.1791;
115.5000;0.2377;0.1720;
115.8000;0.2377;0.1696;
116.1000;0.2361;0.1815;
116.4000;0.2361;0.1743;
116.7000;0.2369;0.1815;
117.0000;0.2320;0.1672;
117.3000;0.2352;0.1743;
117.6000;0.2344;0.1624;
117.9000;0.2369;0.1552;
118.2000;0.2369;0.1624;
118.5000;0.2361;0.1624;
118.8000;0.2369;0.1648;
119.1000;0.2377;0.1648;
119.4000;0.2377;0.1696;
119.7000;0.2361;0.1672;
120.0000;0.2361;0.1624;
120.3000;0.2377;0.1600;
120.6000;0.2369;0.1576;
120.9000;0.2352;0.1576;
121.2000;0.2361;0.1576;
121.5000;0.2377;0.1600;
121.8000;0.2377;0.1648;
122.1000;0.2369;0.1648;
122.4000;0.2344;0.1576;
122.7000;0.2377;0.1624;
123.0000;0.2369;0.1576;
123.3000;0.2491;0.1958;
123.6000;0.2377;0.1576;
123.9000;0.2369;0.1505;
124.2000;0.2385;0.1528;
124.5000;0.2393;0.1600;
124.8000;0.2385;0.1624;
125.1000;0.2344;0.1528;
125.4000;0.2361;0.1648;
125.7000;0.2385;0.1648;
126.0000;0.2385;0.1696;
126.3000;0.2328;0.1528;
126.6000;0.2361;0.1552;
126.9000;0.2369;0.1576;
127.2000;0.2369;0.1481;
127.5000;0.2369;0.1505;
127.8000;0.2352;0.1481;
128.1000;0.2393;0.1600;
128.4000;0.2369;0.1600;
128.7000;0.2369;0.1720;
129.0000;0.2434;0.1887;
129.3000;0.2377;0.1791;
129.6000;0.2361;0.1720;
129.9000;0.2352;0.1648;
130.2000;0.2352;0.1672;
130.5000;0.2361;0.1528;
130.8000;0.2369;0.1528;
131.1000;0.2352;0.1481;
131.4000;0.2361;0.1528;
131.7000;0.2361;0.1552;
132.0000;0.2361;0.1600;
132.3000;0.2361;0.1624;
132.6000;0.2393;0.1672;
132.9000;0.2361;0.1576;
133.2000;0.2312;0.1481;
133.5000;0.2369;0.1648;
133.8000;0.2352;0.1600;
134.1000;0.2361;0.1648;
134.4000;0.2377;0.1648;
134.7000;0.2385;0.1624;
135.0000;0.2328;0.1505;
135.3000;0.2385;0.1672;
135.6000;0.2377;0.1600;
135.9000;0.2434;0.1720;
136.2000;0.2369;0.1576;
136.5000;0.2369;0.1576;
136.8000;0.2361;0.1600;
137.1000;0.2377;0.1648;
137.4000;0.2442;0.1767;
137.7000;0.2385;0.1648;
138.0000;0.2361;0.1505;
138.3000;0.2377;0.1528;
138.6000;0.2304;0.1385;
138.9000;0.2377;0.1600;
139.2000;0.2369;0.1576;
139.5000;0.2377;0.1648;
139.8000;0.2377;0.1672;
140.1000;0.2369;0.1696;
140.4000;0.2409;0.1767;
140.7000;0.2393;0.1720;
141.0000;0.2385;0.1648;
141.3000;0.2352;0.1600;
141.6000;0.2320;0.1505;
141.9000;0.2352;0.1600;
142.2000;0.2369;0.1576;
142.5000;0.2377;0.1600;
142.8000;0.2352;0.1552;
143.1000;0.2336;0.1624;
143.4000;0.2320;0.1624;
143.7000;0.2426;0.1958;
144.0000;0.2352;0.1696;
144.3000;0.2369;0.1791;
144.6000;0.2369;0.1743;
144.9000;0.2369;0.1767;
145.2000;0.2385;0.1767;
145.5000;0.2385;0.1839;
145.8000;0.2352;0.1791;
146.1000;0.2377;0.1815;
146.4000;0.2361;0.1791;
146.7000;0.2385;0.1791;
147.0000;0.2369;0.1743;
147.3000;0.2304;0.1576;
147.6000;0.2361;0.1672;
147.9000;0.2377;0.1648;
148.2000;0.2475;0.1911;
148.5000;0.2377;0.1696;
148.8000;0.2361;0.1743;
149.1000;0.2369;0.1791;
149.4000;0.2361;0.1791;
149.7000;0.2393;0.1887;
150.0000;0.2369;0.1791;
150.3000;0.2369;0.1815;
150.6000;0.2377;0.1887;
150.9000;0.2393;0.1934;
151.2000;0.2401;0.1958;
151.5000;0.2385;0.1911;
151.8000;0.2361;0.1863;
152.1000;0.2385;0.1791;
152.4000;0.2369;0.1672;
152.7000;0.2393;0.1672;
153.0000;0.2377;0.1696;
153.3000;0.2385;0.1624;
153.6000;0.2369;0.1624;
153.9000;0.2361;0.1720;
154.2000;0.2361;0.1743;
154.5000;0.2352;0.1767;
154.8000;0.2369;0.1791;
155.1000;0.2295;0.1600;
155.4000;0.2287;0.1576;
155.7000;0.2361;0.1815;
156.0000;0.2377;0.1911;
156.3000;0.2369;0.1934;
156.6000;0.2409;0.2078;
156.9000;0.2352;0.1934;
157.2000;0.2377;0.1934;
157.5000;0.2385;0.1887;
157.8000;0.2352;0.1839;
158.1000;0.2369;0.1863;
158.4000;0.2344;0.1743;
158.7000;0.2352;0.1791;
159.0000;0.2304;0.1648;
159.3000;0.2369;0.1815;
159.6000;0.2385;0.1839;
159.9000;0.2369;0.1815;
160.2000;0.2377;0.1791;
160.5000;0.2369;0.1767;
160.8000;0.2369;0.1696;
161.1000;0.2385;0.1743;
161.4000;0.2377;0.1863;
161.7000;0.2352;0.1767;
162.0000;0.2369;0.1696;
162.3000;0.2377;0.1696;
162.6000;0.2393;0.1791;
162.9000;0.2361;0.1815;
163.2000;0.2352;0.1720;
163.5000;0.2409;0.1839;
163.8000;0.2328;0.1696;
164.1000;0.2255;0.1576;
164.4000;0.2377;0.1791;
164.7000;0.2361;0.1791;
165.0000;0.2320;0.1600;
165.3000;0.2369;0.1791;
165.6000;0.2328;0.1648;
165.9000;0.2385;0.1743;
166.2000;0.2369;0.1648;
166.5000;0.2434;0.1767;
166.8000;0.2377;0.1720;
167.1000;0.2361;0.1624;
167.4000;0.2369;0.1576;
167.7000;0.2361;0.1576;
168.0000;0.2352;0.1600;
168.3000;0.2352;0.1505;
168.6000;0.2336;0.1409;
168.9000;0.2352;0.1409;
169.2000;0.2418;0.1672;
169.5000;0.2369;0.1624;
169.8000;0.2369;0.1720;
170.1000;0.2361;0.1696;
170.4000;0.2385;0.1767;
170.7000;0.2377;0.1720;
171.0000;0.2369;0.1743;
171.3000;0.2385;0.1815;
171.6000;0.2352;0.1720;
171.9000;0.2361;0.1791;
172.2000;0.2361;0.1791;
172.5000;0.2352;0.1696;
172.8000;0.2377;0.1696;
173.1000;0.2369;0.1696;
173.4000;0.2369;0.1743;
173.7000;0.2385;0.1720;
174.0000;0.2361;0.1672;
174.3000;0.2361;0.1672;
174.6000;0.2344;0.1720;
174.9000;0.2377;0.1743;
175.2000;0.2352;0.1743;
175.5000;0.2377;0.1791;
175.8000;0.2369;0.1815;
176.1000;0.2369;0.1863;
176.4000;0.2369;0.1958;
176.7000;0.2361;0.1911;
177.0000;0.2377;0.1887;
177.3000;0.2352;0.1743;
177.6000;0.2369;0.1767;
177.9000;0.2361;0.1791;
178.2000;0.2385;0.1767;
178.5000;0.2385;0.1863;
178.8000;0.2352;0.1815;
179.1000;0.2369;0.1863;
179.4000;0.2409;0.1958;
179.7000;0.2344;0.1720;
180.0000;0.2336;0.1696;
180.3000;0.2304;0.1576;
180.6000;0.2385;0.1815;
180.9000;0.2377;0.1791;
181.2000;0.2369;0.1696;
181.5000;0.2361;0.1743;
181.8000;0.2361;0.1743;
182.1000;0.2352;0.1648;
182.4000;0.2352;0.1696;
182.7000;0.2352;0.1720;
183.0000;0.2344;0.1672;
183.3000;0.2336;0.1576;
183.6000;0.2369;0.1600;
183.9000;0.2361;0.1552;
184.2000;0.2369;0.1600;
184.5000;0.2361;0.1672;
184.8000;0.2344;0.1648;
185.1000;0.2369;0.1672;
185.4000;0.2336;0.1696;
185.7000;0.2377;0.1815;
186.0000;0.2377;0.1743;
186.3000;0.2369;0.1720;
186.6000;0.2336;0.1648;
186.9000;0.2385;0.1743;
187.2000;0.2377;0.1743;
187.5000;0.2377;0.1791;
187.8000;0.2377;0.1767;
188.1000;0.2483;0.1982;
188.4000;0.2361;0.1672;
188.7000;0.2328;0.1528;
189.0000;0.2361;0.1624;
189.3000;0.2377;0.1720;
189.6000;0.2287;0.1481;
189.9000;0.2369;0.1696;
190.2000;0.2361;0.1624;
190.5000;0.2385;0.1672;
190.8000;0.2393;0.1696;
191.1000;0.2369;0.1696;
191.4000;0.2377;0.1648;
191.7000;0.2361;0.1720;
192.0000;0.2328;0.1576;
192.3000;0.2418;0.1839;
192.6000;0.2352;0.1672;
192.9000;0.2361;0.1720;
193.2000;0.2336;0.1648;
193.5000;0.2385;0.1743;
193.8000;0.2369;0.1720;
194.1000;0.2295;0.1505;
194.4000;0.2352;0.1696;
194.7000;0.2385;0.1863;
195.0000;0.2352;0.1887;
195.3000;0.2385;0.1863;
195.6000;0.2336;0.1767;
195.9000;0.2255;0.1552;
196.2000;0.2385;0.1863;
196.5000;0.2393;0.1934;
196.8000;0.2377;0.1839;
197.1000;0.2385;0.1934;
197.4000;0.2377;0.1887;
197.7000;0.2369;0.1791;
198.0000;0.2312;0.1720;
198.3000;0.2369;0.1815;
198.6000;0.2385;0.1791;
198.9000;0.2369;0.1743;
199.2000;0.2377;0.1767;
199.5000;0.2352;0.1696;
199.8000;0.2361;0.1672;
200.1000;0.2434;0.1887;
200.4000;0.2344;0.1720;
200.7000;0.2279;0.1576;
201.0000;0.2377;0.1911;
201.3000;0.2385;0.1934;
201.6000;0.2377;0.1815;
201.9000;0.2377;0.1767;
202.2000;0.2344;0.1720;
202.5000;0.2418;0.1934;
202.8000;0.2352;0.1743;
203.1000;0.2361;0.1743;
203.4000;0.2393;0.1911;
203.7000;0.2401;0.1934;
204.0000;0.2409;0.2030;
204.3000;0.2304;0.1720;
204.6000;0.2369;0.1791;
204.9000;0.2361;0.1815;
205.2000;0.2377;0.1743;
205.5000;0.2304;0.1528;
205.8000;0.2369;0.1672;
206.1000;0.2393;0.1791;
206.4000;0.2361;0.1791;
206.7000;0.2336;0.1672;
207.0000;0.2361;0.1696;
207.3000;0.2369;0.1791;
207.6000;0.2361;0.1767;
207.9000;0.2352;0.1720;
208.2000;0.2361;0.1743;
208.5000;0.2377;0.1743;
208.8000;0.2377;0.1743;
209.1000;0.2369;0.1720;
209.4000;0.2344;0.1672;
209.7000;0.2344;0.1720;
210.0000;0.2352;0.1791;
210.3000;0.2352;0.1720;
210.6000;0.2369;0.1696;
210.9000;0.2361;0.1672;
211.2000;0.2385;0.1767;
211.5000;0.2369;0.1791;
211.8000;0.2426;0.1911;
212.1000;0.2344;0.1767;
212.4000;0.2385;0.1958;
212.7000;0.2377;0.1887;
213.0000;0.2369;0.1839;
213.3000;0.2344;0.1743;
213.6000;0.2352;0.1720;
213.9000;0.2369;0.1839;
214.2000;0.2352;0.1767;
214.5000;0.2361;0.1743;
214.8000;0.2369;0.1743;
215.1000;0.2352;0.1743;
215.4000;0.2369;0.1839;
215.7000;0.2352;0.1767;
216.0000;0.2352;0.1743;
216.3000;0.2361;0.1696;
216.6000;0.2361;0.1743;
216.9000;0.2361;0.1791;
217.2000;0.2369;0.1815;
217.5000;0.2369;0.1815;
217.8000;0.2385;0.1815;
218.1000;0.2361;0.1791;
218.4000;0.2369;0.1791;
218.7000;0.2377;0.1743;
219.0000;0.2377;0.1767;
219.3000;0.2336;0.1600;
219.6000;0.2361;0.1720;
219.9000;0.2369;0.1696;
220.2000;0.2361;0.1767;
220.5000;0.2369;0.1839;
220.8000;0.2352;0.1911;
221.1000;0.2295;0.1743;
221.4000;0.2377;0.1863;
221.7000;0.2361;0.1743;
222.0000;0.2352;0.1767;
222.3000;0.2361;0.1815;
222.6000;0.2361;0.1839;
222.9000;0.2377;0.1982;
223.2000;0.2377;0.2054;
223.5000;0.2336;0.1911;
223.8000;0.2385;0.1934;
224.1000;0.2369;0.1887;
224.4000;0.2336;0.1791;
224.7000;0.2336;0.1767;
225.0000;0.2344;0.1815;
225.3000;0.2361;0.1815;
225.6000;0.2361;0.1767;
225.9000;0.2352;0.1743;
226.2000;0.2361;0.1672;
226.5000;0.2369;0.1696;
226.8000;0.2352;0.1648;
227.1000;0.2385;0.1672;
227.4000;0.2344;0.1648;
227.7000;0.2377;0.1696;
228.0000;0.2369;0.1720;
228.3000;0.2369;0.1720;
228.6000;0.2369;0.1672;
228.9000;0.2361;0.1624;
229.2000;0.2401;0.1600;
229.5000;0.2361;0.1505;
229.8000;0.2361;0.1528;
230.1000;0.2352;0.1528;
230.4000;0.2361;0.1528;
230.7000;0.2377;0.1481;
231.0000;0.2369;0.1505;
231.3000;0.2352;0.1648;
231.6000;0.2328;0.1624;
231.9000;0.2344;0.1600;
232.2000;0.2312;0.1481;
232.5000;0.2426;0.1839;
232.8000;0.2369;0.1743;
233.1000;0.2361;0.1815;
233.4000;0.2377;0.1839;
233.7000;0.2352;0.1767;
234.0000;0.2352;0.1911;
234.3000;0.2352;0.1934;
234.6000;0.2361;0.1958;
234.9000;0.2336;0.1839;
235.2000;0.2361;0.1887;
235.5000;0.2328;0.1743;
235.8000;0.2361;0.1696;
236.1000;0.2361;0.1720;
236.4000;0.2369;0.1672;
236.7000;0.2377;0.1672;
237.0000;0.2312;0.1505;
237.3000;0.2304;0.1528;
237.6000;0.2442;0.1911;
237.9000;0.2369;0.1648;
238.2000;0.2369;0.1648;
238.5000;0.2369;0.1600;
238.8000;0.2344;0.1600;
239.1000;0.2434;0.1887;
239.4000;0.2369;0.1720;
239.7000;0.2352;0.1576;
240.0000;0.2361;0.1600;
240.3000;0.2361;0.1600;
240.6000;0.2361;0.1624;
240.9000;0.2361;0.1600;
241.2000;0.2344;0.1552;
241.5000;0.2344;0.1576;
241.8000;0.2361;0.1672;
242.1000;0.2466;0.1958;
242.4000;0.2271;0.1409;
242.7000;0.2369;0.1696;
243.0000;0.2385;0.1672;
243.3000;0.2409;0.1767;
243.6000;0.2377;0.1720;
243.9000;0.2361;0.1696;
244.2000;0.2385;0.1839;
244.5000;0.2377;0.1863;
244.8000;0.2369;0.1887;
245.1000;0.2361;0.1863;
245.4000;0.2336;0.1839;
245.7000;0.2369;0.1911;
246.0000;0.2458;0.2149;
246.3000;0.2369;0.1815;
246.6000;0.2344;0.1767;
246.9000;0.2361;0.1696;
247.2000;0.2369;0.1696;
247.5000;0.2287;0.1528;
247.8000;0.2369;0.1648;
248.1000;0.2361;0.1576;
248.4000;0.2369;0.1481;
248.7000;0.2344;0.1385;
249.0000;0.2352;0.1409;
249.3000;0.2344;0.1266;
249.6000;0.2385;0.1505;
249.9000;0.2344;0.1505;
250.2000;0.2418;0.1767;
250.5000;0.2328;0.1552;
250.8000;0.2377;0.1600;
251.1000;0.2352;0.1672;
251.4000;0.2369;0.1743;
251.7000;0.2352;0.1743;
252.0000;0.2369;0.1767;
252.3000;0.2361;0.1696;
252.6000;0.2352;0.1743;
252.9000;0.2361;0.1839;
253.2000;0.2352;0.1767;
253.5000;0.2393;0.1887;
253.8000;0.2352;0.1791;
254.1000;0.2401;0.1911;
254.4000;0.2336;0.1791;
254.7000;0.2336;0.1720;
255.0000;0.2304;0.1648;
255.3000;0.2369;0.1815;
255.6000;0.2434;0.1982;
255.9000;0.2426;0.2006;
256.2000;0.2377;0.1863;
256.5000;0.2352;0.1767;
256.8000;0.2352;0.1743;
257.1000;0.2361;0.1720;
257.4000;0.2377;0.1648;
257.7000;0.2361;0.1648;
258.0000;0.2344;0.1600;
258.3000;0.2458;0.1934;
258.6000;0.2418;0.1815;
258.9000;0.2344;0.1600;
259.2000;0.2377;0.1720;
259.5000;0.2409;0.1839;
259.8000;0.2458;0.1887;
260.1000;0.2385;0.1767;
260.4000;0.2344;0.1648;
260.7000;0.2352;0.1696;
261.0000;0.2377;0.1767;
261.3000;0.2361;0.1791;
261.6000;0.2369;0.1839;
261.9000;0.2255;0.1600;
262.2000;0.2385;0.1887;
262.5000;0.2369;0.1911;
262.8000;0.2361;0.1815;
263.1000;0.2377;0.1863;
263.4000;0.2344;0.1839;
263.7000;0.2352;0.1815;
264.0000;0.2361;0.1720;
264.3000;0.2491;0.2030;
264.6000;0.2369;0.1696;
264.9000;0.2377;0.1648;
265.2000;0.2377;0.1743;
265.5000;0.2361;0.1696;
265.8000;0.2361;0.1648;
266.1000;0.2385;0.1672;
266.4000;0.2352;0.1672;
266.7000;0.2344;0.1624;
267.0000;0.2344;0.1576;
267.3000;0.2328;0.1600;
267.6000;0.2377;0.1743;
267.9000;0.2361;0.1696;
268.2000;0.2361;0.1648;
268.5000;0.2352;0.1624;
268.8000;0.2401;0.1648;
269.1000;0.2377;0.1624;
269.4000;0.2377;0.1648;
269.7000;0.2361;0.1720;
270.0000;0.2369;0.1791;
270.3000;0.2377;0.1767;
270.6000;0.2361;0.1720;
270.9000;0.2369;0.1672;
271.2000;0.2336;0.1528;
271.5000;0.2361;0.1600;
271.8000;0.2369;0.1600;
272.1000;0.2344;0.1433;
272.4000;0.2320;0.1337;
272.7000;0.2352;0.1505;
273.0000;0.2352;0.1576;
273.3000;0.2352;0.1600;
273.6000;0.2328;0.1648;
273.9000;0.2361;0.1672;
274.2000;0.2369;0.1672;
274.5000;0.2336;0.1528;
274.8000;0.2369;0.1696;
275.1000;0.2369;0.1720;
275.4000;0.2352;0.1648;
275.7000;0.2352;0.1600;
276.0000;0.2377;0.1672;
276.3000;0.2361;0.1743;
276.6000;0.2369;0.1863;
276.9000;0.2352;0.1767;
277.2000;0.2344;0.1648;
277.5000;0.2328;0.1552;
277.8000;0.2361;0.1624;
278.1000;0.2361;0.1648;
278.4000;0.2369;0.1624;
278.7000;0.2369;0.1696;
279.0000;0.2369;0.1720;
279.3000;0.2361;0.1624;
279.6000;0.2377;0.1672;
279.9000;0.2361;0.1672;
280.2000;0.2418;0.1863;
280.5000;0.2352;0.1672;
280.8000;0.2361;0.1720;
281.1000;0.2352;0.1648;
281.4000;0.2352;0.1696;
281.7000;0.2393;0.1743;
282.0000;0.2312;0.1552;
282.3000;0.2344;0.1743;
282.6000;0.2401;0.1839;
282.9000;0.2361;0.1743;
283.2000;0.2426;0.1934;
283.5000;0.2328;0.1815;
283.8000;0.2361;0.1934;
284.1000;0.2361;0.1934;
284.4000;0.2369;0.2006;
284.7000;0.2344;0.1911;
285.0000;0.2369;0.1911;
285.3000;0.2377;0.1911;
285.6000;0.2312;0.1743;
285.9000;0.2369;0.1911;
286.2000;0.2352;0.1767;
286.5000;0.2352;0.1743;
286.8000;0.2361;0.1767;
287.1000;0.2361;0.1815;
287.4000;0.2361;0.1887;
287.7000;0.2344;0.1863;
288.0000;0.2352;0.1839;
288.3000;0.2352;0.1839;
288.6000;0.2344;0.1767;
288.9000;0.2320;0.1648;
289.2000;0.2369;0.1863;
289.5000;0.2369;0.1815;
289.8000;0.2352;0.1815;
290.1000;0.2361;0.1911;
290.4000;0.2401;0.1934;
290.7000;0.2361;0.1696;
291.0000;0.2361;0.1648;
291.3000;0.2352;0.1696;
291.6000;0.2352;0.1672;
291.9000;0.2377;0.1696;
292.2000;0.2377;0.1791;
292.5000;0.2336;0.1648;
292.8000;0.2377;0.1743;
293.1000;0.2361;0.1743;
293.4000;0.2328;0.1648;
293.7000;0.2377;0.1839;
294.0000;0.2369;0.1791;
294.3000;0.2369;0.1911;
294.6000;0.2377;0.1958;
294.9000;0.2393;0.2054;
295.2000;0.2409;0.2221;
295.5000;0.2320;0.1982;
295.8000;0.2361;0.2149;
296.1000;0.2377;0.2126;
296.4000;0.2328;0.2054;
296.7000;0.2344;0.2030;
297.0000;0.2426;0.2197;
297.3000;0.2352;0.1958;
297.6000;0.2377;0.2030;
297.9000;0.2352;0.1934;
298.2000;0.2344;0.1934;
298.5000;0.2361;0.1911;
298.8000;0.2369;0.1839;
299.1000;0.2361;0.1839;
299.4000;0.2361;0.1839;
299.7000;0.2377;0.1815;
300.0000;0.2369;0.1887;
300.3000;0.2344;0.1863;
300.6000;0.2369;0.1911;
300.9000;0.2369;0.1982;
301.2000;0.2344;0.1958;
301.5000;0.2361;0.2054;
301.8000;0.2369;0.2006;
302.1000;0.2352;0.1934;
302.4000;0.2361;0.1934;
302.7000;0.2418;0.2197;
303.0000;0.2369;0.1958;
303.3000;0.2361;0.1958;
303.6000;0.2344;0.1958;
303.9000;0.2344;0.1934;
304.2000;0.2361;0.1958;
304.5000;0.2377;0.1887;
304.8000;0.2344;0.1743;
305.1000;0.2450;0.2030;
305.4000;0.2377;0.1815;
305.7000;0.2361;0.1839;
306.0000;0.2377;0.1791;
306.3000;0.2352;0.1743;
306.6000;0.2361;0.1767;
306.9000;0.2344;0.1767;
307.2000;0.2239;0.1528;
307.5000;0.2369;0.1934;
307.8000;0.2352;0.1887;
308.1000;0.2344;0.1815;
308.4000;0.2361;0.1815;
308.7000;0.2352;0.1767;
309.0000;0.2377;0.1887;
309.3000;0.2352;0.1839;
309.6000;0.2361;0.1887;
309.9000;0.2369;0.1815;
310.2000;0.2385;0.1863;
310.5000;0.2369;0.1815;
310.8000;0.2377;0.1815;
311.1000;0.2377;0.1767;
311.4000;0.2361;0.1720;
311.7000;0.2352;0.1672;
312.0000;0.2361;0.1648;
312.3000;0.2247;0.1409;
312.6000;0.2361;0.1696;
312.9000;0.2336;0.1600;
313.2000;0.2393;0.1791;
313.5000;0.2361;0.1696;
313.8000;0.2361;0.1696;
314.1000;0.2409;0.1887;
314.4000;0.2336;0.1767;
314.7000;0.2385;0.1839;
315.0000;0.2369;0.1839;
315.3000;0.2377;0.1863;
315.6000;0.2377;0.1815;
315.9000;0.2377;0.1767;
316.2000;0.2369;0.1743;
316.5000;0.2352;0.1672;
316.8000;0.2369;0.1767;
317.1000;0.2409;0.1934;
317.4000;0.2369;0.1887;
317.7000;0.2369;0.1815;
318.0000;0.2361;0.1767;
318.3000;0.2418;0.1863;
318.6000;0.2369;0.1696;
318.9000;0.2361;0.1720;
319.2000;0.2361;0.1743;
319.5000;0.2352;0.1743;
319.8000;0.2344;0.1815;
320.1000;0.2352;0.1815;
320.4000;0.2344;0.1863;
320.7000;0.2336;0.1767;
321.0000;0.2369;0.1887;
321.3000;0.2361;0.1934;
321.6000;0.2369;0.1982;
321.9000;0.2369;0.1958;
322.2000;0.2361;0.2006;
322.5000;0.2475;0.2317;
322.8000;0.2361;0.1934;
323.1000;0.2336;0.1791;
323.4000;0.2344;0.1791;
323.7000;0.2369;0.1839;
324.0000;0.2393;0.1887;
324.3000;0.2369;0.1839;
324.6000;0.2336;0.1815;
324.9000;0.2369;0.1791;
325.2000;0.2377;0.1791;
325.5000;0.2361;0.1743;
325.8000;0.2352;0.1767;
326.1000;0.2361;0.1839;
326.4000;0.2377;0.1934;
326.7000;0.2369;0.1934;
327.0000;0.2361;0.1934;
327.3000;0.2409;0.2030;
327.6000;0.2369;0.1958;
327.9000;0.2369;0.1887;
328.2000;0.2336;0.1743;
328.5000;0.2369;0.1767;
328.8000;0.2491;0.2102;
329.1000;0.2295;0.1648;
329.4000;0.2344;0.1743;
329.7000;0.2352;0.1720;
330.0000;0.2352;0.1767;
330.3000;0.2369;0.1767;
330.6000;0.2361;0.1767;
330.9000;0.2352;0.1767;
331.2000;0.2385;0.1815;
331.5000;0.2361;0.1720;
331.8000;0.2361;0.1791;
332.1000;0.2352;0.1815;
332.4000;0.2369;0.1863;
332.7000;0.2344;0.1887;
333.0000;0.2409;0.1958;
333.3000;0.2344;0.1767;
333.6000;0.2304;0.1576;
333.9000;0.2361;0.1767;
334.2000;0.2328;0.1672;
334.5000;0.2361;0.1815;
334.8000;0.2344;0.1791;
335.1000;0.2377;0.1887;
335.4000;0.2361;0.1887;
335.7000;0.2369;0.1911;
336.0000;0.2361;0.1934;
336.3000;0.2336;0.1911;
336.6000;0.2369;0.1982;
336.9000;0.2369;0.1863;
337.2000;0.2401;0.1863;
337.5000;0.2369;0.1624;
337.8000;0.2295;0.1433;
338.1000;0.2361;0.1528;
338.4000;0.2426;0.1720;
338.7000;0.2361;0.1528;
339.0000;0.2336;0.1409;
339.3000;0.2352;0.1409;
339.6000;0.2352;0.1337;
339.9000;0.2369;0.1361;
340.2000;0.2361;0.1433;
340.5000;0.2369;0.1528;
340.8000;0.2401;0.1743;
341.1000;0.2344;0.1528;
341.4000;0.2352;0.1552;
341.7000;0.2377;0.1624;
342.0000;0.2361;0.1624;
342.3000;0.2369;0.1576;
342.6000;0.2344;0.1433;
342.9000;0.2361;0.1600;
343.2000;0.2369;0.1624;
343.5000;0.2328;0.1576;
343.8000;0.2344;0.1648;
344.1000;0.2361;0.1720;
344.4000;0.2352;0.1743;
344.7000;0.2344;0.1720;
345.0000;0.2361;0.1696;
345.3000;0.2352;0.1720;
345.6000;0.2401;0.1863;
345.9000;0.2426;0.1863;
346.2000;0.2369;0.1791;
346.5000;0.2369;0.1863;
346.8000;0.2361;0.1767;
347.1000;0.2344;0.1791;
347.4000;0.2377;0.1743;
347.7000;0.2352;0.1696;
348.0000;0.2352;0.1696;
348.3000;0.2369;0.1672;
348.6000;0.2328;0.1409;
348.9000;0.2344;0.1457;
349.2000;0.2352;0.1481;
349.5000;0.2369;0.1672;
349.8000;0.2352;0.1696;
350.1000;0.2287;0.1528;
350.4000;0.2279;0.1433;
350.7000;0.2361;0.1600;
351.0000;0.2393;0.1720;
351.3000;0.2352;0.1552;
351.6000;0.2287;0.1457;
351.9000;0.2369;0.1600;
352.2000;0.2328;0.1528;
352.5000;0.2361;0.1600;
352.8000;0.2352;0.1624;
353.1000;0.2320;0.1552;
353.4000;0.2312;0.1528;
353.7000;0.2377;0.1672;
354.0000;0.2377;0.1648;
354.3000;0.2352;0.1696;
354.6000;0.2369;0.1839;
354.9000;0.2336;0.1815;
355.2000;0.2344;0.1743;
355.5000;0.2352;0.1791;
355.8000;0.2312;0.1672;
356.1000;0.2409;0.1934;
356.4000;0.2336;0.1743;
356.7000;0.2336;0.1696;
357.0000;0.2344;0.1696;
357.3000;0.2377;0.1767;
357.6000;0.2320;0.1600;
357.9000;0.2369;0.1720;
358.2000;0.2344;0.1767;
358.5000;0.2393;0.1958;
358.8000;0.2385;0.1815;
359.1000;0.2377;0.1743;
359.4000;0.2377;0.1791;
359.7000;0.2377;0.1911;
360.0000;0.2361;0.1887;
360.3000;0.2385;0.1863;
360.6000;0.2369;0.1791;
360.9000;0.2377;0.1887;
361.2000;0.2361;0.1815;
361.5000;0.2369;0.1791;
361.8000;0.2393;0.1887;
362.1000;0.2385;0.1839;
362.4000;0.2369;0.1791;
362.7000;0.2369;0.1863;
363.0000;0.2230;0.1505;
363.3000;0.2344;0.1887;
363.6000;0.2361;0.2054;
363.9000;0.2385;0.1982;
364.2000;0.2385;0.1958;
364.5000;0.2377;0.1934;
364.8000;0.2352;0.1863;
365.1000;0.2344;0.1815;
365.4000;0.2352;0.1815;
365.7000;0.2344;0.1720;
366.0000;0.2352;0.1791;
366.3000;0.2377;0.1887;
366.6000;0.2336;0.1743;
366.9000;0.2344;0.1815;
367.2000;0.2385;0.1934;
367.5000;0.2401;0.1911;
367.8000;0.2352;0.1815;
368.1000;0.2361;0.1791;
368.4000;0.2352;0.1839;
368.7000;0.2377;0.1791;
369.0000;0.2385;0.1839;
369.3000;0.2352;0.1743;
369.6000;0.2361;0.1791;
369.9000;0.2352;0.1791;
370.2000;0.2377;0.1791;
370.5000;0.2361;0.1743;
370.8000;0.2352;0.1648;
371.1000;0.2361;0.1672;
371.4000;0.2352;0.1624;
371.7000;0.2377;0.1648;
372.0000;0.2361;0.1648;
372.3000;0.2377;0.1743;
372.6000;0.2352;0.1696;
372.9000;0.2361;0.1767;
373.2000;0.2361;0.1863;
373.5000;0.2377;0.1958;
373.8000;0.2344;0.1934;
374.1000;0.2361;0.1934;
374.4000;0.2369;0.1934;
374.7000;0.2426;0.2126;
375.0000;0.2409;0.1982;
375.3000;0.2401;0.2054;
375.6000;0.2344;0.1911;
375.9000;0.2344;0.1815;
376.2000;0.2369;0.1839;
376.5000;0.2312;0.1600;
376.8000;0.2312;0.1528;
377.1000;0.2369;0.1648;
377.4000;0.2352;0.1648;
377.7000;0.2352;0.1624;
378.0000;0.2434;0.1767;
378.3000;0.2336;0.1552;
378.6000;0.2369;0.1672;
378.9000;0.2312;0.1505;
379.2000;0.2312;0.1576;
379.5000;0.2361;0.1720;
379.8000;0.2344;0.1791;
380.1000;0.2377;0.1839;
380.4000;0.2344;0.1696;
380.7000;0.2352;0.1600;
381.0000;0.2344;0.1528;
381.3000;0.2361;0.1624;
381.6000;0.2369;0.1672;
381.9000;0.2385;0.1815;
382.2000;0.2361;0.1720;
382.5000;0.2352;0.1624;
382.8000;0.2377;0.1720;
383.1000;0.2361;0.1648;
383.4000;0.2352;0.1648;
383.7000;0.2369;0.1672;
384.0000;0.2385;0.1720;
384.3000;0.2352;0.1528;
384.6000;0.2369;0.1552;
384.9000;0.2361;0.1624;
385.2000;0.2434;0.1815;
385.5000;0.2344;0.1600;
385.8000;0.2377;0.1624;
386.1000;0.2344;0.1505;
386.4000;0.2385;0.1600;
386.7000;0.2377;0.1600;
387.0000;0.2369;0.1624;
387.3000;0.2352;0.1576;
387.6000;0.2369;0.1743;
387.9000;0.2377;0.1767;
388.2000;0.2352;0.1672;
388.5000;0.2271;0.1433;
388.8000;0.2361;0.1696;
389.1000;0.2361;0.1743;
389.4000;0.2336;0.1672;
389.7000;0.2352;0.1743;
390.0000;0.2295;0.1576;
390.3000;0.2393;0.1791;
390.6000;0.2385;0.1720;
390.9000;0.2352;0.1672;
391.2000;0.2336;0.1600;
391.5000;0.2344;0.1648;
391.8000;0.2369;0.1720;
392.1000;0.2369;0.1720;
392.4000;0.2369;0.1648;
392.7000;0.2361;0.1600;
393.0000;0.2377;0.1648;
393.3000;0.2369;0.1672;
393.6000;0.2369;0.1624;
393.9000;0.2352;0.1528;
394.2000;0.2369;0.1481;
394.5000;0.2377;0.1481;
394.8000;0.2352;0.1552;
395.1000;0.2344;0.1505;
395.4000;0.2361;0.1600;
395.7000;0.2336;0.1457;
396.0000;0.2369;0.1552;
396.3000;0.2304;0.1337;
396.6000;0.2361;0.1505;
396.9000;0.2312;0.1361;
397.2000;0.2361;0.1624;
397.5000;0.2352;0.1672;
397.8000;0.2352;0.1720;
398.1000;0.2369;0.1791;
398.4000;0.2352;0.1791;
398.7000;0.2352;0.1839;
399.0000;0.2352;0.1863;
399.3000;0.2279;0.1600;
399.6000;0.2352;0.1743;
399.9000;0.2344;0.1624;
400.2000;0.2263;0.1409;
400.5000;0.2352;0.1743;
400.8000;0.2361;0.1696;
401.1000;0.2336;0.1624;
401.4000;0.2336;0.1528;
401.7000;0.2369;0.1576;
402.0000;0.2344;0.1576;
402.3000;0.2336;0.1552;
402.6000;0.2352;0.1576;
402.9000;0.2377;0.1505;
403.2000;0.2361;0.1481;
403.5000;0.2377;0.1576;
403.8000;0.2377;0.1624;
404.1000;0.2361;0.1624;
404.4000;0.2361;0.1672;
404.7000;0.2352;0.1648;
405.0000;0.2336;0.1600;
405.3000;0.2377;0.1648;
405.6000;0.2385;0.1624;
405.9000;0.2352;0.1528;
406.2000;0.2442;0.1720;
406.5000;0.2352;0.1528;
406.8000;0.2377;0.1576;
407.1000;0.2336;0.1528;
407.4000;0.2320;0.1481;
407.7000;0.2336;0.1576;
408.0000;0.2377;0.1672;
408.3000;0.2361;0.1624;
408.6000;0.2352;0.1672;
408.9000;0.2344;0.1720;
409.2000;0.2369;0.1696;
409.5000;0.2377;0.1743;
409.8000;0.2361;0.1720;
410.1000;0.2361;0.1720;
410.4000;0.2352;0.1672;
410.7000;0.2352;0.1648;
411.0000;0.2361;0.1648;
411.3000;0.2328;0.1672;
411.6000;0.2361;0.1791;
411.9000;0.2361;0.1672;
412.2000;0.2369;0.1743;
412.5000;0.2328;0.1672;
412.8000;0.2361;0.1791;
413.1000;0.2369;0.1791;
413.4000;0.2369;0.1720;
413.7000;0.2369;0.1767;
414.0000;0.2369;0.1815;
414.3000;0.2361;0.1791;
414.6000;0.2409;0.1982;
414.9000;0.2369;0.1839;
415.2000;0.2369;0.1791;
415.5000;0.2385;0.1720;
415.8000;0.2369;0.1672;
416.1000;0.2352;0.1600;
416.4000;0.2344;0.1624;
416.7000;0.2352;0.1672;
417.0000;0.2385;0.1839;
417.3000;0.2369;0.1791;
417.6000;0.2393;0.1911;
417.9000;0.2344;0.1743;
418.2000;0.2344;0.1743;
418.5000;0.2344;0.1767;
418.8000;0.2393;0.1839;
419.1000;0.2401;0.1911;
419.4000;0.2361;0.1887;
419.7000;0.2369;0.1911;
420.0000;0.2385;0.1934;
420.3000;0.2369;0.1863;
420.6000;0.2369;0.1863;
420.9000;0.2385;0.1934;
421.2000;0.2352;0.1839;
421.5000;0.2361;0.1791;
421.8000;0.2352;0.1791;
422.1000;0.2409;0.1839;
422.4000;0.2361;0.1767;
422.7000;0.2255;0.1528;
423.0000;0.2344;0.1720;
423.3000;0.2369;0.1863;
423.6000;0.2361;0.1815;
423.9000;0.2361;0.1815;
424.2000;0.2361;0.1887;
424.5000;0.2361;0.1934;
424.8000;0.2361;0.1887;
425.1000;0.2369;0.1791;
425.4000;0.2369;0.1672;
425.7000;0.2352;0.1672;
426.0000;0.2328;0.1672;
426.3000;0.2344;0.1696;
426.6000;0.2369;0.1720;
426.9000;0.2369;0.1696;
427.2000;0.2344;0.1600;
427.5000;0.2352;0.1600;
427.8000;0.2377;0.1648;
428.1000;0.2369;0.1672;
428.4000;0.2361;0.1576;
428.7000;0.2369;0.1576;
429.0000;0.2377;0.1600;
429.3000;0.2352;0.1552;
429.6000;0.2352;0.1624;
429.9000;0.2369;0.1648;
430.2000;0.2320;0.1481;
430.5000;0.2369;0.1505;
430.8000;0.2377;0.1481;
431.1000;0.2377;0.1457;
431.4000;0.2393;0.1505;
431.7000;0.2352;0.1457;
432.0000;0.2352;0.1457;
432.3000;0.2344;0.1361;
432.6000;0.2369;0.1457;
432.9000;0.2352;0.1409;
433.2000;0.2361;0.1528;
433.5000;0.2393;0.1672;
433.8000;0.2377;0.1600;
434.1000;0.2361;0.1648;
434.4000;0.2361;0.1720;
434.7000;0.2352;0.1696;
435.0000;0.2369;0.1767;
435.3000;0.2352;0.1743;
435.6000;0.2361;0.1672;
435.9000;0.2352;0.1648;
436.2000;0.2352;0.1576;
436.5000;0.2344;0.1409;
436.8000;0.2344;0.1481;
437.1000;0.2393;0.1648;
437.4000;0.2369;0.1648;
437.7000;0.2361;0.1552;
438.0000;0.2369;0.1672;
438.3000;0.2344;0.1696;
438.6000;0.2328;0.1696;
438.9000;0.2352;0.1743;
439.2000;0.2352;0.1696;
439.5000;0.2361;0.1720;
439.8000;0.2377;0.1696;
440.1000;0.2320;0.1528;
440.4000;0.2352;0.1624;
440.7000;0.2344;0.1672;
441.0000;0.2230;0.1266;
441.3000;0.2393;0.1648;
441.6000;0.2352;0.1624;
441.9000;0.2377;0.1720;
442.2000;0.2385;0.1767;
442.5000;0.2369;0.1767;
442.8000;0.2369;0.1839;
443.1000;0.2352;0.1863;
443.4000;0.2344;0.1863;
443.7000;0.2344;0.1887;
444.0000;0.2369;0.1911;
444.3000;0.2352;0.1911;
444.6000;0.2393;0.1982;
444.9000;0.2361;0.1887;
445.2000;0.2336;0.1863;
445.5000;0.2352;0.1934;
445.8000;0.2361;0.1934;
446.1000;0.2369;0.1887;
446.4000;0.2369;0.1791;
446.7000;0.2377;0.1672;
447.0000;0.2361;0.1600;
447.3000;0.2336;0.1576;
447.6000;0.2385;0.1696;
447.9000;0.2361;0.1720;
448.2000;0.2352;0.1576;
448.5000;0.2336;0.1576;
448.8000;0.2344;0.1576;
449.1000;0.2377;0.1720;
449.4000;0.2352;0.1672;
449.7000;0.2377;0.1743;
450.0000;0.2344;0.1696;
450.3000;0.2385;0.1743;
450.6000;0.2369;0.1696;
450.9000;0.2369;0.1720;
451.2000;0.2361;0.1672;
451.5000;0.2458;0.2030;
451.8000;0.2361;0.1696;
452.1000;0.2369;0.1767;
452.4000;0.2295;0.1600;
452.7000;0.2328;0.1720;
453.0000;0.2369;0.1863;
453.3000;0.2352;0.1791;
453.6000;0.2352;0.1791;
453.9000;0.2361;0.1720;
454.2000;0.2352;0.1648;
454.5000;0.2409;0.1743;
454.8000;0.2344;0.1624;
455.1000;0.2369;0.1767;
455.4000;0.2361;0.1767;
455.7000;0.2393;0.1863;
456.0000;0.2352;0.1839;
456.3000;0.2361;0.2006;
456.6000;0.2361;0.1982;
456.9000;0.2352;0.1887;
457.2000;0.2328;0.1720;
457.5000;0.2344;0.1767;
457.8000;0.2409;0.1911;
458.1000;0.2361;0.1791;
458.4000;0.2361;0.1767;
458.7000;0.2418;0.1815;
459.0000;0.2352;0.1600;
459.3000;0.2369;0.1696;
459.6000;0.2336;0.1720;
459.9000;0.2361;0.1767;
460.2000;0.2352;0.1767;
460.5000;0.2336;0.1743;
460.8000;0.2361;0.1839;
461.1000;0.2344;0.1839;
461.4000;0.2328;0.1839;
461.7000;0.2344;0.1767;
462.0000;0.2369;0.1815;
462.3000;0.2344;0.1720;
462.6000;0.2344;0.1720;
462.9000;0.2352;0.1696;
463.2000;0.2352;0.1672;
463.5000;0.2361;0.1672;
463.8000;0.2344;0.1624;
464.1000;0.2377;0.1672;
464.4000;0.2369;0.1648;
464.7000;0.2352;0.1624;
465.0000;0.2409;0.1791;
465.3000;0.2409;0.1863;
465.6000;0.2230;0.1433;
465.9000;0.2352;0.1696;
466.2000;0.2328;0.1624;
466.5000;0.2344;0.1672;
466.8000;0.2352;0.1743;
467.1000;0.2369;0.1791;
467.4000;0.2336;0.1743;
467.7000;0.2287;0.1696;
468.0000;0.2361;0.1720;
468.3000;0.2336;0.1696;
468.6000;0.2320;0.1672;
468.9000;0.2352;0.1720;
469.2000;0.2385;0.1863;
469.5000;0.2344;0.1839;
469.8000;0.2409;0.2030;
470.1000;0.2344;0.1815;
470.4000;0.2352;0.1791;
470.7000;0.2385;0.1839;
471.0000;0.2393;0.1863;
471.3000;0.2336;0.1720;
471.6000;0.2361;0.1696;
471.9000;0.2361;0.1672;
472.2000;0.2369;0.1696;
472.5000;0.2361;0.1767;
472.8000;0.2344;0.1767;
473.1000;0.2361;0.1743;
473.4000;0.2344;0.1743;
473.7000;0.2352;0.1648;
474.0000;0.2344;0.1552;
474.3000;0.2328;0.1481;
474.6000;0.2369;0.1648;
474.9000;0.2344;0.1600;
475.2000;0.2344;0.1624;
475.5000;0.2344;0.1672;
475.8000;0.2336;0.1648;
476.1000;0.2344;0.1672;
476.4000;0.2263;0.1433;
476.7000;0.2344;0.1696;
477.0000;0.2352;0.1791;
477.3000;0.2361;0.1720;
477.6000;0.2369;0.1767;
477.9000;0.2287;0.1552;
478.2000;0.2393;0.1911;
478.5000;0.2369;0.1934;
478.8000;0.2409;0.2173;
479.1000;0.2377;0.2030;
479.4000;0.2344;0.1911;
479.7000;0.2352;0.1863;
480.0000;0.2344;0.1767;
480.3000;0.2352;0.1791;
480.6000;0.2361;0.1720;
480.9000;0.2344;0.1600;
481.2000;0.2377;0.1624;
481.5000;0.2352;0.1552;
481.8000;0.2385;0.1576;
482.1000;0.2369;0.1552;
482.4000;0.2369;0.1552;
482.7000;0.2385;0.1648;
483.0000;0.2426;0.1696;
483.3000;0.2344;0.1576;
483.6000;0.2450;0.1887;
483.9000;0.2352;0.1648;
484.2000;0.2328;0.1672;
484.5000;0.2344;0.1696;
484.8000;0.2352;0.1720;
485.1000;0.2369;0.1791;
485.4000;0.2304;0.1576;
485.7000;0.2336;0.1648;
486.0000;0.2344;0.1720;
486.3000;0.2344;0.1696;
486.6000;0.2352;0.1767;
486.9000;0.2344;0.1791;
487.2000;0.2377;0.1887;
487.5000;0.2361;0.1767;
487.8000;0.2369;0.1791;
488.1000;0.2450;0.2006;
488.4000;0.2361;0.1767;
488.7000;0.2369;0.1743;
489.0000;0.2352;0.1672;
489.3000;0.2344;0.1576;
489.6000;0.2336;0.1528;
489.9000;0.2475;0.1887;
490.2000;0.2369;0.1672;
490.5000;0.2352;0.1672;
490.8000;0.2344;0.1624;
491.1000;0.2361;0.1720;
491.4000;0.2361;0.1648;
491.7000;0.2361;0.1624;
492.0000;0.2369;0.1672;
492.3000;0.2361;0.1624;
492.6000;0.2393;0.1720;
492.9000;0.2369;0.1648;
493.2000;0.2336;0.1600;
493.5000;0.2352;0.1600;
493.8000;0.2255;0.1361;
494.1000;0.2377;0.1648;
494.4000;0.2352;0.1648;
494.7000;0.2352;0.1648;
495.0000;0.2344;0.1672;
495.3000;0.2377;0.1600;
495.6000;0.2352;0.1624;
495.9000;0.2312;0.1600;
496.2000;0.2336;0.1743;
496.5000;0.2361;0.1839;
496.8000;0.2377;0.1815;
497.1000;0.2344;0.1743;
497.4000;0.2361;0.1720;
497.7000;0.2352;0.1720;
498.0000;0.2369;0.1743;
498.3000;0.2352;0.1743;
498.6000;0.2344;0.1815;
498.9000;0.2336;0.1767;
499.2000;0.2352;0.1815;
499.5000;0.2352;0.1815;
499.8000;0.2352;0.1720;
500.1000;0.2369;0.1648;
500.4000;0.2344;0.1720;
500.7000;0.2336;0.1696;
501.0000;0.2361;0.1672;
501.3000;0.2409;0.1720;
501.6000;0.2369;0.1600;
501.9000;0.2377;0.1528;
502.2000;0.2361;0.1600;
502.5000;0.2352;0.1672;
502.8000;0.2352;0.1743;
503.1000;0.2352;0.1839;
503.4000;0.2369;0.1815;
503.7000;0.2320;0.1720;
504.0000;0.2344;0.1720;
504.3000;0.2352;0.1720;
504.6000;0.2377;0.1863;
504.9000;0.2352;0.1791;
505.2000;0.2344;0.1767;
505.5000;0.2361;0.1911;
505.8000;0.2377;0.1934;
506.1000;0.2344;0.1839;
506.4000;0.2295;0.1767;
506.7000;0.2328;0.1863;
507.0000;0.2409;0.2078;
507.3000;0.2361;0.1911;
507.6000;0.2344;0.1982;
507.9000;0.2401;0.2102;
508.2000;0.2344;0.1934;
508.5000;0.2336;0.1934;
508.8000;0.2344;0.1911;
509.1000;0.2304;0.1815;
509.4000;0.2352;0.1887;
509.7000;0.2361;0.1887;
510.0000;0.2361;0.1815;
510.3000;0.2352;0.1863;
510.6000;0.2352;0.1887;
510.9000;0.2377;0.1887;
511.2000;0.2328;0.1839;
511.5000;0.2377;0.1887;
511.8000;0.2352;0.1791;
512.1000;0.2295;0.1696;
512.4000;0.2352;0.1887;
512.7000;0.2352;0.1839;
513.0000;0.2361;0.1815;
513.3000;0.2369;0.1958;
513.6000;0.2344;0.2006;
513.9000;0.2418;0.2221;
514.2000;0.2352;0.1934;
514.5000;0.2369;0.1911;
514.8000;0.2418;0.2054;
515.1000;0.2336;0.1791;
515.4000;0.2344;0.1791;
515.7000;0.2361;0.1911;
516.0000;0.2328;0.1791;
516.3000;0.2344;0.1839;
516.6000;0.2344;0.1767;
516.9000;0.2352;0.1696;
517.2000;0.2361;0.1696;
517.5000;0.2336;0.1672;
517.8000;0.2352;0.1720;
518.1000;0.2369;0.1815;
518.4000;0.2361;0.1839;
518.7000;0.2361;0.1839;
519.0000;0.2336;0.1720;
519.3000;0.2369;0.1863;
519.6000;0.2336;0.1696;
519.9000;0.2328;0.1648;
520.2000;0.2344;0.1767;
520.5000;0.2434;0.1982;
520.8000;0.2385;0.1863;
521.1000;0.2369;0.1815;
521.4000;0.2352;0.1791;
521.7000;0.2369;0.1839;
522.0000;0.2361;0.1815;
522.3000;0.2369;0.1863;
522.6000;0.2361;0.1863;
522.9000;0.2377;0.1982;
523.2000;0.2336;0.1887;
523.5000;0.2385;0.1982;
523.8000;0.2369;0.1863;
524.1000;0.2393;0.1958;
524.4000;0.2320;0.1863;
524.7000;0.2377;0.2006;
525.0000;0.2361;0.1958;
525.3000;0.2377;0.1958;
525.6000;0.2352;0.1839;
525.9000;0.2352;0.1815;
526.2000;0.2328;0.1743;
526.5000;0.2344;0.1743;
526.8000;0.2344;0.1743;
527.1000;0.2344;0.1720;
527.4000;0.2361;0.1767;
527.7000;0.2344;0.1648;
528.0000;0.2377;0.1720;
528.3000;0.2369;0.1672;
528.6000;0.2361;0.1600;
528.9000;0.2377;0.1624;
529.2000;0.2352;0.1696;
529.5000;0.2369;0.1720;
529.8000;0.2393;0.1863;
530.1000;0.2352;0.1815;
530.4000;0.2344;0.1815;
530.7000;0.2352;0.1839;
531.0000;0.2312;0.1696;
531.3000;0.2361;0.1720;
531.6000;0.2361;0.1720;
531.9000;0.2352;0.1743;
532.2000;0.2352;0.1696;
532.5000;0.2352;0.1624;
532.8000;0.2361;0.1672;
533.1000;0.2287;0.1505;
533.4000;0.2344;0.1743;
533.7000;0.2352;0.1815;
534.0000;0.2377;0.1839;
534.3000;0.2336;0.1839;
534.6000;0.2361;0.1887;
534.9000;0.2352;0.1887;
535.2000;0.2401;0.2006;
535.5000;0.2352;0.1839;
535.8000;0.2344;0.1863;
536.1000;0.2352;0.1863;
536.4000;0.2361;0.1839;
536.7000;0.2352;0.1815;
537.0000;0.2409;0.1911;
537.3000;0.2361;0.1791;
537.6000;0.2369;0.1791;
537.9000;0.2344;0.1720;
538.2000;0.2434;0.1887;
538.5000;0.2344;0.1696;
538.8000;0.2418;0.1911;
539.1000;0.2393;0.1815;
539.4000;0.2369;0.1791;
539.7000;0.2369;0.1767;
540.0000;0.2377;0.1839;
540.3000;0.2369;0.1815;
540.6000;0.2328;0.1672;
540.9000;0.2352;0.1720;
541.2000;0.2328;0.1767;
541.5000;0.2393;0.2006;
541.8000;0.2352;0.1791;
542.1000;0.2352;0.1767;
542.4000;0.2377;0.1934;
542.7000;0.2377;0.2054;
543.0000;0.2361;0.2078;
543.3000;0.2369;0.2078;
543.6000;0.2409;0.2054;
543.9000;0.2344;0.1815;
544.2000;0.2377;0.1863;
544.5000;0.2352;0.1743;
544.8000;0.2361;0.1743;
545.1000;0.2352;0.1720;
545.4000;0.2361;0.1648;
545.7000;0.2336;0.1600;
546.0000;0.2361;0.1624;
546.3000;0.2377;0.1648;
546.6000;0.2434;0.1839;
546.9000;0.2361;0.1696;
547.2000;0.2434;0.2030;
547.5000;0.2369;0.1887;
547.8000;0.2369;0.1815;
548.1000;0.2352;0.1767;
548.4000;0.2344;0.1839;
548.7000;0.2369;0.1863;
549.0000;0.2377;0.1863;
549.3000;0.2361;0.1863;
549.6000;0.2336;0.1791;
549.9000;0.2336;0.1767;
550.2000;0.2361;0.1791;
550.5000;0.2369;0.1839;
550.8000;0.2369;0.1672;
551.1000;0.2239;0.1361;
551.4000;0.2344;0.1624;
551.7000;0.2369;0.1648;
552.0000;0.2344;0.1672;
552.3000;0.2336;0.1696;
552.6000;0.2361;0.1720;
552.9000;0.2344;0.1672;
553.2000;0.2369;0.1767;
553.5000;0.2344;0.1696;
553.8000;0.2377;0.1743;
554.1000;0.2377;0.1720;
554.4000;0.2344;0.1624;
554.7000;0.2352;0.1743;
555.0000;0.2409;0.1839;
555.3000;0.2369;0.1791;
555.6000;0.2312;0.1720;
555.9000;0.2352;0.1839;
556.2000;0.2336;0.1815;
556.5000;0.2344;0.1958;
556.8000;0.2352;0.1982;
557.1000;0.2336;0.1863;
557.4000;0.2295;0.1791;
557.7000;0.2344;0.1863;
558.0000;0.2344;0.1767;
558.3000;0.2336;0.1720;
558.6000;0.2344;0.1767;
558.9000;0.2361;0.1839;
559.2000;0.2304;0.1696;
559.5000;0.2361;0.1815;
559.8000;0.2393;0.1911;
560.1000;0.2352;0.1815;
560.4000;0.2352;0.1863;
560.7000;0.2409;0.1958;
561.0000;0.2336;0.1696;
561.3000;0.2352;0.1696;
561.6000;0.2352;0.1767;
561.9000;0.2352;0.1839;
562.2000;0.2361;0.1982;
562.5000;0.2352;0.1863;
562.8000;0.2369;0.1863;
563.1000;0.2361;0.1767;
563.4000;0.2361;0.1767;
563.7000;0.2361;0.1743;
564.0000;0.2352;0.1696;
564.3000;0.2369;0.1743;
564.6000;0.2369;0.1791;
564.9000;0.2344;0.1696;
565.2000;0.2361;0.1672;
565.5000;0.2344;0.1552;
565.8000;0.2352;0.1576;
566.1000;0.2385;0.1648;
566.4000;0.2328;0.1552;
566.7000;0.2328;0.1600;
567.0000;0.2344;0.1600;
567.3000;0.2336;0.1696;
567.6000;0.2344;0.1743;
567.9000;0.2361;0.1791;
568.2000;0.2377;0.1767;
568.5000;0.2295;0.1505;
568.8000;0.2328;0.1600;
569.1000;0.2385;0.1696;
569.4000;0.2361;0.1743;
569.7000;0.2369;0.1696;
570.0000;0.2361;0.1672;
570.3000;0.2377;0.1696;
570.6000;0.2426;0.1887;
570.9000;0.2361;0.1791;
571.2000;0.2369;0.1767;
571.5000;0.2361;0.1696;
571.8000;0.2361;0.1648;
572.1000;0.2369;0.1696;
572.4000;0.2352;0.1743;
572.7000;0.2369;0.1815;
573.0000;0.2369;0.1743;
573.3000;0.2377;0.1767;
573.6000;0.2377;0.1791;
573.9000;0.2361;0.1743;
574.2000;0.2369;0.1863;
574.5000;0.2320;0.1791;
574.8000;0.2369;0.1791;
575.1000;0.2369;0.1743;
575.4000;0.2361;0.1720;
575.7000;0.2328;0.1552;
576.0000;0.2369;0.1743;
576.3000;0.2369;0.1767;
576.6000;0.2352;0.1672;
576.9000;0.2369;0.1696;
577.2000;0.2361;0.1648;
577.5000;0.2320;0.1576;
577.8000;0.2344;0.1600;
578.1000;0.2361;0.1672;
578.4000;0.2361;0.1624;
578.7000;0.2336;0.1552;
579.0000;0.2328;0.1505;
579.3000;0.2344;0.1528;
579.6000;0.2361;0.1624;
579.9000;0.2352;0.1600;
580.2000;0.2328;0.1576;
580.5000;0.2336;0.1505;
580.8000;0.2320;0.1505;
581.1000;0.2352;0.1624;
581.4000;0.2409;0.1767;
581.7000;0.2352;0.1576;
582.0000;0.2361;0.1696;
582.3000;0.2352;0.1743;
582.6000;0.2483;0.2149;
582.9000;0.2369;0.1839;
583.2000;0.2369;0.1791;
583.5000;0.2352;0.1767;
583.8000;0.2344;0.1743;
584.1000;0.2312;0.1648;
584.4000;0.2352;0.1743;
584.7000;0.2385;0.1911;
585.0000;0.2377;0.1911;
585.3000;0.2344;0.1887;
585.6000;0.2361;0.1887;
585.9000;0.2361;0.1815;
586.2000;0.2320;0.1696;
586.5000;0.2369;0.1720;
586.8000;0.2352;0.1720;
587.1000;0.2418;0.1863;
587.4000;0.2352;0.1743;
587.7000;0.2344;0.1767;
588.0000;0.2369;0.1815;
588.3000;0.2352;0.1767;
588.6000;0.2361;0.1743;
588.9000;0.2352;0.1720;
589.2000;0.2352;0.1672;
589.5000;0.2361;0.1672;
589.8000;0.2369;0.1720;
590.1000;0.2352;0.1696;
590.4000;0.2377;0.1767;
590.7000;0.2344;0.1743;
591.0000;0.2352;0.1791;
591.3000;0.2491;0.2173;
591.6000;0.2336;0.1696;
591.9000;0.2344;0.1696;
592.2000;0.2361;0.1552;
592.5000;0.2352;0.1505;
592.8000;0.2369;0.1576;
593.1000;0.2352;0.1600;
593.4000;0.2369;0.1672;
593.7000;0.2336;0.1600;
594.0000;0.2344;0.1624;
594.3000;0.2320;0.1552;
594.6000;0.2352;0.1696;
594.9000;0.2385;0.1815;
595.2000;0.2336;0.1696;
595.5000;0.2361;0.1743;
595.8000;0.2352;0.1767;
596.1000;0.2377;0.1815;
596.4000;0.2352;0.1791;
596.7000;0.2377;0.1696;
597.0000;0.2344;0.1720;
597.3000;0.2352;0.1672;
597.6000;0.2369;0.1720;
597.9000;0.2442;0.2030;
598.2000;0.2369;0.1911;
598.5000;0.2287;0.1743;
598.8000;0.2344;0.1911;
599.1000;0.2361;0.1982;
599.4000;0.2361;0.1982;
599.7000;0.2361;0.2054;
600.0000;0.2279;0.1934;
600.3000;0.2418;0.2126;
600.6000;0.2385;0.2006;
600.9000;0.2401;0.1958;
601.2000;0.2352;0.1815;
601.5000;0.2287;0.1528;
601.8000;0.2336;0.1576;
602.1000;0.2328;0.1409;
602.4000;0.2328;0.1314;
602.7000;0.2377;0.1433;
603.0000;0.2385;0.1361;
603.3000;0.2361;0.1314;
603.6000;0.2352;0.1146;
603.9000;0.2393;0.1242;
604.2000;0.2483;0.1409;
604.5000;0.2369;0.1051;
604.8000;0.2328;0.0955;
605.1000;0.2434;0.1099;
605.4000;0.2393;0.1027;
605.7000;0.2401;0.1027;
606.0000;0.2361;0.0836;
606.3000;0.2361;0.0788;
606.6000;0.2361;0.0812;
606.9000;0.2385;0.0812;
607.2000;0.2336;0.0669;
607.5000;0.2361;0.0812;
607.8000;0.2385;0.0884;
608.1000;0.2352;0.0836;
608.4000;0.2361;0.0812;
608.7000;0.2328;0.0716;
609.0000;0.2369;0.0836;
609.3000;0.2377;0.0812;
609.6000;0.2369;0.0955;
609.9000;0.2361;0.0955;
610.2000;0.2352;0.0979;
610.5000;0.2352;0.0908;
610.8000;0.2369;0.0860;
611.1000;0.2361;0.0740;
611.4000;0.2385;0.0740;
611.7000;0.2377;0.0740;
612.0000;0.2377;0.0716;
612.3000;0.2385;0.0764;
612.6000;0.2401;0.0812;
612.9000;0.2361;0.0740;
613.2000;0.2377;0.0716;
613.5000;0.2377;0.0645;
613.8000;0.2361;0.0693;
614.1000;0.2385;0.0812;
614.4000;0.2409;0.0908;
614.7000;0.2352;0.0716;
615.0000;0.2369;0.0716;
615.3000;0.2385;0.0860;
615.6000;0.2336;0.0788;
615.9000;0.2369;0.0860;
616.2000;0.2263;0.0597;
616.5000;0.2377;0.0955;
616.8000;0.2385;0.0931;
617.1000;0.2361;0.0884;
617.4000;0.2352;0.0860;
617.7000;0.2369;0.0860;
618.0000;0.2369;0.0979;
618.3000;0.2369;0.0979;
618.6000;0.2393;0.1003;
618.9000;0.2377;0.0931;
619.2000;0.2369;0.0860;
619.5000;0.2369;0.0931;
619.8000;0.2352;0.0908;
620.1000;0.2352;0.0836;
620.4000;0.2369;0.0908;
620.7000;0.2361;0.0908;
621.0000;0.2369;0.0860;
621.3000;0.2352;0.0884;
621.6000;0.2377;0.0955;
621.9000;0.2369;0.0955;
622.2000;0.2352;0.0884;
622.5000;0.2369;0.0884;
622.8000;0.2393;0.0979;
623.1000;0.2352;0.0931;
623.4000;0.2328;0.0836;
623.7000;0.2369;0.0860;
624.0000;0.2377;0.0836;
624.3000;0.2344;0.0764;
624.6000;0.2369;0.0788;
624.9000;0.2361;0.0740;
625.2000;0.2304;0.0645;
625.5000;0.2369;0.0836;
625.8000;0.2369;0.0836;
626.1000;0.2295;0.0669;
626.4000;0.2361;0.0860;
626.7000;0.2361;0.0812;
627.0000;0.2426;0.1003;
627.3000;0.2369;0.0908;
627.6000;0.2336;0.0884;
627.9000;0.2369;0.0955;
628.2000;0.2369;0.0955;
628.5000;0.2352;0.0908;
628.8000;0.2352;0.0836;
629.1000;0.2385;0.0860;
629.4000;0.2361;0.0788;
629.7000;0.2377;0.0836;
630.0000;0.2377;0.0812;
630.3000;0.2377;0.0860;
630.6000;0.2377;0.0860;
630.9000;0.2361;0.0908;
631.2000;0.2352;0.0860;
631.5000;0.2385;0.0860;
631.8000;0.2328;0.0693;
632.1000;0.2369;0.0788;
632.4000;0.2361;0.0764;
632.7000;0.2393;0.0836;
633.0000;0.2385;0.0908;
633.3000;0.2369;0.0931;
633.6000;0.2304;0.0669;
633.9000;0.2361;0.0812;
634.2000;0.2369;0.0931;
634.5000;0.2377;0.0979;
634.8000;0.2361;0.0931;
635.1000;0.2361;0.0764;
635.4000;0.2361;0.0836;
635.7000;0.2344;0.0836;
636.0000;0.2369;0.0884;
636.3000;0.2393;0.0931;
636.6000;0.2361;0.0979;
636.9000;0.2369;0.0979;
637.2000;0.2336;0.0884;
637.5000;0.2344;0.0908;
637.8000;0.2369;0.0979;
638.1000;0.2369;0.0979;
638.4000;0.2344;0.0812;
638.7000;0.2361;0.0908;
639.0000;0.2336;0.0764;
639.3000;0.2361;0.0788;
639.6000;0.2361;0.0788;
639.9000;0.2352;0.0788;
640.2000;0.2369;0.0788;
640.5000;0.2401;0.0812;
640.8000;0.2377;0.0716;
641.1000;0.2361;0.0764;
641.4000;0.2385;0.0860;
641.7000;0.2385;0.0812;
642.0000;0.2369;0.0764;
642.3000;0.2361;0.0764;
642.6000;0.2377;0.0764;
642.9000;0.2377;0.0788;
643.2000;0.2377;0.0908;
643.5000;0.2385;0.0884;
643.8000;0.2369;0.0884;
644.1000;0.2361;0.0908;
644.4000;0.2369;0.0955;
644.7000;0.2369;0.0955;
645.0000;0.2377;0.0979;
645.3000;0.2344;0.0908;
645.6000;0.2385;0.1027;
645.9000;0.2361;0.0979;
646.2000;0.2377;0.0979;
646.5000;0.2336;0.0812;
646.8000;0.2385;0.0955;
647.1000;0.2385;0.0979;
647.4000;0.2385;0.1003;
647.7000;0.2385;0.0908;
648.0000;0.2393;0.0955;
648.3000;0.2369;0.0908;
648.6000;0.2328;0.0860;
648.9000;0.2361;0.0955;
649.2000;0.2369;0.1003;
649.5000;0.2369;0.0931;
649.8000;0.2361;0.1003;
650.1000;0.2336;0.1003;
650.4000;0.2352;0.0955;
650.7000;0.2361;0.0979;
651.0000;0.2369;0.1051;
651.3000;0.2369;0.1075;
651.6000;0.2369;0.1075;
651.9000;0.2409;0.1075;
652.2000;0.2434;0.1075;
652.5000;0.2377;0.1003;
652.8000;0.2361;0.1027;
653.1000;0.2344;0.0955;
653.4000;0.2426;0.1051;
653.7000;0.2361;0.0931;
654.0000;0.2385;0.0979;
654.3000;0.2295;0.0812;
654.6000;0.2369;0.1003;
654.9000;0.2369;0.0955;
655.2000;0.2369;0.0979;
655.5000;0.2336;0.0908;
655.8000;0.2442;0.1146;
656.1000;0.2442;0.1170;
656.4000;0.2393;0.1003;
656.7000;0.2385;0.0955;
657.0000;0.2385;0.1003;
657.3000;0.2385;0.1051;
657.6000;0.2385;0.1122;
657.9000;0.2287;0.0884;
658.2000;0.2361;0.1099;
658.5000;0.2352;0.1051;
658.8000;0.2377;0.1194;
659.1000;0.2385;0.1194;
659.4000;0.2361;0.1075;
659.7000;0.2369;0.1027;
660.0000;0.2401;0.1146;
660.3000;0.2393;0.1218;
660.6000;0.2320;0.1051;
660.9000;0.2369;0.1146;
661.2000;0.2377;0.1242;
661.5000;0.2393;0.1218;
661.8000;0.2377;0.1146;
662.1000;0.2369;0.1146;
662.4000;0.2393;0.1194;
662.7000;0.2409;0.1146;
663.0000;0.2377;0.1075;
663.3000;0.2385;0.1194;
663.6000;0.2361;0.1075;
663.9000;0.2385;0.1122;
664.2000;0.2426;0.1314;
664.5000;0.2377;0.1194;
664.8000;0.2369;0.1170;
665.1000;0.2401;0.1218;
665.4000;0.2369;0.1146;
665.7000;0.2393;0.1170;
666.0000;0.2369;0.1194;
666.3000;0.2377;0.1194;
666.6000;0.2385;0.1218;
666.9000;0.2385;0.1242;
667.2000;0.2369;0.1242;
667.5000;0.2352;0.1146;
667.8000;0.2393;0.1218;
668.1000;0.2377;0.1146;
668.4000;0.2377;0.1075;
668.7000;0.2409;0.1170;
669.0000;0.2385;0.1027;
669.3000;0.2385;0.1075;
669.6000;0.2369;0.1003;
669.9000;0.2352;0.0955;
670.2000;0.2352;0.1051;
670.5000;0.2239;0.0716;
670.8000;0.2369;0.1027;
671.1000;0.2369;0.0979;
671.4000;0.2352;0.0931;
671.7000;0.2450;0.1218;
672.0000;0.2385;0.1003;
672.3000;0.2385;0.0979;
672.6000;0.2385;0.1027;
672.9000;0.2385;0.1027;
673.2000;0.2369;0.1003;
673.5000;0.2401;0.1099;
673.8000;0.2377;0.1003;
674.1000;0.2385;0.1075;
674.4000;0.2377;0.1003;
674.7000;0.2377;0.0979;
675.0000;0.2377;0.0908;
675.3000;0.2385;0.0979;
675.6000;0.2352;0.0764;
675.9000;0.2442;0.0955;
676.2000;0.2344;0.0693;
676.5000;0.2377;0.0764;
676.8000;0.2393;0.0836;
677.1000;0.2401;0.0836;
677.4000;0.2377;0.0716;
677.7000;0.2377;0.0764;
678.0000;0.2361;0.0740;
678.3000;0.2336;0.0693;
678.6000;0.2377;0.0788;
678.9000;0.2352;0.0740;
679.2000;0.2393;0.0955;
679.5000;0.2361;0.0908;
679.8000;0.2361;0.0860;
680.1000;0.2344;0.0836;
680.4000;0.2385;0.0931;
680.7000;0.2385;0.0979;
681.0000;0.2336;0.0908;
681.3000;0.2418;0.1122;
681.6000;0.2361;0.1003;
681.9000;0.2369;0.1003;
682.2000;0.2361;0.0979;
682.5000;0.2377;0.0955;
682.8000;0.2385;0.0931;
683.1000;0.2377;0.0979;
683.4000;0.2418;0.1027;
683.7000;0.2393;0.0908;
684.0000;0.2377;0.0931;
684.3000;0.2361;0.0812;
684.6000;0.2328;0.0716;
684.9000;0.2369;0.0788;
685.2000;0.2377;0.0860;
685.5000;0.2361;0.0860;
685.8000;0.2369;0.0955;
686.1000;0.2352;0.0908;
686.4000;0.2352;0.0812;
686.7000;0.2352;0.0812;
687.0000;0.2385;0.0979;
687.3000;0.2393;0.0955;
687.6000;0.2369;0.0931;
687.9000;0.2369;0.1003;
688.2000;0.2393;0.1027;
688.5000;0.2377;0.0908;
688.8000;0.2377;0.0836;
689.1000;0.2352;0.0764;
689.4000;0.2442;0.0955;
689.7000;0.2369;0.0740;
690.0000;0.2377;0.0716;
690.3000;0.2418;0.0812;
690.6000;0.2377;0.0740;
690.9000;0.2377;0.0716;
691.2000;0.2369;0.0669;
691.5000;0.2287;0.0454;
691.8000;0.2507;0.1027;
692.1000;0.2328;0.0549;
692.4000;0.2409;0.0669;
692.7000;0.2401;0.0573;
693.0000;0.2393;0.0525;
693.3000;0.2393;0.0525;
693.6000;0.2401;0.0573;
693.9000;0.2377;0.0621;
694.2000;0.2377;0.0621;
694.5000;0.2401;0.0645;
694.8000;0.2426;0.0693;
695.1000;0.2393;0.0621;
695.4000;0.2393;0.0669;
695.7000;0.2385;0.0693;
696.0000;0.2320;0.0573;
696.3000;0.2361;0.0740;
696.6000;0.2377;0.0812;
696.9000;0.2377;0.0836;
697.2000;0.2393;0.0908;
697.5000;0.2344;0.0764;
697.8000;0.2304;0.0645;
698.1000;0.2377;0.0860;
698.4000;0.2385;0.0884;
698.7000;0.2344;0.0764;
699.0000;0.2369;0.0788;
699.3000;0.2377;0.0740;
699.6000;0.2336;0.0597;
699.9000;0.2377;0.0716;
700.2000;0.2377;0.0860;
700.5000;0.2377;0.0884;
700.8000;0.2361;0.0836;
701.1000;0.2385;0.0908;
701.4000;0.2352;0.0836;
701.7000;0.2352;0.0764;
702.0000;0.2377;0.0812;
702.3000;0.2377;0.0884;
702.6000;0.2369;0.0860;
702.9000;0.2361;0.0812;
703.2000;0.2377;0.0812;
703.5000;0.2377;0.0836;
703.8000;0.2377;0.0836;
704.1000;0.2385;0.0931;
704.4000;0.2385;0.0979;
704.7000;0.2377;0.0979;
705.0000;0.2369;0.0955;
705.3000;0.2401;0.1027;
705.6000;0.2336;0.0884;
705.9000;0.2393;0.1003;
706.2000;0.2369;0.0979;
706.5000;0.2377;0.1003;
706.8000;0.2352;0.0884;
707.1000;0.2336;0.0812;
707.4000;0.2328;0.0764;
707.7000;0.2352;0.0836;
708.0000;0.2361;0.0812;
708.3000;0.2361;0.0788;
708.6000;0.2361;0.0788;
708.9000;0.2328;0.0645;
709.2000;0.2361;0.0716;
709.5000;0.2409;0.0884;
709.8000;0.2393;0.0836;
710.1000;0.2369;0.0764;
710.4000;0.2377;0.0812;
710.7000;0.2377;0.0860;
711.0000;0.2361;0.0884;
711.3000;0.2393;0.0931;
711.6000;0.2377;0.0908;
711.9000;0.2369;0.0955;
712.2000;0.2369;0.0979;
712.5000;0.2401;0.1003;
712.8000;0.2401;0.1051;
713.1000;0.2377;0.0979;
713.4000;0.2385;0.1051;
713.7000;0.2401;0.1075;
714.0000;0.2401;0.1027;
714.3000;0.2352;0.0931;
714.6000;0.2369;0.1051;
714.9000;0.2369;0.1027;
715.2000;0.2393;0.1027;
715.5000;0.2344;0.0931;
715.8000;0.2352;0.0860;
716.1000;0.2385;0.0908;
716.4000;0.2401;0.0931;
716.7000;0.2377;0.0979;
717.0000;0.2369;0.0931;
717.3000;0.2401;0.1027;
717.6000;0.2393;0.1003;
717.9000;0.2377;0.0884;
718.2000;0.2393;0.0860;
718.5000;0.2426;0.0931;
718.8000;0.2393;0.0884;
719.1000;0.2377;0.0812;
719.4000;0.2393;0.0836;
719.7000;0.2385;0.0884;
720.0000;0.2401;0.0836;
720.3000;0.2377;0.0788;
720.6000;0.2377;0.0931;
720.9000;0.2377;0.0955;
721.2000;0.2369;0.0979;
721.5000;0.2377;0.0979;
721.8000;0.2352;0.0908;
722.1000;0.2344;0.0860;
722.4000;0.2385;0.0955;
722.7000;0.2336;0.0764;
723.0000;0.2401;0.1003;
723.3000;0.2304;0.0764;
723.6000;0.2385;0.1051;
723.9000;0.2385;0.0955;
724.2000;0.2377;0.0955;
724.5000;0.2385;0.0884;
724.8000;0.2377;0.0931;
725.1000;0.2434;0.1027;
725.4000;0.2377;0.0884;
725.7000;0.2434;0.1146;
726.0000;0.2369;0.0955;
726.3000;0.2377;0.1027;
726.6000;0.2361;0.1027;
726.9000;0.2393;0.1075;
727.2000;0.2369;0.1027;
727.5000;0.2377;0.0979;
727.8000;0.2377;0.1027;
728.1000;0.2393;0.1027;
728.4000;0.2385;0.1099;
728.7000;0.2361;0.1075;
729.0000;0.2369;0.1003;
729.3000;0.2418;0.1051;
729.6000;0.2369;0.0931;
729.9000;0.2385;0.0908;
730.2000;0.2401;0.0836;
730.5000;0.2385;0.0788;
730.8000;0.2377;0.0788;
731.1000;0.2336;0.0740;
731.4000;0.2393;0.0884;
731.7000;0.2361;0.0812;
732.0000;0.2361;0.0764;
732.3000;0.2361;0.0788;
732.6000;0.2458;0.1051;
732.9000;0.2361;0.0812;
733.2000;0.2393;0.0812;
733.5000;0.2385;0.0788;
733.8000;0.2385;0.0860;
734.1000;0.2369;0.0860;
734.4000;0.2320;0.0693;
734.7000;0.2377;0.0884;
735.0000;0.2385;0.0931;
735.3000;0.2385;0.0979;
735.6000;0.2385;0.1003;
735.9000;0.2369;0.0931;
736.2000;0.2393;0.1027;
736.5000;0.2352;0.0979;
736.8000;0.2385;0.1027;
737.1000;0.2369;0.1027;
737.4000;0.2320;0.0908;
737.7000;0.2361;0.1051;
738.0000;0.2377;0.1122;
738.3000;0.2377;0.1051;
738.6000;0.2361;0.1075;
738.9000;0.2393;0.1218;
739.2000;0.2385;0.1242;
739.5000;0.2393;0.1266;
739.8000;0.2401;0.1290;
740.1000;0.2393;0.1146;
740.4000;0.2344;0.1027;
740.7000;0.2385;0.1146;
741.0000;0.2409;0.1122;
741.3000;0.2369;0.0979;
741.6000;0.2393;0.1051;
741.9000;0.2377;0.0931;
742.2000;0.2369;0.0908;
742.5000;0.2369;0.0931;
742.8000;0.2369;0.0764;
743.1000;0.2369;0.0788;
743.4000;0.2377;0.0884;
743.7000;0.2361;0.0884;
744.0000;0.2361;0.0908;
744.3000;0.2352;0.0836;
744.6000;0.2393;0.0908;
744.9000;0.2385;0.0931;
745.2000;0.2377;0.0955;
745.5000;0.2385;0.0979;
745.8000;0.2352;0.0860;
746.1000;0.2369;0.0931;
746.4000;0.2393;0.1003;
746.7000;0.2377;0.1003;
747.0000;0.2320;0.0836;
747.3000;0.2312;0.0669;
747.6000;0.2385;0.0788;
747.9000;0.2385;0.0764;
748.2000;0.2385;0.0740;
748.5000;0.2352;0.0669;
748.8000;0.2377;0.0716;
749.1000;0.2369;0.0836;
749.4000;0.2393;0.0979;
749.7000;0.2434;0.1170;
750.0000;0.2385;0.1099;
750.3000;0.2393;0.1146;
750.6000;0.2393;0.1170;
750.9000;0.2361;0.1099;
751.2000;0.2377;0.1170;
751.5000;0.2361;0.1122;
751.8000;0.2377;0.1027;
752.1000;0.2385;0.1122;
752.4000;0.2320;0.1027;
752.7000;0.2361;0.1051;
753.0000;0.2352;0.1003;
753.3000;0.2385;0.0955;
753.6000;0.2385;0.0955;
753.9000;0.2418;0.0955;
754.2000;0.2426;0.0884;
754.5000;0.2312;0.0621;
754.8000;0.2369;0.0788;
755.1000;0.2393;0.0788;
755.4000;0.2352;0.0621;
755.7000;0.2393;0.0645;
756.0000;0.2401;0.0788;
756.3000;0.2377;0.0788;
756.6000;0.2377;0.0812;
756.9000;0.2320;0.0740;
757.2000;0.2369;0.0908;
757.5000;0.2369;0.0955;
757.8000;0.2426;0.1122;
758.1000;0.2377;0.0931;
758.4000;0.2450;0.1051;
758.7000;0.2361;0.0812;
759.0000;0.2377;0.0812;
759.3000;0.2377;0.0788;
759.6000;0.2377;0.0788;
759.9000;0.2385;0.0860;
760.2000;0.2369;0.0812;
760.5000;0.2295;0.0525;
760.8000;0.2385;0.0788;
761.1000;0.2393;0.0860;
761.4000;0.2385;0.0836;
761.7000;0.2393;0.0860;
762.0000;0.2377;0.0836;
762.3000;0.2385;0.0931;
762.6000;0.2377;0.0955;
762.9000;0.2328;0.0860;
763.2000;0.2377;0.1003;
763.5000;0.2385;0.0955;
763.8000;0.2393;0.0955;
764.1000;0.2385;0.0955;
764.4000;0.2393;0.0931;
764.7000;0.2450;0.1194;
765.0000;0.2320;0.0788;
765.3000;0.2393;0.0955;
765.6000;0.2385;0.1003;
765.9000;0.2401;0.1051;
766.2000;0.2344;0.0908;
766.5000;0.2377;0.0979;
766.8000;0.2393;0.1027;
767.1000;0.2377;0.1027;
767.4000;0.2385;0.1051;
767.7000;0.2393;0.1051;
768.0000;0.2377;0.1051;
768.3000;0.2377;0.1099;
768.6000;0.2385;0.1122;
768.9000;0.2377;0.1051;
769.2000;0.2377;0.0979;
769.5000;0.2385;0.1027;
769.8000;0.2401;0.1027;
770.1000;0.2344;0.0908;
770.4000;0.2418;0.1122;
770.7000;0.2401;0.1146;
771.0000;0.2401;0.1266;
771.3000;0.2393;0.1266;
771.6000;0.2385;0.1314;
771.9000;0.2393;0.1290;
772.2000;0.2393;0.1266;
772.5000;0.2393;0.1242;
772.8000;0.2385;0.1218;
773.1000;0.2393;0.1218;
773.4000;0.2385;0.1218;
773.7000;0.2401;0.1170;
774.0000;0.2385;0.1075;
774.3000;0.2377;0.0979;
774.6000;0.2401;0.1170;
774.9000;0.2369;0.1122;
775.2000;0.2393;0.1075;
775.5000;0.2361;0.0979;
775.8000;0.2434;0.1194;
776.1000;0.2385;0.1122;
776.4000;0.2434;0.1242;
776.7000;0.2393;0.1170;
777.0000;0.2369;0.1146;
777.3000;0.2377;0.1146;
777.6000;0.2401;0.1099;
777.9000;0.2385;0.1051;
778.2000;0.2393;0.1099;
778.5000;0.2393;0.1075;
778.8000;0.2385;0.1075;
779.1000;0.2377;0.1099;
779.4000;0.2352;0.0955;
779.7000;0.2377;0.1051;
780.0000;0.2385;0.1122;
780.3000;0.2393;0.1170;
780.6000;0.2401;0.1146;
780.9000;0.2336;0.1027;
781.2000;0.2369;0.1170;
781.5000;0.2377;0.1218;
781.8000;0.2401;0.1266;
782.1000;0.2393;0.1290;
782.4000;0.2361;0.1218;
782.7000;0.2393;0.1242;
783.0000;0.2369;0.1194;
783.3000;0.2377;0.1170;
783.6000;0.2385;0.1242;
783.9000;0.2393;0.1218;
784.2000;0.2377;0.1146;
784.5000;0.2385;0.1051;
784.8000;0.2385;0.1075;
785.1000;0.2409;0.1194;
785.4000;0.2442;0.1290;
785.7000;0.2393;0.1146;
786.0000;0.2385;0.1075;
786.3000;0.2393;0.1051;
786.6000;0.2409;0.1027;
786.9000;0.2401;0.0979;
787.2000;0.2385;0.0979;
787.5000;0.2401;0.1003;
787.8000;0.2369;0.0908;
788.1000;0.2426;0.1122;
788.4000;0.2377;0.1027;
788.7000;0.2377;0.1075;
789.0000;0.2523;0.1600;
789.3000;0.2393;0.1218;
789.6000;0.2369;0.1218;
789.9000;0.2328;0.1027;
790.2000;0.2458;0.1290;
790.5000;0.2401;0.1122;
790.8000;0.2401;0.1099;
791.1000;0.2328;0.0955;
791.4000;0.2385;0.1099;
791.7000;0.2377;0.1051;
792.0000;0.2336;0.0908;
792.3000;0.2369;0.1051;
792.6000;0.2418;0.1266;
792.9000;0.2401;0.1290;
793.2000;0.2385;0.1146;
793.5000;0.2385;0.1194;
793.8000;0.2393;0.1242;
794.1000;0.2352;0.1027;
794.4000;0.2361;0.1003;
794.7000;0.2385;0.1099;
795.0000;0.2426;0.1170;
795.3000;0.2385;0.1122;
795.6000;0.2409;0.1146;
795.9000;0.2385;0.1170;
796.2000;0.2450;0.1266;
796.5000;0.2385;0.1075;
796.8000;0.2409;0.1122;
797.1000;0.2409;0.1146;
797.4000;0.2385;0.1146;
797.7000;0.2393;0.1146;
798.0000;0.2409;0.1242;
798.3000;0.2377;0.1242;
798.6000;0.2434;0.1337;
798.9000;0.2377;0.1266;
799.2000;0.2409;0.1314;
799.5000;0.2377;0.1146;
799.8000;0.2393;0.1122;
800.1000;0.2361;0.1075;
800.4000;0.2450;0.1337;
800.7000;0.2393;0.1170;
801.0000;0.2401;0.1242;
801.3000;0.2377;0.1194;
801.6000;0.2385;0.1146;
801.9000;0.2401;0.1122;
802.2000;0.2377;0.1051;
802.5000;0.2320;0.0955;
802.8000;0.2369;0.1170;
803.1000;0.2377;0.1122;
803.4000;0.2385;0.1051;
803.7000;0.2385;0.1027;
804.0000;0.2377;0.1027;
804.3000;0.2377;0.1003;
804.6000;0.2393;0.1075;
804.9000;0.2393;0.1146;
805.2000;0.2304;0.0884;
805.5000;0.2344;0.1051;
805.8000;0.2369;0.1075;
806.1000;0.2369;0.1051;
806.4000;0.2385;0.1003;
806.7000;0.2369;0.0955;
807.0000;0.2401;0.1051;
807.3000;0.2393;0.1027;
807.6000;0.2385;0.0931;
807.9000;0.2385;0.0931;
808.2000;0.2401;0.1003;
808.5000;0.2385;0.0979;
808.8000;0.2385;0.0979;
809.1000;0.2352;0.0860;
809.4000;0.2385;0.0908;
809.7000;0.2377;0.0860;
810.0000;0.2385;0.0955;
810.3000;0.2409;0.0931;
810.6000;0.2377;0.0812;
810.9000;0.2377;0.0764;
811.2000;0.2361;0.0788;
811.5000;0.2385;0.0860;
811.8000;0.2393;0.0836;
812.1000;0.2401;0.0908;
812.4000;0.2393;0.0836;
812.7000;0.2369;0.0812;
813.0000;0.2418;0.0955;
813.3000;0.2401;0.0931;
813.6000;0.2401;0.0884;
813.9000;0.2377;0.0836;
814.2000;0.2385;0.0955;
814.5000;0.2385;0.0931;
814.8000;0.2385;0.0955;
815.1000;0.2385;0.0979;
815.4000;0.2328;0.0884;
815.7000;0.2393;0.0979;
816.0000;0.2377;0.0908;
816.3000;0.2328;0.0812;
816.6000;0.2393;0.0979;
816.9000;0.2401;0.1003;
817.2000;0.2385;0.0955;
817.5000;0.2385;0.1003;
817.8000;0.2401;0.1027;
818.1000;0.2385;0.0979;
818.4000;0.2393;0.1003;
818.7000;0.2385;0.1003;
819.0000;0.2377;0.0931;
819.3000;0.2377;0.0955;
819.6000;0.2377;0.0931;
819.9000;0.2385;0.0931;
820.2000;0.2361;0.0884;
820.5000;0.2279;0.0621;
820.8000;0.2393;0.0955;
821.1000;0.2385;0.0979;
821.4000;0.2385;0.1003;
821.7000;0.2385;0.1003;
822.0000;0.2377;0.0979;
822.3000;0.2393;0.1027;
822.6000;0.2450;0.1218;
822.9000;0.2385;0.1075;
823.2000;0.2418;0.1003;
823.5000;0.2393;0.0955;
823.8000;0.2393;0.0979;
824.1000;0.2377;0.0931;
824.4000;0.2409;0.0979;
824.7000;0.2361;0.0860;
825.0000;0.2393;0.0860;
825.3000;0.2401;0.0812;
825.6000;0.2393;0.0812;
825.9000;0.2369;0.0740;
826.2000;0.2409;0.0860;
826.5000;0.2385;0.0884;
826.8000;0.2369;0.0908;
827.1000;0.2377;0.0860;
827.4000;0.2507;0.1194;
827.7000;0.2401;0.1027;
828.0000;0.2369;0.1003;
828.3000;0.2409;0.1122;
828.6000;0.2458;0.1218;
828.9000;0.2377;0.0979;
829.2000;0.2409;0.1146;
829.5000;0.2377;0.0979;
829.8000;0.2393;0.0931;
830.1000;0.2393;0.0884;
830.4000;0.2385;0.0908;
830.7000;0.2385;0.1003;
831.0000;0.2377;0.1003;
831.3000;0.2393;0.1075;
831.6000;0.2385;0.1051;
831.9000;0.2393;0.1146;
832.2000;0.2409;0.1218;
832.5000;0.2393;0.1194;
832.8000;0.2393;0.1099;
833.1000;0.2393;0.1099;
833.4000;0.2393;0.1194;
833.7000;0.2401;0.1194;
834.0000;0.2409;0.1099;
834.3000;0.2393;0.0955;
834.6000;0.2369;0.0884;
834.9000;0.2377;0.1027;
835.2000;0.2361;0.1003;
835.5000;0.2369;0.0979;
835.8000;0.2369;0.1003;
836.1000;0.2361;0.1122;
836.4000;0.2401;0.1194;
836.7000;0.2401;0.1194;
837.0000;0.2312;0.0908;
837.3000;0.2361;0.0955;
837.6000;0.2393;0.1003;
837.9000;0.2393;0.0979;
838.2000;0.2401;0.0979;
838.5000;0.2377;0.1003;
838.8000;0.2377;0.1051;
839.1000;0.2271;0.0908;
839.4000;0.2385;0.1170;
839.7000;0.2385;0.1194;
840.0000;0.2385;0.1170;
840.3000;0.2377;0.1146;
840.6000;0.2369;0.1099;
840.9000;0.2361;0.1051;
841.2000;0.2385;0.1146;
841.5000;0.2401;0.1170;
841.8000;0.2312;0.0836;
842.1000;0.2377;0.1075;
842.4000;0.2385;0.1027;
842.7000;0.2377;0.1003;
843.0000;0.2393;0.1051;
843.3000;0.2385;0.1051;
843.6000;0.2320;0.0908;
843.9000;0.2312;0.0812;
844.2000;0.2385;0.1122;
844.5000;0.2385;0.1170;
844.8000;0.2369;0.1051;
845.1000;0.2369;0.1027;
845.4000;0.2385;0.1027;
845.7000;0.2393;0.1027;
846.0000;0.2385;0.1027;
846.3000;0.2369;0.1051;
846.6000;0.2385;0.1099;
846.9000;0.2393;0.1146;
847.2000;0.2352;0.1122;
847.5000;0.2377;0.1075;
847.8000;0.2393;0.1075;
848.1000;0.2401;0.1027;
848.4000;0.2418;0.1051;
848.7000;0.2393;0.0979;
849.0000;0.2385;0.0955;
849.3000;0.2409;0.1075;
849.6000;0.2401;0.1027;
849.9000;0.2385;0.0955;
850.2000;0.2377;0.1051;
850.5000;0.2361;0.1027;
850.8000;0.2385;0.1027;
851.1000;0.2385;0.1099;
851.4000;0.2409;0.1122;
851.7000;0.2377;0.1122;
852.0000;0.2377;0.1099;
852.3000;0.2385;0.1122;
852.6000;0.2369;0.0979;
852.9000;0.2409;0.1051;
853.2000;0.2369;0.0908;
853.5000;0.2393;0.1003;
853.8000;0.2377;0.1027;
854.1000;0.2393;0.1051;
854.4000;0.2393;0.1027;
854.7000;0.2385;0.1003;
855.0000;0.2377;0.1051;
855.3000;0.2385;0.1027;
855.6000;0.2377;0.1027;
855.9000;0.2483;0.1361;
856.2000;0.2377;0.1146;
856.5000;0.2377;0.1122;
856.8000;0.2377;0.1122;
857.1000;0.2385;0.1170;
857.4000;0.2369;0.1027;
857.7000;0.2385;0.1075;
858.0000;0.2385;0.1170;
858.3000;0.2393;0.1170;
858.6000;0.2377;0.1218;
858.9000;0.2295;0.1027;
859.2000;0.2369;0.1361;
859.5000;0.2369;0.1290;
859.8000;0.2385;0.1337;
860.1000;0.2393;0.1314;
860.4000;0.2401;0.1337;
860.7000;0.2385;0.1361;
861.0000;0.2393;0.1385;
861.3000;0.2377;0.1409;
861.6000;0.2369;0.1385;
861.9000;0.2385;0.1314;
862.2000;0.2393;0.1290;
862.5000;0.2377;0.1242;
862.8000;0.2393;0.1266;
863.1000;0.2263;0.0908;
863.4000;0.2393;0.1337;
863.7000;0.2385;0.1337;
864.0000;0.2450;0.1385;
864.3000;0.2377;0.1122;
864.6000;0.2418;0.1194;
864.9000;0.2369;0.1075;
865.2000;0.2369;0.1051;
865.5000;0.2401;0.1146;
865.8000;0.2385;0.1099;
866.1000;0.2401;0.1075;
866.4000;0.2393;0.1051;
866.7000;0.2377;0.1003;
867.0000;0.2385;0.1003;
867.3000;0.2401;0.0979;
867.6000;0.2377;0.1003;
867.9000;0.2401;0.1122;
868.2000;0.2369;0.1122;
868.5000;0.2385;0.1146;
868.8000;0.2385;0.1170;
869.1000;0.2418;0.1266;
869.4000;0.2385;0.1242;
869.7000;0.2393;0.1218;
870.0000;0.2401;0.1290;
870.3000;0.2401;0.1266;
870.6000;0.2328;0.1075;
870.9000;0.2377;0.1218;
871.2000;0.2369;0.1194;
871.5000;0.2393;0.1266;
871.8000;0.2385;0.1266;
872.1000;0.2385;0.1146;
872.4000;0.2369;0.1146;
872.7000;0.2393;0.1242;
873.0000;0.2377;0.1218;
873.3000;0.2393;0.1170;
873.6000;0.2385;0.1194;
873.9000;0.2393;0.1242;
874.2000;0.2401;0.1218;
874.5000;0.2377;0.1170;
874.8000;0.2409;0.1242;
875.1000;0.2393;0.1194;
875.4000;0.2369;0.1242;
875.7000;0.2377;0.1266;
876.0000;0.2377;0.1290;
876.3000;0.2385;0.1266;
876.6000;0.2393;0.1218;
876.9000;0.2377;0.1218;
877.2000;0.2385;0.1266;
877.5000;0.2393;0.1314;
877.8000;0.2393;0.1194;
878.1000;0.2377;0.1146;
878.4000;0.2393;0.1194;
878.7000;0.2393;0.1194;
879.0000;0.2401;0.1099;
879.3000;0.2393;0.1099;
879.6000;0.2409;0.1075;
879.9000;0.2401;0.1075;
880.2000;0.2393;0.1146;
880.5000;0.2393;0.1099;
880.8000;0.2377;0.1075;
881.1000;0.2401;0.1146;
881.4000;0.2377;0.1099;
881.7000;0.2377;0.1075;
882.0000;0.2344;0.0955;
882.3000;0.2393;0.1075;
882.6000;0.2328;0.0931;
882.9000;0.2393;0.1099;
883.2000;0.2361;0.1027;
883.5000;0.2385;0.1170;
883.8000;0.2377;0.1242;
884.1000;0.2336;0.1194;
884.4000;0.2377;0.1170;
884.7000;0.2369;0.1075;
885.0000;0.2377;0.1027;
885.3000;0.2393;0.1003;
885.6000;0.2369;0.0931;
885.9000;0.2369;0.0955;
886.2000;0.2401;0.1099;
886.5000;0.2385;0.0979;
886.8000;0.2385;0.0955;
887.1000;0.2450;0.1122;
887.4000;0.2434;0.1075;
887.7000;0.2377;0.0955;
888.0000;0.2409;0.1003;
888.3000;0.2385;0.1051;
888.6000;0.2377;0.0955;
888.9000;0.2385;0.1003;
889.2000;0.2393;0.1027;
889.5000;0.2409;0.1027;
889.8000;0.2385;0.1003;
890.1000;0.2393;0.1003;
890.4000;0.2385;0.0955;
890.7000;0.2401;0.0955;
891.0000;0.2393;0.0931;
891.3000;0.2393;0.1027;
891.6000;0.2385;0.0979;
891.9000;0.2369;0.0931;
892.2000;0.2393;0.1075;
892.5000;0.2393;0.1051;
892.8000;0.2401;0.1122;
893.1000;0.2377;0.1051;
893.4000;0.2377;0.1003;
893.7000;0.2377;0.0955;
894.0000;0.2385;0.1003;
894.3000;0.2377;0.1075;
894.6000;0.2409;0.1242;
894.9000;0.2385;0.1122;
895.2000;0.2377;0.1170;
895.5000;0.2401;0.1242;
895.8000;0.2352;0.1146;
896.1000;0.2385;0.1218;
896.4000;0.2401;0.1242;
896.7000;0.2377;0.1242;
897.0000;0.2385;0.1194;
897.3000;0.2434;0.1242;
897.6000;0.2385;0.1122;
897.9000;0.2401;0.1146;
898.2000;0.2377;0.1027;
898.5000;0.2385;0.1003;
898.8000;0.2377;0.1051;
899.1000;0.2377;0.1122;
899.4000;0.2377;0.1099;
899.7000;0.2377;0.1051;
900.0000;0.2377;0.1122;
900.3000;0.2426;0.1266;
900.6000;0.2409;0.1242;
900.9000;0.2369;0.1170;
901.2000;0.2401;0.1146;
901.5000;0.2393;0.1218;
901.8000;0.2352;0.1099;
902.1000;0.2393;0.1170;
902.4000;0.2385;0.1099;
902.7000;0.2385;0.1122;
903.0000;0.2385;0.1075;
903.3000;0.2377;0.1075;
903.6000;0.2369;0.1122;
903.9000;0.2385;0.1266;
904.2000;0.2393;0.1290;
904.5000;0.2434;0.1457;
904.8000;0.2393;0.1266;
905.1000;0.2328;0.1075;
905.4000;0.2393;0.1314;
905.7000;0.2377;0.1218;
906.0000;0.2385;0.1122;
906.3000;0.2377;0.1051;
906.6000;0.2393;0.1099;
906.9000;0.2377;0.1099;
907.2000;0.2336;0.1003;
907.5000;0.2369;0.1146;
907.8000;0.2336;0.1051;
908.1000;0.2418;0.1337;
908.4000;0.2369;0.1170;
908.7000;0.2369;0.1194;
909.0000;0.2369;0.1075;
909.3000;0.2401;0.1170;
909.6000;0.2401;0.1099;
909.9000;0.2377;0.1099;
910.2000;0.2279;0.0740;
910.5000;0.2409;0.1003;
910.8000;0.2352;0.0908;
911.1000;0.2369;0.0979;
911.4000;0.2418;0.1099;
911.7000;0.2393;0.1051;
912.0000;0.2385;0.0931;
912.3000;0.2369;0.0812;
912.6000;0.2344;0.0764;
912.9000;0.2377;0.0931;
913.2000;0.2450;0.1170;
913.5000;0.2377;0.0931;
913.8000;0.2393;0.1051;
914.1000;0.2377;0.1027;
914.4000;0.2401;0.1099;
914.7000;0.2393;0.1003;
915.0000;0.2385;0.1099;
915.3000;0.2385;0.1003;
915.6000;0.2426;0.1051;
915.9000;0.2409;0.1003;
916.2000;0.2377;0.0931;
916.5000;0.2418;0.1027;
916.8000;0.2507;0.1290;
917.1000;0.2409;0.1027;
917.4000;0.2377;0.0979;
917.7000;0.2393;0.0955;
918.0000;0.2377;0.0884;
918.3000;0.2450;0.1027;
918.6000;0.2418;0.1051;
918.9000;0.2369;0.0908;
919.2000;0.2458;0.1194;
919.5000;0.2401;0.1027;
919.8000;0.2385;0.0979;
920.1000;0.2401;0.1027;
920.4000;0.2336;0.1027;
920.7000;0.2409;0.1194;
921.0000;0.2418;0.1218;
921.3000;0.2507;0.1552;
921.6000;0.2434;0.1337;
921.9000;0.2401;0.1290;
922.2000;0.2409;0.1385;
922.5000;0.2409;0.1361;
922.8000;0.2385;0.1242;
923.1000;0.2393;0.1314;
923.4000;0.2393;0.1361;
923.7000;0.2409;0.1433;
924.0000;0.2385;0.1385;
924.3000;0.2369;0.1433;
924.6000;0.2369;0.1385;
924.9000;0.2434;0.1505;
925.2000;0.2393;0.1409;
925.5000;0.2401;0.1433;
925.8000;0.2401;0.1433;
926.1000;0.2401;0.1457;
926.4000;0.2385;0.1409;
926.7000;0.2401;0.1457;
927.0000;0.2377;0.1385;
927.3000;0.2393;0.1242;
927.6000;0.2418;0.1290;
927.9000;0.2385;0.1170;
928.2000;0.2385;0.1122;
928.5000;0.2385;0.1051;
928.8000;0.2409;0.1075;
929.1000;0.2377;0.1051;
929.4000;0.2409;0.1146;
929.7000;0.2377;0.1051;
930.0000;0.2401;0.1122;
930.3000;0.2385;0.1051;
930.6000;0.2393;0.1099;
930.9000;0.2401;0.1099;
931.2000;0.2409;0.1170;
931.5000;0.2401;0.1218;
931.8000;0.2352;0.1075;
932.1000;0.2377;0.1170;
932.4000;0.2475;0.1433;
932.7000;0.2393;0.1218;
933.0000;0.2401;0.1218;
933.3000;0.2393;0.1266;
933.6000;0.2475;0.1457;
933.9000;0.2401;0.1290;
934.2000;0.2336;0.1146;
934.5000;0.2491;0.1672;
934.8000;0.2401;0.1361;
935.1000;0.2393;0.1337;
935.4000;0.2426;0.1385;
935.7000;0.2401;0.1314;
936.0000;0.2385;0.1314;
936.3000;0.2385;0.1194;
936.6000;0.2393;0.1099;
936.9000;0.2377;0.1075;
937.2000;0.2426;0.1194;
937.5000;0.2393;0.1027;
937.8000;0.2377;0.0979;
938.1000;0.2401;0.1075;
938.4000;0.2385;0.1075;
938.7000;0.2401;0.1146;
939.0000;0.2369;0.1003;
939.3000;0.2393;0.1075;
939.6000;0.2352;0.0931;
939.9000;0.2393;0.1051;
940.2000;0.2401;0.0860;
940.5000;0.2426;0.0908;
940.8000;0.2401;0.0908;
941.1000;0.2409;0.0931;
941.4000;0.2418;0.1003;
941.7000;0.2385;0.1027;
942.0000;0.2401;0.1027;
942.3000;0.2458;0.1170;
942.6000;0.2336;0.0860;
942.9000;0.2385;0.0931;
943.2000;0.2336;0.0669;
943.5000;0.2385;0.0788;
943.8000;0.2401;0.0812;
944.1000;0.2393;0.0884;
944.4000;0.2393;0.0908;
944.7000;0.2377;0.0884;
945.0000;0.2393;0.0884;
945.3000;0.2377;0.0812;
945.6000;0.2385;0.0812;
945.9000;0.2401;0.0884;
946.2000;0.2393;0.1027;
946.5000;0.2385;0.1075;
946.8000;0.2418;0.1075;
947.1000;0.2377;0.0979;
947.4000;0.2393;0.1003;
947.7000;0.2401;0.1027;
948.0000;0.2361;0.0908;
948.3000;0.2369;0.0884;
948.6000;0.2377;0.0884;
948.9000;0.2385;0.0884;
949.2000;0.2393;0.0931;
949.5000;0.2369;0.0908;
949.8000;0.2377;0.0908;
950.1000;0.2352;0.0860;
950.4000;0.2369;0.0860;
950.7000;0.2385;0.0836;
951.0000;0.2279;0.0525;
951.3000;0.2385;0.0812;
951.6000;0.2409;0.0860;
951.9000;0.2369;0.0812;
952.2000;0.2393;0.0955;
952.5000;0.2393;0.0979;
952.8000;0.2385;0.0955;
953.1000;0.2401;0.0955;
953.4000;0.2393;0.0908;
953.7000;0.2393;0.0884;
954.0000;0.2434;0.0979;
954.3000;0.2418;0.0931;
954.6000;0.2393;0.0836;
954.9000;0.2393;0.0812;
955.2000;0.2377;0.0740;
955.5000;0.2393;0.0764;
955.8000;0.2393;0.0788;
956.1000;0.2385;0.0836;
956.4000;0.2369;0.0788;
956.7000;0.2393;0.0931;
957.0000;0.2377;0.0884;
957.3000;0.2409;0.0908;
957.6000;0.2409;0.0908;
957.9000;0.2385;0.0836;
958.2000;0.2401;0.0860;
958.5000;0.2369;0.0884;
958.8000;0.2377;0.0931;
959.1000;0.2344;0.0931;
959.4000;0.2385;0.1051;
959.7000;0.2377;0.0979;
960.0000;0.2361;0.1003;
960.3000;0.2369;0.0955;
960.6000;0.2393;0.1003;
960.9000;0.2409;0.1051;
961.2000;0.2450;0.1170;
961.5000;0.2393;0.1027;
961.8000;0.2385;0.1027;
962.1000;0.2393;0.1051;
962.4000;0.2369;0.1003;
962.7000;0.2328;0.0931;
963.0000;0.2401;0.1122;
963.3000;0.2409;0.1051;
963.6000;0.2401;0.1003;
963.9000;0.2401;0.1075;
964.2000;0.2385;0.1051;
964.5000;0.2418;0.1099;
964.8000;0.2401;0.0908;
965.1000;0.2393;0.0884;
965.4000;0.2401;0.0955;
965.7000;0.2393;0.0884;
966.0000;0.2377;0.0812;
966.3000;0.2369;0.0716;
966.6000;0.2401;0.0812;
966.9000;0.2385;0.0812;
967.2000;0.2401;0.0836;
967.5000;0.2385;0.0764;
967.8000;0.2385;0.0860;
968.1000;0.2401;0.0931;
968.4000;0.2369;0.0788;
968.7000;0.2385;0.0764;
969.0000;0.2385;0.0716;
969.3000;0.2377;0.0812;
969.6000;0.2475;0.1003;
969.9000;0.2377;0.0693;
970.2000;0.2401;0.0740;
970.5000;0.2401;0.0716;
970.8000;0.2393;0.0693;
971.1000;0.2385;0.0716;
971.4000;0.2385;0.0716;
971.7000;0.2385;0.0716;
972.0000;0.2450;0.0931;
972.3000;0.2401;0.0788;
972.6000;0.2385;0.0836;
972.9000;0.2393;0.0860;
973.2000;0.2361;0.0788;
973.5000;0.2385;0.0860;
973.8000;0.2393;0.0931;
974.1000;0.2401;0.0955;
974.4000;0.2361;0.0740;
974.7000;0.2385;0.0740;
975.0000;0.2377;0.0740;
975.3000;0.2393;0.0812;
975.6000;0.2393;0.0884;
975.9000;0.2385;0.0884;
976.2000;0.2393;0.0931;
976.5000;0.2401;0.0908;
976.8000;0.2385;0.0788;
977.1000;0.2393;0.0788;
977.4000;0.2401;0.0740;
977.7000;0.2442;0.0955;
978.0000;0.2409;0.0908;
978.3000;0.2393;0.0812;
978.6000;0.2393;0.0860;
978.9000;0.2418;0.0908;
979.2000;0.2401;0.0836;
979.5000;0.2377;0.0812;
979.8000;0.2385;0.0884;
980.1000;0.2295;0.0621;
980.4000;0.2385;0.0836;
980.7000;0.2418;0.0860;
981.0000;0.2377;0.0788;
981.3000;0.2385;0.0716;
981.6000;0.2393;0.0693;
981.9000;0.2393;0.0860;
982.2000;0.2279;0.0621;
982.5000;0.2385;0.0884;
982.8000;0.2385;0.0860;
983.1000;0.2385;0.0908;
983.4000;0.2385;0.0979;
983.7000;0.2393;0.1003;
984.0000;0.2385;0.0979;
984.3000;0.2401;0.0931;
984.6000;0.2401;0.0884;
984.9000;0.2409;0.0931;
985.2000;0.2377;0.0908;
985.5000;0.2401;0.1051;
985.8000;0.2409;0.1027;
986.1000;0.2409;0.1027;
986.4000;0.2401;0.0979;
986.7000;0.2385;0.0955;
987.0000;0.2393;0.0931;
987.3000;0.2393;0.0931;
987.6000;0.2401;0.1027;
987.9000;0.2328;0.0788;
988.2000;0.2418;0.1027;
988.5000;0.2401;0.1027;
988.8000;0.2418;0.1051;
989.1000;0.2377;0.1027;
989.4000;0.2377;0.0979;
989.7000;0.2401;0.1027;
990.0000;0.2377;0.0979;
990.3000;0.2393;0.0908;
990.6000;0.2377;0.0836;
990.9000;0.2393;0.0860;
991.2000;0.2393;0.0812;
991.5000;0.2491;0.1051;
991.8000;0.2385;0.0788;
992.1000;0.2393;0.0860;
992.4000;0.2393;0.0884;
992.7000;0.2377;0.0836;
993.0000;0.2483;0.1051;
993.3000;0.2385;0.0740;
993.6000;0.2385;0.0740;
993.9000;0.2385;0.0764;
994.2000;0.2377;0.0740;
994.5000;0.2385;0.0764;
994.8000;0.2393;0.0740;
995.1000;0.2385;0.0788;
995.4000;0.2385;0.0764;
995.7000;0.2401;0.0693;
996.0000;0.2377;0.0693;
996.3000;0.2393;0.0788;
996.6000;0.2385;0.0669;
996.9000;0.2361;0.0621;
997.2000;0.2393;0.0740;
997.5000;0.2401;0.0764;
997.8000;0.2401;0.0812;
998.1000;0.2377;0.0764;
998.4000;0.2385;0.0693;
998.7000;0.2385;0.0669;
999.0000;0.2352;0.0669;
999.3000;0.2393;0.0836;
999.6000;0.2393;0.0884;
999.9000;0.2369;0.0836;
1000.2000;0.2320;0.0740;
1000.5000;0.2377;0.0979;
1000.8000;0.2369;0.0979;
1001.1000;0.2491;0.1266;
1001.4000;0.2393;0.0955;
1001.7000;0.2369;0.0955;
1002.0000;0.2385;0.1051;
1002.3000;0.2409;0.1099;
1002.6000;0.2401;0.1003;
1002.9000;0.2393;0.1003;
1003.2000;0.2434;0.1051;
1003.5000;0.2344;0.0836;
1003.8000;0.2393;0.0931;
1004.1000;0.2401;0.1003;
1004.4000;0.2328;0.0788;
1004.7000;0.2393;0.0979;
1005.0000;0.2385;0.1003;
1005.3000;0.2361;0.0884;
1005.6000;0.2377;0.0908;
1005.9000;0.2393;0.0931;
1006.2000;0.2377;0.0884;
1006.5000;0.2377;0.0955;
1006.8000;0.2385;0.0979;
1007.1000;0.2385;0.0979;
1007.4000;0.2409;0.0979;
1007.7000;0.2434;0.1146;
1008.0000;0.2393;0.1051;
1008.3000;0.2393;0.1003;
1008.6000;0.2377;0.0931;
1008.9000;0.2393;0.1003;
1009.2000;0.2393;0.0979;
1009.5000;0.2377;0.0955;
1009.8000;0.2393;0.1051;
1010.1000;0.2352;0.0955;
1010.4000;0.2369;0.0955;
1010.7000;0.2385;0.0931;
1011.0000;0.2377;0.0979;
1011.3000;0.2385;0.1003;
1011.6000;0.2532;0.1361;
1011.9000;0.2393;0.0955;
1012.2000;0.2393;0.0931;
1012.5000;0.2352;0.0860;
1012.8000;0.2401;0.1003;
1013.1000;0.2369;0.0908;
1013.4000;0.2434;0.0931;
1013.7000;0.2393;0.0836;
1014.0000;0.2401;0.0884;
1014.3000;0.2409;0.0836;
1014.6000;0.2393;0.0836;
1014.9000;0.2475;0.1122;
1015.2000;0.2352;0.0908;
1015.5000;0.2385;0.0931;
1015.8000;0.2434;0.1099;
1016.1000;0.2361;0.0860;
1016.4000;0.2385;0.0884;
1016.7000;0.2401;0.0836;
1017.0000;0.2369;0.0621;
1017.3000;0.2369;0.0669;
1017.6000;0.2385;0.0669;
1017.9000;0.2385;0.0716;
1018.2000;0.2385;0.0621;
1018.5000;0.2304;0.0406;
1018.8000;0.2393;0.0645;
1019.1000;0.2401;0.0693;
1019.4000;0.2393;0.0716;
1019.7000;0.2361;0.0621;
1020.0000;0.2369;0.0525;
1020.3000;0.2385;0.0549;
1020.6000;0.2409;0.0645;
1020.9000;0.2393;0.0669;
1021.2000;0.2401;0.0764;
1021.5000;0.2393;0.0740;
1021.8000;0.2377;0.0764;
1022.1000;0.2409;0.0764;
1022.4000;0.2377;0.0788;
1022.7000;0.2434;0.0979;
1023.0000;0.2393;0.0764;
1023.3000;0.2377;0.0740;
1023.6000;0.2369;0.0788;
1023.9000;0.2401;0.0860;
1024.2000;0.2393;0.0860;
1024.5000;0.2418;0.0908;
1024.8000;0.2385;0.0764;
1025.1000;0.2401;0.0693;
1025.4000;0.2385;0.0549;
1025.7000;0.2409;0.0621;
1026.0000;0.2491;0.0884;
1026.3000;0.2352;0.0478;
1026.6000;0.2377;0.0573;
1026.9000;0.2393;0.0669;
1027.2000;0.2393;0.0669;
1027.5000;0.2507;0.0931;
1027.8000;0.2401;0.0669;
1028.1000;0.2369;0.0716;
1028.4000;0.2385;0.0812;
1028.7000;0.2336;0.0764;
1029.0000;0.2401;0.0931;
1029.3000;0.2385;0.0908;
1029.6000;0.2385;0.0931;
1029.9000;0.2385;0.0979;
1030.2000;0.2409;0.1027;
1030.5000;0.2385;0.1003;
1030.8000;0.2418;0.1075;
1031.1000;0.2377;0.1027;
1031.4000;0.2385;0.1027;
1031.7000;0.2393;0.0931;
1032.0000;0.2377;0.0836;
1032.3000;0.2393;0.0860;
1032.6000;0.2361;0.0836;
1032.9000;0.2385;0.0908;
1033.2000;0.2401;0.1003;
1033.5000;0.2418;0.1003;
1033.8000;0.2393;0.0955;
1034.1000;0.2377;0.0884;
1034.4000;0.2483;0.1146;
1034.7000;0.2295;0.0645;
1035.0000;0.2393;0.0836;
1035.3000;0.2434;0.0812;
1035.6000;0.2361;0.0573;
1035.9000;0.2344;0.0549;
1036.2000;0.2263;0.0382;
1036.5000;0.2393;0.0669;
1036.8000;0.2377;0.0621;
1037.1000;0.2401;0.0716;
1037.4000;0.2418;0.0764;
1037.7000;0.2393;0.0740;
1038.0000;0.2409;0.0764;
1038.3000;0.2409;0.0764;
1038.6000;0.2393;0.0812;
1038.9000;0.2352;0.0693;
1039.2000;0.2385;0.0764;
1039.5000;0.2418;0.0836;
1039.8000;0.2442;0.0979;
1040.1000;0.2377;0.0836;
1040.4000;0.2369;0.0788;
1040.7000;0.2385;0.0884;
1041.0000;0.2393;0.0788;
1041.3000;0.2361;0.0740;
1041.6000;0.2385;0.0740;
1041.9000;0.2344;0.0669;
1042.2000;0.2385;0.0764;
1042.5000;0.2385;0.0764;
1042.8000;0.2352;0.0621;
1043.1000;0.2385;0.0764;
1043.4000;0.2401;0.0908;
1043.7000;0.2352;0.0716;
1044.0000;0.2369;0.0788;
1044.3000;0.2385;0.0716;
1044.6000;0.2393;0.0788;
1044.9000;0.2401;0.0812;
1045.2000;0.2483;0.1122;
1045.5000;0.2418;0.1027;
1045.8000;0.2385;0.1003;
1046.1000;0.2401;0.0979;
1046.4000;0.2385;0.1051;
1046.7000;0.2377;0.0955;
1047.0000;0.2401;0.0979;
1047.3000;0.2401;0.1027;
1047.6000;0.2401;0.1051;
1047.9000;0.2385;0.1051;
1048.2000;0.2393;0.1027;
1048.5000;0.2401;0.1027;
1048.8000;0.2409;0.0931;
1049.1000;0.2393;0.0860;
1049.4000;0.2361;0.0788;
1049.7000;0.2393;0.0908;
1050.0000;0.2393;0.0908;
1050.3000;0.2450;0.1027;
1050.6000;0.2393;0.0764;
1050.9000;0.2393;0.0860;
1051.2000;0.2434;0.1003;
1051.5000;0.2344;0.0764;
1051.8000;0.2344;0.0788;
1052.1000;0.2377;0.0884;
1052.4000;0.2377;0.0931;
1052.7000;0.2409;0.0955;
1053.0000;0.2385;0.0908;
1053.3000;0.2369;0.0860;
1053.6000;0.2409;0.0955;
1053.9000;0.2409;0.0979;
1054.2000;0.2393;0.0860;
1054.5000;0.2377;0.0931;
1054.8000;0.2393;0.0884;
1055.1000;0.2409;0.0908;
1055.4000;0.2409;0.0812;
1055.7000;0.2385;0.0716;
1056.0000;0.2393;0.0764;
1056.3000;0.2393;0.0788;
1056.6000;0.2328;0.0645;
1056.9000;0.2377;0.0860;
1057.2000;0.2336;0.0693;
1057.5000;0.2401;0.0788;
1057.8000;0.2377;0.0716;
1058.1000;0.2385;0.0716;
1058.4000;0.2361;0.0669;
1058.7000;0.2409;0.0836;
1059.0000;0.2377;0.0812;
1059.3000;0.2491;0.1122;
1059.6000;0.2409;0.0931;
1059.9000;0.2312;0.0621;
1060.2000;0.2409;0.0812;
1060.5000;0.2344;0.0669;
1060.8000;0.2393;0.0812;
1061.1000;0.2409;0.0812;
1061.4000;0.2409;0.0860;
1061.7000;0.2401;0.0908;
1062.0000;0.2336;0.0788;
1062.3000;0.2393;0.0931;
1062.6000;0.2401;0.0884;
1062.9000;0.2385;0.0908;
1063.2000;0.2401;0.0788;
1063.5000;0.2369;0.0716;
1063.8000;0.2393;0.0812;
1064.1000;0.2401;0.0716;
1064.4000;0.2377;0.0693;
1064.7000;0.2369;0.0716;
1065.0000;0.2393;0.0740;
1065.3000;0.2385;0.0669;
1065.6000;0.2361;0.0621;
1065.9000;0.2377;0.0716;
1066.2000;0.2369;0.0716;
1066.5000;0.2385;0.0669;
1066.8000;0.2385;0.0764;
1067.1000;0.2369;0.0669;
1067.4000;0.2377;0.0740;
1067.7000;0.2377;0.0693;
1068.0000;0.2401;0.0812;
1068.3000;0.2377;0.0836;
1068.6000;0.2336;0.0740;
1068.9000;0.2393;0.0955;
1069.2000;0.2377;0.0884;
1069.5000;0.2442;0.1027;
1069.8000;0.2385;0.0955;
1070.1000;0.2401;0.1003;
1070.4000;0.2409;0.1027;
1070.7000;0.2393;0.0979;
1071.0000;0.2426;0.1003;
1071.3000;0.2385;0.1003;
1071.6000;0.2393;0.1075;
1071.9000;0.2393;0.1003;
1072.2000;0.2458;0.1146;
1072.5000;0.2385;0.0955;
1072.8000;0.2377;0.0812;
1073.1000;0.2377;0.0836;
1073.4000;0.2369;0.0764;
1073.7000;0.2361;0.0788;
1074.0000;0.2450;0.1003;
1074.3000;0.2401;0.0908;
1074.6000;0.2393;0.0979;
1074.9000;0.2369;0.0931;
1075.2000;0.2377;0.0955;
1075.5000;0.2418;0.1099;
1075.8000;0.2385;0.0979;
1076.1000;0.2458;0.1146;
1076.4000;0.2393;0.1027;
1076.7000;0.2409;0.0979;
1077.0000;0.2418;0.0884;
1077.3000;0.2377;0.0764;
1077.6000;0.2409;0.0836;
1077.9000;0.2401;0.0836;
1078.2000;0.2418;0.1003;
1078.5000;0.2401;0.0931;
1078.8000;0.2393;0.0836;
1079.1000;0.2393;0.0836;
1079.4000;0.2450;0.1003;
1079.7000;0.2385;0.0884;
1080.0000;0.2409;0.0860;
1080.3000;0.2409;0.0908;
1080.6000;0.2418;0.0884;
1080.9000;0.2401;0.0884;
1081.2000;0.2409;0.0931;
1081.5000;0.2409;0.0955;
1081.8000;0.2418;0.0931;
1082.1000;0.2385;0.0812;
1082.4000;0.2385;0.0788;
1082.7000;0.2385;0.0884;
1083.0000;0.2401;0.0931;
1083.3000;0.2393;0.0908;
1083.6000;0.2393;0.0979;
1083.9000;0.2385;0.1027;
1084.2000;0.2393;0.1051;
1084.5000;0.2393;0.1122;
1084.8000;0.2401;0.1027;
1085.1000;0.2401;0.1003;
1085.4000;0.2409;0.1122;
1085.7000;0.2393;0.1075;
1086.0000;0.2409;0.1146;
1086.3000;0.2426;0.1051;
1086.6000;0.2393;0.1027;
1086.9000;0.2401;0.1027;
1087.2000;0.2385;0.0979;
1087.5000;0.2352;0.0884;
1087.8000;0.2377;0.0955;
1088.1000;0.2377;0.1003;
1088.4000;0.2385;0.1051;
1088.7000;0.2393;0.1099;
1089.0000;0.2369;0.1027;
1089.3000;0.2377;0.1003;
1089.6000;0.2393;0.0955;
1089.9000;0.2393;0.0979;
1090.2000;0.2401;0.0931;
1090.5000;0.2401;0.1003;
1090.8000;0.2393;0.1051;
1091.1000;0.2385;0.1003;
1091.4000;0.2393;0.0979;
1091.7000;0.2401;0.0955;
1092.0000;0.2369;0.0908;
1092.3000;0.2409;0.0979;
1092.6000;0.2393;0.0931;
1092.9000;0.2409;0.1003;
1093.2000;0.2393;0.1003;
1093.5000;0.2409;0.1099;
1093.8000;0.2385;0.0931;
1094.1000;0.2434;0.1027;
1094.4000;0.2393;0.0884;
1094.7000;0.2401;0.0955;
1095.0000;0.2336;0.0812;
1095.3000;0.2377;0.0884;
1095.6000;0.2385;0.0860;
1095.9000;0.2385;0.0908;
1096.2000;0.2401;0.0884;
1096.5000;0.2385;0.0788;
1096.8000;0.2401;0.0645;
1097.1000;0.2401;0.0669;
1097.4000;0.2369;0.0669;
1097.7000;0.2385;0.0740;
1098.0000;0.2377;0.0764;
1098.3000;0.2466;0.0979;
1098.6000;0.2401;0.0860;
1098.9000;0.2393;0.0812;
1099.2000;0.2336;0.0740;
1099.5000;0.2401;0.0955;
1099.8000;0.2401;0.0955;
1100.1000;0.2401;0.0931;
1100.4000;0.2385;0.0860;
1100.7000;0.2385;0.0788;
1101.0000;0.2393;0.0788;
1101.3000;0.2393;0.0836;
1101.6000;0.2409;0.0812;
1101.9000;0.2377;0.0693;
1102.2000;0.2401;0.0669;
1102.5000;0.2409;0.0764;
1102.8000;0.2385;0.0788;
1103.1000;0.2369;0.0836;
1103.4000;0.2377;0.0788;
1103.7000;0.2393;0.0836;
1104.0000;0.2393;0.0812;
1104.3000;0.2401;0.0884;
1104.6000;0.2393;0.0860;
1104.9000;0.2401;0.0860;
1105.2000;0.2393;0.0836;
1105.5000;0.2393;0.0836;
1105.8000;0.2385;0.0788;
1106.1000;0.2401;0.0812;
1106.4000;0.2450;0.0931;
1106.7000;0.2393;0.0740;
1107.0000;0.2377;0.0693;
1107.3000;0.2393;0.0764;
1107.6000;0.2377;0.0788;
1107.9000;0.2385;0.0836;
1108.2000;0.2369;0.0764;
1108.5000;0.2328;0.0669;
1108.8000;0.2385;0.0836;
1109.1000;0.2393;0.0788;
1109.4000;0.2369;0.0716;
1109.7000;0.2385;0.0764;
1110.0000;0.2393;0.0788;
1110.3000;0.2385;0.0812;
1110.6000;0.2393;0.0788;
1110.9000;0.2401;0.0788;
1111.2000;0.2393;0.0764;
1111.5000;0.2418;0.0836;
1111.8000;0.2393;0.0788;
1112.1000;0.2393;0.0884;
1112.4000;0.2393;0.0884;
1112.7000;0.2450;0.1099;
1113.0000;0.2393;0.0860;
1113.3000;0.2401;0.0884;
1113.6000;0.2393;0.0955;
1113.9000;0.2401;0.0884;
1114.2000;0.2409;0.0884;
1114.5000;0.2385;0.0836;
1114.8000;0.2393;0.0884;
1115.1000;0.2369;0.0860;
1115.4000;0.2377;0.0955;
1115.7000;0.2409;0.1027;
1116.0000;0.2434;0.1051;
1116.3000;0.2401;0.0979;
1116.6000;0.2393;0.1003;
1116.9000;0.2393;0.1003;
1117.2000;0.2385;0.1003;
1117.5000;0.2401;0.1003;
1117.8000;0.2385;0.0979;
1118.1000;0.2401;0.0908;
1118.4000;0.2385;0.0764;
1118.7000;0.2385;0.0693;
1119.0000;0.2401;0.0716;
1119.3000;0.2352;0.0693;
1119.6000;0.2418;0.0884;
1119.9000;0.2385;0.0716;
1120.2000;0.2401;0.0812;
1120.5000;0.2401;0.0884;
1120.8000;0.2377;0.0884;
1121.1000;0.2393;0.0955;
1121.4000;0.2385;0.0884;
1121.7000;0.2393;0.0908;
1122.0000;0.2377;0.0955;
1122.3000;0.2393;0.1003;
1122.6000;0.2434;0.1075;
1122.9000;0.2401;0.0884;
1123.2000;0.2393;0.0836;
1123.5000;0.2361;0.0812;
1123.8000;0.2385;0.0860;
1124.1000;0.2393;0.0908;
1124.4000;0.2385;0.0884;
1124.7000;0.2393;0.0836;
1125.0000;0.2377;0.0764;
1125.3000;0.2344;0.0693;
1125.6000;0.2279;0.0525;
1125.9000;0.2385;0.0788;
1126.2000;0.2393;0.0788;
1126.5000;0.2393;0.0740;
1126.8000;0.2401;0.0740;
1127.1000;0.2393;0.0669;
1127.4000;0.2426;0.0716;
1127.7000;0.2401;0.0740;
1128.0000;0.2361;0.0597;
1128.3000;0.2385;0.0693;
1128.6000;0.2434;0.0764;
1128.9000;0.2385;0.0740;
1129.2000;0.2393;0.0764;
1129.5000;0.2401;0.0764;
1129.8000;0.2385;0.0716;
1130.1000;0.2393;0.0788;
1130.4000;0.2393;0.0764;
1130.7000;0.2377;0.0669;
1131.0000;0.2450;0.0836;
1131.3000;0.2385;0.0716;
1131.6000;0.2409;0.0669;
1131.9000;0.2344;0.0549;
1132.2000;0.2328;0.0669;
1132.5000;0.2401;0.0788;
1132.8000;0.2401;0.0764;
1133.1000;0.2409;0.0764;
1133.4000;0.2385;0.0764;
1133.7000;0.2377;0.0740;
1134.0000;0.2393;0.0669;
1134.3000;0.2385;0.0669;
1134.6000;0.2393;0.0788;
1134.9000;0.2369;0.0764;
1135.2000;0.2377;0.0740;
1135.5000;0.2385;0.0716;
1135.8000;0.2418;0.0740;
1136.1000;0.2377;0.0549;
1136.4000;0.2377;0.0478;
1136.7000;0.2369;0.0573;
1137.0000;0.2401;0.0621;
1137.3000;0.2393;0.0597;
1137.6000;0.2393;0.0573;
1137.9000;0.2401;0.0573;
1138.2000;0.2401;0.0645;
1138.5000;0.2377;0.0597;
1138.8000;0.2393;0.0764;
1139.1000;0.2393;0.0764;
1139.4000;0.2409;0.0740;
1139.7000;0.2401;0.0764;
1140.0000;0.2393;0.0693;
1140.3000;0.2385;0.0573;
1140.6000;0.2401;0.0645;
1140.9000;0.2385;0.0716;
1141.2000;0.2385;0.0693;
1141.5000;0.2401;0.0788;
1141.8000;0.2393;0.0764;
1142.1000;0.2418;0.0812;
1142.4000;0.2426;0.0716;
1142.7000;0.2426;0.0812;
1143.0000;0.2401;0.0645;
1143.3000;0.2385;0.0621;
1143.6000;0.2442;0.0716;
1143.9000;0.2385;0.0597;
1144.2000;0.2393;0.0573;
1144.5000;0.2385;0.0549;
1144.8000;0.2393;0.0549;
1145.1000;0.2393;0.0621;
1145.4000;0.2385;0.0645;
1145.7000;0.2393;0.0764;
1146.0000;0.2409;0.0836;
1146.3000;0.2393;0.0788;
1146.6000;0.2401;0.0788;
1146.9000;0.2418;0.0788;
1147.2000;0.2393;0.0764;
1147.5000;0.2418;0.0860;
1147.8000;0.2401;0.0788;
1148.1000;0.2409;0.0716;
1148.4000;0.2393;0.0788;
1148.7000;0.2434;0.0908;
1149.0000;0.2401;0.0836;
1149.3000;0.2361;0.0740;
1149.6000;0.2385;0.0764;
1149.9000;0.2385;0.0716;
1150.2000;0.2385;0.0645;
1150.5000;0.2393;0.0645;
1150.8000;0.2401;0.0597;
1151.1000;0.2393;0.0549;
1151.4000;0.2442;0.0621;
1151.7000;0.2393;0.0525;
1152.0000;0.2304;0.0310;
1152.3000;0.2401;0.0621;
1152.6000;0.2401;0.0621;
1152.9000;0.2393;0.0621;
1153.2000;0.2426;0.0764;
1153.5000;0.2442;0.0908;
1153.8000;0.2385;0.0740;
1154.1000;0.2442;0.0908;
1154.4000;0.2401;0.0812;
1154.7000;0.2483;0.0955;
1155.0000;0.2393;0.0716;
1155.3000;0.2393;0.0812;
1155.6000;0.2344;0.0645;
1155.9000;0.2401;0.0740;
1156.2000;0.2385;0.0645;
1156.5000;0.2401;0.0645;
1156.8000;0.2385;0.0573;
1157.1000;0.2475;0.0812;
1157.4000;0.2385;0.0669;
1157.7000;0.2361;0.0573;
1158.0000;0.2393;0.0645;
1158.3000;0.2393;0.0549;
1158.6000;0.2409;0.0549;
1158.9000;0.2393;0.0525;
1159.2000;0.2458;0.0740;
1159.5000;0.2393;0.0525;
1159.8000;0.2434;0.0549;
1160.1000;0.2385;0.0430;
1160.4000;0.2409;0.0525;
1160.7000;0.2393;0.0502;
1161.0000;0.2401;0.0525;
1161.3000;0.2401;0.0502;
1161.6000;0.2377;0.0406;
1161.9000;0.2385;0.0406;
1162.2000;0.2401;0.0430;
1162.5000;0.2377;0.0382;
1162.8000;0.2385;0.0454;
1163.1000;0.2369;0.0406;
1163.4000;0.2393;0.0310;
1163.7000;0.2418;0.0310;
1164.0000;0.2409;0.0406;
1164.3000;0.2377;0.0334;
1164.6000;0.2401;0.0334;
1164.9000;0.2385;0.0430;
1165.2000;0.2401;0.0406;
1165.5000;0.2369;0.0358;
1165.8000;0.2393;0.0382;
1166.1000;0.2385;0.0334;
1166.4000;0.2418;0.0430;
1166.7000;0.2393;0.0310;
1167.0000;0.2377;0.0287;
1167.3000;0.2385;0.0287;
1167.6000;0.2418;0.0406;
1167.9000;0.2385;0.0334;
1168.2000;0.2255;0.0000;
1168.5000;0.2385;0.0287;
1168.8000;0.2385;0.0239;
1169.1000;0.2434;0.0382;
1169.4000;0.2393;0.0191;
1169.7000;0.2401;0.0215;
1170.0000;0.2393;0.0239;
1170.3000;0.2385;0.0263;
1170.6000;0.2385;0.0263;
1170.9000;0.2385;0.0334;
1171.2000;0.2401;0.0382;
1171.5000;0.2393;0.0406;
1171.8000;0.2385;0.0382;
1172.1000;0.2393;0.0454;
1172.4000;0.2401;0.0382;
1172.7000;0.2426;0.0525;
1173.0000;0.2393;0.0406;
1173.3000;0.2377;0.0478;
1173.6000;0.2393;0.0502;
1173.9000;0.2393;0.0549;
1174.2000;0.2426;0.0597;
1174.5000;0.2369;0.0525;
1174.8000;0.2418;0.0597;
1175.1000;0.2401;0.0597;
1175.4000;0.2377;0.0502;
1175.7000;0.2385;0.0549;
1176.0000;0.2393;0.0573;
1176.3000;0.2393;0.0573;
1176.6000;0.2369;0.0502;
1176.9000;0.2377;0.0573;
1177.2000;0.2393;0.0573;
1177.5000;0.2393;0.0549;
1177.8000;0.2393;0.0597;
1178.1000;0.2393;0.0669;
1178.4000;0.2377;0.0669;
1178.7000;0.2385;0.0693;
1179.0000;0.2393;0.0788;
1179.3000;0.2369;0.0716;
1179.6000;0.2393;0.0764;
1179.9000;0.2393;0.0740;
1180.2000;0.2385;0.0740;
1180.5000;0.2385;0.0645;
1180.8000;0.2385;0.0549;
1181.1000;0.2320;0.0382;
1181.4000;0.2393;0.0645;
1181.7000;0.2401;0.0716;
1182.0000;0.2393;0.0693;
1182.3000;0.2393;0.0788;
1182.6000;0.2393;0.0764;
1182.9000;0.2393;0.0764;
1183.2000;0.2320;0.0597;
1183.5000;0.2393;0.0764;
1183.8000;0.2393;0.0740;
1184.1000;0.2401;0.0716;
1184.4000;0.2401;0.0645;
1184.7000;0.2418;0.0573;
1185.0000;0.2401;0.0478;
1185.3000;0.2483;0.0693;
1185.6000;0.2361;0.0382;
1185.9000;0.2377;0.0406;
1186.2000;0.2377;0.0454;
1186.5000;0.2385;0.0573;
1186.8000;0.2393;0.0621;
1187.1000;0.2401;0.0669;
1187.4000;0.2369;0.0621;
1187.7000;0.2385;0.0621;
1188.0000;0.2385;0.0597;
1188.3000;0.2336;0.0478;
1188.6000;0.2385;0.0621;
1188.9000;0.2385;0.0621;
1189.2000;0.2466;0.0788;
1189.5000;0.2401;0.0621;
1189.8000;0.2409;0.0669;
1190.1000;0.2442;0.0836;
1190.4000;0.2385;0.0716;
1190.7000;0.2385;0.0693;
1191.0000;0.2401;0.0573;
1191.3000;0.2385;0.0573;
1191.6000;0.2361;0.0454;
1191.9000;0.2377;0.0573;
1192.2000;0.2393;0.0430;
1192.5000;0.2401;0.0454;
1192.8000;0.2393;0.0454;
1193.1000;0.2409;0.0549;
1193.4000;0.2385;0.0430;
1193.7000;0.2377;0.0430;
1194.0000;0.2385;0.0382;
1194.3000;0.2385;0.0478;
1194.6000;0.2295;0.0287;
1194.9000;0.2385;0.0478;
1195.2000;0.2393;0.0549;
1195.5000;0.2247;0.0119;
1195.8000;0.2385;0.0502;
1196.1000;0.2393;0.0597;
1196.4000;0.2385;0.0573;
1196.7000;0.2377;0.0525;
1197.0000;0.2401;0.0549;
1197.3000;0.2401;0.0573;
1197.6000;0.2393;0.0597;
1197.9000;0.2385;0.0597;
1198.2000;0.2409;0.0597;
1198.5000;0.2385;0.0573;
1198.8000;0.2401;0.0573;
1199.1000;0.2409;0.0478;
1199.4000;0.2401;0.0549;
1199.7000;0.2409;0.0454;
1200.0000;0.2393;0.0406;
1200.3000;0.2385;0.0382;
1200.6000;0.2401;0.0502;
1200.9000;0.2426;0.0621;
1201.2000;0.2401;0.0502;
1201.5000;0.2393;0.0502;
1201.8000;0.2393;0.0549;
1202.1000;0.2385;0.0478;
1202.4000;0.2393;0.0549;
1202.7000;0.2377;0.0502;
1203.0000;0.2401;0.0525;
1203.3000;0.2385;0.0478;
1203.6000;0.2393;0.0549;
1203.9000;0.2361;0.0525;
1204.2000;0.2426;0.0716;
1204.5000;0.2409;0.0645;
1204.8000;0.2393;0.0573;
1205.1000;0.2369;0.0454;
1205.4000;0.2385;0.0621;
1205.7000;0.2401;0.0597;
1206.0000;0.2393;0.0645;
1206.3000;0.2377;0.0573;
1206.6000;0.2377;0.0502;
1206.9000;0.2385;0.0478;
1207.2000;0.2393;0.0525;
1207.5000;0.2393;0.0502;
1207.8000;0.2377;0.0502;
1208.1000;0.2409;0.0549;
1208.4000;0.2401;0.0549;
1208.7000;0.2401;0.0645;
1209.0000;0.2401;0.0669;
1209.3000;0.2401;0.0645;
1209.6000;0.2434;0.0764;
1209.9000;0.2393;0.0764;
1210.2000;0.2377;0.0621;
1210.5000;0.2385;0.0597;
1210.8000;0.2401;0.0597;
1211.1000;0.2320;0.0430;
1211.4000;0.2385;0.0597;
1211.7000;0.2418;0.0669;
1212.0000;0.2393;0.0669;
1212.3000;0.2434;0.0764;
1212.6000;0.2361;0.0573;
1212.9000;0.2385;0.0669;
1213.2000;0.2385;0.0573;
1213.5000;0.2434;0.0669;
1213.8000;0.2369;0.0502;
1214.1000;0.2401;0.0525;
1214.4000;0.2450;0.0573;
1214.7000;0.2418;0.0549;
1215.0000;0.2385;0.0454;
1215.3000;0.2369;0.0454;
1215.6000;0.2401;0.0645;
1215.9000;0.2409;0.0669;
1216.2000;0.2434;0.0669;
1216.5000;0.2393;0.0573;
1216.8000;0.2385;0.0502;
1217.1000;0.2401;0.0502;
1217.4000;0.2409;0.0621;
1217.7000;0.2401;0.0621;
1218.0000;0.2385;0.0597;
1218.3000;0.2385;0.0478;
1218.6000;0.2393;0.0430;
1218.9000;0.2401;0.0406;
1219.2000;0.2385;0.0382;
1219.5000;0.2385;0.0382;
1219.8000;0.2401;0.0406;
1220.1000;0.2409;0.0430;
1220.4000;0.2393;0.0454;
1220.7000;0.2393;0.0430;
1221.0000;0.2385;0.0502;
1221.3000;0.2393;0.0478;
1221.6000;0.2385;0.0454;
1221.9000;0.2344;0.0382;
1222.2000;0.2393;0.0645;
1222.5000;0.2385;0.0645;
1222.8000;0.2385;0.0669;
1223.1000;0.2393;0.0573;
1223.4000;0.2401;0.0597;
1223.7000;0.2320;0.0406;
1224.0000;0.2361;0.0597;
1224.3000;0.2401;0.0764;
1224.6000;0.2377;0.0693;
1224.9000;0.2401;0.0645;
1225.2000;0.2409;0.0621;
1225.5000;0.2393;0.0597;
1225.8000;0.2393;0.0621;
1226.1000;0.2344;0.0430;
1226.4000;0.2409;0.0525;
1226.7000;0.2393;0.0454;
1227.0000;0.2385;0.0430;
1227.3000;0.2385;0.0358;
1227.6000;0.2466;0.0549;
1227.9000;0.2401;0.0406;
1228.2000;0.2393;0.0454;
1228.5000;0.2401;0.0382;
1228.8000;0.2401;0.0382;
1229.1000;0.2328;0.0239;
1229.4000;0.2401;0.0430;
1229.7000;0.2393;0.0358;
1230.0000;0.2385;0.0406;
1230.3000;0.2377;0.0382;
1230.6000;0.2336;0.0334;
1230.9000;0.2401;0.0525;
1231.2000;0.2393;0.0549;
1231.5000;0.2409;0.0621;
1231.8000;0.2401;0.0597;
1232.1000;0.2385;0.0502;
1232.4000;0.2426;0.0573;
1232.7000;0.2393;0.0549;
1233.0000;0.2385;0.0573;
1233.3000;0.2393;0.0549;
1233.6000;0.2385;0.0573;
1233.9000;0.2409;0.0573;
1234.2000;0.2344;0.0358;
1234.5000;0.2385;0.0454;
1234.8000;0.2393;0.0549;
1235.1000;0.2409;0.0669;
1235.4000;0.2369;0.0621;
1235.7000;0.2491;0.0931;
1236.0000;0.2458;0.0860;
1236.3000;0.2409;0.0693;
1236.6000;0.2393;0.0716;
1236.9000;0.2361;0.0693;
1237.2000;0.2385;0.0716;
1237.5000;0.2304;0.0549;
1237.8000;0.2409;0.0860;
1238.1000;0.2401;0.0812;
1238.4000;0.2279;0.0525;
1238.7000;0.2393;0.0788;
1239.0000;0.2418;0.0788;
1239.3000;0.2418;0.0645;
1239.6000;0.2385;0.0549;
1239.9000;0.2393;0.0645;
1240.2000;0.2393;0.0669;
1240.5000;0.2369;0.0573;
1240.8000;0.2377;0.0573;
1241.1000;0.2369;0.0502;
1241.4000;0.2401;0.0573;
1241.7000;0.2401;0.0573;
1242.0000;0.2393;0.0645;
1242.3000;0.2385;0.0549;
1242.6000;0.2361;0.0502;
1242.9000;0.2393;0.0597;
1243.2000;0.2393;0.0669;
1243.5000;0.2295;0.0310;
1243.8000;0.2393;0.0597;
1244.1000;0.2336;0.0454;
1244.4000;0.2409;0.0478;
1244.7000;0.2450;0.0621;
1245.0000;0.2418;0.0573;
1245.3000;0.2385;0.0621;
1245.6000;0.2409;0.0693;
1245.9000;0.2336;0.0621;
1246.2000;0.2369;0.0788;
1246.5000;0.2426;0.0908;
1246.8000;0.2401;0.0860;
1247.1000;0.2369;0.0693;
1247.4000;0.2393;0.0764;
1247.7000;0.2401;0.0645;
1248.0000;0.2393;0.0645;
1248.3000;0.2361;0.0621;
1248.6000;0.2352;0.0621;
1248.9000;0.2409;0.0669;
1249.2000;0.2393;0.0716;
1249.5000;0.2369;0.0597;
1249.8000;0.2393;0.0740;
1250.1000;0.2401;0.0693;
1250.4000;0.2385;0.0740;
1250.7000;0.2385;0.0812;
1251.0000;0.2393;0.0812;
1251.3000;0.2385;0.0788;
1251.6000;0.2344;0.0669;
1251.9000;0.2393;0.0740;
1252.2000;0.2491;0.0860;
1252.5000;0.2442;0.0788;
1252.8000;0.2344;0.0573;
1253.1000;0.2393;0.0621;
1253.4000;0.2426;0.0764;
1253.7000;0.2385;0.0621;
1254.0000;0.2377;0.0382;
1254.3000;0.2393;0.0430;
1254.6000;0.2434;0.0621;
1254.9000;0.2401;0.0597;
1255.2000;0.2475;0.0812;
1255.5000;0.2369;0.0573;
1255.8000;0.2475;0.0836;
1256.1000;0.2369;0.0669;
1256.4000;0.2377;0.0716;
1256.7000;0.2409;0.0621;
1257.0000;0.2475;0.0788;
1257.3000;0.2401;0.0669;
1257.6000;0.2385;0.0621;
1257.9000;0.2377;0.0597;
1258.2000;0.2385;0.0669;
1258.5000;0.2361;0.0549;
1258.8000;0.2385;0.0597;
1259.1000;0.2393;0.0549;
1259.4000;0.2401;0.0502;
1259.7000;0.2385;0.0525;
1260.0000;0.2385;0.0669;
1260.3000;0.2426;0.0836;
1260.6000;0.2361;0.0621;
1260.9000;0.2409;0.0740;
1261.2000;0.2401;0.0764;
1261.5000;0.2426;0.0788;
1261.8000;0.2393;0.0645;
1262.1000;0.2401;0.0716;
1262.4000;0.2418;0.0669;
1262.7000;0.2393;0.0597;
1263.0000;0.2393;0.0621;
1263.3000;0.2409;0.0621;
1263.6000;0.2418;0.0621;
1263.9000;0.2385;0.0525;
1264.2000;0.2385;0.0525;
1264.5000;0.2418;0.0669;
1264.8000;0.2385;0.0573;
1265.1000;0.2418;0.0621;
1265.4000;0.2401;0.0549;
1265.7000;0.2409;0.0549;
1266.0000;0.2401;0.0549;
1266.3000;0.2393;0.0478;
1266.6000;0.2377;0.0334;
1266.9000;0.2466;0.0621;
1267.2000;0.2393;0.0597;
1267.5000;0.2385;0.0573;
1267.8000;0.2401;0.0645;
1268.1000;0.2426;0.0693;
1268.4000;0.2401;0.0693;
1268.7000;0.2393;0.0669;
1269.0000;0.2393;0.0716;
1269.3000;0.2401;0.0788;
1269.6000;0.2409;0.0812;
1269.9000;0.2385;0.0693;
1270.2000;0.2393;0.0716;
1270.5000;0.2385;0.0693;
1270.8000;0.2393;0.0764;
1271.1000;0.2393;0.0788;
1271.4000;0.2377;0.0764;
1271.7000;0.2409;0.0836;
1272.0000;0.2401;0.0836;
1272.3000;0.2401;0.0788;
1272.6000;0.2393;0.0788;
1272.9000;0.2369;0.0860;
1273.2000;0.2409;0.0955;
1273.5000;0.2401;0.0836;
1273.8000;0.2401;0.0860;
1274.1000;0.2393;0.0788;
1274.4000;0.2393;0.0764;
1274.7000;0.2369;0.0693;
1275.0000;0.2401;0.0788;
1275.3000;0.2409;0.0693;
1275.6000;0.2352;0.0549;
1275.9000;0.2393;0.0693;
1276.2000;0.2393;0.0716;
1276.5000;0.2401;0.0669;
1276.8000;0.2442;0.0812;
1277.1000;0.2369;0.0693;
1277.4000;0.2385;0.0716;
1277.7000;0.2393;0.0669;
1278.0000;0.2393;0.0693;
1278.3000;0.2401;0.0669;
1278.6000;0.2401;0.0693;
1278.9000;0.2401;0.0740;
1279.2000;0.2320;0.0525;
1279.5000;0.2377;0.0621;
1279.8000;0.2393;0.0621;
1280.1000;0.2401;0.0764;
1280.4000;0.2393;0.0693;
1280.7000;0.2369;0.0597;
1281.0000;0.2401;0.0693;
1281.3000;0.2393;0.0693;
1281.6000;0.2409;0.0812;
1281.9000;0.2401;0.0836;
1282.2000;0.2393;0.0836;
1282.5000;0.2458;0.0908;
1282.8000;0.2409;0.0764;
1283.1000;0.2515;0.0979;
1283.4000;0.2279;0.0454;
1283.7000;0.2409;0.0788;
1284.0000;0.2401;0.0812;
1284.3000;0.2483;0.1075;
1284.6000;0.2393;0.0836;
1284.9000;0.2385;0.0764;
1285.2000;0.2361;0.0693;
1285.5000;0.2409;0.0740;
1285.8000;0.2377;0.0621;
1286.1000;0.2336;0.0549;
1286.4000;0.2385;0.0716;
1286.7000;0.2385;0.0788;
1287.0000;0.2401;0.0860;
1287.3000;0.2466;0.1099;
1287.6000;0.2393;0.0908;
1287.9000;0.2393;0.0860;
1288.2000;0.2401;0.0860;
1288.5000;0.2409;0.0908;
1288.8000;0.2401;0.0788;
1289.1000;0.2409;0.0788;
1289.4000;0.2385;0.0740;
1289.7000;0.2401;0.0740;
1290.0000;0.2418;0.0836;
1290.3000;0.2393;0.0788;
1290.6000;0.2385;0.0788;
1290.9000;0.2377;0.0812;
1291.2000;0.2401;0.0884;
1291.5000;0.2409;0.0884;
1291.8000;0.2385;0.0884;
1292.1000;0.2393;0.0908;
1292.4000;0.2385;0.0836;
1292.7000;0.2377;0.0812;
1293.0000;0.2401;0.0860;
1293.3000;0.2401;0.0884;
1293.6000;0.2409;0.0860;
1293.9000;0.2287;0.0597;
1294.2000;0.2393;0.0788;
1294.5000;0.2393;0.0836;
1294.8000;0.2377;0.0812;
1295.1000;0.2385;0.0884;
1295.4000;0.2401;0.0836;
1295.7000;0.2401;0.0860;
1296.0000;0.2393;0.0860;
1296.3000;0.2401;0.0860;
1296.6000;0.2409;0.0931;
1296.9000;0.2352;0.0764;
1297.2000;0.2393;0.0812;
1297.5000;0.2450;0.0955;
1297.8000;0.2401;0.0884;
1298.1000;0.2377;0.0836;
1298.4000;0.2401;0.0908;
1298.7000;0.2393;0.0884;
1299.0000;0.2401;0.0884;
1299.3000;0.2523;0.1194;
1299.6000;0.2393;0.0860;
1299.9000;0.2393;0.0860;
1300.2000;0.2409;0.0884;
1300.5000;0.2418;0.0860;
1300.8000;0.2385;0.0788;
1301.1000;0.2352;0.0740;
1301.4000;0.2401;0.0836;
1301.7000;0.2434;0.0931;
1302.0000;0.2369;0.0788;
1302.3000;0.2385;0.0812;
1302.6000;0.2409;0.0836;
1302.9000;0.2409;0.0884;
1303.2000;0.2385;0.0836;
1303.5000;0.2377;0.0884;
1303.8000;0.2385;0.0884;
1304.1000;0.2450;0.0955;
1304.4000;0.2385;0.0764;
1304.7000;0.2377;0.0740;
1305.0000;0.2401;0.0860;
1305.3000;0.2377;0.0884;
1305.6000;0.2377;0.0979;
1305.9000;0.2377;0.0979;
1306.2000;0.2442;0.1122;
1306.5000;0.2409;0.0979;
1306.8000;0.2409;0.0979;
1307.1000;0.2434;0.1099;
1307.4000;0.2393;0.0955;
1307.7000;0.2393;0.0979;
1308.0000;0.2393;0.0884;
1308.3000;0.2401;0.0931;
1308.6000;0.2393;0.0860;
1308.9000;0.2352;0.0812;
1309.2000;0.2385;0.0884;
1309.5000;0.2393;0.0860;
1309.8000;0.2377;0.0788;
1310.1000;0.2385;0.0812;
1310.4000;0.2393;0.0908;
1310.7000;0.2450;0.1099;
1311.0000;0.2393;0.0860;
1311.3000;0.2409;0.0931;
1311.6000;0.2377;0.0908;
1311.9000;0.2409;0.1027;
1312.2000;0.2401;0.0931;
1312.5000;0.2401;0.0860;
1312.8000;0.2409;0.0812;
1313.1000;0.2401;0.0860;
1313.4000;0.2418;0.0955;
1313.7000;0.2401;0.0860;
1314.0000;0.2458;0.1027;
1314.3000;0.2409;0.0908;
1314.6000;0.2393;0.0931;
1314.9000;0.2263;0.0669;
1315.2000;0.2393;0.1051;
1315.5000;0.2426;0.1122;
1315.8000;0.2401;0.1075;
1316.1000;0.2328;0.0955;
1316.4000;0.2385;0.0979;
1316.7000;0.2393;0.1003;
1317.0000;0.2385;0.0931;
1317.3000;0.2385;0.0931;
1317.6000;0.2401;0.0979;
1317.9000;0.2304;0.0669;
1318.2000;0.2401;0.1051;
1318.5000;0.2393;0.0931;
1318.8000;0.2393;0.0884;
1319.1000;0.2434;0.0860;
1319.4000;0.2377;0.0764;
1319.7000;0.2393;0.0931;
1320.0000;0.2385;0.1027;
1320.3000;0.2401;0.1051;
1320.6000;0.2401;0.1027;
1320.9000;0.2393;0.1027;
1321.2000;0.2385;0.0979;
1321.5000;0.2377;0.0955;
1321.8000;0.2393;0.1051;
1322.1000;0.2385;0.0979;
1322.4000;0.2336;0.0812;
1322.7000;0.2377;0.0908;
1323.0000;0.2377;0.0836;
1323.3000;0.2393;0.0836;
1323.6000;0.2401;0.0860;
1323.9000;0.2377;0.0788;
1324.2000;0.2401;0.0764;
1324.5000;0.2401;0.0716;
1324.8000;0.2401;0.0716;
1325.1000;0.2401;0.0788;
1325.4000;0.2393;0.0764;
1325.7000;0.2377;0.0740;
1326.0000;0.2401;0.0812;
1326.3000;0.2385;0.0812;
1326.6000;0.2377;0.0764;
1326.9000;0.2377;0.0788;
1327.2000;0.2377;0.0836;
1327.5000;0.2393;0.0836;
1327.8000;0.2385;0.0788;
1328.1000;0.2369;0.0669;
1328.4000;0.2385;0.0740;
1328.7000;0.2385;0.0788;
1329.0000;0.2369;0.0812;
1329.3000;0.2393;0.0860;
1329.6000;0.2393;0.0836;
1329.9000;0.2385;0.0788;
1330.2000;0.2312;0.0621;
1330.5000;0.2409;0.0836;
1330.8000;0.2393;0.0788;
1331.1000;0.2393;0.0788;
1331.4000;0.2409;0.0812;
1331.7000;0.2369;0.0693;
1332.0000;0.2393;0.0788;
1332.3000;0.2466;0.0931;
1332.6000;0.2401;0.0740;
1332.9000;0.2377;0.0621;
1333.2000;0.2385;0.0621;
1333.5000;0.2385;0.0621;
1333.8000;0.2401;0.0693;
1334.1000;0.2377;0.0740;
1334.4000;0.2377;0.0669;
1334.7000;0.2385;0.0693;
1335.0000;0.2409;0.0669;
1335.3000;0.2369;0.0573;
1335.6000;0.2377;0.0549;
1335.9000;0.2393;0.0573;
1336.2000;0.2409;0.0525;
1336.5000;0.2385;0.0549;
1336.8000;0.2401;0.0621;
1337.1000;0.2401;0.0597;
1337.4000;0.2385;0.0573;
1337.7000;0.2401;0.0645;
1338.0000;0.2336;0.0525;
1338.3000;0.2401;0.0716;
1338.6000;0.2409;0.0693;
1338.9000;0.2401;0.0669;
1339.2000;0.2401;0.0740;
1339.5000;0.2393;0.0764;
1339.8000;0.2418;0.0788;
1340.1000;0.2466;0.0955;
1340.4000;0.2458;0.0908;
1340.7000;0.2287;0.0549;
1341.0000;0.2401;0.0812;
1341.3000;0.2409;0.0764;
1341.6000;0.2344;0.0549;
1341.9000;0.2385;0.0693;
1342.2000;0.2369;0.0645;
1342.5000;0.2401;0.0764;
1342.8000;0.2393;0.0693;
1343.1000;0.2393;0.0669;
1343.4000;0.2393;0.0645;
1343.7000;0.2409;0.0740;
1344.0000;0.2418;0.0621;
1344.3000;0.2393;0.0478;
1344.6000;0.2393;0.0478;
1344.9000;0.2442;0.0621;
1345.2000;0.2393;0.0549;
1345.5000;0.2418;0.0573;
1345.8000;0.2393;0.0549;
1346.1000;0.2385;0.0573;
1346.4000;0.2401;0.0573;
1346.7000;0.2393;0.0597;
1347.0000;0.2401;0.0645;
1347.3000;0.2393;0.0573;
1347.6000;0.2401;0.0549;
1347.9000;0.2393;0.0454;
1348.2000;0.2409;0.0502;
1348.5000;0.2385;0.0573;
1348.8000;0.2393;0.0621;
1349.1000;0.2409;0.0669;
1349.4000;0.2401;0.0764;
1349.7000;0.2377;0.0669;
1350.0000;0.2426;0.0788;
1350.3000;0.2385;0.0716;
1350.6000;0.2393;0.0669;
1350.9000;0.2385;0.0621;
1351.2000;0.2434;0.0693;
1351.5000;0.2409;0.0525;
1351.8000;0.2393;0.0597;
1352.1000;0.2393;0.0669;
1352.4000;0.2409;0.0693;
1352.7000;0.2393;0.0645;
1353.0000;0.2401;0.0669;
1353.3000;0.2369;0.0669;
1353.6000;0.2401;0.0669;
1353.9000;0.2409;0.0669;
1354.2000;0.2401;0.0693;
1354.5000;0.2393;0.0764;
1354.8000;0.2385;0.0716;
1355.1000;0.2385;0.0669;
1355.4000;0.2401;0.0716;
1355.7000;0.2377;0.0645;
1356.0000;0.2393;0.0645;
1356.3000;0.2328;0.0454;
1356.6000;0.2409;0.0669;
1356.9000;0.2393;0.0597;
1357.2000;0.2385;0.0549;
1357.5000;0.2385;0.0478;
1357.8000;0.2393;0.0454;
1358.1000;0.2409;0.0430;
1358.4000;0.2409;0.0406;
1358.7000;0.2393;0.0430;
1359.0000;0.2418;0.0478;
1359.3000;0.2409;0.0454;
1359.6000;0.2393;0.0382;
1359.9000;0.2434;0.0478;
1360.2000;0.2393;0.0406;
1360.5000;0.2426;0.0382;
1360.8000;0.2385;0.0263;
1361.1000;0.2393;0.0239;
1361.4000;0.2393;0.0310;
1361.7000;0.2450;0.0382;
1362.0000;0.2426;0.0287;
1362.3000;0.2369;0.0119;
1362.6000;0.2369;0.0191;
1362.9000;0.2361;0.0215;
1363.2000;0.2418;0.0310;
1363.5000;0.2377;0.0167;
1363.8000;0.2393;0.0167;
1364.1000;0.2458;0.0215;
1364.4000;0.2385;0.0048;
1364.7000;0.2409;0.0119;
1365.0000;0.2393;0.0191;
1365.3000;0.2401;0.0143;
1365.6000;0.2409;0.0215;
1365.9000;0.2409;0.0215;
1366.2000;0.2401;0.0334;
1366.5000;0.2385;0.0310;
1366.8000;0.2377;0.0406;
1367.1000;0.2409;0.0573;
1367.4000;0.2409;0.0525;
1367.7000;0.2418;0.0573;
1368.0000;0.2401;0.0549;
1368.3000;0.2385;0.0621;
1368.6000;0.2385;0.0502;
1368.9000;0.2361;0.0430;
1369.2000;0.2393;0.0573;
1369.5000;0.2401;0.0597;
1369.8000;0.2409;0.0549;
1370.1000;0.2409;0.0573;
1370.4000;0.2409;0.0525;
1370.7000;0.2483;0.0716;
1371.0000;0.2393;0.0549;
1371.3000;0.2409;0.0621;
1371.6000;0.2426;0.0716;
1371.9000;0.2385;0.0621;
1372.2000;0.2393;0.0645;
1372.5000;0.2393;0.0549;
1372.8000;0.2434;0.0621;
1373.1000;0.2475;0.0716;
1373.4000;0.2312;0.0334;
1373.7000;0.2393;0.0430;
1374.0000;0.2523;0.0740;
1374.3000;0.2418;0.0454;
1374.6000;0.2393;0.0430;
1374.9000;0.2401;0.0597;
1375.2000;0.2393;0.0621;
1375.5000;0.2434;0.0716;
1375.8000;0.2385;0.0597;
1376.1000;0.2328;0.0478;
1376.4000;0.2393;0.0669;
1376.7000;0.2393;0.0645;
1377.0000;0.2385;0.0502;
1377.3000;0.2401;0.0549;
1377.6000;0.2393;0.0454;
1377.9000;0.2393;0.0454;
1378.2000;0.2304;0.0263;
1378.5000;0.2393;0.0406;
1378.8000;0.2409;0.0478;
1379.1000;0.2287;0.0119;
1379.4000;0.2385;0.0406;
1379.7000;0.2418;0.0502;
1380.0000;0.2393;0.0597;
1380.3000;0.2377;0.0621;
1380.6000;0.2401;0.0669;
1380.9000;0.2401;0.0693;
1381.2000;0.2385;0.0597;
1381.5000;0.2401;0.0549;
1381.8000;0.2393;0.0645;
1382.1000;0.2377;0.0669;
1382.4000;0.2377;0.0740;
1382.7000;0.2361;0.0764;
1383.0000;0.2385;0.0788;
1383.3000;0.2377;0.0669;
1383.6000;0.2393;0.0740;
1383.9000;0.2393;0.0764;
1384.2000;0.2401;0.0788;
1384.5000;0.2361;0.0669;
1384.8000;0.2377;0.0788;
1385.1000;0.2426;0.0788;
1385.4000;0.2393;0.0716;
1385.7000;0.2344;0.0525;
1386.0000;0.2393;0.0669;
1386.3000;0.2393;0.0573;
1386.6000;0.2393;0.0597;
1386.9000;0.2393;0.0621;
1387.2000;0.2385;0.0645;
1387.5000;0.2385;0.0621;
1387.8000;0.2377;0.0621;
1388.1000;0.2377;0.0693;
1388.4000;0.2401;0.0764;
1388.7000;0.2409;0.0740;
1389.0000;0.2336;0.0502;
1389.3000;0.2401;0.0693;
1389.6000;0.2418;0.0788;
1389.9000;0.2409;0.0716;
1390.2000;0.2401;0.0740;
1390.5000;0.2401;0.0764;
1390.8000;0.2418;0.0908;
1391.1000;0.2401;0.0788;
1391.4000;0.2328;0.0597;
1391.7000;0.2401;0.0788;
1392.0000;0.2385;0.0693;
1392.3000;0.2385;0.0740;
1392.6000;0.2418;0.0788;
1392.9000;0.2385;0.0716;
1393.2000;0.2393;0.0645;
1393.5000;0.2401;0.0669;
1393.8000;0.2409;0.0669;
1394.1000;0.2352;0.0525;
1394.4000;0.2409;0.0716;
1394.7000;0.2369;0.0573;
1395.0000;0.2385;0.0621;
1395.3000;0.2344;0.0430;
1395.6000;0.2361;0.0478;
1395.9000;0.2393;0.0502;
1396.2000;0.2344;0.0454;
1396.5000;0.2377;0.0621;
1396.8000;0.2385;0.0645;
1397.1000;0.2393;0.0693;
1397.4000;0.2401;0.0645;
1397.7000;0.2393;0.0645;
1398.0000;0.2369;0.0716;
1398.3000;0.2385;0.0716;
1398.6000;0.2377;0.0716;
1398.9000;0.2409;0.0740;
1399.2000;0.2401;0.0764;
1399.5000;0.2369;0.0764;
1399.8000;0.2377;0.0764;
